time/ms;Fluo/V;P700 deltaI/I x10³;
-199.8000;0.5600;-3.3597;
-199.5000;0.5592;-3.3597;
-199.2000;0.5576;-3.3646;
-198.9000;0.5592;-3.3621;
-198.6000;0.5568;-3.3746;
-198.3000;0.5560;-3.3796;
-198.0000;0.5600;-3.3646;
-197.7000;0.5608;-3.3572;
-197.4000;0.5608;-3.3597;
-197.1000;0.5592;-3.3646;
-196.8000;0.5608;-3.3696;
-196.5000;0.5600;-3.3696;
-196.2000;0.5625;-3.3621;
-195.9000;0.5576;-3.3771;
-195.6000;0.5543;-3.3771;
-195.3000;0.5600;-3.3621;
-195.0000;0.5592;-3.3597;
-194.7000;0.5657;-3.3373;
-194.4000;0.5600;-3.3522;
-194.1000;0.5551;-3.3646;
-193.8000;0.5535;-3.3771;
-193.5000;0.5600;-3.3646;
-193.2000;0.5584;-3.3796;
-192.9000;0.5576;-3.3721;
-192.6000;0.5551;-3.3771;
-192.3000;0.5584;-3.3671;
-192.0000;0.5600;-3.3547;
-191.7000;0.5584;-3.3547;
-191.4000;0.5584;-3.3547;
-191.1000;0.5584;-3.3522;
-190.8000;0.5600;-3.3547;
-190.5000;0.5600;-3.3497;
-190.2000;0.5600;-3.3547;
-189.9000;0.5641;-3.3348;
-189.6000;0.5584;-3.3472;
-189.3000;0.5576;-3.3522;
-189.0000;0.5576;-3.3547;
-188.7000;0.5576;-3.3597;
-188.4000;0.5560;-3.3671;
-188.1000;0.5568;-3.3621;
-187.8000;0.5584;-3.3621;
-187.5000;0.5600;-3.3646;
-187.2000;0.5584;-3.3721;
-186.9000;0.5617;-3.3621;
-186.6000;0.5584;-3.3597;
-186.3000;0.5576;-3.3696;
-186.0000;0.5600;-3.3572;
-185.7000;0.5608;-3.3597;
-185.4000;0.5592;-3.3646;
-185.1000;0.5576;-3.3671;
-184.8000;0.5592;-3.3646;
-184.5000;0.5608;-3.3721;
-184.2000;0.5625;-3.3646;
-183.9000;0.5617;-3.3696;
-183.6000;0.5592;-3.3746;
-183.3000;0.5592;-3.3721;
-183.0000;0.5600;-3.3646;
-182.7000;0.5592;-3.3696;
-182.4000;0.5592;-3.3771;
-182.1000;0.5608;-3.3845;
-181.8000;0.5600;-3.3870;
-181.5000;0.5600;-3.3820;
-181.2000;0.5592;-3.3696;
-180.9000;0.5625;-3.3646;
-180.6000;0.5608;-3.3671;
-180.3000;0.5608;-3.3621;
-180.0000;0.5584;-3.3472;
-179.7000;0.5551;-3.3447;
-179.4000;0.5633;-3.3348;
-179.1000;0.5600;-3.3497;
-178.8000;0.5592;-3.3522;
-178.5000;0.5568;-3.3597;
-178.2000;0.5617;-3.3447;
-177.9000;0.5527;-3.3646;
-177.6000;0.5592;-3.3572;
-177.3000;0.5625;-3.3547;
-177.0000;0.5584;-3.3646;
-176.7000;0.5592;-3.3696;
-176.4000;0.5584;-3.3646;
-176.1000;0.5600;-3.3646;
-175.8000;0.5592;-3.3621;
-175.5000;0.5592;-3.3646;
-175.2000;0.5576;-3.3671;
-174.9000;0.5600;-3.3646;
-174.6000;0.5592;-3.3621;
-174.3000;0.5576;-3.3721;
-174.0000;0.5584;-3.3746;
-173.7000;0.5592;-3.3796;
-173.4000;0.5551;-3.3796;
-173.1000;0.5568;-3.3671;
-172.8000;0.5592;-3.3547;
-172.5000;0.5600;-3.3522;
-172.2000;0.5592;-3.3572;
-171.9000;0.5592;-3.3522;
-171.6000;0.5600;-3.3597;
-171.3000;0.5592;-3.3671;
-171.0000;0.5617;-3.3646;
-170.7000;0.5584;-3.3746;
-170.4000;0.5576;-3.3796;
-170.1000;0.5641;-3.3646;
-169.8000;0.5592;-3.3696;
-169.5000;0.5592;-3.3746;
-169.2000;0.5608;-3.3721;
-168.9000;0.5560;-3.3820;
-168.6000;0.5600;-3.3671;
-168.3000;0.5592;-3.3696;
-168.0000;0.5592;-3.3646;
-167.7000;0.5617;-3.3621;
-167.4000;0.5592;-3.3721;
-167.1000;0.5576;-3.3746;
-166.8000;0.5592;-3.3721;
-166.5000;0.5584;-3.3771;
-166.2000;0.5568;-3.3796;
-165.9000;0.5576;-3.3771;
-165.6000;0.5592;-3.3771;
-165.3000;0.5584;-3.3746;
-165.0000;0.5600;-3.3746;
-164.7000;0.5600;-3.3696;
-164.4000;0.5600;-3.3646;
-164.1000;0.5568;-3.3721;
-163.8000;0.5600;-3.3746;
-163.5000;0.5592;-3.3671;
-163.2000;0.5600;-3.3671;
-162.9000;0.5600;-3.3696;
-162.6000;0.5657;-3.3646;
-162.3000;0.5600;-3.3771;
-162.0000;0.5608;-3.3746;
-161.7000;0.5568;-3.3845;
-161.4000;0.5592;-3.3721;
-161.1000;0.5584;-3.3820;
-160.8000;0.5608;-3.3721;
-160.5000;0.5649;-3.3671;
-160.2000;0.5576;-3.3796;
-159.9000;0.5608;-3.3646;
-159.6000;0.5600;-3.3621;
-159.3000;0.5592;-3.3721;
-159.0000;0.5617;-3.3771;
-158.7000;0.5600;-3.3721;
-158.4000;0.5592;-3.3746;
-158.1000;0.5608;-3.3671;
-157.8000;0.5625;-3.3696;
-157.5000;0.5600;-3.3746;
-157.2000;0.5617;-3.3746;
-156.9000;0.5608;-3.3746;
-156.6000;0.5592;-3.3721;
-156.3000;0.5633;-3.3721;
-156.0000;0.5665;-3.3721;
-155.7000;0.5600;-3.3820;
-155.4000;0.5665;-3.3646;
-155.1000;0.5584;-3.3845;
-154.8000;0.5576;-3.3796;
-154.5000;0.5641;-3.3597;
-154.2000;0.5592;-3.3646;
-153.9000;0.5625;-3.3621;
-153.6000;0.5690;-3.3447;
-153.3000;0.5560;-3.3721;
-153.0000;0.5600;-3.3671;
-152.7000;0.5592;-3.3621;
-152.4000;0.5649;-3.3447;
-152.1000;0.5592;-3.3497;
-151.8000;0.5592;-3.3497;
-151.5000;0.5576;-3.3522;
-151.2000;0.5592;-3.3522;
-150.9000;0.5584;-3.3572;
-150.6000;0.5600;-3.3497;
-150.3000;0.5617;-3.3422;
-150.0000;0.5608;-3.3522;
-149.7000;0.5584;-3.3547;
-149.4000;0.5592;-3.3497;
-149.1000;0.5584;-3.3547;
-148.8000;0.5600;-3.3621;
-148.5000;0.5608;-3.3696;
-148.2000;0.5592;-3.3796;
-147.9000;0.5600;-3.3721;
-147.6000;0.5608;-3.3721;
-147.3000;0.5584;-3.3771;
-147.0000;0.5592;-3.3796;
-146.7000;0.5600;-3.3845;
-146.4000;0.5592;-3.3870;
-146.1000;0.5592;-3.3895;
-145.8000;0.5617;-3.3870;
-145.5000;0.5608;-3.3920;
-145.2000;0.5608;-3.4019;
-144.9000;0.5625;-3.3945;
-144.6000;0.5592;-3.3994;
-144.3000;0.5576;-3.4044;
-144.0000;0.5600;-3.3970;
-143.7000;0.5600;-3.3970;
-143.4000;0.5592;-3.4044;
-143.1000;0.5592;-3.4094;
-142.8000;0.5584;-3.4119;
-142.5000;0.5608;-3.4069;
-142.2000;0.5592;-3.3994;
-141.9000;0.5584;-3.4094;
-141.6000;0.5584;-3.4144;
-141.3000;0.5584;-3.4169;
-141.0000;0.5584;-3.4193;
-140.7000;0.5633;-3.3920;
-140.4000;0.5617;-3.3920;
-140.1000;0.5592;-3.3920;
-139.8000;0.5608;-3.3870;
-139.5000;0.5600;-3.3845;
-139.2000;0.5584;-3.3870;
-138.9000;0.5600;-3.3771;
-138.6000;0.5600;-3.3696;
-138.3000;0.5592;-3.3721;
-138.0000;0.5600;-3.3771;
-137.7000;0.5576;-3.3771;
-137.4000;0.5600;-3.3671;
-137.1000;0.5600;-3.3721;
-136.8000;0.5584;-3.3820;
-136.5000;0.5584;-3.3771;
-136.2000;0.5592;-3.3696;
-135.9000;0.5584;-3.3796;
-135.6000;0.5608;-3.3696;
-135.3000;0.5608;-3.3696;
-135.0000;0.5608;-3.3771;
-134.7000;0.5600;-3.3771;
-134.4000;0.5592;-3.3845;
-134.1000;0.5608;-3.3771;
-133.8000;0.5592;-3.3796;
-133.5000;0.5584;-3.3820;
-133.2000;0.5617;-3.3796;
-132.9000;0.5592;-3.3820;
-132.6000;0.5625;-3.3746;
-132.3000;0.5600;-3.3746;
-132.0000;0.5657;-3.3671;
-131.7000;0.5617;-3.3820;
-131.4000;0.5584;-3.3920;
-131.1000;0.5592;-3.3970;
-130.8000;0.5600;-3.3920;
-130.5000;0.5600;-3.3895;
-130.2000;0.5592;-3.3895;
-129.9000;0.5600;-3.3895;
-129.6000;0.5592;-3.3820;
-129.3000;0.5600;-3.3746;
-129.0000;0.5600;-3.3746;
-128.7000;0.5584;-3.3746;
-128.4000;0.5608;-3.3696;
-128.1000;0.5608;-3.3721;
-127.8000;0.5576;-3.3796;
-127.5000;0.5600;-3.3895;
-127.2000;0.5592;-3.4069;
-126.9000;0.5625;-3.3920;
-126.6000;0.5592;-3.3870;
-126.3000;0.5592;-3.3845;
-126.0000;0.5584;-3.3845;
-125.7000;0.5584;-3.3721;
-125.4000;0.5576;-3.3696;
-125.1000;0.5576;-3.3696;
-124.8000;0.5576;-3.3696;
-124.5000;0.5608;-3.3646;
-124.2000;0.5592;-3.3671;
-123.9000;0.5584;-3.3771;
-123.6000;0.5584;-3.3796;
-123.3000;0.5608;-3.3771;
-123.0000;0.5608;-3.3746;
-122.7000;0.5592;-3.3845;
-122.4000;0.5576;-3.3870;
-122.1000;0.5592;-3.3895;
-121.8000;0.5600;-3.3970;
-121.5000;0.5625;-3.3945;
-121.2000;0.5592;-3.4044;
-120.9000;0.5608;-3.3895;
-120.6000;0.5576;-3.3895;
-120.3000;0.5625;-3.3845;
-120.0000;0.5576;-3.3994;
-119.7000;0.5576;-3.3970;
-119.4000;0.5592;-3.3845;
-119.1000;0.5600;-3.3870;
-118.8000;0.5608;-3.3820;
-118.5000;0.5592;-3.3845;
-118.2000;0.5592;-3.3920;
-117.9000;0.5592;-3.3895;
-117.6000;0.5641;-3.3771;
-117.3000;0.5592;-3.3845;
-117.0000;0.5592;-3.3771;
-116.7000;0.5568;-3.3820;
-116.4000;0.5608;-3.3696;
-116.1000;0.5600;-3.3671;
-115.8000;0.5600;-3.3746;
-115.5000;0.5600;-3.3671;
-115.2000;0.5584;-3.3721;
-114.9000;0.5584;-3.3696;
-114.6000;0.5592;-3.3671;
-114.3000;0.5560;-3.3671;
-114.0000;0.5584;-3.3621;
-113.7000;0.5600;-3.3547;
-113.4000;0.5600;-3.3597;
-113.1000;0.5568;-3.3671;
-112.8000;0.5608;-3.3671;
-112.5000;0.5576;-3.3796;
-112.2000;0.5576;-3.3721;
-111.9000;0.5584;-3.3771;
-111.6000;0.5576;-3.3796;
-111.3000;0.5592;-3.3845;
-111.0000;0.5608;-3.3796;
-110.7000;0.5608;-3.3845;
-110.4000;0.5600;-3.3870;
-110.1000;0.5600;-3.3820;
-109.8000;0.5617;-3.3845;
-109.5000;0.5592;-3.3895;
-109.2000;0.5674;-3.3771;
-108.9000;0.5600;-3.3845;
-108.6000;0.5617;-3.3796;
-108.3000;0.5617;-3.3771;
-108.0000;0.5592;-3.3820;
-107.7000;0.5584;-3.3820;
-107.4000;0.5568;-3.3771;
-107.1000;0.5592;-3.3721;
-106.8000;0.5641;-3.3572;
-106.5000;0.5568;-3.3696;
-106.2000;0.5600;-3.3621;
-105.9000;0.5600;-3.3646;
-105.6000;0.5560;-3.3721;
-105.3000;0.5576;-3.3671;
-105.0000;0.5584;-3.3696;
-104.7000;0.5600;-3.3721;
-104.4000;0.5592;-3.3671;
-104.1000;0.5568;-3.3746;
-103.8000;0.5584;-3.3621;
-103.5000;0.5568;-3.3696;
-103.2000;0.5584;-3.3671;
-102.9000;0.5592;-3.3621;
-102.6000;0.5600;-3.3472;
-102.3000;0.5608;-3.3472;
-102.0000;0.5584;-3.3547;
-101.7000;0.5584;-3.3646;
-101.4000;0.5568;-3.3646;
-101.1000;0.5576;-3.3696;
-100.8000;0.5576;-3.3746;
-100.5000;0.5584;-3.3696;
-100.2000;0.5568;-3.3721;
-99.9000;0.5568;-3.3746;
-99.6000;0.5551;-3.3771;
-99.3000;0.5576;-3.3721;
-99.0000;0.5576;-3.3771;
-98.7000;0.5584;-3.3771;
-98.4000;0.5592;-3.3721;
-98.1000;0.5592;-3.3696;
-97.8000;0.5592;-3.3746;
-97.5000;0.5600;-3.3671;
-97.2000;0.5584;-3.3746;
-96.9000;0.5592;-3.3671;
-96.6000;0.5625;-3.3621;
-96.3000;0.5600;-3.3746;
-96.0000;0.5600;-3.3796;
-95.7000;0.5600;-3.3796;
-95.4000;0.5617;-3.3771;
-95.1000;0.5698;-3.3646;
-94.8000;0.5568;-3.3870;
-94.5000;0.5600;-3.3820;
-94.2000;0.5592;-3.3796;
-93.9000;0.5608;-3.3671;
-93.6000;0.5600;-3.3621;
-93.3000;0.5584;-3.3721;
-93.0000;0.5608;-3.3696;
-92.7000;0.5576;-3.3771;
-92.4000;0.5592;-3.3820;
-92.1000;0.5584;-3.3796;
-91.8000;0.5600;-3.3696;
-91.5000;0.5608;-3.3671;
-91.2000;0.5592;-3.3820;
-90.9000;0.5600;-3.3796;
-90.6000;0.5617;-3.3671;
-90.3000;0.5608;-3.3671;
-90.0000;0.5568;-3.3796;
-89.7000;0.5576;-3.3820;
-89.4000;0.5568;-3.3696;
-89.1000;0.5592;-3.3671;
-88.8000;0.5592;-3.3572;
-88.5000;0.5600;-3.3621;
-88.2000;0.5576;-3.3671;
-87.9000;0.5600;-3.3621;
-87.6000;0.5584;-3.3621;
-87.3000;0.5633;-3.3547;
-87.0000;0.5527;-3.3895;
-86.7000;0.5576;-3.3721;
-86.4000;0.5600;-3.3771;
-86.1000;0.5568;-3.3796;
-85.8000;0.5592;-3.3696;
-85.5000;0.5584;-3.3696;
-85.2000;0.5600;-3.3696;
-84.9000;0.5568;-3.3746;
-84.6000;0.5584;-3.3646;
-84.3000;0.5551;-3.3721;
-84.0000;0.5576;-3.3696;
-83.7000;0.5576;-3.3671;
-83.4000;0.5568;-3.3646;
-83.1000;0.5584;-3.3621;
-82.8000;0.5568;-3.3696;
-82.5000;0.5592;-3.3746;
-82.2000;0.5592;-3.3696;
-81.9000;0.5486;-3.3945;
-81.6000;0.5592;-3.3696;
-81.3000;0.5576;-3.3721;
-81.0000;0.5608;-3.3671;
-80.7000;0.5495;-3.3945;
-80.4000;0.5576;-3.3721;
-80.1000;0.5535;-3.3746;
-79.8000;0.5698;-3.3447;
-79.5000;0.5665;-3.3621;
-79.2000;0.5592;-3.3746;
-78.9000;0.5584;-3.3746;
-78.6000;0.5592;-3.3696;
-78.3000;0.5600;-3.3721;
-78.0000;0.5600;-3.3621;
-77.7000;0.5592;-3.3646;
-77.4000;0.5600;-3.3696;
-77.1000;0.5641;-3.3597;
-76.8000;0.5600;-3.3597;
-76.5000;0.5584;-3.3646;
-76.2000;0.5600;-3.3597;
-75.9000;0.5576;-3.3646;
-75.6000;0.5600;-3.3646;
-75.3000;0.5584;-3.3671;
-75.0000;0.5527;-3.3796;
-74.7000;0.5592;-3.3671;
-74.4000;0.5617;-3.3572;
-74.1000;0.5503;-3.3920;
-73.8000;0.5625;-3.3721;
-73.5000;0.5584;-3.3845;
-73.2000;0.5584;-3.3796;
-72.9000;0.5462;-3.4069;
-72.6000;0.5584;-3.3771;
-72.3000;0.5543;-3.3820;
-72.0000;0.5592;-3.3721;
-71.7000;0.5592;-3.3696;
-71.4000;0.5576;-3.3721;
-71.1000;0.5592;-3.3671;
-70.8000;0.5641;-3.3572;
-70.5000;0.5617;-3.3547;
-70.2000;0.5592;-3.3572;
-69.9000;0.5592;-3.3671;
-69.6000;0.5600;-3.3721;
-69.3000;0.5600;-3.3696;
-69.0000;0.5584;-3.3621;
-68.7000;0.5592;-3.3547;
-68.4000;0.5592;-3.3497;
-68.1000;0.5608;-3.3547;
-67.8000;0.5617;-3.3597;
-67.5000;0.5568;-3.3721;
-67.2000;0.5608;-3.3746;
-66.9000;0.5617;-3.3721;
-66.6000;0.5584;-3.3845;
-66.3000;0.5600;-3.3796;
-66.0000;0.5576;-3.3845;
-65.7000;0.5584;-3.3820;
-65.4000;0.5608;-3.3820;
-65.1000;0.5600;-3.3771;
-64.8000;0.5584;-3.3895;
-64.5000;0.5592;-3.3895;
-64.2000;0.5576;-3.3920;
-63.9000;0.5592;-3.3696;
-63.6000;0.5576;-3.3671;
-63.3000;0.5584;-3.3696;
-63.0000;0.5592;-3.3671;
-62.7000;0.5592;-3.3671;
-62.4000;0.5633;-3.3572;
-62.1000;0.5617;-3.3621;
-61.8000;0.5584;-3.3646;
-61.5000;0.5584;-3.3621;
-61.2000;0.5592;-3.3572;
-60.9000;0.5568;-3.3646;
-60.6000;0.5568;-3.3721;
-60.3000;0.5568;-3.3721;
-60.0000;0.5592;-3.3572;
-59.7000;0.5576;-3.3621;
-59.4000;0.5584;-3.3547;
-59.1000;0.5600;-3.3547;
-58.8000;0.5592;-3.3547;
-58.5000;0.5592;-3.3597;
-58.2000;0.5600;-3.3572;
-57.9000;0.5568;-3.3621;
-57.6000;0.5592;-3.3547;
-57.3000;0.5608;-3.3472;
-57.0000;0.5600;-3.3472;
-56.7000;0.5600;-3.3447;
-56.4000;0.5568;-3.3621;
-56.1000;0.5600;-3.3522;
-55.8000;0.5584;-3.3572;
-55.5000;0.5584;-3.3547;
-55.2000;0.5503;-3.3746;
-54.9000;0.5584;-3.3621;
-54.6000;0.5600;-3.3597;
-54.3000;0.5584;-3.3721;
-54.0000;0.5641;-3.3547;
-53.7000;0.5600;-3.3721;
-53.4000;0.5584;-3.3746;
-53.1000;0.5625;-3.3671;
-52.8000;0.5584;-3.3746;
-52.5000;0.5600;-3.3621;
-52.2000;0.5584;-3.3671;
-51.9000;0.5592;-3.3696;
-51.6000;0.5511;-3.3771;
-51.3000;0.5584;-3.3621;
-51.0000;0.5608;-3.3646;
-50.7000;0.5592;-3.3671;
-50.4000;0.5592;-3.3771;
-50.1000;0.5568;-3.3820;
-49.8000;0.5592;-3.3746;
-49.5000;0.5568;-3.3771;
-49.2000;0.5641;-3.3671;
-48.9000;0.5535;-3.3970;
-48.6000;0.5592;-3.3845;
-48.3000;0.5592;-3.3895;
-48.0000;0.5535;-3.4019;
-47.7000;0.5584;-3.3945;
-47.4000;0.5617;-3.3845;
-47.1000;0.5592;-3.3994;
-46.8000;0.5560;-3.4069;
-46.5000;0.5608;-3.3920;
-46.2000;0.5576;-3.3945;
-45.9000;0.5592;-3.3920;
-45.6000;0.5592;-3.3845;
-45.3000;0.5600;-3.3771;
-45.0000;0.5576;-3.3796;
-44.7000;0.5535;-3.3895;
-44.4000;0.5600;-3.3721;
-44.1000;0.5600;-3.3771;
-43.8000;0.5584;-3.3696;
-43.5000;0.5535;-3.3820;
-43.2000;0.5617;-3.3646;
-42.9000;0.5600;-3.3771;
-42.6000;0.5568;-3.3895;
-42.3000;0.5551;-3.3845;
-42.0000;0.5608;-3.3721;
-41.7000;0.5608;-3.3671;
-41.4000;0.5608;-3.3721;
-41.1000;0.5584;-3.3746;
-40.8000;0.5608;-3.3721;
-40.5000;0.5584;-3.3845;
-40.2000;0.5608;-3.3820;
-39.9000;0.5568;-3.3945;
-39.6000;0.5600;-3.3870;
-39.3000;0.5592;-3.3895;
-39.0000;0.5608;-3.3920;
-38.7000;0.5600;-3.3970;
-38.4000;0.5641;-3.3870;
-38.1000;0.5608;-3.3895;
-37.8000;0.5592;-3.3870;
-37.5000;0.5625;-3.3820;
-37.2000;0.5592;-3.3945;
-36.9000;0.5600;-3.3870;
-36.6000;0.5576;-3.3920;
-36.3000;0.5584;-3.3895;
-36.0000;0.5592;-3.3895;
-35.7000;0.5576;-3.3994;
-35.4000;0.5608;-3.3920;
-35.1000;0.5600;-3.3970;
-34.8000;0.5568;-3.3945;
-34.5000;0.5592;-3.3895;
-34.2000;0.5600;-3.3845;
-33.9000;0.5600;-3.3870;
-33.6000;0.5576;-3.3845;
-33.3000;0.5592;-3.3870;
-33.0000;0.5584;-3.3895;
-32.7000;0.5592;-3.3920;
-32.4000;0.5608;-3.3845;
-32.1000;0.5592;-3.3820;
-31.8000;0.5584;-3.3746;
-31.5000;0.5592;-3.3646;
-31.2000;0.5600;-3.3646;
-30.9000;0.5576;-3.3870;
-30.6000;0.5568;-3.3895;
-30.3000;0.5592;-3.3945;
-30.0000;0.5592;-3.3945;
-29.7000;0.5576;-3.3994;
-29.4000;0.5584;-3.3945;
-29.1000;0.5584;-3.4019;
-28.8000;0.5584;-3.3994;
-28.5000;0.5592;-3.3945;
-28.2000;0.5592;-3.3895;
-27.9000;0.5584;-3.3920;
-27.6000;0.5617;-3.3771;
-27.3000;0.5600;-3.3845;
-27.0000;0.5592;-3.3796;
-26.7000;0.5543;-3.3845;
-26.4000;0.5584;-3.3820;
-26.1000;0.5576;-3.3771;
-25.8000;0.5576;-3.3746;
-25.5000;0.5625;-3.3696;
-25.2000;0.5584;-3.3820;
-24.9000;0.5584;-3.3746;
-24.6000;0.5592;-3.3771;
-24.3000;0.5600;-3.3796;
-24.0000;0.5617;-3.3796;
-23.7000;0.5600;-3.3845;
-23.4000;0.5608;-3.3845;
-23.1000;0.5592;-3.3820;
-22.8000;0.5600;-3.3895;
-22.5000;0.5584;-3.3920;
-22.2000;0.5592;-3.3895;
-21.9000;0.5592;-3.3970;
-21.6000;0.5560;-3.3970;
-21.3000;0.5560;-3.3970;
-21.0000;0.5600;-3.3945;
-20.7000;0.5633;-3.3870;
-20.4000;0.5568;-3.4069;
-20.1000;0.5576;-3.3994;
-19.8000;0.5592;-3.3920;
-19.5000;0.5543;-3.4069;
-19.2000;0.5592;-3.3945;
-18.9000;0.5600;-3.3796;
-18.6000;0.5608;-3.3796;
-18.3000;0.5584;-3.3845;
-18.0000;0.5584;-3.3845;
-17.7000;0.5600;-3.3845;
-17.4000;0.5592;-3.3895;
-17.1000;0.5600;-3.3895;
-16.8000;0.5568;-3.4019;
-16.5000;0.5584;-3.4044;
-16.2000;0.5584;-3.3945;
-15.9000;0.5600;-3.3895;
-15.6000;0.5600;-3.3820;
-15.3000;0.5584;-3.3870;
-15.0000;0.5584;-3.3945;
-14.7000;0.5592;-3.3945;
-14.4000;0.5617;-3.3994;
-14.1000;0.5600;-3.4019;
-13.8000;0.5560;-3.4094;
-13.5000;0.5592;-3.4069;
-13.2000;0.5600;-3.4119;
-12.9000;0.5576;-3.4193;
-12.6000;0.5600;-3.4044;
-12.3000;0.5617;-3.4019;
-12.0000;0.5600;-3.4069;
-11.7000;0.5584;-3.4019;
-11.4000;0.5600;-3.3895;
-11.1000;0.5625;-3.3920;
-10.8000;0.5600;-3.4044;
-10.5000;0.5608;-3.4119;
-10.2000;0.5592;-3.4169;
-9.9000;0.5584;-3.4169;
-9.6000;0.5576;-3.4119;
-9.3000;0.5560;-3.4119;
-9.0000;0.5592;-3.4019;
-8.7000;0.5576;-3.4069;
-8.4000;0.5576;-3.3920;
-8.1000;0.5576;-3.3945;
-7.8000;0.5633;-3.3796;
-7.5000;0.5568;-3.3945;
-7.2000;0.5576;-3.3945;
-6.9000;0.5584;-3.3970;
-6.6000;0.5608;-3.3845;
-6.3000;0.5584;-3.3895;
-6.0000;0.5584;-3.3895;
-5.7000;0.5600;-3.3820;
-5.4000;0.5608;-3.3870;
-5.1000;0.5592;-3.3845;
-4.8000;0.5576;-3.3920;
-4.5000;0.5584;-3.3920;
-4.2000;0.5584;-3.3895;
-3.9000;0.5576;-3.3920;
-3.6000;0.5543;-3.4119;
-3.3000;0.5576;-3.4069;
-3.0000;0.5576;-3.3994;
-2.7000;0.5568;-3.4019;
-2.4000;0.5592;-3.3920;
-2.1000;0.5617;-3.3870;
-1.8000;0.5608;-3.3870;
-1.5000;0.5600;-3.3994;
-1.2000;0.5600;-3.3994;
-0.9000;0.5584;-3.4144;
-0.6000;0.5470;-3.4392;
-0.3000;0.5543;-3.4243;
0.0000;0.5543;-3.4243;
0.3000;0.5706;-3.4069;
0.6000;0.5950;-3.3796;
0.9000;0.6138;-3.3472;
1.2000;0.6284;-3.3298;
1.5000;0.6431;-3.3049;
1.8000;0.6520;-3.2851;
2.1000;0.6602;-3.2602;
2.4000;0.6675;-3.2453;
2.7000;0.6724;-3.2353;
3.0000;0.6764;-3.2254;
3.3000;0.6838;-3.2055;
3.6000;0.6854;-3.2030;
3.9000;0.6903;-3.1806;
4.2000;0.6935;-3.1756;
4.5000;0.6960;-3.1682;
4.8000;0.7000;-3.1607;
5.1000;0.7009;-3.1557;
5.4000;0.7017;-3.1582;
5.7000;0.7025;-3.1533;
6.0000;0.7049;-3.1508;
6.3000;0.7057;-3.1408;
6.6000;0.7098;-3.1433;
6.9000;0.7098;-3.1458;
7.2000;0.7098;-3.1458;
7.5000;0.7114;-3.1483;
7.8000;0.7114;-3.1533;
8.1000;0.7139;-3.1508;
8.4000;0.7123;-3.1557;
8.7000;0.7131;-3.1533;
9.0000;0.7163;-3.1483;
9.3000;0.7155;-3.1508;
9.6000;0.7155;-3.1458;
9.9000;0.7171;-3.1458;
10.2000;0.7131;-3.1557;
10.5000;0.7196;-3.1508;
10.8000;0.7204;-3.1433;
11.1000;0.7220;-3.1408;
11.4000;0.7245;-3.1433;
11.7000;0.7236;-3.1358;
12.0000;0.7236;-3.1433;
12.3000;0.7310;-3.1259;
12.6000;0.7245;-3.1433;
12.9000;0.7261;-3.1408;
13.2000;0.7245;-3.1533;
13.5000;0.7253;-3.1483;
13.8000;0.7253;-3.1607;
14.1000;0.7277;-3.1557;
14.4000;0.7277;-3.1557;
14.7000;0.7269;-3.1632;
15.0000;0.7269;-3.1682;
15.3000;0.7293;-3.1607;
15.6000;0.7277;-3.1657;
15.9000;0.7293;-3.1632;
16.2000;0.7302;-3.1582;
16.5000;0.7285;-3.1557;
16.8000;0.7302;-3.1533;
17.1000;0.7318;-3.1433;
17.4000;0.7302;-3.1408;
17.7000;0.7293;-3.1383;
18.0000;0.7326;-3.1309;
18.3000;0.7310;-3.1334;
18.6000;0.7310;-3.1383;
18.9000;0.7326;-3.1309;
19.2000;0.7326;-3.1358;
19.5000;0.7326;-3.1508;
19.8000;0.7342;-3.1433;
20.1000;0.7318;-3.1458;
20.4000;0.7334;-3.1582;
20.7000;0.7359;-3.1557;
21.0000;0.7326;-3.1582;
21.3000;0.7342;-3.1557;
21.6000;0.7350;-3.1533;
21.9000;0.7342;-3.1533;
22.2000;0.7407;-3.1358;
22.5000;0.7318;-3.1607;
22.8000;0.7359;-3.1533;
23.1000;0.7342;-3.1458;
23.4000;0.7359;-3.1408;
23.7000;0.7359;-3.1458;
24.0000;0.7350;-3.1557;
24.3000;0.7350;-3.1557;
24.6000;0.7359;-3.1607;
24.9000;0.7367;-3.1557;
25.2000;0.7350;-3.1682;
25.5000;0.7359;-3.1657;
25.8000;0.7391;-3.1533;
26.1000;0.7350;-3.1582;
26.4000;0.7367;-3.1508;
26.7000;0.7342;-3.1632;
27.0000;0.7375;-3.1632;
27.3000;0.7391;-3.1533;
27.6000;0.7383;-3.1458;
27.9000;0.7375;-3.1408;
28.2000;0.7375;-3.1458;
28.5000;0.7383;-3.1358;
28.8000;0.7416;-3.1334;
29.1000;0.7391;-3.1433;
29.4000;0.7391;-3.1458;
29.7000;0.7416;-3.1433;
30.0000;0.7399;-3.1458;
30.3000;0.7416;-3.1483;
30.6000;0.7375;-3.1582;
30.9000;0.7399;-3.1533;
31.2000;0.7391;-3.1557;
31.5000;0.7391;-3.1433;
31.8000;0.7391;-3.1433;
32.1000;0.7391;-3.1309;
32.4000;0.7334;-3.1433;
32.7000;0.7407;-3.1234;
33.0000;0.7359;-3.1433;
33.3000;0.7391;-3.1334;
33.6000;0.7416;-3.1284;
33.9000;0.7399;-3.1284;
34.2000;0.7407;-3.1309;
34.5000;0.7399;-3.1309;
34.8000;0.7456;-3.1184;
35.1000;0.7416;-3.1284;
35.4000;0.7407;-3.1309;
35.7000;0.7407;-3.1284;
36.0000;0.7416;-3.1309;
36.3000;0.7424;-3.1334;
36.6000;0.7416;-3.1334;
36.9000;0.7416;-3.1334;
37.2000;0.7399;-3.1433;
37.5000;0.7416;-3.1383;
37.8000;0.7432;-3.1334;
38.1000;0.7416;-3.1358;
38.4000;0.7416;-3.1408;
38.7000;0.7416;-3.1383;
39.0000;0.7416;-3.1334;
39.3000;0.7432;-3.1284;
39.6000;0.7424;-3.1284;
39.9000;0.7318;-3.1483;
40.2000;0.7383;-3.1358;
40.5000;0.7440;-3.1284;
40.8000;0.7416;-3.1284;
41.1000;0.7416;-3.1284;
41.4000;0.7432;-3.1209;
41.7000;0.7391;-3.1408;
42.0000;0.7342;-3.1557;
42.3000;0.7440;-3.1334;
42.6000;0.7424;-3.1284;
42.9000;0.7538;-3.0985;
43.2000;0.7432;-3.1234;
43.5000;0.7391;-3.1458;
43.8000;0.7538;-3.1035;
44.1000;0.7416;-3.1309;
44.4000;0.7416;-3.1334;
44.7000;0.7424;-3.1358;
45.0000;0.7432;-3.1284;
45.3000;0.7432;-3.1334;
45.6000;0.7432;-3.1383;
45.9000;0.7416;-3.1408;
46.2000;0.7399;-3.1483;
46.5000;0.7440;-3.1408;
46.8000;0.7424;-3.1433;
47.1000;0.7448;-3.1334;
47.4000;0.7424;-3.1433;
47.7000;0.7424;-3.1433;
48.0000;0.7440;-3.1383;
48.3000;0.7432;-3.1358;
48.6000;0.7432;-3.1358;
48.9000;0.7407;-3.1433;
49.2000;0.7424;-3.1309;
49.5000;0.7432;-3.1259;
49.8000;0.7448;-3.1234;
50.1000;0.7432;-3.1184;
50.4000;0.7432;-3.1160;
50.7000;0.7383;-3.1334;
51.0000;0.7456;-3.1209;
51.3000;0.7424;-3.1309;
51.6000;0.7456;-3.1209;
51.9000;0.7448;-3.1160;
52.2000;0.7432;-3.1284;
52.5000;0.7464;-3.1184;
52.8000;0.7424;-3.1334;
53.1000;0.7432;-3.1358;
53.4000;0.7440;-3.1334;
53.7000;0.7399;-3.1383;
54.0000;0.7424;-3.1383;
54.3000;0.7416;-3.1408;
54.6000;0.7432;-3.1358;
54.9000;0.7424;-3.1234;
55.2000;0.7448;-3.1184;
55.5000;0.7424;-3.1184;
55.8000;0.7424;-3.1160;
56.1000;0.7416;-3.1209;
56.4000;0.7440;-3.1259;
56.7000;0.7440;-3.1234;
57.0000;0.7432;-3.1259;
57.3000;0.7505;-3.1184;
57.6000;0.7448;-3.1284;
57.9000;0.7448;-3.1358;
58.2000;0.7440;-3.1358;
58.5000;0.7448;-3.1160;
58.8000;0.7456;-3.1135;
59.1000;0.7416;-3.1234;
59.4000;0.7432;-3.1234;
59.7000;0.7407;-3.1383;
60.0000;0.7440;-3.1358;
60.3000;0.7448;-3.1358;
60.6000;0.7497;-3.1209;
60.9000;0.7456;-3.1309;
61.2000;0.7448;-3.1358;
61.5000;0.7448;-3.1358;
61.8000;0.7448;-3.1309;
62.1000;0.7424;-3.1334;
62.4000;0.7432;-3.1234;
62.7000;0.7448;-3.1184;
63.0000;0.7440;-3.1184;
63.3000;0.7448;-3.1234;
63.6000;0.7432;-3.1358;
63.9000;0.7432;-3.1408;
64.2000;0.7448;-3.1309;
64.5000;0.7432;-3.1334;
64.8000;0.7416;-3.1309;
65.1000;0.7456;-3.1234;
65.4000;0.7399;-3.1334;
65.7000;0.7432;-3.1184;
66.0000;0.7416;-3.1209;
66.3000;0.7432;-3.1160;
66.6000;0.7448;-3.1135;
66.9000;0.7432;-3.1284;
67.2000;0.7416;-3.1358;
67.5000;0.7481;-3.1259;
67.8000;0.7464;-3.1284;
68.1000;0.7432;-3.1334;
68.4000;0.7350;-3.1533;
68.7000;0.7440;-3.1234;
69.0000;0.7440;-3.1160;
69.3000;0.7424;-3.1184;
69.6000;0.7448;-3.1209;
69.9000;0.7424;-3.1309;
70.2000;0.7440;-3.1209;
70.5000;0.7456;-3.1234;
70.8000;0.7456;-3.1234;
71.1000;0.7440;-3.1334;
71.4000;0.7530;-3.1110;
71.7000;0.7448;-3.1334;
72.0000;0.7448;-3.1259;
72.3000;0.7448;-3.1284;
72.6000;0.7432;-3.1234;
72.9000;0.7399;-3.1334;
73.2000;0.7440;-3.1234;
73.5000;0.7432;-3.1284;
73.8000;0.7432;-3.1383;
74.1000;0.7432;-3.1408;
74.4000;0.7448;-3.1309;
74.7000;0.7432;-3.1334;
75.0000;0.7530;-3.1060;
75.3000;0.7481;-3.1135;
75.6000;0.7448;-3.1284;
75.9000;0.7456;-3.1234;
76.2000;0.7432;-3.1309;
76.5000;0.7440;-3.1358;
76.8000;0.7432;-3.1334;
77.1000;0.7464;-3.1234;
77.4000;0.7440;-3.1284;
77.7000;0.7440;-3.1358;
78.0000;0.7432;-3.1334;
78.3000;0.7448;-3.1284;
78.6000;0.7440;-3.1309;
78.9000;0.7448;-3.1284;
79.2000;0.7424;-3.1433;
79.5000;0.7456;-3.1309;
79.8000;0.7448;-3.1259;
80.1000;0.7424;-3.1358;
80.4000;0.7416;-3.1259;
80.7000;0.7407;-3.1309;
81.0000;0.7448;-3.1358;
81.3000;0.7432;-3.1334;
81.6000;0.7432;-3.1284;
81.9000;0.7448;-3.1284;
82.2000;0.7448;-3.1309;
82.5000;0.7448;-3.1284;
82.8000;0.7440;-3.1284;
83.1000;0.7440;-3.1259;
83.4000;0.7448;-3.1234;
83.7000;0.7497;-3.1060;
84.0000;0.7440;-3.1234;
84.3000;0.7424;-3.1309;
84.6000;0.7464;-3.1309;
84.9000;0.7456;-3.1383;
85.2000;0.7448;-3.1383;
85.5000;0.7481;-3.1259;
85.8000;0.7448;-3.1383;
86.1000;0.7489;-3.1284;
86.4000;0.7489;-3.1234;
86.7000;0.7448;-3.1334;
87.0000;0.7440;-3.1259;
87.3000;0.7456;-3.1259;
87.6000;0.7456;-3.1309;
87.9000;0.7440;-3.1383;
88.2000;0.7448;-3.1383;
88.5000;0.7424;-3.1383;
88.8000;0.7448;-3.1334;
89.1000;0.7342;-3.1483;
89.4000;0.7497;-3.1110;
89.7000;0.7432;-3.1309;
90.0000;0.7448;-3.1259;
90.3000;0.7440;-3.1383;
90.6000;0.7440;-3.1433;
90.9000;0.7448;-3.1433;
91.2000;0.7448;-3.1358;
91.5000;0.7464;-3.1358;
91.8000;0.7464;-3.1259;
92.1000;0.7464;-3.1334;
92.4000;0.7456;-3.1408;
92.7000;0.7448;-3.1433;
93.0000;0.7481;-3.1358;
93.3000;0.7513;-3.1259;
93.6000;0.7448;-3.1209;
93.9000;0.7473;-3.1160;
94.2000;0.7424;-3.1259;
94.5000;0.7448;-3.1234;
94.8000;0.7481;-3.1184;
95.1000;0.7464;-3.1184;
95.4000;0.7464;-3.1209;
95.7000;0.7473;-3.1209;
96.0000;0.7391;-3.1483;
96.3000;0.7448;-3.1408;
96.6000;0.7440;-3.1483;
96.9000;0.7448;-3.1483;
97.2000;0.7456;-3.1458;
97.5000;0.7448;-3.1433;
97.8000;0.7440;-3.1433;
98.1000;0.7456;-3.1358;
98.4000;0.7440;-3.1358;
98.7000;0.7505;-3.1184;
99.0000;0.7456;-3.1334;
99.3000;0.7456;-3.1284;
99.6000;0.7448;-3.1259;
99.9000;0.7456;-3.1135;
100.2000;0.7473;-3.1135;
100.5000;0.7464;-3.1085;
100.8000;0.7432;-3.1234;
101.1000;0.7424;-3.1259;
101.4000;0.7416;-3.1259;
101.7000;0.7456;-3.1259;
102.0000;0.7448;-3.1284;
102.3000;0.7456;-3.1234;
102.6000;0.7440;-3.1259;
102.9000;0.7440;-3.1334;
103.2000;0.7456;-3.1358;
103.5000;0.7448;-3.1408;
103.8000;0.7440;-3.1408;
104.1000;0.7440;-3.1408;
104.4000;0.7440;-3.1408;
104.7000;0.7440;-3.1383;
105.0000;0.7497;-3.1209;
105.3000;0.7432;-3.1358;
105.6000;0.7456;-3.1259;
105.9000;0.7448;-3.1259;
106.2000;0.7440;-3.1259;
106.5000;0.7432;-3.1358;
106.8000;0.7440;-3.1433;
107.1000;0.7432;-3.1408;
107.4000;0.7448;-3.1358;
107.7000;0.7424;-3.1383;
108.0000;0.7424;-3.1383;
108.3000;0.7473;-3.1284;
108.6000;0.7432;-3.1408;
108.9000;0.7432;-3.1358;
109.2000;0.7432;-3.1334;
109.5000;0.7456;-3.1309;
109.8000;0.7448;-3.1334;
110.1000;0.7489;-3.1334;
110.4000;0.7456;-3.1334;
110.7000;0.7448;-3.1334;
111.0000;0.7399;-3.1458;
111.3000;0.7456;-3.1284;
111.6000;0.7432;-3.1234;
111.9000;0.7432;-3.1284;
112.2000;0.7464;-3.1284;
112.5000;0.7440;-3.1383;
112.8000;0.7456;-3.1334;
113.1000;0.7391;-3.1458;
113.4000;0.7416;-3.1309;
113.7000;0.7432;-3.1334;
114.0000;0.7424;-3.1458;
114.3000;0.7432;-3.1309;
114.6000;0.7432;-3.1259;
114.9000;0.7448;-3.1334;
115.2000;0.7448;-3.1383;
115.5000;0.7432;-3.1358;
115.8000;0.7440;-3.1358;
116.1000;0.7448;-3.1358;
116.4000;0.7497;-3.1358;
116.7000;0.7440;-3.1458;
117.0000;0.7432;-3.1483;
117.3000;0.7416;-3.1533;
117.6000;0.7440;-3.1383;
117.9000;0.7464;-3.1284;
118.2000;0.7448;-3.1408;
118.5000;0.7424;-3.1508;
118.8000;0.7489;-3.1358;
119.1000;0.7448;-3.1408;
119.4000;0.7432;-3.1358;
119.7000;0.7448;-3.1309;
120.0000;0.7432;-3.1334;
120.3000;0.7440;-3.1408;
120.6000;0.7448;-3.1383;
120.9000;0.7440;-3.1408;
121.2000;0.7432;-3.1358;
121.5000;0.7424;-3.1309;
121.8000;0.7456;-3.1234;
122.1000;0.7456;-3.1309;
122.4000;0.7448;-3.1309;
122.7000;0.7407;-3.1334;
123.0000;0.7448;-3.1259;
123.3000;0.7440;-3.1284;
123.6000;0.7464;-3.1184;
123.9000;0.7473;-3.1110;
124.2000;0.7448;-3.1259;
124.5000;0.7448;-3.1110;
124.8000;0.7432;-3.1035;
125.1000;0.7432;-3.0985;
125.4000;0.7440;-3.1060;
125.7000;0.7448;-3.0985;
126.0000;0.7440;-3.0985;
126.3000;0.7440;-3.1010;
126.6000;0.7440;-3.0961;
126.9000;0.7464;-3.0961;
127.2000;0.7456;-3.1060;
127.5000;0.7448;-3.1135;
127.8000;0.7448;-3.1110;
128.1000;0.7448;-3.1085;
128.4000;0.7489;-3.0961;
128.7000;0.7432;-3.1035;
129.0000;0.7448;-3.1060;
129.3000;0.7464;-3.1010;
129.6000;0.7416;-3.1209;
129.9000;0.7448;-3.1135;
130.2000;0.7440;-3.1135;
130.5000;0.7448;-3.1160;
130.8000;0.7456;-3.1234;
131.1000;0.7448;-3.1358;
131.4000;0.7432;-3.1408;
131.7000;0.7432;-3.1433;
132.0000;0.7456;-3.1483;
132.3000;0.7440;-3.1483;
132.6000;0.7424;-3.1508;
132.9000;0.7424;-3.1533;
133.2000;0.7424;-3.1433;
133.5000;0.7481;-3.1309;
133.8000;0.7440;-3.1284;
134.1000;0.7424;-3.1209;
134.4000;0.7456;-3.1060;
134.7000;0.7432;-3.1184;
135.0000;0.7448;-3.1110;
135.3000;0.7456;-3.1160;
135.6000;0.7456;-3.1184;
135.9000;0.7464;-3.0985;
136.2000;0.7440;-3.1085;
136.5000;0.7448;-3.1209;
136.8000;0.7416;-3.1284;
137.1000;0.7432;-3.1060;
137.4000;0.7464;-3.0961;
137.7000;0.7456;-3.1060;
138.0000;0.7456;-3.1135;
138.3000;0.7448;-3.1184;
138.6000;0.7456;-3.1184;
138.9000;0.7448;-3.1135;
139.2000;0.7448;-3.1085;
139.5000;0.7448;-3.1060;
139.8000;0.7464;-3.0985;
140.1000;0.7464;-3.1010;
140.4000;0.7464;-3.0936;
140.7000;0.7448;-3.0985;
141.0000;0.7448;-3.1060;
141.3000;0.7440;-3.1085;
141.6000;0.7440;-3.1135;
141.9000;0.7432;-3.1184;
142.2000;0.7448;-3.1209;
142.5000;0.7456;-3.1209;
142.8000;0.7481;-3.1284;
143.1000;0.7440;-3.1309;
143.4000;0.7440;-3.1234;
143.7000;0.7464;-3.1135;
144.0000;0.7432;-3.1184;
144.3000;0.7391;-3.1358;
144.6000;0.7448;-3.1135;
144.9000;0.7440;-3.1160;
145.2000;0.7448;-3.1184;
145.5000;0.7448;-3.1259;
145.8000;0.7440;-3.1209;
146.1000;0.7440;-3.1234;
146.4000;0.7448;-3.1259;
146.7000;0.7497;-3.1135;
147.0000;0.7440;-3.1259;
147.3000;0.7440;-3.1209;
147.6000;0.7448;-3.1135;
147.9000;0.7432;-3.1234;
148.2000;0.7448;-3.1209;
148.5000;0.7440;-3.1234;
148.8000;0.7440;-3.1184;
149.1000;0.7432;-3.1160;
149.4000;0.7440;-3.1135;
149.7000;0.7456;-3.1035;
150.0000;0.7432;-3.0961;
150.3000;0.7432;-3.1035;
150.6000;0.7448;-3.0936;
150.9000;0.7440;-3.0911;
151.2000;0.7521;-3.0762;
151.5000;0.7448;-3.1035;
151.8000;0.7448;-3.1035;
152.1000;0.7448;-3.1135;
152.4000;0.7448;-3.1135;
152.7000;0.7440;-3.1135;
153.0000;0.7440;-3.1110;
153.3000;0.7440;-3.0985;
153.6000;0.7513;-3.0836;
153.9000;0.7432;-3.1060;
154.2000;0.7448;-3.1085;
154.5000;0.7424;-3.1060;
154.8000;0.7505;-3.0786;
155.1000;0.7432;-3.0861;
155.4000;0.7432;-3.0786;
155.7000;0.7448;-3.0637;
156.0000;0.7416;-3.0712;
156.3000;0.7448;-3.0712;
156.6000;0.7432;-3.0762;
156.9000;0.7448;-3.0712;
157.2000;0.7448;-3.0836;
157.5000;0.7456;-3.0861;
157.8000;0.7432;-3.1010;
158.1000;0.7416;-3.0985;
158.4000;0.7448;-3.0786;
158.7000;0.7424;-3.0886;
159.0000;0.7432;-3.0961;
159.3000;0.7448;-3.0911;
159.6000;0.7416;-3.0961;
159.9000;0.7432;-3.0886;
160.2000;0.7432;-3.0886;
160.5000;0.7424;-3.0886;
160.8000;0.7456;-3.0836;
161.1000;0.7440;-3.0836;
161.4000;0.7424;-3.0861;
161.7000;0.7432;-3.0961;
162.0000;0.7448;-3.0961;
162.3000;0.7448;-3.1010;
162.6000;0.7546;-3.0712;
162.9000;0.7432;-3.1085;
163.2000;0.7538;-3.0836;
163.5000;0.7464;-3.0985;
163.8000;0.7432;-3.1085;
164.1000;0.7432;-3.1135;
164.4000;0.7440;-3.1060;
164.7000;0.7448;-3.1085;
165.0000;0.7424;-3.1135;
165.3000;0.7448;-3.1035;
165.6000;0.7440;-3.0985;
165.9000;0.7432;-3.1135;
166.2000;0.7440;-3.1209;
166.5000;0.7383;-3.1234;
166.8000;0.7399;-3.1209;
167.1000;0.7448;-3.0985;
167.4000;0.7440;-3.0936;
167.7000;0.7424;-3.0936;
168.0000;0.7399;-3.1060;
168.3000;0.7440;-3.1035;
168.6000;0.7513;-3.0961;
168.9000;0.7440;-3.1160;
169.2000;0.7440;-3.0985;
169.5000;0.7448;-3.1060;
169.8000;0.7448;-3.1060;
170.1000;0.7416;-3.1184;
170.4000;0.7448;-3.1010;
170.7000;0.7432;-3.1035;
171.0000;0.7440;-3.1010;
171.3000;0.7456;-3.1010;
171.6000;0.7440;-3.1035;
171.9000;0.7424;-3.1060;
172.2000;0.7407;-3.1110;
172.5000;0.7440;-3.0985;
172.8000;0.7424;-3.0936;
173.1000;0.7440;-3.0936;
173.4000;0.7440;-3.1060;
173.7000;0.7440;-3.1110;
174.0000;0.7424;-3.1160;
174.3000;0.7464;-3.1035;
174.6000;0.7432;-3.1160;
174.9000;0.7440;-3.1060;
175.2000;0.7407;-3.1184;
175.5000;0.7440;-3.1060;
175.8000;0.7432;-3.1060;
176.1000;0.7432;-3.1160;
176.4000;0.7440;-3.1184;
176.7000;0.7440;-3.1234;
177.0000;0.7440;-3.1309;
177.3000;0.7440;-3.1309;
177.6000;0.7456;-3.1184;
177.9000;0.7448;-3.1184;
178.2000;0.7448;-3.1234;
178.5000;0.7440;-3.1259;
178.8000;0.7456;-3.1160;
179.1000;0.7456;-3.1110;
179.4000;0.7432;-3.1209;
179.7000;0.7407;-3.1184;
180.0000;0.7440;-3.1209;
180.3000;0.7440;-3.1234;
180.6000;0.7448;-3.1234;
180.9000;0.7464;-3.1209;
181.2000;0.7448;-3.1284;
181.5000;0.7473;-3.1284;
181.8000;0.7456;-3.1358;
182.1000;0.7440;-3.1358;
182.4000;0.7489;-3.1234;
182.7000;0.7448;-3.1358;
183.0000;0.7448;-3.1358;
183.3000;0.7424;-3.1358;
183.6000;0.7416;-3.1309;
183.9000;0.7424;-3.1209;
184.2000;0.7464;-3.1110;
184.5000;0.7440;-3.1234;
184.8000;0.7440;-3.1259;
185.1000;0.7448;-3.1209;
185.4000;0.7497;-3.1085;
185.7000;0.7456;-3.1209;
186.0000;0.7448;-3.1184;
186.3000;0.7448;-3.1184;
186.6000;0.7456;-3.1110;
186.9000;0.7456;-3.1060;
187.2000;0.7456;-3.1110;
187.5000;0.7432;-3.1135;
187.8000;0.7448;-3.1085;
188.1000;0.7448;-3.1110;
188.4000;0.7448;-3.1209;
188.7000;0.7432;-3.1209;
189.0000;0.7456;-3.1184;
189.3000;0.7489;-3.1110;
189.6000;0.7448;-3.1110;
189.9000;0.7562;-3.0936;
190.2000;0.7440;-3.1309;
190.5000;0.7359;-3.1433;
190.8000;0.7416;-3.1259;
191.1000;0.7424;-3.1259;
191.4000;0.7424;-3.1284;
191.7000;0.7407;-3.1408;
192.0000;0.7350;-3.1533;
192.3000;0.7440;-3.1309;
192.6000;0.7399;-3.1309;
192.9000;0.7440;-3.1160;
193.2000;0.7448;-3.1135;
193.5000;0.7456;-3.1035;
193.8000;0.7440;-3.1035;
194.1000;0.7440;-3.1085;
194.4000;0.7416;-3.1234;
194.7000;0.7424;-3.1135;
195.0000;0.7448;-3.1110;
195.3000;0.7448;-3.1110;
195.6000;0.7432;-3.1085;
195.9000;0.7464;-3.0961;
196.2000;0.7448;-3.0961;
196.5000;0.7440;-3.0936;
196.8000;0.7440;-3.0961;
197.1000;0.7448;-3.0936;
197.4000;0.7464;-3.0961;
197.7000;0.7456;-3.0985;
198.0000;0.7456;-3.1010;
198.3000;0.7432;-3.1010;
198.6000;0.7456;-3.0985;
198.9000;0.7456;-3.0811;
199.2000;0.7440;-3.0786;
199.5000;0.7448;-3.0737;
199.8000;0.7432;-3.0786;
200.1000;0.7448;-3.0811;
200.4000;0.7456;-3.0861;
200.7000;0.7440;-3.0936;
201.0000;0.7424;-3.0961;
201.3000;0.7448;-3.0985;
201.6000;0.7513;-3.0836;
201.9000;0.7432;-3.1110;
202.2000;0.7440;-3.1184;
202.5000;0.7473;-3.1085;
202.8000;0.7440;-3.1135;
203.1000;0.7440;-3.1160;
203.4000;0.7432;-3.1085;
203.7000;0.7440;-3.1060;
204.0000;0.7481;-3.0936;
204.3000;0.7448;-3.0936;
204.6000;0.7448;-3.1035;
204.9000;0.7440;-3.0961;
205.2000;0.7440;-3.0985;
205.5000;0.7448;-3.1010;
205.8000;0.7440;-3.1035;
206.1000;0.7440;-3.0985;
206.4000;0.7481;-3.0861;
206.7000;0.7416;-3.1085;
207.0000;0.7424;-3.1110;
207.3000;0.7432;-3.1110;
207.6000;0.7440;-3.1135;
207.9000;0.7448;-3.1184;
208.2000;0.7440;-3.1209;
208.5000;0.7456;-3.1234;
208.8000;0.7440;-3.1085;
209.1000;0.7424;-3.1010;
209.4000;0.7424;-3.1010;
209.7000;0.7432;-3.0985;
210.0000;0.7440;-3.0936;
210.3000;0.7481;-3.0936;
210.6000;0.7448;-3.0861;
210.9000;0.7432;-3.0861;
211.2000;0.7407;-3.1060;
211.5000;0.7464;-3.0936;
211.8000;0.7448;-3.0886;
212.1000;0.7440;-3.0836;
212.4000;0.7407;-3.0936;
212.7000;0.7432;-3.0836;
213.0000;0.7440;-3.0786;
213.3000;0.7432;-3.0836;
213.6000;0.7448;-3.0836;
213.9000;0.7456;-3.0861;
214.2000;0.7432;-3.0985;
214.5000;0.7416;-3.1035;
214.8000;0.7391;-3.1010;
215.1000;0.7432;-3.0985;
215.4000;0.7440;-3.1035;
215.7000;0.7432;-3.1035;
216.0000;0.7440;-3.0961;
216.3000;0.7416;-3.0985;
216.6000;0.7432;-3.0911;
216.9000;0.7440;-3.0861;
217.2000;0.7416;-3.0886;
217.5000;0.7440;-3.0861;
217.8000;0.7424;-3.1010;
218.1000;0.7424;-3.0985;
218.4000;0.7448;-3.1010;
218.7000;0.7416;-3.0961;
219.0000;0.7424;-3.0985;
219.3000;0.7456;-3.1085;
219.6000;0.7432;-3.1135;
219.9000;0.7432;-3.1135;
220.2000;0.7432;-3.1060;
220.5000;0.7416;-3.1135;
220.8000;0.7432;-3.1135;
221.1000;0.7456;-3.1085;
221.4000;0.7464;-3.1209;
221.7000;0.7424;-3.1309;
222.0000;0.7440;-3.1234;
222.3000;0.7432;-3.1184;
222.6000;0.7432;-3.1209;
222.9000;0.7440;-3.1309;
223.2000;0.7432;-3.1259;
223.5000;0.7424;-3.1209;
223.8000;0.7440;-3.1209;
224.1000;0.7424;-3.1259;
224.4000;0.7432;-3.1234;
224.7000;0.7440;-3.1184;
225.0000;0.7440;-3.1135;
225.3000;0.7432;-3.1160;
225.6000;0.7424;-3.1234;
225.9000;0.7440;-3.1234;
226.2000;0.7432;-3.1234;
226.5000;0.7416;-3.1259;
226.8000;0.7440;-3.1184;
227.1000;0.7424;-3.1160;
227.4000;0.7440;-3.0936;
227.7000;0.7367;-3.1160;
228.0000;0.7424;-3.1035;
228.3000;0.7432;-3.0985;
228.6000;0.7350;-3.1234;
228.9000;0.7521;-3.0737;
229.2000;0.7432;-3.1035;
229.5000;0.7416;-3.1085;
229.8000;0.7448;-3.1060;
230.1000;0.7440;-3.1060;
230.4000;0.7432;-3.1060;
230.7000;0.7407;-3.1035;
231.0000;0.7416;-3.1035;
231.3000;0.7432;-3.1010;
231.6000;0.7554;-3.0762;
231.9000;0.7505;-3.0836;
232.2000;0.7440;-3.0936;
232.5000;0.7448;-3.0836;
232.8000;0.7448;-3.0886;
233.1000;0.7440;-3.0911;
233.4000;0.7448;-3.0911;
233.7000;0.7440;-3.1035;
234.0000;0.7464;-3.0911;
234.3000;0.7448;-3.0936;
234.6000;0.7424;-3.0961;
234.9000;0.7432;-3.0936;
235.2000;0.7440;-3.0961;
235.5000;0.7424;-3.0961;
235.8000;0.7424;-3.1010;
236.1000;0.7416;-3.1085;
236.4000;0.7432;-3.1135;
236.7000;0.7448;-3.1110;
237.0000;0.7424;-3.1085;
237.3000;0.7448;-3.1035;
237.6000;0.7440;-3.0961;
237.9000;0.7448;-3.0985;
238.2000;0.7432;-3.0985;
238.5000;0.7424;-3.0961;
238.8000;0.7432;-3.0961;
239.1000;0.7456;-3.0861;
239.4000;0.7456;-3.0861;
239.7000;0.7432;-3.0886;
240.0000;0.7448;-3.0786;
240.3000;0.7424;-3.0811;
240.6000;0.7440;-3.0811;
240.9000;0.7416;-3.0936;
241.2000;0.7432;-3.0985;
241.5000;0.7424;-3.1060;
241.8000;0.7448;-3.0985;
242.1000;0.7456;-3.0936;
242.4000;0.7432;-3.1010;
242.7000;0.7399;-3.1160;
243.0000;0.7448;-3.1135;
243.3000;0.7432;-3.1234;
243.6000;0.7464;-3.1184;
243.9000;0.7440;-3.1234;
244.2000;0.7448;-3.1234;
244.5000;0.7456;-3.1135;
244.8000;0.7432;-3.1184;
245.1000;0.7432;-3.1259;
245.4000;0.7456;-3.1135;
245.7000;0.7440;-3.1209;
246.0000;0.7432;-3.1209;
246.3000;0.7407;-3.1234;
246.6000;0.7432;-3.1209;
246.9000;0.7440;-3.1110;
247.2000;0.7440;-3.1135;
247.5000;0.7440;-3.1234;
247.8000;0.7416;-3.1284;
248.1000;0.7416;-3.1234;
248.4000;0.7432;-3.1184;
248.7000;0.7383;-3.1309;
249.0000;0.7440;-3.1085;
249.3000;0.7432;-3.1184;
249.6000;0.7424;-3.1284;
249.9000;0.7440;-3.1184;
250.2000;0.7440;-3.1184;
250.5000;0.7448;-3.1209;
250.8000;0.7391;-3.1334;
251.1000;0.7448;-3.1184;
251.4000;0.7375;-3.1383;
251.7000;0.7367;-3.1358;
252.0000;0.7424;-3.1209;
252.3000;0.7440;-3.1135;
252.6000;0.7416;-3.1135;
252.9000;0.7424;-3.1110;
253.2000;0.7407;-3.1060;
253.5000;0.7432;-3.1060;
253.8000;0.7448;-3.1035;
254.1000;0.7326;-3.1234;
254.4000;0.7399;-3.1085;
254.7000;0.7432;-3.1060;
255.0000;0.7432;-3.0985;
255.3000;0.7424;-3.1060;
255.6000;0.7432;-3.0911;
255.9000;0.7432;-3.0911;
256.2000;0.7432;-3.0961;
256.5000;0.7489;-3.0886;
256.8000;0.7350;-3.1234;
257.1000;0.7399;-3.1060;
257.4000;0.7432;-3.1135;
257.7000;0.7432;-3.1110;
258.0000;0.7424;-3.1110;
258.3000;0.7432;-3.1010;
258.6000;0.7448;-3.1010;
258.9000;0.7440;-3.1035;
259.2000;0.7424;-3.1060;
259.5000;0.7432;-3.0961;
259.8000;0.7424;-3.1010;
260.1000;0.7448;-3.0985;
260.4000;0.7416;-3.1060;
260.7000;0.7440;-3.0985;
261.0000;0.7375;-3.1060;
261.3000;0.7448;-3.0786;
261.6000;0.7456;-3.0786;
261.9000;0.7448;-3.0836;
262.2000;0.7416;-3.0886;
262.5000;0.7432;-3.0861;
262.8000;0.7481;-3.0836;
263.1000;0.7456;-3.0861;
263.4000;0.7432;-3.0961;
263.7000;0.7367;-3.1209;
264.0000;0.7424;-3.1110;
264.3000;0.7432;-3.1035;
264.6000;0.7432;-3.1010;
264.9000;0.7432;-3.1010;
265.2000;0.7416;-3.0985;
265.5000;0.7448;-3.0911;
265.8000;0.7424;-3.0886;
266.1000;0.7416;-3.0961;
266.4000;0.7424;-3.0936;
266.7000;0.7440;-3.0936;
267.0000;0.7432;-3.0985;
267.3000;0.7432;-3.1085;
267.6000;0.7440;-3.1060;
267.9000;0.7375;-3.1234;
268.2000;0.7448;-3.1085;
268.5000;0.7440;-3.1085;
268.8000;0.7383;-3.1334;
269.1000;0.7359;-3.1358;
269.4000;0.7440;-3.1110;
269.7000;0.7489;-3.1010;
270.0000;0.7424;-3.1135;
270.3000;0.7440;-3.1010;
270.6000;0.7448;-3.1010;
270.9000;0.7432;-3.1110;
271.2000;0.7407;-3.1135;
271.5000;0.7407;-3.1234;
271.8000;0.7391;-3.1334;
272.1000;0.7416;-3.1160;
272.4000;0.7424;-3.1209;
272.7000;0.7424;-3.1085;
273.0000;0.7416;-3.1184;
273.3000;0.7424;-3.1110;
273.6000;0.7473;-3.1035;
273.9000;0.7440;-3.1085;
274.2000;0.7424;-3.1110;
274.5000;0.7440;-3.1135;
274.8000;0.7464;-3.1010;
275.1000;0.7416;-3.0936;
275.4000;0.7448;-3.0811;
275.7000;0.7432;-3.0886;
276.0000;0.7481;-3.0786;
276.3000;0.7432;-3.0961;
276.6000;0.7407;-3.0936;
276.9000;0.7432;-3.0911;
277.2000;0.7432;-3.0936;
277.5000;0.7473;-3.0786;
277.8000;0.7432;-3.0936;
278.1000;0.7432;-3.0961;
278.4000;0.7399;-3.1135;
278.7000;0.7440;-3.1209;
279.0000;0.7399;-3.1334;
279.3000;0.7424;-3.1309;
279.6000;0.7448;-3.1184;
279.9000;0.7473;-3.1035;
280.2000;0.7440;-3.1110;
280.5000;0.7424;-3.1184;
280.8000;0.7416;-3.1234;
281.1000;0.7440;-3.1209;
281.4000;0.7440;-3.1334;
281.7000;0.7440;-3.1358;
282.0000;0.7424;-3.1334;
282.3000;0.7367;-3.1433;
282.6000;0.7481;-3.1135;
282.9000;0.7432;-3.1259;
283.2000;0.7440;-3.1259;
283.5000;0.7359;-3.1433;
283.8000;0.7448;-3.1160;
284.1000;0.7416;-3.1184;
284.4000;0.7440;-3.1234;
284.7000;0.7432;-3.1284;
285.0000;0.7497;-3.1209;
285.3000;0.7448;-3.1309;
285.6000;0.7416;-3.1458;
285.9000;0.7448;-3.1433;
286.2000;0.7424;-3.1433;
286.5000;0.7334;-3.1632;
286.8000;0.7505;-3.1160;
287.1000;0.7432;-3.1433;
287.4000;0.7407;-3.1508;
287.7000;0.7424;-3.1383;
288.0000;0.7424;-3.1458;
288.3000;0.7416;-3.1383;
288.6000;0.7432;-3.1284;
288.9000;0.7432;-3.1209;
289.2000;0.7432;-3.1010;
289.5000;0.7448;-3.1035;
289.8000;0.7424;-3.1135;
290.1000;0.7416;-3.1234;
290.4000;0.7416;-3.1309;
290.7000;0.7424;-3.1383;
291.0000;0.7440;-3.1309;
291.3000;0.7424;-3.1284;
291.6000;0.7440;-3.1110;
291.9000;0.7416;-3.1085;
292.2000;0.7391;-3.1135;
292.5000;0.7448;-3.1010;
292.8000;0.7448;-3.0911;
293.1000;0.7448;-3.0886;
293.4000;0.7416;-3.1010;
293.7000;0.7432;-3.1035;
294.0000;0.7432;-3.1010;
294.3000;0.7416;-3.0961;
294.6000;0.7440;-3.0886;
294.9000;0.7432;-3.0961;
295.2000;0.7440;-3.1060;
295.5000;0.7440;-3.1110;
295.8000;0.7407;-3.1234;
296.1000;0.7383;-3.1209;
296.4000;0.7391;-3.1085;
296.7000;0.7440;-3.1010;
297.0000;0.7448;-3.1160;
297.3000;0.7432;-3.1184;
297.6000;0.7407;-3.1234;
297.9000;0.7432;-3.1135;
298.2000;0.7391;-3.1209;
298.5000;0.7399;-3.1209;
298.8000;0.7407;-3.1085;
299.1000;0.7367;-3.1234;
299.4000;0.7424;-3.1160;
299.7000;0.7440;-3.1135;
300.0000;0.7416;-3.1060;
300.3000;0.7416;-3.0936;
300.6000;0.7424;-3.0936;
300.9000;0.7383;-3.1085;
301.2000;0.7416;-3.1010;
301.5000;0.7342;-3.1284;
301.8000;0.7432;-3.1110;
302.1000;0.7432;-3.1184;
302.4000;0.7456;-3.1135;
302.7000;0.7432;-3.1234;
303.0000;0.7473;-3.1135;
303.3000;0.7375;-3.1458;
303.6000;0.7440;-3.1259;
303.9000;0.7432;-3.1334;
304.2000;0.7424;-3.1309;
304.5000;0.7432;-3.1259;
304.8000;0.7416;-3.1309;
305.1000;0.7416;-3.1309;
305.4000;0.7481;-3.1135;
305.7000;0.7416;-3.1234;
306.0000;0.7399;-3.1284;
306.3000;0.7342;-3.1383;
306.6000;0.7416;-3.1160;
306.9000;0.7399;-3.1160;
307.2000;0.7432;-3.1135;
307.5000;0.7473;-3.1010;
307.8000;0.7473;-3.1085;
308.1000;0.7432;-3.1209;
308.4000;0.7538;-3.0886;
308.7000;0.7456;-3.0985;
309.0000;0.7432;-3.0985;
309.3000;0.7342;-3.1135;
309.6000;0.7448;-3.0811;
309.9000;0.7432;-3.0836;
310.2000;0.7424;-3.0936;
310.5000;0.7416;-3.0936;
310.8000;0.7416;-3.1035;
311.1000;0.7432;-3.0961;
311.4000;0.7399;-3.1085;
311.7000;0.7424;-3.1160;
312.0000;0.7407;-3.1184;
312.3000;0.7399;-3.1184;
312.6000;0.7440;-3.0961;
312.9000;0.7440;-3.0911;
313.2000;0.7424;-3.0961;
313.5000;0.7448;-3.1010;
313.8000;0.7440;-3.0985;
314.1000;0.7432;-3.1060;
314.4000;0.7424;-3.1209;
314.7000;0.7432;-3.1160;
315.0000;0.7424;-3.1010;
315.3000;0.7440;-3.0936;
315.6000;0.7399;-3.0936;
315.9000;0.7424;-3.0762;
316.2000;0.7407;-3.0811;
316.5000;0.7424;-3.0936;
316.8000;0.7416;-3.0886;
317.1000;0.7416;-3.0911;
317.4000;0.7424;-3.0886;
317.7000;0.7432;-3.0961;
318.0000;0.7424;-3.1035;
318.3000;0.7424;-3.1060;
318.6000;0.7424;-3.1010;
318.9000;0.7448;-3.0861;
319.2000;0.7416;-3.1035;
319.5000;0.7407;-3.1010;
319.8000;0.7416;-3.0985;
320.1000;0.7407;-3.1010;
320.4000;0.7448;-3.0961;
320.7000;0.7416;-3.1010;
321.0000;0.7416;-3.1135;
321.3000;0.7432;-3.1010;
321.6000;0.7424;-3.1085;
321.9000;0.7432;-3.1060;
322.2000;0.7424;-3.1085;
322.5000;0.7407;-3.1135;
322.8000;0.7416;-3.1035;
323.1000;0.7416;-3.1160;
323.4000;0.7448;-3.1184;
323.7000;0.7424;-3.1334;
324.0000;0.7424;-3.1284;
324.3000;0.7424;-3.1259;
324.6000;0.7416;-3.1184;
324.9000;0.7407;-3.1060;
325.2000;0.7432;-3.1060;
325.5000;0.7407;-3.1135;
325.8000;0.7432;-3.1060;
326.1000;0.7432;-3.1184;
326.4000;0.7432;-3.1135;
326.7000;0.7440;-3.1135;
327.0000;0.7440;-3.1110;
327.3000;0.7407;-3.1060;
327.6000;0.7424;-3.0911;
327.9000;0.7424;-3.0886;
328.2000;0.7383;-3.0985;
328.5000;0.7424;-3.0886;
328.8000;0.7464;-3.0786;
329.1000;0.7407;-3.1060;
329.4000;0.7440;-3.0936;
329.7000;0.7399;-3.1035;
330.0000;0.7424;-3.0961;
330.3000;0.7399;-3.0911;
330.6000;0.7407;-3.0936;
330.9000;0.7424;-3.0886;
331.2000;0.7416;-3.0911;
331.5000;0.7424;-3.1035;
331.8000;0.7424;-3.1110;
332.1000;0.7424;-3.1110;
332.4000;0.7416;-3.1060;
332.7000;0.7407;-3.1085;
333.0000;0.7432;-3.1060;
333.3000;0.7448;-3.1085;
333.6000;0.7432;-3.1135;
333.9000;0.7391;-3.1284;
334.2000;0.7416;-3.1135;
334.5000;0.7416;-3.1160;
334.8000;0.7432;-3.1135;
335.1000;0.7407;-3.1184;
335.4000;0.7416;-3.1184;
335.7000;0.7407;-3.1284;
336.0000;0.7440;-3.1358;
336.3000;0.7416;-3.1383;
336.6000;0.7416;-3.1383;
336.9000;0.7440;-3.1309;
337.2000;0.7456;-3.1358;
337.5000;0.7448;-3.1259;
337.8000;0.7440;-3.1334;
338.1000;0.7399;-3.1334;
338.4000;0.7424;-3.1259;
338.7000;0.7440;-3.1085;
339.0000;0.7416;-3.1110;
339.3000;0.7391;-3.1184;
339.6000;0.7407;-3.1110;
339.9000;0.7416;-3.1060;
340.2000;0.7416;-3.1035;
340.5000;0.7391;-3.1160;
340.8000;0.7399;-3.1085;
341.1000;0.7383;-3.1110;
341.4000;0.7424;-3.1035;
341.7000;0.7424;-3.0985;
342.0000;0.7407;-3.0985;
342.3000;0.7424;-3.1035;
342.6000;0.7440;-3.0936;
342.9000;0.7432;-3.0985;
343.2000;0.7424;-3.1110;
343.5000;0.7424;-3.1085;
343.8000;0.7416;-3.1060;
344.1000;0.7424;-3.1060;
344.4000;0.7399;-3.1135;
344.7000;0.7383;-3.1209;
345.0000;0.7407;-3.1209;
345.3000;0.7407;-3.1160;
345.6000;0.7424;-3.1085;
345.9000;0.7440;-3.1035;
346.2000;0.7391;-3.1160;
346.5000;0.7375;-3.1234;
346.8000;0.7407;-3.1160;
347.1000;0.7416;-3.1035;
347.4000;0.7424;-3.0936;
347.7000;0.7416;-3.0911;
348.0000;0.7464;-3.0786;
348.3000;0.7416;-3.0961;
348.6000;0.7375;-3.1060;
348.9000;0.7367;-3.1085;
349.2000;0.7424;-3.0961;
349.5000;0.7399;-3.1085;
349.8000;0.7399;-3.1110;
350.1000;0.7424;-3.1060;
350.4000;0.7424;-3.1135;
350.7000;0.7383;-3.1110;
351.0000;0.7416;-3.0936;
351.3000;0.7416;-3.0985;
351.6000;0.7399;-3.1085;
351.9000;0.7448;-3.0985;
352.2000;0.7432;-3.1010;
352.5000;0.7432;-3.1035;
352.8000;0.7440;-3.1035;
353.1000;0.7456;-3.1010;
353.4000;0.7416;-3.1259;
353.7000;0.7489;-3.1110;
354.0000;0.7424;-3.1234;
354.3000;0.7399;-3.1160;
354.6000;0.7424;-3.0985;
354.9000;0.7407;-3.0985;
355.2000;0.7407;-3.1085;
355.5000;0.7432;-3.1160;
355.8000;0.7432;-3.1209;
356.1000;0.7416;-3.1209;
356.4000;0.7399;-3.1209;
356.7000;0.7391;-3.1184;
357.0000;0.7432;-3.1060;
357.3000;0.7424;-3.1060;
357.6000;0.7416;-3.1135;
357.9000;0.7424;-3.1160;
358.2000;0.7416;-3.1085;
358.5000;0.7407;-3.1110;
358.8000;0.7407;-3.1160;
359.1000;0.7407;-3.1234;
359.4000;0.7399;-3.1184;
359.7000;0.7416;-3.1160;
360.0000;0.7416;-3.1110;
360.3000;0.7416;-3.1135;
360.6000;0.7424;-3.1160;
360.9000;0.7440;-3.1060;
361.2000;0.7407;-3.1209;
361.5000;0.7416;-3.1184;
361.8000;0.7399;-3.1234;
362.1000;0.7399;-3.1284;
362.4000;0.7424;-3.1259;
362.7000;0.7424;-3.1184;
363.0000;0.7399;-3.1284;
363.3000;0.7432;-3.1209;
363.6000;0.7432;-3.1234;
363.9000;0.7416;-3.1259;
364.2000;0.7399;-3.1234;
364.5000;0.7399;-3.1209;
364.8000;0.7407;-3.1209;
365.1000;0.7416;-3.1085;
365.4000;0.7399;-3.1110;
365.7000;0.7416;-3.1085;
366.0000;0.7424;-3.1035;
366.3000;0.7432;-3.1035;
366.6000;0.7448;-3.0961;
366.9000;0.7448;-3.0985;
367.2000;0.7432;-3.0985;
367.5000;0.7424;-3.1135;
367.8000;0.7424;-3.1160;
368.1000;0.7424;-3.1110;
368.4000;0.7432;-3.1110;
368.7000;0.7391;-3.1284;
369.0000;0.7416;-3.1259;
369.3000;0.7407;-3.1284;
369.6000;0.7399;-3.1259;
369.9000;0.7416;-3.1184;
370.2000;0.7416;-3.1135;
370.5000;0.7399;-3.1259;
370.8000;0.7407;-3.1234;
371.1000;0.7416;-3.1135;
371.4000;0.7416;-3.1135;
371.7000;0.7416;-3.1209;
372.0000;0.7416;-3.1209;
372.3000;0.7407;-3.1309;
372.6000;0.7416;-3.1284;
372.9000;0.7383;-3.1358;
373.2000;0.7416;-3.1259;
373.5000;0.7424;-3.1358;
373.8000;0.7416;-3.1358;
374.1000;0.7399;-3.1284;
374.4000;0.7407;-3.1309;
374.7000;0.7399;-3.1334;
375.0000;0.7399;-3.1309;
375.3000;0.7416;-3.1284;
375.6000;0.7407;-3.1433;
375.9000;0.7416;-3.1483;
376.2000;0.7416;-3.1483;
376.5000;0.7407;-3.1433;
376.8000;0.7440;-3.1284;
377.1000;0.7432;-3.1309;
377.4000;0.7456;-3.1284;
377.7000;0.7391;-3.1358;
378.0000;0.7424;-3.1184;
378.3000;0.7440;-3.1209;
378.6000;0.7407;-3.1209;
378.9000;0.7416;-3.1110;
379.2000;0.7416;-3.1110;
379.5000;0.7342;-3.1259;
379.8000;0.7399;-3.1184;
380.1000;0.7399;-3.1085;
380.4000;0.7416;-3.1060;
380.7000;0.7416;-3.1035;
381.0000;0.7391;-3.1060;
381.3000;0.7391;-3.1085;
381.6000;0.7359;-3.1160;
381.9000;0.7432;-3.1060;
382.2000;0.7440;-3.1184;
382.5000;0.7416;-3.1160;
382.8000;0.7432;-3.1085;
383.1000;0.7440;-3.1035;
383.4000;0.7424;-3.1160;
383.7000;0.7432;-3.1060;
384.0000;0.7424;-3.1085;
384.3000;0.7424;-3.1110;
384.6000;0.7424;-3.1234;
384.9000;0.7432;-3.1110;
385.2000;0.7416;-3.1085;
385.5000;0.7416;-3.1035;
385.8000;0.7432;-3.1010;
386.1000;0.7424;-3.1110;
386.4000;0.7416;-3.1035;
386.7000;0.7416;-3.0985;
387.0000;0.7399;-3.1060;
387.3000;0.7407;-3.1010;
387.6000;0.7399;-3.1060;
387.9000;0.7432;-3.0985;
388.2000;0.7448;-3.0811;
388.5000;0.7424;-3.0911;
388.8000;0.7416;-3.0911;
389.1000;0.7416;-3.0861;
389.4000;0.7424;-3.0861;
389.7000;0.7424;-3.0936;
390.0000;0.7407;-3.0961;
390.3000;0.7424;-3.0836;
390.6000;0.7448;-3.0786;
390.9000;0.7432;-3.0811;
391.2000;0.7424;-3.0786;
391.5000;0.7407;-3.0811;
391.8000;0.7399;-3.0836;
392.1000;0.7407;-3.0861;
392.4000;0.7399;-3.0961;
392.7000;0.7407;-3.1085;
393.0000;0.7407;-3.1110;
393.3000;0.7399;-3.1060;
393.6000;0.7424;-3.0911;
393.9000;0.7399;-3.0911;
394.2000;0.7407;-3.0985;
394.5000;0.7407;-3.0911;
394.8000;0.7432;-3.0861;
395.1000;0.7416;-3.0911;
395.4000;0.7399;-3.0936;
395.7000;0.7440;-3.0861;
396.0000;0.7424;-3.0911;
396.3000;0.7432;-3.0911;
396.6000;0.7440;-3.0961;
396.9000;0.7432;-3.1010;
397.2000;0.7424;-3.1010;
397.5000;0.7440;-3.1060;
397.8000;0.7432;-3.1035;
398.1000;0.7432;-3.1035;
398.4000;0.7375;-3.1184;
398.7000;0.7399;-3.1035;
399.0000;0.7399;-3.0886;
399.3000;0.7391;-3.1035;
399.6000;0.7399;-3.0985;
399.9000;0.7399;-3.0961;
400.2000;0.7456;-3.0836;
400.5000;0.7416;-3.1010;
400.8000;0.7432;-3.1010;
401.1000;0.7432;-3.0961;
401.4000;0.7416;-3.1035;
401.7000;0.7440;-3.0961;
402.0000;0.7416;-3.1035;
402.3000;0.7432;-3.1035;
402.6000;0.7473;-3.0936;
402.9000;0.7424;-3.0985;
403.2000;0.7432;-3.0886;
403.5000;0.7416;-3.0861;
403.8000;0.7416;-3.0811;
404.1000;0.7416;-3.0836;
404.4000;0.7416;-3.0861;
404.7000;0.7424;-3.0886;
405.0000;0.7416;-3.0961;
405.3000;0.7416;-3.1010;
405.6000;0.7416;-3.1035;
405.9000;0.7383;-3.1135;
406.2000;0.7407;-3.1010;
406.5000;0.7399;-3.1085;
406.8000;0.7391;-3.1110;
407.1000;0.7432;-3.1010;
407.4000;0.7432;-3.1085;
407.7000;0.7424;-3.1110;
408.0000;0.7432;-3.1010;
408.3000;0.7424;-3.0961;
408.6000;0.7416;-3.0985;
408.9000;0.7399;-3.1060;
409.2000;0.7416;-3.0961;
409.5000;0.7424;-3.0861;
409.8000;0.7416;-3.0911;
410.1000;0.7407;-3.0911;
410.4000;0.7399;-3.0836;
410.7000;0.7391;-3.0811;
411.0000;0.7432;-3.0687;
411.3000;0.7505;-3.0588;
411.6000;0.7367;-3.1010;
411.9000;0.7424;-3.0936;
412.2000;0.7416;-3.0985;
412.5000;0.7407;-3.0985;
412.8000;0.7440;-3.0836;
413.1000;0.7416;-3.0911;
413.4000;0.7367;-3.0886;
413.7000;0.7350;-3.0886;
414.0000;0.7424;-3.0737;
414.3000;0.7407;-3.0786;
414.6000;0.7432;-3.0737;
414.9000;0.7416;-3.0811;
415.2000;0.7399;-3.0836;
415.5000;0.7424;-3.0886;
415.8000;0.7440;-3.0811;
416.1000;0.7391;-3.0861;
416.4000;0.7367;-3.0811;
416.7000;0.7513;-3.0513;
417.0000;0.7448;-3.0762;
417.3000;0.7416;-3.0911;
417.6000;0.7448;-3.0886;
417.9000;0.7407;-3.0861;
418.2000;0.7424;-3.0762;
418.5000;0.7416;-3.0861;
418.8000;0.7391;-3.0936;
419.1000;0.7416;-3.0911;
419.4000;0.7407;-3.0985;
419.7000;0.7424;-3.0985;
420.0000;0.7424;-3.1035;
420.3000;0.7424;-3.1085;
420.6000;0.7424;-3.1209;
420.9000;0.7481;-3.1060;
421.2000;0.7432;-3.1160;
421.5000;0.7342;-3.1383;
421.8000;0.7416;-3.1085;
422.1000;0.7416;-3.1010;
422.4000;0.7464;-3.0886;
422.7000;0.7424;-3.0911;
423.0000;0.7416;-3.0911;
423.3000;0.7432;-3.0836;
423.6000;0.7424;-3.0811;
423.9000;0.7416;-3.0762;
424.2000;0.7391;-3.0786;
424.5000;0.7416;-3.0737;
424.8000;0.7391;-3.0786;
425.1000;0.7424;-3.0612;
425.4000;0.7473;-3.0538;
425.7000;0.7432;-3.0687;
426.0000;0.7424;-3.0811;
426.3000;0.7407;-3.0886;
426.6000;0.7416;-3.0961;
426.9000;0.7424;-3.0985;
427.2000;0.7416;-3.1010;
427.5000;0.7416;-3.1035;
427.8000;0.7416;-3.0961;
428.1000;0.7399;-3.1060;
428.4000;0.7399;-3.1035;
428.7000;0.7416;-3.1010;
429.0000;0.7424;-3.1060;
429.3000;0.7399;-3.1135;
429.6000;0.7432;-3.1085;
429.9000;0.7407;-3.1110;
430.2000;0.7424;-3.1010;
430.5000;0.7407;-3.0936;
430.8000;0.7399;-3.0836;
431.1000;0.7432;-3.0786;
431.4000;0.7440;-3.0811;
431.7000;0.7416;-3.0861;
432.0000;0.7416;-3.0886;
432.3000;0.7416;-3.0936;
432.6000;0.7416;-3.0836;
432.9000;0.7399;-3.0911;
433.2000;0.7416;-3.0911;
433.5000;0.7407;-3.0985;
433.8000;0.7440;-3.0936;
434.1000;0.7424;-3.0911;
434.4000;0.7440;-3.0911;
434.7000;0.7407;-3.0961;
435.0000;0.7416;-3.0911;
435.3000;0.7350;-3.1085;
435.6000;0.7407;-3.0911;
435.9000;0.7432;-3.0836;
436.2000;0.7424;-3.0911;
436.5000;0.7505;-3.0737;
436.8000;0.7424;-3.0936;
437.1000;0.7432;-3.0985;
437.4000;0.7407;-3.1035;
437.7000;0.7432;-3.0961;
438.0000;0.7424;-3.1035;
438.3000;0.7456;-3.0961;
438.6000;0.7383;-3.1035;
438.9000;0.7399;-3.1035;
439.2000;0.7416;-3.0961;
439.5000;0.7342;-3.1209;
439.8000;0.7375;-3.1035;
440.1000;0.7416;-3.0961;
440.4000;0.7399;-3.1035;
440.7000;0.7383;-3.1010;
441.0000;0.7424;-3.0961;
441.3000;0.7407;-3.0961;
441.6000;0.7416;-3.0911;
441.9000;0.7383;-3.0985;
442.2000;0.7424;-3.0936;
442.5000;0.7416;-3.1010;
442.8000;0.7416;-3.0985;
443.1000;0.7432;-3.0936;
443.4000;0.7448;-3.0936;
443.7000;0.7432;-3.0961;
444.0000;0.7416;-3.0886;
444.3000;0.7424;-3.0886;
444.6000;0.7424;-3.0886;
444.9000;0.7391;-3.1010;
445.2000;0.7407;-3.1010;
445.5000;0.7407;-3.0985;
445.8000;0.7416;-3.1035;
446.1000;0.7432;-3.1010;
446.4000;0.7407;-3.1085;
446.7000;0.7432;-3.1010;
447.0000;0.7416;-3.0985;
447.3000;0.7391;-3.0961;
447.6000;0.7416;-3.0936;
447.9000;0.7424;-3.0811;
448.2000;0.7416;-3.0911;
448.5000;0.7424;-3.0811;
448.8000;0.7407;-3.0737;
449.1000;0.7416;-3.0712;
449.4000;0.7424;-3.0737;
449.7000;0.7416;-3.0811;
450.0000;0.7416;-3.0786;
450.3000;0.7424;-3.0786;
450.6000;0.7391;-3.0886;
450.9000;0.7383;-3.0861;
451.2000;0.7424;-3.0836;
451.5000;0.7416;-3.0936;
451.8000;0.7391;-3.1110;
452.1000;0.7391;-3.1085;
452.4000;0.7407;-3.1060;
452.7000;0.7399;-3.1060;
453.0000;0.7424;-3.0911;
453.3000;0.7391;-3.1010;
453.6000;0.7391;-3.1010;
453.9000;0.7424;-3.0961;
454.2000;0.7416;-3.0961;
454.5000;0.7399;-3.1060;
454.8000;0.7407;-3.1184;
455.1000;0.7407;-3.1010;
455.4000;0.7399;-3.1035;
455.7000;0.7407;-3.1010;
456.0000;0.7399;-3.1010;
456.3000;0.7416;-3.0961;
456.6000;0.7416;-3.0936;
456.9000;0.7399;-3.0961;
457.2000;0.7391;-3.0985;
457.5000;0.7416;-3.1010;
457.8000;0.7375;-3.1160;
458.1000;0.7391;-3.1060;
458.4000;0.7424;-3.1035;
458.7000;0.7440;-3.0985;
459.0000;0.7424;-3.0961;
459.3000;0.7350;-3.1035;
459.6000;0.7407;-3.0861;
459.9000;0.7416;-3.0811;
460.2000;0.7350;-3.1035;
460.5000;0.7456;-3.0861;
460.8000;0.7416;-3.0936;
461.1000;0.7416;-3.1035;
461.4000;0.7473;-3.0836;
461.7000;0.7407;-3.1010;
462.0000;0.7416;-3.0911;
462.3000;0.7407;-3.1010;
462.6000;0.7416;-3.0985;
462.9000;0.7383;-3.1060;
463.2000;0.7391;-3.1010;
463.5000;0.7456;-3.0811;
463.8000;0.7399;-3.0985;
464.1000;0.7399;-3.0961;
464.4000;0.7383;-3.0911;
464.7000;0.7399;-3.1010;
465.0000;0.7399;-3.0985;
465.3000;0.7416;-3.0886;
465.6000;0.7416;-3.0811;
465.9000;0.7407;-3.0886;
466.2000;0.7424;-3.0886;
466.5000;0.7440;-3.0911;
466.8000;0.7416;-3.1010;
467.1000;0.7416;-3.1110;
467.4000;0.7391;-3.1234;
467.7000;0.7424;-3.1184;
468.0000;0.7416;-3.1110;
468.3000;0.7391;-3.1184;
468.6000;0.7342;-3.1209;
468.9000;0.7399;-3.1010;
469.2000;0.7391;-3.1085;
469.5000;0.7407;-3.1160;
469.8000;0.7407;-3.1184;
470.1000;0.7416;-3.1135;
470.4000;0.7424;-3.1085;
470.7000;0.7440;-3.1060;
471.0000;0.7424;-3.1110;
471.3000;0.7407;-3.1160;
471.6000;0.7416;-3.1234;
471.9000;0.7424;-3.1184;
472.2000;0.7383;-3.1234;
472.5000;0.7407;-3.1135;
472.8000;0.7399;-3.1085;
473.1000;0.7407;-3.1035;
473.4000;0.7407;-3.1135;
473.7000;0.7407;-3.1160;
474.0000;0.7416;-3.1184;
474.3000;0.7407;-3.1234;
474.6000;0.7407;-3.1209;
474.9000;0.7407;-3.1259;
475.2000;0.7407;-3.1209;
475.5000;0.7407;-3.1259;
475.8000;0.7399;-3.1284;
476.1000;0.7416;-3.1209;
476.4000;0.7391;-3.1259;
476.7000;0.7399;-3.1209;
477.0000;0.7416;-3.1160;
477.3000;0.7424;-3.1035;
477.6000;0.7399;-3.1035;
477.9000;0.7399;-3.1135;
478.2000;0.7399;-3.1135;
478.5000;0.7432;-3.1035;
478.8000;0.7432;-3.1010;
479.1000;0.7383;-3.1160;
479.4000;0.7399;-3.1110;
479.7000;0.7399;-3.1085;
480.0000;0.7391;-3.1035;
480.3000;0.7391;-3.1085;
480.6000;0.7391;-3.1110;
480.9000;0.7407;-3.1110;
481.2000;0.7432;-3.1085;
481.5000;0.7432;-3.1060;
481.8000;0.7440;-3.1035;
482.1000;0.7440;-3.0985;
482.4000;0.7407;-3.1060;
482.7000;0.7424;-3.1135;
483.0000;0.7399;-3.1184;
483.3000;0.7473;-3.1010;
483.6000;0.7481;-3.1010;
483.9000;0.7399;-3.1259;
484.2000;0.7399;-3.1209;
484.5000;0.7424;-3.1184;
484.8000;0.7424;-3.1085;
485.1000;0.7424;-3.1085;
485.4000;0.7391;-3.1234;
485.7000;0.7407;-3.1184;
486.0000;0.7424;-3.1135;
486.3000;0.7391;-3.1284;
486.6000;0.7407;-3.1259;
486.9000;0.7407;-3.1209;
487.2000;0.7424;-3.1234;
487.5000;0.7399;-3.1209;
487.8000;0.7424;-3.0985;
488.1000;0.7448;-3.0961;
488.4000;0.7440;-3.0961;
488.7000;0.7416;-3.1060;
489.0000;0.7416;-3.1135;
489.3000;0.7399;-3.1160;
489.6000;0.7375;-3.1234;
489.9000;0.7399;-3.1209;
490.2000;0.7416;-3.1135;
490.5000;0.7424;-3.1110;
490.8000;0.7407;-3.1184;
491.1000;0.7391;-3.1135;
491.4000;0.7407;-3.1060;
491.7000;0.7375;-3.1209;
492.0000;0.7399;-3.1184;
492.3000;0.7342;-3.1334;
492.6000;0.7391;-3.1234;
492.9000;0.7399;-3.1234;
493.2000;0.7391;-3.1309;
493.5000;0.7399;-3.1383;
493.8000;0.7383;-3.1334;
494.1000;0.7399;-3.1358;
494.4000;0.7383;-3.1383;
494.7000;0.7367;-3.1309;
495.0000;0.7391;-3.1184;
495.3000;0.7359;-3.1334;
495.6000;0.7424;-3.1110;
495.9000;0.7407;-3.1184;
496.2000;0.7399;-3.1085;
496.5000;0.7399;-3.1085;
496.8000;0.7407;-3.1060;
497.1000;0.7424;-3.0936;
497.4000;0.7416;-3.1035;
497.7000;0.7407;-3.0985;
498.0000;0.7399;-3.1010;
498.3000;0.7416;-3.0911;
498.6000;0.7326;-3.1184;
498.9000;0.7399;-3.0985;
499.2000;0.7391;-3.1035;
499.5000;0.7407;-3.1035;
499.8000;0.7391;-3.1060;
500.1000;0.7407;-3.1010;
500.4000;0.7383;-3.1010;
500.7000;0.7391;-3.1060;
501.0000;0.7416;-3.0961;
501.3000;0.7424;-3.0985;
501.6000;0.7407;-3.1035;
501.9000;0.7473;-3.0911;
502.2000;0.7416;-3.1060;
502.5000;0.7416;-3.1010;
502.8000;0.7399;-3.1060;
503.1000;0.7416;-3.1110;
503.4000;0.7456;-3.1010;
503.7000;0.7424;-3.1085;
504.0000;0.7399;-3.1135;
504.3000;0.7399;-3.1160;
504.6000;0.7399;-3.1284;
504.9000;0.7416;-3.1284;
505.2000;0.7416;-3.1284;
505.5000;0.7440;-3.1234;
505.8000;0.7391;-3.1334;
506.1000;0.7416;-3.1184;
506.4000;0.7416;-3.1135;
506.7000;0.7399;-3.1060;
507.0000;0.7399;-3.1035;
507.3000;0.7399;-3.1209;
507.6000;0.7391;-3.1160;
507.9000;0.7391;-3.1160;
508.2000;0.7359;-3.1160;
508.5000;0.7367;-3.1284;
508.8000;0.7416;-3.1184;
509.1000;0.7416;-3.1110;
509.4000;0.7391;-3.0985;
509.7000;0.7375;-3.0961;
510.0000;0.7383;-3.1085;
510.3000;0.7416;-3.1010;
510.6000;0.7473;-3.0886;
510.9000;0.7416;-3.1085;
511.2000;0.7424;-3.1060;
511.5000;0.7399;-3.1035;
511.8000;0.7285;-3.1334;
512.1000;0.7407;-3.1010;
512.4000;0.7473;-3.0836;
512.7000;0.7416;-3.0985;
513.0000;0.7375;-3.1160;
513.3000;0.7416;-3.1010;
513.6000;0.7367;-3.1135;
513.9000;0.7342;-3.1135;
514.2000;0.7424;-3.0985;
514.5000;0.7399;-3.1160;
514.8000;0.7310;-3.1334;
515.1000;0.7399;-3.1184;
515.4000;0.7383;-3.1234;
515.7000;0.7481;-3.0936;
516.0000;0.7391;-3.1135;
516.3000;0.7383;-3.1160;
516.6000;0.7448;-3.1010;
516.9000;0.7375;-3.1259;
517.2000;0.7326;-3.1358;
517.5000;0.7391;-3.1234;
517.8000;0.7416;-3.1234;
518.1000;0.7383;-3.1234;
518.4000;0.7367;-3.1309;
518.7000;0.7416;-3.1234;
519.0000;0.7399;-3.1234;
519.3000;0.7383;-3.1209;
519.6000;0.7383;-3.1085;
519.9000;0.7383;-3.1135;
520.2000;0.7375;-3.1160;
520.5000;0.7407;-3.1110;
520.8000;0.7416;-3.1085;
521.1000;0.7407;-3.1135;
521.4000;0.7456;-3.1035;
521.7000;0.7399;-3.1085;
522.0000;0.7399;-3.0985;
522.3000;0.7391;-3.1060;
522.6000;0.7407;-3.1035;
522.9000;0.7407;-3.0961;
523.2000;0.7432;-3.0886;
523.5000;0.7416;-3.0886;
523.8000;0.7416;-3.0836;
524.1000;0.7399;-3.0911;
524.4000;0.7399;-3.0911;
524.7000;0.7383;-3.1010;
525.0000;0.7391;-3.1035;
525.3000;0.7399;-3.1010;
525.6000;0.7391;-3.1209;
525.9000;0.7399;-3.1259;
526.2000;0.7407;-3.1259;
526.5000;0.7375;-3.1309;
526.8000;0.7391;-3.1184;
527.1000;0.7391;-3.1110;
527.4000;0.7416;-3.1085;
527.7000;0.7383;-3.1234;
528.0000;0.7407;-3.1110;
528.3000;0.7464;-3.0961;
528.6000;0.7407;-3.1184;
528.9000;0.7375;-3.1110;
529.2000;0.7473;-3.0836;
529.5000;0.7391;-3.0961;
529.8000;0.7416;-3.0911;
530.1000;0.7399;-3.0961;
530.4000;0.7407;-3.1010;
530.7000;0.7407;-3.1060;
531.0000;0.7302;-3.1284;
531.3000;0.7407;-3.1110;
531.6000;0.7399;-3.1085;
531.9000;0.7399;-3.1010;
532.2000;0.7416;-3.1035;
532.5000;0.7407;-3.1060;
532.8000;0.7375;-3.1160;
533.1000;0.7407;-3.1135;
533.4000;0.7383;-3.1259;
533.7000;0.7391;-3.1234;
534.0000;0.7399;-3.1234;
534.3000;0.7399;-3.1209;
534.6000;0.7399;-3.1259;
534.9000;0.7407;-3.1234;
535.2000;0.7448;-3.1085;
535.5000;0.7359;-3.1284;
535.8000;0.7513;-3.0911;
536.1000;0.7424;-3.1284;
536.4000;0.7416;-3.1234;
536.7000;0.7391;-3.1284;
537.0000;0.7424;-3.1184;
537.3000;0.7391;-3.1234;
537.6000;0.7399;-3.1160;
537.9000;0.7399;-3.1234;
538.2000;0.7407;-3.1234;
538.5000;0.7383;-3.1209;
538.8000;0.7375;-3.1259;
539.1000;0.7399;-3.1110;
539.4000;0.7407;-3.1085;
539.7000;0.7391;-3.1060;
540.0000;0.7416;-3.0961;
540.3000;0.7399;-3.1035;
540.6000;0.7391;-3.0985;
540.9000;0.7391;-3.1010;
541.2000;0.7432;-3.0861;
541.5000;0.7399;-3.1060;
541.8000;0.7424;-3.1135;
542.1000;0.7399;-3.1284;
542.4000;0.7383;-3.1358;
542.7000;0.7407;-3.1184;
543.0000;0.7407;-3.1309;
543.3000;0.7391;-3.1259;
543.6000;0.7391;-3.1284;
543.9000;0.7399;-3.1184;
544.2000;0.7383;-3.1209;
544.5000;0.7383;-3.1309;
544.8000;0.7375;-3.1284;
545.1000;0.7383;-3.1259;
545.4000;0.7407;-3.1284;
545.7000;0.7399;-3.1135;
546.0000;0.7399;-3.1135;
546.3000;0.7383;-3.1135;
546.6000;0.7391;-3.1160;
546.9000;0.7391;-3.1135;
547.2000;0.7407;-3.1085;
547.5000;0.7391;-3.1060;
547.8000;0.7391;-3.1060;
548.1000;0.7416;-3.1010;
548.4000;0.7399;-3.0961;
548.7000;0.7375;-3.0985;
549.0000;0.7407;-3.0836;
549.3000;0.7407;-3.0836;
549.6000;0.7399;-3.0836;
549.9000;0.7432;-3.0811;
550.2000;0.7383;-3.1060;
550.5000;0.7432;-3.1035;
550.8000;0.7399;-3.1010;
551.1000;0.7399;-3.0961;
551.4000;0.7407;-3.0936;
551.7000;0.7391;-3.1035;
552.0000;0.7399;-3.1110;
552.3000;0.7399;-3.1060;
552.6000;0.7416;-3.1110;
552.9000;0.7391;-3.1234;
553.2000;0.7407;-3.1110;
553.5000;0.7391;-3.1135;
553.8000;0.7383;-3.1135;
554.1000;0.7367;-3.1135;
554.4000;0.7440;-3.0911;
554.7000;0.7399;-3.0985;
555.0000;0.7391;-3.0961;
555.3000;0.7464;-3.0836;
555.6000;0.7391;-3.0985;
555.9000;0.7416;-3.0985;
556.2000;0.7391;-3.1060;
556.5000;0.7407;-3.0961;
556.8000;0.7383;-3.0985;
557.1000;0.7383;-3.1035;
557.4000;0.7334;-3.1334;
557.7000;0.7383;-3.1160;
558.0000;0.7383;-3.1135;
558.3000;0.7350;-3.1234;
558.6000;0.7399;-3.1184;
558.9000;0.7391;-3.1160;
559.2000;0.7399;-3.1184;
559.5000;0.7456;-3.1110;
559.8000;0.7424;-3.1135;
560.1000;0.7399;-3.1110;
560.4000;0.7367;-3.1234;
560.7000;0.7391;-3.1259;
561.0000;0.7399;-3.1259;
561.3000;0.7399;-3.1284;
561.6000;0.7391;-3.1259;
561.9000;0.7334;-3.1458;
562.2000;0.7399;-3.1259;
562.5000;0.7399;-3.1284;
562.8000;0.7383;-3.1309;
563.1000;0.7383;-3.1184;
563.4000;0.7416;-3.1184;
563.7000;0.7407;-3.1259;
564.0000;0.7399;-3.1284;
564.3000;0.7399;-3.1259;
564.6000;0.7399;-3.1135;
564.9000;0.7399;-3.1110;
565.2000;0.7383;-3.1110;
565.5000;0.7399;-3.0985;
565.8000;0.7399;-3.1010;
566.1000;0.7391;-3.1060;
566.4000;0.7407;-3.1035;
566.7000;0.7399;-3.1160;
567.0000;0.7407;-3.1060;
567.3000;0.7416;-3.1035;
567.6000;0.7391;-3.1135;
567.9000;0.7407;-3.1184;
568.2000;0.7383;-3.1135;
568.5000;0.7367;-3.1110;
568.8000;0.7383;-3.1010;
569.1000;0.7391;-3.0961;
569.4000;0.7391;-3.1010;
569.7000;0.7407;-3.0985;
570.0000;0.7424;-3.0961;
570.3000;0.7416;-3.0961;
570.6000;0.7407;-3.0961;
570.9000;0.7391;-3.1010;
571.2000;0.7391;-3.1010;
571.5000;0.7424;-3.1010;
571.8000;0.7399;-3.1035;
572.1000;0.7399;-3.1060;
572.4000;0.7399;-3.1060;
572.7000;0.7407;-3.1209;
573.0000;0.7399;-3.1209;
573.3000;0.7399;-3.1110;
573.6000;0.7399;-3.1160;
573.9000;0.7399;-3.1135;
574.2000;0.7367;-3.1110;
574.5000;0.7391;-3.1010;
574.8000;0.7383;-3.1060;
575.1000;0.7464;-3.0936;
575.4000;0.7432;-3.1035;
575.7000;0.7399;-3.1160;
576.0000;0.7399;-3.1135;
576.3000;0.7391;-3.1085;
576.6000;0.7407;-3.1110;
576.9000;0.7399;-3.1135;
577.2000;0.7375;-3.1234;
577.5000;0.7399;-3.1184;
577.8000;0.7391;-3.1060;
578.1000;0.7359;-3.1160;
578.4000;0.7391;-3.1184;
578.7000;0.7407;-3.1184;
579.0000;0.7326;-3.1383;
579.3000;0.7432;-3.1284;
579.6000;0.7497;-3.1209;
579.9000;0.7375;-3.1483;
580.2000;0.7350;-3.1508;
580.5000;0.7383;-3.1408;
580.8000;0.7391;-3.1433;
581.1000;0.7391;-3.1408;
581.4000;0.7375;-3.1309;
581.7000;0.7391;-3.1184;
582.0000;0.7359;-3.1234;
582.3000;0.7375;-3.1184;
582.6000;0.7375;-3.1209;
582.9000;0.7399;-3.1209;
583.2000;0.7383;-3.1334;
583.5000;0.7416;-3.1259;
583.8000;0.7383;-3.1334;
584.1000;0.7375;-3.1358;
584.4000;0.7391;-3.1309;
584.7000;0.7375;-3.1284;
585.0000;0.7391;-3.1209;
585.3000;0.7383;-3.1234;
585.6000;0.7383;-3.1209;
585.9000;0.7391;-3.1234;
586.2000;0.7375;-3.1259;
586.5000;0.7391;-3.1234;
586.8000;0.7391;-3.1209;
587.1000;0.7391;-3.1184;
587.4000;0.7399;-3.1334;
587.7000;0.7383;-3.1433;
588.0000;0.7399;-3.1334;
588.3000;0.7383;-3.1334;
588.6000;0.7391;-3.1259;
588.9000;0.7407;-3.1234;
589.2000;0.7391;-3.1259;
589.5000;0.7383;-3.1309;
589.8000;0.7383;-3.1383;
590.1000;0.7391;-3.1383;
590.4000;0.7367;-3.1383;
590.7000;0.7391;-3.1358;
591.0000;0.7367;-3.1433;
591.3000;0.7375;-3.1433;
591.6000;0.7375;-3.1433;
591.9000;0.7367;-3.1458;
592.2000;0.7416;-3.1234;
592.5000;0.7391;-3.1234;
592.8000;0.7383;-3.1309;
593.1000;0.7367;-3.1334;
593.4000;0.7383;-3.1309;
593.7000;0.7399;-3.1234;
594.0000;0.7391;-3.1309;
594.3000;0.7375;-3.1284;
594.6000;0.7359;-3.1284;
594.9000;0.7391;-3.1184;
595.2000;0.7391;-3.1184;
595.5000;0.7399;-3.1209;
595.8000;0.7391;-3.1135;
596.1000;0.7383;-3.1110;
596.4000;0.7359;-3.1234;
596.7000;0.7391;-3.1160;
597.0000;0.7407;-3.1110;
597.3000;0.7383;-3.1184;
597.6000;0.7359;-3.1259;
597.9000;0.7399;-3.1110;
598.2000;0.7399;-3.0985;
598.5000;0.7391;-3.1035;
598.8000;0.7359;-3.1135;
599.1000;0.7391;-3.1085;
599.4000;0.7432;-3.0961;
599.7000;0.7391;-3.1035;
600.0000;0.7432;-3.1085;
600.3000;0.7391;-3.1358;
600.6000;0.7391;-3.1433;
600.9000;0.7359;-3.1533;
601.2000;0.7326;-3.1607;
601.5000;0.7310;-3.1682;
601.8000;0.7310;-3.1707;
602.1000;0.7285;-3.1756;
602.4000;0.7163;-3.2129;
602.7000;0.7041;-3.2378;
603.0000;0.7049;-3.2279;
603.3000;0.7041;-3.2328;
603.6000;0.6968;-3.2627;
603.9000;0.6943;-3.2676;
604.2000;0.6862;-3.2826;
604.5000;0.6862;-3.2801;
604.8000;0.6829;-3.2801;
605.1000;0.6797;-3.2925;
605.4000;0.6789;-3.2975;
605.7000;0.6724;-3.3074;
606.0000;0.6683;-3.3149;
606.3000;0.6675;-3.3174;
606.6000;0.6618;-3.3174;
606.9000;0.6610;-3.3174;
607.2000;0.6577;-3.3174;
607.5000;0.6561;-3.3248;
607.8000;0.6536;-3.3298;
608.1000;0.6431;-3.3547;
608.4000;0.6414;-3.3422;
608.7000;0.6439;-3.3298;
609.0000;0.6422;-3.3273;
609.3000;0.6382;-3.3348;
609.6000;0.6382;-3.3224;
609.9000;0.6333;-3.3298;
610.2000;0.6317;-3.3348;
610.5000;0.6309;-3.3472;
610.8000;0.6276;-3.3572;
611.1000;0.6276;-3.3572;
611.4000;0.6341;-3.3323;
611.7000;0.6235;-3.3497;
612.0000;0.6268;-3.3348;
612.3000;0.6178;-3.3497;
612.6000;0.6089;-3.3646;
612.9000;0.6105;-3.3621;
613.2000;0.6170;-3.3422;
613.5000;0.6097;-3.3572;
613.8000;0.6081;-3.3696;
614.1000;0.6081;-3.3646;
614.4000;0.6105;-3.3572;
614.7000;0.6064;-3.3597;
615.0000;0.6015;-3.3572;
615.3000;0.6007;-3.3497;
615.6000;0.5999;-3.3472;
615.9000;0.5991;-3.3447;
616.2000;0.5983;-3.3398;
616.5000;0.5893;-3.3621;
616.8000;0.5934;-3.3522;
617.1000;0.5934;-3.3547;
617.4000;0.5926;-3.3522;
617.7000;0.5934;-3.3572;
618.0000;0.5877;-3.3671;
618.3000;0.5877;-3.3671;
618.6000;0.5836;-3.3721;
618.9000;0.5836;-3.3721;
619.2000;0.5820;-3.3696;
619.5000;0.5836;-3.3721;
619.8000;0.5820;-3.3796;
620.1000;0.5788;-3.3746;
620.4000;0.5788;-3.3746;
620.7000;0.5706;-3.3920;
621.0000;0.5771;-3.3771;
621.3000;0.5763;-3.3746;
621.6000;0.5796;-3.3696;
621.9000;0.5722;-3.3771;
622.2000;0.5698;-3.3771;
622.5000;0.5649;-3.3945;
622.8000;0.5690;-3.3895;
623.1000;0.5682;-3.3920;
623.4000;0.5674;-3.3870;
623.7000;0.5657;-3.3895;
624.0000;0.5560;-3.4119;
624.3000;0.5641;-3.3820;
624.6000;0.5608;-3.3820;
624.9000;0.5674;-3.3746;
625.2000;0.5608;-3.3820;
625.5000;0.5617;-3.3820;
625.8000;0.5592;-3.3895;
626.1000;0.5641;-3.3696;
626.4000;0.5551;-3.3945;
626.7000;0.5560;-3.3920;
627.0000;0.5527;-3.3970;
627.3000;0.5543;-3.3920;
627.6000;0.5543;-3.3870;
627.9000;0.5511;-3.3970;
628.2000;0.5527;-3.3945;
628.5000;0.5503;-3.4069;
628.8000;0.5503;-3.4069;
629.1000;0.5495;-3.3994;
629.4000;0.5503;-3.3895;
629.7000;0.5535;-3.3771;
630.0000;0.5495;-3.3895;
630.3000;0.5462;-3.3895;
630.6000;0.5438;-3.3920;
630.9000;0.5454;-3.3895;
631.2000;0.5454;-3.3945;
631.5000;0.5438;-3.3970;
631.8000;0.5356;-3.4094;
632.1000;0.5503;-3.3895;
632.4000;0.5389;-3.4144;
632.7000;0.5372;-3.4169;
633.0000;0.5307;-3.4343;
633.3000;0.5372;-3.4044;
633.6000;0.5397;-3.3994;
633.9000;0.5389;-3.3945;
634.2000;0.5397;-3.3970;
634.5000;0.5307;-3.4144;
634.8000;0.5364;-3.3970;
635.1000;0.5364;-3.3970;
635.4000;0.5438;-3.3771;
635.7000;0.5340;-3.3845;
636.0000;0.5315;-3.3845;
636.3000;0.5324;-3.3870;
636.6000;0.5324;-3.3920;
636.9000;0.5397;-3.3671;
637.2000;0.5267;-3.4019;
637.5000;0.5299;-3.3920;
637.8000;0.5315;-3.3920;
638.1000;0.5299;-3.3945;
638.4000;0.5381;-3.3845;
638.7000;0.5275;-3.4069;
639.0000;0.5283;-3.4144;
639.3000;0.5267;-3.4069;
639.6000;0.5258;-3.4044;
639.9000;0.5242;-3.4044;
640.2000;0.5250;-3.3970;
640.5000;0.5250;-3.3994;
640.8000;0.5250;-3.3970;
641.1000;0.5242;-3.3870;
641.4000;0.5242;-3.3895;
641.7000;0.5218;-3.3945;
642.0000;0.5218;-3.3895;
642.3000;0.5218;-3.3895;
642.6000;0.5201;-3.3945;
642.9000;0.5201;-3.3945;
643.2000;0.5210;-3.3945;
643.5000;0.5201;-3.4019;
643.8000;0.5169;-3.4218;
644.1000;0.5193;-3.4218;
644.4000;0.5153;-3.4243;
644.7000;0.5201;-3.4094;
645.0000;0.5161;-3.4169;
645.3000;0.5185;-3.4144;
645.6000;0.5120;-3.4193;
645.9000;0.5169;-3.4119;
646.2000;0.5226;-3.4044;
646.5000;0.5161;-3.4119;
646.8000;0.5063;-3.4318;
647.1000;0.5144;-3.4094;
647.4000;0.5144;-3.4094;
647.7000;0.5071;-3.4243;
648.0000;0.5169;-3.3920;
648.3000;0.5136;-3.3994;
648.6000;0.5193;-3.3796;
648.9000;0.5120;-3.3994;
649.2000;0.5136;-3.4019;
649.5000;0.5096;-3.4069;
649.8000;0.5112;-3.4044;
650.1000;0.5120;-3.3970;
650.4000;0.5079;-3.4094;
650.7000;0.5104;-3.3994;
651.0000;0.5185;-3.3920;
651.3000;0.5136;-3.4044;
651.6000;0.5079;-3.4169;
651.9000;0.5104;-3.4119;
652.2000;0.5071;-3.4094;
652.5000;0.5079;-3.4069;
652.8000;0.5104;-3.3994;
653.1000;0.5039;-3.4193;
653.4000;0.5047;-3.4218;
653.7000;0.5088;-3.4218;
654.0000;0.5071;-3.4343;
654.3000;0.4982;-3.4492;
654.6000;0.5071;-3.4268;
654.9000;0.5047;-3.4318;
655.2000;0.5039;-3.4218;
655.5000;0.5055;-3.4144;
655.8000;0.4998;-3.4293;
656.1000;0.5031;-3.4119;
656.4000;0.5055;-3.4094;
656.7000;0.5031;-3.4144;
657.0000;0.5014;-3.4218;
657.3000;0.5039;-3.4218;
657.6000;0.5055;-3.4044;
657.9000;0.5039;-3.4119;
658.2000;0.5031;-3.4193;
658.5000;0.5014;-3.4169;
658.8000;0.5039;-3.4144;
659.1000;0.5031;-3.4169;
659.4000;0.5031;-3.4218;
659.7000;0.5014;-3.4193;
660.0000;0.5006;-3.4119;
660.3000;0.5031;-3.4094;
660.6000;0.5006;-3.4119;
660.9000;0.5047;-3.3994;
661.2000;0.4990;-3.4119;
661.5000;0.4982;-3.4119;
661.8000;0.5006;-3.4044;
662.1000;0.4982;-3.3994;
662.4000;0.4990;-3.3945;
662.7000;0.4982;-3.4119;
663.0000;0.4982;-3.4169;
663.3000;0.5006;-3.4069;
663.6000;0.4925;-3.4193;
663.9000;0.4990;-3.4069;
664.2000;0.4982;-3.4119;
664.5000;0.4933;-3.4218;
664.8000;0.4965;-3.4169;
665.1000;0.4974;-3.4119;
665.4000;0.4957;-3.4044;
665.7000;0.4974;-3.3945;
666.0000;0.4949;-3.4019;
666.3000;0.4957;-3.3945;
666.6000;0.4974;-3.3870;
666.9000;0.4957;-3.3895;
667.2000;0.4957;-3.3920;
667.5000;0.4957;-3.4019;
667.8000;0.4949;-3.4069;
668.1000;0.4949;-3.4119;
668.4000;0.4949;-3.4193;
668.7000;0.4933;-3.4268;
669.0000;0.4933;-3.4293;
669.3000;0.4925;-3.4293;
669.6000;0.4933;-3.4243;
669.9000;0.4990;-3.4218;
670.2000;0.4957;-3.4392;
670.5000;0.4957;-3.4343;
670.8000;0.4957;-3.4243;
671.1000;0.4900;-3.4318;
671.4000;0.4925;-3.4343;
671.7000;0.4900;-3.4343;
672.0000;0.4908;-3.4318;
672.3000;0.4933;-3.4243;
672.6000;0.4933;-3.4193;
672.9000;0.4917;-3.4193;
673.2000;0.4949;-3.4019;
673.5000;0.4917;-3.4169;
673.8000;0.4908;-3.4169;
674.1000;0.4884;-3.4243;
674.4000;0.4917;-3.4169;
674.7000;0.4917;-3.4144;
675.0000;0.4933;-3.4019;
675.3000;0.4908;-3.4119;
675.6000;0.4908;-3.4169;
675.9000;0.4892;-3.4144;
676.2000;0.4908;-3.4119;
676.5000;0.4884;-3.4144;
676.8000;0.4876;-3.4119;
677.1000;0.4884;-3.4193;
677.4000;0.4908;-3.4094;
677.7000;0.4876;-3.4218;
678.0000;0.4884;-3.4268;
678.3000;0.4884;-3.4243;
678.6000;0.4884;-3.4243;
678.9000;0.4892;-3.4218;
679.2000;0.4868;-3.4268;
679.5000;0.4876;-3.4193;
679.8000;0.4876;-3.4218;
680.1000;0.4892;-3.4169;
680.4000;0.4884;-3.4169;
680.7000;0.4876;-3.4169;
681.0000;0.4900;-3.4069;
681.3000;0.4892;-3.4044;
681.6000;0.4917;-3.3970;
681.9000;0.4860;-3.4069;
682.2000;0.4868;-3.3994;
682.5000;0.4892;-3.3945;
682.8000;0.4876;-3.3945;
683.1000;0.4851;-3.3945;
683.4000;0.4851;-3.4019;
683.7000;0.4851;-3.4094;
684.0000;0.4860;-3.4119;
684.3000;0.4851;-3.4094;
684.6000;0.4851;-3.4144;
684.9000;0.4851;-3.4119;
685.2000;0.4860;-3.4119;
685.5000;0.4851;-3.4268;
685.8000;0.4860;-3.4193;
686.1000;0.4843;-3.4119;
686.4000;0.4827;-3.4169;
686.7000;0.4843;-3.4268;
687.0000;0.4851;-3.4293;
687.3000;0.4835;-3.4318;
687.6000;0.4819;-3.4293;
687.9000;0.4851;-3.4119;
688.2000;0.4819;-3.4193;
688.5000;0.4819;-3.4169;
688.8000;0.4827;-3.4144;
689.1000;0.4827;-3.4044;
689.4000;0.4835;-3.3994;
689.7000;0.4827;-3.4069;
690.0000;0.4827;-3.4144;
690.3000;0.4835;-3.4119;
690.6000;0.4851;-3.4144;
690.9000;0.4827;-3.4119;
691.2000;0.4835;-3.4169;
691.5000;0.4786;-3.4343;
691.8000;0.4851;-3.4119;
692.1000;0.4819;-3.4218;
692.4000;0.4851;-3.4119;
692.7000;0.4819;-3.4193;
693.0000;0.4827;-3.4169;
693.3000;0.4876;-3.4044;
693.6000;0.4819;-3.4193;
693.9000;0.4843;-3.4169;
694.2000;0.4827;-3.4293;
694.5000;0.4794;-3.4392;
694.8000;0.4827;-3.4343;
695.1000;0.4917;-3.4044;
695.4000;0.4835;-3.4243;
695.7000;0.4811;-3.4293;
696.0000;0.4835;-3.4243;
696.3000;0.4811;-3.4193;
696.6000;0.4819;-3.4144;
696.9000;0.4843;-3.4144;
697.2000;0.4819;-3.4218;
697.5000;0.4746;-3.4367;
697.8000;0.4794;-3.4169;
698.1000;0.4908;-3.3970;
698.4000;0.4803;-3.4243;
698.7000;0.4811;-3.4169;
699.0000;0.4811;-3.4169;
699.3000;0.4811;-3.4094;
699.6000;0.4811;-3.4044;
699.9000;0.4835;-3.3994;
700.2000;0.4803;-3.4119;
700.5000;0.4811;-3.4243;
700.8000;0.4794;-3.4343;
701.1000;0.4803;-3.4293;
701.4000;0.4803;-3.4144;
701.7000;0.4827;-3.4069;
702.0000;0.4729;-3.4268;
702.3000;0.4819;-3.4119;
702.6000;0.4803;-3.4094;
702.9000;0.4729;-3.4144;
703.2000;0.4803;-3.3945;
703.5000;0.4819;-3.3870;
703.8000;0.4811;-3.3870;
704.1000;0.4803;-3.3895;
704.4000;0.4803;-3.3994;
704.7000;0.4803;-3.3994;
705.0000;0.4778;-3.4044;
705.3000;0.4803;-3.3970;
705.6000;0.4786;-3.4069;
705.9000;0.4794;-3.4069;
706.2000;0.4794;-3.3970;
706.5000;0.4811;-3.3920;
706.8000;0.4811;-3.4019;
707.1000;0.4794;-3.4119;
707.4000;0.4794;-3.4169;
707.7000;0.4794;-3.4094;
708.0000;0.4770;-3.4019;
708.3000;0.4770;-3.3994;
708.6000;0.4770;-3.4019;
708.9000;0.4786;-3.3994;
709.2000;0.4794;-3.3994;
709.5000;0.4762;-3.4069;
709.8000;0.4786;-3.4019;
710.1000;0.4786;-3.4069;
710.4000;0.4786;-3.4144;
710.7000;0.4762;-3.4119;
711.0000;0.4770;-3.4069;
711.3000;0.4778;-3.4169;
711.6000;0.4770;-3.4169;
711.9000;0.4762;-3.4243;
712.2000;0.4762;-3.4243;
712.5000;0.4786;-3.4268;
712.8000;0.4778;-3.4293;
713.1000;0.4762;-3.4268;
713.4000;0.4762;-3.4243;
713.7000;0.4778;-3.4268;
714.0000;0.4778;-3.4343;
714.3000;0.4770;-3.4268;
714.6000;0.4778;-3.4218;
714.9000;0.4762;-3.4268;
715.2000;0.4778;-3.4169;
715.5000;0.4746;-3.4243;
715.8000;0.4754;-3.4119;
716.1000;0.4737;-3.4119;
716.4000;0.4762;-3.3994;
716.7000;0.4819;-3.3820;
717.0000;0.4754;-3.3945;
717.3000;0.4754;-3.3970;
717.6000;0.4770;-3.3945;
717.9000;0.4721;-3.4069;
718.2000;0.4762;-3.3994;
718.5000;0.4721;-3.4069;
718.8000;0.4754;-3.3945;
719.1000;0.4754;-3.4019;
719.4000;0.4794;-3.3970;
719.7000;0.4762;-3.4019;
720.0000;0.4778;-3.3920;
720.3000;0.4762;-3.3945;
720.6000;0.4803;-3.3820;
720.9000;0.4754;-3.3870;
721.2000;0.4770;-3.3895;
721.5000;0.4746;-3.4019;
721.8000;0.4762;-3.4069;
722.1000;0.4746;-3.4119;
722.4000;0.4762;-3.4069;
722.7000;0.4762;-3.4094;
723.0000;0.4705;-3.4169;
723.3000;0.4762;-3.4119;
723.6000;0.4770;-3.4069;
723.9000;0.4778;-3.4119;
724.2000;0.4762;-3.4094;
724.5000;0.4762;-3.4069;
724.8000;0.4754;-3.4094;
725.1000;0.4754;-3.4019;
725.4000;0.4737;-3.4019;
725.7000;0.4794;-3.3845;
726.0000;0.4754;-3.3970;
726.3000;0.4754;-3.4019;
726.6000;0.4705;-3.4119;
726.9000;0.4770;-3.3994;
727.2000;0.4770;-3.4094;
727.5000;0.4746;-3.4069;
727.8000;0.4778;-3.3994;
728.1000;0.4737;-3.4094;
728.4000;0.4762;-3.4044;
728.7000;0.4746;-3.4019;
729.0000;0.4746;-3.4094;
729.3000;0.4754;-3.4019;
729.6000;0.4754;-3.4044;
729.9000;0.4746;-3.4094;
730.2000;0.4762;-3.4044;
730.5000;0.4762;-3.4019;
730.8000;0.4729;-3.4044;
731.1000;0.4746;-3.3920;
731.4000;0.4729;-3.3870;
731.7000;0.4729;-3.3820;
732.0000;0.4754;-3.3771;
732.3000;0.4754;-3.3845;
732.6000;0.4737;-3.3895;
732.9000;0.4754;-3.3845;
733.2000;0.4737;-3.3870;
733.5000;0.4737;-3.3895;
733.8000;0.4746;-3.3920;
734.1000;0.4746;-3.3994;
734.4000;0.4648;-3.4293;
734.7000;0.4746;-3.4069;
735.0000;0.4737;-3.4119;
735.3000;0.4729;-3.4044;
735.6000;0.4746;-3.4019;
735.9000;0.4843;-3.3746;
736.2000;0.4746;-3.4019;
736.5000;0.4729;-3.4069;
736.8000;0.4721;-3.3970;
737.1000;0.4729;-3.3945;
737.4000;0.4729;-3.3920;
737.7000;0.4746;-3.3895;
738.0000;0.4737;-3.3920;
738.3000;0.4737;-3.3845;
738.6000;0.4754;-3.3870;
738.9000;0.4746;-3.3845;
739.2000;0.4754;-3.3895;
739.5000;0.4713;-3.4044;
739.8000;0.4729;-3.4044;
740.1000;0.4746;-3.3920;
740.4000;0.4754;-3.3920;
740.7000;0.4778;-3.3820;
741.0000;0.4737;-3.3945;
741.3000;0.4729;-3.4069;
741.6000;0.4697;-3.4193;
741.9000;0.4664;-3.4343;
742.2000;0.4729;-3.4193;
742.5000;0.4681;-3.4293;
742.8000;0.4729;-3.4144;
743.1000;0.4721;-3.3994;
743.4000;0.4737;-3.4019;
743.7000;0.4713;-3.4119;
744.0000;0.4746;-3.3945;
744.3000;0.4721;-3.4019;
744.6000;0.4713;-3.4069;
744.9000;0.4648;-3.4218;
745.2000;0.4721;-3.4044;
745.5000;0.4729;-3.4044;
745.8000;0.4729;-3.4069;
746.1000;0.4803;-3.3895;
746.4000;0.4737;-3.3920;
746.7000;0.4737;-3.3870;
747.0000;0.4721;-3.3895;
747.3000;0.4713;-3.3970;
747.6000;0.4713;-3.3970;
747.9000;0.4729;-3.3945;
748.2000;0.4729;-3.3945;
748.5000;0.4729;-3.3870;
748.8000;0.4729;-3.3820;
749.1000;0.4689;-3.3970;
749.4000;0.4729;-3.3870;
749.7000;0.4721;-3.3945;
750.0000;0.4729;-3.3920;
750.3000;0.4729;-3.3870;
750.6000;0.4656;-3.4044;
750.9000;0.4737;-3.3945;
751.2000;0.4721;-3.3920;
751.5000;0.4754;-3.3845;
751.8000;0.4721;-3.3870;
752.1000;0.4737;-3.3920;
752.4000;0.4697;-3.3970;
752.7000;0.4729;-3.3895;
753.0000;0.4729;-3.3845;
753.3000;0.4737;-3.3796;
753.6000;0.4729;-3.3820;
753.9000;0.4729;-3.3796;
754.2000;0.4721;-3.3820;
754.5000;0.4713;-3.3820;
754.8000;0.4729;-3.3845;
755.1000;0.4705;-3.3945;
755.4000;0.4721;-3.3820;
755.7000;0.4721;-3.3746;
756.0000;0.4729;-3.3746;
756.3000;0.4713;-3.3820;
756.6000;0.4721;-3.3870;
756.9000;0.4754;-3.3796;
757.2000;0.4721;-3.3920;
757.5000;0.4754;-3.3870;
757.8000;0.4697;-3.3994;
758.1000;0.4705;-3.3994;
758.4000;0.4697;-3.4119;
758.7000;0.4729;-3.3994;
759.0000;0.4697;-3.4119;
759.3000;0.4681;-3.4119;
759.6000;0.4689;-3.4169;
759.9000;0.4729;-3.4019;
760.2000;0.4632;-3.4243;
760.5000;0.4705;-3.4094;
760.8000;0.4697;-3.4094;
761.1000;0.4729;-3.3920;
761.4000;0.4705;-3.4019;
761.7000;0.4697;-3.4019;
762.0000;0.4737;-3.4044;
762.3000;0.4729;-3.4144;
762.6000;0.4697;-3.4193;
762.9000;0.4705;-3.4144;
763.2000;0.4721;-3.4119;
763.5000;0.4697;-3.4069;
763.8000;0.4737;-3.3970;
764.1000;0.4721;-3.4019;
764.4000;0.4721;-3.4069;
764.7000;0.4713;-3.4044;
765.0000;0.4721;-3.3945;
765.3000;0.4737;-3.3920;
765.6000;0.4681;-3.4019;
765.9000;0.4689;-3.3870;
766.2000;0.4746;-3.3771;
766.5000;0.4746;-3.3820;
766.8000;0.4705;-3.3895;
767.1000;0.4729;-3.3845;
767.4000;0.4721;-3.3870;
767.7000;0.4746;-3.3820;
768.0000;0.4721;-3.3796;
768.3000;0.4713;-3.3771;
768.6000;0.4721;-3.3771;
768.9000;0.4672;-3.3895;
769.2000;0.4713;-3.3771;
769.5000;0.4721;-3.3845;
769.8000;0.4721;-3.3870;
770.1000;0.4697;-3.3994;
770.4000;0.4705;-3.3994;
770.7000;0.4689;-3.4069;
771.0000;0.4737;-3.3945;
771.3000;0.4713;-3.4019;
771.6000;0.4697;-3.3994;
771.9000;0.4713;-3.4019;
772.2000;0.4713;-3.3994;
772.5000;0.4713;-3.4044;
772.8000;0.4721;-3.4069;
773.1000;0.4689;-3.4094;
773.4000;0.4713;-3.4019;
773.7000;0.4713;-3.3970;
774.0000;0.4713;-3.3895;
774.3000;0.4721;-3.3895;
774.6000;0.4705;-3.3746;
774.9000;0.4721;-3.3796;
775.2000;0.4713;-3.3746;
775.5000;0.4721;-3.3771;
775.8000;0.4737;-3.3870;
776.1000;0.4713;-3.3870;
776.4000;0.4697;-3.3920;
776.7000;0.4729;-3.3820;
777.0000;0.4729;-3.3870;
777.3000;0.4729;-3.3920;
777.6000;0.4689;-3.3895;
777.9000;0.4697;-3.3845;
778.2000;0.4721;-3.3920;
778.5000;0.4713;-3.3970;
778.8000;0.4713;-3.3870;
779.1000;0.4705;-3.3771;
779.4000;0.4705;-3.3746;
779.7000;0.4721;-3.3771;
780.0000;0.4713;-3.3820;
780.3000;0.4705;-3.3820;
780.6000;0.4697;-3.3970;
780.9000;0.4713;-3.3994;
781.2000;0.4705;-3.4094;
781.5000;0.4705;-3.4119;
781.8000;0.4721;-3.4069;
782.1000;0.4721;-3.3994;
782.4000;0.4689;-3.4094;
782.7000;0.4713;-3.4094;
783.0000;0.4713;-3.4069;
783.3000;0.4713;-3.3970;
783.6000;0.4721;-3.3895;
783.9000;0.4705;-3.3845;
784.2000;0.4689;-3.3920;
784.5000;0.4721;-3.3845;
784.8000;0.4681;-3.3945;
785.1000;0.4729;-3.3895;
785.4000;0.4713;-3.3920;
785.7000;0.4705;-3.3994;
786.0000;0.4721;-3.4044;
786.3000;0.4697;-3.4094;
786.6000;0.4648;-3.4193;
786.9000;0.4737;-3.3970;
787.2000;0.4737;-3.3895;
787.5000;0.4713;-3.3945;
787.8000;0.4721;-3.3870;
788.1000;0.4705;-3.3970;
788.4000;0.4713;-3.3994;
788.7000;0.4705;-3.4069;
789.0000;0.4689;-3.4094;
789.3000;0.4737;-3.4119;
789.6000;0.4713;-3.4243;
789.9000;0.4770;-3.4144;
790.2000;0.4697;-3.4293;
790.5000;0.4705;-3.4193;
790.8000;0.4681;-3.4243;
791.1000;0.4689;-3.4218;
791.4000;0.4697;-3.4218;
791.7000;0.4648;-3.4318;
792.0000;0.4672;-3.4193;
792.3000;0.4721;-3.4119;
792.6000;0.4689;-3.4169;
792.9000;0.4713;-3.4144;
793.2000;0.4697;-3.4119;
793.5000;0.4705;-3.4193;
793.8000;0.4705;-3.4218;
794.1000;0.4689;-3.4218;
794.4000;0.4681;-3.4169;
794.7000;0.4697;-3.4069;
795.0000;0.4689;-3.4094;
795.3000;0.4705;-3.3970;
795.6000;0.4697;-3.3945;
795.9000;0.4697;-3.3895;
796.2000;0.4689;-3.3970;
796.5000;0.4705;-3.3994;
796.8000;0.4697;-3.4044;
797.1000;0.4729;-3.3970;
797.4000;0.4737;-3.4044;
797.7000;0.4705;-3.4094;
798.0000;0.4762;-3.3845;
798.3000;0.4689;-3.3945;
798.6000;0.4697;-3.3920;
798.9000;0.4697;-3.3870;
799.2000;0.4729;-3.3870;
799.5000;0.4681;-3.3945;
799.8000;0.4705;-3.3920;
800.1000;0.4689;-3.3970;
800.4000;0.4697;-3.4019;
800.7000;0.4697;-3.4119;
801.0000;0.4689;-3.4094;
801.3000;0.4681;-3.4169;
801.6000;0.4705;-3.4069;
801.9000;0.4697;-3.4144;
802.2000;0.4705;-3.4144;
802.5000;0.4689;-3.4119;
802.8000;0.4705;-3.4144;
803.1000;0.4689;-3.4169;
803.4000;0.4705;-3.4094;
803.7000;0.4689;-3.4144;
804.0000;0.4689;-3.4169;
804.3000;0.4672;-3.4218;
804.6000;0.4705;-3.4119;
804.9000;0.4656;-3.4193;
805.2000;0.4754;-3.3895;
805.5000;0.4672;-3.4119;
805.8000;0.4672;-3.4094;
806.1000;0.4689;-3.4044;
806.4000;0.4591;-3.4193;
806.7000;0.4705;-3.3920;
807.0000;0.4697;-3.3845;
807.3000;0.4697;-3.3820;
807.6000;0.4681;-3.3820;
807.9000;0.4705;-3.3746;
808.2000;0.4713;-3.3721;
808.5000;0.4672;-3.3820;
808.8000;0.4737;-3.3597;
809.1000;0.4697;-3.3796;
809.4000;0.4713;-3.3820;
809.7000;0.4697;-3.3895;
810.0000;0.4656;-3.3970;
810.3000;0.4689;-3.3870;
810.6000;0.4729;-3.3820;
810.9000;0.4721;-3.3920;
811.2000;0.4713;-3.3920;
811.5000;0.4681;-3.3945;
811.8000;0.4672;-3.3970;
812.1000;0.4721;-3.3796;
812.4000;0.4664;-3.3920;
812.7000;0.4672;-3.3920;
813.0000;0.4697;-3.3845;
813.3000;0.4697;-3.3870;
813.6000;0.4705;-3.3870;
813.9000;0.4786;-3.3696;
814.2000;0.4697;-3.3895;
814.5000;0.4697;-3.3920;
814.8000;0.4713;-3.3870;
815.1000;0.4697;-3.3870;
815.4000;0.4681;-3.3920;
815.7000;0.4697;-3.3920;
816.0000;0.4721;-3.3945;
816.3000;0.4689;-3.4069;
816.6000;0.4697;-3.4094;
816.9000;0.4681;-3.4119;
817.2000;0.4746;-3.3994;
817.5000;0.4672;-3.4119;
817.8000;0.4689;-3.4094;
818.1000;0.4705;-3.4019;
818.4000;0.4721;-3.4019;
818.7000;0.4697;-3.4144;
819.0000;0.4689;-3.4094;
819.3000;0.4697;-3.4069;
819.6000;0.4721;-3.3994;
819.9000;0.4713;-3.4019;
820.2000;0.4689;-3.4069;
820.5000;0.4672;-3.4144;
820.8000;0.4681;-3.4094;
821.1000;0.4729;-3.3994;
821.4000;0.4697;-3.4019;
821.7000;0.4689;-3.4094;
822.0000;0.4681;-3.4094;
822.3000;0.4672;-3.4144;
822.6000;0.4689;-3.4268;
822.9000;0.4689;-3.4318;
823.2000;0.4681;-3.4392;
823.5000;0.4672;-3.4417;
823.8000;0.4689;-3.4318;
824.1000;0.4689;-3.4367;
824.4000;0.4681;-3.4318;
824.7000;0.4681;-3.4268;
825.0000;0.4664;-3.4243;
825.3000;0.4697;-3.4218;
825.6000;0.4697;-3.4293;
825.9000;0.4681;-3.4367;
826.2000;0.4705;-3.4318;
826.5000;0.4713;-3.4318;
826.8000;0.4689;-3.4318;
827.1000;0.4689;-3.4268;
827.4000;0.4729;-3.4218;
827.7000;0.4697;-3.4318;
828.0000;0.4689;-3.4343;
828.3000;0.4664;-3.4392;
828.6000;0.4697;-3.4343;
828.9000;0.4713;-3.4268;
829.2000;0.4689;-3.4293;
829.5000;0.4705;-3.4268;
829.8000;0.4689;-3.4293;
830.1000;0.4697;-3.4343;
830.4000;0.4778;-3.4193;
830.7000;0.4697;-3.4343;
831.0000;0.4689;-3.4318;
831.3000;0.4705;-3.4293;
831.6000;0.4713;-3.4268;
831.9000;0.4672;-3.4367;
832.2000;0.4713;-3.4268;
832.5000;0.4697;-3.4268;
832.8000;0.4681;-3.4218;
833.1000;0.4689;-3.4193;
833.4000;0.4689;-3.4144;
833.7000;0.4689;-3.4169;
834.0000;0.4705;-3.4094;
834.3000;0.4713;-3.4094;
834.6000;0.4713;-3.4119;
834.9000;0.4713;-3.4169;
835.2000;0.4697;-3.4119;
835.5000;0.4672;-3.4193;
835.8000;0.4705;-3.4094;
836.1000;0.4681;-3.4144;
836.4000;0.4705;-3.4044;
836.7000;0.4713;-3.3895;
837.0000;0.4737;-3.3895;
837.3000;0.4705;-3.3920;
837.6000;0.4681;-3.3820;
837.9000;0.4697;-3.3746;
838.2000;0.4672;-3.3895;
838.5000;0.4697;-3.3870;
838.8000;0.4697;-3.3820;
839.1000;0.4705;-3.3796;
839.4000;0.4754;-3.3721;
839.7000;0.4697;-3.3945;
840.0000;0.4689;-3.4019;
840.3000;0.4689;-3.3920;
840.6000;0.4672;-3.3945;
840.9000;0.4615;-3.4019;
841.2000;0.4689;-3.3895;
841.5000;0.4713;-3.3994;
841.8000;0.4697;-3.4044;
842.1000;0.4713;-3.4094;
842.4000;0.4656;-3.4193;
842.7000;0.4697;-3.4019;
843.0000;0.4713;-3.3994;
843.3000;0.4681;-3.3994;
843.6000;0.4705;-3.3945;
843.9000;0.4689;-3.3945;
844.2000;0.4729;-3.3945;
844.5000;0.4672;-3.3994;
844.8000;0.4672;-3.3920;
845.1000;0.4591;-3.4193;
845.4000;0.4615;-3.4169;
845.7000;0.4681;-3.4044;
846.0000;0.4729;-3.4019;
846.3000;0.4689;-3.4069;
846.6000;0.4672;-3.4193;
846.9000;0.4681;-3.4069;
847.2000;0.4705;-3.4044;
847.5000;0.4656;-3.4119;
847.8000;0.4689;-3.4019;
848.1000;0.4689;-3.3994;
848.4000;0.4689;-3.3994;
848.7000;0.4681;-3.3920;
849.0000;0.4697;-3.3945;
849.3000;0.4681;-3.3970;
849.6000;0.4713;-3.3920;
849.9000;0.4762;-3.3820;
850.2000;0.4737;-3.3845;
850.5000;0.4689;-3.3870;
850.8000;0.4689;-3.3870;
851.1000;0.4689;-3.3820;
851.4000;0.4721;-3.3820;
851.7000;0.4794;-3.3621;
852.0000;0.4681;-3.3895;
852.3000;0.4697;-3.3820;
852.6000;0.4672;-3.3945;
852.9000;0.4681;-3.3920;
853.2000;0.4689;-3.3920;
853.5000;0.4672;-3.4044;
853.8000;0.4689;-3.3970;
854.1000;0.4672;-3.3970;
854.4000;0.4624;-3.4144;
854.7000;0.4689;-3.3970;
855.0000;0.4689;-3.3920;
855.3000;0.4689;-3.3945;
855.6000;0.4664;-3.4044;
855.9000;0.4672;-3.3945;
856.2000;0.4648;-3.4119;
856.5000;0.4697;-3.4069;
856.8000;0.4681;-3.4119;
857.1000;0.4681;-3.4069;
857.4000;0.4648;-3.4144;
857.7000;0.4681;-3.3994;
858.0000;0.4664;-3.4044;
858.3000;0.4681;-3.3994;
858.6000;0.4713;-3.3945;
858.9000;0.4689;-3.3920;
859.2000;0.4664;-3.3920;
859.5000;0.4681;-3.3920;
859.8000;0.4681;-3.3945;
860.1000;0.4705;-3.3920;
860.4000;0.4689;-3.3970;
860.7000;0.4681;-3.3920;
861.0000;0.4656;-3.4044;
861.3000;0.4656;-3.4119;
861.6000;0.4672;-3.4019;
861.9000;0.4689;-3.3994;
862.2000;0.4664;-3.4119;
862.5000;0.4697;-3.3970;
862.8000;0.4656;-3.4069;
863.1000;0.4697;-3.3994;
863.4000;0.4689;-3.4069;
863.7000;0.4689;-3.4044;
864.0000;0.4648;-3.4169;
864.3000;0.4681;-3.4169;
864.6000;0.4697;-3.4069;
864.9000;0.4689;-3.4019;
865.2000;0.4672;-3.3994;
865.5000;0.4713;-3.3945;
865.8000;0.4681;-3.3870;
866.1000;0.4737;-3.3771;
866.4000;0.4672;-3.3895;
866.7000;0.4705;-3.3820;
867.0000;0.4664;-3.3970;
867.3000;0.4689;-3.3895;
867.6000;0.4681;-3.3945;
867.9000;0.4640;-3.4019;
868.2000;0.4664;-3.3945;
868.5000;0.4681;-3.3870;
868.8000;0.4672;-3.3920;
869.1000;0.4664;-3.3920;
869.4000;0.4689;-3.3870;
869.7000;0.4689;-3.3945;
870.0000;0.4672;-3.3870;
870.3000;0.4713;-3.3796;
870.6000;0.4672;-3.3870;
870.9000;0.4705;-3.3796;
871.2000;0.4656;-3.3895;
871.5000;0.4672;-3.3870;
871.8000;0.4672;-3.3970;
872.1000;0.4664;-3.3994;
872.4000;0.4705;-3.3920;
872.7000;0.4664;-3.4069;
873.0000;0.4713;-3.4019;
873.3000;0.4697;-3.4069;
873.6000;0.4681;-3.4094;
873.9000;0.4697;-3.4094;
874.2000;0.4689;-3.4094;
874.5000;0.4689;-3.4044;
874.8000;0.4672;-3.4069;
875.1000;0.4705;-3.4044;
875.4000;0.4778;-3.3796;
875.7000;0.4681;-3.4019;
876.0000;0.4664;-3.4069;
876.3000;0.4689;-3.4069;
876.6000;0.4664;-3.4119;
876.9000;0.4672;-3.4094;
877.2000;0.4689;-3.4044;
877.5000;0.4681;-3.4119;
877.8000;0.4689;-3.4169;
878.1000;0.4599;-3.4318;
878.4000;0.4689;-3.4044;
878.7000;0.4681;-3.4044;
879.0000;0.4705;-3.4019;
879.3000;0.4689;-3.4019;
879.6000;0.4656;-3.4144;
879.9000;0.4689;-3.3970;
880.2000;0.4681;-3.3970;
880.5000;0.4656;-3.4019;
880.8000;0.4681;-3.3945;
881.1000;0.4656;-3.4019;
881.4000;0.4672;-3.3945;
881.7000;0.4689;-3.3870;
882.0000;0.4664;-3.3895;
882.3000;0.4591;-3.4094;
882.6000;0.4721;-3.3796;
882.9000;0.4697;-3.3820;
883.2000;0.4672;-3.3870;
883.5000;0.4697;-3.3870;
883.8000;0.4615;-3.3970;
884.1000;0.4672;-3.3895;
884.4000;0.4672;-3.3920;
884.7000;0.4689;-3.3895;
885.0000;0.4681;-3.3845;
885.3000;0.4672;-3.3820;
885.6000;0.4689;-3.3870;
885.9000;0.4664;-3.3895;
886.2000;0.4689;-3.3796;
886.5000;0.4689;-3.3796;
886.8000;0.4648;-3.3870;
887.1000;0.4656;-3.3895;
887.4000;0.4681;-3.3845;
887.7000;0.4672;-3.3895;
888.0000;0.4697;-3.4044;
888.3000;0.4664;-3.4044;
888.6000;0.4681;-3.3970;
888.9000;0.4672;-3.3970;
889.2000;0.4681;-3.4044;
889.5000;0.4713;-3.3994;
889.8000;0.4681;-3.3945;
890.1000;0.4681;-3.3870;
890.4000;0.4697;-3.3820;
890.7000;0.4689;-3.3771;
891.0000;0.4697;-3.3721;
891.3000;0.4672;-3.3696;
891.6000;0.4697;-3.3621;
891.9000;0.4689;-3.3696;
892.2000;0.4681;-3.3870;
892.5000;0.4607;-3.3994;
892.8000;0.4681;-3.3820;
893.1000;0.4672;-3.3746;
893.4000;0.4681;-3.3746;
893.7000;0.4664;-3.3870;
894.0000;0.4664;-3.3970;
894.3000;0.4681;-3.3895;
894.6000;0.4681;-3.3845;
894.9000;0.4664;-3.3920;
895.2000;0.4648;-3.3970;
895.5000;0.4681;-3.3870;
895.8000;0.4681;-3.3895;
896.1000;0.4648;-3.3945;
896.4000;0.4705;-3.3771;
896.7000;0.4664;-3.3870;
897.0000;0.4689;-3.3796;
897.3000;0.4681;-3.3845;
897.6000;0.4689;-3.3820;
897.9000;0.4672;-3.3895;
898.2000;0.4729;-3.3696;
898.5000;0.4681;-3.3895;
898.8000;0.4664;-3.4019;
899.1000;0.4664;-3.3970;
899.4000;0.4656;-3.3920;
899.7000;0.4648;-3.4019;
900.0000;0.4664;-3.4069;
900.3000;0.4656;-3.4044;
900.6000;0.4672;-3.4019;
900.9000;0.4689;-3.3994;
901.2000;0.4681;-3.4044;
901.5000;0.4656;-3.3970;
901.8000;0.4681;-3.3920;
902.1000;0.4656;-3.3920;
902.4000;0.4689;-3.3870;
902.7000;0.4672;-3.3895;
903.0000;0.4656;-3.3870;
903.3000;0.4664;-3.3820;
903.6000;0.4713;-3.3721;
903.9000;0.4672;-3.3845;
904.2000;0.4672;-3.3945;
904.5000;0.4697;-3.3920;
904.8000;0.4672;-3.3970;
905.1000;0.4705;-3.3945;
905.4000;0.4656;-3.4044;
905.7000;0.4672;-3.3994;
906.0000;0.4729;-3.3970;
906.3000;0.4681;-3.4119;
906.6000;0.4648;-3.4218;
906.9000;0.4672;-3.3970;
907.2000;0.4729;-3.3870;
907.5000;0.4697;-3.3945;
907.8000;0.4656;-3.3970;
908.1000;0.4672;-3.3895;
908.4000;0.4672;-3.3994;
908.7000;0.4689;-3.3994;
909.0000;0.4607;-3.4218;
909.3000;0.4689;-3.4019;
909.6000;0.4697;-3.3970;
909.9000;0.4705;-3.3945;
910.2000;0.4729;-3.3870;
910.5000;0.4697;-3.3920;
910.8000;0.4681;-3.3870;
911.1000;0.4672;-3.3945;
911.4000;0.4689;-3.3994;
911.7000;0.4672;-3.4044;
912.0000;0.4681;-3.4119;
912.3000;0.4672;-3.4169;
912.6000;0.4681;-3.4044;
912.9000;0.4689;-3.4044;
913.2000;0.4656;-3.4193;
913.5000;0.4632;-3.4243;
913.8000;0.4689;-3.4019;
914.1000;0.4713;-3.3994;
914.4000;0.4697;-3.3994;
914.7000;0.4689;-3.4019;
915.0000;0.4672;-3.4094;
915.3000;0.4705;-3.3970;
915.6000;0.4697;-3.4019;
915.9000;0.4681;-3.4044;
916.2000;0.4664;-3.4094;
916.5000;0.4664;-3.4044;
916.8000;0.4672;-3.3945;
917.1000;0.4672;-3.3970;
917.4000;0.4656;-3.4094;
917.7000;0.4689;-3.4044;
918.0000;0.4689;-3.3970;
918.3000;0.4737;-3.3920;
918.6000;0.4681;-3.4019;
918.9000;0.4672;-3.4019;
919.2000;0.4689;-3.3820;
919.5000;0.4689;-3.3796;
919.8000;0.4664;-3.3820;
920.1000;0.4664;-3.3845;
920.4000;0.4729;-3.3721;
920.7000;0.4664;-3.3870;
921.0000;0.4672;-3.3820;
921.3000;0.4705;-3.3771;
921.6000;0.4664;-3.3945;
921.9000;0.4656;-3.3994;
922.2000;0.4681;-3.3945;
922.5000;0.4624;-3.4044;
922.8000;0.4656;-3.3945;
923.1000;0.4672;-3.3945;
923.4000;0.4615;-3.4144;
923.7000;0.4664;-3.4019;
924.0000;0.4697;-3.4069;
924.3000;0.4672;-3.4144;
924.6000;0.4672;-3.4119;
924.9000;0.4689;-3.4044;
925.2000;0.4689;-3.4044;
925.5000;0.4681;-3.4094;
925.8000;0.4689;-3.4094;
926.1000;0.4681;-3.4119;
926.4000;0.4681;-3.4144;
926.7000;0.4672;-3.4169;
927.0000;0.4705;-3.3970;
927.3000;0.4681;-3.3945;
927.6000;0.4648;-3.3994;
927.9000;0.4681;-3.4044;
928.2000;0.4689;-3.4069;
928.5000;0.4672;-3.4094;
928.8000;0.4648;-3.4119;
929.1000;0.4689;-3.3994;
929.4000;0.4681;-3.4094;
929.7000;0.4681;-3.4019;
930.0000;0.4689;-3.3994;
930.3000;0.4648;-3.4069;
930.6000;0.4672;-3.4044;
930.9000;0.4681;-3.4044;
931.2000;0.4729;-3.3920;
931.5000;0.4697;-3.3994;
931.8000;0.4672;-3.4069;
932.1000;0.4689;-3.4044;
932.4000;0.4656;-3.4144;
932.7000;0.4648;-3.4094;
933.0000;0.4672;-3.4044;
933.3000;0.4672;-3.4019;
933.6000;0.4664;-3.4019;
933.9000;0.4648;-3.3994;
934.2000;0.4672;-3.3945;
934.5000;0.4672;-3.3970;
934.8000;0.4664;-3.4019;
935.1000;0.4672;-3.4019;
935.4000;0.4672;-3.3970;
935.7000;0.4672;-3.3970;
936.0000;0.4681;-3.3870;
936.3000;0.4681;-3.3796;
936.6000;0.4681;-3.3696;
936.9000;0.4624;-3.3820;
937.2000;0.4672;-3.3696;
937.5000;0.4672;-3.3696;
937.8000;0.4689;-3.3671;
938.1000;0.4705;-3.3746;
938.4000;0.4672;-3.3771;
938.7000;0.4689;-3.3796;
939.0000;0.4640;-3.3895;
939.3000;0.4681;-3.3970;
939.6000;0.4664;-3.4019;
939.9000;0.4681;-3.4019;
940.2000;0.4664;-3.4019;
940.5000;0.4672;-3.3870;
940.8000;0.4681;-3.3721;
941.1000;0.4681;-3.3671;
941.4000;0.4697;-3.3696;
941.7000;0.4697;-3.3696;
942.0000;0.4681;-3.3721;
942.3000;0.4697;-3.3820;
942.6000;0.4705;-3.3845;
942.9000;0.4689;-3.3945;
943.2000;0.4689;-3.4044;
943.5000;0.4672;-3.4144;
943.8000;0.4778;-3.3920;
944.1000;0.4705;-3.4119;
944.4000;0.4705;-3.4069;
944.7000;0.4697;-3.4144;
945.0000;0.4697;-3.4119;
945.3000;0.4681;-3.4144;
945.6000;0.4640;-3.4169;
945.9000;0.4729;-3.3920;
946.2000;0.4664;-3.4119;
946.5000;0.4664;-3.4169;
946.8000;0.4681;-3.4193;
947.1000;0.4656;-3.4169;
947.4000;0.4672;-3.4119;
947.7000;0.4664;-3.4094;
948.0000;0.4681;-3.4144;
948.3000;0.4672;-3.4193;
948.6000;0.4681;-3.4144;
948.9000;0.4672;-3.4144;
949.2000;0.4664;-3.4218;
949.5000;0.4697;-3.4094;
949.8000;0.4681;-3.4094;
950.1000;0.4697;-3.3994;
950.4000;0.4664;-3.4094;
950.7000;0.4689;-3.3970;
951.0000;0.4664;-3.3970;
951.3000;0.4672;-3.3994;
951.6000;0.4656;-3.3970;
951.9000;0.4681;-3.3845;
952.2000;0.4681;-3.3895;
952.5000;0.4672;-3.3920;
952.8000;0.4689;-3.3945;
953.1000;0.4689;-3.3945;
953.4000;0.4697;-3.3870;
953.7000;0.4681;-3.3895;
954.0000;0.4778;-3.3671;
954.3000;0.4672;-3.3945;
954.6000;0.4786;-3.3646;
954.9000;0.4729;-3.3820;
955.2000;0.4697;-3.3920;
955.5000;0.4656;-3.4094;
955.8000;0.4689;-3.3970;
956.1000;0.4656;-3.4044;
956.4000;0.4672;-3.4094;
956.7000;0.4689;-3.4094;
957.0000;0.4648;-3.4193;
957.3000;0.4681;-3.4169;
957.6000;0.4681;-3.4268;
957.9000;0.4664;-3.4243;
958.2000;0.4672;-3.4193;
958.5000;0.4672;-3.4218;
958.8000;0.4664;-3.4243;
959.1000;0.4672;-3.4144;
959.4000;0.4656;-3.4144;
959.7000;0.4672;-3.4119;
960.0000;0.4697;-3.4069;
960.3000;0.4672;-3.4069;
960.6000;0.4681;-3.4069;
960.9000;0.4664;-3.4169;
961.2000;0.4681;-3.4193;
961.5000;0.4664;-3.4243;
961.8000;0.4656;-3.4293;
962.1000;0.4672;-3.4268;
962.4000;0.4681;-3.4268;
962.7000;0.4681;-3.4243;
963.0000;0.4664;-3.4293;
963.3000;0.4656;-3.4268;
963.6000;0.4664;-3.4243;
963.9000;0.4754;-3.4094;
964.2000;0.4656;-3.4293;
964.5000;0.4599;-3.4417;
964.8000;0.4672;-3.4218;
965.1000;0.4689;-3.4193;
965.4000;0.4664;-3.4169;
965.7000;0.4672;-3.4044;
966.0000;0.4672;-3.3994;
966.3000;0.4689;-3.3870;
966.6000;0.4697;-3.3970;
966.9000;0.4672;-3.4094;
967.2000;0.4648;-3.4193;
967.5000;0.4664;-3.4193;
967.8000;0.4672;-3.4193;
968.1000;0.4664;-3.4218;
968.4000;0.4648;-3.4193;
968.7000;0.4648;-3.4144;
969.0000;0.4681;-3.4044;
969.3000;0.4672;-3.4119;
969.6000;0.4656;-3.4144;
969.9000;0.4681;-3.4144;
970.2000;0.4689;-3.4094;
970.5000;0.4664;-3.4193;
970.8000;0.4681;-3.4293;
971.1000;0.4672;-3.4193;
971.4000;0.4705;-3.4119;
971.7000;0.4672;-3.4144;
972.0000;0.4664;-3.4169;
972.3000;0.4607;-3.4268;
972.6000;0.4681;-3.4094;
972.9000;0.4681;-3.4069;
973.2000;0.4615;-3.4243;
973.5000;0.4681;-3.4044;
973.8000;0.4672;-3.4044;
974.1000;0.4664;-3.4044;
974.4000;0.4672;-3.4044;
974.7000;0.4672;-3.4019;
975.0000;0.4681;-3.4019;
975.3000;0.4689;-3.3994;
975.6000;0.4729;-3.3945;
975.9000;0.4697;-3.4069;
976.2000;0.4681;-3.4094;
976.5000;0.4656;-3.4119;
976.8000;0.4672;-3.4019;
977.1000;0.4656;-3.4094;
977.4000;0.4664;-3.4019;
977.7000;0.4689;-3.3945;
978.0000;0.4754;-3.3945;
978.3000;0.4713;-3.3994;
978.6000;0.4697;-3.4094;
978.9000;0.4786;-3.3845;
979.2000;0.4632;-3.4218;
979.5000;0.4689;-3.4119;
979.8000;0.4672;-3.4094;
980.1000;0.4640;-3.4193;
980.4000;0.4681;-3.4069;
980.7000;0.4624;-3.4318;
981.0000;0.4599;-3.4268;
981.3000;0.4664;-3.4094;
981.6000;0.4681;-3.4094;
981.9000;0.4672;-3.4069;
982.2000;0.4672;-3.4069;
982.5000;0.4672;-3.4044;
982.8000;0.4672;-3.4019;
983.1000;0.4721;-3.3945;
983.4000;0.4689;-3.4019;
983.7000;0.4705;-3.4044;
984.0000;0.4648;-3.4193;
984.3000;0.4672;-3.4119;
984.6000;0.4689;-3.4069;
984.9000;0.4664;-3.4144;
985.2000;0.4681;-3.4193;
985.5000;0.4656;-3.4318;
985.8000;0.4681;-3.4193;
986.1000;0.4664;-3.4193;
986.4000;0.4640;-3.4169;
986.7000;0.4672;-3.4044;
987.0000;0.4672;-3.4044;
987.3000;0.4672;-3.4044;
987.6000;0.4672;-3.4119;
987.9000;0.4681;-3.4019;
988.2000;0.4689;-3.4069;
988.5000;0.4786;-3.3721;
988.8000;0.4689;-3.3970;
989.1000;0.4672;-3.3970;
989.4000;0.4672;-3.3994;
989.7000;0.4689;-3.4069;
990.0000;0.4672;-3.4019;
990.3000;0.4648;-3.4094;
990.6000;0.4648;-3.4169;
990.9000;0.4672;-3.4119;
991.2000;0.4681;-3.4094;
991.5000;0.4664;-3.4044;
991.8000;0.4672;-3.3945;
992.1000;0.4681;-3.3994;
992.4000;0.4672;-3.3970;
992.7000;0.4664;-3.4044;
993.0000;0.4664;-3.4094;
993.3000;0.4681;-3.3945;
993.6000;0.4689;-3.3895;
993.9000;0.4656;-3.3895;
994.2000;0.4681;-3.3895;
994.5000;0.4681;-3.3895;
994.8000;0.4672;-3.3945;
995.1000;0.4697;-3.3920;
995.4000;0.4672;-3.3920;
995.7000;0.4656;-3.3970;
996.0000;0.4583;-3.4218;
996.3000;0.4640;-3.4069;
996.6000;0.4664;-3.3994;
996.9000;0.4672;-3.3945;
997.2000;0.4656;-3.4044;
997.5000;0.4656;-3.4044;
997.8000;0.4640;-3.3994;
998.1000;0.4664;-3.3994;
998.4000;0.4656;-3.3994;
998.7000;0.4664;-3.3994;
999.0000;0.4672;-3.4019;
999.3000;0.4664;-3.4019;
999.6000;0.4681;-3.3945;
999.9000;0.4656;-3.4069;
1000.2000;0.4664;-3.4044;
1000.5000;0.4681;-3.4019;
1000.8000;0.4713;-3.3994;
1001.1000;0.4705;-3.3945;
1001.4000;0.4607;-3.4169;
1001.7000;0.4632;-3.4069;
1002.0000;0.4656;-3.3945;
1002.3000;0.4689;-3.3870;
1002.6000;0.4656;-3.3970;
1002.9000;0.4656;-3.3895;
1003.2000;0.4681;-3.3920;
1003.5000;0.4624;-3.4069;
1003.8000;0.4656;-3.3970;
1004.1000;0.4656;-3.3895;
1004.4000;0.4664;-3.3945;
1004.7000;0.4664;-3.3945;
1005.0000;0.4648;-3.3970;
1005.3000;0.4681;-3.3920;
1005.6000;0.4664;-3.3970;
1005.9000;0.4689;-3.3970;
1006.2000;0.4672;-3.4044;
1006.5000;0.4656;-3.4069;
1006.8000;0.4672;-3.3994;
1007.1000;0.4721;-3.3796;
1007.4000;0.4664;-3.3945;
1007.7000;0.4681;-3.3945;
1008.0000;0.4672;-3.3945;
1008.3000;0.4681;-3.3920;
1008.6000;0.4664;-3.4019;
1008.9000;0.4705;-3.4069;
1009.2000;0.4656;-3.4218;
1009.5000;0.4697;-3.4169;
1009.8000;0.4689;-3.4193;
1010.1000;0.4672;-3.4119;
1010.4000;0.4672;-3.4094;
1010.7000;0.4672;-3.4044;
1011.0000;0.4664;-3.3994;
1011.3000;0.4664;-3.4069;
1011.6000;0.4689;-3.4069;
1011.9000;0.4681;-3.4119;
1012.2000;0.4681;-3.4094;
1012.5000;0.4705;-3.4094;
1012.8000;0.4681;-3.4119;
1013.1000;0.4697;-3.4044;
1013.4000;0.4689;-3.3945;
1013.7000;0.4664;-3.4044;
1014.0000;0.4681;-3.3895;
1014.3000;0.4648;-3.3994;
1014.6000;0.4689;-3.3895;
1014.9000;0.4681;-3.3870;
1015.2000;0.4664;-3.3945;
1015.5000;0.4689;-3.4019;
1015.8000;0.4681;-3.3920;
1016.1000;0.4664;-3.3994;
1016.4000;0.4681;-3.3895;
1016.7000;0.4624;-3.4119;
1017.0000;0.4681;-3.3895;
1017.3000;0.4672;-3.3994;
1017.6000;0.4607;-3.4243;
1017.9000;0.4672;-3.4019;
1018.2000;0.4656;-3.4069;
1018.5000;0.4672;-3.4094;
1018.8000;0.4689;-3.4119;
1019.1000;0.4705;-3.4044;
1019.4000;0.4689;-3.4144;
1019.7000;0.4664;-3.4268;
1020.0000;0.4664;-3.4268;
1020.3000;0.4689;-3.4193;
1020.6000;0.4672;-3.4144;
1020.9000;0.4672;-3.4144;
1021.2000;0.4664;-3.4144;
1021.5000;0.4681;-3.4069;
1021.8000;0.4664;-3.4094;
1022.1000;0.4664;-3.4119;
1022.4000;0.4672;-3.4044;
1022.7000;0.4672;-3.4019;
1023.0000;0.4697;-3.3970;
1023.3000;0.4681;-3.4044;
1023.6000;0.4681;-3.3994;
1023.9000;0.4705;-3.3920;
1024.2000;0.4689;-3.4044;
1024.5000;0.4656;-3.4119;
1024.8000;0.4681;-3.4119;
1025.1000;0.4648;-3.4169;
1025.4000;0.4664;-3.4218;
1025.7000;0.4681;-3.4193;
1026.0000;0.4672;-3.4268;
1026.3000;0.4656;-3.4318;
1026.6000;0.4681;-3.4243;
1026.9000;0.4681;-3.4218;
1027.2000;0.4672;-3.4169;
1027.5000;0.4664;-3.4218;
1027.8000;0.4672;-3.4193;
1028.1000;0.4681;-3.4144;
1028.4000;0.4689;-3.4144;
1028.7000;0.4656;-3.4094;
1029.0000;0.4729;-3.3945;
1029.3000;0.4632;-3.4094;
1029.6000;0.4681;-3.4019;
1029.9000;0.4656;-3.4069;
1030.2000;0.4681;-3.4069;
1030.5000;0.4689;-3.3970;
1030.8000;0.4681;-3.4044;
1031.1000;0.4705;-3.3945;
1031.4000;0.4648;-3.4069;
1031.7000;0.4656;-3.4119;
1032.0000;0.4656;-3.4069;
1032.3000;0.4664;-3.4019;
1032.6000;0.4664;-3.3970;
1032.9000;0.4656;-3.3994;
1033.2000;0.4681;-3.3895;
1033.5000;0.4681;-3.3970;
1033.8000;0.4664;-3.3994;
1034.1000;0.4575;-3.4243;
1034.4000;0.4689;-3.4044;
1034.7000;0.4672;-3.4119;
1035.0000;0.4689;-3.4119;
1035.3000;0.4672;-3.4119;
1035.6000;0.4697;-3.4044;
1035.9000;0.4689;-3.4069;
1036.2000;0.4672;-3.4069;
1036.5000;0.4656;-3.3994;
1036.8000;0.4664;-3.3945;
1037.1000;0.4648;-3.4044;
1037.4000;0.4640;-3.3994;
1037.7000;0.4697;-3.3870;
1038.0000;0.4672;-3.3895;
1038.3000;0.4672;-3.3970;
1038.6000;0.4681;-3.3994;
1038.9000;0.4672;-3.3920;
1039.2000;0.4705;-3.3845;
1039.5000;0.4672;-3.3945;
1039.8000;0.4640;-3.4094;
1040.1000;0.4656;-3.4144;
1040.4000;0.4656;-3.4169;
1040.7000;0.4689;-3.4094;
1041.0000;0.4681;-3.4169;
1041.3000;0.4705;-3.4119;
1041.6000;0.4713;-3.4044;
1041.9000;0.4729;-3.3994;
1042.2000;0.4681;-3.4069;
1042.5000;0.4681;-3.4019;
1042.8000;0.4664;-3.4069;
1043.1000;0.4640;-3.4044;
1043.4000;0.4656;-3.3994;
1043.7000;0.4656;-3.3895;
1044.0000;0.4672;-3.3920;
1044.3000;0.4656;-3.3970;
1044.6000;0.4648;-3.4019;
1044.9000;0.4697;-3.3945;
1045.2000;0.4672;-3.4044;
1045.5000;0.4664;-3.4069;
1045.8000;0.4689;-3.4044;
1046.1000;0.4681;-3.4144;
1046.4000;0.4664;-3.4144;
1046.7000;0.4681;-3.4193;
1047.0000;0.4689;-3.4193;
1047.3000;0.4672;-3.4268;
1047.6000;0.4681;-3.4268;
1047.9000;0.4705;-3.4193;
1048.2000;0.4656;-3.4367;
1048.5000;0.4681;-3.4218;
1048.8000;0.4681;-3.4069;
1049.1000;0.4689;-3.3994;
1049.4000;0.4656;-3.4069;
1049.7000;0.4689;-3.3970;
1050.0000;0.4672;-3.3970;
1050.3000;0.4681;-3.3920;
1050.6000;0.4664;-3.4019;
1050.9000;0.4664;-3.4094;
1051.2000;0.4672;-3.4119;
1051.5000;0.4672;-3.4193;
1051.8000;0.4664;-3.4218;
1052.1000;0.4689;-3.4119;
1052.4000;0.4672;-3.4119;
1052.7000;0.4672;-3.4169;
1053.0000;0.4672;-3.4243;
1053.3000;0.4672;-3.4144;
1053.6000;0.4672;-3.4044;
1053.9000;0.4664;-3.4019;
1054.2000;0.4681;-3.3970;
1054.5000;0.4648;-3.4044;
1054.8000;0.4672;-3.3945;
1055.1000;0.4664;-3.3970;
1055.4000;0.4648;-3.4044;
1055.7000;0.4672;-3.4019;
1056.0000;0.4664;-3.4044;
1056.3000;0.4672;-3.4069;
1056.6000;0.4648;-3.4094;
1056.9000;0.4656;-3.4019;
1057.2000;0.4664;-3.3994;
1057.5000;0.4648;-3.4069;
1057.8000;0.4656;-3.4019;
1058.1000;0.4681;-3.4019;
1058.4000;0.4664;-3.3970;
1058.7000;0.4664;-3.4019;
1059.0000;0.4689;-3.3945;
1059.3000;0.4697;-3.3920;
1059.6000;0.4672;-3.4019;
1059.9000;0.4648;-3.3994;
1060.2000;0.4681;-3.3845;
1060.5000;0.4681;-3.3771;
1060.8000;0.4664;-3.3870;
1061.1000;0.4656;-3.4019;
1061.4000;0.4664;-3.3994;
1061.7000;0.4672;-3.4019;
1062.0000;0.4672;-3.4019;
1062.3000;0.4656;-3.4119;
1062.6000;0.4664;-3.4193;
1062.9000;0.4648;-3.4243;
1063.2000;0.4681;-3.4119;
1063.5000;0.4648;-3.4243;
1063.8000;0.4672;-3.4094;
1064.1000;0.4689;-3.4044;
1064.4000;0.4689;-3.4069;
1064.7000;0.4689;-3.4069;
1065.0000;0.4656;-3.4193;
1065.3000;0.4591;-3.4392;
1065.6000;0.4664;-3.4318;
1065.9000;0.4664;-3.4243;
1066.2000;0.4664;-3.4293;
1066.5000;0.4656;-3.4144;
1066.8000;0.4648;-3.4119;
1067.1000;0.4664;-3.4094;
1067.4000;0.4656;-3.4144;
1067.7000;0.4672;-3.4119;
1068.0000;0.4664;-3.4069;
1068.3000;0.4689;-3.4019;
1068.6000;0.4672;-3.4069;
1068.9000;0.4648;-3.4094;
1069.2000;0.4664;-3.4193;
1069.5000;0.4681;-3.4144;
1069.8000;0.4664;-3.4119;
1070.1000;0.4689;-3.4094;
1070.4000;0.4689;-3.4069;
1070.7000;0.4681;-3.4019;
1071.0000;0.4713;-3.3870;
1071.3000;0.4689;-3.4094;
1071.6000;0.4664;-3.4193;
1071.9000;0.4689;-3.4218;
1072.2000;0.4681;-3.4193;
1072.5000;0.4681;-3.4218;
1072.8000;0.4672;-3.4293;
1073.1000;0.4648;-3.4268;
1073.4000;0.4681;-3.4119;
1073.7000;0.4689;-3.4119;
1074.0000;0.4672;-3.4069;
1074.3000;0.4664;-3.3970;
1074.6000;0.4672;-3.3945;
1074.9000;0.4681;-3.3945;
1075.2000;0.4681;-3.3970;
1075.5000;0.4697;-3.3994;
1075.8000;0.4672;-3.4019;
1076.1000;0.4672;-3.4019;
1076.4000;0.4656;-3.4144;
1076.7000;0.4656;-3.4144;
1077.0000;0.4681;-3.4119;
1077.3000;0.4689;-3.4019;
1077.6000;0.4697;-3.3994;
1077.9000;0.4672;-3.4069;
1078.2000;0.4681;-3.4094;
1078.5000;0.4664;-3.4069;
1078.8000;0.4681;-3.4069;
1079.1000;0.4640;-3.4169;
1079.4000;0.4656;-3.4193;
1079.7000;0.4664;-3.4119;
1080.0000;0.4648;-3.4069;
1080.3000;0.4689;-3.3920;
1080.6000;0.4721;-3.3771;
1080.9000;0.4689;-3.3895;
1081.2000;0.4664;-3.4069;
1081.5000;0.4681;-3.3920;
1081.8000;0.4689;-3.3945;
1082.1000;0.4664;-3.3945;
1082.4000;0.4648;-3.3945;
1082.7000;0.4681;-3.3771;
1083.0000;0.4689;-3.3845;
1083.3000;0.4681;-3.3920;
1083.6000;0.4672;-3.3945;
1083.9000;0.4672;-3.3970;
1084.2000;0.4672;-3.3970;
1084.5000;0.4664;-3.3994;
1084.8000;0.4640;-3.4019;
1085.1000;0.4672;-3.3920;
1085.4000;0.4681;-3.3945;
1085.7000;0.4681;-3.4044;
1086.0000;0.4664;-3.3970;
1086.3000;0.4681;-3.3945;
1086.6000;0.4681;-3.3870;
1086.9000;0.4681;-3.3845;
1087.2000;0.4664;-3.3970;
1087.5000;0.4664;-3.3994;
1087.8000;0.4689;-3.3895;
1088.1000;0.4672;-3.3870;
1088.4000;0.4640;-3.4044;
1088.7000;0.4713;-3.3920;
1089.0000;0.4689;-3.3895;
1089.3000;0.4664;-3.3895;
1089.6000;0.4656;-3.3746;
1089.9000;0.4681;-3.3771;
1090.2000;0.4672;-3.3696;
1090.5000;0.4648;-3.3696;
1090.8000;0.4656;-3.3746;
1091.1000;0.4664;-3.3721;
1091.4000;0.4615;-3.3945;
1091.7000;0.4664;-3.3870;
1092.0000;0.4656;-3.3945;
1092.3000;0.4697;-3.3870;
1092.6000;0.4640;-3.3970;
1092.9000;0.4672;-3.3920;
1093.2000;0.4664;-3.3920;
1093.5000;0.4615;-3.4144;
1093.8000;0.4615;-3.4069;
1094.1000;0.4672;-3.3970;
1094.4000;0.4615;-3.4069;
1094.7000;0.4664;-3.4019;
1095.0000;0.4640;-3.4119;
1095.3000;0.4689;-3.3994;
1095.6000;0.4648;-3.4019;
1095.9000;0.4786;-3.3721;
1096.2000;0.4672;-3.3994;
1096.5000;0.4664;-3.3970;
1096.8000;0.4713;-3.3771;
1097.1000;0.4656;-3.3920;
1097.4000;0.4664;-3.3920;
1097.7000;0.4656;-3.3970;
1098.0000;0.4632;-3.4119;
1098.3000;0.4689;-3.3945;
1098.6000;0.4672;-3.3920;
1098.9000;0.4689;-3.3895;
1099.2000;0.4575;-3.4218;
1099.5000;0.4664;-3.3970;
1099.8000;0.4672;-3.3895;
1100.1000;0.4689;-3.3771;
1100.4000;0.4664;-3.3771;
1100.7000;0.4681;-3.3845;
1101.0000;0.4689;-3.3771;
1101.3000;0.4697;-3.3746;
1101.6000;0.4721;-3.3671;
1101.9000;0.4664;-3.3796;
1102.2000;0.4664;-3.3746;
1102.5000;0.4705;-3.3671;
1102.8000;0.4656;-3.3671;
1103.1000;0.4656;-3.3646;
1103.4000;0.4664;-3.3771;
1103.7000;0.4632;-3.3945;
1104.0000;0.4656;-3.3870;
1104.3000;0.4672;-3.3870;
1104.6000;0.4681;-3.3870;
1104.9000;0.4656;-3.3920;
1105.2000;0.4681;-3.3945;
1105.5000;0.4672;-3.3994;
1105.8000;0.4697;-3.3945;
1106.1000;0.4664;-3.3994;
1106.4000;0.4697;-3.3870;
1106.7000;0.4689;-3.3845;
1107.0000;0.4689;-3.3796;
1107.3000;0.4664;-3.3870;
1107.6000;0.4664;-3.3820;
1107.9000;0.4664;-3.3870;
1108.2000;0.4656;-3.3845;
1108.5000;0.4689;-3.3920;
1108.8000;0.4656;-3.3994;
1109.1000;0.4672;-3.3845;
1109.4000;0.4664;-3.3771;
1109.7000;0.4656;-3.3721;
1110.0000;0.4664;-3.3771;
1110.3000;0.4591;-3.3945;
1110.6000;0.4648;-3.3771;
1110.9000;0.4664;-3.3721;
1111.2000;0.4664;-3.3696;
1111.5000;0.4632;-3.3970;
1111.8000;0.4664;-3.3945;
1112.1000;0.4672;-3.3970;
1112.4000;0.4729;-3.3895;
1112.7000;0.4713;-3.4069;
1113.0000;0.4689;-3.4119;
1113.3000;0.4656;-3.4119;
1113.6000;0.4664;-3.4094;
1113.9000;0.4664;-3.3945;
1114.2000;0.4672;-3.4019;
1114.5000;0.4672;-3.3994;
1114.8000;0.4672;-3.3920;
1115.1000;0.4672;-3.3920;
1115.4000;0.4664;-3.3920;
1115.7000;0.4648;-3.3970;
1116.0000;0.4656;-3.3945;
1116.3000;0.4672;-3.3970;
1116.6000;0.4681;-3.3945;
1116.9000;0.4689;-3.3920;
1117.2000;0.4672;-3.3970;
1117.5000;0.4664;-3.3870;
1117.8000;0.4681;-3.3870;
1118.1000;0.4697;-3.3845;
1118.4000;0.4664;-3.3994;
1118.7000;0.4656;-3.4019;
1119.0000;0.4746;-3.3820;
1119.3000;0.4689;-3.3970;
1119.6000;0.4681;-3.3994;
1119.9000;0.4672;-3.3945;
1120.2000;0.4721;-3.3820;
1120.5000;0.4664;-3.3994;
1120.8000;0.4705;-3.3820;
1121.1000;0.4672;-3.3920;
1121.4000;0.4672;-3.4044;
1121.7000;0.4689;-3.4019;
1122.0000;0.4681;-3.3994;
1122.3000;0.4681;-3.3994;
1122.6000;0.4664;-3.4019;
1122.9000;0.4656;-3.4069;
1123.2000;0.4664;-3.4044;
1123.5000;0.4672;-3.3994;
1123.8000;0.4648;-3.4094;
1124.1000;0.4664;-3.4094;
1124.4000;0.4648;-3.4119;
1124.7000;0.4664;-3.3994;
1125.0000;0.4705;-3.3895;
1125.3000;0.4656;-3.4119;
1125.6000;0.4656;-3.4069;
1125.9000;0.4713;-3.4019;
1126.2000;0.4689;-3.4119;
1126.5000;0.4656;-3.4119;
1126.8000;0.4648;-3.4144;
1127.1000;0.4672;-3.4144;
1127.4000;0.4664;-3.4094;
1127.7000;0.4721;-3.3945;
1128.0000;0.4681;-3.4019;
1128.3000;0.4681;-3.3970;
1128.6000;0.4656;-3.4044;
1128.9000;0.4689;-3.3970;
1129.2000;0.4664;-3.4069;
1129.5000;0.4664;-3.4069;
1129.8000;0.4681;-3.3994;
1130.1000;0.4689;-3.3920;
1130.4000;0.4681;-3.3920;
1130.7000;0.4648;-3.4069;
1131.0000;0.4689;-3.4019;
1131.3000;0.4672;-3.4094;
1131.6000;0.4664;-3.4094;
1131.9000;0.4664;-3.4169;
1132.2000;0.4656;-3.4193;
1132.5000;0.4681;-3.4193;
1132.8000;0.4664;-3.4243;
1133.1000;0.4672;-3.4243;
1133.4000;0.4721;-3.4044;
1133.7000;0.4681;-3.4044;
1134.0000;0.4672;-3.3994;
1134.3000;0.4656;-3.3994;
1134.6000;0.4689;-3.3870;
1134.9000;0.4632;-3.4144;
1135.2000;0.4697;-3.3994;
1135.5000;0.4672;-3.3945;
1135.8000;0.4640;-3.3970;
1136.1000;0.4648;-3.3945;
1136.4000;0.4664;-3.3920;
1136.7000;0.4705;-3.3895;
1137.0000;0.4656;-3.3920;
1137.3000;0.4672;-3.3845;
1137.6000;0.4656;-3.3895;
1137.9000;0.4656;-3.3895;
1138.2000;0.4624;-3.3994;
1138.5000;0.4640;-3.3994;
1138.8000;0.4681;-3.3870;
1139.1000;0.4656;-3.4069;
1139.4000;0.4664;-3.4044;
1139.7000;0.4664;-3.4019;
1140.0000;0.4697;-3.3895;
1140.3000;0.4664;-3.3970;
1140.6000;0.4689;-3.3870;
1140.9000;0.4632;-3.4069;
1141.2000;0.4681;-3.4019;
1141.5000;0.4672;-3.4069;
1141.8000;0.4672;-3.3994;
1142.1000;0.4672;-3.4044;
1142.4000;0.4656;-3.4069;
1142.7000;0.4664;-3.4044;
1143.0000;0.4721;-3.3970;
1143.3000;0.4672;-3.4094;
1143.6000;0.4681;-3.4044;
1143.9000;0.4664;-3.4069;
1144.2000;0.4672;-3.4069;
1144.5000;0.4697;-3.4044;
1144.8000;0.4689;-3.4069;
1145.1000;0.4664;-3.4119;
1145.4000;0.4681;-3.4044;
1145.7000;0.4681;-3.3920;
1146.0000;0.4648;-3.4019;
1146.3000;0.4689;-3.3920;
1146.6000;0.4681;-3.3945;
1146.9000;0.4672;-3.3920;
1147.2000;0.4672;-3.3945;
1147.5000;0.4648;-3.4069;
1147.8000;0.4672;-3.3895;
1148.1000;0.4681;-3.3845;
1148.4000;0.4672;-3.3895;
1148.7000;0.4656;-3.3945;
1149.0000;0.4656;-3.3970;
1149.3000;0.4656;-3.3945;
1149.6000;0.4672;-3.3820;
1149.9000;0.4681;-3.3796;
1150.2000;0.4656;-3.3845;
1150.5000;0.4681;-3.3945;
1150.8000;0.4672;-3.4044;
1151.1000;0.4681;-3.3994;
1151.4000;0.4681;-3.3945;
1151.7000;0.4721;-3.3845;
1152.0000;0.4656;-3.3945;
1152.3000;0.4672;-3.3895;
1152.6000;0.4672;-3.3820;
1152.9000;0.4656;-3.3945;
1153.2000;0.4672;-3.3870;
1153.5000;0.4664;-3.3870;
1153.8000;0.4656;-3.3895;
1154.1000;0.4672;-3.3895;
1154.4000;0.4664;-3.3870;
1154.7000;0.4664;-3.3870;
1155.0000;0.4681;-3.3796;
1155.3000;0.4672;-3.3845;
1155.6000;0.4664;-3.3870;
1155.9000;0.4672;-3.3895;
1156.2000;0.4689;-3.3920;
1156.5000;0.4672;-3.4044;
1156.8000;0.4689;-3.4044;
1157.1000;0.4672;-3.3994;
1157.4000;0.4672;-3.3920;
1157.7000;0.4615;-3.4144;
1158.0000;0.4664;-3.3970;
1158.3000;0.4689;-3.3945;
1158.6000;0.4672;-3.3945;
1158.9000;0.4689;-3.3895;
1159.2000;0.4656;-3.3994;
1159.5000;0.4672;-3.3994;
1159.8000;0.4672;-3.3994;
1160.1000;0.4681;-3.3945;
1160.4000;0.4648;-3.3994;
1160.7000;0.4664;-3.3970;
1161.0000;0.4664;-3.3895;
1161.3000;0.4648;-3.3895;
1161.6000;0.4648;-3.3870;
1161.9000;0.4640;-3.3970;
1162.2000;0.4656;-3.3895;
1162.5000;0.4648;-3.3920;
1162.8000;0.4681;-3.3820;
1163.1000;0.4664;-3.3895;
1163.4000;0.4672;-3.3796;
1163.7000;0.4681;-3.3920;
1164.0000;0.4648;-3.3994;
1164.3000;0.4656;-3.4094;
1164.6000;0.4664;-3.3994;
1164.9000;0.4656;-3.4044;
1165.2000;0.4656;-3.3970;
1165.5000;0.4672;-3.3945;
1165.8000;0.4656;-3.4069;
1166.1000;0.4664;-3.4069;
1166.4000;0.4672;-3.3994;
1166.7000;0.4664;-3.4119;
1167.0000;0.4664;-3.4044;
1167.3000;0.4689;-3.3970;
1167.6000;0.4681;-3.3920;
1167.9000;0.4664;-3.3920;
1168.2000;0.4615;-3.4119;
1168.5000;0.4664;-3.3970;
1168.8000;0.4583;-3.4243;
1169.1000;0.4672;-3.3970;
1169.4000;0.4656;-3.3994;
1169.7000;0.4640;-3.3920;
1170.0000;0.4656;-3.3945;
1170.3000;0.4689;-3.3796;
1170.6000;0.4624;-3.4019;
1170.9000;0.4681;-3.3746;
1171.2000;0.4664;-3.3721;
1171.5000;0.4689;-3.3746;
1171.8000;0.4664;-3.3796;
1172.1000;0.4648;-3.3820;
1172.4000;0.4656;-3.3696;
1172.7000;0.4681;-3.3671;
1173.0000;0.4672;-3.3721;
1173.3000;0.4672;-3.3845;
1173.6000;0.4721;-3.3646;
1173.9000;0.4607;-3.3895;
1174.2000;0.4656;-3.3771;
1174.5000;0.4664;-3.3746;
1174.8000;0.4656;-3.3820;
1175.1000;0.4664;-3.3746;
1175.4000;0.4681;-3.3696;
1175.7000;0.4672;-3.3771;
1176.0000;0.4672;-3.3721;
1176.3000;0.4664;-3.3771;
1176.6000;0.4656;-3.3721;
1176.9000;0.4681;-3.3696;
1177.2000;0.4664;-3.3696;
1177.5000;0.4664;-3.3796;
1177.8000;0.4648;-3.3945;
1178.1000;0.4656;-3.3895;
1178.4000;0.4664;-3.3920;
1178.7000;0.4721;-3.3771;
1179.0000;0.4681;-3.3845;
1179.3000;0.4689;-3.3796;
1179.6000;0.4681;-3.3721;
1179.9000;0.4803;-3.3447;
1180.2000;0.4811;-3.3422;
1180.5000;0.4672;-3.3796;
1180.8000;0.4697;-3.3895;
1181.1000;0.4689;-3.3994;
1181.4000;0.4672;-3.4144;
1181.7000;0.4648;-3.4218;
1182.0000;0.4664;-3.4119;
1182.3000;0.4672;-3.4094;
1182.6000;0.4656;-3.4144;
1182.9000;0.4656;-3.4218;
1183.2000;0.4664;-3.4144;
1183.5000;0.4664;-3.4069;
1183.8000;0.4664;-3.4044;
1184.1000;0.4656;-3.4094;
1184.4000;0.4681;-3.3994;
1184.7000;0.4615;-3.4169;
1185.0000;0.4664;-3.3994;
1185.3000;0.4656;-3.3920;
1185.6000;0.4689;-3.3895;
1185.9000;0.4672;-3.3920;
1186.2000;0.4672;-3.3870;
1186.5000;0.4664;-3.3920;
1186.8000;0.4681;-3.3845;
1187.1000;0.4689;-3.3671;
1187.4000;0.4672;-3.3771;
1187.7000;0.4689;-3.3721;
1188.0000;0.4672;-3.3796;
1188.3000;0.4689;-3.3771;
1188.6000;0.4762;-3.3572;
1188.9000;0.4664;-3.3820;
1189.2000;0.4648;-3.3920;
1189.5000;0.4648;-3.3895;
1189.8000;0.4672;-3.3820;
1190.1000;0.4721;-3.3796;
1190.4000;0.4672;-3.3895;
1190.7000;0.4656;-3.3895;
1191.0000;0.4599;-3.4044;
1191.3000;0.4656;-3.3796;
1191.6000;0.4689;-3.3820;
1191.9000;0.4672;-3.3870;
1192.2000;0.4713;-3.3771;
1192.5000;0.4705;-3.3771;
1192.8000;0.4664;-3.3920;
1193.1000;0.4689;-3.3870;
1193.4000;0.4681;-3.3820;
1193.7000;0.4664;-3.3845;
1194.0000;0.4664;-3.3845;
1194.3000;0.4672;-3.3820;
1194.6000;0.4664;-3.3771;
1194.9000;0.4656;-3.3746;
1195.2000;0.4664;-3.3771;
1195.5000;0.4664;-3.3771;
1195.8000;0.4656;-3.3870;
1196.1000;0.4664;-3.3895;
1196.4000;0.4681;-3.3820;
1196.7000;0.4689;-3.3845;
1197.0000;0.4672;-3.3771;
1197.3000;0.4664;-3.3820;
1197.6000;0.4681;-3.3796;
1197.9000;0.4664;-3.3845;
1198.2000;0.4681;-3.3796;
1198.5000;0.4672;-3.3696;
1198.8000;0.4681;-3.3696;
1199.1000;0.4681;-3.3746;
1199.4000;0.4672;-3.3845;
1199.7000;0.4664;-3.3870;
1200.0000;0.4672;-3.3870;
1200.3000;0.4689;-3.3870;
1200.6000;0.4656;-3.3870;
1200.9000;0.4656;-3.3845;
1201.2000;0.4672;-3.3845;
1201.5000;0.4672;-3.3895;
1201.8000;0.4672;-3.3845;
1202.1000;0.4689;-3.3671;
1202.4000;0.4681;-3.3771;
1202.7000;0.4681;-3.3721;
1203.0000;0.4681;-3.3721;
1203.3000;0.4681;-3.3671;
1203.6000;0.4778;-3.3472;
1203.9000;0.4615;-3.3970;
1204.2000;0.4681;-3.3796;
1204.5000;0.4762;-3.3597;
1204.8000;0.4672;-3.3771;
1205.1000;0.4664;-3.3820;
1205.4000;0.4681;-3.3696;
1205.7000;0.4786;-3.3547;
1206.0000;0.4672;-3.3945;
1206.3000;0.4672;-3.3920;
1206.6000;0.4672;-3.3895;
1206.9000;0.4656;-3.3945;
1207.2000;0.4664;-3.3920;
1207.5000;0.4681;-3.3820;
1207.8000;0.4672;-3.3771;
1208.1000;0.4656;-3.3820;
1208.4000;0.4664;-3.3820;
1208.7000;0.4737;-3.3597;
1209.0000;0.4664;-3.3796;
1209.3000;0.4664;-3.3771;
1209.6000;0.4672;-3.3771;
1209.9000;0.4664;-3.3895;
1210.2000;0.4656;-3.3870;
1210.5000;0.4689;-3.3920;
1210.8000;0.4672;-3.3994;
1211.1000;0.4681;-3.3895;
1211.4000;0.4648;-3.3920;
1211.7000;0.4664;-3.3945;
1212.0000;0.4705;-3.3895;
1212.3000;0.4664;-3.3920;
1212.6000;0.4664;-3.3920;
1212.9000;0.4648;-3.3970;
1213.2000;0.4648;-3.4019;
1213.5000;0.4689;-3.3870;
1213.8000;0.4656;-3.3920;
1214.1000;0.4632;-3.3945;
1214.4000;0.4672;-3.3845;
1214.7000;0.4689;-3.3845;
1215.0000;0.4705;-3.3870;
1215.3000;0.4681;-3.3994;
1215.6000;0.4664;-3.3994;
1215.9000;0.4681;-3.3920;
1216.2000;0.4672;-3.3920;
1216.5000;0.4672;-3.3970;
1216.8000;0.4656;-3.4019;
1217.1000;0.4729;-3.3945;
1217.4000;0.4672;-3.4069;
1217.7000;0.4681;-3.3994;
1218.0000;0.4713;-3.3820;
1218.3000;0.4664;-3.3920;
1218.6000;0.4672;-3.3945;
1218.9000;0.4656;-3.3970;
1219.2000;0.4648;-3.4044;
1219.5000;0.4656;-3.4069;
1219.8000;0.4664;-3.4069;
1220.1000;0.4672;-3.4044;
1220.4000;0.4672;-3.4019;
1220.7000;0.4648;-3.4019;
1221.0000;0.4672;-3.3895;
1221.3000;0.4607;-3.4019;
1221.6000;0.4656;-3.3845;
1221.9000;0.4681;-3.3870;
1222.2000;0.4664;-3.3945;
1222.5000;0.4656;-3.3895;
1222.8000;0.4689;-3.3870;
1223.1000;0.4681;-3.3994;
1223.4000;0.4672;-3.3945;
1223.7000;0.4681;-3.3920;
1224.0000;0.4615;-3.4193;
1224.3000;0.4648;-3.4144;
1224.6000;0.4681;-3.4169;
1224.9000;0.4681;-3.4144;
1225.2000;0.4697;-3.4019;
1225.5000;0.4697;-3.4019;
1225.8000;0.4672;-3.4119;
1226.1000;0.4672;-3.4144;
1226.4000;0.4689;-3.4119;
1226.7000;0.4697;-3.3994;
1227.0000;0.4681;-3.4044;
1227.3000;0.4681;-3.4019;
1227.6000;0.4689;-3.3920;
1227.9000;0.4689;-3.3870;
1228.2000;0.4672;-3.3920;
1228.5000;0.4656;-3.3920;
1228.8000;0.4681;-3.3945;
1229.1000;0.4681;-3.3994;
1229.4000;0.4672;-3.4044;
1229.7000;0.4672;-3.4019;
1230.0000;0.4664;-3.4019;
1230.3000;0.4656;-3.4044;
1230.6000;0.4672;-3.3945;
1230.9000;0.4672;-3.3945;
1231.2000;0.4656;-3.3994;
1231.5000;0.4689;-3.3920;
1231.8000;0.4664;-3.3994;
1232.1000;0.4681;-3.3895;
1232.4000;0.4664;-3.3970;
1232.7000;0.4664;-3.3945;
1233.0000;0.4672;-3.3945;
1233.3000;0.4672;-3.3920;
1233.6000;0.4672;-3.3945;
1233.9000;0.4664;-3.4044;
1234.2000;0.4689;-3.4044;
1234.5000;0.4656;-3.4069;
1234.8000;0.4672;-3.4044;
1235.1000;0.4656;-3.4044;
1235.4000;0.4672;-3.3920;
1235.7000;0.4672;-3.3920;
1236.0000;0.4607;-3.4019;
1236.3000;0.4648;-3.3945;
1236.6000;0.4689;-3.3920;
1236.9000;0.4672;-3.3994;
1237.2000;0.4656;-3.4019;
1237.5000;0.4656;-3.4044;
1237.8000;0.4648;-3.3994;
1238.1000;0.4672;-3.3970;
1238.4000;0.4672;-3.3870;
1238.7000;0.4672;-3.3945;
1239.0000;0.4656;-3.4019;
1239.3000;0.4672;-3.3945;
1239.6000;0.4664;-3.3994;
1239.9000;0.4672;-3.3970;
1240.2000;0.4664;-3.3945;
1240.5000;0.4664;-3.3920;
1240.8000;0.4697;-3.3994;
1241.1000;0.4681;-3.4019;
1241.4000;0.4672;-3.3970;
1241.7000;0.4648;-3.4094;
1242.0000;0.4681;-3.4094;
1242.3000;0.4672;-3.4044;
1242.6000;0.4615;-3.4218;
1242.9000;0.4656;-3.3945;
1243.2000;0.4664;-3.3970;
1243.5000;0.4681;-3.3895;
1243.8000;0.4672;-3.3820;
1244.1000;0.4681;-3.3771;
1244.4000;0.4648;-3.3895;
1244.7000;0.4681;-3.3920;
1245.0000;0.4681;-3.3945;
1245.3000;0.4656;-3.4044;
1245.6000;0.4656;-3.4094;
1245.9000;0.4648;-3.4119;
1246.2000;0.4681;-3.3945;
1246.5000;0.4672;-3.4019;
1246.8000;0.4737;-3.3845;
1247.1000;0.4656;-3.4019;
1247.4000;0.4664;-3.4044;
1247.7000;0.4640;-3.4019;
1248.0000;0.4664;-3.3994;
1248.3000;0.4664;-3.4019;
1248.6000;0.4664;-3.3895;
1248.9000;0.4689;-3.3820;
1249.2000;0.4672;-3.3796;
1249.5000;0.4672;-3.3820;
1249.8000;0.4664;-3.3895;
1250.1000;0.4648;-3.3920;
1250.4000;0.4672;-3.3870;
1250.7000;0.4697;-3.3771;
1251.0000;0.4672;-3.3796;
1251.3000;0.4681;-3.3771;
1251.6000;0.4672;-3.3820;
1251.9000;0.4721;-3.3746;
1252.2000;0.4664;-3.3845;
1252.5000;0.4664;-3.3746;
1252.8000;0.4656;-3.3920;
1253.1000;0.4648;-3.3994;
1253.4000;0.4632;-3.4169;
1253.7000;0.4640;-3.4069;
1254.0000;0.4672;-3.4019;
1254.3000;0.4689;-3.4044;
1254.6000;0.4648;-3.4069;
1254.9000;0.4697;-3.3994;
1255.2000;0.4664;-3.4069;
1255.5000;0.4656;-3.4119;
1255.8000;0.4648;-3.4069;
1256.1000;0.4681;-3.4144;
1256.4000;0.4689;-3.4169;
1256.7000;0.4664;-3.4169;
1257.0000;0.4681;-3.4069;
1257.3000;0.4664;-3.4044;
1257.6000;0.4672;-3.4019;
1257.9000;0.4664;-3.4044;
1258.2000;0.4656;-3.4069;
1258.5000;0.4656;-3.4019;
1258.8000;0.4656;-3.4069;
1259.1000;0.4648;-3.3945;
1259.4000;0.4648;-3.3845;
1259.7000;0.4672;-3.3820;
1260.0000;0.4664;-3.3845;
1260.3000;0.4656;-3.3845;
1260.6000;0.4697;-3.3796;
1260.9000;0.4689;-3.3820;
1261.2000;0.4664;-3.3820;
1261.5000;0.4697;-3.3721;
1261.8000;0.4681;-3.3820;
1262.1000;0.4681;-3.3820;
1262.4000;0.4664;-3.3820;
1262.7000;0.4681;-3.3820;
1263.0000;0.4664;-3.3746;
1263.3000;0.4705;-3.3671;
1263.6000;0.4681;-3.3820;
1263.9000;0.4713;-3.3746;
1264.2000;0.4664;-3.3895;
1264.5000;0.4656;-3.3845;
1264.8000;0.4770;-3.3696;
1265.1000;0.4681;-3.3945;
1265.4000;0.4664;-3.3970;
1265.7000;0.4672;-3.3870;
1266.0000;0.4672;-3.3771;
1266.3000;0.4656;-3.3796;
1266.6000;0.4624;-3.3994;
1266.9000;0.4681;-3.3870;
1267.2000;0.4664;-3.3820;
1267.5000;0.4664;-3.3746;
1267.8000;0.4624;-3.3870;
1268.1000;0.4672;-3.3746;
1268.4000;0.4689;-3.3820;
1268.7000;0.4778;-3.3522;
1269.0000;0.4632;-3.3870;
1269.3000;0.4672;-3.3771;
1269.6000;0.4681;-3.3721;
1269.9000;0.4672;-3.3746;
1270.2000;0.4681;-3.3820;
1270.5000;0.4664;-3.3870;
1270.8000;0.4705;-3.3820;
1271.1000;0.4664;-3.3870;
1271.4000;0.4664;-3.3870;
1271.7000;0.4672;-3.3746;
1272.0000;0.4681;-3.3820;
1272.3000;0.4681;-3.3796;
1272.6000;0.4729;-3.3597;
1272.9000;0.4640;-3.3870;
1273.2000;0.4672;-3.3870;
1273.5000;0.4672;-3.3870;
1273.8000;0.4705;-3.3796;
1274.1000;0.4664;-3.3845;
1274.4000;0.4672;-3.3870;
1274.7000;0.4672;-3.3820;
1275.0000;0.4689;-3.3771;
1275.3000;0.4672;-3.3721;
1275.6000;0.4656;-3.3771;
1275.9000;0.4778;-3.3497;
1276.2000;0.4656;-3.3845;
1276.5000;0.4648;-3.3895;
1276.8000;0.4656;-3.3895;
1277.1000;0.4648;-3.3895;
1277.4000;0.4672;-3.3820;
1277.7000;0.4656;-3.3796;
1278.0000;0.4656;-3.3820;
1278.3000;0.4664;-3.3845;
1278.6000;0.4681;-3.3796;
1278.9000;0.4664;-3.3820;
1279.2000;0.4672;-3.3870;
1279.5000;0.4672;-3.3796;
1279.8000;0.4664;-3.3820;
1280.1000;0.4681;-3.3796;
1280.4000;0.4672;-3.3796;
1280.7000;0.4656;-3.3870;
1281.0000;0.4689;-3.3796;
1281.3000;0.4681;-3.3796;
1281.6000;0.4664;-3.3721;
1281.9000;0.4656;-3.3696;
1282.2000;0.4664;-3.3621;
1282.5000;0.4656;-3.3671;
1282.8000;0.4648;-3.3646;
1283.1000;0.4664;-3.3646;
1283.4000;0.4615;-3.3796;
1283.7000;0.4648;-3.3646;
1284.0000;0.4656;-3.3671;
1284.3000;0.4656;-3.3671;
1284.6000;0.4656;-3.3696;
1284.9000;0.4672;-3.3646;
1285.2000;0.4681;-3.3696;
1285.5000;0.4689;-3.3771;
1285.8000;0.4664;-3.3920;
1286.1000;0.4656;-3.3970;
1286.4000;0.4672;-3.3870;
1286.7000;0.4672;-3.3845;
1287.0000;0.4648;-3.3870;
1287.3000;0.4599;-3.4119;
1287.6000;0.4664;-3.3970;
1287.9000;0.4697;-3.3970;
1288.2000;0.4664;-3.3945;
1288.5000;0.4648;-3.4019;
1288.8000;0.4664;-3.3994;
1289.1000;0.4672;-3.3796;
1289.4000;0.4672;-3.3771;
1289.7000;0.4656;-3.3845;
1290.0000;0.4689;-3.3721;
1290.3000;0.4664;-3.3845;
1290.6000;0.4689;-3.3721;
1290.9000;0.4656;-3.3845;
1291.2000;0.4648;-3.3895;
1291.5000;0.4648;-3.3820;
1291.8000;0.4648;-3.3796;
1292.1000;0.4672;-3.3721;
1292.4000;0.4664;-3.3721;
1292.7000;0.4607;-3.3945;
1293.0000;0.4672;-3.3796;
1293.3000;0.4656;-3.3895;
1293.6000;0.4664;-3.3945;
1293.9000;0.4697;-3.3920;
1294.2000;0.4681;-3.3820;
1294.5000;0.4664;-3.3820;
1294.8000;0.4672;-3.3796;
1295.1000;0.4656;-3.3845;
1295.4000;0.4672;-3.3920;
1295.7000;0.4681;-3.3945;
1296.0000;0.4672;-3.3945;
1296.3000;0.4656;-3.3970;
1296.6000;0.4656;-3.3945;
1296.9000;0.4672;-3.3970;
1297.2000;0.4656;-3.4019;
1297.5000;0.4689;-3.4019;
1297.8000;0.4656;-3.4019;
1298.1000;0.4664;-3.3994;
1298.4000;0.4672;-3.3994;
1298.7000;0.4681;-3.3994;
1299.0000;0.4656;-3.3994;
1299.3000;0.4648;-3.3994;
1299.6000;0.4648;-3.3994;
1299.9000;0.4664;-3.3945;
1300.2000;0.4664;-3.3945;
1300.5000;0.4615;-3.4044;
1300.8000;0.4656;-3.3970;
1301.1000;0.4681;-3.3970;
1301.4000;0.4656;-3.3970;
1301.7000;0.4656;-3.3970;
1302.0000;0.4656;-3.3845;
1302.3000;0.4672;-3.3746;
1302.6000;0.4689;-3.3696;
1302.9000;0.4648;-3.3796;
1303.2000;0.4672;-3.3771;
1303.5000;0.4632;-3.3945;
1303.8000;0.4689;-3.3870;
1304.1000;0.4681;-3.3870;
1304.4000;0.4664;-3.3870;
1304.7000;0.4648;-3.3895;
1305.0000;0.4689;-3.3771;
1305.3000;0.4689;-3.3746;
1305.6000;0.4664;-3.3771;
1305.9000;0.4656;-3.3895;
1306.2000;0.4664;-3.3994;
1306.5000;0.4762;-3.3696;
1306.8000;0.4648;-3.3920;
1307.1000;0.4689;-3.3796;
1307.4000;0.4681;-3.3820;
1307.7000;0.4664;-3.3870;
1308.0000;0.4624;-3.3970;
1308.3000;0.4681;-3.3870;
1308.6000;0.4656;-3.3845;
1308.9000;0.4656;-3.3820;
1309.2000;0.4681;-3.3721;
1309.5000;0.4656;-3.3870;
1309.8000;0.4697;-3.3796;
1310.1000;0.4705;-3.3796;
1310.4000;0.4672;-3.3870;
1310.7000;0.4656;-3.3895;
1311.0000;0.4591;-3.4094;
1311.3000;0.4672;-3.3870;
1311.6000;0.4689;-3.3771;
1311.9000;0.4640;-3.3820;
1312.2000;0.4664;-3.3870;
1312.5000;0.4672;-3.3945;
1312.8000;0.4656;-3.3994;
1313.1000;0.4672;-3.3920;
1313.4000;0.4689;-3.3945;
1313.7000;0.4664;-3.3920;
1314.0000;0.4648;-3.3970;
1314.3000;0.4672;-3.3970;
1314.6000;0.4664;-3.3994;
1314.9000;0.4681;-3.3895;
1315.2000;0.4656;-3.3870;
1315.5000;0.4664;-3.3796;
1315.8000;0.4664;-3.3796;
1316.1000;0.4664;-3.3820;
1316.4000;0.4656;-3.3920;
1316.7000;0.4689;-3.3820;
1317.0000;0.4672;-3.3820;
1317.3000;0.4656;-3.3970;
1317.6000;0.4648;-3.4044;
1317.9000;0.4672;-3.3920;
1318.2000;0.4575;-3.4044;
1318.5000;0.4689;-3.3721;
1318.8000;0.4648;-3.3870;
1319.1000;0.4672;-3.3895;
1319.4000;0.4737;-3.3746;
1319.7000;0.4672;-3.3970;
1320.0000;0.4656;-3.3920;
1320.3000;0.4591;-3.3870;
1320.6000;0.4648;-3.3796;
1320.9000;0.4672;-3.3721;
1321.2000;0.4656;-3.3721;
1321.5000;0.4672;-3.3721;
1321.8000;0.4689;-3.3621;
1322.1000;0.4681;-3.3671;
1322.4000;0.4689;-3.3721;
1322.7000;0.4656;-3.3771;
1323.0000;0.4648;-3.3796;
1323.3000;0.4721;-3.3696;
1323.6000;0.4697;-3.3746;
1323.9000;0.4664;-3.3771;
1324.2000;0.4672;-3.3746;
1324.5000;0.4656;-3.3646;
1324.8000;0.4770;-3.3348;
1325.1000;0.4672;-3.3472;
1325.4000;0.4615;-3.3621;
1325.7000;0.4664;-3.3472;
1326.0000;0.4672;-3.3422;
1326.3000;0.4672;-3.3572;
1326.6000;0.4648;-3.3696;
1326.9000;0.4681;-3.3621;
1327.2000;0.4648;-3.3746;
1327.5000;0.4713;-3.3522;
1327.8000;0.4762;-3.3447;
1328.1000;0.4664;-3.3646;
1328.4000;0.4664;-3.3746;
1328.7000;0.4648;-3.3796;
1329.0000;0.4689;-3.3646;
1329.3000;0.4713;-3.3597;
1329.6000;0.4664;-3.3597;
1329.9000;0.4681;-3.3646;
1330.2000;0.4656;-3.3696;
1330.5000;0.4672;-3.3646;
1330.8000;0.4648;-3.3796;
1331.1000;0.4681;-3.3796;
1331.4000;0.4615;-3.3945;
1331.7000;0.4656;-3.3771;
1332.0000;0.4656;-3.3696;
1332.3000;0.4664;-3.3696;
1332.6000;0.4664;-3.3696;
1332.9000;0.4664;-3.3621;
1333.2000;0.4648;-3.3746;
1333.5000;0.4640;-3.3870;
1333.8000;0.4656;-3.3796;
1334.1000;0.4656;-3.3796;
1334.4000;0.4664;-3.3820;
1334.7000;0.4656;-3.4019;
1335.0000;0.4664;-3.3945;
1335.3000;0.4664;-3.3895;
1335.6000;0.4656;-3.3945;
1335.9000;0.4640;-3.3945;
1336.2000;0.4656;-3.3820;
1336.5000;0.4640;-3.3895;
1336.8000;0.4656;-3.3945;
1337.1000;0.4648;-3.3895;
1337.4000;0.4697;-3.3746;
1337.7000;0.4672;-3.3796;
1338.0000;0.4664;-3.3845;
1338.3000;0.4656;-3.3796;
1338.6000;0.4664;-3.3696;
1338.9000;0.4664;-3.3771;
1339.2000;0.4632;-3.3845;
1339.5000;0.4681;-3.3771;
1339.8000;0.4656;-3.3845;
1340.1000;0.4721;-3.3721;
1340.4000;0.4737;-3.3721;
1340.7000;0.4640;-3.4019;
1341.0000;0.4664;-3.3895;
1341.3000;0.4681;-3.3820;
1341.6000;0.4664;-3.3845;
1341.9000;0.4664;-3.3820;
1342.2000;0.4656;-3.3796;
1342.5000;0.4672;-3.3696;
1342.8000;0.4689;-3.3696;
1343.1000;0.4681;-3.3721;
1343.4000;0.4689;-3.3696;
1343.7000;0.4632;-3.3870;
1344.0000;0.4681;-3.3796;
1344.3000;0.4713;-3.3696;
1344.6000;0.4681;-3.3771;
1344.9000;0.4664;-3.3796;
1345.2000;0.4672;-3.3796;
1345.5000;0.4697;-3.3746;
1345.8000;0.4697;-3.3845;
1346.1000;0.4672;-3.3771;
1346.4000;0.4624;-3.3895;
1346.7000;0.4640;-3.3870;
1347.0000;0.4656;-3.3895;
1347.3000;0.4648;-3.3994;
1347.6000;0.4615;-3.4119;
1347.9000;0.4656;-3.3970;
1348.2000;0.4672;-3.3920;
1348.5000;0.4697;-3.3870;
1348.8000;0.4632;-3.4094;
1349.1000;0.4689;-3.3970;
1349.4000;0.4681;-3.3945;
1349.7000;0.4664;-3.3970;
1350.0000;0.4664;-3.3895;
1350.3000;0.4681;-3.3895;
1350.6000;0.4672;-3.3895;
1350.9000;0.4656;-3.3920;
1351.2000;0.4648;-3.3870;
1351.5000;0.4697;-3.3895;
1351.8000;0.4656;-3.4019;
1352.1000;0.4664;-3.3920;
1352.4000;0.4648;-3.3994;
1352.7000;0.4689;-3.3945;
1353.0000;0.4640;-3.3970;
1353.3000;0.4664;-3.3994;
1353.6000;0.4681;-3.3920;
1353.9000;0.4656;-3.3994;
1354.2000;0.4672;-3.3920;
1354.5000;0.4672;-3.3994;
1354.8000;0.4681;-3.3970;
1355.1000;0.4664;-3.3920;
1355.4000;0.4648;-3.3920;
1355.7000;0.4681;-3.3845;
1356.0000;0.4664;-3.3845;
1356.3000;0.4632;-3.3920;
1356.6000;0.4681;-3.3721;
1356.9000;0.4656;-3.3845;
1357.2000;0.4672;-3.3820;
1357.5000;0.4656;-3.3870;
1357.8000;0.4664;-3.3845;
1358.1000;0.4664;-3.3920;
1358.4000;0.4681;-3.3870;
1358.7000;0.4689;-3.3746;
1359.0000;0.4664;-3.3771;
1359.3000;0.4681;-3.3696;
1359.6000;0.4681;-3.3746;
1359.9000;0.4624;-3.3970;
1360.2000;0.4689;-3.3796;
1360.5000;0.4664;-3.3796;
1360.8000;0.4672;-3.3646;
1361.1000;0.4672;-3.3671;
1361.4000;0.4656;-3.3621;
1361.7000;0.4648;-3.3671;
1362.0000;0.4681;-3.3597;
1362.3000;0.4664;-3.3696;
1362.6000;0.4624;-3.3796;
1362.9000;0.4640;-3.3796;
1363.2000;0.4672;-3.3671;
1363.5000;0.4558;-3.3945;
1363.8000;0.4778;-3.3398;
1364.1000;0.4672;-3.3771;
1364.4000;0.4681;-3.3796;
1364.7000;0.4672;-3.3895;
1365.0000;0.4681;-3.3870;
1365.3000;0.4681;-3.3796;
1365.6000;0.4664;-3.3796;
1365.9000;0.4672;-3.3771;
1366.2000;0.4689;-3.3820;
1366.5000;0.4664;-3.3845;
1366.8000;0.4656;-3.3970;
1367.1000;0.4664;-3.4069;
1367.4000;0.4672;-3.4044;
1367.7000;0.4664;-3.4169;
1368.0000;0.4681;-3.4019;
1368.3000;0.4672;-3.3994;
1368.6000;0.4656;-3.4019;
1368.9000;0.4656;-3.3945;
1369.2000;0.4681;-3.3870;
1369.5000;0.4681;-3.3870;
1369.8000;0.4664;-3.3945;
1370.1000;0.4656;-3.3920;
1370.4000;0.4681;-3.3970;
1370.7000;0.4681;-3.3920;
1371.0000;0.4681;-3.3920;
1371.3000;0.4656;-3.3945;
1371.6000;0.4697;-3.3895;
1371.9000;0.4672;-3.3920;
1372.2000;0.4640;-3.3970;
1372.5000;0.4648;-3.4019;
1372.8000;0.4681;-3.3994;
1373.1000;0.4672;-3.3970;
1373.4000;0.4681;-3.3895;
1373.7000;0.4664;-3.3970;
1374.0000;0.4672;-3.3994;
1374.3000;0.4664;-3.4044;
1374.6000;0.4681;-3.4094;
1374.9000;0.4656;-3.4169;
1375.2000;0.4672;-3.4094;
1375.5000;0.4681;-3.4019;
1375.8000;0.4648;-3.4144;
1376.1000;0.4656;-3.4069;
1376.4000;0.4648;-3.4019;
1376.7000;0.4640;-3.3994;
1377.0000;0.4664;-3.3895;
1377.3000;0.4664;-3.3820;
1377.6000;0.4681;-3.3895;
1377.9000;0.4648;-3.4094;
1378.2000;0.4689;-3.3994;
1378.5000;0.4672;-3.3994;
1378.8000;0.4705;-3.3796;
1379.1000;0.4689;-3.3820;
1379.4000;0.4672;-3.3845;
1379.7000;0.4681;-3.3845;
1380.0000;0.4672;-3.3845;
1380.3000;0.4672;-3.3895;
1380.6000;0.4672;-3.3945;
1380.9000;0.4607;-3.4169;
1381.2000;0.4672;-3.3920;
1381.5000;0.4705;-3.3895;
1381.8000;0.4664;-3.3970;
1382.1000;0.4664;-3.3994;
1382.4000;0.4689;-3.3945;
1382.7000;0.4632;-3.4169;
1383.0000;0.4664;-3.4094;
1383.3000;0.4664;-3.4094;
1383.6000;0.4656;-3.4094;
1383.9000;0.4689;-3.4019;
1384.2000;0.4689;-3.4069;
1384.5000;0.4681;-3.4094;
1384.8000;0.4681;-3.4069;
1385.1000;0.4681;-3.4069;
1385.4000;0.4672;-3.4069;
1385.7000;0.4664;-3.4019;
1386.0000;0.4672;-3.3970;
1386.3000;0.4664;-3.3970;
1386.6000;0.4664;-3.3994;
1386.9000;0.4664;-3.3994;
1387.2000;0.4664;-3.4069;
1387.5000;0.4672;-3.4019;
1387.8000;0.4672;-3.4094;
1388.1000;0.4656;-3.4193;
1388.4000;0.4672;-3.4193;
1388.7000;0.4681;-3.4193;
1389.0000;0.4672;-3.4144;
1389.3000;0.4664;-3.4144;
1389.6000;0.4648;-3.4119;
1389.9000;0.4672;-3.4044;
1390.2000;0.4681;-3.3994;
1390.5000;0.4648;-3.4019;
1390.8000;0.4697;-3.3945;
1391.1000;0.4664;-3.4094;
1391.4000;0.4656;-3.4144;
1391.7000;0.4705;-3.3970;
1392.0000;0.4664;-3.3945;
1392.3000;0.4672;-3.3920;
1392.6000;0.4648;-3.3895;
1392.9000;0.4713;-3.3746;
1393.2000;0.4664;-3.3845;
1393.5000;0.4681;-3.3895;
1393.8000;0.4664;-3.3845;
1394.1000;0.4664;-3.3870;
1394.4000;0.4664;-3.3920;
1394.7000;0.4672;-3.3994;
1395.0000;0.4664;-3.3920;
1395.3000;0.4689;-3.3870;
1395.6000;0.4672;-3.3895;
1395.9000;0.4664;-3.3845;
1396.2000;0.4672;-3.3845;
1396.5000;0.4689;-3.3870;
1396.8000;0.4672;-3.3895;
1397.1000;0.4672;-3.3945;
1397.4000;0.4689;-3.3895;
1397.7000;0.4681;-3.3970;
1398.0000;0.4681;-3.3970;
1398.3000;0.4664;-3.3945;
1398.6000;0.4672;-3.3970;
1398.9000;0.4656;-3.3970;
1399.2000;0.4664;-3.3994;
1399.5000;0.4664;-3.4069;
1399.8000;0.4632;-3.4144;
