time/ms;Fluo/V;P700 deltaI/I x10³;
-199.8000;0.6064;-3.3422;
-199.5000;0.6162;-3.3248;
-199.2000;0.6072;-3.3522;
-198.9000;0.6089;-3.3547;
-198.6000;0.6089;-3.3497;
-198.3000;0.6089;-3.3522;
-198.0000;0.6138;-3.3447;
-197.7000;0.6195;-3.3224;
-197.4000;0.6089;-3.3447;
-197.1000;0.6064;-3.3447;
-196.8000;0.6154;-3.3248;
-196.5000;0.6129;-3.3273;
-196.2000;0.6081;-3.3348;
-195.9000;0.6081;-3.3373;
-195.6000;0.6097;-3.3373;
-195.3000;0.6105;-3.3398;
-195.0000;0.6113;-3.3497;
-194.7000;0.6089;-3.3497;
-194.4000;0.6129;-3.3497;
-194.1000;0.6138;-3.3472;
-193.8000;0.6105;-3.3497;
-193.5000;0.6105;-3.3522;
-193.2000;0.6081;-3.3522;
-192.9000;0.6105;-3.3447;
-192.6000;0.6105;-3.3472;
-192.3000;0.6113;-3.3522;
-192.0000;0.6089;-3.3572;
-191.7000;0.6089;-3.3447;
-191.4000;0.6097;-3.3348;
-191.1000;0.6097;-3.3447;
-190.8000;0.6081;-3.3547;
-190.5000;0.6097;-3.3472;
-190.2000;0.6113;-3.3447;
-189.9000;0.6121;-3.3472;
-189.6000;0.6089;-3.3547;
-189.3000;0.6097;-3.3547;
-189.0000;0.6113;-3.3497;
-188.7000;0.6154;-3.3447;
-188.4000;0.6113;-3.3572;
-188.1000;0.6121;-3.3572;
-187.8000;0.6056;-3.3696;
-187.5000;0.6121;-3.3547;
-187.2000;0.6113;-3.3522;
-186.9000;0.6089;-3.3497;
-186.6000;0.6089;-3.3422;
-186.3000;0.6089;-3.3373;
-186.0000;0.6113;-3.3447;
-185.7000;0.6105;-3.3497;
-185.4000;0.6089;-3.3522;
-185.1000;0.6048;-3.3547;
-184.8000;0.6105;-3.3398;
-184.5000;0.6081;-3.3497;
-184.2000;0.6089;-3.3547;
-183.9000;0.6105;-3.3522;
-183.6000;0.6113;-3.3472;
-183.3000;0.6105;-3.3472;
-183.0000;0.6097;-3.3497;
-182.7000;0.6081;-3.3497;
-182.4000;0.6097;-3.3373;
-182.1000;0.6113;-3.3373;
-181.8000;0.6056;-3.3572;
-181.5000;0.6113;-3.3472;
-181.2000;0.6105;-3.3472;
-180.9000;0.6072;-3.3597;
-180.6000;0.6113;-3.3522;
-180.3000;0.6081;-3.3522;
-180.0000;0.6089;-3.3522;
-179.7000;0.6113;-3.3497;
-179.4000;0.6105;-3.3547;
-179.1000;0.6105;-3.3522;
-178.8000;0.6097;-3.3522;
-178.5000;0.6097;-3.3472;
-178.2000;0.6064;-3.3522;
-177.9000;0.6081;-3.3447;
-177.6000;0.6072;-3.3472;
-177.3000;0.6097;-3.3422;
-177.0000;0.6105;-3.3398;
-176.7000;0.6056;-3.3472;
-176.4000;0.6089;-3.3472;
-176.1000;0.6105;-3.3447;
-175.8000;0.6089;-3.3447;
-175.5000;0.6113;-3.3447;
-175.2000;0.6113;-3.3422;
-174.9000;0.6097;-3.3422;
-174.6000;0.6097;-3.3373;
-174.3000;0.6105;-3.3348;
-174.0000;0.6089;-3.3373;
-173.7000;0.6081;-3.3522;
-173.4000;0.6089;-3.3497;
-173.1000;0.6089;-3.3422;
-172.8000;0.6129;-3.3273;
-172.5000;0.6097;-3.3348;
-172.2000;0.6121;-3.3398;
-171.9000;0.6129;-3.3422;
-171.6000;0.6113;-3.3472;
-171.3000;0.6097;-3.3547;
-171.0000;0.6105;-3.3472;
-170.7000;0.6113;-3.3422;
-170.4000;0.6113;-3.3422;
-170.1000;0.6105;-3.3422;
-169.8000;0.6089;-3.3472;
-169.5000;0.6097;-3.3348;
-169.2000;0.6097;-3.3273;
-168.9000;0.6097;-3.3199;
-168.6000;0.6089;-3.3224;
-168.3000;0.6072;-3.3348;
-168.0000;0.6105;-3.3298;
-167.7000;0.6097;-3.3373;
-167.4000;0.6081;-3.3248;
-167.1000;0.6081;-3.3224;
-166.8000;0.6105;-3.3348;
-166.5000;0.6113;-3.3323;
-166.2000;0.6105;-3.3323;
-165.9000;0.6113;-3.3348;
-165.6000;0.6097;-3.3422;
-165.3000;0.6113;-3.3447;
-165.0000;0.6113;-3.3398;
-164.7000;0.6121;-3.3348;
-164.4000;0.6113;-3.3323;
-164.1000;0.6113;-3.3447;
-163.8000;0.6113;-3.3422;
-163.5000;0.6097;-3.3472;
-163.2000;0.6211;-3.3273;
-162.9000;0.6072;-3.3547;
-162.6000;0.6097;-3.3621;
-162.3000;0.6097;-3.3547;
-162.0000;0.6113;-3.3373;
-161.7000;0.6089;-3.3323;
-161.4000;0.6121;-3.3273;
-161.1000;0.6089;-3.3373;
-160.8000;0.6024;-3.3597;
-160.5000;0.6097;-3.3373;
-160.2000;0.6064;-3.3398;
-159.9000;0.6146;-3.3248;
-159.6000;0.6105;-3.3273;
-159.3000;0.6097;-3.3348;
-159.0000;0.6097;-3.3398;
-158.7000;0.6121;-3.3497;
-158.4000;0.6097;-3.3572;
-158.1000;0.6089;-3.3572;
-157.8000;0.6089;-3.3621;
-157.5000;0.6105;-3.3646;
-157.2000;0.6089;-3.3572;
-156.9000;0.6064;-3.3597;
-156.6000;0.6097;-3.3572;
-156.3000;0.6097;-3.3472;
-156.0000;0.6081;-3.3447;
-155.7000;0.6089;-3.3373;
-155.4000;0.6089;-3.3472;
-155.1000;0.6081;-3.3422;
-154.8000;0.6113;-3.3447;
-154.5000;0.6081;-3.3572;
-154.2000;0.6089;-3.3497;
-153.9000;0.6113;-3.3348;
-153.6000;0.6113;-3.3373;
-153.3000;0.6081;-3.3497;
-153.0000;0.6081;-3.3472;
-152.7000;0.6105;-3.3422;
-152.4000;0.6089;-3.3497;
-152.1000;0.6105;-3.3472;
-151.8000;0.6089;-3.3497;
-151.5000;0.6105;-3.3522;
-151.2000;0.6105;-3.3547;
-150.9000;0.6113;-3.3547;
-150.6000;0.6089;-3.3621;
-150.3000;0.6105;-3.3621;
-150.0000;0.6089;-3.3572;
-149.7000;0.6097;-3.3572;
-149.4000;0.6064;-3.3621;
-149.1000;0.6105;-3.3497;
-148.8000;0.6113;-3.3472;
-148.5000;0.6113;-3.3497;
-148.2000;0.6113;-3.3447;
-147.9000;0.6105;-3.3398;
-147.6000;0.6064;-3.3398;
-147.3000;0.6089;-3.3273;
-147.0000;0.6097;-3.3323;
-146.7000;0.6081;-3.3373;
-146.4000;0.6113;-3.3348;
-146.1000;0.6097;-3.3398;
-145.8000;0.6121;-3.3273;
-145.5000;0.6121;-3.3298;
-145.2000;0.6097;-3.3373;
-144.9000;0.6089;-3.3323;
-144.6000;0.6146;-3.3248;
-144.3000;0.6105;-3.3398;
-144.0000;0.6081;-3.3472;
-143.7000;0.6081;-3.3547;
-143.4000;0.6081;-3.3522;
-143.1000;0.6097;-3.3497;
-142.8000;0.6113;-3.3398;
-142.5000;0.6097;-3.3547;
-142.2000;0.6072;-3.3597;
-141.9000;0.6081;-3.3671;
-141.6000;0.6113;-3.3572;
-141.3000;0.6089;-3.3671;
-141.0000;0.6097;-3.3597;
-140.7000;0.6081;-3.3597;
-140.4000;0.6097;-3.3572;
-140.1000;0.6105;-3.3547;
-139.8000;0.6097;-3.3497;
-139.5000;0.6089;-3.3572;
-139.2000;0.6097;-3.3572;
-138.9000;0.6081;-3.3547;
-138.6000;0.6072;-3.3547;
-138.3000;0.6072;-3.3447;
-138.0000;0.6089;-3.3472;
-137.7000;0.6113;-3.3472;
-137.4000;0.6105;-3.3472;
-137.1000;0.6097;-3.3472;
-136.8000;0.6097;-3.3522;
-136.5000;0.6113;-3.3497;
-136.2000;0.6121;-3.3422;
-135.9000;0.6138;-3.3373;
-135.6000;0.6105;-3.3348;
-135.3000;0.6105;-3.3348;
-135.0000;0.6129;-3.3273;
-134.7000;0.6097;-3.3298;
-134.4000;0.6089;-3.3373;
-134.1000;0.6113;-3.3373;
-133.8000;0.6097;-3.3472;
-133.5000;0.6097;-3.3447;
-133.2000;0.6097;-3.3472;
-132.9000;0.6064;-3.3621;
-132.6000;0.6105;-3.3472;
-132.3000;0.6121;-3.3447;
-132.0000;0.6097;-3.3497;
-131.7000;0.6089;-3.3547;
-131.4000;0.6105;-3.3472;
-131.1000;0.6105;-3.3472;
-130.8000;0.6121;-3.3348;
-130.5000;0.6105;-3.3199;
-130.2000;0.6097;-3.3099;
-129.9000;0.6007;-3.3224;
-129.6000;0.6089;-3.2975;
-129.3000;0.6105;-3.3025;
-129.0000;0.6138;-3.3000;
-128.7000;0.6081;-3.3099;
-128.4000;0.6097;-3.3149;
-128.1000;0.6081;-3.3149;
-127.8000;0.6154;-3.3025;
-127.5000;0.6081;-3.3298;
-127.2000;0.6113;-3.3199;
-126.9000;0.6081;-3.3248;
-126.6000;0.6113;-3.3248;
-126.3000;0.6113;-3.3298;
-126.0000;0.6129;-3.3298;
-125.7000;0.6170;-3.3124;
-125.4000;0.6162;-3.3074;
-125.1000;0.6113;-3.3149;
-124.8000;0.6162;-3.3099;
-124.5000;0.6105;-3.3149;
-124.2000;0.6089;-3.3174;
-123.9000;0.6097;-3.3149;
-123.6000;0.6105;-3.3174;
-123.3000;0.6129;-3.3149;
-123.0000;0.6113;-3.3298;
-122.7000;0.6138;-3.3323;
-122.4000;0.6113;-3.3323;
-122.1000;0.6113;-3.3348;
-121.8000;0.6121;-3.3298;
-121.5000;0.6024;-3.3472;
-121.2000;0.6105;-3.3199;
-120.9000;0.6081;-3.3248;
-120.6000;0.6081;-3.3224;
-120.3000;0.6089;-3.3248;
-120.0000;0.6113;-3.3174;
-119.7000;0.6097;-3.3174;
-119.4000;0.6072;-3.3298;
-119.1000;0.6113;-3.3174;
-118.8000;0.6097;-3.3199;
-118.5000;0.6056;-3.3323;
-118.2000;0.6129;-3.3248;
-117.9000;0.6097;-3.3398;
-117.6000;0.6097;-3.3348;
-117.3000;0.6089;-3.3422;
-117.0000;0.6105;-3.3422;
-116.7000;0.6113;-3.3422;
-116.4000;0.6081;-3.3373;
-116.1000;0.6072;-3.3373;
-115.8000;0.6081;-3.3323;
-115.5000;0.6097;-3.3298;
-115.2000;0.6105;-3.3323;
-114.9000;0.6089;-3.3348;
-114.6000;0.6097;-3.3298;
-114.3000;0.6097;-3.3248;
-114.0000;0.6072;-3.3323;
-113.7000;0.6097;-3.3298;
-113.4000;0.6097;-3.3248;
-113.1000;0.6113;-3.3149;
-112.8000;0.6056;-3.3348;
-112.5000;0.6113;-3.3373;
-112.2000;0.6081;-3.3422;
-111.9000;0.6129;-3.3298;
-111.6000;0.6146;-3.3273;
-111.3000;0.6186;-3.3074;
-111.0000;0.6056;-3.3398;
-110.7000;0.6097;-3.3348;
-110.4000;0.6105;-3.3422;
-110.1000;0.6081;-3.3522;
-109.8000;0.6089;-3.3572;
-109.5000;0.6089;-3.3447;
-109.2000;0.6097;-3.3422;
-108.9000;0.6089;-3.3398;
-108.6000;0.6089;-3.3323;
-108.3000;0.6081;-3.3323;
-108.0000;0.6097;-3.3348;
-107.7000;0.6081;-3.3398;
-107.4000;0.6113;-3.3447;
-107.1000;0.6097;-3.3422;
-106.8000;0.6105;-3.3422;
-106.5000;0.6121;-3.3422;
-106.2000;0.6089;-3.3522;
-105.9000;0.6146;-3.3398;
-105.6000;0.6056;-3.3671;
-105.3000;0.6113;-3.3572;
-105.0000;0.6097;-3.3547;
-104.7000;0.6138;-3.3323;
-104.4000;0.6097;-3.3472;
-104.1000;0.6113;-3.3398;
-103.8000;0.6097;-3.3373;
-103.5000;0.6024;-3.3472;
-103.2000;0.6146;-3.3124;
-102.9000;0.6113;-3.3248;
-102.6000;0.6105;-3.3248;
-102.3000;0.6024;-3.3447;
-102.0000;0.6113;-3.3273;
-101.7000;0.6195;-3.3025;
-101.4000;0.6064;-3.3497;
-101.1000;0.6081;-3.3522;
-100.8000;0.6113;-3.3447;
-100.5000;0.6089;-3.3323;
-100.2000;0.6138;-3.3224;
-99.9000;0.6121;-3.3224;
-99.6000;0.6113;-3.3199;
-99.3000;0.6097;-3.3199;
-99.0000;0.6089;-3.3174;
-98.7000;0.6048;-3.3323;
-98.4000;0.6105;-3.3273;
-98.1000;0.6097;-3.3174;
-97.8000;0.6097;-3.3224;
-97.5000;0.6089;-3.3199;
-97.2000;0.6105;-3.3124;
-96.9000;0.6081;-3.3174;
-96.6000;0.6113;-3.3174;
-96.3000;0.6089;-3.3149;
-96.0000;0.6097;-3.3174;
-95.7000;0.6105;-3.3149;
-95.4000;0.6089;-3.3149;
-95.1000;0.6097;-3.3099;
-94.8000;0.6113;-3.3025;
-94.5000;0.6105;-3.3174;
-94.2000;0.6097;-3.3298;
-93.9000;0.6097;-3.3422;
-93.6000;0.6097;-3.3373;
-93.3000;0.6097;-3.3422;
-93.0000;0.6097;-3.3398;
-92.7000;0.6105;-3.3373;
-92.4000;0.6097;-3.3373;
-92.1000;0.6081;-3.3447;
-91.8000;0.6081;-3.3472;
-91.5000;0.6097;-3.3422;
-91.2000;0.6105;-3.3472;
-90.9000;0.6097;-3.3422;
-90.6000;0.6097;-3.3323;
-90.3000;0.6089;-3.3273;
-90.0000;0.6105;-3.3224;
-89.7000;0.6097;-3.3199;
-89.4000;0.6113;-3.3174;
-89.1000;0.6064;-3.3373;
-88.8000;0.6105;-3.3298;
-88.5000;0.6097;-3.3348;
-88.2000;0.6105;-3.3348;
-87.9000;0.6024;-3.3597;
-87.6000;0.6097;-3.3373;
-87.3000;0.6105;-3.3447;
-87.0000;0.6089;-3.3422;
-86.7000;0.6105;-3.3323;
-86.4000;0.6089;-3.3398;
-86.1000;0.6089;-3.3373;
-85.8000;0.6089;-3.3398;
-85.5000;0.6105;-3.3348;
-85.2000;0.6097;-3.3422;
-84.9000;0.6162;-3.3323;
-84.6000;0.6089;-3.3547;
-84.3000;0.6097;-3.3497;
-84.0000;0.6097;-3.3497;
-83.7000;0.6097;-3.3547;
-83.4000;0.6097;-3.3522;
-83.1000;0.6089;-3.3597;
-82.8000;0.6113;-3.3522;
-82.5000;0.6105;-3.3547;
-82.2000;0.6072;-3.3621;
-81.9000;0.6097;-3.3597;
-81.6000;0.6064;-3.3696;
-81.3000;0.6081;-3.3646;
-81.0000;0.6097;-3.3597;
-80.7000;0.6089;-3.3646;
-80.4000;0.6089;-3.3621;
-80.1000;0.6105;-3.3696;
-79.8000;0.6081;-3.3621;
-79.5000;0.6081;-3.3597;
-79.2000;0.6121;-3.3547;
-78.9000;0.6072;-3.3621;
-78.6000;0.6089;-3.3646;
-78.3000;0.6032;-3.3771;
-78.0000;0.6113;-3.3621;
-77.7000;0.6178;-3.3422;
-77.4000;0.6097;-3.3671;
-77.1000;0.6113;-3.3646;
-76.8000;0.6081;-3.3696;
-76.5000;0.6089;-3.3621;
-76.2000;0.6089;-3.3497;
-75.9000;0.6089;-3.3422;
-75.6000;0.6081;-3.3522;
-75.3000;0.6097;-3.3472;
-75.0000;0.6097;-3.3422;
-74.7000;0.6089;-3.3398;
-74.4000;0.6081;-3.3522;
-74.1000;0.6097;-3.3497;
-73.8000;0.6154;-3.3373;
-73.5000;0.6097;-3.3422;
-73.2000;0.6113;-3.3398;
-72.9000;0.6032;-3.3572;
-72.6000;0.6097;-3.3522;
-72.3000;0.6113;-3.3422;
-72.0000;0.6113;-3.3422;
-71.7000;0.6113;-3.3398;
-71.4000;0.6162;-3.3273;
-71.1000;0.6105;-3.3323;
-70.8000;0.6064;-3.3224;
-70.5000;0.6081;-3.3248;
-70.2000;0.6081;-3.3199;
-69.9000;0.6113;-3.3099;
-69.6000;0.6121;-3.3124;
-69.3000;0.6105;-3.3224;
-69.0000;0.6081;-3.3348;
-68.7000;0.6129;-3.3298;
-68.4000;0.6113;-3.3224;
-68.1000;0.6121;-3.3224;
-67.8000;0.6121;-3.3224;
-67.5000;0.6105;-3.3273;
-67.2000;0.6105;-3.3298;
-66.9000;0.6081;-3.3273;
-66.6000;0.6081;-3.3199;
-66.3000;0.6097;-3.3124;
-66.0000;0.6129;-3.2975;
-65.7000;0.6105;-3.3074;
-65.4000;0.6089;-3.3174;
-65.1000;0.6081;-3.3199;
-64.8000;0.6113;-3.3174;
-64.5000;0.6113;-3.3199;
-64.2000;0.6097;-3.3323;
-63.9000;0.6048;-3.3398;
-63.6000;0.6081;-3.3348;
-63.3000;0.6097;-3.3273;
-63.0000;0.6081;-3.3248;
-62.7000;0.6089;-3.3248;
-62.4000;0.6081;-3.3149;
-62.1000;0.6081;-3.3199;
-61.8000;0.6064;-3.3224;
-61.5000;0.6105;-3.3124;
-61.2000;0.6097;-3.3049;
-60.9000;0.6113;-3.3074;
-60.6000;0.6081;-3.3149;
-60.3000;0.6081;-3.3124;
-60.0000;0.6113;-3.3124;
-59.7000;0.6113;-3.3174;
-59.4000;0.6113;-3.3099;
-59.1000;0.6113;-3.3149;
-58.8000;0.6113;-3.3273;
-58.5000;0.6097;-3.3273;
-58.2000;0.6105;-3.3174;
-57.9000;0.6097;-3.3174;
-57.6000;0.6072;-3.3273;
-57.3000;0.6089;-3.3273;
-57.0000;0.6097;-3.3199;
-56.7000;0.6024;-3.3348;
-56.4000;0.6089;-3.3199;
-56.1000;0.6089;-3.3323;
-55.8000;0.6089;-3.3298;
-55.5000;0.6138;-3.3124;
-55.2000;0.6097;-3.3224;
-54.9000;0.6121;-3.3149;
-54.6000;0.6097;-3.3174;
-54.3000;0.6097;-3.3224;
-54.0000;0.6097;-3.3174;
-53.7000;0.6089;-3.3124;
-53.4000;0.6089;-3.3049;
-53.1000;0.6097;-3.3124;
-52.8000;0.6105;-3.3149;
-52.5000;0.6097;-3.3248;
-52.2000;0.6072;-3.3323;
-51.9000;0.6105;-3.3199;
-51.6000;0.6138;-3.3099;
-51.3000;0.6113;-3.3199;
-51.0000;0.6072;-3.3273;
-50.7000;0.6154;-3.3174;
-50.4000;0.6089;-3.3273;
-50.1000;0.6097;-3.3248;
-49.8000;0.6097;-3.3149;
-49.5000;0.6138;-3.3149;
-49.2000;0.6097;-3.3248;
-48.9000;0.6113;-3.3149;
-48.6000;0.6129;-3.3199;
-48.3000;0.6105;-3.3298;
-48.0000;0.6097;-3.3273;
-47.7000;0.6081;-3.3224;
-47.4000;0.6138;-3.3149;
-47.1000;0.6121;-3.3323;
-46.8000;0.6097;-3.3447;
-46.5000;0.6105;-3.3398;
-46.2000;0.6105;-3.3472;
-45.9000;0.6097;-3.3472;
-45.6000;0.6113;-3.3422;
-45.3000;0.6129;-3.3348;
-45.0000;0.6113;-3.3298;
-44.7000;0.6097;-3.3273;
-44.4000;0.6113;-3.3174;
-44.1000;0.6105;-3.3224;
-43.8000;0.6089;-3.3248;
-43.5000;0.6113;-3.3224;
-43.2000;0.6097;-3.3323;
-42.9000;0.6072;-3.3323;
-42.6000;0.6178;-3.3124;
-42.3000;0.6113;-3.3199;
-42.0000;0.6105;-3.3248;
-41.7000;0.6089;-3.3199;
-41.4000;0.6089;-3.3224;
-41.1000;0.6113;-3.3149;
-40.8000;0.6113;-3.3248;
-40.5000;0.6089;-3.3273;
-40.2000;0.6089;-3.3199;
-39.9000;0.6097;-3.3248;
-39.6000;0.6129;-3.3174;
-39.3000;0.6097;-3.3298;
-39.0000;0.6064;-3.3273;
-38.7000;0.6089;-3.3273;
-38.4000;0.6097;-3.3298;
-38.1000;0.6113;-3.3323;
-37.8000;0.6081;-3.3398;
-37.5000;0.6089;-3.3323;
-37.2000;0.6113;-3.3224;
-36.9000;0.6113;-3.3124;
-36.6000;0.6105;-3.3174;
-36.3000;0.6097;-3.3199;
-36.0000;0.6121;-3.3124;
-35.7000;0.6154;-3.3049;
-35.4000;0.6097;-3.3248;
-35.1000;0.6113;-3.3248;
-34.8000;0.6113;-3.3248;
-34.5000;0.6129;-3.3224;
-34.2000;0.6097;-3.3422;
-33.9000;0.6121;-3.3323;
-33.6000;0.6097;-3.3348;
-33.3000;0.6113;-3.3248;
-33.0000;0.6105;-3.3174;
-32.7000;0.6064;-3.3273;
-32.4000;0.6089;-3.3224;
-32.1000;0.6113;-3.3273;
-31.8000;0.6007;-3.3447;
-31.5000;0.6113;-3.3174;
-31.2000;0.6154;-3.3025;
-30.9000;0.6121;-3.3149;
-30.6000;0.6138;-3.3174;
-30.3000;0.6113;-3.3224;
-30.0000;0.6146;-3.3149;
-29.7000;0.6072;-3.3273;
-29.4000;0.6089;-3.3149;
-29.1000;0.6097;-3.3099;
-28.8000;0.6089;-3.3248;
-28.5000;0.6081;-3.3273;
-28.2000;0.6097;-3.3273;
-27.9000;0.6097;-3.3248;
-27.6000;0.6089;-3.3373;
-27.3000;0.6121;-3.3323;
-27.0000;0.6097;-3.3348;
-26.7000;0.6105;-3.3298;
-26.4000;0.6081;-3.3323;
-26.1000;0.6097;-3.3224;
-25.8000;0.6105;-3.3074;
-25.5000;0.6113;-3.3124;
-25.2000;0.6138;-3.2950;
-24.9000;0.6105;-3.3099;
-24.6000;0.6032;-3.3323;
-24.3000;0.6105;-3.3074;
-24.0000;0.6105;-3.3025;
-23.7000;0.6032;-3.3273;
-23.4000;0.6105;-3.3174;
-23.1000;0.6089;-3.3224;
-22.8000;0.6097;-3.3199;
-22.5000;0.6089;-3.3224;
-22.2000;0.6056;-3.3273;
-21.9000;0.6097;-3.3199;
-21.6000;0.6105;-3.3149;
-21.3000;0.6097;-3.3049;
-21.0000;0.6097;-3.3049;
-20.7000;0.6072;-3.3099;
-20.4000;0.6089;-3.3074;
-20.1000;0.6097;-3.3049;
-19.8000;0.6105;-3.3074;
-19.5000;0.6105;-3.3124;
-19.2000;0.6097;-3.3199;
-18.9000;0.6105;-3.3224;
-18.6000;0.6105;-3.3273;
-18.3000;0.6097;-3.3248;
-18.0000;0.6081;-3.3298;
-17.7000;0.6089;-3.3273;
-17.4000;0.6105;-3.3298;
-17.1000;0.6105;-3.3273;
-16.8000;0.6081;-3.3298;
-16.5000;0.6081;-3.3273;
-16.2000;0.6097;-3.3248;
-15.9000;0.6072;-3.3422;
-15.6000;0.6105;-3.3298;
-15.3000;0.6105;-3.3273;
-15.0000;0.6105;-3.3273;
-14.7000;0.6089;-3.3298;
-14.4000;0.6121;-3.3174;
-14.1000;0.6097;-3.3224;
-13.8000;0.6089;-3.3373;
-13.5000;0.6097;-3.3323;
-13.2000;0.6048;-3.3422;
-12.9000;0.6105;-3.3323;
-12.6000;0.6081;-3.3373;
-12.3000;0.6105;-3.3298;
-12.0000;0.6072;-3.3348;
-11.7000;0.6121;-3.3199;
-11.4000;0.6089;-3.3273;
-11.1000;0.6072;-3.3348;
-10.8000;0.6097;-3.3373;
-10.5000;0.6064;-3.3348;
-10.2000;0.6089;-3.3248;
-9.9000;0.6081;-3.3273;
-9.6000;0.6113;-3.3248;
-9.3000;0.6097;-3.3248;
-9.0000;0.6105;-3.3248;
-8.7000;0.6129;-3.3149;
-8.4000;0.6121;-3.3273;
-8.1000;0.6129;-3.3224;
-7.8000;0.6129;-3.3248;
-7.5000;0.6121;-3.3224;
-7.2000;0.6105;-3.3323;
-6.9000;0.6064;-3.3472;
-6.6000;0.6081;-3.3398;
-6.3000;0.6089;-3.3298;
-6.0000;0.6097;-3.3348;
-5.7000;0.6121;-3.3323;
-5.4000;0.6105;-3.3422;
-5.1000;0.6121;-3.3447;
-4.8000;0.6113;-3.3497;
-4.5000;0.6089;-3.3522;
-4.2000;0.6138;-3.3447;
-3.9000;0.6081;-3.3547;
-3.6000;0.6097;-3.3472;
-3.3000;0.6121;-3.3447;
-3.0000;0.6089;-3.3497;
-2.7000;0.6121;-3.3547;
-2.4000;0.6105;-3.3621;
-2.1000;0.6089;-3.3646;
-1.8000;0.6121;-3.3547;
-1.5000;0.6089;-3.3547;
-1.2000;0.6105;-3.3472;
-0.9000;0.6105;-3.3497;
-0.6000;0.6129;-3.3447;
-0.3000;0.6178;-3.3348;
0.0000;0.6178;-3.3348;
0.3000;0.6195;-3.3224;
0.6000;0.6292;-3.3149;
0.9000;0.6479;-3.2875;
1.2000;0.6593;-3.2726;
1.5000;0.6667;-3.2428;
1.8000;0.6732;-3.2129;
2.1000;0.6781;-3.1955;
2.4000;0.6829;-3.1831;
2.7000;0.6870;-3.1731;
3.0000;0.6911;-3.1632;
3.3000;0.6943;-3.1607;
3.6000;0.6960;-3.1582;
3.9000;0.6992;-3.1433;
4.2000;0.7009;-3.1309;
4.5000;0.7017;-3.1334;
4.8000;0.6984;-3.1383;
5.1000;0.7057;-3.1209;
5.4000;0.7066;-3.1209;
5.7000;0.7082;-3.1209;
6.0000;0.7106;-3.1085;
6.3000;0.7106;-3.1209;
6.6000;0.7090;-3.1284;
6.9000;0.7098;-3.1234;
7.2000;0.7123;-3.1110;
7.5000;0.7123;-3.1184;
7.8000;0.7131;-3.1184;
8.1000;0.7123;-3.1184;
8.4000;0.7155;-3.1160;
8.7000;0.7155;-3.1010;
9.0000;0.7106;-3.1110;
9.3000;0.7147;-3.1035;
9.6000;0.7188;-3.0911;
9.9000;0.7188;-3.0961;
10.2000;0.7179;-3.1085;
10.5000;0.7163;-3.1184;
10.8000;0.7163;-3.1085;
11.1000;0.7188;-3.1035;
11.4000;0.7212;-3.1035;
11.7000;0.7196;-3.1135;
12.0000;0.7171;-3.1234;
12.3000;0.7212;-3.1209;
12.6000;0.7212;-3.1184;
12.9000;0.7204;-3.1110;
13.2000;0.7196;-3.1060;
13.5000;0.7245;-3.0936;
13.8000;0.7228;-3.0985;
14.1000;0.7220;-3.0936;
14.4000;0.7212;-3.0961;
14.7000;0.7228;-3.0911;
15.0000;0.7245;-3.0861;
15.3000;0.7245;-3.0911;
15.6000;0.7342;-3.0737;
15.9000;0.7220;-3.1035;
16.2000;0.7228;-3.0985;
16.5000;0.7293;-3.0786;
16.8000;0.7245;-3.0936;
17.1000;0.7277;-3.0762;
17.4000;0.7212;-3.1010;
17.7000;0.7228;-3.1085;
18.0000;0.7245;-3.0985;
18.3000;0.7253;-3.0911;
18.6000;0.7220;-3.0961;
18.9000;0.7359;-3.0662;
19.2000;0.7269;-3.0861;
19.5000;0.7285;-3.0861;
19.8000;0.7269;-3.0836;
20.1000;0.7285;-3.0836;
20.4000;0.7245;-3.1085;
20.7000;0.7293;-3.1010;
21.0000;0.7277;-3.1010;
21.3000;0.7293;-3.0961;
21.6000;0.7285;-3.0911;
21.9000;0.7293;-3.0861;
22.2000;0.7285;-3.0911;
22.5000;0.7285;-3.0961;
22.8000;0.7261;-3.0985;
23.1000;0.7285;-3.0985;
23.4000;0.7293;-3.0985;
23.7000;0.7285;-3.1035;
24.0000;0.7302;-3.0985;
24.3000;0.7277;-3.1035;
24.6000;0.7277;-3.1010;
24.9000;0.7302;-3.0961;
25.2000;0.7277;-3.0985;
25.5000;0.7302;-3.0961;
25.8000;0.7293;-3.1010;
26.1000;0.7310;-3.1010;
26.4000;0.7285;-3.1010;
26.7000;0.7269;-3.1010;
27.0000;0.7285;-3.0936;
27.3000;0.7302;-3.0985;
27.6000;0.7302;-3.1060;
27.9000;0.7302;-3.1110;
28.2000;0.7318;-3.1110;
28.5000;0.7302;-3.1184;
28.8000;0.7310;-3.1234;
29.1000;0.7326;-3.1184;
29.4000;0.7310;-3.1160;
29.7000;0.7318;-3.1184;
30.0000;0.7245;-3.1284;
30.3000;0.7293;-3.1160;
30.6000;0.7302;-3.1085;
30.9000;0.7302;-3.1085;
31.2000;0.7293;-3.1110;
31.5000;0.7342;-3.1010;
31.8000;0.7318;-3.0961;
32.1000;0.7359;-3.0811;
32.4000;0.7318;-3.0936;
32.7000;0.7318;-3.0936;
33.0000;0.7326;-3.1010;
33.3000;0.7318;-3.0961;
33.6000;0.7342;-3.0786;
33.9000;0.7318;-3.0861;
34.2000;0.7310;-3.0762;
34.5000;0.7302;-3.0786;
34.8000;0.7334;-3.0886;
35.1000;0.7318;-3.0985;
35.4000;0.7310;-3.1060;
35.7000;0.7326;-3.1085;
36.0000;0.7318;-3.1184;
36.3000;0.7318;-3.1060;
36.6000;0.7302;-3.1085;
36.9000;0.7326;-3.0961;
37.2000;0.7334;-3.0961;
37.5000;0.7318;-3.1010;
37.8000;0.7326;-3.1060;
38.1000;0.7326;-3.1110;
38.4000;0.7326;-3.1110;
38.7000;0.7342;-3.1184;
39.0000;0.7326;-3.1284;
39.3000;0.7253;-3.1408;
39.6000;0.7310;-3.1234;
39.9000;0.7277;-3.1284;
40.2000;0.7310;-3.1135;
40.5000;0.7342;-3.1160;
40.8000;0.7318;-3.1035;
41.1000;0.7310;-3.1085;
41.4000;0.7367;-3.0886;
41.7000;0.7318;-3.1085;
42.0000;0.7220;-3.1383;
42.3000;0.7334;-3.1160;
42.6000;0.7277;-3.1135;
42.9000;0.7326;-3.0961;
43.2000;0.7334;-3.0961;
43.5000;0.7318;-3.0936;
43.8000;0.7326;-3.0961;
44.1000;0.7359;-3.0861;
44.4000;0.7399;-3.0712;
44.7000;0.7350;-3.0786;
45.0000;0.7334;-3.0886;
45.3000;0.7342;-3.0861;
45.6000;0.7342;-3.0836;
45.9000;0.7334;-3.0836;
46.2000;0.7326;-3.0861;
46.5000;0.7342;-3.0911;
46.8000;0.7334;-3.0886;
47.1000;0.7326;-3.0985;
47.4000;0.7302;-3.1110;
47.7000;0.7326;-3.1060;
48.0000;0.7342;-3.1035;
48.3000;0.7293;-3.1160;
48.6000;0.7310;-3.1110;
48.9000;0.7334;-3.1035;
49.2000;0.7383;-3.1010;
49.5000;0.7334;-3.1110;
49.8000;0.7277;-3.1234;
50.1000;0.7440;-3.0861;
50.4000;0.7350;-3.1234;
50.7000;0.7302;-3.1309;
51.0000;0.7326;-3.1209;
51.3000;0.7326;-3.1209;
51.6000;0.7334;-3.1259;
51.9000;0.7326;-3.1259;
52.2000;0.7334;-3.1259;
52.5000;0.7342;-3.1135;
52.8000;0.7334;-3.1209;
53.1000;0.7350;-3.1209;
53.4000;0.7326;-3.1234;
53.7000;0.7334;-3.1234;
54.0000;0.7310;-3.1358;
54.3000;0.7310;-3.1334;
54.6000;0.7326;-3.1284;
54.9000;0.7342;-3.1184;
55.2000;0.7334;-3.1160;
55.5000;0.7342;-3.1259;
55.8000;0.7342;-3.1160;
56.1000;0.7318;-3.1110;
56.4000;0.7334;-3.1060;
56.7000;0.7326;-3.1085;
57.0000;0.7342;-3.1110;
57.3000;0.7326;-3.1184;
57.6000;0.7326;-3.1160;
57.9000;0.7334;-3.1160;
58.2000;0.7334;-3.1135;
58.5000;0.7342;-3.1085;
58.8000;0.7342;-3.1135;
59.1000;0.7326;-3.1209;
59.4000;0.7342;-3.1160;
59.7000;0.7342;-3.1035;
60.0000;0.7277;-3.1334;
60.3000;0.7391;-3.1035;
60.6000;0.7326;-3.1309;
60.9000;0.7334;-3.1334;
61.2000;0.7326;-3.1408;
61.5000;0.7318;-3.1433;
61.8000;0.7334;-3.1358;
62.1000;0.7326;-3.1309;
62.4000;0.7302;-3.1383;
62.7000;0.7342;-3.1334;
63.0000;0.7326;-3.1259;
63.3000;0.7399;-3.1035;
63.6000;0.7399;-3.0985;
63.9000;0.7318;-3.1234;
64.2000;0.7326;-3.1234;
64.5000;0.7318;-3.1334;
64.8000;0.7383;-3.1259;
65.1000;0.7326;-3.1433;
65.4000;0.7326;-3.1309;
65.7000;0.7318;-3.1309;
66.0000;0.7342;-3.1209;
66.3000;0.7359;-3.1110;
66.6000;0.7310;-3.1309;
66.9000;0.7342;-3.1284;
67.2000;0.7334;-3.1309;
67.5000;0.7342;-3.1284;
67.8000;0.7326;-3.1259;
68.1000;0.7350;-3.1135;
68.4000;0.7350;-3.1234;
68.7000;0.7342;-3.1209;
69.0000;0.7342;-3.1234;
69.3000;0.7342;-3.1160;
69.6000;0.7334;-3.1184;
69.9000;0.7334;-3.1259;
70.2000;0.7310;-3.1259;
70.5000;0.7350;-3.1060;
70.8000;0.7342;-3.1010;
71.1000;0.7334;-3.1035;
71.4000;0.7326;-3.1160;
71.7000;0.7334;-3.0961;
72.0000;0.7334;-3.0936;
72.3000;0.7391;-3.0762;
72.6000;0.7334;-3.0861;
72.9000;0.7318;-3.0911;
73.2000;0.7342;-3.0911;
73.5000;0.7334;-3.0911;
73.8000;0.7334;-3.0861;
74.1000;0.7359;-3.0936;
74.4000;0.7342;-3.1060;
74.7000;0.7342;-3.1110;
75.0000;0.7350;-3.1085;
75.3000;0.7350;-3.1135;
75.6000;0.7350;-3.1035;
75.9000;0.7342;-3.1010;
76.2000;0.7326;-3.1085;
76.5000;0.7367;-3.1035;
76.8000;0.7334;-3.1160;
77.1000;0.7326;-3.1209;
77.4000;0.7326;-3.1135;
77.7000;0.7342;-3.1160;
78.0000;0.7269;-3.1358;
78.3000;0.7334;-3.1284;
78.6000;0.7318;-3.1309;
78.9000;0.7334;-3.1284;
79.2000;0.7367;-3.1160;
79.5000;0.7334;-3.1284;
79.8000;0.7342;-3.1259;
80.1000;0.7342;-3.1259;
80.4000;0.7359;-3.1184;
80.7000;0.7350;-3.1135;
81.0000;0.7302;-3.1259;
81.3000;0.7350;-3.1234;
81.6000;0.7302;-3.1358;
81.9000;0.7367;-3.1284;
82.2000;0.7326;-3.1334;
82.5000;0.7334;-3.1309;
82.8000;0.7326;-3.1284;
83.1000;0.7391;-3.1085;
83.4000;0.7326;-3.1209;
83.7000;0.7334;-3.1234;
84.0000;0.7342;-3.1259;
84.3000;0.7285;-3.1383;
84.6000;0.7367;-3.1234;
84.9000;0.7350;-3.1234;
85.2000;0.7342;-3.1184;
85.5000;0.7334;-3.1184;
85.8000;0.7350;-3.1010;
86.1000;0.7277;-3.1234;
86.4000;0.7334;-3.1135;
86.7000;0.7326;-3.1184;
87.0000;0.7342;-3.1184;
87.3000;0.7456;-3.0861;
87.6000;0.7399;-3.0936;
87.9000;0.7326;-3.1184;
88.2000;0.7334;-3.1135;
88.5000;0.7302;-3.1184;
88.8000;0.7326;-3.1184;
89.1000;0.7318;-3.1259;
89.4000;0.7285;-3.1284;
89.7000;0.7342;-3.1160;
90.0000;0.7342;-3.1135;
90.3000;0.7334;-3.1160;
90.6000;0.7302;-3.1309;
90.9000;0.7359;-3.1085;
91.2000;0.7342;-3.1160;
91.5000;0.7342;-3.1110;
91.8000;0.7318;-3.1110;
92.1000;0.7342;-3.1035;
92.4000;0.7326;-3.1160;
92.7000;0.7334;-3.1135;
93.0000;0.7350;-3.1135;
93.3000;0.7334;-3.1209;
93.6000;0.7367;-3.1160;
93.9000;0.7350;-3.1209;
94.2000;0.7334;-3.1309;
94.5000;0.7334;-3.1259;
94.8000;0.7350;-3.1060;
95.1000;0.7350;-3.1035;
95.4000;0.7310;-3.1110;
95.7000;0.7326;-3.1060;
96.0000;0.7342;-3.0985;
96.3000;0.7350;-3.0936;
96.6000;0.7350;-3.0886;
96.9000;0.7350;-3.0936;
97.2000;0.7326;-3.1060;
97.5000;0.7342;-3.1060;
97.8000;0.7334;-3.1060;
98.1000;0.7342;-3.1085;
98.4000;0.7326;-3.1060;
98.7000;0.7318;-3.1085;
99.0000;0.7318;-3.1110;
99.3000;0.7326;-3.1160;
99.6000;0.7318;-3.1209;
99.9000;0.7326;-3.1184;
100.2000;0.7285;-3.1259;
100.5000;0.7318;-3.1234;
100.8000;0.7310;-3.1259;
101.1000;0.7277;-3.1358;
101.4000;0.7326;-3.1259;
101.7000;0.7350;-3.1110;
102.0000;0.7302;-3.1160;
102.3000;0.7318;-3.1085;
102.6000;0.7350;-3.1035;
102.9000;0.7350;-3.1184;
103.2000;0.7407;-3.1060;
103.5000;0.7334;-3.1135;
103.8000;0.7334;-3.1184;
104.1000;0.7342;-3.1209;
104.4000;0.7326;-3.1309;
104.7000;0.7334;-3.1259;
105.0000;0.7342;-3.1209;
105.3000;0.7342;-3.1085;
105.6000;0.7318;-3.1135;
105.9000;0.7310;-3.1184;
106.2000;0.7318;-3.1110;
106.5000;0.7359;-3.1060;
106.8000;0.7302;-3.1234;
107.1000;0.7326;-3.1160;
107.4000;0.7293;-3.1259;
107.7000;0.7359;-3.1160;
108.0000;0.7334;-3.1309;
108.3000;0.7326;-3.1234;
108.6000;0.7326;-3.1135;
108.9000;0.7326;-3.1110;
109.2000;0.7350;-3.1060;
109.5000;0.7391;-3.0985;
109.8000;0.7350;-3.0961;
110.1000;0.7350;-3.0961;
110.4000;0.7334;-3.1010;
110.7000;0.7318;-3.1010;
111.0000;0.7310;-3.1060;
111.3000;0.7318;-3.1135;
111.6000;0.7383;-3.1010;
111.9000;0.7342;-3.1060;
112.2000;0.7318;-3.1010;
112.5000;0.7293;-3.1085;
112.8000;0.7326;-3.0886;
113.1000;0.7293;-3.0961;
113.4000;0.7334;-3.0961;
113.7000;0.7302;-3.0936;
114.0000;0.7310;-3.0961;
114.3000;0.7342;-3.0886;
114.6000;0.7350;-3.0911;
114.9000;0.7359;-3.0961;
115.2000;0.7342;-3.0936;
115.5000;0.7342;-3.1035;
115.8000;0.7334;-3.1035;
116.1000;0.7326;-3.1010;
116.4000;0.7326;-3.1010;
116.7000;0.7310;-3.0985;
117.0000;0.7310;-3.1035;
117.3000;0.7334;-3.1110;
117.6000;0.7277;-3.1284;
117.9000;0.7359;-3.1060;
118.2000;0.7310;-3.1110;
118.5000;0.7326;-3.1060;
118.8000;0.7326;-3.1010;
119.1000;0.7334;-3.0911;
119.4000;0.7334;-3.0985;
119.7000;0.7334;-3.0985;
120.0000;0.7334;-3.0985;
120.3000;0.7350;-3.0886;
120.6000;0.7350;-3.0961;
120.9000;0.7342;-3.1010;
121.2000;0.7350;-3.0985;
121.5000;0.7342;-3.0911;
121.8000;0.7334;-3.0836;
122.1000;0.7326;-3.0936;
122.4000;0.7326;-3.0985;
122.7000;0.7310;-3.1010;
123.0000;0.7326;-3.0936;
123.3000;0.7326;-3.0985;
123.6000;0.7342;-3.0886;
123.9000;0.7326;-3.0886;
124.2000;0.7334;-3.0911;
124.5000;0.7342;-3.0985;
124.8000;0.7342;-3.1110;
125.1000;0.7359;-3.1184;
125.4000;0.7334;-3.1209;
125.7000;0.7326;-3.1259;
126.0000;0.7326;-3.1284;
126.3000;0.7350;-3.1234;
126.6000;0.7334;-3.1284;
126.9000;0.7269;-3.1508;
127.2000;0.7350;-3.1284;
127.5000;0.7334;-3.1284;
127.8000;0.7334;-3.1309;
128.1000;0.7334;-3.1334;
128.4000;0.7310;-3.1433;
128.7000;0.7334;-3.1334;
129.0000;0.7310;-3.1483;
129.3000;0.7326;-3.1458;
129.6000;0.7334;-3.1433;
129.9000;0.7342;-3.1358;
130.2000;0.7342;-3.1309;
130.5000;0.7342;-3.1184;
130.8000;0.7375;-3.1110;
131.1000;0.7367;-3.1135;
131.4000;0.7375;-3.1135;
131.7000;0.7342;-3.1234;
132.0000;0.7350;-3.1259;
132.3000;0.7342;-3.1135;
132.6000;0.7334;-3.1160;
132.9000;0.7342;-3.1110;
133.2000;0.7334;-3.1160;
133.5000;0.7269;-3.1334;
133.8000;0.7334;-3.1284;
134.1000;0.7350;-3.1209;
134.4000;0.7342;-3.1184;
134.7000;0.7318;-3.1160;
135.0000;0.7326;-3.1160;
135.3000;0.7342;-3.1060;
135.6000;0.7334;-3.0985;
135.9000;0.7350;-3.1010;
136.2000;0.7334;-3.1060;
136.5000;0.7310;-3.1234;
136.8000;0.7334;-3.1259;
137.1000;0.7342;-3.1184;
137.4000;0.7326;-3.1060;
137.7000;0.7326;-3.0985;
138.0000;0.7318;-3.0911;
138.3000;0.7318;-3.0911;
138.6000;0.7318;-3.0886;
138.9000;0.7310;-3.0936;
139.2000;0.7350;-3.0886;
139.5000;0.7350;-3.0936;
139.8000;0.7326;-3.0936;
140.1000;0.7334;-3.0961;
140.4000;0.7310;-3.1060;
140.7000;0.7342;-3.0936;
141.0000;0.7350;-3.1010;
141.3000;0.7334;-3.0961;
141.6000;0.7375;-3.0836;
141.9000;0.7318;-3.0836;
142.2000;0.7342;-3.0861;
142.5000;0.7334;-3.0861;
142.8000;0.7310;-3.0911;
143.1000;0.7334;-3.0911;
143.4000;0.7326;-3.0836;
143.7000;0.7342;-3.0762;
144.0000;0.7359;-3.0786;
144.3000;0.7326;-3.0936;
144.6000;0.7367;-3.0861;
144.9000;0.7318;-3.0911;
145.2000;0.7326;-3.0961;
145.5000;0.7334;-3.0961;
145.8000;0.7375;-3.0811;
146.1000;0.7326;-3.0911;
146.4000;0.7424;-3.0712;
146.7000;0.7326;-3.0911;
147.0000;0.7293;-3.0985;
147.3000;0.7342;-3.0961;
147.6000;0.7326;-3.0911;
147.9000;0.7318;-3.0886;
148.2000;0.7342;-3.0786;
148.5000;0.7359;-3.0786;
148.8000;0.7350;-3.0836;
149.1000;0.7342;-3.0886;
149.4000;0.7350;-3.0911;
149.7000;0.7220;-3.1160;
150.0000;0.7310;-3.0886;
150.3000;0.7326;-3.0762;
150.6000;0.7318;-3.0786;
150.9000;0.7318;-3.0786;
151.2000;0.7416;-3.0488;
151.5000;0.7334;-3.0637;
151.8000;0.7342;-3.0712;
152.1000;0.7391;-3.0612;
152.4000;0.7342;-3.0737;
152.7000;0.7359;-3.0637;
153.0000;0.7326;-3.0786;
153.3000;0.7359;-3.0786;
153.6000;0.7334;-3.0861;
153.9000;0.7407;-3.0687;
154.2000;0.7310;-3.0936;
154.5000;0.7367;-3.0911;
154.8000;0.7350;-3.0936;
155.1000;0.7342;-3.0936;
155.4000;0.7342;-3.0936;
155.7000;0.7302;-3.1010;
156.0000;0.7318;-3.0936;
156.3000;0.7375;-3.0786;
156.6000;0.7334;-3.0886;
156.9000;0.7326;-3.0936;
157.2000;0.7334;-3.0985;
157.5000;0.7326;-3.0961;
157.8000;0.7367;-3.0811;
158.1000;0.7326;-3.0911;
158.4000;0.7326;-3.0936;
158.7000;0.7334;-3.0911;
159.0000;0.7350;-3.0911;
159.3000;0.7342;-3.0985;
159.6000;0.7342;-3.0961;
159.9000;0.7334;-3.0985;
160.2000;0.7342;-3.1085;
160.5000;0.7318;-3.1135;
160.8000;0.7342;-3.0985;
161.1000;0.7342;-3.1035;
161.4000;0.7326;-3.0985;
161.7000;0.7334;-3.0936;
162.0000;0.7318;-3.0911;
162.3000;0.7326;-3.0936;
162.6000;0.7326;-3.0985;
162.9000;0.7350;-3.1060;
163.2000;0.7359;-3.1010;
163.5000;0.7342;-3.1010;
163.8000;0.7334;-3.0985;
164.1000;0.7334;-3.0936;
164.4000;0.7334;-3.0936;
164.7000;0.7359;-3.0861;
165.0000;0.7310;-3.0961;
165.3000;0.7350;-3.0886;
165.6000;0.7293;-3.0936;
165.9000;0.7334;-3.0886;
166.2000;0.7334;-3.0886;
166.5000;0.7318;-3.0936;
166.8000;0.7326;-3.0936;
167.1000;0.7334;-3.0861;
167.4000;0.7342;-3.0836;
167.7000;0.7318;-3.0886;
168.0000;0.7334;-3.0861;
168.3000;0.7342;-3.0811;
168.6000;0.7326;-3.0836;
168.9000;0.7269;-3.1085;
169.2000;0.7318;-3.0961;
169.5000;0.7342;-3.0961;
169.8000;0.7318;-3.1010;
170.1000;0.7334;-3.1035;
170.4000;0.7318;-3.1135;
170.7000;0.7342;-3.1010;
171.0000;0.7334;-3.1010;
171.3000;0.7326;-3.1035;
171.6000;0.7326;-3.1035;
171.9000;0.7342;-3.1060;
172.2000;0.7334;-3.1085;
172.5000;0.7342;-3.0985;
172.8000;0.7326;-3.0985;
173.1000;0.7342;-3.0961;
173.4000;0.7318;-3.1010;
173.7000;0.7326;-3.0985;
174.0000;0.7342;-3.1035;
174.3000;0.7302;-3.1135;
174.6000;0.7334;-3.1135;
174.9000;0.7326;-3.1160;
175.2000;0.7318;-3.1184;
175.5000;0.7326;-3.1135;
175.8000;0.7318;-3.1135;
176.1000;0.7383;-3.1010;
176.4000;0.7318;-3.1085;
176.7000;0.7326;-3.1184;
177.0000;0.7318;-3.1209;
177.3000;0.7334;-3.1184;
177.6000;0.7326;-3.1184;
177.9000;0.7318;-3.1060;
178.2000;0.7334;-3.1010;
178.5000;0.7285;-3.1110;
178.8000;0.7334;-3.0985;
179.1000;0.7236;-3.1284;
179.4000;0.7318;-3.1110;
179.7000;0.7334;-3.1160;
180.0000;0.7310;-3.1060;
180.3000;0.7318;-3.1035;
180.6000;0.7310;-3.1060;
180.9000;0.7350;-3.0961;
181.2000;0.7334;-3.0936;
181.5000;0.7261;-3.1160;
181.8000;0.7310;-3.1060;
182.1000;0.7318;-3.0985;
182.4000;0.7334;-3.1010;
182.7000;0.7253;-3.1209;
183.0000;0.7326;-3.1035;
183.3000;0.7318;-3.1060;
183.6000;0.7228;-3.1334;
183.9000;0.7334;-3.1110;
184.2000;0.7326;-3.1184;
184.5000;0.7342;-3.1160;
184.8000;0.7342;-3.1184;
185.1000;0.7326;-3.1160;
185.4000;0.7334;-3.1184;
185.7000;0.7334;-3.1184;
186.0000;0.7359;-3.0985;
186.3000;0.7318;-3.1085;
186.6000;0.7318;-3.1110;
186.9000;0.7310;-3.1035;
187.2000;0.7318;-3.1060;
187.5000;0.7236;-3.1234;
187.8000;0.7326;-3.1010;
188.1000;0.7326;-3.0961;
188.4000;0.7334;-3.1010;
188.7000;0.7399;-3.0836;
189.0000;0.7310;-3.0961;
189.3000;0.7342;-3.0985;
189.6000;0.7318;-3.1035;
189.9000;0.7318;-3.1010;
190.2000;0.7334;-3.1209;
190.5000;0.7334;-3.1259;
190.8000;0.7318;-3.1284;
191.1000;0.7310;-3.1209;
191.4000;0.7318;-3.1135;
191.7000;0.7293;-3.1085;
192.0000;0.7310;-3.1060;
192.3000;0.7318;-3.1110;
192.6000;0.7302;-3.1184;
192.9000;0.7318;-3.1234;
193.2000;0.7342;-3.1160;
193.5000;0.7326;-3.1085;
193.8000;0.7334;-3.1160;
194.1000;0.7310;-3.1234;
194.4000;0.7359;-3.1184;
194.7000;0.7293;-3.1309;
195.0000;0.7326;-3.1284;
195.3000;0.7318;-3.1234;
195.6000;0.7326;-3.1209;
195.9000;0.7310;-3.1234;
196.2000;0.7334;-3.1234;
196.5000;0.7310;-3.1234;
196.8000;0.7318;-3.1259;
197.1000;0.7318;-3.1209;
197.4000;0.7310;-3.1284;
197.7000;0.7342;-3.1234;
198.0000;0.7342;-3.1160;
198.3000;0.7342;-3.1234;
198.6000;0.7342;-3.1284;
198.9000;0.7342;-3.1259;
199.2000;0.7350;-3.1234;
199.5000;0.7318;-3.1358;
199.8000;0.7399;-3.1184;
200.1000;0.7326;-3.1358;
200.4000;0.7293;-3.1334;
200.7000;0.7326;-3.1259;
201.0000;0.7342;-3.1284;
201.3000;0.7302;-3.1334;
201.6000;0.7326;-3.1309;
201.9000;0.7318;-3.1309;
202.2000;0.7310;-3.1284;
202.5000;0.7367;-3.1085;
202.8000;0.7326;-3.1110;
203.1000;0.7359;-3.1035;
203.4000;0.7253;-3.1209;
203.7000;0.7293;-3.1035;
204.0000;0.7318;-3.0985;
204.3000;0.7236;-3.1259;
204.6000;0.7342;-3.1060;
204.9000;0.7391;-3.0886;
205.2000;0.7310;-3.0936;
205.5000;0.7318;-3.1060;
205.8000;0.7383;-3.0961;
206.1000;0.7342;-3.0936;
206.4000;0.7334;-3.0961;
206.7000;0.7375;-3.0836;
207.0000;0.7326;-3.0985;
207.3000;0.7334;-3.0961;
207.6000;0.7326;-3.1010;
207.9000;0.7253;-3.1184;
208.2000;0.7310;-3.1110;
208.5000;0.7334;-3.1060;
208.8000;0.7334;-3.1085;
209.1000;0.7318;-3.1184;
209.4000;0.7310;-3.1184;
209.7000;0.7310;-3.1135;
210.0000;0.7318;-3.0985;
210.3000;0.7318;-3.0985;
210.6000;0.7326;-3.1010;
210.9000;0.7318;-3.1060;
211.2000;0.7326;-3.1035;
211.5000;0.7334;-3.1010;
211.8000;0.7318;-3.1135;
212.1000;0.7342;-3.1060;
212.4000;0.7285;-3.1209;
212.7000;0.7342;-3.1209;
213.0000;0.7318;-3.1259;
213.3000;0.7318;-3.1160;
213.6000;0.7342;-3.1035;
213.9000;0.7285;-3.1085;
214.2000;0.7318;-3.0936;
214.5000;0.7318;-3.1010;
214.8000;0.7318;-3.1035;
215.1000;0.7326;-3.1010;
215.4000;0.7269;-3.1110;
215.7000;0.7293;-3.1010;
216.0000;0.7302;-3.1035;
216.3000;0.7318;-3.0936;
216.6000;0.7318;-3.0961;
216.9000;0.7293;-3.0985;
217.2000;0.7310;-3.1085;
217.5000;0.7302;-3.1160;
217.8000;0.7318;-3.1085;
218.1000;0.7261;-3.1284;
218.4000;0.7342;-3.1160;
218.7000;0.7310;-3.1160;
219.0000;0.7318;-3.1160;
219.3000;0.7399;-3.1085;
219.6000;0.7310;-3.1284;
219.9000;0.7318;-3.1259;
220.2000;0.7245;-3.1483;
220.5000;0.7318;-3.1259;
220.8000;0.7310;-3.1259;
221.1000;0.7285;-3.1334;
221.4000;0.7318;-3.1184;
221.7000;0.7326;-3.1234;
222.0000;0.7310;-3.1284;
222.3000;0.7334;-3.1259;
222.6000;0.7310;-3.1309;
222.9000;0.7318;-3.1309;
223.2000;0.7334;-3.1309;
223.5000;0.7302;-3.1334;
223.8000;0.7326;-3.1234;
224.1000;0.7326;-3.1160;
224.4000;0.7293;-3.1334;
224.7000;0.7342;-3.1284;
225.0000;0.7334;-3.1284;
225.3000;0.7342;-3.1284;
225.6000;0.7359;-3.1209;
225.9000;0.7334;-3.1358;
226.2000;0.7310;-3.1383;
226.5000;0.7318;-3.1284;
226.8000;0.7302;-3.1234;
227.1000;0.7310;-3.1259;
227.4000;0.7293;-3.1234;
227.7000;0.7367;-3.1085;
228.0000;0.7326;-3.1085;
228.3000;0.7302;-3.1184;
228.6000;0.7302;-3.1209;
228.9000;0.7318;-3.1085;
229.2000;0.7326;-3.1060;
229.5000;0.7293;-3.1135;
229.8000;0.7367;-3.0936;
230.1000;0.7310;-3.1035;
230.4000;0.7318;-3.1010;
230.7000;0.7285;-3.1010;
231.0000;0.7293;-3.0961;
231.3000;0.7334;-3.0961;
231.6000;0.7342;-3.0985;
231.9000;0.7359;-3.0886;
232.2000;0.7326;-3.0911;
232.5000;0.7277;-3.0961;
232.8000;0.7342;-3.0786;
233.1000;0.7326;-3.0886;
233.4000;0.7350;-3.0836;
233.7000;0.7318;-3.0961;
234.0000;0.7342;-3.0985;
234.3000;0.7318;-3.1110;
234.6000;0.7318;-3.1135;
234.9000;0.7318;-3.1085;
235.2000;0.7318;-3.1110;
235.5000;0.7334;-3.1035;
235.8000;0.7326;-3.1035;
236.1000;0.7432;-3.0737;
236.4000;0.7220;-3.1259;
236.7000;0.7310;-3.1010;
237.0000;0.7334;-3.0961;
237.3000;0.7293;-3.1010;
237.6000;0.7310;-3.1010;
237.9000;0.7310;-3.1035;
238.2000;0.7302;-3.1184;
238.5000;0.7310;-3.1110;
238.8000;0.7334;-3.1085;
239.1000;0.7326;-3.1160;
239.4000;0.7334;-3.1135;
239.7000;0.7302;-3.1209;
240.0000;0.7318;-3.1160;
240.3000;0.7310;-3.1160;
240.6000;0.7302;-3.1160;
240.9000;0.7302;-3.1209;
241.2000;0.7310;-3.1234;
241.5000;0.7334;-3.1309;
241.8000;0.7302;-3.1358;
242.1000;0.7350;-3.1284;
242.4000;0.7310;-3.1309;
242.7000;0.7310;-3.1408;
243.0000;0.7334;-3.1334;
243.3000;0.7326;-3.1209;
243.6000;0.7326;-3.1160;
243.9000;0.7334;-3.1010;
244.2000;0.7285;-3.1035;
244.5000;0.7302;-3.1010;
244.8000;0.7302;-3.1110;
245.1000;0.7326;-3.1060;
245.4000;0.7293;-3.1060;
245.7000;0.7310;-3.1060;
246.0000;0.7310;-3.1135;
246.3000;0.7318;-3.1110;
246.6000;0.7334;-3.1060;
246.9000;0.7302;-3.1135;
247.2000;0.7318;-3.1085;
247.5000;0.7302;-3.1035;
247.8000;0.7334;-3.0936;
248.1000;0.7310;-3.0886;
248.4000;0.7310;-3.0936;
248.7000;0.7310;-3.0911;
249.0000;0.7302;-3.0961;
249.3000;0.7359;-3.0836;
249.6000;0.7310;-3.0936;
249.9000;0.7310;-3.0985;
250.2000;0.7334;-3.1035;
250.5000;0.7318;-3.1110;
250.8000;0.7399;-3.0985;
251.1000;0.7334;-3.1184;
251.4000;0.7326;-3.1184;
251.7000;0.7318;-3.1184;
252.0000;0.7326;-3.1110;
252.3000;0.7310;-3.1160;
252.6000;0.7293;-3.1209;
252.9000;0.7318;-3.1110;
253.2000;0.7318;-3.1234;
253.5000;0.7334;-3.1184;
253.8000;0.7212;-3.1508;
254.1000;0.7326;-3.1209;
254.4000;0.7334;-3.1234;
254.7000;0.7326;-3.1234;
255.0000;0.7326;-3.1259;
255.3000;0.7310;-3.1259;
255.6000;0.7310;-3.1209;
255.9000;0.7236;-3.1408;
256.2000;0.7293;-3.1184;
256.5000;0.7310;-3.1035;
256.8000;0.7326;-3.1184;
257.1000;0.7318;-3.1110;
257.4000;0.7302;-3.1160;
257.7000;0.7318;-3.1035;
258.0000;0.7261;-3.1160;
258.3000;0.7310;-3.1035;
258.6000;0.7407;-3.0861;
258.9000;0.7326;-3.1010;
259.2000;0.7342;-3.0985;
259.5000;0.7326;-3.1035;
259.8000;0.7334;-3.0985;
260.1000;0.7391;-3.0861;
260.4000;0.7383;-3.0836;
260.7000;0.7375;-3.0936;
261.0000;0.7310;-3.1085;
261.3000;0.7302;-3.1110;
261.6000;0.7326;-3.1085;
261.9000;0.7318;-3.1160;
262.2000;0.7285;-3.1334;
262.5000;0.7318;-3.1284;
262.8000;0.7302;-3.1259;
263.1000;0.7302;-3.1309;
263.4000;0.7334;-3.1358;
263.7000;0.7342;-3.1284;
264.0000;0.7310;-3.1408;
264.3000;0.7302;-3.1408;
264.6000;0.7310;-3.1284;
264.9000;0.7302;-3.1284;
265.2000;0.7318;-3.1259;
265.5000;0.7318;-3.1309;
265.8000;0.7342;-3.1284;
266.1000;0.7318;-3.1284;
266.4000;0.7302;-3.1334;
266.7000;0.7285;-3.1408;
267.0000;0.7277;-3.1334;
267.3000;0.7302;-3.1234;
267.6000;0.7302;-3.1284;
267.9000;0.7302;-3.1284;
268.2000;0.7318;-3.1234;
268.5000;0.7326;-3.1309;
268.8000;0.7326;-3.1284;
269.1000;0.7334;-3.1259;
269.4000;0.7310;-3.1383;
269.7000;0.7285;-3.1458;
270.0000;0.7302;-3.1483;
270.3000;0.7310;-3.1483;
270.6000;0.7326;-3.1383;
270.9000;0.7318;-3.1309;
271.2000;0.7318;-3.1334;
271.5000;0.7318;-3.1259;
271.8000;0.7310;-3.1259;
272.1000;0.7302;-3.1234;
272.4000;0.7293;-3.1259;
272.7000;0.7326;-3.1309;
273.0000;0.7318;-3.1234;
273.3000;0.7318;-3.1284;
273.6000;0.7334;-3.1184;
273.9000;0.7318;-3.1160;
274.2000;0.7253;-3.1383;
274.5000;0.7285;-3.1234;
274.8000;0.7310;-3.1184;
275.1000;0.7228;-3.1533;
275.4000;0.7302;-3.1334;
275.7000;0.7310;-3.1309;
276.0000;0.7383;-3.1110;
276.3000;0.7416;-3.0886;
276.6000;0.7310;-3.1234;
276.9000;0.7383;-3.1085;
277.2000;0.7285;-3.1284;
277.5000;0.7310;-3.1160;
277.8000;0.7310;-3.1209;
278.1000;0.7302;-3.1209;
278.4000;0.7302;-3.1184;
278.7000;0.7310;-3.1259;
279.0000;0.7318;-3.1259;
279.3000;0.7318;-3.1110;
279.6000;0.7318;-3.1234;
279.9000;0.7302;-3.1309;
280.2000;0.7310;-3.1284;
280.5000;0.7375;-3.1135;
280.8000;0.7310;-3.1334;
281.1000;0.7326;-3.1309;
281.4000;0.7318;-3.1433;
281.7000;0.7285;-3.1458;
282.0000;0.7236;-3.1533;
282.3000;0.7318;-3.1259;
282.6000;0.7302;-3.1284;
282.9000;0.7310;-3.1234;
283.2000;0.7326;-3.1184;
283.5000;0.7318;-3.1209;
283.8000;0.7310;-3.1259;
284.1000;0.7318;-3.1234;
284.4000;0.7326;-3.1184;
284.7000;0.7302;-3.1184;
285.0000;0.7310;-3.1184;
285.3000;0.7285;-3.1184;
285.6000;0.7293;-3.1060;
285.9000;0.7310;-3.1135;
286.2000;0.7293;-3.1209;
286.5000;0.7302;-3.1184;
286.8000;0.7326;-3.1209;
287.1000;0.7334;-3.1184;
287.4000;0.7277;-3.1259;
287.7000;0.7310;-3.1135;
288.0000;0.7310;-3.1160;
288.3000;0.7367;-3.1010;
288.6000;0.7326;-3.1085;
288.9000;0.7334;-3.1135;
289.2000;0.7310;-3.1135;
289.5000;0.7326;-3.1184;
289.8000;0.7285;-3.1259;
290.1000;0.7285;-3.1135;
290.4000;0.7293;-3.1060;
290.7000;0.7293;-3.1060;
291.0000;0.7302;-3.1035;
291.3000;0.7228;-3.1234;
291.6000;0.7310;-3.1035;
291.9000;0.7285;-3.1135;
292.2000;0.7310;-3.1085;
292.5000;0.7285;-3.1184;
292.8000;0.7318;-3.1135;
293.1000;0.7302;-3.1209;
293.4000;0.7269;-3.1234;
293.7000;0.7310;-3.1135;
294.0000;0.7310;-3.1184;
294.3000;0.7318;-3.1259;
294.6000;0.7269;-3.1433;
294.9000;0.7285;-3.1309;
295.2000;0.7326;-3.1259;
295.5000;0.7302;-3.1259;
295.8000;0.7277;-3.1234;
296.1000;0.7253;-3.1334;
296.4000;0.7318;-3.1259;
296.7000;0.7277;-3.1383;
297.0000;0.7310;-3.1259;
297.3000;0.7334;-3.1234;
297.6000;0.7334;-3.1259;
297.9000;0.7318;-3.1234;
298.2000;0.7302;-3.1234;
298.5000;0.7326;-3.1184;
298.8000;0.7334;-3.1234;
299.1000;0.7285;-3.1334;
299.4000;0.7253;-3.1433;
299.7000;0.7326;-3.1284;
300.0000;0.7326;-3.1284;
300.3000;0.7359;-3.1135;
300.6000;0.7318;-3.1309;
300.9000;0.7318;-3.1309;
301.2000;0.7302;-3.1408;
301.5000;0.7310;-3.1433;
301.8000;0.7318;-3.1408;
302.1000;0.7326;-3.1358;
302.4000;0.7310;-3.1358;
302.7000;0.7367;-3.1284;
303.0000;0.7277;-3.1433;
303.3000;0.7318;-3.1309;
303.6000;0.7302;-3.1334;
303.9000;0.7285;-3.1309;
304.2000;0.7310;-3.1259;
304.5000;0.7318;-3.1184;
304.8000;0.7318;-3.1209;
305.1000;0.7310;-3.1184;
305.4000;0.7318;-3.1160;
305.7000;0.7334;-3.1110;
306.0000;0.7326;-3.1060;
306.3000;0.7334;-3.1110;
306.6000;0.7318;-3.1060;
306.9000;0.7326;-3.1110;
307.2000;0.7310;-3.1160;
307.5000;0.7310;-3.1259;
307.8000;0.7326;-3.1259;
308.1000;0.7326;-3.1160;
308.4000;0.7326;-3.1234;
308.7000;0.7334;-3.1085;
309.0000;0.7310;-3.1085;
309.3000;0.7310;-3.1010;
309.6000;0.7318;-3.0936;
309.9000;0.7318;-3.1060;
310.2000;0.7285;-3.1085;
310.5000;0.7302;-3.0936;
310.8000;0.7334;-3.0936;
311.1000;0.7350;-3.0961;
311.4000;0.7310;-3.1110;
311.7000;0.7318;-3.1085;
312.0000;0.7310;-3.0961;
312.3000;0.7318;-3.0961;
312.6000;0.7318;-3.0936;
312.9000;0.7293;-3.0936;
313.2000;0.7359;-3.0836;
313.5000;0.7334;-3.0961;
313.8000;0.7302;-3.1060;
314.1000;0.7293;-3.0961;
314.4000;0.7302;-3.0836;
314.7000;0.7269;-3.0861;
315.0000;0.7302;-3.0811;
315.3000;0.7293;-3.0985;
315.6000;0.7318;-3.0936;
315.9000;0.7293;-3.1035;
316.2000;0.7342;-3.0911;
316.5000;0.7318;-3.0886;
316.8000;0.7293;-3.1010;
317.1000;0.7326;-3.0936;
317.4000;0.7326;-3.0936;
317.7000;0.7318;-3.0985;
318.0000;0.7326;-3.0936;
318.3000;0.7318;-3.0961;
318.6000;0.7367;-3.0886;
318.9000;0.7318;-3.1035;
319.2000;0.7318;-3.0985;
319.5000;0.7326;-3.1060;
319.8000;0.7318;-3.1085;
320.1000;0.7367;-3.0985;
320.4000;0.7310;-3.1135;
320.7000;0.7342;-3.0985;
321.0000;0.7310;-3.1010;
321.3000;0.7334;-3.0911;
321.6000;0.7302;-3.1010;
321.9000;0.7310;-3.1010;
322.2000;0.7302;-3.1010;
322.5000;0.7310;-3.0861;
322.8000;0.7326;-3.0836;
323.1000;0.7326;-3.0911;
323.4000;0.7334;-3.0886;
323.7000;0.7399;-3.0712;
324.0000;0.7391;-3.0712;
324.3000;0.7318;-3.0861;
324.6000;0.7302;-3.0911;
324.9000;0.7318;-3.0861;
325.2000;0.7318;-3.0811;
325.5000;0.7310;-3.0936;
325.8000;0.7302;-3.1010;
326.1000;0.7302;-3.0936;
326.4000;0.7302;-3.0911;
326.7000;0.7302;-3.1010;
327.0000;0.7293;-3.1060;
327.3000;0.7277;-3.1035;
327.6000;0.7302;-3.0961;
327.9000;0.7302;-3.0961;
328.2000;0.7302;-3.0985;
328.5000;0.7293;-3.1010;
328.8000;0.7310;-3.0961;
329.1000;0.7293;-3.0961;
329.4000;0.7310;-3.0985;
329.7000;0.7318;-3.0936;
330.0000;0.7269;-3.0985;
330.3000;0.7310;-3.0836;
330.6000;0.7277;-3.0911;
330.9000;0.7318;-3.0861;
331.2000;0.7310;-3.0936;
331.5000;0.7302;-3.0886;
331.8000;0.7285;-3.0911;
332.1000;0.7293;-3.0936;
332.4000;0.7318;-3.0985;
332.7000;0.7310;-3.1010;
333.0000;0.7277;-3.1184;
333.3000;0.7302;-3.1010;
333.6000;0.7342;-3.0911;
333.9000;0.7318;-3.0961;
334.2000;0.7302;-3.0836;
334.5000;0.7318;-3.0786;
334.8000;0.7310;-3.0737;
335.1000;0.7302;-3.0836;
335.4000;0.7310;-3.0762;
335.7000;0.7302;-3.0836;
336.0000;0.7302;-3.0811;
336.3000;0.7318;-3.0861;
336.6000;0.7302;-3.1010;
336.9000;0.7310;-3.1035;
337.2000;0.7326;-3.1010;
337.5000;0.7367;-3.1010;
337.8000;0.7310;-3.1085;
338.1000;0.7220;-3.1309;
338.4000;0.7310;-3.1085;
338.7000;0.7310;-3.1085;
339.0000;0.7269;-3.1184;
339.3000;0.7310;-3.1035;
339.6000;0.7310;-3.0961;
339.9000;0.7277;-3.1060;
340.2000;0.7302;-3.0961;
340.5000;0.7302;-3.0985;
340.8000;0.7310;-3.1035;
341.1000;0.7196;-3.1309;
341.4000;0.7285;-3.1135;
341.7000;0.7245;-3.1309;
342.0000;0.7302;-3.1135;
342.3000;0.7318;-3.1060;
342.6000;0.7318;-3.1085;
342.9000;0.7285;-3.1085;
343.2000;0.7302;-3.1035;
343.5000;0.7310;-3.1110;
343.8000;0.7302;-3.1110;
344.1000;0.7310;-3.1110;
344.4000;0.7293;-3.1110;
344.7000;0.7293;-3.1060;
345.0000;0.7293;-3.1010;
345.3000;0.7293;-3.0961;
345.6000;0.7310;-3.0936;
345.9000;0.7318;-3.0886;
346.2000;0.7310;-3.0936;
346.5000;0.7310;-3.1035;
346.8000;0.7302;-3.1085;
347.1000;0.7310;-3.1060;
347.4000;0.7310;-3.1035;
347.7000;0.7310;-3.1060;
348.0000;0.7277;-3.1110;
348.3000;0.7293;-3.1060;
348.6000;0.7326;-3.0961;
348.9000;0.7310;-3.1010;
349.2000;0.7302;-3.1035;
349.5000;0.7293;-3.0961;
349.8000;0.7310;-3.0961;
350.1000;0.7310;-3.1010;
350.4000;0.7318;-3.0961;
350.7000;0.7318;-3.1035;
351.0000;0.7350;-3.0886;
351.3000;0.7326;-3.0911;
351.6000;0.7310;-3.0936;
351.9000;0.7310;-3.0936;
352.2000;0.7302;-3.0886;
352.5000;0.7293;-3.0961;
352.8000;0.7269;-3.0985;
353.1000;0.7310;-3.0936;
353.4000;0.7293;-3.0985;
353.7000;0.7302;-3.0861;
354.0000;0.7269;-3.1010;
354.3000;0.7318;-3.0911;
354.6000;0.7293;-3.0961;
354.9000;0.7310;-3.0985;
355.2000;0.7310;-3.1035;
355.5000;0.7285;-3.1110;
355.8000;0.7293;-3.1160;
356.1000;0.7310;-3.1135;
356.4000;0.7342;-3.1110;
356.7000;0.7318;-3.1160;
357.0000;0.7302;-3.1234;
357.3000;0.7293;-3.1234;
357.6000;0.7302;-3.1209;
357.9000;0.7302;-3.1184;
358.2000;0.7293;-3.1309;
358.5000;0.7310;-3.1234;
358.8000;0.7310;-3.1209;
359.1000;0.7334;-3.1135;
359.4000;0.7293;-3.1284;
359.7000;0.7285;-3.1259;
360.0000;0.7326;-3.1110;
360.3000;0.7310;-3.1060;
360.6000;0.7310;-3.1085;
360.9000;0.7293;-3.1060;
361.2000;0.7277;-3.1110;
361.5000;0.7293;-3.1060;
361.8000;0.7310;-3.0961;
362.1000;0.7302;-3.0961;
362.4000;0.7326;-3.0836;
362.7000;0.7302;-3.0936;
363.0000;0.7285;-3.1035;
363.3000;0.7293;-3.1010;
363.6000;0.7318;-3.1035;
363.9000;0.7293;-3.1035;
364.2000;0.7293;-3.0961;
364.5000;0.7293;-3.0985;
364.8000;0.7310;-3.0936;
365.1000;0.7285;-3.1010;
365.4000;0.7302;-3.0985;
365.7000;0.7293;-3.1184;
366.0000;0.7310;-3.1085;
366.3000;0.7269;-3.1060;
366.6000;0.7277;-3.1060;
366.9000;0.7302;-3.1060;
367.2000;0.7285;-3.1135;
367.5000;0.7236;-3.1259;
367.8000;0.7293;-3.1110;
368.1000;0.7302;-3.1035;
368.4000;0.7310;-3.1035;
368.7000;0.7293;-3.1184;
369.0000;0.7302;-3.1184;
369.3000;0.7318;-3.1135;
369.6000;0.7302;-3.1085;
369.9000;0.7293;-3.1035;
370.2000;0.7302;-3.0985;
370.5000;0.7293;-3.0936;
370.8000;0.7302;-3.0961;
371.1000;0.7302;-3.1010;
371.4000;0.7318;-3.0936;
371.7000;0.7277;-3.1035;
372.0000;0.7302;-3.0911;
372.3000;0.7293;-3.0886;
372.6000;0.7310;-3.0886;
372.9000;0.7310;-3.0936;
373.2000;0.7310;-3.0886;
373.5000;0.7293;-3.0936;
373.8000;0.7212;-3.1284;
374.1000;0.7236;-3.1234;
374.4000;0.7293;-3.1060;
374.7000;0.7318;-3.1060;
375.0000;0.7302;-3.0886;
375.3000;0.7302;-3.0936;
375.6000;0.7261;-3.1035;
375.9000;0.7302;-3.0886;
376.2000;0.7277;-3.0985;
376.5000;0.7302;-3.0961;
376.8000;0.7285;-3.0886;
377.1000;0.7261;-3.0985;
377.4000;0.7318;-3.0886;
377.7000;0.7302;-3.0911;
378.0000;0.7310;-3.0737;
378.3000;0.7293;-3.0861;
378.6000;0.7318;-3.0811;
378.9000;0.7375;-3.0662;
379.2000;0.7302;-3.0811;
379.5000;0.7293;-3.0762;
379.8000;0.7302;-3.0786;
380.1000;0.7334;-3.0737;
380.4000;0.7293;-3.0737;
380.7000;0.7302;-3.0762;
381.0000;0.7269;-3.0786;
381.3000;0.7302;-3.0662;
381.6000;0.7310;-3.0662;
381.9000;0.7302;-3.0687;
382.2000;0.7302;-3.0737;
382.5000;0.7310;-3.0737;
382.8000;0.7285;-3.0811;
383.1000;0.7342;-3.0687;
383.4000;0.7310;-3.0737;
383.7000;0.7293;-3.0836;
384.0000;0.7293;-3.0836;
384.3000;0.7302;-3.0762;
384.6000;0.7302;-3.0786;
384.9000;0.7261;-3.0911;
385.2000;0.7334;-3.0786;
385.5000;0.7285;-3.0836;
385.8000;0.7285;-3.0737;
386.1000;0.7302;-3.0762;
386.4000;0.7310;-3.0737;
386.7000;0.7285;-3.0886;
387.0000;0.7310;-3.0886;
387.3000;0.7293;-3.0985;
387.6000;0.7334;-3.0836;
387.9000;0.7318;-3.0886;
388.2000;0.7310;-3.0836;
388.5000;0.7302;-3.0836;
388.8000;0.7293;-3.0811;
389.1000;0.7310;-3.0836;
389.4000;0.7318;-3.0886;
389.7000;0.7196;-3.1184;
390.0000;0.7285;-3.0961;
390.3000;0.7326;-3.0886;
390.6000;0.7310;-3.0886;
390.9000;0.7293;-3.0786;
391.2000;0.7269;-3.0911;
391.5000;0.7310;-3.0811;
391.8000;0.7302;-3.0886;
392.1000;0.7269;-3.1010;
392.4000;0.7285;-3.0911;
392.7000;0.7277;-3.0861;
393.0000;0.7318;-3.0811;
393.3000;0.7269;-3.0911;
393.6000;0.7342;-3.0811;
393.9000;0.7334;-3.0811;
394.2000;0.7399;-3.0588;
394.5000;0.7318;-3.0762;
394.8000;0.7326;-3.0712;
395.1000;0.7318;-3.0762;
395.4000;0.7293;-3.0762;
395.7000;0.7253;-3.0961;
396.0000;0.7302;-3.0861;
396.3000;0.7269;-3.0936;
396.6000;0.7212;-3.1085;
396.9000;0.7285;-3.0836;
397.2000;0.7302;-3.0886;
397.5000;0.7310;-3.0936;
397.8000;0.7277;-3.0961;
398.1000;0.7277;-3.1010;
398.4000;0.7302;-3.0861;
398.7000;0.7293;-3.0811;
399.0000;0.7277;-3.0762;
399.3000;0.7285;-3.0836;
399.6000;0.7318;-3.0861;
399.9000;0.7326;-3.0861;
400.2000;0.7302;-3.0936;
400.5000;0.7293;-3.0961;
400.8000;0.7285;-3.0985;
401.1000;0.7293;-3.1035;
401.4000;0.7293;-3.1060;
401.7000;0.7285;-3.1160;
402.0000;0.7350;-3.0936;
402.3000;0.7310;-3.1035;
402.6000;0.7277;-3.1110;
402.9000;0.7302;-3.1135;
403.2000;0.7302;-3.1110;
403.5000;0.7293;-3.1110;
403.8000;0.7302;-3.1184;
404.1000;0.7277;-3.1160;
404.4000;0.7285;-3.1110;
404.7000;0.7245;-3.1160;
405.0000;0.7326;-3.0786;
405.3000;0.7318;-3.0861;
405.6000;0.7310;-3.0836;
405.9000;0.7310;-3.0911;
406.2000;0.7310;-3.0861;
406.5000;0.7302;-3.0961;
406.8000;0.7293;-3.1135;
407.1000;0.7302;-3.1184;
407.4000;0.7245;-3.1408;
407.7000;0.7277;-3.1358;
408.0000;0.7277;-3.1309;
408.3000;0.7269;-3.1160;
408.6000;0.7285;-3.1110;
408.9000;0.7310;-3.1035;
409.2000;0.7293;-3.1085;
409.5000;0.7302;-3.1135;
409.8000;0.7302;-3.1135;
410.1000;0.7293;-3.1234;
410.4000;0.7310;-3.1184;
410.7000;0.7310;-3.1110;
411.0000;0.7293;-3.1184;
411.3000;0.7302;-3.1035;
411.6000;0.7285;-3.1035;
411.9000;0.7302;-3.1060;
412.2000;0.7310;-3.1160;
412.5000;0.7293;-3.1160;
412.8000;0.7277;-3.1135;
413.1000;0.7302;-3.0911;
413.4000;0.7302;-3.0861;
413.7000;0.7269;-3.0886;
414.0000;0.7293;-3.0786;
414.3000;0.7342;-3.0687;
414.6000;0.7277;-3.0886;
414.9000;0.7269;-3.0961;
415.2000;0.7334;-3.0811;
415.5000;0.7253;-3.1060;
415.8000;0.7293;-3.0961;
416.1000;0.7293;-3.0985;
416.4000;0.7269;-3.1060;
416.7000;0.7310;-3.0961;
417.0000;0.7342;-3.0886;
417.3000;0.7269;-3.1060;
417.6000;0.7293;-3.1085;
417.9000;0.7293;-3.1035;
418.2000;0.7285;-3.1209;
418.5000;0.7302;-3.1060;
418.8000;0.7293;-3.1060;
419.1000;0.7302;-3.0961;
419.4000;0.7318;-3.0861;
419.7000;0.7293;-3.0961;
420.0000;0.7310;-3.0886;
420.3000;0.7293;-3.0961;
420.6000;0.7302;-3.0936;
420.9000;0.7302;-3.0886;
421.2000;0.7326;-3.0836;
421.5000;0.7326;-3.0861;
421.8000;0.7310;-3.0936;
422.1000;0.7318;-3.0911;
422.4000;0.7310;-3.0936;
422.7000;0.7277;-3.1035;
423.0000;0.7245;-3.1160;
423.3000;0.7310;-3.1110;
423.6000;0.7302;-3.1110;
423.9000;0.7285;-3.1060;
424.2000;0.7293;-3.1085;
424.5000;0.7318;-3.0961;
424.8000;0.7302;-3.0985;
425.1000;0.7261;-3.1184;
425.4000;0.7293;-3.1234;
425.7000;0.7302;-3.1160;
426.0000;0.7285;-3.1160;
426.3000;0.7302;-3.1060;
426.6000;0.7318;-3.1085;
426.9000;0.7285;-3.1234;
427.2000;0.7326;-3.1110;
427.5000;0.7293;-3.1209;
427.8000;0.7285;-3.1284;
428.1000;0.7302;-3.1209;
428.4000;0.7277;-3.1209;
428.7000;0.7293;-3.0985;
429.0000;0.7302;-3.0985;
429.3000;0.7318;-3.0911;
429.6000;0.7293;-3.0961;
429.9000;0.7293;-3.0985;
430.2000;0.7269;-3.1085;
430.5000;0.7285;-3.0985;
430.8000;0.7302;-3.1035;
431.1000;0.7310;-3.1035;
431.4000;0.7310;-3.1060;
431.7000;0.7285;-3.1135;
432.0000;0.7310;-3.1035;
432.3000;0.7285;-3.1035;
432.6000;0.7302;-3.1010;
432.9000;0.7285;-3.0985;
433.2000;0.7285;-3.1035;
433.5000;0.7310;-3.0911;
433.8000;0.7310;-3.1035;
434.1000;0.7293;-3.1135;
434.4000;0.7302;-3.1110;
434.7000;0.7277;-3.1160;
435.0000;0.7302;-3.1160;
435.3000;0.7285;-3.1234;
435.6000;0.7269;-3.1284;
435.9000;0.7310;-3.1160;
436.2000;0.7293;-3.1209;
436.5000;0.7293;-3.1259;
436.8000;0.7302;-3.1234;
437.1000;0.7277;-3.1209;
437.4000;0.7285;-3.1135;
437.7000;0.7302;-3.1035;
438.0000;0.7302;-3.1110;
438.3000;0.7277;-3.1184;
438.6000;0.7302;-3.1110;
438.9000;0.7326;-3.1010;
439.2000;0.7285;-3.1085;
439.5000;0.7302;-3.1085;
439.8000;0.7293;-3.1184;
440.1000;0.7293;-3.1184;
440.4000;0.7302;-3.1184;
440.7000;0.7277;-3.1209;
441.0000;0.7293;-3.1135;
441.3000;0.7277;-3.1160;
441.6000;0.7310;-3.1035;
441.9000;0.7318;-3.1035;
442.2000;0.7302;-3.1010;
442.5000;0.7310;-3.1035;
442.8000;0.7293;-3.1110;
443.1000;0.7293;-3.1135;
443.4000;0.7293;-3.1010;
443.7000;0.7285;-3.0936;
444.0000;0.7302;-3.0961;
444.3000;0.7285;-3.0936;
444.6000;0.7285;-3.0936;
444.9000;0.7293;-3.0911;
445.2000;0.7277;-3.0886;
445.5000;0.7277;-3.0911;
445.8000;0.7285;-3.0786;
446.1000;0.7293;-3.0737;
446.4000;0.7293;-3.0712;
446.7000;0.7228;-3.0936;
447.0000;0.7285;-3.0886;
447.3000;0.7285;-3.0836;
447.6000;0.7359;-3.0786;
447.9000;0.7302;-3.0985;
448.2000;0.7277;-3.1060;
448.5000;0.7236;-3.1234;
448.8000;0.7293;-3.1135;
449.1000;0.7302;-3.1160;
449.4000;0.7245;-3.1358;
449.7000;0.7269;-3.1259;
450.0000;0.7277;-3.1259;
450.3000;0.7277;-3.1234;
450.6000;0.7302;-3.1110;
450.9000;0.7302;-3.1184;
451.2000;0.7318;-3.1234;
451.5000;0.7302;-3.1259;
451.8000;0.7220;-3.1433;
452.1000;0.7285;-3.1259;
452.4000;0.7269;-3.1334;
452.7000;0.7236;-3.1408;
453.0000;0.7302;-3.1259;
453.3000;0.7334;-3.1135;
453.6000;0.7359;-3.1010;
453.9000;0.7302;-3.1135;
454.2000;0.7220;-3.1408;
454.5000;0.7302;-3.1259;
454.8000;0.7302;-3.1234;
455.1000;0.7302;-3.1209;
455.4000;0.7318;-3.1184;
455.7000;0.7220;-3.1383;
456.0000;0.7245;-3.1284;
456.3000;0.7293;-3.1160;
456.6000;0.7310;-3.1160;
456.9000;0.7310;-3.1160;
457.2000;0.7350;-3.0985;
457.5000;0.7302;-3.1160;
457.8000;0.7277;-3.1309;
458.1000;0.7269;-3.1334;
458.4000;0.7293;-3.1358;
458.7000;0.7285;-3.1334;
459.0000;0.7302;-3.1334;
459.3000;0.7285;-3.1458;
459.6000;0.7293;-3.1383;
459.9000;0.7285;-3.1433;
460.2000;0.7302;-3.1458;
460.5000;0.7277;-3.1508;
460.8000;0.7285;-3.1483;
461.1000;0.7310;-3.1408;
461.4000;0.7220;-3.1632;
461.7000;0.7269;-3.1557;
462.0000;0.7310;-3.1458;
462.3000;0.7277;-3.1557;
462.6000;0.7310;-3.1408;
462.9000;0.7302;-3.1483;
463.2000;0.7277;-3.1483;
463.5000;0.7285;-3.1433;
463.8000;0.7318;-3.1358;
464.1000;0.7318;-3.1358;
464.4000;0.7285;-3.1383;
464.7000;0.7310;-3.1334;
465.0000;0.7310;-3.1383;
465.3000;0.7302;-3.1358;
465.6000;0.7310;-3.1309;
465.9000;0.7261;-3.1483;
466.2000;0.7285;-3.1334;
466.5000;0.7310;-3.1135;
466.8000;0.7318;-3.1035;
467.1000;0.7277;-3.1110;
467.4000;0.7302;-3.1010;
467.7000;0.7293;-3.1035;
468.0000;0.7220;-3.1234;
468.3000;0.7318;-3.1035;
468.6000;0.7302;-3.1184;
468.9000;0.7236;-3.1383;
469.2000;0.7302;-3.1209;
469.5000;0.7464;-3.0861;
469.8000;0.7342;-3.1184;
470.1000;0.7261;-3.1458;
470.4000;0.7236;-3.1508;
470.7000;0.7293;-3.1358;
471.0000;0.7318;-3.1334;
471.3000;0.7310;-3.1383;
471.6000;0.7318;-3.1334;
471.9000;0.7302;-3.1334;
472.2000;0.7293;-3.1483;
472.5000;0.7302;-3.1508;
472.8000;0.7293;-3.1508;
473.1000;0.7302;-3.1483;
473.4000;0.7285;-3.1533;
473.7000;0.7285;-3.1508;
474.0000;0.7293;-3.1533;
474.3000;0.7302;-3.1557;
474.6000;0.7285;-3.1607;
474.9000;0.7228;-3.1806;
475.2000;0.7293;-3.1657;
475.5000;0.7342;-3.1557;
475.8000;0.7285;-3.1657;
476.1000;0.7302;-3.1582;
476.4000;0.7277;-3.1707;
476.7000;0.7310;-3.1582;
477.0000;0.7310;-3.1508;
477.3000;0.7285;-3.1483;
477.6000;0.7302;-3.1458;
477.9000;0.7285;-3.1483;
478.2000;0.7228;-3.1682;
478.5000;0.7293;-3.1483;
478.8000;0.7269;-3.1483;
479.1000;0.7277;-3.1483;
479.4000;0.7269;-3.1433;
479.7000;0.7245;-3.1433;
480.0000;0.7269;-3.1334;
480.3000;0.7269;-3.1334;
480.6000;0.7277;-3.1358;
480.9000;0.7277;-3.1358;
481.2000;0.7293;-3.1383;
481.5000;0.7285;-3.1383;
481.8000;0.7285;-3.1383;
482.1000;0.7302;-3.1358;
482.4000;0.7293;-3.1358;
482.7000;0.7350;-3.1284;
483.0000;0.7293;-3.1358;
483.3000;0.7318;-3.1284;
483.6000;0.7302;-3.1209;
483.9000;0.7285;-3.1334;
484.2000;0.7261;-3.1383;
484.5000;0.7293;-3.1259;
484.8000;0.7277;-3.1234;
485.1000;0.7285;-3.1334;
485.4000;0.7269;-3.1458;
485.7000;0.7293;-3.1408;
486.0000;0.7277;-3.1483;
486.3000;0.7293;-3.1483;
486.6000;0.7310;-3.1383;
486.9000;0.7293;-3.1408;
487.2000;0.7293;-3.1408;
487.5000;0.7310;-3.1358;
487.8000;0.7285;-3.1408;
488.1000;0.7293;-3.1309;
488.4000;0.7293;-3.1334;
488.7000;0.7293;-3.1334;
489.0000;0.7293;-3.1334;
489.3000;0.7220;-3.1483;
489.6000;0.7277;-3.1309;
489.9000;0.7293;-3.1234;
490.2000;0.7277;-3.1309;
490.5000;0.7277;-3.1284;
490.8000;0.7342;-3.1184;
491.1000;0.7293;-3.1259;
491.4000;0.7285;-3.1209;
491.7000;0.7269;-3.1184;
492.0000;0.7245;-3.1284;
492.3000;0.7310;-3.1184;
492.6000;0.7285;-3.1234;
492.9000;0.7285;-3.1284;
493.2000;0.7269;-3.1259;
493.5000;0.7310;-3.1135;
493.8000;0.7285;-3.1135;
494.1000;0.7293;-3.1135;
494.4000;0.7293;-3.1085;
494.7000;0.7277;-3.1110;
495.0000;0.7285;-3.1135;
495.3000;0.7285;-3.1135;
495.6000;0.7285;-3.1085;
495.9000;0.7220;-3.1234;
496.2000;0.7302;-3.1060;
496.5000;0.7302;-3.1135;
496.8000;0.7285;-3.1085;
497.1000;0.7302;-3.1110;
497.4000;0.7269;-3.1085;
497.7000;0.7285;-3.1284;
498.0000;0.7302;-3.1259;
498.3000;0.7285;-3.1334;
498.6000;0.7269;-3.1309;
498.9000;0.7285;-3.1284;
499.2000;0.7285;-3.1184;
499.5000;0.7285;-3.1284;
499.8000;0.7293;-3.1358;
500.1000;0.7285;-3.1334;
500.4000;0.7302;-3.1334;
500.7000;0.7302;-3.1234;
501.0000;0.7302;-3.1184;
501.3000;0.7277;-3.1234;
501.6000;0.7293;-3.1209;
501.9000;0.7310;-3.1184;
502.2000;0.7285;-3.1259;
502.5000;0.7261;-3.1334;
502.8000;0.7293;-3.1284;
503.1000;0.7293;-3.1259;
503.4000;0.7261;-3.1284;
503.7000;0.7277;-3.1209;
504.0000;0.7285;-3.1110;
504.3000;0.7359;-3.0961;
504.6000;0.7293;-3.1135;
504.9000;0.7293;-3.1060;
505.2000;0.7326;-3.0936;
505.5000;0.7285;-3.1010;
505.8000;0.7302;-3.1035;
506.1000;0.7277;-3.1135;
506.4000;0.7293;-3.1110;
506.7000;0.7293;-3.1035;
507.0000;0.7277;-3.1060;
507.3000;0.7261;-3.1209;
507.6000;0.7302;-3.1110;
507.9000;0.7277;-3.1184;
508.2000;0.7310;-3.1184;
508.5000;0.7253;-3.1358;
508.8000;0.7285;-3.1309;
509.1000;0.7293;-3.1209;
509.4000;0.7350;-3.1184;
509.7000;0.7261;-3.1358;
510.0000;0.7318;-3.1160;
510.3000;0.7285;-3.1284;
510.6000;0.7302;-3.1234;
510.9000;0.7277;-3.1234;
511.2000;0.7293;-3.1234;
511.5000;0.7293;-3.1209;
511.8000;0.7293;-3.1184;
512.1000;0.7269;-3.1234;
512.4000;0.7310;-3.1110;
512.7000;0.7293;-3.1284;
513.0000;0.7277;-3.1234;
513.3000;0.7277;-3.1160;
513.6000;0.7277;-3.1060;
513.9000;0.7269;-3.1060;
514.2000;0.7326;-3.0886;
514.5000;0.7277;-3.1135;
514.8000;0.7285;-3.1035;
515.1000;0.7310;-3.1035;
515.4000;0.7293;-3.1085;
515.7000;0.7285;-3.1160;
516.0000;0.7302;-3.1160;
516.3000;0.7302;-3.1209;
516.6000;0.7302;-3.1110;
516.9000;0.7285;-3.1085;
517.2000;0.7285;-3.1135;
517.5000;0.7269;-3.1110;
517.8000;0.7293;-3.1209;
518.1000;0.7269;-3.1309;
518.4000;0.7261;-3.1234;
518.7000;0.7269;-3.1135;
519.0000;0.7285;-3.1135;
519.3000;0.7285;-3.1184;
519.6000;0.7277;-3.1135;
519.9000;0.7277;-3.1035;
520.2000;0.7269;-3.1110;
520.5000;0.7277;-3.1259;
520.8000;0.7269;-3.1234;
521.1000;0.7212;-3.1408;
521.4000;0.7285;-3.1259;
521.7000;0.7318;-3.1209;
522.0000;0.7293;-3.1358;
522.3000;0.7318;-3.1234;
522.6000;0.7302;-3.1209;
522.9000;0.7302;-3.1259;
523.2000;0.7302;-3.1209;
523.5000;0.7326;-3.1184;
523.8000;0.7302;-3.1184;
524.1000;0.7350;-3.1135;
524.4000;0.7269;-3.1259;
524.7000;0.7261;-3.1184;
525.0000;0.7302;-3.1035;
525.3000;0.7285;-3.1135;
525.6000;0.7285;-3.1209;
525.9000;0.7285;-3.1284;
526.2000;0.7342;-3.1060;
526.5000;0.7318;-3.1184;
526.8000;0.7302;-3.1284;
527.1000;0.7302;-3.1383;
527.4000;0.7293;-3.1458;
527.7000;0.7269;-3.1508;
528.0000;0.7293;-3.1433;
528.3000;0.7302;-3.1408;
528.6000;0.7285;-3.1309;
528.9000;0.7261;-3.1383;
529.2000;0.7383;-3.1085;
529.5000;0.7285;-3.1309;
529.8000;0.7285;-3.1284;
530.1000;0.7302;-3.1259;
530.4000;0.7269;-3.1209;
530.7000;0.7277;-3.1234;
531.0000;0.7285;-3.1184;
531.3000;0.7269;-3.1334;
531.6000;0.7285;-3.1309;
531.9000;0.7293;-3.1259;
532.2000;0.7285;-3.1209;
532.5000;0.7293;-3.1184;
532.8000;0.7285;-3.1284;
533.1000;0.7293;-3.1234;
533.4000;0.7293;-3.1234;
533.7000;0.7285;-3.1284;
534.0000;0.7302;-3.1334;
534.3000;0.7277;-3.1334;
534.6000;0.7293;-3.1408;
534.9000;0.7277;-3.1383;
535.2000;0.7269;-3.1433;
535.5000;0.7293;-3.1358;
535.8000;0.7285;-3.1334;
536.1000;0.7293;-3.1358;
536.4000;0.7293;-3.1334;
536.7000;0.7293;-3.1408;
537.0000;0.7285;-3.1358;
537.3000;0.7277;-3.1383;
537.6000;0.7245;-3.1458;
537.9000;0.7293;-3.1458;
538.2000;0.7293;-3.1483;
538.5000;0.7228;-3.1632;
538.8000;0.7228;-3.1632;
539.1000;0.7277;-3.1557;
539.4000;0.7269;-3.1533;
539.7000;0.7302;-3.1483;
540.0000;0.7277;-3.1557;
540.3000;0.7293;-3.1483;
540.6000;0.7277;-3.1533;
540.9000;0.7293;-3.1508;
541.2000;0.7302;-3.1433;
541.5000;0.7261;-3.1533;
541.8000;0.7269;-3.1483;
542.1000;0.7269;-3.1433;
542.4000;0.7285;-3.1408;
542.7000;0.7245;-3.1408;
543.0000;0.7342;-3.1110;
543.3000;0.7293;-3.1135;
543.6000;0.7326;-3.1060;
543.9000;0.7269;-3.1284;
544.2000;0.7253;-3.1383;
544.5000;0.7261;-3.1309;
544.8000;0.7293;-3.1234;
545.1000;0.7342;-3.1135;
545.4000;0.7277;-3.1259;
545.7000;0.7277;-3.1209;
546.0000;0.7302;-3.1160;
546.3000;0.7261;-3.1234;
546.6000;0.7285;-3.1309;
546.9000;0.7277;-3.1334;
547.2000;0.7204;-3.1508;
547.5000;0.7261;-3.1433;
547.8000;0.7285;-3.1433;
548.1000;0.7269;-3.1483;
548.4000;0.7310;-3.1508;
548.7000;0.7269;-3.1582;
549.0000;0.7277;-3.1508;
549.3000;0.7261;-3.1458;
549.6000;0.7261;-3.1483;
549.9000;0.7285;-3.1408;
550.2000;0.7261;-3.1433;
550.5000;0.7285;-3.1334;
550.8000;0.7269;-3.1334;
551.1000;0.7220;-3.1483;
551.4000;0.7293;-3.1284;
551.7000;0.7293;-3.1309;
552.0000;0.7277;-3.1383;
552.3000;0.7302;-3.1284;
552.6000;0.7293;-3.1234;
552.9000;0.7302;-3.1234;
553.2000;0.7261;-3.1383;
553.5000;0.7277;-3.1408;
553.8000;0.7293;-3.1209;
554.1000;0.7269;-3.1284;
554.4000;0.7261;-3.1309;
554.7000;0.7269;-3.1408;
555.0000;0.7253;-3.1309;
555.3000;0.7277;-3.1259;
555.6000;0.7253;-3.1309;
555.9000;0.7253;-3.1334;
556.2000;0.7293;-3.1309;
556.5000;0.7302;-3.1160;
556.8000;0.7285;-3.1234;
557.1000;0.7285;-3.1160;
557.4000;0.7277;-3.1160;
557.7000;0.7293;-3.1234;
558.0000;0.7245;-3.1309;
558.3000;0.7334;-3.1060;
558.6000;0.7293;-3.1160;
558.9000;0.7285;-3.1184;
559.2000;0.7285;-3.1209;
559.5000;0.7269;-3.1209;
559.8000;0.7293;-3.1184;
560.1000;0.7293;-3.1184;
560.4000;0.7293;-3.1135;
560.7000;0.7318;-3.1035;
561.0000;0.7188;-3.1408;
561.3000;0.7236;-3.1358;
561.6000;0.7277;-3.1259;
561.9000;0.7285;-3.1234;
562.2000;0.7318;-3.1035;
562.5000;0.7261;-3.1110;
562.8000;0.7253;-3.1060;
563.1000;0.7310;-3.1010;
563.4000;0.7293;-3.1035;
563.7000;0.7253;-3.1060;
564.0000;0.7269;-3.1060;
564.3000;0.7285;-3.1010;
564.6000;0.7277;-3.1160;
564.9000;0.7293;-3.1234;
565.2000;0.7277;-3.1234;
565.5000;0.7277;-3.1284;
565.8000;0.7277;-3.1284;
566.1000;0.7253;-3.1284;
566.4000;0.7277;-3.1184;
566.7000;0.7277;-3.1259;
567.0000;0.7285;-3.1135;
567.3000;0.7261;-3.1259;
567.6000;0.7261;-3.1309;
567.9000;0.7269;-3.1358;
568.2000;0.7310;-3.1234;
568.5000;0.7277;-3.1309;
568.8000;0.7277;-3.1383;
569.1000;0.7261;-3.1408;
569.4000;0.7293;-3.1358;
569.7000;0.7261;-3.1458;
570.0000;0.7261;-3.1358;
570.3000;0.7253;-3.1284;
570.6000;0.7236;-3.1309;
570.9000;0.7261;-3.1309;
571.2000;0.7261;-3.1334;
571.5000;0.7269;-3.1284;
571.8000;0.7228;-3.1259;
572.1000;0.7261;-3.1209;
572.4000;0.7302;-3.1160;
572.7000;0.7261;-3.1259;
573.0000;0.7253;-3.1284;
573.3000;0.7220;-3.1383;
573.6000;0.7285;-3.1309;
573.9000;0.7277;-3.1259;
574.2000;0.7277;-3.1209;
574.5000;0.7277;-3.1184;
574.8000;0.7277;-3.1110;
575.1000;0.7277;-3.1085;
575.4000;0.7277;-3.1110;
575.7000;0.7269;-3.1259;
576.0000;0.7269;-3.1259;
576.3000;0.7277;-3.1184;
576.6000;0.7285;-3.1135;
576.9000;0.7277;-3.1160;
577.2000;0.7261;-3.1184;
577.5000;0.7253;-3.1135;
577.8000;0.7261;-3.1035;
578.1000;0.7269;-3.1010;
578.4000;0.7253;-3.0985;
578.7000;0.7269;-3.1060;
579.0000;0.7261;-3.1259;
579.3000;0.7285;-3.1284;
579.6000;0.7293;-3.1234;
579.9000;0.7285;-3.1284;
580.2000;0.7277;-3.1334;
580.5000;0.7293;-3.1383;
580.8000;0.7261;-3.1508;
581.1000;0.7261;-3.1383;
581.4000;0.7285;-3.1234;
581.7000;0.7277;-3.1209;
582.0000;0.7269;-3.1110;
582.3000;0.7293;-3.0985;
582.6000;0.7285;-3.1110;
582.9000;0.7277;-3.1060;
583.2000;0.7277;-3.1060;
583.5000;0.7261;-3.1060;
583.8000;0.7261;-3.1085;
584.1000;0.7302;-3.1060;
584.4000;0.7293;-3.1184;
584.7000;0.7269;-3.1284;
585.0000;0.7285;-3.1334;
585.3000;0.7293;-3.1408;
585.6000;0.7285;-3.1383;
585.9000;0.7302;-3.1408;
586.2000;0.7293;-3.1334;
586.5000;0.7236;-3.1433;
586.8000;0.7228;-3.1383;
587.1000;0.7179;-3.1508;
587.4000;0.7253;-3.1309;
587.7000;0.7277;-3.1284;
588.0000;0.7375;-3.0961;
588.3000;0.7245;-3.1309;
588.6000;0.7310;-3.1160;
588.9000;0.7277;-3.1209;
589.2000;0.7277;-3.1259;
589.5000;0.7285;-3.1184;
589.8000;0.7253;-3.1209;
590.1000;0.7269;-3.1234;
590.4000;0.7277;-3.1259;
590.7000;0.7302;-3.1259;
591.0000;0.7285;-3.1209;
591.3000;0.7277;-3.1184;
591.6000;0.7277;-3.1209;
591.9000;0.7277;-3.1160;
592.2000;0.7293;-3.1085;
592.5000;0.7261;-3.0985;
592.8000;0.7277;-3.0886;
593.1000;0.7285;-3.0886;
593.4000;0.7277;-3.0911;
593.7000;0.7277;-3.0936;
594.0000;0.7261;-3.1035;
594.3000;0.7269;-3.0985;
594.6000;0.7269;-3.1184;
594.9000;0.7277;-3.1035;
595.2000;0.7293;-3.0985;
595.5000;0.7261;-3.1135;
595.8000;0.7285;-3.1160;
596.1000;0.7285;-3.1110;
596.4000;0.7220;-3.1234;
596.7000;0.7277;-3.1010;
597.0000;0.7277;-3.1085;
597.3000;0.7293;-3.0985;
597.6000;0.7285;-3.1035;
597.9000;0.7277;-3.1160;
598.2000;0.7261;-3.1309;
598.5000;0.7277;-3.1334;
598.8000;0.7285;-3.1284;
599.1000;0.7277;-3.1383;
599.4000;0.7261;-3.1458;
599.7000;0.7293;-3.1309;
600.0000;0.7261;-3.1309;
600.3000;0.7285;-3.1383;
600.6000;0.7285;-3.1433;
600.9000;0.7285;-3.1408;
601.2000;0.7245;-3.1533;
601.5000;0.7196;-3.1632;
601.8000;0.7131;-3.1881;
602.1000;0.7074;-3.2030;
602.4000;0.7049;-3.2254;
602.7000;0.6992;-3.2403;
603.0000;0.6943;-3.2428;
603.3000;0.6886;-3.2602;
603.6000;0.6854;-3.2701;
603.9000;0.6821;-3.2701;
604.2000;0.6781;-3.2900;
604.5000;0.6716;-3.3099;
604.8000;0.6699;-3.3124;
605.1000;0.6691;-3.3099;
605.4000;0.6626;-3.3224;
605.7000;0.6585;-3.3273;
606.0000;0.6569;-3.3323;
606.3000;0.6528;-3.3422;
606.6000;0.6520;-3.3497;
606.9000;0.6528;-3.3323;
607.2000;0.6431;-3.3572;
607.5000;0.6422;-3.3497;
607.8000;0.6357;-3.3621;
608.1000;0.6357;-3.3522;
608.4000;0.6365;-3.3497;
608.7000;0.6333;-3.3472;
609.0000;0.6317;-3.3447;
609.3000;0.6292;-3.3323;
609.6000;0.6252;-3.3248;
609.9000;0.6178;-3.3447;
610.2000;0.6211;-3.3398;
610.5000;0.6195;-3.3422;
610.8000;0.6129;-3.3522;
611.1000;0.6129;-3.3522;
611.4000;0.6129;-3.3522;
611.7000;0.6113;-3.3522;
612.0000;0.6064;-3.3646;
612.3000;0.6081;-3.3597;
612.6000;0.6032;-3.3721;
612.9000;0.6032;-3.3671;
613.2000;0.6007;-3.3721;
613.5000;0.5958;-3.3771;
613.8000;0.5983;-3.3696;
614.1000;0.5958;-3.3621;
614.4000;0.5958;-3.3621;
614.7000;0.5918;-3.3771;
615.0000;0.5918;-3.3671;
615.3000;0.5893;-3.3746;
615.6000;0.5885;-3.3646;
615.9000;0.5869;-3.3646;
616.2000;0.5853;-3.3671;
616.5000;0.5836;-3.3796;
616.8000;0.5804;-3.3945;
617.1000;0.5836;-3.3820;
617.4000;0.5796;-3.3895;
617.7000;0.5779;-3.3895;
618.0000;0.5763;-3.3820;
618.3000;0.5698;-3.3945;
618.6000;0.5731;-3.3845;
618.9000;0.5706;-3.3920;
619.2000;0.5722;-3.3845;
619.5000;0.5698;-3.3870;
619.8000;0.5682;-3.3970;
620.1000;0.5665;-3.3994;
620.4000;0.5682;-3.3820;
620.7000;0.5649;-3.3796;
621.0000;0.5625;-3.3845;
621.3000;0.5617;-3.3796;
621.6000;0.5657;-3.3671;
621.9000;0.5608;-3.3771;
622.2000;0.5682;-3.3597;
622.5000;0.5584;-3.3771;
622.8000;0.5486;-3.4069;
623.1000;0.5543;-3.3920;
623.4000;0.5576;-3.3820;
623.7000;0.5560;-3.3870;
624.0000;0.5535;-3.4069;
624.3000;0.5535;-3.4094;
624.6000;0.5503;-3.4119;
624.9000;0.5519;-3.4019;
625.2000;0.5608;-3.3746;
625.5000;0.5397;-3.4268;
625.8000;0.5470;-3.4144;
626.1000;0.5470;-3.3994;
626.4000;0.5486;-3.3895;
626.7000;0.5462;-3.3970;
627.0000;0.5462;-3.3945;
627.3000;0.5429;-3.3994;
627.6000;0.5429;-3.3920;
627.9000;0.5405;-3.3970;
628.2000;0.5421;-3.3920;
628.5000;0.5389;-3.4044;
628.8000;0.5389;-3.4019;
629.1000;0.5372;-3.4144;
629.4000;0.5340;-3.4144;
629.7000;0.5381;-3.4069;
630.0000;0.5348;-3.4119;
630.3000;0.5356;-3.4094;
630.6000;0.5348;-3.3994;
630.9000;0.5348;-3.3994;
631.2000;0.5299;-3.4019;
631.5000;0.5307;-3.3994;
631.8000;0.5315;-3.3945;
632.1000;0.5324;-3.3970;
632.4000;0.5307;-3.3994;
632.7000;0.5315;-3.4069;
633.0000;0.5291;-3.4169;
633.3000;0.5267;-3.4218;
633.6000;0.5258;-3.4193;
633.9000;0.5234;-3.4268;
634.2000;0.5169;-3.4467;
634.5000;0.5267;-3.4293;
634.8000;0.5258;-3.4268;
635.1000;0.5250;-3.4343;
635.4000;0.5201;-3.4517;
635.7000;0.5218;-3.4367;
636.0000;0.5210;-3.4367;
636.3000;0.5193;-3.4318;
636.6000;0.5226;-3.4193;
636.9000;0.5201;-3.4268;
637.2000;0.5201;-3.4169;
637.5000;0.5210;-3.4094;
637.8000;0.5201;-3.4044;
638.1000;0.5177;-3.4069;
638.4000;0.5201;-3.3945;
638.7000;0.5185;-3.3994;
639.0000;0.5201;-3.3994;
639.3000;0.5144;-3.4144;
639.6000;0.5169;-3.4069;
639.9000;0.5210;-3.3945;
640.2000;0.5169;-3.4094;
640.5000;0.5153;-3.4119;
640.8000;0.5210;-3.3994;
641.1000;0.5161;-3.3994;
641.4000;0.5112;-3.4094;
641.7000;0.5120;-3.4094;
642.0000;0.5063;-3.4193;
642.3000;0.5136;-3.4044;
642.6000;0.5088;-3.4218;
642.9000;0.5104;-3.4193;
643.2000;0.5079;-3.4243;
643.5000;0.5096;-3.4169;
643.8000;0.5079;-3.4094;
644.1000;0.5096;-3.4019;
644.4000;0.5088;-3.3994;
644.7000;0.5079;-3.4044;
645.0000;0.5055;-3.4094;
645.3000;0.5088;-3.3994;
645.6000;0.5055;-3.4144;
645.9000;0.5063;-3.4119;
646.2000;0.5055;-3.4169;
646.5000;0.5055;-3.4193;
646.8000;0.5047;-3.4144;
647.1000;0.5063;-3.4069;
647.4000;0.5039;-3.4019;
647.7000;0.5039;-3.3994;
648.0000;0.5039;-3.4044;
648.3000;0.5022;-3.4119;
648.6000;0.5039;-3.4044;
648.9000;0.5022;-3.4119;
649.2000;0.5047;-3.4019;
649.5000;0.5022;-3.4094;
649.8000;0.5006;-3.4144;
650.1000;0.4990;-3.4169;
650.4000;0.5014;-3.4144;
650.7000;0.5006;-3.4069;
651.0000;0.5014;-3.4069;
651.3000;0.5022;-3.3945;
651.6000;0.5006;-3.3994;
651.9000;0.4998;-3.3970;
652.2000;0.4990;-3.3994;
652.5000;0.4933;-3.4119;
652.8000;0.4974;-3.3920;
653.1000;0.4982;-3.3895;
653.4000;0.4990;-3.3920;
653.7000;0.4982;-3.3970;
654.0000;0.4990;-3.4019;
654.3000;0.4982;-3.4094;
654.6000;0.4941;-3.4293;
654.9000;0.4974;-3.4243;
655.2000;0.4933;-3.4343;
655.5000;0.4949;-3.4218;
655.8000;0.4900;-3.4243;
656.1000;0.4965;-3.3994;
656.4000;0.4941;-3.4144;
656.7000;0.4957;-3.4144;
657.0000;0.4965;-3.4169;
657.3000;0.4974;-3.4144;
657.6000;0.4982;-3.4094;
657.9000;0.4941;-3.4243;
658.2000;0.4908;-3.4243;
658.5000;0.4908;-3.4343;
658.8000;0.4965;-3.4169;
659.1000;0.4925;-3.4293;
659.4000;0.4908;-3.4318;
659.7000;0.4917;-3.4343;
660.0000;0.4917;-3.4293;
660.3000;0.4900;-3.4268;
660.6000;0.4884;-3.4193;
660.9000;0.4900;-3.4169;
661.2000;0.4900;-3.4169;
661.5000;0.4990;-3.4044;
661.8000;0.4908;-3.4293;
662.1000;0.4892;-3.4293;
662.4000;0.4876;-3.4293;
662.7000;0.4900;-3.4119;
663.0000;0.4884;-3.4119;
663.3000;0.4868;-3.4069;
663.6000;0.4892;-3.3994;
663.9000;0.4892;-3.4069;
664.2000;0.4835;-3.4144;
664.5000;0.4860;-3.4144;
664.8000;0.4876;-3.4094;
665.1000;0.4860;-3.4119;
665.4000;0.4868;-3.4094;
665.7000;0.4860;-3.4193;
666.0000;0.4860;-3.4144;
666.3000;0.4860;-3.4119;
666.6000;0.4868;-3.4094;
666.9000;0.4851;-3.4169;
667.2000;0.4876;-3.4119;
667.5000;0.4843;-3.4193;
667.8000;0.4860;-3.4144;
668.1000;0.4811;-3.4243;
668.4000;0.4835;-3.4243;
668.7000;0.4860;-3.4243;
669.0000;0.4819;-3.4392;
669.3000;0.4851;-3.4367;
669.6000;0.4851;-3.4392;
669.9000;0.4835;-3.4442;
670.2000;0.4835;-3.4343;
670.5000;0.4835;-3.4268;
670.8000;0.4860;-3.4119;
671.1000;0.4827;-3.4193;
671.4000;0.4835;-3.4268;
671.7000;0.4860;-3.4169;
672.0000;0.4860;-3.4094;
672.3000;0.4868;-3.4069;
672.6000;0.4819;-3.4144;
672.9000;0.4835;-3.4119;
673.2000;0.4884;-3.3994;
673.5000;0.4835;-3.4019;
673.8000;0.4827;-3.3945;
674.1000;0.4851;-3.3870;
674.4000;0.4827;-3.3920;
674.7000;0.4811;-3.3945;
675.0000;0.4819;-3.3920;
675.3000;0.4794;-3.4019;
675.6000;0.4811;-3.4019;
675.9000;0.4827;-3.3994;
676.2000;0.4778;-3.4069;
676.5000;0.4770;-3.4169;
676.8000;0.4892;-3.3870;
677.1000;0.4803;-3.3994;
677.4000;0.4794;-3.4069;
677.7000;0.4770;-3.4169;
678.0000;0.4811;-3.4094;
678.3000;0.4786;-3.4144;
678.6000;0.4794;-3.4069;
678.9000;0.4811;-3.4044;
679.2000;0.4794;-3.4044;
679.5000;0.4786;-3.4169;
679.8000;0.4803;-3.4094;
680.1000;0.4778;-3.4119;
680.4000;0.4794;-3.4069;
680.7000;0.4778;-3.4094;
681.0000;0.4803;-3.4094;
681.3000;0.4786;-3.4169;
681.6000;0.4786;-3.4144;
681.9000;0.4754;-3.4268;
682.2000;0.4835;-3.4144;
682.5000;0.4770;-3.4243;
682.8000;0.4770;-3.4144;
683.1000;0.4786;-3.4019;
683.4000;0.4851;-3.3870;
683.7000;0.4778;-3.4019;
684.0000;0.4860;-3.3820;
684.3000;0.4721;-3.4144;
684.6000;0.4778;-3.3920;
684.9000;0.4786;-3.3870;
685.2000;0.4786;-3.3845;
685.5000;0.4746;-3.3920;
685.8000;0.4762;-3.3895;
686.1000;0.4762;-3.3920;
686.4000;0.4770;-3.3994;
686.7000;0.4786;-3.3994;
687.0000;0.4746;-3.4019;
687.3000;0.4762;-3.3970;
687.6000;0.4754;-3.3994;
687.9000;0.4803;-3.3945;
688.2000;0.4746;-3.4119;
688.5000;0.4754;-3.4193;
688.8000;0.4746;-3.4218;
689.1000;0.4754;-3.4193;
689.4000;0.4762;-3.4094;
689.7000;0.4737;-3.4193;
690.0000;0.4786;-3.4193;
690.3000;0.4778;-3.4293;
690.6000;0.4762;-3.4367;
690.9000;0.4737;-3.4442;
691.2000;0.4746;-3.4318;
691.5000;0.4729;-3.4318;
691.8000;0.4754;-3.4169;
692.1000;0.4754;-3.4144;
692.4000;0.4762;-3.4019;
692.7000;0.4713;-3.4144;
693.0000;0.4762;-3.4019;
693.3000;0.4729;-3.4044;
693.6000;0.4729;-3.4069;
693.9000;0.4721;-3.4094;
694.2000;0.4746;-3.3970;
694.5000;0.4737;-3.3994;
694.8000;0.4721;-3.3994;
695.1000;0.4737;-3.3920;
695.4000;0.4705;-3.4094;
695.7000;0.4778;-3.3945;
696.0000;0.4737;-3.3994;
696.3000;0.4697;-3.3994;
696.6000;0.4721;-3.3970;
696.9000;0.4729;-3.3994;
697.2000;0.4721;-3.4094;
697.5000;0.4737;-3.4044;
697.8000;0.4721;-3.4044;
698.1000;0.4713;-3.4193;
698.4000;0.4746;-3.4193;
698.7000;0.4721;-3.4293;
699.0000;0.4713;-3.4293;
699.3000;0.4648;-3.4392;
699.6000;0.4729;-3.4169;
699.9000;0.4713;-3.4169;
700.2000;0.4729;-3.4119;
700.5000;0.4632;-3.4343;
700.8000;0.4721;-3.4069;
701.1000;0.4713;-3.4044;
701.4000;0.4705;-3.4069;
701.7000;0.4705;-3.4094;
702.0000;0.4697;-3.4094;
702.3000;0.4713;-3.4069;
702.6000;0.4713;-3.4169;
702.9000;0.4713;-3.4193;
703.2000;0.4721;-3.4144;
703.5000;0.4721;-3.4169;
703.8000;0.4713;-3.4193;
704.1000;0.4697;-3.4268;
704.4000;0.4721;-3.4268;
704.7000;0.4713;-3.4293;
705.0000;0.4713;-3.4218;
705.3000;0.4705;-3.4144;
705.6000;0.4697;-3.4193;
705.9000;0.4664;-3.4268;
706.2000;0.4697;-3.4119;
706.5000;0.4672;-3.4218;
706.8000;0.4705;-3.4044;
707.1000;0.4697;-3.4094;
707.4000;0.4697;-3.4169;
707.7000;0.4640;-3.4318;
708.0000;0.4672;-3.4169;
708.3000;0.4689;-3.4144;
708.6000;0.4762;-3.4044;
708.9000;0.4697;-3.4169;
709.2000;0.4681;-3.4193;
709.5000;0.4705;-3.4144;
709.8000;0.4697;-3.4243;
710.1000;0.4664;-3.4392;
710.4000;0.4664;-3.4318;
710.7000;0.4697;-3.4169;
711.0000;0.4705;-3.4193;
711.3000;0.4689;-3.4193;
711.6000;0.4681;-3.4218;
711.9000;0.4689;-3.4169;
712.2000;0.4681;-3.4144;
712.5000;0.4705;-3.4069;
712.8000;0.4689;-3.4094;
713.1000;0.4689;-3.4193;
713.4000;0.4672;-3.4193;
713.7000;0.4697;-3.4144;
714.0000;0.4697;-3.4144;
714.3000;0.4697;-3.4169;
714.6000;0.4697;-3.4144;
714.9000;0.4697;-3.4169;
715.2000;0.4697;-3.4193;
715.5000;0.4672;-3.4218;
715.8000;0.4672;-3.4293;
716.1000;0.4713;-3.4193;
716.4000;0.4697;-3.4144;
716.7000;0.4762;-3.3994;
717.0000;0.4770;-3.3970;
717.3000;0.4689;-3.4169;
717.6000;0.4689;-3.4169;
717.9000;0.4664;-3.4293;
718.2000;0.4689;-3.4243;
718.5000;0.4689;-3.4243;
718.8000;0.4689;-3.4193;
719.1000;0.4681;-3.4169;
719.4000;0.4648;-3.4268;
719.7000;0.4697;-3.4268;
720.0000;0.4672;-3.4343;
720.3000;0.4656;-3.4392;
720.6000;0.4664;-3.4417;
720.9000;0.4689;-3.4442;
721.2000;0.4672;-3.4517;
721.5000;0.4664;-3.4517;
721.8000;0.4672;-3.4417;
722.1000;0.4672;-3.4367;
722.4000;0.4656;-3.4442;
722.7000;0.4656;-3.4367;
723.0000;0.4656;-3.4343;
723.3000;0.4713;-3.4268;
723.6000;0.4656;-3.4392;
723.9000;0.4697;-3.4243;
724.2000;0.4681;-3.4293;
724.5000;0.4713;-3.4243;
724.8000;0.4672;-3.4243;
725.1000;0.4689;-3.4218;
725.4000;0.4640;-3.4343;
725.7000;0.4664;-3.4243;
726.0000;0.4656;-3.4243;
726.3000;0.4681;-3.4169;
726.6000;0.4656;-3.4169;
726.9000;0.4672;-3.4169;
727.2000;0.4681;-3.4144;
727.5000;0.4672;-3.4094;
727.8000;0.4672;-3.4044;
728.1000;0.4681;-3.4094;
728.4000;0.4656;-3.4019;
728.7000;0.4656;-3.3994;
729.0000;0.4656;-3.4069;
729.3000;0.4664;-3.3970;
729.6000;0.4672;-3.3970;
729.9000;0.4656;-3.4069;
730.2000;0.4664;-3.3970;
730.5000;0.4640;-3.4044;
730.8000;0.4664;-3.4119;
731.1000;0.4648;-3.4094;
731.4000;0.4648;-3.4094;
731.7000;0.4664;-3.4044;
732.0000;0.4664;-3.4069;
732.3000;0.4664;-3.4119;
732.6000;0.4656;-3.4119;
732.9000;0.4648;-3.4069;
733.2000;0.4632;-3.4144;
733.5000;0.4656;-3.4019;
733.8000;0.4648;-3.4119;
734.1000;0.4664;-3.4144;
734.4000;0.4648;-3.4144;
734.7000;0.4681;-3.4044;
735.0000;0.4640;-3.4144;
735.3000;0.4664;-3.4044;
735.6000;0.4664;-3.3970;
735.9000;0.4672;-3.3895;
736.2000;0.4681;-3.3870;
736.5000;0.4648;-3.3870;
736.8000;0.4656;-3.3845;
737.1000;0.4664;-3.3870;
737.4000;0.4672;-3.3870;
737.7000;0.4632;-3.4069;
738.0000;0.4648;-3.4044;
738.3000;0.4681;-3.3920;
738.6000;0.4656;-3.3970;
738.9000;0.4648;-3.3994;
739.2000;0.4803;-3.3646;
739.5000;0.4664;-3.4019;
739.8000;0.4648;-3.3945;
740.1000;0.4746;-3.3721;
740.4000;0.4648;-3.3970;
740.7000;0.4648;-3.4044;
741.0000;0.4615;-3.4144;
741.3000;0.4648;-3.3945;
741.6000;0.4648;-3.4019;
741.9000;0.4648;-3.4094;
742.2000;0.4640;-3.4144;
742.5000;0.4664;-3.4069;
742.8000;0.4648;-3.4193;
743.1000;0.4672;-3.4094;
743.4000;0.4632;-3.4193;
743.7000;0.4648;-3.4243;
744.0000;0.4640;-3.4243;
744.3000;0.4648;-3.4218;
744.6000;0.4640;-3.4343;
744.9000;0.4632;-3.4318;
745.2000;0.4640;-3.4268;
745.5000;0.4648;-3.4144;
745.8000;0.4607;-3.4318;
746.1000;0.4648;-3.4069;
746.4000;0.4640;-3.4119;
746.7000;0.4664;-3.4044;
747.0000;0.4664;-3.4044;
747.3000;0.4648;-3.4169;
747.6000;0.4632;-3.4119;
747.9000;0.4624;-3.4218;
748.2000;0.4648;-3.4169;
748.5000;0.4632;-3.4243;
748.8000;0.4607;-3.4318;
749.1000;0.4648;-3.4218;
749.4000;0.4624;-3.4218;
749.7000;0.4624;-3.4169;
750.0000;0.4624;-3.4144;
750.3000;0.4640;-3.4144;
750.6000;0.4615;-3.4318;
750.9000;0.4648;-3.4218;
751.2000;0.4656;-3.4218;
751.5000;0.4648;-3.4343;
751.8000;0.4664;-3.4343;
752.1000;0.4640;-3.4318;
752.4000;0.4624;-3.4343;
752.7000;0.4640;-3.4293;
753.0000;0.4656;-3.4293;
753.3000;0.4648;-3.4367;
753.6000;0.4664;-3.4268;
753.9000;0.4624;-3.4417;
754.2000;0.4664;-3.4193;
754.5000;0.4640;-3.4268;
754.8000;0.4640;-3.4218;
755.1000;0.4591;-3.4293;
755.4000;0.4648;-3.4069;
755.7000;0.4640;-3.4044;
756.0000;0.4640;-3.4119;
756.3000;0.4640;-3.4069;
756.6000;0.4664;-3.4069;
756.9000;0.4583;-3.4268;
757.2000;0.4632;-3.4144;
757.5000;0.4632;-3.4169;
757.8000;0.4648;-3.4069;
758.1000;0.4648;-3.3994;
758.4000;0.4640;-3.4094;
758.7000;0.4624;-3.4094;
759.0000;0.4624;-3.4243;
759.3000;0.4656;-3.4169;
759.6000;0.4640;-3.4193;
759.9000;0.4640;-3.4193;
760.2000;0.4640;-3.4218;
760.5000;0.4640;-3.4268;
760.8000;0.4640;-3.4293;
761.1000;0.4624;-3.4243;
761.4000;0.4607;-3.4169;
761.7000;0.4640;-3.3994;
762.0000;0.4656;-3.3920;
762.3000;0.4591;-3.4094;
762.6000;0.4632;-3.3994;
762.9000;0.4624;-3.4044;
763.2000;0.4567;-3.4218;
763.5000;0.4632;-3.4069;
763.8000;0.4648;-3.4094;
764.1000;0.4697;-3.3970;
764.4000;0.4681;-3.3994;
764.7000;0.4632;-3.3920;
765.0000;0.4632;-3.3970;
765.3000;0.4567;-3.4144;
765.6000;0.4656;-3.3895;
765.9000;0.4640;-3.3920;
766.2000;0.4624;-3.4019;
766.5000;0.4632;-3.3945;
766.8000;0.4632;-3.4019;
767.1000;0.4640;-3.4069;
767.4000;0.4640;-3.4094;
767.7000;0.4640;-3.4169;
768.0000;0.4648;-3.4169;
768.3000;0.4632;-3.4218;
768.6000;0.4632;-3.4169;
768.9000;0.4632;-3.4119;
769.2000;0.4624;-3.4119;
769.5000;0.4624;-3.4193;
769.8000;0.4632;-3.4119;
770.1000;0.4640;-3.4094;
770.4000;0.4591;-3.4218;
770.7000;0.4632;-3.4119;
771.0000;0.4664;-3.3994;
771.3000;0.4615;-3.4144;
771.6000;0.4656;-3.3994;
771.9000;0.4632;-3.4044;
772.2000;0.4664;-3.3994;
772.5000;0.4656;-3.4169;
772.8000;0.4607;-3.4268;
773.1000;0.4632;-3.4144;
773.4000;0.4615;-3.4218;
773.7000;0.4640;-3.4144;
774.0000;0.4599;-3.4193;
774.3000;0.4640;-3.4218;
774.6000;0.4624;-3.4218;
774.9000;0.4648;-3.4193;
775.2000;0.4632;-3.4243;
775.5000;0.4624;-3.4218;
775.8000;0.4624;-3.4243;
776.1000;0.4518;-3.4492;
776.4000;0.4648;-3.4218;
776.7000;0.4640;-3.4218;
777.0000;0.4656;-3.4218;
777.3000;0.4656;-3.4268;
777.6000;0.4640;-3.4417;
777.9000;0.4681;-3.4243;
778.2000;0.4542;-3.4517;
778.5000;0.4632;-3.4243;
778.8000;0.4624;-3.4268;
779.1000;0.4640;-3.4268;
779.4000;0.4624;-3.4343;
779.7000;0.4656;-3.4318;
780.0000;0.4681;-3.4218;
780.3000;0.4705;-3.4119;
780.6000;0.4632;-3.4293;
780.9000;0.4575;-3.4467;
781.2000;0.4583;-3.4392;
781.5000;0.4632;-3.4343;
781.8000;0.4632;-3.4442;
782.1000;0.4615;-3.4417;
782.4000;0.4591;-3.4542;
782.7000;0.4689;-3.4119;
783.0000;0.4615;-3.4243;
783.3000;0.4648;-3.4218;
783.6000;0.4615;-3.4243;
783.9000;0.4624;-3.4268;
784.2000;0.4640;-3.4243;
784.5000;0.4640;-3.4218;
784.8000;0.4632;-3.4243;
785.1000;0.4615;-3.4268;
785.4000;0.4607;-3.4293;
785.7000;0.4615;-3.4392;
786.0000;0.4624;-3.4367;
786.3000;0.4607;-3.4442;
786.6000;0.4599;-3.4542;
786.9000;0.4648;-3.4392;
787.2000;0.4648;-3.4318;
787.5000;0.4632;-3.4293;
787.8000;0.4615;-3.4293;
788.1000;0.4632;-3.4193;
788.4000;0.4624;-3.4243;
788.7000;0.4624;-3.4268;
789.0000;0.4640;-3.4268;
789.3000;0.4648;-3.4169;
789.6000;0.4607;-3.4218;
789.9000;0.4632;-3.4193;
790.2000;0.4599;-3.4144;
790.5000;0.4624;-3.4119;
790.8000;0.4632;-3.4069;
791.1000;0.4591;-3.4268;
791.4000;0.4615;-3.4268;
791.7000;0.4632;-3.4243;
792.0000;0.4624;-3.4268;
792.3000;0.4615;-3.4268;
792.6000;0.4607;-3.4243;
792.9000;0.4558;-3.4343;
793.2000;0.4599;-3.4268;
793.5000;0.4607;-3.4318;
793.8000;0.4599;-3.4367;
794.1000;0.4607;-3.4343;
794.4000;0.4672;-3.4268;
794.7000;0.4632;-3.4293;
795.0000;0.4615;-3.4293;
795.3000;0.4615;-3.4193;
795.6000;0.4624;-3.4218;
795.9000;0.4607;-3.4243;
796.2000;0.4615;-3.4243;
796.5000;0.4624;-3.4293;
796.8000;0.4624;-3.4343;
797.1000;0.4624;-3.4343;
797.4000;0.4607;-3.4442;
797.7000;0.4607;-3.4367;
798.0000;0.4640;-3.4243;
798.3000;0.4599;-3.4293;
798.6000;0.4624;-3.4243;
798.9000;0.4558;-3.4417;
799.2000;0.4607;-3.4268;
799.5000;0.4615;-3.4268;
799.8000;0.4632;-3.4293;
800.1000;0.4681;-3.4144;
800.4000;0.4632;-3.4218;
800.7000;0.4632;-3.4218;
801.0000;0.4624;-3.4193;
801.3000;0.4640;-3.4119;
801.6000;0.4607;-3.4169;
801.9000;0.4558;-3.4343;
802.2000;0.4697;-3.4169;
802.5000;0.4632;-3.4367;
802.8000;0.4615;-3.4367;
803.1000;0.4624;-3.4367;
803.4000;0.4615;-3.4318;
803.7000;0.4615;-3.4318;
804.0000;0.4632;-3.4268;
804.3000;0.4607;-3.4268;
804.6000;0.4624;-3.4193;
804.9000;0.4624;-3.4169;
805.2000;0.4632;-3.4169;
805.5000;0.4615;-3.4169;
805.8000;0.4632;-3.4144;
806.1000;0.4615;-3.4144;
806.4000;0.4615;-3.4169;
806.7000;0.4624;-3.4169;
807.0000;0.4615;-3.4268;
807.3000;0.4607;-3.4193;
807.6000;0.4624;-3.4094;
807.9000;0.4640;-3.4069;
808.2000;0.4624;-3.4019;
808.5000;0.4607;-3.4069;
808.8000;0.4624;-3.4119;
809.1000;0.4624;-3.4019;
809.4000;0.4583;-3.4193;
809.7000;0.4607;-3.4144;
810.0000;0.4624;-3.4144;
810.3000;0.4632;-3.4094;
810.6000;0.4591;-3.4144;
810.9000;0.4599;-3.4193;
811.2000;0.4624;-3.4119;
811.5000;0.4624;-3.4169;
811.8000;0.4607;-3.4218;
812.1000;0.4607;-3.3994;
812.4000;0.4648;-3.3920;
812.7000;0.4640;-3.3994;
813.0000;0.4615;-3.4019;
813.3000;0.4632;-3.3970;
813.6000;0.4615;-3.4069;
813.9000;0.4624;-3.3920;
814.2000;0.4615;-3.3970;
814.5000;0.4599;-3.4044;
814.8000;0.4615;-3.3970;
815.1000;0.4632;-3.3970;
815.4000;0.4672;-3.3920;
815.7000;0.4624;-3.4044;
816.0000;0.4607;-3.4094;
816.3000;0.4599;-3.4144;
816.6000;0.4615;-3.4193;
816.9000;0.4624;-3.4193;
817.2000;0.4615;-3.4243;
817.5000;0.4615;-3.4243;
817.8000;0.4599;-3.4318;
818.1000;0.4615;-3.4268;
818.4000;0.4697;-3.4044;
818.7000;0.4615;-3.4169;
819.0000;0.4607;-3.4243;
819.3000;0.4599;-3.4318;
819.6000;0.4607;-3.4318;
819.9000;0.4607;-3.4318;
820.2000;0.4607;-3.4268;
820.5000;0.4607;-3.4268;
820.8000;0.4615;-3.4243;
821.1000;0.4632;-3.4119;
821.4000;0.4607;-3.4094;
821.7000;0.4615;-3.4069;
822.0000;0.4591;-3.4094;
822.3000;0.4615;-3.4044;
822.6000;0.4624;-3.3994;
822.9000;0.4599;-3.4019;
823.2000;0.4624;-3.4069;
823.5000;0.4624;-3.4069;
823.8000;0.4607;-3.4193;
824.1000;0.4624;-3.4193;
824.4000;0.4615;-3.4169;
824.7000;0.4632;-3.4119;
825.0000;0.4632;-3.4044;
825.3000;0.4615;-3.4069;
825.6000;0.4615;-3.4119;
825.9000;0.4542;-3.4318;
826.2000;0.4624;-3.4119;
826.5000;0.4624;-3.4144;
826.8000;0.4624;-3.4218;
827.1000;0.4607;-3.4243;
827.4000;0.4607;-3.4243;
827.7000;0.4624;-3.4193;
828.0000;0.4607;-3.4094;
828.3000;0.4640;-3.4069;
828.6000;0.4615;-3.4119;
828.9000;0.4664;-3.3945;
829.2000;0.4624;-3.4144;
829.5000;0.4615;-3.4069;
829.8000;0.4624;-3.4094;
830.1000;0.4640;-3.4094;
830.4000;0.4615;-3.4119;
830.7000;0.4615;-3.4144;
831.0000;0.4615;-3.4094;
831.3000;0.4640;-3.4019;
831.6000;0.4632;-3.4119;
831.9000;0.4607;-3.4169;
832.2000;0.4607;-3.4243;
832.5000;0.4632;-3.4119;
832.8000;0.4624;-3.4119;
833.1000;0.4615;-3.4119;
833.4000;0.4583;-3.4218;
833.7000;0.4624;-3.4094;
834.0000;0.4607;-3.4193;
834.3000;0.4607;-3.4119;
834.6000;0.4607;-3.4069;
834.9000;0.4632;-3.4069;
835.2000;0.4615;-3.4044;
835.5000;0.4615;-3.4044;
835.8000;0.4615;-3.4119;
836.1000;0.4624;-3.4144;
836.4000;0.4632;-3.4218;
836.7000;0.4632;-3.4218;
837.0000;0.4615;-3.4094;
837.3000;0.4607;-3.4094;
837.6000;0.4607;-3.4119;
837.9000;0.4615;-3.4243;
838.2000;0.4713;-3.3994;
838.5000;0.4599;-3.4268;
838.8000;0.4615;-3.4169;
839.1000;0.4550;-3.4367;
839.4000;0.4607;-3.4144;
839.7000;0.4607;-3.4094;
840.0000;0.4615;-3.3994;
840.3000;0.4615;-3.3970;
840.6000;0.4624;-3.3945;
840.9000;0.4599;-3.4044;
841.2000;0.4583;-3.3994;
841.5000;0.4632;-3.3920;
841.8000;0.4575;-3.4019;
842.1000;0.4607;-3.3994;
842.4000;0.4599;-3.4044;
842.7000;0.4632;-3.3970;
843.0000;0.4615;-3.4069;
843.3000;0.4615;-3.4144;
843.6000;0.4599;-3.4193;
843.9000;0.4615;-3.4144;
844.2000;0.4615;-3.4044;
844.5000;0.4615;-3.4044;
844.8000;0.4689;-3.3746;
845.1000;0.4632;-3.3945;
845.4000;0.4615;-3.4019;
845.7000;0.4624;-3.3994;
846.0000;0.4599;-3.4019;
846.3000;0.4591;-3.4019;
846.6000;0.4624;-3.4044;
846.9000;0.4615;-3.4069;
847.2000;0.4632;-3.3970;
847.5000;0.4624;-3.4119;
847.8000;0.4615;-3.4144;
848.1000;0.4575;-3.4268;
848.4000;0.4624;-3.4069;
848.7000;0.4607;-3.4144;
849.0000;0.4607;-3.4193;
849.3000;0.4607;-3.4193;
849.6000;0.4607;-3.4193;
849.9000;0.4729;-3.3845;
850.2000;0.4607;-3.4069;
850.5000;0.4607;-3.3994;
850.8000;0.4599;-3.3920;
851.1000;0.4624;-3.3895;
851.4000;0.4591;-3.3945;
851.7000;0.4607;-3.4069;
852.0000;0.4615;-3.4069;
852.3000;0.4607;-3.4119;
852.6000;0.4615;-3.4019;
852.9000;0.4705;-3.3721;
853.2000;0.4599;-3.3970;
853.5000;0.4615;-3.3945;
853.8000;0.4615;-3.3895;
854.1000;0.4599;-3.4019;
854.4000;0.4599;-3.4019;
854.7000;0.4624;-3.3970;
855.0000;0.4632;-3.3895;
855.3000;0.4624;-3.3920;
855.6000;0.4624;-3.4044;
855.9000;0.4615;-3.4069;
856.2000;0.4526;-3.4268;
856.5000;0.4615;-3.4094;
856.8000;0.4607;-3.4169;
857.1000;0.4615;-3.4119;
857.4000;0.4632;-3.3945;
857.7000;0.4615;-3.3920;
858.0000;0.4624;-3.3920;
858.3000;0.4632;-3.3970;
858.6000;0.4624;-3.3970;
858.9000;0.4632;-3.3994;
859.2000;0.4607;-3.4119;
859.5000;0.4615;-3.4044;
859.8000;0.4648;-3.4069;
860.1000;0.4624;-3.4119;
860.4000;0.4624;-3.4044;
860.7000;0.4607;-3.3994;
861.0000;0.4607;-3.3970;
861.3000;0.4607;-3.3870;
861.6000;0.4607;-3.3920;
861.9000;0.4615;-3.3970;
862.2000;0.4656;-3.3945;
862.5000;0.4607;-3.4069;
862.8000;0.4615;-3.4019;
863.1000;0.4624;-3.3994;
863.4000;0.4607;-3.4019;
863.7000;0.4615;-3.4019;
864.0000;0.4624;-3.3994;
864.3000;0.4607;-3.4119;
864.6000;0.4599;-3.4119;
864.9000;0.4615;-3.4144;
865.2000;0.4615;-3.4144;
865.5000;0.4583;-3.4218;
865.8000;0.4583;-3.4218;
866.1000;0.4607;-3.4318;
866.4000;0.4591;-3.4367;
866.7000;0.4632;-3.4318;
867.0000;0.4648;-3.4243;
867.3000;0.4615;-3.4293;
867.6000;0.4632;-3.4218;
867.9000;0.4624;-3.4193;
868.2000;0.4624;-3.4193;
868.5000;0.4615;-3.4169;
868.8000;0.4615;-3.4094;
869.1000;0.4632;-3.4069;
869.4000;0.4640;-3.4019;
869.7000;0.4624;-3.3970;
870.0000;0.4607;-3.4069;
870.3000;0.4624;-3.4044;
870.6000;0.4624;-3.4019;
870.9000;0.4615;-3.4044;
871.2000;0.4624;-3.4069;
871.5000;0.4624;-3.4094;
871.8000;0.4624;-3.4044;
872.1000;0.4705;-3.3796;
872.4000;0.4607;-3.4019;
872.7000;0.4615;-3.3970;
873.0000;0.4615;-3.3994;
873.3000;0.4656;-3.3870;
873.6000;0.4591;-3.4094;
873.9000;0.4591;-3.4119;
874.2000;0.4599;-3.3945;
874.5000;0.4624;-3.3895;
874.8000;0.4615;-3.3945;
875.1000;0.4534;-3.4069;
875.4000;0.4615;-3.3870;
875.7000;0.4615;-3.3870;
876.0000;0.4607;-3.3945;
876.3000;0.4607;-3.4044;
876.6000;0.4607;-3.4044;
876.9000;0.4615;-3.3994;
877.2000;0.4624;-3.4019;
877.5000;0.4607;-3.4044;
877.8000;0.4624;-3.4069;
878.1000;0.4599;-3.4019;
878.4000;0.4599;-3.3970;
878.7000;0.4607;-3.4044;
879.0000;0.4624;-3.4044;
879.3000;0.4583;-3.4144;
879.6000;0.4632;-3.4044;
879.9000;0.4632;-3.4094;
880.2000;0.4640;-3.4094;
880.5000;0.4615;-3.4119;
880.8000;0.4615;-3.4094;
881.1000;0.4624;-3.3994;
881.4000;0.4591;-3.3994;
881.7000;0.4599;-3.3945;
882.0000;0.4607;-3.3970;
882.3000;0.4599;-3.3945;
882.6000;0.4607;-3.3970;
882.9000;0.4615;-3.3945;
883.2000;0.4607;-3.3945;
883.5000;0.4624;-3.3970;
883.8000;0.4624;-3.3994;
884.1000;0.4624;-3.4019;
884.4000;0.4583;-3.4144;
884.7000;0.4624;-3.4119;
885.0000;0.4624;-3.4119;
885.3000;0.4648;-3.4144;
885.6000;0.4599;-3.4193;
885.9000;0.4648;-3.4069;
886.2000;0.4624;-3.4169;
886.5000;0.4721;-3.3970;
886.8000;0.4615;-3.4243;
887.1000;0.4632;-3.4169;
887.4000;0.4640;-3.4094;
887.7000;0.4615;-3.4243;
888.0000;0.4615;-3.4243;
888.3000;0.4615;-3.4218;
888.6000;0.4615;-3.4044;
888.9000;0.4599;-3.4069;
889.2000;0.4607;-3.3994;
889.5000;0.4599;-3.4044;
889.8000;0.4599;-3.3994;
890.1000;0.4599;-3.3895;
890.4000;0.4599;-3.4019;
890.7000;0.4607;-3.3994;
891.0000;0.4640;-3.3870;
891.3000;0.4607;-3.4019;
891.6000;0.4615;-3.4019;
891.9000;0.4615;-3.3994;
892.2000;0.4615;-3.3970;
892.5000;0.4632;-3.3845;
892.8000;0.4591;-3.3970;
893.1000;0.4632;-3.3945;
893.4000;0.4615;-3.3845;
893.7000;0.4607;-3.3820;
894.0000;0.4534;-3.4044;
894.3000;0.4681;-3.3721;
894.6000;0.4640;-3.4019;
894.9000;0.4599;-3.4144;
895.2000;0.4681;-3.3920;
895.5000;0.4648;-3.3994;
895.8000;0.4591;-3.4044;
896.1000;0.4567;-3.4119;
896.4000;0.4615;-3.3920;
896.7000;0.4615;-3.3945;
897.0000;0.4599;-3.3945;
897.3000;0.4550;-3.4094;
897.6000;0.4599;-3.4019;
897.9000;0.4664;-3.3945;
898.2000;0.4624;-3.4044;
898.5000;0.4599;-3.4119;
898.8000;0.4615;-3.4044;
899.1000;0.4624;-3.4019;
899.4000;0.4607;-3.3945;
899.7000;0.4624;-3.3945;
900.0000;0.4607;-3.3994;
900.3000;0.4607;-3.4019;
900.6000;0.4624;-3.4069;
900.9000;0.4632;-3.4019;
901.2000;0.4615;-3.4144;
901.5000;0.4583;-3.4193;
901.8000;0.4615;-3.4169;
902.1000;0.4599;-3.4119;
902.4000;0.4607;-3.4119;
902.7000;0.4599;-3.4119;
903.0000;0.4615;-3.4044;
903.3000;0.4624;-3.3994;
903.6000;0.4599;-3.4019;
903.9000;0.4607;-3.3994;
904.2000;0.4615;-3.3970;
904.5000;0.4624;-3.4044;
904.8000;0.4632;-3.4044;
905.1000;0.4624;-3.4119;
905.4000;0.4599;-3.4119;
905.7000;0.4615;-3.4044;
906.0000;0.4615;-3.4069;
906.3000;0.4599;-3.4169;
906.6000;0.4640;-3.4019;
906.9000;0.4599;-3.3970;
907.2000;0.4624;-3.3920;
907.5000;0.4624;-3.3920;
907.8000;0.4599;-3.4044;
908.1000;0.4624;-3.3970;
908.4000;0.4615;-3.3945;
908.7000;0.4615;-3.3920;
909.0000;0.4599;-3.3870;
909.3000;0.4607;-3.3994;
909.6000;0.4624;-3.4044;
909.9000;0.4567;-3.4094;
910.2000;0.4607;-3.3994;
910.5000;0.4697;-3.3771;
910.8000;0.4607;-3.3895;
911.1000;0.4591;-3.3945;
911.4000;0.4607;-3.3920;
911.7000;0.4624;-3.3771;
912.0000;0.4632;-3.3820;
912.3000;0.4624;-3.3970;
912.6000;0.4591;-3.4044;
912.9000;0.4615;-3.3994;
913.2000;0.4599;-3.3970;
913.5000;0.4607;-3.3945;
913.8000;0.4624;-3.3895;
914.1000;0.4664;-3.3696;
914.4000;0.4607;-3.3920;
914.7000;0.4607;-3.3845;
915.0000;0.4615;-3.3820;
915.3000;0.4615;-3.3870;
915.6000;0.4599;-3.3845;
915.9000;0.4624;-3.3746;
916.2000;0.4624;-3.3820;
916.5000;0.4599;-3.3845;
916.8000;0.4607;-3.3796;
917.1000;0.4615;-3.3771;
917.4000;0.4607;-3.3771;
917.7000;0.4567;-3.3994;
918.0000;0.4672;-3.3746;
918.3000;0.4632;-3.3870;
918.6000;0.4624;-3.3970;
918.9000;0.4640;-3.4019;
919.2000;0.4624;-3.4144;
919.5000;0.4624;-3.4119;
919.8000;0.4615;-3.4169;
920.1000;0.4624;-3.4119;
920.4000;0.4607;-3.4169;
920.7000;0.4624;-3.4193;
921.0000;0.4615;-3.4094;
921.3000;0.4607;-3.4044;
921.6000;0.4607;-3.4119;
921.9000;0.4624;-3.4119;
922.2000;0.4632;-3.4119;
922.5000;0.4591;-3.4094;
922.8000;0.4624;-3.3970;
923.1000;0.4615;-3.3920;
923.4000;0.4607;-3.3895;
923.7000;0.4607;-3.3845;
924.0000;0.4624;-3.3870;
924.3000;0.4575;-3.3920;
924.6000;0.4599;-3.4019;
924.9000;0.4591;-3.4094;
925.2000;0.4624;-3.3970;
925.5000;0.4607;-3.3870;
925.8000;0.4615;-3.3771;
926.1000;0.4607;-3.3870;
926.4000;0.4607;-3.4044;
926.7000;0.4632;-3.4019;
927.0000;0.4624;-3.3970;
927.3000;0.4599;-3.3970;
927.6000;0.4599;-3.3845;
927.9000;0.4624;-3.3845;
928.2000;0.4615;-3.3994;
928.5000;0.4615;-3.4044;
928.8000;0.4615;-3.3945;
929.1000;0.4607;-3.3970;
929.4000;0.4615;-3.3845;
929.7000;0.4615;-3.3895;
930.0000;0.4607;-3.3895;
930.3000;0.4624;-3.3920;
930.6000;0.4624;-3.3970;
930.9000;0.4607;-3.4044;
931.2000;0.4624;-3.4069;
931.5000;0.4624;-3.3970;
931.8000;0.4607;-3.3970;
932.1000;0.4615;-3.4044;
932.4000;0.4607;-3.4069;
932.7000;0.4615;-3.4069;
933.0000;0.4615;-3.4044;
933.3000;0.4607;-3.4144;
933.6000;0.4599;-3.4169;
933.9000;0.4599;-3.4144;
934.2000;0.4624;-3.4094;
934.5000;0.4615;-3.4069;
934.8000;0.4607;-3.3970;
935.1000;0.4624;-3.3920;
935.4000;0.4599;-3.4044;
935.7000;0.4607;-3.4069;
936.0000;0.4615;-3.4044;
936.3000;0.4624;-3.4019;
936.6000;0.4607;-3.4044;
936.9000;0.4607;-3.3945;
937.2000;0.4624;-3.3970;
937.5000;0.4599;-3.3920;
937.8000;0.4575;-3.4019;
938.1000;0.4591;-3.4044;
938.4000;0.4615;-3.3945;
938.7000;0.4624;-3.3895;
939.0000;0.4615;-3.3945;
939.3000;0.4599;-3.4069;
939.6000;0.4599;-3.4019;
939.9000;0.4615;-3.4019;
940.2000;0.4632;-3.4019;
940.5000;0.4607;-3.4044;
940.8000;0.4615;-3.4119;
941.1000;0.4599;-3.4094;
941.4000;0.4607;-3.4019;
941.7000;0.4607;-3.3994;
942.0000;0.4599;-3.4069;
942.3000;0.4558;-3.4169;
942.6000;0.4615;-3.4044;
942.9000;0.4615;-3.4094;
943.2000;0.4599;-3.4144;
943.5000;0.4615;-3.4169;
943.8000;0.4591;-3.4193;
944.1000;0.4607;-3.4144;
944.4000;0.4607;-3.4119;
944.7000;0.4575;-3.4268;
945.0000;0.4599;-3.4169;
945.3000;0.4607;-3.4144;
945.6000;0.4607;-3.4069;
945.9000;0.4615;-3.4044;
946.2000;0.4624;-3.4144;
946.5000;0.4632;-3.4094;
946.8000;0.4615;-3.4094;
947.1000;0.4599;-3.4169;
947.4000;0.4607;-3.4144;
947.7000;0.4624;-3.4094;
948.0000;0.4599;-3.4119;
948.3000;0.4640;-3.4044;
948.6000;0.4607;-3.4094;
948.9000;0.4607;-3.3994;
949.2000;0.4599;-3.3895;
949.5000;0.4583;-3.3895;
949.8000;0.4607;-3.3895;
950.1000;0.4615;-3.3845;
950.4000;0.4599;-3.3920;
950.7000;0.4640;-3.3870;
951.0000;0.4607;-3.4069;
951.3000;0.4607;-3.3970;
951.6000;0.4599;-3.3870;
951.9000;0.4607;-3.3895;
952.2000;0.4607;-3.3820;
952.5000;0.4591;-3.3820;
952.8000;0.4607;-3.3845;
953.1000;0.4624;-3.3920;
953.4000;0.4591;-3.3970;
953.7000;0.4656;-3.3895;
954.0000;0.4615;-3.4069;
954.3000;0.4615;-3.4044;
954.6000;0.4615;-3.3970;
954.9000;0.4624;-3.3945;
955.2000;0.4624;-3.3920;
955.5000;0.4558;-3.3994;
955.8000;0.4607;-3.3895;
956.1000;0.4591;-3.3945;
956.4000;0.4607;-3.3945;
956.7000;0.4615;-3.3870;
957.0000;0.4607;-3.3870;
957.3000;0.4591;-3.3945;
957.6000;0.4591;-3.3994;
957.9000;0.4591;-3.3945;
958.2000;0.4567;-3.4119;
958.5000;0.4591;-3.3994;
958.8000;0.4615;-3.4044;
959.1000;0.4599;-3.4044;
959.4000;0.4607;-3.4044;
959.7000;0.4591;-3.4069;
960.0000;0.4607;-3.4044;
960.3000;0.4624;-3.4044;
960.6000;0.4591;-3.4119;
960.9000;0.4607;-3.4119;
961.2000;0.4591;-3.4094;
961.5000;0.4599;-3.4044;
961.8000;0.4599;-3.3994;
962.1000;0.4615;-3.3845;
962.4000;0.4591;-3.3796;
962.7000;0.4624;-3.3721;
963.0000;0.4607;-3.3696;
963.3000;0.4607;-3.3671;
963.6000;0.4607;-3.3671;
963.9000;0.4624;-3.3646;
964.2000;0.4599;-3.3796;
964.5000;0.4583;-3.3845;
964.8000;0.4599;-3.3870;
965.1000;0.4607;-3.3820;
965.4000;0.4664;-3.3820;
965.7000;0.4607;-3.3920;
966.0000;0.4607;-3.3945;
966.3000;0.4591;-3.3945;
966.6000;0.4607;-3.3845;
966.9000;0.4534;-3.4119;
967.2000;0.4664;-3.3721;
967.5000;0.4681;-3.3671;
967.8000;0.4615;-3.3870;
968.1000;0.4607;-3.3870;
968.4000;0.4607;-3.3870;
968.7000;0.4583;-3.3920;
969.0000;0.4640;-3.3771;
969.3000;0.4615;-3.3870;
969.6000;0.4615;-3.3771;
969.9000;0.4599;-3.3895;
970.2000;0.4632;-3.3845;
970.5000;0.4583;-3.3945;
970.8000;0.4599;-3.3845;
971.1000;0.4599;-3.3895;
971.4000;0.4583;-3.3970;
971.7000;0.4599;-3.3945;
972.0000;0.4599;-3.3945;
972.3000;0.4575;-3.3994;
972.6000;0.4591;-3.4044;
972.9000;0.4575;-3.4044;
973.2000;0.4632;-3.3895;
973.5000;0.4599;-3.4019;
973.8000;0.4607;-3.3970;
974.1000;0.4599;-3.3920;
974.4000;0.4591;-3.4044;
974.7000;0.4534;-3.4218;
975.0000;0.4607;-3.4094;
975.3000;0.4615;-3.4119;
975.6000;0.4615;-3.4069;
975.9000;0.4583;-3.4094;
976.2000;0.4615;-3.4094;
976.5000;0.4624;-3.3970;
976.8000;0.4607;-3.4094;
977.1000;0.4607;-3.4094;
977.4000;0.4599;-3.4119;
977.7000;0.4632;-3.4069;
978.0000;0.4615;-3.4019;
978.3000;0.4624;-3.3945;
978.6000;0.4607;-3.3920;
978.9000;0.4607;-3.3895;
979.2000;0.4640;-3.3870;
979.5000;0.4591;-3.4019;
979.8000;0.4591;-3.3994;
980.1000;0.4575;-3.3970;
980.4000;0.4607;-3.3920;
980.7000;0.4583;-3.4069;
981.0000;0.4607;-3.3994;
981.3000;0.4607;-3.3945;
981.6000;0.4607;-3.3994;
981.9000;0.4624;-3.4019;
982.2000;0.4575;-3.4144;
982.5000;0.4615;-3.3994;
982.8000;0.4591;-3.4069;
983.1000;0.4599;-3.4119;
983.4000;0.4567;-3.4193;
983.7000;0.4599;-3.4218;
984.0000;0.4583;-3.4243;
984.3000;0.4583;-3.4243;
984.6000;0.4607;-3.4193;
984.9000;0.4615;-3.4144;
985.2000;0.4591;-3.4268;
985.5000;0.4591;-3.4243;
985.8000;0.4656;-3.4019;
986.1000;0.4607;-3.4169;
986.4000;0.4607;-3.4243;
986.7000;0.4607;-3.4169;
987.0000;0.4607;-3.3970;
987.3000;0.4542;-3.4144;
987.6000;0.4615;-3.4069;
987.9000;0.4550;-3.4193;
988.2000;0.4615;-3.3994;
988.5000;0.4607;-3.4144;
988.8000;0.4607;-3.4119;
989.1000;0.4583;-3.4094;
989.4000;0.4583;-3.4119;
989.7000;0.4648;-3.4019;
990.0000;0.4575;-3.4218;
990.3000;0.4599;-3.4218;
990.6000;0.4607;-3.4169;
990.9000;0.4721;-3.3945;
991.2000;0.4567;-3.4343;
991.5000;0.4599;-3.4318;
991.8000;0.4607;-3.4218;
992.1000;0.4607;-3.4169;
992.4000;0.4607;-3.4193;
992.7000;0.4607;-3.4218;
993.0000;0.4599;-3.4268;
993.3000;0.4607;-3.4119;
993.6000;0.4591;-3.4169;
993.9000;0.4599;-3.4218;
994.2000;0.4591;-3.4268;
994.5000;0.4591;-3.4268;
994.8000;0.4607;-3.4268;
995.1000;0.4599;-3.4169;
995.4000;0.4599;-3.4243;
995.7000;0.4550;-3.4218;
996.0000;0.4599;-3.4144;
996.3000;0.4591;-3.4268;
996.6000;0.4591;-3.4293;
996.9000;0.4599;-3.4243;
997.2000;0.4583;-3.4268;
997.5000;0.4615;-3.4119;
997.8000;0.4599;-3.4193;
998.1000;0.4599;-3.4119;
998.4000;0.4550;-3.4218;
998.7000;0.4615;-3.4119;
999.0000;0.4615;-3.4044;
999.3000;0.4607;-3.4044;
999.6000;0.4624;-3.3945;
999.9000;0.4615;-3.3895;
1000.2000;0.4583;-3.3870;
1000.5000;0.4599;-3.3895;
1000.8000;0.4583;-3.3994;
1001.1000;0.4599;-3.3994;
1001.4000;0.4583;-3.3970;
1001.7000;0.4599;-3.3970;
1002.0000;0.4599;-3.4094;
1002.3000;0.4607;-3.4069;
1002.6000;0.4607;-3.4119;
1002.9000;0.4599;-3.4094;
1003.2000;0.4599;-3.4044;
1003.5000;0.4607;-3.3920;
1003.8000;0.4615;-3.3945;
1004.1000;0.4648;-3.3845;
1004.4000;0.4640;-3.3895;
1004.7000;0.4672;-3.3920;
1005.0000;0.4615;-3.4069;
1005.3000;0.4624;-3.4069;
1005.6000;0.4591;-3.4069;
1005.9000;0.4599;-3.4094;
1006.2000;0.4615;-3.3994;
1006.5000;0.4591;-3.4069;
1006.8000;0.4583;-3.4144;
1007.1000;0.4591;-3.4144;
1007.4000;0.4583;-3.4193;
1007.7000;0.4591;-3.4243;
1008.0000;0.4542;-3.4268;
1008.3000;0.4607;-3.4144;
1008.6000;0.4591;-3.4243;
1008.9000;0.4648;-3.4069;
1009.2000;0.4615;-3.4218;
1009.5000;0.4591;-3.4218;
1009.8000;0.4615;-3.4069;
1010.1000;0.4607;-3.4019;
1010.4000;0.4615;-3.3970;
1010.7000;0.4607;-3.3994;
1011.0000;0.4534;-3.4144;
1011.3000;0.4632;-3.3845;
1011.6000;0.4599;-3.3870;
1011.9000;0.4591;-3.3895;
1012.2000;0.4591;-3.3970;
1012.5000;0.4591;-3.3945;
1012.8000;0.4599;-3.3870;
1013.1000;0.4615;-3.3994;
1013.4000;0.4534;-3.4119;
1013.7000;0.4599;-3.3994;
1014.0000;0.4567;-3.4119;
1014.3000;0.4615;-3.4044;
1014.6000;0.4615;-3.4044;
1014.9000;0.4664;-3.3920;
1015.2000;0.4599;-3.4019;
1015.5000;0.4599;-3.3970;
1015.8000;0.4615;-3.3945;
1016.1000;0.4624;-3.3994;
1016.4000;0.4624;-3.3945;
1016.7000;0.4607;-3.3994;
1017.0000;0.4624;-3.3945;
1017.3000;0.4648;-3.3870;
1017.6000;0.4615;-3.4069;
1017.9000;0.4615;-3.4119;
1018.2000;0.4615;-3.4069;
1018.5000;0.4599;-3.4193;
1018.8000;0.4599;-3.4293;
1019.1000;0.4615;-3.4193;
1019.4000;0.4615;-3.4218;
1019.7000;0.4599;-3.4193;
1020.0000;0.4599;-3.4218;
1020.3000;0.4607;-3.4218;
1020.6000;0.4591;-3.4218;
1020.9000;0.4591;-3.4193;
1021.2000;0.4607;-3.4193;
1021.5000;0.4599;-3.4169;
1021.8000;0.4681;-3.3970;
1022.1000;0.4599;-3.4119;
1022.4000;0.4575;-3.4243;
1022.7000;0.4607;-3.4268;
1023.0000;0.4607;-3.4318;
1023.3000;0.4599;-3.4392;
1023.6000;0.4607;-3.4343;
1023.9000;0.4607;-3.4268;
1024.2000;0.4599;-3.4193;
1024.5000;0.4607;-3.4119;
1024.8000;0.4591;-3.4144;
1025.1000;0.4607;-3.4144;
1025.4000;0.4542;-3.4343;
1025.7000;0.4615;-3.4119;
1026.0000;0.4615;-3.4069;
1026.3000;0.4615;-3.4094;
1026.6000;0.4615;-3.4069;
1026.9000;0.4591;-3.4094;
1027.2000;0.4607;-3.4044;
1027.5000;0.4624;-3.3920;
1027.8000;0.4607;-3.3994;
1028.1000;0.4591;-3.4119;
1028.4000;0.4624;-3.4119;
1028.7000;0.4615;-3.4169;
1029.0000;0.4607;-3.4193;
1029.3000;0.4615;-3.4193;
1029.6000;0.4615;-3.4144;
1029.9000;0.4583;-3.4243;
1030.2000;0.4591;-3.4218;
1030.5000;0.4550;-3.4318;
1030.8000;0.4599;-3.4169;
1031.1000;0.4599;-3.4119;
1031.4000;0.4607;-3.4044;
1031.7000;0.4607;-3.4019;
1032.0000;0.4567;-3.4144;
1032.3000;0.4591;-3.4144;
1032.6000;0.4615;-3.4069;
1032.9000;0.4575;-3.4169;
1033.2000;0.4599;-3.4119;
1033.5000;0.4607;-3.4144;
1033.8000;0.4599;-3.4169;
1034.1000;0.4615;-3.4218;
1034.4000;0.4599;-3.4343;
1034.7000;0.4591;-3.4318;
1035.0000;0.4591;-3.4367;
1035.3000;0.4648;-3.4144;
1035.6000;0.4624;-3.4169;
1035.9000;0.4607;-3.4218;
1036.2000;0.4615;-3.4119;
1036.5000;0.4591;-3.4169;
1036.8000;0.4607;-3.4094;
1037.1000;0.4615;-3.4019;
1037.4000;0.4615;-3.4119;
1037.7000;0.4607;-3.4119;
1038.0000;0.4640;-3.4094;
1038.3000;0.4664;-3.4069;
1038.6000;0.4615;-3.4193;
1038.9000;0.4615;-3.4169;
1039.2000;0.4615;-3.4243;
1039.5000;0.4672;-3.4193;
1039.8000;0.4599;-3.4417;
1040.1000;0.4599;-3.4442;
1040.4000;0.4599;-3.4367;
1040.7000;0.4591;-3.4293;
1041.0000;0.4615;-3.4218;
1041.3000;0.4591;-3.4268;
1041.6000;0.4599;-3.4193;
1041.9000;0.4607;-3.4119;
1042.2000;0.4599;-3.4144;
1042.5000;0.4607;-3.4119;
1042.8000;0.4575;-3.4243;
1043.1000;0.4607;-3.4119;
1043.4000;0.4640;-3.3920;
1043.7000;0.4624;-3.3970;
1044.0000;0.4583;-3.4069;
1044.3000;0.4640;-3.3994;
1044.6000;0.4607;-3.4094;
1044.9000;0.4599;-3.4094;
1045.2000;0.4591;-3.4094;
1045.5000;0.4599;-3.4094;
1045.8000;0.4672;-3.3920;
1046.1000;0.4599;-3.4169;
1046.4000;0.4567;-3.4193;
1046.7000;0.4575;-3.4243;
1047.0000;0.4615;-3.4119;
1047.3000;0.4607;-3.4193;
1047.6000;0.4615;-3.4119;
1047.9000;0.4615;-3.4044;
1048.2000;0.4607;-3.4144;
1048.5000;0.4624;-3.4218;
1048.8000;0.4615;-3.4268;
1049.1000;0.4607;-3.4144;
1049.4000;0.4599;-3.4069;
1049.7000;0.4615;-3.4044;
1050.0000;0.4599;-3.4019;
1050.3000;0.4591;-3.3994;
1050.6000;0.4607;-3.3945;
1050.9000;0.4632;-3.3820;
1051.2000;0.4664;-3.3696;
1051.5000;0.4624;-3.3895;
1051.8000;0.4615;-3.3945;
1052.1000;0.4615;-3.3945;
1052.4000;0.4615;-3.3920;
1052.7000;0.4599;-3.4044;
1053.0000;0.4607;-3.4069;
1053.3000;0.4607;-3.4094;
1053.6000;0.4656;-3.3920;
1053.9000;0.4607;-3.4094;
1054.2000;0.4607;-3.4094;
1054.5000;0.4607;-3.4119;
1054.8000;0.4607;-3.4119;
1055.1000;0.4599;-3.4169;
1055.4000;0.4599;-3.4094;
1055.7000;0.4607;-3.4119;
1056.0000;0.4640;-3.3994;
1056.3000;0.4599;-3.4044;
1056.6000;0.4615;-3.4069;
1056.9000;0.4583;-3.4119;
1057.2000;0.4591;-3.4119;
1057.5000;0.4599;-3.4044;
1057.8000;0.4607;-3.4044;
1058.1000;0.4591;-3.4094;
1058.4000;0.4607;-3.4094;
1058.7000;0.4575;-3.4193;
1059.0000;0.4599;-3.4144;
1059.3000;0.4624;-3.4069;
1059.6000;0.4591;-3.4119;
1059.9000;0.4583;-3.4119;
1060.2000;0.4624;-3.4069;
1060.5000;0.4575;-3.4218;
1060.8000;0.4624;-3.4193;
1061.1000;0.4599;-3.4218;
1061.4000;0.4615;-3.4343;
1061.7000;0.4607;-3.4367;
1062.0000;0.4591;-3.4343;
1062.3000;0.4599;-3.4293;
1062.6000;0.4526;-3.4467;
1062.9000;0.4615;-3.4193;
1063.2000;0.4591;-3.4119;
1063.5000;0.4567;-3.4169;
1063.8000;0.4607;-3.4094;
1064.1000;0.4607;-3.4119;
1064.4000;0.4591;-3.4069;
1064.7000;0.4599;-3.4044;
1065.0000;0.4599;-3.4044;
1065.3000;0.4615;-3.3970;
1065.6000;0.4591;-3.4019;
1065.9000;0.4591;-3.4044;
1066.2000;0.4607;-3.3994;
1066.5000;0.4599;-3.4044;
1066.8000;0.4648;-3.3920;
1067.1000;0.4599;-3.4044;
1067.4000;0.4575;-3.4144;
1067.7000;0.4599;-3.3994;
1068.0000;0.4607;-3.3920;
1068.3000;0.4591;-3.3945;
1068.6000;0.4599;-3.4044;
1068.9000;0.4607;-3.4069;
1069.2000;0.4599;-3.4193;
1069.5000;0.4599;-3.4169;
1069.8000;0.4518;-3.4343;
1070.1000;0.4591;-3.4193;
1070.4000;0.4681;-3.4019;
1070.7000;0.4656;-3.3970;
1071.0000;0.4591;-3.4069;
1071.3000;0.4607;-3.4069;
1071.6000;0.4599;-3.4069;
1071.9000;0.4607;-3.3920;
1072.2000;0.4591;-3.3895;
1072.5000;0.4697;-3.3721;
1072.8000;0.4607;-3.3920;
1073.1000;0.4624;-3.3870;
1073.4000;0.4624;-3.3895;
1073.7000;0.4607;-3.3920;
1074.0000;0.4599;-3.3945;
1074.3000;0.4599;-3.3945;
1074.6000;0.4632;-3.3845;
1074.9000;0.4599;-3.3970;
1075.2000;0.4607;-3.3920;
1075.5000;0.4599;-3.3920;
1075.8000;0.4607;-3.3970;
1076.1000;0.4607;-3.4044;
1076.4000;0.4599;-3.3970;
1076.7000;0.4607;-3.3945;
1077.0000;0.4615;-3.3845;
1077.3000;0.4591;-3.3920;
1077.6000;0.4607;-3.3920;
1077.9000;0.4624;-3.3870;
1078.2000;0.4583;-3.3945;
1078.5000;0.4624;-3.3920;
1078.8000;0.4591;-3.3994;
1079.1000;0.4607;-3.3945;
1079.4000;0.4575;-3.3970;
1079.7000;0.4599;-3.3945;
1080.0000;0.4689;-3.3746;
1080.3000;0.4583;-3.4069;
1080.6000;0.4583;-3.4119;
1080.9000;0.4607;-3.4044;
1081.2000;0.4607;-3.3994;
1081.5000;0.4591;-3.4094;
1081.8000;0.4599;-3.4119;
1082.1000;0.4672;-3.3845;
1082.4000;0.4632;-3.3870;
1082.7000;0.4599;-3.3945;
1083.0000;0.4672;-3.3721;
1083.3000;0.4615;-3.3895;
1083.6000;0.4591;-3.4019;
1083.9000;0.4599;-3.4069;
1084.2000;0.4599;-3.4094;
1084.5000;0.4599;-3.3994;
1084.8000;0.4607;-3.3970;
1085.1000;0.4550;-3.4044;
1085.4000;0.4526;-3.4094;
1085.7000;0.4607;-3.3870;
1086.0000;0.4583;-3.3920;
1086.3000;0.4624;-3.3820;
1086.6000;0.4591;-3.3845;
1086.9000;0.4583;-3.3771;
1087.2000;0.4607;-3.3746;
1087.5000;0.4615;-3.3771;
1087.8000;0.4591;-3.3820;
1088.1000;0.4599;-3.3845;
1088.4000;0.4599;-3.3845;
1088.7000;0.4575;-3.3920;
1089.0000;0.4583;-3.3970;
1089.3000;0.4591;-3.3945;
1089.6000;0.4591;-3.3994;
1089.9000;0.4599;-3.4069;
1090.2000;0.4599;-3.4119;
1090.5000;0.4607;-3.4119;
1090.8000;0.4648;-3.4069;
1091.1000;0.4591;-3.4169;
1091.4000;0.4518;-3.4318;
1091.7000;0.4648;-3.3994;
1092.0000;0.4583;-3.4169;
1092.3000;0.4599;-3.4169;
1092.6000;0.4599;-3.4218;
1092.9000;0.4591;-3.4218;
1093.2000;0.4599;-3.4243;
1093.5000;0.4591;-3.4343;
1093.8000;0.4599;-3.4268;
1094.1000;0.4615;-3.4218;
1094.4000;0.4599;-3.4293;
1094.7000;0.4591;-3.4343;
1095.0000;0.4607;-3.4293;
1095.3000;0.4607;-3.4293;
1095.6000;0.4607;-3.4293;
1095.9000;0.4615;-3.4169;
1096.2000;0.4599;-3.4243;
1096.5000;0.4607;-3.4169;
1096.8000;0.4599;-3.4119;
1097.1000;0.4624;-3.4144;
1097.4000;0.4607;-3.4193;
1097.7000;0.4632;-3.4119;
1098.0000;0.4607;-3.4218;
1098.3000;0.4607;-3.4218;
1098.6000;0.4599;-3.4243;
1098.9000;0.4599;-3.4268;
1099.2000;0.4599;-3.4268;
1099.5000;0.4591;-3.4268;
1099.8000;0.4607;-3.4169;
1100.1000;0.4591;-3.4293;
1100.4000;0.4615;-3.4318;
1100.7000;0.4591;-3.4367;
1101.0000;0.4607;-3.4293;
1101.3000;0.4607;-3.4268;
1101.6000;0.4591;-3.4343;
1101.9000;0.4591;-3.4293;
1102.2000;0.4567;-3.4343;
1102.5000;0.4591;-3.4243;
1102.8000;0.4615;-3.4144;
1103.1000;0.4591;-3.4169;
1103.4000;0.4607;-3.4243;
1103.7000;0.4591;-3.4268;
1104.0000;0.4624;-3.4094;
1104.3000;0.4599;-3.4243;
1104.6000;0.4599;-3.4293;
1104.9000;0.4599;-3.4218;
1105.2000;0.4599;-3.4243;
1105.5000;0.4615;-3.4218;
1105.8000;0.4550;-3.4467;
1106.1000;0.4477;-3.4716;
1106.4000;0.4607;-3.4442;
1106.7000;0.4599;-3.4367;
1107.0000;0.4534;-3.4467;
1107.3000;0.4599;-3.4218;
1107.6000;0.4550;-3.4218;
1107.9000;0.4575;-3.4193;
1108.2000;0.4615;-3.3970;
1108.5000;0.4656;-3.3970;
1108.8000;0.4615;-3.4019;
1109.1000;0.4615;-3.4094;
1109.4000;0.4518;-3.4343;
1109.7000;0.4615;-3.4119;
1110.0000;0.4615;-3.4069;
1110.3000;0.4599;-3.3994;
1110.6000;0.4599;-3.3970;
1110.9000;0.4599;-3.3994;
1111.2000;0.4591;-3.4094;
1111.5000;0.4615;-3.4144;
1111.8000;0.4607;-3.4119;
1112.1000;0.4591;-3.4069;
1112.4000;0.4599;-3.4069;
1112.7000;0.4591;-3.3994;
1113.0000;0.4583;-3.4019;
1113.3000;0.4615;-3.3870;
1113.6000;0.4599;-3.3845;
1113.9000;0.4599;-3.3845;
1114.2000;0.4591;-3.3845;
1114.5000;0.4599;-3.3746;
1114.8000;0.4591;-3.3746;
1115.1000;0.4615;-3.3771;
1115.4000;0.4591;-3.3994;
1115.7000;0.4607;-3.3994;
1116.0000;0.4599;-3.4094;
1116.3000;0.4607;-3.4094;
1116.6000;0.4599;-3.4069;
1116.9000;0.4599;-3.4119;
1117.2000;0.4583;-3.4144;
1117.5000;0.4575;-3.4193;
1117.8000;0.4575;-3.4169;
1118.1000;0.4632;-3.4069;
1118.4000;0.4583;-3.4218;
1118.7000;0.4599;-3.4218;
1119.0000;0.4599;-3.4343;
1119.3000;0.4615;-3.4318;
1119.6000;0.4615;-3.4318;
1119.9000;0.4607;-3.4243;
1120.2000;0.4624;-3.4268;
1120.5000;0.4599;-3.4193;
1120.8000;0.4575;-3.4243;
1121.1000;0.4615;-3.4119;
1121.4000;0.4615;-3.4193;
1121.7000;0.4607;-3.4169;
1122.0000;0.4599;-3.4293;
1122.3000;0.4615;-3.4268;
1122.6000;0.4607;-3.4293;
1122.9000;0.4591;-3.4417;
1123.2000;0.4607;-3.4268;
1123.5000;0.4607;-3.4268;
1123.8000;0.4599;-3.4367;
1124.1000;0.4599;-3.4442;
1124.4000;0.4640;-3.4243;
1124.7000;0.4591;-3.4268;
1125.0000;0.4615;-3.4144;
1125.3000;0.4599;-3.4293;
1125.6000;0.4607;-3.4367;
1125.9000;0.4632;-3.4243;
1126.2000;0.4599;-3.4268;
1126.5000;0.4591;-3.4193;
1126.8000;0.4607;-3.4218;
1127.1000;0.4591;-3.4293;
1127.4000;0.4591;-3.4442;
1127.7000;0.4583;-3.4517;
1128.0000;0.4583;-3.4343;
1128.3000;0.4583;-3.4392;
1128.6000;0.4591;-3.4442;
1128.9000;0.4591;-3.4467;
1129.2000;0.4591;-3.4343;
1129.5000;0.4607;-3.4243;
1129.8000;0.4599;-3.4367;
1130.1000;0.4501;-3.4591;
1130.4000;0.4607;-3.4343;
1130.7000;0.4583;-3.4417;
1131.0000;0.4615;-3.4367;
1131.3000;0.4607;-3.4367;
1131.6000;0.4599;-3.4293;
1131.9000;0.4615;-3.4268;
1132.2000;0.4607;-3.4343;
1132.5000;0.4599;-3.4318;
1132.8000;0.4591;-3.4318;
1133.1000;0.4591;-3.4268;
1133.4000;0.4607;-3.4094;
1133.7000;0.4607;-3.4044;
1134.0000;0.4624;-3.4044;
1134.3000;0.4624;-3.4094;
1134.6000;0.4624;-3.4144;
1134.9000;0.4583;-3.4193;
1135.2000;0.4599;-3.4119;
1135.5000;0.4599;-3.4069;
1135.8000;0.4599;-3.4119;
1136.1000;0.4607;-3.4019;
1136.4000;0.4583;-3.4094;
1136.7000;0.4591;-3.4044;
1137.0000;0.4615;-3.3945;
1137.3000;0.4607;-3.3970;
1137.6000;0.4599;-3.4019;
1137.9000;0.4648;-3.3895;
1138.2000;0.4599;-3.4069;
1138.5000;0.4599;-3.4019;
1138.8000;0.4681;-3.3895;
1139.1000;0.4607;-3.4144;
1139.4000;0.4591;-3.4169;
1139.7000;0.4624;-3.4069;
1140.0000;0.4607;-3.4144;
1140.3000;0.4599;-3.4144;
1140.6000;0.4648;-3.3970;
1140.9000;0.4607;-3.4119;
1141.2000;0.4599;-3.4144;
1141.5000;0.4599;-3.4144;
1141.8000;0.4607;-3.4119;
1142.1000;0.4583;-3.4193;
1142.4000;0.4599;-3.4119;
1142.7000;0.4615;-3.4044;
1143.0000;0.4640;-3.3945;
1143.3000;0.4607;-3.4019;
1143.6000;0.4615;-3.4069;
1143.9000;0.4607;-3.4094;
1144.2000;0.4656;-3.4019;
1144.5000;0.4607;-3.4193;
1144.8000;0.4615;-3.4144;
1145.1000;0.4615;-3.4144;
1145.4000;0.4624;-3.4169;
1145.7000;0.4624;-3.4193;
1146.0000;0.4599;-3.4193;
1146.3000;0.4607;-3.4069;
1146.6000;0.4542;-3.4144;
1146.9000;0.4583;-3.4069;
1147.2000;0.4567;-3.4094;
1147.5000;0.4599;-3.4019;
1147.8000;0.4599;-3.4069;
1148.1000;0.4591;-3.4044;
1148.4000;0.4591;-3.4193;
1148.7000;0.4624;-3.4169;
1149.0000;0.4591;-3.4268;
1149.3000;0.4599;-3.4318;
1149.6000;0.4599;-3.4343;
1149.9000;0.4607;-3.4268;
1150.2000;0.4615;-3.4218;
1150.5000;0.4599;-3.4193;
1150.8000;0.4591;-3.4218;
1151.1000;0.4607;-3.4193;
1151.4000;0.4591;-3.4218;
1151.7000;0.4624;-3.4193;
1152.0000;0.4615;-3.4193;
1152.3000;0.4583;-3.4243;
1152.6000;0.4591;-3.4343;
1152.9000;0.4599;-3.4243;
1153.2000;0.4615;-3.4144;
1153.5000;0.4607;-3.4069;
1153.8000;0.4599;-3.4119;
1154.1000;0.4607;-3.4069;
1154.4000;0.4624;-3.4119;
1154.7000;0.4599;-3.4193;
1155.0000;0.4624;-3.4169;
1155.3000;0.4558;-3.4318;
1155.6000;0.4591;-3.4293;
1155.9000;0.4599;-3.4293;
1156.2000;0.4615;-3.4268;
1156.5000;0.4615;-3.4243;
1156.8000;0.4607;-3.4268;
1157.1000;0.4599;-3.4268;
1157.4000;0.4607;-3.4367;
1157.7000;0.4583;-3.4517;
1158.0000;0.4599;-3.4542;
1158.3000;0.4624;-3.4442;
1158.6000;0.4615;-3.4467;
1158.9000;0.4615;-3.4417;
1159.2000;0.4591;-3.4417;
1159.5000;0.4624;-3.4293;
1159.8000;0.4607;-3.4442;
1160.1000;0.4591;-3.4442;
1160.4000;0.4607;-3.4392;
1160.7000;0.4632;-3.4318;
1161.0000;0.4624;-3.4293;
1161.3000;0.4599;-3.4218;
1161.6000;0.4599;-3.4119;
1161.9000;0.4607;-3.4169;
1162.2000;0.4640;-3.4094;
1162.5000;0.4615;-3.4268;
1162.8000;0.4567;-3.4392;
1163.1000;0.4583;-3.4318;
1163.4000;0.4575;-3.4318;
1163.7000;0.4599;-3.4268;
1164.0000;0.4591;-3.4392;
1164.3000;0.4583;-3.4318;
1164.6000;0.4599;-3.4193;
1164.9000;0.4607;-3.4069;
1165.2000;0.4591;-3.4169;
1165.5000;0.4599;-3.4193;
1165.8000;0.4664;-3.4044;
1166.1000;0.4607;-3.4268;
1166.4000;0.4583;-3.4343;
1166.7000;0.4607;-3.4343;
1167.0000;0.4607;-3.4318;
1167.3000;0.4624;-3.4318;
1167.6000;0.4615;-3.4268;
1167.9000;0.4624;-3.4293;
1168.2000;0.4632;-3.4193;
1168.5000;0.4624;-3.4318;
1168.8000;0.4599;-3.4517;
1169.1000;0.4583;-3.4442;
1169.4000;0.4607;-3.4442;
1169.7000;0.4607;-3.4367;
1170.0000;0.4607;-3.4268;
1170.3000;0.4607;-3.4193;
1170.6000;0.4599;-3.4268;
1170.9000;0.4607;-3.4193;
1171.2000;0.4591;-3.4243;
1171.5000;0.4591;-3.4169;
1171.8000;0.4591;-3.4119;
1172.1000;0.4607;-3.3970;
1172.4000;0.4591;-3.3994;
1172.7000;0.4624;-3.3920;
1173.0000;0.4632;-3.3820;
1173.3000;0.4591;-3.3920;
1173.6000;0.4599;-3.3994;
1173.9000;0.4607;-3.4019;
1174.2000;0.4591;-3.3945;
1174.5000;0.4624;-3.3895;
1174.8000;0.4591;-3.4069;
1175.1000;0.4599;-3.4019;
1175.4000;0.4607;-3.4144;
1175.7000;0.4599;-3.4218;
1176.0000;0.4599;-3.4293;
1176.3000;0.4599;-3.4243;
1176.6000;0.4583;-3.4243;
1176.9000;0.4599;-3.4169;
1177.2000;0.4591;-3.4218;
1177.5000;0.4599;-3.4243;
1177.8000;0.4607;-3.4218;
1178.1000;0.4599;-3.4243;
1178.4000;0.4591;-3.4218;
1178.7000;0.4607;-3.4169;
1179.0000;0.4624;-3.4169;
1179.3000;0.4615;-3.4169;
1179.6000;0.4599;-3.4169;
1179.9000;0.4567;-3.4318;
1180.2000;0.4567;-3.4293;
1180.5000;0.4591;-3.4119;
1180.8000;0.4607;-3.4193;
1181.1000;0.4599;-3.4119;
1181.4000;0.4599;-3.4094;
1181.7000;0.4607;-3.4069;
1182.0000;0.4599;-3.4119;
1182.3000;0.4599;-3.4119;
1182.6000;0.4615;-3.4094;
1182.9000;0.4599;-3.4193;
1183.2000;0.4591;-3.4193;
1183.5000;0.4599;-3.4193;
1183.8000;0.4615;-3.4193;
1184.1000;0.4591;-3.4243;
1184.4000;0.4607;-3.4243;
1184.7000;0.4624;-3.4144;
1185.0000;0.4583;-3.4193;
1185.3000;0.4518;-3.4318;
1185.6000;0.4607;-3.4119;
1185.9000;0.4599;-3.4144;
1186.2000;0.4583;-3.4144;
1186.5000;0.4591;-3.4169;
1186.8000;0.4575;-3.4119;
1187.1000;0.4583;-3.4144;
1187.4000;0.4599;-3.4169;
1187.7000;0.4567;-3.4318;
1188.0000;0.4599;-3.4218;
1188.3000;0.4583;-3.4268;
1188.6000;0.4615;-3.4243;
1188.9000;0.4583;-3.4268;
1189.2000;0.4591;-3.4193;
1189.5000;0.4615;-3.4193;
1189.8000;0.4575;-3.4243;
1190.1000;0.4681;-3.3970;
1190.4000;0.4599;-3.4169;
1190.7000;0.4599;-3.4218;
1191.0000;0.4640;-3.4119;
1191.3000;0.4624;-3.4293;
1191.6000;0.4607;-3.4343;
1191.9000;0.4615;-3.4318;
1192.2000;0.4599;-3.4293;
1192.5000;0.4607;-3.4293;
1192.8000;0.4624;-3.4243;
1193.1000;0.4591;-3.4293;
1193.4000;0.4615;-3.4144;
1193.7000;0.4599;-3.4243;
1194.0000;0.4567;-3.4343;
1194.3000;0.4599;-3.4193;
1194.6000;0.4615;-3.4218;
1194.9000;0.4615;-3.4094;
1195.2000;0.4615;-3.4094;
1195.5000;0.4599;-3.4119;
1195.8000;0.4599;-3.4119;
1196.1000;0.4607;-3.3994;
1196.4000;0.4599;-3.4069;
1196.7000;0.4591;-3.4119;
1197.0000;0.4607;-3.4094;
1197.3000;0.4640;-3.3970;
1197.6000;0.4607;-3.4069;
1197.9000;0.4664;-3.3945;
1198.2000;0.4591;-3.4094;
1198.5000;0.4615;-3.3994;
1198.8000;0.4501;-3.4218;
1199.1000;0.4607;-3.3970;
1199.4000;0.4583;-3.3994;
1199.7000;0.4599;-3.3945;
1200.0000;0.4526;-3.4069;
1200.3000;0.4615;-3.3945;
1200.6000;0.4599;-3.4094;
1200.9000;0.4599;-3.4044;
1201.2000;0.4607;-3.3970;
1201.5000;0.4607;-3.3994;
1201.8000;0.4583;-3.4019;
1202.1000;0.4591;-3.4094;
1202.4000;0.4607;-3.3994;
1202.7000;0.4599;-3.4144;
1203.0000;0.4599;-3.4094;
1203.3000;0.4615;-3.4044;
1203.6000;0.4599;-3.4119;
1203.9000;0.4615;-3.4069;
1204.2000;0.4599;-3.4094;
1204.5000;0.4583;-3.4019;
1204.8000;0.4599;-3.4044;
1205.1000;0.4575;-3.4169;
1205.4000;0.4599;-3.4169;
1205.7000;0.4583;-3.4169;
1206.0000;0.4591;-3.4169;
1206.3000;0.4615;-3.4019;
1206.6000;0.4599;-3.4019;
1206.9000;0.4591;-3.4069;
1207.2000;0.4607;-3.4019;
1207.5000;0.4599;-3.4044;
1207.8000;0.4607;-3.4094;
1208.1000;0.4591;-3.4169;
1208.4000;0.4607;-3.4094;
1208.7000;0.4591;-3.4094;
1209.0000;0.4615;-3.3994;
1209.3000;0.4599;-3.3994;
1209.6000;0.4591;-3.4069;
1209.9000;0.4672;-3.3796;
1210.2000;0.4583;-3.4044;
1210.5000;0.4599;-3.4044;
1210.8000;0.4591;-3.4069;
1211.1000;0.4607;-3.3994;
1211.4000;0.4575;-3.4019;
1211.7000;0.4607;-3.3945;
1212.0000;0.4664;-3.3796;
1212.3000;0.4607;-3.3970;
1212.6000;0.4591;-3.4019;
1212.9000;0.4615;-3.3920;
1213.2000;0.4615;-3.4044;
1213.5000;0.4640;-3.3945;
1213.8000;0.4599;-3.3945;
1214.1000;0.4624;-3.3895;
1214.4000;0.4624;-3.3895;
1214.7000;0.4607;-3.3771;
1215.0000;0.4591;-3.3870;
1215.3000;0.4583;-3.3895;
1215.6000;0.4607;-3.3920;
1215.9000;0.4599;-3.4044;
1216.2000;0.4599;-3.4094;
1216.5000;0.4583;-3.4069;
1216.8000;0.4599;-3.3970;
1217.1000;0.4615;-3.3994;
1217.4000;0.4599;-3.4044;
1217.7000;0.4591;-3.4069;
1218.0000;0.4518;-3.4343;
1218.3000;0.4599;-3.4144;
1218.6000;0.4607;-3.4094;
1218.9000;0.4591;-3.4094;
1219.2000;0.4599;-3.4069;
1219.5000;0.4607;-3.3994;
1219.8000;0.4615;-3.4019;
1220.1000;0.4607;-3.3945;
1220.4000;0.4567;-3.3945;
1220.7000;0.4599;-3.3970;
1221.0000;0.4501;-3.4218;
1221.3000;0.4615;-3.4019;
1221.6000;0.4599;-3.4069;
1221.9000;0.4640;-3.3895;
1222.2000;0.4599;-3.4094;
1222.5000;0.4575;-3.4293;
1222.8000;0.4567;-3.4367;
1223.1000;0.4599;-3.4367;
1223.4000;0.4607;-3.4392;
1223.7000;0.4599;-3.4492;
1224.0000;0.4599;-3.4442;
1224.3000;0.4558;-3.4517;
1224.6000;0.4567;-3.4343;
1224.9000;0.4615;-3.4193;
1225.2000;0.4599;-3.4268;
1225.5000;0.4656;-3.4193;
1225.8000;0.4591;-3.4343;
1226.1000;0.4591;-3.4293;
1226.4000;0.4591;-3.4367;
1226.7000;0.4599;-3.4367;
1227.0000;0.4624;-3.4243;
1227.3000;0.4624;-3.4193;
1227.6000;0.4607;-3.4193;
1227.9000;0.4599;-3.4268;
1228.2000;0.4599;-3.4268;
1228.5000;0.4583;-3.4193;
1228.8000;0.4607;-3.4144;
1229.1000;0.4599;-3.4193;
1229.4000;0.4591;-3.4193;
1229.7000;0.4501;-3.4367;
1230.0000;0.4599;-3.4069;
1230.3000;0.4575;-3.4119;
1230.6000;0.4583;-3.4144;
1230.9000;0.4591;-3.4044;
1231.2000;0.4583;-3.4094;
1231.5000;0.4681;-3.3920;
1231.8000;0.4615;-3.4144;
1232.1000;0.4615;-3.4169;
1232.4000;0.4575;-3.4343;
1232.7000;0.4615;-3.4193;
1233.0000;0.4607;-3.4094;
1233.3000;0.4607;-3.4094;
1233.6000;0.4591;-3.4169;
1233.9000;0.4591;-3.4069;
1234.2000;0.4583;-3.4119;
1234.5000;0.4591;-3.4193;
1234.8000;0.4591;-3.4144;
1235.1000;0.4591;-3.4144;
1235.4000;0.4615;-3.4094;
1235.7000;0.4591;-3.4094;
1236.0000;0.4591;-3.4119;
1236.3000;0.4599;-3.4094;
1236.6000;0.4607;-3.4119;
1236.9000;0.4615;-3.4169;
1237.2000;0.4575;-3.4243;
1237.5000;0.4591;-3.4193;
1237.8000;0.4583;-3.4293;
1238.1000;0.4607;-3.4318;
1238.4000;0.4591;-3.4343;
1238.7000;0.4599;-3.4367;
1239.0000;0.4615;-3.4392;
1239.3000;0.4599;-3.4367;
1239.6000;0.4591;-3.4367;
1239.9000;0.4599;-3.4268;
1240.2000;0.4599;-3.4268;
1240.5000;0.4599;-3.4218;
1240.8000;0.4599;-3.4218;
1241.1000;0.4599;-3.4193;
1241.4000;0.4591;-3.4268;
1241.7000;0.4599;-3.4318;
1242.0000;0.4534;-3.4492;
1242.3000;0.4607;-3.4293;
1242.6000;0.4607;-3.4243;
1242.9000;0.4599;-3.4218;
1243.2000;0.4599;-3.4243;
1243.5000;0.4599;-3.4243;
1243.8000;0.4534;-3.4442;
1244.1000;0.4591;-3.4318;
1244.4000;0.4534;-3.4442;
1244.7000;0.4607;-3.4218;
1245.0000;0.4599;-3.4218;
1245.3000;0.4575;-3.4318;
1245.6000;0.4607;-3.4293;
1245.9000;0.4615;-3.4367;
1246.2000;0.4607;-3.4467;
1246.5000;0.4664;-3.4343;
1246.8000;0.4583;-3.4492;
1247.1000;0.4615;-3.4367;
1247.4000;0.4615;-3.4318;
1247.7000;0.4615;-3.4318;
1248.0000;0.4615;-3.4268;
1248.3000;0.4632;-3.4268;
1248.6000;0.4599;-3.4318;
1248.9000;0.4591;-3.4318;
1249.2000;0.4583;-3.4343;
1249.5000;0.4664;-3.4144;
1249.8000;0.4599;-3.4268;
1250.1000;0.4615;-3.4193;
1250.4000;0.4632;-3.4218;
1250.7000;0.4599;-3.4392;
1251.0000;0.4607;-3.4318;
1251.3000;0.4607;-3.4293;
1251.6000;0.4599;-3.4243;
1251.9000;0.4607;-3.4218;
1252.2000;0.4607;-3.4268;
1252.5000;0.4624;-3.4218;
1252.8000;0.4591;-3.4218;
1253.1000;0.4607;-3.4119;
1253.4000;0.4615;-3.4069;
1253.7000;0.4624;-3.4044;
1254.0000;0.4583;-3.4094;
1254.3000;0.4583;-3.4094;
1254.6000;0.4607;-3.3970;
1254.9000;0.4607;-3.4019;
1255.2000;0.4664;-3.3895;
1255.5000;0.4615;-3.4019;
1255.8000;0.4607;-3.4169;
1256.1000;0.4575;-3.4218;
1256.4000;0.4534;-3.4318;
1256.7000;0.4599;-3.4193;
1257.0000;0.4599;-3.4169;
1257.3000;0.4591;-3.4144;
1257.6000;0.4599;-3.4218;
1257.9000;0.4640;-3.4069;
1258.2000;0.4599;-3.4218;
1258.5000;0.4591;-3.4243;
1258.8000;0.4664;-3.3970;
1259.1000;0.4599;-3.4044;
1259.4000;0.4583;-3.4044;
1259.7000;0.4607;-3.4019;
1260.0000;0.4607;-3.4069;
1260.3000;0.4607;-3.4119;
1260.6000;0.4624;-3.4144;
1260.9000;0.4607;-3.4169;
1261.2000;0.4624;-3.4193;
1261.5000;0.4607;-3.4218;
1261.8000;0.4599;-3.4218;
1262.1000;0.4607;-3.4218;
1262.4000;0.4599;-3.4268;
1262.7000;0.4599;-3.4268;
1263.0000;0.4599;-3.4193;
1263.3000;0.4624;-3.4094;
1263.6000;0.4599;-3.4094;
1263.9000;0.4591;-3.4069;
1264.2000;0.4607;-3.3920;
1264.5000;0.4607;-3.3820;
1264.8000;0.4599;-3.3870;
1265.1000;0.4607;-3.3870;
1265.4000;0.4615;-3.3895;
1265.7000;0.4599;-3.3970;
1266.0000;0.4599;-3.3845;
1266.3000;0.4599;-3.3746;
1266.6000;0.4591;-3.3870;
1266.9000;0.4599;-3.3895;
1267.2000;0.4583;-3.3945;
1267.5000;0.4583;-3.3945;
1267.8000;0.4591;-3.3895;
1268.1000;0.4599;-3.3970;
1268.4000;0.4599;-3.4019;
1268.7000;0.4599;-3.4044;
1269.0000;0.4672;-3.3796;
1269.3000;0.4607;-3.3970;
1269.6000;0.4591;-3.4044;
1269.9000;0.4591;-3.4094;
1270.2000;0.4567;-3.4169;
1270.5000;0.4624;-3.4044;
1270.8000;0.4599;-3.4019;
1271.1000;0.4681;-3.3796;
1271.4000;0.4599;-3.4019;
1271.7000;0.4632;-3.3970;
1272.0000;0.4607;-3.4044;
1272.3000;0.4615;-3.3920;
1272.6000;0.4615;-3.3820;
1272.9000;0.4599;-3.3796;
1273.2000;0.4607;-3.3895;
1273.5000;0.4640;-3.3796;
1273.8000;0.4583;-3.3920;
1274.1000;0.4583;-3.4019;
1274.4000;0.4583;-3.4169;
1274.7000;0.4607;-3.4119;
1275.0000;0.4599;-3.4119;
1275.3000;0.4591;-3.4144;
1275.6000;0.4607;-3.4094;
1275.9000;0.4583;-3.4218;
1276.2000;0.4591;-3.4218;
1276.5000;0.4599;-3.4119;
1276.8000;0.4599;-3.4069;
1277.1000;0.4607;-3.3970;
1277.4000;0.4607;-3.3994;
1277.7000;0.4583;-3.4119;
1278.0000;0.4615;-3.4044;
1278.3000;0.4615;-3.4144;
1278.6000;0.4615;-3.4169;
1278.9000;0.4648;-3.4094;
1279.2000;0.4607;-3.4169;
1279.5000;0.4615;-3.4094;
1279.8000;0.4599;-3.4119;
1280.1000;0.4624;-3.3970;
1280.4000;0.4510;-3.4243;
1280.7000;0.4615;-3.4094;
1281.0000;0.4607;-3.4119;
1281.3000;0.4599;-3.4169;
1281.6000;0.4591;-3.4094;
1281.9000;0.4558;-3.4193;
1282.2000;0.4672;-3.3895;
1282.5000;0.4607;-3.3994;
1282.8000;0.4567;-3.4094;
1283.1000;0.4591;-3.4019;
1283.4000;0.4575;-3.4069;
1283.7000;0.4599;-3.3970;
1284.0000;0.4624;-3.4019;
1284.3000;0.4615;-3.4069;
1284.6000;0.4583;-3.4144;
1284.9000;0.4664;-3.3920;
1285.2000;0.4599;-3.4019;
1285.5000;0.4615;-3.4044;
1285.8000;0.4591;-3.4044;
1286.1000;0.4607;-3.4069;
1286.4000;0.4591;-3.4119;
1286.7000;0.4607;-3.4094;
1287.0000;0.4526;-3.4243;
1287.3000;0.4591;-3.4069;
1287.6000;0.4607;-3.4044;
1287.9000;0.4599;-3.4044;
1288.2000;0.4591;-3.4019;
1288.5000;0.4591;-3.3970;
1288.8000;0.4567;-3.3945;
1289.1000;0.4615;-3.3870;
1289.4000;0.4583;-3.3945;
1289.7000;0.4583;-3.4069;
1290.0000;0.4575;-3.4094;
1290.3000;0.4575;-3.4094;
1290.6000;0.4607;-3.4019;
1290.9000;0.4607;-3.4094;
1291.2000;0.4591;-3.4094;
1291.5000;0.4599;-3.4044;
1291.8000;0.4583;-3.4094;
1292.1000;0.4583;-3.4169;
1292.4000;0.4599;-3.4193;
1292.7000;0.4591;-3.4193;
1293.0000;0.4567;-3.4367;
1293.3000;0.4607;-3.4144;
1293.6000;0.4648;-3.3970;
1293.9000;0.4632;-3.3994;
1294.2000;0.4542;-3.4193;
1294.5000;0.4591;-3.3970;
1294.8000;0.4705;-3.3671;
1295.1000;0.4583;-3.3970;
1295.4000;0.4607;-3.3970;
1295.7000;0.4615;-3.3970;
1296.0000;0.4607;-3.4044;
1296.3000;0.4615;-3.3970;
1296.6000;0.4599;-3.4144;
1296.9000;0.4607;-3.4094;
1297.2000;0.4607;-3.4069;
1297.5000;0.4567;-3.4094;
1297.8000;0.4591;-3.4169;
1298.1000;0.4599;-3.4144;
1298.4000;0.4567;-3.4169;
1298.7000;0.4607;-3.4094;
1299.0000;0.4615;-3.4019;
1299.3000;0.4624;-3.3970;
1299.6000;0.4599;-3.3994;
1299.9000;0.4599;-3.4069;
1300.2000;0.4615;-3.3994;
1300.5000;0.4624;-3.3994;
1300.8000;0.4624;-3.3970;
1301.1000;0.4607;-3.4069;
1301.4000;0.4615;-3.4069;
1301.7000;0.4567;-3.4193;
1302.0000;0.4599;-3.4144;
1302.3000;0.4607;-3.4119;
1302.6000;0.4632;-3.4193;
1302.9000;0.4607;-3.4293;
1303.2000;0.4615;-3.4243;
1303.5000;0.4558;-3.4343;
1303.8000;0.4591;-3.4144;
1304.1000;0.4583;-3.4094;
1304.4000;0.4501;-3.4318;
1304.7000;0.4607;-3.3994;
1305.0000;0.4575;-3.4044;
1305.3000;0.4599;-3.3895;
1305.6000;0.4599;-3.3895;
1305.9000;0.4640;-3.3721;
1306.2000;0.4591;-3.3870;
1306.5000;0.4599;-3.3994;
1306.8000;0.4599;-3.4044;
1307.1000;0.4615;-3.4094;
1307.4000;0.4607;-3.4069;
1307.7000;0.4583;-3.4119;
1308.0000;0.4607;-3.4019;
1308.3000;0.4632;-3.3920;
1308.6000;0.4591;-3.4019;
1308.9000;0.4607;-3.3994;
1309.2000;0.4599;-3.3994;
1309.5000;0.4583;-3.3970;
1309.8000;0.4607;-3.3920;
1310.1000;0.4640;-3.3895;
1310.4000;0.4575;-3.3945;
1310.7000;0.4599;-3.3945;
1311.0000;0.4558;-3.4019;
1311.3000;0.4615;-3.3945;
1311.6000;0.4583;-3.3970;
1311.9000;0.4583;-3.3920;
1312.2000;0.4632;-3.3870;
1312.5000;0.4591;-3.4019;
1312.8000;0.4607;-3.4019;
1313.1000;0.4697;-3.3746;
1313.4000;0.4607;-3.4019;
1313.7000;0.4591;-3.3994;
1314.0000;0.4624;-3.3895;
1314.3000;0.4591;-3.3945;
1314.6000;0.4607;-3.3820;
1314.9000;0.4550;-3.3920;
1315.2000;0.4583;-3.3845;
1315.5000;0.4591;-3.3994;
1315.8000;0.4615;-3.3994;
1316.1000;0.4583;-3.4119;
1316.4000;0.4607;-3.4094;
1316.7000;0.4591;-3.4094;
1317.0000;0.4672;-3.3870;
1317.3000;0.4599;-3.4069;
1317.6000;0.4705;-3.3771;
1317.9000;0.4705;-3.3845;
1318.2000;0.4583;-3.4169;
1318.5000;0.4583;-3.4019;
1318.8000;0.4607;-3.3945;
1319.1000;0.4615;-3.3970;
1319.4000;0.4583;-3.4044;
1319.7000;0.4591;-3.4044;
1320.0000;0.4583;-3.3994;
1320.3000;0.4599;-3.4044;
1320.6000;0.4583;-3.4144;
1320.9000;0.4583;-3.4094;
1321.2000;0.4599;-3.4069;
1321.5000;0.4607;-3.4019;
1321.8000;0.4607;-3.4044;
1322.1000;0.4591;-3.4094;
1322.4000;0.4591;-3.4119;
1322.7000;0.4599;-3.4119;
1323.0000;0.4607;-3.4119;
1323.3000;0.4591;-3.4144;
1323.6000;0.4591;-3.4094;
1323.9000;0.4607;-3.3994;
1324.2000;0.4607;-3.4044;
1324.5000;0.4607;-3.4193;
1324.8000;0.4607;-3.4193;
1325.1000;0.4607;-3.4193;
1325.4000;0.4558;-3.4318;
1325.7000;0.4599;-3.4169;
1326.0000;0.4591;-3.4169;
1326.3000;0.4591;-3.4119;
1326.6000;0.4607;-3.4119;
1326.9000;0.4591;-3.4119;
1327.2000;0.4518;-3.4318;
1327.5000;0.4583;-3.4119;
1327.8000;0.4575;-3.4094;
1328.1000;0.4583;-3.4069;
1328.4000;0.4591;-3.4019;
1328.7000;0.4599;-3.3945;
1329.0000;0.4575;-3.4044;
1329.3000;0.4599;-3.3994;
1329.6000;0.4607;-3.3945;
1329.9000;0.4575;-3.3994;
1330.2000;0.4583;-3.3994;
1330.5000;0.4583;-3.4044;
1330.8000;0.4607;-3.4019;
1331.1000;0.4632;-3.4019;
1331.4000;0.4656;-3.4069;
1331.7000;0.4558;-3.4318;
1332.0000;0.4615;-3.4193;
1332.3000;0.4615;-3.4094;
1332.6000;0.4599;-3.4144;
1332.9000;0.4583;-3.4193;
1333.2000;0.4591;-3.4169;
1333.5000;0.4607;-3.4019;
1333.8000;0.4607;-3.4094;
1334.1000;0.4599;-3.4094;
1334.4000;0.4615;-3.3994;
1334.7000;0.4599;-3.3920;
1335.0000;0.4599;-3.3970;
1335.3000;0.4583;-3.4069;
1335.6000;0.4607;-3.3994;
1335.9000;0.4615;-3.4019;
1336.2000;0.4672;-3.3845;
1336.5000;0.4599;-3.4044;
1336.8000;0.4615;-3.3970;
1337.1000;0.4583;-3.4044;
1337.4000;0.4599;-3.4019;
1337.7000;0.4607;-3.3994;
1338.0000;0.4599;-3.4019;
1338.3000;0.4591;-3.4069;
1338.6000;0.4599;-3.3945;
1338.9000;0.4632;-3.3970;
1339.2000;0.4591;-3.4119;
1339.5000;0.4599;-3.4044;
1339.8000;0.4591;-3.4094;
1340.1000;0.4615;-3.4044;
1340.4000;0.4591;-3.4094;
1340.7000;0.4591;-3.4044;
1341.0000;0.4615;-3.3920;
1341.3000;0.4607;-3.3895;
1341.6000;0.4599;-3.3920;
1341.9000;0.4607;-3.3970;
1342.2000;0.4599;-3.3970;
1342.5000;0.4615;-3.4019;
1342.8000;0.4615;-3.4019;
1343.1000;0.4607;-3.4019;
1343.4000;0.4615;-3.4044;
1343.7000;0.4615;-3.4069;
1344.0000;0.4615;-3.4044;
1344.3000;0.4599;-3.4019;
1344.6000;0.4624;-3.4044;
1344.9000;0.4599;-3.3970;
1345.2000;0.4599;-3.3920;
1345.5000;0.4656;-3.3771;
1345.8000;0.4599;-3.3845;
1346.1000;0.4575;-3.3945;
1346.4000;0.4607;-3.3945;
1346.7000;0.4624;-3.3920;
1347.0000;0.4624;-3.3970;
1347.3000;0.4607;-3.4019;
1347.6000;0.4624;-3.4019;
1347.9000;0.4615;-3.4019;
1348.2000;0.4607;-3.3945;
1348.5000;0.4615;-3.3945;
1348.8000;0.4615;-3.3870;
1349.1000;0.4640;-3.3796;
1349.4000;0.4648;-3.3721;
1349.7000;0.4591;-3.3845;
1350.0000;0.4591;-3.3796;
1350.3000;0.4615;-3.3646;
1350.6000;0.4599;-3.3721;
1350.9000;0.4607;-3.3671;
1351.2000;0.4599;-3.3696;
1351.5000;0.4591;-3.3721;
1351.8000;0.4510;-3.3920;
1352.1000;0.4615;-3.3621;
1352.4000;0.4575;-3.3870;
1352.7000;0.4591;-3.3796;
1353.0000;0.4542;-3.3920;
1353.3000;0.4632;-3.3696;
1353.6000;0.4575;-3.3870;
1353.9000;0.4510;-3.4044;
1354.2000;0.4583;-3.3820;
1354.5000;0.4689;-3.3547;
1354.8000;0.4583;-3.3771;
1355.1000;0.4550;-3.3845;
1355.4000;0.4591;-3.3771;
1355.7000;0.4599;-3.3870;
1356.0000;0.4599;-3.3895;
1356.3000;0.4591;-3.3945;
1356.6000;0.4591;-3.3870;
1356.9000;0.4599;-3.3845;
1357.2000;0.4599;-3.3845;
1357.5000;0.4591;-3.3994;
1357.8000;0.4599;-3.3970;
1358.1000;0.4615;-3.3845;
1358.4000;0.4599;-3.4019;
1358.7000;0.4591;-3.4019;
1359.0000;0.4567;-3.4144;
1359.3000;0.4591;-3.4069;
1359.6000;0.4599;-3.4119;
1359.9000;0.4607;-3.4094;
1360.2000;0.4575;-3.4069;
1360.5000;0.4648;-3.3895;
1360.8000;0.4599;-3.3970;
1361.1000;0.4534;-3.4119;
1361.4000;0.4583;-3.4044;
1361.7000;0.4591;-3.4044;
1362.0000;0.4599;-3.3970;
1362.3000;0.4615;-3.3895;
1362.6000;0.4599;-3.3920;
1362.9000;0.4591;-3.3920;
1363.2000;0.4615;-3.3845;
1363.5000;0.4591;-3.3820;
1363.8000;0.4591;-3.3796;
1364.1000;0.4583;-3.3845;
1364.4000;0.4607;-3.3845;
1364.7000;0.4583;-3.3895;
1365.0000;0.4599;-3.3970;
1365.3000;0.4599;-3.3945;
1365.6000;0.4599;-3.4044;
1365.9000;0.4583;-3.4218;
1366.2000;0.4648;-3.4069;
1366.5000;0.4591;-3.4193;
1366.8000;0.4599;-3.4193;
1367.1000;0.4591;-3.4119;
1367.4000;0.4607;-3.4144;
1367.7000;0.4599;-3.4119;
1368.0000;0.4599;-3.4243;
1368.3000;0.4705;-3.3870;
1368.6000;0.4624;-3.4069;
1368.9000;0.4591;-3.4044;
1369.2000;0.4607;-3.4019;
1369.5000;0.4575;-3.4069;
1369.8000;0.4591;-3.4044;
1370.1000;0.4599;-3.3994;
1370.4000;0.4534;-3.4193;
1370.7000;0.4599;-3.3920;
1371.0000;0.4607;-3.3870;
1371.3000;0.4615;-3.3895;
1371.6000;0.4624;-3.3895;
1371.9000;0.4632;-3.3746;
1372.2000;0.4575;-3.3845;
1372.5000;0.4615;-3.3820;
1372.8000;0.4615;-3.3920;
1373.1000;0.4599;-3.3994;
1373.4000;0.4591;-3.4144;
1373.7000;0.4624;-3.4044;
1374.0000;0.4599;-3.4144;
1374.3000;0.4624;-3.4044;
1374.6000;0.4558;-3.4218;
1374.9000;0.4607;-3.4144;
1375.2000;0.4591;-3.4193;
1375.5000;0.4575;-3.4218;
1375.8000;0.4615;-3.4169;
1376.1000;0.4591;-3.4218;
1376.4000;0.4607;-3.4144;
1376.7000;0.4591;-3.4044;
1377.0000;0.4607;-3.3970;
1377.3000;0.4583;-3.4044;
1377.6000;0.4607;-3.3970;
1377.9000;0.4583;-3.4119;
1378.2000;0.4599;-3.4119;
1378.5000;0.4615;-3.4094;
1378.8000;0.4713;-3.3945;
1379.1000;0.4599;-3.4218;
1379.4000;0.4575;-3.4268;
1379.7000;0.4607;-3.4243;
1380.0000;0.4599;-3.4243;
1380.3000;0.4591;-3.4218;
1380.6000;0.4599;-3.4193;
1380.9000;0.4632;-3.4119;
1381.2000;0.4591;-3.4144;
1381.5000;0.4624;-3.4119;
1381.8000;0.4583;-3.4243;
1382.1000;0.4615;-3.4144;
1382.4000;0.4615;-3.4069;
1382.7000;0.4607;-3.4044;
1383.0000;0.4575;-3.4144;
1383.3000;0.4624;-3.4069;
1383.6000;0.4607;-3.4019;
1383.9000;0.4599;-3.3994;
1384.2000;0.4640;-3.3870;
1384.5000;0.4599;-3.3945;
1384.8000;0.4624;-3.3870;
1385.1000;0.4599;-3.3920;
1385.4000;0.4599;-3.3945;
1385.7000;0.4599;-3.4019;
1386.0000;0.4599;-3.4019;
1386.3000;0.4591;-3.4094;
1386.6000;0.4591;-3.4094;
1386.9000;0.4599;-3.4044;
1387.2000;0.4591;-3.4044;
1387.5000;0.4591;-3.4094;
1387.8000;0.4607;-3.4193;
1388.1000;0.4599;-3.4293;
1388.4000;0.4607;-3.4343;
1388.7000;0.4599;-3.4367;
1389.0000;0.4607;-3.4318;
1389.3000;0.4607;-3.4318;
1389.6000;0.4599;-3.4343;
1389.9000;0.4615;-3.4144;
1390.2000;0.4591;-3.4193;
1390.5000;0.4542;-3.4318;
1390.8000;0.4591;-3.4169;
1391.1000;0.4591;-3.4169;
1391.4000;0.4607;-3.4119;
1391.7000;0.4591;-3.4144;
1392.0000;0.4591;-3.4169;
1392.3000;0.4640;-3.4094;
1392.6000;0.4575;-3.4218;
1392.9000;0.4575;-3.4218;
1393.2000;0.4624;-3.4218;
1393.5000;0.4607;-3.4268;
1393.8000;0.4607;-3.4119;
1394.1000;0.4607;-3.4218;
1394.4000;0.4615;-3.4243;
1394.7000;0.4599;-3.4318;
1395.0000;0.4632;-3.4169;
1395.3000;0.4615;-3.4169;
1395.6000;0.4583;-3.4218;
1395.9000;0.4615;-3.4144;
1396.2000;0.4583;-3.4144;
1396.5000;0.4632;-3.4019;
1396.8000;0.4599;-3.4119;
1397.1000;0.4599;-3.4119;
1397.4000;0.4591;-3.4119;
1397.7000;0.4591;-3.4193;
1398.0000;0.4591;-3.4243;
1398.3000;0.4615;-3.4243;
1398.6000;0.4591;-3.4169;
1398.9000;0.4599;-3.4094;
1399.2000;0.4713;-3.3820;
1399.5000;0.4615;-3.3970;
1399.8000;0.4607;-3.4044;
