time/ms;Fluo/V;P700 deltaI/I x10³;
-199.8000;0.5405;-3.3671;
-199.5000;0.5429;-3.3621;
-199.2000;0.5429;-3.3621;
-198.9000;0.5421;-3.3671;
-198.6000;0.5429;-3.3721;
-198.3000;0.5413;-3.3646;
-198.0000;0.5429;-3.3696;
-197.7000;0.5429;-3.3696;
-197.4000;0.5429;-3.3771;
-197.1000;0.5405;-3.3746;
-196.8000;0.5421;-3.3721;
-196.5000;0.5413;-3.3845;
-196.2000;0.5429;-3.3721;
-195.9000;0.5438;-3.3771;
-195.6000;0.5421;-3.3721;
-195.3000;0.5421;-3.3721;
-195.0000;0.5438;-3.3746;
-194.7000;0.5405;-3.3845;
-194.4000;0.5429;-3.3820;
-194.1000;0.5397;-3.3820;
-193.8000;0.5405;-3.3820;
-193.5000;0.5405;-3.3870;
-193.2000;0.5438;-3.3820;
-192.9000;0.5438;-3.3820;
-192.6000;0.5446;-3.3796;
-192.3000;0.5413;-3.3820;
-192.0000;0.5429;-3.3820;
-191.7000;0.5429;-3.3796;
-191.4000;0.5438;-3.3721;
-191.1000;0.5413;-3.3796;
-190.8000;0.5413;-3.3796;
-190.5000;0.5413;-3.3870;
-190.2000;0.5438;-3.3796;
-189.9000;0.5421;-3.3796;
-189.6000;0.5438;-3.3820;
-189.3000;0.5421;-3.3895;
-189.0000;0.5421;-3.3970;
-188.7000;0.5438;-3.4019;
-188.4000;0.5405;-3.4044;
-188.1000;0.5454;-3.3845;
-187.8000;0.5429;-3.3870;
-187.5000;0.5421;-3.3845;
-187.2000;0.5421;-3.3721;
-186.9000;0.5421;-3.3671;
-186.6000;0.5413;-3.3696;
-186.3000;0.5413;-3.3646;
-186.0000;0.5429;-3.3522;
-185.7000;0.5397;-3.3547;
-185.4000;0.5405;-3.3422;
-185.1000;0.5397;-3.3497;
-184.8000;0.5421;-3.3497;
-184.5000;0.5438;-3.3472;
-184.2000;0.5421;-3.3621;
-183.9000;0.5446;-3.3522;
-183.6000;0.5413;-3.3597;
-183.3000;0.5421;-3.3671;
-183.0000;0.5413;-3.3721;
-182.7000;0.5421;-3.3572;
-182.4000;0.5429;-3.3597;
-182.1000;0.5446;-3.3547;
-181.8000;0.5413;-3.3547;
-181.5000;0.5470;-3.3447;
-181.2000;0.5364;-3.3671;
-180.9000;0.5429;-3.3572;
-180.6000;0.5356;-3.3746;
-180.3000;0.5413;-3.3572;
-180.0000;0.5413;-3.3696;
-179.7000;0.5348;-3.3796;
-179.4000;0.5413;-3.3572;
-179.1000;0.5413;-3.3597;
-178.8000;0.5446;-3.3572;
-178.5000;0.5429;-3.3621;
-178.2000;0.5421;-3.3597;
-177.9000;0.5421;-3.3696;
-177.6000;0.5421;-3.3746;
-177.3000;0.5421;-3.3771;
-177.0000;0.5446;-3.3696;
-176.7000;0.5438;-3.3771;
-176.4000;0.5446;-3.3671;
-176.1000;0.5405;-3.3696;
-175.8000;0.5438;-3.3597;
-175.5000;0.5421;-3.3621;
-175.2000;0.5429;-3.3721;
-174.9000;0.5413;-3.3696;
-174.6000;0.5429;-3.3646;
-174.3000;0.5421;-3.3696;
-174.0000;0.5405;-3.3796;
-173.7000;0.5397;-3.3796;
-173.4000;0.5446;-3.3721;
-173.1000;0.5429;-3.3696;
-172.8000;0.5413;-3.3696;
-172.5000;0.5413;-3.3721;
-172.2000;0.5413;-3.3746;
-171.9000;0.5446;-3.3597;
-171.6000;0.5413;-3.3646;
-171.3000;0.5413;-3.3597;
-171.0000;0.5438;-3.3621;
-170.7000;0.5429;-3.3671;
-170.4000;0.5421;-3.3721;
-170.1000;0.5421;-3.3746;
-169.8000;0.5429;-3.3646;
-169.5000;0.5438;-3.3646;
-169.2000;0.5413;-3.3572;
-168.9000;0.5438;-3.3522;
-168.6000;0.5413;-3.3621;
-168.3000;0.5421;-3.3597;
-168.0000;0.5438;-3.3671;
-167.7000;0.5438;-3.3696;
-167.4000;0.5429;-3.3721;
-167.1000;0.5429;-3.3696;
-166.8000;0.5421;-3.3721;
-166.5000;0.5438;-3.3771;
-166.2000;0.5438;-3.3796;
-165.9000;0.5421;-3.3746;
-165.6000;0.5446;-3.3696;
-165.3000;0.5446;-3.3696;
-165.0000;0.5462;-3.3597;
-164.7000;0.5429;-3.3671;
-164.4000;0.5429;-3.3746;
-164.1000;0.5438;-3.3696;
-163.8000;0.5340;-3.3870;
-163.5000;0.5429;-3.3721;
-163.2000;0.5413;-3.3721;
-162.9000;0.5397;-3.3796;
-162.6000;0.5413;-3.3771;
-162.3000;0.5397;-3.3845;
-162.0000;0.5397;-3.3820;
-161.7000;0.5405;-3.3771;
-161.4000;0.5429;-3.3721;
-161.1000;0.5421;-3.3796;
-160.8000;0.5446;-3.3696;
-160.5000;0.5397;-3.3945;
-160.2000;0.5446;-3.3895;
-159.9000;0.5454;-3.3845;
-159.6000;0.5438;-3.3870;
-159.3000;0.5429;-3.3845;
-159.0000;0.5429;-3.3845;
-158.7000;0.5446;-3.3771;
-158.4000;0.5421;-3.3870;
-158.1000;0.5429;-3.3796;
-157.8000;0.5429;-3.3895;
-157.5000;0.5413;-3.3920;
-157.2000;0.5429;-3.3870;
-156.9000;0.5421;-3.3845;
-156.6000;0.5429;-3.3820;
-156.3000;0.5438;-3.3870;
-156.0000;0.5429;-3.3845;
-155.7000;0.5421;-3.3796;
-155.4000;0.5446;-3.3796;
-155.1000;0.5446;-3.3771;
-154.8000;0.5413;-3.3845;
-154.5000;0.5421;-3.3895;
-154.2000;0.5429;-3.3970;
-153.9000;0.5429;-3.4069;
-153.6000;0.5438;-3.4044;
-153.3000;0.5454;-3.3994;
-153.0000;0.5446;-3.3970;
-152.7000;0.5438;-3.4019;
-152.4000;0.5462;-3.3970;
-152.1000;0.5429;-3.4019;
-151.8000;0.5446;-3.3994;
-151.5000;0.5421;-3.4019;
-151.2000;0.5421;-3.3920;
-150.9000;0.5421;-3.3945;
-150.6000;0.5438;-3.3945;
-150.3000;0.5413;-3.4019;
-150.0000;0.5429;-3.3970;
-149.7000;0.5438;-3.4019;
-149.4000;0.5421;-3.4044;
-149.1000;0.5486;-3.3970;
-148.8000;0.5429;-3.3970;
-148.5000;0.5429;-3.3945;
-148.2000;0.5421;-3.3945;
-147.9000;0.5454;-3.3845;
-147.6000;0.5421;-3.3870;
-147.3000;0.5438;-3.3771;
-147.0000;0.5389;-3.3895;
-146.7000;0.5421;-3.3870;
-146.4000;0.5421;-3.3895;
-146.1000;0.5429;-3.3820;
-145.8000;0.5421;-3.3870;
-145.5000;0.5429;-3.3771;
-145.2000;0.5421;-3.3746;
-144.9000;0.5446;-3.3621;
-144.6000;0.5446;-3.3646;
-144.3000;0.5429;-3.3597;
-144.0000;0.5389;-3.3696;
-143.7000;0.5413;-3.3671;
-143.4000;0.5429;-3.3696;
-143.1000;0.5429;-3.3696;
-142.8000;0.5429;-3.3671;
-142.5000;0.5429;-3.3746;
-142.2000;0.5454;-3.3671;
-141.9000;0.5438;-3.3621;
-141.6000;0.5429;-3.3621;
-141.3000;0.5429;-3.3646;
-141.0000;0.5438;-3.3696;
-140.7000;0.5446;-3.3696;
-140.4000;0.5413;-3.3845;
-140.1000;0.5413;-3.3895;
-139.8000;0.5446;-3.3796;
-139.5000;0.5421;-3.3771;
-139.2000;0.5446;-3.3671;
-138.9000;0.5429;-3.3696;
-138.6000;0.5413;-3.3696;
-138.3000;0.5438;-3.3597;
-138.0000;0.5454;-3.3572;
-137.7000;0.5421;-3.3771;
-137.4000;0.5421;-3.3721;
-137.1000;0.5421;-3.3746;
-136.8000;0.5429;-3.3572;
-136.5000;0.5446;-3.3522;
-136.2000;0.5462;-3.3497;
-135.9000;0.5413;-3.3597;
-135.6000;0.5429;-3.3447;
-135.3000;0.5446;-3.3497;
-135.0000;0.5429;-3.3597;
-134.7000;0.5438;-3.3621;
-134.4000;0.5446;-3.3597;
-134.1000;0.5446;-3.3621;
-133.8000;0.5446;-3.3646;
-133.5000;0.5429;-3.3621;
-133.2000;0.5413;-3.3671;
-132.9000;0.5421;-3.3721;
-132.6000;0.5519;-3.3547;
-132.3000;0.5421;-3.3796;
-132.0000;0.5446;-3.3721;
-131.7000;0.5438;-3.3721;
-131.4000;0.5429;-3.3671;
-131.1000;0.5438;-3.3696;
-130.8000;0.5421;-3.3870;
-130.5000;0.5413;-3.3945;
-130.2000;0.5438;-3.3895;
-129.9000;0.5454;-3.3945;
-129.6000;0.5413;-3.3994;
-129.3000;0.5438;-3.3945;
-129.0000;0.5438;-3.3895;
-128.7000;0.5446;-3.3746;
-128.4000;0.5421;-3.3721;
-128.1000;0.5381;-3.3771;
-127.8000;0.5438;-3.3671;
-127.5000;0.5372;-3.3771;
-127.2000;0.5429;-3.3671;
-126.9000;0.5413;-3.3621;
-126.6000;0.5438;-3.3497;
-126.3000;0.5429;-3.3572;
-126.0000;0.5438;-3.3597;
-125.7000;0.5429;-3.3671;
-125.4000;0.5421;-3.3721;
-125.1000;0.5397;-3.3771;
-124.8000;0.5405;-3.3671;
-124.5000;0.5446;-3.3547;
-124.2000;0.5397;-3.3547;
-123.9000;0.5470;-3.3373;
-123.6000;0.5454;-3.3547;
-123.3000;0.5421;-3.3646;
-123.0000;0.5413;-3.3696;
-122.7000;0.5421;-3.3721;
-122.4000;0.5462;-3.3621;
-122.1000;0.5438;-3.3646;
-121.8000;0.5429;-3.3696;
-121.5000;0.5454;-3.3547;
-121.2000;0.5381;-3.3597;
-120.9000;0.5413;-3.3547;
-120.6000;0.5535;-3.3298;
-120.3000;0.5405;-3.3646;
-120.0000;0.5429;-3.3646;
-119.7000;0.5397;-3.3696;
-119.4000;0.5421;-3.3621;
-119.1000;0.5429;-3.3671;
-118.8000;0.5429;-3.3721;
-118.5000;0.5429;-3.3870;
-118.2000;0.5438;-3.3845;
-117.9000;0.5446;-3.3746;
-117.6000;0.5421;-3.3796;
-117.3000;0.5429;-3.3796;
-117.0000;0.5429;-3.3721;
-116.7000;0.5421;-3.3721;
-116.4000;0.5413;-3.3671;
-116.1000;0.5421;-3.3820;
-115.8000;0.5429;-3.3796;
-115.5000;0.5421;-3.3746;
-115.2000;0.5413;-3.3746;
-114.9000;0.5429;-3.3796;
-114.6000;0.5429;-3.3771;
-114.3000;0.5429;-3.3771;
-114.0000;0.5429;-3.3771;
-113.7000;0.5429;-3.3746;
-113.4000;0.5438;-3.3771;
-113.1000;0.5364;-3.3994;
-112.8000;0.5454;-3.3870;
-112.5000;0.5429;-3.3920;
-112.2000;0.5438;-3.3845;
-111.9000;0.5446;-3.3820;
-111.6000;0.5438;-3.3845;
-111.3000;0.5389;-3.3970;
-111.0000;0.5446;-3.3870;
-110.7000;0.5438;-3.3820;
-110.4000;0.5454;-3.3895;
-110.1000;0.5454;-3.3820;
-109.8000;0.5438;-3.3870;
-109.5000;0.5438;-3.3820;
-109.2000;0.5438;-3.3920;
-108.9000;0.5397;-3.4094;
-108.6000;0.5495;-3.3820;
-108.3000;0.5429;-3.3970;
-108.0000;0.5429;-3.3895;
-107.7000;0.5446;-3.3920;
-107.4000;0.5446;-3.3945;
-107.1000;0.5421;-3.3970;
-106.8000;0.5421;-3.3945;
-106.5000;0.5446;-3.3895;
-106.2000;0.5429;-3.3945;
-105.9000;0.5429;-3.3945;
-105.6000;0.5413;-3.3970;
-105.3000;0.5389;-3.4119;
-105.0000;0.5462;-3.3870;
-104.7000;0.5421;-3.3920;
-104.4000;0.5405;-3.3970;
-104.1000;0.5535;-3.3621;
-103.8000;0.5438;-3.3771;
-103.5000;0.5503;-3.3646;
-103.2000;0.5405;-3.3970;
-102.9000;0.5454;-3.3945;
-102.6000;0.5438;-3.4044;
-102.3000;0.5429;-3.4069;
-102.0000;0.5405;-3.4144;
-101.7000;0.5438;-3.4094;
-101.4000;0.5413;-3.4119;
-101.1000;0.5389;-3.4144;
-100.8000;0.5429;-3.4069;
-100.5000;0.5348;-3.4293;
-100.2000;0.5421;-3.4094;
-99.9000;0.5454;-3.4044;
-99.6000;0.5421;-3.4144;
-99.3000;0.5429;-3.4144;
-99.0000;0.5429;-3.4119;
-98.7000;0.5421;-3.4119;
-98.4000;0.5438;-3.4169;
-98.1000;0.5511;-3.3920;
-97.8000;0.5438;-3.4044;
-97.5000;0.5429;-3.3994;
-97.2000;0.5429;-3.3994;
-96.9000;0.5405;-3.3994;
-96.6000;0.5413;-3.3994;
-96.3000;0.5429;-3.3945;
-96.0000;0.5413;-3.3994;
-95.7000;0.5462;-3.3845;
-95.4000;0.5421;-3.4019;
-95.1000;0.5405;-3.4094;
-94.8000;0.5413;-3.4044;
-94.5000;0.5413;-3.3994;
-94.2000;0.5356;-3.4094;
-93.9000;0.5421;-3.3920;
-93.6000;0.5429;-3.3920;
-93.3000;0.5438;-3.3870;
-93.0000;0.5535;-3.3671;
-92.7000;0.5429;-3.3920;
-92.4000;0.5429;-3.3920;
-92.1000;0.5421;-3.3945;
-91.8000;0.5438;-3.3994;
-91.5000;0.5405;-3.3920;
-91.2000;0.5405;-3.3945;
-90.9000;0.5372;-3.4044;
-90.6000;0.5429;-3.3920;
-90.3000;0.5421;-3.4019;
-90.0000;0.5381;-3.4193;
-89.7000;0.5421;-3.3994;
-89.4000;0.5438;-3.3920;
-89.1000;0.5397;-3.4044;
-88.8000;0.5413;-3.3994;
-88.5000;0.5462;-3.3920;
-88.2000;0.5429;-3.3994;
-87.9000;0.5446;-3.3970;
-87.6000;0.5446;-3.3870;
-87.3000;0.5421;-3.3895;
-87.0000;0.5438;-3.3994;
-86.7000;0.5405;-3.4044;
-86.4000;0.5478;-3.3820;
-86.1000;0.5413;-3.3970;
-85.8000;0.5413;-3.4019;
-85.5000;0.5438;-3.3970;
-85.2000;0.5429;-3.3994;
-84.9000;0.5454;-3.3895;
-84.6000;0.5429;-3.3945;
-84.3000;0.5438;-3.3994;
-84.0000;0.5413;-3.3994;
-83.7000;0.5495;-3.3820;
-83.4000;0.5438;-3.3994;
-83.1000;0.5446;-3.3920;
-82.8000;0.5389;-3.4044;
-82.5000;0.5421;-3.3994;
-82.2000;0.5438;-3.4069;
-81.9000;0.5446;-3.4044;
-81.6000;0.5413;-3.4169;
-81.3000;0.5421;-3.4119;
-81.0000;0.5421;-3.4193;
-80.7000;0.5429;-3.4144;
-80.4000;0.5364;-3.4318;
-80.1000;0.5470;-3.4069;
-79.8000;0.5429;-3.4218;
-79.5000;0.5438;-3.4169;
-79.2000;0.5421;-3.4119;
-78.9000;0.5429;-3.4144;
-78.6000;0.5429;-3.4144;
-78.3000;0.5486;-3.4019;
-78.0000;0.5421;-3.4169;
-77.7000;0.5438;-3.4119;
-77.4000;0.5381;-3.4268;
-77.1000;0.5462;-3.4094;
-76.8000;0.5446;-3.4069;
-76.5000;0.5438;-3.4119;
-76.2000;0.5429;-3.4119;
-75.9000;0.5421;-3.4019;
-75.6000;0.5438;-3.3920;
-75.3000;0.5438;-3.3895;
-75.0000;0.5462;-3.3895;
-74.7000;0.5429;-3.4044;
-74.4000;0.5389;-3.4218;
-74.1000;0.5429;-3.4094;
-73.8000;0.5421;-3.4169;
-73.5000;0.5438;-3.4193;
-73.2000;0.5413;-3.4218;
-72.9000;0.5421;-3.4169;
-72.6000;0.5421;-3.4169;
-72.3000;0.5389;-3.4193;
-72.0000;0.5438;-3.3970;
-71.7000;0.5356;-3.4094;
-71.4000;0.5438;-3.3845;
-71.1000;0.5421;-3.3845;
-70.8000;0.5454;-3.3796;
-70.5000;0.5429;-3.3820;
-70.2000;0.5454;-3.3796;
-69.9000;0.5421;-3.3970;
-69.6000;0.5421;-3.3920;
-69.3000;0.5372;-3.4094;
-69.0000;0.5421;-3.3895;
-68.7000;0.5438;-3.3870;
-68.4000;0.5429;-3.3895;
-68.1000;0.5421;-3.3895;
-67.8000;0.5413;-3.3970;
-67.5000;0.5429;-3.3920;
-67.2000;0.5389;-3.3945;
-66.9000;0.5413;-3.3895;
-66.6000;0.5478;-3.3796;
-66.3000;0.5429;-3.3994;
-66.0000;0.5421;-3.3970;
-65.7000;0.5462;-3.3820;
-65.4000;0.5421;-3.3895;
-65.1000;0.5438;-3.3945;
-64.8000;0.5454;-3.3970;
-64.5000;0.5413;-3.4069;
-64.2000;0.5413;-3.4044;
-63.9000;0.5405;-3.4119;
-63.6000;0.5429;-3.4094;
-63.3000;0.5429;-3.4044;
-63.0000;0.5446;-3.3970;
-62.7000;0.5405;-3.3994;
-62.4000;0.5413;-3.3895;
-62.1000;0.5421;-3.3895;
-61.8000;0.5429;-3.3895;
-61.5000;0.5356;-3.4069;
-61.2000;0.5381;-3.3994;
-60.9000;0.5438;-3.3895;
-60.6000;0.5429;-3.3895;
-60.3000;0.5413;-3.3920;
-60.0000;0.5413;-3.3945;
-59.7000;0.5413;-3.3920;
-59.4000;0.5421;-3.3920;
-59.1000;0.5421;-3.3845;
-58.8000;0.5356;-3.3945;
-58.5000;0.5421;-3.3845;
-58.2000;0.5438;-3.3820;
-57.9000;0.5438;-3.3820;
-57.6000;0.5429;-3.3845;
-57.3000;0.5438;-3.3771;
-57.0000;0.5421;-3.3920;
-56.7000;0.5413;-3.3994;
-56.4000;0.5413;-3.3970;
-56.1000;0.5438;-3.3920;
-55.8000;0.5438;-3.3970;
-55.5000;0.5348;-3.4193;
-55.2000;0.5527;-3.3746;
-54.9000;0.5429;-3.3895;
-54.6000;0.5429;-3.3870;
-54.3000;0.5413;-3.3920;
-54.0000;0.5421;-3.3895;
-53.7000;0.5421;-3.3870;
-53.4000;0.5348;-3.4044;
-53.1000;0.5413;-3.3945;
-52.8000;0.5429;-3.3895;
-52.5000;0.5438;-3.3920;
-52.2000;0.5364;-3.4119;
-51.9000;0.5438;-3.3920;
-51.6000;0.5429;-3.3845;
-51.3000;0.5429;-3.3845;
-51.0000;0.5421;-3.3895;
-50.7000;0.5438;-3.3920;
-50.4000;0.5446;-3.3920;
-50.1000;0.5421;-3.3970;
-49.8000;0.5462;-3.3895;
-49.5000;0.5454;-3.3945;
-49.2000;0.5438;-3.3994;
-48.9000;0.5438;-3.3945;
-48.6000;0.5446;-3.3895;
-48.3000;0.5421;-3.3945;
-48.0000;0.5454;-3.3870;
-47.7000;0.5438;-3.3870;
-47.4000;0.5446;-3.3920;
-47.1000;0.5438;-3.3945;
-46.8000;0.5413;-3.3970;
-46.5000;0.5446;-3.3895;
-46.2000;0.5421;-3.3945;
-45.9000;0.5438;-3.3820;
-45.6000;0.5405;-3.3895;
-45.3000;0.5405;-3.3820;
-45.0000;0.5429;-3.3696;
-44.7000;0.5421;-3.3820;
-44.4000;0.5421;-3.3895;
-44.1000;0.5429;-3.3870;
-43.8000;0.5446;-3.3845;
-43.5000;0.5421;-3.3895;
-43.2000;0.5429;-3.3820;
-42.9000;0.5478;-3.3746;
-42.6000;0.5438;-3.3820;
-42.3000;0.5438;-3.3845;
-42.0000;0.5429;-3.3845;
-41.7000;0.5535;-3.3621;
-41.4000;0.5438;-3.3845;
-41.1000;0.5454;-3.3820;
-40.8000;0.5438;-3.3870;
-40.5000;0.5421;-3.3895;
-40.2000;0.5413;-3.3945;
-39.9000;0.5462;-3.3746;
-39.6000;0.5429;-3.3746;
-39.3000;0.5421;-3.3845;
-39.0000;0.5429;-3.3895;
-38.7000;0.5438;-3.3796;
-38.4000;0.5421;-3.3796;
-38.1000;0.5421;-3.3895;
-37.8000;0.5413;-3.3895;
-37.5000;0.5438;-3.3820;
-37.2000;0.5438;-3.3820;
-36.9000;0.5413;-3.3945;
-36.6000;0.5413;-3.3945;
-36.3000;0.5421;-3.3870;
-36.0000;0.5405;-3.3895;
-35.7000;0.5421;-3.3796;
-35.4000;0.5429;-3.3771;
-35.1000;0.5413;-3.3920;
-34.8000;0.5429;-3.3895;
-34.5000;0.5429;-3.3945;
-34.2000;0.5405;-3.4019;
-33.9000;0.5405;-3.3970;
-33.6000;0.5397;-3.4044;
-33.3000;0.5421;-3.3994;
-33.0000;0.5421;-3.3994;
-32.7000;0.5421;-3.3970;
-32.4000;0.5429;-3.3920;
-32.1000;0.5503;-3.3621;
-31.8000;0.5421;-3.3771;
-31.5000;0.5421;-3.3820;
-31.2000;0.5429;-3.3796;
-30.9000;0.5446;-3.3696;
-30.6000;0.5454;-3.3721;
-30.3000;0.5429;-3.3820;
-30.0000;0.5462;-3.3771;
-29.7000;0.5446;-3.3746;
-29.4000;0.5478;-3.3671;
-29.1000;0.5429;-3.3820;
-28.8000;0.5429;-3.3771;
-28.5000;0.5413;-3.3746;
-28.2000;0.5462;-3.3696;
-27.9000;0.5438;-3.3696;
-27.6000;0.5413;-3.3771;
-27.3000;0.5535;-3.3497;
-27.0000;0.5421;-3.3796;
-26.7000;0.5421;-3.3820;
-26.4000;0.5421;-3.3820;
-26.1000;0.5421;-3.3845;
-25.8000;0.5438;-3.3771;
-25.5000;0.5438;-3.3796;
-25.2000;0.5454;-3.3796;
-24.9000;0.5397;-3.3895;
-24.6000;0.5462;-3.3646;
-24.3000;0.5429;-3.3721;
-24.0000;0.5421;-3.3721;
-23.7000;0.5446;-3.3621;
-23.4000;0.5438;-3.3671;
-23.1000;0.5421;-3.3696;
-22.8000;0.5429;-3.3721;
-22.5000;0.5429;-3.3696;
-22.2000;0.5438;-3.3621;
-21.9000;0.5429;-3.3621;
-21.6000;0.5438;-3.3646;
-21.3000;0.5438;-3.3696;
-21.0000;0.5413;-3.3721;
-20.7000;0.5421;-3.3721;
-20.4000;0.5429;-3.3771;
-20.1000;0.5438;-3.3746;
-19.8000;0.5421;-3.3746;
-19.5000;0.5438;-3.3796;
-19.2000;0.5478;-3.3671;
-18.9000;0.5462;-3.3721;
-18.6000;0.5454;-3.3796;
-18.3000;0.5421;-3.3895;
-18.0000;0.5413;-3.3920;
-17.7000;0.5446;-3.3870;
-17.4000;0.5429;-3.3845;
-17.1000;0.5438;-3.3771;
-16.8000;0.5421;-3.3845;
-16.5000;0.5421;-3.3820;
-16.2000;0.5421;-3.3895;
-15.9000;0.5421;-3.3994;
-15.6000;0.5372;-3.3920;
-15.3000;0.5438;-3.3771;
-15.0000;0.5438;-3.3845;
-14.7000;0.5438;-3.3920;
-14.4000;0.5429;-3.3895;
-14.1000;0.5429;-3.3970;
-13.8000;0.5454;-3.3920;
-13.5000;0.5421;-3.4044;
-13.2000;0.5446;-3.3970;
-12.9000;0.5421;-3.4044;
-12.6000;0.5454;-3.3970;
-12.3000;0.5438;-3.4069;
-12.0000;0.5446;-3.4044;
-11.7000;0.5446;-3.4069;
-11.4000;0.5429;-3.4119;
-11.1000;0.5429;-3.4144;
-10.8000;0.5429;-3.4119;
-10.5000;0.5438;-3.4144;
-10.2000;0.5438;-3.4119;
-9.9000;0.5446;-3.4094;
-9.6000;0.5446;-3.3994;
-9.3000;0.5429;-3.4069;
-9.0000;0.5535;-3.3870;
-8.7000;0.5429;-3.4069;
-8.4000;0.5429;-3.3970;
-8.1000;0.5429;-3.4019;
-7.8000;0.5421;-3.4069;
-7.5000;0.5405;-3.4094;
-7.2000;0.5446;-3.4019;
-6.9000;0.5429;-3.4069;
-6.6000;0.5364;-3.4144;
-6.3000;0.5429;-3.3970;
-6.0000;0.5421;-3.3994;
-5.7000;0.5429;-3.3970;
-5.4000;0.5438;-3.4044;
-5.1000;0.5405;-3.4044;
-4.8000;0.5413;-3.3920;
-4.5000;0.5429;-3.3820;
-4.2000;0.5429;-3.3696;
-3.9000;0.5446;-3.3621;
-3.6000;0.5421;-3.3696;
-3.3000;0.5438;-3.3621;
-3.0000;0.5421;-3.3646;
-2.7000;0.5429;-3.3646;
-2.4000;0.5446;-3.3597;
-2.1000;0.5470;-3.3646;
-1.8000;0.5429;-3.3771;
-1.5000;0.5421;-3.3721;
-1.2000;0.5438;-3.3746;
-0.9000;0.5429;-3.3746;
-0.6000;0.5446;-3.3746;
-0.3000;0.5446;-3.3796;
0.0000;0.5446;-3.3796;
0.3000;0.5592;-3.3796;
0.6000;0.5845;-3.3597;
0.9000;0.6056;-3.3248;
1.2000;0.6227;-3.2925;
1.5000;0.6349;-3.2701;
1.8000;0.6512;-3.2453;
2.1000;0.6561;-3.2353;
2.4000;0.6626;-3.2254;
2.7000;0.6691;-3.2154;
3.0000;0.6764;-3.1930;
3.3000;0.6813;-3.1806;
3.6000;0.6870;-3.1682;
3.9000;0.6903;-3.1707;
4.2000;0.6927;-3.1582;
4.5000;0.6960;-3.1557;
4.8000;0.6976;-3.1483;
5.1000;0.6992;-3.1433;
5.4000;0.7017;-3.1383;
5.7000;0.7041;-3.1458;
6.0000;0.7057;-3.1433;
6.3000;0.7082;-3.1408;
6.6000;0.7082;-3.1358;
6.9000;0.7098;-3.1358;
7.2000;0.7123;-3.1234;
7.5000;0.7139;-3.1259;
7.8000;0.7147;-3.1259;
8.1000;0.7163;-3.1358;
8.4000;0.7220;-3.1209;
8.7000;0.7220;-3.1160;
9.0000;0.7196;-3.1234;
9.3000;0.7196;-3.1259;
9.6000;0.7212;-3.1259;
9.9000;0.7196;-3.1309;
10.2000;0.7212;-3.1234;
10.5000;0.7228;-3.1209;
10.8000;0.7204;-3.1358;
11.1000;0.7269;-3.1234;
11.4000;0.7277;-3.1209;
11.7000;0.7261;-3.1259;
12.0000;0.7236;-3.1458;
12.3000;0.7269;-3.1408;
12.6000;0.7277;-3.1383;
12.9000;0.7293;-3.1433;
13.2000;0.7269;-3.1508;
13.5000;0.7302;-3.1483;
13.8000;0.7318;-3.1508;
14.1000;0.7310;-3.1557;
14.4000;0.7318;-3.1458;
14.7000;0.7383;-3.1209;
15.0000;0.7359;-3.1284;
15.3000;0.7350;-3.1358;
15.6000;0.7334;-3.1358;
15.9000;0.7310;-3.1433;
16.2000;0.7350;-3.1234;
16.5000;0.7350;-3.1259;
16.8000;0.7350;-3.1309;
17.1000;0.7359;-3.1309;
17.4000;0.7359;-3.1334;
17.7000;0.7383;-3.1334;
18.0000;0.7342;-3.1433;
18.3000;0.7367;-3.1383;
18.6000;0.7367;-3.1483;
18.9000;0.7391;-3.1483;
19.2000;0.7359;-3.1508;
19.5000;0.7318;-3.1657;
19.8000;0.7391;-3.1433;
20.1000;0.7416;-3.1383;
20.4000;0.7391;-3.1433;
20.7000;0.7391;-3.1483;
21.0000;0.7407;-3.1433;
21.3000;0.7489;-3.1184;
21.6000;0.7407;-3.1383;
21.9000;0.7407;-3.1358;
22.2000;0.7399;-3.1284;
22.5000;0.7399;-3.1234;
22.8000;0.7416;-3.1234;
23.1000;0.7432;-3.1135;
23.4000;0.7367;-3.1284;
23.7000;0.7416;-3.1160;
24.0000;0.7440;-3.1035;
24.3000;0.7391;-3.1234;
24.6000;0.7424;-3.1259;
24.9000;0.7432;-3.1160;
25.2000;0.7391;-3.1334;
25.5000;0.7473;-3.1184;
25.8000;0.7456;-3.1135;
26.1000;0.7448;-3.1209;
26.4000;0.7440;-3.1284;
26.7000;0.7448;-3.1259;
27.0000;0.7432;-3.1234;
27.3000;0.7448;-3.1234;
27.6000;0.7424;-3.1284;
27.9000;0.7448;-3.1209;
28.2000;0.7473;-3.1085;
28.5000;0.7416;-3.1284;
28.8000;0.7432;-3.1259;
29.1000;0.7448;-3.1209;
29.4000;0.7473;-3.1110;
29.7000;0.7424;-3.1284;
30.0000;0.7473;-3.1284;
30.3000;0.7481;-3.1259;
30.6000;0.7416;-3.1508;
30.9000;0.7464;-3.1309;
31.2000;0.7383;-3.1557;
31.5000;0.7375;-3.1657;
31.8000;0.7456;-3.1433;
32.1000;0.7505;-3.1259;
32.4000;0.7440;-3.1358;
32.7000;0.7473;-3.1334;
33.0000;0.7473;-3.1408;
33.3000;0.7562;-3.1284;
33.6000;0.7489;-3.1408;
33.9000;0.7464;-3.1458;
34.2000;0.7497;-3.1358;
34.5000;0.7497;-3.1358;
34.8000;0.7505;-3.1334;
35.1000;0.7497;-3.1309;
35.4000;0.7489;-3.1259;
35.7000;0.7489;-3.1234;
36.0000;0.7513;-3.1110;
36.3000;0.7497;-3.1110;
36.6000;0.7456;-3.1184;
36.9000;0.7489;-3.1110;
37.2000;0.7464;-3.1209;
37.5000;0.7489;-3.1160;
37.8000;0.7497;-3.1160;
38.1000;0.7481;-3.1160;
38.4000;0.7513;-3.1035;
38.7000;0.7489;-3.1110;
39.0000;0.7481;-3.1160;
39.3000;0.7489;-3.1234;
39.6000;0.7481;-3.1334;
39.9000;0.7505;-3.1209;
40.2000;0.7497;-3.1184;
40.5000;0.7456;-3.1284;
40.8000;0.7489;-3.1085;
41.1000;0.7497;-3.1035;
41.4000;0.7489;-3.1135;
41.7000;0.7546;-3.1184;
42.0000;0.7481;-3.1383;
42.3000;0.7481;-3.1358;
42.6000;0.7497;-3.1358;
42.9000;0.7505;-3.1408;
43.2000;0.7530;-3.1383;
43.5000;0.7497;-3.1458;
43.8000;0.7513;-3.1334;
44.1000;0.7505;-3.1433;
44.4000;0.7562;-3.1334;
44.7000;0.7513;-3.1358;
45.0000;0.7489;-3.1408;
45.3000;0.7505;-3.1334;
45.6000;0.7497;-3.1334;
45.9000;0.7530;-3.1309;
46.2000;0.7603;-3.1135;
46.5000;0.7521;-3.1408;
46.8000;0.7513;-3.1358;
47.1000;0.7497;-3.1309;
47.4000;0.7489;-3.1259;
47.7000;0.7513;-3.1110;
48.0000;0.7497;-3.1184;
48.3000;0.7505;-3.1234;
48.6000;0.7505;-3.1184;
48.9000;0.7554;-3.1060;
49.2000;0.7473;-3.1259;
49.5000;0.7513;-3.1110;
49.8000;0.7546;-3.1010;
50.1000;0.7521;-3.1160;
50.4000;0.7530;-3.1160;
50.7000;0.7562;-3.1110;
51.0000;0.7513;-3.1160;
51.3000;0.7521;-3.1160;
51.6000;0.7513;-3.1135;
51.9000;0.7521;-3.1085;
52.2000;0.7513;-3.1160;
52.5000;0.7521;-3.1184;
52.8000;0.7521;-3.1160;
53.1000;0.7554;-3.1110;
53.4000;0.7546;-3.1135;
53.7000;0.7554;-3.1035;
54.0000;0.7530;-3.1035;
54.3000;0.7554;-3.0961;
54.6000;0.7464;-3.1334;
54.9000;0.7521;-3.1160;
55.2000;0.7481;-3.1259;
55.5000;0.7530;-3.1110;
55.8000;0.7521;-3.1135;
56.1000;0.7497;-3.1234;
56.4000;0.7505;-3.1209;
56.7000;0.7530;-3.1184;
57.0000;0.7538;-3.1184;
57.3000;0.7538;-3.1209;
57.6000;0.7513;-3.1358;
57.9000;0.7521;-3.1408;
58.2000;0.7538;-3.1309;
58.5000;0.7530;-3.1309;
58.8000;0.7513;-3.1334;
59.1000;0.7530;-3.1334;
59.4000;0.7521;-3.1358;
59.7000;0.7513;-3.1334;
60.0000;0.7530;-3.1284;
60.3000;0.7530;-3.1234;
60.6000;0.7538;-3.1160;
60.9000;0.7554;-3.1110;
61.2000;0.7530;-3.1110;
61.5000;0.7513;-3.1234;
61.8000;0.7586;-3.1110;
62.1000;0.7546;-3.1259;
62.4000;0.7619;-3.1060;
62.7000;0.7521;-3.1259;
63.0000;0.7530;-3.1234;
63.3000;0.7530;-3.1184;
63.6000;0.7546;-3.1160;
63.9000;0.7521;-3.1284;
64.2000;0.7546;-3.1209;
64.5000;0.7546;-3.1110;
64.8000;0.7538;-3.1110;
65.1000;0.7538;-3.1110;
65.4000;0.7554;-3.1110;
65.7000;0.7538;-3.1135;
66.0000;0.7521;-3.1060;
66.3000;0.7538;-3.1184;
66.6000;0.7521;-3.1184;
66.9000;0.7505;-3.1209;
67.2000;0.7546;-3.1010;
67.5000;0.7521;-3.1060;
67.8000;0.7538;-3.1160;
68.1000;0.7538;-3.1184;
68.4000;0.7538;-3.1209;
68.7000;0.7530;-3.1209;
69.0000;0.7530;-3.1209;
69.3000;0.7530;-3.1284;
69.6000;0.7538;-3.1259;
69.9000;0.7538;-3.1259;
70.2000;0.7530;-3.1234;
70.5000;0.7546;-3.1160;
70.8000;0.7513;-3.1184;
71.1000;0.7513;-3.1184;
71.4000;0.7530;-3.1184;
71.7000;0.7538;-3.1160;
72.0000;0.7456;-3.1309;
72.3000;0.7603;-3.0911;
72.6000;0.7530;-3.1184;
72.9000;0.7530;-3.1135;
73.2000;0.7530;-3.1160;
73.5000;0.7530;-3.1234;
73.8000;0.7521;-3.1309;
74.1000;0.7530;-3.1259;
74.4000;0.7554;-3.1209;
74.7000;0.7530;-3.1334;
75.0000;0.7521;-3.1334;
75.3000;0.7538;-3.1358;
75.6000;0.7546;-3.1358;
75.9000;0.7521;-3.1433;
76.2000;0.7513;-3.1383;
76.5000;0.7530;-3.1284;
76.8000;0.7521;-3.1160;
77.1000;0.7521;-3.1234;
77.4000;0.7513;-3.1309;
77.7000;0.7538;-3.1135;
78.0000;0.7521;-3.1209;
78.3000;0.7554;-3.1135;
78.6000;0.7521;-3.1284;
78.9000;0.7546;-3.1184;
79.2000;0.7538;-3.1259;
79.5000;0.7538;-3.1309;
79.8000;0.7538;-3.1309;
80.1000;0.7521;-3.1383;
80.4000;0.7546;-3.1433;
80.7000;0.7530;-3.1358;
81.0000;0.7538;-3.1358;
81.3000;0.7530;-3.1334;
81.6000;0.7554;-3.1209;
81.9000;0.7513;-3.1309;
82.2000;0.7530;-3.1334;
82.5000;0.7546;-3.1309;
82.8000;0.7464;-3.1508;
83.1000;0.7546;-3.1334;
83.4000;0.7538;-3.1383;
83.7000;0.7530;-3.1458;
84.0000;0.7538;-3.1433;
84.3000;0.7530;-3.1383;
84.6000;0.7481;-3.1358;
84.9000;0.7530;-3.1135;
85.2000;0.7530;-3.1259;
85.5000;0.7546;-3.1234;
85.8000;0.7546;-3.1284;
86.1000;0.7538;-3.1284;
86.4000;0.7538;-3.1334;
86.7000;0.7570;-3.1284;
87.0000;0.7554;-3.1284;
87.3000;0.7530;-3.1234;
87.6000;0.7521;-3.1259;
87.9000;0.7538;-3.1234;
88.2000;0.7538;-3.1209;
88.5000;0.7538;-3.1234;
88.8000;0.7538;-3.1234;
89.1000;0.7513;-3.1334;
89.4000;0.7530;-3.1309;
89.7000;0.7489;-3.1408;
90.0000;0.7554;-3.1234;
90.3000;0.7538;-3.1284;
90.6000;0.7538;-3.1284;
90.9000;0.7562;-3.1209;
91.2000;0.7546;-3.1259;
91.5000;0.7530;-3.1358;
91.8000;0.7538;-3.1334;
92.1000;0.7497;-3.1458;
92.4000;0.7538;-3.1433;
92.7000;0.7521;-3.1408;
93.0000;0.7521;-3.1358;
93.3000;0.7546;-3.1358;
93.6000;0.7538;-3.1383;
93.9000;0.7521;-3.1433;
94.2000;0.7489;-3.1557;
94.5000;0.7530;-3.1383;
94.8000;0.7530;-3.1334;
95.1000;0.7538;-3.1358;
95.4000;0.7530;-3.1309;
95.7000;0.7538;-3.1284;
96.0000;0.7538;-3.1309;
96.3000;0.7595;-3.1035;
96.6000;0.7521;-3.1085;
96.9000;0.7521;-3.1135;
97.2000;0.7538;-3.1110;
97.5000;0.7530;-3.1085;
97.8000;0.7546;-3.1160;
98.1000;0.7562;-3.1160;
98.4000;0.7530;-3.1284;
98.7000;0.7530;-3.1259;
99.0000;0.7538;-3.1259;
99.3000;0.7546;-3.1234;
99.6000;0.7538;-3.1259;
99.9000;0.7538;-3.1209;
100.2000;0.7538;-3.1259;
100.5000;0.7513;-3.1259;
100.8000;0.7513;-3.1184;
101.1000;0.7530;-3.1160;
101.4000;0.7554;-3.1110;
101.7000;0.7530;-3.1110;
102.0000;0.7521;-3.1184;
102.3000;0.7521;-3.1184;
102.6000;0.7530;-3.1160;
102.9000;0.7530;-3.1160;
103.2000;0.7546;-3.1160;
103.5000;0.7554;-3.1085;
103.8000;0.7497;-3.1234;
104.1000;0.7643;-3.0886;
104.4000;0.7521;-3.1259;
104.7000;0.7530;-3.1259;
105.0000;0.7513;-3.1259;
105.3000;0.7546;-3.1309;
105.6000;0.7546;-3.1284;
105.9000;0.7530;-3.1309;
106.2000;0.7440;-3.1483;
106.5000;0.7505;-3.1234;
106.8000;0.7530;-3.1209;
107.1000;0.7513;-3.1259;
107.4000;0.7530;-3.1259;
107.7000;0.7530;-3.1309;
108.0000;0.7570;-3.1110;
108.3000;0.7546;-3.1184;
108.6000;0.7530;-3.1234;
108.9000;0.7530;-3.1234;
109.2000;0.7562;-3.1234;
109.5000;0.7489;-3.1358;
109.8000;0.7530;-3.1085;
110.1000;0.7562;-3.0936;
110.4000;0.7521;-3.1060;
110.7000;0.7530;-3.1035;
111.0000;0.7521;-3.1010;
111.3000;0.7530;-3.0985;
111.6000;0.7538;-3.1010;
111.9000;0.7570;-3.0861;
112.2000;0.7538;-3.0911;
112.5000;0.7530;-3.0985;
112.8000;0.7497;-3.1085;
113.1000;0.7530;-3.1035;
113.4000;0.7546;-3.1160;
113.7000;0.7546;-3.1234;
114.0000;0.7530;-3.1234;
114.3000;0.7538;-3.1234;
114.6000;0.7530;-3.1209;
114.9000;0.7521;-3.1259;
115.2000;0.7538;-3.1209;
115.5000;0.7530;-3.1160;
115.8000;0.7546;-3.1135;
116.1000;0.7521;-3.1209;
116.4000;0.7505;-3.1259;
116.7000;0.7538;-3.1135;
117.0000;0.7538;-3.1110;
117.3000;0.7586;-3.1035;
117.6000;0.7513;-3.1309;
117.9000;0.7530;-3.1284;
118.2000;0.7530;-3.1309;
118.5000;0.7538;-3.1408;
118.8000;0.7530;-3.1383;
119.1000;0.7513;-3.1408;
119.4000;0.7538;-3.1334;
119.7000;0.7554;-3.1209;
120.0000;0.7538;-3.1209;
120.3000;0.7513;-3.1209;
120.6000;0.7530;-3.1209;
120.9000;0.7530;-3.1160;
121.2000;0.7505;-3.1135;
121.5000;0.7513;-3.1160;
121.8000;0.7521;-3.1110;
122.1000;0.7530;-3.1160;
122.4000;0.7521;-3.1110;
122.7000;0.7505;-3.1234;
123.0000;0.7513;-3.1234;
123.3000;0.7497;-3.1259;
123.6000;0.7554;-3.1184;
123.9000;0.7538;-3.1209;
124.2000;0.7578;-3.1110;
124.5000;0.7464;-3.1433;
124.8000;0.7554;-3.1234;
125.1000;0.7562;-3.1110;
125.4000;0.7546;-3.1060;
125.7000;0.7521;-3.1209;
126.0000;0.7546;-3.1184;
126.3000;0.7578;-3.1209;
126.6000;0.7570;-3.1184;
126.9000;0.7562;-3.1135;
127.2000;0.7456;-3.1259;
127.5000;0.7570;-3.0886;
127.8000;0.7570;-3.0861;
128.1000;0.7513;-3.0961;
128.4000;0.7521;-3.1010;
128.7000;0.7530;-3.0961;
129.0000;0.7521;-3.0985;
129.3000;0.7416;-3.1284;
129.6000;0.7505;-3.1060;
129.9000;0.7464;-3.1160;
130.2000;0.7530;-3.0936;
130.5000;0.7538;-3.0985;
130.8000;0.7643;-3.0762;
131.1000;0.7546;-3.1085;
131.4000;0.7546;-3.1110;
131.7000;0.7538;-3.1060;
132.0000;0.7497;-3.1135;
132.3000;0.7530;-3.1110;
132.6000;0.7513;-3.1209;
132.9000;0.7538;-3.1110;
133.2000;0.7530;-3.1160;
133.5000;0.7538;-3.1085;
133.8000;0.7562;-3.1010;
134.1000;0.7538;-3.1010;
134.4000;0.7521;-3.1035;
134.7000;0.7554;-3.1035;
135.0000;0.7530;-3.1160;
135.3000;0.7530;-3.1160;
135.6000;0.7521;-3.1135;
135.9000;0.7513;-3.1184;
136.2000;0.7513;-3.1184;
136.5000;0.7513;-3.1160;
136.8000;0.7538;-3.1110;
137.1000;0.7513;-3.1184;
137.4000;0.7562;-3.1135;
137.7000;0.7530;-3.1209;
138.0000;0.7530;-3.1184;
138.3000;0.7530;-3.1184;
138.6000;0.7538;-3.1209;
138.9000;0.7530;-3.1234;
139.2000;0.7505;-3.1284;
139.5000;0.7554;-3.1135;
139.8000;0.7586;-3.0936;
140.1000;0.7546;-3.1060;
140.4000;0.7652;-3.0836;
140.7000;0.7530;-3.1110;
141.0000;0.7521;-3.1085;
141.3000;0.7521;-3.1110;
141.6000;0.7513;-3.1035;
141.9000;0.7546;-3.1010;
142.2000;0.7578;-3.0886;
142.5000;0.7513;-3.1160;
142.8000;0.7530;-3.1184;
143.1000;0.7554;-3.1135;
143.4000;0.7530;-3.1160;
143.7000;0.7538;-3.1234;
144.0000;0.7530;-3.1209;
144.3000;0.7570;-3.1110;
144.6000;0.7530;-3.1234;
144.9000;0.7538;-3.1209;
145.2000;0.7595;-3.1135;
145.5000;0.7530;-3.1309;
145.8000;0.7530;-3.1284;
146.1000;0.7562;-3.1085;
146.4000;0.7513;-3.1160;
146.7000;0.7538;-3.1135;
147.0000;0.7538;-3.1234;
147.3000;0.7481;-3.1358;
147.6000;0.7505;-3.1309;
147.9000;0.7505;-3.1209;
148.2000;0.7521;-3.1110;
148.5000;0.7578;-3.0886;
148.8000;0.7530;-3.0985;
149.1000;0.7538;-3.0961;
149.4000;0.7530;-3.0985;
149.7000;0.7546;-3.0985;
150.0000;0.7530;-3.1110;
150.3000;0.7481;-3.1234;
150.6000;0.7546;-3.1085;
150.9000;0.7546;-3.1035;
151.2000;0.7546;-3.1035;
151.5000;0.7513;-3.1135;
151.8000;0.7505;-3.1085;
152.1000;0.7497;-3.1160;
152.4000;0.7546;-3.1035;
152.7000;0.7530;-3.1085;
153.0000;0.7521;-3.1035;
153.3000;0.7521;-3.1035;
153.6000;0.7538;-3.0985;
153.9000;0.7554;-3.0911;
154.2000;0.7546;-3.1010;
154.5000;0.7562;-3.1035;
154.8000;0.7554;-3.1110;
155.1000;0.7538;-3.1110;
155.4000;0.7562;-3.1160;
155.7000;0.7530;-3.1160;
156.0000;0.7538;-3.1234;
156.3000;0.7521;-3.1259;
156.6000;0.7554;-3.1209;
156.9000;0.7546;-3.1184;
157.2000;0.7530;-3.1234;
157.5000;0.7538;-3.1259;
157.8000;0.7554;-3.1234;
158.1000;0.7530;-3.1259;
158.4000;0.7586;-3.1135;
158.7000;0.7530;-3.1259;
159.0000;0.7546;-3.1259;
159.3000;0.7530;-3.1259;
159.6000;0.7538;-3.1110;
159.9000;0.7619;-3.0886;
160.2000;0.7554;-3.1209;
160.5000;0.7521;-3.1383;
160.8000;0.7530;-3.1309;
161.1000;0.7513;-3.1383;
161.4000;0.7521;-3.1334;
161.7000;0.7635;-3.0936;
162.0000;0.7521;-3.1259;
162.3000;0.7513;-3.1284;
162.6000;0.7546;-3.1234;
162.9000;0.7530;-3.1209;
163.2000;0.7611;-3.0886;
163.5000;0.7521;-3.1110;
163.8000;0.7513;-3.1184;
164.1000;0.7521;-3.1085;
164.4000;0.7530;-3.1060;
164.7000;0.7546;-3.1110;
165.0000;0.7530;-3.1160;
165.3000;0.7538;-3.1160;
165.6000;0.7530;-3.1309;
165.9000;0.7530;-3.1334;
166.2000;0.7350;-3.1806;
166.5000;0.7513;-3.1408;
166.8000;0.7530;-3.1358;
167.1000;0.7530;-3.1433;
167.4000;0.7530;-3.1408;
167.7000;0.7521;-3.1433;
168.0000;0.7570;-3.1309;
168.3000;0.7578;-3.1259;
168.6000;0.7546;-3.1309;
168.9000;0.7530;-3.1284;
169.2000;0.7464;-3.1358;
169.5000;0.7562;-3.1209;
169.8000;0.7530;-3.1209;
170.1000;0.7538;-3.1259;
170.4000;0.7546;-3.1259;
170.7000;0.7538;-3.1309;
171.0000;0.7530;-3.1259;
171.3000;0.7530;-3.1259;
171.6000;0.7521;-3.1334;
171.9000;0.7530;-3.1284;
172.2000;0.7521;-3.1209;
172.5000;0.7489;-3.1309;
172.8000;0.7521;-3.1259;
173.1000;0.7530;-3.1234;
173.4000;0.7505;-3.1334;
173.7000;0.7530;-3.1309;
174.0000;0.7530;-3.1383;
174.3000;0.7538;-3.1358;
174.6000;0.7546;-3.1309;
174.9000;0.7562;-3.1309;
175.2000;0.7546;-3.1358;
175.5000;0.7603;-3.1184;
175.8000;0.7554;-3.1259;
176.1000;0.7530;-3.1209;
176.4000;0.7538;-3.1184;
176.7000;0.7530;-3.1184;
177.0000;0.7530;-3.1284;
177.3000;0.7521;-3.1334;
177.6000;0.7538;-3.1334;
177.9000;0.7578;-3.1259;
178.2000;0.7538;-3.1259;
178.5000;0.7530;-3.1184;
178.8000;0.7530;-3.1135;
179.1000;0.7530;-3.1209;
179.4000;0.7521;-3.1309;
179.7000;0.7521;-3.1309;
180.0000;0.7530;-3.1334;
180.3000;0.7538;-3.1334;
180.6000;0.7513;-3.1358;
180.9000;0.7505;-3.1358;
181.2000;0.7538;-3.1234;
181.5000;0.7530;-3.1309;
181.8000;0.7546;-3.1334;
182.1000;0.7497;-3.1433;
182.4000;0.7578;-3.1184;
182.7000;0.7530;-3.1334;
183.0000;0.7432;-3.1483;
183.3000;0.7530;-3.1209;
183.6000;0.7530;-3.1184;
183.9000;0.7554;-3.1060;
184.2000;0.7530;-3.1135;
184.5000;0.7521;-3.1160;
184.8000;0.7538;-3.1060;
185.1000;0.7635;-3.0861;
185.4000;0.7562;-3.1010;
185.7000;0.7505;-3.1110;
186.0000;0.7497;-3.1135;
186.3000;0.7546;-3.1085;
186.6000;0.7521;-3.1234;
186.9000;0.7530;-3.1160;
187.2000;0.7538;-3.1209;
187.5000;0.7530;-3.1284;
187.8000;0.7562;-3.1259;
188.1000;0.7538;-3.1358;
188.4000;0.7464;-3.1533;
188.7000;0.7464;-3.1408;
189.0000;0.7521;-3.1284;
189.3000;0.7521;-3.1209;
189.6000;0.7570;-3.1060;
189.9000;0.7530;-3.1184;
190.2000;0.7530;-3.1234;
190.5000;0.7546;-3.1135;
190.8000;0.7530;-3.1184;
191.1000;0.7538;-3.1209;
191.4000;0.7538;-3.1234;
191.7000;0.7538;-3.1284;
192.0000;0.7538;-3.1209;
192.3000;0.7521;-3.1259;
192.6000;0.7521;-3.1160;
192.9000;0.7530;-3.1160;
193.2000;0.7497;-3.1259;
193.5000;0.7464;-3.1383;
193.8000;0.7513;-3.1334;
194.1000;0.7513;-3.1358;
194.4000;0.7530;-3.1259;
194.7000;0.7530;-3.1259;
195.0000;0.7530;-3.1334;
195.3000;0.7513;-3.1383;
195.6000;0.7521;-3.1383;
195.9000;0.7440;-3.1582;
196.2000;0.7530;-3.1358;
196.5000;0.7521;-3.1259;
196.8000;0.7473;-3.1309;
197.1000;0.7521;-3.1160;
197.4000;0.7513;-3.1184;
197.7000;0.7505;-3.1184;
198.0000;0.7513;-3.1184;
198.3000;0.7538;-3.1110;
198.6000;0.7481;-3.1334;
198.9000;0.7481;-3.1408;
199.2000;0.7538;-3.1234;
199.5000;0.7538;-3.1184;
199.8000;0.7521;-3.1209;
200.1000;0.7521;-3.1184;
200.4000;0.7530;-3.1085;
200.7000;0.7521;-3.1035;
201.0000;0.7660;-3.0811;
201.3000;0.7521;-3.1135;
201.6000;0.7530;-3.1184;
201.9000;0.7538;-3.1209;
202.2000;0.7530;-3.1284;
202.5000;0.7546;-3.1284;
202.8000;0.7538;-3.1383;
203.1000;0.7521;-3.1458;
203.4000;0.7521;-3.1533;
203.7000;0.7530;-3.1508;
204.0000;0.7700;-3.1060;
204.3000;0.7538;-3.1483;
204.6000;0.7554;-3.1408;
204.9000;0.7538;-3.1483;
205.2000;0.7497;-3.1657;
205.5000;0.7513;-3.1607;
205.8000;0.7538;-3.1483;
206.1000;0.7578;-3.1533;
206.4000;0.7570;-3.1483;
206.7000;0.7521;-3.1557;
207.0000;0.7513;-3.1607;
207.3000;0.7521;-3.1731;
207.6000;0.7505;-3.1731;
207.9000;0.7521;-3.1607;
208.2000;0.7554;-3.1483;
208.5000;0.7530;-3.1557;
208.8000;0.7530;-3.1557;
209.1000;0.7530;-3.1582;
209.4000;0.7521;-3.1582;
209.7000;0.7513;-3.1533;
210.0000;0.7497;-3.1557;
210.3000;0.7497;-3.1607;
210.6000;0.7521;-3.1632;
210.9000;0.7521;-3.1707;
211.2000;0.7530;-3.1707;
211.5000;0.7538;-3.1707;
211.8000;0.7538;-3.1657;
212.1000;0.7521;-3.1707;
212.4000;0.7611;-3.1483;
212.7000;0.7538;-3.1632;
213.0000;0.7521;-3.1707;
213.3000;0.7505;-3.1781;
213.6000;0.7513;-3.1731;
213.9000;0.7619;-3.1408;
214.2000;0.7538;-3.1707;
214.5000;0.7530;-3.1682;
214.8000;0.7521;-3.1707;
215.1000;0.7538;-3.1632;
215.4000;0.7513;-3.1557;
215.7000;0.7521;-3.1557;
216.0000;0.7521;-3.1582;
216.3000;0.7538;-3.1433;
216.6000;0.7538;-3.1458;
216.9000;0.7521;-3.1433;
217.2000;0.7481;-3.1508;
217.5000;0.7538;-3.1408;
217.8000;0.7562;-3.1458;
218.1000;0.7521;-3.1557;
218.4000;0.7521;-3.1582;
218.7000;0.7521;-3.1533;
219.0000;0.7538;-3.1433;
219.3000;0.7554;-3.1408;
219.6000;0.7538;-3.1334;
219.9000;0.7513;-3.1309;
220.2000;0.7530;-3.1209;
220.5000;0.7538;-3.1234;
220.8000;0.7530;-3.1259;
221.1000;0.7538;-3.1284;
221.4000;0.7546;-3.1334;
221.7000;0.7530;-3.1334;
222.0000;0.7554;-3.1383;
222.3000;0.7546;-3.1458;
222.6000;0.7521;-3.1483;
222.9000;0.7538;-3.1408;
223.2000;0.7530;-3.1433;
223.5000;0.7546;-3.1408;
223.8000;0.7521;-3.1533;
224.1000;0.7562;-3.1433;
224.4000;0.7562;-3.1433;
224.7000;0.7546;-3.1533;
225.0000;0.7521;-3.1557;
225.3000;0.7530;-3.1533;
225.6000;0.7538;-3.1458;
225.9000;0.7497;-3.1582;
226.2000;0.7546;-3.1483;
226.5000;0.7554;-3.1433;
226.8000;0.7546;-3.1508;
227.1000;0.7521;-3.1557;
227.4000;0.7513;-3.1508;
227.7000;0.7546;-3.1358;
228.0000;0.7481;-3.1508;
228.3000;0.7538;-3.1358;
228.6000;0.7530;-3.1334;
228.9000;0.7530;-3.1284;
229.2000;0.7619;-3.1085;
229.5000;0.7530;-3.1408;
229.8000;0.7538;-3.1483;
230.1000;0.7521;-3.1433;
230.4000;0.7497;-3.1582;
230.7000;0.7530;-3.1508;
231.0000;0.7570;-3.1358;
231.3000;0.7530;-3.1458;
231.6000;0.7530;-3.1433;
231.9000;0.7530;-3.1383;
232.2000;0.7513;-3.1383;
232.5000;0.7538;-3.1334;
232.8000;0.7521;-3.1383;
233.1000;0.7481;-3.1508;
233.4000;0.7497;-3.1458;
233.7000;0.7513;-3.1383;
234.0000;0.7513;-3.1408;
234.3000;0.7513;-3.1458;
234.6000;0.7473;-3.1707;
234.9000;0.7546;-3.1582;
235.2000;0.7562;-3.1433;
235.5000;0.7521;-3.1508;
235.8000;0.7513;-3.1433;
236.1000;0.7562;-3.1259;
236.4000;0.7570;-3.1309;
236.7000;0.7464;-3.1557;
237.0000;0.7521;-3.1334;
237.3000;0.7521;-3.1334;
237.6000;0.7521;-3.1408;
237.9000;0.7497;-3.1433;
238.2000;0.7530;-3.1334;
238.5000;0.7497;-3.1433;
238.8000;0.7521;-3.1358;
239.1000;0.7521;-3.1383;
239.4000;0.7521;-3.1383;
239.7000;0.7538;-3.1383;
240.0000;0.7530;-3.1433;
240.3000;0.7521;-3.1433;
240.6000;0.7521;-3.1458;
240.9000;0.7505;-3.1458;
241.2000;0.7513;-3.1483;
241.5000;0.7530;-3.1408;
241.8000;0.7538;-3.1433;
242.1000;0.7538;-3.1383;
242.4000;0.7513;-3.1483;
242.7000;0.7505;-3.1458;
243.0000;0.7530;-3.1358;
243.3000;0.7505;-3.1483;
243.6000;0.7530;-3.1508;
243.9000;0.7505;-3.1582;
244.2000;0.7521;-3.1483;
244.5000;0.7448;-3.1707;
244.8000;0.7521;-3.1508;
245.1000;0.7538;-3.1408;
245.4000;0.7530;-3.1483;
245.7000;0.7521;-3.1533;
246.0000;0.7521;-3.1557;
246.3000;0.7513;-3.1508;
246.6000;0.7505;-3.1582;
246.9000;0.7513;-3.1533;
247.2000;0.7521;-3.1533;
247.5000;0.7521;-3.1632;
247.8000;0.7521;-3.1682;
248.1000;0.7521;-3.1657;
248.4000;0.7521;-3.1657;
248.7000;0.7521;-3.1557;
249.0000;0.7595;-3.1383;
249.3000;0.7546;-3.1557;
249.6000;0.7538;-3.1657;
249.9000;0.7546;-3.1557;
250.2000;0.7505;-3.1582;
250.5000;0.7570;-3.1508;
250.8000;0.7554;-3.1557;
251.1000;0.7530;-3.1557;
251.4000;0.7530;-3.1483;
251.7000;0.7530;-3.1533;
252.0000;0.7554;-3.1458;
252.3000;0.7505;-3.1582;
252.6000;0.7481;-3.1682;
252.9000;0.7521;-3.1682;
253.2000;0.7538;-3.1731;
253.5000;0.7554;-3.1682;
253.8000;0.7530;-3.1657;
254.1000;0.7521;-3.1632;
254.4000;0.7530;-3.1607;
254.7000;0.7521;-3.1682;
255.0000;0.7530;-3.1682;
255.3000;0.7521;-3.1781;
255.6000;0.7538;-3.1707;
255.9000;0.7530;-3.1657;
256.2000;0.7530;-3.1533;
256.5000;0.7530;-3.1508;
256.8000;0.7538;-3.1582;
257.1000;0.7546;-3.1607;
257.4000;0.7521;-3.1582;
257.7000;0.7538;-3.1557;
258.0000;0.7521;-3.1557;
258.3000;0.7521;-3.1582;
258.6000;0.7513;-3.1533;
258.9000;0.7513;-3.1508;
259.2000;0.7481;-3.1657;
259.5000;0.7530;-3.1483;
259.8000;0.7530;-3.1508;
260.1000;0.7464;-3.1682;
260.4000;0.7530;-3.1533;
260.7000;0.7546;-3.1458;
261.0000;0.7489;-3.1582;
261.3000;0.7505;-3.1508;
261.6000;0.7521;-3.1458;
261.9000;0.7546;-3.1483;
262.2000;0.7611;-3.1383;
262.5000;0.7538;-3.1533;
262.8000;0.7530;-3.1483;
263.1000;0.7538;-3.1383;
263.4000;0.7505;-3.1408;
263.7000;0.7562;-3.1309;
264.0000;0.7513;-3.1483;
264.3000;0.7521;-3.1433;
264.6000;0.7513;-3.1458;
264.9000;0.7538;-3.1458;
265.2000;0.7505;-3.1358;
265.5000;0.7513;-3.1309;
265.8000;0.7530;-3.1309;
266.1000;0.7521;-3.1383;
266.4000;0.7521;-3.1458;
266.7000;0.7530;-3.1383;
267.0000;0.7513;-3.1458;
267.3000;0.7538;-3.1284;
267.6000;0.7562;-3.1110;
267.9000;0.7521;-3.1234;
268.2000;0.7538;-3.1209;
268.5000;0.7521;-3.1234;
268.8000;0.7464;-3.1483;
269.1000;0.7538;-3.1334;
269.4000;0.7530;-3.1334;
269.7000;0.7497;-3.1458;
270.0000;0.7521;-3.1358;
270.3000;0.7530;-3.1334;
270.6000;0.7546;-3.1234;
270.9000;0.7521;-3.1284;
271.2000;0.7521;-3.1309;
271.5000;0.7513;-3.1383;
271.8000;0.7538;-3.1284;
272.1000;0.7530;-3.1334;
272.4000;0.7530;-3.1309;
272.7000;0.7530;-3.1259;
273.0000;0.7554;-3.1160;
273.3000;0.7546;-3.1160;
273.6000;0.7530;-3.1259;
273.9000;0.7538;-3.1284;
274.2000;0.7473;-3.1483;
274.5000;0.7521;-3.1383;
274.8000;0.7513;-3.1433;
275.1000;0.7489;-3.1508;
275.4000;0.7530;-3.1433;
275.7000;0.7513;-3.1358;
276.0000;0.7530;-3.1334;
276.3000;0.7473;-3.1483;
276.6000;0.7521;-3.1408;
276.9000;0.7554;-3.1259;
277.2000;0.7530;-3.1309;
277.5000;0.7464;-3.1358;
277.8000;0.7530;-3.1259;
278.1000;0.7530;-3.1209;
278.4000;0.7521;-3.1358;
278.7000;0.7530;-3.1408;
279.0000;0.7530;-3.1334;
279.3000;0.7538;-3.1184;
279.6000;0.7521;-3.1209;
279.9000;0.7530;-3.1259;
280.2000;0.7521;-3.1284;
280.5000;0.7513;-3.1334;
280.8000;0.7505;-3.1358;
281.1000;0.7521;-3.1309;
281.4000;0.7497;-3.1309;
281.7000;0.7513;-3.1259;
282.0000;0.7586;-3.1085;
282.3000;0.7513;-3.1309;
282.6000;0.7513;-3.1358;
282.9000;0.7538;-3.1259;
283.2000;0.7570;-3.1135;
283.5000;0.7464;-3.1383;
283.8000;0.7513;-3.1334;
284.1000;0.7505;-3.1358;
284.4000;0.7521;-3.1408;
284.7000;0.7513;-3.1358;
285.0000;0.7497;-3.1458;
285.3000;0.7505;-3.1458;
285.6000;0.7530;-3.1383;
285.9000;0.7513;-3.1334;
286.2000;0.7521;-3.1408;
286.5000;0.7513;-3.1508;
286.8000;0.7513;-3.1483;
287.1000;0.7513;-3.1433;
287.4000;0.7521;-3.1458;
287.7000;0.7521;-3.1483;
288.0000;0.7538;-3.1458;
288.3000;0.7521;-3.1309;
288.6000;0.7521;-3.1259;
288.9000;0.7513;-3.1135;
289.2000;0.7505;-3.1135;
289.5000;0.7538;-3.1184;
289.8000;0.7521;-3.1259;
290.1000;0.7521;-3.1334;
290.4000;0.7530;-3.1383;
290.7000;0.7521;-3.1358;
291.0000;0.7530;-3.1408;
291.3000;0.7513;-3.1533;
291.6000;0.7521;-3.1458;
291.9000;0.7513;-3.1582;
292.2000;0.7505;-3.1682;
292.5000;0.7513;-3.1682;
292.8000;0.7513;-3.1607;
293.1000;0.7497;-3.1657;
293.4000;0.7505;-3.1607;
293.7000;0.7530;-3.1508;
294.0000;0.7521;-3.1533;
294.3000;0.7513;-3.1483;
294.6000;0.7513;-3.1508;
294.9000;0.7521;-3.1458;
295.2000;0.7530;-3.1508;
295.5000;0.7538;-3.1557;
295.8000;0.7619;-3.1334;
296.1000;0.7546;-3.1483;
296.4000;0.7538;-3.1483;
296.7000;0.7513;-3.1533;
297.0000;0.7521;-3.1508;
297.3000;0.7521;-3.1458;
297.6000;0.7530;-3.1408;
297.9000;0.7505;-3.1508;
298.2000;0.7530;-3.1483;
298.5000;0.7513;-3.1508;
298.8000;0.7521;-3.1557;
299.1000;0.7456;-3.1731;
299.4000;0.7497;-3.1632;
299.7000;0.7521;-3.1582;
300.0000;0.7619;-3.1209;
300.3000;0.7530;-3.1483;
300.6000;0.7505;-3.1508;
300.9000;0.7497;-3.1533;
301.2000;0.7489;-3.1557;
301.5000;0.7546;-3.1458;
301.8000;0.7530;-3.1508;
302.1000;0.7513;-3.1458;
302.4000;0.7521;-3.1557;
302.7000;0.7530;-3.1582;
303.0000;0.7538;-3.1582;
303.3000;0.7513;-3.1632;
303.6000;0.7521;-3.1657;
303.9000;0.7497;-3.1557;
304.2000;0.7505;-3.1508;
304.5000;0.7513;-3.1383;
304.8000;0.7505;-3.1309;
305.1000;0.7530;-3.1408;
305.4000;0.7521;-3.1383;
305.7000;0.7521;-3.1383;
306.0000;0.7521;-3.1358;
306.3000;0.7505;-3.1458;
306.6000;0.7513;-3.1433;
306.9000;0.7530;-3.1334;
307.2000;0.7513;-3.1458;
307.5000;0.7489;-3.1557;
307.8000;0.7513;-3.1508;
308.1000;0.7521;-3.1458;
308.4000;0.7513;-3.1408;
308.7000;0.7521;-3.1483;
309.0000;0.7513;-3.1557;
309.3000;0.7489;-3.1731;
309.6000;0.7530;-3.1682;
309.9000;0.7521;-3.1731;
310.2000;0.7521;-3.1731;
310.5000;0.7521;-3.1657;
310.8000;0.7538;-3.1632;
311.1000;0.7513;-3.1707;
311.4000;0.7497;-3.1707;
311.7000;0.7530;-3.1682;
312.0000;0.7497;-3.1707;
312.3000;0.7521;-3.1557;
312.6000;0.7505;-3.1632;
312.9000;0.7546;-3.1533;
313.2000;0.7513;-3.1632;
313.5000;0.7530;-3.1582;
313.8000;0.7513;-3.1508;
314.1000;0.7513;-3.1408;
314.4000;0.7586;-3.1209;
314.7000;0.7530;-3.1284;
315.0000;0.7521;-3.1408;
315.3000;0.7521;-3.1483;
315.6000;0.7521;-3.1483;
315.9000;0.7521;-3.1408;
316.2000;0.7530;-3.1408;
316.5000;0.7513;-3.1508;
316.8000;0.7530;-3.1508;
317.1000;0.7546;-3.1408;
317.4000;0.7521;-3.1334;
317.7000;0.7513;-3.1383;
318.0000;0.7538;-3.1508;
318.3000;0.7497;-3.1483;
318.6000;0.7530;-3.1358;
318.9000;0.7538;-3.1309;
319.2000;0.7521;-3.1334;
319.5000;0.7521;-3.1383;
319.8000;0.7497;-3.1433;
320.1000;0.7546;-3.1184;
320.4000;0.7530;-3.1234;
320.7000;0.7521;-3.1284;
321.0000;0.7538;-3.1234;
321.3000;0.7513;-3.1284;
321.6000;0.7578;-3.1110;
321.9000;0.7489;-3.1334;
322.2000;0.7521;-3.1284;
322.5000;0.7513;-3.1234;
322.8000;0.7513;-3.1234;
323.1000;0.7505;-3.1259;
323.4000;0.7505;-3.1209;
323.7000;0.7530;-3.1160;
324.0000;0.7530;-3.1135;
324.3000;0.7521;-3.1184;
324.6000;0.7513;-3.1209;
324.9000;0.7546;-3.1135;
325.2000;0.7586;-3.1010;
325.5000;0.7505;-3.1309;
325.8000;0.7521;-3.1309;
326.1000;0.7505;-3.1284;
326.4000;0.7554;-3.1160;
326.7000;0.7521;-3.1209;
327.0000;0.7513;-3.1184;
327.3000;0.7513;-3.1135;
327.6000;0.7505;-3.1234;
327.9000;0.7513;-3.1160;
328.2000;0.7521;-3.1060;
328.5000;0.7513;-3.1060;
328.8000;0.7505;-3.1010;
329.1000;0.7530;-3.1035;
329.4000;0.7505;-3.1184;
329.7000;0.7530;-3.1234;
330.0000;0.7530;-3.1284;
330.3000;0.7546;-3.1284;
330.6000;0.7538;-3.1085;
330.9000;0.7521;-3.1060;
331.2000;0.7513;-3.1085;
331.5000;0.7521;-3.1160;
331.8000;0.7530;-3.1209;
332.1000;0.7530;-3.1234;
332.4000;0.7521;-3.1234;
332.7000;0.7521;-3.1209;
333.0000;0.7521;-3.1184;
333.3000;0.7521;-3.1184;
333.6000;0.7513;-3.1259;
333.9000;0.7538;-3.1209;
334.2000;0.7521;-3.1234;
334.5000;0.7538;-3.1234;
334.8000;0.7513;-3.1334;
335.1000;0.7513;-3.1309;
335.4000;0.7521;-3.1284;
335.7000;0.7530;-3.1358;
336.0000;0.7481;-3.1408;
336.3000;0.7464;-3.1458;
336.6000;0.7513;-3.1383;
336.9000;0.7530;-3.1358;
337.2000;0.7505;-3.1383;
337.5000;0.7538;-3.1334;
337.8000;0.7538;-3.1259;
338.1000;0.7530;-3.1234;
338.4000;0.7513;-3.1259;
338.7000;0.7521;-3.1284;
339.0000;0.7530;-3.1334;
339.3000;0.7521;-3.1334;
339.6000;0.7530;-3.1309;
339.9000;0.7497;-3.1334;
340.2000;0.7513;-3.1284;
340.5000;0.7538;-3.1234;
340.8000;0.7521;-3.1209;
341.1000;0.7538;-3.1160;
341.4000;0.7521;-3.1035;
341.7000;0.7513;-3.1209;
342.0000;0.7538;-3.1085;
342.3000;0.7538;-3.1060;
342.6000;0.7578;-3.0936;
342.9000;0.7521;-3.1060;
343.2000;0.7538;-3.1085;
343.5000;0.7530;-3.1085;
343.8000;0.7489;-3.1209;
344.1000;0.7505;-3.1209;
344.4000;0.7513;-3.1284;
344.7000;0.7521;-3.1259;
345.0000;0.7505;-3.1259;
345.3000;0.7505;-3.1334;
345.6000;0.7489;-3.1334;
345.9000;0.7513;-3.1234;
346.2000;0.7530;-3.1160;
346.5000;0.7570;-3.1010;
346.8000;0.7505;-3.1135;
347.1000;0.7521;-3.1135;
347.4000;0.7521;-3.1209;
347.7000;0.7521;-3.1209;
348.0000;0.7505;-3.1209;
348.3000;0.7497;-3.1234;
348.6000;0.7505;-3.1184;
348.9000;0.7538;-3.1085;
349.2000;0.7530;-3.0961;
349.5000;0.7513;-3.1160;
349.8000;0.7505;-3.1234;
350.1000;0.7521;-3.1209;
350.4000;0.7505;-3.1209;
350.7000;0.7521;-3.1085;
351.0000;0.7521;-3.1085;
351.3000;0.7513;-3.1135;
351.6000;0.7538;-3.1085;
351.9000;0.7530;-3.1160;
352.2000;0.7513;-3.1284;
352.5000;0.7530;-3.1234;
352.8000;0.7521;-3.1209;
353.1000;0.7530;-3.1234;
353.4000;0.7513;-3.1309;
353.7000;0.7513;-3.1334;
354.0000;0.7554;-3.1284;
354.3000;0.7538;-3.1284;
354.6000;0.7513;-3.1408;
354.9000;0.7521;-3.1358;
355.2000;0.7538;-3.1309;
355.5000;0.7530;-3.1358;
355.8000;0.7513;-3.1458;
356.1000;0.7521;-3.1508;
356.4000;0.7570;-3.1433;
356.7000;0.7513;-3.1458;
357.0000;0.7562;-3.1334;
357.3000;0.7562;-3.1259;
357.6000;0.7513;-3.1358;
357.9000;0.7521;-3.1209;
358.2000;0.7513;-3.1209;
358.5000;0.7489;-3.1458;
358.8000;0.7505;-3.1408;
359.1000;0.7521;-3.1433;
359.4000;0.7546;-3.1408;
359.7000;0.7513;-3.1483;
360.0000;0.7505;-3.1557;
360.3000;0.7513;-3.1582;
360.6000;0.7521;-3.1557;
360.9000;0.7513;-3.1557;
361.2000;0.7521;-3.1508;
361.5000;0.7505;-3.1508;
361.8000;0.7521;-3.1309;
362.1000;0.7513;-3.1334;
362.4000;0.7505;-3.1309;
362.7000;0.7521;-3.1259;
363.0000;0.7521;-3.1259;
363.3000;0.7505;-3.1334;
363.6000;0.7538;-3.1234;
363.9000;0.7521;-3.1259;
364.2000;0.7521;-3.1284;
364.5000;0.7530;-3.1358;
364.8000;0.7530;-3.1358;
365.1000;0.7530;-3.1358;
365.4000;0.7513;-3.1358;
365.7000;0.7530;-3.1259;
366.0000;0.7538;-3.1184;
366.3000;0.7505;-3.1309;
366.6000;0.7530;-3.1309;
366.9000;0.7521;-3.1259;
367.2000;0.7546;-3.1184;
367.5000;0.7538;-3.1209;
367.8000;0.7530;-3.1259;
368.1000;0.7505;-3.1284;
368.4000;0.7505;-3.1284;
368.7000;0.7521;-3.1284;
369.0000;0.7521;-3.1284;
369.3000;0.7513;-3.1334;
369.6000;0.7505;-3.1259;
369.9000;0.7513;-3.1184;
370.2000;0.7489;-3.1284;
370.5000;0.7521;-3.1358;
370.8000;0.7505;-3.1334;
371.1000;0.7546;-3.1184;
371.4000;0.7497;-3.1259;
371.7000;0.7505;-3.1234;
372.0000;0.7505;-3.1234;
372.3000;0.7513;-3.1209;
372.6000;0.7513;-3.1234;
372.9000;0.7546;-3.1135;
373.2000;0.7513;-3.1160;
373.5000;0.7489;-3.1234;
373.8000;0.7521;-3.1135;
374.1000;0.7489;-3.1209;
374.4000;0.7505;-3.1035;
374.7000;0.7497;-3.1085;
375.0000;0.7497;-3.1209;
375.3000;0.7497;-3.1259;
375.6000;0.7497;-3.1334;
375.9000;0.7513;-3.1309;
376.2000;0.7481;-3.1383;
376.5000;0.7513;-3.1284;
376.8000;0.7521;-3.1284;
377.1000;0.7497;-3.1209;
377.4000;0.7489;-3.1334;
377.7000;0.7505;-3.1284;
378.0000;0.7578;-3.0961;
378.3000;0.7473;-3.1234;
378.6000;0.7513;-3.1309;
378.9000;0.7530;-3.1334;
379.2000;0.7570;-3.1234;
379.5000;0.7497;-3.1383;
379.8000;0.7497;-3.1408;
380.1000;0.7554;-3.1309;
380.4000;0.7530;-3.1334;
380.7000;0.7513;-3.1433;
381.0000;0.7497;-3.1358;
381.3000;0.7497;-3.1358;
381.6000;0.7521;-3.1309;
381.9000;0.7505;-3.1383;
382.2000;0.7505;-3.1383;
382.5000;0.7481;-3.1433;
382.8000;0.7489;-3.1483;
383.1000;0.7513;-3.1458;
383.4000;0.7505;-3.1508;
383.7000;0.7473;-3.1533;
384.0000;0.7513;-3.1383;
384.3000;0.7505;-3.1383;
384.6000;0.7505;-3.1458;
384.9000;0.7497;-3.1458;
385.2000;0.7530;-3.1309;
385.5000;0.7505;-3.1334;
385.8000;0.7505;-3.1284;
386.1000;0.7513;-3.1284;
386.4000;0.7521;-3.1209;
386.7000;0.7513;-3.1209;
387.0000;0.7521;-3.1184;
387.3000;0.7513;-3.1259;
387.6000;0.7521;-3.1184;
387.9000;0.7554;-3.1060;
388.2000;0.7521;-3.1110;
388.5000;0.7513;-3.1184;
388.8000;0.7586;-3.1085;
389.1000;0.7530;-3.1284;
389.4000;0.7530;-3.1284;
389.7000;0.7513;-3.1334;
390.0000;0.7513;-3.1309;
390.3000;0.7521;-3.1334;
390.6000;0.7513;-3.1284;
390.9000;0.7554;-3.1309;
391.2000;0.7530;-3.1408;
391.5000;0.7521;-3.1408;
391.8000;0.7505;-3.1483;
392.1000;0.7611;-3.1160;
392.4000;0.7513;-3.1508;
392.7000;0.7513;-3.1458;
393.0000;0.7554;-3.1358;
393.3000;0.7497;-3.1483;
393.6000;0.7497;-3.1508;
393.9000;0.7521;-3.1483;
394.2000;0.7497;-3.1458;
394.5000;0.7530;-3.1408;
394.8000;0.7538;-3.1358;
395.1000;0.7521;-3.1433;
395.4000;0.7521;-3.1408;
395.7000;0.7538;-3.1483;
396.0000;0.7505;-3.1508;
396.3000;0.7513;-3.1533;
396.6000;0.7521;-3.1433;
396.9000;0.7489;-3.1458;
397.2000;0.7481;-3.1508;
397.5000;0.7538;-3.1334;
397.8000;0.7513;-3.1408;
398.1000;0.7505;-3.1358;
398.4000;0.7546;-3.1334;
398.7000;0.7513;-3.1408;
399.0000;0.7513;-3.1334;
399.3000;0.7505;-3.1508;
399.6000;0.7538;-3.1483;
399.9000;0.7530;-3.1508;
400.2000;0.7513;-3.1483;
400.5000;0.7530;-3.1433;
400.8000;0.7546;-3.1358;
401.1000;0.7538;-3.1284;
401.4000;0.7513;-3.1334;
401.7000;0.7521;-3.1383;
402.0000;0.7473;-3.1458;
402.3000;0.7530;-3.1383;
402.6000;0.7521;-3.1508;
402.9000;0.7505;-3.1458;
403.2000;0.7505;-3.1458;
403.5000;0.7489;-3.1458;
403.8000;0.7513;-3.1259;
404.1000;0.7505;-3.1309;
404.4000;0.7513;-3.1358;
404.7000;0.7513;-3.1383;
405.0000;0.7497;-3.1383;
405.3000;0.7513;-3.1408;
405.6000;0.7497;-3.1309;
405.9000;0.7538;-3.1184;
406.2000;0.7513;-3.1309;
406.5000;0.7521;-3.1383;
406.8000;0.7505;-3.1508;
407.1000;0.7489;-3.1533;
407.4000;0.7497;-3.1533;
407.7000;0.7513;-3.1533;
408.0000;0.7521;-3.1533;
408.3000;0.7505;-3.1483;
408.6000;0.7505;-3.1433;
408.9000;0.7505;-3.1458;
409.2000;0.7497;-3.1483;
409.5000;0.7513;-3.1458;
409.8000;0.7505;-3.1508;
410.1000;0.7513;-3.1508;
410.4000;0.7497;-3.1508;
410.7000;0.7489;-3.1508;
411.0000;0.7521;-3.1483;
411.3000;0.7521;-3.1383;
411.6000;0.7538;-3.1408;
411.9000;0.7578;-3.1284;
412.2000;0.7505;-3.1334;
412.5000;0.7513;-3.1284;
412.8000;0.7513;-3.1309;
413.1000;0.7505;-3.1259;
413.4000;0.7473;-3.1433;
413.7000;0.7513;-3.1334;
414.0000;0.7530;-3.1234;
414.3000;0.7521;-3.1209;
414.6000;0.7513;-3.1135;
414.9000;0.7546;-3.1060;
415.2000;0.7554;-3.1035;
415.5000;0.7538;-3.1135;
415.8000;0.7521;-3.1060;
416.1000;0.7546;-3.1135;
416.4000;0.7505;-3.1284;
416.7000;0.7521;-3.1184;
417.0000;0.7513;-3.1184;
417.3000;0.7611;-3.0985;
417.6000;0.7505;-3.1309;
417.9000;0.7530;-3.1234;
418.2000;0.7521;-3.1309;
418.5000;0.7497;-3.1309;
418.8000;0.7505;-3.1284;
419.1000;0.7505;-3.1184;
419.4000;0.7497;-3.1160;
419.7000;0.7489;-3.1259;
420.0000;0.7513;-3.1284;
420.3000;0.7481;-3.1408;
420.6000;0.7521;-3.1334;
420.9000;0.7481;-3.1284;
421.2000;0.7497;-3.1284;
421.5000;0.7521;-3.1259;
421.8000;0.7521;-3.1209;
422.1000;0.7530;-3.1234;
422.4000;0.7481;-3.1358;
422.7000;0.7497;-3.1408;
423.0000;0.7505;-3.1408;
423.3000;0.7489;-3.1408;
423.6000;0.7497;-3.1334;
423.9000;0.7497;-3.1259;
424.2000;0.7489;-3.1184;
424.5000;0.7505;-3.1209;
424.8000;0.7497;-3.1259;
425.1000;0.7505;-3.1334;
425.4000;0.7513;-3.1284;
425.7000;0.7497;-3.1334;
426.0000;0.7481;-3.1383;
426.3000;0.7497;-3.1383;
426.6000;0.7489;-3.1334;
426.9000;0.7505;-3.1309;
427.2000;0.7505;-3.1309;
427.5000;0.7497;-3.1259;
427.8000;0.7497;-3.1234;
428.1000;0.7505;-3.1184;
428.4000;0.7521;-3.1209;
428.7000;0.7505;-3.1284;
429.0000;0.7505;-3.1259;
429.3000;0.7513;-3.1334;
429.6000;0.7513;-3.1309;
429.9000;0.7505;-3.1309;
430.2000;0.7513;-3.1259;
430.5000;0.7481;-3.1433;
430.8000;0.7481;-3.1483;
431.1000;0.7505;-3.1383;
431.4000;0.7489;-3.1358;
431.7000;0.7505;-3.1358;
432.0000;0.7513;-3.1259;
432.3000;0.7562;-3.1160;
432.6000;0.7497;-3.1309;
432.9000;0.7505;-3.1309;
433.2000;0.7513;-3.1358;
433.5000;0.7505;-3.1408;
433.8000;0.7578;-3.1160;
434.1000;0.7497;-3.1284;
434.4000;0.7473;-3.1259;
434.7000;0.7497;-3.1209;
435.0000;0.7481;-3.1259;
435.3000;0.7513;-3.1284;
435.6000;0.7505;-3.1284;
435.9000;0.7505;-3.1234;
436.2000;0.7513;-3.1284;
436.5000;0.7521;-3.1309;
436.8000;0.7456;-3.1557;
437.1000;0.7489;-3.1458;
437.4000;0.7497;-3.1334;
437.7000;0.7521;-3.1284;
438.0000;0.7481;-3.1383;
438.3000;0.7481;-3.1284;
438.6000;0.7538;-3.1110;
438.9000;0.7505;-3.1184;
439.2000;0.7464;-3.1284;
439.5000;0.7505;-3.1259;
439.8000;0.7505;-3.1383;
440.1000;0.7473;-3.1334;
440.4000;0.7505;-3.1259;
440.7000;0.7505;-3.1334;
441.0000;0.7497;-3.1458;
441.3000;0.7505;-3.1408;
441.6000;0.7521;-3.1383;
441.9000;0.7456;-3.1533;
442.2000;0.7489;-3.1458;
442.5000;0.7497;-3.1383;
442.8000;0.7497;-3.1408;
443.1000;0.7578;-3.1209;
443.4000;0.7497;-3.1458;
443.7000;0.7497;-3.1508;
444.0000;0.7505;-3.1458;
444.3000;0.7513;-3.1483;
444.6000;0.7497;-3.1533;
444.9000;0.7521;-3.1483;
445.2000;0.7505;-3.1508;
445.5000;0.7505;-3.1458;
445.8000;0.7513;-3.1408;
446.1000;0.7521;-3.1458;
446.4000;0.7505;-3.1458;
446.7000;0.7513;-3.1358;
447.0000;0.7521;-3.1408;
447.3000;0.7586;-3.1334;
447.6000;0.7497;-3.1632;
447.9000;0.7521;-3.1533;
448.2000;0.7505;-3.1557;
448.5000;0.7521;-3.1458;
448.8000;0.7586;-3.1234;
449.1000;0.7497;-3.1408;
449.4000;0.7521;-3.1334;
449.7000;0.7513;-3.1334;
450.0000;0.7505;-3.1483;
450.3000;0.7505;-3.1383;
450.6000;0.7521;-3.1334;
450.9000;0.7505;-3.1383;
451.2000;0.7505;-3.1433;
451.5000;0.7505;-3.1483;
451.8000;0.7505;-3.1458;
452.1000;0.7513;-3.1483;
452.4000;0.7497;-3.1533;
452.7000;0.7497;-3.1582;
453.0000;0.7505;-3.1458;
453.3000;0.7464;-3.1657;
453.6000;0.7505;-3.1508;
453.9000;0.7513;-3.1458;
454.2000;0.7505;-3.1433;
454.5000;0.7513;-3.1433;
454.8000;0.7497;-3.1458;
455.1000;0.7497;-3.1508;
455.4000;0.7489;-3.1508;
455.7000;0.7505;-3.1458;
456.0000;0.7464;-3.1582;
456.3000;0.7505;-3.1483;
456.6000;0.7505;-3.1408;
456.9000;0.7505;-3.1433;
457.2000;0.7505;-3.1433;
457.5000;0.7489;-3.1433;
457.8000;0.7497;-3.1408;
458.1000;0.7505;-3.1383;
458.4000;0.7521;-3.1259;
458.7000;0.7513;-3.1358;
459.0000;0.7513;-3.1383;
459.3000;0.7497;-3.1458;
459.6000;0.7513;-3.1383;
459.9000;0.7513;-3.1334;
460.2000;0.7521;-3.1209;
460.5000;0.7497;-3.1309;
460.8000;0.7513;-3.1309;
461.1000;0.7530;-3.1284;
461.4000;0.7513;-3.1259;
461.7000;0.7513;-3.1234;
462.0000;0.7497;-3.1309;
462.3000;0.7538;-3.1209;
462.6000;0.7521;-3.1259;
462.9000;0.7489;-3.1334;
463.2000;0.7473;-3.1383;
463.5000;0.7505;-3.1334;
463.8000;0.7497;-3.1309;
464.1000;0.7513;-3.1234;
464.4000;0.7497;-3.1234;
464.7000;0.7521;-3.1259;
465.0000;0.7505;-3.1383;
465.3000;0.7562;-3.1259;
465.6000;0.7513;-3.1458;
465.9000;0.7497;-3.1533;
466.2000;0.7497;-3.1632;
466.5000;0.7513;-3.1657;
466.8000;0.7513;-3.1707;
467.1000;0.7497;-3.1632;
467.4000;0.7505;-3.1557;
467.7000;0.7513;-3.1607;
468.0000;0.7505;-3.1682;
468.3000;0.7481;-3.1806;
468.6000;0.7513;-3.1731;
468.9000;0.7521;-3.1707;
469.2000;0.7521;-3.1781;
469.5000;0.7521;-3.1756;
469.8000;0.7530;-3.1756;
470.1000;0.7562;-3.1582;
470.4000;0.7530;-3.1607;
470.7000;0.7521;-3.1582;
471.0000;0.7538;-3.1557;
471.3000;0.7505;-3.1533;
471.6000;0.7530;-3.1508;
471.9000;0.7497;-3.1582;
472.2000;0.7497;-3.1557;
472.5000;0.7497;-3.1508;
472.8000;0.7489;-3.1533;
473.1000;0.7513;-3.1433;
473.4000;0.7497;-3.1433;
473.7000;0.7497;-3.1383;
474.0000;0.7464;-3.1458;
474.3000;0.7505;-3.1408;
474.6000;0.7497;-3.1433;
474.9000;0.7505;-3.1383;
475.2000;0.7489;-3.1358;
475.5000;0.7513;-3.1408;
475.8000;0.7497;-3.1458;
476.1000;0.7489;-3.1408;
476.4000;0.7521;-3.1383;
476.7000;0.7513;-3.1408;
477.0000;0.7497;-3.1433;
477.3000;0.7497;-3.1433;
477.6000;0.7513;-3.1358;
477.9000;0.7497;-3.1358;
478.2000;0.7497;-3.1309;
478.5000;0.7521;-3.1209;
478.8000;0.7497;-3.1259;
479.1000;0.7521;-3.1234;
479.4000;0.7497;-3.1358;
479.7000;0.7497;-3.1383;
480.0000;0.7497;-3.1358;
480.3000;0.7497;-3.1458;
480.6000;0.7611;-3.1085;
480.9000;0.7489;-3.1358;
481.2000;0.7497;-3.1458;
481.5000;0.7481;-3.1533;
481.8000;0.7505;-3.1358;
482.1000;0.7505;-3.1383;
482.4000;0.7497;-3.1408;
482.7000;0.7530;-3.1383;
483.0000;0.7473;-3.1483;
483.3000;0.7489;-3.1433;
483.6000;0.7513;-3.1433;
483.9000;0.7505;-3.1483;
484.2000;0.7505;-3.1458;
484.5000;0.7489;-3.1557;
484.8000;0.7432;-3.1756;
485.1000;0.7513;-3.1557;
485.4000;0.7513;-3.1483;
485.7000;0.7578;-3.1284;
486.0000;0.7521;-3.1433;
486.3000;0.7448;-3.1483;
486.6000;0.7497;-3.1234;
486.9000;0.7497;-3.1234;
487.2000;0.7497;-3.1209;
487.5000;0.7497;-3.1284;
487.8000;0.7513;-3.1334;
488.1000;0.7448;-3.1508;
488.4000;0.7538;-3.1408;
488.7000;0.7530;-3.1458;
489.0000;0.7530;-3.1433;
489.3000;0.7505;-3.1458;
489.6000;0.7505;-3.1408;
489.9000;0.7578;-3.1284;
490.2000;0.7513;-3.1309;
490.5000;0.7497;-3.1334;
490.8000;0.7497;-3.1334;
491.1000;0.7489;-3.1358;
491.4000;0.7505;-3.1334;
491.7000;0.7521;-3.1334;
492.0000;0.7546;-3.1184;
492.3000;0.7505;-3.1284;
492.6000;0.7513;-3.1334;
492.9000;0.7513;-3.1408;
493.2000;0.7513;-3.1458;
493.5000;0.7505;-3.1433;
493.8000;0.7505;-3.1458;
494.1000;0.7521;-3.1508;
494.4000;0.7505;-3.1533;
494.7000;0.7489;-3.1607;
495.0000;0.7538;-3.1508;
495.3000;0.7513;-3.1483;
495.6000;0.7513;-3.1483;
495.9000;0.7505;-3.1508;
496.2000;0.7432;-3.1607;
496.5000;0.7505;-3.1458;
496.8000;0.7497;-3.1458;
497.1000;0.7497;-3.1533;
497.4000;0.7505;-3.1508;
497.7000;0.7513;-3.1483;
498.0000;0.7497;-3.1508;
498.3000;0.7497;-3.1508;
498.6000;0.7497;-3.1533;
498.9000;0.7497;-3.1483;
499.2000;0.7505;-3.1483;
499.5000;0.7505;-3.1408;
499.8000;0.7497;-3.1383;
500.1000;0.7505;-3.1334;
500.4000;0.7521;-3.1358;
500.7000;0.7473;-3.1458;
501.0000;0.7497;-3.1334;
501.3000;0.7497;-3.1309;
501.6000;0.7513;-3.1284;
501.9000;0.7489;-3.1259;
502.2000;0.7497;-3.1284;
502.5000;0.7448;-3.1433;
502.8000;0.7497;-3.1358;
503.1000;0.7505;-3.1408;
503.4000;0.7489;-3.1458;
503.7000;0.7505;-3.1334;
504.0000;0.7489;-3.1358;
504.3000;0.7505;-3.1334;
504.6000;0.7505;-3.1334;
504.9000;0.7513;-3.1259;
505.2000;0.7497;-3.1284;
505.5000;0.7497;-3.1358;
505.8000;0.7513;-3.1433;
506.1000;0.7505;-3.1483;
506.4000;0.7513;-3.1483;
506.7000;0.7497;-3.1582;
507.0000;0.7521;-3.1557;
507.3000;0.7505;-3.1607;
507.6000;0.7489;-3.1557;
507.9000;0.7448;-3.1533;
508.2000;0.7521;-3.1334;
508.5000;0.7489;-3.1334;
508.8000;0.7497;-3.1284;
509.1000;0.7489;-3.1334;
509.4000;0.7603;-3.1060;
509.7000;0.7521;-3.1483;
510.0000;0.7513;-3.1483;
510.3000;0.7505;-3.1458;
510.6000;0.7505;-3.1358;
510.9000;0.7538;-3.1284;
511.2000;0.7481;-3.1408;
511.5000;0.7481;-3.1408;
511.8000;0.7505;-3.1358;
512.1000;0.7505;-3.1408;
512.4000;0.7513;-3.1358;
512.7000;0.7505;-3.1483;
513.0000;0.7505;-3.1458;
513.3000;0.7505;-3.1358;
513.6000;0.7505;-3.1358;
513.9000;0.7513;-3.1309;
514.2000;0.7505;-3.1383;
514.5000;0.7505;-3.1483;
514.8000;0.7513;-3.1533;
515.1000;0.7497;-3.1582;
515.4000;0.7505;-3.1458;
515.7000;0.7497;-3.1483;
516.0000;0.7513;-3.1508;
516.3000;0.7505;-3.1458;
516.6000;0.7505;-3.1433;
516.9000;0.7497;-3.1483;
517.2000;0.7497;-3.1508;
517.5000;0.7505;-3.1433;
517.8000;0.7489;-3.1408;
518.1000;0.7505;-3.1358;
518.4000;0.7513;-3.1309;
518.7000;0.7497;-3.1334;
519.0000;0.7505;-3.1309;
519.3000;0.7505;-3.1309;
519.6000;0.7497;-3.1433;
519.9000;0.7521;-3.1458;
520.2000;0.7627;-3.1160;
520.5000;0.7521;-3.1358;
520.8000;0.7505;-3.1383;
521.1000;0.7521;-3.1259;
521.4000;0.7513;-3.1284;
521.7000;0.7497;-3.1358;
522.0000;0.7513;-3.1408;
522.3000;0.7481;-3.1483;
522.6000;0.7513;-3.1458;
522.9000;0.7489;-3.1408;
523.2000;0.7505;-3.1408;
523.5000;0.7505;-3.1458;
523.8000;0.7489;-3.1458;
524.1000;0.7513;-3.1383;
524.4000;0.7497;-3.1408;
524.7000;0.7513;-3.1284;
525.0000;0.7497;-3.1334;
525.3000;0.7489;-3.1383;
525.6000;0.7505;-3.1334;
525.9000;0.7489;-3.1383;
526.2000;0.7489;-3.1433;
526.5000;0.7497;-3.1483;
526.8000;0.7505;-3.1433;
527.1000;0.7489;-3.1458;
527.4000;0.7489;-3.1458;
527.7000;0.7497;-3.1358;
528.0000;0.7505;-3.1408;
528.3000;0.7473;-3.1508;
528.6000;0.7489;-3.1458;
528.9000;0.7505;-3.1408;
529.2000;0.7505;-3.1408;
529.5000;0.7578;-3.1259;
529.8000;0.7489;-3.1284;
530.1000;0.7489;-3.1309;
530.4000;0.7505;-3.1334;
530.7000;0.7513;-3.1408;
531.0000;0.7481;-3.1433;
531.3000;0.7530;-3.1383;
531.6000;0.7489;-3.1557;
531.9000;0.7513;-3.1508;
532.2000;0.7497;-3.1533;
532.5000;0.7489;-3.1508;
532.8000;0.7521;-3.1483;
533.1000;0.7497;-3.1483;
533.4000;0.7505;-3.1508;
533.7000;0.7473;-3.1533;
534.0000;0.7513;-3.1458;
534.3000;0.7554;-3.1383;
534.6000;0.7497;-3.1383;
534.9000;0.7530;-3.1334;
535.2000;0.7489;-3.1358;
535.5000;0.7497;-3.1259;
535.8000;0.7481;-3.1259;
536.1000;0.7562;-3.1085;
536.4000;0.7505;-3.1358;
536.7000;0.7497;-3.1358;
537.0000;0.7546;-3.1209;
537.3000;0.7489;-3.1259;
537.6000;0.7464;-3.1284;
537.9000;0.7464;-3.1383;
538.2000;0.7489;-3.1334;
538.5000;0.7513;-3.1309;
538.8000;0.7481;-3.1334;
539.1000;0.7489;-3.1433;
539.4000;0.7489;-3.1408;
539.7000;0.7505;-3.1383;
540.0000;0.7505;-3.1334;
540.3000;0.7489;-3.1309;
540.6000;0.7497;-3.1334;
540.9000;0.7497;-3.1259;
541.2000;0.7497;-3.1234;
541.5000;0.7489;-3.1234;
541.8000;0.7473;-3.1334;
542.1000;0.7497;-3.1234;
542.4000;0.7505;-3.1234;
542.7000;0.7497;-3.1234;
543.0000;0.7432;-3.1508;
543.3000;0.7489;-3.1408;
543.6000;0.7513;-3.1458;
543.9000;0.7505;-3.1508;
544.2000;0.7489;-3.1557;
544.5000;0.7497;-3.1533;
544.8000;0.7505;-3.1533;
545.1000;0.7505;-3.1483;
545.4000;0.7497;-3.1458;
545.7000;0.7489;-3.1458;
546.0000;0.7497;-3.1408;
546.3000;0.7530;-3.1284;
546.6000;0.7489;-3.1334;
546.9000;0.7481;-3.1309;
547.2000;0.7505;-3.1259;
547.5000;0.7497;-3.1284;
547.8000;0.7481;-3.1284;
548.1000;0.7505;-3.1184;
548.4000;0.7473;-3.1334;
548.7000;0.7505;-3.1309;
549.0000;0.7481;-3.1334;
549.3000;0.7473;-3.1358;
549.6000;0.7481;-3.1358;
549.9000;0.7497;-3.1334;
550.2000;0.7505;-3.1334;
550.5000;0.7538;-3.1383;
550.8000;0.7505;-3.1408;
551.1000;0.7489;-3.1458;
551.4000;0.7481;-3.1408;
551.7000;0.7497;-3.1408;
552.0000;0.7497;-3.1284;
552.3000;0.7497;-3.1284;
552.6000;0.7497;-3.1259;
552.9000;0.7489;-3.1284;
553.2000;0.7489;-3.1259;
553.5000;0.7521;-3.1160;
553.8000;0.7546;-3.1184;
554.1000;0.7489;-3.1309;
554.4000;0.7505;-3.1309;
554.7000;0.7513;-3.1259;
555.0000;0.7473;-3.1383;
555.3000;0.7489;-3.1309;
555.6000;0.7497;-3.1383;
555.9000;0.7497;-3.1408;
556.2000;0.7481;-3.1433;
556.5000;0.7530;-3.1358;
556.8000;0.7497;-3.1334;
557.1000;0.7489;-3.1383;
557.4000;0.7497;-3.1358;
557.7000;0.7497;-3.1284;
558.0000;0.7497;-3.1334;
558.3000;0.7456;-3.1458;
558.6000;0.7497;-3.1458;
558.9000;0.7456;-3.1557;
559.2000;0.7497;-3.1408;
559.5000;0.7489;-3.1284;
559.8000;0.7481;-3.1358;
560.1000;0.7481;-3.1408;
560.4000;0.7497;-3.1334;
560.7000;0.7505;-3.1334;
561.0000;0.7481;-3.1259;
561.3000;0.7521;-3.1284;
561.6000;0.7489;-3.1383;
561.9000;0.7497;-3.1433;
562.2000;0.7489;-3.1383;
562.5000;0.7505;-3.1309;
562.8000;0.7513;-3.1234;
563.1000;0.7513;-3.1259;
563.4000;0.7497;-3.1309;
563.7000;0.7505;-3.1259;
564.0000;0.7513;-3.1160;
564.3000;0.7505;-3.1234;
564.6000;0.7497;-3.1334;
564.9000;0.7513;-3.1284;
565.2000;0.7489;-3.1334;
565.5000;0.7505;-3.1284;
565.8000;0.7603;-3.1035;
566.1000;0.7497;-3.1334;
566.4000;0.7497;-3.1358;
566.7000;0.7440;-3.1557;
567.0000;0.7505;-3.1458;
567.3000;0.7440;-3.1458;
567.6000;0.7497;-3.1383;
567.9000;0.7513;-3.1334;
568.2000;0.7489;-3.1458;
568.5000;0.7473;-3.1508;
568.8000;0.7497;-3.1557;
569.1000;0.7497;-3.1607;
569.4000;0.7481;-3.1607;
569.7000;0.7513;-3.1533;
570.0000;0.7530;-3.1582;
570.3000;0.7505;-3.1657;
570.6000;0.7513;-3.1657;
570.9000;0.7513;-3.1632;
571.2000;0.7497;-3.1682;
571.5000;0.7489;-3.1781;
571.8000;0.7497;-3.1731;
572.1000;0.7489;-3.1831;
572.4000;0.7505;-3.1756;
572.7000;0.7497;-3.1806;
573.0000;0.7489;-3.1781;
573.3000;0.7497;-3.1707;
573.6000;0.7497;-3.1731;
573.9000;0.7505;-3.1632;
574.2000;0.7489;-3.1632;
574.5000;0.7546;-3.1582;
574.8000;0.7513;-3.1632;
575.1000;0.7489;-3.1657;
575.4000;0.7456;-3.1682;
575.7000;0.7489;-3.1557;
576.0000;0.7497;-3.1582;
576.3000;0.7554;-3.1433;
576.6000;0.7497;-3.1533;
576.9000;0.7424;-3.1632;
577.2000;0.7489;-3.1433;
577.5000;0.7432;-3.1632;
577.8000;0.7497;-3.1458;
578.1000;0.7497;-3.1508;
578.4000;0.7464;-3.1607;
578.7000;0.7481;-3.1582;
579.0000;0.7497;-3.1483;
579.3000;0.7440;-3.1433;
579.6000;0.7481;-3.1334;
579.9000;0.7530;-3.1184;
580.2000;0.7489;-3.1234;
580.5000;0.7481;-3.1135;
580.8000;0.7489;-3.1184;
581.1000;0.7464;-3.1209;
581.4000;0.7473;-3.1184;
581.7000;0.7481;-3.1184;
582.0000;0.7489;-3.1184;
582.3000;0.7497;-3.1234;
582.6000;0.7513;-3.1160;
582.9000;0.7481;-3.1284;
583.2000;0.7554;-3.1135;
583.5000;0.7497;-3.1334;
583.8000;0.7481;-3.1408;
584.1000;0.7489;-3.1383;
584.4000;0.7505;-3.1284;
584.7000;0.7546;-3.1184;
585.0000;0.7481;-3.1358;
585.3000;0.7489;-3.1259;
585.6000;0.7481;-3.1259;
585.9000;0.7497;-3.1334;
586.2000;0.7481;-3.1358;
586.5000;0.7497;-3.1284;
586.8000;0.7513;-3.1259;
587.1000;0.7481;-3.1334;
587.4000;0.7456;-3.1483;
587.7000;0.7497;-3.1433;
588.0000;0.7489;-3.1358;
588.3000;0.7424;-3.1508;
588.6000;0.7464;-3.1358;
588.9000;0.7497;-3.1309;
589.2000;0.7473;-3.1309;
589.5000;0.7497;-3.1259;
589.8000;0.7424;-3.1408;
590.1000;0.7481;-3.1358;
590.4000;0.7538;-3.1209;
590.7000;0.7489;-3.1234;
591.0000;0.7513;-3.1184;
591.3000;0.7530;-3.1184;
591.6000;0.7473;-3.1358;
591.9000;0.7497;-3.1358;
592.2000;0.7505;-3.1433;
592.5000;0.7489;-3.1483;
592.8000;0.7481;-3.1433;
593.1000;0.7497;-3.1483;
593.4000;0.7497;-3.1533;
593.7000;0.7505;-3.1408;
594.0000;0.7505;-3.1334;
594.3000;0.7489;-3.1309;
594.6000;0.7521;-3.1309;
594.9000;0.7497;-3.1458;
595.2000;0.7481;-3.1358;
595.5000;0.7497;-3.1383;
595.8000;0.7481;-3.1483;
596.1000;0.7497;-3.1408;
596.4000;0.7464;-3.1433;
596.7000;0.7473;-3.1483;
597.0000;0.7473;-3.1433;
597.3000;0.7497;-3.1408;
597.6000;0.7481;-3.1483;
597.9000;0.7464;-3.1433;
598.2000;0.7505;-3.1358;
598.5000;0.7497;-3.1383;
598.8000;0.7505;-3.1334;
599.1000;0.7497;-3.1309;
599.4000;0.7481;-3.1234;
599.7000;0.7481;-3.1209;
600.0000;0.7489;-3.1160;
600.3000;0.7481;-3.1234;
600.6000;0.7481;-3.1433;
600.9000;0.7473;-3.1557;
601.2000;0.7424;-3.1781;
601.5000;0.7424;-3.1831;
601.8000;0.7350;-3.2030;
602.1000;0.7285;-3.2279;
602.4000;0.7261;-3.2353;
602.7000;0.7204;-3.2627;
603.0000;0.7179;-3.2652;
603.3000;0.7147;-3.2726;
603.6000;0.7074;-3.2925;
603.9000;0.7082;-3.2875;
604.2000;0.7033;-3.2925;
604.5000;0.6960;-3.2975;
604.8000;0.6919;-3.3074;
605.1000;0.6903;-3.3124;
605.4000;0.6878;-3.3199;
605.7000;0.6805;-3.3373;
606.0000;0.6789;-3.3447;
606.3000;0.6756;-3.3572;
606.6000;0.6732;-3.3497;
606.9000;0.6699;-3.3472;
607.2000;0.6659;-3.3472;
607.5000;0.6650;-3.3373;
607.8000;0.6634;-3.3348;
608.1000;0.6650;-3.3273;
608.4000;0.6545;-3.3497;
608.7000;0.6545;-3.3497;
609.0000;0.6520;-3.3497;
609.3000;0.6496;-3.3572;
609.6000;0.6471;-3.3597;
609.9000;0.6463;-3.3621;
610.2000;0.6431;-3.3597;
610.5000;0.6390;-3.3621;
610.8000;0.6374;-3.3671;
611.1000;0.6382;-3.3621;
611.4000;0.6333;-3.3771;
611.7000;0.6284;-3.3820;
612.0000;0.6292;-3.3721;
612.3000;0.6268;-3.3796;
612.6000;0.6260;-3.3746;
612.9000;0.6268;-3.3721;
613.2000;0.6219;-3.3796;
613.5000;0.6203;-3.3820;
613.8000;0.6211;-3.3820;
614.1000;0.6178;-3.3945;
614.4000;0.6162;-3.4019;
614.7000;0.6146;-3.4069;
615.0000;0.6113;-3.4044;
615.3000;0.6105;-3.4119;
615.6000;0.6105;-3.4069;
615.9000;0.6081;-3.4069;
616.2000;0.6056;-3.4019;
616.5000;0.6040;-3.3970;
616.8000;0.6040;-3.3970;
617.1000;0.6024;-3.4044;
617.4000;0.6024;-3.3994;
617.7000;0.5991;-3.4044;
618.0000;0.5991;-3.4019;
618.3000;0.5983;-3.3920;
618.6000;0.5967;-3.3994;
618.9000;0.5902;-3.4069;
619.2000;0.5910;-3.4019;
619.5000;0.5934;-3.3895;
619.8000;0.5893;-3.3920;
620.1000;0.5902;-3.3970;
620.4000;0.5885;-3.3970;
620.7000;0.5869;-3.4069;
621.0000;0.5861;-3.4044;
621.3000;0.5861;-3.4094;
621.6000;0.5812;-3.4218;
621.9000;0.5812;-3.4268;
622.2000;0.5820;-3.4193;
622.5000;0.5804;-3.4218;
622.8000;0.5788;-3.4268;
623.1000;0.5788;-3.4293;
623.4000;0.5788;-3.4268;
623.7000;0.5755;-3.4193;
624.0000;0.5771;-3.4119;
624.3000;0.5722;-3.4144;
624.6000;0.5682;-3.4193;
624.9000;0.5706;-3.4119;
625.2000;0.5665;-3.4218;
625.5000;0.5584;-3.4417;
625.8000;0.5706;-3.4119;
626.1000;0.5698;-3.4144;
626.4000;0.5674;-3.4193;
626.7000;0.5641;-3.4193;
627.0000;0.5641;-3.4144;
627.3000;0.5649;-3.4094;
627.6000;0.5649;-3.4119;
627.9000;0.5641;-3.4094;
628.2000;0.5625;-3.4069;
628.5000;0.5617;-3.4119;
628.8000;0.5608;-3.4193;
629.1000;0.5592;-3.4193;
629.4000;0.5600;-3.4019;
629.7000;0.5576;-3.4094;
630.0000;0.5503;-3.4218;
630.3000;0.5551;-3.4019;
630.6000;0.5535;-3.4069;
630.9000;0.5568;-3.4144;
631.2000;0.5535;-3.4069;
631.5000;0.5519;-3.4243;
631.8000;0.5511;-3.4169;
632.1000;0.5503;-3.4069;
632.4000;0.5503;-3.4119;
632.7000;0.5495;-3.4069;
633.0000;0.5470;-3.4119;
633.3000;0.5543;-3.3994;
633.6000;0.5478;-3.4119;
633.9000;0.5486;-3.4069;
634.2000;0.5454;-3.4094;
634.5000;0.5462;-3.4069;
634.8000;0.5438;-3.4193;
635.1000;0.5446;-3.4218;
635.4000;0.5454;-3.4169;
635.7000;0.5348;-3.4467;
636.0000;0.5421;-3.4268;
636.3000;0.5421;-3.4268;
636.6000;0.5389;-3.4318;
636.9000;0.5389;-3.4417;
637.2000;0.5397;-3.4392;
637.5000;0.5405;-3.4318;
637.8000;0.5372;-3.4343;
638.1000;0.5381;-3.4218;
638.4000;0.5372;-3.4243;
638.7000;0.5348;-3.4343;
639.0000;0.5364;-3.4318;
639.3000;0.5364;-3.4293;
639.6000;0.5372;-3.4243;
639.9000;0.5348;-3.4243;
640.2000;0.5340;-3.4144;
640.5000;0.5348;-3.4119;
640.8000;0.5348;-3.4144;
641.1000;0.5324;-3.4169;
641.4000;0.5324;-3.4193;
641.7000;0.5332;-3.4218;
642.0000;0.5275;-3.4268;
642.3000;0.5307;-3.4193;
642.6000;0.5291;-3.4243;
642.9000;0.5299;-3.4268;
643.2000;0.5299;-3.4243;
643.5000;0.5348;-3.4119;
643.8000;0.5299;-3.4243;
644.1000;0.5275;-3.4218;
644.4000;0.5275;-3.4193;
644.7000;0.5267;-3.4218;
645.0000;0.5226;-3.4243;
645.3000;0.5275;-3.4044;
645.6000;0.5242;-3.3994;
645.9000;0.5258;-3.3920;
646.2000;0.5250;-3.3994;
646.5000;0.5226;-3.4044;
646.8000;0.5267;-3.3920;
647.1000;0.5250;-3.3994;
647.4000;0.5226;-3.4044;
647.7000;0.5226;-3.4044;
648.0000;0.5234;-3.4019;
648.3000;0.5242;-3.3994;
648.6000;0.5218;-3.4044;
648.9000;0.5210;-3.4019;
649.2000;0.5218;-3.3994;
649.5000;0.5193;-3.4218;
649.8000;0.5210;-3.4169;
650.1000;0.5234;-3.4144;
650.4000;0.5201;-3.4193;
650.7000;0.5185;-3.4119;
651.0000;0.5169;-3.4094;
651.3000;0.5177;-3.3945;
651.6000;0.5201;-3.3895;
651.9000;0.5201;-3.3895;
652.2000;0.5177;-3.4019;
652.5000;0.5177;-3.4094;
652.8000;0.5169;-3.4094;
653.1000;0.5169;-3.4119;
653.4000;0.5136;-3.4193;
653.7000;0.5161;-3.4169;
654.0000;0.5128;-3.4169;
654.3000;0.5120;-3.4144;
654.6000;0.5144;-3.4169;
654.9000;0.5128;-3.4193;
655.2000;0.5128;-3.4193;
655.5000;0.5153;-3.4044;
655.8000;0.5112;-3.4019;
656.1000;0.5112;-3.4069;
656.4000;0.5120;-3.4019;
656.7000;0.5136;-3.4069;
657.0000;0.5136;-3.4119;
657.3000;0.5112;-3.4169;
657.6000;0.5128;-3.4144;
657.9000;0.5136;-3.4119;
658.2000;0.5079;-3.4193;
658.5000;0.5112;-3.4094;
658.8000;0.5120;-3.4019;
659.1000;0.5112;-3.4019;
659.4000;0.5096;-3.4119;
659.7000;0.5144;-3.4044;
660.0000;0.5112;-3.4119;
660.3000;0.5063;-3.4243;
660.6000;0.5079;-3.4243;
660.9000;0.5088;-3.4193;
661.2000;0.5104;-3.4094;
661.5000;0.5088;-3.4169;
661.8000;0.4998;-3.4442;
662.1000;0.5063;-3.4119;
662.4000;0.5104;-3.4119;
662.7000;0.5120;-3.4069;
663.0000;0.5120;-3.4044;
663.3000;0.5071;-3.4268;
663.6000;0.5112;-3.4144;
663.9000;0.5071;-3.4119;
664.2000;0.5047;-3.4243;
664.5000;0.5039;-3.4243;
664.8000;0.5055;-3.4218;
665.1000;0.5055;-3.4193;
665.4000;0.5031;-3.4218;
665.7000;0.5014;-3.4193;
666.0000;0.5014;-3.4218;
666.3000;0.5071;-3.4144;
666.6000;0.5039;-3.4218;
666.9000;0.5006;-3.4193;
667.2000;0.5022;-3.4193;
667.5000;0.5055;-3.4094;
667.8000;0.5031;-3.4094;
668.1000;0.5055;-3.3994;
668.4000;0.5022;-3.4119;
668.7000;0.5014;-3.4144;
669.0000;0.5047;-3.4094;
669.3000;0.5022;-3.4069;
669.6000;0.5079;-3.3920;
669.9000;0.5006;-3.4094;
670.2000;0.5022;-3.4019;
670.5000;0.5006;-3.4094;
670.8000;0.5039;-3.4144;
671.1000;0.4998;-3.4119;
671.4000;0.4974;-3.4169;
671.7000;0.4990;-3.4069;
672.0000;0.5055;-3.3945;
672.3000;0.4998;-3.4144;
672.6000;0.4982;-3.4193;
672.9000;0.5006;-3.4069;
673.2000;0.5063;-3.3945;
673.5000;0.5006;-3.4069;
673.8000;0.4990;-3.4069;
674.1000;0.4982;-3.4069;
674.4000;0.4982;-3.4094;
674.7000;0.4982;-3.4094;
675.0000;0.4917;-3.4243;
675.3000;0.4900;-3.4318;
675.6000;0.4982;-3.4119;
675.9000;0.4965;-3.4119;
676.2000;0.4998;-3.4044;
676.5000;0.5014;-3.3920;
676.8000;0.4982;-3.3994;
677.1000;0.5022;-3.3920;
677.4000;0.4957;-3.4119;
677.7000;0.4965;-3.4243;
678.0000;0.4965;-3.4119;
678.3000;0.4982;-3.4144;
678.6000;0.4965;-3.4044;
678.9000;0.4965;-3.4144;
679.2000;0.4965;-3.4218;
679.5000;0.4941;-3.4293;
679.8000;0.4957;-3.4343;
680.1000;0.4965;-3.4293;
680.4000;0.4941;-3.4392;
680.7000;0.4957;-3.4318;
681.0000;0.4965;-3.4268;
681.3000;0.4957;-3.4318;
681.6000;0.4957;-3.4343;
681.9000;0.4957;-3.4367;
682.2000;0.4925;-3.4318;
682.5000;0.4974;-3.4193;
682.8000;0.4917;-3.4343;
683.1000;0.4957;-3.4268;
683.4000;0.4925;-3.4293;
683.7000;0.4941;-3.4243;
684.0000;0.4925;-3.4218;
684.3000;0.4974;-3.4044;
684.6000;0.4917;-3.4293;
684.9000;0.4925;-3.4318;
685.2000;0.4908;-3.4343;
685.5000;0.4933;-3.4268;
685.8000;0.4843;-3.4467;
686.1000;0.4933;-3.4169;
686.4000;0.4908;-3.4218;
686.7000;0.4933;-3.4144;
687.0000;0.4933;-3.4069;
687.3000;0.4933;-3.3970;
687.6000;0.4933;-3.3920;
687.9000;0.4933;-3.3945;
688.2000;0.4908;-3.4069;
688.5000;0.4908;-3.3970;
688.8000;0.4908;-3.4044;
689.1000;0.4933;-3.3920;
689.4000;0.4900;-3.4094;
689.7000;0.4892;-3.4094;
690.0000;0.4925;-3.4094;
690.3000;0.4908;-3.4069;
690.6000;0.4925;-3.4069;
690.9000;0.4900;-3.4144;
691.2000;0.4917;-3.4119;
691.5000;0.4900;-3.4144;
691.8000;0.4908;-3.4144;
692.1000;0.4843;-3.4367;
692.4000;0.4917;-3.4119;
692.7000;0.4917;-3.4069;
693.0000;0.4917;-3.4069;
693.3000;0.4908;-3.4069;
693.6000;0.4900;-3.4169;
693.9000;0.4900;-3.4119;
694.2000;0.4908;-3.4069;
694.5000;0.4884;-3.3970;
694.8000;0.4876;-3.3994;
695.1000;0.4892;-3.3994;
695.4000;0.4884;-3.4044;
695.7000;0.4876;-3.4119;
696.0000;0.4900;-3.4069;
696.3000;0.4892;-3.4193;
696.6000;0.4908;-3.4144;
696.9000;0.4900;-3.4119;
697.2000;0.4908;-3.4044;
697.5000;0.4900;-3.4044;
697.8000;0.4949;-3.3994;
698.1000;0.4884;-3.4218;
698.4000;0.4900;-3.4193;
698.7000;0.4876;-3.4318;
699.0000;0.4892;-3.4243;
699.3000;0.4892;-3.4243;
699.6000;0.4876;-3.4218;
699.9000;0.4892;-3.4193;
700.2000;0.4868;-3.4169;
700.5000;0.4803;-3.4492;
700.8000;0.4884;-3.4343;
701.1000;0.4851;-3.4467;
701.4000;0.4900;-3.4367;
701.7000;0.4884;-3.4367;
702.0000;0.4851;-3.4417;
702.3000;0.4860;-3.4293;
702.6000;0.4892;-3.4218;
702.9000;0.4876;-3.4218;
703.2000;0.4876;-3.4169;
703.5000;0.4868;-3.4169;
703.8000;0.4860;-3.4119;
704.1000;0.4851;-3.4119;
704.4000;0.4843;-3.4169;
704.7000;0.4876;-3.4069;
705.0000;0.4860;-3.4144;
705.3000;0.4917;-3.4069;
705.6000;0.4925;-3.3994;
705.9000;0.4851;-3.4144;
706.2000;0.4803;-3.4318;
706.5000;0.4843;-3.4218;
706.8000;0.4900;-3.4044;
707.1000;0.4860;-3.4119;
707.4000;0.4851;-3.4069;
707.7000;0.4868;-3.3945;
708.0000;0.4860;-3.3945;
708.3000;0.4876;-3.3845;
708.6000;0.4868;-3.3994;
708.9000;0.4843;-3.4094;
709.2000;0.4860;-3.4069;
709.5000;0.4868;-3.4019;
709.8000;0.4860;-3.3994;
710.1000;0.4868;-3.3895;
710.4000;0.4851;-3.4019;
710.7000;0.4835;-3.4243;
711.0000;0.4884;-3.4069;
711.3000;0.4851;-3.4094;
711.6000;0.4843;-3.4144;
711.9000;0.4827;-3.4243;
712.2000;0.4860;-3.4144;
712.5000;0.4843;-3.4218;
712.8000;0.4900;-3.4119;
713.1000;0.4851;-3.4193;
713.4000;0.4843;-3.4169;
713.7000;0.4876;-3.4094;
714.0000;0.4835;-3.4169;
714.3000;0.4843;-3.4094;
714.6000;0.4892;-3.3994;
714.9000;0.4843;-3.4094;
715.2000;0.4843;-3.4144;
715.5000;0.4835;-3.4144;
715.8000;0.4843;-3.4044;
716.1000;0.4819;-3.4019;
716.4000;0.4843;-3.4044;
716.7000;0.4851;-3.4169;
717.0000;0.4827;-3.4169;
717.3000;0.4819;-3.4094;
717.6000;0.4851;-3.4044;
717.9000;0.4843;-3.4019;
718.2000;0.4835;-3.4119;
718.5000;0.4835;-3.4094;
718.8000;0.4843;-3.4119;
719.1000;0.4835;-3.4069;
719.4000;0.4827;-3.4019;
719.7000;0.4827;-3.4044;
720.0000;0.4851;-3.4019;
720.3000;0.4851;-3.3920;
720.6000;0.4843;-3.3920;
720.9000;0.4851;-3.3945;
721.2000;0.4851;-3.3945;
721.5000;0.4851;-3.3920;
721.8000;0.4835;-3.4069;
722.1000;0.4860;-3.4019;
722.4000;0.4835;-3.3970;
722.7000;0.4851;-3.3994;
723.0000;0.4851;-3.3920;
723.3000;0.4835;-3.3895;
723.6000;0.4819;-3.3920;
723.9000;0.4827;-3.3870;
724.2000;0.4819;-3.3895;
724.5000;0.4827;-3.3845;
724.8000;0.4811;-3.3870;
725.1000;0.4819;-3.3895;
725.4000;0.4851;-3.3845;
725.7000;0.4827;-3.3945;
726.0000;0.4835;-3.3994;
726.3000;0.4835;-3.4069;
726.6000;0.4835;-3.3994;
726.9000;0.4819;-3.3920;
727.2000;0.4794;-3.3994;
727.5000;0.4811;-3.3920;
727.8000;0.4868;-3.3721;
728.1000;0.4819;-3.3845;
728.4000;0.4819;-3.3796;
728.7000;0.4762;-3.3895;
729.0000;0.4794;-3.3945;
729.3000;0.4803;-3.4044;
729.6000;0.4827;-3.4019;
729.9000;0.4811;-3.3970;
730.2000;0.4851;-3.3845;
730.5000;0.4737;-3.3994;
730.8000;0.4827;-3.3820;
731.1000;0.4811;-3.3796;
731.4000;0.4794;-3.3895;
731.7000;0.4835;-3.3845;
732.0000;0.4827;-3.3945;
732.3000;0.4819;-3.4044;
732.6000;0.4835;-3.4019;
732.9000;0.4786;-3.4044;
733.2000;0.4762;-3.4218;
733.5000;0.4851;-3.4019;
733.8000;0.4892;-3.3895;
734.1000;0.4819;-3.4069;
734.4000;0.4811;-3.4094;
734.7000;0.4827;-3.4044;
735.0000;0.4803;-3.4094;
735.3000;0.4819;-3.4044;
735.6000;0.4811;-3.4119;
735.9000;0.4827;-3.4144;
736.2000;0.4819;-3.4119;
736.5000;0.4827;-3.4119;
736.8000;0.4778;-3.4243;
737.1000;0.4819;-3.4169;
737.4000;0.4835;-3.4069;
737.7000;0.4811;-3.4094;
738.0000;0.4835;-3.3920;
738.3000;0.4819;-3.3895;
738.6000;0.4811;-3.3970;
738.9000;0.4819;-3.3895;
739.2000;0.4827;-3.3970;
739.5000;0.4811;-3.3994;
739.8000;0.4803;-3.3895;
740.1000;0.4803;-3.3920;
740.4000;0.4786;-3.3920;
740.7000;0.4794;-3.3895;
741.0000;0.4803;-3.3945;
741.3000;0.4786;-3.3994;
741.6000;0.4803;-3.4044;
741.9000;0.4803;-3.4094;
742.2000;0.4803;-3.4069;
742.5000;0.4819;-3.4019;
742.8000;0.4811;-3.4119;
743.1000;0.4827;-3.4094;
743.4000;0.4786;-3.4218;
743.7000;0.4794;-3.4119;
744.0000;0.4835;-3.3994;
744.3000;0.4794;-3.4094;
744.6000;0.4794;-3.4044;
744.9000;0.4803;-3.4094;
745.2000;0.4786;-3.4119;
745.5000;0.4803;-3.4094;
745.8000;0.4778;-3.4119;
746.1000;0.4803;-3.4094;
746.4000;0.4819;-3.4144;
746.7000;0.4803;-3.4169;
747.0000;0.4827;-3.4144;
747.3000;0.4827;-3.4169;
747.6000;0.4786;-3.4218;
747.9000;0.4778;-3.4218;
748.2000;0.4794;-3.4218;
748.5000;0.4786;-3.4218;
748.8000;0.4811;-3.4119;
749.1000;0.4786;-3.4094;
749.4000;0.4770;-3.4094;
749.7000;0.4778;-3.4069;
750.0000;0.4819;-3.4019;
750.3000;0.4819;-3.4069;
750.6000;0.4778;-3.4119;
750.9000;0.4786;-3.4169;
751.2000;0.4770;-3.4268;
751.5000;0.4803;-3.4169;
751.8000;0.4794;-3.4193;
752.1000;0.4786;-3.4119;
752.4000;0.4762;-3.4193;
752.7000;0.4786;-3.4119;
753.0000;0.4811;-3.4094;
753.3000;0.4786;-3.4094;
753.6000;0.4786;-3.4044;
753.9000;0.4803;-3.4019;
754.2000;0.4803;-3.4094;
754.5000;0.4778;-3.4094;
754.8000;0.4892;-3.3820;
755.1000;0.4811;-3.3994;
755.4000;0.4860;-3.3771;
755.7000;0.4794;-3.3945;
756.0000;0.4811;-3.3994;
756.3000;0.4770;-3.4069;
756.6000;0.4713;-3.4193;
756.9000;0.4803;-3.3945;
757.2000;0.4762;-3.3970;
757.5000;0.4794;-3.3845;
757.8000;0.4770;-3.3920;
758.1000;0.4794;-3.3945;
758.4000;0.4794;-3.4019;
758.7000;0.4811;-3.3870;
759.0000;0.4794;-3.4019;
759.3000;0.4803;-3.4094;
759.6000;0.4803;-3.4094;
759.9000;0.4786;-3.4119;
760.2000;0.4746;-3.4169;
760.5000;0.4794;-3.4069;
760.8000;0.4786;-3.4019;
761.1000;0.4794;-3.4069;
761.4000;0.4811;-3.3994;
761.7000;0.4811;-3.3945;
762.0000;0.4811;-3.3970;
762.3000;0.4786;-3.3895;
762.6000;0.4778;-3.3870;
762.9000;0.4778;-3.3845;
763.2000;0.4786;-3.3796;
763.5000;0.4811;-3.3646;
763.8000;0.4811;-3.3671;
764.1000;0.4746;-3.3895;
764.4000;0.4803;-3.3771;
764.7000;0.4786;-3.3870;
765.0000;0.4786;-3.3845;
765.3000;0.4778;-3.3970;
765.6000;0.4803;-3.3920;
765.9000;0.4892;-3.3671;
766.2000;0.4803;-3.4044;
766.5000;0.4778;-3.4069;
766.8000;0.4843;-3.3920;
767.1000;0.4827;-3.3920;
767.4000;0.4762;-3.4094;
767.7000;0.4811;-3.4044;
768.0000;0.4811;-3.4019;
768.3000;0.4794;-3.4044;
768.6000;0.4819;-3.3920;
768.9000;0.4803;-3.3970;
769.2000;0.4754;-3.4069;
769.5000;0.4786;-3.4119;
769.8000;0.4803;-3.4019;
770.1000;0.4786;-3.4069;
770.4000;0.4803;-3.4044;
770.7000;0.4778;-3.4044;
771.0000;0.4794;-3.3994;
771.3000;0.4786;-3.4119;
771.6000;0.4754;-3.4193;
771.9000;0.4786;-3.4243;
772.2000;0.4786;-3.4243;
772.5000;0.4770;-3.4218;
772.8000;0.4762;-3.4268;
773.1000;0.4786;-3.4243;
773.4000;0.4794;-3.4169;
773.7000;0.4811;-3.4169;
774.0000;0.4778;-3.4293;
774.3000;0.4786;-3.4243;
774.6000;0.4794;-3.4193;
774.9000;0.4778;-3.4193;
775.2000;0.4811;-3.4193;
775.5000;0.4770;-3.4193;
775.8000;0.4778;-3.4119;
776.1000;0.4770;-3.4094;
776.4000;0.4786;-3.4044;
776.7000;0.4778;-3.4069;
777.0000;0.4778;-3.4044;
777.3000;0.4794;-3.3895;
777.6000;0.4778;-3.3845;
777.9000;0.4835;-3.3746;
778.2000;0.4835;-3.3746;
778.5000;0.4770;-3.3895;
778.8000;0.4819;-3.3771;
779.1000;0.4778;-3.3945;
779.4000;0.4762;-3.4094;
779.7000;0.4754;-3.4094;
780.0000;0.4770;-3.4094;
780.3000;0.4803;-3.4044;
780.6000;0.4786;-3.4044;
780.9000;0.4835;-3.3920;
781.2000;0.4746;-3.4119;
781.5000;0.4770;-3.3945;
781.8000;0.4786;-3.3820;
782.1000;0.4762;-3.3895;
782.4000;0.4778;-3.3870;
782.7000;0.4892;-3.3572;
783.0000;0.4794;-3.3820;
783.3000;0.4786;-3.3820;
783.6000;0.4762;-3.3920;
783.9000;0.4762;-3.3920;
784.2000;0.4778;-3.3920;
784.5000;0.4778;-3.3870;
784.8000;0.4778;-3.3845;
785.1000;0.4762;-3.3895;
785.4000;0.4778;-3.3845;
785.7000;0.4770;-3.3870;
786.0000;0.4770;-3.3870;
786.3000;0.4762;-3.3945;
786.6000;0.4762;-3.3920;
786.9000;0.4770;-3.3970;
787.2000;0.4762;-3.4069;
787.5000;0.4762;-3.4169;
787.8000;0.4762;-3.4119;
788.1000;0.4770;-3.4019;
788.4000;0.4746;-3.4069;
788.7000;0.4754;-3.4119;
789.0000;0.4656;-3.4367;
789.3000;0.4770;-3.4119;
789.6000;0.4778;-3.3994;
789.9000;0.4754;-3.3994;
790.2000;0.4746;-3.4019;
790.5000;0.4770;-3.3920;
790.8000;0.4778;-3.3895;
791.1000;0.4778;-3.3820;
791.4000;0.4786;-3.3696;
791.7000;0.4770;-3.3746;
792.0000;0.4778;-3.3646;
792.3000;0.4786;-3.3597;
792.6000;0.4794;-3.3646;
792.9000;0.4778;-3.3646;
793.2000;0.4786;-3.3796;
793.5000;0.4778;-3.3870;
793.8000;0.4754;-3.3845;
794.1000;0.4770;-3.3796;
794.4000;0.4778;-3.3870;
794.7000;0.4770;-3.3920;
795.0000;0.4770;-3.3920;
795.3000;0.4778;-3.3920;
795.6000;0.4851;-3.3696;
795.9000;0.4803;-3.3870;
796.2000;0.4778;-3.3870;
796.5000;0.4770;-3.3895;
796.8000;0.4778;-3.3746;
797.1000;0.4827;-3.3547;
797.4000;0.4778;-3.3746;
797.7000;0.4786;-3.3696;
798.0000;0.4794;-3.3696;
798.3000;0.4770;-3.3746;
798.6000;0.4770;-3.3721;
798.9000;0.4794;-3.3746;
799.2000;0.4786;-3.3721;
799.5000;0.4770;-3.3721;
799.8000;0.4762;-3.3646;
800.1000;0.4786;-3.3646;
800.4000;0.4746;-3.3671;
800.7000;0.4746;-3.3746;
801.0000;0.4770;-3.3696;
801.3000;0.4770;-3.3696;
801.6000;0.4778;-3.3721;
801.9000;0.4754;-3.3597;
802.2000;0.4689;-3.3820;
802.5000;0.4794;-3.3671;
802.8000;0.4811;-3.3696;
803.1000;0.4778;-3.3721;
803.4000;0.4697;-3.3970;
803.7000;0.4762;-3.3771;
804.0000;0.4762;-3.3820;
804.3000;0.4803;-3.3746;
804.6000;0.4746;-3.3920;
804.9000;0.4786;-3.3820;
805.2000;0.4778;-3.3721;
805.5000;0.4811;-3.3621;
805.8000;0.4770;-3.3845;
806.1000;0.4778;-3.3845;
806.4000;0.4803;-3.3820;
806.7000;0.4762;-3.4044;
807.0000;0.4762;-3.4069;
807.3000;0.4770;-3.4019;
807.6000;0.4778;-3.4019;
807.9000;0.4778;-3.4044;
808.2000;0.4770;-3.4094;
808.5000;0.4762;-3.4094;
808.8000;0.4770;-3.4144;
809.1000;0.4778;-3.4169;
809.4000;0.4770;-3.4069;
809.7000;0.4778;-3.4019;
810.0000;0.4770;-3.3920;
810.3000;0.4762;-3.3994;
810.6000;0.4713;-3.4094;
810.9000;0.4770;-3.3994;
811.2000;0.4786;-3.4044;
811.5000;0.4786;-3.4069;
811.8000;0.4746;-3.4218;
812.1000;0.4754;-3.4293;
812.4000;0.4729;-3.4367;
812.7000;0.4762;-3.4193;
813.0000;0.4762;-3.4218;
813.3000;0.4786;-3.4218;
813.6000;0.4754;-3.4343;
813.9000;0.4754;-3.4293;
814.2000;0.4794;-3.4144;
814.5000;0.4762;-3.4169;
814.8000;0.4713;-3.4218;
815.1000;0.4754;-3.4169;
815.4000;0.4778;-3.4218;
815.7000;0.4770;-3.4044;
816.0000;0.4762;-3.4019;
816.3000;0.4786;-3.4069;
816.6000;0.4754;-3.4218;
816.9000;0.4786;-3.4169;
817.2000;0.4770;-3.4243;
817.5000;0.4762;-3.4094;
817.8000;0.4754;-3.4094;
818.1000;0.4762;-3.4169;
818.4000;0.4786;-3.4193;
818.7000;0.4754;-3.4268;
819.0000;0.4729;-3.4293;
819.3000;0.4819;-3.4044;
819.6000;0.4778;-3.4218;
819.9000;0.4770;-3.4293;
820.2000;0.4786;-3.4218;
820.5000;0.4770;-3.4218;
820.8000;0.4786;-3.4119;
821.1000;0.4754;-3.4218;
821.4000;0.4762;-3.4144;
821.7000;0.4786;-3.4169;
822.0000;0.4778;-3.4193;
822.3000;0.4770;-3.4069;
822.6000;0.4746;-3.4094;
822.9000;0.4778;-3.3994;
823.2000;0.4762;-3.4069;
823.5000;0.4762;-3.4069;
823.8000;0.4737;-3.4019;
824.1000;0.4762;-3.3920;
824.4000;0.4794;-3.3845;
824.7000;0.4778;-3.3920;
825.0000;0.4770;-3.4044;
825.3000;0.4746;-3.4169;
825.6000;0.4794;-3.4144;
825.9000;0.4778;-3.4193;
826.2000;0.4786;-3.4169;
826.5000;0.4762;-3.4293;
826.8000;0.4770;-3.4243;
827.1000;0.4778;-3.4243;
827.4000;0.4762;-3.4243;
827.7000;0.4737;-3.4243;
828.0000;0.4794;-3.4243;
828.3000;0.4762;-3.4193;
828.6000;0.4778;-3.4169;
828.9000;0.4803;-3.4119;
829.2000;0.4746;-3.4268;
829.5000;0.4754;-3.4218;
829.8000;0.4770;-3.4169;
830.1000;0.4778;-3.4144;
830.4000;0.4737;-3.4318;
830.7000;0.4754;-3.4243;
831.0000;0.4762;-3.4169;
831.3000;0.4778;-3.4069;
831.6000;0.4786;-3.4144;
831.9000;0.4754;-3.4193;
832.2000;0.4762;-3.4193;
832.5000;0.4754;-3.4193;
832.8000;0.4762;-3.4069;
833.1000;0.4786;-3.4044;
833.4000;0.4746;-3.4193;
833.7000;0.4754;-3.4193;
834.0000;0.4778;-3.4119;
834.3000;0.4754;-3.4144;
834.6000;0.4778;-3.4144;
834.9000;0.4786;-3.4044;
835.2000;0.4770;-3.4069;
835.5000;0.4762;-3.4094;
835.8000;0.4770;-3.4044;
836.1000;0.4754;-3.3994;
836.4000;0.4746;-3.3994;
836.7000;0.4770;-3.3945;
837.0000;0.4778;-3.4019;
837.3000;0.4762;-3.4019;
837.6000;0.4746;-3.4044;
837.9000;0.4835;-3.3870;
838.2000;0.4770;-3.4044;
838.5000;0.4713;-3.4119;
838.8000;0.4762;-3.4019;
839.1000;0.4794;-3.4019;
839.4000;0.4762;-3.4019;
839.7000;0.4754;-3.4069;
840.0000;0.4705;-3.4193;
840.3000;0.4803;-3.3945;
840.6000;0.4770;-3.3895;
840.9000;0.4770;-3.3895;
841.2000;0.4713;-3.3945;
841.5000;0.4762;-3.3895;
841.8000;0.4770;-3.3895;
842.1000;0.4729;-3.3994;
842.4000;0.4681;-3.4169;
842.7000;0.4762;-3.3970;
843.0000;0.4794;-3.3920;
843.3000;0.4754;-3.3895;
843.6000;0.4754;-3.3945;
843.9000;0.4762;-3.3920;
844.2000;0.4762;-3.4044;
844.5000;0.4762;-3.3994;
844.8000;0.4754;-3.4044;
845.1000;0.4762;-3.4119;
845.4000;0.4746;-3.4218;
845.7000;0.4746;-3.4169;
846.0000;0.4737;-3.4218;
846.3000;0.4762;-3.4094;
846.6000;0.4754;-3.4094;
846.9000;0.4746;-3.4144;
847.2000;0.4762;-3.4094;
847.5000;0.4754;-3.4094;
847.8000;0.4770;-3.4119;
848.1000;0.4762;-3.4144;
848.4000;0.4770;-3.4193;
848.7000;0.4762;-3.4144;
849.0000;0.4746;-3.4193;
849.3000;0.4786;-3.4169;
849.6000;0.4786;-3.4144;
849.9000;0.4778;-3.4144;
850.2000;0.4770;-3.4069;
850.5000;0.4737;-3.4094;
850.8000;0.4697;-3.4193;
851.1000;0.4754;-3.4019;
851.4000;0.4754;-3.4044;
851.7000;0.4762;-3.4144;
852.0000;0.4754;-3.4144;
852.3000;0.4762;-3.4144;
852.6000;0.4737;-3.4169;
852.9000;0.4762;-3.4119;
853.2000;0.4770;-3.4094;
853.5000;0.4762;-3.4069;
853.8000;0.4794;-3.4069;
854.1000;0.4737;-3.4119;
854.4000;0.4746;-3.4094;
854.7000;0.4770;-3.4069;
855.0000;0.4770;-3.3994;
855.3000;0.4754;-3.4094;
855.6000;0.4762;-3.4094;
855.9000;0.4770;-3.4044;
856.2000;0.4746;-3.3970;
856.5000;0.4754;-3.3945;
856.8000;0.4746;-3.3945;
857.1000;0.4770;-3.3870;
857.4000;0.4762;-3.3920;
857.7000;0.4746;-3.4019;
858.0000;0.4754;-3.3994;
858.3000;0.4762;-3.3994;
858.6000;0.4770;-3.3920;
858.9000;0.4762;-3.3970;
859.2000;0.4811;-3.3994;
859.5000;0.4770;-3.4094;
859.8000;0.4811;-3.4019;
860.1000;0.4786;-3.3994;
860.4000;0.4754;-3.4069;
860.7000;0.4770;-3.3945;
861.0000;0.4737;-3.3920;
861.3000;0.4778;-3.3771;
861.6000;0.4737;-3.3870;
861.9000;0.4762;-3.3945;
862.2000;0.4762;-3.3920;
862.5000;0.4737;-3.3970;
862.8000;0.4778;-3.3970;
863.1000;0.4762;-3.4044;
863.4000;0.4762;-3.3994;
863.7000;0.4754;-3.4019;
864.0000;0.4819;-3.3820;
864.3000;0.4754;-3.3994;
864.6000;0.4721;-3.4069;
864.9000;0.4746;-3.3994;
865.2000;0.4754;-3.3994;
865.5000;0.4754;-3.3994;
865.8000;0.4737;-3.4119;
866.1000;0.4721;-3.4169;
866.4000;0.4746;-3.4218;
866.7000;0.4754;-3.4193;
867.0000;0.4721;-3.4193;
867.3000;0.4754;-3.4318;
867.6000;0.4737;-3.4293;
867.9000;0.4762;-3.4193;
868.2000;0.4754;-3.4218;
868.5000;0.4737;-3.4193;
868.8000;0.4746;-3.4144;
869.1000;0.4754;-3.4069;
869.4000;0.4721;-3.4169;
869.7000;0.4746;-3.4094;
870.0000;0.4754;-3.4069;
870.3000;0.4746;-3.4094;
870.6000;0.4754;-3.4019;
870.9000;0.4754;-3.4119;
871.2000;0.4811;-3.3945;
871.5000;0.4762;-3.4044;
871.8000;0.4770;-3.3970;
872.1000;0.4754;-3.4019;
872.4000;0.4762;-3.4094;
872.7000;0.4770;-3.4019;
873.0000;0.4762;-3.3994;
873.3000;0.4762;-3.3895;
873.6000;0.4754;-3.3945;
873.9000;0.4729;-3.3920;
874.2000;0.4729;-3.3895;
874.5000;0.4762;-3.3870;
874.8000;0.4770;-3.3895;
875.1000;0.4754;-3.3994;
875.4000;0.4762;-3.3970;
875.7000;0.4762;-3.3970;
876.0000;0.4778;-3.4044;
876.3000;0.4746;-3.4094;
876.6000;0.4762;-3.4044;
876.9000;0.4762;-3.3994;
877.2000;0.4754;-3.3895;
877.5000;0.4746;-3.3945;
877.8000;0.4754;-3.3945;
878.1000;0.4737;-3.4069;
878.4000;0.4754;-3.4119;
878.7000;0.4746;-3.4069;
879.0000;0.4754;-3.4119;
879.3000;0.4754;-3.4169;
879.6000;0.4754;-3.4144;
879.9000;0.4762;-3.4119;
880.2000;0.4803;-3.3945;
880.5000;0.4754;-3.4069;
880.8000;0.4729;-3.4019;
881.1000;0.4770;-3.3870;
881.4000;0.4713;-3.3945;
881.7000;0.4729;-3.3920;
882.0000;0.4762;-3.3870;
882.3000;0.4754;-3.3870;
882.6000;0.4754;-3.3895;
882.9000;0.4762;-3.3895;
883.2000;0.4754;-3.3895;
883.5000;0.4762;-3.3994;
883.8000;0.4762;-3.3970;
884.1000;0.4762;-3.4019;
884.4000;0.4762;-3.4019;
884.7000;0.4746;-3.4044;
885.0000;0.4762;-3.3994;
885.3000;0.4737;-3.3920;
885.6000;0.4754;-3.3895;
885.9000;0.4754;-3.3945;
886.2000;0.4754;-3.3920;
886.5000;0.4746;-3.3945;
886.8000;0.4754;-3.3895;
887.1000;0.4754;-3.3920;
887.4000;0.4762;-3.3970;
887.7000;0.4754;-3.4069;
888.0000;0.4754;-3.4044;
888.3000;0.4762;-3.4094;
888.6000;0.4754;-3.4094;
888.9000;0.4770;-3.4094;
889.2000;0.4754;-3.4243;
889.5000;0.4754;-3.4268;
889.8000;0.4762;-3.4218;
890.1000;0.4737;-3.4144;
890.4000;0.4762;-3.4144;
890.7000;0.4778;-3.4094;
891.0000;0.4770;-3.4119;
891.3000;0.4794;-3.4019;
891.6000;0.4754;-3.4169;
891.9000;0.4746;-3.4243;
892.2000;0.4746;-3.4318;
892.5000;0.4770;-3.4293;
892.8000;0.4746;-3.4367;
893.1000;0.4860;-3.4019;
893.4000;0.4762;-3.4218;
893.7000;0.4762;-3.4268;
894.0000;0.4737;-3.4243;
894.3000;0.4754;-3.4169;
894.6000;0.4762;-3.4169;
894.9000;0.4754;-3.4218;
895.2000;0.4705;-3.4367;
895.5000;0.4770;-3.4169;
895.8000;0.4778;-3.4144;
896.1000;0.4737;-3.4218;
896.4000;0.4746;-3.4193;
896.7000;0.4746;-3.4218;
897.0000;0.4762;-3.4144;
897.3000;0.4770;-3.4044;
897.6000;0.4746;-3.3994;
897.9000;0.4754;-3.3870;
898.2000;0.4754;-3.3820;
898.5000;0.4754;-3.3895;
898.8000;0.4868;-3.3621;
899.1000;0.4754;-3.3920;
899.4000;0.4770;-3.3870;
899.7000;0.4754;-3.3820;
900.0000;0.4754;-3.3895;
900.3000;0.4754;-3.3945;
900.6000;0.4778;-3.3845;
900.9000;0.4803;-3.3746;
901.2000;0.4754;-3.3920;
901.5000;0.4762;-3.3870;
901.8000;0.4754;-3.3820;
902.1000;0.4770;-3.3845;
902.4000;0.4746;-3.3920;
902.7000;0.4762;-3.3870;
903.0000;0.4754;-3.3895;
903.3000;0.4778;-3.3845;
903.6000;0.4754;-3.3994;
903.9000;0.4754;-3.4044;
904.2000;0.4713;-3.4119;
904.5000;0.4746;-3.3970;
904.8000;0.4754;-3.3845;
905.1000;0.4737;-3.3870;
905.4000;0.4762;-3.3796;
905.7000;0.4729;-3.3870;
906.0000;0.4754;-3.3870;
906.3000;0.4762;-3.3870;
906.6000;0.4754;-3.3870;
906.9000;0.4754;-3.3870;
907.2000;0.4770;-3.3870;
907.5000;0.4770;-3.3845;
907.8000;0.4746;-3.3845;
908.1000;0.4754;-3.3796;
908.4000;0.4762;-3.3746;
908.7000;0.4754;-3.3796;
909.0000;0.4860;-3.3497;
909.3000;0.4778;-3.3796;
909.6000;0.4746;-3.3920;
909.9000;0.4672;-3.4119;
910.2000;0.4762;-3.3970;
910.5000;0.4746;-3.3945;
910.8000;0.4746;-3.4069;
911.1000;0.4811;-3.3895;
911.4000;0.4770;-3.4019;
911.7000;0.4762;-3.4094;
912.0000;0.4770;-3.4069;
912.3000;0.4778;-3.4044;
912.6000;0.4762;-3.4069;
912.9000;0.4762;-3.3970;
913.2000;0.4762;-3.3895;
913.5000;0.4770;-3.3895;
913.8000;0.4770;-3.3870;
914.1000;0.4762;-3.3895;
914.4000;0.4754;-3.3994;
914.7000;0.4729;-3.4144;
915.0000;0.4762;-3.4119;
915.3000;0.4762;-3.3994;
915.6000;0.4754;-3.3994;
915.9000;0.4762;-3.3895;
916.2000;0.4729;-3.3994;
916.5000;0.4762;-3.4044;
916.8000;0.4754;-3.4019;
917.1000;0.4754;-3.4119;
917.4000;0.4746;-3.4019;
917.7000;0.4762;-3.3970;
918.0000;0.4746;-3.3895;
918.3000;0.4754;-3.3870;
918.6000;0.4762;-3.3970;
918.9000;0.4762;-3.3970;
919.2000;0.4786;-3.3945;
919.5000;0.4754;-3.4044;
919.8000;0.4729;-3.4044;
920.1000;0.4754;-3.3870;
920.4000;0.4689;-3.3945;
920.7000;0.4762;-3.3820;
921.0000;0.4681;-3.4094;
921.3000;0.4762;-3.3970;
921.6000;0.4737;-3.3994;
921.9000;0.4721;-3.4019;
922.2000;0.4778;-3.3820;
922.5000;0.4746;-3.3895;
922.8000;0.4803;-3.3746;
923.1000;0.4762;-3.3870;
923.4000;0.4778;-3.3796;
923.7000;0.4770;-3.3771;
924.0000;0.4778;-3.3796;
924.3000;0.4762;-3.3796;
924.6000;0.4762;-3.3895;
924.9000;0.4762;-3.3870;
925.2000;0.4786;-3.3796;
925.5000;0.4770;-3.3796;
925.8000;0.4770;-3.3870;
926.1000;0.4713;-3.3994;
926.4000;0.4762;-3.3870;
926.7000;0.4762;-3.3920;
927.0000;0.4762;-3.3945;
927.3000;0.4746;-3.3920;
927.6000;0.4754;-3.3920;
927.9000;0.4762;-3.3845;
928.2000;0.4762;-3.3870;
928.5000;0.4778;-3.3796;
928.8000;0.4721;-3.3994;
929.1000;0.4697;-3.3994;
929.4000;0.4770;-3.3870;
929.7000;0.4794;-3.3870;
930.0000;0.4786;-3.3820;
930.3000;0.4721;-3.3945;
930.6000;0.4746;-3.3820;
930.9000;0.4721;-3.3895;
931.2000;0.4754;-3.3945;
931.5000;0.4746;-3.4069;
931.8000;0.4754;-3.3970;
932.1000;0.4762;-3.3895;
932.4000;0.4778;-3.3796;
932.7000;0.4762;-3.3845;
933.0000;0.4754;-3.3970;
933.3000;0.4754;-3.3970;
933.6000;0.4737;-3.4044;
933.9000;0.4754;-3.4069;
934.2000;0.4746;-3.4044;
934.5000;0.4729;-3.3970;
934.8000;0.4737;-3.3945;
935.1000;0.4705;-3.4044;
935.4000;0.4737;-3.4044;
935.7000;0.4762;-3.3994;
936.0000;0.4770;-3.4044;
936.3000;0.4770;-3.4119;
936.6000;0.4835;-3.3945;
936.9000;0.4746;-3.4119;
937.2000;0.4762;-3.4069;
937.5000;0.4721;-3.4169;
937.8000;0.4729;-3.4094;
938.1000;0.4721;-3.4144;
938.4000;0.4737;-3.4144;
938.7000;0.4729;-3.4169;
939.0000;0.4754;-3.4019;
939.3000;0.4770;-3.4069;
939.6000;0.4737;-3.4119;
939.9000;0.4737;-3.4119;
940.2000;0.4746;-3.4169;
940.5000;0.4754;-3.4193;
940.8000;0.4754;-3.4144;
941.1000;0.4754;-3.3994;
941.4000;0.4754;-3.3945;
941.7000;0.4737;-3.3920;
942.0000;0.4762;-3.3920;
942.3000;0.4819;-3.3771;
942.6000;0.4762;-3.3920;
942.9000;0.4754;-3.3920;
943.2000;0.4713;-3.3994;
943.5000;0.4762;-3.3870;
943.8000;0.4737;-3.3895;
944.1000;0.4754;-3.3771;
944.4000;0.4729;-3.3870;
944.7000;0.4762;-3.3820;
945.0000;0.4713;-3.3970;
945.3000;0.4737;-3.4019;
945.6000;0.4737;-3.3970;
945.9000;0.4737;-3.3970;
946.2000;0.4729;-3.3920;
946.5000;0.4754;-3.3945;
946.8000;0.4754;-3.3920;
947.1000;0.4754;-3.3845;
947.4000;0.4762;-3.3845;
947.7000;0.4762;-3.3870;
948.0000;0.4729;-3.3920;
948.3000;0.4754;-3.3796;
948.6000;0.4762;-3.3696;
948.9000;0.4737;-3.3696;
949.2000;0.4770;-3.3696;
949.5000;0.4762;-3.3870;
949.8000;0.4762;-3.3994;
950.1000;0.4705;-3.4268;
950.4000;0.4754;-3.4144;
950.7000;0.4762;-3.4169;
951.0000;0.4656;-3.4293;
951.3000;0.4746;-3.4094;
951.6000;0.4762;-3.4019;
951.9000;0.4754;-3.3920;
952.2000;0.4762;-3.3820;
952.5000;0.4713;-3.3895;
952.8000;0.4754;-3.3895;
953.1000;0.4721;-3.4069;
953.4000;0.4746;-3.4019;
953.7000;0.4754;-3.4044;
954.0000;0.4778;-3.3945;
954.3000;0.4737;-3.3945;
954.6000;0.4754;-3.3970;
954.9000;0.4786;-3.3895;
955.2000;0.4762;-3.3920;
955.5000;0.4754;-3.3845;
955.8000;0.4778;-3.3945;
956.1000;0.4729;-3.4019;
956.4000;0.4754;-3.3945;
956.7000;0.4746;-3.4019;
957.0000;0.4729;-3.4119;
957.3000;0.4729;-3.4218;
957.6000;0.4754;-3.4193;
957.9000;0.4746;-3.4144;
958.2000;0.4762;-3.4169;
958.5000;0.4746;-3.4119;
958.8000;0.4754;-3.4069;
959.1000;0.4754;-3.3994;
959.4000;0.4737;-3.3970;
959.7000;0.4762;-3.3945;
960.0000;0.4746;-3.3945;
960.3000;0.4729;-3.3945;
960.6000;0.4754;-3.3845;
960.9000;0.4746;-3.3920;
961.2000;0.4746;-3.4019;
961.5000;0.4754;-3.4169;
961.8000;0.4754;-3.4144;
962.1000;0.4737;-3.4119;
962.4000;0.4762;-3.4069;
962.7000;0.4754;-3.4044;
963.0000;0.4746;-3.4069;
963.3000;0.4729;-3.4094;
963.6000;0.4746;-3.4169;
963.9000;0.4729;-3.4218;
964.2000;0.4737;-3.4243;
964.5000;0.4721;-3.4318;
964.8000;0.4737;-3.4218;
965.1000;0.4729;-3.4218;
965.4000;0.4729;-3.4218;
965.7000;0.4721;-3.4193;
966.0000;0.4770;-3.4094;
966.3000;0.4729;-3.4169;
966.6000;0.4746;-3.4094;
966.9000;0.4737;-3.4044;
967.2000;0.4754;-3.4069;
967.5000;0.4721;-3.4169;
967.8000;0.4721;-3.4144;
968.1000;0.4762;-3.4044;
968.4000;0.4746;-3.4019;
968.7000;0.4762;-3.3994;
969.0000;0.4697;-3.4094;
969.3000;0.4754;-3.3945;
969.6000;0.4729;-3.3994;
969.9000;0.4770;-3.4019;
970.2000;0.4737;-3.4193;
970.5000;0.4737;-3.4218;
970.8000;0.4754;-3.4169;
971.1000;0.4770;-3.4169;
971.4000;0.4754;-3.4218;
971.7000;0.4762;-3.4144;
972.0000;0.4648;-3.4417;
972.3000;0.4729;-3.4193;
972.6000;0.4754;-3.4169;
972.9000;0.4705;-3.4193;
973.2000;0.4746;-3.4094;
973.5000;0.4746;-3.4144;
973.8000;0.4737;-3.4218;
974.1000;0.4697;-3.4268;
974.4000;0.4737;-3.4218;
974.7000;0.4762;-3.4119;
975.0000;0.4721;-3.4193;
975.3000;0.4754;-3.3994;
975.6000;0.4737;-3.3994;
975.9000;0.4729;-3.3945;
976.2000;0.4754;-3.3945;
976.5000;0.4754;-3.3895;
976.8000;0.4737;-3.3845;
977.1000;0.4762;-3.3870;
977.4000;0.4746;-3.3870;
977.7000;0.4762;-3.3845;
978.0000;0.4762;-3.3870;
978.3000;0.4762;-3.3870;
978.6000;0.4754;-3.3845;
978.9000;0.4754;-3.3870;
979.2000;0.4762;-3.3920;
979.5000;0.4786;-3.3994;
979.8000;0.4729;-3.4218;
980.1000;0.4762;-3.4119;
980.4000;0.4762;-3.4119;
980.7000;0.4754;-3.4094;
981.0000;0.4721;-3.4193;
981.3000;0.4689;-3.4293;
981.6000;0.4721;-3.4169;
981.9000;0.4754;-3.4069;
982.2000;0.4746;-3.4094;
982.5000;0.4729;-3.4144;
982.8000;0.4746;-3.4069;
983.1000;0.4762;-3.3970;
983.4000;0.4746;-3.3920;
983.7000;0.4746;-3.3994;
984.0000;0.4754;-3.4069;
984.3000;0.4754;-3.4094;
984.6000;0.4729;-3.4169;
984.9000;0.4762;-3.4069;
985.2000;0.4754;-3.4069;
985.5000;0.4803;-3.3895;
985.8000;0.4770;-3.4069;
986.1000;0.4754;-3.4044;
986.4000;0.4746;-3.4044;
986.7000;0.4754;-3.3970;
987.0000;0.4746;-3.4019;
987.3000;0.4754;-3.4044;
987.6000;0.4746;-3.4119;
987.9000;0.4778;-3.4119;
988.2000;0.4762;-3.4169;
988.5000;0.4737;-3.4144;
988.8000;0.4762;-3.4094;
989.1000;0.4754;-3.3994;
989.4000;0.4737;-3.4019;
989.7000;0.4746;-3.3895;
990.0000;0.4762;-3.3796;
990.3000;0.4737;-3.3895;
990.6000;0.4697;-3.3895;
990.9000;0.4705;-3.3970;
991.2000;0.4713;-3.4044;
991.5000;0.4754;-3.3970;
991.8000;0.4737;-3.4094;
992.1000;0.4746;-3.4119;
992.4000;0.4746;-3.4069;
992.7000;0.4721;-3.4094;
993.0000;0.4672;-3.4218;
993.3000;0.4713;-3.4094;
993.6000;0.4762;-3.3994;
993.9000;0.4729;-3.4094;
994.2000;0.4681;-3.4169;
994.5000;0.4746;-3.4069;
994.8000;0.4762;-3.4069;
995.1000;0.4754;-3.4094;
995.4000;0.4737;-3.4243;
995.7000;0.4746;-3.4293;
996.0000;0.4729;-3.4293;
996.3000;0.4754;-3.4293;
996.6000;0.4713;-3.4318;
996.9000;0.4737;-3.4243;
997.2000;0.4729;-3.4193;
997.5000;0.4721;-3.4243;
997.8000;0.4746;-3.4193;
998.1000;0.4689;-3.4218;
998.4000;0.4721;-3.4069;
998.7000;0.4754;-3.4019;
999.0000;0.4754;-3.4019;
999.3000;0.4729;-3.4094;
999.6000;0.4737;-3.4044;
999.9000;0.4746;-3.3970;
1000.2000;0.4754;-3.3895;
1000.5000;0.4721;-3.4044;
1000.8000;0.4754;-3.3945;
1001.1000;0.4786;-3.3870;
1001.4000;0.4762;-3.3895;
1001.7000;0.4762;-3.3920;
1002.0000;0.4746;-3.3920;
1002.3000;0.4746;-3.3945;
1002.6000;0.4754;-3.3945;
1002.9000;0.4746;-3.4019;
1003.2000;0.4737;-3.4094;
1003.5000;0.4754;-3.4019;
1003.8000;0.4729;-3.4044;
1004.1000;0.4746;-3.4044;
1004.4000;0.4754;-3.3920;
1004.7000;0.4737;-3.4044;
1005.0000;0.4754;-3.4019;
1005.3000;0.4754;-3.4019;
1005.6000;0.4648;-3.4193;
1005.9000;0.4746;-3.4019;
1006.2000;0.4811;-3.3945;
1006.5000;0.4754;-3.4094;
1006.8000;0.4762;-3.4094;
1007.1000;0.4705;-3.4193;
1007.4000;0.4713;-3.4218;
1007.7000;0.4754;-3.4119;
1008.0000;0.4754;-3.4169;
1008.3000;0.4746;-3.4193;
1008.6000;0.4762;-3.4144;
1008.9000;0.4729;-3.4119;
1009.2000;0.4754;-3.4044;
1009.5000;0.4754;-3.4019;
1009.8000;0.4754;-3.3994;
1010.1000;0.4754;-3.3970;
1010.4000;0.4737;-3.3994;
1010.7000;0.4778;-3.3820;
1011.0000;0.4746;-3.3845;
1011.3000;0.4729;-3.3920;
1011.6000;0.4737;-3.3970;
1011.9000;0.4746;-3.3994;
1012.2000;0.4746;-3.4044;
1012.5000;0.4737;-3.4094;
1012.8000;0.4737;-3.4169;
1013.1000;0.4737;-3.4243;
1013.4000;0.4713;-3.4268;
1013.7000;0.4737;-3.4144;
1014.0000;0.4754;-3.4019;
1014.3000;0.4754;-3.3920;
1014.6000;0.4762;-3.3945;
1014.9000;0.4737;-3.4069;
1015.2000;0.4754;-3.4044;
1015.5000;0.4746;-3.4069;
1015.8000;0.4729;-3.4169;
1016.1000;0.4762;-3.4119;
1016.4000;0.4664;-3.4318;
1016.7000;0.4746;-3.4144;
1017.0000;0.4754;-3.4069;
1017.3000;0.4754;-3.4094;
1017.6000;0.4803;-3.3920;
1017.9000;0.4737;-3.4094;
1018.2000;0.4770;-3.3970;
1018.5000;0.4754;-3.4044;
1018.8000;0.4762;-3.3970;
1019.1000;0.4778;-3.3945;
1019.4000;0.4746;-3.4019;
1019.7000;0.4754;-3.3895;
1020.0000;0.4713;-3.4019;
1020.3000;0.4746;-3.4019;
1020.6000;0.4737;-3.4094;
1020.9000;0.4754;-3.4094;
1021.2000;0.4737;-3.4193;
1021.5000;0.4754;-3.4119;
1021.8000;0.4737;-3.4169;
1022.1000;0.4721;-3.4094;
1022.4000;0.4746;-3.4044;
1022.7000;0.4737;-3.4044;
1023.0000;0.4721;-3.4044;
1023.3000;0.4746;-3.4069;
1023.6000;0.4762;-3.4069;
1023.9000;0.4729;-3.4119;
1024.2000;0.4746;-3.4069;
1024.5000;0.4746;-3.4069;
1024.8000;0.4754;-3.4069;
1025.1000;0.4770;-3.3994;
1025.4000;0.4762;-3.4094;
1025.7000;0.4819;-3.4069;
1026.0000;0.4689;-3.4392;
1026.3000;0.4729;-3.4218;
1026.6000;0.4713;-3.4293;
1026.9000;0.4754;-3.4318;
1027.2000;0.4746;-3.4293;
1027.5000;0.4746;-3.4218;
1027.8000;0.4746;-3.4218;
1028.1000;0.4721;-3.4218;
1028.4000;0.4737;-3.4193;
1028.7000;0.4746;-3.4218;
1029.0000;0.4737;-3.4218;
1029.3000;0.4754;-3.4243;
1029.6000;0.4746;-3.4218;
1029.9000;0.4762;-3.4193;
1030.2000;0.4762;-3.4193;
1030.5000;0.4713;-3.4318;
1030.8000;0.4754;-3.4119;
1031.1000;0.4697;-3.4193;
1031.4000;0.4770;-3.4019;
1031.7000;0.4754;-3.3945;
1032.0000;0.4737;-3.3945;
1032.3000;0.4754;-3.4019;
1032.6000;0.4762;-3.3945;
1032.9000;0.4737;-3.3970;
1033.2000;0.4786;-3.3945;
1033.5000;0.4762;-3.4094;
1033.8000;0.4762;-3.4094;
1034.1000;0.4754;-3.3945;
1034.4000;0.4754;-3.3970;
1034.7000;0.4770;-3.3970;
1035.0000;0.4746;-3.4019;
1035.3000;0.4754;-3.4044;
1035.6000;0.4705;-3.4243;
1035.9000;0.4762;-3.4119;
1036.2000;0.4746;-3.4069;
1036.5000;0.4721;-3.4193;
1036.8000;0.4746;-3.4144;
1037.1000;0.4746;-3.4193;
1037.4000;0.4729;-3.4268;
1037.7000;0.4819;-3.4069;
1038.0000;0.4754;-3.4193;
1038.3000;0.4770;-3.4094;
1038.6000;0.4737;-3.4144;
1038.9000;0.4754;-3.4169;
1039.2000;0.4778;-3.4044;
1039.5000;0.4737;-3.4044;
1039.8000;0.4746;-3.4069;
1040.1000;0.4762;-3.3920;
1040.4000;0.4737;-3.3994;
1040.7000;0.4754;-3.3920;
1041.0000;0.4713;-3.3920;
1041.3000;0.4737;-3.3895;
1041.6000;0.4762;-3.3970;
1041.9000;0.4786;-3.3945;
1042.2000;0.4778;-3.4044;
1042.5000;0.4762;-3.4069;
1042.8000;0.4754;-3.3994;
1043.1000;0.4737;-3.4044;
1043.4000;0.4746;-3.4019;
1043.7000;0.4746;-3.4019;
1044.0000;0.4762;-3.3945;
1044.3000;0.4754;-3.3994;
1044.6000;0.4754;-3.4069;
1044.9000;0.4778;-3.3994;
1045.2000;0.4746;-3.4144;
1045.5000;0.4737;-3.4218;
1045.8000;0.4762;-3.4119;
1046.1000;0.4754;-3.4144;
1046.4000;0.4762;-3.4119;
1046.7000;0.4737;-3.4119;
1047.0000;0.4746;-3.4069;
1047.3000;0.4737;-3.3994;
1047.6000;0.4737;-3.4019;
1047.9000;0.4746;-3.4044;
1048.2000;0.4754;-3.4044;
1048.5000;0.4754;-3.4094;
1048.8000;0.4754;-3.4019;
1049.1000;0.4746;-3.3994;
1049.4000;0.4746;-3.4044;
1049.7000;0.4762;-3.4019;
1050.0000;0.4746;-3.4069;
1050.3000;0.4721;-3.4218;
1050.6000;0.4737;-3.4144;
1050.9000;0.4672;-3.4293;
1051.2000;0.4770;-3.4069;
1051.5000;0.4737;-3.4169;
1051.8000;0.4697;-3.4293;
1052.1000;0.4754;-3.4044;
1052.4000;0.4778;-3.3994;
1052.7000;0.4746;-3.4119;
1053.0000;0.4762;-3.4169;
1053.3000;0.4762;-3.4218;
1053.6000;0.4762;-3.4268;
1053.9000;0.4737;-3.4268;
1054.2000;0.4697;-3.4343;
1054.5000;0.4762;-3.4218;
1054.8000;0.4746;-3.4218;
1055.1000;0.4770;-3.4193;
1055.4000;0.4746;-3.4193;
1055.7000;0.4729;-3.4144;
1056.0000;0.4746;-3.4044;
1056.3000;0.4754;-3.3994;
1056.6000;0.4721;-3.4019;
1056.9000;0.4754;-3.3920;
1057.2000;0.4689;-3.3994;
1057.5000;0.4746;-3.3870;
1057.8000;0.4746;-3.3870;
1058.1000;0.4729;-3.3945;
1058.4000;0.4705;-3.3920;
1058.7000;0.4737;-3.3845;
1059.0000;0.4746;-3.3870;
1059.3000;0.4770;-3.3870;
1059.6000;0.4754;-3.3970;
1059.9000;0.4746;-3.3945;
1060.2000;0.4754;-3.3945;
1060.5000;0.4689;-3.4119;
1060.8000;0.4762;-3.3994;
1061.1000;0.4746;-3.3994;
1061.4000;0.4729;-3.3895;
1061.7000;0.4729;-3.3721;
1062.0000;0.4770;-3.3646;
1062.3000;0.4729;-3.3746;
1062.6000;0.4713;-3.3820;
1062.9000;0.4746;-3.3845;
1063.2000;0.4729;-3.3870;
1063.5000;0.4754;-3.3895;
1063.8000;0.4672;-3.4243;
1064.1000;0.4737;-3.4069;
1064.4000;0.4770;-3.3994;
1064.7000;0.4746;-3.4044;
1065.0000;0.4713;-3.4069;
1065.3000;0.4689;-3.4144;
1065.6000;0.4721;-3.4019;
1065.9000;0.4713;-3.4019;
1066.2000;0.4746;-3.3895;
1066.5000;0.4737;-3.3994;
1066.8000;0.4754;-3.3920;
1067.1000;0.4770;-3.3895;
1067.4000;0.4746;-3.3970;
1067.7000;0.4737;-3.4044;
1068.0000;0.4754;-3.4019;
1068.3000;0.4729;-3.4044;
1068.6000;0.4737;-3.4119;
1068.9000;0.4729;-3.4169;
1069.2000;0.4746;-3.4218;
1069.5000;0.4729;-3.4293;
1069.8000;0.4762;-3.4169;
1070.1000;0.4803;-3.4094;
1070.4000;0.4754;-3.4144;
1070.7000;0.4737;-3.4193;
1071.0000;0.4746;-3.4193;
1071.3000;0.4737;-3.4069;
1071.6000;0.4746;-3.4044;
1071.9000;0.4754;-3.3870;
1072.2000;0.4746;-3.3796;
1072.5000;0.4729;-3.3845;
1072.8000;0.4737;-3.3920;
1073.1000;0.4762;-3.3945;
1073.4000;0.4746;-3.3945;
1073.7000;0.4729;-3.3970;
1074.0000;0.4746;-3.4019;
1074.3000;0.4762;-3.3945;
1074.6000;0.4803;-3.3796;
1074.9000;0.4746;-3.3945;
1075.2000;0.4729;-3.3970;
1075.5000;0.4762;-3.3870;
1075.8000;0.4762;-3.3895;
1076.1000;0.4729;-3.3920;
1076.4000;0.4754;-3.3870;
1076.7000;0.4746;-3.3870;
1077.0000;0.4729;-3.3771;
1077.3000;0.4737;-3.3746;
1077.6000;0.4754;-3.3746;
1077.9000;0.4737;-3.3771;
1078.2000;0.4803;-3.3497;
1078.5000;0.4770;-3.3572;
1078.8000;0.4737;-3.3671;
1079.1000;0.4762;-3.3621;
1079.4000;0.4770;-3.3522;
1079.7000;0.4762;-3.3621;
1080.0000;0.4737;-3.3721;
1080.3000;0.4762;-3.3721;
1080.6000;0.4762;-3.3845;
1080.9000;0.4762;-3.3870;
1081.2000;0.4762;-3.3870;
1081.5000;0.4762;-3.3920;
1081.8000;0.4754;-3.3895;
1082.1000;0.4746;-3.3920;
1082.4000;0.4754;-3.3820;
1082.7000;0.4770;-3.3796;
1083.0000;0.4851;-3.3572;
1083.3000;0.4737;-3.3796;
1083.6000;0.4754;-3.3870;
1083.9000;0.4754;-3.3845;
1084.2000;0.4746;-3.3796;
1084.5000;0.4721;-3.3845;
1084.8000;0.4737;-3.3895;
1085.1000;0.4746;-3.3970;
1085.4000;0.4721;-3.4119;
1085.7000;0.4754;-3.4044;
1086.0000;0.4754;-3.3945;
1086.3000;0.4737;-3.3895;
1086.6000;0.4754;-3.3945;
1086.9000;0.4729;-3.3994;
1087.2000;0.4746;-3.3970;
1087.5000;0.4746;-3.3845;
1087.8000;0.4770;-3.3796;
1088.1000;0.4754;-3.3820;
1088.4000;0.4746;-3.3820;
1088.7000;0.4737;-3.3820;
1089.0000;0.4770;-3.3820;
1089.3000;0.4746;-3.3845;
1089.6000;0.4762;-3.3746;
1089.9000;0.4794;-3.3696;
1090.2000;0.4721;-3.3945;
1090.5000;0.4721;-3.3895;
1090.8000;0.4737;-3.3845;
1091.1000;0.4770;-3.3696;
1091.4000;0.4729;-3.3845;
1091.7000;0.4713;-3.3870;
1092.0000;0.4746;-3.3721;
1092.3000;0.4737;-3.3796;
1092.6000;0.4746;-3.3721;
1092.9000;0.4762;-3.3721;
1093.2000;0.4762;-3.3696;
1093.5000;0.4754;-3.3721;
1093.8000;0.4754;-3.3771;
1094.1000;0.4754;-3.3845;
1094.4000;0.4737;-3.3845;
1094.7000;0.4746;-3.3796;
1095.0000;0.4762;-3.3771;
1095.3000;0.4729;-3.3746;
1095.6000;0.4762;-3.3696;
1095.9000;0.4778;-3.3621;
1096.2000;0.4754;-3.3671;
1096.5000;0.4737;-3.3771;
1096.8000;0.4737;-3.3746;
1097.1000;0.4737;-3.3771;
1097.4000;0.4762;-3.3771;
1097.7000;0.4754;-3.3771;
1098.0000;0.4762;-3.3796;
1098.3000;0.4786;-3.3771;
1098.6000;0.4737;-3.3920;
1098.9000;0.4729;-3.3994;
1099.2000;0.4778;-3.3845;
1099.5000;0.4754;-3.3895;
1099.8000;0.4762;-3.3870;
1100.1000;0.4737;-3.3870;
1100.4000;0.4770;-3.3845;
1100.7000;0.4762;-3.3820;
1101.0000;0.4754;-3.3845;
1101.3000;0.4737;-3.3845;
1101.6000;0.4746;-3.3845;
1101.9000;0.4770;-3.3820;
1102.2000;0.4786;-3.3746;
1102.5000;0.4737;-3.3895;
1102.8000;0.4746;-3.3870;
1103.1000;0.4754;-3.3845;
1103.4000;0.4754;-3.3870;
1103.7000;0.4762;-3.3870;
1104.0000;0.4754;-3.3920;
1104.3000;0.4746;-3.3895;
1104.6000;0.4762;-3.3820;
1104.9000;0.4754;-3.3820;
1105.2000;0.4737;-3.3870;
1105.5000;0.4754;-3.3870;
1105.8000;0.4746;-3.3796;
1106.1000;0.4729;-3.3796;
1106.4000;0.4713;-3.3920;
1106.7000;0.4746;-3.3945;
1107.0000;0.4762;-3.3845;
1107.3000;0.4770;-3.3820;
1107.6000;0.4754;-3.3796;
1107.9000;0.4746;-3.3945;
1108.2000;0.4746;-3.3994;
1108.5000;0.4778;-3.3920;
1108.8000;0.4860;-3.3646;
1109.1000;0.4746;-3.3945;
1109.4000;0.4746;-3.4019;
1109.7000;0.4786;-3.3970;
1110.0000;0.4762;-3.3994;
1110.3000;0.4746;-3.3970;
1110.6000;0.4713;-3.4094;
1110.9000;0.4729;-3.4119;
1111.2000;0.4746;-3.4069;
1111.5000;0.4778;-3.3994;
1111.8000;0.4746;-3.4069;
1112.1000;0.4770;-3.3994;
1112.4000;0.4746;-3.4144;
1112.7000;0.4737;-3.4144;
1113.0000;0.4746;-3.4044;
1113.3000;0.4762;-3.4019;
1113.6000;0.4754;-3.3945;
1113.9000;0.4754;-3.3994;
1114.2000;0.4746;-3.3970;
1114.5000;0.4754;-3.3870;
1114.8000;0.4737;-3.3870;
1115.1000;0.4713;-3.3945;
1115.4000;0.4729;-3.3895;
1115.7000;0.4786;-3.3771;
1116.0000;0.4737;-3.3845;
1116.3000;0.4762;-3.3870;
1116.6000;0.4746;-3.3895;
1116.9000;0.4729;-3.3870;
1117.2000;0.4754;-3.3920;
1117.5000;0.4746;-3.3895;
1117.8000;0.4737;-3.3920;
1118.1000;0.4794;-3.3771;
1118.4000;0.4754;-3.3820;
1118.7000;0.4754;-3.3870;
1119.0000;0.4729;-3.3895;
1119.3000;0.4737;-3.3845;
1119.6000;0.4729;-3.3820;
1119.9000;0.4746;-3.3820;
1120.2000;0.4746;-3.3820;
1120.5000;0.4762;-3.3746;
1120.8000;0.4778;-3.3721;
1121.1000;0.4754;-3.3796;
1121.4000;0.4746;-3.3870;
1121.7000;0.4762;-3.3845;
1122.0000;0.4770;-3.3771;
1122.3000;0.4754;-3.3721;
1122.6000;0.4754;-3.3771;
1122.9000;0.4746;-3.3796;
1123.2000;0.4770;-3.3845;
1123.5000;0.4754;-3.3870;
1123.8000;0.4754;-3.3820;
1124.1000;0.4697;-3.3845;
1124.4000;0.4827;-3.3597;
1124.7000;0.4746;-3.3845;
1125.0000;0.4713;-3.3920;
1125.3000;0.4746;-3.3945;
1125.6000;0.4754;-3.3970;
1125.9000;0.4746;-3.3994;
1126.2000;0.4737;-3.4094;
1126.5000;0.4721;-3.4144;
1126.8000;0.4746;-3.4069;
1127.1000;0.4746;-3.4094;
1127.4000;0.4762;-3.4019;
1127.7000;0.4737;-3.4193;
1128.0000;0.4762;-3.4144;
1128.3000;0.4794;-3.3994;
1128.6000;0.4746;-3.4119;
1128.9000;0.4737;-3.4144;
1129.2000;0.4713;-3.4044;
1129.5000;0.4729;-3.4069;
1129.8000;0.4770;-3.3970;
1130.1000;0.4762;-3.4069;
1130.4000;0.4737;-3.4044;
1130.7000;0.4754;-3.3920;
1131.0000;0.4746;-3.3945;
1131.3000;0.4737;-3.3994;
1131.6000;0.4721;-3.4094;
1131.9000;0.4754;-3.4094;
1132.2000;0.4737;-3.4069;
1132.5000;0.4737;-3.3994;
1132.8000;0.4713;-3.4094;
1133.1000;0.4746;-3.4019;
1133.4000;0.4737;-3.4044;
1133.7000;0.4681;-3.4268;
1134.0000;0.4737;-3.3994;
1134.3000;0.4746;-3.4019;
1134.6000;0.4770;-3.3920;
1134.9000;0.4794;-3.3895;
1135.2000;0.4754;-3.3920;
1135.5000;0.4746;-3.3945;
1135.8000;0.4721;-3.3994;
1136.1000;0.4770;-3.3970;
1136.4000;0.4762;-3.4144;
1136.7000;0.4746;-3.4144;
1137.0000;0.4754;-3.4044;
1137.3000;0.4762;-3.3994;
1137.6000;0.4737;-3.3994;
1137.9000;0.4746;-3.3920;
1138.2000;0.4762;-3.3845;
1138.5000;0.4794;-3.3796;
1138.8000;0.4746;-3.3895;
1139.1000;0.4754;-3.3796;
1139.4000;0.4713;-3.3820;
1139.7000;0.4746;-3.3721;
1140.0000;0.4697;-3.3870;
1140.3000;0.4778;-3.3671;
1140.6000;0.4713;-3.3796;
1140.9000;0.4770;-3.3696;
1141.2000;0.4746;-3.3696;
1141.5000;0.4656;-3.3895;
1141.8000;0.4762;-3.3696;
1142.1000;0.4746;-3.3796;
1142.4000;0.4729;-3.3870;
1142.7000;0.4762;-3.3771;
1143.0000;0.4754;-3.3671;
1143.3000;0.4754;-3.3621;
1143.6000;0.4762;-3.3597;
1143.9000;0.4778;-3.3671;
1144.2000;0.4754;-3.3746;
1144.5000;0.4737;-3.3820;
1144.8000;0.4754;-3.3771;
1145.1000;0.4754;-3.3796;
1145.4000;0.4762;-3.3870;
1145.7000;0.4746;-3.3970;
1146.0000;0.4672;-3.4119;
1146.3000;0.4754;-3.3895;
1146.6000;0.4746;-3.3945;
1146.9000;0.4705;-3.4144;
1147.2000;0.4762;-3.3994;
1147.5000;0.4746;-3.3945;
1147.8000;0.4746;-3.3845;
1148.1000;0.4705;-3.3994;
1148.4000;0.4721;-3.3895;
1148.7000;0.4762;-3.3796;
1149.0000;0.4746;-3.3771;
1149.3000;0.4737;-3.3771;
1149.6000;0.4811;-3.3646;
1149.9000;0.4737;-3.3820;
1150.2000;0.4754;-3.3845;
1150.5000;0.4754;-3.3771;
1150.8000;0.4729;-3.3870;
1151.1000;0.4770;-3.3820;
1151.4000;0.4713;-3.3895;
1151.7000;0.4754;-3.3746;
1152.0000;0.4778;-3.3621;
1152.3000;0.4754;-3.3646;
1152.6000;0.4778;-3.3646;
1152.9000;0.4746;-3.3621;
1153.2000;0.4746;-3.3621;
1153.5000;0.4754;-3.3572;
1153.8000;0.4746;-3.3646;
1154.1000;0.4754;-3.3671;
1154.4000;0.4729;-3.3771;
1154.7000;0.4737;-3.3870;
1155.0000;0.4737;-3.3771;
1155.3000;0.4729;-3.3796;
1155.6000;0.4713;-3.3845;
1155.9000;0.4746;-3.3721;
1156.2000;0.4729;-3.3771;
1156.5000;0.4729;-3.3820;
1156.8000;0.4754;-3.3796;
1157.1000;0.4746;-3.3820;
1157.4000;0.4729;-3.3845;
1157.7000;0.4746;-3.3820;
1158.0000;0.4762;-3.3696;
1158.3000;0.4737;-3.3796;
1158.6000;0.4746;-3.3721;
1158.9000;0.4697;-3.3845;
1159.2000;0.4754;-3.3771;
1159.5000;0.4713;-3.3870;
1159.8000;0.4770;-3.3820;
1160.1000;0.4746;-3.3721;
1160.4000;0.4754;-3.3696;
1160.7000;0.4737;-3.3796;
1161.0000;0.4746;-3.3646;
1161.3000;0.4729;-3.3696;
1161.6000;0.4803;-3.3572;
1161.9000;0.4746;-3.3771;
1162.2000;0.4721;-3.3895;
1162.5000;0.4754;-3.3845;
1162.8000;0.4754;-3.3895;
1163.1000;0.4754;-3.3845;
1163.4000;0.4754;-3.3895;
1163.7000;0.4762;-3.3820;
1164.0000;0.4778;-3.3820;
1164.3000;0.4762;-3.3845;
1164.6000;0.4713;-3.3994;
1164.9000;0.4754;-3.3920;
1165.2000;0.4746;-3.3945;
1165.5000;0.4729;-3.3845;
1165.8000;0.4737;-3.3820;
1166.1000;0.4770;-3.3721;
1166.4000;0.4770;-3.3696;
1166.7000;0.4721;-3.3696;
1167.0000;0.4713;-3.3796;
1167.3000;0.4778;-3.3696;
1167.6000;0.4746;-3.3721;
1167.9000;0.4786;-3.3497;
1168.2000;0.4754;-3.3572;
1168.5000;0.4754;-3.3721;
1168.8000;0.4754;-3.3671;
1169.1000;0.4754;-3.3696;
1169.4000;0.4737;-3.3696;
1169.7000;0.4746;-3.3696;
1170.0000;0.4762;-3.3771;
1170.3000;0.4754;-3.3895;
1170.6000;0.4737;-3.3970;
1170.9000;0.4754;-3.3945;
1171.2000;0.4811;-3.3845;
1171.5000;0.4746;-3.3970;
1171.8000;0.4721;-3.3994;
1172.1000;0.4729;-3.4069;
1172.4000;0.4762;-3.3945;
1172.7000;0.4754;-3.3796;
1173.0000;0.4770;-3.3696;
1173.3000;0.4729;-3.3771;
1173.6000;0.4754;-3.3671;
1173.9000;0.4762;-3.3646;
1174.2000;0.4746;-3.3771;
1174.5000;0.4754;-3.3721;
1174.8000;0.4754;-3.3646;
1175.1000;0.4754;-3.3572;
1175.4000;0.4754;-3.3621;
1175.7000;0.4762;-3.3621;
1176.0000;0.4746;-3.3721;
1176.3000;0.4746;-3.3671;
1176.6000;0.4746;-3.3721;
1176.9000;0.4746;-3.3721;
1177.2000;0.4811;-3.3597;
1177.5000;0.4746;-3.3845;
1177.8000;0.4746;-3.3820;
1178.1000;0.4713;-3.3845;
1178.4000;0.4681;-3.3945;
1178.7000;0.4705;-3.3945;
1179.0000;0.4721;-3.3870;
1179.3000;0.4737;-3.3945;
1179.6000;0.4762;-3.3845;
1179.9000;0.4729;-3.3870;
1180.2000;0.4729;-3.3895;
1180.5000;0.4786;-3.3696;
1180.8000;0.4729;-3.3696;
1181.1000;0.4737;-3.3721;
1181.4000;0.4746;-3.3746;
1181.7000;0.4737;-3.3845;
1182.0000;0.4721;-3.3920;
1182.3000;0.4697;-3.3970;
1182.6000;0.4754;-3.3920;
1182.9000;0.4746;-3.3870;
1183.2000;0.4729;-3.3945;
1183.5000;0.4794;-3.3721;
1183.8000;0.4746;-3.3796;
1184.1000;0.4746;-3.3771;
1184.4000;0.4713;-3.3771;
1184.7000;0.4746;-3.3721;
1185.0000;0.4754;-3.3721;
1185.3000;0.4754;-3.3696;
1185.6000;0.4843;-3.3398;
1185.9000;0.4794;-3.3547;
1186.2000;0.4754;-3.3621;
1186.5000;0.4713;-3.3845;
1186.8000;0.4762;-3.3646;
1187.1000;0.4664;-3.3920;
1187.4000;0.4713;-3.3796;
1187.7000;0.4770;-3.3771;
1188.0000;0.4737;-3.3895;
1188.3000;0.4746;-3.3895;
1188.6000;0.4762;-3.3920;
1188.9000;0.4746;-3.3994;
1189.2000;0.4729;-3.4069;
1189.5000;0.4721;-3.4119;
1189.8000;0.4729;-3.4044;
1190.1000;0.4729;-3.3994;
1190.4000;0.4770;-3.3994;
1190.7000;0.4737;-3.4094;
1191.0000;0.4746;-3.4169;
1191.3000;0.4713;-3.4268;
1191.6000;0.4762;-3.4243;
1191.9000;0.4770;-3.4193;
1192.2000;0.4746;-3.4243;
1192.5000;0.4737;-3.4293;
1192.8000;0.4746;-3.4243;
1193.1000;0.4762;-3.4169;
1193.4000;0.4746;-3.4144;
1193.7000;0.4746;-3.4169;
1194.0000;0.4762;-3.4094;
1194.3000;0.4754;-3.4094;
1194.6000;0.4737;-3.4144;
1194.9000;0.4786;-3.3994;
1195.2000;0.4737;-3.4044;
1195.5000;0.4746;-3.3970;
1195.8000;0.4705;-3.4119;
1196.1000;0.4746;-3.3945;
1196.4000;0.4754;-3.3920;
1196.7000;0.4754;-3.3945;
1197.0000;0.4729;-3.3945;
1197.3000;0.4746;-3.3920;
1197.6000;0.4746;-3.3970;
1197.9000;0.4737;-3.3994;
1198.2000;0.4754;-3.3945;
1198.5000;0.4754;-3.3920;
1198.8000;0.4754;-3.3945;
1199.1000;0.4754;-3.3970;
1199.4000;0.4746;-3.3970;
1199.7000;0.4770;-3.3870;
1200.0000;0.4737;-3.3870;
1200.3000;0.4737;-3.3771;
1200.6000;0.4713;-3.3845;
1200.9000;0.4746;-3.3771;
1201.2000;0.4746;-3.3746;
1201.5000;0.4754;-3.3696;
1201.8000;0.4681;-3.3820;
1202.1000;0.4729;-3.3696;
1202.4000;0.4729;-3.3746;
1202.7000;0.4705;-3.3845;
1203.0000;0.4737;-3.3771;
1203.3000;0.4746;-3.3845;
1203.6000;0.4729;-3.3845;
1203.9000;0.4672;-3.4019;
1204.2000;0.4746;-3.3845;
1204.5000;0.4754;-3.3796;
1204.8000;0.4729;-3.3920;
1205.1000;0.4746;-3.3895;
1205.4000;0.4754;-3.3870;
1205.7000;0.4786;-3.3746;
1206.0000;0.4705;-3.3970;
1206.3000;0.4754;-3.3820;
1206.6000;0.4705;-3.3870;
1206.9000;0.4746;-3.3820;
1207.2000;0.4721;-3.3820;
1207.5000;0.4762;-3.3771;
1207.8000;0.4754;-3.3696;
1208.1000;0.4770;-3.3696;
1208.4000;0.4754;-3.3746;
1208.7000;0.4746;-3.3671;
1209.0000;0.4746;-3.3746;
1209.3000;0.4770;-3.3721;
1209.6000;0.4762;-3.3820;
1209.9000;0.4762;-3.3845;
1210.2000;0.4754;-3.3870;
1210.5000;0.4697;-3.4044;
1210.8000;0.4754;-3.3920;
1211.1000;0.4729;-3.3945;
1211.4000;0.4754;-3.3994;
1211.7000;0.4746;-3.4069;
1212.0000;0.4746;-3.3994;
1212.3000;0.4746;-3.3945;
1212.6000;0.4713;-3.3970;
1212.9000;0.4729;-3.3945;
1213.2000;0.4737;-3.3920;
1213.5000;0.4729;-3.3845;
1213.8000;0.4729;-3.3870;
1214.1000;0.4737;-3.3845;
1214.4000;0.4721;-3.3920;
1214.7000;0.4746;-3.3845;
1215.0000;0.4746;-3.3796;
1215.3000;0.4713;-3.3845;
1215.6000;0.4746;-3.3771;
1215.9000;0.4762;-3.3845;
1216.2000;0.4754;-3.3920;
1216.5000;0.4746;-3.3945;
1216.8000;0.4746;-3.3970;
1217.1000;0.4746;-3.3920;
1217.4000;0.4729;-3.4019;
1217.7000;0.4737;-3.3970;
1218.0000;0.4737;-3.3920;
1218.3000;0.4754;-3.3994;
1218.6000;0.4729;-3.4019;
1218.9000;0.4737;-3.3920;
1219.2000;0.4729;-3.3870;
1219.5000;0.4746;-3.3796;
1219.8000;0.4746;-3.3820;
1220.1000;0.4746;-3.3820;
1220.4000;0.4729;-3.3920;
1220.7000;0.4754;-3.3945;
1221.0000;0.4770;-3.3945;
1221.3000;0.4705;-3.4144;
1221.6000;0.4697;-3.4193;
1221.9000;0.4737;-3.4044;
1222.2000;0.4737;-3.4044;
1222.5000;0.4746;-3.3970;
1222.8000;0.4770;-3.3920;
1223.1000;0.4729;-3.4019;
1223.4000;0.4729;-3.4094;
1223.7000;0.4721;-3.4094;
1224.0000;0.4737;-3.3994;
1224.3000;0.4729;-3.3994;
1224.6000;0.4721;-3.4069;
1224.9000;0.4737;-3.4019;
1225.2000;0.4746;-3.3945;
1225.5000;0.4737;-3.4019;
1225.8000;0.4746;-3.4044;
1226.1000;0.4746;-3.4069;
1226.4000;0.4770;-3.3945;
1226.7000;0.4778;-3.3920;
1227.0000;0.4737;-3.3945;
1227.3000;0.4754;-3.3895;
1227.6000;0.4746;-3.3920;
1227.9000;0.4746;-3.3970;
1228.2000;0.4794;-3.3820;
1228.5000;0.4737;-3.3994;
1228.8000;0.4786;-3.3820;
1229.1000;0.4754;-3.3945;
1229.4000;0.4754;-3.3970;
1229.7000;0.4713;-3.4069;
1230.0000;0.4762;-3.3945;
1230.3000;0.4746;-3.4019;
1230.6000;0.4737;-3.4119;
1230.9000;0.4737;-3.4019;
1231.2000;0.4762;-3.3920;
1231.5000;0.4762;-3.3845;
1231.8000;0.4778;-3.3721;
1232.1000;0.4762;-3.3870;
1232.4000;0.4746;-3.3920;
1232.7000;0.4737;-3.3895;
1233.0000;0.4770;-3.3845;
1233.3000;0.4754;-3.3895;
1233.6000;0.4803;-3.3721;
1233.9000;0.4754;-3.3796;
1234.2000;0.4770;-3.3820;
1234.5000;0.4754;-3.3945;
1234.8000;0.4754;-3.4069;
1235.1000;0.4729;-3.4144;
1235.4000;0.4754;-3.4044;
1235.7000;0.4754;-3.4019;
1236.0000;0.4737;-3.3945;
1236.3000;0.4729;-3.4019;
1236.6000;0.4770;-3.3895;
1236.9000;0.4729;-3.3945;
1237.2000;0.4729;-3.3994;
1237.5000;0.4721;-3.3994;
1237.8000;0.4729;-3.4019;
1238.1000;0.4746;-3.3845;
1238.4000;0.4754;-3.3820;
1238.7000;0.4746;-3.3746;
1239.0000;0.4754;-3.3721;
1239.3000;0.4754;-3.3671;
1239.6000;0.4746;-3.3671;
1239.9000;0.4746;-3.3721;
1240.2000;0.4754;-3.3746;
1240.5000;0.4737;-3.3721;
1240.8000;0.4721;-3.3771;
1241.1000;0.4729;-3.3870;
1241.4000;0.4729;-3.3945;
1241.7000;0.4737;-3.3994;
1242.0000;0.4729;-3.3994;
1242.3000;0.4786;-3.3920;
1242.6000;0.4721;-3.4044;
1242.9000;0.4746;-3.4044;
1243.2000;0.4754;-3.3970;
1243.5000;0.4737;-3.3945;
1243.8000;0.4762;-3.3920;
1244.1000;0.4754;-3.3970;
1244.4000;0.4737;-3.3920;
1244.7000;0.4754;-3.3945;
1245.0000;0.4746;-3.3870;
1245.3000;0.4729;-3.3920;
1245.6000;0.4762;-3.3895;
1245.9000;0.4762;-3.3771;
1246.2000;0.4746;-3.3820;
1246.5000;0.4729;-3.3820;
1246.8000;0.4746;-3.3796;
1247.1000;0.4754;-3.3820;
1247.4000;0.4762;-3.3970;
1247.7000;0.4721;-3.3994;
1248.0000;0.4737;-3.3920;
1248.3000;0.4721;-3.3970;
1248.6000;0.4746;-3.4019;
1248.9000;0.4746;-3.3970;
1249.2000;0.4737;-3.3970;
1249.5000;0.4746;-3.3945;
1249.8000;0.4746;-3.3895;
1250.1000;0.4737;-3.3845;
1250.4000;0.4737;-3.3870;
1250.7000;0.4729;-3.3945;
1251.0000;0.4762;-3.3895;
1251.3000;0.4737;-3.4019;
1251.6000;0.4778;-3.3970;
1251.9000;0.4729;-3.4169;
1252.2000;0.4754;-3.4069;
1252.5000;0.4762;-3.3994;
1252.8000;0.4689;-3.4169;
1253.1000;0.4737;-3.3920;
1253.4000;0.4737;-3.3945;
1253.7000;0.4729;-3.3945;
1254.0000;0.4729;-3.3970;
1254.3000;0.4729;-3.4019;
1254.6000;0.4770;-3.3920;
1254.9000;0.4713;-3.4119;
1255.2000;0.4746;-3.4069;
1255.5000;0.4746;-3.4019;
1255.8000;0.4754;-3.3994;
1256.1000;0.4689;-3.4019;
1256.4000;0.4746;-3.3895;
1256.7000;0.4843;-3.3671;
1257.0000;0.4705;-3.3945;
1257.3000;0.4729;-3.3870;
1257.6000;0.4762;-3.3820;
1257.9000;0.4754;-3.3796;
1258.2000;0.4729;-3.3820;
1258.5000;0.4737;-3.3771;
1258.8000;0.4746;-3.3796;
1259.1000;0.4721;-3.3870;
1259.4000;0.4664;-3.3994;
1259.7000;0.4786;-3.3621;
1260.0000;0.4737;-3.3696;
1260.3000;0.4746;-3.3621;
1260.6000;0.4754;-3.3621;
1260.9000;0.4754;-3.3621;
1261.2000;0.4827;-3.3447;
1261.5000;0.4737;-3.3771;
1261.8000;0.4746;-3.3746;
1262.1000;0.4729;-3.3895;
1262.4000;0.4721;-3.3895;
1262.7000;0.4778;-3.3796;
1263.0000;0.4754;-3.3895;
1263.3000;0.4697;-3.4044;
1263.6000;0.4729;-3.3895;
1263.9000;0.4729;-3.3895;
1264.2000;0.4754;-3.3845;
1264.5000;0.4754;-3.3820;
1264.8000;0.4737;-3.3895;
1265.1000;0.4729;-3.3994;
1265.4000;0.4746;-3.3945;
1265.7000;0.4754;-3.3945;
1266.0000;0.4721;-3.3970;
1266.3000;0.4746;-3.3945;
1266.6000;0.4737;-3.3895;
1266.9000;0.4811;-3.3721;
1267.2000;0.4721;-3.3870;
1267.5000;0.4737;-3.3820;
1267.8000;0.4737;-3.3895;
1268.1000;0.4729;-3.3845;
1268.4000;0.4746;-3.3771;
1268.7000;0.4729;-3.3696;
1269.0000;0.4737;-3.3746;
1269.3000;0.4729;-3.3820;
1269.6000;0.4713;-3.3945;
1269.9000;0.4737;-3.3920;
1270.2000;0.4737;-3.3920;
1270.5000;0.4729;-3.3970;
1270.8000;0.4754;-3.3945;
1271.1000;0.4729;-3.4019;
1271.4000;0.4746;-3.4019;
1271.7000;0.4737;-3.4044;
1272.0000;0.4737;-3.3970;
1272.3000;0.4737;-3.3920;
1272.6000;0.4721;-3.4019;
1272.9000;0.4746;-3.3994;
1273.2000;0.4746;-3.4044;
1273.5000;0.4737;-3.4094;
1273.8000;0.4762;-3.4069;
1274.1000;0.4746;-3.3970;
1274.4000;0.4737;-3.3994;
1274.7000;0.4746;-3.4069;
1275.0000;0.4729;-3.4144;
1275.3000;0.4737;-3.4094;
1275.6000;0.4713;-3.4144;
1275.9000;0.4754;-3.4019;
1276.2000;0.4729;-3.4094;
1276.5000;0.4729;-3.4094;
1276.8000;0.4737;-3.3994;
1277.1000;0.4770;-3.3870;
1277.4000;0.4746;-3.3870;
1277.7000;0.4778;-3.3671;
1278.0000;0.4746;-3.3820;
1278.3000;0.4786;-3.3796;
1278.6000;0.4746;-3.3895;
1278.9000;0.4746;-3.3920;
1279.2000;0.4737;-3.3920;
1279.5000;0.4737;-3.3895;
1279.8000;0.4770;-3.3870;
1280.1000;0.4851;-3.3671;
1280.4000;0.4794;-3.3771;
1280.7000;0.4746;-3.3845;
1281.0000;0.4737;-3.3920;
1281.3000;0.4762;-3.3845;
1281.6000;0.4754;-3.3895;
1281.9000;0.4746;-3.3895;
1282.2000;0.4656;-3.4044;
1282.5000;0.4737;-3.3845;
1282.8000;0.4762;-3.3895;
1283.1000;0.4737;-3.4019;
1283.4000;0.4697;-3.4144;
1283.7000;0.4754;-3.3920;
1284.0000;0.4721;-3.3945;
1284.3000;0.4737;-3.3895;
1284.6000;0.4737;-3.3870;
1284.9000;0.4754;-3.3820;
1285.2000;0.4746;-3.3870;
1285.5000;0.4762;-3.3845;
1285.8000;0.4754;-3.3796;
1286.1000;0.4811;-3.3671;
1286.4000;0.4737;-3.3895;
1286.7000;0.4737;-3.4019;
1287.0000;0.4737;-3.4019;
1287.3000;0.4754;-3.4044;
1287.6000;0.4729;-3.4044;
1287.9000;0.4746;-3.3970;
1288.2000;0.4746;-3.3970;
1288.5000;0.4737;-3.3970;
1288.8000;0.4729;-3.4069;
1289.1000;0.4681;-3.4268;
1289.4000;0.4721;-3.4119;
1289.7000;0.4721;-3.4119;
1290.0000;0.4737;-3.4094;
1290.3000;0.4762;-3.4069;
1290.6000;0.4754;-3.4193;
1290.9000;0.4737;-3.4243;
1291.2000;0.4762;-3.4218;
1291.5000;0.4754;-3.4144;
1291.8000;0.4746;-3.4169;
1292.1000;0.4754;-3.4169;
1292.4000;0.4737;-3.4094;
1292.7000;0.4746;-3.4094;
1293.0000;0.4721;-3.4044;
1293.3000;0.4754;-3.3970;
1293.6000;0.4737;-3.3945;
1293.9000;0.4746;-3.3870;
1294.2000;0.4754;-3.3945;
1294.5000;0.4729;-3.3920;
1294.8000;0.4721;-3.4019;
1295.1000;0.4729;-3.4044;
1295.4000;0.4729;-3.4019;
1295.7000;0.4729;-3.4069;
1296.0000;0.4762;-3.3970;
1296.3000;0.4737;-3.4044;
1296.6000;0.4746;-3.4019;
1296.9000;0.4713;-3.4044;
1297.2000;0.4754;-3.3945;
1297.5000;0.4746;-3.4019;
1297.8000;0.4713;-3.4069;
1298.1000;0.4754;-3.4094;
1298.4000;0.4762;-3.4044;
1298.7000;0.4746;-3.4044;
1299.0000;0.4737;-3.4144;
1299.3000;0.4737;-3.4069;
1299.6000;0.4762;-3.3994;
1299.9000;0.4778;-3.3994;
1300.2000;0.4737;-3.4094;
1300.5000;0.4746;-3.4144;
1300.8000;0.4729;-3.4169;
1301.1000;0.4729;-3.4144;
1301.4000;0.4778;-3.3870;
1301.7000;0.4721;-3.3895;
1302.0000;0.4746;-3.3945;
1302.3000;0.4746;-3.3845;
1302.6000;0.4762;-3.3820;
1302.9000;0.4762;-3.3870;
1303.2000;0.4770;-3.3870;
1303.5000;0.4794;-3.3721;
1303.8000;0.4762;-3.3771;
1304.1000;0.4754;-3.3845;
1304.4000;0.4721;-3.3895;
1304.7000;0.4754;-3.3845;
1305.0000;0.4770;-3.3796;
1305.3000;0.4729;-3.3820;
1305.6000;0.4754;-3.3746;
1305.9000;0.4746;-3.3696;
1306.2000;0.4754;-3.3646;
1306.5000;0.4729;-3.3671;
1306.8000;0.4737;-3.3597;
1307.1000;0.4737;-3.3597;
1307.4000;0.4746;-3.3621;
1307.7000;0.4746;-3.3746;
1308.0000;0.4737;-3.3820;
1308.3000;0.4754;-3.3895;
1308.6000;0.4746;-3.3970;
1308.9000;0.4729;-3.4044;
1309.2000;0.4746;-3.3994;
1309.5000;0.4754;-3.3970;
1309.8000;0.4762;-3.3970;
1310.1000;0.4746;-3.4069;
1310.4000;0.4754;-3.4044;
1310.7000;0.4754;-3.4019;
1311.0000;0.4746;-3.3994;
1311.3000;0.4737;-3.4044;
1311.6000;0.4737;-3.3994;
1311.9000;0.4705;-3.4094;
1312.2000;0.4737;-3.4069;
1312.5000;0.4754;-3.3920;
1312.8000;0.4729;-3.4019;
1313.1000;0.4729;-3.3994;
1313.4000;0.4746;-3.3920;
1313.7000;0.4737;-3.3870;
1314.0000;0.4754;-3.3796;
1314.3000;0.4746;-3.3746;
1314.6000;0.4754;-3.3721;
1314.9000;0.4762;-3.3721;
1315.2000;0.4770;-3.3746;
1315.5000;0.4754;-3.3870;
1315.8000;0.4746;-3.3895;
1316.1000;0.4754;-3.3870;
1316.4000;0.4737;-3.3845;
1316.7000;0.4737;-3.3771;
1317.0000;0.4746;-3.3796;
1317.3000;0.4729;-3.3920;
1317.6000;0.4729;-3.3920;
1317.9000;0.4754;-3.3845;
1318.2000;0.4746;-3.3895;
1318.5000;0.4737;-3.3945;
1318.8000;0.4778;-3.3820;
1319.1000;0.4754;-3.3870;
1319.4000;0.4737;-3.3945;
1319.7000;0.4754;-3.3895;
1320.0000;0.4754;-3.3870;
1320.3000;0.4754;-3.3796;
1320.6000;0.4778;-3.3597;
1320.9000;0.4754;-3.3621;
1321.2000;0.4746;-3.3671;
1321.5000;0.4737;-3.3721;
1321.8000;0.4770;-3.3646;
1322.1000;0.4754;-3.3696;
1322.4000;0.4729;-3.3696;
1322.7000;0.4664;-3.3895;
1323.0000;0.4746;-3.3746;
1323.3000;0.4737;-3.3746;
1323.6000;0.4737;-3.3671;
1323.9000;0.4827;-3.3522;
1324.2000;0.4746;-3.3696;
1324.5000;0.4737;-3.3572;
1324.8000;0.4729;-3.3572;
1325.1000;0.4746;-3.3621;
1325.4000;0.4762;-3.3671;
1325.7000;0.4754;-3.3721;
1326.0000;0.4664;-3.3920;
1326.3000;0.4754;-3.3796;
1326.6000;0.4729;-3.3845;
1326.9000;0.4737;-3.3771;
1327.2000;0.4754;-3.3820;
1327.5000;0.4754;-3.3746;
1327.8000;0.4762;-3.3721;
1328.1000;0.4754;-3.3671;
1328.4000;0.4762;-3.3646;
1328.7000;0.4770;-3.3621;
1329.0000;0.4737;-3.3721;
1329.3000;0.4746;-3.3721;
1329.6000;0.4705;-3.3845;
1329.9000;0.4737;-3.3746;
1330.2000;0.4746;-3.3820;
1330.5000;0.4746;-3.3696;
1330.8000;0.4746;-3.3696;
1331.1000;0.4648;-3.3945;
1331.4000;0.4786;-3.3621;
1331.7000;0.4721;-3.3796;
1332.0000;0.4754;-3.3696;
1332.3000;0.4754;-3.3671;
1332.6000;0.4737;-3.3646;
1332.9000;0.4754;-3.3572;
1333.2000;0.4754;-3.3472;
1333.5000;0.4729;-3.3522;
1333.8000;0.4746;-3.3621;
1334.1000;0.4746;-3.3746;
1334.4000;0.4705;-3.3895;
1334.7000;0.4737;-3.3771;
1335.0000;0.4713;-3.3895;
1335.3000;0.4754;-3.3870;
1335.6000;0.4729;-3.3895;
1335.9000;0.4721;-3.3870;
1336.2000;0.4746;-3.3845;
1336.5000;0.4754;-3.3771;
1336.8000;0.4770;-3.3796;
1337.1000;0.4746;-3.3746;
1337.4000;0.4754;-3.3646;
1337.7000;0.4746;-3.3696;
1338.0000;0.4737;-3.3820;
1338.3000;0.4721;-3.3920;
1338.6000;0.4754;-3.3895;
1338.9000;0.4754;-3.3845;
1339.2000;0.4729;-3.3920;
1339.5000;0.4746;-3.3945;
1339.8000;0.4762;-3.3895;
1340.1000;0.4762;-3.3895;
1340.4000;0.4737;-3.3970;
1340.7000;0.4746;-3.3970;
1341.0000;0.4762;-3.3945;
1341.3000;0.4737;-3.4044;
1341.6000;0.4803;-3.3970;
1341.9000;0.4729;-3.4169;
1342.2000;0.4746;-3.4069;
1342.5000;0.4746;-3.3970;
1342.8000;0.4803;-3.3820;
1343.1000;0.4721;-3.4019;
1343.4000;0.4729;-3.4019;
1343.7000;0.4754;-3.3895;
1344.0000;0.4770;-3.3796;
1344.3000;0.4746;-3.3696;
1344.6000;0.4729;-3.3721;
1344.9000;0.4737;-3.3721;
1345.2000;0.4754;-3.3597;
1345.5000;0.4729;-3.3696;
1345.8000;0.4786;-3.3572;
1346.1000;0.4746;-3.3696;
1346.4000;0.4778;-3.3547;
1346.7000;0.4737;-3.3597;
1347.0000;0.4737;-3.3696;
1347.3000;0.4721;-3.3820;
1347.6000;0.4705;-3.3970;
1347.9000;0.4762;-3.3796;
1348.2000;0.4762;-3.3771;
1348.5000;0.4754;-3.3696;
1348.8000;0.4713;-3.3796;
1349.1000;0.4746;-3.3671;
1349.4000;0.4729;-3.3771;
1349.7000;0.4737;-3.3721;
1350.0000;0.4770;-3.3646;
1350.3000;0.4737;-3.3746;
1350.6000;0.4705;-3.3895;
1350.9000;0.4762;-3.3820;
1351.2000;0.4713;-3.3945;
1351.5000;0.4794;-3.3721;
1351.8000;0.4754;-3.3820;
1352.1000;0.4737;-3.3796;
1352.4000;0.4729;-3.3845;
1352.7000;0.4762;-3.3820;
1353.0000;0.4729;-3.3820;
1353.3000;0.4737;-3.3870;
1353.6000;0.4697;-3.3970;
1353.9000;0.4729;-3.3820;
1354.2000;0.4746;-3.3771;
1354.5000;0.4746;-3.3845;
1354.8000;0.4754;-3.3920;
1355.1000;0.4746;-3.3845;
1355.4000;0.4746;-3.3796;
1355.7000;0.4721;-3.3945;
1356.0000;0.4754;-3.3870;
1356.3000;0.4681;-3.3970;
1356.6000;0.4770;-3.3845;
1356.9000;0.4746;-3.3920;
1357.2000;0.4746;-3.3920;
1357.5000;0.4737;-3.3820;
1357.8000;0.4705;-3.3895;
1358.1000;0.4746;-3.3746;
1358.4000;0.4746;-3.3671;
1358.7000;0.4737;-3.3771;
1359.0000;0.4746;-3.3820;
1359.3000;0.4770;-3.3746;
1359.6000;0.4729;-3.3796;
1359.9000;0.4762;-3.3746;
1360.2000;0.4737;-3.3721;
1360.5000;0.4737;-3.3696;
1360.8000;0.4737;-3.3721;
1361.1000;0.4729;-3.3845;
1361.4000;0.4737;-3.3796;
1361.7000;0.4746;-3.3721;
1362.0000;0.4648;-3.4044;
1362.3000;0.4786;-3.3696;
1362.6000;0.4737;-3.3820;
1362.9000;0.4737;-3.3820;
1363.2000;0.4729;-3.3796;
1363.5000;0.4754;-3.3746;
1363.8000;0.4737;-3.3721;
1364.1000;0.4705;-3.3870;
1364.4000;0.4762;-3.3721;
1364.7000;0.4754;-3.3771;
1365.0000;0.4746;-3.3746;
1365.3000;0.4737;-3.3646;
1365.6000;0.4754;-3.3646;
1365.9000;0.4746;-3.3696;
1366.2000;0.4835;-3.3422;
1366.5000;0.4746;-3.3696;
1366.8000;0.4729;-3.3696;
1367.1000;0.4746;-3.3746;
1367.4000;0.4754;-3.3721;
1367.7000;0.4762;-3.3646;
1368.0000;0.4729;-3.3721;
1368.3000;0.4729;-3.3721;
1368.6000;0.4713;-3.3771;
1368.9000;0.4746;-3.3621;
1369.2000;0.4754;-3.3547;
1369.5000;0.4754;-3.3522;
1369.8000;0.4778;-3.3597;
1370.1000;0.4803;-3.3522;
1370.4000;0.4737;-3.3646;
1370.7000;0.4737;-3.3646;
1371.0000;0.4746;-3.3671;
1371.3000;0.4762;-3.3621;
1371.6000;0.4729;-3.3696;
1371.9000;0.4721;-3.3820;
1372.2000;0.4737;-3.3845;
1372.5000;0.4729;-3.3870;
1372.8000;0.4746;-3.3796;
1373.1000;0.4762;-3.3820;
1373.4000;0.4705;-3.4019;
1373.7000;0.4762;-3.3870;
1374.0000;0.4762;-3.3796;
1374.3000;0.4762;-3.3746;
1374.6000;0.4835;-3.3497;
1374.9000;0.4762;-3.3721;
1375.2000;0.4803;-3.3696;
1375.5000;0.4737;-3.3920;
1375.8000;0.4746;-3.3746;
1376.1000;0.4672;-3.3970;
1376.4000;0.4754;-3.3771;
1376.7000;0.4729;-3.3845;
1377.0000;0.4729;-3.3796;
1377.3000;0.4713;-3.3771;
1377.6000;0.4697;-3.3870;
1377.9000;0.4754;-3.3771;
1378.2000;0.4746;-3.3696;
1378.5000;0.4827;-3.3621;
1378.8000;0.4737;-3.3845;
1379.1000;0.4737;-3.3796;
1379.4000;0.4762;-3.3746;
1379.7000;0.4754;-3.3721;
1380.0000;0.4705;-3.3721;
1380.3000;0.4762;-3.3572;
1380.6000;0.4746;-3.3621;
1380.9000;0.4737;-3.3746;
1381.2000;0.4729;-3.3796;
1381.5000;0.4648;-3.4019;
1381.8000;0.4737;-3.3746;
1382.1000;0.4754;-3.3746;
1382.4000;0.4746;-3.3721;
1382.7000;0.4737;-3.3696;
1383.0000;0.4721;-3.3771;
1383.3000;0.4778;-3.3671;
1383.6000;0.4794;-3.3597;
1383.9000;0.4762;-3.3796;
1384.2000;0.4778;-3.3746;
1384.5000;0.4754;-3.3771;
1384.8000;0.4746;-3.3771;
1385.1000;0.4729;-3.3895;
1385.4000;0.4762;-3.3820;
1385.7000;0.4746;-3.3920;
1386.0000;0.4794;-3.3746;
1386.3000;0.4737;-3.3845;
1386.6000;0.4721;-3.3945;
1386.9000;0.4746;-3.3920;
1387.2000;0.4729;-3.3895;
1387.5000;0.4729;-3.3895;
1387.8000;0.4762;-3.3820;
1388.1000;0.4721;-3.3870;
1388.4000;0.4746;-3.3845;
1388.7000;0.4737;-3.3870;
1389.0000;0.4746;-3.3845;
1389.3000;0.4713;-3.3845;
1389.6000;0.4721;-3.3696;
1389.9000;0.4713;-3.3746;
1390.2000;0.4754;-3.3597;
1390.5000;0.4754;-3.3671;
1390.8000;0.4705;-3.3820;
1391.1000;0.4721;-3.3771;
1391.4000;0.4762;-3.3820;
1391.7000;0.4729;-3.3920;
1392.0000;0.4803;-3.3771;
1392.3000;0.4729;-3.3970;
1392.6000;0.4827;-3.3696;
1392.9000;0.4746;-3.3945;
1393.2000;0.4737;-3.3945;
1393.5000;0.4746;-3.3970;
1393.8000;0.4729;-3.3994;
1394.1000;0.4770;-3.3870;
1394.4000;0.4746;-3.3970;
1394.7000;0.4737;-3.4019;
1395.0000;0.4754;-3.3945;
1395.3000;0.4770;-3.3895;
1395.6000;0.4762;-3.3970;
1395.9000;0.4729;-3.3994;
1396.2000;0.4762;-3.3970;
1396.5000;0.4746;-3.3945;
1396.8000;0.4729;-3.3895;
1397.1000;0.4746;-3.3970;
1397.4000;0.4754;-3.3970;
1397.7000;0.4746;-3.3994;
1398.0000;0.4721;-3.3945;
1398.3000;0.4689;-3.4019;
1398.6000;0.4762;-3.3870;
1398.9000;0.4754;-3.3845;
1399.2000;0.4689;-3.4019;
1399.5000;0.4754;-3.3845;
1399.8000;0.4729;-3.3771;
