time/ms;Fluo/V;P700 deltaI/I x10³;
-199.8000;0.6569;-3.3049;
-199.5000;0.6577;-3.3025;
-199.2000;0.6577;-3.2925;
-198.9000;0.6577;-3.2925;
-198.6000;0.6553;-3.2875;
-198.3000;0.6561;-3.2776;
-198.0000;0.6561;-3.2801;
-197.7000;0.6561;-3.2875;
-197.4000;0.6569;-3.2900;
-197.1000;0.6553;-3.2925;
-196.8000;0.6569;-3.2925;
-196.5000;0.6569;-3.2925;
-196.2000;0.6561;-3.2925;
-195.9000;0.6577;-3.2851;
-195.6000;0.6569;-3.2875;
-195.3000;0.6577;-3.2925;
-195.0000;0.6553;-3.2875;
-194.7000;0.6561;-3.2826;
-194.4000;0.6561;-3.2851;
-194.1000;0.6577;-3.2801;
-193.8000;0.6545;-3.2925;
-193.5000;0.6577;-3.2925;
-193.2000;0.6642;-3.2751;
-192.9000;0.6585;-3.2851;
-192.6000;0.6561;-3.2875;
-192.3000;0.6569;-3.2851;
-192.0000;0.6585;-3.2826;
-191.7000;0.6585;-3.2875;
-191.4000;0.6577;-3.2851;
-191.1000;0.6569;-3.2826;
-190.8000;0.6610;-3.2776;
-190.5000;0.6569;-3.2826;
-190.2000;0.6577;-3.2851;
-189.9000;0.6593;-3.2875;
-189.6000;0.6577;-3.2875;
-189.3000;0.6642;-3.2701;
-189.0000;0.6585;-3.2875;
-188.7000;0.6577;-3.2975;
-188.4000;0.6650;-3.2751;
-188.1000;0.6561;-3.2975;
-187.8000;0.6577;-3.2900;
-187.5000;0.6496;-3.3124;
-187.2000;0.6577;-3.2851;
-186.9000;0.6561;-3.2801;
-186.6000;0.6569;-3.2826;
-186.3000;0.6528;-3.2851;
-186.0000;0.6577;-3.2726;
-185.7000;0.6561;-3.2826;
-185.4000;0.6569;-3.2751;
-185.1000;0.6585;-3.2751;
-184.8000;0.6569;-3.2776;
-184.5000;0.6593;-3.2676;
-184.2000;0.6561;-3.2676;
-183.9000;0.6545;-3.2701;
-183.6000;0.6577;-3.2627;
-183.3000;0.6553;-3.2602;
-183.0000;0.6553;-3.2602;
-182.7000;0.6577;-3.2453;
-182.4000;0.6561;-3.2502;
-182.1000;0.6569;-3.2627;
-181.8000;0.6561;-3.2627;
-181.5000;0.6569;-3.2602;
-181.2000;0.6569;-3.2602;
-180.9000;0.6553;-3.2652;
-180.6000;0.6561;-3.2676;
-180.3000;0.6561;-3.2676;
-180.0000;0.6577;-3.2726;
-179.7000;0.6528;-3.2925;
-179.4000;0.6569;-3.2900;
-179.1000;0.6553;-3.3000;
-178.8000;0.6553;-3.2975;
-178.5000;0.6577;-3.2875;
-178.2000;0.6610;-3.2751;
-177.9000;0.6618;-3.2726;
-177.6000;0.6561;-3.2801;
-177.3000;0.6569;-3.2751;
-177.0000;0.6545;-3.2751;
-176.7000;0.6553;-3.2776;
-176.4000;0.6536;-3.2900;
-176.1000;0.6545;-3.2975;
-175.8000;0.6569;-3.2851;
-175.5000;0.6577;-3.2875;
-175.2000;0.6553;-3.3025;
-174.9000;0.6545;-3.3000;
-174.6000;0.6553;-3.2950;
-174.3000;0.6545;-3.2975;
-174.0000;0.6553;-3.2950;
-173.7000;0.6561;-3.2900;
-173.4000;0.6561;-3.2875;
-173.1000;0.6569;-3.2875;
-172.8000;0.6561;-3.2875;
-172.5000;0.6545;-3.2851;
-172.2000;0.6569;-3.2776;
-171.9000;0.6569;-3.2851;
-171.6000;0.6659;-3.2751;
-171.3000;0.6545;-3.3124;
-171.0000;0.6553;-3.3149;
-170.7000;0.6577;-3.3124;
-170.4000;0.6561;-3.3099;
-170.1000;0.6569;-3.3049;
-169.8000;0.6553;-3.3000;
-169.5000;0.6536;-3.3000;
-169.2000;0.6585;-3.2950;
-168.9000;0.6553;-3.2975;
-168.6000;0.6569;-3.2975;
-168.3000;0.6536;-3.3025;
-168.0000;0.6577;-3.2975;
-167.7000;0.6553;-3.3025;
-167.4000;0.6569;-3.2950;
-167.1000;0.6569;-3.2950;
-166.8000;0.6512;-3.3000;
-166.5000;0.6593;-3.2900;
-166.2000;0.6569;-3.3025;
-165.9000;0.6561;-3.2950;
-165.6000;0.6561;-3.2950;
-165.3000;0.6512;-3.3025;
-165.0000;0.6569;-3.2900;
-164.7000;0.6545;-3.3000;
-164.4000;0.6569;-3.3000;
-164.1000;0.6561;-3.3000;
-163.8000;0.6553;-3.3124;
-163.5000;0.6569;-3.3074;
-163.2000;0.6512;-3.3099;
-162.9000;0.6553;-3.2950;
-162.6000;0.6561;-3.2950;
-162.3000;0.6528;-3.2975;
-162.0000;0.6545;-3.2826;
-161.7000;0.6561;-3.2875;
-161.4000;0.6496;-3.3074;
-161.1000;0.6577;-3.2950;
-160.8000;0.6561;-3.2950;
-160.5000;0.6561;-3.2875;
-160.2000;0.6561;-3.2851;
-159.9000;0.6577;-3.2826;
-159.6000;0.6561;-3.2900;
-159.3000;0.6577;-3.2875;
-159.0000;0.6545;-3.2975;
-158.7000;0.6561;-3.2900;
-158.4000;0.6569;-3.2851;
-158.1000;0.6569;-3.2826;
-157.8000;0.6569;-3.2851;
-157.5000;0.6585;-3.2851;
-157.2000;0.6577;-3.2950;
-156.9000;0.6577;-3.2900;
-156.6000;0.6577;-3.2975;
-156.3000;0.6569;-3.2950;
-156.0000;0.6585;-3.2925;
-155.7000;0.6561;-3.3000;
-155.4000;0.6561;-3.2975;
-155.1000;0.6585;-3.2950;
-154.8000;0.6569;-3.2875;
-154.5000;0.6561;-3.2751;
-154.2000;0.6561;-3.2776;
-153.9000;0.6479;-3.2975;
-153.6000;0.6585;-3.2652;
-153.3000;0.6634;-3.2552;
-153.0000;0.6569;-3.2701;
-152.7000;0.6553;-3.2726;
-152.4000;0.6569;-3.2801;
-152.1000;0.6659;-3.2602;
-151.8000;0.6593;-3.2776;
-151.5000;0.6545;-3.2826;
-151.2000;0.6561;-3.2826;
-150.9000;0.6585;-3.2751;
-150.6000;0.6561;-3.2776;
-150.3000;0.6569;-3.2801;
-150.0000;0.6561;-3.2776;
-149.7000;0.6610;-3.2701;
-149.4000;0.6577;-3.2776;
-149.1000;0.6569;-3.2851;
-148.8000;0.6528;-3.2900;
-148.5000;0.6553;-3.2801;
-148.2000;0.6553;-3.2826;
-147.9000;0.6561;-3.2851;
-147.6000;0.6585;-3.2851;
-147.3000;0.6569;-3.2826;
-147.0000;0.6520;-3.2925;
-146.7000;0.6561;-3.2801;
-146.4000;0.6561;-3.2900;
-146.1000;0.6569;-3.2776;
-145.8000;0.6585;-3.2751;
-145.5000;0.6569;-3.2726;
-145.2000;0.6545;-3.2900;
-144.9000;0.6553;-3.2875;
-144.6000;0.6585;-3.2826;
-144.3000;0.6561;-3.2851;
-144.0000;0.6577;-3.2751;
-143.7000;0.6561;-3.2801;
-143.4000;0.6577;-3.2776;
-143.1000;0.6569;-3.2776;
-142.8000;0.6577;-3.2701;
-142.5000;0.6561;-3.2801;
-142.2000;0.6577;-3.2851;
-141.9000;0.6683;-3.2527;
-141.6000;0.6561;-3.2925;
-141.3000;0.6561;-3.2851;
-141.0000;0.6536;-3.2851;
-140.7000;0.6561;-3.2851;
-140.4000;0.6577;-3.2851;
-140.1000;0.6561;-3.2851;
-139.8000;0.6561;-3.2776;
-139.5000;0.6463;-3.3099;
-139.2000;0.6520;-3.3049;
-138.9000;0.6602;-3.2801;
-138.6000;0.6536;-3.3000;
-138.3000;0.6569;-3.3000;
-138.0000;0.6561;-3.3025;
-137.7000;0.6553;-3.3000;
-137.4000;0.6512;-3.3099;
-137.1000;0.6561;-3.2975;
-136.8000;0.6577;-3.2950;
-136.5000;0.6553;-3.3074;
-136.2000;0.6553;-3.3049;
-135.9000;0.6561;-3.3124;
-135.6000;0.6577;-3.3099;
-135.3000;0.6545;-3.3099;
-135.0000;0.6585;-3.2950;
-134.7000;0.6626;-3.2751;
-134.4000;0.6593;-3.2826;
-134.1000;0.6569;-3.2875;
-133.8000;0.6618;-3.2826;
-133.5000;0.6553;-3.2975;
-133.2000;0.6585;-3.2900;
-132.9000;0.6545;-3.2875;
-132.6000;0.6585;-3.2776;
-132.3000;0.6569;-3.2875;
-132.0000;0.6602;-3.2851;
-131.7000;0.6545;-3.2950;
-131.4000;0.6626;-3.2726;
-131.1000;0.6602;-3.2875;
-130.8000;0.6585;-3.2900;
-130.5000;0.6569;-3.2875;
-130.2000;0.6602;-3.2875;
-129.9000;0.6561;-3.3025;
-129.6000;0.6585;-3.2975;
-129.3000;0.6593;-3.2975;
-129.0000;0.6553;-3.3074;
-128.7000;0.6561;-3.3000;
-128.4000;0.6536;-3.3049;
-128.1000;0.6593;-3.2900;
-127.8000;0.6569;-3.2900;
-127.5000;0.6577;-3.2851;
-127.2000;0.6553;-3.2875;
-126.9000;0.6553;-3.2875;
-126.6000;0.6545;-3.2925;
-126.3000;0.6528;-3.2950;
-126.0000;0.6561;-3.2925;
-125.7000;0.6520;-3.3025;
-125.4000;0.6512;-3.3074;
-125.1000;0.6561;-3.3049;
-124.8000;0.6561;-3.2950;
-124.5000;0.6528;-3.2975;
-124.2000;0.6536;-3.3000;
-123.9000;0.6561;-3.3000;
-123.6000;0.6553;-3.3025;
-123.3000;0.6561;-3.3000;
-123.0000;0.6536;-3.3049;
-122.7000;0.6553;-3.3025;
-122.4000;0.6577;-3.3025;
-122.1000;0.6577;-3.3074;
-121.8000;0.6569;-3.3124;
-121.5000;0.6561;-3.3124;
-121.2000;0.6561;-3.3149;
-120.9000;0.6545;-3.3174;
-120.6000;0.6577;-3.3174;
-120.3000;0.6585;-3.3074;
-120.0000;0.6593;-3.2950;
-119.7000;0.6561;-3.2975;
-119.4000;0.6545;-3.3000;
-119.1000;0.6520;-3.3099;
-118.8000;0.6561;-3.3049;
-118.5000;0.6561;-3.3074;
-118.2000;0.6569;-3.3099;
-117.9000;0.6512;-3.3248;
-117.6000;0.6569;-3.3025;
-117.3000;0.6536;-3.3025;
-117.0000;0.6496;-3.3074;
-116.7000;0.6577;-3.2826;
-116.4000;0.6561;-3.2875;
-116.1000;0.6593;-3.2776;
-115.8000;0.6569;-3.2851;
-115.5000;0.6463;-3.3025;
-115.2000;0.6569;-3.2801;
-114.9000;0.6561;-3.2801;
-114.6000;0.6561;-3.2826;
-114.3000;0.6642;-3.2602;
-114.0000;0.6561;-3.2851;
-113.7000;0.6561;-3.2826;
-113.4000;0.6561;-3.2801;
-113.1000;0.6545;-3.2826;
-112.8000;0.6561;-3.2751;
-112.5000;0.6553;-3.2826;
-112.2000;0.6545;-3.2726;
-111.9000;0.6561;-3.2726;
-111.6000;0.6536;-3.2776;
-111.3000;0.6577;-3.2676;
-111.0000;0.6561;-3.2801;
-110.7000;0.6593;-3.2701;
-110.4000;0.6593;-3.2851;
-110.1000;0.6569;-3.3000;
-109.8000;0.6569;-3.3000;
-109.5000;0.6585;-3.2925;
-109.2000;0.6585;-3.2925;
-108.9000;0.6593;-3.2925;
-108.6000;0.6569;-3.2950;
-108.3000;0.6561;-3.2900;
-108.0000;0.6577;-3.2826;
-107.7000;0.6545;-3.2875;
-107.4000;0.6634;-3.2801;
-107.1000;0.6545;-3.2975;
-106.8000;0.6577;-3.2950;
-106.5000;0.6536;-3.3025;
-106.2000;0.6626;-3.2776;
-105.9000;0.6569;-3.2950;
-105.6000;0.6626;-3.2751;
-105.3000;0.6577;-3.2801;
-105.0000;0.6642;-3.2627;
-104.7000;0.6561;-3.2801;
-104.4000;0.6545;-3.2875;
-104.1000;0.6569;-3.2975;
-103.8000;0.6569;-3.2900;
-103.5000;0.6561;-3.2925;
-103.2000;0.6561;-3.2900;
-102.9000;0.6585;-3.2851;
-102.6000;0.6577;-3.2826;
-102.3000;0.6561;-3.2875;
-102.0000;0.6561;-3.2900;
-101.7000;0.6569;-3.2925;
-101.4000;0.6569;-3.2925;
-101.1000;0.6569;-3.2925;
-100.8000;0.6528;-3.2975;
-100.5000;0.6569;-3.2950;
-100.2000;0.6585;-3.2950;
-99.9000;0.6561;-3.3074;
-99.6000;0.6561;-3.3074;
-99.3000;0.6536;-3.3099;
-99.0000;0.6577;-3.2900;
-98.7000;0.6553;-3.2900;
-98.4000;0.6561;-3.2801;
-98.1000;0.6553;-3.2900;
-97.8000;0.6569;-3.2975;
-97.5000;0.6593;-3.2900;
-97.2000;0.6561;-3.2900;
-96.9000;0.6569;-3.2826;
-96.6000;0.6520;-3.2925;
-96.3000;0.6561;-3.3025;
-96.0000;0.6561;-3.3025;
-95.7000;0.6561;-3.2975;
-95.4000;0.6642;-3.2751;
-95.1000;0.6577;-3.2826;
-94.8000;0.6569;-3.2925;
-94.5000;0.6585;-3.2875;
-94.2000;0.6553;-3.2925;
-93.9000;0.6545;-3.2925;
-93.6000;0.6577;-3.2925;
-93.3000;0.6561;-3.2900;
-93.0000;0.6577;-3.2900;
-92.7000;0.6561;-3.2875;
-92.4000;0.6536;-3.2975;
-92.1000;0.6585;-3.2975;
-91.8000;0.6561;-3.2975;
-91.5000;0.6569;-3.3049;
-91.2000;0.6561;-3.3074;
-90.9000;0.6569;-3.3000;
-90.6000;0.6545;-3.3099;
-90.3000;0.6553;-3.3025;
-90.0000;0.6553;-3.3074;
-89.7000;0.6561;-3.3174;
-89.4000;0.6553;-3.3224;
-89.1000;0.6545;-3.3199;
-88.8000;0.6553;-3.3049;
-88.5000;0.6569;-3.2975;
-88.2000;0.6593;-3.2900;
-87.9000;0.6585;-3.2851;
-87.6000;0.6585;-3.2776;
-87.3000;0.6553;-3.2875;
-87.0000;0.6569;-3.2826;
-86.7000;0.6618;-3.2925;
-86.4000;0.6569;-3.3099;
-86.1000;0.6569;-3.3124;
-85.8000;0.6569;-3.3099;
-85.5000;0.6585;-3.2925;
-85.2000;0.6553;-3.3049;
-84.9000;0.6577;-3.3099;
-84.6000;0.6618;-3.2925;
-84.3000;0.6569;-3.3074;
-84.0000;0.6561;-3.3099;
-83.7000;0.6536;-3.3199;
-83.4000;0.6553;-3.3099;
-83.1000;0.6585;-3.3049;
-82.8000;0.6569;-3.2975;
-82.5000;0.6569;-3.3025;
-82.2000;0.6528;-3.3149;
-81.9000;0.6569;-3.3074;
-81.6000;0.6561;-3.3049;
-81.3000;0.6545;-3.3124;
-81.0000;0.6528;-3.3174;
-80.7000;0.6569;-3.3074;
-80.4000;0.6569;-3.3174;
-80.1000;0.6569;-3.3273;
-79.8000;0.6545;-3.3422;
-79.5000;0.6577;-3.3273;
-79.2000;0.6569;-3.3199;
-78.9000;0.6545;-3.3248;
-78.6000;0.6561;-3.3199;
-78.3000;0.6569;-3.3149;
-78.0000;0.6553;-3.3099;
-77.7000;0.6536;-3.3149;
-77.4000;0.6577;-3.3099;
-77.1000;0.6569;-3.3174;
-76.8000;0.6553;-3.3273;
-76.5000;0.6593;-3.3149;
-76.2000;0.6561;-3.3199;
-75.9000;0.6577;-3.3124;
-75.6000;0.6569;-3.3174;
-75.3000;0.6577;-3.3049;
-75.0000;0.6569;-3.3099;
-74.7000;0.6569;-3.3124;
-74.4000;0.6569;-3.3124;
-74.1000;0.6561;-3.3124;
-73.8000;0.6585;-3.3149;
-73.5000;0.6545;-3.3074;
-73.2000;0.6569;-3.3000;
-72.9000;0.6577;-3.2900;
-72.6000;0.6602;-3.2751;
-72.3000;0.6585;-3.2751;
-72.0000;0.6561;-3.2776;
-71.7000;0.6561;-3.2851;
-71.4000;0.6545;-3.2950;
-71.1000;0.6585;-3.2776;
-70.8000;0.6577;-3.2875;
-70.5000;0.6577;-3.2875;
-70.2000;0.6569;-3.2950;
-69.9000;0.6569;-3.2900;
-69.6000;0.6496;-3.3099;
-69.3000;0.6561;-3.3000;
-69.0000;0.6593;-3.2925;
-68.7000;0.6561;-3.3099;
-68.4000;0.6610;-3.2900;
-68.1000;0.6545;-3.3000;
-67.8000;0.6569;-3.2975;
-67.5000;0.6569;-3.2925;
-67.2000;0.6577;-3.2950;
-66.9000;0.6561;-3.3025;
-66.6000;0.6561;-3.3074;
-66.3000;0.6561;-3.3049;
-66.0000;0.6577;-3.3000;
-65.7000;0.6577;-3.2950;
-65.4000;0.6536;-3.3049;
-65.1000;0.6577;-3.2900;
-64.8000;0.6553;-3.3025;
-64.5000;0.6561;-3.3025;
-64.2000;0.6561;-3.2950;
-63.9000;0.6569;-3.2975;
-63.6000;0.6577;-3.2875;
-63.3000;0.6577;-3.2776;
-63.0000;0.6545;-3.2851;
-62.7000;0.6593;-3.2875;
-62.4000;0.6593;-3.2975;
-62.1000;0.6569;-3.3074;
-61.8000;0.6569;-3.3000;
-61.5000;0.6569;-3.3049;
-61.2000;0.6561;-3.3149;
-60.9000;0.6602;-3.3124;
-60.6000;0.6569;-3.3224;
-60.3000;0.6569;-3.3199;
-60.0000;0.6561;-3.3149;
-59.7000;0.6561;-3.3149;
-59.4000;0.6569;-3.3074;
-59.1000;0.6561;-3.3074;
-58.8000;0.6569;-3.3049;
-58.5000;0.6561;-3.3000;
-58.2000;0.6528;-3.3025;
-57.9000;0.6585;-3.3000;
-57.6000;0.6569;-3.3000;
-57.3000;0.6577;-3.3000;
-57.0000;0.6577;-3.2950;
-56.7000;0.6569;-3.3049;
-56.4000;0.6569;-3.3025;
-56.1000;0.6561;-3.3074;
-55.8000;0.6618;-3.2975;
-55.5000;0.6561;-3.3074;
-55.2000;0.6545;-3.3149;
-54.9000;0.6577;-3.3149;
-54.6000;0.6602;-3.3025;
-54.3000;0.6561;-3.3099;
-54.0000;0.6553;-3.3000;
-53.7000;0.6626;-3.2826;
-53.4000;0.6561;-3.3049;
-53.1000;0.6569;-3.3049;
-52.8000;0.6593;-3.2851;
-52.5000;0.6561;-3.2900;
-52.2000;0.6577;-3.2900;
-51.9000;0.6569;-3.2900;
-51.6000;0.6569;-3.2875;
-51.3000;0.6577;-3.2751;
-51.0000;0.6602;-3.2751;
-50.7000;0.6569;-3.2851;
-50.4000;0.6577;-3.2826;
-50.1000;0.6561;-3.2875;
-49.8000;0.6545;-3.3025;
-49.5000;0.6577;-3.2900;
-49.2000;0.6569;-3.3025;
-48.9000;0.6553;-3.3074;
-48.6000;0.6536;-3.3049;
-48.3000;0.6569;-3.2975;
-48.0000;0.6602;-3.2826;
-47.7000;0.6569;-3.2851;
-47.4000;0.6545;-3.3000;
-47.1000;0.6545;-3.3025;
-46.8000;0.6463;-3.3174;
-46.5000;0.6553;-3.2950;
-46.2000;0.6545;-3.2975;
-45.9000;0.6520;-3.3025;
-45.6000;0.6553;-3.2950;
-45.3000;0.6545;-3.2975;
-45.0000;0.6553;-3.2851;
-44.7000;0.6545;-3.2875;
-44.4000;0.6496;-3.3074;
-44.1000;0.6553;-3.3049;
-43.8000;0.6561;-3.3000;
-43.5000;0.6569;-3.2975;
-43.2000;0.6569;-3.3025;
-42.9000;0.6553;-3.3049;
-42.6000;0.6577;-3.2925;
-42.3000;0.6561;-3.2925;
-42.0000;0.6553;-3.2900;
-41.7000;0.6577;-3.2900;
-41.4000;0.6577;-3.2925;
-41.1000;0.6602;-3.2826;
-40.8000;0.6553;-3.2900;
-40.5000;0.6561;-3.2751;
-40.2000;0.6585;-3.2701;
-39.9000;0.6585;-3.2801;
-39.6000;0.6561;-3.2776;
-39.3000;0.6569;-3.2826;
-39.0000;0.6593;-3.2801;
-38.7000;0.6577;-3.2801;
-38.4000;0.6569;-3.2776;
-38.1000;0.6577;-3.2726;
-37.8000;0.6585;-3.2726;
-37.5000;0.6577;-3.2851;
-37.2000;0.6569;-3.2851;
-36.9000;0.6561;-3.2851;
-36.6000;0.6512;-3.3049;
-36.3000;0.6553;-3.2851;
-36.0000;0.6577;-3.2851;
-35.7000;0.6488;-3.3199;
-35.4000;0.6577;-3.2975;
-35.1000;0.6569;-3.3074;
-34.8000;0.6585;-3.3099;
-34.5000;0.6577;-3.3124;
-34.2000;0.6439;-3.3398;
-33.9000;0.6569;-3.3124;
-33.6000;0.6553;-3.3124;
-33.3000;0.6569;-3.3049;
-33.0000;0.6577;-3.3049;
-32.7000;0.6561;-3.3149;
-32.4000;0.6569;-3.2950;
-32.1000;0.6585;-3.2826;
-31.8000;0.6553;-3.2925;
-31.5000;0.6553;-3.2975;
-31.2000;0.6569;-3.2875;
-30.9000;0.6553;-3.2950;
-30.6000;0.6569;-3.2925;
-30.3000;0.6553;-3.2950;
-30.0000;0.6479;-3.3099;
-29.7000;0.6553;-3.2925;
-29.4000;0.6553;-3.3074;
-29.1000;0.6553;-3.3099;
-28.8000;0.6553;-3.3025;
-28.5000;0.6577;-3.2975;
-28.2000;0.6569;-3.2975;
-27.9000;0.6577;-3.3099;
-27.6000;0.6569;-3.3049;
-27.3000;0.6561;-3.3099;
-27.0000;0.6536;-3.3149;
-26.7000;0.6569;-3.3099;
-26.4000;0.6569;-3.3199;
-26.1000;0.6561;-3.3174;
-25.8000;0.6561;-3.3124;
-25.5000;0.6553;-3.3025;
-25.2000;0.6553;-3.3049;
-24.9000;0.6536;-3.3099;
-24.6000;0.6545;-3.3124;
-24.3000;0.6545;-3.3199;
-24.0000;0.6577;-3.3149;
-23.7000;0.6545;-3.3124;
-23.4000;0.6569;-3.3025;
-23.1000;0.6553;-3.3074;
-22.8000;0.6634;-3.2900;
-22.5000;0.6602;-3.2950;
-22.2000;0.6553;-3.3074;
-21.9000;0.6553;-3.3149;
-21.6000;0.6569;-3.3124;
-21.3000;0.6488;-3.3323;
-21.0000;0.6496;-3.3248;
-20.7000;0.6569;-3.3025;
-20.4000;0.6553;-3.3074;
-20.1000;0.6471;-3.3273;
-19.8000;0.6545;-3.3074;
-19.5000;0.6553;-3.3099;
-19.2000;0.6545;-3.3074;
-18.9000;0.6536;-3.3074;
-18.6000;0.6569;-3.2975;
-18.3000;0.6553;-3.3000;
-18.0000;0.6553;-3.2950;
-17.7000;0.6561;-3.3000;
-17.4000;0.6553;-3.3174;
-17.1000;0.6593;-3.3074;
-16.8000;0.6569;-3.3099;
-16.5000;0.6585;-3.3025;
-16.2000;0.6569;-3.3074;
-15.9000;0.6610;-3.2875;
-15.6000;0.6577;-3.2950;
-15.3000;0.6602;-3.2975;
-15.0000;0.6577;-3.3000;
-14.7000;0.6479;-3.3199;
-14.4000;0.6561;-3.3025;
-14.1000;0.6569;-3.3049;
-13.8000;0.6553;-3.3099;
-13.5000;0.6561;-3.3124;
-13.2000;0.6545;-3.3099;
-12.9000;0.6561;-3.3174;
-12.6000;0.6553;-3.3224;
-12.3000;0.6569;-3.3174;
-12.0000;0.6561;-3.3199;
-11.7000;0.6561;-3.3174;
-11.4000;0.6569;-3.3099;
-11.1000;0.6577;-3.3049;
-10.8000;0.6561;-3.2925;
-10.5000;0.6553;-3.2900;
-10.2000;0.6553;-3.2875;
-9.9000;0.6585;-3.2801;
-9.6000;0.6561;-3.2826;
-9.3000;0.6545;-3.2900;
-9.0000;0.6561;-3.2900;
-8.7000;0.6569;-3.2826;
-8.4000;0.6553;-3.2776;
-8.1000;0.6585;-3.2751;
-7.8000;0.6528;-3.2950;
-7.5000;0.6561;-3.2925;
-7.2000;0.6536;-3.2975;
-6.9000;0.6553;-3.2875;
-6.6000;0.6561;-3.2925;
-6.3000;0.6569;-3.2900;
-6.0000;0.6553;-3.2925;
-5.7000;0.6553;-3.2925;
-5.4000;0.6569;-3.2975;
-5.1000;0.6561;-3.3000;
-4.8000;0.6577;-3.2975;
-4.5000;0.6569;-3.2925;
-4.2000;0.6569;-3.2900;
-3.9000;0.6553;-3.2925;
-3.6000;0.6553;-3.2975;
-3.3000;0.6577;-3.2950;
-3.0000;0.6577;-3.3000;
-2.7000;0.6593;-3.3025;
-2.4000;0.6577;-3.3049;
-2.1000;0.6626;-3.3000;
-1.8000;0.6512;-3.3174;
-1.5000;0.6569;-3.3000;
-1.2000;0.6561;-3.3000;
-0.9000;0.6593;-3.2900;
-0.6000;0.6585;-3.2950;
-0.3000;0.6593;-3.2975;
0.0000;0.6593;-3.2975;
0.3000;0.6585;-3.3149;
0.6000;0.6618;-3.2900;
0.9000;0.6642;-3.2701;
1.2000;0.6691;-3.2502;
1.5000;0.6675;-3.2403;
1.8000;0.6724;-3.2129;
2.1000;0.6707;-3.1955;
2.4000;0.6716;-3.1831;
2.7000;0.6675;-3.1831;
3.0000;0.6724;-3.1731;
3.3000;0.6756;-3.1533;
3.6000;0.6748;-3.1433;
3.9000;0.6756;-3.1383;
4.2000;0.6748;-3.1383;
4.5000;0.6756;-3.1334;
4.8000;0.6764;-3.1334;
5.1000;0.6740;-3.1383;
5.4000;0.6748;-3.1383;
5.7000;0.6781;-3.1234;
6.0000;0.6716;-3.1334;
6.3000;0.6764;-3.1160;
6.6000;0.6772;-3.1184;
6.9000;0.6781;-3.1184;
7.2000;0.6797;-3.1160;
7.5000;0.6764;-3.1309;
7.8000;0.6805;-3.1160;
8.1000;0.6772;-3.1085;
8.4000;0.6781;-3.1035;
8.7000;0.6789;-3.1035;
9.0000;0.6789;-3.0985;
9.3000;0.6797;-3.0886;
9.6000;0.6781;-3.0911;
9.9000;0.6797;-3.0936;
10.2000;0.6797;-3.0985;
10.5000;0.6870;-3.0786;
10.8000;0.6829;-3.0936;
11.1000;0.6772;-3.1060;
11.4000;0.6764;-3.1110;
11.7000;0.6805;-3.1110;
12.0000;0.6797;-3.1160;
12.3000;0.6756;-3.1209;
12.6000;0.6821;-3.0961;
12.9000;0.6797;-3.0911;
13.2000;0.6797;-3.0911;
13.5000;0.6772;-3.0886;
13.8000;0.6781;-3.0961;
14.1000;0.6772;-3.0961;
14.4000;0.6789;-3.0936;
14.7000;0.6813;-3.0961;
15.0000;0.6854;-3.0911;
15.3000;0.6886;-3.0861;
15.6000;0.6813;-3.1085;
15.9000;0.6797;-3.1135;
16.2000;0.6772;-3.1135;
16.5000;0.6797;-3.1160;
16.8000;0.6789;-3.1085;
17.1000;0.6789;-3.1135;
17.4000;0.6805;-3.1060;
17.7000;0.6821;-3.1110;
18.0000;0.6813;-3.1209;
18.3000;0.6846;-3.1135;
18.6000;0.6821;-3.1234;
18.9000;0.6821;-3.1309;
19.2000;0.6821;-3.1160;
19.5000;0.6797;-3.1184;
19.8000;0.6821;-3.1135;
20.1000;0.6846;-3.1035;
20.4000;0.6821;-3.1035;
20.7000;0.6813;-3.1135;
21.0000;0.6813;-3.1160;
21.3000;0.6805;-3.1184;
21.6000;0.6821;-3.1110;
21.9000;0.6821;-3.1234;
22.2000;0.6821;-3.1284;
22.5000;0.6805;-3.1334;
22.8000;0.6829;-3.1334;
23.1000;0.6829;-3.1358;
23.4000;0.6813;-3.1358;
23.7000;0.6829;-3.1334;
24.0000;0.6813;-3.1234;
24.3000;0.6813;-3.1135;
24.6000;0.6854;-3.1035;
24.9000;0.6813;-3.1160;
25.2000;0.6797;-3.1259;
25.5000;0.6829;-3.1135;
25.8000;0.6797;-3.1209;
26.1000;0.6821;-3.1160;
26.4000;0.6797;-3.1259;
26.7000;0.6797;-3.1358;
27.0000;0.6748;-3.1533;
27.3000;0.6813;-3.1433;
27.6000;0.6797;-3.1433;
27.9000;0.6813;-3.1334;
28.2000;0.6829;-3.1259;
28.5000;0.6813;-3.1234;
28.8000;0.6797;-3.1160;
29.1000;0.6838;-3.1085;
29.4000;0.6829;-3.1160;
29.7000;0.6813;-3.1135;
30.0000;0.6829;-3.1160;
30.3000;0.6838;-3.1209;
30.6000;0.6821;-3.1209;
30.9000;0.6838;-3.1160;
31.2000;0.6813;-3.1234;
31.5000;0.6821;-3.1284;
31.8000;0.6838;-3.1160;
32.1000;0.6838;-3.1209;
32.4000;0.6854;-3.1259;
32.7000;0.6821;-3.1334;
33.0000;0.6846;-3.1234;
33.3000;0.6821;-3.1284;
33.6000;0.6821;-3.1234;
33.9000;0.6813;-3.1259;
34.2000;0.6838;-3.1209;
34.5000;0.6838;-3.1209;
34.8000;0.6805;-3.1209;
35.1000;0.6789;-3.1309;
35.4000;0.6764;-3.1284;
35.7000;0.6805;-3.1184;
36.0000;0.6829;-3.1085;
36.3000;0.6813;-3.1110;
36.6000;0.6838;-3.1035;
36.9000;0.6813;-3.1035;
37.2000;0.6829;-3.1060;
37.5000;0.6813;-3.1135;
37.8000;0.6797;-3.1209;
38.1000;0.6854;-3.1060;
38.4000;0.6838;-3.1110;
38.7000;0.6821;-3.1259;
39.0000;0.6797;-3.1284;
39.3000;0.6854;-3.1209;
39.6000;0.6829;-3.1234;
39.9000;0.6829;-3.1284;
40.2000;0.6829;-3.1309;
40.5000;0.6829;-3.1259;
40.8000;0.6838;-3.1209;
41.1000;0.6838;-3.1234;
41.4000;0.6829;-3.1259;
41.7000;0.6838;-3.1259;
42.0000;0.6789;-3.1334;
42.3000;0.6854;-3.1234;
42.6000;0.6813;-3.1234;
42.9000;0.6838;-3.1184;
43.2000;0.6838;-3.1085;
43.5000;0.6829;-3.1135;
43.8000;0.6797;-3.1234;
44.1000;0.6813;-3.1160;
44.4000;0.6821;-3.1060;
44.7000;0.6797;-3.1160;
45.0000;0.6797;-3.1184;
45.3000;0.6838;-3.1060;
45.6000;0.6821;-3.1135;
45.9000;0.6829;-3.1209;
46.2000;0.6829;-3.1184;
46.5000;0.6846;-3.1135;
46.8000;0.6813;-3.1209;
47.1000;0.6789;-3.1259;
47.4000;0.6829;-3.1284;
47.7000;0.6829;-3.1234;
48.0000;0.6805;-3.1135;
48.3000;0.6813;-3.1035;
48.6000;0.6838;-3.0936;
48.9000;0.6838;-3.1010;
49.2000;0.6829;-3.1060;
49.5000;0.6813;-3.1035;
49.8000;0.6821;-3.1085;
50.1000;0.6813;-3.1135;
50.4000;0.6838;-3.1035;
50.7000;0.6878;-3.0936;
51.0000;0.6821;-3.1160;
51.3000;0.6821;-3.1160;
51.6000;0.6821;-3.1160;
51.9000;0.6813;-3.1209;
52.2000;0.6829;-3.1160;
52.5000;0.6805;-3.1234;
52.8000;0.6805;-3.1184;
53.1000;0.6789;-3.1160;
53.4000;0.6805;-3.1160;
53.7000;0.6821;-3.1110;
54.0000;0.6821;-3.1035;
54.3000;0.6838;-3.1060;
54.6000;0.6813;-3.1160;
54.9000;0.6813;-3.1110;
55.2000;0.6821;-3.1110;
55.5000;0.6838;-3.1135;
55.8000;0.6805;-3.1209;
56.1000;0.6862;-3.1085;
56.4000;0.6813;-3.1234;
56.7000;0.6829;-3.1135;
57.0000;0.6838;-3.1160;
57.3000;0.6813;-3.1259;
57.6000;0.6805;-3.1284;
57.9000;0.6813;-3.1234;
58.2000;0.6797;-3.1209;
58.5000;0.6821;-3.1160;
58.8000;0.6821;-3.1234;
59.1000;0.6813;-3.1309;
59.4000;0.6821;-3.1284;
59.7000;0.6805;-3.1234;
60.0000;0.6813;-3.1259;
60.3000;0.6829;-3.1184;
60.6000;0.6821;-3.1234;
60.9000;0.6805;-3.1309;
61.2000;0.6805;-3.1408;
61.5000;0.6789;-3.1458;
61.8000;0.6764;-3.1483;
62.1000;0.6797;-3.1383;
62.4000;0.6854;-3.1234;
62.7000;0.6813;-3.1284;
63.0000;0.6805;-3.1309;
63.3000;0.6862;-3.1160;
63.6000;0.6781;-3.1334;
63.9000;0.6805;-3.1259;
64.2000;0.6813;-3.1284;
64.5000;0.6829;-3.1309;
64.8000;0.6878;-3.1284;
65.1000;0.6813;-3.1383;
65.4000;0.6878;-3.1184;
65.7000;0.6919;-3.1035;
66.0000;0.6838;-3.1259;
66.3000;0.6821;-3.1309;
66.6000;0.6821;-3.1160;
66.9000;0.6813;-3.1085;
67.2000;0.6821;-3.0936;
67.5000;0.6829;-3.1010;
67.8000;0.6797;-3.1060;
68.1000;0.6821;-3.1085;
68.4000;0.6829;-3.1085;
68.7000;0.6813;-3.1184;
69.0000;0.6805;-3.1184;
69.3000;0.6797;-3.1184;
69.6000;0.6821;-3.1184;
69.9000;0.6813;-3.1234;
70.2000;0.6829;-3.1160;
70.5000;0.6813;-3.1284;
70.8000;0.6838;-3.1309;
71.1000;0.6789;-3.1433;
71.4000;0.6813;-3.1458;
71.7000;0.6797;-3.1483;
72.0000;0.6805;-3.1383;
72.3000;0.6797;-3.1334;
72.6000;0.6862;-3.1085;
72.9000;0.6829;-3.1259;
73.2000;0.6805;-3.1259;
73.5000;0.6821;-3.1259;
73.8000;0.6805;-3.1234;
74.1000;0.6813;-3.1135;
74.4000;0.6821;-3.1110;
74.7000;0.6838;-3.1110;
75.0000;0.6805;-3.1135;
75.3000;0.6797;-3.1209;
75.6000;0.6813;-3.1184;
75.9000;0.6838;-3.1035;
76.2000;0.6805;-3.1135;
76.5000;0.6821;-3.1060;
76.8000;0.6813;-3.1085;
77.1000;0.6797;-3.1085;
77.4000;0.6838;-3.1085;
77.7000;0.6854;-3.1085;
78.0000;0.6838;-3.1209;
78.3000;0.6821;-3.1135;
78.6000;0.6805;-3.1085;
78.9000;0.6854;-3.0985;
79.2000;0.6821;-3.1060;
79.5000;0.6846;-3.1060;
79.8000;0.6829;-3.1160;
80.1000;0.6813;-3.0961;
80.4000;0.6829;-3.0985;
80.7000;0.6829;-3.0985;
81.0000;0.6805;-3.1085;
81.3000;0.6821;-3.1135;
81.6000;0.6829;-3.1110;
81.9000;0.6805;-3.1160;
82.2000;0.6805;-3.1160;
82.5000;0.6821;-3.1110;
82.8000;0.6821;-3.1135;
83.1000;0.6838;-3.1110;
83.4000;0.6919;-3.0911;
83.7000;0.6805;-3.1234;
84.0000;0.6829;-3.1184;
84.3000;0.6829;-3.1110;
84.6000;0.6813;-3.1135;
84.9000;0.6854;-3.0985;
85.2000;0.6813;-3.1110;
85.5000;0.6829;-3.1010;
85.8000;0.6821;-3.1035;
86.1000;0.6797;-3.1160;
86.4000;0.6838;-3.1060;
86.7000;0.6821;-3.1085;
87.0000;0.6821;-3.1035;
87.3000;0.6829;-3.0936;
87.6000;0.6846;-3.0861;
87.9000;0.6846;-3.0961;
88.2000;0.6846;-3.1010;
88.5000;0.6829;-3.0961;
88.8000;0.6886;-3.0811;
89.1000;0.6838;-3.0936;
89.4000;0.6829;-3.0961;
89.7000;0.6797;-3.1035;
90.0000;0.6829;-3.0911;
90.3000;0.6805;-3.1060;
90.6000;0.6821;-3.1110;
90.9000;0.6838;-3.1085;
91.2000;0.6821;-3.1135;
91.5000;0.6805;-3.1234;
91.8000;0.6821;-3.1184;
92.1000;0.6838;-3.1135;
92.4000;0.6805;-3.1209;
92.7000;0.6862;-3.1010;
93.0000;0.6952;-3.0737;
93.3000;0.6878;-3.0861;
93.6000;0.6821;-3.1060;
93.9000;0.6829;-3.1035;
94.2000;0.6829;-3.1010;
94.5000;0.6813;-3.1060;
94.8000;0.6838;-3.0886;
95.1000;0.6821;-3.0961;
95.4000;0.6781;-3.1060;
95.7000;0.6813;-3.1010;
96.0000;0.6813;-3.0961;
96.3000;0.6838;-3.0911;
96.6000;0.6821;-3.1060;
96.9000;0.6789;-3.1184;
97.2000;0.6789;-3.1060;
97.5000;0.6838;-3.1085;
97.8000;0.6813;-3.1135;
98.1000;0.6838;-3.1085;
98.4000;0.6821;-3.1010;
98.7000;0.6821;-3.1010;
99.0000;0.6829;-3.1035;
99.3000;0.6813;-3.1035;
99.6000;0.6829;-3.1010;
99.9000;0.6821;-3.0985;
100.2000;0.6838;-3.1085;
100.5000;0.6805;-3.1160;
100.8000;0.6813;-3.1135;
101.1000;0.6756;-3.1259;
101.4000;0.6797;-3.1209;
101.7000;0.6797;-3.1160;
102.0000;0.6805;-3.1060;
102.3000;0.6764;-3.1234;
102.6000;0.6813;-3.1184;
102.9000;0.6797;-3.1234;
103.2000;0.6821;-3.1259;
103.5000;0.6829;-3.1309;
103.8000;0.6813;-3.1309;
104.1000;0.6821;-3.1209;
104.4000;0.6829;-3.1160;
104.7000;0.6813;-3.1309;
105.0000;0.6821;-3.1259;
105.3000;0.6789;-3.1259;
105.6000;0.6821;-3.1184;
105.9000;0.6797;-3.1284;
106.2000;0.6805;-3.1284;
106.5000;0.6772;-3.1433;
106.8000;0.6813;-3.1334;
107.1000;0.6805;-3.1383;
107.4000;0.6805;-3.1358;
107.7000;0.6821;-3.1334;
108.0000;0.6862;-3.1110;
108.3000;0.6797;-3.1334;
108.6000;0.6797;-3.1408;
108.9000;0.6846;-3.1383;
109.2000;0.6797;-3.1433;
109.5000;0.6805;-3.1483;
109.8000;0.6772;-3.1582;
110.1000;0.6829;-3.1483;
110.4000;0.6821;-3.1458;
110.7000;0.6821;-3.1508;
111.0000;0.6821;-3.1582;
111.3000;0.6854;-3.1508;
111.6000;0.6805;-3.1607;
111.9000;0.6756;-3.1632;
112.2000;0.6854;-3.1358;
112.5000;0.6813;-3.1483;
112.8000;0.6870;-3.1234;
113.1000;0.6813;-3.1334;
113.4000;0.6813;-3.1334;
113.7000;0.6797;-3.1309;
114.0000;0.6821;-3.1284;
114.3000;0.6813;-3.1284;
114.6000;0.6813;-3.1259;
114.9000;0.6797;-3.1209;
115.2000;0.6813;-3.1135;
115.5000;0.6813;-3.1135;
115.8000;0.6813;-3.1184;
116.1000;0.6797;-3.1234;
116.4000;0.6805;-3.1284;
116.7000;0.6813;-3.1234;
117.0000;0.6829;-3.1209;
117.3000;0.6821;-3.1209;
117.6000;0.6805;-3.1234;
117.9000;0.6813;-3.1234;
118.2000;0.6764;-3.1259;
118.5000;0.6797;-3.1209;
118.8000;0.6805;-3.1334;
119.1000;0.6797;-3.1358;
119.4000;0.6797;-3.1309;
119.7000;0.6772;-3.1334;
120.0000;0.6813;-3.1209;
120.3000;0.6805;-3.1309;
120.6000;0.6732;-3.1433;
120.9000;0.6781;-3.1309;
121.2000;0.6813;-3.1309;
121.5000;0.6797;-3.1284;
121.8000;0.6740;-3.1383;
122.1000;0.6829;-3.1135;
122.4000;0.6821;-3.1110;
122.7000;0.6781;-3.1184;
123.0000;0.6805;-3.1209;
123.3000;0.6789;-3.1209;
123.6000;0.6813;-3.1184;
123.9000;0.6805;-3.1160;
124.2000;0.6805;-3.1234;
124.5000;0.6838;-3.1110;
124.8000;0.6813;-3.1160;
125.1000;0.6789;-3.1259;
125.4000;0.6805;-3.1234;
125.7000;0.6813;-3.1209;
126.0000;0.6797;-3.1259;
126.3000;0.6886;-3.1035;
126.6000;0.6805;-3.1110;
126.9000;0.6772;-3.1184;
127.2000;0.6797;-3.1110;
127.5000;0.6813;-3.0985;
127.8000;0.6821;-3.1010;
128.1000;0.6813;-3.1135;
128.4000;0.6878;-3.0936;
128.7000;0.6838;-3.0985;
129.0000;0.6813;-3.1060;
129.3000;0.6821;-3.1035;
129.6000;0.6903;-3.0786;
129.9000;0.6829;-3.0911;
130.2000;0.6789;-3.0985;
130.5000;0.6797;-3.0961;
130.8000;0.6764;-3.1160;
131.1000;0.6821;-3.1035;
131.4000;0.6781;-3.1060;
131.7000;0.6805;-3.1085;
132.0000;0.6789;-3.1160;
132.3000;0.6797;-3.1060;
132.6000;0.6805;-3.1035;
132.9000;0.6789;-3.1035;
133.2000;0.6862;-3.0836;
133.5000;0.6805;-3.0936;
133.8000;0.6813;-3.0936;
134.1000;0.6789;-3.1060;
134.4000;0.6870;-3.0911;
134.7000;0.6748;-3.1234;
135.0000;0.6781;-3.1160;
135.3000;0.6821;-3.1010;
135.6000;0.6797;-3.1010;
135.9000;0.6821;-3.0936;
136.2000;0.6813;-3.1060;
136.5000;0.6829;-3.1060;
136.8000;0.6821;-3.1209;
137.1000;0.6797;-3.1234;
137.4000;0.6805;-3.1160;
137.7000;0.6813;-3.1110;
138.0000;0.6813;-3.1160;
138.3000;0.6797;-3.1259;
138.6000;0.6813;-3.1085;
138.9000;0.6797;-3.1085;
139.2000;0.6821;-3.1010;
139.5000;0.6797;-3.0936;
139.8000;0.6805;-3.0886;
140.1000;0.6781;-3.0985;
140.4000;0.6813;-3.0861;
140.7000;0.6821;-3.0836;
141.0000;0.6805;-3.0886;
141.3000;0.6813;-3.0911;
141.6000;0.6813;-3.0961;
141.9000;0.6797;-3.1085;
142.2000;0.6789;-3.1035;
142.5000;0.6797;-3.0985;
142.8000;0.6797;-3.0936;
143.1000;0.6813;-3.0861;
143.4000;0.6797;-3.0861;
143.7000;0.6829;-3.0737;
144.0000;0.6813;-3.0762;
144.3000;0.6805;-3.0786;
144.6000;0.6789;-3.0811;
144.9000;0.6772;-3.0861;
145.2000;0.6781;-3.0911;
145.5000;0.6797;-3.0886;
145.8000;0.6797;-3.0886;
146.1000;0.6781;-3.0961;
146.4000;0.6789;-3.0985;
146.7000;0.6789;-3.1010;
147.0000;0.6821;-3.0886;
147.3000;0.6781;-3.0836;
147.6000;0.6797;-3.0811;
147.9000;0.6813;-3.0836;
148.2000;0.6813;-3.0886;
148.5000;0.6797;-3.1010;
148.8000;0.6781;-3.1010;
149.1000;0.6797;-3.0911;
149.4000;0.6821;-3.1010;
149.7000;0.6813;-3.1010;
150.0000;0.6805;-3.1060;
150.3000;0.6772;-3.1284;
150.6000;0.6805;-3.1234;
150.9000;0.6821;-3.1160;
151.2000;0.6829;-3.1010;
151.5000;0.6821;-3.1010;
151.8000;0.6740;-3.1160;
152.1000;0.6813;-3.0936;
152.4000;0.6797;-3.0911;
152.7000;0.6789;-3.0961;
153.0000;0.6805;-3.0911;
153.3000;0.6813;-3.0861;
153.6000;0.6805;-3.0861;
153.9000;0.6797;-3.0861;
154.2000;0.6772;-3.0886;
154.5000;0.6805;-3.0911;
154.8000;0.6846;-3.0936;
155.1000;0.6781;-3.1209;
155.4000;0.6797;-3.1160;
155.7000;0.6789;-3.1184;
156.0000;0.6805;-3.1110;
156.3000;0.6821;-3.1135;
156.6000;0.6797;-3.1160;
156.9000;0.6797;-3.1234;
157.2000;0.6805;-3.1135;
157.5000;0.6797;-3.1110;
157.8000;0.6797;-3.1035;
158.1000;0.6805;-3.1035;
158.4000;0.6707;-3.1309;
158.7000;0.6805;-3.1035;
159.0000;0.6789;-3.1060;
159.3000;0.6789;-3.0936;
159.6000;0.6789;-3.0861;
159.9000;0.6789;-3.0861;
160.2000;0.6756;-3.0961;
160.5000;0.6772;-3.0936;
160.8000;0.6781;-3.0936;
161.1000;0.6781;-3.0936;
161.4000;0.6797;-3.0911;
161.7000;0.6789;-3.0936;
162.0000;0.6789;-3.1035;
162.3000;0.6797;-3.1035;
162.6000;0.6691;-3.1408;
162.9000;0.6789;-3.1160;
163.2000;0.6789;-3.1209;
163.5000;0.6829;-3.1060;
163.8000;0.6805;-3.1160;
164.1000;0.6797;-3.1110;
164.4000;0.6821;-3.1060;
164.7000;0.6829;-3.1085;
165.0000;0.6805;-3.1035;
165.3000;0.6805;-3.1184;
165.6000;0.6781;-3.1259;
165.9000;0.6805;-3.1234;
166.2000;0.6781;-3.1234;
166.5000;0.6821;-3.1110;
166.8000;0.6772;-3.1259;
167.1000;0.6781;-3.1209;
167.4000;0.6781;-3.1209;
167.7000;0.6797;-3.1160;
168.0000;0.6772;-3.1284;
168.3000;0.6805;-3.1234;
168.6000;0.6813;-3.1110;
168.9000;0.6805;-3.1110;
169.2000;0.6821;-3.0985;
169.5000;0.6813;-3.1035;
169.8000;0.6805;-3.1110;
170.1000;0.6829;-3.0936;
170.4000;0.6821;-3.1010;
170.7000;0.6805;-3.1184;
171.0000;0.6821;-3.1234;
171.3000;0.6813;-3.1234;
171.6000;0.6805;-3.1259;
171.9000;0.6797;-3.1209;
172.2000;0.6797;-3.1209;
172.5000;0.6805;-3.1184;
172.8000;0.6805;-3.1010;
173.1000;0.6805;-3.0936;
173.4000;0.6797;-3.0985;
173.7000;0.6732;-3.1160;
174.0000;0.6797;-3.1010;
174.3000;0.6764;-3.1184;
174.6000;0.6797;-3.1085;
174.9000;0.6789;-3.1184;
175.2000;0.6789;-3.1234;
175.5000;0.6805;-3.1209;
175.8000;0.6797;-3.1234;
176.1000;0.6805;-3.1135;
176.4000;0.6797;-3.1060;
176.7000;0.6797;-3.1060;
177.0000;0.6805;-3.1010;
177.3000;0.6797;-3.1184;
177.6000;0.6781;-3.1259;
177.9000;0.6813;-3.1259;
178.2000;0.6797;-3.1408;
178.5000;0.6797;-3.1433;
178.8000;0.6805;-3.1309;
179.1000;0.6805;-3.1259;
179.4000;0.6781;-3.1309;
179.7000;0.6821;-3.1259;
180.0000;0.6789;-3.1358;
180.3000;0.6781;-3.1458;
180.6000;0.6789;-3.1334;
180.9000;0.6805;-3.1309;
181.2000;0.6781;-3.1383;
181.5000;0.6797;-3.1358;
181.8000;0.6748;-3.1383;
182.1000;0.6781;-3.1358;
182.4000;0.6748;-3.1533;
182.7000;0.6805;-3.1358;
183.0000;0.6789;-3.1309;
183.3000;0.6781;-3.1259;
183.6000;0.6789;-3.1184;
183.9000;0.6789;-3.1110;
184.2000;0.6797;-3.1160;
184.5000;0.6789;-3.1259;
184.8000;0.6789;-3.1234;
185.1000;0.6821;-3.1209;
185.4000;0.6805;-3.1284;
185.7000;0.6797;-3.1334;
186.0000;0.6764;-3.1483;
186.3000;0.6805;-3.1433;
186.6000;0.6781;-3.1383;
186.9000;0.6740;-3.1458;
187.2000;0.6789;-3.1284;
187.5000;0.6797;-3.1334;
187.8000;0.6789;-3.1309;
188.1000;0.6748;-3.1358;
188.4000;0.6781;-3.1284;
188.7000;0.6838;-3.0961;
189.0000;0.6748;-3.1259;
189.3000;0.6797;-3.1110;
189.6000;0.6781;-3.1209;
189.9000;0.6789;-3.1234;
190.2000;0.6797;-3.1234;
190.5000;0.6805;-3.1209;
190.8000;0.6764;-3.1184;
191.1000;0.6821;-3.1135;
191.4000;0.6772;-3.1234;
191.7000;0.6854;-3.1110;
192.0000;0.6781;-3.1234;
192.3000;0.6805;-3.1259;
192.6000;0.6764;-3.1383;
192.9000;0.6805;-3.1259;
193.2000;0.6797;-3.1160;
193.5000;0.6797;-3.1184;
193.8000;0.6797;-3.1234;
194.1000;0.6789;-3.1234;
194.4000;0.6789;-3.1135;
194.7000;0.6789;-3.1110;
195.0000;0.6797;-3.1110;
195.3000;0.6772;-3.1284;
195.6000;0.6854;-3.1135;
195.9000;0.6724;-3.1433;
196.2000;0.6805;-3.1184;
196.5000;0.6781;-3.1259;
196.8000;0.6789;-3.1334;
197.1000;0.6797;-3.1383;
197.4000;0.6797;-3.1334;
197.7000;0.6805;-3.1309;
198.0000;0.6805;-3.1259;
198.3000;0.6797;-3.1309;
198.6000;0.6789;-3.1234;
198.9000;0.6838;-3.1060;
199.2000;0.6789;-3.1160;
199.5000;0.6789;-3.1160;
199.8000;0.6805;-3.1085;
200.1000;0.6797;-3.1060;
200.4000;0.6724;-3.1284;
200.7000;0.6805;-3.1110;
201.0000;0.6781;-3.1160;
201.3000;0.6789;-3.1135;
201.6000;0.6797;-3.1160;
201.9000;0.6789;-3.1110;
202.2000;0.6805;-3.1035;
202.5000;0.6789;-3.1085;
202.8000;0.6797;-3.1060;
203.1000;0.6797;-3.1135;
203.4000;0.6772;-3.1209;
203.7000;0.6789;-3.1209;
204.0000;0.6797;-3.1184;
204.3000;0.6821;-3.1035;
204.6000;0.6797;-3.1234;
204.9000;0.6895;-3.0985;
205.2000;0.6781;-3.1334;
205.5000;0.6789;-3.1334;
205.8000;0.6813;-3.1309;
206.1000;0.6789;-3.1334;
206.4000;0.6781;-3.1383;
206.7000;0.6724;-3.1632;
207.0000;0.6772;-3.1458;
207.3000;0.6781;-3.1433;
207.6000;0.6732;-3.1458;
207.9000;0.6699;-3.1433;
208.2000;0.6764;-3.1234;
208.5000;0.6805;-3.1135;
208.8000;0.6764;-3.1309;
209.1000;0.6748;-3.1483;
209.4000;0.6797;-3.1408;
209.7000;0.6797;-3.1383;
210.0000;0.6748;-3.1483;
210.3000;0.6781;-3.1458;
210.6000;0.6797;-3.1309;
210.9000;0.6805;-3.1383;
211.2000;0.6805;-3.1433;
211.5000;0.6805;-3.1483;
211.8000;0.6732;-3.1582;
212.1000;0.6724;-3.1433;
212.4000;0.6797;-3.1234;
212.7000;0.6699;-3.1483;
213.0000;0.6748;-3.1458;
213.3000;0.6789;-3.1334;
213.6000;0.6821;-3.1234;
213.9000;0.6675;-3.1607;
214.2000;0.6781;-3.1334;
214.5000;0.6789;-3.1433;
214.8000;0.6829;-3.1284;
215.1000;0.6797;-3.1334;
215.4000;0.6789;-3.1383;
215.7000;0.6805;-3.1358;
216.0000;0.6789;-3.1358;
216.3000;0.6829;-3.1284;
216.6000;0.6805;-3.1209;
216.9000;0.6789;-3.1234;
217.2000;0.6764;-3.1209;
217.5000;0.6764;-3.1160;
217.8000;0.6789;-3.1110;
218.1000;0.6797;-3.1085;
218.4000;0.6764;-3.1035;
218.7000;0.6772;-3.1085;
219.0000;0.6781;-3.0985;
219.3000;0.6805;-3.0985;
219.6000;0.6764;-3.1010;
219.9000;0.6772;-3.0985;
220.2000;0.6789;-3.0961;
220.5000;0.6756;-3.1135;
220.8000;0.6789;-3.1010;
221.1000;0.6772;-3.1110;
221.4000;0.6805;-3.0961;
221.7000;0.6805;-3.0911;
222.0000;0.6805;-3.0911;
222.3000;0.6789;-3.0911;
222.6000;0.6797;-3.0936;
222.9000;0.6781;-3.1060;
223.2000;0.6821;-3.1010;
223.5000;0.6772;-3.1160;
223.8000;0.6772;-3.1085;
224.1000;0.6772;-3.1135;
224.4000;0.6716;-3.1284;
224.7000;0.6772;-3.1085;
225.0000;0.6764;-3.1060;
225.3000;0.6846;-3.0836;
225.6000;0.6781;-3.1035;
225.9000;0.6781;-3.0985;
226.2000;0.6748;-3.1035;
226.5000;0.6772;-3.1010;
226.8000;0.6772;-3.0985;
227.1000;0.6772;-3.1010;
227.4000;0.6772;-3.1135;
227.7000;0.6781;-3.1085;
228.0000;0.6740;-3.1110;
228.3000;0.6781;-3.0985;
228.6000;0.6756;-3.1035;
228.9000;0.6756;-3.0985;
229.2000;0.6764;-3.1010;
229.5000;0.6805;-3.0911;
229.8000;0.6781;-3.0985;
230.1000;0.6789;-3.0961;
230.4000;0.6862;-3.0836;
230.7000;0.6797;-3.1035;
231.0000;0.6748;-3.1160;
231.3000;0.6772;-3.1160;
231.6000;0.6772;-3.1284;
231.9000;0.6797;-3.1160;
232.2000;0.6797;-3.1060;
232.5000;0.6781;-3.1060;
232.8000;0.6846;-3.0936;
233.1000;0.6797;-3.1085;
233.4000;0.6797;-3.1135;
233.7000;0.6764;-3.1259;
234.0000;0.6748;-3.1284;
234.3000;0.6772;-3.1184;
234.6000;0.6838;-3.0961;
234.9000;0.6781;-3.1209;
235.2000;0.6781;-3.1234;
235.5000;0.6797;-3.1209;
235.8000;0.6797;-3.1184;
236.1000;0.6821;-3.1135;
236.4000;0.6789;-3.1234;
236.7000;0.6789;-3.1234;
237.0000;0.6756;-3.1284;
237.3000;0.6781;-3.1135;
237.6000;0.6756;-3.1184;
237.9000;0.6740;-3.1209;
238.2000;0.6764;-3.1085;
238.5000;0.6829;-3.1060;
238.8000;0.6772;-3.1135;
239.1000;0.6789;-3.1035;
239.4000;0.6781;-3.1110;
239.7000;0.6789;-3.1110;
240.0000;0.6789;-3.1160;
240.3000;0.6772;-3.1085;
240.6000;0.6789;-3.1060;
240.9000;0.6789;-3.1010;
241.2000;0.6764;-3.1010;
241.5000;0.6797;-3.1085;
241.8000;0.6764;-3.1209;
242.1000;0.6772;-3.1209;
242.4000;0.6789;-3.1160;
242.7000;0.6789;-3.1284;
243.0000;0.6789;-3.1334;
243.3000;0.6772;-3.1433;
243.6000;0.6789;-3.1408;
243.9000;0.6781;-3.1383;
244.2000;0.6789;-3.1284;
244.5000;0.6797;-3.1184;
244.8000;0.6764;-3.1234;
245.1000;0.6797;-3.1160;
245.4000;0.6781;-3.1334;
245.7000;0.6846;-3.1184;
246.0000;0.6805;-3.1259;
246.3000;0.6886;-3.1060;
246.6000;0.6797;-3.1284;
246.9000;0.6781;-3.1383;
247.2000;0.6699;-3.1533;
247.5000;0.6781;-3.1334;
247.8000;0.6781;-3.1334;
248.1000;0.6789;-3.1309;
248.4000;0.6772;-3.1284;
248.7000;0.6813;-3.1284;
249.0000;0.6797;-3.1284;
249.3000;0.6813;-3.1209;
249.6000;0.6781;-3.1234;
249.9000;0.6789;-3.1334;
250.2000;0.6813;-3.1284;
250.5000;0.6789;-3.1259;
250.8000;0.6781;-3.1135;
251.1000;0.6797;-3.1035;
251.4000;0.6789;-3.0961;
251.7000;0.6789;-3.1110;
252.0000;0.6764;-3.1135;
252.3000;0.6764;-3.1160;
252.6000;0.6772;-3.1259;
252.9000;0.6781;-3.1184;
253.2000;0.6764;-3.1209;
253.5000;0.6781;-3.1135;
253.8000;0.6781;-3.1209;
254.1000;0.6789;-3.1358;
254.4000;0.6772;-3.1358;
254.7000;0.6781;-3.1334;
255.0000;0.6772;-3.1383;
255.3000;0.6789;-3.1358;
255.6000;0.6789;-3.1334;
255.9000;0.6805;-3.1334;
256.2000;0.6789;-3.1358;
256.5000;0.6805;-3.1433;
256.8000;0.6781;-3.1383;
257.1000;0.6781;-3.1383;
257.4000;0.6781;-3.1334;
257.7000;0.6756;-3.1358;
258.0000;0.6740;-3.1383;
258.3000;0.6781;-3.1259;
258.6000;0.6813;-3.1234;
258.9000;0.6781;-3.1383;
259.2000;0.6789;-3.1383;
259.5000;0.6789;-3.1433;
259.8000;0.6789;-3.1508;
260.1000;0.6764;-3.1682;
260.4000;0.6772;-3.1582;
260.7000;0.6740;-3.1682;
261.0000;0.6772;-3.1582;
261.3000;0.6789;-3.1433;
261.6000;0.6764;-3.1458;
261.9000;0.6781;-3.1383;
262.2000;0.6781;-3.1383;
262.5000;0.6724;-3.1582;
262.8000;0.6756;-3.1483;
263.1000;0.6781;-3.1383;
263.4000;0.6772;-3.1508;
263.7000;0.6781;-3.1483;
264.0000;0.6764;-3.1433;
264.3000;0.6781;-3.1433;
264.6000;0.6789;-3.1383;
264.9000;0.6764;-3.1483;
265.2000;0.6789;-3.1508;
265.5000;0.6781;-3.1458;
265.8000;0.6781;-3.1383;
266.1000;0.6772;-3.1334;
266.4000;0.6772;-3.1358;
266.7000;0.6838;-3.1284;
267.0000;0.6781;-3.1533;
267.3000;0.6781;-3.1483;
267.6000;0.6781;-3.1433;
267.9000;0.6781;-3.1458;
268.2000;0.6740;-3.1533;
268.5000;0.6789;-3.1508;
268.8000;0.6821;-3.1383;
269.1000;0.6772;-3.1483;
269.4000;0.6781;-3.1508;
269.7000;0.6797;-3.1433;
270.0000;0.6781;-3.1433;
270.3000;0.6781;-3.1458;
270.6000;0.6764;-3.1483;
270.9000;0.6797;-3.1433;
271.2000;0.6797;-3.1458;
271.5000;0.6772;-3.1483;
271.8000;0.6797;-3.1483;
272.1000;0.6772;-3.1508;
272.4000;0.6797;-3.1483;
272.7000;0.6789;-3.1433;
273.0000;0.6789;-3.1358;
273.3000;0.6789;-3.1383;
273.6000;0.6821;-3.1383;
273.9000;0.6821;-3.1334;
274.2000;0.6789;-3.1458;
274.5000;0.6781;-3.1483;
274.8000;0.6781;-3.1458;
275.1000;0.6764;-3.1533;
275.4000;0.6781;-3.1483;
275.7000;0.6789;-3.1533;
276.0000;0.6683;-3.1731;
276.3000;0.6756;-3.1483;
276.6000;0.6772;-3.1383;
276.9000;0.6781;-3.1383;
277.2000;0.6805;-3.1209;
277.5000;0.6764;-3.1334;
277.8000;0.6789;-3.1408;
278.1000;0.6797;-3.1408;
278.4000;0.6781;-3.1557;
278.7000;0.6772;-3.1533;
279.0000;0.6756;-3.1508;
279.3000;0.6764;-3.1557;
279.6000;0.6789;-3.1657;
279.9000;0.6772;-3.1632;
280.2000;0.6764;-3.1582;
280.5000;0.6781;-3.1508;
280.8000;0.6781;-3.1483;
281.1000;0.6781;-3.1433;
281.4000;0.6756;-3.1433;
281.7000;0.6764;-3.1508;
282.0000;0.6789;-3.1408;
282.3000;0.6764;-3.1483;
282.6000;0.6764;-3.1483;
282.9000;0.6789;-3.1533;
283.2000;0.6756;-3.1582;
283.5000;0.6797;-3.1433;
283.8000;0.6772;-3.1533;
284.1000;0.6724;-3.1707;
284.4000;0.6756;-3.1632;
284.7000;0.6772;-3.1632;
285.0000;0.6764;-3.1682;
285.3000;0.6764;-3.1707;
285.6000;0.6772;-3.1707;
285.9000;0.6789;-3.1682;
286.2000;0.6772;-3.1632;
286.5000;0.6772;-3.1582;
286.8000;0.6772;-3.1533;
287.1000;0.6756;-3.1657;
287.4000;0.6756;-3.1657;
287.7000;0.6772;-3.1657;
288.0000;0.6781;-3.1632;
288.3000;0.6813;-3.1433;
288.6000;0.6781;-3.1458;
288.9000;0.6772;-3.1582;
289.2000;0.6789;-3.1632;
289.5000;0.6789;-3.1657;
289.8000;0.6772;-3.1707;
290.1000;0.6789;-3.1682;
290.4000;0.6772;-3.1657;
290.7000;0.6789;-3.1533;
291.0000;0.6789;-3.1458;
291.3000;0.6764;-3.1533;
291.6000;0.6789;-3.1533;
291.9000;0.6797;-3.1483;
292.2000;0.6740;-3.1607;
292.5000;0.6797;-3.1483;
292.8000;0.6805;-3.1383;
293.1000;0.6797;-3.1284;
293.4000;0.6772;-3.1334;
293.7000;0.6789;-3.1234;
294.0000;0.6772;-3.1383;
294.3000;0.6748;-3.1557;
294.6000;0.6781;-3.1408;
294.9000;0.6781;-3.1408;
295.2000;0.6772;-3.1483;
295.5000;0.6772;-3.1458;
295.8000;0.6772;-3.1383;
296.1000;0.6756;-3.1383;
296.4000;0.6772;-3.1334;
296.7000;0.6797;-3.1358;
297.0000;0.6764;-3.1383;
297.3000;0.6772;-3.1358;
297.6000;0.6781;-3.1334;
297.9000;0.6764;-3.1408;
298.2000;0.6772;-3.1358;
298.5000;0.6764;-3.1408;
298.8000;0.6789;-3.1383;
299.1000;0.6781;-3.1483;
299.4000;0.6797;-3.1483;
299.7000;0.6772;-3.1607;
300.0000;0.6781;-3.1557;
300.3000;0.6772;-3.1657;
300.6000;0.6764;-3.1632;
300.9000;0.6781;-3.1508;
301.2000;0.6764;-3.1383;
301.5000;0.6781;-3.1483;
301.8000;0.6772;-3.1582;
302.1000;0.6781;-3.1582;
302.4000;0.6781;-3.1682;
302.7000;0.6699;-3.1856;
303.0000;0.6748;-3.1632;
303.3000;0.6764;-3.1582;
303.6000;0.6764;-3.1557;
303.9000;0.6789;-3.1508;
304.2000;0.6805;-3.1483;
304.5000;0.6772;-3.1557;
304.8000;0.6781;-3.1557;
305.1000;0.6772;-3.1508;
305.4000;0.6797;-3.1483;
305.7000;0.6781;-3.1508;
306.0000;0.6699;-3.1731;
306.3000;0.6764;-3.1508;
306.6000;0.6781;-3.1483;
306.9000;0.6772;-3.1533;
307.2000;0.6764;-3.1582;
307.5000;0.6756;-3.1731;
307.8000;0.6781;-3.1682;
308.1000;0.6683;-3.2055;
308.4000;0.6772;-3.1856;
308.7000;0.6764;-3.1930;
309.0000;0.6756;-3.1906;
309.3000;0.6772;-3.1731;
309.6000;0.6781;-3.1707;
309.9000;0.6756;-3.1781;
310.2000;0.6764;-3.1707;
310.5000;0.6772;-3.1707;
310.8000;0.6740;-3.1731;
311.1000;0.6756;-3.1707;
311.4000;0.6764;-3.1557;
311.7000;0.6772;-3.1533;
312.0000;0.6781;-3.1582;
312.3000;0.6764;-3.1582;
312.6000;0.6716;-3.1707;
312.9000;0.6732;-3.1731;
313.2000;0.6756;-3.1582;
313.5000;0.6781;-3.1533;
313.8000;0.6764;-3.1533;
314.1000;0.6821;-3.1358;
314.4000;0.6797;-3.1433;
314.7000;0.6789;-3.1483;
315.0000;0.6764;-3.1632;
315.3000;0.6781;-3.1533;
315.6000;0.6805;-3.1358;
315.9000;0.6813;-3.1334;
316.2000;0.6764;-3.1632;
316.5000;0.6772;-3.1657;
316.8000;0.6772;-3.1533;
317.1000;0.6781;-3.1483;
317.4000;0.6781;-3.1557;
317.7000;0.6756;-3.1582;
318.0000;0.6772;-3.1582;
318.3000;0.6772;-3.1557;
318.6000;0.6732;-3.1582;
318.9000;0.6764;-3.1508;
319.2000;0.6781;-3.1582;
319.5000;0.6781;-3.1582;
319.8000;0.6772;-3.1582;
320.1000;0.6781;-3.1508;
320.4000;0.6756;-3.1533;
320.7000;0.6772;-3.1433;
321.0000;0.6732;-3.1557;
321.3000;0.6764;-3.1557;
321.6000;0.6756;-3.1557;
321.9000;0.6764;-3.1607;
322.2000;0.6781;-3.1508;
322.5000;0.6756;-3.1533;
322.8000;0.6732;-3.1557;
323.1000;0.6772;-3.1483;
323.4000;0.6805;-3.1433;
323.7000;0.6781;-3.1433;
324.0000;0.6756;-3.1458;
324.3000;0.6756;-3.1358;
324.6000;0.6756;-3.1383;
324.9000;0.6772;-3.1358;
325.2000;0.6756;-3.1433;
325.5000;0.6764;-3.1508;
325.8000;0.6748;-3.1557;
326.1000;0.6772;-3.1607;
326.4000;0.6764;-3.1582;
326.7000;0.6764;-3.1632;
327.0000;0.6781;-3.1557;
327.3000;0.6781;-3.1557;
327.6000;0.6772;-3.1557;
327.9000;0.6781;-3.1533;
328.2000;0.6764;-3.1607;
328.5000;0.6764;-3.1582;
328.8000;0.6789;-3.1632;
329.1000;0.6756;-3.1632;
329.4000;0.6764;-3.1607;
329.7000;0.6772;-3.1582;
330.0000;0.6772;-3.1657;
330.3000;0.6781;-3.1607;
330.6000;0.6732;-3.1582;
330.9000;0.6764;-3.1458;
331.2000;0.6789;-3.1358;
331.5000;0.6797;-3.1334;
331.8000;0.6846;-3.1184;
332.1000;0.6772;-3.1383;
332.4000;0.6781;-3.1358;
332.7000;0.6748;-3.1408;
333.0000;0.6756;-3.1433;
333.3000;0.6764;-3.1458;
333.6000;0.6691;-3.1582;
333.9000;0.6748;-3.1433;
334.2000;0.6772;-3.1433;
334.5000;0.6724;-3.1557;
334.8000;0.6764;-3.1458;
335.1000;0.6764;-3.1433;
335.4000;0.6756;-3.1334;
335.7000;0.6797;-3.1184;
336.0000;0.6764;-3.1284;
336.3000;0.6748;-3.1209;
336.6000;0.6756;-3.1234;
336.9000;0.6764;-3.1110;
337.2000;0.6764;-3.1184;
337.5000;0.6854;-3.0936;
337.8000;0.6772;-3.1085;
338.1000;0.6764;-3.1209;
338.4000;0.6781;-3.1234;
338.7000;0.6772;-3.1209;
339.0000;0.6764;-3.1209;
339.3000;0.6724;-3.1284;
339.6000;0.6764;-3.1234;
339.9000;0.6764;-3.1234;
340.2000;0.6756;-3.1284;
340.5000;0.6772;-3.1259;
340.8000;0.6764;-3.1259;
341.1000;0.6781;-3.1309;
341.4000;0.6781;-3.1284;
341.7000;0.6781;-3.1234;
342.0000;0.6797;-3.1135;
342.3000;0.6764;-3.1259;
342.6000;0.6748;-3.1209;
342.9000;0.6781;-3.1010;
343.2000;0.6789;-3.1010;
343.5000;0.6764;-3.1135;
343.8000;0.6756;-3.1135;
344.1000;0.6748;-3.1209;
344.4000;0.6772;-3.1135;
344.7000;0.6756;-3.1135;
345.0000;0.6756;-3.1184;
345.3000;0.6699;-3.1309;
345.6000;0.6772;-3.1160;
345.9000;0.6748;-3.1284;
346.2000;0.6756;-3.1209;
346.5000;0.6772;-3.1309;
346.8000;0.6772;-3.1358;
347.1000;0.6764;-3.1383;
347.4000;0.6756;-3.1408;
347.7000;0.6740;-3.1433;
348.0000;0.6756;-3.1358;
348.3000;0.6789;-3.1309;
348.6000;0.6764;-3.1458;
348.9000;0.6789;-3.1383;
349.2000;0.6764;-3.1358;
349.5000;0.6764;-3.1508;
349.8000;0.6772;-3.1508;
350.1000;0.6764;-3.1533;
350.4000;0.6756;-3.1508;
350.7000;0.6756;-3.1458;
351.0000;0.6862;-3.1110;
351.3000;0.6764;-3.1408;
351.6000;0.6756;-3.1358;
351.9000;0.6789;-3.1284;
352.2000;0.6748;-3.1358;
352.5000;0.6756;-3.1358;
352.8000;0.6732;-3.1334;
353.1000;0.6764;-3.1309;
353.4000;0.6781;-3.1209;
353.7000;0.6789;-3.1110;
354.0000;0.6764;-3.1309;
354.3000;0.6764;-3.1284;
354.6000;0.6748;-3.1358;
354.9000;0.6781;-3.1160;
355.2000;0.6748;-3.1259;
355.5000;0.6781;-3.1135;
355.8000;0.6789;-3.1135;
356.1000;0.6797;-3.1184;
356.4000;0.6781;-3.1284;
356.7000;0.6789;-3.1309;
357.0000;0.6764;-3.1334;
357.3000;0.6748;-3.1334;
357.6000;0.6772;-3.1209;
357.9000;0.6740;-3.1209;
358.2000;0.6756;-3.1234;
358.5000;0.6789;-3.1085;
358.8000;0.6748;-3.1284;
359.1000;0.6772;-3.1309;
359.4000;0.6764;-3.1334;
359.7000;0.6764;-3.1259;
360.0000;0.6699;-3.1408;
360.3000;0.6781;-3.1259;
360.6000;0.6740;-3.1358;
360.9000;0.6756;-3.1309;
361.2000;0.6821;-3.1184;
361.5000;0.6764;-3.1209;
361.8000;0.6772;-3.1209;
362.1000;0.6748;-3.1209;
362.4000;0.6764;-3.1110;
362.7000;0.6764;-3.1135;
363.0000;0.6764;-3.1135;
363.3000;0.6740;-3.1259;
363.6000;0.6756;-3.1334;
363.9000;0.6772;-3.1259;
364.2000;0.6756;-3.1284;
364.5000;0.6707;-3.1458;
364.8000;0.6748;-3.1284;
365.1000;0.6756;-3.1234;
365.4000;0.6764;-3.1284;
365.7000;0.6748;-3.1234;
366.0000;0.6732;-3.1259;
366.3000;0.6764;-3.1184;
366.6000;0.6772;-3.1209;
366.9000;0.6756;-3.1358;
367.2000;0.6781;-3.1259;
367.5000;0.6764;-3.1284;
367.8000;0.6764;-3.1309;
368.1000;0.6789;-3.1209;
368.4000;0.6789;-3.1160;
368.7000;0.6756;-3.1135;
369.0000;0.6797;-3.1060;
369.3000;0.6805;-3.1110;
369.6000;0.6764;-3.1259;
369.9000;0.6740;-3.1358;
370.2000;0.6764;-3.1284;
370.5000;0.6781;-3.1209;
370.8000;0.6756;-3.1160;
371.1000;0.6821;-3.1060;
371.4000;0.6764;-3.1184;
371.7000;0.6797;-3.1060;
372.0000;0.6789;-3.1135;
372.3000;0.6781;-3.1160;
372.6000;0.6772;-3.1184;
372.9000;0.6764;-3.1209;
373.2000;0.6772;-3.1110;
373.5000;0.6764;-3.1135;
373.8000;0.6748;-3.1110;
374.1000;0.6764;-3.1184;
374.4000;0.6764;-3.1259;
374.7000;0.6772;-3.1334;
375.0000;0.6764;-3.1383;
375.3000;0.6748;-3.1358;
375.6000;0.6740;-3.1408;
375.9000;0.6764;-3.1408;
376.2000;0.6764;-3.1408;
376.5000;0.6772;-3.1458;
376.8000;0.6764;-3.1408;
377.1000;0.6838;-3.1209;
377.4000;0.6748;-3.1433;
377.7000;0.6756;-3.1433;
378.0000;0.6821;-3.1234;
378.3000;0.6764;-3.1284;
378.6000;0.6740;-3.1358;
378.9000;0.6764;-3.1309;
379.2000;0.6748;-3.1383;
379.5000;0.6772;-3.1334;
379.8000;0.6756;-3.1433;
380.1000;0.6748;-3.1358;
380.4000;0.6756;-3.1334;
380.7000;0.6764;-3.1383;
381.0000;0.6764;-3.1309;
381.3000;0.6740;-3.1358;
381.6000;0.6805;-3.1234;
381.9000;0.6756;-3.1184;
382.2000;0.6748;-3.1284;
382.5000;0.6756;-3.1309;
382.8000;0.6764;-3.1334;
383.1000;0.6740;-3.1334;
383.4000;0.6748;-3.1309;
383.7000;0.6764;-3.1234;
384.0000;0.6756;-3.1234;
384.3000;0.6797;-3.1184;
384.6000;0.6764;-3.1334;
384.9000;0.6740;-3.1383;
385.2000;0.6740;-3.1433;
385.5000;0.6756;-3.1358;
385.8000;0.6740;-3.1458;
386.1000;0.6724;-3.1483;
386.4000;0.6748;-3.1408;
386.7000;0.6748;-3.1358;
387.0000;0.6748;-3.1234;
387.3000;0.6756;-3.1184;
387.6000;0.6764;-3.1135;
387.9000;0.6748;-3.1184;
388.2000;0.6748;-3.1110;
388.5000;0.6740;-3.1184;
388.8000;0.6740;-3.1184;
389.1000;0.6764;-3.1209;
389.4000;0.6764;-3.1234;
389.7000;0.6772;-3.1234;
390.0000;0.6764;-3.1160;
390.3000;0.6764;-3.1284;
390.6000;0.6756;-3.1259;
390.9000;0.6756;-3.1259;
391.2000;0.6716;-3.1358;
391.5000;0.6748;-3.1259;
391.8000;0.6756;-3.1209;
392.1000;0.6764;-3.1184;
392.4000;0.6797;-3.0936;
392.7000;0.6772;-3.0961;
393.0000;0.6772;-3.0936;
393.3000;0.6764;-3.1010;
393.6000;0.6764;-3.1110;
393.9000;0.6772;-3.1110;
394.2000;0.6748;-3.1259;
394.5000;0.6740;-3.1284;
394.8000;0.6756;-3.1284;
395.1000;0.6805;-3.1234;
395.4000;0.6764;-3.1284;
395.7000;0.6764;-3.1284;
396.0000;0.6748;-3.1334;
396.3000;0.6764;-3.1284;
396.6000;0.6756;-3.1234;
396.9000;0.6748;-3.1209;
397.2000;0.6724;-3.1184;
397.5000;0.6764;-3.1110;
397.8000;0.6716;-3.1060;
398.1000;0.6748;-3.0985;
398.4000;0.6756;-3.0961;
398.7000;0.6756;-3.1035;
399.0000;0.6732;-3.1085;
399.3000;0.6748;-3.1035;
399.6000;0.6764;-3.1160;
399.9000;0.6748;-3.1284;
400.2000;0.6805;-3.1085;
400.5000;0.6748;-3.1259;
400.8000;0.6732;-3.1309;
401.1000;0.6748;-3.1234;
401.4000;0.6764;-3.1184;
401.7000;0.6764;-3.1209;
402.0000;0.6764;-3.1284;
402.3000;0.6781;-3.1234;
402.6000;0.6748;-3.1259;
402.9000;0.6756;-3.1259;
403.2000;0.6846;-3.1110;
403.5000;0.6740;-3.1309;
403.8000;0.6756;-3.1309;
404.1000;0.6716;-3.1358;
404.4000;0.6764;-3.1334;
404.7000;0.6756;-3.1309;
405.0000;0.6756;-3.1334;
405.3000;0.6732;-3.1383;
405.6000;0.6764;-3.1334;
405.9000;0.6699;-3.1483;
406.2000;0.6756;-3.1334;
406.5000;0.6748;-3.1259;
406.8000;0.6756;-3.1284;
407.1000;0.6772;-3.1259;
407.4000;0.6724;-3.1358;
407.7000;0.6740;-3.1334;
408.0000;0.6764;-3.1334;
408.3000;0.6707;-3.1458;
408.6000;0.6748;-3.1259;
408.9000;0.6748;-3.1259;
409.2000;0.6748;-3.1309;
409.5000;0.6642;-3.1557;
409.8000;0.6740;-3.1309;
410.1000;0.6756;-3.1358;
410.4000;0.6732;-3.1358;
410.7000;0.6748;-3.1259;
411.0000;0.6740;-3.1259;
411.3000;0.6740;-3.1259;
411.6000;0.6716;-3.1383;
411.9000;0.6732;-3.1309;
412.2000;0.6724;-3.1334;
412.5000;0.6756;-3.1358;
412.8000;0.6764;-3.1284;
413.1000;0.6740;-3.1334;
413.4000;0.6772;-3.1209;
413.7000;0.6781;-3.1184;
414.0000;0.6756;-3.1259;
414.3000;0.6756;-3.1184;
414.6000;0.6740;-3.1284;
414.9000;0.6748;-3.1234;
415.2000;0.6732;-3.1309;
415.5000;0.6740;-3.1334;
415.8000;0.6740;-3.1383;
416.1000;0.6740;-3.1408;
416.4000;0.6756;-3.1309;
416.7000;0.6772;-3.1309;
417.0000;0.6756;-3.1358;
417.3000;0.6740;-3.1383;
417.6000;0.6764;-3.1383;
417.9000;0.6675;-3.1557;
418.2000;0.6748;-3.1408;
418.5000;0.6748;-3.1358;
418.8000;0.6724;-3.1508;
419.1000;0.6740;-3.1358;
419.4000;0.6683;-3.1508;
419.7000;0.6740;-3.1383;
420.0000;0.6764;-3.1234;
420.3000;0.6772;-3.1135;
420.6000;0.6756;-3.1135;
420.9000;0.6813;-3.1010;
421.2000;0.6748;-3.1135;
421.5000;0.6756;-3.1184;
421.8000;0.6667;-3.1408;
422.1000;0.6732;-3.1259;
422.4000;0.6740;-3.1284;
422.7000;0.6748;-3.1334;
423.0000;0.6764;-3.1284;
423.3000;0.6756;-3.1408;
423.6000;0.6740;-3.1508;
423.9000;0.6748;-3.1408;
424.2000;0.6756;-3.1358;
424.5000;0.6764;-3.1259;
424.8000;0.6846;-3.1060;
425.1000;0.6756;-3.1234;
425.4000;0.6748;-3.1184;
425.7000;0.6756;-3.1060;
426.0000;0.6772;-3.1010;
426.3000;0.6748;-3.1085;
426.6000;0.6740;-3.1110;
426.9000;0.6716;-3.1184;
427.2000;0.6789;-3.1035;
427.5000;0.6748;-3.1035;
427.8000;0.6748;-3.1160;
428.1000;0.6740;-3.1209;
428.4000;0.6740;-3.1209;
428.7000;0.6748;-3.1309;
429.0000;0.6756;-3.1259;
429.3000;0.6699;-3.1433;
429.6000;0.6748;-3.1234;
429.9000;0.6748;-3.1284;
430.2000;0.6732;-3.1234;
430.5000;0.6748;-3.1259;
430.8000;0.6748;-3.1259;
431.1000;0.6716;-3.1234;
431.4000;0.6764;-3.1110;
431.7000;0.6740;-3.1110;
432.0000;0.6781;-3.0911;
432.3000;0.6740;-3.0911;
432.6000;0.6756;-3.0911;
432.9000;0.6659;-3.1184;
433.2000;0.6748;-3.1085;
433.5000;0.6764;-3.1010;
433.8000;0.6764;-3.0961;
434.1000;0.6740;-3.0985;
434.4000;0.6748;-3.0861;
434.7000;0.6764;-3.0861;
435.0000;0.6748;-3.0936;
435.3000;0.6756;-3.1010;
435.6000;0.6748;-3.1060;
435.9000;0.6781;-3.0936;
436.2000;0.6764;-3.1010;
436.5000;0.6756;-3.1035;
436.8000;0.6748;-3.1060;
437.1000;0.6756;-3.1010;
437.4000;0.6764;-3.0961;
437.7000;0.6683;-3.1110;
438.0000;0.6756;-3.0936;
438.3000;0.6748;-3.0911;
438.6000;0.6764;-3.0811;
438.9000;0.6756;-3.0886;
439.2000;0.6732;-3.1035;
439.5000;0.6740;-3.0985;
439.8000;0.6748;-3.0985;
440.1000;0.6748;-3.0985;
440.4000;0.6732;-3.1035;
440.7000;0.6740;-3.1035;
441.0000;0.6797;-3.0911;
441.3000;0.6740;-3.1060;
441.6000;0.6724;-3.1060;
441.9000;0.6691;-3.1085;
442.2000;0.6748;-3.0911;
442.5000;0.6772;-3.1010;
442.8000;0.6764;-3.0985;
443.1000;0.6748;-3.0985;
443.4000;0.6756;-3.1160;
443.7000;0.6756;-3.1110;
444.0000;0.6764;-3.1035;
444.3000;0.6740;-3.1110;
444.6000;0.6748;-3.1085;
444.9000;0.6748;-3.1060;
445.2000;0.6748;-3.1060;
445.5000;0.6748;-3.1135;
445.8000;0.6740;-3.1135;
446.1000;0.6748;-3.1085;
446.4000;0.6740;-3.1160;
446.7000;0.6748;-3.1085;
447.0000;0.6732;-3.1135;
447.3000;0.6740;-3.1060;
447.6000;0.6699;-3.1309;
447.9000;0.6756;-3.1135;
448.2000;0.6724;-3.1259;
448.5000;0.6740;-3.1259;
448.8000;0.6740;-3.1184;
449.1000;0.6748;-3.1035;
449.4000;0.6740;-3.1110;
449.7000;0.6740;-3.1209;
450.0000;0.6764;-3.1160;
450.3000;0.6772;-3.1035;
450.6000;0.6748;-3.1085;
450.9000;0.6748;-3.1160;
451.2000;0.6716;-3.1184;
451.5000;0.6740;-3.1135;
451.8000;0.6805;-3.1010;
452.1000;0.6724;-3.1085;
452.4000;0.6748;-3.0985;
452.7000;0.6764;-3.0985;
453.0000;0.6764;-3.0911;
453.3000;0.6748;-3.0936;
453.6000;0.6740;-3.0961;
453.9000;0.6764;-3.0911;
454.2000;0.6756;-3.0911;
454.5000;0.6732;-3.1110;
454.8000;0.6789;-3.0961;
455.1000;0.6740;-3.1060;
455.4000;0.6740;-3.1035;
455.7000;0.6748;-3.1060;
456.0000;0.6724;-3.1160;
456.3000;0.6740;-3.1209;
456.6000;0.6740;-3.1309;
456.9000;0.6764;-3.1334;
457.2000;0.6756;-3.1234;
457.5000;0.6732;-3.1309;
457.8000;0.6707;-3.1408;
458.1000;0.6724;-3.1433;
458.4000;0.6724;-3.1458;
458.7000;0.6732;-3.1433;
459.0000;0.6740;-3.1358;
459.3000;0.6748;-3.1259;
459.6000;0.6740;-3.1284;
459.9000;0.6740;-3.1334;
460.2000;0.6748;-3.1309;
460.5000;0.6748;-3.1234;
460.8000;0.6740;-3.1259;
461.1000;0.6724;-3.1259;
461.4000;0.6732;-3.1284;
461.7000;0.6740;-3.1184;
462.0000;0.6724;-3.1284;
462.3000;0.6716;-3.1358;
462.6000;0.6732;-3.1309;
462.9000;0.6748;-3.1234;
463.2000;0.6740;-3.1135;
463.5000;0.6756;-3.1060;
463.8000;0.6764;-3.0985;
464.1000;0.6781;-3.0985;
464.4000;0.6699;-3.1160;
464.7000;0.6764;-3.0961;
465.0000;0.6772;-3.0936;
465.3000;0.6740;-3.1035;
465.6000;0.6748;-3.1060;
465.9000;0.6740;-3.1110;
466.2000;0.6740;-3.1110;
466.5000;0.6740;-3.1184;
466.8000;0.6740;-3.1184;
467.1000;0.6805;-3.1010;
467.4000;0.6740;-3.1209;
467.7000;0.6732;-3.1408;
468.0000;0.6732;-3.1383;
468.3000;0.6732;-3.1334;
468.6000;0.6732;-3.1209;
468.9000;0.6748;-3.1110;
469.2000;0.6716;-3.1160;
469.5000;0.6724;-3.1060;
469.8000;0.6756;-3.1110;
470.1000;0.6732;-3.1160;
470.4000;0.6732;-3.1135;
470.7000;0.6740;-3.1259;
471.0000;0.6756;-3.1209;
471.3000;0.6740;-3.1160;
471.6000;0.6716;-3.1160;
471.9000;0.6740;-3.1135;
472.2000;0.6716;-3.1209;
472.5000;0.6740;-3.1135;
472.8000;0.6740;-3.1160;
473.1000;0.6732;-3.1160;
473.4000;0.6732;-3.1135;
473.7000;0.6732;-3.1085;
474.0000;0.6740;-3.1010;
474.3000;0.6716;-3.1110;
474.6000;0.6724;-3.1060;
474.9000;0.6732;-3.1060;
475.2000;0.6748;-3.0985;
475.5000;0.6748;-3.1110;
475.8000;0.6740;-3.1184;
476.1000;0.6748;-3.1135;
476.4000;0.6772;-3.1035;
476.7000;0.6748;-3.1135;
477.0000;0.6748;-3.1135;
477.3000;0.6724;-3.1160;
477.6000;0.6764;-3.1035;
477.9000;0.6772;-3.0936;
478.2000;0.6756;-3.0961;
478.5000;0.6748;-3.0985;
478.8000;0.6659;-3.1284;
479.1000;0.6772;-3.1085;
479.4000;0.6748;-3.1259;
479.7000;0.6740;-3.1259;
480.0000;0.6748;-3.1284;
480.3000;0.6764;-3.1284;
480.6000;0.6764;-3.1358;
480.9000;0.6740;-3.1483;
481.2000;0.6683;-3.1657;
481.5000;0.6829;-3.1259;
481.8000;0.6748;-3.1383;
482.1000;0.6821;-3.1010;
482.4000;0.6724;-3.1284;
482.7000;0.6732;-3.1234;
483.0000;0.6748;-3.1209;
483.3000;0.6740;-3.1259;
483.6000;0.6756;-3.1234;
483.9000;0.6724;-3.1234;
484.2000;0.6772;-3.1135;
484.5000;0.6732;-3.1085;
484.8000;0.6724;-3.1135;
485.1000;0.6683;-3.1358;
485.4000;0.6699;-3.1284;
485.7000;0.6829;-3.0911;
486.0000;0.6748;-3.1085;
486.3000;0.6732;-3.1110;
486.6000;0.6740;-3.1060;
486.9000;0.6764;-3.0985;
487.2000;0.6732;-3.1035;
487.5000;0.6716;-3.1110;
487.8000;0.6740;-3.1160;
488.1000;0.6748;-3.1085;
488.4000;0.6756;-3.0911;
488.7000;0.6716;-3.1035;
489.0000;0.6732;-3.1135;
489.3000;0.6740;-3.1035;
489.6000;0.6732;-3.1035;
489.9000;0.6683;-3.1259;
490.2000;0.6805;-3.1010;
490.5000;0.6732;-3.1184;
490.8000;0.6732;-3.1135;
491.1000;0.6740;-3.1135;
491.4000;0.6732;-3.1184;
491.7000;0.6724;-3.1284;
492.0000;0.6740;-3.1309;
492.3000;0.6732;-3.1334;
492.6000;0.6724;-3.1309;
492.9000;0.6748;-3.1259;
493.2000;0.6724;-3.1184;
493.5000;0.6732;-3.1160;
493.8000;0.6716;-3.1010;
494.1000;0.6748;-3.0961;
494.4000;0.6740;-3.0936;
494.7000;0.6732;-3.1010;
495.0000;0.6732;-3.1010;
495.3000;0.6748;-3.1010;
495.6000;0.6772;-3.0911;
495.9000;0.6724;-3.1035;
496.2000;0.6740;-3.1060;
496.5000;0.6740;-3.1035;
496.8000;0.6740;-3.0985;
497.1000;0.6748;-3.0985;
497.4000;0.6724;-3.1060;
497.7000;0.6667;-3.1209;
498.0000;0.6756;-3.0961;
498.3000;0.6716;-3.0985;
498.6000;0.6732;-3.1010;
498.9000;0.6732;-3.1110;
499.2000;0.6732;-3.1085;
499.5000;0.6748;-3.1060;
499.8000;0.6756;-3.0911;
500.1000;0.6748;-3.0762;
500.4000;0.6748;-3.0786;
500.7000;0.6740;-3.0936;
501.0000;0.6732;-3.1035;
501.3000;0.6748;-3.1010;
501.6000;0.6756;-3.1035;
501.9000;0.6748;-3.1085;
502.2000;0.6732;-3.1085;
502.5000;0.6748;-3.1010;
502.8000;0.6740;-3.0936;
503.1000;0.6724;-3.0936;
503.4000;0.6748;-3.0911;
503.7000;0.6748;-3.0985;
504.0000;0.6740;-3.0911;
504.3000;0.6829;-3.0687;
504.6000;0.6732;-3.0911;
504.9000;0.6748;-3.0886;
505.2000;0.6797;-3.0911;
505.5000;0.6740;-3.1035;
505.8000;0.6732;-3.0985;
506.1000;0.6805;-3.0936;
506.4000;0.6748;-3.1209;
506.7000;0.6740;-3.1184;
507.0000;0.6732;-3.1184;
507.3000;0.6724;-3.1209;
507.6000;0.6732;-3.1184;
507.9000;0.6683;-3.1309;
508.2000;0.6740;-3.1184;
508.5000;0.6732;-3.1135;
508.8000;0.6740;-3.1035;
509.1000;0.6740;-3.1085;
509.4000;0.6740;-3.1135;
509.7000;0.6716;-3.1135;
510.0000;0.6716;-3.1184;
510.3000;0.6724;-3.1160;
510.6000;0.6724;-3.1259;
510.9000;0.6756;-3.1209;
511.2000;0.6732;-3.1209;
511.5000;0.6748;-3.1234;
511.8000;0.6748;-3.1184;
512.1000;0.6748;-3.1209;
512.4000;0.6740;-3.1284;
512.7000;0.6756;-3.1209;
513.0000;0.6634;-3.1483;
513.3000;0.6732;-3.1259;
513.6000;0.6740;-3.1209;
513.9000;0.6740;-3.1209;
514.2000;0.6732;-3.1160;
514.5000;0.6724;-3.1135;
514.8000;0.6732;-3.1135;
515.1000;0.6748;-3.1135;
515.4000;0.6724;-3.1209;
515.7000;0.6732;-3.1184;
516.0000;0.6691;-3.1209;
516.3000;0.6740;-3.1035;
516.6000;0.6732;-3.1010;
516.9000;0.6748;-3.1010;
517.2000;0.6732;-3.1135;
517.5000;0.6724;-3.1209;
517.8000;0.6716;-3.1259;
518.1000;0.6691;-3.1284;
518.4000;0.6732;-3.1184;
518.7000;0.6740;-3.1110;
519.0000;0.6740;-3.0936;
519.3000;0.6748;-3.0961;
519.6000;0.6748;-3.0985;
519.9000;0.6732;-3.1060;
520.2000;0.6748;-3.1060;
520.5000;0.6707;-3.1234;
520.8000;0.6683;-3.1408;
521.1000;0.6716;-3.1284;
521.4000;0.6732;-3.1184;
521.7000;0.6732;-3.1184;
522.0000;0.6756;-3.1160;
522.3000;0.6748;-3.1135;
522.6000;0.6748;-3.1160;
522.9000;0.6740;-3.1085;
523.2000;0.6699;-3.1135;
523.5000;0.6732;-3.0985;
523.8000;0.6642;-3.1284;
524.1000;0.6691;-3.1160;
524.4000;0.6707;-3.1160;
524.7000;0.6732;-3.1184;
525.0000;0.6724;-3.1184;
525.3000;0.6724;-3.1060;
525.6000;0.6740;-3.1035;
525.9000;0.6732;-3.1110;
526.2000;0.6764;-3.1060;
526.5000;0.6699;-3.1259;
526.8000;0.6740;-3.1259;
527.1000;0.6732;-3.1209;
527.4000;0.6748;-3.1110;
527.7000;0.6724;-3.1160;
528.0000;0.6716;-3.1209;
528.3000;0.6716;-3.1160;
528.6000;0.6732;-3.1135;
528.9000;0.6732;-3.1234;
529.2000;0.6797;-3.0911;
529.5000;0.6732;-3.1060;
529.8000;0.6732;-3.1010;
530.1000;0.6724;-3.1035;
530.4000;0.6748;-3.0985;
530.7000;0.6748;-3.0936;
531.0000;0.6732;-3.0936;
531.3000;0.6724;-3.1060;
531.6000;0.6724;-3.1010;
531.9000;0.6740;-3.1010;
532.2000;0.6716;-3.1135;
532.5000;0.6732;-3.1135;
532.8000;0.6716;-3.1184;
533.1000;0.6732;-3.1184;
533.4000;0.6732;-3.1234;
533.7000;0.6740;-3.1184;
534.0000;0.6748;-3.1110;
534.3000;0.6740;-3.1135;
534.6000;0.6748;-3.1160;
534.9000;0.6740;-3.1160;
535.2000;0.6740;-3.1085;
535.5000;0.6748;-3.0985;
535.8000;0.6748;-3.0985;
536.1000;0.6740;-3.0961;
536.4000;0.6732;-3.0961;
536.7000;0.6732;-3.0985;
537.0000;0.6732;-3.0936;
537.3000;0.6724;-3.1035;
537.6000;0.6716;-3.1085;
537.9000;0.6724;-3.1060;
538.2000;0.6740;-3.1085;
538.5000;0.6740;-3.1160;
538.8000;0.6732;-3.1234;
539.1000;0.6748;-3.1234;
539.4000;0.6748;-3.1309;
539.7000;0.6707;-3.1358;
540.0000;0.6740;-3.1334;
540.3000;0.6748;-3.1383;
540.6000;0.6748;-3.1334;
540.9000;0.6748;-3.1334;
541.2000;0.6707;-3.1383;
541.5000;0.6716;-3.1458;
541.8000;0.6740;-3.1334;
542.1000;0.6707;-3.1508;
542.4000;0.6732;-3.1334;
542.7000;0.6699;-3.1383;
543.0000;0.6716;-3.1309;
543.3000;0.6732;-3.1334;
543.6000;0.6781;-3.1234;
543.9000;0.6732;-3.1383;
544.2000;0.6667;-3.1483;
544.5000;0.6691;-3.1483;
544.8000;0.6724;-3.1458;
545.1000;0.6707;-3.1383;
545.4000;0.6772;-3.1284;
545.7000;0.6732;-3.1458;
546.0000;0.6756;-3.1383;
546.3000;0.6716;-3.1358;
546.6000;0.6732;-3.1358;
546.9000;0.6724;-3.1408;
547.2000;0.6740;-3.1433;
547.5000;0.6732;-3.1358;
547.8000;0.6724;-3.1483;
548.1000;0.6740;-3.1358;
548.4000;0.6756;-3.1334;
548.7000;0.6740;-3.1358;
549.0000;0.6724;-3.1458;
549.3000;0.6732;-3.1358;
549.6000;0.6732;-3.1358;
549.9000;0.6716;-3.1358;
550.2000;0.6732;-3.1259;
550.5000;0.6667;-3.1383;
550.8000;0.6707;-3.1209;
551.1000;0.6716;-3.1135;
551.4000;0.6716;-3.1135;
551.7000;0.6732;-3.1085;
552.0000;0.6732;-3.1060;
552.3000;0.6724;-3.1085;
552.6000;0.6716;-3.1184;
552.9000;0.6732;-3.1209;
553.2000;0.6716;-3.1309;
553.5000;0.6724;-3.1334;
553.8000;0.6618;-3.1508;
554.1000;0.6716;-3.1259;
554.4000;0.6732;-3.1209;
554.7000;0.6716;-3.1184;
555.0000;0.6732;-3.1184;
555.3000;0.6675;-3.1383;
555.6000;0.6716;-3.1259;
555.9000;0.6781;-3.1184;
556.2000;0.6740;-3.1234;
556.5000;0.6724;-3.1284;
556.8000;0.6748;-3.1284;
557.1000;0.6764;-3.1184;
557.4000;0.6675;-3.1358;
557.7000;0.6724;-3.1234;
558.0000;0.6699;-3.1309;
558.3000;0.6650;-3.1533;
558.6000;0.6732;-3.1383;
558.9000;0.6691;-3.1483;
559.2000;0.6756;-3.1358;
559.5000;0.6707;-3.1433;
559.8000;0.6732;-3.1383;
560.1000;0.6691;-3.1433;
560.4000;0.6634;-3.1557;
560.7000;0.6707;-3.1533;
561.0000;0.6748;-3.1483;
561.3000;0.6732;-3.1458;
561.6000;0.6748;-3.1383;
561.9000;0.6732;-3.1334;
562.2000;0.6732;-3.1284;
562.5000;0.6732;-3.1358;
562.8000;0.6740;-3.1408;
563.1000;0.6740;-3.1483;
563.4000;0.6724;-3.1557;
563.7000;0.6716;-3.1508;
564.0000;0.6748;-3.1334;
564.3000;0.6740;-3.1309;
564.6000;0.6716;-3.1433;
564.9000;0.6724;-3.1309;
565.2000;0.6716;-3.1259;
565.5000;0.6732;-3.1358;
565.8000;0.6716;-3.1383;
566.1000;0.6732;-3.1309;
566.4000;0.6732;-3.1334;
566.7000;0.6756;-3.1259;
567.0000;0.6724;-3.1383;
567.3000;0.6732;-3.1334;
567.6000;0.6821;-3.1110;
567.9000;0.6829;-3.1085;
568.2000;0.6740;-3.1309;
568.5000;0.6740;-3.1408;
568.8000;0.6699;-3.1433;
569.1000;0.6716;-3.1358;
569.4000;0.6716;-3.1358;
569.7000;0.6748;-3.1309;
570.0000;0.6740;-3.1334;
570.3000;0.6724;-3.1408;
570.6000;0.6732;-3.1334;
570.9000;0.6748;-3.1383;
571.2000;0.6724;-3.1433;
571.5000;0.6732;-3.1508;
571.8000;0.6724;-3.1433;
572.1000;0.6732;-3.1383;
572.4000;0.6650;-3.1508;
572.7000;0.6740;-3.1209;
573.0000;0.6699;-3.1358;
573.3000;0.6732;-3.1234;
573.6000;0.6724;-3.1334;
573.9000;0.6699;-3.1383;
574.2000;0.6748;-3.1358;
574.5000;0.6740;-3.1209;
574.8000;0.6724;-3.1234;
575.1000;0.6716;-3.1309;
575.4000;0.6732;-3.1234;
575.7000;0.6764;-3.1135;
576.0000;0.6724;-3.1209;
576.3000;0.6650;-3.1358;
576.6000;0.6732;-3.1184;
576.9000;0.6707;-3.1284;
577.2000;0.6683;-3.1358;
577.5000;0.6716;-3.1259;
577.8000;0.6699;-3.1259;
578.1000;0.6724;-3.1035;
578.4000;0.6764;-3.0911;
578.7000;0.6748;-3.1010;
579.0000;0.6732;-3.1110;
579.3000;0.6732;-3.1060;
579.6000;0.6740;-3.1035;
579.9000;0.6707;-3.1209;
580.2000;0.6748;-3.1135;
580.5000;0.6732;-3.1160;
580.8000;0.6764;-3.1060;
581.1000;0.6732;-3.1010;
581.4000;0.6748;-3.1010;
581.7000;0.6707;-3.1085;
582.0000;0.6740;-3.1110;
582.3000;0.6732;-3.1184;
582.6000;0.6724;-3.1209;
582.9000;0.6724;-3.1184;
583.2000;0.6740;-3.1110;
583.5000;0.6716;-3.1035;
583.8000;0.6650;-3.1234;
584.1000;0.6716;-3.1135;
584.4000;0.6748;-3.1085;
584.7000;0.6707;-3.1234;
585.0000;0.6732;-3.1184;
585.3000;0.6732;-3.1184;
585.6000;0.6707;-3.1184;
585.9000;0.6732;-3.0985;
586.2000;0.6748;-3.0861;
586.5000;0.6740;-3.0811;
586.8000;0.6716;-3.0886;
587.1000;0.6716;-3.0861;
587.4000;0.6732;-3.0836;
587.7000;0.6724;-3.0886;
588.0000;0.6716;-3.0961;
588.3000;0.6716;-3.1085;
588.6000;0.6724;-3.1110;
588.9000;0.6740;-3.0961;
589.2000;0.6732;-3.0936;
589.5000;0.6716;-3.0936;
589.8000;0.6699;-3.0911;
590.1000;0.6772;-3.0786;
590.4000;0.6732;-3.0936;
590.7000;0.6772;-3.0911;
591.0000;0.6716;-3.1010;
591.3000;0.6716;-3.1135;
591.6000;0.6716;-3.1209;
591.9000;0.6716;-3.1234;
592.2000;0.6716;-3.1234;
592.5000;0.6675;-3.1234;
592.8000;0.6732;-3.1085;
593.1000;0.6716;-3.1060;
593.4000;0.6707;-3.1234;
593.7000;0.6724;-3.1209;
594.0000;0.6732;-3.1234;
594.3000;0.6732;-3.1259;
594.6000;0.6732;-3.1234;
594.9000;0.6740;-3.1259;
595.2000;0.6740;-3.1234;
595.5000;0.6707;-3.1309;
595.8000;0.6707;-3.1334;
596.1000;0.6740;-3.1284;
596.4000;0.6740;-3.1209;
596.7000;0.6740;-3.1259;
597.0000;0.6699;-3.1358;
597.3000;0.6740;-3.1259;
597.6000;0.6707;-3.1358;
597.9000;0.6716;-3.1309;
598.2000;0.6724;-3.1209;
598.5000;0.6756;-3.1135;
598.8000;0.6716;-3.1184;
599.1000;0.6748;-3.1110;
599.4000;0.6724;-3.1060;
599.7000;0.6707;-3.1060;
600.0000;0.6707;-3.1110;
600.3000;0.6707;-3.1234;
600.6000;0.6724;-3.1259;
600.9000;0.6675;-3.1309;
601.2000;0.6642;-3.1383;
601.5000;0.6610;-3.1533;
601.8000;0.6577;-3.1682;
602.1000;0.6496;-3.1881;
602.4000;0.6455;-3.2104;
602.7000;0.6431;-3.2204;
603.0000;0.6349;-3.2453;
603.3000;0.6333;-3.2577;
603.6000;0.6300;-3.2577;
603.9000;0.6252;-3.2726;
604.2000;0.6211;-3.2801;
604.5000;0.6186;-3.2826;
604.8000;0.6162;-3.2900;
605.1000;0.6129;-3.2950;
605.4000;0.6097;-3.3074;
605.7000;0.6064;-3.3124;
606.0000;0.6032;-3.3124;
606.3000;0.5999;-3.3124;
606.6000;0.5967;-3.3248;
606.9000;0.5934;-3.3348;
607.2000;0.5918;-3.3422;
607.5000;0.5877;-3.3472;
607.8000;0.5861;-3.3398;
608.1000;0.5845;-3.3422;
608.4000;0.5820;-3.3373;
608.7000;0.5804;-3.3373;
609.0000;0.5779;-3.3497;
609.3000;0.5763;-3.3472;
609.6000;0.5739;-3.3522;
609.9000;0.5714;-3.3671;
610.2000;0.5690;-3.3696;
610.5000;0.5649;-3.3746;
610.8000;0.5649;-3.3721;
611.1000;0.5747;-3.3348;
611.4000;0.5641;-3.3522;
611.7000;0.5608;-3.3572;
612.0000;0.5592;-3.3621;
612.3000;0.5568;-3.3696;
612.6000;0.5576;-3.3671;
612.9000;0.5535;-3.3796;
613.2000;0.5560;-3.3771;
613.5000;0.5486;-3.3895;
613.8000;0.5511;-3.3796;
614.1000;0.5462;-3.3920;
614.4000;0.5462;-3.3895;
614.7000;0.5495;-3.3796;
615.0000;0.5438;-3.3970;
615.3000;0.5413;-3.3870;
615.6000;0.5405;-3.3845;
615.9000;0.5381;-3.3870;
616.2000;0.5364;-3.3820;
616.5000;0.5364;-3.3845;
616.8000;0.5356;-3.3895;
617.1000;0.5364;-3.3820;
617.4000;0.5324;-3.3820;
617.7000;0.5315;-3.3895;
618.0000;0.5324;-3.3845;
618.3000;0.5307;-3.3796;
618.6000;0.5364;-3.3621;
618.9000;0.5291;-3.3796;
619.2000;0.5258;-3.3870;
619.5000;0.5250;-3.3920;
619.8000;0.5226;-3.3970;
620.1000;0.5201;-3.4094;
620.4000;0.5234;-3.3970;
620.7000;0.5210;-3.4069;
621.0000;0.5234;-3.4094;
621.3000;0.5169;-3.4243;
621.6000;0.5177;-3.4169;
621.9000;0.5153;-3.4218;
622.2000;0.5153;-3.4293;
622.5000;0.5063;-3.4367;
622.8000;0.5079;-3.4343;
623.1000;0.5128;-3.4119;
623.4000;0.5120;-3.4119;
623.7000;0.5104;-3.4169;
624.0000;0.5112;-3.4218;
624.3000;0.5079;-3.4343;
624.6000;0.5079;-3.4293;
624.9000;0.5055;-3.4268;
625.2000;0.5071;-3.4243;
625.5000;0.5039;-3.4318;
625.8000;0.5055;-3.4268;
626.1000;0.5047;-3.4169;
626.4000;0.5047;-3.4169;
626.7000;0.5047;-3.4144;
627.0000;0.5136;-3.3820;
627.3000;0.5014;-3.4169;
627.6000;0.5006;-3.4169;
627.9000;0.4998;-3.4243;
628.2000;0.4998;-3.4293;
628.5000;0.5006;-3.4318;
628.8000;0.4982;-3.4467;
629.1000;0.4974;-3.4343;
629.4000;0.4974;-3.4243;
629.7000;0.4949;-3.4243;
630.0000;0.4941;-3.4193;
630.3000;0.4941;-3.4243;
630.6000;0.4974;-3.4169;
630.9000;0.4949;-3.4218;
631.2000;0.4900;-3.4268;
631.5000;0.4917;-3.4193;
631.8000;0.4908;-3.4169;
632.1000;0.4900;-3.4169;
632.4000;0.4900;-3.4218;
632.7000;0.4908;-3.4218;
633.0000;0.4892;-3.4268;
633.3000;0.4900;-3.4268;
633.6000;0.4892;-3.4268;
633.9000;0.4884;-3.4218;
634.2000;0.4892;-3.4119;
634.5000;0.4884;-3.4094;
634.8000;0.4868;-3.4243;
635.1000;0.4851;-3.4268;
635.4000;0.4860;-3.4193;
635.7000;0.4843;-3.4193;
636.0000;0.4868;-3.4169;
636.3000;0.4819;-3.4268;
636.6000;0.4819;-3.4243;
636.9000;0.4819;-3.4193;
637.2000;0.4803;-3.4144;
637.5000;0.4803;-3.4243;
637.8000;0.4803;-3.4268;
638.1000;0.4762;-3.4367;
638.4000;0.4786;-3.4318;
638.7000;0.4778;-3.4293;
639.0000;0.4770;-3.4318;
639.3000;0.4770;-3.4193;
639.6000;0.4811;-3.4094;
639.9000;0.4778;-3.4119;
640.2000;0.4786;-3.4094;
640.5000;0.4754;-3.4119;
640.8000;0.4746;-3.4119;
641.1000;0.4762;-3.4119;
641.4000;0.4762;-3.3994;
641.7000;0.4746;-3.3920;
642.0000;0.4737;-3.3994;
642.3000;0.4713;-3.3920;
642.6000;0.4778;-3.3820;
642.9000;0.4762;-3.3895;
643.2000;0.4729;-3.3920;
643.5000;0.4737;-3.3870;
643.8000;0.4721;-3.3895;
644.1000;0.4705;-3.3994;
644.4000;0.4737;-3.3945;
644.7000;0.4705;-3.4019;
645.0000;0.4721;-3.4044;
645.3000;0.4721;-3.4094;
645.6000;0.4689;-3.4268;
645.9000;0.4697;-3.4243;
646.2000;0.4632;-3.4392;
646.5000;0.4729;-3.4144;
646.8000;0.4729;-3.4169;
647.1000;0.4681;-3.4318;
647.4000;0.4689;-3.4293;
647.7000;0.4672;-3.4367;
648.0000;0.4672;-3.4392;
648.3000;0.4681;-3.4243;
648.6000;0.4656;-3.4193;
648.9000;0.4672;-3.4094;
649.2000;0.4672;-3.4019;
649.5000;0.4672;-3.3870;
649.8000;0.4681;-3.3845;
650.1000;0.4664;-3.3895;
650.4000;0.4681;-3.3895;
650.7000;0.4656;-3.3845;
651.0000;0.4648;-3.3870;
651.3000;0.4656;-3.3920;
651.6000;0.4664;-3.3945;
651.9000;0.4656;-3.4069;
652.2000;0.4640;-3.4094;
652.5000;0.4640;-3.4144;
652.8000;0.4640;-3.4019;
653.1000;0.4567;-3.4144;
653.4000;0.4632;-3.3945;
653.7000;0.4624;-3.3970;
654.0000;0.4607;-3.4094;
654.3000;0.4632;-3.4094;
654.6000;0.4615;-3.4094;
654.9000;0.4607;-3.4193;
655.2000;0.4624;-3.4169;
655.5000;0.4607;-3.4019;
655.8000;0.4624;-3.3945;
656.1000;0.4599;-3.3994;
656.4000;0.4615;-3.3970;
656.7000;0.4615;-3.3895;
657.0000;0.4624;-3.3870;
657.3000;0.4615;-3.4019;
657.6000;0.4648;-3.3870;
657.9000;0.4615;-3.3920;
658.2000;0.4607;-3.3970;
658.5000;0.4599;-3.3970;
658.8000;0.4591;-3.4019;
659.1000;0.4599;-3.3970;
659.4000;0.4591;-3.3945;
659.7000;0.4607;-3.3945;
660.0000;0.4599;-3.3945;
660.3000;0.4583;-3.3994;
660.6000;0.4599;-3.3970;
660.9000;0.4575;-3.4044;
661.2000;0.4550;-3.4169;
661.5000;0.4583;-3.4094;
661.8000;0.4591;-3.4169;
662.1000;0.4599;-3.4193;
662.4000;0.4583;-3.4218;
662.7000;0.4550;-3.4343;
663.0000;0.4558;-3.4367;
663.3000;0.4567;-3.4318;
663.6000;0.4558;-3.4367;
663.9000;0.4567;-3.4343;
664.2000;0.4558;-3.4218;
664.5000;0.4567;-3.4169;
664.8000;0.4526;-3.4268;
665.1000;0.4558;-3.4218;
665.4000;0.4534;-3.4243;
665.7000;0.4607;-3.4144;
666.0000;0.4558;-3.4293;
666.3000;0.4542;-3.4268;
666.6000;0.4534;-3.4318;
666.9000;0.4542;-3.4218;
667.2000;0.4534;-3.4193;
667.5000;0.4518;-3.4318;
667.8000;0.4542;-3.4318;
668.1000;0.4518;-3.4392;
668.4000;0.4558;-3.4243;
668.7000;0.4526;-3.4293;
669.0000;0.4518;-3.4343;
669.3000;0.4542;-3.4268;
669.6000;0.4534;-3.4268;
669.9000;0.4542;-3.4243;
670.2000;0.4526;-3.4343;
670.5000;0.4550;-3.4268;
670.8000;0.4518;-3.4417;
671.1000;0.4526;-3.4343;
671.4000;0.4542;-3.4343;
671.7000;0.4518;-3.4343;
672.0000;0.4510;-3.4343;
672.3000;0.4510;-3.4318;
672.6000;0.4526;-3.4343;
672.9000;0.4510;-3.4367;
673.2000;0.4510;-3.4343;
673.5000;0.4518;-3.4318;
673.8000;0.4518;-3.4343;
674.1000;0.4526;-3.4392;
674.4000;0.4485;-3.4392;
674.7000;0.4493;-3.4293;
675.0000;0.4510;-3.4144;
675.3000;0.4501;-3.4193;
675.6000;0.4510;-3.4193;
675.9000;0.4493;-3.4144;
676.2000;0.4501;-3.4069;
676.5000;0.4510;-3.4169;
676.8000;0.4493;-3.4169;
677.1000;0.4396;-3.4392;
677.4000;0.4493;-3.4119;
677.7000;0.4379;-3.4367;
678.0000;0.4461;-3.4144;
678.3000;0.4493;-3.4044;
678.6000;0.4477;-3.4144;
678.9000;0.4518;-3.3920;
679.2000;0.4493;-3.3970;
679.5000;0.4485;-3.3994;
679.8000;0.4485;-3.3945;
680.1000;0.4485;-3.3970;
680.4000;0.4510;-3.4019;
680.7000;0.4477;-3.4094;
681.0000;0.4493;-3.4069;
681.3000;0.4493;-3.4019;
681.6000;0.4493;-3.4119;
681.9000;0.4493;-3.4069;
682.2000;0.4477;-3.4094;
682.5000;0.4485;-3.4019;
682.8000;0.4493;-3.4044;
683.1000;0.4461;-3.4193;
683.4000;0.4501;-3.4169;
683.7000;0.4501;-3.4119;
684.0000;0.4493;-3.4044;
684.3000;0.4493;-3.4044;
684.6000;0.4477;-3.4069;
684.9000;0.4469;-3.4044;
685.2000;0.4461;-3.4094;
685.5000;0.4477;-3.4094;
685.8000;0.4477;-3.4169;
686.1000;0.4477;-3.4069;
686.4000;0.4477;-3.4144;
686.7000;0.4469;-3.4193;
687.0000;0.4469;-3.4144;
687.3000;0.4477;-3.4144;
687.6000;0.4477;-3.4144;
687.9000;0.4469;-3.4144;
688.2000;0.4444;-3.4268;
688.5000;0.4453;-3.4243;
688.8000;0.4444;-3.4218;
689.1000;0.4493;-3.4094;
689.4000;0.4453;-3.4218;
689.7000;0.4477;-3.4069;
690.0000;0.4461;-3.4119;
690.3000;0.4477;-3.4019;
690.6000;0.4461;-3.4044;
690.9000;0.4444;-3.4019;
691.2000;0.4453;-3.4094;
691.5000;0.4485;-3.3970;
691.8000;0.4453;-3.4094;
692.1000;0.4477;-3.3994;
692.4000;0.4444;-3.4044;
692.7000;0.4469;-3.4044;
693.0000;0.4444;-3.4119;
693.3000;0.4493;-3.4094;
693.6000;0.4453;-3.4144;
693.9000;0.4436;-3.4218;
694.2000;0.4396;-3.4268;
694.5000;0.4444;-3.4119;
694.8000;0.4453;-3.4044;
695.1000;0.4453;-3.4119;
695.4000;0.4428;-3.4268;
695.7000;0.4412;-3.4293;
696.0000;0.4461;-3.4218;
696.3000;0.4453;-3.4243;
696.6000;0.4428;-3.4243;
696.9000;0.4461;-3.4169;
697.2000;0.4469;-3.4144;
697.5000;0.4453;-3.4193;
697.8000;0.4436;-3.4169;
698.1000;0.4444;-3.4144;
698.4000;0.4420;-3.4193;
698.7000;0.4453;-3.4069;
699.0000;0.4436;-3.3994;
699.3000;0.4420;-3.3920;
699.6000;0.4444;-3.3870;
699.9000;0.4453;-3.3895;
700.2000;0.4444;-3.3920;
700.5000;0.4436;-3.3945;
700.8000;0.4412;-3.4019;
701.1000;0.4404;-3.4019;
701.4000;0.4412;-3.4094;
701.7000;0.4420;-3.4094;
702.0000;0.4428;-3.4119;
702.3000;0.4428;-3.4218;
702.6000;0.4436;-3.4193;
702.9000;0.4412;-3.4218;
703.2000;0.4420;-3.4218;
703.5000;0.4501;-3.4019;
703.8000;0.4444;-3.4119;
704.1000;0.4412;-3.4218;
704.4000;0.4428;-3.4193;
704.7000;0.4453;-3.4119;
705.0000;0.4404;-3.4268;
705.3000;0.4428;-3.4193;
705.6000;0.4379;-3.4268;
705.9000;0.4428;-3.4193;
706.2000;0.4396;-3.4218;
706.5000;0.4436;-3.4169;
706.8000;0.4412;-3.4268;
707.1000;0.4404;-3.4343;
707.4000;0.4387;-3.4417;
707.7000;0.4420;-3.4268;
708.0000;0.4404;-3.4318;
708.3000;0.4412;-3.4367;
708.6000;0.4379;-3.4367;
708.9000;0.4412;-3.4293;
709.2000;0.4485;-3.4069;
709.5000;0.4396;-3.4293;
709.8000;0.4404;-3.4268;
710.1000;0.4396;-3.4293;
710.4000;0.4404;-3.4343;
710.7000;0.4404;-3.4268;
711.0000;0.4444;-3.4144;
711.3000;0.4387;-3.4243;
711.6000;0.4404;-3.4193;
711.9000;0.4396;-3.4193;
712.2000;0.4387;-3.4268;
712.5000;0.4371;-3.4318;
712.8000;0.4420;-3.4293;
713.1000;0.4412;-3.4243;
713.4000;0.4412;-3.4318;
713.7000;0.4396;-3.4343;
714.0000;0.4404;-3.4318;
714.3000;0.4387;-3.4293;
714.6000;0.4412;-3.4268;
714.9000;0.4436;-3.4193;
715.2000;0.4387;-3.4293;
715.5000;0.4404;-3.4268;
715.8000;0.4379;-3.4343;
716.1000;0.4363;-3.4318;
716.4000;0.4387;-3.4318;
716.7000;0.4412;-3.4318;
717.0000;0.4347;-3.4442;
717.3000;0.4355;-3.4392;
717.6000;0.4396;-3.4343;
717.9000;0.4387;-3.4367;
718.2000;0.4396;-3.4293;
718.5000;0.4396;-3.4293;
718.8000;0.4493;-3.4044;
719.1000;0.4387;-3.4293;
719.4000;0.4420;-3.4243;
719.7000;0.4412;-3.4268;
720.0000;0.4371;-3.4367;
720.3000;0.4379;-3.4367;
720.6000;0.4396;-3.4343;
720.9000;0.4371;-3.4343;
721.2000;0.4387;-3.4243;
721.5000;0.4428;-3.4069;
721.8000;0.4396;-3.4169;
722.1000;0.4396;-3.4144;
722.4000;0.4404;-3.4193;
722.7000;0.4363;-3.4318;
723.0000;0.4379;-3.4218;
723.3000;0.4396;-3.4144;
723.6000;0.4396;-3.4094;
723.9000;0.4387;-3.4218;
724.2000;0.4379;-3.4169;
724.5000;0.4371;-3.4169;
724.8000;0.4379;-3.4218;
725.1000;0.4396;-3.4218;
725.4000;0.4387;-3.4243;
725.7000;0.4371;-3.4268;
726.0000;0.4404;-3.4193;
726.3000;0.4387;-3.4169;
726.6000;0.4379;-3.4193;
726.9000;0.4387;-3.4268;
727.2000;0.4396;-3.4243;
727.5000;0.4379;-3.4293;
727.8000;0.4396;-3.4293;
728.1000;0.4396;-3.4293;
728.4000;0.4363;-3.4318;
728.7000;0.4396;-3.4218;
729.0000;0.4363;-3.4293;
729.3000;0.4396;-3.4268;
729.6000;0.4363;-3.4367;
729.9000;0.4387;-3.4293;
730.2000;0.4387;-3.4318;
730.5000;0.4396;-3.4318;
730.8000;0.4396;-3.4367;
731.1000;0.4412;-3.4318;
731.4000;0.4412;-3.4243;
731.7000;0.4396;-3.4243;
732.0000;0.4347;-3.4293;
732.3000;0.4330;-3.4318;
732.6000;0.4396;-3.4119;
732.9000;0.4379;-3.4119;
733.2000;0.4477;-3.3920;
733.5000;0.4404;-3.4218;
733.8000;0.4412;-3.4094;
734.1000;0.4355;-3.4218;
734.4000;0.4387;-3.4144;
734.7000;0.4371;-3.4144;
735.0000;0.4412;-3.4119;
735.3000;0.4387;-3.4243;
735.6000;0.4387;-3.4193;
735.9000;0.4379;-3.4193;
736.2000;0.4379;-3.4069;
736.5000;0.4396;-3.4119;
736.8000;0.4355;-3.4169;
737.1000;0.4379;-3.4193;
737.4000;0.4379;-3.4218;
737.7000;0.4379;-3.4169;
738.0000;0.4387;-3.4169;
738.3000;0.4379;-3.4243;
738.6000;0.4404;-3.4193;
738.9000;0.4363;-3.4268;
739.2000;0.4396;-3.4218;
739.5000;0.4396;-3.4243;
739.8000;0.4347;-3.4293;
740.1000;0.4355;-3.4218;
740.4000;0.4322;-3.4243;
740.7000;0.4363;-3.4169;
741.0000;0.4347;-3.4218;
741.3000;0.4347;-3.4144;
741.6000;0.4371;-3.4119;
741.9000;0.4371;-3.4119;
742.2000;0.4347;-3.4144;
742.5000;0.4355;-3.4169;
742.8000;0.4257;-3.4367;
743.1000;0.4404;-3.3895;
743.4000;0.4363;-3.4019;
743.7000;0.4355;-3.4044;
744.0000;0.4387;-3.3994;
744.3000;0.4363;-3.3994;
744.6000;0.4379;-3.3994;
744.9000;0.4371;-3.4019;
745.2000;0.4379;-3.3994;
745.5000;0.4371;-3.3994;
745.8000;0.4379;-3.3970;
746.1000;0.4412;-3.3845;
746.4000;0.4339;-3.3945;
746.7000;0.4355;-3.3945;
747.0000;0.4387;-3.4019;
747.3000;0.4379;-3.4119;
747.6000;0.4371;-3.4193;
747.9000;0.4363;-3.4293;
748.2000;0.4379;-3.4268;
748.5000;0.4379;-3.4318;
748.8000;0.4363;-3.4392;
749.1000;0.4363;-3.4318;
749.4000;0.4339;-3.4318;
749.7000;0.4387;-3.4193;
750.0000;0.4371;-3.4193;
750.3000;0.4355;-3.4218;
750.6000;0.4387;-3.4144;
750.9000;0.4371;-3.4094;
751.2000;0.4387;-3.4169;
751.5000;0.4387;-3.4193;
751.8000;0.4363;-3.4268;
752.1000;0.4330;-3.4343;
752.4000;0.4404;-3.4243;
752.7000;0.4363;-3.4318;
753.0000;0.4387;-3.4243;
753.3000;0.4363;-3.4218;
753.6000;0.4371;-3.4169;
753.9000;0.4363;-3.4193;
754.2000;0.4379;-3.4044;
754.5000;0.4371;-3.4144;
754.8000;0.4355;-3.4119;
755.1000;0.4347;-3.4119;
755.4000;0.4347;-3.4193;
755.7000;0.4339;-3.4218;
756.0000;0.4396;-3.4044;
756.3000;0.4379;-3.4094;
756.6000;0.4371;-3.4169;
756.9000;0.4363;-3.4218;
757.2000;0.4355;-3.4169;
757.5000;0.4371;-3.4144;
757.8000;0.4363;-3.4119;
758.1000;0.4355;-3.4069;
758.4000;0.4428;-3.3945;
758.7000;0.4379;-3.4044;
759.0000;0.4363;-3.4069;
759.3000;0.4396;-3.3945;
759.6000;0.4355;-3.4019;
759.9000;0.4371;-3.3970;
760.2000;0.4355;-3.4069;
760.5000;0.4355;-3.4218;
760.8000;0.4347;-3.4343;
761.1000;0.4387;-3.4268;
761.4000;0.4396;-3.4218;
761.7000;0.4322;-3.4268;
762.0000;0.4379;-3.4119;
762.3000;0.4420;-3.3994;
762.6000;0.4330;-3.4169;
762.9000;0.4347;-3.4119;
763.2000;0.4306;-3.4169;
763.5000;0.4355;-3.4019;
763.8000;0.4363;-3.3945;
764.1000;0.4347;-3.3920;
764.4000;0.4371;-3.3920;
764.7000;0.4347;-3.3920;
765.0000;0.4363;-3.3870;
765.3000;0.4371;-3.3870;
765.6000;0.4347;-3.3920;
765.9000;0.4355;-3.3895;
766.2000;0.4330;-3.3994;
766.5000;0.4339;-3.3895;
766.8000;0.4355;-3.3895;
767.1000;0.4274;-3.4169;
767.4000;0.4339;-3.4069;
767.7000;0.4347;-3.4094;
768.0000;0.4363;-3.4119;
768.3000;0.4355;-3.4069;
768.6000;0.4330;-3.4119;
768.9000;0.4363;-3.4193;
769.2000;0.4379;-3.4119;
769.5000;0.4363;-3.4169;
769.8000;0.4371;-3.4094;
770.1000;0.4363;-3.4094;
770.4000;0.4379;-3.4119;
770.7000;0.4322;-3.4268;
771.0000;0.4355;-3.4218;
771.3000;0.4347;-3.4144;
771.6000;0.4355;-3.4193;
771.9000;0.4274;-3.4417;
772.2000;0.4379;-3.4169;
772.5000;0.4355;-3.4268;
772.8000;0.4355;-3.4218;
773.1000;0.4339;-3.4268;
773.4000;0.4363;-3.4218;
773.7000;0.4363;-3.4218;
774.0000;0.4363;-3.4144;
774.3000;0.4371;-3.4069;
774.6000;0.4355;-3.4169;
774.9000;0.4298;-3.4268;
775.2000;0.4330;-3.4193;
775.5000;0.4339;-3.4119;
775.8000;0.4347;-3.3970;
776.1000;0.4347;-3.3970;
776.4000;0.4347;-3.3945;
776.7000;0.4339;-3.3994;
777.0000;0.4363;-3.3945;
777.3000;0.4371;-3.4019;
777.6000;0.4314;-3.4119;
777.9000;0.4347;-3.4094;
778.2000;0.4298;-3.4193;
778.5000;0.4363;-3.4069;
778.8000;0.4347;-3.4069;
779.1000;0.4355;-3.4019;
779.4000;0.4306;-3.4094;
779.7000;0.4347;-3.4044;
780.0000;0.4347;-3.4144;
780.3000;0.4428;-3.3895;
780.6000;0.4355;-3.3994;
780.9000;0.4347;-3.3994;
781.2000;0.4339;-3.4044;
781.5000;0.4322;-3.3994;
781.8000;0.4363;-3.3870;
782.1000;0.4347;-3.3920;
782.4000;0.4355;-3.3970;
782.7000;0.4339;-3.3945;
783.0000;0.4330;-3.3970;
783.3000;0.4363;-3.3945;
783.6000;0.4363;-3.3920;
783.9000;0.4347;-3.3870;
784.2000;0.4339;-3.3920;
784.5000;0.4347;-3.3994;
784.8000;0.4314;-3.4094;
785.1000;0.4347;-3.4019;
785.4000;0.4428;-3.3845;
785.7000;0.4363;-3.4069;
786.0000;0.4347;-3.4119;
786.3000;0.4233;-3.4467;
786.6000;0.4355;-3.4169;
786.9000;0.4298;-3.4218;
787.2000;0.4355;-3.3970;
787.5000;0.4347;-3.4044;
787.8000;0.4290;-3.4193;
788.1000;0.4347;-3.4069;
788.4000;0.4322;-3.3994;
788.7000;0.4347;-3.3970;
789.0000;0.4363;-3.3945;
789.3000;0.4347;-3.3970;
789.6000;0.4339;-3.4019;
789.9000;0.4355;-3.4019;
790.2000;0.4363;-3.3994;
790.5000;0.4339;-3.4119;
790.8000;0.4347;-3.4144;
791.1000;0.4347;-3.4169;
791.4000;0.4339;-3.4268;
791.7000;0.4420;-3.4094;
792.0000;0.4355;-3.4218;
792.3000;0.4330;-3.4218;
792.6000;0.4330;-3.4218;
792.9000;0.4306;-3.4367;
793.2000;0.4347;-3.4218;
793.5000;0.4330;-3.4243;
793.8000;0.4355;-3.4169;
794.1000;0.4347;-3.4193;
794.4000;0.4322;-3.4218;
794.7000;0.4355;-3.4094;
795.0000;0.4355;-3.4094;
795.3000;0.4339;-3.4069;
795.6000;0.4355;-3.4119;
795.9000;0.4347;-3.4144;
796.2000;0.4339;-3.4169;
796.5000;0.4363;-3.4094;
796.8000;0.4347;-3.4044;
797.1000;0.4355;-3.4019;
797.4000;0.4322;-3.4094;
797.7000;0.4347;-3.4044;
798.0000;0.4330;-3.4069;
798.3000;0.4355;-3.4094;
798.6000;0.4330;-3.4169;
798.9000;0.4469;-3.3796;
799.2000;0.4347;-3.4119;
799.5000;0.4314;-3.4144;
799.8000;0.4330;-3.4069;
800.1000;0.4330;-3.4019;
800.4000;0.4339;-3.3945;
800.7000;0.4339;-3.3920;
801.0000;0.4330;-3.3920;
801.3000;0.4330;-3.3945;
801.6000;0.4330;-3.3994;
801.9000;0.4339;-3.4094;
802.2000;0.4322;-3.4218;
802.5000;0.4330;-3.4218;
802.8000;0.4322;-3.4293;
803.1000;0.4339;-3.4318;
803.4000;0.4330;-3.4293;
803.7000;0.4347;-3.4169;
804.0000;0.4371;-3.4144;
804.3000;0.4339;-3.4094;
804.6000;0.4347;-3.3994;
804.9000;0.4347;-3.3945;
805.2000;0.4330;-3.3970;
805.5000;0.4347;-3.3920;
805.8000;0.4363;-3.3920;
806.1000;0.4347;-3.3945;
806.4000;0.4322;-3.3920;
806.7000;0.4298;-3.3920;
807.0000;0.4314;-3.3920;
807.3000;0.4363;-3.3771;
807.6000;0.4371;-3.3820;
807.9000;0.4347;-3.3970;
808.2000;0.4314;-3.4019;
808.5000;0.4339;-3.3920;
808.8000;0.4298;-3.3970;
809.1000;0.4387;-3.3771;
809.4000;0.4339;-3.3895;
809.7000;0.4306;-3.3994;
810.0000;0.4379;-3.3820;
810.3000;0.4347;-3.3895;
810.6000;0.4339;-3.3945;
810.9000;0.4330;-3.3895;
811.2000;0.4314;-3.3994;
811.5000;0.4347;-3.3845;
811.8000;0.4363;-3.3796;
812.1000;0.4339;-3.3895;
812.4000;0.4347;-3.3920;
812.7000;0.4355;-3.3870;
813.0000;0.4420;-3.3771;
813.3000;0.4363;-3.3920;
813.6000;0.4355;-3.4019;
813.9000;0.4363;-3.3994;
814.2000;0.4330;-3.4094;
814.5000;0.4330;-3.4144;
814.8000;0.4355;-3.4094;
815.1000;0.4363;-3.4144;
815.4000;0.4339;-3.4193;
815.7000;0.4330;-3.4094;
816.0000;0.4330;-3.4069;
816.3000;0.4347;-3.4044;
816.6000;0.4339;-3.4094;
816.9000;0.4306;-3.4069;
817.2000;0.4347;-3.4119;
817.5000;0.4330;-3.4094;
817.8000;0.4347;-3.4044;
818.1000;0.4306;-3.4144;
818.4000;0.4330;-3.4019;
818.7000;0.4347;-3.3920;
819.0000;0.4330;-3.3920;
819.3000;0.4282;-3.4019;
819.6000;0.4355;-3.3870;
819.9000;0.4339;-3.3895;
820.2000;0.4363;-3.3920;
820.5000;0.4339;-3.4019;
820.8000;0.4314;-3.4094;
821.1000;0.4330;-3.4044;
821.4000;0.4355;-3.3895;
821.7000;0.4330;-3.3994;
822.0000;0.4347;-3.3970;
822.3000;0.4339;-3.4044;
822.6000;0.4347;-3.4069;
822.9000;0.4347;-3.4069;
823.2000;0.4355;-3.4019;
823.5000;0.4347;-3.4044;
823.8000;0.4306;-3.4169;
824.1000;0.4379;-3.4044;
824.4000;0.4347;-3.4119;
824.7000;0.4347;-3.4144;
825.0000;0.4339;-3.4094;
825.3000;0.4265;-3.4318;
825.6000;0.4339;-3.3994;
825.9000;0.4314;-3.4144;
826.2000;0.4322;-3.4094;
826.5000;0.4355;-3.4019;
826.8000;0.4330;-3.4044;
827.1000;0.4298;-3.4094;
827.4000;0.4355;-3.3945;
827.7000;0.4322;-3.3994;
828.0000;0.4330;-3.3994;
828.3000;0.4314;-3.4019;
828.6000;0.4330;-3.3994;
828.9000;0.4330;-3.4094;
829.2000;0.4330;-3.4094;
829.5000;0.4330;-3.4094;
829.8000;0.4257;-3.4343;
830.1000;0.4355;-3.4119;
830.4000;0.4339;-3.4169;
830.7000;0.4347;-3.4119;
831.0000;0.4314;-3.4243;
831.3000;0.4339;-3.4243;
831.6000;0.4322;-3.4293;
831.9000;0.4257;-3.4442;
832.2000;0.4306;-3.4367;
832.5000;0.4330;-3.4467;
832.8000;0.4330;-3.4442;
833.1000;0.4330;-3.4417;
833.4000;0.4322;-3.4343;
833.7000;0.4330;-3.4293;
834.0000;0.4322;-3.4392;
834.3000;0.4322;-3.4417;
834.6000;0.4322;-3.4367;
834.9000;0.4330;-3.4268;
835.2000;0.4314;-3.4243;
835.5000;0.4298;-3.4343;
835.8000;0.4347;-3.4218;
836.1000;0.4347;-3.4293;
836.4000;0.4420;-3.4144;
836.7000;0.4347;-3.4343;
837.0000;0.4339;-3.4343;
837.3000;0.4330;-3.4343;
837.6000;0.4322;-3.4467;
837.9000;0.4339;-3.4392;
838.2000;0.4330;-3.4392;
838.5000;0.4330;-3.4343;
838.8000;0.4322;-3.4442;
839.1000;0.4330;-3.4343;
839.4000;0.4339;-3.4243;
839.7000;0.4322;-3.4193;
840.0000;0.4322;-3.4169;
840.3000;0.4314;-3.4193;
840.6000;0.4306;-3.4169;
840.9000;0.4257;-3.4218;
841.2000;0.4314;-3.4144;
841.5000;0.4330;-3.4069;
841.8000;0.4330;-3.4119;
842.1000;0.4322;-3.4094;
842.4000;0.4339;-3.4069;
842.7000;0.4339;-3.4044;
843.0000;0.4306;-3.4119;
843.3000;0.4347;-3.4019;
843.6000;0.4347;-3.4044;
843.9000;0.4339;-3.4069;
844.2000;0.4330;-3.4119;
844.5000;0.4322;-3.4193;
844.8000;0.4330;-3.4144;
845.1000;0.4330;-3.4243;
845.4000;0.4330;-3.4169;
845.7000;0.4339;-3.4193;
846.0000;0.4322;-3.4268;
846.3000;0.4322;-3.4169;
846.6000;0.4339;-3.4144;
846.9000;0.4322;-3.4293;
847.2000;0.4330;-3.4293;
847.5000;0.4314;-3.4293;
847.8000;0.4322;-3.4268;
848.1000;0.4322;-3.4218;
848.4000;0.4330;-3.4094;
848.7000;0.4314;-3.4119;
849.0000;0.4330;-3.4094;
849.3000;0.4330;-3.4094;
849.6000;0.4314;-3.4094;
849.9000;0.4339;-3.4044;
850.2000;0.4160;-3.4542;
850.5000;0.4330;-3.4169;
850.8000;0.4314;-3.4218;
851.1000;0.4314;-3.4069;
851.4000;0.4322;-3.3994;
851.7000;0.4322;-3.4019;
852.0000;0.4322;-3.4019;
852.3000;0.4322;-3.3945;
852.6000;0.4306;-3.3994;
852.9000;0.4298;-3.4144;
853.2000;0.4330;-3.4169;
853.5000;0.4330;-3.4069;
853.8000;0.4404;-3.3920;
854.1000;0.4322;-3.4094;
854.4000;0.4347;-3.4193;
854.7000;0.4314;-3.4293;
855.0000;0.4339;-3.4318;
855.3000;0.4371;-3.4268;
855.6000;0.4330;-3.4243;
855.9000;0.4339;-3.4243;
856.2000;0.4330;-3.4218;
856.5000;0.4330;-3.4243;
856.8000;0.4339;-3.4094;
857.1000;0.4339;-3.4144;
857.4000;0.4330;-3.4119;
857.7000;0.4330;-3.4193;
858.0000;0.4339;-3.4169;
858.3000;0.4322;-3.4218;
858.6000;0.4339;-3.4243;
858.9000;0.4339;-3.4169;
859.2000;0.4314;-3.4144;
859.5000;0.4322;-3.4119;
859.8000;0.4330;-3.4044;
860.1000;0.4322;-3.4069;
860.4000;0.4330;-3.4044;
860.7000;0.4322;-3.4019;
861.0000;0.4298;-3.4119;
861.3000;0.4306;-3.4144;
861.6000;0.4330;-3.4094;
861.9000;0.4314;-3.4069;
862.2000;0.4314;-3.4019;
862.5000;0.4322;-3.4044;
862.8000;0.4347;-3.3970;
863.1000;0.4322;-3.4119;
863.4000;0.4339;-3.4069;
863.7000;0.4330;-3.4069;
864.0000;0.4371;-3.3920;
864.3000;0.4314;-3.4144;
864.6000;0.4330;-3.4094;
864.9000;0.4347;-3.4094;
865.2000;0.4314;-3.4119;
865.5000;0.4330;-3.4044;
865.8000;0.4339;-3.4069;
866.1000;0.4330;-3.4094;
866.4000;0.4298;-3.4218;
866.7000;0.4330;-3.4069;
867.0000;0.4396;-3.3696;
867.3000;0.4322;-3.3920;
867.6000;0.4322;-3.3920;
867.9000;0.4347;-3.3970;
868.2000;0.4339;-3.4069;
868.5000;0.4322;-3.4094;
868.8000;0.4322;-3.4094;
869.1000;0.4339;-3.4069;
869.4000;0.4314;-3.4119;
869.7000;0.4339;-3.4094;
870.0000;0.4347;-3.4169;
870.3000;0.4330;-3.4169;
870.6000;0.4322;-3.4243;
870.9000;0.4339;-3.4144;
871.2000;0.4363;-3.4119;
871.5000;0.4339;-3.4243;
871.8000;0.4347;-3.4193;
872.1000;0.4347;-3.4169;
872.4000;0.4339;-3.4218;
872.7000;0.4339;-3.4193;
873.0000;0.4347;-3.4169;
873.3000;0.4322;-3.4243;
873.6000;0.4339;-3.4119;
873.9000;0.4339;-3.4169;
874.2000;0.4355;-3.4044;
874.5000;0.4330;-3.4119;
874.8000;0.4330;-3.4069;
875.1000;0.4322;-3.4069;
875.4000;0.4322;-3.4069;
875.7000;0.4322;-3.4144;
876.0000;0.4314;-3.4218;
876.3000;0.4330;-3.4218;
876.6000;0.4306;-3.4367;
876.9000;0.4322;-3.4343;
877.2000;0.4314;-3.4367;
877.5000;0.4322;-3.4268;
877.8000;0.4347;-3.4169;
878.1000;0.4347;-3.4218;
878.4000;0.4306;-3.4318;
878.7000;0.4314;-3.4293;
879.0000;0.4330;-3.4169;
879.3000;0.4290;-3.4268;
879.6000;0.4347;-3.4094;
879.9000;0.4306;-3.4218;
880.2000;0.4306;-3.4218;
880.5000;0.4274;-3.4392;
880.8000;0.4298;-3.4293;
881.1000;0.4314;-3.4268;
881.4000;0.4339;-3.4243;
881.7000;0.4339;-3.4343;
882.0000;0.4314;-3.4417;
882.3000;0.4330;-3.4318;
882.6000;0.4265;-3.4367;
882.9000;0.4290;-3.4343;
883.2000;0.4339;-3.4193;
883.5000;0.4290;-3.4193;
883.8000;0.4347;-3.4069;
884.1000;0.4355;-3.3945;
884.4000;0.4339;-3.4069;
884.7000;0.4387;-3.3870;
885.0000;0.4298;-3.4044;
885.3000;0.4330;-3.3970;
885.6000;0.4322;-3.3994;
885.9000;0.4322;-3.3994;
886.2000;0.4330;-3.3945;
886.5000;0.4306;-3.4044;
886.8000;0.4322;-3.4119;
887.1000;0.4274;-3.4318;
887.4000;0.4306;-3.4243;
887.7000;0.4412;-3.3970;
888.0000;0.4257;-3.4367;
888.3000;0.4322;-3.4243;
888.6000;0.4265;-3.4293;
888.9000;0.4241;-3.4343;
889.2000;0.4322;-3.4293;
889.5000;0.4322;-3.4293;
889.8000;0.4347;-3.4293;
890.1000;0.4322;-3.4218;
890.4000;0.4306;-3.4169;
890.7000;0.4347;-3.4119;
891.0000;0.4306;-3.4218;
891.3000;0.4306;-3.4193;
891.6000;0.4314;-3.4044;
891.9000;0.4314;-3.4119;
892.2000;0.4298;-3.4119;
892.5000;0.4314;-3.4119;
892.8000;0.4298;-3.4243;
893.1000;0.4322;-3.4218;
893.4000;0.4339;-3.4119;
893.7000;0.4314;-3.4144;
894.0000;0.4322;-3.4094;
894.3000;0.4339;-3.4069;
894.6000;0.4339;-3.3970;
894.9000;0.4322;-3.4044;
895.2000;0.4347;-3.4019;
895.5000;0.4330;-3.3920;
895.8000;0.4314;-3.3945;
896.1000;0.4339;-3.3920;
896.4000;0.4322;-3.4019;
896.7000;0.4290;-3.4193;
897.0000;0.4322;-3.4193;
897.3000;0.4282;-3.4268;
897.6000;0.4322;-3.4144;
897.9000;0.4306;-3.4119;
898.2000;0.4396;-3.3970;
898.5000;0.4363;-3.4069;
898.8000;0.4330;-3.4169;
899.1000;0.4314;-3.4293;
899.4000;0.4322;-3.4169;
899.7000;0.4330;-3.4044;
900.0000;0.4298;-3.4019;
900.3000;0.4306;-3.4094;
900.6000;0.4330;-3.4094;
900.9000;0.4314;-3.4218;
901.2000;0.4314;-3.4218;
901.5000;0.4339;-3.4218;
901.8000;0.4314;-3.4243;
902.1000;0.4347;-3.4094;
902.4000;0.4363;-3.4119;
902.7000;0.4322;-3.4193;
903.0000;0.4330;-3.4119;
903.3000;0.4330;-3.4218;
903.6000;0.4330;-3.4193;
903.9000;0.4314;-3.4169;
904.2000;0.4306;-3.4243;
904.5000;0.4290;-3.4293;
904.8000;0.4339;-3.4094;
905.1000;0.4298;-3.4193;
905.4000;0.4347;-3.4094;
905.7000;0.4355;-3.4069;
906.0000;0.4314;-3.4119;
906.3000;0.4412;-3.3870;
906.6000;0.4339;-3.4044;
906.9000;0.4322;-3.4044;
907.2000;0.4339;-3.3895;
907.5000;0.4322;-3.3970;
907.8000;0.4306;-3.3994;
908.1000;0.4339;-3.3970;
908.4000;0.4339;-3.3920;
908.7000;0.4339;-3.3870;
909.0000;0.4290;-3.4044;
909.3000;0.4306;-3.4069;
909.6000;0.4257;-3.4218;
909.9000;0.4282;-3.4119;
910.2000;0.4322;-3.4069;
910.5000;0.4314;-3.4069;
910.8000;0.4298;-3.4094;
911.1000;0.4314;-3.4069;
911.4000;0.4306;-3.4044;
911.7000;0.4387;-3.3771;
912.0000;0.4330;-3.3970;
912.3000;0.4339;-3.3945;
912.6000;0.4322;-3.3994;
912.9000;0.4330;-3.4044;
913.2000;0.4339;-3.4218;
913.5000;0.4339;-3.4218;
913.8000;0.4306;-3.4318;
914.1000;0.4330;-3.4218;
914.4000;0.4355;-3.4119;
914.7000;0.4322;-3.4218;
915.0000;0.4322;-3.4268;
915.3000;0.4322;-3.4218;
915.6000;0.4339;-3.4144;
915.9000;0.4314;-3.4218;
916.2000;0.4322;-3.4094;
916.5000;0.4339;-3.4169;
916.8000;0.4330;-3.4069;
917.1000;0.4371;-3.3920;
917.4000;0.4339;-3.4069;
917.7000;0.4420;-3.3746;
918.0000;0.4339;-3.4044;
918.3000;0.4314;-3.4019;
918.6000;0.4306;-3.4044;
918.9000;0.4322;-3.3920;
919.2000;0.4298;-3.3994;
919.5000;0.4371;-3.3895;
919.8000;0.4339;-3.3970;
920.1000;0.4420;-3.3820;
920.4000;0.4249;-3.4144;
920.7000;0.4314;-3.4044;
921.0000;0.4339;-3.4119;
921.3000;0.4339;-3.4019;
921.6000;0.4298;-3.4094;
921.9000;0.4306;-3.4144;
922.2000;0.4322;-3.4094;
922.5000;0.4339;-3.4069;
922.8000;0.4339;-3.4019;
923.1000;0.4339;-3.3945;
923.4000;0.4330;-3.3994;
923.7000;0.4339;-3.3945;
924.0000;0.4330;-3.3970;
924.3000;0.4347;-3.3945;
924.6000;0.4339;-3.4019;
924.9000;0.4339;-3.4044;
925.2000;0.4298;-3.4119;
925.5000;0.4330;-3.4019;
925.8000;0.4347;-3.3895;
926.1000;0.4282;-3.4119;
926.4000;0.4314;-3.3994;
926.7000;0.4314;-3.3994;
927.0000;0.4330;-3.3945;
927.3000;0.4322;-3.3820;
927.6000;0.4330;-3.3796;
927.9000;0.4322;-3.3845;
928.2000;0.4306;-3.3920;
928.5000;0.4298;-3.3994;
928.8000;0.4306;-3.4019;
929.1000;0.4306;-3.4044;
929.4000;0.4241;-3.4119;
929.7000;0.4314;-3.3945;
930.0000;0.4290;-3.3895;
930.3000;0.4339;-3.3771;
930.6000;0.4314;-3.3895;
930.9000;0.4330;-3.3895;
931.2000;0.4330;-3.3895;
931.5000;0.4355;-3.3895;
931.8000;0.4330;-3.3994;
932.1000;0.4314;-3.4019;
932.4000;0.4322;-3.4019;
932.7000;0.4330;-3.3895;
933.0000;0.4339;-3.3820;
933.3000;0.4314;-3.3845;
933.6000;0.4330;-3.3771;
933.9000;0.4322;-3.3820;
934.2000;0.4306;-3.3870;
934.5000;0.4314;-3.3820;
934.8000;0.4306;-3.3895;
935.1000;0.4314;-3.3920;
935.4000;0.4347;-3.3920;
935.7000;0.4355;-3.3920;
936.0000;0.4314;-3.4044;
936.3000;0.4339;-3.3945;
936.6000;0.4339;-3.3870;
936.9000;0.4298;-3.4019;
937.2000;0.4322;-3.4019;
937.5000;0.4330;-3.4044;
937.8000;0.4339;-3.3994;
938.1000;0.4314;-3.4119;
938.4000;0.4306;-3.4119;
938.7000;0.4322;-3.4069;
939.0000;0.4257;-3.4193;
939.3000;0.4330;-3.4019;
939.6000;0.4322;-3.4044;
939.9000;0.4322;-3.3970;
940.2000;0.4298;-3.3970;
940.5000;0.4330;-3.3845;
940.8000;0.4322;-3.3796;
941.1000;0.4330;-3.3796;
941.4000;0.4314;-3.3796;
941.7000;0.4290;-3.3845;
942.0000;0.4322;-3.3746;
942.3000;0.4339;-3.3796;
942.6000;0.4306;-3.3895;
942.9000;0.4290;-3.3945;
943.2000;0.4347;-3.3845;
943.5000;0.4282;-3.3994;
943.8000;0.4298;-3.3994;
944.1000;0.4339;-3.3870;
944.4000;0.4298;-3.4019;
944.7000;0.4306;-3.3970;
945.0000;0.4322;-3.3970;
945.3000;0.4290;-3.3945;
945.6000;0.4290;-3.3945;
945.9000;0.4314;-3.3870;
946.2000;0.4330;-3.3845;
946.5000;0.4306;-3.3920;
946.8000;0.4347;-3.3870;
947.1000;0.4298;-3.3920;
947.4000;0.4257;-3.3994;
947.7000;0.4322;-3.3870;
948.0000;0.4322;-3.3895;
948.3000;0.4298;-3.3920;
948.6000;0.4322;-3.3870;
948.9000;0.4265;-3.3845;
949.2000;0.4314;-3.3721;
949.5000;0.4363;-3.3696;
949.8000;0.4314;-3.3845;
950.1000;0.4298;-3.3845;
950.4000;0.4314;-3.3721;
950.7000;0.4322;-3.3746;
951.0000;0.4339;-3.3696;
951.3000;0.4306;-3.3746;
951.6000;0.4298;-3.3845;
951.9000;0.4298;-3.3796;
952.2000;0.4347;-3.3771;
952.5000;0.4322;-3.3845;
952.8000;0.4322;-3.3796;
953.1000;0.4322;-3.3646;
953.4000;0.4339;-3.3696;
953.7000;0.4314;-3.3845;
954.0000;0.4314;-3.3870;
954.3000;0.4396;-3.3746;
954.6000;0.4322;-3.3970;
954.9000;0.4314;-3.3945;
955.2000;0.4306;-3.4044;
955.5000;0.4322;-3.3970;
955.8000;0.4314;-3.3945;
956.1000;0.4306;-3.3895;
956.4000;0.4322;-3.3870;
956.7000;0.4298;-3.3820;
957.0000;0.4314;-3.3895;
957.3000;0.4322;-3.3970;
957.6000;0.4314;-3.4019;
957.9000;0.4322;-3.4019;
958.2000;0.4314;-3.3945;
958.5000;0.4330;-3.3920;
958.8000;0.4322;-3.3994;
959.1000;0.4314;-3.3994;
959.4000;0.4314;-3.3994;
959.7000;0.4339;-3.3994;
960.0000;0.4339;-3.3920;
960.3000;0.4298;-3.4069;
960.6000;0.4314;-3.3994;
960.9000;0.4282;-3.4144;
961.2000;0.4322;-3.4044;
961.5000;0.4322;-3.4019;
961.8000;0.4322;-3.4019;
962.1000;0.4306;-3.4069;
962.4000;0.4339;-3.4044;
962.7000;0.4306;-3.4069;
963.0000;0.4314;-3.3994;
963.3000;0.4322;-3.3945;
963.6000;0.4314;-3.3945;
963.9000;0.4339;-3.3895;
964.2000;0.4371;-3.3796;
964.5000;0.4306;-3.3895;
964.8000;0.4298;-3.3970;
965.1000;0.4322;-3.3945;
965.4000;0.4290;-3.3994;
965.7000;0.4322;-3.3870;
966.0000;0.4363;-3.3721;
966.3000;0.4314;-3.3895;
966.6000;0.4330;-3.3895;
966.9000;0.4306;-3.3895;
967.2000;0.4314;-3.3920;
967.5000;0.4330;-3.3994;
967.8000;0.4339;-3.4069;
968.1000;0.4249;-3.4293;
968.4000;0.4314;-3.4094;
968.7000;0.4322;-3.4094;
969.0000;0.4339;-3.4019;
969.3000;0.4339;-3.3945;
969.6000;0.4330;-3.3970;
969.9000;0.4330;-3.3994;
970.2000;0.4314;-3.4119;
970.5000;0.4396;-3.3945;
970.8000;0.4298;-3.4193;
971.1000;0.4330;-3.4119;
971.4000;0.4347;-3.4069;
971.7000;0.4363;-3.4044;
972.0000;0.4330;-3.4119;
972.3000;0.4314;-3.4094;
972.6000;0.4314;-3.4094;
972.9000;0.4347;-3.3994;
973.2000;0.4371;-3.3945;
973.5000;0.4322;-3.3970;
973.8000;0.4322;-3.3970;
974.1000;0.4330;-3.3970;
974.4000;0.4339;-3.3870;
974.7000;0.4322;-3.3945;
975.0000;0.4330;-3.3870;
975.3000;0.4371;-3.3845;
975.6000;0.4322;-3.3994;
975.9000;0.4241;-3.4119;
976.2000;0.4322;-3.3994;
976.5000;0.4339;-3.3920;
976.8000;0.4314;-3.3945;
977.1000;0.4347;-3.3746;
977.4000;0.4322;-3.3845;
977.7000;0.4322;-3.3870;
978.0000;0.4347;-3.3721;
978.3000;0.4339;-3.3796;
978.6000;0.4306;-3.3820;
978.9000;0.4322;-3.3796;
979.2000;0.4322;-3.3895;
979.5000;0.4387;-3.3721;
979.8000;0.4330;-3.3746;
980.1000;0.4330;-3.3721;
980.4000;0.4322;-3.3746;
980.7000;0.4322;-3.3771;
981.0000;0.4290;-3.3820;
981.3000;0.4322;-3.3721;
981.6000;0.4314;-3.3771;
981.9000;0.4257;-3.3895;
982.2000;0.4306;-3.3746;
982.5000;0.4347;-3.3597;
982.8000;0.4330;-3.3721;
983.1000;0.4322;-3.3721;
983.4000;0.4322;-3.3696;
983.7000;0.4306;-3.3721;
984.0000;0.4330;-3.3671;
984.3000;0.4298;-3.3721;
984.6000;0.4306;-3.3820;
984.9000;0.4330;-3.3870;
985.2000;0.4314;-3.3870;
985.5000;0.4298;-3.3945;
985.8000;0.4298;-3.3945;
986.1000;0.4330;-3.3870;
986.4000;0.4347;-3.3796;
986.7000;0.4339;-3.3820;
987.0000;0.4322;-3.3895;
987.3000;0.4322;-3.3845;
987.6000;0.4290;-3.3945;
987.9000;0.4339;-3.3895;
988.2000;0.4322;-3.3771;
988.5000;0.4330;-3.3796;
988.8000;0.4322;-3.3771;
989.1000;0.4322;-3.3820;
989.4000;0.4306;-3.3870;
989.7000;0.4314;-3.3845;
990.0000;0.4322;-3.3870;
990.3000;0.4347;-3.3746;
990.6000;0.4290;-3.3870;
990.9000;0.4355;-3.3696;
991.2000;0.4339;-3.3696;
991.5000;0.4339;-3.3796;
991.8000;0.4330;-3.3845;
992.1000;0.4322;-3.3920;
992.4000;0.4330;-3.3870;
992.7000;0.4322;-3.3820;
993.0000;0.4306;-3.3820;
993.3000;0.4339;-3.3721;
993.6000;0.4322;-3.3771;
993.9000;0.4306;-3.3746;
994.2000;0.4306;-3.3845;
994.5000;0.4241;-3.4019;
994.8000;0.4339;-3.3746;
995.1000;0.4225;-3.4044;
995.4000;0.4330;-3.3820;
995.7000;0.4306;-3.3920;
996.0000;0.4314;-3.3994;
996.3000;0.4306;-3.3970;
996.6000;0.4314;-3.3945;
996.9000;0.4298;-3.3994;
997.2000;0.4322;-3.3920;
997.5000;0.4306;-3.3945;
997.8000;0.4306;-3.3945;
998.1000;0.4322;-3.3820;
998.4000;0.4306;-3.3771;
998.7000;0.4314;-3.3721;
999.0000;0.4322;-3.3721;
999.3000;0.4314;-3.3746;
999.6000;0.4314;-3.3820;
999.9000;0.4387;-3.3671;
1000.2000;0.4322;-3.3870;
1000.5000;0.4322;-3.3771;
1000.8000;0.4330;-3.3870;
1001.1000;0.4330;-3.3895;
1001.4000;0.4314;-3.3870;
1001.7000;0.4322;-3.3771;
1002.0000;0.4322;-3.3771;
1002.3000;0.4339;-3.3820;
1002.6000;0.4330;-3.3746;
1002.9000;0.4322;-3.3796;
1003.2000;0.4322;-3.3820;
1003.5000;0.4314;-3.3796;
1003.8000;0.4298;-3.3870;
1004.1000;0.4290;-3.3796;
1004.4000;0.4282;-3.3845;
1004.7000;0.4306;-3.3746;
1005.0000;0.4257;-3.3895;
1005.3000;0.4306;-3.3746;
1005.6000;0.4290;-3.3746;
1005.9000;0.4363;-3.3621;
1006.2000;0.4314;-3.3870;
1006.5000;0.4290;-3.3895;
1006.8000;0.4306;-3.3746;
1007.1000;0.4290;-3.3796;
1007.4000;0.4314;-3.3696;
1007.7000;0.4298;-3.3721;
1008.0000;0.4298;-3.3721;
1008.3000;0.4306;-3.3870;
1008.6000;0.4322;-3.3820;
1008.9000;0.4347;-3.3796;
1009.2000;0.4290;-3.3970;
1009.5000;0.4371;-3.3721;
1009.8000;0.4306;-3.3870;
1010.1000;0.4298;-3.3945;
1010.4000;0.4314;-3.3895;
1010.7000;0.4322;-3.3870;
1011.0000;0.4339;-3.3820;
1011.3000;0.4339;-3.3870;
1011.6000;0.4314;-3.3870;
1011.9000;0.4314;-3.3870;
1012.2000;0.4322;-3.3746;
1012.5000;0.4322;-3.3721;
1012.8000;0.4322;-3.3746;
1013.1000;0.4290;-3.3845;
1013.4000;0.4306;-3.3796;
1013.7000;0.4330;-3.3796;
1014.0000;0.4314;-3.3870;
1014.3000;0.4314;-3.3845;
1014.6000;0.4274;-3.3920;
1014.9000;0.4355;-3.3771;
1015.2000;0.4330;-3.3845;
1015.5000;0.4322;-3.3870;
1015.8000;0.4371;-3.3746;
1016.1000;0.4330;-3.3696;
1016.4000;0.4330;-3.3671;
1016.7000;0.4290;-3.3746;
1017.0000;0.4322;-3.3671;
1017.3000;0.4322;-3.3621;
1017.6000;0.4387;-3.3522;
1017.9000;0.4298;-3.3721;
1018.2000;0.4298;-3.3721;
1018.5000;0.4314;-3.3646;
1018.8000;0.4314;-3.3621;
1019.1000;0.4314;-3.3621;
1019.4000;0.4322;-3.3721;
1019.7000;0.4298;-3.3696;
1020.0000;0.4330;-3.3646;
1020.3000;0.4314;-3.3771;
1020.6000;0.4322;-3.3845;
1020.9000;0.4330;-3.3796;
1021.2000;0.4306;-3.3820;
1021.5000;0.4314;-3.3796;
1021.8000;0.4330;-3.3796;
1022.1000;0.4306;-3.3920;
1022.4000;0.4314;-3.4044;
1022.7000;0.4339;-3.3920;
1023.0000;0.4282;-3.4094;
1023.3000;0.4330;-3.4044;
1023.6000;0.4298;-3.4119;
1023.9000;0.4322;-3.4019;
1024.2000;0.4339;-3.3970;
1024.5000;0.4339;-3.3870;
1024.8000;0.4314;-3.3920;
1025.1000;0.4306;-3.3945;
1025.4000;0.4330;-3.3870;
1025.7000;0.4322;-3.3870;
1026.0000;0.4306;-3.3870;
1026.3000;0.4298;-3.3895;
1026.6000;0.4314;-3.3845;
1026.9000;0.4306;-3.3820;
1027.2000;0.4274;-3.3970;
1027.5000;0.4306;-3.3870;
1027.8000;0.4298;-3.3820;
1028.1000;0.4306;-3.3746;
1028.4000;0.4306;-3.3646;
1028.7000;0.4306;-3.3646;
1029.0000;0.4306;-3.3721;
1029.3000;0.4298;-3.3845;
1029.6000;0.4330;-3.3845;
1029.9000;0.4339;-3.3895;
1030.2000;0.4298;-3.4019;
1030.5000;0.4306;-3.3945;
1030.8000;0.4298;-3.3970;
1031.1000;0.4379;-3.3621;
1031.4000;0.4314;-3.3746;
1031.7000;0.4306;-3.3746;
1032.0000;0.4314;-3.3771;
1032.3000;0.4306;-3.3870;
1032.6000;0.4306;-3.3870;
1032.9000;0.4322;-3.3870;
1033.2000;0.4306;-3.3945;
1033.5000;0.4314;-3.3870;
1033.8000;0.4314;-3.3895;
1034.1000;0.4322;-3.3895;
1034.4000;0.4322;-3.3820;
1034.7000;0.4330;-3.3771;
1035.0000;0.4314;-3.3820;
1035.3000;0.4330;-3.3820;
1035.6000;0.4363;-3.3845;
1035.9000;0.4322;-3.3895;
1036.2000;0.4322;-3.3870;
1036.5000;0.4249;-3.4119;
1036.8000;0.4322;-3.4019;
1037.1000;0.4306;-3.4094;
1037.4000;0.4314;-3.3994;
1037.7000;0.4322;-3.3994;
1038.0000;0.4314;-3.3895;
1038.3000;0.4322;-3.3895;
1038.6000;0.4322;-3.3945;
1038.9000;0.4298;-3.4069;
1039.2000;0.4330;-3.3970;
1039.5000;0.4322;-3.3870;
1039.8000;0.4322;-3.3920;
1040.1000;0.4379;-3.3820;
1040.4000;0.4322;-3.4019;
1040.7000;0.4330;-3.3994;
1041.0000;0.4298;-3.4069;
1041.3000;0.4314;-3.3970;
1041.6000;0.4151;-3.4343;
1041.9000;0.4339;-3.3895;
1042.2000;0.4314;-3.3845;
1042.5000;0.4314;-3.3796;
1042.8000;0.4314;-3.3771;
1043.1000;0.4306;-3.3845;
1043.4000;0.4322;-3.3820;
1043.7000;0.4339;-3.3845;
1044.0000;0.4379;-3.3721;
1044.3000;0.4314;-3.4019;
1044.6000;0.4314;-3.4019;
1044.9000;0.4330;-3.4069;
1045.2000;0.4339;-3.3994;
1045.5000;0.4314;-3.4019;
1045.8000;0.4396;-3.3820;
1046.1000;0.4322;-3.3920;
1046.4000;0.4314;-3.3870;
1046.7000;0.4330;-3.3820;
1047.0000;0.4306;-3.3820;
1047.3000;0.4314;-3.3771;
1047.6000;0.4355;-3.3671;
1047.9000;0.4314;-3.3820;
1048.2000;0.4306;-3.3895;
1048.5000;0.4339;-3.3845;
1048.8000;0.4322;-3.3870;
1049.1000;0.4314;-3.3920;
1049.4000;0.4339;-3.3845;
1049.7000;0.4306;-3.3920;
1050.0000;0.4339;-3.3845;
1050.3000;0.4306;-3.3870;
1050.6000;0.4306;-3.3895;
1050.9000;0.4330;-3.3771;
1051.2000;0.4298;-3.3746;
1051.5000;0.4298;-3.3746;
1051.8000;0.4322;-3.3771;
1052.1000;0.4290;-3.3870;
1052.4000;0.4314;-3.3746;
1052.7000;0.4330;-3.3696;
1053.0000;0.4314;-3.3771;
1053.3000;0.4306;-3.3771;
1053.6000;0.4298;-3.3820;
1053.9000;0.4298;-3.3771;
1054.2000;0.4306;-3.3820;
1054.5000;0.4314;-3.3870;
1054.8000;0.4306;-3.3820;
1055.1000;0.4306;-3.3994;
1055.4000;0.4322;-3.3945;
1055.7000;0.4330;-3.3895;
1056.0000;0.4298;-3.3945;
1056.3000;0.4274;-3.4069;
1056.6000;0.4282;-3.4094;
1056.9000;0.4306;-3.4019;
1057.2000;0.4322;-3.4019;
1057.5000;0.4290;-3.4094;
1057.8000;0.4330;-3.3945;
1058.1000;0.4314;-3.3945;
1058.4000;0.4290;-3.3970;
1058.7000;0.4330;-3.3820;
1059.0000;0.4322;-3.3721;
1059.3000;0.4322;-3.3746;
1059.6000;0.4290;-3.3870;
1059.9000;0.4290;-3.3870;
1060.2000;0.4339;-3.3696;
1060.5000;0.4330;-3.3746;
1060.8000;0.4314;-3.3845;
1061.1000;0.4371;-3.3671;
1061.4000;0.4322;-3.3870;
1061.7000;0.4339;-3.3820;
1062.0000;0.4322;-3.3796;
1062.3000;0.4314;-3.3845;
1062.6000;0.4314;-3.3845;
1062.9000;0.4298;-3.3820;
1063.2000;0.4290;-3.3820;
1063.5000;0.4322;-3.3796;
1063.8000;0.4314;-3.3820;
1064.1000;0.4314;-3.3970;
1064.4000;0.4322;-3.4144;
1064.7000;0.4322;-3.4169;
1065.0000;0.4290;-3.4243;
1065.3000;0.4298;-3.4044;
1065.6000;0.4322;-3.3994;
1065.9000;0.4314;-3.3945;
1066.2000;0.4314;-3.3994;
1066.5000;0.4314;-3.4019;
1066.8000;0.4339;-3.3945;
1067.1000;0.4339;-3.3970;
1067.4000;0.4339;-3.4019;
1067.7000;0.4330;-3.4069;
1068.0000;0.4314;-3.4069;
1068.3000;0.4330;-3.3920;
1068.6000;0.4330;-3.3895;
1068.9000;0.4306;-3.4019;
1069.2000;0.4306;-3.3920;
1069.5000;0.4322;-3.3920;
1069.8000;0.4306;-3.3994;
1070.1000;0.4306;-3.4069;
1070.4000;0.4322;-3.3895;
1070.7000;0.4306;-3.3920;
1071.0000;0.4306;-3.3920;
1071.3000;0.4330;-3.3895;
1071.6000;0.4298;-3.3895;
1071.9000;0.4306;-3.3920;
1072.2000;0.4314;-3.3994;
1072.5000;0.4314;-3.3994;
1072.8000;0.4314;-3.3945;
1073.1000;0.4306;-3.3970;
1073.4000;0.4290;-3.4094;
1073.7000;0.4363;-3.3920;
1074.0000;0.4347;-3.4044;
1074.3000;0.4217;-3.4417;
1074.6000;0.4298;-3.4343;
1074.9000;0.4314;-3.4293;
1075.2000;0.4322;-3.4268;
1075.5000;0.4298;-3.4318;
1075.8000;0.4314;-3.4243;
1076.1000;0.4298;-3.4169;
1076.4000;0.4306;-3.4069;
1076.7000;0.4314;-3.4144;
1077.0000;0.4298;-3.4193;
1077.3000;0.4306;-3.4243;
1077.6000;0.4298;-3.4243;
1077.9000;0.4314;-3.4169;
1078.2000;0.4225;-3.4392;
1078.5000;0.4322;-3.4218;
1078.8000;0.4322;-3.4193;
1079.1000;0.4322;-3.4169;
1079.4000;0.4306;-3.4218;
1079.7000;0.4314;-3.4243;
1080.0000;0.4314;-3.4268;
1080.3000;0.4306;-3.4268;
1080.6000;0.4306;-3.4169;
1080.9000;0.4330;-3.4169;
1081.2000;0.4330;-3.4193;
1081.5000;0.4339;-3.4243;
1081.8000;0.4339;-3.4243;
1082.1000;0.4339;-3.4144;
1082.4000;0.4298;-3.4193;
1082.7000;0.4453;-3.3796;
1083.0000;0.4322;-3.4243;
1083.3000;0.4322;-3.4144;
1083.6000;0.4298;-3.4169;
1083.9000;0.4322;-3.4044;
1084.2000;0.4322;-3.4044;
1084.5000;0.4322;-3.4044;
1084.8000;0.4347;-3.3970;
1085.1000;0.4330;-3.3970;
1085.4000;0.4330;-3.4019;
1085.7000;0.4314;-3.4169;
1086.0000;0.4314;-3.4144;
1086.3000;0.4322;-3.4094;
1086.6000;0.4322;-3.3994;
1086.9000;0.4306;-3.4019;
1087.2000;0.4314;-3.3970;
1087.5000;0.4290;-3.4044;
1087.8000;0.4298;-3.4044;
1088.1000;0.4322;-3.3994;
1088.4000;0.4306;-3.4069;
1088.7000;0.4314;-3.4019;
1089.0000;0.4298;-3.4119;
1089.3000;0.4306;-3.4019;
1089.6000;0.4322;-3.4019;
1089.9000;0.4306;-3.4069;
1090.2000;0.4290;-3.4044;
1090.5000;0.4330;-3.3945;
1090.8000;0.4298;-3.3970;
1091.1000;0.4314;-3.3920;
1091.4000;0.4290;-3.3895;
1091.7000;0.4298;-3.3945;
1092.0000;0.4339;-3.3870;
1092.3000;0.4339;-3.3845;
1092.6000;0.4306;-3.3920;
1092.9000;0.4306;-3.3920;
1093.2000;0.4306;-3.3746;
1093.5000;0.4306;-3.3820;
1093.8000;0.4306;-3.3796;
1094.1000;0.4306;-3.3796;
1094.4000;0.4290;-3.3845;
1094.7000;0.4322;-3.3820;
1095.0000;0.4420;-3.3597;
1095.3000;0.4290;-3.3994;
1095.6000;0.4306;-3.3920;
1095.9000;0.4265;-3.4019;
1096.2000;0.4322;-3.3820;
1096.5000;0.4330;-3.3771;
1096.8000;0.4322;-3.3845;
1097.1000;0.4314;-3.3920;
1097.4000;0.4387;-3.3621;
1097.7000;0.4282;-3.3920;
1098.0000;0.4290;-3.3895;
1098.3000;0.4306;-3.3870;
1098.6000;0.4322;-3.3870;
1098.9000;0.4314;-3.3820;
1099.2000;0.4290;-3.3820;
1099.5000;0.4298;-3.3870;
1099.8000;0.4314;-3.3746;
1100.1000;0.4355;-3.3696;
1100.4000;0.4298;-3.3796;
1100.7000;0.4306;-3.3845;
1101.0000;0.4330;-3.3796;
1101.3000;0.4290;-3.3945;
1101.6000;0.4298;-3.3970;
1101.9000;0.4298;-3.3970;
1102.2000;0.4298;-3.3870;
1102.5000;0.4396;-3.3547;
1102.8000;0.4298;-3.3796;
1103.1000;0.4363;-3.3696;
1103.4000;0.4290;-3.4019;
1103.7000;0.4339;-3.3970;
1104.0000;0.4314;-3.3970;
1104.3000;0.4339;-3.3870;
1104.6000;0.4306;-3.3994;
1104.9000;0.4314;-3.3994;
1105.2000;0.4314;-3.3970;
1105.5000;0.4330;-3.4019;
1105.8000;0.4339;-3.3970;
1106.1000;0.4330;-3.3920;
1106.4000;0.4322;-3.3870;
1106.7000;0.4298;-3.3970;
1107.0000;0.4314;-3.4069;
1107.3000;0.4298;-3.4069;
1107.6000;0.4306;-3.4094;
1107.9000;0.4306;-3.4193;
1108.2000;0.4314;-3.4144;
1108.5000;0.4306;-3.4094;
1108.8000;0.4322;-3.4094;
1109.1000;0.4314;-3.3994;
1109.4000;0.4322;-3.3970;
1109.7000;0.4330;-3.3920;
1110.0000;0.4322;-3.3994;
1110.3000;0.4330;-3.4069;
1110.6000;0.4330;-3.4119;
1110.9000;0.4330;-3.4218;
1111.2000;0.4387;-3.4069;
1111.5000;0.4322;-3.4119;
1111.8000;0.4330;-3.4119;
1112.1000;0.4306;-3.4169;
1112.4000;0.4322;-3.4144;
1112.7000;0.4306;-3.4144;
1113.0000;0.4306;-3.4069;
1113.3000;0.4298;-3.4094;
1113.6000;0.4347;-3.3920;
1113.9000;0.4217;-3.4343;
1114.2000;0.4314;-3.4144;
1114.5000;0.4314;-3.4119;
1114.8000;0.4347;-3.3994;
1115.1000;0.4330;-3.4044;
1115.4000;0.4322;-3.4069;
1115.7000;0.4322;-3.4044;
1116.0000;0.4314;-3.4094;
1116.3000;0.4339;-3.4044;
1116.6000;0.4306;-3.4169;
1116.9000;0.4371;-3.4044;
1117.2000;0.4306;-3.4169;
1117.5000;0.4330;-3.4069;
1117.8000;0.4314;-3.4094;
1118.1000;0.4322;-3.4019;
1118.4000;0.4314;-3.4119;
1118.7000;0.4306;-3.4169;
1119.0000;0.4306;-3.4044;
1119.3000;0.4314;-3.3994;
1119.6000;0.4298;-3.4044;
1119.9000;0.4314;-3.3920;
1120.2000;0.4290;-3.4069;
1120.5000;0.4314;-3.3970;
1120.8000;0.4322;-3.3945;
1121.1000;0.4298;-3.4044;
1121.4000;0.4330;-3.3994;
1121.7000;0.4314;-3.3994;
1122.0000;0.4306;-3.3945;
1122.3000;0.4274;-3.3895;
1122.6000;0.4306;-3.3845;
1122.9000;0.4306;-3.3870;
1123.2000;0.4298;-3.3895;
1123.5000;0.4322;-3.3820;
1123.8000;0.4322;-3.3895;
1124.1000;0.4363;-3.3820;
1124.4000;0.4314;-3.3994;
1124.7000;0.4314;-3.4044;
1125.0000;0.4306;-3.4094;
1125.3000;0.4314;-3.4044;
1125.6000;0.4298;-3.4044;
1125.9000;0.4298;-3.4044;
1126.2000;0.4306;-3.3920;
1126.5000;0.4306;-3.3920;
1126.8000;0.4282;-3.4019;
1127.1000;0.4298;-3.3895;
1127.4000;0.4330;-3.3920;
1127.7000;0.4322;-3.3895;
1128.0000;0.4322;-3.3895;
1128.3000;0.4322;-3.4019;
1128.6000;0.4322;-3.3970;
1128.9000;0.4322;-3.3970;
1129.2000;0.4339;-3.3945;
1129.5000;0.4306;-3.3920;
1129.8000;0.4306;-3.3970;
1130.1000;0.4306;-3.4019;
1130.4000;0.4322;-3.3920;
1130.7000;0.4306;-3.3970;
1131.0000;0.4306;-3.4019;
1131.3000;0.4330;-3.3994;
1131.6000;0.4306;-3.4069;
1131.9000;0.4306;-3.4044;
1132.2000;0.4363;-3.3721;
1132.5000;0.4330;-3.3796;
1132.8000;0.4314;-3.3796;
1133.1000;0.4282;-3.3945;
1133.4000;0.4314;-3.3895;
1133.7000;0.4330;-3.3920;
1134.0000;0.4339;-3.3895;
1134.3000;0.4330;-3.3920;
1134.6000;0.4306;-3.3920;
1134.9000;0.4371;-3.3721;
1135.2000;0.4322;-3.3796;
1135.5000;0.4306;-3.3870;
1135.8000;0.4322;-3.3820;
1136.1000;0.4314;-3.3870;
1136.4000;0.4298;-3.3895;
1136.7000;0.4306;-3.3870;
1137.0000;0.4314;-3.3895;
1137.3000;0.4298;-3.3920;
1137.6000;0.4249;-3.4069;
1137.9000;0.4306;-3.3970;
1138.2000;0.4306;-3.4019;
1138.5000;0.4306;-3.4069;
1138.8000;0.4306;-3.4069;
1139.1000;0.4298;-3.4069;
1139.4000;0.4306;-3.3970;
1139.7000;0.4290;-3.4019;
1140.0000;0.4306;-3.3945;
1140.3000;0.4306;-3.3920;
1140.6000;0.4298;-3.3945;
1140.9000;0.4290;-3.4019;
1141.2000;0.4298;-3.3970;
1141.5000;0.4306;-3.3945;
1141.8000;0.4306;-3.4019;
1142.1000;0.4290;-3.4019;
1142.4000;0.4314;-3.3945;
1142.7000;0.4306;-3.3970;
1143.0000;0.4298;-3.3994;
1143.3000;0.4306;-3.3920;
1143.6000;0.4298;-3.3920;
1143.9000;0.4306;-3.3870;
1144.2000;0.4314;-3.3895;
1144.5000;0.4314;-3.3895;
1144.8000;0.4314;-3.3945;
1145.1000;0.4322;-3.3920;
1145.4000;0.4306;-3.3994;
1145.7000;0.4322;-3.3970;
1146.0000;0.4298;-3.3970;
1146.3000;0.4282;-3.3970;
1146.6000;0.4314;-3.3945;
1146.9000;0.4322;-3.3870;
1147.2000;0.4314;-3.3945;
1147.5000;0.4306;-3.3920;
1147.8000;0.4306;-3.3920;
1148.1000;0.4322;-3.3870;
1148.4000;0.4322;-3.3970;
1148.7000;0.4314;-3.3945;
1149.0000;0.4306;-3.3994;
1149.3000;0.4371;-3.3820;
1149.6000;0.4322;-3.3994;
1149.9000;0.4322;-3.3945;
1150.2000;0.4314;-3.4094;
1150.5000;0.4306;-3.4094;
1150.8000;0.4306;-3.4094;
1151.1000;0.4363;-3.3970;
1151.4000;0.4330;-3.3970;
1151.7000;0.4298;-3.4094;
1152.0000;0.4322;-3.4069;
1152.3000;0.4314;-3.4119;
1152.6000;0.4330;-3.4119;
1152.9000;0.4306;-3.4243;
1153.2000;0.4347;-3.4144;
1153.5000;0.4249;-3.4193;
1153.8000;0.4306;-3.3970;
1154.1000;0.4298;-3.4019;
1154.4000;0.4306;-3.4019;
1154.7000;0.4298;-3.4019;
1155.0000;0.4314;-3.3970;
1155.3000;0.4322;-3.3970;
1155.6000;0.4257;-3.4144;
1155.9000;0.4314;-3.4019;
1156.2000;0.4371;-3.3845;
1156.5000;0.4314;-3.4019;
1156.8000;0.4306;-3.4044;
1157.1000;0.4371;-3.3820;
1157.4000;0.4330;-3.3820;
1157.7000;0.4298;-3.3870;
1158.0000;0.4257;-3.3970;
1158.3000;0.4274;-3.4019;
1158.6000;0.4314;-3.3920;
1158.9000;0.4306;-3.3895;
1159.2000;0.4363;-3.3771;
1159.5000;0.4306;-3.3920;
1159.8000;0.4298;-3.3870;
1160.1000;0.4306;-3.3920;
1160.4000;0.4290;-3.3920;
1160.7000;0.4208;-3.4069;
1161.0000;0.4282;-3.3820;
1161.3000;0.4298;-3.3870;
1161.6000;0.4257;-3.3994;
1161.9000;0.4298;-3.3895;
1162.2000;0.4298;-3.3994;
1162.5000;0.4233;-3.4119;
1162.8000;0.4290;-3.3920;
1163.1000;0.4314;-3.3895;
1163.4000;0.4298;-3.3994;
1163.7000;0.4306;-3.3994;
1164.0000;0.4241;-3.4094;
1164.3000;0.4322;-3.3945;
1164.6000;0.4322;-3.3970;
1164.9000;0.4314;-3.4094;
1165.2000;0.4314;-3.4069;
1165.5000;0.4322;-3.4144;
1165.8000;0.4314;-3.4119;
1166.1000;0.4306;-3.4119;
1166.4000;0.4322;-3.4094;
1166.7000;0.4314;-3.4044;
1167.0000;0.4282;-3.4119;
1167.3000;0.4322;-3.4094;
1167.6000;0.4330;-3.4069;
1167.9000;0.4322;-3.4144;
1168.2000;0.4347;-3.4119;
1168.5000;0.4347;-3.4119;
1168.8000;0.4322;-3.4193;
1169.1000;0.4298;-3.4218;
1169.4000;0.4290;-3.4218;
1169.7000;0.4306;-3.4243;
1170.0000;0.4249;-3.4392;
1170.3000;0.4330;-3.4268;
1170.6000;0.4322;-3.4268;
1170.9000;0.4306;-3.4318;
1171.2000;0.4314;-3.4243;
1171.5000;0.4290;-3.4243;
1171.8000;0.4314;-3.4169;
1172.1000;0.4282;-3.4218;
1172.4000;0.4314;-3.4094;
1172.7000;0.4282;-3.4094;
1173.0000;0.4330;-3.4069;
1173.3000;0.4322;-3.4119;
1173.6000;0.4274;-3.4218;
1173.9000;0.4314;-3.4144;
1174.2000;0.4339;-3.4094;
1174.5000;0.4314;-3.4169;
1174.8000;0.4314;-3.4119;
1175.1000;0.4298;-3.4094;
1175.4000;0.4314;-3.3994;
1175.7000;0.4298;-3.3994;
1176.0000;0.4298;-3.3870;
1176.3000;0.4282;-3.3845;
1176.6000;0.4314;-3.3796;
1176.9000;0.4290;-3.3845;
1177.2000;0.4241;-3.4044;
1177.5000;0.4371;-3.3771;
1177.8000;0.4330;-3.3895;
1178.1000;0.4314;-3.3920;
1178.4000;0.4314;-3.4019;
1178.7000;0.4290;-3.3945;
1179.0000;0.4306;-3.3820;
1179.3000;0.4314;-3.3746;
1179.6000;0.4379;-3.3671;
1179.9000;0.4330;-3.3895;
1180.2000;0.4306;-3.3945;
1180.5000;0.4371;-3.3845;
1180.8000;0.4339;-3.3895;
1181.1000;0.4322;-3.3970;
1181.4000;0.4282;-3.4019;
1181.7000;0.4314;-3.4044;
1182.0000;0.4330;-3.4019;
1182.3000;0.4306;-3.4069;
1182.6000;0.4322;-3.4069;
1182.9000;0.4298;-3.4069;
1183.2000;0.4314;-3.4094;
1183.5000;0.4306;-3.4044;
1183.8000;0.4322;-3.3945;
1184.1000;0.4306;-3.3845;
1184.4000;0.4298;-3.3870;
1184.7000;0.4306;-3.3870;
1185.0000;0.4322;-3.3895;
1185.3000;0.4330;-3.3970;
1185.6000;0.4347;-3.3945;
1185.9000;0.4290;-3.4019;
1186.2000;0.4322;-3.3920;
1186.5000;0.4330;-3.3920;
1186.8000;0.4306;-3.4044;
1187.1000;0.4322;-3.3970;
1187.4000;0.4339;-3.3845;
1187.7000;0.4298;-3.3870;
1188.0000;0.4290;-3.3870;
1188.3000;0.4298;-3.3920;
1188.6000;0.4314;-3.3895;
1188.9000;0.4322;-3.3845;
1189.2000;0.4314;-3.3870;
1189.5000;0.4322;-3.3870;
1189.8000;0.4322;-3.3920;
1190.1000;0.4330;-3.3920;
1190.4000;0.4306;-3.3920;
1190.7000;0.4298;-3.3920;
1191.0000;0.4330;-3.3845;
1191.3000;0.4290;-3.3895;
1191.6000;0.4322;-3.3895;
1191.9000;0.4290;-3.3994;
1192.2000;0.4306;-3.4044;
1192.5000;0.4265;-3.4144;
1192.8000;0.4322;-3.3970;
1193.1000;0.4298;-3.4044;
1193.4000;0.4298;-3.4069;
1193.7000;0.4322;-3.4069;
1194.0000;0.4412;-3.3870;
1194.3000;0.4330;-3.4019;
1194.6000;0.4290;-3.4144;
1194.9000;0.4330;-3.4044;
1195.2000;0.4314;-3.4144;
1195.5000;0.4306;-3.4193;
1195.8000;0.4306;-3.4193;
1196.1000;0.4314;-3.4193;
1196.4000;0.4298;-3.4169;
1196.7000;0.4322;-3.4094;
1197.0000;0.4322;-3.4044;
1197.3000;0.4314;-3.4069;
1197.6000;0.4322;-3.4019;
1197.9000;0.4314;-3.4069;
1198.2000;0.4314;-3.4019;
1198.5000;0.4290;-3.4169;
1198.8000;0.4282;-3.4193;
1199.1000;0.4339;-3.4019;
1199.4000;0.4306;-3.4144;
1199.7000;0.4322;-3.4169;
1200.0000;0.4282;-3.4193;
1200.3000;0.4298;-3.4094;
1200.6000;0.4298;-3.4144;
1200.9000;0.4306;-3.4044;
1201.2000;0.4363;-3.3870;
1201.5000;0.4314;-3.3895;
1201.8000;0.4322;-3.3820;
1202.1000;0.4298;-3.3970;
1202.4000;0.4363;-3.3820;
1202.7000;0.4290;-3.4019;
1203.0000;0.4314;-3.4019;
1203.3000;0.4298;-3.3945;
1203.6000;0.4314;-3.3895;
1203.9000;0.4314;-3.4044;
1204.2000;0.4306;-3.4144;
1204.5000;0.4290;-3.4193;
1204.8000;0.4306;-3.3970;
1205.1000;0.4314;-3.3895;
1205.4000;0.4290;-3.3994;
1205.7000;0.4339;-3.3845;
1206.0000;0.4306;-3.3920;
1206.3000;0.4306;-3.3970;
1206.6000;0.4290;-3.4019;
1206.9000;0.4306;-3.4019;
1207.2000;0.4306;-3.4044;
1207.5000;0.4290;-3.4069;
1207.8000;0.4282;-3.4069;
1208.1000;0.4314;-3.4094;
1208.4000;0.4322;-3.4044;
1208.7000;0.4265;-3.4069;
1209.0000;0.4355;-3.3870;
1209.3000;0.4330;-3.3945;
1209.6000;0.4339;-3.4019;
1209.9000;0.4330;-3.3970;
1210.2000;0.4330;-3.3994;
1210.5000;0.4330;-3.3970;
1210.8000;0.4233;-3.4268;
1211.1000;0.4314;-3.4044;
1211.4000;0.4314;-3.4044;
1211.7000;0.4314;-3.4044;
1212.0000;0.4330;-3.3994;
1212.3000;0.4314;-3.4069;
1212.6000;0.4306;-3.4019;
1212.9000;0.4322;-3.4119;
1213.2000;0.4347;-3.4094;
1213.5000;0.4363;-3.4094;
1213.8000;0.4330;-3.4069;
1214.1000;0.4298;-3.4094;
1214.4000;0.4322;-3.3994;
1214.7000;0.4330;-3.3994;
1215.0000;0.4217;-3.4367;
1215.3000;0.4363;-3.4094;
1215.6000;0.4290;-3.4268;
1215.9000;0.4306;-3.4169;
1216.2000;0.4290;-3.4218;
1216.5000;0.4339;-3.4094;
1216.8000;0.4290;-3.4243;
1217.1000;0.4355;-3.4094;
1217.4000;0.4298;-3.4193;
1217.7000;0.4322;-3.4193;
1218.0000;0.4314;-3.4218;
1218.3000;0.4290;-3.4169;
1218.6000;0.4306;-3.4094;
1218.9000;0.4306;-3.4069;
1219.2000;0.4290;-3.4069;
1219.5000;0.4306;-3.3970;
1219.8000;0.4306;-3.3870;
1220.1000;0.4314;-3.3845;
1220.4000;0.4298;-3.3870;
1220.7000;0.4306;-3.3845;
1221.0000;0.4339;-3.3746;
1221.3000;0.4314;-3.3771;
1221.6000;0.4314;-3.3820;
1221.9000;0.4314;-3.3820;
1222.2000;0.4306;-3.3895;
1222.5000;0.4314;-3.3945;
1222.8000;0.4314;-3.3994;
1223.1000;0.4339;-3.3920;
1223.4000;0.4363;-3.3870;
1223.7000;0.4298;-3.4069;
1224.0000;0.4322;-3.4044;
1224.3000;0.4314;-3.4094;
1224.6000;0.4314;-3.4119;
1224.9000;0.4298;-3.4193;
1225.2000;0.4274;-3.4218;
1225.5000;0.4306;-3.4094;
1225.8000;0.4322;-3.4094;
1226.1000;0.4306;-3.4069;
1226.4000;0.4322;-3.4044;
1226.7000;0.4314;-3.3994;
1227.0000;0.4282;-3.3994;
1227.3000;0.4290;-3.3920;
1227.6000;0.4322;-3.3870;
1227.9000;0.4314;-3.3920;
1228.2000;0.4306;-3.3870;
1228.5000;0.4306;-3.3895;
1228.8000;0.4298;-3.3970;
1229.1000;0.4314;-3.3945;
1229.4000;0.4339;-3.3796;
1229.7000;0.4314;-3.3994;
1230.0000;0.4290;-3.3994;
1230.3000;0.4298;-3.3945;
1230.6000;0.4257;-3.4044;
1230.9000;0.4314;-3.3820;
1231.2000;0.4290;-3.3895;
1231.5000;0.4282;-3.3845;
1231.8000;0.4322;-3.3721;
1232.1000;0.4314;-3.3771;
1232.4000;0.4306;-3.3870;
1232.7000;0.4404;-3.3597;
1233.0000;0.4314;-3.3746;
1233.3000;0.4290;-3.3870;
1233.6000;0.4363;-3.3746;
1233.9000;0.4274;-3.3945;
1234.2000;0.4314;-3.3970;
1234.5000;0.4306;-3.3945;
1234.8000;0.4314;-3.3895;
1235.1000;0.4306;-3.3870;
1235.4000;0.4298;-3.3920;
1235.7000;0.4298;-3.3945;
1236.0000;0.4233;-3.4069;
1236.3000;0.4314;-3.3820;
1236.6000;0.4298;-3.3895;
1236.9000;0.4330;-3.3771;
1237.2000;0.4322;-3.3845;
1237.5000;0.4322;-3.3895;
1237.8000;0.4306;-3.3994;
1238.1000;0.4306;-3.4069;
1238.4000;0.4314;-3.3994;
1238.7000;0.4330;-3.3994;
1239.0000;0.4298;-3.3994;
1239.3000;0.4314;-3.3895;
1239.6000;0.4314;-3.3945;
1239.9000;0.4330;-3.3845;
1240.2000;0.4290;-3.3994;
1240.5000;0.4355;-3.3796;
1240.8000;0.4306;-3.3994;
1241.1000;0.4314;-3.3970;
1241.4000;0.4314;-3.3920;
1241.7000;0.4314;-3.3845;
1242.0000;0.4306;-3.3895;
1242.3000;0.4314;-3.3845;
1242.6000;0.4298;-3.3895;
1242.9000;0.4306;-3.3970;
1243.2000;0.4298;-3.3994;
1243.5000;0.4314;-3.4119;
1243.8000;0.4347;-3.4169;
1244.1000;0.4347;-3.4119;
1244.4000;0.4314;-3.4293;
1244.7000;0.4314;-3.4243;
1245.0000;0.4306;-3.4318;
1245.3000;0.4290;-3.4318;
1245.6000;0.4298;-3.4169;
1245.9000;0.4306;-3.4044;
1246.2000;0.4322;-3.4044;
1246.5000;0.4217;-3.4268;
1246.8000;0.4290;-3.4094;
1247.1000;0.4387;-3.3845;
1247.4000;0.4314;-3.3994;
1247.7000;0.4298;-3.4094;
1248.0000;0.4306;-3.4119;
1248.3000;0.4322;-3.4069;
1248.6000;0.4314;-3.4144;
1248.9000;0.4339;-3.3994;
1249.2000;0.4322;-3.4069;
1249.5000;0.4282;-3.4169;
1249.8000;0.4274;-3.4268;
1250.1000;0.4355;-3.3970;
1250.4000;0.4298;-3.4069;
1250.7000;0.4257;-3.4169;
1251.0000;0.4290;-3.4193;
1251.3000;0.4306;-3.4144;
1251.6000;0.4371;-3.3970;
1251.9000;0.4306;-3.4069;
1252.2000;0.4330;-3.4019;
1252.5000;0.4290;-3.4094;
1252.8000;0.4298;-3.4094;
1253.1000;0.4314;-3.4119;
1253.4000;0.4306;-3.4169;
1253.7000;0.4314;-3.4119;
1254.0000;0.4330;-3.4019;
1254.3000;0.4298;-3.3970;
1254.6000;0.4314;-3.3920;
1254.9000;0.4314;-3.3994;
1255.2000;0.4274;-3.4069;
1255.5000;0.4322;-3.4044;
1255.8000;0.4298;-3.4094;
1256.1000;0.4298;-3.4069;
1256.4000;0.4298;-3.4044;
1256.7000;0.4347;-3.3870;
1257.0000;0.4298;-3.3994;
1257.3000;0.4290;-3.3920;
1257.6000;0.4282;-3.3895;
1257.9000;0.4298;-3.3845;
1258.2000;0.4330;-3.3845;
1258.5000;0.4282;-3.3920;
1258.8000;0.4282;-3.3845;
1259.1000;0.4306;-3.3845;
1259.4000;0.4298;-3.3895;
1259.7000;0.4306;-3.3920;
1260.0000;0.4314;-3.3994;
1260.3000;0.4306;-3.3994;
1260.6000;0.4298;-3.4019;
1260.9000;0.4314;-3.3970;
1261.2000;0.4290;-3.4069;
1261.5000;0.4306;-3.3970;
1261.8000;0.4306;-3.3895;
1262.1000;0.4314;-3.3845;
1262.4000;0.4298;-3.3920;
1262.7000;0.4306;-3.3845;
1263.0000;0.4298;-3.3920;
1263.3000;0.4290;-3.3945;
1263.6000;0.4322;-3.3945;
1263.9000;0.4298;-3.3870;
1264.2000;0.4298;-3.3920;
1264.5000;0.4314;-3.3895;
1264.8000;0.4298;-3.3945;
1265.1000;0.4322;-3.3945;
1265.4000;0.4274;-3.4019;
1265.7000;0.4322;-3.3895;
1266.0000;0.4282;-3.3994;
1266.3000;0.4265;-3.4094;
1266.6000;0.4355;-3.3920;
1266.9000;0.4298;-3.4044;
1267.2000;0.4314;-3.4019;
1267.5000;0.4298;-3.4094;
1267.8000;0.4322;-3.4069;
1268.1000;0.4404;-3.3820;
1268.4000;0.4298;-3.4019;
1268.7000;0.4290;-3.4069;
1269.0000;0.4282;-3.4044;
1269.3000;0.4298;-3.4094;
1269.6000;0.4282;-3.4069;
1269.9000;0.4298;-3.3994;
1270.2000;0.4282;-3.4019;
1270.5000;0.4322;-3.3870;
1270.8000;0.4314;-3.3994;
1271.1000;0.4282;-3.4119;
1271.4000;0.4306;-3.4069;
1271.7000;0.4314;-3.4069;
1272.0000;0.4274;-3.4119;
1272.3000;0.4371;-3.3845;
1272.6000;0.4290;-3.3945;
1272.9000;0.4322;-3.3895;
1273.2000;0.4347;-3.3820;
1273.5000;0.4314;-3.3870;
1273.8000;0.4314;-3.3796;
1274.1000;0.4322;-3.3796;
1274.4000;0.4290;-3.3796;
1274.7000;0.4290;-3.3771;
1275.0000;0.4322;-3.3671;
1275.3000;0.4298;-3.3746;
1275.6000;0.4322;-3.3746;
1275.9000;0.4306;-3.3721;
1276.2000;0.4306;-3.3820;
1276.5000;0.4298;-3.3845;
1276.8000;0.4282;-3.3945;
1277.1000;0.4298;-3.3970;
1277.4000;0.4298;-3.3970;
1277.7000;0.4363;-3.3696;
1278.0000;0.4322;-3.3820;
1278.3000;0.4347;-3.3771;
1278.6000;0.4298;-3.3920;
1278.9000;0.4322;-3.3771;
1279.2000;0.4298;-3.3845;
1279.5000;0.4306;-3.3820;
1279.8000;0.4298;-3.3796;
1280.1000;0.4290;-3.3870;
1280.4000;0.4306;-3.3845;
1280.7000;0.4396;-3.3621;
1281.0000;0.4339;-3.3771;
1281.3000;0.4314;-3.3895;
1281.6000;0.4290;-3.3970;
1281.9000;0.4257;-3.4069;
1282.2000;0.4298;-3.3994;
1282.5000;0.4282;-3.3920;
1282.8000;0.4306;-3.3796;
1283.1000;0.4290;-3.3870;
1283.4000;0.4298;-3.3895;
1283.7000;0.4298;-3.3895;
1284.0000;0.4314;-3.3796;
1284.3000;0.4306;-3.3771;
1284.6000;0.4306;-3.3820;
1284.9000;0.4290;-3.3920;
1285.2000;0.4298;-3.3970;
1285.5000;0.4322;-3.3895;
1285.8000;0.4314;-3.3870;
1286.1000;0.4298;-3.3820;
1286.4000;0.4314;-3.3771;
1286.7000;0.4322;-3.3671;
1287.0000;0.4330;-3.3771;
1287.3000;0.4314;-3.3845;
1287.6000;0.4314;-3.3945;
1287.9000;0.4306;-3.3920;
1288.2000;0.4314;-3.3870;
1288.5000;0.4339;-3.3845;
1288.8000;0.4298;-3.3920;
1289.1000;0.4282;-3.3945;
1289.4000;0.4322;-3.3895;
1289.7000;0.4290;-3.3945;
1290.0000;0.4355;-3.3796;
1290.3000;0.4314;-3.3920;
1290.6000;0.4322;-3.3994;
1290.9000;0.4314;-3.3945;
1291.2000;0.4314;-3.3945;
1291.5000;0.4314;-3.3970;
1291.8000;0.4282;-3.4019;
1292.1000;0.4306;-3.3945;
1292.4000;0.4314;-3.3970;
1292.7000;0.4314;-3.3895;
1293.0000;0.4306;-3.3945;
1293.3000;0.4322;-3.4019;
1293.6000;0.4306;-3.4019;
1293.9000;0.4298;-3.4019;
1294.2000;0.4306;-3.4094;
1294.5000;0.4322;-3.4094;
1294.8000;0.4322;-3.4094;
1295.1000;0.4379;-3.3970;
1295.4000;0.4314;-3.4094;
1295.7000;0.4306;-3.4069;
1296.0000;0.4298;-3.3970;
1296.3000;0.4404;-3.3721;
1296.6000;0.4314;-3.3920;
1296.9000;0.4314;-3.3970;
1297.2000;0.4314;-3.3920;
1297.5000;0.4322;-3.3796;
1297.8000;0.4290;-3.3845;
1298.1000;0.4290;-3.3771;
1298.4000;0.4314;-3.3721;
1298.7000;0.4355;-3.3621;
1299.0000;0.4306;-3.3820;
1299.3000;0.4290;-3.3845;
1299.6000;0.4306;-3.3796;
1299.9000;0.4282;-3.3870;
1300.2000;0.4298;-3.3845;
1300.5000;0.4282;-3.3920;
1300.8000;0.4306;-3.3870;
1301.1000;0.4290;-3.3920;
1301.4000;0.4306;-3.3895;
1301.7000;0.4298;-3.3895;
1302.0000;0.4282;-3.3895;
1302.3000;0.4298;-3.3945;
1302.6000;0.4306;-3.3945;
1302.9000;0.4314;-3.3870;
1303.2000;0.4298;-3.3920;
1303.5000;0.4306;-3.3920;
1303.8000;0.4396;-3.3671;
1304.1000;0.4306;-3.3920;
1304.4000;0.4298;-3.3945;
1304.7000;0.4306;-3.4019;
1305.0000;0.4314;-3.4044;
1305.3000;0.4322;-3.4044;
1305.6000;0.4265;-3.4094;
1305.9000;0.4225;-3.4243;
1306.2000;0.4290;-3.4044;
1306.5000;0.4314;-3.3994;
1306.8000;0.4298;-3.4144;
1307.1000;0.4322;-3.4069;
1307.4000;0.4306;-3.4169;
1307.7000;0.4298;-3.4243;
1308.0000;0.4314;-3.4144;
1308.3000;0.4274;-3.4119;
1308.6000;0.4347;-3.3920;
1308.9000;0.4306;-3.3945;
1309.2000;0.4298;-3.3870;
1309.5000;0.4322;-3.3721;
1309.8000;0.4298;-3.3870;
1310.1000;0.4306;-3.3845;
1310.4000;0.4314;-3.3920;
1310.7000;0.4290;-3.4044;
1311.0000;0.4290;-3.4094;
1311.3000;0.4322;-3.4069;
1311.6000;0.4290;-3.4119;
1311.9000;0.4330;-3.4069;
1312.2000;0.4298;-3.4218;
1312.5000;0.4347;-3.4069;
1312.8000;0.4306;-3.4193;
1313.1000;0.4249;-3.4343;
1313.4000;0.4330;-3.4119;
1313.7000;0.4363;-3.4019;
1314.0000;0.4314;-3.4094;
1314.3000;0.4306;-3.4094;
1314.6000;0.4322;-3.4144;
1314.9000;0.4322;-3.4119;
1315.2000;0.4306;-3.4094;
1315.5000;0.4330;-3.4044;
1315.8000;0.4290;-3.4069;
1316.1000;0.4282;-3.4019;
1316.4000;0.4274;-3.4044;
1316.7000;0.4339;-3.3920;
1317.0000;0.4306;-3.3994;
1317.3000;0.4282;-3.4019;
1317.6000;0.4306;-3.3945;
1317.9000;0.4330;-3.3796;
1318.2000;0.4339;-3.3746;
1318.5000;0.4314;-3.3796;
1318.8000;0.4306;-3.3796;
1319.1000;0.4322;-3.3820;
1319.4000;0.4290;-3.3870;
1319.7000;0.4314;-3.3820;
1320.0000;0.4314;-3.3820;
1320.3000;0.4298;-3.3796;
1320.6000;0.4379;-3.3547;
1320.9000;0.4322;-3.3771;
1321.2000;0.4306;-3.3746;
1321.5000;0.4314;-3.3696;
1321.8000;0.4306;-3.3746;
1322.1000;0.4314;-3.3796;
1322.4000;0.4322;-3.3845;
1322.7000;0.4306;-3.3895;
1323.0000;0.4290;-3.4044;
1323.3000;0.4314;-3.3945;
1323.6000;0.4306;-3.3970;
1323.9000;0.4322;-3.3845;
1324.2000;0.4282;-3.3970;
1324.5000;0.4322;-3.3920;
1324.8000;0.4306;-3.3895;
1325.1000;0.4298;-3.3870;
1325.4000;0.4298;-3.3820;
1325.7000;0.4241;-3.3994;
1326.0000;0.4306;-3.3895;
1326.3000;0.4306;-3.3895;
1326.6000;0.4306;-3.3945;
1326.9000;0.4298;-3.3994;
1327.2000;0.4298;-3.3994;
1327.5000;0.4306;-3.3945;
1327.8000;0.4282;-3.3945;
1328.1000;0.4298;-3.3920;
1328.4000;0.4298;-3.3870;
1328.7000;0.4347;-3.3796;
1329.0000;0.4339;-3.3845;
1329.3000;0.4306;-3.3895;
1329.6000;0.4314;-3.3945;
1329.9000;0.4298;-3.3945;
1330.2000;0.4314;-3.3945;
1330.5000;0.4298;-3.3994;
1330.8000;0.4306;-3.3895;
1331.1000;0.4322;-3.3771;
1331.4000;0.4265;-3.3945;
1331.7000;0.4298;-3.3895;
1332.0000;0.4306;-3.3920;
1332.3000;0.4306;-3.3945;
1332.6000;0.4322;-3.4019;
1332.9000;0.4298;-3.4044;
1333.2000;0.4298;-3.3994;
1333.5000;0.4290;-3.3920;
1333.8000;0.4306;-3.3796;
1334.1000;0.4298;-3.3746;
1334.4000;0.4282;-3.3796;
1334.7000;0.4290;-3.3920;
1335.0000;0.4322;-3.3920;
1335.3000;0.4314;-3.3870;
1335.6000;0.4314;-3.3895;
1335.9000;0.4298;-3.3945;
1336.2000;0.4290;-3.3970;
1336.5000;0.4322;-3.3895;
1336.8000;0.4298;-3.3920;
1337.1000;0.4265;-3.4019;
1337.4000;0.4371;-3.3895;
1337.7000;0.4298;-3.4044;
1338.0000;0.4314;-3.3970;
1338.3000;0.4200;-3.4193;
1338.6000;0.4282;-3.3895;
1338.9000;0.4306;-3.3845;
1339.2000;0.4298;-3.3820;
1339.5000;0.4265;-3.3870;
1339.8000;0.4282;-3.3721;
1340.1000;0.4298;-3.3721;
1340.4000;0.4257;-3.3820;
1340.7000;0.4282;-3.3746;
1341.0000;0.4314;-3.3796;
1341.3000;0.4306;-3.3870;
1341.6000;0.4233;-3.4019;
1341.9000;0.4314;-3.3796;
1342.2000;0.4298;-3.3920;
1342.5000;0.4306;-3.3870;
1342.8000;0.4322;-3.3771;
1343.1000;0.4306;-3.3771;
1343.4000;0.4322;-3.3671;
1343.7000;0.4306;-3.3721;
1344.0000;0.4306;-3.3746;
1344.3000;0.4355;-3.3646;
1344.6000;0.4290;-3.3796;
1344.9000;0.4298;-3.3746;
1345.2000;0.4314;-3.3746;
1345.5000;0.4314;-3.3771;
1345.8000;0.4363;-3.3746;
1346.1000;0.4306;-3.3920;
1346.4000;0.4363;-3.3696;
1346.7000;0.4339;-3.3696;
1347.0000;0.4306;-3.3696;
1347.3000;0.4257;-3.3870;
1347.6000;0.4298;-3.3870;
1347.9000;0.4298;-3.3895;
1348.2000;0.4322;-3.3820;
1348.5000;0.4314;-3.3870;
1348.8000;0.4314;-3.3920;
1349.1000;0.4290;-3.3970;
1349.4000;0.4306;-3.3845;
1349.7000;0.4274;-3.3870;
1350.0000;0.4306;-3.3870;
1350.3000;0.4225;-3.4144;
1350.6000;0.4298;-3.3920;
1350.9000;0.4314;-3.3895;
1351.2000;0.4298;-3.3870;
1351.5000;0.4282;-3.3895;
1351.8000;0.4322;-3.3845;
1352.1000;0.4306;-3.3870;
1352.4000;0.4306;-3.3771;
1352.7000;0.4322;-3.3721;
1353.0000;0.4208;-3.3945;
1353.3000;0.4314;-3.3796;
1353.6000;0.4306;-3.3845;
1353.9000;0.4274;-3.3970;
1354.2000;0.4314;-3.3870;
1354.5000;0.4298;-3.3895;
1354.8000;0.4314;-3.3746;
1355.1000;0.4306;-3.3771;
1355.4000;0.4306;-3.3870;
1355.7000;0.4290;-3.3820;
1356.0000;0.4314;-3.3796;
1356.3000;0.4314;-3.3771;
1356.6000;0.4322;-3.3771;
1356.9000;0.4314;-3.3721;
1357.2000;0.4339;-3.3671;
1357.5000;0.4330;-3.3646;
1357.8000;0.4290;-3.3771;
1358.1000;0.4314;-3.3870;
1358.4000;0.4314;-3.3820;
1358.7000;0.4306;-3.3895;
1359.0000;0.4306;-3.3895;
1359.3000;0.4298;-3.3970;
1359.6000;0.4298;-3.3945;
1359.9000;0.4306;-3.3994;
1360.2000;0.4314;-3.3870;
1360.5000;0.4306;-3.3845;
1360.8000;0.4314;-3.3796;
1361.1000;0.4298;-3.3845;
1361.4000;0.4322;-3.3845;
1361.7000;0.4298;-3.3920;
1362.0000;0.4314;-3.3920;
1362.3000;0.4306;-3.3920;
1362.6000;0.4298;-3.3994;
1362.9000;0.4282;-3.3970;
1363.2000;0.4306;-3.3970;
1363.5000;0.4355;-3.3820;
1363.8000;0.4298;-3.3870;
1364.1000;0.4314;-3.3870;
1364.4000;0.4298;-3.4019;
1364.7000;0.4298;-3.4019;
1365.0000;0.4322;-3.4044;
1365.3000;0.4330;-3.4094;
1365.6000;0.4306;-3.4218;
1365.9000;0.4314;-3.4144;
1366.2000;0.4225;-3.4293;
1366.5000;0.4330;-3.4019;
1366.8000;0.4290;-3.4193;
1367.1000;0.4306;-3.4119;
1367.4000;0.4298;-3.4144;
1367.7000;0.4322;-3.4169;
1368.0000;0.4290;-3.4293;
1368.3000;0.4233;-3.4392;
1368.6000;0.4314;-3.4119;
1368.9000;0.4298;-3.4094;
1369.2000;0.4298;-3.3970;
1369.5000;0.4339;-3.3970;
1369.8000;0.4290;-3.4019;
1370.1000;0.4306;-3.3994;
1370.4000;0.4396;-3.3771;
1370.7000;0.4282;-3.3994;
1371.0000;0.4298;-3.3920;
1371.3000;0.4290;-3.3895;
1371.6000;0.4306;-3.3820;
1371.9000;0.4274;-3.4019;
1372.2000;0.4330;-3.3895;
1372.5000;0.4314;-3.3994;
1372.8000;0.4306;-3.4044;
1373.1000;0.4306;-3.4119;
1373.4000;0.4298;-3.4144;
1373.7000;0.4257;-3.4193;
1374.0000;0.4314;-3.3920;
1374.3000;0.4298;-3.4044;
1374.6000;0.4282;-3.4094;
1374.9000;0.4298;-3.3970;
1375.2000;0.4306;-3.3970;
1375.5000;0.4330;-3.3945;
1375.8000;0.4314;-3.3920;
1376.1000;0.4290;-3.3994;
1376.4000;0.4322;-3.3945;
1376.7000;0.4314;-3.3920;
1377.0000;0.4347;-3.3870;
1377.3000;0.4314;-3.3895;
1377.6000;0.4298;-3.3870;
1377.9000;0.4306;-3.3845;
1378.2000;0.4314;-3.3820;
1378.5000;0.4298;-3.3895;
1378.8000;0.4314;-3.3970;
1379.1000;0.4290;-3.4094;
1379.4000;0.4298;-3.3994;
1379.7000;0.4314;-3.4044;
1380.0000;0.4322;-3.3994;
1380.3000;0.4298;-3.3920;
1380.6000;0.4322;-3.3845;
1380.9000;0.4290;-3.3796;
1381.2000;0.4322;-3.3721;
1381.5000;0.4306;-3.3796;
1381.8000;0.4322;-3.3771;
1382.1000;0.4290;-3.3796;
1382.4000;0.4314;-3.3746;
1382.7000;0.4314;-3.3870;
1383.0000;0.4290;-3.3845;
1383.3000;0.4347;-3.3721;
1383.6000;0.4322;-3.3820;
1383.9000;0.4322;-3.3771;
1384.2000;0.4330;-3.3696;
1384.5000;0.4306;-3.3820;
1384.8000;0.4314;-3.3845;
1385.1000;0.4314;-3.3895;
1385.4000;0.4306;-3.3895;
1385.7000;0.4314;-3.3994;
1386.0000;0.4314;-3.4019;
1386.3000;0.4330;-3.3970;
1386.6000;0.4314;-3.3920;
1386.9000;0.4314;-3.3945;
1387.2000;0.4314;-3.3820;
1387.5000;0.4314;-3.3721;
1387.8000;0.4306;-3.3746;
1388.1000;0.4298;-3.3796;
1388.4000;0.4314;-3.3721;
1388.7000;0.4330;-3.3746;
1389.0000;0.4314;-3.3870;
1389.3000;0.4330;-3.3920;
1389.6000;0.4298;-3.3994;
1389.9000;0.4314;-3.3994;
1390.2000;0.4322;-3.3994;
1390.5000;0.4306;-3.3970;
1390.8000;0.4290;-3.4019;
1391.1000;0.4314;-3.3945;
1391.4000;0.4314;-3.3970;
1391.7000;0.4290;-3.4069;
1392.0000;0.4314;-3.4094;
1392.3000;0.4306;-3.4119;
1392.6000;0.4306;-3.4144;
1392.9000;0.4306;-3.4119;
1393.2000;0.4298;-3.4144;
1393.5000;0.4306;-3.4094;
1393.8000;0.4371;-3.3870;
1394.1000;0.4314;-3.3970;
1394.4000;0.4290;-3.3994;
1394.7000;0.4298;-3.3970;
1395.0000;0.4322;-3.3970;
1395.3000;0.4314;-3.4044;
1395.6000;0.4322;-3.4044;
1395.9000;0.4298;-3.4144;
1396.2000;0.4290;-3.4218;
1396.5000;0.4306;-3.4293;
1396.8000;0.4306;-3.4243;
1397.1000;0.4298;-3.4318;
1397.4000;0.4290;-3.4243;
1397.7000;0.4298;-3.4243;
1398.0000;0.4306;-3.4218;
1398.3000;0.4306;-3.4169;
1398.6000;0.4314;-3.4044;
1398.9000;0.4314;-3.4044;
1399.2000;0.4290;-3.4144;
1399.5000;0.4314;-3.4193;
1399.8000;0.4306;-3.4268;
