time/ms;Fluo/V;P700 deltaI/I x10³;
-199.8000;0.5258;-3.3646;
-199.5000;0.5250;-3.3671;
-199.2000;0.5258;-3.3721;
-198.9000;0.5234;-3.3771;
-198.6000;0.5250;-3.3721;
-198.3000;0.5250;-3.3721;
-198.0000;0.5234;-3.3771;
-197.7000;0.5242;-3.3572;
-197.4000;0.5267;-3.3472;
-197.1000;0.5242;-3.3472;
-196.8000;0.5291;-3.3422;
-196.5000;0.5242;-3.3522;
-196.2000;0.5250;-3.3472;
-195.9000;0.5250;-3.3522;
-195.6000;0.5242;-3.3597;
-195.3000;0.5315;-3.3497;
-195.0000;0.5283;-3.3597;
-194.7000;0.5242;-3.3746;
-194.4000;0.5242;-3.3746;
-194.1000;0.5210;-3.3845;
-193.8000;0.5291;-3.3621;
-193.5000;0.5283;-3.3547;
-193.2000;0.5258;-3.3522;
-192.9000;0.5242;-3.3522;
-192.6000;0.5283;-3.3447;
-192.3000;0.5267;-3.3522;
-192.0000;0.5250;-3.3597;
-191.7000;0.5250;-3.3597;
-191.4000;0.5267;-3.3597;
-191.1000;0.5267;-3.3522;
-190.8000;0.5242;-3.3572;
-190.5000;0.5275;-3.3597;
-190.2000;0.5267;-3.3597;
-189.9000;0.5275;-3.3522;
-189.6000;0.5299;-3.3422;
-189.3000;0.5234;-3.3621;
-189.0000;0.5267;-3.3522;
-188.7000;0.5258;-3.3547;
-188.4000;0.5275;-3.3572;
-188.1000;0.5258;-3.3522;
-187.8000;0.5267;-3.3472;
-187.5000;0.5275;-3.3447;
-187.2000;0.5267;-3.3422;
-186.9000;0.5258;-3.3497;
-186.6000;0.5250;-3.3497;
-186.3000;0.5267;-3.3522;
-186.0000;0.5234;-3.3447;
-185.7000;0.5250;-3.3472;
-185.4000;0.5242;-3.3472;
-185.1000;0.5250;-3.3348;
-184.8000;0.5275;-3.3273;
-184.5000;0.5242;-3.3398;
-184.2000;0.5242;-3.3472;
-183.9000;0.5250;-3.3398;
-183.6000;0.5267;-3.3497;
-183.3000;0.5267;-3.3472;
-183.0000;0.5258;-3.3398;
-182.7000;0.5267;-3.3422;
-182.4000;0.5250;-3.3447;
-182.1000;0.5258;-3.3547;
-181.8000;0.5258;-3.3547;
-181.5000;0.5275;-3.3621;
-181.2000;0.5258;-3.3621;
-180.9000;0.5275;-3.3572;
-180.6000;0.5275;-3.3522;
-180.3000;0.5210;-3.3696;
-180.0000;0.5258;-3.3547;
-179.7000;0.5234;-3.3746;
-179.4000;0.5250;-3.3746;
-179.1000;0.5258;-3.3721;
-178.8000;0.5258;-3.3696;
-178.5000;0.5242;-3.3621;
-178.2000;0.5258;-3.3646;
-177.9000;0.5242;-3.3621;
-177.6000;0.5258;-3.3572;
-177.3000;0.5242;-3.3671;
-177.0000;0.5258;-3.3597;
-176.7000;0.5267;-3.3547;
-176.4000;0.5267;-3.3547;
-176.1000;0.5242;-3.3646;
-175.8000;0.5169;-3.3895;
-175.5000;0.5258;-3.3721;
-175.2000;0.5258;-3.3671;
-174.9000;0.5242;-3.3621;
-174.6000;0.5258;-3.3572;
-174.3000;0.5275;-3.3597;
-174.0000;0.5275;-3.3646;
-173.7000;0.5267;-3.3696;
-173.4000;0.5267;-3.3646;
-173.1000;0.5267;-3.3597;
-172.8000;0.5267;-3.3621;
-172.5000;0.5267;-3.3671;
-172.2000;0.5234;-3.3721;
-171.9000;0.5242;-3.3671;
-171.6000;0.5234;-3.3746;
-171.3000;0.5193;-3.3895;
-171.0000;0.5258;-3.3746;
-170.7000;0.5267;-3.3646;
-170.4000;0.5299;-3.3547;
-170.1000;0.5275;-3.3572;
-169.8000;0.5258;-3.3671;
-169.5000;0.5267;-3.3721;
-169.2000;0.5275;-3.3746;
-168.9000;0.5267;-3.3696;
-168.6000;0.5242;-3.3696;
-168.3000;0.5242;-3.3646;
-168.0000;0.5267;-3.3621;
-167.7000;0.5258;-3.3646;
-167.4000;0.5267;-3.3671;
-167.1000;0.5210;-3.3895;
-166.8000;0.5267;-3.3671;
-166.5000;0.5258;-3.3646;
-166.2000;0.5307;-3.3572;
-165.9000;0.5258;-3.3621;
-165.6000;0.5267;-3.3572;
-165.3000;0.5267;-3.3547;
-165.0000;0.5258;-3.3696;
-164.7000;0.5258;-3.3746;
-164.4000;0.5283;-3.3696;
-164.1000;0.5218;-3.3895;
-163.8000;0.5258;-3.3845;
-163.5000;0.5250;-3.3920;
-163.2000;0.5267;-3.3845;
-162.9000;0.5242;-3.3945;
-162.6000;0.5267;-3.3845;
-162.3000;0.5267;-3.3721;
-162.0000;0.5258;-3.3671;
-161.7000;0.5267;-3.3522;
-161.4000;0.5258;-3.3522;
-161.1000;0.5283;-3.3447;
-160.8000;0.5258;-3.3522;
-160.5000;0.5242;-3.3646;
-160.2000;0.5242;-3.3696;
-159.9000;0.5218;-3.3845;
-159.6000;0.5275;-3.3796;
-159.3000;0.5258;-3.3796;
-159.0000;0.5218;-3.3820;
-158.7000;0.5250;-3.3696;
-158.4000;0.5267;-3.3696;
-158.1000;0.5234;-3.3721;
-157.8000;0.5275;-3.3721;
-157.5000;0.5267;-3.3796;
-157.2000;0.5267;-3.3796;
-156.9000;0.5242;-3.3820;
-156.6000;0.5267;-3.3820;
-156.3000;0.5267;-3.3771;
-156.0000;0.5258;-3.3721;
-155.7000;0.5283;-3.3771;
-155.4000;0.5283;-3.3721;
-155.1000;0.5242;-3.3696;
-154.8000;0.5234;-3.3696;
-154.5000;0.5258;-3.3621;
-154.2000;0.5258;-3.3621;
-153.9000;0.5226;-3.3696;
-153.6000;0.5250;-3.3646;
-153.3000;0.5250;-3.3522;
-153.0000;0.5218;-3.3621;
-152.7000;0.5226;-3.3572;
-152.4000;0.5267;-3.3621;
-152.1000;0.5258;-3.3597;
-151.8000;0.5324;-3.3447;
-151.5000;0.5250;-3.3646;
-151.2000;0.5234;-3.3820;
-150.9000;0.5258;-3.3796;
-150.6000;0.5258;-3.3721;
-150.3000;0.5267;-3.3721;
-150.0000;0.5250;-3.3746;
-149.7000;0.5267;-3.3721;
-149.4000;0.5250;-3.3771;
-149.1000;0.5234;-3.3820;
-148.8000;0.5250;-3.3696;
-148.5000;0.5250;-3.3621;
-148.2000;0.5250;-3.3646;
-147.9000;0.5250;-3.3646;
-147.6000;0.5275;-3.3696;
-147.3000;0.5250;-3.3746;
-147.0000;0.5267;-3.3746;
-146.7000;0.5299;-3.3646;
-146.4000;0.5291;-3.3646;
-146.1000;0.5258;-3.3721;
-145.8000;0.5258;-3.3696;
-145.5000;0.5242;-3.3746;
-145.2000;0.5234;-3.3746;
-144.9000;0.5242;-3.3721;
-144.6000;0.5315;-3.3398;
-144.3000;0.5258;-3.3572;
-144.0000;0.5299;-3.3522;
-143.7000;0.5307;-3.3522;
-143.4000;0.5258;-3.3621;
-143.1000;0.5242;-3.3696;
-142.8000;0.5283;-3.3646;
-142.5000;0.5250;-3.3796;
-142.2000;0.5250;-3.3771;
-141.9000;0.5258;-3.3696;
-141.6000;0.5258;-3.3746;
-141.3000;0.5275;-3.3671;
-141.0000;0.5283;-3.3696;
-140.7000;0.5267;-3.3845;
-140.4000;0.5267;-3.3746;
-140.1000;0.5275;-3.3646;
-139.8000;0.5267;-3.3671;
-139.5000;0.5242;-3.3671;
-139.2000;0.5267;-3.3646;
-138.9000;0.5258;-3.3696;
-138.6000;0.5267;-3.3721;
-138.3000;0.5242;-3.3696;
-138.0000;0.5250;-3.3771;
-137.7000;0.5250;-3.3746;
-137.4000;0.5258;-3.3696;
-137.1000;0.5242;-3.3746;
-136.8000;0.5234;-3.3671;
-136.5000;0.5250;-3.3646;
-136.2000;0.5250;-3.3646;
-135.9000;0.5267;-3.3572;
-135.6000;0.5258;-3.3547;
-135.3000;0.5258;-3.3547;
-135.0000;0.5242;-3.3597;
-134.7000;0.5242;-3.3696;
-134.4000;0.5283;-3.3547;
-134.1000;0.5356;-3.3248;
-133.8000;0.5242;-3.3522;
-133.5000;0.5250;-3.3472;
-133.2000;0.5250;-3.3547;
-132.9000;0.5242;-3.3597;
-132.6000;0.5250;-3.3522;
-132.3000;0.5250;-3.3671;
-132.0000;0.5275;-3.3671;
-131.7000;0.5258;-3.3646;
-131.4000;0.5258;-3.3621;
-131.1000;0.5242;-3.3621;
-130.8000;0.5315;-3.3422;
-130.5000;0.5258;-3.3497;
-130.2000;0.5250;-3.3547;
-129.9000;0.5258;-3.3547;
-129.6000;0.5267;-3.3497;
-129.3000;0.5258;-3.3422;
-129.0000;0.5267;-3.3472;
-128.7000;0.5242;-3.3547;
-128.4000;0.5258;-3.3472;
-128.1000;0.5307;-3.3224;
-127.8000;0.5356;-3.3124;
-127.5000;0.5242;-3.3447;
-127.2000;0.5267;-3.3422;
-126.9000;0.5258;-3.3447;
-126.6000;0.5258;-3.3348;
-126.3000;0.5258;-3.3373;
-126.0000;0.5250;-3.3447;
-125.7000;0.5250;-3.3646;
-125.4000;0.5250;-3.3771;
-125.1000;0.5250;-3.3746;
-124.8000;0.5226;-3.3820;
-124.5000;0.5258;-3.3671;
-124.2000;0.5258;-3.3696;
-123.9000;0.5250;-3.3746;
-123.6000;0.5185;-3.3895;
-123.3000;0.5267;-3.3671;
-123.0000;0.5267;-3.3721;
-122.7000;0.5218;-3.3820;
-122.4000;0.5250;-3.3671;
-122.1000;0.5258;-3.3671;
-121.8000;0.5275;-3.3671;
-121.5000;0.5226;-3.3771;
-121.2000;0.5258;-3.3771;
-120.9000;0.5258;-3.3845;
-120.6000;0.5193;-3.3994;
-120.3000;0.5250;-3.3820;
-120.0000;0.5250;-3.3796;
-119.7000;0.5258;-3.3796;
-119.4000;0.5267;-3.3721;
-119.1000;0.5258;-3.3696;
-118.8000;0.5275;-3.3597;
-118.5000;0.5258;-3.3621;
-118.2000;0.5258;-3.3696;
-117.9000;0.5250;-3.3721;
-117.6000;0.5267;-3.3746;
-117.3000;0.5267;-3.3796;
-117.0000;0.5258;-3.3721;
-116.7000;0.5275;-3.3671;
-116.4000;0.5258;-3.3621;
-116.1000;0.5258;-3.3572;
-115.8000;0.5242;-3.3621;
-115.5000;0.5258;-3.3522;
-115.2000;0.5258;-3.3621;
-114.9000;0.5267;-3.3671;
-114.6000;0.5250;-3.3721;
-114.3000;0.5275;-3.3746;
-114.0000;0.5267;-3.3621;
-113.7000;0.5267;-3.3646;
-113.4000;0.5250;-3.3721;
-113.1000;0.5250;-3.3820;
-112.8000;0.5242;-3.3845;
-112.5000;0.5275;-3.3820;
-112.2000;0.5267;-3.3845;
-111.9000;0.5250;-3.3845;
-111.6000;0.5275;-3.3771;
-111.3000;0.5250;-3.3845;
-111.0000;0.5267;-3.3895;
-110.7000;0.5250;-3.3945;
-110.4000;0.5242;-3.4044;
-110.1000;0.5275;-3.4044;
-109.8000;0.5258;-3.4119;
-109.5000;0.5267;-3.3994;
-109.2000;0.5234;-3.3945;
-108.9000;0.5275;-3.3945;
-108.6000;0.5267;-3.3970;
-108.3000;0.5258;-3.3895;
-108.0000;0.5258;-3.3920;
-107.7000;0.5218;-3.4044;
-107.4000;0.5267;-3.3895;
-107.1000;0.5275;-3.3845;
-106.8000;0.5250;-3.3870;
-106.5000;0.5258;-3.3820;
-106.2000;0.5267;-3.3945;
-105.9000;0.5193;-3.4169;
-105.6000;0.5267;-3.4019;
-105.3000;0.5258;-3.4169;
-105.0000;0.5242;-3.4144;
-104.7000;0.5258;-3.3970;
-104.4000;0.5275;-3.3920;
-104.1000;0.5234;-3.4019;
-103.8000;0.5307;-3.3845;
-103.5000;0.5275;-3.3820;
-103.2000;0.5258;-3.3696;
-102.9000;0.5258;-3.3646;
-102.6000;0.5250;-3.3671;
-102.3000;0.5258;-3.3671;
-102.0000;0.5267;-3.3746;
-101.7000;0.5226;-3.3796;
-101.4000;0.5250;-3.3696;
-101.1000;0.5299;-3.3597;
-100.8000;0.5258;-3.3696;
-100.5000;0.5283;-3.3621;
-100.2000;0.5250;-3.3696;
-99.9000;0.5250;-3.3746;
-99.6000;0.5185;-3.3970;
-99.3000;0.5275;-3.3671;
-99.0000;0.5324;-3.3447;
-98.7000;0.5267;-3.3597;
-98.4000;0.5234;-3.3646;
-98.1000;0.5283;-3.3597;
-97.8000;0.5258;-3.3671;
-97.5000;0.5250;-3.3721;
-97.2000;0.5258;-3.3621;
-96.9000;0.5258;-3.3671;
-96.6000;0.5267;-3.3721;
-96.3000;0.5275;-3.3671;
-96.0000;0.5234;-3.3796;
-95.7000;0.5267;-3.3796;
-95.4000;0.5283;-3.3820;
-95.1000;0.5275;-3.3845;
-94.8000;0.5267;-3.3796;
-94.5000;0.5275;-3.3796;
-94.2000;0.5267;-3.3796;
-93.9000;0.5267;-3.3796;
-93.6000;0.5242;-3.3771;
-93.3000;0.5267;-3.3746;
-93.0000;0.5275;-3.3721;
-92.7000;0.5267;-3.3671;
-92.4000;0.5258;-3.3646;
-92.1000;0.5250;-3.3597;
-91.8000;0.5267;-3.3572;
-91.5000;0.5275;-3.3646;
-91.2000;0.5250;-3.3696;
-90.9000;0.5267;-3.3572;
-90.6000;0.5275;-3.3522;
-90.3000;0.5242;-3.3472;
-90.0000;0.5226;-3.3522;
-89.7000;0.5250;-3.3547;
-89.4000;0.5258;-3.3522;
-89.1000;0.5250;-3.3572;
-88.8000;0.5275;-3.3597;
-88.5000;0.5250;-3.3572;
-88.2000;0.5258;-3.3646;
-87.9000;0.5291;-3.3547;
-87.6000;0.5267;-3.3621;
-87.3000;0.5267;-3.3671;
-87.0000;0.5275;-3.3572;
-86.7000;0.5275;-3.3572;
-86.4000;0.5250;-3.3671;
-86.1000;0.5258;-3.3721;
-85.8000;0.5210;-3.3771;
-85.5000;0.5250;-3.3646;
-85.2000;0.5258;-3.3597;
-84.9000;0.5250;-3.3597;
-84.6000;0.5242;-3.3572;
-84.3000;0.5234;-3.3671;
-84.0000;0.5258;-3.3597;
-83.7000;0.5299;-3.3572;
-83.4000;0.5250;-3.3721;
-83.1000;0.5291;-3.3621;
-82.8000;0.5258;-3.3746;
-82.5000;0.5267;-3.3721;
-82.2000;0.5258;-3.3771;
-81.9000;0.5258;-3.3870;
-81.6000;0.5250;-3.3721;
-81.3000;0.5258;-3.3721;
-81.0000;0.5275;-3.3696;
-80.7000;0.5258;-3.3696;
-80.4000;0.5258;-3.3671;
-80.1000;0.5250;-3.3771;
-79.8000;0.5234;-3.3721;
-79.5000;0.5250;-3.3671;
-79.2000;0.5258;-3.3796;
-78.9000;0.5258;-3.3746;
-78.6000;0.5275;-3.3771;
-78.3000;0.5275;-3.3845;
-78.0000;0.5307;-3.3721;
-77.7000;0.5340;-3.3646;
-77.4000;0.5267;-3.3796;
-77.1000;0.5258;-3.3771;
-76.8000;0.5250;-3.3771;
-76.5000;0.5250;-3.3796;
-76.2000;0.5267;-3.3696;
-75.9000;0.5258;-3.3721;
-75.6000;0.5258;-3.3746;
-75.3000;0.5258;-3.3771;
-75.0000;0.5258;-3.3696;
-74.7000;0.5275;-3.3721;
-74.4000;0.5267;-3.3696;
-74.1000;0.5381;-3.3472;
-73.8000;0.5242;-3.3771;
-73.5000;0.5267;-3.3746;
-73.2000;0.5275;-3.3696;
-72.9000;0.5250;-3.3671;
-72.6000;0.5242;-3.3597;
-72.3000;0.5258;-3.3497;
-72.0000;0.5258;-3.3447;
-71.7000;0.5267;-3.3472;
-71.4000;0.5250;-3.3472;
-71.1000;0.5250;-3.3547;
-70.8000;0.5267;-3.3572;
-70.5000;0.5242;-3.3621;
-70.2000;0.5218;-3.3746;
-69.9000;0.5250;-3.3721;
-69.6000;0.5169;-3.3895;
-69.3000;0.5234;-3.3746;
-69.0000;0.5242;-3.3696;
-68.7000;0.5250;-3.3696;
-68.4000;0.5250;-3.3646;
-68.1000;0.5250;-3.3572;
-67.8000;0.5267;-3.3472;
-67.5000;0.5250;-3.3597;
-67.2000;0.5258;-3.3572;
-66.9000;0.5242;-3.3522;
-66.6000;0.5234;-3.3572;
-66.3000;0.5258;-3.3572;
-66.0000;0.5258;-3.3497;
-65.7000;0.5250;-3.3522;
-65.4000;0.5258;-3.3522;
-65.1000;0.5267;-3.3547;
-64.8000;0.5267;-3.3547;
-64.5000;0.5267;-3.3597;
-64.2000;0.5258;-3.3646;
-63.9000;0.5258;-3.3671;
-63.6000;0.5258;-3.3572;
-63.3000;0.5234;-3.3597;
-63.0000;0.5218;-3.3696;
-62.7000;0.5242;-3.3671;
-62.4000;0.5242;-3.3597;
-62.1000;0.5242;-3.3572;
-61.8000;0.5234;-3.3522;
-61.5000;0.5242;-3.3547;
-61.2000;0.5226;-3.3671;
-60.9000;0.5218;-3.3696;
-60.6000;0.5242;-3.3572;
-60.3000;0.5250;-3.3572;
-60.0000;0.5275;-3.3522;
-59.7000;0.5315;-3.3447;
-59.4000;0.5242;-3.3572;
-59.1000;0.5258;-3.3621;
-58.8000;0.5250;-3.3522;
-58.5000;0.5250;-3.3522;
-58.2000;0.5242;-3.3522;
-57.9000;0.5267;-3.3472;
-57.6000;0.5267;-3.3497;
-57.3000;0.5250;-3.3572;
-57.0000;0.5210;-3.3671;
-56.7000;0.5267;-3.3547;
-56.4000;0.5258;-3.3646;
-56.1000;0.5258;-3.3572;
-55.8000;0.5258;-3.3597;
-55.5000;0.5242;-3.3671;
-55.2000;0.5267;-3.3646;
-54.9000;0.5242;-3.3721;
-54.6000;0.5258;-3.3671;
-54.3000;0.5267;-3.3746;
-54.0000;0.5275;-3.3696;
-53.7000;0.5275;-3.3671;
-53.4000;0.5275;-3.3696;
-53.1000;0.5283;-3.3547;
-52.8000;0.5299;-3.3572;
-52.5000;0.5242;-3.3796;
-52.2000;0.5242;-3.3771;
-51.9000;0.5324;-3.3671;
-51.6000;0.5234;-3.3945;
-51.3000;0.5250;-3.3945;
-51.0000;0.5242;-3.3895;
-50.7000;0.5234;-3.3920;
-50.4000;0.5226;-3.3870;
-50.1000;0.5169;-3.4044;
-49.8000;0.5226;-3.4019;
-49.5000;0.5242;-3.3945;
-49.2000;0.5258;-3.3820;
-48.9000;0.5267;-3.3771;
-48.6000;0.5234;-3.3845;
-48.3000;0.5250;-3.3746;
-48.0000;0.5242;-3.3721;
-47.7000;0.5258;-3.3621;
-47.4000;0.5258;-3.3572;
-47.1000;0.5275;-3.3547;
-46.8000;0.5242;-3.3621;
-46.5000;0.5242;-3.3621;
-46.2000;0.5258;-3.3671;
-45.9000;0.5267;-3.3646;
-45.6000;0.5275;-3.3621;
-45.3000;0.5267;-3.3746;
-45.0000;0.5242;-3.3820;
-44.7000;0.5258;-3.3771;
-44.4000;0.5234;-3.3746;
-44.1000;0.5250;-3.3746;
-43.8000;0.5250;-3.3771;
-43.5000;0.5250;-3.3796;
-43.2000;0.5267;-3.3746;
-42.9000;0.5275;-3.3646;
-42.6000;0.5250;-3.3746;
-42.3000;0.5275;-3.3621;
-42.0000;0.5226;-3.3746;
-41.7000;0.5267;-3.3671;
-41.4000;0.5258;-3.3646;
-41.1000;0.5258;-3.3696;
-40.8000;0.5258;-3.3771;
-40.5000;0.5258;-3.3696;
-40.2000;0.5242;-3.3746;
-39.9000;0.5242;-3.3671;
-39.6000;0.5258;-3.3671;
-39.3000;0.5250;-3.3646;
-39.0000;0.5234;-3.3671;
-38.7000;0.5250;-3.3621;
-38.4000;0.5242;-3.3597;
-38.1000;0.5242;-3.3597;
-37.8000;0.5267;-3.3621;
-37.5000;0.5250;-3.3721;
-37.2000;0.5242;-3.3771;
-36.9000;0.5242;-3.3671;
-36.6000;0.5250;-3.3721;
-36.3000;0.5250;-3.3746;
-36.0000;0.5258;-3.3721;
-35.7000;0.5315;-3.3547;
-35.4000;0.5267;-3.3621;
-35.1000;0.5258;-3.3721;
-34.8000;0.5250;-3.3746;
-34.5000;0.5242;-3.3820;
-34.2000;0.5258;-3.3696;
-33.9000;0.5258;-3.3746;
-33.6000;0.5210;-3.3945;
-33.3000;0.5267;-3.3746;
-33.0000;0.5242;-3.3771;
-32.7000;0.5258;-3.3771;
-32.4000;0.5267;-3.3746;
-32.1000;0.5258;-3.3771;
-31.8000;0.5242;-3.3771;
-31.5000;0.5283;-3.3671;
-31.2000;0.5250;-3.3771;
-30.9000;0.5258;-3.3696;
-30.6000;0.5291;-3.3721;
-30.3000;0.5275;-3.3796;
-30.0000;0.5258;-3.3746;
-29.7000;0.5267;-3.3746;
-29.4000;0.5275;-3.3771;
-29.1000;0.5242;-3.3721;
-28.8000;0.5234;-3.3771;
-28.5000;0.5242;-3.3820;
-28.2000;0.5307;-3.3746;
-27.9000;0.5291;-3.3820;
-27.6000;0.5258;-3.3796;
-27.3000;0.5250;-3.3746;
-27.0000;0.5250;-3.3671;
-26.7000;0.5226;-3.3771;
-26.4000;0.5218;-3.3796;
-26.1000;0.5250;-3.3696;
-25.8000;0.5267;-3.3671;
-25.5000;0.5267;-3.3597;
-25.2000;0.5201;-3.3746;
-24.9000;0.5258;-3.3646;
-24.6000;0.5250;-3.3721;
-24.3000;0.5258;-3.3646;
-24.0000;0.5242;-3.3721;
-23.7000;0.5267;-3.3696;
-23.4000;0.5291;-3.3646;
-23.1000;0.5258;-3.3721;
-22.8000;0.5283;-3.3721;
-22.5000;0.5258;-3.3621;
-22.2000;0.5275;-3.3522;
-21.9000;0.5275;-3.3572;
-21.6000;0.5242;-3.3646;
-21.3000;0.5250;-3.3572;
-21.0000;0.5250;-3.3547;
-20.7000;0.5242;-3.3621;
-20.4000;0.5242;-3.3671;
-20.1000;0.5250;-3.3671;
-19.8000;0.5250;-3.3721;
-19.5000;0.5258;-3.3721;
-19.2000;0.5258;-3.3671;
-18.9000;0.5250;-3.3621;
-18.6000;0.5267;-3.3572;
-18.3000;0.5258;-3.3597;
-18.0000;0.5218;-3.3771;
-17.7000;0.5267;-3.3597;
-17.4000;0.5275;-3.3497;
-17.1000;0.5267;-3.3547;
-16.8000;0.5275;-3.3597;
-16.5000;0.5267;-3.3572;
-16.2000;0.5258;-3.3597;
-15.9000;0.5250;-3.3671;
-15.6000;0.5250;-3.3696;
-15.3000;0.5250;-3.3721;
-15.0000;0.5258;-3.3771;
-14.7000;0.5258;-3.3796;
-14.4000;0.5332;-3.3597;
-14.1000;0.5258;-3.3771;
-13.8000;0.5258;-3.3696;
-13.5000;0.5283;-3.3721;
-13.2000;0.5242;-3.3771;
-12.9000;0.5307;-3.3547;
-12.6000;0.5267;-3.3597;
-12.3000;0.5242;-3.3621;
-12.0000;0.5275;-3.3572;
-11.7000;0.5218;-3.3721;
-11.4000;0.5267;-3.3621;
-11.1000;0.5258;-3.3547;
-10.8000;0.5258;-3.3646;
-10.5000;0.5242;-3.3746;
-10.2000;0.5250;-3.3746;
-9.9000;0.5324;-3.3447;
-9.6000;0.5234;-3.3746;
-9.3000;0.5275;-3.3646;
-9.0000;0.5226;-3.3820;
-8.7000;0.5258;-3.3895;
-8.4000;0.5258;-3.3870;
-8.1000;0.5258;-3.3920;
-7.8000;0.5267;-3.3920;
-7.5000;0.5250;-3.3895;
-7.2000;0.5169;-3.4044;
-6.9000;0.5242;-3.3870;
-6.6000;0.5275;-3.3820;
-6.3000;0.5275;-3.3796;
-6.0000;0.5258;-3.3845;
-5.7000;0.5267;-3.3621;
-5.4000;0.5242;-3.3671;
-5.1000;0.5267;-3.3771;
-4.8000;0.5250;-3.3870;
-4.5000;0.5258;-3.3820;
-4.2000;0.5242;-3.3796;
-3.9000;0.5307;-3.3671;
-3.6000;0.5299;-3.3696;
-3.3000;0.5258;-3.3920;
-3.0000;0.5250;-3.3895;
-2.7000;0.5275;-3.3945;
-2.4000;0.5242;-3.4094;
-2.1000;0.5307;-3.3945;
-1.8000;0.5242;-3.4019;
-1.5000;0.5258;-3.3994;
-1.2000;0.5267;-3.3945;
-0.9000;0.5250;-3.3970;
-0.6000;0.5258;-3.3970;
-0.3000;0.5299;-3.3945;
0.0000;0.5299;-3.3945;
0.3000;0.5446;-3.4318;
0.6000;0.5698;-3.4069;
0.9000;0.5950;-3.3472;
1.2000;0.6154;-3.3149;
1.5000;0.6292;-3.2801;
1.8000;0.6422;-3.2577;
2.1000;0.6512;-3.2279;
2.4000;0.6618;-3.2055;
2.7000;0.6691;-3.1831;
3.0000;0.6748;-3.1707;
3.3000;0.6797;-3.1682;
3.6000;0.6854;-3.1607;
3.9000;0.6870;-3.1682;
4.2000;0.6927;-3.1557;
4.5000;0.6960;-3.1557;
4.8000;0.7009;-3.1508;
5.1000;0.7025;-3.1483;
5.4000;0.7082;-3.1358;
5.7000;0.7025;-3.1483;
6.0000;0.7155;-3.1234;
6.3000;0.7139;-3.1284;
6.6000;0.7123;-3.1358;
6.9000;0.7147;-3.1259;
7.2000;0.7147;-3.1334;
7.5000;0.7179;-3.1309;
7.8000;0.7220;-3.1284;
8.1000;0.7188;-3.1358;
8.4000;0.7204;-3.1309;
8.7000;0.7245;-3.1259;
9.0000;0.7228;-3.1309;
9.3000;0.7334;-3.1110;
9.6000;0.7261;-3.1284;
9.9000;0.7269;-3.1284;
10.2000;0.7285;-3.1209;
10.5000;0.7302;-3.1184;
10.8000;0.7318;-3.1259;
11.1000;0.7326;-3.1160;
11.4000;0.7359;-3.1135;
11.7000;0.7350;-3.1135;
12.0000;0.7350;-3.1135;
12.3000;0.7293;-3.1309;
12.6000;0.7367;-3.1085;
12.9000;0.7383;-3.1160;
13.2000;0.7424;-3.0985;
13.5000;0.7391;-3.1135;
13.8000;0.7359;-3.1209;
14.1000;0.7391;-3.1234;
14.4000;0.7424;-3.1259;
14.7000;0.7399;-3.1259;
15.0000;0.7407;-3.1358;
15.3000;0.7399;-3.1408;
15.6000;0.7440;-3.1234;
15.9000;0.7432;-3.1209;
16.2000;0.7432;-3.1234;
16.5000;0.7456;-3.1259;
16.8000;0.7464;-3.1135;
17.1000;0.7407;-3.1259;
17.4000;0.7456;-3.1184;
17.7000;0.7456;-3.1184;
18.0000;0.7464;-3.1259;
18.3000;0.7448;-3.1234;
18.6000;0.7464;-3.1259;
18.9000;0.7464;-3.1234;
19.2000;0.7489;-3.1010;
19.5000;0.7481;-3.0985;
19.8000;0.7464;-3.1010;
20.1000;0.7473;-3.1060;
20.4000;0.7489;-3.1085;
20.7000;0.7497;-3.1110;
21.0000;0.7497;-3.1135;
21.3000;0.7497;-3.1184;
21.6000;0.7521;-3.1135;
21.9000;0.7448;-3.1259;
22.2000;0.7489;-3.1110;
22.5000;0.7489;-3.1135;
22.8000;0.7505;-3.1135;
23.1000;0.7497;-3.1184;
23.4000;0.7521;-3.1184;
23.7000;0.7521;-3.1135;
24.0000;0.7513;-3.1110;
24.3000;0.7530;-3.0961;
24.6000;0.7546;-3.0936;
24.9000;0.7521;-3.0936;
25.2000;0.7497;-3.1035;
25.5000;0.7538;-3.0985;
25.8000;0.7538;-3.0961;
26.1000;0.7562;-3.0811;
26.4000;0.7530;-3.0861;
26.7000;0.7513;-3.0836;
27.0000;0.7448;-3.1085;
27.3000;0.7530;-3.0936;
27.6000;0.7530;-3.0961;
27.9000;0.7521;-3.0936;
28.2000;0.7521;-3.0961;
28.5000;0.7570;-3.0985;
28.8000;0.7570;-3.0985;
29.1000;0.7489;-3.1234;
29.4000;0.7562;-3.1035;
29.7000;0.7578;-3.0985;
30.0000;0.7595;-3.1010;
30.3000;0.7586;-3.0985;
30.6000;0.7554;-3.1060;
30.9000;0.7570;-3.1010;
31.2000;0.7595;-3.0936;
31.5000;0.7546;-3.1060;
31.8000;0.7513;-3.1135;
32.1000;0.7562;-3.1085;
32.4000;0.7546;-3.1110;
32.7000;0.7570;-3.1110;
33.0000;0.7570;-3.1234;
33.3000;0.7595;-3.1160;
33.6000;0.7562;-3.1259;
33.9000;0.7578;-3.1135;
34.2000;0.7570;-3.1160;
34.5000;0.7578;-3.1160;
34.8000;0.7505;-3.1358;
35.1000;0.7570;-3.1284;
35.4000;0.7586;-3.1209;
35.7000;0.7586;-3.1184;
36.0000;0.7586;-3.1160;
36.3000;0.7586;-3.1284;
36.6000;0.7595;-3.1309;
36.9000;0.7586;-3.1309;
37.2000;0.7611;-3.1184;
37.5000;0.7619;-3.1135;
37.8000;0.7603;-3.1085;
38.1000;0.7595;-3.1110;
38.4000;0.7595;-3.1135;
38.7000;0.7586;-3.1184;
39.0000;0.7578;-3.1160;
39.3000;0.7611;-3.1035;
39.6000;0.7595;-3.1085;
39.9000;0.7603;-3.1010;
40.2000;0.7611;-3.1160;
40.5000;0.7603;-3.1259;
40.8000;0.7676;-3.1085;
41.1000;0.7611;-3.1209;
41.4000;0.7603;-3.1184;
41.7000;0.7595;-3.1135;
42.0000;0.7627;-3.0985;
42.3000;0.7627;-3.1010;
42.6000;0.7603;-3.1135;
42.9000;0.7660;-3.0985;
43.2000;0.7619;-3.0936;
43.5000;0.7595;-3.0936;
43.8000;0.7595;-3.0886;
44.1000;0.7570;-3.1035;
44.4000;0.7619;-3.0911;
44.7000;0.7603;-3.1010;
45.0000;0.7611;-3.0936;
45.3000;0.7611;-3.0911;
45.6000;0.7627;-3.0886;
45.9000;0.7595;-3.0936;
46.2000;0.7611;-3.1060;
46.5000;0.7619;-3.1160;
46.8000;0.7619;-3.1060;
47.1000;0.7652;-3.0961;
47.4000;0.7611;-3.1135;
47.7000;0.7619;-3.1135;
48.0000;0.7635;-3.1060;
48.3000;0.7635;-3.1085;
48.6000;0.7627;-3.1135;
48.9000;0.7611;-3.1234;
49.2000;0.7611;-3.1334;
49.5000;0.7627;-3.1209;
49.8000;0.7652;-3.1135;
50.1000;0.7619;-3.1135;
50.4000;0.7619;-3.1135;
50.7000;0.7635;-3.1035;
51.0000;0.7635;-3.0985;
51.3000;0.7635;-3.0961;
51.6000;0.7635;-3.0985;
51.9000;0.7619;-3.0886;
52.2000;0.7603;-3.0886;
52.5000;0.7643;-3.0762;
52.8000;0.7619;-3.0836;
53.1000;0.7611;-3.0961;
53.4000;0.7643;-3.0985;
53.7000;0.7603;-3.1085;
54.0000;0.7660;-3.1010;
54.3000;0.7619;-3.1184;
54.6000;0.7643;-3.1160;
54.9000;0.7635;-3.1160;
55.2000;0.7627;-3.1184;
55.5000;0.7676;-3.1135;
55.8000;0.7643;-3.1160;
56.1000;0.7652;-3.0961;
56.4000;0.7619;-3.0886;
56.7000;0.7635;-3.0911;
57.0000;0.7603;-3.0985;
57.3000;0.7668;-3.0911;
57.6000;0.7635;-3.1085;
57.9000;0.7635;-3.1184;
58.2000;0.7635;-3.1160;
58.5000;0.7733;-3.0786;
58.8000;0.7635;-3.1060;
59.1000;0.7635;-3.1110;
59.4000;0.7635;-3.1035;
59.7000;0.7635;-3.1035;
60.0000;0.7676;-3.0961;
60.3000;0.7643;-3.1060;
60.6000;0.7635;-3.1135;
60.9000;0.7652;-3.1010;
61.2000;0.7652;-3.0961;
61.5000;0.7635;-3.1085;
61.8000;0.7668;-3.1010;
62.1000;0.7643;-3.1110;
62.4000;0.7635;-3.1110;
62.7000;0.7692;-3.0936;
63.0000;0.7676;-3.0985;
63.3000;0.7635;-3.1209;
63.6000;0.7668;-3.1309;
63.9000;0.7635;-3.1383;
64.2000;0.7635;-3.1358;
64.5000;0.7643;-3.1284;
64.8000;0.7611;-3.1259;
65.1000;0.7578;-3.1433;
65.4000;0.7668;-3.1184;
65.7000;0.7643;-3.1284;
66.0000;0.7660;-3.1135;
66.3000;0.7635;-3.1085;
66.6000;0.7643;-3.1085;
66.9000;0.7652;-3.1085;
67.2000;0.7652;-3.1135;
67.5000;0.7603;-3.1309;
67.8000;0.7635;-3.1234;
68.1000;0.7619;-3.1135;
68.4000;0.7619;-3.1085;
68.7000;0.7619;-3.1160;
69.0000;0.7611;-3.1160;
69.3000;0.7643;-3.1035;
69.6000;0.7635;-3.1160;
69.9000;0.7627;-3.1284;
70.2000;0.7643;-3.1209;
70.5000;0.7619;-3.1234;
70.8000;0.7652;-3.1184;
71.1000;0.7668;-3.1060;
71.4000;0.7635;-3.1184;
71.7000;0.7603;-3.1284;
72.0000;0.7660;-3.1160;
72.3000;0.7635;-3.1259;
72.6000;0.7595;-3.1483;
72.9000;0.7652;-3.1284;
73.2000;0.7668;-3.1209;
73.5000;0.7668;-3.1184;
73.8000;0.7668;-3.1184;
74.1000;0.7652;-3.1184;
74.4000;0.7668;-3.1184;
74.7000;0.7660;-3.1184;
75.0000;0.7652;-3.1085;
75.3000;0.7660;-3.1110;
75.6000;0.7611;-3.1160;
75.9000;0.7668;-3.1010;
76.2000;0.7643;-3.1035;
76.5000;0.7643;-3.1035;
76.8000;0.7643;-3.1110;
77.1000;0.7611;-3.1110;
77.4000;0.7627;-3.1085;
77.7000;0.7635;-3.0936;
78.0000;0.7635;-3.0936;
78.3000;0.7652;-3.1010;
78.6000;0.7652;-3.0985;
78.9000;0.7652;-3.0936;
79.2000;0.7643;-3.0985;
79.5000;0.7660;-3.0936;
79.8000;0.7652;-3.0936;
80.1000;0.7676;-3.0861;
80.4000;0.7643;-3.0911;
80.7000;0.7660;-3.0911;
81.0000;0.7660;-3.0936;
81.3000;0.7652;-3.0936;
81.6000;0.7635;-3.1060;
81.9000;0.7635;-3.1060;
82.2000;0.7643;-3.1010;
82.5000;0.7643;-3.0985;
82.8000;0.7643;-3.1035;
83.1000;0.7643;-3.1010;
83.4000;0.7643;-3.1010;
83.7000;0.7635;-3.0911;
84.0000;0.7660;-3.0861;
84.3000;0.7709;-3.0712;
84.6000;0.7635;-3.0985;
84.9000;0.7643;-3.1110;
85.2000;0.7619;-3.1110;
85.5000;0.7627;-3.1010;
85.8000;0.7627;-3.0936;
86.1000;0.7652;-3.0836;
86.4000;0.7660;-3.0911;
86.7000;0.7643;-3.0911;
87.0000;0.7619;-3.0985;
87.3000;0.7660;-3.0911;
87.6000;0.7668;-3.0936;
87.9000;0.7668;-3.0936;
88.2000;0.7595;-3.1060;
88.5000;0.7627;-3.0985;
88.8000;0.7652;-3.0936;
89.1000;0.7635;-3.0985;
89.4000;0.7676;-3.0961;
89.7000;0.7652;-3.1110;
90.0000;0.7652;-3.1035;
90.3000;0.7652;-3.1035;
90.6000;0.7709;-3.0911;
90.9000;0.7652;-3.0911;
91.2000;0.7643;-3.0836;
91.5000;0.7595;-3.0911;
91.8000;0.7643;-3.0861;
92.1000;0.7635;-3.0911;
92.4000;0.7611;-3.1060;
92.7000;0.7660;-3.1035;
93.0000;0.7652;-3.1035;
93.3000;0.7668;-3.0961;
93.6000;0.7643;-3.1010;
93.9000;0.7660;-3.1085;
94.2000;0.7643;-3.1110;
94.5000;0.7652;-3.1209;
94.8000;0.7741;-3.0936;
95.1000;0.7643;-3.1085;
95.4000;0.7660;-3.1060;
95.7000;0.7546;-3.1284;
96.0000;0.7668;-3.1010;
96.3000;0.7635;-3.1160;
96.6000;0.7668;-3.1110;
96.9000;0.7603;-3.1234;
97.2000;0.7668;-3.1060;
97.5000;0.7652;-3.1085;
97.8000;0.7660;-3.1085;
98.1000;0.7676;-3.1060;
98.4000;0.7749;-3.0811;
98.7000;0.7652;-3.1035;
99.0000;0.7660;-3.1060;
99.3000;0.7668;-3.1060;
99.6000;0.7635;-3.1184;
99.9000;0.7668;-3.0985;
100.2000;0.7595;-3.1035;
100.5000;0.7652;-3.0911;
100.8000;0.7652;-3.0911;
101.1000;0.7660;-3.0961;
101.4000;0.7643;-3.0911;
101.7000;0.7652;-3.0886;
102.0000;0.7676;-3.0786;
102.3000;0.7660;-3.0886;
102.6000;0.7643;-3.0936;
102.9000;0.7668;-3.0911;
103.2000;0.7668;-3.0985;
103.5000;0.7595;-3.1259;
103.8000;0.7676;-3.1184;
104.1000;0.7660;-3.1284;
104.4000;0.7660;-3.1358;
104.7000;0.7668;-3.1284;
105.0000;0.7652;-3.1334;
105.3000;0.7668;-3.1309;
105.6000;0.7668;-3.1234;
105.9000;0.7652;-3.1160;
106.2000;0.7643;-3.1160;
106.5000;0.7652;-3.1160;
106.8000;0.7643;-3.1184;
107.1000;0.7652;-3.1060;
107.4000;0.7643;-3.1110;
107.7000;0.7660;-3.1060;
108.0000;0.7643;-3.1110;
108.3000;0.7635;-3.1160;
108.6000;0.7692;-3.1060;
108.9000;0.7668;-3.1135;
109.2000;0.7660;-3.1209;
109.5000;0.7660;-3.1135;
109.8000;0.7676;-3.1110;
110.1000;0.7660;-3.1209;
110.4000;0.7660;-3.1259;
110.7000;0.7660;-3.1234;
111.0000;0.7668;-3.1160;
111.3000;0.7652;-3.1234;
111.6000;0.7676;-3.1184;
111.9000;0.7766;-3.0961;
112.2000;0.7660;-3.1135;
112.5000;0.7652;-3.1135;
112.8000;0.7660;-3.1135;
113.1000;0.7676;-3.1035;
113.4000;0.7652;-3.1010;
113.7000;0.7668;-3.1110;
114.0000;0.7652;-3.1184;
114.3000;0.7668;-3.1209;
114.6000;0.7635;-3.1284;
114.9000;0.7643;-3.1135;
115.2000;0.7660;-3.1010;
115.5000;0.7643;-3.1010;
115.8000;0.7668;-3.0936;
116.1000;0.7643;-3.0961;
116.4000;0.7660;-3.0985;
116.7000;0.7627;-3.1010;
117.0000;0.7643;-3.0886;
117.3000;0.7660;-3.0861;
117.6000;0.7660;-3.0911;
117.9000;0.7643;-3.0985;
118.2000;0.7635;-3.1035;
118.5000;0.7643;-3.1060;
118.8000;0.7676;-3.1010;
119.1000;0.7643;-3.1110;
119.4000;0.7635;-3.0985;
119.7000;0.7627;-3.1085;
120.0000;0.7652;-3.1010;
120.3000;0.7668;-3.0911;
120.6000;0.7676;-3.0961;
120.9000;0.7652;-3.0961;
121.2000;0.7749;-3.0737;
121.5000;0.7668;-3.0861;
121.8000;0.7643;-3.0836;
122.1000;0.7652;-3.0836;
122.4000;0.7660;-3.0861;
122.7000;0.7676;-3.0936;
123.0000;0.7643;-3.1085;
123.3000;0.7668;-3.1010;
123.6000;0.7660;-3.1135;
123.9000;0.7652;-3.1060;
124.2000;0.7660;-3.1035;
124.5000;0.7635;-3.1060;
124.8000;0.7725;-3.0886;
125.1000;0.7652;-3.1060;
125.4000;0.7643;-3.1085;
125.7000;0.7562;-3.1284;
126.0000;0.7643;-3.1035;
126.3000;0.7627;-3.1060;
126.6000;0.7668;-3.0861;
126.9000;0.7652;-3.0861;
127.2000;0.7611;-3.0936;
127.5000;0.7652;-3.0836;
127.8000;0.7562;-3.1085;
128.1000;0.7652;-3.0861;
128.4000;0.7619;-3.1035;
128.7000;0.7643;-3.0936;
129.0000;0.7660;-3.0886;
129.3000;0.7700;-3.0762;
129.6000;0.7643;-3.0861;
129.9000;0.7635;-3.0861;
130.2000;0.7652;-3.0886;
130.5000;0.7660;-3.0836;
130.8000;0.7668;-3.0886;
131.1000;0.7652;-3.0936;
131.4000;0.7578;-3.1160;
131.7000;0.7643;-3.0985;
132.0000;0.7676;-3.0961;
132.3000;0.7668;-3.0985;
132.6000;0.7668;-3.0936;
132.9000;0.7643;-3.0985;
133.2000;0.7660;-3.0961;
133.5000;0.7668;-3.1010;
133.8000;0.7668;-3.1035;
134.1000;0.7684;-3.0936;
134.4000;0.7668;-3.0985;
134.7000;0.7668;-3.0861;
135.0000;0.7668;-3.0861;
135.3000;0.7643;-3.0911;
135.6000;0.7692;-3.0861;
135.9000;0.7668;-3.0911;
136.2000;0.7635;-3.0985;
136.5000;0.7676;-3.0936;
136.8000;0.7643;-3.0961;
137.1000;0.7635;-3.0911;
137.4000;0.7603;-3.1184;
137.7000;0.7643;-3.1060;
138.0000;0.7684;-3.1010;
138.3000;0.7660;-3.1060;
138.6000;0.7668;-3.1035;
138.9000;0.7700;-3.1035;
139.2000;0.7668;-3.1110;
139.5000;0.7709;-3.0936;
139.8000;0.7643;-3.0985;
140.1000;0.7652;-3.1060;
140.4000;0.7643;-3.1110;
140.7000;0.7643;-3.1110;
141.0000;0.7652;-3.1060;
141.3000;0.7652;-3.1010;
141.6000;0.7652;-3.0961;
141.9000;0.7635;-3.1085;
142.2000;0.7660;-3.1010;
142.5000;0.7684;-3.0936;
142.8000;0.7643;-3.1035;
143.1000;0.7684;-3.0911;
143.4000;0.7668;-3.0961;
143.7000;0.7652;-3.0985;
144.0000;0.7733;-3.0886;
144.3000;0.7676;-3.0911;
144.6000;0.7676;-3.0911;
144.9000;0.7668;-3.0985;
145.2000;0.7668;-3.0886;
145.5000;0.7619;-3.1060;
145.8000;0.7668;-3.0886;
146.1000;0.7643;-3.0911;
146.4000;0.7668;-3.0836;
146.7000;0.7660;-3.0737;
147.0000;0.7643;-3.0811;
147.3000;0.7643;-3.0811;
147.6000;0.7660;-3.0811;
147.9000;0.7660;-3.0836;
148.2000;0.7643;-3.0961;
148.5000;0.7652;-3.0936;
148.8000;0.7660;-3.0911;
149.1000;0.7725;-3.0712;
149.4000;0.7676;-3.0762;
149.7000;0.7668;-3.0811;
150.0000;0.7643;-3.0712;
150.3000;0.7643;-3.0737;
150.6000;0.7660;-3.0662;
150.9000;0.7643;-3.0687;
151.2000;0.7627;-3.0737;
151.5000;0.7652;-3.0737;
151.8000;0.7652;-3.0786;
152.1000;0.7635;-3.0886;
152.4000;0.7554;-3.1110;
152.7000;0.7595;-3.1010;
153.0000;0.7643;-3.1010;
153.3000;0.7643;-3.1060;
153.6000;0.7652;-3.1110;
153.9000;0.7660;-3.1060;
154.2000;0.7652;-3.1010;
154.5000;0.7652;-3.0985;
154.8000;0.7635;-3.1060;
155.1000;0.7643;-3.1085;
155.4000;0.7660;-3.1035;
155.7000;0.7627;-3.1060;
156.0000;0.7643;-3.1035;
156.3000;0.7652;-3.0961;
156.6000;0.7660;-3.0886;
156.9000;0.7676;-3.0811;
157.2000;0.7652;-3.0861;
157.5000;0.7660;-3.0936;
157.8000;0.7652;-3.1035;
158.1000;0.7660;-3.1060;
158.4000;0.7668;-3.1010;
158.7000;0.7643;-3.0936;
159.0000;0.7643;-3.0911;
159.3000;0.7652;-3.0911;
159.6000;0.7652;-3.0836;
159.9000;0.7741;-3.0588;
160.2000;0.7643;-3.0786;
160.5000;0.7725;-3.0588;
160.8000;0.7643;-3.0786;
161.1000;0.7627;-3.0985;
161.4000;0.7627;-3.0936;
161.7000;0.7652;-3.0911;
162.0000;0.7627;-3.1035;
162.3000;0.7668;-3.0936;
162.6000;0.7619;-3.1110;
162.9000;0.7668;-3.1010;
163.2000;0.7668;-3.0911;
163.5000;0.7627;-3.1035;
163.8000;0.7643;-3.0886;
164.1000;0.7660;-3.0886;
164.4000;0.7652;-3.0886;
164.7000;0.7660;-3.0811;
165.0000;0.7635;-3.0936;
165.3000;0.7635;-3.0985;
165.6000;0.7668;-3.0861;
165.9000;0.7676;-3.0786;
166.2000;0.7643;-3.0811;
166.5000;0.7684;-3.0786;
166.8000;0.7635;-3.0911;
167.1000;0.7643;-3.0961;
167.4000;0.7668;-3.0961;
167.7000;0.7660;-3.0886;
168.0000;0.7668;-3.0836;
168.3000;0.7676;-3.0786;
168.6000;0.7676;-3.0762;
168.9000;0.7643;-3.0811;
169.2000;0.7660;-3.0861;
169.5000;0.7660;-3.0861;
169.8000;0.7643;-3.0911;
170.1000;0.7652;-3.0836;
170.4000;0.7660;-3.0936;
170.7000;0.7652;-3.0936;
171.0000;0.7660;-3.0985;
171.3000;0.7660;-3.1085;
171.6000;0.7643;-3.1085;
171.9000;0.7643;-3.1010;
172.2000;0.7652;-3.1010;
172.5000;0.7660;-3.0985;
172.8000;0.7668;-3.0985;
173.1000;0.7643;-3.1035;
173.4000;0.7652;-3.0985;
173.7000;0.7668;-3.0886;
174.0000;0.7717;-3.0786;
174.3000;0.7660;-3.0811;
174.6000;0.7660;-3.0861;
174.9000;0.7652;-3.0886;
175.2000;0.7660;-3.0886;
175.5000;0.7643;-3.0961;
175.8000;0.7643;-3.0961;
176.1000;0.7660;-3.0985;
176.4000;0.7652;-3.1010;
176.7000;0.7660;-3.1060;
177.0000;0.7668;-3.1060;
177.3000;0.7652;-3.1085;
177.6000;0.7676;-3.0985;
177.9000;0.7668;-3.1035;
178.2000;0.7660;-3.1060;
178.5000;0.7668;-3.1060;
178.8000;0.7635;-3.1135;
179.1000;0.7668;-3.1160;
179.4000;0.7635;-3.1234;
179.7000;0.7660;-3.1135;
180.0000;0.7660;-3.1234;
180.3000;0.7652;-3.1135;
180.6000;0.7660;-3.1035;
180.9000;0.7643;-3.1060;
181.2000;0.7643;-3.1010;
181.5000;0.7676;-3.0961;
181.8000;0.7709;-3.0836;
182.1000;0.7660;-3.0936;
182.4000;0.7643;-3.0936;
182.7000;0.7652;-3.0886;
183.0000;0.7546;-3.1110;
183.3000;0.7652;-3.0836;
183.6000;0.7652;-3.0911;
183.9000;0.7652;-3.0936;
184.2000;0.7652;-3.0886;
184.5000;0.7652;-3.0811;
184.8000;0.7643;-3.0762;
185.1000;0.7652;-3.0737;
185.4000;0.7586;-3.0836;
185.7000;0.7660;-3.0637;
186.0000;0.7660;-3.0662;
186.3000;0.7643;-3.0712;
186.6000;0.7652;-3.0737;
186.9000;0.7700;-3.0662;
187.2000;0.7676;-3.0712;
187.5000;0.7627;-3.0886;
187.8000;0.7643;-3.0861;
188.1000;0.7627;-3.0985;
188.4000;0.7668;-3.0936;
188.7000;0.7660;-3.0985;
189.0000;0.7643;-3.1184;
189.3000;0.7635;-3.1234;
189.6000;0.7643;-3.1209;
189.9000;0.7660;-3.1135;
190.2000;0.7652;-3.1085;
190.5000;0.7643;-3.1135;
190.8000;0.7643;-3.1085;
191.1000;0.7652;-3.1085;
191.4000;0.7643;-3.1035;
191.7000;0.7660;-3.1010;
192.0000;0.7684;-3.0911;
192.3000;0.7660;-3.0961;
192.6000;0.7643;-3.0911;
192.9000;0.7660;-3.0911;
193.2000;0.7643;-3.0961;
193.5000;0.7643;-3.0961;
193.8000;0.7643;-3.0886;
194.1000;0.7652;-3.1010;
194.4000;0.7652;-3.1060;
194.7000;0.7643;-3.1010;
195.0000;0.7660;-3.0911;
195.3000;0.7643;-3.1010;
195.6000;0.7643;-3.1010;
195.9000;0.7668;-3.0985;
196.2000;0.7660;-3.0936;
196.5000;0.7684;-3.0936;
196.8000;0.7635;-3.1135;
197.1000;0.7643;-3.1085;
197.4000;0.7643;-3.1060;
197.7000;0.7652;-3.1135;
198.0000;0.7643;-3.1135;
198.3000;0.7643;-3.1110;
198.6000;0.7611;-3.1259;
198.9000;0.7643;-3.1184;
199.2000;0.7652;-3.1110;
199.5000;0.7668;-3.1110;
199.8000;0.7774;-3.0786;
200.1000;0.7595;-3.1184;
200.4000;0.7635;-3.0961;
200.7000;0.7603;-3.1135;
201.0000;0.7635;-3.1010;
201.3000;0.7757;-3.0762;
201.6000;0.7668;-3.0961;
201.9000;0.7627;-3.1035;
202.2000;0.7635;-3.1010;
202.5000;0.7741;-3.0836;
202.8000;0.7766;-3.0712;
203.1000;0.7668;-3.0961;
203.4000;0.7660;-3.1060;
203.7000;0.7676;-3.1035;
204.0000;0.7717;-3.0985;
204.3000;0.7676;-3.1035;
204.6000;0.7684;-3.0911;
204.9000;0.7652;-3.0886;
205.2000;0.7643;-3.0911;
205.5000;0.7652;-3.0911;
205.8000;0.7635;-3.0936;
206.1000;0.7717;-3.0836;
206.4000;0.7635;-3.1010;
206.7000;0.7619;-3.1110;
207.0000;0.7660;-3.1035;
207.3000;0.7676;-3.1060;
207.6000;0.7733;-3.0861;
207.9000;0.7684;-3.1060;
208.2000;0.7660;-3.1209;
208.5000;0.7660;-3.1160;
208.8000;0.7668;-3.1085;
209.1000;0.7619;-3.1085;
209.4000;0.7684;-3.0911;
209.7000;0.7652;-3.1010;
210.0000;0.7643;-3.1110;
210.3000;0.7660;-3.1085;
210.6000;0.7692;-3.0985;
210.9000;0.7668;-3.1160;
211.2000;0.7660;-3.1110;
211.5000;0.7652;-3.1110;
211.8000;0.7676;-3.1160;
212.1000;0.7643;-3.1309;
212.4000;0.7643;-3.1334;
212.7000;0.7668;-3.1259;
213.0000;0.7660;-3.1135;
213.3000;0.7668;-3.1160;
213.6000;0.7660;-3.1209;
213.9000;0.7643;-3.1160;
214.2000;0.7660;-3.1110;
214.5000;0.7652;-3.1160;
214.8000;0.7684;-3.1110;
215.1000;0.7668;-3.1184;
215.4000;0.7660;-3.1234;
215.7000;0.7660;-3.1234;
216.0000;0.7660;-3.1259;
216.3000;0.7652;-3.1284;
216.6000;0.7635;-3.1309;
216.9000;0.7660;-3.1110;
217.2000;0.7635;-3.1160;
217.5000;0.7668;-3.1135;
217.8000;0.7652;-3.1060;
218.1000;0.7692;-3.0985;
218.4000;0.7643;-3.1085;
218.7000;0.7660;-3.1085;
219.0000;0.7676;-3.0985;
219.3000;0.7652;-3.1035;
219.6000;0.7684;-3.1010;
219.9000;0.7676;-3.1010;
220.2000;0.7660;-3.1085;
220.5000;0.7627;-3.1160;
220.8000;0.7635;-3.1135;
221.1000;0.7660;-3.1035;
221.4000;0.7660;-3.0985;
221.7000;0.7643;-3.1010;
222.0000;0.7757;-3.0886;
222.3000;0.7652;-3.1060;
222.6000;0.7619;-3.1135;
222.9000;0.7627;-3.1160;
223.2000;0.7627;-3.1110;
223.5000;0.7643;-3.0936;
223.8000;0.7692;-3.0811;
224.1000;0.7652;-3.0911;
224.4000;0.7660;-3.0836;
224.7000;0.7635;-3.0762;
225.0000;0.7660;-3.0712;
225.3000;0.7635;-3.0637;
225.6000;0.7643;-3.0737;
225.9000;0.7766;-3.0463;
226.2000;0.7668;-3.0687;
226.5000;0.7652;-3.0737;
226.8000;0.7660;-3.0737;
227.1000;0.7611;-3.0961;
227.4000;0.7676;-3.0886;
227.7000;0.7652;-3.0936;
228.0000;0.7627;-3.1060;
228.3000;0.7668;-3.0961;
228.6000;0.7652;-3.0961;
228.9000;0.7627;-3.0985;
229.2000;0.7652;-3.0911;
229.5000;0.7627;-3.0936;
229.8000;0.7652;-3.0961;
230.1000;0.7652;-3.1035;
230.4000;0.7643;-3.1060;
230.7000;0.7660;-3.1110;
231.0000;0.7660;-3.1135;
231.3000;0.7676;-3.1184;
231.6000;0.7660;-3.1184;
231.9000;0.7652;-3.1234;
232.2000;0.7643;-3.1209;
232.5000;0.7676;-3.1035;
232.8000;0.7668;-3.0936;
233.1000;0.7652;-3.0961;
233.4000;0.7635;-3.0985;
233.7000;0.7643;-3.0836;
234.0000;0.7643;-3.0811;
234.3000;0.7652;-3.0762;
234.6000;0.7627;-3.0911;
234.9000;0.7652;-3.0836;
235.2000;0.7652;-3.0836;
235.5000;0.7652;-3.0961;
235.8000;0.7668;-3.1035;
236.1000;0.7652;-3.1110;
236.4000;0.7627;-3.1135;
236.7000;0.7660;-3.1035;
237.0000;0.7627;-3.1110;
237.3000;0.7660;-3.1135;
237.6000;0.7643;-3.1259;
237.9000;0.7725;-3.0961;
238.2000;0.7652;-3.1160;
238.5000;0.7684;-3.0961;
238.8000;0.7660;-3.1085;
239.1000;0.7692;-3.0936;
239.4000;0.7603;-3.1160;
239.7000;0.7668;-3.1010;
240.0000;0.7578;-3.1184;
240.3000;0.7643;-3.0985;
240.6000;0.7676;-3.0936;
240.9000;0.7652;-3.0911;
241.2000;0.7611;-3.0961;
241.5000;0.7635;-3.0911;
241.8000;0.7635;-3.0936;
242.1000;0.7692;-3.0811;
242.4000;0.7652;-3.0861;
242.7000;0.7643;-3.0886;
243.0000;0.7627;-3.0985;
243.3000;0.7692;-3.0811;
243.6000;0.7660;-3.0861;
243.9000;0.7652;-3.0836;
244.2000;0.7660;-3.0786;
244.5000;0.7643;-3.0911;
244.8000;0.7660;-3.0886;
245.1000;0.7643;-3.0911;
245.4000;0.7652;-3.0961;
245.7000;0.7660;-3.0911;
246.0000;0.7660;-3.0985;
246.3000;0.7619;-3.1160;
246.6000;0.7652;-3.1110;
246.9000;0.7643;-3.1085;
247.2000;0.7660;-3.1035;
247.5000;0.7611;-3.1110;
247.8000;0.7652;-3.1035;
248.1000;0.7652;-3.1035;
248.4000;0.7643;-3.1135;
248.7000;0.7652;-3.1209;
249.0000;0.7684;-3.1135;
249.3000;0.7635;-3.1184;
249.6000;0.7660;-3.1035;
249.9000;0.7700;-3.0911;
250.2000;0.7643;-3.1010;
250.5000;0.7652;-3.1010;
250.8000;0.7684;-3.0985;
251.1000;0.7668;-3.1160;
251.4000;0.7643;-3.1259;
251.7000;0.7660;-3.1259;
252.0000;0.7660;-3.1309;
252.3000;0.7660;-3.1358;
252.6000;0.7635;-3.1408;
252.9000;0.7643;-3.1358;
253.2000;0.7619;-3.1433;
253.5000;0.7635;-3.1358;
253.8000;0.7635;-3.1408;
254.1000;0.7643;-3.1408;
254.4000;0.7635;-3.1383;
254.7000;0.7652;-3.1334;
255.0000;0.7668;-3.1259;
255.3000;0.7660;-3.1309;
255.6000;0.7652;-3.1383;
255.9000;0.7627;-3.1383;
256.2000;0.7668;-3.1259;
256.5000;0.7676;-3.1259;
256.8000;0.7635;-3.1309;
257.1000;0.7660;-3.1135;
257.4000;0.7668;-3.1110;
257.7000;0.7660;-3.1085;
258.0000;0.7660;-3.0961;
258.3000;0.7652;-3.1035;
258.6000;0.7660;-3.0936;
258.9000;0.7660;-3.0985;
259.2000;0.7643;-3.1110;
259.5000;0.7635;-3.1160;
259.8000;0.7635;-3.1110;
260.1000;0.7643;-3.1085;
260.4000;0.7660;-3.1110;
260.7000;0.7668;-3.1184;
261.0000;0.7619;-3.1309;
261.3000;0.7652;-3.1284;
261.6000;0.7611;-3.1284;
261.9000;0.7595;-3.1383;
262.2000;0.7635;-3.1309;
262.5000;0.7700;-3.1085;
262.8000;0.7668;-3.1184;
263.1000;0.7660;-3.1184;
263.4000;0.7578;-3.1358;
263.7000;0.7749;-3.0985;
264.0000;0.7619;-3.1309;
264.3000;0.7603;-3.1334;
264.6000;0.7643;-3.1209;
264.9000;0.7643;-3.1184;
265.2000;0.7643;-3.1135;
265.5000;0.7611;-3.1209;
265.8000;0.7660;-3.1010;
266.1000;0.7611;-3.1160;
266.4000;0.7643;-3.1035;
266.7000;0.7668;-3.1035;
267.0000;0.7619;-3.1209;
267.3000;0.7643;-3.1035;
267.6000;0.7652;-3.1060;
267.9000;0.7660;-3.1035;
268.2000;0.7635;-3.1135;
268.5000;0.7660;-3.1085;
268.8000;0.7652;-3.1060;
269.1000;0.7635;-3.1110;
269.4000;0.7652;-3.1085;
269.7000;0.7652;-3.1135;
270.0000;0.7635;-3.1085;
270.3000;0.7643;-3.0961;
270.6000;0.7643;-3.0936;
270.9000;0.7652;-3.0985;
271.2000;0.7668;-3.1010;
271.5000;0.7627;-3.1184;
271.8000;0.7643;-3.1184;
272.1000;0.7660;-3.1160;
272.4000;0.7717;-3.1110;
272.7000;0.7652;-3.1284;
273.0000;0.7660;-3.1284;
273.3000;0.7668;-3.1184;
273.6000;0.7668;-3.1160;
273.9000;0.7635;-3.1160;
274.2000;0.7643;-3.1209;
274.5000;0.7643;-3.1209;
274.8000;0.7652;-3.1160;
275.1000;0.7652;-3.1110;
275.4000;0.7643;-3.1209;
275.7000;0.7635;-3.1259;
276.0000;0.7660;-3.1234;
276.3000;0.7643;-3.1184;
276.6000;0.7627;-3.1234;
276.9000;0.7611;-3.1334;
277.2000;0.7652;-3.1209;
277.5000;0.7635;-3.1209;
277.8000;0.7668;-3.1110;
278.1000;0.7652;-3.1184;
278.4000;0.7676;-3.1259;
278.7000;0.7660;-3.1284;
279.0000;0.7595;-3.1433;
279.3000;0.7627;-3.1259;
279.6000;0.7603;-3.1309;
279.9000;0.7652;-3.1209;
280.2000;0.7652;-3.1284;
280.5000;0.7700;-3.1209;
280.8000;0.7660;-3.1309;
281.1000;0.7578;-3.1383;
281.4000;0.7635;-3.1184;
281.7000;0.7652;-3.1184;
282.0000;0.7603;-3.1284;
282.3000;0.7643;-3.1184;
282.6000;0.7668;-3.1135;
282.9000;0.7652;-3.1234;
283.2000;0.7611;-3.1358;
283.5000;0.7660;-3.1135;
283.8000;0.7652;-3.1184;
284.1000;0.7652;-3.1160;
284.4000;0.7652;-3.1234;
284.7000;0.7652;-3.1234;
285.0000;0.7692;-3.1209;
285.3000;0.7692;-3.1135;
285.6000;0.7652;-3.1284;
285.9000;0.7619;-3.1334;
286.2000;0.7660;-3.1234;
286.5000;0.7668;-3.1135;
286.8000;0.7652;-3.1209;
287.1000;0.7611;-3.1334;
287.4000;0.7643;-3.1209;
287.7000;0.7635;-3.1184;
288.0000;0.7668;-3.1184;
288.3000;0.7709;-3.1085;
288.6000;0.7635;-3.1234;
288.9000;0.7635;-3.1110;
289.2000;0.7627;-3.1160;
289.5000;0.7643;-3.1135;
289.8000;0.7619;-3.1184;
290.1000;0.7643;-3.1085;
290.4000;0.7652;-3.0961;
290.7000;0.7619;-3.1035;
291.0000;0.7643;-3.1135;
291.3000;0.7660;-3.1135;
291.6000;0.7700;-3.1085;
291.9000;0.7635;-3.1259;
292.2000;0.7643;-3.1334;
292.5000;0.7635;-3.1209;
292.8000;0.7635;-3.1209;
293.1000;0.7700;-3.1060;
293.4000;0.7635;-3.1234;
293.7000;0.7643;-3.1135;
294.0000;0.7635;-3.1035;
294.3000;0.7619;-3.0961;
294.6000;0.7643;-3.0961;
294.9000;0.7635;-3.0911;
295.2000;0.7603;-3.0985;
295.5000;0.7684;-3.0762;
295.8000;0.7635;-3.0911;
296.1000;0.7660;-3.0886;
296.4000;0.7643;-3.0961;
296.7000;0.7652;-3.0985;
297.0000;0.7684;-3.0936;
297.3000;0.7676;-3.1035;
297.6000;0.7635;-3.1184;
297.9000;0.7668;-3.1160;
298.2000;0.7611;-3.1309;
298.5000;0.7652;-3.1209;
298.8000;0.7660;-3.1135;
299.1000;0.7668;-3.1110;
299.4000;0.7643;-3.1110;
299.7000;0.7660;-3.1060;
300.0000;0.7570;-3.1334;
300.3000;0.7619;-3.1234;
300.6000;0.7643;-3.1110;
300.9000;0.7595;-3.1209;
301.2000;0.7668;-3.0961;
301.5000;0.7635;-3.1010;
301.8000;0.7668;-3.0985;
302.1000;0.7660;-3.0961;
302.4000;0.7668;-3.1035;
302.7000;0.7660;-3.1010;
303.0000;0.7676;-3.0861;
303.3000;0.7652;-3.0911;
303.6000;0.7643;-3.0961;
303.9000;0.7652;-3.1010;
304.2000;0.7643;-3.1184;
304.5000;0.7643;-3.1259;
304.8000;0.7595;-3.1383;
305.1000;0.7635;-3.1234;
305.4000;0.7635;-3.1184;
305.7000;0.7635;-3.1085;
306.0000;0.7643;-3.0985;
306.3000;0.7635;-3.1085;
306.6000;0.7619;-3.1184;
306.9000;0.7652;-3.1135;
307.2000;0.7652;-3.1110;
307.5000;0.7635;-3.1010;
307.8000;0.7725;-3.0836;
308.1000;0.7652;-3.1110;
308.4000;0.7643;-3.1060;
308.7000;0.7652;-3.1035;
309.0000;0.7692;-3.0985;
309.3000;0.7635;-3.1184;
309.6000;0.7643;-3.1184;
309.9000;0.7643;-3.1160;
310.2000;0.7643;-3.1184;
310.5000;0.7643;-3.1209;
310.8000;0.7684;-3.0961;
311.1000;0.7619;-3.1085;
311.4000;0.7627;-3.1160;
311.7000;0.7578;-3.1383;
312.0000;0.7652;-3.1110;
312.3000;0.7660;-3.0936;
312.6000;0.7643;-3.0936;
312.9000;0.7643;-3.0985;
313.2000;0.7643;-3.0985;
313.5000;0.7643;-3.1085;
313.8000;0.7676;-3.1085;
314.1000;0.7595;-3.1234;
314.4000;0.7652;-3.1184;
314.7000;0.7619;-3.1110;
315.0000;0.7635;-3.1060;
315.3000;0.7668;-3.0961;
315.6000;0.7643;-3.1085;
315.9000;0.7635;-3.1110;
316.2000;0.7660;-3.1085;
316.5000;0.7652;-3.1160;
316.8000;0.7725;-3.0886;
317.1000;0.7741;-3.0886;
317.4000;0.7611;-3.1110;
317.7000;0.7652;-3.1010;
318.0000;0.7635;-3.1135;
318.3000;0.7652;-3.1085;
318.6000;0.7521;-3.1433;
318.9000;0.7635;-3.1259;
319.2000;0.7692;-3.1184;
319.5000;0.7643;-3.1284;
319.8000;0.7709;-3.1085;
320.1000;0.7668;-3.1259;
320.4000;0.7643;-3.1284;
320.7000;0.7660;-3.1184;
321.0000;0.7643;-3.1209;
321.3000;0.7643;-3.1010;
321.6000;0.7643;-3.0961;
321.9000;0.7684;-3.0786;
322.2000;0.7627;-3.0936;
322.5000;0.7652;-3.0911;
322.8000;0.7692;-3.0836;
323.1000;0.7652;-3.0886;
323.4000;0.7627;-3.1010;
323.7000;0.7603;-3.1085;
324.0000;0.7627;-3.1110;
324.3000;0.7660;-3.1060;
324.6000;0.7652;-3.1035;
324.9000;0.7635;-3.1135;
325.2000;0.7635;-3.1184;
325.5000;0.7652;-3.1060;
325.8000;0.7757;-3.0961;
326.1000;0.7619;-3.1259;
326.4000;0.7627;-3.1234;
326.7000;0.7643;-3.1259;
327.0000;0.7652;-3.1209;
327.3000;0.7652;-3.1184;
327.6000;0.7627;-3.1160;
327.9000;0.7643;-3.1184;
328.2000;0.7635;-3.1184;
328.5000;0.7627;-3.1209;
328.8000;0.7660;-3.1184;
329.1000;0.7643;-3.1259;
329.4000;0.7660;-3.1309;
329.7000;0.7652;-3.1184;
330.0000;0.7652;-3.1110;
330.3000;0.7570;-3.1408;
330.6000;0.7643;-3.1110;
330.9000;0.7635;-3.1209;
331.2000;0.7652;-3.1110;
331.5000;0.7627;-3.1234;
331.8000;0.7635;-3.1284;
332.1000;0.7627;-3.1259;
332.4000;0.7692;-3.1184;
332.7000;0.7635;-3.1309;
333.0000;0.7652;-3.1234;
333.3000;0.7652;-3.1234;
333.6000;0.7635;-3.1085;
333.9000;0.7635;-3.0961;
334.2000;0.7692;-3.0836;
334.5000;0.7643;-3.0936;
334.8000;0.7660;-3.0886;
335.1000;0.7643;-3.0886;
335.4000;0.7660;-3.0811;
335.7000;0.7603;-3.0961;
336.0000;0.7709;-3.0786;
336.3000;0.7627;-3.0936;
336.6000;0.7660;-3.0886;
336.9000;0.7635;-3.0911;
337.2000;0.7643;-3.0911;
337.5000;0.7652;-3.0936;
337.8000;0.7668;-3.1010;
338.1000;0.7619;-3.1085;
338.4000;0.7643;-3.1110;
338.7000;0.7660;-3.1035;
339.0000;0.7627;-3.1135;
339.3000;0.7619;-3.1135;
339.6000;0.7586;-3.1160;
339.9000;0.7643;-3.1135;
340.2000;0.7668;-3.1110;
340.5000;0.7749;-3.0886;
340.8000;0.7676;-3.0961;
341.1000;0.7668;-3.1035;
341.4000;0.7652;-3.1085;
341.7000;0.7814;-3.0687;
342.0000;0.7643;-3.1209;
342.3000;0.7652;-3.1160;
342.6000;0.7668;-3.1259;
342.9000;0.7668;-3.1259;
343.2000;0.7652;-3.1334;
343.5000;0.7652;-3.1209;
343.8000;0.7627;-3.1284;
344.1000;0.7660;-3.1110;
344.4000;0.7668;-3.1060;
344.7000;0.7635;-3.1060;
345.0000;0.7684;-3.0985;
345.3000;0.7627;-3.1060;
345.6000;0.7643;-3.1110;
345.9000;0.7635;-3.1085;
346.2000;0.7652;-3.1135;
346.5000;0.7643;-3.1160;
346.8000;0.7643;-3.1160;
347.1000;0.7635;-3.1110;
347.4000;0.7660;-3.1060;
347.7000;0.7643;-3.1060;
348.0000;0.7643;-3.1035;
348.3000;0.7635;-3.1060;
348.6000;0.7635;-3.1110;
348.9000;0.7660;-3.1035;
349.2000;0.7660;-3.1060;
349.5000;0.7586;-3.1259;
349.8000;0.7635;-3.1184;
350.1000;0.7635;-3.1184;
350.4000;0.7660;-3.0985;
350.7000;0.7643;-3.1085;
351.0000;0.7660;-3.1085;
351.3000;0.7652;-3.1160;
351.6000;0.7660;-3.1135;
351.9000;0.7643;-3.1184;
352.2000;0.7652;-3.1085;
352.5000;0.7643;-3.0985;
352.8000;0.7643;-3.1035;
353.1000;0.7635;-3.1135;
353.4000;0.7635;-3.1160;
353.7000;0.7627;-3.1160;
354.0000;0.7538;-3.1309;
354.3000;0.7652;-3.1085;
354.6000;0.7725;-3.0861;
354.9000;0.7635;-3.1035;
355.2000;0.7635;-3.1035;
355.5000;0.7652;-3.0985;
355.8000;0.7652;-3.1110;
356.1000;0.7652;-3.1184;
356.4000;0.7668;-3.1160;
356.7000;0.7652;-3.1135;
357.0000;0.7611;-3.1160;
357.3000;0.7578;-3.1284;
357.6000;0.7643;-3.0961;
357.9000;0.7627;-3.0985;
358.2000;0.7627;-3.0936;
358.5000;0.7635;-3.0936;
358.8000;0.7619;-3.0985;
359.1000;0.7725;-3.0712;
359.4000;0.7635;-3.0985;
359.7000;0.7643;-3.1060;
360.0000;0.7643;-3.1160;
360.3000;0.7652;-3.1184;
360.6000;0.7643;-3.1209;
360.9000;0.7643;-3.1259;
361.2000;0.7652;-3.1284;
361.5000;0.7635;-3.1334;
361.8000;0.7635;-3.1234;
362.1000;0.7652;-3.1259;
362.4000;0.7652;-3.1234;
362.7000;0.7643;-3.1259;
363.0000;0.7635;-3.1209;
363.3000;0.7643;-3.1160;
363.6000;0.7627;-3.1035;
363.9000;0.7627;-3.0911;
364.2000;0.7635;-3.0886;
364.5000;0.7627;-3.0911;
364.8000;0.7652;-3.0911;
365.1000;0.7635;-3.1010;
365.4000;0.7627;-3.1085;
365.7000;0.7627;-3.1035;
366.0000;0.7635;-3.1010;
366.3000;0.7660;-3.0936;
366.6000;0.7643;-3.1010;
366.9000;0.7643;-3.1035;
367.2000;0.7627;-3.1135;
367.5000;0.7635;-3.1160;
367.8000;0.7643;-3.1035;
368.1000;0.7643;-3.1110;
368.4000;0.7643;-3.1135;
368.7000;0.7668;-3.1160;
369.0000;0.7643;-3.1184;
369.3000;0.7635;-3.1135;
369.6000;0.7643;-3.1160;
369.9000;0.7595;-3.1334;
370.2000;0.7643;-3.1209;
370.5000;0.7643;-3.1234;
370.8000;0.7627;-3.1160;
371.1000;0.7635;-3.1035;
371.4000;0.7700;-3.0861;
371.7000;0.7652;-3.0985;
372.0000;0.7700;-3.0786;
372.3000;0.7635;-3.0961;
372.6000;0.7643;-3.0985;
372.9000;0.7586;-3.1110;
373.2000;0.7652;-3.0911;
373.5000;0.7652;-3.0936;
373.8000;0.7627;-3.0985;
374.1000;0.7676;-3.0886;
374.4000;0.7627;-3.1010;
374.7000;0.7635;-3.0886;
375.0000;0.7595;-3.0985;
375.3000;0.7643;-3.0861;
375.6000;0.7627;-3.0961;
375.9000;0.7635;-3.1010;
376.2000;0.7652;-3.1035;
376.5000;0.7660;-3.1060;
376.8000;0.7692;-3.0936;
377.1000;0.7652;-3.1035;
377.4000;0.7643;-3.1135;
377.7000;0.7643;-3.1060;
378.0000;0.7635;-3.1060;
378.3000;0.7643;-3.1010;
378.6000;0.7635;-3.1035;
378.9000;0.7749;-3.0786;
379.2000;0.7668;-3.0985;
379.5000;0.7627;-3.1160;
379.8000;0.7652;-3.1110;
380.1000;0.7652;-3.1110;
380.4000;0.7595;-3.1209;
380.7000;0.7643;-3.1135;
381.0000;0.7627;-3.1184;
381.3000;0.7660;-3.1085;
381.6000;0.7635;-3.1085;
381.9000;0.7627;-3.1160;
382.2000;0.7652;-3.1085;
382.5000;0.7635;-3.1110;
382.8000;0.7668;-3.1085;
383.1000;0.7635;-3.1135;
383.4000;0.7652;-3.1184;
383.7000;0.7619;-3.1259;
384.0000;0.7627;-3.1184;
384.3000;0.7652;-3.1184;
384.6000;0.7660;-3.1160;
384.9000;0.7643;-3.1309;
385.2000;0.7635;-3.1358;
385.5000;0.7635;-3.1334;
385.8000;0.7668;-3.1209;
386.1000;0.7635;-3.1358;
386.4000;0.7627;-3.1383;
386.7000;0.7627;-3.1383;
387.0000;0.7635;-3.1433;
387.3000;0.7749;-3.1135;
387.6000;0.7635;-3.1458;
387.9000;0.7611;-3.1483;
388.2000;0.7643;-3.1358;
388.5000;0.7595;-3.1508;
388.8000;0.7627;-3.1458;
389.1000;0.7643;-3.1408;
389.4000;0.7627;-3.1433;
389.7000;0.7652;-3.1383;
390.0000;0.7643;-3.1358;
390.3000;0.7652;-3.1334;
390.6000;0.7627;-3.1259;
390.9000;0.7635;-3.1209;
391.2000;0.7643;-3.1184;
391.5000;0.7635;-3.1160;
391.8000;0.7627;-3.1184;
392.1000;0.7635;-3.1259;
392.4000;0.7652;-3.1284;
392.7000;0.7611;-3.1383;
393.0000;0.7660;-3.1209;
393.3000;0.7635;-3.1284;
393.6000;0.7635;-3.1309;
393.9000;0.7635;-3.1284;
394.2000;0.7749;-3.0961;
394.5000;0.7586;-3.1334;
394.8000;0.7611;-3.1284;
395.1000;0.7668;-3.1135;
395.4000;0.7652;-3.1184;
395.7000;0.7619;-3.1334;
396.0000;0.7692;-3.1085;
396.3000;0.7627;-3.1234;
396.6000;0.7611;-3.1284;
396.9000;0.7619;-3.1234;
397.2000;0.7603;-3.1284;
397.5000;0.7595;-3.1309;
397.8000;0.7627;-3.1234;
398.1000;0.7635;-3.1284;
398.4000;0.7627;-3.1358;
398.7000;0.7619;-3.1383;
399.0000;0.7643;-3.1234;
399.3000;0.7643;-3.1284;
399.6000;0.7709;-3.1085;
399.9000;0.7635;-3.1184;
400.2000;0.7643;-3.1110;
400.5000;0.7660;-3.0961;
400.8000;0.7652;-3.1035;
401.1000;0.7635;-3.1010;
401.4000;0.7652;-3.0961;
401.7000;0.7643;-3.0961;
402.0000;0.7635;-3.0985;
402.3000;0.7652;-3.0936;
402.6000;0.7652;-3.1010;
402.9000;0.7643;-3.1060;
403.2000;0.7643;-3.1060;
403.5000;0.7643;-3.1060;
403.8000;0.7652;-3.1010;
404.1000;0.7635;-3.1035;
404.4000;0.7652;-3.1035;
404.7000;0.7627;-3.1010;
405.0000;0.7627;-3.1010;
405.3000;0.7627;-3.1035;
405.6000;0.7660;-3.0886;
405.9000;0.7619;-3.1085;
406.2000;0.7627;-3.1135;
406.5000;0.7627;-3.1085;
406.8000;0.7627;-3.1085;
407.1000;0.7717;-3.0886;
407.4000;0.7627;-3.1060;
407.7000;0.7643;-3.1035;
408.0000;0.7635;-3.1010;
408.3000;0.7635;-3.1085;
408.6000;0.7652;-3.1085;
408.9000;0.7627;-3.1160;
409.2000;0.7627;-3.1160;
409.5000;0.7627;-3.1184;
409.8000;0.7635;-3.1234;
410.1000;0.7619;-3.1383;
410.4000;0.7627;-3.1334;
410.7000;0.7643;-3.1309;
411.0000;0.7635;-3.1433;
411.3000;0.7668;-3.1309;
411.6000;0.7635;-3.1383;
411.9000;0.7635;-3.1458;
412.2000;0.7733;-3.1209;
412.5000;0.7635;-3.1408;
412.8000;0.7619;-3.1408;
413.1000;0.7554;-3.1533;
413.4000;0.7603;-3.1358;
413.7000;0.7611;-3.1358;
414.0000;0.7603;-3.1358;
414.3000;0.7643;-3.1259;
414.6000;0.7676;-3.1209;
414.9000;0.7643;-3.1334;
415.2000;0.7627;-3.1383;
415.5000;0.7660;-3.1259;
415.8000;0.7635;-3.1334;
416.1000;0.7643;-3.1259;
416.4000;0.7643;-3.1209;
416.7000;0.7611;-3.1259;
417.0000;0.7717;-3.1160;
417.3000;0.7643;-3.1284;
417.6000;0.7635;-3.1259;
417.9000;0.7627;-3.1259;
418.2000;0.7627;-3.1234;
418.5000;0.7586;-3.1408;
418.8000;0.7619;-3.1334;
419.1000;0.7619;-3.1334;
419.4000;0.7684;-3.1160;
419.7000;0.7643;-3.1135;
420.0000;0.7635;-3.1160;
420.3000;0.7627;-3.1085;
420.6000;0.7627;-3.1160;
420.9000;0.7635;-3.1234;
421.2000;0.7635;-3.1234;
421.5000;0.7652;-3.1234;
421.8000;0.7619;-3.1309;
422.1000;0.7627;-3.1334;
422.4000;0.7652;-3.1284;
422.7000;0.7660;-3.1209;
423.0000;0.7652;-3.1135;
423.3000;0.7643;-3.1035;
423.6000;0.7652;-3.1060;
423.9000;0.7643;-3.1085;
424.2000;0.7635;-3.1135;
424.5000;0.7635;-3.1284;
424.8000;0.7635;-3.1284;
425.1000;0.7652;-3.1309;
425.4000;0.7635;-3.1383;
425.7000;0.7643;-3.1309;
426.0000;0.7643;-3.1309;
426.3000;0.7643;-3.1259;
426.6000;0.7643;-3.1110;
426.9000;0.7643;-3.1060;
427.2000;0.7595;-3.1209;
427.5000;0.7611;-3.1110;
427.8000;0.7627;-3.1110;
428.1000;0.7627;-3.1184;
428.4000;0.7586;-3.1160;
428.7000;0.7619;-3.0985;
429.0000;0.7643;-3.1035;
429.3000;0.7611;-3.1234;
429.6000;0.7627;-3.1234;
429.9000;0.7684;-3.1110;
430.2000;0.7635;-3.1209;
430.5000;0.7643;-3.1234;
430.8000;0.7635;-3.1309;
431.1000;0.7619;-3.1334;
431.4000;0.7635;-3.1259;
431.7000;0.7643;-3.1234;
432.0000;0.7643;-3.1309;
432.3000;0.7635;-3.1284;
432.6000;0.7635;-3.1160;
432.9000;0.7643;-3.1135;
433.2000;0.7668;-3.1010;
433.5000;0.7619;-3.1135;
433.8000;0.7643;-3.1035;
434.1000;0.7627;-3.1110;
434.4000;0.7635;-3.1060;
434.7000;0.7635;-3.1234;
435.0000;0.7619;-3.1334;
435.3000;0.7627;-3.1259;
435.6000;0.7643;-3.1135;
435.9000;0.7611;-3.1184;
436.2000;0.7668;-3.1110;
436.5000;0.7538;-3.1408;
436.8000;0.7635;-3.1259;
437.1000;0.7619;-3.1259;
437.4000;0.7627;-3.1284;
437.7000;0.7619;-3.1284;
438.0000;0.7652;-3.1284;
438.3000;0.7627;-3.1433;
438.6000;0.7627;-3.1383;
438.9000;0.7578;-3.1557;
439.2000;0.7619;-3.1483;
439.5000;0.7619;-3.1408;
439.8000;0.7611;-3.1483;
440.1000;0.7627;-3.1259;
440.4000;0.7627;-3.1184;
440.7000;0.7652;-3.1160;
441.0000;0.7635;-3.1184;
441.3000;0.7643;-3.1160;
441.6000;0.7619;-3.1234;
441.9000;0.7619;-3.1234;
442.2000;0.7700;-3.1010;
442.5000;0.7627;-3.1234;
442.8000;0.7635;-3.1184;
443.1000;0.7643;-3.1110;
443.4000;0.7635;-3.1110;
443.7000;0.7684;-3.0936;
444.0000;0.7595;-3.1060;
444.3000;0.7635;-3.0936;
444.6000;0.7643;-3.0985;
444.9000;0.7684;-3.0911;
445.2000;0.7611;-3.1010;
445.5000;0.7619;-3.1135;
445.8000;0.7627;-3.1085;
446.1000;0.7627;-3.1085;
446.4000;0.7619;-3.1160;
446.7000;0.7570;-3.1309;
447.0000;0.7652;-3.1085;
447.3000;0.7652;-3.1085;
447.6000;0.7619;-3.1135;
447.9000;0.7652;-3.1010;
448.2000;0.7643;-3.1035;
448.5000;0.7635;-3.1060;
448.8000;0.7635;-3.1060;
449.1000;0.7643;-3.1035;
449.4000;0.7635;-3.0936;
449.7000;0.7619;-3.0961;
450.0000;0.7627;-3.0836;
450.3000;0.7627;-3.0811;
450.6000;0.7611;-3.0836;
450.9000;0.7619;-3.0886;
451.2000;0.7700;-3.0861;
451.5000;0.7619;-3.1060;
451.8000;0.7635;-3.0936;
452.1000;0.7668;-3.0786;
452.4000;0.7611;-3.0961;
452.7000;0.7643;-3.1010;
453.0000;0.7643;-3.1035;
453.3000;0.7611;-3.1035;
453.6000;0.7652;-3.0911;
453.9000;0.7627;-3.1035;
454.2000;0.7578;-3.1184;
454.5000;0.7635;-3.0985;
454.8000;0.7643;-3.0961;
455.1000;0.7635;-3.1010;
455.4000;0.7627;-3.0985;
455.7000;0.7643;-3.0886;
456.0000;0.7635;-3.0861;
456.3000;0.7611;-3.0861;
456.6000;0.7652;-3.0836;
456.9000;0.7643;-3.0911;
457.2000;0.7611;-3.0961;
457.5000;0.7668;-3.0911;
457.8000;0.7643;-3.0985;
458.1000;0.7611;-3.1060;
458.4000;0.7627;-3.1110;
458.7000;0.7676;-3.1085;
459.0000;0.7652;-3.1209;
459.3000;0.7652;-3.1160;
459.6000;0.7643;-3.1135;
459.9000;0.7643;-3.1110;
460.2000;0.7652;-3.0985;
460.5000;0.7586;-3.1234;
460.8000;0.7603;-3.1085;
461.1000;0.7619;-3.0985;
461.4000;0.7635;-3.0936;
461.7000;0.7627;-3.0936;
462.0000;0.7635;-3.0786;
462.3000;0.7676;-3.0737;
462.6000;0.7627;-3.0936;
462.9000;0.7619;-3.1060;
463.2000;0.7627;-3.1085;
463.5000;0.7619;-3.1060;
463.8000;0.7619;-3.1010;
464.1000;0.7652;-3.0886;
464.4000;0.7643;-3.0886;
464.7000;0.7635;-3.0836;
465.0000;0.7530;-3.1035;
465.3000;0.7627;-3.0811;
465.6000;0.7611;-3.0811;
465.9000;0.7635;-3.0786;
466.2000;0.7635;-3.0786;
466.5000;0.7643;-3.0712;
466.8000;0.7635;-3.0687;
467.1000;0.7660;-3.0637;
467.4000;0.7627;-3.0737;
467.7000;0.7627;-3.0712;
468.0000;0.7619;-3.0687;
468.3000;0.7635;-3.0836;
468.6000;0.7578;-3.0961;
468.9000;0.7635;-3.0861;
469.2000;0.7668;-3.0811;
469.5000;0.7619;-3.0911;
469.8000;0.7635;-3.0936;
470.1000;0.7562;-3.1184;
470.4000;0.7643;-3.1010;
470.7000;0.7652;-3.0936;
471.0000;0.7643;-3.0886;
471.3000;0.7643;-3.0861;
471.6000;0.7619;-3.0985;
471.9000;0.7643;-3.0936;
472.2000;0.7635;-3.1010;
472.5000;0.7635;-3.1035;
472.8000;0.7635;-3.1035;
473.1000;0.7611;-3.1110;
473.4000;0.7652;-3.1010;
473.7000;0.7652;-3.0961;
474.0000;0.7627;-3.1135;
474.3000;0.7619;-3.1259;
474.6000;0.7627;-3.1209;
474.9000;0.7627;-3.1234;
475.2000;0.7725;-3.1010;
475.5000;0.7643;-3.1160;
475.8000;0.7562;-3.1334;
476.1000;0.7660;-3.1085;
476.4000;0.7652;-3.1135;
476.7000;0.7684;-3.1035;
477.0000;0.7627;-3.1135;
477.3000;0.7643;-3.1184;
477.6000;0.7627;-3.1209;
477.9000;0.7635;-3.1184;
478.2000;0.7627;-3.1259;
478.5000;0.7635;-3.1358;
478.8000;0.7619;-3.1284;
479.1000;0.7611;-3.1309;
479.4000;0.7611;-3.1358;
479.7000;0.7635;-3.1309;
480.0000;0.7627;-3.1334;
480.3000;0.7635;-3.1358;
480.6000;0.7635;-3.1358;
480.9000;0.7627;-3.1334;
481.2000;0.7635;-3.1160;
481.5000;0.7635;-3.1110;
481.8000;0.7652;-3.1110;
482.1000;0.7643;-3.1135;
482.4000;0.7643;-3.1184;
482.7000;0.7652;-3.1135;
483.0000;0.7635;-3.1160;
483.3000;0.7627;-3.1259;
483.6000;0.7635;-3.1209;
483.9000;0.7652;-3.1334;
484.2000;0.7643;-3.1383;
484.5000;0.7660;-3.1433;
484.8000;0.7668;-3.1309;
485.1000;0.7643;-3.1358;
485.4000;0.7627;-3.1334;
485.7000;0.7562;-3.1433;
486.0000;0.7611;-3.1284;
486.3000;0.7611;-3.1284;
486.6000;0.7635;-3.1160;
486.9000;0.7611;-3.1234;
487.2000;0.7603;-3.1184;
487.5000;0.7627;-3.1060;
487.8000;0.7619;-3.1035;
488.1000;0.7660;-3.1035;
488.4000;0.7611;-3.1234;
488.7000;0.7627;-3.1184;
489.0000;0.7660;-3.1085;
489.3000;0.7635;-3.1160;
489.6000;0.7652;-3.1110;
489.9000;0.7635;-3.1110;
490.2000;0.7643;-3.1110;
490.5000;0.7635;-3.1209;
490.8000;0.7635;-3.1259;
491.1000;0.7660;-3.1110;
491.4000;0.7652;-3.1110;
491.7000;0.7611;-3.1209;
492.0000;0.7635;-3.1160;
492.3000;0.7635;-3.1160;
492.6000;0.7627;-3.1184;
492.9000;0.7627;-3.1135;
493.2000;0.7627;-3.1160;
493.5000;0.7652;-3.1085;
493.8000;0.7619;-3.1184;
494.1000;0.7603;-3.1135;
494.4000;0.7643;-3.1160;
494.7000;0.7627;-3.1160;
495.0000;0.7635;-3.1110;
495.3000;0.7611;-3.1135;
495.6000;0.7627;-3.1035;
495.9000;0.7603;-3.1010;
496.2000;0.7603;-3.0985;
496.5000;0.7635;-3.0886;
496.8000;0.7619;-3.0936;
497.1000;0.7635;-3.0836;
497.4000;0.7627;-3.0936;
497.7000;0.7627;-3.0911;
498.0000;0.7627;-3.0961;
498.3000;0.7635;-3.1035;
498.6000;0.7619;-3.1085;
498.9000;0.7619;-3.1085;
499.2000;0.7603;-3.1234;
499.5000;0.7619;-3.1234;
499.8000;0.7627;-3.1259;
500.1000;0.7619;-3.1234;
500.4000;0.7619;-3.1160;
500.7000;0.7635;-3.1160;
501.0000;0.7643;-3.1085;
501.3000;0.7627;-3.1010;
501.6000;0.7635;-3.1035;
501.9000;0.7643;-3.1035;
502.2000;0.7627;-3.1135;
502.5000;0.7635;-3.1110;
502.8000;0.7627;-3.1035;
503.1000;0.7611;-3.1135;
503.4000;0.7611;-3.1110;
503.7000;0.7611;-3.1035;
504.0000;0.7643;-3.1010;
504.3000;0.7619;-3.1110;
504.6000;0.7635;-3.1135;
504.9000;0.7627;-3.1160;
505.2000;0.7627;-3.1085;
505.5000;0.7619;-3.1135;
505.8000;0.7619;-3.1110;
506.1000;0.7627;-3.0985;
506.4000;0.7660;-3.0961;
506.7000;0.7652;-3.0985;
507.0000;0.7635;-3.1135;
507.3000;0.7643;-3.1135;
507.6000;0.7635;-3.1160;
507.9000;0.7619;-3.1234;
508.2000;0.7627;-3.1209;
508.5000;0.7538;-3.1508;
508.8000;0.7643;-3.1259;
509.1000;0.7643;-3.1160;
509.4000;0.7595;-3.1160;
509.7000;0.7643;-3.0961;
510.0000;0.7627;-3.0911;
510.3000;0.7627;-3.0936;
510.6000;0.7611;-3.1010;
510.9000;0.7668;-3.0886;
511.2000;0.7619;-3.1010;
511.5000;0.7627;-3.1060;
511.8000;0.7643;-3.1035;
512.1000;0.7603;-3.1135;
512.4000;0.7603;-3.1160;
512.7000;0.7635;-3.1060;
513.0000;0.7611;-3.1184;
513.3000;0.7635;-3.1184;
513.6000;0.7627;-3.1284;
513.9000;0.7627;-3.1259;
514.2000;0.7643;-3.1334;
514.5000;0.7635;-3.1383;
514.8000;0.7635;-3.1383;
515.1000;0.7619;-3.1408;
515.4000;0.7643;-3.1309;
515.7000;0.7627;-3.1284;
516.0000;0.7603;-3.1334;
516.3000;0.7627;-3.1234;
516.6000;0.7627;-3.1234;
516.9000;0.7586;-3.1234;
517.2000;0.7627;-3.1209;
517.5000;0.7635;-3.1160;
517.8000;0.7635;-3.1234;
518.1000;0.7684;-3.1010;
518.4000;0.7643;-3.1060;
518.7000;0.7635;-3.1160;
519.0000;0.7635;-3.1160;
519.3000;0.7635;-3.1184;
519.6000;0.7627;-3.1334;
519.9000;0.7635;-3.1259;
520.2000;0.7643;-3.1135;
520.5000;0.7627;-3.1085;
520.8000;0.7635;-3.1085;
521.1000;0.7635;-3.1135;
521.4000;0.7627;-3.1060;
521.7000;0.7643;-3.0985;
522.0000;0.7652;-3.0861;
522.3000;0.7643;-3.0936;
522.6000;0.7611;-3.1060;
522.9000;0.7603;-3.0985;
523.2000;0.7635;-3.0936;
523.5000;0.7619;-3.0985;
523.8000;0.7627;-3.1060;
524.1000;0.7635;-3.1110;
524.4000;0.7595;-3.1209;
524.7000;0.7643;-3.1060;
525.0000;0.7635;-3.0985;
525.3000;0.7611;-3.1184;
525.6000;0.7627;-3.1184;
525.9000;0.7619;-3.1160;
526.2000;0.7643;-3.1085;
526.5000;0.7635;-3.1110;
526.8000;0.7627;-3.1110;
527.1000;0.7635;-3.1035;
527.4000;0.7619;-3.1035;
527.7000;0.7627;-3.0961;
528.0000;0.7635;-3.0811;
528.3000;0.7635;-3.0786;
528.6000;0.7619;-3.0836;
528.9000;0.7603;-3.0936;
529.2000;0.7611;-3.0886;
529.5000;0.7635;-3.0762;
529.8000;0.7668;-3.0712;
530.1000;0.7619;-3.0836;
530.4000;0.7635;-3.0811;
530.7000;0.7619;-3.0985;
531.0000;0.7635;-3.0961;
531.3000;0.7643;-3.0936;
531.6000;0.7611;-3.0985;
531.9000;0.7619;-3.0985;
532.2000;0.7611;-3.0911;
532.5000;0.7627;-3.0911;
532.8000;0.7603;-3.0985;
533.1000;0.7611;-3.0985;
533.4000;0.7619;-3.0961;
533.7000;0.7635;-3.0911;
534.0000;0.7619;-3.0961;
534.3000;0.7554;-3.1209;
534.6000;0.7611;-3.1035;
534.9000;0.7611;-3.1010;
535.2000;0.7619;-3.0961;
535.5000;0.7619;-3.0886;
535.8000;0.7586;-3.1010;
536.1000;0.7619;-3.0886;
536.4000;0.7643;-3.0886;
536.7000;0.7619;-3.0786;
537.0000;0.7619;-3.0786;
537.3000;0.7619;-3.0911;
537.6000;0.7611;-3.0985;
537.9000;0.7635;-3.0911;
538.2000;0.7643;-3.0961;
538.5000;0.7611;-3.1060;
538.8000;0.7635;-3.0936;
539.1000;0.7643;-3.0861;
539.4000;0.7619;-3.0936;
539.7000;0.7619;-3.0911;
540.0000;0.7562;-3.1110;
540.3000;0.7611;-3.0961;
540.6000;0.7635;-3.0861;
540.9000;0.7643;-3.0762;
541.2000;0.7627;-3.0762;
541.5000;0.7578;-3.0911;
541.8000;0.7611;-3.0762;
542.1000;0.7619;-3.0762;
542.4000;0.7619;-3.0861;
542.7000;0.7627;-3.0836;
543.0000;0.7603;-3.0936;
543.3000;0.7627;-3.0911;
543.6000;0.7619;-3.0911;
543.9000;0.7611;-3.0886;
544.2000;0.7611;-3.0911;
544.5000;0.7635;-3.0936;
544.8000;0.7643;-3.0961;
545.1000;0.7635;-3.0985;
545.4000;0.7635;-3.0985;
545.7000;0.7619;-3.0961;
546.0000;0.7611;-3.0936;
546.3000;0.7676;-3.0712;
546.6000;0.7627;-3.0936;
546.9000;0.7627;-3.0961;
547.2000;0.7619;-3.0936;
547.5000;0.7611;-3.1035;
547.8000;0.7643;-3.1035;
548.1000;0.7692;-3.0911;
548.4000;0.7717;-3.0861;
548.7000;0.7652;-3.1010;
549.0000;0.7635;-3.1110;
549.3000;0.7660;-3.1110;
549.6000;0.7627;-3.1110;
549.9000;0.7619;-3.1035;
550.2000;0.7603;-3.1035;
550.5000;0.7643;-3.0985;
550.8000;0.7562;-3.1259;
551.1000;0.7635;-3.1060;
551.4000;0.7627;-3.1010;
551.7000;0.7643;-3.1010;
552.0000;0.7635;-3.0985;
552.3000;0.7627;-3.1060;
552.6000;0.7619;-3.1010;
552.9000;0.7627;-3.1035;
553.2000;0.7627;-3.1035;
553.5000;0.7619;-3.1135;
553.8000;0.7684;-3.1035;
554.1000;0.7627;-3.1259;
554.4000;0.7627;-3.1284;
554.7000;0.7643;-3.1284;
555.0000;0.7635;-3.1284;
555.3000;0.7725;-3.0985;
555.6000;0.7603;-3.1358;
555.9000;0.7619;-3.1259;
556.2000;0.7635;-3.1209;
556.5000;0.7692;-3.1035;
556.8000;0.7611;-3.1234;
557.1000;0.7619;-3.1160;
557.4000;0.7627;-3.1135;
557.7000;0.7611;-3.1110;
558.0000;0.7611;-3.1085;
558.3000;0.7627;-3.1060;
558.6000;0.7627;-3.1010;
558.9000;0.7635;-3.1035;
559.2000;0.7603;-3.1010;
559.5000;0.7627;-3.0936;
559.8000;0.7643;-3.0836;
560.1000;0.7635;-3.0836;
560.4000;0.7627;-3.0861;
560.7000;0.7619;-3.0886;
561.0000;0.7676;-3.0737;
561.3000;0.7619;-3.0737;
561.6000;0.7627;-3.0712;
561.9000;0.7611;-3.0762;
562.2000;0.7619;-3.0811;
562.5000;0.7643;-3.0836;
562.8000;0.7627;-3.0985;
563.1000;0.7521;-3.1234;
563.4000;0.7635;-3.0936;
563.7000;0.7635;-3.0911;
564.0000;0.7619;-3.0936;
564.3000;0.7619;-3.0911;
564.6000;0.7619;-3.0961;
564.9000;0.7619;-3.0936;
565.2000;0.7595;-3.0985;
565.5000;0.7627;-3.0886;
565.8000;0.7619;-3.0961;
566.1000;0.7570;-3.1135;
566.4000;0.7586;-3.1085;
566.7000;0.7627;-3.1035;
567.0000;0.7586;-3.1234;
567.3000;0.7603;-3.1184;
567.6000;0.7619;-3.1160;
567.9000;0.7627;-3.1035;
568.2000;0.7652;-3.0961;
568.5000;0.7709;-3.0786;
568.8000;0.7611;-3.0985;
569.1000;0.7627;-3.1010;
569.4000;0.7570;-3.1160;
569.7000;0.7684;-3.0936;
570.0000;0.7603;-3.1110;
570.3000;0.7627;-3.1085;
570.6000;0.7611;-3.1110;
570.9000;0.7611;-3.1209;
571.2000;0.7562;-3.1433;
571.5000;0.7619;-3.1284;
571.8000;0.7635;-3.1209;
572.1000;0.7611;-3.1234;
572.4000;0.7603;-3.1160;
572.7000;0.7619;-3.1184;
573.0000;0.7627;-3.1160;
573.3000;0.7635;-3.1110;
573.6000;0.7619;-3.1135;
573.9000;0.7611;-3.1110;
574.2000;0.7619;-3.1060;
574.5000;0.7611;-3.1085;
574.8000;0.7619;-3.1085;
575.1000;0.7635;-3.1060;
575.4000;0.7627;-3.0936;
575.7000;0.7627;-3.0985;
576.0000;0.7603;-3.0961;
576.3000;0.7619;-3.0985;
576.6000;0.7603;-3.1010;
576.9000;0.7619;-3.0985;
577.2000;0.7627;-3.0961;
577.5000;0.7717;-3.0786;
577.8000;0.7635;-3.0985;
578.1000;0.7635;-3.1035;
578.4000;0.7627;-3.1035;
578.7000;0.7619;-3.1010;
579.0000;0.7627;-3.1060;
579.3000;0.7611;-3.1135;
579.6000;0.7635;-3.1110;
579.9000;0.7627;-3.1035;
580.2000;0.7619;-3.1060;
580.5000;0.7595;-3.1085;
580.8000;0.7627;-3.1010;
581.1000;0.7619;-3.1010;
581.4000;0.7603;-3.1010;
581.7000;0.7619;-3.1035;
582.0000;0.7627;-3.1010;
582.3000;0.7619;-3.0985;
582.6000;0.7619;-3.1035;
582.9000;0.7578;-3.1110;
583.2000;0.7578;-3.1110;
583.5000;0.7619;-3.0936;
583.8000;0.7627;-3.0961;
584.1000;0.7619;-3.0961;
584.4000;0.7619;-3.0961;
584.7000;0.7635;-3.0836;
585.0000;0.7611;-3.0836;
585.3000;0.7611;-3.0886;
585.6000;0.7619;-3.0911;
585.9000;0.7652;-3.0886;
586.2000;0.7635;-3.0911;
586.5000;0.7595;-3.1035;
586.8000;0.7668;-3.0886;
587.1000;0.7570;-3.1035;
587.4000;0.7660;-3.0762;
587.7000;0.7676;-3.0786;
588.0000;0.7586;-3.1010;
588.3000;0.7619;-3.0861;
588.6000;0.7538;-3.1035;
588.9000;0.7652;-3.0811;
589.2000;0.7635;-3.0861;
589.5000;0.7643;-3.0886;
589.8000;0.7635;-3.0911;
590.1000;0.7513;-3.1309;
590.4000;0.7627;-3.1060;
590.7000;0.7619;-3.1110;
591.0000;0.7611;-3.1135;
591.3000;0.7578;-3.1234;
591.6000;0.7578;-3.1160;
591.9000;0.7611;-3.1110;
592.2000;0.7643;-3.1085;
592.5000;0.7619;-3.1135;
592.8000;0.7619;-3.1160;
593.1000;0.7554;-3.1334;
593.4000;0.7586;-3.1309;
593.7000;0.7619;-3.1234;
594.0000;0.7627;-3.1234;
594.3000;0.7627;-3.1160;
594.6000;0.7611;-3.1209;
594.9000;0.7619;-3.1160;
595.2000;0.7619;-3.1160;
595.5000;0.7627;-3.1035;
595.8000;0.7611;-3.1035;
596.1000;0.7635;-3.0961;
596.4000;0.7611;-3.1110;
596.7000;0.7627;-3.0985;
597.0000;0.7611;-3.0961;
597.3000;0.7603;-3.1035;
597.6000;0.7619;-3.0936;
597.9000;0.7619;-3.0836;
598.2000;0.7611;-3.0811;
598.5000;0.7562;-3.0886;
598.8000;0.7619;-3.0712;
599.1000;0.7619;-3.0662;
599.4000;0.7586;-3.0836;
599.7000;0.7619;-3.0687;
600.0000;0.7627;-3.0712;
600.3000;0.7595;-3.0961;
600.6000;0.7660;-3.0886;
600.9000;0.7627;-3.1184;
601.2000;0.7570;-3.1334;
601.5000;0.7586;-3.1408;
601.8000;0.7505;-3.1707;
602.1000;0.7440;-3.1930;
602.4000;0.7399;-3.2104;
602.7000;0.7350;-3.2204;
603.0000;0.7318;-3.2279;
603.3000;0.7236;-3.2403;
603.6000;0.7220;-3.2428;
603.9000;0.7147;-3.2478;
604.2000;0.7131;-3.2403;
604.5000;0.7090;-3.2502;
604.8000;0.7033;-3.2602;
605.1000;0.7025;-3.2602;
605.4000;0.6992;-3.2652;
605.7000;0.6960;-3.2776;
606.0000;0.6943;-3.2851;
606.3000;0.6927;-3.2875;
606.6000;0.6862;-3.2975;
606.9000;0.6927;-3.2900;
607.2000;0.6813;-3.3099;
607.5000;0.6772;-3.3199;
607.8000;0.6756;-3.3124;
608.1000;0.6838;-3.2875;
608.4000;0.6634;-3.3373;
608.7000;0.6683;-3.3224;
609.0000;0.6659;-3.3199;
609.3000;0.6634;-3.3224;
609.6000;0.6626;-3.3124;
609.9000;0.6602;-3.3099;
610.2000;0.6577;-3.3124;
610.5000;0.6553;-3.3199;
610.8000;0.6602;-3.3074;
611.1000;0.6561;-3.3149;
611.4000;0.6488;-3.3398;
611.7000;0.6479;-3.3398;
612.0000;0.6463;-3.3398;
612.3000;0.6439;-3.3373;
612.6000;0.6431;-3.3348;
612.9000;0.6414;-3.3398;
613.2000;0.6406;-3.3422;
613.5000;0.6382;-3.3447;
613.8000;0.6365;-3.3497;
614.1000;0.6309;-3.3597;
614.4000;0.6300;-3.3522;
614.7000;0.6309;-3.3472;
615.0000;0.6260;-3.3572;
615.3000;0.6252;-3.3522;
615.6000;0.6268;-3.3522;
615.9000;0.6252;-3.3497;
616.2000;0.6227;-3.3522;
616.5000;0.6211;-3.3597;
616.8000;0.6186;-3.3621;
617.1000;0.6186;-3.3547;
617.4000;0.6170;-3.3621;
617.7000;0.6146;-3.3671;
618.0000;0.6129;-3.3721;
618.3000;0.6138;-3.3547;
618.6000;0.6129;-3.3447;
618.9000;0.6089;-3.3547;
619.2000;0.6081;-3.3472;
619.5000;0.6056;-3.3522;
619.8000;0.6048;-3.3497;
620.1000;0.6056;-3.3373;
620.4000;0.6024;-3.3422;
620.7000;0.6007;-3.3422;
621.0000;0.5999;-3.3472;
621.3000;0.5991;-3.3497;
621.6000;0.5991;-3.3547;
621.9000;0.5983;-3.3572;
622.2000;0.6040;-3.3398;
622.5000;0.5967;-3.3497;
622.8000;0.5983;-3.3447;
623.1000;0.5942;-3.3497;
623.4000;0.5869;-3.3621;
623.7000;0.5918;-3.3497;
624.0000;0.5918;-3.3472;
624.3000;0.5885;-3.3472;
624.6000;0.5877;-3.3447;
624.9000;0.5877;-3.3447;
625.2000;0.5869;-3.3373;
625.5000;0.5755;-3.3646;
625.8000;0.5836;-3.3447;
626.1000;0.5828;-3.3422;
626.4000;0.5796;-3.3522;
626.7000;0.5804;-3.3472;
627.0000;0.5836;-3.3422;
627.3000;0.5820;-3.3447;
627.6000;0.5788;-3.3572;
627.9000;0.5747;-3.3671;
628.2000;0.5771;-3.3597;
628.5000;0.5747;-3.3621;
628.8000;0.5763;-3.3547;
629.1000;0.5755;-3.3597;
629.4000;0.5747;-3.3671;
629.7000;0.5788;-3.3572;
630.0000;0.5698;-3.3696;
630.3000;0.5714;-3.3696;
630.6000;0.5731;-3.3646;
630.9000;0.5674;-3.3870;
631.2000;0.5625;-3.4044;
631.5000;0.5682;-3.3746;
631.8000;0.5665;-3.3771;
632.1000;0.5674;-3.3746;
632.4000;0.5649;-3.3746;
632.7000;0.5641;-3.3696;
633.0000;0.5641;-3.3696;
633.3000;0.5641;-3.3696;
633.6000;0.5633;-3.3771;
633.9000;0.5608;-3.3771;
634.2000;0.5608;-3.3820;
634.5000;0.5633;-3.3671;
634.8000;0.5625;-3.3746;
635.1000;0.5600;-3.3746;
635.4000;0.5584;-3.3796;
635.7000;0.5576;-3.3771;
636.0000;0.5576;-3.3671;
636.3000;0.5560;-3.3771;
636.6000;0.5560;-3.3796;
636.9000;0.5560;-3.3796;
637.2000;0.5551;-3.3696;
637.5000;0.5543;-3.3796;
637.8000;0.5519;-3.3746;
638.1000;0.5535;-3.3721;
638.4000;0.5543;-3.3746;
638.7000;0.5527;-3.3845;
639.0000;0.5519;-3.3845;
639.3000;0.5478;-3.3845;
639.6000;0.5519;-3.3721;
639.9000;0.5511;-3.3671;
640.2000;0.5560;-3.3522;
640.5000;0.5478;-3.3696;
640.8000;0.5511;-3.3696;
641.1000;0.5486;-3.3870;
641.4000;0.5446;-3.3870;
641.7000;0.5446;-3.3845;
642.0000;0.5462;-3.3820;
642.3000;0.5438;-3.3895;
642.6000;0.5462;-3.3895;
642.9000;0.5462;-3.3845;
643.2000;0.5438;-3.3895;
643.5000;0.5438;-3.3945;
643.8000;0.5438;-3.3796;
644.1000;0.5413;-3.3820;
644.4000;0.5413;-3.3771;
644.7000;0.5413;-3.3771;
645.0000;0.5429;-3.3845;
645.3000;0.5397;-3.3920;
645.6000;0.5421;-3.3796;
645.9000;0.5470;-3.3472;
646.2000;0.5413;-3.3522;
646.5000;0.5389;-3.3472;
646.8000;0.5397;-3.3547;
647.1000;0.5381;-3.3547;
647.4000;0.5372;-3.3522;
647.7000;0.5381;-3.3547;
648.0000;0.5372;-3.3572;
648.3000;0.5324;-3.3721;
648.6000;0.5356;-3.3696;
648.9000;0.5372;-3.3646;
649.2000;0.5381;-3.3696;
649.5000;0.5389;-3.3597;
649.8000;0.5389;-3.3646;
650.1000;0.5348;-3.3771;
650.4000;0.5356;-3.3696;
650.7000;0.5340;-3.3646;
651.0000;0.5299;-3.3746;
651.3000;0.5332;-3.3671;
651.6000;0.5340;-3.3621;
651.9000;0.5307;-3.3696;
652.2000;0.5315;-3.3696;
652.5000;0.5307;-3.3796;
652.8000;0.5324;-3.3646;
653.1000;0.5340;-3.3597;
653.4000;0.5307;-3.3621;
653.7000;0.5307;-3.3671;
654.0000;0.5340;-3.3522;
654.3000;0.5299;-3.3597;
654.6000;0.5275;-3.3721;
654.9000;0.5283;-3.3696;
655.2000;0.5258;-3.3746;
655.5000;0.5283;-3.3671;
655.8000;0.5275;-3.3746;
656.1000;0.5169;-3.4094;
656.4000;0.5218;-3.3895;
656.7000;0.5267;-3.3796;
657.0000;0.5250;-3.3796;
657.3000;0.5258;-3.3746;
657.6000;0.5258;-3.3646;
657.9000;0.5267;-3.3572;
658.2000;0.5364;-3.3348;
658.5000;0.5250;-3.3621;
658.8000;0.5250;-3.3646;
659.1000;0.5242;-3.3746;
659.4000;0.5242;-3.3796;
659.7000;0.5267;-3.3771;
660.0000;0.5218;-3.3870;
660.3000;0.5250;-3.3820;
660.6000;0.5234;-3.3771;
660.9000;0.5210;-3.3771;
661.2000;0.5201;-3.3796;
661.5000;0.5210;-3.3771;
661.8000;0.5242;-3.3696;
662.1000;0.5307;-3.3522;
662.4000;0.5201;-3.3870;
662.7000;0.5193;-3.3920;
663.0000;0.5234;-3.3845;
663.3000;0.5250;-3.3771;
663.6000;0.5218;-3.3895;
663.9000;0.5185;-3.3945;
664.2000;0.5185;-3.3945;
664.5000;0.5201;-3.3895;
664.8000;0.5201;-3.3820;
665.1000;0.5153;-3.3970;
665.4000;0.5234;-3.3796;
665.7000;0.5153;-3.3895;
666.0000;0.5201;-3.3870;
666.3000;0.5169;-3.3945;
666.6000;0.5177;-3.3945;
666.9000;0.5144;-3.3994;
667.2000;0.5242;-3.3646;
667.5000;0.5218;-3.3696;
667.8000;0.5177;-3.3796;
668.1000;0.5161;-3.3870;
668.4000;0.5177;-3.3870;
668.7000;0.5177;-3.3895;
669.0000;0.5169;-3.3845;
669.3000;0.5169;-3.3796;
669.6000;0.5169;-3.3870;
669.9000;0.5144;-3.3945;
670.2000;0.5144;-3.4094;
670.5000;0.5169;-3.4044;
670.8000;0.5169;-3.3970;
671.1000;0.5153;-3.3970;
671.4000;0.5153;-3.3945;
671.7000;0.5153;-3.3970;
672.0000;0.5153;-3.3920;
672.3000;0.5153;-3.4019;
672.6000;0.5144;-3.3994;
672.9000;0.5120;-3.4094;
673.2000;0.5136;-3.3994;
673.5000;0.5136;-3.3895;
673.8000;0.5242;-3.3572;
674.1000;0.5128;-3.3721;
674.4000;0.5120;-3.3746;
674.7000;0.5128;-3.3771;
675.0000;0.5128;-3.3771;
675.3000;0.5120;-3.3945;
675.6000;0.5014;-3.4193;
675.9000;0.5128;-3.3920;
676.2000;0.5112;-3.3920;
676.5000;0.5120;-3.3920;
676.8000;0.5112;-3.3845;
677.1000;0.5112;-3.3746;
677.4000;0.5112;-3.3746;
677.7000;0.5128;-3.3721;
678.0000;0.5104;-3.3671;
678.3000;0.5128;-3.3646;
678.6000;0.5112;-3.3721;
678.9000;0.5177;-3.3472;
679.2000;0.5112;-3.3646;
679.5000;0.5071;-3.3696;
679.8000;0.5088;-3.3671;
680.1000;0.5096;-3.3721;
680.4000;0.5088;-3.3771;
680.7000;0.5031;-3.3970;
681.0000;0.5096;-3.3870;
681.3000;0.5120;-3.3671;
681.6000;0.5104;-3.3696;
681.9000;0.5112;-3.3646;
682.2000;0.5088;-3.3696;
682.5000;0.5088;-3.3696;
682.8000;0.5088;-3.3696;
683.1000;0.5096;-3.3671;
683.4000;0.5104;-3.3621;
683.7000;0.5104;-3.3572;
684.0000;0.5104;-3.3597;
684.3000;0.5071;-3.3696;
684.6000;0.5079;-3.3771;
684.9000;0.5079;-3.3796;
685.2000;0.5063;-3.3820;
685.5000;0.5079;-3.3721;
685.8000;0.5055;-3.3671;
686.1000;0.5055;-3.3721;
686.4000;0.5055;-3.3572;
686.7000;0.5071;-3.3497;
687.0000;0.5071;-3.3497;
687.3000;0.5039;-3.3572;
687.6000;0.5063;-3.3522;
687.9000;0.5047;-3.3497;
688.2000;0.5055;-3.3572;
688.5000;0.5047;-3.3671;
688.8000;0.5055;-3.3621;
689.1000;0.5047;-3.3671;
689.4000;0.5055;-3.3646;
689.7000;0.5047;-3.3721;
690.0000;0.5055;-3.3646;
690.3000;0.5039;-3.3646;
690.6000;0.5071;-3.3547;
690.9000;0.5055;-3.3646;
691.2000;0.5022;-3.3771;
691.5000;0.5055;-3.3796;
691.8000;0.5055;-3.3771;
692.1000;0.5055;-3.3696;
692.4000;0.5055;-3.3696;
692.7000;0.5071;-3.3646;
693.0000;0.5055;-3.3671;
693.3000;0.5063;-3.3746;
693.6000;0.5039;-3.3820;
693.9000;0.5031;-3.3845;
694.2000;0.5031;-3.3870;
694.5000;0.5088;-3.3721;
694.8000;0.5022;-3.3945;
695.1000;0.5031;-3.3920;
695.4000;0.5022;-3.3920;
695.7000;0.5031;-3.3895;
696.0000;0.5031;-3.3820;
696.3000;0.4982;-3.3920;
696.6000;0.5022;-3.3771;
696.9000;0.5039;-3.3746;
697.2000;0.5014;-3.3845;
697.5000;0.5022;-3.3820;
697.8000;0.5014;-3.3771;
698.1000;0.5022;-3.3845;
698.4000;0.5039;-3.3895;
698.7000;0.5014;-3.3970;
699.0000;0.5006;-3.4044;
699.3000;0.5031;-3.3945;
699.6000;0.5006;-3.3870;
699.9000;0.4998;-3.3920;
700.2000;0.5006;-3.3895;
700.5000;0.5006;-3.3920;
700.8000;0.5039;-3.3771;
701.1000;0.5031;-3.3796;
701.4000;0.5014;-3.3920;
701.7000;0.4982;-3.3895;
702.0000;0.4990;-3.3796;
702.3000;0.4998;-3.3746;
702.6000;0.5022;-3.3771;
702.9000;0.5063;-3.3671;
703.2000;0.5039;-3.3771;
703.5000;0.5006;-3.3796;
703.8000;0.5022;-3.3796;
704.1000;0.4990;-3.3920;
704.4000;0.5006;-3.3895;
704.7000;0.5022;-3.3945;
705.0000;0.4965;-3.4119;
705.3000;0.5014;-3.3970;
705.6000;0.4998;-3.3970;
705.9000;0.5039;-3.3920;
706.2000;0.5039;-3.3920;
706.5000;0.4974;-3.3994;
706.8000;0.4998;-3.3945;
707.1000;0.4990;-3.4019;
707.4000;0.4998;-3.4044;
707.7000;0.4990;-3.3870;
708.0000;0.5006;-3.3895;
708.3000;0.4998;-3.3845;
708.6000;0.5006;-3.3746;
708.9000;0.5022;-3.3746;
709.2000;0.5039;-3.3746;
709.5000;0.4998;-3.3771;
709.8000;0.4998;-3.3845;
710.1000;0.5022;-3.3746;
710.4000;0.5031;-3.3746;
710.7000;0.4998;-3.3870;
711.0000;0.4998;-3.3895;
711.3000;0.5006;-3.3920;
711.6000;0.4998;-3.3820;
711.9000;0.4990;-3.3796;
712.2000;0.4990;-3.3796;
712.5000;0.4982;-3.3845;
712.8000;0.4974;-3.3870;
713.1000;0.4990;-3.3920;
713.4000;0.4974;-3.3920;
713.7000;0.4974;-3.3945;
714.0000;0.4990;-3.3994;
714.3000;0.4982;-3.4019;
714.6000;0.4990;-3.3920;
714.9000;0.4990;-3.3895;
715.2000;0.4982;-3.3945;
715.5000;0.4982;-3.4019;
715.8000;0.5006;-3.3920;
716.1000;0.4982;-3.3970;
716.4000;0.4965;-3.3994;
716.7000;0.4982;-3.3920;
717.0000;0.4965;-3.4069;
717.3000;0.4965;-3.4119;
717.6000;0.4965;-3.4144;
717.9000;0.4892;-3.4243;
718.2000;0.4974;-3.3970;
718.5000;0.4941;-3.4044;
718.8000;0.4965;-3.3970;
719.1000;0.4965;-3.3920;
719.4000;0.4974;-3.3870;
719.7000;0.4941;-3.3920;
720.0000;0.4965;-3.3845;
720.3000;0.4884;-3.4044;
720.6000;0.4974;-3.3870;
720.9000;0.4949;-3.3920;
721.2000;0.4974;-3.3820;
721.5000;0.4965;-3.3845;
721.8000;0.4982;-3.3696;
722.1000;0.4965;-3.3696;
722.4000;0.4965;-3.3721;
722.7000;0.4917;-3.3920;
723.0000;0.4974;-3.3820;
723.3000;0.4949;-3.3845;
723.6000;0.4957;-3.3845;
723.9000;0.4957;-3.3845;
724.2000;0.4917;-3.3994;
724.5000;0.4949;-3.3994;
724.8000;0.4957;-3.4094;
725.1000;0.4982;-3.3970;
725.4000;0.4949;-3.4019;
725.7000;0.4965;-3.3970;
726.0000;0.4957;-3.3994;
726.3000;0.4974;-3.4019;
726.6000;0.4941;-3.3970;
726.9000;0.4974;-3.3970;
727.2000;0.4957;-3.4044;
727.5000;0.4974;-3.3994;
727.8000;0.4949;-3.3994;
728.1000;0.4957;-3.3970;
728.4000;0.4933;-3.3945;
728.7000;0.4974;-3.3870;
729.0000;0.4974;-3.3820;
729.3000;0.4990;-3.3820;
729.6000;0.4900;-3.3994;
729.9000;0.4892;-3.3994;
730.2000;0.4860;-3.4069;
730.5000;0.4941;-3.3920;
730.8000;0.4965;-3.3870;
731.1000;0.4957;-3.3920;
731.4000;0.4900;-3.4119;
731.7000;0.4949;-3.4069;
732.0000;0.4941;-3.4044;
732.3000;0.4933;-3.3970;
732.6000;0.4957;-3.3870;
732.9000;0.4933;-3.3870;
733.2000;0.4925;-3.3920;
733.5000;0.4949;-3.3870;
733.8000;0.4965;-3.3820;
734.1000;0.4925;-3.3796;
734.4000;0.4965;-3.3696;
734.7000;0.4982;-3.3597;
735.0000;0.4925;-3.3771;
735.3000;0.4941;-3.3796;
735.6000;0.4941;-3.3796;
735.9000;0.4941;-3.3870;
736.2000;0.4949;-3.3796;
736.5000;0.4941;-3.3870;
736.8000;0.4851;-3.4069;
737.1000;0.4933;-3.3945;
737.4000;0.4908;-3.3970;
737.7000;0.4917;-3.4019;
738.0000;0.4941;-3.3920;
738.3000;0.4933;-3.3970;
738.6000;0.4892;-3.4044;
738.9000;0.4941;-3.3895;
739.2000;0.4949;-3.3945;
739.5000;0.4876;-3.4144;
739.8000;0.4925;-3.4019;
740.1000;0.4925;-3.3920;
740.4000;0.4941;-3.3945;
740.7000;0.4982;-3.3796;
741.0000;0.4925;-3.3945;
741.3000;0.4933;-3.3945;
741.6000;0.4941;-3.3970;
741.9000;0.4965;-3.3920;
742.2000;0.4933;-3.3970;
742.5000;0.4925;-3.3945;
742.8000;0.4949;-3.3895;
743.1000;0.4925;-3.3845;
743.4000;0.4917;-3.3845;
743.7000;0.4941;-3.3895;
744.0000;0.4933;-3.4019;
744.3000;0.4957;-3.3945;
744.6000;0.4933;-3.3945;
744.9000;0.4917;-3.4044;
745.2000;0.4917;-3.3945;
745.5000;0.4949;-3.3845;
745.8000;0.4965;-3.3721;
746.1000;0.4933;-3.3820;
746.4000;0.4957;-3.3746;
746.7000;0.4933;-3.3771;
747.0000;0.4949;-3.3721;
747.3000;0.4925;-3.3796;
747.6000;0.4851;-3.3970;
747.9000;0.4933;-3.3771;
748.2000;0.4949;-3.3696;
748.5000;0.4933;-3.3671;
748.8000;0.4949;-3.3597;
749.1000;0.4957;-3.3597;
749.4000;0.4908;-3.3796;
749.7000;0.4917;-3.3796;
750.0000;0.4941;-3.3796;
750.3000;0.4917;-3.3895;
750.6000;0.4917;-3.3820;
750.9000;0.4892;-3.3870;
751.2000;0.4933;-3.3820;
751.5000;0.4917;-3.3796;
751.8000;0.4949;-3.3796;
752.1000;0.4974;-3.3721;
752.4000;0.4925;-3.3870;
752.7000;0.4933;-3.3796;
753.0000;0.4925;-3.3895;
753.3000;0.4941;-3.3820;
753.6000;0.4925;-3.3945;
753.9000;0.4982;-3.3820;
754.2000;0.4933;-3.3920;
754.5000;0.4941;-3.3895;
754.8000;0.4941;-3.3970;
755.1000;0.4908;-3.4044;
755.4000;0.4917;-3.4019;
755.7000;0.4917;-3.3994;
756.0000;0.4933;-3.3994;
756.3000;0.4933;-3.3994;
756.6000;0.4908;-3.3994;
756.9000;0.4925;-3.3994;
757.2000;0.4892;-3.4119;
757.5000;0.4900;-3.4119;
757.8000;0.4900;-3.4094;
758.1000;0.4925;-3.4019;
758.4000;0.4917;-3.3920;
758.7000;0.4900;-3.3994;
759.0000;0.4827;-3.4119;
759.3000;0.4908;-3.3994;
759.6000;0.4925;-3.3920;
759.9000;0.4908;-3.3920;
760.2000;0.4908;-3.3796;
760.5000;0.4908;-3.3920;
760.8000;0.4974;-3.3646;
761.1000;0.4900;-3.3870;
761.4000;0.4933;-3.3920;
761.7000;0.4908;-3.4019;
762.0000;0.4900;-3.4019;
762.3000;0.4917;-3.3970;
762.6000;0.4941;-3.4019;
762.9000;0.4892;-3.4069;
763.2000;0.4917;-3.4069;
763.5000;0.4876;-3.4119;
763.8000;0.4933;-3.4094;
764.1000;0.4925;-3.3994;
764.4000;0.4917;-3.3970;
764.7000;0.4860;-3.4169;
765.0000;0.4933;-3.3945;
765.3000;0.4933;-3.3920;
765.6000;0.4925;-3.3920;
765.9000;0.4908;-3.3920;
766.2000;0.4900;-3.3895;
766.5000;0.4908;-3.3870;
766.8000;0.4908;-3.3920;
767.1000;0.4908;-3.3895;
767.4000;0.4933;-3.3845;
767.7000;0.4925;-3.3845;
768.0000;0.4933;-3.3870;
768.3000;0.4949;-3.3820;
768.6000;0.4908;-3.3796;
768.9000;0.4900;-3.3746;
769.2000;0.4933;-3.3721;
769.5000;0.4917;-3.3746;
769.8000;0.4900;-3.3746;
770.1000;0.4908;-3.3771;
770.4000;0.4917;-3.3646;
770.7000;0.4900;-3.3696;
771.0000;0.4925;-3.3696;
771.3000;0.4908;-3.3746;
771.6000;0.4884;-3.3746;
771.9000;0.4917;-3.3796;
772.2000;0.4868;-3.3970;
772.5000;0.4900;-3.3870;
772.8000;0.4917;-3.3820;
773.1000;0.4925;-3.3771;
773.4000;0.4900;-3.3820;
773.7000;0.4908;-3.3870;
774.0000;0.4900;-3.3895;
774.3000;0.4917;-3.3945;
774.6000;0.4900;-3.4019;
774.9000;0.4900;-3.3920;
775.2000;0.4908;-3.3870;
775.5000;0.4908;-3.3895;
775.8000;0.4917;-3.3895;
776.1000;0.4917;-3.3895;
776.4000;0.4892;-3.3994;
776.7000;0.4908;-3.3945;
777.0000;0.4892;-3.3994;
777.3000;0.4917;-3.3870;
777.6000;0.4925;-3.3820;
777.9000;0.4884;-3.3820;
778.2000;0.4908;-3.3671;
778.5000;0.4933;-3.3646;
778.8000;0.4925;-3.3621;
779.1000;0.4949;-3.3597;
779.4000;0.4974;-3.3597;
779.7000;0.4892;-3.3820;
780.0000;0.4892;-3.3945;
780.3000;0.4908;-3.3845;
780.6000;0.4917;-3.3771;
780.9000;0.4933;-3.3696;
781.2000;0.4965;-3.3646;
781.5000;0.4884;-3.3820;
781.8000;0.4908;-3.3796;
782.1000;0.4908;-3.3796;
782.4000;0.4917;-3.3796;
782.7000;0.4892;-3.3870;
783.0000;0.4884;-3.3970;
783.3000;0.4876;-3.3945;
783.6000;0.4900;-3.3994;
783.9000;0.4908;-3.4044;
784.2000;0.4917;-3.3920;
784.5000;0.4908;-3.3920;
784.8000;0.4949;-3.3796;
785.1000;0.4884;-3.4044;
785.4000;0.4892;-3.3970;
785.7000;0.4884;-3.3970;
786.0000;0.4925;-3.3920;
786.3000;0.4892;-3.4069;
786.6000;0.4900;-3.4019;
786.9000;0.4917;-3.3945;
787.2000;0.4892;-3.4044;
787.5000;0.4900;-3.4019;
787.8000;0.4884;-3.4069;
788.1000;0.4900;-3.4044;
788.4000;0.4900;-3.3970;
788.7000;0.4917;-3.3845;
789.0000;0.4917;-3.3820;
789.3000;0.4892;-3.3895;
789.6000;0.4900;-3.3820;
789.9000;0.4892;-3.3845;
790.2000;0.4908;-3.3870;
790.5000;0.4965;-3.3796;
790.8000;0.4908;-3.4019;
791.1000;0.4908;-3.3945;
791.4000;0.4965;-3.3820;
791.7000;0.4900;-3.3970;
792.0000;0.4917;-3.4094;
792.3000;0.4925;-3.4019;
792.6000;0.4908;-3.4044;
792.9000;0.4900;-3.3970;
793.2000;0.4884;-3.4019;
793.5000;0.4900;-3.3895;
793.8000;0.4900;-3.3920;
794.1000;0.4900;-3.3796;
794.4000;0.4908;-3.3845;
794.7000;0.4892;-3.3920;
795.0000;0.4900;-3.3820;
795.3000;0.4917;-3.3771;
795.6000;0.4884;-3.3895;
795.9000;0.4908;-3.3870;
796.2000;0.4900;-3.3945;
796.5000;0.4917;-3.3920;
796.8000;0.4892;-3.3970;
797.1000;0.4957;-3.3820;
797.4000;0.4876;-3.3895;
797.7000;0.4908;-3.3746;
798.0000;0.4876;-3.3771;
798.3000;0.4900;-3.3696;
798.6000;0.4884;-3.3746;
798.9000;0.4900;-3.3696;
799.2000;0.4982;-3.3472;
799.5000;0.4900;-3.3771;
799.8000;0.4900;-3.3845;
800.1000;0.4900;-3.3796;
800.4000;0.4900;-3.3771;
800.7000;0.4908;-3.3796;
801.0000;0.4908;-3.3721;
801.3000;0.4917;-3.3696;
801.6000;0.4908;-3.3721;
801.9000;0.4860;-3.3820;
802.2000;0.4917;-3.3572;
802.5000;0.4827;-3.3746;
802.8000;0.4917;-3.3497;
803.1000;0.4925;-3.3472;
803.4000;0.4876;-3.3646;
803.7000;0.4900;-3.3646;
804.0000;0.4908;-3.3646;
804.3000;0.4917;-3.3671;
804.6000;0.4908;-3.3696;
804.9000;0.4876;-3.3820;
805.2000;0.4892;-3.3820;
805.5000;0.4868;-3.3845;
805.8000;0.4892;-3.3796;
806.1000;0.4892;-3.3771;
806.4000;0.4884;-3.3870;
806.7000;0.4900;-3.3845;
807.0000;0.4900;-3.3895;
807.3000;0.4892;-3.3870;
807.6000;0.4884;-3.3845;
807.9000;0.4900;-3.3820;
808.2000;0.4974;-3.3621;
808.5000;0.4900;-3.3771;
808.8000;0.4892;-3.3796;
809.1000;0.4908;-3.3820;
809.4000;0.4917;-3.3771;
809.7000;0.4884;-3.3920;
810.0000;0.4876;-3.3994;
810.3000;0.4892;-3.4019;
810.6000;0.4892;-3.4069;
810.9000;0.4900;-3.4019;
811.2000;0.4892;-3.4069;
811.5000;0.4892;-3.3970;
811.8000;0.4900;-3.3920;
812.1000;0.4892;-3.3945;
812.4000;0.4900;-3.3920;
812.7000;0.4892;-3.3845;
813.0000;0.4892;-3.3870;
813.3000;0.4868;-3.3970;
813.6000;0.4884;-3.3820;
813.9000;0.4884;-3.3895;
814.2000;0.4900;-3.3945;
814.5000;0.4892;-3.3994;
814.8000;0.4908;-3.3970;
815.1000;0.4892;-3.4044;
815.4000;0.4892;-3.4044;
815.7000;0.4884;-3.4019;
816.0000;0.4908;-3.3945;
816.3000;0.4917;-3.3895;
816.6000;0.4884;-3.3970;
816.9000;0.4884;-3.3994;
817.2000;0.4884;-3.4044;
817.5000;0.4892;-3.4044;
817.8000;0.4892;-3.4019;
818.1000;0.4884;-3.3970;
818.4000;0.4860;-3.4019;
818.7000;0.4884;-3.3970;
819.0000;0.4925;-3.3820;
819.3000;0.4876;-3.3920;
819.6000;0.4892;-3.3945;
819.9000;0.4876;-3.3945;
820.2000;0.4908;-3.3895;
820.5000;0.4900;-3.3845;
820.8000;0.4876;-3.3820;
821.1000;0.4892;-3.3870;
821.4000;0.4917;-3.3870;
821.7000;0.4892;-3.3920;
822.0000;0.4900;-3.3845;
822.3000;0.4860;-3.3945;
822.6000;0.4876;-3.3945;
822.9000;0.4835;-3.4019;
823.2000;0.4860;-3.3920;
823.5000;0.4884;-3.3845;
823.8000;0.4925;-3.3721;
824.1000;0.4957;-3.3771;
824.4000;0.4884;-3.3870;
824.7000;0.4876;-3.3796;
825.0000;0.4884;-3.3771;
825.3000;0.4892;-3.3845;
825.6000;0.4900;-3.3796;
825.9000;0.4908;-3.3796;
826.2000;0.4884;-3.3796;
826.5000;0.4892;-3.3820;
826.8000;0.4892;-3.3820;
827.1000;0.4884;-3.3845;
827.4000;0.4917;-3.3845;
827.7000;0.4917;-3.3820;
828.0000;0.4900;-3.3845;
828.3000;0.4892;-3.3746;
828.6000;0.4892;-3.3796;
828.9000;0.4884;-3.3796;
829.2000;0.4892;-3.3820;
829.5000;0.4892;-3.3945;
829.8000;0.4884;-3.3970;
830.1000;0.4892;-3.3994;
830.4000;0.4892;-3.3920;
830.7000;0.4884;-3.3870;
831.0000;0.4884;-3.3845;
831.3000;0.4884;-3.3820;
831.6000;0.4884;-3.3920;
831.9000;0.4892;-3.3945;
832.2000;0.4884;-3.3895;
832.5000;0.4884;-3.3895;
832.8000;0.4933;-3.3696;
833.1000;0.4884;-3.3796;
833.4000;0.4892;-3.3820;
833.7000;0.4884;-3.3820;
834.0000;0.4876;-3.3870;
834.3000;0.4900;-3.3870;
834.6000;0.4884;-3.3920;
834.9000;0.4892;-3.3870;
835.2000;0.4884;-3.3895;
835.5000;0.4892;-3.3845;
835.8000;0.4884;-3.3870;
836.1000;0.4900;-3.3820;
836.4000;0.4900;-3.3895;
836.7000;0.4892;-3.3870;
837.0000;0.4892;-3.3895;
837.3000;0.4908;-3.3970;
837.6000;0.4900;-3.3994;
837.9000;0.4876;-3.4019;
838.2000;0.4900;-3.3895;
838.5000;0.4876;-3.4019;
838.8000;0.4925;-3.3945;
839.1000;0.4900;-3.4019;
839.4000;0.4917;-3.3920;
839.7000;0.4900;-3.3920;
840.0000;0.4884;-3.3920;
840.3000;0.4884;-3.3870;
840.6000;0.4876;-3.3895;
840.9000;0.4990;-3.3646;
841.2000;0.4892;-3.3945;
841.5000;0.4884;-3.3845;
841.8000;0.4876;-3.3771;
842.1000;0.4900;-3.3746;
842.4000;0.4900;-3.3796;
842.7000;0.4884;-3.3870;
843.0000;0.4803;-3.4193;
843.3000;0.4884;-3.3945;
843.6000;0.4892;-3.3895;
843.9000;0.4908;-3.3845;
844.2000;0.4884;-3.3895;
844.5000;0.4876;-3.4019;
844.8000;0.4892;-3.3970;
845.1000;0.4900;-3.3994;
845.4000;0.4892;-3.4019;
845.7000;0.4892;-3.4044;
846.0000;0.4900;-3.4019;
846.3000;0.4868;-3.3970;
846.6000;0.4884;-3.3970;
846.9000;0.4868;-3.4019;
847.2000;0.4868;-3.3994;
847.5000;0.4900;-3.3920;
847.8000;0.4884;-3.3870;
848.1000;0.4884;-3.3771;
848.4000;0.4884;-3.3771;
848.7000;0.4900;-3.3771;
849.0000;0.4908;-3.3746;
849.3000;0.4925;-3.3796;
849.6000;0.4892;-3.3845;
849.9000;0.4884;-3.3771;
850.2000;0.4892;-3.3845;
850.5000;0.4892;-3.3895;
850.8000;0.4884;-3.3895;
851.1000;0.4884;-3.3746;
851.4000;0.4892;-3.3721;
851.7000;0.4827;-3.3920;
852.0000;0.4884;-3.3796;
852.3000;0.4876;-3.3845;
852.6000;0.4900;-3.3746;
852.9000;0.4957;-3.3621;
853.2000;0.4860;-3.3796;
853.5000;0.4868;-3.3721;
853.8000;0.4884;-3.3671;
854.1000;0.4884;-3.3597;
854.4000;0.4908;-3.3472;
854.7000;0.4851;-3.3572;
855.0000;0.4876;-3.3472;
855.3000;0.4884;-3.3472;
855.6000;0.4803;-3.3796;
855.9000;0.4917;-3.3621;
856.2000;0.4884;-3.3820;
856.5000;0.4892;-3.3796;
856.8000;0.4900;-3.3696;
857.1000;0.4900;-3.3671;
857.4000;0.4900;-3.3696;
857.7000;0.4884;-3.3696;
858.0000;0.4908;-3.3646;
858.3000;0.4860;-3.3820;
858.6000;0.4876;-3.3820;
858.9000;0.4884;-3.3796;
859.2000;0.4827;-3.3945;
859.5000;0.4949;-3.3696;
859.8000;0.4892;-3.3820;
860.1000;0.4819;-3.4094;
860.4000;0.4868;-3.3895;
860.7000;0.4900;-3.3796;
861.0000;0.5006;-3.3497;
861.3000;0.4884;-3.3796;
861.6000;0.4884;-3.3796;
861.9000;0.4835;-3.3870;
862.2000;0.4884;-3.3771;
862.5000;0.4876;-3.3820;
862.8000;0.4876;-3.3796;
863.1000;0.4876;-3.3870;
863.4000;0.4835;-3.4044;
863.7000;0.4892;-3.3845;
864.0000;0.4876;-3.3820;
864.3000;0.4876;-3.3820;
864.6000;0.4892;-3.3845;
864.9000;0.4884;-3.3895;
865.2000;0.4868;-3.3920;
865.5000;0.4868;-3.3920;
865.8000;0.4892;-3.3796;
866.1000;0.4892;-3.3796;
866.4000;0.4892;-3.3771;
866.7000;0.4884;-3.3820;
867.0000;0.4884;-3.3870;
867.3000;0.4892;-3.3870;
867.6000;0.4884;-3.3870;
867.9000;0.4868;-3.3920;
868.2000;0.4876;-3.3970;
868.5000;0.4900;-3.3945;
868.8000;0.4884;-3.3994;
869.1000;0.4721;-3.4417;
869.4000;0.4876;-3.3920;
869.7000;0.4876;-3.3895;
870.0000;0.4876;-3.3895;
870.3000;0.4884;-3.3970;
870.6000;0.4876;-3.3920;
870.9000;0.4876;-3.3920;
871.2000;0.4892;-3.3895;
871.5000;0.4835;-3.3994;
871.8000;0.4884;-3.3796;
872.1000;0.4884;-3.3870;
872.4000;0.4876;-3.3945;
872.7000;0.4900;-3.3895;
873.0000;0.4884;-3.3945;
873.3000;0.4868;-3.3994;
873.6000;0.4900;-3.3994;
873.9000;0.4941;-3.3895;
874.2000;0.4892;-3.4069;
874.5000;0.4917;-3.4019;
874.8000;0.4900;-3.3970;
875.1000;0.4900;-3.3895;
875.4000;0.4933;-3.3920;
875.7000;0.4868;-3.4094;
876.0000;0.4876;-3.4094;
876.3000;0.4933;-3.3945;
876.6000;0.4851;-3.4019;
876.9000;0.4851;-3.4019;
877.2000;0.4827;-3.4019;
877.5000;0.4860;-3.3945;
877.8000;0.4892;-3.3820;
878.1000;0.4884;-3.3796;
878.4000;0.4868;-3.3771;
878.7000;0.4884;-3.3746;
879.0000;0.4860;-3.3845;
879.3000;0.4884;-3.3796;
879.6000;0.4868;-3.3746;
879.9000;0.4892;-3.3696;
880.2000;0.4884;-3.3746;
880.5000;0.4884;-3.3820;
880.8000;0.4876;-3.3845;
881.1000;0.4876;-3.3895;
881.4000;0.4925;-3.3845;
881.7000;0.4843;-3.4094;
882.0000;0.4892;-3.4044;
882.3000;0.4892;-3.4044;
882.6000;0.4868;-3.4044;
882.9000;0.4876;-3.4094;
883.2000;0.4892;-3.4044;
883.5000;0.4884;-3.4044;
883.8000;0.4876;-3.3945;
884.1000;0.4917;-3.3895;
884.4000;0.4884;-3.3920;
884.7000;0.4876;-3.3970;
885.0000;0.4892;-3.3945;
885.3000;0.4884;-3.3945;
885.6000;0.4900;-3.3945;
885.9000;0.4908;-3.3945;
886.2000;0.4892;-3.3970;
886.5000;0.4884;-3.3920;
886.8000;0.4908;-3.3746;
887.1000;0.4876;-3.3870;
887.4000;0.4868;-3.3796;
887.7000;0.4868;-3.3870;
888.0000;0.4917;-3.3771;
888.3000;0.4892;-3.3920;
888.6000;0.4876;-3.3970;
888.9000;0.4868;-3.3994;
889.2000;0.4868;-3.4044;
889.5000;0.4884;-3.3920;
889.8000;0.4892;-3.3895;
890.1000;0.4860;-3.3970;
890.4000;0.4860;-3.3920;
890.7000;0.4884;-3.3895;
891.0000;0.4884;-3.3945;
891.3000;0.4884;-3.3920;
891.6000;0.4876;-3.3920;
891.9000;0.4860;-3.3920;
892.2000;0.4900;-3.3845;
892.5000;0.4957;-3.3746;
892.8000;0.4868;-3.3994;
893.1000;0.4762;-3.4268;
893.4000;0.4900;-3.4044;
893.7000;0.4868;-3.4094;
894.0000;0.4900;-3.4069;
894.3000;0.4884;-3.3994;
894.6000;0.4876;-3.3970;
894.9000;0.4892;-3.3945;
895.2000;0.4876;-3.4019;
895.5000;0.4900;-3.3870;
895.8000;0.4900;-3.3870;
896.1000;0.4900;-3.3895;
896.4000;0.4868;-3.3945;
896.7000;0.4884;-3.3920;
897.0000;0.4884;-3.3920;
897.3000;0.4860;-3.4019;
897.6000;0.4860;-3.3970;
897.9000;0.4884;-3.3870;
898.2000;0.4892;-3.3895;
898.5000;0.4876;-3.3895;
898.8000;0.4851;-3.3895;
899.1000;0.4884;-3.3895;
899.4000;0.4884;-3.3870;
899.7000;0.4900;-3.3820;
900.0000;0.4868;-3.3920;
900.3000;0.4900;-3.3920;
900.6000;0.4908;-3.3870;
900.9000;0.4827;-3.4069;
901.2000;0.4884;-3.3945;
901.5000;0.4884;-3.3970;
901.8000;0.4876;-3.3945;
902.1000;0.4892;-3.3870;
902.4000;0.4876;-3.3845;
902.7000;0.4892;-3.3746;
903.0000;0.4860;-3.3870;
903.3000;0.4868;-3.3820;
903.6000;0.4884;-3.3746;
903.9000;0.4900;-3.3721;
904.2000;0.4900;-3.3796;
904.5000;0.4884;-3.3820;
904.8000;0.4892;-3.3845;
905.1000;0.4900;-3.3920;
905.4000;0.4884;-3.3994;
905.7000;0.4876;-3.4019;
906.0000;0.4892;-3.4019;
906.3000;0.4868;-3.3994;
906.6000;0.4900;-3.3994;
906.9000;0.4884;-3.3945;
907.2000;0.4868;-3.4069;
907.5000;0.4908;-3.3945;
907.8000;0.4884;-3.3970;
908.1000;0.4884;-3.4019;
908.4000;0.4892;-3.4019;
908.7000;0.4925;-3.3945;
909.0000;0.4925;-3.3920;
909.3000;0.4892;-3.3895;
909.6000;0.4892;-3.3920;
909.9000;0.4868;-3.3970;
910.2000;0.4908;-3.3895;
910.5000;0.4860;-3.3970;
910.8000;0.4868;-3.4069;
911.1000;0.4868;-3.4044;
911.4000;0.4860;-3.4094;
911.7000;0.4876;-3.3994;
912.0000;0.4868;-3.3945;
912.3000;0.4868;-3.3970;
912.6000;0.4851;-3.3970;
912.9000;0.4860;-3.3994;
913.2000;0.4876;-3.3994;
913.5000;0.4851;-3.4119;
913.8000;0.4884;-3.4019;
914.1000;0.4884;-3.4044;
914.4000;0.4884;-3.3994;
914.7000;0.4892;-3.3970;
915.0000;0.4933;-3.3970;
915.3000;0.4908;-3.3945;
915.6000;0.4876;-3.3970;
915.9000;0.4908;-3.3895;
916.2000;0.4860;-3.3945;
916.5000;0.4876;-3.3845;
916.8000;0.4884;-3.3820;
917.1000;0.4851;-3.3895;
917.4000;0.4892;-3.3721;
917.7000;0.4811;-3.3945;
918.0000;0.4900;-3.3771;
918.3000;0.4900;-3.3920;
918.6000;0.4892;-3.4019;
918.9000;0.4900;-3.4144;
919.2000;0.4900;-3.4069;
919.5000;0.4884;-3.4119;
919.8000;0.4892;-3.3994;
920.1000;0.4892;-3.3945;
920.4000;0.4892;-3.3920;
920.7000;0.4884;-3.3895;
921.0000;0.4884;-3.3994;
921.3000;0.4900;-3.4044;
921.6000;0.4884;-3.4044;
921.9000;0.4892;-3.4044;
922.2000;0.4868;-3.4094;
922.5000;0.4900;-3.3945;
922.8000;0.4868;-3.4069;
923.1000;0.4868;-3.4094;
923.4000;0.4843;-3.4119;
923.7000;0.4868;-3.4019;
924.0000;0.4868;-3.4019;
924.3000;0.4851;-3.4094;
924.6000;0.4892;-3.3994;
924.9000;0.4884;-3.3994;
925.2000;0.4876;-3.4094;
925.5000;0.4803;-3.4268;
925.8000;0.4868;-3.4144;
926.1000;0.4892;-3.3945;
926.4000;0.4892;-3.3920;
926.7000;0.4868;-3.3994;
927.0000;0.4884;-3.3920;
927.3000;0.4884;-3.3945;
927.6000;0.4868;-3.4019;
927.9000;0.4876;-3.4069;
928.2000;0.4860;-3.4094;
928.5000;0.4900;-3.3970;
928.8000;0.4900;-3.3895;
929.1000;0.4884;-3.3970;
929.4000;0.4868;-3.4069;
929.7000;0.4876;-3.3970;
930.0000;0.4892;-3.3945;
930.3000;0.4884;-3.3945;
930.6000;0.4851;-3.4044;
930.9000;0.4884;-3.3870;
931.2000;0.4819;-3.4019;
931.5000;0.4900;-3.3845;
931.8000;0.4876;-3.3945;
932.1000;0.4908;-3.3870;
932.4000;0.4892;-3.3920;
932.7000;0.4876;-3.3920;
933.0000;0.4860;-3.3970;
933.3000;0.4868;-3.3994;
933.6000;0.4868;-3.3970;
933.9000;0.4851;-3.3970;
934.2000;0.4884;-3.3895;
934.5000;0.4868;-3.3970;
934.8000;0.4900;-3.3845;
935.1000;0.4851;-3.3994;
935.4000;0.4860;-3.3895;
935.7000;0.4868;-3.3895;
936.0000;0.4860;-3.3920;
936.3000;0.4868;-3.3845;
936.6000;0.4876;-3.3870;
936.9000;0.4892;-3.3870;
937.2000;0.4908;-3.3771;
937.5000;0.4876;-3.3845;
937.8000;0.4876;-3.3845;
938.1000;0.4933;-3.3696;
938.4000;0.4892;-3.3820;
938.7000;0.4868;-3.3845;
939.0000;0.4819;-3.3870;
939.3000;0.4884;-3.3771;
939.6000;0.4876;-3.3771;
939.9000;0.4860;-3.3870;
940.2000;0.4843;-3.3895;
940.5000;0.4843;-3.3845;
940.8000;0.4884;-3.3771;
941.1000;0.4876;-3.3796;
941.4000;0.4884;-3.3721;
941.7000;0.4876;-3.3721;
942.0000;0.4892;-3.3746;
942.3000;0.4860;-3.3895;
942.6000;0.4876;-3.3895;
942.9000;0.4892;-3.3845;
943.2000;0.4892;-3.3895;
943.5000;0.4868;-3.3994;
943.8000;0.4884;-3.3920;
944.1000;0.4900;-3.3820;
944.4000;0.4876;-3.3870;
944.7000;0.4900;-3.3771;
945.0000;0.4876;-3.3845;
945.3000;0.4868;-3.3845;
945.6000;0.4819;-3.3994;
945.9000;0.4868;-3.3895;
946.2000;0.4868;-3.3845;
946.5000;0.4868;-3.3920;
946.8000;0.4835;-3.3970;
947.1000;0.4868;-3.3820;
947.4000;0.4876;-3.3870;
947.7000;0.4860;-3.3920;
948.0000;0.4876;-3.3870;
948.3000;0.4908;-3.3746;
948.6000;0.4876;-3.3820;
948.9000;0.4884;-3.3771;
949.2000;0.4860;-3.3721;
949.5000;0.4786;-3.3945;
949.8000;0.4876;-3.3721;
950.1000;0.4868;-3.3671;
950.4000;0.4835;-3.3796;
950.7000;0.4860;-3.3746;
951.0000;0.4876;-3.3820;
951.3000;0.4868;-3.3845;
951.6000;0.4860;-3.3945;
951.9000;0.4868;-3.3920;
952.2000;0.4900;-3.3870;
952.5000;0.4884;-3.3895;
952.8000;0.4851;-3.3970;
953.1000;0.4868;-3.4019;
953.4000;0.4884;-3.4019;
953.7000;0.4884;-3.4044;
954.0000;0.4884;-3.4069;
954.3000;0.4860;-3.4144;
954.6000;0.4884;-3.4044;
954.9000;0.4884;-3.3994;
955.2000;0.4876;-3.4019;
955.5000;0.4957;-3.3895;
955.8000;0.4868;-3.4044;
956.1000;0.4908;-3.3870;
956.4000;0.4876;-3.3945;
956.7000;0.4884;-3.3870;
957.0000;0.4843;-3.4044;
957.3000;0.4900;-3.3994;
957.6000;0.4868;-3.4019;
957.9000;0.4917;-3.3994;
958.2000;0.4860;-3.4119;
958.5000;0.4892;-3.4019;
958.8000;0.4892;-3.3920;
959.1000;0.4933;-3.3771;
959.4000;0.4884;-3.3920;
959.7000;0.4900;-3.3920;
960.0000;0.4876;-3.3994;
960.3000;0.4892;-3.3970;
960.6000;0.4876;-3.3945;
960.9000;0.4860;-3.3945;
961.2000;0.4876;-3.3945;
961.5000;0.4843;-3.3994;
961.8000;0.4876;-3.3945;
962.1000;0.4900;-3.3920;
962.4000;0.4876;-3.4019;
962.7000;0.4868;-3.4069;
963.0000;0.4884;-3.4069;
963.3000;0.4860;-3.4044;
963.6000;0.4843;-3.4069;
963.9000;0.4868;-3.3994;
964.2000;0.4884;-3.3920;
964.5000;0.4876;-3.3945;
964.8000;0.4860;-3.3920;
965.1000;0.4860;-3.3870;
965.4000;0.4860;-3.3820;
965.7000;0.4868;-3.3870;
966.0000;0.4876;-3.3870;
966.3000;0.4884;-3.3845;
966.6000;0.4884;-3.3920;
966.9000;0.4892;-3.3920;
967.2000;0.4876;-3.3994;
967.5000;0.4884;-3.4069;
967.8000;0.4860;-3.4119;
968.1000;0.4876;-3.4044;
968.4000;0.4827;-3.4243;
968.7000;0.4860;-3.4094;
969.0000;0.4876;-3.3895;
969.3000;0.4851;-3.3920;
969.6000;0.4868;-3.3845;
969.9000;0.4868;-3.3820;
970.2000;0.4851;-3.3945;
970.5000;0.4876;-3.3920;
970.8000;0.4884;-3.3895;
971.1000;0.4876;-3.3895;
971.4000;0.4835;-3.4044;
971.7000;0.4811;-3.4119;
972.0000;0.4868;-3.3970;
972.3000;0.4908;-3.3920;
972.6000;0.4876;-3.3970;
972.9000;0.4900;-3.3870;
973.2000;0.4860;-3.3994;
973.5000;0.4860;-3.3845;
973.8000;0.4860;-3.3820;
974.1000;0.4982;-3.3547;
974.4000;0.4770;-3.4094;
974.7000;0.4876;-3.3870;
975.0000;0.4884;-3.3796;
975.3000;0.4860;-3.3870;
975.6000;0.4819;-3.3994;
975.9000;0.4884;-3.3721;
976.2000;0.4900;-3.3746;
976.5000;0.4876;-3.3671;
976.8000;0.4876;-3.3721;
977.1000;0.4868;-3.3696;
977.4000;0.4868;-3.3671;
977.7000;0.4884;-3.3621;
978.0000;0.4868;-3.3646;
978.3000;0.4876;-3.3746;
978.6000;0.4860;-3.3796;
978.9000;0.4868;-3.3845;
979.2000;0.4868;-3.3895;
979.5000;0.4876;-3.3945;
979.8000;0.4876;-3.3970;
980.1000;0.4876;-3.3970;
980.4000;0.4884;-3.3970;
980.7000;0.4876;-3.3994;
981.0000;0.4884;-3.3970;
981.3000;0.4851;-3.4044;
981.6000;0.4868;-3.3945;
981.9000;0.4868;-3.3945;
982.2000;0.4876;-3.3895;
982.5000;0.4892;-3.3820;
982.8000;0.4908;-3.3671;
983.1000;0.4868;-3.3820;
983.4000;0.4900;-3.3746;
983.7000;0.4868;-3.3845;
984.0000;0.4860;-3.3845;
984.3000;0.4884;-3.3721;
984.6000;0.4876;-3.3646;
984.9000;0.4876;-3.3671;
985.2000;0.4884;-3.3746;
985.5000;0.4876;-3.3771;
985.8000;0.4868;-3.3796;
986.1000;0.4900;-3.3771;
986.4000;0.4884;-3.3820;
986.7000;0.4876;-3.3845;
987.0000;0.4868;-3.3945;
987.3000;0.4876;-3.3870;
987.6000;0.4884;-3.3820;
987.9000;0.4892;-3.3696;
988.2000;0.4851;-3.3820;
988.5000;0.4851;-3.3870;
988.8000;0.4876;-3.3796;
989.1000;0.4892;-3.3845;
989.4000;0.4884;-3.3895;
989.7000;0.4884;-3.3845;
990.0000;0.4917;-3.3771;
990.3000;0.4884;-3.3820;
990.6000;0.4860;-3.3820;
990.9000;0.4860;-3.3796;
991.2000;0.4843;-3.3796;
991.5000;0.4876;-3.3721;
991.8000;0.4884;-3.3771;
992.1000;0.4860;-3.3771;
992.4000;0.4892;-3.3721;
992.7000;0.4884;-3.3721;
993.0000;0.4868;-3.3895;
993.3000;0.4892;-3.3845;
993.6000;0.4884;-3.3845;
993.9000;0.4868;-3.3845;
994.2000;0.4868;-3.3746;
994.5000;0.4876;-3.3721;
994.8000;0.4884;-3.3721;
995.1000;0.4884;-3.3796;
995.4000;0.4933;-3.3646;
995.7000;0.4884;-3.3721;
996.0000;0.4892;-3.3721;
996.3000;0.4884;-3.3895;
996.6000;0.4892;-3.3870;
996.9000;0.4982;-3.3646;
997.2000;0.4884;-3.3920;
997.5000;0.4860;-3.3920;
997.8000;0.4811;-3.4069;
998.1000;0.4860;-3.3994;
998.4000;0.4876;-3.3870;
998.7000;0.4884;-3.3746;
999.0000;0.4876;-3.3696;
999.3000;0.4884;-3.3646;
999.6000;0.4868;-3.3597;
999.9000;0.4860;-3.3597;
1000.2000;0.4860;-3.3597;
1000.5000;0.4925;-3.3422;
1000.8000;0.4860;-3.3621;
1001.1000;0.4876;-3.3621;
1001.4000;0.4868;-3.3721;
1001.7000;0.4868;-3.3671;
1002.0000;0.4860;-3.3696;
1002.3000;0.4851;-3.3696;
1002.6000;0.4851;-3.3746;
1002.9000;0.4868;-3.3746;
1003.2000;0.4868;-3.3721;
1003.5000;0.4860;-3.3870;
1003.8000;0.4868;-3.3845;
1004.1000;0.4851;-3.3820;
1004.4000;0.4941;-3.3547;
1004.7000;0.4876;-3.3646;
1005.0000;0.4868;-3.3671;
1005.3000;0.4843;-3.3746;
1005.6000;0.4876;-3.3721;
1005.9000;0.4835;-3.3820;
1006.2000;0.4876;-3.3671;
1006.5000;0.4876;-3.3597;
1006.8000;0.4868;-3.3621;
1007.1000;0.4803;-3.3721;
1007.4000;0.4868;-3.3547;
1007.7000;0.4851;-3.3671;
1008.0000;0.4811;-3.3721;
1008.3000;0.4941;-3.3422;
1008.6000;0.4884;-3.3597;
1008.9000;0.4811;-3.3820;
1009.2000;0.4884;-3.3721;
1009.5000;0.4884;-3.3721;
1009.8000;0.4884;-3.3746;
1010.1000;0.4851;-3.3870;
1010.4000;0.4851;-3.3845;
1010.7000;0.4851;-3.3746;
1011.0000;0.4868;-3.3671;
1011.3000;0.4851;-3.3671;
1011.6000;0.4868;-3.3646;
1011.9000;0.4917;-3.3422;
1012.2000;0.4851;-3.3572;
1012.5000;0.4884;-3.3522;
1012.8000;0.4892;-3.3547;
1013.1000;0.4892;-3.3572;
1013.4000;0.4884;-3.3572;
1013.7000;0.4860;-3.3646;
1014.0000;0.4851;-3.3671;
1014.3000;0.4860;-3.3597;
1014.6000;0.4851;-3.3721;
1014.9000;0.4876;-3.3572;
1015.2000;0.4868;-3.3572;
1015.5000;0.4868;-3.3522;
1015.8000;0.4868;-3.3572;
1016.1000;0.4876;-3.3621;
1016.4000;0.4892;-3.3547;
1016.7000;0.4876;-3.3522;
1017.0000;0.4884;-3.3447;
1017.3000;0.4884;-3.3522;
1017.6000;0.4868;-3.3621;
1017.9000;0.4876;-3.3621;
1018.2000;0.4884;-3.3572;
1018.5000;0.4868;-3.3522;
1018.8000;0.4876;-3.3447;
1019.1000;0.4884;-3.3522;
1019.4000;0.4876;-3.3547;
1019.7000;0.4860;-3.3597;
1020.0000;0.4892;-3.3547;
1020.3000;0.4892;-3.3597;
1020.6000;0.4884;-3.3696;
1020.9000;0.4860;-3.3696;
1021.2000;0.4876;-3.3721;
1021.5000;0.4884;-3.3721;
1021.8000;0.4868;-3.3771;
1022.1000;0.4860;-3.3820;
1022.4000;0.4803;-3.3920;
1022.7000;0.4860;-3.3746;
1023.0000;0.4917;-3.3621;
1023.3000;0.4860;-3.3771;
1023.6000;0.4884;-3.3895;
1023.9000;0.4884;-3.3845;
1024.2000;0.4835;-3.3945;
1024.5000;0.4851;-3.3945;
1024.8000;0.4851;-3.3870;
1025.1000;0.4892;-3.3796;
1025.4000;0.4884;-3.3771;
1025.7000;0.4851;-3.3870;
1026.0000;0.4819;-3.3994;
1026.3000;0.4851;-3.3796;
1026.6000;0.4860;-3.3845;
1026.9000;0.4851;-3.3845;
1027.2000;0.4892;-3.3746;
1027.5000;0.4884;-3.3721;
1027.8000;0.4868;-3.3671;
1028.1000;0.4868;-3.3696;
1028.4000;0.4851;-3.3621;
1028.7000;0.4876;-3.3497;
1029.0000;0.4876;-3.3472;
1029.3000;0.4868;-3.3472;
1029.6000;0.4876;-3.3522;
1029.9000;0.4965;-3.3348;
1030.2000;0.4876;-3.3621;
1030.5000;0.4868;-3.3671;
1030.8000;0.4884;-3.3621;
1031.1000;0.4860;-3.3696;
1031.4000;0.4876;-3.3746;
1031.7000;0.4876;-3.3771;
1032.0000;0.4941;-3.3646;
1032.3000;0.4876;-3.3796;
1032.6000;0.4884;-3.3771;
1032.9000;0.4900;-3.3771;
1033.2000;0.4868;-3.3870;
1033.5000;0.4908;-3.3771;
1033.8000;0.4860;-3.3845;
1034.1000;0.4851;-3.3895;
1034.4000;0.4876;-3.3870;
1034.7000;0.4876;-3.3845;
1035.0000;0.4876;-3.3820;
1035.3000;0.4868;-3.3845;
1035.6000;0.4876;-3.3771;
1035.9000;0.4851;-3.3796;
1036.2000;0.4933;-3.3572;
1036.5000;0.4876;-3.3721;
1036.8000;0.4876;-3.3746;
1037.1000;0.4892;-3.3721;
1037.4000;0.4868;-3.3845;
1037.7000;0.4868;-3.3820;
1038.0000;0.4794;-3.3994;
1038.3000;0.4868;-3.3746;
1038.6000;0.4860;-3.3820;
1038.9000;0.4851;-3.3746;
1039.2000;0.4851;-3.3721;
1039.5000;0.4868;-3.3597;
1039.8000;0.4868;-3.3522;
1040.1000;0.4884;-3.3497;
1040.4000;0.4884;-3.3572;
1040.7000;0.4876;-3.3646;
1041.0000;0.4876;-3.3696;
1041.3000;0.4876;-3.3671;
1041.6000;0.4876;-3.3671;
1041.9000;0.4876;-3.3671;
1042.2000;0.4876;-3.3696;
1042.5000;0.4868;-3.3721;
1042.8000;0.4884;-3.3721;
1043.1000;0.4876;-3.3796;
1043.4000;0.4860;-3.3796;
1043.7000;0.4884;-3.3721;
1044.0000;0.4884;-3.3621;
1044.3000;0.4868;-3.3572;
1044.6000;0.4851;-3.3671;
1044.9000;0.4851;-3.3721;
1045.2000;0.4884;-3.3696;
1045.5000;0.4860;-3.3696;
1045.8000;0.4843;-3.3621;
1046.1000;0.4860;-3.3621;
1046.4000;0.4835;-3.3696;
1046.7000;0.4868;-3.3646;
1047.0000;0.4860;-3.3597;
1047.3000;0.4860;-3.3597;
1047.6000;0.4876;-3.3572;
1047.9000;0.4868;-3.3621;
1048.2000;0.4868;-3.3646;
1048.5000;0.4868;-3.3721;
1048.8000;0.4876;-3.3746;
1049.1000;0.4786;-3.3970;
1049.4000;0.4884;-3.3746;
1049.7000;0.4860;-3.3845;
1050.0000;0.4876;-3.3796;
1050.3000;0.4868;-3.3746;
1050.6000;0.4860;-3.3671;
1050.9000;0.4851;-3.3746;
1051.2000;0.4860;-3.3721;
1051.5000;0.4876;-3.3746;
1051.8000;0.4900;-3.3721;
1052.1000;0.4843;-3.3895;
1052.4000;0.4860;-3.3845;
1052.7000;0.4876;-3.3796;
1053.0000;0.4884;-3.3820;
1053.3000;0.4900;-3.3820;
1053.6000;0.4925;-3.3796;
1053.9000;0.4900;-3.3845;
1054.2000;0.4876;-3.3796;
1054.5000;0.4892;-3.3796;
1054.8000;0.4803;-3.3970;
1055.1000;0.4876;-3.3771;
1055.4000;0.4860;-3.3796;
1055.7000;0.4868;-3.3994;
1056.0000;0.4860;-3.4044;
1056.3000;0.4876;-3.4069;
1056.6000;0.4925;-3.3845;
1056.9000;0.4892;-3.3796;
1057.2000;0.4884;-3.3721;
1057.5000;0.4860;-3.3771;
1057.8000;0.4876;-3.3796;
1058.1000;0.4892;-3.3696;
1058.4000;0.4884;-3.3746;
1058.7000;0.4868;-3.3671;
1059.0000;0.4900;-3.3621;
1059.3000;0.4892;-3.3721;
1059.6000;0.4892;-3.3771;
1059.9000;0.4876;-3.3820;
1060.2000;0.4884;-3.3796;
1060.5000;0.4876;-3.3870;
1060.8000;0.4860;-3.3920;
1061.1000;0.4884;-3.3870;
1061.4000;0.4876;-3.3994;
1061.7000;0.4851;-3.3994;
1062.0000;0.4868;-3.3945;
1062.3000;0.4884;-3.3845;
1062.6000;0.4876;-3.3845;
1062.9000;0.4868;-3.3870;
1063.2000;0.4892;-3.3820;
1063.5000;0.4892;-3.3796;
1063.8000;0.4876;-3.3796;
1064.1000;0.4868;-3.3746;
1064.4000;0.4957;-3.3472;
1064.7000;0.4949;-3.3398;
1065.0000;0.4876;-3.3721;
1065.3000;0.4868;-3.3696;
1065.6000;0.4876;-3.3721;
1065.9000;0.4884;-3.3746;
1066.2000;0.4876;-3.3796;
1066.5000;0.4860;-3.3820;
1066.8000;0.4868;-3.3771;
1067.1000;0.4860;-3.3696;
1067.4000;0.4851;-3.3696;
1067.7000;0.4843;-3.3696;
1068.0000;0.4868;-3.3572;
1068.3000;0.4860;-3.3621;
1068.6000;0.4876;-3.3646;
1068.9000;0.4876;-3.3646;
1069.2000;0.4884;-3.3621;
1069.5000;0.4868;-3.3621;
1069.8000;0.4860;-3.3621;
1070.1000;0.4884;-3.3522;
1070.4000;0.4925;-3.3373;
1070.7000;0.4860;-3.3572;
1071.0000;0.4860;-3.3547;
1071.3000;0.4884;-3.3597;
1071.6000;0.4876;-3.3646;
1071.9000;0.4860;-3.3646;
1072.2000;0.4892;-3.3547;
1072.5000;0.4884;-3.3572;
1072.8000;0.4876;-3.3572;
1073.1000;0.4819;-3.3746;
1073.4000;0.4860;-3.3696;
1073.7000;0.4860;-3.3746;
1074.0000;0.4925;-3.3572;
1074.3000;0.4860;-3.3796;
1074.6000;0.4851;-3.3845;
1074.9000;0.4868;-3.3771;
1075.2000;0.4884;-3.3696;
1075.5000;0.4868;-3.3696;
1075.8000;0.4851;-3.3746;
1076.1000;0.4860;-3.3696;
1076.4000;0.4884;-3.3671;
1076.7000;0.4892;-3.3597;
1077.0000;0.4884;-3.3597;
1077.3000;0.4876;-3.3671;
1077.6000;0.4876;-3.3746;
1077.9000;0.4868;-3.3646;
1078.2000;0.4876;-3.3621;
1078.5000;0.4868;-3.3696;
1078.8000;0.4876;-3.3721;
1079.1000;0.4908;-3.3696;
1079.4000;0.4860;-3.3796;
1079.7000;0.4851;-3.3820;
1080.0000;0.4957;-3.3522;
1080.3000;0.4876;-3.3820;
1080.6000;0.4876;-3.3895;
1080.9000;0.4868;-3.3895;
1081.2000;0.4884;-3.3895;
1081.5000;0.4892;-3.3845;
1081.8000;0.4860;-3.3970;
1082.1000;0.4900;-3.3845;
1082.4000;0.4860;-3.3870;
1082.7000;0.4884;-3.3721;
1083.0000;0.4892;-3.3621;
1083.3000;0.4860;-3.3572;
1083.6000;0.4876;-3.3597;
1083.9000;0.4884;-3.3646;
1084.2000;0.4892;-3.3721;
1084.5000;0.4884;-3.3721;
1084.8000;0.4868;-3.3771;
1085.1000;0.4868;-3.3721;
1085.4000;0.4876;-3.3671;
1085.7000;0.4811;-3.3796;
1086.0000;0.4860;-3.3671;
1086.3000;0.4851;-3.3696;
1086.6000;0.4892;-3.3696;
1086.9000;0.4868;-3.3721;
1087.2000;0.4949;-3.3522;
1087.5000;0.4876;-3.3721;
1087.8000;0.4900;-3.3696;
1088.1000;0.4876;-3.3796;
1088.4000;0.4884;-3.3845;
1088.7000;0.4835;-3.3994;
1089.0000;0.4868;-3.3920;
1089.3000;0.4827;-3.3945;
1089.6000;0.4876;-3.3746;
1089.9000;0.4876;-3.3771;
1090.2000;0.4868;-3.3771;
1090.5000;0.4933;-3.3621;
1090.8000;0.4884;-3.3895;
1091.1000;0.4860;-3.3870;
1091.4000;0.4876;-3.3845;
1091.7000;0.4860;-3.3845;
1092.0000;0.4876;-3.3870;
1092.3000;0.4884;-3.3820;
1092.6000;0.4860;-3.3845;
1092.9000;0.4876;-3.3820;
1093.2000;0.4860;-3.3796;
1093.5000;0.4868;-3.3870;
1093.8000;0.4868;-3.3895;
1094.1000;0.4892;-3.3895;
1094.4000;0.4957;-3.3671;
1094.7000;0.4786;-3.4094;
1095.0000;0.4892;-3.3845;
1095.3000;0.4884;-3.3895;
1095.6000;0.4851;-3.4019;
1095.9000;0.4884;-3.3895;
1096.2000;0.4876;-3.3920;
1096.5000;0.4860;-3.3945;
1096.8000;0.4868;-3.3970;
1097.1000;0.4860;-3.3895;
1097.4000;0.4933;-3.3696;
1097.7000;0.4868;-3.3796;
1098.0000;0.4851;-3.3895;
1098.3000;0.4868;-3.3721;
1098.6000;0.4876;-3.3771;
1098.9000;0.4868;-3.3721;
1099.2000;0.4868;-3.3721;
1099.5000;0.4860;-3.3572;
1099.8000;0.4827;-3.3572;
1100.1000;0.4884;-3.3447;
1100.4000;0.4884;-3.3472;
1100.7000;0.4860;-3.3522;
1101.0000;0.4827;-3.3721;
1101.3000;0.4884;-3.3646;
1101.6000;0.4868;-3.3796;
1101.9000;0.4868;-3.3796;
1102.2000;0.4835;-3.3820;
1102.5000;0.4851;-3.3671;
1102.8000;0.4900;-3.3572;
1103.1000;0.4811;-3.3721;
1103.4000;0.4933;-3.3422;
1103.7000;0.4868;-3.3646;
1104.0000;0.4876;-3.3646;
1104.3000;0.4868;-3.3597;
1104.6000;0.4876;-3.3696;
1104.9000;0.4868;-3.3721;
1105.2000;0.4884;-3.3746;
1105.5000;0.4925;-3.3671;
1105.8000;0.4868;-3.3845;
1106.1000;0.4843;-3.3895;
1106.4000;0.4884;-3.3845;
1106.7000;0.4876;-3.3870;
1107.0000;0.4884;-3.3945;
1107.3000;0.4884;-3.3920;
1107.6000;0.4868;-3.3895;
1107.9000;0.4884;-3.3845;
1108.2000;0.4884;-3.3746;
1108.5000;0.4884;-3.3746;
1108.8000;0.4884;-3.3746;
1109.1000;0.4860;-3.3771;
1109.4000;0.4843;-3.3820;
1109.7000;0.4860;-3.3721;
1110.0000;0.4925;-3.3522;
1110.3000;0.4884;-3.3621;
1110.6000;0.4868;-3.3696;
1110.9000;0.4819;-3.3845;
1111.2000;0.4860;-3.3721;
1111.5000;0.4876;-3.3746;
1111.8000;0.4908;-3.3721;
1112.1000;0.4884;-3.3870;
1112.4000;0.4876;-3.3820;
1112.7000;0.4868;-3.3771;
1113.0000;0.4876;-3.3771;
1113.3000;0.4900;-3.3696;
1113.6000;0.4868;-3.3721;
1113.9000;0.4851;-3.3671;
1114.2000;0.4884;-3.3572;
1114.5000;0.4843;-3.3646;
1114.8000;0.4851;-3.3597;
1115.1000;0.4851;-3.3671;
1115.4000;0.4892;-3.3572;
1115.7000;0.4892;-3.3547;
1116.0000;0.4851;-3.3621;
1116.3000;0.4868;-3.3597;
1116.6000;0.4835;-3.3671;
1116.9000;0.4868;-3.3597;
1117.2000;0.4868;-3.3522;
1117.5000;0.4892;-3.3472;
1117.8000;0.4868;-3.3646;
1118.1000;0.4868;-3.3597;
1118.4000;0.4860;-3.3572;
1118.7000;0.4868;-3.3522;
1119.0000;0.4819;-3.3721;
1119.3000;0.4860;-3.3597;
1119.6000;0.4868;-3.3472;
1119.9000;0.4868;-3.3398;
1120.2000;0.4860;-3.3497;
1120.5000;0.4933;-3.3323;
1120.8000;0.4876;-3.3621;
1121.1000;0.4835;-3.3771;
1121.4000;0.4884;-3.3746;
1121.7000;0.4851;-3.3820;
1122.0000;0.4860;-3.3796;
1122.3000;0.4876;-3.3696;
1122.6000;0.4868;-3.3671;
1122.9000;0.4868;-3.3671;
1123.2000;0.4884;-3.3572;
1123.5000;0.4900;-3.3522;
1123.8000;0.4941;-3.3348;
1124.1000;0.4876;-3.3646;
1124.4000;0.4860;-3.3771;
1124.7000;0.4868;-3.3671;
1125.0000;0.4770;-3.3820;
1125.3000;0.4917;-3.3497;
1125.6000;0.4860;-3.3621;
1125.9000;0.4884;-3.3572;
1126.2000;0.4868;-3.3572;
1126.5000;0.4811;-3.3920;
1126.8000;0.4884;-3.3796;
1127.1000;0.4908;-3.3771;
1127.4000;0.4868;-3.3820;
1127.7000;0.4884;-3.3796;
1128.0000;0.4835;-3.3870;
1128.3000;0.4868;-3.3746;
1128.6000;0.4876;-3.3746;
1128.9000;0.4851;-3.3820;
1129.2000;0.4860;-3.3746;
1129.5000;0.4835;-3.3820;
1129.8000;0.4860;-3.3771;
1130.1000;0.4876;-3.3845;
1130.4000;0.4876;-3.3721;
1130.7000;0.4860;-3.3771;
1131.0000;0.4876;-3.3721;
1131.3000;0.4884;-3.3746;
1131.6000;0.4835;-3.3820;
1131.9000;0.4876;-3.3671;
1132.2000;0.4868;-3.3721;
1132.5000;0.4860;-3.3746;
1132.8000;0.4900;-3.3671;
1133.1000;0.4868;-3.3771;
1133.4000;0.4884;-3.3721;
1133.7000;0.4876;-3.3597;
1134.0000;0.4843;-3.3646;
1134.3000;0.4868;-3.3671;
1134.6000;0.4876;-3.3721;
1134.9000;0.4843;-3.3845;
1135.2000;0.4892;-3.3646;
1135.5000;0.4884;-3.3646;
1135.8000;0.4876;-3.3671;
1136.1000;0.4876;-3.3696;
1136.4000;0.4876;-3.3696;
1136.7000;0.4876;-3.3671;
1137.0000;0.4868;-3.3746;
1137.3000;0.4868;-3.3771;
1137.6000;0.4868;-3.3870;
1137.9000;0.4860;-3.3895;
1138.2000;0.4868;-3.3870;
1138.5000;0.4884;-3.3796;
1138.8000;0.4778;-3.3994;
1139.1000;0.4900;-3.3771;
1139.4000;0.4876;-3.3870;
1139.7000;0.4884;-3.3870;
1140.0000;0.4868;-3.3970;
1140.3000;0.4892;-3.3870;
1140.6000;0.4892;-3.3945;
1140.9000;0.4884;-3.3994;
1141.2000;0.4900;-3.3870;
1141.5000;0.4868;-3.3920;
1141.8000;0.4868;-3.3970;
1142.1000;0.4892;-3.3746;
1142.4000;0.4860;-3.3646;
1142.7000;0.4778;-3.3870;
1143.0000;0.4884;-3.3621;
1143.3000;0.4860;-3.3547;
1143.6000;0.4860;-3.3671;
1143.9000;0.4868;-3.3721;
1144.2000;0.4811;-3.3845;
1144.5000;0.4860;-3.3671;
1144.8000;0.4843;-3.3646;
1145.1000;0.4860;-3.3621;
1145.4000;0.4876;-3.3646;
1145.7000;0.4957;-3.3422;
1146.0000;0.4884;-3.3621;
1146.3000;0.4868;-3.3621;
1146.6000;0.4892;-3.3646;
1146.9000;0.4957;-3.3472;
1147.2000;0.4868;-3.3572;
1147.5000;0.4860;-3.3646;
1147.8000;0.4876;-3.3621;
1148.1000;0.4851;-3.3671;
1148.4000;0.4892;-3.3621;
1148.7000;0.4892;-3.3646;
1149.0000;0.4868;-3.3771;
1149.3000;0.4917;-3.3597;
1149.6000;0.4876;-3.3646;
1149.9000;0.4868;-3.3671;
1150.2000;0.4933;-3.3472;
1150.5000;0.4868;-3.3572;
1150.8000;0.4843;-3.3646;
1151.1000;0.4860;-3.3472;
1151.4000;0.4860;-3.3447;
1151.7000;0.4803;-3.3671;
1152.0000;0.4868;-3.3522;
1152.3000;0.4835;-3.3597;
1152.6000;0.4868;-3.3646;
1152.9000;0.4868;-3.3721;
1153.2000;0.4868;-3.3646;
1153.5000;0.4876;-3.3671;
1153.8000;0.4884;-3.3671;
1154.1000;0.4908;-3.3696;
1154.4000;0.4868;-3.3721;
1154.7000;0.4868;-3.3746;
1155.0000;0.4860;-3.3746;
1155.3000;0.4860;-3.3721;
1155.6000;0.4868;-3.3796;
1155.9000;0.4860;-3.3771;
1156.2000;0.4868;-3.3771;
1156.5000;0.4868;-3.3845;
1156.8000;0.4868;-3.3820;
1157.1000;0.4860;-3.3820;
1157.4000;0.4876;-3.3771;
1157.7000;0.4876;-3.3820;
1158.0000;0.4860;-3.3771;
1158.3000;0.4868;-3.3721;
1158.6000;0.4868;-3.3696;
1158.9000;0.4827;-3.3945;
1159.2000;0.4860;-3.3820;
1159.5000;0.4860;-3.3845;
1159.8000;0.4868;-3.3820;
1160.1000;0.4843;-3.3845;
1160.4000;0.4860;-3.3746;
1160.7000;0.4860;-3.3696;
1161.0000;0.4860;-3.3721;
1161.3000;0.4876;-3.3597;
1161.6000;0.4876;-3.3572;
1161.9000;0.4876;-3.3621;
1162.2000;0.4884;-3.3646;
1162.5000;0.4876;-3.3597;
1162.8000;0.4868;-3.3646;
1163.1000;0.4851;-3.3796;
1163.4000;0.4860;-3.3746;
1163.7000;0.4876;-3.3746;
1164.0000;0.4851;-3.3796;
1164.3000;0.4868;-3.3696;
1164.6000;0.4843;-3.3696;
1164.9000;0.4868;-3.3597;
1165.2000;0.4835;-3.3696;
1165.5000;0.4868;-3.3646;
1165.8000;0.4851;-3.3721;
1166.1000;0.4843;-3.3646;
1166.4000;0.4868;-3.3547;
1166.7000;0.4851;-3.3646;
1167.0000;0.4908;-3.3646;
1167.3000;0.4868;-3.3721;
1167.6000;0.4868;-3.3845;
1167.9000;0.4876;-3.3845;
1168.2000;0.4868;-3.3845;
1168.5000;0.4860;-3.3796;
1168.8000;0.4860;-3.3746;
1169.1000;0.4876;-3.3746;
1169.4000;0.4892;-3.3671;
1169.7000;0.4876;-3.3746;
1170.0000;0.4876;-3.3721;
1170.3000;0.4892;-3.3621;
1170.6000;0.4876;-3.3671;
1170.9000;0.4860;-3.3696;
1171.2000;0.4868;-3.3671;
1171.5000;0.4868;-3.3796;
1171.8000;0.4933;-3.3746;
1172.1000;0.4876;-3.3820;
1172.4000;0.4860;-3.3771;
1172.7000;0.4860;-3.3771;
1173.0000;0.4876;-3.3721;
1173.3000;0.4860;-3.3696;
1173.6000;0.4868;-3.3721;
1173.9000;0.4860;-3.3721;
1174.2000;0.4868;-3.3646;
1174.5000;0.4876;-3.3671;
1174.8000;0.4884;-3.3646;
1175.1000;0.4892;-3.3597;
1175.4000;0.4851;-3.3671;
1175.7000;0.4892;-3.3547;
1176.0000;0.4884;-3.3621;
1176.3000;0.4835;-3.3796;
1176.6000;0.4876;-3.3746;
1176.9000;0.4876;-3.3646;
1177.2000;0.4868;-3.3696;
1177.5000;0.4860;-3.3845;
1177.8000;0.4868;-3.3845;
1178.1000;0.4860;-3.3895;
1178.4000;0.4860;-3.3746;
1178.7000;0.4860;-3.3820;
1179.0000;0.4884;-3.3870;
1179.3000;0.4868;-3.3920;
1179.6000;0.4884;-3.3870;
1179.9000;0.4884;-3.3845;
1180.2000;0.4851;-3.3945;
1180.5000;0.4868;-3.3895;
1180.8000;0.4876;-3.3845;
1181.1000;0.4884;-3.3870;
1181.4000;0.4876;-3.3945;
1181.7000;0.4876;-3.3895;
1182.0000;0.4884;-3.3820;
1182.3000;0.4827;-3.3920;
1182.6000;0.4884;-3.3746;
1182.9000;0.4860;-3.3870;
1183.2000;0.4868;-3.3845;
1183.5000;0.4892;-3.3746;
1183.8000;0.4908;-3.3621;
1184.1000;0.4868;-3.3646;
1184.4000;0.4884;-3.3621;
1184.7000;0.4851;-3.3646;
1185.0000;0.4868;-3.3621;
1185.3000;0.4868;-3.3696;
1185.6000;0.4860;-3.3671;
1185.9000;0.4868;-3.3721;
1186.2000;0.4860;-3.3796;
1186.5000;0.4876;-3.3696;
1186.8000;0.4884;-3.3696;
1187.1000;0.4876;-3.3746;
1187.4000;0.4868;-3.3646;
1187.7000;0.4860;-3.3746;
1188.0000;0.4876;-3.3771;
1188.3000;0.4860;-3.3746;
1188.6000;0.4860;-3.3796;
1188.9000;0.4876;-3.3746;
1189.2000;0.4900;-3.3572;
1189.5000;0.4868;-3.3746;
1189.8000;0.4868;-3.3746;
1190.1000;0.4868;-3.3771;
1190.4000;0.4868;-3.3746;
1190.7000;0.4868;-3.3796;
1191.0000;0.4860;-3.3721;
1191.3000;0.4868;-3.3721;
1191.6000;0.4868;-3.3696;
1191.9000;0.4876;-3.3621;
1192.2000;0.4884;-3.3597;
1192.5000;0.4884;-3.3621;
1192.8000;0.4876;-3.3696;
1193.1000;0.4892;-3.3646;
1193.4000;0.4860;-3.3646;
1193.7000;0.4892;-3.3572;
1194.0000;0.4884;-3.3497;
1194.3000;0.4884;-3.3522;
1194.6000;0.4876;-3.3621;
1194.9000;0.4860;-3.3721;
1195.2000;0.4860;-3.3721;
1195.5000;0.4941;-3.3572;
1195.8000;0.4860;-3.3746;
1196.1000;0.4900;-3.3646;
1196.4000;0.4868;-3.3696;
1196.7000;0.4843;-3.3895;
1197.0000;0.4811;-3.3994;
1197.3000;0.4843;-3.3796;
1197.6000;0.4868;-3.3771;
1197.9000;0.4868;-3.3796;
1198.2000;0.4876;-3.3820;
1198.5000;0.4868;-3.3771;
1198.8000;0.4843;-3.3845;
1199.1000;0.4876;-3.3870;
1199.4000;0.4860;-3.3870;
1199.7000;0.4860;-3.3746;
1200.0000;0.4884;-3.3721;
1200.3000;0.4860;-3.3870;
1200.6000;0.4819;-3.3845;
1200.9000;0.4876;-3.3696;
1201.2000;0.4843;-3.3746;
1201.5000;0.4860;-3.3771;
1201.8000;0.4876;-3.3820;
1202.1000;0.4868;-3.3771;
1202.4000;0.4876;-3.3721;
1202.7000;0.4843;-3.3746;
1203.0000;0.4876;-3.3746;
1203.3000;0.4876;-3.3746;
1203.6000;0.4851;-3.3746;
1203.9000;0.4876;-3.3746;
1204.2000;0.4851;-3.3746;
1204.5000;0.4892;-3.3646;
1204.8000;0.4860;-3.3696;
1205.1000;0.4876;-3.3721;
1205.4000;0.4917;-3.3671;
1205.7000;0.4900;-3.3671;
1206.0000;0.4884;-3.3771;
1206.3000;0.4868;-3.3771;
1206.6000;0.4868;-3.3746;
1206.9000;0.4876;-3.3746;
1207.2000;0.4868;-3.3746;
1207.5000;0.4884;-3.3696;
1207.8000;0.4884;-3.3721;
1208.1000;0.4868;-3.3771;
1208.4000;0.4851;-3.3845;
1208.7000;0.4811;-3.3970;
1209.0000;0.4860;-3.3721;
1209.3000;0.4876;-3.3646;
1209.6000;0.4868;-3.3621;
1209.9000;0.4860;-3.3597;
1210.2000;0.4876;-3.3597;
1210.5000;0.4884;-3.3572;
1210.8000;0.4868;-3.3671;
1211.1000;0.4876;-3.3671;
1211.4000;0.4925;-3.3472;
1211.7000;0.4860;-3.3572;
1212.0000;0.4876;-3.3497;
1212.3000;0.4851;-3.3547;
1212.6000;0.4876;-3.3398;
1212.9000;0.4851;-3.3422;
1213.2000;0.4876;-3.3447;
1213.5000;0.4851;-3.3522;
1213.8000;0.4868;-3.3497;
1214.1000;0.4851;-3.3547;
1214.4000;0.4835;-3.3597;
1214.7000;0.4851;-3.3497;
1215.0000;0.4884;-3.3472;
1215.3000;0.4884;-3.3497;
1215.6000;0.4860;-3.3522;
1215.9000;0.4868;-3.3547;
1216.2000;0.4884;-3.3497;
1216.5000;0.4900;-3.3323;
1216.8000;0.4876;-3.3298;
1217.1000;0.4876;-3.3323;
1217.4000;0.4868;-3.3447;
1217.7000;0.4876;-3.3323;
1218.0000;0.4843;-3.3373;
1218.3000;0.4876;-3.3373;
1218.6000;0.4892;-3.3373;
1218.9000;0.4835;-3.3547;
1219.2000;0.4868;-3.3447;
1219.5000;0.4925;-3.3224;
1219.8000;0.4794;-3.3522;
1220.1000;0.4811;-3.3547;
1220.4000;0.4884;-3.3447;
1220.7000;0.4851;-3.3447;
1221.0000;0.4835;-3.3597;
1221.3000;0.4908;-3.3447;
1221.6000;0.4892;-3.3522;
1221.9000;0.4884;-3.3497;
1222.2000;0.4843;-3.3597;
1222.5000;0.4868;-3.3522;
1222.8000;0.4884;-3.3447;
1223.1000;0.4860;-3.3547;
1223.4000;0.4892;-3.3522;
1223.7000;0.4884;-3.3522;
1224.0000;0.4851;-3.3597;
1224.3000;0.4860;-3.3597;
1224.6000;0.4851;-3.3646;
1224.9000;0.4851;-3.3696;
1225.2000;0.4876;-3.3721;
1225.5000;0.4908;-3.3522;
1225.8000;0.4843;-3.3671;
1226.1000;0.4860;-3.3721;
1226.4000;0.4860;-3.3771;
1226.7000;0.4868;-3.3671;
1227.0000;0.4884;-3.3621;
1227.3000;0.4860;-3.3597;
1227.6000;0.4851;-3.3572;
1227.9000;0.4876;-3.3447;
1228.2000;0.4884;-3.3472;
1228.5000;0.4884;-3.3447;
1228.8000;0.4876;-3.3497;
1229.1000;0.4868;-3.3497;
1229.4000;0.4868;-3.3597;
1229.7000;0.4892;-3.3547;
1230.0000;0.4884;-3.3572;
1230.3000;0.4884;-3.3621;
1230.6000;0.4876;-3.3522;
1230.9000;0.4868;-3.3447;
1231.2000;0.4876;-3.3422;
1231.5000;0.4835;-3.3472;
1231.8000;0.4884;-3.3447;
1232.1000;0.4860;-3.3522;
1232.4000;0.4876;-3.3422;
1232.7000;0.4827;-3.3597;
1233.0000;0.4900;-3.3422;
1233.3000;0.4868;-3.3547;
1233.6000;0.4876;-3.3547;
1233.9000;0.4876;-3.3597;
1234.2000;0.4884;-3.3646;
1234.5000;0.4917;-3.3572;
1234.8000;0.4868;-3.3621;
1235.1000;0.4860;-3.3696;
1235.4000;0.4876;-3.3646;
1235.7000;0.4876;-3.3547;
1236.0000;0.4876;-3.3522;
1236.3000;0.4900;-3.3497;
1236.6000;0.4860;-3.3646;
1236.9000;0.4892;-3.3721;
1237.2000;0.4876;-3.3721;
1237.5000;0.4884;-3.3870;
1237.8000;0.4868;-3.3820;
1238.1000;0.4851;-3.3746;
1238.4000;0.4925;-3.3572;
1238.7000;0.4876;-3.3746;
1239.0000;0.4884;-3.3820;
1239.3000;0.4876;-3.3845;
1239.6000;0.4876;-3.3721;
1239.9000;0.4860;-3.3820;
1240.2000;0.4884;-3.3671;
1240.5000;0.4876;-3.3721;
1240.8000;0.4868;-3.3721;
1241.1000;0.4876;-3.3746;
1241.4000;0.4868;-3.3845;
1241.7000;0.4868;-3.3696;
1242.0000;0.4860;-3.3671;
1242.3000;0.4835;-3.3746;
1242.6000;0.4868;-3.3771;
1242.9000;0.4868;-3.3796;
1243.2000;0.4876;-3.3696;
1243.5000;0.4884;-3.3771;
1243.8000;0.4835;-3.3845;
1244.1000;0.4892;-3.3796;
1244.4000;0.4868;-3.3746;
1244.7000;0.4860;-3.3721;
1245.0000;0.4900;-3.3597;
1245.3000;0.4868;-3.3621;
1245.6000;0.4868;-3.3646;
1245.9000;0.4892;-3.3671;
1246.2000;0.4860;-3.3696;
1246.5000;0.4794;-3.3920;
1246.8000;0.4860;-3.3820;
1247.1000;0.4786;-3.3970;
1247.4000;0.4860;-3.3721;
1247.7000;0.4876;-3.3646;
1248.0000;0.4868;-3.3721;
1248.3000;0.4803;-3.3870;
1248.6000;0.4868;-3.3696;
1248.9000;0.4876;-3.3646;
1249.2000;0.4860;-3.3696;
1249.5000;0.4876;-3.3597;
1249.8000;0.4868;-3.3597;
1250.1000;0.4876;-3.3696;
1250.4000;0.4868;-3.3721;
1250.7000;0.4868;-3.3621;
1251.0000;0.4851;-3.3746;
1251.3000;0.4884;-3.3646;
1251.6000;0.4917;-3.3572;
1251.9000;0.4868;-3.3671;
1252.2000;0.4851;-3.3621;
1252.5000;0.4876;-3.3572;
1252.8000;0.4876;-3.3671;
1253.1000;0.4860;-3.3671;
1253.4000;0.4860;-3.3646;
1253.7000;0.4843;-3.3621;
1254.0000;0.4860;-3.3621;
1254.3000;0.4868;-3.3572;
1254.6000;0.4868;-3.3597;
1254.9000;0.4778;-3.3820;
1255.2000;0.4860;-3.3597;
1255.5000;0.4860;-3.3721;
1255.8000;0.4876;-3.3696;
1256.1000;0.4851;-3.3796;
1256.4000;0.4868;-3.3845;
1256.7000;0.4851;-3.3920;
1257.0000;0.4860;-3.3870;
1257.3000;0.4868;-3.3870;
1257.6000;0.4868;-3.3870;
1257.9000;0.4851;-3.3870;
1258.2000;0.4860;-3.3870;
1258.5000;0.4860;-3.3771;
1258.8000;0.4843;-3.3771;
1259.1000;0.4835;-3.3746;
1259.4000;0.4868;-3.3646;
1259.7000;0.4843;-3.3771;
1260.0000;0.4860;-3.3696;
1260.3000;0.4925;-3.3646;
1260.6000;0.4843;-3.3696;
1260.9000;0.4876;-3.3597;
1261.2000;0.4794;-3.3646;
1261.5000;0.4876;-3.3522;
1261.8000;0.4876;-3.3497;
1262.1000;0.4876;-3.3597;
1262.4000;0.4835;-3.3671;
1262.7000;0.4868;-3.3547;
1263.0000;0.4941;-3.3447;
1263.3000;0.4892;-3.3621;
1263.6000;0.4868;-3.3547;
1263.9000;0.4851;-3.3621;
1264.2000;0.4851;-3.3597;
1264.5000;0.4876;-3.3621;
1264.8000;0.4876;-3.3646;
1265.1000;0.4900;-3.3547;
1265.4000;0.4843;-3.3771;
1265.7000;0.4851;-3.3721;
1266.0000;0.4851;-3.3721;
1266.3000;0.4892;-3.3621;
1266.6000;0.4876;-3.3696;
1266.9000;0.4876;-3.3597;
1267.2000;0.4957;-3.3373;
1267.5000;0.4933;-3.3447;
1267.8000;0.4876;-3.3597;
1268.1000;0.4876;-3.3522;
1268.4000;0.4876;-3.3472;
1268.7000;0.4876;-3.3522;
1269.0000;0.4884;-3.3472;
1269.3000;0.4868;-3.3597;
1269.6000;0.4860;-3.3621;
1269.9000;0.4860;-3.3597;
1270.2000;0.4876;-3.3621;
1270.5000;0.4868;-3.3597;
1270.8000;0.4827;-3.3597;
1271.1000;0.4860;-3.3572;
1271.4000;0.4868;-3.3547;
1271.7000;0.4860;-3.3497;
1272.0000;0.4851;-3.3547;
1272.3000;0.4868;-3.3497;
1272.6000;0.4860;-3.3522;
1272.9000;0.4835;-3.3597;
1273.2000;0.4884;-3.3597;
1273.5000;0.4876;-3.3572;
1273.8000;0.4876;-3.3522;
1274.1000;0.4860;-3.3572;
1274.4000;0.4892;-3.3422;
1274.7000;0.4860;-3.3572;
1275.0000;0.4860;-3.3597;
1275.3000;0.4876;-3.3547;
1275.6000;0.4982;-3.3298;
1275.9000;0.4851;-3.3572;
1276.2000;0.4860;-3.3522;
1276.5000;0.4868;-3.3572;
1276.8000;0.4827;-3.3721;
1277.1000;0.4860;-3.3547;
1277.4000;0.4860;-3.3547;
1277.7000;0.4860;-3.3597;
1278.0000;0.4860;-3.3646;
1278.3000;0.4770;-3.3845;
1278.6000;0.4876;-3.3522;
1278.9000;0.4868;-3.3472;
1279.2000;0.4860;-3.3522;
1279.5000;0.4925;-3.3348;
1279.8000;0.4827;-3.3621;
1280.1000;0.4860;-3.3547;
1280.4000;0.4876;-3.3572;
1280.7000;0.4868;-3.3572;
1281.0000;0.4851;-3.3621;
1281.3000;0.4860;-3.3522;
1281.6000;0.4851;-3.3547;
1281.9000;0.4843;-3.3422;
1282.2000;0.4860;-3.3398;
1282.5000;0.4794;-3.3522;
1282.8000;0.4851;-3.3298;
1283.1000;0.4908;-3.3248;
1283.4000;0.4876;-3.3348;
1283.7000;0.4835;-3.3472;
1284.0000;0.4900;-3.3422;
1284.3000;0.4868;-3.3472;
1284.6000;0.4884;-3.3422;
1284.9000;0.4860;-3.3472;
1285.2000;0.4827;-3.3447;
1285.5000;0.4868;-3.3398;
1285.8000;0.4868;-3.3373;
1286.1000;0.4876;-3.3373;
1286.4000;0.4876;-3.3398;
1286.7000;0.4868;-3.3422;
1287.0000;0.4892;-3.3323;
1287.3000;0.4884;-3.3348;
1287.6000;0.4843;-3.3547;
1287.9000;0.4860;-3.3572;
1288.2000;0.4884;-3.3497;
1288.5000;0.4868;-3.3547;
1288.8000;0.4860;-3.3597;
1289.1000;0.4868;-3.3597;
1289.4000;0.4843;-3.3696;
1289.7000;0.4876;-3.3572;
1290.0000;0.4908;-3.3497;
1290.3000;0.4860;-3.3621;
1290.6000;0.4860;-3.3597;
1290.9000;0.4851;-3.3621;
1291.2000;0.4843;-3.3671;
1291.5000;0.4851;-3.3572;
1291.8000;0.4868;-3.3547;
1292.1000;0.4860;-3.3522;
1292.4000;0.4941;-3.3373;
1292.7000;0.4860;-3.3621;
1293.0000;0.4868;-3.3646;
1293.3000;0.4860;-3.3522;
1293.6000;0.4843;-3.3597;
1293.9000;0.4876;-3.3522;
1294.2000;0.4868;-3.3597;
1294.5000;0.4868;-3.3522;
1294.8000;0.4876;-3.3522;
1295.1000;0.4876;-3.3572;
1295.4000;0.4851;-3.3597;
1295.7000;0.4860;-3.3572;
1296.0000;0.4868;-3.3497;
1296.3000;0.4860;-3.3597;
1296.6000;0.4876;-3.3597;
1296.9000;0.4860;-3.3646;
1297.2000;0.4860;-3.3621;
1297.5000;0.4868;-3.3597;
1297.8000;0.4876;-3.3646;
1298.1000;0.4868;-3.3646;
1298.4000;0.4892;-3.3547;
1298.7000;0.4868;-3.3497;
1299.0000;0.4868;-3.3522;
1299.3000;0.4876;-3.3547;
1299.6000;0.4876;-3.3547;
1299.9000;0.4851;-3.3597;
1300.2000;0.4892;-3.3597;
1300.5000;0.4892;-3.3597;
1300.8000;0.4868;-3.3696;
1301.1000;0.4851;-3.3572;
1301.4000;0.4876;-3.3621;
1301.7000;0.4868;-3.3547;
1302.0000;0.4884;-3.3522;
1302.3000;0.4868;-3.3447;
1302.6000;0.4868;-3.3422;
1302.9000;0.4892;-3.3348;
1303.2000;0.4884;-3.3348;
1303.5000;0.4851;-3.3472;
1303.8000;0.4868;-3.3447;
1304.1000;0.4892;-3.3298;
1304.4000;0.4860;-3.3323;
1304.7000;0.4884;-3.3298;
1305.0000;0.4851;-3.3373;
1305.3000;0.4827;-3.3447;
1305.6000;0.4860;-3.3348;
1305.9000;0.4868;-3.3422;
1306.2000;0.4860;-3.3497;
1306.5000;0.4892;-3.3373;
1306.8000;0.4868;-3.3472;
1307.1000;0.4868;-3.3547;
1307.4000;0.4868;-3.3621;
1307.7000;0.4868;-3.3621;
1308.0000;0.4868;-3.3597;
1308.3000;0.4876;-3.3721;
1308.6000;0.4876;-3.3721;
1308.9000;0.4876;-3.3721;
1309.2000;0.4884;-3.3796;
1309.5000;0.4876;-3.3721;
1309.8000;0.4868;-3.3796;
1310.1000;0.4843;-3.3845;
1310.4000;0.4876;-3.3721;
1310.7000;0.4876;-3.3671;
1311.0000;0.4860;-3.3771;
1311.3000;0.4778;-3.3945;
1311.6000;0.4876;-3.3597;
1311.9000;0.4860;-3.3522;
1312.2000;0.4851;-3.3547;
1312.5000;0.4884;-3.3447;
1312.8000;0.4819;-3.3621;
1313.1000;0.4868;-3.3547;
1313.4000;0.4974;-3.3298;
1313.7000;0.4860;-3.3597;
1314.0000;0.4884;-3.3572;
1314.3000;0.4843;-3.3597;
1314.6000;0.4868;-3.3497;
1314.9000;0.4827;-3.3547;
1315.2000;0.4892;-3.3472;
1315.5000;0.4868;-3.3572;
1315.8000;0.4868;-3.3572;
1316.1000;0.4876;-3.3597;
1316.4000;0.4843;-3.3721;
1316.7000;0.4884;-3.3572;
1317.0000;0.4884;-3.3522;
1317.3000;0.4851;-3.3547;
1317.6000;0.4803;-3.3621;
1317.9000;0.4892;-3.3348;
1318.2000;0.4892;-3.3373;
1318.5000;0.4851;-3.3572;
1318.8000;0.4884;-3.3671;
1319.1000;0.4868;-3.3646;
1319.4000;0.4892;-3.3572;
1319.7000;0.4860;-3.3621;
1320.0000;0.4876;-3.3522;
1320.3000;0.4892;-3.3597;
1320.6000;0.4868;-3.3597;
1320.9000;0.4884;-3.3646;
1321.2000;0.4876;-3.3721;
1321.5000;0.4843;-3.3771;
1321.8000;0.4876;-3.3621;
1322.1000;0.4884;-3.3547;
1322.4000;0.4908;-3.3472;
1322.7000;0.4860;-3.3547;
1323.0000;0.4843;-3.3646;
1323.3000;0.4835;-3.3721;
1323.6000;0.4884;-3.3547;
1323.9000;0.4868;-3.3597;
1324.2000;0.4819;-3.3796;
1324.5000;0.4868;-3.3646;
1324.8000;0.4868;-3.3597;
1325.1000;0.4851;-3.3572;
1325.4000;0.4868;-3.3597;
1325.7000;0.4868;-3.3621;
1326.0000;0.4868;-3.3646;
1326.3000;0.4876;-3.3597;
1326.6000;0.4876;-3.3621;
1326.9000;0.4803;-3.3820;
1327.2000;0.4868;-3.3696;
1327.5000;0.4892;-3.3597;
1327.8000;0.4876;-3.3671;
1328.1000;0.4876;-3.3646;
1328.4000;0.4876;-3.3721;
1328.7000;0.4851;-3.3746;
1329.0000;0.4778;-3.3970;
1329.3000;0.4860;-3.3796;
1329.6000;0.4868;-3.3721;
1329.9000;0.4860;-3.3671;
1330.2000;0.4884;-3.3597;
1330.5000;0.4876;-3.3646;
1330.8000;0.4860;-3.3721;
1331.1000;0.4933;-3.3422;
1331.4000;0.4868;-3.3646;
1331.7000;0.4868;-3.3696;
1332.0000;0.4811;-3.3771;
1332.3000;0.4876;-3.3572;
1332.6000;0.4900;-3.3547;
1332.9000;0.4868;-3.3621;
1333.2000;0.4957;-3.3398;
1333.5000;0.4868;-3.3621;
1333.8000;0.4868;-3.3572;
1334.1000;0.4843;-3.3696;
1334.4000;0.4851;-3.3696;
1334.7000;0.4884;-3.3671;
1335.0000;0.4917;-3.3497;
1335.3000;0.4868;-3.3646;
1335.6000;0.4876;-3.3796;
1335.9000;0.4876;-3.3771;
1336.2000;0.4860;-3.3771;
1336.5000;0.4884;-3.3621;
1336.8000;0.4786;-3.3870;
1337.1000;0.4884;-3.3646;
1337.4000;0.4851;-3.3721;
1337.7000;0.4868;-3.3746;
1338.0000;0.4876;-3.3696;
1338.3000;0.4819;-3.3845;
1338.6000;0.4884;-3.3721;
1338.9000;0.4819;-3.3820;
1339.2000;0.4860;-3.3646;
1339.5000;0.4884;-3.3696;
1339.8000;0.4868;-3.3746;
1340.1000;0.4827;-3.3746;
1340.4000;0.4868;-3.3696;
1340.7000;0.4868;-3.3746;
1341.0000;0.4835;-3.3895;
1341.3000;0.4876;-3.3746;
1341.6000;0.4868;-3.3746;
1341.9000;0.4884;-3.3696;
1342.2000;0.4860;-3.3671;
1342.5000;0.4811;-3.3696;
1342.8000;0.4868;-3.3572;
1343.1000;0.4860;-3.3497;
1343.4000;0.4860;-3.3572;
1343.7000;0.4843;-3.3597;
1344.0000;0.4884;-3.3497;
1344.3000;0.4851;-3.3522;
1344.6000;0.4868;-3.3522;
1344.9000;0.4860;-3.3547;
1345.2000;0.4884;-3.3422;
1345.5000;0.4868;-3.3422;
1345.8000;0.4884;-3.3472;
1346.1000;0.4860;-3.3522;
1346.4000;0.4851;-3.3597;
1346.7000;0.4892;-3.3547;
1347.0000;0.4876;-3.3671;
1347.3000;0.4884;-3.3547;
1347.6000;0.4908;-3.3597;
1347.9000;0.4868;-3.3820;
1348.2000;0.4884;-3.3746;
1348.5000;0.4884;-3.3597;
1348.8000;0.4876;-3.3522;
1349.1000;0.4868;-3.3597;
1349.4000;0.4860;-3.3671;
1349.7000;0.4868;-3.3671;
1350.0000;0.4892;-3.3671;
1350.3000;0.4868;-3.3671;
1350.6000;0.4876;-3.3646;
1350.9000;0.4843;-3.3646;
1351.2000;0.4868;-3.3572;
1351.5000;0.4933;-3.3298;
1351.8000;0.4884;-3.3398;
1352.1000;0.4900;-3.3348;
1352.4000;0.4892;-3.3472;
1352.7000;0.4868;-3.3547;
1353.0000;0.4786;-3.3796;
1353.3000;0.4851;-3.3646;
1353.6000;0.4908;-3.3447;
1353.9000;0.4868;-3.3472;
1354.2000;0.4868;-3.3398;
1354.5000;0.4860;-3.3472;
1354.8000;0.4868;-3.3497;
1355.1000;0.4908;-3.3447;
1355.4000;0.4876;-3.3621;
1355.7000;0.4794;-3.3771;
1356.0000;0.4835;-3.3671;
1356.3000;0.4868;-3.3547;
1356.6000;0.4851;-3.3597;
1356.9000;0.4900;-3.3547;
1357.2000;0.4868;-3.3671;
1357.5000;0.4876;-3.3621;
1357.8000;0.4884;-3.3547;
1358.1000;0.4851;-3.3547;
1358.4000;0.4868;-3.3572;
1358.7000;0.4957;-3.3422;
1359.0000;0.4876;-3.3572;
1359.3000;0.4884;-3.3597;
1359.6000;0.4876;-3.3621;
1359.9000;0.4908;-3.3547;
1360.2000;0.4884;-3.3597;
1360.5000;0.4860;-3.3522;
1360.8000;0.4819;-3.3572;
1361.1000;0.4868;-3.3398;
1361.4000;0.4868;-3.3373;
1361.7000;0.4876;-3.3422;
1362.0000;0.4892;-3.3422;
1362.3000;0.4892;-3.3547;
1362.6000;0.4811;-3.3671;
1362.9000;0.4851;-3.3522;
1363.2000;0.4868;-3.3472;
1363.5000;0.4884;-3.3373;
1363.8000;0.4860;-3.3398;
1364.1000;0.4884;-3.3323;
1364.4000;0.4884;-3.3398;
1364.7000;0.4868;-3.3447;
1365.0000;0.4884;-3.3422;
1365.3000;0.4876;-3.3323;
1365.6000;0.4884;-3.3323;
1365.9000;0.4868;-3.3398;
1366.2000;0.4860;-3.3472;
1366.5000;0.4860;-3.3472;
1366.8000;0.4876;-3.3422;
1367.1000;0.4851;-3.3447;
1367.4000;0.4876;-3.3398;
1367.7000;0.4860;-3.3422;
1368.0000;0.4900;-3.3348;
1368.3000;0.4876;-3.3422;
1368.6000;0.4884;-3.3497;
1368.9000;0.4868;-3.3522;
1369.2000;0.4868;-3.3497;
1369.5000;0.4884;-3.3497;
1369.8000;0.4876;-3.3497;
1370.1000;0.4884;-3.3497;
1370.4000;0.4868;-3.3472;
1370.7000;0.4803;-3.3597;
1371.0000;0.4876;-3.3348;
1371.3000;0.4843;-3.3422;
1371.6000;0.4860;-3.3398;
1371.9000;0.4851;-3.3373;
1372.2000;0.4876;-3.3273;
1372.5000;0.4860;-3.3373;
1372.8000;0.4868;-3.3447;
1373.1000;0.4851;-3.3472;
1373.4000;0.4876;-3.3373;
1373.7000;0.4868;-3.3422;
1374.0000;0.4860;-3.3422;
1374.3000;0.4892;-3.3298;
1374.6000;0.4884;-3.3273;
1374.9000;0.4974;-3.2975;
1375.2000;0.4884;-3.3273;
1375.5000;0.4868;-3.3373;
1375.8000;0.4868;-3.3348;
1376.1000;0.4868;-3.3373;
1376.4000;0.4851;-3.3422;
1376.7000;0.4876;-3.3398;
1377.0000;0.4860;-3.3398;
1377.3000;0.4843;-3.3497;
1377.6000;0.4843;-3.3472;
1377.9000;0.4851;-3.3522;
1378.2000;0.4876;-3.3472;
1378.5000;0.4811;-3.3547;
1378.8000;0.4884;-3.3373;
1379.1000;0.4851;-3.3447;
1379.4000;0.4868;-3.3422;
1379.7000;0.4868;-3.3348;
1380.0000;0.4843;-3.3398;
1380.3000;0.4851;-3.3472;
1380.6000;0.4851;-3.3522;
1380.9000;0.4868;-3.3472;
1381.2000;0.4876;-3.3497;
1381.5000;0.4835;-3.3621;
1381.8000;0.4868;-3.3572;
1382.1000;0.4860;-3.3572;
1382.4000;0.4860;-3.3597;
1382.7000;0.4876;-3.3547;
1383.0000;0.4851;-3.3621;
1383.3000;0.4851;-3.3646;
1383.6000;0.4860;-3.3621;
1383.9000;0.4884;-3.3621;
1384.2000;0.4860;-3.3671;
1384.5000;0.4876;-3.3696;
1384.8000;0.4876;-3.3621;
1385.1000;0.4876;-3.3646;
1385.4000;0.4860;-3.3621;
1385.7000;0.4876;-3.3646;
1386.0000;0.4876;-3.3671;
1386.3000;0.4860;-3.3721;
1386.6000;0.4876;-3.3597;
1386.9000;0.4860;-3.3621;
1387.2000;0.4860;-3.3646;
1387.5000;0.4860;-3.3671;
1387.8000;0.4860;-3.3721;
1388.1000;0.4868;-3.3721;
1388.4000;0.4860;-3.3746;
1388.7000;0.4851;-3.3771;
1389.0000;0.4876;-3.3746;
1389.3000;0.4876;-3.3721;
1389.6000;0.4803;-3.3845;
1389.9000;0.4868;-3.3721;
1390.2000;0.4860;-3.3721;
1390.5000;0.4941;-3.3447;
1390.8000;0.4860;-3.3597;
1391.1000;0.4835;-3.3572;
1391.4000;0.4860;-3.3597;
1391.7000;0.4860;-3.3671;
1392.0000;0.4860;-3.3721;
1392.3000;0.4860;-3.3696;
1392.6000;0.4843;-3.3771;
1392.9000;0.4868;-3.3671;
1393.2000;0.4851;-3.3721;
1393.5000;0.4860;-3.3696;
1393.8000;0.4860;-3.3671;
1394.1000;0.4860;-3.3671;
1394.4000;0.4884;-3.3572;
1394.7000;0.4876;-3.3621;
1395.0000;0.4851;-3.3646;
1395.3000;0.4860;-3.3671;
1395.6000;0.4884;-3.3621;
1395.9000;0.4868;-3.3621;
1396.2000;0.4876;-3.3597;
1396.5000;0.4868;-3.3621;
1396.8000;0.4860;-3.3721;
1397.1000;0.4835;-3.3671;
1397.4000;0.4876;-3.3497;
1397.7000;0.4860;-3.3572;
1398.0000;0.4884;-3.3572;
1398.3000;0.4892;-3.3472;
1398.6000;0.4843;-3.3572;
1398.9000;0.4860;-3.3547;
1399.2000;0.4868;-3.3547;
1399.5000;0.4892;-3.3398;
1399.8000;0.4876;-3.3447;
