time/ms;Fluo/V;P700 deltaI/I x10³;
-199.8000;0.6431;-3.3472;
-199.5000;0.6447;-3.3597;
-199.2000;0.6471;-3.3547;
-198.9000;0.6431;-3.3597;
-198.6000;0.6447;-3.3572;
-198.3000;0.6406;-3.3572;
-198.0000;0.6447;-3.3497;
-197.7000;0.6414;-3.3547;
-197.4000;0.6463;-3.3422;
-197.1000;0.6406;-3.3572;
-196.8000;0.6439;-3.3497;
-196.5000;0.6488;-3.3373;
-196.2000;0.6431;-3.3547;
-195.9000;0.6414;-3.3597;
-195.6000;0.6431;-3.3472;
-195.3000;0.6431;-3.3497;
-195.0000;0.6431;-3.3547;
-194.7000;0.6439;-3.3572;
-194.4000;0.6610;-3.3199;
-194.1000;0.6455;-3.3547;
-193.8000;0.6536;-3.3323;
-193.5000;0.6431;-3.3621;
-193.2000;0.6471;-3.3422;
-192.9000;0.6488;-3.3422;
-192.6000;0.6414;-3.3522;
-192.3000;0.6325;-3.3746;
-192.0000;0.6447;-3.3547;
-191.7000;0.6431;-3.3472;
-191.4000;0.6422;-3.3547;
-191.1000;0.6422;-3.3671;
-190.8000;0.6455;-3.3671;
-190.5000;0.6439;-3.3646;
-190.2000;0.6414;-3.3771;
-189.9000;0.6422;-3.3696;
-189.6000;0.6341;-3.3870;
-189.3000;0.6455;-3.3671;
-189.0000;0.6447;-3.3721;
-188.7000;0.6439;-3.3621;
-188.4000;0.6422;-3.3621;
-188.1000;0.6455;-3.3547;
-187.8000;0.6439;-3.3621;
-187.5000;0.6455;-3.3646;
-187.2000;0.6431;-3.3597;
-186.9000;0.6422;-3.3597;
-186.6000;0.6447;-3.3522;
-186.3000;0.6439;-3.3597;
-186.0000;0.6406;-3.3646;
-185.7000;0.6422;-3.3646;
-185.4000;0.6398;-3.3721;
-185.1000;0.6414;-3.3572;
-184.8000;0.6382;-3.3696;
-184.5000;0.6431;-3.3572;
-184.2000;0.6414;-3.3721;
-183.9000;0.6422;-3.3746;
-183.6000;0.6422;-3.3746;
-183.3000;0.6431;-3.3746;
-183.0000;0.6431;-3.3746;
-182.7000;0.6447;-3.3671;
-182.4000;0.6447;-3.3621;
-182.1000;0.6414;-3.3696;
-181.8000;0.6422;-3.3696;
-181.5000;0.6398;-3.3696;
-181.2000;0.6422;-3.3671;
-180.9000;0.6406;-3.3671;
-180.6000;0.6431;-3.3572;
-180.3000;0.6422;-3.3646;
-180.0000;0.6488;-3.3547;
-179.7000;0.6431;-3.3696;
-179.4000;0.6431;-3.3646;
-179.1000;0.6463;-3.3646;
-178.8000;0.6431;-3.3771;
-178.5000;0.6382;-3.3820;
-178.2000;0.6431;-3.3820;
-177.9000;0.6447;-3.3845;
-177.6000;0.6471;-3.3845;
-177.3000;0.6439;-3.3970;
-177.0000;0.6545;-3.3671;
-176.7000;0.6439;-3.3920;
-176.4000;0.6431;-3.3870;
-176.1000;0.6463;-3.3796;
-175.8000;0.6439;-3.3696;
-175.5000;0.6431;-3.3746;
-175.2000;0.6406;-3.3746;
-174.9000;0.6414;-3.3696;
-174.6000;0.6439;-3.3671;
-174.3000;0.6431;-3.3721;
-174.0000;0.6431;-3.3746;
-173.7000;0.6431;-3.3820;
-173.4000;0.6447;-3.3671;
-173.1000;0.6463;-3.3621;
-172.8000;0.6422;-3.3646;
-172.5000;0.6439;-3.3597;
-172.2000;0.6431;-3.3597;
-171.9000;0.6528;-3.3273;
-171.6000;0.6431;-3.3472;
-171.3000;0.6431;-3.3497;
-171.0000;0.6431;-3.3447;
-170.7000;0.6488;-3.3348;
-170.4000;0.6431;-3.3522;
-170.1000;0.6414;-3.3522;
-169.8000;0.6431;-3.3447;
-169.5000;0.6431;-3.3422;
-169.2000;0.6439;-3.3373;
-168.9000;0.6431;-3.3323;
-168.6000;0.6431;-3.3398;
-168.3000;0.6447;-3.3447;
-168.0000;0.6447;-3.3348;
-167.7000;0.6390;-3.3472;
-167.4000;0.6488;-3.3298;
-167.1000;0.6422;-3.3522;
-166.8000;0.6406;-3.3547;
-166.5000;0.6422;-3.3572;
-166.2000;0.6422;-3.3547;
-165.9000;0.6447;-3.3572;
-165.6000;0.6447;-3.3547;
-165.3000;0.6431;-3.3646;
-165.0000;0.6431;-3.3597;
-164.7000;0.6455;-3.3597;
-164.4000;0.6422;-3.3646;
-164.1000;0.6447;-3.3646;
-163.8000;0.6439;-3.3572;
-163.5000;0.6455;-3.3547;
-163.2000;0.6431;-3.3621;
-162.9000;0.6447;-3.3572;
-162.6000;0.6422;-3.3572;
-162.3000;0.6439;-3.3621;
-162.0000;0.6488;-3.3547;
-161.7000;0.6431;-3.3671;
-161.4000;0.6431;-3.3671;
-161.1000;0.6439;-3.3671;
-160.8000;0.6439;-3.3696;
-160.5000;0.6439;-3.3646;
-160.2000;0.6455;-3.3597;
-159.9000;0.6422;-3.3597;
-159.6000;0.6431;-3.3721;
-159.3000;0.6431;-3.3696;
-159.0000;0.6447;-3.3597;
-158.7000;0.6447;-3.3547;
-158.4000;0.6422;-3.3497;
-158.1000;0.6439;-3.3447;
-157.8000;0.6447;-3.3447;
-157.5000;0.6414;-3.3621;
-157.2000;0.6431;-3.3646;
-156.9000;0.6422;-3.3646;
-156.6000;0.6439;-3.3646;
-156.3000;0.6422;-3.3621;
-156.0000;0.6431;-3.3597;
-155.7000;0.6439;-3.3547;
-155.4000;0.6431;-3.3547;
-155.1000;0.6439;-3.3472;
-154.8000;0.6439;-3.3522;
-154.5000;0.6431;-3.3572;
-154.2000;0.6439;-3.3547;
-153.9000;0.6431;-3.3621;
-153.6000;0.6431;-3.3646;
-153.3000;0.6422;-3.3646;
-153.0000;0.6406;-3.3771;
-152.7000;0.6390;-3.3796;
-152.4000;0.6422;-3.3746;
-152.1000;0.6398;-3.3796;
-151.8000;0.6422;-3.3671;
-151.5000;0.6414;-3.3646;
-151.2000;0.6422;-3.3721;
-150.9000;0.6422;-3.3696;
-150.6000;0.6447;-3.3572;
-150.3000;0.6422;-3.3522;
-150.0000;0.6341;-3.3796;
-149.7000;0.6447;-3.3522;
-149.4000;0.6414;-3.3497;
-149.1000;0.6422;-3.3497;
-148.8000;0.6439;-3.3398;
-148.5000;0.6447;-3.3447;
-148.2000;0.6439;-3.3597;
-147.9000;0.6431;-3.3522;
-147.6000;0.6414;-3.3472;
-147.3000;0.6414;-3.3572;
-147.0000;0.6447;-3.3522;
-146.7000;0.6390;-3.3597;
-146.4000;0.6422;-3.3522;
-146.1000;0.6439;-3.3522;
-145.8000;0.6512;-3.3398;
-145.5000;0.6447;-3.3572;
-145.2000;0.6439;-3.3646;
-144.9000;0.6422;-3.3646;
-144.6000;0.6455;-3.3572;
-144.3000;0.6414;-3.3646;
-144.0000;0.6455;-3.3621;
-143.7000;0.6431;-3.3597;
-143.4000;0.6414;-3.3721;
-143.1000;0.6431;-3.3597;
-142.8000;0.6414;-3.3547;
-142.5000;0.6422;-3.3522;
-142.2000;0.6439;-3.3547;
-141.9000;0.6431;-3.3597;
-141.6000;0.6382;-3.3746;
-141.3000;0.6414;-3.3671;
-141.0000;0.6447;-3.3497;
-140.7000;0.6431;-3.3572;
-140.4000;0.6422;-3.3547;
-140.1000;0.6422;-3.3547;
-139.8000;0.6431;-3.3621;
-139.5000;0.6439;-3.3547;
-139.2000;0.6439;-3.3547;
-138.9000;0.6471;-3.3522;
-138.6000;0.6439;-3.3621;
-138.3000;0.6431;-3.3646;
-138.0000;0.6496;-3.3547;
-137.7000;0.6447;-3.3696;
-137.4000;0.6422;-3.3646;
-137.1000;0.6439;-3.3572;
-136.8000;0.6455;-3.3497;
-136.5000;0.6447;-3.3472;
-136.2000;0.6406;-3.3472;
-135.9000;0.6431;-3.3422;
-135.6000;0.6447;-3.3422;
-135.3000;0.6439;-3.3398;
-135.0000;0.6447;-3.3373;
-134.7000;0.6431;-3.3422;
-134.4000;0.6431;-3.3447;
-134.1000;0.6447;-3.3398;
-133.8000;0.6414;-3.3522;
-133.5000;0.6422;-3.3572;
-133.2000;0.6439;-3.3472;
-132.9000;0.6455;-3.3422;
-132.6000;0.6447;-3.3422;
-132.3000;0.6439;-3.3398;
-132.0000;0.6439;-3.3398;
-131.7000;0.6431;-3.3447;
-131.4000;0.6439;-3.3447;
-131.1000;0.6439;-3.3621;
-130.8000;0.6439;-3.3621;
-130.5000;0.6431;-3.3696;
-130.2000;0.6439;-3.3721;
-129.9000;0.6422;-3.3671;
-129.6000;0.6422;-3.3671;
-129.3000;0.6439;-3.3696;
-129.0000;0.6439;-3.3721;
-128.7000;0.6447;-3.3696;
-128.4000;0.6439;-3.3621;
-128.1000;0.6431;-3.3547;
-127.8000;0.6431;-3.3447;
-127.5000;0.6439;-3.3398;
-127.2000;0.6447;-3.3422;
-126.9000;0.6422;-3.3447;
-126.6000;0.6439;-3.3348;
-126.3000;0.6439;-3.3373;
-126.0000;0.6439;-3.3398;
-125.7000;0.6414;-3.3447;
-125.4000;0.6439;-3.3398;
-125.1000;0.6439;-3.3447;
-124.8000;0.6398;-3.3572;
-124.5000;0.6439;-3.3398;
-124.2000;0.6447;-3.3398;
-123.9000;0.6422;-3.3398;
-123.6000;0.6439;-3.3323;
-123.3000;0.6431;-3.3323;
-123.0000;0.6406;-3.3447;
-122.7000;0.6471;-3.3323;
-122.4000;0.6431;-3.3472;
-122.1000;0.6365;-3.3671;
-121.8000;0.6439;-3.3547;
-121.5000;0.6414;-3.3621;
-121.2000;0.6439;-3.3646;
-120.9000;0.6390;-3.3746;
-120.6000;0.6390;-3.3771;
-120.3000;0.6455;-3.3621;
-120.0000;0.6455;-3.3597;
-119.7000;0.6439;-3.3771;
-119.4000;0.6431;-3.3746;
-119.1000;0.6479;-3.3646;
-118.8000;0.6447;-3.3721;
-118.5000;0.6439;-3.3621;
-118.2000;0.6431;-3.3572;
-117.9000;0.6374;-3.3671;
-117.6000;0.6422;-3.3497;
-117.3000;0.6455;-3.3472;
-117.0000;0.6447;-3.3547;
-116.7000;0.6406;-3.3646;
-116.4000;0.6431;-3.3572;
-116.1000;0.6471;-3.3398;
-115.8000;0.6422;-3.3547;
-115.5000;0.6431;-3.3597;
-115.2000;0.6431;-3.3572;
-114.9000;0.6447;-3.3522;
-114.6000;0.6439;-3.3597;
-114.3000;0.6431;-3.3671;
-114.0000;0.6431;-3.3646;
-113.7000;0.6431;-3.3621;
-113.4000;0.6414;-3.3696;
-113.1000;0.6414;-3.3696;
-112.8000;0.6414;-3.3646;
-112.5000;0.6431;-3.3621;
-112.2000;0.6414;-3.3671;
-111.9000;0.6398;-3.3746;
-111.6000;0.6431;-3.3721;
-111.3000;0.6414;-3.3721;
-111.0000;0.6447;-3.3621;
-110.7000;0.6414;-3.3746;
-110.4000;0.6414;-3.3696;
-110.1000;0.6431;-3.3696;
-109.8000;0.6414;-3.3646;
-109.5000;0.6431;-3.3621;
-109.2000;0.6447;-3.3621;
-108.9000;0.6390;-3.3746;
-108.6000;0.6422;-3.3671;
-108.3000;0.6447;-3.3696;
-108.0000;0.6431;-3.3696;
-107.7000;0.6422;-3.3721;
-107.4000;0.6422;-3.3646;
-107.1000;0.6455;-3.3646;
-106.8000;0.6455;-3.3646;
-106.5000;0.6365;-3.3895;
-106.2000;0.6439;-3.3696;
-105.9000;0.6431;-3.3721;
-105.6000;0.6447;-3.3721;
-105.3000;0.6431;-3.3721;
-105.0000;0.6431;-3.3721;
-104.7000;0.6431;-3.3771;
-104.4000;0.6414;-3.3771;
-104.1000;0.6447;-3.3721;
-103.8000;0.6439;-3.3696;
-103.5000;0.6414;-3.3696;
-103.2000;0.6447;-3.3621;
-102.9000;0.6447;-3.3572;
-102.6000;0.6455;-3.3472;
-102.3000;0.6406;-3.3547;
-102.0000;0.6390;-3.3671;
-101.7000;0.6439;-3.3522;
-101.4000;0.6431;-3.3447;
-101.1000;0.6479;-3.3323;
-100.8000;0.6455;-3.3398;
-100.5000;0.6422;-3.3497;
-100.2000;0.6422;-3.3572;
-99.9000;0.6406;-3.3597;
-99.6000;0.6422;-3.3597;
-99.3000;0.6439;-3.3621;
-99.0000;0.6422;-3.3621;
-98.7000;0.6520;-3.3398;
-98.4000;0.6422;-3.3572;
-98.1000;0.6406;-3.3646;
-97.8000;0.6422;-3.3572;
-97.5000;0.6447;-3.3472;
-97.2000;0.6398;-3.3572;
-96.9000;0.6414;-3.3522;
-96.6000;0.6439;-3.3348;
-96.3000;0.6439;-3.3348;
-96.0000;0.6439;-3.3398;
-95.7000;0.6422;-3.3472;
-95.4000;0.6447;-3.3472;
-95.1000;0.6447;-3.3472;
-94.8000;0.6447;-3.3447;
-94.5000;0.6341;-3.3721;
-94.2000;0.6422;-3.3572;
-93.9000;0.6431;-3.3597;
-93.6000;0.6431;-3.3646;
-93.3000;0.6447;-3.3696;
-93.0000;0.6439;-3.3621;
-92.7000;0.6439;-3.3621;
-92.4000;0.6447;-3.3671;
-92.1000;0.6414;-3.3597;
-91.8000;0.6422;-3.3572;
-91.5000;0.6439;-3.3646;
-91.2000;0.6447;-3.3597;
-90.9000;0.6431;-3.3721;
-90.6000;0.6398;-3.3746;
-90.3000;0.6422;-3.3721;
-90.0000;0.6471;-3.3597;
-89.7000;0.6447;-3.3646;
-89.4000;0.6439;-3.3671;
-89.1000;0.6439;-3.3621;
-88.8000;0.6431;-3.3597;
-88.5000;0.6431;-3.3522;
-88.2000;0.6439;-3.3472;
-87.9000;0.6431;-3.3447;
-87.6000;0.6414;-3.3447;
-87.3000;0.6463;-3.3447;
-87.0000;0.6422;-3.3597;
-86.7000;0.6414;-3.3621;
-86.4000;0.6422;-3.3572;
-86.1000;0.6504;-3.3373;
-85.8000;0.6431;-3.3472;
-85.5000;0.6431;-3.3472;
-85.2000;0.6447;-3.3373;
-84.9000;0.6439;-3.3323;
-84.6000;0.6545;-3.3124;
-84.3000;0.6447;-3.3323;
-84.0000;0.6422;-3.3398;
-83.7000;0.6471;-3.3248;
-83.4000;0.6431;-3.3422;
-83.1000;0.6431;-3.3472;
-82.8000;0.6447;-3.3497;
-82.5000;0.6496;-3.3348;
-82.2000;0.6447;-3.3472;
-81.9000;0.6447;-3.3522;
-81.6000;0.6545;-3.3348;
-81.3000;0.6390;-3.3771;
-81.0000;0.6455;-3.3646;
-80.7000;0.6463;-3.3597;
-80.4000;0.6447;-3.3547;
-80.1000;0.6431;-3.3497;
-79.8000;0.6447;-3.3398;
-79.5000;0.6447;-3.3497;
-79.2000;0.6455;-3.3447;
-78.9000;0.6390;-3.3572;
-78.6000;0.6431;-3.3422;
-78.3000;0.6488;-3.3323;
-78.0000;0.6455;-3.3422;
-77.7000;0.6488;-3.3373;
-77.4000;0.6431;-3.3646;
-77.1000;0.6414;-3.3646;
-76.8000;0.6439;-3.3472;
-76.5000;0.6414;-3.3422;
-76.2000;0.6414;-3.3398;
-75.9000;0.6431;-3.3398;
-75.6000;0.6447;-3.3398;
-75.3000;0.6553;-3.3174;
-75.0000;0.6414;-3.3373;
-74.7000;0.6431;-3.3373;
-74.4000;0.6455;-3.3298;
-74.1000;0.6455;-3.3348;
-73.8000;0.6447;-3.3422;
-73.5000;0.6422;-3.3373;
-73.2000;0.6439;-3.3348;
-72.9000;0.6447;-3.3348;
-72.6000;0.6455;-3.3323;
-72.3000;0.6439;-3.3298;
-72.0000;0.6447;-3.3248;
-71.7000;0.6431;-3.3224;
-71.4000;0.6422;-3.3273;
-71.1000;0.6447;-3.3298;
-70.8000;0.6422;-3.3472;
-70.5000;0.6374;-3.3522;
-70.2000;0.6406;-3.3572;
-69.9000;0.6431;-3.3497;
-69.6000;0.6431;-3.3447;
-69.3000;0.6447;-3.3447;
-69.0000;0.6431;-3.3447;
-68.7000;0.6406;-3.3472;
-68.4000;0.6447;-3.3373;
-68.1000;0.6439;-3.3447;
-67.8000;0.6422;-3.3497;
-67.5000;0.6422;-3.3522;
-67.2000;0.6439;-3.3522;
-66.9000;0.6333;-3.3746;
-66.6000;0.6447;-3.3522;
-66.3000;0.6504;-3.3273;
-66.0000;0.6528;-3.3224;
-65.7000;0.6439;-3.3547;
-65.4000;0.6414;-3.3547;
-65.1000;0.6455;-3.3373;
-64.8000;0.6439;-3.3373;
-64.5000;0.6431;-3.3472;
-64.2000;0.6398;-3.3621;
-63.9000;0.6422;-3.3621;
-63.6000;0.6422;-3.3597;
-63.3000;0.6431;-3.3522;
-63.0000;0.6439;-3.3497;
-62.7000;0.6439;-3.3547;
-62.4000;0.6455;-3.3597;
-62.1000;0.6431;-3.3547;
-61.8000;0.6431;-3.3621;
-61.5000;0.6431;-3.3597;
-61.2000;0.6414;-3.3597;
-60.9000;0.6439;-3.3522;
-60.6000;0.6463;-3.3422;
-60.3000;0.6439;-3.3472;
-60.0000;0.6422;-3.3522;
-59.7000;0.6536;-3.3273;
-59.4000;0.6439;-3.3497;
-59.1000;0.6431;-3.3646;
-58.8000;0.6431;-3.3621;
-58.5000;0.6439;-3.3646;
-58.2000;0.6414;-3.3621;
-57.9000;0.6422;-3.3597;
-57.6000;0.6414;-3.3621;
-57.3000;0.6422;-3.3621;
-57.0000;0.6447;-3.3671;
-56.7000;0.6439;-3.3721;
-56.4000;0.6431;-3.3696;
-56.1000;0.6431;-3.3746;
-55.8000;0.6439;-3.3721;
-55.5000;0.6439;-3.3796;
-55.2000;0.6431;-3.3771;
-54.9000;0.6439;-3.3696;
-54.6000;0.6447;-3.3746;
-54.3000;0.6439;-3.3796;
-54.0000;0.6455;-3.3746;
-53.7000;0.6422;-3.3646;
-53.4000;0.6447;-3.3572;
-53.1000;0.6528;-3.3348;
-52.8000;0.6414;-3.3646;
-52.5000;0.6406;-3.3721;
-52.2000;0.6422;-3.3721;
-51.9000;0.6357;-3.3945;
-51.6000;0.6439;-3.3671;
-51.3000;0.6431;-3.3721;
-51.0000;0.6414;-3.3746;
-50.7000;0.6365;-3.3820;
-50.4000;0.6422;-3.3696;
-50.1000;0.6455;-3.3572;
-49.8000;0.6439;-3.3597;
-49.5000;0.6406;-3.3671;
-49.2000;0.6447;-3.3547;
-48.9000;0.6447;-3.3522;
-48.6000;0.6422;-3.3621;
-48.3000;0.6439;-3.3497;
-48.0000;0.6431;-3.3373;
-47.7000;0.6422;-3.3447;
-47.4000;0.6341;-3.3671;
-47.1000;0.6455;-3.3422;
-46.8000;0.6431;-3.3522;
-46.5000;0.6341;-3.3746;
-46.2000;0.6431;-3.3597;
-45.9000;0.6398;-3.3771;
-45.6000;0.6422;-3.3671;
-45.3000;0.6431;-3.3671;
-45.0000;0.6447;-3.3696;
-44.7000;0.6422;-3.3671;
-44.4000;0.6382;-3.3796;
-44.1000;0.6431;-3.3497;
-43.8000;0.6422;-3.3597;
-43.5000;0.6422;-3.3646;
-43.2000;0.6406;-3.3721;
-42.9000;0.6455;-3.3696;
-42.6000;0.6455;-3.3671;
-42.3000;0.6471;-3.3597;
-42.0000;0.6431;-3.3746;
-41.7000;0.6439;-3.3696;
-41.4000;0.6439;-3.3646;
-41.1000;0.6431;-3.3621;
-40.8000;0.6422;-3.3646;
-40.5000;0.6422;-3.3597;
-40.2000;0.6431;-3.3547;
-39.9000;0.6406;-3.3547;
-39.6000;0.6422;-3.3547;
-39.3000;0.6422;-3.3547;
-39.0000;0.6414;-3.3547;
-38.7000;0.6431;-3.3447;
-38.4000;0.6431;-3.3572;
-38.1000;0.6431;-3.3621;
-37.8000;0.6431;-3.3621;
-37.5000;0.6439;-3.3671;
-37.2000;0.6488;-3.3547;
-36.9000;0.6422;-3.3646;
-36.6000;0.6422;-3.3646;
-36.3000;0.6431;-3.3721;
-36.0000;0.6414;-3.3721;
-35.7000;0.6398;-3.3771;
-35.4000;0.6406;-3.3646;
-35.1000;0.6431;-3.3522;
-34.8000;0.6431;-3.3572;
-34.5000;0.6422;-3.3646;
-34.2000;0.6431;-3.3572;
-33.9000;0.6439;-3.3572;
-33.6000;0.6422;-3.3696;
-33.3000;0.6488;-3.3597;
-33.0000;0.6447;-3.3796;
-32.7000;0.6414;-3.3820;
-32.4000;0.6439;-3.3621;
-32.1000;0.6439;-3.3547;
-31.8000;0.6406;-3.3621;
-31.5000;0.6431;-3.3646;
-31.2000;0.6422;-3.3696;
-30.9000;0.6422;-3.3696;
-30.6000;0.6414;-3.3746;
-30.3000;0.6447;-3.3696;
-30.0000;0.6422;-3.3671;
-29.7000;0.6447;-3.3597;
-29.4000;0.6431;-3.3547;
-29.1000;0.6414;-3.3572;
-28.8000;0.6398;-3.3597;
-28.5000;0.6431;-3.3472;
-28.2000;0.6439;-3.3522;
-27.9000;0.6422;-3.3621;
-27.6000;0.6439;-3.3547;
-27.3000;0.6422;-3.3572;
-27.0000;0.6447;-3.3522;
-26.7000;0.6455;-3.3572;
-26.4000;0.6439;-3.3572;
-26.1000;0.6431;-3.3547;
-25.8000;0.6431;-3.3522;
-25.5000;0.6422;-3.3572;
-25.2000;0.6422;-3.3547;
-24.9000;0.6439;-3.3597;
-24.6000;0.6374;-3.3721;
-24.3000;0.6447;-3.3497;
-24.0000;0.6422;-3.3572;
-23.7000;0.6431;-3.3497;
-23.4000;0.6422;-3.3497;
-23.1000;0.6439;-3.3547;
-22.8000;0.6431;-3.3597;
-22.5000;0.6382;-3.3721;
-22.2000;0.6422;-3.3547;
-21.9000;0.6439;-3.3422;
-21.6000;0.6455;-3.3398;
-21.3000;0.6382;-3.3522;
-21.0000;0.6439;-3.3447;
-20.7000;0.6431;-3.3422;
-20.4000;0.6365;-3.3547;
-20.1000;0.6398;-3.3472;
-19.8000;0.6422;-3.3422;
-19.5000;0.6431;-3.3522;
-19.2000;0.6439;-3.3497;
-18.9000;0.6431;-3.3547;
-18.6000;0.6422;-3.3597;
-18.3000;0.6422;-3.3572;
-18.0000;0.6447;-3.3621;
-17.7000;0.6414;-3.3721;
-17.4000;0.6439;-3.3671;
-17.1000;0.6431;-3.3696;
-16.8000;0.6422;-3.3746;
-16.5000;0.6406;-3.3845;
-16.2000;0.6439;-3.3721;
-15.9000;0.6439;-3.3696;
-15.6000;0.6471;-3.3621;
-15.3000;0.6447;-3.3621;
-15.0000;0.6447;-3.3497;
-14.7000;0.6439;-3.3472;
-14.4000;0.6463;-3.3348;
-14.1000;0.6455;-3.3398;
-13.8000;0.6439;-3.3422;
-13.5000;0.6414;-3.3547;
-13.2000;0.6431;-3.3522;
-12.9000;0.6406;-3.3522;
-12.6000;0.6414;-3.3522;
-12.3000;0.6422;-3.3497;
-12.0000;0.6431;-3.3447;
-11.7000;0.6439;-3.3422;
-11.4000;0.6398;-3.3572;
-11.1000;0.6406;-3.3522;
-10.8000;0.6422;-3.3497;
-10.5000;0.6439;-3.3497;
-10.2000;0.6431;-3.3522;
-9.9000;0.6439;-3.3547;
-9.6000;0.6447;-3.3572;
-9.3000;0.6439;-3.3572;
-9.0000;0.6431;-3.3572;
-8.7000;0.6439;-3.3572;
-8.4000;0.6439;-3.3522;
-8.1000;0.6365;-3.3771;
-7.8000;0.6455;-3.3572;
-7.5000;0.6520;-3.3373;
-7.2000;0.6414;-3.3621;
-6.9000;0.6431;-3.3646;
-6.6000;0.6422;-3.3721;
-6.3000;0.6431;-3.3597;
-6.0000;0.6431;-3.3422;
-5.7000;0.6439;-3.3472;
-5.4000;0.6414;-3.3447;
-5.1000;0.6357;-3.3646;
-4.8000;0.6447;-3.3398;
-4.5000;0.6422;-3.3422;
-4.2000;0.6479;-3.3398;
-3.9000;0.6390;-3.3572;
-3.6000;0.6447;-3.3447;
-3.3000;0.6422;-3.3447;
-3.0000;0.6431;-3.3472;
-2.7000;0.6431;-3.3472;
-2.4000;0.6406;-3.3572;
-2.1000;0.6414;-3.3572;
-1.8000;0.6414;-3.3522;
-1.5000;0.6447;-3.3447;
-1.2000;0.6398;-3.3646;
-0.9000;0.6431;-3.3522;
-0.6000;0.6414;-3.3572;
-0.3000;0.6422;-3.3646;
0.0000;0.6422;-3.3646;
0.3000;0.6471;-3.3721;
0.6000;0.6561;-3.3422;
0.9000;0.6659;-3.3124;
1.2000;0.6691;-3.2975;
1.5000;0.6748;-3.2726;
1.8000;0.6781;-3.2453;
2.1000;0.6789;-3.2353;
2.4000;0.6829;-3.2204;
2.7000;0.6870;-3.2104;
3.0000;0.6886;-3.1955;
3.3000;0.6903;-3.1930;
3.6000;0.6919;-3.1906;
3.9000;0.6911;-3.1906;
4.2000;0.6943;-3.1806;
4.5000;0.6927;-3.1756;
4.8000;0.6960;-3.1731;
5.1000;0.6952;-3.1906;
5.4000;0.6952;-3.1831;
5.7000;0.6976;-3.1682;
6.0000;0.6992;-3.1657;
6.3000;0.6992;-3.1607;
6.6000;0.6992;-3.1607;
6.9000;0.7000;-3.1632;
7.2000;0.7009;-3.1682;
7.5000;0.6992;-3.1657;
7.8000;0.6968;-3.1632;
8.1000;0.7025;-3.1483;
8.4000;0.7025;-3.1458;
8.7000;0.7017;-3.1458;
9.0000;0.7009;-3.1533;
9.3000;0.7066;-3.1433;
9.6000;0.7025;-3.1458;
9.9000;0.7033;-3.1508;
10.2000;0.7017;-3.1508;
10.5000;0.7033;-3.1508;
10.8000;0.7033;-3.1508;
11.1000;0.7066;-3.1458;
11.4000;0.6984;-3.1582;
11.7000;0.7017;-3.1508;
12.0000;0.7106;-3.1309;
12.3000;0.7033;-3.1433;
12.6000;0.7041;-3.1408;
12.9000;0.7066;-3.1383;
13.2000;0.7049;-3.1433;
13.5000;0.7057;-3.1383;
13.8000;0.7057;-3.1358;
14.1000;0.7057;-3.1408;
14.4000;0.7041;-3.1358;
14.7000;0.7082;-3.1284;
15.0000;0.7074;-3.1259;
15.3000;0.7057;-3.1284;
15.6000;0.7049;-3.1309;
15.9000;0.7066;-3.1334;
16.2000;0.7049;-3.1358;
16.5000;0.7057;-3.1433;
16.8000;0.7049;-3.1508;
17.1000;0.7106;-3.1334;
17.4000;0.7082;-3.1334;
17.7000;0.7041;-3.1433;
18.0000;0.7057;-3.1383;
18.3000;0.7082;-3.1383;
18.6000;0.7082;-3.1458;
18.9000;0.7074;-3.1334;
19.2000;0.7082;-3.1334;
19.5000;0.7074;-3.1334;
19.8000;0.7131;-3.1284;
20.1000;0.7082;-3.1309;
20.4000;0.7009;-3.1508;
20.7000;0.7057;-3.1358;
21.0000;0.7082;-3.1309;
21.3000;0.7098;-3.1209;
21.6000;0.7090;-3.1284;
21.9000;0.7082;-3.1334;
22.2000;0.7090;-3.1383;
22.5000;0.7098;-3.1383;
22.8000;0.7090;-3.1408;
23.1000;0.7106;-3.1383;
23.4000;0.7090;-3.1408;
23.7000;0.7114;-3.1383;
24.0000;0.7106;-3.1358;
24.3000;0.7114;-3.1358;
24.6000;0.7106;-3.1358;
24.9000;0.7098;-3.1358;
25.2000;0.7090;-3.1284;
25.5000;0.7090;-3.1309;
25.8000;0.7074;-3.1383;
26.1000;0.7090;-3.1433;
26.4000;0.7098;-3.1458;
26.7000;0.7082;-3.1458;
27.0000;0.7074;-3.1458;
27.3000;0.7090;-3.1458;
27.6000;0.7090;-3.1533;
27.9000;0.7090;-3.1582;
28.2000;0.7098;-3.1557;
28.5000;0.7074;-3.1582;
28.8000;0.7074;-3.1632;
29.1000;0.7098;-3.1582;
29.4000;0.7098;-3.1433;
29.7000;0.7131;-3.1259;
30.0000;0.7090;-3.1284;
30.3000;0.7098;-3.1284;
30.6000;0.7106;-3.1334;
30.9000;0.7074;-3.1533;
31.2000;0.7098;-3.1458;
31.5000;0.7082;-3.1533;
31.8000;0.7057;-3.1557;
32.1000;0.7106;-3.1383;
32.4000;0.7114;-3.1383;
32.7000;0.7082;-3.1408;
33.0000;0.7106;-3.1383;
33.3000;0.7123;-3.1334;
33.6000;0.7090;-3.1433;
33.9000;0.7041;-3.1533;
34.2000;0.7123;-3.1309;
34.5000;0.7074;-3.1358;
34.8000;0.7179;-3.1085;
35.1000;0.7106;-3.1309;
35.4000;0.7106;-3.1483;
35.7000;0.7074;-3.1607;
36.0000;0.7090;-3.1508;
36.3000;0.7114;-3.1433;
36.6000;0.7098;-3.1508;
36.9000;0.7074;-3.1557;
37.2000;0.7114;-3.1458;
37.5000;0.7123;-3.1483;
37.8000;0.7114;-3.1458;
38.1000;0.7106;-3.1533;
38.4000;0.7114;-3.1433;
38.7000;0.7106;-3.1458;
39.0000;0.7106;-3.1433;
39.3000;0.7098;-3.1582;
39.6000;0.7090;-3.1533;
39.9000;0.7090;-3.1533;
40.2000;0.7147;-3.1483;
40.5000;0.7090;-3.1557;
40.8000;0.7106;-3.1508;
41.1000;0.7049;-3.1707;
41.4000;0.7098;-3.1632;
41.7000;0.7090;-3.1508;
42.0000;0.7098;-3.1458;
42.3000;0.7098;-3.1358;
42.6000;0.7106;-3.1259;
42.9000;0.7082;-3.1358;
43.2000;0.7106;-3.1358;
43.5000;0.7114;-3.1358;
43.8000;0.7114;-3.1408;
44.1000;0.7090;-3.1557;
44.4000;0.7090;-3.1458;
44.7000;0.7179;-3.1160;
45.0000;0.7106;-3.1433;
45.3000;0.7098;-3.1358;
45.6000;0.7114;-3.1309;
45.9000;0.7082;-3.1309;
46.2000;0.7114;-3.1234;
46.5000;0.7098;-3.1184;
46.8000;0.7098;-3.1209;
47.1000;0.7082;-3.1284;
47.4000;0.7114;-3.1209;
47.7000;0.7131;-3.1234;
48.0000;0.7123;-3.1284;
48.3000;0.7106;-3.1383;
48.6000;0.7106;-3.1234;
48.9000;0.7114;-3.1259;
49.2000;0.7074;-3.1458;
49.5000;0.7049;-3.1582;
49.8000;0.7106;-3.1408;
50.1000;0.7114;-3.1358;
50.4000;0.7090;-3.1383;
50.7000;0.7090;-3.1383;
51.0000;0.7041;-3.1533;
51.3000;0.7131;-3.1259;
51.6000;0.7106;-3.1259;
51.9000;0.7082;-3.1284;
52.2000;0.7098;-3.1259;
52.5000;0.7123;-3.1309;
52.8000;0.7114;-3.1334;
53.1000;0.7163;-3.1184;
53.4000;0.7147;-3.1085;
53.7000;0.7171;-3.0911;
54.0000;0.7114;-3.1060;
54.3000;0.7090;-3.1209;
54.6000;0.7114;-3.1135;
54.9000;0.7114;-3.1085;
55.2000;0.7131;-3.1135;
55.5000;0.7066;-3.1284;
55.8000;0.7131;-3.1184;
56.1000;0.7114;-3.1284;
56.4000;0.7114;-3.1334;
56.7000;0.7179;-3.1309;
57.0000;0.7114;-3.1483;
57.3000;0.7106;-3.1483;
57.6000;0.7106;-3.1408;
57.9000;0.7098;-3.1408;
58.2000;0.7106;-3.1433;
58.5000;0.7106;-3.1334;
58.8000;0.7123;-3.1259;
59.1000;0.7090;-3.1234;
59.4000;0.7106;-3.1209;
59.7000;0.7074;-3.1259;
60.0000;0.7114;-3.1234;
60.3000;0.7147;-3.1209;
60.6000;0.7106;-3.1383;
60.9000;0.7179;-3.1209;
61.2000;0.7090;-3.1483;
61.5000;0.7106;-3.1358;
61.8000;0.7106;-3.1309;
62.1000;0.7106;-3.1284;
62.4000;0.7098;-3.1309;
62.7000;0.7098;-3.1334;
63.0000;0.7082;-3.1309;
63.3000;0.7098;-3.1234;
63.6000;0.7106;-3.1184;
63.9000;0.7098;-3.1160;
64.2000;0.7114;-3.1135;
64.5000;0.7049;-3.1284;
64.8000;0.7106;-3.1234;
65.1000;0.7082;-3.1259;
65.4000;0.7098;-3.1284;
65.7000;0.7090;-3.1334;
66.0000;0.7139;-3.1259;
66.3000;0.7041;-3.1533;
66.6000;0.7106;-3.1284;
66.9000;0.7155;-3.1135;
67.2000;0.7139;-3.1184;
67.5000;0.7098;-3.1284;
67.8000;0.7139;-3.1209;
68.1000;0.7098;-3.1383;
68.4000;0.7098;-3.1358;
68.7000;0.7123;-3.1284;
69.0000;0.7139;-3.1259;
69.3000;0.7098;-3.1259;
69.6000;0.7106;-3.1184;
69.9000;0.7106;-3.1284;
70.2000;0.7074;-3.1433;
70.5000;0.7074;-3.1458;
70.8000;0.7123;-3.1334;
71.1000;0.7074;-3.1433;
71.4000;0.7131;-3.1209;
71.7000;0.7098;-3.1184;
72.0000;0.7106;-3.1110;
72.3000;0.7106;-3.1085;
72.6000;0.7090;-3.1284;
72.9000;0.7106;-3.1284;
73.2000;0.7106;-3.1309;
73.5000;0.7131;-3.1284;
73.8000;0.7106;-3.1284;
74.1000;0.7057;-3.1383;
74.4000;0.7098;-3.1259;
74.7000;0.7025;-3.1433;
75.0000;0.7082;-3.1309;
75.3000;0.7098;-3.1334;
75.6000;0.7098;-3.1334;
75.9000;0.7090;-3.1284;
76.2000;0.7106;-3.1209;
76.5000;0.7106;-3.1259;
76.8000;0.7106;-3.1284;
77.1000;0.7106;-3.1284;
77.4000;0.7090;-3.1334;
77.7000;0.7114;-3.1259;
78.0000;0.7114;-3.1259;
78.3000;0.7098;-3.1309;
78.6000;0.7123;-3.1358;
78.9000;0.7114;-3.1309;
79.2000;0.7106;-3.1234;
79.5000;0.7106;-3.1234;
79.8000;0.7106;-3.1284;
80.1000;0.7123;-3.1309;
80.4000;0.7090;-3.1259;
80.7000;0.7082;-3.1209;
81.0000;0.7082;-3.1284;
81.3000;0.7090;-3.1334;
81.6000;0.7106;-3.1408;
81.9000;0.7025;-3.1557;
82.2000;0.7106;-3.1358;
82.5000;0.7049;-3.1383;
82.8000;0.7123;-3.1184;
83.1000;0.7131;-3.1135;
83.4000;0.7147;-3.1184;
83.7000;0.7114;-3.1358;
84.0000;0.7098;-3.1458;
84.3000;0.7114;-3.1433;
84.6000;0.7106;-3.1533;
84.9000;0.7082;-3.1483;
85.2000;0.7090;-3.1483;
85.5000;0.7090;-3.1433;
85.8000;0.7098;-3.1408;
86.1000;0.7090;-3.1334;
86.4000;0.7098;-3.1234;
86.7000;0.7090;-3.1259;
87.0000;0.7049;-3.1259;
87.3000;0.7082;-3.1209;
87.6000;0.7098;-3.1284;
87.9000;0.7098;-3.1284;
88.2000;0.7098;-3.1334;
88.5000;0.7098;-3.1334;
88.8000;0.7098;-3.1234;
89.1000;0.7106;-3.1234;
89.4000;0.7106;-3.1184;
89.7000;0.7106;-3.1110;
90.0000;0.7041;-3.1234;
90.3000;0.7163;-3.0985;
90.6000;0.7098;-3.1085;
90.9000;0.7098;-3.1060;
91.2000;0.7098;-3.1060;
91.5000;0.7082;-3.1234;
91.8000;0.7139;-3.1035;
92.1000;0.7098;-3.1209;
92.4000;0.7098;-3.1184;
92.7000;0.7090;-3.1209;
93.0000;0.7114;-3.1209;
93.3000;0.7114;-3.1234;
93.6000;0.7082;-3.1334;
93.9000;0.7106;-3.1135;
94.2000;0.7114;-3.1160;
94.5000;0.7098;-3.1209;
94.8000;0.7155;-3.1110;
95.1000;0.7106;-3.1234;
95.4000;0.7098;-3.1358;
95.7000;0.7114;-3.1458;
96.0000;0.7123;-3.1358;
96.3000;0.7090;-3.1433;
96.6000;0.7082;-3.1383;
96.9000;0.7114;-3.1358;
97.2000;0.7106;-3.1358;
97.5000;0.7106;-3.1383;
97.8000;0.7196;-3.1209;
98.1000;0.7082;-3.1458;
98.4000;0.7098;-3.1433;
98.7000;0.7090;-3.1358;
99.0000;0.7090;-3.1309;
99.3000;0.7090;-3.1184;
99.6000;0.7106;-3.1209;
99.9000;0.7090;-3.1209;
100.2000;0.7090;-3.1234;
100.5000;0.7090;-3.1234;
100.8000;0.7090;-3.1160;
101.1000;0.7114;-3.1160;
101.4000;0.7123;-3.1160;
101.7000;0.7114;-3.1184;
102.0000;0.7106;-3.1259;
102.3000;0.7106;-3.1358;
102.6000;0.7106;-3.1383;
102.9000;0.7114;-3.1334;
103.2000;0.7098;-3.1458;
103.5000;0.7123;-3.1383;
103.8000;0.7179;-3.1209;
104.1000;0.7090;-3.1483;
104.4000;0.7098;-3.1508;
104.7000;0.7123;-3.1309;
105.0000;0.7106;-3.1309;
105.3000;0.7163;-3.1184;
105.6000;0.7098;-3.1408;
105.9000;0.7009;-3.1682;
106.2000;0.7098;-3.1408;
106.5000;0.7147;-3.1408;
106.8000;0.7196;-3.1209;
107.1000;0.7114;-3.1383;
107.4000;0.7114;-3.1483;
107.7000;0.7098;-3.1508;
108.0000;0.7114;-3.1508;
108.3000;0.7106;-3.1508;
108.6000;0.7098;-3.1483;
108.9000;0.7131;-3.1358;
109.2000;0.7114;-3.1334;
109.5000;0.7082;-3.1383;
109.8000;0.7098;-3.1334;
110.1000;0.7041;-3.1483;
110.4000;0.7106;-3.1408;
110.7000;0.7074;-3.1533;
111.0000;0.7114;-3.1383;
111.3000;0.7123;-3.1408;
111.6000;0.7131;-3.1458;
111.9000;0.7123;-3.1408;
112.2000;0.7123;-3.1508;
112.5000;0.7131;-3.1483;
112.8000;0.7106;-3.1533;
113.1000;0.7098;-3.1483;
113.4000;0.7098;-3.1533;
113.7000;0.7098;-3.1533;
114.0000;0.7090;-3.1557;
114.3000;0.7123;-3.1408;
114.6000;0.7090;-3.1533;
114.9000;0.7090;-3.1607;
115.2000;0.7090;-3.1582;
115.5000;0.7074;-3.1508;
115.8000;0.7147;-3.1309;
116.1000;0.7082;-3.1533;
116.4000;0.7074;-3.1582;
116.7000;0.7106;-3.1508;
117.0000;0.7106;-3.1408;
117.3000;0.7090;-3.1483;
117.6000;0.7163;-3.1259;
117.9000;0.7106;-3.1383;
118.2000;0.7098;-3.1408;
118.5000;0.7098;-3.1458;
118.8000;0.7098;-3.1483;
119.1000;0.7090;-3.1483;
119.4000;0.7114;-3.1383;
119.7000;0.7090;-3.1334;
120.0000;0.7098;-3.1334;
120.3000;0.7098;-3.1284;
120.6000;0.7098;-3.1358;
120.9000;0.7106;-3.1433;
121.2000;0.7090;-3.1458;
121.5000;0.7098;-3.1408;
121.8000;0.7114;-3.1334;
122.1000;0.7098;-3.1433;
122.4000;0.7090;-3.1458;
122.7000;0.7131;-3.1234;
123.0000;0.7098;-3.1309;
123.3000;0.7098;-3.1334;
123.6000;0.7066;-3.1358;
123.9000;0.7082;-3.1458;
124.2000;0.7106;-3.1433;
124.5000;0.7106;-3.1433;
124.8000;0.7106;-3.1483;
125.1000;0.7090;-3.1483;
125.4000;0.7098;-3.1483;
125.7000;0.7106;-3.1458;
126.0000;0.7025;-3.1632;
126.3000;0.7106;-3.1483;
126.6000;0.7106;-3.1458;
126.9000;0.7106;-3.1458;
127.2000;0.7098;-3.1582;
127.5000;0.7041;-3.1557;
127.8000;0.7098;-3.1334;
128.1000;0.7082;-3.1334;
128.4000;0.7082;-3.1334;
128.7000;0.7098;-3.1284;
129.0000;0.7082;-3.1334;
129.3000;0.7123;-3.1259;
129.6000;0.7098;-3.1358;
129.9000;0.7106;-3.1458;
130.2000;0.7098;-3.1433;
130.5000;0.7090;-3.1358;
130.8000;0.7090;-3.1259;
131.1000;0.7114;-3.1209;
131.4000;0.7163;-3.0961;
131.7000;0.7090;-3.1160;
132.0000;0.7090;-3.1160;
132.3000;0.7106;-3.1085;
132.6000;0.7074;-3.1209;
132.9000;0.7082;-3.1160;
133.2000;0.7057;-3.1234;
133.5000;0.7090;-3.1234;
133.8000;0.7049;-3.1334;
134.1000;0.7082;-3.1209;
134.4000;0.7106;-3.1209;
134.7000;0.7098;-3.1234;
135.0000;0.7098;-3.1110;
135.3000;0.7114;-3.1085;
135.6000;0.7098;-3.1209;
135.9000;0.7041;-3.1358;
136.2000;0.7106;-3.1209;
136.5000;0.7098;-3.1234;
136.8000;0.7090;-3.1284;
137.1000;0.7090;-3.1334;
137.4000;0.7098;-3.1408;
137.7000;0.7106;-3.1358;
138.0000;0.7098;-3.1408;
138.3000;0.7098;-3.1433;
138.6000;0.7098;-3.1533;
138.9000;0.7098;-3.1483;
139.2000;0.7090;-3.1508;
139.5000;0.7074;-3.1533;
139.8000;0.7098;-3.1483;
140.1000;0.7106;-3.1508;
140.4000;0.7131;-3.1358;
140.7000;0.7098;-3.1458;
141.0000;0.7033;-3.1632;
141.3000;0.7106;-3.1483;
141.6000;0.7114;-3.1483;
141.9000;0.7114;-3.1483;
142.2000;0.7106;-3.1557;
142.5000;0.7114;-3.1508;
142.8000;0.7131;-3.1383;
143.1000;0.7123;-3.1334;
143.4000;0.7090;-3.1458;
143.7000;0.7090;-3.1458;
144.0000;0.7098;-3.1483;
144.3000;0.7090;-3.1458;
144.6000;0.7098;-3.1508;
144.9000;0.7074;-3.1508;
145.2000;0.7090;-3.1483;
145.5000;0.7098;-3.1408;
145.8000;0.7098;-3.1433;
146.1000;0.7074;-3.1508;
146.4000;0.7090;-3.1533;
146.7000;0.7098;-3.1557;
147.0000;0.7082;-3.1632;
147.3000;0.7090;-3.1657;
147.6000;0.7098;-3.1607;
147.9000;0.7114;-3.1607;
148.2000;0.7131;-3.1557;
148.5000;0.7098;-3.1657;
148.8000;0.7098;-3.1557;
149.1000;0.7098;-3.1508;
149.4000;0.7098;-3.1483;
149.7000;0.7082;-3.1508;
150.0000;0.7066;-3.1607;
150.3000;0.7082;-3.1632;
150.6000;0.7090;-3.1582;
150.9000;0.7090;-3.1557;
151.2000;0.7066;-3.1557;
151.5000;0.7114;-3.1408;
151.8000;0.7082;-3.1533;
152.1000;0.7074;-3.1557;
152.4000;0.7082;-3.1508;
152.7000;0.7066;-3.1533;
153.0000;0.7074;-3.1557;
153.3000;0.7082;-3.1607;
153.6000;0.7090;-3.1557;
153.9000;0.7090;-3.1483;
154.2000;0.7074;-3.1533;
154.5000;0.7098;-3.1458;
154.8000;0.7155;-3.1334;
155.1000;0.7090;-3.1458;
155.4000;0.7106;-3.1557;
155.7000;0.7090;-3.1607;
156.0000;0.7098;-3.1632;
156.3000;0.7082;-3.1682;
156.6000;0.7066;-3.1607;
156.9000;0.7098;-3.1557;
157.2000;0.7090;-3.1557;
157.5000;0.7082;-3.1582;
157.8000;0.7090;-3.1533;
158.1000;0.7114;-3.1458;
158.4000;0.7114;-3.1483;
158.7000;0.7106;-3.1508;
159.0000;0.7090;-3.1582;
159.3000;0.7098;-3.1557;
159.6000;0.7074;-3.1533;
159.9000;0.7082;-3.1458;
160.2000;0.7098;-3.1458;
160.5000;0.7147;-3.1309;
160.8000;0.7090;-3.1458;
161.1000;0.7041;-3.1632;
161.4000;0.7106;-3.1557;
161.7000;0.7106;-3.1657;
162.0000;0.7082;-3.1831;
162.3000;0.7098;-3.1781;
162.6000;0.7106;-3.1806;
162.9000;0.7098;-3.1831;
163.2000;0.7074;-3.1906;
163.5000;0.7074;-3.1881;
163.8000;0.7074;-3.1856;
164.1000;0.7066;-3.1881;
164.4000;0.7114;-3.1831;
164.7000;0.7090;-3.1856;
165.0000;0.7106;-3.1781;
165.3000;0.7098;-3.1731;
165.6000;0.7082;-3.1707;
165.9000;0.7074;-3.1682;
166.2000;0.7090;-3.1707;
166.5000;0.7098;-3.1731;
166.8000;0.7082;-3.1707;
167.1000;0.7114;-3.1657;
167.4000;0.7090;-3.1707;
167.7000;0.7123;-3.1632;
168.0000;0.7106;-3.1632;
168.3000;0.7098;-3.1657;
168.6000;0.7074;-3.1756;
168.9000;0.7106;-3.1682;
169.2000;0.7106;-3.1731;
169.5000;0.7106;-3.1856;
169.8000;0.7098;-3.1906;
170.1000;0.7090;-3.1756;
170.4000;0.7106;-3.1632;
170.7000;0.7114;-3.1731;
171.0000;0.7090;-3.1731;
171.3000;0.7106;-3.1657;
171.6000;0.7090;-3.1607;
171.9000;0.7090;-3.1582;
172.2000;0.7090;-3.1632;
172.5000;0.7131;-3.1582;
172.8000;0.7106;-3.1632;
173.1000;0.7090;-3.1707;
173.4000;0.7074;-3.1831;
173.7000;0.7114;-3.1682;
174.0000;0.7082;-3.1731;
174.3000;0.7090;-3.1756;
174.6000;0.7090;-3.1707;
174.9000;0.7090;-3.1731;
175.2000;0.7074;-3.1707;
175.5000;0.7098;-3.1682;
175.8000;0.7074;-3.1806;
176.1000;0.7082;-3.1781;
176.4000;0.7082;-3.1806;
176.7000;0.7082;-3.1731;
177.0000;0.7098;-3.1731;
177.3000;0.7082;-3.1731;
177.6000;0.7082;-3.1707;
177.9000;0.7147;-3.1582;
178.2000;0.7098;-3.1707;
178.5000;0.7090;-3.1756;
178.8000;0.7090;-3.1707;
179.1000;0.7082;-3.1657;
179.4000;0.7090;-3.1582;
179.7000;0.7082;-3.1582;
180.0000;0.7066;-3.1582;
180.3000;0.7090;-3.1632;
180.6000;0.7098;-3.1582;
180.9000;0.7090;-3.1557;
181.2000;0.7074;-3.1582;
181.5000;0.7106;-3.1508;
181.8000;0.7106;-3.1557;
182.1000;0.7123;-3.1458;
182.4000;0.7123;-3.1408;
182.7000;0.7106;-3.1483;
183.0000;0.7123;-3.1483;
183.3000;0.7131;-3.1508;
183.6000;0.7066;-3.1707;
183.9000;0.7033;-3.1831;
184.2000;0.7098;-3.1632;
184.5000;0.7082;-3.1632;
184.8000;0.7098;-3.1582;
185.1000;0.7025;-3.1682;
185.4000;0.7106;-3.1508;
185.7000;0.7131;-3.1383;
186.0000;0.7098;-3.1607;
186.3000;0.7074;-3.1607;
186.6000;0.7106;-3.1632;
186.9000;0.7090;-3.1607;
187.2000;0.7106;-3.1682;
187.5000;0.7098;-3.1731;
187.8000;0.7090;-3.1707;
188.1000;0.7090;-3.1682;
188.4000;0.7090;-3.1582;
188.7000;0.7098;-3.1557;
189.0000;0.7131;-3.1433;
189.3000;0.7066;-3.1508;
189.6000;0.7228;-3.1135;
189.9000;0.7090;-3.1483;
190.2000;0.7082;-3.1582;
190.5000;0.7057;-3.1682;
190.8000;0.7090;-3.1657;
191.1000;0.7074;-3.1707;
191.4000;0.7090;-3.1657;
191.7000;0.7082;-3.1607;
192.0000;0.7074;-3.1607;
192.3000;0.7066;-3.1657;
192.6000;0.7098;-3.1557;
192.9000;0.7074;-3.1657;
193.2000;0.7082;-3.1682;
193.5000;0.7082;-3.1632;
193.8000;0.7123;-3.1508;
194.1000;0.7090;-3.1582;
194.4000;0.7074;-3.1582;
194.7000;0.7041;-3.1707;
195.0000;0.7082;-3.1781;
195.3000;0.7098;-3.1781;
195.6000;0.7098;-3.1806;
195.9000;0.7090;-3.1856;
196.2000;0.7090;-3.1756;
196.5000;0.7074;-3.1756;
196.8000;0.7082;-3.1806;
197.1000;0.7057;-3.1781;
197.4000;0.7090;-3.1707;
197.7000;0.7082;-3.1632;
198.0000;0.7114;-3.1557;
198.3000;0.7057;-3.1582;
198.6000;0.7082;-3.1533;
198.9000;0.7147;-3.1433;
199.2000;0.7098;-3.1483;
199.5000;0.7090;-3.1483;
199.8000;0.7074;-3.1607;
200.1000;0.7049;-3.1731;
200.4000;0.7082;-3.1657;
200.7000;0.7098;-3.1682;
201.0000;0.6976;-3.1980;
201.3000;0.7082;-3.1781;
201.6000;0.7082;-3.1881;
201.9000;0.7066;-3.1856;
202.2000;0.7066;-3.1806;
202.5000;0.7082;-3.1756;
202.8000;0.7066;-3.1781;
203.1000;0.7074;-3.1781;
203.4000;0.7082;-3.1707;
203.7000;0.7066;-3.1756;
204.0000;0.7049;-3.1731;
204.3000;0.7057;-3.1607;
204.6000;0.7090;-3.1458;
204.9000;0.7041;-3.1508;
205.2000;0.7074;-3.1408;
205.5000;0.7082;-3.1334;
205.8000;0.7188;-3.1035;
206.1000;0.7106;-3.1284;
206.4000;0.7090;-3.1408;
206.7000;0.7098;-3.1358;
207.0000;0.7049;-3.1508;
207.3000;0.7066;-3.1557;
207.6000;0.7123;-3.1458;
207.9000;0.6976;-3.1781;
208.2000;0.7155;-3.1334;
208.5000;0.7098;-3.1508;
208.8000;0.7098;-3.1483;
209.1000;0.7057;-3.1557;
209.4000;0.7098;-3.1508;
209.7000;0.7171;-3.1408;
210.0000;0.7082;-3.1632;
210.3000;0.7074;-3.1682;
210.6000;0.7074;-3.1781;
210.9000;0.7074;-3.1756;
211.2000;0.7098;-3.1731;
211.5000;0.7090;-3.1806;
211.8000;0.7098;-3.1731;
212.1000;0.7082;-3.1707;
212.4000;0.7082;-3.1657;
212.7000;0.7114;-3.1458;
213.0000;0.7090;-3.1408;
213.3000;0.7074;-3.1433;
213.6000;0.7074;-3.1483;
213.9000;0.7057;-3.1582;
214.2000;0.7057;-3.1607;
214.5000;0.7074;-3.1533;
214.8000;0.7074;-3.1533;
215.1000;0.7074;-3.1483;
215.4000;0.7082;-3.1483;
215.7000;0.7155;-3.1334;
216.0000;0.7082;-3.1508;
216.3000;0.7074;-3.1483;
216.6000;0.7074;-3.1458;
216.9000;0.7090;-3.1483;
217.2000;0.7066;-3.1408;
217.5000;0.7098;-3.1334;
217.8000;0.7082;-3.1259;
218.1000;0.7098;-3.1284;
218.4000;0.7098;-3.1334;
218.7000;0.7025;-3.1508;
219.0000;0.7098;-3.1284;
219.3000;0.7082;-3.1358;
219.6000;0.7066;-3.1483;
219.9000;0.7074;-3.1383;
220.2000;0.7090;-3.1234;
220.5000;0.7098;-3.1234;
220.8000;0.7106;-3.1309;
221.1000;0.7106;-3.1334;
221.4000;0.7106;-3.1284;
221.7000;0.7090;-3.1284;
222.0000;0.7090;-3.1358;
222.3000;0.7123;-3.1284;
222.6000;0.7082;-3.1309;
222.9000;0.7074;-3.1334;
223.2000;0.7033;-3.1458;
223.5000;0.7033;-3.1533;
223.8000;0.7066;-3.1508;
224.1000;0.7082;-3.1458;
224.4000;0.7074;-3.1557;
224.7000;0.7049;-3.1433;
225.0000;0.7131;-3.1234;
225.3000;0.7033;-3.1533;
225.6000;0.7066;-3.1309;
225.9000;0.7098;-3.1110;
226.2000;0.7066;-3.1110;
226.5000;0.7098;-3.1110;
226.8000;0.7098;-3.1234;
227.1000;0.7090;-3.1259;
227.4000;0.7090;-3.1309;
227.7000;0.7057;-3.1383;
228.0000;0.7106;-3.1334;
228.3000;0.7074;-3.1483;
228.6000;0.7057;-3.1483;
228.9000;0.7082;-3.1483;
229.2000;0.7106;-3.1433;
229.5000;0.7074;-3.1533;
229.8000;0.7025;-3.1682;
230.1000;0.7090;-3.1557;
230.4000;0.7106;-3.1433;
230.7000;0.7033;-3.1582;
231.0000;0.7033;-3.1582;
231.3000;0.7074;-3.1508;
231.6000;0.7090;-3.1433;
231.9000;0.7098;-3.1358;
232.2000;0.7082;-3.1358;
232.5000;0.7155;-3.1184;
232.8000;0.7098;-3.1383;
233.1000;0.7082;-3.1358;
233.4000;0.7114;-3.1284;
233.7000;0.7139;-3.1110;
234.0000;0.7074;-3.1334;
234.3000;0.7082;-3.1433;
234.6000;0.7114;-3.1358;
234.9000;0.7106;-3.1334;
235.2000;0.7082;-3.1358;
235.5000;0.7090;-3.1358;
235.8000;0.7082;-3.1408;
236.1000;0.7090;-3.1458;
236.4000;0.7066;-3.1483;
236.7000;0.7074;-3.1483;
237.0000;0.7066;-3.1483;
237.3000;0.7074;-3.1358;
237.6000;0.7066;-3.1358;
237.9000;0.7041;-3.1309;
238.2000;0.7049;-3.1234;
238.5000;0.7066;-3.1334;
238.8000;0.7066;-3.1309;
239.1000;0.7074;-3.1334;
239.4000;0.7066;-3.1433;
239.7000;0.7066;-3.1358;
240.0000;0.7066;-3.1358;
240.3000;0.7057;-3.1334;
240.6000;0.7057;-3.1334;
240.9000;0.7074;-3.1433;
241.2000;0.7074;-3.1383;
241.5000;0.7057;-3.1383;
241.8000;0.7098;-3.1309;
242.1000;0.7090;-3.1408;
242.4000;0.7090;-3.1433;
242.7000;0.7147;-3.1334;
243.0000;0.7082;-3.1383;
243.3000;0.7066;-3.1383;
243.6000;0.7074;-3.1334;
243.9000;0.7114;-3.1284;
244.2000;0.7082;-3.1284;
244.5000;0.7074;-3.1334;
244.8000;0.7074;-3.1358;
245.1000;0.7074;-3.1433;
245.4000;0.7074;-3.1483;
245.7000;0.7082;-3.1408;
246.0000;0.7090;-3.1458;
246.3000;0.7074;-3.1508;
246.6000;0.7082;-3.1383;
246.9000;0.7074;-3.1483;
247.2000;0.7074;-3.1483;
247.5000;0.7033;-3.1557;
247.8000;0.7057;-3.1458;
248.1000;0.7082;-3.1508;
248.4000;0.7074;-3.1483;
248.7000;0.7106;-3.1458;
249.0000;0.7066;-3.1508;
249.3000;0.7057;-3.1483;
249.6000;0.7066;-3.1533;
249.9000;0.7057;-3.1458;
250.2000;0.7066;-3.1458;
250.5000;0.7066;-3.1508;
250.8000;0.7049;-3.1632;
251.1000;0.7074;-3.1533;
251.4000;0.7066;-3.1657;
251.7000;0.7074;-3.1607;
252.0000;0.7066;-3.1607;
252.3000;0.7066;-3.1557;
252.6000;0.7074;-3.1383;
252.9000;0.7082;-3.1383;
253.2000;0.7082;-3.1458;
253.5000;0.7066;-3.1483;
253.8000;0.7066;-3.1458;
254.1000;0.7123;-3.1309;
254.4000;0.7066;-3.1358;
254.7000;0.7074;-3.1284;
255.0000;0.7066;-3.1259;
255.3000;0.7074;-3.1259;
255.6000;0.7017;-3.1334;
255.9000;0.7066;-3.1209;
256.2000;0.7057;-3.1284;
256.5000;0.7074;-3.1259;
256.8000;0.7082;-3.1309;
257.1000;0.7057;-3.1358;
257.4000;0.7066;-3.1458;
257.7000;0.7074;-3.1408;
258.0000;0.7074;-3.1408;
258.3000;0.7074;-3.1557;
258.6000;0.7049;-3.1557;
258.9000;0.7082;-3.1433;
259.2000;0.7074;-3.1433;
259.5000;0.7057;-3.1458;
259.8000;0.7049;-3.1533;
260.1000;0.7066;-3.1483;
260.4000;0.7074;-3.1408;
260.7000;0.7074;-3.1408;
261.0000;0.7082;-3.1358;
261.3000;0.7066;-3.1383;
261.6000;0.7074;-3.1408;
261.9000;0.7090;-3.1458;
262.2000;0.7066;-3.1483;
262.5000;0.7066;-3.1557;
262.8000;0.7025;-3.1682;
263.1000;0.7082;-3.1557;
263.4000;0.7082;-3.1458;
263.7000;0.7066;-3.1483;
264.0000;0.7082;-3.1358;
264.3000;0.7098;-3.1334;
264.6000;0.7074;-3.1309;
264.9000;0.7090;-3.1209;
265.2000;0.7066;-3.1184;
265.5000;0.7066;-3.1160;
265.8000;0.7074;-3.1184;
266.1000;0.7082;-3.1160;
266.4000;0.7098;-3.1234;
266.7000;0.7057;-3.1334;
267.0000;0.7074;-3.1284;
267.3000;0.7049;-3.1334;
267.6000;0.7033;-3.1334;
267.9000;0.7098;-3.1259;
268.2000;0.7114;-3.1284;
268.5000;0.7090;-3.1334;
268.8000;0.7090;-3.1433;
269.1000;0.7082;-3.1433;
269.4000;0.7066;-3.1383;
269.7000;0.7074;-3.1433;
270.0000;0.7082;-3.1408;
270.3000;0.7066;-3.1383;
270.6000;0.7066;-3.1284;
270.9000;0.7057;-3.1234;
271.2000;0.7082;-3.1135;
271.5000;0.7057;-3.1209;
271.8000;0.7057;-3.1234;
272.1000;0.7057;-3.1160;
272.4000;0.7074;-3.1085;
272.7000;0.7057;-3.1135;
273.0000;0.7017;-3.1383;
273.3000;0.7057;-3.1259;
273.6000;0.7057;-3.1160;
273.9000;0.7049;-3.1085;
274.2000;0.7025;-3.1135;
274.5000;0.7057;-3.1110;
274.8000;0.7066;-3.1160;
275.1000;0.7041;-3.1234;
275.4000;0.7057;-3.1184;
275.7000;0.7082;-3.1160;
276.0000;0.7082;-3.1234;
276.3000;0.7082;-3.1309;
276.6000;0.7074;-3.1334;
276.9000;0.7009;-3.1433;
277.2000;0.7025;-3.1334;
277.5000;0.7057;-3.1209;
277.8000;0.7106;-3.1110;
278.1000;0.7082;-3.1110;
278.4000;0.7074;-3.1160;
278.7000;0.7098;-3.1010;
279.0000;0.7131;-3.1060;
279.3000;0.7066;-3.1234;
279.6000;0.7074;-3.1234;
279.9000;0.7066;-3.1284;
280.2000;0.7082;-3.1259;
280.5000;0.7074;-3.1309;
280.8000;0.7057;-3.1408;
281.1000;0.7171;-3.1110;
281.4000;0.7090;-3.1334;
281.7000;0.7074;-3.1433;
282.0000;0.7066;-3.1433;
282.3000;0.7049;-3.1334;
282.6000;0.7057;-3.1284;
282.9000;0.7033;-3.1508;
283.2000;0.7074;-3.1483;
283.5000;0.7057;-3.1508;
283.8000;0.7041;-3.1557;
284.1000;0.7066;-3.1483;
284.4000;0.7041;-3.1582;
284.7000;0.7041;-3.1582;
285.0000;0.7066;-3.1458;
285.3000;0.7057;-3.1309;
285.6000;0.7066;-3.1358;
285.9000;0.7057;-3.1383;
286.2000;0.7049;-3.1408;
286.5000;0.7066;-3.1458;
286.8000;0.7057;-3.1533;
287.1000;0.7049;-3.1632;
287.4000;0.7049;-3.1632;
287.7000;0.7057;-3.1607;
288.0000;0.7066;-3.1508;
288.3000;0.7057;-3.1483;
288.6000;0.6943;-3.1831;
288.9000;0.7057;-3.1607;
289.2000;0.7066;-3.1557;
289.5000;0.7057;-3.1458;
289.8000;0.7057;-3.1408;
290.1000;0.7057;-3.1483;
290.4000;0.7057;-3.1533;
290.7000;0.7057;-3.1533;
291.0000;0.7049;-3.1533;
291.3000;0.7049;-3.1557;
291.6000;0.7066;-3.1582;
291.9000;0.7074;-3.1557;
292.2000;0.7057;-3.1483;
292.5000;0.7049;-3.1483;
292.8000;0.7057;-3.1383;
293.1000;0.7074;-3.1259;
293.4000;0.7057;-3.1358;
293.7000;0.7049;-3.1433;
294.0000;0.7017;-3.1483;
294.3000;0.7041;-3.1458;
294.6000;0.7074;-3.1383;
294.9000;0.7074;-3.1408;
295.2000;0.7082;-3.1334;
295.5000;0.7057;-3.1383;
295.8000;0.7066;-3.1383;
296.1000;0.7098;-3.1259;
296.4000;0.7066;-3.1383;
296.7000;0.7066;-3.1383;
297.0000;0.7017;-3.1433;
297.3000;0.7106;-3.1184;
297.6000;0.7057;-3.1334;
297.9000;0.7041;-3.1259;
298.2000;0.7049;-3.1309;
298.5000;0.7082;-3.1234;
298.8000;0.7057;-3.1309;
299.1000;0.7025;-3.1334;
299.4000;0.7066;-3.1160;
299.7000;0.7066;-3.1110;
300.0000;0.7057;-3.1309;
300.3000;0.7049;-3.1408;
300.6000;0.7033;-3.1383;
300.9000;0.7057;-3.1334;
301.2000;0.7082;-3.1234;
301.5000;0.7049;-3.1284;
301.8000;0.7057;-3.1284;
302.1000;0.7009;-3.1383;
302.4000;0.7066;-3.1284;
302.7000;0.7098;-3.1184;
303.0000;0.7098;-3.1209;
303.3000;0.7066;-3.1334;
303.6000;0.7066;-3.1309;
303.9000;0.7114;-3.1184;
304.2000;0.7057;-3.1334;
304.5000;0.7066;-3.1284;
304.8000;0.7074;-3.1284;
305.1000;0.7082;-3.1259;
305.4000;0.7082;-3.1334;
305.7000;0.7066;-3.1334;
306.0000;0.7082;-3.1284;
306.3000;0.7082;-3.1309;
306.6000;0.7082;-3.1284;
306.9000;0.7082;-3.1259;
307.2000;0.7057;-3.1358;
307.5000;0.7082;-3.1383;
307.8000;0.7090;-3.1334;
308.1000;0.7066;-3.1334;
308.4000;0.7066;-3.1284;
308.7000;0.7033;-3.1284;
309.0000;0.7049;-3.1209;
309.3000;0.7049;-3.1110;
309.6000;0.7057;-3.1085;
309.9000;0.7057;-3.1135;
310.2000;0.7057;-3.1209;
310.5000;0.7049;-3.1284;
310.8000;0.7057;-3.1383;
311.1000;0.7074;-3.1383;
311.4000;0.7082;-3.1309;
311.7000;0.7066;-3.1334;
312.0000;0.7066;-3.1408;
312.3000;0.7057;-3.1408;
312.6000;0.7098;-3.1334;
312.9000;0.7074;-3.1358;
313.2000;0.7066;-3.1408;
313.5000;0.7049;-3.1383;
313.8000;0.7066;-3.1334;
314.1000;0.7049;-3.1259;
314.4000;0.7066;-3.1284;
314.7000;0.7057;-3.1383;
315.0000;0.7057;-3.1334;
315.3000;0.7041;-3.1383;
315.6000;0.7066;-3.1259;
315.9000;0.7066;-3.1309;
316.2000;0.7066;-3.1334;
316.5000;0.7057;-3.1259;
316.8000;0.7057;-3.1209;
317.1000;0.7074;-3.1060;
317.4000;0.7033;-3.1234;
317.7000;0.7066;-3.1259;
318.0000;0.7041;-3.1358;
318.3000;0.7041;-3.1383;
318.6000;0.7114;-3.1135;
318.9000;0.7163;-3.0936;
319.2000;0.7049;-3.1284;
319.5000;0.7049;-3.1234;
319.8000;0.7049;-3.1309;
320.1000;0.7082;-3.1334;
320.4000;0.7049;-3.1483;
320.7000;0.7082;-3.1383;
321.0000;0.7066;-3.1309;
321.3000;0.7049;-3.1358;
321.6000;0.7057;-3.1259;
321.9000;0.7074;-3.1184;
322.2000;0.7074;-3.1284;
322.5000;0.7074;-3.1358;
322.8000;0.7049;-3.1483;
323.1000;0.7049;-3.1508;
323.4000;0.7066;-3.1483;
323.7000;0.7066;-3.1508;
324.0000;0.7057;-3.1533;
324.3000;0.7041;-3.1582;
324.6000;0.7074;-3.1533;
324.9000;0.7066;-3.1483;
325.2000;0.7057;-3.1383;
325.5000;0.7066;-3.1358;
325.8000;0.7049;-3.1408;
326.1000;0.7025;-3.1483;
326.4000;0.7057;-3.1458;
326.7000;0.7074;-3.1483;
327.0000;0.7074;-3.1433;
327.3000;0.7066;-3.1408;
327.6000;0.7066;-3.1408;
327.9000;0.7066;-3.1358;
328.2000;0.7066;-3.1284;
328.5000;0.7066;-3.1234;
328.8000;0.7049;-3.1259;
329.1000;0.7049;-3.1184;
329.4000;0.7057;-3.1209;
329.7000;0.7049;-3.1259;
330.0000;0.7074;-3.1110;
330.3000;0.7074;-3.1110;
330.6000;0.7057;-3.1160;
330.9000;0.7057;-3.1184;
331.2000;0.7066;-3.1085;
331.5000;0.7057;-3.1035;
331.8000;0.7066;-3.1110;
332.1000;0.7057;-3.1085;
332.4000;0.7057;-3.1135;
332.7000;0.7082;-3.1160;
333.0000;0.7066;-3.1259;
333.3000;0.7057;-3.1383;
333.6000;0.7066;-3.1284;
333.9000;0.7017;-3.1458;
334.2000;0.7049;-3.1358;
334.5000;0.7049;-3.1334;
334.8000;0.7057;-3.1284;
335.1000;0.7057;-3.1334;
335.4000;0.7057;-3.1358;
335.7000;0.7049;-3.1358;
336.0000;0.7049;-3.1408;
336.3000;0.7057;-3.1284;
336.6000;0.7041;-3.1383;
336.9000;0.7033;-3.1408;
337.2000;0.7041;-3.1259;
337.5000;0.7074;-3.1234;
337.8000;0.7049;-3.1284;
338.1000;0.7009;-3.1383;
338.4000;0.7074;-3.1184;
338.7000;0.7074;-3.1209;
339.0000;0.7090;-3.1259;
339.3000;0.7074;-3.1284;
339.6000;0.7057;-3.1383;
339.9000;0.7090;-3.1259;
340.2000;0.7066;-3.1309;
340.5000;0.7066;-3.1334;
340.8000;0.7057;-3.1408;
341.1000;0.7041;-3.1383;
341.4000;0.7098;-3.1284;
341.7000;0.7066;-3.1383;
342.0000;0.7033;-3.1408;
342.3000;0.7049;-3.1259;
342.6000;0.7033;-3.1259;
342.9000;0.7074;-3.1209;
343.2000;0.7090;-3.1209;
343.5000;0.7066;-3.1209;
343.8000;0.7074;-3.1284;
344.1000;0.7066;-3.1234;
344.4000;0.7082;-3.1209;
344.7000;0.7066;-3.1334;
345.0000;0.7025;-3.1383;
345.3000;0.7171;-3.0985;
345.6000;0.7082;-3.1234;
345.9000;0.7066;-3.1184;
346.2000;0.7066;-3.1184;
346.5000;0.7033;-3.1358;
346.8000;0.7074;-3.1309;
347.1000;0.7057;-3.1433;
347.4000;0.7049;-3.1383;
347.7000;0.7000;-3.1433;
348.0000;0.7049;-3.1383;
348.3000;0.7057;-3.1358;
348.6000;0.7066;-3.1334;
348.9000;0.7049;-3.1334;
349.2000;0.7057;-3.1284;
349.5000;0.7082;-3.1085;
349.8000;0.7074;-3.1060;
350.1000;0.7066;-3.1035;
350.4000;0.7057;-3.1010;
350.7000;0.7066;-3.1035;
351.0000;0.7082;-3.1035;
351.3000;0.7066;-3.1035;
351.6000;0.7025;-3.1234;
351.9000;0.7066;-3.1184;
352.2000;0.7057;-3.1184;
352.5000;0.7017;-3.1284;
352.8000;0.7041;-3.1259;
353.1000;0.7049;-3.1259;
353.4000;0.7057;-3.1334;
353.7000;0.7049;-3.1358;
354.0000;0.7066;-3.1334;
354.3000;0.7057;-3.1408;
354.6000;0.7057;-3.1458;
354.9000;0.7057;-3.1408;
355.2000;0.7057;-3.1408;
355.5000;0.7066;-3.1383;
355.8000;0.7082;-3.1309;
356.1000;0.7049;-3.1358;
356.4000;0.6943;-3.1557;
356.7000;0.7057;-3.1334;
357.0000;0.7066;-3.1309;
357.3000;0.7057;-3.1259;
357.6000;0.7000;-3.1334;
357.9000;0.7155;-3.0961;
358.2000;0.7082;-3.1160;
358.5000;0.7057;-3.1259;
358.8000;0.7049;-3.1284;
359.1000;0.7074;-3.1209;
359.4000;0.7041;-3.1309;
359.7000;0.7049;-3.1209;
360.0000;0.7041;-3.1110;
360.3000;0.7057;-3.1010;
360.6000;0.7049;-3.1135;
360.9000;0.7074;-3.1110;
361.2000;0.7074;-3.1160;
361.5000;0.7074;-3.1209;
361.8000;0.7025;-3.1334;
362.1000;0.7057;-3.1334;
362.4000;0.7025;-3.1383;
362.7000;0.7098;-3.1209;
363.0000;0.7123;-3.1135;
363.3000;0.7057;-3.1184;
363.6000;0.7066;-3.1184;
363.9000;0.7066;-3.1160;
364.2000;0.7074;-3.1259;
364.5000;0.7098;-3.1135;
364.8000;0.6968;-3.1458;
365.1000;0.7057;-3.1234;
365.4000;0.7106;-3.1060;
365.7000;0.7066;-3.1234;
366.0000;0.7049;-3.1284;
366.3000;0.7106;-3.1259;
366.6000;0.7066;-3.1309;
366.9000;0.7057;-3.1284;
367.2000;0.7057;-3.1309;
367.5000;0.7041;-3.1383;
367.8000;0.7066;-3.1309;
368.1000;0.7066;-3.1433;
368.4000;0.7049;-3.1433;
368.7000;0.7057;-3.1358;
369.0000;0.7057;-3.1309;
369.3000;0.7066;-3.1309;
369.6000;0.7074;-3.1234;
369.9000;0.7049;-3.1284;
370.2000;0.7049;-3.1135;
370.5000;0.7049;-3.1135;
370.8000;0.7049;-3.1184;
371.1000;0.7139;-3.0886;
371.4000;0.7066;-3.1035;
371.7000;0.7041;-3.1135;
372.0000;0.7057;-3.1184;
372.3000;0.7041;-3.1284;
372.6000;0.7017;-3.1259;
372.9000;0.7025;-3.1334;
373.2000;0.7009;-3.1358;
373.5000;0.7057;-3.1184;
373.8000;0.7066;-3.1234;
374.1000;0.7057;-3.1284;
374.4000;0.7057;-3.1259;
374.7000;0.7033;-3.1284;
375.0000;0.7074;-3.1284;
375.3000;0.7049;-3.1334;
375.6000;0.7049;-3.1358;
375.9000;0.7066;-3.1309;
376.2000;0.7049;-3.1383;
376.5000;0.7041;-3.1483;
376.8000;0.7066;-3.1433;
377.1000;0.7106;-3.1259;
377.4000;0.7049;-3.1408;
377.7000;0.7041;-3.1483;
378.0000;0.7057;-3.1557;
378.3000;0.7066;-3.1632;
378.6000;0.7057;-3.1582;
378.9000;0.7090;-3.1483;
379.2000;0.7066;-3.1533;
379.5000;0.7057;-3.1533;
379.8000;0.7057;-3.1508;
380.1000;0.7041;-3.1557;
380.4000;0.7049;-3.1408;
380.7000;0.7057;-3.1309;
381.0000;0.7066;-3.1309;
381.3000;0.7049;-3.1284;
381.6000;0.7049;-3.1309;
381.9000;0.7033;-3.1408;
382.2000;0.7049;-3.1309;
382.5000;0.7057;-3.1234;
382.8000;0.7049;-3.1284;
383.1000;0.7041;-3.1309;
383.4000;0.7057;-3.1284;
383.7000;0.7033;-3.1259;
384.0000;0.7009;-3.1334;
384.3000;0.7066;-3.1259;
384.6000;0.7049;-3.1234;
384.9000;0.7057;-3.1284;
385.2000;0.7041;-3.1334;
385.5000;0.7057;-3.1358;
385.8000;0.7057;-3.1309;
386.1000;0.7066;-3.1234;
386.4000;0.7074;-3.1209;
386.7000;0.7057;-3.1234;
387.0000;0.7057;-3.1284;
387.3000;0.7049;-3.1334;
387.6000;0.7017;-3.1433;
387.9000;0.7057;-3.1383;
388.2000;0.7049;-3.1408;
388.5000;0.7082;-3.1334;
388.8000;0.7049;-3.1358;
389.1000;0.7033;-3.1259;
389.4000;0.7147;-3.1060;
389.7000;0.7041;-3.1334;
390.0000;0.7041;-3.1383;
390.3000;0.7057;-3.1433;
390.6000;0.7090;-3.1383;
390.9000;0.7090;-3.1358;
391.2000;0.7041;-3.1408;
391.5000;0.7131;-3.1284;
391.8000;0.7057;-3.1383;
392.1000;0.7057;-3.1334;
392.4000;0.7041;-3.1383;
392.7000;0.7049;-3.1383;
393.0000;0.7066;-3.1334;
393.3000;0.7049;-3.1334;
393.6000;0.7049;-3.1358;
393.9000;0.7098;-3.1184;
394.2000;0.7049;-3.1234;
394.5000;0.7057;-3.1259;
394.8000;0.7066;-3.1358;
395.1000;0.6943;-3.1781;
395.4000;0.7074;-3.1433;
395.7000;0.7033;-3.1458;
396.0000;0.7074;-3.1358;
396.3000;0.7049;-3.1309;
396.6000;0.7074;-3.1284;
396.9000;0.7041;-3.1358;
397.2000;0.7041;-3.1408;
397.5000;0.7057;-3.1334;
397.8000;0.7049;-3.1309;
398.1000;0.7049;-3.1334;
398.4000;0.7057;-3.1408;
398.7000;0.7082;-3.1309;
399.0000;0.7066;-3.1234;
399.3000;0.7066;-3.1259;
399.6000;0.7025;-3.1358;
399.9000;0.7066;-3.1184;
400.2000;0.7057;-3.1209;
400.5000;0.7057;-3.1184;
400.8000;0.7057;-3.1259;
401.1000;0.6952;-3.1508;
401.4000;0.7041;-3.1309;
401.7000;0.7074;-3.1184;
402.0000;0.7033;-3.1234;
402.3000;0.7041;-3.1259;
402.6000;0.7025;-3.1259;
402.9000;0.7041;-3.1234;
403.2000;0.7041;-3.1259;
403.5000;0.7041;-3.1259;
403.8000;0.7074;-3.1209;
404.1000;0.7066;-3.1184;
404.4000;0.7057;-3.1160;
404.7000;0.7057;-3.1060;
405.0000;0.7057;-3.1135;
405.3000;0.7066;-3.1035;
405.6000;0.7025;-3.1259;
405.9000;0.7074;-3.1209;
406.2000;0.7057;-3.1234;
406.5000;0.7082;-3.1160;
406.8000;0.7041;-3.1309;
407.1000;0.7074;-3.1060;
407.4000;0.7041;-3.1135;
407.7000;0.7057;-3.1135;
408.0000;0.7057;-3.1110;
408.3000;0.7049;-3.1234;
408.6000;0.7066;-3.1209;
408.9000;0.7066;-3.1284;
409.2000;0.7066;-3.1259;
409.5000;0.7049;-3.1358;
409.8000;0.7090;-3.1284;
410.1000;0.7049;-3.1408;
410.4000;0.7025;-3.1433;
410.7000;0.7009;-3.1458;
411.0000;0.7049;-3.1334;
411.3000;0.7033;-3.1334;
411.6000;0.7025;-3.1284;
411.9000;0.6976;-3.1408;
412.2000;0.7041;-3.1334;
412.5000;0.7033;-3.1358;
412.8000;0.7041;-3.1259;
413.1000;0.7033;-3.1259;
413.4000;0.7057;-3.1135;
413.7000;0.7049;-3.1060;
414.0000;0.7041;-3.1160;
414.3000;0.7057;-3.1160;
414.6000;0.7049;-3.1209;
414.9000;0.7074;-3.1184;
415.2000;0.7049;-3.1259;
415.5000;0.7041;-3.1284;
415.8000;0.7066;-3.1184;
416.1000;0.7098;-3.1035;
416.4000;0.7057;-3.1085;
416.7000;0.7049;-3.1135;
417.0000;0.7057;-3.1085;
417.3000;0.7033;-3.1110;
417.6000;0.7057;-3.1035;
417.9000;0.7041;-3.1010;
418.2000;0.7017;-3.1234;
418.5000;0.7066;-3.1135;
418.8000;0.7057;-3.1209;
419.1000;0.7074;-3.1234;
419.4000;0.7041;-3.1309;
419.7000;0.7057;-3.1284;
420.0000;0.7025;-3.1383;
420.3000;0.7041;-3.1383;
420.6000;0.7049;-3.1458;
420.9000;0.7049;-3.1433;
421.2000;0.7049;-3.1433;
421.5000;0.7025;-3.1458;
421.8000;0.7049;-3.1433;
422.1000;0.7114;-3.1259;
422.4000;0.7049;-3.1383;
422.7000;0.7057;-3.1383;
423.0000;0.7049;-3.1358;
423.3000;0.7033;-3.1433;
423.6000;0.7033;-3.1408;
423.9000;0.7041;-3.1383;
424.2000;0.7041;-3.1309;
424.5000;0.7033;-3.1383;
424.8000;0.7041;-3.1358;
425.1000;0.7033;-3.1334;
425.4000;0.7049;-3.1234;
425.7000;0.7033;-3.1259;
426.0000;0.7057;-3.1135;
426.3000;0.7049;-3.1135;
426.6000;0.7041;-3.1184;
426.9000;0.7131;-3.1010;
427.2000;0.7057;-3.1209;
427.5000;0.7033;-3.1234;
427.8000;0.7033;-3.1284;
428.1000;0.7057;-3.1309;
428.4000;0.7049;-3.1334;
428.7000;0.7041;-3.1383;
429.0000;0.7041;-3.1458;
429.3000;0.7057;-3.1383;
429.6000;0.7049;-3.1383;
429.9000;0.7041;-3.1433;
430.2000;0.7033;-3.1408;
430.5000;0.7049;-3.1408;
430.8000;0.7041;-3.1408;
431.1000;0.7049;-3.1408;
431.4000;0.7049;-3.1408;
431.7000;0.7057;-3.1334;
432.0000;0.7057;-3.1334;
432.3000;0.7057;-3.1383;
432.6000;0.7041;-3.1383;
432.9000;0.7009;-3.1533;
433.2000;0.7049;-3.1408;
433.5000;0.7025;-3.1458;
433.8000;0.7090;-3.1309;
434.1000;0.7041;-3.1383;
434.4000;0.7009;-3.1433;
434.7000;0.7057;-3.1284;
435.0000;0.7123;-3.1060;
435.3000;0.7041;-3.1284;
435.6000;0.7033;-3.1309;
435.9000;0.7090;-3.1160;
436.2000;0.7049;-3.1334;
436.5000;0.7033;-3.1358;
436.8000;0.7074;-3.1209;
437.1000;0.7074;-3.1259;
437.4000;0.6968;-3.1483;
437.7000;0.7049;-3.1259;
438.0000;0.7025;-3.1358;
438.3000;0.7025;-3.1358;
438.6000;0.7049;-3.1358;
438.9000;0.7114;-3.1184;
439.2000;0.7049;-3.1309;
439.5000;0.7114;-3.1085;
439.8000;0.7025;-3.1334;
440.1000;0.7057;-3.1259;
440.4000;0.7017;-3.1209;
440.7000;0.7033;-3.1209;
441.0000;0.7066;-3.1085;
441.3000;0.7017;-3.1209;
441.6000;0.7041;-3.1284;
441.9000;0.7041;-3.1284;
442.2000;0.7082;-3.1209;
442.5000;0.7041;-3.1358;
442.8000;0.7041;-3.1334;
443.1000;0.7017;-3.1458;
443.4000;0.7041;-3.1433;
443.7000;0.7025;-3.1508;
444.0000;0.7041;-3.1383;
444.3000;0.7041;-3.1458;
444.6000;0.7041;-3.1483;
444.9000;0.7057;-3.1408;
445.2000;0.7098;-3.1259;
445.5000;0.7017;-3.1408;
445.8000;0.7049;-3.1334;
446.1000;0.7041;-3.1284;
446.4000;0.7033;-3.1184;
446.7000;0.7033;-3.1259;
447.0000;0.7041;-3.1408;
447.3000;0.7049;-3.1408;
447.6000;0.7049;-3.1358;
447.9000;0.7066;-3.1334;
448.2000;0.7033;-3.1408;
448.5000;0.7041;-3.1383;
448.8000;0.7057;-3.1284;
449.1000;0.7066;-3.1284;
449.4000;0.7041;-3.1458;
449.7000;0.7090;-3.1284;
450.0000;0.7066;-3.1358;
450.3000;0.7049;-3.1358;
450.6000;0.7041;-3.1408;
450.9000;0.7049;-3.1458;
451.2000;0.7049;-3.1433;
451.5000;0.7041;-3.1433;
451.8000;0.6960;-3.1756;
452.1000;0.7009;-3.1607;
452.4000;0.7041;-3.1483;
452.7000;0.7074;-3.1334;
453.0000;0.7033;-3.1408;
453.3000;0.7049;-3.1358;
453.6000;0.7041;-3.1383;
453.9000;0.7049;-3.1309;
454.2000;0.7066;-3.1234;
454.5000;0.7041;-3.1309;
454.8000;0.7041;-3.1284;
455.1000;0.7033;-3.1408;
455.4000;0.7074;-3.1334;
455.7000;0.7049;-3.1383;
456.0000;0.7000;-3.1433;
456.3000;0.7057;-3.1209;
456.6000;0.7057;-3.1209;
456.9000;0.7066;-3.1209;
457.2000;0.7057;-3.1234;
457.5000;0.7074;-3.1259;
457.8000;0.7082;-3.1259;
458.1000;0.7041;-3.1383;
458.4000;0.7114;-3.1259;
458.7000;0.7049;-3.1433;
459.0000;0.6992;-3.1533;
459.3000;0.7066;-3.1259;
459.6000;0.7033;-3.1259;
459.9000;0.7033;-3.1259;
460.2000;0.6984;-3.1358;
460.5000;0.7049;-3.1135;
460.8000;0.7057;-3.1160;
461.1000;0.7074;-3.1135;
461.4000;0.7049;-3.1284;
461.7000;0.7057;-3.1408;
462.0000;0.7049;-3.1383;
462.3000;0.7033;-3.1458;
462.6000;0.7041;-3.1458;
462.9000;0.7057;-3.1408;
463.2000;0.7041;-3.1533;
463.5000;0.7049;-3.1383;
463.8000;0.7041;-3.1433;
464.1000;0.7025;-3.1433;
464.4000;0.7049;-3.1433;
464.7000;0.7017;-3.1458;
465.0000;0.7033;-3.1383;
465.3000;0.7025;-3.1358;
465.6000;0.7041;-3.1358;
465.9000;0.7033;-3.1483;
466.2000;0.7025;-3.1433;
466.5000;0.7033;-3.1383;
466.8000;0.7033;-3.1383;
467.1000;0.7033;-3.1508;
467.4000;0.7049;-3.1483;
467.7000;0.7025;-3.1533;
468.0000;0.7049;-3.1632;
468.3000;0.7000;-3.1731;
468.6000;0.7057;-3.1483;
468.9000;0.7025;-3.1483;
469.2000;0.7017;-3.1433;
469.5000;0.7049;-3.1433;
469.8000;0.7009;-3.1433;
470.1000;0.7033;-3.1483;
470.4000;0.7041;-3.1582;
470.7000;0.7033;-3.1483;
471.0000;0.7041;-3.1458;
471.3000;0.7041;-3.1433;
471.6000;0.7041;-3.1383;
471.9000;0.7009;-3.1433;
472.2000;0.7033;-3.1458;
472.5000;0.7033;-3.1458;
472.8000;0.7025;-3.1483;
473.1000;0.7033;-3.1433;
473.4000;0.7049;-3.1458;
473.7000;0.7074;-3.1383;
474.0000;0.7025;-3.1458;
474.3000;0.7057;-3.1309;
474.6000;0.7017;-3.1383;
474.9000;0.7033;-3.1284;
475.2000;0.7033;-3.1383;
475.5000;0.7009;-3.1408;
475.8000;0.6943;-3.1582;
476.1000;0.7025;-3.1433;
476.4000;0.7017;-3.1533;
476.7000;0.7033;-3.1483;
477.0000;0.7041;-3.1582;
477.3000;0.7041;-3.1607;
477.6000;0.7041;-3.1557;
477.9000;0.7041;-3.1508;
478.2000;0.7049;-3.1458;
478.5000;0.7033;-3.1557;
478.8000;0.7041;-3.1458;
479.1000;0.7041;-3.1433;
479.4000;0.7033;-3.1433;
479.7000;0.7033;-3.1433;
480.0000;0.7009;-3.1508;
480.3000;0.7033;-3.1433;
480.6000;0.7041;-3.1358;
480.9000;0.7074;-3.1334;
481.2000;0.7041;-3.1458;
481.5000;0.7041;-3.1458;
481.8000;0.7041;-3.1458;
482.1000;0.7033;-3.1483;
482.4000;0.7041;-3.1383;
482.7000;0.7041;-3.1334;
483.0000;0.7009;-3.1408;
483.3000;0.7033;-3.1458;
483.6000;0.7041;-3.1433;
483.9000;0.7074;-3.1284;
484.2000;0.7049;-3.1284;
484.5000;0.6984;-3.1557;
484.8000;0.7017;-3.1483;
485.1000;0.7033;-3.1433;
485.4000;0.6960;-3.1557;
485.7000;0.7025;-3.1483;
486.0000;0.7066;-3.1383;
486.3000;0.7025;-3.1508;
486.6000;0.7033;-3.1458;
486.9000;0.7041;-3.1483;
487.2000;0.7033;-3.1433;
487.5000;0.7000;-3.1508;
487.8000;0.7074;-3.1334;
488.1000;0.7033;-3.1408;
488.4000;0.7025;-3.1433;
488.7000;0.7009;-3.1408;
489.0000;0.7033;-3.1284;
489.3000;0.7033;-3.1309;
489.6000;0.7025;-3.1259;
489.9000;0.7017;-3.1334;
490.2000;0.7033;-3.1334;
490.5000;0.7025;-3.1433;
490.8000;0.7066;-3.1309;
491.1000;0.7041;-3.1383;
491.4000;0.7025;-3.1309;
491.7000;0.7049;-3.1259;
492.0000;0.7057;-3.1160;
492.3000;0.7025;-3.1110;
492.6000;0.7033;-3.1110;
492.9000;0.7041;-3.1135;
493.2000;0.7033;-3.1160;
493.5000;0.7049;-3.1209;
493.8000;0.7033;-3.1309;
494.1000;0.7017;-3.1334;
494.4000;0.7033;-3.1334;
494.7000;0.7041;-3.1408;
495.0000;0.7009;-3.1533;
495.3000;0.7041;-3.1533;
495.6000;0.7057;-3.1483;
495.9000;0.7049;-3.1433;
496.2000;0.6992;-3.1483;
496.5000;0.7000;-3.1458;
496.8000;0.7049;-3.1334;
497.1000;0.7041;-3.1358;
497.4000;0.7049;-3.1259;
497.7000;0.6992;-3.1483;
498.0000;0.7041;-3.1358;
498.3000;0.7025;-3.1358;
498.6000;0.7057;-3.1334;
498.9000;0.7033;-3.1334;
499.2000;0.7025;-3.1458;
499.5000;0.7041;-3.1309;
499.8000;0.7041;-3.1309;
500.1000;0.7066;-3.1259;
500.4000;0.7041;-3.1309;
500.7000;0.7049;-3.1184;
501.0000;0.7057;-3.1110;
501.3000;0.7049;-3.1110;
501.6000;0.7017;-3.1259;
501.9000;0.7033;-3.1259;
502.2000;0.7057;-3.1309;
502.5000;0.7041;-3.1309;
502.8000;0.7033;-3.1284;
503.1000;0.7033;-3.1358;
503.4000;0.7033;-3.1383;
503.7000;0.7066;-3.1284;
504.0000;0.7033;-3.1408;
504.3000;0.7025;-3.1383;
504.6000;0.6968;-3.1483;
504.9000;0.7033;-3.1358;
505.2000;0.7033;-3.1358;
505.5000;0.7017;-3.1458;
505.8000;0.7025;-3.1433;
506.1000;0.7082;-3.1309;
506.4000;0.7033;-3.1383;
506.7000;0.7025;-3.1433;
507.0000;0.7033;-3.1458;
507.3000;0.7049;-3.1408;
507.6000;0.7041;-3.1383;
507.9000;0.7041;-3.1309;
508.2000;0.7041;-3.1334;
508.5000;0.6992;-3.1533;
508.8000;0.7000;-3.1533;
509.1000;0.7066;-3.1284;
509.4000;0.7041;-3.1334;
509.7000;0.7090;-3.1284;
510.0000;0.7033;-3.1358;
510.3000;0.7049;-3.1309;
510.6000;0.7041;-3.1383;
510.9000;0.7041;-3.1408;
511.2000;0.7025;-3.1408;
511.5000;0.7025;-3.1284;
511.8000;0.7017;-3.1209;
512.1000;0.7017;-3.1160;
512.4000;0.7009;-3.1234;
512.7000;0.6992;-3.1284;
513.0000;0.7017;-3.1383;
513.3000;0.7025;-3.1433;
513.6000;0.7033;-3.1458;
513.9000;0.7025;-3.1358;
514.2000;0.7017;-3.1209;
514.5000;0.7049;-3.1110;
514.8000;0.7033;-3.1160;
515.1000;0.7025;-3.1085;
515.4000;0.7033;-3.1035;
515.7000;0.7033;-3.1010;
516.0000;0.7057;-3.1060;
516.3000;0.6976;-3.1383;
516.6000;0.7041;-3.1209;
516.9000;0.7049;-3.1259;
517.2000;0.7033;-3.1234;
517.5000;0.7041;-3.1309;
517.8000;0.7033;-3.1358;
518.1000;0.7041;-3.1383;
518.4000;0.7041;-3.1358;
518.7000;0.7025;-3.1334;
519.0000;0.7017;-3.1358;
519.3000;0.7025;-3.1309;
519.6000;0.7033;-3.1334;
519.9000;0.7041;-3.1383;
520.2000;0.7025;-3.1483;
520.5000;0.7066;-3.1309;
520.8000;0.7041;-3.1358;
521.1000;0.7041;-3.1309;
521.4000;0.7025;-3.1358;
521.7000;0.7033;-3.1458;
522.0000;0.7041;-3.1358;
522.3000;0.7017;-3.1383;
522.6000;0.7009;-3.1358;
522.9000;0.6968;-3.1458;
523.2000;0.7033;-3.1259;
523.5000;0.6992;-3.1334;
523.8000;0.7000;-3.1334;
524.1000;0.7017;-3.1259;
524.4000;0.7017;-3.1358;
524.7000;0.7066;-3.1358;
525.0000;0.7049;-3.1334;
525.3000;0.7033;-3.1334;
525.6000;0.6968;-3.1458;
525.9000;0.7033;-3.1334;
526.2000;0.7000;-3.1383;
526.5000;0.7025;-3.1358;
526.8000;0.7041;-3.1358;
527.1000;0.7025;-3.1259;
527.4000;0.7033;-3.1234;
527.7000;0.7025;-3.1184;
528.0000;0.7057;-3.1135;
528.3000;0.7033;-3.1234;
528.6000;0.7041;-3.1184;
528.9000;0.7049;-3.1135;
529.2000;0.7033;-3.1184;
529.5000;0.6927;-3.1433;
529.8000;0.6976;-3.1234;
530.1000;0.6927;-3.1234;
530.4000;0.7025;-3.0985;
530.7000;0.7025;-3.1010;
531.0000;0.7114;-3.0836;
531.3000;0.7000;-3.1284;
531.6000;0.7033;-3.1209;
531.9000;0.7025;-3.1209;
532.2000;0.7025;-3.1135;
532.5000;0.7017;-3.1135;
532.8000;0.7017;-3.1085;
533.1000;0.7049;-3.1184;
533.4000;0.7033;-3.1383;
533.7000;0.7041;-3.1334;
534.0000;0.7017;-3.1309;
534.3000;0.7025;-3.1284;
534.6000;0.7033;-3.1284;
534.9000;0.7025;-3.1334;
535.2000;0.7074;-3.1309;
535.5000;0.7057;-3.1358;
535.8000;0.7041;-3.1358;
536.1000;0.7025;-3.1433;
536.4000;0.7017;-3.1508;
536.7000;0.7041;-3.1483;
537.0000;0.7041;-3.1533;
537.3000;0.7017;-3.1632;
537.6000;0.7049;-3.1632;
537.9000;0.7041;-3.1707;
538.2000;0.6984;-3.1831;
538.5000;0.7017;-3.1731;
538.8000;0.7033;-3.1682;
539.1000;0.7025;-3.1582;
539.4000;0.7017;-3.1533;
539.7000;0.7017;-3.1458;
540.0000;0.6992;-3.1483;
540.3000;0.7017;-3.1383;
540.6000;0.7009;-3.1483;
540.9000;0.7017;-3.1508;
541.2000;0.7025;-3.1433;
541.5000;0.7025;-3.1334;
541.8000;0.7049;-3.1284;
542.1000;0.7049;-3.1334;
542.4000;0.7033;-3.1408;
542.7000;0.6992;-3.1533;
543.0000;0.7057;-3.1433;
543.3000;0.7033;-3.1458;
543.6000;0.7033;-3.1458;
543.9000;0.6992;-3.1458;
544.2000;0.7033;-3.1358;
544.5000;0.7033;-3.1334;
544.8000;0.7049;-3.1358;
545.1000;0.7025;-3.1433;
545.4000;0.7025;-3.1408;
545.7000;0.7025;-3.1309;
546.0000;0.6935;-3.1458;
546.3000;0.7017;-3.1309;
546.6000;0.7017;-3.1358;
546.9000;0.7025;-3.1284;
547.2000;0.7009;-3.1358;
547.5000;0.7025;-3.1408;
547.8000;0.7009;-3.1483;
548.1000;0.7041;-3.1383;
548.4000;0.7033;-3.1433;
548.7000;0.6968;-3.1458;
549.0000;0.6952;-3.1383;
549.3000;0.7025;-3.1234;
549.6000;0.6992;-3.1284;
549.9000;0.7025;-3.1309;
550.2000;0.7025;-3.1358;
550.5000;0.7041;-3.1433;
550.8000;0.7041;-3.1458;
551.1000;0.7041;-3.1508;
551.4000;0.7049;-3.1533;
551.7000;0.7033;-3.1557;
552.0000;0.7033;-3.1433;
552.3000;0.7017;-3.1508;
552.6000;0.7025;-3.1533;
552.9000;0.7017;-3.1557;
553.2000;0.7066;-3.1483;
553.5000;0.6992;-3.1657;
553.8000;0.6992;-3.1607;
554.1000;0.7049;-3.1383;
554.4000;0.7057;-3.1358;
554.7000;0.7041;-3.1408;
555.0000;0.7025;-3.1483;
555.3000;0.7131;-3.1209;
555.6000;0.6992;-3.1632;
555.9000;0.7066;-3.1557;
556.2000;0.7009;-3.1731;
556.5000;0.7041;-3.1533;
556.8000;0.7033;-3.1533;
557.1000;0.7017;-3.1557;
557.4000;0.7025;-3.1557;
557.7000;0.7025;-3.1533;
558.0000;0.7017;-3.1508;
558.3000;0.7066;-3.1334;
558.6000;0.7017;-3.1458;
558.9000;0.7025;-3.1508;
559.2000;0.7033;-3.1682;
559.5000;0.7017;-3.1707;
559.8000;0.7009;-3.1682;
560.1000;0.6968;-3.1831;
560.4000;0.7025;-3.1657;
560.7000;0.7041;-3.1533;
561.0000;0.7033;-3.1383;
561.3000;0.7000;-3.1483;
561.6000;0.7025;-3.1408;
561.9000;0.7025;-3.1408;
562.2000;0.7025;-3.1483;
562.5000;0.7033;-3.1433;
562.8000;0.7025;-3.1408;
563.1000;0.7009;-3.1383;
563.4000;0.7017;-3.1358;
563.7000;0.7009;-3.1408;
564.0000;0.7025;-3.1309;
564.3000;0.7025;-3.1309;
564.6000;0.7000;-3.1383;
564.9000;0.7009;-3.1408;
565.2000;0.7041;-3.1358;
565.5000;0.7033;-3.1358;
565.8000;0.7049;-3.1334;
566.1000;0.7025;-3.1458;
566.4000;0.7033;-3.1458;
566.7000;0.7074;-3.1408;
567.0000;0.7009;-3.1657;
567.3000;0.7025;-3.1632;
567.6000;0.7049;-3.1582;
567.9000;0.7025;-3.1632;
568.2000;0.7033;-3.1582;
568.5000;0.7033;-3.1508;
568.8000;0.7025;-3.1483;
569.1000;0.6992;-3.1582;
569.4000;0.7033;-3.1458;
569.7000;0.7017;-3.1533;
570.0000;0.7009;-3.1607;
570.3000;0.7049;-3.1682;
570.6000;0.7025;-3.1731;
570.9000;0.7033;-3.1682;
571.2000;0.7009;-3.1682;
571.5000;0.7033;-3.1607;
571.8000;0.7049;-3.1632;
572.1000;0.7033;-3.1707;
572.4000;0.7041;-3.1731;
572.7000;0.7009;-3.1731;
573.0000;0.7057;-3.1582;
573.3000;0.7025;-3.1657;
573.6000;0.7041;-3.1557;
573.9000;0.7057;-3.1533;
574.2000;0.7017;-3.1582;
574.5000;0.7017;-3.1582;
574.8000;0.7025;-3.1533;
575.1000;0.7049;-3.1533;
575.4000;0.7041;-3.1582;
575.7000;0.7033;-3.1582;
576.0000;0.7041;-3.1582;
576.3000;0.7057;-3.1582;
576.6000;0.7033;-3.1632;
576.9000;0.7009;-3.1533;
577.2000;0.7033;-3.1557;
577.5000;0.7066;-3.1582;
577.8000;0.7041;-3.1682;
578.1000;0.7033;-3.1682;
578.4000;0.7017;-3.1707;
578.7000;0.7041;-3.1557;
579.0000;0.7049;-3.1483;
579.3000;0.7057;-3.1408;
579.6000;0.7009;-3.1508;
579.9000;0.7041;-3.1533;
580.2000;0.7009;-3.1557;
580.5000;0.7017;-3.1483;
580.8000;0.7017;-3.1557;
581.1000;0.7066;-3.1557;
581.4000;0.7025;-3.1657;
581.7000;0.7017;-3.1607;
582.0000;0.7017;-3.1557;
582.3000;0.7049;-3.1483;
582.6000;0.6984;-3.1632;
582.9000;0.7033;-3.1533;
583.2000;0.7041;-3.1508;
583.5000;0.7025;-3.1483;
583.8000;0.7033;-3.1408;
584.1000;0.7049;-3.1309;
584.4000;0.7033;-3.1358;
584.7000;0.7033;-3.1383;
585.0000;0.7017;-3.1383;
585.3000;0.7009;-3.1408;
585.6000;0.7009;-3.1508;
585.9000;0.7000;-3.1632;
586.2000;0.6968;-3.1632;
586.5000;0.7017;-3.1582;
586.8000;0.7009;-3.1533;
587.1000;0.7017;-3.1508;
587.4000;0.7017;-3.1458;
587.7000;0.7041;-3.1284;
588.0000;0.7017;-3.1358;
588.3000;0.7025;-3.1408;
588.6000;0.7025;-3.1483;
588.9000;0.7009;-3.1607;
589.2000;0.7025;-3.1607;
589.5000;0.7017;-3.1557;
589.8000;0.7033;-3.1557;
590.1000;0.7033;-3.1557;
590.4000;0.7033;-3.1483;
590.7000;0.6952;-3.1682;
591.0000;0.7025;-3.1458;
591.3000;0.7033;-3.1383;
591.6000;0.7009;-3.1358;
591.9000;0.7114;-3.1135;
592.2000;0.7017;-3.1309;
592.5000;0.7025;-3.1334;
592.8000;0.6984;-3.1458;
593.1000;0.7033;-3.1383;
593.4000;0.6992;-3.1508;
593.7000;0.7017;-3.1433;
594.0000;0.7041;-3.1358;
594.3000;0.7017;-3.1383;
594.6000;0.7009;-3.1408;
594.9000;0.7082;-3.1209;
595.2000;0.7017;-3.1334;
595.5000;0.7009;-3.1334;
595.8000;0.7017;-3.1309;
596.1000;0.7017;-3.1433;
596.4000;0.7057;-3.1383;
596.7000;0.7009;-3.1483;
597.0000;0.7025;-3.1533;
597.3000;0.7000;-3.1508;
597.6000;0.6992;-3.1433;
597.9000;0.7009;-3.1458;
598.2000;0.7041;-3.1383;
598.5000;0.7009;-3.1533;
598.8000;0.6968;-3.1607;
599.1000;0.7025;-3.1508;
599.4000;0.6984;-3.1508;
599.7000;0.7009;-3.1483;
600.0000;0.7049;-3.1458;
600.3000;0.7033;-3.1433;
600.6000;0.7033;-3.1533;
600.9000;0.6992;-3.1682;
601.2000;0.6960;-3.1781;
601.5000;0.6919;-3.2005;
601.8000;0.6789;-3.2303;
602.1000;0.6886;-3.2104;
602.4000;0.6764;-3.2378;
602.7000;0.6716;-3.2478;
603.0000;0.6699;-3.2577;
603.3000;0.6593;-3.2801;
603.6000;0.6569;-3.2851;
603.9000;0.6553;-3.2925;
604.2000;0.6496;-3.3000;
604.5000;0.6463;-3.3124;
604.8000;0.6431;-3.3373;
605.1000;0.6414;-3.3373;
605.4000;0.6365;-3.3447;
605.7000;0.6365;-3.3447;
606.0000;0.6300;-3.3621;
606.3000;0.6227;-3.3696;
606.6000;0.6227;-3.3572;
606.9000;0.6243;-3.3447;
607.2000;0.6178;-3.3597;
607.5000;0.6235;-3.3398;
607.8000;0.6121;-3.3746;
608.1000;0.6121;-3.3746;
608.4000;0.6089;-3.3721;
608.7000;0.6072;-3.3746;
609.0000;0.6032;-3.3771;
609.3000;0.5983;-3.3920;
609.6000;0.6056;-3.3671;
609.9000;0.5983;-3.3771;
610.2000;0.5950;-3.3895;
610.5000;0.5934;-3.3994;
610.8000;0.5918;-3.4019;
611.1000;0.5926;-3.3895;
611.4000;0.5869;-3.3920;
611.7000;0.5885;-3.3845;
612.0000;0.5893;-3.3820;
612.3000;0.5853;-3.3771;
612.6000;0.5869;-3.3696;
612.9000;0.5788;-3.3746;
613.2000;0.5788;-3.3746;
613.5000;0.5779;-3.3820;
613.8000;0.5739;-3.3796;
614.1000;0.5706;-3.3820;
614.4000;0.5714;-3.3895;
614.7000;0.5665;-3.4218;
615.0000;0.5674;-3.4193;
615.3000;0.5657;-3.4193;
615.6000;0.5649;-3.4268;
615.9000;0.5625;-3.4193;
616.2000;0.5600;-3.4193;
616.5000;0.5608;-3.4218;
616.8000;0.5592;-3.4243;
617.1000;0.5633;-3.4094;
617.4000;0.5568;-3.4293;
617.7000;0.5592;-3.4268;
618.0000;0.5527;-3.4343;
618.3000;0.5503;-3.4417;
618.6000;0.5527;-3.4343;
618.9000;0.5495;-3.4392;
619.2000;0.5478;-3.4367;
619.5000;0.5486;-3.4343;
619.8000;0.5478;-3.4318;
620.1000;0.5438;-3.4293;
620.4000;0.5446;-3.4243;
620.7000;0.5421;-3.4293;
621.0000;0.5421;-3.4318;
621.3000;0.5421;-3.4268;
621.6000;0.5389;-3.4293;
621.9000;0.5389;-3.4318;
622.2000;0.5364;-3.4343;
622.5000;0.5372;-3.4218;
622.8000;0.5356;-3.4243;
623.1000;0.5438;-3.4044;
623.4000;0.5348;-3.4268;
623.7000;0.5340;-3.4318;
624.0000;0.5315;-3.4417;
624.3000;0.5210;-3.4666;
624.6000;0.5291;-3.4343;
624.9000;0.5315;-3.4293;
625.2000;0.5291;-3.4318;
625.5000;0.5283;-3.4318;
625.8000;0.5364;-3.4069;
626.1000;0.5250;-3.4318;
626.4000;0.5250;-3.4268;
626.7000;0.5234;-3.4268;
627.0000;0.5226;-3.4293;
627.3000;0.5210;-3.4318;
627.6000;0.5299;-3.4144;
627.9000;0.5201;-3.4442;
628.2000;0.5169;-3.4467;
628.5000;0.5169;-3.4467;
628.8000;0.5242;-3.4119;
629.1000;0.5185;-3.4293;
629.4000;0.5177;-3.4318;
629.7000;0.5128;-3.4392;
630.0000;0.5161;-3.4243;
630.3000;0.5136;-3.4193;
630.6000;0.5242;-3.3870;
630.9000;0.5120;-3.4094;
631.2000;0.5136;-3.4193;
631.5000;0.5136;-3.4144;
631.8000;0.5104;-3.4268;
632.1000;0.5104;-3.4268;
632.4000;0.5104;-3.4367;
632.7000;0.5104;-3.4417;
633.0000;0.5063;-3.4467;
633.3000;0.5047;-3.4492;
633.6000;0.5128;-3.4343;
633.9000;0.5063;-3.4467;
634.2000;0.5039;-3.4517;
634.5000;0.5055;-3.4467;
634.8000;0.5063;-3.4417;
635.1000;0.5031;-3.4293;
635.4000;0.5022;-3.4343;
635.7000;0.5079;-3.4193;
636.0000;0.5039;-3.4218;
636.3000;0.5022;-3.4268;
636.6000;0.4990;-3.4392;
636.9000;0.5031;-3.4293;
637.2000;0.4990;-3.4367;
637.5000;0.4982;-3.4492;
637.8000;0.4982;-3.4542;
638.1000;0.5014;-3.4392;
638.4000;0.4990;-3.4392;
638.7000;0.5039;-3.4318;
639.0000;0.4990;-3.4467;
639.3000;0.4957;-3.4417;
639.6000;0.5039;-3.4119;
639.9000;0.4892;-3.4517;
640.2000;0.4917;-3.4492;
640.5000;0.4949;-3.4392;
640.8000;0.4900;-3.4542;
641.1000;0.4933;-3.4417;
641.4000;0.4925;-3.4492;
641.7000;0.4941;-3.4542;
642.0000;0.4990;-3.4467;
642.3000;0.4917;-3.4641;
642.6000;0.4925;-3.4616;
642.9000;0.4900;-3.4566;
643.2000;0.4892;-3.4467;
643.5000;0.4900;-3.4392;
643.8000;0.4933;-3.4367;
644.1000;0.4925;-3.4392;
644.4000;0.4900;-3.4367;
644.7000;0.4884;-3.4367;
645.0000;0.4884;-3.4367;
645.3000;0.4892;-3.4492;
645.6000;0.4868;-3.4517;
645.9000;0.4876;-3.4467;
646.2000;0.4868;-3.4417;
646.5000;0.4876;-3.4492;
646.8000;0.4819;-3.4616;
647.1000;0.4876;-3.4467;
647.4000;0.4827;-3.4591;
647.7000;0.4843;-3.4467;
648.0000;0.4819;-3.4542;
648.3000;0.4843;-3.4392;
648.6000;0.4876;-3.4318;
648.9000;0.4843;-3.4367;
649.2000;0.4843;-3.4367;
649.5000;0.4843;-3.4293;
649.8000;0.4868;-3.4193;
650.1000;0.4868;-3.4193;
650.4000;0.4819;-3.4243;
650.7000;0.4900;-3.3945;
651.0000;0.4803;-3.4169;
651.3000;0.4794;-3.4293;
651.6000;0.4827;-3.4293;
651.9000;0.4803;-3.4268;
652.2000;0.4843;-3.4144;
652.5000;0.4827;-3.4193;
652.8000;0.4843;-3.4218;
653.1000;0.4794;-3.4343;
653.4000;0.4786;-3.4367;
653.7000;0.4794;-3.4367;
654.0000;0.4762;-3.4417;
654.3000;0.4762;-3.4417;
654.6000;0.4762;-3.4367;
654.9000;0.4762;-3.4392;
655.2000;0.4770;-3.4343;
655.5000;0.4794;-3.4193;
655.8000;0.4746;-3.4243;
656.1000;0.4681;-3.4367;
656.4000;0.4770;-3.4069;
656.7000;0.4770;-3.4094;
657.0000;0.4746;-3.4144;
657.3000;0.4786;-3.4069;
657.6000;0.4729;-3.4193;
657.9000;0.4746;-3.4218;
658.2000;0.4746;-3.4243;
658.5000;0.4754;-3.4193;
658.8000;0.4737;-3.4218;
659.1000;0.4754;-3.4193;
659.4000;0.4737;-3.4169;
659.7000;0.4770;-3.4019;
660.0000;0.4729;-3.4193;
660.3000;0.4729;-3.4268;
660.6000;0.4681;-3.4367;
660.9000;0.4737;-3.4193;
661.2000;0.4746;-3.4169;
661.5000;0.4721;-3.4243;
661.8000;0.4713;-3.4318;
662.1000;0.4803;-3.4019;
662.4000;0.4721;-3.4169;
662.7000;0.4705;-3.4268;
663.0000;0.4721;-3.4218;
663.3000;0.4713;-3.4193;
663.6000;0.4664;-3.4367;
663.9000;0.4713;-3.4243;
664.2000;0.4705;-3.4268;
664.5000;0.4697;-3.4293;
664.8000;0.4689;-3.4268;
665.1000;0.4746;-3.4119;
665.4000;0.4689;-3.4243;
665.7000;0.4697;-3.4268;
666.0000;0.4697;-3.4293;
666.3000;0.4640;-3.4442;
666.6000;0.4664;-3.4467;
666.9000;0.4689;-3.4417;
667.2000;0.4689;-3.4318;
667.5000;0.4697;-3.4367;
667.8000;0.4656;-3.4467;
668.1000;0.4648;-3.4517;
668.4000;0.4705;-3.4442;
668.7000;0.4681;-3.4392;
669.0000;0.4681;-3.4417;
669.3000;0.4648;-3.4467;
669.6000;0.4664;-3.4417;
669.9000;0.4681;-3.4417;
670.2000;0.4721;-3.4193;
670.5000;0.4656;-3.4318;
670.8000;0.4721;-3.4218;
671.1000;0.4681;-3.4318;
671.4000;0.4672;-3.4243;
671.7000;0.4656;-3.4293;
672.0000;0.4656;-3.4367;
672.3000;0.4656;-3.4293;
672.6000;0.4672;-3.4169;
672.9000;0.4664;-3.4169;
673.2000;0.4656;-3.4193;
673.5000;0.4648;-3.4218;
673.8000;0.4664;-3.4169;
674.1000;0.4640;-3.4268;
674.4000;0.4664;-3.4169;
674.7000;0.4656;-3.4218;
675.0000;0.4640;-3.4193;
675.3000;0.4697;-3.3994;
675.6000;0.4640;-3.4169;
675.9000;0.4656;-3.4144;
676.2000;0.4672;-3.4119;
676.5000;0.4664;-3.4169;
676.8000;0.4640;-3.4218;
677.1000;0.4607;-3.4243;
677.4000;0.4632;-3.4293;
677.7000;0.4624;-3.4218;
678.0000;0.4672;-3.4119;
678.3000;0.4640;-3.4218;
678.6000;0.4632;-3.4268;
678.9000;0.4632;-3.4218;
679.2000;0.4615;-3.4293;
679.5000;0.4624;-3.4268;
679.8000;0.4640;-3.4218;
680.1000;0.4672;-3.4019;
680.4000;0.4591;-3.4218;
680.7000;0.4640;-3.4144;
681.0000;0.4632;-3.4169;
681.3000;0.4615;-3.4293;
681.6000;0.4624;-3.4268;
681.9000;0.4648;-3.4193;
682.2000;0.4607;-3.4218;
682.5000;0.4648;-3.4094;
682.8000;0.4632;-3.4169;
683.1000;0.4624;-3.4218;
683.4000;0.4599;-3.4243;
683.7000;0.4624;-3.4268;
684.0000;0.4607;-3.4318;
684.3000;0.4607;-3.4318;
684.6000;0.4607;-3.4367;
684.9000;0.4599;-3.4467;
685.2000;0.4599;-3.4392;
685.5000;0.4607;-3.4343;
685.8000;0.4607;-3.4417;
686.1000;0.4607;-3.4367;
686.4000;0.4624;-3.4343;
686.7000;0.4583;-3.4492;
687.0000;0.4591;-3.4492;
687.3000;0.4583;-3.4392;
687.6000;0.4640;-3.4144;
687.9000;0.4550;-3.4318;
688.2000;0.4599;-3.4193;
688.5000;0.4607;-3.4218;
688.8000;0.4599;-3.4218;
689.1000;0.4599;-3.4144;
689.4000;0.4607;-3.4119;
689.7000;0.4599;-3.4094;
690.0000;0.4607;-3.4169;
690.3000;0.4591;-3.4193;
690.6000;0.4607;-3.4218;
690.9000;0.4583;-3.4169;
691.2000;0.4591;-3.4218;
691.5000;0.4599;-3.4169;
691.8000;0.4599;-3.4268;
692.1000;0.4583;-3.4218;
692.4000;0.4591;-3.4218;
692.7000;0.4575;-3.4318;
693.0000;0.4591;-3.4268;
693.3000;0.4599;-3.4367;
693.6000;0.4583;-3.4392;
693.9000;0.4591;-3.4343;
694.2000;0.4591;-3.4442;
694.5000;0.4599;-3.4392;
694.8000;0.4607;-3.4293;
695.1000;0.4591;-3.4392;
695.4000;0.4615;-3.4343;
695.7000;0.4591;-3.4392;
696.0000;0.4591;-3.4367;
696.3000;0.4599;-3.4218;
696.6000;0.4575;-3.4318;
696.9000;0.4591;-3.4218;
697.2000;0.4575;-3.4243;
697.5000;0.4542;-3.4318;
697.8000;0.4558;-3.4293;
698.1000;0.4477;-3.4542;
698.4000;0.4518;-3.4392;
698.7000;0.4575;-3.4318;
699.0000;0.4583;-3.4367;
699.3000;0.4591;-3.4343;
699.6000;0.4591;-3.4243;
699.9000;0.4591;-3.4243;
700.2000;0.4567;-3.4318;
700.5000;0.4558;-3.4268;
700.8000;0.4567;-3.4268;
701.1000;0.4575;-3.4293;
701.4000;0.4558;-3.4343;
701.7000;0.4558;-3.4442;
702.0000;0.4558;-3.4343;
702.3000;0.4575;-3.4318;
702.6000;0.4567;-3.4268;
702.9000;0.4558;-3.4268;
703.2000;0.4493;-3.4566;
703.5000;0.4583;-3.4392;
703.8000;0.4558;-3.4442;
704.1000;0.4542;-3.4492;
704.4000;0.4567;-3.4367;
704.7000;0.4558;-3.4318;
705.0000;0.4567;-3.4169;
705.3000;0.4607;-3.4019;
705.6000;0.4583;-3.4044;
705.9000;0.4575;-3.4044;
706.2000;0.4591;-3.4019;
706.5000;0.4558;-3.4094;
706.8000;0.4567;-3.4119;
707.1000;0.4558;-3.4144;
707.4000;0.4567;-3.4243;
707.7000;0.4591;-3.4243;
708.0000;0.4558;-3.4243;
708.3000;0.4542;-3.4218;
708.6000;0.4550;-3.4144;
708.9000;0.4542;-3.4119;
709.2000;0.4550;-3.4119;
709.5000;0.4542;-3.4218;
709.8000;0.4567;-3.4144;
710.1000;0.4518;-3.4343;
710.4000;0.4567;-3.4218;
710.7000;0.4567;-3.4218;
711.0000;0.4558;-3.4243;
711.3000;0.4542;-3.4218;
711.6000;0.4558;-3.4119;
711.9000;0.4534;-3.4069;
712.2000;0.4542;-3.4069;
712.5000;0.4567;-3.3994;
712.8000;0.4567;-3.4044;
713.1000;0.4558;-3.4094;
713.4000;0.4542;-3.4119;
713.7000;0.4534;-3.4293;
714.0000;0.4558;-3.4193;
714.3000;0.4558;-3.4218;
714.6000;0.4558;-3.4193;
714.9000;0.4534;-3.4169;
715.2000;0.4542;-3.4094;
715.5000;0.4477;-3.4293;
715.8000;0.4542;-3.4094;
716.1000;0.4534;-3.4169;
716.4000;0.4558;-3.4144;
716.7000;0.4534;-3.4119;
717.0000;0.4534;-3.4119;
717.3000;0.4518;-3.4119;
717.6000;0.4542;-3.4019;
717.9000;0.4550;-3.3920;
718.2000;0.4558;-3.3895;
718.5000;0.4567;-3.3970;
718.8000;0.4542;-3.3970;
719.1000;0.4534;-3.4069;
719.4000;0.4542;-3.4019;
719.7000;0.4510;-3.4144;
720.0000;0.4453;-3.4343;
720.3000;0.4542;-3.4069;
720.6000;0.4542;-3.4044;
720.9000;0.4461;-3.4343;
721.2000;0.4575;-3.4144;
721.5000;0.4599;-3.4119;
721.8000;0.4542;-3.4193;
722.1000;0.4550;-3.4144;
722.4000;0.4526;-3.4193;
722.7000;0.4550;-3.4069;
723.0000;0.4526;-3.4218;
723.3000;0.4542;-3.4218;
723.6000;0.4542;-3.4169;
723.9000;0.4526;-3.4169;
724.2000;0.4510;-3.4193;
724.5000;0.4518;-3.4144;
724.8000;0.4534;-3.4218;
725.1000;0.4534;-3.4169;
725.4000;0.4526;-3.4193;
725.7000;0.4526;-3.4193;
726.0000;0.4518;-3.4293;
726.3000;0.4550;-3.4193;
726.6000;0.4493;-3.4417;
726.9000;0.4510;-3.4318;
727.2000;0.4607;-3.4094;
727.5000;0.4542;-3.4293;
727.8000;0.4534;-3.4243;
728.1000;0.4526;-3.4243;
728.4000;0.4501;-3.4343;
728.7000;0.4510;-3.4343;
729.0000;0.4526;-3.4293;
729.3000;0.4526;-3.4318;
729.6000;0.4550;-3.4293;
729.9000;0.4542;-3.4318;
730.2000;0.4542;-3.4392;
730.5000;0.4534;-3.4343;
730.8000;0.4542;-3.4392;
731.1000;0.4591;-3.4193;
731.4000;0.4575;-3.4169;
731.7000;0.4542;-3.4193;
732.0000;0.4526;-3.4218;
732.3000;0.4526;-3.4243;
732.6000;0.4534;-3.4268;
732.9000;0.4526;-3.4218;
733.2000;0.4526;-3.4218;
733.5000;0.4518;-3.4169;
733.8000;0.4534;-3.4218;
734.1000;0.4542;-3.4218;
734.4000;0.4501;-3.4367;
734.7000;0.4542;-3.4293;
735.0000;0.4526;-3.4268;
735.3000;0.4518;-3.4318;
735.6000;0.4526;-3.4268;
735.9000;0.4510;-3.4243;
736.2000;0.4526;-3.4243;
736.5000;0.4526;-3.4293;
736.8000;0.4510;-3.4318;
737.1000;0.4518;-3.4243;
737.4000;0.4510;-3.4293;
737.7000;0.4510;-3.4318;
738.0000;0.4550;-3.4293;
738.3000;0.4518;-3.4343;
738.6000;0.4615;-3.4019;
738.9000;0.4501;-3.4343;
739.2000;0.4550;-3.4343;
739.5000;0.4526;-3.4392;
739.8000;0.4567;-3.4367;
740.1000;0.4485;-3.4542;
740.4000;0.4542;-3.4417;
740.7000;0.4534;-3.4392;
741.0000;0.4526;-3.4417;
741.3000;0.4510;-3.4492;
741.6000;0.4526;-3.4392;
741.9000;0.4567;-3.4218;
742.2000;0.4510;-3.4392;
742.5000;0.4534;-3.4293;
742.8000;0.4518;-3.4318;
743.1000;0.4526;-3.4318;
743.4000;0.4534;-3.4367;
743.7000;0.4510;-3.4417;
744.0000;0.4558;-3.4293;
744.3000;0.4501;-3.4442;
744.6000;0.4501;-3.4442;
744.9000;0.4550;-3.4343;
745.2000;0.4485;-3.4417;
745.5000;0.4444;-3.4442;
745.8000;0.4518;-3.4293;
746.1000;0.4510;-3.4293;
746.4000;0.4558;-3.4193;
746.7000;0.4510;-3.4343;
747.0000;0.4518;-3.4268;
747.3000;0.4526;-3.4243;
747.6000;0.4501;-3.4268;
747.9000;0.4510;-3.4144;
748.2000;0.4510;-3.4243;
748.5000;0.4518;-3.4268;
748.8000;0.4510;-3.4343;
749.1000;0.4510;-3.4367;
749.4000;0.4542;-3.4169;
749.7000;0.4526;-3.4193;
750.0000;0.4493;-3.4268;
750.3000;0.4558;-3.4019;
750.6000;0.4664;-3.3696;
750.9000;0.4510;-3.4119;
751.2000;0.4501;-3.4119;
751.5000;0.4501;-3.4119;
751.8000;0.4518;-3.4119;
752.1000;0.4501;-3.4169;
752.4000;0.4510;-3.4069;
752.7000;0.4518;-3.4144;
753.0000;0.4550;-3.4019;
753.3000;0.4510;-3.4218;
753.6000;0.4518;-3.4243;
753.9000;0.4518;-3.4293;
754.2000;0.4526;-3.4169;
754.5000;0.4501;-3.4243;
754.8000;0.4518;-3.4243;
755.1000;0.4477;-3.4293;
755.4000;0.4477;-3.4318;
755.7000;0.4510;-3.4243;
756.0000;0.4534;-3.4119;
756.3000;0.4501;-3.4169;
756.6000;0.4510;-3.4169;
756.9000;0.4510;-3.4193;
757.2000;0.4518;-3.4119;
757.5000;0.4469;-3.4169;
757.8000;0.4477;-3.4119;
758.1000;0.4493;-3.4069;
758.4000;0.4485;-3.3920;
758.7000;0.4534;-3.3845;
759.0000;0.4510;-3.4044;
759.3000;0.4477;-3.4094;
759.6000;0.4493;-3.4069;
759.9000;0.4461;-3.4119;
760.2000;0.4485;-3.4044;
760.5000;0.4501;-3.4019;
760.8000;0.4477;-3.3994;
761.1000;0.4420;-3.4193;
761.4000;0.4493;-3.4069;
761.7000;0.4510;-3.4044;
762.0000;0.4501;-3.4094;
762.3000;0.4501;-3.4019;
762.6000;0.4469;-3.4069;
762.9000;0.4485;-3.4044;
763.2000;0.4534;-3.3870;
763.5000;0.4485;-3.3994;
763.8000;0.4493;-3.4019;
764.1000;0.4469;-3.4094;
764.4000;0.4501;-3.4069;
764.7000;0.4477;-3.4069;
765.0000;0.4485;-3.4069;
765.3000;0.4510;-3.4094;
765.6000;0.4493;-3.4044;
765.9000;0.4501;-3.4019;
766.2000;0.4542;-3.3945;
766.5000;0.4485;-3.4119;
766.8000;0.4493;-3.4094;
767.1000;0.4493;-3.4044;
767.4000;0.4485;-3.4094;
767.7000;0.4510;-3.4044;
768.0000;0.4542;-3.3920;
768.3000;0.4493;-3.4069;
768.6000;0.4485;-3.4019;
768.9000;0.4485;-3.3994;
769.2000;0.4493;-3.4019;
769.5000;0.4493;-3.4019;
769.8000;0.4510;-3.3994;
770.1000;0.4501;-3.4019;
770.4000;0.4518;-3.3945;
770.7000;0.4493;-3.4044;
771.0000;0.4493;-3.4019;
771.3000;0.4493;-3.4044;
771.6000;0.4477;-3.3994;
771.9000;0.4485;-3.3920;
772.2000;0.4493;-3.3920;
772.5000;0.4501;-3.3895;
772.8000;0.4469;-3.3970;
773.1000;0.4493;-3.3970;
773.4000;0.4485;-3.3945;
773.7000;0.4493;-3.3994;
774.0000;0.4493;-3.3970;
774.3000;0.4501;-3.4019;
774.6000;0.4558;-3.3845;
774.9000;0.4510;-3.4019;
775.2000;0.4501;-3.4069;
775.5000;0.4518;-3.3970;
775.8000;0.4493;-3.4019;
776.1000;0.4485;-3.4119;
776.4000;0.4493;-3.4094;
776.7000;0.4493;-3.4094;
777.0000;0.4485;-3.4193;
777.3000;0.4477;-3.4119;
777.6000;0.4493;-3.4193;
777.9000;0.4477;-3.4268;
778.2000;0.4501;-3.4218;
778.5000;0.4477;-3.4169;
778.8000;0.4485;-3.4268;
779.1000;0.4420;-3.4392;
779.4000;0.4477;-3.4169;
779.7000;0.4567;-3.3895;
780.0000;0.4477;-3.4218;
780.3000;0.4477;-3.4268;
780.6000;0.4461;-3.4442;
780.9000;0.4461;-3.4467;
781.2000;0.4493;-3.4367;
781.5000;0.4453;-3.4417;
781.8000;0.4477;-3.4417;
782.1000;0.4493;-3.4343;
782.4000;0.4485;-3.4318;
782.7000;0.4567;-3.4169;
783.0000;0.4485;-3.4467;
783.3000;0.4501;-3.4417;
783.6000;0.4493;-3.4343;
783.9000;0.4493;-3.4442;
784.2000;0.4477;-3.4566;
784.5000;0.4485;-3.4542;
784.8000;0.4453;-3.4566;
785.1000;0.4420;-3.4616;
785.4000;0.4493;-3.4367;
785.7000;0.4501;-3.4442;
786.0000;0.4469;-3.4542;
786.3000;0.4477;-3.4492;
786.6000;0.4461;-3.4566;
786.9000;0.4477;-3.4542;
787.2000;0.4493;-3.4367;
787.5000;0.4526;-3.4243;
787.8000;0.4485;-3.4343;
788.1000;0.4501;-3.4367;
788.4000;0.4510;-3.4293;
788.7000;0.4493;-3.4243;
789.0000;0.4493;-3.4243;
789.3000;0.4461;-3.4243;
789.6000;0.4461;-3.4218;
789.9000;0.4485;-3.4243;
790.2000;0.4461;-3.4268;
790.5000;0.4518;-3.4144;
790.8000;0.4477;-3.4268;
791.1000;0.4493;-3.4144;
791.4000;0.4485;-3.4119;
791.7000;0.4493;-3.4218;
792.0000;0.4493;-3.4243;
792.3000;0.4534;-3.4144;
792.6000;0.4485;-3.4293;
792.9000;0.4469;-3.4343;
793.2000;0.4428;-3.4492;
793.5000;0.4485;-3.4442;
793.8000;0.4493;-3.4392;
794.1000;0.4469;-3.4392;
794.4000;0.4477;-3.4343;
794.7000;0.4444;-3.4367;
795.0000;0.4510;-3.4243;
795.3000;0.4477;-3.4268;
795.6000;0.4485;-3.4268;
795.9000;0.4493;-3.4243;
796.2000;0.4583;-3.4019;
796.5000;0.4477;-3.4169;
796.8000;0.4510;-3.4218;
797.1000;0.4453;-3.4293;
797.4000;0.4469;-3.4293;
797.7000;0.4444;-3.4343;
798.0000;0.4469;-3.4343;
798.3000;0.4493;-3.4268;
798.6000;0.4583;-3.3945;
798.9000;0.4485;-3.4243;
799.2000;0.4485;-3.4144;
799.5000;0.4444;-3.4243;
799.8000;0.4485;-3.4119;
800.1000;0.4485;-3.4094;
800.4000;0.4461;-3.4119;
800.7000;0.4493;-3.4044;
801.0000;0.4477;-3.4243;
801.3000;0.4518;-3.4144;
801.6000;0.4501;-3.4119;
801.9000;0.4493;-3.4169;
802.2000;0.4477;-3.4218;
802.5000;0.4428;-3.4392;
802.8000;0.4493;-3.4193;
803.1000;0.4485;-3.4144;
803.4000;0.4510;-3.4094;
803.7000;0.4510;-3.4144;
804.0000;0.4493;-3.4169;
804.3000;0.4510;-3.4094;
804.6000;0.4485;-3.4069;
804.9000;0.4469;-3.4069;
805.2000;0.4469;-3.4144;
805.5000;0.4461;-3.4193;
805.8000;0.4461;-3.4268;
806.1000;0.4493;-3.4193;
806.4000;0.4469;-3.4094;
806.7000;0.4501;-3.3994;
807.0000;0.4485;-3.4019;
807.3000;0.4453;-3.3994;
807.6000;0.4477;-3.3920;
807.9000;0.4477;-3.3970;
808.2000;0.4477;-3.4019;
808.5000;0.4477;-3.4044;
808.8000;0.4461;-3.4094;
809.1000;0.4518;-3.3994;
809.4000;0.4477;-3.4169;
809.7000;0.4510;-3.4069;
810.0000;0.4493;-3.4094;
810.3000;0.4469;-3.4169;
810.6000;0.4485;-3.4144;
810.9000;0.4501;-3.4193;
811.2000;0.4469;-3.4218;
811.5000;0.4485;-3.4094;
811.8000;0.4477;-3.4019;
812.1000;0.4477;-3.4044;
812.4000;0.4477;-3.3920;
812.7000;0.4469;-3.3920;
813.0000;0.4469;-3.3845;
813.3000;0.4477;-3.3870;
813.6000;0.4485;-3.3945;
813.9000;0.4477;-3.4094;
814.2000;0.4493;-3.4119;
814.5000;0.4477;-3.4193;
814.8000;0.4477;-3.4268;
815.1000;0.4477;-3.4193;
815.4000;0.4469;-3.4218;
815.7000;0.4428;-3.4318;
816.0000;0.4469;-3.4119;
816.3000;0.4477;-3.4019;
816.6000;0.4461;-3.4019;
816.9000;0.4477;-3.4044;
817.2000;0.4485;-3.4094;
817.5000;0.4477;-3.4094;
817.8000;0.4477;-3.4069;
818.1000;0.4493;-3.4119;
818.4000;0.4493;-3.4293;
818.7000;0.4469;-3.4293;
819.0000;0.4477;-3.4318;
819.3000;0.4477;-3.4268;
819.6000;0.4444;-3.4417;
819.9000;0.4477;-3.4367;
820.2000;0.4379;-3.4641;
820.5000;0.4420;-3.4566;
820.8000;0.4485;-3.4367;
821.1000;0.4477;-3.4392;
821.4000;0.4501;-3.4293;
821.7000;0.4469;-3.4417;
822.0000;0.4469;-3.4392;
822.3000;0.4453;-3.4392;
822.6000;0.4461;-3.4293;
822.9000;0.4469;-3.4318;
823.2000;0.4526;-3.4169;
823.5000;0.4453;-3.4417;
823.8000;0.4493;-3.4343;
824.1000;0.4501;-3.4218;
824.4000;0.4436;-3.4367;
824.7000;0.4428;-3.4442;
825.0000;0.4461;-3.4268;
825.3000;0.4469;-3.4318;
825.6000;0.4461;-3.4318;
825.9000;0.4485;-3.4293;
826.2000;0.4526;-3.4243;
826.5000;0.4493;-3.4367;
826.8000;0.4485;-3.4268;
827.1000;0.4485;-3.4193;
827.4000;0.4469;-3.4193;
827.7000;0.4477;-3.4193;
828.0000;0.4469;-3.4193;
828.3000;0.4477;-3.4218;
828.6000;0.4469;-3.4193;
828.9000;0.4510;-3.4144;
829.2000;0.4477;-3.4268;
829.5000;0.4444;-3.4343;
829.8000;0.4477;-3.4218;
830.1000;0.4444;-3.4243;
830.4000;0.4453;-3.4169;
830.7000;0.4453;-3.4193;
831.0000;0.4436;-3.4293;
831.3000;0.4453;-3.4268;
831.6000;0.4461;-3.4268;
831.9000;0.4469;-3.4193;
832.2000;0.4453;-3.4243;
832.5000;0.4461;-3.4293;
832.8000;0.4453;-3.4417;
833.1000;0.4493;-3.4392;
833.4000;0.4485;-3.4367;
833.7000;0.4461;-3.4442;
834.0000;0.4469;-3.4367;
834.3000;0.4461;-3.4392;
834.6000;0.4477;-3.4367;
834.9000;0.4453;-3.4417;
835.2000;0.4485;-3.4417;
835.5000;0.4453;-3.4417;
835.8000;0.4477;-3.4293;
836.1000;0.4526;-3.4193;
836.4000;0.4453;-3.4392;
836.7000;0.4477;-3.4417;
837.0000;0.4453;-3.4442;
837.3000;0.4485;-3.4367;
837.6000;0.4444;-3.4442;
837.9000;0.4469;-3.4392;
838.2000;0.4477;-3.4243;
838.5000;0.4518;-3.4169;
838.8000;0.4453;-3.4293;
839.1000;0.4485;-3.4218;
839.4000;0.4453;-3.4243;
839.7000;0.4477;-3.4094;
840.0000;0.4453;-3.4044;
840.3000;0.4477;-3.3994;
840.6000;0.4444;-3.3994;
840.9000;0.4477;-3.3970;
841.2000;0.4436;-3.4069;
841.5000;0.4461;-3.4069;
841.8000;0.4493;-3.3970;
842.1000;0.4461;-3.4044;
842.4000;0.4469;-3.3970;
842.7000;0.4477;-3.4019;
843.0000;0.4469;-3.4019;
843.3000;0.4493;-3.4019;
843.6000;0.4493;-3.4069;
843.9000;0.4477;-3.4193;
844.2000;0.4461;-3.4243;
844.5000;0.4477;-3.4144;
844.8000;0.4477;-3.4094;
845.1000;0.4461;-3.4144;
845.4000;0.4477;-3.4119;
845.7000;0.4444;-3.4193;
846.0000;0.4469;-3.4094;
846.3000;0.4477;-3.3945;
846.6000;0.4469;-3.4094;
846.9000;0.4477;-3.4044;
847.2000;0.4485;-3.4144;
847.5000;0.4420;-3.4367;
847.8000;0.4461;-3.4293;
848.1000;0.4469;-3.4243;
848.4000;0.4469;-3.4119;
848.7000;0.4469;-3.4144;
849.0000;0.4469;-3.4193;
849.3000;0.4453;-3.4193;
849.6000;0.4469;-3.4218;
849.9000;0.4477;-3.4169;
850.2000;0.4485;-3.4069;
850.5000;0.4510;-3.3895;
850.8000;0.4404;-3.4144;
851.1000;0.4461;-3.4044;
851.4000;0.4469;-3.3994;
851.7000;0.4469;-3.4019;
852.0000;0.4469;-3.4019;
852.3000;0.4461;-3.4094;
852.6000;0.4461;-3.4044;
852.9000;0.4469;-3.4069;
853.2000;0.4453;-3.4119;
853.5000;0.4461;-3.4169;
853.8000;0.4453;-3.4193;
854.1000;0.4477;-3.4293;
854.4000;0.4461;-3.4293;
854.7000;0.4453;-3.4218;
855.0000;0.4469;-3.4268;
855.3000;0.4477;-3.4243;
855.6000;0.4461;-3.4243;
855.9000;0.4461;-3.4119;
856.2000;0.4461;-3.4169;
856.5000;0.4469;-3.4268;
856.8000;0.4461;-3.4243;
857.1000;0.4477;-3.4218;
857.4000;0.4461;-3.4193;
857.7000;0.4453;-3.4218;
858.0000;0.4453;-3.4169;
858.3000;0.4477;-3.4169;
858.6000;0.4444;-3.4193;
858.9000;0.4469;-3.4119;
859.2000;0.4461;-3.4119;
859.5000;0.4493;-3.4019;
859.8000;0.4453;-3.4193;
860.1000;0.4363;-3.4367;
860.4000;0.4469;-3.4094;
860.7000;0.4485;-3.4169;
861.0000;0.4469;-3.4243;
861.3000;0.4477;-3.4218;
861.6000;0.4485;-3.4193;
861.9000;0.4477;-3.4193;
862.2000;0.4444;-3.4343;
862.5000;0.4469;-3.4343;
862.8000;0.4477;-3.4218;
863.1000;0.4493;-3.4293;
863.4000;0.4542;-3.4169;
863.7000;0.4461;-3.4318;
864.0000;0.4477;-3.4268;
864.3000;0.4469;-3.4193;
864.6000;0.4477;-3.4119;
864.9000;0.4485;-3.4069;
865.2000;0.4477;-3.4144;
865.5000;0.4444;-3.4144;
865.8000;0.4485;-3.3970;
866.1000;0.4469;-3.4044;
866.4000;0.4453;-3.4119;
866.7000;0.4444;-3.4119;
867.0000;0.4510;-3.4094;
867.3000;0.4477;-3.4193;
867.6000;0.4510;-3.4144;
867.9000;0.4469;-3.4193;
868.2000;0.4469;-3.4144;
868.5000;0.4469;-3.4169;
868.8000;0.4493;-3.4019;
869.1000;0.4444;-3.4144;
869.4000;0.4453;-3.4144;
869.7000;0.4461;-3.4218;
870.0000;0.4493;-3.4169;
870.3000;0.4461;-3.4268;
870.6000;0.4461;-3.4293;
870.9000;0.4461;-3.4293;
871.2000;0.4453;-3.4268;
871.5000;0.4453;-3.4318;
871.8000;0.4469;-3.4293;
872.1000;0.4420;-3.4343;
872.4000;0.4461;-3.4318;
872.7000;0.4461;-3.4392;
873.0000;0.4453;-3.4442;
873.3000;0.4453;-3.4392;
873.6000;0.4444;-3.4218;
873.9000;0.4469;-3.4144;
874.2000;0.4469;-3.4144;
874.5000;0.4461;-3.4144;
874.8000;0.4420;-3.4293;
875.1000;0.4461;-3.4094;
875.4000;0.4461;-3.4069;
875.7000;0.4567;-3.3820;
876.0000;0.4485;-3.4069;
876.3000;0.4469;-3.4169;
876.6000;0.4461;-3.4293;
876.9000;0.4412;-3.4417;
877.2000;0.4469;-3.4343;
877.5000;0.4567;-3.4044;
877.8000;0.4469;-3.4318;
878.1000;0.4453;-3.4318;
878.4000;0.4461;-3.4293;
878.7000;0.4453;-3.4318;
879.0000;0.4469;-3.4293;
879.3000;0.4461;-3.4318;
879.6000;0.4469;-3.4293;
879.9000;0.4461;-3.4392;
880.2000;0.4461;-3.4392;
880.5000;0.4453;-3.4417;
880.8000;0.4453;-3.4442;
881.1000;0.4461;-3.4442;
881.4000;0.4444;-3.4392;
881.7000;0.4453;-3.4318;
882.0000;0.4461;-3.4243;
882.3000;0.4461;-3.4218;
882.6000;0.4420;-3.4293;
882.9000;0.4501;-3.3970;
883.2000;0.4404;-3.4169;
883.5000;0.4436;-3.3994;
883.8000;0.4453;-3.4044;
884.1000;0.4444;-3.3994;
884.4000;0.4469;-3.3920;
884.7000;0.4436;-3.3994;
885.0000;0.4453;-3.4169;
885.3000;0.4453;-3.4169;
885.6000;0.4469;-3.4193;
885.9000;0.4461;-3.4169;
886.2000;0.4420;-3.4218;
886.5000;0.4469;-3.3994;
886.8000;0.4477;-3.4069;
887.1000;0.4453;-3.4069;
887.4000;0.4461;-3.3994;
887.7000;0.4469;-3.3895;
888.0000;0.4510;-3.3820;
888.3000;0.4469;-3.3945;
888.6000;0.4477;-3.3970;
888.9000;0.4436;-3.4044;
889.2000;0.4396;-3.4169;
889.5000;0.4469;-3.4019;
889.8000;0.4469;-3.4094;
890.1000;0.4444;-3.4094;
890.4000;0.4461;-3.4069;
890.7000;0.4477;-3.3945;
891.0000;0.4477;-3.3895;
891.3000;0.4477;-3.3820;
891.6000;0.4412;-3.4094;
891.9000;0.4461;-3.3945;
892.2000;0.4444;-3.4019;
892.5000;0.4396;-3.4094;
892.8000;0.4379;-3.4193;
893.1000;0.4461;-3.3870;
893.4000;0.4453;-3.3920;
893.7000;0.4412;-3.3994;
894.0000;0.4453;-3.3994;
894.3000;0.4469;-3.3945;
894.6000;0.4453;-3.4019;
894.9000;0.4469;-3.3994;
895.2000;0.4436;-3.4094;
895.5000;0.4453;-3.4144;
895.8000;0.4485;-3.4069;
896.1000;0.4469;-3.4218;
896.4000;0.4453;-3.4169;
896.7000;0.4412;-3.4343;
897.0000;0.4477;-3.4119;
897.3000;0.4461;-3.4119;
897.6000;0.4461;-3.4119;
897.9000;0.4526;-3.4019;
898.2000;0.4453;-3.4193;
898.5000;0.4469;-3.4169;
898.8000;0.4526;-3.4069;
899.1000;0.4485;-3.4119;
899.4000;0.4453;-3.4094;
899.7000;0.4453;-3.4044;
900.0000;0.4461;-3.4019;
900.3000;0.4469;-3.3970;
900.6000;0.4493;-3.3994;
900.9000;0.4453;-3.3970;
901.2000;0.4477;-3.3870;
901.5000;0.4485;-3.3870;
901.8000;0.4469;-3.3970;
902.1000;0.4469;-3.4069;
902.4000;0.4453;-3.4069;
902.7000;0.4469;-3.4069;
903.0000;0.4477;-3.4044;
903.3000;0.4444;-3.4144;
903.6000;0.4453;-3.4094;
903.9000;0.4461;-3.4119;
904.2000;0.4428;-3.4169;
904.5000;0.4453;-3.4119;
904.8000;0.4501;-3.4044;
905.1000;0.4461;-3.4119;
905.4000;0.4469;-3.4094;
905.7000;0.4469;-3.4044;
906.0000;0.4453;-3.4069;
906.3000;0.4469;-3.3945;
906.6000;0.4453;-3.3920;
906.9000;0.4444;-3.3970;
907.2000;0.4469;-3.4019;
907.5000;0.4453;-3.4019;
907.8000;0.4444;-3.4019;
908.1000;0.4485;-3.3895;
908.4000;0.4485;-3.3970;
908.7000;0.4469;-3.3920;
909.0000;0.4550;-3.3746;
909.3000;0.4469;-3.3895;
909.6000;0.4461;-3.3895;
909.9000;0.4444;-3.3945;
910.2000;0.4453;-3.3895;
910.5000;0.4567;-3.3646;
910.8000;0.4477;-3.3870;
911.1000;0.4477;-3.3970;
911.4000;0.4461;-3.3920;
911.7000;0.4469;-3.3895;
912.0000;0.4469;-3.3895;
912.3000;0.4453;-3.3920;
912.6000;0.4477;-3.3920;
912.9000;0.4453;-3.3970;
913.2000;0.4444;-3.3945;
913.5000;0.4444;-3.4044;
913.8000;0.4510;-3.3870;
914.1000;0.4510;-3.3796;
914.4000;0.4412;-3.3945;
914.7000;0.4510;-3.3771;
915.0000;0.4444;-3.3870;
915.3000;0.4477;-3.3820;
915.6000;0.4485;-3.3895;
915.9000;0.4461;-3.3994;
916.2000;0.4461;-3.4044;
916.5000;0.4461;-3.4069;
916.8000;0.4501;-3.3945;
917.1000;0.4387;-3.4218;
917.4000;0.4493;-3.3994;
917.7000;0.4469;-3.4094;
918.0000;0.4477;-3.4044;
918.3000;0.4469;-3.4094;
918.6000;0.4477;-3.4069;
918.9000;0.4453;-3.4119;
919.2000;0.4469;-3.4144;
919.5000;0.4453;-3.4169;
919.8000;0.4453;-3.4218;
920.1000;0.4420;-3.4243;
920.4000;0.4526;-3.3920;
920.7000;0.4444;-3.4119;
921.0000;0.4444;-3.4218;
921.3000;0.4453;-3.4243;
921.6000;0.4453;-3.4218;
921.9000;0.4501;-3.4144;
922.2000;0.4461;-3.4293;
922.5000;0.4461;-3.4243;
922.8000;0.4428;-3.4218;
923.1000;0.4453;-3.4069;
923.4000;0.4477;-3.4019;
923.7000;0.4461;-3.4019;
924.0000;0.4461;-3.4044;
924.3000;0.4453;-3.4069;
924.6000;0.4461;-3.4044;
924.9000;0.4469;-3.3970;
925.2000;0.4477;-3.3945;
925.5000;0.4436;-3.3970;
925.8000;0.4453;-3.3945;
926.1000;0.4453;-3.3970;
926.4000;0.4461;-3.4044;
926.7000;0.4453;-3.4094;
927.0000;0.4436;-3.4144;
927.3000;0.4428;-3.4094;
927.6000;0.4453;-3.4044;
927.9000;0.4453;-3.3994;
928.2000;0.4444;-3.4094;
928.5000;0.4436;-3.4094;
928.8000;0.4444;-3.4119;
929.1000;0.4444;-3.4094;
929.4000;0.4444;-3.4119;
929.7000;0.4453;-3.4119;
930.0000;0.4444;-3.4119;
930.3000;0.4428;-3.4193;
930.6000;0.4453;-3.4119;
930.9000;0.4453;-3.4144;
931.2000;0.4453;-3.4094;
931.5000;0.4444;-3.4094;
931.8000;0.4469;-3.4019;
932.1000;0.4469;-3.3920;
932.4000;0.4469;-3.3945;
932.7000;0.4518;-3.3870;
933.0000;0.4453;-3.4119;
933.3000;0.4444;-3.4069;
933.6000;0.4436;-3.4144;
933.9000;0.4469;-3.4069;
934.2000;0.4461;-3.4044;
934.5000;0.4485;-3.3920;
934.8000;0.4444;-3.3994;
935.1000;0.4453;-3.4044;
935.4000;0.4453;-3.4144;
935.7000;0.4444;-3.4144;
936.0000;0.4453;-3.4119;
936.3000;0.4444;-3.4144;
936.6000;0.4461;-3.4218;
936.9000;0.4469;-3.4193;
937.2000;0.4477;-3.4218;
937.5000;0.4510;-3.4119;
937.8000;0.4501;-3.4144;
938.1000;0.4453;-3.4268;
938.4000;0.4461;-3.4169;
938.7000;0.4501;-3.3994;
939.0000;0.4485;-3.4019;
939.3000;0.4420;-3.4169;
939.6000;0.4493;-3.3920;
939.9000;0.4444;-3.4069;
940.2000;0.4444;-3.4193;
940.5000;0.4436;-3.4218;
940.8000;0.4526;-3.3970;
941.1000;0.4436;-3.4144;
941.4000;0.4477;-3.4044;
941.7000;0.4453;-3.3970;
942.0000;0.4444;-3.4069;
942.3000;0.4453;-3.4193;
942.6000;0.4387;-3.4243;
942.9000;0.4453;-3.4119;
943.2000;0.4453;-3.4218;
943.5000;0.4453;-3.4268;
943.8000;0.4469;-3.4218;
944.1000;0.4428;-3.4243;
944.4000;0.4501;-3.4119;
944.7000;0.4453;-3.4119;
945.0000;0.4453;-3.4119;
945.3000;0.4444;-3.4144;
945.6000;0.4461;-3.4119;
945.9000;0.4453;-3.4144;
946.2000;0.4444;-3.4144;
946.5000;0.4444;-3.4169;
946.8000;0.4461;-3.4268;
947.1000;0.4387;-3.4392;
947.4000;0.4444;-3.4193;
947.7000;0.4461;-3.4193;
948.0000;0.4469;-3.4268;
948.3000;0.4477;-3.4119;
948.6000;0.4469;-3.4119;
948.9000;0.4371;-3.4293;
949.2000;0.4477;-3.4069;
949.5000;0.4436;-3.4119;
949.8000;0.4444;-3.4169;
950.1000;0.4444;-3.4144;
950.4000;0.4428;-3.4268;
950.7000;0.4444;-3.4268;
951.0000;0.4461;-3.4318;
951.3000;0.4453;-3.4343;
951.6000;0.4453;-3.4343;
951.9000;0.4453;-3.4367;
952.2000;0.4396;-3.4442;
952.5000;0.4444;-3.4318;
952.8000;0.4436;-3.4417;
953.1000;0.4444;-3.4392;
953.4000;0.4461;-3.4392;
953.7000;0.4485;-3.4367;
954.0000;0.4461;-3.4392;
954.3000;0.4453;-3.4417;
954.6000;0.4469;-3.4417;
954.9000;0.4469;-3.4343;
955.2000;0.4420;-3.4442;
955.5000;0.4436;-3.4392;
955.8000;0.4453;-3.4392;
956.1000;0.4469;-3.4467;
956.4000;0.4461;-3.4492;
956.7000;0.4355;-3.4591;
957.0000;0.4469;-3.4218;
957.3000;0.4461;-3.4243;
957.6000;0.4461;-3.4343;
957.9000;0.4453;-3.4367;
958.2000;0.4444;-3.4392;
958.5000;0.4453;-3.4293;
958.8000;0.4461;-3.4268;
959.1000;0.4453;-3.4392;
959.4000;0.4412;-3.4492;
959.7000;0.4453;-3.4367;
960.0000;0.4453;-3.4417;
960.3000;0.4501;-3.4318;
960.6000;0.4453;-3.4392;
960.9000;0.4469;-3.4318;
961.2000;0.4493;-3.4169;
961.5000;0.4493;-3.4193;
961.8000;0.4444;-3.4318;
962.1000;0.4404;-3.4442;
962.4000;0.4485;-3.4193;
962.7000;0.4469;-3.4218;
963.0000;0.4461;-3.4243;
963.3000;0.4461;-3.4193;
963.6000;0.4420;-3.4318;
963.9000;0.4485;-3.4218;
964.2000;0.4453;-3.4218;
964.5000;0.4444;-3.4193;
964.8000;0.4510;-3.3945;
965.1000;0.4453;-3.4069;
965.4000;0.4453;-3.4069;
965.7000;0.4436;-3.4119;
966.0000;0.4461;-3.4193;
966.3000;0.4436;-3.4268;
966.6000;0.4444;-3.4218;
966.9000;0.4444;-3.4218;
967.2000;0.4477;-3.4094;
967.5000;0.4461;-3.4094;
967.8000;0.4436;-3.4094;
968.1000;0.4461;-3.4069;
968.4000;0.4469;-3.4094;
968.7000;0.4493;-3.3994;
969.0000;0.4485;-3.4019;
969.3000;0.4444;-3.4044;
969.6000;0.4444;-3.4144;
969.9000;0.4501;-3.4044;
970.2000;0.4469;-3.4094;
970.5000;0.4461;-3.4069;
970.8000;0.4518;-3.3920;
971.1000;0.4477;-3.4019;
971.4000;0.4461;-3.4094;
971.7000;0.4469;-3.4069;
972.0000;0.4518;-3.3945;
972.3000;0.4477;-3.3994;
972.6000;0.4461;-3.4019;
972.9000;0.4444;-3.4069;
973.2000;0.4469;-3.4019;
973.5000;0.4461;-3.4019;
973.8000;0.4477;-3.4044;
974.1000;0.4469;-3.4019;
974.4000;0.4477;-3.4044;
974.7000;0.4469;-3.4094;
975.0000;0.4469;-3.4119;
975.3000;0.4461;-3.4144;
975.6000;0.4453;-3.4094;
975.9000;0.4453;-3.4069;
976.2000;0.4453;-3.4119;
976.5000;0.4453;-3.4169;
976.8000;0.4469;-3.4069;
977.1000;0.4453;-3.4069;
977.4000;0.4453;-3.4094;
977.7000;0.4477;-3.4069;
978.0000;0.4461;-3.4144;
978.3000;0.4469;-3.4193;
978.6000;0.4461;-3.4243;
978.9000;0.4461;-3.4218;
979.2000;0.4428;-3.4218;
979.5000;0.4510;-3.4044;
979.8000;0.4461;-3.4119;
980.1000;0.4444;-3.4218;
980.4000;0.4444;-3.4268;
980.7000;0.4444;-3.4293;
981.0000;0.4453;-3.4318;
981.3000;0.4436;-3.4318;
981.6000;0.4444;-3.4343;
981.9000;0.4444;-3.4442;
982.2000;0.4469;-3.4392;
982.5000;0.4477;-3.4318;
982.8000;0.4461;-3.4318;
983.1000;0.4444;-3.4442;
983.4000;0.4453;-3.4367;
983.7000;0.4444;-3.4367;
984.0000;0.4477;-3.4268;
984.3000;0.4453;-3.4293;
984.6000;0.4444;-3.4318;
984.9000;0.4461;-3.4268;
985.2000;0.4444;-3.4268;
985.5000;0.4436;-3.4318;
985.8000;0.4534;-3.4019;
986.1000;0.4444;-3.4169;
986.4000;0.4444;-3.4268;
986.7000;0.4420;-3.4268;
987.0000;0.4444;-3.4094;
987.3000;0.4477;-3.4169;
987.6000;0.4461;-3.4193;
987.9000;0.4436;-3.4268;
988.2000;0.4493;-3.4119;
988.5000;0.4444;-3.4169;
988.8000;0.4518;-3.3994;
989.1000;0.4477;-3.4144;
989.4000;0.4444;-3.4243;
989.7000;0.4469;-3.4243;
990.0000;0.4485;-3.4119;
990.3000;0.4461;-3.4094;
990.6000;0.4436;-3.4119;
990.9000;0.4428;-3.4193;
991.2000;0.4444;-3.4218;
991.5000;0.4444;-3.4268;
991.8000;0.4453;-3.4218;
992.1000;0.4461;-3.4144;
992.4000;0.4444;-3.4119;
992.7000;0.4469;-3.4069;
993.0000;0.4461;-3.4019;
993.3000;0.4453;-3.4119;
993.6000;0.4444;-3.4169;
993.9000;0.4436;-3.4343;
994.2000;0.4485;-3.4318;
994.5000;0.4453;-3.4442;
994.8000;0.4363;-3.4691;
995.1000;0.4420;-3.4517;
995.4000;0.4477;-3.4343;
995.7000;0.4453;-3.4343;
996.0000;0.4469;-3.4243;
996.3000;0.4444;-3.4293;
996.6000;0.4347;-3.4467;
996.9000;0.4477;-3.4119;
997.2000;0.4436;-3.4119;
997.5000;0.4436;-3.4069;
997.8000;0.4453;-3.4019;
998.1000;0.4453;-3.4044;
998.4000;0.4461;-3.4169;
998.7000;0.4420;-3.4293;
999.0000;0.4428;-3.4367;
999.3000;0.4444;-3.4293;
999.6000;0.4444;-3.4318;
999.9000;0.4453;-3.4343;
1000.2000;0.4444;-3.4343;
1000.5000;0.4453;-3.4442;
1000.8000;0.4444;-3.4467;
1001.1000;0.4461;-3.4417;
1001.4000;0.4453;-3.4417;
1001.7000;0.4453;-3.4318;
1002.0000;0.4461;-3.4318;
1002.3000;0.4444;-3.4392;
1002.6000;0.4436;-3.4392;
1002.9000;0.4453;-3.4293;
1003.2000;0.4428;-3.4392;
1003.5000;0.4453;-3.4343;
1003.8000;0.4477;-3.4293;
1004.1000;0.4444;-3.4392;
1004.4000;0.4453;-3.4343;
1004.7000;0.4453;-3.4392;
1005.0000;0.4436;-3.4417;
1005.3000;0.4461;-3.4467;
1005.6000;0.4453;-3.4367;
1005.9000;0.4477;-3.4392;
1006.2000;0.4453;-3.4492;
1006.5000;0.4453;-3.4467;
1006.8000;0.4404;-3.4666;
1007.1000;0.4436;-3.4542;
1007.4000;0.4444;-3.4542;
1007.7000;0.4501;-3.4268;
1008.0000;0.4550;-3.4094;
1008.3000;0.4518;-3.4144;
1008.6000;0.4469;-3.4268;
1008.9000;0.4453;-3.4417;
1009.2000;0.4444;-3.4417;
1009.5000;0.4453;-3.4343;
1009.8000;0.4396;-3.4492;
1010.1000;0.4477;-3.4193;
1010.4000;0.4461;-3.4293;
1010.7000;0.4420;-3.4392;
1011.0000;0.4461;-3.4268;
1011.3000;0.4461;-3.4343;
1011.6000;0.4469;-3.4318;
1011.9000;0.4453;-3.4293;
1012.2000;0.4444;-3.4243;
1012.5000;0.4453;-3.4268;
1012.8000;0.4420;-3.4343;
1013.1000;0.4404;-3.4367;
1013.4000;0.4436;-3.4318;
1013.7000;0.4461;-3.4243;
1014.0000;0.4453;-3.4218;
1014.3000;0.4436;-3.4243;
1014.6000;0.4485;-3.4094;
1014.9000;0.4404;-3.4293;
1015.2000;0.4436;-3.4169;
1015.5000;0.4453;-3.4169;
1015.8000;0.4444;-3.4094;
1016.1000;0.4461;-3.4019;
1016.4000;0.4477;-3.4019;
1016.7000;0.4453;-3.4144;
1017.0000;0.4453;-3.4094;
1017.3000;0.4461;-3.4144;
1017.6000;0.4436;-3.4243;
1017.9000;0.4453;-3.4144;
1018.2000;0.4469;-3.4044;
1018.5000;0.4469;-3.4094;
1018.8000;0.4444;-3.4243;
1019.1000;0.4444;-3.4268;
1019.4000;0.4436;-3.4417;
1019.7000;0.4453;-3.4343;
1020.0000;0.4444;-3.4442;
1020.3000;0.4461;-3.4492;
1020.6000;0.4444;-3.4442;
1020.9000;0.4453;-3.4367;
1021.2000;0.4461;-3.4318;
1021.5000;0.4485;-3.4268;
1021.8000;0.4461;-3.4268;
1022.1000;0.4444;-3.4318;
1022.4000;0.4444;-3.4268;
1022.7000;0.4428;-3.4343;
1023.0000;0.4461;-3.4268;
1023.3000;0.4444;-3.4318;
1023.6000;0.4420;-3.4318;
1023.9000;0.4461;-3.4218;
1024.2000;0.4461;-3.4268;
1024.5000;0.4444;-3.4417;
1024.8000;0.4477;-3.4392;
1025.1000;0.4461;-3.4417;
1025.4000;0.4355;-3.4616;
1025.7000;0.4436;-3.4343;
1026.0000;0.4436;-3.4367;
1026.3000;0.4453;-3.4293;
1026.6000;0.4453;-3.4318;
1026.9000;0.4477;-3.4268;
1027.2000;0.4461;-3.4293;
1027.5000;0.4396;-3.4467;
1027.8000;0.4469;-3.4318;
1028.1000;0.4444;-3.4417;
1028.4000;0.4444;-3.4417;
1028.7000;0.4379;-3.4591;
1029.0000;0.4469;-3.4442;
1029.3000;0.4453;-3.4517;
1029.6000;0.4404;-3.4666;
1029.9000;0.4436;-3.4566;
1030.2000;0.4444;-3.4442;
1030.5000;0.4379;-3.4566;
1030.8000;0.4436;-3.4367;
1031.1000;0.4453;-3.4392;
1031.4000;0.4453;-3.4343;
1031.7000;0.4558;-3.4069;
1032.0000;0.4461;-3.4243;
1032.3000;0.4444;-3.4268;
1032.6000;0.4453;-3.4293;
1032.9000;0.4461;-3.4243;
1033.2000;0.4461;-3.4193;
1033.5000;0.4436;-3.4169;
1033.8000;0.4461;-3.4044;
1034.1000;0.4420;-3.4119;
1034.4000;0.4436;-3.4019;
1034.7000;0.4444;-3.4094;
1035.0000;0.4444;-3.4094;
1035.3000;0.4461;-3.4069;
1035.6000;0.4436;-3.4019;
1035.9000;0.4453;-3.4069;
1036.2000;0.4428;-3.4119;
1036.5000;0.4444;-3.4119;
1036.8000;0.4420;-3.4218;
1037.1000;0.4469;-3.4169;
1037.4000;0.4469;-3.4243;
1037.7000;0.4444;-3.4218;
1038.0000;0.4436;-3.4144;
1038.3000;0.4444;-3.4144;
1038.6000;0.4453;-3.4169;
1038.9000;0.4444;-3.4169;
1039.2000;0.4428;-3.4243;
1039.5000;0.4453;-3.4193;
1039.8000;0.4469;-3.4218;
1040.1000;0.4453;-3.4218;
1040.4000;0.4453;-3.4243;
1040.7000;0.4461;-3.4268;
1041.0000;0.4461;-3.4243;
1041.3000;0.4461;-3.4218;
1041.6000;0.4444;-3.4293;
1041.9000;0.4510;-3.4069;
1042.2000;0.4453;-3.4119;
1042.5000;0.4461;-3.4144;
1042.8000;0.4453;-3.4119;
1043.1000;0.4461;-3.4169;
1043.4000;0.4469;-3.4069;
1043.7000;0.4444;-3.4218;
1044.0000;0.4453;-3.4193;
1044.3000;0.4461;-3.4268;
1044.6000;0.4428;-3.4343;
1044.9000;0.4526;-3.4019;
1045.2000;0.4444;-3.4268;
1045.5000;0.4436;-3.4293;
1045.8000;0.4469;-3.4144;
1046.1000;0.4387;-3.4343;
1046.4000;0.4436;-3.4293;
1046.7000;0.4428;-3.4318;
1047.0000;0.4469;-3.4293;
1047.3000;0.4436;-3.4392;
1047.6000;0.4428;-3.4417;
1047.9000;0.4461;-3.4467;
1048.2000;0.4444;-3.4492;
1048.5000;0.4461;-3.4392;
1048.8000;0.4444;-3.4417;
1049.1000;0.4461;-3.4367;
1049.4000;0.4493;-3.4343;
1049.7000;0.4444;-3.4566;
1050.0000;0.4436;-3.4591;
1050.3000;0.4453;-3.4467;
1050.6000;0.4428;-3.4467;
1050.9000;0.4428;-3.4318;
1051.2000;0.4461;-3.4318;
1051.5000;0.4501;-3.4218;
1051.8000;0.4444;-3.4218;
1052.1000;0.4444;-3.4169;
1052.4000;0.4444;-3.4169;
1052.7000;0.4453;-3.4243;
1053.0000;0.4404;-3.4367;
1053.3000;0.4436;-3.4243;
1053.6000;0.4387;-3.4367;
1053.9000;0.4469;-3.4218;
1054.2000;0.4461;-3.4318;
1054.5000;0.4428;-3.4367;
1054.8000;0.4420;-3.4367;
1055.1000;0.4493;-3.4169;
1055.4000;0.4461;-3.4343;
1055.7000;0.4453;-3.4367;
1056.0000;0.4379;-3.4492;
1056.3000;0.4453;-3.4293;
1056.6000;0.4461;-3.4243;
1056.9000;0.4461;-3.4268;
1057.2000;0.4469;-3.4268;
1057.5000;0.4436;-3.4318;
1057.8000;0.4469;-3.4293;
1058.1000;0.4453;-3.4169;
1058.4000;0.4461;-3.4144;
1058.7000;0.4444;-3.4193;
1059.0000;0.4461;-3.4193;
1059.3000;0.4436;-3.4318;
1059.6000;0.4453;-3.4243;
1059.9000;0.4444;-3.4293;
1060.2000;0.4436;-3.4268;
1060.5000;0.4444;-3.4193;
1060.8000;0.4453;-3.4094;
1061.1000;0.4444;-3.4144;
1061.4000;0.4428;-3.4169;
1061.7000;0.4444;-3.4094;
1062.0000;0.4436;-3.4069;
1062.3000;0.4444;-3.4019;
1062.6000;0.4461;-3.4019;
1062.9000;0.4453;-3.4169;
1063.2000;0.4453;-3.4144;
1063.5000;0.4428;-3.4268;
1063.8000;0.4436;-3.4318;
1064.1000;0.4477;-3.4193;
1064.4000;0.4461;-3.4119;
1064.7000;0.4477;-3.4044;
1065.0000;0.4444;-3.4144;
1065.3000;0.4477;-3.4119;
1065.6000;0.4477;-3.4119;
1065.9000;0.4453;-3.4144;
1066.2000;0.4469;-3.4094;
1066.5000;0.4444;-3.4218;
1066.8000;0.4461;-3.4193;
1067.1000;0.4444;-3.4193;
1067.4000;0.4461;-3.4144;
1067.7000;0.4444;-3.4119;
1068.0000;0.4444;-3.4069;
1068.3000;0.4444;-3.3994;
1068.6000;0.4453;-3.3970;
1068.9000;0.4485;-3.3870;
1069.2000;0.4428;-3.4019;
1069.5000;0.4428;-3.3994;
1069.8000;0.4461;-3.4019;
1070.1000;0.4453;-3.4094;
1070.4000;0.4453;-3.4069;
1070.7000;0.4444;-3.4144;
1071.0000;0.4412;-3.4218;
1071.3000;0.4444;-3.4218;
1071.6000;0.4461;-3.4144;
1071.9000;0.4420;-3.4268;
1072.2000;0.4404;-3.4318;
1072.5000;0.4444;-3.4193;
1072.8000;0.4444;-3.4169;
1073.1000;0.4436;-3.4119;
1073.4000;0.4453;-3.4094;
1073.7000;0.4461;-3.4094;
1074.0000;0.4428;-3.4218;
1074.3000;0.4436;-3.4193;
1074.6000;0.4477;-3.3994;
1074.9000;0.4436;-3.3994;
1075.2000;0.4461;-3.3870;
1075.5000;0.4461;-3.3895;
1075.8000;0.4469;-3.3970;
1076.1000;0.4461;-3.4044;
1076.4000;0.4461;-3.4119;
1076.7000;0.4453;-3.4119;
1077.0000;0.4461;-3.3970;
1077.3000;0.4461;-3.3994;
1077.6000;0.4461;-3.3920;
1077.9000;0.4493;-3.3771;
1078.2000;0.4453;-3.3970;
1078.5000;0.4428;-3.4119;
1078.8000;0.4420;-3.4144;
1079.1000;0.4453;-3.4144;
1079.4000;0.4444;-3.4094;
1079.7000;0.4436;-3.4119;
1080.0000;0.4444;-3.4169;
1080.3000;0.4444;-3.4193;
1080.6000;0.4420;-3.4293;
1080.9000;0.4420;-3.4268;
1081.2000;0.4355;-3.4442;
1081.5000;0.4428;-3.4218;
1081.8000;0.4444;-3.4193;
1082.1000;0.4453;-3.4218;
1082.4000;0.4444;-3.4268;
1082.7000;0.4461;-3.4293;
1083.0000;0.4453;-3.4293;
1083.3000;0.4461;-3.4343;
1083.6000;0.4444;-3.4343;
1083.9000;0.4477;-3.4243;
1084.2000;0.4469;-3.4268;
1084.5000;0.4444;-3.4367;
1084.8000;0.4396;-3.4517;
1085.1000;0.4428;-3.4343;
1085.4000;0.4428;-3.4318;
1085.7000;0.4493;-3.4193;
1086.0000;0.4453;-3.4218;
1086.3000;0.4444;-3.4218;
1086.6000;0.4477;-3.4169;
1086.9000;0.4567;-3.3994;
1087.2000;0.4469;-3.4243;
1087.5000;0.4453;-3.4243;
1087.8000;0.4510;-3.4069;
1088.1000;0.4469;-3.4094;
1088.4000;0.4485;-3.4094;
1088.7000;0.4436;-3.4193;
1089.0000;0.4461;-3.4169;
1089.3000;0.4444;-3.4144;
1089.6000;0.4453;-3.4094;
1089.9000;0.4428;-3.4144;
1090.2000;0.4420;-3.4193;
1090.5000;0.4453;-3.4069;
1090.8000;0.4469;-3.4069;
1091.1000;0.4461;-3.4044;
1091.4000;0.4436;-3.4144;
1091.7000;0.4436;-3.4094;
1092.0000;0.4469;-3.3994;
1092.3000;0.4444;-3.4069;
1092.6000;0.4444;-3.4044;
1092.9000;0.4469;-3.4069;
1093.2000;0.4453;-3.4069;
1093.5000;0.4461;-3.4019;
1093.8000;0.4444;-3.4119;
1094.1000;0.4453;-3.4069;
1094.4000;0.4453;-3.4019;
1094.7000;0.4444;-3.4169;
1095.0000;0.4453;-3.4169;
1095.3000;0.4461;-3.4218;
1095.6000;0.4453;-3.4268;
1095.9000;0.4469;-3.4318;
1096.2000;0.4396;-3.4467;
1096.5000;0.4453;-3.4417;
1096.8000;0.4436;-3.4343;
1097.1000;0.4428;-3.4343;
1097.4000;0.4453;-3.4268;
1097.7000;0.4444;-3.4293;
1098.0000;0.4420;-3.4318;
1098.3000;0.4444;-3.4293;
1098.6000;0.4363;-3.4442;
1098.9000;0.4453;-3.4069;
1099.2000;0.4453;-3.4044;
1099.5000;0.4469;-3.4044;
1099.8000;0.4436;-3.4144;
1100.1000;0.4469;-3.4144;
1100.4000;0.4461;-3.4119;
1100.7000;0.4469;-3.4044;
1101.0000;0.4550;-3.3895;
1101.3000;0.4444;-3.4144;
1101.6000;0.4444;-3.4169;
1101.9000;0.4469;-3.4094;
1102.2000;0.4444;-3.4119;
1102.5000;0.4453;-3.4193;
1102.8000;0.4404;-3.4268;
1103.1000;0.4420;-3.4193;
1103.4000;0.4436;-3.4218;
1103.7000;0.4436;-3.4144;
1104.0000;0.4453;-3.4193;
1104.3000;0.4453;-3.4218;
1104.6000;0.4379;-3.4417;
1104.9000;0.4444;-3.4243;
1105.2000;0.4444;-3.4268;
1105.5000;0.4453;-3.4293;
1105.8000;0.4461;-3.4367;
1106.1000;0.4453;-3.4392;
1106.4000;0.4461;-3.4367;
1106.7000;0.4444;-3.4492;
1107.0000;0.4436;-3.4616;
1107.3000;0.4436;-3.4616;
1107.6000;0.4453;-3.4517;
1107.9000;0.4477;-3.4467;
1108.2000;0.4444;-3.4542;
1108.5000;0.4436;-3.4566;
1108.8000;0.4404;-3.4616;
1109.1000;0.4453;-3.4467;
1109.4000;0.4436;-3.4492;
1109.7000;0.4428;-3.4392;
1110.0000;0.4428;-3.4392;
1110.3000;0.4461;-3.4243;
1110.6000;0.4420;-3.4367;
1110.9000;0.4387;-3.4442;
1111.2000;0.4453;-3.4268;
1111.5000;0.4469;-3.4218;
1111.8000;0.4477;-3.4119;
1112.1000;0.4436;-3.4119;
1112.4000;0.4444;-3.4094;
1112.7000;0.4461;-3.4044;
1113.0000;0.4444;-3.4094;
1113.3000;0.4444;-3.4193;
1113.6000;0.4428;-3.4367;
1113.9000;0.4575;-3.3994;
1114.2000;0.4436;-3.4318;
1114.5000;0.4436;-3.4318;
1114.8000;0.4436;-3.4392;
1115.1000;0.4453;-3.4392;
1115.4000;0.4428;-3.4392;
1115.7000;0.4444;-3.4318;
1116.0000;0.4461;-3.4293;
1116.3000;0.4420;-3.4367;
1116.6000;0.4444;-3.4392;
1116.9000;0.4453;-3.4293;
1117.2000;0.4412;-3.4367;
1117.5000;0.4444;-3.4268;
1117.8000;0.4428;-3.4218;
1118.1000;0.4444;-3.4293;
1118.4000;0.4461;-3.4218;
1118.7000;0.4436;-3.4243;
1119.0000;0.4444;-3.4119;
1119.3000;0.4436;-3.4094;
1119.6000;0.4453;-3.4094;
1119.9000;0.4444;-3.4094;
1120.2000;0.4444;-3.4119;
1120.5000;0.4387;-3.4343;
1120.8000;0.4436;-3.4169;
1121.1000;0.4436;-3.4144;
1121.4000;0.4436;-3.4019;
1121.7000;0.4428;-3.3945;
1122.0000;0.4436;-3.3994;
1122.3000;0.4461;-3.3895;
1122.6000;0.4436;-3.4069;
1122.9000;0.4436;-3.4069;
1123.2000;0.4436;-3.4044;
1123.5000;0.4436;-3.4069;
1123.8000;0.4461;-3.3970;
1124.1000;0.4453;-3.3994;
1124.4000;0.4453;-3.3920;
1124.7000;0.4453;-3.3994;
1125.0000;0.4477;-3.3920;
1125.3000;0.4436;-3.4169;
1125.6000;0.4469;-3.4069;
1125.9000;0.4469;-3.4069;
1126.2000;0.4404;-3.4293;
1126.5000;0.4542;-3.3920;
1126.8000;0.4453;-3.4218;
1127.1000;0.4444;-3.4169;
1127.4000;0.4453;-3.4069;
1127.7000;0.4363;-3.4218;
1128.0000;0.4371;-3.4218;
1128.3000;0.4444;-3.3970;
1128.6000;0.4493;-3.3845;
1128.9000;0.4436;-3.4044;
1129.2000;0.4526;-3.3845;
1129.5000;0.4428;-3.4044;
1129.8000;0.4485;-3.3994;
1130.1000;0.4436;-3.4119;
1130.4000;0.4453;-3.4069;
1130.7000;0.4436;-3.4119;
1131.0000;0.4444;-3.3994;
1131.3000;0.4461;-3.3994;
1131.6000;0.4371;-3.4293;
1131.9000;0.4444;-3.4069;
1132.2000;0.4453;-3.4069;
1132.5000;0.4461;-3.3920;
1132.8000;0.4436;-3.3970;
1133.1000;0.4436;-3.4069;
1133.4000;0.4428;-3.4119;
1133.7000;0.4428;-3.4119;
1134.0000;0.4436;-3.4169;
1134.3000;0.4444;-3.4218;
1134.6000;0.4436;-3.4243;
1134.9000;0.4534;-3.4019;
1135.2000;0.4453;-3.4193;
1135.5000;0.4444;-3.4218;
1135.8000;0.4453;-3.4268;
1136.1000;0.4453;-3.4218;
1136.4000;0.4469;-3.4268;
1136.7000;0.4436;-3.4218;
1137.0000;0.4436;-3.4243;
1137.3000;0.4453;-3.4193;
1137.6000;0.4420;-3.4243;
1137.9000;0.4436;-3.4318;
1138.2000;0.4453;-3.4268;
1138.5000;0.4453;-3.4218;
1138.8000;0.4436;-3.4169;
1139.1000;0.4461;-3.4193;
1139.4000;0.4453;-3.4169;
1139.7000;0.4444;-3.4318;
1140.0000;0.4461;-3.4243;
1140.3000;0.4453;-3.4218;
1140.6000;0.4453;-3.4193;
1140.9000;0.4436;-3.4119;
1141.2000;0.4428;-3.4094;
1141.5000;0.4444;-3.3970;
1141.8000;0.4477;-3.3945;
1142.1000;0.4510;-3.3870;
1142.4000;0.4404;-3.4144;
1142.7000;0.4396;-3.4193;
1143.0000;0.4444;-3.4069;
1143.3000;0.4428;-3.4069;
1143.6000;0.4469;-3.4019;
1143.9000;0.4428;-3.4193;
1144.2000;0.4444;-3.4069;
1144.5000;0.4493;-3.3945;
1144.8000;0.4412;-3.4119;
1145.1000;0.4428;-3.4119;
1145.4000;0.4444;-3.4218;
1145.7000;0.4453;-3.4243;
1146.0000;0.4453;-3.4293;
1146.3000;0.4477;-3.4293;
1146.6000;0.4477;-3.4243;
1146.9000;0.4412;-3.4343;
1147.2000;0.4469;-3.4218;
1147.5000;0.4444;-3.4268;
1147.8000;0.4485;-3.4094;
1148.1000;0.4453;-3.4193;
1148.4000;0.4444;-3.4193;
1148.7000;0.4428;-3.4144;
1149.0000;0.4444;-3.4119;
1149.3000;0.4444;-3.4094;
1149.6000;0.4436;-3.4169;
1149.9000;0.4444;-3.4119;
1150.2000;0.4412;-3.4218;
1150.5000;0.4444;-3.4119;
1150.8000;0.4371;-3.4343;
1151.1000;0.4355;-3.4517;
1151.4000;0.4444;-3.4268;
1151.7000;0.4453;-3.4293;
1152.0000;0.4453;-3.4193;
1152.3000;0.4461;-3.4169;
1152.6000;0.4461;-3.4119;
1152.9000;0.4444;-3.4193;
1153.2000;0.4461;-3.4094;
1153.5000;0.4444;-3.4144;
1153.8000;0.4444;-3.4193;
1154.1000;0.4444;-3.4193;
1154.4000;0.4453;-3.4119;
1154.7000;0.4461;-3.4094;
1155.0000;0.4444;-3.4169;
1155.3000;0.4453;-3.4169;
1155.6000;0.4420;-3.4268;
1155.9000;0.4453;-3.4169;
1156.2000;0.4444;-3.4243;
1156.5000;0.4436;-3.4293;
1156.8000;0.4436;-3.4367;
1157.1000;0.4469;-3.4268;
1157.4000;0.4485;-3.4268;
1157.7000;0.4461;-3.4293;
1158.0000;0.4444;-3.4343;
1158.3000;0.4444;-3.4293;
1158.6000;0.4444;-3.4268;
1158.9000;0.4493;-3.4119;
1159.2000;0.4444;-3.4243;
1159.5000;0.4453;-3.4293;
1159.8000;0.4444;-3.4318;
1160.1000;0.4469;-3.4268;
1160.4000;0.4469;-3.4193;
1160.7000;0.4436;-3.4343;
1161.0000;0.4453;-3.4268;
1161.3000;0.4444;-3.4293;
1161.6000;0.4461;-3.4218;
1161.9000;0.4444;-3.4293;
1162.2000;0.4436;-3.4268;
1162.5000;0.4461;-3.4193;
1162.8000;0.4461;-3.4144;
1163.1000;0.4436;-3.4218;
1163.4000;0.4436;-3.4119;
1163.7000;0.4444;-3.4119;
1164.0000;0.4428;-3.4218;
1164.3000;0.4436;-3.4218;
1164.6000;0.4453;-3.4144;
1164.9000;0.4444;-3.4169;
1165.2000;0.4444;-3.4144;
1165.5000;0.4453;-3.4169;
1165.8000;0.4420;-3.4268;
1166.1000;0.4412;-3.4218;
1166.4000;0.4428;-3.4243;
1166.7000;0.4444;-3.4193;
1167.0000;0.4444;-3.4243;
1167.3000;0.4461;-3.4243;
1167.6000;0.4444;-3.4243;
1167.9000;0.4444;-3.4169;
1168.2000;0.4330;-3.4442;
1168.5000;0.4436;-3.4094;
1168.8000;0.4444;-3.3994;
1169.1000;0.4493;-3.3945;
1169.4000;0.4453;-3.4044;
1169.7000;0.4461;-3.3945;
1170.0000;0.4444;-3.4019;
1170.3000;0.4436;-3.4019;
1170.6000;0.4420;-3.4044;
1170.9000;0.4428;-3.4019;
1171.2000;0.4404;-3.4144;
1171.5000;0.4396;-3.4193;
1171.8000;0.4428;-3.4144;
1172.1000;0.4444;-3.4144;
1172.4000;0.4444;-3.4144;
1172.7000;0.4436;-3.4243;
1173.0000;0.4485;-3.4169;
1173.3000;0.4444;-3.4268;
1173.6000;0.4453;-3.4293;
1173.9000;0.4453;-3.4193;
1174.2000;0.4453;-3.4119;
1174.5000;0.4453;-3.4069;
1174.8000;0.4420;-3.4144;
1175.1000;0.4444;-3.4144;
1175.4000;0.4453;-3.4193;
1175.7000;0.4461;-3.4119;
1176.0000;0.4453;-3.4119;
1176.3000;0.4420;-3.4144;
1176.6000;0.4444;-3.4119;
1176.9000;0.4477;-3.4069;
1177.2000;0.4444;-3.4119;
1177.5000;0.4444;-3.4119;
1177.8000;0.4436;-3.4218;
1178.1000;0.4436;-3.4193;
1178.4000;0.4453;-3.4193;
1178.7000;0.4436;-3.4193;
1179.0000;0.4436;-3.4144;
1179.3000;0.4461;-3.4094;
1179.6000;0.4444;-3.4243;
1179.9000;0.4444;-3.4318;
1180.2000;0.4436;-3.4343;
1180.5000;0.4469;-3.4293;
1180.8000;0.4444;-3.4293;
1181.1000;0.4461;-3.4268;
1181.4000;0.4444;-3.4318;
1181.7000;0.4461;-3.4367;
1182.0000;0.4453;-3.4442;
1182.3000;0.4453;-3.4343;
1182.6000;0.4461;-3.4268;
1182.9000;0.4461;-3.4243;
1183.2000;0.4453;-3.4243;
1183.5000;0.4567;-3.3870;
1183.8000;0.4444;-3.4218;
1184.1000;0.4420;-3.4392;
1184.4000;0.4453;-3.4268;
1184.7000;0.4453;-3.4193;
1185.0000;0.4461;-3.4193;
1185.3000;0.4453;-3.4193;
1185.6000;0.4420;-3.4193;
1185.9000;0.4461;-3.4094;
1186.2000;0.4461;-3.4019;
1186.5000;0.4477;-3.4019;
1186.8000;0.4453;-3.4169;
1187.1000;0.4444;-3.4144;
1187.4000;0.4444;-3.4169;
1187.7000;0.4453;-3.4243;
1188.0000;0.4436;-3.4293;
1188.3000;0.4453;-3.4218;
1188.6000;0.4469;-3.4193;
1188.9000;0.4453;-3.4193;
1189.2000;0.4444;-3.4144;
1189.5000;0.4436;-3.4094;
1189.8000;0.4518;-3.3895;
1190.1000;0.4444;-3.4069;
1190.4000;0.4436;-3.4044;
1190.7000;0.4428;-3.4069;
1191.0000;0.4461;-3.4044;
1191.3000;0.4444;-3.3994;
1191.6000;0.4444;-3.4019;
1191.9000;0.4534;-3.3870;
1192.2000;0.4518;-3.3895;
1192.5000;0.4461;-3.4094;
1192.8000;0.4404;-3.4318;
1193.1000;0.4420;-3.4193;
1193.4000;0.4444;-3.4044;
1193.7000;0.4477;-3.3994;
1194.0000;0.4453;-3.4094;
1194.3000;0.4444;-3.4119;
1194.6000;0.4420;-3.4169;
1194.9000;0.4436;-3.4169;
1195.2000;0.4469;-3.4169;
1195.5000;0.4444;-3.4268;
1195.8000;0.4436;-3.4417;
1196.1000;0.4444;-3.4417;
1196.4000;0.4444;-3.4343;
1196.7000;0.4436;-3.4318;
1197.0000;0.4469;-3.4343;
1197.3000;0.4510;-3.4318;
1197.6000;0.4453;-3.4442;
1197.9000;0.4453;-3.4318;
1198.2000;0.4550;-3.4119;
1198.5000;0.4461;-3.4417;
1198.8000;0.4436;-3.4467;
1199.1000;0.4518;-3.4218;
1199.4000;0.4461;-3.4392;
1199.7000;0.4461;-3.4318;
1200.0000;0.4461;-3.4293;
1200.3000;0.4469;-3.4218;
1200.6000;0.4461;-3.4169;
1200.9000;0.4526;-3.4069;
1201.2000;0.4461;-3.4293;
1201.5000;0.4444;-3.4268;
1201.8000;0.4444;-3.4243;
1202.1000;0.4436;-3.4193;
1202.4000;0.4428;-3.4293;
1202.7000;0.4453;-3.4218;
1203.0000;0.4436;-3.4218;
1203.3000;0.4436;-3.4268;
1203.6000;0.4501;-3.4119;
1203.9000;0.4444;-3.4193;
1204.2000;0.4444;-3.4169;
1204.5000;0.4436;-3.4193;
1204.8000;0.4444;-3.4169;
1205.1000;0.4412;-3.4318;
1205.4000;0.4453;-3.4193;
1205.7000;0.4453;-3.4193;
1206.0000;0.4542;-3.4044;
1206.3000;0.4469;-3.4193;
1206.6000;0.4469;-3.4144;
1206.9000;0.4387;-3.4318;
1207.2000;0.4461;-3.4218;
1207.5000;0.4453;-3.4318;
1207.8000;0.4436;-3.4367;
1208.1000;0.4428;-3.4392;
1208.4000;0.4461;-3.4318;
1208.7000;0.4461;-3.4318;
1209.0000;0.4485;-3.4169;
1209.3000;0.4453;-3.4218;
1209.6000;0.4444;-3.4268;
1209.9000;0.4444;-3.4218;
1210.2000;0.4404;-3.4268;
1210.5000;0.4453;-3.4069;
1210.8000;0.4453;-3.4019;
1211.1000;0.4453;-3.4119;
1211.4000;0.4453;-3.4169;
1211.7000;0.4444;-3.4144;
1212.0000;0.4501;-3.4069;
1212.3000;0.4453;-3.4268;
1212.6000;0.4477;-3.4193;
1212.9000;0.4444;-3.4318;
1213.2000;0.4379;-3.4542;
1213.5000;0.4436;-3.4367;
1213.8000;0.4436;-3.4268;
1214.1000;0.4379;-3.4367;
1214.4000;0.4469;-3.4169;
1214.7000;0.4436;-3.4318;
1215.0000;0.4420;-3.4343;
1215.3000;0.4412;-3.4343;
1215.6000;0.4469;-3.4243;
1215.9000;0.4453;-3.4268;
1216.2000;0.4444;-3.4169;
1216.5000;0.4404;-3.4293;
1216.8000;0.4420;-3.4293;
1217.1000;0.4436;-3.4218;
1217.4000;0.4453;-3.4218;
1217.7000;0.4453;-3.4243;
1218.0000;0.4444;-3.4268;
1218.3000;0.4428;-3.4318;
1218.6000;0.4387;-3.4318;
1218.9000;0.4453;-3.4119;
1219.2000;0.4428;-3.4169;
1219.5000;0.4428;-3.4268;
1219.8000;0.4526;-3.4019;
1220.1000;0.4461;-3.4144;
1220.4000;0.4461;-3.4119;
1220.7000;0.4469;-3.4119;
1221.0000;0.4461;-3.4218;
1221.3000;0.4493;-3.4094;
1221.6000;0.4453;-3.4119;
1221.9000;0.4461;-3.4193;
1222.2000;0.4461;-3.4268;
1222.5000;0.4461;-3.4169;
1222.8000;0.4461;-3.4094;
1223.1000;0.4436;-3.4094;
1223.4000;0.4461;-3.4169;
1223.7000;0.4444;-3.4268;
1224.0000;0.4453;-3.4218;
1224.3000;0.4453;-3.4243;
1224.6000;0.4444;-3.4268;
1224.9000;0.4428;-3.4293;
1225.2000;0.4453;-3.4318;
1225.5000;0.4436;-3.4343;
1225.8000;0.4428;-3.4517;
1226.1000;0.4469;-3.4417;
1226.4000;0.4453;-3.4343;
1226.7000;0.4444;-3.4293;
1227.0000;0.4436;-3.4343;
1227.3000;0.4453;-3.4268;
1227.6000;0.4461;-3.4218;
1227.9000;0.4510;-3.4169;
1228.2000;0.4461;-3.4268;
1228.5000;0.4444;-3.4293;
1228.8000;0.4453;-3.4144;
1229.1000;0.4444;-3.4094;
1229.4000;0.4436;-3.4094;
1229.7000;0.4453;-3.4144;
1230.0000;0.4461;-3.4069;
1230.3000;0.4444;-3.4193;
1230.6000;0.4461;-3.4144;
1230.9000;0.4436;-3.4243;
1231.2000;0.4444;-3.4243;
1231.5000;0.4453;-3.4243;
1231.8000;0.4453;-3.4169;
1232.1000;0.4436;-3.4169;
1232.4000;0.4453;-3.4094;
1232.7000;0.4444;-3.4094;
1233.0000;0.4428;-3.4193;
1233.3000;0.4461;-3.4144;
1233.6000;0.4444;-3.4144;
1233.9000;0.4428;-3.4193;
1234.2000;0.4444;-3.4169;
1234.5000;0.4436;-3.4169;
1234.8000;0.4444;-3.4268;
1235.1000;0.4428;-3.4268;
1235.4000;0.4461;-3.4094;
1235.7000;0.4461;-3.4144;
1236.0000;0.4371;-3.4293;
1236.3000;0.4444;-3.4069;
1236.6000;0.4428;-3.4094;
1236.9000;0.4428;-3.4144;
1237.2000;0.4444;-3.4169;
1237.5000;0.4428;-3.4119;
1237.8000;0.4436;-3.4019;
1238.1000;0.4404;-3.4069;
1238.4000;0.4444;-3.3994;
1238.7000;0.4493;-3.3920;
1239.0000;0.4444;-3.4218;
1239.3000;0.4428;-3.4218;
1239.6000;0.4412;-3.4193;
1239.9000;0.4428;-3.4193;
1240.2000;0.4469;-3.4169;
1240.5000;0.4379;-3.4392;
1240.8000;0.4461;-3.4094;
1241.1000;0.4453;-3.4069;
1241.4000;0.4444;-3.4069;
1241.7000;0.4436;-3.4144;
1242.0000;0.4428;-3.4169;
1242.3000;0.4453;-3.4193;
1242.6000;0.4461;-3.4169;
1242.9000;0.4444;-3.4144;
1243.2000;0.4387;-3.4268;
1243.5000;0.4493;-3.4094;
1243.8000;0.4477;-3.4144;
1244.1000;0.4461;-3.4293;
1244.4000;0.4436;-3.4268;
1244.7000;0.4477;-3.4094;
1245.0000;0.4461;-3.4169;
1245.3000;0.4510;-3.4119;
1245.6000;0.4379;-3.4343;
1245.9000;0.4461;-3.4119;
1246.2000;0.4526;-3.3895;
1246.5000;0.4453;-3.4119;
1246.8000;0.4436;-3.4218;
1247.1000;0.4444;-3.4243;
1247.4000;0.4436;-3.4243;
1247.7000;0.4444;-3.4243;
1248.0000;0.4444;-3.4218;
1248.3000;0.4436;-3.4243;
1248.6000;0.4453;-3.4169;
1248.9000;0.4453;-3.4193;
1249.2000;0.4436;-3.4268;
1249.5000;0.4436;-3.4218;
1249.8000;0.4453;-3.4193;
1250.1000;0.4453;-3.4218;
1250.4000;0.4428;-3.4367;
1250.7000;0.4420;-3.4318;
1251.0000;0.4428;-3.4243;
1251.3000;0.4453;-3.4243;
1251.6000;0.4461;-3.4193;
1251.9000;0.4453;-3.4218;
1252.2000;0.4453;-3.4268;
1252.5000;0.4469;-3.4193;
1252.8000;0.4428;-3.4243;
1253.1000;0.4453;-3.4169;
1253.4000;0.4485;-3.4069;
1253.7000;0.4436;-3.4193;
1254.0000;0.4436;-3.4193;
1254.3000;0.4461;-3.4169;
1254.6000;0.4453;-3.4193;
1254.9000;0.4469;-3.4218;
1255.2000;0.4412;-3.4392;
1255.5000;0.4453;-3.4293;
1255.8000;0.4453;-3.4268;
1256.1000;0.4461;-3.4218;
1256.4000;0.4461;-3.4144;
1256.7000;0.4461;-3.4094;
1257.0000;0.4461;-3.4144;
1257.3000;0.4420;-3.4193;
1257.6000;0.4420;-3.4193;
1257.9000;0.4461;-3.4119;
1258.2000;0.4436;-3.4169;
1258.5000;0.4469;-3.4044;
1258.8000;0.4453;-3.4169;
1259.1000;0.4485;-3.4144;
1259.4000;0.4444;-3.4293;
1259.7000;0.4420;-3.4442;
1260.0000;0.4412;-3.4417;
1260.3000;0.4436;-3.4367;
1260.6000;0.4444;-3.4268;
1260.9000;0.4436;-3.4318;
1261.2000;0.4420;-3.4392;
1261.5000;0.4436;-3.4293;
1261.8000;0.4477;-3.4193;
1262.1000;0.4387;-3.4417;
1262.4000;0.4493;-3.4144;
1262.7000;0.4428;-3.4318;
1263.0000;0.4461;-3.4268;
1263.3000;0.4461;-3.4268;
1263.6000;0.4436;-3.4218;
1263.9000;0.4444;-3.4094;
1264.2000;0.4444;-3.4044;
1264.5000;0.4444;-3.4094;
1264.8000;0.4444;-3.4268;
1265.1000;0.4444;-3.4243;
1265.4000;0.4436;-3.4318;
1265.7000;0.4379;-3.4392;
1266.0000;0.4436;-3.4293;
1266.3000;0.4436;-3.4243;
1266.6000;0.4453;-3.4193;
1266.9000;0.4428;-3.4318;
1267.2000;0.4461;-3.4193;
1267.5000;0.4444;-3.4193;
1267.8000;0.4428;-3.4193;
1268.1000;0.4420;-3.4144;
1268.4000;0.4453;-3.4169;
1268.7000;0.4469;-3.4119;
1269.0000;0.4469;-3.4144;
1269.3000;0.4469;-3.4169;
1269.6000;0.4436;-3.4268;
1269.9000;0.4493;-3.4144;
1270.2000;0.4379;-3.4467;
1270.5000;0.4444;-3.4293;
1270.8000;0.4453;-3.4293;
1271.1000;0.4420;-3.4268;
1271.4000;0.4444;-3.4193;
1271.7000;0.4453;-3.4144;
1272.0000;0.4428;-3.4169;
1272.3000;0.4436;-3.4218;
1272.6000;0.4444;-3.4119;
1272.9000;0.4444;-3.4094;
1273.2000;0.4428;-3.4069;
1273.5000;0.4428;-3.4069;
1273.8000;0.4420;-3.4119;
1274.1000;0.4453;-3.4069;
1274.4000;0.4396;-3.4169;
1274.7000;0.4436;-3.4044;
1275.0000;0.4469;-3.3970;
1275.3000;0.4363;-3.4193;
1275.6000;0.4453;-3.4069;
1275.9000;0.4444;-3.4169;
1276.2000;0.4461;-3.4144;
1276.5000;0.4493;-3.4044;
1276.8000;0.4436;-3.4193;
1277.1000;0.4453;-3.4243;
1277.4000;0.4379;-3.4442;
1277.7000;0.4444;-3.4268;
1278.0000;0.4436;-3.4268;
1278.3000;0.4436;-3.4268;
1278.6000;0.4436;-3.4243;
1278.9000;0.4444;-3.4193;
1279.2000;0.4453;-3.4193;
1279.5000;0.4444;-3.4268;
1279.8000;0.4428;-3.4293;
1280.1000;0.4469;-3.4193;
1280.4000;0.4453;-3.4144;
1280.7000;0.4444;-3.4144;
1281.0000;0.4436;-3.4169;
1281.3000;0.4461;-3.4119;
1281.6000;0.4461;-3.4169;
1281.9000;0.4420;-3.4293;
1282.2000;0.4420;-3.4243;
1282.5000;0.4444;-3.4169;
1282.8000;0.4444;-3.4119;
1283.1000;0.4518;-3.3945;
1283.4000;0.4444;-3.4169;
1283.7000;0.4347;-3.4417;
1284.0000;0.4444;-3.4268;
1284.3000;0.4363;-3.4367;
1284.6000;0.4436;-3.4243;
1284.9000;0.4453;-3.4243;
1285.2000;0.4444;-3.4218;
1285.5000;0.4469;-3.4094;
1285.8000;0.4428;-3.4193;
1286.1000;0.4436;-3.4144;
1286.4000;0.4412;-3.4293;
1286.7000;0.4412;-3.4218;
1287.0000;0.4453;-3.4169;
1287.3000;0.4444;-3.4218;
1287.6000;0.4461;-3.4169;
1287.9000;0.4453;-3.4193;
1288.2000;0.4453;-3.4243;
1288.5000;0.4436;-3.4293;
1288.8000;0.4444;-3.4293;
1289.1000;0.4461;-3.4193;
1289.4000;0.4436;-3.4193;
1289.7000;0.4436;-3.4193;
1290.0000;0.4444;-3.4144;
1290.3000;0.4453;-3.4119;
1290.6000;0.4526;-3.3970;
1290.9000;0.4444;-3.4193;
1291.2000;0.4453;-3.4144;
1291.5000;0.4550;-3.3845;
1291.8000;0.4477;-3.4119;
1292.1000;0.4461;-3.4169;
1292.4000;0.4493;-3.4044;
1292.7000;0.4477;-3.4169;
1293.0000;0.4363;-3.4442;
1293.3000;0.4461;-3.4094;
1293.6000;0.4469;-3.4069;
1293.9000;0.4453;-3.4119;
1294.2000;0.4453;-3.4119;
1294.5000;0.4461;-3.4218;
1294.8000;0.4461;-3.4144;
1295.1000;0.4453;-3.4169;
1295.4000;0.4453;-3.4144;
1295.7000;0.4436;-3.4243;
1296.0000;0.4444;-3.4193;
1296.3000;0.4453;-3.4144;
1296.6000;0.4428;-3.4119;
1296.9000;0.4436;-3.4044;
1297.2000;0.4379;-3.4293;
1297.5000;0.4444;-3.4144;
1297.8000;0.4444;-3.4193;
1298.1000;0.4436;-3.4243;
1298.4000;0.4444;-3.4169;
1298.7000;0.4436;-3.4243;
1299.0000;0.4412;-3.4318;
1299.3000;0.4436;-3.4293;
1299.6000;0.4453;-3.4268;
1299.9000;0.4510;-3.4094;
1300.2000;0.4428;-3.4293;
1300.5000;0.4444;-3.4243;
1300.8000;0.4453;-3.4144;
1301.1000;0.4444;-3.4169;
1301.4000;0.4453;-3.4119;
1301.7000;0.4444;-3.4243;
1302.0000;0.4453;-3.4293;
1302.3000;0.4453;-3.4293;
1302.6000;0.4436;-3.4318;
1302.9000;0.4420;-3.4318;
1303.2000;0.4453;-3.4218;
1303.5000;0.4461;-3.4144;
1303.8000;0.4453;-3.4169;
1304.1000;0.4461;-3.4094;
1304.4000;0.4379;-3.4218;
1304.7000;0.4461;-3.4044;
1305.0000;0.4485;-3.4094;
1305.3000;0.4444;-3.4293;
1305.6000;0.4444;-3.4218;
1305.9000;0.4469;-3.4069;
1306.2000;0.4461;-3.4069;
1306.5000;0.4453;-3.4119;
1306.8000;0.4493;-3.4019;
1307.1000;0.4428;-3.4293;
1307.4000;0.4379;-3.4442;
1307.7000;0.4436;-3.4318;
1308.0000;0.4436;-3.4243;
1308.3000;0.4444;-3.4268;
1308.6000;0.4428;-3.4268;
1308.9000;0.4436;-3.4243;
1309.2000;0.4485;-3.4193;
1309.5000;0.4436;-3.4343;
1309.8000;0.4436;-3.4417;
1310.1000;0.4444;-3.4343;
1310.4000;0.4428;-3.4293;
1310.7000;0.4444;-3.4169;
1311.0000;0.4436;-3.4193;
1311.3000;0.4444;-3.4218;
1311.6000;0.4436;-3.4243;
1311.9000;0.4461;-3.4119;
1312.2000;0.4453;-3.4144;
1312.5000;0.4420;-3.4169;
1312.8000;0.4453;-3.4218;
1313.1000;0.4396;-3.4293;
1313.4000;0.4396;-3.4318;
1313.7000;0.4444;-3.4119;
1314.0000;0.4444;-3.4119;
1314.3000;0.4453;-3.4069;
1314.6000;0.4453;-3.4119;
1314.9000;0.4542;-3.3920;
1315.2000;0.4444;-3.4218;
1315.5000;0.4453;-3.4218;
1315.8000;0.4444;-3.4293;
1316.1000;0.4461;-3.4243;
1316.4000;0.4428;-3.4392;
1316.7000;0.4461;-3.4268;
1317.0000;0.4444;-3.4268;
1317.3000;0.4404;-3.4417;
1317.6000;0.4436;-3.4367;
1317.9000;0.4436;-3.4343;
1318.2000;0.4428;-3.4392;
1318.5000;0.4428;-3.4367;
1318.8000;0.4453;-3.4318;
1319.1000;0.4436;-3.4367;
1319.4000;0.4444;-3.4293;
1319.7000;0.4444;-3.4367;
1320.0000;0.4469;-3.4268;
1320.3000;0.4453;-3.4293;
1320.6000;0.4461;-3.4243;
1320.9000;0.4387;-3.4417;
1321.2000;0.4444;-3.4218;
1321.5000;0.4493;-3.4169;
1321.8000;0.4444;-3.4193;
1322.1000;0.4477;-3.4069;
1322.4000;0.4477;-3.4044;
1322.7000;0.4453;-3.4094;
1323.0000;0.4453;-3.4144;
1323.3000;0.4444;-3.4144;
1323.6000;0.4469;-3.4144;
1323.9000;0.4453;-3.4293;
1324.2000;0.4469;-3.4293;
1324.5000;0.4444;-3.4417;
1324.8000;0.4461;-3.4293;
1325.1000;0.4428;-3.4268;
1325.4000;0.4453;-3.4243;
1325.7000;0.4436;-3.4367;
1326.0000;0.4436;-3.4367;
1326.3000;0.4461;-3.4343;
1326.6000;0.4453;-3.4392;
1326.9000;0.4436;-3.4417;
1327.2000;0.4461;-3.4343;
1327.5000;0.4436;-3.4293;
1327.8000;0.4436;-3.4392;
1328.1000;0.4444;-3.4318;
1328.4000;0.4428;-3.4293;
1328.7000;0.4461;-3.4268;
1329.0000;0.4444;-3.4392;
1329.3000;0.4436;-3.4417;
1329.6000;0.4436;-3.4442;
1329.9000;0.4461;-3.4293;
1330.2000;0.4436;-3.4318;
1330.5000;0.4428;-3.4417;
1330.8000;0.4477;-3.4218;
1331.1000;0.4436;-3.4268;
1331.4000;0.4436;-3.4392;
1331.7000;0.4428;-3.4517;
1332.0000;0.4469;-3.4492;
1332.3000;0.4444;-3.4467;
1332.6000;0.4436;-3.4517;
1332.9000;0.4461;-3.4442;
1333.2000;0.4436;-3.4467;
1333.5000;0.4485;-3.4417;
1333.8000;0.4453;-3.4442;
1334.1000;0.4444;-3.4318;
1334.4000;0.4453;-3.4367;
1334.7000;0.4379;-3.4616;
1335.0000;0.4461;-3.4343;
1335.3000;0.4436;-3.4417;
1335.6000;0.4461;-3.4367;
1335.9000;0.4477;-3.4293;
1336.2000;0.4453;-3.4293;
1336.5000;0.4444;-3.4243;
1336.8000;0.4420;-3.4293;
1337.1000;0.4510;-3.3970;
1337.4000;0.4461;-3.4119;
1337.7000;0.4477;-3.4069;
1338.0000;0.4493;-3.4019;
1338.3000;0.4436;-3.4094;
1338.6000;0.4469;-3.3994;
1338.9000;0.4461;-3.4019;
1339.2000;0.4444;-3.4069;
1339.5000;0.4469;-3.4144;
1339.8000;0.4420;-3.4293;
1340.1000;0.4420;-3.4293;
1340.4000;0.4436;-3.4268;
1340.7000;0.4444;-3.4343;
1341.0000;0.4453;-3.4293;
1341.3000;0.4453;-3.4343;
1341.6000;0.4501;-3.4193;
1341.9000;0.4412;-3.4392;
1342.2000;0.4436;-3.4367;
1342.5000;0.4420;-3.4367;
1342.8000;0.4428;-3.4318;
1343.1000;0.4453;-3.4243;
1343.4000;0.4428;-3.4268;
1343.7000;0.4436;-3.4318;
1344.0000;0.4428;-3.4343;
1344.3000;0.4453;-3.4243;
1344.6000;0.4526;-3.4044;
1344.9000;0.4469;-3.4243;
1345.2000;0.4444;-3.4467;
1345.5000;0.4453;-3.4392;
1345.8000;0.4469;-3.4293;
1346.1000;0.4436;-3.4293;
1346.4000;0.4436;-3.4268;
1346.7000;0.4444;-3.4193;
1347.0000;0.4558;-3.3895;
1347.3000;0.4453;-3.4193;
1347.6000;0.4428;-3.4268;
1347.9000;0.4428;-3.4193;
1348.2000;0.4477;-3.3994;
1348.5000;0.4461;-3.4044;
1348.8000;0.4453;-3.4119;
1349.1000;0.4485;-3.4069;
1349.4000;0.4453;-3.4069;
1349.7000;0.4436;-3.4144;
1350.0000;0.4436;-3.4193;
1350.3000;0.4453;-3.4218;
1350.6000;0.4428;-3.4293;
1350.9000;0.4477;-3.4243;
1351.2000;0.4469;-3.4268;
1351.5000;0.4461;-3.4318;
1351.8000;0.4444;-3.4218;
1352.1000;0.4453;-3.4119;
1352.4000;0.4453;-3.4119;
1352.7000;0.4453;-3.4169;
1353.0000;0.4453;-3.4218;
1353.3000;0.4453;-3.4218;
1353.6000;0.4469;-3.4119;
1353.9000;0.4485;-3.3994;
1354.2000;0.4371;-3.4293;
1354.5000;0.4436;-3.4119;
1354.8000;0.4428;-3.4193;
1355.1000;0.4444;-3.4069;
1355.4000;0.4477;-3.4094;
1355.7000;0.4420;-3.4193;
1356.0000;0.4436;-3.4169;
1356.3000;0.4444;-3.4268;
1356.6000;0.4436;-3.4243;
1356.9000;0.4436;-3.4119;
1357.2000;0.4436;-3.4019;
1357.5000;0.4412;-3.4044;
1357.8000;0.4461;-3.3994;
1358.1000;0.4453;-3.4119;
1358.4000;0.4444;-3.4119;
1358.7000;0.4518;-3.3945;
1359.0000;0.4444;-3.4094;
1359.3000;0.4444;-3.4019;
1359.6000;0.4314;-3.4318;
1359.9000;0.4444;-3.4119;
1360.2000;0.4461;-3.4044;
1360.5000;0.4469;-3.4044;
1360.8000;0.4412;-3.4218;
1361.1000;0.4453;-3.4144;
1361.4000;0.4461;-3.4019;
1361.7000;0.4550;-3.3820;
1362.0000;0.4428;-3.4119;
1362.3000;0.4387;-3.4318;
1362.6000;0.4477;-3.4044;
1362.9000;0.4436;-3.4119;
1363.2000;0.4469;-3.4019;
1363.5000;0.4501;-3.4019;
1363.8000;0.4420;-3.4318;
1364.1000;0.4404;-3.4318;
1364.4000;0.4461;-3.4193;
1364.7000;0.4444;-3.4268;
1365.0000;0.4469;-3.4293;
1365.3000;0.4453;-3.4268;
1365.6000;0.4453;-3.4318;
1365.9000;0.4453;-3.4343;
1366.2000;0.4428;-3.4367;
1366.5000;0.4453;-3.4243;
1366.8000;0.4469;-3.4169;
1367.1000;0.4453;-3.4144;
1367.4000;0.4444;-3.4119;
1367.7000;0.4461;-3.4069;
1368.0000;0.4461;-3.4094;
1368.3000;0.4444;-3.4044;
1368.6000;0.4453;-3.4069;
1368.9000;0.4444;-3.4069;
1369.2000;0.4444;-3.4069;
1369.5000;0.4444;-3.4069;
1369.8000;0.4420;-3.4144;
1370.1000;0.4461;-3.4144;
1370.4000;0.4444;-3.4169;
1370.7000;0.4412;-3.4193;
1371.0000;0.4428;-3.4218;
1371.3000;0.4428;-3.4293;
1371.6000;0.4436;-3.4218;
1371.9000;0.4461;-3.4094;
1372.2000;0.4461;-3.4144;
1372.5000;0.4461;-3.4144;
1372.8000;0.4444;-3.4193;
1373.1000;0.4461;-3.4069;
1373.4000;0.4469;-3.3994;
1373.7000;0.4428;-3.4019;
1374.0000;0.4428;-3.4069;
1374.3000;0.4387;-3.4193;
1374.6000;0.4444;-3.4069;
1374.9000;0.4436;-3.4144;
1375.2000;0.4444;-3.4144;
1375.5000;0.4355;-3.4392;
1375.8000;0.4444;-3.4144;
1376.1000;0.4485;-3.4094;
1376.4000;0.4436;-3.4268;
1376.7000;0.4428;-3.4343;
1377.0000;0.4436;-3.4417;
1377.3000;0.4461;-3.4268;
1377.6000;0.4444;-3.4193;
1377.9000;0.4428;-3.4218;
1378.2000;0.4420;-3.4218;
1378.5000;0.4444;-3.4069;
1378.8000;0.4453;-3.4069;
1379.1000;0.4404;-3.4144;
1379.4000;0.4444;-3.4044;
1379.7000;0.4469;-3.3994;
1380.0000;0.4453;-3.4019;
1380.3000;0.4444;-3.3994;
1380.6000;0.4444;-3.4019;
1380.9000;0.4453;-3.4094;
1381.2000;0.4453;-3.4119;
1381.5000;0.4436;-3.4243;
1381.8000;0.4444;-3.4218;
1382.1000;0.4453;-3.4218;
1382.4000;0.4510;-3.4019;
1382.7000;0.4436;-3.4169;
1383.0000;0.4428;-3.4144;
1383.3000;0.4485;-3.4119;
1383.6000;0.4436;-3.4193;
1383.9000;0.4436;-3.4119;
1384.2000;0.4469;-3.4044;
1384.5000;0.4420;-3.4119;
1384.8000;0.4420;-3.4144;
1385.1000;0.4444;-3.4094;
1385.4000;0.4436;-3.4069;
1385.7000;0.4420;-3.4144;
1386.0000;0.4436;-3.4069;
1386.3000;0.4436;-3.4044;
1386.6000;0.4453;-3.4069;
1386.9000;0.4469;-3.4044;
1387.2000;0.4453;-3.4094;
1387.5000;0.4453;-3.4094;
1387.8000;0.4558;-3.3845;
1388.1000;0.4436;-3.4094;
1388.4000;0.4453;-3.4119;
1388.7000;0.4444;-3.4193;
1389.0000;0.4444;-3.4268;
1389.3000;0.4428;-3.4268;
1389.6000;0.4444;-3.4268;
1389.9000;0.4444;-3.4218;
1390.2000;0.4469;-3.4193;
1390.5000;0.4461;-3.4193;
1390.8000;0.4453;-3.4293;
1391.1000;0.4444;-3.4218;
1391.4000;0.4477;-3.4094;
1391.7000;0.4461;-3.4193;
1392.0000;0.4461;-3.4144;
1392.3000;0.4461;-3.4094;
1392.6000;0.4453;-3.4094;
1392.9000;0.4444;-3.4069;
1393.2000;0.4444;-3.4019;
1393.5000;0.4428;-3.4044;
1393.8000;0.4436;-3.3994;
1394.1000;0.4436;-3.3895;
1394.4000;0.4436;-3.3895;
1394.7000;0.4436;-3.3945;
1395.0000;0.4428;-3.3970;
1395.3000;0.4436;-3.3994;
1395.6000;0.4453;-3.4019;
1395.9000;0.4444;-3.4044;
1396.2000;0.4396;-3.4169;
1396.5000;0.4461;-3.4044;
1396.8000;0.4436;-3.4119;
1397.1000;0.4453;-3.4144;
1397.4000;0.4461;-3.4094;
1397.7000;0.4461;-3.4069;
1398.0000;0.4428;-3.4144;
1398.3000;0.4453;-3.4094;
1398.6000;0.4436;-3.4119;
1398.9000;0.4436;-3.4069;
1399.2000;0.4420;-3.4094;
1399.5000;0.4436;-3.4069;
1399.8000;0.4436;-3.4019;
