time/ms;Fluo/V;P700 deltaI/I x10³;
-199.8000;0.3557;0.8582;
-199.5000;0.3500;0.8349;
-199.2000;0.3557;0.8556;
-198.9000;0.3565;0.8556;
-198.6000;0.3549;0.8479;
-198.3000;0.3557;0.8504;
-198.0000;0.3549;0.8453;
-197.7000;0.3549;0.8479;
-197.4000;0.3508;0.8375;
-197.1000;0.3565;0.8530;
-196.8000;0.3541;0.8427;
-196.5000;0.3557;0.8453;
-196.2000;0.3549;0.8530;
-195.9000;0.3525;0.8479;
-195.6000;0.3549;0.8582;
-195.3000;0.3516;0.8504;
-195.0000;0.3565;0.8530;
-194.7000;0.3549;0.8582;
-194.4000;0.3516;0.8556;
-194.1000;0.3541;0.8608;
-193.8000;0.3557;0.8608;
-193.5000;0.3557;0.8582;
-193.2000;0.3557;0.8556;
-192.9000;0.3525;0.8530;
-192.6000;0.3557;0.8686;
-192.3000;0.3630;0.8893;
-192.0000;0.3541;0.8686;
-191.7000;0.3516;0.8686;
-191.4000;0.3549;0.8686;
-191.1000;0.3549;0.8686;
-190.8000;0.3541;0.8634;
-190.5000;0.3549;0.8686;
-190.2000;0.3557;0.8764;
-189.9000;0.3557;0.8712;
-189.6000;0.3565;0.8712;
-189.3000;0.3549;0.8738;
-189.0000;0.3549;0.8764;
-188.7000;0.3582;0.8816;
-188.4000;0.3549;0.8842;
-188.1000;0.3557;0.8842;
-187.8000;0.3549;0.8790;
-187.5000;0.3573;0.8712;
-187.2000;0.3557;0.8660;
-186.9000;0.3557;0.8660;
-186.6000;0.3549;0.8790;
-186.3000;0.3557;0.8738;
-186.0000;0.3541;0.8582;
-185.7000;0.3565;0.8712;
-185.4000;0.3541;0.8660;
-185.1000;0.3557;0.8816;
-184.8000;0.3557;0.8816;
-184.5000;0.3549;0.8686;
-184.2000;0.3492;0.8453;
-183.9000;0.3549;0.8530;
-183.6000;0.3541;0.8453;
-183.3000;0.3582;0.8608;
-183.0000;0.3565;0.8530;
-182.7000;0.3557;0.8530;
-182.4000;0.3549;0.8530;
-182.1000;0.3565;0.8556;
-181.8000;0.3565;0.8634;
-181.5000;0.3516;0.8504;
-181.2000;0.3549;0.8608;
-180.9000;0.3557;0.8582;
-180.6000;0.3557;0.8530;
-180.3000;0.3549;0.8479;
-180.0000;0.3549;0.8453;
-179.7000;0.3557;0.8504;
-179.4000;0.3549;0.8556;
-179.1000;0.3549;0.8530;
-178.8000;0.3565;0.8530;
-178.5000;0.3476;0.8349;
-178.2000;0.3557;0.8556;
-177.9000;0.3549;0.8556;
-177.6000;0.3549;0.8504;
-177.3000;0.3549;0.8608;
-177.0000;0.3557;0.8764;
-176.7000;0.3573;0.8816;
-176.4000;0.3549;0.8712;
-176.1000;0.3549;0.8738;
-175.8000;0.3557;0.8764;
-175.5000;0.3525;0.8634;
-175.2000;0.3549;0.8634;
-174.9000;0.3557;0.8608;
-174.6000;0.3557;0.8479;
-174.3000;0.3541;0.8504;
-174.0000;0.3541;0.8504;
-173.7000;0.3557;0.8582;
-173.4000;0.3557;0.8556;
-173.1000;0.3557;0.8582;
-172.8000;0.3565;0.8608;
-172.5000;0.3557;0.8504;
-172.2000;0.3582;0.8634;
-171.9000;0.3557;0.8634;
-171.6000;0.3549;0.8608;
-171.3000;0.3541;0.8608;
-171.0000;0.3549;0.8686;
-170.7000;0.3541;0.8634;
-170.4000;0.3533;0.8556;
-170.1000;0.3557;0.8634;
-169.8000;0.3565;0.8582;
-169.5000;0.3541;0.8556;
-169.2000;0.3557;0.8504;
-168.9000;0.3557;0.8453;
-168.6000;0.3549;0.8504;
-168.3000;0.3565;0.8582;
-168.0000;0.3573;0.8530;
-167.7000;0.3492;0.8271;
-167.4000;0.3549;0.8323;
-167.1000;0.3557;0.8375;
-166.8000;0.3549;0.8401;
-166.5000;0.3557;0.8453;
-166.2000;0.3557;0.8401;
-165.9000;0.3533;0.8427;
-165.6000;0.3549;0.8530;
-165.3000;0.3541;0.8530;
-165.0000;0.3549;0.8582;
-164.7000;0.3557;0.8582;
-164.4000;0.3573;0.8608;
-164.1000;0.3541;0.8504;
-163.8000;0.3533;0.8427;
-163.5000;0.3557;0.8479;
-163.2000;0.3549;0.8530;
-162.9000;0.3549;0.8530;
-162.6000;0.3582;0.8556;
-162.3000;0.3557;0.8504;
-162.0000;0.3557;0.8556;
-161.7000;0.3557;0.8504;
-161.4000;0.3549;0.8530;
-161.1000;0.3549;0.8504;
-160.8000;0.3549;0.8504;
-160.5000;0.3533;0.8504;
-160.2000;0.3549;0.8453;
-159.9000;0.3549;0.8401;
-159.6000;0.3549;0.8530;
-159.3000;0.3549;0.8530;
-159.0000;0.3541;0.8453;
-158.7000;0.3533;0.8401;
-158.4000;0.3549;0.8297;
-158.1000;0.3549;0.8271;
-157.8000;0.3565;0.8323;
-157.5000;0.3557;0.8323;
-157.2000;0.3557;0.8297;
-156.9000;0.3565;0.8297;
-156.6000;0.3573;0.8375;
-156.3000;0.3557;0.8427;
-156.0000;0.3557;0.8504;
-155.7000;0.3565;0.8504;
-155.4000;0.3557;0.8504;
-155.1000;0.3557;0.8453;
-154.8000;0.3557;0.8427;
-154.5000;0.3557;0.8634;
-154.2000;0.3557;0.8608;
-153.9000;0.3541;0.8530;
-153.6000;0.3549;0.8556;
-153.3000;0.3533;0.8504;
-153.0000;0.3541;0.8530;
-152.7000;0.3549;0.8530;
-152.4000;0.3565;0.8634;
-152.1000;0.3557;0.8530;
-151.8000;0.3557;0.8582;
-151.5000;0.3557;0.8582;
-151.2000;0.3541;0.8608;
-150.9000;0.3549;0.8660;
-150.6000;0.3582;0.8686;
-150.3000;0.3533;0.8504;
-150.0000;0.3557;0.8504;
-149.7000;0.3541;0.8453;
-149.4000;0.3557;0.8504;
-149.1000;0.3557;0.8479;
-148.8000;0.3557;0.8479;
-148.5000;0.3541;0.8504;
-148.2000;0.3549;0.8504;
-147.9000;0.3557;0.8479;
-147.6000;0.3549;0.8401;
-147.3000;0.3557;0.8427;
-147.0000;0.3549;0.8504;
-146.7000;0.3565;0.8453;
-146.4000;0.3582;0.8582;
-146.1000;0.3541;0.8427;
-145.8000;0.3549;0.8504;
-145.5000;0.3549;0.8530;
-145.2000;0.3655;0.8816;
-144.9000;0.3541;0.8479;
-144.6000;0.3549;0.8453;
-144.3000;0.3541;0.8453;
-144.0000;0.3549;0.8530;
-143.7000;0.3541;0.8530;
-143.4000;0.3549;0.8556;
-143.1000;0.3549;0.8530;
-142.8000;0.3541;0.8556;
-142.5000;0.3557;0.8634;
-142.2000;0.3533;0.8608;
-141.9000;0.3541;0.8660;
-141.6000;0.3549;0.8660;
-141.3000;0.3557;0.8582;
-141.0000;0.3541;0.8582;
-140.7000;0.3549;0.8608;
-140.4000;0.3549;0.8686;
-140.1000;0.3573;0.8842;
-139.8000;0.3549;0.8764;
-139.5000;0.3549;0.8686;
-139.2000;0.3541;0.8608;
-138.9000;0.3541;0.8660;
-138.6000;0.3533;0.8556;
-138.3000;0.3549;0.8556;
-138.0000;0.3598;0.8686;
-137.7000;0.3549;0.8556;
-137.4000;0.3549;0.8556;
-137.1000;0.3549;0.8582;
-136.8000;0.3549;0.8530;
-136.5000;0.3549;0.8504;
-136.2000;0.3557;0.8453;
-135.9000;0.3541;0.8453;
-135.6000;0.3557;0.8530;
-135.3000;0.3549;0.8530;
-135.0000;0.3557;0.8556;
-134.7000;0.3557;0.8479;
-134.4000;0.3525;0.8323;
-134.1000;0.3557;0.8349;
-133.8000;0.3565;0.8375;
-133.5000;0.3598;0.8453;
-133.2000;0.3549;0.8375;
-132.9000;0.3557;0.8401;
-132.6000;0.3565;0.8401;
-132.3000;0.3525;0.8271;
-132.0000;0.3557;0.8349;
-131.7000;0.3549;0.8401;
-131.4000;0.3557;0.8479;
-131.1000;0.3541;0.8427;
-130.8000;0.3549;0.8479;
-130.5000;0.3557;0.8453;
-130.2000;0.3549;0.8479;
-129.9000;0.3541;0.8453;
-129.6000;0.3541;0.8401;
-129.3000;0.3557;0.8479;
-129.0000;0.3549;0.8504;
-128.7000;0.3557;0.8556;
-128.4000;0.3565;0.8608;
-128.1000;0.3541;0.8608;
-127.8000;0.3541;0.8660;
-127.5000;0.3582;0.8738;
-127.2000;0.3557;0.8608;
-126.9000;0.3557;0.8530;
-126.6000;0.3533;0.8479;
-126.3000;0.3549;0.8453;
-126.0000;0.3541;0.8427;
-125.7000;0.3549;0.8375;
-125.4000;0.3614;0.8556;
-125.1000;0.3557;0.8349;
-124.8000;0.3549;0.8427;
-124.5000;0.3541;0.8504;
-124.2000;0.3590;0.8608;
-123.9000;0.3533;0.8427;
-123.6000;0.3549;0.8479;
-123.3000;0.3533;0.8530;
-123.0000;0.3533;0.8401;
-122.7000;0.3533;0.8401;
-122.4000;0.3565;0.8453;
-122.1000;0.3557;0.8375;
-121.8000;0.3541;0.8375;
-121.5000;0.3549;0.8401;
-121.2000;0.3541;0.8401;
-120.9000;0.3549;0.8401;
-120.6000;0.3533;0.8427;
-120.3000;0.3541;0.8453;
-120.0000;0.3533;0.8427;
-119.7000;0.3557;0.8479;
-119.4000;0.3541;0.8453;
-119.1000;0.3565;0.8479;
-118.8000;0.3557;0.8375;
-118.5000;0.3541;0.8401;
-118.2000;0.3549;0.8401;
-117.9000;0.3541;0.8453;
-117.6000;0.3557;0.8504;
-117.3000;0.3541;0.8530;
-117.0000;0.3541;0.8556;
-116.7000;0.3541;0.8634;
-116.4000;0.3549;0.8608;
-116.1000;0.3541;0.8660;
-115.8000;0.3541;0.8608;
-115.5000;0.3549;0.8582;
-115.2000;0.3541;0.8634;
-114.9000;0.3557;0.8608;
-114.6000;0.3557;0.8686;
-114.3000;0.3557;0.8660;
-114.0000;0.3468;0.8479;
-113.7000;0.3549;0.8634;
-113.4000;0.3565;0.8582;
-113.1000;0.3557;0.8634;
-112.8000;0.3565;0.8556;
-112.5000;0.3541;0.8608;
-112.2000;0.3549;0.8608;
-111.9000;0.3541;0.8556;
-111.6000;0.3557;0.8530;
-111.3000;0.3541;0.8530;
-111.0000;0.3557;0.8634;
-110.7000;0.3533;0.8556;
-110.4000;0.3476;0.8297;
-110.1000;0.3573;0.8608;
-109.8000;0.3443;0.8193;
-109.5000;0.3557;0.8504;
-109.2000;0.3573;0.8608;
-108.9000;0.3476;0.8375;
-108.6000;0.3557;0.8686;
-108.3000;0.3557;0.8686;
-108.0000;0.3541;0.8686;
-107.7000;0.3557;0.8686;
-107.4000;0.3573;0.8686;
-107.1000;0.3516;0.8427;
-106.8000;0.3541;0.8479;
-106.5000;0.3541;0.8479;
-106.2000;0.3557;0.8504;
-105.9000;0.3565;0.8556;
-105.6000;0.3549;0.8530;
-105.3000;0.3549;0.8556;
-105.0000;0.3549;0.8530;
-104.7000;0.3565;0.8530;
-104.4000;0.3582;0.8608;
-104.1000;0.3533;0.8634;
-103.8000;0.3557;0.8712;
-103.5000;0.3565;0.8660;
-103.2000;0.3549;0.8712;
-102.9000;0.3549;0.8660;
-102.6000;0.3557;0.8634;
-102.3000;0.3565;0.8686;
-102.0000;0.3525;0.8634;
-101.7000;0.3557;0.8738;
-101.4000;0.3533;0.8608;
-101.1000;0.3573;0.8816;
-100.8000;0.3533;0.8686;
-100.5000;0.3549;0.8764;
-100.2000;0.3533;0.8738;
-99.9000;0.3598;0.8867;
-99.6000;0.3533;0.8738;
-99.3000;0.3533;0.8790;
-99.0000;0.3557;0.8790;
-98.7000;0.3549;0.8686;
-98.4000;0.3557;0.8790;
-98.1000;0.3565;0.8816;
-97.8000;0.3557;0.8816;
-97.5000;0.3557;0.8842;
-97.2000;0.3549;0.8842;
-96.9000;0.3565;0.8816;
-96.6000;0.3541;0.8634;
-96.3000;0.3541;0.8608;
-96.0000;0.3549;0.8660;
-95.7000;0.3541;0.8556;
-95.4000;0.3533;0.8582;
-95.1000;0.3516;0.8634;
-94.8000;0.3533;0.8608;
-94.5000;0.3541;0.8686;
-94.2000;0.3549;0.8790;
-93.9000;0.3541;0.8816;
-93.6000;0.3614;0.9049;
-93.3000;0.3565;0.8738;
-93.0000;0.3565;0.8738;
-92.7000;0.3549;0.8660;
-92.4000;0.3541;0.8686;
-92.1000;0.3541;0.8764;
-91.8000;0.3557;0.8738;
-91.5000;0.3541;0.8738;
-91.2000;0.3549;0.8764;
-90.9000;0.3573;0.8712;
-90.6000;0.3573;0.8686;
-90.3000;0.3525;0.8608;
-90.0000;0.3598;0.8712;
-89.7000;0.3549;0.8556;
-89.4000;0.3573;0.8479;
-89.1000;0.3541;0.8401;
-88.8000;0.3533;0.8453;
-88.5000;0.3655;0.8790;
-88.2000;0.3565;0.8582;
-87.9000;0.3549;0.8634;
-87.6000;0.3541;0.8608;
-87.3000;0.3557;0.8712;
-87.0000;0.3525;0.8660;
-86.7000;0.3549;0.8686;
-86.4000;0.3541;0.8660;
-86.1000;0.3549;0.8582;
-85.8000;0.3525;0.8582;
-85.5000;0.3508;0.8634;
-85.2000;0.3541;0.8712;
-84.9000;0.3549;0.8790;
-84.6000;0.3541;0.8738;
-84.3000;0.3533;0.8712;
-84.0000;0.3549;0.8764;
-83.7000;0.3541;0.8686;
-83.4000;0.3557;0.8738;
-83.1000;0.3582;0.8764;
-82.8000;0.3573;0.8686;
-82.5000;0.3557;0.8686;
-82.2000;0.3565;0.8660;
-81.9000;0.3541;0.8686;
-81.6000;0.3549;0.8738;
-81.3000;0.3590;0.8893;
-81.0000;0.3549;0.8893;
-80.7000;0.3541;0.8867;
-80.4000;0.3549;0.8893;
-80.1000;0.3549;0.8816;
-79.8000;0.3525;0.8764;
-79.5000;0.3549;0.8867;
-79.2000;0.3533;0.8816;
-78.9000;0.3525;0.8738;
-78.6000;0.3549;0.8764;
-78.3000;0.3549;0.8790;
-78.0000;0.3549;0.8738;
-77.7000;0.3573;0.8893;
-77.4000;0.3549;0.8842;
-77.1000;0.3565;0.8816;
-76.8000;0.3573;0.8893;
-76.5000;0.3565;0.8867;
-76.2000;0.3557;0.8738;
-75.9000;0.3533;0.8764;
-75.6000;0.3541;0.8816;
-75.3000;0.3541;0.8738;
-75.0000;0.3541;0.8686;
-74.7000;0.3541;0.8608;
-74.4000;0.3541;0.8608;
-74.1000;0.3549;0.8712;
-73.8000;0.3565;0.8764;
-73.5000;0.3541;0.8738;
-73.2000;0.3549;0.8816;
-72.9000;0.3541;0.8712;
-72.6000;0.3549;0.8686;
-72.3000;0.3549;0.8686;
-72.0000;0.3541;0.8660;
-71.7000;0.3557;0.8712;
-71.4000;0.3557;0.8634;
-71.1000;0.3557;0.8608;
-70.8000;0.3549;0.8608;
-70.5000;0.3557;0.8530;
-70.2000;0.3565;0.8582;
-69.9000;0.3549;0.8556;
-69.6000;0.3541;0.8582;
-69.3000;0.3557;0.8686;
-69.0000;0.3565;0.8712;
-68.7000;0.3557;0.8738;
-68.4000;0.3533;0.8634;
-68.1000;0.3557;0.8738;
-67.8000;0.3565;0.8712;
-67.5000;0.3573;0.8738;
-67.2000;0.3533;0.8686;
-66.9000;0.3549;0.8764;
-66.6000;0.3557;0.8764;
-66.3000;0.3549;0.8608;
-66.0000;0.3557;0.8504;
-65.7000;0.3541;0.8453;
-65.4000;0.3549;0.8530;
-65.1000;0.3590;0.8582;
-64.8000;0.3541;0.8453;
-64.5000;0.3541;0.8504;
-64.2000;0.3582;0.8634;
-63.9000;0.3549;0.8556;
-63.6000;0.3622;0.8816;
-63.3000;0.3549;0.8608;
-63.0000;0.3565;0.8634;
-62.7000;0.3549;0.8634;
-62.4000;0.3557;0.8634;
-62.1000;0.3541;0.8686;
-61.8000;0.3557;0.8712;
-61.5000;0.3565;0.8712;
-61.2000;0.3549;0.8686;
-60.9000;0.3557;0.8712;
-60.6000;0.3516;0.8530;
-60.3000;0.3541;0.8530;
-60.0000;0.3557;0.8582;
-59.7000;0.3541;0.8530;
-59.4000;0.3541;0.8582;
-59.1000;0.3549;0.8504;
-58.8000;0.3549;0.8530;
-58.5000;0.3533;0.8582;
-58.2000;0.3549;0.8738;
-57.9000;0.3557;0.8712;
-57.6000;0.3549;0.8660;
-57.3000;0.3549;0.8608;
-57.0000;0.3573;0.8686;
-56.7000;0.3549;0.8608;
-56.4000;0.3557;0.8582;
-56.1000;0.3549;0.8453;
-55.8000;0.3557;0.8479;
-55.5000;0.3557;0.8504;
-55.2000;0.3557;0.8530;
-54.9000;0.3541;0.8582;
-54.6000;0.3549;0.8582;
-54.3000;0.3557;0.8582;
-54.0000;0.3549;0.8608;
-53.7000;0.3557;0.8582;
-53.4000;0.3541;0.8582;
-53.1000;0.3557;0.8556;
-52.8000;0.3565;0.8608;
-52.5000;0.3573;0.8556;
-52.2000;0.3565;0.8504;
-51.9000;0.3541;0.8427;
-51.6000;0.3557;0.8530;
-51.3000;0.3549;0.8504;
-51.0000;0.3549;0.8479;
-50.7000;0.3541;0.8479;
-50.4000;0.3565;0.8530;
-50.1000;0.3557;0.8608;
-49.8000;0.3541;0.8504;
-49.5000;0.3541;0.8582;
-49.2000;0.3541;0.8686;
-48.9000;0.3549;0.8738;
-48.6000;0.3541;0.8764;
-48.3000;0.3541;0.8738;
-48.0000;0.3541;0.8738;
-47.7000;0.3557;0.8738;
-47.4000;0.3549;0.8764;
-47.1000;0.3582;0.8790;
-46.8000;0.3541;0.8686;
-46.5000;0.3549;0.8686;
-46.2000;0.3557;0.8738;
-45.9000;0.3541;0.8738;
-45.6000;0.3541;0.8712;
-45.3000;0.3549;0.8686;
-45.0000;0.3557;0.8712;
-44.7000;0.3549;0.8686;
-44.4000;0.3557;0.8634;
-44.1000;0.3557;0.8530;
-43.8000;0.3557;0.8608;
-43.5000;0.3557;0.8686;
-43.2000;0.3549;0.8738;
-42.9000;0.3549;0.8790;
-42.6000;0.3557;0.8712;
-42.3000;0.3557;0.8842;
-42.0000;0.3541;0.8712;
-41.7000;0.3557;0.8738;
-41.4000;0.3549;0.8634;
-41.1000;0.3557;0.8634;
-40.8000;0.3549;0.8660;
-40.5000;0.3557;0.8790;
-40.2000;0.3533;0.8738;
-39.9000;0.3549;0.8790;
-39.6000;0.3557;0.8764;
-39.3000;0.3541;0.8660;
-39.0000;0.3541;0.8634;
-38.7000;0.3557;0.8582;
-38.4000;0.3573;0.8530;
-38.1000;0.3557;0.8556;
-37.8000;0.3549;0.8556;
-37.5000;0.3557;0.8556;
-37.2000;0.3541;0.8453;
-36.9000;0.3541;0.8479;
-36.6000;0.3549;0.8479;
-36.3000;0.3541;0.8479;
-36.0000;0.3541;0.8479;
-35.7000;0.3549;0.8530;
-35.4000;0.3533;0.8479;
-35.1000;0.3533;0.8401;
-34.8000;0.3549;0.8504;
-34.5000;0.3541;0.8453;
-34.2000;0.3541;0.8530;
-33.9000;0.3541;0.8556;
-33.6000;0.3541;0.8582;
-33.3000;0.3533;0.8660;
-33.0000;0.3549;0.8634;
-32.7000;0.3541;0.8556;
-32.4000;0.3549;0.8556;
-32.1000;0.3565;0.8504;
-31.8000;0.3549;0.8530;
-31.5000;0.3557;0.8556;
-31.2000;0.3565;0.8530;
-30.9000;0.3565;0.8582;
-30.6000;0.3565;0.8608;
-30.3000;0.3541;0.8582;
-30.0000;0.3541;0.8660;
-29.7000;0.3492;0.8634;
-29.4000;0.3549;0.8842;
-29.1000;0.3541;0.8893;
-28.8000;0.3557;0.8971;
-28.5000;0.3557;0.8919;
-28.2000;0.3598;0.9023;
-27.9000;0.3541;0.8842;
-27.6000;0.3541;0.8790;
-27.3000;0.3516;0.8712;
-27.0000;0.3549;0.8790;
-26.7000;0.3533;0.8634;
-26.4000;0.3533;0.8582;
-26.1000;0.3565;0.8608;
-25.8000;0.3565;0.8712;
-25.5000;0.3549;0.8582;
-25.2000;0.3557;0.8634;
-24.9000;0.3541;0.8660;
-24.6000;0.3541;0.8712;
-24.3000;0.3533;0.8608;
-24.0000;0.3541;0.8686;
-23.7000;0.3533;0.8686;
-23.4000;0.3557;0.8660;
-23.1000;0.3598;0.8738;
-22.8000;0.3549;0.8582;
-22.5000;0.3541;0.8608;
-22.2000;0.3549;0.8556;
-21.9000;0.3590;0.8608;
-21.6000;0.3541;0.8479;
-21.3000;0.3541;0.8530;
-21.0000;0.3549;0.8530;
-20.7000;0.3549;0.8530;
-20.4000;0.3565;0.8504;
-20.1000;0.3516;0.8349;
-19.8000;0.3549;0.8530;
-19.5000;0.3565;0.8556;
-19.2000;0.3598;0.8686;
-18.9000;0.3549;0.8608;
-18.6000;0.3549;0.8608;
-18.3000;0.3655;0.8816;
-18.0000;0.3557;0.8634;
-17.7000;0.3541;0.8634;
-17.4000;0.3590;0.8867;
-17.1000;0.3565;0.8790;
-16.8000;0.3549;0.8790;
-16.5000;0.3541;0.8738;
-16.2000;0.3460;0.8504;
-15.9000;0.3533;0.8816;
-15.6000;0.3541;0.8867;
-15.3000;0.3549;0.8842;
-15.0000;0.3549;0.8764;
-14.7000;0.3549;0.8790;
-14.4000;0.3557;0.8893;
-14.1000;0.3541;0.8867;
-13.8000;0.3516;0.8738;
-13.5000;0.3516;0.8712;
-13.2000;0.3541;0.8764;
-12.9000;0.3549;0.8712;
-12.6000;0.3541;0.8608;
-12.3000;0.3557;0.8582;
-12.0000;0.3582;0.8738;
-11.7000;0.3557;0.8712;
-11.4000;0.3630;0.8919;
-11.1000;0.3565;0.8608;
-10.8000;0.3565;0.8582;
-10.5000;0.3541;0.8556;
-10.2000;0.3565;0.8686;
-9.9000;0.3606;0.8816;
-9.6000;0.3541;0.8660;
-9.3000;0.3492;0.8453;
-9.0000;0.3549;0.8686;
-8.7000;0.3549;0.8712;
-8.4000;0.3557;0.8660;
-8.1000;0.3533;0.8686;
-7.8000;0.3541;0.8712;
-7.5000;0.3557;0.8686;
-7.2000;0.3557;0.8660;
-6.9000;0.3557;0.8712;
-6.6000;0.3549;0.8738;
-6.3000;0.3565;0.8790;
-6.0000;0.3533;0.8790;
-5.7000;0.3541;0.8790;
-5.4000;0.3533;0.8790;
-5.1000;0.3549;0.8764;
-4.8000;0.3541;0.8738;
-4.5000;0.3549;0.8660;
-4.2000;0.3549;0.8608;
-3.9000;0.3549;0.8712;
-3.6000;0.3541;0.8738;
-3.3000;0.3541;0.8790;
-3.0000;0.3533;0.8816;
-2.7000;0.3549;0.8816;
-2.4000;0.3541;0.8816;
-2.1000;0.3541;0.8919;
-1.8000;0.3557;0.8945;
-1.5000;0.3557;0.8919;
-1.2000;0.3549;0.8919;
-0.9000;0.3541;0.8842;
-0.6000;0.3533;0.8764;
-0.3000;0.3541;0.8790;
0.0000;0.3541;0.8790;
0.3000;0.3630;0.8660;
0.6000;0.3923;0.9723;
0.9000;0.4151;1.0605;
1.2000;0.4225;1.1201;
1.5000;0.4298;1.1694;
1.8000;0.4453;1.2446;
2.1000;0.4510;1.2912;
2.4000;0.4550;1.3301;
2.7000;0.4607;1.3742;
3.0000;0.4615;1.3923;
3.3000;0.4713;1.4312;
3.6000;0.4697;1.4468;
3.9000;0.4737;1.4675;
4.2000;0.4746;1.4857;
4.5000;0.4770;1.4961;
4.8000;0.4786;1.5142;
5.1000;0.4770;1.5090;
5.4000;0.4794;1.5168;
5.7000;0.4811;1.5246;
6.0000;0.4917;1.5505;
6.3000;0.4827;1.5246;
6.6000;0.4851;1.5246;
6.9000;0.4925;1.5350;
7.2000;0.4827;1.5090;
7.5000;0.4892;1.5272;
7.8000;0.4868;1.5220;
8.1000;0.4917;1.5298;
8.4000;0.4900;1.5298;
8.7000;0.4876;1.5272;
9.0000;0.4957;1.5479;
9.3000;0.4933;1.5427;
9.6000;0.4957;1.5531;
9.9000;0.4892;1.5298;
10.2000;0.4900;1.5298;
10.5000;0.4998;1.5505;
10.8000;0.4908;1.5272;
11.1000;0.4917;1.5324;
11.4000;0.4933;1.5298;
11.7000;0.4933;1.5298;
12.0000;0.4990;1.5453;
12.3000;0.4949;1.5401;
12.6000;0.4990;1.5505;
12.9000;0.5014;1.5505;
13.2000;0.4941;1.5246;
13.5000;0.4957;1.5246;
13.8000;0.4957;1.5194;
14.1000;0.4957;1.5142;
14.4000;0.4982;1.5168;
14.7000;0.4957;1.5220;
15.0000;0.5014;1.5324;
15.3000;0.4982;1.5246;
15.6000;0.4900;1.4961;
15.9000;0.4998;1.5168;
16.2000;0.4965;1.4961;
16.5000;0.5006;1.5012;
16.8000;0.5006;1.5090;
17.1000;0.5022;1.5116;
17.4000;0.5022;1.5090;
17.7000;0.5039;1.5090;
18.0000;0.5031;1.5064;
18.3000;0.5022;1.5012;
18.6000;0.5063;1.5194;
18.9000;0.5006;1.5064;
19.2000;0.5031;1.5168;
19.5000;0.5039;1.5220;
19.8000;0.5071;1.5116;
20.1000;0.5055;1.5142;
20.4000;0.5031;1.5038;
20.7000;0.5039;1.5012;
21.0000;0.5047;1.5038;
21.3000;0.5055;1.5090;
21.6000;0.5047;1.5038;
21.9000;0.5039;1.5038;
22.2000;0.5071;1.5116;
22.5000;0.5039;1.4909;
22.8000;0.5063;1.5012;
23.1000;0.5055;1.4909;
23.4000;0.5104;1.4961;
23.7000;0.5185;1.5090;
24.0000;0.5079;1.4779;
24.3000;0.5088;1.4727;
24.6000;0.5079;1.4649;
24.9000;0.5104;1.4624;
25.2000;0.5088;1.4675;
25.5000;0.5128;1.4753;
25.8000;0.5071;1.4546;
26.1000;0.5096;1.4598;
26.4000;0.5104;1.4675;
26.7000;0.5104;1.4675;
27.0000;0.5096;1.4675;
27.3000;0.5112;1.4805;
27.6000;0.5112;1.4857;
27.9000;0.5136;1.4935;
28.2000;0.5104;1.4805;
28.5000;0.5218;1.5168;
28.8000;0.5120;1.4909;
29.1000;0.5120;1.4883;
29.4000;0.5088;1.4779;
29.7000;0.5104;1.4753;
30.0000;0.5153;1.4831;
30.3000;0.5112;1.4727;
30.6000;0.5096;1.4572;
30.9000;0.5071;1.4546;
31.2000;0.5112;1.4598;
31.5000;0.5063;1.4468;
31.8000;0.5104;1.4572;
32.1000;0.5136;1.4649;
32.4000;0.5128;1.4598;
32.7000;0.5120;1.4649;
33.0000;0.5128;1.4701;
33.3000;0.5144;1.4675;
33.6000;0.5161;1.4624;
33.9000;0.5153;1.4598;
34.2000;0.5136;1.4572;
34.5000;0.5104;1.4494;
34.8000;0.5153;1.4520;
35.1000;0.5153;1.4468;
35.4000;0.5153;1.4494;
35.7000;0.5153;1.4520;
36.0000;0.5136;1.4468;
36.3000;0.5120;1.4416;
36.6000;0.5153;1.4416;
36.9000;0.5136;1.4286;
37.2000;0.5161;1.4312;
37.5000;0.5169;1.4364;
37.8000;0.5169;1.4390;
38.1000;0.5161;1.4442;
38.4000;0.5153;1.4338;
38.7000;0.5201;1.4312;
39.0000;0.5193;1.4235;
39.3000;0.5185;1.4183;
39.6000;0.5136;1.3975;
39.9000;0.5169;1.4053;
40.2000;0.5144;1.4027;
40.5000;0.5144;1.4001;
40.8000;0.5185;1.4209;
41.1000;0.5144;1.4079;
41.4000;0.5193;1.4131;
41.7000;0.5185;1.4105;
42.0000;0.5193;1.4053;
42.3000;0.5185;1.4105;
42.6000;0.5201;1.4131;
42.9000;0.5185;1.4053;
43.2000;0.5185;1.4079;
43.5000;0.5218;1.4079;
43.8000;0.5226;1.4131;
44.1000;0.5185;1.4053;
44.4000;0.5185;1.4053;
44.7000;0.5210;1.4131;
45.0000;0.5201;1.4027;
45.3000;0.5218;1.4079;
45.6000;0.5210;1.3949;
45.9000;0.5210;1.3949;
46.2000;0.5226;1.3975;
46.5000;0.5234;1.4027;
46.8000;0.5242;1.4053;
47.1000;0.5226;1.3975;
47.4000;0.5226;1.3923;
47.7000;0.5267;1.4105;
48.0000;0.5250;1.4079;
48.3000;0.5226;1.4001;
48.6000;0.5250;1.4027;
48.9000;0.5250;1.4027;
49.2000;0.5258;1.4053;
49.5000;0.5250;1.4027;
49.8000;0.5267;1.3949;
50.1000;0.5267;1.3923;
50.4000;0.5258;1.3820;
50.7000;0.5258;1.3872;
51.0000;0.5250;1.3846;
51.3000;0.5234;1.3794;
51.6000;0.5258;1.3846;
51.9000;0.5267;1.3794;
52.2000;0.5267;1.3716;
52.5000;0.5307;1.3846;
52.8000;0.5275;1.3742;
53.1000;0.5275;1.3586;
53.4000;0.5283;1.3535;
53.7000;0.5275;1.3509;
54.0000;0.5291;1.3560;
54.3000;0.5340;1.3716;
54.6000;0.5275;1.3535;
54.9000;0.5299;1.3535;
55.2000;0.5291;1.3560;
55.5000;0.5299;1.3457;
55.8000;0.5291;1.3431;
56.1000;0.5291;1.3431;
56.4000;0.5299;1.3509;
56.7000;0.5299;1.3535;
57.0000;0.5315;1.3457;
57.3000;0.5299;1.3405;
57.6000;0.5324;1.3379;
57.9000;0.5315;1.3379;
58.2000;0.5307;1.3301;
58.5000;0.5307;1.3327;
58.8000;0.5315;1.3353;
59.1000;0.5324;1.3405;
59.4000;0.5340;1.3405;
59.7000;0.5315;1.3431;
60.0000;0.5307;1.3431;
60.3000;0.5315;1.3379;
60.6000;0.5324;1.3431;
60.9000;0.5324;1.3327;
61.2000;0.5324;1.3301;
61.5000;0.5324;1.3301;
61.8000;0.5315;1.3379;
62.1000;0.5332;1.3431;
62.4000;0.5332;1.3431;
62.7000;0.5340;1.3483;
63.0000;0.5340;1.3483;
63.3000;0.5356;1.3560;
63.6000;0.5356;1.3638;
63.9000;0.5356;1.3586;
64.2000;0.5364;1.3535;
64.5000;0.5356;1.3560;
64.8000;0.5356;1.3560;
65.1000;0.5364;1.3535;
65.4000;0.5372;1.3483;
65.7000;0.5356;1.3379;
66.0000;0.5389;1.3379;
66.3000;0.5356;1.3275;
66.6000;0.5372;1.3275;
66.9000;0.5364;1.3301;
67.2000;0.5364;1.3249;
67.5000;0.5364;1.3172;
67.8000;0.5356;1.3120;
68.1000;0.5397;1.3249;
68.4000;0.5381;1.3197;
68.7000;0.5372;1.3172;
69.0000;0.5372;1.3223;
69.3000;0.5381;1.3275;
69.6000;0.5381;1.3223;
69.9000;0.5356;1.3197;
70.2000;0.5364;1.3197;
70.5000;0.5372;1.3146;
70.8000;0.5381;1.3275;
71.1000;0.5381;1.3249;
71.4000;0.5381;1.3301;
71.7000;0.5405;1.3353;
72.0000;0.5397;1.3405;
72.3000;0.5405;1.3457;
72.6000;0.5389;1.3509;
72.9000;0.5405;1.3457;
73.2000;0.5405;1.3405;
73.5000;0.5405;1.3457;
73.8000;0.5405;1.3457;
74.1000;0.5405;1.3457;
74.4000;0.5413;1.3560;
74.7000;0.5405;1.3509;
75.0000;0.5421;1.3483;
75.3000;0.5389;1.3431;
75.6000;0.5413;1.3379;
75.9000;0.5397;1.3223;
76.2000;0.5397;1.3275;
76.5000;0.5413;1.3327;
76.8000;0.5413;1.3301;
77.1000;0.5405;1.3379;
77.4000;0.5421;1.3457;
77.7000;0.5413;1.3431;
78.0000;0.5429;1.3327;
78.3000;0.5429;1.3301;
78.6000;0.5438;1.3275;
78.9000;0.5429;1.3249;
79.2000;0.5438;1.3249;
79.5000;0.5438;1.3197;
79.8000;0.5421;1.3275;
80.1000;0.5421;1.3223;
80.4000;0.5429;1.3275;
80.7000;0.5421;1.3301;
81.0000;0.5421;1.3249;
81.3000;0.5405;1.3172;
81.6000;0.5356;1.3120;
81.9000;0.5438;1.3223;
82.2000;0.5446;1.3094;
82.5000;0.5438;1.3094;
82.8000;0.5438;1.3042;
83.1000;0.5454;1.3094;
83.4000;0.5454;1.3146;
83.7000;0.5438;1.3172;
84.0000;0.5438;1.3068;
84.3000;0.5438;1.3068;
84.6000;0.5446;1.3068;
84.9000;0.5438;1.3068;
85.2000;0.5446;1.3094;
85.5000;0.5413;1.3042;
85.8000;0.5470;1.3172;
86.1000;0.5454;1.3120;
86.4000;0.5446;1.3172;
86.7000;0.5446;1.3249;
87.0000;0.5462;1.3275;
87.3000;0.5454;1.3379;
87.6000;0.5470;1.3405;
87.9000;0.5462;1.3379;
88.2000;0.5470;1.3301;
88.5000;0.5454;1.3327;
88.8000;0.5470;1.3327;
89.1000;0.5470;1.3275;
89.4000;0.5478;1.3301;
89.7000;0.5543;1.3405;
90.0000;0.5462;1.3172;
90.3000;0.5397;1.3016;
90.6000;0.5462;1.3172;
90.9000;0.5478;1.3146;
91.2000;0.5470;1.3146;
91.5000;0.5478;1.3094;
91.8000;0.5462;1.3146;
92.1000;0.5470;1.3172;
92.4000;0.5495;1.3223;
92.7000;0.5454;1.3068;
93.0000;0.5462;1.3120;
93.3000;0.5495;1.3301;
93.6000;0.5429;1.3094;
93.9000;0.5478;1.3249;
94.2000;0.5527;1.3353;
94.5000;0.5478;1.3249;
94.8000;0.5478;1.3223;
95.1000;0.5462;1.3094;
95.4000;0.5470;1.3068;
95.7000;0.5478;1.3016;
96.0000;0.5478;1.3094;
96.3000;0.5454;1.3146;
96.6000;0.5486;1.3223;
96.9000;0.5478;1.3146;
97.2000;0.5486;1.3223;
97.5000;0.5495;1.3249;
97.8000;0.5495;1.3301;
98.1000;0.5503;1.3301;
98.4000;0.5503;1.3353;
98.7000;0.5503;1.3379;
99.0000;0.5486;1.3379;
99.3000;0.5503;1.3353;
99.6000;0.5486;1.3275;
99.9000;0.5495;1.3327;
100.2000;0.5495;1.3353;
100.5000;0.5470;1.3249;
100.8000;0.5486;1.3275;
101.1000;0.5438;1.3172;
101.4000;0.5478;1.3249;
101.7000;0.5462;1.3223;
102.0000;0.5495;1.3301;
102.3000;0.5486;1.3301;
102.6000;0.5478;1.3172;
102.9000;0.5486;1.3197;
103.2000;0.5503;1.3120;
103.5000;0.5511;1.3172;
103.8000;0.5503;1.3172;
104.1000;0.5511;1.3249;
104.4000;0.5462;1.3068;
104.7000;0.5511;1.3223;
105.0000;0.5503;1.3223;
105.3000;0.5495;1.3146;
105.6000;0.5519;1.3249;
105.9000;0.5486;1.3172;
106.2000;0.5495;1.3197;
106.5000;0.5568;1.3301;
106.8000;0.5486;1.3042;
107.1000;0.5495;1.2990;
107.4000;0.5503;1.2990;
107.7000;0.5495;1.2990;
108.0000;0.5495;1.2938;
108.3000;0.5486;1.2860;
108.6000;0.5543;1.3146;
108.9000;0.5608;1.3327;
109.2000;0.5503;1.3094;
109.5000;0.5478;1.3042;
109.8000;0.5503;1.3042;
110.1000;0.5519;1.3016;
110.4000;0.5519;1.2964;
110.7000;0.5503;1.2912;
111.0000;0.5486;1.2912;
111.3000;0.5519;1.2938;
111.6000;0.5454;1.2886;
111.9000;0.5543;1.3068;
112.2000;0.5503;1.3016;
112.5000;0.5511;1.3068;
112.8000;0.5576;1.3249;
113.1000;0.5421;1.2809;
113.4000;0.5495;1.3016;
113.7000;0.5486;1.2938;
114.0000;0.5462;1.2938;
114.3000;0.5503;1.3042;
114.6000;0.5495;1.3068;
114.9000;0.5503;1.3016;
115.2000;0.5519;1.3042;
115.5000;0.5503;1.2990;
115.8000;0.5503;1.3016;
116.1000;0.5511;1.3094;
116.4000;0.5527;1.3146;
116.7000;0.5495;1.2990;
117.0000;0.5511;1.3016;
117.3000;0.5527;1.2990;
117.6000;0.5519;1.3016;
117.9000;0.5527;1.2964;
118.2000;0.5511;1.2990;
118.5000;0.5527;1.3197;
118.8000;0.5519;1.3094;
119.1000;0.5438;1.2912;
119.4000;0.5503;1.3120;
119.7000;0.5454;1.3094;
120.0000;0.5462;1.3094;
120.3000;0.5519;1.3172;
120.6000;0.5503;1.3197;
120.9000;0.5462;1.3120;
121.2000;0.5551;1.3275;
121.5000;0.5519;1.3223;
121.8000;0.5511;1.3172;
122.1000;0.5478;1.3042;
122.4000;0.5486;1.3172;
122.7000;0.5511;1.3275;
123.0000;0.5511;1.3379;
123.3000;0.5543;1.3431;
123.6000;0.5519;1.3457;
123.9000;0.5560;1.3535;
124.2000;0.5519;1.3405;
124.5000;0.5495;1.3275;
124.8000;0.5519;1.3301;
125.1000;0.5519;1.3223;
125.4000;0.5519;1.3223;
125.7000;0.5543;1.3146;
126.0000;0.5576;1.3197;
126.3000;0.5535;1.3068;
126.6000;0.5535;1.3120;
126.9000;0.5527;1.3068;
127.2000;0.5527;1.3120;
127.5000;0.5519;1.3172;
127.8000;0.5511;1.3120;
128.1000;0.5543;1.3197;
128.4000;0.5495;1.3146;
128.7000;0.5486;1.3094;
129.0000;0.5495;1.3068;
129.3000;0.5519;1.3068;
129.6000;0.5519;1.3094;
129.9000;0.5551;1.3197;
130.2000;0.5503;1.3197;
130.5000;0.5519;1.3249;
130.8000;0.5511;1.3275;
131.1000;0.5486;1.3223;
131.4000;0.5535;1.3275;
131.7000;0.5527;1.3146;
132.0000;0.5495;1.3094;
132.3000;0.5503;1.3068;
132.6000;0.5470;1.3016;
132.9000;0.5519;1.3146;
133.2000;0.5617;1.3353;
133.5000;0.5503;1.3042;
133.8000;0.5527;1.2990;
134.1000;0.5551;1.3094;
134.4000;0.5527;1.3042;
134.7000;0.5429;1.2834;
135.0000;0.5592;1.3249;
135.3000;0.5486;1.3068;
135.6000;0.5576;1.3249;
135.9000;0.5478;1.2990;
136.2000;0.5527;1.3068;
136.5000;0.5527;1.3146;
136.8000;0.5519;1.3197;
137.1000;0.5495;1.3068;
137.4000;0.5503;1.3094;
137.7000;0.5503;1.3042;
138.0000;0.5495;1.2886;
138.3000;0.5519;1.2990;
138.6000;0.5527;1.2990;
138.9000;0.5560;1.3172;
139.2000;0.5535;1.3120;
139.5000;0.5519;1.3016;
139.8000;0.5535;1.3146;
140.1000;0.5495;1.3042;
140.4000;0.5519;1.3223;
140.7000;0.5511;1.3172;
141.0000;0.5592;1.3379;
141.3000;0.5519;1.3120;
141.6000;0.5495;1.2990;
141.9000;0.5486;1.2964;
142.2000;0.5511;1.3120;
142.5000;0.5511;1.3120;
142.8000;0.5519;1.3120;
143.1000;0.5535;1.3172;
143.4000;0.5519;1.3146;
143.7000;0.5527;1.3094;
144.0000;0.5511;1.3016;
144.3000;0.5503;1.2990;
144.6000;0.5519;1.3042;
144.9000;0.5519;1.3068;
145.2000;0.5535;1.2990;
145.5000;0.5527;1.3068;
145.8000;0.5519;1.3094;
146.1000;0.5495;1.3042;
146.4000;0.5478;1.2912;
146.7000;0.5527;1.3042;
147.0000;0.5519;1.2886;
147.3000;0.5519;1.2834;
147.6000;0.5527;1.2912;
147.9000;0.5511;1.2886;
148.2000;0.5527;1.3042;
148.5000;0.5519;1.3042;
148.8000;0.5527;1.3016;
149.1000;0.5535;1.2990;
149.4000;0.5576;1.3120;
149.7000;0.5519;1.2964;
150.0000;0.5462;1.2886;
150.3000;0.5519;1.3120;
150.6000;0.5527;1.3146;
150.9000;0.5503;1.3042;
151.2000;0.5519;1.2990;
151.5000;0.5503;1.2964;
151.8000;0.5511;1.3042;
152.1000;0.5511;1.3042;
152.4000;0.5519;1.3094;
152.7000;0.5527;1.3120;
153.0000;0.5519;1.3120;
153.3000;0.5535;1.3197;
153.6000;0.5519;1.3223;
153.9000;0.5511;1.3172;
154.2000;0.5527;1.3223;
154.5000;0.5511;1.3094;
154.8000;0.5503;1.3120;
155.1000;0.5503;1.3197;
155.4000;0.5503;1.3249;
155.7000;0.5503;1.3275;
156.0000;0.5535;1.3353;
156.3000;0.5511;1.3379;
156.6000;0.5543;1.3457;
156.9000;0.5519;1.3405;
157.2000;0.5560;1.3483;
157.5000;0.5511;1.3301;
157.8000;0.5535;1.3327;
158.1000;0.5519;1.3275;
158.4000;0.5519;1.3275;
158.7000;0.5503;1.3146;
159.0000;0.5535;1.3275;
159.3000;0.5511;1.3172;
159.6000;0.5503;1.3120;
159.9000;0.5511;1.3146;
160.2000;0.5519;1.3223;
160.5000;0.5495;1.3197;
160.8000;0.5519;1.3146;
161.1000;0.5511;1.3146;
161.4000;0.5511;1.3197;
161.7000;0.5511;1.3197;
162.0000;0.5527;1.3146;
162.3000;0.5511;1.3068;
162.6000;0.5527;1.3120;
162.9000;0.5478;1.2964;
163.2000;0.5519;1.3068;
163.5000;0.5519;1.3094;
163.8000;0.5551;1.3120;
164.1000;0.5527;1.3016;
164.4000;0.5519;1.3042;
164.7000;0.5560;1.3172;
165.0000;0.5503;1.3016;
165.3000;0.5495;1.3016;
165.6000;0.5495;1.3016;
165.9000;0.5511;1.3068;
166.2000;0.5511;1.3068;
166.5000;0.5535;1.3172;
166.8000;0.5519;1.3146;
167.1000;0.5527;1.3197;
167.4000;0.5511;1.3146;
167.7000;0.5511;1.3223;
168.0000;0.5511;1.3120;
168.3000;0.5535;1.3197;
168.6000;0.5543;1.3120;
168.9000;0.5511;1.2938;
169.2000;0.5527;1.2990;
169.5000;0.5511;1.3094;
169.8000;0.5511;1.3120;
170.1000;0.5503;1.3068;
170.4000;0.5495;1.3068;
170.7000;0.5511;1.3094;
171.0000;0.5503;1.2990;
171.3000;0.5503;1.3042;
171.6000;0.5503;1.3068;
171.9000;0.5503;1.3094;
172.2000;0.5511;1.3094;
172.5000;0.5519;1.3094;
172.8000;0.5495;1.3094;
173.1000;0.5511;1.3068;
173.4000;0.5495;1.2990;
173.7000;0.5503;1.3068;
174.0000;0.5511;1.3068;
174.3000;0.5511;1.2964;
174.6000;0.5519;1.2990;
174.9000;0.5503;1.2964;
175.2000;0.5511;1.3016;
175.5000;0.5503;1.2886;
175.8000;0.5551;1.3120;
176.1000;0.5519;1.3094;
176.4000;0.5495;1.3068;
176.7000;0.5511;1.3042;
177.0000;0.5495;1.2990;
177.3000;0.5519;1.3042;
177.6000;0.5503;1.3068;
177.9000;0.5551;1.3146;
178.2000;0.5503;1.3042;
178.5000;0.5519;1.3120;
178.8000;0.5519;1.3120;
179.1000;0.5495;1.3094;
179.4000;0.5511;1.3120;
179.7000;0.5519;1.3197;
180.0000;0.5519;1.3249;
180.3000;0.5511;1.3172;
180.6000;0.5503;1.3094;
180.9000;0.5519;1.3146;
181.2000;0.5519;1.3223;
181.5000;0.5511;1.3275;
181.8000;0.5495;1.3146;
182.1000;0.5511;1.3094;
182.4000;0.5511;1.3068;
182.7000;0.5511;1.3016;
183.0000;0.5495;1.3068;
183.3000;0.5495;1.2964;
183.6000;0.5511;1.2964;
183.9000;0.5438;1.2860;
184.2000;0.5511;1.3042;
184.5000;0.5495;1.3094;
184.8000;0.5503;1.3197;
185.1000;0.5519;1.3172;
185.4000;0.5551;1.3223;
185.7000;0.5519;1.3172;
186.0000;0.5503;1.3068;
186.3000;0.5511;1.3094;
186.6000;0.5511;1.3016;
186.9000;0.5495;1.2938;
187.2000;0.5495;1.2886;
187.5000;0.5503;1.2964;
187.8000;0.5519;1.3120;
188.1000;0.5495;1.3068;
188.4000;0.5503;1.3146;
188.7000;0.5519;1.3120;
189.0000;0.5486;1.3094;
189.3000;0.5486;1.3146;
189.6000;0.5503;1.3094;
189.9000;0.5511;1.3094;
190.2000;0.5503;1.3068;
190.5000;0.5495;1.3120;
190.8000;0.5495;1.3094;
191.1000;0.5511;1.3120;
191.4000;0.5519;1.3146;
191.7000;0.5511;1.3146;
192.0000;0.5503;1.3042;
192.3000;0.5486;1.3120;
192.6000;0.5511;1.3120;
192.9000;0.5495;1.3094;
193.2000;0.5503;1.3068;
193.5000;0.5503;1.3094;
193.8000;0.5503;1.3172;
194.1000;0.5495;1.3172;
194.4000;0.5486;1.3249;
194.7000;0.5486;1.3249;
195.0000;0.5486;1.3197;
195.3000;0.5495;1.3301;
195.6000;0.5495;1.3379;
195.9000;0.5486;1.3353;
196.2000;0.5503;1.3327;
196.5000;0.5486;1.3249;
196.8000;0.5495;1.3301;
197.1000;0.5495;1.3223;
197.4000;0.5503;1.3197;
197.7000;0.5478;1.3120;
198.0000;0.5495;1.3172;
198.3000;0.5446;1.3068;
198.6000;0.5495;1.3120;
198.9000;0.5503;1.3146;
199.2000;0.5486;1.3042;
199.5000;0.5495;1.3068;
199.8000;0.5454;1.3016;
200.1000;0.5495;1.3068;
200.4000;0.5495;1.3120;
200.7000;0.5486;1.3042;
201.0000;0.5495;1.3042;
201.3000;0.5503;1.2964;
201.6000;0.5503;1.2964;
201.9000;0.5495;1.2938;
202.2000;0.5495;1.2912;
202.5000;0.5495;1.2938;
202.8000;0.5503;1.3042;
203.1000;0.5503;1.2990;
203.4000;0.5503;1.2938;
203.7000;0.5535;1.3068;
204.0000;0.5503;1.2990;
204.3000;0.5503;1.2964;
204.6000;0.5495;1.2912;
204.9000;0.5503;1.2809;
205.2000;0.5478;1.2809;
205.5000;0.5519;1.2990;
205.8000;0.5478;1.2912;
206.1000;0.5592;1.3172;
206.4000;0.5495;1.2886;
206.7000;0.5519;1.2990;
207.0000;0.5486;1.2938;
207.3000;0.5486;1.2990;
207.6000;0.5495;1.3068;
207.9000;0.5511;1.3068;
208.2000;0.5495;1.3094;
208.5000;0.5486;1.3146;
208.8000;0.5478;1.3146;
209.1000;0.5503;1.3172;
209.4000;0.5478;1.3016;
209.7000;0.5486;1.3094;
210.0000;0.5478;1.3068;
210.3000;0.5462;1.2938;
210.6000;0.5495;1.2964;
210.9000;0.5462;1.2834;
211.2000;0.5470;1.2834;
211.5000;0.5478;1.2860;
211.8000;0.5486;1.2860;
212.1000;0.5478;1.2834;
212.4000;0.5470;1.2886;
212.7000;0.5486;1.3016;
213.0000;0.5495;1.3094;
213.3000;0.5454;1.2990;
213.6000;0.5495;1.3146;
213.9000;0.5486;1.3042;
214.2000;0.5470;1.3042;
214.5000;0.5486;1.3016;
214.8000;0.5486;1.2938;
215.1000;0.5462;1.2860;
215.4000;0.5486;1.2886;
215.7000;0.5495;1.2938;
216.0000;0.5495;1.3042;
216.3000;0.5470;1.2990;
216.6000;0.5429;1.2990;
216.9000;0.5495;1.3094;
217.2000;0.5486;1.3094;
217.5000;0.5470;1.3094;
217.8000;0.5454;1.2990;
218.1000;0.5486;1.3120;
218.4000;0.5486;1.3068;
218.7000;0.5551;1.3172;
219.0000;0.5486;1.2964;
219.3000;0.5389;1.2731;
219.6000;0.5495;1.2990;
219.9000;0.5486;1.2912;
220.2000;0.5478;1.2912;
220.5000;0.5535;1.3016;
220.8000;0.5486;1.3016;
221.1000;0.5478;1.3016;
221.4000;0.5503;1.3094;
221.7000;0.5486;1.3094;
222.0000;0.5470;1.3120;
222.3000;0.5486;1.3146;
222.6000;0.5478;1.3146;
222.9000;0.5478;1.3172;
223.2000;0.5486;1.3197;
223.5000;0.5397;1.2990;
223.8000;0.5486;1.3275;
224.1000;0.5495;1.3275;
224.4000;0.5495;1.3275;
224.7000;0.5495;1.3249;
225.0000;0.5470;1.3146;
225.3000;0.5486;1.3197;
225.6000;0.5470;1.3223;
225.9000;0.5551;1.3431;
226.2000;0.5486;1.3301;
226.5000;0.5470;1.3327;
226.8000;0.5462;1.3301;
227.1000;0.5478;1.3301;
227.4000;0.5462;1.3249;
227.7000;0.5478;1.3301;
228.0000;0.5503;1.3379;
228.3000;0.5478;1.3275;
228.6000;0.5478;1.3197;
228.9000;0.5495;1.3197;
229.2000;0.5486;1.3146;
229.5000;0.5495;1.3120;
229.8000;0.5470;1.3042;
230.1000;0.5486;1.3120;
230.4000;0.5486;1.3094;
230.7000;0.5495;1.3146;
231.0000;0.5486;1.3172;
231.3000;0.5462;1.3094;
231.6000;0.5478;1.3120;
231.9000;0.5470;1.3120;
232.2000;0.5470;1.3197;
232.5000;0.5462;1.3146;
232.8000;0.5527;1.3249;
233.1000;0.5446;1.3120;
233.4000;0.5478;1.3249;
233.7000;0.5527;1.3379;
234.0000;0.5429;1.3146;
234.3000;0.5470;1.3275;
234.6000;0.5495;1.3301;
234.9000;0.5470;1.3172;
235.2000;0.5470;1.3197;
235.5000;0.5478;1.3197;
235.8000;0.5486;1.3249;
236.1000;0.5478;1.3249;
236.4000;0.5470;1.3275;
236.7000;0.5478;1.3249;
237.0000;0.5478;1.3249;
237.3000;0.5478;1.3197;
237.6000;0.5470;1.3197;
237.9000;0.5495;1.3353;
238.2000;0.5478;1.3301;
238.5000;0.5478;1.3249;
238.8000;0.5454;1.3172;
239.1000;0.5397;1.2912;
239.4000;0.5462;1.3068;
239.7000;0.5470;1.3042;
240.0000;0.5495;1.3197;
240.3000;0.5478;1.3120;
240.6000;0.5478;1.3068;
240.9000;0.5429;1.2964;
241.2000;0.5454;1.3068;
241.5000;0.5470;1.3094;
241.8000;0.5462;1.3094;
242.1000;0.5470;1.3068;
242.4000;0.5478;1.3068;
242.7000;0.5478;1.2938;
243.0000;0.5429;1.2834;
243.3000;0.5429;1.2860;
243.6000;0.5454;1.3042;
243.9000;0.5462;1.3042;
244.2000;0.5446;1.3068;
244.5000;0.5470;1.3146;
244.8000;0.5495;1.3249;
245.1000;0.5462;1.3249;
245.4000;0.5470;1.3327;
245.7000;0.5486;1.3353;
246.0000;0.5478;1.3379;
246.3000;0.5462;1.3327;
246.6000;0.5519;1.3405;
246.9000;0.5478;1.3379;
247.2000;0.5478;1.3353;
247.5000;0.5470;1.3249;
247.8000;0.5446;1.3146;
248.1000;0.5454;1.3146;
248.4000;0.5429;1.3094;
248.7000;0.5486;1.3223;
249.0000;0.5486;1.3172;
249.3000;0.5470;1.3094;
249.6000;0.5478;1.3172;
249.9000;0.5486;1.3146;
250.2000;0.5470;1.3094;
250.5000;0.5478;1.3094;
250.8000;0.5495;1.3172;
251.1000;0.5495;1.3197;
251.4000;0.5478;1.3146;
251.7000;0.5470;1.3172;
252.0000;0.5486;1.3172;
252.3000;0.5495;1.3197;
252.6000;0.5478;1.3197;
252.9000;0.5470;1.3249;
253.2000;0.5486;1.3327;
253.5000;0.5446;1.3249;
253.8000;0.5470;1.3379;
254.1000;0.5478;1.3457;
254.4000;0.5454;1.3327;
254.7000;0.5478;1.3327;
255.0000;0.5470;1.3223;
255.3000;0.5470;1.3120;
255.6000;0.5454;1.3042;
255.9000;0.5470;1.3068;
256.2000;0.5462;1.3068;
256.5000;0.5446;1.3094;
256.8000;0.5413;1.3094;
257.1000;0.5462;1.3146;
257.4000;0.5462;1.3146;
257.7000;0.5470;1.3172;
258.0000;0.5446;1.3094;
258.3000;0.5470;1.3094;
258.6000;0.5462;1.3146;
258.9000;0.5446;1.3094;
259.2000;0.5470;1.3197;
259.5000;0.5454;1.3197;
259.8000;0.5527;1.3431;
260.1000;0.5454;1.3223;
260.4000;0.5470;1.3275;
260.7000;0.5446;1.3223;
261.0000;0.5446;1.3120;
261.3000;0.5462;1.3172;
261.6000;0.5486;1.3249;
261.9000;0.5470;1.3275;
262.2000;0.5470;1.3301;
262.5000;0.5478;1.3353;
262.8000;0.5462;1.3275;
263.1000;0.5421;1.3094;
263.4000;0.5462;1.3223;
263.7000;0.5446;1.3275;
264.0000;0.5446;1.3223;
264.3000;0.5364;1.2964;
264.6000;0.5462;1.3120;
264.9000;0.5470;1.3068;
265.2000;0.5478;1.3120;
265.5000;0.5454;1.3120;
265.8000;0.5462;1.3146;
266.1000;0.5462;1.3094;
266.4000;0.5470;1.3172;
266.7000;0.5470;1.3146;
267.0000;0.5470;1.3068;
267.3000;0.5478;1.3016;
267.6000;0.5462;1.3094;
267.9000;0.5438;1.3042;
268.2000;0.5462;1.3094;
268.5000;0.5462;1.3094;
268.8000;0.5470;1.3275;
269.1000;0.5381;1.3016;
269.4000;0.5470;1.3197;
269.7000;0.5462;1.3249;
270.0000;0.5454;1.3327;
270.3000;0.5454;1.3249;
270.6000;0.5454;1.3223;
270.9000;0.5454;1.3146;
271.2000;0.5446;1.3146;
271.5000;0.5470;1.3146;
271.8000;0.5470;1.3120;
272.1000;0.5462;1.3120;
272.4000;0.5470;1.3094;
272.7000;0.5462;1.3120;
273.0000;0.5527;1.3301;
273.3000;0.5454;1.3120;
273.6000;0.5470;1.3249;
273.9000;0.5462;1.3379;
274.2000;0.5454;1.3457;
274.5000;0.5454;1.3405;
274.8000;0.5462;1.3379;
275.1000;0.5470;1.3405;
275.4000;0.5454;1.3405;
275.7000;0.5446;1.3353;
276.0000;0.5470;1.3379;
276.3000;0.5454;1.3457;
276.6000;0.5462;1.3405;
276.9000;0.5462;1.3431;
277.2000;0.5438;1.3405;
277.5000;0.5446;1.3353;
277.8000;0.5462;1.3457;
278.1000;0.5446;1.3431;
278.4000;0.5462;1.3483;
278.7000;0.5462;1.3483;
279.0000;0.5478;1.3560;
279.3000;0.5462;1.3560;
279.6000;0.5462;1.3535;
279.9000;0.5446;1.3509;
280.2000;0.5462;1.3457;
280.5000;0.5486;1.3509;
280.8000;0.5446;1.3457;
281.1000;0.5446;1.3353;
281.4000;0.5454;1.3327;
281.7000;0.5503;1.3431;
282.0000;0.5446;1.3327;
282.3000;0.5462;1.3327;
282.6000;0.5454;1.3249;
282.9000;0.5462;1.3249;
283.2000;0.5478;1.3301;
283.5000;0.5446;1.3249;
283.8000;0.5454;1.3301;
284.1000;0.5462;1.3249;
284.4000;0.5454;1.3197;
284.7000;0.5454;1.3223;
285.0000;0.5446;1.3197;
285.3000;0.5462;1.3197;
285.6000;0.5462;1.3249;
285.9000;0.5446;1.3223;
286.2000;0.5446;1.3197;
286.5000;0.5438;1.3146;
286.8000;0.5446;1.3120;
287.1000;0.5429;1.3016;
287.4000;0.5454;1.3016;
287.7000;0.5446;1.2938;
288.0000;0.5454;1.2964;
288.3000;0.5454;1.2938;
288.6000;0.5429;1.2964;
288.9000;0.5438;1.3042;
289.2000;0.5446;1.3068;
289.5000;0.5421;1.3016;
289.8000;0.5478;1.3197;
290.1000;0.5446;1.3068;
290.4000;0.5462;1.3068;
290.7000;0.5454;1.3120;
291.0000;0.5454;1.3042;
291.3000;0.5454;1.3016;
291.6000;0.5446;1.2990;
291.9000;0.5446;1.3042;
292.2000;0.5438;1.3016;
292.5000;0.5429;1.3068;
292.8000;0.5438;1.3120;
293.1000;0.5454;1.3094;
293.4000;0.5438;1.3042;
293.7000;0.5429;1.2912;
294.0000;0.5462;1.2964;
294.3000;0.5462;1.3016;
294.6000;0.5454;1.3016;
294.9000;0.5446;1.3016;
295.2000;0.5446;1.3016;
295.5000;0.5519;1.3275;
295.8000;0.5486;1.3249;
296.1000;0.5446;1.3068;
296.4000;0.5438;1.3094;
296.7000;0.5413;1.3120;
297.0000;0.5454;1.3172;
297.3000;0.5446;1.3094;
297.6000;0.5429;1.3042;
297.9000;0.5446;1.3042;
298.2000;0.5438;1.2938;
298.5000;0.5429;1.2938;
298.8000;0.5381;1.2886;
299.1000;0.5438;1.3068;
299.4000;0.5429;1.3120;
299.7000;0.5438;1.3068;
300.0000;0.5429;1.3068;
300.3000;0.5454;1.3068;
300.6000;0.5519;1.3249;
300.9000;0.5454;1.3068;
301.2000;0.5438;1.3042;
301.5000;0.5438;1.3094;
301.8000;0.5438;1.3146;
302.1000;0.5446;1.3172;
302.4000;0.5438;1.3146;
302.7000;0.5413;1.3068;
303.0000;0.5446;1.3146;
303.3000;0.5446;1.3275;
303.6000;0.5405;1.3146;
303.9000;0.5421;1.3068;
304.2000;0.5470;1.3197;
304.5000;0.5446;1.3223;
304.8000;0.5446;1.3301;
305.1000;0.5438;1.3275;
305.4000;0.5454;1.3301;
305.7000;0.5454;1.3353;
306.0000;0.5421;1.3249;
306.3000;0.5438;1.3172;
306.6000;0.5438;1.3197;
306.9000;0.5421;1.3197;
307.2000;0.5381;1.3068;
307.5000;0.5438;1.3223;
307.8000;0.5429;1.3197;
308.1000;0.5429;1.3146;
308.4000;0.5438;1.3146;
308.7000;0.5527;1.3327;
309.0000;0.5429;1.3042;
309.3000;0.5454;1.3042;
309.6000;0.5446;1.3016;
309.9000;0.5438;1.2964;
310.2000;0.5421;1.2912;
310.5000;0.5429;1.2886;
310.8000;0.5429;1.2938;
311.1000;0.5429;1.2834;
311.4000;0.5421;1.2886;
311.7000;0.5438;1.2964;
312.0000;0.5454;1.2938;
312.3000;0.5438;1.2964;
312.6000;0.5446;1.2938;
312.9000;0.5462;1.2938;
313.2000;0.5454;1.2912;
313.5000;0.5429;1.2860;
313.8000;0.5405;1.2834;
314.1000;0.5438;1.2990;
314.4000;0.5446;1.2964;
314.7000;0.5446;1.2912;
315.0000;0.5446;1.2886;
315.3000;0.5429;1.2834;
315.6000;0.5438;1.2964;
315.9000;0.5454;1.3042;
316.2000;0.5446;1.3197;
316.5000;0.5429;1.3197;
316.8000;0.5429;1.3172;
317.1000;0.5446;1.3120;
317.4000;0.5438;1.3068;
317.7000;0.5438;1.3016;
318.0000;0.5438;1.3068;
318.3000;0.5429;1.3094;
318.6000;0.5446;1.3094;
318.9000;0.5429;1.3068;
319.2000;0.5438;1.3068;
319.5000;0.5454;1.3172;
319.8000;0.5438;1.3172;
320.1000;0.5421;1.3197;
320.4000;0.5438;1.3249;
320.7000;0.5421;1.3223;
321.0000;0.5429;1.3223;
321.3000;0.5438;1.3223;
321.6000;0.5372;1.3042;
321.9000;0.5421;1.3197;
322.2000;0.5413;1.3120;
322.5000;0.5438;1.3172;
322.8000;0.5495;1.3431;
323.1000;0.5421;1.3146;
323.4000;0.5413;1.3223;
323.7000;0.5446;1.3301;
324.0000;0.5438;1.3379;
324.3000;0.5429;1.3379;
324.6000;0.5429;1.3379;
324.9000;0.5429;1.3431;
325.2000;0.5429;1.3405;
325.5000;0.5429;1.3353;
325.8000;0.5429;1.3405;
326.1000;0.5462;1.3457;
326.4000;0.5438;1.3379;
326.7000;0.5438;1.3327;
327.0000;0.5470;1.3327;
327.3000;0.5438;1.3197;
327.6000;0.5389;1.3172;
327.9000;0.5511;1.3535;
328.2000;0.5372;1.3120;
328.5000;0.5429;1.3301;
328.8000;0.5421;1.3353;
329.1000;0.5372;1.3275;
329.4000;0.5429;1.3327;
329.7000;0.5429;1.3301;
330.0000;0.5429;1.3223;
330.3000;0.5446;1.3094;
330.6000;0.5381;1.2912;
330.9000;0.5429;1.3172;
331.2000;0.5413;1.3197;
331.5000;0.5429;1.3275;
331.8000;0.5421;1.3353;
332.1000;0.5429;1.3379;
332.4000;0.5413;1.3327;
332.7000;0.5364;1.3172;
333.0000;0.5381;1.3146;
333.3000;0.5438;1.3197;
333.6000;0.5421;1.3197;
333.9000;0.5356;1.3068;
334.2000;0.5381;1.3223;
334.5000;0.5438;1.3431;
334.8000;0.5438;1.3379;
335.1000;0.5421;1.3353;
335.4000;0.5421;1.3327;
335.7000;0.5413;1.3327;
336.0000;0.5405;1.3353;
336.3000;0.5429;1.3457;
336.6000;0.5429;1.3431;
336.9000;0.5421;1.3405;
337.2000;0.5446;1.3431;
337.5000;0.5421;1.3353;
337.8000;0.5364;1.3223;
338.1000;0.5421;1.3327;
338.4000;0.5389;1.3327;
338.7000;0.5421;1.3405;
339.0000;0.5413;1.3405;
339.3000;0.5429;1.3379;
339.6000;0.5551;1.3716;
339.9000;0.5421;1.3327;
340.2000;0.5421;1.3379;
340.5000;0.5438;1.3301;
340.8000;0.5389;1.3146;
341.1000;0.5446;1.3379;
341.4000;0.5405;1.3275;
341.7000;0.5421;1.3379;
342.0000;0.5405;1.3353;
342.3000;0.5421;1.3301;
342.6000;0.5470;1.3431;
342.9000;0.5429;1.3379;
343.2000;0.5389;1.3223;
343.5000;0.5438;1.3301;
343.8000;0.5527;1.3483;
344.1000;0.5438;1.3249;
344.4000;0.5429;1.3197;
344.7000;0.5429;1.3197;
345.0000;0.5429;1.3197;
345.3000;0.5421;1.3146;
345.6000;0.5372;1.3016;
345.9000;0.5438;1.3197;
346.2000;0.5397;1.3094;
346.5000;0.5429;1.3172;
346.8000;0.5413;1.3197;
347.1000;0.5421;1.3275;
347.4000;0.5405;1.3223;
347.7000;0.5405;1.3223;
348.0000;0.5413;1.3275;
348.3000;0.5421;1.3249;
348.6000;0.5413;1.3249;
348.9000;0.5429;1.3405;
349.2000;0.5454;1.3535;
349.5000;0.5421;1.3405;
349.8000;0.5446;1.3379;
350.1000;0.5429;1.3249;
350.4000;0.5413;1.3379;
350.7000;0.5413;1.3327;
351.0000;0.5389;1.3353;
351.3000;0.5429;1.3379;
351.6000;0.5397;1.3301;
351.9000;0.5413;1.3327;
352.2000;0.5405;1.3353;
352.5000;0.5413;1.3483;
352.8000;0.5413;1.3509;
353.1000;0.5429;1.3638;
353.4000;0.5421;1.3560;
353.7000;0.5454;1.3664;
354.0000;0.5413;1.3586;
354.3000;0.5429;1.3638;
354.6000;0.5429;1.3638;
354.9000;0.5438;1.3612;
355.2000;0.5405;1.3612;
355.5000;0.5413;1.3560;
355.8000;0.5429;1.3612;
356.1000;0.5389;1.3483;
356.4000;0.5413;1.3535;
356.7000;0.5413;1.3483;
357.0000;0.5381;1.3353;
357.3000;0.5405;1.3457;
357.6000;0.5405;1.3483;
357.9000;0.5413;1.3509;
358.2000;0.5413;1.3457;
358.5000;0.5446;1.3457;
358.8000;0.5413;1.3353;
359.1000;0.5315;1.3146;
359.4000;0.5454;1.3509;
359.7000;0.5405;1.3457;
360.0000;0.5315;1.3275;
360.3000;0.5421;1.3560;
360.6000;0.5397;1.3379;
360.9000;0.5405;1.3405;
361.2000;0.5397;1.3431;
361.5000;0.5413;1.3457;
361.8000;0.5405;1.3457;
362.1000;0.5397;1.3353;
362.4000;0.5397;1.3301;
362.7000;0.5470;1.3353;
363.0000;0.5421;1.3249;
363.3000;0.5405;1.3249;
363.6000;0.5503;1.3560;
363.9000;0.5356;1.3146;
364.2000;0.5405;1.3301;
364.5000;0.5381;1.3301;
364.8000;0.5454;1.3535;
365.1000;0.5405;1.3431;
365.4000;0.5413;1.3457;
365.7000;0.5421;1.3405;
366.0000;0.5405;1.3353;
366.3000;0.5413;1.3379;
366.6000;0.5413;1.3431;
366.9000;0.5413;1.3483;
367.2000;0.5413;1.3509;
367.5000;0.5438;1.3586;
367.8000;0.5421;1.3483;
368.1000;0.5421;1.3509;
368.4000;0.5421;1.3509;
368.7000;0.5454;1.3560;
369.0000;0.5372;1.3379;
369.3000;0.5421;1.3457;
369.6000;0.5397;1.3353;
369.9000;0.5372;1.3379;
370.2000;0.5405;1.3483;
370.5000;0.5421;1.3560;
370.8000;0.5421;1.3560;
371.1000;0.5405;1.3457;
371.4000;0.5405;1.3483;
371.7000;0.5438;1.3483;
372.0000;0.5421;1.3483;
372.3000;0.5413;1.3457;
372.6000;0.5405;1.3405;
372.9000;0.5413;1.3457;
373.2000;0.5405;1.3431;
373.5000;0.5421;1.3509;
373.8000;0.5405;1.3560;
374.1000;0.5421;1.3586;
374.4000;0.5413;1.3586;
374.7000;0.5413;1.3560;
375.0000;0.5389;1.3509;
375.3000;0.5397;1.3483;
375.6000;0.5413;1.3509;
375.9000;0.5413;1.3457;
376.2000;0.5413;1.3457;
376.5000;0.5413;1.3560;
376.8000;0.5413;1.3560;
377.1000;0.5405;1.3586;
377.4000;0.5389;1.3483;
377.7000;0.5413;1.3509;
378.0000;0.5405;1.3483;
378.3000;0.5446;1.3586;
378.6000;0.5405;1.3586;
378.9000;0.5405;1.3509;
379.2000;0.5413;1.3535;
379.5000;0.5372;1.3483;
379.8000;0.5413;1.3612;
380.1000;0.5438;1.3690;
380.4000;0.5413;1.3586;
380.7000;0.5413;1.3586;
381.0000;0.5389;1.3431;
381.3000;0.5421;1.3560;
381.6000;0.5397;1.3405;
381.9000;0.5405;1.3535;
382.2000;0.5413;1.3612;
382.5000;0.5405;1.3560;
382.8000;0.5397;1.3535;
383.1000;0.5405;1.3638;
383.4000;0.5421;1.3560;
383.7000;0.5397;1.3535;
384.0000;0.5381;1.3457;
384.3000;0.5421;1.3638;
384.6000;0.5438;1.3742;
384.9000;0.5405;1.3612;
385.2000;0.5413;1.3586;
385.5000;0.5413;1.3586;
385.8000;0.5421;1.3638;
386.1000;0.5405;1.3560;
386.4000;0.5405;1.3560;
386.7000;0.5413;1.3483;
387.0000;0.5421;1.3560;
387.3000;0.5413;1.3535;
387.6000;0.5405;1.3509;
387.9000;0.5405;1.3612;
388.2000;0.5413;1.3612;
388.5000;0.5397;1.3509;
388.8000;0.5397;1.3483;
389.1000;0.5389;1.3586;
389.4000;0.5405;1.3716;
389.7000;0.5405;1.3716;
390.0000;0.5413;1.3716;
390.3000;0.5405;1.3664;
390.6000;0.5389;1.3586;
390.9000;0.5421;1.3612;
391.2000;0.5397;1.3535;
391.5000;0.5381;1.3535;
391.8000;0.5389;1.3612;
392.1000;0.5405;1.3612;
392.4000;0.5429;1.3638;
392.7000;0.5397;1.3586;
393.0000;0.5389;1.3535;
393.3000;0.5397;1.3457;
393.6000;0.5389;1.3457;
393.9000;0.5381;1.3509;
394.2000;0.5389;1.3560;
394.5000;0.5462;1.3716;
394.8000;0.5405;1.3664;
395.1000;0.5421;1.3742;
395.4000;0.5372;1.3586;
395.7000;0.5421;1.3716;
396.0000;0.5405;1.3716;
396.3000;0.5405;1.3768;
396.6000;0.5389;1.3846;
396.9000;0.5372;1.3794;
397.2000;0.5397;1.3898;
397.5000;0.5413;1.3768;
397.8000;0.5405;1.3794;
398.1000;0.5405;1.3768;
398.4000;0.5389;1.3664;
398.7000;0.5397;1.3690;
399.0000;0.5389;1.3638;
399.3000;0.5381;1.3638;
399.6000;0.5413;1.3690;
399.9000;0.5421;1.3560;
400.2000;0.5405;1.3560;
400.5000;0.5389;1.3483;
400.8000;0.5397;1.3509;
401.1000;0.5405;1.3535;
401.4000;0.5397;1.3535;
401.7000;0.5389;1.3535;
402.0000;0.5405;1.3509;
402.3000;0.5397;1.3586;
402.6000;0.5389;1.3612;
402.9000;0.5389;1.3664;
403.2000;0.5389;1.3690;
403.5000;0.5405;1.3664;
403.8000;0.5405;1.3638;
404.1000;0.5397;1.3586;
404.4000;0.5381;1.3535;
404.7000;0.5405;1.3560;
405.0000;0.5405;1.3535;
405.3000;0.5397;1.3586;
405.6000;0.5446;1.3690;
405.9000;0.5397;1.3560;
406.2000;0.5389;1.3509;
406.5000;0.5413;1.3535;
406.8000;0.5405;1.3586;
407.1000;0.5397;1.3535;
407.4000;0.5372;1.3457;
407.7000;0.5405;1.3509;
408.0000;0.5397;1.3405;
408.3000;0.5413;1.3483;
408.6000;0.5413;1.3535;
408.9000;0.5413;1.3560;
409.2000;0.5405;1.3560;
409.5000;0.5405;1.3638;
409.8000;0.5413;1.3586;
410.1000;0.5405;1.3483;
410.4000;0.5397;1.3457;
410.7000;0.5405;1.3431;
411.0000;0.5405;1.3457;
411.3000;0.5405;1.3431;
411.6000;0.5413;1.3483;
411.9000;0.5405;1.3353;
412.2000;0.5397;1.3379;
412.5000;0.5413;1.3405;
412.8000;0.5372;1.3353;
413.1000;0.5381;1.3483;
413.4000;0.5389;1.3457;
413.7000;0.5397;1.3457;
414.0000;0.5405;1.3431;
414.3000;0.5397;1.3405;
414.6000;0.5462;1.3638;
414.9000;0.5413;1.3535;
415.2000;0.5405;1.3535;
415.5000;0.5364;1.3353;
415.8000;0.5389;1.3405;
416.1000;0.5397;1.3379;
416.4000;0.5381;1.3353;
416.7000;0.5364;1.3353;
417.0000;0.5405;1.3457;
417.3000;0.5405;1.3509;
417.6000;0.5429;1.3586;
417.9000;0.5413;1.3560;
418.2000;0.5405;1.3457;
418.5000;0.5405;1.3535;
418.8000;0.5421;1.3586;
419.1000;0.5405;1.3586;
419.4000;0.5397;1.3560;
419.7000;0.5372;1.3535;
420.0000;0.5421;1.3586;
420.3000;0.5421;1.3612;
420.6000;0.5429;1.3612;
420.9000;0.5397;1.3483;
421.2000;0.5405;1.3509;
421.5000;0.5413;1.3535;
421.8000;0.5405;1.3509;
422.1000;0.5397;1.3535;
422.4000;0.5397;1.3612;
422.7000;0.5413;1.3716;
423.0000;0.5389;1.3716;
423.3000;0.5397;1.3768;
423.6000;0.5381;1.3690;
423.9000;0.5397;1.3664;
424.2000;0.5405;1.3586;
424.5000;0.5470;1.3664;
424.8000;0.5405;1.3483;
425.1000;0.5413;1.3509;
425.4000;0.5413;1.3457;
425.7000;0.5348;1.3353;
426.0000;0.5389;1.3457;
426.3000;0.5405;1.3509;
426.6000;0.5397;1.3509;
426.9000;0.5381;1.3509;
427.2000;0.5381;1.3560;
427.5000;0.5389;1.3560;
427.8000;0.5397;1.3535;
428.1000;0.5397;1.3509;
428.4000;0.5381;1.3560;
428.7000;0.5356;1.3560;
429.0000;0.5389;1.3612;
429.3000;0.5397;1.3612;
429.6000;0.5389;1.3638;
429.9000;0.5397;1.3638;
430.2000;0.5405;1.3612;
430.5000;0.5389;1.3586;
430.8000;0.5372;1.3457;
431.1000;0.5405;1.3483;
431.4000;0.5405;1.3509;
431.7000;0.5381;1.3405;
432.0000;0.5381;1.3405;
432.3000;0.5381;1.3431;
432.6000;0.5381;1.3457;
432.9000;0.5397;1.3457;
433.2000;0.5405;1.3431;
433.5000;0.5389;1.3379;
433.8000;0.5397;1.3379;
434.1000;0.5413;1.3483;
434.4000;0.5421;1.3483;
434.7000;0.5446;1.3457;
435.0000;0.5372;1.3301;
435.3000;0.5397;1.3379;
435.6000;0.5389;1.3457;
435.9000;0.5389;1.3586;
436.2000;0.5389;1.3638;
436.5000;0.5405;1.3742;
436.8000;0.5381;1.3638;
437.1000;0.5397;1.3664;
437.4000;0.5503;1.3872;
437.7000;0.5348;1.3483;
438.0000;0.5372;1.3612;
438.3000;0.5389;1.3690;
438.6000;0.5389;1.3586;
438.9000;0.5397;1.3612;
439.2000;0.5299;1.3379;
439.5000;0.5397;1.3716;
439.8000;0.5381;1.3664;
440.1000;0.5397;1.3560;
440.4000;0.5389;1.3664;
440.7000;0.5405;1.3638;
441.0000;0.5462;1.3768;
441.3000;0.5405;1.3586;
441.6000;0.5381;1.3560;
441.9000;0.5372;1.3560;
442.2000;0.5381;1.3638;
442.5000;0.5372;1.3535;
442.8000;0.5372;1.3535;
443.1000;0.5324;1.3457;
443.4000;0.5381;1.3638;
443.7000;0.5381;1.3690;
444.0000;0.5389;1.3742;
444.3000;0.5381;1.3690;
444.6000;0.5389;1.3664;
444.9000;0.5389;1.3716;
445.2000;0.5389;1.3690;
445.5000;0.5389;1.3638;
445.8000;0.5397;1.3612;
446.1000;0.5405;1.3560;
446.4000;0.5381;1.3560;
446.7000;0.5397;1.3638;
447.0000;0.5389;1.3612;
447.3000;0.5389;1.3612;
447.6000;0.5364;1.3431;
447.9000;0.5389;1.3535;
448.2000;0.5381;1.3535;
448.5000;0.5381;1.3509;
448.8000;0.5389;1.3509;
449.1000;0.5413;1.3664;
449.4000;0.5397;1.3664;
449.7000;0.5381;1.3612;
450.0000;0.5381;1.3690;
450.3000;0.5364;1.3664;
450.6000;0.5299;1.3483;
450.9000;0.5381;1.3716;
451.2000;0.5478;1.4027;
451.5000;0.5397;1.3768;
451.8000;0.5429;1.3923;
452.1000;0.5389;1.3768;
452.4000;0.5381;1.3820;
452.7000;0.5389;1.3820;
453.0000;0.5389;1.3742;
453.3000;0.5389;1.3742;
453.6000;0.5389;1.3638;
453.9000;0.5364;1.3612;
454.2000;0.5397;1.3716;
454.5000;0.5389;1.3716;
454.8000;0.5397;1.3820;
455.1000;0.5389;1.3768;
455.4000;0.5421;1.3742;
455.7000;0.5389;1.3690;
456.0000;0.5356;1.3535;
456.3000;0.5405;1.3664;
456.6000;0.5372;1.3535;
456.9000;0.5389;1.3509;
457.2000;0.5421;1.3586;
457.5000;0.5364;1.3483;
457.8000;0.5356;1.3431;
458.1000;0.5405;1.3457;
458.4000;0.5315;1.3275;
458.7000;0.5381;1.3457;
459.0000;0.5397;1.3509;
459.3000;0.5381;1.3483;
459.6000;0.5438;1.3690;
459.9000;0.5381;1.3483;
460.2000;0.5389;1.3483;
460.5000;0.5381;1.3405;
460.8000;0.5454;1.3638;
461.1000;0.5405;1.3457;
461.4000;0.5421;1.3483;
461.7000;0.5397;1.3431;
462.0000;0.5299;1.3172;
462.3000;0.5389;1.3509;
462.6000;0.5405;1.3535;
462.9000;0.5356;1.3379;
463.2000;0.5405;1.3509;
463.5000;0.5405;1.3509;
463.8000;0.5364;1.3457;
464.1000;0.5332;1.3379;
464.4000;0.5397;1.3509;
464.7000;0.5381;1.3483;
465.0000;0.5381;1.3483;
465.3000;0.5389;1.3535;
465.6000;0.5397;1.3586;
465.9000;0.5381;1.3535;
466.2000;0.5438;1.3716;
466.5000;0.5372;1.3560;
466.8000;0.5389;1.3664;
467.1000;0.5356;1.3716;
467.4000;0.5381;1.3716;
467.7000;0.5381;1.3768;
468.0000;0.5348;1.3768;
468.3000;0.5421;1.3872;
468.6000;0.5372;1.3742;
468.9000;0.5421;1.3846;
469.2000;0.5364;1.3690;
469.5000;0.5381;1.3612;
469.8000;0.5364;1.3638;
470.1000;0.5364;1.3612;
470.4000;0.5372;1.3612;
470.7000;0.5356;1.3560;
471.0000;0.5389;1.3638;
471.3000;0.5389;1.3690;
471.6000;0.5364;1.3638;
471.9000;0.5364;1.3664;
472.2000;0.5364;1.3690;
472.5000;0.5372;1.3768;
472.8000;0.5364;1.3716;
473.1000;0.5397;1.3820;
473.4000;0.5283;1.3560;
473.7000;0.5372;1.3846;
474.0000;0.5364;1.3794;
474.3000;0.5356;1.3768;
474.6000;0.5364;1.3794;
474.9000;0.5381;1.3820;
475.2000;0.5364;1.3768;
475.5000;0.5372;1.3742;
475.8000;0.5364;1.3794;
476.1000;0.5381;1.3742;
476.4000;0.5372;1.3794;
476.7000;0.5397;1.3742;
477.0000;0.5348;1.3664;
477.3000;0.5413;1.3820;
477.6000;0.5372;1.3690;
477.9000;0.5381;1.3742;
478.2000;0.5372;1.3768;
478.5000;0.5348;1.3768;
478.8000;0.5372;1.3768;
479.1000;0.5332;1.3664;
479.4000;0.5372;1.3820;
479.7000;0.5364;1.3716;
480.0000;0.5372;1.3794;
480.3000;0.5372;1.3794;
480.6000;0.5389;1.3846;
480.9000;0.5381;1.3872;
481.2000;0.5381;1.4001;
481.5000;0.5364;1.3949;
481.8000;0.5348;1.3923;
482.1000;0.5364;1.3949;
482.4000;0.5356;1.3898;
482.7000;0.5348;1.3846;
483.0000;0.5356;1.3846;
483.3000;0.5364;1.3820;
483.6000;0.5438;1.4001;
483.9000;0.5381;1.3794;
484.2000;0.5372;1.3638;
484.5000;0.5372;1.3768;
484.8000;0.5372;1.3768;
485.1000;0.5381;1.3742;
485.4000;0.5372;1.3716;
485.7000;0.5356;1.3586;
486.0000;0.5438;1.3898;
486.3000;0.5381;1.3690;
486.6000;0.5364;1.3690;
486.9000;0.5356;1.3716;
487.2000;0.5381;1.3768;
487.5000;0.5372;1.3716;
487.8000;0.5340;1.3690;
488.1000;0.5372;1.3690;
488.4000;0.5381;1.3612;
488.7000;0.5372;1.3664;
489.0000;0.5389;1.3768;
489.3000;0.5381;1.3664;
489.6000;0.5372;1.3690;
489.9000;0.5397;1.3794;
490.2000;0.5372;1.3742;
490.5000;0.5372;1.3716;
490.8000;0.5356;1.3742;
491.1000;0.5364;1.3690;
491.4000;0.5372;1.3742;
491.7000;0.5356;1.3768;
492.0000;0.5372;1.3794;
492.3000;0.5364;1.3768;
492.6000;0.5364;1.3768;
492.9000;0.5356;1.3716;
493.2000;0.5364;1.3794;
493.5000;0.5364;1.3820;
493.8000;0.5397;1.3794;
494.1000;0.5413;1.3872;
494.4000;0.5381;1.3716;
494.7000;0.5372;1.3768;
495.0000;0.5364;1.3820;
495.3000;0.5389;1.3820;
495.6000;0.5389;1.3768;
495.9000;0.5389;1.3742;
496.2000;0.5381;1.3768;
496.5000;0.5397;1.3846;
496.8000;0.5381;1.3820;
497.1000;0.5364;1.3846;
497.4000;0.5389;1.3872;
497.7000;0.5372;1.3820;
498.0000;0.5364;1.3690;
498.3000;0.5372;1.3742;
498.6000;0.5364;1.3768;
498.9000;0.5381;1.3820;
499.2000;0.5397;1.3820;
499.5000;0.5315;1.3586;
499.8000;0.5372;1.3716;
500.1000;0.5413;1.3716;
500.4000;0.5372;1.3664;
500.7000;0.5372;1.3690;
501.0000;0.5356;1.3664;
501.3000;0.5364;1.3535;
501.6000;0.5372;1.3535;
501.9000;0.5356;1.3483;
502.2000;0.5356;1.3535;
502.5000;0.5372;1.3612;
502.8000;0.5372;1.3690;
503.1000;0.5438;1.3872;
503.4000;0.5356;1.3612;
503.7000;0.5364;1.3586;
504.0000;0.5356;1.3716;
504.3000;0.5364;1.3690;
504.6000;0.5348;1.3690;
504.9000;0.5372;1.3768;
505.2000;0.5364;1.3638;
505.5000;0.5356;1.3586;
505.8000;0.5381;1.3664;
506.1000;0.5372;1.3638;
506.4000;0.5364;1.3664;
506.7000;0.5381;1.3716;
507.0000;0.5364;1.3794;
507.3000;0.5364;1.3742;
507.6000;0.5364;1.3794;
507.9000;0.5364;1.3794;
508.2000;0.5356;1.3716;
508.5000;0.5364;1.3768;
508.8000;0.5372;1.3794;
509.1000;0.5364;1.3794;
509.4000;0.5356;1.3872;
509.7000;0.5356;1.3664;
510.0000;0.5372;1.3716;
510.3000;0.5364;1.3742;
510.6000;0.5356;1.3872;
510.9000;0.5364;1.3898;
511.2000;0.5356;1.3949;
511.5000;0.5364;1.4001;
511.8000;0.5372;1.4053;
512.1000;0.5348;1.4027;
512.4000;0.5348;1.3898;
512.7000;0.5348;1.3898;
513.0000;0.5348;1.3898;
513.3000;0.5356;1.3923;
513.6000;0.5356;1.3872;
513.9000;0.5356;1.3872;
514.2000;0.5364;1.3872;
514.5000;0.5364;1.3872;
514.8000;0.5348;1.3898;
515.1000;0.5364;1.3975;
515.4000;0.5332;1.3872;
515.7000;0.5356;1.3923;
516.0000;0.5364;1.4027;
516.3000;0.5348;1.4027;
516.6000;0.5356;1.4001;
516.9000;0.5381;1.4027;
517.2000;0.5364;1.3923;
517.5000;0.5348;1.3872;
517.8000;0.5372;1.3923;
518.1000;0.5364;1.3846;
518.4000;0.5356;1.3872;
518.7000;0.5348;1.3872;
519.0000;0.5364;1.3794;
519.3000;0.5372;1.3768;
519.6000;0.5372;1.3742;
519.9000;0.5364;1.3690;
520.2000;0.5364;1.3742;
520.5000;0.5364;1.3716;
520.8000;0.5364;1.3794;
521.1000;0.5356;1.3716;
521.4000;0.5372;1.3690;
521.7000;0.5364;1.3820;
522.0000;0.5372;1.3898;
522.3000;0.5372;1.3923;
522.6000;0.5372;1.3898;
522.9000;0.5372;1.3975;
523.2000;0.5372;1.4053;
523.5000;0.5364;1.3975;
523.8000;0.5381;1.3949;
524.1000;0.5364;1.3975;
524.4000;0.5372;1.4053;
524.7000;0.5372;1.4053;
525.0000;0.5340;1.4027;
525.3000;0.5291;1.3898;
525.6000;0.5372;1.4079;
525.9000;0.5364;1.4001;
526.2000;0.5356;1.4001;
526.5000;0.5356;1.4053;
526.8000;0.5356;1.4183;
527.1000;0.5364;1.4157;
527.4000;0.5364;1.4027;
527.7000;0.5348;1.4027;
528.0000;0.5372;1.4079;
528.3000;0.5356;1.4105;
528.6000;0.5364;1.3949;
528.9000;0.5348;1.3846;
529.2000;0.5372;1.3820;
529.5000;0.5364;1.3846;
529.8000;0.5364;1.3898;
530.1000;0.5356;1.3846;
530.4000;0.5364;1.3923;
530.7000;0.5364;1.4027;
531.0000;0.5364;1.3975;
531.3000;0.5356;1.3975;
531.6000;0.5356;1.3949;
531.9000;0.5356;1.3975;
532.2000;0.5348;1.3898;
532.5000;0.5348;1.3846;
532.8000;0.5364;1.3898;
533.1000;0.5356;1.3898;
533.4000;0.5356;1.3898;
533.7000;0.5372;1.3872;
534.0000;0.5356;1.3872;
534.3000;0.5372;1.3872;
534.6000;0.5364;1.3898;
534.9000;0.5364;1.3872;
535.2000;0.5364;1.3846;
535.5000;0.5356;1.3923;
535.8000;0.5372;1.4105;
536.1000;0.5356;1.4027;
536.4000;0.5356;1.4105;
536.7000;0.5372;1.4053;
537.0000;0.5356;1.4027;
537.3000;0.5356;1.3949;
537.6000;0.5340;1.3975;
537.9000;0.5332;1.3975;
538.2000;0.5340;1.4053;
538.5000;0.5356;1.4053;
538.8000;0.5356;1.4027;
539.1000;0.5372;1.3975;
539.4000;0.5356;1.3975;
539.7000;0.5340;1.3975;
540.0000;0.5340;1.3898;
540.3000;0.5348;1.3949;
540.6000;0.5356;1.3949;
540.9000;0.5364;1.3898;
541.2000;0.5356;1.3846;
541.5000;0.5389;1.3923;
541.8000;0.5340;1.3768;
542.1000;0.5348;1.3820;
542.4000;0.5356;1.3768;
542.7000;0.5324;1.3664;
543.0000;0.5356;1.3794;
543.3000;0.5356;1.3898;
543.6000;0.5356;1.3820;
543.9000;0.5340;1.3664;
544.2000;0.5372;1.3742;
544.5000;0.5356;1.3716;
544.8000;0.5372;1.3742;
545.1000;0.5356;1.3820;
545.4000;0.5397;1.3975;
545.7000;0.5299;1.3794;
546.0000;0.5364;1.3872;
546.3000;0.5364;1.3872;
546.6000;0.5348;1.3872;
546.9000;0.5348;1.3923;
547.2000;0.5356;1.4027;
547.5000;0.5348;1.4079;
547.8000;0.5332;1.4001;
548.1000;0.5340;1.4105;
548.4000;0.5340;1.3975;
548.7000;0.5356;1.4027;
549.0000;0.5340;1.3923;
549.3000;0.5332;1.3898;
549.6000;0.5356;1.3872;
549.9000;0.5356;1.3949;
550.2000;0.5324;1.3949;
550.5000;0.5340;1.4001;
550.8000;0.5348;1.4079;
551.1000;0.5413;1.4209;
551.4000;0.5356;1.3975;
551.7000;0.5356;1.3923;
552.0000;0.5340;1.4001;
552.3000;0.5348;1.4053;
552.6000;0.5348;1.4001;
552.9000;0.5348;1.3923;
553.2000;0.5364;1.3872;
553.5000;0.5348;1.3872;
553.8000;0.5340;1.3923;
554.1000;0.5348;1.3846;
554.4000;0.5348;1.3872;
554.7000;0.5356;1.3923;
555.0000;0.5397;1.4027;
555.3000;0.5364;1.3898;
555.6000;0.5340;1.3820;
555.9000;0.5348;1.3846;
556.2000;0.5389;1.3975;
556.5000;0.5356;1.3898;
556.8000;0.5340;1.3846;
557.1000;0.5283;1.3664;
557.4000;0.5356;1.3820;
557.7000;0.5340;1.3846;
558.0000;0.5356;1.3949;
558.3000;0.5356;1.3949;
558.6000;0.5356;1.3923;
558.9000;0.5340;1.3846;
559.2000;0.5340;1.3820;
559.5000;0.5340;1.3768;
559.8000;0.5356;1.3768;
560.1000;0.5364;1.3872;
560.4000;0.5364;1.3872;
560.7000;0.5291;1.3742;
561.0000;0.5372;1.3949;
561.3000;0.5405;1.4027;
561.6000;0.5356;1.3846;
561.9000;0.5356;1.3846;
562.2000;0.5332;1.3820;
562.5000;0.5356;1.3898;
562.8000;0.5348;1.3768;
563.1000;0.5340;1.3820;
563.4000;0.5283;1.3690;
563.7000;0.5356;1.3846;
564.0000;0.5324;1.3794;
564.3000;0.5332;1.3794;
564.6000;0.5340;1.3846;
564.9000;0.5356;1.3872;
565.2000;0.5356;1.3716;
565.5000;0.5397;1.3923;
565.8000;0.5348;1.3846;
566.1000;0.5340;1.3898;
566.4000;0.5348;1.4053;
566.7000;0.5340;1.4053;
567.0000;0.5348;1.4001;
567.3000;0.5356;1.4001;
567.6000;0.5364;1.3975;
567.9000;0.5332;1.3923;
568.2000;0.5340;1.4001;
568.5000;0.5348;1.4053;
568.8000;0.5332;1.3975;
569.1000;0.5340;1.3898;
569.4000;0.5364;1.3898;
569.7000;0.5348;1.3820;
570.0000;0.5348;1.3794;
570.3000;0.5348;1.3846;
570.6000;0.5389;1.3975;
570.9000;0.5348;1.3898;
571.2000;0.5372;1.4001;
571.5000;0.5340;1.3975;
571.8000;0.5340;1.3975;
572.1000;0.5356;1.3975;
572.4000;0.5348;1.4001;
572.7000;0.5348;1.4001;
573.0000;0.5340;1.3898;
573.3000;0.5332;1.3975;
573.6000;0.5340;1.3923;
573.9000;0.5340;1.3923;
574.2000;0.5291;1.3794;
574.5000;0.5356;1.4001;
574.8000;0.5340;1.3975;
575.1000;0.5348;1.3975;
575.4000;0.5348;1.4001;
575.7000;0.5340;1.3975;
576.0000;0.5340;1.3949;
576.3000;0.5356;1.4001;
576.6000;0.5356;1.3949;
576.9000;0.5324;1.3846;
577.2000;0.5356;1.3923;
577.5000;0.5340;1.3898;
577.8000;0.5397;1.4001;
578.1000;0.5340;1.3872;
578.4000;0.5332;1.3820;
578.7000;0.5356;1.3923;
579.0000;0.5356;1.3975;
579.3000;0.5340;1.3898;
579.6000;0.5356;1.3923;
579.9000;0.5340;1.3923;
580.2000;0.5348;1.3949;
580.5000;0.5348;1.3949;
580.8000;0.5348;1.4027;
581.1000;0.5340;1.3975;
581.4000;0.5364;1.3949;
581.7000;0.5348;1.3949;
582.0000;0.5324;1.3898;
582.3000;0.5324;1.3898;
582.6000;0.5372;1.3975;
582.9000;0.5348;1.3949;
583.2000;0.5340;1.3846;
583.5000;0.5348;1.3794;
583.8000;0.5364;1.3846;
584.1000;0.5348;1.3742;
584.4000;0.5364;1.3768;
584.7000;0.5364;1.3794;
585.0000;0.5324;1.3664;
585.3000;0.5307;1.3716;
585.6000;0.5348;1.3923;
585.9000;0.5332;1.3794;
586.2000;0.5324;1.3846;
586.5000;0.5332;1.3872;
586.8000;0.5332;1.3846;
587.1000;0.5348;1.3846;
587.4000;0.5340;1.3846;
587.7000;0.5340;1.3820;
588.0000;0.5356;1.3872;
588.3000;0.5340;1.3794;
588.6000;0.5356;1.3794;
588.9000;0.5348;1.3820;
589.2000;0.5348;1.3846;
589.5000;0.5348;1.3846;
589.8000;0.5364;1.3949;
590.1000;0.5340;1.3949;
590.4000;0.5348;1.4001;
590.7000;0.5348;1.4001;
591.0000;0.5340;1.3923;
591.3000;0.5332;1.3898;
591.6000;0.5356;1.3949;
591.9000;0.5348;1.4001;
592.2000;0.5324;1.3949;
592.5000;0.5324;1.3872;
592.8000;0.5348;1.3898;
593.1000;0.5356;1.3846;
593.4000;0.5332;1.3846;
593.7000;0.5340;1.3898;
594.0000;0.5348;1.3975;
594.3000;0.5356;1.4001;
594.6000;0.5340;1.3923;
594.9000;0.5340;1.4001;
595.2000;0.5275;1.3949;
595.5000;0.5340;1.4131;
595.8000;0.5340;1.4105;
596.1000;0.5340;1.4079;
596.4000;0.5340;1.4053;
596.7000;0.5340;1.4105;
597.0000;0.5340;1.4131;
597.3000;0.5332;1.4183;
597.6000;0.5340;1.4131;
597.9000;0.5332;1.4157;
598.2000;0.5332;1.4209;
598.5000;0.5332;1.4053;
598.8000;0.5324;1.4001;
599.1000;0.5324;1.4079;
599.4000;0.5348;1.4079;
599.7000;0.5348;1.3949;
600.0000;0.5348;1.3794;
600.3000;0.5348;1.3612;
600.6000;0.5324;1.3379;
600.9000;0.5242;1.3042;
601.2000;0.5185;1.2783;
601.5000;0.5096;1.2497;
601.8000;0.5031;1.2290;
602.1000;0.4949;1.1979;
602.4000;0.4868;1.1746;
602.7000;0.4827;1.1538;
603.0000;0.4762;1.1279;
603.3000;0.4713;1.1071;
603.6000;0.4656;1.0864;
603.9000;0.4607;1.0682;
604.2000;0.4575;1.0553;
604.5000;0.4526;1.0397;
604.8000;0.4534;1.0268;
605.1000;0.4469;1.0086;
605.4000;0.4436;0.9982;
605.7000;0.4412;0.9956;
606.0000;0.4347;0.9697;
606.3000;0.4257;0.9360;
606.6000;0.4330;0.9542;
606.9000;0.4322;0.9360;
607.2000;0.4290;0.9179;
607.5000;0.4274;0.9101;
607.8000;0.4322;0.9386;
608.1000;0.4233;0.9205;
608.4000;0.4306;0.9490;
608.7000;0.4200;0.9230;
609.0000;0.4184;0.9153;
609.3000;0.4176;0.9101;
609.6000;0.4168;0.9101;
609.9000;0.4151;0.9101;
610.2000;0.4143;0.9101;
610.5000;0.4143;0.9101;
610.8000;0.4119;0.9075;
611.1000;0.4111;0.9101;
611.4000;0.4086;0.9023;
611.7000;0.4094;0.8997;
612.0000;0.4094;0.8971;
612.3000;0.4070;0.8919;
612.6000;0.4054;0.8971;
612.9000;0.4054;0.8997;
613.2000;0.4046;0.8945;
613.5000;0.4054;0.8842;
613.8000;0.4021;0.8686;
614.1000;0.4021;0.8660;
614.4000;0.4029;0.8686;
614.7000;0.4021;0.8686;
615.0000;0.4005;0.8712;
615.3000;0.3899;0.8530;
615.6000;0.3997;0.8945;
615.9000;0.4029;0.9127;
616.2000;0.4005;0.9049;
616.5000;0.3980;0.8971;
616.8000;0.3989;0.8945;
617.1000;0.3989;0.8842;
617.4000;0.3972;0.8790;
617.7000;0.3972;0.8893;
618.0000;0.3964;0.8738;
618.3000;0.3956;0.8738;
618.6000;0.3940;0.8816;
618.9000;0.3923;0.8738;
619.2000;0.3875;0.8556;
619.5000;0.3940;0.8686;
619.8000;0.3940;0.8660;
620.1000;0.3923;0.8686;
620.4000;0.3915;0.8634;
620.7000;0.3907;0.8530;
621.0000;0.3932;0.8556;
621.3000;0.3932;0.8479;
621.6000;0.3899;0.8453;
621.9000;0.3899;0.8479;
622.2000;0.3834;0.8375;
622.5000;0.3899;0.8582;
622.8000;0.3899;0.8608;
623.1000;0.3891;0.8556;
623.4000;0.3923;0.8608;
623.7000;0.3899;0.8634;
624.0000;0.3899;0.8582;
624.3000;0.3891;0.8556;
624.6000;0.3858;0.8453;
624.9000;0.3883;0.8634;
625.2000;0.3891;0.8660;
625.5000;0.3875;0.8738;
625.8000;0.3875;0.8764;
626.1000;0.3883;0.8790;
626.4000;0.3858;0.8738;
626.7000;0.3867;0.8634;
627.0000;0.3867;0.8582;
627.3000;0.3842;0.8556;
627.6000;0.3867;0.8634;
627.9000;0.3867;0.8660;
628.2000;0.3858;0.8556;
628.5000;0.3858;0.8608;
628.8000;0.3858;0.8582;
629.1000;0.3842;0.8479;
629.4000;0.3850;0.8504;
629.7000;0.3801;0.8375;
630.0000;0.3826;0.8530;
630.3000;0.3850;0.8582;
630.6000;0.3842;0.8660;
630.9000;0.3842;0.8686;
631.2000;0.3842;0.8712;
631.5000;0.3826;0.8712;
631.8000;0.3834;0.8738;
632.1000;0.3850;0.8738;
632.4000;0.3826;0.8608;
632.7000;0.3810;0.8634;
633.0000;0.3826;0.8712;
633.3000;0.3834;0.8634;
633.6000;0.3818;0.8634;
633.9000;0.3867;0.8660;
634.2000;0.3826;0.8634;
634.5000;0.3801;0.8582;
634.8000;0.3826;0.8686;
635.1000;0.3834;0.8582;
635.4000;0.3801;0.8582;
635.7000;0.3818;0.8582;
636.0000;0.3842;0.8634;
636.3000;0.3801;0.8608;
636.6000;0.3793;0.8556;
636.9000;0.3801;0.8556;
637.2000;0.3801;0.8504;
637.5000;0.3810;0.8530;
637.8000;0.3793;0.8530;
638.1000;0.3842;0.8764;
638.4000;0.3793;0.8556;
638.7000;0.3793;0.8660;
639.0000;0.3793;0.8634;
639.3000;0.3769;0.8582;
639.6000;0.3793;0.8738;
639.9000;0.3785;0.8738;
640.2000;0.3793;0.8686;
640.5000;0.3793;0.8712;
640.8000;0.3777;0.8634;
641.1000;0.3769;0.8556;
641.4000;0.3761;0.8530;
641.7000;0.3753;0.8479;
642.0000;0.3777;0.8479;
642.3000;0.3761;0.8479;
642.6000;0.3769;0.8556;
642.9000;0.3761;0.8608;
643.2000;0.3753;0.8530;
643.5000;0.3761;0.8556;
643.8000;0.3769;0.8582;
644.1000;0.3761;0.8582;
644.4000;0.3753;0.8530;
644.7000;0.3769;0.8504;
645.0000;0.3769;0.8530;
645.3000;0.3736;0.8323;
645.6000;0.3769;0.8401;
645.9000;0.3769;0.8427;
646.2000;0.3761;0.8504;
646.5000;0.3753;0.8530;
646.8000;0.3753;0.8556;
647.1000;0.3736;0.8556;
647.4000;0.3753;0.8634;
647.7000;0.3744;0.8608;
648.0000;0.3761;0.8556;
648.3000;0.3753;0.8504;
648.6000;0.3736;0.8479;
648.9000;0.3761;0.8582;
649.2000;0.3753;0.8504;
649.5000;0.3728;0.8453;
649.8000;0.3753;0.8504;
650.1000;0.3744;0.8530;
650.4000;0.3761;0.8634;
650.7000;0.3753;0.8686;
651.0000;0.3744;0.8686;
651.3000;0.3744;0.8738;
651.6000;0.3769;0.8867;
651.9000;0.3720;0.8634;
652.2000;0.3728;0.8556;
652.5000;0.3744;0.8582;
652.8000;0.3744;0.8634;
653.1000;0.3728;0.8608;
653.4000;0.3728;0.8608;
653.7000;0.3720;0.8634;
654.0000;0.3720;0.8530;
654.3000;0.3720;0.8530;
654.6000;0.3712;0.8556;
654.9000;0.3712;0.8660;
655.2000;0.3736;0.8634;
655.5000;0.3761;0.8712;
655.8000;0.3736;0.8556;
656.1000;0.3728;0.8582;
656.4000;0.3728;0.8634;
656.7000;0.3736;0.8608;
657.0000;0.3720;0.8582;
657.3000;0.3777;0.8660;
657.6000;0.3712;0.8608;
657.9000;0.3712;0.8530;
658.2000;0.3712;0.8556;
658.5000;0.3712;0.8479;
658.8000;0.3704;0.8582;
659.1000;0.3720;0.8686;
659.4000;0.3712;0.8556;
659.7000;0.3712;0.8479;
660.0000;0.3736;0.8556;
660.3000;0.3696;0.8556;
660.6000;0.3736;0.8712;
660.9000;0.3712;0.8634;
661.2000;0.3712;0.8686;
661.5000;0.3712;0.8634;
661.8000;0.3712;0.8712;
662.1000;0.3712;0.8764;
662.4000;0.3663;0.8660;
662.7000;0.3704;0.8712;
663.0000;0.3704;0.8712;
663.3000;0.3687;0.8556;
663.6000;0.3679;0.8556;
663.9000;0.3687;0.8608;
664.2000;0.3704;0.8660;
664.5000;0.3687;0.8660;
664.8000;0.3679;0.8556;
665.1000;0.3671;0.8479;
665.4000;0.3696;0.8453;
665.7000;0.3696;0.8401;
666.0000;0.3696;0.8349;
666.3000;0.3696;0.8323;
666.6000;0.3679;0.8323;
666.9000;0.3704;0.8349;
667.2000;0.3679;0.8349;
667.5000;0.3663;0.8401;
667.8000;0.3687;0.8453;
668.1000;0.3679;0.8427;
668.4000;0.3687;0.8479;
668.7000;0.3687;0.8504;
669.0000;0.3679;0.8530;
669.3000;0.3687;0.8530;
669.6000;0.3687;0.8556;
669.9000;0.3671;0.8479;
670.2000;0.3671;0.8479;
670.5000;0.3696;0.8556;
670.8000;0.3687;0.8556;
671.1000;0.3679;0.8582;
671.4000;0.3687;0.8608;
671.7000;0.3655;0.8608;
672.0000;0.3671;0.8479;
672.3000;0.3622;0.8349;
672.6000;0.3687;0.8401;
672.9000;0.3679;0.8375;
673.2000;0.3679;0.8453;
673.5000;0.3679;0.8479;
673.8000;0.3679;0.8401;
674.1000;0.3687;0.8556;
674.4000;0.3663;0.8479;
674.7000;0.3744;0.8842;
675.0000;0.3687;0.8660;
675.3000;0.3679;0.8660;
675.6000;0.3687;0.8712;
675.9000;0.3671;0.8660;
676.2000;0.3679;0.8582;
676.5000;0.3720;0.8738;
676.8000;0.3712;0.8764;
677.1000;0.3720;0.8686;
677.4000;0.3728;0.8738;
677.7000;0.3663;0.8634;
678.0000;0.3639;0.8582;
678.3000;0.3655;0.8556;
678.6000;0.3696;0.8608;
678.9000;0.3639;0.8453;
679.2000;0.3655;0.8479;
679.5000;0.3647;0.8453;
679.8000;0.3663;0.8427;
680.1000;0.3671;0.8504;
680.4000;0.3663;0.8530;
680.7000;0.3671;0.8582;
681.0000;0.3671;0.8530;
681.3000;0.3720;0.8686;
681.6000;0.3655;0.8453;
681.9000;0.3655;0.8479;
682.2000;0.3647;0.8479;
682.5000;0.3655;0.8530;
682.8000;0.3655;0.8582;
683.1000;0.3663;0.8608;
683.4000;0.3663;0.8608;
683.7000;0.3663;0.8582;
684.0000;0.3663;0.8556;
684.3000;0.3679;0.8582;
684.6000;0.3639;0.8479;
684.9000;0.3655;0.8530;
685.2000;0.3663;0.8556;
685.5000;0.3671;0.8556;
685.8000;0.3655;0.8582;
686.1000;0.3655;0.8608;
686.4000;0.3663;0.8712;
686.7000;0.3728;0.8945;
687.0000;0.3639;0.8660;
687.3000;0.3639;0.8738;
687.6000;0.3647;0.8712;
687.9000;0.3647;0.8738;
688.2000;0.3720;0.8997;
688.5000;0.3663;0.8816;
688.8000;0.3639;0.8686;
689.1000;0.3614;0.8660;
689.4000;0.3647;0.8764;
689.7000;0.3639;0.8790;
690.0000;0.3639;0.8790;
690.3000;0.3622;0.8712;
690.6000;0.3639;0.8660;
690.9000;0.3639;0.8634;
691.2000;0.3630;0.8634;
691.5000;0.3606;0.8660;
691.8000;0.3639;0.8686;
692.1000;0.3696;0.8816;
692.4000;0.3630;0.8634;
692.7000;0.3622;0.8686;
693.0000;0.3622;0.8764;
693.3000;0.3647;0.8764;
693.6000;0.3647;0.8790;
693.9000;0.3639;0.8867;
694.2000;0.3598;0.8764;
694.5000;0.3639;0.8919;
694.8000;0.3639;0.8919;
695.1000;0.3630;0.8816;
695.4000;0.3630;0.8712;
695.7000;0.3630;0.8686;
696.0000;0.3647;0.8764;
696.3000;0.3655;0.8764;
696.6000;0.3630;0.8660;
696.9000;0.3639;0.8634;
697.2000;0.3647;0.8660;
697.5000;0.3647;0.8712;
697.8000;0.3630;0.8634;
698.1000;0.3630;0.8686;
698.4000;0.3630;0.8764;
698.7000;0.3622;0.8686;
699.0000;0.3606;0.8608;
699.3000;0.3622;0.8582;
699.6000;0.3663;0.8686;
699.9000;0.3639;0.8608;
700.2000;0.3622;0.8556;
700.5000;0.3614;0.8608;
700.8000;0.3622;0.8660;
701.1000;0.3622;0.8738;
701.4000;0.3606;0.8582;
701.7000;0.3630;0.8660;
702.0000;0.3614;0.8660;
702.3000;0.3630;0.8712;
702.6000;0.3606;0.8660;
702.9000;0.3508;0.8479;
703.2000;0.3622;0.8712;
703.5000;0.3614;0.8712;
703.8000;0.3606;0.8686;
704.1000;0.3590;0.8686;
704.4000;0.3598;0.8712;
704.7000;0.3606;0.8764;
705.0000;0.3606;0.8686;
705.3000;0.3606;0.8686;
705.6000;0.3590;0.8686;
705.9000;0.3606;0.8738;
706.2000;0.3614;0.8790;
706.5000;0.3606;0.8712;
706.8000;0.3606;0.8738;
707.1000;0.3614;0.8738;
707.4000;0.3614;0.8764;
707.7000;0.3598;0.8634;
708.0000;0.3614;0.8660;
708.3000;0.3598;0.8660;
708.6000;0.3614;0.8712;
708.9000;0.3598;0.8738;
709.2000;0.3598;0.8738;
709.5000;0.3598;0.8738;
709.8000;0.3598;0.8712;
710.1000;0.3598;0.8686;
710.4000;0.3606;0.8608;
710.7000;0.3606;0.8686;
711.0000;0.3606;0.8712;
711.3000;0.3606;0.8712;
711.6000;0.3606;0.8738;
711.9000;0.3590;0.8738;
712.2000;0.3598;0.8738;
712.5000;0.3598;0.8660;
712.8000;0.3573;0.8504;
713.1000;0.3614;0.8764;
713.4000;0.3590;0.8764;
713.7000;0.3614;0.8816;
714.0000;0.3639;0.8919;
714.3000;0.3598;0.8816;
714.6000;0.3590;0.8764;
714.9000;0.3606;0.8790;
715.2000;0.3622;0.8842;
715.5000;0.3598;0.8660;
715.8000;0.3598;0.8608;
716.1000;0.3606;0.8660;
716.4000;0.3557;0.8530;
716.7000;0.3565;0.8582;
717.0000;0.3582;0.8582;
717.3000;0.3598;0.8608;
717.6000;0.3598;0.8634;
717.9000;0.3573;0.8582;
718.2000;0.3582;0.8634;
718.5000;0.3582;0.8686;
718.8000;0.3582;0.8816;
719.1000;0.3582;0.8816;
719.4000;0.3565;0.8712;
719.7000;0.3639;0.8816;
720.0000;0.3606;0.8816;
720.3000;0.3582;0.8712;
720.6000;0.3573;0.8712;
720.9000;0.3573;0.8712;
721.2000;0.3598;0.8764;
721.5000;0.3590;0.8867;
721.8000;0.3582;0.8867;
722.1000;0.3582;0.8842;
722.4000;0.3573;0.8893;
722.7000;0.3590;0.8945;
723.0000;0.3598;0.8945;
723.3000;0.3582;0.8842;
723.6000;0.3606;0.8919;
723.9000;0.3492;0.8634;
724.2000;0.3565;0.8867;
724.5000;0.3565;0.8816;
724.8000;0.3590;0.8712;
725.1000;0.3614;0.8712;
725.4000;0.3590;0.8660;
725.7000;0.3565;0.8582;
726.0000;0.3598;0.8582;
726.3000;0.3590;0.8530;
726.6000;0.3590;0.8582;
726.9000;0.3590;0.8608;
727.2000;0.3606;0.8686;
727.5000;0.3598;0.8686;
727.8000;0.3606;0.8686;
728.1000;0.3549;0.8556;
728.4000;0.3533;0.8556;
728.7000;0.3565;0.8634;
729.0000;0.3573;0.8816;
729.3000;0.3582;0.8842;
729.6000;0.3573;0.8842;
729.9000;0.3655;0.8945;
730.2000;0.3590;0.8867;
730.5000;0.3557;0.8842;
730.8000;0.3582;0.8790;
731.1000;0.3606;0.8790;
731.4000;0.3639;0.8919;
731.7000;0.3565;0.8764;
732.0000;0.3630;0.8971;
732.3000;0.3500;0.8556;
732.6000;0.3582;0.8764;
732.9000;0.3630;0.8893;
733.2000;0.3639;0.8919;
733.5000;0.3557;0.8738;
733.8000;0.3573;0.8816;
734.1000;0.3557;0.8867;
734.4000;0.3582;0.8919;
734.7000;0.3573;0.8816;
735.0000;0.3598;0.8945;
735.3000;0.3582;0.8919;
735.6000;0.3565;0.8842;
735.9000;0.3565;0.8764;
736.2000;0.3557;0.8660;
736.5000;0.3582;0.8790;
736.8000;0.3573;0.8738;
737.1000;0.3565;0.8919;
737.4000;0.3492;0.8816;
737.7000;0.3582;0.9049;
738.0000;0.3630;0.9101;
738.3000;0.3573;0.8971;
738.6000;0.3573;0.8867;
738.9000;0.3573;0.8842;
739.2000;0.3557;0.8816;
739.5000;0.3573;0.8816;
739.8000;0.3582;0.8790;
740.1000;0.3630;0.8971;
740.4000;0.3573;0.8842;
740.7000;0.3582;0.8919;
741.0000;0.3573;0.8945;
741.3000;0.3582;0.8971;
741.6000;0.3582;0.9023;
741.9000;0.3565;0.8997;
742.2000;0.3541;0.8867;
742.5000;0.3565;0.8842;
742.8000;0.3565;0.8893;
743.1000;0.3557;0.8867;
743.4000;0.3549;0.8790;
743.7000;0.3541;0.8842;
744.0000;0.3557;0.8842;
744.3000;0.3557;0.8842;
744.6000;0.3557;0.8919;
744.9000;0.3565;0.8893;
745.2000;0.3573;0.8997;
745.5000;0.3565;0.8945;
745.8000;0.3565;0.8945;
746.1000;0.3557;0.8945;
746.4000;0.3549;0.8945;
746.7000;0.3565;0.8945;
747.0000;0.3533;0.8842;
747.3000;0.3549;0.8945;
747.6000;0.3541;0.8893;
747.9000;0.3598;0.9101;
748.2000;0.3557;0.8971;
748.5000;0.3557;0.8971;
748.8000;0.3533;0.8816;
749.1000;0.3557;0.8764;
749.4000;0.3541;0.8712;
749.7000;0.3565;0.8842;
750.0000;0.3549;0.8790;
750.3000;0.3549;0.8867;
750.6000;0.3573;0.8945;
750.9000;0.3565;0.8997;
751.2000;0.3557;0.8971;
751.5000;0.3557;0.8919;
751.8000;0.3565;0.8919;
752.1000;0.3549;0.8893;
752.4000;0.3549;0.8816;
752.7000;0.3557;0.8816;
753.0000;0.3582;0.8919;
753.3000;0.3590;0.8919;
753.6000;0.3557;0.8816;
753.9000;0.3541;0.8738;
754.2000;0.3549;0.8816;
754.5000;0.3614;0.9075;
754.8000;0.3541;0.8945;
755.1000;0.3598;0.9049;
755.4000;0.3516;0.8867;
755.7000;0.3541;0.8945;
756.0000;0.3614;0.9075;
756.3000;0.3606;0.9101;
756.6000;0.3557;0.8919;
756.9000;0.3549;0.8816;
757.2000;0.3557;0.8842;
757.5000;0.3557;0.8945;
757.8000;0.3541;0.8893;
758.1000;0.3549;0.8919;
758.4000;0.3476;0.8712;
758.7000;0.3525;0.8893;
759.0000;0.3533;0.8945;
759.3000;0.3565;0.8997;
759.6000;0.3541;0.8893;
759.9000;0.3533;0.8867;
760.2000;0.3614;0.9049;
760.5000;0.3541;0.8790;
760.8000;0.3557;0.8867;
761.1000;0.3549;0.8816;
761.4000;0.3541;0.8790;
761.7000;0.3541;0.8764;
762.0000;0.3541;0.8893;
762.3000;0.3557;0.8893;
762.6000;0.3549;0.8816;
762.9000;0.3525;0.8738;
763.2000;0.3655;0.9049;
763.5000;0.3549;0.8790;
763.8000;0.3557;0.8867;
764.1000;0.3541;0.8790;
764.4000;0.3557;0.8816;
764.7000;0.3549;0.8816;
765.0000;0.3549;0.8816;
765.3000;0.3492;0.8686;
765.6000;0.3557;0.8867;
765.9000;0.3557;0.8971;
766.2000;0.3541;0.8945;
766.5000;0.3533;0.8790;
766.8000;0.3541;0.8764;
767.1000;0.3533;0.8816;
767.4000;0.3541;0.8919;
767.7000;0.3557;0.8971;
768.0000;0.3533;0.8867;
768.3000;0.3557;0.8867;
768.6000;0.3549;0.8738;
768.9000;0.3541;0.8712;
769.2000;0.3549;0.8842;
769.5000;0.3557;0.8867;
769.8000;0.3549;0.8816;
770.1000;0.3525;0.8816;
770.4000;0.3549;0.8790;
770.7000;0.3582;0.8842;
771.0000;0.3525;0.8686;
771.3000;0.3549;0.8816;
771.6000;0.3541;0.8867;
771.9000;0.3582;0.8816;
772.2000;0.3533;0.8660;
772.5000;0.3541;0.8686;
772.8000;0.3541;0.8686;
773.1000;0.3516;0.8608;
773.4000;0.3525;0.8634;
773.7000;0.3541;0.8790;
774.0000;0.3533;0.8712;
774.3000;0.3541;0.8634;
774.6000;0.3533;0.8660;
774.9000;0.3516;0.8582;
775.2000;0.3549;0.8738;
775.5000;0.3541;0.8764;
775.8000;0.3533;0.8790;
776.1000;0.3549;0.8893;
776.4000;0.3484;0.8738;
776.7000;0.3533;0.8867;
777.0000;0.3533;0.8867;
777.3000;0.3541;0.8790;
777.6000;0.3549;0.8790;
777.9000;0.3541;0.8764;
778.2000;0.3533;0.8790;
778.5000;0.3541;0.8816;
778.8000;0.3533;0.8712;
779.1000;0.3533;0.8738;
779.4000;0.3525;0.8764;
779.7000;0.3533;0.8842;
780.0000;0.3492;0.8945;
780.3000;0.3533;0.8945;
780.6000;0.3516;0.8893;
780.9000;0.3533;0.8945;
781.2000;0.3525;0.8945;
781.5000;0.3516;0.8919;
781.8000;0.3516;0.8893;
782.1000;0.3541;0.8919;
782.4000;0.3533;0.8919;
782.7000;0.3533;0.8842;
783.0000;0.3525;0.8790;
783.3000;0.3630;0.8997;
783.6000;0.3541;0.8712;
783.9000;0.3533;0.8686;
784.2000;0.3525;0.8738;
784.5000;0.3533;0.8842;
784.8000;0.3533;0.8842;
785.1000;0.3525;0.8816;
785.4000;0.3557;0.8867;
785.7000;0.3541;0.8790;
786.0000;0.3533;0.8764;
786.3000;0.3541;0.8816;
786.6000;0.3557;0.8712;
786.9000;0.3525;0.8634;
787.2000;0.3525;0.8634;
787.5000;0.3525;0.8608;
787.8000;0.3516;0.8634;
788.1000;0.3525;0.8634;
788.4000;0.3549;0.8738;
788.7000;0.3533;0.8712;
789.0000;0.3533;0.8738;
789.3000;0.3533;0.8634;
789.6000;0.3516;0.8660;
789.9000;0.3525;0.8712;
790.2000;0.3557;0.8790;
790.5000;0.3516;0.8634;
790.8000;0.3516;0.8660;
791.1000;0.3549;0.8816;
791.4000;0.3516;0.8712;
791.7000;0.3516;0.8608;
792.0000;0.3508;0.8608;
792.3000;0.3533;0.8634;
792.6000;0.3500;0.8608;
792.9000;0.3443;0.8375;
793.2000;0.3516;0.8556;
793.5000;0.3516;0.8427;
793.8000;0.3525;0.8453;
794.1000;0.3533;0.8634;
794.4000;0.3516;0.8582;
794.7000;0.3516;0.8660;
795.0000;0.3541;0.8686;
795.3000;0.3541;0.8764;
795.6000;0.3533;0.8738;
795.9000;0.3533;0.8738;
796.2000;0.3549;0.8790;
796.5000;0.3533;0.8764;
796.8000;0.3500;0.8712;
797.1000;0.3525;0.8738;
797.4000;0.3541;0.8712;
797.7000;0.3492;0.8634;
798.0000;0.3468;0.8608;
798.3000;0.3508;0.8608;
798.6000;0.3508;0.8556;
798.9000;0.3525;0.8608;
799.2000;0.3525;0.8556;
799.5000;0.3516;0.8530;
799.8000;0.3533;0.8582;
800.1000;0.3508;0.8530;
800.4000;0.3533;0.8582;
800.7000;0.3533;0.8582;
801.0000;0.3508;0.8556;
801.3000;0.3525;0.8530;
801.6000;0.3516;0.8608;
801.9000;0.3516;0.8660;
802.2000;0.3525;0.8712;
802.5000;0.3533;0.8764;
802.8000;0.3533;0.8790;
803.1000;0.3516;0.8634;
803.4000;0.3541;0.8686;
803.7000;0.3525;0.8608;
804.0000;0.3525;0.8608;
804.3000;0.3525;0.8634;
804.6000;0.3411;0.8349;
804.9000;0.3516;0.8608;
805.2000;0.3508;0.8634;
805.5000;0.3508;0.8686;
805.8000;0.3516;0.8738;
806.1000;0.3492;0.8790;
806.4000;0.3549;0.8893;
806.7000;0.3516;0.8816;
807.0000;0.3500;0.8738;
807.3000;0.3533;0.8764;
807.6000;0.3525;0.8660;
807.9000;0.3525;0.8634;
808.2000;0.3500;0.8582;
808.5000;0.3508;0.8634;
808.8000;0.3508;0.8686;
809.1000;0.3516;0.8660;
809.4000;0.3500;0.8634;
809.7000;0.3508;0.8790;
810.0000;0.3508;0.8738;
810.3000;0.3508;0.8738;
810.6000;0.3508;0.8686;
810.9000;0.3492;0.8556;
811.2000;0.3492;0.8530;
811.5000;0.3516;0.8634;
811.8000;0.3443;0.8530;
812.1000;0.3500;0.8738;
812.4000;0.3508;0.8790;
812.7000;0.3500;0.8790;
813.0000;0.3516;0.8842;
813.3000;0.3516;0.8867;
813.6000;0.3500;0.8790;
813.9000;0.3484;0.8790;
814.2000;0.3541;0.8919;
814.5000;0.3500;0.8919;
814.8000;0.3508;0.8945;
815.1000;0.3508;0.8893;
815.4000;0.3533;0.8945;
815.7000;0.3508;0.8945;
816.0000;0.3500;0.8867;
816.3000;0.3508;0.8893;
816.6000;0.3484;0.8816;
816.9000;0.3500;0.8971;
817.2000;0.3492;0.8945;
817.5000;0.3508;0.8945;
817.8000;0.3516;0.8919;
818.1000;0.3525;0.8919;
818.4000;0.3500;0.8919;
818.7000;0.3492;0.8919;
819.0000;0.3639;0.9256;
819.3000;0.3500;0.8919;
819.6000;0.3500;0.8867;
819.9000;0.3508;0.8971;
820.2000;0.3525;0.8997;
820.5000;0.3508;0.8997;
820.8000;0.3573;0.9205;
821.1000;0.3533;0.9049;
821.4000;0.3500;0.8867;
821.7000;0.3500;0.8842;
822.0000;0.3516;0.8867;
822.3000;0.3476;0.8608;
822.6000;0.3508;0.8738;
822.9000;0.3508;0.8764;
823.2000;0.3492;0.8790;
823.5000;0.3508;0.8764;
823.8000;0.3484;0.8660;
824.1000;0.3508;0.8686;
824.4000;0.3516;0.8712;
824.7000;0.3508;0.8712;
825.0000;0.3484;0.8634;
825.3000;0.3590;0.8816;
825.6000;0.3508;0.8556;
825.9000;0.3582;0.8764;
826.2000;0.3516;0.8582;
826.5000;0.3500;0.8504;
826.8000;0.3460;0.8453;
827.1000;0.3549;0.8712;
827.4000;0.3492;0.8479;
827.7000;0.3525;0.8530;
828.0000;0.3508;0.8504;
828.3000;0.3549;0.8608;
828.6000;0.3500;0.8530;
828.9000;0.3492;0.8479;
829.2000;0.3500;0.8556;
829.5000;0.3508;0.8582;
829.8000;0.3476;0.8582;
830.1000;0.3500;0.8660;
830.4000;0.3508;0.8634;
830.7000;0.3500;0.8530;
831.0000;0.3500;0.8582;
831.3000;0.3460;0.8479;
831.6000;0.3525;0.8582;
831.9000;0.3476;0.8479;
832.2000;0.3500;0.8608;
832.5000;0.3500;0.8582;
832.8000;0.3541;0.8686;
833.1000;0.3525;0.8660;
833.4000;0.3492;0.8634;
833.7000;0.3500;0.8608;
834.0000;0.3525;0.8738;
834.3000;0.3492;0.8686;
834.6000;0.3508;0.8712;
834.9000;0.3500;0.8660;
835.2000;0.3492;0.8660;
835.5000;0.3508;0.8738;
835.8000;0.3492;0.8738;
836.1000;0.3508;0.8738;
836.4000;0.3500;0.8712;
836.7000;0.3500;0.8764;
837.0000;0.3516;0.8790;
837.3000;0.3500;0.8712;
837.6000;0.3484;0.8608;
837.9000;0.3500;0.8556;
838.2000;0.3500;0.8608;
838.5000;0.3492;0.8738;
838.8000;0.3484;0.8790;
839.1000;0.3484;0.8790;
839.4000;0.3484;0.8764;
839.7000;0.3492;0.8738;
840.0000;0.3500;0.8764;
840.3000;0.3516;0.8738;
840.6000;0.3508;0.8660;
840.9000;0.3492;0.8712;
841.2000;0.3492;0.8660;
841.5000;0.3500;0.8790;
841.8000;0.3508;0.8816;
842.1000;0.3508;0.8842;
842.4000;0.3500;0.8867;
842.7000;0.3492;0.8842;
843.0000;0.3492;0.8893;
843.3000;0.3500;0.8712;
843.6000;0.3508;0.8738;
843.9000;0.3484;0.8790;
844.2000;0.3492;0.8867;
844.5000;0.3492;0.8842;
844.8000;0.3500;0.8816;
845.1000;0.3500;0.8919;
845.4000;0.3492;0.8945;
845.7000;0.3516;0.9023;
846.0000;0.3516;0.9075;
846.3000;0.3492;0.8919;
846.6000;0.3484;0.8945;
846.9000;0.3516;0.9023;
847.2000;0.3516;0.9023;
847.5000;0.3508;0.9049;
847.8000;0.3460;0.8842;
848.1000;0.3468;0.8816;
848.4000;0.3500;0.8919;
848.7000;0.3484;0.8945;
849.0000;0.3525;0.8919;
849.3000;0.3492;0.8764;
849.6000;0.3516;0.8842;
849.9000;0.3500;0.8842;
850.2000;0.3500;0.8790;
850.5000;0.3492;0.8816;
850.8000;0.3451;0.8686;
851.1000;0.3484;0.8790;
851.4000;0.3516;0.8893;
851.7000;0.3484;0.8738;
852.0000;0.3525;0.8893;
852.3000;0.3492;0.8738;
852.6000;0.3492;0.8712;
852.9000;0.3492;0.8738;
853.2000;0.3500;0.8738;
853.5000;0.3508;0.8842;
853.8000;0.3492;0.8790;
854.1000;0.3516;0.8712;
854.4000;0.3500;0.8764;
854.7000;0.3492;0.8764;
855.0000;0.3492;0.8712;
855.3000;0.3476;0.8738;
855.6000;0.3484;0.8738;
855.9000;0.3508;0.8867;
856.2000;0.3484;0.8816;
856.5000;0.3508;0.8842;
856.8000;0.3492;0.8816;
857.1000;0.3492;0.8790;
857.4000;0.3516;0.8842;
857.7000;0.3476;0.8790;
858.0000;0.3460;0.8790;
858.3000;0.3492;0.8764;
858.6000;0.3476;0.8660;
858.9000;0.3476;0.8634;
859.2000;0.3411;0.8427;
859.5000;0.3492;0.8634;
859.8000;0.3492;0.8660;
860.1000;0.3500;0.8790;
860.4000;0.3484;0.8764;
860.7000;0.3492;0.8867;
861.0000;0.3500;0.8893;
861.3000;0.3460;0.8842;
861.6000;0.3508;0.8971;
861.9000;0.3500;0.8971;
862.2000;0.3484;0.8919;
862.5000;0.3492;0.8945;
862.8000;0.3492;0.8945;
863.1000;0.3484;0.8816;
863.4000;0.3476;0.8790;
863.7000;0.3484;0.8738;
864.0000;0.3541;0.8919;
864.3000;0.3492;0.8764;
864.6000;0.3484;0.8712;
864.9000;0.3557;0.8893;
865.2000;0.3492;0.8764;
865.5000;0.3476;0.8738;
865.8000;0.3500;0.8816;
866.1000;0.3500;0.8816;
866.4000;0.3484;0.8790;
866.7000;0.3508;0.8893;
867.0000;0.3492;0.8971;
867.3000;0.3484;0.8997;
867.6000;0.3492;0.8997;
867.9000;0.3557;0.9075;
868.2000;0.3484;0.8842;
868.5000;0.3508;0.8945;
868.8000;0.3492;0.8945;
869.1000;0.3508;0.8867;
869.4000;0.3468;0.8738;
869.7000;0.3484;0.8790;
870.0000;0.3500;0.8816;
870.3000;0.3500;0.8712;
870.6000;0.3492;0.8686;
870.9000;0.3508;0.8764;
871.2000;0.3500;0.8712;
871.5000;0.3500;0.8712;
871.8000;0.3508;0.8634;
872.1000;0.3525;0.8686;
872.4000;0.3492;0.8686;
872.7000;0.3508;0.8686;
873.0000;0.3484;0.8660;
873.3000;0.3476;0.8608;
873.6000;0.3492;0.8556;
873.9000;0.3484;0.8556;
874.2000;0.3476;0.8504;
874.5000;0.3492;0.8479;
874.8000;0.3492;0.8504;
875.1000;0.3508;0.8556;
875.4000;0.3451;0.8479;
875.7000;0.3492;0.8660;
876.0000;0.3492;0.8712;
876.3000;0.3476;0.8582;
876.6000;0.3468;0.8582;
876.9000;0.3492;0.8660;
877.2000;0.3492;0.8712;
877.5000;0.3451;0.8634;
877.8000;0.3484;0.8660;
878.1000;0.3468;0.8686;
878.4000;0.3492;0.8790;
878.7000;0.3476;0.8842;
879.0000;0.3484;0.8842;
879.3000;0.3468;0.8816;
879.6000;0.3460;0.8790;
879.9000;0.3476;0.8842;
880.2000;0.3565;0.9075;
880.5000;0.3492;0.8790;
880.8000;0.3484;0.8816;
881.1000;0.3492;0.8764;
881.4000;0.3476;0.8686;
881.7000;0.3492;0.8764;
882.0000;0.3500;0.8764;
882.3000;0.3460;0.8556;
882.6000;0.3492;0.8712;
882.9000;0.3516;0.8738;
883.2000;0.3484;0.8712;
883.5000;0.3484;0.8634;
883.8000;0.3500;0.8660;
884.1000;0.3500;0.8660;
884.4000;0.3500;0.8686;
884.7000;0.3476;0.8608;
885.0000;0.3484;0.8634;
885.3000;0.3500;0.8582;
885.6000;0.3492;0.8556;
885.9000;0.3476;0.8608;
886.2000;0.3500;0.8686;
886.5000;0.3500;0.8686;
886.8000;0.3468;0.8582;
887.1000;0.3460;0.8608;
887.4000;0.3500;0.8608;
887.7000;0.3484;0.8556;
888.0000;0.3484;0.8634;
888.3000;0.3484;0.8738;
888.6000;0.3484;0.8738;
888.9000;0.3386;0.8401;
889.2000;0.3476;0.8686;
889.5000;0.3476;0.8634;
889.8000;0.3476;0.8634;
890.1000;0.3476;0.8608;
890.4000;0.3484;0.8556;
890.7000;0.3484;0.8608;
891.0000;0.3492;0.8634;
891.3000;0.3468;0.8608;
891.6000;0.3492;0.8686;
891.9000;0.3500;0.8686;
892.2000;0.3492;0.8660;
892.5000;0.3476;0.8660;
892.8000;0.3484;0.8582;
893.1000;0.3492;0.8582;
893.4000;0.3484;0.8660;
893.7000;0.3484;0.8634;
894.0000;0.3460;0.8608;
894.3000;0.3468;0.8582;
894.6000;0.3468;0.8530;
894.9000;0.3460;0.8479;
895.2000;0.3484;0.8504;
895.5000;0.3492;0.8504;
895.8000;0.3508;0.8530;
896.1000;0.3435;0.8453;
896.4000;0.3443;0.8530;
896.7000;0.3484;0.8660;
897.0000;0.3484;0.8660;
897.3000;0.3460;0.8556;
897.6000;0.3484;0.8712;
897.9000;0.3484;0.8712;
898.2000;0.3525;0.8842;
898.5000;0.3476;0.8686;
898.8000;0.3484;0.8608;
899.1000;0.3484;0.8634;
899.4000;0.3476;0.8686;
899.7000;0.3468;0.8530;
900.0000;0.3451;0.8556;
900.3000;0.3460;0.8582;
900.6000;0.3484;0.8608;
900.9000;0.3492;0.8634;
901.2000;0.3435;0.8556;
901.5000;0.3484;0.8764;
901.8000;0.3492;0.8790;
902.1000;0.3549;0.8919;
902.4000;0.3484;0.8790;
902.7000;0.3468;0.8660;
903.0000;0.3468;0.8738;
903.3000;0.3476;0.8712;
903.6000;0.3484;0.8634;
903.9000;0.3476;0.8634;
904.2000;0.3476;0.8686;
904.5000;0.3476;0.8686;
904.8000;0.3460;0.8686;
905.1000;0.3370;0.8427;
905.4000;0.3476;0.8660;
905.7000;0.3484;0.8712;
906.0000;0.3484;0.8738;
906.3000;0.3476;0.8764;
906.6000;0.3500;0.8790;
906.9000;0.3484;0.8686;
907.2000;0.3484;0.8738;
907.5000;0.3468;0.8660;
907.8000;0.3484;0.8712;
908.1000;0.3492;0.8738;
908.4000;0.3492;0.8712;
908.7000;0.3484;0.8712;
909.0000;0.3484;0.8738;
909.3000;0.3468;0.8764;
909.6000;0.3468;0.8660;
909.9000;0.3468;0.8634;
910.2000;0.3492;0.8712;
910.5000;0.3451;0.8634;
910.8000;0.3525;0.8842;
911.1000;0.3500;0.8686;
911.4000;0.3476;0.8530;
911.7000;0.3484;0.8530;
912.0000;0.3468;0.8427;
912.3000;0.3476;0.8504;
912.6000;0.3492;0.8660;
912.9000;0.3476;0.8660;
913.2000;0.3468;0.8582;
913.5000;0.3468;0.8608;
913.8000;0.3468;0.8556;
914.1000;0.3451;0.8504;
914.4000;0.3476;0.8660;
914.7000;0.3476;0.8660;
915.0000;0.3476;0.8712;
915.3000;0.3468;0.8556;
915.6000;0.3451;0.8479;
915.9000;0.3476;0.8530;
916.2000;0.3460;0.8556;
916.5000;0.3460;0.8660;
916.8000;0.3484;0.8660;
917.1000;0.3468;0.8686;
917.4000;0.3492;0.8686;
917.7000;0.3468;0.8686;
918.0000;0.3468;0.8712;
918.3000;0.3476;0.8764;
918.6000;0.3484;0.8764;
918.9000;0.3460;0.8712;
919.2000;0.3443;0.8712;
919.5000;0.3476;0.8712;
919.8000;0.3484;0.8893;
920.1000;0.3468;0.8919;
920.4000;0.3468;0.8893;
920.7000;0.3468;0.8919;
921.0000;0.3533;0.8997;
921.3000;0.3484;0.8842;
921.6000;0.3476;0.8790;
921.9000;0.3468;0.8816;
922.2000;0.3484;0.8790;
922.5000;0.3460;0.8686;
922.8000;0.3468;0.8712;
923.1000;0.3492;0.8816;
923.4000;0.3492;0.8764;
923.7000;0.3500;0.8790;
924.0000;0.3468;0.8660;
924.3000;0.3492;0.8712;
924.6000;0.3468;0.8686;
924.9000;0.3468;0.8712;
925.2000;0.3500;0.8816;
925.5000;0.3468;0.8634;
925.8000;0.3484;0.8764;
926.1000;0.3468;0.8764;
926.4000;0.3468;0.8660;
926.7000;0.3484;0.8712;
927.0000;0.3476;0.8608;
927.3000;0.3476;0.8530;
927.6000;0.3606;0.8919;
927.9000;0.3468;0.8556;
928.2000;0.3541;0.8738;
928.5000;0.3476;0.8582;
928.8000;0.3476;0.8530;
929.1000;0.3492;0.8686;
929.4000;0.3451;0.8660;
929.7000;0.3460;0.8686;
930.0000;0.3378;0.8504;
930.3000;0.3484;0.8764;
930.6000;0.3468;0.8738;
930.9000;0.3500;0.8764;
931.2000;0.3492;0.8764;
931.5000;0.3492;0.8816;
931.8000;0.3451;0.8712;
932.1000;0.3492;0.8842;
932.4000;0.3484;0.8764;
932.7000;0.3484;0.8842;
933.0000;0.3460;0.8867;
933.3000;0.3468;0.8919;
933.6000;0.3500;0.8971;
933.9000;0.3468;0.8842;
934.2000;0.3443;0.8712;
934.5000;0.3492;0.8816;
934.8000;0.3468;0.8816;
935.1000;0.3468;0.8738;
935.4000;0.3460;0.8660;
935.7000;0.3468;0.8712;
936.0000;0.3476;0.8790;
936.3000;0.3476;0.8867;
936.6000;0.3476;0.8790;
936.9000;0.3468;0.8867;
937.2000;0.3476;0.8867;
937.5000;0.3476;0.8816;
937.8000;0.3476;0.8790;
938.1000;0.3419;0.8608;
938.4000;0.3468;0.8686;
938.7000;0.3468;0.8582;
939.0000;0.3468;0.8556;
939.3000;0.3468;0.8504;
939.6000;0.3476;0.8530;
939.9000;0.3484;0.8556;
940.2000;0.3443;0.8453;
940.5000;0.3468;0.8582;
940.8000;0.3476;0.8764;
941.1000;0.3557;0.8997;
941.4000;0.3476;0.8738;
941.7000;0.3443;0.8764;
942.0000;0.3460;0.8919;
942.3000;0.3476;0.8971;
942.6000;0.3451;0.8893;
942.9000;0.3468;0.8893;
943.2000;0.3492;0.8893;
943.5000;0.3484;0.8867;
943.8000;0.3476;0.8945;
944.1000;0.3541;0.9127;
944.4000;0.3484;0.8919;
944.7000;0.3460;0.8738;
945.0000;0.3460;0.8686;
945.3000;0.3435;0.8686;
945.6000;0.3476;0.8712;
945.9000;0.3476;0.8660;
946.2000;0.3484;0.8686;
946.5000;0.3460;0.8582;
946.8000;0.3460;0.8660;
947.1000;0.3476;0.8712;
947.4000;0.3403;0.8634;
947.7000;0.3468;0.8764;
948.0000;0.3468;0.8816;
948.3000;0.3525;0.8997;
948.6000;0.3476;0.8867;
948.9000;0.3468;0.8867;
949.2000;0.3468;0.8867;
949.5000;0.3468;0.8867;
949.8000;0.3468;0.8816;
950.1000;0.3476;0.8816;
950.4000;0.3508;0.8893;
950.7000;0.3476;0.8816;
951.0000;0.3468;0.8764;
951.3000;0.3468;0.8764;
951.6000;0.3460;0.8686;
951.9000;0.3460;0.8738;
952.2000;0.3451;0.8634;
952.5000;0.3451;0.8712;
952.8000;0.3484;0.8790;
953.1000;0.3468;0.8660;
953.4000;0.3443;0.8634;
953.7000;0.3451;0.8686;
954.0000;0.3394;0.8582;
954.3000;0.3468;0.8686;
954.6000;0.3443;0.8634;
954.9000;0.3492;0.8712;
955.2000;0.3468;0.8660;
955.5000;0.3468;0.8712;
955.8000;0.3476;0.8764;
956.1000;0.3484;0.8764;
956.4000;0.3492;0.8842;
956.7000;0.3484;0.8842;
957.0000;0.3460;0.8738;
957.3000;0.3468;0.8764;
957.6000;0.3484;0.8764;
957.9000;0.3460;0.8764;
958.2000;0.3476;0.8816;
958.5000;0.3451;0.8712;
958.8000;0.3500;0.8919;
959.1000;0.3476;0.8842;
959.4000;0.3500;0.8893;
959.7000;0.3468;0.8842;
960.0000;0.3476;0.8790;
960.3000;0.3476;0.8842;
960.6000;0.3460;0.8867;
960.9000;0.3484;0.8945;
961.2000;0.3451;0.8867;
961.5000;0.3468;0.8893;
961.8000;0.3460;0.8816;
962.1000;0.3443;0.8738;
962.4000;0.3460;0.8712;
962.7000;0.3476;0.8738;
963.0000;0.3468;0.8686;
963.3000;0.3468;0.8790;
963.6000;0.3451;0.8842;
963.9000;0.3460;0.8842;
964.2000;0.3460;0.8867;
964.5000;0.3476;0.8842;
964.8000;0.3460;0.8764;
965.1000;0.3419;0.8660;
965.4000;0.3476;0.8764;
965.7000;0.3468;0.8764;
966.0000;0.3460;0.8738;
966.3000;0.3484;0.8712;
966.6000;0.3508;0.8738;
966.9000;0.3476;0.8738;
967.2000;0.3476;0.8790;
967.5000;0.3468;0.8790;
967.8000;0.3468;0.8764;
968.1000;0.3443;0.8816;
968.4000;0.3500;0.8945;
968.7000;0.3460;0.8893;
969.0000;0.3451;0.8945;
969.3000;0.3468;0.8945;
969.6000;0.3460;0.8790;
969.9000;0.3468;0.8867;
970.2000;0.3394;0.8660;
970.5000;0.3468;0.8738;
970.8000;0.3451;0.8738;
971.1000;0.3460;0.8764;
971.4000;0.3468;0.8816;
971.7000;0.3476;0.8867;
972.0000;0.3468;0.8919;
972.3000;0.3476;0.8919;
972.6000;0.3516;0.9049;
972.9000;0.3403;0.8608;
973.2000;0.3435;0.8686;
973.5000;0.3468;0.8660;
973.8000;0.3460;0.8608;
974.1000;0.3468;0.8634;
974.4000;0.3460;0.8634;
974.7000;0.3451;0.8582;
975.0000;0.3460;0.8686;
975.3000;0.3403;0.8582;
975.6000;0.3378;0.8556;
975.9000;0.3460;0.8790;
976.2000;0.3451;0.8790;
976.5000;0.3451;0.8764;
976.8000;0.3460;0.8764;
977.1000;0.3484;0.8790;
977.4000;0.3435;0.8686;
977.7000;0.3460;0.8764;
978.0000;0.3460;0.8712;
978.3000;0.3468;0.8764;
978.6000;0.3451;0.8764;
978.9000;0.3427;0.8764;
979.2000;0.3460;0.8842;
979.5000;0.3468;0.8816;
979.8000;0.3468;0.8738;
980.1000;0.3427;0.8634;
980.4000;0.3476;0.8790;
980.7000;0.3411;0.8556;
981.0000;0.3460;0.8712;
981.3000;0.3468;0.8738;
981.6000;0.3468;0.8712;
981.9000;0.3476;0.8634;
982.2000;0.3451;0.8504;
982.5000;0.3435;0.8504;
982.8000;0.3403;0.8479;
983.1000;0.3476;0.8660;
983.4000;0.3443;0.8582;
983.7000;0.3394;0.8401;
984.0000;0.3451;0.8582;
984.3000;0.3468;0.8660;
984.6000;0.3451;0.8634;
984.9000;0.3500;0.8764;
985.2000;0.3443;0.8530;
985.5000;0.3468;0.8660;
985.8000;0.3460;0.8712;
986.1000;0.3394;0.8582;
986.4000;0.3460;0.8660;
986.7000;0.3460;0.8712;
987.0000;0.3460;0.8660;
987.3000;0.3468;0.8660;
987.6000;0.3443;0.8608;
987.9000;0.3468;0.8660;
988.2000;0.3508;0.8738;
988.5000;0.3468;0.8660;
988.8000;0.3476;0.8712;
989.1000;0.3468;0.8660;
989.4000;0.3443;0.8686;
989.7000;0.3468;0.8738;
990.0000;0.3460;0.8608;
990.3000;0.3460;0.8634;
990.6000;0.3468;0.8738;
990.9000;0.3460;0.8712;
991.2000;0.3468;0.8660;
991.5000;0.3443;0.8686;
991.8000;0.3476;0.8790;
992.1000;0.3476;0.8790;
992.4000;0.3468;0.8842;
992.7000;0.3468;0.8893;
993.0000;0.3476;0.8997;
993.3000;0.3484;0.9023;
993.6000;0.3492;0.9023;
993.9000;0.3476;0.8945;
994.2000;0.3443;0.8790;
994.5000;0.3468;0.8919;
994.8000;0.3451;0.8842;
995.1000;0.3443;0.8686;
995.4000;0.3468;0.8686;
995.7000;0.3411;0.8479;
996.0000;0.3443;0.8582;
996.3000;0.3516;0.8738;
996.6000;0.3468;0.8582;
996.9000;0.3468;0.8582;
997.2000;0.3460;0.8634;
997.5000;0.3476;0.8660;
997.8000;0.3484;0.8816;
998.1000;0.3451;0.8790;
998.4000;0.3468;0.8816;
998.7000;0.3476;0.8816;
999.0000;0.3468;0.8945;
999.3000;0.3468;0.8867;
999.6000;0.3549;0.9023;
999.9000;0.3476;0.8842;
1000.2000;0.3451;0.8764;
1000.5000;0.3468;0.8816;
1000.8000;0.3427;0.8686;
1001.1000;0.3460;0.8712;
1001.4000;0.3460;0.8790;
1001.7000;0.3460;0.8842;
1002.0000;0.3460;0.8945;
1002.3000;0.3443;0.8919;
1002.6000;0.3557;0.9179;
1002.9000;0.3460;0.8945;
1003.2000;0.3468;0.8971;
1003.5000;0.3468;0.9023;
1003.8000;0.3476;0.8945;
1004.1000;0.3460;0.8919;
1004.4000;0.3451;0.8893;
1004.7000;0.3468;0.8945;
1005.0000;0.3516;0.9049;
1005.3000;0.3443;0.8867;
1005.6000;0.3460;0.8893;
1005.9000;0.3468;0.8842;
1006.2000;0.3460;0.8816;
1006.5000;0.3460;0.8842;
1006.8000;0.3468;0.8867;
1007.1000;0.3451;0.8790;
1007.4000;0.3460;0.8893;
1007.7000;0.3468;0.8893;
1008.0000;0.3427;0.8816;
1008.3000;0.3460;0.8867;
1008.6000;0.3460;0.8867;
1008.9000;0.3484;0.8919;
1009.2000;0.3403;0.8816;
1009.5000;0.3435;0.8919;
1009.8000;0.3435;0.8919;
1010.1000;0.3362;0.8686;
1010.4000;0.3460;0.8971;
1010.7000;0.3443;0.8945;
1011.0000;0.3460;0.8893;
1011.3000;0.3468;0.8738;
1011.6000;0.3443;0.8608;
1011.9000;0.3460;0.8634;
1012.2000;0.3516;0.8764;
1012.5000;0.3476;0.8660;
1012.8000;0.3427;0.8556;
1013.1000;0.3451;0.8504;
1013.4000;0.3451;0.8504;
1013.7000;0.3460;0.8556;
1014.0000;0.3460;0.8504;
1014.3000;0.3460;0.8479;
1014.6000;0.3468;0.8634;
1014.9000;0.3468;0.8660;
1015.2000;0.3451;0.8660;
1015.5000;0.3435;0.8582;
1015.8000;0.3443;0.8634;
1016.1000;0.3460;0.8790;
1016.4000;0.3468;0.8816;
1016.7000;0.3460;0.8764;
1017.0000;0.3468;0.8816;
1017.3000;0.3460;0.8816;
1017.6000;0.3451;0.8686;
1017.9000;0.3460;0.8764;
1018.2000;0.3468;0.8686;
1018.5000;0.3468;0.8660;
1018.8000;0.3460;0.8686;
1019.1000;0.3484;0.8712;
1019.4000;0.3451;0.8686;
1019.7000;0.3476;0.8790;
1020.0000;0.3435;0.8738;
1020.3000;0.3476;0.8764;
1020.6000;0.3460;0.8712;
1020.9000;0.3516;0.8919;
1021.2000;0.3460;0.8686;
1021.5000;0.3451;0.8608;
1021.8000;0.3468;0.8530;
1022.1000;0.3468;0.8530;
1022.4000;0.3451;0.8530;
1022.7000;0.3460;0.8608;
1023.0000;0.3443;0.8530;
1023.3000;0.3468;0.8608;
1023.6000;0.3516;0.8764;
1023.9000;0.3451;0.8686;
1024.2000;0.3484;0.8790;
1024.5000;0.3468;0.8712;
1024.8000;0.3460;0.8634;
1025.1000;0.3460;0.8660;
1025.4000;0.3451;0.8582;
1025.7000;0.3460;0.8530;
1026.0000;0.3451;0.8582;
1026.3000;0.3451;0.8634;
1026.6000;0.3468;0.8790;
1026.9000;0.3460;0.8712;
1027.2000;0.3451;0.8660;
1027.5000;0.3427;0.8634;
1027.8000;0.3451;0.8608;
1028.1000;0.3492;0.8634;
1028.4000;0.3468;0.8556;
1028.7000;0.3468;0.8634;
1029.0000;0.3468;0.8660;
1029.3000;0.3460;0.8608;
1029.6000;0.3451;0.8660;
1029.9000;0.3443;0.8608;
1030.2000;0.3468;0.8608;
1030.5000;0.3451;0.8634;
1030.8000;0.3443;0.8712;
1031.1000;0.3435;0.8790;
1031.4000;0.3460;0.8842;
1031.7000;0.3451;0.8842;
1032.0000;0.3460;0.8971;
1032.3000;0.3460;0.8945;
1032.6000;0.3451;0.8945;
1032.9000;0.3460;0.8893;
1033.2000;0.3500;0.8945;
1033.5000;0.3443;0.8764;
1033.8000;0.3443;0.8790;
1034.1000;0.3451;0.8816;
1034.4000;0.3460;0.8790;
1034.7000;0.3419;0.8634;
1035.0000;0.3500;0.8816;
1035.3000;0.3460;0.8608;
1035.6000;0.3435;0.8634;
1035.9000;0.3460;0.8660;
1036.2000;0.3419;0.8660;
1036.5000;0.3451;0.8712;
1036.8000;0.3460;0.8712;
1037.1000;0.3443;0.8686;
1037.4000;0.3451;0.8712;
1037.7000;0.3468;0.8816;
1038.0000;0.3451;0.8764;
1038.3000;0.3460;0.8738;
1038.6000;0.3451;0.8660;
1038.9000;0.3468;0.8686;
1039.2000;0.3451;0.8608;
1039.5000;0.3460;0.8634;
1039.8000;0.3451;0.8582;
1040.1000;0.3443;0.8608;
1040.4000;0.3435;0.8582;
1040.7000;0.3460;0.8712;
1041.0000;0.3443;0.8712;
1041.3000;0.3460;0.8919;
1041.6000;0.3451;0.8945;
1041.9000;0.3468;0.8919;
1042.2000;0.3525;0.9049;
1042.5000;0.3541;0.9049;
1042.8000;0.3460;0.8790;
1043.1000;0.3484;0.8790;
1043.4000;0.3468;0.8790;
1043.7000;0.3443;0.8712;
1044.0000;0.3443;0.8686;
1044.3000;0.3460;0.8738;
1044.6000;0.3443;0.8712;
1044.9000;0.3427;0.8634;
1045.2000;0.3435;0.8686;
1045.5000;0.3411;0.8582;
1045.8000;0.3443;0.8686;
1046.1000;0.3427;0.8608;
1046.4000;0.3451;0.8686;
1046.7000;0.3460;0.8816;
1047.0000;0.3460;0.8816;
1047.3000;0.3460;0.8816;
1047.6000;0.3460;0.8816;
1047.9000;0.3451;0.8867;
1048.2000;0.3435;0.8712;
1048.5000;0.3427;0.8686;
1048.8000;0.3443;0.8712;
1049.1000;0.3460;0.8738;
1049.4000;0.3451;0.8842;
1049.7000;0.3573;0.9179;
1050.0000;0.3451;0.8816;
1050.3000;0.3460;0.8867;
1050.6000;0.3500;0.8971;
1050.9000;0.3411;0.8738;
1051.2000;0.3443;0.8738;
1051.5000;0.3451;0.8764;
1051.8000;0.3468;0.8686;
1052.1000;0.3468;0.8686;
1052.4000;0.3427;0.8686;
1052.7000;0.3451;0.8712;
1053.0000;0.3443;0.8686;
1053.3000;0.3460;0.8764;
1053.6000;0.3443;0.8686;
1053.9000;0.3541;0.9023;
1054.2000;0.3476;0.8893;
1054.5000;0.3443;0.8893;
1054.8000;0.3435;0.8919;
1055.1000;0.3492;0.9075;
1055.4000;0.3460;0.8867;
1055.7000;0.3443;0.8842;
1056.0000;0.3443;0.8764;
1056.3000;0.3443;0.8764;
1056.6000;0.3476;0.8738;
1056.9000;0.3468;0.8660;
1057.2000;0.3460;0.8738;
1057.5000;0.3476;0.8764;
1057.8000;0.3500;0.8867;
1058.1000;0.3443;0.8686;
1058.4000;0.3460;0.8686;
1058.7000;0.3443;0.8686;
1059.0000;0.3443;0.8712;
1059.3000;0.3468;0.8712;
1059.6000;0.3451;0.8634;
1059.9000;0.3460;0.8608;
1060.2000;0.3378;0.8323;
1060.5000;0.3419;0.8504;
1060.8000;0.3451;0.8634;
1061.1000;0.3443;0.8608;
1061.4000;0.3443;0.8479;
1061.7000;0.3460;0.8427;
1062.0000;0.3476;0.8504;
1062.3000;0.3476;0.8556;
1062.6000;0.3468;0.8556;
1062.9000;0.3443;0.8479;
1063.2000;0.3468;0.8556;
1063.5000;0.3443;0.8401;
1063.8000;0.3451;0.8453;
1064.1000;0.3468;0.8556;
1064.4000;0.3394;0.8401;
1064.7000;0.3460;0.8556;
1065.0000;0.3460;0.8479;
1065.3000;0.3443;0.8375;
1065.6000;0.3460;0.8453;
1065.9000;0.3468;0.8582;
1066.2000;0.3468;0.8556;
1066.5000;0.3451;0.8556;
1066.8000;0.3435;0.8530;
1067.1000;0.3468;0.8453;
1067.4000;0.3476;0.8479;
1067.7000;0.3419;0.8427;
1068.0000;0.3468;0.8608;
1068.3000;0.3460;0.8608;
1068.6000;0.3451;0.8582;
1068.9000;0.3443;0.8556;
1069.2000;0.3451;0.8556;
1069.5000;0.3427;0.8427;
1069.8000;0.3484;0.8634;
1070.1000;0.3484;0.8634;
1070.4000;0.3435;0.8660;
1070.7000;0.3451;0.8660;
1071.0000;0.3451;0.8634;
1071.3000;0.3427;0.8556;
1071.6000;0.3460;0.8582;
1071.9000;0.3476;0.8738;
1072.2000;0.3460;0.8660;
1072.5000;0.3394;0.8453;
1072.8000;0.3427;0.8634;
1073.1000;0.3451;0.8686;
1073.4000;0.3460;0.8738;
1073.7000;0.3419;0.8582;
1074.0000;0.3451;0.8608;
1074.3000;0.3468;0.8712;
1074.6000;0.3451;0.8790;
1074.9000;0.3525;0.9023;
1075.2000;0.3460;0.8919;
1075.5000;0.3476;0.8867;
1075.8000;0.3411;0.8660;
1076.1000;0.3451;0.8738;
1076.4000;0.3451;0.8764;
1076.7000;0.3427;0.8686;
1077.0000;0.3468;0.8867;
1077.3000;0.3435;0.8842;
1077.6000;0.3419;0.8738;
1077.9000;0.3541;0.8945;
1078.2000;0.3460;0.8582;
1078.5000;0.3427;0.8530;
1078.8000;0.3460;0.8686;
1079.1000;0.3427;0.8634;
1079.4000;0.3451;0.8660;
1079.7000;0.3443;0.8660;
1080.0000;0.3451;0.8608;
1080.3000;0.3427;0.8582;
1080.6000;0.3460;0.8582;
1080.9000;0.3460;0.8530;
1081.2000;0.3419;0.8556;
1081.5000;0.3435;0.8634;
1081.8000;0.3484;0.8686;
1082.1000;0.3435;0.8712;
1082.4000;0.3468;0.8712;
1082.7000;0.3460;0.8634;
1083.0000;0.3443;0.8660;
1083.3000;0.3443;0.8686;
1083.6000;0.3492;0.8712;
1083.9000;0.3460;0.8608;
1084.2000;0.3435;0.8582;
1084.5000;0.3460;0.8660;
1084.8000;0.3435;0.8634;
1085.1000;0.3468;0.8712;
1085.4000;0.3443;0.8660;
1085.7000;0.3435;0.8686;
1086.0000;0.3468;0.8712;
1086.3000;0.3435;0.8712;
1086.6000;0.3451;0.8738;
1086.9000;0.3443;0.8790;
1087.2000;0.3411;0.8738;
1087.5000;0.3443;0.8893;
1087.8000;0.3443;0.8816;
1088.1000;0.3451;0.8764;
1088.4000;0.3403;0.8686;
1088.7000;0.3419;0.8816;
1089.0000;0.3476;0.8893;
1089.3000;0.3435;0.8686;
1089.6000;0.3435;0.8738;
1089.9000;0.3451;0.8816;
1090.2000;0.3484;0.8971;
1090.5000;0.3468;0.8919;
1090.8000;0.3443;0.8790;
1091.1000;0.3443;0.8816;
1091.4000;0.3468;0.8867;
1091.7000;0.3460;0.8842;
1092.0000;0.3460;0.8816;
1092.3000;0.3468;0.8816;
1092.6000;0.3460;0.8738;
1092.9000;0.3451;0.8738;
1093.2000;0.3573;0.9075;
1093.5000;0.3460;0.8764;
1093.8000;0.3565;0.9127;
1094.1000;0.3460;0.8764;
1094.4000;0.3443;0.8712;
1094.7000;0.3443;0.8764;
1095.0000;0.3443;0.8764;
1095.3000;0.3435;0.8712;
1095.6000;0.3451;0.8816;
1095.9000;0.3484;0.8893;
1096.2000;0.3468;0.8919;
1096.5000;0.3468;0.8919;
1096.8000;0.3451;0.8893;
1097.1000;0.3427;0.8867;
1097.4000;0.3468;0.8945;
1097.7000;0.3451;0.8997;
1098.0000;0.3443;0.8997;
1098.3000;0.3460;0.8997;
1098.6000;0.3460;0.8997;
1098.9000;0.3443;0.8971;
1099.2000;0.3443;0.8893;
1099.5000;0.3443;0.8842;
1099.8000;0.3443;0.8867;
1100.1000;0.3443;0.8764;
1100.4000;0.3460;0.8712;
1100.7000;0.3451;0.8582;
1101.0000;0.3411;0.8582;
1101.3000;0.3460;0.8790;
1101.6000;0.3451;0.8790;
1101.9000;0.3427;0.8738;
1102.2000;0.3468;0.8867;
1102.5000;0.3460;0.8893;
1102.8000;0.3451;0.8738;
1103.1000;0.3443;0.8712;
1103.4000;0.3427;0.8634;
1103.7000;0.3460;0.8686;
1104.0000;0.3451;0.8634;
1104.3000;0.3443;0.8634;
1104.6000;0.3451;0.8582;
1104.9000;0.3460;0.8582;
1105.2000;0.3451;0.8556;
1105.5000;0.3378;0.8375;
1105.8000;0.3451;0.8530;
1106.1000;0.3435;0.8608;
1106.4000;0.3451;0.8738;
1106.7000;0.3443;0.8712;
1107.0000;0.3492;0.8816;
1107.3000;0.3435;0.8738;
1107.6000;0.3443;0.8764;
1107.9000;0.3443;0.8816;
1108.2000;0.3451;0.8842;
1108.5000;0.3443;0.8816;
1108.8000;0.3451;0.8893;
1109.1000;0.3468;0.8945;
1109.4000;0.3435;0.8816;
1109.7000;0.3460;0.8893;
1110.0000;0.3378;0.8712;
1110.3000;0.3435;0.8919;
1110.6000;0.3443;0.8971;
1110.9000;0.3435;0.8919;
1111.2000;0.3451;0.8919;
1111.5000;0.3460;0.8945;
1111.8000;0.3476;0.9049;
1112.1000;0.3435;0.8945;
1112.4000;0.3435;0.9023;
1112.7000;0.3427;0.9023;
1113.0000;0.3460;0.9075;
1113.3000;0.3468;0.9205;
1113.6000;0.3427;0.9049;
1113.9000;0.3435;0.9101;
1114.2000;0.3460;0.9205;
1114.5000;0.3427;0.9153;
1114.8000;0.3460;0.9282;
1115.1000;0.3443;0.9179;
1115.4000;0.3460;0.9153;
1115.7000;0.3443;0.9101;
1116.0000;0.3427;0.9023;
1116.3000;0.3419;0.8971;
1116.6000;0.3468;0.9075;
1116.9000;0.3443;0.8997;
1117.2000;0.3435;0.8971;
1117.5000;0.3411;0.8919;
1117.8000;0.3484;0.9075;
1118.1000;0.3435;0.8893;
1118.4000;0.3427;0.8919;
1118.7000;0.3427;0.8867;
1119.0000;0.3443;0.8945;
1119.3000;0.3443;0.8945;
1119.6000;0.3435;0.8842;
1119.9000;0.3443;0.8893;
1120.2000;0.3435;0.8945;
1120.5000;0.3451;0.9023;
1120.8000;0.3460;0.8997;
1121.1000;0.3435;0.8997;
1121.4000;0.3435;0.8919;
1121.7000;0.3451;0.8893;
1122.0000;0.3451;0.8842;
1122.3000;0.3435;0.8712;
1122.6000;0.3435;0.8738;
1122.9000;0.3460;0.8738;
1123.2000;0.3443;0.8790;
1123.5000;0.3435;0.8738;
1123.8000;0.3443;0.8816;
1124.1000;0.3411;0.8738;
1124.4000;0.3460;0.8867;
1124.7000;0.3427;0.8764;
1125.0000;0.3435;0.8790;
1125.3000;0.3443;0.8867;
1125.6000;0.3451;0.8919;
1125.9000;0.3370;0.8660;
1126.2000;0.3443;0.8867;
1126.5000;0.3460;0.8867;
1126.8000;0.3468;0.8919;
1127.1000;0.3443;0.8790;
1127.4000;0.3443;0.8816;
1127.7000;0.3427;0.8738;
1128.0000;0.3435;0.8608;
1128.3000;0.3460;0.8712;
1128.6000;0.3427;0.8660;
1128.9000;0.3443;0.8738;
1129.2000;0.3443;0.8790;
1129.5000;0.3443;0.8738;
1129.8000;0.3427;0.8790;
1130.1000;0.3435;0.8867;
1130.4000;0.3435;0.8867;
1130.7000;0.3427;0.8919;
1131.0000;0.3460;0.8867;
1131.3000;0.3460;0.8790;
1131.6000;0.3435;0.8738;
1131.9000;0.3451;0.8790;
1132.2000;0.3460;0.8764;
1132.5000;0.3443;0.8790;
1132.8000;0.3451;0.8893;
1133.1000;0.3516;0.9049;
1133.4000;0.3443;0.8842;
1133.7000;0.3435;0.8842;
1134.0000;0.3435;0.8842;
1134.3000;0.3443;0.8893;
1134.6000;0.3411;0.8893;
1134.9000;0.3443;0.8919;
1135.2000;0.3435;0.8997;
1135.5000;0.3435;0.9049;
1135.8000;0.3443;0.9101;
1136.1000;0.3427;0.9023;
1136.4000;0.3427;0.8893;
1136.7000;0.3435;0.8945;
1137.0000;0.3460;0.8893;
1137.3000;0.3533;0.9075;
1137.6000;0.3460;0.8790;
1137.9000;0.3451;0.8738;
1138.2000;0.3451;0.8738;
1138.5000;0.3451;0.8816;
1138.8000;0.3419;0.8686;
1139.1000;0.3427;0.8712;
1139.4000;0.3435;0.8686;
1139.7000;0.3533;0.8893;
1140.0000;0.3451;0.8660;
1140.3000;0.3427;0.8634;
1140.6000;0.3427;0.8582;
1140.9000;0.3435;0.8530;
1141.2000;0.3460;0.8582;
1141.5000;0.3525;0.8764;
1141.8000;0.3533;0.8816;
1142.1000;0.3443;0.8712;
1142.4000;0.3378;0.8582;
1142.7000;0.3427;0.8790;
1143.0000;0.3460;0.8945;
1143.3000;0.3435;0.8867;
1143.6000;0.3443;0.8867;
1143.9000;0.3435;0.8842;
1144.2000;0.3443;0.8919;
1144.5000;0.3443;0.8971;
1144.8000;0.3443;0.8867;
1145.1000;0.3443;0.8790;
1145.4000;0.3435;0.8634;
1145.7000;0.3435;0.8608;
1146.0000;0.3451;0.8738;
1146.3000;0.3451;0.8738;
1146.6000;0.3427;0.8790;
1146.9000;0.3492;0.8997;
1147.2000;0.3451;0.8893;
1147.5000;0.3468;0.8867;
1147.8000;0.3468;0.8867;
1148.1000;0.3460;0.8790;
1148.4000;0.3460;0.8790;
1148.7000;0.3460;0.8738;
1149.0000;0.3427;0.8686;
1149.3000;0.3435;0.8712;
1149.6000;0.3443;0.8738;
1149.9000;0.3435;0.8816;
1150.2000;0.3427;0.8686;
1150.5000;0.3435;0.8686;
1150.8000;0.3435;0.8712;
1151.1000;0.3419;0.8764;
1151.4000;0.3427;0.8764;
1151.7000;0.3427;0.8764;
1152.0000;0.3419;0.8738;
1152.3000;0.3460;0.8712;
1152.6000;0.3435;0.8634;
1152.9000;0.3435;0.8582;
1153.2000;0.3451;0.8582;
1153.5000;0.3394;0.8504;
1153.8000;0.3460;0.8660;
1154.1000;0.3419;0.8686;
1154.4000;0.3427;0.8712;
1154.7000;0.3435;0.8764;
1155.0000;0.3435;0.8712;
1155.3000;0.3427;0.8634;
1155.6000;0.3411;0.8556;
1155.9000;0.3443;0.8712;
1156.2000;0.3443;0.8790;
1156.5000;0.3443;0.8842;
1156.8000;0.3427;0.8790;
1157.1000;0.3443;0.8867;
1157.4000;0.3460;0.8893;
1157.7000;0.3443;0.8842;
1158.0000;0.3378;0.8660;
1158.3000;0.3451;0.8764;
1158.6000;0.3443;0.8712;
1158.9000;0.3468;0.8738;
1159.2000;0.3419;0.8608;
1159.5000;0.3451;0.8660;
1159.8000;0.3419;0.8608;
1160.1000;0.3451;0.8712;
1160.4000;0.3443;0.8660;
1160.7000;0.3435;0.8634;
1161.0000;0.3484;0.8790;
1161.3000;0.3451;0.8582;
1161.6000;0.3419;0.8401;
1161.9000;0.3451;0.8479;
1162.2000;0.3435;0.8530;
1162.5000;0.3435;0.8582;
1162.8000;0.3435;0.8634;
1163.1000;0.3443;0.8530;
1163.4000;0.3476;0.8582;
1163.7000;0.3443;0.8530;
1164.0000;0.3427;0.8582;
1164.3000;0.3443;0.8634;
1164.6000;0.3435;0.8764;
1164.9000;0.3443;0.8790;
1165.2000;0.3427;0.8790;
1165.5000;0.3427;0.8842;
1165.8000;0.3378;0.8712;
1166.1000;0.3443;0.8945;
1166.4000;0.3443;0.8893;
1166.7000;0.3411;0.8919;
1167.0000;0.3443;0.8919;
1167.3000;0.3435;0.8919;
1167.6000;0.3451;0.8893;
1167.9000;0.3476;0.8971;
1168.2000;0.3451;0.8867;
1168.5000;0.3443;0.8842;
1168.8000;0.3492;0.9075;
1169.1000;0.3451;0.8971;
1169.4000;0.3443;0.8867;
1169.7000;0.3419;0.8816;
1170.0000;0.3443;0.8867;
1170.3000;0.3427;0.8764;
1170.6000;0.3370;0.8530;
1170.9000;0.3435;0.8738;
1171.2000;0.3443;0.8738;
1171.5000;0.3468;0.8686;
1171.8000;0.3427;0.8582;
1172.1000;0.3435;0.8530;
1172.4000;0.3443;0.8634;
1172.7000;0.3435;0.8634;
1173.0000;0.3476;0.8686;
1173.3000;0.3451;0.8634;
1173.6000;0.3443;0.8660;
1173.9000;0.3403;0.8582;
1174.2000;0.3451;0.8660;
1174.5000;0.3435;0.8608;
1174.8000;0.3451;0.8608;
1175.1000;0.3460;0.8634;
1175.4000;0.3516;0.8790;
1175.7000;0.3443;0.8712;
1176.0000;0.3427;0.8712;
1176.3000;0.3451;0.8660;
1176.6000;0.3443;0.8712;
1176.9000;0.3435;0.8738;
1177.2000;0.3443;0.8738;
1177.5000;0.3443;0.8764;
1177.8000;0.3451;0.8764;
1178.1000;0.3443;0.8556;
1178.4000;0.3451;0.8556;
1178.7000;0.3451;0.8556;
1179.0000;0.3500;0.8764;
1179.3000;0.3435;0.8608;
1179.6000;0.3435;0.8712;
1179.9000;0.3443;0.8660;
1180.2000;0.3435;0.8660;
1180.5000;0.3378;0.8479;
1180.8000;0.3427;0.8660;
1181.1000;0.3435;0.8660;
1181.4000;0.3427;0.8660;
1181.7000;0.3451;0.8712;
1182.0000;0.3378;0.8479;
1182.3000;0.3443;0.8634;
1182.6000;0.3435;0.8608;
1182.9000;0.3419;0.8530;
1183.2000;0.3435;0.8660;
1183.5000;0.3443;0.8556;
1183.8000;0.3451;0.8608;
1184.1000;0.3435;0.8556;
1184.4000;0.3492;0.8712;
1184.7000;0.3460;0.8660;
1185.0000;0.3435;0.8556;
1185.3000;0.3451;0.8556;
1185.6000;0.3435;0.8530;
1185.9000;0.3435;0.8530;
1186.2000;0.3419;0.8504;
1186.5000;0.3460;0.8582;
1186.8000;0.3525;0.8738;
1187.1000;0.3435;0.8556;
1187.4000;0.3411;0.8453;
1187.7000;0.3427;0.8530;
1188.0000;0.3427;0.8608;
1188.3000;0.3427;0.8582;
1188.6000;0.3427;0.8634;
1188.9000;0.3476;0.8712;
1189.2000;0.3435;0.8712;
1189.5000;0.3427;0.8686;
1189.8000;0.3435;0.8634;
1190.1000;0.3443;0.8582;
1190.4000;0.3451;0.8582;
1190.7000;0.3451;0.8634;
1191.0000;0.3443;0.8530;
1191.3000;0.3435;0.8504;
1191.6000;0.3516;0.8660;
1191.9000;0.3508;0.8764;
1192.2000;0.3451;0.8634;
1192.5000;0.3427;0.8634;
1192.8000;0.3419;0.8608;
1193.1000;0.3460;0.8738;
1193.4000;0.3443;0.8686;
1193.7000;0.3460;0.8686;
1194.0000;0.3451;0.8738;
1194.3000;0.3451;0.8686;
1194.6000;0.3419;0.8660;
1194.9000;0.3419;0.8556;
1195.2000;0.3443;0.8556;
1195.5000;0.3443;0.8556;
1195.8000;0.3403;0.8504;
1196.1000;0.3411;0.8582;
1196.4000;0.3443;0.8582;
1196.7000;0.3460;0.8712;
1197.0000;0.3443;0.8764;
1197.3000;0.3443;0.8712;
1197.6000;0.3443;0.8686;
1197.9000;0.3443;0.8686;
1198.2000;0.3443;0.8790;
1198.5000;0.3435;0.8842;
1198.8000;0.3451;0.8842;
1199.1000;0.3443;0.8867;
1199.4000;0.3443;0.8867;
1199.7000;0.3443;0.8919;
1200.0000;0.3451;0.8997;
1200.3000;0.3451;0.8945;
1200.6000;0.3443;0.8893;
1200.9000;0.3460;0.8842;
1201.2000;0.3468;0.8764;
1201.5000;0.3394;0.8556;
1201.8000;0.3435;0.8660;
1202.1000;0.3451;0.8608;
1202.4000;0.3435;0.8608;
1202.7000;0.3443;0.8556;
1203.0000;0.3443;0.8608;
1203.3000;0.3443;0.8634;
1203.6000;0.3443;0.8608;
1203.9000;0.3460;0.8686;
1204.2000;0.3451;0.8608;
1204.5000;0.3451;0.8738;
1204.8000;0.3443;0.8634;
1205.1000;0.3443;0.8660;
1205.4000;0.3435;0.8738;
1205.7000;0.3443;0.8686;
1206.0000;0.3549;0.8971;
1206.3000;0.3435;0.8582;
1206.6000;0.3411;0.8530;
1206.9000;0.3451;0.8764;
1207.2000;0.3525;0.8945;
1207.5000;0.3435;0.8738;
1207.8000;0.3443;0.8790;
1208.1000;0.3443;0.8816;
1208.4000;0.3443;0.8764;
1208.7000;0.3411;0.8686;
1209.0000;0.3378;0.8556;
1209.3000;0.3476;0.8867;
1209.6000;0.3435;0.8790;
1209.9000;0.3468;0.8764;
1210.2000;0.3500;0.8842;
1210.5000;0.3427;0.8634;
1210.8000;0.3443;0.8712;
1211.1000;0.3435;0.8686;
1211.4000;0.3411;0.8608;
1211.7000;0.3451;0.8712;
1212.0000;0.3476;0.8842;
1212.3000;0.3451;0.8764;
1212.6000;0.3451;0.8712;
1212.9000;0.3443;0.8686;
1213.2000;0.3468;0.8764;
1213.5000;0.3468;0.8842;
1213.8000;0.3484;0.8867;
1214.1000;0.3443;0.8816;
1214.4000;0.3443;0.8867;
1214.7000;0.3435;0.8945;
1215.0000;0.3443;0.8945;
1215.3000;0.3427;0.8997;
1215.6000;0.3427;0.8919;
1215.9000;0.3443;0.8919;
1216.2000;0.3443;0.8867;
1216.5000;0.3427;0.8790;
1216.8000;0.3435;0.8945;
1217.1000;0.3411;0.8945;
1217.4000;0.3427;0.8997;
1217.7000;0.3451;0.9049;
1218.0000;0.3403;0.8971;
1218.3000;0.3451;0.9049;
1218.6000;0.3419;0.8919;
1218.9000;0.3427;0.8945;
1219.2000;0.3435;0.8893;
1219.5000;0.3378;0.8764;
1219.8000;0.3427;0.8867;
1220.1000;0.3443;0.8867;
1220.4000;0.3427;0.8842;
1220.7000;0.3435;0.8919;
1221.0000;0.3443;0.8997;
1221.3000;0.3419;0.8764;
1221.6000;0.3403;0.8738;
1221.9000;0.3435;0.8893;
1222.2000;0.3435;0.8893;
1222.5000;0.3435;0.8919;
1222.8000;0.3443;0.8945;
1223.1000;0.3435;0.8971;
1223.4000;0.3435;0.8971;
1223.7000;0.3451;0.8997;
1224.0000;0.3443;0.8971;
1224.3000;0.3451;0.8971;
1224.6000;0.3419;0.8945;
1224.9000;0.3435;0.8867;
1225.2000;0.3427;0.8867;
1225.5000;0.3427;0.8867;
1225.8000;0.3419;0.8842;
1226.1000;0.3394;0.8790;
1226.4000;0.3443;0.8816;
1226.7000;0.3427;0.8790;
1227.0000;0.3460;0.8893;
1227.3000;0.3451;0.8867;
1227.6000;0.3484;0.8971;
1227.9000;0.3435;0.8893;
1228.2000;0.3451;0.8867;
1228.5000;0.3443;0.8764;
1228.8000;0.3427;0.8712;
1229.1000;0.3419;0.8582;
1229.4000;0.3451;0.8686;
1229.7000;0.3460;0.8686;
1230.0000;0.3435;0.8634;
1230.3000;0.3451;0.8712;
1230.6000;0.3460;0.8764;
1230.9000;0.3451;0.8764;
1231.2000;0.3451;0.8893;
1231.5000;0.3427;0.8764;
1231.8000;0.3419;0.8790;
1232.1000;0.3378;0.8634;
1232.4000;0.3443;0.8893;
1232.7000;0.3435;0.8893;
1233.0000;0.3435;0.8919;
1233.3000;0.3451;0.8919;
1233.6000;0.3443;0.8867;
1233.9000;0.3435;0.8893;
1234.2000;0.3435;0.8867;
1234.5000;0.3435;0.8816;
1234.8000;0.3427;0.8816;
1235.1000;0.3435;0.8867;
1235.4000;0.3516;0.9127;
1235.7000;0.3427;0.8919;
1236.0000;0.3460;0.8867;
1236.3000;0.3451;0.8686;
1236.6000;0.3435;0.8660;
1236.9000;0.3451;0.8686;
1237.2000;0.3435;0.8738;
1237.5000;0.3468;0.8919;
1237.8000;0.3386;0.8738;
1238.1000;0.3403;0.8686;
1238.4000;0.3427;0.8816;
1238.7000;0.3460;0.8893;
1239.0000;0.3451;0.8842;
1239.3000;0.3443;0.8790;
1239.6000;0.3427;0.8867;
1239.9000;0.3394;0.8764;
1240.2000;0.3419;0.8919;
1240.5000;0.3460;0.8997;
1240.8000;0.3419;0.8919;
1241.1000;0.3451;0.9101;
1241.4000;0.3443;0.9075;
1241.7000;0.3451;0.8945;
1242.0000;0.3427;0.8971;
1242.3000;0.3435;0.8971;
1242.6000;0.3468;0.9127;
1242.9000;0.3435;0.8971;
1243.2000;0.3443;0.8945;
1243.5000;0.3435;0.8893;
1243.8000;0.3460;0.8790;
1244.1000;0.3427;0.8738;
1244.4000;0.3337;0.8556;
1244.7000;0.3451;0.8842;
1245.0000;0.3460;0.8893;
1245.3000;0.3443;0.8816;
1245.6000;0.3435;0.8764;
1245.9000;0.3411;0.8686;
1246.2000;0.3419;0.8686;
1246.5000;0.3427;0.8686;
1246.8000;0.3435;0.8686;
1247.1000;0.3419;0.8764;
1247.4000;0.3419;0.8790;
1247.7000;0.3435;0.8919;
1248.0000;0.3443;0.8997;
1248.3000;0.3435;0.8997;
1248.6000;0.3451;0.8997;
1248.9000;0.3468;0.8945;
1249.2000;0.3443;0.8893;
1249.5000;0.3443;0.8867;
1249.8000;0.3451;0.8893;
1250.1000;0.3549;0.9049;
1250.4000;0.3443;0.8712;
1250.7000;0.3451;0.8686;
1251.0000;0.3443;0.8712;
1251.3000;0.3435;0.8738;
1251.6000;0.3451;0.8842;
1251.9000;0.3435;0.8764;
1252.2000;0.3427;0.8738;
1252.5000;0.3451;0.8712;
1252.8000;0.3419;0.8634;
1253.1000;0.3435;0.8634;
1253.4000;0.3443;0.8634;
1253.7000;0.3451;0.8660;
1254.0000;0.3460;0.8686;
1254.3000;0.3443;0.8634;
1254.6000;0.3435;0.8686;
1254.9000;0.3443;0.8504;
1255.2000;0.3435;0.8427;
1255.5000;0.3460;0.8375;
1255.8000;0.3411;0.8193;
1256.1000;0.3427;0.8349;
1256.4000;0.3443;0.8427;
1256.7000;0.3460;0.8427;
1257.0000;0.3435;0.8504;
1257.3000;0.3435;0.8504;
1257.6000;0.3525;0.8764;
1257.9000;0.3435;0.8504;
1258.2000;0.3451;0.8556;
1258.5000;0.3443;0.8453;
1258.8000;0.3451;0.8453;
1259.1000;0.3443;0.8427;
1259.4000;0.3443;0.8453;
1259.7000;0.3443;0.8453;
1260.0000;0.3451;0.8479;
1260.3000;0.3451;0.8530;
1260.6000;0.3427;0.8453;
1260.9000;0.3451;0.8479;
1261.2000;0.3435;0.8453;
1261.5000;0.3443;0.8504;
1261.8000;0.3443;0.8530;
1262.1000;0.3435;0.8582;
1262.4000;0.3435;0.8556;
1262.7000;0.3443;0.8479;
1263.0000;0.3427;0.8427;
1263.3000;0.3435;0.8349;
1263.6000;0.3411;0.8349;
1263.9000;0.3443;0.8504;
1264.2000;0.3443;0.8582;
1264.5000;0.3443;0.8608;
1264.8000;0.3476;0.8660;
1265.1000;0.3460;0.8634;
1265.4000;0.3443;0.8582;
1265.7000;0.3443;0.8660;
1266.0000;0.3443;0.8712;
1266.3000;0.3427;0.8712;
1266.6000;0.3541;0.9075;
1266.9000;0.3451;0.8764;
1267.2000;0.3427;0.8686;
1267.5000;0.3435;0.8712;
1267.8000;0.3451;0.8738;
1268.1000;0.3435;0.8816;
1268.4000;0.3443;0.8842;
1268.7000;0.3468;0.8867;
1269.0000;0.3435;0.8816;
1269.3000;0.3427;0.8816;
1269.6000;0.3451;0.8712;
1269.9000;0.3435;0.8712;
1270.2000;0.3460;0.8790;
1270.5000;0.3451;0.8686;
1270.8000;0.3451;0.8634;
1271.1000;0.3394;0.8530;
1271.4000;0.3451;0.8660;
1271.7000;0.3460;0.8712;
1272.0000;0.3403;0.8582;
1272.3000;0.3443;0.8634;
1272.6000;0.3435;0.8634;
1272.9000;0.3427;0.8634;
1273.2000;0.3435;0.8764;
1273.5000;0.3419;0.8712;
1273.8000;0.3435;0.8764;
1274.1000;0.3468;0.8919;
1274.4000;0.3443;0.8738;
1274.7000;0.3435;0.8790;
1275.0000;0.3435;0.8790;
1275.3000;0.3451;0.8867;
1275.6000;0.3435;0.8738;
1275.9000;0.3443;0.8634;
1276.2000;0.3435;0.8608;
1276.5000;0.3419;0.8556;
1276.8000;0.3435;0.8608;
1277.1000;0.3435;0.8556;
1277.4000;0.3443;0.8556;
1277.7000;0.3427;0.8556;
1278.0000;0.3451;0.8556;
1278.3000;0.3451;0.8582;
1278.6000;0.3419;0.8582;
1278.9000;0.3435;0.8660;
1279.2000;0.3443;0.8556;
1279.5000;0.3435;0.8453;
1279.8000;0.3435;0.8504;
1280.1000;0.3337;0.8323;
1280.4000;0.3468;0.8686;
1280.7000;0.3468;0.8738;
1281.0000;0.3435;0.8686;
1281.3000;0.3468;0.8764;
1281.6000;0.3419;0.8608;
1281.9000;0.3460;0.8660;
1282.2000;0.3443;0.8686;
1282.5000;0.3443;0.8686;
1282.8000;0.3443;0.8712;
1283.1000;0.3460;0.8842;
1283.4000;0.3460;0.8842;
1283.7000;0.3427;0.8764;
1284.0000;0.3460;0.8738;
1284.3000;0.3468;0.8712;
1284.6000;0.3443;0.8738;
1284.9000;0.3419;0.8634;
1285.2000;0.3451;0.8764;
1285.5000;0.3451;0.8816;
1285.8000;0.3427;0.8686;
1286.1000;0.3419;0.8790;
1286.4000;0.3435;0.8790;
1286.7000;0.3443;0.8790;
1287.0000;0.3435;0.8764;
1287.3000;0.3443;0.8764;
1287.6000;0.3500;0.8867;
1287.9000;0.3443;0.8764;
1288.2000;0.3460;0.8816;
1288.5000;0.3451;0.8816;
1288.8000;0.3451;0.8790;
1289.1000;0.3460;0.8842;
1289.4000;0.3460;0.8867;
1289.7000;0.3443;0.8764;
1290.0000;0.3443;0.8790;
1290.3000;0.3427;0.8738;
1290.6000;0.3451;0.8790;
1290.9000;0.3460;0.8764;
1291.2000;0.3435;0.8738;
1291.5000;0.3435;0.8686;
1291.8000;0.3451;0.8634;
1292.1000;0.3443;0.8686;
1292.4000;0.3427;0.8712;
1292.7000;0.3468;0.8816;
1293.0000;0.3443;0.8712;
1293.3000;0.3451;0.8712;
1293.6000;0.3443;0.8790;
1293.9000;0.3443;0.8764;
1294.2000;0.3451;0.8790;
1294.5000;0.3451;0.8842;
1294.8000;0.3516;0.8971;
1295.1000;0.3460;0.8867;
1295.4000;0.3435;0.8919;
1295.7000;0.3451;0.8893;
1296.0000;0.3443;0.8816;
1296.3000;0.3435;0.8738;
1296.6000;0.3378;0.8582;
1296.9000;0.3435;0.8867;
1297.2000;0.3451;0.8919;
1297.5000;0.3419;0.8790;
1297.8000;0.3411;0.8634;
1298.1000;0.3427;0.8660;
1298.4000;0.3468;0.8686;
1298.7000;0.3411;0.8582;
1299.0000;0.3468;0.8686;
1299.3000;0.3427;0.8556;
1299.6000;0.3460;0.8712;
1299.9000;0.3419;0.8608;
1300.2000;0.3443;0.8530;
1300.5000;0.3451;0.8504;
1300.8000;0.3435;0.8556;
1301.1000;0.3533;0.8893;
1301.4000;0.3443;0.8686;
1301.7000;0.3435;0.8660;
1302.0000;0.3451;0.8842;
1302.3000;0.3451;0.8764;
1302.6000;0.3468;0.8738;
1302.9000;0.3403;0.8479;
1303.2000;0.3500;0.8738;
1303.5000;0.3451;0.8608;
1303.8000;0.3549;0.8816;
1304.1000;0.3427;0.8556;
1304.4000;0.3451;0.8634;
1304.7000;0.3443;0.8738;
1305.0000;0.3451;0.8842;
1305.3000;0.3443;0.8842;
1305.6000;0.3533;0.9049;
1305.9000;0.3386;0.8686;
1306.2000;0.3443;0.8816;
1306.5000;0.3435;0.8842;
1306.8000;0.3443;0.8842;
1307.1000;0.3419;0.8738;
1307.4000;0.3451;0.8686;
1307.7000;0.3435;0.8712;
1308.0000;0.3468;0.8790;
1308.3000;0.3443;0.8712;
1308.6000;0.3443;0.8738;
1308.9000;0.3427;0.8660;
1309.2000;0.3427;0.8556;
1309.5000;0.3443;0.8608;
1309.8000;0.3468;0.8712;
1310.1000;0.3451;0.8686;
1310.4000;0.3451;0.8686;
1310.7000;0.3435;0.8660;
1311.0000;0.3435;0.8686;
1311.3000;0.3443;0.8764;
1311.6000;0.3419;0.8764;
1311.9000;0.3419;0.8686;
1312.2000;0.3435;0.8738;
1312.5000;0.3451;0.8738;
1312.8000;0.3435;0.8686;
1313.1000;0.3427;0.8660;
1313.4000;0.3460;0.8686;
1313.7000;0.3451;0.8712;
1314.0000;0.3435;0.8608;
1314.3000;0.3427;0.8608;
1314.6000;0.3435;0.8660;
1314.9000;0.3427;0.8738;
1315.2000;0.3468;0.8867;
1315.5000;0.3435;0.8842;
1315.8000;0.3394;0.8738;
1316.1000;0.3411;0.8764;
1316.4000;0.3427;0.8764;
1316.7000;0.3451;0.8867;
1317.0000;0.3362;0.8556;
1317.3000;0.3516;0.9049;
1317.6000;0.3419;0.8738;
1317.9000;0.3419;0.8686;
1318.2000;0.3435;0.8712;
1318.5000;0.3427;0.8686;
1318.8000;0.3419;0.8634;
1319.1000;0.3427;0.8634;
1319.4000;0.3435;0.8634;
1319.7000;0.3427;0.8582;
1320.0000;0.3443;0.8660;
1320.3000;0.3451;0.8660;
1320.6000;0.3451;0.8686;
1320.9000;0.3435;0.8712;
1321.2000;0.3435;0.8712;
1321.5000;0.3468;0.8842;
1321.8000;0.3419;0.8738;
1322.1000;0.3443;0.8790;
1322.4000;0.3419;0.8867;
1322.7000;0.3419;0.8867;
1323.0000;0.3435;0.8893;
1323.3000;0.3443;0.8867;
1323.6000;0.3590;0.9179;
1323.9000;0.3443;0.8790;
1324.2000;0.3516;0.8997;
1324.5000;0.3443;0.8842;
1324.8000;0.3460;0.8945;
1325.1000;0.3484;0.8997;
1325.4000;0.3451;0.8945;
1325.7000;0.3443;0.8842;
1326.0000;0.3443;0.8790;
1326.3000;0.3451;0.8867;
1326.6000;0.3443;0.8919;
1326.9000;0.3443;0.8945;
1327.2000;0.3443;0.8945;
1327.5000;0.3435;0.8893;
1327.8000;0.3403;0.8764;
1328.1000;0.3435;0.8790;
1328.4000;0.3443;0.8816;
1328.7000;0.3451;0.8816;
1329.0000;0.3435;0.8816;
1329.3000;0.3443;0.8790;
1329.6000;0.3386;0.8686;
1329.9000;0.3451;0.8790;
1330.2000;0.3443;0.8893;
1330.5000;0.3435;0.8893;
1330.8000;0.3427;0.8816;
1331.1000;0.3435;0.8816;
1331.4000;0.3443;0.8867;
1331.7000;0.3427;0.8764;
1332.0000;0.3468;0.8893;
1332.3000;0.3443;0.8867;
1332.6000;0.3435;0.8867;
1332.9000;0.3460;0.8919;
1333.2000;0.3435;0.8893;
1333.5000;0.3443;0.9023;
1333.8000;0.3435;0.8971;
1334.1000;0.3443;0.8971;
1334.4000;0.3451;0.8919;
1334.7000;0.3451;0.8842;
1335.0000;0.3451;0.8842;
1335.3000;0.3435;0.8842;
1335.6000;0.3419;0.8893;
1335.9000;0.3443;0.8971;
1336.2000;0.3427;0.8893;
1336.5000;0.3427;0.8893;
1336.8000;0.3419;0.8867;
1337.1000;0.3427;0.8842;
1337.4000;0.3411;0.8816;
1337.7000;0.3427;0.8842;
1338.0000;0.3451;0.8867;
1338.3000;0.3370;0.8608;
1338.6000;0.3451;0.8738;
1338.9000;0.3451;0.8712;
1339.2000;0.3419;0.8608;
1339.5000;0.3443;0.8686;
1339.8000;0.3403;0.8660;
1340.1000;0.3443;0.8842;
1340.4000;0.3443;0.8867;
1340.7000;0.3451;0.8945;
1341.0000;0.3460;0.8997;
1341.3000;0.3443;0.8971;
1341.6000;0.3451;0.8893;
1341.9000;0.3419;0.8712;
1342.2000;0.3427;0.8686;
1342.5000;0.3427;0.8686;
1342.8000;0.3411;0.8660;
1343.1000;0.3443;0.8738;
1343.4000;0.3443;0.8712;
1343.7000;0.3484;0.8790;
1344.0000;0.3451;0.8686;
1344.3000;0.3460;0.8790;
1344.6000;0.3460;0.8893;
1344.9000;0.3435;0.8919;
1345.2000;0.3468;0.8919;
1345.5000;0.3451;0.8842;
1345.8000;0.3435;0.8867;
1346.1000;0.3460;0.8842;
1346.4000;0.3435;0.8738;
1346.7000;0.3443;0.8764;
1347.0000;0.3460;0.8738;
1347.3000;0.3435;0.8712;
1347.6000;0.3427;0.8686;
1347.9000;0.3460;0.8738;
1348.2000;0.3443;0.8686;
1348.5000;0.3427;0.8660;
1348.8000;0.3435;0.8712;
1349.1000;0.3435;0.8764;
1349.4000;0.3460;0.8867;
1349.7000;0.3443;0.8867;
1350.0000;0.3427;0.8790;
1350.3000;0.3443;0.8867;
1350.6000;0.3443;0.8842;
1350.9000;0.3419;0.8764;
1351.2000;0.3443;0.8842;
1351.5000;0.3394;0.8764;
1351.8000;0.3443;0.8893;
1352.1000;0.3451;0.8842;
1352.4000;0.3427;0.8738;
1352.7000;0.3427;0.8790;
1353.0000;0.3443;0.8919;
1353.3000;0.3435;0.8893;
1353.6000;0.3435;0.8919;
1353.9000;0.3419;0.8867;
1354.2000;0.3435;0.8971;
1354.5000;0.3451;0.9023;
1354.8000;0.3427;0.8919;
1355.1000;0.3427;0.8893;
1355.4000;0.3443;0.8971;
1355.7000;0.3451;0.8971;
1356.0000;0.3443;0.9023;
1356.3000;0.3451;0.9023;
1356.6000;0.3411;0.8919;
1356.9000;0.3476;0.9153;
1357.2000;0.3443;0.8945;
1357.5000;0.3435;0.8971;
1357.8000;0.3427;0.8867;
1358.1000;0.3362;0.8660;
1358.4000;0.3427;0.8790;
1358.7000;0.3427;0.8738;
1359.0000;0.3435;0.8634;
1359.3000;0.3443;0.8790;
1359.6000;0.3443;0.8867;
1359.9000;0.3419;0.8842;
1360.2000;0.3427;0.8945;
1360.5000;0.3427;0.9023;
1360.8000;0.3427;0.9179;
1361.1000;0.3443;0.9101;
1361.4000;0.3427;0.9127;
1361.7000;0.3435;0.9127;
1362.0000;0.3443;0.9049;
1362.3000;0.3443;0.8997;
1362.6000;0.3460;0.9049;
1362.9000;0.3435;0.8919;
1363.2000;0.3427;0.8893;
1363.5000;0.3435;0.8919;
1363.8000;0.3443;0.8893;
1364.1000;0.3460;0.8867;
1364.4000;0.3427;0.8712;
1364.7000;0.3394;0.8634;
1365.0000;0.3451;0.8686;
1365.3000;0.3435;0.8712;
1365.6000;0.3435;0.8790;
1365.9000;0.3435;0.8764;
1366.2000;0.3451;0.8686;
1366.5000;0.3427;0.8660;
1366.8000;0.3427;0.8634;
1367.1000;0.3419;0.8504;
1367.4000;0.3419;0.8608;
1367.7000;0.3427;0.8660;
1368.0000;0.3435;0.8712;
1368.3000;0.3451;0.8712;
1368.6000;0.3484;0.8867;
1368.9000;0.3427;0.8738;
1369.2000;0.3443;0.8686;
1369.5000;0.3451;0.8790;
1369.8000;0.3451;0.8790;
1370.1000;0.3427;0.8738;
1370.4000;0.3435;0.8738;
1370.7000;0.3419;0.8764;
1371.0000;0.3435;0.8867;
1371.3000;0.3443;0.8738;
1371.6000;0.3435;0.8712;
1371.9000;0.3427;0.8764;
1372.2000;0.3451;0.8842;
1372.5000;0.3435;0.8790;
1372.8000;0.3419;0.8764;
1373.1000;0.3443;0.8816;
1373.4000;0.3460;0.8919;
1373.7000;0.3435;0.8842;
1374.0000;0.3451;0.8842;
1374.3000;0.3403;0.8660;
1374.6000;0.3451;0.8945;
1374.9000;0.3435;0.8893;
1375.2000;0.3427;0.8790;
1375.5000;0.3403;0.8816;
1375.8000;0.3435;0.8893;
1376.1000;0.3443;0.8842;
1376.4000;0.3435;0.8738;
1376.7000;0.3427;0.8634;
1377.0000;0.3451;0.8608;
1377.3000;0.3460;0.8582;
1377.6000;0.3460;0.8660;
1377.9000;0.3427;0.8634;
1378.2000;0.3451;0.8582;
1378.5000;0.3451;0.8634;
1378.8000;0.3435;0.8556;
1379.1000;0.3443;0.8608;
1379.4000;0.3468;0.8686;
1379.7000;0.3443;0.8608;
1380.0000;0.3468;0.8582;
1380.3000;0.3460;0.8660;
1380.6000;0.3492;0.8712;
1380.9000;0.3460;0.8634;
1381.2000;0.3508;0.8764;
1381.5000;0.3427;0.8556;
1381.8000;0.3435;0.8556;
1382.1000;0.3460;0.8608;
1382.4000;0.3443;0.8608;
1382.7000;0.3411;0.8660;
1383.0000;0.3435;0.8660;
1383.3000;0.3435;0.8712;
1383.6000;0.3460;0.8790;
1383.9000;0.3451;0.8790;
1384.2000;0.3451;0.8738;
1384.5000;0.3435;0.8738;
1384.8000;0.3411;0.8660;
1385.1000;0.3500;0.8790;
1385.4000;0.3435;0.8712;
1385.7000;0.3427;0.8686;
1386.0000;0.3427;0.8660;
1386.3000;0.3435;0.8738;
1386.6000;0.3427;0.8686;
1386.9000;0.3411;0.8660;
1387.2000;0.3427;0.8712;
1387.5000;0.3492;0.8971;
1387.8000;0.3419;0.8790;
1388.1000;0.3386;0.8634;
1388.4000;0.3443;0.8867;
1388.7000;0.3622;0.9308;
1389.0000;0.3443;0.8764;
1389.3000;0.3451;0.8764;
1389.6000;0.3451;0.8738;
1389.9000;0.3419;0.8712;
1390.2000;0.3451;0.8816;
1390.5000;0.3451;0.8738;
1390.8000;0.3435;0.8686;
1391.1000;0.3435;0.8738;
1391.4000;0.3435;0.8790;
1391.7000;0.3419;0.8738;
1392.0000;0.3443;0.8867;
1392.3000;0.3435;0.8893;
1392.6000;0.3427;0.8764;
1392.9000;0.3468;0.8867;
1393.2000;0.3435;0.8764;
1393.5000;0.3435;0.8712;
1393.8000;0.3451;0.8893;
1394.1000;0.3435;0.8971;
1394.4000;0.3427;0.8893;
1394.7000;0.3460;0.8945;
1395.0000;0.3460;0.8945;
1395.3000;0.3427;0.8842;
1395.6000;0.3443;0.8893;
1395.9000;0.3435;0.8764;
1396.2000;0.3419;0.8738;
1396.5000;0.3451;0.8790;
1396.8000;0.3468;0.8842;
1397.1000;0.3443;0.8764;
1397.4000;0.3435;0.8738;
1397.7000;0.3435;0.8738;
1398.0000;0.3443;0.8712;
1398.3000;0.3427;0.8738;
1398.6000;0.3443;0.8816;
1398.9000;0.3460;0.8816;
1399.2000;0.3460;0.8738;
1399.5000;0.3435;0.8660;
1399.8000;0.3435;0.8686;
