time/ms;Fluo/V;P700 deltaI/I x10³;
-199.8000;0.3940;0.7415;
-199.5000;0.3956;0.7390;
-199.2000;0.3948;0.7467;
-198.9000;0.3980;0.7441;
-198.6000;0.3972;0.7467;
-198.3000;0.3956;0.7415;
-198.0000;0.3948;0.7415;
-197.7000;0.3956;0.7441;
-197.4000;0.3948;0.7415;
-197.1000;0.3956;0.7415;
-196.8000;0.3956;0.7364;
-196.5000;0.3972;0.7364;
-196.2000;0.3964;0.7415;
-195.9000;0.3980;0.7415;
-195.6000;0.3964;0.7441;
-195.3000;0.3972;0.7441;
-195.0000;0.3948;0.7467;
-194.7000;0.3956;0.7415;
-194.4000;0.3956;0.7441;
-194.1000;0.3956;0.7467;
-193.8000;0.3940;0.7493;
-193.5000;0.3948;0.7493;
-193.2000;0.3956;0.7441;
-192.9000;0.3956;0.7441;
-192.6000;0.3964;0.7493;
-192.3000;0.3956;0.7519;
-192.0000;0.4005;0.7675;
-191.7000;0.3964;0.7441;
-191.4000;0.3883;0.7208;
-191.1000;0.3972;0.7467;
-190.8000;0.3956;0.7493;
-190.5000;0.3956;0.7545;
-190.2000;0.3956;0.7623;
-189.9000;0.3980;0.7675;
-189.6000;0.3948;0.7545;
-189.3000;0.3932;0.7519;
-189.0000;0.3964;0.7649;
-188.7000;0.3964;0.7623;
-188.4000;0.3891;0.7415;
-188.1000;0.3956;0.7649;
-187.8000;0.3964;0.7701;
-187.5000;0.3964;0.7675;
-187.2000;0.3948;0.7545;
-186.9000;0.3948;0.7519;
-186.6000;0.3964;0.7545;
-186.3000;0.3964;0.7571;
-186.0000;0.3964;0.7623;
-185.7000;0.3948;0.7545;
-185.4000;0.3964;0.7545;
-185.1000;0.3923;0.7390;
-184.8000;0.3948;0.7493;
-184.5000;0.3956;0.7467;
-184.2000;0.3956;0.7519;
-183.9000;0.3964;0.7519;
-183.6000;0.3940;0.7467;
-183.3000;0.3956;0.7545;
-183.0000;0.3948;0.7519;
-182.7000;0.3964;0.7649;
-182.4000;0.3964;0.7623;
-182.1000;0.3940;0.7467;
-181.8000;0.3997;0.7623;
-181.5000;0.3956;0.7545;
-181.2000;0.3964;0.7519;
-180.9000;0.3964;0.7597;
-180.6000;0.3956;0.7519;
-180.3000;0.4037;0.7753;
-180.0000;0.3956;0.7597;
-179.7000;0.3956;0.7649;
-179.4000;0.3964;0.7727;
-179.1000;0.3964;0.7804;
-178.8000;0.4021;0.7882;
-178.5000;0.3989;0.7856;
-178.2000;0.3956;0.7804;
-177.9000;0.3972;0.7753;
-177.6000;0.3915;0.7519;
-177.3000;0.3964;0.7701;
-177.0000;0.3956;0.7727;
-176.7000;0.3940;0.7727;
-176.4000;0.3948;0.7778;
-176.1000;0.3972;0.7778;
-175.8000;0.3940;0.7804;
-175.5000;0.3980;0.7934;
-175.2000;0.3964;0.7934;
-174.9000;0.3956;0.7960;
-174.6000;0.3956;0.7882;
-174.3000;0.3964;0.7830;
-174.0000;0.3932;0.7701;
-173.7000;0.3956;0.7727;
-173.4000;0.3964;0.7727;
-173.1000;0.3964;0.7675;
-172.8000;0.3956;0.7649;
-172.5000;0.3964;0.7701;
-172.2000;0.3972;0.7701;
-171.9000;0.3956;0.7649;
-171.6000;0.3972;0.7701;
-171.3000;0.3956;0.7675;
-171.0000;0.3972;0.7778;
-170.7000;0.3940;0.7597;
-170.4000;0.3948;0.7597;
-170.1000;0.3956;0.7675;
-169.8000;0.4062;0.8012;
-169.5000;0.3915;0.7571;
-169.2000;0.3940;0.7623;
-168.9000;0.3956;0.7701;
-168.6000;0.3956;0.7727;
-168.3000;0.3972;0.7701;
-168.0000;0.3956;0.7753;
-167.7000;0.3964;0.7753;
-167.4000;0.3956;0.7778;
-167.1000;0.3972;0.7908;
-166.8000;0.3964;0.7908;
-166.5000;0.3964;0.7882;
-166.2000;0.3956;0.7830;
-165.9000;0.3972;0.7804;
-165.6000;0.3989;0.7778;
-165.3000;0.3858;0.7364;
-165.0000;0.3956;0.7597;
-164.7000;0.3972;0.7675;
-164.4000;0.3948;0.7597;
-164.1000;0.3940;0.7649;
-163.8000;0.3940;0.7649;
-163.5000;0.3940;0.7649;
-163.2000;0.3964;0.7675;
-162.9000;0.3940;0.7597;
-162.6000;0.3964;0.7727;
-162.3000;0.3964;0.7623;
-162.0000;0.3956;0.7623;
-161.7000;0.3989;0.7701;
-161.4000;0.3956;0.7597;
-161.1000;0.3972;0.7675;
-160.8000;0.3940;0.7623;
-160.5000;0.3948;0.7623;
-160.2000;0.3932;0.7519;
-159.9000;0.3956;0.7545;
-159.6000;0.3940;0.7545;
-159.3000;0.3980;0.7675;
-159.0000;0.3956;0.7675;
-158.7000;0.3972;0.7753;
-158.4000;0.3940;0.7623;
-158.1000;0.3956;0.7623;
-157.8000;0.3940;0.7597;
-157.5000;0.3956;0.7701;
-157.2000;0.3964;0.7727;
-156.9000;0.3964;0.7778;
-156.6000;0.3964;0.7908;
-156.3000;0.3980;0.7934;
-156.0000;0.3972;0.7960;
-155.7000;0.3948;0.7882;
-155.4000;0.3940;0.7804;
-155.1000;0.3948;0.7701;
-154.8000;0.4005;0.7830;
-154.5000;0.3915;0.7649;
-154.2000;0.3980;0.7856;
-153.9000;0.3940;0.7727;
-153.6000;0.3972;0.7778;
-153.3000;0.3923;0.7753;
-153.0000;0.3972;0.7882;
-152.7000;0.3980;0.7934;
-152.4000;0.4046;0.8193;
-152.1000;0.3940;0.7856;
-151.8000;0.3972;0.7908;
-151.5000;0.3964;0.7882;
-151.2000;0.3980;0.7908;
-150.9000;0.3964;0.7882;
-150.6000;0.3997;0.7960;
-150.3000;0.3858;0.7519;
-150.0000;0.3956;0.7753;
-149.7000;0.3956;0.7778;
-149.4000;0.3972;0.7804;
-149.1000;0.3956;0.7753;
-148.8000;0.3956;0.7727;
-148.5000;0.3972;0.7701;
-148.2000;0.3932;0.7675;
-147.9000;0.3972;0.7701;
-147.6000;0.3948;0.7597;
-147.3000;0.3948;0.7727;
-147.0000;0.3964;0.7778;
-146.7000;0.3956;0.7830;
-146.4000;0.3891;0.7701;
-146.1000;0.3932;0.7934;
-145.8000;0.3956;0.7856;
-145.5000;0.3875;0.7675;
-145.2000;0.3948;0.7830;
-144.9000;0.3948;0.7727;
-144.6000;0.3948;0.7649;
-144.3000;0.3875;0.7390;
-144.0000;0.3940;0.7623;
-143.7000;0.3891;0.7519;
-143.4000;0.3948;0.7623;
-143.1000;0.3964;0.7649;
-142.8000;0.3989;0.7701;
-142.5000;0.3956;0.7649;
-142.2000;0.3948;0.7519;
-141.9000;0.4070;0.7804;
-141.6000;0.3964;0.7597;
-141.3000;0.3972;0.7623;
-141.0000;0.3956;0.7597;
-140.7000;0.3964;0.7623;
-140.4000;0.3980;0.7649;
-140.1000;0.3956;0.7623;
-139.8000;0.3940;0.7623;
-139.5000;0.3940;0.7623;
-139.2000;0.3972;0.7701;
-138.9000;0.3956;0.7727;
-138.6000;0.3940;0.7701;
-138.3000;0.3956;0.7727;
-138.0000;0.3956;0.7804;
-137.7000;0.3956;0.7778;
-137.4000;0.3956;0.7675;
-137.1000;0.3956;0.7675;
-136.8000;0.3956;0.7701;
-136.5000;0.3948;0.7675;
-136.2000;0.3964;0.7649;
-135.9000;0.3964;0.7675;
-135.6000;0.3964;0.7623;
-135.3000;0.3932;0.7545;
-135.0000;0.3956;0.7519;
-134.7000;0.3940;0.7441;
-134.4000;0.3948;0.7545;
-134.1000;0.3956;0.7571;
-133.8000;0.3964;0.7597;
-133.5000;0.3956;0.7649;
-133.2000;0.3964;0.7649;
-132.9000;0.3948;0.7623;
-132.6000;0.3964;0.7623;
-132.3000;0.3940;0.7545;
-132.0000;0.3948;0.7545;
-131.7000;0.3956;0.7571;
-131.4000;0.3923;0.7545;
-131.1000;0.3932;0.7649;
-130.8000;0.3948;0.7649;
-130.5000;0.3940;0.7649;
-130.2000;0.3956;0.7649;
-129.9000;0.3948;0.7649;
-129.6000;0.3940;0.7675;
-129.3000;0.3948;0.7649;
-129.0000;0.3956;0.7675;
-128.7000;0.3948;0.7675;
-128.4000;0.4021;0.7960;
-128.1000;0.3948;0.7753;
-127.8000;0.3940;0.7753;
-127.5000;0.3940;0.7649;
-127.2000;0.3891;0.7493;
-126.9000;0.4021;0.7778;
-126.6000;0.3948;0.7649;
-126.3000;0.3940;0.7649;
-126.0000;0.3932;0.7623;
-125.7000;0.3964;0.7675;
-125.4000;0.3956;0.7727;
-125.1000;0.3972;0.7701;
-124.8000;0.3940;0.7623;
-124.5000;0.3923;0.7597;
-124.2000;0.3932;0.7545;
-123.9000;0.4021;0.7908;
-123.6000;0.3948;0.7753;
-123.3000;0.3964;0.7778;
-123.0000;0.3948;0.7778;
-122.7000;0.3997;0.7882;
-122.4000;0.3964;0.7908;
-122.1000;0.3948;0.7856;
-121.8000;0.3907;0.7675;
-121.5000;0.3948;0.7778;
-121.2000;0.3964;0.7804;
-120.9000;0.3940;0.7753;
-120.6000;0.3956;0.7778;
-120.3000;0.3948;0.7804;
-120.0000;0.3948;0.7753;
-119.7000;0.4013;0.8038;
-119.4000;0.3932;0.7778;
-119.1000;0.3956;0.7830;
-118.8000;0.3948;0.7804;
-118.5000;0.3956;0.7830;
-118.2000;0.3956;0.7856;
-117.9000;0.3915;0.7727;
-117.6000;0.3956;0.7856;
-117.3000;0.3964;0.7753;
-117.0000;0.3940;0.7649;
-116.7000;0.4037;0.7908;
-116.4000;0.3948;0.7675;
-116.1000;0.3956;0.7649;
-115.8000;0.3956;0.7649;
-115.5000;0.3956;0.7597;
-115.2000;0.3948;0.7727;
-114.9000;0.3964;0.7778;
-114.6000;0.3964;0.7804;
-114.3000;0.3956;0.7856;
-114.0000;0.3948;0.7778;
-113.7000;0.3948;0.7675;
-113.4000;0.3956;0.7675;
-113.1000;0.3948;0.7675;
-112.8000;0.3964;0.7778;
-112.5000;0.3980;0.7934;
-112.2000;0.3989;0.7960;
-111.9000;0.3964;0.7960;
-111.6000;0.3956;0.7934;
-111.3000;0.3956;0.7934;
-111.0000;0.3956;0.7882;
-110.7000;0.3932;0.7856;
-110.4000;0.3956;0.7882;
-110.1000;0.3948;0.7830;
-109.8000;0.3948;0.7778;
-109.5000;0.3932;0.7701;
-109.2000;0.3948;0.7778;
-108.9000;0.3940;0.7804;
-108.6000;0.3907;0.7701;
-108.3000;0.3964;0.7753;
-108.0000;0.3956;0.7778;
-107.7000;0.3956;0.7830;
-107.4000;0.3948;0.7727;
-107.1000;0.3956;0.7804;
-106.8000;0.3964;0.7882;
-106.5000;0.3948;0.7856;
-106.2000;0.3964;0.7856;
-105.9000;0.3997;0.7804;
-105.6000;0.4013;0.7934;
-105.3000;0.3956;0.7856;
-105.0000;0.3972;0.7934;
-104.7000;0.3964;0.7778;
-104.4000;0.3956;0.7830;
-104.1000;0.4070;0.8219;
-103.8000;0.3948;0.7882;
-103.5000;0.3956;0.7908;
-103.2000;0.3972;0.8012;
-102.9000;0.3883;0.7778;
-102.6000;0.3956;0.7986;
-102.3000;0.3956;0.7856;
-102.0000;0.3940;0.7623;
-101.7000;0.3948;0.7571;
-101.4000;0.3948;0.7519;
-101.1000;0.3940;0.7467;
-100.8000;0.3940;0.7571;
-100.5000;0.3948;0.7597;
-100.2000;0.3940;0.7623;
-99.9000;0.3997;0.7778;
-99.6000;0.3948;0.7727;
-99.3000;0.3956;0.7753;
-99.0000;0.3940;0.7675;
-98.7000;0.3948;0.7753;
-98.4000;0.3964;0.7701;
-98.1000;0.3948;0.7778;
-97.8000;0.3923;0.7753;
-97.5000;0.3940;0.7830;
-97.2000;0.3956;0.7986;
-96.9000;0.3964;0.8012;
-96.6000;0.3948;0.8012;
-96.3000;0.3956;0.8012;
-96.0000;0.3948;0.8012;
-95.7000;0.3932;0.7882;
-95.4000;0.3948;0.7882;
-95.1000;0.3948;0.7830;
-94.8000;0.3956;0.7908;
-94.5000;0.3956;0.7856;
-94.2000;0.3948;0.7882;
-93.9000;0.3940;0.7830;
-93.6000;0.3964;0.7856;
-93.3000;0.3948;0.7908;
-93.0000;0.3956;0.7830;
-92.7000;0.3972;0.7960;
-92.4000;0.3932;0.7934;
-92.1000;0.3956;0.7986;
-91.8000;0.3964;0.8012;
-91.5000;0.3964;0.7960;
-91.2000;0.3964;0.8038;
-90.9000;0.3956;0.7986;
-90.6000;0.3940;0.7934;
-90.3000;0.3948;0.7908;
-90.0000;0.3964;0.7856;
-89.7000;0.3923;0.7701;
-89.4000;0.3980;0.7804;
-89.1000;0.3956;0.7649;
-88.8000;0.3964;0.7623;
-88.5000;0.3956;0.7545;
-88.2000;0.3956;0.7493;
-87.9000;0.3989;0.7571;
-87.6000;0.3883;0.7364;
-87.3000;0.3948;0.7597;
-87.0000;0.3972;0.7597;
-86.7000;0.3883;0.7312;
-86.4000;0.3964;0.7519;
-86.1000;0.3972;0.7390;
-85.8000;0.3964;0.7338;
-85.5000;0.3948;0.7312;
-85.2000;0.3964;0.7415;
-84.9000;0.3891;0.7182;
-84.6000;0.3980;0.7493;
-84.3000;0.3980;0.7519;
-84.0000;0.3956;0.7415;
-83.7000;0.3956;0.7338;
-83.4000;0.3940;0.7338;
-83.1000;0.3948;0.7415;
-82.8000;0.3940;0.7441;
-82.5000;0.3964;0.7415;
-82.2000;0.3964;0.7467;
-81.9000;0.3972;0.7623;
-81.6000;0.3956;0.7649;
-81.3000;0.3956;0.7623;
-81.0000;0.3989;0.7804;
-80.7000;0.3972;0.7753;
-80.4000;0.3940;0.7623;
-80.1000;0.3956;0.7649;
-79.8000;0.3956;0.7753;
-79.5000;0.3948;0.7701;
-79.2000;0.3907;0.7649;
-78.9000;0.3964;0.7804;
-78.6000;0.3956;0.7804;
-78.3000;0.3956;0.7778;
-78.0000;0.3932;0.7753;
-77.7000;0.3972;0.7856;
-77.4000;0.3932;0.7675;
-77.1000;0.3956;0.7804;
-76.8000;0.3980;0.7856;
-76.5000;0.3964;0.7804;
-76.2000;0.3940;0.7701;
-75.9000;0.3948;0.7649;
-75.6000;0.3940;0.7623;
-75.3000;0.3948;0.7675;
-75.0000;0.3948;0.7623;
-74.7000;0.3964;0.7701;
-74.4000;0.3964;0.7701;
-74.1000;0.3948;0.7727;
-73.8000;0.3956;0.7753;
-73.5000;0.3940;0.7753;
-73.2000;0.3964;0.7882;
-72.9000;0.3956;0.7856;
-72.6000;0.3940;0.7856;
-72.3000;0.3923;0.7804;
-72.0000;0.3956;0.7934;
-71.7000;0.3997;0.8012;
-71.4000;0.3964;0.7856;
-71.1000;0.4021;0.8012;
-70.8000;0.3948;0.7856;
-70.5000;0.3940;0.7934;
-70.2000;0.3956;0.7908;
-69.9000;0.3964;0.7934;
-69.6000;0.3948;0.7830;
-69.3000;0.3980;0.7778;
-69.0000;0.3956;0.7701;
-68.7000;0.3932;0.7675;
-68.4000;0.3956;0.7649;
-68.1000;0.3883;0.7519;
-67.8000;0.3964;0.7701;
-67.5000;0.3940;0.7675;
-67.2000;0.3964;0.7753;
-66.9000;0.3956;0.7804;
-66.6000;0.3891;0.7623;
-66.3000;0.3948;0.7804;
-66.0000;0.3956;0.7856;
-65.7000;0.3948;0.7804;
-65.4000;0.3948;0.7830;
-65.1000;0.3956;0.7830;
-64.8000;0.3956;0.7882;
-64.5000;0.3964;0.7908;
-64.2000;0.3948;0.7804;
-63.9000;0.3997;0.7908;
-63.6000;0.3932;0.7571;
-63.3000;0.3948;0.7649;
-63.0000;0.3956;0.7701;
-62.7000;0.3940;0.7675;
-62.4000;0.3956;0.7778;
-62.1000;0.3956;0.7727;
-61.8000;0.3956;0.7727;
-61.5000;0.3948;0.7856;
-61.2000;0.4005;0.8038;
-60.9000;0.3948;0.7960;
-60.6000;0.3997;0.8064;
-60.3000;0.3956;0.7934;
-60.0000;0.3948;0.7830;
-59.7000;0.3932;0.7804;
-59.4000;0.3948;0.7908;
-59.1000;0.3964;0.7960;
-58.8000;0.3940;0.8038;
-58.5000;0.3948;0.7934;
-58.2000;0.3956;0.7908;
-57.9000;0.3956;0.7856;
-57.6000;0.3948;0.7908;
-57.3000;0.3956;0.7856;
-57.0000;0.3964;0.7934;
-56.7000;0.3948;0.7934;
-56.4000;0.3948;0.7882;
-56.1000;0.3932;0.7804;
-55.8000;0.3932;0.7778;
-55.5000;0.3972;0.7830;
-55.2000;0.3964;0.7753;
-54.9000;0.3948;0.7727;
-54.6000;0.3956;0.7727;
-54.3000;0.3956;0.7753;
-54.0000;0.3964;0.7830;
-53.7000;0.3989;0.7882;
-53.4000;0.3956;0.7804;
-53.1000;0.3940;0.7778;
-52.8000;0.3948;0.7778;
-52.5000;0.3940;0.7753;
-52.2000;0.3948;0.7727;
-51.9000;0.3948;0.7701;
-51.6000;0.3964;0.7753;
-51.3000;0.3972;0.7753;
-51.0000;0.3940;0.7675;
-50.7000;0.3907;0.7649;
-50.4000;0.3964;0.7804;
-50.1000;0.3964;0.7804;
-49.8000;0.3972;0.7908;
-49.5000;0.3923;0.7830;
-49.2000;0.3940;0.7830;
-48.9000;0.3948;0.7830;
-48.6000;0.4013;0.8012;
-48.3000;0.3956;0.7856;
-48.0000;0.3956;0.7804;
-47.7000;0.3948;0.7727;
-47.4000;0.3948;0.7830;
-47.1000;0.3923;0.7804;
-46.8000;0.4029;0.8090;
-46.5000;0.3980;0.7934;
-46.2000;0.3964;0.7908;
-45.9000;0.3940;0.7830;
-45.6000;0.3956;0.7830;
-45.3000;0.3972;0.7830;
-45.0000;0.3972;0.7778;
-44.7000;0.3972;0.7804;
-44.4000;0.3980;0.7778;
-44.1000;0.3972;0.7753;
-43.8000;0.3964;0.7830;
-43.5000;0.3948;0.7830;
-43.2000;0.3956;0.7882;
-42.9000;0.3956;0.7882;
-42.6000;0.3972;0.7830;
-42.3000;0.3964;0.7882;
-42.0000;0.3956;0.7856;
-41.7000;0.3964;0.7753;
-41.4000;0.3948;0.7727;
-41.1000;0.3972;0.7778;
-40.8000;0.3956;0.7830;
-40.5000;0.3972;0.7804;
-40.2000;0.3972;0.7804;
-39.9000;0.3899;0.7571;
-39.6000;0.3948;0.7753;
-39.3000;0.3940;0.7701;
-39.0000;0.3948;0.7701;
-38.7000;0.3932;0.7649;
-38.4000;0.3932;0.7623;
-38.1000;0.3997;0.7753;
-37.8000;0.3964;0.7675;
-37.5000;0.3989;0.7701;
-37.2000;0.3972;0.7727;
-36.9000;0.3948;0.7753;
-36.6000;0.3956;0.7778;
-36.3000;0.3964;0.7753;
-36.0000;0.3956;0.7701;
-35.7000;0.3964;0.7649;
-35.4000;0.3972;0.7571;
-35.1000;0.3964;0.7649;
-34.8000;0.3980;0.7778;
-34.5000;0.3980;0.7675;
-34.2000;0.4046;0.7856;
-33.9000;0.3907;0.7467;
-33.6000;0.3956;0.7623;
-33.3000;0.3940;0.7727;
-33.0000;0.3932;0.7675;
-32.7000;0.3940;0.7753;
-32.4000;0.3948;0.7727;
-32.1000;0.3972;0.7675;
-31.8000;0.3948;0.7753;
-31.5000;0.3891;0.7519;
-31.2000;0.3956;0.7701;
-30.9000;0.3891;0.7493;
-30.6000;0.3940;0.7675;
-30.3000;0.3972;0.7701;
-30.0000;0.3964;0.7597;
-29.7000;0.3956;0.7467;
-29.4000;0.3956;0.7467;
-29.1000;0.3948;0.7597;
-28.8000;0.3940;0.7519;
-28.5000;0.3972;0.7649;
-28.2000;0.3875;0.7364;
-27.9000;0.3964;0.7545;
-27.6000;0.3948;0.7467;
-27.3000;0.3948;0.7467;
-27.0000;0.3956;0.7467;
-26.7000;0.4013;0.7623;
-26.4000;0.3948;0.7467;
-26.1000;0.3940;0.7467;
-25.8000;0.3972;0.7571;
-25.5000;0.3940;0.7519;
-25.2000;0.3948;0.7571;
-24.9000;0.3956;0.7597;
-24.6000;0.3956;0.7649;
-24.3000;0.3923;0.7675;
-24.0000;0.3964;0.7727;
-23.7000;0.3972;0.7675;
-23.4000;0.3948;0.7649;
-23.1000;0.3956;0.7701;
-22.8000;0.3940;0.7727;
-22.5000;0.3940;0.7753;
-22.2000;0.3964;0.7778;
-21.9000;0.3956;0.7778;
-21.6000;0.3948;0.7804;
-21.3000;0.3826;0.7519;
-21.0000;0.3972;0.7960;
-20.7000;0.3956;0.7908;
-20.4000;0.3948;0.7908;
-20.1000;0.3956;0.7856;
-19.8000;0.3972;0.7830;
-19.5000;0.3964;0.7882;
-19.2000;0.3989;0.7934;
-18.9000;0.3948;0.7908;
-18.6000;0.3940;0.7908;
-18.3000;0.3940;0.7934;
-18.0000;0.3964;0.7908;
-17.7000;0.3956;0.7830;
-17.4000;0.3956;0.7778;
-17.1000;0.4062;0.8116;
-16.8000;0.3964;0.7753;
-16.5000;0.3956;0.7649;
-16.2000;0.3932;0.7597;
-15.9000;0.3948;0.7597;
-15.6000;0.3964;0.7623;
-15.3000;0.3932;0.7545;
-15.0000;0.3940;0.7649;
-14.7000;0.3956;0.7701;
-14.4000;0.3989;0.7856;
-14.1000;0.4005;0.7830;
-13.8000;0.3932;0.7649;
-13.5000;0.3940;0.7623;
-13.2000;0.3948;0.7649;
-12.9000;0.3972;0.7727;
-12.6000;0.3964;0.7675;
-12.3000;0.3948;0.7753;
-12.0000;0.3948;0.7778;
-11.7000;0.3940;0.7701;
-11.4000;0.3899;0.7493;
-11.1000;0.3956;0.7753;
-10.8000;0.3956;0.7727;
-10.5000;0.3956;0.7675;
-10.2000;0.3940;0.7701;
-9.9000;0.3964;0.7804;
-9.6000;0.3948;0.7830;
-9.3000;0.3948;0.7701;
-9.0000;0.3948;0.7675;
-8.7000;0.3956;0.7649;
-8.4000;0.3956;0.7571;
-8.1000;0.3923;0.7493;
-7.8000;0.3932;0.7545;
-7.5000;0.3940;0.7675;
-7.2000;0.3956;0.7753;
-6.9000;0.3956;0.7856;
-6.6000;0.3948;0.7934;
-6.3000;0.3964;0.7908;
-6.0000;0.3964;0.7908;
-5.7000;0.4054;0.8193;
-5.4000;0.3956;0.7856;
-5.1000;0.3915;0.7804;
-4.8000;0.3923;0.7830;
-4.5000;0.3956;0.7986;
-4.2000;0.4005;0.8038;
-3.9000;0.3948;0.7960;
-3.6000;0.3948;0.7934;
-3.3000;0.3956;0.7882;
-3.0000;0.3948;0.7856;
-2.7000;0.3956;0.7882;
-2.4000;0.3940;0.7778;
-2.1000;0.3964;0.7753;
-1.8000;0.3907;0.7441;
-1.5000;0.3940;0.7545;
-1.2000;0.3956;0.7597;
-0.9000;0.3989;0.7753;
-0.6000;0.3972;0.7804;
-0.3000;0.3980;0.7856;
0.0000;0.3980;0.7856;
0.3000;0.4062;0.8245;
0.6000;0.4306;0.9049;
0.9000;0.4469;0.9749;
1.2000;0.4607;1.0423;
1.5000;0.4640;1.0838;
1.8000;0.4762;1.1486;
2.1000;0.4843;1.1901;
2.4000;0.4892;1.2160;
2.7000;0.4925;1.2394;
3.0000;0.4974;1.2653;
3.3000;0.4990;1.2809;
3.6000;0.5031;1.2964;
3.9000;0.5047;1.3068;
4.2000;0.5071;1.3249;
4.5000;0.5218;1.3716;
4.8000;0.5079;1.3405;
5.1000;0.5104;1.3509;
5.4000;0.5104;1.3509;
5.7000;0.5112;1.3586;
6.0000;0.5120;1.3638;
6.3000;0.5128;1.3664;
6.6000;0.5136;1.3586;
6.9000;0.5128;1.3560;
7.2000;0.5153;1.3612;
7.5000;0.5169;1.3612;
7.8000;0.5144;1.3483;
8.1000;0.5177;1.3457;
8.4000;0.5177;1.3509;
8.7000;0.5153;1.3535;
9.0000;0.5161;1.3509;
9.3000;0.5169;1.3560;
9.6000;0.5185;1.3664;
9.9000;0.5144;1.3535;
10.2000;0.5185;1.3690;
10.5000;0.5104;1.3509;
10.8000;0.5161;1.3664;
11.1000;0.5201;1.3716;
11.4000;0.5291;1.3846;
11.7000;0.5201;1.3535;
12.0000;0.5218;1.3483;
12.3000;0.5218;1.3483;
12.6000;0.5242;1.3535;
12.9000;0.5218;1.3586;
13.2000;0.5234;1.3612;
13.5000;0.5234;1.3586;
13.8000;0.5169;1.3405;
14.1000;0.5185;1.3327;
14.4000;0.5234;1.3457;
14.7000;0.5258;1.3379;
15.0000;0.5250;1.3379;
15.3000;0.5242;1.3275;
15.6000;0.5242;1.3146;
15.9000;0.5258;1.3197;
16.2000;0.5258;1.3249;
16.5000;0.5250;1.3172;
16.8000;0.5258;1.3172;
17.1000;0.5267;1.3172;
17.4000;0.5250;1.3042;
17.7000;0.5242;1.2990;
18.0000;0.5258;1.3042;
18.3000;0.5267;1.2990;
18.6000;0.5283;1.3042;
18.9000;0.5283;1.3016;
19.2000;0.5267;1.2964;
19.5000;0.5291;1.3042;
19.8000;0.5283;1.3016;
20.1000;0.5291;1.3068;
20.4000;0.5332;1.3172;
20.7000;0.5307;1.3197;
21.0000;0.5307;1.3094;
21.3000;0.5315;1.3068;
21.6000;0.5291;1.3016;
21.9000;0.5283;1.2860;
22.2000;0.5291;1.2938;
22.5000;0.5324;1.2964;
22.8000;0.5332;1.2938;
23.1000;0.5307;1.2860;
23.4000;0.5324;1.2834;
23.7000;0.5299;1.2783;
24.0000;0.5332;1.2834;
24.3000;0.5348;1.2938;
24.6000;0.5315;1.2834;
24.9000;0.5332;1.2860;
25.2000;0.5332;1.2809;
25.5000;0.5307;1.2783;
25.8000;0.5315;1.2886;
26.1000;0.5348;1.2990;
26.4000;0.5356;1.3042;
26.7000;0.5291;1.2860;
27.0000;0.5356;1.3016;
27.3000;0.5283;1.2886;
27.6000;0.5332;1.3016;
27.9000;0.5389;1.3146;
28.2000;0.5348;1.2964;
28.5000;0.5315;1.2809;
28.8000;0.5372;1.2964;
29.1000;0.5372;1.2938;
29.4000;0.5364;1.2809;
29.7000;0.5372;1.2886;
30.0000;0.5389;1.2964;
30.3000;0.5356;1.2886;
30.6000;0.5372;1.2886;
30.9000;0.5372;1.2860;
31.2000;0.5381;1.2834;
31.5000;0.5381;1.2783;
31.8000;0.5429;1.2912;
32.1000;0.5381;1.2783;
32.4000;0.5397;1.2809;
32.7000;0.5372;1.2757;
33.0000;0.5381;1.2731;
33.3000;0.5397;1.2809;
33.6000;0.5413;1.2886;
33.9000;0.5389;1.2757;
34.2000;0.5405;1.2757;
34.5000;0.5364;1.2549;
34.8000;0.5364;1.2523;
35.1000;0.5413;1.2653;
35.4000;0.5438;1.2757;
35.7000;0.5405;1.2705;
36.0000;0.5421;1.2679;
36.3000;0.5429;1.2653;
36.6000;0.5421;1.2627;
36.9000;0.5421;1.2601;
37.2000;0.5446;1.2653;
37.5000;0.5438;1.2627;
37.8000;0.5429;1.2471;
38.1000;0.5421;1.2420;
38.4000;0.5438;1.2497;
38.7000;0.5446;1.2497;
39.0000;0.5438;1.2497;
39.3000;0.5454;1.2523;
39.6000;0.5429;1.2523;
39.9000;0.5446;1.2575;
40.2000;0.5470;1.2471;
40.5000;0.5446;1.2368;
40.8000;0.5446;1.2316;
41.1000;0.5438;1.2420;
41.4000;0.5397;1.2368;
41.7000;0.5446;1.2471;
42.0000;0.5454;1.2446;
42.3000;0.5462;1.2420;
42.6000;0.5470;1.2368;
42.9000;0.5478;1.2238;
43.2000;0.5470;1.2212;
43.5000;0.5454;1.2186;
43.8000;0.5462;1.2290;
44.1000;0.5446;1.2316;
44.4000;0.5503;1.2316;
44.7000;0.5454;1.2212;
45.0000;0.5486;1.2186;
45.3000;0.5478;1.2264;
45.6000;0.5470;1.2212;
45.9000;0.5486;1.2109;
46.2000;0.5495;1.2160;
46.5000;0.5478;1.2238;
46.8000;0.5486;1.2264;
47.1000;0.5462;1.2186;
47.4000;0.5495;1.2186;
47.7000;0.5503;1.2186;
48.0000;0.5592;1.2446;
48.3000;0.5495;1.2109;
48.6000;0.5495;1.2109;
48.9000;0.5519;1.2186;
49.2000;0.5503;1.2134;
49.5000;0.5503;1.2160;
49.8000;0.5470;1.2057;
50.1000;0.5495;1.2160;
50.4000;0.5478;1.2057;
50.7000;0.5503;1.2186;
51.0000;0.5503;1.2160;
51.3000;0.5503;1.2186;
51.6000;0.5519;1.2238;
51.9000;0.5470;1.2005;
52.2000;0.5478;1.2005;
52.5000;0.5576;1.2186;
52.8000;0.5560;1.2212;
53.1000;0.5527;1.2109;
53.4000;0.5535;1.2186;
53.7000;0.5551;1.2238;
54.0000;0.5511;1.2134;
54.3000;0.5551;1.2212;
54.6000;0.5543;1.2212;
54.9000;0.5543;1.2212;
55.2000;0.5551;1.2264;
55.5000;0.5543;1.2212;
55.8000;0.5527;1.2238;
56.1000;0.5535;1.2238;
56.4000;0.5641;1.2471;
56.7000;0.5551;1.2238;
57.0000;0.5551;1.2212;
57.3000;0.5503;1.2083;
57.6000;0.5543;1.2134;
57.9000;0.5543;1.2134;
58.2000;0.5543;1.2083;
58.5000;0.5551;1.2109;
58.8000;0.5568;1.2160;
59.1000;0.5568;1.2134;
59.4000;0.5568;1.2057;
59.7000;0.5576;1.2109;
60.0000;0.5568;1.2109;
60.3000;0.5576;1.2160;
60.6000;0.5519;1.2031;
60.9000;0.5551;1.2134;
61.2000;0.5617;1.2186;
61.5000;0.5576;1.2005;
61.8000;0.5568;1.1979;
62.1000;0.5527;1.1901;
62.4000;0.5560;1.2031;
62.7000;0.5584;1.2160;
63.0000;0.5568;1.2238;
63.3000;0.5560;1.2264;
63.6000;0.5560;1.2212;
63.9000;0.5568;1.2160;
64.2000;0.5592;1.2212;
64.5000;0.5584;1.2186;
64.8000;0.5592;1.2134;
65.1000;0.5568;1.2109;
65.4000;0.5600;1.2109;
65.7000;0.5543;1.2005;
66.0000;0.5592;1.2031;
66.3000;0.5641;1.2186;
66.6000;0.5584;1.2005;
66.9000;0.5568;1.1953;
67.2000;0.5608;1.2005;
67.5000;0.5608;1.1979;
67.8000;0.5625;1.2005;
68.1000;0.5617;1.2005;
68.4000;0.5608;1.1927;
68.7000;0.5608;1.1901;
69.0000;0.5608;1.1953;
69.3000;0.5617;1.2031;
69.6000;0.5625;1.2057;
69.9000;0.5608;1.1953;
70.2000;0.5608;1.1953;
70.5000;0.5617;1.1901;
70.8000;0.5608;1.1901;
71.1000;0.5674;1.2031;
71.4000;0.5608;1.1901;
71.7000;0.5625;1.2005;
72.0000;0.5617;1.2031;
72.3000;0.5600;1.2005;
72.6000;0.5617;1.2031;
72.9000;0.5617;1.2005;
73.2000;0.5617;1.1875;
73.5000;0.5617;1.1875;
73.8000;0.5592;1.1797;
74.1000;0.5625;1.1901;
74.4000;0.5625;1.1979;
74.7000;0.5633;1.2005;
75.0000;0.5665;1.2057;
75.3000;0.5617;1.1901;
75.6000;0.5633;1.1927;
75.9000;0.5633;1.1849;
76.2000;0.5625;1.1849;
76.5000;0.5649;1.1901;
76.8000;0.5633;1.1849;
77.1000;0.5641;1.1797;
77.4000;0.5633;1.1823;
77.7000;0.5657;1.1875;
78.0000;0.5706;1.1953;
78.3000;0.5649;1.1720;
78.6000;0.5600;1.1590;
78.9000;0.5608;1.1642;
79.2000;0.5641;1.1746;
79.5000;0.5674;1.1901;
79.8000;0.5649;1.1771;
80.1000;0.5641;1.1823;
80.4000;0.5657;1.1953;
80.7000;0.5633;1.1875;
81.0000;0.5641;1.1901;
81.3000;0.5641;1.1927;
81.6000;0.5649;1.1927;
81.9000;0.5657;1.1953;
82.2000;0.5649;1.1875;
82.5000;0.5633;1.1953;
82.8000;0.5682;1.2005;
83.1000;0.5755;1.2238;
83.4000;0.5657;1.2005;
83.7000;0.5641;1.1927;
84.0000;0.5657;1.1953;
84.3000;0.5625;1.1927;
84.6000;0.5649;1.1953;
84.9000;0.5657;1.1875;
85.2000;0.5600;1.1797;
85.5000;0.5665;1.1875;
85.8000;0.5674;1.1875;
86.1000;0.5665;1.1901;
86.4000;0.5633;1.1771;
86.7000;0.5633;1.1694;
87.0000;0.5665;1.1746;
87.3000;0.5779;1.2005;
87.6000;0.5674;1.1746;
87.9000;0.5641;1.1694;
88.2000;0.5657;1.1797;
88.5000;0.5665;1.1771;
88.8000;0.5657;1.1694;
89.1000;0.5657;1.1771;
89.4000;0.5657;1.1746;
89.7000;0.5674;1.1746;
90.0000;0.5657;1.1668;
90.3000;0.5682;1.1694;
90.6000;0.5665;1.1642;
90.9000;0.5698;1.1694;
91.2000;0.5682;1.1771;
91.5000;0.5674;1.1746;
91.8000;0.5714;1.1849;
92.1000;0.5690;1.1823;
92.4000;0.5657;1.1849;
92.7000;0.5706;1.1953;
93.0000;0.5682;1.1797;
93.3000;0.5690;1.1875;
93.6000;0.5682;1.1875;
93.9000;0.5674;1.1875;
94.2000;0.5641;1.1823;
94.5000;0.5617;1.1797;
94.8000;0.5690;1.1875;
95.1000;0.5674;1.1823;
95.4000;0.5674;1.1771;
95.7000;0.5665;1.1771;
96.0000;0.5690;1.1823;
96.3000;0.5698;1.1797;
96.6000;0.5682;1.1771;
96.9000;0.5665;1.1746;
97.2000;0.5722;1.1901;
97.5000;0.5779;1.2057;
97.8000;0.5674;1.1746;
98.1000;0.5674;1.1746;
98.4000;0.5690;1.1823;
98.7000;0.5690;1.1875;
99.0000;0.5674;1.1849;
99.3000;0.5674;1.1849;
99.6000;0.5682;1.1823;
99.9000;0.5690;1.1720;
100.2000;0.5690;1.1771;
100.5000;0.5779;1.2005;
100.8000;0.5690;1.1797;
101.1000;0.5690;1.1823;
101.4000;0.5665;1.1720;
101.7000;0.5682;1.1797;
102.0000;0.5617;1.1616;
102.3000;0.5698;1.1927;
102.6000;0.5682;1.1875;
102.9000;0.5779;1.2212;
103.2000;0.5665;1.1901;
103.5000;0.5625;1.1849;
103.8000;0.5674;1.1823;
104.1000;0.5682;1.1694;
104.4000;0.5665;1.1538;
104.7000;0.5657;1.1512;
105.0000;0.5682;1.1590;
105.3000;0.5665;1.1564;
105.6000;0.5698;1.1642;
105.9000;0.5665;1.1512;
106.2000;0.5674;1.1486;
106.5000;0.5739;1.1538;
106.8000;0.5690;1.1434;
107.1000;0.5706;1.1564;
107.4000;0.5690;1.1590;
107.7000;0.5682;1.1538;
108.0000;0.5682;1.1460;
108.3000;0.5690;1.1564;
108.6000;0.5600;1.1383;
108.9000;0.5665;1.1564;
109.2000;0.5698;1.1771;
109.5000;0.5682;1.1720;
109.8000;0.5674;1.1616;
110.1000;0.5674;1.1616;
110.4000;0.5690;1.1720;
110.7000;0.5674;1.1668;
111.0000;0.5690;1.1668;
111.3000;0.5722;1.1720;
111.6000;0.5698;1.1642;
111.9000;0.5739;1.1771;
112.2000;0.5690;1.1642;
112.5000;0.5690;1.1668;
112.8000;0.5698;1.1746;
113.1000;0.5698;1.1694;
113.4000;0.5706;1.1797;
113.7000;0.5657;1.1771;
114.0000;0.5690;1.1979;
114.3000;0.5682;1.1927;
114.6000;0.5682;1.1875;
114.9000;0.5698;1.1875;
115.2000;0.5722;1.1823;
115.5000;0.5682;1.1694;
115.8000;0.5690;1.1720;
116.1000;0.5682;1.1720;
116.4000;0.5690;1.1746;
116.7000;0.5690;1.1771;
117.0000;0.5698;1.1849;
117.3000;0.5698;1.1901;
117.6000;0.5690;1.1797;
117.9000;0.5706;1.1901;
118.2000;0.5690;1.1849;
118.5000;0.5682;1.1823;
118.8000;0.5690;1.1823;
119.1000;0.5690;1.1771;
119.4000;0.5698;1.1849;
119.7000;0.5682;1.1797;
120.0000;0.5698;1.1797;
120.3000;0.5698;1.1771;
120.6000;0.5682;1.1642;
120.9000;0.5682;1.1616;
121.2000;0.5674;1.1668;
121.5000;0.5706;1.1823;
121.8000;0.5617;1.1616;
122.1000;0.5682;1.1720;
122.4000;0.5706;1.1746;
122.7000;0.5698;1.1746;
123.0000;0.5706;1.1797;
123.3000;0.5698;1.1797;
123.6000;0.5731;1.1823;
123.9000;0.5722;1.1797;
124.2000;0.5706;1.1720;
124.5000;0.5682;1.1616;
124.8000;0.5706;1.1668;
125.1000;0.5665;1.1668;
125.4000;0.5722;1.1823;
125.7000;0.5747;1.1849;
126.0000;0.5706;1.1797;
126.3000;0.5682;1.1746;
126.6000;0.5706;1.1746;
126.9000;0.5698;1.1720;
127.2000;0.5698;1.1746;
127.5000;0.5690;1.1823;
127.8000;0.5731;1.2031;
128.1000;0.5690;1.1979;
128.4000;0.5698;1.1979;
128.7000;0.5690;1.1901;
129.0000;0.5706;1.2031;
129.3000;0.5698;1.2031;
129.6000;0.5763;1.2134;
129.9000;0.5690;1.1979;
130.2000;0.5690;1.1979;
130.5000;0.5706;1.1953;
130.8000;0.5690;1.1901;
131.1000;0.5698;1.1849;
131.4000;0.5690;1.1771;
131.7000;0.5674;1.1720;
132.0000;0.5682;1.1746;
132.3000;0.5682;1.1797;
132.6000;0.5682;1.1901;
132.9000;0.5674;1.1901;
133.2000;0.5690;1.1979;
133.5000;0.5682;1.1927;
133.8000;0.5690;1.1979;
134.1000;0.5698;1.2031;
134.4000;0.5706;1.2083;
134.7000;0.5698;1.2057;
135.0000;0.5706;1.2109;
135.3000;0.5698;1.2134;
135.6000;0.5706;1.2109;
135.9000;0.5690;1.2005;
136.2000;0.5690;1.1979;
136.5000;0.5682;1.1849;
136.8000;0.5698;1.1849;
137.1000;0.5657;1.1797;
137.4000;0.5690;1.1979;
137.7000;0.5706;1.2005;
138.0000;0.5706;1.2083;
138.3000;0.5698;1.2031;
138.6000;0.5698;1.2083;
138.9000;0.5625;1.1849;
139.2000;0.5682;1.1979;
139.5000;0.5698;1.1927;
139.8000;0.5682;1.1927;
140.1000;0.5674;1.1927;
140.4000;0.5690;1.1979;
140.7000;0.5706;1.1953;
141.0000;0.5714;1.1927;
141.3000;0.5722;1.1875;
141.6000;0.5657;1.1746;
141.9000;0.5731;1.1953;
142.2000;0.5690;1.1901;
142.5000;0.5682;1.1901;
142.8000;0.5674;1.1797;
143.1000;0.5690;1.1849;
143.4000;0.5690;1.1875;
143.7000;0.5674;1.1849;
144.0000;0.5690;1.1849;
144.3000;0.5731;1.1953;
144.6000;0.5657;1.1849;
144.9000;0.5657;1.1875;
145.2000;0.5698;1.1849;
145.5000;0.5763;1.1979;
145.8000;0.5690;1.1771;
146.1000;0.5690;1.1720;
146.4000;0.5690;1.1642;
146.7000;0.5690;1.1616;
147.0000;0.5690;1.1694;
147.3000;0.5690;1.1694;
147.6000;0.5690;1.1616;
147.9000;0.5682;1.1720;
148.2000;0.5698;1.1616;
148.5000;0.5706;1.1694;
148.8000;0.5706;1.1694;
149.1000;0.5698;1.1720;
149.4000;0.5706;1.1771;
149.7000;0.5690;1.1771;
150.0000;0.5690;1.1797;
150.3000;0.5698;1.1823;
150.6000;0.5706;1.1797;
150.9000;0.5714;1.1746;
151.2000;0.5690;1.1771;
151.5000;0.5690;1.1771;
151.8000;0.5706;1.1875;
152.1000;0.5731;1.1901;
152.4000;0.5690;1.1849;
152.7000;0.5690;1.1875;
153.0000;0.5690;1.1823;
153.3000;0.5747;1.2031;
153.6000;0.5706;1.1849;
153.9000;0.5698;1.1849;
154.2000;0.5755;1.1979;
154.5000;0.5698;1.1849;
154.8000;0.5674;1.1823;
155.1000;0.5706;1.1901;
155.4000;0.5698;1.1927;
155.7000;0.5698;1.1927;
156.0000;0.5706;1.2005;
156.3000;0.5690;1.1901;
156.6000;0.5706;1.1979;
156.9000;0.5706;1.2031;
157.2000;0.5779;1.2264;
157.5000;0.5682;1.2057;
157.8000;0.5682;1.2005;
158.1000;0.5706;1.1979;
158.4000;0.5722;1.2057;
158.7000;0.5706;1.2057;
159.0000;0.5698;1.2005;
159.3000;0.5682;1.1979;
159.6000;0.5682;1.1979;
159.9000;0.5731;1.1953;
160.2000;0.5674;1.1875;
160.5000;0.5714;1.1979;
160.8000;0.5682;1.1875;
161.1000;0.5657;1.1771;
161.4000;0.5698;1.1720;
161.7000;0.5698;1.1668;
162.0000;0.5714;1.1746;
162.3000;0.5706;1.1616;
162.6000;0.5674;1.1486;
162.9000;0.5698;1.1512;
163.2000;0.5682;1.1538;
163.5000;0.5706;1.1642;
163.8000;0.5682;1.1642;
164.1000;0.5690;1.1642;
164.4000;0.5682;1.1694;
164.7000;0.5682;1.1694;
165.0000;0.5690;1.1694;
165.3000;0.5690;1.1720;
165.6000;0.5698;1.1797;
165.9000;0.5690;1.1875;
166.2000;0.5690;1.1849;
166.5000;0.5690;1.1823;
166.8000;0.5682;1.1668;
167.1000;0.5714;1.1720;
167.4000;0.5665;1.1590;
167.7000;0.5706;1.1823;
168.0000;0.5690;1.1823;
168.3000;0.5690;1.1797;
168.6000;0.5706;1.1849;
168.9000;0.5690;1.1849;
169.2000;0.5682;1.1849;
169.5000;0.5698;1.1797;
169.8000;0.5714;1.1771;
170.1000;0.5690;1.1694;
170.4000;0.5698;1.1642;
170.7000;0.5682;1.1771;
171.0000;0.5698;1.1746;
171.3000;0.5690;1.1694;
171.6000;0.5657;1.1616;
171.9000;0.5779;1.1927;
172.2000;0.5714;1.1642;
172.5000;0.5690;1.1590;
172.8000;0.5690;1.1694;
173.1000;0.5690;1.1771;
173.4000;0.5698;1.1823;
173.7000;0.5682;1.1823;
174.0000;0.5690;1.1849;
174.3000;0.5682;1.1849;
174.6000;0.5698;1.1849;
174.9000;0.5706;1.1927;
175.2000;0.5706;1.1875;
175.5000;0.5714;1.1771;
175.8000;0.5690;1.1797;
176.1000;0.5706;1.1849;
176.4000;0.5747;1.2005;
176.7000;0.5690;1.1875;
177.0000;0.5682;1.1875;
177.3000;0.5690;1.1875;
177.6000;0.5674;1.1823;
177.9000;0.5690;1.1823;
178.2000;0.5690;1.2031;
178.5000;0.5698;1.2109;
178.8000;0.5665;1.2083;
179.1000;0.5674;1.2083;
179.4000;0.5690;1.2057;
179.7000;0.5714;1.2083;
180.0000;0.5698;1.2057;
180.3000;0.5698;1.2083;
180.6000;0.5682;1.1979;
180.9000;0.5674;1.2057;
181.2000;0.5706;1.2109;
181.5000;0.5682;1.2005;
181.8000;0.5706;1.2057;
182.1000;0.5747;1.2083;
182.4000;0.5665;1.1849;
182.7000;0.5690;1.1849;
183.0000;0.5674;1.1849;
183.3000;0.5755;1.1953;
183.6000;0.5657;1.1668;
183.9000;0.5714;1.1797;
184.2000;0.5698;1.1771;
184.5000;0.5682;1.1668;
184.8000;0.5674;1.1642;
185.1000;0.5706;1.1746;
185.4000;0.5690;1.1823;
185.7000;0.5690;1.1875;
186.0000;0.5706;1.1927;
186.3000;0.5682;1.1668;
186.6000;0.5690;1.1746;
186.9000;0.5698;1.1771;
187.2000;0.5682;1.1771;
187.5000;0.5649;1.1642;
187.8000;0.5665;1.1668;
188.1000;0.5674;1.1642;
188.4000;0.5665;1.1694;
188.7000;0.5682;1.1823;
189.0000;0.5682;1.1901;
189.3000;0.5779;1.2134;
189.6000;0.5682;1.1901;
189.9000;0.5682;1.1875;
190.2000;0.5682;1.1927;
190.5000;0.5698;1.1901;
190.8000;0.5690;1.1797;
191.1000;0.5682;1.1797;
191.4000;0.5665;1.1797;
191.7000;0.5739;1.1927;
192.0000;0.5698;1.1875;
192.3000;0.5706;1.1927;
192.6000;0.5698;1.1849;
192.9000;0.5698;1.1746;
193.2000;0.5690;1.1720;
193.5000;0.5690;1.1746;
193.8000;0.5714;1.1797;
194.1000;0.5682;1.1771;
194.4000;0.5690;1.1771;
194.7000;0.5682;1.1771;
195.0000;0.5682;1.1823;
195.3000;0.5674;1.1720;
195.6000;0.5714;1.1771;
195.9000;0.5698;1.1746;
196.2000;0.5698;1.1823;
196.5000;0.5698;1.1875;
196.8000;0.5706;1.1875;
197.1000;0.5674;1.1797;
197.4000;0.5665;1.1797;
197.7000;0.5617;1.1694;
198.0000;0.5698;1.1849;
198.3000;0.5674;1.1720;
198.6000;0.5747;1.1927;
198.9000;0.5698;1.1797;
199.2000;0.5682;1.1823;
199.5000;0.5698;1.1953;
199.8000;0.5682;1.1823;
200.1000;0.5714;1.1953;
200.4000;0.5690;1.1797;
200.7000;0.5714;1.1901;
201.0000;0.5625;1.1720;
201.3000;0.5698;1.1901;
201.6000;0.5674;1.1953;
201.9000;0.5714;1.2005;
202.2000;0.5674;1.1823;
202.5000;0.5674;1.1927;
202.8000;0.5698;1.1979;
203.1000;0.5657;1.1849;
203.4000;0.5674;1.1875;
203.7000;0.5674;1.1823;
204.0000;0.5682;1.1823;
204.3000;0.5665;1.1849;
204.6000;0.5698;1.1953;
204.9000;0.5698;1.1901;
205.2000;0.5690;1.1849;
205.5000;0.5682;1.1875;
205.8000;0.5674;1.1927;
206.1000;0.5665;1.1823;
206.4000;0.5690;1.1823;
206.7000;0.5690;1.1797;
207.0000;0.5690;1.1746;
207.3000;0.5674;1.1720;
207.6000;0.5682;1.1746;
207.9000;0.5690;1.1746;
208.2000;0.5706;1.1771;
208.5000;0.5674;1.1746;
208.8000;0.5674;1.1771;
209.1000;0.5698;1.1875;
209.4000;0.5682;1.1849;
209.7000;0.5674;1.1875;
210.0000;0.5682;1.1875;
210.3000;0.5690;1.1901;
210.6000;0.5674;1.1823;
210.9000;0.5690;1.1823;
211.2000;0.5690;1.1823;
211.5000;0.5682;1.1823;
211.8000;0.5682;1.1875;
212.1000;0.5698;1.1875;
212.4000;0.5698;1.1849;
212.7000;0.5690;1.1823;
213.0000;0.5706;1.1823;
213.3000;0.5600;1.1616;
213.6000;0.5682;1.1823;
213.9000;0.5682;1.1720;
214.2000;0.5674;1.1771;
214.5000;0.5625;1.1616;
214.8000;0.5682;1.1694;
215.1000;0.5665;1.1642;
215.4000;0.5674;1.1694;
215.7000;0.5674;1.1642;
216.0000;0.5682;1.1642;
216.3000;0.5682;1.1616;
216.6000;0.5690;1.1668;
216.9000;0.5722;1.1771;
217.2000;0.5674;1.1771;
217.5000;0.5698;1.1875;
217.8000;0.5682;1.1797;
218.1000;0.5674;1.1746;
218.4000;0.5649;1.1668;
218.7000;0.5657;1.1616;
219.0000;0.5665;1.1668;
219.3000;0.5665;1.1668;
219.6000;0.5665;1.1771;
219.9000;0.5682;1.1746;
220.2000;0.5682;1.1901;
220.5000;0.5674;1.1797;
220.8000;0.5682;1.1849;
221.1000;0.5682;1.1849;
221.4000;0.5633;1.1849;
221.7000;0.5674;1.2005;
222.0000;0.5665;1.1927;
222.3000;0.5665;1.1875;
222.6000;0.5657;1.1823;
222.9000;0.5665;1.1901;
223.2000;0.5682;1.1953;
223.5000;0.5722;1.2083;
223.8000;0.5665;1.1901;
224.1000;0.5674;1.1979;
224.4000;0.5649;1.1979;
224.7000;0.5682;1.1979;
225.0000;0.5674;1.1927;
225.3000;0.5674;1.1901;
225.6000;0.5674;1.1979;
225.9000;0.5674;1.1927;
226.2000;0.5682;1.1927;
226.5000;0.5682;1.1823;
226.8000;0.5690;1.1771;
227.1000;0.5682;1.1771;
227.4000;0.5690;1.1771;
227.7000;0.5682;1.1771;
228.0000;0.5682;1.1823;
228.3000;0.5706;1.1875;
228.6000;0.5665;1.1694;
228.9000;0.5665;1.1720;
229.2000;0.5665;1.1720;
229.5000;0.5682;1.1771;
229.8000;0.5674;1.1823;
230.1000;0.5657;1.1797;
230.4000;0.5682;1.1875;
230.7000;0.5682;1.1979;
231.0000;0.5690;1.1901;
231.3000;0.5682;1.1927;
231.6000;0.5665;1.1979;
231.9000;0.5674;1.2005;
232.2000;0.5641;1.2005;
232.5000;0.5649;1.2031;
232.8000;0.5674;1.2057;
233.1000;0.5665;1.2083;
233.4000;0.5690;1.2186;
233.7000;0.5674;1.2057;
234.0000;0.5649;1.2005;
234.3000;0.5714;1.2083;
234.6000;0.5617;1.1797;
234.9000;0.5690;1.1953;
235.2000;0.5698;1.1979;
235.5000;0.5608;1.1797;
235.8000;0.5690;1.2134;
236.1000;0.5682;1.1979;
236.4000;0.5665;1.1875;
236.7000;0.5649;1.1797;
237.0000;0.5682;1.1875;
237.3000;0.5649;1.1771;
237.6000;0.5690;1.1901;
237.9000;0.5690;1.1901;
238.2000;0.5690;1.1927;
238.5000;0.5649;1.1823;
238.8000;0.5649;1.1797;
239.1000;0.5682;1.1875;
239.4000;0.5665;1.1901;
239.7000;0.5665;1.1953;
240.0000;0.5674;1.1979;
240.3000;0.5674;1.1927;
240.6000;0.5674;1.2057;
240.9000;0.5665;1.2057;
241.2000;0.5674;1.1953;
241.5000;0.5665;1.1927;
241.8000;0.5665;1.1927;
242.1000;0.5690;1.1953;
242.4000;0.5657;1.1901;
242.7000;0.5682;1.1953;
243.0000;0.5674;1.1979;
243.3000;0.5665;1.1979;
243.6000;0.5674;1.1953;
243.9000;0.5665;1.1901;
244.2000;0.5665;1.1875;
244.5000;0.5657;1.1901;
244.8000;0.5706;1.2083;
245.1000;0.5682;1.2031;
245.4000;0.5674;1.1901;
245.7000;0.5649;1.1746;
246.0000;0.5682;1.1823;
246.3000;0.5682;1.1849;
246.6000;0.5763;1.2134;
246.9000;0.5698;1.2005;
247.2000;0.5665;1.1979;
247.5000;0.5674;1.1953;
247.8000;0.5657;1.1953;
248.1000;0.5657;1.1797;
248.4000;0.5682;1.1746;
248.7000;0.5657;1.1720;
249.0000;0.5674;1.1771;
249.3000;0.5682;1.1823;
249.6000;0.5682;1.1849;
249.9000;0.5682;1.1823;
250.2000;0.5674;1.1849;
250.5000;0.5674;1.1797;
250.8000;0.5665;1.1668;
251.1000;0.5706;1.1797;
251.4000;0.5771;1.2134;
251.7000;0.5706;1.1927;
252.0000;0.5755;1.2057;
252.3000;0.5665;1.1901;
252.6000;0.5682;1.1849;
252.9000;0.5682;1.1823;
253.2000;0.5674;1.1849;
253.5000;0.5682;1.1875;
253.8000;0.5657;1.1823;
254.1000;0.5649;1.1849;
254.4000;0.5649;1.1927;
254.7000;0.5674;1.2005;
255.0000;0.5690;1.2031;
255.3000;0.5674;1.1953;
255.6000;0.5682;1.1927;
255.9000;0.5641;1.1875;
256.2000;0.5608;1.1901;
256.5000;0.5665;1.1927;
256.8000;0.5649;1.1849;
257.1000;0.5665;1.1797;
257.4000;0.5706;1.1901;
257.7000;0.5674;1.1823;
258.0000;0.5674;1.1901;
258.3000;0.5657;1.1771;
258.6000;0.5657;1.1797;
258.9000;0.5665;1.1875;
259.2000;0.5665;1.1901;
259.5000;0.5617;1.1771;
259.8000;0.5633;1.1875;
260.1000;0.5641;1.1953;
260.4000;0.5674;1.1953;
260.7000;0.5641;1.1875;
261.0000;0.5617;1.1849;
261.3000;0.5698;1.2031;
261.6000;0.5657;1.1927;
261.9000;0.5665;1.1875;
262.2000;0.5657;1.1823;
262.5000;0.5657;1.1797;
262.8000;0.5657;1.1823;
263.1000;0.5665;1.1746;
263.4000;0.5657;1.1694;
263.7000;0.5674;1.1771;
264.0000;0.5682;1.1849;
264.3000;0.5674;1.1746;
264.6000;0.5657;1.1694;
264.9000;0.5657;1.1746;
265.2000;0.5649;1.1771;
265.5000;0.5665;1.1823;
265.8000;0.5706;1.1875;
266.1000;0.5690;1.1771;
266.4000;0.5682;1.1771;
266.7000;0.5706;1.1875;
267.0000;0.5665;1.1720;
267.3000;0.5674;1.1668;
267.6000;0.5608;1.1512;
267.9000;0.5674;1.1797;
268.2000;0.5665;1.1875;
268.5000;0.5674;1.2031;
268.8000;0.5665;1.2057;
269.1000;0.5657;1.2083;
269.4000;0.5682;1.2186;
269.7000;0.5682;1.2134;
270.0000;0.5665;1.2057;
270.3000;0.5657;1.2005;
270.6000;0.5649;1.1979;
270.9000;0.5665;1.1979;
271.2000;0.5674;1.2005;
271.5000;0.5665;1.2005;
271.8000;0.5665;1.2005;
272.1000;0.5641;1.1979;
272.4000;0.5665;1.1927;
272.7000;0.5674;1.1875;
273.0000;0.5674;1.1927;
273.3000;0.5568;1.1642;
273.6000;0.5674;1.1901;
273.9000;0.5657;1.1875;
274.2000;0.5682;1.1953;
274.5000;0.5657;1.1901;
274.8000;0.5657;1.2031;
275.1000;0.5747;1.2290;
275.4000;0.5674;1.2109;
275.7000;0.5641;1.2031;
276.0000;0.5592;1.1927;
276.3000;0.5690;1.2238;
276.6000;0.5657;1.2134;
276.9000;0.5665;1.2186;
277.2000;0.5665;1.2057;
277.5000;0.5657;1.2186;
277.8000;0.5714;1.2186;
278.1000;0.5674;1.1979;
278.4000;0.5674;1.1927;
278.7000;0.5657;1.1927;
279.0000;0.5649;1.1849;
279.3000;0.5665;1.1849;
279.6000;0.5649;1.1823;
279.9000;0.5657;1.1875;
280.2000;0.5682;1.1927;
280.5000;0.5657;1.2005;
280.8000;0.5682;1.1979;
281.1000;0.5657;1.2031;
281.4000;0.5665;1.1953;
281.7000;0.5674;1.1979;
282.0000;0.5674;1.2005;
282.3000;0.5649;1.1953;
282.6000;0.5690;1.2031;
282.9000;0.5674;1.1979;
283.2000;0.5674;1.2057;
283.5000;0.5665;1.1979;
283.8000;0.5657;1.1927;
284.1000;0.5649;1.2005;
284.4000;0.5641;1.1979;
284.7000;0.5690;1.2109;
285.0000;0.5690;1.2057;
285.3000;0.5657;1.1979;
285.6000;0.5617;1.1875;
285.9000;0.5649;1.1953;
286.2000;0.5649;1.1927;
286.5000;0.5649;1.1953;
286.8000;0.5641;1.1875;
287.1000;0.5657;1.1849;
287.4000;0.5649;1.1720;
287.7000;0.5665;1.1668;
288.0000;0.5608;1.1642;
288.3000;0.5657;1.1771;
288.6000;0.5649;1.1771;
288.9000;0.5674;1.1849;
289.2000;0.5649;1.1849;
289.5000;0.5649;1.1901;
289.8000;0.5600;1.1797;
290.1000;0.5649;1.1875;
290.4000;0.5649;1.1797;
290.7000;0.5657;1.1849;
291.0000;0.5665;1.1823;
291.3000;0.5649;1.1720;
291.6000;0.5649;1.1694;
291.9000;0.5657;1.1720;
292.2000;0.5665;1.1771;
292.5000;0.5657;1.1875;
292.8000;0.5576;1.1590;
293.1000;0.5657;1.1771;
293.4000;0.5649;1.1746;
293.7000;0.5657;1.1797;
294.0000;0.5674;1.1720;
294.3000;0.5657;1.1668;
294.6000;0.5657;1.1668;
294.9000;0.5657;1.1694;
295.2000;0.5649;1.1797;
295.5000;0.5657;1.1720;
295.8000;0.5706;1.1849;
296.1000;0.5649;1.1823;
296.4000;0.5657;1.1875;
296.7000;0.5649;1.1927;
297.0000;0.5674;1.1979;
297.3000;0.5649;1.1979;
297.6000;0.5641;1.1953;
297.9000;0.5649;1.1875;
298.2000;0.5633;1.1746;
298.5000;0.5657;1.1849;
298.8000;0.5625;1.1746;
299.1000;0.5657;1.1797;
299.4000;0.5665;1.1849;
299.7000;0.5641;1.1746;
300.0000;0.5649;1.1823;
300.3000;0.5665;1.1875;
300.6000;0.5665;1.1901;
300.9000;0.5682;1.1901;
301.2000;0.5649;1.1901;
301.5000;0.5674;1.1979;
301.8000;0.5665;1.1901;
302.1000;0.5665;1.1927;
302.4000;0.5657;1.1901;
302.7000;0.5657;1.1875;
303.0000;0.5657;1.1797;
303.3000;0.5649;1.1771;
303.6000;0.5608;1.1720;
303.9000;0.5641;1.1875;
304.2000;0.5641;1.1901;
304.5000;0.5665;1.1979;
304.8000;0.5665;1.2005;
305.1000;0.5649;1.1953;
305.4000;0.5657;1.1927;
305.7000;0.5657;1.1849;
306.0000;0.5657;1.1875;
306.3000;0.5665;1.1875;
306.6000;0.5584;1.1642;
306.9000;0.5690;1.1953;
307.2000;0.5641;1.1901;
307.5000;0.5665;1.1901;
307.8000;0.5731;1.2109;
308.1000;0.5649;1.1901;
308.4000;0.5649;1.1901;
308.7000;0.5600;1.1720;
309.0000;0.5690;1.1979;
309.3000;0.5641;1.1979;
309.6000;0.5649;1.2083;
309.9000;0.5739;1.2316;
310.2000;0.5674;1.2134;
310.5000;0.5641;1.2083;
310.8000;0.5617;1.2005;
311.1000;0.5657;1.2083;
311.4000;0.5657;1.2057;
311.7000;0.5649;1.2005;
312.0000;0.5657;1.2057;
312.3000;0.5665;1.2005;
312.6000;0.5633;1.2057;
312.9000;0.5560;1.1875;
313.2000;0.5657;1.2057;
313.5000;0.5657;1.2057;
313.8000;0.5649;1.2057;
314.1000;0.5641;1.1901;
314.4000;0.5657;1.1979;
314.7000;0.5641;1.2083;
315.0000;0.5649;1.2134;
315.3000;0.5633;1.2083;
315.6000;0.5625;1.2134;
315.9000;0.5641;1.2238;
316.2000;0.5657;1.2290;
316.5000;0.5649;1.2316;
316.8000;0.5698;1.2394;
317.1000;0.5649;1.2134;
317.4000;0.5657;1.2109;
317.7000;0.5657;1.1953;
318.0000;0.5641;1.1927;
318.3000;0.5641;1.1953;
318.6000;0.5657;1.1927;
318.9000;0.5649;1.1875;
319.2000;0.5625;1.1849;
319.5000;0.5641;1.1953;
319.8000;0.5649;1.2005;
320.1000;0.5633;1.1953;
320.4000;0.5641;1.1927;
320.7000;0.5649;1.1927;
321.0000;0.5649;1.1953;
321.3000;0.5657;1.1927;
321.6000;0.5633;1.1771;
321.9000;0.5657;1.1823;
322.2000;0.5657;1.1823;
322.5000;0.5674;1.1875;
322.8000;0.5641;1.1823;
323.1000;0.5649;1.1927;
323.4000;0.5649;1.1901;
323.7000;0.5649;1.1849;
324.0000;0.5649;1.1823;
324.3000;0.5682;1.1927;
324.6000;0.5641;1.1823;
324.9000;0.5657;1.1927;
325.2000;0.5649;1.1901;
325.5000;0.5641;1.1927;
325.8000;0.5649;1.2005;
326.1000;0.5649;1.2031;
326.4000;0.5641;1.1979;
326.7000;0.5641;1.2031;
327.0000;0.5641;1.2057;
327.3000;0.5617;1.1979;
327.6000;0.5657;1.2083;
327.9000;0.5665;1.2057;
328.2000;0.5641;1.2005;
328.5000;0.5649;1.2031;
328.8000;0.5657;1.2005;
329.1000;0.5633;1.2031;
329.4000;0.5584;1.1979;
329.7000;0.5641;1.2212;
330.0000;0.5657;1.2238;
330.3000;0.5674;1.2212;
330.6000;0.5641;1.2134;
330.9000;0.5625;1.2057;
331.2000;0.5633;1.2083;
331.5000;0.5633;1.2031;
331.8000;0.5633;1.2031;
332.1000;0.5641;1.2031;
332.4000;0.5584;1.1823;
332.7000;0.5633;1.1979;
333.0000;0.5633;1.1953;
333.3000;0.5617;1.1979;
333.6000;0.5641;1.2057;
333.9000;0.5665;1.2134;
334.2000;0.5649;1.2109;
334.5000;0.5641;1.2134;
334.8000;0.5625;1.2160;
335.1000;0.5657;1.2212;
335.4000;0.5641;1.2212;
335.7000;0.5649;1.2134;
336.0000;0.5698;1.2394;
336.3000;0.5641;1.2212;
336.6000;0.5641;1.2290;
336.9000;0.5641;1.2186;
337.2000;0.5625;1.2160;
337.5000;0.5641;1.2160;
337.8000;0.5665;1.2186;
338.1000;0.5625;1.2109;
338.4000;0.5633;1.2160;
338.7000;0.5625;1.2186;
339.0000;0.5633;1.2186;
339.3000;0.5641;1.2342;
339.6000;0.5690;1.2471;
339.9000;0.5649;1.2342;
340.2000;0.5633;1.2316;
340.5000;0.5633;1.2290;
340.8000;0.5625;1.2186;
341.1000;0.5657;1.2186;
341.4000;0.5625;1.2290;
341.7000;0.5665;1.2290;
342.0000;0.5657;1.2212;
342.3000;0.5633;1.2134;
342.6000;0.5657;1.2186;
342.9000;0.5641;1.2212;
343.2000;0.5641;1.2186;
343.5000;0.5633;1.2134;
343.8000;0.5633;1.2109;
344.1000;0.5625;1.2057;
344.4000;0.5625;1.2031;
344.7000;0.5641;1.2134;
345.0000;0.5641;1.2031;
345.3000;0.5625;1.2160;
345.6000;0.5633;1.2057;
345.9000;0.5641;1.2057;
346.2000;0.5633;1.2057;
346.5000;0.5714;1.2342;
346.8000;0.5665;1.2160;
347.1000;0.5641;1.2109;
347.4000;0.5641;1.2057;
347.7000;0.5625;1.2109;
348.0000;0.5641;1.2134;
348.3000;0.5641;1.2109;
348.6000;0.5633;1.2109;
348.9000;0.5633;1.2083;
349.2000;0.5633;1.2134;
349.5000;0.5617;1.2134;
349.8000;0.5633;1.2109;
350.1000;0.5625;1.2186;
350.4000;0.5608;1.2160;
350.7000;0.5600;1.2134;
351.0000;0.5633;1.2083;
351.3000;0.5633;1.2031;
351.6000;0.5641;1.2031;
351.9000;0.5649;1.2160;
352.2000;0.5641;1.2160;
352.5000;0.5641;1.2212;
352.8000;0.5657;1.2238;
353.1000;0.5657;1.2290;
353.4000;0.5698;1.2394;
353.7000;0.5633;1.2238;
354.0000;0.5649;1.2264;
354.3000;0.5617;1.2212;
354.6000;0.5617;1.2264;
354.9000;0.5617;1.2264;
355.2000;0.5633;1.2238;
355.5000;0.5641;1.2264;
355.8000;0.5641;1.2238;
356.1000;0.5633;1.2212;
356.4000;0.5633;1.2238;
356.7000;0.5633;1.2290;
357.0000;0.5633;1.2316;
357.3000;0.5625;1.2316;
357.6000;0.5641;1.2316;
357.9000;0.5641;1.2394;
358.2000;0.5641;1.2316;
358.5000;0.5633;1.2316;
358.8000;0.5633;1.2368;
359.1000;0.5641;1.2368;
359.4000;0.5625;1.2290;
359.7000;0.5560;1.2134;
360.0000;0.5625;1.2264;
360.3000;0.5641;1.2264;
360.6000;0.5625;1.2212;
360.9000;0.5600;1.2264;
361.2000;0.5625;1.2290;
361.5000;0.5649;1.2446;
361.8000;0.5649;1.2446;
362.1000;0.5641;1.2342;
362.4000;0.5649;1.2264;
362.7000;0.5649;1.2238;
363.0000;0.5649;1.2264;
363.3000;0.5633;1.2264;
363.6000;0.5617;1.2264;
363.9000;0.5641;1.2212;
364.2000;0.5633;1.2238;
364.5000;0.5625;1.2264;
364.8000;0.5641;1.2342;
365.1000;0.5641;1.2316;
365.4000;0.5633;1.2238;
365.7000;0.5649;1.2394;
366.0000;0.5641;1.2290;
366.3000;0.5641;1.2290;
366.6000;0.5641;1.2290;
366.9000;0.5657;1.2342;
367.2000;0.5641;1.2186;
367.5000;0.5665;1.2160;
367.8000;0.5633;1.2005;
368.1000;0.5674;1.2186;
368.4000;0.5641;1.2212;
368.7000;0.5649;1.2212;
369.0000;0.5649;1.2238;
369.3000;0.5608;1.2134;
369.6000;0.5649;1.2290;
369.9000;0.5649;1.2264;
370.2000;0.5641;1.2316;
370.5000;0.5641;1.2342;
370.8000;0.5576;1.2109;
371.1000;0.5641;1.2290;
371.4000;0.5657;1.2342;
371.7000;0.5633;1.2238;
372.0000;0.5625;1.2264;
372.3000;0.5641;1.2316;
372.6000;0.5641;1.2394;
372.9000;0.5625;1.2342;
373.2000;0.5657;1.2394;
373.5000;0.5625;1.2316;
373.8000;0.5625;1.2290;
374.1000;0.5649;1.2316;
374.4000;0.5633;1.2394;
374.7000;0.5633;1.2420;
375.0000;0.5641;1.2446;
375.3000;0.5617;1.2394;
375.6000;0.5649;1.2446;
375.9000;0.5641;1.2420;
376.2000;0.5617;1.2342;
376.5000;0.5633;1.2368;
376.8000;0.5641;1.2368;
377.1000;0.5633;1.2264;
377.4000;0.5625;1.2238;
377.7000;0.5625;1.2238;
378.0000;0.5625;1.2186;
378.3000;0.5649;1.2342;
378.6000;0.5674;1.2368;
378.9000;0.5633;1.2316;
379.2000;0.5633;1.2316;
379.5000;0.5641;1.2368;
379.8000;0.5625;1.2368;
380.1000;0.5641;1.2394;
380.4000;0.5641;1.2394;
380.7000;0.5625;1.2368;
381.0000;0.5633;1.2316;
381.3000;0.5625;1.2290;
381.6000;0.5625;1.2368;
381.9000;0.5641;1.2368;
382.2000;0.5641;1.2394;
382.5000;0.5617;1.2342;
382.8000;0.5633;1.2368;
383.1000;0.5649;1.2316;
383.4000;0.5633;1.2264;
383.7000;0.5625;1.2212;
384.0000;0.5625;1.2212;
384.3000;0.5617;1.2160;
384.6000;0.5625;1.2134;
384.9000;0.5633;1.2134;
385.2000;0.5641;1.2212;
385.5000;0.5608;1.2212;
385.8000;0.5641;1.2212;
386.1000;0.5657;1.2290;
386.4000;0.5657;1.2420;
386.7000;0.5633;1.2368;
387.0000;0.5633;1.2368;
387.3000;0.5633;1.2290;
387.6000;0.5617;1.2109;
387.9000;0.5641;1.2212;
388.2000;0.5722;1.2446;
388.5000;0.5625;1.2134;
388.8000;0.5674;1.2264;
389.1000;0.5633;1.2212;
389.4000;0.5633;1.2238;
389.7000;0.5625;1.2394;
390.0000;0.5625;1.2420;
390.3000;0.5519;1.2134;
390.6000;0.5584;1.2212;
390.9000;0.5608;1.2290;
391.2000;0.5617;1.2316;
391.5000;0.5625;1.2316;
391.8000;0.5625;1.2186;
392.1000;0.5649;1.2238;
392.4000;0.5633;1.2290;
392.7000;0.5617;1.2290;
393.0000;0.5617;1.2264;
393.3000;0.5543;1.2083;
393.6000;0.5584;1.2186;
393.9000;0.5625;1.2238;
394.2000;0.5633;1.2264;
394.5000;0.5625;1.2238;
394.8000;0.5633;1.2212;
395.1000;0.5633;1.2264;
395.4000;0.5625;1.2160;
395.7000;0.5617;1.2109;
396.0000;0.5625;1.2160;
396.3000;0.5633;1.2160;
396.6000;0.5633;1.2212;
396.9000;0.5633;1.2160;
397.2000;0.5649;1.2160;
397.5000;0.5641;1.2160;
397.8000;0.5633;1.2109;
398.1000;0.5617;1.2134;
398.4000;0.5633;1.2186;
398.7000;0.5592;1.2083;
399.0000;0.5625;1.2264;
399.3000;0.5608;1.2238;
399.6000;0.5608;1.2290;
399.9000;0.5633;1.2368;
400.2000;0.5617;1.2342;
400.5000;0.5625;1.2394;
400.8000;0.5617;1.2316;
401.1000;0.5617;1.2394;
401.4000;0.5633;1.2420;
401.7000;0.5641;1.2446;
402.0000;0.5617;1.2471;
402.3000;0.5617;1.2394;
402.6000;0.5625;1.2420;
402.9000;0.5608;1.2368;
403.2000;0.5625;1.2368;
403.5000;0.5617;1.2264;
403.8000;0.5641;1.2342;
404.1000;0.5633;1.2238;
404.4000;0.5543;1.2005;
404.7000;0.5625;1.2212;
405.0000;0.5617;1.2264;
405.3000;0.5625;1.2316;
405.6000;0.5633;1.2368;
405.9000;0.5625;1.2342;
406.2000;0.5657;1.2420;
406.5000;0.5641;1.2290;
406.8000;0.5576;1.2134;
407.1000;0.5633;1.2264;
407.4000;0.5641;1.2290;
407.7000;0.5641;1.2264;
408.0000;0.5649;1.2342;
408.3000;0.5617;1.2290;
408.6000;0.5608;1.2290;
408.9000;0.5633;1.2316;
409.2000;0.5625;1.2290;
409.5000;0.5633;1.2316;
409.8000;0.5625;1.2290;
410.1000;0.5608;1.2316;
410.4000;0.5641;1.2342;
410.7000;0.5617;1.2342;
411.0000;0.5633;1.2420;
411.3000;0.5608;1.2316;
411.6000;0.5633;1.2420;
411.9000;0.5617;1.2446;
412.2000;0.5617;1.2497;
412.5000;0.5625;1.2446;
412.8000;0.5592;1.2316;
413.1000;0.5641;1.2342;
413.4000;0.5625;1.2186;
413.7000;0.5625;1.2212;
414.0000;0.5625;1.2238;
414.3000;0.5617;1.2212;
414.6000;0.5625;1.2212;
414.9000;0.5617;1.2290;
415.2000;0.5608;1.2238;
415.5000;0.5608;1.2160;
415.8000;0.5649;1.2238;
416.1000;0.5617;1.2109;
416.4000;0.5625;1.2212;
416.7000;0.5625;1.2212;
417.0000;0.5600;1.2134;
417.3000;0.5608;1.2134;
417.6000;0.5625;1.2186;
417.9000;0.5608;1.2238;
418.2000;0.5617;1.2264;
418.5000;0.5584;1.2186;
418.8000;0.5608;1.2134;
419.1000;0.5576;1.2031;
419.4000;0.5633;1.2186;
419.7000;0.5617;1.2160;
420.0000;0.5641;1.2186;
420.3000;0.5625;1.2083;
420.6000;0.5625;1.2057;
420.9000;0.5625;1.2186;
421.2000;0.5625;1.2134;
421.5000;0.5641;1.2186;
421.8000;0.5600;1.2031;
422.1000;0.5633;1.2083;
422.4000;0.5625;1.2109;
422.7000;0.5657;1.2109;
423.0000;0.5641;1.2134;
423.3000;0.5625;1.2057;
423.6000;0.5527;1.1797;
423.9000;0.5625;1.2057;
424.2000;0.5608;1.2031;
424.5000;0.5608;1.1927;
424.8000;0.5600;1.1979;
425.1000;0.5617;1.2057;
425.4000;0.5592;1.2109;
425.7000;0.5608;1.2160;
426.0000;0.5600;1.2134;
426.3000;0.5600;1.2186;
426.6000;0.5600;1.2083;
426.9000;0.5617;1.2186;
427.2000;0.5584;1.2134;
427.5000;0.5592;1.2238;
427.8000;0.5641;1.2290;
428.1000;0.5617;1.2160;
428.4000;0.5600;1.2238;
428.7000;0.5617;1.2290;
429.0000;0.5608;1.2212;
429.3000;0.5608;1.2238;
429.6000;0.5625;1.2264;
429.9000;0.5600;1.2186;
430.2000;0.5617;1.2290;
430.5000;0.5617;1.2238;
430.8000;0.5617;1.2238;
431.1000;0.5608;1.2238;
431.4000;0.5633;1.2342;
431.7000;0.5608;1.2342;
432.0000;0.5633;1.2394;
432.3000;0.5625;1.2420;
432.6000;0.5625;1.2368;
432.9000;0.5633;1.2446;
433.2000;0.5641;1.2394;
433.5000;0.5625;1.2394;
433.8000;0.5665;1.2523;
434.1000;0.5600;1.2446;
434.4000;0.5625;1.2497;
434.7000;0.5617;1.2523;
435.0000;0.5617;1.2549;
435.3000;0.5617;1.2497;
435.6000;0.5641;1.2471;
435.9000;0.5617;1.2446;
436.2000;0.5608;1.2342;
436.5000;0.5641;1.2446;
436.8000;0.5600;1.2342;
437.1000;0.5617;1.2394;
437.4000;0.5617;1.2446;
437.7000;0.5608;1.2394;
438.0000;0.5633;1.2446;
438.3000;0.5617;1.2420;
438.6000;0.5625;1.2549;
438.9000;0.5600;1.2446;
439.2000;0.5608;1.2394;
439.5000;0.5617;1.2316;
439.8000;0.5608;1.2290;
440.1000;0.5617;1.2238;
440.4000;0.5674;1.2368;
440.7000;0.5608;1.2212;
441.0000;0.5625;1.2316;
441.3000;0.5625;1.2420;
441.6000;0.5641;1.2420;
441.9000;0.5633;1.2446;
442.2000;0.5633;1.2523;
442.5000;0.5600;1.2523;
442.8000;0.5600;1.2575;
443.1000;0.5633;1.2601;
443.4000;0.5625;1.2549;
443.7000;0.5625;1.2497;
444.0000;0.5608;1.2446;
444.3000;0.5592;1.2471;
444.6000;0.5617;1.2549;
444.9000;0.5641;1.2627;
445.2000;0.5617;1.2497;
445.5000;0.5608;1.2446;
445.8000;0.5625;1.2497;
446.1000;0.5625;1.2446;
446.4000;0.5600;1.2394;
446.7000;0.5625;1.2549;
447.0000;0.5665;1.2575;
447.3000;0.5592;1.2420;
447.6000;0.5584;1.2368;
447.9000;0.5592;1.2523;
448.2000;0.5617;1.2627;
448.5000;0.5608;1.2575;
448.8000;0.5617;1.2627;
449.1000;0.5633;1.2653;
449.4000;0.5649;1.2601;
449.7000;0.5633;1.2549;
450.0000;0.5633;1.2549;
450.3000;0.5625;1.2549;
450.6000;0.5617;1.2601;
450.9000;0.5625;1.2653;
451.2000;0.5608;1.2549;
451.5000;0.5665;1.2627;
451.8000;0.5608;1.2549;
452.1000;0.5617;1.2575;
452.4000;0.5617;1.2575;
452.7000;0.5584;1.2316;
453.0000;0.5617;1.2446;
453.3000;0.5617;1.2446;
453.6000;0.5633;1.2523;
453.9000;0.5617;1.2446;
454.2000;0.5608;1.2420;
454.5000;0.5625;1.2394;
454.8000;0.5625;1.2471;
455.1000;0.5617;1.2420;
455.4000;0.5600;1.2471;
455.7000;0.5608;1.2523;
456.0000;0.5633;1.2549;
456.3000;0.5633;1.2549;
456.6000;0.5608;1.2549;
456.9000;0.5617;1.2523;
457.2000;0.5617;1.2446;
457.5000;0.5625;1.2394;
457.8000;0.5633;1.2368;
458.1000;0.5592;1.2238;
458.4000;0.5633;1.2290;
458.7000;0.5617;1.2134;
459.0000;0.5608;1.2134;
459.3000;0.5600;1.2134;
459.6000;0.5625;1.2238;
459.9000;0.5641;1.2290;
460.2000;0.5608;1.2186;
460.5000;0.5625;1.2083;
460.8000;0.5625;1.2083;
461.1000;0.5617;1.2134;
461.4000;0.5731;1.2601;
461.7000;0.5592;1.2186;
462.0000;0.5608;1.2316;
462.3000;0.5641;1.2368;
462.6000;0.5592;1.2186;
462.9000;0.5608;1.2212;
463.2000;0.5608;1.2212;
463.5000;0.5608;1.2264;
463.8000;0.5560;1.2160;
464.1000;0.5617;1.2342;
464.4000;0.5576;1.2212;
464.7000;0.5592;1.2212;
465.0000;0.5600;1.2264;
465.3000;0.5576;1.2290;
465.6000;0.5576;1.2342;
465.9000;0.5608;1.2394;
466.2000;0.5674;1.2446;
466.5000;0.5633;1.2342;
466.8000;0.5617;1.2290;
467.1000;0.5608;1.2368;
467.4000;0.5625;1.2446;
467.7000;0.5625;1.2471;
468.0000;0.5600;1.2316;
468.3000;0.5625;1.2290;
468.6000;0.5617;1.2238;
468.9000;0.5625;1.2238;
469.2000;0.5576;1.2083;
469.5000;0.5649;1.2368;
469.8000;0.5600;1.2212;
470.1000;0.5608;1.2186;
470.4000;0.5600;1.2186;
470.7000;0.5576;1.2134;
471.0000;0.5625;1.2316;
471.3000;0.5608;1.2264;
471.6000;0.5576;1.2109;
471.9000;0.5617;1.2238;
472.2000;0.5617;1.2186;
472.5000;0.5625;1.2212;
472.8000;0.5617;1.2264;
473.1000;0.5608;1.2290;
473.4000;0.5584;1.2212;
473.7000;0.5600;1.2290;
474.0000;0.5600;1.2238;
474.3000;0.5617;1.2238;
474.6000;0.5600;1.2160;
474.9000;0.5608;1.2160;
475.2000;0.5592;1.2186;
475.5000;0.5600;1.2186;
475.8000;0.5608;1.2212;
476.1000;0.5665;1.2290;
476.4000;0.5617;1.2186;
476.7000;0.5625;1.2290;
477.0000;0.5600;1.2316;
477.3000;0.5608;1.2368;
477.6000;0.5633;1.2446;
477.9000;0.5625;1.2290;
478.2000;0.5608;1.2238;
478.5000;0.5625;1.2160;
478.8000;0.5625;1.2083;
479.1000;0.5617;1.2109;
479.4000;0.5625;1.2264;
479.7000;0.5674;1.2342;
480.0000;0.5617;1.2186;
480.3000;0.5617;1.2134;
480.6000;0.5617;1.2109;
480.9000;0.5608;1.2109;
481.2000;0.5503;1.1927;
481.5000;0.5608;1.2290;
481.8000;0.5617;1.2368;
482.1000;0.5600;1.2290;
482.4000;0.5608;1.2342;
482.7000;0.5625;1.2446;
483.0000;0.5617;1.2446;
483.3000;0.5608;1.2368;
483.6000;0.5608;1.2394;
483.9000;0.5608;1.2446;
484.2000;0.5617;1.2523;
484.5000;0.5608;1.2497;
484.8000;0.5608;1.2446;
485.1000;0.5600;1.2446;
485.4000;0.5584;1.2497;
485.7000;0.5600;1.2523;
486.0000;0.5608;1.2549;
486.3000;0.5584;1.2471;
486.6000;0.5568;1.2420;
486.9000;0.5584;1.2446;
487.2000;0.5600;1.2471;
487.5000;0.5576;1.2394;
487.8000;0.5608;1.2420;
488.1000;0.5592;1.2471;
488.4000;0.5649;1.2627;
488.7000;0.5600;1.2497;
489.0000;0.5608;1.2290;
489.3000;0.5600;1.2264;
489.6000;0.5617;1.2264;
489.9000;0.5657;1.2316;
490.2000;0.5608;1.2109;
490.5000;0.5608;1.2160;
490.8000;0.5608;1.2160;
491.1000;0.5617;1.2134;
491.4000;0.5617;1.2290;
491.7000;0.5617;1.2394;
492.0000;0.5617;1.2368;
492.3000;0.5608;1.2420;
492.6000;0.5625;1.2471;
492.9000;0.5608;1.2446;
493.2000;0.5625;1.2549;
493.5000;0.5560;1.2212;
493.8000;0.5617;1.2368;
494.1000;0.5617;1.2316;
494.4000;0.5608;1.2368;
494.7000;0.5576;1.2212;
495.0000;0.5600;1.2342;
495.3000;0.5600;1.2264;
495.6000;0.5600;1.2212;
495.9000;0.5600;1.2238;
496.2000;0.5608;1.2264;
496.5000;0.5600;1.2212;
496.8000;0.5600;1.2212;
497.1000;0.5608;1.2264;
497.4000;0.5600;1.2238;
497.7000;0.5600;1.2264;
498.0000;0.5617;1.2238;
498.3000;0.5600;1.2264;
498.6000;0.5608;1.2264;
498.9000;0.5657;1.2420;
499.2000;0.5617;1.2420;
499.5000;0.5617;1.2420;
499.8000;0.5592;1.2368;
500.1000;0.5592;1.2342;
500.4000;0.5608;1.2264;
500.7000;0.5600;1.2212;
501.0000;0.5600;1.2212;
501.3000;0.5617;1.2342;
501.6000;0.5600;1.2342;
501.9000;0.5608;1.2394;
502.2000;0.5600;1.2394;
502.5000;0.5608;1.2446;
502.8000;0.5674;1.2601;
503.1000;0.5617;1.2394;
503.4000;0.5608;1.2316;
503.7000;0.5608;1.2290;
504.0000;0.5600;1.2342;
504.3000;0.5608;1.2342;
504.6000;0.5633;1.2342;
504.9000;0.5617;1.2212;
505.2000;0.5600;1.2238;
505.5000;0.5625;1.2290;
505.8000;0.5600;1.2238;
506.1000;0.5641;1.2316;
506.4000;0.5600;1.2238;
506.7000;0.5608;1.2238;
507.0000;0.5600;1.2134;
507.3000;0.5576;1.2109;
507.6000;0.5584;1.2238;
507.9000;0.5608;1.2342;
508.2000;0.5600;1.2342;
508.5000;0.5592;1.2238;
508.8000;0.5576;1.2109;
509.1000;0.5617;1.2212;
509.4000;0.5584;1.2160;
509.7000;0.5600;1.2264;
510.0000;0.5608;1.2238;
510.3000;0.5527;1.2083;
510.6000;0.5649;1.2446;
510.9000;0.5608;1.2290;
511.2000;0.5625;1.2368;
511.5000;0.5608;1.2212;
511.8000;0.5600;1.2264;
512.1000;0.5608;1.2264;
512.4000;0.5625;1.2342;
512.7000;0.5608;1.2290;
513.0000;0.5617;1.2238;
513.3000;0.5625;1.2290;
513.6000;0.5617;1.2316;
513.9000;0.5600;1.2264;
514.2000;0.5592;1.2238;
514.5000;0.5576;1.2264;
514.8000;0.5617;1.2316;
515.1000;0.5608;1.2238;
515.4000;0.5617;1.2238;
515.7000;0.5633;1.2342;
516.0000;0.5617;1.2290;
516.3000;0.5600;1.2212;
516.6000;0.5617;1.2238;
516.9000;0.5608;1.2186;
517.2000;0.5625;1.2290;
517.5000;0.5617;1.2264;
517.8000;0.5617;1.2342;
518.1000;0.5617;1.2368;
518.4000;0.5625;1.2342;
518.7000;0.5543;1.2057;
519.0000;0.5608;1.2238;
519.3000;0.5617;1.2316;
519.6000;0.5527;1.2083;
519.9000;0.5592;1.2316;
520.2000;0.5608;1.2420;
520.5000;0.5519;1.2212;
520.8000;0.5560;1.2342;
521.1000;0.5600;1.2446;
521.4000;0.5608;1.2446;
521.7000;0.5600;1.2446;
522.0000;0.5551;1.2290;
522.3000;0.5617;1.2446;
522.6000;0.5592;1.2471;
522.9000;0.5576;1.2446;
523.2000;0.5608;1.2575;
523.5000;0.5608;1.2575;
523.8000;0.5617;1.2575;
524.1000;0.5608;1.2549;
524.4000;0.5625;1.2575;
524.7000;0.5600;1.2497;
525.0000;0.5617;1.2497;
525.3000;0.5600;1.2368;
525.6000;0.5617;1.2420;
525.9000;0.5617;1.2394;
526.2000;0.5608;1.2394;
526.5000;0.5600;1.2497;
526.8000;0.5584;1.2471;
527.1000;0.5608;1.2601;
527.4000;0.5625;1.2523;
527.7000;0.5568;1.2394;
528.0000;0.5600;1.2394;
528.3000;0.5608;1.2368;
528.6000;0.5551;1.2160;
528.9000;0.5617;1.2368;
529.2000;0.5608;1.2394;
529.5000;0.5600;1.2368;
529.8000;0.5608;1.2394;
530.1000;0.5600;1.2420;
530.4000;0.5584;1.2420;
530.7000;0.5592;1.2471;
531.0000;0.5592;1.2549;
531.3000;0.5600;1.2497;
531.6000;0.5592;1.2446;
531.9000;0.5600;1.2497;
532.2000;0.5600;1.2471;
532.5000;0.5608;1.2446;
532.8000;0.5592;1.2342;
533.1000;0.5584;1.2290;
533.4000;0.5600;1.2368;
533.7000;0.5617;1.2471;
534.0000;0.5592;1.2471;
534.3000;0.5617;1.2446;
534.6000;0.5600;1.2420;
534.9000;0.5584;1.2316;
535.2000;0.5592;1.2290;
535.5000;0.5592;1.2368;
535.8000;0.5600;1.2368;
536.1000;0.5617;1.2471;
536.4000;0.5608;1.2342;
536.7000;0.5592;1.2264;
537.0000;0.5617;1.2420;
537.3000;0.5608;1.2446;
537.6000;0.5600;1.2471;
537.9000;0.5592;1.2420;
538.2000;0.5600;1.2523;
538.5000;0.5641;1.2705;
538.8000;0.5617;1.2627;
539.1000;0.5641;1.2679;
539.4000;0.5608;1.2679;
539.7000;0.5592;1.2575;
540.0000;0.5608;1.2601;
540.3000;0.5600;1.2601;
540.6000;0.5608;1.2679;
540.9000;0.5600;1.2575;
541.2000;0.5608;1.2601;
541.5000;0.5535;1.2420;
541.8000;0.5584;1.2549;
542.1000;0.5617;1.2601;
542.4000;0.5592;1.2601;
542.7000;0.5576;1.2497;
543.0000;0.5535;1.2420;
543.3000;0.5592;1.2523;
543.6000;0.5649;1.2679;
543.9000;0.5608;1.2575;
544.2000;0.5592;1.2523;
544.5000;0.5519;1.2316;
544.8000;0.5608;1.2627;
545.1000;0.5600;1.2627;
545.4000;0.5592;1.2601;
545.7000;0.5576;1.2627;
546.0000;0.5584;1.2601;
546.3000;0.5600;1.2523;
546.6000;0.5576;1.2420;
546.9000;0.5543;1.2394;
547.2000;0.5584;1.2627;
547.5000;0.5600;1.2705;
547.8000;0.5600;1.2653;
548.1000;0.5608;1.2653;
548.4000;0.5600;1.2627;
548.7000;0.5584;1.2679;
549.0000;0.5592;1.2653;
549.3000;0.5600;1.2679;
549.6000;0.5608;1.2679;
549.9000;0.5600;1.2679;
550.2000;0.5608;1.2653;
550.5000;0.5600;1.2627;
550.8000;0.5641;1.2757;
551.1000;0.5584;1.2679;
551.4000;0.5576;1.2705;
551.7000;0.5584;1.2601;
552.0000;0.5592;1.2653;
552.3000;0.5560;1.2549;
552.6000;0.5608;1.2601;
552.9000;0.5584;1.2653;
553.2000;0.5600;1.2757;
553.5000;0.5617;1.2783;
553.8000;0.5584;1.2757;
554.1000;0.5600;1.2809;
554.4000;0.5576;1.2731;
554.7000;0.5592;1.2731;
555.0000;0.5584;1.2705;
555.3000;0.5584;1.2731;
555.6000;0.5600;1.2731;
555.9000;0.5576;1.2653;
556.2000;0.5600;1.2757;
556.5000;0.5608;1.2731;
556.8000;0.5592;1.2679;
557.1000;0.5592;1.2731;
557.4000;0.5608;1.2757;
557.7000;0.5584;1.2653;
558.0000;0.5617;1.2809;
558.3000;0.5576;1.2679;
558.6000;0.5584;1.2679;
558.9000;0.5608;1.2809;
559.2000;0.5576;1.2783;
559.5000;0.5584;1.2757;
559.8000;0.5608;1.2731;
560.1000;0.5617;1.2757;
560.4000;0.5511;1.2471;
560.7000;0.5600;1.2653;
561.0000;0.5576;1.2653;
561.3000;0.5576;1.2731;
561.6000;0.5592;1.2705;
561.9000;0.5568;1.2653;
562.2000;0.5592;1.2679;
562.5000;0.5600;1.2679;
562.8000;0.5576;1.2601;
563.1000;0.5584;1.2601;
563.4000;0.5625;1.2627;
563.7000;0.5543;1.2471;
564.0000;0.5592;1.2575;
564.3000;0.5576;1.2497;
564.6000;0.5592;1.2575;
564.9000;0.5608;1.2653;
565.2000;0.5617;1.2679;
565.5000;0.5543;1.2523;
565.8000;0.5600;1.2653;
566.1000;0.5584;1.2601;
566.4000;0.5657;1.2679;
566.7000;0.5576;1.2497;
567.0000;0.5576;1.2601;
567.3000;0.5568;1.2601;
567.6000;0.5584;1.2601;
567.9000;0.5600;1.2653;
568.2000;0.5617;1.2601;
568.5000;0.5560;1.2497;
568.8000;0.5690;1.2757;
569.1000;0.5592;1.2497;
569.4000;0.5600;1.2575;
569.7000;0.5584;1.2627;
570.0000;0.5600;1.2627;
570.3000;0.5584;1.2627;
570.6000;0.5584;1.2601;
570.9000;0.5600;1.2627;
571.2000;0.5568;1.2601;
571.5000;0.5568;1.2497;
571.8000;0.5592;1.2549;
572.1000;0.5568;1.2523;
572.4000;0.5592;1.2497;
572.7000;0.5584;1.2523;
573.0000;0.5592;1.2549;
573.3000;0.5608;1.2575;
573.6000;0.5600;1.2549;
573.9000;0.5608;1.2575;
574.2000;0.5584;1.2523;
574.5000;0.5592;1.2549;
574.8000;0.5592;1.2446;
575.1000;0.5657;1.2731;
575.4000;0.5608;1.2653;
575.7000;0.5576;1.2523;
576.0000;0.5584;1.2575;
576.3000;0.5568;1.2549;
576.6000;0.5584;1.2471;
576.9000;0.5592;1.2446;
577.2000;0.5625;1.2446;
577.5000;0.5600;1.2394;
577.8000;0.5592;1.2368;
578.1000;0.5617;1.2394;
578.4000;0.5527;1.2160;
578.7000;0.5600;1.2497;
579.0000;0.5592;1.2575;
579.3000;0.5657;1.2705;
579.6000;0.5592;1.2549;
579.9000;0.5584;1.2523;
580.2000;0.5592;1.2601;
580.5000;0.5560;1.2575;
580.8000;0.5584;1.2575;
581.1000;0.5592;1.2575;
581.4000;0.5576;1.2601;
581.7000;0.5608;1.2601;
582.0000;0.5592;1.2601;
582.3000;0.5608;1.2575;
582.6000;0.5600;1.2601;
582.9000;0.5592;1.2575;
583.2000;0.5592;1.2575;
583.5000;0.5617;1.2601;
583.8000;0.5600;1.2601;
584.1000;0.5608;1.2679;
584.4000;0.5576;1.2679;
584.7000;0.5617;1.2679;
585.0000;0.5608;1.2575;
585.3000;0.5600;1.2575;
585.6000;0.5608;1.2627;
585.9000;0.5608;1.2679;
586.2000;0.5592;1.2653;
586.5000;0.5592;1.2653;
586.8000;0.5600;1.2601;
587.1000;0.5600;1.2679;
587.4000;0.5608;1.2679;
587.7000;0.5576;1.2627;
588.0000;0.5600;1.2575;
588.3000;0.5608;1.2575;
588.6000;0.5600;1.2575;
588.9000;0.5584;1.2601;
589.2000;0.5617;1.2679;
589.5000;0.5600;1.2679;
589.8000;0.5584;1.2731;
590.1000;0.5576;1.2705;
590.4000;0.5584;1.2783;
590.7000;0.5584;1.2731;
591.0000;0.5576;1.2653;
591.3000;0.5576;1.2627;
591.6000;0.5592;1.2627;
591.9000;0.5584;1.2601;
592.2000;0.5584;1.2627;
592.5000;0.5527;1.2420;
592.8000;0.5584;1.2549;
593.1000;0.5584;1.2653;
593.4000;0.5584;1.2627;
593.7000;0.5600;1.2575;
594.0000;0.5592;1.2549;
594.3000;0.5576;1.2471;
594.6000;0.5600;1.2653;
594.9000;0.5592;1.2549;
595.2000;0.5543;1.2368;
595.5000;0.5592;1.2420;
595.8000;0.5584;1.2368;
596.1000;0.5584;1.2368;
596.4000;0.5592;1.2420;
596.7000;0.5584;1.2420;
597.0000;0.5584;1.2394;
597.3000;0.5584;1.2394;
597.6000;0.5576;1.2316;
597.9000;0.5592;1.2368;
598.2000;0.5641;1.2497;
598.5000;0.5608;1.2471;
598.8000;0.5592;1.2446;
599.1000;0.5584;1.2342;
599.4000;0.5576;1.2316;
599.7000;0.5576;1.2368;
600.0000;0.5560;1.2342;
600.3000;0.5576;1.2238;
600.6000;0.5486;1.1875;
600.9000;0.5543;1.1927;
601.2000;0.5486;1.1668;
601.5000;0.5446;1.1434;
601.8000;0.5372;1.1071;
602.1000;0.5324;1.0786;
602.4000;0.5275;1.0449;
602.7000;0.5226;1.0294;
603.0000;0.5169;1.0060;
603.3000;0.5112;0.9801;
603.6000;0.5104;0.9723;
603.9000;0.5063;0.9568;
604.2000;0.5031;0.9412;
604.5000;0.5006;0.9308;
604.8000;0.4982;0.9230;
605.1000;0.4925;0.9075;
605.4000;0.4917;0.9023;
605.7000;0.4884;0.8997;
606.0000;0.4884;0.9049;
606.3000;0.4868;0.9075;
606.6000;0.4827;0.8945;
606.9000;0.4819;0.8738;
607.2000;0.4819;0.8634;
607.5000;0.4794;0.8453;
607.8000;0.4778;0.8427;
608.1000;0.4770;0.8375;
608.4000;0.4746;0.8271;
608.7000;0.4737;0.8297;
609.0000;0.4737;0.8323;
609.3000;0.4721;0.8271;
609.6000;0.4697;0.8141;
609.9000;0.4713;0.8141;
610.2000;0.4697;0.8141;
610.5000;0.4640;0.7960;
610.8000;0.4672;0.8116;
611.1000;0.4656;0.8116;
611.4000;0.4664;0.8193;
611.7000;0.4640;0.8090;
612.0000;0.4640;0.8012;
612.3000;0.4640;0.8012;
612.6000;0.4664;0.7960;
612.9000;0.4624;0.7856;
613.2000;0.4632;0.7960;
613.5000;0.4632;0.7960;
613.8000;0.4615;0.7986;
614.1000;0.4583;0.7908;
614.4000;0.4607;0.7986;
614.7000;0.4615;0.7960;
615.0000;0.4607;0.8038;
615.3000;0.4575;0.7986;
615.6000;0.4583;0.7986;
615.9000;0.4591;0.7960;
616.2000;0.4591;0.8012;
616.5000;0.4583;0.7882;
616.8000;0.4558;0.7804;
617.1000;0.4558;0.7778;
617.4000;0.4567;0.7778;
617.7000;0.4542;0.7753;
618.0000;0.4567;0.7753;
618.3000;0.4550;0.7727;
618.6000;0.4567;0.7623;
618.9000;0.4542;0.7467;
619.2000;0.4534;0.7597;
619.5000;0.4534;0.7623;
619.8000;0.4550;0.7778;
620.1000;0.4550;0.7778;
620.4000;0.4518;0.7701;
620.7000;0.4485;0.7649;
621.0000;0.4526;0.7727;
621.3000;0.4493;0.7623;
621.6000;0.4534;0.7727;
621.9000;0.4518;0.7701;
622.2000;0.4493;0.7727;
622.5000;0.4518;0.7830;
622.8000;0.4510;0.7882;
623.1000;0.4501;0.7908;
623.4000;0.4510;0.7960;
623.7000;0.4518;0.7934;
624.0000;0.4493;0.7934;
624.3000;0.4493;0.7908;
624.6000;0.4518;0.8012;
624.9000;0.4493;0.7960;
625.2000;0.4591;0.8271;
625.5000;0.4469;0.7908;
625.8000;0.4461;0.7908;
626.1000;0.4485;0.7882;
626.4000;0.4461;0.7856;
626.7000;0.4453;0.7804;
627.0000;0.4461;0.7908;
627.3000;0.4444;0.7882;
627.6000;0.4477;0.7856;
627.9000;0.4436;0.7701;
628.2000;0.4444;0.7727;
628.5000;0.4493;0.7908;
628.8000;0.4461;0.7830;
629.1000;0.4453;0.7804;
629.4000;0.4461;0.7882;
629.7000;0.4436;0.7882;
630.0000;0.4436;0.7804;
630.3000;0.4436;0.7727;
630.6000;0.4428;0.7778;
630.9000;0.4436;0.7778;
631.2000;0.4453;0.7882;
631.5000;0.4453;0.7830;
631.8000;0.4444;0.7830;
632.1000;0.4420;0.7830;
632.4000;0.4477;0.7986;
632.7000;0.4444;0.7830;
633.0000;0.4428;0.7804;
633.3000;0.4420;0.7778;
633.6000;0.4453;0.7882;
633.9000;0.4428;0.7882;
634.2000;0.4420;0.7830;
634.5000;0.4436;0.7908;
634.8000;0.4387;0.7856;
635.1000;0.4420;0.7856;
635.4000;0.4420;0.7830;
635.7000;0.4420;0.7882;
636.0000;0.4396;0.7804;
636.3000;0.4396;0.7804;
636.6000;0.4436;0.7778;
636.9000;0.4396;0.7649;
637.2000;0.4412;0.7545;
637.5000;0.4396;0.7519;
637.8000;0.4412;0.7545;
638.1000;0.4396;0.7649;
638.4000;0.4404;0.7675;
638.7000;0.4404;0.7727;
639.0000;0.4396;0.7753;
639.3000;0.4412;0.7830;
639.6000;0.4379;0.7778;
639.9000;0.4379;0.7856;
640.2000;0.4420;0.7986;
640.5000;0.4396;0.7934;
640.8000;0.4396;0.7934;
641.1000;0.4363;0.7882;
641.4000;0.4387;0.7934;
641.7000;0.4396;0.8012;
642.0000;0.4379;0.7960;
642.3000;0.4379;0.7934;
642.6000;0.4387;0.7960;
642.9000;0.4387;0.7960;
643.2000;0.4371;0.7934;
643.5000;0.4379;0.7934;
643.8000;0.4387;0.7882;
644.1000;0.4371;0.7804;
644.4000;0.4298;0.7623;
644.7000;0.4363;0.7753;
645.0000;0.4371;0.7882;
645.3000;0.4379;0.7830;
645.6000;0.4379;0.7804;
645.9000;0.4347;0.7701;
646.2000;0.4355;0.7727;
646.5000;0.4379;0.7727;
646.8000;0.4265;0.7493;
647.1000;0.4355;0.7778;
647.4000;0.4355;0.7804;
647.7000;0.4314;0.7701;
648.0000;0.4347;0.7804;
648.3000;0.4347;0.7830;
648.6000;0.4330;0.7804;
648.9000;0.4339;0.7882;
649.2000;0.4322;0.7830;
649.5000;0.4339;0.7934;
649.8000;0.4355;0.7908;
650.1000;0.4322;0.7804;
650.4000;0.4314;0.7830;
650.7000;0.4339;0.7882;
651.0000;0.4339;0.7778;
651.3000;0.4339;0.7753;
651.6000;0.4330;0.7830;
651.9000;0.4330;0.7830;
652.2000;0.4322;0.7908;
652.5000;0.4330;0.7934;
652.8000;0.4355;0.8064;
653.1000;0.4330;0.8012;
653.4000;0.4322;0.7960;
653.7000;0.4339;0.7986;
654.0000;0.4339;0.8064;
654.3000;0.4339;0.8012;
654.6000;0.4330;0.7986;
654.9000;0.4314;0.8012;
655.2000;0.4314;0.8038;
655.5000;0.4347;0.8141;
655.8000;0.4371;0.8141;
656.1000;0.4314;0.8038;
656.4000;0.4314;0.7986;
656.7000;0.4306;0.7960;
657.0000;0.4282;0.7908;
657.3000;0.4322;0.8012;
657.6000;0.4282;0.7934;
657.9000;0.4306;0.8012;
658.2000;0.4290;0.8038;
658.5000;0.4290;0.8038;
658.8000;0.4306;0.8012;
659.1000;0.4282;0.7934;
659.4000;0.4298;0.7960;
659.7000;0.4330;0.8038;
660.0000;0.4298;0.7882;
660.3000;0.4298;0.7934;
660.6000;0.4290;0.8038;
660.9000;0.4322;0.8064;
661.2000;0.4298;0.7960;
661.5000;0.4306;0.7986;
661.8000;0.4314;0.7934;
662.1000;0.4290;0.7960;
662.4000;0.4290;0.7986;
662.7000;0.4298;0.7934;
663.0000;0.4290;0.7882;
663.3000;0.4298;0.7986;
663.6000;0.4282;0.8038;
663.9000;0.4282;0.7986;
664.2000;0.4290;0.7960;
664.5000;0.4298;0.7882;
664.8000;0.4265;0.7727;
665.1000;0.4274;0.7727;
665.4000;0.4306;0.7675;
665.7000;0.4298;0.7649;
666.0000;0.4282;0.7623;
666.3000;0.4274;0.7649;
666.6000;0.4298;0.7727;
666.9000;0.4282;0.7753;
667.2000;0.4282;0.7753;
667.5000;0.4265;0.7623;
667.8000;0.4274;0.7727;
668.1000;0.4314;0.7778;
668.4000;0.4290;0.7649;
668.7000;0.4282;0.7649;
669.0000;0.4257;0.7571;
669.3000;0.4265;0.7623;
669.6000;0.4274;0.7675;
669.9000;0.4241;0.7623;
670.2000;0.4265;0.7701;
670.5000;0.4257;0.7623;
670.8000;0.4265;0.7649;
671.1000;0.4176;0.7545;
671.4000;0.4322;0.7934;
671.7000;0.4249;0.7804;
672.0000;0.4257;0.7804;
672.3000;0.4274;0.7830;
672.6000;0.4257;0.7778;
672.9000;0.4282;0.7856;
673.2000;0.4322;0.8167;
673.5000;0.4265;0.8064;
673.8000;0.4257;0.7934;
674.1000;0.4249;0.7856;
674.4000;0.4257;0.7908;
674.7000;0.4257;0.7856;
675.0000;0.4241;0.7856;
675.3000;0.4200;0.7675;
675.6000;0.4249;0.7856;
675.9000;0.4257;0.7934;
676.2000;0.4225;0.7804;
676.5000;0.4249;0.7882;
676.8000;0.4249;0.7882;
677.1000;0.4233;0.7830;
677.4000;0.4233;0.7882;
677.7000;0.4241;0.7830;
678.0000;0.4241;0.7804;
678.3000;0.4249;0.7804;
678.6000;0.4265;0.7753;
678.9000;0.4241;0.7804;
679.2000;0.4241;0.7856;
679.5000;0.4257;0.7856;
679.8000;0.4233;0.7778;
680.1000;0.4241;0.7778;
680.4000;0.4225;0.7727;
680.7000;0.4208;0.7830;
681.0000;0.4233;0.7882;
681.3000;0.4249;0.7856;
681.6000;0.4330;0.8141;
681.9000;0.4233;0.7934;
682.2000;0.4217;0.7856;
682.5000;0.4225;0.7882;
682.8000;0.4160;0.7675;
683.1000;0.4200;0.7804;
683.4000;0.4225;0.7908;
683.7000;0.4225;0.7934;
684.0000;0.4233;0.7882;
684.3000;0.4208;0.7830;
684.6000;0.4225;0.7934;
684.9000;0.4257;0.8090;
685.2000;0.4192;0.7908;
685.5000;0.4241;0.7856;
685.8000;0.4225;0.7778;
686.1000;0.4217;0.7804;
686.4000;0.4233;0.7856;
686.7000;0.4225;0.7908;
687.0000;0.4208;0.7908;
687.3000;0.4176;0.7753;
687.6000;0.4208;0.7804;
687.9000;0.4208;0.7804;
688.2000;0.4151;0.7675;
688.5000;0.4225;0.7986;
688.8000;0.4217;0.7934;
689.1000;0.4208;0.7882;
689.4000;0.4208;0.7908;
689.7000;0.4217;0.7830;
690.0000;0.4200;0.7727;
690.3000;0.4217;0.7804;
690.6000;0.4184;0.7753;
690.9000;0.4192;0.7804;
691.2000;0.4225;0.7882;
691.5000;0.4208;0.7934;
691.8000;0.4208;0.7934;
692.1000;0.4233;0.8090;
692.4000;0.4200;0.7908;
692.7000;0.4208;0.7934;
693.0000;0.4176;0.7830;
693.3000;0.4249;0.8012;
693.6000;0.4192;0.7882;
693.9000;0.4200;0.7830;
694.2000;0.4208;0.7778;
694.5000;0.4151;0.7571;
694.8000;0.4184;0.7727;
695.1000;0.4208;0.7778;
695.4000;0.4282;0.7986;
695.7000;0.4200;0.7701;
696.0000;0.4192;0.7675;
696.3000;0.4192;0.7649;
696.6000;0.4160;0.7545;
696.9000;0.4184;0.7623;
697.2000;0.4168;0.7571;
697.5000;0.4176;0.7623;
697.8000;0.4184;0.7778;
698.1000;0.4184;0.7778;
698.4000;0.4208;0.7753;
698.7000;0.4192;0.7727;
699.0000;0.4192;0.7727;
699.3000;0.4192;0.7727;
699.6000;0.4192;0.7727;
699.9000;0.4184;0.7675;
700.2000;0.4192;0.7701;
700.5000;0.4184;0.7753;
700.8000;0.4176;0.7804;
701.1000;0.4184;0.7778;
701.4000;0.4192;0.7753;
701.7000;0.4192;0.7753;
702.0000;0.4168;0.7675;
702.3000;0.4192;0.7753;
702.6000;0.4160;0.7753;
702.9000;0.4184;0.7856;
703.2000;0.4168;0.7804;
703.5000;0.4184;0.7856;
703.8000;0.4192;0.7804;
704.1000;0.4192;0.7804;
704.4000;0.4176;0.7830;
704.7000;0.4176;0.7778;
705.0000;0.4184;0.7908;
705.3000;0.4184;0.7960;
705.6000;0.4111;0.7830;
705.9000;0.4160;0.8038;
706.2000;0.4168;0.7986;
706.5000;0.4217;0.8219;
706.8000;0.4151;0.8038;
707.1000;0.4127;0.7908;
707.4000;0.4168;0.7960;
707.7000;0.4192;0.8038;
708.0000;0.4168;0.7960;
708.3000;0.4160;0.7908;
708.6000;0.4160;0.8012;
708.9000;0.4168;0.7960;
709.2000;0.4160;0.7882;
709.5000;0.4151;0.7830;
709.8000;0.4176;0.7934;
710.1000;0.4176;0.7960;
710.4000;0.4151;0.7882;
710.7000;0.4160;0.7908;
711.0000;0.4151;0.7778;
711.3000;0.4094;0.7701;
711.6000;0.4176;0.7882;
711.9000;0.4160;0.7701;
712.2000;0.4151;0.7727;
712.5000;0.4160;0.7727;
712.8000;0.4176;0.7804;
713.1000;0.4160;0.7778;
713.4000;0.4168;0.7727;
713.7000;0.4160;0.7753;
714.0000;0.4160;0.7830;
714.3000;0.4143;0.7804;
714.6000;0.4151;0.7830;
714.9000;0.4168;0.7856;
715.2000;0.4168;0.7882;
715.5000;0.4160;0.7753;
715.8000;0.4160;0.7830;
716.1000;0.4127;0.7675;
716.4000;0.4168;0.7753;
716.7000;0.4184;0.7649;
717.0000;0.4160;0.7493;
717.3000;0.4168;0.7519;
717.6000;0.4160;0.7493;
717.9000;0.4160;0.7571;
718.2000;0.4094;0.7441;
718.5000;0.4151;0.7597;
718.8000;0.4160;0.7519;
719.1000;0.4151;0.7467;
719.4000;0.4143;0.7441;
719.7000;0.4127;0.7364;
720.0000;0.4135;0.7441;
720.3000;0.4143;0.7545;
720.6000;0.4168;0.7519;
720.9000;0.4127;0.7467;
721.2000;0.4135;0.7519;
721.5000;0.4160;0.7545;
721.8000;0.4143;0.7545;
722.1000;0.4127;0.7623;
722.4000;0.4143;0.7675;
722.7000;0.4143;0.7701;
723.0000;0.4143;0.7753;
723.3000;0.4135;0.7753;
723.6000;0.4135;0.7701;
723.9000;0.4143;0.7701;
724.2000;0.4151;0.7727;
724.5000;0.4127;0.7701;
724.8000;0.4119;0.7804;
725.1000;0.4127;0.7804;
725.4000;0.4127;0.7804;
725.7000;0.4127;0.7675;
726.0000;0.4119;0.7571;
726.3000;0.4119;0.7597;
726.6000;0.4127;0.7701;
726.9000;0.4135;0.7778;
727.2000;0.4143;0.7804;
727.5000;0.4135;0.7830;
727.8000;0.4135;0.7856;
728.1000;0.4127;0.7753;
728.4000;0.4119;0.7675;
728.7000;0.4143;0.7804;
729.0000;0.4135;0.7727;
729.3000;0.4127;0.7571;
729.6000;0.4241;0.7856;
729.9000;0.4143;0.7571;
730.2000;0.4103;0.7649;
730.5000;0.4135;0.7727;
730.8000;0.4127;0.7753;
731.1000;0.4119;0.7753;
731.4000;0.4127;0.7778;
731.7000;0.4127;0.7753;
732.0000;0.4127;0.7701;
732.3000;0.4111;0.7649;
732.6000;0.4127;0.7623;
732.9000;0.4111;0.7623;
733.2000;0.4143;0.7649;
733.5000;0.4127;0.7675;
733.8000;0.4151;0.7701;
734.1000;0.4135;0.7675;
734.4000;0.4135;0.7701;
734.7000;0.4135;0.7804;
735.0000;0.4111;0.7778;
735.3000;0.4127;0.7778;
735.6000;0.4143;0.7778;
735.9000;0.4094;0.7649;
736.2000;0.4119;0.7623;
736.5000;0.4103;0.7649;
736.8000;0.4111;0.7623;
737.1000;0.4103;0.7623;
737.4000;0.4094;0.7623;
737.7000;0.4119;0.7675;
738.0000;0.4103;0.7701;
738.3000;0.4111;0.7727;
738.6000;0.4111;0.7778;
738.9000;0.4103;0.7778;
739.2000;0.4127;0.7778;
739.5000;0.4119;0.7727;
739.8000;0.4070;0.7623;
740.1000;0.4094;0.7623;
740.4000;0.4111;0.7675;
740.7000;0.4103;0.7727;
741.0000;0.4111;0.7701;
741.3000;0.4094;0.7753;
741.6000;0.4103;0.7727;
741.9000;0.4127;0.7856;
742.2000;0.4151;0.7986;
742.5000;0.4111;0.7778;
742.8000;0.4111;0.7830;
743.1000;0.4127;0.7830;
743.4000;0.4127;0.7830;
743.7000;0.4086;0.7675;
744.0000;0.4103;0.7675;
744.3000;0.4094;0.7649;
744.6000;0.4119;0.7571;
744.9000;0.4111;0.7623;
745.2000;0.4111;0.7649;
745.5000;0.4103;0.7701;
745.8000;0.4119;0.7675;
746.1000;0.4103;0.7623;
746.4000;0.4094;0.7778;
746.7000;0.4070;0.7727;
747.0000;0.4103;0.7882;
747.3000;0.4078;0.7804;
747.6000;0.4094;0.7778;
747.9000;0.4184;0.7986;
748.2000;0.4086;0.7727;
748.5000;0.4086;0.7753;
748.8000;0.4103;0.7830;
749.1000;0.4119;0.7960;
749.4000;0.4103;0.7934;
749.7000;0.4111;0.7856;
750.0000;0.4103;0.7830;
750.3000;0.4103;0.7804;
750.6000;0.4103;0.7856;
750.9000;0.4111;0.7804;
751.2000;0.4103;0.7856;
751.5000;0.4103;0.7908;
751.8000;0.4094;0.7856;
752.1000;0.4111;0.7882;
752.4000;0.4086;0.7778;
752.7000;0.4094;0.7753;
753.0000;0.4094;0.7804;
753.3000;0.4111;0.7830;
753.6000;0.4094;0.7778;
753.9000;0.4086;0.7675;
754.2000;0.4094;0.7701;
754.5000;0.4103;0.7778;
754.8000;0.4103;0.7701;
755.1000;0.4078;0.7649;
755.4000;0.4078;0.7649;
755.7000;0.4086;0.7778;
756.0000;0.4094;0.7804;
756.3000;0.4094;0.7882;
756.6000;0.4078;0.7908;
756.9000;0.4094;0.7934;
757.2000;0.4086;0.7882;
757.5000;0.4070;0.7804;
757.8000;0.4070;0.7830;
758.1000;0.4086;0.7986;
758.4000;0.4111;0.8038;
758.7000;0.4094;0.8090;
759.0000;0.4078;0.8090;
759.3000;0.4013;0.7830;
759.6000;0.4086;0.7908;
759.9000;0.4119;0.8064;
760.2000;0.4054;0.7882;
760.5000;0.4078;0.7934;
760.8000;0.4078;0.7882;
761.1000;0.4086;0.7856;
761.4000;0.4103;0.7804;
761.7000;0.4070;0.7623;
762.0000;0.4127;0.7778;
762.3000;0.4094;0.7753;
762.6000;0.4070;0.7778;
762.9000;0.4078;0.7830;
763.2000;0.4070;0.7753;
763.5000;0.4111;0.7830;
763.8000;0.4070;0.7778;
764.1000;0.4078;0.7753;
764.4000;0.4070;0.7649;
764.7000;0.4094;0.7701;
765.0000;0.4078;0.7753;
765.3000;0.4062;0.7701;
765.6000;0.4078;0.7701;
765.9000;0.4078;0.7727;
766.2000;0.4029;0.7571;
766.5000;0.4078;0.7753;
766.8000;0.4062;0.7701;
767.1000;0.4070;0.7701;
767.4000;0.4054;0.7623;
767.7000;0.4054;0.7623;
768.0000;0.4086;0.7623;
768.3000;0.4037;0.7649;
768.6000;0.4070;0.7727;
768.9000;0.4086;0.7804;
769.2000;0.4086;0.7727;
769.5000;0.4070;0.7727;
769.8000;0.4086;0.7727;
770.1000;0.4078;0.7675;
770.4000;0.4070;0.7701;
770.7000;0.4094;0.7804;
771.0000;0.4070;0.7830;
771.3000;0.4078;0.7830;
771.6000;0.4062;0.7830;
771.9000;0.4086;0.7908;
772.2000;0.4143;0.8064;
772.5000;0.4086;0.7856;
772.8000;0.4078;0.7830;
773.1000;0.4086;0.7882;
773.4000;0.4062;0.7908;
773.7000;0.4037;0.7804;
774.0000;0.4127;0.8064;
774.3000;0.4070;0.7882;
774.6000;0.4070;0.8012;
774.9000;0.4070;0.8090;
775.2000;0.4070;0.7986;
775.5000;0.4029;0.7830;
775.8000;0.4070;0.7934;
776.1000;0.4070;0.7856;
776.4000;0.4062;0.7856;
776.7000;0.4070;0.7908;
777.0000;0.4046;0.7882;
777.3000;0.4070;0.7856;
777.6000;0.4143;0.8012;
777.9000;0.4086;0.7856;
778.2000;0.4062;0.7882;
778.5000;0.4078;0.7830;
778.8000;0.4070;0.7727;
779.1000;0.4046;0.7623;
779.4000;0.4070;0.7804;
779.7000;0.4086;0.7908;
780.0000;0.4070;0.7804;
780.3000;0.4070;0.7830;
780.6000;0.4062;0.7778;
780.9000;0.4086;0.7856;
781.2000;0.4070;0.7778;
781.5000;0.4086;0.7804;
781.8000;0.4062;0.7934;
782.1000;0.4078;0.7986;
782.4000;0.4086;0.7934;
782.7000;0.4070;0.7960;
783.0000;0.4062;0.7934;
783.3000;0.4070;0.8064;
783.6000;0.4062;0.7986;
783.9000;0.4086;0.7908;
784.2000;0.4078;0.7830;
784.5000;0.4094;0.7934;
784.8000;0.4070;0.7804;
785.1000;0.4078;0.7830;
785.4000;0.4070;0.7778;
785.7000;0.4062;0.7701;
786.0000;0.4054;0.7753;
786.3000;0.4119;0.8038;
786.6000;0.4062;0.7856;
786.9000;0.4037;0.7778;
787.2000;0.4135;0.8038;
787.5000;0.4054;0.7778;
787.8000;0.4013;0.7675;
788.1000;0.4029;0.7727;
788.4000;0.4070;0.7753;
788.7000;0.4062;0.7804;
789.0000;0.4070;0.7882;
789.3000;0.4094;0.7882;
789.6000;0.4037;0.7727;
789.9000;0.4046;0.7753;
790.2000;0.4054;0.7856;
790.5000;0.4037;0.7986;
790.8000;0.4046;0.8090;
791.1000;0.4062;0.8141;
791.4000;0.4046;0.8064;
791.7000;0.4046;0.8141;
792.0000;0.4070;0.8090;
792.3000;0.4054;0.8012;
792.6000;0.4103;0.8167;
792.9000;0.4054;0.8038;
793.2000;0.4103;0.8245;
793.5000;0.4054;0.8167;
793.8000;0.4070;0.8116;
794.1000;0.4078;0.8090;
794.4000;0.4078;0.8167;
794.7000;0.4054;0.8064;
795.0000;0.4078;0.8116;
795.3000;0.4070;0.8090;
795.6000;0.4062;0.8012;
795.9000;0.4054;0.7882;
796.2000;0.4070;0.7960;
796.5000;0.4046;0.7882;
796.8000;0.4078;0.7934;
797.1000;0.4054;0.7986;
797.4000;0.4046;0.7986;
797.7000;0.4062;0.7934;
798.0000;0.4070;0.7960;
798.3000;0.4054;0.7934;
798.6000;0.4062;0.7882;
798.9000;0.4054;0.8012;
799.2000;0.4062;0.8012;
799.5000;0.4062;0.8038;
799.8000;0.4054;0.7986;
800.1000;0.4054;0.7960;
800.4000;0.4046;0.7908;
800.7000;0.4021;0.7804;
801.0000;0.4062;0.7856;
801.3000;0.4046;0.7753;
801.6000;0.4046;0.7701;
801.9000;0.4062;0.7753;
802.2000;0.4054;0.7675;
802.5000;0.4054;0.7778;
802.8000;0.4070;0.7804;
803.1000;0.4021;0.7753;
803.4000;0.4086;0.7908;
803.7000;0.4037;0.7856;
804.0000;0.4078;0.7960;
804.3000;0.4062;0.7856;
804.6000;0.4054;0.7753;
804.9000;0.4046;0.7701;
805.2000;0.4037;0.7778;
805.5000;0.3997;0.7727;
805.8000;0.4046;0.7753;
806.1000;0.4046;0.7778;
806.4000;0.4054;0.7804;
806.7000;0.4021;0.7727;
807.0000;0.4029;0.7701;
807.3000;0.4037;0.7727;
807.6000;0.4046;0.7778;
807.9000;0.4046;0.7804;
808.2000;0.4046;0.7856;
808.5000;0.4046;0.7830;
808.8000;0.4029;0.7830;
809.1000;0.4127;0.8012;
809.4000;0.4046;0.7753;
809.7000;0.4037;0.7753;
810.0000;0.4037;0.7753;
810.3000;0.4021;0.7727;
810.6000;0.4037;0.7830;
810.9000;0.4046;0.7804;
811.2000;0.4078;0.7908;
811.5000;0.4029;0.7727;
811.8000;0.4029;0.7727;
812.1000;0.4046;0.7804;
812.4000;0.4046;0.7753;
812.7000;0.4046;0.7675;
813.0000;0.4046;0.7649;
813.3000;0.4037;0.7753;
813.6000;0.4029;0.7649;
813.9000;0.4046;0.7753;
814.2000;0.4046;0.7804;
814.5000;0.4013;0.7753;
814.8000;0.4037;0.7778;
815.1000;0.4021;0.7753;
815.4000;0.4054;0.7804;
815.7000;0.4037;0.7778;
816.0000;0.4046;0.7727;
816.3000;0.4029;0.7701;
816.6000;0.4046;0.7753;
816.9000;0.4054;0.7727;
817.2000;0.4029;0.7778;
817.5000;0.4054;0.7804;
817.8000;0.4037;0.7753;
818.1000;0.4037;0.7753;
818.4000;0.4029;0.7753;
818.7000;0.4029;0.7753;
819.0000;0.4037;0.7778;
819.3000;0.4046;0.7778;
819.6000;0.4054;0.7804;
819.9000;0.4054;0.7856;
820.2000;0.4046;0.7882;
820.5000;0.4021;0.7778;
820.8000;0.4062;0.7727;
821.1000;0.4029;0.7571;
821.4000;0.4013;0.7649;
821.7000;0.4037;0.7727;
822.0000;0.4103;0.7908;
822.3000;0.4029;0.7778;
822.6000;0.4103;0.7908;
822.9000;0.4021;0.7701;
823.2000;0.4054;0.7753;
823.5000;0.4037;0.7701;
823.8000;0.4037;0.7701;
824.1000;0.4037;0.7727;
824.4000;0.4046;0.7778;
824.7000;0.4021;0.7778;
825.0000;0.4029;0.7753;
825.3000;0.4013;0.7727;
825.6000;0.4054;0.7753;
825.9000;0.4029;0.7675;
826.2000;0.4037;0.7675;
826.5000;0.4005;0.7623;
826.8000;0.4021;0.7701;
827.1000;0.4037;0.7727;
827.4000;0.4037;0.7778;
827.7000;0.4013;0.7753;
828.0000;0.4013;0.7804;
828.3000;0.4013;0.7856;
828.6000;0.4046;0.7986;
828.9000;0.4029;0.7908;
829.2000;0.4037;0.7960;
829.5000;0.4046;0.7986;
829.8000;0.4021;0.7960;
830.1000;0.4037;0.7934;
830.4000;0.4037;0.7856;
830.7000;0.4037;0.7856;
831.0000;0.4037;0.7778;
831.3000;0.4103;0.7908;
831.6000;0.4029;0.7701;
831.9000;0.4037;0.7701;
832.2000;0.4046;0.7701;
832.5000;0.4070;0.7753;
832.8000;0.4029;0.7571;
833.1000;0.4054;0.7701;
833.4000;0.4029;0.7727;
833.7000;0.4037;0.7778;
834.0000;0.4021;0.7701;
834.3000;0.4054;0.7727;
834.6000;0.4037;0.7778;
834.9000;0.4078;0.7986;
835.2000;0.3964;0.7675;
835.5000;0.4029;0.7856;
835.8000;0.4021;0.7856;
836.1000;0.4005;0.7804;
836.4000;0.4013;0.7804;
836.7000;0.4013;0.7753;
837.0000;0.4037;0.7804;
837.3000;0.4021;0.7804;
837.6000;0.4029;0.7804;
837.9000;0.4005;0.7778;
838.2000;0.3997;0.7675;
838.5000;0.4029;0.7727;
838.8000;0.4029;0.7804;
839.1000;0.4029;0.7804;
839.4000;0.4013;0.7753;
839.7000;0.4005;0.7753;
840.0000;0.4021;0.7804;
840.3000;0.4005;0.7804;
840.6000;0.4005;0.7856;
840.9000;0.4013;0.7882;
841.2000;0.4029;0.7830;
841.5000;0.4013;0.7778;
841.8000;0.4029;0.7701;
842.1000;0.4021;0.7778;
842.4000;0.4021;0.7753;
842.7000;0.4013;0.7727;
843.0000;0.4013;0.7778;
843.3000;0.4013;0.7830;
843.6000;0.4062;0.7960;
843.9000;0.4029;0.7804;
844.2000;0.4029;0.7856;
844.5000;0.4013;0.7804;
844.8000;0.4021;0.7882;
845.1000;0.4046;0.7934;
845.4000;0.4013;0.7804;
845.7000;0.4005;0.7830;
846.0000;0.4013;0.7856;
846.3000;0.3989;0.7908;
846.6000;0.3989;0.7856;
846.9000;0.3997;0.7882;
847.2000;0.3997;0.7804;
847.5000;0.4021;0.7856;
847.8000;0.4029;0.7986;
848.1000;0.4013;0.7960;
848.4000;0.4029;0.7934;
848.7000;0.4029;0.7856;
849.0000;0.4005;0.7753;
849.3000;0.4029;0.7804;
849.6000;0.4013;0.7804;
849.9000;0.4013;0.7856;
850.2000;0.4005;0.7804;
850.5000;0.4021;0.7804;
850.8000;0.4029;0.7804;
851.1000;0.4029;0.7856;
851.4000;0.4054;0.7960;
851.7000;0.4013;0.7882;
852.0000;0.4013;0.7882;
852.3000;0.4013;0.7908;
852.6000;0.4013;0.7960;
852.9000;0.4005;0.7934;
853.2000;0.4021;0.7934;
853.5000;0.4021;0.7934;
853.8000;0.4021;0.7986;
854.1000;0.4013;0.7908;
854.4000;0.4037;0.7986;
854.7000;0.4021;0.7882;
855.0000;0.4021;0.7908;
855.3000;0.4005;0.7882;
855.6000;0.4013;0.7856;
855.9000;0.4005;0.7778;
856.2000;0.4021;0.7934;
856.5000;0.4013;0.7882;
856.8000;0.3989;0.7727;
857.1000;0.4013;0.7701;
857.4000;0.4005;0.7701;
857.7000;0.4013;0.7778;
858.0000;0.3989;0.7649;
858.3000;0.3964;0.7519;
858.6000;0.3972;0.7545;
858.9000;0.4005;0.7675;
859.2000;0.3997;0.7753;
859.5000;0.4013;0.7830;
859.8000;0.3997;0.7778;
860.1000;0.4013;0.7778;
860.4000;0.3997;0.7830;
860.7000;0.4021;0.7908;
861.0000;0.4005;0.7830;
861.3000;0.3997;0.7830;
861.6000;0.4013;0.7856;
861.9000;0.4005;0.7753;
862.2000;0.4005;0.7675;
862.5000;0.3997;0.7701;
862.8000;0.4021;0.7778;
863.1000;0.4005;0.7701;
863.4000;0.4062;0.7804;
863.7000;0.4005;0.7571;
864.0000;0.4021;0.7649;
864.3000;0.4029;0.7675;
864.6000;0.4005;0.7571;
864.9000;0.4005;0.7519;
865.2000;0.4021;0.7597;
865.5000;0.4013;0.7597;
865.8000;0.4013;0.7571;
866.1000;0.3964;0.7545;
866.4000;0.4005;0.7623;
866.7000;0.4013;0.7597;
867.0000;0.3932;0.7441;
867.3000;0.4005;0.7701;
867.6000;0.4037;0.7804;
867.9000;0.4013;0.7830;
868.2000;0.3997;0.7804;
868.5000;0.4005;0.7804;
868.8000;0.4013;0.7753;
869.1000;0.4037;0.7856;
869.4000;0.3989;0.7649;
869.7000;0.4005;0.7701;
870.0000;0.3932;0.7545;
870.3000;0.4005;0.7804;
870.6000;0.4021;0.7856;
870.9000;0.3997;0.7830;
871.2000;0.4005;0.7882;
871.5000;0.4021;0.7908;
871.8000;0.4037;0.7908;
872.1000;0.3980;0.7778;
872.4000;0.4021;0.7934;
872.7000;0.3989;0.7804;
873.0000;0.4005;0.7727;
873.3000;0.4013;0.7753;
873.6000;0.3997;0.7649;
873.9000;0.4005;0.7701;
874.2000;0.4013;0.7804;
874.5000;0.4005;0.7804;
874.8000;0.3980;0.7727;
875.1000;0.3997;0.7804;
875.4000;0.4005;0.7804;
875.7000;0.4005;0.7727;
876.0000;0.4029;0.7753;
876.3000;0.3980;0.7675;
876.6000;0.4013;0.7778;
876.9000;0.3997;0.7778;
877.2000;0.3997;0.7727;
877.5000;0.3997;0.7753;
877.8000;0.4037;0.7934;
878.1000;0.4005;0.7856;
878.4000;0.4094;0.8193;
878.7000;0.3956;0.7830;
879.0000;0.3989;0.8038;
879.3000;0.3997;0.7960;
879.6000;0.3980;0.7960;
879.9000;0.4037;0.8038;
880.2000;0.3932;0.7675;
880.5000;0.4005;0.7856;
880.8000;0.3980;0.7882;
881.1000;0.3980;0.7882;
881.4000;0.3980;0.7856;
881.7000;0.4005;0.7856;
882.0000;0.3997;0.7830;
882.3000;0.4021;0.7908;
882.6000;0.3997;0.7778;
882.9000;0.3989;0.7804;
883.2000;0.3980;0.7778;
883.5000;0.3989;0.7753;
883.8000;0.3972;0.7753;
884.1000;0.3980;0.7778;
884.4000;0.3989;0.7856;
884.7000;0.3989;0.7908;
885.0000;0.3989;0.7830;
885.3000;0.3956;0.7701;
885.6000;0.4054;0.7986;
885.9000;0.4005;0.7778;
886.2000;0.3989;0.7675;
886.5000;0.3980;0.7623;
886.8000;0.4021;0.7675;
887.1000;0.3989;0.7649;
887.4000;0.3997;0.7597;
887.7000;0.4013;0.7571;
888.0000;0.3997;0.7545;
888.3000;0.3997;0.7545;
888.6000;0.3972;0.7519;
888.9000;0.3980;0.7545;
889.2000;0.3989;0.7597;
889.5000;0.3972;0.7597;
889.8000;0.3972;0.7675;
890.1000;0.4046;0.7960;
890.4000;0.4005;0.7856;
890.7000;0.4013;0.7856;
891.0000;0.3980;0.7727;
891.3000;0.4005;0.7804;
891.6000;0.4029;0.7908;
891.9000;0.3980;0.7830;
892.2000;0.4005;0.7882;
892.5000;0.3997;0.7830;
892.8000;0.3997;0.7804;
893.1000;0.3923;0.7675;
893.4000;0.3997;0.7804;
893.7000;0.3997;0.7830;
894.0000;0.3989;0.7753;
894.3000;0.4013;0.7778;
894.6000;0.4013;0.7778;
894.9000;0.4013;0.7778;
895.2000;0.3980;0.7727;
895.5000;0.3997;0.7727;
895.8000;0.3989;0.7675;
896.1000;0.3907;0.7390;
896.4000;0.3989;0.7571;
896.7000;0.4005;0.7545;
897.0000;0.3997;0.7493;
897.3000;0.3964;0.7364;
897.6000;0.3989;0.7545;
897.9000;0.3989;0.7519;
898.2000;0.4013;0.7675;
898.5000;0.3997;0.7675;
898.8000;0.4005;0.7727;
899.1000;0.3997;0.7778;
899.4000;0.4005;0.7778;
899.7000;0.3972;0.7778;
900.0000;0.4005;0.7856;
900.3000;0.3980;0.7804;
900.6000;0.4005;0.7882;
900.9000;0.4005;0.7908;
901.2000;0.4005;0.7882;
901.5000;0.3997;0.7934;
901.8000;0.3964;0.7804;
902.1000;0.4005;0.7856;
902.4000;0.3980;0.7753;
902.7000;0.3989;0.7908;
903.0000;0.3997;0.7830;
903.3000;0.3997;0.7830;
903.6000;0.3980;0.7701;
903.9000;0.3972;0.7597;
904.2000;0.3923;0.7571;
904.5000;0.4013;0.7778;
904.8000;0.3989;0.7778;
905.1000;0.4054;0.7986;
905.4000;0.4037;0.7830;
905.7000;0.3972;0.7701;
906.0000;0.3997;0.7778;
906.3000;0.3972;0.7727;
906.6000;0.3956;0.7675;
906.9000;0.3980;0.7778;
907.2000;0.3989;0.7804;
907.5000;0.3980;0.7727;
907.8000;0.3964;0.7701;
908.1000;0.3989;0.7778;
908.4000;0.4005;0.7934;
908.7000;0.3980;0.7882;
909.0000;0.3989;0.7882;
909.3000;0.3964;0.7778;
909.6000;0.4054;0.8038;
909.9000;0.3989;0.7908;
910.2000;0.3997;0.8012;
910.5000;0.4005;0.8012;
910.8000;0.4005;0.8012;
911.1000;0.3997;0.8064;
911.4000;0.3972;0.8012;
911.7000;0.3972;0.8038;
912.0000;0.3980;0.7960;
912.3000;0.3997;0.7960;
912.6000;0.4013;0.8012;
912.9000;0.3972;0.7934;
913.2000;0.3972;0.7934;
913.5000;0.3989;0.8064;
913.8000;0.3989;0.7986;
914.1000;0.3989;0.8038;
914.4000;0.3989;0.8038;
914.7000;0.3989;0.7908;
915.0000;0.3989;0.7856;
915.3000;0.3964;0.7934;
915.6000;0.4037;0.8038;
915.9000;0.3989;0.7934;
916.2000;0.3980;0.7934;
916.5000;0.3989;0.7934;
916.8000;0.3964;0.7856;
917.1000;0.3972;0.7830;
917.4000;0.3972;0.7856;
917.7000;0.4021;0.7986;
918.0000;0.3980;0.7856;
918.3000;0.3964;0.7804;
918.6000;0.3972;0.7882;
918.9000;0.3980;0.7856;
919.2000;0.3989;0.7804;
919.5000;0.3980;0.7778;
919.8000;0.3997;0.7727;
920.1000;0.3940;0.7675;
920.4000;0.3989;0.7804;
920.7000;0.3956;0.7701;
921.0000;0.3989;0.7778;
921.3000;0.3997;0.7778;
921.6000;0.3980;0.7830;
921.9000;0.3972;0.7856;
922.2000;0.3997;0.7934;
922.5000;0.3989;0.7804;
922.8000;0.3989;0.7856;
923.1000;0.3980;0.7753;
923.4000;0.3932;0.7571;
923.7000;0.3980;0.7623;
924.0000;0.3980;0.7649;
924.3000;0.3989;0.7675;
924.6000;0.3980;0.7649;
924.9000;0.3989;0.7675;
925.2000;0.3989;0.7727;
925.5000;0.3972;0.7753;
925.8000;0.3964;0.7727;
926.1000;0.3972;0.7701;
926.4000;0.3964;0.7675;
926.7000;0.3964;0.7727;
927.0000;0.3948;0.7675;
927.3000;0.3948;0.7597;
927.6000;0.3989;0.7727;
927.9000;0.3964;0.7623;
928.2000;0.3989;0.7701;
928.5000;0.3972;0.7727;
928.8000;0.3972;0.7701;
929.1000;0.3907;0.7441;
929.4000;0.3989;0.7571;
929.7000;0.3964;0.7441;
930.0000;0.3980;0.7441;
930.3000;0.3956;0.7467;
930.6000;0.3972;0.7493;
930.9000;0.3875;0.7338;
931.2000;0.3989;0.7675;
931.5000;0.3997;0.7778;
931.8000;0.3956;0.7753;
932.1000;0.3972;0.7778;
932.4000;0.3964;0.7727;
932.7000;0.3964;0.7597;
933.0000;0.3972;0.7597;
933.3000;0.3980;0.7675;
933.6000;0.3989;0.7701;
933.9000;0.3972;0.7701;
934.2000;0.3972;0.7675;
934.5000;0.3980;0.7675;
934.8000;0.4013;0.7753;
935.1000;0.3997;0.7675;
935.4000;0.3980;0.7623;
935.7000;0.3956;0.7519;
936.0000;0.3980;0.7597;
936.3000;0.3972;0.7675;
936.6000;0.3956;0.7701;
936.9000;0.3989;0.7727;
937.2000;0.3964;0.7778;
937.5000;0.3972;0.7778;
937.8000;0.3972;0.7778;
938.1000;0.4029;0.7882;
938.4000;0.3972;0.7701;
938.7000;0.3940;0.7649;
939.0000;0.4037;0.7856;
939.3000;0.3956;0.7649;
939.6000;0.3980;0.7623;
939.9000;0.4054;0.7856;
940.2000;0.3964;0.7675;
940.5000;0.3972;0.7649;
940.8000;0.3956;0.7545;
941.1000;0.3972;0.7545;
941.4000;0.3972;0.7519;
941.7000;0.3972;0.7623;
942.0000;0.3964;0.7701;
942.3000;0.3948;0.7545;
942.6000;0.3972;0.7675;
942.9000;0.3972;0.7701;
943.2000;0.3980;0.7675;
943.5000;0.3956;0.7623;
943.8000;0.3972;0.7649;
944.1000;0.3972;0.7701;
944.4000;0.3989;0.7675;
944.7000;0.3972;0.7649;
945.0000;0.3980;0.7727;
945.3000;0.3989;0.7701;
945.6000;0.3964;0.7597;
945.9000;0.3980;0.7597;
946.2000;0.3964;0.7519;
946.5000;0.4013;0.7623;
946.8000;0.3972;0.7545;
947.1000;0.3972;0.7623;
947.4000;0.3972;0.7623;
947.7000;0.3980;0.7623;
948.0000;0.3972;0.7649;
948.3000;0.3972;0.7649;
948.6000;0.3964;0.7649;
948.9000;0.3964;0.7623;
949.2000;0.3972;0.7649;
949.5000;0.3956;0.7623;
949.8000;0.3964;0.7649;
950.1000;0.3964;0.7675;
950.4000;0.3972;0.7649;
950.7000;0.3964;0.7623;
951.0000;0.3932;0.7571;
951.3000;0.3972;0.7753;
951.6000;0.4005;0.7882;
951.9000;0.3972;0.7960;
952.2000;0.3956;0.7960;
952.5000;0.3956;0.7934;
952.8000;0.3956;0.7934;
953.1000;0.3956;0.7908;
953.4000;0.3940;0.7830;
953.7000;0.3956;0.7856;
954.0000;0.3972;0.7908;
954.3000;0.3980;0.7882;
954.6000;0.3948;0.7753;
954.9000;0.3964;0.7830;
955.2000;0.3972;0.7856;
955.5000;0.3980;0.7882;
955.8000;0.3972;0.7830;
956.1000;0.3972;0.7830;
956.4000;0.3964;0.7882;
956.7000;0.3980;0.7908;
957.0000;0.3964;0.7804;
957.3000;0.3972;0.7882;
957.6000;0.3956;0.7804;
957.9000;0.3972;0.7882;
958.2000;0.3964;0.7908;
958.5000;0.3989;0.7960;
958.8000;0.3980;0.7934;
959.1000;0.3964;0.7934;
959.4000;0.3972;0.7934;
959.7000;0.3980;0.7934;
960.0000;0.3964;0.7856;
960.3000;0.3972;0.7830;
960.6000;0.3989;0.7778;
960.9000;0.3964;0.7727;
961.2000;0.3964;0.7856;
961.5000;0.3989;0.7882;
961.8000;0.3964;0.7856;
962.1000;0.3956;0.7830;
962.4000;0.3956;0.7908;
962.7000;0.3964;0.7882;
963.0000;0.3956;0.7908;
963.3000;0.3972;0.7856;
963.6000;0.3948;0.7753;
963.9000;0.3956;0.7882;
964.2000;0.3964;0.7882;
964.5000;0.4021;0.7908;
964.8000;0.3989;0.7830;
965.1000;0.3964;0.7649;
965.4000;0.3972;0.7649;
965.7000;0.3972;0.7649;
966.0000;0.3980;0.7623;
966.3000;0.3956;0.7571;
966.6000;0.3956;0.7623;
966.9000;0.3972;0.7753;
967.2000;0.3948;0.7701;
967.5000;0.3989;0.7753;
967.8000;0.3972;0.7701;
968.1000;0.3964;0.7675;
968.4000;0.3956;0.7649;
968.7000;0.3956;0.7597;
969.0000;0.3964;0.7701;
969.3000;0.3989;0.7778;
969.6000;0.3980;0.7753;
969.9000;0.3915;0.7571;
970.2000;0.3972;0.7778;
970.5000;0.3956;0.7753;
970.8000;0.3989;0.7934;
971.1000;0.3972;0.7856;
971.4000;0.3964;0.7778;
971.7000;0.3972;0.7830;
972.0000;0.3980;0.7804;
972.3000;0.3964;0.7830;
972.6000;0.3972;0.7778;
972.9000;0.3964;0.7701;
973.2000;0.3956;0.7727;
973.5000;0.3964;0.7753;
973.8000;0.4021;0.7753;
974.1000;0.3948;0.7623;
974.4000;0.3972;0.7623;
974.7000;0.3972;0.7623;
975.0000;0.3972;0.7597;
975.3000;0.3972;0.7623;
975.6000;0.3956;0.7571;
975.9000;0.3980;0.7623;
976.2000;0.3964;0.7571;
976.5000;0.3956;0.7545;
976.8000;0.3964;0.7623;
977.1000;0.3972;0.7623;
977.4000;0.3972;0.7649;
977.7000;0.3940;0.7597;
978.0000;0.3972;0.7623;
978.3000;0.3972;0.7597;
978.6000;0.3883;0.7286;
978.9000;0.3956;0.7493;
979.2000;0.3932;0.7493;
979.5000;0.3980;0.7571;
979.8000;0.3980;0.7467;
980.1000;0.3956;0.7415;
980.4000;0.4005;0.7545;
980.7000;0.3980;0.7493;
981.0000;0.3964;0.7519;
981.3000;0.3972;0.7519;
981.6000;0.4070;0.7727;
981.9000;0.3964;0.7441;
982.2000;0.3964;0.7467;
982.5000;0.3932;0.7338;
982.8000;0.3972;0.7467;
983.1000;0.3964;0.7545;
983.4000;0.3956;0.7571;
983.7000;0.3964;0.7571;
984.0000;0.3964;0.7701;
984.3000;0.3964;0.7597;
984.6000;0.3956;0.7597;
984.9000;0.3980;0.7727;
985.2000;0.3948;0.7701;
985.5000;0.3964;0.7753;
985.8000;0.3972;0.7856;
986.1000;0.3989;0.7908;
986.4000;0.3972;0.7804;
986.7000;0.3932;0.7701;
987.0000;0.3956;0.7753;
987.3000;0.3948;0.7778;
987.6000;0.3932;0.7727;
987.9000;0.3948;0.7830;
988.2000;0.3932;0.7753;
988.5000;0.3964;0.7856;
988.8000;0.3972;0.7960;
989.1000;0.3956;0.7908;
989.4000;0.3956;0.7934;
989.7000;0.3956;0.7856;
990.0000;0.3980;0.7882;
990.3000;0.3964;0.7882;
990.6000;0.4005;0.7934;
990.9000;0.3964;0.7934;
991.2000;0.3972;0.7986;
991.5000;0.3956;0.7882;
991.8000;0.3964;0.7960;
992.1000;0.4013;0.8064;
992.4000;0.3989;0.8012;
992.7000;0.3956;0.7908;
993.0000;0.3923;0.7778;
993.3000;0.3956;0.7908;
993.6000;0.3964;0.7778;
993.9000;0.3956;0.7701;
994.2000;0.3956;0.7753;
994.5000;0.3964;0.7830;
994.8000;0.3972;0.7882;
995.1000;0.3948;0.7830;
995.4000;0.3956;0.7830;
995.7000;0.3989;0.7908;
996.0000;0.3972;0.7856;
996.3000;0.3915;0.7778;
996.6000;0.3948;0.7908;
996.9000;0.3956;0.7753;
997.2000;0.3972;0.7778;
997.5000;0.3964;0.7753;
997.8000;0.3980;0.7753;
998.1000;0.3964;0.7804;
998.4000;0.3907;0.7649;
998.7000;0.3956;0.7753;
999.0000;0.3964;0.7804;
999.3000;0.3956;0.7675;
999.6000;0.3948;0.7675;
999.9000;0.3956;0.7675;
1000.2000;0.3948;0.7727;
1000.5000;0.3956;0.7701;
1000.8000;0.4021;0.7778;
1001.1000;0.3980;0.7778;
1001.4000;0.3972;0.7804;
1001.7000;0.3948;0.7753;
1002.0000;0.3948;0.7727;
1002.3000;0.3948;0.7701;
1002.6000;0.3948;0.7571;
1002.9000;0.3964;0.7597;
1003.2000;0.3940;0.7571;
1003.5000;0.3956;0.7701;
1003.8000;0.3956;0.7649;
1004.1000;0.3964;0.7623;
1004.4000;0.3956;0.7701;
1004.7000;0.3972;0.7778;
1005.0000;0.3972;0.7804;
1005.3000;0.3972;0.7830;
1005.6000;0.3980;0.7830;
1005.9000;0.3997;0.7882;
1006.2000;0.3964;0.7804;
1006.5000;0.3948;0.7804;
1006.8000;0.3932;0.7727;
1007.1000;0.3956;0.7753;
1007.4000;0.3956;0.7727;
1007.7000;0.3980;0.7753;
1008.0000;0.3956;0.7675;
1008.3000;0.3948;0.7675;
1008.6000;0.3980;0.7753;
1008.9000;0.3964;0.7804;
1009.2000;0.3972;0.7753;
1009.5000;0.3948;0.7778;
1009.8000;0.3956;0.7830;
1010.1000;0.3972;0.7856;
1010.4000;0.3956;0.7804;
1010.7000;0.3964;0.7830;
1011.0000;0.3956;0.7701;
1011.3000;0.3956;0.7804;
1011.6000;0.3964;0.7727;
1011.9000;0.3964;0.7701;
1012.2000;0.3915;0.7649;
1012.5000;0.3956;0.7778;
1012.8000;0.4005;0.8038;
1013.1000;0.3940;0.7804;
1013.4000;0.3899;0.7778;
1013.7000;0.3948;0.7830;
1014.0000;0.3956;0.7778;
1014.3000;0.3899;0.7597;
1014.6000;0.3956;0.7727;
1014.9000;0.3956;0.7778;
1015.2000;0.3948;0.7778;
1015.5000;0.3956;0.7830;
1015.8000;0.3964;0.7753;
1016.1000;0.3948;0.7675;
1016.4000;0.3948;0.7701;
1016.7000;0.3923;0.7701;
1017.0000;0.3948;0.7856;
1017.3000;0.3834;0.7571;
1017.6000;0.3948;0.7882;
1017.9000;0.3867;0.7597;
1018.2000;0.3948;0.7804;
1018.5000;0.3980;0.7882;
1018.8000;0.3948;0.7778;
1019.1000;0.3989;0.8012;
1019.4000;0.3972;0.7934;
1019.7000;0.3956;0.7882;
1020.0000;0.3932;0.7856;
1020.3000;0.3915;0.7727;
1020.6000;0.3956;0.7830;
1020.9000;0.3980;0.7830;
1021.2000;0.4005;0.7804;
1021.5000;0.3980;0.7701;
1021.8000;0.3956;0.7753;
1022.1000;0.3964;0.7778;
1022.4000;0.3964;0.7856;
1022.7000;0.3956;0.7804;
1023.0000;0.3948;0.7753;
1023.3000;0.3989;0.7856;
1023.6000;0.3932;0.7597;
1023.9000;0.3940;0.7778;
1024.2000;0.3972;0.7830;
1024.5000;0.3956;0.7882;
1024.8000;0.3956;0.7882;
1025.1000;0.3948;0.7778;
1025.4000;0.3915;0.7727;
1025.7000;0.3964;0.7908;
1026.0000;0.3956;0.7830;
1026.3000;0.3948;0.7908;
1026.6000;0.3956;0.8012;
1026.9000;0.3940;0.7882;
1027.2000;0.3940;0.7856;
1027.5000;0.3940;0.7856;
1027.8000;0.3956;0.7856;
1028.1000;0.3956;0.7804;
1028.4000;0.3964;0.7753;
1028.7000;0.3980;0.7804;
1029.0000;0.3948;0.7701;
1029.3000;0.3956;0.7753;
1029.6000;0.3932;0.7804;
1029.9000;0.3956;0.7778;
1030.2000;0.3923;0.7675;
1030.5000;0.3964;0.7856;
1030.8000;0.3956;0.7856;
1031.1000;0.3956;0.7882;
1031.4000;0.3948;0.7882;
1031.7000;0.3956;0.7856;
1032.0000;0.3948;0.7753;
1032.3000;0.3964;0.7804;
1032.6000;0.3899;0.7519;
1032.9000;0.3997;0.7856;
1033.2000;0.3956;0.7804;
1033.5000;0.3932;0.7804;
1033.8000;0.3948;0.7882;
1034.1000;0.3964;0.7934;
1034.4000;0.3964;0.7908;
1034.7000;0.3956;0.7778;
1035.0000;0.3948;0.7804;
1035.3000;0.3956;0.7856;
1035.6000;0.3940;0.7804;
1035.9000;0.3964;0.7804;
1036.2000;0.3948;0.7778;
1036.5000;0.3948;0.7804;
1036.8000;0.4021;0.7882;
1037.1000;0.3956;0.7727;
1037.4000;0.3923;0.7649;
1037.7000;0.3940;0.7675;
1038.0000;0.3956;0.7753;
1038.3000;0.3940;0.7727;
1038.6000;0.3980;0.7804;
1038.9000;0.3899;0.7571;
1039.2000;0.3956;0.7675;
1039.5000;0.3932;0.7571;
1039.8000;0.3948;0.7545;
1040.1000;0.3956;0.7649;
1040.4000;0.3972;0.7675;
1040.7000;0.3964;0.7727;
1041.0000;0.3997;0.7830;
1041.3000;0.3948;0.7701;
1041.6000;0.3948;0.7701;
1041.9000;0.3940;0.7727;
1042.2000;0.3915;0.7597;
1042.5000;0.3948;0.7701;
1042.8000;0.3989;0.7778;
1043.1000;0.3940;0.7701;
1043.4000;0.3964;0.7804;
1043.7000;0.3948;0.7701;
1044.0000;0.3948;0.7649;
1044.3000;0.3972;0.7804;
1044.6000;0.3956;0.7804;
1044.9000;0.3940;0.7753;
1045.2000;0.3956;0.7804;
1045.5000;0.3940;0.7804;
1045.8000;0.3964;0.7804;
1046.1000;0.3972;0.7830;
1046.4000;0.3932;0.7675;
1046.7000;0.3932;0.7701;
1047.0000;0.3932;0.7623;
1047.3000;0.3940;0.7727;
1047.6000;0.3907;0.7597;
1047.9000;0.3948;0.7649;
1048.2000;0.3940;0.7623;
1048.5000;0.3940;0.7545;
1048.8000;0.3964;0.7623;
1049.1000;0.3932;0.7545;
1049.4000;0.3956;0.7649;
1049.7000;0.3948;0.7675;
1050.0000;0.3956;0.7623;
1050.3000;0.3948;0.7571;
1050.6000;0.3964;0.7597;
1050.9000;0.3948;0.7649;
1051.2000;0.3940;0.7597;
1051.5000;0.3948;0.7649;
1051.8000;0.3956;0.7649;
1052.1000;0.3940;0.7649;
1052.4000;0.3956;0.7649;
1052.7000;0.3956;0.7545;
1053.0000;0.3964;0.7597;
1053.3000;0.3972;0.7701;
1053.6000;0.3948;0.7545;
1053.9000;0.3940;0.7571;
1054.2000;0.3948;0.7597;
1054.5000;0.3956;0.7675;
1054.8000;0.3940;0.7701;
1055.1000;0.3972;0.7882;
1055.4000;0.3948;0.7856;
1055.7000;0.3948;0.7856;
1056.0000;0.3972;0.7830;
1056.3000;0.3948;0.7649;
1056.6000;0.3948;0.7623;
1056.9000;0.3940;0.7597;
1057.2000;0.3948;0.7571;
1057.5000;0.3932;0.7519;
1057.8000;0.3940;0.7545;
1058.1000;0.3972;0.7623;
1058.4000;0.3948;0.7597;
1058.7000;0.4046;0.7830;
1059.0000;0.3932;0.7571;
1059.3000;0.3923;0.7571;
1059.6000;0.3964;0.7597;
1059.9000;0.3972;0.7623;
1060.2000;0.3956;0.7597;
1060.5000;0.3948;0.7649;
1060.8000;0.3923;0.7467;
1061.1000;0.3948;0.7597;
1061.4000;0.3932;0.7701;
1061.7000;0.3923;0.7675;
1062.0000;0.3948;0.7778;
1062.3000;0.3964;0.7753;
1062.6000;0.3956;0.7830;
1062.9000;0.3940;0.7675;
1063.2000;0.3956;0.7675;
1063.5000;0.3964;0.7804;
1063.8000;0.3948;0.7778;
1064.1000;0.3956;0.7778;
1064.4000;0.3932;0.7597;
1064.7000;0.3956;0.7675;
1065.0000;0.3956;0.7623;
1065.3000;0.3948;0.7545;
1065.6000;0.3940;0.7519;
1065.9000;0.3956;0.7597;
1066.2000;0.3948;0.7597;
1066.5000;0.3948;0.7571;
1066.8000;0.3956;0.7675;
1067.1000;0.3948;0.7701;
1067.4000;0.3972;0.7830;
1067.7000;0.3956;0.7804;
1068.0000;0.3940;0.7778;
1068.3000;0.3948;0.7856;
1068.6000;0.3948;0.7727;
1068.9000;0.3964;0.7727;
1069.2000;0.3964;0.7701;
1069.5000;0.3972;0.7753;
1069.8000;0.3964;0.7727;
1070.1000;0.3948;0.7649;
1070.4000;0.3948;0.7675;
1070.7000;0.3972;0.7701;
1071.0000;0.3956;0.7649;
1071.3000;0.3956;0.7701;
1071.6000;0.3948;0.7649;
1071.9000;0.3948;0.7623;
1072.2000;0.3956;0.7597;
1072.5000;0.3940;0.7649;
1072.8000;0.3940;0.7649;
1073.1000;0.3948;0.7623;
1073.4000;0.3948;0.7727;
1073.7000;0.3907;0.7649;
1074.0000;0.3932;0.7727;
1074.3000;0.3923;0.7727;
1074.6000;0.3932;0.7727;
1074.9000;0.3948;0.7701;
1075.2000;0.3923;0.7675;
1075.5000;0.3932;0.7623;
1075.8000;0.3883;0.7545;
1076.1000;0.3932;0.7701;
1076.4000;0.3948;0.7727;
1076.7000;0.3940;0.7675;
1077.0000;0.3915;0.7675;
1077.3000;0.3932;0.7649;
1077.6000;0.3948;0.7753;
1077.9000;0.3964;0.7727;
1078.2000;0.3948;0.7753;
1078.5000;0.3980;0.7856;
1078.8000;0.3948;0.7701;
1079.1000;0.3940;0.7623;
1079.4000;0.3932;0.7623;
1079.7000;0.3940;0.7701;
1080.0000;0.3964;0.7753;
1080.3000;0.3923;0.7778;
1080.6000;0.3956;0.7830;
1080.9000;0.3940;0.7778;
1081.2000;0.3940;0.7778;
1081.5000;0.3940;0.7778;
1081.8000;0.3932;0.7804;
1082.1000;0.3923;0.7701;
1082.4000;0.4005;0.7856;
1082.7000;0.3948;0.7727;
1083.0000;0.3940;0.7804;
1083.3000;0.3940;0.7778;
1083.6000;0.3932;0.7804;
1083.9000;0.3932;0.7908;
1084.2000;0.3940;0.7934;
1084.5000;0.3915;0.7830;
1084.8000;0.3932;0.7830;
1085.1000;0.3956;0.7856;
1085.4000;0.3940;0.7778;
1085.7000;0.3940;0.7778;
1086.0000;0.3915;0.7753;
1086.3000;0.3940;0.7908;
1086.6000;0.3932;0.7934;
1086.9000;0.3915;0.7908;
1087.2000;0.3948;0.8038;
1087.5000;0.3956;0.7908;
1087.8000;0.3956;0.7986;
1088.1000;0.3940;0.7882;
1088.4000;0.3932;0.7882;
1088.7000;0.3940;0.7908;
1089.0000;0.3948;0.7856;
1089.3000;0.3932;0.7830;
1089.6000;0.3948;0.7830;
1089.9000;0.3932;0.7649;
1090.2000;0.3964;0.7649;
1090.5000;0.3948;0.7649;
1090.8000;0.3956;0.7597;
1091.1000;0.3948;0.7675;
1091.4000;0.3972;0.7727;
1091.7000;0.3948;0.7649;
1092.0000;0.3940;0.7623;
1092.3000;0.3980;0.7753;
1092.6000;0.3948;0.7727;
1092.9000;0.3875;0.7493;
1093.2000;0.3948;0.7701;
1093.5000;0.3940;0.7701;
1093.8000;0.3932;0.7804;
1094.1000;0.3964;0.7908;
1094.4000;0.3867;0.7675;
1094.7000;0.3948;0.8012;
1095.0000;0.3948;0.8038;
1095.3000;0.3972;0.8038;
1095.6000;0.4037;0.8141;
1095.9000;0.3940;0.7986;
1096.2000;0.3842;0.7649;
1096.5000;0.3956;0.7882;
1096.8000;0.3948;0.7960;
1097.1000;0.3940;0.7908;
1097.4000;0.3932;0.7830;
1097.7000;0.3940;0.7882;
1098.0000;0.3940;0.7908;
1098.3000;0.3940;0.7856;
1098.6000;0.3915;0.7830;
1098.9000;0.3932;0.7856;
1099.2000;0.3956;0.7960;
1099.5000;0.3964;0.8038;
1099.8000;0.3940;0.8038;
1100.1000;0.3956;0.8064;
1100.4000;0.3956;0.8064;
1100.7000;0.3867;0.7727;
1101.0000;0.3964;0.7960;
1101.3000;0.3956;0.7986;
1101.6000;0.3940;0.7908;
1101.9000;0.3956;0.7882;
1102.2000;0.3940;0.7882;
1102.5000;0.3940;0.7934;
1102.8000;0.3972;0.8090;
1103.1000;0.3964;0.8064;
1103.4000;0.3915;0.7934;
1103.7000;0.4013;0.8116;
1104.0000;0.3948;0.7934;
1104.3000;0.3932;0.7882;
1104.6000;0.3964;0.7856;
1104.9000;0.3932;0.7778;
1105.2000;0.3940;0.7804;
1105.5000;0.3948;0.7882;
1105.8000;0.3948;0.7908;
1106.1000;0.3940;0.8012;
1106.4000;0.3932;0.7960;
1106.7000;0.3940;0.7882;
1107.0000;0.3948;0.7908;
1107.3000;0.3940;0.7908;
1107.6000;0.3940;0.7986;
1107.9000;0.3948;0.8038;
1108.2000;0.3932;0.8012;
1108.5000;0.3932;0.8038;
1108.8000;0.3932;0.7960;
1109.1000;0.3948;0.7908;
1109.4000;0.3956;0.7908;
1109.7000;0.3850;0.7519;
1110.0000;0.3932;0.7778;
1110.3000;0.3940;0.7804;
1110.6000;0.3956;0.7856;
1110.9000;0.3964;0.7934;
1111.2000;0.3915;0.7856;
1111.5000;0.3940;0.7882;
1111.8000;0.3923;0.7778;
1112.1000;0.3932;0.7778;
1112.4000;0.3940;0.7778;
1112.7000;0.3940;0.7753;
1113.0000;0.3956;0.7804;
1113.3000;0.3923;0.7753;
1113.6000;0.3940;0.7856;
1113.9000;0.3989;0.7986;
1114.2000;0.3948;0.7882;
1114.5000;0.3956;0.7856;
1114.8000;0.3940;0.7804;
1115.1000;0.3940;0.7804;
1115.4000;0.3964;0.7830;
1115.7000;0.3940;0.7856;
1116.0000;0.3932;0.7830;
1116.3000;0.3948;0.7960;
1116.6000;0.3940;0.7934;
1116.9000;0.3932;0.7908;
1117.2000;0.3948;0.7934;
1117.5000;0.3907;0.7882;
1117.8000;0.3940;0.8064;
1118.1000;0.3948;0.8064;
1118.4000;0.3997;0.8167;
1118.7000;0.3923;0.7934;
1119.0000;0.3932;0.7934;
1119.3000;0.3956;0.7960;
1119.6000;0.3980;0.7960;
1119.9000;0.3923;0.7778;
1120.2000;0.3940;0.7882;
1120.5000;0.3989;0.7934;
1120.8000;0.3940;0.7934;
1121.1000;0.3850;0.7727;
1121.4000;0.3915;0.7804;
1121.7000;0.3948;0.7882;
1122.0000;0.3948;0.7882;
1122.3000;0.3956;0.7856;
1122.6000;0.3915;0.7727;
1122.9000;0.3932;0.7778;
1123.2000;0.3940;0.7882;
1123.5000;0.3940;0.7830;
1123.8000;0.3932;0.7804;
1124.1000;0.3940;0.7856;
1124.4000;0.3932;0.7804;
1124.7000;0.3940;0.7830;
1125.0000;0.3932;0.7778;
1125.3000;0.3923;0.7804;
1125.6000;0.3948;0.7753;
1125.9000;0.3932;0.7701;
1126.2000;0.3940;0.7753;
1126.5000;0.3923;0.7623;
1126.8000;0.3923;0.7623;
1127.1000;0.3948;0.7675;
1127.4000;0.3932;0.7701;
1127.7000;0.3883;0.7571;
1128.0000;0.3932;0.7753;
1128.3000;0.3948;0.7882;
1128.6000;0.3940;0.7856;
1128.9000;0.3915;0.7804;
1129.2000;0.3899;0.7804;
1129.5000;0.3940;0.7908;
1129.8000;0.3932;0.7908;
1130.1000;0.3956;0.7960;
1130.4000;0.3956;0.8012;
1130.7000;0.3940;0.7960;
1131.0000;0.3956;0.8038;
1131.3000;0.3956;0.8064;
1131.6000;0.3932;0.7986;
1131.9000;0.3932;0.7960;
1132.2000;0.3940;0.8012;
1132.5000;0.3932;0.7960;
1132.8000;0.3923;0.7856;
1133.1000;0.3932;0.7882;
1133.4000;0.3964;0.7934;
1133.7000;0.3923;0.7934;
1134.0000;0.3940;0.7882;
1134.3000;0.3875;0.7753;
1134.6000;0.3940;0.7882;
1134.9000;0.3989;0.7986;
1135.2000;0.3956;0.7882;
1135.5000;0.3923;0.7804;
1135.8000;0.3948;0.7830;
1136.1000;0.3948;0.7804;
1136.4000;0.3972;0.7778;
1136.7000;0.3948;0.7804;
1137.0000;0.3956;0.7882;
1137.3000;0.3940;0.7830;
1137.6000;0.3932;0.7778;
1137.9000;0.3997;0.7986;
1138.2000;0.3923;0.7804;
1138.5000;0.3923;0.7804;
1138.8000;0.3932;0.7727;
1139.1000;0.3899;0.7649;
1139.4000;0.3940;0.7753;
1139.7000;0.3956;0.7778;
1140.0000;0.3940;0.7701;
1140.3000;0.3940;0.7727;
1140.6000;0.3923;0.7753;
1140.9000;0.3940;0.7830;
1141.2000;0.3932;0.7804;
1141.5000;0.3948;0.7856;
1141.8000;0.3899;0.7701;
1142.1000;0.3948;0.7882;
1142.4000;0.3915;0.7830;
1142.7000;0.3940;0.7908;
1143.0000;0.3932;0.7882;
1143.3000;0.3932;0.7830;
1143.6000;0.3940;0.7830;
1143.9000;0.3940;0.7804;
1144.2000;0.3940;0.7804;
1144.5000;0.3899;0.7727;
1144.8000;0.3923;0.7753;
1145.1000;0.3940;0.7856;
1145.4000;0.3940;0.7856;
1145.7000;0.3932;0.7804;
1146.0000;0.3940;0.7856;
1146.3000;0.3948;0.7856;
1146.6000;0.3956;0.7778;
1146.9000;0.3940;0.7727;
1147.2000;0.3940;0.7804;
1147.5000;0.3932;0.7830;
1147.8000;0.3932;0.7830;
1148.1000;0.3940;0.7804;
1148.4000;0.3940;0.7856;
1148.7000;0.3948;0.7804;
1149.0000;0.3915;0.7753;
1149.3000;0.3923;0.7778;
1149.6000;0.3940;0.7830;
1149.9000;0.3932;0.7934;
1150.2000;0.3923;0.7882;
1150.5000;0.3940;0.7856;
1150.8000;0.3972;0.7934;
1151.1000;0.3899;0.7753;
1151.4000;0.3932;0.7830;
1151.7000;0.3923;0.7882;
1152.0000;0.3932;0.7934;
1152.3000;0.3907;0.8012;
1152.6000;0.3940;0.8141;
1152.9000;0.3932;0.8116;
1153.2000;0.3940;0.8141;
1153.5000;0.3940;0.8167;
1153.8000;0.3948;0.8141;
1154.1000;0.3923;0.8038;
1154.4000;0.3932;0.8090;
1154.7000;0.3940;0.8038;
1155.0000;0.3956;0.8090;
1155.3000;0.3980;0.8064;
1155.6000;0.3932;0.7960;
1155.9000;0.3932;0.7986;
1156.2000;0.3932;0.7986;
1156.5000;0.3940;0.7856;
1156.8000;0.3940;0.7934;
1157.1000;0.3956;0.7856;
1157.4000;0.3948;0.7804;
1157.7000;0.3948;0.7830;
1158.0000;0.3940;0.7778;
1158.3000;0.3940;0.7830;
1158.6000;0.3972;0.7882;
1158.9000;0.3948;0.7856;
1159.2000;0.3948;0.7804;
1159.5000;0.3932;0.7856;
1159.8000;0.3940;0.7856;
1160.1000;0.3940;0.7804;
1160.4000;0.3932;0.7804;
1160.7000;0.3932;0.7804;
1161.0000;0.3940;0.7856;
1161.3000;0.3948;0.7830;
1161.6000;0.3932;0.7778;
1161.9000;0.3948;0.7804;
1162.2000;0.3956;0.7830;
1162.5000;0.3948;0.7778;
1162.8000;0.3923;0.7675;
1163.1000;0.3948;0.7649;
1163.4000;0.3932;0.7623;
1163.7000;0.3915;0.7675;
1164.0000;0.3940;0.7778;
1164.3000;0.3932;0.7753;
1164.6000;0.3940;0.7830;
1164.9000;0.3940;0.7986;
1165.2000;0.3940;0.7934;
1165.5000;0.3940;0.7908;
1165.8000;0.3932;0.7960;
1166.1000;0.3956;0.8090;
1166.4000;0.3940;0.8064;
1166.7000;0.3932;0.8038;
1167.0000;0.3940;0.7986;
1167.3000;0.3956;0.7986;
1167.6000;0.3956;0.8012;
1167.9000;0.3948;0.7960;
1168.2000;0.3940;0.7960;
1168.5000;0.3932;0.7830;
1168.8000;0.3883;0.7649;
1169.1000;0.3940;0.7856;
1169.4000;0.3932;0.7856;
1169.7000;0.3923;0.7830;
1170.0000;0.3948;0.7804;
1170.3000;0.3940;0.7701;
1170.6000;0.3940;0.7675;
1170.9000;0.3948;0.7675;
1171.2000;0.3948;0.7675;
1171.5000;0.3964;0.7856;
1171.8000;0.3940;0.7856;
1172.1000;0.3875;0.7597;
1172.4000;0.3923;0.7753;
1172.7000;0.3923;0.7727;
1173.0000;0.3940;0.7804;
1173.3000;0.3932;0.7856;
1173.6000;0.3932;0.7753;
1173.9000;0.3826;0.7441;
1174.2000;0.3915;0.7753;
1174.5000;0.3923;0.7856;
1174.8000;0.3940;0.7882;
1175.1000;0.3915;0.7727;
1175.4000;0.3923;0.7649;
1175.7000;0.3932;0.7571;
1176.0000;0.3948;0.7597;
1176.3000;0.3940;0.7571;
1176.6000;0.3932;0.7701;
1176.9000;0.3923;0.7701;
1177.2000;0.3932;0.7701;
1177.5000;0.3923;0.7727;
1177.8000;0.3907;0.7753;
1178.1000;0.3940;0.7804;
1178.4000;0.3915;0.7597;
1178.7000;0.3932;0.7623;
1179.0000;0.3923;0.7649;
1179.3000;0.3923;0.7727;
1179.6000;0.3923;0.7623;
1179.9000;0.3932;0.7675;
1180.2000;0.3940;0.7701;
1180.5000;0.3948;0.7727;
1180.8000;0.3948;0.7778;
1181.1000;0.3940;0.7675;
1181.4000;0.3940;0.7623;
1181.7000;0.3940;0.7727;
1182.0000;0.3932;0.7701;
1182.3000;0.3940;0.7778;
1182.6000;0.3915;0.7804;
1182.9000;0.3932;0.7856;
1183.2000;0.3923;0.7856;
1183.5000;0.3915;0.7778;
1183.8000;0.3940;0.7778;
1184.1000;0.3932;0.7778;
1184.4000;0.3915;0.7804;
1184.7000;0.3940;0.7856;
1185.0000;0.3907;0.7778;
1185.3000;0.3923;0.7856;
1185.6000;0.3932;0.7856;
1185.9000;0.3932;0.7804;
1186.2000;0.3923;0.7753;
1186.5000;0.3972;0.7882;
1186.8000;0.3932;0.7804;
1187.1000;0.3915;0.7649;
1187.4000;0.3964;0.7778;
1187.7000;0.3923;0.7571;
1188.0000;0.3932;0.7571;
1188.3000;0.3956;0.7649;
1188.6000;0.3761;0.7208;
1188.9000;0.3915;0.7597;
1189.2000;0.3923;0.7597;
1189.5000;0.3932;0.7623;
1189.8000;0.3915;0.7623;
1190.1000;0.3932;0.7623;
1190.4000;0.4005;0.7701;
1190.7000;0.3932;0.7571;
1191.0000;0.3940;0.7597;
1191.3000;0.3932;0.7545;
1191.6000;0.3932;0.7571;
1191.9000;0.3932;0.7623;
1192.2000;0.3932;0.7597;
1192.5000;0.3932;0.7727;
1192.8000;0.3948;0.7804;
1193.1000;0.3940;0.7778;
1193.4000;0.3932;0.7830;
1193.7000;0.3923;0.7830;
1194.0000;0.3923;0.7830;
1194.3000;0.3940;0.7882;
1194.6000;0.3923;0.7934;
1194.9000;0.3891;0.7856;
1195.2000;0.3907;0.7804;
1195.5000;0.3948;0.7960;
1195.8000;0.3923;0.7882;
1196.1000;0.3972;0.8012;
1196.4000;0.3899;0.7778;
1196.7000;0.3932;0.7804;
1197.0000;0.3923;0.7778;
1197.3000;0.3932;0.7778;
1197.6000;0.3915;0.7753;
1197.9000;0.3932;0.7778;
1198.2000;0.3940;0.7830;
1198.5000;0.3915;0.7701;
1198.8000;0.3948;0.7804;
1199.1000;0.3915;0.7804;
1199.4000;0.3915;0.7830;
1199.7000;0.3932;0.7804;
1200.0000;0.3891;0.7727;
1200.3000;0.3923;0.7804;
1200.6000;0.3907;0.7778;
1200.9000;0.3932;0.7856;
1201.2000;0.3940;0.7882;
1201.5000;0.3948;0.7856;
1201.8000;0.3964;0.7908;
1202.1000;0.3948;0.7934;
1202.4000;0.3923;0.7960;
1202.7000;0.3932;0.7934;
1203.0000;0.3923;0.7986;
1203.3000;0.3883;0.7804;
1203.6000;0.3923;0.7986;
1203.9000;0.3915;0.7986;
1204.2000;0.3883;0.7830;
1204.5000;0.3956;0.7934;
1204.8000;0.3923;0.7856;
1205.1000;0.3915;0.7882;
1205.4000;0.3932;0.7960;
1205.7000;0.3932;0.7778;
1206.0000;0.3964;0.7804;
1206.3000;0.3932;0.7727;
1206.6000;0.3932;0.7804;
1206.9000;0.4021;0.8116;
1207.2000;0.3875;0.7778;
1207.5000;0.3915;0.7960;
1207.8000;0.3932;0.7934;
1208.1000;0.3891;0.7856;
1208.4000;0.3923;0.7934;
1208.7000;0.3932;0.7856;
1209.0000;0.3932;0.7830;
1209.3000;0.3932;0.7856;
1209.6000;0.3923;0.7830;
1209.9000;0.3956;0.7830;
1210.2000;0.4021;0.7986;
1210.5000;0.3932;0.7778;
1210.8000;0.3923;0.7675;
1211.1000;0.3940;0.7727;
1211.4000;0.3883;0.7597;
1211.7000;0.3932;0.7701;
1212.0000;0.3932;0.7804;
1212.3000;0.3940;0.7753;
1212.6000;0.3948;0.7804;
1212.9000;0.3932;0.7753;
1213.2000;0.3932;0.7778;
1213.5000;0.3923;0.7727;
1213.8000;0.3932;0.7701;
1214.1000;0.3923;0.7675;
1214.4000;0.3940;0.7830;
1214.7000;0.3980;0.8012;
1215.0000;0.3932;0.7804;
1215.3000;0.3923;0.7804;
1215.6000;0.3907;0.7778;
1215.9000;0.3875;0.7701;
1216.2000;0.3940;0.7882;
1216.5000;0.3915;0.7830;
1216.8000;0.3932;0.7908;
1217.1000;0.3923;0.7830;
1217.4000;0.3923;0.7830;
1217.7000;0.3907;0.7753;
1218.0000;0.3932;0.7804;
1218.3000;0.3932;0.7727;
1218.6000;0.3964;0.7830;
1218.9000;0.3932;0.7778;
1219.2000;0.3915;0.7753;
1219.5000;0.3923;0.7753;
1219.8000;0.3867;0.7623;
1220.1000;0.3899;0.7727;
1220.4000;0.3948;0.7908;
1220.7000;0.3989;0.7934;
1221.0000;0.3932;0.7753;
1221.3000;0.3940;0.7830;
1221.6000;0.3899;0.7701;
1221.9000;0.3923;0.7727;
1222.2000;0.3915;0.7753;
1222.5000;0.3907;0.7701;
1222.8000;0.3932;0.7623;
1223.1000;0.3940;0.7571;
1223.4000;0.3932;0.7545;
1223.7000;0.3907;0.7571;
1224.0000;0.3923;0.7623;
1224.3000;0.3932;0.7623;
1224.6000;0.3923;0.7675;
1224.9000;0.3940;0.7778;
1225.2000;0.3923;0.7727;
1225.5000;0.3923;0.7753;
1225.8000;0.3932;0.7830;
1226.1000;0.3923;0.7830;
1226.4000;0.4037;0.8064;
1226.7000;0.3932;0.7701;
1227.0000;0.3948;0.7753;
1227.3000;0.3964;0.7882;
1227.6000;0.3923;0.7675;
1227.9000;0.3834;0.7415;
1228.2000;0.3907;0.7623;
1228.5000;0.3923;0.7545;
1228.8000;0.3915;0.7545;
1229.1000;0.3940;0.7571;
1229.4000;0.3923;0.7571;
1229.7000;0.3899;0.7493;
1230.0000;0.3932;0.7519;
1230.3000;0.3932;0.7545;
1230.6000;0.3923;0.7493;
1230.9000;0.3923;0.7597;
1231.2000;0.3858;0.7364;
1231.5000;0.3923;0.7571;
1231.8000;0.3923;0.7519;
1232.1000;0.3932;0.7545;
1232.4000;0.3907;0.7571;
1232.7000;0.3907;0.7545;
1233.0000;0.3932;0.7623;
1233.3000;0.3867;0.7467;
1233.6000;0.3907;0.7545;
1233.9000;0.3932;0.7623;
1234.2000;0.3915;0.7597;
1234.5000;0.3932;0.7597;
1234.8000;0.3907;0.7493;
1235.1000;0.3923;0.7519;
1235.4000;0.3867;0.7493;
1235.7000;0.3948;0.7675;
1236.0000;0.3915;0.7675;
1236.3000;0.3923;0.7675;
1236.6000;0.3899;0.7597;
1236.9000;0.3940;0.7649;
1237.2000;0.3923;0.7597;
1237.5000;0.3907;0.7597;
1237.8000;0.3932;0.7675;
1238.1000;0.3923;0.7675;
1238.4000;0.3923;0.7649;
1238.7000;0.3932;0.7649;
1239.0000;0.3932;0.7597;
1239.3000;0.3923;0.7623;
1239.6000;0.3923;0.7623;
1239.9000;0.3948;0.7623;
1240.2000;0.3932;0.7649;
1240.5000;0.3923;0.7623;
1240.8000;0.3923;0.7649;
1241.1000;0.3932;0.7727;
1241.4000;0.3923;0.7778;
1241.7000;0.3907;0.7597;
1242.0000;0.3834;0.7338;
1242.3000;0.3923;0.7701;
1242.6000;0.3932;0.7778;
1242.9000;0.3940;0.7778;
1243.2000;0.3915;0.7778;
1243.5000;0.3923;0.7753;
1243.8000;0.3932;0.7804;
1244.1000;0.3940;0.7830;
1244.4000;0.3891;0.7597;
1244.7000;0.3899;0.7649;
1245.0000;0.3834;0.7519;
1245.3000;0.3923;0.7701;
1245.6000;0.3850;0.7441;
1245.9000;0.3932;0.7623;
1246.2000;0.3915;0.7623;
1246.5000;0.3923;0.7727;
1246.8000;0.3923;0.7701;
1247.1000;0.3923;0.7778;
1247.4000;0.3940;0.7778;
1247.7000;0.3932;0.7856;
1248.0000;0.3932;0.7960;
1248.3000;0.3932;0.7908;
1248.6000;0.3923;0.7804;
1248.9000;0.3923;0.7830;
1249.2000;0.3989;0.7986;
1249.5000;0.3932;0.7856;
1249.8000;0.3899;0.7675;
1250.1000;0.3932;0.7727;
1250.4000;0.3932;0.7727;
1250.7000;0.3932;0.7804;
1251.0000;0.3932;0.7753;
1251.3000;0.3923;0.7675;
1251.6000;0.3940;0.7804;
1251.9000;0.3867;0.7597;
1252.2000;0.3932;0.7727;
1252.5000;0.3932;0.7778;
1252.8000;0.3940;0.7804;
1253.1000;0.3923;0.7778;
1253.4000;0.3932;0.7804;
1253.7000;0.3923;0.7882;
1254.0000;0.3923;0.7934;
1254.3000;0.3932;0.7804;
1254.6000;0.3923;0.7753;
1254.9000;0.3915;0.7675;
1255.2000;0.3915;0.7623;
1255.5000;0.3940;0.7727;
1255.8000;0.3915;0.7571;
1256.1000;0.3923;0.7649;
1256.4000;0.3899;0.7571;
1256.7000;0.3923;0.7675;
1257.0000;0.3915;0.7545;
1257.3000;0.3940;0.7675;
1257.6000;0.3875;0.7571;
1257.9000;0.3923;0.7701;
1258.2000;0.3940;0.7778;
1258.5000;0.3907;0.7623;
1258.8000;0.3940;0.7623;
1259.1000;0.3907;0.7675;
1259.4000;0.3980;0.7778;
1259.7000;0.3907;0.7519;
1260.0000;0.3915;0.7519;
1260.3000;0.3915;0.7571;
1260.6000;0.3915;0.7701;
1260.9000;0.3923;0.7701;
1261.2000;0.3923;0.7675;
1261.5000;0.3915;0.7753;
1261.8000;0.3915;0.7804;
1262.1000;0.3923;0.7778;
1262.4000;0.3932;0.7908;
1262.7000;0.3923;0.7778;
1263.0000;0.3940;0.7753;
1263.3000;0.3932;0.7727;
1263.6000;0.3923;0.7727;
1263.9000;0.3915;0.7597;
1264.2000;0.3915;0.7623;
1264.5000;0.3907;0.7571;
1264.8000;0.3915;0.7597;
1265.1000;0.3875;0.7493;
1265.4000;0.3923;0.7623;
1265.7000;0.3932;0.7623;
1266.0000;0.3948;0.7649;
1266.3000;0.3932;0.7597;
1266.6000;0.3932;0.7623;
1266.9000;0.3907;0.7545;
1267.2000;0.3956;0.7623;
1267.5000;0.3932;0.7649;
1267.8000;0.3932;0.7597;
1268.1000;0.3932;0.7545;
1268.4000;0.3932;0.7467;
1268.7000;0.3923;0.7441;
1269.0000;0.3915;0.7493;
1269.3000;0.3923;0.7623;
1269.6000;0.3907;0.7519;
1269.9000;0.3810;0.7182;
1270.2000;0.3932;0.7571;
1270.5000;0.3915;0.7649;
1270.8000;0.3867;0.7441;
1271.1000;0.3923;0.7571;
1271.4000;0.3915;0.7545;
1271.7000;0.3948;0.7623;
1272.0000;0.3932;0.7675;
1272.3000;0.3915;0.7675;
1272.6000;0.3899;0.7597;
1272.9000;0.3923;0.7649;
1273.2000;0.3907;0.7545;
1273.5000;0.3899;0.7467;
1273.8000;0.3867;0.7519;
1274.1000;0.3932;0.7649;
1274.4000;0.3980;0.7830;
1274.7000;0.3940;0.7701;
1275.0000;0.3932;0.7597;
1275.3000;0.3907;0.7623;
1275.6000;0.3932;0.7753;
1275.9000;0.3940;0.7830;
1276.2000;0.3907;0.7753;
1276.5000;0.3932;0.7753;
1276.8000;0.3907;0.7675;
1277.1000;0.3940;0.7701;
1277.4000;0.3923;0.7623;
1277.7000;0.3932;0.7727;
1278.0000;0.3915;0.7675;
1278.3000;0.3940;0.7856;
1278.6000;0.3932;0.7804;
1278.9000;0.3915;0.7753;
1279.2000;0.3923;0.7727;
1279.5000;0.3907;0.7753;
1279.8000;0.3923;0.7804;
1280.1000;0.3923;0.7804;
1280.4000;0.3932;0.7778;
1280.7000;0.3915;0.7727;
1281.0000;0.3932;0.7675;
1281.3000;0.3923;0.7649;
1281.6000;0.3907;0.7571;
1281.9000;0.3923;0.7571;
1282.2000;0.3923;0.7571;
1282.5000;0.3980;0.7701;
1282.8000;0.3907;0.7597;
1283.1000;0.3923;0.7649;
1283.4000;0.3923;0.7701;
1283.7000;0.3915;0.7675;
1284.0000;0.3923;0.7649;
1284.3000;0.3923;0.7597;
1284.6000;0.3932;0.7519;
1284.9000;0.3964;0.7675;
1285.2000;0.3932;0.7649;
1285.5000;0.3932;0.7623;
1285.8000;0.3915;0.7623;
1286.1000;0.3940;0.7675;
1286.4000;0.3923;0.7597;
1286.7000;0.3923;0.7623;
1287.0000;0.3932;0.7675;
1287.3000;0.3932;0.7649;
1287.6000;0.3915;0.7623;
1287.9000;0.3932;0.7649;
1288.2000;0.3923;0.7649;
1288.5000;0.3948;0.7649;
1288.8000;0.3940;0.7649;
1289.1000;0.3915;0.7545;
1289.4000;0.3923;0.7597;
1289.7000;0.3932;0.7571;
1290.0000;0.3923;0.7597;
1290.3000;0.3940;0.7675;
1290.6000;0.3940;0.7727;
1290.9000;0.3923;0.7649;
1291.2000;0.3915;0.7649;
1291.5000;0.3915;0.7545;
1291.8000;0.3915;0.7519;
1292.1000;0.3867;0.7312;
1292.4000;0.3891;0.7390;
1292.7000;0.3858;0.7338;
1293.0000;0.3883;0.7467;
1293.3000;0.3932;0.7701;
1293.6000;0.3940;0.7623;
1293.9000;0.3932;0.7649;
1294.2000;0.3907;0.7649;
1294.5000;0.3923;0.7753;
1294.8000;0.3883;0.7545;
1295.1000;0.3915;0.7623;
1295.4000;0.3923;0.7649;
1295.7000;0.3899;0.7623;
1296.0000;0.3907;0.7649;
1296.3000;0.3923;0.7675;
1296.6000;0.3915;0.7675;
1296.9000;0.3899;0.7675;
1297.2000;0.3923;0.7778;
1297.5000;0.3907;0.7778;
1297.8000;0.3915;0.7804;
1298.1000;0.3923;0.7727;
1298.4000;0.3923;0.7675;
1298.7000;0.3915;0.7675;
1299.0000;0.3915;0.7727;
1299.3000;0.3932;0.7571;
1299.6000;0.3932;0.7519;
1299.9000;0.3980;0.7597;
1300.2000;0.3915;0.7390;
1300.5000;0.3907;0.7390;
1300.8000;0.3907;0.7415;
1301.1000;0.3915;0.7364;
1301.4000;0.3907;0.7441;
1301.7000;0.3907;0.7441;
1302.0000;0.3899;0.7312;
1302.3000;0.3923;0.7312;
1302.6000;0.3923;0.7260;
1302.9000;0.3923;0.7260;
1303.2000;0.3915;0.7390;
1303.5000;0.3875;0.7338;
1303.8000;0.3923;0.7545;
1304.1000;0.3915;0.7571;
1304.4000;0.3915;0.7623;
1304.7000;0.3923;0.7675;
1305.0000;0.3915;0.7701;
1305.3000;0.3923;0.7675;
1305.6000;0.3980;0.7882;
1305.9000;0.3907;0.7597;
1306.2000;0.3923;0.7649;
1306.5000;0.3972;0.7753;
1306.8000;0.3932;0.7649;
1307.1000;0.3923;0.7623;
1307.4000;0.3932;0.7701;
1307.7000;0.3923;0.7649;
1308.0000;0.3907;0.7623;
1308.3000;0.3923;0.7675;
1308.6000;0.3932;0.7701;
1308.9000;0.3915;0.7727;
1309.2000;0.3915;0.7701;
1309.5000;0.3923;0.7753;
1309.8000;0.3948;0.7882;
1310.1000;0.3932;0.7908;
1310.4000;0.3940;0.7960;
1310.7000;0.3923;0.7934;
1311.0000;0.3923;0.7830;
1311.3000;0.3940;0.7908;
1311.6000;0.3940;0.7882;
1311.9000;0.3907;0.7778;
1312.2000;0.3923;0.7804;
1312.5000;0.3915;0.7753;
1312.8000;0.3899;0.7701;
1313.1000;0.3915;0.7727;
1313.4000;0.3923;0.7701;
1313.7000;0.3932;0.7753;
1314.0000;0.3923;0.7753;
1314.3000;0.3923;0.7804;
1314.6000;0.3915;0.7856;
1314.9000;0.3923;0.7830;
1315.2000;0.3907;0.7830;
1315.5000;0.3932;0.7830;
1315.8000;0.3923;0.7804;
1316.1000;0.3867;0.7701;
1316.4000;0.3923;0.7856;
1316.7000;0.3915;0.7856;
1317.0000;0.3891;0.7753;
1317.3000;0.3989;0.7960;
1317.6000;0.3932;0.7778;
1317.9000;0.3948;0.7753;
1318.2000;0.3932;0.7675;
1318.5000;0.3923;0.7649;
1318.8000;0.3923;0.7623;
1319.1000;0.3923;0.7623;
1319.4000;0.3907;0.7597;
1319.7000;0.3923;0.7675;
1320.0000;0.3875;0.7571;
1320.3000;0.3948;0.7753;
1320.6000;0.3923;0.7701;
1320.9000;0.3940;0.7701;
1321.2000;0.3915;0.7649;
1321.5000;0.3923;0.7597;
1321.8000;0.3932;0.7597;
1322.1000;0.3907;0.7519;
1322.4000;0.3932;0.7493;
1322.7000;0.3932;0.7571;
1323.0000;0.3932;0.7571;
1323.3000;0.3932;0.7649;
1323.6000;0.3907;0.7623;
1323.9000;0.3940;0.7804;
1324.2000;0.3932;0.7778;
1324.5000;0.3932;0.7701;
1324.8000;0.3923;0.7649;
1325.1000;0.3923;0.7727;
1325.4000;0.3915;0.7804;
1325.7000;0.3940;0.7882;
1326.0000;0.3940;0.7908;
1326.3000;0.3899;0.7804;
1326.6000;0.3932;0.7856;
1326.9000;0.3907;0.7778;
1327.2000;0.3923;0.7675;
1327.5000;0.3923;0.7804;
1327.8000;0.3923;0.7727;
1328.1000;0.3932;0.7753;
1328.4000;0.3915;0.7753;
1328.7000;0.3891;0.7727;
1329.0000;0.3915;0.7727;
1329.3000;0.3915;0.7701;
1329.6000;0.3980;0.7960;
1329.9000;0.3907;0.7778;
1330.2000;0.3923;0.7830;
1330.5000;0.3915;0.7701;
1330.8000;0.3907;0.7727;
1331.1000;0.3915;0.7778;
1331.4000;0.3932;0.7830;
1331.7000;0.3923;0.7804;
1332.0000;0.3940;0.7804;
1332.3000;0.3923;0.7804;
1332.6000;0.3915;0.7830;
1332.9000;0.3932;0.7908;
1333.2000;0.3940;0.7882;
1333.5000;0.3940;0.8012;
1333.8000;0.3923;0.8038;
1334.1000;0.3915;0.8116;
1334.4000;0.3940;0.8038;
1334.7000;0.3932;0.7908;
1335.0000;0.3940;0.7856;
1335.3000;0.3932;0.7856;
1335.6000;0.3915;0.7753;
1335.9000;0.3923;0.7856;
1336.2000;0.3923;0.7856;
1336.5000;0.3940;0.7934;
1336.8000;0.3932;0.7934;
1337.1000;0.3883;0.7804;
1337.4000;0.3915;0.7934;
1337.7000;0.3915;0.7908;
1338.0000;0.3932;0.7908;
1338.3000;0.3899;0.7804;
1338.6000;0.3923;0.7830;
1338.9000;0.3842;0.7545;
1339.2000;0.3891;0.7623;
1339.5000;0.3923;0.7727;
1339.8000;0.3923;0.7882;
1340.1000;0.3915;0.7882;
1340.4000;0.3907;0.7934;
1340.7000;0.3899;0.7882;
1341.0000;0.3915;0.7856;
1341.3000;0.3923;0.7856;
1341.6000;0.3883;0.7778;
1341.9000;0.3932;0.7856;
1342.2000;0.3875;0.7701;
1342.5000;0.3923;0.7701;
1342.8000;0.3915;0.7623;
1343.1000;0.3932;0.7597;
1343.4000;0.3858;0.7364;
1343.7000;0.3923;0.7597;
1344.0000;0.3891;0.7649;
1344.3000;0.3923;0.7727;
1344.6000;0.3923;0.7727;
1344.9000;0.3915;0.7753;
1345.2000;0.3915;0.7804;
1345.5000;0.3899;0.7778;
1345.8000;0.3818;0.7597;
1346.1000;0.3923;0.7856;
1346.4000;0.3923;0.7908;
1346.7000;0.3972;0.7960;
1347.0000;0.3915;0.7856;
1347.3000;0.3923;0.7856;
1347.6000;0.3915;0.7882;
1347.9000;0.3932;0.7882;
1348.2000;0.3907;0.7778;
1348.5000;0.3899;0.7675;
1348.8000;0.3964;0.7830;
1349.1000;0.3899;0.7727;
1349.4000;0.4013;0.8064;
1349.7000;0.3899;0.7753;
1350.0000;0.3907;0.7753;
1350.3000;0.3923;0.7778;
1350.6000;0.3932;0.7778;
1350.9000;0.3932;0.7856;
1351.2000;0.3907;0.7778;
1351.5000;0.3907;0.7804;
1351.8000;0.3932;0.7882;
1352.1000;0.3907;0.7856;
1352.4000;0.3940;0.7986;
1352.7000;0.3915;0.7934;
1353.0000;0.3915;0.7934;
1353.3000;0.3940;0.7934;
1353.6000;0.3915;0.7830;
1353.9000;0.3932;0.7830;
1354.2000;0.3989;0.7986;
1354.5000;0.3915;0.7727;
1354.8000;0.3940;0.7804;
1355.1000;0.3891;0.7649;
1355.4000;0.3923;0.7675;
1355.7000;0.3932;0.7623;
1356.0000;0.3907;0.7597;
1356.3000;0.3915;0.7675;
1356.6000;0.3899;0.7597;
1356.9000;0.3923;0.7649;
1357.2000;0.3923;0.7701;
1357.5000;0.3923;0.7701;
1357.8000;0.3907;0.7675;
1358.1000;0.3940;0.7804;
1358.4000;0.3932;0.7778;
1358.7000;0.3923;0.7701;
1359.0000;0.3964;0.7778;
1359.3000;0.3915;0.7597;
1359.6000;0.3915;0.7545;
1359.9000;0.3907;0.7597;
1360.2000;0.3923;0.7571;
1360.5000;0.3899;0.7571;
1360.8000;0.3932;0.7753;
1361.1000;0.3923;0.7727;
1361.4000;0.3923;0.7753;
1361.7000;0.3940;0.7727;
1362.0000;0.3932;0.7675;
1362.3000;0.3883;0.7545;
1362.6000;0.3923;0.7571;
1362.9000;0.3899;0.7571;
1363.2000;0.3915;0.7623;
1363.5000;0.3940;0.7597;
1363.8000;0.3915;0.7493;
1364.1000;0.3915;0.7571;
1364.4000;0.3989;0.7675;
1364.7000;0.3915;0.7441;
1365.0000;0.3923;0.7519;
1365.3000;0.3932;0.7467;
1365.6000;0.3891;0.7415;
1365.9000;0.3964;0.7571;
1366.2000;0.3923;0.7338;
1366.5000;0.3907;0.7286;
1366.8000;0.3915;0.7338;
1367.1000;0.3923;0.7364;
1367.4000;0.3932;0.7467;
1367.7000;0.3923;0.7493;
1368.0000;0.3915;0.7545;
1368.3000;0.3899;0.7519;
1368.6000;0.3915;0.7519;
1368.9000;0.3867;0.7364;
1369.2000;0.3899;0.7467;
1369.5000;0.3907;0.7467;
1369.8000;0.3907;0.7519;
1370.1000;0.3907;0.7493;
1370.4000;0.3907;0.7441;
1370.7000;0.3923;0.7493;
1371.0000;0.3907;0.7441;
1371.3000;0.3923;0.7467;
1371.6000;0.3923;0.7545;
1371.9000;0.3923;0.7519;
1372.2000;0.3907;0.7571;
1372.5000;0.3932;0.7571;
1372.8000;0.3907;0.7545;
1373.1000;0.3907;0.7597;
1373.4000;0.3923;0.7675;
1373.7000;0.3915;0.7649;
1374.0000;0.3899;0.7545;
1374.3000;0.3875;0.7390;
1374.6000;0.3940;0.7493;
1374.9000;0.3923;0.7571;
1375.2000;0.3923;0.7623;
1375.5000;0.3883;0.7597;
1375.8000;0.3915;0.7623;
1376.1000;0.3923;0.7675;
1376.4000;0.3907;0.7571;
1376.7000;0.3915;0.7545;
1377.0000;0.3915;0.7623;
1377.3000;0.3915;0.7571;
1377.6000;0.3940;0.7649;
1377.9000;0.3923;0.7623;
1378.2000;0.3915;0.7597;
1378.5000;0.3915;0.7571;
1378.8000;0.3875;0.7338;
1379.1000;0.3932;0.7519;
1379.4000;0.3923;0.7519;
1379.7000;0.3907;0.7493;
1380.0000;0.3932;0.7571;
1380.3000;0.3948;0.7649;
1380.6000;0.3907;0.7519;
1380.9000;0.3923;0.7571;
1381.2000;0.3858;0.7493;
1381.5000;0.3923;0.7571;
1381.8000;0.3915;0.7545;
1382.1000;0.3891;0.7467;
1382.4000;0.3915;0.7493;
1382.7000;0.3842;0.7312;
1383.0000;0.3923;0.7649;
1383.3000;0.3915;0.7597;
1383.6000;0.3883;0.7597;
1383.9000;0.3899;0.7701;
1384.2000;0.3915;0.7649;
1384.5000;0.3932;0.7649;
1384.8000;0.3915;0.7623;
1385.1000;0.3842;0.7415;
1385.4000;0.3923;0.7597;
1385.7000;0.3915;0.7623;
1386.0000;0.3972;0.7804;
1386.3000;0.3948;0.7701;
1386.6000;0.3915;0.7701;
1386.9000;0.3915;0.7623;
1387.2000;0.3907;0.7519;
1387.5000;0.3923;0.7545;
1387.8000;0.3907;0.7545;
1388.1000;0.3915;0.7701;
1388.4000;0.3923;0.7701;
1388.7000;0.3923;0.7675;
1389.0000;0.3932;0.7649;
1389.3000;0.3907;0.7519;
1389.6000;0.3915;0.7493;
1389.9000;0.3923;0.7571;
1390.2000;0.3923;0.7623;
1390.5000;0.3923;0.7597;
1390.8000;0.3826;0.7312;
1391.1000;0.3932;0.7623;
1391.4000;0.3907;0.7571;
1391.7000;0.3907;0.7623;
1392.0000;0.3923;0.7701;
1392.3000;0.3907;0.7675;
1392.6000;0.3915;0.7675;
1392.9000;0.3932;0.7727;
1393.2000;0.3923;0.7778;
1393.5000;0.3899;0.7701;
1393.8000;0.3923;0.7753;
1394.1000;0.3932;0.7856;
1394.4000;0.3899;0.7701;
1394.7000;0.3899;0.7701;
1395.0000;0.3915;0.7675;
1395.3000;0.3932;0.7727;
1395.6000;0.3810;0.7415;
1395.9000;0.3907;0.7675;
1396.2000;0.3923;0.7727;
1396.5000;0.3915;0.7649;
1396.8000;0.3891;0.7571;
1397.1000;0.3899;0.7649;
1397.4000;0.3834;0.7390;
1397.7000;0.3915;0.7623;
1398.0000;0.3932;0.7597;
1398.3000;0.3907;0.7493;
1398.6000;0.3923;0.7519;
1398.9000;0.3923;0.7467;
1399.2000;0.3940;0.7597;
1399.5000;0.3915;0.7623;
1399.8000;0.3907;0.7597;
