time/ms;Fluo/V;P700 deltaI/I x10³;
-199.8000;0.3639;0.8090;
-199.5000;0.3622;0.8064;
-199.2000;0.3622;0.8064;
-198.9000;0.3639;0.8064;
-198.6000;0.3655;0.8193;
-198.3000;0.3622;0.8064;
-198.0000;0.3639;0.8064;
-197.7000;0.3639;0.8116;
-197.4000;0.3614;0.8090;
-197.1000;0.3622;0.8141;
-196.8000;0.3622;0.8116;
-196.5000;0.3639;0.8038;
-196.2000;0.3630;0.8141;
-195.9000;0.3630;0.8219;
-195.6000;0.3639;0.8141;
-195.3000;0.3630;0.8090;
-195.0000;0.3606;0.8116;
-194.7000;0.3630;0.8116;
-194.4000;0.3614;0.8064;
-194.1000;0.3630;0.8064;
-193.8000;0.3647;0.8116;
-193.5000;0.3639;0.8064;
-193.2000;0.3598;0.7986;
-192.9000;0.3606;0.8038;
-192.6000;0.3622;0.8038;
-192.3000;0.3630;0.8116;
-192.0000;0.3639;0.8090;
-191.7000;0.3679;0.8297;
-191.4000;0.3639;0.8116;
-191.1000;0.3598;0.7908;
-190.8000;0.3639;0.8038;
-190.5000;0.3647;0.7934;
-190.2000;0.3533;0.7701;
-189.9000;0.3639;0.8012;
-189.6000;0.3647;0.8038;
-189.3000;0.3639;0.8090;
-189.0000;0.3679;0.8219;
-188.7000;0.3630;0.8141;
-188.4000;0.3639;0.8141;
-188.1000;0.3647;0.8116;
-187.8000;0.3606;0.8038;
-187.5000;0.3639;0.8064;
-187.2000;0.3598;0.7986;
-186.9000;0.3630;0.8090;
-186.6000;0.3606;0.8064;
-186.3000;0.3639;0.8141;
-186.0000;0.3582;0.7986;
-185.7000;0.3622;0.8090;
-185.4000;0.3598;0.7986;
-185.1000;0.3622;0.8219;
-184.8000;0.3622;0.8245;
-184.5000;0.3590;0.8167;
-184.2000;0.3541;0.8012;
-183.9000;0.3614;0.8193;
-183.6000;0.3630;0.8193;
-183.3000;0.3598;0.8038;
-183.0000;0.3622;0.8116;
-182.7000;0.3622;0.8064;
-182.4000;0.3712;0.8297;
-182.1000;0.3614;0.8012;
-181.8000;0.3639;0.8090;
-181.5000;0.3622;0.8064;
-181.2000;0.3639;0.8193;
-180.9000;0.3614;0.8141;
-180.6000;0.3614;0.8090;
-180.3000;0.3573;0.7934;
-180.0000;0.3639;0.8038;
-179.7000;0.3639;0.8090;
-179.4000;0.3614;0.8038;
-179.1000;0.3655;0.8090;
-178.8000;0.3622;0.7986;
-178.5000;0.3630;0.8038;
-178.2000;0.3622;0.8064;
-177.9000;0.3630;0.8090;
-177.6000;0.3614;0.8116;
-177.3000;0.3614;0.8064;
-177.0000;0.3647;0.8167;
-176.7000;0.3679;0.8219;
-176.4000;0.3630;0.8064;
-176.1000;0.3639;0.8064;
-175.8000;0.3639;0.8064;
-175.5000;0.3614;0.8064;
-175.2000;0.3630;0.8012;
-174.9000;0.3630;0.7986;
-174.6000;0.3598;0.7882;
-174.3000;0.3582;0.7882;
-174.0000;0.3614;0.7986;
-173.7000;0.3622;0.7934;
-173.4000;0.3622;0.7986;
-173.1000;0.3630;0.7908;
-172.8000;0.3622;0.7804;
-172.5000;0.3639;0.7882;
-172.2000;0.3622;0.7830;
-171.9000;0.3630;0.7934;
-171.6000;0.3736;0.8245;
-171.3000;0.3639;0.8012;
-171.0000;0.3606;0.7986;
-170.7000;0.3647;0.8064;
-170.4000;0.3655;0.8141;
-170.1000;0.3639;0.8038;
-169.8000;0.3639;0.8064;
-169.5000;0.3639;0.8038;
-169.2000;0.3647;0.8064;
-168.9000;0.3630;0.8090;
-168.6000;0.3606;0.8038;
-168.3000;0.3582;0.7960;
-168.0000;0.3679;0.8167;
-167.7000;0.3639;0.7960;
-167.4000;0.3614;0.7934;
-167.1000;0.3655;0.8090;
-166.8000;0.3639;0.8012;
-166.5000;0.3630;0.7856;
-166.2000;0.3622;0.7960;
-165.9000;0.3630;0.7960;
-165.6000;0.3639;0.7934;
-165.3000;0.3647;0.7986;
-165.0000;0.3655;0.8038;
-164.7000;0.3639;0.8038;
-164.4000;0.3630;0.8038;
-164.1000;0.3622;0.8038;
-163.8000;0.3630;0.8064;
-163.5000;0.3582;0.7830;
-163.2000;0.3630;0.7986;
-162.9000;0.3647;0.7934;
-162.6000;0.3614;0.7908;
-162.3000;0.3630;0.7934;
-162.0000;0.3655;0.7934;
-161.7000;0.3639;0.7986;
-161.4000;0.3639;0.7934;
-161.1000;0.3614;0.7856;
-160.8000;0.3630;0.7908;
-160.5000;0.3639;0.7882;
-160.2000;0.3663;0.7960;
-159.9000;0.3622;0.7856;
-159.6000;0.3622;0.7960;
-159.3000;0.3622;0.8038;
-159.0000;0.3614;0.8064;
-158.7000;0.3622;0.8038;
-158.4000;0.3639;0.7908;
-158.1000;0.3614;0.7908;
-157.8000;0.3614;0.7960;
-157.5000;0.3630;0.8064;
-157.2000;0.3655;0.8064;
-156.9000;0.3630;0.7986;
-156.6000;0.3655;0.8090;
-156.3000;0.3647;0.8012;
-156.0000;0.3630;0.8064;
-155.7000;0.3622;0.8038;
-155.4000;0.3647;0.8064;
-155.1000;0.3630;0.8064;
-154.8000;0.3639;0.8012;
-154.5000;0.3606;0.7960;
-154.2000;0.3647;0.8064;
-153.9000;0.3630;0.7934;
-153.6000;0.3630;0.7882;
-153.3000;0.3630;0.7830;
-153.0000;0.3630;0.7986;
-152.7000;0.3647;0.7934;
-152.4000;0.3622;0.7804;
-152.1000;0.3622;0.7830;
-151.8000;0.3622;0.7908;
-151.5000;0.3622;0.7830;
-151.2000;0.3639;0.7882;
-150.9000;0.3590;0.7701;
-150.6000;0.3622;0.7856;
-150.3000;0.3630;0.7960;
-150.0000;0.3630;0.7986;
-149.7000;0.3639;0.8064;
-149.4000;0.3630;0.8012;
-149.1000;0.3630;0.7908;
-148.8000;0.3630;0.7856;
-148.5000;0.3630;0.7908;
-148.2000;0.3630;0.7908;
-147.9000;0.3639;0.7986;
-147.6000;0.3598;0.8012;
-147.3000;0.3622;0.8090;
-147.0000;0.3647;0.8064;
-146.7000;0.3614;0.7960;
-146.4000;0.3639;0.7986;
-146.1000;0.3639;0.8012;
-145.8000;0.3647;0.8090;
-145.5000;0.3647;0.8245;
-145.2000;0.3639;0.8245;
-144.9000;0.3630;0.8141;
-144.6000;0.3647;0.8141;
-144.3000;0.3630;0.8116;
-144.0000;0.3639;0.8116;
-143.7000;0.3630;0.7960;
-143.4000;0.3606;0.7856;
-143.1000;0.3614;0.7882;
-142.8000;0.3630;0.7856;
-142.5000;0.3687;0.8012;
-142.2000;0.3614;0.7830;
-141.9000;0.3622;0.7856;
-141.6000;0.3630;0.7934;
-141.3000;0.3630;0.7960;
-141.0000;0.3614;0.7830;
-140.7000;0.3630;0.7960;
-140.4000;0.3622;0.8012;
-140.1000;0.3622;0.7934;
-139.8000;0.3622;0.7908;
-139.5000;0.3622;0.7934;
-139.2000;0.3606;0.7934;
-138.9000;0.3573;0.7882;
-138.6000;0.3614;0.8064;
-138.3000;0.3606;0.8116;
-138.0000;0.3622;0.8271;
-137.7000;0.3614;0.8245;
-137.4000;0.3630;0.8323;
-137.1000;0.3704;0.8453;
-136.8000;0.3614;0.8090;
-136.5000;0.3639;0.8167;
-136.2000;0.3647;0.8219;
-135.9000;0.3630;0.8245;
-135.6000;0.3671;0.8297;
-135.3000;0.3647;0.8193;
-135.0000;0.3655;0.8245;
-134.7000;0.3590;0.8090;
-134.4000;0.3630;0.8193;
-134.1000;0.3614;0.8038;
-133.8000;0.3622;0.8012;
-133.5000;0.3630;0.8116;
-133.2000;0.3630;0.8064;
-132.9000;0.3622;0.7960;
-132.6000;0.3630;0.7960;
-132.3000;0.3614;0.7934;
-132.0000;0.3655;0.8038;
-131.7000;0.3630;0.8064;
-131.4000;0.3630;0.8064;
-131.1000;0.3614;0.8012;
-130.8000;0.3606;0.7960;
-130.5000;0.3630;0.8012;
-130.2000;0.3590;0.7856;
-129.9000;0.3647;0.7960;
-129.6000;0.3647;0.8012;
-129.3000;0.3549;0.7727;
-129.0000;0.3622;0.7986;
-128.7000;0.3647;0.8012;
-128.4000;0.3671;0.8116;
-128.1000;0.3606;0.7934;
-127.8000;0.3606;0.8038;
-127.5000;0.3647;0.8141;
-127.2000;0.3614;0.8012;
-126.9000;0.3622;0.8064;
-126.6000;0.3630;0.8064;
-126.3000;0.3622;0.8038;
-126.0000;0.3630;0.8038;
-125.7000;0.3622;0.8012;
-125.4000;0.3622;0.7960;
-125.1000;0.3639;0.7986;
-124.8000;0.3630;0.8064;
-124.5000;0.3622;0.8064;
-124.2000;0.3622;0.8141;
-123.9000;0.3639;0.8167;
-123.6000;0.3622;0.8116;
-123.3000;0.3622;0.8116;
-123.0000;0.3614;0.8064;
-122.7000;0.3606;0.8064;
-122.4000;0.3630;0.8141;
-122.1000;0.3655;0.8116;
-121.8000;0.3639;0.8064;
-121.5000;0.3639;0.8116;
-121.2000;0.3639;0.8141;
-120.9000;0.3630;0.8116;
-120.6000;0.3630;0.8012;
-120.3000;0.3647;0.8116;
-120.0000;0.3639;0.8064;
-119.7000;0.3639;0.8116;
-119.4000;0.3622;0.8090;
-119.1000;0.3639;0.8090;
-118.8000;0.3622;0.8064;
-118.5000;0.3614;0.8141;
-118.2000;0.3614;0.8167;
-117.9000;0.3606;0.8090;
-117.6000;0.3614;0.8141;
-117.3000;0.3753;0.8530;
-117.0000;0.3655;0.8271;
-116.7000;0.3639;0.8245;
-116.4000;0.3606;0.8193;
-116.1000;0.3639;0.8323;
-115.8000;0.3622;0.8297;
-115.5000;0.3630;0.8271;
-115.2000;0.3647;0.8271;
-114.9000;0.3622;0.8245;
-114.6000;0.3647;0.8245;
-114.3000;0.3590;0.8141;
-114.0000;0.3614;0.8271;
-113.7000;0.3720;0.8556;
-113.4000;0.3614;0.8375;
-113.1000;0.3622;0.8349;
-112.8000;0.3614;0.8349;
-112.5000;0.3614;0.8375;
-112.2000;0.3639;0.8297;
-111.9000;0.3622;0.8245;
-111.6000;0.3614;0.8323;
-111.3000;0.3582;0.8193;
-111.0000;0.3639;0.8375;
-110.7000;0.3663;0.8297;
-110.4000;0.3630;0.8245;
-110.1000;0.3639;0.8245;
-109.8000;0.3630;0.8141;
-109.5000;0.3630;0.8090;
-109.2000;0.3663;0.8141;
-108.9000;0.3630;0.8064;
-108.6000;0.3622;0.8012;
-108.3000;0.3622;0.8012;
-108.0000;0.3655;0.8064;
-107.7000;0.3606;0.8038;
-107.4000;0.3639;0.8219;
-107.1000;0.3655;0.8297;
-106.8000;0.3590;0.8090;
-106.5000;0.3622;0.8116;
-106.2000;0.3622;0.8116;
-105.9000;0.3630;0.8193;
-105.6000;0.3639;0.8323;
-105.3000;0.3622;0.8323;
-105.0000;0.3614;0.8245;
-104.7000;0.3630;0.8271;
-104.4000;0.3639;0.8401;
-104.1000;0.3639;0.8453;
-103.8000;0.3647;0.8453;
-103.5000;0.3663;0.8401;
-103.2000;0.3639;0.8297;
-102.9000;0.3655;0.8271;
-102.6000;0.3639;0.8245;
-102.3000;0.3606;0.8245;
-102.0000;0.3614;0.8141;
-101.7000;0.3622;0.8193;
-101.4000;0.3647;0.8245;
-101.1000;0.3630;0.8271;
-100.8000;0.3582;0.8167;
-100.5000;0.3630;0.8193;
-100.2000;0.3622;0.8245;
-99.9000;0.3606;0.8167;
-99.6000;0.3630;0.8219;
-99.3000;0.3614;0.8219;
-99.0000;0.3630;0.8193;
-98.7000;0.3630;0.8167;
-98.4000;0.3614;0.8193;
-98.1000;0.3622;0.8193;
-97.8000;0.3639;0.8219;
-97.5000;0.3622;0.8245;
-97.2000;0.3614;0.8219;
-96.9000;0.3655;0.8375;
-96.6000;0.3639;0.8245;
-96.3000;0.3679;0.8401;
-96.0000;0.3639;0.8219;
-95.7000;0.3622;0.8141;
-95.4000;0.3647;0.8297;
-95.1000;0.3639;0.8193;
-94.8000;0.3639;0.8064;
-94.5000;0.3622;0.8090;
-94.2000;0.3590;0.7986;
-93.9000;0.3655;0.8219;
-93.6000;0.3630;0.8167;
-93.3000;0.3614;0.8038;
-93.0000;0.3614;0.8012;
-92.7000;0.3639;0.8012;
-92.4000;0.3614;0.7986;
-92.1000;0.3647;0.8064;
-91.8000;0.3614;0.8064;
-91.5000;0.3630;0.8038;
-91.2000;0.3639;0.8012;
-90.9000;0.3630;0.8064;
-90.6000;0.3639;0.8090;
-90.3000;0.3647;0.8245;
-90.0000;0.3639;0.8141;
-89.7000;0.3630;0.8116;
-89.4000;0.3630;0.8219;
-89.1000;0.3639;0.8271;
-88.8000;0.3573;0.8012;
-88.5000;0.3622;0.8141;
-88.2000;0.3590;0.8064;
-87.9000;0.3590;0.8090;
-87.6000;0.3630;0.8219;
-87.3000;0.3630;0.8141;
-87.0000;0.3533;0.7934;
-86.7000;0.3622;0.8193;
-86.4000;0.3647;0.8245;
-86.1000;0.3614;0.8193;
-85.8000;0.3630;0.8193;
-85.5000;0.3679;0.8349;
-85.2000;0.3622;0.8271;
-84.9000;0.3655;0.8297;
-84.6000;0.3647;0.8323;
-84.3000;0.3630;0.8323;
-84.0000;0.3614;0.8245;
-83.7000;0.3630;0.8323;
-83.4000;0.3614;0.8323;
-83.1000;0.3614;0.8297;
-82.8000;0.3622;0.8323;
-82.5000;0.3614;0.8245;
-82.2000;0.3622;0.8245;
-81.9000;0.3630;0.8245;
-81.6000;0.3630;0.8271;
-81.3000;0.3614;0.8219;
-81.0000;0.3606;0.8090;
-80.7000;0.3614;0.8116;
-80.4000;0.3614;0.8271;
-80.1000;0.3647;0.8219;
-79.8000;0.3614;0.8219;
-79.5000;0.3622;0.8271;
-79.2000;0.3639;0.8271;
-78.9000;0.3606;0.8167;
-78.6000;0.3614;0.8193;
-78.3000;0.3622;0.8116;
-78.0000;0.3630;0.8064;
-77.7000;0.3630;0.8064;
-77.4000;0.3639;0.8090;
-77.1000;0.3630;0.8193;
-76.8000;0.3622;0.8297;
-76.5000;0.3622;0.8349;
-76.2000;0.3647;0.8375;
-75.9000;0.3655;0.8375;
-75.6000;0.3622;0.8323;
-75.3000;0.3630;0.8297;
-75.0000;0.3639;0.8323;
-74.7000;0.3573;0.8012;
-74.4000;0.3630;0.8167;
-74.1000;0.3647;0.8167;
-73.8000;0.3655;0.8219;
-73.5000;0.3630;0.8116;
-73.2000;0.3704;0.8349;
-72.9000;0.3639;0.8193;
-72.6000;0.3639;0.8219;
-72.3000;0.3606;0.8090;
-72.0000;0.3622;0.8167;
-71.7000;0.3639;0.8167;
-71.4000;0.3630;0.8219;
-71.1000;0.3622;0.8193;
-70.8000;0.3687;0.8375;
-70.5000;0.3630;0.8271;
-70.2000;0.3614;0.8245;
-69.9000;0.3647;0.8349;
-69.6000;0.3606;0.8297;
-69.3000;0.3622;0.8323;
-69.0000;0.3639;0.8297;
-68.7000;0.3598;0.8167;
-68.4000;0.3630;0.8219;
-68.1000;0.3606;0.8193;
-67.8000;0.3614;0.8323;
-67.5000;0.3630;0.8349;
-67.2000;0.3614;0.8297;
-66.9000;0.3614;0.8297;
-66.6000;0.3614;0.8271;
-66.3000;0.3622;0.8375;
-66.0000;0.3622;0.8375;
-65.7000;0.3614;0.8453;
-65.4000;0.3630;0.8453;
-65.1000;0.3622;0.8427;
-64.8000;0.3639;0.8375;
-64.5000;0.3614;0.8427;
-64.2000;0.3614;0.8453;
-63.9000;0.3647;0.8530;
-63.6000;0.3622;0.8530;
-63.3000;0.3639;0.8530;
-63.0000;0.3720;0.8816;
-62.7000;0.3614;0.8556;
-62.4000;0.3630;0.8504;
-62.1000;0.3630;0.8556;
-61.8000;0.3622;0.8479;
-61.5000;0.3565;0.8297;
-61.2000;0.3671;0.8660;
-60.9000;0.3630;0.8608;
-60.6000;0.3622;0.8504;
-60.3000;0.3630;0.8504;
-60.0000;0.3647;0.8479;
-59.7000;0.3622;0.8504;
-59.4000;0.3639;0.8530;
-59.1000;0.3639;0.8479;
-58.8000;0.3639;0.8504;
-58.5000;0.3639;0.8504;
-58.2000;0.3630;0.8375;
-57.9000;0.3630;0.8427;
-57.6000;0.3622;0.8479;
-57.3000;0.3639;0.8504;
-57.0000;0.3606;0.8375;
-56.7000;0.3606;0.8427;
-56.4000;0.3630;0.8504;
-56.1000;0.3622;0.8427;
-55.8000;0.3630;0.8453;
-55.5000;0.3647;0.8556;
-55.2000;0.3630;0.8479;
-54.9000;0.3647;0.8401;
-54.6000;0.3655;0.8401;
-54.3000;0.3630;0.8375;
-54.0000;0.3639;0.8323;
-53.7000;0.3639;0.8245;
-53.4000;0.3630;0.8219;
-53.1000;0.3622;0.8271;
-52.8000;0.3687;0.8453;
-52.5000;0.3606;0.8193;
-52.2000;0.3639;0.8375;
-51.9000;0.3614;0.8323;
-51.6000;0.3630;0.8323;
-51.3000;0.3606;0.8245;
-51.0000;0.3630;0.8271;
-50.7000;0.3590;0.8193;
-50.4000;0.3630;0.8245;
-50.1000;0.3639;0.8323;
-49.8000;0.3630;0.8297;
-49.5000;0.3614;0.8271;
-49.2000;0.3639;0.8349;
-48.9000;0.3655;0.8479;
-48.6000;0.3647;0.8427;
-48.3000;0.3639;0.8375;
-48.0000;0.3630;0.8349;
-47.7000;0.3622;0.8297;
-47.4000;0.3630;0.8271;
-47.1000;0.3630;0.8245;
-46.8000;0.3614;0.8219;
-46.5000;0.3614;0.8219;
-46.2000;0.3630;0.8219;
-45.9000;0.3630;0.8245;
-45.6000;0.3622;0.8219;
-45.3000;0.3630;0.8271;
-45.0000;0.3639;0.8271;
-44.7000;0.3614;0.8245;
-44.4000;0.3639;0.8297;
-44.1000;0.3630;0.8271;
-43.8000;0.3630;0.8219;
-43.5000;0.3647;0.8245;
-43.2000;0.3630;0.8271;
-42.9000;0.3614;0.8245;
-42.6000;0.3614;0.8245;
-42.3000;0.3639;0.8193;
-42.0000;0.3647;0.8116;
-41.7000;0.3622;0.8064;
-41.4000;0.3614;0.8090;
-41.1000;0.3655;0.8167;
-40.8000;0.3639;0.8090;
-40.5000;0.3639;0.8116;
-40.2000;0.3622;0.8193;
-39.9000;0.3614;0.8193;
-39.6000;0.3630;0.8219;
-39.3000;0.3622;0.8193;
-39.0000;0.3630;0.8297;
-38.7000;0.3630;0.8297;
-38.4000;0.3573;0.8064;
-38.1000;0.3630;0.8375;
-37.8000;0.3630;0.8349;
-37.5000;0.3663;0.8453;
-37.2000;0.3622;0.8271;
-36.9000;0.3639;0.8297;
-36.6000;0.3639;0.8297;
-36.3000;0.3639;0.8219;
-36.0000;0.3606;0.8245;
-35.7000;0.3614;0.8219;
-35.4000;0.3630;0.8219;
-35.1000;0.3630;0.8193;
-34.8000;0.3630;0.8167;
-34.5000;0.3687;0.8271;
-34.2000;0.3630;0.8064;
-33.9000;0.3606;0.8090;
-33.6000;0.3630;0.8116;
-33.3000;0.3622;0.8167;
-33.0000;0.3630;0.8375;
-32.7000;0.3606;0.8193;
-32.4000;0.3606;0.8219;
-32.1000;0.3630;0.8297;
-31.8000;0.3655;0.8323;
-31.5000;0.3614;0.8167;
-31.2000;0.3630;0.8167;
-30.9000;0.3647;0.8245;
-30.6000;0.3663;0.8297;
-30.3000;0.3630;0.8271;
-30.0000;0.3614;0.8271;
-29.7000;0.3663;0.8349;
-29.4000;0.3647;0.8245;
-29.1000;0.3655;0.8193;
-28.8000;0.3639;0.8167;
-28.5000;0.3630;0.8193;
-28.2000;0.3663;0.8271;
-27.9000;0.3639;0.8193;
-27.6000;0.3647;0.8064;
-27.3000;0.3590;0.7856;
-27.0000;0.3630;0.8038;
-26.7000;0.3639;0.8064;
-26.4000;0.3614;0.8141;
-26.1000;0.3622;0.8167;
-25.8000;0.3655;0.8193;
-25.5000;0.3639;0.8193;
-25.2000;0.3639;0.8193;
-24.9000;0.3622;0.8090;
-24.6000;0.3712;0.8349;
-24.3000;0.3630;0.8193;
-24.0000;0.3614;0.8116;
-23.7000;0.3630;0.8141;
-23.4000;0.3630;0.8193;
-23.1000;0.3630;0.8167;
-22.8000;0.3630;0.8141;
-22.5000;0.3614;0.8090;
-22.2000;0.3622;0.8064;
-21.9000;0.3630;0.8167;
-21.6000;0.3614;0.8167;
-21.3000;0.3671;0.8323;
-21.0000;0.3614;0.8193;
-20.7000;0.3622;0.8141;
-20.4000;0.3630;0.8193;
-20.1000;0.3639;0.8245;
-19.8000;0.3565;0.8141;
-19.5000;0.3622;0.8323;
-19.2000;0.3639;0.8245;
-18.9000;0.3606;0.8116;
-18.6000;0.3622;0.8167;
-18.3000;0.3630;0.8167;
-18.0000;0.3671;0.8271;
-17.7000;0.3630;0.8245;
-17.4000;0.3639;0.8193;
-17.1000;0.3606;0.8116;
-16.8000;0.3630;0.8167;
-16.5000;0.3647;0.8219;
-16.2000;0.3622;0.8193;
-15.9000;0.3639;0.8271;
-15.6000;0.3590;0.8193;
-15.3000;0.3639;0.8245;
-15.0000;0.3622;0.8141;
-14.7000;0.3630;0.8167;
-14.4000;0.3622;0.8219;
-14.1000;0.3630;0.8323;
-13.8000;0.3622;0.8193;
-13.5000;0.3614;0.8090;
-13.2000;0.3622;0.8090;
-12.9000;0.3655;0.8193;
-12.6000;0.3639;0.8167;
-12.3000;0.3622;0.8116;
-12.0000;0.3622;0.8245;
-11.7000;0.3630;0.8297;
-11.4000;0.3622;0.8245;
-11.1000;0.3630;0.8219;
-10.8000;0.3630;0.8116;
-10.5000;0.3622;0.8141;
-10.2000;0.3630;0.8193;
-9.9000;0.3630;0.8116;
-9.6000;0.3630;0.8245;
-9.3000;0.3630;0.8297;
-9.0000;0.3647;0.8297;
-8.7000;0.3622;0.8219;
-8.4000;0.3606;0.8219;
-8.1000;0.3639;0.8245;
-7.8000;0.3655;0.8141;
-7.5000;0.3639;0.8038;
-7.2000;0.3622;0.8012;
-6.9000;0.3622;0.7908;
-6.6000;0.3663;0.7960;
-6.3000;0.3639;0.7986;
-6.0000;0.3582;0.7830;
-5.7000;0.3639;0.7986;
-5.4000;0.3655;0.8064;
-5.1000;0.3639;0.7986;
-4.8000;0.3639;0.7908;
-4.5000;0.3639;0.7934;
-4.2000;0.3647;0.7960;
-3.9000;0.3647;0.7986;
-3.6000;0.3630;0.7908;
-3.3000;0.3671;0.7986;
-3.0000;0.3630;0.7908;
-2.7000;0.3606;0.7960;
-2.4000;0.3606;0.8012;
-2.1000;0.3679;0.8167;
-1.8000;0.3622;0.8038;
-1.5000;0.3630;0.7986;
-1.2000;0.3622;0.7934;
-0.9000;0.3614;0.7778;
-0.6000;0.3639;0.7908;
-0.3000;0.3639;0.7934;
0.0000;0.3639;0.7934;
0.3000;0.3728;0.7986;
0.6000;0.3997;0.8893;
0.9000;0.4176;0.9723;
1.2000;0.4404;1.0605;
1.5000;0.4436;1.1020;
1.8000;0.4526;1.1590;
2.1000;0.4591;1.2160;
2.4000;0.4640;1.2575;
2.7000;0.4672;1.2834;
3.0000;0.4705;1.3172;
3.3000;0.4770;1.3483;
3.6000;0.4770;1.3664;
3.9000;0.4794;1.3716;
4.2000;0.4811;1.3820;
4.5000;0.4811;1.3949;
4.8000;0.4835;1.4183;
5.1000;0.4860;1.4235;
5.4000;0.4884;1.4261;
5.7000;0.4860;1.4209;
6.0000;0.4900;1.4286;
6.3000;0.4908;1.4364;
6.6000;0.4908;1.4416;
6.9000;0.4908;1.4468;
7.2000;0.4917;1.4520;
7.5000;0.4908;1.4494;
7.8000;0.4925;1.4520;
8.1000;0.4917;1.4598;
8.4000;0.4925;1.4598;
8.7000;0.4949;1.4598;
9.0000;0.4965;1.4624;
9.3000;0.4957;1.4624;
9.6000;0.4965;1.4649;
9.9000;0.4982;1.4598;
10.2000;0.4990;1.4520;
10.5000;0.4982;1.4598;
10.8000;0.4990;1.4598;
11.1000;0.4982;1.4624;
11.4000;0.4990;1.4598;
11.7000;0.5022;1.4624;
12.0000;0.4982;1.4416;
12.3000;0.4990;1.4364;
12.6000;0.5014;1.4364;
12.9000;0.4990;1.4338;
13.2000;0.5006;1.4442;
13.5000;0.5022;1.4468;
13.8000;0.5022;1.4520;
14.1000;0.5022;1.4494;
14.4000;0.5031;1.4494;
14.7000;0.5039;1.4416;
15.0000;0.5039;1.4468;
15.3000;0.5071;1.4520;
15.6000;0.5039;1.4468;
15.9000;0.5047;1.4494;
16.2000;0.5055;1.4468;
16.5000;0.5055;1.4442;
16.8000;0.5047;1.4546;
17.1000;0.5063;1.4675;
17.4000;0.5079;1.4675;
17.7000;0.5071;1.4675;
18.0000;0.5079;1.4753;
18.3000;0.5071;1.4831;
18.6000;0.5079;1.4831;
18.9000;0.5088;1.4701;
19.2000;0.4998;1.4312;
19.5000;0.5088;1.4468;
19.8000;0.5104;1.4546;
20.1000;0.5088;1.4494;
20.4000;0.5088;1.4468;
20.7000;0.5104;1.4468;
21.0000;0.5104;1.4468;
21.3000;0.5112;1.4468;
21.6000;0.5104;1.4442;
21.9000;0.5088;1.4338;
22.2000;0.5047;1.4209;
22.5000;0.5112;1.4416;
22.8000;0.5104;1.4390;
23.1000;0.5169;1.4416;
23.4000;0.5104;1.4183;
23.7000;0.5153;1.4338;
24.0000;0.5112;1.4157;
24.3000;0.5136;1.4235;
24.6000;0.5136;1.4183;
24.9000;0.5144;1.4157;
25.2000;0.5153;1.4079;
25.5000;0.5128;1.4105;
25.8000;0.5039;1.3872;
26.1000;0.5136;1.4053;
26.4000;0.5153;1.4079;
26.7000;0.5169;1.4157;
27.0000;0.5144;1.4079;
27.3000;0.5144;1.3975;
27.6000;0.5153;1.3923;
27.9000;0.5128;1.3898;
28.2000;0.5136;1.3923;
28.5000;0.5144;1.4001;
28.8000;0.5153;1.4131;
29.1000;0.5144;1.4053;
29.4000;0.5161;1.4183;
29.7000;0.5161;1.4157;
30.0000;0.5169;1.4105;
30.3000;0.5153;1.3949;
30.6000;0.5161;1.3975;
30.9000;0.5153;1.3975;
31.2000;0.5169;1.4053;
31.5000;0.5177;1.4001;
31.8000;0.5177;1.3898;
32.1000;0.5177;1.3872;
32.4000;0.5185;1.3949;
32.7000;0.5185;1.3923;
33.0000;0.5193;1.4053;
33.3000;0.5185;1.3923;
33.6000;0.5218;1.3923;
33.9000;0.5185;1.3742;
34.2000;0.5193;1.3612;
34.5000;0.5104;1.3379;
34.8000;0.5210;1.3638;
35.1000;0.5218;1.3846;
35.4000;0.5218;1.3794;
35.7000;0.5234;1.3872;
36.0000;0.5201;1.3846;
36.3000;0.5177;1.3742;
36.6000;0.5218;1.3768;
36.9000;0.5275;1.3872;
37.2000;0.5258;1.3768;
37.5000;0.5201;1.3483;
37.8000;0.5226;1.3560;
38.1000;0.5226;1.3483;
38.4000;0.5218;1.3431;
38.7000;0.5218;1.3457;
39.0000;0.5218;1.3483;
39.3000;0.5234;1.3457;
39.6000;0.5226;1.3483;
39.9000;0.5242;1.3431;
40.2000;0.5258;1.3457;
40.5000;0.5315;1.3638;
40.8000;0.5242;1.3431;
41.1000;0.5234;1.3379;
41.4000;0.5250;1.3431;
41.7000;0.5242;1.3405;
42.0000;0.5258;1.3431;
42.3000;0.5234;1.3353;
42.6000;0.5250;1.3353;
42.9000;0.5250;1.3457;
43.2000;0.5275;1.3560;
43.5000;0.5291;1.3664;
43.8000;0.5250;1.3483;
44.1000;0.5201;1.3301;
44.4000;0.5275;1.3431;
44.7000;0.5218;1.3223;
45.0000;0.5275;1.3301;
45.3000;0.5283;1.3275;
45.6000;0.5193;1.3068;
45.9000;0.5291;1.3301;
46.2000;0.5275;1.3249;
46.5000;0.5283;1.3327;
46.8000;0.5267;1.3223;
47.1000;0.5250;1.3172;
47.4000;0.5267;1.3301;
47.7000;0.5275;1.3327;
48.0000;0.5291;1.3301;
48.3000;0.5283;1.3249;
48.6000;0.5291;1.3172;
48.9000;0.5291;1.3146;
49.2000;0.5307;1.3275;
49.5000;0.5299;1.3223;
49.8000;0.5299;1.3197;
50.1000;0.5299;1.3172;
50.4000;0.5307;1.3197;
50.7000;0.5324;1.3146;
51.0000;0.5324;1.3094;
51.3000;0.5315;1.3042;
51.6000;0.5307;1.3146;
51.9000;0.5332;1.3146;
52.2000;0.5315;1.3094;
52.5000;0.5315;1.3120;
52.8000;0.5332;1.3042;
53.1000;0.5324;1.3068;
53.4000;0.5372;1.3120;
53.7000;0.5324;1.2990;
54.0000;0.5340;1.2990;
54.3000;0.5315;1.2964;
54.6000;0.5332;1.3016;
54.9000;0.5291;1.2860;
55.2000;0.5348;1.3016;
55.5000;0.5364;1.3068;
55.8000;0.5299;1.2938;
56.1000;0.5332;1.2990;
56.4000;0.5356;1.2964;
56.7000;0.5356;1.2938;
57.0000;0.5340;1.2834;
57.3000;0.5364;1.2912;
57.6000;0.5340;1.2860;
57.9000;0.5250;1.2653;
58.2000;0.5356;1.2990;
58.5000;0.5413;1.3223;
58.8000;0.5356;1.3094;
59.1000;0.5356;1.3016;
59.4000;0.5364;1.3094;
59.7000;0.5372;1.3146;
60.0000;0.5372;1.3042;
60.3000;0.5397;1.3094;
60.6000;0.5348;1.2964;
60.9000;0.5397;1.3094;
61.2000;0.5389;1.3120;
61.5000;0.5356;1.3016;
61.8000;0.5340;1.3016;
62.1000;0.5372;1.3016;
62.4000;0.5405;1.3094;
62.7000;0.5372;1.3016;
63.0000;0.5405;1.3042;
63.3000;0.5413;1.3042;
63.6000;0.5389;1.2990;
63.9000;0.5397;1.3016;
64.2000;0.5405;1.3016;
64.5000;0.5405;1.2990;
64.8000;0.5454;1.3197;
65.1000;0.5413;1.2990;
65.4000;0.5429;1.2964;
65.7000;0.5413;1.2886;
66.0000;0.5405;1.2912;
66.3000;0.5429;1.2938;
66.6000;0.5405;1.2809;
66.9000;0.5429;1.2809;
67.2000;0.5421;1.2705;
67.5000;0.5397;1.2653;
67.8000;0.5421;1.2731;
68.1000;0.5405;1.2731;
68.4000;0.5429;1.2834;
68.7000;0.5429;1.2860;
69.0000;0.5438;1.2783;
69.3000;0.5389;1.2627;
69.6000;0.5421;1.2731;
69.9000;0.5454;1.2783;
70.2000;0.5438;1.2679;
70.5000;0.5429;1.2731;
70.8000;0.5438;1.2757;
71.1000;0.5438;1.2757;
71.4000;0.5446;1.2860;
71.7000;0.5446;1.2886;
72.0000;0.5438;1.2834;
72.3000;0.5470;1.2809;
72.6000;0.5446;1.2731;
72.9000;0.5413;1.2575;
73.2000;0.5446;1.2705;
73.5000;0.5470;1.2679;
73.8000;0.5511;1.2809;
74.1000;0.5462;1.2679;
74.4000;0.5454;1.2627;
74.7000;0.5454;1.2731;
75.0000;0.5478;1.2679;
75.3000;0.5454;1.2601;
75.6000;0.5454;1.2653;
75.9000;0.5470;1.2679;
76.2000;0.5470;1.2601;
76.5000;0.5454;1.2627;
76.8000;0.5462;1.2653;
77.1000;0.5535;1.2757;
77.4000;0.5462;1.2627;
77.7000;0.5462;1.2653;
78.0000;0.5454;1.2679;
78.3000;0.5478;1.2653;
78.6000;0.5495;1.2731;
78.9000;0.5495;1.2731;
79.2000;0.5486;1.2679;
79.5000;0.5462;1.2731;
79.8000;0.5478;1.2886;
80.1000;0.5535;1.3016;
80.4000;0.5495;1.2912;
80.7000;0.5486;1.2938;
81.0000;0.5495;1.2990;
81.3000;0.5495;1.2886;
81.6000;0.5495;1.2809;
81.9000;0.5535;1.2938;
82.2000;0.5495;1.2860;
82.5000;0.5503;1.2912;
82.8000;0.5486;1.2860;
83.1000;0.5486;1.2809;
83.4000;0.5495;1.2757;
83.7000;0.5503;1.2757;
84.0000;0.5486;1.2705;
84.3000;0.5486;1.2731;
84.6000;0.5503;1.2757;
84.9000;0.5486;1.2757;
85.2000;0.5503;1.2834;
85.5000;0.5519;1.2860;
85.8000;0.5495;1.2860;
86.1000;0.5503;1.2834;
86.4000;0.5511;1.2912;
86.7000;0.5503;1.2783;
87.0000;0.5511;1.2757;
87.3000;0.5495;1.2809;
87.6000;0.5511;1.2809;
87.9000;0.5503;1.2834;
88.2000;0.5503;1.2809;
88.5000;0.5495;1.2834;
88.8000;0.5438;1.2679;
89.1000;0.5495;1.2886;
89.4000;0.5511;1.2912;
89.7000;0.5495;1.2834;
90.0000;0.5543;1.2886;
90.3000;0.5560;1.2912;
90.6000;0.5511;1.2783;
90.9000;0.5495;1.2809;
91.2000;0.5519;1.2809;
91.5000;0.5527;1.2783;
91.8000;0.5511;1.2783;
92.1000;0.5527;1.2809;
92.4000;0.5503;1.2679;
92.7000;0.5519;1.2705;
93.0000;0.5617;1.2990;
93.3000;0.5519;1.2679;
93.6000;0.5438;1.2446;
93.9000;0.5527;1.2705;
94.2000;0.5527;1.2627;
94.5000;0.5527;1.2679;
94.8000;0.5519;1.2653;
95.1000;0.5503;1.2627;
95.4000;0.5584;1.2809;
95.7000;0.5535;1.2731;
96.0000;0.5535;1.2809;
96.3000;0.5535;1.2834;
96.6000;0.5535;1.2783;
96.9000;0.5495;1.2653;
97.2000;0.5527;1.2653;
97.5000;0.5535;1.2627;
97.8000;0.5535;1.2653;
98.1000;0.5527;1.2705;
98.4000;0.5527;1.2705;
98.7000;0.5527;1.2731;
99.0000;0.5511;1.2653;
99.3000;0.5543;1.2809;
99.6000;0.5535;1.2757;
99.9000;0.5551;1.2705;
100.2000;0.5551;1.2705;
100.5000;0.5535;1.2731;
100.8000;0.5527;1.2834;
101.1000;0.5551;1.2886;
101.4000;0.5560;1.2886;
101.7000;0.5543;1.2783;
102.0000;0.5592;1.2834;
102.3000;0.5551;1.2653;
102.6000;0.5576;1.2679;
102.9000;0.5535;1.2601;
103.2000;0.5535;1.2523;
103.5000;0.5551;1.2627;
103.8000;0.5527;1.2601;
104.1000;0.5551;1.2705;
104.4000;0.5543;1.2679;
104.7000;0.5551;1.2653;
105.0000;0.5535;1.2575;
105.3000;0.5551;1.2653;
105.6000;0.5568;1.2679;
105.9000;0.5551;1.2523;
106.2000;0.5551;1.2523;
106.5000;0.5551;1.2497;
106.8000;0.5560;1.2471;
107.1000;0.5543;1.2394;
107.4000;0.5527;1.2316;
107.7000;0.5551;1.2420;
108.0000;0.5543;1.2446;
108.3000;0.5527;1.2446;
108.6000;0.5511;1.2368;
108.9000;0.5560;1.2549;
109.2000;0.5535;1.2497;
109.5000;0.5535;1.2523;
109.8000;0.5551;1.2523;
110.1000;0.5543;1.2497;
110.4000;0.5560;1.2497;
110.7000;0.5568;1.2601;
111.0000;0.5551;1.2549;
111.3000;0.5543;1.2446;
111.6000;0.5551;1.2446;
111.9000;0.5560;1.2471;
112.2000;0.5551;1.2497;
112.5000;0.5551;1.2446;
112.8000;0.5592;1.2523;
113.1000;0.5543;1.2342;
113.4000;0.5551;1.2316;
113.7000;0.5519;1.2368;
114.0000;0.5535;1.2471;
114.3000;0.5551;1.2523;
114.6000;0.5560;1.2523;
114.9000;0.5527;1.2446;
115.2000;0.5535;1.2446;
115.5000;0.5560;1.2420;
115.8000;0.5519;1.2342;
116.1000;0.5527;1.2394;
116.4000;0.5568;1.2601;
116.7000;0.5568;1.2575;
117.0000;0.5551;1.2549;
117.3000;0.5551;1.2653;
117.6000;0.5543;1.2627;
117.9000;0.5608;1.2705;
118.2000;0.5486;1.2446;
118.5000;0.5560;1.2575;
118.8000;0.5560;1.2549;
119.1000;0.5543;1.2575;
119.4000;0.5560;1.2601;
119.7000;0.5527;1.2497;
120.0000;0.5560;1.2627;
120.3000;0.5535;1.2627;
120.6000;0.5568;1.2627;
120.9000;0.5568;1.2523;
121.2000;0.5568;1.2549;
121.5000;0.5568;1.2446;
121.8000;0.5584;1.2549;
122.1000;0.5511;1.2316;
122.4000;0.5560;1.2523;
122.7000;0.5560;1.2497;
123.0000;0.5576;1.2420;
123.3000;0.5568;1.2368;
123.6000;0.5560;1.2264;
123.9000;0.5560;1.2316;
124.2000;0.5560;1.2264;
124.5000;0.5535;1.2316;
124.8000;0.5543;1.2394;
125.1000;0.5576;1.2394;
125.4000;0.5568;1.2342;
125.7000;0.5568;1.2290;
126.0000;0.5584;1.2238;
126.3000;0.5551;1.2264;
126.6000;0.5568;1.2238;
126.9000;0.5568;1.2316;
127.2000;0.5551;1.2368;
127.5000;0.5551;1.2523;
127.8000;0.5535;1.2471;
128.1000;0.5543;1.2420;
128.4000;0.5560;1.2471;
128.7000;0.5576;1.2575;
129.0000;0.5560;1.2471;
129.3000;0.5568;1.2497;
129.6000;0.5576;1.2471;
129.9000;0.5543;1.2394;
130.2000;0.5535;1.2368;
130.5000;0.5568;1.2446;
130.8000;0.5560;1.2497;
131.1000;0.5551;1.2446;
131.4000;0.5560;1.2497;
131.7000;0.5568;1.2446;
132.0000;0.5560;1.2368;
132.3000;0.5560;1.2446;
132.6000;0.5560;1.2471;
132.9000;0.5560;1.2523;
133.2000;0.5568;1.2497;
133.5000;0.5560;1.2549;
133.8000;0.5560;1.2575;
134.1000;0.5576;1.2601;
134.4000;0.5568;1.2575;
134.7000;0.5551;1.2497;
135.0000;0.5535;1.2497;
135.3000;0.5543;1.2523;
135.6000;0.5560;1.2601;
135.9000;0.5576;1.2679;
136.2000;0.5576;1.2653;
136.5000;0.5568;1.2627;
136.8000;0.5519;1.2575;
137.1000;0.5560;1.2679;
137.4000;0.5568;1.2731;
137.7000;0.5568;1.2601;
138.0000;0.5608;1.2627;
138.3000;0.5576;1.2523;
138.6000;0.5551;1.2394;
138.9000;0.5584;1.2523;
139.2000;0.5568;1.2420;
139.5000;0.5568;1.2497;
139.8000;0.5584;1.2471;
140.1000;0.5560;1.2420;
140.4000;0.5551;1.2394;
140.7000;0.5560;1.2420;
141.0000;0.5617;1.2601;
141.3000;0.5576;1.2446;
141.6000;0.5584;1.2575;
141.9000;0.5568;1.2471;
142.2000;0.5592;1.2549;
142.5000;0.5568;1.2471;
142.8000;0.5560;1.2394;
143.1000;0.5576;1.2471;
143.4000;0.5568;1.2446;
143.7000;0.5560;1.2368;
144.0000;0.5560;1.2316;
144.3000;0.5560;1.2342;
144.6000;0.5576;1.2471;
144.9000;0.5568;1.2368;
145.2000;0.5568;1.2523;
145.5000;0.5560;1.2575;
145.8000;0.5568;1.2549;
146.1000;0.5584;1.2575;
146.4000;0.5560;1.2471;
146.7000;0.5576;1.2471;
147.0000;0.5584;1.2523;
147.3000;0.5592;1.2575;
147.6000;0.5592;1.2601;
147.9000;0.5576;1.2601;
148.2000;0.5568;1.2497;
148.5000;0.5568;1.2497;
148.8000;0.5584;1.2523;
149.1000;0.5568;1.2497;
149.4000;0.5560;1.2446;
149.7000;0.5633;1.2601;
150.0000;0.5665;1.2757;
150.3000;0.5560;1.2471;
150.6000;0.5535;1.2394;
150.9000;0.5576;1.2523;
151.2000;0.5584;1.2523;
151.5000;0.5576;1.2497;
151.8000;0.5576;1.2471;
152.1000;0.5584;1.2601;
152.4000;0.5576;1.2601;
152.7000;0.5576;1.2679;
153.0000;0.5592;1.2705;
153.3000;0.5576;1.2679;
153.6000;0.5617;1.2783;
153.9000;0.5576;1.2627;
154.2000;0.5568;1.2653;
154.5000;0.5560;1.2627;
154.8000;0.5592;1.2601;
155.1000;0.5584;1.2497;
155.4000;0.5584;1.2523;
155.7000;0.5576;1.2549;
156.0000;0.5584;1.2446;
156.3000;0.5592;1.2471;
156.6000;0.5560;1.2420;
156.9000;0.5551;1.2446;
157.2000;0.5568;1.2523;
157.5000;0.5568;1.2549;
157.8000;0.5568;1.2446;
158.1000;0.5568;1.2394;
158.4000;0.5560;1.2446;
158.7000;0.5576;1.2523;
159.0000;0.5674;1.2834;
159.3000;0.5568;1.2575;
159.6000;0.5568;1.2497;
159.9000;0.5551;1.2523;
160.2000;0.5584;1.2523;
160.5000;0.5592;1.2549;
160.8000;0.5551;1.2523;
161.1000;0.5495;1.2342;
161.4000;0.5560;1.2575;
161.7000;0.5478;1.2238;
162.0000;0.5568;1.2575;
162.3000;0.5568;1.2601;
162.6000;0.5560;1.2601;
162.9000;0.5568;1.2471;
163.2000;0.5576;1.2497;
163.5000;0.5560;1.2420;
163.8000;0.5576;1.2420;
164.1000;0.5551;1.2316;
164.4000;0.5576;1.2420;
164.7000;0.5560;1.2394;
165.0000;0.5560;1.2368;
165.3000;0.5560;1.2368;
165.6000;0.5568;1.2316;
165.9000;0.5543;1.2316;
166.2000;0.5568;1.2420;
166.5000;0.5560;1.2446;
166.8000;0.5551;1.2446;
167.1000;0.5551;1.2446;
167.4000;0.5568;1.2497;
167.7000;0.5551;1.2575;
168.0000;0.5560;1.2679;
168.3000;0.5551;1.2575;
168.6000;0.5543;1.2575;
168.9000;0.5608;1.2731;
169.2000;0.5568;1.2523;
169.5000;0.5560;1.2497;
169.8000;0.5568;1.2523;
170.1000;0.5560;1.2523;
170.4000;0.5568;1.2471;
170.7000;0.5568;1.2523;
171.0000;0.5576;1.2549;
171.3000;0.5568;1.2497;
171.6000;0.5584;1.2523;
171.9000;0.5560;1.2446;
172.2000;0.5560;1.2497;
172.5000;0.5568;1.2471;
172.8000;0.5551;1.2420;
173.1000;0.5551;1.2471;
173.4000;0.5560;1.2446;
173.7000;0.5568;1.2446;
174.0000;0.5560;1.2446;
174.3000;0.5543;1.2368;
174.6000;0.5495;1.2238;
174.9000;0.5551;1.2342;
175.2000;0.5576;1.2368;
175.5000;0.5568;1.2446;
175.8000;0.5560;1.2446;
176.1000;0.5560;1.2420;
176.4000;0.5543;1.2394;
176.7000;0.5568;1.2497;
177.0000;0.5551;1.2420;
177.3000;0.5568;1.2446;
177.6000;0.5551;1.2497;
177.9000;0.5568;1.2601;
178.2000;0.5576;1.2601;
178.5000;0.5560;1.2549;
178.8000;0.5568;1.2523;
179.1000;0.5560;1.2601;
179.4000;0.5551;1.2653;
179.7000;0.5543;1.2601;
180.0000;0.5576;1.2653;
180.3000;0.5397;1.2134;
180.6000;0.5560;1.2471;
180.9000;0.5527;1.2420;
181.2000;0.5568;1.2575;
181.5000;0.5592;1.2601;
181.8000;0.5576;1.2549;
182.1000;0.5551;1.2420;
182.4000;0.5560;1.2394;
182.7000;0.5568;1.2368;
183.0000;0.5568;1.2394;
183.3000;0.5551;1.2394;
183.6000;0.5551;1.2420;
183.9000;0.5543;1.2368;
184.2000;0.5551;1.2420;
184.5000;0.5560;1.2446;
184.8000;0.5560;1.2549;
185.1000;0.5551;1.2601;
185.4000;0.5543;1.2549;
185.7000;0.5551;1.2549;
186.0000;0.5543;1.2523;
186.3000;0.5560;1.2601;
186.6000;0.5576;1.2549;
186.9000;0.5543;1.2316;
187.2000;0.5617;1.2523;
187.5000;0.5568;1.2420;
187.8000;0.5560;1.2368;
188.1000;0.5568;1.2368;
188.4000;0.5551;1.2316;
188.7000;0.5649;1.2601;
189.0000;0.5560;1.2342;
189.3000;0.5584;1.2471;
189.6000;0.5543;1.2368;
189.9000;0.5543;1.2342;
190.2000;0.5503;1.2316;
190.5000;0.5568;1.2497;
190.8000;0.5495;1.2420;
191.1000;0.5551;1.2575;
191.4000;0.5560;1.2575;
191.7000;0.5551;1.2471;
192.0000;0.5543;1.2471;
192.3000;0.5543;1.2523;
192.6000;0.5543;1.2575;
192.9000;0.5560;1.2575;
193.2000;0.5592;1.2575;
193.5000;0.5535;1.2394;
193.8000;0.5543;1.2394;
194.1000;0.5551;1.2549;
194.4000;0.5543;1.2471;
194.7000;0.5543;1.2497;
195.0000;0.5560;1.2471;
195.3000;0.5551;1.2523;
195.6000;0.5568;1.2601;
195.9000;0.5543;1.2446;
196.2000;0.5568;1.2446;
196.5000;0.5551;1.2446;
196.8000;0.5568;1.2420;
197.1000;0.5560;1.2394;
197.4000;0.5543;1.2394;
197.7000;0.5560;1.2420;
198.0000;0.5543;1.2420;
198.3000;0.5560;1.2420;
198.6000;0.5560;1.2394;
198.9000;0.5543;1.2420;
199.2000;0.5543;1.2420;
199.5000;0.5551;1.2446;
199.8000;0.5551;1.2420;
200.1000;0.5543;1.2368;
200.4000;0.5551;1.2420;
200.7000;0.5551;1.2446;
201.0000;0.5551;1.2420;
201.3000;0.5543;1.2420;
201.6000;0.5551;1.2446;
201.9000;0.5535;1.2342;
202.2000;0.5551;1.2342;
202.5000;0.5568;1.2394;
202.8000;0.5584;1.2446;
203.1000;0.5527;1.2316;
203.4000;0.5568;1.2471;
203.7000;0.5551;1.2420;
204.0000;0.5543;1.2446;
204.3000;0.5503;1.2316;
204.6000;0.5535;1.2523;
204.9000;0.5543;1.2601;
205.2000;0.5535;1.2601;
205.5000;0.5576;1.2679;
205.8000;0.5551;1.2471;
206.1000;0.5551;1.2497;
206.4000;0.5551;1.2497;
206.7000;0.5560;1.2549;
207.0000;0.5462;1.2316;
207.3000;0.5592;1.2731;
207.6000;0.5478;1.2420;
207.9000;0.5543;1.2601;
208.2000;0.5560;1.2601;
208.5000;0.5535;1.2471;
208.8000;0.5535;1.2471;
209.1000;0.5543;1.2471;
209.4000;0.5551;1.2420;
209.7000;0.5535;1.2342;
210.0000;0.5551;1.2342;
210.3000;0.5503;1.2238;
210.6000;0.5462;1.2109;
210.9000;0.5560;1.2316;
211.2000;0.5543;1.2238;
211.5000;0.5543;1.2238;
211.8000;0.5551;1.2342;
212.1000;0.5551;1.2368;
212.4000;0.5551;1.2394;
212.7000;0.5560;1.2497;
213.0000;0.5535;1.2420;
213.3000;0.5551;1.2523;
213.6000;0.5535;1.2523;
213.9000;0.5454;1.2316;
214.2000;0.5535;1.2497;
214.5000;0.5543;1.2497;
214.8000;0.5551;1.2549;
215.1000;0.5535;1.2446;
215.4000;0.5535;1.2497;
215.7000;0.5535;1.2420;
216.0000;0.5543;1.2368;
216.3000;0.5560;1.2316;
216.6000;0.5551;1.2264;
216.9000;0.5560;1.2290;
217.2000;0.5551;1.2290;
217.5000;0.5551;1.2316;
217.8000;0.5543;1.2316;
218.1000;0.5551;1.2342;
218.4000;0.5535;1.2394;
218.7000;0.5535;1.2342;
219.0000;0.5560;1.2497;
219.3000;0.5535;1.2497;
219.6000;0.5535;1.2497;
219.9000;0.5535;1.2471;
220.2000;0.5592;1.2653;
220.5000;0.5511;1.2549;
220.8000;0.5519;1.2575;
221.1000;0.5543;1.2627;
221.4000;0.5560;1.2679;
221.7000;0.5568;1.2731;
222.0000;0.5535;1.2627;
222.3000;0.5551;1.2731;
222.6000;0.5535;1.2679;
222.9000;0.5535;1.2601;
223.2000;0.5535;1.2575;
223.5000;0.5527;1.2627;
223.8000;0.5511;1.2575;
224.1000;0.5519;1.2575;
224.4000;0.5535;1.2575;
224.7000;0.5551;1.2575;
225.0000;0.5535;1.2601;
225.3000;0.5535;1.2549;
225.6000;0.5527;1.2471;
225.9000;0.5527;1.2497;
226.2000;0.5543;1.2575;
226.5000;0.5535;1.2497;
226.8000;0.5617;1.2601;
227.1000;0.5560;1.2497;
227.4000;0.5560;1.2420;
227.7000;0.5551;1.2394;
228.0000;0.5470;1.2212;
228.3000;0.5568;1.2446;
228.6000;0.5535;1.2316;
228.9000;0.5486;1.2212;
229.2000;0.5576;1.2446;
229.5000;0.5560;1.2368;
229.8000;0.5543;1.2368;
230.1000;0.5527;1.2264;
230.4000;0.5551;1.2368;
230.7000;0.5543;1.2342;
231.0000;0.5543;1.2394;
231.3000;0.5543;1.2446;
231.6000;0.5633;1.2731;
231.9000;0.5535;1.2471;
232.2000;0.5568;1.2497;
232.5000;0.5527;1.2394;
232.8000;0.5584;1.2394;
233.1000;0.5543;1.2368;
233.4000;0.5551;1.2420;
233.7000;0.5446;1.2212;
234.0000;0.5551;1.2549;
234.3000;0.5551;1.2601;
234.6000;0.5543;1.2575;
234.9000;0.5551;1.2601;
235.2000;0.5641;1.2783;
235.5000;0.5543;1.2575;
235.8000;0.5551;1.2575;
236.1000;0.5584;1.2601;
236.4000;0.5535;1.2342;
236.7000;0.5527;1.2368;
237.0000;0.5576;1.2575;
237.3000;0.5551;1.2497;
237.6000;0.5568;1.2497;
237.9000;0.5519;1.2394;
238.2000;0.5560;1.2420;
238.5000;0.5519;1.2497;
238.8000;0.5551;1.2653;
239.1000;0.5527;1.2523;
239.4000;0.5519;1.2471;
239.7000;0.5511;1.2471;
240.0000;0.5511;1.2523;
240.3000;0.5511;1.2575;
240.6000;0.5527;1.2575;
240.9000;0.5543;1.2653;
241.2000;0.5543;1.2601;
241.5000;0.5511;1.2549;
241.8000;0.5551;1.2653;
242.1000;0.5551;1.2679;
242.4000;0.5535;1.2679;
242.7000;0.5478;1.2575;
243.0000;0.5535;1.2757;
243.3000;0.5519;1.2705;
243.6000;0.5543;1.2653;
243.9000;0.5551;1.2627;
244.2000;0.5527;1.2653;
244.5000;0.5560;1.2731;
244.8000;0.5535;1.2627;
245.1000;0.5535;1.2653;
245.4000;0.5551;1.2601;
245.7000;0.5511;1.2601;
246.0000;0.5503;1.2523;
246.3000;0.5551;1.2653;
246.6000;0.5519;1.2523;
246.9000;0.5527;1.2549;
247.2000;0.5551;1.2549;
247.5000;0.5535;1.2575;
247.8000;0.5543;1.2575;
248.1000;0.5617;1.2757;
248.4000;0.5543;1.2575;
248.7000;0.5527;1.2549;
249.0000;0.5535;1.2653;
249.3000;0.5551;1.2601;
249.6000;0.5535;1.2549;
249.9000;0.5527;1.2446;
250.2000;0.5625;1.2653;
250.5000;0.5470;1.2212;
250.8000;0.5519;1.2420;
251.1000;0.5503;1.2420;
251.4000;0.5551;1.2420;
251.7000;0.5535;1.2394;
252.0000;0.5511;1.2394;
252.3000;0.5511;1.2394;
252.6000;0.5527;1.2342;
252.9000;0.5535;1.2368;
253.2000;0.5495;1.2342;
253.5000;0.5511;1.2290;
253.8000;0.5519;1.2264;
254.1000;0.5511;1.2394;
254.4000;0.5519;1.2394;
254.7000;0.5511;1.2471;
255.0000;0.5535;1.2497;
255.3000;0.5535;1.2523;
255.6000;0.5527;1.2653;
255.9000;0.5519;1.2653;
256.2000;0.5495;1.2601;
256.5000;0.5519;1.2705;
256.8000;0.5543;1.2731;
257.1000;0.5535;1.2679;
257.4000;0.5519;1.2705;
257.7000;0.5527;1.2601;
258.0000;0.5535;1.2627;
258.3000;0.5551;1.2627;
258.6000;0.5519;1.2471;
258.9000;0.5503;1.2549;
259.2000;0.5535;1.2627;
259.5000;0.5519;1.2575;
259.8000;0.5495;1.2601;
260.1000;0.5535;1.2705;
260.4000;0.5527;1.2731;
260.7000;0.5551;1.2757;
261.0000;0.5486;1.2575;
261.3000;0.5535;1.2601;
261.6000;0.5527;1.2549;
261.9000;0.5527;1.2471;
262.2000;0.5511;1.2446;
262.5000;0.5560;1.2575;
262.8000;0.5527;1.2523;
263.1000;0.5543;1.2471;
263.4000;0.5527;1.2342;
263.7000;0.5519;1.2342;
264.0000;0.5519;1.2368;
264.3000;0.5527;1.2446;
264.6000;0.5543;1.2471;
264.9000;0.5511;1.2446;
265.2000;0.5519;1.2601;
265.5000;0.5568;1.2783;
265.8000;0.5535;1.2575;
266.1000;0.5470;1.2342;
266.4000;0.5519;1.2497;
266.7000;0.5535;1.2446;
267.0000;0.5535;1.2446;
267.3000;0.5527;1.2446;
267.6000;0.5584;1.2627;
267.9000;0.5519;1.2575;
268.2000;0.5527;1.2549;
268.5000;0.5592;1.2627;
268.8000;0.5519;1.2420;
269.1000;0.5535;1.2342;
269.4000;0.5519;1.2368;
269.7000;0.5535;1.2446;
270.0000;0.5560;1.2549;
270.3000;0.5470;1.2290;
270.6000;0.5535;1.2575;
270.9000;0.5527;1.2601;
271.2000;0.5527;1.2627;
271.5000;0.5511;1.2627;
271.8000;0.5527;1.2653;
272.1000;0.5511;1.2575;
272.4000;0.5511;1.2523;
272.7000;0.5511;1.2549;
273.0000;0.5527;1.2601;
273.3000;0.5535;1.2549;
273.6000;0.5511;1.2497;
273.9000;0.5560;1.2627;
274.2000;0.5511;1.2523;
274.5000;0.5462;1.2394;
274.8000;0.5511;1.2446;
275.1000;0.5478;1.2368;
275.4000;0.5560;1.2627;
275.7000;0.5511;1.2497;
276.0000;0.5519;1.2575;
276.3000;0.5519;1.2523;
276.6000;0.5519;1.2497;
276.9000;0.5478;1.2420;
277.2000;0.5527;1.2601;
277.5000;0.5511;1.2497;
277.8000;0.5511;1.2523;
278.1000;0.5519;1.2627;
278.4000;0.5543;1.2601;
278.7000;0.5511;1.2575;
279.0000;0.5503;1.2575;
279.3000;0.5543;1.2653;
279.6000;0.5503;1.2549;
279.9000;0.5470;1.2523;
280.2000;0.5470;1.2549;
280.5000;0.5503;1.2575;
280.8000;0.5535;1.2627;
281.1000;0.5519;1.2549;
281.4000;0.5527;1.2601;
281.7000;0.5527;1.2653;
282.0000;0.5527;1.2731;
282.3000;0.5519;1.2601;
282.6000;0.5503;1.2446;
282.9000;0.5503;1.2471;
283.2000;0.5446;1.2420;
283.5000;0.5511;1.2575;
283.8000;0.5486;1.2497;
284.1000;0.5495;1.2368;
284.4000;0.5503;1.2420;
284.7000;0.5413;1.2160;
285.0000;0.5527;1.2523;
285.3000;0.5495;1.2601;
285.6000;0.5503;1.2601;
285.9000;0.5503;1.2549;
286.2000;0.5503;1.2549;
286.5000;0.5511;1.2627;
286.8000;0.5511;1.2575;
287.1000;0.5519;1.2497;
287.4000;0.5519;1.2394;
287.7000;0.5527;1.2446;
288.0000;0.5527;1.2601;
288.3000;0.5519;1.2653;
288.6000;0.5543;1.2705;
288.9000;0.5511;1.2705;
289.2000;0.5429;1.2471;
289.5000;0.5527;1.2705;
289.8000;0.5535;1.2653;
290.1000;0.5519;1.2575;
290.4000;0.5503;1.2575;
290.7000;0.5511;1.2523;
291.0000;0.5519;1.2601;
291.3000;0.5535;1.2653;
291.6000;0.5511;1.2705;
291.9000;0.5600;1.2990;
292.2000;0.5535;1.2860;
292.5000;0.5511;1.2886;
292.8000;0.5519;1.2809;
293.1000;0.5511;1.2783;
293.4000;0.5511;1.2886;
293.7000;0.5503;1.2834;
294.0000;0.5503;1.2834;
294.3000;0.5495;1.2834;
294.6000;0.5495;1.2783;
294.9000;0.5503;1.2834;
295.2000;0.5503;1.2834;
295.5000;0.5503;1.2705;
295.8000;0.5495;1.2731;
296.1000;0.5519;1.2757;
296.4000;0.5486;1.2679;
296.7000;0.5495;1.2757;
297.0000;0.5535;1.2809;
297.3000;0.5503;1.2731;
297.6000;0.5511;1.2705;
297.9000;0.5470;1.2523;
298.2000;0.5478;1.2627;
298.5000;0.5535;1.2731;
298.8000;0.5495;1.2575;
299.1000;0.5486;1.2601;
299.4000;0.5511;1.2653;
299.7000;0.5527;1.2653;
300.0000;0.5503;1.2627;
300.3000;0.5495;1.2653;
300.6000;0.5486;1.2627;
300.9000;0.5503;1.2523;
301.2000;0.5495;1.2575;
301.5000;0.5535;1.2679;
301.8000;0.5511;1.2653;
302.1000;0.5503;1.2627;
302.4000;0.5503;1.2679;
302.7000;0.5495;1.2601;
303.0000;0.5503;1.2601;
303.3000;0.5495;1.2627;
303.6000;0.5478;1.2523;
303.9000;0.5511;1.2575;
304.2000;0.5462;1.2368;
304.5000;0.5503;1.2523;
304.8000;0.5519;1.2549;
305.1000;0.5519;1.2471;
305.4000;0.5511;1.2523;
305.7000;0.5551;1.2627;
306.0000;0.5503;1.2627;
306.3000;0.5429;1.2471;
306.6000;0.5519;1.2705;
306.9000;0.5413;1.2497;
307.2000;0.5486;1.2653;
307.5000;0.5519;1.2757;
307.8000;0.5503;1.2705;
308.1000;0.5486;1.2575;
308.4000;0.5560;1.2731;
308.7000;0.5511;1.2653;
309.0000;0.5511;1.2679;
309.3000;0.5478;1.2601;
309.6000;0.5503;1.2705;
309.9000;0.5511;1.2653;
310.2000;0.5503;1.2601;
310.5000;0.5503;1.2627;
310.8000;0.5478;1.2679;
311.1000;0.5495;1.2783;
311.4000;0.5503;1.2757;
311.7000;0.5495;1.2731;
312.0000;0.5519;1.2757;
312.3000;0.5503;1.2705;
312.6000;0.5511;1.2834;
312.9000;0.5495;1.2809;
313.2000;0.5495;1.2757;
313.5000;0.5495;1.2834;
313.8000;0.5503;1.2834;
314.1000;0.5527;1.2860;
314.4000;0.5503;1.2757;
314.7000;0.5511;1.2834;
315.0000;0.5503;1.2809;
315.3000;0.5495;1.2731;
315.6000;0.5495;1.2731;
315.9000;0.5495;1.2783;
316.2000;0.5486;1.2757;
316.5000;0.5527;1.2834;
316.8000;0.5486;1.2731;
317.1000;0.5495;1.2731;
317.4000;0.5495;1.2757;
317.7000;0.5503;1.2783;
318.0000;0.5495;1.2834;
318.3000;0.5486;1.2783;
318.6000;0.5503;1.2783;
318.9000;0.5503;1.2834;
319.2000;0.5503;1.2834;
319.5000;0.5495;1.2757;
319.8000;0.5429;1.2549;
320.1000;0.5495;1.2783;
320.4000;0.5421;1.2601;
320.7000;0.5486;1.2783;
321.0000;0.5486;1.2757;
321.3000;0.5486;1.2834;
321.6000;0.5495;1.2834;
321.9000;0.5495;1.2886;
322.2000;0.5503;1.2886;
322.5000;0.5551;1.2860;
322.8000;0.5495;1.2783;
323.1000;0.5503;1.2705;
323.4000;0.5503;1.2731;
323.7000;0.5486;1.2705;
324.0000;0.5503;1.2783;
324.3000;0.5429;1.2549;
324.6000;0.5503;1.2757;
324.9000;0.5478;1.2679;
325.2000;0.5486;1.2834;
325.5000;0.5470;1.2783;
325.8000;0.5486;1.2757;
326.1000;0.5486;1.2705;
326.4000;0.5511;1.2809;
326.7000;0.5503;1.2731;
327.0000;0.5478;1.2679;
327.3000;0.5527;1.2705;
327.6000;0.5527;1.2601;
327.9000;0.5511;1.2679;
328.2000;0.5543;1.2757;
328.5000;0.5511;1.2601;
328.8000;0.5495;1.2471;
329.1000;0.5511;1.2471;
329.4000;0.5495;1.2575;
329.7000;0.5503;1.2627;
330.0000;0.5503;1.2653;
330.3000;0.5503;1.2705;
330.6000;0.5503;1.2705;
330.9000;0.5486;1.2627;
331.2000;0.5486;1.2705;
331.5000;0.5519;1.2731;
331.8000;0.5495;1.2705;
332.1000;0.5486;1.2731;
332.4000;0.5486;1.2809;
332.7000;0.5478;1.2783;
333.0000;0.5486;1.2783;
333.3000;0.5503;1.2783;
333.6000;0.5478;1.2757;
333.9000;0.5503;1.2860;
334.2000;0.5511;1.2834;
334.5000;0.5478;1.2809;
334.8000;0.5495;1.2834;
335.1000;0.5503;1.2886;
335.4000;0.5486;1.2834;
335.7000;0.5478;1.2809;
336.0000;0.5503;1.2886;
336.3000;0.5495;1.2938;
336.6000;0.5527;1.2990;
336.9000;0.5495;1.2834;
337.2000;0.5486;1.2783;
337.5000;0.5495;1.2809;
337.8000;0.5470;1.2834;
338.1000;0.5495;1.2834;
338.4000;0.5495;1.2757;
338.7000;0.5486;1.2731;
339.0000;0.5495;1.2731;
339.3000;0.5486;1.2705;
339.6000;0.5503;1.2679;
339.9000;0.5486;1.2653;
340.2000;0.5495;1.2705;
340.5000;0.5503;1.2653;
340.8000;0.5495;1.2731;
341.1000;0.5495;1.2653;
341.4000;0.5486;1.2575;
341.7000;0.5503;1.2523;
342.0000;0.5503;1.2601;
342.3000;0.5535;1.2601;
342.6000;0.5495;1.2497;
342.9000;0.5495;1.2471;
343.2000;0.5495;1.2420;
343.5000;0.5495;1.2394;
343.8000;0.5551;1.2497;
344.1000;0.5503;1.2368;
344.4000;0.5495;1.2394;
344.7000;0.5503;1.2394;
345.0000;0.5486;1.2316;
345.3000;0.5478;1.2420;
345.6000;0.5486;1.2523;
345.9000;0.5478;1.2523;
346.2000;0.5503;1.2497;
346.5000;0.5462;1.2368;
346.8000;0.5503;1.2523;
347.1000;0.5495;1.2601;
347.4000;0.5486;1.2601;
347.7000;0.5495;1.2549;
348.0000;0.5478;1.2549;
348.3000;0.5495;1.2601;
348.6000;0.5486;1.2679;
348.9000;0.5478;1.2653;
349.2000;0.5470;1.2471;
349.5000;0.5511;1.2497;
349.8000;0.5511;1.2601;
350.1000;0.5486;1.2523;
350.4000;0.5495;1.2497;
350.7000;0.5495;1.2549;
351.0000;0.5486;1.2575;
351.3000;0.5478;1.2549;
351.6000;0.5495;1.2497;
351.9000;0.5486;1.2627;
352.2000;0.5486;1.2653;
352.5000;0.5486;1.2653;
352.8000;0.5495;1.2679;
353.1000;0.5495;1.2705;
353.4000;0.5495;1.2679;
353.7000;0.5495;1.2757;
354.0000;0.5511;1.2731;
354.3000;0.5405;1.2523;
354.6000;0.5495;1.2679;
354.9000;0.5470;1.2601;
355.2000;0.5478;1.2549;
355.5000;0.5478;1.2549;
355.8000;0.5495;1.2627;
356.1000;0.5462;1.2575;
356.4000;0.5478;1.2627;
356.7000;0.5486;1.2627;
357.0000;0.5495;1.2653;
357.3000;0.5495;1.2705;
357.6000;0.5486;1.2783;
357.9000;0.5446;1.2601;
358.2000;0.5486;1.2705;
358.5000;0.5478;1.2653;
358.8000;0.5486;1.2549;
359.1000;0.5478;1.2705;
359.4000;0.5495;1.2705;
359.7000;0.5486;1.2679;
360.0000;0.5495;1.2575;
360.3000;0.5446;1.2394;
360.6000;0.5478;1.2523;
360.9000;0.5478;1.2575;
361.2000;0.5478;1.2549;
361.5000;0.5478;1.2627;
361.8000;0.5470;1.2601;
362.1000;0.5478;1.2627;
362.4000;0.5478;1.2653;
362.7000;0.5470;1.2601;
363.0000;0.5486;1.2575;
363.3000;0.5486;1.2549;
363.6000;0.5486;1.2575;
363.9000;0.5478;1.2627;
364.2000;0.5486;1.2653;
364.5000;0.5503;1.2653;
364.8000;0.5495;1.2679;
365.1000;0.5503;1.2705;
365.4000;0.5495;1.2679;
365.7000;0.5486;1.2627;
366.0000;0.5495;1.2601;
366.3000;0.5478;1.2575;
366.6000;0.5486;1.2549;
366.9000;0.5486;1.2523;
367.2000;0.5495;1.2627;
367.5000;0.5486;1.2679;
367.8000;0.5478;1.2679;
368.1000;0.5478;1.2705;
368.4000;0.5470;1.2705;
368.7000;0.5486;1.2705;
369.0000;0.5364;1.2394;
369.3000;0.5372;1.2471;
369.6000;0.5446;1.2783;
369.9000;0.5470;1.2834;
370.2000;0.5446;1.2834;
370.5000;0.5470;1.2834;
370.8000;0.5470;1.2886;
371.1000;0.5495;1.2860;
371.4000;0.5486;1.2860;
371.7000;0.5478;1.2834;
372.0000;0.5470;1.2834;
372.3000;0.5495;1.2834;
372.6000;0.5486;1.2757;
372.9000;0.5503;1.2731;
373.2000;0.5486;1.2783;
373.5000;0.5486;1.2860;
373.8000;0.5470;1.2860;
374.1000;0.5405;1.2679;
374.4000;0.5470;1.2990;
374.7000;0.5551;1.3146;
375.0000;0.5478;1.2990;
375.3000;0.5454;1.2834;
375.6000;0.5470;1.2834;
375.9000;0.5470;1.2783;
376.2000;0.5470;1.2834;
376.5000;0.5470;1.2809;
376.8000;0.5438;1.2757;
377.1000;0.5535;1.3068;
377.4000;0.5470;1.2783;
377.7000;0.5470;1.2731;
378.0000;0.5478;1.2757;
378.3000;0.5495;1.2757;
378.6000;0.5478;1.2783;
378.9000;0.5495;1.2783;
379.2000;0.5495;1.2783;
379.5000;0.5462;1.2757;
379.8000;0.5486;1.2860;
380.1000;0.5478;1.2860;
380.4000;0.5470;1.2860;
380.7000;0.5478;1.2834;
381.0000;0.5446;1.2757;
381.3000;0.5462;1.2705;
381.6000;0.5478;1.2705;
381.9000;0.5462;1.2679;
382.2000;0.5478;1.2783;
382.5000;0.5486;1.2809;
382.8000;0.5462;1.2705;
383.1000;0.5478;1.2731;
383.4000;0.5470;1.2834;
383.7000;0.5462;1.2834;
384.0000;0.5462;1.2834;
384.3000;0.5470;1.2834;
384.6000;0.5478;1.2938;
384.9000;0.5486;1.2886;
385.2000;0.5495;1.2886;
385.5000;0.5462;1.2860;
385.8000;0.5462;1.2809;
386.1000;0.5462;1.2783;
386.4000;0.5470;1.2860;
386.7000;0.5486;1.2964;
387.0000;0.5486;1.2912;
387.3000;0.5486;1.3016;
387.6000;0.5495;1.2964;
387.9000;0.5470;1.2938;
388.2000;0.5470;1.2912;
388.5000;0.5478;1.2912;
388.8000;0.5478;1.2990;
389.1000;0.5478;1.2912;
389.4000;0.5478;1.2809;
389.7000;0.5462;1.2834;
390.0000;0.5478;1.2912;
390.3000;0.5454;1.2783;
390.6000;0.5478;1.2860;
390.9000;0.5470;1.2886;
391.2000;0.5470;1.2912;
391.5000;0.5470;1.2964;
391.8000;0.5478;1.2990;
392.1000;0.5470;1.2886;
392.4000;0.5478;1.2705;
392.7000;0.5389;1.2549;
393.0000;0.5486;1.2834;
393.3000;0.5446;1.2731;
393.6000;0.5462;1.2705;
393.9000;0.5478;1.2809;
394.2000;0.5454;1.2705;
394.5000;0.5462;1.2731;
394.8000;0.5446;1.2705;
395.1000;0.5470;1.2679;
395.4000;0.5478;1.2731;
395.7000;0.5478;1.2783;
396.0000;0.5478;1.2757;
396.3000;0.5470;1.2757;
396.6000;0.5486;1.2834;
396.9000;0.5478;1.2783;
397.2000;0.5470;1.2757;
397.5000;0.5535;1.2964;
397.8000;0.5429;1.2731;
398.1000;0.5470;1.2783;
398.4000;0.5438;1.2627;
398.7000;0.5511;1.2809;
399.0000;0.5470;1.2731;
399.3000;0.5462;1.2731;
399.6000;0.5470;1.2757;
399.9000;0.5438;1.2731;
400.2000;0.5454;1.2912;
400.5000;0.5462;1.2886;
400.8000;0.5438;1.2783;
401.1000;0.5446;1.2809;
401.4000;0.5470;1.2860;
401.7000;0.5478;1.2834;
402.0000;0.5454;1.2860;
402.3000;0.5470;1.2834;
402.6000;0.5470;1.2809;
402.9000;0.5470;1.2783;
403.2000;0.5454;1.2809;
403.5000;0.5462;1.2731;
403.8000;0.5462;1.2809;
404.1000;0.5438;1.2834;
404.4000;0.5454;1.2834;
404.7000;0.5446;1.2757;
405.0000;0.5462;1.2705;
405.3000;0.5478;1.2809;
405.6000;0.5446;1.2783;
405.9000;0.5454;1.2834;
406.2000;0.5478;1.2886;
406.5000;0.5470;1.2860;
406.8000;0.5462;1.2912;
407.1000;0.5462;1.2938;
407.4000;0.5454;1.3016;
407.7000;0.5470;1.3042;
408.0000;0.5478;1.3120;
408.3000;0.5486;1.3016;
408.6000;0.5462;1.3042;
408.9000;0.5470;1.3042;
409.2000;0.5462;1.3042;
409.5000;0.5478;1.3120;
409.8000;0.5446;1.3016;
410.1000;0.5462;1.2964;
410.4000;0.5478;1.2964;
410.7000;0.5462;1.2964;
411.0000;0.5446;1.2990;
411.3000;0.5470;1.2990;
411.6000;0.5454;1.2990;
411.9000;0.5470;1.3042;
412.2000;0.5462;1.2938;
412.5000;0.5470;1.2886;
412.8000;0.5478;1.2912;
413.1000;0.5470;1.2783;
413.4000;0.5454;1.2731;
413.7000;0.5462;1.2705;
414.0000;0.5470;1.2705;
414.3000;0.5470;1.2705;
414.6000;0.5462;1.2679;
414.9000;0.5429;1.2601;
415.2000;0.5454;1.2627;
415.5000;0.5462;1.2705;
415.8000;0.5446;1.2653;
416.1000;0.5454;1.2731;
416.4000;0.5364;1.2549;
416.7000;0.5519;1.2912;
417.0000;0.5478;1.2757;
417.3000;0.5470;1.2731;
417.6000;0.5486;1.2809;
417.9000;0.5470;1.2834;
418.2000;0.5478;1.2860;
418.5000;0.5478;1.2834;
418.8000;0.5429;1.2679;
419.1000;0.5478;1.2912;
419.4000;0.5478;1.2834;
419.7000;0.5486;1.2912;
420.0000;0.5462;1.2860;
420.3000;0.5478;1.2886;
420.6000;0.5454;1.2886;
420.9000;0.5462;1.2938;
421.2000;0.5478;1.2938;
421.5000;0.5462;1.2834;
421.8000;0.5478;1.2886;
422.1000;0.5486;1.2860;
422.4000;0.5495;1.2886;
422.7000;0.5470;1.2809;
423.0000;0.5478;1.2886;
423.3000;0.5511;1.2990;
423.6000;0.5462;1.2834;
423.9000;0.5413;1.2731;
424.2000;0.5429;1.2783;
424.5000;0.5438;1.2886;
424.8000;0.5454;1.2938;
425.1000;0.5454;1.2886;
425.4000;0.5446;1.2938;
425.7000;0.5446;1.3042;
426.0000;0.5470;1.3042;
426.3000;0.5438;1.2860;
426.6000;0.5454;1.2886;
426.9000;0.5470;1.2964;
427.2000;0.5470;1.3016;
427.5000;0.5470;1.3172;
427.8000;0.5470;1.3172;
428.1000;0.5478;1.3197;
428.4000;0.5486;1.3172;
428.7000;0.5454;1.3120;
429.0000;0.5454;1.3094;
429.3000;0.5462;1.3094;
429.6000;0.5462;1.3042;
429.9000;0.5454;1.3016;
430.2000;0.5462;1.3016;
430.5000;0.5495;1.3120;
430.8000;0.5462;1.3042;
431.1000;0.5543;1.3249;
431.4000;0.5462;1.2938;
431.7000;0.5454;1.2964;
432.0000;0.5429;1.2938;
432.3000;0.5462;1.3042;
432.6000;0.5462;1.2964;
432.9000;0.5462;1.2938;
433.2000;0.5470;1.2964;
433.5000;0.5462;1.2938;
433.8000;0.5438;1.2860;
434.1000;0.5470;1.2990;
434.4000;0.5478;1.3016;
434.7000;0.5478;1.2964;
435.0000;0.5454;1.2964;
435.3000;0.5462;1.2964;
435.6000;0.5446;1.3042;
435.9000;0.5454;1.3094;
436.2000;0.5438;1.3016;
436.5000;0.5454;1.3068;
436.8000;0.5454;1.3068;
437.1000;0.5462;1.3146;
437.4000;0.5470;1.3068;
437.7000;0.5454;1.2964;
438.0000;0.5462;1.2964;
438.3000;0.5446;1.3016;
438.6000;0.5454;1.2990;
438.9000;0.5413;1.2912;
439.2000;0.5454;1.2990;
439.5000;0.5446;1.3016;
439.8000;0.5478;1.3120;
440.1000;0.5543;1.3301;
440.4000;0.5446;1.2938;
440.7000;0.5454;1.2912;
441.0000;0.5438;1.2757;
441.3000;0.5486;1.2886;
441.6000;0.5454;1.2757;
441.9000;0.5454;1.2860;
442.2000;0.5454;1.2912;
442.5000;0.5454;1.2912;
442.8000;0.5438;1.2964;
443.1000;0.5446;1.2912;
443.4000;0.5462;1.2938;
443.7000;0.5454;1.2912;
444.0000;0.5446;1.2912;
444.3000;0.5438;1.2990;
444.6000;0.5446;1.3016;
444.9000;0.5454;1.3016;
445.2000;0.5438;1.2964;
445.5000;0.5454;1.2990;
445.8000;0.5511;1.3146;
446.1000;0.5438;1.2990;
446.4000;0.5446;1.2964;
446.7000;0.5438;1.2990;
447.0000;0.5446;1.2964;
447.3000;0.5462;1.3016;
447.6000;0.5454;1.3016;
447.9000;0.5454;1.2938;
448.2000;0.5438;1.2860;
448.5000;0.5462;1.2886;
448.8000;0.5462;1.2912;
449.1000;0.5454;1.2886;
449.4000;0.5446;1.2886;
449.7000;0.5462;1.2834;
450.0000;0.5462;1.2809;
450.3000;0.5462;1.2834;
450.6000;0.5462;1.2834;
450.9000;0.5454;1.2809;
451.2000;0.5462;1.2783;
451.5000;0.5446;1.2783;
451.8000;0.5454;1.2886;
452.1000;0.5429;1.2860;
452.4000;0.5478;1.2938;
452.7000;0.5429;1.2886;
453.0000;0.5438;1.2964;
453.3000;0.5446;1.3016;
453.6000;0.5470;1.2990;
453.9000;0.5470;1.3016;
454.2000;0.5454;1.3042;
454.5000;0.5438;1.2964;
454.8000;0.5454;1.2990;
455.1000;0.5470;1.2964;
455.4000;0.5462;1.2938;
455.7000;0.5462;1.2964;
456.0000;0.5462;1.2886;
456.3000;0.5462;1.2886;
456.6000;0.5462;1.2809;
456.9000;0.5446;1.2860;
457.2000;0.5462;1.2886;
457.5000;0.5470;1.2834;
457.8000;0.5454;1.2705;
458.1000;0.5446;1.2679;
458.4000;0.5454;1.2731;
458.7000;0.5470;1.2912;
459.0000;0.5462;1.2912;
459.3000;0.5429;1.2809;
459.6000;0.5438;1.2809;
459.9000;0.5438;1.2731;
460.2000;0.5446;1.2757;
460.5000;0.5446;1.2601;
460.8000;0.5446;1.2679;
461.1000;0.5454;1.2731;
461.4000;0.5478;1.2886;
461.7000;0.5454;1.2834;
462.0000;0.5454;1.2783;
462.3000;0.5397;1.2575;
462.6000;0.5454;1.2705;
462.9000;0.5462;1.2783;
463.2000;0.5454;1.2809;
463.5000;0.5462;1.2809;
463.8000;0.5462;1.2860;
464.1000;0.5446;1.2757;
464.4000;0.5446;1.2834;
464.7000;0.5446;1.2783;
465.0000;0.5454;1.2886;
465.3000;0.5413;1.2834;
465.6000;0.5446;1.2834;
465.9000;0.5438;1.2809;
466.2000;0.5446;1.2860;
466.5000;0.5446;1.2809;
466.8000;0.5438;1.2809;
467.1000;0.5446;1.2886;
467.4000;0.5462;1.2964;
467.7000;0.5454;1.2964;
468.0000;0.5429;1.2860;
468.3000;0.5454;1.2938;
468.6000;0.5446;1.2938;
468.9000;0.5454;1.2964;
469.2000;0.5438;1.2912;
469.5000;0.5429;1.2860;
469.8000;0.5446;1.2938;
470.1000;0.5446;1.2912;
470.4000;0.5462;1.3016;
470.7000;0.5446;1.3042;
471.0000;0.5454;1.2990;
471.3000;0.5454;1.3016;
471.6000;0.5446;1.3042;
471.9000;0.5454;1.3042;
472.2000;0.5462;1.3042;
472.5000;0.5454;1.3016;
472.8000;0.5446;1.3016;
473.1000;0.5462;1.3016;
473.4000;0.5462;1.3068;
473.7000;0.5462;1.2964;
474.0000;0.5462;1.2809;
474.3000;0.5438;1.2679;
474.6000;0.5438;1.2627;
474.9000;0.5486;1.2783;
475.2000;0.5454;1.2705;
475.5000;0.5446;1.2653;
475.8000;0.5462;1.2731;
476.1000;0.5438;1.2757;
476.4000;0.5446;1.2731;
476.7000;0.5454;1.2834;
477.0000;0.5535;1.3094;
477.3000;0.5446;1.2886;
477.6000;0.5478;1.2990;
477.9000;0.5446;1.3016;
478.2000;0.5470;1.2964;
478.5000;0.5462;1.3068;
478.8000;0.5446;1.3094;
479.1000;0.5454;1.3172;
479.4000;0.5454;1.3120;
479.7000;0.5438;1.3068;
480.0000;0.5397;1.2990;
480.3000;0.5454;1.3146;
480.6000;0.5454;1.3223;
480.9000;0.5446;1.3120;
481.2000;0.5429;1.3120;
481.5000;0.5438;1.2990;
481.8000;0.5470;1.2990;
482.1000;0.5446;1.2990;
482.4000;0.5446;1.2964;
482.7000;0.5462;1.2964;
483.0000;0.5446;1.2912;
483.3000;0.5438;1.2834;
483.6000;0.5438;1.2834;
483.9000;0.5454;1.2886;
484.2000;0.5462;1.2912;
484.5000;0.5495;1.3042;
484.8000;0.5446;1.2886;
485.1000;0.5429;1.2834;
485.4000;0.5438;1.2834;
485.7000;0.5438;1.2809;
486.0000;0.5446;1.2809;
486.3000;0.5486;1.3016;
486.6000;0.5462;1.2964;
486.9000;0.5438;1.2990;
487.2000;0.5446;1.3068;
487.5000;0.5438;1.3094;
487.8000;0.5446;1.3068;
488.1000;0.5438;1.3042;
488.4000;0.5438;1.3016;
488.7000;0.5454;1.2990;
489.0000;0.5438;1.2964;
489.3000;0.5438;1.3068;
489.6000;0.5478;1.3146;
489.9000;0.5405;1.2912;
490.2000;0.5429;1.3042;
490.5000;0.5438;1.3042;
490.8000;0.5413;1.2938;
491.1000;0.5446;1.2938;
491.4000;0.5429;1.2990;
491.7000;0.5454;1.3042;
492.0000;0.5446;1.3120;
492.3000;0.5454;1.3120;
492.6000;0.5446;1.3120;
492.9000;0.5486;1.3275;
493.2000;0.5446;1.3120;
493.5000;0.5454;1.3094;
493.8000;0.5429;1.3146;
494.1000;0.5429;1.3197;
494.4000;0.5438;1.3249;
494.7000;0.5438;1.3172;
495.0000;0.5438;1.3146;
495.3000;0.5421;1.3197;
495.6000;0.5446;1.3275;
495.9000;0.5454;1.3353;
496.2000;0.5446;1.3197;
496.5000;0.5429;1.3120;
496.8000;0.5454;1.3223;
497.1000;0.5454;1.3172;
497.4000;0.5421;1.3172;
497.7000;0.5446;1.3146;
498.0000;0.5454;1.3172;
498.3000;0.5446;1.3197;
498.6000;0.5438;1.3197;
498.9000;0.5470;1.3172;
499.2000;0.5446;1.3042;
499.5000;0.5470;1.3146;
499.8000;0.5438;1.3120;
500.1000;0.5429;1.3042;
500.4000;0.5421;1.3016;
500.7000;0.5438;1.3068;
501.0000;0.5356;1.2757;
501.3000;0.5413;1.2860;
501.6000;0.5381;1.2705;
501.9000;0.5438;1.2886;
502.2000;0.5511;1.3068;
502.5000;0.5446;1.2912;
502.8000;0.5438;1.2964;
503.1000;0.5446;1.2964;
503.4000;0.5446;1.3016;
503.7000;0.5446;1.2990;
504.0000;0.5438;1.2938;
504.3000;0.5446;1.3016;
504.6000;0.5470;1.3068;
504.9000;0.5446;1.2990;
505.2000;0.5446;1.2990;
505.5000;0.5446;1.2964;
505.8000;0.5470;1.3042;
506.1000;0.5413;1.2886;
506.4000;0.5438;1.2990;
506.7000;0.5438;1.2990;
507.0000;0.5478;1.3016;
507.3000;0.5470;1.2964;
507.6000;0.5429;1.2834;
507.9000;0.5454;1.2860;
508.2000;0.5421;1.2809;
508.5000;0.5438;1.2886;
508.8000;0.5438;1.3016;
509.1000;0.5446;1.3016;
509.4000;0.5438;1.3068;
509.7000;0.5454;1.3146;
510.0000;0.5543;1.3483;
510.3000;0.5397;1.3042;
510.6000;0.5421;1.3146;
510.9000;0.5438;1.3223;
511.2000;0.5495;1.3223;
511.5000;0.5413;1.3146;
511.8000;0.5413;1.3146;
512.1000;0.5421;1.3249;
512.4000;0.5438;1.3275;
512.7000;0.5535;1.3535;
513.0000;0.5421;1.3223;
513.3000;0.5511;1.3431;
513.6000;0.5446;1.3249;
513.9000;0.5438;1.3172;
514.2000;0.5429;1.3120;
514.5000;0.5429;1.3172;
514.8000;0.5405;1.3146;
515.1000;0.5413;1.3197;
515.4000;0.5429;1.3249;
515.7000;0.5503;1.3431;
516.0000;0.5405;1.3197;
516.3000;0.5429;1.3249;
516.6000;0.5438;1.3275;
516.9000;0.5413;1.3197;
517.2000;0.5413;1.3172;
517.5000;0.5438;1.3172;
517.8000;0.5438;1.3172;
518.1000;0.5438;1.3146;
518.4000;0.5421;1.3197;
518.7000;0.5429;1.3197;
519.0000;0.5421;1.3197;
519.3000;0.5438;1.3197;
519.6000;0.5438;1.3197;
519.9000;0.5446;1.3172;
520.2000;0.5421;1.3146;
520.5000;0.5438;1.3172;
520.8000;0.5438;1.3197;
521.1000;0.5429;1.3223;
521.4000;0.5421;1.3249;
521.7000;0.5429;1.3405;
522.0000;0.5413;1.3431;
522.3000;0.5446;1.3483;
522.6000;0.5462;1.3483;
522.9000;0.5446;1.3353;
523.2000;0.5503;1.3483;
523.5000;0.5446;1.3353;
523.8000;0.5446;1.3223;
524.1000;0.5454;1.3301;
524.4000;0.5429;1.3275;
524.7000;0.5446;1.3327;
525.0000;0.5413;1.3146;
525.3000;0.5438;1.3172;
525.6000;0.5429;1.3120;
525.9000;0.5421;1.3094;
526.2000;0.5438;1.3172;
526.5000;0.5421;1.3042;
526.8000;0.5454;1.3068;
527.1000;0.5389;1.3016;
527.4000;0.5438;1.3172;
527.7000;0.5438;1.3120;
528.0000;0.5429;1.3068;
528.3000;0.5413;1.2990;
528.6000;0.5429;1.3068;
528.9000;0.5446;1.3094;
529.2000;0.5446;1.3042;
529.5000;0.5438;1.3197;
529.8000;0.5381;1.3068;
530.1000;0.5438;1.3172;
530.4000;0.5438;1.3197;
530.7000;0.5454;1.3275;
531.0000;0.5438;1.3197;
531.3000;0.5389;1.3068;
531.6000;0.5438;1.3249;
531.9000;0.5332;1.2912;
532.2000;0.5446;1.3172;
532.5000;0.5372;1.3016;
532.8000;0.5454;1.3275;
533.1000;0.5429;1.3146;
533.4000;0.5446;1.3094;
533.7000;0.5470;1.3146;
534.0000;0.5429;1.2990;
534.3000;0.5438;1.3120;
534.6000;0.5429;1.3042;
534.9000;0.5446;1.3094;
535.2000;0.5429;1.3068;
535.5000;0.5454;1.3120;
535.8000;0.5413;1.3068;
536.1000;0.5372;1.2938;
536.4000;0.5438;1.3120;
536.7000;0.5413;1.3042;
537.0000;0.5421;1.3068;
537.3000;0.5389;1.3094;
537.6000;0.5413;1.3172;
537.9000;0.5421;1.3223;
538.2000;0.5446;1.3249;
538.5000;0.5438;1.3172;
538.8000;0.5413;1.3042;
539.1000;0.5446;1.3172;
539.4000;0.5438;1.3120;
539.7000;0.5438;1.3197;
540.0000;0.5429;1.3249;
540.3000;0.5438;1.3301;
540.6000;0.5421;1.3301;
540.9000;0.5413;1.3249;
541.2000;0.5429;1.3249;
541.5000;0.5438;1.3275;
541.8000;0.5454;1.3275;
542.1000;0.5381;1.3016;
542.4000;0.5429;1.3120;
542.7000;0.5429;1.3120;
543.0000;0.5438;1.3094;
543.3000;0.5429;1.3172;
543.6000;0.5446;1.3197;
543.9000;0.5438;1.3172;
544.2000;0.5389;1.3094;
544.5000;0.5429;1.3120;
544.8000;0.5438;1.3197;
545.1000;0.5438;1.3275;
545.4000;0.5438;1.3249;
545.7000;0.5429;1.3223;
546.0000;0.5438;1.3223;
546.3000;0.5446;1.3249;
546.6000;0.5429;1.3327;
546.9000;0.5429;1.3275;
547.2000;0.5389;1.3042;
547.5000;0.5429;1.3094;
547.8000;0.5446;1.3172;
548.1000;0.5429;1.3146;
548.4000;0.5381;1.3016;
548.7000;0.5413;1.3146;
549.0000;0.5454;1.3223;
549.3000;0.5405;1.3068;
549.6000;0.5429;1.3172;
549.9000;0.5454;1.3249;
550.2000;0.5429;1.3197;
550.5000;0.5429;1.3249;
550.8000;0.5405;1.3146;
551.1000;0.5429;1.3223;
551.4000;0.5405;1.3197;
551.7000;0.5438;1.3223;
552.0000;0.5470;1.3301;
552.3000;0.5405;1.3146;
552.6000;0.5421;1.3223;
552.9000;0.5429;1.3249;
553.2000;0.5438;1.3249;
553.5000;0.5421;1.3172;
553.8000;0.5438;1.3223;
554.1000;0.5364;1.3068;
554.4000;0.5397;1.3094;
554.7000;0.5429;1.3172;
555.0000;0.5413;1.3094;
555.3000;0.5381;1.3068;
555.6000;0.5421;1.3120;
555.9000;0.5421;1.3223;
556.2000;0.5429;1.3275;
556.5000;0.5413;1.3301;
556.8000;0.5413;1.3249;
557.1000;0.5421;1.3275;
557.4000;0.5454;1.3353;
557.7000;0.5438;1.3197;
558.0000;0.5429;1.3146;
558.3000;0.5421;1.3120;
558.6000;0.5429;1.3042;
558.9000;0.5438;1.3042;
559.2000;0.5421;1.2990;
559.5000;0.5421;1.2990;
559.8000;0.5438;1.3068;
560.1000;0.5421;1.2990;
560.4000;0.5438;1.3094;
560.7000;0.5438;1.3120;
561.0000;0.5421;1.3197;
561.3000;0.5413;1.3197;
561.6000;0.5413;1.3223;
561.9000;0.5421;1.3223;
562.2000;0.5421;1.3301;
562.5000;0.5421;1.3327;
562.8000;0.5413;1.3353;
563.1000;0.5421;1.3353;
563.4000;0.5421;1.3405;
563.7000;0.5413;1.3353;
564.0000;0.5421;1.3457;
564.3000;0.5421;1.3457;
564.6000;0.5429;1.3379;
564.9000;0.5429;1.3405;
565.2000;0.5446;1.3457;
565.5000;0.5438;1.3379;
565.8000;0.5421;1.3379;
566.1000;0.5421;1.3405;
566.4000;0.5405;1.3353;
566.7000;0.5397;1.3249;
567.0000;0.5421;1.3249;
567.3000;0.5421;1.3327;
567.6000;0.5421;1.3353;
567.9000;0.5413;1.3379;
568.2000;0.5429;1.3431;
568.5000;0.5429;1.3431;
568.8000;0.5438;1.3509;
569.1000;0.5454;1.3405;
569.4000;0.5446;1.3379;
569.7000;0.5438;1.3249;
570.0000;0.5446;1.3353;
570.3000;0.5446;1.3405;
570.6000;0.5429;1.3275;
570.9000;0.5438;1.3172;
571.2000;0.5438;1.3249;
571.5000;0.5381;1.3120;
571.8000;0.5429;1.3275;
572.1000;0.5421;1.3301;
572.4000;0.5405;1.3327;
572.7000;0.5446;1.3301;
573.0000;0.5429;1.3275;
573.3000;0.5454;1.3405;
573.6000;0.5438;1.3249;
573.9000;0.5413;1.3197;
574.2000;0.5470;1.3353;
574.5000;0.5429;1.3275;
574.8000;0.5470;1.3353;
575.1000;0.5421;1.3249;
575.4000;0.5413;1.3197;
575.7000;0.5421;1.3172;
576.0000;0.5429;1.3120;
576.3000;0.5397;1.2990;
576.6000;0.5429;1.3068;
576.9000;0.5421;1.3016;
577.2000;0.5429;1.3016;
577.5000;0.5413;1.2886;
577.8000;0.5421;1.2886;
578.1000;0.5429;1.3094;
578.4000;0.5429;1.3094;
578.7000;0.5421;1.3146;
579.0000;0.5421;1.3094;
579.3000;0.5405;1.3146;
579.6000;0.5421;1.3223;
579.9000;0.5486;1.3483;
580.2000;0.5413;1.3301;
580.5000;0.5413;1.3094;
580.8000;0.5413;1.3094;
581.1000;0.5421;1.3172;
581.4000;0.5389;1.3120;
581.7000;0.5413;1.3223;
582.0000;0.5421;1.3275;
582.3000;0.5421;1.3223;
582.6000;0.5397;1.3275;
582.9000;0.5413;1.3301;
583.2000;0.5429;1.3301;
583.5000;0.5421;1.3275;
583.8000;0.5421;1.3197;
584.1000;0.5421;1.3223;
584.4000;0.5421;1.3249;
584.7000;0.5413;1.3249;
585.0000;0.5413;1.3249;
585.3000;0.5397;1.3249;
585.6000;0.5413;1.3301;
585.9000;0.5405;1.3301;
586.2000;0.5413;1.3275;
586.5000;0.5397;1.3223;
586.8000;0.5429;1.3275;
587.1000;0.5413;1.3197;
587.4000;0.5438;1.3223;
587.7000;0.5421;1.3146;
588.0000;0.5413;1.3172;
588.3000;0.5429;1.3197;
588.6000;0.5454;1.3379;
588.9000;0.5413;1.3275;
589.2000;0.5421;1.3275;
589.5000;0.5429;1.3353;
589.8000;0.5429;1.3327;
590.1000;0.5421;1.3301;
590.4000;0.5413;1.3275;
590.7000;0.5413;1.3197;
591.0000;0.5413;1.3275;
591.3000;0.5429;1.3431;
591.6000;0.5421;1.3431;
591.9000;0.5405;1.3457;
592.2000;0.5421;1.3509;
592.5000;0.5446;1.3535;
592.8000;0.5421;1.3457;
593.1000;0.5421;1.3379;
593.4000;0.5421;1.3431;
593.7000;0.5364;1.3172;
594.0000;0.5478;1.3405;
594.3000;0.5413;1.3016;
594.6000;0.5478;1.3120;
594.9000;0.5446;1.3068;
595.2000;0.5438;1.3016;
595.5000;0.5446;1.3094;
595.8000;0.5413;1.3042;
596.1000;0.5429;1.3120;
596.4000;0.5413;1.3146;
596.7000;0.5413;1.3146;
597.0000;0.5421;1.3327;
597.3000;0.5413;1.3301;
597.6000;0.5405;1.3275;
597.9000;0.5421;1.3379;
598.2000;0.5405;1.3275;
598.5000;0.5405;1.3197;
598.8000;0.5429;1.3249;
599.1000;0.5413;1.3249;
599.4000;0.5372;1.3094;
599.7000;0.5503;1.3405;
600.0000;0.5340;1.2912;
600.3000;0.5429;1.2990;
600.6000;0.5397;1.2757;
600.9000;0.5348;1.2446;
601.2000;0.5291;1.2134;
601.5000;0.5210;1.1849;
601.8000;0.5112;1.1590;
602.1000;0.5104;1.1434;
602.4000;0.4982;1.0916;
602.7000;0.4949;1.0786;
603.0000;0.4900;1.0527;
603.3000;0.4811;1.0294;
603.6000;0.4786;1.0138;
603.9000;0.4729;0.9879;
604.2000;0.4697;0.9749;
604.5000;0.4729;0.9827;
604.8000;0.4607;0.9490;
605.1000;0.4575;0.9282;
605.4000;0.4583;0.9256;
605.7000;0.4558;0.9230;
606.0000;0.4550;0.9179;
606.3000;0.4501;0.9049;
606.6000;0.4477;0.9049;
606.9000;0.4453;0.8997;
607.2000;0.4444;0.8971;
607.5000;0.4420;0.8919;
607.8000;0.4420;0.8867;
608.1000;0.4404;0.8867;
608.4000;0.4371;0.8712;
608.7000;0.4355;0.8712;
609.0000;0.4290;0.8556;
609.3000;0.4322;0.8660;
609.6000;0.4314;0.8608;
609.9000;0.4306;0.8582;
610.2000;0.4282;0.8530;
610.5000;0.4282;0.8453;
610.8000;0.4257;0.8323;
611.1000;0.4306;0.8479;
611.4000;0.4257;0.8401;
611.7000;0.4265;0.8427;
612.0000;0.4290;0.8401;
612.3000;0.4249;0.8245;
612.6000;0.4225;0.8167;
612.9000;0.4208;0.8090;
613.2000;0.4192;0.8064;
613.5000;0.4168;0.8038;
613.8000;0.4192;0.8090;
614.1000;0.4184;0.8090;
614.4000;0.4176;0.8116;
614.7000;0.4168;0.8141;
615.0000;0.4208;0.8453;
615.3000;0.4151;0.8375;
615.6000;0.4143;0.8349;
615.9000;0.4200;0.8504;
616.2000;0.4070;0.8167;
616.5000;0.4127;0.8323;
616.8000;0.4119;0.8323;
617.1000;0.4111;0.8219;
617.4000;0.4119;0.8245;
617.7000;0.4135;0.8245;
618.0000;0.4151;0.8401;
618.3000;0.4160;0.8479;
618.6000;0.4111;0.8323;
618.9000;0.4103;0.8271;
619.2000;0.4103;0.8323;
619.5000;0.4078;0.8271;
619.8000;0.4094;0.8297;
620.1000;0.4103;0.8323;
620.4000;0.4086;0.8375;
620.7000;0.4094;0.8427;
621.0000;0.4070;0.8297;
621.3000;0.4070;0.8323;
621.6000;0.4070;0.8245;
621.9000;0.4046;0.8141;
622.2000;0.4054;0.8038;
622.5000;0.4037;0.7934;
622.8000;0.4062;0.7986;
623.1000;0.4070;0.8064;
623.4000;0.4029;0.7986;
623.7000;0.4054;0.7960;
624.0000;0.4054;0.7934;
624.3000;0.4054;0.7882;
624.6000;0.4037;0.7882;
624.9000;0.4029;0.8012;
625.2000;0.4046;0.8116;
625.5000;0.4046;0.8141;
625.8000;0.4029;0.8141;
626.1000;0.4021;0.8090;
626.4000;0.4021;0.8116;
626.7000;0.4037;0.8012;
627.0000;0.4021;0.7960;
627.3000;0.4021;0.7986;
627.6000;0.4005;0.7986;
627.9000;0.3997;0.8090;
628.2000;0.4013;0.8116;
628.5000;0.4005;0.8064;
628.8000;0.4029;0.8245;
629.1000;0.3997;0.8038;
629.4000;0.4013;0.8116;
629.7000;0.3997;0.8012;
630.0000;0.3980;0.7908;
630.3000;0.3989;0.7856;
630.6000;0.3972;0.7778;
630.9000;0.3989;0.7908;
631.2000;0.3989;0.7934;
631.5000;0.3980;0.7986;
631.8000;0.4005;0.7908;
632.1000;0.3964;0.7804;
632.4000;0.3989;0.7934;
632.7000;0.3989;0.8012;
633.0000;0.3980;0.8038;
633.3000;0.3989;0.7960;
633.6000;0.3980;0.7960;
633.9000;0.3989;0.7960;
634.2000;0.3989;0.8038;
634.5000;0.3989;0.7934;
634.8000;0.3972;0.7934;
635.1000;0.3956;0.7986;
635.4000;0.3972;0.8038;
635.7000;0.3972;0.8038;
636.0000;0.3956;0.7986;
636.3000;0.3948;0.7934;
636.6000;0.3972;0.7934;
636.9000;0.3956;0.7882;
637.2000;0.3964;0.7804;
637.5000;0.3964;0.7778;
637.8000;0.3956;0.7856;
638.1000;0.3964;0.7830;
638.4000;0.3964;0.7882;
638.7000;0.3948;0.7882;
639.0000;0.3948;0.7986;
639.3000;0.3964;0.8012;
639.6000;0.3956;0.7882;
639.9000;0.3956;0.7830;
640.2000;0.3948;0.7675;
640.5000;0.3932;0.7701;
640.8000;0.3932;0.7623;
641.1000;0.3858;0.7441;
641.4000;0.3907;0.7623;
641.7000;0.3940;0.7778;
642.0000;0.3907;0.7675;
642.3000;0.3923;0.7701;
642.6000;0.3948;0.7830;
642.9000;0.3932;0.7856;
643.2000;0.3940;0.7882;
643.5000;0.3899;0.7804;
643.8000;0.3915;0.7934;
644.1000;0.3915;0.7986;
644.4000;0.3915;0.8038;
644.7000;0.3907;0.8012;
645.0000;0.3891;0.7960;
645.3000;0.3907;0.7986;
645.6000;0.3907;0.7908;
645.9000;0.3915;0.7830;
646.2000;0.3899;0.7804;
646.5000;0.3923;0.7908;
646.8000;0.3915;0.7908;
647.1000;0.3923;0.7960;
647.4000;0.3907;0.7934;
647.7000;0.3891;0.7960;
648.0000;0.3891;0.7934;
648.3000;0.3923;0.8012;
648.6000;0.3923;0.8090;
648.9000;0.3907;0.8090;
649.2000;0.3899;0.7960;
649.5000;0.3899;0.7908;
649.8000;0.3915;0.7882;
650.1000;0.3948;0.7960;
650.4000;0.3899;0.7778;
650.7000;0.3883;0.7804;
651.0000;0.3867;0.7727;
651.3000;0.3940;0.8064;
651.6000;0.3850;0.7856;
651.9000;0.3867;0.7960;
652.2000;0.3875;0.7934;
652.5000;0.3875;0.7960;
652.8000;0.3875;0.7882;
653.1000;0.3834;0.7804;
653.4000;0.3818;0.7753;
653.7000;0.3907;0.7960;
654.0000;0.3867;0.7830;
654.3000;0.3899;0.7856;
654.6000;0.3875;0.7830;
654.9000;0.3875;0.7908;
655.2000;0.3858;0.7960;
655.5000;0.3867;0.7960;
655.8000;0.3867;0.8012;
656.1000;0.3875;0.8064;
656.4000;0.3875;0.8038;
656.7000;0.3883;0.7960;
657.0000;0.3842;0.7830;
657.3000;0.3858;0.7882;
657.6000;0.3858;0.7882;
657.9000;0.3850;0.7856;
658.2000;0.3875;0.7856;
658.5000;0.3867;0.7882;
658.8000;0.3875;0.8012;
659.1000;0.3858;0.8038;
659.4000;0.3858;0.8141;
659.7000;0.3883;0.8141;
660.0000;0.3850;0.8090;
660.3000;0.3834;0.8064;
660.6000;0.3858;0.8090;
660.9000;0.3875;0.8116;
661.2000;0.3883;0.8141;
661.5000;0.3858;0.8090;
661.8000;0.3842;0.8064;
662.1000;0.3850;0.8090;
662.4000;0.3826;0.8064;
662.7000;0.3875;0.8064;
663.0000;0.3826;0.7882;
663.3000;0.3850;0.7960;
663.6000;0.3818;0.7960;
663.9000;0.3834;0.8012;
664.2000;0.3858;0.8116;
664.5000;0.3842;0.8090;
664.8000;0.3858;0.8090;
665.1000;0.3834;0.8167;
665.4000;0.3834;0.8167;
665.7000;0.3875;0.8193;
666.0000;0.3850;0.8090;
666.3000;0.3842;0.8116;
666.6000;0.3777;0.7934;
666.9000;0.3818;0.8038;
667.2000;0.3818;0.7934;
667.5000;0.3826;0.7960;
667.8000;0.3801;0.7882;
668.1000;0.3826;0.8012;
668.4000;0.3826;0.7882;
668.7000;0.3818;0.7882;
669.0000;0.3858;0.8012;
669.3000;0.3810;0.7856;
669.6000;0.3834;0.7882;
669.9000;0.3826;0.7960;
670.2000;0.3826;0.7908;
670.5000;0.3801;0.7986;
670.8000;0.3810;0.8012;
671.1000;0.3810;0.7934;
671.4000;0.3818;0.7934;
671.7000;0.3810;0.7986;
672.0000;0.3801;0.7934;
672.3000;0.3810;0.7934;
672.6000;0.3810;0.7960;
672.9000;0.3810;0.7934;
673.2000;0.3826;0.7960;
673.5000;0.3842;0.7934;
673.8000;0.3834;0.7804;
674.1000;0.3842;0.7830;
674.4000;0.3793;0.7830;
674.7000;0.3818;0.8012;
675.0000;0.3826;0.8038;
675.3000;0.3858;0.8116;
675.6000;0.3818;0.8038;
675.9000;0.3826;0.8116;
676.2000;0.3810;0.8116;
676.5000;0.3801;0.8141;
676.8000;0.3810;0.8167;
677.1000;0.3801;0.8219;
677.4000;0.3810;0.8323;
677.7000;0.3810;0.8375;
678.0000;0.3785;0.8349;
678.3000;0.3818;0.8427;
678.6000;0.3826;0.8297;
678.9000;0.3801;0.8271;
679.2000;0.3818;0.8271;
679.5000;0.3810;0.8193;
679.8000;0.3801;0.8167;
680.1000;0.3801;0.8116;
680.4000;0.3801;0.8116;
680.7000;0.3777;0.8193;
681.0000;0.3769;0.8219;
681.3000;0.3810;0.8297;
681.6000;0.3793;0.8271;
681.9000;0.3842;0.8375;
682.2000;0.3793;0.8219;
682.5000;0.3777;0.8245;
682.8000;0.3810;0.8271;
683.1000;0.3785;0.8219;
683.4000;0.3801;0.8167;
683.7000;0.3793;0.8271;
684.0000;0.3801;0.8349;
684.3000;0.3785;0.8245;
684.6000;0.3801;0.8141;
684.9000;0.3801;0.8116;
685.2000;0.3793;0.8090;
685.5000;0.3785;0.8167;
685.8000;0.3785;0.8116;
686.1000;0.3801;0.8141;
686.4000;0.3793;0.8167;
686.7000;0.3753;0.8090;
687.0000;0.3785;0.8116;
687.3000;0.3769;0.8064;
687.6000;0.3761;0.8038;
687.9000;0.3793;0.8090;
688.2000;0.3769;0.7986;
688.5000;0.3785;0.8064;
688.8000;0.3785;0.8141;
689.1000;0.3785;0.8116;
689.4000;0.3769;0.8090;
689.7000;0.3753;0.8090;
690.0000;0.3761;0.8064;
690.3000;0.3793;0.8090;
690.6000;0.3777;0.8012;
690.9000;0.3793;0.8090;
691.2000;0.3744;0.8038;
691.5000;0.3826;0.8219;
691.8000;0.3761;0.8064;
692.1000;0.3736;0.7960;
692.4000;0.3761;0.8090;
692.7000;0.3785;0.8090;
693.0000;0.3761;0.8038;
693.3000;0.3744;0.8038;
693.6000;0.3769;0.8193;
693.9000;0.3753;0.8167;
694.2000;0.3761;0.8245;
694.5000;0.3761;0.8219;
694.8000;0.3769;0.8245;
695.1000;0.3761;0.8245;
695.4000;0.3761;0.8271;
695.7000;0.3753;0.8193;
696.0000;0.3744;0.8167;
696.3000;0.3777;0.8141;
696.6000;0.3753;0.8090;
696.9000;0.3810;0.8167;
697.2000;0.3753;0.8064;
697.5000;0.3744;0.8064;
697.8000;0.3761;0.8116;
698.1000;0.3761;0.8116;
698.4000;0.3753;0.8038;
698.7000;0.3761;0.7986;
699.0000;0.3826;0.8245;
699.3000;0.3744;0.8064;
699.6000;0.3753;0.8038;
699.9000;0.3761;0.8090;
700.2000;0.3761;0.8064;
700.5000;0.3769;0.8090;
700.8000;0.3826;0.8167;
701.1000;0.3744;0.7986;
701.4000;0.3753;0.7960;
701.7000;0.3753;0.8064;
702.0000;0.3712;0.8012;
702.3000;0.3720;0.8012;
702.6000;0.3736;0.8012;
702.9000;0.3753;0.7986;
703.2000;0.3736;0.8012;
703.5000;0.3744;0.7960;
703.8000;0.3761;0.7986;
704.1000;0.3744;0.8012;
704.4000;0.3736;0.8038;
704.7000;0.3753;0.8012;
705.0000;0.3761;0.7960;
705.3000;0.3736;0.7934;
705.6000;0.3753;0.7986;
705.9000;0.3744;0.7960;
706.2000;0.3753;0.8012;
706.5000;0.3753;0.8064;
706.8000;0.3720;0.7960;
707.1000;0.3736;0.8090;
707.4000;0.3753;0.8141;
707.7000;0.3736;0.8219;
708.0000;0.3744;0.8193;
708.3000;0.3736;0.8245;
708.6000;0.3736;0.8245;
708.9000;0.3744;0.8219;
709.2000;0.3753;0.8167;
709.5000;0.3736;0.8167;
709.8000;0.3744;0.8193;
710.1000;0.3744;0.8219;
710.4000;0.3720;0.8193;
710.7000;0.3720;0.8141;
711.0000;0.3744;0.8219;
711.3000;0.3744;0.8219;
711.6000;0.3753;0.8297;
711.9000;0.3736;0.8193;
712.2000;0.3728;0.8297;
712.5000;0.3704;0.8193;
712.8000;0.3712;0.8245;
713.1000;0.3736;0.8297;
713.4000;0.3801;0.8504;
713.7000;0.3728;0.8297;
714.0000;0.3753;0.8349;
714.3000;0.3687;0.8193;
714.6000;0.3777;0.8530;
714.9000;0.3736;0.8401;
715.2000;0.3753;0.8349;
715.5000;0.3728;0.8349;
715.8000;0.3720;0.8297;
716.1000;0.3704;0.8193;
716.4000;0.3704;0.8116;
716.7000;0.3728;0.8245;
717.0000;0.3720;0.8219;
717.3000;0.3720;0.8271;
717.6000;0.3728;0.8271;
717.9000;0.3720;0.8297;
718.2000;0.3736;0.8349;
718.5000;0.3761;0.8427;
718.8000;0.3720;0.8375;
719.1000;0.3728;0.8453;
719.4000;0.3728;0.8401;
719.7000;0.3728;0.8375;
720.0000;0.3647;0.8219;
720.3000;0.3736;0.8401;
720.6000;0.3728;0.8401;
720.9000;0.3720;0.8375;
721.2000;0.3704;0.8245;
721.5000;0.3720;0.8193;
721.8000;0.3720;0.8193;
722.1000;0.3712;0.8323;
722.4000;0.3712;0.8349;
722.7000;0.3687;0.8219;
723.0000;0.3728;0.8349;
723.3000;0.3736;0.8297;
723.6000;0.3728;0.8219;
723.9000;0.3728;0.8193;
724.2000;0.3736;0.8349;
724.5000;0.3712;0.8323;
724.8000;0.3696;0.8245;
725.1000;0.3801;0.8504;
725.4000;0.3712;0.8193;
725.7000;0.3630;0.7986;
726.0000;0.3704;0.8193;
726.3000;0.3704;0.8219;
726.6000;0.3712;0.8141;
726.9000;0.3736;0.8193;
727.2000;0.3712;0.8219;
727.5000;0.3728;0.8167;
727.8000;0.3712;0.8141;
728.1000;0.3704;0.8090;
728.4000;0.3712;0.8141;
728.7000;0.3704;0.8090;
729.0000;0.3696;0.8038;
729.3000;0.3704;0.8116;
729.6000;0.3720;0.8090;
729.9000;0.3687;0.7986;
730.2000;0.3712;0.8012;
730.5000;0.3712;0.7986;
730.8000;0.3728;0.8012;
731.1000;0.3736;0.8141;
731.4000;0.3712;0.8090;
731.7000;0.3728;0.8012;
732.0000;0.3712;0.7882;
732.3000;0.3704;0.7960;
732.6000;0.3704;0.8012;
732.9000;0.3704;0.8090;
733.2000;0.3712;0.8141;
733.5000;0.3696;0.8219;
733.8000;0.3696;0.8167;
734.1000;0.3687;0.8090;
734.4000;0.3736;0.8297;
734.7000;0.3696;0.8167;
735.0000;0.3704;0.8141;
735.3000;0.3704;0.8141;
735.6000;0.3696;0.8141;
735.9000;0.3720;0.8090;
736.2000;0.3712;0.8116;
736.5000;0.3696;0.8090;
736.8000;0.3801;0.8349;
737.1000;0.3728;0.8141;
737.4000;0.3687;0.8064;
737.7000;0.3696;0.8090;
738.0000;0.3696;0.8141;
738.3000;0.3696;0.8167;
738.6000;0.3704;0.8193;
738.9000;0.3720;0.8245;
739.2000;0.3704;0.8141;
739.5000;0.3696;0.8116;
739.8000;0.3687;0.8064;
740.1000;0.3687;0.8116;
740.4000;0.3696;0.8193;
740.7000;0.3712;0.8245;
741.0000;0.3598;0.7986;
741.3000;0.3679;0.8219;
741.6000;0.3704;0.8323;
741.9000;0.3720;0.8401;
742.2000;0.3655;0.8219;
742.5000;0.3606;0.7986;
742.8000;0.3687;0.8167;
743.1000;0.3671;0.8193;
743.4000;0.3753;0.8297;
743.7000;0.3712;0.8245;
744.0000;0.3687;0.8167;
744.3000;0.3647;0.8012;
744.6000;0.3679;0.8271;
744.9000;0.3687;0.8297;
745.2000;0.3704;0.8349;
745.5000;0.3687;0.8245;
745.8000;0.3671;0.8193;
746.1000;0.3696;0.8193;
746.4000;0.3679;0.8167;
746.7000;0.3687;0.8116;
747.0000;0.3679;0.8167;
747.3000;0.3679;0.8167;
747.6000;0.3679;0.8193;
747.9000;0.3687;0.8141;
748.2000;0.3696;0.8193;
748.5000;0.3696;0.8167;
748.8000;0.3687;0.8141;
749.1000;0.3679;0.8064;
749.4000;0.3679;0.7960;
749.7000;0.3712;0.8116;
750.0000;0.3687;0.8116;
750.3000;0.3687;0.8193;
750.6000;0.3687;0.8141;
750.9000;0.3679;0.8064;
751.2000;0.3679;0.8116;
751.5000;0.3679;0.8116;
751.8000;0.3671;0.8167;
752.1000;0.3696;0.8323;
752.4000;0.3687;0.8323;
752.7000;0.3696;0.8297;
753.0000;0.3687;0.8245;
753.3000;0.3687;0.8245;
753.6000;0.3696;0.8323;
753.9000;0.3687;0.8297;
754.2000;0.3679;0.8271;
754.5000;0.3671;0.8245;
754.8000;0.3663;0.8271;
755.1000;0.3679;0.8349;
755.4000;0.3671;0.8401;
755.7000;0.3679;0.8453;
756.0000;0.3671;0.8453;
756.3000;0.3687;0.8453;
756.6000;0.3663;0.8401;
756.9000;0.3663;0.8375;
757.2000;0.3679;0.8401;
757.5000;0.3671;0.8401;
757.8000;0.3663;0.8349;
758.1000;0.3663;0.8141;
758.4000;0.3639;0.8141;
758.7000;0.3728;0.8297;
759.0000;0.3712;0.8323;
759.3000;0.3655;0.8219;
759.6000;0.3712;0.8504;
759.9000;0.3704;0.8504;
760.2000;0.3761;0.8608;
760.5000;0.3687;0.8297;
760.8000;0.3712;0.8271;
761.1000;0.3736;0.8271;
761.4000;0.3671;0.8064;
761.7000;0.3663;0.7934;
762.0000;0.3663;0.7882;
762.3000;0.3679;0.7856;
762.6000;0.3679;0.7856;
762.9000;0.3630;0.7804;
763.2000;0.3704;0.7934;
763.5000;0.3671;0.7908;
763.8000;0.3655;0.7856;
764.1000;0.3671;0.7934;
764.4000;0.3655;0.7934;
764.7000;0.3679;0.7960;
765.0000;0.3679;0.7934;
765.3000;0.3679;0.7986;
765.6000;0.3671;0.8090;
765.9000;0.3655;0.8038;
766.2000;0.3647;0.8064;
766.5000;0.3663;0.8090;
766.8000;0.3663;0.8193;
767.1000;0.3639;0.8141;
767.4000;0.3761;0.8556;
767.7000;0.3679;0.8297;
768.0000;0.3679;0.8245;
768.3000;0.3663;0.8167;
768.6000;0.3663;0.8167;
768.9000;0.3687;0.8090;
769.2000;0.3671;0.8038;
769.5000;0.3565;0.7727;
769.8000;0.3663;0.7986;
770.1000;0.3671;0.8012;
770.4000;0.3655;0.7960;
770.7000;0.3655;0.7960;
771.0000;0.3671;0.7960;
771.3000;0.3679;0.8038;
771.6000;0.3655;0.8064;
771.9000;0.3655;0.8090;
772.2000;0.3655;0.8012;
772.5000;0.3663;0.8012;
772.8000;0.3671;0.7986;
773.1000;0.3671;0.8012;
773.4000;0.3663;0.8090;
773.7000;0.3663;0.8141;
774.0000;0.3671;0.8193;
774.3000;0.3671;0.8219;
774.6000;0.3671;0.8141;
774.9000;0.3663;0.8038;
775.2000;0.3679;0.8090;
775.5000;0.3647;0.8064;
775.8000;0.3679;0.8219;
776.1000;0.3663;0.8245;
776.4000;0.3679;0.8271;
776.7000;0.3663;0.8245;
777.0000;0.3647;0.8193;
777.3000;0.3671;0.8116;
777.6000;0.3630;0.7986;
777.9000;0.3655;0.8064;
778.2000;0.3663;0.8090;
778.5000;0.3655;0.8141;
778.8000;0.3655;0.8167;
779.1000;0.3679;0.8245;
779.4000;0.3663;0.8167;
779.7000;0.3655;0.8090;
780.0000;0.3655;0.8038;
780.3000;0.3655;0.8116;
780.6000;0.3671;0.8167;
780.9000;0.3704;0.8141;
781.2000;0.3671;0.8064;
781.5000;0.3647;0.8116;
781.8000;0.3671;0.8167;
782.1000;0.3704;0.8271;
782.4000;0.3582;0.7986;
782.7000;0.3655;0.8245;
783.0000;0.3582;0.8064;
783.3000;0.3663;0.8349;
783.6000;0.3630;0.8323;
783.9000;0.3655;0.8297;
784.2000;0.3663;0.8349;
784.5000;0.3712;0.8479;
784.8000;0.3647;0.8245;
785.1000;0.3622;0.8271;
785.4000;0.3630;0.8297;
785.7000;0.3663;0.8401;
786.0000;0.3663;0.8297;
786.3000;0.3630;0.8219;
786.6000;0.3622;0.8141;
786.9000;0.3655;0.8271;
787.2000;0.3630;0.8141;
787.5000;0.3663;0.8219;
787.8000;0.3655;0.8116;
788.1000;0.3663;0.8141;
788.4000;0.3639;0.8116;
788.7000;0.3679;0.8219;
789.0000;0.3655;0.8167;
789.3000;0.3655;0.8297;
789.6000;0.3647;0.8219;
789.9000;0.3647;0.8271;
790.2000;0.3655;0.8349;
790.5000;0.3671;0.8349;
790.8000;0.3655;0.8297;
791.1000;0.3647;0.8297;
791.4000;0.3655;0.8219;
791.7000;0.3663;0.8193;
792.0000;0.3647;0.8245;
792.3000;0.3655;0.8245;
792.6000;0.3647;0.8297;
792.9000;0.3647;0.8349;
793.2000;0.3663;0.8349;
793.5000;0.3655;0.8297;
793.8000;0.3655;0.8297;
794.1000;0.3590;0.8064;
794.4000;0.3630;0.8090;
794.7000;0.3647;0.8193;
795.0000;0.3639;0.8297;
795.3000;0.3655;0.8375;
795.6000;0.3655;0.8401;
795.9000;0.3647;0.8401;
796.2000;0.3622;0.8271;
796.5000;0.3622;0.8297;
796.8000;0.3630;0.8323;
797.1000;0.3647;0.8349;
797.4000;0.3630;0.8297;
797.7000;0.3622;0.8323;
798.0000;0.3647;0.8349;
798.3000;0.3630;0.8349;
798.6000;0.3647;0.8375;
798.9000;0.3639;0.8271;
799.2000;0.3671;0.8349;
799.5000;0.3671;0.8323;
799.8000;0.3647;0.8193;
800.1000;0.3663;0.8245;
800.4000;0.3647;0.8271;
800.7000;0.3679;0.8375;
801.0000;0.3655;0.8349;
801.3000;0.3639;0.8401;
801.6000;0.3647;0.8427;
801.9000;0.3655;0.8323;
802.2000;0.3671;0.8349;
802.5000;0.3655;0.8297;
802.8000;0.3647;0.8245;
803.1000;0.3671;0.8297;
803.4000;0.3606;0.8193;
803.7000;0.3639;0.8323;
804.0000;0.3647;0.8323;
804.3000;0.3630;0.8323;
804.6000;0.3639;0.8323;
804.9000;0.3655;0.8349;
805.2000;0.3639;0.8271;
805.5000;0.3647;0.8297;
805.8000;0.3647;0.8271;
806.1000;0.3696;0.8323;
806.4000;0.3687;0.8349;
806.7000;0.3655;0.8271;
807.0000;0.3647;0.8219;
807.3000;0.3622;0.8219;
807.6000;0.3598;0.8193;
807.9000;0.3630;0.8297;
808.2000;0.3630;0.8297;
808.5000;0.3671;0.8245;
808.8000;0.3647;0.8167;
809.1000;0.3630;0.8167;
809.4000;0.3663;0.8297;
809.7000;0.3630;0.8219;
810.0000;0.3639;0.8167;
810.3000;0.3622;0.8167;
810.6000;0.3663;0.8219;
810.9000;0.3639;0.8116;
811.2000;0.3655;0.8167;
811.5000;0.3622;0.8219;
811.8000;0.3630;0.8245;
812.1000;0.3663;0.8245;
812.4000;0.3639;0.8193;
812.7000;0.3630;0.8064;
813.0000;0.3590;0.7908;
813.3000;0.3647;0.8116;
813.6000;0.3622;0.8141;
813.9000;0.3630;0.8167;
814.2000;0.3630;0.8167;
814.5000;0.3639;0.8141;
814.8000;0.3663;0.8219;
815.1000;0.3655;0.8245;
815.4000;0.3639;0.8116;
815.7000;0.3647;0.8193;
816.0000;0.3663;0.8219;
816.3000;0.3647;0.8141;
816.6000;0.3630;0.8116;
816.9000;0.3622;0.8193;
817.2000;0.3639;0.8193;
817.5000;0.3630;0.8193;
817.8000;0.3614;0.8141;
818.1000;0.3630;0.8141;
818.4000;0.3647;0.8141;
818.7000;0.3639;0.8167;
819.0000;0.3622;0.8167;
819.3000;0.3622;0.8167;
819.6000;0.3655;0.8090;
819.9000;0.3639;0.8090;
820.2000;0.3630;0.8141;
820.5000;0.3590;0.8141;
820.8000;0.3622;0.8245;
821.1000;0.3639;0.8271;
821.4000;0.3614;0.8116;
821.7000;0.3630;0.8167;
822.0000;0.3679;0.8323;
822.3000;0.3630;0.8219;
822.6000;0.3630;0.8219;
822.9000;0.3622;0.8323;
823.2000;0.3639;0.8479;
823.5000;0.3630;0.8453;
823.8000;0.3630;0.8479;
824.1000;0.3622;0.8504;
824.4000;0.3622;0.8504;
824.7000;0.3639;0.8556;
825.0000;0.3639;0.8556;
825.3000;0.3639;0.8608;
825.6000;0.3639;0.8530;
825.9000;0.3639;0.8556;
826.2000;0.3679;0.8608;
826.5000;0.3639;0.8504;
826.8000;0.3590;0.8479;
827.1000;0.3622;0.8504;
827.4000;0.3622;0.8427;
827.7000;0.3630;0.8479;
828.0000;0.3647;0.8479;
828.3000;0.3622;0.8453;
828.6000;0.3622;0.8530;
828.9000;0.3630;0.8453;
829.2000;0.3630;0.8427;
829.5000;0.3622;0.8401;
829.8000;0.3630;0.8323;
830.1000;0.3622;0.8271;
830.4000;0.3622;0.8375;
830.7000;0.3614;0.8401;
831.0000;0.3622;0.8401;
831.3000;0.3573;0.8219;
831.6000;0.3590;0.8323;
831.9000;0.3622;0.8427;
832.2000;0.3614;0.8349;
832.5000;0.3606;0.8271;
832.8000;0.3614;0.8219;
833.1000;0.3622;0.8271;
833.4000;0.3622;0.8349;
833.7000;0.3622;0.8271;
834.0000;0.3639;0.8271;
834.3000;0.3606;0.8090;
834.6000;0.3622;0.8193;
834.9000;0.3614;0.8245;
835.2000;0.3622;0.8271;
835.5000;0.3630;0.8245;
835.8000;0.3630;0.8193;
836.1000;0.3630;0.8219;
836.4000;0.3639;0.8297;
836.7000;0.3614;0.8297;
837.0000;0.3622;0.8349;
837.3000;0.3622;0.8375;
837.6000;0.3630;0.8401;
837.9000;0.3614;0.8401;
838.2000;0.3606;0.8323;
838.5000;0.3712;0.8582;
838.8000;0.3622;0.8323;
839.1000;0.3639;0.8323;
839.4000;0.3630;0.8245;
839.7000;0.3630;0.8219;
840.0000;0.3639;0.8297;
840.3000;0.3606;0.8323;
840.6000;0.3622;0.8297;
840.9000;0.3630;0.8245;
841.2000;0.3630;0.8219;
841.5000;0.3647;0.8297;
841.8000;0.3606;0.8141;
842.1000;0.3639;0.8090;
842.4000;0.3622;0.7908;
842.7000;0.3639;0.7908;
843.0000;0.3622;0.7934;
843.3000;0.3606;0.7882;
843.6000;0.3630;0.8064;
843.9000;0.3647;0.8064;
844.2000;0.3679;0.8167;
844.5000;0.3630;0.8064;
844.8000;0.3687;0.8323;
845.1000;0.3622;0.8141;
845.4000;0.3622;0.8116;
845.7000;0.3630;0.8141;
846.0000;0.3622;0.8141;
846.3000;0.3639;0.8219;
846.6000;0.3639;0.8167;
846.9000;0.3622;0.8141;
847.2000;0.3622;0.8090;
847.5000;0.3622;0.8116;
847.8000;0.3606;0.8038;
848.1000;0.3606;0.8038;
848.4000;0.3598;0.7960;
848.7000;0.3606;0.8012;
849.0000;0.3622;0.8038;
849.3000;0.3630;0.8064;
849.6000;0.3614;0.8064;
849.9000;0.3622;0.8090;
850.2000;0.3606;0.8064;
850.5000;0.3606;0.8090;
850.8000;0.3606;0.8116;
851.1000;0.3590;0.8090;
851.4000;0.3630;0.8116;
851.7000;0.3622;0.8116;
852.0000;0.3565;0.7960;
852.3000;0.3614;0.8090;
852.6000;0.3598;0.8038;
852.9000;0.3614;0.8064;
853.2000;0.3598;0.8064;
853.5000;0.3614;0.8090;
853.8000;0.3622;0.8038;
854.1000;0.3614;0.8090;
854.4000;0.3606;0.8090;
854.7000;0.3622;0.8219;
855.0000;0.3622;0.8219;
855.3000;0.3614;0.8116;
855.6000;0.3671;0.8271;
855.9000;0.3614;0.8245;
856.2000;0.3606;0.8245;
856.5000;0.3639;0.8245;
856.8000;0.3622;0.8167;
857.1000;0.3573;0.8090;
857.4000;0.3598;0.8141;
857.7000;0.3557;0.8090;
858.0000;0.3622;0.8167;
858.3000;0.3606;0.8141;
858.6000;0.3606;0.8090;
858.9000;0.3647;0.8167;
859.2000;0.3606;0.8193;
859.5000;0.3582;0.8167;
859.8000;0.3614;0.8219;
860.1000;0.3598;0.8193;
860.4000;0.3590;0.8219;
860.7000;0.3622;0.8401;
861.0000;0.3565;0.8349;
861.3000;0.3573;0.8323;
861.6000;0.3614;0.8375;
861.9000;0.3590;0.8245;
862.2000;0.3614;0.8219;
862.5000;0.3590;0.8167;
862.8000;0.3598;0.8297;
863.1000;0.3606;0.8297;
863.4000;0.3598;0.8245;
863.7000;0.3598;0.8271;
864.0000;0.3614;0.8245;
864.3000;0.3606;0.8193;
864.6000;0.3614;0.8167;
864.9000;0.3606;0.8167;
865.2000;0.3614;0.8219;
865.5000;0.3614;0.8271;
865.8000;0.3606;0.8271;
866.1000;0.3598;0.8245;
866.4000;0.3614;0.8323;
866.7000;0.3598;0.8167;
867.0000;0.3606;0.8193;
867.3000;0.3614;0.8245;
867.6000;0.3655;0.8297;
867.9000;0.3614;0.8219;
868.2000;0.3622;0.8245;
868.5000;0.3606;0.8219;
868.8000;0.3598;0.8271;
869.1000;0.3614;0.8349;
869.4000;0.3614;0.8375;
869.7000;0.3606;0.8323;
870.0000;0.3606;0.8219;
870.3000;0.3606;0.8167;
870.6000;0.3598;0.8116;
870.9000;0.3614;0.8193;
871.2000;0.3598;0.8038;
871.5000;0.3614;0.8116;
871.8000;0.3606;0.8141;
872.1000;0.3606;0.8141;
872.4000;0.3590;0.8116;
872.7000;0.3590;0.8167;
873.0000;0.3606;0.8245;
873.3000;0.3630;0.8245;
873.6000;0.3582;0.8116;
873.9000;0.3712;0.8453;
874.2000;0.3582;0.8064;
874.5000;0.3655;0.8193;
874.8000;0.3573;0.7882;
875.1000;0.3606;0.7934;
875.4000;0.3598;0.7882;
875.7000;0.3582;0.7856;
876.0000;0.3663;0.8090;
876.3000;0.3606;0.8012;
876.6000;0.3606;0.8038;
876.9000;0.3614;0.8064;
877.2000;0.3630;0.8064;
877.5000;0.3712;0.8349;
877.8000;0.3622;0.8116;
878.1000;0.3598;0.8141;
878.4000;0.3598;0.8141;
878.7000;0.3565;0.8012;
879.0000;0.3606;0.8193;
879.3000;0.3606;0.8245;
879.6000;0.3614;0.8375;
879.9000;0.3614;0.8349;
880.2000;0.3606;0.8297;
880.5000;0.3549;0.8090;
880.8000;0.3606;0.8193;
881.1000;0.3630;0.8219;
881.4000;0.3663;0.8375;
881.7000;0.3630;0.8271;
882.0000;0.3606;0.8219;
882.3000;0.3598;0.8090;
882.6000;0.3606;0.8116;
882.9000;0.3598;0.8064;
883.2000;0.3614;0.8038;
883.5000;0.3606;0.8141;
883.8000;0.3606;0.8219;
884.1000;0.3582;0.8193;
884.4000;0.3622;0.8297;
884.7000;0.3606;0.8271;
885.0000;0.3606;0.8245;
885.3000;0.3590;0.8167;
885.6000;0.3622;0.8141;
885.9000;0.3606;0.8141;
886.2000;0.3606;0.8116;
886.5000;0.3565;0.8116;
886.8000;0.3598;0.8245;
887.1000;0.3614;0.8297;
887.4000;0.3598;0.8219;
887.7000;0.3582;0.8193;
888.0000;0.3590;0.8219;
888.3000;0.3606;0.8193;
888.6000;0.3598;0.8116;
888.9000;0.3541;0.7960;
889.2000;0.3590;0.8167;
889.5000;0.3606;0.8245;
889.8000;0.3606;0.8193;
890.1000;0.3590;0.8271;
890.4000;0.3614;0.8245;
890.7000;0.3598;0.8219;
891.0000;0.3598;0.8245;
891.3000;0.3590;0.8167;
891.6000;0.3565;0.8167;
891.9000;0.3606;0.8271;
892.2000;0.3606;0.8323;
892.5000;0.3606;0.8297;
892.8000;0.3590;0.8349;
893.1000;0.3590;0.8349;
893.4000;0.3606;0.8401;
893.7000;0.3606;0.8504;
894.0000;0.3598;0.8453;
894.3000;0.3598;0.8504;
894.6000;0.3614;0.8556;
894.9000;0.3598;0.8427;
895.2000;0.3606;0.8530;
895.5000;0.3598;0.8556;
895.8000;0.3614;0.8582;
896.1000;0.3606;0.8504;
896.4000;0.3590;0.8375;
896.7000;0.3582;0.8245;
897.0000;0.3606;0.8297;
897.3000;0.3614;0.8349;
897.6000;0.3582;0.8375;
897.9000;0.3590;0.8349;
898.2000;0.3508;0.8141;
898.5000;0.3639;0.8556;
898.8000;0.3598;0.8453;
899.1000;0.3573;0.8271;
899.4000;0.3557;0.8271;
899.7000;0.3622;0.8453;
900.0000;0.3573;0.8323;
900.3000;0.3565;0.8245;
900.6000;0.3590;0.8297;
900.9000;0.3606;0.8297;
901.2000;0.3533;0.8090;
901.5000;0.3582;0.8219;
901.8000;0.3582;0.8297;
902.1000;0.3598;0.8323;
902.4000;0.3582;0.8271;
902.7000;0.3590;0.8349;
903.0000;0.3598;0.8375;
903.3000;0.3598;0.8453;
903.6000;0.3614;0.8504;
903.9000;0.3606;0.8479;
904.2000;0.3590;0.8504;
904.5000;0.3598;0.8427;
904.8000;0.3598;0.8427;
905.1000;0.3598;0.8401;
905.4000;0.3590;0.8375;
905.7000;0.3598;0.8349;
906.0000;0.3598;0.8375;
906.3000;0.3582;0.8323;
906.6000;0.3598;0.8323;
906.9000;0.3582;0.8271;
907.2000;0.3590;0.8323;
907.5000;0.3582;0.8323;
907.8000;0.3598;0.8271;
908.1000;0.3533;0.8038;
908.4000;0.3655;0.8375;
908.7000;0.3622;0.8297;
909.0000;0.3614;0.8271;
909.3000;0.3622;0.8323;
909.6000;0.3598;0.8245;
909.9000;0.3606;0.8167;
910.2000;0.3598;0.8116;
910.5000;0.3598;0.8090;
910.8000;0.3598;0.8193;
911.1000;0.3598;0.8245;
911.4000;0.3630;0.8297;
911.7000;0.3598;0.8245;
912.0000;0.3590;0.8349;
912.3000;0.3582;0.8323;
912.6000;0.3590;0.8271;
912.9000;0.3598;0.8349;
913.2000;0.3582;0.8427;
913.5000;0.3582;0.8427;
913.8000;0.3582;0.8453;
914.1000;0.3598;0.8427;
914.4000;0.3582;0.8375;
914.7000;0.3630;0.8479;
915.0000;0.3565;0.8323;
915.3000;0.3573;0.8375;
915.6000;0.3573;0.8349;
915.9000;0.3590;0.8323;
916.2000;0.3590;0.8349;
916.5000;0.3647;0.8530;
916.8000;0.3565;0.8245;
917.1000;0.3582;0.8323;
917.4000;0.3590;0.8375;
917.7000;0.3598;0.8401;
918.0000;0.3598;0.8349;
918.3000;0.3582;0.8271;
918.6000;0.3590;0.8297;
918.9000;0.3630;0.8479;
919.2000;0.3598;0.8427;
919.5000;0.3598;0.8453;
919.8000;0.3606;0.8479;
920.1000;0.3598;0.8401;
920.4000;0.3606;0.8375;
920.7000;0.3598;0.8297;
921.0000;0.3582;0.8245;
921.3000;0.3606;0.8401;
921.6000;0.3606;0.8504;
921.9000;0.3582;0.8479;
922.2000;0.3590;0.8479;
922.5000;0.3606;0.8530;
922.8000;0.3590;0.8504;
923.1000;0.3533;0.8349;
923.4000;0.3704;0.8867;
923.7000;0.3598;0.8530;
924.0000;0.3606;0.8479;
924.3000;0.3598;0.8530;
924.6000;0.3541;0.8375;
924.9000;0.3573;0.8401;
925.2000;0.3590;0.8349;
925.5000;0.3630;0.8453;
925.8000;0.3582;0.8349;
926.1000;0.3573;0.8375;
926.4000;0.3582;0.8401;
926.7000;0.3590;0.8453;
927.0000;0.3582;0.8323;
927.3000;0.3573;0.8245;
927.6000;0.3573;0.8193;
927.9000;0.3622;0.8349;
928.2000;0.3590;0.8271;
928.5000;0.3573;0.8141;
928.8000;0.3590;0.8245;
929.1000;0.3598;0.8245;
929.4000;0.3598;0.8271;
929.7000;0.3590;0.8323;
930.0000;0.3590;0.8219;
930.3000;0.3598;0.8167;
930.6000;0.3622;0.8167;
930.9000;0.3606;0.8193;
931.2000;0.3590;0.8116;
931.5000;0.3606;0.8193;
931.8000;0.3590;0.8038;
932.1000;0.3590;0.8038;
932.4000;0.3533;0.7778;
932.7000;0.3598;0.7934;
933.0000;0.3663;0.8141;
933.3000;0.3630;0.8116;
933.6000;0.3582;0.7986;
933.9000;0.3590;0.8038;
934.2000;0.3598;0.8090;
934.5000;0.3614;0.8141;
934.8000;0.3614;0.8271;
935.1000;0.3582;0.8167;
935.4000;0.3590;0.8116;
935.7000;0.3582;0.8090;
936.0000;0.3598;0.8271;
936.3000;0.3606;0.8375;
936.6000;0.3598;0.8401;
936.9000;0.3590;0.8323;
937.2000;0.3582;0.8245;
937.5000;0.3590;0.8219;
937.8000;0.3573;0.8193;
938.1000;0.3590;0.8271;
938.4000;0.3573;0.8271;
938.7000;0.3573;0.8245;
939.0000;0.3582;0.8219;
939.3000;0.3663;0.8504;
939.6000;0.3582;0.8323;
939.9000;0.3590;0.8297;
940.2000;0.3598;0.8245;
940.5000;0.3590;0.8167;
940.8000;0.3590;0.8193;
941.1000;0.3565;0.8116;
941.4000;0.3573;0.8219;
941.7000;0.3598;0.8219;
942.0000;0.3647;0.8401;
942.3000;0.3606;0.8219;
942.6000;0.3598;0.8167;
942.9000;0.3598;0.8167;
943.2000;0.3590;0.8245;
943.5000;0.3582;0.8167;
943.8000;0.3606;0.8245;
944.1000;0.3590;0.8193;
944.4000;0.3606;0.8219;
944.7000;0.3590;0.8141;
945.0000;0.3598;0.8167;
945.3000;0.3573;0.8167;
945.6000;0.3598;0.8141;
945.9000;0.3582;0.8193;
946.2000;0.3590;0.8141;
946.5000;0.3622;0.8219;
946.8000;0.3614;0.8271;
947.1000;0.3598;0.8167;
947.4000;0.3573;0.8038;
947.7000;0.3679;0.8375;
948.0000;0.3590;0.8116;
948.3000;0.3590;0.8167;
948.6000;0.3598;0.8193;
948.9000;0.3590;0.8167;
949.2000;0.3582;0.8141;
949.5000;0.3573;0.8116;
949.8000;0.3614;0.8271;
950.1000;0.3590;0.8193;
950.4000;0.3598;0.8245;
950.7000;0.3582;0.8193;
951.0000;0.3598;0.8271;
951.3000;0.3647;0.8427;
951.6000;0.3573;0.8064;
951.9000;0.3598;0.8141;
952.2000;0.3590;0.8193;
952.5000;0.3557;0.8219;
952.8000;0.3582;0.8349;
953.1000;0.3557;0.8245;
953.4000;0.3582;0.8349;
953.7000;0.3590;0.8297;
954.0000;0.3549;0.8116;
954.3000;0.3590;0.8038;
954.6000;0.3590;0.8090;
954.9000;0.3582;0.8245;
955.2000;0.3590;0.8245;
955.5000;0.3590;0.8271;
955.8000;0.3590;0.8219;
956.1000;0.3598;0.8116;
956.4000;0.3598;0.8090;
956.7000;0.3598;0.8219;
957.0000;0.3582;0.8219;
957.3000;0.3590;0.8116;
957.6000;0.3590;0.8116;
957.9000;0.3582;0.8038;
958.2000;0.3606;0.8141;
958.5000;0.3606;0.8271;
958.8000;0.3590;0.8271;
959.1000;0.3573;0.8219;
959.4000;0.3573;0.8245;
959.7000;0.3582;0.8245;
960.0000;0.3590;0.8116;
960.3000;0.3590;0.8219;
960.6000;0.3573;0.8090;
960.9000;0.3565;0.8167;
961.2000;0.3582;0.8193;
961.5000;0.3557;0.8064;
961.8000;0.3582;0.8090;
962.1000;0.3565;0.8090;
962.4000;0.3565;0.8245;
962.7000;0.3557;0.8116;
963.0000;0.3573;0.8167;
963.3000;0.3582;0.8271;
963.6000;0.3590;0.8271;
963.9000;0.3565;0.8245;
964.2000;0.3565;0.8245;
964.5000;0.3573;0.8245;
964.8000;0.3598;0.8297;
965.1000;0.3516;0.8064;
965.4000;0.3582;0.8167;
965.7000;0.3582;0.8219;
966.0000;0.3573;0.8141;
966.3000;0.3557;0.8038;
966.6000;0.3573;0.8167;
966.9000;0.3582;0.8193;
967.2000;0.3606;0.8193;
967.5000;0.3590;0.8090;
967.8000;0.3582;0.8090;
968.1000;0.3582;0.8219;
968.4000;0.3557;0.8193;
968.7000;0.3598;0.8271;
969.0000;0.3606;0.8271;
969.3000;0.3557;0.8141;
969.6000;0.3590;0.8116;
969.9000;0.3590;0.8193;
970.2000;0.3663;0.8427;
970.5000;0.3582;0.8245;
970.8000;0.3590;0.8349;
971.1000;0.3598;0.8375;
971.4000;0.3573;0.8297;
971.7000;0.3582;0.8271;
972.0000;0.3565;0.8245;
972.3000;0.3573;0.8271;
972.6000;0.3573;0.8297;
972.9000;0.3573;0.8271;
973.2000;0.3557;0.8193;
973.5000;0.3606;0.8375;
973.8000;0.3606;0.8297;
974.1000;0.3573;0.8193;
974.4000;0.3573;0.8141;
974.7000;0.3582;0.8090;
975.0000;0.3614;0.8116;
975.3000;0.3525;0.7960;
975.6000;0.3590;0.8090;
975.9000;0.3582;0.8012;
976.2000;0.3590;0.7960;
976.5000;0.3614;0.8012;
976.8000;0.3573;0.7882;
977.1000;0.3590;0.8012;
977.4000;0.3565;0.8064;
977.7000;0.3598;0.8193;
978.0000;0.3557;0.8116;
978.3000;0.3573;0.8167;
978.6000;0.3590;0.8116;
978.9000;0.3590;0.8193;
979.2000;0.3573;0.8116;
979.5000;0.3565;0.8090;
979.8000;0.3582;0.8116;
980.1000;0.3582;0.8116;
980.4000;0.3565;0.8064;
980.7000;0.3590;0.8038;
981.0000;0.3606;0.8038;
981.3000;0.3541;0.7830;
981.6000;0.3582;0.8116;
981.9000;0.3590;0.8090;
982.2000;0.3614;0.8167;
982.5000;0.3590;0.8116;
982.8000;0.3582;0.8064;
983.1000;0.3606;0.8167;
983.4000;0.3598;0.8116;
983.7000;0.3582;0.8141;
984.0000;0.3590;0.8141;
984.3000;0.3614;0.8245;
984.6000;0.3549;0.8012;
984.9000;0.3573;0.8141;
985.2000;0.3565;0.8116;
985.5000;0.3573;0.8038;
985.8000;0.3598;0.8038;
986.1000;0.3582;0.8038;
986.4000;0.3582;0.8038;
986.7000;0.3663;0.8349;
987.0000;0.3582;0.8167;
987.3000;0.3565;0.8193;
987.6000;0.3598;0.8297;
987.9000;0.3525;0.8064;
988.2000;0.3557;0.8141;
988.5000;0.3582;0.8193;
988.8000;0.3573;0.8141;
989.1000;0.3582;0.8116;
989.4000;0.3565;0.8116;
989.7000;0.3565;0.8038;
990.0000;0.3598;0.8167;
990.3000;0.3582;0.8038;
990.6000;0.3606;0.8116;
990.9000;0.3582;0.8012;
991.2000;0.3655;0.8219;
991.5000;0.3647;0.8090;
991.8000;0.3590;0.7986;
992.1000;0.3533;0.7856;
992.4000;0.3598;0.7986;
992.7000;0.3590;0.7908;
993.0000;0.3590;0.7882;
993.3000;0.3590;0.7934;
993.6000;0.3565;0.7804;
993.9000;0.3582;0.7856;
994.2000;0.3687;0.8219;
994.5000;0.3582;0.8064;
994.8000;0.3582;0.8012;
995.1000;0.3639;0.8193;
995.4000;0.3590;0.8038;
995.7000;0.3549;0.7934;
996.0000;0.3590;0.7960;
996.3000;0.3573;0.8012;
996.6000;0.3573;0.8012;
996.9000;0.3573;0.7986;
997.2000;0.3582;0.8064;
997.5000;0.3573;0.8090;
997.8000;0.3590;0.8064;
998.1000;0.3582;0.7986;
998.4000;0.3606;0.8141;
998.7000;0.3582;0.8064;
999.0000;0.3573;0.8064;
999.3000;0.3590;0.8064;
999.6000;0.3557;0.7986;
999.9000;0.3582;0.7986;
1000.2000;0.3573;0.7960;
1000.5000;0.3573;0.8012;
1000.8000;0.3557;0.7908;
1001.1000;0.3565;0.7908;
1001.4000;0.3573;0.7882;
1001.7000;0.3582;0.7934;
1002.0000;0.3565;0.8012;
1002.3000;0.3565;0.7986;
1002.6000;0.3565;0.7934;
1002.9000;0.3565;0.7934;
1003.2000;0.3549;0.7934;
1003.5000;0.3541;0.7960;
1003.8000;0.3630;0.8245;
1004.1000;0.3573;0.8116;
1004.4000;0.3565;0.8116;
1004.7000;0.3582;0.8141;
1005.0000;0.3573;0.8141;
1005.3000;0.3590;0.8167;
1005.6000;0.3582;0.8116;
1005.9000;0.3573;0.8193;
1006.2000;0.3525;0.7986;
1006.5000;0.3565;0.8064;
1006.8000;0.3639;0.8219;
1007.1000;0.3582;0.8167;
1007.4000;0.3557;0.8141;
1007.7000;0.3557;0.8116;
1008.0000;0.3565;0.8090;
1008.3000;0.3492;0.7882;
1008.6000;0.3565;0.7986;
1008.9000;0.3516;0.7753;
1009.2000;0.3582;0.8012;
1009.5000;0.3582;0.7986;
1009.8000;0.3508;0.7830;
1010.1000;0.3565;0.7986;
1010.4000;0.3557;0.8038;
1010.7000;0.3582;0.8116;
1011.0000;0.3655;0.8375;
1011.3000;0.3582;0.8193;
1011.6000;0.3565;0.8141;
1011.9000;0.3541;0.8064;
1012.2000;0.3557;0.8090;
1012.5000;0.3557;0.8090;
1012.8000;0.3573;0.8193;
1013.1000;0.3565;0.8245;
1013.4000;0.3565;0.8271;
1013.7000;0.3598;0.8349;
1014.0000;0.3565;0.8297;
1014.3000;0.3582;0.8349;
1014.6000;0.3549;0.8323;
1014.9000;0.3573;0.8323;
1015.2000;0.3500;0.8141;
1015.5000;0.3606;0.8375;
1015.8000;0.3565;0.8219;
1016.1000;0.3516;0.8141;
1016.4000;0.3565;0.8193;
1016.7000;0.3565;0.8245;
1017.0000;0.3573;0.8219;
1017.3000;0.3622;0.8323;
1017.6000;0.3533;0.8090;
1017.9000;0.3557;0.8141;
1018.2000;0.3614;0.8349;
1018.5000;0.3573;0.8245;
1018.8000;0.3557;0.8193;
1019.1000;0.3573;0.8219;
1019.4000;0.3573;0.8116;
1019.7000;0.3573;0.8141;
1020.0000;0.3573;0.8064;
1020.3000;0.3573;0.8090;
1020.6000;0.3573;0.8090;
1020.9000;0.3582;0.8167;
1021.2000;0.3622;0.8349;
1021.5000;0.3565;0.8323;
1021.8000;0.3565;0.8401;
1022.1000;0.3565;0.8427;
1022.4000;0.3557;0.8375;
1022.7000;0.3565;0.8323;
1023.0000;0.3590;0.8349;
1023.3000;0.3573;0.8323;
1023.6000;0.3573;0.8297;
1023.9000;0.3549;0.8297;
1024.2000;0.3565;0.8271;
1024.5000;0.3573;0.8323;
1024.8000;0.3573;0.8323;
1025.1000;0.3573;0.8297;
1025.4000;0.3565;0.8297;
1025.7000;0.3565;0.8271;
1026.0000;0.3565;0.8219;
1026.3000;0.3582;0.8219;
1026.6000;0.3573;0.8219;
1026.9000;0.3573;0.8193;
1027.2000;0.3582;0.8271;
1027.5000;0.3557;0.8245;
1027.8000;0.3573;0.8297;
1028.1000;0.3557;0.8245;
1028.4000;0.3557;0.8193;
1028.7000;0.3582;0.8193;
1029.0000;0.3573;0.8193;
1029.3000;0.3565;0.8141;
1029.6000;0.3565;0.8141;
1029.9000;0.3565;0.8245;
1030.2000;0.3606;0.8323;
1030.5000;0.3573;0.8193;
1030.8000;0.3573;0.8167;
1031.1000;0.3590;0.8193;
1031.4000;0.3557;0.8219;
1031.7000;0.3630;0.8349;
1032.0000;0.3565;0.8090;
1032.3000;0.3549;0.8038;
1032.6000;0.3549;0.8038;
1032.9000;0.3541;0.7986;
1033.2000;0.3565;0.7986;
1033.5000;0.3582;0.8064;
1033.8000;0.3557;0.8012;
1034.1000;0.3533;0.8012;
1034.4000;0.3573;0.8090;
1034.7000;0.3508;0.7856;
1035.0000;0.3565;0.7960;
1035.3000;0.3573;0.8038;
1035.6000;0.3573;0.8038;
1035.9000;0.3590;0.8167;
1036.2000;0.3582;0.8323;
1036.5000;0.3565;0.8349;
1036.8000;0.3492;0.8167;
1037.1000;0.3573;0.8349;
1037.4000;0.3582;0.8323;
1037.7000;0.3557;0.8219;
1038.0000;0.3557;0.8219;
1038.3000;0.3573;0.8167;
1038.6000;0.3565;0.8141;
1038.9000;0.3565;0.8193;
1039.2000;0.3516;0.8167;
1039.5000;0.3541;0.8349;
1039.8000;0.3573;0.8375;
1040.1000;0.3573;0.8323;
1040.4000;0.3549;0.8219;
1040.7000;0.3573;0.8323;
1041.0000;0.3582;0.8453;
1041.3000;0.3565;0.8375;
1041.6000;0.3565;0.8297;
1041.9000;0.3573;0.8271;
1042.2000;0.3590;0.8323;
1042.5000;0.3573;0.8323;
1042.8000;0.3573;0.8297;
1043.1000;0.3557;0.8271;
1043.4000;0.3565;0.8219;
1043.7000;0.3565;0.8219;
1044.0000;0.3557;0.8167;
1044.3000;0.3549;0.8167;
1044.6000;0.3508;0.8090;
1044.9000;0.3565;0.8245;
1045.2000;0.3565;0.8271;
1045.5000;0.3573;0.8271;
1045.8000;0.3565;0.8193;
1046.1000;0.3549;0.8141;
1046.4000;0.3573;0.8271;
1046.7000;0.3573;0.8193;
1047.0000;0.3557;0.8116;
1047.3000;0.3614;0.8245;
1047.6000;0.3582;0.8167;
1047.9000;0.3549;0.8116;
1048.2000;0.3565;0.8116;
1048.5000;0.3573;0.8038;
1048.8000;0.3557;0.7986;
1049.1000;0.3565;0.7960;
1049.4000;0.3582;0.8012;
1049.7000;0.3573;0.8012;
1050.0000;0.3565;0.8038;
1050.3000;0.3557;0.8167;
1050.6000;0.3565;0.8141;
1050.9000;0.3582;0.8167;
1051.2000;0.3590;0.8116;
1051.5000;0.3565;0.8141;
1051.8000;0.3557;0.8064;
1052.1000;0.3582;0.8245;
1052.4000;0.3565;0.8219;
1052.7000;0.3549;0.8245;
1053.0000;0.3557;0.8245;
1053.3000;0.3590;0.8271;
1053.6000;0.3533;0.8167;
1053.9000;0.3525;0.8141;
1054.2000;0.3573;0.8271;
1054.5000;0.3557;0.8219;
1054.8000;0.3565;0.8167;
1055.1000;0.3573;0.8219;
1055.4000;0.3557;0.8297;
1055.7000;0.3565;0.8297;
1056.0000;0.3590;0.8401;
1056.3000;0.3590;0.8401;
1056.6000;0.3639;0.8660;
1056.9000;0.3573;0.8401;
1057.2000;0.3525;0.8245;
1057.5000;0.3565;0.8271;
1057.8000;0.3573;0.8245;
1058.1000;0.3573;0.8193;
1058.4000;0.3565;0.8141;
1058.7000;0.3582;0.8167;
1059.0000;0.3549;0.8090;
1059.3000;0.3557;0.8245;
1059.6000;0.3565;0.8271;
1059.9000;0.3549;0.8349;
1060.2000;0.3525;0.8219;
1060.5000;0.3590;0.8479;
1060.8000;0.3541;0.8271;
1061.1000;0.3533;0.8167;
1061.4000;0.3573;0.8219;
1061.7000;0.3565;0.8116;
1062.0000;0.3565;0.8141;
1062.3000;0.3549;0.8038;
1062.6000;0.3582;0.8141;
1062.9000;0.3541;0.8090;
1063.2000;0.3549;0.8116;
1063.5000;0.3557;0.8090;
1063.8000;0.3557;0.8116;
1064.1000;0.3549;0.8012;
1064.4000;0.3557;0.8038;
1064.7000;0.3557;0.8038;
1065.0000;0.3614;0.8193;
1065.3000;0.3549;0.7934;
1065.6000;0.3573;0.7960;
1065.9000;0.3533;0.7934;
1066.2000;0.3565;0.8116;
1066.5000;0.3565;0.8167;
1066.8000;0.3549;0.8090;
1067.1000;0.3549;0.8012;
1067.4000;0.3557;0.8090;
1067.7000;0.3549;0.8064;
1068.0000;0.3541;0.8064;
1068.3000;0.3516;0.7960;
1068.6000;0.3533;0.8064;
1068.9000;0.3557;0.8141;
1069.2000;0.3549;0.8064;
1069.5000;0.3549;0.8090;
1069.8000;0.3557;0.8297;
1070.1000;0.3573;0.8271;
1070.4000;0.3549;0.8297;
1070.7000;0.3557;0.8349;
1071.0000;0.3549;0.8297;
1071.3000;0.3614;0.8375;
1071.6000;0.3565;0.8167;
1071.9000;0.3565;0.8141;
1072.2000;0.3565;0.8167;
1072.5000;0.3549;0.8064;
1072.8000;0.3549;0.8116;
1073.1000;0.3565;0.8141;
1073.4000;0.3541;0.7960;
1073.7000;0.3549;0.8038;
1074.0000;0.3565;0.8141;
1074.3000;0.3573;0.8219;
1074.6000;0.3557;0.8245;
1074.9000;0.3508;0.8219;
1075.2000;0.3606;0.8375;
1075.5000;0.3573;0.8297;
1075.8000;0.3590;0.8375;
1076.1000;0.3549;0.8297;
1076.4000;0.3557;0.8271;
1076.7000;0.3573;0.8323;
1077.0000;0.3549;0.8193;
1077.3000;0.3565;0.8219;
1077.6000;0.3565;0.8297;
1077.9000;0.3573;0.8271;
1078.2000;0.3565;0.8271;
1078.5000;0.3549;0.8271;
1078.8000;0.3557;0.8167;
1079.1000;0.3508;0.8038;
1079.4000;0.3573;0.8193;
1079.7000;0.3614;0.8349;
1080.0000;0.3557;0.8349;
1080.3000;0.3557;0.8245;
1080.6000;0.3606;0.8401;
1080.9000;0.3557;0.8297;
1081.2000;0.3582;0.8323;
1081.5000;0.3557;0.8245;
1081.8000;0.3582;0.8245;
1082.1000;0.3549;0.8090;
1082.4000;0.3590;0.8012;
1082.7000;0.3549;0.7986;
1083.0000;0.3525;0.7908;
1083.3000;0.3549;0.8038;
1083.6000;0.3565;0.8038;
1083.9000;0.3557;0.8193;
1084.2000;0.3549;0.8116;
1084.5000;0.3541;0.8038;
1084.8000;0.3549;0.8116;
1085.1000;0.3573;0.8193;
1085.4000;0.3582;0.8219;
1085.7000;0.3557;0.8141;
1086.0000;0.3549;0.8038;
1086.3000;0.3541;0.8012;
1086.6000;0.3590;0.8141;
1086.9000;0.3541;0.8012;
1087.2000;0.3516;0.7908;
1087.5000;0.3549;0.8064;
1087.8000;0.3549;0.8116;
1088.1000;0.3533;0.8012;
1088.4000;0.3525;0.7986;
1088.7000;0.3549;0.8038;
1089.0000;0.3476;0.7856;
1089.3000;0.3598;0.8090;
1089.6000;0.3606;0.8064;
1089.9000;0.3557;0.7882;
1090.2000;0.3565;0.7934;
1090.5000;0.3573;0.7908;
1090.8000;0.3565;0.7856;
1091.1000;0.3565;0.7753;
1091.4000;0.3557;0.7934;
1091.7000;0.3549;0.7960;
1092.0000;0.3549;0.8012;
1092.3000;0.3533;0.8012;
1092.6000;0.3549;0.8064;
1092.9000;0.3573;0.8141;
1093.2000;0.3533;0.8090;
1093.5000;0.3573;0.8090;
1093.8000;0.3533;0.7934;
1094.1000;0.3541;0.7986;
1094.4000;0.3582;0.8064;
1094.7000;0.3549;0.7986;
1095.0000;0.3549;0.8090;
1095.3000;0.3549;0.8064;
1095.6000;0.3573;0.8090;
1095.9000;0.3565;0.8064;
1096.2000;0.3582;0.8064;
1096.5000;0.3557;0.7960;
1096.8000;0.3565;0.7882;
1097.1000;0.3565;0.7986;
1097.4000;0.3573;0.7882;
1097.7000;0.3549;0.7882;
1098.0000;0.3565;0.7934;
1098.3000;0.3557;0.7882;
1098.6000;0.3549;0.7934;
1098.9000;0.3557;0.7908;
1099.2000;0.3541;0.7934;
1099.5000;0.3557;0.8090;
1099.8000;0.3557;0.8116;
1100.1000;0.3565;0.8064;
1100.4000;0.3541;0.8064;
1100.7000;0.3451;0.7778;
1101.0000;0.3565;0.8090;
1101.3000;0.3565;0.8038;
1101.6000;0.3590;0.8116;
1101.9000;0.3541;0.7960;
1102.2000;0.3508;0.7778;
1102.5000;0.3549;0.7856;
1102.8000;0.3549;0.7856;
1103.1000;0.3565;0.7882;
1103.4000;0.3557;0.7986;
1103.7000;0.3549;0.7986;
1104.0000;0.3565;0.8038;
1104.3000;0.3533;0.8012;
1104.6000;0.3557;0.8064;
1104.9000;0.3557;0.8090;
1105.2000;0.3525;0.8012;
1105.5000;0.3557;0.8141;
1105.8000;0.3573;0.8141;
1106.1000;0.3549;0.8167;
1106.4000;0.3549;0.8141;
1106.7000;0.3557;0.8245;
1107.0000;0.3525;0.8167;
1107.3000;0.3565;0.8297;
1107.6000;0.3557;0.8219;
1107.9000;0.3549;0.8090;
1108.2000;0.3541;0.8012;
1108.5000;0.3541;0.8038;
1108.8000;0.3557;0.8064;
1109.1000;0.3525;0.7934;
1109.4000;0.3582;0.8141;
1109.7000;0.3557;0.8012;
1110.0000;0.3565;0.8090;
1110.3000;0.3541;0.8090;
1110.6000;0.3573;0.8193;
1110.9000;0.3549;0.8141;
1111.2000;0.3541;0.8064;
1111.5000;0.3549;0.8167;
1111.8000;0.3533;0.8090;
1112.1000;0.3590;0.8167;
1112.4000;0.3573;0.8012;
1112.7000;0.3557;0.7960;
1113.0000;0.3549;0.7882;
1113.3000;0.3557;0.8064;
1113.6000;0.3549;0.8064;
1113.9000;0.3557;0.8116;
1114.2000;0.3549;0.7986;
1114.5000;0.3630;0.8116;
1114.8000;0.3557;0.8038;
1115.1000;0.3557;0.8116;
1115.4000;0.3516;0.7960;
1115.7000;0.3549;0.8038;
1116.0000;0.3565;0.8012;
1116.3000;0.3557;0.7960;
1116.6000;0.3541;0.7908;
1116.9000;0.3549;0.7960;
1117.2000;0.3557;0.8012;
1117.5000;0.3549;0.7986;
1117.8000;0.3549;0.7986;
1118.1000;0.3541;0.7908;
1118.4000;0.3565;0.7856;
1118.7000;0.3557;0.7830;
1119.0000;0.3565;0.7804;
1119.3000;0.3565;0.7830;
1119.6000;0.3582;0.7882;
1119.9000;0.3590;0.7908;
1120.2000;0.3549;0.7856;
1120.5000;0.3541;0.7830;
1120.8000;0.3565;0.7960;
1121.1000;0.3549;0.7960;
1121.4000;0.3516;0.7830;
1121.7000;0.3590;0.7960;
1122.0000;0.3565;0.7934;
1122.3000;0.3573;0.8064;
1122.6000;0.3557;0.7934;
1122.9000;0.3541;0.7908;
1123.2000;0.3557;0.7986;
1123.5000;0.3573;0.7960;
1123.8000;0.3557;0.7986;
1124.1000;0.3598;0.8090;
1124.4000;0.3565;0.8038;
1124.7000;0.3557;0.8116;
1125.0000;0.3590;0.8193;
1125.3000;0.3549;0.8090;
1125.6000;0.3557;0.8193;
1125.9000;0.3541;0.8116;
1126.2000;0.3500;0.8012;
1126.5000;0.3557;0.8141;
1126.8000;0.3573;0.8167;
1127.1000;0.3533;0.8012;
1127.4000;0.3573;0.8012;
1127.7000;0.3516;0.7882;
1128.0000;0.3549;0.7908;
1128.3000;0.3541;0.7934;
1128.6000;0.3549;0.7908;
1128.9000;0.3533;0.7934;
1129.2000;0.3549;0.7960;
1129.5000;0.3549;0.8012;
1129.8000;0.3549;0.8012;
1130.1000;0.3565;0.8064;
1130.4000;0.3557;0.8064;
1130.7000;0.3557;0.7960;
1131.0000;0.3557;0.7856;
1131.3000;0.3549;0.7934;
1131.6000;0.3565;0.7934;
1131.9000;0.3549;0.7934;
1132.2000;0.3565;0.7908;
1132.5000;0.3557;0.7856;
1132.8000;0.3557;0.7830;
1133.1000;0.3557;0.7804;
1133.4000;0.3565;0.7856;
1133.7000;0.3573;0.7908;
1134.0000;0.3549;0.7830;
1134.3000;0.3557;0.7934;
1134.6000;0.3573;0.7960;
1134.9000;0.3582;0.7934;
1135.2000;0.3549;0.7830;
1135.5000;0.3492;0.7649;
1135.8000;0.3565;0.7856;
1136.1000;0.3573;0.7830;
1136.4000;0.3614;0.7908;
1136.7000;0.3549;0.7727;
1137.0000;0.3541;0.7649;
1137.3000;0.3582;0.7753;
1137.6000;0.3557;0.7804;
1137.9000;0.3549;0.7804;
1138.2000;0.3557;0.7882;
1138.5000;0.3549;0.7908;
1138.8000;0.3557;0.7934;
1139.1000;0.3541;0.7882;
1139.4000;0.3541;0.7960;
1139.7000;0.3557;0.7908;
1140.0000;0.3557;0.7882;
1140.3000;0.3565;0.7960;
1140.6000;0.3541;0.7934;
1140.9000;0.3557;0.7960;
1141.2000;0.3565;0.8038;
1141.5000;0.3557;0.8090;
1141.8000;0.3541;0.7960;
1142.1000;0.3565;0.7986;
1142.4000;0.3541;0.7908;
1142.7000;0.3582;0.7960;
1143.0000;0.3565;0.7960;
1143.3000;0.3565;0.7934;
1143.6000;0.3565;0.8012;
1143.9000;0.3565;0.8064;
1144.2000;0.3549;0.7960;
1144.5000;0.3573;0.8038;
1144.8000;0.3557;0.7986;
1145.1000;0.3549;0.7856;
1145.4000;0.3598;0.7934;
1145.7000;0.3557;0.7856;
1146.0000;0.3557;0.7856;
1146.3000;0.3549;0.7830;
1146.6000;0.3557;0.7986;
1146.9000;0.3565;0.7986;
1147.2000;0.3516;0.7882;
1147.5000;0.3573;0.8012;
1147.8000;0.3573;0.8038;
1148.1000;0.3525;0.7908;
1148.4000;0.3573;0.8012;
1148.7000;0.3573;0.7986;
1149.0000;0.3565;0.8064;
1149.3000;0.3565;0.8038;
1149.6000;0.3606;0.8012;
1149.9000;0.3541;0.7727;
1150.2000;0.3565;0.7753;
1150.5000;0.3549;0.7753;
1150.8000;0.3549;0.7701;
1151.1000;0.3573;0.7701;
1151.4000;0.3557;0.7753;
1151.7000;0.3549;0.7830;
1152.0000;0.3549;0.7804;
1152.3000;0.3549;0.7882;
1152.6000;0.3573;0.7986;
1152.9000;0.3573;0.8012;
1153.2000;0.3549;0.7934;
1153.5000;0.3549;0.7882;
1153.8000;0.3549;0.7960;
1154.1000;0.3565;0.8012;
1154.4000;0.3565;0.7986;
1154.7000;0.3549;0.7908;
1155.0000;0.3565;0.7830;
1155.3000;0.3557;0.7882;
1155.6000;0.3565;0.7934;
1155.9000;0.3549;0.8038;
1156.2000;0.3541;0.8064;
1156.5000;0.3573;0.8116;
1156.8000;0.3565;0.8090;
1157.1000;0.3582;0.8116;
1157.4000;0.3565;0.8038;
1157.7000;0.3557;0.8090;
1158.0000;0.3565;0.8064;
1158.3000;0.3557;0.8090;
1158.6000;0.3541;0.8038;
1158.9000;0.3549;0.8116;
1159.2000;0.3557;0.8245;
1159.5000;0.3508;0.8193;
1159.8000;0.3549;0.8245;
1160.1000;0.3541;0.8167;
1160.4000;0.3557;0.8141;
1160.7000;0.3622;0.8297;
1161.0000;0.3549;0.8116;
1161.3000;0.3541;0.8090;
1161.6000;0.3565;0.8193;
1161.9000;0.3549;0.8141;
1162.2000;0.3549;0.8116;
1162.5000;0.3598;0.8297;
1162.8000;0.3565;0.8349;
1163.1000;0.3541;0.8245;
1163.4000;0.3476;0.8038;
1163.7000;0.3549;0.8167;
1164.0000;0.3557;0.8245;
1164.3000;0.3525;0.8193;
1164.6000;0.3557;0.8219;
1164.9000;0.3533;0.8245;
1165.2000;0.3565;0.8271;
1165.5000;0.3582;0.8271;
1165.8000;0.3549;0.8167;
1166.1000;0.3549;0.8064;
1166.4000;0.3565;0.8167;
1166.7000;0.3582;0.8167;
1167.0000;0.3557;0.8090;
1167.3000;0.3565;0.8116;
1167.6000;0.3565;0.8193;
1167.9000;0.3549;0.8167;
1168.2000;0.3557;0.8271;
1168.5000;0.3541;0.8219;
1168.8000;0.3557;0.8245;
1169.1000;0.3565;0.8375;
1169.4000;0.3549;0.8271;
1169.7000;0.3541;0.8271;
1170.0000;0.3557;0.8323;
1170.3000;0.3557;0.8323;
1170.6000;0.3557;0.8375;
1170.9000;0.3573;0.8349;
1171.2000;0.3541;0.8297;
1171.5000;0.3557;0.8323;
1171.8000;0.3565;0.8297;
1172.1000;0.3557;0.8271;
1172.4000;0.3541;0.8219;
1172.7000;0.3533;0.8090;
1173.0000;0.3549;0.8271;
1173.3000;0.3549;0.8245;
1173.6000;0.3565;0.8219;
1173.9000;0.3549;0.8219;
1174.2000;0.3557;0.8167;
1174.5000;0.3565;0.8116;
1174.8000;0.3557;0.8141;
1175.1000;0.3557;0.8064;
1175.4000;0.3557;0.8012;
1175.7000;0.3549;0.8012;
1176.0000;0.3557;0.8064;
1176.3000;0.3541;0.8064;
1176.6000;0.3557;0.8064;
1176.9000;0.3655;0.8375;
1177.2000;0.3549;0.8064;
1177.5000;0.3557;0.8064;
1177.8000;0.3573;0.8193;
1178.1000;0.3557;0.8167;
1178.4000;0.3614;0.8271;
1178.7000;0.3557;0.8116;
1179.0000;0.3549;0.8193;
1179.3000;0.3557;0.8193;
1179.6000;0.3573;0.8167;
1179.9000;0.3549;0.8064;
1180.2000;0.3549;0.8038;
1180.5000;0.3533;0.8064;
1180.8000;0.3582;0.8219;
1181.1000;0.3557;0.8116;
1181.4000;0.3573;0.8193;
1181.7000;0.3573;0.8271;
1182.0000;0.3557;0.8297;
1182.3000;0.3557;0.8271;
1182.6000;0.3557;0.8245;
1182.9000;0.3557;0.8245;
1183.2000;0.3549;0.8271;
1183.5000;0.3565;0.8297;
1183.8000;0.3549;0.8297;
1184.1000;0.3541;0.8116;
1184.4000;0.3541;0.8012;
1184.7000;0.3541;0.7986;
1185.0000;0.3541;0.7986;
1185.3000;0.3508;0.7934;
1185.6000;0.3573;0.8141;
1185.9000;0.3549;0.8116;
1186.2000;0.3549;0.8064;
1186.5000;0.3549;0.7986;
1186.8000;0.3573;0.7986;
1187.1000;0.3573;0.7986;
1187.4000;0.3533;0.7856;
1187.7000;0.3549;0.7856;
1188.0000;0.3557;0.7856;
1188.3000;0.3549;0.7908;
1188.6000;0.3541;0.7908;
1188.9000;0.3549;0.7986;
1189.2000;0.3549;0.7986;
1189.5000;0.3590;0.8141;
1189.8000;0.3565;0.8064;
1190.1000;0.3557;0.8090;
1190.4000;0.3557;0.8012;
1190.7000;0.3565;0.8038;
1191.0000;0.3573;0.8038;
1191.3000;0.3565;0.8038;
1191.6000;0.3557;0.8012;
1191.9000;0.3549;0.8012;
1192.2000;0.3541;0.7986;
1192.5000;0.3565;0.8064;
1192.8000;0.3549;0.8090;
1193.1000;0.3565;0.8141;
1193.4000;0.3549;0.8167;
1193.7000;0.3582;0.8167;
1194.0000;0.3541;0.8141;
1194.3000;0.3557;0.8219;
1194.6000;0.3557;0.8245;
1194.9000;0.3541;0.8297;
1195.2000;0.3565;0.8349;
1195.5000;0.3541;0.8297;
1195.8000;0.3549;0.8349;
1196.1000;0.3565;0.8323;
1196.4000;0.3565;0.8271;
1196.7000;0.3549;0.8245;
1197.0000;0.3573;0.8271;
1197.3000;0.3573;0.8219;
1197.6000;0.3557;0.8245;
1197.9000;0.3557;0.8219;
1198.2000;0.3549;0.8116;
1198.5000;0.3565;0.8219;
1198.8000;0.3557;0.8193;
1199.1000;0.3549;0.8193;
1199.4000;0.3541;0.8193;
1199.7000;0.3541;0.8167;
1200.0000;0.3565;0.8271;
1200.3000;0.3557;0.8245;
1200.6000;0.3557;0.8167;
1200.9000;0.3565;0.8349;
1201.2000;0.3557;0.8271;
1201.5000;0.3549;0.8271;
1201.8000;0.3549;0.8297;
1202.1000;0.3565;0.8245;
1202.4000;0.3573;0.8245;
1202.7000;0.3573;0.8271;
1203.0000;0.3516;0.8116;
1203.3000;0.3557;0.8271;
1203.6000;0.3541;0.8271;
1203.9000;0.3549;0.8245;
1204.2000;0.3582;0.8297;
1204.5000;0.3549;0.8271;
1204.8000;0.3557;0.8297;
1205.1000;0.3565;0.8349;
1205.4000;0.3557;0.8323;
1205.7000;0.3557;0.8323;
1206.0000;0.3582;0.8297;
1206.3000;0.3565;0.8271;
1206.6000;0.3557;0.8375;
1206.9000;0.3590;0.8453;
1207.2000;0.3582;0.8401;
1207.5000;0.3508;0.8193;
1207.8000;0.3533;0.8219;
1208.1000;0.3549;0.8219;
1208.4000;0.3549;0.8271;
1208.7000;0.3565;0.8349;
1209.0000;0.3549;0.8323;
1209.3000;0.3549;0.8323;
1209.6000;0.3541;0.8297;
1209.9000;0.3500;0.8245;
1210.2000;0.3565;0.8453;
1210.5000;0.3565;0.8479;
1210.8000;0.3435;0.8090;
1211.1000;0.3557;0.8427;
1211.4000;0.3582;0.8375;
1211.7000;0.3549;0.8245;
1212.0000;0.3557;0.8219;
1212.3000;0.3573;0.8219;
1212.6000;0.3557;0.8167;
1212.9000;0.3582;0.8297;
1213.2000;0.3557;0.8245;
1213.5000;0.3508;0.8012;
1213.8000;0.3476;0.7934;
1214.1000;0.3549;0.8167;
1214.4000;0.3549;0.8064;
1214.7000;0.3565;0.8167;
1215.0000;0.3573;0.8116;
1215.3000;0.3582;0.8141;
1215.6000;0.3573;0.8090;
1215.9000;0.3582;0.8167;
1216.2000;0.3541;0.8116;
1216.5000;0.3614;0.8375;
1216.8000;0.3557;0.8297;
1217.1000;0.3525;0.8193;
1217.4000;0.3541;0.8323;
1217.7000;0.3573;0.8401;
1218.0000;0.3500;0.8219;
1218.3000;0.3549;0.8453;
1218.6000;0.3557;0.8504;
1218.9000;0.3598;0.8712;
1219.2000;0.3557;0.8556;
1219.5000;0.3549;0.8504;
1219.8000;0.3590;0.8556;
1220.1000;0.3655;0.8686;
1220.4000;0.3565;0.8349;
1220.7000;0.3557;0.8375;
1221.0000;0.3549;0.8271;
1221.3000;0.3541;0.8219;
1221.6000;0.3533;0.8141;
1221.9000;0.3557;0.8193;
1222.2000;0.3549;0.8167;
1222.5000;0.3565;0.8193;
1222.8000;0.3541;0.8090;
1223.1000;0.3549;0.8116;
1223.4000;0.3557;0.8116;
1223.7000;0.3557;0.8090;
1224.0000;0.3565;0.8219;
1224.3000;0.3500;0.8012;
1224.6000;0.3533;0.8245;
1224.9000;0.3557;0.8271;
1225.2000;0.3565;0.8297;
1225.5000;0.3582;0.8323;
1225.8000;0.3573;0.8401;
1226.1000;0.3557;0.8453;
1226.4000;0.3508;0.8349;
1226.7000;0.3565;0.8375;
1227.0000;0.3557;0.8349;
1227.3000;0.3549;0.8349;
1227.6000;0.3606;0.8530;
1227.9000;0.3630;0.8634;
1228.2000;0.3573;0.8401;
1228.5000;0.3500;0.8116;
1228.8000;0.3549;0.8219;
1229.1000;0.3565;0.8297;
1229.4000;0.3573;0.8271;
1229.7000;0.3541;0.8219;
1230.0000;0.3541;0.8323;
1230.3000;0.3541;0.8349;
1230.6000;0.3525;0.8349;
1230.9000;0.3451;0.8116;
1231.2000;0.3533;0.8323;
1231.5000;0.3598;0.8453;
1231.8000;0.3557;0.8323;
1232.1000;0.3541;0.8297;
1232.4000;0.3549;0.8323;
1232.7000;0.3565;0.8349;
1233.0000;0.3565;0.8349;
1233.3000;0.3549;0.8245;
1233.6000;0.3541;0.8193;
1233.9000;0.3565;0.8271;
1234.2000;0.3549;0.8167;
1234.5000;0.3647;0.8453;
1234.8000;0.3541;0.8245;
1235.1000;0.3533;0.8219;
1235.4000;0.3516;0.8193;
1235.7000;0.3565;0.8193;
1236.0000;0.3500;0.8141;
1236.3000;0.3557;0.8219;
1236.6000;0.3557;0.8245;
1236.9000;0.3508;0.8064;
1237.2000;0.3549;0.8141;
1237.5000;0.3443;0.7856;
1237.8000;0.3549;0.8167;
1238.1000;0.3549;0.8167;
1238.4000;0.3565;0.8297;
1238.7000;0.3525;0.8116;
1239.0000;0.3533;0.8090;
1239.3000;0.3557;0.8116;
1239.6000;0.3549;0.8090;
1239.9000;0.3549;0.8245;
1240.2000;0.3557;0.8297;
1240.5000;0.3565;0.8349;
1240.8000;0.3549;0.8297;
1241.1000;0.3549;0.8323;
1241.4000;0.3557;0.8219;
1241.7000;0.3549;0.8193;
1242.0000;0.3598;0.8401;
1242.3000;0.3460;0.8064;
1242.6000;0.3549;0.8297;
1242.9000;0.3573;0.8349;
1243.2000;0.3533;0.8375;
1243.5000;0.3533;0.8349;
1243.8000;0.3557;0.8297;
1244.1000;0.3565;0.8297;
1244.4000;0.3549;0.8219;
1244.7000;0.3533;0.8245;
1245.0000;0.3533;0.8297;
1245.3000;0.3565;0.8297;
1245.6000;0.3549;0.8297;
1245.9000;0.3565;0.8323;
1246.2000;0.3549;0.8323;
1246.5000;0.3549;0.8401;
1246.8000;0.3557;0.8349;
1247.1000;0.3557;0.8323;
1247.4000;0.3565;0.8193;
1247.7000;0.3557;0.8141;
1248.0000;0.3557;0.8116;
1248.3000;0.3549;0.8116;
1248.6000;0.3533;0.8141;
1248.9000;0.3541;0.8245;
1249.2000;0.3549;0.8271;
1249.5000;0.3565;0.8271;
1249.8000;0.3557;0.8193;
1250.1000;0.3533;0.8064;
1250.4000;0.3549;0.8064;
1250.7000;0.3557;0.8090;
1251.0000;0.3557;0.8090;
1251.3000;0.3565;0.8167;
1251.6000;0.3549;0.8064;
1251.9000;0.3557;0.8090;
1252.2000;0.3557;0.8141;
1252.5000;0.3557;0.8167;
1252.8000;0.3541;0.8167;
1253.1000;0.3549;0.8323;
1253.4000;0.3549;0.8375;
1253.7000;0.3549;0.8479;
1254.0000;0.3549;0.8530;
1254.3000;0.3565;0.8556;
1254.6000;0.3614;0.8790;
1254.9000;0.3533;0.8479;
1255.2000;0.3541;0.8427;
1255.5000;0.3565;0.8453;
1255.8000;0.3557;0.8530;
1256.1000;0.3557;0.8504;
1256.4000;0.3476;0.8219;
1256.7000;0.3541;0.8453;
1257.0000;0.3557;0.8479;
1257.3000;0.3549;0.8375;
1257.6000;0.3541;0.8349;
1257.9000;0.3557;0.8401;
1258.2000;0.3565;0.8401;
1258.5000;0.3557;0.8323;
1258.8000;0.3598;0.8401;
1259.1000;0.3565;0.8297;
1259.4000;0.3557;0.8245;
1259.7000;0.3557;0.8193;
1260.0000;0.3565;0.8193;
1260.3000;0.3549;0.8245;
1260.6000;0.3565;0.8349;
1260.9000;0.3590;0.8427;
1261.2000;0.3565;0.8375;
1261.5000;0.3573;0.8349;
1261.8000;0.3525;0.8193;
1262.1000;0.3557;0.8193;
1262.4000;0.3557;0.8245;
1262.7000;0.3549;0.8245;
1263.0000;0.3565;0.8349;
1263.3000;0.3557;0.8323;
1263.6000;0.3557;0.8245;
1263.9000;0.3533;0.8141;
1264.2000;0.3655;0.8504;
1264.5000;0.3549;0.8141;
1264.8000;0.3549;0.8219;
1265.1000;0.3557;0.8193;
1265.4000;0.3541;0.8141;
1265.7000;0.3549;0.8141;
1266.0000;0.3565;0.8090;
1266.3000;0.3557;0.8116;
1266.6000;0.3565;0.8090;
1266.9000;0.3541;0.8012;
1267.2000;0.3549;0.8116;
1267.5000;0.3557;0.8141;
1267.8000;0.3541;0.8167;
1268.1000;0.3557;0.8219;
1268.4000;0.3565;0.8193;
1268.7000;0.3541;0.8167;
1269.0000;0.3541;0.8193;
1269.3000;0.3516;0.8193;
1269.6000;0.3549;0.8219;
1269.9000;0.3533;0.8141;
1270.2000;0.3541;0.8193;
1270.5000;0.3541;0.8141;
1270.8000;0.3533;0.8219;
1271.1000;0.3565;0.8219;
1271.4000;0.3541;0.8090;
1271.7000;0.3557;0.8090;
1272.0000;0.3549;0.8038;
1272.3000;0.3557;0.8064;
1272.6000;0.3557;0.8012;
1272.9000;0.3557;0.8038;
1273.2000;0.3573;0.8193;
1273.5000;0.3590;0.8245;
1273.8000;0.3557;0.8297;
1274.1000;0.3557;0.8271;
1274.4000;0.3557;0.8271;
1274.7000;0.3565;0.8271;
1275.0000;0.3557;0.8245;
1275.3000;0.3549;0.8193;
1275.6000;0.3598;0.8297;
1275.9000;0.3573;0.8219;
1276.2000;0.3541;0.8116;
1276.5000;0.3541;0.8193;
1276.8000;0.3557;0.8245;
1277.1000;0.3541;0.8193;
1277.4000;0.3565;0.8323;
1277.7000;0.3565;0.8349;
1278.0000;0.3549;0.8297;
1278.3000;0.3541;0.8167;
1278.6000;0.3565;0.8167;
1278.9000;0.3541;0.8038;
1279.2000;0.3549;0.8038;
1279.5000;0.3533;0.8038;
1279.8000;0.3533;0.8064;
1280.1000;0.3541;0.8090;
1280.4000;0.3557;0.8116;
1280.7000;0.3541;0.8167;
1281.0000;0.3582;0.8245;
1281.3000;0.3541;0.8141;
1281.6000;0.3533;0.8064;
1281.9000;0.3533;0.8193;
1282.2000;0.3549;0.8193;
1282.5000;0.3557;0.8245;
1282.8000;0.3557;0.8167;
1283.1000;0.3541;0.8167;
1283.4000;0.3590;0.8297;
1283.7000;0.3557;0.8116;
1284.0000;0.3533;0.8038;
1284.3000;0.3541;0.8116;
1284.6000;0.3533;0.8090;
1284.9000;0.3565;0.8141;
1285.2000;0.3565;0.8116;
1285.5000;0.3460;0.7778;
1285.8000;0.3549;0.8038;
1286.1000;0.3525;0.7960;
1286.4000;0.3549;0.7986;
1286.7000;0.3549;0.8038;
1287.0000;0.3541;0.7986;
1287.3000;0.3549;0.8012;
1287.6000;0.3549;0.8038;
1287.9000;0.3557;0.7986;
1288.2000;0.3582;0.7934;
1288.5000;0.3549;0.7856;
1288.8000;0.3557;0.7934;
1289.1000;0.3557;0.7986;
1289.4000;0.3541;0.8038;
1289.7000;0.3549;0.7960;
1290.0000;0.3557;0.7882;
1290.3000;0.3549;0.7830;
1290.6000;0.3541;0.7882;
1290.9000;0.3549;0.7856;
1291.2000;0.3557;0.7960;
1291.5000;0.3549;0.7934;
1291.8000;0.3549;0.7934;
1292.1000;0.3557;0.8012;
1292.4000;0.3549;0.8064;
1292.7000;0.3549;0.8090;
1293.0000;0.3549;0.8090;
1293.3000;0.3614;0.8349;
1293.6000;0.3557;0.8245;
1293.9000;0.3565;0.8245;
1294.2000;0.3525;0.8090;
1294.5000;0.3541;0.8090;
1294.8000;0.3557;0.8219;
1295.1000;0.3565;0.8193;
1295.4000;0.3565;0.8141;
1295.7000;0.3573;0.8167;
1296.0000;0.3565;0.8245;
1296.3000;0.3582;0.8245;
1296.6000;0.3565;0.8116;
1296.9000;0.3557;0.8038;
1297.2000;0.3549;0.8064;
1297.5000;0.3533;0.8038;
1297.8000;0.3565;0.8193;
1298.1000;0.3573;0.8271;
1298.4000;0.3557;0.8323;
1298.7000;0.3549;0.8427;
1299.0000;0.3573;0.8401;
1299.3000;0.3565;0.8401;
1299.6000;0.3484;0.8141;
1299.9000;0.3549;0.8375;
1300.2000;0.3549;0.8245;
1300.5000;0.3557;0.8141;
1300.8000;0.3541;0.8116;
1301.1000;0.3549;0.8219;
1301.4000;0.3533;0.8219;
1301.7000;0.3541;0.8245;
1302.0000;0.3582;0.8297;
1302.3000;0.3541;0.8193;
1302.6000;0.3549;0.8219;
1302.9000;0.3557;0.8271;
1303.2000;0.3541;0.8323;
1303.5000;0.3541;0.8271;
1303.8000;0.3557;0.8271;
1304.1000;0.3606;0.8453;
1304.4000;0.3549;0.8167;
1304.7000;0.3565;0.8193;
1305.0000;0.3549;0.8141;
1305.3000;0.3557;0.8116;
1305.6000;0.3541;0.8038;
1305.9000;0.3500;0.7986;
1306.2000;0.3541;0.8064;
1306.5000;0.3573;0.8090;
1306.8000;0.3516;0.8012;
1307.1000;0.3541;0.8141;
1307.4000;0.3549;0.8271;
1307.7000;0.3549;0.8271;
1308.0000;0.3541;0.8245;
1308.3000;0.3549;0.8167;
1308.6000;0.3541;0.8090;
1308.9000;0.3549;0.8141;
1309.2000;0.3525;0.8090;
1309.5000;0.3549;0.8116;
1309.8000;0.3549;0.8090;
1310.1000;0.3565;0.8193;
1310.4000;0.3533;0.8038;
1310.7000;0.3541;0.8064;
1311.0000;0.3557;0.8064;
1311.3000;0.3622;0.8427;
1311.6000;0.3557;0.8167;
1311.9000;0.3533;0.8193;
1312.2000;0.3549;0.8297;
1312.5000;0.3549;0.8167;
1312.8000;0.3549;0.8167;
1313.1000;0.3590;0.8245;
1313.4000;0.3549;0.8193;
1313.7000;0.3549;0.8193;
1314.0000;0.3508;0.8141;
1314.3000;0.3557;0.8219;
1314.6000;0.3565;0.8271;
1314.9000;0.3541;0.8116;
1315.2000;0.3533;0.8141;
1315.5000;0.3541;0.8193;
1315.8000;0.3549;0.8090;
1316.1000;0.3549;0.8116;
1316.4000;0.3549;0.8193;
1316.7000;0.3557;0.8193;
1317.0000;0.3565;0.8193;
1317.3000;0.3557;0.8141;
1317.6000;0.3541;0.8167;
1317.9000;0.3565;0.8167;
1318.2000;0.3557;0.8193;
1318.5000;0.3541;0.8116;
1318.8000;0.3541;0.8116;
1319.1000;0.3541;0.8090;
1319.4000;0.3549;0.8167;
1319.7000;0.3557;0.8193;
1320.0000;0.3549;0.8116;
1320.3000;0.3557;0.8141;
1320.6000;0.3557;0.8116;
1320.9000;0.3549;0.8141;
1321.2000;0.3541;0.8219;
1321.5000;0.3549;0.8064;
1321.8000;0.3565;0.8141;
1322.1000;0.3533;0.8012;
1322.4000;0.3565;0.8090;
1322.7000;0.3541;0.8012;
1323.0000;0.3549;0.8064;
1323.3000;0.3573;0.8090;
1323.6000;0.3516;0.8064;
1323.9000;0.3549;0.8116;
1324.2000;0.3565;0.8219;
1324.5000;0.3598;0.8427;
1324.8000;0.3492;0.8064;
1325.1000;0.3565;0.8271;
1325.4000;0.3557;0.8297;
1325.7000;0.3582;0.8453;
1326.0000;0.3533;0.8375;
1326.3000;0.3492;0.8193;
1326.6000;0.3533;0.8323;
1326.9000;0.3541;0.8323;
1327.2000;0.3549;0.8375;
1327.5000;0.3541;0.8401;
1327.8000;0.3541;0.8375;
1328.1000;0.3549;0.8479;
1328.4000;0.3549;0.8530;
1328.7000;0.3549;0.8504;
1329.0000;0.3557;0.8556;
1329.3000;0.3525;0.8453;
1329.6000;0.3549;0.8427;
1329.9000;0.3533;0.8349;
1330.2000;0.3557;0.8323;
1330.5000;0.3541;0.8141;
1330.8000;0.3533;0.8167;
1331.1000;0.3557;0.8167;
1331.4000;0.3533;0.8141;
1331.7000;0.3590;0.8245;
1332.0000;0.3573;0.8141;
1332.3000;0.3582;0.8141;
1332.6000;0.3565;0.8193;
1332.9000;0.3557;0.8141;
1333.2000;0.3565;0.8141;
1333.5000;0.3557;0.8141;
1333.8000;0.3565;0.8141;
1334.1000;0.3500;0.7882;
1334.4000;0.3549;0.7986;
1334.7000;0.3557;0.7960;
1335.0000;0.3484;0.7727;
1335.3000;0.3557;0.7856;
1335.6000;0.3533;0.7804;
1335.9000;0.3557;0.7934;
1336.2000;0.3533;0.7960;
1336.5000;0.3549;0.7908;
1336.8000;0.3557;0.7934;
1337.1000;0.3573;0.7960;
1337.4000;0.3557;0.7856;
1337.7000;0.3541;0.7882;
1338.0000;0.3573;0.7934;
1338.3000;0.3549;0.7856;
1338.6000;0.3557;0.7882;
1338.9000;0.3541;0.7830;
1339.2000;0.3557;0.7960;
1339.5000;0.3565;0.8038;
1339.8000;0.3541;0.7986;
1340.1000;0.3516;0.7934;
1340.4000;0.3541;0.7960;
1340.7000;0.3549;0.8012;
1341.0000;0.3622;0.8193;
1341.3000;0.3549;0.8038;
1341.6000;0.3541;0.8064;
1341.9000;0.3565;0.8116;
1342.2000;0.3549;0.8064;
1342.5000;0.3549;0.8064;
1342.8000;0.3484;0.7830;
1343.1000;0.3573;0.8038;
1343.4000;0.3565;0.7934;
1343.7000;0.3541;0.7882;
1344.0000;0.3549;0.7882;
1344.3000;0.3541;0.7934;
1344.6000;0.3525;0.7908;
1344.9000;0.3557;0.7908;
1345.2000;0.3549;0.7856;
1345.5000;0.3541;0.7804;
1345.8000;0.3557;0.7753;
1346.1000;0.3549;0.7753;
1346.4000;0.3573;0.7908;
1346.7000;0.3541;0.7882;
1347.0000;0.3549;0.7882;
1347.3000;0.3525;0.7856;
1347.6000;0.3573;0.7986;
1347.9000;0.3541;0.7908;
1348.2000;0.3541;0.7934;
1348.5000;0.3549;0.7908;
1348.8000;0.3590;0.8012;
1349.1000;0.3541;0.7856;
1349.4000;0.3541;0.7960;
1349.7000;0.3557;0.7934;
1350.0000;0.3533;0.7882;
1350.3000;0.3533;0.7934;
1350.6000;0.3549;0.8038;
1350.9000;0.3533;0.7986;
1351.2000;0.3557;0.8038;
1351.5000;0.3565;0.8038;
1351.8000;0.3484;0.7804;
1352.1000;0.3565;0.7986;
1352.4000;0.3516;0.7856;
1352.7000;0.3557;0.8038;
1353.0000;0.3565;0.8038;
1353.3000;0.3549;0.7986;
1353.6000;0.3565;0.8012;
1353.9000;0.3541;0.7960;
1354.2000;0.3557;0.7986;
1354.5000;0.3557;0.7908;
1354.8000;0.3533;0.7908;
1355.1000;0.3565;0.7960;
1355.4000;0.3565;0.7986;
1355.7000;0.3557;0.7960;
1356.0000;0.3573;0.7986;
1356.3000;0.3573;0.7882;
1356.6000;0.3533;0.7753;
1356.9000;0.3557;0.7934;
1357.2000;0.3557;0.7882;
1357.5000;0.3557;0.7908;
1357.8000;0.3565;0.7882;
1358.1000;0.3533;0.7830;
1358.4000;0.3549;0.7804;
1358.7000;0.3557;0.7882;
1359.0000;0.3565;0.7908;
1359.3000;0.3533;0.7882;
1359.6000;0.3541;0.7986;
1359.9000;0.3525;0.7960;
1360.2000;0.3557;0.8038;
1360.5000;0.3541;0.8038;
1360.8000;0.3549;0.7986;
1361.1000;0.3557;0.8038;
1361.4000;0.3557;0.8064;
1361.7000;0.3590;0.8141;
1362.0000;0.3549;0.8116;
1362.3000;0.3533;0.8064;
1362.6000;0.3525;0.8064;
1362.9000;0.3573;0.8245;
1363.2000;0.3549;0.8193;
1363.5000;0.3565;0.8245;
1363.8000;0.3557;0.8141;
1364.1000;0.3565;0.8064;
1364.4000;0.3541;0.8064;
1364.7000;0.3557;0.8064;
1365.0000;0.3582;0.8141;
1365.3000;0.3557;0.8167;
1365.6000;0.3549;0.8193;
1365.9000;0.3541;0.8141;
1366.2000;0.3573;0.8245;
1366.5000;0.3549;0.8219;
1366.8000;0.3541;0.8271;
1367.1000;0.3541;0.8323;
1367.4000;0.3541;0.8323;
1367.7000;0.3549;0.8323;
1368.0000;0.3557;0.8349;
1368.3000;0.3557;0.8401;
1368.6000;0.3549;0.8375;
1368.9000;0.3484;0.8245;
1369.2000;0.3557;0.8375;
1369.5000;0.3541;0.8349;
1369.8000;0.3557;0.8479;
1370.1000;0.3549;0.8401;
1370.4000;0.3557;0.8375;
1370.7000;0.3541;0.8453;
1371.0000;0.3541;0.8453;
1371.3000;0.3565;0.8530;
1371.6000;0.3557;0.8375;
1371.9000;0.3557;0.8375;
1372.2000;0.3549;0.8349;
1372.5000;0.3557;0.8349;
1372.8000;0.3533;0.8297;
1373.1000;0.3549;0.8349;
1373.4000;0.3565;0.8323;
1373.7000;0.3549;0.8297;
1374.0000;0.3557;0.8349;
1374.3000;0.3565;0.8297;
1374.6000;0.3541;0.8219;
1374.9000;0.3533;0.8245;
1375.2000;0.3557;0.8245;
1375.5000;0.3557;0.8375;
1375.8000;0.3557;0.8375;
1376.1000;0.3541;0.8323;
1376.4000;0.3573;0.8297;
1376.7000;0.3557;0.8245;
1377.0000;0.3541;0.8219;
1377.3000;0.3557;0.8219;
1377.6000;0.3565;0.8271;
1377.9000;0.3565;0.8349;
1378.2000;0.3565;0.8271;
1378.5000;0.3533;0.8141;
1378.8000;0.3565;0.8167;
1379.1000;0.3557;0.8193;
1379.4000;0.3549;0.8141;
1379.7000;0.3541;0.8193;
1380.0000;0.3557;0.8193;
1380.3000;0.3541;0.8219;
1380.6000;0.3573;0.8349;
1380.9000;0.3557;0.8349;
1381.2000;0.3541;0.8323;
1381.5000;0.3557;0.8375;
1381.8000;0.3549;0.8479;
1382.1000;0.3557;0.8530;
1382.4000;0.3549;0.8504;
1382.7000;0.3565;0.8427;
1383.0000;0.3541;0.8323;
1383.3000;0.3549;0.8297;
1383.6000;0.3557;0.8219;
1383.9000;0.3541;0.8245;
1384.2000;0.3549;0.8245;
1384.5000;0.3549;0.8245;
1384.8000;0.3516;0.8167;
1385.1000;0.3630;0.8323;
1385.4000;0.3557;0.8064;
1385.7000;0.3549;0.8012;
1386.0000;0.3565;0.8064;
1386.3000;0.3557;0.8038;
1386.6000;0.3549;0.8012;
1386.9000;0.3549;0.8167;
1387.2000;0.3549;0.8167;
1387.5000;0.3549;0.8219;
1387.8000;0.3557;0.8245;
1388.1000;0.3557;0.8271;
1388.4000;0.3557;0.8271;
1388.7000;0.3565;0.8297;
1389.0000;0.3557;0.8271;
1389.3000;0.3549;0.8245;
1389.6000;0.3533;0.8219;
1389.9000;0.3541;0.8323;
1390.2000;0.3525;0.8245;
1390.5000;0.3533;0.8271;
1390.8000;0.3549;0.8219;
1391.1000;0.3565;0.8245;
1391.4000;0.3541;0.8297;
1391.7000;0.3549;0.8297;
1392.0000;0.3549;0.8323;
1392.3000;0.3549;0.8219;
1392.6000;0.3541;0.8245;
1392.9000;0.3557;0.8245;
1393.2000;0.3541;0.8219;
1393.5000;0.3549;0.8297;
1393.8000;0.3549;0.8427;
1394.1000;0.3549;0.8427;
1394.4000;0.3541;0.8349;
1394.7000;0.3549;0.8297;
1395.0000;0.3533;0.8271;
1395.3000;0.3565;0.8297;
1395.6000;0.3549;0.8375;
1395.9000;0.3525;0.8401;
1396.2000;0.3484;0.8245;
1396.5000;0.3549;0.8427;
1396.8000;0.3549;0.8427;
1397.1000;0.3549;0.8375;
1397.4000;0.3598;0.8504;
1397.7000;0.3549;0.8349;
1398.0000;0.3573;0.8349;
1398.3000;0.3565;0.8401;
1398.6000;0.3557;0.8349;
1398.9000;0.3549;0.8271;
1399.2000;0.3565;0.8271;
1399.5000;0.3549;0.8271;
1399.8000;0.3541;0.8193;
