time/ms;Fluo/V;P700 deltaI/I x10³;
-199.8000;0.4737;1.0011;
-199.5000;0.4754;1.0036;
-199.2000;0.4737;0.9986;
-198.9000;0.4737;0.9936;
-198.6000;0.4835;1.0285;
-198.3000;0.4746;1.0111;
-198.0000;0.4746;1.0160;
-197.7000;0.4754;1.0111;
-197.4000;0.4754;1.0086;
-197.1000;0.4737;1.0111;
-196.8000;0.4746;1.0086;
-196.5000;0.4705;0.9986;
-196.2000;0.4737;0.9961;
-195.9000;0.4737;1.0011;
-195.6000;0.4729;0.9961;
-195.3000;0.4713;0.9862;
-195.0000;0.4729;0.9862;
-194.7000;0.4713;0.9862;
-194.4000;0.4737;0.9886;
-194.1000;0.4746;0.9911;
-193.8000;0.4737;0.9936;
-193.5000;0.4729;0.9936;
-193.2000;0.4737;0.9986;
-192.9000;0.4729;0.9986;
-192.6000;0.4713;1.0036;
-192.3000;0.4746;1.0136;
-192.0000;0.4737;1.0136;
-191.7000;0.4737;1.0136;
-191.4000;0.4737;1.0136;
-191.1000;0.4721;1.0086;
-190.8000;0.4746;1.0185;
-190.5000;0.4737;1.0160;
-190.2000;0.4729;1.0160;
-189.9000;0.4737;1.0210;
-189.6000;0.4729;1.0235;
-189.3000;0.4737;1.0210;
-189.0000;0.4754;1.0260;
-188.7000;0.4746;1.0285;
-188.4000;0.4786;1.0360;
-188.1000;0.4713;1.0136;
-187.8000;0.4721;1.0185;
-187.5000;0.4705;1.0136;
-187.2000;0.4729;1.0185;
-186.9000;0.4713;1.0260;
-186.6000;0.4729;1.0260;
-186.3000;0.4713;1.0310;
-186.0000;0.4713;1.0285;
-185.7000;0.4746;1.0335;
-185.4000;0.4729;1.0210;
-185.1000;0.4705;1.0160;
-184.8000;0.4721;1.0136;
-184.5000;0.4721;1.0086;
-184.2000;0.4729;1.0061;
-183.9000;0.4737;1.0061;
-183.6000;0.4721;1.0061;
-183.3000;0.4729;1.0086;
-183.0000;0.4746;1.0111;
-182.7000;0.4721;1.0086;
-182.4000;0.4713;0.9986;
-182.1000;0.4729;1.0111;
-181.8000;0.4746;1.0160;
-181.5000;0.4737;1.0136;
-181.2000;0.4713;1.0111;
-180.9000;0.4713;1.0111;
-180.6000;0.4721;1.0111;
-180.3000;0.4746;1.0185;
-180.0000;0.4746;1.0285;
-179.7000;0.4721;1.0210;
-179.4000;0.4762;1.0310;
-179.1000;0.4737;1.0235;
-178.8000;0.4721;1.0260;
-178.5000;0.4729;1.0260;
-178.2000;0.4737;1.0210;
-177.9000;0.4746;1.0111;
-177.6000;0.4713;1.0111;
-177.3000;0.4721;1.0160;
-177.0000;0.4729;1.0185;
-176.7000;0.4729;1.0160;
-176.4000;0.4786;1.0310;
-176.1000;0.4737;1.0086;
-175.8000;0.4729;1.0036;
-175.5000;0.4729;0.9961;
-175.2000;0.4737;1.0036;
-174.9000;0.4713;0.9986;
-174.6000;0.4713;0.9936;
-174.3000;0.4729;0.9961;
-174.0000;0.4737;1.0036;
-173.7000;0.4737;1.0086;
-173.4000;0.4729;1.0036;
-173.1000;0.4681;0.9837;
-172.8000;0.4746;1.0061;
-172.5000;0.4811;1.0360;
-172.2000;0.4746;1.0160;
-171.9000;0.4729;1.0185;
-171.6000;0.4729;1.0061;
-171.3000;0.4729;1.0061;
-171.0000;0.4729;1.0111;
-170.7000;0.4729;1.0061;
-170.4000;0.4746;1.0111;
-170.1000;0.4746;1.0136;
-169.8000;0.4794;1.0260;
-169.5000;0.4681;1.0086;
-169.2000;0.4737;1.0260;
-168.9000;0.4746;1.0260;
-168.6000;0.4729;1.0235;
-168.3000;0.4737;1.0310;
-168.0000;0.4737;1.0260;
-167.7000;0.4737;1.0260;
-167.4000;0.4729;1.0185;
-167.1000;0.4721;1.0310;
-166.8000;0.4729;1.0310;
-166.5000;0.4746;1.0385;
-166.2000;0.4737;1.0310;
-165.9000;0.4737;1.0260;
-165.6000;0.4721;1.0235;
-165.3000;0.4729;1.0260;
-165.0000;0.4754;1.0285;
-164.7000;0.4713;1.0210;
-164.4000;0.4689;1.0036;
-164.1000;0.4721;1.0061;
-163.8000;0.4737;1.0086;
-163.5000;0.4737;1.0086;
-163.2000;0.4746;1.0111;
-162.9000;0.4737;1.0185;
-162.6000;0.4746;1.0136;
-162.3000;0.4721;1.0086;
-162.0000;0.4746;1.0185;
-161.7000;0.4721;1.0111;
-161.4000;0.4746;1.0185;
-161.1000;0.4737;1.0160;
-160.8000;0.4697;1.0136;
-160.5000;0.4713;1.0160;
-160.2000;0.4746;1.0235;
-159.9000;0.4705;1.0111;
-159.6000;0.4721;1.0185;
-159.3000;0.4729;1.0235;
-159.0000;0.4737;1.0310;
-158.7000;0.4721;1.0210;
-158.4000;0.4713;1.0111;
-158.1000;0.4689;1.0011;
-157.8000;0.4737;1.0185;
-157.5000;0.4754;1.0185;
-157.2000;0.4737;1.0210;
-156.9000;0.4737;1.0185;
-156.6000;0.4721;1.0235;
-156.3000;0.4737;1.0360;
-156.0000;0.4778;1.0434;
-155.7000;0.4737;1.0285;
-155.4000;0.4713;1.0160;
-155.1000;0.4754;1.0260;
-154.8000;0.4721;1.0260;
-154.5000;0.4721;1.0210;
-154.2000;0.4729;1.0185;
-153.9000;0.4721;1.0185;
-153.6000;0.4705;1.0061;
-153.3000;0.4721;1.0160;
-153.0000;0.4729;1.0111;
-152.7000;0.4737;1.0086;
-152.4000;0.4729;1.0111;
-152.1000;0.4737;1.0136;
-151.8000;0.4729;1.0185;
-151.5000;0.4737;1.0235;
-151.2000;0.4721;1.0111;
-150.9000;0.4803;1.0285;
-150.6000;0.4729;1.0111;
-150.3000;0.4721;1.0061;
-150.0000;0.4851;1.0534;
-149.7000;0.4729;1.0285;
-149.4000;0.4713;1.0409;
-149.1000;0.4721;1.0409;
-148.8000;0.4803;1.0683;
-148.5000;0.4713;1.0459;
-148.2000;0.4729;1.0534;
-147.9000;0.4721;1.0534;
-147.6000;0.4729;1.0509;
-147.3000;0.4737;1.0459;
-147.0000;0.4721;1.0360;
-146.7000;0.4737;1.0260;
-146.4000;0.4705;1.0185;
-146.1000;0.4737;1.0185;
-145.8000;0.4729;1.0086;
-145.5000;0.4607;0.9787;
-145.2000;0.4721;1.0185;
-144.9000;0.4721;1.0111;
-144.6000;0.4705;1.0061;
-144.3000;0.4729;1.0061;
-144.0000;0.4721;1.0111;
-143.7000;0.4746;1.0136;
-143.4000;0.4770;1.0210;
-143.1000;0.4737;1.0086;
-142.8000;0.4819;1.0385;
-142.5000;0.4729;1.0185;
-142.2000;0.4737;1.0136;
-141.9000;0.4770;1.0335;
-141.6000;0.4721;1.0260;
-141.3000;0.4672;1.0061;
-141.0000;0.4737;1.0235;
-140.7000;0.4705;1.0235;
-140.4000;0.4713;1.0136;
-140.1000;0.4729;1.0285;
-139.8000;0.4754;1.0235;
-139.5000;0.4754;1.0235;
-139.2000;0.4746;1.0136;
-138.9000;0.4737;1.0160;
-138.6000;0.4746;1.0235;
-138.3000;0.4705;1.0210;
-138.0000;0.4746;1.0235;
-137.7000;0.4803;1.0335;
-137.4000;0.4729;1.0160;
-137.1000;0.4721;1.0210;
-136.8000;0.4737;1.0310;
-136.5000;0.4713;1.0285;
-136.2000;0.4729;1.0310;
-135.9000;0.4705;1.0285;
-135.6000;0.4729;1.0310;
-135.3000;0.4737;1.0335;
-135.0000;0.4729;1.0335;
-134.7000;0.4746;1.0385;
-134.4000;0.4721;1.0310;
-134.1000;0.4713;1.0136;
-133.8000;0.4729;1.0185;
-133.5000;0.4737;1.0160;
-133.2000;0.4737;1.0235;
-132.9000;0.4729;1.0235;
-132.6000;0.4713;1.0235;
-132.3000;0.4697;1.0285;
-132.0000;0.4770;1.0409;
-131.7000;0.4746;1.0360;
-131.4000;0.4770;1.0385;
-131.1000;0.4697;1.0210;
-130.8000;0.4746;1.0285;
-130.5000;0.4770;1.0434;
-130.2000;0.4729;1.0310;
-129.9000;0.4746;1.0260;
-129.6000;0.4770;1.0385;
-129.3000;0.4746;1.0360;
-129.0000;0.4746;1.0360;
-128.7000;0.4737;1.0385;
-128.4000;0.4737;1.0385;
-128.1000;0.4737;1.0409;
-127.8000;0.4746;1.0409;
-127.5000;0.4746;1.0260;
-127.2000;0.4729;1.0185;
-126.9000;0.4737;1.0136;
-126.6000;0.4737;1.0210;
-126.3000;0.4729;1.0160;
-126.0000;0.4713;1.0136;
-125.7000;0.4754;1.0185;
-125.4000;0.4762;1.0160;
-125.1000;0.4746;1.0185;
-124.8000;0.4754;1.0235;
-124.5000;0.4721;1.0160;
-124.2000;0.4754;1.0260;
-123.9000;0.4729;1.0136;
-123.6000;0.4729;1.0086;
-123.3000;0.4721;1.0061;
-123.0000;0.4754;1.0036;
-122.7000;0.4697;0.9886;
-122.4000;0.4713;0.9886;
-122.1000;0.4762;0.9936;
-121.8000;0.4729;1.0011;
-121.5000;0.4664;0.9837;
-121.2000;0.4689;0.9936;
-120.9000;0.4729;1.0086;
-120.6000;0.4721;1.0111;
-120.3000;0.4721;1.0061;
-120.0000;0.4721;1.0061;
-119.7000;0.4705;1.0011;
-119.4000;0.4721;1.0061;
-119.1000;0.4729;1.0260;
-118.8000;0.4697;1.0210;
-118.5000;0.4705;1.0310;
-118.2000;0.4705;1.0235;
-117.9000;0.4737;1.0360;
-117.6000;0.4737;1.0360;
-117.3000;0.4721;1.0285;
-117.0000;0.4729;1.0335;
-116.7000;0.4729;1.0310;
-116.4000;0.4672;1.0260;
-116.1000;0.4754;1.0335;
-115.8000;0.4770;1.0310;
-115.5000;0.4737;1.0136;
-115.2000;0.4746;1.0136;
-114.9000;0.4721;1.0136;
-114.6000;0.4729;1.0235;
-114.3000;0.4737;1.0235;
-114.0000;0.4737;1.0285;
-113.7000;0.4737;1.0210;
-113.4000;0.4729;1.0260;
-113.1000;0.4729;1.0210;
-112.8000;0.4721;1.0260;
-112.5000;0.4729;1.0210;
-112.2000;0.4705;1.0160;
-111.9000;0.4729;1.0210;
-111.6000;0.4729;1.0235;
-111.3000;0.4689;1.0061;
-111.0000;0.4681;1.0036;
-110.7000;0.4729;1.0086;
-110.4000;0.4729;1.0011;
-110.1000;0.4737;1.0136;
-109.8000;0.4737;1.0086;
-109.5000;0.4721;1.0185;
-109.2000;0.4737;1.0260;
-108.9000;0.4729;1.0210;
-108.6000;0.4746;1.0285;
-108.3000;0.4697;1.0235;
-108.0000;0.4721;1.0335;
-107.7000;0.4729;1.0409;
-107.4000;0.4721;1.0335;
-107.1000;0.4737;1.0385;
-106.8000;0.4737;1.0260;
-106.5000;0.4737;1.0285;
-106.2000;0.4729;1.0260;
-105.9000;0.4672;1.0036;
-105.6000;0.4729;1.0210;
-105.3000;0.4737;1.0285;
-105.0000;0.4737;1.0260;
-104.7000;0.4729;1.0260;
-104.4000;0.4746;1.0260;
-104.1000;0.4729;1.0235;
-103.8000;0.4746;1.0310;
-103.5000;0.4729;1.0160;
-103.2000;0.4713;1.0185;
-102.9000;0.4729;1.0310;
-102.6000;0.4729;1.0310;
-102.3000;0.4721;1.0310;
-102.0000;0.4729;1.0310;
-101.7000;0.4762;1.0434;
-101.4000;0.4713;1.0235;
-101.1000;0.4746;1.0335;
-100.8000;0.4721;1.0260;
-100.5000;0.4803;1.0434;
-100.2000;0.4737;1.0260;
-99.9000;0.4737;1.0285;
-99.6000;0.4737;1.0285;
-99.3000;0.4729;1.0260;
-99.0000;0.4737;1.0235;
-98.7000;0.4729;1.0235;
-98.4000;0.4803;1.0534;
-98.1000;0.4713;1.0310;
-97.8000;0.4689;1.0210;
-97.5000;0.4713;1.0434;
-97.2000;0.4737;1.0409;
-96.9000;0.4729;1.0385;
-96.6000;0.4705;1.0285;
-96.3000;0.4754;1.0310;
-96.0000;0.4737;1.0235;
-95.7000;0.4762;1.0285;
-95.4000;0.4656;0.9886;
-95.1000;0.4754;1.0111;
-94.8000;0.4729;1.0111;
-94.5000;0.4729;1.0185;
-94.2000;0.4729;1.0235;
-93.9000;0.4681;1.0136;
-93.6000;0.4746;1.0235;
-93.3000;0.4746;1.0235;
-93.0000;0.4737;1.0210;
-92.7000;0.4746;1.0210;
-92.4000;0.4754;1.0185;
-92.1000;0.4746;1.0210;
-91.8000;0.4705;1.0136;
-91.5000;0.4737;1.0235;
-91.2000;0.4729;1.0210;
-90.9000;0.4729;1.0210;
-90.6000;0.4697;1.0160;
-90.3000;0.4729;1.0160;
-90.0000;0.4746;1.0061;
-89.7000;0.4721;1.0086;
-89.4000;0.4729;1.0136;
-89.1000;0.4681;0.9936;
-88.8000;0.4737;1.0111;
-88.5000;0.4746;1.0111;
-88.2000;0.4737;1.0136;
-87.9000;0.4689;1.0111;
-87.6000;0.4729;1.0185;
-87.3000;0.4729;1.0260;
-87.0000;0.4705;1.0160;
-86.7000;0.4721;1.0210;
-86.4000;0.4737;1.0185;
-86.1000;0.4737;1.0136;
-85.8000;0.4729;1.0111;
-85.5000;0.4721;1.0160;
-85.2000;0.4721;1.0160;
-84.9000;0.4746;1.0160;
-84.6000;0.4737;1.0136;
-84.3000;0.4721;1.0011;
-84.0000;0.4689;0.9886;
-83.7000;0.4721;0.9986;
-83.4000;0.4713;1.0036;
-83.1000;0.4713;1.0036;
-82.8000;0.4737;1.0086;
-82.5000;0.4713;1.0011;
-82.2000;0.4737;1.0111;
-81.9000;0.4737;1.0061;
-81.6000;0.4721;1.0011;
-81.3000;0.4713;0.9936;
-81.0000;0.4721;1.0011;
-80.7000;0.4754;1.0061;
-80.4000;0.4737;1.0061;
-80.1000;0.4737;1.0061;
-79.8000;0.4754;1.0185;
-79.5000;0.4746;1.0136;
-79.2000;0.4721;1.0111;
-78.9000;0.4729;1.0185;
-78.6000;0.4721;1.0235;
-78.3000;0.4729;1.0285;
-78.0000;0.4713;1.0235;
-77.7000;0.4729;1.0310;
-77.4000;0.4729;1.0434;
-77.1000;0.4721;1.0310;
-76.8000;0.4737;1.0360;
-76.5000;0.4737;1.0385;
-76.2000;0.4746;1.0310;
-75.9000;0.4746;1.0210;
-75.6000;0.4746;1.0235;
-75.3000;0.4737;1.0235;
-75.0000;0.4729;1.0235;
-74.7000;0.4729;1.0285;
-74.4000;0.4762;1.0335;
-74.1000;0.4762;1.0335;
-73.8000;0.4705;1.0185;
-73.5000;0.4754;1.0260;
-73.2000;0.4697;1.0185;
-72.9000;0.4811;1.0434;
-72.6000;0.4681;1.0036;
-72.3000;0.4713;1.0061;
-72.0000;0.4697;1.0061;
-71.7000;0.4729;1.0185;
-71.4000;0.4729;1.0136;
-71.1000;0.4754;1.0086;
-70.8000;0.4737;1.0111;
-70.5000;0.4746;1.0210;
-70.2000;0.4689;0.9986;
-69.9000;0.4729;1.0111;
-69.6000;0.4729;1.0111;
-69.3000;0.4729;1.0136;
-69.0000;0.4705;1.0136;
-68.7000;0.4729;1.0136;
-68.4000;0.4746;1.0160;
-68.1000;0.4689;1.0136;
-67.8000;0.4705;1.0210;
-67.5000;0.4713;1.0210;
-67.2000;0.4762;1.0434;
-66.9000;0.4713;1.0235;
-66.6000;0.4721;1.0235;
-66.3000;0.4729;1.0160;
-66.0000;0.4803;1.0360;
-65.7000;0.4754;1.0235;
-65.4000;0.4713;1.0185;
-65.1000;0.4762;1.0285;
-64.8000;0.4737;1.0210;
-64.5000;0.4729;1.0160;
-64.2000;0.4681;0.9986;
-63.9000;0.4746;1.0210;
-63.6000;0.4729;1.0160;
-63.3000;0.4737;1.0235;
-63.0000;0.4713;1.0260;
-62.7000;0.4721;1.0235;
-62.4000;0.4729;1.0235;
-62.1000;0.4737;1.0210;
-61.8000;0.4746;1.0210;
-61.5000;0.4737;1.0111;
-61.2000;0.4737;1.0086;
-60.9000;0.4737;1.0136;
-60.6000;0.4729;1.0160;
-60.3000;0.4754;1.0260;
-60.0000;0.4729;1.0185;
-59.7000;0.4737;1.0260;
-59.4000;0.4729;1.0285;
-59.1000;0.4762;1.0310;
-58.8000;0.4713;1.0136;
-58.5000;0.4754;1.0285;
-58.2000;0.4729;1.0185;
-57.9000;0.4672;1.0011;
-57.6000;0.4713;1.0111;
-57.3000;0.4746;1.0185;
-57.0000;0.4721;1.0235;
-56.7000;0.4754;1.0285;
-56.4000;0.4697;1.0185;
-56.1000;0.4721;1.0210;
-55.8000;0.4729;1.0285;
-55.5000;0.4827;1.0434;
-55.2000;0.4713;1.0160;
-54.9000;0.4729;1.0160;
-54.6000;0.4721;1.0260;
-54.3000;0.4746;1.0335;
-54.0000;0.4754;1.0260;
-53.7000;0.4713;1.0061;
-53.4000;0.4713;1.0086;
-53.1000;0.4713;1.0136;
-52.8000;0.4721;1.0185;
-52.5000;0.4860;1.0484;
-52.2000;0.4737;1.0061;
-51.9000;0.4746;1.0111;
-51.6000;0.4729;1.0210;
-51.3000;0.4737;1.0210;
-51.0000;0.4754;1.0285;
-50.7000;0.4737;1.0235;
-50.4000;0.4721;1.0160;
-50.1000;0.4689;1.0111;
-49.8000;0.4762;1.0335;
-49.5000;0.4713;1.0210;
-49.2000;0.4721;1.0310;
-48.9000;0.4770;1.0335;
-48.6000;0.4713;1.0210;
-48.3000;0.4713;1.0235;
-48.0000;0.4778;1.0385;
-47.7000;0.4697;1.0160;
-47.4000;0.4794;1.0360;
-47.1000;0.4754;1.0210;
-46.8000;0.4729;1.0111;
-46.5000;0.4737;1.0185;
-46.2000;0.4737;1.0210;
-45.9000;0.4746;1.0185;
-45.6000;0.4754;1.0185;
-45.3000;0.4762;1.0185;
-45.0000;0.4770;1.0260;
-44.7000;0.4746;1.0111;
-44.4000;0.4762;1.0136;
-44.1000;0.4721;1.0061;
-43.8000;0.4729;1.0061;
-43.5000;0.4721;1.0111;
-43.2000;0.4737;1.0160;
-42.9000;0.4737;1.0210;
-42.6000;0.4721;1.0086;
-42.3000;0.4713;1.0036;
-42.0000;0.4721;1.0086;
-41.7000;0.4746;1.0160;
-41.4000;0.4737;1.0160;
-41.1000;0.4746;1.0061;
-40.8000;0.4729;1.0086;
-40.5000;0.4729;1.0061;
-40.2000;0.4713;0.9911;
-39.9000;0.4721;0.9986;
-39.6000;0.4721;0.9911;
-39.3000;0.4737;0.9986;
-39.0000;0.4746;1.0061;
-38.7000;0.4737;1.0086;
-38.4000;0.4721;1.0111;
-38.1000;0.4754;1.0160;
-37.8000;0.4803;1.0335;
-37.5000;0.4729;1.0136;
-37.2000;0.4729;1.0086;
-36.9000;0.4729;1.0061;
-36.6000;0.4778;1.0160;
-36.3000;0.4746;1.0061;
-36.0000;0.4729;1.0036;
-35.7000;0.4713;0.9936;
-35.4000;0.4713;0.9986;
-35.1000;0.4746;1.0011;
-34.8000;0.4737;0.9986;
-34.5000;0.4632;0.9662;
-34.2000;0.4729;0.9911;
-33.9000;0.4705;0.9787;
-33.6000;0.4778;1.0086;
-33.3000;0.4713;0.9986;
-33.0000;0.4672;0.9862;
-32.7000;0.4746;1.0061;
-32.4000;0.4689;0.9936;
-32.1000;0.4737;1.0036;
-31.8000;0.4705;0.9936;
-31.5000;0.4762;1.0061;
-31.2000;0.4746;1.0111;
-30.9000;0.4697;1.0111;
-30.6000;0.4713;1.0185;
-30.3000;0.4746;1.0360;
-30.0000;0.4721;1.0310;
-29.7000;0.4729;1.0335;
-29.4000;0.4721;1.0310;
-29.1000;0.4729;1.0335;
-28.8000;0.4754;1.0434;
-28.5000;0.4713;1.0235;
-28.2000;0.4705;1.0260;
-27.9000;0.4632;0.9986;
-27.6000;0.4754;1.0360;
-27.3000;0.4705;1.0235;
-27.0000;0.4737;1.0310;
-26.7000;0.4713;1.0285;
-26.4000;0.4672;1.0160;
-26.1000;0.4713;1.0210;
-25.8000;0.4746;1.0235;
-25.5000;0.4737;1.0235;
-25.2000;0.4737;1.0210;
-24.9000;0.4737;1.0185;
-24.6000;0.4713;1.0160;
-24.3000;0.4762;1.0260;
-24.0000;0.4737;1.0160;
-23.7000;0.4721;1.0136;
-23.4000;0.4737;1.0185;
-23.1000;0.4721;1.0160;
-22.8000;0.4729;1.0235;
-22.5000;0.4737;1.0285;
-22.2000;0.4697;1.0160;
-21.9000;0.4729;1.0310;
-21.6000;0.4721;1.0285;
-21.3000;0.4721;1.0310;
-21.0000;0.4713;1.0160;
-20.7000;0.4721;1.0185;
-20.4000;0.4705;1.0111;
-20.1000;0.4713;1.0235;
-19.8000;0.4705;1.0310;
-19.5000;0.4721;1.0335;
-19.2000;0.4672;1.0235;
-18.9000;0.4746;1.0409;
-18.6000;0.4737;1.0360;
-18.3000;0.4721;1.0310;
-18.0000;0.4794;1.0409;
-17.7000;0.4746;1.0260;
-17.4000;0.4729;1.0285;
-17.1000;0.4729;1.0210;
-16.8000;0.4713;1.0185;
-16.5000;0.4746;1.0235;
-16.2000;0.4754;1.0335;
-15.9000;0.4746;1.0310;
-15.6000;0.4729;1.0285;
-15.3000;0.4713;1.0335;
-15.0000;0.4689;1.0210;
-14.7000;0.4721;1.0210;
-14.4000;0.4737;1.0235;
-14.1000;0.4729;1.0285;
-13.8000;0.4729;1.0260;
-13.5000;0.4713;1.0210;
-13.2000;0.4729;1.0210;
-12.9000;0.4721;1.0185;
-12.6000;0.4721;1.0185;
-12.3000;0.4746;1.0235;
-12.0000;0.4729;1.0160;
-11.7000;0.4778;1.0210;
-11.4000;0.4721;1.0061;
-11.1000;0.4689;1.0011;
-10.8000;0.4746;1.0136;
-10.5000;0.4721;1.0011;
-10.2000;0.4721;1.0036;
-9.9000;0.4794;1.0335;
-9.6000;0.4746;1.0136;
-9.3000;0.4754;1.0111;
-9.0000;0.4729;1.0036;
-8.7000;0.4729;1.0086;
-8.4000;0.4746;1.0235;
-8.1000;0.4762;1.0310;
-7.8000;0.4729;1.0285;
-7.5000;0.4705;1.0235;
-7.2000;0.4737;1.0335;
-6.9000;0.4729;1.0285;
-6.6000;0.4721;1.0260;
-6.3000;0.4721;1.0260;
-6.0000;0.4754;1.0434;
-5.7000;0.4746;1.0360;
-5.4000;0.4713;1.0335;
-5.1000;0.4737;1.0409;
-4.8000;0.4746;1.0385;
-4.5000;0.4754;1.0385;
-4.2000;0.4737;1.0285;
-3.9000;0.4713;1.0210;
-3.6000;0.4746;1.0335;
-3.3000;0.4705;1.0210;
-3.0000;0.4737;1.0285;
-2.7000;0.4721;1.0260;
-2.4000;0.4729;1.0310;
-2.1000;0.4746;1.0260;
-1.8000;0.4737;1.0235;
-1.5000;0.4729;1.0136;
-1.2000;0.4713;1.0086;
-0.9000;0.4746;1.0160;
-0.6000;0.4729;1.0210;
-0.3000;0.4737;1.0235;
0.0000;0.4737;1.0235;
0.3000;0.4868;1.0509;
0.6000;0.5136;1.0883;
0.9000;0.5307;1.1281;
1.2000;0.5405;1.1555;
1.5000;0.5617;1.2028;
1.8000;0.5714;1.2402;
2.1000;0.5788;1.2526;
2.4000;0.5845;1.2651;
2.7000;0.5910;1.2850;
3.0000;0.5942;1.2850;
3.3000;0.5975;1.2974;
3.6000;0.5999;1.3149;
3.9000;0.6015;1.3298;
4.2000;0.6089;1.3522;
4.5000;0.6081;1.3473;
4.8000;0.6121;1.3497;
5.1000;0.6129;1.3597;
5.4000;0.6154;1.3622;
5.7000;0.6105;1.3473;
6.0000;0.6195;1.3647;
6.3000;0.6227;1.3547;
6.6000;0.6227;1.3448;
6.9000;0.6243;1.3473;
7.2000;0.6252;1.3473;
7.5000;0.6268;1.3522;
7.8000;0.6292;1.3697;
8.1000;0.6325;1.3672;
8.4000;0.6325;1.3647;
8.7000;0.6333;1.3672;
9.0000;0.6357;1.3722;
9.3000;0.6349;1.3697;
9.6000;0.6390;1.3771;
9.9000;0.6406;1.3746;
10.2000;0.6414;1.3722;
10.5000;0.6488;1.3921;
10.8000;0.6447;1.3771;
11.1000;0.6455;1.3746;
11.4000;0.6471;1.3796;
11.7000;0.6496;1.3846;
12.0000;0.6496;1.3771;
12.3000;0.6520;1.3821;
12.6000;0.6520;1.3722;
12.9000;0.6593;1.3921;
13.2000;0.6561;1.3821;
13.5000;0.6553;1.3697;
13.8000;0.6593;1.3771;
14.1000;0.6593;1.3597;
14.4000;0.6626;1.3746;
14.7000;0.6602;1.3647;
15.0000;0.6618;1.3647;
15.3000;0.6634;1.3672;
15.6000;0.6642;1.3597;
15.9000;0.6683;1.3647;
16.2000;0.6626;1.3522;
16.5000;0.6667;1.3497;
16.8000;0.6699;1.3572;
17.1000;0.6716;1.3547;
17.4000;0.6716;1.3497;
17.7000;0.6642;1.3373;
18.0000;0.6716;1.3597;
18.3000;0.6724;1.3622;
18.6000;0.6724;1.3647;
18.9000;0.6740;1.3647;
19.2000;0.6748;1.3672;
19.5000;0.6748;1.3622;
19.8000;0.6789;1.3597;
20.1000;0.6756;1.3473;
20.4000;0.6781;1.3547;
20.7000;0.6707;1.3223;
21.0000;0.6805;1.3497;
21.3000;0.6821;1.3497;
21.6000;0.6829;1.3522;
21.9000;0.6838;1.3572;
22.2000;0.6838;1.3572;
22.5000;0.6838;1.3547;
22.8000;0.6862;1.3572;
23.1000;0.6813;1.3423;
23.4000;0.6854;1.3497;
23.7000;0.6886;1.3647;
24.0000;0.6854;1.3572;
24.3000;0.6829;1.3547;
24.6000;0.6846;1.3572;
24.9000;0.6903;1.3597;
25.2000;0.6935;1.3722;
25.5000;0.6895;1.3647;
25.8000;0.6919;1.3697;
26.1000;0.6943;1.3746;
26.4000;0.6911;1.3672;
26.7000;0.6895;1.3622;
27.0000;0.6927;1.3622;
27.3000;0.6911;1.3572;
27.6000;0.6927;1.3821;
27.9000;0.6935;1.3821;
28.2000;0.6919;1.3871;
28.5000;0.6943;1.3896;
28.8000;0.6943;1.3771;
29.1000;0.6960;1.3796;
29.4000;0.6968;1.3746;
29.7000;0.6960;1.3697;
30.0000;0.6976;1.3572;
30.3000;0.7139;1.3946;
30.6000;0.6952;1.3448;
30.9000;0.7000;1.3547;
31.2000;0.6984;1.3522;
31.5000;0.6984;1.3473;
31.8000;0.6992;1.3398;
32.1000;0.6992;1.3448;
32.4000;0.6976;1.3473;
32.7000;0.7025;1.3547;
33.0000;0.6984;1.3547;
33.3000;0.7000;1.3547;
33.6000;0.7041;1.3622;
33.9000;0.7009;1.3547;
34.2000;0.7025;1.3697;
34.5000;0.7090;1.3796;
34.8000;0.7025;1.3572;
35.1000;0.7057;1.3672;
35.4000;0.7033;1.3597;
35.7000;0.7025;1.3597;
36.0000;0.7033;1.3597;
36.3000;0.7033;1.3647;
36.6000;0.7041;1.3647;
36.9000;0.7033;1.3572;
37.2000;0.7049;1.3597;
37.5000;0.7033;1.3522;
37.8000;0.7057;1.3622;
38.1000;0.7025;1.3597;
38.4000;0.7033;1.3622;
38.7000;0.7041;1.3597;
39.0000;0.7049;1.3622;
39.3000;0.7066;1.3647;
39.6000;0.7098;1.3622;
39.9000;0.7009;1.3398;
40.2000;0.7074;1.3547;
40.5000;0.7057;1.3522;
40.8000;0.7074;1.3672;
41.1000;0.7074;1.3697;
41.4000;0.7090;1.3697;
41.7000;0.7017;1.3423;
42.0000;0.7074;1.3647;
42.3000;0.7106;1.3697;
42.6000;0.7082;1.3647;
42.9000;0.7090;1.3672;
43.2000;0.7066;1.3722;
43.5000;0.7098;1.3672;
43.8000;0.7041;1.3522;
44.1000;0.7106;1.3746;
44.4000;0.7114;1.3746;
44.7000;0.7066;1.3572;
45.0000;0.7106;1.3771;
45.3000;0.7114;1.3771;
45.6000;0.7123;1.3771;
45.9000;0.7106;1.3622;
46.2000;0.7131;1.3672;
46.5000;0.7131;1.3746;
46.8000;0.7106;1.3722;
47.1000;0.7098;1.3647;
47.4000;0.7114;1.3672;
47.7000;0.7171;1.3821;
48.0000;0.7139;1.3697;
48.3000;0.7123;1.3722;
48.6000;0.7123;1.3672;
48.9000;0.7212;1.3871;
49.2000;0.7131;1.3547;
49.5000;0.7106;1.3572;
49.8000;0.7106;1.3622;
50.1000;0.7098;1.3647;
50.4000;0.7179;1.3746;
50.7000;0.7123;1.3547;
51.0000;0.7179;1.3722;
51.3000;0.7147;1.3597;
51.6000;0.7131;1.3572;
51.9000;0.7123;1.3572;
52.2000;0.7131;1.3597;
52.5000;0.7131;1.3597;
52.8000;0.7139;1.3547;
53.1000;0.7131;1.3572;
53.4000;0.7098;1.3547;
53.7000;0.7139;1.3622;
54.0000;0.7147;1.3647;
54.3000;0.7139;1.3697;
54.6000;0.7139;1.3672;
54.9000;0.7147;1.3672;
55.2000;0.7147;1.3647;
55.5000;0.7139;1.3647;
55.8000;0.7155;1.3672;
56.1000;0.7163;1.3746;
56.4000;0.7106;1.3497;
56.7000;0.7155;1.3647;
57.0000;0.7147;1.3572;
57.3000;0.7163;1.3672;
57.6000;0.7090;1.3522;
57.9000;0.7163;1.3672;
58.2000;0.7131;1.3572;
58.5000;0.7155;1.3522;
58.8000;0.7179;1.3572;
59.1000;0.7155;1.3547;
59.4000;0.7163;1.3572;
59.7000;0.7147;1.3497;
60.0000;0.7179;1.3547;
60.3000;0.7188;1.3572;
60.6000;0.7106;1.3423;
60.9000;0.7179;1.3622;
61.2000;0.7171;1.3622;
61.5000;0.7188;1.3647;
61.8000;0.7171;1.3672;
62.1000;0.7171;1.3647;
62.4000;0.7155;1.3647;
62.7000;0.7131;1.3622;
63.0000;0.7179;1.3622;
63.3000;0.7171;1.3522;
63.6000;0.7155;1.3448;
63.9000;0.7179;1.3373;
64.2000;0.7179;1.3298;
64.5000;0.7123;1.3024;
64.8000;0.7171;1.3248;
65.1000;0.7163;1.3248;
65.4000;0.7171;1.3223;
65.7000;0.7188;1.3223;
66.0000;0.7179;1.3149;
66.3000;0.7188;1.3099;
66.6000;0.7179;1.3149;
66.9000;0.7253;1.3348;
67.2000;0.7171;1.3174;
67.5000;0.7179;1.3273;
67.8000;0.7188;1.3348;
68.1000;0.7179;1.3448;
68.4000;0.7179;1.3473;
68.7000;0.7245;1.3622;
69.0000;0.7196;1.3448;
69.3000;0.7179;1.3398;
69.6000;0.7179;1.3373;
69.9000;0.7179;1.3298;
70.2000;0.7196;1.3298;
70.5000;0.7179;1.3373;
70.8000;0.7163;1.3298;
71.1000;0.7196;1.3398;
71.4000;0.7179;1.3323;
71.7000;0.7212;1.3522;
72.0000;0.7196;1.3497;
72.3000;0.7196;1.3497;
72.6000;0.7196;1.3473;
72.9000;0.7163;1.3373;
73.2000;0.7204;1.3423;
73.5000;0.7204;1.3398;
73.8000;0.7188;1.3373;
74.1000;0.7188;1.3423;
74.4000;0.7196;1.3473;
74.7000;0.7188;1.3448;
75.0000;0.7212;1.3473;
75.3000;0.7196;1.3473;
75.6000;0.7228;1.3473;
75.9000;0.7196;1.3373;
76.2000;0.7196;1.3373;
76.5000;0.7236;1.3497;
76.8000;0.7212;1.3522;
77.1000;0.7228;1.3398;
77.4000;0.7236;1.3273;
77.7000;0.7204;1.3149;
78.0000;0.7212;1.3199;
78.3000;0.7204;1.3199;
78.6000;0.7204;1.3199;
78.9000;0.7220;1.3298;
79.2000;0.7220;1.3174;
79.5000;0.7212;1.3174;
79.8000;0.7236;1.3273;
80.1000;0.7212;1.3223;
80.4000;0.7212;1.3248;
80.7000;0.7228;1.3298;
81.0000;0.7228;1.3323;
81.3000;0.7204;1.3248;
81.6000;0.7220;1.3273;
81.9000;0.7204;1.3248;
82.2000;0.7269;1.3398;
82.5000;0.7285;1.3572;
82.8000;0.7212;1.3373;
83.1000;0.7220;1.3398;
83.4000;0.7204;1.3448;
83.7000;0.7220;1.3448;
84.0000;0.7106;1.3149;
84.3000;0.7236;1.3473;
84.6000;0.7293;1.3722;
84.9000;0.7220;1.3547;
85.2000;0.7228;1.3547;
85.5000;0.7220;1.3522;
85.8000;0.7212;1.3497;
86.1000;0.7220;1.3473;
86.4000;0.7228;1.3497;
86.7000;0.7220;1.3473;
87.0000;0.7220;1.3473;
87.3000;0.7220;1.3497;
87.6000;0.7212;1.3423;
87.9000;0.7188;1.3423;
88.2000;0.7204;1.3572;
88.5000;0.7220;1.3572;
88.8000;0.7204;1.3448;
89.1000;0.7220;1.3473;
89.4000;0.7245;1.3547;
89.7000;0.7245;1.3597;
90.0000;0.7318;1.3672;
90.3000;0.7204;1.3298;
90.6000;0.7228;1.3497;
90.9000;0.7253;1.3572;
91.2000;0.7245;1.3572;
91.5000;0.7236;1.3497;
91.8000;0.7236;1.3473;
92.1000;0.7236;1.3423;
92.4000;0.7228;1.3398;
92.7000;0.7228;1.3497;
93.0000;0.7220;1.3497;
93.3000;0.7236;1.3497;
93.6000;0.7228;1.3423;
93.9000;0.7228;1.3373;
94.2000;0.7147;1.3174;
94.5000;0.7236;1.3348;
94.8000;0.7212;1.3248;
95.1000;0.7212;1.3298;
95.4000;0.7228;1.3298;
95.7000;0.7220;1.3223;
96.0000;0.7253;1.3323;
96.3000;0.7253;1.3373;
96.6000;0.7334;1.3522;
96.9000;0.7245;1.3273;
97.2000;0.7261;1.3298;
97.5000;0.7245;1.3298;
97.8000;0.7204;1.3124;
98.1000;0.7228;1.3099;
98.4000;0.7245;1.3273;
98.7000;0.7293;1.3423;
99.0000;0.7261;1.3348;
99.3000;0.7220;1.3223;
99.6000;0.7188;1.3124;
99.9000;0.7245;1.3248;
100.2000;0.7236;1.3273;
100.5000;0.7236;1.3273;
100.8000;0.7245;1.3323;
101.1000;0.7220;1.3248;
101.4000;0.7253;1.3348;
101.7000;0.7228;1.3298;
102.0000;0.7261;1.3348;
102.3000;0.7269;1.3373;
102.6000;0.7253;1.3373;
102.9000;0.7245;1.3373;
103.2000;0.7236;1.3373;
103.5000;0.7253;1.3298;
103.8000;0.7318;1.3423;
104.1000;0.7245;1.3149;
104.4000;0.7245;1.3124;
104.7000;0.7245;1.3099;
105.0000;0.7236;1.3074;
105.3000;0.7245;1.3223;
105.6000;0.7212;1.3149;
105.9000;0.7245;1.3298;
106.2000;0.7277;1.3373;
106.5000;0.7261;1.3323;
106.8000;0.7236;1.3273;
107.1000;0.7269;1.3373;
107.4000;0.7253;1.3373;
107.7000;0.7285;1.3323;
108.0000;0.7253;1.3199;
108.3000;0.7253;1.3174;
108.6000;0.7253;1.3199;
108.9000;0.7245;1.3273;
109.2000;0.7228;1.3248;
109.5000;0.7261;1.3323;
109.8000;0.7245;1.3273;
110.1000;0.7253;1.3323;
110.4000;0.7236;1.3273;
110.7000;0.7212;1.3174;
111.0000;0.7310;1.3373;
111.3000;0.7261;1.3273;
111.6000;0.7245;1.3298;
111.9000;0.7236;1.3323;
112.2000;0.7236;1.3273;
112.5000;0.7245;1.3298;
112.8000;0.7253;1.3423;
113.1000;0.7236;1.3373;
113.4000;0.7220;1.3248;
113.7000;0.7269;1.3348;
114.0000;0.7269;1.3373;
114.3000;0.7269;1.3298;
114.6000;0.7212;1.3149;
114.9000;0.7228;1.3199;
115.2000;0.7261;1.3223;
115.5000;0.7261;1.3149;
115.8000;0.7253;1.3049;
116.1000;0.7261;1.3074;
116.4000;0.7253;1.3099;
116.7000;0.7261;1.3174;
117.0000;0.7277;1.3174;
117.3000;0.7326;1.3373;
117.6000;0.7277;1.3199;
117.9000;0.7285;1.3174;
118.2000;0.7269;1.3099;
118.5000;0.7253;1.3074;
118.8000;0.7261;1.3049;
119.1000;0.7261;1.3074;
119.4000;0.7261;1.3074;
119.7000;0.7245;1.3049;
120.0000;0.7204;1.2999;
120.3000;0.7245;1.3124;
120.6000;0.7277;1.3174;
120.9000;0.7228;1.2974;
121.2000;0.7228;1.3099;
121.5000;0.7269;1.3174;
121.8000;0.7228;1.3149;
122.1000;0.7253;1.3223;
122.4000;0.7261;1.3199;
122.7000;0.7285;1.3273;
123.0000;0.7261;1.3099;
123.3000;0.7261;1.3124;
123.6000;0.7302;1.3273;
123.9000;0.7245;1.3174;
124.2000;0.7236;1.3223;
124.5000;0.7245;1.3273;
124.8000;0.7245;1.3199;
125.1000;0.7261;1.3273;
125.4000;0.7228;1.3199;
125.7000;0.7285;1.3323;
126.0000;0.7269;1.3348;
126.3000;0.7261;1.3273;
126.6000;0.7236;1.3199;
126.9000;0.7253;1.3174;
127.2000;0.7261;1.3248;
127.5000;0.7326;1.3398;
127.8000;0.7285;1.3373;
128.1000;0.7277;1.3348;
128.4000;0.7245;1.3273;
128.7000;0.7236;1.3174;
129.0000;0.7269;1.3174;
129.3000;0.7293;1.3223;
129.6000;0.7253;1.3149;
129.9000;0.7261;1.3124;
130.2000;0.7245;1.3049;
130.5000;0.7310;1.3223;
130.8000;0.7245;1.3074;
131.1000;0.7171;1.2825;
131.4000;0.7253;1.3024;
131.7000;0.7269;1.3149;
132.0000;0.7269;1.3049;
132.3000;0.7261;1.2999;
132.6000;0.7253;1.2974;
132.9000;0.7285;1.3049;
133.2000;0.7261;1.3074;
133.5000;0.7245;1.3099;
133.8000;0.7261;1.3174;
134.1000;0.7261;1.3273;
134.4000;0.7293;1.3298;
134.7000;0.7261;1.3273;
135.0000;0.7261;1.3298;
135.3000;0.7326;1.3448;
135.6000;0.7277;1.3323;
135.9000;0.7293;1.3323;
136.2000;0.7269;1.3323;
136.5000;0.7261;1.3273;
136.8000;0.7293;1.3398;
137.1000;0.7261;1.3298;
137.4000;0.7261;1.3223;
137.7000;0.7228;1.3124;
138.0000;0.7253;1.3199;
138.3000;0.7359;1.3373;
138.6000;0.7261;1.3074;
138.9000;0.7253;1.2974;
139.2000;0.7326;1.3248;
139.5000;0.7293;1.3199;
139.8000;0.7188;1.2900;
140.1000;0.7253;1.3024;
140.4000;0.7261;1.3124;
140.7000;0.7261;1.3248;
141.0000;0.7245;1.3199;
141.3000;0.7253;1.3323;
141.6000;0.7261;1.3248;
141.9000;0.7261;1.3323;
142.2000;0.7285;1.3448;
142.5000;0.7261;1.3373;
142.8000;0.7269;1.3398;
143.1000;0.7261;1.3373;
143.4000;0.7261;1.3423;
143.7000;0.7269;1.3323;
144.0000;0.7261;1.3323;
144.3000;0.7253;1.3199;
144.6000;0.7269;1.3199;
144.9000;0.7253;1.3149;
145.2000;0.7269;1.3199;
145.5000;0.7261;1.3223;
145.8000;0.7269;1.3199;
146.1000;0.7261;1.3199;
146.4000;0.7253;1.3223;
146.7000;0.7277;1.3298;
147.0000;0.7277;1.3348;
147.3000;0.7277;1.3373;
147.6000;0.7285;1.3323;
147.9000;0.7277;1.3199;
148.2000;0.7293;1.3199;
148.5000;0.7334;1.3373;
148.8000;0.7269;1.3248;
149.1000;0.7245;1.3174;
149.4000;0.7236;1.3149;
149.7000;0.7293;1.3199;
150.0000;0.7277;1.3248;
150.3000;0.7269;1.3248;
150.6000;0.7285;1.3348;
150.9000;0.7269;1.3248;
151.2000;0.7277;1.3248;
151.5000;0.7269;1.3248;
151.8000;0.7261;1.3248;
152.1000;0.7318;1.3298;
152.4000;0.7277;1.3124;
152.7000;0.7245;1.3124;
153.0000;0.7302;1.3298;
153.3000;0.7310;1.3248;
153.6000;0.7277;1.3248;
153.9000;0.7261;1.3248;
154.2000;0.7245;1.3124;
154.5000;0.7269;1.3199;
154.8000;0.7277;1.3149;
155.1000;0.7261;1.3124;
155.4000;0.7220;1.3074;
155.7000;0.7285;1.3149;
156.0000;0.7350;1.3348;
156.3000;0.7310;1.3298;
156.6000;0.7277;1.3174;
156.9000;0.7277;1.3273;
157.2000;0.7261;1.3248;
157.5000;0.7269;1.3174;
157.8000;0.7212;1.2999;
158.1000;0.7236;1.3074;
158.4000;0.7350;1.3323;
158.7000;0.7310;1.3248;
159.0000;0.7261;1.3074;
159.3000;0.7334;1.3273;
159.6000;0.7277;1.3174;
159.9000;0.7253;1.3199;
160.2000;0.7269;1.3248;
160.5000;0.7277;1.3174;
160.8000;0.7277;1.3199;
161.1000;0.7245;1.3149;
161.4000;0.7269;1.3099;
161.7000;0.7253;1.3024;
162.0000;0.7277;1.3099;
162.3000;0.7293;1.3049;
162.6000;0.7277;1.3049;
162.9000;0.7302;1.3099;
163.2000;0.7293;1.3099;
163.5000;0.7285;1.3149;
163.8000;0.7285;1.3024;
164.1000;0.7277;1.3074;
164.4000;0.7261;1.3024;
164.7000;0.7261;1.3049;
165.0000;0.7293;1.3049;
165.3000;0.7269;1.2974;
165.6000;0.7285;1.2925;
165.9000;0.7318;1.3074;
166.2000;0.7293;1.3099;
166.5000;0.7245;1.3149;
166.8000;0.7285;1.3273;
167.1000;0.7261;1.3348;
167.4000;0.7285;1.3398;
167.7000;0.7293;1.3423;
168.0000;0.7269;1.3323;
168.3000;0.7285;1.3298;
168.6000;0.7285;1.3223;
168.9000;0.7302;1.3348;
169.2000;0.7261;1.3273;
169.5000;0.7302;1.3323;
169.8000;0.7285;1.3298;
170.1000;0.7293;1.3273;
170.4000;0.7253;1.3174;
170.7000;0.7269;1.3273;
171.0000;0.7269;1.3099;
171.3000;0.7261;1.2999;
171.6000;0.7269;1.2925;
171.9000;0.7277;1.2825;
172.2000;0.7285;1.2825;
172.5000;0.7253;1.2925;
172.8000;0.7293;1.3049;
173.1000;0.7302;1.3049;
173.4000;0.7220;1.2875;
173.7000;0.7293;1.3024;
174.0000;0.7285;1.2974;
174.3000;0.7318;1.2999;
174.6000;0.7277;1.2900;
174.9000;0.7326;1.3049;
175.2000;0.7326;1.3024;
175.5000;0.7269;1.2925;
175.8000;0.7277;1.2875;
176.1000;0.7285;1.2950;
176.4000;0.7204;1.2825;
176.7000;0.7285;1.2999;
177.0000;0.7367;1.3199;
177.3000;0.7261;1.2999;
177.6000;0.7285;1.3049;
177.9000;0.7261;1.2999;
178.2000;0.7277;1.3099;
178.5000;0.7269;1.3124;
178.8000;0.7293;1.3199;
179.1000;0.7293;1.3149;
179.4000;0.7188;1.2825;
179.7000;0.7277;1.3124;
180.0000;0.7293;1.3174;
180.3000;0.7285;1.3223;
180.6000;0.7269;1.3174;
180.9000;0.7269;1.3124;
181.2000;0.7269;1.3074;
181.5000;0.7277;1.3223;
181.8000;0.7293;1.3149;
182.1000;0.7261;1.2999;
182.4000;0.7253;1.3024;
182.7000;0.7318;1.3074;
183.0000;0.7277;1.2950;
183.3000;0.7253;1.2875;
183.6000;0.7293;1.2999;
183.9000;0.7285;1.3024;
184.2000;0.7285;1.2999;
184.5000;0.7285;1.2974;
184.8000;0.7285;1.3024;
185.1000;0.7285;1.2950;
185.4000;0.7350;1.3024;
185.7000;0.7310;1.2950;
186.0000;0.7269;1.2900;
186.3000;0.7293;1.2950;
186.6000;0.7326;1.3049;
186.9000;0.7285;1.2925;
187.2000;0.7293;1.2925;
187.5000;0.7342;1.3049;
187.8000;0.7350;1.3099;
188.1000;0.7302;1.2999;
188.4000;0.7310;1.3024;
188.7000;0.7293;1.3049;
189.0000;0.7293;1.3099;
189.3000;0.7277;1.3149;
189.6000;0.7293;1.3248;
189.9000;0.7285;1.3323;
190.2000;0.7285;1.3323;
190.5000;0.7269;1.3174;
190.8000;0.7310;1.3273;
191.1000;0.7269;1.3199;
191.4000;0.7236;1.3149;
191.7000;0.7277;1.3223;
192.0000;0.7318;1.3273;
192.3000;0.7269;1.3174;
192.6000;0.7285;1.3124;
192.9000;0.7293;1.3174;
193.2000;0.7326;1.3373;
193.5000;0.7261;1.3248;
193.8000;0.7285;1.3248;
194.1000;0.7285;1.3199;
194.4000;0.7293;1.3298;
194.7000;0.7285;1.3223;
195.0000;0.7293;1.3149;
195.3000;0.7326;1.3298;
195.6000;0.7293;1.3124;
195.9000;0.7293;1.3124;
196.2000;0.7285;1.3074;
196.5000;0.7285;1.2974;
196.8000;0.7277;1.2999;
197.1000;0.7277;1.3049;
197.4000;0.7302;1.3248;
197.7000;0.7261;1.3273;
198.0000;0.7285;1.3273;
198.3000;0.7326;1.3298;
198.6000;0.7310;1.3223;
198.9000;0.7220;1.2950;
199.2000;0.7285;1.3074;
199.5000;0.7277;1.2999;
199.8000;0.7285;1.3049;
200.1000;0.7269;1.2974;
200.4000;0.7285;1.3024;
200.7000;0.7277;1.3049;
201.0000;0.7350;1.3223;
201.3000;0.7277;1.3074;
201.6000;0.7261;1.3099;
201.9000;0.7253;1.3049;
202.2000;0.7277;1.3074;
202.5000;0.7302;1.3099;
202.8000;0.7253;1.3024;
203.1000;0.7277;1.3049;
203.4000;0.7285;1.3074;
203.7000;0.7269;1.2999;
204.0000;0.7302;1.3024;
204.3000;0.7293;1.3099;
204.6000;0.7277;1.3174;
204.9000;0.7236;1.2999;
205.2000;0.7285;1.3199;
205.5000;0.7310;1.3223;
205.8000;0.7302;1.3273;
206.1000;0.7293;1.3273;
206.4000;0.7302;1.3248;
206.7000;0.7277;1.3149;
207.0000;0.7269;1.3124;
207.3000;0.7293;1.3199;
207.6000;0.7261;1.3074;
207.9000;0.7285;1.2999;
208.2000;0.7293;1.3124;
208.5000;0.7293;1.3174;
208.8000;0.7188;1.2900;
209.1000;0.7302;1.3223;
209.4000;0.7302;1.3223;
209.7000;0.7310;1.3223;
210.0000;0.7228;1.3099;
210.3000;0.7277;1.3149;
210.6000;0.7293;1.3248;
210.9000;0.7293;1.3199;
211.2000;0.7253;1.3174;
211.5000;0.7245;1.3248;
211.8000;0.7293;1.3298;
212.1000;0.7269;1.3323;
212.4000;0.7318;1.3473;
212.7000;0.7277;1.3398;
213.0000;0.7359;1.3597;
213.3000;0.7285;1.3323;
213.6000;0.7302;1.3348;
213.9000;0.7302;1.3298;
214.2000;0.7285;1.3223;
214.5000;0.7269;1.3124;
214.8000;0.7277;1.3174;
215.1000;0.7253;1.3099;
215.4000;0.7277;1.3124;
215.7000;0.7269;1.3099;
216.0000;0.7285;1.3049;
216.3000;0.7245;1.2999;
216.6000;0.7285;1.3024;
216.9000;0.7277;1.3049;
217.2000;0.7285;1.3024;
217.5000;0.7212;1.2800;
217.8000;0.7334;1.3199;
218.1000;0.7285;1.3124;
218.4000;0.7285;1.3124;
218.7000;0.7269;1.2974;
219.0000;0.7228;1.2875;
219.3000;0.7302;1.3049;
219.6000;0.7277;1.3124;
219.9000;0.7310;1.3323;
220.2000;0.7277;1.3248;
220.5000;0.7269;1.3223;
220.8000;0.7318;1.3348;
221.1000;0.7277;1.3199;
221.4000;0.7236;1.3149;
221.7000;0.7269;1.3273;
222.0000;0.7261;1.3298;
222.3000;0.7285;1.3323;
222.6000;0.7277;1.3273;
222.9000;0.7293;1.3273;
223.2000;0.7277;1.3124;
223.5000;0.7326;1.3273;
223.8000;0.7277;1.3099;
224.1000;0.7302;1.3124;
224.4000;0.7285;1.3149;
224.7000;0.7302;1.3199;
225.0000;0.7293;1.3199;
225.3000;0.7285;1.3149;
225.6000;0.7277;1.3124;
225.9000;0.7269;1.3074;
226.2000;0.7277;1.3199;
226.5000;0.7269;1.3223;
226.8000;0.7318;1.3348;
227.1000;0.7196;1.3074;
227.4000;0.7269;1.3223;
227.7000;0.7293;1.3298;
228.0000;0.7269;1.3174;
228.3000;0.7285;1.3174;
228.6000;0.7334;1.3373;
228.9000;0.7285;1.3348;
229.2000;0.7277;1.3298;
229.5000;0.7334;1.3373;
229.8000;0.7285;1.3273;
230.1000;0.7285;1.3273;
230.4000;0.7277;1.3273;
230.7000;0.7204;1.2925;
231.0000;0.7285;1.3099;
231.3000;0.7204;1.2900;
231.6000;0.7277;1.3049;
231.9000;0.7277;1.3124;
232.2000;0.7302;1.3248;
232.5000;0.7302;1.3298;
232.8000;0.7302;1.3273;
233.1000;0.7293;1.3199;
233.4000;0.7302;1.3348;
233.7000;0.7302;1.3373;
234.0000;0.7310;1.3323;
234.3000;0.7302;1.3298;
234.6000;0.7302;1.3199;
234.9000;0.7302;1.3199;
235.2000;0.7285;1.3199;
235.5000;0.7277;1.3174;
235.8000;0.7302;1.3248;
236.1000;0.7285;1.3223;
236.4000;0.7285;1.3248;
236.7000;0.7285;1.3174;
237.0000;0.7269;1.3174;
237.3000;0.7285;1.3199;
237.6000;0.7293;1.3223;
237.9000;0.7269;1.3223;
238.2000;0.7261;1.3199;
238.5000;0.7285;1.3273;
238.8000;0.7277;1.3199;
239.1000;0.7269;1.3273;
239.4000;0.7269;1.3248;
239.7000;0.7293;1.3273;
240.0000;0.7293;1.3199;
240.3000;0.7285;1.3174;
240.6000;0.7302;1.3223;
240.9000;0.7253;1.3199;
241.2000;0.7277;1.3248;
241.5000;0.7277;1.3223;
241.8000;0.7269;1.3248;
242.1000;0.7277;1.3199;
242.4000;0.7245;1.3149;
242.7000;0.7269;1.3223;
243.0000;0.7261;1.3199;
243.3000;0.7285;1.3223;
243.6000;0.7269;1.3199;
243.9000;0.7253;1.3099;
244.2000;0.7277;1.3099;
244.5000;0.7228;1.2950;
244.8000;0.7302;1.3149;
245.1000;0.7293;1.3099;
245.4000;0.7302;1.3149;
245.7000;0.7293;1.3124;
246.0000;0.7302;1.3248;
246.3000;0.7285;1.3199;
246.6000;0.7293;1.3248;
246.9000;0.7293;1.3199;
247.2000;0.7269;1.3248;
247.5000;0.7261;1.3248;
247.8000;0.7147;1.2925;
248.1000;0.7253;1.3174;
248.4000;0.7261;1.3149;
248.7000;0.7293;1.3273;
249.0000;0.7269;1.3149;
249.3000;0.7277;1.3099;
249.6000;0.7269;1.3149;
249.9000;0.7285;1.3174;
250.2000;0.7277;1.3149;
250.5000;0.7302;1.3149;
250.8000;0.7261;1.3124;
251.1000;0.7293;1.3223;
251.4000;0.7277;1.3248;
251.7000;0.7269;1.3248;
252.0000;0.7285;1.3348;
252.3000;0.7269;1.3298;
252.6000;0.7277;1.3298;
252.9000;0.7277;1.3323;
253.2000;0.7293;1.3323;
253.5000;0.7334;1.3398;
253.8000;0.7293;1.3199;
254.1000;0.7269;1.3124;
254.4000;0.7285;1.3223;
254.7000;0.7302;1.3248;
255.0000;0.7293;1.3323;
255.3000;0.7285;1.3398;
255.6000;0.7383;1.3497;
255.9000;0.7269;1.3099;
256.2000;0.7269;1.3049;
256.5000;0.7269;1.2999;
256.8000;0.7326;1.3074;
257.1000;0.7277;1.3049;
257.4000;0.7285;1.3124;
257.7000;0.7302;1.3099;
258.0000;0.7277;1.3099;
258.3000;0.7277;1.3049;
258.6000;0.7269;1.3074;
258.9000;0.7269;1.3149;
259.2000;0.7277;1.3199;
259.5000;0.7277;1.3174;
259.8000;0.7277;1.3199;
260.1000;0.7285;1.3174;
260.4000;0.7293;1.3298;
260.7000;0.7277;1.3273;
261.0000;0.7293;1.3348;
261.3000;0.7375;1.3547;
261.6000;0.7269;1.3199;
261.9000;0.7285;1.3199;
262.2000;0.7245;1.3049;
262.5000;0.7269;1.2950;
262.8000;0.7277;1.3074;
263.1000;0.7293;1.3124;
263.4000;0.7293;1.3124;
263.7000;0.7285;1.3074;
264.0000;0.7253;1.2950;
264.3000;0.7285;1.3099;
264.6000;0.7285;1.3049;
264.9000;0.7310;1.3124;
265.2000;0.7269;1.2900;
265.5000;0.7302;1.2974;
265.8000;0.7310;1.3074;
266.1000;0.7318;1.3149;
266.4000;0.7277;1.2999;
266.7000;0.7293;1.2999;
267.0000;0.7261;1.2875;
267.3000;0.7261;1.2900;
267.6000;0.7293;1.3049;
267.9000;0.7277;1.3049;
268.2000;0.7302;1.3099;
268.5000;0.7310;1.3049;
268.8000;0.7310;1.3149;
269.1000;0.7293;1.3074;
269.4000;0.7277;1.3149;
269.7000;0.7285;1.3199;
270.0000;0.7277;1.3099;
270.3000;0.7285;1.3124;
270.6000;0.7253;1.3074;
270.9000;0.7269;1.3074;
271.2000;0.7285;1.3149;
271.5000;0.7285;1.3149;
271.8000;0.7359;1.3398;
272.1000;0.7302;1.3149;
272.4000;0.7285;1.3049;
272.7000;0.7285;1.3099;
273.0000;0.7277;1.3199;
273.3000;0.7293;1.3199;
273.6000;0.7261;1.3049;
273.9000;0.7269;1.3049;
274.2000;0.7293;1.3049;
274.5000;0.7302;1.3024;
274.8000;0.7253;1.2950;
275.1000;0.7293;1.3049;
275.4000;0.7326;1.3199;
275.7000;0.7293;1.3099;
276.0000;0.7269;1.3049;
276.3000;0.7293;1.2999;
276.6000;0.7277;1.2999;
276.9000;0.7302;1.2999;
277.2000;0.7293;1.3124;
277.5000;0.7245;1.3024;
277.8000;0.7236;1.2850;
278.1000;0.7277;1.2974;
278.4000;0.7285;1.2925;
278.7000;0.7285;1.2950;
279.0000;0.7269;1.2950;
279.3000;0.7285;1.2999;
279.6000;0.7269;1.2950;
279.9000;0.7334;1.3024;
280.2000;0.7277;1.2850;
280.5000;0.7285;1.2925;
280.8000;0.7285;1.2974;
281.1000;0.7285;1.3049;
281.4000;0.7277;1.2999;
281.7000;0.7293;1.2999;
282.0000;0.7285;1.2999;
282.3000;0.7302;1.2950;
282.6000;0.7285;1.2925;
282.9000;0.7253;1.2800;
283.2000;0.7293;1.2900;
283.5000;0.7285;1.2950;
283.8000;0.7277;1.2950;
284.1000;0.7269;1.2925;
284.4000;0.7285;1.2950;
284.7000;0.7293;1.2999;
285.0000;0.7253;1.2950;
285.3000;0.7293;1.2974;
285.6000;0.7285;1.3074;
285.9000;0.7342;1.3273;
286.2000;0.7285;1.3099;
286.5000;0.7302;1.3199;
286.8000;0.7253;1.3074;
287.1000;0.7285;1.3049;
287.4000;0.7293;1.3024;
287.7000;0.7269;1.2925;
288.0000;0.7269;1.2925;
288.3000;0.7228;1.2775;
288.6000;0.7285;1.3024;
288.9000;0.7277;1.3124;
289.2000;0.7253;1.3124;
289.5000;0.7236;1.3074;
289.8000;0.7269;1.3099;
290.1000;0.7269;1.3074;
290.4000;0.7399;1.3373;
290.7000;0.7269;1.3124;
291.0000;0.7277;1.3124;
291.3000;0.7293;1.3149;
291.6000;0.7310;1.3149;
291.9000;0.7277;1.3024;
292.2000;0.7293;1.3099;
292.5000;0.7334;1.3199;
292.8000;0.7277;1.3024;
293.1000;0.7277;1.3024;
293.4000;0.7245;1.2925;
293.7000;0.7236;1.2999;
294.0000;0.7285;1.3199;
294.3000;0.7293;1.3199;
294.6000;0.7302;1.3273;
294.9000;0.7302;1.3298;
295.2000;0.7277;1.3223;
295.5000;0.7318;1.3298;
295.8000;0.7285;1.3199;
296.1000;0.7310;1.3223;
296.4000;0.7269;1.3149;
296.7000;0.7277;1.3099;
297.0000;0.7285;1.2999;
297.3000;0.7277;1.2974;
297.6000;0.7293;1.3024;
297.9000;0.7310;1.2999;
298.2000;0.7277;1.2999;
298.5000;0.7277;1.2974;
298.8000;0.7293;1.2925;
299.1000;0.7285;1.2974;
299.4000;0.7277;1.2974;
299.7000;0.7277;1.3049;
300.0000;0.7302;1.3074;
300.3000;0.7285;1.3124;
300.6000;0.7269;1.2999;
300.9000;0.7293;1.3049;
301.2000;0.7285;1.2999;
301.5000;0.7285;1.3024;
301.8000;0.7293;1.3099;
302.1000;0.7269;1.3099;
302.4000;0.7277;1.3248;
302.7000;0.7285;1.3273;
303.0000;0.7277;1.3124;
303.3000;0.7285;1.3199;
303.6000;0.7277;1.3199;
303.9000;0.7204;1.2925;
304.2000;0.7293;1.3199;
304.5000;0.7269;1.3149;
304.8000;0.7277;1.3099;
305.1000;0.7285;1.3099;
305.4000;0.7269;1.3099;
305.7000;0.7277;1.3074;
306.0000;0.7269;1.3049;
306.3000;0.7293;1.3049;
306.6000;0.7269;1.2974;
306.9000;0.7367;1.3273;
307.2000;0.7277;1.3124;
307.5000;0.7293;1.3149;
307.8000;0.7277;1.3074;
308.1000;0.7285;1.3174;
308.4000;0.7277;1.3099;
308.7000;0.7310;1.3074;
309.0000;0.7359;1.3273;
309.3000;0.7277;1.3099;
309.6000;0.7261;1.3049;
309.9000;0.7269;1.3174;
310.2000;0.7277;1.3223;
310.5000;0.7277;1.3199;
310.8000;0.7269;1.3124;
311.1000;0.7261;1.3149;
311.4000;0.7277;1.3174;
311.7000;0.7285;1.3074;
312.0000;0.7179;1.2875;
312.3000;0.7318;1.3174;
312.6000;0.7245;1.3024;
312.9000;0.7293;1.3199;
313.2000;0.7269;1.3074;
313.5000;0.7285;1.3124;
313.8000;0.7293;1.3149;
314.1000;0.7302;1.3074;
314.4000;0.7277;1.3024;
314.7000;0.7253;1.2950;
315.0000;0.7253;1.2950;
315.3000;0.7293;1.2999;
315.6000;0.7293;1.2999;
315.9000;0.7318;1.3124;
316.2000;0.7277;1.3024;
316.5000;0.7302;1.2999;
316.8000;0.7293;1.2974;
317.1000;0.7293;1.2974;
317.4000;0.7293;1.3049;
317.7000;0.7293;1.3049;
318.0000;0.7269;1.2999;
318.3000;0.7285;1.2950;
318.6000;0.7245;1.2950;
318.9000;0.7285;1.3049;
319.2000;0.7326;1.3149;
319.5000;0.7269;1.2950;
319.8000;0.7293;1.3024;
320.1000;0.7293;1.3049;
320.4000;0.7277;1.3024;
320.7000;0.7269;1.3024;
321.0000;0.7293;1.3024;
321.3000;0.7261;1.2900;
321.6000;0.7285;1.3049;
321.9000;0.7261;1.3049;
322.2000;0.7350;1.3174;
322.5000;0.7277;1.3124;
322.8000;0.7261;1.3099;
323.1000;0.7277;1.3248;
323.4000;0.7277;1.3223;
323.7000;0.7236;1.3174;
324.0000;0.7277;1.3273;
324.3000;0.7285;1.3298;
324.6000;0.7334;1.3473;
324.9000;0.7277;1.3348;
325.2000;0.7245;1.3398;
325.5000;0.7350;1.3647;
325.8000;0.7269;1.3398;
326.1000;0.7277;1.3423;
326.4000;0.7293;1.3323;
326.7000;0.7302;1.3348;
327.0000;0.7375;1.3547;
327.3000;0.7269;1.3298;
327.6000;0.7293;1.3398;
327.9000;0.7212;1.3248;
328.2000;0.7277;1.3423;
328.5000;0.7269;1.3348;
328.8000;0.7277;1.3248;
329.1000;0.7277;1.3248;
329.4000;0.7285;1.3273;
329.7000;0.7269;1.3273;
330.0000;0.7277;1.3323;
330.3000;0.7277;1.3348;
330.6000;0.7277;1.3398;
330.9000;0.7277;1.3473;
331.2000;0.7285;1.3497;
331.5000;0.7277;1.3473;
331.8000;0.7285;1.3522;
332.1000;0.7269;1.3448;
332.4000;0.7277;1.3398;
332.7000;0.7269;1.3323;
333.0000;0.7261;1.3223;
333.3000;0.7285;1.3348;
333.6000;0.7293;1.3373;
333.9000;0.7359;1.3497;
334.2000;0.7269;1.3298;
334.5000;0.7293;1.3298;
334.8000;0.7277;1.3273;
335.1000;0.7285;1.3248;
335.4000;0.7245;1.3074;
335.7000;0.7285;1.3298;
336.0000;0.7253;1.3199;
336.3000;0.7293;1.3398;
336.6000;0.7302;1.3273;
336.9000;0.7293;1.3273;
337.2000;0.7285;1.3248;
337.5000;0.7277;1.3248;
337.8000;0.7269;1.3174;
338.1000;0.7293;1.3174;
338.4000;0.7261;1.3024;
338.7000;0.7293;1.3199;
339.0000;0.7236;1.3099;
339.3000;0.7285;1.3323;
339.6000;0.7261;1.3298;
339.9000;0.7293;1.3398;
340.2000;0.7302;1.3348;
340.5000;0.7293;1.3348;
340.8000;0.7302;1.3273;
341.1000;0.7285;1.3323;
341.4000;0.7277;1.3273;
341.7000;0.7261;1.3149;
342.0000;0.7277;1.3099;
342.3000;0.7277;1.3149;
342.6000;0.7269;1.3149;
342.9000;0.7277;1.3174;
343.2000;0.7277;1.3273;
343.5000;0.7293;1.3373;
343.8000;0.7236;1.3323;
344.1000;0.7269;1.3373;
344.4000;0.7277;1.3423;
344.7000;0.7277;1.3323;
345.0000;0.7261;1.3348;
345.3000;0.7293;1.3398;
345.6000;0.7318;1.3448;
345.9000;0.7285;1.3423;
346.2000;0.7302;1.3423;
346.5000;0.7277;1.3448;
346.8000;0.7204;1.3199;
347.1000;0.7285;1.3373;
347.4000;0.7285;1.3398;
347.7000;0.7269;1.3398;
348.0000;0.7269;1.3423;
348.3000;0.7261;1.3423;
348.6000;0.7245;1.3298;
348.9000;0.7261;1.3323;
349.2000;0.7277;1.3348;
349.5000;0.7318;1.3423;
349.8000;0.7293;1.3398;
350.1000;0.7285;1.3348;
350.4000;0.7277;1.3348;
350.7000;0.7285;1.3348;
351.0000;0.7277;1.3348;
351.3000;0.7261;1.3323;
351.6000;0.7261;1.3298;
351.9000;0.7277;1.3273;
352.2000;0.7302;1.3348;
352.5000;0.7302;1.3273;
352.8000;0.7326;1.3348;
353.1000;0.7269;1.3298;
353.4000;0.7269;1.3248;
353.7000;0.7261;1.3223;
354.0000;0.7269;1.3174;
354.3000;0.7277;1.3174;
354.6000;0.7269;1.3149;
354.9000;0.7261;1.3149;
355.2000;0.7204;1.2974;
355.5000;0.7318;1.3348;
355.8000;0.7293;1.3348;
356.1000;0.7293;1.3398;
356.4000;0.7277;1.3423;
356.7000;0.7277;1.3398;
357.0000;0.7253;1.3323;
357.3000;0.7269;1.3323;
357.6000;0.7269;1.3298;
357.9000;0.7277;1.3273;
358.2000;0.7253;1.3174;
358.5000;0.7285;1.3248;
358.8000;0.7269;1.3223;
359.1000;0.7326;1.3348;
359.4000;0.7293;1.3323;
359.7000;0.7285;1.3398;
360.0000;0.7285;1.3423;
360.3000;0.7171;1.3149;
360.6000;0.7261;1.3398;
360.9000;0.7269;1.3348;
361.2000;0.7285;1.3373;
361.5000;0.7293;1.3423;
361.8000;0.7277;1.3348;
362.1000;0.7326;1.3547;
362.4000;0.7269;1.3373;
362.7000;0.7285;1.3323;
363.0000;0.7269;1.3248;
363.3000;0.7269;1.3149;
363.6000;0.7285;1.3174;
363.9000;0.7342;1.3273;
364.2000;0.7285;1.3099;
364.5000;0.7277;1.3024;
364.8000;0.7285;1.3024;
365.1000;0.7253;1.2950;
365.4000;0.7269;1.2950;
365.7000;0.7261;1.2974;
366.0000;0.7277;1.3074;
366.3000;0.7293;1.3074;
366.6000;0.7293;1.3199;
366.9000;0.7261;1.3174;
367.2000;0.7269;1.3273;
367.5000;0.7261;1.3223;
367.8000;0.7293;1.3273;
368.1000;0.7277;1.3298;
368.4000;0.7277;1.3273;
368.7000;0.7285;1.3223;
369.0000;0.7277;1.3149;
369.3000;0.7277;1.3124;
369.6000;0.7293;1.3373;
369.9000;0.7285;1.3373;
370.2000;0.7277;1.3348;
370.5000;0.7269;1.3373;
370.8000;0.7269;1.3348;
371.1000;0.7277;1.3248;
371.4000;0.7277;1.3323;
371.7000;0.7302;1.3348;
372.0000;0.7261;1.3223;
372.3000;0.7261;1.3348;
372.6000;0.7326;1.3547;
372.9000;0.7285;1.3348;
373.2000;0.7285;1.3373;
373.5000;0.7269;1.3248;
373.8000;0.7285;1.3323;
374.1000;0.7277;1.3323;
374.4000;0.7188;1.3124;
374.7000;0.7277;1.3298;
375.0000;0.7277;1.3298;
375.3000;0.7285;1.3323;
375.6000;0.7285;1.3398;
375.9000;0.7367;1.3522;
376.2000;0.7285;1.3298;
376.5000;0.7302;1.3373;
376.8000;0.7277;1.3298;
377.1000;0.7293;1.3373;
377.4000;0.7269;1.3273;
377.7000;0.7285;1.3298;
378.0000;0.7293;1.3273;
378.3000;0.7269;1.3248;
378.6000;0.7261;1.3248;
378.9000;0.7261;1.3298;
379.2000;0.7277;1.3298;
379.5000;0.7277;1.3348;
379.8000;0.7269;1.3298;
380.1000;0.7285;1.3298;
380.4000;0.7253;1.3323;
380.7000;0.7269;1.3373;
381.0000;0.7261;1.3398;
381.3000;0.7269;1.3273;
381.6000;0.7253;1.3199;
381.9000;0.7277;1.3273;
382.2000;0.7261;1.3273;
382.5000;0.7285;1.3323;
382.8000;0.7269;1.3248;
383.1000;0.7269;1.3248;
383.4000;0.7269;1.3248;
383.7000;0.7269;1.3223;
384.0000;0.7293;1.3248;
384.3000;0.7269;1.3273;
384.6000;0.7277;1.3298;
384.9000;0.7269;1.3149;
385.2000;0.7261;1.3124;
385.5000;0.7285;1.3223;
385.8000;0.7277;1.3149;
386.1000;0.7261;1.3074;
386.4000;0.7293;1.3099;
386.7000;0.7245;1.3049;
387.0000;0.7245;1.3049;
387.3000;0.7261;1.3199;
387.6000;0.7326;1.3398;
387.9000;0.7261;1.3248;
388.2000;0.7261;1.3323;
388.5000;0.7277;1.3348;
388.8000;0.7293;1.3348;
389.1000;0.7236;1.3298;
389.4000;0.7277;1.3423;
389.7000;0.7277;1.3423;
390.0000;0.7277;1.3398;
390.3000;0.7277;1.3448;
390.6000;0.7277;1.3423;
390.9000;0.7285;1.3448;
391.2000;0.7277;1.3448;
391.5000;0.7277;1.3547;
391.8000;0.7285;1.3572;
392.1000;0.7285;1.3547;
392.4000;0.7285;1.3547;
392.7000;0.7277;1.3473;
393.0000;0.7285;1.3373;
393.3000;0.7277;1.3298;
393.6000;0.7277;1.3298;
393.9000;0.7285;1.3298;
394.2000;0.7302;1.3273;
394.5000;0.7293;1.3149;
394.8000;0.7285;1.3074;
395.1000;0.7293;1.2950;
395.4000;0.7326;1.2974;
395.7000;0.7277;1.2850;
396.0000;0.7285;1.2925;
396.3000;0.7261;1.2900;
396.6000;0.7261;1.2925;
396.9000;0.7293;1.2974;
397.2000;0.7277;1.2950;
397.5000;0.7269;1.2875;
397.8000;0.7285;1.2875;
398.1000;0.7285;1.2950;
398.4000;0.7277;1.2974;
398.7000;0.7285;1.3024;
399.0000;0.7285;1.3124;
399.3000;0.7277;1.3024;
399.6000;0.7269;1.2875;
399.9000;0.7269;1.2875;
400.2000;0.7293;1.2950;
400.5000;0.7285;1.3049;
400.8000;0.7269;1.2974;
401.1000;0.7269;1.2999;
401.4000;0.7261;1.3024;
401.7000;0.7277;1.3099;
402.0000;0.7277;1.3199;
402.3000;0.7310;1.3348;
402.6000;0.7277;1.3199;
402.9000;0.7261;1.3223;
403.2000;0.7277;1.3298;
403.5000;0.7212;1.3124;
403.8000;0.7261;1.3273;
404.1000;0.7261;1.3248;
404.4000;0.7269;1.3273;
404.7000;0.7253;1.3174;
405.0000;0.7253;1.3273;
405.3000;0.7269;1.3323;
405.6000;0.7302;1.3348;
405.9000;0.7269;1.3223;
406.2000;0.7261;1.3174;
406.5000;0.7261;1.3074;
406.8000;0.7236;1.2999;
407.1000;0.7285;1.3149;
407.4000;0.7261;1.3074;
407.7000;0.7253;1.3074;
408.0000;0.7277;1.3223;
408.3000;0.7277;1.3273;
408.6000;0.7310;1.3398;
408.9000;0.7253;1.3298;
409.2000;0.7302;1.3373;
409.5000;0.7285;1.3348;
409.8000;0.7269;1.3323;
410.1000;0.7269;1.3273;
410.4000;0.7293;1.3323;
410.7000;0.7310;1.3448;
411.0000;0.7277;1.3448;
411.3000;0.7277;1.3398;
411.6000;0.7293;1.3423;
411.9000;0.7293;1.3323;
412.2000;0.7269;1.3223;
412.5000;0.7269;1.3248;
412.8000;0.7277;1.3199;
413.1000;0.7277;1.3174;
413.4000;0.7277;1.3223;
413.7000;0.7269;1.3298;
414.0000;0.7269;1.3348;
414.3000;0.7269;1.3323;
414.6000;0.7302;1.3398;
414.9000;0.7277;1.3348;
415.2000;0.7269;1.3323;
415.5000;0.7277;1.3373;
415.8000;0.7285;1.3448;
416.1000;0.7261;1.3423;
416.4000;0.7277;1.3473;
416.7000;0.7310;1.3622;
417.0000;0.7277;1.3497;
417.3000;0.7285;1.3522;
417.6000;0.7269;1.3473;
417.9000;0.7269;1.3448;
418.2000;0.7285;1.3373;
418.5000;0.7285;1.3423;
418.8000;0.7285;1.3323;
419.1000;0.7277;1.3298;
419.4000;0.7269;1.3248;
419.7000;0.7245;1.3099;
420.0000;0.7342;1.3348;
420.3000;0.7285;1.3223;
420.6000;0.7285;1.3323;
420.9000;0.7269;1.3323;
421.2000;0.7269;1.3398;
421.5000;0.7277;1.3448;
421.8000;0.7277;1.3448;
422.1000;0.7293;1.3473;
422.4000;0.7293;1.3473;
422.7000;0.7285;1.3423;
423.0000;0.7277;1.3373;
423.3000;0.7293;1.3448;
423.6000;0.7293;1.3448;
423.9000;0.7261;1.3373;
424.2000;0.7261;1.3273;
424.5000;0.7277;1.3199;
424.8000;0.7269;1.3273;
425.1000;0.7285;1.3323;
425.4000;0.7228;1.3174;
425.7000;0.7302;1.3373;
426.0000;0.7293;1.3273;
426.3000;0.7285;1.3248;
426.6000;0.7285;1.3149;
426.9000;0.7261;1.3223;
427.2000;0.7269;1.3248;
427.5000;0.7277;1.3323;
427.8000;0.7302;1.3448;
428.1000;0.7253;1.3323;
428.4000;0.7293;1.3398;
428.7000;0.7293;1.3323;
429.0000;0.7269;1.3298;
429.3000;0.7253;1.3273;
429.6000;0.7293;1.3348;
429.9000;0.7293;1.3373;
430.2000;0.7220;1.3124;
430.5000;0.7261;1.3248;
430.8000;0.7196;1.2999;
431.1000;0.7253;1.3174;
431.4000;0.7261;1.3174;
431.7000;0.7245;1.3273;
432.0000;0.7245;1.3273;
432.3000;0.7293;1.3448;
432.6000;0.7277;1.3398;
432.9000;0.7277;1.3398;
433.2000;0.7261;1.3348;
433.5000;0.7277;1.3398;
433.8000;0.7277;1.3348;
434.1000;0.7269;1.3223;
434.4000;0.7269;1.3248;
434.7000;0.7269;1.3273;
435.0000;0.7269;1.3199;
435.3000;0.7261;1.3199;
435.6000;0.7196;1.2999;
435.9000;0.7196;1.3049;
436.2000;0.7277;1.3323;
436.5000;0.7277;1.3323;
436.8000;0.7261;1.3298;
437.1000;0.7277;1.3248;
437.4000;0.7342;1.3373;
437.7000;0.7269;1.3124;
438.0000;0.7326;1.3298;
438.3000;0.7253;1.3174;
438.6000;0.7277;1.3199;
438.9000;0.7285;1.3124;
439.2000;0.7285;1.3199;
439.5000;0.7302;1.3223;
439.8000;0.7269;1.3298;
440.1000;0.7269;1.3348;
440.4000;0.7228;1.3223;
440.7000;0.7253;1.3398;
441.0000;0.7302;1.3497;
441.3000;0.7310;1.3522;
441.6000;0.7326;1.3597;
441.9000;0.7293;1.3423;
442.2000;0.7245;1.3348;
442.5000;0.7367;1.3647;
442.8000;0.7293;1.3448;
443.1000;0.7253;1.3448;
443.4000;0.7253;1.3373;
443.7000;0.7253;1.3323;
444.0000;0.7293;1.3323;
444.3000;0.7261;1.3323;
444.6000;0.7253;1.3323;
444.9000;0.7261;1.3373;
445.2000;0.7253;1.3348;
445.5000;0.7269;1.3373;
445.8000;0.7253;1.3273;
446.1000;0.7261;1.3248;
446.4000;0.7261;1.3298;
446.7000;0.7269;1.3348;
447.0000;0.7261;1.3423;
447.3000;0.7310;1.3522;
447.6000;0.7285;1.3423;
447.9000;0.7269;1.3348;
448.2000;0.7269;1.3373;
448.5000;0.7277;1.3497;
448.8000;0.7269;1.3373;
449.1000;0.7285;1.3398;
449.4000;0.7261;1.3323;
449.7000;0.7261;1.3323;
450.0000;0.7277;1.3273;
450.3000;0.7293;1.3223;
450.6000;0.7269;1.3174;
450.9000;0.7261;1.3099;
451.2000;0.7277;1.3223;
451.5000;0.7269;1.3248;
451.8000;0.7228;1.3124;
452.1000;0.7277;1.3323;
452.4000;0.7204;1.3149;
452.7000;0.7277;1.3373;
453.0000;0.7269;1.3298;
453.3000;0.7285;1.3248;
453.6000;0.7261;1.3099;
453.9000;0.7245;1.3024;
454.2000;0.7277;1.3199;
454.5000;0.7318;1.3273;
454.8000;0.7204;1.2950;
455.1000;0.7269;1.3049;
455.4000;0.7253;1.3024;
455.7000;0.7245;1.3024;
456.0000;0.7261;1.3024;
456.3000;0.7269;1.3049;
456.6000;0.7269;1.3024;
456.9000;0.7261;1.2999;
457.2000;0.7277;1.2999;
457.5000;0.7155;1.2750;
457.8000;0.7277;1.3149;
458.1000;0.7277;1.3199;
458.4000;0.7261;1.3149;
458.7000;0.7269;1.3124;
459.0000;0.7277;1.3124;
459.3000;0.7285;1.3099;
459.6000;0.7179;1.2850;
459.9000;0.7253;1.3074;
460.2000;0.7302;1.3174;
460.5000;0.7302;1.3199;
460.8000;0.7245;1.3074;
461.1000;0.7269;1.3024;
461.4000;0.7269;1.2974;
461.7000;0.7253;1.2974;
462.0000;0.7269;1.3074;
462.3000;0.7253;1.3024;
462.6000;0.7285;1.3174;
462.9000;0.7285;1.3099;
463.2000;0.7277;1.3124;
463.5000;0.7277;1.3099;
463.8000;0.7269;1.2999;
464.1000;0.7261;1.2974;
464.4000;0.7277;1.3049;
464.7000;0.7334;1.3248;
465.0000;0.7277;1.3124;
465.3000;0.7245;1.3024;
465.6000;0.7277;1.3099;
465.9000;0.7253;1.2950;
466.2000;0.7245;1.2950;
466.5000;0.7277;1.3074;
466.8000;0.7236;1.2900;
467.1000;0.7285;1.2875;
467.4000;0.7293;1.2900;
467.7000;0.7277;1.2850;
468.0000;0.7277;1.2825;
468.3000;0.7293;1.2800;
468.6000;0.7269;1.2800;
468.9000;0.7277;1.2750;
469.2000;0.7277;1.2875;
469.5000;0.7261;1.2850;
469.8000;0.7269;1.2875;
470.1000;0.7253;1.2800;
470.4000;0.7269;1.2825;
470.7000;0.7277;1.2875;
471.0000;0.7261;1.2825;
471.3000;0.7269;1.2999;
471.6000;0.7269;1.2974;
471.9000;0.7261;1.3049;
472.2000;0.7269;1.3049;
472.5000;0.7277;1.3074;
472.8000;0.7318;1.3099;
473.1000;0.7285;1.2925;
473.4000;0.7293;1.2950;
473.7000;0.7285;1.2950;
474.0000;0.7236;1.2950;
474.3000;0.7261;1.3099;
474.6000;0.7261;1.2925;
474.9000;0.7245;1.2900;
475.2000;0.7253;1.2875;
475.5000;0.7245;1.3024;
475.8000;0.7261;1.3149;
476.1000;0.7261;1.3149;
476.4000;0.7261;1.3024;
476.7000;0.7261;1.2999;
477.0000;0.7261;1.2999;
477.3000;0.7269;1.2950;
477.6000;0.7261;1.2925;
477.9000;0.7261;1.2900;
478.2000;0.7269;1.2900;
478.5000;0.7318;1.2950;
478.8000;0.7310;1.3049;
479.1000;0.7277;1.2925;
479.4000;0.7269;1.2875;
479.7000;0.7326;1.3099;
480.0000;0.7269;1.2900;
480.3000;0.7253;1.2974;
480.6000;0.7131;1.2651;
480.9000;0.7277;1.3099;
481.2000;0.7261;1.3024;
481.5000;0.7277;1.3124;
481.8000;0.7277;1.3174;
482.1000;0.7269;1.3223;
482.4000;0.7236;1.3049;
482.7000;0.7277;1.3074;
483.0000;0.7245;1.2974;
483.3000;0.7253;1.3099;
483.6000;0.7220;1.3074;
483.9000;0.7326;1.3298;
484.2000;0.7253;1.3223;
484.5000;0.7277;1.3298;
484.8000;0.7269;1.3298;
485.1000;0.7253;1.3223;
485.4000;0.7253;1.3174;
485.7000;0.7261;1.3248;
486.0000;0.7277;1.3174;
486.3000;0.7277;1.3149;
486.6000;0.7277;1.3149;
486.9000;0.7277;1.3149;
487.2000;0.7269;1.3248;
487.5000;0.7302;1.3298;
487.8000;0.7269;1.3223;
488.1000;0.7269;1.3199;
488.4000;0.7269;1.3174;
488.7000;0.7245;1.3074;
489.0000;0.7261;1.3223;
489.3000;0.7269;1.3273;
489.6000;0.7293;1.3323;
489.9000;0.7285;1.3273;
490.2000;0.7269;1.3323;
490.5000;0.7269;1.3323;
490.8000;0.7269;1.3348;
491.1000;0.7277;1.3323;
491.4000;0.7253;1.3223;
491.7000;0.7277;1.3273;
492.0000;0.7302;1.3199;
492.3000;0.7302;1.3174;
492.6000;0.7277;1.3124;
492.9000;0.7269;1.3149;
493.2000;0.7261;1.3149;
493.5000;0.7277;1.3149;
493.8000;0.7359;1.3348;
494.1000;0.7269;1.3199;
494.4000;0.7277;1.3223;
494.7000;0.7269;1.3273;
495.0000;0.7220;1.3199;
495.3000;0.7245;1.3174;
495.6000;0.7269;1.3099;
495.9000;0.7269;1.3049;
496.2000;0.7293;1.3074;
496.5000;0.7285;1.3124;
496.8000;0.7269;1.3099;
497.1000;0.7269;1.3149;
497.4000;0.7285;1.3298;
497.7000;0.7269;1.3199;
498.0000;0.7269;1.3248;
498.3000;0.7334;1.3473;
498.6000;0.7293;1.3398;
498.9000;0.7293;1.3323;
499.2000;0.7277;1.3273;
499.5000;0.7277;1.3223;
499.8000;0.7261;1.3199;
500.1000;0.7253;1.3149;
500.4000;0.7204;1.3049;
500.7000;0.7302;1.3348;
501.0000;0.7253;1.3273;
501.3000;0.7359;1.3473;
501.6000;0.7261;1.3149;
501.9000;0.7253;1.3174;
502.2000;0.7285;1.3248;
502.5000;0.7367;1.3473;
502.8000;0.7293;1.3174;
503.1000;0.7277;1.3199;
503.4000;0.7220;1.2999;
503.7000;0.7277;1.3074;
504.0000;0.7285;1.3099;
504.3000;0.7253;1.3074;
504.6000;0.7277;1.3099;
504.9000;0.7285;1.3149;
505.2000;0.7261;1.3124;
505.5000;0.7236;1.3149;
505.8000;0.7236;1.3298;
506.1000;0.7253;1.3373;
506.4000;0.7253;1.3373;
506.7000;0.7253;1.3273;
507.0000;0.7245;1.3273;
507.3000;0.7293;1.3398;
507.6000;0.7269;1.3348;
507.9000;0.7261;1.3373;
508.2000;0.7253;1.3298;
508.5000;0.7253;1.3199;
508.8000;0.7269;1.3223;
509.1000;0.7253;1.3323;
509.4000;0.7245;1.3323;
509.7000;0.7261;1.3298;
510.0000;0.7293;1.3423;
510.3000;0.7261;1.3373;
510.6000;0.7245;1.3348;
510.9000;0.7253;1.3348;
511.2000;0.7261;1.3298;
511.5000;0.7261;1.3323;
511.8000;0.7253;1.3423;
512.1000;0.7236;1.3398;
512.4000;0.7277;1.3448;
512.7000;0.7269;1.3448;
513.0000;0.7277;1.3448;
513.3000;0.7269;1.3423;
513.6000;0.7261;1.3248;
513.9000;0.7285;1.3273;
514.2000;0.7326;1.3398;
514.5000;0.7261;1.3049;
514.8000;0.7245;1.3049;
515.1000;0.7253;1.3074;
515.4000;0.7269;1.3074;
515.7000;0.7253;1.3049;
516.0000;0.7261;1.3099;
516.3000;0.7253;1.3124;
516.6000;0.7285;1.3248;
516.9000;0.7285;1.3323;
517.2000;0.7245;1.3223;
517.5000;0.7253;1.3124;
517.8000;0.7277;1.3199;
518.1000;0.7261;1.3124;
518.4000;0.7293;1.3373;
518.7000;0.7253;1.3373;
519.0000;0.7261;1.3348;
519.3000;0.7261;1.3323;
519.6000;0.7269;1.3273;
519.9000;0.7236;1.3223;
520.2000;0.7269;1.3323;
520.5000;0.7277;1.3323;
520.8000;0.7253;1.3174;
521.1000;0.7285;1.3298;
521.4000;0.7261;1.3248;
521.7000;0.7245;1.3223;
522.0000;0.7269;1.3174;
522.3000;0.7245;1.3074;
522.6000;0.7261;1.3124;
522.9000;0.7277;1.3099;
523.2000;0.7277;1.3124;
523.5000;0.7269;1.3074;
523.8000;0.7236;1.3024;
524.1000;0.7277;1.3049;
524.4000;0.7261;1.3049;
524.7000;0.7277;1.3024;
525.0000;0.7269;1.3024;
525.3000;0.7293;1.3149;
525.6000;0.7285;1.3024;
525.9000;0.7310;1.3049;
526.2000;0.7245;1.2974;
526.5000;0.7261;1.2999;
526.8000;0.7277;1.3074;
527.1000;0.7269;1.2925;
527.4000;0.7269;1.2974;
527.7000;0.7261;1.3049;
528.0000;0.7261;1.3099;
528.3000;0.7261;1.3149;
528.6000;0.7261;1.3174;
528.9000;0.7204;1.3024;
529.2000;0.7277;1.3273;
529.5000;0.7277;1.3273;
529.8000;0.7261;1.3373;
530.1000;0.7253;1.3248;
530.4000;0.7277;1.3298;
530.7000;0.7261;1.3199;
531.0000;0.7245;1.3149;
531.3000;0.7245;1.3099;
531.6000;0.7326;1.3199;
531.9000;0.7261;1.3074;
532.2000;0.7269;1.3049;
532.5000;0.7253;1.3124;
532.8000;0.7245;1.3223;
533.1000;0.7228;1.3074;
533.4000;0.7245;1.3049;
533.7000;0.7245;1.3149;
534.0000;0.7261;1.3174;
534.3000;0.7293;1.3149;
534.6000;0.7269;1.3149;
534.9000;0.7285;1.3174;
535.2000;0.7261;1.3024;
535.5000;0.7269;1.3024;
535.8000;0.7269;1.3099;
536.1000;0.7261;1.3099;
536.4000;0.7228;1.2999;
536.7000;0.7318;1.3223;
537.0000;0.7277;1.3049;
537.3000;0.7326;1.3174;
537.6000;0.7253;1.2999;
537.9000;0.7253;1.3074;
538.2000;0.7261;1.3099;
538.5000;0.7269;1.3099;
538.8000;0.7285;1.3199;
539.1000;0.7253;1.3273;
539.4000;0.7277;1.3298;
539.7000;0.7253;1.3273;
540.0000;0.7277;1.3248;
540.3000;0.7269;1.3199;
540.6000;0.7261;1.3199;
540.9000;0.7253;1.3223;
541.2000;0.7269;1.3248;
541.5000;0.7261;1.3223;
541.8000;0.7253;1.3248;
542.1000;0.7253;1.3298;
542.4000;0.7285;1.3348;
542.7000;0.7245;1.3248;
543.0000;0.7220;1.3273;
543.3000;0.7261;1.3497;
543.6000;0.7269;1.3622;
543.9000;0.7253;1.3572;
544.2000;0.7269;1.3497;
544.5000;0.7269;1.3497;
544.8000;0.7269;1.3547;
545.1000;0.7245;1.3448;
545.4000;0.7253;1.3323;
545.7000;0.7261;1.3323;
546.0000;0.7253;1.3298;
546.3000;0.7253;1.3298;
546.6000;0.7245;1.3273;
546.9000;0.7269;1.3348;
547.2000;0.7269;1.3273;
547.5000;0.7245;1.3223;
547.8000;0.7236;1.3174;
548.1000;0.7310;1.3348;
548.4000;0.7253;1.3248;
548.7000;0.7261;1.3323;
549.0000;0.7236;1.3248;
549.3000;0.7269;1.3348;
549.6000;0.7212;1.3273;
549.9000;0.7293;1.3522;
550.2000;0.7261;1.3398;
550.5000;0.7261;1.3473;
550.8000;0.7228;1.3448;
551.1000;0.7277;1.3497;
551.4000;0.7334;1.3697;
551.7000;0.7285;1.3522;
552.0000;0.7269;1.3497;
552.3000;0.7269;1.3473;
552.6000;0.7253;1.3398;
552.9000;0.7245;1.3248;
553.2000;0.7253;1.3273;
553.5000;0.7253;1.3199;
553.8000;0.7261;1.3248;
554.1000;0.7261;1.3149;
554.4000;0.7261;1.3124;
554.7000;0.7261;1.3049;
555.0000;0.7269;1.3049;
555.3000;0.7277;1.2999;
555.6000;0.7253;1.2999;
555.9000;0.7261;1.3074;
556.2000;0.7236;1.2950;
556.5000;0.7261;1.3074;
556.8000;0.7236;1.3099;
557.1000;0.7245;1.3149;
557.4000;0.7302;1.3323;
557.7000;0.7261;1.3099;
558.0000;0.7269;1.3149;
558.3000;0.7220;1.2974;
558.6000;0.7277;1.3174;
558.9000;0.7139;1.2825;
559.2000;0.7261;1.3199;
559.5000;0.7285;1.3199;
559.8000;0.7261;1.3099;
560.1000;0.7253;1.3049;
560.4000;0.7261;1.2999;
560.7000;0.7269;1.2925;
561.0000;0.7302;1.3049;
561.3000;0.7253;1.3024;
561.6000;0.7245;1.3099;
561.9000;0.7236;1.3149;
562.2000;0.7253;1.3248;
562.5000;0.7220;1.3248;
562.8000;0.7253;1.3273;
563.1000;0.7236;1.3124;
563.4000;0.7261;1.3124;
563.7000;0.7261;1.3223;
564.0000;0.7269;1.3199;
564.3000;0.7261;1.3149;
564.6000;0.7269;1.3099;
564.9000;0.7269;1.3049;
565.2000;0.7277;1.3049;
565.5000;0.7245;1.2999;
565.8000;0.7269;1.3049;
566.1000;0.7277;1.3049;
566.4000;0.7269;1.3049;
566.7000;0.7261;1.2999;
567.0000;0.7269;1.3099;
567.3000;0.7285;1.3174;
567.6000;0.7269;1.3074;
567.9000;0.7220;1.2850;
568.2000;0.7245;1.2850;
568.5000;0.7261;1.2925;
568.8000;0.7261;1.2900;
569.1000;0.7228;1.2875;
569.4000;0.7261;1.2950;
569.7000;0.7285;1.2974;
570.0000;0.7261;1.2925;
570.3000;0.7228;1.2850;
570.6000;0.7245;1.2950;
570.9000;0.7253;1.2999;
571.2000;0.7269;1.2999;
571.5000;0.7326;1.3124;
571.8000;0.7253;1.2974;
572.1000;0.7236;1.3049;
572.4000;0.7212;1.2999;
572.7000;0.7285;1.3199;
573.0000;0.7261;1.3074;
573.3000;0.7253;1.3049;
573.6000;0.7212;1.2974;
573.9000;0.7245;1.2974;
574.2000;0.7253;1.2974;
574.5000;0.7302;1.3124;
574.8000;0.7245;1.2925;
575.1000;0.7261;1.2925;
575.4000;0.7253;1.2850;
575.7000;0.7277;1.2974;
576.0000;0.7228;1.2875;
576.3000;0.7269;1.2900;
576.6000;0.7261;1.2875;
576.9000;0.7245;1.2850;
577.2000;0.7245;1.2925;
577.5000;0.7253;1.2999;
577.8000;0.7236;1.2999;
578.1000;0.7261;1.3074;
578.4000;0.7228;1.3074;
578.7000;0.7302;1.3223;
579.0000;0.7228;1.3074;
579.3000;0.7261;1.3124;
579.6000;0.7236;1.3099;
579.9000;0.7236;1.3049;
580.2000;0.7253;1.3099;
580.5000;0.7245;1.2950;
580.8000;0.7253;1.2925;
581.1000;0.7253;1.2950;
581.4000;0.7253;1.2974;
581.7000;0.7236;1.2950;
582.0000;0.7236;1.3049;
582.3000;0.7204;1.3024;
582.6000;0.7269;1.3149;
582.9000;0.7261;1.3223;
583.2000;0.7245;1.3223;
583.5000;0.7228;1.3273;
583.8000;0.7245;1.3298;
584.1000;0.7293;1.3373;
584.4000;0.7261;1.3348;
584.7000;0.7261;1.3273;
585.0000;0.7261;1.3348;
585.3000;0.7269;1.3323;
585.6000;0.7261;1.3323;
585.9000;0.7269;1.3323;
586.2000;0.7261;1.3348;
586.5000;0.7261;1.3423;
586.8000;0.7261;1.3373;
587.1000;0.7261;1.3348;
587.4000;0.7261;1.3323;
587.7000;0.7261;1.3423;
588.0000;0.7253;1.3348;
588.3000;0.7245;1.3373;
588.6000;0.7253;1.3348;
588.9000;0.7261;1.3248;
589.2000;0.7261;1.3223;
589.5000;0.7204;1.3174;
589.8000;0.7261;1.3199;
590.1000;0.7253;1.3199;
590.4000;0.7228;1.3124;
590.7000;0.7253;1.3124;
591.0000;0.7253;1.3248;
591.3000;0.7253;1.3273;
591.6000;0.7269;1.3323;
591.9000;0.7293;1.3348;
592.2000;0.7236;1.3099;
592.5000;0.7236;1.3174;
592.8000;0.7236;1.3323;
593.1000;0.7261;1.3348;
593.4000;0.7245;1.3323;
593.7000;0.7245;1.3398;
594.0000;0.7253;1.3248;
594.3000;0.7204;1.3149;
594.6000;0.7293;1.3348;
594.9000;0.7302;1.3373;
595.2000;0.7236;1.3223;
595.5000;0.7245;1.3273;
595.8000;0.7245;1.3273;
596.1000;0.7245;1.3273;
596.4000;0.7253;1.3273;
596.7000;0.7220;1.3174;
597.0000;0.7236;1.3248;
597.3000;0.7228;1.3223;
597.6000;0.7236;1.3199;
597.9000;0.7236;1.3174;
598.2000;0.7245;1.3174;
598.5000;0.7253;1.3124;
598.8000;0.7236;1.3149;
599.1000;0.7245;1.3149;
599.4000;0.7285;1.3248;
599.7000;0.7236;1.3199;
600.0000;0.7253;1.3099;
600.3000;0.7212;1.2875;
600.6000;0.7245;1.2925;
600.9000;0.7228;1.2750;
601.2000;0.7188;1.2526;
601.5000;0.7139;1.2377;
601.8000;0.7139;1.2302;
602.1000;0.7066;1.1929;
602.4000;0.6984;1.1804;
602.7000;0.6943;1.1655;
603.0000;0.6911;1.1605;
603.3000;0.6838;1.1381;
603.6000;0.6813;1.1331;
603.9000;0.6772;1.1132;
604.2000;0.6683;1.0932;
604.5000;0.6683;1.0708;
604.8000;0.6634;1.0683;
605.1000;0.6634;1.0733;
605.4000;0.6602;1.0584;
605.7000;0.6593;1.0584;
606.0000;0.6553;1.0484;
606.3000;0.6536;1.0459;
606.6000;0.6471;1.0310;
606.9000;0.6447;1.0310;
607.2000;0.6447;1.0360;
607.5000;0.6398;1.0160;
607.8000;0.6365;1.0061;
608.1000;0.6357;1.0111;
608.4000;0.6341;1.0210;
608.7000;0.6317;1.0210;
609.0000;0.6260;1.0235;
609.3000;0.6276;1.0335;
609.6000;0.6260;1.0335;
609.9000;0.6235;1.0260;
610.2000;0.6186;1.0061;
610.5000;0.6203;1.0210;
610.8000;0.6170;1.0210;
611.1000;0.6138;1.0235;
611.4000;0.6154;1.0310;
611.7000;0.6105;1.0185;
612.0000;0.6089;1.0210;
612.3000;0.6081;1.0235;
612.6000;0.6146;1.0434;
612.9000;0.6024;1.0260;
613.2000;0.5999;1.0235;
613.5000;0.5983;1.0260;
613.8000;0.5991;1.0185;
614.1000;0.5999;1.0235;
614.4000;0.5934;1.0011;
614.7000;0.5950;1.0036;
615.0000;0.5967;1.0086;
615.3000;0.6007;1.0260;
615.6000;0.5902;1.0086;
615.9000;0.5918;1.0061;
616.2000;0.5861;0.9862;
616.5000;0.5836;0.9762;
616.8000;0.5845;0.9886;
617.1000;0.5836;0.9787;
617.4000;0.5869;0.9936;
617.7000;0.5804;0.9862;
618.0000;0.5796;0.9862;
618.3000;0.5771;0.9787;
618.6000;0.5820;0.9936;
618.9000;0.5779;0.9812;
619.2000;0.5747;0.9737;
619.5000;0.5763;0.9862;
619.8000;0.5747;0.9886;
620.1000;0.5747;0.9862;
620.4000;0.5714;0.9837;
620.7000;0.5690;0.9737;
621.0000;0.5665;0.9687;
621.3000;0.5698;0.9812;
621.6000;0.5690;0.9787;
621.9000;0.5633;0.9613;
622.2000;0.5665;0.9712;
622.5000;0.5633;0.9588;
622.8000;0.5617;0.9513;
623.1000;0.5608;0.9538;
623.4000;0.5608;0.9637;
623.7000;0.5568;0.9563;
624.0000;0.5584;0.9613;
624.3000;0.5592;0.9637;
624.6000;0.5568;0.9687;
624.9000;0.5608;0.9787;
625.2000;0.5503;0.9563;
625.5000;0.5543;0.9662;
625.8000;0.5576;0.9812;
626.1000;0.5503;0.9613;
626.4000;0.5535;0.9787;
626.7000;0.5519;0.9762;
627.0000;0.5511;0.9737;
627.3000;0.5527;0.9762;
627.6000;0.5511;0.9712;
627.9000;0.5462;0.9588;
628.2000;0.5519;0.9762;
628.5000;0.5470;0.9613;
628.8000;0.5421;0.9438;
629.1000;0.5462;0.9538;
629.4000;0.5454;0.9513;
629.7000;0.5462;0.9438;
630.0000;0.5454;0.9438;
630.3000;0.5446;0.9413;
630.6000;0.5438;0.9463;
630.9000;0.5438;0.9463;
631.2000;0.5438;0.9563;
631.5000;0.5429;0.9563;
631.8000;0.5405;0.9513;
632.1000;0.5397;0.9563;
632.4000;0.5405;0.9637;
632.7000;0.5397;0.9737;
633.0000;0.5413;0.9737;
633.3000;0.5397;0.9662;
633.6000;0.5381;0.9588;
633.9000;0.5405;0.9538;
634.2000;0.5356;0.9413;
634.5000;0.5356;0.9488;
634.8000;0.5332;0.9438;
635.1000;0.5381;0.9488;
635.4000;0.5348;0.9488;
635.7000;0.5340;0.9438;
636.0000;0.5356;0.9388;
636.3000;0.5372;0.9413;
636.6000;0.5340;0.9388;
636.9000;0.5348;0.9463;
637.2000;0.5307;0.9388;
637.5000;0.5324;0.9413;
637.8000;0.5315;0.9463;
638.1000;0.5315;0.9413;
638.4000;0.5283;0.9314;
638.7000;0.5283;0.9289;
639.0000;0.5291;0.9438;
639.3000;0.5275;0.9413;
639.6000;0.5267;0.9413;
639.9000;0.5250;0.9513;
640.2000;0.5267;0.9463;
640.5000;0.5267;0.9413;
640.8000;0.5267;0.9364;
641.1000;0.5267;0.9388;
641.4000;0.5267;0.9438;
641.7000;0.5291;0.9513;
642.0000;0.5258;0.9463;
642.3000;0.5250;0.9413;
642.6000;0.5234;0.9413;
642.9000;0.5218;0.9339;
643.2000;0.5218;0.9413;
643.5000;0.5226;0.9438;
643.8000;0.5218;0.9488;
644.1000;0.5218;0.9463;
644.4000;0.5218;0.9563;
644.7000;0.5193;0.9463;
645.0000;0.5226;0.9513;
645.3000;0.5201;0.9463;
645.6000;0.5210;0.9388;
645.9000;0.5210;0.9364;
646.2000;0.5226;0.9413;
646.5000;0.5210;0.9413;
646.8000;0.5201;0.9463;
647.1000;0.5177;0.9413;
647.4000;0.5185;0.9438;
647.7000;0.5185;0.9488;
648.0000;0.5210;0.9488;
648.3000;0.5161;0.9513;
648.6000;0.5161;0.9538;
648.9000;0.5177;0.9538;
649.2000;0.5169;0.9463;
649.5000;0.5161;0.9438;
649.8000;0.5177;0.9463;
650.1000;0.5136;0.9413;
650.4000;0.5161;0.9463;
650.7000;0.5169;0.9538;
651.0000;0.5169;0.9538;
651.3000;0.5144;0.9488;
651.6000;0.5144;0.9463;
651.9000;0.5120;0.9463;
652.2000;0.5055;0.9314;
652.5000;0.5128;0.9613;
652.8000;0.5120;0.9662;
653.1000;0.5128;0.9662;
653.4000;0.5079;0.9662;
653.7000;0.5096;0.9737;
654.0000;0.5096;0.9737;
654.3000;0.5112;0.9762;
654.6000;0.5104;0.9687;
654.9000;0.5120;0.9737;
655.2000;0.5112;0.9762;
655.5000;0.5136;0.9837;
655.8000;0.5104;0.9712;
656.1000;0.5088;0.9637;
656.4000;0.5193;0.9936;
656.7000;0.5079;0.9613;
657.0000;0.5063;0.9563;
657.3000;0.5088;0.9637;
657.6000;0.5096;0.9662;
657.9000;0.5088;0.9637;
658.2000;0.5096;0.9588;
658.5000;0.5071;0.9613;
658.8000;0.5071;0.9563;
659.1000;0.5063;0.9538;
659.4000;0.5120;0.9737;
659.7000;0.5088;0.9637;
660.0000;0.5055;0.9588;
660.3000;0.5063;0.9662;
660.6000;0.5063;0.9812;
660.9000;0.5063;0.9762;
661.2000;0.5039;0.9712;
661.5000;0.4982;0.9613;
661.8000;0.5055;0.9687;
662.1000;0.5071;0.9687;
662.4000;0.5039;0.9687;
662.7000;0.5031;0.9712;
663.0000;0.5047;0.9712;
663.3000;0.5039;0.9588;
663.6000;0.5047;0.9662;
663.9000;0.5031;0.9687;
664.2000;0.5039;0.9712;
664.5000;0.5039;0.9712;
664.8000;0.5014;0.9662;
665.1000;0.5031;0.9563;
665.4000;0.5006;0.9513;
665.7000;0.5039;0.9538;
666.0000;0.5031;0.9488;
666.3000;0.5022;0.9463;
666.6000;0.5031;0.9463;
666.9000;0.5031;0.9413;
667.2000;0.5039;0.9388;
667.5000;0.5014;0.9339;
667.8000;0.5039;0.9413;
668.1000;0.5031;0.9388;
668.4000;0.5006;0.9438;
668.7000;0.5079;0.9613;
669.0000;0.4998;0.9513;
669.3000;0.4982;0.9488;
669.6000;0.4998;0.9463;
669.9000;0.4998;0.9413;
670.2000;0.5022;0.9563;
670.5000;0.4990;0.9438;
670.8000;0.4990;0.9488;
671.1000;0.4998;0.9488;
671.4000;0.4982;0.9513;
671.7000;0.4974;0.9513;
672.0000;0.4982;0.9538;
672.3000;0.4982;0.9463;
672.6000;0.4982;0.9488;
672.9000;0.4957;0.9413;
673.2000;0.4917;0.9239;
673.5000;0.4974;0.9339;
673.8000;0.4957;0.9339;
674.1000;0.4949;0.9314;
674.4000;0.4990;0.9438;
674.7000;0.4965;0.9388;
675.0000;0.4974;0.9364;
675.3000;0.4949;0.9364;
675.6000;0.4965;0.9488;
675.9000;0.4949;0.9463;
676.2000;0.4990;0.9488;
676.5000;0.4949;0.9388;
676.8000;0.4957;0.9364;
677.1000;0.4965;0.9488;
677.4000;0.4957;0.9413;
677.7000;0.4949;0.9364;
678.0000;0.4974;0.9438;
678.3000;0.4957;0.9488;
678.6000;0.4957;0.9513;
678.9000;0.4949;0.9413;
679.2000;0.4933;0.9438;
679.5000;0.4965;0.9538;
679.8000;0.4957;0.9613;
680.1000;0.4941;0.9637;
680.4000;0.4933;0.9563;
680.7000;0.4933;0.9488;
681.0000;0.4949;0.9513;
681.3000;0.4949;0.9513;
681.6000;0.4941;0.9513;
681.9000;0.4949;0.9538;
682.2000;0.4941;0.9488;
682.5000;0.4933;0.9413;
682.8000;0.4917;0.9339;
683.1000;0.4925;0.9438;
683.4000;0.4917;0.9463;
683.7000;0.4908;0.9513;
684.0000;0.4908;0.9513;
684.3000;0.4868;0.9413;
684.6000;0.4908;0.9513;
684.9000;0.4925;0.9563;
685.2000;0.4900;0.9588;
685.5000;0.4900;0.9513;
685.8000;0.4900;0.9463;
686.1000;0.4900;0.9463;
686.4000;0.4908;0.9463;
686.7000;0.4900;0.9438;
687.0000;0.4917;0.9388;
687.3000;0.4908;0.9563;
687.6000;0.4876;0.9463;
687.9000;0.4876;0.9538;
688.2000;0.4900;0.9538;
688.5000;0.4925;0.9538;
688.8000;0.4892;0.9463;
689.1000;0.4892;0.9413;
689.4000;0.4868;0.9538;
689.7000;0.4900;0.9687;
690.0000;0.4892;0.9712;
690.3000;0.4908;0.9762;
690.6000;0.4884;0.9687;
690.9000;0.4900;0.9712;
691.2000;0.4892;0.9613;
691.5000;0.4933;0.9613;
691.8000;0.4892;0.9637;
692.1000;0.4892;0.9712;
692.4000;0.4908;0.9862;
692.7000;0.4908;0.9886;
693.0000;0.4876;0.9787;
693.3000;0.4876;0.9762;
693.6000;0.4876;0.9737;
693.9000;0.4884;0.9687;
694.2000;0.4860;0.9662;
694.5000;0.4868;0.9588;
694.8000;0.4876;0.9563;
695.1000;0.4892;0.9662;
695.4000;0.4860;0.9613;
695.7000;0.4843;0.9637;
696.0000;0.4860;0.9687;
696.3000;0.4917;0.9787;
696.6000;0.4876;0.9662;
696.9000;0.4868;0.9712;
697.2000;0.4876;0.9687;
697.5000;0.4884;0.9687;
697.8000;0.4876;0.9712;
698.1000;0.4868;0.9737;
698.4000;0.4843;0.9687;
698.7000;0.4860;0.9712;
699.0000;0.4843;0.9613;
699.3000;0.4868;0.9712;
699.6000;0.4860;0.9687;
699.9000;0.4860;0.9662;
700.2000;0.4868;0.9687;
700.5000;0.4819;0.9563;
700.8000;0.4860;0.9588;
701.1000;0.4868;0.9662;
701.4000;0.4892;0.9737;
701.7000;0.4868;0.9787;
702.0000;0.4851;0.9712;
702.3000;0.4860;0.9712;
702.6000;0.4868;0.9737;
702.9000;0.4827;0.9637;
703.2000;0.4884;0.9737;
703.5000;0.4827;0.9488;
703.8000;0.4835;0.9413;
704.1000;0.4819;0.9513;
704.4000;0.4835;0.9588;
704.7000;0.4835;0.9637;
705.0000;0.4835;0.9687;
705.3000;0.4835;0.9687;
705.6000;0.4827;0.9588;
705.9000;0.4778;0.9613;
706.2000;0.4827;0.9687;
706.5000;0.4843;0.9712;
706.8000;0.4835;0.9687;
707.1000;0.4827;0.9737;
707.4000;0.4835;0.9787;
707.7000;0.4860;0.9837;
708.0000;0.4811;0.9787;
708.3000;0.4778;0.9762;
708.6000;0.4803;0.9787;
708.9000;0.4827;0.9787;
709.2000;0.4827;0.9787;
709.5000;0.4819;0.9837;
709.8000;0.4794;0.9737;
710.1000;0.4811;0.9687;
710.4000;0.4803;0.9687;
710.7000;0.4811;0.9687;
711.0000;0.4835;0.9712;
711.3000;0.4843;0.9737;
711.6000;0.4811;0.9662;
711.9000;0.4827;0.9712;
712.2000;0.4811;0.9588;
712.5000;0.4860;0.9737;
712.8000;0.4827;0.9637;
713.1000;0.4827;0.9687;
713.4000;0.4786;0.9613;
713.7000;0.4803;0.9637;
714.0000;0.4794;0.9588;
714.3000;0.4819;0.9588;
714.6000;0.4876;0.9812;
714.9000;0.4794;0.9488;
715.2000;0.4803;0.9538;
715.5000;0.4803;0.9662;
715.8000;0.4794;0.9588;
716.1000;0.4803;0.9613;
716.4000;0.4794;0.9613;
716.7000;0.4827;0.9662;
717.0000;0.4786;0.9538;
717.3000;0.4803;0.9637;
717.6000;0.4794;0.9563;
717.9000;0.4803;0.9588;
718.2000;0.4811;0.9588;
718.5000;0.4786;0.9563;
718.8000;0.4819;0.9812;
719.1000;0.4770;0.9812;
719.4000;0.4794;0.9886;
719.7000;0.4803;0.9936;
720.0000;0.4786;0.9886;
720.3000;0.4778;0.9961;
720.6000;0.4794;0.9886;
720.9000;0.4794;0.9787;
721.2000;0.4786;0.9762;
721.5000;0.4811;0.9737;
721.8000;0.4803;0.9687;
722.1000;0.4803;0.9687;
722.4000;0.4794;0.9613;
722.7000;0.4900;0.9961;
723.0000;0.4794;0.9662;
723.3000;0.4770;0.9662;
723.6000;0.4786;0.9712;
723.9000;0.4786;0.9762;
724.2000;0.4843;0.9961;
724.5000;0.4778;0.9762;
724.8000;0.4778;0.9687;
725.1000;0.4794;0.9662;
725.4000;0.4762;0.9538;
725.7000;0.4786;0.9563;
726.0000;0.4770;0.9613;
726.3000;0.4794;0.9662;
726.6000;0.4794;0.9687;
726.9000;0.4794;0.9637;
727.2000;0.4843;0.9712;
727.5000;0.4786;0.9563;
727.8000;0.4786;0.9588;
728.1000;0.4778;0.9588;
728.4000;0.4754;0.9538;
728.7000;0.4770;0.9737;
729.0000;0.4778;0.9762;
729.3000;0.4754;0.9787;
729.6000;0.4803;0.9837;
729.9000;0.4778;0.9737;
730.2000;0.4778;0.9737;
730.5000;0.4794;0.9737;
730.8000;0.4778;0.9712;
731.1000;0.4762;0.9662;
731.4000;0.4770;0.9712;
731.7000;0.4705;0.9563;
732.0000;0.4786;0.9637;
732.3000;0.4762;0.9563;
732.6000;0.4754;0.9563;
732.9000;0.4762;0.9687;
733.2000;0.4811;0.9837;
733.5000;0.4737;0.9687;
733.8000;0.4762;0.9837;
734.1000;0.4770;0.9862;
734.4000;0.4770;0.9837;
734.7000;0.4770;0.9762;
735.0000;0.4778;0.9737;
735.3000;0.4762;0.9737;
735.6000;0.4746;0.9712;
735.9000;0.4737;0.9787;
736.2000;0.4746;0.9886;
736.5000;0.4729;0.9862;
736.8000;0.4746;0.9837;
737.1000;0.4770;0.9911;
737.4000;0.4746;0.9862;
737.7000;0.4746;0.9837;
738.0000;0.4762;0.9812;
738.3000;0.4754;0.9837;
738.6000;0.4746;0.9837;
738.9000;0.4737;0.9812;
739.2000;0.4737;0.9862;
739.5000;0.4746;0.9812;
739.8000;0.4713;0.9737;
740.1000;0.4746;0.9862;
740.4000;0.4754;0.9911;
740.7000;0.4746;0.9936;
741.0000;0.4746;0.9837;
741.3000;0.4754;0.9862;
741.6000;0.4737;0.9812;
741.9000;0.4770;0.9886;
742.2000;0.4737;0.9762;
742.5000;0.4762;0.9886;
742.8000;0.4803;0.9986;
743.1000;0.4754;0.9812;
743.4000;0.4746;0.9812;
743.7000;0.4778;0.9886;
744.0000;0.4729;0.9712;
744.3000;0.4754;0.9787;
744.6000;0.4754;0.9737;
744.9000;0.4721;0.9737;
745.2000;0.4664;0.9488;
745.5000;0.4754;0.9762;
745.8000;0.4754;0.9712;
746.1000;0.4746;0.9687;
746.4000;0.4721;0.9662;
746.7000;0.4729;0.9588;
747.0000;0.4754;0.9588;
747.3000;0.4729;0.9488;
747.6000;0.4737;0.9538;
747.9000;0.4737;0.9513;
748.2000;0.4729;0.9413;
748.5000;0.4746;0.9463;
748.8000;0.4737;0.9538;
749.1000;0.4721;0.9513;
749.4000;0.4737;0.9538;
749.7000;0.4729;0.9588;
750.0000;0.4737;0.9563;
750.3000;0.4746;0.9538;
750.6000;0.4705;0.9513;
750.9000;0.4729;0.9563;
751.2000;0.4737;0.9662;
751.5000;0.4754;0.9637;
751.8000;0.4737;0.9538;
752.1000;0.4754;0.9488;
752.4000;0.4754;0.9488;
752.7000;0.4762;0.9388;
753.0000;0.4762;0.9438;
753.3000;0.4746;0.9388;
753.6000;0.4746;0.9463;
753.9000;0.4754;0.9538;
754.2000;0.4729;0.9513;
754.5000;0.4713;0.9563;
754.8000;0.4705;0.9637;
755.1000;0.4713;0.9712;
755.4000;0.4705;0.9712;
755.7000;0.4721;0.9687;
756.0000;0.4656;0.9588;
756.3000;0.4737;0.9936;
756.6000;0.4729;0.9911;
756.9000;0.4729;0.9911;
757.2000;0.4721;0.9837;
757.5000;0.4729;0.9837;
757.8000;0.4729;0.9762;
758.1000;0.4713;0.9862;
758.4000;0.4721;0.9961;
758.7000;0.4803;1.0160;
759.0000;0.4770;1.0061;
759.3000;0.4721;0.9986;
759.6000;0.4721;0.9961;
759.9000;0.4721;0.9837;
760.2000;0.4713;0.9762;
760.5000;0.4705;0.9687;
760.8000;0.4656;0.9613;
761.1000;0.4713;0.9862;
761.4000;0.4713;0.9812;
761.7000;0.4729;0.9862;
762.0000;0.4721;0.9812;
762.3000;0.4713;0.9737;
762.6000;0.4729;0.9812;
762.9000;0.4729;0.9762;
763.2000;0.4721;0.9687;
763.5000;0.4632;0.9488;
763.8000;0.4648;0.9687;
764.1000;0.4689;0.9737;
764.4000;0.4746;0.9911;
764.7000;0.4705;0.9837;
765.0000;0.4721;0.9936;
765.3000;0.4713;0.9837;
765.6000;0.4697;0.9687;
765.9000;0.4689;0.9687;
766.2000;0.4705;0.9787;
766.5000;0.4721;0.9837;
766.8000;0.4689;0.9812;
767.1000;0.4705;0.9762;
767.4000;0.4705;0.9812;
767.7000;0.4624;0.9563;
768.0000;0.4697;0.9787;
768.3000;0.4713;0.9886;
768.6000;0.4721;0.9886;
768.9000;0.4689;0.9787;
769.2000;0.4681;0.9737;
769.5000;0.4705;0.9837;
769.8000;0.4721;0.9812;
770.1000;0.4713;0.9837;
770.4000;0.4648;0.9588;
770.7000;0.4689;0.9762;
771.0000;0.4762;0.9961;
771.3000;0.4713;0.9837;
771.6000;0.4697;0.9762;
771.9000;0.4705;0.9837;
772.2000;0.4705;0.9812;
772.5000;0.4713;0.9812;
772.8000;0.4705;0.9712;
773.1000;0.4697;0.9662;
773.4000;0.4713;0.9613;
773.7000;0.4713;0.9637;
774.0000;0.4713;0.9637;
774.3000;0.4697;0.9662;
774.6000;0.4705;0.9762;
774.9000;0.4705;0.9787;
775.2000;0.4705;0.9762;
775.5000;0.4697;0.9787;
775.8000;0.4713;0.9687;
776.1000;0.4786;0.9911;
776.4000;0.4705;0.9712;
776.7000;0.4656;0.9588;
777.0000;0.4713;0.9662;
777.3000;0.4672;0.9563;
777.6000;0.4689;0.9588;
777.9000;0.4770;0.9812;
778.2000;0.4689;0.9687;
778.5000;0.4672;0.9687;
778.8000;0.4672;0.9613;
779.1000;0.4721;0.9687;
779.4000;0.4697;0.9637;
779.7000;0.4713;0.9662;
780.0000;0.4697;0.9613;
780.3000;0.4721;0.9662;
780.6000;0.4713;0.9662;
780.9000;0.4681;0.9637;
781.2000;0.4689;0.9712;
781.5000;0.4640;0.9662;
781.8000;0.4721;0.9886;
782.1000;0.4681;0.9812;
782.4000;0.4705;0.9837;
782.7000;0.4713;0.9936;
783.0000;0.4689;0.9936;
783.3000;0.4705;0.9986;
783.6000;0.4689;0.9936;
783.9000;0.4697;0.9911;
784.2000;0.4656;0.9762;
784.5000;0.4786;1.0036;
784.8000;0.4672;0.9737;
785.1000;0.4705;0.9762;
785.4000;0.4697;0.9662;
785.7000;0.4681;0.9588;
786.0000;0.4697;0.9588;
786.3000;0.4697;0.9538;
786.6000;0.4697;0.9613;
786.9000;0.4713;0.9637;
787.2000;0.4705;0.9588;
787.5000;0.4648;0.9538;
787.8000;0.4721;0.9662;
788.1000;0.4705;0.9563;
788.4000;0.4689;0.9538;
788.7000;0.4672;0.9513;
789.0000;0.4681;0.9488;
789.3000;0.4713;0.9488;
789.6000;0.4689;0.9488;
789.9000;0.4689;0.9563;
790.2000;0.4689;0.9637;
790.5000;0.4689;0.9637;
790.8000;0.4681;0.9687;
791.1000;0.4697;0.9712;
791.4000;0.4672;0.9637;
791.7000;0.4689;0.9712;
792.0000;0.4648;0.9613;
792.3000;0.4656;0.9687;
792.6000;0.4681;0.9812;
792.9000;0.4681;0.9837;
793.2000;0.4689;0.9911;
793.5000;0.4681;0.9812;
793.8000;0.4672;0.9837;
794.1000;0.4786;1.0136;
794.4000;0.4689;0.9886;
794.7000;0.4697;0.9911;
795.0000;0.4664;0.9862;
795.3000;0.4681;0.9886;
795.6000;0.4689;0.9812;
795.9000;0.4681;0.9812;
796.2000;0.4689;0.9812;
796.5000;0.4648;0.9662;
796.8000;0.4705;0.9812;
797.1000;0.4697;0.9837;
797.4000;0.4681;0.9762;
797.7000;0.4762;0.9986;
798.0000;0.4656;0.9787;
798.3000;0.4656;0.9712;
798.6000;0.4664;0.9762;
798.9000;0.4672;0.9812;
799.2000;0.4689;0.9737;
799.5000;0.4664;0.9737;
799.8000;0.4656;0.9737;
800.1000;0.4681;0.9886;
800.4000;0.4664;0.9862;
800.7000;0.4664;0.9762;
801.0000;0.4640;0.9662;
801.3000;0.4664;0.9687;
801.6000;0.4656;0.9662;
801.9000;0.4648;0.9687;
802.2000;0.4672;0.9837;
802.5000;0.4770;1.0086;
802.8000;0.4721;0.9986;
803.1000;0.4746;1.0111;
803.4000;0.4664;0.9911;
803.7000;0.4607;0.9812;
804.0000;0.4656;0.9862;
804.3000;0.4624;0.9837;
804.6000;0.4632;0.9862;
804.9000;0.4681;1.0036;
805.2000;0.4664;0.9936;
805.5000;0.4729;1.0111;
805.8000;0.4664;1.0011;
806.1000;0.4664;1.0061;
806.4000;0.4664;0.9961;
806.7000;0.4624;0.9762;
807.0000;0.4664;0.9886;
807.3000;0.4672;0.9886;
807.6000;0.4656;0.9862;
807.9000;0.4664;0.9886;
808.2000;0.4656;0.9862;
808.5000;0.4721;1.0061;
808.8000;0.4664;0.9886;
809.1000;0.4648;0.9862;
809.4000;0.4664;0.9936;
809.7000;0.4672;0.9886;
810.0000;0.4672;0.9812;
810.3000;0.4664;0.9737;
810.6000;0.4681;0.9837;
810.9000;0.4672;0.9812;
811.2000;0.4648;0.9737;
811.5000;0.4664;0.9837;
811.8000;0.4672;0.9886;
812.1000;0.4681;0.9986;
812.4000;0.4681;0.9911;
812.7000;0.4713;1.0011;
813.0000;0.4656;0.9886;
813.3000;0.4656;0.9961;
813.6000;0.4664;0.9986;
813.9000;0.4672;0.9862;
814.2000;0.4664;0.9762;
814.5000;0.4648;0.9837;
814.8000;0.4664;0.9737;
815.1000;0.4656;0.9662;
815.4000;0.4640;0.9613;
815.7000;0.4648;0.9588;
816.0000;0.4672;0.9762;
816.3000;0.4664;0.9837;
816.6000;0.4656;0.9886;
816.9000;0.4656;0.9862;
817.2000;0.4591;0.9563;
817.5000;0.4672;0.9837;
817.8000;0.4656;0.9862;
818.1000;0.4656;0.9961;
818.4000;0.4656;0.9886;
818.7000;0.4664;0.9936;
819.0000;0.4664;0.9886;
819.3000;0.4640;0.9837;
819.6000;0.4672;0.9936;
819.9000;0.4664;0.9961;
820.2000;0.4656;0.9986;
820.5000;0.4656;0.9961;
820.8000;0.4648;1.0011;
821.1000;0.4664;0.9936;
821.4000;0.4640;0.9886;
821.7000;0.4648;0.9911;
822.0000;0.4648;0.9862;
822.3000;0.4664;0.9886;
822.6000;0.4754;1.0111;
822.9000;0.4640;0.9837;
823.2000;0.4664;0.9862;
823.5000;0.4672;0.9837;
823.8000;0.4664;0.9787;
824.1000;0.4656;0.9812;
824.4000;0.4624;0.9787;
824.7000;0.4656;0.9812;
825.0000;0.4640;0.9787;
825.3000;0.4648;0.9762;
825.6000;0.4648;0.9837;
825.9000;0.4656;0.9886;
826.2000;0.4664;0.9837;
826.5000;0.4689;0.9911;
826.8000;0.4664;0.9911;
827.1000;0.4664;0.9911;
827.4000;0.4656;0.9936;
827.7000;0.4672;0.9886;
828.0000;0.4664;0.9886;
828.3000;0.4672;0.9886;
828.6000;0.4664;0.9911;
828.9000;0.4672;0.9961;
829.2000;0.4664;1.0036;
829.5000;0.4640;0.9936;
829.8000;0.4656;0.9961;
830.1000;0.4672;0.9886;
830.4000;0.4624;0.9712;
830.7000;0.4640;0.9862;
831.0000;0.4672;0.9911;
831.3000;0.4656;0.9837;
831.6000;0.4672;1.0011;
831.9000;0.4664;1.0011;
832.2000;0.4656;0.9986;
832.5000;0.4705;1.0011;
832.8000;0.4648;0.9812;
833.1000;0.4640;0.9787;
833.4000;0.4648;0.9712;
833.7000;0.4640;0.9737;
834.0000;0.4624;0.9737;
834.3000;0.4640;0.9812;
834.6000;0.4648;0.9837;
834.9000;0.4648;0.9862;
835.2000;0.4656;0.9911;
835.5000;0.4640;0.9886;
835.8000;0.4640;0.9886;
836.1000;0.4697;1.0086;
836.4000;0.4624;0.9886;
836.7000;0.4664;1.0036;
837.0000;0.4640;1.0061;
837.3000;0.4697;1.0210;
837.6000;0.4648;1.0011;
837.9000;0.4648;0.9986;
838.2000;0.4640;0.9936;
838.5000;0.4672;1.0011;
838.8000;0.4672;0.9986;
839.1000;0.4648;0.9862;
839.4000;0.4681;0.9936;
839.7000;0.4648;0.9886;
840.0000;0.4664;0.9886;
840.3000;0.4664;0.9862;
840.6000;0.4656;0.9737;
840.9000;0.4624;0.9737;
841.2000;0.4689;0.9911;
841.5000;0.4664;0.9837;
841.8000;0.4640;0.9812;
842.1000;0.4648;0.9812;
842.4000;0.4648;0.9886;
842.7000;0.4656;0.9911;
843.0000;0.4656;0.9936;
843.3000;0.4656;0.9936;
843.6000;0.4672;0.9936;
843.9000;0.4664;0.9936;
844.2000;0.4656;0.9911;
844.5000;0.4640;0.9862;
844.8000;0.4648;0.9886;
845.1000;0.4656;0.9936;
845.4000;0.4640;0.9961;
845.7000;0.4648;0.9986;
846.0000;0.4640;1.0011;
846.3000;0.4632;0.9986;
846.6000;0.4640;0.9986;
846.9000;0.4648;1.0011;
847.2000;0.4648;1.0036;
847.5000;0.4656;1.0011;
847.8000;0.4664;0.9936;
848.1000;0.4640;0.9911;
848.4000;0.4656;0.9862;
848.7000;0.4648;0.9911;
849.0000;0.4656;1.0011;
849.3000;0.4672;0.9936;
849.6000;0.4664;1.0011;
849.9000;0.4648;0.9936;
850.2000;0.4640;0.9911;
850.5000;0.4632;0.9986;
850.8000;0.4615;0.9961;
851.1000;0.4664;1.0036;
851.4000;0.4632;0.9961;
851.7000;0.4656;1.0011;
852.0000;0.4632;0.9986;
852.3000;0.4648;1.0061;
852.6000;0.4672;1.0160;
852.9000;0.4697;1.0210;
853.2000;0.4640;1.0086;
853.5000;0.4648;1.0111;
853.8000;0.4624;1.0061;
854.1000;0.4640;1.0136;
854.4000;0.4640;1.0111;
854.7000;0.4664;1.0111;
855.0000;0.4640;1.0111;
855.3000;0.4640;1.0111;
855.6000;0.4632;1.0185;
855.9000;0.4632;1.0111;
856.2000;0.4640;1.0210;
856.5000;0.4632;1.0160;
856.8000;0.4624;1.0111;
857.1000;0.4632;1.0111;
857.4000;0.4615;1.0036;
857.7000;0.4615;1.0011;
858.0000;0.4607;0.9862;
858.3000;0.4648;0.9961;
858.6000;0.4632;0.9936;
858.9000;0.4640;1.0011;
859.2000;0.4640;0.9986;
859.5000;0.4632;1.0011;
859.8000;0.4640;1.0011;
860.1000;0.4640;1.0036;
860.4000;0.4672;1.0185;
860.7000;0.4632;1.0210;
861.0000;0.4632;1.0086;
861.3000;0.4656;1.0136;
861.6000;0.4632;1.0086;
861.9000;0.4632;1.0086;
862.2000;0.4664;1.0235;
862.5000;0.4632;1.0111;
862.8000;0.4632;1.0061;
863.1000;0.4640;1.0111;
863.4000;0.4632;1.0061;
863.7000;0.4648;1.0160;
864.0000;0.4640;1.0111;
864.3000;0.4672;1.0160;
864.6000;0.4648;1.0036;
864.9000;0.4632;1.0061;
865.2000;0.4632;1.0086;
865.5000;0.4624;1.0086;
865.8000;0.4640;1.0086;
866.1000;0.4632;1.0136;
866.4000;0.4624;1.0160;
866.7000;0.4640;1.0185;
867.0000;0.4648;1.0136;
867.3000;0.4640;1.0086;
867.6000;0.4632;1.0111;
867.9000;0.4648;1.0136;
868.2000;0.4640;1.0160;
868.5000;0.4632;1.0260;
868.8000;0.4640;1.0210;
869.1000;0.4656;1.0285;
869.4000;0.4640;1.0260;
869.7000;0.4640;1.0235;
870.0000;0.4607;1.0136;
870.3000;0.4624;1.0185;
870.6000;0.4640;1.0235;
870.9000;0.4640;1.0360;
871.2000;0.4624;1.0210;
871.5000;0.4624;1.0136;
871.8000;0.4648;1.0160;
872.1000;0.4632;1.0136;
872.4000;0.4640;1.0185;
872.7000;0.4624;1.0210;
873.0000;0.4640;1.0310;
873.3000;0.4624;1.0360;
873.6000;0.4599;1.0260;
873.9000;0.4632;1.0360;
874.2000;0.4640;1.0360;
874.5000;0.4656;1.0459;
874.8000;0.4729;1.0658;
875.1000;0.4632;1.0335;
875.4000;0.4640;1.0285;
875.7000;0.4648;1.0360;
876.0000;0.4632;1.0310;
876.3000;0.4640;1.0335;
876.6000;0.4624;1.0310;
876.9000;0.4656;1.0285;
877.2000;0.4624;1.0310;
877.5000;0.4624;1.0310;
877.8000;0.4632;1.0235;
878.1000;0.4640;1.0185;
878.4000;0.4640;1.0160;
878.7000;0.4648;1.0235;
879.0000;0.4648;1.0160;
879.3000;0.4632;1.0111;
879.6000;0.4640;1.0185;
879.9000;0.4648;1.0285;
880.2000;0.4640;1.0210;
880.5000;0.4640;1.0185;
880.8000;0.4648;1.0285;
881.1000;0.4640;1.0160;
881.4000;0.4632;1.0210;
881.7000;0.4615;1.0210;
882.0000;0.4607;1.0160;
882.3000;0.4624;1.0185;
882.6000;0.4632;1.0136;
882.9000;0.4632;1.0111;
883.2000;0.4632;1.0185;
883.5000;0.4632;1.0160;
883.8000;0.4640;1.0260;
884.1000;0.4640;1.0260;
884.4000;0.4632;1.0310;
884.7000;0.4656;1.0210;
885.0000;0.4624;1.0210;
885.3000;0.4640;1.0285;
885.6000;0.4632;1.0260;
885.9000;0.4664;1.0409;
886.2000;0.4640;1.0285;
886.5000;0.4615;1.0185;
886.8000;0.4632;1.0160;
887.1000;0.4615;1.0260;
887.4000;0.4632;1.0235;
887.7000;0.4632;1.0185;
888.0000;0.4615;1.0185;
888.3000;0.4648;1.0235;
888.6000;0.4624;1.0235;
888.9000;0.4640;1.0160;
889.2000;0.4640;1.0210;
889.5000;0.4640;1.0260;
889.8000;0.4648;1.0185;
890.1000;0.4640;1.0210;
890.4000;0.4632;1.0160;
890.7000;0.4624;1.0086;
891.0000;0.4672;1.0160;
891.3000;0.4640;1.0086;
891.6000;0.4575;0.9936;
891.9000;0.4607;1.0086;
892.2000;0.4632;1.0160;
892.5000;0.4583;1.0086;
892.8000;0.4607;1.0136;
893.1000;0.4615;1.0086;
893.4000;0.4632;1.0086;
893.7000;0.4575;1.0011;
894.0000;0.4624;1.0185;
894.3000;0.4672;1.0409;
894.6000;0.4648;1.0335;
894.9000;0.4713;1.0559;
895.2000;0.4632;1.0285;
895.5000;0.4624;1.0260;
895.8000;0.4632;1.0260;
896.1000;0.4632;1.0136;
896.4000;0.4640;1.0260;
896.7000;0.4640;1.0335;
897.0000;0.4615;1.0310;
897.3000;0.4624;1.0385;
897.6000;0.4640;1.0335;
897.9000;0.4648;1.0335;
898.2000;0.4672;1.0335;
898.5000;0.4729;1.0484;
898.8000;0.4672;1.0385;
899.1000;0.4648;1.0260;
899.4000;0.4624;1.0235;
899.7000;0.4632;1.0285;
900.0000;0.4640;1.0260;
900.3000;0.4624;1.0185;
900.6000;0.4599;1.0086;
900.9000;0.4624;1.0086;
901.2000;0.4624;1.0086;
901.5000;0.4648;1.0136;
901.8000;0.4615;1.0061;
902.1000;0.4615;1.0136;
902.4000;0.4615;1.0185;
902.7000;0.4632;1.0260;
903.0000;0.4632;1.0260;
903.3000;0.4632;1.0285;
903.6000;0.4615;1.0360;
903.9000;0.4632;1.0360;
904.2000;0.4624;1.0310;
904.5000;0.4624;1.0285;
904.8000;0.4624;1.0285;
905.1000;0.4632;1.0335;
905.4000;0.4624;1.0235;
905.7000;0.4624;1.0136;
906.0000;0.4615;1.0086;
906.3000;0.4632;1.0036;
906.6000;0.4624;1.0011;
906.9000;0.4640;1.0061;
907.2000;0.4607;0.9986;
907.5000;0.4632;1.0011;
907.8000;0.4615;0.9911;
908.1000;0.4632;0.9936;
908.4000;0.4624;0.9911;
908.7000;0.4550;0.9662;
909.0000;0.4656;0.9961;
909.3000;0.4615;0.9862;
909.6000;0.4640;0.9936;
909.9000;0.4632;0.9961;
910.2000;0.4624;0.9961;
910.5000;0.4656;1.0036;
910.8000;0.4632;0.9936;
911.1000;0.4640;1.0011;
911.4000;0.4656;1.0111;
911.7000;0.4615;0.9961;
912.0000;0.4632;0.9911;
912.3000;0.4632;0.9936;
912.6000;0.4664;1.0111;
912.9000;0.4624;1.0136;
913.2000;0.4607;1.0086;
913.5000;0.4689;1.0409;
913.8000;0.4624;1.0260;
914.1000;0.4640;1.0260;
914.4000;0.4599;1.0061;
914.7000;0.4624;1.0111;
915.0000;0.4615;1.0111;
915.3000;0.4607;1.0036;
915.6000;0.4607;1.0036;
915.9000;0.4632;1.0011;
916.2000;0.4615;0.9911;
916.5000;0.4632;0.9911;
916.8000;0.4632;0.9911;
917.1000;0.4615;0.9862;
917.4000;0.4607;0.9911;
917.7000;0.4624;0.9886;
918.0000;0.4632;0.9936;
918.3000;0.4632;0.9986;
918.6000;0.4624;0.9961;
918.9000;0.4632;1.0036;
919.2000;0.4624;1.0061;
919.5000;0.4624;1.0061;
919.8000;0.4607;1.0061;
920.1000;0.4632;1.0136;
920.4000;0.4632;1.0086;
920.7000;0.4624;1.0111;
921.0000;0.4624;1.0061;
921.3000;0.4599;0.9961;
921.6000;0.4615;0.9961;
921.9000;0.4567;0.9737;
922.2000;0.4624;0.9837;
922.5000;0.4640;0.9911;
922.8000;0.4615;0.9936;
923.1000;0.4624;1.0011;
923.4000;0.4615;0.9961;
923.7000;0.4632;0.9936;
924.0000;0.4640;1.0036;
924.3000;0.4632;0.9936;
924.6000;0.4681;1.0111;
924.9000;0.4648;0.9936;
925.2000;0.4624;0.9936;
925.5000;0.4624;1.0036;
925.8000;0.4632;1.0011;
926.1000;0.4615;1.0036;
926.4000;0.4607;0.9961;
926.7000;0.4624;0.9936;
927.0000;0.4607;0.9936;
927.3000;0.4599;0.9936;
927.6000;0.4526;0.9862;
927.9000;0.4624;1.0036;
928.2000;0.4632;1.0011;
928.5000;0.4615;0.9961;
928.8000;0.4591;0.9936;
929.1000;0.4615;0.9936;
929.4000;0.4624;1.0011;
929.7000;0.4615;1.0111;
930.0000;0.4615;1.0136;
930.3000;0.4615;1.0185;
930.6000;0.4624;1.0160;
930.9000;0.4607;1.0136;
931.2000;0.4615;1.0160;
931.5000;0.4615;1.0160;
931.8000;0.4607;1.0111;
932.1000;0.4640;1.0061;
932.4000;0.4615;0.9936;
932.7000;0.4632;0.9986;
933.0000;0.4607;0.9911;
933.3000;0.4615;0.9961;
933.6000;0.4607;0.9936;
933.9000;0.4615;0.9986;
934.2000;0.4672;1.0185;
934.5000;0.4632;1.0136;
934.8000;0.4624;1.0111;
935.1000;0.4615;1.0136;
935.4000;0.4632;1.0136;
935.7000;0.4615;1.0136;
936.0000;0.4583;1.0011;
936.3000;0.4632;1.0136;
936.6000;0.4648;1.0235;
936.9000;0.4632;1.0061;
937.2000;0.4599;1.0011;
937.5000;0.4640;1.0160;
937.8000;0.4607;0.9986;
938.1000;0.4607;0.9886;
938.4000;0.4640;0.9911;
938.7000;0.4591;0.9762;
939.0000;0.4648;0.9986;
939.3000;0.4632;0.9911;
939.6000;0.4615;0.9911;
939.9000;0.4632;0.9862;
940.2000;0.4607;0.9936;
940.5000;0.4640;0.9986;
940.8000;0.4624;0.9961;
941.1000;0.4607;0.9911;
941.4000;0.4624;0.9911;
941.7000;0.4615;0.9911;
942.0000;0.4624;0.9936;
942.3000;0.4607;0.9961;
942.6000;0.4615;1.0061;
942.9000;0.4624;1.0036;
943.2000;0.4624;1.0061;
943.5000;0.4681;1.0086;
943.8000;0.4599;0.9812;
944.1000;0.4615;0.9911;
944.4000;0.4607;1.0061;
944.7000;0.4624;1.0136;
945.0000;0.4615;1.0136;
945.3000;0.4624;1.0111;
945.6000;0.4648;1.0160;
945.9000;0.4640;1.0136;
946.2000;0.4640;1.0136;
946.5000;0.4615;1.0061;
946.8000;0.4607;1.0011;
947.1000;0.4615;1.0036;
947.4000;0.4624;0.9961;
947.7000;0.4607;0.9961;
948.0000;0.4607;0.9961;
948.3000;0.4615;0.9911;
948.6000;0.4599;0.9862;
948.9000;0.4615;0.9961;
949.2000;0.4615;1.0061;
949.5000;0.4624;1.0036;
949.8000;0.4615;1.0086;
950.1000;0.4607;0.9986;
950.4000;0.4607;1.0061;
950.7000;0.4599;1.0011;
951.0000;0.4607;0.9986;
951.3000;0.4624;1.0036;
951.6000;0.4607;0.9986;
951.9000;0.4615;0.9961;
952.2000;0.4615;1.0036;
952.5000;0.4607;1.0036;
952.8000;0.4599;1.0111;
953.1000;0.4607;1.0136;
953.4000;0.4591;1.0160;
953.7000;0.4607;1.0260;
954.0000;0.4624;1.0210;
954.3000;0.4607;1.0185;
954.6000;0.4615;1.0185;
954.9000;0.4607;1.0210;
955.2000;0.4591;1.0185;
955.5000;0.4599;1.0086;
955.8000;0.4615;1.0136;
956.1000;0.4615;1.0136;
956.4000;0.4550;0.9886;
956.7000;0.4591;0.9986;
957.0000;0.4599;0.9986;
957.3000;0.4632;0.9936;
957.6000;0.4575;0.9812;
957.9000;0.4607;0.9862;
958.2000;0.4607;0.9936;
958.5000;0.4591;0.9886;
958.8000;0.4615;1.0061;
959.1000;0.4599;1.0061;
959.4000;0.4624;1.0061;
959.7000;0.4615;1.0086;
960.0000;0.4624;1.0160;
960.3000;0.4599;1.0061;
960.6000;0.4689;1.0235;
960.9000;0.4615;0.9986;
961.2000;0.4607;0.9986;
961.5000;0.4567;0.9862;
961.8000;0.4607;0.9986;
962.1000;0.4607;0.9936;
962.4000;0.4615;0.9986;
962.7000;0.4599;0.9961;
963.0000;0.4615;1.0061;
963.3000;0.4599;1.0086;
963.6000;0.4624;1.0111;
963.9000;0.4607;1.0136;
964.2000;0.4599;1.0036;
964.5000;0.4624;1.0086;
964.8000;0.4615;1.0036;
965.1000;0.4567;0.9886;
965.4000;0.4615;1.0061;
965.7000;0.4624;1.0086;
966.0000;0.4615;1.0086;
966.3000;0.4615;1.0036;
966.6000;0.4599;1.0011;
966.9000;0.4607;1.0086;
967.2000;0.4607;1.0086;
967.5000;0.4624;1.0011;
967.8000;0.4632;1.0036;
968.1000;0.4599;0.9936;
968.4000;0.4632;1.0036;
968.7000;0.4624;1.0061;
969.0000;0.4672;1.0185;
969.3000;0.4615;1.0136;
969.6000;0.4615;1.0185;
969.9000;0.4607;1.0185;
970.2000;0.4615;1.0185;
970.5000;0.4607;1.0160;
970.8000;0.4558;1.0011;
971.1000;0.4591;1.0111;
971.4000;0.4615;1.0185;
971.7000;0.4615;1.0185;
972.0000;0.4599;1.0160;
972.3000;0.4607;1.0160;
972.6000;0.4656;1.0385;
972.9000;0.4607;1.0185;
973.2000;0.4575;1.0061;
973.5000;0.4615;1.0185;
973.8000;0.4599;1.0310;
974.1000;0.4607;1.0210;
974.4000;0.4607;1.0235;
974.7000;0.4607;1.0285;
975.0000;0.4632;1.0385;
975.3000;0.4624;1.0434;
975.6000;0.4607;1.0335;
975.9000;0.4615;1.0360;
976.2000;0.4624;1.0385;
976.5000;0.4624;1.0360;
976.8000;0.4624;1.0360;
977.1000;0.4615;1.0310;
977.4000;0.4575;1.0235;
977.7000;0.4624;1.0360;
978.0000;0.4607;1.0310;
978.3000;0.4591;1.0235;
978.6000;0.4599;1.0260;
978.9000;0.4607;1.0235;
979.2000;0.4607;1.0335;
979.5000;0.4615;1.0385;
979.8000;0.4615;1.0310;
980.1000;0.4607;1.0335;
980.4000;0.4632;1.0360;
980.7000;0.4615;1.0335;
981.0000;0.4607;1.0285;
981.3000;0.4607;1.0210;
981.6000;0.4607;1.0185;
981.9000;0.4599;1.0210;
982.2000;0.4607;1.0136;
982.5000;0.4599;1.0111;
982.8000;0.4607;1.0160;
983.1000;0.4550;1.0011;
983.4000;0.4591;1.0086;
983.7000;0.4599;1.0061;
984.0000;0.4591;1.0011;
984.3000;0.4607;1.0185;
984.6000;0.4615;1.0260;
984.9000;0.4599;1.0210;
985.2000;0.4607;1.0210;
985.5000;0.4624;1.0310;
985.8000;0.4615;1.0235;
986.1000;0.4672;1.0310;
986.4000;0.4624;1.0160;
986.7000;0.4583;1.0036;
987.0000;0.4624;1.0136;
987.3000;0.4632;1.0160;
987.6000;0.4607;1.0061;
987.9000;0.4615;1.0111;
988.2000;0.4664;1.0210;
988.5000;0.4640;1.0210;
988.8000;0.4599;1.0136;
989.1000;0.4615;1.0185;
989.4000;0.4542;0.9961;
989.7000;0.4599;1.0061;
990.0000;0.4615;0.9986;
990.3000;0.4615;1.0061;
990.6000;0.4624;1.0061;
990.9000;0.4607;1.0036;
991.2000;0.4599;0.9986;
991.5000;0.4632;1.0036;
991.8000;0.4656;1.0061;
992.1000;0.4607;0.9886;
992.4000;0.4591;0.9862;
992.7000;0.4534;0.9812;
993.0000;0.4607;1.0061;
993.3000;0.4599;1.0036;
993.6000;0.4591;1.0011;
993.9000;0.4632;1.0185;
994.2000;0.4599;1.0136;
994.5000;0.4607;1.0160;
994.8000;0.4583;1.0111;
995.1000;0.4599;1.0086;
995.4000;0.4607;1.0111;
995.7000;0.4558;0.9986;
996.0000;0.4583;1.0036;
996.3000;0.4607;1.0036;
996.6000;0.4607;0.9961;
996.9000;0.4607;1.0011;
997.2000;0.4591;1.0011;
997.5000;0.4599;1.0036;
997.8000;0.4624;1.0136;
998.1000;0.4599;1.0036;
998.4000;0.4599;1.0036;
998.7000;0.4599;1.0086;
999.0000;0.4558;1.0111;
999.3000;0.4599;1.0210;
999.6000;0.4591;1.0310;
999.9000;0.4575;1.0185;
1000.2000;0.4615;1.0235;
1000.5000;0.4599;1.0210;
1000.8000;0.4542;1.0185;
1001.1000;0.4607;1.0285;
1001.4000;0.4591;1.0210;
1001.7000;0.4615;1.0210;
1002.0000;0.4607;1.0210;
1002.3000;0.4624;1.0285;
1002.6000;0.4607;1.0160;
1002.9000;0.4526;0.9886;
1003.2000;0.4607;1.0136;
1003.5000;0.4615;1.0185;
1003.8000;0.4575;1.0061;
1004.1000;0.4615;1.0111;
1004.4000;0.4624;1.0136;
1004.7000;0.4599;1.0111;
1005.0000;0.4591;1.0160;
1005.3000;0.4615;1.0210;
1005.6000;0.4648;1.0285;
1005.9000;0.4632;1.0160;
1006.2000;0.4607;1.0160;
1006.5000;0.4615;1.0310;
1006.8000;0.4599;1.0235;
1007.1000;0.4599;1.0160;
1007.4000;0.4607;1.0160;
1007.7000;0.4599;1.0011;
1008.0000;0.4607;1.0136;
1008.3000;0.4599;1.0210;
1008.6000;0.4518;1.0036;
1008.9000;0.4615;1.0210;
1009.2000;0.4640;1.0260;
1009.5000;0.4615;1.0185;
1009.8000;0.4607;1.0111;
1010.1000;0.4599;1.0086;
1010.4000;0.4599;1.0036;
1010.7000;0.4591;1.0061;
1011.0000;0.4607;1.0185;
1011.3000;0.4599;1.0210;
1011.6000;0.4599;1.0335;
1011.9000;0.4599;1.0385;
1012.2000;0.4599;1.0310;
1012.5000;0.4624;1.0310;
1012.8000;0.4599;1.0136;
1013.1000;0.4599;1.0160;
1013.4000;0.4526;0.9961;
1013.7000;0.4599;1.0210;
1014.0000;0.4583;1.0160;
1014.3000;0.4550;1.0086;
1014.6000;0.4591;1.0160;
1014.9000;0.4599;1.0086;
1015.2000;0.4599;1.0061;
1015.5000;0.4599;1.0036;
1015.8000;0.4632;1.0160;
1016.1000;0.4607;1.0235;
1016.4000;0.4656;1.0310;
1016.7000;0.4599;1.0136;
1017.0000;0.4615;1.0235;
1017.3000;0.4615;1.0185;
1017.6000;0.4607;1.0036;
1017.9000;0.4583;0.9986;
1018.2000;0.4615;1.0086;
1018.5000;0.4599;1.0061;
1018.8000;0.4632;1.0160;
1019.1000;0.4591;1.0061;
1019.4000;0.4615;1.0136;
1019.7000;0.4591;1.0136;
1020.0000;0.4632;1.0260;
1020.3000;0.4615;1.0160;
1020.6000;0.4599;1.0185;
1020.9000;0.4591;1.0111;
1021.2000;0.4607;1.0136;
1021.5000;0.4607;1.0136;
1021.8000;0.4607;1.0235;
1022.1000;0.4599;1.0210;
1022.4000;0.4583;1.0086;
1022.7000;0.4599;1.0185;
1023.0000;0.4607;1.0285;
1023.3000;0.4599;1.0210;
1023.6000;0.4591;1.0260;
1023.9000;0.4591;1.0335;
1024.2000;0.4607;1.0310;
1024.5000;0.4615;1.0260;
1024.8000;0.4575;1.0111;
1025.1000;0.4607;1.0210;
1025.4000;0.4607;1.0136;
1025.7000;0.4591;1.0136;
1026.0000;0.4591;1.0111;
1026.3000;0.4607;1.0160;
1026.6000;0.4599;1.0235;
1026.9000;0.4558;1.0086;
1027.2000;0.4583;1.0185;
1027.5000;0.4575;1.0185;
1027.8000;0.4591;1.0185;
1028.1000;0.4599;1.0160;
1028.4000;0.4599;1.0210;
1028.7000;0.4591;1.0185;
1029.0000;0.4567;1.0086;
1029.3000;0.4583;1.0036;
1029.6000;0.4583;1.0111;
1029.9000;0.4599;1.0036;
1030.2000;0.4607;1.0011;
1030.5000;0.4591;1.0036;
1030.8000;0.4599;1.0036;
1031.1000;0.4672;1.0285;
1031.4000;0.4591;0.9986;
1031.7000;0.4615;1.0011;
1032.0000;0.4591;1.0011;
1032.3000;0.4599;1.0111;
1032.6000;0.4607;1.0136;
1032.9000;0.4624;1.0061;
1033.2000;0.4648;1.0011;
1033.5000;0.4599;0.9986;
1033.8000;0.4583;0.9961;
1034.1000;0.4575;0.9986;
1034.4000;0.4583;0.9986;
1034.7000;0.4607;1.0036;
1035.0000;0.4615;1.0111;
1035.3000;0.4599;1.0136;
1035.6000;0.4591;1.0136;
1035.9000;0.4591;1.0160;
1036.2000;0.4599;1.0136;
1036.5000;0.4624;1.0160;
1036.8000;0.4591;1.0086;
1037.1000;0.4599;1.0160;
1037.4000;0.4583;1.0086;
1037.7000;0.4640;1.0260;
1038.0000;0.4607;1.0136;
1038.3000;0.4599;1.0086;
1038.6000;0.4624;1.0235;
1038.9000;0.4591;1.0210;
1039.2000;0.4575;1.0086;
1039.5000;0.4591;1.0086;
1039.8000;0.4599;1.0086;
1040.1000;0.4607;1.0061;
1040.4000;0.4599;1.0011;
1040.7000;0.4558;1.0036;
1041.0000;0.4567;1.0111;
1041.3000;0.4607;1.0136;
1041.6000;0.4697;1.0434;
1041.9000;0.4591;1.0136;
1042.2000;0.4591;1.0185;
1042.5000;0.4591;1.0210;
1042.8000;0.4607;1.0185;
1043.1000;0.4591;1.0160;
1043.4000;0.4599;1.0185;
1043.7000;0.4591;1.0235;
1044.0000;0.4542;1.0160;
1044.3000;0.4567;1.0185;
1044.6000;0.4599;1.0260;
1044.9000;0.4599;1.0210;
1045.2000;0.4615;1.0260;
1045.5000;0.4591;1.0185;
1045.8000;0.4607;1.0235;
1046.1000;0.4615;1.0335;
1046.4000;0.4656;1.0484;
1046.7000;0.4615;1.0434;
1047.0000;0.4591;1.0360;
1047.3000;0.4599;1.0335;
1047.6000;0.4615;1.0310;
1047.9000;0.4591;1.0235;
1048.2000;0.4615;1.0335;
1048.5000;0.4583;1.0260;
1048.8000;0.4599;1.0310;
1049.1000;0.4607;1.0210;
1049.4000;0.4664;1.0310;
1049.7000;0.4607;1.0185;
1050.0000;0.4575;1.0036;
1050.3000;0.4632;1.0235;
1050.6000;0.4591;1.0185;
1050.9000;0.4599;1.0185;
1051.2000;0.4607;1.0185;
1051.5000;0.4632;1.0285;
1051.8000;0.4607;1.0260;
1052.1000;0.4599;1.0310;
1052.4000;0.4567;1.0285;
1052.7000;0.4558;1.0310;
1053.0000;0.4624;1.0360;
1053.3000;0.4591;1.0260;
1053.6000;0.4615;1.0235;
1053.9000;0.4599;1.0185;
1054.2000;0.4607;1.0210;
1054.5000;0.4591;1.0235;
1054.8000;0.4599;1.0210;
1055.1000;0.4518;1.0011;
1055.4000;0.4591;1.0185;
1055.7000;0.4591;1.0185;
1056.0000;0.4599;1.0235;
1056.3000;0.4599;1.0210;
1056.6000;0.4599;1.0260;
1056.9000;0.4575;1.0136;
1057.2000;0.4583;1.0185;
1057.5000;0.4591;1.0111;
1057.8000;0.4567;1.0160;
1058.1000;0.4591;1.0235;
1058.4000;0.4575;1.0136;
1058.7000;0.4591;1.0185;
1059.0000;0.4607;1.0185;
1059.3000;0.4599;1.0160;
1059.6000;0.4599;1.0111;
1059.9000;0.4607;1.0111;
1060.2000;0.4607;1.0086;
1060.5000;0.4567;0.9961;
1060.8000;0.4591;1.0111;
1061.1000;0.4607;1.0111;
1061.4000;0.4615;1.0136;
1061.7000;0.4599;1.0111;
1062.0000;0.4599;1.0111;
1062.3000;0.4591;1.0061;
1062.6000;0.4599;1.0111;
1062.9000;0.4615;1.0210;
1063.2000;0.4607;1.0235;
1063.5000;0.4599;1.0235;
1063.8000;0.4599;1.0210;
1064.1000;0.4583;1.0235;
1064.4000;0.4591;1.0235;
1064.7000;0.4510;0.9986;
1065.0000;0.4599;1.0210;
1065.3000;0.4615;1.0310;
1065.6000;0.4607;1.0360;
1065.9000;0.4575;1.0310;
1066.2000;0.4591;1.0260;
1066.5000;0.4591;1.0360;
1066.8000;0.4583;1.0260;
1067.1000;0.4607;1.0285;
1067.4000;0.4591;1.0285;
1067.7000;0.4607;1.0185;
1068.0000;0.4607;1.0160;
1068.3000;0.4615;1.0235;
1068.6000;0.4599;1.0210;
1068.9000;0.4599;1.0235;
1069.2000;0.4583;1.0235;
1069.5000;0.4607;1.0260;
1069.8000;0.4575;1.0235;
1070.1000;0.4567;1.0185;
1070.4000;0.4624;1.0335;
1070.7000;0.4615;1.0260;
1071.0000;0.4599;1.0235;
1071.3000;0.4599;1.0235;
1071.6000;0.4583;1.0160;
1071.9000;0.4624;1.0260;
1072.2000;0.4632;1.0260;
1072.5000;0.4615;1.0235;
1072.8000;0.4615;1.0160;
1073.1000;0.4615;1.0160;
1073.4000;0.4607;1.0136;
1073.7000;0.4591;1.0136;
1074.0000;0.4591;1.0061;
1074.3000;0.4599;1.0061;
1074.6000;0.4599;0.9936;
1074.9000;0.4607;0.9936;
1075.2000;0.4591;1.0011;
1075.5000;0.4599;1.0086;
1075.8000;0.4615;1.0111;
1076.1000;0.4607;1.0036;
1076.4000;0.4681;1.0260;
1076.7000;0.4558;0.9787;
1077.0000;0.4632;1.0036;
1077.3000;0.4599;0.9936;
1077.6000;0.4575;0.9862;
1077.9000;0.4607;0.9911;
1078.2000;0.4599;0.9961;
1078.5000;0.4583;0.9986;
1078.8000;0.4591;0.9936;
1079.1000;0.4567;0.9886;
1079.4000;0.4583;0.9936;
1079.7000;0.4599;1.0011;
1080.0000;0.4583;0.9936;
1080.3000;0.4607;0.9986;
1080.6000;0.4591;1.0011;
1080.9000;0.4583;0.9986;
1081.2000;0.4607;1.0111;
1081.5000;0.4591;1.0061;
1081.8000;0.4591;1.0061;
1082.1000;0.4648;1.0111;
1082.4000;0.4599;1.0036;
1082.7000;0.4583;1.0011;
1083.0000;0.4607;1.0086;
1083.3000;0.4599;1.0160;
1083.6000;0.4583;1.0136;
1083.9000;0.4575;1.0111;
1084.2000;0.4583;1.0061;
1084.5000;0.4615;1.0111;
1084.8000;0.4583;1.0086;
1085.1000;0.4567;0.9961;
1085.4000;0.4599;1.0011;
1085.7000;0.4599;1.0086;
1086.0000;0.4599;1.0136;
1086.3000;0.4599;1.0111;
1086.6000;0.4583;1.0086;
1086.9000;0.4599;1.0160;
1087.2000;0.4615;1.0210;
1087.5000;0.4599;1.0136;
1087.8000;0.4607;1.0086;
1088.1000;0.4599;1.0011;
1088.4000;0.4591;1.0036;
1088.7000;0.4615;1.0036;
1089.0000;0.4599;0.9986;
1089.3000;0.4591;0.9936;
1089.6000;0.4591;0.9961;
1089.9000;0.4615;1.0036;
1090.2000;0.4599;1.0011;
1090.5000;0.4599;1.0036;
1090.8000;0.4664;1.0260;
1091.1000;0.4607;1.0061;
1091.4000;0.4607;1.0011;
1091.7000;0.4591;1.0061;
1092.0000;0.4591;1.0086;
1092.3000;0.4550;0.9986;
1092.6000;0.4607;1.0210;
1092.9000;0.4599;1.0111;
1093.2000;0.4591;1.0086;
1093.5000;0.4599;1.0210;
1093.8000;0.4615;1.0160;
1094.1000;0.4575;1.0111;
1094.4000;0.4591;1.0111;
1094.7000;0.4607;1.0185;
1095.0000;0.4599;1.0185;
1095.3000;0.4542;0.9986;
1095.6000;0.4583;0.9986;
1095.9000;0.4672;1.0111;
1096.2000;0.4542;0.9762;
1096.5000;0.4599;0.9986;
1096.8000;0.4607;1.0036;
1097.1000;0.4477;0.9662;
1097.4000;0.4607;0.9936;
1097.7000;0.4591;0.9961;
1098.0000;0.4591;1.0011;
1098.3000;0.4599;1.0036;
1098.6000;0.4607;1.0036;
1098.9000;0.4599;1.0011;
1099.2000;0.4575;1.0011;
1099.5000;0.4583;1.0061;
1099.8000;0.4599;1.0111;
1100.1000;0.4591;1.0086;
1100.4000;0.4567;1.0061;
1100.7000;0.4591;1.0061;
1101.0000;0.4599;1.0061;
1101.3000;0.4591;1.0086;
1101.6000;0.4664;1.0235;
1101.9000;0.4599;1.0061;
1102.2000;0.4607;1.0011;
1102.5000;0.4534;0.9837;
1102.8000;0.4599;1.0061;
1103.1000;0.4591;1.0086;
1103.4000;0.4591;1.0086;
1103.7000;0.4607;1.0210;
1104.0000;0.4591;1.0235;
1104.3000;0.4624;1.0185;
1104.6000;0.4591;1.0136;
1104.9000;0.4624;1.0260;
1105.2000;0.4607;1.0310;
1105.5000;0.4648;1.0335;
1105.8000;0.4558;1.0160;
1106.1000;0.4599;1.0235;
1106.4000;0.4607;1.0310;
1106.7000;0.4591;1.0210;
1107.0000;0.4591;1.0160;
1107.3000;0.4672;1.0409;
1107.6000;0.4591;1.0185;
1107.9000;0.4599;1.0285;
1108.2000;0.4591;1.0210;
1108.5000;0.4624;1.0285;
1108.8000;0.4599;1.0335;
1109.1000;0.4591;1.0434;
1109.4000;0.4599;1.0434;
1109.7000;0.4575;1.0360;
1110.0000;0.4591;1.0409;
1110.3000;0.4591;1.0285;
1110.6000;0.4583;1.0235;
1110.9000;0.4599;1.0335;
1111.2000;0.4615;1.0360;
1111.5000;0.4599;1.0285;
1111.8000;0.4550;1.0111;
1112.1000;0.4575;1.0285;
1112.4000;0.4607;1.0310;
1112.7000;0.4607;1.0260;
1113.0000;0.4607;1.0260;
1113.3000;0.4591;1.0235;
1113.6000;0.4599;1.0235;
1113.9000;0.4583;1.0235;
1114.2000;0.4615;1.0210;
1114.5000;0.4591;1.0136;
1114.8000;0.4599;1.0136;
1115.1000;0.4607;1.0111;
1115.4000;0.4599;1.0111;
1115.7000;0.4664;1.0210;
1116.0000;0.4567;0.9961;
1116.3000;0.4607;1.0086;
1116.6000;0.4615;1.0111;
1116.9000;0.4624;1.0210;
1117.2000;0.4534;1.0136;
1117.5000;0.4599;1.0285;
1117.8000;0.4607;1.0360;
1118.1000;0.4591;1.0235;
1118.4000;0.4599;1.0310;
1118.7000;0.4607;1.0235;
1119.0000;0.4591;1.0210;
1119.3000;0.4591;1.0210;
1119.6000;0.4591;1.0260;
1119.9000;0.4558;1.0160;
1120.2000;0.4575;1.0310;
1120.5000;0.4583;1.0310;
1120.8000;0.4591;1.0310;
1121.1000;0.4648;1.0559;
1121.4000;0.4583;1.0434;
1121.7000;0.4599;1.0310;
1122.0000;0.4575;1.0185;
1122.3000;0.4583;1.0086;
1122.6000;0.4607;1.0111;
1122.9000;0.4591;1.0136;
1123.2000;0.4615;1.0111;
1123.5000;0.4583;1.0036;
1123.8000;0.4575;1.0086;
1124.1000;0.4591;1.0086;
1124.4000;0.4591;1.0061;
1124.7000;0.4591;0.9961;
1125.0000;0.4583;0.9911;
1125.3000;0.4599;0.9961;
1125.6000;0.4591;0.9936;
1125.9000;0.4583;0.9936;
1126.2000;0.4672;1.0210;
1126.5000;0.4591;1.0061;
1126.8000;0.4591;1.0111;
1127.1000;0.4599;1.0136;
1127.4000;0.4583;1.0061;
1127.7000;0.4648;1.0335;
1128.0000;0.4591;1.0185;
1128.3000;0.4656;1.0285;
1128.6000;0.4599;1.0185;
1128.9000;0.4558;1.0136;
1129.2000;0.4599;1.0260;
1129.5000;0.4632;1.0285;
1129.8000;0.4583;1.0185;
1130.1000;0.4599;1.0185;
1130.4000;0.4534;1.0011;
1130.7000;0.4599;1.0111;
1131.0000;0.4591;1.0086;
1131.3000;0.4591;1.0011;
1131.6000;0.4567;1.0086;
1131.9000;0.4575;1.0086;
1132.2000;0.4607;1.0210;
1132.5000;0.4591;1.0235;
1132.8000;0.4591;1.0235;
1133.1000;0.4615;1.0310;
1133.4000;0.4607;1.0285;
1133.7000;0.4599;1.0260;
1134.0000;0.4607;1.0385;
1134.3000;0.4599;1.0260;
1134.6000;0.4591;1.0185;
1134.9000;0.4550;1.0086;
1135.2000;0.4591;1.0086;
1135.5000;0.4599;1.0136;
1135.8000;0.4607;1.0235;
1136.1000;0.4575;1.0061;
1136.4000;0.4575;1.0061;
1136.7000;0.4599;1.0061;
1137.0000;0.4624;1.0235;
1137.3000;0.4607;1.0185;
1137.6000;0.4607;1.0260;
1137.9000;0.4567;1.0160;
1138.2000;0.4591;1.0185;
1138.5000;0.4599;1.0136;
1138.8000;0.4672;1.0385;
1139.1000;0.4583;1.0086;
1139.4000;0.4583;1.0111;
1139.7000;0.4567;1.0036;
1140.0000;0.4583;1.0111;
1140.3000;0.4672;1.0409;
1140.6000;0.4607;1.0260;
1140.9000;0.4583;1.0160;
1141.2000;0.4567;1.0086;
1141.5000;0.4591;1.0086;
1141.8000;0.4632;1.0136;
1142.1000;0.4607;1.0011;
1142.4000;0.4583;1.0011;
1142.7000;0.4542;0.9886;
1143.0000;0.4583;0.9886;
1143.3000;0.4591;0.9986;
1143.6000;0.4599;0.9961;
1143.9000;0.4607;0.9961;
1144.2000;0.4550;0.9812;
1144.5000;0.4591;0.9837;
1144.8000;0.4607;0.9936;
1145.1000;0.4583;0.9886;
1145.4000;0.4591;1.0036;
1145.7000;0.4599;1.0086;
1146.0000;0.4591;1.0160;
1146.3000;0.4567;1.0160;
1146.6000;0.4591;1.0160;
1146.9000;0.4583;1.0160;
1147.2000;0.4599;1.0160;
1147.5000;0.4591;1.0235;
1147.8000;0.4591;1.0235;
1148.1000;0.4599;1.0185;
1148.4000;0.4607;1.0210;
1148.7000;0.4599;1.0185;
1149.0000;0.4583;1.0111;
1149.3000;0.4599;1.0086;
1149.6000;0.4607;1.0210;
1149.9000;0.4591;1.0235;
1150.2000;0.4624;1.0310;
1150.5000;0.4567;1.0160;
1150.8000;0.4583;1.0160;
1151.1000;0.4583;1.0160;
1151.4000;0.4591;1.0111;
1151.7000;0.4583;1.0160;
1152.0000;0.4583;1.0235;
1152.3000;0.4599;1.0235;
1152.6000;0.4599;1.0210;
1152.9000;0.4599;1.0086;
1153.2000;0.4615;1.0160;
1153.5000;0.4599;1.0136;
1153.8000;0.4575;1.0011;
1154.1000;0.4567;0.9986;
1154.4000;0.4583;0.9986;
1154.7000;0.4591;1.0036;
1155.0000;0.4599;1.0061;
1155.3000;0.4575;1.0061;
1155.6000;0.4591;1.0086;
1155.9000;0.4599;1.0011;
1156.2000;0.4607;0.9961;
1156.5000;0.4583;0.9961;
1156.8000;0.4583;0.9936;
1157.1000;0.4607;1.0086;
1157.4000;0.4599;1.0086;
1157.7000;0.4575;1.0111;
1158.0000;0.4583;1.0136;
1158.3000;0.4607;1.0335;
1158.6000;0.4591;1.0260;
1158.9000;0.4591;1.0260;
1159.2000;0.4591;1.0335;
1159.5000;0.4607;1.0360;
1159.8000;0.4615;1.0385;
1160.1000;0.4599;1.0459;
1160.4000;0.4599;1.0385;
1160.7000;0.4591;1.0285;
1161.0000;0.4599;1.0310;
1161.3000;0.4591;1.0260;
1161.6000;0.4558;1.0210;
1161.9000;0.4583;1.0235;
1162.2000;0.4591;1.0210;
1162.5000;0.4607;1.0160;
1162.8000;0.4591;1.0136;
1163.1000;0.4624;1.0160;
1163.4000;0.4599;1.0111;
1163.7000;0.4664;1.0360;
1164.0000;0.4599;1.0160;
1164.3000;0.4575;1.0111;
1164.6000;0.4591;1.0260;
1164.9000;0.4583;1.0285;
1165.2000;0.4615;1.0434;
1165.5000;0.4575;1.0335;
1165.8000;0.4575;1.0310;
1166.1000;0.4607;1.0360;
1166.4000;0.4607;1.0260;
1166.7000;0.4583;1.0086;
1167.0000;0.4591;1.0136;
1167.3000;0.4558;0.9986;
1167.6000;0.4575;1.0136;
1167.9000;0.4599;1.0185;
1168.2000;0.4591;1.0111;
1168.5000;0.4599;1.0111;
1168.8000;0.4607;1.0235;
1169.1000;0.4575;1.0160;
1169.4000;0.4575;1.0235;
1169.7000;0.4591;1.0285;
1170.0000;0.4607;1.0434;
1170.3000;0.4591;1.0459;
1170.6000;0.4583;1.0360;
1170.9000;0.4583;1.0285;
1171.2000;0.4558;1.0210;
1171.5000;0.4583;1.0235;
1171.8000;0.4518;1.0011;
1172.1000;0.4542;1.0036;
1172.4000;0.4591;1.0136;
1172.7000;0.4591;1.0111;
1173.0000;0.4615;1.0210;
1173.3000;0.4591;1.0061;
1173.6000;0.4567;0.9961;
1173.9000;0.4599;1.0136;
1174.2000;0.4583;1.0210;
1174.5000;0.4583;1.0136;
1174.8000;0.4591;1.0260;
1175.1000;0.4591;1.0285;
1175.4000;0.4575;1.0235;
1175.7000;0.4599;1.0235;
1176.0000;0.4607;1.0235;
1176.3000;0.4591;1.0210;
1176.6000;0.4599;1.0310;
1176.9000;0.4591;1.0285;
1177.2000;0.4607;1.0285;
1177.5000;0.4583;1.0260;
1177.8000;0.4615;1.0335;
1178.1000;0.4599;1.0335;
1178.4000;0.4583;1.0310;
1178.7000;0.4607;1.0434;
1179.0000;0.4632;1.0484;
1179.3000;0.4583;1.0434;
1179.6000;0.4599;1.0434;
1179.9000;0.4591;1.0509;
1180.2000;0.4615;1.0559;
1180.5000;0.4591;1.0434;
1180.8000;0.4583;1.0484;
1181.1000;0.4575;1.0484;
1181.4000;0.4607;1.0584;
1181.7000;0.4591;1.0534;
1182.0000;0.4591;1.0509;
1182.3000;0.4583;1.0434;
1182.6000;0.4591;1.0484;
1182.9000;0.4599;1.0534;
1183.2000;0.4599;1.0559;
1183.5000;0.4550;1.0409;
1183.8000;0.4607;1.0484;
1184.1000;0.4583;1.0509;
1184.4000;0.4575;1.0434;
1184.7000;0.4567;1.0509;
1185.0000;0.4583;1.0634;
1185.3000;0.4599;1.0658;
1185.6000;0.4575;1.0509;
1185.9000;0.4575;1.0509;
1186.2000;0.4575;1.0434;
1186.5000;0.4558;1.0385;
1186.8000;0.4583;1.0434;
1187.1000;0.4591;1.0360;
1187.4000;0.4575;1.0360;
1187.7000;0.4591;1.0360;
1188.0000;0.4542;1.0260;
1188.3000;0.4607;1.0360;
1188.6000;0.4575;1.0285;
1188.9000;0.4607;1.0385;
1189.2000;0.4615;1.0335;
1189.5000;0.4591;1.0409;
1189.8000;0.4583;1.0360;
1190.1000;0.4575;1.0360;
1190.4000;0.4591;1.0335;
1190.7000;0.4534;1.0160;
1191.0000;0.4575;1.0335;
1191.3000;0.4583;1.0385;
1191.6000;0.4534;1.0260;
1191.9000;0.4583;1.0409;
1192.2000;0.4591;1.0534;
1192.5000;0.4526;1.0285;
1192.8000;0.4615;1.0459;
1193.1000;0.4656;1.0634;
1193.4000;0.4640;1.0683;
1193.7000;0.4599;1.0609;
1194.0000;0.4534;1.0409;
1194.3000;0.4607;1.0559;
1194.6000;0.4607;1.0509;
1194.9000;0.4591;1.0484;
1195.2000;0.4607;1.0509;
1195.5000;0.4599;1.0559;
1195.8000;0.4575;1.0484;
1196.1000;0.4656;1.0609;
1196.4000;0.4599;1.0484;
1196.7000;0.4591;1.0484;
1197.0000;0.4591;1.0409;
1197.3000;0.4599;1.0385;
1197.6000;0.4599;1.0335;
1197.9000;0.4599;1.0360;
1198.2000;0.4583;1.0285;
1198.5000;0.4583;1.0285;
1198.8000;0.4583;1.0409;
1199.1000;0.4599;1.0459;
1199.4000;0.4599;1.0409;
1199.7000;0.4575;1.0335;
1200.0000;0.4583;1.0409;
1200.3000;0.4599;1.0534;
1200.6000;0.4583;1.0434;
1200.9000;0.4599;1.0509;
1201.2000;0.4575;1.0484;
1201.5000;0.4607;1.0484;
1201.8000;0.4607;1.0385;
1202.1000;0.4607;1.0434;
1202.4000;0.4591;1.0310;
1202.7000;0.4583;1.0310;
1203.0000;0.4583;1.0260;
1203.3000;0.4599;1.0385;
1203.6000;0.4599;1.0360;
1203.9000;0.4567;1.0210;
1204.2000;0.4591;1.0260;
1204.5000;0.4615;1.0310;
1204.8000;0.4591;1.0310;
1205.1000;0.4591;1.0310;
1205.4000;0.4591;1.0310;
1205.7000;0.4615;1.0285;
1206.0000;0.4607;1.0260;
1206.3000;0.4591;1.0310;
1206.6000;0.4583;1.0310;
1206.9000;0.4599;1.0360;
1207.2000;0.4607;1.0434;
1207.5000;0.4591;1.0385;
1207.8000;0.4583;1.0409;
1208.1000;0.4591;1.0409;
1208.4000;0.4575;1.0385;
1208.7000;0.4591;1.0385;
1209.0000;0.4599;1.0385;
1209.3000;0.4615;1.0509;
1209.6000;0.4591;1.0534;
1209.9000;0.4591;1.0434;
1210.2000;0.4591;1.0484;
1210.5000;0.4583;1.0484;
1210.8000;0.4575;1.0534;
1211.1000;0.4558;1.0459;
1211.4000;0.4583;1.0484;
1211.7000;0.4583;1.0459;
1212.0000;0.4583;1.0409;
1212.3000;0.4583;1.0434;
1212.6000;0.4575;1.0434;
1212.9000;0.4591;1.0484;
1213.2000;0.4575;1.0484;
1213.5000;0.4583;1.0509;
1213.8000;0.4567;1.0484;
1214.1000;0.4550;1.0360;
1214.4000;0.4591;1.0459;
1214.7000;0.4558;1.0335;
1215.0000;0.4583;1.0360;
1215.3000;0.4583;1.0310;
1215.6000;0.4591;1.0385;
1215.9000;0.4567;1.0310;
1216.2000;0.4615;1.0385;
1216.5000;0.4558;1.0260;
1216.8000;0.4583;1.0335;
1217.1000;0.4599;1.0385;
1217.4000;0.4591;1.0260;
1217.7000;0.4591;1.0310;
1218.0000;0.4591;1.0335;
1218.3000;0.4591;1.0285;
1218.6000;0.4526;1.0111;
1218.9000;0.4591;1.0285;
1219.2000;0.4567;1.0185;
1219.5000;0.4591;1.0310;
1219.8000;0.4599;1.0285;
1220.1000;0.4591;1.0235;
1220.4000;0.4583;1.0160;
1220.7000;0.4558;1.0111;
1221.0000;0.4648;1.0360;
1221.3000;0.4599;1.0335;
1221.6000;0.4591;1.0310;
1221.9000;0.4534;1.0235;
1222.2000;0.4567;1.0360;
1222.5000;0.4591;1.0385;
1222.8000;0.4591;1.0385;
1223.1000;0.4583;1.0310;
1223.4000;0.4599;1.0434;
1223.7000;0.4607;1.0484;
1224.0000;0.4607;1.0459;
1224.3000;0.4583;1.0434;
1224.6000;0.4575;1.0360;
1224.9000;0.4599;1.0459;
1225.2000;0.4607;1.0385;
1225.5000;0.4575;1.0185;
1225.8000;0.4640;1.0285;
1226.1000;0.4591;1.0160;
1226.4000;0.4591;1.0235;
1226.7000;0.4615;1.0385;
1227.0000;0.4583;1.0434;
1227.3000;0.4599;1.0434;
1227.6000;0.4607;1.0459;
1227.9000;0.4567;1.0310;
1228.2000;0.4583;1.0434;
1228.5000;0.4591;1.0335;
1228.8000;0.4591;1.0335;
1229.1000;0.4583;1.0385;
1229.4000;0.4583;1.0285;
1229.7000;0.4567;1.0235;
1230.0000;0.4591;1.0360;
1230.3000;0.4591;1.0335;
1230.6000;0.4583;1.0285;
1230.9000;0.4558;1.0136;
1231.2000;0.4567;1.0185;
1231.5000;0.4575;1.0260;
1231.8000;0.4591;1.0260;
1232.1000;0.4599;1.0285;
1232.4000;0.4591;1.0310;
1232.7000;0.4575;1.0285;
1233.0000;0.4615;1.0434;
1233.3000;0.4583;1.0409;
1233.6000;0.4583;1.0459;
1233.9000;0.4591;1.0509;
1234.2000;0.4591;1.0484;
1234.5000;0.4575;1.0409;
1234.8000;0.4591;1.0385;
1235.1000;0.4591;1.0409;
1235.4000;0.4624;1.0459;
1235.7000;0.4599;1.0385;
1236.0000;0.4648;1.0509;
1236.3000;0.4591;1.0310;
1236.6000;0.4583;1.0335;
1236.9000;0.4575;1.0360;
1237.2000;0.4542;1.0385;
1237.5000;0.4607;1.0509;
1237.8000;0.4583;1.0385;
1238.1000;0.4583;1.0385;
1238.4000;0.4640;1.0434;
1238.7000;0.4615;1.0360;
1239.0000;0.4607;1.0310;
1239.3000;0.4607;1.0434;
1239.6000;0.4583;1.0335;
1239.9000;0.4550;1.0260;
1240.2000;0.4599;1.0385;
1240.5000;0.4615;1.0409;
1240.8000;0.4550;1.0335;
1241.1000;0.4542;1.0185;
1241.4000;0.4575;1.0285;
1241.7000;0.4575;1.0285;
1242.0000;0.4518;1.0136;
1242.3000;0.4591;1.0210;
1242.6000;0.4599;1.0235;
1242.9000;0.4607;1.0285;
1243.2000;0.4640;1.0434;
1243.5000;0.4599;1.0360;
1243.8000;0.4607;1.0385;
1244.1000;0.4591;1.0285;
1244.4000;0.4599;1.0335;
1244.7000;0.4575;1.0210;
1245.0000;0.4583;1.0409;
1245.3000;0.4583;1.0360;
1245.6000;0.4575;1.0310;
1245.9000;0.4591;1.0360;
1246.2000;0.4575;1.0409;
1246.5000;0.4575;1.0434;
1246.8000;0.4583;1.0434;
1247.1000;0.4599;1.0484;
1247.4000;0.4607;1.0509;
1247.7000;0.4607;1.0534;
1248.0000;0.4583;1.0484;
1248.3000;0.4558;1.0459;
1248.6000;0.4591;1.0459;
1248.9000;0.4599;1.0335;
1249.2000;0.4591;1.0210;
1249.5000;0.4648;1.0434;
1249.8000;0.4599;1.0310;
1250.1000;0.4583;1.0260;
1250.4000;0.4664;1.0484;
1250.7000;0.4591;1.0335;
1251.0000;0.4583;1.0260;
1251.3000;0.4615;1.0210;
1251.6000;0.4599;1.0210;
1251.9000;0.4599;1.0260;
1252.2000;0.4583;1.0210;
1252.5000;0.4591;1.0260;
1252.8000;0.4599;1.0409;
1253.1000;0.4607;1.0484;
1253.4000;0.4599;1.0434;
1253.7000;0.4624;1.0409;
1254.0000;0.4583;1.0285;
1254.3000;0.4583;1.0335;
1254.6000;0.4583;1.0434;
1254.9000;0.4624;1.0584;
1255.2000;0.4607;1.0609;
1255.5000;0.4599;1.0534;
1255.8000;0.4583;1.0385;
1256.1000;0.4599;1.0409;
1256.4000;0.4607;1.0484;
1256.7000;0.4575;1.0459;
1257.0000;0.4583;1.0434;
1257.3000;0.4526;1.0235;
1257.6000;0.4599;1.0459;
1257.9000;0.4599;1.0409;
1258.2000;0.4558;1.0310;
1258.5000;0.4567;1.0235;
1258.8000;0.4591;1.0335;
1259.1000;0.4615;1.0459;
1259.4000;0.4599;1.0534;
1259.7000;0.4599;1.0459;
1260.0000;0.4550;1.0285;
1260.3000;0.4607;1.0360;
1260.6000;0.4599;1.0185;
1260.9000;0.4607;1.0235;
1261.2000;0.4615;1.0260;
1261.5000;0.4615;1.0235;
1261.8000;0.4599;1.0185;
1262.1000;0.4583;1.0185;
1262.4000;0.4526;1.0011;
1262.7000;0.4591;1.0210;
1263.0000;0.4599;1.0285;
1263.3000;0.4591;1.0285;
1263.6000;0.4615;1.0285;
1263.9000;0.4583;1.0235;
1264.2000;0.4607;1.0260;
1264.5000;0.4607;1.0285;
1264.8000;0.4599;1.0310;
1265.1000;0.4591;1.0360;
1265.4000;0.4599;1.0360;
1265.7000;0.4615;1.0409;
1266.0000;0.4591;1.0285;
1266.3000;0.4591;1.0285;
1266.6000;0.4599;1.0285;
1266.9000;0.4583;1.0235;
1267.2000;0.4583;1.0335;
1267.5000;0.4485;1.0061;
1267.8000;0.4591;1.0310;
1268.1000;0.4591;1.0285;
1268.4000;0.4583;1.0310;
1268.7000;0.4583;1.0260;
1269.0000;0.4583;1.0235;
1269.3000;0.4591;1.0210;
1269.6000;0.4583;1.0235;
1269.9000;0.4583;1.0235;
1270.2000;0.4599;1.0235;
1270.5000;0.4558;1.0210;
1270.8000;0.4583;1.0285;
1271.1000;0.4575;1.0210;
1271.4000;0.4607;1.0260;
1271.7000;0.4591;1.0160;
1272.0000;0.4615;1.0185;
1272.3000;0.4599;1.0160;
1272.6000;0.4575;1.0111;
1272.9000;0.4591;1.0185;
1273.2000;0.4615;1.0210;
1273.5000;0.4615;1.0210;
1273.8000;0.4615;1.0235;
1274.1000;0.4575;1.0136;
1274.4000;0.4591;1.0160;
1274.7000;0.4591;1.0111;
1275.0000;0.4591;1.0111;
1275.3000;0.4607;1.0160;
1275.6000;0.4656;1.0310;
1275.9000;0.4607;1.0111;
1276.2000;0.4583;1.0011;
1276.5000;0.4591;1.0160;
1276.8000;0.4607;1.0285;
1277.1000;0.4599;1.0235;
1277.4000;0.4583;1.0136;
1277.7000;0.4591;1.0086;
1278.0000;0.4591;1.0086;
1278.3000;0.4632;1.0160;
1278.6000;0.4591;1.0061;
1278.9000;0.4542;1.0011;
1279.2000;0.4583;1.0061;
1279.5000;0.4575;1.0086;
1279.8000;0.4567;1.0111;
1280.1000;0.4583;1.0086;
1280.4000;0.4591;1.0210;
1280.7000;0.4583;1.0136;
1281.0000;0.4624;1.0235;
1281.3000;0.4583;1.0111;
1281.6000;0.4607;1.0136;
1281.9000;0.4591;1.0086;
1282.2000;0.4664;1.0285;
1282.5000;0.4591;1.0111;
1282.8000;0.4591;1.0086;
1283.1000;0.4681;1.0459;
1283.4000;0.4575;1.0210;
1283.7000;0.4607;1.0160;
1284.0000;0.4510;1.0011;
1284.3000;0.4583;1.0111;
1284.6000;0.4583;1.0086;
1284.9000;0.4583;1.0136;
1285.2000;0.4501;0.9936;
1285.5000;0.4583;1.0185;
1285.8000;0.4591;1.0210;
1286.1000;0.4575;1.0210;
1286.4000;0.4591;1.0185;
1286.7000;0.4599;1.0185;
1287.0000;0.4664;1.0434;
1287.3000;0.4591;1.0285;
1287.6000;0.4583;1.0210;
1287.9000;0.4591;1.0185;
1288.2000;0.4591;1.0136;
1288.5000;0.4583;1.0136;
1288.8000;0.4583;1.0136;
1289.1000;0.4591;1.0185;
1289.4000;0.4599;1.0285;
1289.7000;0.4591;1.0235;
1290.0000;0.4591;1.0235;
1290.3000;0.4599;1.0285;
1290.6000;0.4599;1.0260;
1290.9000;0.4583;1.0210;
1291.2000;0.4599;1.0185;
1291.5000;0.4591;1.0285;
1291.8000;0.4599;1.0360;
1292.1000;0.4591;1.0409;
1292.4000;0.4567;1.0235;
1292.7000;0.4583;1.0235;
1293.0000;0.4575;1.0260;
1293.3000;0.4583;1.0160;
1293.6000;0.4599;1.0111;
1293.9000;0.4575;1.0061;
1294.2000;0.4599;1.0136;
1294.5000;0.4607;1.0111;
1294.8000;0.4583;1.0011;
1295.1000;0.4672;1.0185;
1295.4000;0.4583;1.0011;
1295.7000;0.4599;1.0111;
1296.0000;0.4591;1.0111;
1296.3000;0.4575;1.0036;
1296.6000;0.4575;0.9961;
1296.9000;0.4591;1.0036;
1297.2000;0.4591;1.0011;
1297.5000;0.4607;1.0160;
1297.8000;0.4591;1.0136;
1298.1000;0.4583;1.0111;
1298.4000;0.4583;1.0160;
1298.7000;0.4599;1.0210;
1299.0000;0.4583;1.0111;
1299.3000;0.4591;1.0111;
1299.6000;0.4599;1.0210;
1299.9000;0.4583;1.0185;
1300.2000;0.4583;1.0185;
1300.5000;0.4607;1.0136;
1300.8000;0.4583;0.9986;
1301.1000;0.4591;1.0011;
1301.4000;0.4599;1.0061;
1301.7000;0.4567;1.0061;
1302.0000;0.4567;1.0086;
1302.3000;0.4599;1.0036;
1302.6000;0.4583;0.9911;
1302.9000;0.4583;0.9862;
1303.2000;0.4591;0.9787;
1303.5000;0.4599;0.9762;
1303.8000;0.4583;0.9762;
1304.1000;0.4583;0.9837;
1304.4000;0.4615;0.9911;
1304.7000;0.4583;0.9911;
1305.0000;0.4542;0.9911;
1305.3000;0.4624;1.0111;
1305.6000;0.4591;1.0036;
1305.9000;0.4575;0.9986;
1306.2000;0.4624;1.0160;
1306.5000;0.4591;0.9986;
1306.8000;0.4575;0.9886;
1307.1000;0.4607;1.0011;
1307.4000;0.4558;0.9911;
1307.7000;0.4591;0.9936;
1308.0000;0.4591;0.9936;
1308.3000;0.4558;0.9886;
1308.6000;0.4583;0.9886;
1308.9000;0.4591;0.9936;
1309.2000;0.4575;0.9936;
1309.5000;0.4575;1.0011;
1309.8000;0.4591;1.0111;
1310.1000;0.4558;1.0111;
1310.4000;0.4599;1.0086;
1310.7000;0.4575;0.9961;
1311.0000;0.4615;1.0036;
1311.3000;0.4591;1.0086;
1311.6000;0.4599;1.0111;
1311.9000;0.4607;1.0111;
1312.2000;0.4607;1.0185;
1312.5000;0.4607;1.0136;
1312.8000;0.4591;1.0111;
1313.1000;0.4599;1.0061;
1313.4000;0.4575;1.0011;
1313.7000;0.4591;1.0086;
1314.0000;0.4583;1.0086;
1314.3000;0.4567;1.0136;
1314.6000;0.4575;1.0111;
1314.9000;0.4591;1.0185;
1315.2000;0.4607;1.0160;
1315.5000;0.4591;1.0061;
1315.8000;0.4591;1.0061;
1316.1000;0.4558;0.9936;
1316.4000;0.4575;1.0011;
1316.7000;0.4672;1.0210;
1317.0000;0.4575;0.9961;
1317.3000;0.4583;0.9961;
1317.6000;0.4607;0.9986;
1317.9000;0.4591;0.9936;
1318.2000;0.4583;0.9986;
1318.5000;0.4583;1.0011;
1318.8000;0.4575;1.0011;
1319.1000;0.4607;1.0011;
1319.4000;0.4583;0.9986;
1319.7000;0.4583;1.0011;
1320.0000;0.4591;0.9936;
1320.3000;0.4607;0.9986;
1320.6000;0.4607;0.9986;
1320.9000;0.4591;0.9911;
1321.2000;0.4591;0.9936;
1321.5000;0.4599;1.0036;
1321.8000;0.4599;0.9986;
1322.1000;0.4575;0.9936;
1322.4000;0.4583;0.9812;
1322.7000;0.4501;0.9538;
1323.0000;0.4591;0.9837;
1323.3000;0.4550;0.9687;
1323.6000;0.4591;0.9737;
1323.9000;0.4591;0.9762;
1324.2000;0.4599;0.9762;
1324.5000;0.4575;0.9787;
1324.8000;0.4591;0.9936;
1325.1000;0.4599;1.0011;
1325.4000;0.4591;0.9986;
1325.7000;0.4583;0.9936;
1326.0000;0.4607;0.9911;
1326.3000;0.4558;0.9812;
1326.6000;0.4567;0.9812;
1326.9000;0.4558;0.9787;
1327.2000;0.4575;0.9886;
1327.5000;0.4615;1.0111;
1327.8000;0.4583;0.9961;
1328.1000;0.4575;0.9936;
1328.4000;0.4575;0.9911;
1328.7000;0.4583;0.9911;
1329.0000;0.4510;0.9687;
1329.3000;0.4591;0.9862;
1329.6000;0.4550;0.9737;
1329.9000;0.4558;0.9837;
1330.2000;0.4599;0.9961;
1330.5000;0.4624;1.0061;
1330.8000;0.4615;0.9961;
1331.1000;0.4583;0.9812;
1331.4000;0.4567;0.9787;
1331.7000;0.4591;0.9862;
1332.0000;0.4591;0.9886;
1332.3000;0.4583;0.9812;
1332.6000;0.4599;0.9787;
1332.9000;0.4583;0.9812;
1333.2000;0.4583;0.9812;
1333.5000;0.4575;0.9712;
1333.8000;0.4615;0.9762;
1334.1000;0.4583;0.9712;
1334.4000;0.4599;0.9787;
1334.7000;0.4583;0.9787;
1335.0000;0.4575;0.9812;
1335.3000;0.4599;0.9787;
1335.6000;0.4583;0.9762;
1335.9000;0.4567;0.9787;
1336.2000;0.4599;0.9911;
1336.5000;0.4583;0.9862;
1336.8000;0.4599;0.9961;
1337.1000;0.4575;1.0086;
1337.4000;0.4567;1.0086;
1337.7000;0.4583;1.0136;
1338.0000;0.4591;1.0111;
1338.3000;0.4575;1.0086;
1338.6000;0.4599;1.0160;
1338.9000;0.4583;1.0111;
1339.2000;0.4624;1.0086;
1339.5000;0.4575;0.9961;
1339.8000;0.4591;1.0011;
1340.1000;0.4567;0.9986;
1340.4000;0.4575;0.9986;
1340.7000;0.4624;1.0086;
1341.0000;0.4583;0.9986;
1341.3000;0.4583;1.0036;
1341.6000;0.4583;1.0011;
1341.9000;0.4607;1.0011;
1342.2000;0.4591;0.9911;
1342.5000;0.4583;0.9862;
1342.8000;0.4615;1.0011;
1343.1000;0.4615;1.0011;
1343.4000;0.4599;1.0011;
1343.7000;0.4583;1.0036;
1344.0000;0.4575;1.0061;
1344.3000;0.4591;1.0210;
1344.6000;0.4591;1.0260;
1344.9000;0.4640;1.0409;
1345.2000;0.4583;1.0285;
1345.5000;0.4558;1.0235;
1345.8000;0.4550;1.0136;
1346.1000;0.4575;1.0210;
1346.4000;0.4591;1.0335;
1346.7000;0.4583;1.0459;
1347.0000;0.4607;1.0534;
1347.3000;0.4599;1.0484;
1347.6000;0.4591;1.0484;
1347.9000;0.4599;1.0584;
1348.2000;0.4615;1.0534;
1348.5000;0.4583;1.0360;
1348.8000;0.4575;1.0409;
1349.1000;0.4591;1.0434;
1349.4000;0.4591;1.0434;
1349.7000;0.4583;1.0509;
1350.0000;0.4591;1.0559;
1350.3000;0.4583;1.0509;
1350.6000;0.4591;1.0534;
1350.9000;0.4599;1.0484;
1351.2000;0.4599;1.0509;
1351.5000;0.4599;1.0459;
1351.8000;0.4591;1.0409;
1352.1000;0.4591;1.0484;
1352.4000;0.4567;1.0335;
1352.7000;0.4583;1.0385;
1353.0000;0.4567;1.0310;
1353.3000;0.4575;1.0260;
1353.6000;0.4599;1.0385;
1353.9000;0.4599;1.0310;
1354.2000;0.4583;1.0235;
1354.5000;0.4591;1.0210;
1354.8000;0.4558;1.0036;
1355.1000;0.4615;1.0260;
1355.4000;0.4591;1.0210;
1355.7000;0.4607;1.0260;
1356.0000;0.4558;1.0111;
1356.3000;0.4607;1.0185;
1356.6000;0.4599;1.0185;
1356.9000;0.4575;1.0111;
1357.2000;0.4575;1.0086;
1357.5000;0.4632;1.0235;
1357.8000;0.4599;1.0086;
1358.1000;0.4591;1.0061;
1358.4000;0.4640;1.0210;
1358.7000;0.4599;0.9986;
1359.0000;0.4599;0.9911;
1359.3000;0.4583;0.9961;
1359.6000;0.4591;1.0086;
1359.9000;0.4558;1.0111;
1360.2000;0.4591;1.0235;
1360.5000;0.4591;1.0235;
1360.8000;0.4599;1.0285;
1361.1000;0.4591;1.0260;
1361.4000;0.4583;1.0235;
1361.7000;0.4583;1.0210;
1362.0000;0.4599;1.0260;
1362.3000;0.4599;1.0210;
1362.6000;0.4599;1.0185;
1362.9000;0.4575;1.0160;
1363.2000;0.4591;1.0185;
1363.5000;0.4583;1.0235;
1363.8000;0.4575;1.0260;
1364.1000;0.4583;1.0385;
1364.4000;0.4567;1.0285;
1364.7000;0.4518;1.0235;
1365.0000;0.4583;1.0409;
1365.3000;0.4599;1.0385;
1365.6000;0.4599;1.0409;
1365.9000;0.4624;1.0409;
1366.2000;0.4599;1.0360;
1366.5000;0.4591;1.0310;
1366.8000;0.4599;1.0310;
1367.1000;0.4567;1.0260;
1367.4000;0.4599;1.0285;
1367.7000;0.4583;1.0260;
1368.0000;0.4583;1.0185;
1368.3000;0.4567;1.0136;
1368.6000;0.4591;1.0235;
1368.9000;0.4599;1.0260;
1369.2000;0.4599;1.0210;
1369.5000;0.4575;1.0061;
1369.8000;0.4575;1.0086;
1370.1000;0.4599;1.0136;
1370.4000;0.4591;1.0185;
1370.7000;0.4591;1.0210;
1371.0000;0.4599;1.0235;
1371.3000;0.4583;1.0210;
1371.6000;0.4526;1.0136;
1371.9000;0.4542;1.0235;
1372.2000;0.4583;1.0310;
1372.5000;0.4583;1.0210;
1372.8000;0.4558;1.0136;
1373.1000;0.4583;1.0185;
1373.4000;0.4501;1.0036;
1373.7000;0.4575;1.0210;
1374.0000;0.4567;1.0111;
1374.3000;0.4624;1.0335;
1374.6000;0.4583;1.0260;
1374.9000;0.4583;1.0285;
1375.2000;0.4591;1.0335;
1375.5000;0.4575;1.0409;
1375.8000;0.4632;1.0584;
1376.1000;0.4591;1.0484;
1376.4000;0.4664;1.0634;
1376.7000;0.4583;1.0484;
1377.0000;0.4591;1.0534;
1377.3000;0.4550;1.0409;
1377.6000;0.4558;1.0385;
1377.9000;0.4591;1.0509;
1378.2000;0.4607;1.0634;
1378.5000;0.4591;1.0534;
1378.8000;0.4583;1.0584;
1379.1000;0.4575;1.0559;
1379.4000;0.4607;1.0609;
1379.7000;0.4599;1.0559;
1380.0000;0.4591;1.0534;
1380.3000;0.4583;1.0484;
1380.6000;0.4583;1.0484;
1380.9000;0.4583;1.0409;
1381.2000;0.4607;1.0459;
1381.5000;0.4558;1.0385;
1381.8000;0.4591;1.0484;
1382.1000;0.4558;1.0335;
1382.4000;0.4575;1.0360;
1382.7000;0.4567;1.0310;
1383.0000;0.4624;1.0385;
1383.3000;0.4567;1.0310;
1383.6000;0.4624;1.0459;
1383.9000;0.4591;1.0310;
1384.2000;0.4591;1.0310;
1384.5000;0.4558;1.0360;
1384.8000;0.4575;1.0385;
1385.1000;0.4591;1.0385;
1385.4000;0.4607;1.0459;
1385.7000;0.4591;1.0409;
1386.0000;0.4575;1.0409;
1386.3000;0.4567;1.0484;
1386.6000;0.4583;1.0484;
1386.9000;0.4575;1.0509;
1387.2000;0.4591;1.0559;
1387.5000;0.4558;1.0459;
1387.8000;0.4599;1.0484;
1388.1000;0.4615;1.0509;
1388.4000;0.4632;1.0534;
1388.7000;0.4591;1.0434;
1389.0000;0.4599;1.0385;
1389.3000;0.4583;1.0310;
1389.6000;0.4591;1.0310;
1389.9000;0.4591;1.0310;
1390.2000;0.4583;1.0235;
1390.5000;0.4607;1.0310;
1390.8000;0.4599;1.0310;
1391.1000;0.4599;1.0310;
1391.4000;0.4640;1.0434;
1391.7000;0.4583;1.0360;
1392.0000;0.4591;1.0409;
1392.3000;0.4591;1.0409;
1392.6000;0.4591;1.0434;
1392.9000;0.4591;1.0409;
1393.2000;0.4632;1.0484;
1393.5000;0.4599;1.0335;
1393.8000;0.4591;1.0360;
1394.1000;0.4599;1.0360;
1394.4000;0.4599;1.0409;
1394.7000;0.4591;1.0409;
1395.0000;0.4591;1.0434;
1395.3000;0.4583;1.0459;
1395.6000;0.4599;1.0509;
1395.9000;0.4591;1.0409;
1396.2000;0.4591;1.0409;
1396.5000;0.4599;1.0484;
1396.8000;0.4599;1.0434;
1397.1000;0.4591;1.0385;
1397.4000;0.4567;1.0335;
1397.7000;0.4542;1.0210;
1398.0000;0.4583;1.0409;
1398.3000;0.4583;1.0385;
1398.6000;0.4599;1.0360;
1398.9000;0.4583;1.0360;
1399.2000;0.4583;1.0409;
1399.5000;0.4607;1.0385;
1399.8000;0.4672;1.0584;
