time/ms;Fluo/V;P700 deltaI/I x10³;
-199.8000;0.6260;1.2551;
-199.5000;0.6252;1.2526;
-199.2000;0.6268;1.2551;
-198.9000;0.6260;1.2501;
-198.6000;0.6252;1.2451;
-198.3000;0.6235;1.2476;
-198.0000;0.6252;1.2551;
-197.7000;0.6260;1.2576;
-197.4000;0.6284;1.2626;
-197.1000;0.6252;1.2576;
-196.8000;0.6276;1.2601;
-196.5000;0.6276;1.2601;
-196.2000;0.6260;1.2651;
-195.9000;0.6260;1.2601;
-195.6000;0.6260;1.2626;
-195.3000;0.6260;1.2676;
-195.0000;0.6243;1.2576;
-194.7000;0.6260;1.2576;
-194.4000;0.6243;1.2601;
-194.1000;0.6268;1.2626;
-193.8000;0.6284;1.2676;
-193.5000;0.6268;1.2601;
-193.2000;0.6227;1.2501;
-192.9000;0.6260;1.2676;
-192.6000;0.6252;1.2676;
-192.3000;0.6260;1.2725;
-192.0000;0.6252;1.2576;
-191.7000;0.6252;1.2576;
-191.4000;0.6260;1.2526;
-191.1000;0.6252;1.2476;
-190.8000;0.6243;1.2451;
-190.5000;0.6227;1.2402;
-190.2000;0.6252;1.2377;
-189.9000;0.6252;1.2327;
-189.6000;0.6252;1.2352;
-189.3000;0.6292;1.2451;
-189.0000;0.6235;1.2277;
-188.7000;0.6268;1.2402;
-188.4000;0.6252;1.2427;
-188.1000;0.6252;1.2476;
-187.8000;0.6260;1.2576;
-187.5000;0.6260;1.2601;
-187.2000;0.6260;1.2576;
-186.9000;0.6260;1.2551;
-186.6000;0.6276;1.2651;
-186.3000;0.6260;1.2551;
-186.0000;0.6260;1.2526;
-185.7000;0.6252;1.2501;
-185.4000;0.6252;1.2651;
-185.1000;0.6252;1.2676;
-184.8000;0.6243;1.2576;
-184.5000;0.6252;1.2476;
-184.2000;0.6252;1.2501;
-183.9000;0.6268;1.2626;
-183.6000;0.6252;1.2576;
-183.3000;0.6243;1.2526;
-183.0000;0.6252;1.2526;
-182.7000;0.6268;1.2551;
-182.4000;0.6260;1.2476;
-182.1000;0.6300;1.2725;
-181.8000;0.6252;1.2626;
-181.5000;0.6260;1.2626;
-181.2000;0.6357;1.2925;
-180.9000;0.6235;1.2651;
-180.6000;0.6252;1.2676;
-180.3000;0.6243;1.2601;
-180.0000;0.6260;1.2551;
-179.7000;0.6284;1.2576;
-179.4000;0.6252;1.2451;
-179.1000;0.6252;1.2526;
-178.8000;0.6268;1.2576;
-178.5000;0.6252;1.2551;
-178.2000;0.6260;1.2576;
-177.9000;0.6252;1.2526;
-177.6000;0.6268;1.2551;
-177.3000;0.6276;1.2651;
-177.0000;0.6260;1.2651;
-176.7000;0.6243;1.2526;
-176.4000;0.6260;1.2501;
-176.1000;0.6252;1.2526;
-175.8000;0.6268;1.2551;
-175.5000;0.6243;1.2501;
-175.2000;0.6243;1.2526;
-174.9000;0.6260;1.2576;
-174.6000;0.6235;1.2526;
-174.3000;0.6227;1.2501;
-174.0000;0.6276;1.2576;
-173.7000;0.6252;1.2526;
-173.4000;0.6227;1.2427;
-173.1000;0.6243;1.2451;
-172.8000;0.6211;1.2451;
-172.5000;0.6252;1.2576;
-172.2000;0.6268;1.2626;
-171.9000;0.6252;1.2551;
-171.6000;0.6260;1.2601;
-171.3000;0.6252;1.2551;
-171.0000;0.6235;1.2501;
-170.7000;0.6252;1.2451;
-170.4000;0.6243;1.2476;
-170.1000;0.6260;1.2501;
-169.8000;0.6260;1.2476;
-169.5000;0.6243;1.2501;
-169.2000;0.6243;1.2501;
-168.9000;0.6268;1.2501;
-168.6000;0.6276;1.2451;
-168.3000;0.6260;1.2476;
-168.0000;0.6260;1.2551;
-167.7000;0.6268;1.2526;
-167.4000;0.6252;1.2501;
-167.1000;0.6260;1.2526;
-166.8000;0.6243;1.2476;
-166.5000;0.6268;1.2476;
-166.2000;0.6252;1.2501;
-165.9000;0.6276;1.2501;
-165.6000;0.6260;1.2377;
-165.3000;0.6227;1.2202;
-165.0000;0.6211;1.2202;
-164.7000;0.6235;1.2252;
-164.4000;0.6243;1.2302;
-164.1000;0.6284;1.2327;
-163.8000;0.6227;1.2302;
-163.5000;0.6252;1.2427;
-163.2000;0.6276;1.2501;
-162.9000;0.6260;1.2551;
-162.6000;0.6195;1.2402;
-162.3000;0.6268;1.2576;
-162.0000;0.6260;1.2501;
-161.7000;0.6252;1.2501;
-161.4000;0.6243;1.2476;
-161.1000;0.6284;1.2651;
-160.8000;0.6243;1.2526;
-160.5000;0.6243;1.2451;
-160.2000;0.6243;1.2402;
-159.9000;0.6195;1.2252;
-159.6000;0.6260;1.2451;
-159.3000;0.6309;1.2501;
-159.0000;0.6252;1.2476;
-158.7000;0.6268;1.2526;
-158.4000;0.6268;1.2501;
-158.1000;0.6268;1.2476;
-157.8000;0.6260;1.2451;
-157.5000;0.6276;1.2576;
-157.2000;0.6260;1.2576;
-156.9000;0.6276;1.2601;
-156.6000;0.6260;1.2601;
-156.3000;0.6243;1.2601;
-156.0000;0.6276;1.2626;
-155.7000;0.6325;1.2775;
-155.4000;0.6235;1.2601;
-155.1000;0.6260;1.2576;
-154.8000;0.6235;1.2551;
-154.5000;0.6260;1.2626;
-154.2000;0.6235;1.2576;
-153.9000;0.6268;1.2701;
-153.6000;0.6252;1.2725;
-153.3000;0.6260;1.2701;
-153.0000;0.6195;1.2651;
-152.7000;0.6186;1.2576;
-152.4000;0.6252;1.2701;
-152.1000;0.6252;1.2701;
-151.8000;0.6252;1.2750;
-151.5000;0.6243;1.2701;
-151.2000;0.6260;1.2701;
-150.9000;0.6260;1.2676;
-150.6000;0.6260;1.2651;
-150.3000;0.6252;1.2626;
-150.0000;0.6260;1.2651;
-149.7000;0.6276;1.2576;
-149.4000;0.6252;1.2402;
-149.1000;0.6235;1.2352;
-148.8000;0.6227;1.2352;
-148.5000;0.6260;1.2327;
-148.2000;0.6300;1.2451;
-147.9000;0.6227;1.2327;
-147.6000;0.6268;1.2352;
-147.3000;0.6227;1.2277;
-147.0000;0.6284;1.2302;
-146.7000;0.6243;1.2227;
-146.4000;0.6243;1.2277;
-146.1000;0.6235;1.2277;
-145.8000;0.6333;1.2501;
-145.5000;0.6260;1.2402;
-145.2000;0.6252;1.2377;
-144.9000;0.6260;1.2327;
-144.6000;0.6252;1.2277;
-144.3000;0.6219;1.2153;
-144.0000;0.6235;1.2327;
-143.7000;0.6243;1.2327;
-143.4000;0.6243;1.2352;
-143.1000;0.6227;1.2352;
-142.8000;0.6252;1.2451;
-142.5000;0.6211;1.2377;
-142.2000;0.6260;1.2501;
-141.9000;0.6260;1.2501;
-141.6000;0.6252;1.2476;
-141.3000;0.6252;1.2501;
-141.0000;0.6268;1.2526;
-140.7000;0.6317;1.2551;
-140.4000;0.6276;1.2451;
-140.1000;0.6252;1.2427;
-139.8000;0.6243;1.2451;
-139.5000;0.6260;1.2551;
-139.2000;0.6292;1.2725;
-138.9000;0.6243;1.2576;
-138.6000;0.6284;1.2725;
-138.3000;0.6252;1.2651;
-138.0000;0.6227;1.2576;
-137.7000;0.6252;1.2501;
-137.4000;0.6252;1.2626;
-137.1000;0.6276;1.2626;
-136.8000;0.6268;1.2551;
-136.5000;0.6243;1.2476;
-136.2000;0.6252;1.2451;
-135.9000;0.6252;1.2501;
-135.6000;0.6252;1.2526;
-135.3000;0.6235;1.2451;
-135.0000;0.6252;1.2626;
-134.7000;0.6252;1.2651;
-134.4000;0.6243;1.2651;
-134.1000;0.6260;1.2601;
-133.8000;0.6276;1.2626;
-133.5000;0.6276;1.2551;
-133.2000;0.6276;1.2576;
-132.9000;0.6284;1.2476;
-132.6000;0.6203;1.2352;
-132.3000;0.6333;1.2701;
-132.0000;0.6284;1.2501;
-131.7000;0.6243;1.2427;
-131.4000;0.6252;1.2501;
-131.1000;0.6243;1.2501;
-130.8000;0.6243;1.2551;
-130.5000;0.6243;1.2526;
-130.2000;0.6268;1.2476;
-129.9000;0.6203;1.2327;
-129.6000;0.6357;1.2601;
-129.3000;0.6292;1.2377;
-129.0000;0.6276;1.2352;
-128.7000;0.6284;1.2352;
-128.4000;0.6276;1.2277;
-128.1000;0.6170;1.2103;
-127.8000;0.6276;1.2352;
-127.5000;0.6227;1.2352;
-127.2000;0.6260;1.2501;
-126.9000;0.6268;1.2476;
-126.6000;0.6268;1.2501;
-126.3000;0.6227;1.2377;
-126.0000;0.6317;1.2551;
-125.7000;0.6243;1.2476;
-125.4000;0.6243;1.2476;
-125.1000;0.6260;1.2501;
-124.8000;0.6300;1.2626;
-124.5000;0.6235;1.2551;
-124.2000;0.6268;1.2551;
-123.9000;0.6252;1.2576;
-123.6000;0.6243;1.2576;
-123.3000;0.6252;1.2501;
-123.0000;0.6252;1.2476;
-122.7000;0.6243;1.2476;
-122.4000;0.6227;1.2377;
-122.1000;0.6276;1.2476;
-121.8000;0.6268;1.2551;
-121.5000;0.6203;1.2352;
-121.2000;0.6252;1.2451;
-120.9000;0.6243;1.2377;
-120.6000;0.6284;1.2551;
-120.3000;0.6235;1.2402;
-120.0000;0.6260;1.2402;
-119.7000;0.6219;1.2252;
-119.4000;0.6252;1.2327;
-119.1000;0.6252;1.2327;
-118.8000;0.6268;1.2377;
-118.5000;0.6252;1.2327;
-118.2000;0.6260;1.2402;
-117.9000;0.6276;1.2427;
-117.6000;0.6268;1.2476;
-117.3000;0.6252;1.2402;
-117.0000;0.6284;1.2377;
-116.7000;0.6235;1.2252;
-116.4000;0.6260;1.2377;
-116.1000;0.6292;1.2427;
-115.8000;0.6300;1.2427;
-115.5000;0.6252;1.2277;
-115.2000;0.6292;1.2451;
-114.9000;0.6268;1.2427;
-114.6000;0.6203;1.2302;
-114.3000;0.6252;1.2427;
-114.0000;0.6243;1.2402;
-113.7000;0.6235;1.2402;
-113.4000;0.6203;1.2277;
-113.1000;0.6243;1.2377;
-112.8000;0.6260;1.2402;
-112.5000;0.6268;1.2526;
-112.2000;0.6260;1.2501;
-111.9000;0.6260;1.2551;
-111.6000;0.6268;1.2576;
-111.3000;0.6268;1.2526;
-111.0000;0.6268;1.2501;
-110.7000;0.6276;1.2551;
-110.4000;0.6252;1.2526;
-110.1000;0.6227;1.2551;
-109.8000;0.6317;1.2701;
-109.5000;0.6252;1.2526;
-109.2000;0.6260;1.2476;
-108.9000;0.6260;1.2476;
-108.6000;0.6235;1.2451;
-108.3000;0.6203;1.2427;
-108.0000;0.6243;1.2402;
-107.7000;0.6300;1.2551;
-107.4000;0.6252;1.2402;
-107.1000;0.6325;1.2551;
-106.8000;0.6252;1.2352;
-106.5000;0.6252;1.2402;
-106.2000;0.6333;1.2701;
-105.9000;0.6268;1.2427;
-105.6000;0.6260;1.2451;
-105.3000;0.6235;1.2427;
-105.0000;0.6243;1.2451;
-104.7000;0.6260;1.2451;
-104.4000;0.6243;1.2451;
-104.1000;0.6268;1.2476;
-103.8000;0.6243;1.2526;
-103.5000;0.6235;1.2451;
-103.2000;0.6227;1.2451;
-102.9000;0.6276;1.2526;
-102.6000;0.6252;1.2402;
-102.3000;0.6252;1.2277;
-102.0000;0.6243;1.2352;
-101.7000;0.6268;1.2352;
-101.4000;0.6268;1.2402;
-101.1000;0.6243;1.2327;
-100.8000;0.6243;1.2352;
-100.5000;0.6333;1.2576;
-100.2000;0.6268;1.2402;
-99.9000;0.6276;1.2427;
-99.6000;0.6235;1.2402;
-99.3000;0.6268;1.2451;
-99.0000;0.6260;1.2451;
-98.7000;0.6276;1.2526;
-98.4000;0.6260;1.2501;
-98.1000;0.6260;1.2427;
-97.8000;0.6235;1.2476;
-97.5000;0.6252;1.2476;
-97.2000;0.6243;1.2451;
-96.9000;0.6260;1.2476;
-96.6000;0.6268;1.2501;
-96.3000;0.6243;1.2501;
-96.0000;0.6252;1.2551;
-95.7000;0.6260;1.2501;
-95.4000;0.6252;1.2501;
-95.1000;0.6252;1.2451;
-94.8000;0.6260;1.2476;
-94.5000;0.6260;1.2427;
-94.2000;0.6243;1.2451;
-93.9000;0.6252;1.2402;
-93.6000;0.6235;1.2327;
-93.3000;0.6211;1.2402;
-93.0000;0.6243;1.2451;
-92.7000;0.6260;1.2451;
-92.4000;0.6235;1.2451;
-92.1000;0.6260;1.2427;
-91.8000;0.6260;1.2377;
-91.5000;0.6300;1.2551;
-91.2000;0.6235;1.2402;
-90.9000;0.6268;1.2476;
-90.6000;0.6268;1.2352;
-90.3000;0.6252;1.2352;
-90.0000;0.6252;1.2327;
-89.7000;0.6243;1.2327;
-89.4000;0.6260;1.2451;
-89.1000;0.6243;1.2451;
-88.8000;0.6243;1.2501;
-88.5000;0.6268;1.2551;
-88.2000;0.6317;1.2676;
-87.9000;0.6260;1.2526;
-87.6000;0.6227;1.2526;
-87.3000;0.6260;1.2526;
-87.0000;0.6243;1.2402;
-86.7000;0.6227;1.2227;
-86.4000;0.6195;1.2128;
-86.1000;0.6252;1.2252;
-85.8000;0.6276;1.2302;
-85.5000;0.6235;1.2252;
-85.2000;0.6252;1.2352;
-84.9000;0.6243;1.2402;
-84.6000;0.6260;1.2377;
-84.3000;0.6227;1.2327;
-84.0000;0.6252;1.2402;
-83.7000;0.6235;1.2377;
-83.4000;0.6243;1.2402;
-83.1000;0.6219;1.2377;
-82.8000;0.6243;1.2427;
-82.5000;0.6260;1.2501;
-82.2000;0.6268;1.2551;
-81.9000;0.6268;1.2551;
-81.6000;0.6268;1.2601;
-81.3000;0.6227;1.2427;
-81.0000;0.6276;1.2526;
-80.7000;0.6260;1.2377;
-80.4000;0.6252;1.2402;
-80.1000;0.6243;1.2327;
-79.8000;0.6284;1.2427;
-79.5000;0.6252;1.2501;
-79.2000;0.6260;1.2501;
-78.9000;0.6284;1.2651;
-78.6000;0.6252;1.2651;
-78.3000;0.6268;1.2626;
-78.0000;0.6243;1.2526;
-77.7000;0.6260;1.2501;
-77.4000;0.6268;1.2526;
-77.1000;0.6260;1.2526;
-76.8000;0.6276;1.2576;
-76.5000;0.6235;1.2526;
-76.2000;0.6268;1.2501;
-75.9000;0.6260;1.2451;
-75.6000;0.6252;1.2501;
-75.3000;0.6260;1.2427;
-75.0000;0.6227;1.2377;
-74.7000;0.6268;1.2551;
-74.4000;0.6260;1.2551;
-74.1000;0.6227;1.2451;
-73.8000;0.6243;1.2476;
-73.5000;0.6243;1.2501;
-73.2000;0.6252;1.2526;
-72.9000;0.6243;1.2476;
-72.6000;0.6243;1.2476;
-72.3000;0.6268;1.2576;
-72.0000;0.6235;1.2576;
-71.7000;0.6186;1.2402;
-71.4000;0.6243;1.2551;
-71.1000;0.6243;1.2501;
-70.8000;0.6268;1.2501;
-70.5000;0.6260;1.2551;
-70.2000;0.6252;1.2551;
-69.9000;0.6260;1.2501;
-69.6000;0.6268;1.2427;
-69.3000;0.6268;1.2427;
-69.0000;0.6252;1.2427;
-68.7000;0.6276;1.2402;
-68.4000;0.6268;1.2377;
-68.1000;0.6252;1.2327;
-67.8000;0.6260;1.2377;
-67.5000;0.6243;1.2377;
-67.2000;0.6252;1.2476;
-66.9000;0.6227;1.2402;
-66.6000;0.6252;1.2427;
-66.3000;0.6260;1.2501;
-66.0000;0.6252;1.2451;
-65.7000;0.6268;1.2476;
-65.4000;0.6374;1.2651;
-65.1000;0.6243;1.2352;
-64.8000;0.6260;1.2352;
-64.5000;0.6268;1.2427;
-64.2000;0.6260;1.2377;
-63.9000;0.6268;1.2227;
-63.6000;0.6292;1.2352;
-63.3000;0.6252;1.2252;
-63.0000;0.6252;1.2252;
-62.7000;0.6243;1.2153;
-62.4000;0.6235;1.2153;
-62.1000;0.6227;1.2153;
-61.8000;0.6268;1.2227;
-61.5000;0.6268;1.2227;
-61.2000;0.6235;1.2128;
-60.9000;0.6252;1.2202;
-60.6000;0.6252;1.2277;
-60.3000;0.6260;1.2327;
-60.0000;0.6243;1.2277;
-59.7000;0.6235;1.2252;
-59.4000;0.6243;1.2252;
-59.1000;0.6260;1.2252;
-58.8000;0.6252;1.2202;
-58.5000;0.6252;1.2153;
-58.2000;0.6243;1.2153;
-57.9000;0.6276;1.2202;
-57.6000;0.6260;1.2227;
-57.3000;0.6268;1.2302;
-57.0000;0.6211;1.2078;
-56.7000;0.6260;1.2178;
-56.4000;0.6260;1.2178;
-56.1000;0.6260;1.2227;
-55.8000;0.6252;1.2277;
-55.5000;0.6260;1.2252;
-55.2000;0.6252;1.2178;
-54.9000;0.6243;1.2252;
-54.6000;0.6252;1.2327;
-54.3000;0.6243;1.2277;
-54.0000;0.6260;1.2327;
-53.7000;0.6252;1.2352;
-53.4000;0.6235;1.2277;
-53.1000;0.6260;1.2377;
-52.8000;0.6243;1.2302;
-52.5000;0.6260;1.2427;
-52.2000;0.6260;1.2427;
-51.9000;0.6252;1.2327;
-51.6000;0.6252;1.2277;
-51.3000;0.6235;1.2277;
-51.0000;0.6178;1.2202;
-50.7000;0.6243;1.2302;
-50.4000;0.6252;1.2277;
-50.1000;0.6276;1.2302;
-49.8000;0.6276;1.2377;
-49.5000;0.6252;1.2252;
-49.2000;0.6243;1.2227;
-48.9000;0.6243;1.2227;
-48.6000;0.6252;1.2227;
-48.3000;0.6252;1.2153;
-48.0000;0.6252;1.2202;
-47.7000;0.6211;1.2103;
-47.4000;0.6235;1.2153;
-47.1000;0.6252;1.2128;
-46.8000;0.6268;1.2202;
-46.5000;0.6243;1.2178;
-46.2000;0.6276;1.2252;
-45.9000;0.6284;1.2327;
-45.6000;0.6268;1.2252;
-45.3000;0.6276;1.2277;
-45.0000;0.6260;1.2178;
-44.7000;0.6243;1.2153;
-44.4000;0.6227;1.2028;
-44.1000;0.6243;1.2053;
-43.8000;0.6252;1.2078;
-43.5000;0.6252;1.2178;
-43.2000;0.6252;1.2153;
-42.9000;0.6268;1.2153;
-42.6000;0.6268;1.2153;
-42.3000;0.6276;1.2202;
-42.0000;0.6252;1.2178;
-41.7000;0.6260;1.2128;
-41.4000;0.6268;1.2178;
-41.1000;0.6276;1.2252;
-40.8000;0.6268;1.2277;
-40.5000;0.6276;1.2202;
-40.2000;0.6260;1.2202;
-39.9000;0.6268;1.2178;
-39.6000;0.6252;1.2227;
-39.3000;0.6252;1.2202;
-39.0000;0.6260;1.2202;
-38.7000;0.6309;1.2327;
-38.4000;0.6284;1.2227;
-38.1000;0.6235;1.2128;
-37.8000;0.6235;1.2202;
-37.5000;0.6268;1.2352;
-37.2000;0.6268;1.2302;
-36.9000;0.6227;1.2153;
-36.6000;0.6300;1.2352;
-36.3000;0.6276;1.2302;
-36.0000;0.6349;1.2526;
-35.7000;0.6219;1.2277;
-35.4000;0.6252;1.2352;
-35.1000;0.6252;1.2302;
-34.8000;0.6284;1.2352;
-34.5000;0.6227;1.2178;
-34.2000;0.6252;1.2327;
-33.9000;0.6292;1.2427;
-33.6000;0.6252;1.2153;
-33.3000;0.6243;1.2227;
-33.0000;0.6243;1.2153;
-32.7000;0.6243;1.2128;
-32.4000;0.6292;1.2178;
-32.1000;0.6252;1.2153;
-31.8000;0.6252;1.2153;
-31.5000;0.6252;1.2128;
-31.2000;0.6284;1.2202;
-30.9000;0.6333;1.2227;
-30.6000;0.6252;1.2128;
-30.3000;0.6317;1.2327;
-30.0000;0.6235;1.2153;
-29.7000;0.6365;1.2277;
-29.4000;0.6268;1.1953;
-29.1000;0.6276;1.1953;
-28.8000;0.6252;1.1978;
-28.5000;0.6260;1.1978;
-28.2000;0.6276;1.2078;
-27.9000;0.6309;1.2103;
-27.6000;0.6268;1.2003;
-27.3000;0.6268;1.2053;
-27.0000;0.6243;1.1953;
-26.7000;0.6243;1.1953;
-26.4000;0.6276;1.2028;
-26.1000;0.6260;1.2078;
-25.8000;0.6300;1.2327;
-25.5000;0.6227;1.2153;
-25.2000;0.6219;1.2078;
-24.9000;0.6268;1.2178;
-24.6000;0.6235;1.2053;
-24.3000;0.6243;1.2128;
-24.0000;0.6243;1.2202;
-23.7000;0.6300;1.2352;
-23.4000;0.6260;1.2302;
-23.1000;0.6235;1.2227;
-22.8000;0.6276;1.2327;
-22.5000;0.6268;1.2302;
-22.2000;0.6268;1.2327;
-21.9000;0.6203;1.2178;
-21.6000;0.6252;1.2227;
-21.3000;0.6203;1.2103;
-21.0000;0.6243;1.2202;
-20.7000;0.6252;1.2352;
-20.4000;0.6268;1.2427;
-20.1000;0.6252;1.2377;
-19.8000;0.6252;1.2451;
-19.5000;0.6260;1.2402;
-19.2000;0.6243;1.2302;
-18.9000;0.6235;1.2352;
-18.6000;0.6260;1.2352;
-18.3000;0.6243;1.2252;
-18.0000;0.6252;1.2327;
-17.7000;0.6235;1.2227;
-17.4000;0.6268;1.2252;
-17.1000;0.6260;1.2277;
-16.8000;0.6227;1.2178;
-16.5000;0.6252;1.2128;
-16.2000;0.6268;1.2178;
-15.9000;0.6252;1.2103;
-15.6000;0.6252;1.2078;
-15.3000;0.6268;1.2178;
-15.0000;0.6235;1.2153;
-14.7000;0.6235;1.2252;
-14.4000;0.6227;1.2277;
-14.1000;0.6243;1.2227;
-13.8000;0.6284;1.2377;
-13.5000;0.6235;1.2302;
-13.2000;0.6170;1.2028;
-12.9000;0.6252;1.2277;
-12.6000;0.6219;1.2252;
-12.3000;0.6252;1.2352;
-12.0000;0.6292;1.2427;
-11.7000;0.6260;1.2352;
-11.4000;0.6243;1.2402;
-11.1000;0.6252;1.2427;
-10.8000;0.6243;1.2377;
-10.5000;0.6268;1.2377;
-10.2000;0.6243;1.2277;
-9.9000;0.6243;1.2277;
-9.6000;0.6243;1.2327;
-9.3000;0.6243;1.2377;
-9.0000;0.6268;1.2302;
-8.7000;0.6235;1.2227;
-8.4000;0.6211;1.2128;
-8.1000;0.6260;1.2252;
-7.8000;0.6268;1.2352;
-7.5000;0.6235;1.2327;
-7.2000;0.6260;1.2377;
-6.9000;0.6252;1.2327;
-6.6000;0.6252;1.2227;
-6.3000;0.6260;1.2277;
-6.0000;0.6276;1.2327;
-5.7000;0.6252;1.2277;
-5.4000;0.6252;1.2302;
-5.1000;0.6243;1.2252;
-4.8000;0.6243;1.2252;
-4.5000;0.6260;1.2327;
-4.2000;0.6268;1.2302;
-3.9000;0.6211;1.2252;
-3.6000;0.6243;1.2352;
-3.3000;0.6252;1.2302;
-3.0000;0.6252;1.2227;
-2.7000;0.6284;1.2302;
-2.4000;0.6243;1.2227;
-2.1000;0.6243;1.2352;
-1.8000;0.6243;1.2402;
-1.5000;0.6252;1.2402;
-1.2000;0.6252;1.2427;
-0.9000;0.6243;1.2302;
-0.6000;0.6260;1.2178;
-0.3000;0.6276;1.2178;
0.0000;0.6276;1.2178;
0.3000;0.6276;1.2003;
0.6000;0.6317;1.2427;
0.9000;0.6300;1.2626;
1.2000;0.6333;1.2925;
1.5000;0.6357;1.3273;
1.8000;0.6365;1.3497;
2.1000;0.6276;1.3423;
2.4000;0.6496;1.4020;
2.7000;0.6325;1.3722;
3.0000;0.6374;1.3921;
3.3000;0.6553;1.4394;
3.6000;0.6455;1.4145;
3.9000;0.6390;1.4070;
4.2000;0.6471;1.4195;
4.5000;0.6390;1.4070;
4.8000;0.6431;1.4220;
5.1000;0.6414;1.4245;
5.4000;0.6439;1.4344;
5.7000;0.6455;1.4294;
6.0000;0.6406;1.4220;
6.3000;0.6406;1.4245;
6.6000;0.6414;1.4269;
6.9000;0.6422;1.4419;
7.2000;0.6512;1.4618;
7.5000;0.6439;1.4444;
7.8000;0.6455;1.4518;
8.1000;0.6439;1.4543;
8.4000;0.6496;1.4618;
8.7000;0.6439;1.4369;
9.0000;0.6463;1.4394;
9.3000;0.6471;1.4444;
9.6000;0.6479;1.4419;
9.9000;0.6520;1.4543;
10.2000;0.6431;1.4319;
10.5000;0.6479;1.4369;
10.8000;0.6479;1.4344;
11.1000;0.6479;1.4294;
11.4000;0.6471;1.4245;
11.7000;0.6496;1.4245;
12.0000;0.6479;1.4220;
12.3000;0.6496;1.4344;
12.6000;0.6504;1.4494;
12.9000;0.6496;1.4444;
13.2000;0.6496;1.4369;
13.5000;0.6528;1.4444;
13.8000;0.6496;1.4394;
14.1000;0.6504;1.4369;
14.4000;0.6520;1.4419;
14.7000;0.6488;1.4419;
15.0000;0.6504;1.4444;
15.3000;0.6504;1.4494;
15.6000;0.6512;1.4518;
15.9000;0.6512;1.4494;
16.2000;0.6512;1.4469;
16.5000;0.6504;1.4419;
16.8000;0.6496;1.4394;
17.1000;0.6520;1.4518;
17.4000;0.6528;1.4518;
17.7000;0.6520;1.4469;
18.0000;0.6512;1.4469;
18.3000;0.6528;1.4469;
18.6000;0.6520;1.4494;
18.9000;0.6496;1.4344;
19.2000;0.6528;1.4469;
19.5000;0.6528;1.4469;
19.8000;0.6520;1.4394;
20.1000;0.6528;1.4419;
20.4000;0.6528;1.4394;
20.7000;0.6536;1.4419;
21.0000;0.6545;1.4494;
21.3000;0.6528;1.4494;
21.6000;0.6528;1.4518;
21.9000;0.6520;1.4469;
22.2000;0.6528;1.4494;
22.5000;0.6577;1.4643;
22.8000;0.6553;1.4618;
23.1000;0.6528;1.4494;
23.4000;0.6520;1.4568;
23.7000;0.6528;1.4518;
24.0000;0.6504;1.4369;
24.3000;0.6569;1.4543;
24.6000;0.6536;1.4494;
24.9000;0.6536;1.4469;
25.2000;0.6610;1.4743;
25.5000;0.6569;1.4668;
25.8000;0.6553;1.4693;
26.1000;0.6642;1.4867;
26.4000;0.6561;1.4693;
26.7000;0.6545;1.4767;
27.0000;0.6545;1.4693;
27.3000;0.6553;1.4718;
27.6000;0.6585;1.4792;
27.9000;0.6536;1.4668;
28.2000;0.6512;1.4618;
28.5000;0.6545;1.4543;
28.8000;0.6553;1.4618;
29.1000;0.6528;1.4543;
29.4000;0.6553;1.4518;
29.7000;0.6488;1.4419;
30.0000;0.6545;1.4444;
30.3000;0.6536;1.4494;
30.6000;0.6553;1.4543;
30.9000;0.6553;1.4494;
31.2000;0.6561;1.4444;
31.5000;0.6545;1.4394;
31.8000;0.6585;1.4494;
32.1000;0.6536;1.4419;
32.4000;0.6561;1.4394;
32.7000;0.6561;1.4419;
33.0000;0.6553;1.4494;
33.3000;0.6569;1.4469;
33.6000;0.6561;1.4444;
33.9000;0.6569;1.4469;
34.2000;0.6561;1.4444;
34.5000;0.6561;1.4394;
34.8000;0.6561;1.4394;
35.1000;0.6577;1.4494;
35.4000;0.6577;1.4494;
35.7000;0.6561;1.4444;
36.0000;0.6561;1.4394;
36.3000;0.6585;1.4469;
36.6000;0.6561;1.4518;
36.9000;0.6569;1.4518;
37.2000;0.6553;1.4494;
37.5000;0.6561;1.4518;
37.8000;0.6569;1.4444;
38.1000;0.6569;1.4419;
38.4000;0.6553;1.4419;
38.7000;0.6569;1.4394;
39.0000;0.6561;1.4369;
39.3000;0.6569;1.4419;
39.6000;0.6602;1.4643;
39.9000;0.6569;1.4543;
40.2000;0.6569;1.4543;
40.5000;0.6569;1.4643;
40.8000;0.6561;1.4643;
41.1000;0.6593;1.4718;
41.4000;0.6569;1.4618;
41.7000;0.6602;1.4543;
42.0000;0.6561;1.4419;
42.3000;0.6569;1.4344;
42.6000;0.6577;1.4419;
42.9000;0.6577;1.4344;
43.2000;0.6561;1.4369;
43.5000;0.6593;1.4518;
43.8000;0.6569;1.4543;
44.1000;0.6545;1.4444;
44.4000;0.6577;1.4643;
44.7000;0.6561;1.4618;
45.0000;0.6569;1.4593;
45.3000;0.6561;1.4593;
45.6000;0.6561;1.4643;
45.9000;0.6569;1.4618;
46.2000;0.6561;1.4618;
46.5000;0.6577;1.4593;
46.8000;0.6569;1.4543;
47.1000;0.6577;1.4518;
47.4000;0.6569;1.4494;
47.7000;0.6577;1.4543;
48.0000;0.6585;1.4693;
48.3000;0.6545;1.4568;
48.6000;0.6561;1.4593;
48.9000;0.6585;1.4643;
49.2000;0.6512;1.4419;
49.5000;0.6569;1.4518;
49.8000;0.6569;1.4494;
50.1000;0.6569;1.4444;
50.4000;0.6569;1.4494;
50.7000;0.6585;1.4593;
51.0000;0.6561;1.4593;
51.3000;0.6577;1.4643;
51.6000;0.6577;1.4693;
51.9000;0.6577;1.4593;
52.2000;0.6585;1.4543;
52.5000;0.6569;1.4444;
52.8000;0.6577;1.4369;
53.1000;0.6577;1.4344;
53.4000;0.6593;1.4419;
53.7000;0.6569;1.4344;
54.0000;0.6585;1.4394;
54.3000;0.6585;1.4543;
54.6000;0.6561;1.4518;
54.9000;0.6569;1.4543;
55.2000;0.6585;1.4494;
55.5000;0.6585;1.4518;
55.8000;0.6593;1.4469;
56.1000;0.6626;1.4568;
56.4000;0.6569;1.4494;
56.7000;0.6593;1.4543;
57.0000;0.6593;1.4543;
57.3000;0.6577;1.4518;
57.6000;0.6561;1.4469;
57.9000;0.6577;1.4518;
58.2000;0.6585;1.4568;
58.5000;0.6569;1.4543;
58.8000;0.6577;1.4618;
59.1000;0.6577;1.4543;
59.4000;0.6577;1.4518;
59.7000;0.6569;1.4444;
60.0000;0.6577;1.4469;
60.3000;0.6585;1.4593;
60.6000;0.6585;1.4643;
60.9000;0.6569;1.4643;
61.2000;0.6577;1.4693;
61.5000;0.6577;1.4643;
61.8000;0.6585;1.4693;
62.1000;0.6577;1.4593;
62.4000;0.6602;1.4643;
62.7000;0.6577;1.4494;
63.0000;0.6569;1.4494;
63.3000;0.6593;1.4518;
63.6000;0.6634;1.4693;
63.9000;0.6585;1.4568;
64.2000;0.6585;1.4593;
64.5000;0.6577;1.4518;
64.8000;0.6561;1.4543;
65.1000;0.6561;1.4568;
65.4000;0.6569;1.4618;
65.7000;0.6602;1.4643;
66.0000;0.6593;1.4643;
66.3000;0.6577;1.4543;
66.6000;0.6585;1.4568;
66.9000;0.6593;1.4618;
67.2000;0.6577;1.4643;
67.5000;0.6577;1.4568;
67.8000;0.6569;1.4543;
68.1000;0.6577;1.4469;
68.4000;0.6569;1.4419;
68.7000;0.6585;1.4444;
69.0000;0.6585;1.4419;
69.3000;0.6585;1.4444;
69.6000;0.6577;1.4494;
69.9000;0.6561;1.4444;
70.2000;0.6577;1.4518;
70.5000;0.6593;1.4469;
70.8000;0.6593;1.4469;
71.1000;0.6593;1.4394;
71.4000;0.6593;1.4319;
71.7000;0.6585;1.4319;
72.0000;0.6585;1.4294;
72.3000;0.6585;1.4394;
72.6000;0.6569;1.4394;
72.9000;0.6577;1.4419;
73.2000;0.6585;1.4469;
73.5000;0.6577;1.4444;
73.8000;0.6577;1.4469;
74.1000;0.6553;1.4494;
74.4000;0.6602;1.4593;
74.7000;0.6602;1.4593;
75.0000;0.6577;1.4593;
75.3000;0.6577;1.4618;
75.6000;0.6593;1.4543;
75.9000;0.6610;1.4568;
76.2000;0.6585;1.4518;
76.5000;0.6593;1.4444;
76.8000;0.6585;1.4394;
77.1000;0.6593;1.4394;
77.4000;0.6585;1.4469;
77.7000;0.6585;1.4444;
78.0000;0.6569;1.4419;
78.3000;0.6585;1.4494;
78.6000;0.6577;1.4444;
78.9000;0.6545;1.4344;
79.2000;0.6512;1.4245;
79.5000;0.6569;1.4494;
79.8000;0.6569;1.4444;
80.1000;0.6553;1.4469;
80.4000;0.6561;1.4518;
80.7000;0.6569;1.4568;
81.0000;0.6593;1.4668;
81.3000;0.6585;1.4643;
81.6000;0.6585;1.4593;
81.9000;0.6602;1.4618;
82.2000;0.6577;1.4543;
82.5000;0.6602;1.4494;
82.8000;0.6577;1.4419;
83.1000;0.6553;1.4394;
83.4000;0.6585;1.4444;
83.7000;0.6585;1.4419;
84.0000;0.6569;1.4469;
84.3000;0.6577;1.4518;
84.6000;0.6585;1.4618;
84.9000;0.6593;1.4618;
85.2000;0.6577;1.4568;
85.5000;0.6553;1.4369;
85.8000;0.6593;1.4419;
86.1000;0.6602;1.4469;
86.4000;0.6585;1.4394;
86.7000;0.6618;1.4494;
87.0000;0.6585;1.4319;
87.3000;0.6593;1.4394;
87.6000;0.6593;1.4444;
87.9000;0.6577;1.4419;
88.2000;0.6585;1.4444;
88.5000;0.6569;1.4444;
88.8000;0.6569;1.4444;
89.1000;0.6577;1.4394;
89.4000;0.6545;1.4294;
89.7000;0.6585;1.4444;
90.0000;0.6602;1.4543;
90.3000;0.6577;1.4469;
90.6000;0.6602;1.4543;
90.9000;0.6577;1.4494;
91.2000;0.6585;1.4543;
91.5000;0.6593;1.4518;
91.8000;0.6593;1.4518;
92.1000;0.6520;1.4369;
92.4000;0.6610;1.4543;
92.7000;0.6569;1.4444;
93.0000;0.6561;1.4494;
93.3000;0.6569;1.4518;
93.6000;0.6577;1.4618;
93.9000;0.6569;1.4593;
94.2000;0.6561;1.4494;
94.5000;0.6610;1.4668;
94.8000;0.6585;1.4618;
95.1000;0.6585;1.4668;
95.4000;0.6577;1.4643;
95.7000;0.6585;1.4593;
96.0000;0.6593;1.4568;
96.3000;0.6577;1.4518;
96.6000;0.6569;1.4469;
96.9000;0.6585;1.4543;
97.2000;0.6569;1.4444;
97.5000;0.6585;1.4518;
97.8000;0.6561;1.4444;
98.1000;0.6577;1.4469;
98.4000;0.6561;1.4469;
98.7000;0.6634;1.4668;
99.0000;0.6618;1.4593;
99.3000;0.6577;1.4444;
99.6000;0.6520;1.4245;
99.9000;0.6569;1.4419;
100.2000;0.6585;1.4394;
100.5000;0.6585;1.4394;
100.8000;0.6512;1.4245;
101.1000;0.6577;1.4419;
101.4000;0.6585;1.4494;
101.7000;0.6585;1.4518;
102.0000;0.6618;1.4643;
102.3000;0.6602;1.4543;
102.6000;0.6577;1.4419;
102.9000;0.6585;1.4518;
103.2000;0.6577;1.4394;
103.5000;0.6585;1.4344;
103.8000;0.6593;1.4394;
104.1000;0.6585;1.4444;
104.4000;0.6585;1.4494;
104.7000;0.6569;1.4469;
105.0000;0.6577;1.4444;
105.3000;0.6610;1.4518;
105.6000;0.6577;1.4419;
105.9000;0.6667;1.4718;
106.2000;0.6602;1.4568;
106.5000;0.6593;1.4518;
106.8000;0.6553;1.4494;
107.1000;0.6585;1.4518;
107.4000;0.6577;1.4394;
107.7000;0.6585;1.4469;
108.0000;0.6569;1.4444;
108.3000;0.6569;1.4469;
108.6000;0.6553;1.4419;
108.9000;0.6593;1.4568;
109.2000;0.6634;1.4767;
109.5000;0.6585;1.4568;
109.8000;0.6593;1.4618;
110.1000;0.6536;1.4469;
110.4000;0.6577;1.4593;
110.7000;0.6626;1.4618;
111.0000;0.6569;1.4444;
111.3000;0.6585;1.4344;
111.6000;0.6593;1.4369;
111.9000;0.6593;1.4245;
112.2000;0.6610;1.4319;
112.5000;0.6585;1.4344;
112.8000;0.6602;1.4444;
113.1000;0.6585;1.4494;
113.4000;0.6602;1.4568;
113.7000;0.6602;1.4593;
114.0000;0.6577;1.4543;
114.3000;0.6577;1.4469;
114.6000;0.6585;1.4518;
114.9000;0.6561;1.4494;
115.2000;0.6577;1.4618;
115.5000;0.6593;1.4643;
115.8000;0.6577;1.4543;
116.1000;0.6520;1.4444;
116.4000;0.6634;1.4618;
116.7000;0.6504;1.4245;
117.0000;0.6585;1.4494;
117.3000;0.6699;1.4767;
117.6000;0.6553;1.4394;
117.9000;0.6602;1.4419;
118.2000;0.6577;1.4294;
118.5000;0.6593;1.4269;
118.8000;0.6585;1.4245;
119.1000;0.6545;1.4195;
119.4000;0.6496;1.3995;
119.7000;0.6585;1.4195;
120.0000;0.6634;1.4269;
120.3000;0.6650;1.4369;
120.6000;0.6610;1.4245;
120.9000;0.6585;1.4195;
121.2000;0.6528;1.4095;
121.5000;0.6593;1.4245;
121.8000;0.6585;1.4245;
122.1000;0.6553;1.4195;
122.4000;0.6569;1.4319;
122.7000;0.6569;1.4394;
123.0000;0.6585;1.4494;
123.3000;0.6577;1.4369;
123.6000;0.6569;1.4319;
123.9000;0.6569;1.4319;
124.2000;0.6561;1.4319;
124.5000;0.6585;1.4369;
124.8000;0.6610;1.4344;
125.1000;0.6561;1.4220;
125.4000;0.6577;1.4269;
125.7000;0.6577;1.4269;
126.0000;0.6602;1.4294;
126.3000;0.6569;1.4319;
126.6000;0.6593;1.4394;
126.9000;0.6561;1.4294;
127.2000;0.6593;1.4444;
127.5000;0.6585;1.4518;
127.8000;0.6593;1.4444;
128.1000;0.6585;1.4419;
128.4000;0.6585;1.4294;
128.7000;0.6569;1.4319;
129.0000;0.6585;1.4369;
129.3000;0.6545;1.4245;
129.6000;0.6593;1.4394;
129.9000;0.6585;1.4294;
130.2000;0.6610;1.4220;
130.5000;0.6593;1.4220;
130.8000;0.6585;1.4195;
131.1000;0.6593;1.4269;
131.4000;0.6577;1.4319;
131.7000;0.6561;1.4294;
132.0000;0.6585;1.4369;
132.3000;0.6593;1.4419;
132.6000;0.6561;1.4369;
132.9000;0.6569;1.4369;
133.2000;0.6650;1.4543;
133.5000;0.6528;1.4269;
133.8000;0.6545;1.4419;
134.1000;0.6569;1.4469;
134.4000;0.6585;1.4494;
134.7000;0.6585;1.4469;
135.0000;0.6504;1.4245;
135.3000;0.6577;1.4319;
135.6000;0.6610;1.4419;
135.9000;0.6585;1.4344;
136.2000;0.6577;1.4319;
136.5000;0.6561;1.4369;
136.8000;0.6618;1.4394;
137.1000;0.6593;1.4469;
137.4000;0.6528;1.4245;
137.7000;0.6553;1.4369;
138.0000;0.6642;1.4618;
138.3000;0.6545;1.4419;
138.6000;0.6553;1.4469;
138.9000;0.6553;1.4494;
139.2000;0.6569;1.4543;
139.5000;0.6561;1.4543;
139.8000;0.6569;1.4518;
140.1000;0.6585;1.4494;
140.4000;0.6528;1.4369;
140.7000;0.6553;1.4444;
141.0000;0.6585;1.4494;
141.3000;0.6520;1.4344;
141.6000;0.6569;1.4419;
141.9000;0.6553;1.4469;
142.2000;0.6504;1.4344;
142.5000;0.6496;1.4344;
142.8000;0.6569;1.4543;
143.1000;0.6553;1.4568;
143.4000;0.6553;1.4469;
143.7000;0.6569;1.4518;
144.0000;0.6569;1.4419;
144.3000;0.6536;1.4369;
144.6000;0.6569;1.4494;
144.9000;0.6561;1.4394;
145.2000;0.6569;1.4394;
145.5000;0.6561;1.4494;
145.8000;0.6626;1.4718;
146.1000;0.6577;1.4593;
146.4000;0.6577;1.4543;
146.7000;0.6569;1.4494;
147.0000;0.6610;1.4568;
147.3000;0.6585;1.4518;
147.6000;0.6569;1.4543;
147.9000;0.6553;1.4568;
148.2000;0.6577;1.4593;
148.5000;0.6577;1.4568;
148.8000;0.6577;1.4593;
149.1000;0.6561;1.4543;
149.4000;0.6585;1.4494;
149.7000;0.6569;1.4518;
150.0000;0.6593;1.4593;
150.3000;0.6561;1.4518;
150.6000;0.6569;1.4618;
150.9000;0.6585;1.4743;
151.2000;0.6561;1.4743;
151.5000;0.6569;1.4668;
151.8000;0.6569;1.4593;
152.1000;0.6569;1.4643;
152.4000;0.6561;1.4568;
152.7000;0.6561;1.4494;
153.0000;0.6536;1.4469;
153.3000;0.6569;1.4518;
153.6000;0.6577;1.4543;
153.9000;0.6577;1.4494;
154.2000;0.6610;1.4593;
154.5000;0.6585;1.4618;
154.8000;0.6593;1.4618;
155.1000;0.6561;1.4568;
155.4000;0.6577;1.4543;
155.7000;0.6528;1.4369;
156.0000;0.6561;1.4419;
156.3000;0.6569;1.4444;
156.6000;0.6512;1.4170;
156.9000;0.6585;1.4369;
157.2000;0.6593;1.4344;
157.5000;0.6512;1.4220;
157.8000;0.6561;1.4469;
158.1000;0.6585;1.4568;
158.4000;0.6585;1.4394;
158.7000;0.6512;1.4269;
159.0000;0.6569;1.4394;
159.3000;0.6610;1.4469;
159.6000;0.6545;1.4195;
159.9000;0.6610;1.4319;
160.2000;0.6577;1.4245;
160.5000;0.6593;1.4269;
160.8000;0.6610;1.4419;
161.1000;0.6577;1.4369;
161.4000;0.6585;1.4344;
161.7000;0.6545;1.4294;
162.0000;0.6577;1.4469;
162.3000;0.6553;1.4444;
162.6000;0.6585;1.4494;
162.9000;0.6577;1.4494;
163.2000;0.6577;1.4419;
163.5000;0.6569;1.4444;
163.8000;0.6577;1.4494;
164.1000;0.6577;1.4543;
164.4000;0.6553;1.4494;
164.7000;0.6585;1.4543;
165.0000;0.6553;1.4469;
165.3000;0.6553;1.4469;
165.6000;0.6569;1.4494;
165.9000;0.6528;1.4394;
166.2000;0.6569;1.4419;
166.5000;0.6512;1.4294;
166.8000;0.6569;1.4518;
167.1000;0.6569;1.4419;
167.4000;0.6561;1.4394;
167.7000;0.6553;1.4369;
168.0000;0.6553;1.4319;
168.3000;0.6553;1.4245;
168.6000;0.6569;1.4269;
168.9000;0.6569;1.4294;
169.2000;0.6577;1.4294;
169.5000;0.6577;1.4294;
169.8000;0.6569;1.4369;
170.1000;0.6569;1.4444;
170.4000;0.6577;1.4444;
170.7000;0.6577;1.4444;
171.0000;0.6561;1.4419;
171.3000;0.6585;1.4444;
171.6000;0.6569;1.4394;
171.9000;0.6561;1.4344;
172.2000;0.6561;1.4369;
172.5000;0.6585;1.4419;
172.8000;0.6569;1.4444;
173.1000;0.6561;1.4469;
173.4000;0.6569;1.4469;
173.7000;0.6585;1.4494;
174.0000;0.6577;1.4543;
174.3000;0.6569;1.4518;
174.6000;0.6569;1.4494;
174.9000;0.6585;1.4494;
175.2000;0.6569;1.4494;
175.5000;0.6561;1.4543;
175.8000;0.6561;1.4593;
176.1000;0.6561;1.4618;
176.4000;0.6602;1.4643;
176.7000;0.6553;1.4518;
177.0000;0.6577;1.4494;
177.3000;0.6577;1.4494;
177.6000;0.6561;1.4494;
177.9000;0.6471;1.4269;
178.2000;0.6585;1.4593;
178.5000;0.6593;1.4643;
178.8000;0.6561;1.4518;
179.1000;0.6569;1.4543;
179.4000;0.6577;1.4518;
179.7000;0.6569;1.4444;
180.0000;0.6569;1.4444;
180.3000;0.6585;1.4369;
180.6000;0.6585;1.4419;
180.9000;0.6577;1.4394;
181.2000;0.6569;1.4369;
181.5000;0.6520;1.4294;
181.8000;0.6545;1.4419;
182.1000;0.6561;1.4568;
182.4000;0.6585;1.4593;
182.7000;0.6536;1.4369;
183.0000;0.6569;1.4518;
183.3000;0.6561;1.4593;
183.6000;0.6561;1.4618;
183.9000;0.6504;1.4444;
184.2000;0.6577;1.4618;
184.5000;0.6569;1.4568;
184.8000;0.6569;1.4494;
185.1000;0.6577;1.4568;
185.4000;0.6569;1.4568;
185.7000;0.6569;1.4618;
186.0000;0.6602;1.4643;
186.3000;0.6585;1.4518;
186.6000;0.6569;1.4419;
186.9000;0.6569;1.4394;
187.2000;0.6577;1.4444;
187.5000;0.6593;1.4419;
187.8000;0.6577;1.4369;
188.1000;0.6577;1.4444;
188.4000;0.6569;1.4494;
188.7000;0.6561;1.4444;
189.0000;0.6528;1.4344;
189.3000;0.6650;1.4518;
189.6000;0.6585;1.4319;
189.9000;0.6569;1.4369;
190.2000;0.6585;1.4369;
190.5000;0.6626;1.4494;
190.8000;0.6569;1.4220;
191.1000;0.6496;1.4070;
191.4000;0.6553;1.4269;
191.7000;0.6520;1.4294;
192.0000;0.6553;1.4344;
192.3000;0.6528;1.4319;
192.6000;0.6553;1.4344;
192.9000;0.6536;1.4319;
193.2000;0.6569;1.4344;
193.5000;0.6569;1.4245;
193.8000;0.6577;1.4220;
194.1000;0.6569;1.4220;
194.4000;0.6577;1.4294;
194.7000;0.6561;1.4245;
195.0000;0.6561;1.4170;
195.3000;0.6553;1.4145;
195.6000;0.6561;1.4120;
195.9000;0.6561;1.4145;
196.2000;0.6561;1.4145;
196.5000;0.6569;1.4269;
196.8000;0.6585;1.4344;
197.1000;0.6553;1.4294;
197.4000;0.6553;1.4394;
197.7000;0.6545;1.4469;
198.0000;0.6577;1.4593;
198.3000;0.6577;1.4543;
198.6000;0.6561;1.4518;
198.9000;0.6553;1.4494;
199.2000;0.6561;1.4593;
199.5000;0.6593;1.4718;
199.8000;0.6561;1.4618;
200.1000;0.6650;1.4817;
200.4000;0.6585;1.4593;
200.7000;0.6561;1.4593;
201.0000;0.6545;1.4693;
201.3000;0.6593;1.4792;
201.6000;0.6528;1.4643;
201.9000;0.6577;1.4718;
202.2000;0.6561;1.4767;
202.5000;0.6545;1.4743;
202.8000;0.6577;1.4767;
203.1000;0.6569;1.4767;
203.4000;0.6561;1.4743;
203.7000;0.6577;1.4743;
204.0000;0.6520;1.4593;
204.3000;0.6561;1.4593;
204.6000;0.6577;1.4693;
204.9000;0.6553;1.4668;
205.2000;0.6561;1.4668;
205.5000;0.6561;1.4693;
205.8000;0.6561;1.4718;
206.1000;0.6553;1.4718;
206.4000;0.6577;1.4743;
206.7000;0.6602;1.4792;
207.0000;0.6585;1.4743;
207.3000;0.6536;1.4593;
207.6000;0.6561;1.4643;
207.9000;0.6618;1.4693;
208.2000;0.6569;1.4593;
208.5000;0.6561;1.4618;
208.8000;0.6553;1.4618;
209.1000;0.6553;1.4593;
209.4000;0.6561;1.4593;
209.7000;0.6593;1.4743;
210.0000;0.6577;1.4743;
210.3000;0.6675;1.4967;
210.6000;0.6577;1.4718;
210.9000;0.6577;1.4743;
211.2000;0.6569;1.4693;
211.5000;0.6650;1.4842;
211.8000;0.6569;1.4668;
212.1000;0.6585;1.4718;
212.4000;0.6561;1.4593;
212.7000;0.6553;1.4444;
213.0000;0.6561;1.4518;
213.3000;0.6642;1.4718;
213.6000;0.6561;1.4494;
213.9000;0.6561;1.4518;
214.2000;0.6504;1.4444;
214.5000;0.6561;1.4593;
214.8000;0.6561;1.4618;
215.1000;0.6520;1.4444;
215.4000;0.6553;1.4543;
215.7000;0.6496;1.4444;
216.0000;0.6561;1.4668;
216.3000;0.6569;1.4618;
216.6000;0.6610;1.4643;
216.9000;0.6561;1.4568;
217.2000;0.6585;1.4643;
217.5000;0.6561;1.4693;
217.8000;0.6667;1.4967;
218.1000;0.6569;1.4767;
218.4000;0.6569;1.4668;
218.7000;0.6561;1.4718;
219.0000;0.6553;1.4693;
219.3000;0.6585;1.4767;
219.6000;0.6545;1.4693;
219.9000;0.6569;1.4792;
220.2000;0.6553;1.4743;
220.5000;0.6561;1.4743;
220.8000;0.6569;1.4743;
221.1000;0.6577;1.4718;
221.4000;0.6553;1.4643;
221.7000;0.6577;1.4792;
222.0000;0.6545;1.4767;
222.3000;0.6569;1.4743;
222.6000;0.6569;1.4792;
222.9000;0.6561;1.4767;
223.2000;0.6561;1.4743;
223.5000;0.6593;1.4867;
223.8000;0.6585;1.4867;
224.1000;0.6585;1.4817;
224.4000;0.6545;1.4718;
224.7000;0.6569;1.4743;
225.0000;0.6577;1.4767;
225.3000;0.6553;1.4718;
225.6000;0.6536;1.4743;
225.9000;0.6610;1.4867;
226.2000;0.6553;1.4693;
226.5000;0.6569;1.4817;
226.8000;0.6593;1.4842;
227.1000;0.6569;1.4693;
227.4000;0.6585;1.4718;
227.7000;0.6569;1.4693;
228.0000;0.6561;1.4718;
228.3000;0.6553;1.4668;
228.6000;0.6561;1.4668;
228.9000;0.6520;1.4568;
229.2000;0.6585;1.4668;
229.5000;0.6561;1.4543;
229.8000;0.6561;1.4543;
230.1000;0.6528;1.4543;
230.4000;0.6553;1.4718;
230.7000;0.6577;1.4718;
231.0000;0.6455;1.4469;
231.3000;0.6553;1.4693;
231.6000;0.6569;1.4643;
231.9000;0.6577;1.4568;
232.2000;0.6585;1.4643;
232.5000;0.6577;1.4518;
232.8000;0.6553;1.4518;
233.1000;0.6585;1.4643;
233.4000;0.6618;1.4743;
233.7000;0.6610;1.4743;
234.0000;0.6593;1.4743;
234.3000;0.6593;1.4668;
234.6000;0.6569;1.4618;
234.9000;0.6553;1.4668;
235.2000;0.6561;1.4618;
235.5000;0.6504;1.4444;
235.8000;0.6553;1.4668;
236.1000;0.6545;1.4593;
236.4000;0.6488;1.4469;
236.7000;0.6553;1.4543;
237.0000;0.6545;1.4568;
237.3000;0.6561;1.4593;
237.6000;0.6561;1.4618;
237.9000;0.6577;1.4593;
238.2000;0.6561;1.4469;
238.5000;0.6561;1.4419;
238.8000;0.6569;1.4494;
239.1000;0.6528;1.4444;
239.4000;0.6561;1.4543;
239.7000;0.6512;1.4444;
240.0000;0.6569;1.4593;
240.3000;0.6561;1.4643;
240.6000;0.6561;1.4668;
240.9000;0.6545;1.4543;
241.2000;0.6585;1.4518;
241.5000;0.6561;1.4444;
241.8000;0.6553;1.4469;
242.1000;0.6545;1.4444;
242.4000;0.6561;1.4444;
242.7000;0.6577;1.4469;
243.0000;0.6593;1.4543;
243.3000;0.6553;1.4469;
243.6000;0.6561;1.4494;
243.9000;0.6593;1.4543;
244.2000;0.6569;1.4469;
244.5000;0.6553;1.4419;
244.8000;0.6561;1.4419;
245.1000;0.6553;1.4469;
245.4000;0.6553;1.4469;
245.7000;0.6545;1.4469;
246.0000;0.6536;1.4419;
246.3000;0.6561;1.4593;
246.6000;0.6569;1.4643;
246.9000;0.6569;1.4593;
247.2000;0.6553;1.4518;
247.5000;0.6569;1.4543;
247.8000;0.6577;1.4568;
248.1000;0.6553;1.4568;
248.4000;0.6553;1.4469;
248.7000;0.6577;1.4593;
249.0000;0.6569;1.4518;
249.3000;0.6561;1.4494;
249.6000;0.6504;1.4394;
249.9000;0.6553;1.4444;
250.2000;0.6626;1.4593;
250.5000;0.6569;1.4444;
250.8000;0.6536;1.4444;
251.1000;0.6561;1.4543;
251.4000;0.6553;1.4618;
251.7000;0.6536;1.4643;
252.0000;0.6569;1.4718;
252.3000;0.6553;1.4568;
252.6000;0.6569;1.4518;
252.9000;0.6569;1.4618;
253.2000;0.6585;1.4693;
253.5000;0.6577;1.4767;
253.8000;0.6561;1.4743;
254.1000;0.6585;1.4743;
254.4000;0.6553;1.4693;
254.7000;0.6585;1.4718;
255.0000;0.6642;1.4792;
255.3000;0.6569;1.4518;
255.6000;0.6569;1.4518;
255.9000;0.6553;1.4518;
256.2000;0.6561;1.4543;
256.5000;0.6569;1.4593;
256.8000;0.6569;1.4518;
257.1000;0.6561;1.4494;
257.4000;0.6504;1.4369;
257.7000;0.6561;1.4444;
258.0000;0.6569;1.4419;
258.3000;0.6569;1.4444;
258.6000;0.6561;1.4394;
258.9000;0.6561;1.4419;
259.2000;0.6561;1.4419;
259.5000;0.6569;1.4469;
259.8000;0.6561;1.4419;
260.1000;0.6577;1.4494;
260.4000;0.6561;1.4444;
260.7000;0.6553;1.4469;
261.0000;0.6545;1.4469;
261.3000;0.6536;1.4469;
261.6000;0.6553;1.4568;
261.9000;0.6561;1.4618;
262.2000;0.6561;1.4618;
262.5000;0.6569;1.4543;
262.8000;0.6561;1.4618;
263.1000;0.6569;1.4593;
263.4000;0.6577;1.4643;
263.7000;0.6561;1.4593;
264.0000;0.6577;1.4618;
264.3000;0.6577;1.4668;
264.6000;0.6577;1.4593;
264.9000;0.6569;1.4643;
265.2000;0.6561;1.4668;
265.5000;0.6561;1.4618;
265.8000;0.6569;1.4593;
266.1000;0.6569;1.4568;
266.4000;0.6561;1.4593;
266.7000;0.6561;1.4718;
267.0000;0.6569;1.4718;
267.3000;0.6536;1.4643;
267.6000;0.6553;1.4693;
267.9000;0.6553;1.4543;
268.2000;0.6569;1.4568;
268.5000;0.6561;1.4593;
268.8000;0.6553;1.4518;
269.1000;0.6553;1.4494;
269.4000;0.6561;1.4419;
269.7000;0.6569;1.4394;
270.0000;0.6569;1.4444;
270.3000;0.6545;1.4369;
270.6000;0.6553;1.4494;
270.9000;0.6536;1.4444;
271.2000;0.6553;1.4394;
271.5000;0.6545;1.4469;
271.8000;0.6561;1.4568;
272.1000;0.6585;1.4593;
272.4000;0.6536;1.4494;
272.7000;0.6496;1.4294;
273.0000;0.6545;1.4494;
273.3000;0.6553;1.4469;
273.6000;0.6626;1.4593;
273.9000;0.6536;1.4344;
274.2000;0.6471;1.4120;
274.5000;0.6545;1.4344;
274.8000;0.6545;1.4344;
275.1000;0.6569;1.4494;
275.4000;0.6561;1.4494;
275.7000;0.6520;1.4344;
276.0000;0.6553;1.4394;
276.3000;0.6553;1.4394;
276.6000;0.6553;1.4444;
276.9000;0.6512;1.4369;
277.2000;0.6569;1.4494;
277.5000;0.6577;1.4419;
277.8000;0.6569;1.4394;
278.1000;0.6593;1.4419;
278.4000;0.6634;1.4543;
278.7000;0.6536;1.4319;
279.0000;0.6577;1.4469;
279.3000;0.6561;1.4518;
279.6000;0.6553;1.4543;
279.9000;0.6520;1.4444;
280.2000;0.6569;1.4568;
280.5000;0.6545;1.4494;
280.8000;0.6561;1.4568;
281.1000;0.6553;1.4618;
281.4000;0.6528;1.4543;
281.7000;0.6553;1.4668;
282.0000;0.6545;1.4743;
282.3000;0.6569;1.4867;
282.6000;0.6553;1.4842;
282.9000;0.6553;1.4892;
283.2000;0.6553;1.4967;
283.5000;0.6569;1.4942;
283.8000;0.6577;1.4892;
284.1000;0.6561;1.4842;
284.4000;0.6561;1.4867;
284.7000;0.6561;1.4867;
285.0000;0.6553;1.4817;
285.3000;0.6545;1.4842;
285.6000;0.6553;1.4817;
285.9000;0.6577;1.4842;
286.2000;0.6569;1.4817;
286.5000;0.6553;1.4743;
286.8000;0.6561;1.4643;
287.1000;0.6553;1.4668;
287.4000;0.6569;1.4693;
287.7000;0.6553;1.4668;
288.0000;0.6569;1.4693;
288.3000;0.6545;1.4693;
288.6000;0.6553;1.4743;
288.9000;0.6569;1.4892;
289.2000;0.6561;1.4817;
289.5000;0.6545;1.4743;
289.8000;0.6569;1.4718;
290.1000;0.6553;1.4618;
290.4000;0.6545;1.4543;
290.7000;0.6545;1.4469;
291.0000;0.6553;1.4543;
291.3000;0.6577;1.4568;
291.6000;0.6553;1.4494;
291.9000;0.6520;1.4344;
292.2000;0.6593;1.4593;
292.5000;0.6569;1.4543;
292.8000;0.6593;1.4593;
293.1000;0.6512;1.4369;
293.4000;0.6520;1.4419;
293.7000;0.6528;1.4444;
294.0000;0.6553;1.4543;
294.3000;0.6577;1.4593;
294.6000;0.6536;1.4518;
294.9000;0.6520;1.4543;
295.2000;0.6569;1.4668;
295.5000;0.6536;1.4643;
295.8000;0.6528;1.4593;
296.1000;0.6569;1.4618;
296.4000;0.6569;1.4668;
296.7000;0.6569;1.4668;
297.0000;0.6545;1.4618;
297.3000;0.6545;1.4593;
297.6000;0.6561;1.4668;
297.9000;0.6545;1.4643;
298.2000;0.6488;1.4419;
298.5000;0.6528;1.4518;
298.8000;0.6569;1.4593;
299.1000;0.6553;1.4494;
299.4000;0.6659;1.4842;
299.7000;0.6553;1.4568;
300.0000;0.6569;1.4668;
300.3000;0.6536;1.4593;
300.6000;0.6504;1.4494;
300.9000;0.6504;1.4568;
301.2000;0.6553;1.4593;
301.5000;0.6545;1.4543;
301.8000;0.6553;1.4494;
302.1000;0.6561;1.4444;
302.4000;0.6553;1.4419;
302.7000;0.6561;1.4518;
303.0000;0.6561;1.4543;
303.3000;0.6593;1.4643;
303.6000;0.6553;1.4469;
303.9000;0.6577;1.4543;
304.2000;0.6561;1.4518;
304.5000;0.6545;1.4518;
304.8000;0.6553;1.4618;
305.1000;0.6577;1.4668;
305.4000;0.6520;1.4543;
305.7000;0.6561;1.4518;
306.0000;0.6553;1.4494;
306.3000;0.6561;1.4518;
306.6000;0.6577;1.4568;
306.9000;0.6536;1.4469;
307.2000;0.6545;1.4568;
307.5000;0.6553;1.4618;
307.8000;0.6561;1.4568;
308.1000;0.6536;1.4518;
308.4000;0.6536;1.4494;
308.7000;0.6455;1.4269;
309.0000;0.6561;1.4543;
309.3000;0.6536;1.4444;
309.6000;0.6561;1.4593;
309.9000;0.6536;1.4469;
310.2000;0.6520;1.4444;
310.5000;0.6536;1.4469;
310.8000;0.6545;1.4494;
311.1000;0.6545;1.4494;
311.4000;0.6536;1.4469;
311.7000;0.6528;1.4394;
312.0000;0.6520;1.4469;
312.3000;0.6545;1.4518;
312.6000;0.6536;1.4593;
312.9000;0.6553;1.4618;
313.2000;0.6536;1.4693;
313.5000;0.6545;1.4693;
313.8000;0.6553;1.4767;
314.1000;0.6561;1.4892;
314.4000;0.6569;1.4917;
314.7000;0.6569;1.4892;
315.0000;0.6545;1.4767;
315.3000;0.6561;1.4842;
315.6000;0.6569;1.4817;
315.9000;0.6577;1.4767;
316.2000;0.6569;1.4743;
316.5000;0.6569;1.4718;
316.8000;0.6561;1.4643;
317.1000;0.6553;1.4643;
317.4000;0.6545;1.4718;
317.7000;0.6553;1.4743;
318.0000;0.6561;1.4693;
318.3000;0.6545;1.4718;
318.6000;0.6545;1.4643;
318.9000;0.6545;1.4643;
319.2000;0.6577;1.4767;
319.5000;0.6577;1.4792;
319.8000;0.6577;1.4743;
320.1000;0.6634;1.4917;
320.4000;0.6569;1.4743;
320.7000;0.6569;1.4718;
321.0000;0.6545;1.4668;
321.3000;0.6455;1.4469;
321.6000;0.6553;1.4643;
321.9000;0.6561;1.4668;
322.2000;0.6569;1.4693;
322.5000;0.6553;1.4718;
322.8000;0.6650;1.4992;
323.1000;0.6545;1.4693;
323.4000;0.6463;1.4518;
323.7000;0.6561;1.4668;
324.0000;0.6545;1.4518;
324.3000;0.6553;1.4444;
324.6000;0.6545;1.4394;
324.9000;0.6545;1.4444;
325.2000;0.6561;1.4394;
325.5000;0.6618;1.4518;
325.8000;0.6553;1.4469;
326.1000;0.6545;1.4543;
326.4000;0.6569;1.4593;
326.7000;0.6585;1.4643;
327.0000;0.6561;1.4543;
327.3000;0.6569;1.4543;
327.6000;0.6528;1.4469;
327.9000;0.6577;1.4568;
328.2000;0.6520;1.4394;
328.5000;0.6553;1.4518;
328.8000;0.6553;1.4444;
329.1000;0.6577;1.4518;
329.4000;0.6577;1.4543;
329.7000;0.6561;1.4543;
330.0000;0.6553;1.4543;
330.3000;0.6561;1.4518;
330.6000;0.6593;1.4593;
330.9000;0.6545;1.4494;
331.2000;0.6545;1.4469;
331.5000;0.6545;1.4469;
331.8000;0.6561;1.4518;
332.1000;0.6553;1.4494;
332.4000;0.6545;1.4494;
332.7000;0.6569;1.4568;
333.0000;0.6536;1.4494;
333.3000;0.6536;1.4543;
333.6000;0.6512;1.4494;
333.9000;0.6528;1.4643;
334.2000;0.6528;1.4568;
334.5000;0.6553;1.4643;
334.8000;0.6536;1.4593;
335.1000;0.6553;1.4494;
335.4000;0.6569;1.4394;
335.7000;0.6561;1.4369;
336.0000;0.6561;1.4369;
336.3000;0.6561;1.4444;
336.6000;0.6561;1.4494;
336.9000;0.6553;1.4394;
337.2000;0.6569;1.4518;
337.5000;0.6536;1.4518;
337.8000;0.6569;1.4593;
338.1000;0.6561;1.4593;
338.4000;0.6561;1.4543;
338.7000;0.6553;1.4568;
339.0000;0.6569;1.4643;
339.3000;0.6561;1.4668;
339.6000;0.6577;1.4743;
339.9000;0.6545;1.4718;
340.2000;0.6545;1.4643;
340.5000;0.6569;1.4743;
340.8000;0.6561;1.4767;
341.1000;0.6545;1.4743;
341.4000;0.6553;1.4718;
341.7000;0.6536;1.4518;
342.0000;0.6520;1.4494;
342.3000;0.6561;1.4543;
342.6000;0.6545;1.4518;
342.9000;0.6512;1.4518;
343.2000;0.6545;1.4568;
343.5000;0.6479;1.4394;
343.8000;0.6545;1.4593;
344.1000;0.6528;1.4543;
344.4000;0.6463;1.4419;
344.7000;0.6512;1.4494;
345.0000;0.6626;1.4668;
345.3000;0.6561;1.4518;
345.6000;0.6577;1.4494;
345.9000;0.6553;1.4494;
346.2000;0.6561;1.4444;
346.5000;0.6553;1.4419;
346.8000;0.6553;1.4369;
347.1000;0.6520;1.4344;
347.4000;0.6593;1.4494;
347.7000;0.6561;1.4294;
348.0000;0.6553;1.4220;
348.3000;0.6585;1.4369;
348.6000;0.6561;1.4269;
348.9000;0.6593;1.4269;
349.2000;0.6553;1.4294;
349.5000;0.6553;1.4394;
349.8000;0.6553;1.4518;
350.1000;0.6553;1.4568;
350.4000;0.6545;1.4494;
350.7000;0.6553;1.4518;
351.0000;0.6553;1.4518;
351.3000;0.6577;1.4643;
351.6000;0.6545;1.4618;
351.9000;0.6536;1.4593;
352.2000;0.6520;1.4568;
352.5000;0.6577;1.4767;
352.8000;0.6536;1.4618;
353.1000;0.6512;1.4618;
353.4000;0.6520;1.4643;
353.7000;0.6545;1.4568;
354.0000;0.6561;1.4618;
354.3000;0.6610;1.4718;
354.6000;0.6569;1.4568;
354.9000;0.6569;1.4668;
355.2000;0.6553;1.4518;
355.5000;0.6545;1.4593;
355.8000;0.6561;1.4593;
356.1000;0.6569;1.4618;
356.4000;0.6553;1.4593;
356.7000;0.6545;1.4518;
357.0000;0.6545;1.4444;
357.3000;0.6536;1.4518;
357.6000;0.6520;1.4469;
357.9000;0.6528;1.4469;
358.2000;0.6520;1.4469;
358.5000;0.6536;1.4494;
358.8000;0.6545;1.4469;
359.1000;0.6536;1.4494;
359.4000;0.6545;1.4469;
359.7000;0.6545;1.4444;
360.0000;0.6569;1.4568;
360.3000;0.6536;1.4494;
360.6000;0.6545;1.4518;
360.9000;0.6553;1.4643;
361.2000;0.6561;1.4718;
361.5000;0.6545;1.4593;
361.8000;0.6545;1.4618;
362.1000;0.6520;1.4494;
362.4000;0.6577;1.4743;
362.7000;0.6545;1.4618;
363.0000;0.6561;1.4718;
363.3000;0.6536;1.4718;
363.6000;0.6553;1.4743;
363.9000;0.6545;1.4743;
364.2000;0.6520;1.4668;
364.5000;0.6553;1.4693;
364.8000;0.6536;1.4593;
365.1000;0.6504;1.4593;
365.4000;0.6618;1.4867;
365.7000;0.6520;1.4543;
366.0000;0.6545;1.4518;
366.3000;0.6536;1.4618;
366.6000;0.6545;1.4543;
366.9000;0.6528;1.4568;
367.2000;0.6504;1.4469;
367.5000;0.6585;1.4568;
367.8000;0.6561;1.4543;
368.1000;0.6536;1.4494;
368.4000;0.6634;1.4817;
368.7000;0.6528;1.4518;
369.0000;0.6610;1.4767;
369.3000;0.6536;1.4618;
369.6000;0.6528;1.4568;
369.9000;0.6545;1.4693;
370.2000;0.6561;1.4743;
370.5000;0.6528;1.4693;
370.8000;0.6545;1.4668;
371.1000;0.6528;1.4668;
371.4000;0.6561;1.4718;
371.7000;0.6553;1.4718;
372.0000;0.6545;1.4543;
372.3000;0.6553;1.4618;
372.6000;0.6577;1.4718;
372.9000;0.6569;1.4718;
373.2000;0.6553;1.4668;
373.5000;0.6577;1.4668;
373.8000;0.6561;1.4693;
374.1000;0.6553;1.4668;
374.4000;0.6577;1.4767;
374.7000;0.6545;1.4593;
375.0000;0.6610;1.4767;
375.3000;0.6536;1.4593;
375.6000;0.6536;1.4568;
375.9000;0.6545;1.4643;
376.2000;0.6545;1.4618;
376.5000;0.6496;1.4494;
376.8000;0.6528;1.4543;
377.1000;0.6528;1.4543;
377.4000;0.6512;1.4518;
377.7000;0.6536;1.4618;
378.0000;0.6545;1.4693;
378.3000;0.6545;1.4618;
378.6000;0.6536;1.4618;
378.9000;0.6536;1.4618;
379.2000;0.6545;1.4593;
379.5000;0.6536;1.4693;
379.8000;0.6520;1.4668;
380.1000;0.6545;1.4767;
380.4000;0.6536;1.4767;
380.7000;0.6528;1.4643;
381.0000;0.6528;1.4643;
381.3000;0.6536;1.4718;
381.6000;0.6545;1.4643;
381.9000;0.6536;1.4643;
382.2000;0.6536;1.4668;
382.5000;0.6536;1.4693;
382.8000;0.6561;1.4767;
383.1000;0.6536;1.4693;
383.4000;0.6561;1.4743;
383.7000;0.6561;1.4693;
384.0000;0.6585;1.4693;
384.3000;0.6569;1.4693;
384.6000;0.6561;1.4543;
384.9000;0.6561;1.4518;
385.2000;0.6545;1.4643;
385.5000;0.6553;1.4718;
385.8000;0.6545;1.4618;
386.1000;0.6536;1.4693;
386.4000;0.6561;1.4842;
386.7000;0.6553;1.4792;
387.0000;0.6536;1.4743;
387.3000;0.6536;1.4743;
387.6000;0.6545;1.4693;
387.9000;0.6463;1.4518;
388.2000;0.6545;1.4767;
388.5000;0.6528;1.4643;
388.8000;0.6536;1.4668;
389.1000;0.6626;1.4892;
389.4000;0.6520;1.4543;
389.7000;0.6536;1.4593;
390.0000;0.6545;1.4718;
390.3000;0.6585;1.4817;
390.6000;0.6512;1.4568;
390.9000;0.6536;1.4668;
391.2000;0.6504;1.4568;
391.5000;0.6577;1.4718;
391.8000;0.6545;1.4668;
392.1000;0.6545;1.4693;
392.4000;0.6545;1.4743;
392.7000;0.6496;1.4643;
393.0000;0.6520;1.4643;
393.3000;0.6553;1.4693;
393.6000;0.6561;1.4718;
393.9000;0.6536;1.4743;
394.2000;0.6545;1.4718;
394.5000;0.6536;1.4543;
394.8000;0.6545;1.4543;
395.1000;0.6545;1.4593;
395.4000;0.6528;1.4618;
395.7000;0.6569;1.4643;
396.0000;0.6545;1.4618;
396.3000;0.6545;1.4543;
396.6000;0.6553;1.4494;
396.9000;0.6553;1.4568;
397.2000;0.6553;1.4494;
397.5000;0.6528;1.4469;
397.8000;0.6520;1.4344;
398.1000;0.6536;1.4394;
398.4000;0.6536;1.4543;
398.7000;0.6536;1.4543;
399.0000;0.6553;1.4643;
399.3000;0.6553;1.4718;
399.6000;0.6561;1.4643;
399.9000;0.6585;1.4618;
400.2000;0.6553;1.4494;
400.5000;0.6545;1.4469;
400.8000;0.6610;1.4593;
401.1000;0.6528;1.4444;
401.4000;0.6520;1.4394;
401.7000;0.6553;1.4469;
402.0000;0.6536;1.4568;
402.3000;0.6536;1.4693;
402.6000;0.6536;1.4668;
402.9000;0.6528;1.4693;
403.2000;0.6536;1.4643;
403.5000;0.6520;1.4568;
403.8000;0.6520;1.4494;
404.1000;0.6512;1.4518;
404.4000;0.6520;1.4494;
404.7000;0.6520;1.4518;
405.0000;0.6520;1.4568;
405.3000;0.6545;1.4618;
405.6000;0.6561;1.4643;
405.9000;0.6545;1.4543;
406.2000;0.6545;1.4543;
406.5000;0.6545;1.4543;
406.8000;0.6545;1.4593;
407.1000;0.6512;1.4543;
407.4000;0.6528;1.4568;
407.7000;0.6545;1.4494;
408.0000;0.6536;1.4518;
408.3000;0.6536;1.4469;
408.6000;0.6536;1.4419;
408.9000;0.6536;1.4394;
409.2000;0.6553;1.4494;
409.5000;0.6569;1.4518;
409.8000;0.6553;1.4444;
410.1000;0.6553;1.4444;
410.4000;0.6520;1.4369;
410.7000;0.6545;1.4394;
411.0000;0.6553;1.4394;
411.3000;0.6545;1.4419;
411.6000;0.6528;1.4419;
411.9000;0.6528;1.4444;
412.2000;0.6536;1.4518;
412.5000;0.6545;1.4643;
412.8000;0.6528;1.4469;
413.1000;0.6536;1.4518;
413.4000;0.6528;1.4369;
413.7000;0.6545;1.4369;
414.0000;0.6553;1.4469;
414.3000;0.6569;1.4543;
414.6000;0.6553;1.4469;
414.9000;0.6553;1.4518;
415.2000;0.6536;1.4568;
415.5000;0.6520;1.4643;
415.8000;0.6536;1.4568;
416.1000;0.6520;1.4568;
416.4000;0.6520;1.4518;
416.7000;0.6536;1.4444;
417.0000;0.6561;1.4494;
417.3000;0.6553;1.4369;
417.6000;0.6577;1.4394;
417.9000;0.6528;1.4294;
418.2000;0.6520;1.4319;
418.5000;0.6553;1.4319;
418.8000;0.6545;1.4294;
419.1000;0.6536;1.4344;
419.4000;0.6553;1.4444;
419.7000;0.6553;1.4469;
420.0000;0.6553;1.4469;
420.3000;0.6634;1.4668;
420.6000;0.6545;1.4469;
420.9000;0.6610;1.4593;
421.2000;0.6553;1.4494;
421.5000;0.6528;1.4494;
421.8000;0.6528;1.4444;
422.1000;0.6545;1.4543;
422.4000;0.6512;1.4593;
422.7000;0.6545;1.4543;
423.0000;0.6545;1.4593;
423.3000;0.6553;1.4693;
423.6000;0.6545;1.4718;
423.9000;0.6528;1.4718;
424.2000;0.6520;1.4693;
424.5000;0.6536;1.4618;
424.8000;0.6569;1.4743;
425.1000;0.6520;1.4743;
425.4000;0.6520;1.4767;
425.7000;0.6528;1.4718;
426.0000;0.6536;1.4718;
426.3000;0.6536;1.4693;
426.6000;0.6536;1.4718;
426.9000;0.6520;1.4618;
427.2000;0.6545;1.4643;
427.5000;0.6545;1.4668;
427.8000;0.6496;1.4419;
428.1000;0.6528;1.4518;
428.4000;0.6545;1.4518;
428.7000;0.6545;1.4543;
429.0000;0.6512;1.4494;
429.3000;0.6528;1.4543;
429.6000;0.6528;1.4543;
429.9000;0.6536;1.4593;
430.2000;0.6545;1.4643;
430.5000;0.6545;1.4668;
430.8000;0.6536;1.4668;
431.1000;0.6512;1.4593;
431.4000;0.6536;1.4693;
431.7000;0.6545;1.4643;
432.0000;0.6528;1.4618;
432.3000;0.6553;1.4668;
432.6000;0.6536;1.4693;
432.9000;0.6545;1.4718;
433.2000;0.6536;1.4693;
433.5000;0.6536;1.4668;
433.8000;0.6553;1.4693;
434.1000;0.6536;1.4693;
434.4000;0.6528;1.4668;
434.7000;0.6610;1.4842;
435.0000;0.6479;1.4494;
435.3000;0.6553;1.4643;
435.6000;0.6536;1.4518;
435.9000;0.6536;1.4469;
436.2000;0.6504;1.4269;
436.5000;0.6536;1.4394;
436.8000;0.6520;1.4394;
437.1000;0.6488;1.4369;
437.4000;0.6512;1.4419;
437.7000;0.6520;1.4444;
438.0000;0.6545;1.4369;
438.3000;0.6593;1.4568;
438.6000;0.6528;1.4444;
438.9000;0.6479;1.4369;
439.2000;0.6528;1.4469;
439.5000;0.6528;1.4444;
439.8000;0.6545;1.4494;
440.1000;0.6512;1.4469;
440.4000;0.6504;1.4518;
440.7000;0.6512;1.4494;
441.0000;0.6512;1.4469;
441.3000;0.6528;1.4494;
441.6000;0.6528;1.4518;
441.9000;0.6520;1.4618;
442.2000;0.6545;1.4668;
442.5000;0.6536;1.4743;
442.8000;0.6536;1.4743;
443.1000;0.6553;1.4767;
443.4000;0.6488;1.4518;
443.7000;0.6545;1.4618;
444.0000;0.6553;1.4643;
444.3000;0.6512;1.4518;
444.6000;0.6536;1.4469;
444.9000;0.6479;1.4294;
445.2000;0.6545;1.4494;
445.5000;0.6520;1.4643;
445.8000;0.6536;1.4593;
446.1000;0.6545;1.4543;
446.4000;0.6528;1.4568;
446.7000;0.6528;1.4568;
447.0000;0.6512;1.4568;
447.3000;0.6520;1.4643;
447.6000;0.6528;1.4643;
447.9000;0.6536;1.4618;
448.2000;0.6520;1.4593;
448.5000;0.6504;1.4643;
448.8000;0.6496;1.4593;
449.1000;0.6512;1.4593;
449.4000;0.6512;1.4543;
449.7000;0.6520;1.4543;
450.0000;0.6553;1.4693;
450.3000;0.6536;1.4693;
450.6000;0.6553;1.4643;
450.9000;0.6536;1.4593;
451.2000;0.6520;1.4444;
451.5000;0.6536;1.4419;
451.8000;0.6536;1.4369;
452.1000;0.6536;1.4319;
452.4000;0.6520;1.4294;
452.7000;0.6528;1.4369;
453.0000;0.6536;1.4344;
453.3000;0.6520;1.4394;
453.6000;0.6479;1.4294;
453.9000;0.6528;1.4494;
454.2000;0.6545;1.4469;
454.5000;0.6512;1.4369;
454.8000;0.6504;1.4444;
455.1000;0.6536;1.4593;
455.4000;0.6536;1.4593;
455.7000;0.6536;1.4593;
456.0000;0.6536;1.4618;
456.3000;0.6545;1.4718;
456.6000;0.6561;1.4817;
456.9000;0.6520;1.4718;
457.2000;0.6553;1.4767;
457.5000;0.6528;1.4767;
457.8000;0.6520;1.4668;
458.1000;0.6536;1.4643;
458.4000;0.6528;1.4618;
458.7000;0.6545;1.4618;
459.0000;0.6536;1.4593;
459.3000;0.6569;1.4618;
459.6000;0.6577;1.4668;
459.9000;0.6528;1.4593;
460.2000;0.6520;1.4518;
460.5000;0.6577;1.4643;
460.8000;0.6528;1.4543;
461.1000;0.6536;1.4568;
461.4000;0.6479;1.4369;
461.7000;0.6545;1.4568;
462.0000;0.6504;1.4543;
462.3000;0.6536;1.4668;
462.6000;0.6479;1.4543;
462.9000;0.6528;1.4668;
463.2000;0.6569;1.4792;
463.5000;0.6520;1.4668;
463.8000;0.6512;1.4568;
464.1000;0.6528;1.4444;
464.4000;0.6536;1.4469;
464.7000;0.6520;1.4444;
465.0000;0.6512;1.4344;
465.3000;0.6520;1.4444;
465.6000;0.6520;1.4543;
465.9000;0.6520;1.4494;
466.2000;0.6536;1.4518;
466.5000;0.6536;1.4494;
466.8000;0.6536;1.4568;
467.1000;0.6553;1.4494;
467.4000;0.6528;1.4369;
467.7000;0.6536;1.4419;
468.0000;0.6553;1.4469;
468.3000;0.6496;1.4294;
468.6000;0.6545;1.4494;
468.9000;0.6520;1.4444;
469.2000;0.6520;1.4444;
469.5000;0.6553;1.4518;
469.8000;0.6536;1.4469;
470.1000;0.6528;1.4518;
470.4000;0.6577;1.4718;
470.7000;0.6545;1.4643;
471.0000;0.6528;1.4518;
471.3000;0.6528;1.4419;
471.6000;0.6536;1.4369;
471.9000;0.6545;1.4394;
472.2000;0.6545;1.4294;
472.5000;0.6536;1.4294;
472.8000;0.6561;1.4444;
473.1000;0.6553;1.4419;
473.4000;0.6528;1.4419;
473.7000;0.6553;1.4494;
474.0000;0.6528;1.4518;
474.3000;0.6536;1.4593;
474.6000;0.6545;1.4643;
474.9000;0.6504;1.4494;
475.2000;0.6528;1.4543;
475.5000;0.6528;1.4643;
475.8000;0.6593;1.4743;
476.1000;0.6545;1.4668;
476.4000;0.6536;1.4743;
476.7000;0.6520;1.4693;
477.0000;0.6569;1.4792;
477.3000;0.6536;1.4743;
477.6000;0.6528;1.4643;
477.9000;0.6528;1.4693;
478.2000;0.6536;1.4693;
478.5000;0.6520;1.4568;
478.8000;0.6545;1.4643;
479.1000;0.6577;1.4767;
479.4000;0.6520;1.4593;
479.7000;0.6536;1.4568;
480.0000;0.6528;1.4668;
480.3000;0.6545;1.4743;
480.6000;0.6528;1.4743;
480.9000;0.6585;1.4867;
481.2000;0.6504;1.4743;
481.5000;0.6520;1.4718;
481.8000;0.6520;1.4618;
482.1000;0.6553;1.4668;
482.4000;0.6569;1.4743;
482.7000;0.6520;1.4618;
483.0000;0.6528;1.4668;
483.3000;0.6561;1.4693;
483.6000;0.6545;1.4693;
483.9000;0.6512;1.4643;
484.2000;0.6512;1.4693;
484.5000;0.6512;1.4643;
484.8000;0.6512;1.4643;
485.1000;0.6463;1.4419;
485.4000;0.6496;1.4444;
485.7000;0.6488;1.4369;
486.0000;0.6520;1.4494;
486.3000;0.6561;1.4643;
486.6000;0.6536;1.4568;
486.9000;0.6504;1.4494;
487.2000;0.6569;1.4767;
487.5000;0.6528;1.4693;
487.8000;0.6520;1.4743;
488.1000;0.6545;1.4767;
488.4000;0.6536;1.4817;
488.7000;0.6528;1.4668;
489.0000;0.6528;1.4643;
489.3000;0.6520;1.4568;
489.6000;0.6528;1.4568;
489.9000;0.6528;1.4518;
490.2000;0.6528;1.4469;
490.5000;0.6520;1.4494;
490.8000;0.6528;1.4543;
491.1000;0.6528;1.4494;
491.4000;0.6553;1.4568;
491.7000;0.6536;1.4518;
492.0000;0.6528;1.4518;
492.3000;0.6471;1.4344;
492.6000;0.6520;1.4444;
492.9000;0.6536;1.4444;
493.2000;0.6536;1.4419;
493.5000;0.6545;1.4444;
493.8000;0.6528;1.4419;
494.1000;0.6528;1.4369;
494.4000;0.6536;1.4369;
494.7000;0.6536;1.4369;
495.0000;0.6553;1.4469;
495.3000;0.6520;1.4394;
495.6000;0.6536;1.4369;
495.9000;0.6520;1.4220;
496.2000;0.6553;1.4294;
496.5000;0.6536;1.4245;
496.8000;0.6545;1.4269;
497.1000;0.6553;1.4344;
497.4000;0.6553;1.4369;
497.7000;0.6536;1.4444;
498.0000;0.6471;1.4444;
498.3000;0.6536;1.4518;
498.6000;0.6553;1.4718;
498.9000;0.6520;1.4593;
499.2000;0.6536;1.4618;
499.5000;0.6512;1.4593;
499.8000;0.6528;1.4693;
500.1000;0.6553;1.4718;
500.4000;0.6520;1.4568;
500.7000;0.6536;1.4518;
501.0000;0.6422;1.4269;
501.3000;0.6528;1.4593;
501.6000;0.6545;1.4593;
501.9000;0.6577;1.4543;
502.2000;0.6520;1.4494;
502.5000;0.6610;1.4792;
502.8000;0.6545;1.4643;
503.1000;0.6496;1.4568;
503.4000;0.6553;1.4643;
503.7000;0.6634;1.4792;
504.0000;0.6545;1.4643;
504.3000;0.6561;1.4668;
504.6000;0.6536;1.4618;
504.9000;0.6545;1.4593;
505.2000;0.6536;1.4543;
505.5000;0.6569;1.4668;
505.8000;0.6536;1.4518;
506.1000;0.6520;1.4568;
506.4000;0.6553;1.4618;
506.7000;0.6528;1.4568;
507.0000;0.6512;1.4518;
507.3000;0.6512;1.4518;
507.6000;0.6528;1.4543;
507.9000;0.6520;1.4518;
508.2000;0.6545;1.4593;
508.5000;0.6512;1.4469;
508.8000;0.6520;1.4469;
509.1000;0.6504;1.4444;
509.4000;0.6528;1.4518;
509.7000;0.6512;1.4618;
510.0000;0.6520;1.4718;
510.3000;0.6520;1.4743;
510.6000;0.6536;1.4817;
510.9000;0.6520;1.4767;
511.2000;0.6536;1.4792;
511.5000;0.6496;1.4643;
511.8000;0.6520;1.4718;
512.1000;0.6520;1.4643;
512.4000;0.6520;1.4668;
512.7000;0.6545;1.4792;
513.0000;0.6553;1.4817;
513.3000;0.6536;1.4767;
513.6000;0.6528;1.4792;
513.9000;0.6561;1.4817;
514.2000;0.6545;1.4693;
514.5000;0.6585;1.4767;
514.8000;0.6634;1.4917;
515.1000;0.6528;1.4543;
515.4000;0.6610;1.4618;
515.7000;0.6520;1.4394;
516.0000;0.6520;1.4394;
516.3000;0.6545;1.4419;
516.6000;0.6536;1.4419;
516.9000;0.6553;1.4494;
517.2000;0.6536;1.4494;
517.5000;0.6536;1.4469;
517.8000;0.6536;1.4419;
518.1000;0.6545;1.4518;
518.4000;0.6528;1.4543;
518.7000;0.6536;1.4593;
519.0000;0.6528;1.4618;
519.3000;0.6528;1.4643;
519.6000;0.6536;1.4618;
519.9000;0.6512;1.4494;
520.2000;0.6520;1.4494;
520.5000;0.6528;1.4444;
520.8000;0.6512;1.4494;
521.1000;0.6512;1.4444;
521.4000;0.6536;1.4444;
521.7000;0.6520;1.4444;
522.0000;0.6512;1.4543;
522.3000;0.6504;1.4543;
522.6000;0.6512;1.4518;
522.9000;0.6536;1.4618;
523.2000;0.6520;1.4543;
523.5000;0.6528;1.4543;
523.8000;0.6553;1.4643;
524.1000;0.6634;1.4842;
524.4000;0.6520;1.4593;
524.7000;0.6528;1.4643;
525.0000;0.6520;1.4643;
525.3000;0.6496;1.4618;
525.6000;0.6528;1.4568;
525.9000;0.6520;1.4568;
526.2000;0.6512;1.4543;
526.5000;0.6569;1.4668;
526.8000;0.6528;1.4593;
527.1000;0.6528;1.4668;
527.4000;0.6536;1.4693;
527.7000;0.6536;1.4743;
528.0000;0.6545;1.4817;
528.3000;0.6504;1.4693;
528.6000;0.6528;1.4668;
528.9000;0.6536;1.4643;
529.2000;0.6520;1.4618;
529.5000;0.6536;1.4643;
529.8000;0.6512;1.4518;
530.1000;0.6528;1.4469;
530.4000;0.6520;1.4469;
530.7000;0.6536;1.4543;
531.0000;0.6520;1.4444;
531.3000;0.6528;1.4469;
531.6000;0.6536;1.4419;
531.9000;0.6536;1.4494;
532.2000;0.6528;1.4494;
532.5000;0.6504;1.4469;
532.8000;0.6512;1.4469;
533.1000;0.6536;1.4494;
533.4000;0.6528;1.4568;
533.7000;0.6528;1.4518;
534.0000;0.6536;1.4618;
534.3000;0.6528;1.4643;
534.6000;0.6512;1.4618;
534.9000;0.6512;1.4593;
535.2000;0.6512;1.4643;
535.5000;0.6536;1.4593;
535.8000;0.6536;1.4643;
536.1000;0.6512;1.4543;
536.4000;0.6520;1.4518;
536.7000;0.6520;1.4518;
537.0000;0.6520;1.4593;
537.3000;0.6569;1.4718;
537.6000;0.6536;1.4543;
537.9000;0.6536;1.4518;
538.2000;0.6536;1.4518;
538.5000;0.6553;1.4494;
538.8000;0.6512;1.4369;
539.1000;0.6536;1.4394;
539.4000;0.6561;1.4593;
539.7000;0.6520;1.4494;
540.0000;0.6496;1.4494;
540.3000;0.6496;1.4494;
540.6000;0.6528;1.4618;
540.9000;0.6536;1.4593;
541.2000;0.6536;1.4494;
541.5000;0.6520;1.4494;
541.8000;0.6528;1.4568;
542.1000;0.6545;1.4643;
542.4000;0.6528;1.4618;
542.7000;0.6520;1.4618;
543.0000;0.6496;1.4568;
543.3000;0.6536;1.4693;
543.6000;0.6536;1.4618;
543.9000;0.6528;1.4593;
544.2000;0.6569;1.4743;
544.5000;0.6536;1.4718;
544.8000;0.6577;1.4867;
545.1000;0.6512;1.4618;
545.4000;0.6536;1.4643;
545.7000;0.6528;1.4743;
546.0000;0.6520;1.4743;
546.3000;0.6545;1.4817;
546.6000;0.6520;1.4842;
546.9000;0.6553;1.4892;
547.2000;0.6520;1.4842;
547.5000;0.6536;1.4917;
547.8000;0.6496;1.4718;
548.1000;0.6520;1.4693;
548.4000;0.6536;1.4767;
548.7000;0.6528;1.4792;
549.0000;0.6528;1.4693;
549.3000;0.6536;1.4668;
549.6000;0.6520;1.4668;
549.9000;0.6520;1.4767;
550.2000;0.6528;1.4718;
550.5000;0.6512;1.4767;
550.8000;0.6512;1.4743;
551.1000;0.6439;1.4568;
551.4000;0.6520;1.4817;
551.7000;0.6520;1.4867;
552.0000;0.6528;1.4917;
552.3000;0.6520;1.4942;
552.6000;0.6528;1.4942;
552.9000;0.6520;1.4817;
553.2000;0.6463;1.4593;
553.5000;0.6528;1.4767;
553.8000;0.6520;1.4718;
554.1000;0.6528;1.4643;
554.4000;0.6488;1.4593;
554.7000;0.6569;1.4767;
555.0000;0.6496;1.4568;
555.3000;0.6528;1.4618;
555.6000;0.6512;1.4494;
555.9000;0.6520;1.4543;
556.2000;0.6545;1.4568;
556.5000;0.6528;1.4618;
556.8000;0.6520;1.4643;
557.1000;0.6520;1.4643;
557.4000;0.6561;1.4767;
557.7000;0.6528;1.4718;
558.0000;0.6528;1.4693;
558.3000;0.6504;1.4543;
558.6000;0.6520;1.4593;
558.9000;0.6520;1.4494;
559.2000;0.6479;1.4419;
559.5000;0.6536;1.4593;
559.8000;0.6528;1.4593;
560.1000;0.6520;1.4543;
560.4000;0.6520;1.4593;
560.7000;0.6504;1.4668;
561.0000;0.6520;1.4668;
561.3000;0.6536;1.4643;
561.6000;0.6520;1.4593;
561.9000;0.6545;1.4618;
562.2000;0.6536;1.4618;
562.5000;0.6528;1.4543;
562.8000;0.6496;1.4518;
563.1000;0.6520;1.4618;
563.4000;0.6512;1.4668;
563.7000;0.6528;1.4693;
564.0000;0.6512;1.4693;
564.3000;0.6496;1.4643;
564.6000;0.6512;1.4643;
564.9000;0.6545;1.4693;
565.2000;0.6520;1.4668;
565.5000;0.6520;1.4718;
565.8000;0.6504;1.4593;
566.1000;0.6512;1.4643;
566.4000;0.6496;1.4618;
566.7000;0.6512;1.4593;
567.0000;0.6504;1.4618;
567.3000;0.6528;1.4618;
567.6000;0.6504;1.4643;
567.9000;0.6545;1.4767;
568.2000;0.6471;1.4518;
568.5000;0.6520;1.4643;
568.8000;0.6414;1.4419;
569.1000;0.6520;1.4643;
569.4000;0.6512;1.4593;
569.7000;0.6504;1.4668;
570.0000;0.6504;1.4693;
570.3000;0.6512;1.4718;
570.6000;0.6504;1.4693;
570.9000;0.6528;1.4718;
571.2000;0.6528;1.4767;
571.5000;0.6512;1.4643;
571.8000;0.6536;1.4743;
572.1000;0.6520;1.4767;
572.4000;0.6504;1.4792;
572.7000;0.6528;1.4792;
573.0000;0.6512;1.4767;
573.3000;0.6528;1.4792;
573.6000;0.6561;1.4892;
573.9000;0.6528;1.4842;
574.2000;0.6512;1.4867;
574.5000;0.6520;1.5017;
574.8000;0.6545;1.5091;
575.1000;0.6520;1.4942;
575.4000;0.6504;1.4817;
575.7000;0.6536;1.4842;
576.0000;0.6504;1.4718;
576.3000;0.6504;1.4718;
576.6000;0.6553;1.4942;
576.9000;0.6504;1.4892;
577.2000;0.6553;1.4967;
577.5000;0.6553;1.4967;
577.8000;0.6512;1.4842;
578.1000;0.6593;1.4992;
578.4000;0.6520;1.4842;
578.7000;0.6504;1.4842;
579.0000;0.6528;1.4817;
579.3000;0.6520;1.4718;
579.6000;0.6545;1.4842;
579.9000;0.6471;1.4718;
580.2000;0.6520;1.4817;
580.5000;0.6561;1.4892;
580.8000;0.6602;1.5116;
581.1000;0.6496;1.4892;
581.4000;0.6512;1.4867;
581.7000;0.6536;1.4867;
582.0000;0.6512;1.4892;
582.3000;0.6471;1.4767;
582.6000;0.6512;1.4867;
582.9000;0.6545;1.5041;
583.2000;0.6602;1.5141;
583.5000;0.6488;1.4917;
583.8000;0.6520;1.4967;
584.1000;0.6536;1.5017;
584.4000;0.6520;1.4942;
584.7000;0.6528;1.4842;
585.0000;0.6512;1.4743;
585.3000;0.6520;1.4693;
585.6000;0.6536;1.4668;
585.9000;0.6512;1.4668;
586.2000;0.6504;1.4668;
586.5000;0.6504;1.4668;
586.8000;0.6512;1.4718;
587.1000;0.6496;1.4792;
587.4000;0.6520;1.4792;
587.7000;0.6512;1.4867;
588.0000;0.6520;1.4867;
588.3000;0.6512;1.4792;
588.6000;0.6504;1.4743;
588.9000;0.6512;1.4817;
589.2000;0.6496;1.4743;
589.5000;0.6512;1.4718;
589.8000;0.6504;1.4718;
590.1000;0.6512;1.4693;
590.4000;0.6536;1.4767;
590.7000;0.6528;1.4767;
591.0000;0.6512;1.4792;
591.3000;0.6512;1.4817;
591.6000;0.6512;1.4817;
591.9000;0.6496;1.4792;
592.2000;0.6504;1.4718;
592.5000;0.6504;1.4693;
592.8000;0.6520;1.4792;
593.1000;0.6512;1.4792;
593.4000;0.6528;1.4817;
593.7000;0.6528;1.4842;
594.0000;0.6528;1.4842;
594.3000;0.6536;1.4817;
594.6000;0.6520;1.4743;
594.9000;0.6545;1.4892;
595.2000;0.6536;1.4917;
595.5000;0.6512;1.4842;
595.8000;0.6496;1.4817;
596.1000;0.6512;1.4792;
596.4000;0.6528;1.4767;
596.7000;0.6496;1.4693;
597.0000;0.6536;1.4792;
597.3000;0.6512;1.4817;
597.6000;0.6479;1.4743;
597.9000;0.6602;1.5066;
598.2000;0.6488;1.4817;
598.5000;0.6504;1.4817;
598.8000;0.6520;1.4842;
599.1000;0.6528;1.4867;
599.4000;0.6528;1.4867;
599.7000;0.6520;1.4842;
600.0000;0.6504;1.4842;
600.3000;0.6520;1.4718;
600.6000;0.6479;1.4469;
600.9000;0.6528;1.4593;
601.2000;0.6455;1.4344;
601.5000;0.6406;1.4145;
601.8000;0.6406;1.4170;
602.1000;0.6284;1.3771;
602.4000;0.6235;1.3448;
602.7000;0.6260;1.3373;
603.0000;0.6211;1.3174;
603.3000;0.6195;1.3024;
603.6000;0.6203;1.3024;
603.9000;0.6113;1.2800;
604.2000;0.6081;1.2601;
604.5000;0.6056;1.2451;
604.8000;0.5999;1.2327;
605.1000;0.5983;1.2277;
605.4000;0.5934;1.2128;
605.7000;0.5950;1.2128;
606.0000;0.5918;1.1978;
606.3000;0.5934;1.2028;
606.6000;0.5836;1.1704;
606.9000;0.5845;1.1655;
607.2000;0.5828;1.1530;
607.5000;0.5796;1.1480;
607.8000;0.5779;1.1480;
608.1000;0.5771;1.1480;
608.4000;0.5771;1.1505;
608.7000;0.5747;1.1406;
609.0000;0.5714;1.1331;
609.3000;0.5706;1.1306;
609.6000;0.5690;1.1281;
609.9000;0.5665;1.1306;
610.2000;0.5665;1.1356;
610.5000;0.5617;1.1356;
610.8000;0.5633;1.1381;
611.1000;0.5625;1.1356;
611.4000;0.5608;1.1256;
611.7000;0.5584;1.1181;
612.0000;0.5560;1.1107;
612.3000;0.5551;1.1107;
612.6000;0.5519;1.1057;
612.9000;0.5535;1.1107;
613.2000;0.5503;1.1007;
613.5000;0.5519;1.1007;
613.8000;0.5568;1.1206;
614.1000;0.5503;1.1032;
614.4000;0.5462;1.0858;
614.7000;0.5462;1.0758;
615.0000;0.5438;1.0783;
615.3000;0.5438;1.0733;
615.6000;0.5446;1.0733;
615.9000;0.5421;1.0758;
616.2000;0.5421;1.0758;
616.5000;0.5413;1.0783;
616.8000;0.5372;1.0758;
617.1000;0.5332;1.0534;
617.4000;0.5381;1.0758;
617.7000;0.5356;1.0833;
618.0000;0.5340;1.0833;
618.3000;0.5364;1.1057;
618.6000;0.5356;1.1032;
618.9000;0.5315;1.0883;
619.2000;0.5315;1.0883;
619.5000;0.5324;1.0883;
619.8000;0.5299;1.0833;
620.1000;0.5307;1.0858;
620.4000;0.5291;1.0708;
620.7000;0.5307;1.0758;
621.0000;0.5307;1.0833;
621.3000;0.5258;1.0683;
621.6000;0.5258;1.0683;
621.9000;0.5234;1.0708;
622.2000;0.5283;1.0783;
622.5000;0.5258;1.0808;
622.8000;0.5234;1.0708;
623.1000;0.5226;1.0758;
623.4000;0.5234;1.0808;
623.7000;0.5210;1.0708;
624.0000;0.5210;1.0683;
624.3000;0.5153;1.0509;
624.6000;0.5185;1.0634;
624.9000;0.5193;1.0683;
625.2000;0.5177;1.0634;
625.5000;0.5169;1.0634;
625.8000;0.5193;1.0758;
626.1000;0.5169;1.0808;
626.4000;0.5258;1.1107;
626.7000;0.5161;1.0883;
627.0000;0.5153;1.0833;
627.3000;0.5210;1.1007;
627.6000;0.5136;1.0783;
627.9000;0.5153;1.0783;
628.2000;0.5104;1.0634;
628.5000;0.5144;1.0683;
628.8000;0.5136;1.0658;
629.1000;0.5136;1.0559;
629.4000;0.5120;1.0559;
629.7000;0.5104;1.0534;
630.0000;0.5128;1.0609;
630.3000;0.5104;1.0584;
630.6000;0.5112;1.0634;
630.9000;0.5104;1.0733;
631.2000;0.5088;1.0683;
631.5000;0.5063;1.0634;
631.8000;0.5079;1.0683;
632.1000;0.5063;1.0708;
632.4000;0.5088;1.0833;
632.7000;0.5096;1.0808;
633.0000;0.5063;1.0658;
633.3000;0.5055;1.0658;
633.6000;0.5071;1.0634;
633.9000;0.5096;1.0683;
634.2000;0.5079;1.0683;
634.5000;0.5055;1.0683;
634.8000;0.5047;1.0609;
635.1000;0.5031;1.0584;
635.4000;0.5055;1.0484;
635.7000;0.5039;1.0509;
636.0000;0.5031;1.0534;
636.3000;0.5047;1.0658;
636.6000;0.5039;1.0658;
636.9000;0.5006;1.0559;
637.2000;0.5006;1.0609;
637.5000;0.5006;1.0658;
637.8000;0.4957;1.0459;
638.1000;0.4998;1.0484;
638.4000;0.4982;1.0484;
638.7000;0.4990;1.0509;
639.0000;0.4998;1.0484;
639.3000;0.5014;1.0559;
639.6000;0.4982;1.0559;
639.9000;0.4965;1.0634;
640.2000;0.4957;1.0609;
640.5000;0.4949;1.0658;
640.8000;0.4965;1.0658;
641.1000;0.4965;1.0534;
641.4000;0.4982;1.0609;
641.7000;0.4965;1.0509;
642.0000;0.4965;1.0584;
642.3000;0.4982;1.0584;
642.6000;0.4965;1.0634;
642.9000;0.4982;1.0708;
643.2000;0.4925;1.0584;
643.5000;0.4941;1.0634;
643.8000;0.5039;1.0883;
644.1000;0.4957;1.0708;
644.4000;0.4957;1.0708;
644.7000;0.4941;1.0658;
645.0000;0.4949;1.0658;
645.3000;0.4974;1.0733;
645.6000;0.4957;1.0634;
645.9000;0.4957;1.0634;
646.2000;0.4982;1.0658;
646.5000;0.4941;1.0584;
646.8000;0.4933;1.0534;
647.1000;0.4925;1.0534;
647.4000;0.4925;1.0683;
647.7000;0.4917;1.0708;
648.0000;0.4917;1.0634;
648.3000;0.4917;1.0584;
648.6000;0.4892;1.0484;
648.9000;0.4917;1.0584;
649.2000;0.4892;1.0609;
649.5000;0.4908;1.0609;
649.8000;0.4908;1.0534;
650.1000;0.4884;1.0459;
650.4000;0.4876;1.0509;
650.7000;0.4892;1.0584;
651.0000;0.4892;1.0609;
651.3000;0.4876;1.0658;
651.6000;0.4884;1.0733;
651.9000;0.4876;1.0758;
652.2000;0.4884;1.0708;
652.5000;0.4876;1.0783;
652.8000;0.4892;1.0708;
653.1000;0.4876;1.0658;
653.4000;0.4925;1.0658;
653.7000;0.4868;1.0509;
654.0000;0.4851;1.0534;
654.3000;0.4892;1.0559;
654.6000;0.4876;1.0609;
654.9000;0.4851;1.0534;
655.2000;0.4860;1.0634;
655.5000;0.4851;1.0509;
655.8000;0.4835;1.0509;
656.1000;0.4860;1.0509;
656.4000;0.4908;1.0609;
656.7000;0.4851;1.0509;
657.0000;0.4851;1.0509;
657.3000;0.4908;1.0683;
657.6000;0.4835;1.0509;
657.9000;0.4860;1.0634;
658.2000;0.4835;1.0584;
658.5000;0.4827;1.0534;
658.8000;0.4835;1.0584;
659.1000;0.4827;1.0609;
659.4000;0.4827;1.0509;
659.7000;0.4827;1.0459;
660.0000;0.4843;1.0509;
660.3000;0.4835;1.0534;
660.6000;0.4835;1.0484;
660.9000;0.4835;1.0509;
661.2000;0.4835;1.0609;
661.5000;0.4827;1.0634;
661.8000;0.4746;1.0459;
662.1000;0.4819;1.0658;
662.4000;0.4819;1.0634;
662.7000;0.4803;1.0609;
663.0000;0.4827;1.0658;
663.3000;0.4827;1.0683;
663.6000;0.4794;1.0609;
663.9000;0.4803;1.0658;
664.2000;0.4827;1.0658;
664.5000;0.4803;1.0584;
664.8000;0.4843;1.0683;
665.1000;0.4811;1.0609;
665.4000;0.4819;1.0584;
665.7000;0.4811;1.0509;
666.0000;0.4811;1.0559;
666.3000;0.4786;1.0459;
666.6000;0.4811;1.0484;
666.9000;0.4794;1.0534;
667.2000;0.4794;1.0484;
667.5000;0.4786;1.0459;
667.8000;0.4778;1.0434;
668.1000;0.4770;1.0434;
668.4000;0.4827;1.0609;
668.7000;0.4786;1.0509;
669.0000;0.4819;1.0584;
669.3000;0.4778;1.0534;
669.6000;0.4794;1.0609;
669.9000;0.4835;1.0658;
670.2000;0.4786;1.0509;
670.5000;0.4754;1.0534;
670.8000;0.4803;1.0509;
671.1000;0.4811;1.0584;
671.4000;0.4794;1.0559;
671.7000;0.4803;1.0634;
672.0000;0.4754;1.0459;
672.3000;0.4762;1.0434;
672.6000;0.4794;1.0584;
672.9000;0.4778;1.0584;
673.2000;0.4762;1.0559;
673.5000;0.4746;1.0509;
673.8000;0.4762;1.0484;
674.1000;0.4770;1.0534;
674.4000;0.4786;1.0658;
674.7000;0.4762;1.0584;
675.0000;0.4778;1.0584;
675.3000;0.4811;1.0783;
675.6000;0.4835;1.0708;
675.9000;0.4786;1.0484;
676.2000;0.4762;1.0484;
676.5000;0.4713;1.0409;
676.8000;0.4811;1.0634;
677.1000;0.4754;1.0609;
677.4000;0.4746;1.0584;
677.7000;0.4762;1.0559;
678.0000;0.4754;1.0534;
678.3000;0.4737;1.0534;
678.6000;0.4754;1.0509;
678.9000;0.4762;1.0534;
679.2000;0.4762;1.0534;
679.5000;0.4770;1.0584;
679.8000;0.4746;1.0509;
680.1000;0.4762;1.0534;
680.4000;0.4770;1.0509;
680.7000;0.4729;1.0484;
681.0000;0.4754;1.0559;
681.3000;0.4737;1.0509;
681.6000;0.4737;1.0584;
681.9000;0.4746;1.0609;
682.2000;0.4729;1.0584;
682.5000;0.4746;1.0634;
682.8000;0.4721;1.0584;
683.1000;0.4729;1.0459;
683.4000;0.4721;1.0434;
683.7000;0.4729;1.0484;
684.0000;0.4713;1.0459;
684.3000;0.4721;1.0509;
684.6000;0.4746;1.0609;
684.9000;0.4737;1.0584;
685.2000;0.4746;1.0584;
685.5000;0.4713;1.0609;
685.8000;0.4729;1.0683;
686.1000;0.4737;1.0733;
686.4000;0.4737;1.0683;
686.7000;0.4746;1.0658;
687.0000;0.4737;1.0634;
687.3000;0.4697;1.0534;
687.6000;0.4697;1.0509;
687.9000;0.4721;1.0634;
688.2000;0.4713;1.0609;
688.5000;0.4721;1.0634;
688.8000;0.4705;1.0658;
689.1000;0.4705;1.0683;
689.4000;0.4713;1.0658;
689.7000;0.4729;1.0758;
690.0000;0.4729;1.0808;
690.3000;0.4729;1.0733;
690.6000;0.4705;1.0708;
690.9000;0.4713;1.0634;
691.2000;0.4705;1.0634;
691.5000;0.4713;1.0658;
691.8000;0.4689;1.0609;
692.1000;0.4656;1.0534;
692.4000;0.4713;1.0708;
692.7000;0.4705;1.0658;
693.0000;0.4746;1.0808;
693.3000;0.4721;1.0833;
693.6000;0.4705;1.0932;
693.9000;0.4681;1.0858;
694.2000;0.4648;1.0559;
694.5000;0.4681;1.0708;
694.8000;0.4689;1.0708;
695.1000;0.4697;1.0808;
695.4000;0.4681;1.0808;
695.7000;0.4672;1.0683;
696.0000;0.4672;1.0733;
696.3000;0.4705;1.0932;
696.6000;0.4697;1.0932;
696.9000;0.4681;1.0858;
697.2000;0.4705;1.0833;
697.5000;0.4615;1.0459;
697.8000;0.4681;1.0584;
698.1000;0.4689;1.0634;
698.4000;0.4656;1.0534;
698.7000;0.4689;1.0584;
699.0000;0.4672;1.0534;
699.3000;0.4697;1.0634;
699.6000;0.4705;1.0683;
699.9000;0.4689;1.0683;
700.2000;0.4681;1.0808;
700.5000;0.4697;1.0808;
700.8000;0.4681;1.0833;
701.1000;0.4689;1.0883;
701.4000;0.4713;1.0932;
701.7000;0.4697;1.0883;
702.0000;0.4672;1.0783;
702.3000;0.4681;1.0808;
702.6000;0.4664;1.0783;
702.9000;0.4624;1.0658;
703.2000;0.4664;1.0833;
703.5000;0.4640;1.0833;
703.8000;0.4672;1.1007;
704.1000;0.4672;1.0908;
704.4000;0.4681;1.0883;
704.7000;0.4681;1.0908;
705.0000;0.4681;1.0932;
705.3000;0.4729;1.1132;
705.6000;0.4656;1.1007;
705.9000;0.4672;1.0982;
706.2000;0.4681;1.0982;
706.5000;0.4721;1.1032;
706.8000;0.4664;1.0858;
707.1000;0.4656;1.0808;
707.4000;0.4672;1.0883;
707.7000;0.4664;1.0833;
708.0000;0.4648;1.0808;
708.3000;0.4705;1.1007;
708.6000;0.4656;1.0858;
708.9000;0.4705;1.0957;
709.2000;0.4664;1.0858;
709.5000;0.4672;1.0858;
709.8000;0.4656;1.0957;
710.1000;0.4624;1.0908;
710.4000;0.4656;1.0982;
710.7000;0.4664;1.0883;
711.0000;0.4624;1.0808;
711.3000;0.4664;1.1082;
711.6000;0.4664;1.0982;
711.9000;0.4672;1.0883;
712.2000;0.4640;1.0808;
712.5000;0.4664;1.0858;
712.8000;0.4632;1.0783;
713.1000;0.4672;1.0808;
713.4000;0.4648;1.0609;
713.7000;0.4664;1.0634;
714.0000;0.4648;1.0683;
714.3000;0.4640;1.0733;
714.6000;0.4648;1.0808;
714.9000;0.4615;1.0683;
715.2000;0.4705;1.0982;
715.5000;0.4656;1.0957;
715.8000;0.4681;1.0957;
716.1000;0.4648;1.0733;
716.4000;0.4599;1.0634;
716.7000;0.4664;1.0808;
717.0000;0.4664;1.0833;
717.3000;0.4632;1.0733;
717.6000;0.4656;1.0683;
717.9000;0.4656;1.0683;
718.2000;0.4737;1.0858;
718.5000;0.4632;1.0609;
718.8000;0.4640;1.0708;
719.1000;0.4656;1.0683;
719.4000;0.4640;1.0733;
719.7000;0.4681;1.0808;
720.0000;0.4648;1.0658;
720.3000;0.4672;1.0758;
720.6000;0.4567;1.0559;
720.9000;0.4615;1.0733;
721.2000;0.4640;1.0758;
721.5000;0.4729;1.0982;
721.8000;0.4624;1.0708;
722.1000;0.4640;1.0708;
722.4000;0.4615;1.0634;
722.7000;0.4640;1.0758;
723.0000;0.4640;1.0758;
723.3000;0.4624;1.0658;
723.6000;0.4607;1.0634;
723.9000;0.4640;1.0634;
724.2000;0.4607;1.0658;
724.5000;0.4591;1.0683;
724.8000;0.4624;1.0708;
725.1000;0.4648;1.0658;
725.4000;0.4648;1.0708;
725.7000;0.4567;1.0634;
726.0000;0.4615;1.0783;
726.3000;0.4607;1.0808;
726.6000;0.4648;1.0908;
726.9000;0.4624;1.0932;
727.2000;0.4640;1.0908;
727.5000;0.4681;1.1132;
727.8000;0.4624;1.0932;
728.1000;0.4648;1.0957;
728.4000;0.4632;1.1007;
728.7000;0.4615;1.0957;
729.0000;0.4615;1.0957;
729.3000;0.4624;1.1057;
729.6000;0.4640;1.0982;
729.9000;0.4648;1.0833;
730.2000;0.4632;1.0858;
730.5000;0.4615;1.0833;
730.8000;0.4632;1.0808;
731.1000;0.4640;1.0783;
731.4000;0.4607;1.0708;
731.7000;0.4632;1.0808;
732.0000;0.4607;1.0808;
732.3000;0.4624;1.0708;
732.6000;0.4640;1.0758;
732.9000;0.4624;1.0708;
733.2000;0.4632;1.0783;
733.5000;0.4632;1.0833;
733.8000;0.4599;1.0733;
734.1000;0.4607;1.0708;
734.4000;0.4615;1.0833;
734.7000;0.4591;1.0783;
735.0000;0.4615;1.0883;
735.3000;0.4624;1.0957;
735.6000;0.4689;1.1057;
735.9000;0.4615;1.0808;
736.2000;0.4599;1.0808;
736.5000;0.4632;1.0808;
736.8000;0.4632;1.0883;
737.1000;0.4632;1.0883;
737.4000;0.4624;1.0783;
737.7000;0.4632;1.0833;
738.0000;0.4624;1.0808;
738.3000;0.4640;1.0883;
738.6000;0.4615;1.0858;
738.9000;0.4624;1.0908;
739.2000;0.4624;1.0957;
739.5000;0.4615;1.0982;
739.8000;0.4624;1.0883;
740.1000;0.4624;1.0783;
740.4000;0.4624;1.0808;
740.7000;0.4632;1.0808;
741.0000;0.4632;1.0883;
741.3000;0.4624;1.0883;
741.6000;0.4615;1.0858;
741.9000;0.4607;1.0858;
742.2000;0.4615;1.0908;
742.5000;0.4624;1.0858;
742.8000;0.4615;1.0783;
743.1000;0.4624;1.0783;
743.4000;0.4607;1.0683;
743.7000;0.4632;1.0783;
744.0000;0.4599;1.0708;
744.3000;0.4599;1.0858;
744.6000;0.4624;1.0957;
744.9000;0.4607;1.0932;
745.2000;0.4599;1.0883;
745.5000;0.4640;1.1007;
745.8000;0.4607;1.0982;
746.1000;0.4599;1.1057;
746.4000;0.4583;1.1007;
746.7000;0.4567;1.0858;
747.0000;0.4591;1.0883;
747.3000;0.4567;1.0808;
747.6000;0.4607;1.0883;
747.9000;0.4591;1.0908;
748.2000;0.4607;1.1007;
748.5000;0.4648;1.1132;
748.8000;0.4567;1.0883;
749.1000;0.4599;1.0932;
749.4000;0.4624;1.0982;
749.7000;0.4615;1.1032;
750.0000;0.4599;1.0932;
750.3000;0.4697;1.1181;
750.6000;0.4607;1.0833;
750.9000;0.4607;1.0833;
751.2000;0.4607;1.0808;
751.5000;0.4607;1.0908;
751.8000;0.4615;1.0932;
752.1000;0.4607;1.0982;
752.4000;0.4615;1.0982;
752.7000;0.4591;1.0883;
753.0000;0.4624;1.0957;
753.3000;0.4599;1.0908;
753.6000;0.4607;1.1007;
753.9000;0.4607;1.1007;
754.2000;0.4583;1.0982;
754.5000;0.4591;1.0957;
754.8000;0.4615;1.1032;
755.1000;0.4607;1.1007;
755.4000;0.4599;1.0957;
755.7000;0.4599;1.0982;
756.0000;0.4607;1.1057;
756.3000;0.4607;1.1082;
756.6000;0.4591;1.1082;
756.9000;0.4615;1.1132;
757.2000;0.4624;1.1132;
757.5000;0.4583;1.1157;
757.8000;0.4615;1.1231;
758.1000;0.4624;1.1331;
758.4000;0.4591;1.1181;
758.7000;0.4607;1.1132;
759.0000;0.4607;1.1107;
759.3000;0.4583;1.1132;
759.6000;0.4583;1.1157;
759.9000;0.4591;1.1132;
760.2000;0.4575;1.1157;
760.5000;0.4583;1.1032;
760.8000;0.4599;1.1082;
761.1000;0.4607;1.1057;
761.4000;0.4550;1.0908;
761.7000;0.4575;1.0982;
762.0000;0.4591;1.0908;
762.3000;0.4607;1.0957;
762.6000;0.4599;1.0932;
762.9000;0.4672;1.1181;
763.2000;0.4599;1.0982;
763.5000;0.4567;1.0758;
763.8000;0.4591;1.0858;
764.1000;0.4607;1.1007;
764.4000;0.4534;1.0758;
764.7000;0.4575;1.0932;
765.0000;0.4575;1.0932;
765.3000;0.4599;1.1057;
765.6000;0.4591;1.1107;
765.9000;0.4591;1.1082;
766.2000;0.4591;1.1057;
766.5000;0.4550;1.0957;
766.8000;0.4575;1.1107;
767.1000;0.4591;1.1157;
767.4000;0.4599;1.1157;
767.7000;0.4591;1.1032;
768.0000;0.4624;1.1181;
768.3000;0.4567;1.1032;
768.6000;0.4567;1.1032;
768.9000;0.4583;1.1032;
769.2000;0.4575;1.1057;
769.5000;0.4583;1.1057;
769.8000;0.4583;1.1057;
770.1000;0.4583;1.1057;
770.4000;0.4583;1.1082;
770.7000;0.4583;1.1132;
771.0000;0.4575;1.1132;
771.3000;0.4575;1.1107;
771.6000;0.4575;1.0982;
771.9000;0.4583;1.1107;
772.2000;0.4567;1.1007;
772.5000;0.4591;1.1007;
772.8000;0.4591;1.0957;
773.1000;0.4575;1.0982;
773.4000;0.4583;1.0957;
773.7000;0.4591;1.0932;
774.0000;0.4591;1.0932;
774.3000;0.4583;1.0908;
774.6000;0.4583;1.0858;
774.9000;0.4567;1.0908;
775.2000;0.4575;1.1082;
775.5000;0.4583;1.1107;
775.8000;0.4567;1.1007;
776.1000;0.4567;1.0957;
776.4000;0.4591;1.0957;
776.7000;0.4583;1.0982;
777.0000;0.4558;1.0957;
777.3000;0.4550;1.0957;
777.6000;0.4583;1.1007;
777.9000;0.4575;1.1082;
778.2000;0.4558;1.1007;
778.5000;0.4567;1.0957;
778.8000;0.4567;1.0932;
779.1000;0.4558;1.0982;
779.4000;0.4567;1.0883;
779.7000;0.4567;1.0932;
780.0000;0.4567;1.0858;
780.3000;0.4575;1.0908;
780.6000;0.4558;1.0858;
780.9000;0.4550;1.0908;
781.2000;0.4583;1.0982;
781.5000;0.4575;1.0982;
781.8000;0.4599;1.1007;
782.1000;0.4567;1.0883;
782.4000;0.4558;1.0808;
782.7000;0.4493;1.0609;
783.0000;0.4583;1.0858;
783.3000;0.4558;1.0808;
783.6000;0.4567;1.0833;
783.9000;0.4591;1.0982;
784.2000;0.4542;1.0957;
784.5000;0.4567;1.1057;
784.8000;0.4550;1.1057;
785.1000;0.4558;1.1057;
785.4000;0.4542;1.0932;
785.7000;0.4567;1.0982;
786.0000;0.4591;1.1032;
786.3000;0.4664;1.1281;
786.6000;0.4575;1.1057;
786.9000;0.4567;1.0982;
787.2000;0.4575;1.0932;
787.5000;0.4534;1.0883;
787.8000;0.4591;1.0982;
788.1000;0.4534;1.0858;
788.4000;0.4518;1.0758;
788.7000;0.4567;1.0908;
789.0000;0.4558;1.0908;
789.3000;0.4526;1.0833;
789.6000;0.4640;1.1181;
789.9000;0.4550;1.0908;
790.2000;0.4550;1.0957;
790.5000;0.4567;1.1057;
790.8000;0.4575;1.1082;
791.1000;0.4575;1.0957;
791.4000;0.4583;1.0883;
791.7000;0.4591;1.0957;
792.0000;0.4640;1.1157;
792.3000;0.4591;1.0858;
792.6000;0.4542;1.0733;
792.9000;0.4575;1.0957;
793.2000;0.4567;1.1082;
793.5000;0.4550;1.1107;
793.8000;0.4591;1.1206;
794.1000;0.4583;1.1206;
794.4000;0.4567;1.1157;
794.7000;0.4567;1.1157;
795.0000;0.4575;1.1107;
795.3000;0.4583;1.1107;
795.6000;0.4583;1.1007;
795.9000;0.4534;1.0858;
796.2000;0.4575;1.0982;
796.5000;0.4583;1.0957;
796.8000;0.4583;1.0957;
797.1000;0.4567;1.1032;
797.4000;0.4575;1.1132;
797.7000;0.4567;1.1082;
798.0000;0.4558;1.1032;
798.3000;0.4575;1.1082;
798.6000;0.4558;1.0982;
798.9000;0.4558;1.1007;
799.2000;0.4518;1.0908;
799.5000;0.4558;1.1107;
799.8000;0.4591;1.1181;
800.1000;0.4575;1.1157;
800.4000;0.4575;1.1132;
800.7000;0.4575;1.1157;
801.0000;0.4558;1.1231;
801.3000;0.4558;1.1157;
801.6000;0.4567;1.1181;
801.9000;0.4591;1.1281;
802.2000;0.4542;1.1206;
802.5000;0.4558;1.1132;
802.8000;0.4501;1.0957;
803.1000;0.4534;1.1057;
803.4000;0.4558;1.1132;
803.7000;0.4550;1.1107;
804.0000;0.4542;1.1082;
804.3000;0.4567;1.1082;
804.6000;0.4550;1.0982;
804.9000;0.4607;1.1132;
805.2000;0.4558;1.1057;
805.5000;0.4575;1.1082;
805.8000;0.4567;1.1132;
806.1000;0.4567;1.1132;
806.4000;0.4558;1.1157;
806.7000;0.4567;1.1132;
807.0000;0.4542;1.1082;
807.3000;0.4469;1.0908;
807.6000;0.4558;1.1082;
807.9000;0.4567;1.1132;
808.2000;0.4534;1.1107;
808.5000;0.4558;1.1206;
808.8000;0.4567;1.1256;
809.1000;0.4558;1.1206;
809.4000;0.4575;1.1306;
809.7000;0.4558;1.1231;
810.0000;0.4558;1.1132;
810.3000;0.4550;1.1107;
810.6000;0.4542;1.1107;
810.9000;0.4558;1.1157;
811.2000;0.4550;1.1231;
811.5000;0.4542;1.1082;
811.8000;0.4591;1.1256;
812.1000;0.4542;1.1157;
812.4000;0.4681;1.1455;
812.7000;0.4550;1.1107;
813.0000;0.4534;1.1057;
813.3000;0.4550;1.1032;
813.6000;0.4534;1.1032;
813.9000;0.4558;1.1082;
814.2000;0.4542;1.1057;
814.5000;0.4550;1.1057;
814.8000;0.4534;1.1107;
815.1000;0.4534;1.1082;
815.4000;0.4510;1.1032;
815.7000;0.4542;1.1082;
816.0000;0.4558;1.0982;
816.3000;0.4526;1.0982;
816.6000;0.4542;1.1032;
816.9000;0.4526;1.1007;
817.2000;0.4558;1.1057;
817.5000;0.4550;1.1082;
817.8000;0.4550;1.1157;
818.1000;0.4510;1.1107;
818.4000;0.4567;1.1206;
818.7000;0.4550;1.1231;
819.0000;0.4567;1.1231;
819.3000;0.4558;1.1256;
819.6000;0.4542;1.1206;
819.9000;0.4583;1.1381;
820.2000;0.4542;1.1231;
820.5000;0.4526;1.1206;
820.8000;0.4501;1.1157;
821.1000;0.4542;1.1206;
821.4000;0.4526;1.1181;
821.7000;0.4518;1.1132;
822.0000;0.4550;1.1181;
822.3000;0.4550;1.1181;
822.6000;0.4518;1.1082;
822.9000;0.4558;1.1181;
823.2000;0.4534;1.1157;
823.5000;0.4550;1.1107;
823.8000;0.4542;1.0982;
824.1000;0.4575;1.1032;
824.4000;0.4526;1.0908;
824.7000;0.4534;1.0957;
825.0000;0.4493;1.0908;
825.3000;0.4534;1.1057;
825.6000;0.4534;1.1032;
825.9000;0.4510;1.1032;
826.2000;0.4550;1.1132;
826.5000;0.4534;1.1107;
826.8000;0.4599;1.1157;
827.1000;0.4526;1.1007;
827.4000;0.4526;1.1082;
827.7000;0.4558;1.1107;
828.0000;0.4526;1.1032;
828.3000;0.4558;1.1082;
828.6000;0.4558;1.1082;
828.9000;0.4575;1.1132;
829.2000;0.4534;1.1107;
829.5000;0.4526;1.1082;
829.8000;0.4558;1.0982;
830.1000;0.4534;1.1007;
830.4000;0.4526;1.0957;
830.7000;0.4542;1.1032;
831.0000;0.4542;1.1057;
831.3000;0.4567;1.1132;
831.6000;0.4550;1.1107;
831.9000;0.4575;1.1256;
832.2000;0.4550;1.1281;
832.5000;0.4550;1.1356;
832.8000;0.4558;1.1256;
833.1000;0.4526;1.1157;
833.4000;0.4550;1.1181;
833.7000;0.4542;1.1082;
834.0000;0.4558;1.1032;
834.3000;0.4469;1.0858;
834.6000;0.4567;1.1107;
834.9000;0.4526;1.1082;
835.2000;0.4501;1.1032;
835.5000;0.4567;1.1206;
835.8000;0.4534;1.1107;
836.1000;0.4534;1.1132;
836.4000;0.4550;1.1082;
836.7000;0.4550;1.0957;
837.0000;0.4542;1.0982;
837.3000;0.4542;1.1007;
837.6000;0.4542;1.1057;
837.9000;0.4542;1.1032;
838.2000;0.4510;1.0982;
838.5000;0.4493;1.0957;
838.8000;0.4518;1.1032;
839.1000;0.4542;1.1082;
839.4000;0.4567;1.1107;
839.7000;0.4534;1.0932;
840.0000;0.4526;1.0957;
840.3000;0.4534;1.0908;
840.6000;0.4534;1.1032;
840.9000;0.4518;1.1057;
841.2000;0.4526;1.1057;
841.5000;0.4542;1.1032;
841.8000;0.4567;1.1007;
842.1000;0.4534;1.0908;
842.4000;0.4526;1.0858;
842.7000;0.4534;1.0908;
843.0000;0.4526;1.0808;
843.3000;0.4542;1.0833;
843.6000;0.4526;1.0758;
843.9000;0.4534;1.0808;
844.2000;0.4526;1.0758;
844.5000;0.4542;1.0708;
844.8000;0.4534;1.0808;
845.1000;0.4558;1.0833;
845.4000;0.4550;1.0957;
845.7000;0.4550;1.1007;
846.0000;0.4534;1.0908;
846.3000;0.4550;1.0932;
846.6000;0.4550;1.0932;
846.9000;0.4501;1.0733;
847.2000;0.4534;1.0883;
847.5000;0.4567;1.0908;
847.8000;0.4558;1.0833;
848.1000;0.4567;1.0908;
848.4000;0.4550;1.0858;
848.7000;0.4526;1.0808;
849.0000;0.4534;1.0783;
849.3000;0.4534;1.0708;
849.6000;0.4534;1.0708;
849.9000;0.4526;1.0708;
850.2000;0.4518;1.0683;
850.5000;0.4526;1.0758;
850.8000;0.4518;1.0683;
851.1000;0.4518;1.0634;
851.4000;0.4534;1.0609;
851.7000;0.4518;1.0534;
852.0000;0.4518;1.0584;
852.3000;0.4526;1.0634;
852.6000;0.4534;1.0708;
852.9000;0.4542;1.0658;
853.2000;0.4526;1.0708;
853.5000;0.4510;1.0683;
853.8000;0.4526;1.0708;
854.1000;0.4526;1.0683;
854.4000;0.4518;1.0783;
854.7000;0.4518;1.0808;
855.0000;0.4534;1.0808;
855.3000;0.4518;1.0783;
855.6000;0.4510;1.0758;
855.9000;0.4518;1.0808;
856.2000;0.4526;1.0908;
856.5000;0.4510;1.0932;
856.8000;0.4526;1.0858;
857.1000;0.4518;1.0858;
857.4000;0.4501;1.0783;
857.7000;0.4526;1.0908;
858.0000;0.4542;1.0982;
858.3000;0.4469;1.0858;
858.6000;0.4526;1.1032;
858.9000;0.4518;1.1057;
859.2000;0.4510;1.1082;
859.5000;0.4534;1.1057;
859.8000;0.4518;1.1007;
860.1000;0.4518;1.1007;
860.4000;0.4518;1.0957;
860.7000;0.4526;1.1032;
861.0000;0.4526;1.1057;
861.3000;0.4510;1.1007;
861.6000;0.4518;1.0957;
861.9000;0.4510;1.0932;
862.2000;0.4518;1.0908;
862.5000;0.4550;1.0908;
862.8000;0.4534;1.0858;
863.1000;0.4542;1.0808;
863.4000;0.4526;1.0758;
863.7000;0.4542;1.0783;
864.0000;0.4518;1.0733;
864.3000;0.4534;1.0808;
864.6000;0.4542;1.0833;
864.9000;0.4518;1.0808;
865.2000;0.4542;1.0808;
865.5000;0.4542;1.0883;
865.8000;0.4428;1.0658;
866.1000;0.4534;1.0957;
866.4000;0.4501;1.0932;
866.7000;0.4526;1.0957;
867.0000;0.4534;1.1057;
867.3000;0.4518;1.1057;
867.6000;0.4534;1.1132;
867.9000;0.4534;1.1107;
868.2000;0.4534;1.1107;
868.5000;0.4558;1.1157;
868.8000;0.4510;1.1007;
869.1000;0.4518;1.1082;
869.4000;0.4526;1.1107;
869.7000;0.4534;1.1082;
870.0000;0.4526;1.1032;
870.3000;0.4542;1.1107;
870.6000;0.4526;1.1032;
870.9000;0.4526;1.1057;
871.2000;0.4518;1.1132;
871.5000;0.4518;1.1132;
871.8000;0.4534;1.1181;
872.1000;0.4534;1.1082;
872.4000;0.4526;1.1032;
872.7000;0.4501;1.0982;
873.0000;0.4518;1.1057;
873.3000;0.4567;1.1181;
873.6000;0.4518;1.0982;
873.9000;0.4501;1.0957;
874.2000;0.4436;1.0833;
874.5000;0.4518;1.0957;
874.8000;0.4526;1.0982;
875.1000;0.4542;1.0908;
875.4000;0.4518;1.0808;
875.7000;0.4510;1.0858;
876.0000;0.4510;1.0908;
876.3000;0.4534;1.0982;
876.6000;0.4510;1.1007;
876.9000;0.4526;1.1007;
877.2000;0.4518;1.1032;
877.5000;0.4526;1.1032;
877.8000;0.4526;1.1007;
878.1000;0.4550;1.0982;
878.4000;0.4567;1.1107;
878.7000;0.4534;1.1107;
879.0000;0.4583;1.1256;
879.3000;0.4510;1.0957;
879.6000;0.4567;1.1157;
879.9000;0.4534;1.1032;
880.2000;0.4542;1.1032;
880.5000;0.4526;1.0957;
880.8000;0.4526;1.1007;
881.1000;0.4510;1.1032;
881.4000;0.4558;1.1157;
881.7000;0.4501;1.1057;
882.0000;0.4518;1.1132;
882.3000;0.4510;1.1107;
882.6000;0.4501;1.1032;
882.9000;0.4518;1.1032;
883.2000;0.4453;1.0808;
883.5000;0.4526;1.0982;
883.8000;0.4510;1.0932;
884.1000;0.4526;1.0932;
884.4000;0.4420;1.0733;
884.7000;0.4510;1.0982;
885.0000;0.4518;1.1107;
885.3000;0.4469;1.1057;
885.6000;0.4420;1.0858;
885.9000;0.4510;1.1007;
886.2000;0.4493;1.0932;
886.5000;0.4518;1.1007;
886.8000;0.4510;1.1107;
887.1000;0.4510;1.1107;
887.4000;0.4550;1.1256;
887.7000;0.4493;1.1082;
888.0000;0.4526;1.1206;
888.3000;0.4510;1.1206;
888.6000;0.4510;1.1157;
888.9000;0.4518;1.1132;
889.2000;0.4501;1.1206;
889.5000;0.4461;1.1132;
889.8000;0.4542;1.1206;
890.1000;0.4461;1.1007;
890.4000;0.4526;1.1157;
890.7000;0.4493;1.1107;
891.0000;0.4501;1.1082;
891.3000;0.4510;1.1007;
891.6000;0.4518;1.1007;
891.9000;0.4493;1.0883;
892.2000;0.4493;1.0932;
892.5000;0.4518;1.0957;
892.8000;0.4510;1.0908;
893.1000;0.4510;1.0908;
893.4000;0.4542;1.0982;
893.7000;0.4518;1.1032;
894.0000;0.4518;1.0932;
894.3000;0.4501;1.0883;
894.6000;0.4518;1.0908;
894.9000;0.4493;1.0883;
895.2000;0.4510;1.0932;
895.5000;0.4501;1.1007;
895.8000;0.4501;1.0932;
896.1000;0.4510;1.0908;
896.4000;0.4485;1.0908;
896.7000;0.4501;1.0858;
897.0000;0.4501;1.0783;
897.3000;0.4510;1.0833;
897.6000;0.4493;1.0833;
897.9000;0.4526;1.0908;
898.2000;0.4510;1.0883;
898.5000;0.4501;1.0758;
898.8000;0.4501;1.0833;
899.1000;0.4526;1.0908;
899.4000;0.4453;1.0683;
899.7000;0.4510;1.0833;
900.0000;0.4510;1.0758;
900.3000;0.4518;1.0733;
900.6000;0.4493;1.0658;
900.9000;0.4428;1.0459;
901.2000;0.4493;1.0683;
901.5000;0.4493;1.0683;
901.8000;0.4477;1.0634;
902.1000;0.4501;1.0634;
902.4000;0.4510;1.0609;
902.7000;0.4518;1.0584;
903.0000;0.4510;1.0658;
903.3000;0.4510;1.0758;
903.6000;0.4542;1.0932;
903.9000;0.4510;1.0858;
904.2000;0.4534;1.0783;
904.5000;0.4493;1.0733;
904.8000;0.4542;1.0883;
905.1000;0.4518;1.0858;
905.4000;0.4396;1.0708;
905.7000;0.4453;1.0833;
906.0000;0.4510;1.0982;
906.3000;0.4510;1.1007;
906.6000;0.4510;1.0982;
906.9000;0.4453;1.0783;
907.2000;0.4485;1.0883;
907.5000;0.4428;1.0683;
907.8000;0.4558;1.1032;
908.1000;0.4501;1.0883;
908.4000;0.4526;1.0883;
908.7000;0.4493;1.0833;
909.0000;0.4534;1.0932;
909.3000;0.4510;1.0957;
909.6000;0.4493;1.0858;
909.9000;0.4493;1.0908;
910.2000;0.4501;1.0932;
910.5000;0.4501;1.0957;
910.8000;0.4510;1.1032;
911.1000;0.4485;1.0883;
911.4000;0.4542;1.0957;
911.7000;0.4493;1.0833;
912.0000;0.4485;1.0858;
912.3000;0.4477;1.0808;
912.6000;0.4510;1.0908;
912.9000;0.4501;1.0883;
913.2000;0.4501;1.0908;
913.5000;0.4510;1.0883;
913.8000;0.4501;1.0883;
914.1000;0.4510;1.1007;
914.4000;0.4534;1.1107;
914.7000;0.4510;1.0957;
915.0000;0.4501;1.0932;
915.3000;0.4501;1.0957;
915.6000;0.4518;1.1007;
915.9000;0.4510;1.0982;
916.2000;0.4510;1.1032;
916.5000;0.4518;1.1007;
916.8000;0.4518;1.1007;
917.1000;0.4518;1.1007;
917.4000;0.4501;1.0932;
917.7000;0.4518;1.0858;
918.0000;0.4501;1.0808;
918.3000;0.4526;1.0858;
918.6000;0.4510;1.0858;
918.9000;0.4518;1.1057;
919.2000;0.4501;1.1057;
919.5000;0.4526;1.1082;
919.8000;0.4461;1.0908;
920.1000;0.4444;1.0808;
920.4000;0.4485;1.0932;
920.7000;0.4493;1.0833;
921.0000;0.4436;1.0783;
921.3000;0.4477;1.0833;
921.6000;0.4485;1.0833;
921.9000;0.4493;1.0808;
922.2000;0.4534;1.0908;
922.5000;0.4501;1.0708;
922.8000;0.4493;1.0584;
923.1000;0.4526;1.0683;
923.4000;0.4501;1.0708;
923.7000;0.4493;1.0708;
924.0000;0.4518;1.0833;
924.3000;0.4518;1.0833;
924.6000;0.4510;1.0808;
924.9000;0.4501;1.0833;
925.2000;0.4518;1.0883;
925.5000;0.4501;1.0908;
925.8000;0.4461;1.0858;
926.1000;0.4501;1.0957;
926.4000;0.4485;1.0932;
926.7000;0.4501;1.0858;
927.0000;0.4510;1.0908;
927.3000;0.4518;1.0932;
927.6000;0.4485;1.0808;
927.9000;0.4510;1.0982;
928.2000;0.4501;1.0908;
928.5000;0.4469;1.0858;
928.8000;0.4501;1.0932;
929.1000;0.4501;1.1032;
929.4000;0.4534;1.1107;
929.7000;0.4501;1.1082;
930.0000;0.4485;1.0982;
930.3000;0.4501;1.1082;
930.6000;0.4534;1.1132;
930.9000;0.4485;1.1057;
931.2000;0.4485;1.1032;
931.5000;0.4501;1.1082;
931.8000;0.4518;1.1082;
932.1000;0.4526;1.1132;
932.4000;0.4485;1.0932;
932.7000;0.4493;1.0932;
933.0000;0.4493;1.0932;
933.3000;0.4501;1.0908;
933.6000;0.4501;1.0833;
933.9000;0.4493;1.0808;
934.2000;0.4493;1.0833;
934.5000;0.4510;1.0833;
934.8000;0.4493;1.0758;
935.1000;0.4510;1.0733;
935.4000;0.4444;1.0509;
935.7000;0.4501;1.0658;
936.0000;0.4542;1.0683;
936.3000;0.4477;1.0509;
936.6000;0.4534;1.0683;
936.9000;0.4526;1.0683;
937.2000;0.4501;1.0683;
937.5000;0.4469;1.0509;
937.8000;0.4501;1.0683;
938.1000;0.4485;1.0758;
938.4000;0.4501;1.0908;
938.7000;0.4493;1.0858;
939.0000;0.4485;1.0833;
939.3000;0.4493;1.0883;
939.6000;0.4534;1.0982;
939.9000;0.4493;1.0908;
940.2000;0.4485;1.0982;
940.5000;0.4493;1.1057;
940.8000;0.4493;1.0982;
941.1000;0.4469;1.0908;
941.4000;0.4477;1.0908;
941.7000;0.4510;1.0932;
942.0000;0.4501;1.0957;
942.3000;0.4477;1.0858;
942.6000;0.4518;1.0833;
942.9000;0.4493;1.0783;
943.2000;0.4501;1.0783;
943.5000;0.4518;1.0833;
943.8000;0.4501;1.0858;
944.1000;0.4485;1.0883;
944.4000;0.4510;1.0932;
944.7000;0.4501;1.0908;
945.0000;0.4493;1.0758;
945.3000;0.4493;1.0733;
945.6000;0.4501;1.0932;
945.9000;0.4501;1.1057;
946.2000;0.4501;1.1082;
946.5000;0.4501;1.1057;
946.8000;0.4485;1.1007;
947.1000;0.4485;1.1007;
947.4000;0.4461;1.0982;
947.7000;0.4485;1.1132;
948.0000;0.4501;1.1157;
948.3000;0.4510;1.1132;
948.6000;0.4485;1.1032;
948.9000;0.4469;1.0957;
949.2000;0.4542;1.1181;
949.5000;0.4510;1.1007;
949.8000;0.4510;1.1032;
950.1000;0.4510;1.0982;
950.4000;0.4501;1.0982;
950.7000;0.4493;1.1032;
951.0000;0.4518;1.1082;
951.3000;0.4518;1.1007;
951.6000;0.4501;1.0932;
951.9000;0.4493;1.1007;
952.2000;0.4501;1.1057;
952.5000;0.4493;1.1007;
952.8000;0.4485;1.0932;
953.1000;0.4501;1.0883;
953.4000;0.4501;1.0908;
953.7000;0.4501;1.0858;
954.0000;0.4493;1.0808;
954.3000;0.4477;1.0808;
954.6000;0.4493;1.0858;
954.9000;0.4510;1.0858;
955.2000;0.4518;1.0932;
955.5000;0.4493;1.0883;
955.8000;0.4518;1.0908;
956.1000;0.4510;1.0883;
956.4000;0.4477;1.0733;
956.7000;0.4510;1.0858;
957.0000;0.4501;1.0808;
957.3000;0.4534;1.0858;
957.6000;0.4493;1.0833;
957.9000;0.4469;1.0783;
958.2000;0.4477;1.0733;
958.5000;0.4510;1.0833;
958.8000;0.4510;1.0858;
959.1000;0.4485;1.0758;
959.4000;0.4518;1.0883;
959.7000;0.4510;1.0982;
960.0000;0.4510;1.1032;
960.3000;0.4510;1.1032;
960.6000;0.4493;1.0982;
960.9000;0.4493;1.0957;
961.2000;0.4501;1.1057;
961.5000;0.4493;1.1082;
961.8000;0.4477;1.1082;
962.1000;0.4493;1.1007;
962.4000;0.4510;1.0982;
962.7000;0.4501;1.1007;
963.0000;0.4436;1.0883;
963.3000;0.4453;1.0908;
963.6000;0.4510;1.1082;
963.9000;0.4518;1.1181;
964.2000;0.4485;1.1132;
964.5000;0.4501;1.1206;
964.8000;0.4501;1.1206;
965.1000;0.4510;1.1181;
965.4000;0.4526;1.1281;
965.7000;0.4510;1.1157;
966.0000;0.4501;1.1082;
966.3000;0.4599;1.1256;
966.6000;0.4493;1.0908;
966.9000;0.4501;1.0883;
967.2000;0.4485;1.0883;
967.5000;0.4510;1.0932;
967.8000;0.4501;1.1007;
968.1000;0.4493;1.1007;
968.4000;0.4501;1.1057;
968.7000;0.4485;1.1057;
969.0000;0.4485;1.1082;
969.3000;0.4485;1.1057;
969.6000;0.4485;1.1007;
969.9000;0.4485;1.1007;
970.2000;0.4485;1.0982;
970.5000;0.4485;1.1032;
970.8000;0.4477;1.1082;
971.1000;0.4493;1.1132;
971.4000;0.4550;1.1356;
971.7000;0.4493;1.1132;
972.0000;0.4485;1.1082;
972.3000;0.4477;1.1107;
972.6000;0.4485;1.1082;
972.9000;0.4493;1.0982;
973.2000;0.4469;1.0957;
973.5000;0.4501;1.1082;
973.8000;0.4510;1.1181;
974.1000;0.4501;1.1132;
974.4000;0.4501;1.1032;
974.7000;0.4493;1.0982;
975.0000;0.4493;1.0908;
975.3000;0.4444;1.0733;
975.6000;0.4510;1.0808;
975.9000;0.4501;1.0858;
976.2000;0.4501;1.0808;
976.5000;0.4501;1.0883;
976.8000;0.4501;1.0883;
977.1000;0.4501;1.0783;
977.4000;0.4518;1.0833;
977.7000;0.4485;1.0883;
978.0000;0.4477;1.0883;
978.3000;0.4493;1.0932;
978.6000;0.4469;1.0808;
978.9000;0.4485;1.0833;
979.2000;0.4558;1.1032;
979.5000;0.4485;1.0783;
979.8000;0.4493;1.0908;
980.1000;0.4501;1.0982;
980.4000;0.4485;1.0858;
980.7000;0.4477;1.0808;
981.0000;0.4526;1.0883;
981.3000;0.4493;1.0808;
981.6000;0.4501;1.0808;
981.9000;0.4485;1.0833;
982.2000;0.4485;1.0858;
982.5000;0.4461;1.0783;
982.8000;0.4453;1.0658;
983.1000;0.4485;1.0733;
983.4000;0.4501;1.0733;
983.7000;0.4501;1.0658;
984.0000;0.4583;1.0883;
984.3000;0.4493;1.0584;
984.6000;0.4477;1.0534;
984.9000;0.4485;1.0584;
985.2000;0.4510;1.0634;
985.5000;0.4501;1.0658;
985.8000;0.4501;1.0683;
986.1000;0.4493;1.0683;
986.4000;0.4493;1.0609;
986.7000;0.4534;1.0683;
987.0000;0.4485;1.0683;
987.3000;0.4469;1.0658;
987.6000;0.4485;1.0758;
987.9000;0.4501;1.0808;
988.2000;0.4510;1.0833;
988.5000;0.4493;1.0883;
988.8000;0.4493;1.0957;
989.1000;0.4493;1.1032;
989.4000;0.4485;1.1007;
989.7000;0.4469;1.1007;
990.0000;0.4477;1.0932;
990.3000;0.4420;1.0733;
990.6000;0.4493;1.0833;
990.9000;0.4477;1.0708;
991.2000;0.4485;1.0733;
991.5000;0.4493;1.0858;
991.8000;0.4518;1.0908;
992.1000;0.4477;1.0858;
992.4000;0.4461;1.0858;
992.7000;0.4469;1.0833;
993.0000;0.4477;1.0808;
993.3000;0.4493;1.0932;
993.6000;0.4469;1.0908;
993.9000;0.4477;1.0982;
994.2000;0.4469;1.0883;
994.5000;0.4493;1.0858;
994.8000;0.4461;1.0733;
995.1000;0.4477;1.0833;
995.4000;0.4485;1.0833;
995.7000;0.4444;1.0683;
996.0000;0.4493;1.0758;
996.3000;0.4477;1.0758;
996.6000;0.4477;1.0658;
996.9000;0.4485;1.0658;
997.2000;0.4510;1.0858;
997.5000;0.4493;1.0858;
997.8000;0.4469;1.0808;
998.1000;0.4477;1.0858;
998.4000;0.4518;1.0957;
998.7000;0.4485;1.0858;
999.0000;0.4493;1.0858;
999.3000;0.4477;1.0833;
999.6000;0.4501;1.0908;
999.9000;0.4485;1.0932;
1000.2000;0.4493;1.1007;
1000.5000;0.4501;1.1057;
1000.8000;0.4501;1.1082;
1001.1000;0.4501;1.1057;
1001.4000;0.4485;1.1007;
1001.7000;0.4477;1.0908;
1002.0000;0.4493;1.0908;
1002.3000;0.4461;1.0708;
1002.6000;0.4477;1.0783;
1002.9000;0.4485;1.0858;
1003.2000;0.4469;1.0932;
1003.5000;0.4469;1.0908;
1003.8000;0.4469;1.0932;
1004.1000;0.4485;1.0908;
1004.4000;0.4493;1.0957;
1004.7000;0.4493;1.0957;
1005.0000;0.4477;1.0858;
1005.3000;0.4493;1.0833;
1005.6000;0.4542;1.1007;
1005.9000;0.4453;1.0883;
1006.2000;0.4477;1.0932;
1006.5000;0.4485;1.0957;
1006.8000;0.4493;1.0982;
1007.1000;0.4485;1.1057;
1007.4000;0.4485;1.1057;
1007.7000;0.4453;1.1032;
1008.0000;0.4412;1.0908;
1008.3000;0.4477;1.1057;
1008.6000;0.4469;1.1007;
1008.9000;0.4493;1.1007;
1009.2000;0.4501;1.0957;
1009.5000;0.4518;1.0982;
1009.8000;0.4510;1.0932;
1010.1000;0.4469;1.0833;
1010.4000;0.4510;1.0957;
1010.7000;0.4485;1.0908;
1011.0000;0.4477;1.0858;
1011.3000;0.4485;1.0908;
1011.6000;0.4485;1.0883;
1011.9000;0.4461;1.0758;
1012.2000;0.4510;1.0908;
1012.5000;0.4493;1.0833;
1012.8000;0.4469;1.0758;
1013.1000;0.4453;1.0758;
1013.4000;0.4501;1.0758;
1013.7000;0.4493;1.0658;
1014.0000;0.4428;1.0509;
1014.3000;0.4477;1.0534;
1014.6000;0.4485;1.0584;
1014.9000;0.4469;1.0509;
1015.2000;0.4534;1.0559;
1015.5000;0.4493;1.0434;
1015.8000;0.4510;1.0459;
1016.1000;0.4485;1.0434;
1016.4000;0.4477;1.0484;
1016.7000;0.4477;1.0634;
1017.0000;0.4485;1.0683;
1017.3000;0.4485;1.0658;
1017.6000;0.4469;1.0658;
1017.9000;0.4485;1.0783;
1018.2000;0.4477;1.0683;
1018.5000;0.4485;1.0658;
1018.8000;0.4485;1.0683;
1019.1000;0.4518;1.0758;
1019.4000;0.4469;1.0733;
1019.7000;0.4485;1.0783;
1020.0000;0.4485;1.0783;
1020.3000;0.4477;1.0833;
1020.6000;0.4477;1.0783;
1020.9000;0.4493;1.0858;
1021.2000;0.4485;1.0808;
1021.5000;0.4493;1.0758;
1021.8000;0.4469;1.0758;
1022.1000;0.4510;1.0833;
1022.4000;0.4485;1.0932;
1022.7000;0.4567;1.1082;
1023.0000;0.4469;1.0833;
1023.3000;0.4469;1.0883;
1023.6000;0.4477;1.0883;
1023.9000;0.4428;1.0758;
1024.2000;0.4477;1.0932;
1024.5000;0.4485;1.1007;
1024.8000;0.4501;1.1057;
1025.1000;0.4501;1.1082;
1025.4000;0.4501;1.0957;
1025.7000;0.4469;1.0883;
1026.0000;0.4461;1.0833;
1026.3000;0.4485;1.0932;
1026.6000;0.4469;1.0982;
1026.9000;0.4477;1.0982;
1027.2000;0.4469;1.0908;
1027.5000;0.4453;1.0883;
1027.8000;0.4558;1.1107;
1028.1000;0.4453;1.0833;
1028.4000;0.4485;1.0908;
1028.7000;0.4477;1.0908;
1029.0000;0.4510;1.1007;
1029.3000;0.4485;1.1007;
1029.6000;0.4461;1.0883;
1029.9000;0.4501;1.1032;
1030.2000;0.4469;1.0833;
1030.5000;0.4404;1.0683;
1030.8000;0.4493;1.0833;
1031.1000;0.4477;1.0833;
1031.4000;0.4567;1.1107;
1031.7000;0.4493;1.0858;
1032.0000;0.4469;1.0758;
1032.3000;0.4477;1.0808;
1032.6000;0.4485;1.0833;
1032.9000;0.4485;1.0808;
1033.2000;0.4510;1.0833;
1033.5000;0.4485;1.0908;
1033.8000;0.4453;1.0932;
1034.1000;0.4412;1.0758;
1034.4000;0.4469;1.0883;
1034.7000;0.4453;1.0908;
1035.0000;0.4485;1.0932;
1035.3000;0.4485;1.0908;
1035.6000;0.4477;1.0858;
1035.9000;0.4501;1.0932;
1036.2000;0.4453;1.0783;
1036.5000;0.4477;1.0883;
1036.8000;0.4461;1.0758;
1037.1000;0.4461;1.0658;
1037.4000;0.4477;1.0683;
1037.7000;0.4477;1.0658;
1038.0000;0.4461;1.0609;
1038.3000;0.4461;1.0658;
1038.6000;0.4396;1.0534;
1038.9000;0.4469;1.0708;
1039.2000;0.4436;1.0658;
1039.5000;0.4485;1.0708;
1039.8000;0.4493;1.0758;
1040.1000;0.4469;1.0858;
1040.4000;0.4469;1.0957;
1040.7000;0.4436;1.0808;
1041.0000;0.4493;1.1007;
1041.3000;0.4501;1.1057;
1041.6000;0.4526;1.1181;
1041.9000;0.4469;1.1057;
1042.2000;0.4444;1.1082;
1042.5000;0.4461;1.1107;
1042.8000;0.4428;1.0982;
1043.1000;0.4469;1.1057;
1043.4000;0.4469;1.1032;
1043.7000;0.4444;1.1007;
1044.0000;0.4477;1.1082;
1044.3000;0.4477;1.1032;
1044.6000;0.4477;1.1082;
1044.9000;0.4469;1.1057;
1045.2000;0.4485;1.1132;
1045.5000;0.4485;1.1082;
1045.8000;0.4510;1.1132;
1046.1000;0.4501;1.1107;
1046.4000;0.4477;1.1007;
1046.7000;0.4550;1.1107;
1047.0000;0.4493;1.1032;
1047.3000;0.4469;1.0982;
1047.6000;0.4493;1.1032;
1047.9000;0.4485;1.1032;
1048.2000;0.4436;1.0957;
1048.5000;0.4477;1.1107;
1048.8000;0.4501;1.1206;
1049.1000;0.4444;1.1107;
1049.4000;0.4469;1.1032;
1049.7000;0.4485;1.1107;
1050.0000;0.4469;1.1107;
1050.3000;0.4526;1.1231;
1050.6000;0.4485;1.1107;
1050.9000;0.4493;1.1132;
1051.2000;0.4501;1.1132;
1051.5000;0.4453;1.1107;
1051.8000;0.4436;1.1132;
1052.1000;0.4510;1.1256;
1052.4000;0.4485;1.1181;
1052.7000;0.4518;1.1206;
1053.0000;0.4501;1.1181;
1053.3000;0.4518;1.1306;
1053.6000;0.4469;1.1181;
1053.9000;0.4477;1.1206;
1054.2000;0.4510;1.1231;
1054.5000;0.4493;1.1181;
1054.8000;0.4526;1.1281;
1055.1000;0.4493;1.1206;
1055.4000;0.4485;1.1132;
1055.7000;0.4485;1.1132;
1056.0000;0.4461;1.1032;
1056.3000;0.4485;1.1107;
1056.6000;0.4485;1.1132;
1056.9000;0.4461;1.1057;
1057.2000;0.4444;1.0982;
1057.5000;0.4485;1.0982;
1057.8000;0.4477;1.0982;
1058.1000;0.4510;1.1082;
1058.4000;0.4444;1.1007;
1058.7000;0.4461;1.0982;
1059.0000;0.4485;1.0982;
1059.3000;0.4485;1.0908;
1059.6000;0.4485;1.0982;
1059.9000;0.4493;1.0908;
1060.2000;0.4461;1.0833;
1060.5000;0.4477;1.1007;
1060.8000;0.4493;1.1032;
1061.1000;0.4567;1.1231;
1061.4000;0.4493;1.0982;
1061.7000;0.4485;1.0982;
1062.0000;0.4501;1.1007;
1062.3000;0.4469;1.0982;
1062.6000;0.4453;1.0932;
1062.9000;0.4485;1.1032;
1063.2000;0.4477;1.1032;
1063.5000;0.4461;1.1032;
1063.8000;0.4469;1.1057;
1064.1000;0.4477;1.1082;
1064.4000;0.4493;1.1107;
1064.7000;0.4477;1.1206;
1065.0000;0.4485;1.1231;
1065.3000;0.4477;1.1107;
1065.6000;0.4501;1.1157;
1065.9000;0.4469;1.1007;
1066.2000;0.4485;1.1032;
1066.5000;0.4485;1.1057;
1066.8000;0.4510;1.1132;
1067.1000;0.4485;1.1032;
1067.4000;0.4493;1.0957;
1067.7000;0.4485;1.0957;
1068.0000;0.4493;1.0957;
1068.3000;0.4404;1.0683;
1068.6000;0.4485;1.0858;
1068.9000;0.4469;1.0783;
1069.2000;0.4477;1.0883;
1069.5000;0.4477;1.0883;
1069.8000;0.4493;1.0932;
1070.1000;0.4501;1.0932;
1070.4000;0.4534;1.1057;
1070.7000;0.4493;1.1007;
1071.0000;0.4469;1.0908;
1071.3000;0.4477;1.0932;
1071.6000;0.4485;1.1032;
1071.9000;0.4493;1.1057;
1072.2000;0.4493;1.1032;
1072.5000;0.4485;1.1057;
1072.8000;0.4444;1.0957;
1073.1000;0.4469;1.1057;
1073.4000;0.4444;1.0932;
1073.7000;0.4501;1.1007;
1074.0000;0.4444;1.0733;
1074.3000;0.4493;1.0833;
1074.6000;0.4477;1.0708;
1074.9000;0.4493;1.0783;
1075.2000;0.4469;1.0658;
1075.5000;0.4510;1.0683;
1075.8000;0.4493;1.0708;
1076.1000;0.4493;1.0708;
1076.4000;0.4453;1.0658;
1076.7000;0.4493;1.0783;
1077.0000;0.4461;1.0708;
1077.3000;0.4518;1.0758;
1077.6000;0.4493;1.0733;
1077.9000;0.4485;1.0833;
1078.2000;0.4493;1.0908;
1078.5000;0.4501;1.0858;
1078.8000;0.4485;1.0833;
1079.1000;0.4404;1.0683;
1079.4000;0.4477;1.0932;
1079.7000;0.4493;1.1007;
1080.0000;0.4477;1.0982;
1080.3000;0.4469;1.0908;
1080.6000;0.4485;1.0957;
1080.9000;0.4485;1.0982;
1081.2000;0.4493;1.1032;
1081.5000;0.4469;1.1007;
1081.8000;0.4493;1.0982;
1082.1000;0.4477;1.0932;
1082.4000;0.4485;1.0908;
1082.7000;0.4469;1.0982;
1083.0000;0.4485;1.1032;
1083.3000;0.4469;1.0957;
1083.6000;0.4485;1.0957;
1083.9000;0.4477;1.0982;
1084.2000;0.4485;1.1032;
1084.5000;0.4477;1.1032;
1084.8000;0.4477;1.0982;
1085.1000;0.4444;1.0883;
1085.4000;0.4469;1.0932;
1085.7000;0.4477;1.0982;
1086.0000;0.4493;1.1057;
1086.3000;0.4542;1.1132;
1086.6000;0.4461;1.1007;
1086.9000;0.4477;1.1057;
1087.2000;0.4453;1.0957;
1087.5000;0.4485;1.1082;
1087.8000;0.4461;1.1007;
1088.1000;0.4461;1.1057;
1088.4000;0.4469;1.1107;
1088.7000;0.4469;1.1181;
1089.0000;0.4493;1.1132;
1089.3000;0.4477;1.1082;
1089.6000;0.4485;1.1132;
1089.9000;0.4501;1.1107;
1090.2000;0.4477;1.1057;
1090.5000;0.4493;1.1057;
1090.8000;0.4493;1.1082;
1091.1000;0.4493;1.1107;
1091.4000;0.4493;1.1107;
1091.7000;0.4501;1.1057;
1092.0000;0.4477;1.1057;
1092.3000;0.4518;1.1256;
1092.6000;0.4485;1.1032;
1092.9000;0.4469;1.1032;
1093.2000;0.4469;1.0957;
1093.5000;0.4469;1.0932;
1093.8000;0.4404;1.0733;
1094.1000;0.4461;1.0883;
1094.4000;0.4485;1.0957;
1094.7000;0.4477;1.0858;
1095.0000;0.4485;1.0783;
1095.3000;0.4461;1.0858;
1095.6000;0.4477;1.0932;
1095.9000;0.4493;1.1057;
1096.2000;0.4485;1.1057;
1096.5000;0.4501;1.1157;
1096.8000;0.4485;1.1082;
1097.1000;0.4501;1.1082;
1097.4000;0.4485;1.0982;
1097.7000;0.4469;1.0957;
1098.0000;0.4510;1.0908;
1098.3000;0.4493;1.0858;
1098.6000;0.4461;1.0808;
1098.9000;0.4477;1.0833;
1099.2000;0.4453;1.0758;
1099.5000;0.4469;1.0932;
1099.8000;0.4453;1.0908;
1100.1000;0.4477;1.1007;
1100.4000;0.4461;1.1032;
1100.7000;0.4477;1.1057;
1101.0000;0.4526;1.1181;
1101.3000;0.4477;1.1057;
1101.6000;0.4469;1.1057;
1101.9000;0.4461;1.0982;
1102.2000;0.4477;1.1082;
1102.5000;0.4469;1.1057;
1102.8000;0.4469;1.1032;
1103.1000;0.4485;1.0982;
1103.4000;0.4477;1.0908;
1103.7000;0.4485;1.0883;
1104.0000;0.4485;1.0858;
1104.3000;0.4453;1.0808;
1104.6000;0.4461;1.0833;
1104.9000;0.4485;1.0858;
1105.2000;0.4469;1.0858;
1105.5000;0.4477;1.0957;
1105.8000;0.4477;1.0982;
1106.1000;0.4477;1.0932;
1106.4000;0.4485;1.0957;
1106.7000;0.4477;1.0957;
1107.0000;0.4477;1.0908;
1107.3000;0.4493;1.0908;
1107.6000;0.4493;1.0982;
1107.9000;0.4469;1.0932;
1108.2000;0.4469;1.0908;
1108.5000;0.4485;1.0908;
1108.8000;0.4493;1.0858;
1109.1000;0.4469;1.0883;
1109.4000;0.4453;1.0957;
1109.7000;0.4477;1.1032;
1110.0000;0.4485;1.1032;
1110.3000;0.4469;1.1007;
1110.6000;0.4379;1.0708;
1110.9000;0.4469;1.1032;
1111.2000;0.4469;1.1132;
1111.5000;0.4493;1.1132;
1111.8000;0.4461;1.1057;
1112.1000;0.4485;1.1082;
1112.4000;0.4477;1.1057;
1112.7000;0.4469;1.1007;
1113.0000;0.4501;1.1057;
1113.3000;0.4493;1.0932;
1113.6000;0.4469;1.0858;
1113.9000;0.4477;1.0883;
1114.2000;0.4461;1.0833;
1114.5000;0.4477;1.0883;
1114.8000;0.4444;1.0908;
1115.1000;0.4485;1.1057;
1115.4000;0.4485;1.1132;
1115.7000;0.4485;1.1157;
1116.0000;0.4469;1.1132;
1116.3000;0.4477;1.1206;
1116.6000;0.4477;1.1231;
1116.9000;0.4485;1.1206;
1117.2000;0.4485;1.1157;
1117.5000;0.4469;1.1206;
1117.8000;0.4469;1.1206;
1118.1000;0.4469;1.1107;
1118.4000;0.4469;1.1057;
1118.7000;0.4436;1.0957;
1119.0000;0.4485;1.1132;
1119.3000;0.4485;1.1057;
1119.6000;0.4469;1.0932;
1119.9000;0.4461;1.0932;
1120.2000;0.4469;1.0932;
1120.5000;0.4477;1.0932;
1120.8000;0.4485;1.1057;
1121.1000;0.4453;1.0908;
1121.4000;0.4477;1.1007;
1121.7000;0.4485;1.1082;
1122.0000;0.4469;1.1057;
1122.3000;0.4485;1.1107;
1122.6000;0.4485;1.1181;
1122.9000;0.4453;1.1132;
1123.2000;0.4428;1.0982;
1123.5000;0.4420;1.0883;
1123.8000;0.4469;1.0957;
1124.1000;0.4477;1.0957;
1124.4000;0.4469;1.0808;
1124.7000;0.4493;1.0858;
1125.0000;0.4461;1.0733;
1125.3000;0.4485;1.0833;
1125.6000;0.4501;1.0833;
1125.9000;0.4469;1.0783;
1126.2000;0.4485;1.0932;
1126.5000;0.4477;1.0932;
1126.8000;0.4493;1.0932;
1127.1000;0.4469;1.0883;
1127.4000;0.4485;1.0858;
1127.7000;0.4477;1.0883;
1128.0000;0.4477;1.0883;
1128.3000;0.4534;1.0932;
1128.6000;0.4469;1.0758;
1128.9000;0.4477;1.0758;
1129.2000;0.4485;1.0808;
1129.5000;0.4493;1.0783;
1129.8000;0.4477;1.0858;
1130.1000;0.4412;1.0733;
1130.4000;0.4526;1.1007;
1130.7000;0.4477;1.0808;
1131.0000;0.4477;1.0708;
1131.3000;0.4485;1.0758;
1131.6000;0.4477;1.0758;
1131.9000;0.4485;1.0833;
1132.2000;0.4534;1.0957;
1132.5000;0.4469;1.0808;
1132.8000;0.4493;1.0858;
1133.1000;0.4501;1.0858;
1133.4000;0.4485;1.0808;
1133.7000;0.4485;1.0883;
1134.0000;0.4477;1.0858;
1134.3000;0.4469;1.0908;
1134.6000;0.4485;1.1007;
1134.9000;0.4477;1.0982;
1135.2000;0.4461;1.1032;
1135.5000;0.4469;1.1132;
1135.8000;0.4469;1.1132;
1136.1000;0.4453;1.1032;
1136.4000;0.4510;1.1132;
1136.7000;0.4420;1.0883;
1137.0000;0.4510;1.1032;
1137.3000;0.4469;1.0833;
1137.6000;0.4485;1.0808;
1137.9000;0.4477;1.0883;
1138.2000;0.4477;1.0883;
1138.5000;0.4477;1.0858;
1138.8000;0.4469;1.0908;
1139.1000;0.4477;1.0858;
1139.4000;0.4534;1.1082;
1139.7000;0.4469;1.0833;
1140.0000;0.4485;1.0908;
1140.3000;0.4477;1.0908;
1140.6000;0.4485;1.0858;
1140.9000;0.4526;1.1032;
1141.2000;0.4461;1.0957;
1141.5000;0.4444;1.0908;
1141.8000;0.4477;1.0957;
1142.1000;0.4477;1.0957;
1142.4000;0.4469;1.0957;
1142.7000;0.4469;1.0982;
1143.0000;0.4469;1.1007;
1143.3000;0.4453;1.0982;
1143.6000;0.4485;1.1032;
1143.9000;0.4453;1.1007;
1144.2000;0.4461;1.0982;
1144.5000;0.4501;1.1107;
1144.8000;0.4477;1.1007;
1145.1000;0.4469;1.0883;
1145.4000;0.4501;1.0932;
1145.7000;0.4469;1.0833;
1146.0000;0.4453;1.0858;
1146.3000;0.4428;1.0833;
1146.6000;0.4412;1.0883;
1146.9000;0.4444;1.0982;
1147.2000;0.4453;1.0833;
1147.5000;0.4404;1.0609;
1147.8000;0.4469;1.0683;
1148.1000;0.4461;1.0758;
1148.4000;0.4501;1.0808;
1148.7000;0.4477;1.0733;
1149.0000;0.4469;1.0708;
1149.3000;0.4510;1.0808;
1149.6000;0.4493;1.0758;
1149.9000;0.4477;1.0808;
1150.2000;0.4477;1.0758;
1150.5000;0.4493;1.0733;
1150.8000;0.4461;1.0634;
1151.1000;0.4485;1.0783;
1151.4000;0.4493;1.0858;
1151.7000;0.4493;1.0808;
1152.0000;0.4477;1.0758;
1152.3000;0.4469;1.0708;
1152.6000;0.4461;1.0609;
1152.9000;0.4485;1.0609;
1153.2000;0.4485;1.0609;
1153.5000;0.4469;1.0658;
1153.8000;0.4477;1.0708;
1154.1000;0.4420;1.0484;
1154.4000;0.4461;1.0609;
1154.7000;0.4469;1.0584;
1155.0000;0.4461;1.0609;
1155.3000;0.4493;1.0708;
1155.6000;0.4469;1.0758;
1155.9000;0.4469;1.0733;
1156.2000;0.4477;1.0783;
1156.5000;0.4453;1.0883;
1156.8000;0.4461;1.0883;
1157.1000;0.4469;1.0957;
1157.4000;0.4469;1.0957;
1157.7000;0.4477;1.0982;
1158.0000;0.4461;1.1007;
1158.3000;0.4469;1.0957;
1158.6000;0.4444;1.0858;
1158.9000;0.4469;1.0858;
1159.2000;0.4461;1.0932;
1159.5000;0.4469;1.1007;
1159.8000;0.4461;1.0982;
1160.1000;0.4453;1.1057;
1160.4000;0.4444;1.0932;
1160.7000;0.4469;1.0982;
1161.0000;0.4493;1.1057;
1161.3000;0.4477;1.1157;
1161.6000;0.4420;1.0783;
1161.9000;0.4485;1.0932;
1162.2000;0.4436;1.0858;
1162.5000;0.4477;1.1007;
1162.8000;0.4428;1.0883;
1163.1000;0.4469;1.1082;
1163.4000;0.4477;1.1132;
1163.7000;0.4485;1.1107;
1164.0000;0.4485;1.1057;
1164.3000;0.4453;1.0932;
1164.6000;0.4477;1.1032;
1164.9000;0.4567;1.1306;
1165.2000;0.4485;1.1057;
1165.5000;0.4485;1.1032;
1165.8000;0.4412;1.0932;
1166.1000;0.4461;1.0982;
1166.4000;0.4428;1.1007;
1166.7000;0.4461;1.1082;
1167.0000;0.4461;1.1057;
1167.3000;0.4444;1.0957;
1167.6000;0.4461;1.0908;
1167.9000;0.4534;1.1181;
1168.2000;0.4485;1.1107;
1168.5000;0.4477;1.1057;
1168.8000;0.4436;1.0858;
1169.1000;0.4453;1.0982;
1169.4000;0.4396;1.0758;
1169.7000;0.4461;1.0908;
1170.0000;0.4412;1.0783;
1170.3000;0.4550;1.1157;
1170.6000;0.4469;1.0883;
1170.9000;0.4469;1.0833;
1171.2000;0.4485;1.0858;
1171.5000;0.4469;1.0808;
1171.8000;0.4477;1.0858;
1172.1000;0.4485;1.0982;
1172.4000;0.4493;1.1057;
1172.7000;0.4485;1.1007;
1173.0000;0.4453;1.1032;
1173.3000;0.4453;1.0932;
1173.6000;0.4469;1.0932;
1173.9000;0.4477;1.0982;
1174.2000;0.4436;1.0932;
1174.5000;0.4461;1.1032;
1174.8000;0.4444;1.1107;
1175.1000;0.4461;1.1132;
1175.4000;0.4461;1.1132;
1175.7000;0.4477;1.1057;
1176.0000;0.4461;1.1007;
1176.3000;0.4477;1.0932;
1176.6000;0.4477;1.0982;
1176.9000;0.4477;1.1082;
1177.2000;0.4444;1.1032;
1177.5000;0.4469;1.0957;
1177.8000;0.4485;1.1007;
1178.1000;0.4469;1.0908;
1178.4000;0.4461;1.0883;
1178.7000;0.4412;1.0758;
1179.0000;0.4461;1.0833;
1179.3000;0.4469;1.0883;
1179.6000;0.4461;1.0783;
1179.9000;0.4428;1.0683;
1180.2000;0.4469;1.0858;
1180.5000;0.4477;1.0932;
1180.8000;0.4477;1.0883;
1181.1000;0.4428;1.0833;
1181.4000;0.4453;1.0833;
1181.7000;0.4428;1.0758;
1182.0000;0.4436;1.0783;
1182.3000;0.4469;1.0833;
1182.6000;0.4477;1.0858;
1182.9000;0.4485;1.0908;
1183.2000;0.4493;1.0858;
1183.5000;0.4461;1.0883;
1183.8000;0.4477;1.1057;
1184.1000;0.4477;1.1107;
1184.4000;0.4412;1.0957;
1184.7000;0.4469;1.1007;
1185.0000;0.4444;1.0982;
1185.3000;0.4436;1.0858;
1185.6000;0.4461;1.0883;
1185.9000;0.4469;1.0883;
1186.2000;0.4461;1.0908;
1186.5000;0.4477;1.0883;
1186.8000;0.4371;1.0658;
1187.1000;0.4485;1.0908;
1187.4000;0.4469;1.0808;
1187.7000;0.4469;1.0783;
1188.0000;0.4404;1.0733;
1188.3000;0.4469;1.1057;
1188.6000;0.4461;1.0982;
1188.9000;0.4485;1.1057;
1189.2000;0.4469;1.1057;
1189.5000;0.4469;1.0957;
1189.8000;0.4444;1.0908;
1190.1000;0.4469;1.1032;
1190.4000;0.4444;1.1057;
1190.7000;0.4477;1.1157;
1191.0000;0.4469;1.1206;
1191.3000;0.4453;1.1132;
1191.6000;0.4469;1.1082;
1191.9000;0.4501;1.1082;
1192.2000;0.4453;1.1057;
1192.5000;0.4477;1.1157;
1192.8000;0.4485;1.1206;
1193.1000;0.4469;1.1157;
1193.4000;0.4461;1.1157;
1193.7000;0.4461;1.1132;
1194.0000;0.4461;1.1132;
1194.3000;0.4477;1.1157;
1194.6000;0.4469;1.1107;
1194.9000;0.4461;1.1107;
1195.2000;0.4518;1.1281;
1195.5000;0.4469;1.1107;
1195.8000;0.4461;1.1057;
1196.1000;0.4453;1.1032;
1196.4000;0.4461;1.1032;
1196.7000;0.4469;1.1007;
1197.0000;0.4485;1.1057;
1197.3000;0.4461;1.0982;
1197.6000;0.4469;1.1057;
1197.9000;0.4469;1.1107;
1198.2000;0.4436;1.0908;
1198.5000;0.4461;1.0883;
1198.8000;0.4534;1.1007;
1199.1000;0.4461;1.0932;
1199.4000;0.4453;1.0908;
1199.7000;0.4477;1.0883;
1200.0000;0.4469;1.0908;
1200.3000;0.4477;1.0932;
1200.6000;0.4469;1.0932;
1200.9000;0.4477;1.0957;
1201.2000;0.4444;1.0858;
1201.5000;0.4461;1.0908;
1201.8000;0.4461;1.0932;
1202.1000;0.4453;1.0883;
1202.4000;0.4436;1.0808;
1202.7000;0.4453;1.0808;
1203.0000;0.4477;1.0808;
1203.3000;0.4493;1.0833;
1203.6000;0.4461;1.0783;
1203.9000;0.4453;1.0808;
1204.2000;0.4469;1.0883;
1204.5000;0.4453;1.0908;
1204.8000;0.4444;1.0858;
1205.1000;0.4453;1.0932;
1205.4000;0.4453;1.0932;
1205.7000;0.4469;1.1082;
1206.0000;0.4412;1.0908;
1206.3000;0.4518;1.1107;
1206.6000;0.4510;1.0982;
1206.9000;0.4428;1.0808;
1207.2000;0.4477;1.0808;
1207.5000;0.4477;1.0808;
1207.8000;0.4469;1.0783;
1208.1000;0.4461;1.0758;
1208.4000;0.4444;1.0783;
1208.7000;0.4469;1.0957;
1209.0000;0.4469;1.0982;
1209.3000;0.4444;1.0908;
1209.6000;0.4469;1.0908;
1209.9000;0.4493;1.0908;
1210.2000;0.4461;1.0858;
1210.5000;0.4485;1.1007;
1210.8000;0.4469;1.0982;
1211.1000;0.4453;1.0957;
1211.4000;0.4404;1.0808;
1211.7000;0.4501;1.1032;
1212.0000;0.4461;1.0957;
1212.3000;0.4469;1.1007;
1212.6000;0.4387;1.0733;
1212.9000;0.4469;1.0908;
1213.2000;0.4485;1.0858;
1213.5000;0.4477;1.0683;
1213.8000;0.4469;1.0584;
1214.1000;0.4469;1.0559;
1214.4000;0.4461;1.0658;
1214.7000;0.4453;1.0733;
1215.0000;0.4461;1.0833;
1215.3000;0.4444;1.0783;
1215.6000;0.4461;1.0908;
1215.9000;0.4453;1.0883;
1216.2000;0.4453;1.0908;
1216.5000;0.4461;1.0883;
1216.8000;0.4461;1.0883;
1217.1000;0.4461;1.0833;
1217.4000;0.4461;1.0932;
1217.7000;0.4444;1.0982;
1218.0000;0.4461;1.1057;
1218.3000;0.4477;1.1057;
1218.6000;0.4469;1.0982;
1218.9000;0.4444;1.0982;
1219.2000;0.4396;1.0833;
1219.5000;0.4477;1.1007;
1219.8000;0.4469;1.0932;
1220.1000;0.4477;1.1007;
1220.4000;0.4444;1.0833;
1220.7000;0.4485;1.0858;
1221.0000;0.4485;1.0883;
1221.3000;0.4526;1.0908;
1221.6000;0.4485;1.0908;
1221.9000;0.4477;1.1007;
1222.2000;0.4501;1.1132;
1222.5000;0.4477;1.1057;
1222.8000;0.4469;1.1007;
1223.1000;0.4461;1.0957;
1223.4000;0.4477;1.1007;
1223.7000;0.4501;1.1107;
1224.0000;0.4453;1.1007;
1224.3000;0.4461;1.1032;
1224.6000;0.4477;1.1082;
1224.9000;0.4436;1.0908;
1225.2000;0.4453;1.1007;
1225.5000;0.4461;1.1032;
1225.8000;0.4453;1.1032;
1226.1000;0.4469;1.1057;
1226.4000;0.4453;1.0858;
1226.7000;0.4453;1.0858;
1227.0000;0.4461;1.0908;
1227.3000;0.4510;1.0982;
1227.6000;0.4501;1.0982;
1227.9000;0.4469;1.0982;
1228.2000;0.4428;1.0932;
1228.5000;0.4469;1.1107;
1228.8000;0.4477;1.1132;
1229.1000;0.4469;1.1057;
1229.4000;0.4477;1.1032;
1229.7000;0.4469;1.0932;
1230.0000;0.4485;1.1132;
1230.3000;0.4453;1.1057;
1230.6000;0.4469;1.1107;
1230.9000;0.4453;1.1107;
1231.2000;0.4461;1.1181;
1231.5000;0.4453;1.1157;
1231.8000;0.4477;1.1181;
1232.1000;0.4412;1.0982;
1232.4000;0.4501;1.1132;
1232.7000;0.4485;1.1157;
1233.0000;0.4469;1.1157;
1233.3000;0.4477;1.1132;
1233.6000;0.4485;1.1057;
1233.9000;0.4469;1.0982;
1234.2000;0.4461;1.0932;
1234.5000;0.4461;1.1007;
1234.8000;0.4444;1.0883;
1235.1000;0.4469;1.0908;
1235.4000;0.4404;1.0833;
1235.7000;0.4469;1.0982;
1236.0000;0.4461;1.1057;
1236.3000;0.4444;1.1032;
1236.6000;0.4477;1.1082;
1236.9000;0.4461;1.0957;
1237.2000;0.4444;1.0833;
1237.5000;0.4469;1.0982;
1237.8000;0.4453;1.0957;
1238.1000;0.4485;1.1057;
1238.4000;0.4428;1.0883;
1238.7000;0.4420;1.0908;
1239.0000;0.4461;1.1007;
1239.3000;0.4510;1.1256;
1239.6000;0.4387;1.0908;
1239.9000;0.4501;1.1157;
1240.2000;0.4461;1.1107;
1240.5000;0.4461;1.1132;
1240.8000;0.4453;1.1181;
1241.1000;0.4461;1.1181;
1241.4000;0.4453;1.1206;
1241.7000;0.4436;1.1107;
1242.0000;0.4485;1.1032;
1242.3000;0.4461;1.1032;
1242.6000;0.4461;1.1107;
1242.9000;0.4420;1.1007;
1243.2000;0.4469;1.1256;
1243.5000;0.4461;1.1331;
1243.8000;0.4436;1.1281;
1244.1000;0.4444;1.1331;
1244.4000;0.4436;1.1206;
1244.7000;0.4461;1.1206;
1245.0000;0.4461;1.1206;
1245.3000;0.4461;1.1132;
1245.6000;0.4453;1.1132;
1245.9000;0.4461;1.1132;
1246.2000;0.4477;1.1157;
1246.5000;0.4477;1.1256;
1246.8000;0.4387;1.1132;
1247.1000;0.4469;1.1206;
1247.4000;0.4469;1.1082;
1247.7000;0.4461;1.1082;
1248.0000;0.4444;1.1107;
1248.3000;0.4461;1.1107;
1248.6000;0.4444;1.1032;
1248.9000;0.4461;1.1082;
1249.2000;0.4461;1.1107;
1249.5000;0.4444;1.1107;
1249.8000;0.4420;1.1032;
1250.1000;0.4469;1.1181;
1250.4000;0.4428;1.0982;
1250.7000;0.4469;1.1082;
1251.0000;0.4461;1.1107;
1251.3000;0.4444;1.1107;
1251.6000;0.4428;1.1082;
1251.9000;0.4444;1.1132;
1252.2000;0.4453;1.1132;
1252.5000;0.4469;1.1057;
1252.8000;0.4461;1.1007;
1253.1000;0.4461;1.0957;
1253.4000;0.4428;1.0808;
1253.7000;0.4469;1.0833;
1254.0000;0.4461;1.0783;
1254.3000;0.4469;1.0833;
1254.6000;0.4453;1.0883;
1254.9000;0.4453;1.0908;
1255.2000;0.4477;1.0982;
1255.5000;0.4461;1.0908;
1255.8000;0.4453;1.0883;
1256.1000;0.4453;1.1007;
1256.4000;0.4453;1.1082;
1256.7000;0.4461;1.1032;
1257.0000;0.4436;1.1007;
1257.3000;0.4436;1.0957;
1257.6000;0.4485;1.1007;
1257.9000;0.4461;1.0957;
1258.2000;0.4461;1.1007;
1258.5000;0.4412;1.0932;
1258.8000;0.4461;1.1082;
1259.1000;0.4444;1.1057;
1259.4000;0.4493;1.1231;
1259.7000;0.4404;1.1057;
1260.0000;0.4469;1.1306;
1260.3000;0.4461;1.1281;
1260.6000;0.4469;1.1231;
1260.9000;0.4453;1.1231;
1261.2000;0.4453;1.1206;
1261.5000;0.4404;1.1206;
1261.8000;0.4469;1.1306;
1262.1000;0.4428;1.1256;
1262.4000;0.4477;1.1356;
1262.7000;0.4469;1.1281;
1263.0000;0.4444;1.1231;
1263.3000;0.4444;1.1206;
1263.6000;0.4469;1.1281;
1263.9000;0.4444;1.1132;
1264.2000;0.4461;1.1132;
1264.5000;0.4477;1.1107;
1264.8000;0.4469;1.1206;
1265.1000;0.4453;1.1157;
1265.4000;0.4469;1.1206;
1265.7000;0.4453;1.1132;
1266.0000;0.4461;1.1132;
1266.3000;0.4444;1.1107;
1266.6000;0.4461;1.1132;
1266.9000;0.4477;1.1157;
1267.2000;0.4477;1.1107;
1267.5000;0.4453;1.1157;
1267.8000;0.4469;1.1206;
1268.1000;0.4453;1.1107;
1268.4000;0.4444;1.1057;
1268.7000;0.4461;1.1206;
1269.0000;0.4469;1.1157;
1269.3000;0.4477;1.1231;
1269.6000;0.4469;1.1206;
1269.9000;0.4477;1.1206;
1270.2000;0.4461;1.1157;
1270.5000;0.4469;1.1107;
1270.8000;0.4493;1.1206;
1271.1000;0.4501;1.1256;
1271.4000;0.4453;1.1132;
1271.7000;0.4469;1.1181;
1272.0000;0.4477;1.1157;
1272.3000;0.4469;1.1082;
1272.6000;0.4453;1.1032;
1272.9000;0.4453;1.1082;
1273.2000;0.4493;1.1181;
1273.5000;0.4477;1.1107;
1273.8000;0.4501;1.1157;
1274.1000;0.4461;1.1007;
1274.4000;0.4461;1.0982;
1274.7000;0.4453;1.0982;
1275.0000;0.4461;1.1007;
1275.3000;0.4477;1.0982;
1275.6000;0.4477;1.0883;
1275.9000;0.4493;1.0908;
1276.2000;0.4461;1.0982;
1276.5000;0.4444;1.0957;
1276.8000;0.4453;1.1032;
1277.1000;0.4510;1.1107;
1277.4000;0.4501;1.1107;
1277.7000;0.4436;1.0908;
1278.0000;0.4453;1.0908;
1278.3000;0.4387;1.0808;
1278.6000;0.4461;1.1007;
1278.9000;0.4461;1.1057;
1279.2000;0.4461;1.1057;
1279.5000;0.4485;1.1007;
1279.8000;0.4542;1.1132;
1280.1000;0.4477;1.0957;
1280.4000;0.4550;1.1132;
1280.7000;0.4436;1.0858;
1281.0000;0.4493;1.1007;
1281.3000;0.4461;1.0957;
1281.6000;0.4461;1.1032;
1281.9000;0.4501;1.1057;
1282.2000;0.4469;1.0982;
1282.5000;0.4477;1.1007;
1282.8000;0.4461;1.0957;
1283.1000;0.4469;1.0957;
1283.4000;0.4518;1.1057;
1283.7000;0.4469;1.0908;
1284.0000;0.4518;1.1082;
1284.3000;0.4469;1.1007;
1284.6000;0.4477;1.1082;
1284.9000;0.4428;1.1032;
1285.2000;0.4444;1.1082;
1285.5000;0.4461;1.1107;
1285.8000;0.4444;1.1107;
1286.1000;0.4428;1.1132;
1286.4000;0.4461;1.1281;
1286.7000;0.4461;1.1181;
1287.0000;0.4493;1.1356;
1287.3000;0.4444;1.1206;
1287.6000;0.4461;1.1231;
1287.9000;0.4436;1.1206;
1288.2000;0.4469;1.1281;
1288.5000;0.4461;1.1306;
1288.8000;0.4444;1.1231;
1289.1000;0.4461;1.1181;
1289.4000;0.4461;1.1157;
1289.7000;0.4485;1.1181;
1290.0000;0.4485;1.1157;
1290.3000;0.4461;1.1181;
1290.6000;0.4461;1.1181;
1290.9000;0.4453;1.1157;
1291.2000;0.4461;1.1157;
1291.5000;0.4461;1.1157;
1291.8000;0.4461;1.1157;
1292.1000;0.4461;1.1132;
1292.4000;0.4469;1.1107;
1292.7000;0.4477;1.1231;
1293.0000;0.4444;1.1206;
1293.3000;0.4453;1.1231;
1293.6000;0.4444;1.1157;
1293.9000;0.4444;1.1132;
1294.2000;0.4379;1.0982;
1294.5000;0.4444;1.1206;
1294.8000;0.4461;1.1256;
1295.1000;0.4510;1.1356;
1295.4000;0.4444;1.1132;
1295.7000;0.4436;1.1132;
1296.0000;0.4461;1.1256;
1296.3000;0.4404;1.1132;
1296.6000;0.4453;1.1157;
1296.9000;0.4436;1.1107;
1297.2000;0.4444;1.1082;
1297.5000;0.4453;1.1082;
1297.8000;0.4453;1.1032;
1298.1000;0.4436;1.1082;
1298.4000;0.4469;1.1132;
1298.7000;0.4469;1.1132;
1299.0000;0.4469;1.1157;
1299.3000;0.4453;1.1007;
1299.6000;0.4477;1.1082;
1299.9000;0.4485;1.1132;
1300.2000;0.4510;1.1206;
1300.5000;0.4461;1.1057;
1300.8000;0.4461;1.1032;
1301.1000;0.4477;1.1032;
1301.4000;0.4444;1.0908;
1301.7000;0.4469;1.1032;
1302.0000;0.4387;1.0932;
1302.3000;0.4469;1.1132;
1302.6000;0.4453;1.1132;
1302.9000;0.4444;1.1107;
1303.2000;0.4404;1.0982;
1303.5000;0.4477;1.1132;
1303.8000;0.4477;1.1132;
1304.1000;0.4461;1.1181;
1304.4000;0.4477;1.1057;
1304.7000;0.4461;1.1057;
1305.0000;0.4477;1.1082;
1305.3000;0.4469;1.1057;
1305.6000;0.4469;1.1082;
1305.9000;0.4428;1.1032;
1306.2000;0.4453;1.1082;
1306.5000;0.4453;1.1256;
1306.8000;0.4461;1.1256;
1307.1000;0.4453;1.1157;
1307.4000;0.4485;1.1256;
1307.7000;0.4469;1.1206;
1308.0000;0.4461;1.1206;
1308.3000;0.4461;1.1181;
1308.6000;0.4461;1.1331;
1308.9000;0.4469;1.1331;
1309.2000;0.4469;1.1306;
1309.5000;0.4469;1.1107;
1309.8000;0.4453;1.1206;
1310.1000;0.4485;1.1281;
1310.4000;0.4453;1.1231;
1310.7000;0.4453;1.1256;
1311.0000;0.4444;1.1281;
1311.3000;0.4461;1.1331;
1311.6000;0.4461;1.1281;
1311.9000;0.4444;1.1231;
1312.2000;0.4436;1.1157;
1312.5000;0.4461;1.1231;
1312.8000;0.4453;1.1157;
1313.1000;0.4485;1.1132;
1313.4000;0.4469;1.1082;
1313.7000;0.4453;1.0957;
1314.0000;0.4461;1.0957;
1314.3000;0.4444;1.0982;
1314.6000;0.4477;1.1082;
1314.9000;0.4453;1.1082;
1315.2000;0.4469;1.1107;
1315.5000;0.4461;1.1032;
1315.8000;0.4469;1.1007;
1316.1000;0.4469;1.1032;
1316.4000;0.4453;1.1082;
1316.7000;0.4444;1.1057;
1317.0000;0.4453;1.1082;
1317.3000;0.4436;1.1082;
1317.6000;0.4461;1.1157;
1317.9000;0.4461;1.1082;
1318.2000;0.4493;1.1157;
1318.5000;0.4453;1.1082;
1318.8000;0.4469;1.1082;
1319.1000;0.4518;1.1206;
1319.4000;0.4469;1.1032;
1319.7000;0.4477;1.1032;
1320.0000;0.4469;1.1107;
1320.3000;0.4469;1.1181;
1320.6000;0.4461;1.1231;
1320.9000;0.4501;1.1256;
1321.2000;0.4453;1.1107;
1321.5000;0.4461;1.1082;
1321.8000;0.4444;1.0957;
1322.1000;0.4461;1.0957;
1322.4000;0.4461;1.1057;
1322.7000;0.4461;1.1107;
1323.0000;0.4444;1.1057;
1323.3000;0.4453;1.0982;
1323.6000;0.4453;1.1032;
1323.9000;0.4501;1.1107;
1324.2000;0.4485;1.0957;
1324.5000;0.4453;1.0858;
1324.8000;0.4444;1.0858;
1325.1000;0.4510;1.1082;
1325.4000;0.4453;1.0932;
1325.7000;0.4436;1.0908;
1326.0000;0.4461;1.1032;
1326.3000;0.4453;1.0908;
1326.6000;0.4461;1.0932;
1326.9000;0.4461;1.0883;
1327.2000;0.4444;1.0833;
1327.5000;0.4453;1.0808;
1327.8000;0.4461;1.0833;
1328.1000;0.4444;1.0708;
1328.4000;0.4461;1.0783;
1328.7000;0.4461;1.0833;
1329.0000;0.4477;1.0883;
1329.3000;0.4477;1.0932;
1329.6000;0.4477;1.0982;
1329.9000;0.4485;1.0982;
1330.2000;0.4477;1.1082;
1330.5000;0.4477;1.1132;
1330.8000;0.4485;1.1157;
1331.1000;0.4477;1.1057;
1331.4000;0.4469;1.0982;
1331.7000;0.4501;1.1057;
1332.0000;0.4469;1.0982;
1332.3000;0.4444;1.0957;
1332.6000;0.4444;1.0982;
1332.9000;0.4469;1.1032;
1333.2000;0.4461;1.1007;
1333.5000;0.4461;1.1032;
1333.8000;0.4469;1.1082;
1334.1000;0.4420;1.1082;
1334.4000;0.4469;1.1306;
1334.7000;0.4469;1.1356;
1335.0000;0.4436;1.1231;
1335.3000;0.4436;1.1181;
1335.6000;0.4477;1.1206;
1335.9000;0.4469;1.1132;
1336.2000;0.4477;1.1107;
1336.5000;0.4453;1.1181;
1336.8000;0.4461;1.1206;
1337.1000;0.4444;1.1231;
1337.4000;0.4461;1.1132;
1337.7000;0.4461;1.1107;
1338.0000;0.4469;1.1107;
1338.3000;0.4485;1.1181;
1338.6000;0.4469;1.1256;
1338.9000;0.4453;1.1231;
1339.2000;0.4477;1.1231;
1339.5000;0.4477;1.1157;
1339.8000;0.4453;1.1157;
1340.1000;0.4379;1.1082;
1340.4000;0.4485;1.1281;
1340.7000;0.4477;1.1107;
1341.0000;0.4469;1.1032;
1341.3000;0.4469;1.1057;
1341.6000;0.4461;1.1057;
1341.9000;0.4469;1.1082;
1342.2000;0.4461;1.1007;
1342.5000;0.4477;1.1157;
1342.8000;0.4469;1.1157;
1343.1000;0.4469;1.1157;
1343.4000;0.4420;1.1057;
1343.7000;0.4469;1.1157;
1344.0000;0.4469;1.1107;
1344.3000;0.4469;1.1082;
1344.6000;0.4469;1.1007;
1344.9000;0.4469;1.1007;
1345.2000;0.4469;1.0957;
1345.5000;0.4453;1.0908;
1345.8000;0.4444;1.0957;
1346.1000;0.4461;1.1032;
1346.4000;0.4453;1.0932;
1346.7000;0.4436;1.0783;
1347.0000;0.4436;1.0858;
1347.3000;0.4501;1.1007;
1347.6000;0.4461;1.0858;
1347.9000;0.4444;1.0908;
1348.2000;0.4453;1.1057;
1348.5000;0.4453;1.1057;
1348.8000;0.4461;1.1032;
1349.1000;0.4436;1.1057;
1349.4000;0.4453;1.1032;
1349.7000;0.4461;1.0957;
1350.0000;0.4453;1.1007;
1350.3000;0.4453;1.0957;
1350.6000;0.4461;1.0957;
1350.9000;0.4485;1.1032;
1351.2000;0.4444;1.0957;
1351.5000;0.4453;1.1007;
1351.8000;0.4526;1.1157;
1352.1000;0.4485;1.1007;
1352.4000;0.4461;1.0957;
1352.7000;0.4477;1.1057;
1353.0000;0.4428;1.0858;
1353.3000;0.4436;1.0858;
1353.6000;0.4404;1.0808;
1353.9000;0.4501;1.1132;
1354.2000;0.4461;1.1107;
1354.5000;0.4412;1.0957;
1354.8000;0.4469;1.1057;
1355.1000;0.4453;1.1107;
1355.4000;0.4477;1.1107;
1355.7000;0.4444;1.1032;
1356.0000;0.4526;1.1157;
1356.3000;0.4396;1.0883;
1356.6000;0.4469;1.1057;
1356.9000;0.4477;1.1007;
1357.2000;0.4461;1.1032;
1357.5000;0.4542;1.1181;
1357.8000;0.4436;1.0808;
1358.1000;0.4444;1.0783;
1358.4000;0.4453;1.0733;
1358.7000;0.4453;1.0783;
1359.0000;0.4444;1.0733;
1359.3000;0.4485;1.0858;
1359.6000;0.4485;1.0808;
1359.9000;0.4461;1.0758;
1360.2000;0.4453;1.0758;
1360.5000;0.4436;1.0733;
1360.8000;0.4436;1.0783;
1361.1000;0.4485;1.0883;
1361.4000;0.4453;1.0833;
1361.7000;0.4444;1.0908;
1362.0000;0.4444;1.0908;
1362.3000;0.4461;1.0908;
1362.6000;0.4444;1.0858;
1362.9000;0.4461;1.1007;
1363.2000;0.4444;1.1057;
1363.5000;0.4461;1.1206;
1363.8000;0.4461;1.1132;
1364.1000;0.4461;1.1057;
1364.4000;0.4453;1.0957;
1364.7000;0.4485;1.1107;
1365.0000;0.4428;1.1007;
1365.3000;0.4436;1.1007;
1365.6000;0.4461;1.1082;
1365.9000;0.4444;1.1057;
1366.2000;0.4453;1.1082;
1366.5000;0.4404;1.0908;
1366.8000;0.4469;1.0908;
1367.1000;0.4469;1.0982;
1367.4000;0.4477;1.1007;
1367.7000;0.4469;1.0932;
1368.0000;0.4453;1.0883;
1368.3000;0.4461;1.0808;
1368.6000;0.4453;1.0858;
1368.9000;0.4428;1.0808;
1369.2000;0.4485;1.0908;
1369.5000;0.4436;1.0833;
1369.8000;0.4493;1.1082;
1370.1000;0.4518;1.1032;
1370.4000;0.4477;1.0982;
1370.7000;0.4461;1.1007;
1371.0000;0.4469;1.0982;
1371.3000;0.4444;1.0932;
1371.6000;0.4453;1.0932;
1371.9000;0.4428;1.0908;
1372.2000;0.4526;1.1107;
1372.5000;0.4461;1.1032;
1372.8000;0.4469;1.1032;
1373.1000;0.4477;1.0957;
1373.4000;0.4477;1.0957;
1373.7000;0.4444;1.0883;
1374.0000;0.4461;1.0833;
1374.3000;0.4453;1.0808;
1374.6000;0.4469;1.0908;
1374.9000;0.4355;1.0758;
1375.2000;0.4501;1.1107;
1375.5000;0.4477;1.1057;
1375.8000;0.4501;1.1231;
1376.1000;0.4469;1.1206;
1376.4000;0.4444;1.1206;
1376.7000;0.4461;1.1181;
1377.0000;0.4412;1.1082;
1377.3000;0.4477;1.1132;
1377.6000;0.4428;1.1082;
1377.9000;0.4534;1.1356;
1378.2000;0.4444;1.1057;
1378.5000;0.4485;1.1132;
1378.8000;0.4469;1.1082;
1379.1000;0.4453;1.1107;
1379.4000;0.4444;1.1032;
1379.7000;0.4444;1.0982;
1380.0000;0.4444;1.1007;
1380.3000;0.4428;1.1007;
1380.6000;0.4436;1.0982;
1380.9000;0.4444;1.0957;
1381.2000;0.4477;1.1057;
1381.5000;0.4510;1.1231;
1381.8000;0.4493;1.1132;
1382.1000;0.4461;1.1082;
1382.4000;0.4453;1.1107;
1382.7000;0.4501;1.1206;
1383.0000;0.4461;1.1032;
1383.3000;0.4453;1.0932;
1383.6000;0.4444;1.0982;
1383.9000;0.4444;1.1057;
1384.2000;0.4444;1.1057;
1384.5000;0.4461;1.1157;
1384.8000;0.4453;1.1107;
1385.1000;0.4469;1.1181;
1385.4000;0.4453;1.1181;
1385.7000;0.4485;1.1256;
1386.0000;0.4453;1.1181;
1386.3000;0.4461;1.1107;
1386.6000;0.4510;1.1256;
1386.9000;0.4436;1.1007;
1387.2000;0.4428;1.0982;
1387.5000;0.4453;1.1032;
1387.8000;0.4461;1.1107;
1388.1000;0.4436;1.1032;
1388.4000;0.4461;1.1231;
1388.7000;0.4444;1.1206;
1389.0000;0.4453;1.1256;
1389.3000;0.4453;1.1231;
1389.6000;0.4469;1.1256;
1389.9000;0.4436;1.1132;
1390.2000;0.4477;1.1281;
1390.5000;0.4461;1.1206;
1390.8000;0.4453;1.1181;
1391.1000;0.4461;1.1107;
1391.4000;0.4453;1.1107;
1391.7000;0.4461;1.1206;
1392.0000;0.4444;1.1281;
1392.3000;0.4444;1.1281;
1392.6000;0.4428;1.1206;
1392.9000;0.4493;1.1206;
1393.2000;0.4501;1.1306;
1393.5000;0.4444;1.1256;
1393.8000;0.4444;1.1281;
1394.1000;0.4469;1.1306;
1394.4000;0.4493;1.1306;
1394.7000;0.4412;1.1132;
1395.0000;0.4453;1.1256;
1395.3000;0.4453;1.1231;
1395.6000;0.4461;1.1281;
1395.9000;0.4485;1.1306;
1396.2000;0.4412;1.1132;
1396.5000;0.4469;1.1132;
1396.8000;0.4477;1.1157;
1397.1000;0.4477;1.1157;
1397.4000;0.4469;1.1132;
1397.7000;0.4469;1.1132;
1398.0000;0.4477;1.1107;
1398.3000;0.4444;1.1082;
1398.6000;0.4453;1.1082;
1398.9000;0.4436;1.1057;
1399.2000;0.4461;1.1057;
1399.5000;0.4469;1.1157;
1399.8000;0.4453;1.1132;
