time/ms;Fluo/V;P700 deltaI/I x10³;
-199.8000;0.1530;0.3577;
-199.5000;0.1547;0.3601;
-199.2000;0.1547;0.3577;
-198.9000;0.1563;0.3696;
-198.6000;0.1563;0.3672;
-198.3000;0.1579;0.3791;
-198.0000;0.1571;0.3768;
-197.7000;0.1555;0.3768;
-197.4000;0.1547;0.3672;
-197.1000;0.1547;0.3696;
-196.8000;0.1612;0.3768;
-196.5000;0.1620;0.3720;
-196.2000;0.1628;0.3791;
-195.9000;0.1555;0.3529;
-195.6000;0.1604;0.3624;
-195.3000;0.1579;0.3529;
-195.0000;0.1579;0.3505;
-194.7000;0.1571;0.3529;
-194.4000;0.1530;0.3434;
-194.1000;0.1563;0.3553;
-193.8000;0.1555;0.3481;
-193.5000;0.1522;0.3481;
-193.2000;0.1669;0.3911;
-192.9000;0.1587;0.3648;
-192.6000;0.1571;0.3601;
-192.3000;0.1579;0.3624;
-192.0000;0.1579;0.3624;
-191.7000;0.1571;0.3648;
-191.4000;0.1555;0.3481;
-191.1000;0.1563;0.3553;
-190.8000;0.1563;0.3577;
-190.5000;0.1571;0.3601;
-190.2000;0.1571;0.3624;
-189.9000;0.1563;0.3601;
-189.6000;0.1563;0.3601;
-189.3000;0.1571;0.3648;
-189.0000;0.1587;0.3720;
-188.7000;0.1644;0.3911;
-188.4000;0.1571;0.3744;
-188.1000;0.1555;0.3672;
-187.8000;0.1547;0.3577;
-187.5000;0.1563;0.3601;
-187.2000;0.1563;0.3624;
-186.9000;0.1538;0.3672;
-186.6000;0.1563;0.3696;
-186.3000;0.1579;0.3696;
-186.0000;0.1595;0.3720;
-185.7000;0.1538;0.3624;
-185.4000;0.1563;0.3672;
-185.1000;0.1587;0.3720;
-184.8000;0.1571;0.3672;
-184.5000;0.1571;0.3672;
-184.2000;0.1563;0.3648;
-183.9000;0.1571;0.3577;
-183.6000;0.1571;0.3648;
-183.3000;0.1579;0.3577;
-183.0000;0.1571;0.3577;
-182.7000;0.1563;0.3553;
-182.4000;0.1563;0.3529;
-182.1000;0.1579;0.3553;
-181.8000;0.1579;0.3601;
-181.5000;0.1538;0.3362;
-181.2000;0.1579;0.3553;
-180.9000;0.1563;0.3553;
-180.6000;0.1579;0.3648;
-180.3000;0.1571;0.3481;
-180.0000;0.1555;0.3434;
-179.7000;0.1563;0.3362;
-179.4000;0.1563;0.3386;
-179.1000;0.1563;0.3362;
-178.8000;0.1555;0.3410;
-178.5000;0.1571;0.3529;
-178.2000;0.1563;0.3505;
-177.9000;0.1555;0.3505;
-177.6000;0.1563;0.3505;
-177.3000;0.1547;0.3481;
-177.0000;0.1571;0.3601;
-176.7000;0.1571;0.3648;
-176.4000;0.1555;0.3577;
-176.1000;0.1563;0.3553;
-175.8000;0.1579;0.3648;
-175.5000;0.1555;0.3553;
-175.2000;0.1547;0.3577;
-174.9000;0.1530;0.3505;
-174.6000;0.1571;0.3577;
-174.3000;0.1595;0.3601;
-174.0000;0.1555;0.3553;
-173.7000;0.1595;0.3648;
-173.4000;0.1555;0.3601;
-173.1000;0.1555;0.3672;
-172.8000;0.1644;0.3982;
-172.5000;0.1555;0.3696;
-172.2000;0.1555;0.3744;
-171.9000;0.1563;0.3720;
-171.6000;0.1571;0.3768;
-171.3000;0.1579;0.3791;
-171.0000;0.1587;0.3887;
-170.7000;0.1587;0.3863;
-170.4000;0.1563;0.3720;
-170.1000;0.1563;0.3696;
-169.8000;0.1571;0.3648;
-169.5000;0.1579;0.3624;
-169.2000;0.1555;0.3577;
-168.9000;0.1587;0.3648;
-168.6000;0.1587;0.3624;
-168.3000;0.1555;0.3553;
-168.0000;0.1555;0.3505;
-167.7000;0.1530;0.3458;
-167.4000;0.1547;0.3529;
-167.1000;0.1547;0.3648;
-166.8000;0.1579;0.3696;
-166.5000;0.1490;0.3553;
-166.2000;0.1563;0.3624;
-165.9000;0.1604;0.3672;
-165.6000;0.1481;0.3410;
-165.3000;0.1579;0.3624;
-165.0000;0.1579;0.3529;
-164.7000;0.1498;0.3410;
-164.4000;0.1555;0.3505;
-164.1000;0.1538;0.3458;
-163.8000;0.1579;0.3529;
-163.5000;0.1522;0.3434;
-163.2000;0.1587;0.3553;
-162.9000;0.1563;0.3458;
-162.6000;0.1538;0.3434;
-162.3000;0.1563;0.3458;
-162.0000;0.1563;0.3458;
-161.7000;0.1563;0.3529;
-161.4000;0.1547;0.3553;
-161.1000;0.1563;0.3458;
-160.8000;0.1563;0.3553;
-160.5000;0.1563;0.3601;
-160.2000;0.1587;0.3672;
-159.9000;0.1571;0.3648;
-159.6000;0.1563;0.3648;
-159.3000;0.1571;0.3601;
-159.0000;0.1587;0.3624;
-158.7000;0.1555;0.3648;
-158.4000;0.1579;0.3720;
-158.1000;0.1587;0.3720;
-157.8000;0.1579;0.3744;
-157.5000;0.1498;0.3529;
-157.2000;0.1563;0.3672;
-156.9000;0.1514;0.3529;
-156.6000;0.1563;0.3577;
-156.3000;0.1563;0.3624;
-156.0000;0.1587;0.3648;
-155.7000;0.1538;0.3529;
-155.4000;0.1457;0.3267;
-155.1000;0.1563;0.3672;
-154.8000;0.1547;0.3601;
-154.5000;0.1555;0.3672;
-154.2000;0.1587;0.3768;
-153.9000;0.1579;0.3720;
-153.6000;0.1555;0.3672;
-153.3000;0.1579;0.3720;
-153.0000;0.1563;0.3720;
-152.7000;0.1595;0.3863;
-152.4000;0.1555;0.3720;
-152.1000;0.1555;0.3768;
-151.8000;0.1579;0.3744;
-151.5000;0.1547;0.3696;
-151.2000;0.1547;0.3624;
-150.9000;0.1571;0.3720;
-150.6000;0.1579;0.3696;
-150.3000;0.1514;0.3553;
-150.0000;0.1579;0.3720;
-149.7000;0.1571;0.3720;
-149.4000;0.1563;0.3744;
-149.1000;0.1571;0.3744;
-148.8000;0.1579;0.3863;
-148.5000;0.1571;0.3839;
-148.2000;0.1563;0.3815;
-147.9000;0.1595;0.3863;
-147.6000;0.1579;0.3863;
-147.3000;0.1506;0.3624;
-147.0000;0.1571;0.3696;
-146.7000;0.1579;0.3768;
-146.4000;0.1579;0.3744;
-146.1000;0.1579;0.3672;
-145.8000;0.1571;0.3720;
-145.5000;0.1587;0.3791;
-145.2000;0.1563;0.3672;
-144.9000;0.1563;0.3696;
-144.6000;0.1579;0.3839;
-144.3000;0.1571;0.3768;
-144.0000;0.1595;0.3839;
-143.7000;0.1563;0.3839;
-143.4000;0.1571;0.3934;
-143.1000;0.1652;0.4030;
-142.8000;0.1571;0.3863;
-142.5000;0.1571;0.3934;
-142.2000;0.1514;0.3768;
-141.9000;0.1571;0.3911;
-141.6000;0.1579;0.3982;
-141.3000;0.1555;0.3911;
-141.0000;0.1563;0.3887;
-140.7000;0.1555;0.3958;
-140.4000;0.1595;0.4054;
-140.1000;0.1563;0.3887;
-139.8000;0.1571;0.3839;
-139.5000;0.1547;0.3696;
-139.2000;0.1547;0.3720;
-138.9000;0.1555;0.3720;
-138.6000;0.1587;0.3768;
-138.3000;0.1571;0.3744;
-138.0000;0.1571;0.3768;
-137.7000;0.1563;0.3768;
-137.4000;0.1555;0.3744;
-137.1000;0.1563;0.3744;
-136.8000;0.1579;0.3815;
-136.5000;0.1579;0.3839;
-136.2000;0.1579;0.3815;
-135.9000;0.1579;0.3791;
-135.6000;0.1579;0.3815;
-135.3000;0.1579;0.3815;
-135.0000;0.1571;0.3768;
-134.7000;0.1595;0.3768;
-134.4000;0.1555;0.3648;
-134.1000;0.1538;0.3577;
-133.8000;0.1571;0.3696;
-133.5000;0.1579;0.3672;
-133.2000;0.1644;0.3887;
-132.9000;0.1612;0.3791;
-132.6000;0.1579;0.3744;
-132.3000;0.1595;0.3744;
-132.0000;0.1571;0.3720;
-131.7000;0.1571;0.3744;
-131.4000;0.1522;0.3577;
-131.1000;0.1563;0.3744;
-130.8000;0.1571;0.3672;
-130.5000;0.1587;0.3720;
-130.2000;0.1571;0.3720;
-129.9000;0.1571;0.3744;
-129.6000;0.1579;0.3768;
-129.3000;0.1530;0.3696;
-129.0000;0.1563;0.3672;
-128.7000;0.1555;0.3696;
-128.4000;0.1530;0.3648;
-128.1000;0.1563;0.3744;
-127.8000;0.1555;0.3768;
-127.5000;0.1514;0.3696;
-127.2000;0.1563;0.3839;
-126.9000;0.1579;0.3815;
-126.6000;0.1587;0.3887;
-126.3000;0.1604;0.3934;
-126.0000;0.1571;0.3839;
-125.7000;0.1571;0.3863;
-125.4000;0.1498;0.3672;
-125.1000;0.1571;0.3815;
-124.8000;0.1555;0.3648;
-124.5000;0.1547;0.3601;
-124.2000;0.1563;0.3577;
-123.9000;0.1563;0.3553;
-123.6000;0.1587;0.3553;
-123.3000;0.1579;0.3481;
-123.0000;0.1555;0.3505;
-122.7000;0.1555;0.3458;
-122.4000;0.1563;0.3481;
-122.1000;0.1563;0.3505;
-121.8000;0.1571;0.3601;
-121.5000;0.1514;0.3434;
-121.2000;0.1579;0.3553;
-120.9000;0.1563;0.3648;
-120.6000;0.1571;0.3696;
-120.3000;0.1579;0.3791;
-120.0000;0.1579;0.3744;
-119.7000;0.1579;0.3768;
-119.4000;0.1555;0.3648;
-119.1000;0.1571;0.3577;
-118.8000;0.1595;0.3720;
-118.5000;0.1579;0.3648;
-118.2000;0.1547;0.3553;
-117.9000;0.1563;0.3529;
-117.6000;0.1587;0.3601;
-117.3000;0.1555;0.3648;
-117.0000;0.1555;0.3672;
-116.7000;0.1563;0.3696;
-116.4000;0.1571;0.3672;
-116.1000;0.1563;0.3624;
-115.8000;0.1538;0.3410;
-115.5000;0.1514;0.3410;
-115.2000;0.1571;0.3577;
-114.9000;0.1563;0.3624;
-114.6000;0.1547;0.3601;
-114.3000;0.1579;0.3720;
-114.0000;0.1571;0.3768;
-113.7000;0.1571;0.3768;
-113.4000;0.1563;0.3720;
-113.1000;0.1563;0.3744;
-112.8000;0.1563;0.3839;
-112.5000;0.1579;0.3839;
-112.2000;0.1547;0.3863;
-111.9000;0.1571;0.3887;
-111.6000;0.1579;0.3958;
-111.3000;0.1547;0.3934;
-111.0000;0.1538;0.3958;
-110.7000;0.1563;0.3982;
-110.4000;0.1490;0.3744;
-110.1000;0.1587;0.3934;
-109.8000;0.1522;0.3720;
-109.5000;0.1587;0.3815;
-109.2000;0.1473;0.3553;
-108.9000;0.1579;0.3839;
-108.6000;0.1587;0.3791;
-108.3000;0.1563;0.3768;
-108.0000;0.1563;0.3768;
-107.7000;0.1547;0.3720;
-107.4000;0.1425;0.3458;
-107.1000;0.1547;0.3744;
-106.8000;0.1563;0.3696;
-106.5000;0.1595;0.3839;
-106.2000;0.1677;0.4101;
-105.9000;0.1563;0.3839;
-105.6000;0.1547;0.3791;
-105.3000;0.1555;0.3791;
-105.0000;0.1555;0.3768;
-104.7000;0.1563;0.3815;
-104.4000;0.1506;0.3672;
-104.1000;0.1587;0.3839;
-103.8000;0.1563;0.3791;
-103.5000;0.1571;0.3744;
-103.2000;0.1571;0.3696;
-102.9000;0.1563;0.3768;
-102.6000;0.1563;0.3791;
-102.3000;0.1587;0.3791;
-102.0000;0.1506;0.3648;
-101.7000;0.1571;0.3815;
-101.4000;0.1555;0.3744;
-101.1000;0.1571;0.3744;
-100.8000;0.1547;0.3744;
-100.5000;0.1620;0.3863;
-100.2000;0.1571;0.3720;
-99.9000;0.1571;0.3744;
-99.6000;0.1571;0.3672;
-99.3000;0.1571;0.3624;
-99.0000;0.1604;0.3696;
-98.7000;0.1555;0.3577;
-98.4000;0.1563;0.3648;
-98.1000;0.1604;0.3744;
-97.8000;0.1506;0.3505;
-97.5000;0.1473;0.3434;
-97.2000;0.1538;0.3553;
-96.9000;0.1555;0.3601;
-96.6000;0.1538;0.3601;
-96.3000;0.1563;0.3791;
-96.0000;0.1571;0.3815;
-95.7000;0.1555;0.3696;
-95.4000;0.1571;0.3744;
-95.1000;0.1571;0.3720;
-94.8000;0.1620;0.3839;
-94.5000;0.1579;0.3744;
-94.2000;0.1563;0.3768;
-93.9000;0.1669;0.3958;
-93.6000;0.1571;0.3696;
-93.3000;0.1571;0.3768;
-93.0000;0.1571;0.3696;
-92.7000;0.1506;0.3577;
-92.4000;0.1547;0.3815;
-92.1000;0.1571;0.3911;
-91.8000;0.1538;0.3768;
-91.5000;0.1433;0.3434;
-91.2000;0.1571;0.3863;
-90.9000;0.1587;0.3815;
-90.6000;0.1547;0.3744;
-90.3000;0.1563;0.3791;
-90.0000;0.1563;0.3768;
-89.7000;0.1571;0.3696;
-89.4000;0.1563;0.3696;
-89.1000;0.1579;0.3815;
-88.8000;0.1547;0.3768;
-88.5000;0.1555;0.3744;
-88.2000;0.1563;0.3744;
-87.9000;0.1547;0.3601;
-87.6000;0.1555;0.3624;
-87.3000;0.1587;0.3696;
-87.0000;0.1612;0.3791;
-86.7000;0.1571;0.3601;
-86.4000;0.1669;0.3839;
-86.1000;0.1522;0.3529;
-85.8000;0.1555;0.3672;
-85.5000;0.1563;0.3624;
-85.2000;0.1530;0.3505;
-84.9000;0.1538;0.3601;
-84.6000;0.1547;0.3672;
-84.3000;0.1555;0.3768;
-84.0000;0.1571;0.3863;
-83.7000;0.1579;0.3863;
-83.4000;0.1506;0.3672;
-83.1000;0.1555;0.3768;
-82.8000;0.1547;0.3791;
-82.5000;0.1547;0.3815;
-82.2000;0.1587;0.4006;
-81.9000;0.1604;0.4030;
-81.6000;0.1571;0.4006;
-81.3000;0.1481;0.3744;
-81.0000;0.1555;0.3934;
-80.7000;0.1481;0.3648;
-80.4000;0.1571;0.3839;
-80.1000;0.1571;0.3768;
-79.8000;0.1555;0.3720;
-79.5000;0.1538;0.3672;
-79.2000;0.1563;0.3744;
-78.9000;0.1538;0.3720;
-78.6000;0.1604;0.3815;
-78.3000;0.1555;0.3672;
-78.0000;0.1579;0.3624;
-77.7000;0.1522;0.3505;
-77.4000;0.1563;0.3601;
-77.1000;0.1587;0.3672;
-76.8000;0.1555;0.3577;
-76.5000;0.1563;0.3577;
-76.2000;0.1563;0.3434;
-75.9000;0.1547;0.3386;
-75.6000;0.1571;0.3505;
-75.3000;0.1547;0.3434;
-75.0000;0.1555;0.3434;
-74.7000;0.1563;0.3434;
-74.4000;0.1587;0.3434;
-74.1000;0.1571;0.3362;
-73.8000;0.1571;0.3434;
-73.5000;0.1595;0.3458;
-73.2000;0.1612;0.3481;
-72.9000;0.1522;0.3338;
-72.6000;0.1620;0.3648;
-72.3000;0.1555;0.3505;
-72.0000;0.1498;0.3362;
-71.7000;0.1555;0.3458;
-71.4000;0.1587;0.3529;
-71.1000;0.1555;0.3529;
-70.8000;0.1628;0.3672;
-70.5000;0.1555;0.3505;
-70.2000;0.1563;0.3481;
-69.9000;0.1522;0.3410;
-69.6000;0.1571;0.3481;
-69.3000;0.1571;0.3577;
-69.0000;0.1579;0.3696;
-68.7000;0.1555;0.3744;
-68.4000;0.1547;0.3815;
-68.1000;0.1457;0.3601;
-67.8000;0.1571;0.3839;
-67.5000;0.1571;0.3791;
-67.2000;0.1514;0.3553;
-66.9000;0.1547;0.3648;
-66.6000;0.1571;0.3815;
-66.3000;0.1571;0.3863;
-66.0000;0.1579;0.3863;
-65.7000;0.1571;0.3768;
-65.4000;0.1571;0.3768;
-65.1000;0.1571;0.3863;
-64.8000;0.1571;0.3934;
-64.5000;0.1563;0.3863;
-64.2000;0.1563;0.3815;
-63.9000;0.1571;0.3863;
-63.6000;0.1571;0.3934;
-63.3000;0.1579;0.3887;
-63.0000;0.1555;0.3839;
-62.7000;0.1530;0.3744;
-62.4000;0.1571;0.3720;
-62.1000;0.1579;0.3696;
-61.8000;0.1595;0.3720;
-61.5000;0.1563;0.3672;
-61.2000;0.1620;0.3791;
-60.9000;0.1555;0.3648;
-60.6000;0.1571;0.3696;
-60.3000;0.1555;0.3696;
-60.0000;0.1571;0.3672;
-59.7000;0.1579;0.3648;
-59.4000;0.1587;0.3648;
-59.1000;0.1555;0.3529;
-58.8000;0.1547;0.3529;
-58.5000;0.1636;0.3768;
-58.2000;0.1555;0.3601;
-57.9000;0.1587;0.3768;
-57.6000;0.1457;0.3505;
-57.3000;0.1571;0.3958;
-57.0000;0.1652;0.4173;
-56.7000;0.1579;0.3958;
-56.4000;0.1563;0.3839;
-56.1000;0.1563;0.3839;
-55.8000;0.1604;0.3958;
-55.5000;0.1563;0.3839;
-55.2000;0.1547;0.3815;
-54.9000;0.1628;0.4221;
-54.6000;0.1514;0.3887;
-54.3000;0.1636;0.4197;
-54.0000;0.1571;0.4054;
-53.7000;0.1563;0.4030;
-53.4000;0.1579;0.4149;
-53.1000;0.1571;0.4149;
-52.8000;0.1579;0.4221;
-52.5000;0.1571;0.4149;
-52.2000;0.1579;0.4197;
-51.9000;0.1595;0.4316;
-51.6000;0.1628;0.4340;
-51.3000;0.1571;0.4101;
-51.0000;0.1604;0.4197;
-50.7000;0.1473;0.3839;
-50.4000;0.1538;0.4030;
-50.1000;0.1571;0.4006;
-49.8000;0.1579;0.3958;
-49.5000;0.1579;0.3958;
-49.2000;0.1587;0.4054;
-48.9000;0.1555;0.3911;
-48.6000;0.1571;0.3934;
-48.3000;0.1571;0.3958;
-48.0000;0.1571;0.3958;
-47.7000;0.1563;0.3887;
-47.4000;0.1530;0.3839;
-47.1000;0.1571;0.3887;
-46.8000;0.1571;0.3815;
-46.5000;0.1538;0.3720;
-46.2000;0.1587;0.3887;
-45.9000;0.1547;0.3911;
-45.6000;0.1587;0.4030;
-45.3000;0.1571;0.3911;
-45.0000;0.1563;0.3839;
-44.7000;0.1579;0.3911;
-44.4000;0.1579;0.3934;
-44.1000;0.1538;0.3863;
-43.8000;0.1555;0.3934;
-43.5000;0.1555;0.3982;
-43.2000;0.1563;0.4030;
-42.9000;0.1547;0.3982;
-42.6000;0.1522;0.3958;
-42.3000;0.1547;0.3982;
-42.0000;0.1563;0.3958;
-41.7000;0.1563;0.3958;
-41.4000;0.1530;0.3911;
-41.1000;0.1547;0.3911;
-40.8000;0.1571;0.3863;
-40.5000;0.1571;0.3839;
-40.2000;0.1563;0.3839;
-39.9000;0.1595;0.3958;
-39.6000;0.1579;0.3839;
-39.3000;0.1579;0.3815;
-39.0000;0.1555;0.3744;
-38.7000;0.1587;0.3815;
-38.4000;0.1563;0.3791;
-38.1000;0.1563;0.3815;
-37.8000;0.1595;0.3839;
-37.5000;0.1571;0.3815;
-37.2000;0.1571;0.3768;
-36.9000;0.1530;0.3696;
-36.6000;0.1530;0.3648;
-36.3000;0.1563;0.3696;
-36.0000;0.1563;0.3696;
-35.7000;0.1587;0.3815;
-35.4000;0.1612;0.3887;
-35.1000;0.1563;0.3768;
-34.8000;0.1571;0.3791;
-34.5000;0.1555;0.3720;
-34.2000;0.1587;0.3791;
-33.9000;0.1563;0.3696;
-33.6000;0.1563;0.3672;
-33.3000;0.1563;0.3768;
-33.0000;0.1587;0.3911;
-32.7000;0.1571;0.3791;
-32.4000;0.1563;0.3744;
-32.1000;0.1571;0.3791;
-31.8000;0.1579;0.3791;
-31.5000;0.1571;0.3768;
-31.2000;0.1563;0.3696;
-30.9000;0.1579;0.3744;
-30.6000;0.1612;0.3791;
-30.3000;0.1522;0.3529;
-30.0000;0.1555;0.3529;
-29.7000;0.1555;0.3624;
-29.4000;0.1547;0.3601;
-29.1000;0.1587;0.3672;
-28.8000;0.1587;0.3744;
-28.5000;0.1571;0.3696;
-28.2000;0.1571;0.3696;
-27.9000;0.1595;0.3672;
-27.6000;0.1579;0.3624;
-27.3000;0.1571;0.3648;
-27.0000;0.1587;0.3624;
-26.7000;0.1563;0.3648;
-26.4000;0.1571;0.3624;
-26.1000;0.1555;0.3624;
-25.8000;0.1555;0.3648;
-25.5000;0.1555;0.3672;
-25.2000;0.1547;0.3696;
-24.9000;0.1571;0.3720;
-24.6000;0.1555;0.3744;
-24.3000;0.1555;0.3744;
-24.0000;0.1579;0.3791;
-23.7000;0.1579;0.3720;
-23.4000;0.1547;0.3648;
-23.1000;0.1555;0.3648;
-22.8000;0.1563;0.3696;
-22.5000;0.1563;0.3696;
-22.2000;0.1571;0.3696;
-21.9000;0.1547;0.3648;
-21.6000;0.1538;0.3696;
-21.3000;0.1563;0.3815;
-21.0000;0.1587;0.3839;
-20.7000;0.1547;0.3720;
-20.4000;0.1555;0.3720;
-20.1000;0.1563;0.3815;
-19.8000;0.1571;0.3815;
-19.5000;0.1571;0.3839;
-19.2000;0.1555;0.3839;
-18.9000;0.1579;0.3934;
-18.6000;0.1555;0.3887;
-18.3000;0.1563;0.3791;
-18.0000;0.1563;0.3744;
-17.7000;0.1563;0.3720;
-17.4000;0.1563;0.3696;
-17.1000;0.1571;0.3744;
-16.8000;0.1538;0.3648;
-16.5000;0.1595;0.3791;
-16.2000;0.1571;0.3815;
-15.9000;0.1538;0.3720;
-15.6000;0.1571;0.3815;
-15.3000;0.1555;0.3720;
-15.0000;0.1571;0.3768;
-14.7000;0.1595;0.3839;
-14.4000;0.1571;0.3768;
-14.1000;0.1563;0.3768;
-13.8000;0.1547;0.3672;
-13.5000;0.1571;0.3744;
-13.2000;0.1579;0.3744;
-12.9000;0.1579;0.3696;
-12.6000;0.1563;0.3648;
-12.3000;0.1555;0.3577;
-12.0000;0.1587;0.3624;
-11.7000;0.1555;0.3553;
-11.4000;0.1571;0.3577;
-11.1000;0.1571;0.3624;
-10.8000;0.1563;0.3624;
-10.5000;0.1555;0.3601;
-10.2000;0.1555;0.3601;
-9.9000;0.1538;0.3458;
-9.6000;0.1579;0.3553;
-9.3000;0.1571;0.3601;
-9.0000;0.1587;0.3720;
-8.7000;0.1563;0.3720;
-8.4000;0.1555;0.3791;
-8.1000;0.1563;0.3815;
-7.8000;0.1555;0.3720;
-7.5000;0.1571;0.3791;
-7.2000;0.1579;0.3791;
-6.9000;0.1571;0.3696;
-6.6000;0.1571;0.3768;
-6.3000;0.1563;0.3744;
-6.0000;0.1571;0.3791;
-5.7000;0.1571;0.3768;
-5.4000;0.1571;0.3744;
-5.1000;0.1579;0.3839;
-4.8000;0.1571;0.3887;
-4.5000;0.1620;0.4054;
-4.2000;0.1571;0.3863;
-3.9000;0.1579;0.3863;
-3.6000;0.1547;0.3696;
-3.3000;0.1571;0.3863;
-3.0000;0.1571;0.3887;
-2.7000;0.1579;0.3863;
-2.4000;0.1538;0.3744;
-2.1000;0.1571;0.3672;
-1.8000;0.1579;0.3720;
-1.5000;0.1514;0.3505;
-1.2000;0.1563;0.3696;
-0.9000;0.1555;0.3696;
-0.6000;0.1595;0.3791;
-0.3000;0.1612;0.3863;
0.0000;0.1612;0.3863;
0.3000;0.1530;0.3458;
0.6000;0.1538;0.3577;
0.9000;0.1563;0.3744;
1.2000;0.1538;0.3815;
1.5000;0.1571;0.3934;
1.8000;0.1555;0.4006;
2.1000;0.1571;0.4101;
2.4000;0.1579;0.4197;
2.7000;0.1538;0.4173;
3.0000;0.1612;0.4411;
3.3000;0.1579;0.4435;
3.6000;0.1587;0.4507;
3.9000;0.1571;0.4483;
4.2000;0.1587;0.4459;
4.5000;0.1595;0.4554;
4.8000;0.1595;0.4602;
5.1000;0.1620;0.4650;
5.4000;0.1571;0.4626;
5.7000;0.1587;0.4650;
6.0000;0.1571;0.4626;
6.3000;0.1579;0.4721;
6.6000;0.1579;0.4769;
6.9000;0.1579;0.4769;
7.2000;0.1595;0.4817;
7.5000;0.1555;0.4674;
7.8000;0.1604;0.4721;
8.1000;0.1579;0.4554;
8.4000;0.1563;0.4578;
8.7000;0.1587;0.4698;
9.0000;0.1701;0.5031;
9.3000;0.1563;0.4769;
9.6000;0.1579;0.4841;
9.9000;0.1604;0.4841;
10.2000;0.1587;0.4793;
10.5000;0.1604;0.4841;
10.8000;0.1571;0.4888;
11.1000;0.1563;0.4888;
11.4000;0.1587;0.4960;
11.7000;0.1579;0.4817;
12.0000;0.1579;0.4745;
12.3000;0.1563;0.4650;
12.6000;0.1579;0.4554;
12.9000;0.1579;0.4578;
13.2000;0.1571;0.4602;
13.5000;0.1620;0.4864;
13.8000;0.1669;0.5031;
14.1000;0.1587;0.4841;
14.4000;0.1595;0.4912;
14.7000;0.1579;0.4936;
15.0000;0.1661;0.5151;
15.3000;0.1530;0.4793;
15.6000;0.1579;0.4936;
15.9000;0.1587;0.4912;
16.2000;0.1506;0.4793;
16.5000;0.1587;0.4936;
16.8000;0.1612;0.4960;
17.1000;0.1579;0.4841;
17.4000;0.1604;0.4912;
17.7000;0.1587;0.4888;
18.0000;0.1555;0.4817;
18.3000;0.1563;0.4888;
18.6000;0.1571;0.4864;
18.9000;0.1612;0.5008;
19.2000;0.1571;0.4960;
19.5000;0.1612;0.5079;
19.8000;0.1595;0.5008;
20.1000;0.1514;0.4769;
20.4000;0.1563;0.4888;
20.7000;0.1571;0.4960;
21.0000;0.1563;0.4912;
21.3000;0.1644;0.5103;
21.6000;0.1579;0.5008;
21.9000;0.1644;0.5246;
22.2000;0.1571;0.5055;
22.5000;0.1457;0.4721;
22.8000;0.1555;0.5008;
23.1000;0.1563;0.5031;
23.4000;0.1514;0.4841;
23.7000;0.1571;0.4984;
24.0000;0.1579;0.4936;
24.3000;0.1571;0.4888;
24.6000;0.1604;0.4960;
24.9000;0.1571;0.4888;
25.2000;0.1571;0.4841;
25.5000;0.1587;0.4864;
25.8000;0.1563;0.4745;
26.1000;0.1579;0.4745;
26.4000;0.1563;0.4698;
26.7000;0.1506;0.4554;
27.0000;0.1620;0.4864;
27.3000;0.1571;0.4674;
27.6000;0.1571;0.4674;
27.9000;0.1538;0.4578;
28.2000;0.1571;0.4745;
28.5000;0.1604;0.4817;
28.8000;0.1571;0.4793;
29.1000;0.1587;0.4817;
29.4000;0.1595;0.4793;
29.7000;0.1579;0.4841;
30.0000;0.1498;0.4745;
30.3000;0.1449;0.4650;
30.6000;0.1547;0.4888;
30.9000;0.1571;0.4817;
31.2000;0.1555;0.4793;
31.5000;0.1571;0.4793;
31.8000;0.1579;0.4841;
32.1000;0.1563;0.4793;
32.4000;0.1661;0.5079;
32.7000;0.1620;0.4888;
33.0000;0.1522;0.4578;
33.3000;0.1579;0.4650;
33.6000;0.1571;0.4698;
33.9000;0.1538;0.4578;
34.2000;0.1587;0.4745;
34.5000;0.1587;0.4793;
34.8000;0.1506;0.4531;
35.1000;0.1563;0.4602;
35.4000;0.1571;0.4531;
35.7000;0.1563;0.4531;
36.0000;0.1571;0.4674;
36.3000;0.1612;0.4745;
36.6000;0.1522;0.4578;
36.9000;0.1571;0.4602;
37.2000;0.1514;0.4507;
37.5000;0.1571;0.4721;
37.8000;0.1555;0.4650;
38.1000;0.1563;0.4674;
38.4000;0.1587;0.4817;
38.7000;0.1449;0.4459;
39.0000;0.1563;0.4674;
39.3000;0.1498;0.4602;
39.6000;0.1669;0.5055;
39.9000;0.1579;0.4936;
40.2000;0.1498;0.4745;
40.5000;0.1538;0.4841;
40.8000;0.1571;0.4793;
41.1000;0.1530;0.4698;
41.4000;0.1547;0.4650;
41.7000;0.1563;0.4674;
42.0000;0.1604;0.4793;
42.3000;0.1571;0.4793;
42.6000;0.1604;0.4817;
42.9000;0.1547;0.4674;
43.2000;0.1604;0.4841;
43.5000;0.1587;0.4745;
43.8000;0.1587;0.4793;
44.1000;0.1571;0.4769;
44.4000;0.1595;0.4888;
44.7000;0.1579;0.4841;
45.0000;0.1571;0.4841;
45.3000;0.1433;0.4483;
45.6000;0.1579;0.4841;
45.9000;0.1579;0.4888;
46.2000;0.1571;0.4864;
46.5000;0.1555;0.4793;
46.8000;0.1587;0.4841;
47.1000;0.1571;0.4841;
47.4000;0.1604;0.4936;
47.7000;0.1571;0.4841;
48.0000;0.1587;0.4936;
48.3000;0.1522;0.4698;
48.6000;0.1595;0.5008;
48.9000;0.1563;0.4864;
49.2000;0.1579;0.4841;
49.5000;0.1563;0.4793;
49.8000;0.1563;0.4864;
50.1000;0.1522;0.4721;
50.4000;0.1571;0.4745;
50.7000;0.1563;0.4817;
51.0000;0.1563;0.4817;
51.3000;0.1571;0.4793;
51.6000;0.1571;0.4841;
51.9000;0.1547;0.4721;
52.2000;0.1571;0.4769;
52.5000;0.1579;0.4769;
52.8000;0.1547;0.4698;
53.1000;0.1587;0.4745;
53.4000;0.1538;0.4626;
53.7000;0.1490;0.4483;
54.0000;0.1628;0.4817;
54.3000;0.1644;0.4864;
54.6000;0.1465;0.4435;
54.9000;0.1579;0.4745;
55.2000;0.1604;0.4817;
55.5000;0.1571;0.4698;
55.8000;0.1701;0.5151;
56.1000;0.1563;0.4745;
56.4000;0.1563;0.4769;
56.7000;0.1579;0.4769;
57.0000;0.1595;0.4769;
57.3000;0.1555;0.4698;
57.6000;0.1595;0.4841;
57.9000;0.1571;0.4841;
58.2000;0.1563;0.4841;
58.5000;0.1579;0.4936;
58.8000;0.1579;0.5031;
59.1000;0.1628;0.5198;
59.4000;0.1587;0.5031;
59.7000;0.1661;0.5174;
60.0000;0.1579;0.4888;
60.3000;0.1595;0.4984;
60.6000;0.1587;0.5008;
60.9000;0.1579;0.5008;
61.2000;0.1595;0.5055;
61.5000;0.1449;0.4674;
61.8000;0.1579;0.4984;
62.1000;0.1571;0.4984;
62.4000;0.1579;0.4888;
62.7000;0.1563;0.4793;
63.0000;0.1571;0.4817;
63.3000;0.1636;0.5008;
63.6000;0.1587;0.4912;
63.9000;0.1587;0.4841;
64.2000;0.1579;0.4864;
64.5000;0.1587;0.4817;
64.8000;0.1579;0.4769;
65.1000;0.1579;0.4698;
65.4000;0.1587;0.4769;
65.7000;0.1612;0.4793;
66.0000;0.1587;0.4698;
66.3000;0.1579;0.4650;
66.6000;0.1604;0.4745;
66.9000;0.1579;0.4674;
67.2000;0.1555;0.4674;
67.5000;0.1571;0.4650;
67.8000;0.1571;0.4578;
68.1000;0.1547;0.4602;
68.4000;0.1555;0.4626;
68.7000;0.1571;0.4650;
69.0000;0.1587;0.4626;
69.3000;0.1587;0.4602;
69.6000;0.1604;0.4554;
69.9000;0.1571;0.4411;
70.2000;0.1579;0.4483;
70.5000;0.1563;0.4459;
70.8000;0.1579;0.4483;
71.1000;0.1571;0.4483;
71.4000;0.1587;0.4531;
71.7000;0.1571;0.4483;
72.0000;0.1587;0.4554;
72.3000;0.1636;0.4674;
72.6000;0.1571;0.4578;
72.9000;0.1579;0.4578;
73.2000;0.1579;0.4531;
73.5000;0.1538;0.4364;
73.8000;0.1571;0.4507;
74.1000;0.1555;0.4602;
74.4000;0.1555;0.4602;
74.7000;0.1547;0.4674;
75.0000;0.1579;0.4793;
75.3000;0.1555;0.4817;
75.6000;0.1612;0.5031;
75.9000;0.1547;0.4817;
76.2000;0.1579;0.4841;
76.5000;0.1563;0.4817;
76.8000;0.1579;0.4864;
77.1000;0.1571;0.4793;
77.4000;0.1587;0.4864;
77.7000;0.1555;0.4745;
78.0000;0.1587;0.4912;
78.3000;0.1555;0.4793;
78.6000;0.1555;0.4817;
78.9000;0.1563;0.4912;
79.2000;0.1457;0.4650;
79.5000;0.1563;0.4817;
79.8000;0.1538;0.4674;
80.1000;0.1579;0.4912;
80.4000;0.1563;0.4888;
80.7000;0.1587;0.4888;
81.0000;0.1563;0.4793;
81.3000;0.1571;0.4817;
81.6000;0.1579;0.4841;
81.9000;0.1571;0.4817;
82.2000;0.1579;0.4841;
82.5000;0.1571;0.4769;
82.8000;0.1563;0.4745;
83.1000;0.1538;0.4698;
83.4000;0.1571;0.4817;
83.7000;0.1579;0.4888;
84.0000;0.1579;0.4960;
84.3000;0.1571;0.4841;
84.6000;0.1604;0.4841;
84.9000;0.1587;0.4817;
85.2000;0.1587;0.4841;
85.5000;0.1579;0.4841;
85.8000;0.1595;0.4912;
86.1000;0.1595;0.4841;
86.4000;0.1612;0.4841;
86.7000;0.1587;0.4817;
87.0000;0.1514;0.4721;
87.3000;0.1563;0.4841;
87.6000;0.1547;0.4817;
87.9000;0.1571;0.4817;
88.2000;0.1579;0.4793;
88.5000;0.1571;0.4769;
88.8000;0.1571;0.4674;
89.1000;0.1555;0.4721;
89.4000;0.1579;0.4912;
89.7000;0.1571;0.4888;
90.0000;0.1644;0.5079;
90.3000;0.1506;0.4745;
90.6000;0.1555;0.4888;
90.9000;0.1587;0.4960;
91.2000;0.1587;0.5031;
91.5000;0.1571;0.4912;
91.8000;0.1579;0.4817;
92.1000;0.1563;0.4769;
92.4000;0.1579;0.4864;
92.7000;0.1587;0.4864;
93.0000;0.1571;0.4793;
93.3000;0.1571;0.4817;
93.6000;0.1595;0.4936;
93.9000;0.1579;0.4864;
94.2000;0.1604;0.4912;
94.5000;0.1547;0.4745;
94.8000;0.1595;0.4864;
95.1000;0.1685;0.5079;
95.4000;0.1555;0.4841;
95.7000;0.1563;0.4841;
96.0000;0.1563;0.4793;
96.3000;0.1571;0.4841;
96.6000;0.1579;0.4769;
96.9000;0.1579;0.4793;
97.2000;0.1571;0.4793;
97.5000;0.1498;0.4626;
97.8000;0.1595;0.4841;
98.1000;0.1530;0.4650;
98.4000;0.1563;0.4793;
98.7000;0.1563;0.4817;
99.0000;0.1571;0.4793;
99.3000;0.1563;0.4721;
99.6000;0.1604;0.4936;
99.9000;0.1563;0.4841;
100.2000;0.1547;0.4769;
100.5000;0.1538;0.4769;
100.8000;0.1579;0.4864;
101.1000;0.1636;0.4984;
101.4000;0.1506;0.4721;
101.7000;0.1555;0.4888;
102.0000;0.1579;0.4960;
102.3000;0.1579;0.4936;
102.6000;0.1530;0.4769;
102.9000;0.1579;0.4817;
103.2000;0.1563;0.4793;
103.5000;0.1555;0.4674;
103.8000;0.1555;0.4602;
104.1000;0.1579;0.4602;
104.4000;0.1571;0.4602;
104.7000;0.1571;0.4626;
105.0000;0.1473;0.4435;
105.3000;0.1579;0.4650;
105.6000;0.1587;0.4626;
105.9000;0.1571;0.4626;
106.2000;0.1636;0.4888;
106.5000;0.1563;0.4721;
106.8000;0.1522;0.4602;
107.1000;0.1587;0.4674;
107.4000;0.1595;0.4817;
107.7000;0.1685;0.5008;
108.0000;0.1604;0.4745;
108.3000;0.1604;0.4698;
108.6000;0.1587;0.4674;
108.9000;0.1595;0.4578;
109.2000;0.1563;0.4507;
109.5000;0.1595;0.4578;
109.8000;0.1579;0.4602;
110.1000;0.1612;0.4698;
110.4000;0.1579;0.4650;
110.7000;0.1587;0.4721;
111.0000;0.1579;0.4769;
111.3000;0.1571;0.4817;
111.6000;0.1563;0.4817;
111.9000;0.1595;0.4864;
112.2000;0.1465;0.4483;
112.5000;0.1555;0.4817;
112.8000;0.1571;0.4936;
113.1000;0.1587;0.4960;
113.4000;0.1604;0.4888;
113.7000;0.1587;0.4841;
114.0000;0.1571;0.4864;
114.3000;0.1490;0.4578;
114.6000;0.1595;0.4888;
114.9000;0.1555;0.4769;
115.2000;0.1563;0.4745;
115.5000;0.1612;0.4864;
115.8000;0.1587;0.4864;
116.1000;0.1571;0.4864;
116.4000;0.1530;0.4674;
116.7000;0.1563;0.4793;
117.0000;0.1595;0.4793;
117.3000;0.1538;0.4650;
117.6000;0.1579;0.4769;
117.9000;0.1587;0.4793;
118.2000;0.1595;0.4793;
118.5000;0.1571;0.4721;
118.8000;0.1563;0.4721;
119.1000;0.1538;0.4721;
119.4000;0.1571;0.4841;
119.7000;0.1571;0.4912;
120.0000;0.1579;0.4912;
120.3000;0.1571;0.4888;
120.6000;0.1579;0.4888;
120.9000;0.1571;0.4912;
121.2000;0.1620;0.5151;
121.5000;0.1571;0.5055;
121.8000;0.1587;0.4984;
122.1000;0.1620;0.5151;
122.4000;0.1579;0.5103;
122.7000;0.1555;0.5055;
123.0000;0.1579;0.5079;
123.3000;0.1555;0.4960;
123.6000;0.1571;0.4936;
123.9000;0.1579;0.4912;
124.2000;0.1587;0.4817;
124.5000;0.1571;0.4888;
124.8000;0.1595;0.4912;
125.1000;0.1579;0.4936;
125.4000;0.1587;0.4960;
125.7000;0.1587;0.4888;
126.0000;0.1571;0.4864;
126.3000;0.1538;0.4769;
126.6000;0.1571;0.4864;
126.9000;0.1595;0.4841;
127.2000;0.1571;0.4745;
127.5000;0.1571;0.4698;
127.8000;0.1587;0.4864;
128.1000;0.1571;0.4817;
128.4000;0.1563;0.4745;
128.7000;0.1571;0.4912;
129.0000;0.1555;0.4960;
129.3000;0.1628;0.5031;
129.6000;0.1587;0.4960;
129.9000;0.1579;0.4960;
130.2000;0.1579;0.4936;
130.5000;0.1587;0.4888;
130.8000;0.1538;0.4793;
131.1000;0.1571;0.4864;
131.4000;0.1571;0.4864;
131.7000;0.1579;0.4864;
132.0000;0.1563;0.4864;
132.3000;0.1571;0.4817;
132.6000;0.1628;0.4960;
132.9000;0.1563;0.4864;
133.2000;0.1465;0.4531;
133.5000;0.1587;0.4936;
133.8000;0.1571;0.4912;
134.1000;0.1579;0.4864;
134.4000;0.1595;0.4960;
134.7000;0.1563;0.4888;
135.0000;0.1587;0.4960;
135.3000;0.1579;0.5008;
135.6000;0.1587;0.5031;
135.9000;0.1587;0.5127;
136.2000;0.1530;0.4984;
136.5000;0.1571;0.5031;
136.8000;0.1571;0.4960;
137.1000;0.1587;0.5055;
137.4000;0.1579;0.5031;
137.7000;0.1571;0.4960;
138.0000;0.1547;0.5008;
138.3000;0.1563;0.5008;
138.6000;0.1669;0.5246;
138.9000;0.1604;0.5031;
139.2000;0.1579;0.4912;
139.5000;0.1506;0.4650;
139.8000;0.1555;0.4698;
140.1000;0.1587;0.4841;
140.4000;0.1563;0.4793;
140.7000;0.1571;0.4698;
141.0000;0.1579;0.4721;
141.3000;0.1579;0.4745;
141.6000;0.1595;0.4888;
141.9000;0.1579;0.4745;
142.2000;0.1563;0.4698;
142.5000;0.1571;0.4602;
142.8000;0.1571;0.4650;
143.1000;0.1571;0.4602;
143.4000;0.1563;0.4554;
143.7000;0.1579;0.4602;
144.0000;0.1652;0.4888;
144.3000;0.1571;0.4817;
144.6000;0.1595;0.4912;
144.9000;0.1530;0.4817;
145.2000;0.1555;0.4864;
145.5000;0.1595;0.5008;
145.8000;0.1579;0.4936;
146.1000;0.1604;0.4984;
146.4000;0.1563;0.4984;
146.7000;0.1587;0.4888;
147.0000;0.1587;0.4793;
147.3000;0.1571;0.4793;
147.6000;0.1579;0.4745;
147.9000;0.1555;0.4745;
148.2000;0.1620;0.4984;
148.5000;0.1555;0.4817;
148.8000;0.1620;0.5008;
149.1000;0.1563;0.4864;
149.4000;0.1465;0.4531;
149.7000;0.1571;0.4817;
150.0000;0.1595;0.4864;
150.3000;0.1538;0.4817;
150.6000;0.1587;0.4888;
150.9000;0.1571;0.4888;
151.2000;0.1595;0.4912;
151.5000;0.1571;0.4793;
151.8000;0.1579;0.4912;
152.1000;0.1604;0.4912;
152.4000;0.1555;0.4888;
152.7000;0.1555;0.4912;
153.0000;0.1465;0.4698;
153.3000;0.1563;0.5008;
153.6000;0.1587;0.5151;
153.9000;0.1579;0.5198;
154.2000;0.1709;0.5508;
154.5000;0.1514;0.4912;
154.8000;0.1530;0.4841;
155.1000;0.1620;0.4984;
155.4000;0.1579;0.4841;
155.7000;0.1579;0.4888;
156.0000;0.1579;0.4888;
156.3000;0.1595;0.4936;
156.6000;0.1579;0.4912;
156.9000;0.1620;0.4888;
157.2000;0.1604;0.4721;
157.5000;0.1571;0.4650;
157.8000;0.1579;0.4721;
158.1000;0.1563;0.4745;
158.4000;0.1587;0.4817;
158.7000;0.1571;0.4745;
159.0000;0.1514;0.4674;
159.3000;0.1538;0.4817;
159.6000;0.1571;0.4936;
159.9000;0.1571;0.4960;
160.2000;0.1457;0.4554;
160.5000;0.1571;0.4936;
160.8000;0.1579;0.4936;
161.1000;0.1587;0.4912;
161.4000;0.1522;0.4650;
161.7000;0.1571;0.4817;
162.0000;0.1571;0.4745;
162.3000;0.1579;0.4745;
162.6000;0.1571;0.4769;
162.9000;0.1563;0.4793;
163.2000;0.1587;0.4841;
163.5000;0.1579;0.4888;
163.8000;0.1595;0.4841;
164.1000;0.1571;0.4841;
164.4000;0.1555;0.4817;
164.7000;0.1563;0.4888;
165.0000;0.1579;0.4912;
165.3000;0.1579;0.4888;
165.6000;0.1595;0.4936;
165.9000;0.1571;0.4888;
166.2000;0.1579;0.4888;
166.5000;0.1604;0.4912;
166.8000;0.1579;0.4864;
167.1000;0.1571;0.4912;
167.4000;0.1587;0.4864;
167.7000;0.1571;0.4841;
168.0000;0.1604;0.4984;
168.3000;0.1563;0.4864;
168.6000;0.1636;0.5008;
168.9000;0.1587;0.4841;
169.2000;0.1628;0.4960;
169.5000;0.1563;0.4793;
169.8000;0.1587;0.4888;
170.1000;0.1514;0.4721;
170.4000;0.1595;0.4817;
170.7000;0.1579;0.4769;
171.0000;0.1579;0.4674;
171.3000;0.1571;0.4674;
171.6000;0.1636;0.4912;
171.9000;0.1530;0.4626;
172.2000;0.1555;0.4745;
172.5000;0.1563;0.4745;
172.8000;0.1538;0.4769;
173.1000;0.1595;0.4960;
173.4000;0.1563;0.4817;
173.7000;0.1579;0.4769;
174.0000;0.1571;0.4793;
174.3000;0.1587;0.4793;
174.6000;0.1522;0.4650;
174.9000;0.1604;0.4912;
175.2000;0.1579;0.4841;
175.5000;0.1595;0.4864;
175.8000;0.1547;0.4817;
176.1000;0.1579;0.4817;
176.4000;0.1571;0.4817;
176.7000;0.1571;0.4817;
177.0000;0.1498;0.4698;
177.3000;0.1555;0.4841;
177.6000;0.1563;0.4793;
177.9000;0.1547;0.4817;
178.2000;0.1579;0.4888;
178.5000;0.1522;0.4769;
178.8000;0.1563;0.4936;
179.1000;0.1571;0.4888;
179.4000;0.1587;0.4793;
179.7000;0.1628;0.4864;
180.0000;0.1579;0.4721;
180.3000;0.1612;0.4793;
180.6000;0.1506;0.4602;
180.9000;0.1571;0.4912;
181.2000;0.1530;0.4745;
181.5000;0.1595;0.4793;
181.8000;0.1538;0.4698;
182.1000;0.1579;0.4817;
182.4000;0.1547;0.4698;
182.7000;0.1571;0.4674;
183.0000;0.1587;0.4698;
183.3000;0.1555;0.4626;
183.6000;0.1587;0.4745;
183.9000;0.1587;0.4698;
184.2000;0.1595;0.4745;
184.5000;0.1579;0.4793;
184.8000;0.1571;0.4841;
185.1000;0.1579;0.4864;
185.4000;0.1579;0.4841;
185.7000;0.1579;0.4912;
186.0000;0.1571;0.4817;
186.3000;0.1612;0.4912;
186.6000;0.1579;0.4817;
186.9000;0.1571;0.4888;
187.2000;0.1563;0.4793;
187.5000;0.1571;0.4769;
187.8000;0.1555;0.4769;
188.1000;0.1587;0.4817;
188.4000;0.1465;0.4507;
188.7000;0.1555;0.4793;
189.0000;0.1555;0.4769;
189.3000;0.1563;0.4698;
189.6000;0.1579;0.4721;
189.9000;0.1563;0.4626;
190.2000;0.1579;0.4650;
190.5000;0.1579;0.4698;
190.8000;0.1612;0.4674;
191.1000;0.1563;0.4578;
191.4000;0.1538;0.4578;
191.7000;0.1595;0.4769;
192.0000;0.1571;0.4793;
192.3000;0.1579;0.4864;
192.6000;0.1595;0.4936;
192.9000;0.1571;0.4841;
193.2000;0.1579;0.4769;
193.5000;0.1579;0.4769;
193.8000;0.1563;0.4745;
194.1000;0.1579;0.4793;
194.4000;0.1522;0.4721;
194.7000;0.1604;0.4912;
195.0000;0.1579;0.4888;
195.3000;0.1604;0.4984;
195.6000;0.1579;0.4888;
195.9000;0.1587;0.4936;
196.2000;0.1587;0.4936;
196.5000;0.1571;0.4817;
196.8000;0.1571;0.4888;
197.1000;0.1555;0.4769;
197.4000;0.1604;0.4888;
197.7000;0.1571;0.4817;
198.0000;0.1563;0.4721;
198.3000;0.1571;0.4674;
198.6000;0.1563;0.4674;
198.9000;0.1547;0.4578;
199.2000;0.1555;0.4745;
199.5000;0.1595;0.4769;
199.8000;0.1579;0.4793;
200.1000;0.1547;0.4745;
200.4000;0.1563;0.4721;
200.7000;0.1604;0.4888;
201.0000;0.1587;0.4841;
201.3000;0.1579;0.4817;
201.6000;0.1571;0.4769;
201.9000;0.1579;0.4793;
202.2000;0.1587;0.4769;
202.5000;0.1571;0.4769;
202.8000;0.1587;0.4769;
203.1000;0.1579;0.4817;
203.4000;0.1538;0.4698;
203.7000;0.1571;0.4817;
204.0000;0.1571;0.4769;
204.3000;0.1636;0.4936;
204.6000;0.1701;0.5103;
204.9000;0.1571;0.4745;
205.2000;0.1571;0.4626;
205.5000;0.1595;0.4674;
205.8000;0.1555;0.4626;
206.1000;0.1604;0.4769;
206.4000;0.1612;0.4793;
206.7000;0.1563;0.4674;
207.0000;0.1579;0.4674;
207.3000;0.1579;0.4674;
207.6000;0.1571;0.4674;
207.9000;0.1579;0.4745;
208.2000;0.1595;0.4698;
208.5000;0.1579;0.4769;
208.8000;0.1579;0.4769;
209.1000;0.1595;0.4888;
209.4000;0.1530;0.4745;
209.7000;0.1579;0.4864;
210.0000;0.1571;0.4817;
210.3000;0.1595;0.4841;
210.6000;0.1595;0.4817;
210.9000;0.1571;0.4769;
211.2000;0.1571;0.4745;
211.5000;0.1677;0.4936;
211.8000;0.1563;0.4674;
212.1000;0.1571;0.4745;
212.4000;0.1555;0.4698;
212.7000;0.1579;0.4841;
213.0000;0.1579;0.4864;
213.3000;0.1595;0.4841;
213.6000;0.1579;0.4769;
213.9000;0.1579;0.4817;
214.2000;0.1547;0.4698;
214.5000;0.1579;0.4745;
214.8000;0.1571;0.4674;
215.1000;0.1587;0.4626;
215.4000;0.1628;0.4817;
215.7000;0.1587;0.4698;
216.0000;0.1555;0.4626;
216.3000;0.1579;0.4650;
216.6000;0.1579;0.4745;
216.9000;0.1498;0.4626;
217.2000;0.1563;0.4721;
217.5000;0.1587;0.4769;
217.8000;0.1579;0.4745;
218.1000;0.1571;0.4769;
218.4000;0.1612;0.4841;
218.7000;0.1571;0.4745;
219.0000;0.1555;0.4769;
219.3000;0.1604;0.4912;
219.6000;0.1571;0.4912;
219.9000;0.1571;0.4817;
220.2000;0.1571;0.4769;
220.5000;0.1571;0.4745;
220.8000;0.1579;0.4769;
221.1000;0.1587;0.4698;
221.4000;0.1587;0.4698;
221.7000;0.1579;0.4721;
222.0000;0.1709;0.5127;
222.3000;0.1555;0.4721;
222.6000;0.1555;0.4721;
222.9000;0.1522;0.4650;
223.2000;0.1587;0.4745;
223.5000;0.1538;0.4721;
223.8000;0.1571;0.4841;
224.1000;0.1571;0.4817;
224.4000;0.1579;0.4793;
224.7000;0.1555;0.4769;
225.0000;0.1587;0.4841;
225.3000;0.1563;0.4721;
225.6000;0.1579;0.4769;
225.9000;0.1563;0.4745;
226.2000;0.1563;0.4769;
226.5000;0.1547;0.4817;
226.8000;0.1571;0.4864;
227.1000;0.1571;0.4793;
227.4000;0.1555;0.4745;
227.7000;0.1571;0.4817;
228.0000;0.1587;0.4841;
228.3000;0.1571;0.4721;
228.6000;0.1555;0.4626;
228.9000;0.1579;0.4674;
229.2000;0.1571;0.4674;
229.5000;0.1587;0.4698;
229.8000;0.1571;0.4626;
230.1000;0.1579;0.4626;
230.4000;0.1587;0.4626;
230.7000;0.1571;0.4650;
231.0000;0.1571;0.4674;
231.3000;0.1595;0.4745;
231.6000;0.1587;0.4698;
231.9000;0.1579;0.4602;
232.2000;0.1579;0.4650;
232.5000;0.1563;0.4650;
232.8000;0.1595;0.4769;
233.1000;0.1604;0.4841;
233.4000;0.1595;0.4888;
233.7000;0.1579;0.4817;
234.0000;0.1563;0.4817;
234.3000;0.1538;0.4674;
234.6000;0.1571;0.4912;
234.9000;0.1587;0.4936;
235.2000;0.1547;0.4888;
235.5000;0.1530;0.4888;
235.8000;0.1579;0.5031;
236.1000;0.1563;0.5008;
236.4000;0.1555;0.4864;
236.7000;0.1563;0.4864;
237.0000;0.1579;0.4841;
237.3000;0.1563;0.4864;
237.6000;0.1563;0.4793;
237.9000;0.1563;0.4721;
238.2000;0.1587;0.4745;
238.5000;0.1579;0.4674;
238.8000;0.1579;0.4626;
239.1000;0.1555;0.4626;
239.4000;0.1547;0.4698;
239.7000;0.1579;0.4745;
240.0000;0.1604;0.4721;
240.3000;0.1579;0.4674;
240.6000;0.1579;0.4769;
240.9000;0.1571;0.4745;
241.2000;0.1652;0.5008;
241.5000;0.1563;0.4721;
241.8000;0.1571;0.4698;
242.1000;0.1571;0.4769;
242.4000;0.1579;0.4793;
242.7000;0.1579;0.4793;
243.0000;0.1547;0.4745;
243.3000;0.1579;0.4793;
243.6000;0.1563;0.4864;
243.9000;0.1636;0.5031;
244.2000;0.1579;0.4769;
244.5000;0.1579;0.4793;
244.8000;0.1571;0.4769;
245.1000;0.1571;0.4745;
245.4000;0.1555;0.4769;
245.7000;0.1612;0.4888;
246.0000;0.1538;0.4769;
246.3000;0.1571;0.4841;
246.6000;0.1514;0.4698;
246.9000;0.1555;0.4721;
247.2000;0.1612;0.4864;
247.5000;0.1587;0.4912;
247.8000;0.1571;0.4864;
248.1000;0.1538;0.4626;
248.4000;0.1563;0.4602;
248.7000;0.1620;0.4721;
249.0000;0.1530;0.4483;
249.3000;0.1563;0.4554;
249.6000;0.1457;0.4292;
249.9000;0.1595;0.4650;
250.2000;0.1587;0.4650;
250.5000;0.1693;0.5008;
250.8000;0.1587;0.4817;
251.1000;0.1563;0.4698;
251.4000;0.1579;0.4674;
251.7000;0.1571;0.4650;
252.0000;0.1587;0.4698;
252.3000;0.1563;0.4674;
252.6000;0.1693;0.4936;
252.9000;0.1571;0.4507;
253.2000;0.1571;0.4602;
253.5000;0.1579;0.4650;
253.8000;0.1620;0.4960;
254.1000;0.1579;0.4936;
254.4000;0.1587;0.4936;
254.7000;0.1579;0.4888;
255.0000;0.1555;0.4817;
255.3000;0.1595;0.4912;
255.6000;0.1652;0.5055;
255.9000;0.1579;0.4888;
256.2000;0.1587;0.4960;
256.5000;0.1579;0.4912;
256.8000;0.1579;0.4984;
257.1000;0.1587;0.5008;
257.4000;0.1620;0.5151;
257.7000;0.1571;0.5008;
258.0000;0.1571;0.4912;
258.3000;0.1579;0.4817;
258.6000;0.1522;0.4650;
258.9000;0.1555;0.4650;
259.2000;0.1555;0.4745;
259.5000;0.1571;0.4769;
259.8000;0.1555;0.4888;
260.1000;0.1555;0.4841;
260.4000;0.1587;0.4864;
260.7000;0.1595;0.4888;
261.0000;0.1579;0.4817;
261.3000;0.1563;0.4698;
261.6000;0.1547;0.4626;
261.9000;0.1571;0.4698;
262.2000;0.1563;0.4721;
262.5000;0.1612;0.4793;
262.8000;0.1563;0.4650;
263.1000;0.1579;0.4626;
263.4000;0.1579;0.4602;
263.7000;0.1555;0.4602;
264.0000;0.1579;0.4626;
264.3000;0.1563;0.4602;
264.6000;0.1579;0.4698;
264.9000;0.1555;0.4674;
265.2000;0.1579;0.4721;
265.5000;0.1571;0.4674;
265.8000;0.1555;0.4674;
266.1000;0.1644;0.4912;
266.4000;0.1563;0.4721;
266.7000;0.1595;0.4769;
267.0000;0.1579;0.4698;
267.3000;0.1579;0.4793;
267.6000;0.1571;0.4745;
267.9000;0.1563;0.4721;
268.2000;0.1604;0.4912;
268.5000;0.1579;0.4864;
268.8000;0.1555;0.4817;
269.1000;0.1506;0.4674;
269.4000;0.1587;0.4769;
269.7000;0.1579;0.4721;
270.0000;0.1579;0.4817;
270.3000;0.1473;0.4602;
270.6000;0.1538;0.4674;
270.9000;0.1595;0.4721;
271.2000;0.1677;0.4936;
271.5000;0.1498;0.4483;
271.8000;0.1571;0.4698;
272.1000;0.1587;0.4769;
272.4000;0.1636;0.4936;
272.7000;0.1579;0.4841;
273.0000;0.1555;0.4745;
273.3000;0.1555;0.4769;
273.6000;0.1563;0.4864;
273.9000;0.1587;0.4769;
274.2000;0.1506;0.4626;
274.5000;0.1579;0.4864;
274.8000;0.1636;0.4984;
275.1000;0.1547;0.4769;
275.4000;0.1555;0.4769;
275.7000;0.1579;0.4674;
276.0000;0.1579;0.4626;
276.3000;0.1449;0.4244;
276.6000;0.1555;0.4507;
276.9000;0.1547;0.4459;
277.2000;0.1612;0.4674;
277.5000;0.1595;0.4721;
277.8000;0.1563;0.4531;
278.1000;0.1555;0.4554;
278.4000;0.1555;0.4554;
278.7000;0.1571;0.4674;
279.0000;0.1579;0.4650;
279.3000;0.1571;0.4602;
279.6000;0.1547;0.4602;
279.9000;0.1555;0.4626;
280.2000;0.1555;0.4698;
280.5000;0.1555;0.4745;
280.8000;0.1563;0.4793;
281.1000;0.1571;0.4793;
281.4000;0.1555;0.4769;
281.7000;0.1579;0.4817;
282.0000;0.1547;0.4769;
282.3000;0.1579;0.4745;
282.6000;0.1563;0.4769;
282.9000;0.1563;0.4769;
283.2000;0.1579;0.4817;
283.5000;0.1555;0.4769;
283.8000;0.1571;0.4841;
284.1000;0.1587;0.4841;
284.4000;0.1579;0.4745;
284.7000;0.1555;0.4745;
285.0000;0.1587;0.4793;
285.3000;0.1563;0.4721;
285.6000;0.1579;0.4745;
285.9000;0.1563;0.4769;
286.2000;0.1555;0.4841;
286.5000;0.1604;0.4960;
286.8000;0.1571;0.4912;
287.1000;0.1579;0.4888;
287.4000;0.1514;0.4674;
287.7000;0.1579;0.4817;
288.0000;0.1587;0.4888;
288.3000;0.1563;0.4769;
288.6000;0.1595;0.4817;
288.9000;0.1547;0.4745;
289.2000;0.1579;0.4817;
289.5000;0.1457;0.4507;
289.8000;0.1571;0.4817;
290.1000;0.1644;0.5008;
290.4000;0.1538;0.4745;
290.7000;0.1571;0.4817;
291.0000;0.1595;0.4864;
291.3000;0.1579;0.4888;
291.6000;0.1563;0.4841;
291.9000;0.1522;0.4626;
292.2000;0.1506;0.4602;
292.5000;0.1579;0.4745;
292.8000;0.1555;0.4674;
293.1000;0.1595;0.4912;
293.4000;0.1563;0.4888;
293.7000;0.1595;0.4912;
294.0000;0.1555;0.4769;
294.3000;0.1522;0.4602;
294.6000;0.1604;0.4817;
294.9000;0.1530;0.4626;
295.2000;0.1498;0.4602;
295.5000;0.1555;0.4769;
295.8000;0.1579;0.4769;
296.1000;0.1579;0.4769;
296.4000;0.1555;0.4698;
296.7000;0.1571;0.4721;
297.0000;0.1563;0.4745;
297.3000;0.1579;0.4817;
297.6000;0.1571;0.4721;
297.9000;0.1579;0.4793;
298.2000;0.1604;0.4960;
298.5000;0.1563;0.4984;
298.8000;0.1563;0.4936;
299.1000;0.1563;0.4936;
299.4000;0.1571;0.5008;
299.7000;0.1571;0.4936;
300.0000;0.1595;0.4960;
300.3000;0.1441;0.4602;
300.6000;0.1571;0.4960;
300.9000;0.1571;0.4888;
301.2000;0.1571;0.4888;
301.5000;0.1587;0.4912;
301.8000;0.1563;0.4817;
302.1000;0.1571;0.4817;
302.4000;0.1620;0.5008;
302.7000;0.1571;0.4888;
303.0000;0.1595;0.5008;
303.3000;0.1555;0.4936;
303.6000;0.1595;0.5008;
303.9000;0.1587;0.5079;
304.2000;0.1579;0.5008;
304.5000;0.1604;0.4984;
304.8000;0.1563;0.4841;
305.1000;0.1555;0.4793;
305.4000;0.1579;0.4793;
305.7000;0.1538;0.4769;
306.0000;0.1563;0.4888;
306.3000;0.1604;0.5031;
306.6000;0.1587;0.4960;
306.9000;0.1538;0.4745;
307.2000;0.1555;0.4721;
307.5000;0.1530;0.4721;
307.8000;0.1571;0.4745;
308.1000;0.1579;0.4793;
308.4000;0.1726;0.5222;
308.7000;0.1563;0.4817;
309.0000;0.1547;0.4793;
309.3000;0.1579;0.4793;
309.6000;0.1644;0.4888;
309.9000;0.1506;0.4650;
310.2000;0.1693;0.5174;
310.5000;0.1563;0.4769;
310.8000;0.1604;0.4817;
311.1000;0.1587;0.4841;
311.4000;0.1514;0.4626;
311.7000;0.1571;0.4745;
312.0000;0.1595;0.4817;
312.3000;0.1563;0.4745;
312.6000;0.1579;0.4817;
312.9000;0.1563;0.4793;
313.2000;0.1661;0.4960;
313.5000;0.1587;0.4721;
313.8000;0.1563;0.4674;
314.1000;0.1579;0.4769;
314.4000;0.1555;0.4721;
314.7000;0.1579;0.4817;
315.0000;0.1579;0.4745;
315.3000;0.1587;0.4817;
315.6000;0.1571;0.4817;
315.9000;0.1579;0.4769;
316.2000;0.1538;0.4745;
316.5000;0.1628;0.4936;
316.8000;0.1530;0.4721;
317.1000;0.1555;0.4793;
317.4000;0.1530;0.4650;
317.7000;0.1587;0.4769;
318.0000;0.1563;0.4698;
318.3000;0.1563;0.4698;
318.6000;0.1579;0.4769;
318.9000;0.1563;0.4650;
319.2000;0.1579;0.4650;
319.5000;0.1563;0.4578;
319.8000;0.1579;0.4578;
320.1000;0.1595;0.4674;
320.4000;0.1579;0.4650;
320.7000;0.1579;0.4626;
321.0000;0.1563;0.4602;
321.3000;0.1571;0.4602;
321.6000;0.1571;0.4626;
321.9000;0.1571;0.4769;
322.2000;0.1571;0.4793;
322.5000;0.1547;0.4745;
322.8000;0.1571;0.4793;
323.1000;0.1547;0.4793;
323.4000;0.1587;0.4936;
323.7000;0.1579;0.4864;
324.0000;0.1538;0.4793;
324.3000;0.1661;0.5103;
324.6000;0.1547;0.4864;
324.9000;0.1587;0.5008;
325.2000;0.1571;0.4960;
325.5000;0.1555;0.4936;
325.8000;0.1579;0.4960;
326.1000;0.1587;0.4936;
326.4000;0.1620;0.5031;
326.7000;0.1587;0.4960;
327.0000;0.1571;0.4984;
327.3000;0.1587;0.4936;
327.6000;0.1604;0.4936;
327.9000;0.1555;0.4888;
328.2000;0.1563;0.4888;
328.5000;0.1604;0.4960;
328.8000;0.1571;0.4793;
329.1000;0.1579;0.4841;
329.4000;0.1571;0.4793;
329.7000;0.1571;0.4793;
330.0000;0.1579;0.4793;
330.3000;0.1571;0.4793;
330.6000;0.1595;0.4841;
330.9000;0.1571;0.4793;
331.2000;0.1571;0.4769;
331.5000;0.1547;0.4721;
331.8000;0.1571;0.4745;
332.1000;0.1563;0.4817;
332.4000;0.1571;0.4864;
332.7000;0.1579;0.4888;
333.0000;0.1595;0.4936;
333.3000;0.1587;0.4888;
333.6000;0.1571;0.4864;
333.9000;0.1563;0.4841;
334.2000;0.1587;0.4864;
334.5000;0.1587;0.4864;
334.8000;0.1571;0.4721;
335.1000;0.1555;0.4698;
335.4000;0.1579;0.4674;
335.7000;0.1563;0.4650;
336.0000;0.1563;0.4769;
336.3000;0.1498;0.4578;
336.6000;0.1579;0.4698;
336.9000;0.1587;0.4793;
337.2000;0.1571;0.4721;
337.5000;0.1547;0.4602;
337.8000;0.1579;0.4721;
338.1000;0.1571;0.4698;
338.4000;0.1555;0.4650;
338.7000;0.1547;0.4698;
339.0000;0.1571;0.4745;
339.3000;0.1579;0.4817;
339.6000;0.1571;0.4817;
339.9000;0.1628;0.4936;
340.2000;0.1571;0.4721;
340.5000;0.1547;0.4698;
340.8000;0.1579;0.4674;
341.1000;0.1441;0.4364;
341.4000;0.1571;0.4626;
341.7000;0.1571;0.4674;
342.0000;0.1563;0.4698;
342.3000;0.1514;0.4578;
342.6000;0.1571;0.4793;
342.9000;0.1579;0.4817;
343.2000;0.1587;0.4912;
343.5000;0.1587;0.5008;
343.8000;0.1530;0.4793;
344.1000;0.1571;0.4841;
344.4000;0.1595;0.4864;
344.7000;0.1587;0.4841;
345.0000;0.1571;0.4769;
345.3000;0.1563;0.4793;
345.6000;0.1571;0.4841;
345.9000;0.1571;0.4864;
346.2000;0.1571;0.4817;
346.5000;0.1547;0.4769;
346.8000;0.1579;0.4793;
347.1000;0.1571;0.4721;
347.4000;0.1604;0.4674;
347.7000;0.1579;0.4578;
348.0000;0.1571;0.4531;
348.3000;0.1587;0.4554;
348.6000;0.1652;0.4841;
348.9000;0.1579;0.4650;
349.2000;0.1571;0.4674;
349.5000;0.1612;0.4769;
349.8000;0.1579;0.4650;
350.1000;0.1563;0.4650;
350.4000;0.1522;0.4531;
350.7000;0.1579;0.4650;
351.0000;0.1563;0.4626;
351.3000;0.1571;0.4745;
351.6000;0.1579;0.4721;
351.9000;0.1563;0.4817;
352.2000;0.1587;0.4912;
352.5000;0.1587;0.4864;
352.8000;0.1587;0.4817;
353.1000;0.1579;0.4864;
353.4000;0.1563;0.4841;
353.7000;0.1595;0.4864;
354.0000;0.1587;0.4817;
354.3000;0.1555;0.4745;
354.6000;0.1555;0.4769;
354.9000;0.1579;0.4841;
355.2000;0.1571;0.4936;
355.5000;0.1563;0.4888;
355.8000;0.1563;0.4960;
356.1000;0.1555;0.4841;
356.4000;0.1555;0.4793;
356.7000;0.1555;0.4745;
357.0000;0.1555;0.4745;
357.3000;0.1587;0.4841;
357.6000;0.1579;0.4864;
357.9000;0.1571;0.4817;
358.2000;0.1490;0.4531;
358.5000;0.1579;0.4793;
358.8000;0.1587;0.4841;
359.1000;0.1498;0.4602;
359.4000;0.1563;0.4793;
359.7000;0.1579;0.4817;
360.0000;0.1530;0.4578;
360.3000;0.1571;0.4698;
360.6000;0.1579;0.4721;
360.9000;0.1604;0.4769;
361.2000;0.1571;0.4650;
361.5000;0.1579;0.4674;
361.8000;0.1563;0.4698;
362.1000;0.1538;0.4626;
362.4000;0.1587;0.4745;
362.7000;0.1579;0.4745;
363.0000;0.1473;0.4459;
363.3000;0.1563;0.4793;
363.6000;0.1571;0.4817;
363.9000;0.1604;0.4864;
364.2000;0.1530;0.4698;
364.5000;0.1571;0.4841;
364.8000;0.1587;0.4841;
365.1000;0.1652;0.5127;
365.4000;0.1661;0.5079;
365.7000;0.1587;0.4841;
366.0000;0.1628;0.4912;
366.3000;0.1498;0.4650;
366.6000;0.1555;0.4793;
366.9000;0.1563;0.4817;
367.2000;0.1425;0.4435;
367.5000;0.1571;0.4793;
367.8000;0.1587;0.4793;
368.1000;0.1555;0.4745;
368.4000;0.1571;0.4769;
368.7000;0.1612;0.4912;
369.0000;0.1547;0.4698;
369.3000;0.1579;0.4841;
369.6000;0.1628;0.4936;
369.9000;0.1587;0.4888;
370.2000;0.1563;0.4841;
370.5000;0.1587;0.4936;
370.8000;0.1555;0.4912;
371.1000;0.1563;0.4912;
371.4000;0.1579;0.4912;
371.7000;0.1587;0.4864;
372.0000;0.1579;0.4841;
372.3000;0.1571;0.4841;
372.6000;0.1612;0.4960;
372.9000;0.1595;0.4888;
373.2000;0.1571;0.4864;
373.5000;0.1563;0.4960;
373.8000;0.1563;0.4912;
374.1000;0.1620;0.5055;
374.4000;0.1604;0.5008;
374.7000;0.1571;0.4864;
375.0000;0.1571;0.4912;
375.3000;0.1595;0.4984;
375.6000;0.1530;0.4769;
375.9000;0.1604;0.4984;
376.2000;0.1587;0.4912;
376.5000;0.1587;0.4864;
376.8000;0.1595;0.4936;
377.1000;0.1563;0.4841;
377.4000;0.1555;0.4793;
377.7000;0.1555;0.4817;
378.0000;0.1595;0.5008;
378.3000;0.1579;0.4912;
378.6000;0.1579;0.4769;
378.9000;0.1579;0.4769;
379.2000;0.1506;0.4554;
379.5000;0.1587;0.4745;
379.8000;0.1579;0.4698;
380.1000;0.1571;0.4626;
380.4000;0.1530;0.4626;
380.7000;0.1579;0.4721;
381.0000;0.1563;0.4674;
381.3000;0.1538;0.4554;
381.6000;0.1465;0.4340;
381.9000;0.1587;0.4674;
382.2000;0.1563;0.4602;
382.5000;0.1579;0.4626;
382.8000;0.1555;0.4507;
383.1000;0.1547;0.4483;
383.4000;0.1587;0.4650;
383.7000;0.1563;0.4602;
384.0000;0.1555;0.4626;
384.3000;0.1579;0.4817;
384.6000;0.1563;0.4864;
384.9000;0.1555;0.4793;
385.2000;0.1547;0.4721;
385.5000;0.1555;0.4769;
385.8000;0.1579;0.4888;
386.1000;0.1514;0.4745;
386.4000;0.1587;0.4864;
386.7000;0.1563;0.4841;
387.0000;0.1563;0.4864;
387.3000;0.1595;0.4793;
387.6000;0.1571;0.4817;
387.9000;0.1587;0.4817;
388.2000;0.1563;0.4769;
388.5000;0.1563;0.4698;
388.8000;0.1538;0.4602;
389.1000;0.1579;0.4674;
389.4000;0.1595;0.4721;
389.7000;0.1563;0.4674;
390.0000;0.1506;0.4554;
390.3000;0.1555;0.4698;
390.6000;0.1555;0.4674;
390.9000;0.1579;0.4721;
391.2000;0.1563;0.4745;
391.5000;0.1587;0.4698;
391.8000;0.1571;0.4674;
392.1000;0.1579;0.4745;
392.4000;0.1498;0.4531;
392.7000;0.1587;0.4745;
393.0000;0.1628;0.4864;
393.3000;0.1579;0.4769;
393.6000;0.1604;0.4936;
393.9000;0.1555;0.4793;
394.2000;0.1563;0.4793;
394.5000;0.1547;0.4626;
394.8000;0.1595;0.4769;
395.1000;0.1563;0.4674;
395.4000;0.1587;0.4721;
395.7000;0.1506;0.4435;
396.0000;0.1612;0.4698;
396.3000;0.1547;0.4554;
396.6000;0.1555;0.4578;
396.9000;0.1555;0.4650;
397.2000;0.1571;0.4626;
397.5000;0.1473;0.4388;
397.8000;0.1644;0.4793;
398.1000;0.1579;0.4674;
398.4000;0.1579;0.4674;
398.7000;0.1522;0.4507;
399.0000;0.1595;0.4698;
399.3000;0.1563;0.4698;
399.6000;0.1571;0.4745;
399.9000;0.1579;0.4817;
400.2000;0.1547;0.4698;
400.5000;0.1571;0.4769;
400.8000;0.1579;0.4698;
401.1000;0.1547;0.4650;
401.4000;0.1587;0.4769;
401.7000;0.1579;0.4698;
402.0000;0.1604;0.4745;
402.3000;0.1530;0.4554;
402.6000;0.1587;0.4698;
402.9000;0.1571;0.4578;
403.2000;0.1465;0.4316;
403.5000;0.1547;0.4531;
403.8000;0.1636;0.4698;
404.1000;0.1563;0.4459;
404.4000;0.1579;0.4507;
404.7000;0.1555;0.4483;
405.0000;0.1563;0.4435;
405.3000;0.1538;0.4364;
405.6000;0.1555;0.4483;
405.9000;0.1563;0.4602;
406.2000;0.1563;0.4602;
406.5000;0.1604;0.4698;
406.8000;0.1595;0.4674;
407.1000;0.1571;0.4626;
407.4000;0.1555;0.4626;
407.7000;0.1530;0.4554;
408.0000;0.1571;0.4698;
408.3000;0.1652;0.4888;
408.6000;0.1571;0.4817;
408.9000;0.1563;0.4769;
409.2000;0.1579;0.4817;
409.5000;0.1547;0.4793;
409.8000;0.1563;0.4864;
410.1000;0.1563;0.4793;
410.4000;0.1563;0.4769;
410.7000;0.1579;0.4841;
411.0000;0.1563;0.4745;
411.3000;0.1563;0.4793;
411.6000;0.1579;0.4817;
411.9000;0.1587;0.4888;
412.2000;0.1571;0.4769;
412.5000;0.1563;0.4769;
412.8000;0.1587;0.4793;
413.1000;0.1547;0.4745;
413.4000;0.1563;0.4793;
413.7000;0.1579;0.4817;
414.0000;0.1587;0.4864;
414.3000;0.1530;0.4698;
414.6000;0.1563;0.4745;
414.9000;0.1563;0.4626;
415.2000;0.1563;0.4554;
415.5000;0.1563;0.4507;
415.8000;0.1563;0.4531;
416.1000;0.1563;0.4483;
416.4000;0.1571;0.4483;
416.7000;0.1571;0.4531;
417.0000;0.1547;0.4578;
417.3000;0.1563;0.4578;
417.6000;0.1579;0.4626;
417.9000;0.1604;0.4674;
418.2000;0.1579;0.4626;
418.5000;0.1612;0.4674;
418.8000;0.1563;0.4531;
419.1000;0.1579;0.4626;
419.4000;0.1595;0.4602;
419.7000;0.1595;0.4626;
420.0000;0.1571;0.4626;
420.3000;0.1595;0.4578;
420.6000;0.1571;0.4483;
420.9000;0.1595;0.4626;
421.2000;0.1555;0.4554;
421.5000;0.1628;0.4769;
421.8000;0.1563;0.4674;
422.1000;0.1595;0.4817;
422.4000;0.1571;0.4745;
422.7000;0.1563;0.4745;
423.0000;0.1538;0.4721;
423.3000;0.1563;0.4769;
423.6000;0.1571;0.4817;
423.9000;0.1547;0.4817;
424.2000;0.1522;0.4674;
424.5000;0.1595;0.5008;
424.8000;0.1579;0.4888;
425.1000;0.1579;0.4912;
425.4000;0.1563;0.4936;
425.7000;0.1522;0.4769;
426.0000;0.1571;0.4960;
426.3000;0.1595;0.5031;
426.6000;0.1579;0.4960;
426.9000;0.1579;0.4936;
427.2000;0.1538;0.4769;
427.5000;0.1555;0.4864;
427.8000;0.1571;0.4817;
428.1000;0.1587;0.4793;
428.4000;0.1579;0.4817;
428.7000;0.1579;0.4841;
429.0000;0.1555;0.4793;
429.3000;0.1555;0.4841;
429.6000;0.1547;0.4745;
429.9000;0.1587;0.4960;
430.2000;0.1587;0.4960;
430.5000;0.1563;0.4912;
430.8000;0.1538;0.4864;
431.1000;0.1571;0.4817;
431.4000;0.1571;0.4864;
431.7000;0.1571;0.4936;
432.0000;0.1587;0.4912;
432.3000;0.1587;0.4864;
432.6000;0.1555;0.4769;
432.9000;0.1563;0.4864;
433.2000;0.1563;0.4864;
433.5000;0.1555;0.4841;
433.8000;0.1555;0.4888;
434.1000;0.1563;0.4912;
434.4000;0.1587;0.5008;
434.7000;0.1563;0.5151;
435.0000;0.1587;0.5151;
435.3000;0.1563;0.5055;
435.6000;0.1579;0.5031;
435.9000;0.1595;0.4960;
436.2000;0.1571;0.4864;
436.5000;0.1628;0.5031;
436.8000;0.1579;0.4960;
437.1000;0.1587;0.5008;
437.4000;0.1538;0.4936;
437.7000;0.1571;0.5008;
438.0000;0.1563;0.5008;
438.3000;0.1563;0.4912;
438.6000;0.1571;0.4841;
438.9000;0.1571;0.4769;
439.2000;0.1571;0.4769;
439.5000;0.1555;0.4698;
439.8000;0.1587;0.4769;
440.1000;0.1555;0.4698;
440.4000;0.1579;0.4721;
440.7000;0.1555;0.4721;
441.0000;0.1579;0.4793;
441.3000;0.1571;0.4841;
441.6000;0.1595;0.4888;
441.9000;0.1555;0.4793;
442.2000;0.1571;0.4769;
442.5000;0.1547;0.4745;
442.8000;0.1595;0.4912;
443.1000;0.1571;0.4817;
443.4000;0.1547;0.4841;
443.7000;0.1555;0.4841;
444.0000;0.1571;0.4841;
444.3000;0.1571;0.4912;
444.6000;0.1555;0.4936;
444.9000;0.1563;0.4936;
445.2000;0.1571;0.4984;
445.5000;0.1490;0.4745;
445.8000;0.1571;0.4912;
446.1000;0.1530;0.4912;
446.4000;0.1628;0.5103;
446.7000;0.1587;0.5008;
447.0000;0.1571;0.4841;
447.3000;0.1563;0.4841;
447.6000;0.1563;0.4817;
447.9000;0.1571;0.4841;
448.2000;0.1661;0.5031;
448.5000;0.1563;0.4841;
448.8000;0.1522;0.4721;
449.1000;0.1538;0.4745;
449.4000;0.1587;0.4841;
449.7000;0.1555;0.4817;
450.0000;0.1579;0.4912;
450.3000;0.1628;0.5055;
450.6000;0.1579;0.4960;
450.9000;0.1571;0.4912;
451.2000;0.1530;0.4745;
451.5000;0.1579;0.4936;
451.8000;0.1587;0.4912;
452.1000;0.1563;0.4841;
452.4000;0.1571;0.4793;
452.7000;0.1547;0.4841;
453.0000;0.1579;0.4888;
453.3000;0.1506;0.4721;
453.6000;0.1563;0.4888;
453.9000;0.1579;0.4912;
454.2000;0.1563;0.4888;
454.5000;0.1587;0.4960;
454.8000;0.1661;0.5127;
455.1000;0.1514;0.4745;
455.4000;0.1579;0.4936;
455.7000;0.1587;0.4936;
456.0000;0.1547;0.4912;
456.3000;0.1538;0.4864;
456.6000;0.1547;0.4841;
456.9000;0.1636;0.5031;
457.2000;0.1579;0.4769;
457.5000;0.1579;0.4745;
457.8000;0.1620;0.4912;
458.1000;0.1571;0.4817;
458.4000;0.1547;0.4721;
458.7000;0.1547;0.4721;
459.0000;0.1636;0.4984;
459.3000;0.1530;0.4650;
459.6000;0.1587;0.4817;
459.9000;0.1563;0.4769;
460.2000;0.1579;0.4841;
460.5000;0.1571;0.4817;
460.8000;0.1571;0.4793;
461.1000;0.1579;0.4769;
461.4000;0.1530;0.4650;
461.7000;0.1579;0.4721;
462.0000;0.1555;0.4721;
462.3000;0.1571;0.4745;
462.6000;0.1571;0.4745;
462.9000;0.1579;0.4769;
463.2000;0.1563;0.4721;
463.5000;0.1563;0.4698;
463.8000;0.1563;0.4674;
464.1000;0.1571;0.4602;
464.4000;0.1571;0.4626;
464.7000;0.1555;0.4531;
465.0000;0.1579;0.4578;
465.3000;0.1579;0.4554;
465.6000;0.1587;0.4531;
465.9000;0.1587;0.4554;
466.2000;0.1579;0.4578;
466.5000;0.1555;0.4578;
466.8000;0.1555;0.4626;
467.1000;0.1563;0.4602;
467.4000;0.1571;0.4554;
467.7000;0.1563;0.4554;
468.0000;0.1555;0.4602;
468.3000;0.1595;0.4698;
468.6000;0.1538;0.4578;
468.9000;0.1555;0.4698;
469.2000;0.1538;0.4674;
469.5000;0.1644;0.5008;
469.8000;0.1587;0.4841;
470.1000;0.1555;0.4817;
470.4000;0.1547;0.4745;
470.7000;0.1620;0.5055;
471.0000;0.1579;0.4912;
471.3000;0.1571;0.4960;
471.6000;0.1555;0.5008;
471.9000;0.1530;0.4912;
472.2000;0.1465;0.4721;
472.5000;0.1579;0.5031;
472.8000;0.1563;0.4960;
473.1000;0.1506;0.4793;
473.4000;0.1522;0.4817;
473.7000;0.1579;0.4936;
474.0000;0.1441;0.4578;
474.3000;0.1571;0.4912;
474.6000;0.1563;0.4960;
474.9000;0.1547;0.4888;
475.2000;0.1571;0.5008;
475.5000;0.1579;0.5008;
475.8000;0.1571;0.4912;
476.1000;0.1555;0.4817;
476.4000;0.1571;0.4841;
476.7000;0.1587;0.4769;
477.0000;0.1587;0.4721;
477.3000;0.1571;0.4650;
477.6000;0.1571;0.4674;
477.9000;0.1522;0.4602;
478.2000;0.1563;0.4721;
478.5000;0.1555;0.4626;
478.8000;0.1587;0.4721;
479.1000;0.1465;0.4411;
479.4000;0.1579;0.4721;
479.7000;0.1579;0.4745;
480.0000;0.1612;0.4841;
480.3000;0.1587;0.4769;
480.6000;0.1579;0.4793;
480.9000;0.1481;0.4459;
481.2000;0.1571;0.4721;
481.5000;0.1571;0.4793;
481.8000;0.1571;0.4888;
482.1000;0.1522;0.4769;
482.4000;0.1587;0.4888;
482.7000;0.1579;0.4960;
483.0000;0.1628;0.5031;
483.3000;0.1579;0.4936;
483.6000;0.1571;0.4888;
483.9000;0.1571;0.4745;
484.2000;0.1571;0.4745;
484.5000;0.1604;0.4817;
484.8000;0.1547;0.4745;
485.1000;0.1579;0.4841;
485.4000;0.1661;0.5055;
485.7000;0.1514;0.4578;
486.0000;0.1587;0.4745;
486.3000;0.1644;0.4817;
486.6000;0.1579;0.4674;
486.9000;0.1563;0.4674;
487.2000;0.1563;0.4626;
487.5000;0.1571;0.4650;
487.8000;0.1514;0.4554;
488.1000;0.1555;0.4698;
488.4000;0.1628;0.4984;
488.7000;0.1555;0.4841;
489.0000;0.1604;0.4984;
489.3000;0.1563;0.4793;
489.6000;0.1522;0.4626;
489.9000;0.1538;0.4578;
490.2000;0.1595;0.4745;
490.5000;0.1506;0.4507;
490.8000;0.1579;0.4769;
491.1000;0.1587;0.4864;
491.4000;0.1563;0.4817;
491.7000;0.1579;0.4888;
492.0000;0.1571;0.4888;
492.3000;0.1571;0.4841;
492.6000;0.1522;0.4793;
492.9000;0.1579;0.4936;
493.2000;0.1555;0.4841;
493.5000;0.1579;0.4864;
493.8000;0.1571;0.4888;
494.1000;0.1530;0.4912;
494.4000;0.1571;0.4984;
494.7000;0.1555;0.4864;
495.0000;0.1579;0.4888;
495.3000;0.1571;0.5008;
495.6000;0.1587;0.5031;
495.9000;0.1571;0.4912;
496.2000;0.1563;0.4864;
496.5000;0.1457;0.4650;
496.8000;0.1547;0.4888;
497.1000;0.1587;0.4888;
497.4000;0.1571;0.4769;
497.7000;0.1563;0.4745;
498.0000;0.1547;0.4674;
498.3000;0.1571;0.4698;
498.6000;0.1604;0.4745;
498.9000;0.1547;0.4721;
499.2000;0.1563;0.4769;
499.5000;0.1522;0.4674;
499.8000;0.1571;0.4793;
500.1000;0.1595;0.4841;
500.4000;0.1587;0.4888;
500.7000;0.1587;0.4864;
501.0000;0.1571;0.4841;
501.3000;0.1563;0.4888;
501.6000;0.1661;0.5127;
501.9000;0.1612;0.4912;
502.2000;0.1579;0.4841;
502.5000;0.1530;0.4721;
502.8000;0.1571;0.4817;
503.1000;0.1571;0.4864;
503.4000;0.1571;0.4817;
503.7000;0.1571;0.4817;
504.0000;0.1555;0.4650;
504.3000;0.1595;0.4793;
504.6000;0.1538;0.4626;
504.9000;0.1579;0.4650;
505.2000;0.1563;0.4578;
505.5000;0.1571;0.4626;
505.8000;0.1571;0.4745;
506.1000;0.1538;0.4745;
506.4000;0.1563;0.4817;
506.7000;0.1571;0.4888;
507.0000;0.1579;0.4912;
507.3000;0.1563;0.4817;
507.6000;0.1563;0.4769;
507.9000;0.1579;0.4793;
508.2000;0.1587;0.4793;
508.5000;0.1587;0.4793;
508.8000;0.1571;0.4698;
509.1000;0.1587;0.4745;
509.4000;0.1563;0.4674;
509.7000;0.1579;0.4650;
510.0000;0.1571;0.4698;
510.3000;0.1563;0.4721;
510.6000;0.1579;0.4793;
510.9000;0.1579;0.4888;
511.2000;0.1563;0.4793;
511.5000;0.1555;0.4721;
511.8000;0.1571;0.4745;
512.1000;0.1538;0.4721;
512.4000;0.1563;0.4769;
512.7000;0.1563;0.4745;
513.0000;0.1587;0.4793;
513.3000;0.1571;0.4745;
513.6000;0.1530;0.4602;
513.9000;0.1587;0.4793;
514.2000;0.1579;0.4769;
514.5000;0.1481;0.4650;
514.8000;0.1579;0.4912;
515.1000;0.1587;0.4888;
515.4000;0.1571;0.4841;
515.7000;0.1571;0.4745;
516.0000;0.1612;0.4745;
516.3000;0.1538;0.4578;
516.6000;0.1571;0.4626;
516.9000;0.1571;0.4626;
517.2000;0.1587;0.4650;
517.5000;0.1595;0.4531;
517.8000;0.1587;0.4483;
518.1000;0.1595;0.4554;
518.4000;0.1571;0.4388;
518.7000;0.1587;0.4411;
519.0000;0.1595;0.4459;
519.3000;0.1587;0.4554;
519.6000;0.1547;0.4507;
519.9000;0.1587;0.4602;
520.2000;0.1595;0.4650;
520.5000;0.1604;0.4602;
520.8000;0.1563;0.4578;
521.1000;0.1644;0.4745;
521.4000;0.1571;0.4674;
521.7000;0.1579;0.4769;
522.0000;0.1571;0.4864;
522.3000;0.1604;0.4864;
522.6000;0.1579;0.4793;
522.9000;0.1571;0.4769;
523.2000;0.1620;0.4960;
523.5000;0.1555;0.4769;
523.8000;0.1571;0.4721;
524.1000;0.1555;0.4674;
524.4000;0.1555;0.4674;
524.7000;0.1563;0.4674;
525.0000;0.1571;0.4769;
525.3000;0.1555;0.4698;
525.6000;0.1571;0.4721;
525.9000;0.1571;0.4698;
526.2000;0.1571;0.4698;
526.5000;0.1579;0.4674;
526.8000;0.1579;0.4650;
527.1000;0.1595;0.4674;
527.4000;0.1555;0.4674;
527.7000;0.1571;0.4769;
528.0000;0.1579;0.4769;
528.3000;0.1628;0.5008;
528.6000;0.1571;0.4769;
528.9000;0.1571;0.4793;
529.2000;0.1579;0.4793;
529.5000;0.1579;0.4793;
529.8000;0.1555;0.4769;
530.1000;0.1579;0.4864;
530.4000;0.1579;0.4960;
530.7000;0.1563;0.4960;
531.0000;0.1571;0.4984;
531.3000;0.1571;0.5055;
531.6000;0.1547;0.5031;
531.9000;0.1579;0.5103;
532.2000;0.1571;0.5008;
532.5000;0.1530;0.4888;
532.8000;0.1587;0.4984;
533.1000;0.1571;0.4936;
533.4000;0.1587;0.4936;
533.7000;0.1571;0.4936;
534.0000;0.1571;0.4888;
534.3000;0.1579;0.4912;
534.6000;0.1563;0.4698;
534.9000;0.1571;0.4769;
535.2000;0.1571;0.4817;
535.5000;0.1587;0.4936;
535.8000;0.1579;0.4888;
536.1000;0.1579;0.4936;
536.4000;0.1506;0.4721;
536.7000;0.1555;0.4864;
537.0000;0.1595;0.4960;
537.3000;0.1506;0.4626;
537.6000;0.1547;0.4721;
537.9000;0.1579;0.4841;
538.2000;0.1571;0.4888;
538.5000;0.1530;0.4841;
538.8000;0.1587;0.4960;
539.1000;0.1604;0.5031;
539.4000;0.1661;0.5174;
539.7000;0.1604;0.5031;
540.0000;0.1579;0.5008;
540.3000;0.1579;0.5151;
540.6000;0.1604;0.5174;
540.9000;0.1571;0.5055;
541.2000;0.1555;0.4960;
541.5000;0.1579;0.5079;
541.8000;0.1563;0.5008;
542.1000;0.1555;0.4960;
542.4000;0.1595;0.5079;
542.7000;0.1571;0.4960;
543.0000;0.1563;0.4841;
543.3000;0.1595;0.4912;
543.6000;0.1563;0.4864;
543.9000;0.1563;0.4864;
544.2000;0.1563;0.4888;
544.5000;0.1604;0.5031;
544.8000;0.1563;0.4984;
545.1000;0.1571;0.4936;
545.4000;0.1563;0.4864;
545.7000;0.1563;0.4888;
546.0000;0.1555;0.4793;
546.3000;0.1555;0.4769;
546.6000;0.1563;0.4674;
546.9000;0.1555;0.4674;
547.2000;0.1579;0.4793;
547.5000;0.1571;0.4841;
547.8000;0.1555;0.4888;
548.1000;0.1563;0.4888;
548.4000;0.1555;0.4888;
548.7000;0.1571;0.4888;
549.0000;0.1571;0.4817;
549.3000;0.1563;0.4793;
549.6000;0.1555;0.4626;
549.9000;0.1547;0.4674;
550.2000;0.1579;0.4721;
550.5000;0.1563;0.4793;
550.8000;0.1481;0.4554;
551.1000;0.1579;0.4817;
551.4000;0.1563;0.4841;
551.7000;0.1555;0.4745;
552.0000;0.1547;0.4721;
552.3000;0.1571;0.4841;
552.6000;0.1579;0.4912;
552.9000;0.1563;0.4912;
553.2000;0.1563;0.4864;
553.5000;0.1563;0.4841;
553.8000;0.1571;0.4864;
554.1000;0.1571;0.4888;
554.4000;0.1595;0.4912;
554.7000;0.1547;0.4721;
555.0000;0.1579;0.4745;
555.3000;0.1587;0.4793;
555.6000;0.1530;0.4626;
555.9000;0.1571;0.4674;
556.2000;0.1571;0.4626;
556.5000;0.1579;0.4674;
556.8000;0.1555;0.4793;
557.1000;0.1571;0.4841;
557.4000;0.1555;0.4817;
557.7000;0.1579;0.4888;
558.0000;0.1563;0.4960;
558.3000;0.1563;0.4888;
558.6000;0.1538;0.4745;
558.9000;0.1579;0.4841;
559.2000;0.1571;0.4864;
559.5000;0.1677;0.5103;
559.8000;0.1571;0.4864;
560.1000;0.1579;0.4960;
560.4000;0.1579;0.4960;
560.7000;0.1579;0.4912;
561.0000;0.1587;0.4888;
561.3000;0.1620;0.5008;
561.6000;0.1587;0.4912;
561.9000;0.1571;0.4864;
562.2000;0.1587;0.4888;
562.5000;0.1620;0.5008;
562.8000;0.1652;0.5079;
563.1000;0.1563;0.4841;
563.4000;0.1628;0.4984;
563.7000;0.1652;0.5008;
564.0000;0.1563;0.4912;
564.3000;0.1571;0.4912;
564.6000;0.1604;0.4864;
564.9000;0.1563;0.4769;
565.2000;0.1587;0.4841;
565.5000;0.1571;0.4817;
565.8000;0.1579;0.4817;
566.1000;0.1604;0.4745;
566.4000;0.1579;0.4650;
566.7000;0.1579;0.4650;
567.0000;0.1563;0.4626;
567.3000;0.1595;0.4650;
567.6000;0.1555;0.4650;
567.9000;0.1563;0.4745;
568.2000;0.1587;0.4864;
568.5000;0.1547;0.4769;
568.8000;0.1579;0.4864;
569.1000;0.1579;0.4793;
569.4000;0.1571;0.4745;
569.7000;0.1571;0.4769;
570.0000;0.1563;0.4841;
570.3000;0.1587;0.4888;
570.6000;0.1579;0.4841;
570.9000;0.1587;0.4888;
571.2000;0.1571;0.4984;
571.5000;0.1571;0.5031;
571.8000;0.1595;0.5008;
572.1000;0.1661;0.5222;
572.4000;0.1685;0.5198;
572.7000;0.1522;0.4769;
573.0000;0.1587;0.4888;
573.3000;0.1571;0.4817;
573.6000;0.1571;0.4841;
573.9000;0.1555;0.4841;
574.2000;0.1571;0.4864;
574.5000;0.1571;0.4864;
574.8000;0.1571;0.4793;
575.1000;0.1571;0.4817;
575.4000;0.1612;0.4936;
575.7000;0.1579;0.4888;
576.0000;0.1595;0.4888;
576.3000;0.1547;0.4721;
576.6000;0.1555;0.4793;
576.9000;0.1571;0.4864;
577.2000;0.1530;0.4745;
577.5000;0.1563;0.4793;
577.8000;0.1547;0.4745;
578.1000;0.1547;0.4769;
578.4000;0.1669;0.5055;
578.7000;0.1579;0.4817;
579.0000;0.1555;0.4841;
579.3000;0.1555;0.4793;
579.6000;0.1547;0.4745;
579.9000;0.1555;0.4769;
580.2000;0.1563;0.4888;
580.5000;0.1587;0.4888;
580.8000;0.1604;0.4888;
581.1000;0.1579;0.4864;
581.4000;0.1579;0.4864;
581.7000;0.1579;0.4817;
582.0000;0.1563;0.4769;
582.3000;0.1563;0.4721;
582.6000;0.1563;0.4626;
582.9000;0.1563;0.4626;
583.2000;0.1563;0.4626;
583.5000;0.1587;0.4554;
583.8000;0.1587;0.4602;
584.1000;0.1571;0.4578;
584.4000;0.1579;0.4626;
584.7000;0.1587;0.4698;
585.0000;0.1563;0.4698;
585.3000;0.1563;0.4650;
585.6000;0.1636;0.4745;
585.9000;0.1563;0.4578;
586.2000;0.1571;0.4578;
586.5000;0.1571;0.4578;
586.8000;0.1563;0.4507;
587.1000;0.1563;0.4554;
587.4000;0.1571;0.4626;
587.7000;0.1587;0.4674;
588.0000;0.1571;0.4698;
588.3000;0.1587;0.4793;
588.6000;0.1595;0.4817;
588.9000;0.1587;0.4769;
589.2000;0.1571;0.4793;
589.5000;0.1563;0.4745;
589.8000;0.1571;0.4745;
590.1000;0.1571;0.4745;
590.4000;0.1514;0.4721;
590.7000;0.1571;0.4817;
591.0000;0.1530;0.4745;
591.3000;0.1587;0.4960;
591.6000;0.1514;0.4721;
591.9000;0.1547;0.4769;
592.2000;0.1563;0.4793;
592.5000;0.1555;0.4721;
592.8000;0.1530;0.4698;
593.1000;0.1604;0.4888;
593.4000;0.1555;0.4793;
593.7000;0.1579;0.4936;
594.0000;0.1571;0.4888;
594.3000;0.1530;0.4793;
594.6000;0.1620;0.5031;
594.9000;0.1579;0.4841;
595.2000;0.1563;0.4745;
595.5000;0.1579;0.4769;
595.8000;0.1571;0.4793;
596.1000;0.1571;0.4793;
596.4000;0.1538;0.4721;
596.7000;0.1563;0.4793;
597.0000;0.1620;0.4793;
597.3000;0.1579;0.4674;
597.6000;0.1563;0.4721;
597.9000;0.1612;0.4817;
598.2000;0.1587;0.4793;
598.5000;0.1547;0.4721;
598.8000;0.1571;0.4817;
599.1000;0.1530;0.4769;
599.4000;0.1587;0.4912;
599.7000;0.1538;0.4888;
600.0000;0.1563;0.4960;
600.3000;0.1604;0.4936;
600.6000;0.1547;0.4650;
600.9000;0.1547;0.4459;
601.2000;0.1563;0.4388;
601.5000;0.1547;0.4292;
601.8000;0.1555;0.4221;
602.1000;0.1563;0.4221;
602.4000;0.1555;0.4101;
602.7000;0.1555;0.3958;
603.0000;0.1522;0.3744;
603.3000;0.1538;0.3672;
603.6000;0.1547;0.3696;
603.9000;0.1547;0.3648;
604.2000;0.1522;0.3553;
604.5000;0.1538;0.3410;
604.8000;0.1530;0.3410;
605.1000;0.1538;0.3386;
605.4000;0.1571;0.3458;
605.7000;0.1530;0.3314;
606.0000;0.1514;0.3291;
606.3000;0.1514;0.3219;
606.6000;0.1530;0.3267;
606.9000;0.1457;0.3076;
607.2000;0.1514;0.3291;
607.5000;0.1571;0.3434;
607.8000;0.1530;0.3291;
608.1000;0.1530;0.3410;
608.4000;0.1522;0.3362;
608.7000;0.1530;0.3410;
609.0000;0.1514;0.3434;
609.3000;0.1547;0.3458;
609.6000;0.1506;0.3362;
609.9000;0.1530;0.3505;
610.2000;0.1538;0.3481;
610.5000;0.1587;0.3601;
610.8000;0.1514;0.3362;
611.1000;0.1530;0.3338;
611.4000;0.1522;0.3314;
611.7000;0.1538;0.3314;
612.0000;0.1514;0.3195;
612.3000;0.1522;0.3148;
612.6000;0.1506;0.3148;
612.9000;0.1522;0.3195;
613.2000;0.1538;0.3195;
613.5000;0.1522;0.3195;
613.8000;0.1514;0.3148;
614.1000;0.1514;0.3171;
614.4000;0.1538;0.3314;
614.7000;0.1563;0.3386;
615.0000;0.1604;0.3505;
615.3000;0.1514;0.3314;
615.6000;0.1506;0.3291;
615.9000;0.1481;0.3124;
616.2000;0.1498;0.3171;
616.5000;0.1522;0.3219;
616.8000;0.1498;0.3100;
617.1000;0.1465;0.3028;
617.4000;0.1530;0.3243;
617.7000;0.1498;0.3267;
618.0000;0.1498;0.3291;
618.3000;0.1498;0.3362;
618.6000;0.1490;0.3314;
618.9000;0.1571;0.3458;
619.2000;0.1490;0.3267;
619.5000;0.1506;0.3219;
619.8000;0.1514;0.3314;
620.1000;0.1555;0.3386;
620.4000;0.1514;0.3267;
620.7000;0.1547;0.3314;
621.0000;0.1530;0.3291;
621.3000;0.1514;0.3219;
621.6000;0.1473;0.3195;
621.9000;0.1522;0.3291;
622.2000;0.1514;0.3338;
622.5000;0.1490;0.3291;
622.8000;0.1522;0.3314;
623.1000;0.1514;0.3410;
623.4000;0.1514;0.3291;
623.7000;0.1522;0.3314;
624.0000;0.1522;0.3267;
624.3000;0.1530;0.3314;
624.6000;0.1506;0.3314;
624.9000;0.1530;0.3386;
625.2000;0.1498;0.3148;
625.5000;0.1498;0.3100;
625.8000;0.1457;0.2909;
626.1000;0.1547;0.3100;
626.4000;0.1522;0.3100;
626.7000;0.1506;0.3005;
627.0000;0.1506;0.2957;
627.3000;0.1514;0.2933;
627.6000;0.1538;0.2957;
627.9000;0.1506;0.2933;
628.2000;0.1522;0.2909;
628.5000;0.1522;0.2933;
628.8000;0.1522;0.2957;
629.1000;0.1498;0.3028;
629.4000;0.1506;0.3124;
629.7000;0.1498;0.3100;
630.0000;0.1498;0.3028;
630.3000;0.1530;0.3124;
630.6000;0.1514;0.3124;
630.9000;0.1538;0.3219;
631.2000;0.1506;0.3195;
631.5000;0.1514;0.3171;
631.8000;0.1506;0.3195;
632.1000;0.1506;0.3171;
632.4000;0.1538;0.3291;
632.7000;0.1538;0.3291;
633.0000;0.1563;0.3362;
633.3000;0.1538;0.3291;
633.6000;0.1506;0.3171;
633.9000;0.1555;0.3291;
634.2000;0.1465;0.3028;
634.5000;0.1441;0.2814;
634.8000;0.1506;0.2957;
635.1000;0.1522;0.3005;
635.4000;0.1498;0.2909;
635.7000;0.1506;0.2909;
636.0000;0.1441;0.2718;
636.3000;0.1547;0.3005;
636.6000;0.1498;0.2861;
636.9000;0.1490;0.2933;
637.2000;0.1522;0.3052;
637.5000;0.1498;0.3124;
637.8000;0.1498;0.3100;
638.1000;0.1465;0.3005;
638.4000;0.1490;0.3148;
638.7000;0.1490;0.3171;
639.0000;0.1514;0.3100;
639.3000;0.1408;0.2718;
639.6000;0.1514;0.3052;
639.9000;0.1498;0.3124;
640.2000;0.1481;0.3100;
640.5000;0.1490;0.3124;
640.8000;0.1457;0.3028;
641.1000;0.1547;0.3195;
641.4000;0.1498;0.3100;
641.7000;0.1563;0.3291;
642.0000;0.1522;0.3171;
642.3000;0.1490;0.3124;
642.6000;0.1498;0.3100;
642.9000;0.1522;0.3195;
643.2000;0.1506;0.3124;
643.5000;0.1522;0.3219;
643.8000;0.1506;0.3195;
644.1000;0.1506;0.3124;
644.4000;0.1522;0.3076;
644.7000;0.1506;0.2981;
645.0000;0.1490;0.3028;
645.3000;0.1490;0.3028;
645.6000;0.1498;0.3005;
645.9000;0.1522;0.3052;
646.2000;0.1506;0.2981;
646.5000;0.1506;0.2957;
646.8000;0.1514;0.2981;
647.1000;0.1506;0.2981;
647.4000;0.1498;0.2933;
647.7000;0.1522;0.3052;
648.0000;0.1490;0.3028;
648.3000;0.1490;0.3076;
648.6000;0.1490;0.3076;
648.9000;0.1522;0.3100;
649.2000;0.1547;0.3124;
649.5000;0.1490;0.2981;
649.8000;0.1530;0.3005;
650.1000;0.1514;0.2957;
650.4000;0.1579;0.3124;
650.7000;0.1498;0.2933;
651.0000;0.1481;0.2981;
651.3000;0.1506;0.3005;
651.6000;0.1490;0.2981;
651.9000;0.1514;0.3005;
652.2000;0.1481;0.2933;
652.5000;0.1563;0.3148;
652.8000;0.1506;0.3005;
653.1000;0.1506;0.3005;
653.4000;0.1506;0.3028;
653.7000;0.1587;0.3195;
654.0000;0.1490;0.2957;
654.3000;0.1538;0.3100;
654.6000;0.1547;0.3171;
654.9000;0.1498;0.3100;
655.2000;0.1498;0.3005;
655.5000;0.1481;0.3005;
655.8000;0.1506;0.3124;
656.1000;0.1481;0.3028;
656.4000;0.1498;0.3028;
656.7000;0.1473;0.2957;
657.0000;0.1481;0.2885;
657.3000;0.1563;0.3100;
657.6000;0.1416;0.2766;
657.9000;0.1522;0.3028;
658.2000;0.1538;0.3171;
658.5000;0.1506;0.3100;
658.8000;0.1555;0.3291;
659.1000;0.1506;0.3076;
659.4000;0.1522;0.3148;
659.7000;0.1473;0.2981;
660.0000;0.1498;0.3052;
660.3000;0.1490;0.3124;
660.6000;0.1514;0.3243;
660.9000;0.1530;0.3338;
661.2000;0.1498;0.3195;
661.5000;0.1498;0.3171;
661.8000;0.1506;0.3124;
662.1000;0.1579;0.3386;
662.4000;0.1490;0.3124;
662.7000;0.1506;0.3219;
663.0000;0.1514;0.3219;
663.3000;0.1522;0.3195;
663.6000;0.1490;0.3005;
663.9000;0.1530;0.3124;
664.2000;0.1490;0.2957;
664.5000;0.1514;0.2957;
664.8000;0.1514;0.3052;
665.1000;0.1498;0.3100;
665.4000;0.1481;0.3124;
665.7000;0.1481;0.3148;
666.0000;0.1514;0.3219;
666.3000;0.1506;0.3124;
666.6000;0.1506;0.3124;
666.9000;0.1473;0.3100;
667.2000;0.1498;0.3124;
667.5000;0.1522;0.3195;
667.8000;0.1498;0.3100;
668.1000;0.1514;0.3267;
668.4000;0.1490;0.3100;
668.7000;0.1376;0.2885;
669.0000;0.1498;0.3100;
669.3000;0.1465;0.3100;
669.6000;0.1490;0.3171;
669.9000;0.1473;0.3171;
670.2000;0.1506;0.3243;
670.5000;0.1514;0.3219;
670.8000;0.1530;0.3267;
671.1000;0.1481;0.3195;
671.4000;0.1538;0.3338;
671.7000;0.1490;0.3243;
672.0000;0.1498;0.3267;
672.3000;0.1441;0.3124;
672.6000;0.1457;0.3005;
672.9000;0.1514;0.3148;
673.2000;0.1449;0.2981;
673.5000;0.1514;0.3124;
673.8000;0.1514;0.3124;
674.1000;0.1514;0.3124;
674.4000;0.1522;0.3100;
674.7000;0.1490;0.2957;
675.0000;0.1514;0.3100;
675.3000;0.1530;0.3148;
675.6000;0.1416;0.2909;
675.9000;0.1522;0.3171;
676.2000;0.1530;0.3100;
676.5000;0.1506;0.2933;
676.8000;0.1506;0.2885;
677.1000;0.1498;0.2909;
677.4000;0.1490;0.3005;
677.7000;0.1490;0.2981;
678.0000;0.1514;0.3076;
678.3000;0.1506;0.3028;
678.6000;0.1506;0.3005;
678.9000;0.1498;0.3052;
679.2000;0.1514;0.3076;
679.5000;0.1368;0.2671;
679.8000;0.1571;0.3195;
680.1000;0.1400;0.2814;
680.4000;0.1514;0.3148;
680.7000;0.1506;0.3100;
681.0000;0.1498;0.3028;
681.3000;0.1522;0.3005;
681.6000;0.1547;0.3148;
681.9000;0.1506;0.2981;
682.2000;0.1538;0.3148;
682.5000;0.1481;0.2885;
682.8000;0.1490;0.2838;
683.1000;0.1441;0.2742;
683.4000;0.1514;0.3005;
683.7000;0.1441;0.3005;
684.0000;0.1522;0.3148;
684.3000;0.1514;0.3124;
684.6000;0.1555;0.3195;
684.9000;0.1449;0.2933;
685.2000;0.1547;0.3171;
685.5000;0.1506;0.3076;
685.8000;0.1506;0.3100;
686.1000;0.1571;0.3219;
686.4000;0.1498;0.3052;
686.7000;0.1481;0.3052;
687.0000;0.1506;0.3124;
687.3000;0.1522;0.3219;
687.6000;0.1498;0.3267;
687.9000;0.1514;0.3291;
688.2000;0.1490;0.3219;
688.5000;0.1473;0.3291;
688.8000;0.1490;0.3267;
689.1000;0.1490;0.3243;
689.4000;0.1506;0.3243;
689.7000;0.1530;0.3267;
690.0000;0.1506;0.3362;
690.3000;0.1498;0.3362;
690.6000;0.1530;0.3458;
690.9000;0.1522;0.3481;
691.2000;0.1490;0.3362;
691.5000;0.1506;0.3243;
691.8000;0.1506;0.3171;
692.1000;0.1490;0.3124;
692.4000;0.1498;0.3100;
692.7000;0.1506;0.3148;
693.0000;0.1490;0.3171;
693.3000;0.1490;0.3243;
693.6000;0.1514;0.3314;
693.9000;0.1506;0.3267;
694.2000;0.1481;0.3267;
694.5000;0.1498;0.3291;
694.8000;0.1644;0.3648;
695.1000;0.1506;0.3267;
695.4000;0.1555;0.3434;
695.7000;0.1490;0.3148;
696.0000;0.1498;0.3124;
696.3000;0.1498;0.3005;
696.6000;0.1498;0.3100;
696.9000;0.1514;0.3100;
697.2000;0.1522;0.3148;
697.5000;0.1514;0.3148;
697.8000;0.1481;0.3100;
698.1000;0.1522;0.3219;
698.4000;0.1514;0.3291;
698.7000;0.1498;0.3195;
699.0000;0.1514;0.3243;
699.3000;0.1498;0.3195;
699.6000;0.1530;0.3291;
699.9000;0.1514;0.3243;
700.2000;0.1490;0.3243;
700.5000;0.1473;0.3243;
700.8000;0.1481;0.3267;
701.1000;0.1498;0.3314;
701.4000;0.1498;0.3243;
701.7000;0.1506;0.3243;
702.0000;0.1498;0.3267;
702.3000;0.1441;0.3076;
702.6000;0.1514;0.3243;
702.9000;0.1498;0.3171;
703.2000;0.1498;0.3219;
703.5000;0.1490;0.3171;
703.8000;0.1522;0.3195;
704.1000;0.1498;0.3124;
704.4000;0.1563;0.3314;
704.7000;0.1522;0.3195;
705.0000;0.1506;0.3124;
705.3000;0.1490;0.3124;
705.6000;0.1498;0.3124;
705.9000;0.1490;0.3124;
706.2000;0.1514;0.3243;
706.5000;0.1498;0.3267;
706.8000;0.1481;0.3267;
707.1000;0.1538;0.3362;
707.4000;0.1490;0.3267;
707.7000;0.1465;0.3124;
708.0000;0.1481;0.3076;
708.3000;0.1522;0.3076;
708.6000;0.1514;0.3028;
708.9000;0.1506;0.2957;
709.2000;0.1481;0.2933;
709.5000;0.1498;0.2957;
709.8000;0.1522;0.2981;
710.1000;0.1473;0.2885;
710.4000;0.1498;0.3005;
710.7000;0.1473;0.2885;
711.0000;0.1506;0.2933;
711.3000;0.1498;0.3028;
711.6000;0.1449;0.3005;
711.9000;0.1490;0.3028;
712.2000;0.1636;0.3458;
712.5000;0.1490;0.3028;
712.8000;0.1514;0.2981;
713.1000;0.1547;0.3076;
713.4000;0.1514;0.2933;
713.7000;0.1514;0.2933;
714.0000;0.1506;0.2957;
714.3000;0.1506;0.3052;
714.6000;0.1498;0.3005;
714.9000;0.1490;0.2957;
715.2000;0.1490;0.3005;
715.5000;0.1498;0.3028;
715.8000;0.1498;0.3052;
716.1000;0.1514;0.3076;
716.4000;0.1506;0.3052;
716.7000;0.1506;0.3124;
717.0000;0.1506;0.3076;
717.3000;0.1498;0.2957;
717.6000;0.1538;0.3005;
717.9000;0.1506;0.2885;
718.2000;0.1498;0.2861;
718.5000;0.1490;0.2814;
718.8000;0.1522;0.2885;
719.1000;0.1522;0.2861;
719.4000;0.1506;0.2790;
719.7000;0.1481;0.2790;
720.0000;0.1441;0.2671;
720.3000;0.1579;0.2933;
720.6000;0.1490;0.2766;
720.9000;0.1506;0.2838;
721.2000;0.1506;0.2861;
721.5000;0.1506;0.2861;
721.8000;0.1457;0.2671;
722.1000;0.1481;0.2575;
722.4000;0.1498;0.2599;
722.7000;0.1506;0.2599;
723.0000;0.1481;0.2599;
723.3000;0.1506;0.2671;
723.6000;0.1506;0.2695;
723.9000;0.1481;0.2742;
724.2000;0.1506;0.2885;
724.5000;0.1441;0.2695;
724.8000;0.1498;0.2933;
725.1000;0.1514;0.3076;
725.4000;0.1416;0.2814;
725.7000;0.1530;0.3028;
726.0000;0.1538;0.3148;
726.3000;0.1481;0.2981;
726.6000;0.1522;0.3028;
726.9000;0.1490;0.2933;
727.2000;0.1449;0.2814;
727.5000;0.1473;0.2909;
727.8000;0.1481;0.2909;
728.1000;0.1457;0.2814;
728.4000;0.1506;0.2909;
728.7000;0.1473;0.2814;
729.0000;0.1457;0.2814;
729.3000;0.1498;0.2909;
729.6000;0.1490;0.2790;
729.9000;0.1514;0.2861;
730.2000;0.1498;0.2861;
730.5000;0.1490;0.2957;
730.8000;0.1530;0.3028;
731.1000;0.1457;0.2933;
731.4000;0.1506;0.3100;
731.7000;0.1587;0.3314;
732.0000;0.1506;0.3219;
732.3000;0.1514;0.3291;
732.6000;0.1490;0.3219;
732.9000;0.1522;0.3195;
733.2000;0.1522;0.3171;
733.5000;0.1514;0.3076;
733.8000;0.1530;0.3005;
734.1000;0.1514;0.3052;
734.4000;0.1522;0.3171;
734.7000;0.1522;0.3243;
735.0000;0.1514;0.3291;
735.3000;0.1481;0.3267;
735.6000;0.1473;0.3291;
735.9000;0.1441;0.3148;
736.2000;0.1498;0.3338;
736.5000;0.1522;0.3362;
736.8000;0.1506;0.3338;
737.1000;0.1514;0.3314;
737.4000;0.1506;0.3219;
737.7000;0.1498;0.3171;
738.0000;0.1481;0.3100;
738.3000;0.1481;0.3100;
738.6000;0.1514;0.3100;
738.9000;0.1481;0.3005;
739.2000;0.1490;0.3005;
739.5000;0.1506;0.2933;
739.8000;0.1514;0.2885;
740.1000;0.1490;0.2885;
740.4000;0.1530;0.3005;
740.7000;0.1490;0.2909;
741.0000;0.1392;0.2623;
741.3000;0.1498;0.2861;
741.6000;0.1506;0.2861;
741.9000;0.1530;0.2885;
742.2000;0.1555;0.2981;
742.5000;0.1506;0.2838;
742.8000;0.1498;0.2885;
743.1000;0.1587;0.3124;
743.4000;0.1514;0.2885;
743.7000;0.1473;0.2790;
744.0000;0.1514;0.2957;
744.3000;0.1425;0.2599;
744.6000;0.1506;0.2838;
744.9000;0.1449;0.2814;
745.2000;0.1506;0.2885;
745.5000;0.1490;0.2933;
745.8000;0.1506;0.2933;
746.1000;0.1481;0.2838;
746.4000;0.1514;0.2885;
746.7000;0.1514;0.2838;
747.0000;0.1506;0.2861;
747.3000;0.1481;0.2838;
747.6000;0.1498;0.2957;
747.9000;0.1514;0.3005;
748.2000;0.1514;0.3028;
748.5000;0.1481;0.2933;
748.8000;0.1481;0.2909;
749.1000;0.1522;0.3076;
749.4000;0.1473;0.2885;
749.7000;0.1498;0.2885;
750.0000;0.1473;0.2814;
750.3000;0.1473;0.2814;
750.6000;0.1514;0.2909;
750.9000;0.1522;0.3028;
751.2000;0.1481;0.2957;
751.5000;0.1490;0.3005;
751.8000;0.1457;0.2861;
752.1000;0.1506;0.2981;
752.4000;0.1490;0.2933;
752.7000;0.1530;0.2933;
753.0000;0.1408;0.2647;
753.3000;0.1530;0.2909;
753.6000;0.1481;0.2790;
753.9000;0.1514;0.2909;
754.2000;0.1522;0.2861;
754.5000;0.1514;0.2957;
754.8000;0.1490;0.2838;
755.1000;0.1490;0.2885;
755.4000;0.1498;0.2933;
755.7000;0.1498;0.2885;
756.0000;0.1490;0.2814;
756.3000;0.1522;0.2933;
756.6000;0.1498;0.2885;
756.9000;0.1441;0.2718;
757.2000;0.1579;0.3028;
757.5000;0.1473;0.2861;
757.8000;0.1506;0.2933;
758.1000;0.1481;0.2838;
758.4000;0.1530;0.2957;
758.7000;0.1490;0.2909;
759.0000;0.1490;0.3028;
759.3000;0.1449;0.2885;
759.6000;0.1481;0.2909;
759.9000;0.1490;0.2909;
760.2000;0.1506;0.3052;
760.5000;0.1514;0.3100;
760.8000;0.1473;0.3005;
761.1000;0.1522;0.2957;
761.4000;0.1473;0.2885;
761.7000;0.1530;0.3005;
762.0000;0.1506;0.2981;
762.3000;0.1481;0.2933;
762.6000;0.1457;0.2957;
762.9000;0.1473;0.2957;
763.2000;0.1490;0.3005;
763.5000;0.1498;0.2957;
763.8000;0.1506;0.3005;
764.1000;0.1490;0.2957;
764.4000;0.1514;0.3076;
764.7000;0.1498;0.3052;
765.0000;0.1498;0.3124;
765.3000;0.1473;0.3148;
765.6000;0.1579;0.3410;
765.9000;0.1481;0.3100;
766.2000;0.1498;0.3076;
766.5000;0.1490;0.3028;
766.8000;0.1473;0.3028;
767.1000;0.1514;0.3148;
767.4000;0.1555;0.3291;
767.7000;0.1563;0.3314;
768.0000;0.1278;0.2599;
768.3000;0.1530;0.3148;
768.6000;0.1498;0.3076;
768.9000;0.1506;0.3076;
769.2000;0.1522;0.3005;
769.5000;0.1498;0.2861;
769.8000;0.1522;0.2957;
770.1000;0.1498;0.2957;
770.4000;0.1514;0.2981;
770.7000;0.1514;0.3005;
771.0000;0.1514;0.3005;
771.3000;0.1490;0.2981;
771.6000;0.1506;0.3028;
771.9000;0.1498;0.3028;
772.2000;0.1490;0.2933;
772.5000;0.1498;0.2981;
772.8000;0.1490;0.2981;
773.1000;0.1522;0.3005;
773.4000;0.1506;0.3076;
773.7000;0.1498;0.3052;
774.0000;0.1498;0.3028;
774.3000;0.1506;0.3124;
774.6000;0.1490;0.3052;
774.9000;0.1514;0.3100;
775.2000;0.1498;0.3028;
775.5000;0.1522;0.3052;
775.8000;0.1449;0.2885;
776.1000;0.1628;0.3314;
776.4000;0.1473;0.2885;
776.7000;0.1506;0.3028;
777.0000;0.1628;0.3362;
777.3000;0.1514;0.3028;
777.6000;0.1506;0.2957;
777.9000;0.1498;0.2933;
778.2000;0.1514;0.2957;
778.5000;0.1530;0.3100;
778.8000;0.1522;0.3052;
779.1000;0.1530;0.2957;
779.4000;0.1498;0.2885;
779.7000;0.1498;0.2861;
780.0000;0.1498;0.2861;
780.3000;0.1538;0.2861;
780.6000;0.1481;0.2766;
780.9000;0.1514;0.2861;
781.2000;0.1506;0.2933;
781.5000;0.1473;0.2909;
781.8000;0.1498;0.2838;
782.1000;0.1530;0.2933;
782.4000;0.1481;0.2814;
782.7000;0.1498;0.2766;
783.0000;0.1522;0.2766;
783.3000;0.1522;0.2838;
783.6000;0.1506;0.2861;
783.9000;0.1498;0.2909;
784.2000;0.1449;0.2885;
784.5000;0.1498;0.3076;
784.8000;0.1490;0.3124;
785.1000;0.1481;0.3124;
785.4000;0.1441;0.3052;
785.7000;0.1490;0.3148;
786.0000;0.1481;0.3124;
786.3000;0.1490;0.3005;
786.6000;0.1563;0.3148;
786.9000;0.1433;0.2861;
787.2000;0.1441;0.2957;
787.5000;0.1498;0.3100;
787.8000;0.1335;0.2671;
788.1000;0.1490;0.3148;
788.4000;0.1473;0.3219;
788.7000;0.1506;0.3338;
789.0000;0.1538;0.3362;
789.3000;0.1498;0.3291;
789.6000;0.1628;0.3624;
789.9000;0.1514;0.3314;
790.2000;0.1571;0.3434;
790.5000;0.1490;0.3243;
790.8000;0.1490;0.3267;
791.1000;0.1490;0.3291;
791.4000;0.1522;0.3362;
791.7000;0.1441;0.3148;
792.0000;0.1498;0.3291;
792.3000;0.1498;0.3267;
792.6000;0.1433;0.3171;
792.9000;0.1530;0.3362;
793.2000;0.1506;0.3219;
793.5000;0.1481;0.3195;
793.8000;0.1514;0.3267;
794.1000;0.1506;0.3219;
794.4000;0.1498;0.3100;
794.7000;0.1481;0.3100;
795.0000;0.1522;0.3195;
795.3000;0.1481;0.3148;
795.6000;0.1514;0.3219;
795.9000;0.1538;0.3243;
796.2000;0.1490;0.3148;
796.5000;0.1506;0.3171;
796.8000;0.1522;0.3171;
797.1000;0.1506;0.3171;
797.4000;0.1457;0.3052;
797.7000;0.1498;0.3148;
798.0000;0.1506;0.3195;
798.3000;0.1498;0.3314;
798.6000;0.1481;0.3243;
798.9000;0.1514;0.3338;
799.2000;0.1473;0.3243;
799.5000;0.1514;0.3267;
799.8000;0.1481;0.3148;
800.1000;0.1465;0.3076;
800.4000;0.1522;0.3219;
800.7000;0.1514;0.3219;
801.0000;0.1514;0.3148;
801.3000;0.1506;0.3148;
801.6000;0.1538;0.3195;
801.9000;0.1506;0.3100;
802.2000;0.1498;0.3171;
802.5000;0.1490;0.3076;
802.8000;0.1490;0.3124;
803.1000;0.1506;0.3148;
803.4000;0.1490;0.3195;
803.7000;0.1514;0.3291;
804.0000;0.1465;0.3195;
804.3000;0.1506;0.3338;
804.6000;0.1498;0.3291;
804.9000;0.1490;0.3243;
805.2000;0.1457;0.3100;
805.5000;0.1498;0.3171;
805.8000;0.1579;0.3386;
806.1000;0.1498;0.3195;
806.4000;0.1498;0.3291;
806.7000;0.1433;0.3195;
807.0000;0.1506;0.3338;
807.3000;0.1473;0.3243;
807.6000;0.1563;0.3458;
807.9000;0.1506;0.3291;
808.2000;0.1522;0.3291;
808.5000;0.1514;0.3195;
808.8000;0.1498;0.3171;
809.1000;0.1498;0.3195;
809.4000;0.1498;0.3195;
809.7000;0.1506;0.3148;
810.0000;0.1490;0.3100;
810.3000;0.1506;0.3219;
810.6000;0.1514;0.3314;
810.9000;0.1644;0.3696;
811.2000;0.1514;0.3291;
811.5000;0.1506;0.3338;
811.8000;0.1514;0.3362;
812.1000;0.1522;0.3291;
812.4000;0.1506;0.3148;
812.7000;0.1498;0.3148;
813.0000;0.1498;0.3219;
813.3000;0.1514;0.3219;
813.6000;0.1498;0.3243;
813.9000;0.1481;0.3148;
814.2000;0.1481;0.3171;
814.5000;0.1490;0.3243;
814.8000;0.1481;0.3219;
815.1000;0.1538;0.3267;
815.4000;0.1514;0.3195;
815.7000;0.1506;0.3171;
816.0000;0.1514;0.3243;
816.3000;0.1514;0.3219;
816.6000;0.1506;0.3195;
816.9000;0.1522;0.3171;
817.2000;0.1514;0.3195;
817.5000;0.1490;0.3171;
817.8000;0.1522;0.3124;
818.1000;0.1490;0.3100;
818.4000;0.1514;0.3171;
818.7000;0.1538;0.3148;
819.0000;0.1514;0.3100;
819.3000;0.1514;0.3124;
819.6000;0.1506;0.3100;
819.9000;0.1490;0.3028;
820.2000;0.1506;0.3148;
820.5000;0.1506;0.3243;
820.8000;0.1498;0.3243;
821.1000;0.1490;0.3267;
821.4000;0.1514;0.3314;
821.7000;0.1481;0.3219;
822.0000;0.1522;0.3314;
822.3000;0.1514;0.3314;
822.6000;0.1481;0.3243;
822.9000;0.1490;0.3195;
823.2000;0.1457;0.3171;
823.5000;0.1506;0.3243;
823.8000;0.1514;0.3243;
824.1000;0.1449;0.3124;
824.4000;0.1498;0.3219;
824.7000;0.1506;0.3219;
825.0000;0.1506;0.3195;
825.3000;0.1506;0.3100;
825.6000;0.1514;0.3100;
825.9000;0.1514;0.3171;
826.2000;0.1530;0.3219;
826.5000;0.1514;0.3219;
826.8000;0.1490;0.3195;
827.1000;0.1449;0.3052;
827.4000;0.1514;0.3243;
827.7000;0.1498;0.3195;
828.0000;0.1530;0.3291;
828.3000;0.1522;0.3267;
828.6000;0.1481;0.3171;
828.9000;0.1506;0.3148;
829.2000;0.1506;0.3076;
829.5000;0.1498;0.3100;
829.8000;0.1490;0.3100;
830.1000;0.1506;0.3171;
830.4000;0.1498;0.3100;
830.7000;0.1506;0.3124;
831.0000;0.1498;0.3100;
831.3000;0.1498;0.3100;
831.6000;0.1514;0.3124;
831.9000;0.1498;0.3195;
832.2000;0.1490;0.3243;
832.5000;0.1498;0.3195;
832.8000;0.1514;0.3267;
833.1000;0.1547;0.3267;
833.4000;0.1587;0.3434;
833.7000;0.1506;0.3195;
834.0000;0.1522;0.3243;
834.3000;0.1457;0.3028;
834.6000;0.1555;0.3291;
834.9000;0.1547;0.3362;
835.2000;0.1490;0.3195;
835.5000;0.1506;0.3338;
835.8000;0.1498;0.3410;
836.1000;0.1522;0.3362;
836.4000;0.1449;0.3195;
836.7000;0.1612;0.3601;
837.0000;0.1522;0.3410;
837.3000;0.1481;0.3243;
837.6000;0.1481;0.3291;
837.9000;0.1514;0.3362;
838.2000;0.1522;0.3314;
838.5000;0.1490;0.3219;
838.8000;0.1400;0.3052;
839.1000;0.1522;0.3362;
839.4000;0.1530;0.3362;
839.7000;0.1481;0.3219;
840.0000;0.1465;0.3148;
840.3000;0.1514;0.3314;
840.6000;0.1522;0.3291;
840.9000;0.1595;0.3529;
841.2000;0.1522;0.3267;
841.5000;0.1441;0.3076;
841.8000;0.1514;0.3243;
842.1000;0.1490;0.3243;
842.4000;0.1530;0.3291;
842.7000;0.1514;0.3267;
843.0000;0.1612;0.3529;
843.3000;0.1538;0.3291;
843.6000;0.1490;0.3171;
843.9000;0.1506;0.3171;
844.2000;0.1481;0.3100;
844.5000;0.1522;0.3100;
844.8000;0.1514;0.3052;
845.1000;0.1481;0.3005;
845.4000;0.1587;0.3291;
845.7000;0.1498;0.3052;
846.0000;0.1490;0.3005;
846.3000;0.1498;0.2957;
846.6000;0.1465;0.2909;
846.9000;0.1481;0.3028;
847.2000;0.1490;0.3100;
847.5000;0.1498;0.3148;
847.8000;0.1506;0.3219;
848.1000;0.1506;0.3219;
848.4000;0.1538;0.3243;
848.7000;0.1481;0.3219;
849.0000;0.1514;0.3219;
849.3000;0.1473;0.3100;
849.6000;0.1506;0.3219;
849.9000;0.1506;0.3219;
850.2000;0.1514;0.3267;
850.5000;0.1506;0.3243;
850.8000;0.1506;0.3291;
851.1000;0.1473;0.3219;
851.4000;0.1506;0.3267;
851.7000;0.1538;0.3410;
852.0000;0.1498;0.3267;
852.3000;0.1530;0.3314;
852.6000;0.1571;0.3434;
852.9000;0.1481;0.3148;
853.2000;0.1498;0.3195;
853.5000;0.1473;0.3195;
853.8000;0.1514;0.3195;
854.1000;0.1498;0.3100;
854.4000;0.1481;0.3076;
854.7000;0.1522;0.3195;
855.0000;0.1506;0.3219;
855.3000;0.1506;0.3148;
855.6000;0.1514;0.3124;
855.9000;0.1506;0.3100;
856.2000;0.1457;0.2909;
856.5000;0.1506;0.3028;
856.8000;0.1498;0.2933;
857.1000;0.1465;0.2933;
857.4000;0.1433;0.2790;
857.7000;0.1498;0.3005;
858.0000;0.1514;0.3005;
858.3000;0.1506;0.3005;
858.6000;0.1538;0.3100;
858.9000;0.1490;0.3052;
859.2000;0.1571;0.3267;
859.5000;0.1408;0.2814;
859.8000;0.1498;0.3028;
860.1000;0.1490;0.3028;
860.4000;0.1465;0.2981;
860.7000;0.1433;0.2766;
861.0000;0.1538;0.3005;
861.3000;0.1514;0.3028;
861.6000;0.1514;0.3100;
861.9000;0.1481;0.3028;
862.2000;0.1514;0.3171;
862.5000;0.1514;0.3219;
862.8000;0.1563;0.3362;
863.1000;0.1498;0.3195;
863.4000;0.1506;0.3171;
863.7000;0.1514;0.3195;
864.0000;0.1530;0.3124;
864.3000;0.1457;0.2981;
864.6000;0.1506;0.3195;
864.9000;0.1457;0.3052;
865.2000;0.1498;0.3148;
865.5000;0.1514;0.3243;
865.8000;0.1563;0.3458;
866.1000;0.1530;0.3338;
866.4000;0.1506;0.3291;
866.7000;0.1514;0.3243;
867.0000;0.1457;0.3052;
867.3000;0.1506;0.3124;
867.6000;0.1522;0.3076;
867.9000;0.1498;0.3028;
868.2000;0.1555;0.3219;
868.5000;0.1449;0.2861;
868.8000;0.1514;0.3076;
869.1000;0.1530;0.3100;
869.4000;0.1498;0.3052;
869.7000;0.1490;0.3028;
870.0000;0.1514;0.3052;
870.3000;0.1506;0.3005;
870.6000;0.1490;0.3005;
870.9000;0.1490;0.2981;
871.2000;0.1514;0.3124;
871.5000;0.1522;0.3076;
871.8000;0.1506;0.3052;
872.1000;0.1547;0.3171;
872.4000;0.1481;0.3124;
872.7000;0.1514;0.3219;
873.0000;0.1514;0.3171;
873.3000;0.1490;0.3100;
873.6000;0.1490;0.3148;
873.9000;0.1490;0.3100;
874.2000;0.1506;0.3052;
874.5000;0.1481;0.3005;
874.8000;0.1490;0.3005;
875.1000;0.1449;0.3005;
875.4000;0.1514;0.3148;
875.7000;0.1498;0.3219;
876.0000;0.1514;0.3243;
876.3000;0.1530;0.3338;
876.6000;0.1547;0.3434;
876.9000;0.1514;0.3362;
877.2000;0.1522;0.3314;
877.5000;0.1473;0.3124;
877.8000;0.1514;0.3195;
878.1000;0.1490;0.3124;
878.4000;0.1506;0.3171;
878.7000;0.1490;0.3148;
879.0000;0.1514;0.3243;
879.3000;0.1498;0.3171;
879.6000;0.1547;0.3267;
879.9000;0.1498;0.3195;
880.2000;0.1490;0.3219;
880.5000;0.1538;0.3362;
880.8000;0.1522;0.3314;
881.1000;0.1579;0.3386;
881.4000;0.1514;0.3171;
881.7000;0.1530;0.3291;
882.0000;0.1490;0.3148;
882.3000;0.1465;0.3052;
882.6000;0.1514;0.3100;
882.9000;0.1595;0.3314;
883.2000;0.1522;0.3314;
883.5000;0.1481;0.3243;
883.8000;0.1481;0.3267;
884.1000;0.1498;0.3291;
884.4000;0.1473;0.3219;
884.7000;0.1490;0.3291;
885.0000;0.1490;0.3195;
885.3000;0.1457;0.3052;
885.6000;0.1498;0.3171;
885.9000;0.1547;0.3243;
886.2000;0.1506;0.3100;
886.5000;0.1498;0.3100;
886.8000;0.1506;0.3219;
887.1000;0.1498;0.3195;
887.4000;0.1506;0.3195;
887.7000;0.1498;0.3148;
888.0000;0.1506;0.3171;
888.3000;0.1490;0.3124;
888.6000;0.1498;0.3171;
888.9000;0.1514;0.3243;
889.2000;0.1514;0.3338;
889.5000;0.1506;0.3434;
889.8000;0.1514;0.3386;
890.1000;0.1498;0.3291;
890.4000;0.1498;0.3243;
890.7000;0.1498;0.3171;
891.0000;0.1498;0.3148;
891.3000;0.1514;0.3171;
891.6000;0.1498;0.3124;
891.9000;0.1522;0.3171;
892.2000;0.1587;0.3434;
892.5000;0.1571;0.3386;
892.8000;0.1498;0.3171;
893.1000;0.1514;0.3219;
893.4000;0.1514;0.3267;
893.7000;0.1514;0.3386;
894.0000;0.1498;0.3386;
894.3000;0.1481;0.3314;
894.6000;0.1522;0.3314;
894.9000;0.1490;0.3195;
895.2000;0.1530;0.3243;
895.5000;0.1481;0.3124;
895.8000;0.1408;0.2957;
896.1000;0.1449;0.3124;
896.4000;0.1498;0.3267;
896.7000;0.1490;0.3219;
897.0000;0.1506;0.3219;
897.3000;0.1514;0.3291;
897.6000;0.1506;0.3267;
897.9000;0.1481;0.3171;
898.2000;0.1433;0.3028;
898.5000;0.1612;0.3553;
898.8000;0.1481;0.3195;
899.1000;0.1490;0.3243;
899.4000;0.1490;0.3267;
899.7000;0.1490;0.3291;
900.0000;0.1522;0.3291;
900.3000;0.1498;0.3219;
900.6000;0.1506;0.3195;
900.9000;0.1490;0.3195;
901.2000;0.1506;0.3195;
901.5000;0.1514;0.3124;
901.8000;0.1514;0.3076;
902.1000;0.1498;0.3124;
902.4000;0.1506;0.3148;
902.7000;0.1506;0.3076;
903.0000;0.1465;0.2981;
903.3000;0.1522;0.3076;
903.6000;0.1522;0.3148;
903.9000;0.1514;0.3124;
904.2000;0.1522;0.3171;
904.5000;0.1506;0.3100;
904.8000;0.1530;0.3148;
905.1000;0.1555;0.3148;
905.4000;0.1498;0.3076;
905.7000;0.1506;0.3124;
906.0000;0.1457;0.3028;
906.3000;0.1506;0.3148;
906.6000;0.1498;0.3148;
906.9000;0.1490;0.3148;
907.2000;0.1376;0.2814;
907.5000;0.1506;0.3148;
907.8000;0.1506;0.3219;
908.1000;0.1506;0.3314;
908.4000;0.1473;0.3124;
908.7000;0.1433;0.3028;
909.0000;0.1498;0.3171;
909.3000;0.1522;0.3267;
909.6000;0.1498;0.3195;
909.9000;0.1498;0.3148;
910.2000;0.1522;0.3267;
910.5000;0.1498;0.3314;
910.8000;0.1498;0.3267;
911.1000;0.1506;0.3219;
911.4000;0.1490;0.3148;
911.7000;0.1498;0.3195;
912.0000;0.1490;0.3171;
912.3000;0.1490;0.3219;
912.6000;0.1514;0.3362;
912.9000;0.1506;0.3338;
913.2000;0.1490;0.3314;
913.5000;0.1490;0.3314;
913.8000;0.1506;0.3291;
914.1000;0.1514;0.3243;
914.4000;0.1506;0.3267;
914.7000;0.1530;0.3171;
915.0000;0.1506;0.3171;
915.3000;0.1506;0.3219;
915.6000;0.1498;0.3171;
915.9000;0.1506;0.3148;
916.2000;0.1490;0.3100;
916.5000;0.1628;0.3553;
916.8000;0.1522;0.3338;
917.1000;0.1490;0.3267;
917.4000;0.1514;0.3291;
917.7000;0.1473;0.3028;
918.0000;0.1522;0.3195;
918.3000;0.1498;0.3124;
918.6000;0.1530;0.3195;
918.9000;0.1490;0.3195;
919.2000;0.1579;0.3362;
919.5000;0.1506;0.3171;
919.8000;0.1506;0.3195;
920.1000;0.1522;0.3195;
920.4000;0.1579;0.3434;
920.7000;0.1490;0.3243;
921.0000;0.1490;0.3243;
921.3000;0.1547;0.3458;
921.6000;0.1498;0.3314;
921.9000;0.1498;0.3267;
922.2000;0.1473;0.3171;
922.5000;0.1498;0.3195;
922.8000;0.1498;0.3100;
923.1000;0.1506;0.3124;
923.4000;0.1514;0.3100;
923.7000;0.1579;0.3243;
924.0000;0.1498;0.3100;
924.3000;0.1498;0.3124;
924.6000;0.1538;0.3291;
924.9000;0.1490;0.3124;
925.2000;0.1490;0.3124;
925.5000;0.1506;0.3195;
925.8000;0.1514;0.3243;
926.1000;0.1481;0.3243;
926.4000;0.1514;0.3434;
926.7000;0.1506;0.3481;
927.0000;0.1506;0.3434;
927.3000;0.1498;0.3458;
927.6000;0.1490;0.3386;
927.9000;0.1506;0.3386;
928.2000;0.1490;0.3291;
928.5000;0.1514;0.3314;
928.8000;0.1506;0.3314;
929.1000;0.1481;0.3267;
929.4000;0.1441;0.3219;
929.7000;0.1538;0.3362;
930.0000;0.1498;0.3314;
930.3000;0.1514;0.3362;
930.6000;0.1400;0.2957;
930.9000;0.1506;0.3291;
931.2000;0.1538;0.3362;
931.5000;0.1506;0.3291;
931.8000;0.1498;0.3267;
932.1000;0.1522;0.3362;
932.4000;0.1433;0.3219;
932.7000;0.1498;0.3362;
933.0000;0.1506;0.3338;
933.3000;0.1514;0.3291;
933.6000;0.1620;0.3553;
933.9000;0.1498;0.3291;
934.2000;0.1490;0.3267;
934.5000;0.1514;0.3338;
934.8000;0.1538;0.3338;
935.1000;0.1547;0.3386;
935.4000;0.1465;0.3148;
935.7000;0.1506;0.3243;
936.0000;0.1514;0.3338;
936.3000;0.1514;0.3267;
936.6000;0.1514;0.3219;
936.9000;0.1481;0.3195;
937.2000;0.1506;0.3171;
937.5000;0.1490;0.3076;
937.8000;0.1481;0.3076;
938.1000;0.1490;0.3076;
938.4000;0.1441;0.2957;
938.7000;0.1473;0.3124;
939.0000;0.1555;0.3386;
939.3000;0.1595;0.3458;
939.6000;0.1473;0.3124;
939.9000;0.1506;0.3291;
940.2000;0.1530;0.3338;
940.5000;0.1530;0.3434;
940.8000;0.1506;0.3267;
941.1000;0.1514;0.3267;
941.4000;0.1490;0.3195;
941.7000;0.1425;0.2981;
942.0000;0.1490;0.3076;
942.3000;0.1530;0.3100;
942.6000;0.1490;0.2981;
942.9000;0.1522;0.3076;
943.2000;0.1481;0.3005;
943.5000;0.1506;0.2981;
943.8000;0.1522;0.2981;
944.1000;0.1490;0.2861;
944.4000;0.1506;0.2861;
944.7000;0.1506;0.2909;
945.0000;0.1498;0.2933;
945.3000;0.1514;0.2957;
945.6000;0.1506;0.2909;
945.9000;0.1514;0.2933;
946.2000;0.1490;0.2909;
946.5000;0.1522;0.3028;
946.8000;0.1514;0.3005;
947.1000;0.1498;0.2909;
947.4000;0.1506;0.2933;
947.7000;0.1530;0.2861;
948.0000;0.1514;0.2766;
948.3000;0.1490;0.2718;
948.6000;0.1506;0.2838;
948.9000;0.1506;0.2909;
949.2000;0.1522;0.2981;
949.5000;0.1506;0.3028;
949.8000;0.1481;0.3028;
950.1000;0.1506;0.3100;
950.4000;0.1506;0.3100;
950.7000;0.1481;0.3076;
951.0000;0.1416;0.2838;
951.3000;0.1425;0.2885;
951.6000;0.1514;0.3052;
951.9000;0.1506;0.2981;
952.2000;0.1465;0.2933;
952.5000;0.1514;0.3028;
952.8000;0.1514;0.3005;
953.1000;0.1473;0.2838;
953.4000;0.1368;0.2623;
953.7000;0.1473;0.2885;
954.0000;0.1522;0.3028;
954.3000;0.1506;0.2981;
954.6000;0.1522;0.3052;
954.9000;0.1563;0.3100;
955.2000;0.1498;0.3028;
955.5000;0.1506;0.3028;
955.8000;0.1490;0.2981;
956.1000;0.1498;0.2981;
956.4000;0.1465;0.2814;
956.7000;0.1538;0.3124;
957.0000;0.1506;0.3052;
957.3000;0.1514;0.2957;
957.6000;0.1514;0.2909;
957.9000;0.1514;0.2957;
958.2000;0.1522;0.2957;
958.5000;0.1506;0.2957;
958.8000;0.1498;0.2861;
959.1000;0.1506;0.2909;
959.4000;0.1571;0.3100;
959.7000;0.1514;0.3005;
960.0000;0.1490;0.2981;
960.3000;0.1530;0.3100;
960.6000;0.1514;0.3005;
960.9000;0.1514;0.2981;
961.2000;0.1481;0.2838;
961.5000;0.1433;0.2718;
961.8000;0.1481;0.2742;
962.1000;0.1498;0.2814;
962.4000;0.1563;0.2909;
962.7000;0.1538;0.2909;
963.0000;0.1473;0.2790;
963.3000;0.1538;0.2957;
963.6000;0.1498;0.2933;
963.9000;0.1490;0.2909;
964.2000;0.1506;0.2861;
964.5000;0.1547;0.2933;
964.8000;0.1384;0.2456;
965.1000;0.1449;0.2647;
965.4000;0.1481;0.2742;
965.7000;0.1587;0.2957;
966.0000;0.1490;0.2766;
966.3000;0.1465;0.2742;
966.6000;0.1490;0.2957;
966.9000;0.1490;0.2957;
967.2000;0.1498;0.3005;
967.5000;0.1498;0.2909;
967.8000;0.1514;0.2957;
968.1000;0.1481;0.2861;
968.4000;0.1490;0.2861;
968.7000;0.1506;0.2981;
969.0000;0.1481;0.2909;
969.3000;0.1506;0.2933;
969.6000;0.1514;0.2933;
969.9000;0.1522;0.2933;
970.2000;0.1514;0.2909;
970.5000;0.1498;0.2885;
970.8000;0.1506;0.2933;
971.1000;0.1514;0.3005;
971.4000;0.1506;0.2981;
971.7000;0.1425;0.2814;
972.0000;0.1522;0.3100;
972.3000;0.1506;0.3028;
972.6000;0.1490;0.3052;
972.9000;0.1538;0.3219;
973.2000;0.1514;0.3076;
973.5000;0.1514;0.3028;
973.8000;0.1408;0.2695;
974.1000;0.1506;0.2981;
974.4000;0.1514;0.2981;
974.7000;0.1530;0.3076;
975.0000;0.1522;0.3076;
975.3000;0.1612;0.3362;
975.6000;0.1514;0.3148;
975.9000;0.1530;0.3148;
976.2000;0.1506;0.3005;
976.5000;0.1498;0.3005;
976.8000;0.1473;0.2933;
977.1000;0.1587;0.3171;
977.4000;0.1376;0.2551;
977.7000;0.1498;0.2933;
978.0000;0.1498;0.2885;
978.3000;0.1604;0.3243;
978.6000;0.1490;0.2957;
978.9000;0.1498;0.2957;
979.2000;0.1506;0.2981;
979.5000;0.1498;0.3005;
979.8000;0.1506;0.3005;
980.1000;0.1530;0.3076;
980.4000;0.1587;0.3219;
980.7000;0.1506;0.3005;
981.0000;0.1538;0.3100;
981.3000;0.1506;0.2885;
981.6000;0.1506;0.2909;
981.9000;0.1490;0.2814;
982.2000;0.1530;0.2861;
982.5000;0.1498;0.2838;
982.8000;0.1506;0.2885;
983.1000;0.1514;0.2957;
983.4000;0.1530;0.3005;
983.7000;0.1514;0.2981;
984.0000;0.1498;0.2957;
984.3000;0.1514;0.2957;
984.6000;0.1514;0.2933;
984.9000;0.1490;0.2909;
985.2000;0.1538;0.3005;
985.5000;0.1498;0.2957;
985.8000;0.1490;0.3028;
986.1000;0.1498;0.3028;
986.4000;0.1514;0.3100;
986.7000;0.1547;0.3171;
987.0000;0.1595;0.3338;
987.3000;0.1506;0.3052;
987.6000;0.1522;0.3076;
987.9000;0.1522;0.3028;
988.2000;0.1481;0.2933;
988.5000;0.1620;0.3267;
988.8000;0.1441;0.2814;
989.1000;0.1506;0.3076;
989.4000;0.1506;0.3028;
989.7000;0.1498;0.2909;
990.0000;0.1514;0.3028;
990.3000;0.1506;0.3076;
990.6000;0.1400;0.2814;
990.9000;0.1481;0.3052;
991.2000;0.1490;0.3124;
991.5000;0.1522;0.3267;
991.8000;0.1514;0.3267;
992.1000;0.1498;0.3267;
992.4000;0.1481;0.3195;
992.7000;0.1506;0.3243;
993.0000;0.1530;0.3314;
993.3000;0.1538;0.3291;
993.6000;0.1498;0.3291;
993.9000;0.1498;0.3267;
994.2000;0.1506;0.3314;
994.5000;0.1506;0.3386;
994.8000;0.1490;0.3291;
995.1000;0.1506;0.3386;
995.4000;0.1522;0.3362;
995.7000;0.1376;0.3052;
996.0000;0.1514;0.3338;
996.3000;0.1506;0.3314;
996.6000;0.1530;0.3338;
996.9000;0.1490;0.3243;
997.2000;0.1506;0.3267;
997.5000;0.1514;0.3291;
997.8000;0.1506;0.3243;
998.1000;0.1555;0.3338;
998.4000;0.1441;0.3005;
998.7000;0.1498;0.3124;
999.0000;0.1514;0.3243;
999.3000;0.1481;0.3171;
999.6000;0.1514;0.3267;
999.9000;0.1490;0.3100;
1000.2000;0.1514;0.3171;
1000.5000;0.1506;0.3171;
1000.8000;0.1530;0.3219;
1001.1000;0.1498;0.3195;
1001.4000;0.1490;0.3195;
1001.7000;0.1506;0.3171;
1002.0000;0.1433;0.2909;
1002.3000;0.1571;0.3148;
1002.6000;0.1498;0.3028;
1002.9000;0.1514;0.3148;
1003.2000;0.1490;0.3052;
1003.5000;0.1506;0.3052;
1003.8000;0.1473;0.2957;
1004.1000;0.1481;0.3005;
1004.4000;0.1498;0.3076;
1004.7000;0.1481;0.3052;
1005.0000;0.1522;0.3124;
1005.3000;0.1506;0.3052;
1005.6000;0.1481;0.3100;
1005.9000;0.1506;0.3171;
1006.2000;0.1514;0.3195;
1006.5000;0.1538;0.3291;
1006.8000;0.1514;0.3124;
1007.1000;0.1490;0.3076;
1007.4000;0.1514;0.3100;
1007.7000;0.1481;0.2981;
1008.0000;0.1514;0.3124;
1008.3000;0.1522;0.3195;
1008.6000;0.1514;0.3148;
1008.9000;0.1473;0.3052;
1009.2000;0.1506;0.3100;
1009.5000;0.1449;0.2957;
1009.8000;0.1522;0.3171;
1010.1000;0.1506;0.3100;
1010.4000;0.1490;0.3052;
1010.7000;0.1473;0.2933;
1011.0000;0.1416;0.2742;
1011.3000;0.1530;0.3052;
1011.6000;0.1506;0.3100;
1011.9000;0.1506;0.3100;
1012.2000;0.1506;0.3100;
1012.5000;0.1530;0.3195;
1012.8000;0.1506;0.3148;
1013.1000;0.1644;0.3481;
1013.4000;0.1506;0.3076;
1013.7000;0.1506;0.3124;
1014.0000;0.1392;0.2814;
1014.3000;0.1498;0.3100;
1014.6000;0.1530;0.3195;
1014.9000;0.1538;0.3267;
1015.2000;0.1563;0.3529;
1015.5000;0.1595;0.3553;
1015.8000;0.1473;0.3219;
1016.1000;0.1514;0.3267;
1016.4000;0.1506;0.3124;
1016.7000;0.1530;0.3171;
1017.0000;0.1522;0.3052;
1017.3000;0.1522;0.3052;
1017.6000;0.1571;0.3243;
1017.9000;0.1498;0.3100;
1018.2000;0.1538;0.3195;
1018.5000;0.1514;0.3124;
1018.8000;0.1498;0.3052;
1019.1000;0.1490;0.3124;
1019.4000;0.1514;0.3100;
1019.7000;0.1506;0.3195;
1020.0000;0.1538;0.3291;
1020.3000;0.1522;0.3243;
1020.6000;0.1408;0.3005;
1020.9000;0.1506;0.3124;
1021.2000;0.1514;0.3100;
1021.5000;0.1498;0.3005;
1021.8000;0.1612;0.3267;
1022.1000;0.1490;0.2933;
1022.4000;0.1506;0.3076;
1022.7000;0.1433;0.2838;
1023.0000;0.1433;0.2909;
1023.3000;0.1514;0.3195;
1023.6000;0.1449;0.3028;
1023.9000;0.1465;0.3124;
1024.2000;0.1514;0.3100;
1024.5000;0.1498;0.3171;
1024.8000;0.1514;0.3124;
1025.1000;0.1490;0.3076;
1025.4000;0.1514;0.3171;
1025.7000;0.1481;0.3148;
1026.0000;0.1481;0.3195;
1026.3000;0.1514;0.3219;
1026.6000;0.1522;0.3243;
1026.9000;0.1514;0.3219;
1027.2000;0.1506;0.3171;
1027.5000;0.1514;0.3219;
1027.8000;0.1457;0.3052;
1028.1000;0.1498;0.3148;
1028.4000;0.1506;0.3148;
1028.7000;0.1473;0.3052;
1029.0000;0.1514;0.3195;
1029.3000;0.1506;0.3148;
1029.6000;0.1465;0.3005;
1029.9000;0.1490;0.3005;
1030.2000;0.1506;0.3028;
1030.5000;0.1514;0.3124;
1030.8000;0.1538;0.3171;
1031.1000;0.1506;0.3148;
1031.4000;0.1506;0.3171;
1031.7000;0.1490;0.3124;
1032.0000;0.1514;0.3219;
1032.3000;0.1514;0.3243;
1032.6000;0.1498;0.3195;
1032.9000;0.1538;0.3314;
1033.2000;0.1498;0.3243;
1033.5000;0.1473;0.3195;
1033.8000;0.1408;0.2981;
1034.1000;0.1465;0.3148;
1034.4000;0.1506;0.3195;
1034.7000;0.1506;0.3243;
1035.0000;0.1465;0.3171;
1035.3000;0.1506;0.3267;
1035.6000;0.1538;0.3386;
1035.9000;0.1514;0.3362;
1036.2000;0.1490;0.3314;
1036.5000;0.1506;0.3338;
1036.8000;0.1481;0.3219;
1037.1000;0.1498;0.3314;
1037.4000;0.1465;0.3195;
1037.7000;0.1490;0.3195;
1038.0000;0.1506;0.3219;
1038.3000;0.1522;0.3291;
1038.6000;0.1490;0.3100;
1038.9000;0.1506;0.3219;
1039.2000;0.1506;0.3219;
1039.5000;0.1514;0.3291;
1039.8000;0.1506;0.3219;
1040.1000;0.1481;0.3148;
1040.4000;0.1522;0.3148;
1040.7000;0.1506;0.3124;
1041.0000;0.1506;0.3171;
1041.3000;0.1498;0.3219;
1041.6000;0.1481;0.3171;
1041.9000;0.1514;0.3243;
1042.2000;0.1514;0.3219;
1042.5000;0.1481;0.3124;
1042.8000;0.1506;0.3362;
1043.1000;0.1522;0.3386;
1043.4000;0.1530;0.3338;
1043.7000;0.1522;0.3314;
1044.0000;0.1498;0.3243;
1044.3000;0.1465;0.3005;
1044.6000;0.1514;0.3052;
1044.9000;0.1473;0.3005;
1045.2000;0.1416;0.2790;
1045.5000;0.1481;0.2909;
1045.8000;0.1506;0.2981;
1046.1000;0.1441;0.2814;
1046.4000;0.1498;0.3052;
1046.7000;0.1473;0.2909;
1047.0000;0.1408;0.2790;
1047.3000;0.1538;0.3076;
1047.6000;0.1473;0.3076;
1047.9000;0.1506;0.3219;
1048.2000;0.1538;0.3291;
1048.5000;0.1522;0.3243;
1048.8000;0.1506;0.3219;
1049.1000;0.1530;0.3243;
1049.4000;0.1514;0.3195;
1049.7000;0.1481;0.3005;
1050.0000;0.1498;0.3100;
1050.3000;0.1481;0.3171;
1050.6000;0.1506;0.3267;
1050.9000;0.1522;0.3291;
1051.2000;0.1514;0.3291;
1051.5000;0.1522;0.3362;
1051.8000;0.1514;0.3362;
1052.1000;0.1498;0.3267;
1052.4000;0.1522;0.3243;
1052.7000;0.1514;0.3219;
1053.0000;0.1498;0.3243;
1053.3000;0.1506;0.3314;
1053.6000;0.1522;0.3338;
1053.9000;0.1514;0.3243;
1054.2000;0.1490;0.3171;
1054.5000;0.1522;0.3314;
1054.8000;0.1490;0.3243;
1055.1000;0.1498;0.3291;
1055.4000;0.1498;0.3219;
1055.7000;0.1506;0.3219;
1056.0000;0.1514;0.3362;
1056.3000;0.1530;0.3338;
1056.6000;0.1498;0.3243;
1056.9000;0.1628;0.3553;
1057.2000;0.1490;0.3219;
1057.5000;0.1522;0.3243;
1057.8000;0.1400;0.2957;
1058.1000;0.1490;0.3219;
1058.4000;0.1490;0.3076;
1058.7000;0.1473;0.2981;
1059.0000;0.1433;0.2838;
1059.3000;0.1498;0.3148;
1059.6000;0.1498;0.3219;
1059.9000;0.1514;0.3291;
1060.2000;0.1506;0.3171;
1060.5000;0.1522;0.3171;
1060.8000;0.1514;0.3171;
1061.1000;0.1563;0.3314;
1061.4000;0.1538;0.3124;
1061.7000;0.1490;0.3005;
1062.0000;0.1514;0.3124;
1062.3000;0.1514;0.3028;
1062.6000;0.1473;0.2981;
1062.9000;0.1506;0.3076;
1063.2000;0.1595;0.3267;
1063.5000;0.1506;0.3100;
1063.8000;0.1506;0.3148;
1064.1000;0.1514;0.3124;
1064.4000;0.1522;0.3148;
1064.7000;0.1498;0.3100;
1065.0000;0.1498;0.3076;
1065.3000;0.1498;0.3052;
1065.6000;0.1522;0.3028;
1065.9000;0.1530;0.3148;
1066.2000;0.1522;0.3100;
1066.5000;0.1506;0.3171;
1066.8000;0.1522;0.3195;
1067.1000;0.1522;0.3219;
1067.4000;0.1490;0.3219;
1067.7000;0.1514;0.3195;
1068.0000;0.1547;0.3314;
1068.3000;0.1506;0.3171;
1068.6000;0.1490;0.3195;
1068.9000;0.1530;0.3291;
1069.2000;0.1498;0.3219;
1069.5000;0.1506;0.3243;
1069.8000;0.1506;0.3267;
1070.1000;0.1457;0.3148;
1070.4000;0.1555;0.3410;
1070.7000;0.1481;0.3243;
1071.0000;0.1506;0.3243;
1071.3000;0.1595;0.3338;
1071.6000;0.1538;0.3124;
1071.9000;0.1514;0.3076;
1072.2000;0.1473;0.2981;
1072.5000;0.1498;0.2957;
1072.8000;0.1506;0.2933;
1073.1000;0.1465;0.2861;
1073.4000;0.1498;0.2981;
1073.7000;0.1506;0.2957;
1074.0000;0.1530;0.3076;
1074.3000;0.1522;0.3052;
1074.6000;0.1522;0.3028;
1074.9000;0.1514;0.3028;
1075.2000;0.1498;0.2981;
1075.5000;0.1514;0.3076;
1075.8000;0.1506;0.3005;
1076.1000;0.1506;0.3005;
1076.4000;0.1498;0.2957;
1076.7000;0.1514;0.2957;
1077.0000;0.1514;0.2957;
1077.3000;0.1490;0.2957;
1077.6000;0.1498;0.2981;
1077.9000;0.1481;0.2933;
1078.2000;0.1506;0.2909;
1078.5000;0.1506;0.2838;
1078.8000;0.1538;0.2957;
1079.1000;0.1538;0.3028;
1079.4000;0.1498;0.2933;
1079.7000;0.1441;0.2766;
1080.0000;0.1506;0.2838;
1080.3000;0.1473;0.2838;
1080.6000;0.1490;0.2957;
1080.9000;0.1449;0.2933;
1081.2000;0.1506;0.3148;
1081.5000;0.1498;0.3148;
1081.8000;0.1530;0.3338;
1082.1000;0.1522;0.3219;
1082.4000;0.1498;0.3171;
1082.7000;0.1506;0.3171;
1083.0000;0.1498;0.3243;
1083.3000;0.1514;0.3219;
1083.6000;0.1506;0.3195;
1083.9000;0.1506;0.3148;
1084.2000;0.1433;0.2981;
1084.5000;0.1490;0.3124;
1084.8000;0.1481;0.3124;
1085.1000;0.1506;0.3148;
1085.4000;0.1481;0.3052;
1085.7000;0.1514;0.3100;
1086.0000;0.1481;0.3005;
1086.3000;0.1506;0.2981;
1086.6000;0.1514;0.2933;
1086.9000;0.1506;0.2933;
1087.2000;0.1506;0.2957;
1087.5000;0.1522;0.2957;
1087.8000;0.1514;0.3005;
1088.1000;0.1587;0.3219;
1088.4000;0.1514;0.3100;
1088.7000;0.1498;0.3171;
1089.0000;0.1530;0.3195;
1089.3000;0.1522;0.3171;
1089.6000;0.1538;0.3171;
1089.9000;0.1522;0.3124;
1090.2000;0.1522;0.3052;
1090.5000;0.1506;0.3100;
1090.8000;0.1498;0.3100;
1091.1000;0.1498;0.3171;
1091.4000;0.1465;0.3100;
1091.7000;0.1351;0.2766;
1092.0000;0.1498;0.3171;
1092.3000;0.1465;0.3028;
1092.6000;0.1498;0.3148;
1092.9000;0.1473;0.3148;
1093.2000;0.1506;0.3171;
1093.5000;0.1498;0.3124;
1093.8000;0.1498;0.3171;
1094.1000;0.1425;0.2957;
1094.4000;0.1473;0.3052;
1094.7000;0.1498;0.3100;
1095.0000;0.1522;0.3052;
1095.3000;0.1587;0.3291;
1095.6000;0.1522;0.3076;
1095.9000;0.1498;0.2981;
1096.2000;0.1522;0.3028;
1096.5000;0.1506;0.2981;
1096.8000;0.1498;0.2981;
1097.1000;0.1530;0.3028;
1097.4000;0.1498;0.3005;
1097.7000;0.1490;0.2981;
1098.0000;0.1457;0.2814;
1098.3000;0.1481;0.2838;
1098.6000;0.1392;0.2599;
1098.9000;0.1522;0.2933;
1099.2000;0.1530;0.3005;
1099.5000;0.1490;0.2957;
1099.8000;0.1514;0.2981;
1100.1000;0.1555;0.3100;
1100.4000;0.1465;0.2957;
1100.7000;0.1498;0.2981;
1101.0000;0.1506;0.2957;
1101.3000;0.1514;0.3005;
1101.6000;0.1498;0.2933;
1101.9000;0.1490;0.2957;
1102.2000;0.1481;0.2933;
1102.5000;0.1490;0.2957;
1102.8000;0.1457;0.2885;
1103.1000;0.1498;0.3076;
1103.4000;0.1498;0.3076;
1103.7000;0.1514;0.3148;
1104.0000;0.1490;0.3076;
1104.3000;0.1514;0.3148;
1104.6000;0.1481;0.3076;
1104.9000;0.1481;0.3100;
1105.2000;0.1506;0.3124;
1105.5000;0.1498;0.3124;
1105.8000;0.1522;0.3052;
1106.1000;0.1498;0.2909;
1106.4000;0.1465;0.2838;
1106.7000;0.1530;0.3028;
1107.0000;0.1514;0.3100;
1107.3000;0.1481;0.3005;
1107.6000;0.1498;0.3052;
1107.9000;0.1490;0.2981;
1108.2000;0.1514;0.3052;
1108.5000;0.1506;0.3076;
1108.8000;0.1514;0.3195;
1109.1000;0.1498;0.3195;
1109.4000;0.1498;0.3171;
1109.7000;0.1530;0.3291;
1110.0000;0.1490;0.3171;
1110.3000;0.1530;0.3243;
1110.6000;0.1400;0.2885;
1110.9000;0.1514;0.3148;
1111.2000;0.1498;0.3243;
1111.5000;0.1498;0.3195;
1111.8000;0.1522;0.3291;
1112.1000;0.1522;0.3243;
1112.4000;0.1506;0.3148;
1112.7000;0.1506;0.3195;
1113.0000;0.1506;0.3100;
1113.3000;0.1506;0.3028;
1113.6000;0.1457;0.2861;
1113.9000;0.1473;0.3028;
1114.2000;0.1498;0.3100;
1114.5000;0.1514;0.3124;
1114.8000;0.1490;0.3076;
1115.1000;0.1473;0.2981;
1115.4000;0.1522;0.3148;
1115.7000;0.1522;0.3148;
1116.0000;0.1490;0.3100;
1116.3000;0.1506;0.3124;
1116.6000;0.1514;0.3195;
1116.9000;0.1506;0.3171;
1117.2000;0.1506;0.3076;
1117.5000;0.1498;0.3028;
1117.8000;0.1498;0.3076;
1118.1000;0.1530;0.3124;
1118.4000;0.1498;0.3005;
1118.7000;0.1498;0.3028;
1119.0000;0.1441;0.2861;
1119.3000;0.1490;0.3005;
1119.6000;0.1514;0.3124;
1119.9000;0.1506;0.3100;
1120.2000;0.1506;0.3124;
1120.5000;0.1506;0.3148;
1120.8000;0.1506;0.3195;
1121.1000;0.1490;0.3124;
1121.4000;0.1490;0.3028;
1121.7000;0.1579;0.3171;
1122.0000;0.1522;0.3076;
1122.3000;0.1498;0.3005;
1122.6000;0.1555;0.3052;
1122.9000;0.1522;0.2957;
1123.2000;0.1514;0.3028;
1123.5000;0.1498;0.2957;
1123.8000;0.1522;0.3052;
1124.1000;0.1514;0.3052;
1124.4000;0.1465;0.2909;
1124.7000;0.1514;0.3052;
1125.0000;0.1514;0.3052;
1125.3000;0.1506;0.3076;
1125.6000;0.1481;0.3028;
1125.9000;0.1481;0.2981;
1126.2000;0.1506;0.3005;
1126.5000;0.1498;0.3076;
1126.8000;0.1498;0.3100;
1127.1000;0.1481;0.3005;
1127.4000;0.1538;0.3171;
1127.7000;0.1538;0.3124;
1128.0000;0.1506;0.3100;
1128.3000;0.1506;0.3267;
1128.6000;0.1490;0.3267;
1128.9000;0.1498;0.3243;
1129.2000;0.1506;0.3243;
1129.5000;0.1465;0.3171;
1129.8000;0.1514;0.3267;
1130.1000;0.1473;0.3100;
1130.4000;0.1498;0.3267;
1130.7000;0.1506;0.3267;
1131.0000;0.1473;0.3219;
1131.3000;0.1522;0.3338;
1131.6000;0.1490;0.3219;
1131.9000;0.1498;0.3267;
1132.2000;0.1522;0.3291;
1132.5000;0.1473;0.3100;
1132.8000;0.1506;0.3124;
1133.1000;0.1506;0.3076;
1133.4000;0.1384;0.2790;
1133.7000;0.1506;0.3124;
1134.0000;0.1538;0.3243;
1134.3000;0.1538;0.3243;
1134.6000;0.1498;0.3148;
1134.9000;0.1514;0.3219;
1135.2000;0.1498;0.3124;
1135.5000;0.1595;0.3410;
1135.8000;0.1506;0.3171;
1136.1000;0.1481;0.3219;
1136.4000;0.1506;0.3314;
1136.7000;0.1498;0.3291;
1137.0000;0.1481;0.3267;
1137.3000;0.1506;0.3267;
1137.6000;0.1547;0.3386;
1137.9000;0.1498;0.3314;
1138.2000;0.1481;0.3267;
1138.5000;0.1514;0.3219;
1138.8000;0.1506;0.3219;
1139.1000;0.1506;0.3148;
1139.4000;0.1490;0.3148;
1139.7000;0.1514;0.3076;
1140.0000;0.1481;0.3052;
1140.3000;0.1465;0.3028;
1140.6000;0.1514;0.3171;
1140.9000;0.1506;0.3267;
1141.2000;0.1490;0.3171;
1141.5000;0.1514;0.3171;
1141.8000;0.1498;0.3052;
1142.1000;0.1498;0.3005;
1142.4000;0.1506;0.2909;
1142.7000;0.1473;0.2933;
1143.0000;0.1547;0.3028;
1143.3000;0.1490;0.2933;
1143.6000;0.1473;0.2838;
1143.9000;0.1514;0.2909;
1144.2000;0.1490;0.2909;
1144.5000;0.1595;0.3219;
1144.8000;0.1506;0.2981;
1145.1000;0.1506;0.3052;
1145.4000;0.1498;0.3005;
1145.7000;0.1506;0.3076;
1146.0000;0.1490;0.3005;
1146.3000;0.1514;0.3005;
1146.6000;0.1490;0.2981;
1146.9000;0.1506;0.2957;
1147.2000;0.1490;0.2885;
1147.5000;0.1514;0.3028;
1147.8000;0.1522;0.3028;
1148.1000;0.1490;0.2981;
1148.4000;0.1498;0.3076;
1148.7000;0.1506;0.3052;
1149.0000;0.1481;0.2933;
1149.3000;0.1514;0.2957;
1149.6000;0.1514;0.2957;
1149.9000;0.1384;0.2623;
1150.2000;0.1490;0.3005;
1150.5000;0.1579;0.3171;
1150.8000;0.1498;0.2909;
1151.1000;0.1384;0.2695;
1151.4000;0.1522;0.3100;
1151.7000;0.1473;0.3028;
1152.0000;0.1506;0.3124;
1152.3000;0.1490;0.3148;
1152.6000;0.1498;0.3124;
1152.9000;0.1514;0.3219;
1153.2000;0.1563;0.3291;
1153.5000;0.1506;0.3076;
1153.8000;0.1498;0.3148;
1154.1000;0.1473;0.2933;
1154.4000;0.1506;0.3005;
1154.7000;0.1514;0.2909;
1155.0000;0.1555;0.3076;
1155.3000;0.1498;0.2909;
1155.6000;0.1457;0.2861;
1155.9000;0.1506;0.3005;
1156.2000;0.1522;0.3005;
1156.5000;0.1498;0.3028;
1156.8000;0.1506;0.2933;
1157.1000;0.1530;0.3005;
1157.4000;0.1522;0.3028;
1157.7000;0.1514;0.3028;
1158.0000;0.1514;0.2957;
1158.3000;0.1555;0.2981;
1158.6000;0.1490;0.2861;
1158.9000;0.1506;0.2957;
1159.2000;0.1514;0.2981;
1159.5000;0.1579;0.3124;
1159.8000;0.1506;0.2838;
1160.1000;0.1506;0.2885;
1160.4000;0.1490;0.2861;
1160.7000;0.1498;0.2933;
1161.0000;0.1522;0.3052;
1161.3000;0.1498;0.3028;
1161.6000;0.1522;0.3148;
1161.9000;0.1498;0.3124;
1162.2000;0.1514;0.3148;
1162.5000;0.1522;0.3148;
1162.8000;0.1490;0.3100;
1163.1000;0.1449;0.3028;
1163.4000;0.1425;0.2909;
1163.7000;0.1514;0.3052;
1164.0000;0.1506;0.2957;
1164.3000;0.1514;0.3028;
1164.6000;0.1400;0.2766;
1164.9000;0.1514;0.3148;
1165.2000;0.1514;0.3171;
1165.5000;0.1506;0.3100;
1165.8000;0.1506;0.3052;
1166.1000;0.1498;0.3052;
1166.4000;0.1530;0.3100;
1166.7000;0.1490;0.2957;
1167.0000;0.1506;0.2981;
1167.3000;0.1514;0.3076;
1167.6000;0.1506;0.3148;
1167.9000;0.1498;0.3148;
1168.2000;0.1506;0.3100;
1168.5000;0.1522;0.3100;
1168.8000;0.1514;0.3195;
1169.1000;0.1490;0.3219;
1169.4000;0.1498;0.3267;
1169.7000;0.1522;0.3314;
1170.0000;0.1506;0.3195;
1170.3000;0.1514;0.3267;
1170.6000;0.1514;0.3219;
1170.9000;0.1506;0.3291;
1171.2000;0.1538;0.3362;
1171.5000;0.1506;0.3267;
1171.8000;0.1498;0.3171;
1172.1000;0.1555;0.3314;
1172.4000;0.1514;0.3124;
1172.7000;0.1449;0.2957;
1173.0000;0.1481;0.3005;
1173.3000;0.1481;0.3005;
1173.6000;0.1481;0.2981;
1173.9000;0.1441;0.2909;
1174.2000;0.1514;0.3076;
1174.5000;0.1481;0.2933;
1174.8000;0.1579;0.3219;
1175.1000;0.1498;0.3052;
1175.4000;0.1514;0.3148;
1175.7000;0.1522;0.3148;
1176.0000;0.1522;0.3148;
1176.3000;0.1522;0.3052;
1176.6000;0.1514;0.3076;
1176.9000;0.1498;0.3076;
1177.2000;0.1506;0.3124;
1177.5000;0.1514;0.3243;
1177.8000;0.1514;0.3171;
1178.1000;0.1506;0.3195;
1178.4000;0.1498;0.3219;
1178.7000;0.1514;0.3291;
1179.0000;0.1481;0.3291;
1179.3000;0.1636;0.3768;
1179.6000;0.1547;0.3410;
1179.9000;0.1506;0.3267;
1180.2000;0.1538;0.3195;
1180.5000;0.1498;0.3124;
1180.8000;0.1498;0.3124;
1181.1000;0.1506;0.3148;
1181.4000;0.1481;0.3005;
1181.7000;0.1522;0.3076;
1182.0000;0.1514;0.3076;
1182.3000;0.1400;0.2718;
1182.6000;0.1538;0.3076;
1182.9000;0.1514;0.3052;
1183.2000;0.1498;0.2861;
1183.5000;0.1498;0.2909;
1183.8000;0.1514;0.2957;
1184.1000;0.1506;0.2933;
1184.4000;0.1506;0.3052;
1184.7000;0.1498;0.2957;
1185.0000;0.1481;0.2861;
1185.3000;0.1457;0.2933;
1185.6000;0.1514;0.3028;
1185.9000;0.1481;0.2933;
1186.2000;0.1400;0.2695;
1186.5000;0.1514;0.3052;
1186.8000;0.1498;0.3005;
1187.1000;0.1498;0.2981;
1187.4000;0.1563;0.3100;
1187.7000;0.1506;0.3124;
1188.0000;0.1506;0.3195;
1188.3000;0.1490;0.3171;
1188.6000;0.1481;0.3124;
1188.9000;0.1498;0.3076;
1189.2000;0.1481;0.3076;
1189.5000;0.1481;0.3100;
1189.8000;0.1490;0.3076;
1190.1000;0.1506;0.3148;
1190.4000;0.1465;0.3005;
1190.7000;0.1538;0.3124;
1191.0000;0.1514;0.3052;
1191.3000;0.1498;0.3028;
1191.6000;0.1522;0.3100;
1191.9000;0.1530;0.3100;
1192.2000;0.1579;0.3195;
1192.5000;0.1481;0.2909;
1192.8000;0.1506;0.3005;
1193.1000;0.1498;0.3005;
1193.4000;0.1522;0.3052;
1193.7000;0.1490;0.2957;
1194.0000;0.1498;0.2957;
1194.3000;0.1473;0.2909;
1194.6000;0.1506;0.2957;
1194.9000;0.1514;0.2957;
1195.2000;0.1490;0.2909;
1195.5000;0.1481;0.2838;
1195.8000;0.1514;0.2861;
1196.1000;0.1490;0.2790;
1196.4000;0.1498;0.2790;
1196.7000;0.1555;0.2933;
1197.0000;0.1514;0.2885;
1197.3000;0.1514;0.2933;
1197.6000;0.1514;0.2957;
1197.9000;0.1498;0.2957;
1198.2000;0.1522;0.2957;
1198.5000;0.1514;0.2957;
1198.8000;0.1530;0.3005;
1199.1000;0.1522;0.2981;
1199.4000;0.1490;0.2885;
1199.7000;0.1555;0.3076;
1200.0000;0.1490;0.2861;
1200.3000;0.1490;0.2814;
1200.6000;0.1522;0.2933;
1200.9000;0.1522;0.2909;
1201.2000;0.1376;0.2528;
1201.5000;0.1490;0.2814;
1201.8000;0.1481;0.2790;
1202.1000;0.1506;0.2790;
1202.4000;0.1506;0.2766;
1202.7000;0.1441;0.2623;
1203.0000;0.1490;0.2671;
1203.3000;0.1498;0.2790;
1203.6000;0.1530;0.2909;
1203.9000;0.1514;0.2838;
1204.2000;0.1473;0.2766;
1204.5000;0.1506;0.2814;
1204.8000;0.1547;0.3005;
1205.1000;0.1514;0.2981;
1205.4000;0.1473;0.2885;
1205.7000;0.1514;0.3076;
1206.0000;0.1506;0.3124;
1206.3000;0.1522;0.3219;
1206.6000;0.1514;0.3171;
1206.9000;0.1522;0.3219;
1207.2000;0.1481;0.3124;
1207.5000;0.1514;0.3243;
1207.8000;0.1563;0.3386;
1208.1000;0.1522;0.3291;
1208.4000;0.1522;0.3267;
1208.7000;0.1522;0.3314;
1209.0000;0.1538;0.3410;
1209.3000;0.1506;0.3267;
1209.6000;0.1498;0.3243;
1209.9000;0.1522;0.3267;
1210.2000;0.1498;0.3124;
1210.5000;0.1449;0.2933;
1210.8000;0.1506;0.3052;
1211.1000;0.1514;0.3028;
1211.4000;0.1522;0.3076;
1211.7000;0.1498;0.3028;
1212.0000;0.1481;0.3005;
1212.3000;0.1514;0.3100;
1212.6000;0.1514;0.3100;
1212.9000;0.1628;0.3410;
1213.2000;0.1547;0.3267;
1213.5000;0.1506;0.3148;
1213.8000;0.1506;0.3171;
1214.1000;0.1547;0.3291;
1214.4000;0.1514;0.3243;
1214.7000;0.1506;0.3171;
1215.0000;0.1522;0.3052;
1215.3000;0.1522;0.3052;
1215.6000;0.1506;0.3076;
1215.9000;0.1490;0.3052;
1216.2000;0.1514;0.3076;
1216.5000;0.1514;0.3195;
1216.8000;0.1498;0.3124;
1217.1000;0.1514;0.3124;
1217.4000;0.1498;0.3148;
1217.7000;0.1522;0.3195;
1218.0000;0.1498;0.3076;
1218.3000;0.1514;0.3052;
1218.6000;0.1514;0.3028;
1218.9000;0.1498;0.3005;
1219.2000;0.1522;0.3028;
1219.5000;0.1522;0.3005;
1219.8000;0.1530;0.3005;
1220.1000;0.1579;0.3171;
1220.4000;0.1498;0.3028;
1220.7000;0.1522;0.3052;
1221.0000;0.1490;0.3028;
1221.3000;0.1514;0.3100;
1221.6000;0.1522;0.3124;
1221.9000;0.1498;0.3028;
1222.2000;0.1465;0.2885;
1222.5000;0.1473;0.2933;
1222.8000;0.1514;0.3052;
1223.1000;0.1449;0.2838;
1223.4000;0.1506;0.3076;
1223.7000;0.1498;0.3052;
1224.0000;0.1506;0.3052;
1224.3000;0.1522;0.3148;
1224.6000;0.1522;0.3219;
1224.9000;0.1481;0.3124;
1225.2000;0.1506;0.3291;
1225.5000;0.1384;0.2909;
1225.8000;0.1506;0.3219;
1226.1000;0.1449;0.3076;
1226.4000;0.1490;0.3100;
1226.7000;0.1506;0.3219;
1227.0000;0.1498;0.3243;
1227.3000;0.1506;0.3124;
1227.6000;0.1498;0.3124;
1227.9000;0.1522;0.3171;
1228.2000;0.1538;0.3195;
1228.5000;0.1416;0.2933;
1228.8000;0.1547;0.3291;
1229.1000;0.1506;0.3124;
1229.4000;0.1522;0.3100;
1229.7000;0.1490;0.3052;
1230.0000;0.1506;0.3100;
1230.3000;0.1522;0.3100;
1230.6000;0.1514;0.3124;
1230.9000;0.1530;0.3076;
1231.2000;0.1490;0.2957;
1231.5000;0.1514;0.3076;
1231.8000;0.1538;0.3171;
1232.1000;0.1481;0.3124;
1232.4000;0.1514;0.3195;
1232.7000;0.1481;0.3076;
1233.0000;0.1506;0.3124;
1233.3000;0.1498;0.3171;
1233.6000;0.1506;0.3124;
1233.9000;0.1506;0.3124;
1234.2000;0.1498;0.3005;
1234.5000;0.1522;0.2933;
1234.8000;0.1498;0.2933;
1235.1000;0.1522;0.3005;
1235.4000;0.1498;0.2981;
1235.7000;0.1473;0.2933;
1236.0000;0.1571;0.3124;
1236.3000;0.1498;0.3005;
1236.6000;0.1514;0.2981;
1236.9000;0.1538;0.3124;
1237.2000;0.1473;0.3005;
1237.5000;0.1522;0.3124;
1237.8000;0.1498;0.3052;
1238.1000;0.1530;0.3076;
1238.4000;0.1522;0.3076;
1238.7000;0.1506;0.3005;
1239.0000;0.1490;0.2885;
1239.3000;0.1530;0.3052;
1239.6000;0.1506;0.3052;
1239.9000;0.1522;0.3028;
1240.2000;0.1498;0.2933;
1240.5000;0.1498;0.2933;
1240.8000;0.1490;0.2909;
1241.1000;0.1522;0.2957;
1241.4000;0.1506;0.2933;
1241.7000;0.1506;0.2861;
1242.0000;0.1522;0.2885;
1242.3000;0.1530;0.2933;
1242.6000;0.1506;0.2933;
1242.9000;0.1506;0.2885;
1243.2000;0.1498;0.2885;
1243.5000;0.1498;0.2957;
1243.8000;0.1506;0.2909;
1244.1000;0.1514;0.3052;
1244.4000;0.1498;0.2933;
1244.7000;0.1514;0.2909;
1245.0000;0.1506;0.2957;
1245.3000;0.1490;0.2933;
1245.6000;0.1465;0.2885;
1245.9000;0.1498;0.2957;
1246.2000;0.1490;0.2933;
1246.5000;0.1530;0.3100;
1246.8000;0.1490;0.2981;
1247.1000;0.1595;0.3291;
1247.4000;0.1538;0.3124;
1247.7000;0.1449;0.2957;
1248.0000;0.1498;0.3052;
1248.3000;0.1522;0.3100;
1248.6000;0.1514;0.3028;
1248.9000;0.1514;0.2981;
1249.2000;0.1530;0.2933;
1249.5000;0.1498;0.2885;
1249.8000;0.1465;0.2814;
1250.1000;0.1441;0.2742;
1250.4000;0.1441;0.2790;
1250.7000;0.1490;0.2909;
1251.0000;0.1514;0.2981;
1251.3000;0.1490;0.2838;
1251.6000;0.1473;0.2814;
1251.9000;0.1514;0.2885;
1252.2000;0.1514;0.2933;
1252.5000;0.1498;0.2861;
1252.8000;0.1506;0.2933;
1253.1000;0.1490;0.2909;
1253.4000;0.1522;0.2909;
1253.7000;0.1498;0.2861;
1254.0000;0.1506;0.2909;
1254.3000;0.1506;0.2885;
1254.6000;0.1514;0.3028;
1254.9000;0.1506;0.3052;
1255.2000;0.1514;0.3076;
1255.5000;0.1457;0.3005;
1255.8000;0.1490;0.3148;
1256.1000;0.1522;0.3195;
1256.4000;0.1473;0.3028;
1256.7000;0.1530;0.3100;
1257.0000;0.1522;0.3076;
1257.3000;0.1506;0.2957;
1257.6000;0.1457;0.2885;
1257.9000;0.1506;0.3005;
1258.2000;0.1514;0.2933;
1258.5000;0.1506;0.3028;
1258.8000;0.1498;0.2981;
1259.1000;0.1498;0.2933;
1259.4000;0.1506;0.3052;
1259.7000;0.1506;0.2981;
1260.0000;0.1522;0.3052;
1260.3000;0.1425;0.2838;
1260.6000;0.1481;0.3124;
1260.9000;0.1506;0.3195;
1261.2000;0.1481;0.3171;
1261.5000;0.1498;0.3124;
1261.8000;0.1514;0.3005;
1262.1000;0.1506;0.3005;
1262.4000;0.1538;0.3100;
1262.7000;0.1514;0.3005;
1263.0000;0.1514;0.3005;
1263.3000;0.1498;0.3005;
1263.6000;0.1514;0.3076;
1263.9000;0.1514;0.3124;
1264.2000;0.1522;0.3100;
1264.5000;0.1473;0.3052;
1264.8000;0.1506;0.3100;
1265.1000;0.1514;0.3028;
1265.4000;0.1522;0.3171;
1265.7000;0.1506;0.3028;
1266.0000;0.1490;0.2981;
1266.3000;0.1498;0.3148;
1266.6000;0.1522;0.3124;
1266.9000;0.1587;0.3314;
1267.2000;0.1530;0.3148;
1267.5000;0.1530;0.3171;
1267.8000;0.1514;0.3100;
1268.1000;0.1538;0.3219;
1268.4000;0.1538;0.3124;
1268.7000;0.1587;0.3267;
1269.0000;0.1465;0.2909;
1269.3000;0.1522;0.3052;
1269.6000;0.1506;0.3005;
1269.9000;0.1400;0.2671;
1270.2000;0.1604;0.3148;
1270.5000;0.1514;0.2838;
1270.8000;0.1498;0.2718;
1271.1000;0.1457;0.2623;
1271.4000;0.1490;0.2909;
1271.7000;0.1425;0.2695;
1272.0000;0.1498;0.2957;
1272.3000;0.1514;0.3028;
1272.6000;0.1506;0.3005;
1272.9000;0.1498;0.3005;
1273.2000;0.1498;0.3052;
1273.5000;0.1498;0.2981;
1273.8000;0.1514;0.2981;
1274.1000;0.1514;0.2981;
1274.4000;0.1514;0.3028;
1274.7000;0.1522;0.3028;
1275.0000;0.1498;0.3005;
1275.3000;0.1465;0.3005;
1275.6000;0.1498;0.3124;
1275.9000;0.1522;0.3124;
1276.2000;0.1498;0.3005;
1276.5000;0.1498;0.3028;
1276.8000;0.1522;0.3052;
1277.1000;0.1490;0.3005;
1277.4000;0.1514;0.3124;
1277.7000;0.1498;0.2981;
1278.0000;0.1530;0.2957;
1278.3000;0.1522;0.3005;
1278.6000;0.1522;0.3100;
1278.9000;0.1465;0.2981;
1279.2000;0.1587;0.3314;
1279.5000;0.1514;0.3148;
1279.8000;0.1506;0.3219;
1280.1000;0.1514;0.3219;
1280.4000;0.1457;0.3100;
1280.7000;0.1522;0.3171;
1281.0000;0.1522;0.3076;
1281.3000;0.1473;0.3005;
1281.6000;0.1490;0.3076;
1281.9000;0.1506;0.3148;
1282.2000;0.1465;0.3005;
1282.5000;0.1449;0.2885;
1282.8000;0.1490;0.2981;
1283.1000;0.1498;0.3028;
1283.4000;0.1490;0.3052;
1283.7000;0.1498;0.3028;
1284.0000;0.1498;0.3028;
1284.3000;0.1449;0.2814;
1284.6000;0.1498;0.2933;
1284.9000;0.1530;0.2933;
1285.2000;0.1498;0.2885;
1285.5000;0.1530;0.3005;
1285.8000;0.1514;0.3052;
1286.1000;0.1473;0.2838;
1286.4000;0.1506;0.2933;
1286.7000;0.1498;0.2981;
1287.0000;0.1530;0.3052;
1287.3000;0.1514;0.3005;
1287.6000;0.1465;0.2885;
1287.9000;0.1498;0.3052;
1288.2000;0.1506;0.3100;
1288.5000;0.1522;0.3195;
1288.8000;0.1514;0.3171;
1289.1000;0.1522;0.3195;
1289.4000;0.1506;0.3171;
1289.7000;0.1498;0.3124;
1290.0000;0.1522;0.3195;
1290.3000;0.1514;0.3243;
1290.6000;0.1498;0.3124;
1290.9000;0.1449;0.2838;
1291.2000;0.1522;0.3076;
1291.5000;0.1506;0.3076;
1291.8000;0.1522;0.3124;
1292.1000;0.1604;0.3291;
1292.4000;0.1506;0.3005;
1292.7000;0.1547;0.3028;
1293.0000;0.1555;0.3076;
1293.3000;0.1514;0.2933;
1293.6000;0.1481;0.2909;
1293.9000;0.1449;0.2838;
1294.2000;0.1433;0.2814;
1294.5000;0.1441;0.2861;
1294.8000;0.1498;0.2957;
1295.1000;0.1514;0.3005;
1295.4000;0.1522;0.3005;
1295.7000;0.1522;0.3005;
1296.0000;0.1473;0.2885;
1296.3000;0.1522;0.3100;
1296.6000;0.1522;0.3005;
1296.9000;0.1514;0.3005;
1297.2000;0.1490;0.3005;
1297.5000;0.1506;0.2981;
1297.8000;0.1490;0.2981;
1298.1000;0.1498;0.3028;
1298.4000;0.1530;0.3171;
1298.7000;0.1522;0.3076;
1299.0000;0.1498;0.2981;
1299.3000;0.1498;0.3005;
1299.6000;0.1490;0.3076;
1299.9000;0.1506;0.3100;
1300.2000;0.1498;0.3076;
1300.5000;0.1514;0.3100;
1300.8000;0.1514;0.3100;
1301.1000;0.1522;0.3076;
1301.4000;0.1538;0.3052;
1301.7000;0.1506;0.2885;
1302.0000;0.1514;0.2957;
1302.3000;0.1514;0.2909;
1302.6000;0.1579;0.3124;
1302.9000;0.1490;0.2909;
1303.2000;0.1514;0.2909;
1303.5000;0.1498;0.2933;
1303.8000;0.1498;0.3005;
1304.1000;0.1530;0.3148;
1304.4000;0.1506;0.3195;
1304.7000;0.1514;0.3171;
1305.0000;0.1587;0.3291;
1305.3000;0.1498;0.2957;
1305.6000;0.1506;0.3005;
1305.9000;0.1538;0.3171;
1306.2000;0.1587;0.3314;
1306.5000;0.1498;0.3100;
1306.8000;0.1490;0.3028;
1307.1000;0.1506;0.3100;
1307.4000;0.1441;0.2885;
1307.7000;0.1538;0.3195;
1308.0000;0.1571;0.3291;
1308.3000;0.1563;0.3314;
1308.6000;0.1522;0.3148;
1308.9000;0.1490;0.3052;
1309.2000;0.1514;0.3028;
1309.5000;0.1514;0.3028;
1309.8000;0.1498;0.3028;
1310.1000;0.1473;0.2957;
1310.4000;0.1522;0.3005;
1310.7000;0.1514;0.2981;
1311.0000;0.1538;0.2909;
1311.3000;0.1506;0.2838;
1311.6000;0.1490;0.2766;
1311.9000;0.1514;0.2861;
1312.2000;0.1514;0.2814;
1312.5000;0.1498;0.2766;
1312.8000;0.1530;0.2885;
1313.1000;0.1514;0.2814;
1313.4000;0.1514;0.2885;
1313.7000;0.1490;0.2933;
1314.0000;0.1457;0.2838;
1314.3000;0.1522;0.2909;
1314.6000;0.1490;0.2861;
1314.9000;0.1530;0.2957;
1315.2000;0.1514;0.2885;
1315.5000;0.1514;0.2885;
1315.8000;0.1522;0.2909;
1316.1000;0.1514;0.2814;
1316.4000;0.1498;0.2861;
1316.7000;0.1498;0.2957;
1317.0000;0.1514;0.3028;
1317.3000;0.1522;0.3005;
1317.6000;0.1473;0.2838;
1317.9000;0.1473;0.2790;
1318.2000;0.1473;0.2933;
1318.5000;0.1506;0.3124;
1318.8000;0.1506;0.3124;
1319.1000;0.1620;0.3458;
1319.4000;0.1498;0.3148;
1319.7000;0.1563;0.3291;
1320.0000;0.1514;0.3219;
1320.3000;0.1498;0.3195;
1320.6000;0.1530;0.3243;
1320.9000;0.1498;0.3171;
1321.2000;0.1514;0.3195;
1321.5000;0.1514;0.3195;
1321.8000;0.1506;0.3195;
1322.1000;0.1441;0.3052;
1322.4000;0.1506;0.3267;
1322.7000;0.1433;0.3124;
1323.0000;0.1498;0.3267;
1323.3000;0.1530;0.3362;
1323.6000;0.1530;0.3338;
1323.9000;0.1498;0.3195;
1324.2000;0.1498;0.3171;
1324.5000;0.1514;0.3219;
1324.8000;0.1506;0.3195;
1325.1000;0.1490;0.3052;
1325.4000;0.1522;0.3124;
1325.7000;0.1506;0.3100;
1326.0000;0.1481;0.3028;
1326.3000;0.1481;0.3028;
1326.6000;0.1481;0.2981;
1326.9000;0.1522;0.3028;
1327.2000;0.1506;0.3005;
1327.5000;0.1506;0.3005;
1327.8000;0.1530;0.3052;
1328.1000;0.1636;0.3386;
1328.4000;0.1514;0.2933;
1328.7000;0.1498;0.2909;
1329.0000;0.1514;0.2981;
1329.3000;0.1522;0.3076;
1329.6000;0.1522;0.3052;
1329.9000;0.1571;0.3243;
1330.2000;0.1530;0.3028;
1330.5000;0.1473;0.2838;
1330.8000;0.1465;0.2814;
1331.1000;0.1490;0.2838;
1331.4000;0.1514;0.2933;
1331.7000;0.1498;0.3005;
1332.0000;0.1490;0.2933;
1332.3000;0.1522;0.2957;
1332.6000;0.1514;0.2933;
1332.9000;0.1498;0.2933;
1333.2000;0.1506;0.2933;
1333.5000;0.1506;0.3124;
1333.8000;0.1498;0.3076;
1334.1000;0.1530;0.3100;
1334.4000;0.1506;0.3100;
1334.7000;0.1490;0.3100;
1335.0000;0.1498;0.3028;
1335.3000;0.1498;0.3005;
1335.6000;0.1498;0.3005;
1335.9000;0.1506;0.2933;
1336.2000;0.1481;0.2861;
1336.5000;0.1498;0.2957;
1336.8000;0.1498;0.3028;
1337.1000;0.1506;0.3100;
1337.4000;0.1498;0.3100;
1337.7000;0.1514;0.3076;
1338.0000;0.1490;0.3076;
1338.3000;0.1522;0.3195;
1338.6000;0.1481;0.3195;
1338.9000;0.1506;0.3314;
1339.2000;0.1481;0.3362;
1339.5000;0.1506;0.3338;
1339.8000;0.1506;0.3362;
1340.1000;0.1490;0.3171;
1340.4000;0.1498;0.3124;
1340.7000;0.1514;0.3052;
1341.0000;0.1498;0.3028;
1341.3000;0.1538;0.3243;
1341.6000;0.1506;0.3124;
1341.9000;0.1498;0.3124;
1342.2000;0.1571;0.3314;
1342.5000;0.1498;0.3148;
1342.8000;0.1506;0.3100;
1343.1000;0.1481;0.2933;
1343.4000;0.1530;0.2981;
1343.7000;0.1481;0.2766;
1344.0000;0.1514;0.2885;
1344.3000;0.1514;0.2957;
1344.6000;0.1522;0.2909;
1344.9000;0.1514;0.2909;
1345.2000;0.1473;0.2790;
1345.5000;0.1530;0.2933;
1345.8000;0.1587;0.3148;
1346.1000;0.1457;0.2861;
1346.4000;0.1514;0.3100;
1346.7000;0.1522;0.3124;
1347.0000;0.1514;0.3052;
1347.3000;0.1506;0.3124;
1347.6000;0.1514;0.3171;
1347.9000;0.1498;0.3124;
1348.2000;0.1514;0.3148;
1348.5000;0.1514;0.3124;
1348.8000;0.1522;0.3100;
1349.1000;0.1514;0.3052;
1349.4000;0.1522;0.3076;
1349.7000;0.1514;0.2981;
1350.0000;0.1473;0.2861;
1350.3000;0.1579;0.3076;
1350.6000;0.1522;0.2933;
1350.9000;0.1604;0.3171;
1351.2000;0.1506;0.2957;
1351.5000;0.1506;0.2981;
1351.8000;0.1506;0.3124;
1352.1000;0.1465;0.2981;
1352.4000;0.1498;0.3005;
1352.7000;0.1400;0.2742;
1353.0000;0.1498;0.2981;
1353.3000;0.1522;0.2933;
1353.6000;0.1490;0.2861;
1353.9000;0.1506;0.2933;
1354.2000;0.1490;0.2885;
1354.5000;0.1522;0.2933;
1354.8000;0.1522;0.3005;
1355.1000;0.1506;0.3052;
1355.4000;0.1498;0.2981;
1355.7000;0.1514;0.3005;
1356.0000;0.1498;0.2957;
1356.3000;0.1506;0.2981;
1356.6000;0.1514;0.2957;
1356.9000;0.1514;0.2933;
1357.2000;0.1498;0.2957;
1357.5000;0.1498;0.2957;
1357.8000;0.1498;0.2957;
1358.1000;0.1506;0.2909;
1358.4000;0.1522;0.2933;
1358.7000;0.1530;0.2957;
1359.0000;0.1490;0.2885;
1359.3000;0.1498;0.2933;
1359.6000;0.1514;0.3005;
1359.9000;0.1514;0.3005;
1360.2000;0.1555;0.3052;
1360.5000;0.1514;0.2909;
1360.8000;0.1522;0.2861;
1361.1000;0.1506;0.2838;
1361.4000;0.1490;0.2861;
1361.7000;0.1498;0.2909;
1362.0000;0.1530;0.3076;
1362.3000;0.1498;0.3052;
1362.6000;0.1498;0.3124;
1362.9000;0.1498;0.3100;
1363.2000;0.1514;0.3124;
1363.5000;0.1514;0.3100;
1363.8000;0.1506;0.3100;
1364.1000;0.1473;0.2981;
1364.4000;0.1506;0.3052;
1364.7000;0.1506;0.3028;
1365.0000;0.1498;0.3076;
1365.3000;0.1481;0.2885;
1365.6000;0.1530;0.2933;
1365.9000;0.1481;0.2838;
1366.2000;0.1490;0.2814;
1366.5000;0.1506;0.2885;
1366.8000;0.1506;0.2909;
1367.1000;0.1522;0.2957;
1367.4000;0.1522;0.2909;
1367.7000;0.1547;0.2861;
1368.0000;0.1506;0.2838;
1368.3000;0.1498;0.2766;
1368.6000;0.1555;0.2909;
1368.9000;0.1514;0.2790;
1369.2000;0.1522;0.2909;
1369.5000;0.1498;0.2933;
1369.8000;0.1522;0.3076;
1370.1000;0.1522;0.3171;
1370.4000;0.1498;0.3148;
1370.7000;0.1506;0.3148;
1371.0000;0.1514;0.3124;
1371.3000;0.1522;0.3148;
1371.6000;0.1465;0.2981;
1371.9000;0.1506;0.3005;
1372.2000;0.1490;0.2909;
1372.5000;0.1522;0.3005;
1372.8000;0.1506;0.2909;
1373.1000;0.1522;0.3028;
1373.4000;0.1506;0.3052;
1373.7000;0.1506;0.3052;
1374.0000;0.1506;0.3076;
1374.3000;0.1481;0.3100;
1374.6000;0.1506;0.3100;
1374.9000;0.1506;0.3171;
1375.2000;0.1514;0.3195;
1375.5000;0.1571;0.3219;
1375.8000;0.1490;0.2981;
1376.1000;0.1522;0.2981;
1376.4000;0.1514;0.2933;
1376.7000;0.1506;0.2838;
1377.0000;0.1473;0.2766;
1377.3000;0.1514;0.3005;
1377.6000;0.1530;0.3076;
1377.9000;0.1514;0.3028;
1378.2000;0.1490;0.3028;
1378.5000;0.1498;0.3028;
1378.8000;0.1522;0.3195;
1379.1000;0.1481;0.3052;
1379.4000;0.1530;0.3076;
1379.7000;0.1498;0.2981;
1380.0000;0.1498;0.3052;
1380.3000;0.1498;0.3148;
1380.6000;0.1555;0.3291;
1380.9000;0.1416;0.2885;
1381.2000;0.1490;0.3100;
1381.5000;0.1498;0.3052;
1381.8000;0.1514;0.3124;
1382.1000;0.1490;0.3052;
1382.4000;0.1498;0.3028;
1382.7000;0.1481;0.2957;
1383.0000;0.1514;0.3028;
1383.3000;0.1498;0.2957;
1383.6000;0.1514;0.3005;
1383.9000;0.1514;0.3100;
1384.2000;0.1506;0.3124;
1384.5000;0.1498;0.3052;
1384.8000;0.1498;0.3076;
1385.1000;0.1490;0.3028;
1385.4000;0.1514;0.3076;
1385.7000;0.1498;0.3028;
1386.0000;0.1514;0.3028;
1386.3000;0.1498;0.2933;
1386.6000;0.1514;0.2885;
1386.9000;0.1498;0.2861;
1387.2000;0.1498;0.2861;
1387.5000;0.1555;0.2981;
1387.8000;0.1522;0.2933;
1388.1000;0.1530;0.2957;
1388.4000;0.1473;0.2885;
1388.7000;0.1498;0.2885;
1389.0000;0.1498;0.2933;
1389.3000;0.1522;0.3052;
1389.6000;0.1506;0.3148;
1389.9000;0.1506;0.3124;
1390.2000;0.1522;0.3124;
1390.5000;0.1514;0.3124;
1390.8000;0.1514;0.3148;
1391.1000;0.1514;0.3195;
1391.4000;0.1514;0.3124;
1391.7000;0.1555;0.3219;
1392.0000;0.1514;0.3052;
1392.3000;0.1498;0.3076;
1392.6000;0.1490;0.2981;
1392.9000;0.1547;0.3100;
1393.2000;0.1530;0.3148;
1393.5000;0.1530;0.3124;
1393.8000;0.1522;0.3124;
1394.1000;0.1555;0.3148;
1394.4000;0.1522;0.3124;
1394.7000;0.1457;0.3028;
1395.0000;0.1481;0.3076;
1395.3000;0.1498;0.3028;
1395.6000;0.1522;0.3100;
1395.9000;0.1514;0.3052;
1396.2000;0.1563;0.3243;
1396.5000;0.1498;0.3100;
1396.8000;0.1498;0.3100;
1397.1000;0.1490;0.3076;
1397.4000;0.1498;0.3076;
1397.7000;0.1490;0.3171;
1398.0000;0.1498;0.3243;
1398.3000;0.1514;0.3267;
1398.6000;0.1530;0.3219;
1398.9000;0.1522;0.3124;
1399.2000;0.1514;0.3076;
1399.5000;0.1449;0.2909;
1399.8000;0.1514;0.3171;
