time/ms;Fluo/V;P700 deltaI/I x10³;
-199.8000;0.1547;0.2981;
-199.5000;0.1547;0.3005;
-199.2000;0.1571;0.2981;
-198.9000;0.1563;0.2981;
-198.6000;0.1563;0.3005;
-198.3000;0.1547;0.2981;
-198.0000;0.1563;0.2981;
-197.7000;0.1555;0.2885;
-197.4000;0.1555;0.2861;
-197.1000;0.1563;0.2909;
-196.8000;0.1547;0.2933;
-196.5000;0.1555;0.2838;
-196.2000;0.1555;0.2838;
-195.9000;0.1547;0.2861;
-195.6000;0.1563;0.2933;
-195.3000;0.1522;0.2838;
-195.0000;0.1579;0.2838;
-194.7000;0.1547;0.2742;
-194.4000;0.1538;0.2718;
-194.1000;0.1579;0.2814;
-193.8000;0.1555;0.2790;
-193.5000;0.1538;0.2695;
-193.2000;0.1571;0.2790;
-192.9000;0.1522;0.2623;
-192.6000;0.1538;0.2742;
-192.3000;0.1555;0.2861;
-192.0000;0.1563;0.2885;
-191.7000;0.1571;0.2885;
-191.4000;0.1547;0.2838;
-191.1000;0.1571;0.2790;
-190.8000;0.1555;0.2838;
-190.5000;0.1555;0.2838;
-190.2000;0.1563;0.2790;
-189.9000;0.1563;0.2814;
-189.6000;0.1555;0.2814;
-189.3000;0.1555;0.2790;
-189.0000;0.1547;0.2838;
-188.7000;0.1547;0.2933;
-188.4000;0.1563;0.2909;
-188.1000;0.1563;0.2814;
-187.8000;0.1522;0.2671;
-187.5000;0.1555;0.2790;
-187.2000;0.1563;0.2814;
-186.9000;0.1538;0.2742;
-186.6000;0.1555;0.2766;
-186.3000;0.1538;0.2742;
-186.0000;0.1563;0.2885;
-185.7000;0.1563;0.2933;
-185.4000;0.1661;0.3219;
-185.1000;0.1547;0.2861;
-184.8000;0.1604;0.3028;
-184.5000;0.1555;0.2885;
-184.2000;0.1555;0.2838;
-183.9000;0.1538;0.2814;
-183.6000;0.1555;0.2909;
-183.3000;0.1547;0.2909;
-183.0000;0.1547;0.2909;
-182.7000;0.1530;0.2838;
-182.4000;0.1530;0.2814;
-182.1000;0.1538;0.2909;
-181.8000;0.1563;0.2957;
-181.5000;0.1563;0.2909;
-181.2000;0.1579;0.2933;
-180.9000;0.1555;0.2885;
-180.6000;0.1587;0.2957;
-180.3000;0.1547;0.2909;
-180.0000;0.1563;0.2885;
-179.7000;0.1571;0.2885;
-179.4000;0.1547;0.2838;
-179.1000;0.1547;0.2861;
-178.8000;0.1547;0.2957;
-178.5000;0.1547;0.2957;
-178.2000;0.1555;0.2981;
-177.9000;0.1555;0.3052;
-177.6000;0.1538;0.3052;
-177.3000;0.1538;0.3052;
-177.0000;0.1563;0.3005;
-176.7000;0.1538;0.3028;
-176.4000;0.1530;0.3028;
-176.1000;0.1604;0.3076;
-175.8000;0.1555;0.2957;
-175.5000;0.1547;0.2909;
-175.2000;0.1595;0.3076;
-174.9000;0.1547;0.2933;
-174.6000;0.1579;0.3028;
-174.3000;0.1555;0.2861;
-174.0000;0.1547;0.2885;
-173.7000;0.1522;0.2838;
-173.4000;0.1547;0.2933;
-173.1000;0.1555;0.3005;
-172.8000;0.1538;0.2933;
-172.5000;0.1449;0.2718;
-172.2000;0.1514;0.2957;
-171.9000;0.1547;0.3005;
-171.6000;0.1595;0.3148;
-171.3000;0.1490;0.2933;
-171.0000;0.1538;0.3076;
-170.7000;0.1571;0.3028;
-170.4000;0.1547;0.2957;
-170.1000;0.1636;0.3171;
-169.8000;0.1555;0.3052;
-169.5000;0.1571;0.3052;
-169.2000;0.1547;0.3052;
-168.9000;0.1579;0.3005;
-168.6000;0.1555;0.2981;
-168.3000;0.1563;0.3076;
-168.0000;0.1644;0.3338;
-167.7000;0.1547;0.3100;
-167.4000;0.1547;0.3100;
-167.1000;0.1530;0.3028;
-166.8000;0.1579;0.3100;
-166.5000;0.1620;0.3243;
-166.2000;0.1522;0.3028;
-165.9000;0.1636;0.3314;
-165.6000;0.1571;0.3124;
-165.3000;0.1547;0.3052;
-165.0000;0.1579;0.3124;
-164.7000;0.1604;0.3195;
-164.4000;0.1571;0.3124;
-164.1000;0.1547;0.3052;
-163.8000;0.1563;0.3052;
-163.5000;0.1547;0.3076;
-163.2000;0.1538;0.3052;
-162.9000;0.1579;0.3028;
-162.6000;0.1514;0.2885;
-162.3000;0.1530;0.3052;
-162.0000;0.1571;0.3148;
-161.7000;0.1571;0.3148;
-161.4000;0.1563;0.3100;
-161.1000;0.1555;0.3124;
-160.8000;0.1555;0.3005;
-160.5000;0.1555;0.3005;
-160.2000;0.1579;0.3005;
-159.9000;0.1563;0.2933;
-159.6000;0.1538;0.2909;
-159.3000;0.1538;0.3005;
-159.0000;0.1555;0.3124;
-158.7000;0.1563;0.3100;
-158.4000;0.1555;0.3052;
-158.1000;0.1514;0.2885;
-157.8000;0.1563;0.2933;
-157.5000;0.1555;0.3005;
-157.2000;0.1538;0.2861;
-156.9000;0.1514;0.2814;
-156.6000;0.1571;0.3052;
-156.3000;0.1571;0.3028;
-156.0000;0.1563;0.3028;
-155.7000;0.1547;0.3028;
-155.4000;0.1563;0.3028;
-155.1000;0.1538;0.2933;
-154.8000;0.1538;0.2957;
-154.5000;0.1547;0.2885;
-154.2000;0.1522;0.2647;
-153.9000;0.1685;0.3124;
-153.6000;0.1563;0.2909;
-153.3000;0.1547;0.2814;
-153.0000;0.1555;0.2861;
-152.7000;0.1571;0.2909;
-152.4000;0.1538;0.2885;
-152.1000;0.1522;0.2766;
-151.8000;0.1547;0.2814;
-151.5000;0.1538;0.2790;
-151.2000;0.1547;0.2957;
-150.9000;0.1538;0.2981;
-150.6000;0.1522;0.2933;
-150.3000;0.1563;0.2981;
-150.0000;0.1612;0.3100;
-149.7000;0.1563;0.2981;
-149.4000;0.1522;0.2933;
-149.1000;0.1555;0.3005;
-148.8000;0.1490;0.2790;
-148.5000;0.1604;0.3052;
-148.2000;0.1555;0.2885;
-147.9000;0.1538;0.2909;
-147.6000;0.1547;0.2981;
-147.3000;0.1571;0.3028;
-147.0000;0.1571;0.3100;
-146.7000;0.1538;0.3028;
-146.4000;0.1571;0.3148;
-146.1000;0.1587;0.3124;
-145.8000;0.1563;0.3100;
-145.5000;0.1563;0.3076;
-145.2000;0.1530;0.2957;
-144.9000;0.1538;0.2933;
-144.6000;0.1563;0.2957;
-144.3000;0.1547;0.2957;
-144.0000;0.1547;0.2909;
-143.7000;0.1555;0.2838;
-143.4000;0.1571;0.2909;
-143.1000;0.1563;0.2933;
-142.8000;0.1547;0.2861;
-142.5000;0.1579;0.2790;
-142.2000;0.1530;0.2766;
-141.9000;0.1555;0.2909;
-141.6000;0.1530;0.2838;
-141.3000;0.1563;0.2957;
-141.0000;0.1555;0.2909;
-140.7000;0.1563;0.2861;
-140.4000;0.1425;0.2432;
-140.1000;0.1465;0.2551;
-139.8000;0.1547;0.2790;
-139.5000;0.1547;0.2766;
-139.2000;0.1563;0.2718;
-138.9000;0.1490;0.2623;
-138.6000;0.1522;0.2718;
-138.3000;0.1644;0.2981;
-138.0000;0.1571;0.2814;
-137.7000;0.1530;0.2838;
-137.4000;0.1571;0.2885;
-137.1000;0.1563;0.2885;
-136.8000;0.1571;0.2933;
-136.5000;0.1547;0.2838;
-136.2000;0.1571;0.2814;
-135.9000;0.1563;0.2814;
-135.6000;0.1563;0.2861;
-135.3000;0.1555;0.2909;
-135.0000;0.1628;0.3100;
-134.7000;0.1555;0.2909;
-134.4000;0.1555;0.2909;
-134.1000;0.1563;0.2861;
-133.8000;0.1538;0.2861;
-133.5000;0.1555;0.2957;
-133.2000;0.1547;0.2981;
-132.9000;0.1571;0.3005;
-132.6000;0.1538;0.2981;
-132.3000;0.1563;0.3124;
-132.0000;0.1530;0.3005;
-131.7000;0.1555;0.3005;
-131.4000;0.1587;0.3005;
-131.1000;0.1604;0.3243;
-130.8000;0.1571;0.3195;
-130.5000;0.1555;0.3195;
-130.2000;0.1587;0.3314;
-129.9000;0.1587;0.3386;
-129.6000;0.1555;0.3291;
-129.3000;0.1481;0.3005;
-129.0000;0.1522;0.3076;
-128.7000;0.1555;0.3171;
-128.4000;0.1498;0.2981;
-128.1000;0.1563;0.3171;
-127.8000;0.1571;0.3148;
-127.5000;0.1416;0.2695;
-127.2000;0.1563;0.2957;
-126.9000;0.1563;0.2981;
-126.6000;0.1555;0.3028;
-126.3000;0.1547;0.2981;
-126.0000;0.1538;0.2957;
-125.7000;0.1538;0.3005;
-125.4000;0.1636;0.3314;
-125.1000;0.1701;0.3529;
-124.8000;0.1547;0.3195;
-124.5000;0.1555;0.3171;
-124.2000;0.1579;0.3243;
-123.9000;0.1563;0.3219;
-123.6000;0.1538;0.3195;
-123.3000;0.1538;0.3124;
-123.0000;0.1555;0.3171;
-122.7000;0.1563;0.3243;
-122.4000;0.1563;0.3243;
-122.1000;0.1555;0.3195;
-121.8000;0.1571;0.3243;
-121.5000;0.1563;0.3100;
-121.2000;0.1555;0.3028;
-120.9000;0.1571;0.3148;
-120.6000;0.1538;0.3028;
-120.3000;0.1563;0.3100;
-120.0000;0.1579;0.3124;
-119.7000;0.1555;0.3076;
-119.4000;0.1530;0.3076;
-119.1000;0.1563;0.3076;
-118.8000;0.1555;0.3100;
-118.5000;0.1522;0.3028;
-118.2000;0.1473;0.2814;
-117.9000;0.1555;0.2909;
-117.6000;0.1587;0.3028;
-117.3000;0.1457;0.2718;
-117.0000;0.1538;0.2981;
-116.7000;0.1571;0.3100;
-116.4000;0.1547;0.3100;
-116.1000;0.1571;0.3052;
-115.8000;0.1555;0.2981;
-115.5000;0.1547;0.3005;
-115.2000;0.1555;0.3052;
-114.9000;0.1547;0.3100;
-114.6000;0.1416;0.2790;
-114.3000;0.1547;0.3028;
-114.0000;0.1563;0.2981;
-113.7000;0.1481;0.2790;
-113.4000;0.1522;0.2981;
-113.1000;0.1555;0.3100;
-112.8000;0.1538;0.3100;
-112.5000;0.1579;0.3148;
-112.2000;0.1563;0.3124;
-111.9000;0.1506;0.2909;
-111.6000;0.1547;0.3028;
-111.3000;0.1547;0.3052;
-111.0000;0.1473;0.2885;
-110.7000;0.1538;0.3076;
-110.4000;0.1563;0.3100;
-110.1000;0.1555;0.3100;
-109.8000;0.1571;0.3148;
-109.5000;0.1555;0.3148;
-109.2000;0.1555;0.3076;
-108.9000;0.1555;0.3052;
-108.6000;0.1571;0.3195;
-108.3000;0.1563;0.3171;
-108.0000;0.1522;0.3052;
-107.7000;0.1571;0.3124;
-107.4000;0.1538;0.3100;
-107.1000;0.1555;0.3148;
-106.8000;0.1473;0.2885;
-106.5000;0.1555;0.3124;
-106.2000;0.1530;0.3148;
-105.9000;0.1473;0.2933;
-105.6000;0.1595;0.3219;
-105.3000;0.1555;0.3076;
-105.0000;0.1563;0.3052;
-104.7000;0.1555;0.3076;
-104.4000;0.1563;0.3076;
-104.1000;0.1547;0.3100;
-103.8000;0.1571;0.3195;
-103.5000;0.1571;0.3267;
-103.2000;0.1547;0.3171;
-102.9000;0.1555;0.3243;
-102.6000;0.1555;0.3267;
-102.3000;0.1636;0.3362;
-102.0000;0.1522;0.3005;
-101.7000;0.1555;0.2981;
-101.4000;0.1563;0.2933;
-101.1000;0.1530;0.2933;
-100.8000;0.1530;0.2933;
-100.5000;0.1563;0.3028;
-100.2000;0.1538;0.2933;
-99.9000;0.1563;0.3052;
-99.6000;0.1571;0.3005;
-99.3000;0.1563;0.3028;
-99.0000;0.1644;0.3243;
-98.7000;0.1555;0.2957;
-98.4000;0.1563;0.2957;
-98.1000;0.1563;0.2933;
-97.8000;0.1571;0.2981;
-97.5000;0.1555;0.2933;
-97.2000;0.1530;0.2885;
-96.9000;0.1538;0.2933;
-96.6000;0.1547;0.2885;
-96.3000;0.1547;0.2933;
-96.0000;0.1538;0.2885;
-95.7000;0.1555;0.2909;
-95.4000;0.1563;0.3005;
-95.1000;0.1555;0.2957;
-94.8000;0.1555;0.3052;
-94.5000;0.1538;0.2957;
-94.2000;0.1595;0.3052;
-93.9000;0.1538;0.2909;
-93.6000;0.1587;0.3076;
-93.3000;0.1571;0.3028;
-93.0000;0.1644;0.3243;
-92.7000;0.1555;0.3005;
-92.4000;0.1555;0.3076;
-92.1000;0.1555;0.3124;
-91.8000;0.1538;0.3100;
-91.5000;0.1571;0.3171;
-91.2000;0.1538;0.3148;
-90.9000;0.1547;0.2981;
-90.6000;0.1514;0.2933;
-90.3000;0.1538;0.2981;
-90.0000;0.1563;0.3028;
-89.7000;0.1547;0.3076;
-89.4000;0.1530;0.3100;
-89.1000;0.1547;0.3124;
-88.8000;0.1555;0.3076;
-88.5000;0.1571;0.3124;
-88.2000;0.1547;0.3028;
-87.9000;0.1538;0.3005;
-87.6000;0.1579;0.3100;
-87.3000;0.1547;0.2957;
-87.0000;0.1579;0.3076;
-86.7000;0.1579;0.3100;
-86.4000;0.1538;0.2957;
-86.1000;0.1555;0.3052;
-85.8000;0.1555;0.3052;
-85.5000;0.1571;0.3028;
-85.2000;0.1563;0.3028;
-84.9000;0.1538;0.2981;
-84.6000;0.1579;0.3171;
-84.3000;0.1555;0.3124;
-84.0000;0.1547;0.3124;
-83.7000;0.1506;0.2981;
-83.4000;0.1555;0.2957;
-83.1000;0.1538;0.2861;
-82.8000;0.1563;0.2861;
-82.5000;0.1506;0.2671;
-82.2000;0.1604;0.2957;
-81.9000;0.1612;0.3100;
-81.6000;0.1571;0.2981;
-81.3000;0.1571;0.2933;
-81.0000;0.1563;0.2861;
-80.7000;0.1579;0.2981;
-80.4000;0.1514;0.2814;
-80.1000;0.1555;0.2957;
-79.8000;0.1538;0.3005;
-79.5000;0.1530;0.3076;
-79.2000;0.1522;0.3028;
-78.9000;0.1547;0.3076;
-78.6000;0.1538;0.3052;
-78.3000;0.1465;0.2861;
-78.0000;0.1547;0.3124;
-77.7000;0.1563;0.3076;
-77.4000;0.1547;0.3124;
-77.1000;0.1555;0.3171;
-76.8000;0.1506;0.3005;
-76.5000;0.1425;0.2814;
-76.2000;0.1555;0.3100;
-75.9000;0.1571;0.3076;
-75.6000;0.1563;0.3005;
-75.3000;0.1538;0.2957;
-75.0000;0.1563;0.3100;
-74.7000;0.1555;0.3052;
-74.4000;0.1547;0.2957;
-74.1000;0.1571;0.2957;
-73.8000;0.1571;0.3028;
-73.5000;0.1555;0.2957;
-73.2000;0.1563;0.3005;
-72.9000;0.1538;0.2957;
-72.6000;0.1538;0.2838;
-72.3000;0.1563;0.2861;
-72.0000;0.1563;0.2861;
-71.7000;0.1595;0.2909;
-71.4000;0.1604;0.2957;
-71.1000;0.1555;0.2885;
-70.8000;0.1571;0.3028;
-70.5000;0.1530;0.2981;
-70.2000;0.1547;0.3028;
-69.9000;0.1522;0.3005;
-69.6000;0.1571;0.3195;
-69.3000;0.1571;0.3195;
-69.0000;0.1563;0.3195;
-68.7000;0.1547;0.3219;
-68.4000;0.1547;0.3171;
-68.1000;0.1563;0.3219;
-67.8000;0.1538;0.3171;
-67.5000;0.1612;0.3338;
-67.2000;0.1563;0.3267;
-66.9000;0.1547;0.3243;
-66.6000;0.1530;0.3148;
-66.3000;0.1538;0.3148;
-66.0000;0.1579;0.3171;
-65.7000;0.1538;0.3076;
-65.4000;0.1538;0.3100;
-65.1000;0.1555;0.3124;
-64.8000;0.1563;0.3100;
-64.5000;0.1563;0.3100;
-64.2000;0.1555;0.3076;
-63.9000;0.1555;0.3171;
-63.6000;0.1555;0.3124;
-63.3000;0.1563;0.3052;
-63.0000;0.1538;0.2957;
-62.7000;0.1538;0.2981;
-62.4000;0.1555;0.3124;
-62.1000;0.1506;0.2885;
-61.8000;0.1563;0.3124;
-61.5000;0.1538;0.3052;
-61.2000;0.1530;0.3028;
-60.9000;0.1538;0.3028;
-60.6000;0.1563;0.3100;
-60.3000;0.1538;0.3076;
-60.0000;0.1579;0.3219;
-59.7000;0.1530;0.3100;
-59.4000;0.1506;0.2909;
-59.1000;0.1522;0.2981;
-58.8000;0.1538;0.3076;
-58.5000;0.1538;0.3052;
-58.2000;0.1547;0.3052;
-57.9000;0.1579;0.3076;
-57.6000;0.1547;0.3028;
-57.3000;0.1563;0.3028;
-57.0000;0.1587;0.3076;
-56.7000;0.1547;0.3052;
-56.4000;0.1555;0.3005;
-56.1000;0.1538;0.2981;
-55.8000;0.1555;0.3005;
-55.5000;0.1538;0.2981;
-55.2000;0.1628;0.3338;
-54.9000;0.1563;0.3124;
-54.6000;0.1571;0.3124;
-54.3000;0.1498;0.2933;
-54.0000;0.1563;0.3100;
-53.7000;0.1547;0.2981;
-53.4000;0.1555;0.2981;
-53.1000;0.1506;0.2814;
-52.8000;0.1530;0.2933;
-52.5000;0.1547;0.3005;
-52.2000;0.1547;0.2957;
-51.9000;0.1579;0.3028;
-51.6000;0.1563;0.3052;
-51.3000;0.1547;0.3100;
-51.0000;0.1555;0.3028;
-50.7000;0.1547;0.3028;
-50.4000;0.1555;0.3052;
-50.1000;0.1563;0.3076;
-49.8000;0.1530;0.3005;
-49.5000;0.1555;0.3028;
-49.2000;0.1538;0.2933;
-48.9000;0.1563;0.2885;
-48.6000;0.1563;0.2909;
-48.3000;0.1555;0.2981;
-48.0000;0.1587;0.3028;
-47.7000;0.1563;0.2981;
-47.4000;0.1555;0.3100;
-47.1000;0.1563;0.3100;
-46.8000;0.1555;0.3100;
-46.5000;0.1530;0.3148;
-46.2000;0.1522;0.3124;
-45.9000;0.1514;0.3076;
-45.6000;0.1530;0.3052;
-45.3000;0.1555;0.3100;
-45.0000;0.1555;0.3076;
-44.7000;0.1530;0.3028;
-44.4000;0.1604;0.3195;
-44.1000;0.1612;0.3243;
-43.8000;0.1547;0.3076;
-43.5000;0.1604;0.3148;
-43.2000;0.1530;0.3052;
-42.9000;0.1530;0.3028;
-42.6000;0.1547;0.3171;
-42.3000;0.1547;0.3148;
-42.0000;0.1506;0.3148;
-41.7000;0.1547;0.3195;
-41.4000;0.1555;0.3100;
-41.1000;0.1587;0.3100;
-40.8000;0.1547;0.3028;
-40.5000;0.1555;0.3195;
-40.2000;0.1547;0.3171;
-39.9000;0.1547;0.3100;
-39.6000;0.1571;0.3171;
-39.3000;0.1555;0.3124;
-39.0000;0.1555;0.3052;
-38.7000;0.1555;0.3100;
-38.4000;0.1555;0.3028;
-38.1000;0.1547;0.2981;
-37.8000;0.1547;0.3005;
-37.5000;0.1587;0.3100;
-37.2000;0.1530;0.3052;
-36.9000;0.1522;0.3148;
-36.6000;0.1498;0.2957;
-36.3000;0.1555;0.3052;
-36.0000;0.1563;0.3028;
-35.7000;0.1555;0.3005;
-35.4000;0.1522;0.2909;
-35.1000;0.1563;0.3076;
-34.8000;0.1465;0.2838;
-34.5000;0.1563;0.3052;
-34.2000;0.1563;0.3052;
-33.9000;0.1547;0.2981;
-33.6000;0.1408;0.2695;
-33.3000;0.1481;0.2933;
-33.0000;0.1530;0.3028;
-32.7000;0.1563;0.3100;
-32.4000;0.1571;0.3076;
-32.1000;0.1530;0.2933;
-31.8000;0.1538;0.3052;
-31.5000;0.1579;0.3076;
-31.2000;0.1547;0.2957;
-30.9000;0.1563;0.2981;
-30.6000;0.1530;0.2861;
-30.3000;0.1563;0.2981;
-30.0000;0.1555;0.3005;
-29.7000;0.1563;0.3005;
-29.4000;0.1506;0.2933;
-29.1000;0.1563;0.3124;
-28.8000;0.1547;0.3076;
-28.5000;0.1579;0.3171;
-28.2000;0.1563;0.3124;
-27.9000;0.1555;0.3076;
-27.6000;0.1547;0.3100;
-27.3000;0.1563;0.3076;
-27.0000;0.1563;0.2981;
-26.7000;0.1547;0.2909;
-26.4000;0.1563;0.2981;
-26.1000;0.1530;0.2933;
-25.8000;0.1530;0.3076;
-25.5000;0.1563;0.3195;
-25.2000;0.1563;0.3195;
-24.9000;0.1563;0.3195;
-24.6000;0.1571;0.3243;
-24.3000;0.1433;0.2861;
-24.0000;0.1514;0.3100;
-23.7000;0.1473;0.2909;
-23.4000;0.1571;0.3100;
-23.1000;0.1490;0.2885;
-22.8000;0.1538;0.3005;
-22.5000;0.1620;0.3171;
-22.2000;0.1636;0.3267;
-21.9000;0.1555;0.3076;
-21.6000;0.1530;0.3005;
-21.3000;0.1595;0.3148;
-21.0000;0.1571;0.3100;
-20.7000;0.1571;0.3076;
-20.4000;0.1506;0.2861;
-20.1000;0.1547;0.2933;
-19.8000;0.1547;0.2885;
-19.5000;0.1498;0.2766;
-19.2000;0.1547;0.2933;
-18.9000;0.1538;0.2909;
-18.6000;0.1530;0.2838;
-18.3000;0.1547;0.2861;
-18.0000;0.1538;0.2814;
-17.7000;0.1530;0.2766;
-17.4000;0.1530;0.2814;
-17.1000;0.1555;0.2838;
-16.8000;0.1547;0.2838;
-16.5000;0.1563;0.2933;
-16.2000;0.1563;0.2981;
-15.9000;0.1555;0.2957;
-15.6000;0.1563;0.2981;
-15.3000;0.1563;0.3028;
-15.0000;0.1579;0.3005;
-14.7000;0.1457;0.2766;
-14.4000;0.1522;0.2957;
-14.1000;0.1563;0.3028;
-13.8000;0.1473;0.2790;
-13.5000;0.1547;0.3052;
-13.2000;0.1555;0.3100;
-12.9000;0.1473;0.2790;
-12.6000;0.1636;0.3148;
-12.3000;0.1538;0.2838;
-12.0000;0.1547;0.2814;
-11.7000;0.1457;0.2623;
-11.4000;0.1595;0.2957;
-11.1000;0.1563;0.2790;
-10.8000;0.1498;0.2671;
-10.5000;0.1555;0.2790;
-10.2000;0.1555;0.2885;
-9.9000;0.1498;0.2718;
-9.6000;0.1555;0.2838;
-9.3000;0.1547;0.2814;
-9.0000;0.1547;0.2814;
-8.7000;0.1547;0.2838;
-8.4000;0.1538;0.2790;
-8.1000;0.1538;0.2838;
-7.8000;0.1457;0.2718;
-7.5000;0.1538;0.2957;
-7.2000;0.1522;0.2885;
-6.9000;0.1538;0.2909;
-6.6000;0.1563;0.3076;
-6.3000;0.1571;0.3100;
-6.0000;0.1555;0.3005;
-5.7000;0.1555;0.3076;
-5.4000;0.1530;0.2981;
-5.1000;0.1555;0.3100;
-4.8000;0.1538;0.3052;
-4.5000;0.1555;0.3005;
-4.2000;0.1571;0.3148;
-3.9000;0.1555;0.3100;
-3.6000;0.1563;0.3052;
-3.3000;0.1579;0.3076;
-3.0000;0.1530;0.2933;
-2.7000;0.1555;0.2981;
-2.4000;0.1530;0.2933;
-2.1000;0.1555;0.2957;
-1.8000;0.1538;0.2838;
-1.5000;0.1547;0.2838;
-1.2000;0.1530;0.2790;
-0.9000;0.1555;0.2957;
-0.6000;0.1547;0.2981;
-0.3000;0.1563;0.3076;
0.0000;0.1563;0.3076;
0.3000;0.1555;0.2909;
0.6000;0.1563;0.2957;
0.9000;0.1563;0.3148;
1.2000;0.1547;0.3219;
1.5000;0.1571;0.3314;
1.8000;0.1677;0.3624;
2.1000;0.1693;0.3720;
2.4000;0.1457;0.3100;
2.7000;0.1579;0.3434;
3.0000;0.1595;0.3529;
3.3000;0.1579;0.3577;
3.6000;0.1661;0.3768;
3.9000;0.1547;0.3529;
4.2000;0.1587;0.3648;
4.5000;0.1636;0.3839;
4.8000;0.1628;0.3815;
5.1000;0.1604;0.3791;
5.4000;0.1579;0.3768;
5.7000;0.1612;0.3958;
6.0000;0.1587;0.3911;
6.3000;0.1636;0.4006;
6.6000;0.1620;0.3934;
6.9000;0.1604;0.3958;
7.2000;0.1579;0.3958;
7.5000;0.1604;0.3911;
7.8000;0.1571;0.3815;
8.1000;0.1579;0.3887;
8.4000;0.1571;0.3934;
8.7000;0.1571;0.4030;
9.0000;0.1587;0.4030;
9.3000;0.1620;0.4149;
9.6000;0.1563;0.4078;
9.9000;0.1595;0.4197;
10.2000;0.1604;0.4221;
10.5000;0.1620;0.4244;
10.8000;0.1604;0.4173;
11.1000;0.1579;0.4149;
11.4000;0.1595;0.4173;
11.7000;0.1587;0.4101;
12.0000;0.1595;0.4149;
12.3000;0.1677;0.4268;
12.6000;0.1595;0.4101;
12.9000;0.1604;0.4149;
13.2000;0.1652;0.4149;
13.5000;0.1587;0.3958;
13.8000;0.1547;0.3839;
14.1000;0.1579;0.4006;
14.4000;0.1612;0.4149;
14.7000;0.1579;0.4101;
15.0000;0.1579;0.4149;
15.3000;0.1628;0.4221;
15.6000;0.1595;0.4125;
15.9000;0.1587;0.4054;
16.2000;0.1530;0.3887;
16.5000;0.1579;0.3982;
16.8000;0.1604;0.3982;
17.1000;0.1628;0.4149;
17.4000;0.1612;0.4078;
17.7000;0.1571;0.4030;
18.0000;0.1595;0.4101;
18.3000;0.1587;0.4078;
18.6000;0.1669;0.4388;
18.9000;0.1612;0.4101;
19.2000;0.1587;0.3982;
19.5000;0.1595;0.3863;
19.8000;0.1587;0.3863;
20.1000;0.1595;0.3911;
20.4000;0.1604;0.3958;
20.7000;0.1579;0.4006;
21.0000;0.1587;0.3982;
21.3000;0.1571;0.3958;
21.6000;0.1555;0.3934;
21.9000;0.1571;0.3911;
22.2000;0.1579;0.3911;
22.5000;0.1563;0.3982;
22.8000;0.1612;0.4054;
23.1000;0.1612;0.4030;
23.4000;0.1612;0.4101;
23.7000;0.1579;0.4101;
24.0000;0.1612;0.4173;
24.3000;0.1595;0.4173;
24.6000;0.1595;0.4173;
24.9000;0.1587;0.4173;
25.2000;0.1579;0.4101;
25.5000;0.1579;0.4149;
25.8000;0.1604;0.4197;
26.1000;0.1620;0.4221;
26.4000;0.1579;0.4054;
26.7000;0.1604;0.4054;
27.0000;0.1604;0.4030;
27.3000;0.1628;0.4101;
27.6000;0.1587;0.4101;
27.9000;0.1579;0.4101;
28.2000;0.1587;0.4101;
28.5000;0.1604;0.4125;
28.8000;0.1571;0.4078;
29.1000;0.1579;0.3958;
29.4000;0.1612;0.4030;
29.7000;0.1579;0.4006;
30.0000;0.1604;0.4125;
30.3000;0.1563;0.3934;
30.6000;0.1579;0.4030;
30.9000;0.1595;0.4125;
31.2000;0.1628;0.4197;
31.5000;0.1652;0.4316;
31.8000;0.1636;0.4221;
32.1000;0.1579;0.4173;
32.4000;0.1595;0.4149;
32.7000;0.1612;0.4173;
33.0000;0.1587;0.4221;
33.3000;0.1579;0.4149;
33.6000;0.1571;0.4078;
33.9000;0.1595;0.4125;
34.2000;0.1579;0.4101;
34.5000;0.1547;0.4030;
34.8000;0.1604;0.4125;
35.1000;0.1587;0.4125;
35.4000;0.1587;0.4101;
35.7000;0.1604;0.4173;
36.0000;0.1522;0.3982;
36.3000;0.1595;0.4101;
36.6000;0.1595;0.4173;
36.9000;0.1636;0.4292;
37.2000;0.1498;0.3958;
37.5000;0.1506;0.4006;
37.8000;0.1563;0.4149;
38.1000;0.1604;0.4173;
38.4000;0.1612;0.4173;
38.7000;0.1612;0.4244;
39.0000;0.1652;0.4364;
39.3000;0.1604;0.4292;
39.6000;0.1652;0.4435;
39.9000;0.1595;0.4197;
40.2000;0.1587;0.4173;
40.5000;0.1563;0.4173;
40.8000;0.1595;0.4268;
41.1000;0.1612;0.4149;
41.4000;0.1587;0.4101;
41.7000;0.1587;0.4149;
42.0000;0.1579;0.4149;
42.3000;0.1595;0.4173;
42.6000;0.1612;0.4197;
42.9000;0.1579;0.4149;
43.2000;0.1612;0.4173;
43.5000;0.1579;0.4054;
43.8000;0.1612;0.4149;
44.1000;0.1612;0.4125;
44.4000;0.1620;0.4101;
44.7000;0.1595;0.4125;
45.0000;0.1604;0.4125;
45.3000;0.1571;0.4030;
45.6000;0.1604;0.4030;
45.9000;0.1595;0.3982;
46.2000;0.1571;0.3958;
46.5000;0.1595;0.4078;
46.8000;0.1579;0.4030;
47.1000;0.1587;0.4078;
47.4000;0.1579;0.4030;
47.7000;0.1604;0.4078;
48.0000;0.1612;0.4078;
48.3000;0.1579;0.4030;
48.6000;0.1620;0.4078;
48.9000;0.1579;0.3958;
49.2000;0.1604;0.4006;
49.5000;0.1612;0.4101;
49.8000;0.1579;0.4149;
50.1000;0.1620;0.4244;
50.4000;0.1587;0.4173;
50.7000;0.1433;0.3744;
51.0000;0.1595;0.4101;
51.3000;0.1644;0.4268;
51.6000;0.1604;0.4078;
51.9000;0.1595;0.4101;
52.2000;0.1587;0.4101;
52.5000;0.1628;0.4292;
52.8000;0.1579;0.4173;
53.1000;0.1595;0.4149;
53.4000;0.1604;0.4173;
53.7000;0.1587;0.4244;
54.0000;0.1587;0.4173;
54.3000;0.1604;0.4244;
54.6000;0.1579;0.4268;
54.9000;0.1620;0.4268;
55.2000;0.1628;0.4340;
55.5000;0.1612;0.4268;
55.8000;0.1604;0.4221;
56.1000;0.1571;0.4173;
56.4000;0.1587;0.4197;
56.7000;0.1587;0.4221;
57.0000;0.1595;0.4268;
57.3000;0.1587;0.4268;
57.6000;0.1587;0.4221;
57.9000;0.1587;0.4125;
58.2000;0.1587;0.4125;
58.5000;0.1587;0.4173;
58.8000;0.1587;0.4197;
59.1000;0.1604;0.4292;
59.4000;0.1530;0.4101;
59.7000;0.1587;0.4173;
60.0000;0.1604;0.4197;
60.3000;0.1612;0.4340;
60.6000;0.1636;0.4411;
60.9000;0.1579;0.4292;
61.2000;0.1595;0.4340;
61.5000;0.1579;0.4244;
61.8000;0.1604;0.4221;
62.1000;0.1620;0.4411;
62.4000;0.1538;0.4101;
62.7000;0.1595;0.4221;
63.0000;0.1587;0.4125;
63.3000;0.1595;0.4125;
63.6000;0.1587;0.4149;
63.9000;0.1628;0.4340;
64.2000;0.1587;0.4221;
64.5000;0.1587;0.4244;
64.8000;0.1709;0.4507;
65.1000;0.1726;0.4578;
65.4000;0.1587;0.4221;
65.7000;0.1595;0.4244;
66.0000;0.1579;0.4173;
66.3000;0.1595;0.4173;
66.6000;0.1579;0.4125;
66.9000;0.1612;0.4244;
67.2000;0.1595;0.4197;
67.5000;0.1579;0.4268;
67.8000;0.1579;0.4268;
68.1000;0.1595;0.4364;
68.4000;0.1612;0.4364;
68.7000;0.1595;0.4316;
69.0000;0.1595;0.4292;
69.3000;0.1620;0.4316;
69.6000;0.1587;0.4340;
69.9000;0.1693;0.4531;
70.2000;0.1587;0.4221;
70.5000;0.1604;0.4292;
70.8000;0.1620;0.4388;
71.1000;0.1612;0.4411;
71.4000;0.1604;0.4364;
71.7000;0.1571;0.4292;
72.0000;0.1579;0.4268;
72.3000;0.1579;0.4292;
72.6000;0.1571;0.4388;
72.9000;0.1579;0.4364;
73.2000;0.1571;0.4340;
73.5000;0.1587;0.4340;
73.8000;0.1587;0.4340;
74.1000;0.1612;0.4292;
74.4000;0.1571;0.4268;
74.7000;0.1587;0.4268;
75.0000;0.1571;0.4149;
75.3000;0.1587;0.4221;
75.6000;0.1579;0.4173;
75.9000;0.1604;0.4221;
76.2000;0.1595;0.4125;
76.5000;0.1604;0.4125;
76.8000;0.1604;0.4173;
77.1000;0.1587;0.4173;
77.4000;0.1587;0.4197;
77.7000;0.1563;0.4149;
78.0000;0.1595;0.4244;
78.3000;0.1587;0.4078;
78.6000;0.1587;0.4125;
78.9000;0.1636;0.4244;
79.2000;0.1595;0.4125;
79.5000;0.1587;0.4078;
79.8000;0.1620;0.4101;
80.1000;0.1514;0.3934;
80.4000;0.1563;0.4125;
80.7000;0.1587;0.4197;
81.0000;0.1595;0.4221;
81.3000;0.1530;0.4173;
81.6000;0.1604;0.4292;
81.9000;0.1595;0.4316;
82.2000;0.1490;0.3958;
82.5000;0.1636;0.4221;
82.8000;0.1579;0.4221;
83.1000;0.1587;0.4268;
83.4000;0.1571;0.4125;
83.7000;0.1579;0.4268;
84.0000;0.1604;0.4411;
84.3000;0.1579;0.4388;
84.6000;0.1522;0.4244;
84.9000;0.1563;0.4340;
85.2000;0.1595;0.4388;
85.5000;0.1644;0.4483;
85.8000;0.1604;0.4316;
86.1000;0.1498;0.4006;
86.4000;0.1579;0.4268;
86.7000;0.1514;0.3911;
87.0000;0.1587;0.4197;
87.3000;0.1587;0.4197;
87.6000;0.1595;0.4221;
87.9000;0.1604;0.4268;
88.2000;0.1604;0.4244;
88.5000;0.1587;0.4268;
88.8000;0.1579;0.4268;
89.1000;0.1579;0.4292;
89.4000;0.1595;0.4268;
89.7000;0.1604;0.4316;
90.0000;0.1587;0.4364;
90.3000;0.1579;0.4316;
90.6000;0.1595;0.4316;
90.9000;0.1644;0.4411;
91.2000;0.1595;0.4292;
91.5000;0.1587;0.4221;
91.8000;0.1620;0.4244;
92.1000;0.1563;0.4173;
92.4000;0.1595;0.4244;
92.7000;0.1579;0.4268;
93.0000;0.1595;0.4340;
93.3000;0.1595;0.4411;
93.6000;0.1595;0.4316;
93.9000;0.1587;0.4268;
94.2000;0.1579;0.4221;
94.5000;0.1595;0.4268;
94.8000;0.1563;0.4078;
95.1000;0.1555;0.4030;
95.4000;0.1587;0.4078;
95.7000;0.1595;0.4101;
96.0000;0.1571;0.4030;
96.3000;0.1587;0.4078;
96.6000;0.1604;0.4221;
96.9000;0.1579;0.4149;
97.2000;0.1595;0.4244;
97.5000;0.1587;0.4221;
97.8000;0.1595;0.4101;
98.1000;0.1604;0.4101;
98.4000;0.1595;0.4101;
98.7000;0.1587;0.4149;
99.0000;0.1587;0.4149;
99.3000;0.1587;0.4125;
99.6000;0.1587;0.4101;
99.9000;0.1571;0.4125;
100.2000;0.1571;0.4078;
100.5000;0.1571;0.4149;
100.8000;0.1587;0.4125;
101.1000;0.1579;0.3982;
101.4000;0.1579;0.3982;
101.7000;0.1506;0.3768;
102.0000;0.1604;0.3934;
102.3000;0.1571;0.3911;
102.6000;0.1587;0.3863;
102.9000;0.1595;0.3958;
103.2000;0.1595;0.4006;
103.5000;0.1571;0.3911;
103.8000;0.1595;0.3982;
104.1000;0.1522;0.3887;
104.4000;0.1579;0.4030;
104.7000;0.1612;0.4125;
105.0000;0.1604;0.4149;
105.3000;0.1620;0.4125;
105.6000;0.1612;0.4101;
105.9000;0.1563;0.3982;
106.2000;0.1547;0.3863;
106.5000;0.1595;0.4006;
106.8000;0.1604;0.3982;
107.1000;0.1620;0.4054;
107.4000;0.1595;0.4006;
107.7000;0.1538;0.3887;
108.0000;0.1530;0.3911;
108.3000;0.1587;0.4078;
108.6000;0.1587;0.4078;
108.9000;0.1604;0.4101;
109.2000;0.1579;0.4006;
109.5000;0.1644;0.4078;
109.8000;0.1595;0.3911;
110.1000;0.1571;0.3839;
110.4000;0.1595;0.3911;
110.7000;0.1595;0.3982;
111.0000;0.1481;0.3815;
111.3000;0.1595;0.4030;
111.6000;0.1538;0.3911;
111.9000;0.1587;0.4006;
112.2000;0.1538;0.3887;
112.5000;0.1587;0.4078;
112.8000;0.1587;0.4030;
113.1000;0.1595;0.4078;
113.4000;0.1595;0.4078;
113.7000;0.1571;0.4054;
114.0000;0.1595;0.4244;
114.3000;0.1595;0.4268;
114.6000;0.1579;0.4340;
114.9000;0.1571;0.4316;
115.2000;0.1587;0.4292;
115.5000;0.1571;0.4221;
115.8000;0.1563;0.4197;
116.1000;0.1563;0.4173;
116.4000;0.1628;0.4340;
116.7000;0.1587;0.4221;
117.0000;0.1579;0.4197;
117.3000;0.1571;0.4197;
117.6000;0.1604;0.4268;
117.9000;0.1571;0.4101;
118.2000;0.1604;0.4149;
118.5000;0.1620;0.4101;
118.8000;0.1595;0.3934;
119.1000;0.1595;0.3863;
119.4000;0.1669;0.4197;
119.7000;0.1595;0.4078;
120.0000;0.1604;0.4173;
120.3000;0.1595;0.4101;
120.6000;0.1587;0.4078;
120.9000;0.1579;0.4078;
121.2000;0.1587;0.4054;
121.5000;0.1604;0.4030;
121.8000;0.1579;0.3958;
122.1000;0.1587;0.3982;
122.4000;0.1587;0.4030;
122.7000;0.1604;0.4101;
123.0000;0.1571;0.4006;
123.3000;0.1579;0.4006;
123.6000;0.1579;0.3934;
123.9000;0.1604;0.4030;
124.2000;0.1595;0.4030;
124.5000;0.1595;0.3934;
124.8000;0.1587;0.3863;
125.1000;0.1579;0.3887;
125.4000;0.1579;0.3958;
125.7000;0.1595;0.4030;
126.0000;0.1669;0.4292;
126.3000;0.1587;0.4125;
126.6000;0.1587;0.4101;
126.9000;0.1669;0.4340;
127.2000;0.1595;0.4125;
127.5000;0.1587;0.4149;
127.8000;0.1571;0.4054;
128.1000;0.1555;0.4030;
128.4000;0.1620;0.4078;
128.7000;0.1579;0.3982;
129.0000;0.1595;0.3982;
129.3000;0.1587;0.4030;
129.6000;0.1595;0.4078;
129.9000;0.1587;0.4125;
130.2000;0.1571;0.4149;
130.5000;0.1490;0.3982;
130.8000;0.1579;0.4268;
131.1000;0.1587;0.4173;
131.4000;0.1595;0.4173;
131.7000;0.1628;0.4244;
132.0000;0.1555;0.4030;
132.3000;0.1555;0.4006;
132.6000;0.1571;0.4078;
132.9000;0.1563;0.4125;
133.2000;0.1587;0.4101;
133.5000;0.1555;0.3982;
133.8000;0.1587;0.4054;
134.1000;0.1514;0.3958;
134.4000;0.1571;0.4030;
134.7000;0.1587;0.4054;
135.0000;0.1587;0.4078;
135.3000;0.1612;0.4078;
135.6000;0.1587;0.4030;
135.9000;0.1604;0.4078;
136.2000;0.1644;0.4268;
136.5000;0.1579;0.4149;
136.8000;0.1563;0.4078;
137.1000;0.1563;0.4125;
137.4000;0.1563;0.4054;
137.7000;0.1571;0.4078;
138.0000;0.1604;0.4078;
138.3000;0.1555;0.3982;
138.6000;0.1587;0.4054;
138.9000;0.1571;0.4078;
139.2000;0.1579;0.4101;
139.5000;0.1579;0.4101;
139.8000;0.1587;0.4078;
140.1000;0.1571;0.4030;
140.4000;0.1587;0.4006;
140.7000;0.1587;0.4101;
141.0000;0.1571;0.4054;
141.3000;0.1620;0.4292;
141.6000;0.1563;0.4197;
141.9000;0.1628;0.4364;
142.2000;0.1620;0.4268;
142.5000;0.1587;0.4173;
142.8000;0.1571;0.4101;
143.1000;0.1563;0.4149;
143.4000;0.1587;0.4244;
143.7000;0.1595;0.4125;
144.0000;0.1571;0.4006;
144.3000;0.1587;0.4054;
144.6000;0.1587;0.3982;
144.9000;0.1587;0.3934;
145.2000;0.1571;0.3887;
145.5000;0.1571;0.3863;
145.8000;0.1595;0.4054;
146.1000;0.1587;0.4030;
146.4000;0.1571;0.3958;
146.7000;0.1620;0.4030;
147.0000;0.1595;0.4006;
147.3000;0.1595;0.4125;
147.6000;0.1604;0.4101;
147.9000;0.1579;0.4101;
148.2000;0.1579;0.4078;
148.5000;0.1604;0.4101;
148.8000;0.1620;0.4078;
149.1000;0.1579;0.4006;
149.4000;0.1579;0.4030;
149.7000;0.1587;0.4006;
150.0000;0.1457;0.3624;
150.3000;0.1587;0.3982;
150.6000;0.1587;0.4030;
150.9000;0.1595;0.4030;
151.2000;0.1595;0.4054;
151.5000;0.1579;0.4054;
151.8000;0.1587;0.4125;
152.1000;0.1498;0.3911;
152.4000;0.1522;0.4078;
152.7000;0.1604;0.4316;
153.0000;0.1587;0.4221;
153.3000;0.1595;0.4197;
153.6000;0.1636;0.4364;
153.9000;0.1636;0.4388;
154.2000;0.1571;0.4221;
154.5000;0.1595;0.4340;
154.8000;0.1579;0.4268;
155.1000;0.1538;0.4078;
155.4000;0.1612;0.4268;
155.7000;0.1579;0.4197;
156.0000;0.1604;0.4268;
156.3000;0.1620;0.4364;
156.6000;0.1669;0.4388;
156.9000;0.1579;0.4149;
157.2000;0.1636;0.4411;
157.5000;0.1587;0.4268;
157.8000;0.1604;0.4292;
158.1000;0.1595;0.4316;
158.4000;0.1579;0.4244;
158.7000;0.1669;0.4364;
159.0000;0.1563;0.4173;
159.3000;0.1579;0.4149;
159.6000;0.1571;0.4101;
159.9000;0.1571;0.4149;
160.2000;0.1595;0.4125;
160.5000;0.1563;0.4078;
160.8000;0.1579;0.4125;
161.1000;0.1579;0.4078;
161.4000;0.1587;0.4006;
161.7000;0.1571;0.4006;
162.0000;0.1587;0.4006;
162.3000;0.1579;0.4006;
162.6000;0.1595;0.4030;
162.9000;0.1595;0.3958;
163.2000;0.1587;0.3958;
163.5000;0.1620;0.4101;
163.8000;0.1595;0.4078;
164.1000;0.1571;0.4101;
164.4000;0.1579;0.4101;
164.7000;0.1587;0.4125;
165.0000;0.1595;0.4054;
165.3000;0.1587;0.4078;
165.6000;0.1587;0.4197;
165.9000;0.1587;0.4173;
166.2000;0.1587;0.4197;
166.5000;0.1579;0.4221;
166.8000;0.1571;0.4197;
167.1000;0.1604;0.4316;
167.4000;0.1587;0.4244;
167.7000;0.1579;0.4268;
168.0000;0.1579;0.4244;
168.3000;0.1587;0.4268;
168.6000;0.1563;0.4244;
168.9000;0.1612;0.4316;
169.2000;0.1587;0.4173;
169.5000;0.1571;0.4149;
169.8000;0.1587;0.4268;
170.1000;0.1595;0.4340;
170.4000;0.1595;0.4411;
170.7000;0.1595;0.4435;
171.0000;0.1498;0.4244;
171.3000;0.1579;0.4483;
171.6000;0.1612;0.4483;
171.9000;0.1571;0.4316;
172.2000;0.1571;0.4364;
172.5000;0.1555;0.4292;
172.8000;0.1587;0.4435;
173.1000;0.1481;0.4173;
173.4000;0.1604;0.4388;
173.7000;0.1604;0.4388;
174.0000;0.1587;0.4388;
174.3000;0.1604;0.4292;
174.6000;0.1652;0.4435;
174.9000;0.1595;0.4364;
175.2000;0.1587;0.4388;
175.5000;0.1612;0.4483;
175.8000;0.1628;0.4483;
176.1000;0.1587;0.4435;
176.4000;0.1587;0.4411;
176.7000;0.1563;0.4292;
177.0000;0.1620;0.4435;
177.3000;0.1595;0.4340;
177.6000;0.1579;0.4268;
177.9000;0.1595;0.4340;
178.2000;0.1595;0.4364;
178.5000;0.1595;0.4340;
178.8000;0.1587;0.4292;
179.1000;0.1587;0.4244;
179.4000;0.1595;0.4221;
179.7000;0.1677;0.4435;
180.0000;0.1571;0.4078;
180.3000;0.1587;0.4078;
180.6000;0.1612;0.4149;
180.9000;0.1587;0.4101;
181.2000;0.1595;0.4101;
181.5000;0.1595;0.4101;
181.8000;0.1522;0.3911;
182.1000;0.1636;0.4221;
182.4000;0.1604;0.4173;
182.7000;0.1571;0.4173;
183.0000;0.1563;0.4221;
183.3000;0.1587;0.4221;
183.6000;0.1628;0.4221;
183.9000;0.1579;0.4030;
184.2000;0.1595;0.4078;
184.5000;0.1612;0.4173;
184.8000;0.1604;0.4197;
185.1000;0.1579;0.4125;
185.4000;0.1587;0.4173;
185.7000;0.1595;0.4316;
186.0000;0.1595;0.4316;
186.3000;0.1522;0.4125;
186.6000;0.1595;0.4292;
186.9000;0.1563;0.4244;
187.2000;0.1595;0.4221;
187.5000;0.1587;0.4101;
187.8000;0.1579;0.4101;
188.1000;0.1587;0.4149;
188.4000;0.1595;0.4149;
188.7000;0.1579;0.4101;
189.0000;0.1571;0.4149;
189.3000;0.1571;0.4006;
189.6000;0.1571;0.4054;
189.9000;0.1587;0.4030;
190.2000;0.1579;0.4030;
190.5000;0.1595;0.4101;
190.8000;0.1579;0.4054;
191.1000;0.1604;0.4197;
191.4000;0.1604;0.4149;
191.7000;0.1571;0.4173;
192.0000;0.1595;0.4292;
192.3000;0.1587;0.4292;
192.6000;0.1587;0.4411;
192.9000;0.1595;0.4411;
193.2000;0.1555;0.4316;
193.5000;0.1595;0.4435;
193.8000;0.1579;0.4435;
194.1000;0.1604;0.4507;
194.4000;0.1587;0.4340;
194.7000;0.1571;0.4364;
195.0000;0.1661;0.4507;
195.3000;0.1604;0.4340;
195.6000;0.1587;0.4316;
195.9000;0.1620;0.4411;
196.2000;0.1587;0.4340;
196.5000;0.1604;0.4316;
196.8000;0.1595;0.4221;
197.1000;0.1506;0.4125;
197.4000;0.1587;0.4340;
197.7000;0.1571;0.4364;
198.0000;0.1563;0.4364;
198.3000;0.1587;0.4340;
198.6000;0.1579;0.4388;
198.9000;0.1620;0.4411;
199.2000;0.1579;0.4340;
199.5000;0.1579;0.4316;
199.8000;0.1563;0.4292;
200.1000;0.1506;0.4054;
200.4000;0.1595;0.4268;
200.7000;0.1587;0.4244;
201.0000;0.1595;0.4221;
201.3000;0.1587;0.4197;
201.6000;0.1587;0.4149;
201.9000;0.1612;0.4268;
202.2000;0.1587;0.4244;
202.5000;0.1628;0.4316;
202.8000;0.1604;0.4173;
203.1000;0.1587;0.4054;
203.4000;0.1579;0.4125;
203.7000;0.1571;0.4149;
204.0000;0.1587;0.4149;
204.3000;0.1579;0.4197;
204.6000;0.1587;0.4221;
204.9000;0.1579;0.4221;
205.2000;0.1620;0.4340;
205.5000;0.1579;0.4197;
205.8000;0.1571;0.4149;
206.1000;0.1604;0.4173;
206.4000;0.1587;0.4197;
206.7000;0.1604;0.4244;
207.0000;0.1587;0.4244;
207.3000;0.1604;0.4197;
207.6000;0.1579;0.4197;
207.9000;0.1571;0.4173;
208.2000;0.1587;0.4197;
208.5000;0.1587;0.4101;
208.8000;0.1547;0.3982;
209.1000;0.1563;0.4006;
209.4000;0.1522;0.3982;
209.7000;0.1579;0.4149;
210.0000;0.1595;0.4221;
210.3000;0.1563;0.4030;
210.6000;0.1595;0.4101;
210.9000;0.1587;0.4101;
211.2000;0.1579;0.4173;
211.5000;0.1587;0.4173;
211.8000;0.1579;0.4054;
212.1000;0.1595;0.4125;
212.4000;0.1612;0.4078;
212.7000;0.1604;0.4006;
213.0000;0.1595;0.4030;
213.3000;0.1555;0.4006;
213.6000;0.1612;0.4078;
213.9000;0.1579;0.4054;
214.2000;0.1587;0.4197;
214.5000;0.1652;0.4340;
214.8000;0.1595;0.4268;
215.1000;0.1563;0.4173;
215.4000;0.1530;0.4054;
215.7000;0.1579;0.4197;
216.0000;0.1579;0.4197;
216.3000;0.1563;0.4054;
216.6000;0.1579;0.4030;
216.9000;0.1595;0.4125;
217.2000;0.1595;0.4173;
217.5000;0.1571;0.4221;
217.8000;0.1587;0.4292;
218.1000;0.1587;0.4268;
218.4000;0.1587;0.4292;
218.7000;0.1579;0.4340;
219.0000;0.1555;0.4268;
219.3000;0.1595;0.4268;
219.6000;0.1604;0.4292;
219.9000;0.1579;0.4197;
220.2000;0.1587;0.4292;
220.5000;0.1604;0.4292;
220.8000;0.1595;0.4340;
221.1000;0.1547;0.4197;
221.4000;0.1579;0.4268;
221.7000;0.1579;0.4221;
222.0000;0.1587;0.4292;
222.3000;0.1595;0.4411;
222.6000;0.1579;0.4316;
222.9000;0.1595;0.4435;
223.2000;0.1579;0.4435;
223.5000;0.1571;0.4435;
223.8000;0.1595;0.4388;
224.1000;0.1612;0.4483;
224.4000;0.1579;0.4364;
224.7000;0.1595;0.4340;
225.0000;0.1604;0.4268;
225.3000;0.1604;0.4244;
225.6000;0.1563;0.4197;
225.9000;0.1628;0.4316;
226.2000;0.1571;0.4268;
226.5000;0.1563;0.4149;
226.8000;0.1563;0.4125;
227.1000;0.1636;0.4268;
227.4000;0.1595;0.4221;
227.7000;0.1587;0.4221;
228.0000;0.1669;0.4435;
228.3000;0.1595;0.4316;
228.6000;0.1465;0.4054;
228.9000;0.1587;0.4388;
229.2000;0.1636;0.4435;
229.5000;0.1587;0.4340;
229.8000;0.1579;0.4197;
230.1000;0.1612;0.4244;
230.4000;0.1571;0.4125;
230.7000;0.1587;0.4197;
231.0000;0.1604;0.4197;
231.3000;0.1579;0.4173;
231.6000;0.1595;0.4173;
231.9000;0.1595;0.4149;
232.2000;0.1595;0.4268;
232.5000;0.1579;0.4292;
232.8000;0.1579;0.4292;
233.1000;0.1579;0.4316;
233.4000;0.1595;0.4340;
233.7000;0.1604;0.4435;
234.0000;0.1530;0.4221;
234.3000;0.1595;0.4364;
234.6000;0.1587;0.4364;
234.9000;0.1612;0.4411;
235.2000;0.1587;0.4364;
235.5000;0.1571;0.4316;
235.8000;0.1579;0.4316;
236.1000;0.1604;0.4411;
236.4000;0.1661;0.4554;
236.7000;0.1587;0.4364;
237.0000;0.1579;0.4268;
237.3000;0.1587;0.4221;
237.6000;0.1587;0.4244;
237.9000;0.1604;0.4292;
238.2000;0.1587;0.4221;
238.5000;0.1571;0.4149;
238.8000;0.1587;0.4173;
239.1000;0.1595;0.4221;
239.4000;0.1587;0.4221;
239.7000;0.1595;0.4244;
240.0000;0.1579;0.4268;
240.3000;0.1579;0.4316;
240.6000;0.1595;0.4388;
240.9000;0.1595;0.4340;
241.2000;0.1595;0.4316;
241.5000;0.1595;0.4316;
241.8000;0.1579;0.4244;
242.1000;0.1587;0.4292;
242.4000;0.1587;0.4268;
242.7000;0.1587;0.4221;
243.0000;0.1685;0.4483;
243.3000;0.1579;0.4340;
243.6000;0.1579;0.4364;
243.9000;0.1595;0.4388;
244.2000;0.1579;0.4388;
244.5000;0.1579;0.4388;
244.8000;0.1587;0.4411;
245.1000;0.1693;0.4578;
245.4000;0.1579;0.4149;
245.7000;0.1579;0.4221;
246.0000;0.1587;0.4292;
246.3000;0.1595;0.4268;
246.6000;0.1514;0.3958;
246.9000;0.1587;0.4101;
247.2000;0.1579;0.4101;
247.5000;0.1628;0.4244;
247.8000;0.1587;0.4101;
248.1000;0.1547;0.4054;
248.4000;0.1563;0.4125;
248.7000;0.1579;0.4244;
249.0000;0.1563;0.4364;
249.3000;0.1579;0.4483;
249.6000;0.1595;0.4531;
249.9000;0.1693;0.4721;
250.2000;0.1620;0.4531;
250.5000;0.1587;0.4388;
250.8000;0.1595;0.4435;
251.1000;0.1563;0.4316;
251.4000;0.1595;0.4340;
251.7000;0.1652;0.4531;
252.0000;0.1579;0.4364;
252.3000;0.1604;0.4435;
252.6000;0.1555;0.4316;
252.9000;0.1595;0.4388;
253.2000;0.1669;0.4531;
253.5000;0.1595;0.4411;
253.8000;0.1587;0.4316;
254.1000;0.1595;0.4364;
254.4000;0.1612;0.4388;
254.7000;0.1612;0.4411;
255.0000;0.1522;0.4149;
255.3000;0.1563;0.4316;
255.6000;0.1579;0.4340;
255.9000;0.1636;0.4507;
256.2000;0.1595;0.4411;
256.5000;0.1595;0.4435;
256.8000;0.1620;0.4531;
257.1000;0.1579;0.4483;
257.4000;0.1604;0.4435;
257.7000;0.1571;0.4435;
258.0000;0.1587;0.4388;
258.3000;0.1587;0.4340;
258.6000;0.1595;0.4292;
258.9000;0.1579;0.4292;
259.2000;0.1579;0.4364;
259.5000;0.1612;0.4483;
259.8000;0.1587;0.4459;
260.1000;0.1563;0.4340;
260.4000;0.1579;0.4292;
260.7000;0.1579;0.4244;
261.0000;0.1587;0.4197;
261.3000;0.1538;0.4101;
261.6000;0.1595;0.4244;
261.9000;0.1644;0.4411;
262.2000;0.1579;0.4340;
262.5000;0.1612;0.4507;
262.8000;0.1604;0.4388;
263.1000;0.1571;0.4292;
263.4000;0.1620;0.4364;
263.7000;0.1555;0.4221;
264.0000;0.1555;0.4197;
264.3000;0.1571;0.4221;
264.6000;0.1587;0.4173;
264.9000;0.1628;0.4316;
265.2000;0.1514;0.4173;
265.5000;0.1579;0.4340;
265.8000;0.1620;0.4459;
266.1000;0.1587;0.4340;
266.4000;0.1587;0.4411;
266.7000;0.1579;0.4411;
267.0000;0.1587;0.4435;
267.3000;0.1604;0.4388;
267.6000;0.1612;0.4364;
267.9000;0.1595;0.4340;
268.2000;0.1693;0.4483;
268.5000;0.1595;0.4268;
268.8000;0.1587;0.4244;
269.1000;0.1604;0.4316;
269.4000;0.1579;0.4316;
269.7000;0.1595;0.4340;
270.0000;0.1604;0.4292;
270.3000;0.1587;0.4316;
270.6000;0.1587;0.4292;
270.9000;0.1571;0.4244;
271.2000;0.1595;0.4292;
271.5000;0.1595;0.4340;
271.8000;0.1595;0.4292;
272.1000;0.1595;0.4244;
272.4000;0.1563;0.4173;
272.7000;0.1579;0.4221;
273.0000;0.1604;0.4340;
273.3000;0.1604;0.4316;
273.6000;0.1571;0.4244;
273.9000;0.1587;0.4292;
274.2000;0.1579;0.4292;
274.5000;0.1595;0.4268;
274.8000;0.1587;0.4268;
275.1000;0.1579;0.4197;
275.4000;0.1579;0.4221;
275.7000;0.1604;0.4340;
276.0000;0.1563;0.4268;
276.3000;0.1595;0.4268;
276.6000;0.1587;0.4316;
276.9000;0.1620;0.4507;
277.2000;0.1587;0.4411;
277.5000;0.1595;0.4364;
277.8000;0.1571;0.4292;
278.1000;0.1604;0.4316;
278.4000;0.1579;0.4173;
278.7000;0.1587;0.4149;
279.0000;0.1587;0.4149;
279.3000;0.1595;0.4197;
279.6000;0.1587;0.4173;
279.9000;0.1612;0.4244;
280.2000;0.1604;0.4221;
280.5000;0.1587;0.4197;
280.8000;0.1579;0.4125;
281.1000;0.1563;0.4078;
281.4000;0.1530;0.3911;
281.7000;0.1555;0.3958;
282.0000;0.1579;0.3982;
282.3000;0.1587;0.4006;
282.6000;0.1555;0.3911;
282.9000;0.1628;0.4101;
283.2000;0.1595;0.4101;
283.5000;0.1595;0.4173;
283.8000;0.1628;0.4292;
284.1000;0.1579;0.4149;
284.4000;0.1604;0.4149;
284.7000;0.1579;0.4054;
285.0000;0.1604;0.4149;
285.3000;0.1604;0.4149;
285.6000;0.1547;0.4078;
285.9000;0.1595;0.4197;
286.2000;0.1579;0.4268;
286.5000;0.1685;0.4578;
286.8000;0.1579;0.4316;
287.1000;0.1595;0.4292;
287.4000;0.1563;0.4197;
287.7000;0.1595;0.4268;
288.0000;0.1579;0.4149;
288.3000;0.1514;0.4030;
288.6000;0.1636;0.4483;
288.9000;0.1644;0.4507;
289.2000;0.1595;0.4292;
289.5000;0.1612;0.4268;
289.8000;0.1563;0.4173;
290.1000;0.1775;0.4745;
290.4000;0.1571;0.4268;
290.7000;0.1587;0.4292;
291.0000;0.1628;0.4364;
291.3000;0.1587;0.4244;
291.6000;0.1604;0.4197;
291.9000;0.1587;0.4125;
292.2000;0.1579;0.4173;
292.5000;0.1579;0.4149;
292.8000;0.1587;0.4125;
293.1000;0.1595;0.4197;
293.4000;0.1604;0.4125;
293.7000;0.1595;0.4125;
294.0000;0.1595;0.4078;
294.3000;0.1604;0.4101;
294.6000;0.1595;0.4125;
294.9000;0.1595;0.4173;
295.2000;0.1587;0.4173;
295.5000;0.1595;0.4244;
295.8000;0.1677;0.4364;
296.1000;0.1538;0.4054;
296.4000;0.1571;0.4101;
296.7000;0.1579;0.4149;
297.0000;0.1587;0.4054;
297.3000;0.1579;0.4149;
297.6000;0.1579;0.4221;
297.9000;0.1579;0.4221;
298.2000;0.1563;0.4149;
298.5000;0.1587;0.4149;
298.8000;0.1579;0.4125;
299.1000;0.1579;0.4149;
299.4000;0.1555;0.4030;
299.7000;0.1595;0.4030;
300.0000;0.1636;0.4054;
300.3000;0.1579;0.3982;
300.6000;0.1579;0.4054;
300.9000;0.1563;0.4078;
301.2000;0.1595;0.4316;
301.5000;0.1563;0.4244;
301.8000;0.1587;0.4268;
302.1000;0.1571;0.4221;
302.4000;0.1571;0.4173;
302.7000;0.1587;0.4221;
303.0000;0.1587;0.4173;
303.3000;0.1587;0.4173;
303.6000;0.1587;0.4173;
303.9000;0.1579;0.4173;
304.2000;0.1579;0.4197;
304.5000;0.1522;0.4101;
304.8000;0.1563;0.4244;
305.1000;0.1595;0.4292;
305.4000;0.1595;0.4149;
305.7000;0.1595;0.4221;
306.0000;0.1604;0.4268;
306.3000;0.1595;0.4316;
306.6000;0.1579;0.4244;
306.9000;0.1563;0.4101;
307.2000;0.1595;0.4101;
307.5000;0.1595;0.4221;
307.8000;0.1604;0.4221;
308.1000;0.1587;0.4101;
308.4000;0.1693;0.4292;
308.7000;0.1595;0.4030;
309.0000;0.1579;0.3982;
309.3000;0.1571;0.3934;
309.6000;0.1587;0.3863;
309.9000;0.1612;0.3934;
310.2000;0.1579;0.3934;
310.5000;0.1595;0.3958;
310.8000;0.1612;0.3934;
311.1000;0.1579;0.3887;
311.4000;0.1579;0.3958;
311.7000;0.1579;0.4030;
312.0000;0.1579;0.4006;
312.3000;0.1579;0.4078;
312.6000;0.1644;0.4244;
312.9000;0.1547;0.4030;
313.2000;0.1620;0.4292;
313.5000;0.1579;0.4197;
313.8000;0.1604;0.4244;
314.1000;0.1595;0.4268;
314.4000;0.1587;0.4149;
314.7000;0.1563;0.4101;
315.0000;0.1587;0.4101;
315.3000;0.1595;0.4244;
315.6000;0.1644;0.4435;
315.9000;0.1587;0.4340;
316.2000;0.1595;0.4197;
316.5000;0.1612;0.4173;
316.8000;0.1579;0.4149;
317.1000;0.1571;0.4078;
317.4000;0.1587;0.4078;
317.7000;0.1579;0.4173;
318.0000;0.1595;0.4173;
318.3000;0.1587;0.4054;
318.6000;0.1587;0.4030;
318.9000;0.1604;0.4149;
319.2000;0.1563;0.4030;
319.5000;0.1595;0.4101;
319.8000;0.1579;0.4101;
320.1000;0.1563;0.4125;
320.4000;0.1677;0.4340;
320.7000;0.1595;0.4221;
321.0000;0.1628;0.4292;
321.3000;0.1604;0.4244;
321.6000;0.1579;0.4292;
321.9000;0.1612;0.4364;
322.2000;0.1595;0.4316;
322.5000;0.1587;0.4268;
322.8000;0.1587;0.4268;
323.1000;0.1571;0.4173;
323.4000;0.1522;0.4030;
323.7000;0.1595;0.4197;
324.0000;0.1555;0.4078;
324.3000;0.1595;0.4197;
324.6000;0.1571;0.4197;
324.9000;0.1587;0.4244;
325.2000;0.1571;0.4221;
325.5000;0.1579;0.4221;
325.8000;0.1579;0.4221;
326.1000;0.1571;0.4197;
326.4000;0.1571;0.4173;
326.7000;0.1579;0.4221;
327.0000;0.1547;0.4054;
327.3000;0.1571;0.4078;
327.6000;0.1579;0.4054;
327.9000;0.1595;0.4101;
328.2000;0.1595;0.4173;
328.5000;0.1604;0.4197;
328.8000;0.1595;0.4101;
329.1000;0.1571;0.4006;
329.4000;0.1644;0.4197;
329.7000;0.1579;0.4030;
330.0000;0.1587;0.4030;
330.3000;0.1465;0.3696;
330.6000;0.1571;0.3911;
330.9000;0.1620;0.4006;
331.2000;0.1604;0.3863;
331.5000;0.1579;0.3887;
331.8000;0.1595;0.3839;
332.1000;0.1612;0.3863;
332.4000;0.1612;0.3934;
332.7000;0.1587;0.3934;
333.0000;0.1587;0.3958;
333.3000;0.1604;0.3887;
333.6000;0.1571;0.3815;
333.9000;0.1563;0.3791;
334.2000;0.1579;0.3934;
334.5000;0.1555;0.3911;
334.8000;0.1595;0.4006;
335.1000;0.1587;0.3958;
335.4000;0.1579;0.3958;
335.7000;0.1587;0.3958;
336.0000;0.1604;0.3982;
336.3000;0.1604;0.3958;
336.6000;0.1587;0.3839;
336.9000;0.1595;0.3863;
337.2000;0.1644;0.4054;
337.5000;0.1595;0.3934;
337.8000;0.1701;0.4173;
338.1000;0.1604;0.3934;
338.4000;0.1587;0.4054;
338.7000;0.1587;0.4078;
339.0000;0.1571;0.4030;
339.3000;0.1579;0.4078;
339.6000;0.1628;0.4268;
339.9000;0.1563;0.4221;
340.2000;0.1587;0.4149;
340.5000;0.1538;0.4125;
340.8000;0.1604;0.4244;
341.1000;0.1604;0.4221;
341.4000;0.1579;0.4125;
341.7000;0.1595;0.4149;
342.0000;0.1587;0.4101;
342.3000;0.1595;0.4054;
342.6000;0.1490;0.3791;
342.9000;0.1579;0.4101;
343.2000;0.1547;0.4030;
343.5000;0.1514;0.3982;
343.8000;0.1563;0.4078;
344.1000;0.1547;0.4030;
344.4000;0.1538;0.3815;
344.7000;0.1579;0.3934;
345.0000;0.1620;0.4149;
345.3000;0.1587;0.4125;
345.6000;0.1571;0.4149;
345.9000;0.1595;0.4244;
346.2000;0.1530;0.4078;
346.5000;0.1587;0.4268;
346.8000;0.1620;0.4292;
347.1000;0.1530;0.4030;
347.4000;0.1571;0.4149;
347.7000;0.1555;0.4054;
348.0000;0.1563;0.4054;
348.3000;0.1595;0.4221;
348.6000;0.1595;0.4221;
348.9000;0.1604;0.4244;
349.2000;0.1563;0.4221;
349.5000;0.1604;0.4292;
349.8000;0.1587;0.4221;
350.1000;0.1571;0.4101;
350.4000;0.1571;0.4054;
350.7000;0.1555;0.3934;
351.0000;0.1587;0.4173;
351.3000;0.1644;0.4364;
351.6000;0.1612;0.4364;
351.9000;0.1555;0.4244;
352.2000;0.1579;0.4268;
352.5000;0.1661;0.4507;
352.8000;0.1620;0.4340;
353.1000;0.1604;0.4292;
353.4000;0.1579;0.4292;
353.7000;0.1595;0.4268;
354.0000;0.1595;0.4268;
354.3000;0.1604;0.4316;
354.6000;0.1595;0.4149;
354.9000;0.1612;0.4292;
355.2000;0.1595;0.4244;
355.5000;0.1538;0.4006;
355.8000;0.1563;0.4030;
356.1000;0.1587;0.3982;
356.4000;0.1571;0.3934;
356.7000;0.1579;0.3982;
357.0000;0.1587;0.3887;
357.3000;0.1579;0.3863;
357.6000;0.1587;0.3887;
357.9000;0.1522;0.3720;
358.2000;0.1587;0.3911;
358.5000;0.1579;0.3863;
358.8000;0.1604;0.3863;
359.1000;0.1661;0.4006;
359.4000;0.1595;0.3839;
359.7000;0.1571;0.3744;
360.0000;0.1620;0.3934;
360.3000;0.1604;0.3982;
360.6000;0.1579;0.3887;
360.9000;0.1587;0.3887;
361.2000;0.1571;0.3863;
361.5000;0.1571;0.3887;
361.8000;0.1571;0.3887;
362.1000;0.1538;0.3839;
362.4000;0.1563;0.3863;
362.7000;0.1587;0.3934;
363.0000;0.1579;0.4006;
363.3000;0.1571;0.4078;
363.6000;0.1571;0.4125;
363.9000;0.1701;0.4554;
364.2000;0.1661;0.4459;
364.5000;0.1571;0.4221;
364.8000;0.1587;0.4268;
365.1000;0.1563;0.4244;
365.4000;0.1620;0.4364;
365.7000;0.1571;0.4316;
366.0000;0.1620;0.4483;
366.3000;0.1579;0.4340;
366.6000;0.1587;0.4364;
366.9000;0.1595;0.4316;
367.2000;0.1595;0.4292;
367.5000;0.1595;0.4292;
367.8000;0.1595;0.4244;
368.1000;0.1587;0.4244;
368.4000;0.1604;0.4292;
368.7000;0.1571;0.4268;
369.0000;0.1522;0.4125;
369.3000;0.1604;0.4268;
369.6000;0.1620;0.4292;
369.9000;0.1595;0.4268;
370.2000;0.1652;0.4435;
370.5000;0.1563;0.4244;
370.8000;0.1595;0.4435;
371.1000;0.1571;0.4411;
371.4000;0.1571;0.4340;
371.7000;0.1579;0.4340;
372.0000;0.1587;0.4435;
372.3000;0.1579;0.4411;
372.6000;0.1587;0.4435;
372.9000;0.1514;0.4364;
373.2000;0.1571;0.4531;
373.5000;0.1587;0.4531;
373.8000;0.1571;0.4435;
374.1000;0.1563;0.4388;
374.4000;0.1595;0.4411;
374.7000;0.1587;0.4411;
375.0000;0.1587;0.4364;
375.3000;0.1587;0.4364;
375.6000;0.1547;0.4244;
375.9000;0.1604;0.4388;
376.2000;0.1571;0.4316;
376.5000;0.1555;0.4244;
376.8000;0.1595;0.4292;
377.1000;0.1579;0.4316;
377.4000;0.1538;0.4292;
377.7000;0.1547;0.4316;
378.0000;0.1595;0.4435;
378.3000;0.1547;0.4244;
378.6000;0.1571;0.4316;
378.9000;0.1571;0.4268;
379.2000;0.1587;0.4292;
379.5000;0.1449;0.3958;
379.8000;0.1595;0.4388;
380.1000;0.1595;0.4364;
380.4000;0.1571;0.4364;
380.7000;0.1595;0.4459;
381.0000;0.1604;0.4435;
381.3000;0.1604;0.4411;
381.6000;0.1595;0.4435;
381.9000;0.1612;0.4554;
382.2000;0.1604;0.4459;
382.5000;0.1587;0.4435;
382.8000;0.1563;0.4316;
383.1000;0.1612;0.4388;
383.4000;0.1579;0.4268;
383.7000;0.1604;0.4292;
384.0000;0.1563;0.4173;
384.3000;0.1587;0.4292;
384.6000;0.1587;0.4292;
384.9000;0.1644;0.4507;
385.2000;0.1587;0.4316;
385.5000;0.1571;0.4364;
385.8000;0.1595;0.4388;
386.1000;0.1661;0.4531;
386.4000;0.1620;0.4316;
386.7000;0.1587;0.4244;
387.0000;0.1579;0.4221;
387.3000;0.1571;0.4149;
387.6000;0.1563;0.4030;
387.9000;0.1628;0.4173;
388.2000;0.1595;0.4125;
388.5000;0.1571;0.4054;
388.8000;0.1595;0.4054;
389.1000;0.1587;0.4030;
389.4000;0.1514;0.3887;
389.7000;0.1587;0.4101;
390.0000;0.1587;0.4173;
390.3000;0.1571;0.4173;
390.6000;0.1538;0.4054;
390.9000;0.1530;0.4054;
391.2000;0.1579;0.4316;
391.5000;0.1587;0.4435;
391.8000;0.1587;0.4507;
392.1000;0.1587;0.4411;
392.4000;0.1595;0.4435;
392.7000;0.1579;0.4364;
393.0000;0.1587;0.4292;
393.3000;0.1579;0.4268;
393.6000;0.1620;0.4340;
393.9000;0.1620;0.4292;
394.2000;0.1604;0.4197;
394.5000;0.1579;0.4221;
394.8000;0.1579;0.4364;
395.1000;0.1595;0.4292;
395.4000;0.1571;0.4244;
395.7000;0.1644;0.4411;
396.0000;0.1571;0.4221;
396.3000;0.1587;0.4197;
396.6000;0.1579;0.4244;
396.9000;0.1579;0.4244;
397.2000;0.1595;0.4292;
397.5000;0.1628;0.4292;
397.8000;0.1587;0.4221;
398.1000;0.1612;0.4292;
398.4000;0.1644;0.4388;
398.7000;0.1579;0.4173;
399.0000;0.1587;0.4101;
399.3000;0.1604;0.4173;
399.6000;0.1587;0.4054;
399.9000;0.1604;0.4101;
400.2000;0.1563;0.4054;
400.5000;0.1595;0.4173;
400.8000;0.1555;0.4030;
401.1000;0.1579;0.4173;
401.4000;0.1612;0.4244;
401.7000;0.1587;0.4197;
402.0000;0.1579;0.4221;
402.3000;0.1595;0.4197;
402.6000;0.1571;0.4149;
402.9000;0.1587;0.4268;
403.2000;0.1579;0.4149;
403.5000;0.1571;0.4078;
403.8000;0.1587;0.4197;
404.1000;0.1563;0.4268;
404.4000;0.1563;0.4244;
404.7000;0.1579;0.4316;
405.0000;0.1604;0.4340;
405.3000;0.1579;0.4221;
405.6000;0.1595;0.4268;
405.9000;0.1587;0.4292;
406.2000;0.1571;0.4292;
406.5000;0.1587;0.4340;
406.8000;0.1587;0.4316;
407.1000;0.1595;0.4364;
407.4000;0.1587;0.4388;
407.7000;0.1595;0.4388;
408.0000;0.1579;0.4435;
408.3000;0.1644;0.4602;
408.6000;0.1538;0.4316;
408.9000;0.1587;0.4364;
409.2000;0.1595;0.4364;
409.5000;0.1595;0.4340;
409.8000;0.1587;0.4316;
410.1000;0.1579;0.4388;
410.4000;0.1587;0.4388;
410.7000;0.1563;0.4411;
411.0000;0.1547;0.4244;
411.3000;0.1595;0.4435;
411.6000;0.1595;0.4388;
411.9000;0.1579;0.4292;
412.2000;0.1579;0.4268;
412.5000;0.1563;0.4221;
412.8000;0.1571;0.4173;
413.1000;0.1587;0.4221;
413.4000;0.1579;0.4149;
413.7000;0.1563;0.4173;
414.0000;0.1579;0.4197;
414.3000;0.1595;0.4149;
414.6000;0.1604;0.4197;
414.9000;0.1604;0.4125;
415.2000;0.1595;0.4006;
415.5000;0.1595;0.4030;
415.8000;0.1604;0.4078;
416.1000;0.1571;0.4054;
416.4000;0.1587;0.4149;
416.7000;0.1563;0.4173;
417.0000;0.1595;0.4292;
417.3000;0.1587;0.4340;
417.6000;0.1563;0.4221;
417.9000;0.1620;0.4459;
418.2000;0.1571;0.4340;
418.5000;0.1587;0.4292;
418.8000;0.1612;0.4268;
419.1000;0.1587;0.4268;
419.4000;0.1604;0.4364;
419.7000;0.1587;0.4316;
420.0000;0.1587;0.4316;
420.3000;0.1604;0.4316;
420.6000;0.1587;0.4316;
420.9000;0.1530;0.4149;
421.2000;0.1612;0.4292;
421.5000;0.1587;0.4197;
421.8000;0.1571;0.4173;
422.1000;0.1587;0.4268;
422.4000;0.1587;0.4221;
422.7000;0.1595;0.4221;
423.0000;0.1571;0.4149;
423.3000;0.1579;0.4125;
423.6000;0.1579;0.4125;
423.9000;0.1612;0.4197;
424.2000;0.1579;0.4125;
424.5000;0.1522;0.3934;
424.8000;0.1701;0.4435;
425.1000;0.1579;0.4173;
425.4000;0.1547;0.4125;
425.7000;0.1587;0.4197;
426.0000;0.1587;0.4221;
426.3000;0.1579;0.4221;
426.6000;0.1620;0.4244;
426.9000;0.1579;0.4101;
427.2000;0.1579;0.4101;
427.5000;0.1604;0.4173;
427.8000;0.1579;0.4149;
428.1000;0.1555;0.4078;
428.4000;0.1595;0.4149;
428.7000;0.1563;0.4054;
429.0000;0.1579;0.4125;
429.3000;0.1547;0.4054;
429.6000;0.1571;0.4101;
429.9000;0.1612;0.4149;
430.2000;0.1604;0.4197;
430.5000;0.1595;0.4149;
430.8000;0.1571;0.4054;
431.1000;0.1571;0.4078;
431.4000;0.1587;0.4078;
431.7000;0.1604;0.4054;
432.0000;0.1571;0.3982;
432.3000;0.1587;0.3934;
432.6000;0.1595;0.4078;
432.9000;0.1595;0.4125;
433.2000;0.1595;0.4221;
433.5000;0.1595;0.4173;
433.8000;0.1563;0.4101;
434.1000;0.1587;0.4149;
434.4000;0.1595;0.4125;
434.7000;0.1612;0.4173;
435.0000;0.1571;0.4173;
435.3000;0.1587;0.4316;
435.6000;0.1579;0.4316;
435.9000;0.1595;0.4244;
436.2000;0.1587;0.4197;
436.5000;0.1555;0.4149;
436.8000;0.1604;0.4268;
437.1000;0.1612;0.4268;
437.4000;0.1563;0.4197;
437.7000;0.1595;0.4316;
438.0000;0.1522;0.4101;
438.3000;0.1579;0.4364;
438.6000;0.1555;0.4316;
438.9000;0.1620;0.4507;
439.2000;0.1506;0.4244;
439.5000;0.1579;0.4388;
439.8000;0.1571;0.4292;
440.1000;0.1579;0.4292;
440.4000;0.1563;0.4221;
440.7000;0.1538;0.4054;
441.0000;0.1547;0.4101;
441.3000;0.1579;0.4197;
441.6000;0.1612;0.4244;
441.9000;0.1595;0.4197;
442.2000;0.1587;0.4125;
442.5000;0.1538;0.3958;
442.8000;0.1587;0.4197;
443.1000;0.1612;0.4244;
443.4000;0.1595;0.4149;
443.7000;0.1547;0.4030;
444.0000;0.1579;0.4078;
444.3000;0.1587;0.4173;
444.6000;0.1587;0.4173;
444.9000;0.1620;0.4340;
445.2000;0.1587;0.4292;
445.5000;0.1587;0.4292;
445.8000;0.1579;0.4292;
446.1000;0.1595;0.4340;
446.4000;0.1579;0.4268;
446.7000;0.1579;0.4364;
447.0000;0.1604;0.4364;
447.3000;0.1604;0.4364;
447.6000;0.1498;0.4149;
447.9000;0.1538;0.4149;
448.2000;0.1579;0.4221;
448.5000;0.1604;0.4173;
448.8000;0.1579;0.4149;
449.1000;0.1595;0.4244;
449.4000;0.1563;0.4101;
449.7000;0.1661;0.4316;
450.0000;0.1579;0.4101;
450.3000;0.1587;0.4101;
450.6000;0.1571;0.4125;
450.9000;0.1620;0.4244;
451.2000;0.1587;0.4221;
451.5000;0.1490;0.3982;
451.8000;0.1595;0.4125;
452.1000;0.1612;0.4101;
452.4000;0.1579;0.4030;
452.7000;0.1587;0.4101;
453.0000;0.1587;0.4101;
453.3000;0.1620;0.4173;
453.6000;0.1595;0.4173;
453.9000;0.1530;0.3934;
454.2000;0.1612;0.4149;
454.5000;0.1612;0.4101;
454.8000;0.1636;0.4173;
455.1000;0.1481;0.3839;
455.4000;0.1579;0.4054;
455.7000;0.1514;0.3887;
456.0000;0.1604;0.4173;
456.3000;0.1587;0.4125;
456.6000;0.1563;0.4078;
456.9000;0.1652;0.4340;
457.2000;0.1595;0.4125;
457.5000;0.1734;0.4554;
457.8000;0.1587;0.4197;
458.1000;0.1595;0.4149;
458.4000;0.1555;0.4125;
458.7000;0.1612;0.4340;
459.0000;0.1579;0.4221;
459.3000;0.1579;0.4173;
459.6000;0.1587;0.4173;
459.9000;0.1571;0.4197;
460.2000;0.1587;0.4316;
460.5000;0.1587;0.4388;
460.8000;0.1571;0.4316;
461.1000;0.1636;0.4388;
461.4000;0.1587;0.4197;
461.7000;0.1571;0.4125;
462.0000;0.1571;0.4173;
462.3000;0.1555;0.4149;
462.6000;0.1571;0.4244;
462.9000;0.1595;0.4292;
463.2000;0.1579;0.4340;
463.5000;0.1604;0.4364;
463.8000;0.1604;0.4435;
464.1000;0.1595;0.4244;
464.4000;0.1579;0.4101;
464.7000;0.1595;0.4149;
465.0000;0.1587;0.4149;
465.3000;0.1579;0.4149;
465.6000;0.1563;0.4101;
465.9000;0.1587;0.4197;
466.2000;0.1604;0.4149;
466.5000;0.1563;0.4006;
466.8000;0.1587;0.4078;
467.1000;0.1579;0.3982;
467.4000;0.1579;0.3982;
467.7000;0.1595;0.4078;
468.0000;0.1563;0.4101;
468.3000;0.1579;0.4173;
468.6000;0.1579;0.4244;
468.9000;0.1595;0.4364;
469.2000;0.1612;0.4340;
469.5000;0.1612;0.4340;
469.8000;0.1538;0.4101;
470.1000;0.1595;0.4316;
470.4000;0.1498;0.4030;
470.7000;0.1579;0.4268;
471.0000;0.1547;0.4149;
471.3000;0.1587;0.4268;
471.6000;0.1579;0.4173;
471.9000;0.1555;0.4125;
472.2000;0.1571;0.4197;
472.5000;0.1604;0.4340;
472.8000;0.1612;0.4364;
473.1000;0.1604;0.4340;
473.4000;0.1604;0.4388;
473.7000;0.1595;0.4364;
474.0000;0.1604;0.4340;
474.3000;0.1579;0.4388;
474.6000;0.1612;0.4364;
474.9000;0.1587;0.4340;
475.2000;0.1604;0.4340;
475.5000;0.1587;0.4221;
475.8000;0.1571;0.4244;
476.1000;0.1579;0.4221;
476.4000;0.1587;0.4244;
476.7000;0.1612;0.4316;
477.0000;0.1620;0.4292;
477.3000;0.1538;0.4078;
477.6000;0.1571;0.4149;
477.9000;0.1579;0.4197;
478.2000;0.1555;0.4149;
478.5000;0.1587;0.4221;
478.8000;0.1595;0.4221;
479.1000;0.1538;0.4125;
479.4000;0.1595;0.4221;
479.7000;0.1563;0.4101;
480.0000;0.1604;0.4292;
480.3000;0.1652;0.4388;
480.6000;0.1620;0.4244;
480.9000;0.1587;0.4125;
481.2000;0.1571;0.4101;
481.5000;0.1579;0.4221;
481.8000;0.1644;0.4292;
482.1000;0.1579;0.4101;
482.4000;0.1473;0.3839;
482.7000;0.1571;0.4197;
483.0000;0.1579;0.4244;
483.3000;0.1604;0.4268;
483.6000;0.1571;0.4197;
483.9000;0.1555;0.4101;
484.2000;0.1587;0.4197;
484.5000;0.1587;0.4173;
484.8000;0.1579;0.4221;
485.1000;0.1587;0.4244;
485.4000;0.1579;0.4244;
485.7000;0.1595;0.4316;
486.0000;0.1595;0.4268;
486.3000;0.1587;0.4149;
486.6000;0.1612;0.4221;
486.9000;0.1563;0.4149;
487.2000;0.1612;0.4221;
487.5000;0.1587;0.4268;
487.8000;0.1563;0.4197;
488.1000;0.1579;0.4221;
488.4000;0.1563;0.4149;
488.7000;0.1604;0.4149;
489.0000;0.1579;0.4101;
489.3000;0.1587;0.4244;
489.6000;0.1595;0.4292;
489.9000;0.1579;0.4268;
490.2000;0.1604;0.4364;
490.5000;0.1595;0.4364;
490.8000;0.1587;0.4340;
491.1000;0.1612;0.4411;
491.4000;0.1571;0.4268;
491.7000;0.1595;0.4340;
492.0000;0.1612;0.4364;
492.3000;0.1595;0.4268;
492.6000;0.1587;0.4221;
492.9000;0.1620;0.4292;
493.2000;0.1579;0.4149;
493.5000;0.1563;0.4078;
493.8000;0.1587;0.4364;
494.1000;0.1612;0.4483;
494.4000;0.1547;0.4316;
494.7000;0.1571;0.4435;
495.0000;0.1595;0.4578;
495.3000;0.1563;0.4554;
495.6000;0.1579;0.4554;
495.9000;0.1595;0.4507;
496.2000;0.1595;0.4507;
496.5000;0.1522;0.4316;
496.8000;0.1587;0.4459;
497.1000;0.1620;0.4531;
497.4000;0.1579;0.4388;
497.7000;0.1587;0.4459;
498.0000;0.1604;0.4531;
498.3000;0.1563;0.4507;
498.6000;0.1579;0.4602;
498.9000;0.1587;0.4578;
499.2000;0.1465;0.4197;
499.5000;0.1579;0.4554;
499.8000;0.1563;0.4459;
500.1000;0.1612;0.4531;
500.4000;0.1587;0.4459;
500.7000;0.1579;0.4388;
501.0000;0.1538;0.4292;
501.3000;0.1595;0.4435;
501.6000;0.1571;0.4411;
501.9000;0.1538;0.4292;
502.2000;0.1595;0.4435;
502.5000;0.1587;0.4435;
502.8000;0.1579;0.4459;
503.1000;0.1571;0.4483;
503.4000;0.1579;0.4364;
503.7000;0.1587;0.4411;
504.0000;0.1579;0.4459;
504.3000;0.1587;0.4435;
504.6000;0.1587;0.4459;
504.9000;0.1563;0.4364;
505.2000;0.1612;0.4483;
505.5000;0.1587;0.4388;
505.8000;0.1595;0.4388;
506.1000;0.1579;0.4340;
506.4000;0.1538;0.4173;
506.7000;0.1473;0.4078;
507.0000;0.1579;0.4316;
507.3000;0.1579;0.4244;
507.6000;0.1595;0.4316;
507.9000;0.1587;0.4316;
508.2000;0.1587;0.4268;
508.5000;0.1612;0.4292;
508.8000;0.1571;0.4221;
509.1000;0.1604;0.4268;
509.4000;0.1595;0.4316;
509.7000;0.1628;0.4435;
510.0000;0.1587;0.4244;
510.3000;0.1595;0.4316;
510.6000;0.1620;0.4364;
510.9000;0.1563;0.4221;
511.2000;0.1612;0.4388;
511.5000;0.1612;0.4411;
511.8000;0.1587;0.4459;
512.1000;0.1579;0.4435;
512.4000;0.1604;0.4411;
512.7000;0.1587;0.4459;
513.0000;0.1620;0.4531;
513.3000;0.1595;0.4483;
513.6000;0.1579;0.4435;
513.9000;0.1604;0.4459;
514.2000;0.1604;0.4435;
514.5000;0.1595;0.4435;
514.8000;0.1555;0.4244;
515.1000;0.1571;0.4316;
515.4000;0.1587;0.4388;
515.7000;0.1595;0.4411;
516.0000;0.1579;0.4340;
516.3000;0.1661;0.4578;
516.6000;0.1587;0.4364;
516.9000;0.1555;0.4244;
517.2000;0.1595;0.4435;
517.5000;0.1571;0.4340;
517.8000;0.1677;0.4650;
518.1000;0.1595;0.4364;
518.4000;0.1652;0.4411;
518.7000;0.1571;0.4221;
519.0000;0.1604;0.4316;
519.3000;0.1595;0.4411;
519.6000;0.1571;0.4364;
519.9000;0.1636;0.4578;
520.2000;0.1563;0.4388;
520.5000;0.1595;0.4483;
520.8000;0.1563;0.4459;
521.1000;0.1563;0.4411;
521.4000;0.1587;0.4531;
521.7000;0.1579;0.4531;
522.0000;0.1604;0.4602;
522.3000;0.1587;0.4531;
522.6000;0.1579;0.4483;
522.9000;0.1693;0.4769;
523.2000;0.1587;0.4459;
523.5000;0.1587;0.4411;
523.8000;0.1579;0.4340;
524.1000;0.1579;0.4364;
524.4000;0.1587;0.4340;
524.7000;0.1595;0.4316;
525.0000;0.1587;0.4244;
525.3000;0.1669;0.4531;
525.6000;0.1579;0.4316;
525.9000;0.1604;0.4411;
526.2000;0.1612;0.4507;
526.5000;0.1587;0.4435;
526.8000;0.1604;0.4531;
527.1000;0.1587;0.4531;
527.4000;0.1669;0.4721;
527.7000;0.1579;0.4388;
528.0000;0.1595;0.4340;
528.3000;0.1604;0.4388;
528.6000;0.1595;0.4388;
528.9000;0.1604;0.4388;
529.2000;0.1579;0.4364;
529.5000;0.1604;0.4435;
529.8000;0.1595;0.4411;
530.1000;0.1595;0.4483;
530.4000;0.1587;0.4507;
530.7000;0.1587;0.4483;
531.0000;0.1571;0.4388;
531.3000;0.1571;0.4316;
531.6000;0.1587;0.4292;
531.9000;0.1579;0.4268;
532.2000;0.1604;0.4364;
532.5000;0.1604;0.4340;
532.8000;0.1571;0.4244;
533.1000;0.1555;0.4197;
533.4000;0.1579;0.4268;
533.7000;0.1612;0.4388;
534.0000;0.1579;0.4388;
534.3000;0.1595;0.4340;
534.6000;0.1530;0.4197;
534.9000;0.1579;0.4388;
535.2000;0.1555;0.4388;
535.5000;0.1563;0.4388;
535.8000;0.1571;0.4459;
536.1000;0.1595;0.4507;
536.4000;0.1587;0.4554;
536.7000;0.1612;0.4531;
537.0000;0.1473;0.4149;
537.3000;0.1587;0.4364;
537.6000;0.1693;0.4650;
537.9000;0.1587;0.4411;
538.2000;0.1604;0.4483;
538.5000;0.1612;0.4435;
538.8000;0.1742;0.4721;
539.1000;0.1555;0.4197;
539.4000;0.1587;0.4316;
539.7000;0.1604;0.4340;
540.0000;0.1579;0.4316;
540.3000;0.1587;0.4316;
540.6000;0.1571;0.4292;
540.9000;0.1571;0.4268;
541.2000;0.1579;0.4388;
541.5000;0.1604;0.4435;
541.8000;0.1571;0.4316;
542.1000;0.1595;0.4459;
542.4000;0.1587;0.4435;
542.7000;0.1571;0.4411;
543.0000;0.1571;0.4316;
543.3000;0.1563;0.4268;
543.6000;0.1587;0.4411;
543.9000;0.1555;0.4364;
544.2000;0.1587;0.4507;
544.5000;0.1587;0.4626;
544.8000;0.1620;0.4745;
545.1000;0.1604;0.4626;
545.4000;0.1595;0.4650;
545.7000;0.1595;0.4626;
546.0000;0.1587;0.4578;
546.3000;0.1579;0.4459;
546.6000;0.1595;0.4411;
546.9000;0.1490;0.4030;
547.2000;0.1612;0.4411;
547.5000;0.1587;0.4268;
547.8000;0.1579;0.4197;
548.1000;0.1669;0.4364;
548.4000;0.1571;0.4173;
548.7000;0.1604;0.4292;
549.0000;0.1587;0.4244;
549.3000;0.1652;0.4554;
549.6000;0.1595;0.4411;
549.9000;0.1587;0.4435;
550.2000;0.1595;0.4435;
550.5000;0.1538;0.4292;
550.8000;0.1595;0.4364;
551.1000;0.1620;0.4411;
551.4000;0.1579;0.4388;
551.7000;0.1506;0.4197;
552.0000;0.1571;0.4244;
552.3000;0.1595;0.4364;
552.6000;0.1587;0.4435;
552.9000;0.1595;0.4507;
553.2000;0.1587;0.4459;
553.5000;0.1571;0.4316;
553.8000;0.1579;0.4292;
554.1000;0.1587;0.4292;
554.4000;0.1579;0.4316;
554.7000;0.1571;0.4340;
555.0000;0.1579;0.4221;
555.3000;0.1604;0.4292;
555.6000;0.1587;0.4244;
555.9000;0.1595;0.4221;
556.2000;0.1587;0.4292;
556.5000;0.1579;0.4364;
556.8000;0.1620;0.4411;
557.1000;0.1595;0.4364;
557.4000;0.1604;0.4292;
557.7000;0.1587;0.4340;
558.0000;0.1595;0.4435;
558.3000;0.1579;0.4388;
558.6000;0.1595;0.4435;
558.9000;0.1587;0.4459;
559.2000;0.1571;0.4483;
559.5000;0.1595;0.4483;
559.8000;0.1571;0.4411;
560.1000;0.1595;0.4388;
560.4000;0.1579;0.4364;
560.7000;0.1587;0.4459;
561.0000;0.1587;0.4507;
561.3000;0.1579;0.4483;
561.6000;0.1604;0.4554;
561.9000;0.1587;0.4507;
562.2000;0.1595;0.4531;
562.5000;0.1587;0.4459;
562.8000;0.1595;0.4507;
563.1000;0.1587;0.4554;
563.4000;0.1595;0.4626;
563.7000;0.1563;0.4578;
564.0000;0.1571;0.4507;
564.3000;0.1514;0.4340;
564.6000;0.1579;0.4507;
564.9000;0.1514;0.4340;
565.2000;0.1587;0.4459;
565.5000;0.1579;0.4483;
565.8000;0.1490;0.4364;
566.1000;0.1555;0.4411;
566.4000;0.1579;0.4435;
566.7000;0.1473;0.4173;
567.0000;0.1595;0.4483;
567.3000;0.1612;0.4554;
567.6000;0.1604;0.4602;
567.9000;0.1571;0.4507;
568.2000;0.1595;0.4531;
568.5000;0.1595;0.4531;
568.8000;0.1587;0.4459;
569.1000;0.1587;0.4364;
569.4000;0.1571;0.4411;
569.7000;0.1538;0.4364;
570.0000;0.1612;0.4483;
570.3000;0.1661;0.4626;
570.6000;0.1579;0.4507;
570.9000;0.1579;0.4364;
571.2000;0.1547;0.4316;
571.5000;0.1595;0.4411;
571.8000;0.1571;0.4340;
572.1000;0.1652;0.4578;
572.4000;0.1595;0.4435;
572.7000;0.1571;0.4411;
573.0000;0.1595;0.4364;
573.3000;0.1652;0.4531;
573.6000;0.1604;0.4364;
573.9000;0.1522;0.4101;
574.2000;0.1595;0.4244;
574.5000;0.1612;0.4340;
574.8000;0.1604;0.4268;
575.1000;0.1620;0.4292;
575.4000;0.1595;0.4268;
575.7000;0.1579;0.4221;
576.0000;0.1587;0.4292;
576.3000;0.1587;0.4292;
576.6000;0.1604;0.4364;
576.9000;0.1595;0.4268;
577.2000;0.1579;0.4268;
577.5000;0.1473;0.3982;
577.8000;0.1595;0.4316;
578.1000;0.1555;0.4292;
578.4000;0.1652;0.4626;
578.7000;0.1604;0.4411;
579.0000;0.1604;0.4316;
579.3000;0.1579;0.4340;
579.6000;0.1587;0.4388;
579.9000;0.1579;0.4435;
580.2000;0.1579;0.4435;
580.5000;0.1571;0.4364;
580.8000;0.1595;0.4364;
581.1000;0.1563;0.4292;
581.4000;0.1595;0.4364;
581.7000;0.1587;0.4411;
582.0000;0.1587;0.4292;
582.3000;0.1604;0.4364;
582.6000;0.1587;0.4364;
582.9000;0.1604;0.4364;
583.2000;0.1595;0.4316;
583.5000;0.1612;0.4244;
583.8000;0.1579;0.4173;
584.1000;0.1579;0.4221;
584.4000;0.1595;0.4316;
584.7000;0.1604;0.4292;
585.0000;0.1571;0.4268;
585.3000;0.1604;0.4316;
585.6000;0.1579;0.4292;
585.9000;0.1652;0.4388;
586.2000;0.1522;0.4054;
586.5000;0.1498;0.3982;
586.8000;0.1587;0.4244;
587.1000;0.1563;0.4197;
587.4000;0.1587;0.4340;
587.7000;0.1595;0.4364;
588.0000;0.1644;0.4435;
588.3000;0.1595;0.4316;
588.6000;0.1587;0.4292;
588.9000;0.1604;0.4292;
589.2000;0.1530;0.4125;
589.5000;0.1587;0.4292;
589.8000;0.1579;0.4221;
590.1000;0.1595;0.4244;
590.4000;0.1587;0.4221;
590.7000;0.1514;0.4006;
591.0000;0.1538;0.4078;
591.3000;0.1579;0.4173;
591.6000;0.1579;0.4221;
591.9000;0.1636;0.4316;
592.2000;0.1571;0.4221;
592.5000;0.1579;0.4244;
592.8000;0.1587;0.4244;
593.1000;0.1677;0.4459;
593.4000;0.1579;0.4244;
593.7000;0.1571;0.4244;
594.0000;0.1538;0.4101;
594.3000;0.1547;0.4078;
594.6000;0.1595;0.4244;
594.9000;0.1644;0.4316;
595.2000;0.1595;0.4244;
595.5000;0.1595;0.4268;
595.8000;0.1571;0.4292;
596.1000;0.1595;0.4316;
596.4000;0.1579;0.4340;
596.7000;0.1604;0.4388;
597.0000;0.1604;0.4459;
597.3000;0.1587;0.4459;
597.6000;0.1612;0.4507;
597.9000;0.1604;0.4364;
598.2000;0.1579;0.4268;
598.5000;0.1587;0.4459;
598.8000;0.1571;0.4459;
599.1000;0.1563;0.4340;
599.4000;0.1587;0.4292;
599.7000;0.1604;0.4340;
600.0000;0.1563;0.4244;
600.3000;0.1587;0.4268;
600.6000;0.1571;0.4221;
600.9000;0.1579;0.4197;
601.2000;0.1571;0.4030;
601.5000;0.1555;0.3839;
601.8000;0.1498;0.3648;
602.1000;0.1571;0.3720;
602.4000;0.1571;0.3624;
602.7000;0.1563;0.3553;
603.0000;0.1563;0.3410;
603.3000;0.1547;0.3314;
603.6000;0.1555;0.3291;
603.9000;0.1538;0.3195;
604.2000;0.1547;0.3124;
604.5000;0.1547;0.3124;
604.8000;0.1555;0.3195;
605.1000;0.1530;0.3148;
605.4000;0.1538;0.3243;
605.7000;0.1538;0.3148;
606.0000;0.1547;0.3148;
606.3000;0.1538;0.3076;
606.6000;0.1538;0.3076;
606.9000;0.1555;0.3124;
607.2000;0.1522;0.2981;
607.5000;0.1506;0.2933;
607.8000;0.1538;0.2957;
608.1000;0.1506;0.2766;
608.4000;0.1522;0.2885;
608.7000;0.1547;0.2957;
609.0000;0.1620;0.3124;
609.3000;0.1530;0.2933;
609.6000;0.1644;0.3195;
609.9000;0.1693;0.3314;
610.2000;0.1425;0.2599;
610.5000;0.1522;0.2933;
610.8000;0.1530;0.2861;
611.1000;0.1612;0.3100;
611.4000;0.1522;0.2909;
611.7000;0.1506;0.2766;
612.0000;0.1669;0.3219;
612.3000;0.1555;0.2885;
612.6000;0.1628;0.3124;
612.9000;0.1514;0.2814;
613.2000;0.1522;0.2909;
613.5000;0.1530;0.2909;
613.8000;0.1530;0.2933;
614.1000;0.1514;0.3005;
614.4000;0.1538;0.3148;
614.7000;0.1506;0.3124;
615.0000;0.1538;0.3148;
615.3000;0.1522;0.3005;
615.6000;0.1530;0.2885;
615.9000;0.1530;0.2885;
616.2000;0.1522;0.2766;
616.5000;0.1514;0.2718;
616.8000;0.1522;0.2718;
617.1000;0.1595;0.2790;
617.4000;0.1522;0.2599;
617.7000;0.1538;0.2647;
618.0000;0.1498;0.2575;
618.3000;0.1538;0.2790;
618.6000;0.1490;0.2671;
618.9000;0.1506;0.2671;
619.2000;0.1514;0.2671;
619.5000;0.1465;0.2575;
619.8000;0.1522;0.2742;
620.1000;0.1465;0.2575;
620.4000;0.1522;0.2790;
620.7000;0.1555;0.2933;
621.0000;0.1530;0.2861;
621.3000;0.1506;0.2718;
621.6000;0.1538;0.2790;
621.9000;0.1514;0.2766;
622.2000;0.1530;0.2742;
622.5000;0.1514;0.2718;
622.8000;0.1530;0.2671;
623.1000;0.1498;0.2623;
623.4000;0.1514;0.2599;
623.7000;0.1506;0.2551;
624.0000;0.1530;0.2575;
624.3000;0.1522;0.2599;
624.6000;0.1514;0.2575;
624.9000;0.1547;0.2647;
625.2000;0.1530;0.2647;
625.5000;0.1514;0.2599;
625.8000;0.1490;0.2480;
626.1000;0.1522;0.2623;
626.4000;0.1522;0.2599;
626.7000;0.1514;0.2599;
627.0000;0.1530;0.2647;
627.3000;0.1538;0.2671;
627.6000;0.1514;0.2718;
627.9000;0.1530;0.2861;
628.2000;0.1481;0.2766;
628.5000;0.1457;0.2718;
628.8000;0.1506;0.2814;
629.1000;0.1530;0.2838;
629.4000;0.1522;0.2814;
629.7000;0.1498;0.2814;
630.0000;0.1522;0.2885;
630.3000;0.1530;0.2885;
630.6000;0.1506;0.2790;
630.9000;0.1514;0.2814;
631.2000;0.1514;0.2790;
631.5000;0.1514;0.2718;
631.8000;0.1522;0.2671;
632.1000;0.1530;0.2695;
632.4000;0.1506;0.2623;
632.7000;0.1522;0.2695;
633.0000;0.1490;0.2647;
633.3000;0.1604;0.2909;
633.6000;0.1522;0.2599;
633.9000;0.1571;0.2766;
634.2000;0.1530;0.2742;
634.5000;0.1498;0.2671;
634.8000;0.1400;0.2385;
635.1000;0.1506;0.2575;
635.4000;0.1514;0.2718;
635.7000;0.1490;0.2742;
636.0000;0.1514;0.2790;
636.3000;0.1555;0.2885;
636.6000;0.1490;0.2671;
636.9000;0.1547;0.2766;
637.2000;0.1522;0.2790;
637.5000;0.1514;0.2695;
637.8000;0.1522;0.2671;
638.1000;0.1530;0.2671;
638.4000;0.1506;0.2623;
638.7000;0.1538;0.2671;
639.0000;0.1547;0.2695;
639.3000;0.1514;0.2718;
639.6000;0.1514;0.2695;
639.9000;0.1522;0.2695;
640.2000;0.1563;0.2742;
640.5000;0.1506;0.2528;
640.8000;0.1522;0.2551;
641.1000;0.1506;0.2551;
641.4000;0.1498;0.2575;
641.7000;0.1514;0.2480;
642.0000;0.1514;0.2480;
642.3000;0.1514;0.2504;
642.6000;0.1514;0.2551;
642.9000;0.1514;0.2575;
643.2000;0.1514;0.2575;
643.5000;0.1555;0.2790;
643.8000;0.1506;0.2671;
644.1000;0.1441;0.2480;
644.4000;0.1481;0.2742;
644.7000;0.1506;0.2718;
645.0000;0.1498;0.2742;
645.3000;0.1481;0.2671;
645.6000;0.1490;0.2671;
645.9000;0.1506;0.2671;
646.2000;0.1490;0.2623;
646.5000;0.1587;0.2933;
646.8000;0.1522;0.2790;
647.1000;0.1514;0.2790;
647.4000;0.1514;0.2766;
647.7000;0.1498;0.2718;
648.0000;0.1490;0.2695;
648.3000;0.1514;0.2838;
648.6000;0.1473;0.2814;
648.9000;0.1514;0.2861;
649.2000;0.1522;0.2838;
649.5000;0.1514;0.2838;
649.8000;0.1530;0.2814;
650.1000;0.1514;0.2814;
650.4000;0.1506;0.2814;
650.7000;0.1506;0.2861;
651.0000;0.1506;0.2814;
651.3000;0.1514;0.2814;
651.6000;0.1522;0.2790;
651.9000;0.1481;0.2695;
652.2000;0.1506;0.2718;
652.5000;0.1506;0.2718;
652.8000;0.1490;0.2599;
653.1000;0.1506;0.2695;
653.4000;0.1490;0.2695;
653.7000;0.1490;0.2718;
654.0000;0.1522;0.2790;
654.3000;0.1514;0.2742;
654.6000;0.1547;0.2742;
654.9000;0.1555;0.2885;
655.2000;0.1522;0.2790;
655.5000;0.1506;0.2742;
655.8000;0.1433;0.2575;
656.1000;0.1506;0.2742;
656.4000;0.1514;0.2885;
656.7000;0.1506;0.2885;
657.0000;0.1514;0.2838;
657.3000;0.1498;0.2790;
657.6000;0.1490;0.2766;
657.9000;0.1457;0.2671;
658.2000;0.1530;0.2838;
658.5000;0.1506;0.2742;
658.8000;0.1498;0.2718;
659.1000;0.1522;0.2766;
659.4000;0.1498;0.2647;
659.7000;0.1473;0.2599;
660.0000;0.1604;0.2814;
660.3000;0.1522;0.2623;
660.6000;0.1498;0.2647;
660.9000;0.1506;0.2671;
661.2000;0.1514;0.2647;
661.5000;0.1530;0.2695;
661.8000;0.1514;0.2599;
662.1000;0.1506;0.2623;
662.4000;0.1514;0.2742;
662.7000;0.1563;0.2861;
663.0000;0.1498;0.2790;
663.3000;0.1530;0.2790;
663.6000;0.1506;0.2718;
663.9000;0.1506;0.2742;
664.2000;0.1514;0.2814;
664.5000;0.1490;0.2742;
664.8000;0.1481;0.2695;
665.1000;0.1571;0.2838;
665.4000;0.1530;0.2766;
665.7000;0.1555;0.2814;
666.0000;0.1506;0.2599;
666.3000;0.1522;0.2671;
666.6000;0.1514;0.2599;
666.9000;0.1571;0.2695;
667.2000;0.1506;0.2361;
667.5000;0.1514;0.2361;
667.8000;0.1506;0.2456;
668.1000;0.1620;0.2861;
668.4000;0.1498;0.2480;
668.7000;0.1490;0.2480;
669.0000;0.1498;0.2480;
669.3000;0.1498;0.2504;
669.6000;0.1498;0.2456;
669.9000;0.1522;0.2385;
670.2000;0.1514;0.2385;
670.5000;0.1514;0.2408;
670.8000;0.1514;0.2385;
671.1000;0.1506;0.2385;
671.4000;0.1506;0.2361;
671.7000;0.1530;0.2432;
672.0000;0.1498;0.2385;
672.3000;0.1498;0.2432;
672.6000;0.1506;0.2480;
672.9000;0.1522;0.2528;
673.2000;0.1514;0.2528;
673.5000;0.1514;0.2551;
673.8000;0.1490;0.2385;
674.1000;0.1506;0.2504;
674.4000;0.1522;0.2551;
674.7000;0.1522;0.2551;
675.0000;0.1506;0.2528;
675.3000;0.1522;0.2528;
675.6000;0.1400;0.2170;
675.9000;0.1522;0.2528;
676.2000;0.1530;0.2575;
676.5000;0.1514;0.2480;
676.8000;0.1530;0.2480;
677.1000;0.1522;0.2456;
677.4000;0.1522;0.2504;
677.7000;0.1506;0.2504;
678.0000;0.1530;0.2575;
678.3000;0.1522;0.2599;
678.6000;0.1514;0.2528;
678.9000;0.1530;0.2528;
679.2000;0.1514;0.2504;
679.5000;0.1506;0.2528;
679.8000;0.1530;0.2623;
680.1000;0.1530;0.2599;
680.4000;0.1498;0.2599;
680.7000;0.1506;0.2671;
681.0000;0.1449;0.2623;
681.3000;0.1498;0.2695;
681.6000;0.1490;0.2575;
681.9000;0.1506;0.2575;
682.2000;0.1481;0.2528;
682.5000;0.1506;0.2528;
682.8000;0.1498;0.2528;
683.1000;0.1490;0.2528;
683.4000;0.1498;0.2480;
683.7000;0.1514;0.2599;
684.0000;0.1612;0.2838;
684.3000;0.1481;0.2456;
684.6000;0.1490;0.2504;
684.9000;0.1498;0.2456;
685.2000;0.1498;0.2504;
685.5000;0.1498;0.2528;
685.8000;0.1522;0.2575;
686.1000;0.1506;0.2528;
686.4000;0.1506;0.2504;
686.7000;0.1514;0.2575;
687.0000;0.1555;0.2766;
687.3000;0.1490;0.2671;
687.6000;0.1498;0.2718;
687.9000;0.1514;0.2647;
688.2000;0.1481;0.2575;
688.5000;0.1506;0.2551;
688.8000;0.1571;0.2695;
689.1000;0.1319;0.2051;
689.4000;0.1490;0.2528;
689.7000;0.1400;0.2241;
690.0000;0.1392;0.2241;
690.3000;0.1506;0.2480;
690.6000;0.1506;0.2385;
690.9000;0.1563;0.2551;
691.2000;0.1506;0.2432;
691.5000;0.1506;0.2504;
691.8000;0.1506;0.2504;
692.1000;0.1563;0.2695;
692.4000;0.1522;0.2551;
692.7000;0.1498;0.2456;
693.0000;0.1522;0.2480;
693.3000;0.1506;0.2504;
693.6000;0.1506;0.2551;
693.9000;0.1473;0.2432;
694.2000;0.1506;0.2528;
694.5000;0.1506;0.2504;
694.8000;0.1490;0.2432;
695.1000;0.1514;0.2551;
695.4000;0.1490;0.2480;
695.7000;0.1506;0.2337;
696.0000;0.1514;0.2265;
696.3000;0.1522;0.2265;
696.6000;0.1506;0.2337;
696.9000;0.1514;0.2361;
697.2000;0.1514;0.2337;
697.5000;0.1506;0.2313;
697.8000;0.1522;0.2337;
698.1000;0.1522;0.2337;
698.4000;0.1490;0.2265;
698.7000;0.1506;0.2218;
699.0000;0.1522;0.2289;
699.3000;0.1490;0.2122;
699.6000;0.1563;0.2289;
699.9000;0.1498;0.2194;
700.2000;0.1490;0.2265;
700.5000;0.1384;0.1955;
700.8000;0.1514;0.2313;
701.1000;0.1522;0.2408;
701.4000;0.1465;0.2313;
701.7000;0.1498;0.2313;
702.0000;0.1530;0.2480;
702.3000;0.1506;0.2408;
702.6000;0.1628;0.2790;
702.9000;0.1506;0.2408;
703.2000;0.1547;0.2623;
703.5000;0.1457;0.2385;
703.8000;0.1514;0.2575;
704.1000;0.1530;0.2742;
704.4000;0.1498;0.2623;
704.7000;0.1490;0.2504;
705.0000;0.1498;0.2551;
705.3000;0.1571;0.2790;
705.6000;0.1449;0.2504;
705.9000;0.1604;0.2838;
706.2000;0.1628;0.2933;
706.5000;0.1555;0.2742;
706.8000;0.1530;0.2599;
707.1000;0.1498;0.2551;
707.4000;0.1490;0.2599;
707.7000;0.1522;0.2695;
708.0000;0.1473;0.2599;
708.3000;0.1506;0.2695;
708.6000;0.1514;0.2718;
708.9000;0.1547;0.2790;
709.2000;0.1506;0.2671;
709.5000;0.1522;0.2814;
709.8000;0.1522;0.2885;
710.1000;0.1498;0.2790;
710.4000;0.1538;0.2861;
710.7000;0.1498;0.2814;
711.0000;0.1498;0.2766;
711.3000;0.1506;0.2766;
711.6000;0.1473;0.2718;
711.9000;0.1514;0.2718;
712.2000;0.1514;0.2766;
712.5000;0.1522;0.2814;
712.8000;0.1481;0.2718;
713.1000;0.1473;0.2528;
713.4000;0.1522;0.2647;
713.7000;0.1514;0.2647;
714.0000;0.1506;0.2647;
714.3000;0.1490;0.2647;
714.6000;0.1506;0.2671;
714.9000;0.1490;0.2623;
715.2000;0.1506;0.2671;
715.5000;0.1547;0.2838;
715.8000;0.1498;0.2718;
716.1000;0.1457;0.2623;
716.4000;0.1498;0.2742;
716.7000;0.1506;0.2718;
717.0000;0.1514;0.2790;
717.3000;0.1514;0.2766;
717.6000;0.1522;0.2623;
717.9000;0.1506;0.2551;
718.2000;0.1514;0.2528;
718.5000;0.1506;0.2456;
718.8000;0.1522;0.2575;
719.1000;0.1498;0.2432;
719.4000;0.1490;0.2456;
719.7000;0.1522;0.2575;
720.0000;0.1506;0.2456;
720.3000;0.1498;0.2528;
720.6000;0.1490;0.2623;
720.9000;0.1563;0.2814;
721.2000;0.1530;0.2742;
721.5000;0.1506;0.2742;
721.8000;0.1433;0.2647;
722.1000;0.1506;0.2790;
722.4000;0.1522;0.2933;
722.7000;0.1514;0.2814;
723.0000;0.1481;0.2718;
723.3000;0.1506;0.2766;
723.6000;0.1514;0.2766;
723.9000;0.1555;0.2885;
724.2000;0.1506;0.2718;
724.5000;0.1506;0.2766;
724.8000;0.1441;0.2647;
725.1000;0.1433;0.2575;
725.4000;0.1506;0.2790;
725.7000;0.1392;0.2432;
726.0000;0.1473;0.2695;
726.3000;0.1416;0.2480;
726.6000;0.1514;0.2671;
726.9000;0.1506;0.2647;
727.2000;0.1506;0.2623;
727.5000;0.1571;0.2838;
727.8000;0.1498;0.2718;
728.1000;0.1481;0.2695;
728.4000;0.1530;0.2814;
728.7000;0.1498;0.2766;
729.0000;0.1538;0.2814;
729.3000;0.1425;0.2480;
729.6000;0.1473;0.2599;
729.9000;0.1490;0.2647;
730.2000;0.1538;0.2718;
730.5000;0.1490;0.2671;
730.8000;0.1481;0.2647;
731.1000;0.1506;0.2766;
731.4000;0.1538;0.2838;
731.7000;0.1514;0.2814;
732.0000;0.1392;0.2432;
732.3000;0.1498;0.2766;
732.6000;0.1538;0.2861;
732.9000;0.1481;0.2695;
733.2000;0.1514;0.2742;
733.5000;0.1465;0.2623;
733.8000;0.1498;0.2718;
734.1000;0.1465;0.2647;
734.4000;0.1506;0.2766;
734.7000;0.1506;0.2742;
735.0000;0.1514;0.2695;
735.3000;0.1498;0.2599;
735.6000;0.1457;0.2456;
735.9000;0.1498;0.2599;
736.2000;0.1514;0.2647;
736.5000;0.1514;0.2742;
736.8000;0.1490;0.2623;
737.1000;0.1490;0.2623;
737.4000;0.1514;0.2647;
737.7000;0.1490;0.2671;
738.0000;0.1481;0.2623;
738.3000;0.1473;0.2671;
738.6000;0.1400;0.2432;
738.9000;0.1506;0.2790;
739.2000;0.1498;0.2695;
739.5000;0.1498;0.2742;
739.8000;0.1514;0.2814;
740.1000;0.1473;0.2718;
740.4000;0.1538;0.2909;
740.7000;0.1498;0.2790;
741.0000;0.1506;0.2838;
741.3000;0.1514;0.2814;
741.6000;0.1514;0.2861;
741.9000;0.1522;0.2838;
742.2000;0.1514;0.2814;
742.5000;0.1481;0.2790;
742.8000;0.1595;0.3171;
743.1000;0.1522;0.2957;
743.4000;0.1522;0.2957;
743.7000;0.1490;0.2909;
744.0000;0.1498;0.2909;
744.3000;0.1498;0.2885;
744.6000;0.1563;0.2981;
744.9000;0.1514;0.2766;
745.2000;0.1498;0.2742;
745.5000;0.1530;0.2838;
745.8000;0.1514;0.2885;
746.1000;0.1522;0.2861;
746.4000;0.1490;0.2766;
746.7000;0.1530;0.2909;
747.0000;0.1514;0.2838;
747.3000;0.1506;0.2766;
747.6000;0.1490;0.2718;
747.9000;0.1514;0.2695;
748.2000;0.1514;0.2695;
748.5000;0.1498;0.2790;
748.8000;0.1522;0.2790;
749.1000;0.1408;0.2480;
749.4000;0.1514;0.2909;
749.7000;0.1514;0.2933;
750.0000;0.1481;0.2885;
750.3000;0.1498;0.2838;
750.6000;0.1522;0.2933;
750.9000;0.1506;0.2957;
751.2000;0.1473;0.2861;
751.5000;0.1490;0.2885;
751.8000;0.1522;0.3005;
752.1000;0.1538;0.3052;
752.4000;0.1384;0.2623;
752.7000;0.1506;0.2838;
753.0000;0.1514;0.2861;
753.3000;0.1490;0.2814;
753.6000;0.1498;0.2790;
753.9000;0.1522;0.2838;
754.2000;0.1506;0.2790;
754.5000;0.1522;0.2838;
754.8000;0.1538;0.2861;
755.1000;0.1530;0.2861;
755.4000;0.1498;0.2861;
755.7000;0.1538;0.2933;
756.0000;0.1490;0.2861;
756.3000;0.1538;0.3052;
756.6000;0.1514;0.3028;
756.9000;0.1498;0.2909;
757.2000;0.1522;0.2981;
757.5000;0.1522;0.2957;
757.8000;0.1506;0.2838;
758.1000;0.1522;0.2814;
758.4000;0.1522;0.2814;
758.7000;0.1522;0.2742;
759.0000;0.1506;0.2671;
759.3000;0.1506;0.2718;
759.6000;0.1481;0.2695;
759.9000;0.1514;0.2647;
760.2000;0.1522;0.2790;
760.5000;0.1481;0.2695;
760.8000;0.1498;0.2766;
761.1000;0.1490;0.2742;
761.4000;0.1498;0.2695;
761.7000;0.1547;0.2909;
762.0000;0.1514;0.2718;
762.3000;0.1514;0.2599;
762.6000;0.1522;0.2742;
762.9000;0.1498;0.2718;
763.2000;0.1498;0.2718;
763.5000;0.1449;0.2575;
763.8000;0.1498;0.2742;
764.1000;0.1604;0.3005;
764.4000;0.1514;0.2742;
764.7000;0.1514;0.2742;
765.0000;0.1522;0.2623;
765.3000;0.1473;0.2385;
765.6000;0.1481;0.2432;
765.9000;0.1506;0.2575;
766.2000;0.1506;0.2599;
766.5000;0.1506;0.2623;
766.8000;0.1498;0.2623;
767.1000;0.1506;0.2623;
767.4000;0.1490;0.2551;
767.7000;0.1473;0.2551;
768.0000;0.1506;0.2623;
768.3000;0.1506;0.2671;
768.6000;0.1514;0.2718;
768.9000;0.1514;0.2790;
769.2000;0.1506;0.2695;
769.5000;0.1514;0.2695;
769.8000;0.1457;0.2551;
770.1000;0.1473;0.2647;
770.4000;0.1514;0.2718;
770.7000;0.1498;0.2742;
771.0000;0.1506;0.2838;
771.3000;0.1457;0.2647;
771.6000;0.1522;0.2766;
771.9000;0.1506;0.2718;
772.2000;0.1498;0.2695;
772.5000;0.1514;0.2766;
772.8000;0.1490;0.2695;
773.1000;0.1498;0.2766;
773.4000;0.1506;0.2814;
773.7000;0.1514;0.2814;
774.0000;0.1481;0.2671;
774.3000;0.1481;0.2671;
774.6000;0.1514;0.2695;
774.9000;0.1547;0.2766;
775.2000;0.1449;0.2528;
775.5000;0.1555;0.2838;
775.8000;0.1571;0.2766;
776.1000;0.1514;0.2623;
776.4000;0.1506;0.2599;
776.7000;0.1522;0.2671;
777.0000;0.1473;0.2528;
777.3000;0.1465;0.2528;
777.6000;0.1522;0.2742;
777.9000;0.1514;0.2742;
778.2000;0.1506;0.2790;
778.5000;0.1481;0.2790;
778.8000;0.1473;0.2838;
779.1000;0.1530;0.3028;
779.4000;0.1506;0.2909;
779.7000;0.1547;0.3028;
780.0000;0.1555;0.3100;
780.3000;0.1514;0.2981;
780.6000;0.1522;0.2838;
780.9000;0.1465;0.2766;
781.2000;0.1555;0.2957;
781.5000;0.1498;0.2766;
781.8000;0.1506;0.2766;
782.1000;0.1425;0.2528;
782.4000;0.1498;0.2695;
782.7000;0.1530;0.2814;
783.0000;0.1425;0.2623;
783.3000;0.1490;0.2790;
783.6000;0.1457;0.2814;
783.9000;0.1555;0.3100;
784.2000;0.1506;0.2981;
784.5000;0.1481;0.2838;
784.8000;0.1481;0.2885;
785.1000;0.1514;0.2933;
785.4000;0.1522;0.3005;
785.7000;0.1506;0.2981;
786.0000;0.1490;0.2957;
786.3000;0.1506;0.3005;
786.6000;0.1595;0.3338;
786.9000;0.1522;0.3148;
787.2000;0.1498;0.3100;
787.5000;0.1530;0.3148;
787.8000;0.1498;0.3076;
788.1000;0.1563;0.3195;
788.4000;0.1514;0.3148;
788.7000;0.1416;0.3005;
789.0000;0.1506;0.3219;
789.3000;0.1506;0.3243;
789.6000;0.1498;0.3219;
789.9000;0.1514;0.3171;
790.2000;0.1522;0.3219;
790.5000;0.1506;0.3195;
790.8000;0.1571;0.3243;
791.1000;0.1522;0.3100;
791.4000;0.1498;0.2981;
791.7000;0.1547;0.3124;
792.0000;0.1506;0.3076;
792.3000;0.1506;0.2933;
792.6000;0.1498;0.2838;
792.9000;0.1498;0.2838;
793.2000;0.1506;0.2814;
793.5000;0.1498;0.2861;
793.8000;0.1522;0.2981;
794.1000;0.1506;0.2981;
794.4000;0.1514;0.3100;
794.7000;0.1514;0.3052;
795.0000;0.1522;0.3052;
795.3000;0.1514;0.2957;
795.6000;0.1514;0.2909;
795.9000;0.1522;0.2861;
796.2000;0.1490;0.2838;
796.5000;0.1481;0.2790;
796.8000;0.1457;0.2718;
797.1000;0.1473;0.2814;
797.4000;0.1449;0.2790;
797.7000;0.1481;0.2885;
798.0000;0.1376;0.2528;
798.3000;0.1490;0.2790;
798.6000;0.1465;0.2671;
798.9000;0.1481;0.2718;
799.2000;0.1392;0.2528;
799.5000;0.1490;0.2861;
799.8000;0.1547;0.2981;
800.1000;0.1481;0.2766;
800.4000;0.1441;0.2575;
800.7000;0.1514;0.2885;
801.0000;0.1481;0.2838;
801.3000;0.1522;0.2957;
801.6000;0.1473;0.2861;
801.9000;0.1514;0.3028;
802.2000;0.1555;0.3124;
802.5000;0.1506;0.2933;
802.8000;0.1514;0.2861;
803.1000;0.1481;0.2838;
803.4000;0.1441;0.2695;
803.7000;0.1490;0.2838;
804.0000;0.1490;0.2933;
804.3000;0.1506;0.2933;
804.6000;0.1506;0.2957;
804.9000;0.1530;0.2981;
805.2000;0.1490;0.2909;
805.5000;0.1498;0.2957;
805.8000;0.1514;0.3005;
806.1000;0.1465;0.2909;
806.4000;0.1514;0.2909;
806.7000;0.1547;0.2933;
807.0000;0.1547;0.3005;
807.3000;0.1481;0.2885;
807.6000;0.1473;0.2838;
807.9000;0.1490;0.2838;
808.2000;0.1481;0.2742;
808.5000;0.1498;0.2766;
808.8000;0.1514;0.2861;
809.1000;0.1490;0.2885;
809.4000;0.1473;0.2838;
809.7000;0.1481;0.2933;
810.0000;0.1465;0.2957;
810.3000;0.1457;0.2838;
810.6000;0.1498;0.2814;
810.9000;0.1514;0.2790;
811.2000;0.1498;0.2790;
811.5000;0.1498;0.2766;
811.8000;0.1449;0.2790;
812.1000;0.1481;0.2814;
812.4000;0.1498;0.2909;
812.7000;0.1522;0.2957;
813.0000;0.1498;0.2790;
813.3000;0.1465;0.2742;
813.6000;0.1506;0.2790;
813.9000;0.1506;0.2861;
814.2000;0.1498;0.2861;
814.5000;0.1514;0.2885;
814.8000;0.1490;0.2814;
815.1000;0.1514;0.2790;
815.4000;0.1522;0.2838;
815.7000;0.1490;0.2718;
816.0000;0.1490;0.2718;
816.3000;0.1538;0.2790;
816.6000;0.1498;0.2766;
816.9000;0.1506;0.2671;
817.2000;0.1522;0.2718;
817.5000;0.1522;0.2671;
817.8000;0.1522;0.2671;
818.1000;0.1514;0.2718;
818.4000;0.1506;0.2766;
818.7000;0.1514;0.2838;
819.0000;0.1538;0.2909;
819.3000;0.1498;0.2909;
819.6000;0.1433;0.2814;
819.9000;0.1538;0.3076;
820.2000;0.1490;0.3028;
820.5000;0.1571;0.3195;
820.8000;0.1530;0.3076;
821.1000;0.1490;0.2885;
821.4000;0.1563;0.3076;
821.7000;0.1498;0.2766;
822.0000;0.1530;0.2814;
822.3000;0.1579;0.3028;
822.6000;0.1530;0.2861;
822.9000;0.1595;0.2957;
823.2000;0.1506;0.2647;
823.5000;0.1612;0.2909;
823.8000;0.1530;0.2718;
824.1000;0.1514;0.2695;
824.4000;0.1555;0.2838;
824.7000;0.1481;0.2742;
825.0000;0.1514;0.2861;
825.3000;0.1408;0.2575;
825.6000;0.1481;0.2766;
825.9000;0.1457;0.2647;
826.2000;0.1408;0.2599;
826.5000;0.1465;0.2790;
826.8000;0.1490;0.2861;
827.1000;0.1530;0.2957;
827.4000;0.1506;0.2885;
827.7000;0.1506;0.2838;
828.0000;0.1514;0.2861;
828.3000;0.1530;0.2885;
828.6000;0.1514;0.2885;
828.9000;0.1514;0.2861;
829.2000;0.1555;0.2981;
829.5000;0.1522;0.2814;
829.8000;0.1490;0.2790;
830.1000;0.1571;0.2909;
830.4000;0.1490;0.2790;
830.7000;0.1457;0.2623;
831.0000;0.1490;0.2695;
831.3000;0.1506;0.2766;
831.6000;0.1506;0.2838;
831.9000;0.1498;0.2766;
832.2000;0.1498;0.2742;
832.5000;0.1498;0.2790;
832.8000;0.1498;0.2861;
833.1000;0.1522;0.2814;
833.4000;0.1514;0.2861;
833.7000;0.1538;0.2861;
834.0000;0.1506;0.2790;
834.3000;0.1514;0.2838;
834.6000;0.1563;0.3028;
834.9000;0.1498;0.2838;
835.2000;0.1498;0.2838;
835.5000;0.1506;0.2814;
835.8000;0.1530;0.2861;
836.1000;0.1498;0.2814;
836.4000;0.1506;0.2742;
836.7000;0.1498;0.2742;
837.0000;0.1490;0.2695;
837.3000;0.1506;0.2647;
837.6000;0.1490;0.2671;
837.9000;0.1359;0.2337;
838.2000;0.1506;0.2695;
838.5000;0.1490;0.2623;
838.8000;0.1530;0.2742;
839.1000;0.1506;0.2647;
839.4000;0.1506;0.2599;
839.7000;0.1514;0.2551;
840.0000;0.1506;0.2480;
840.3000;0.1506;0.2504;
840.6000;0.1498;0.2504;
840.9000;0.1514;0.2456;
841.2000;0.1506;0.2432;
841.5000;0.1473;0.2361;
841.8000;0.1498;0.2504;
842.1000;0.1506;0.2599;
842.4000;0.1506;0.2432;
842.7000;0.1571;0.2528;
843.0000;0.1571;0.2647;
843.3000;0.1563;0.2695;
843.6000;0.1506;0.2647;
843.9000;0.1514;0.2671;
844.2000;0.1498;0.2528;
844.5000;0.1522;0.2647;
844.8000;0.1522;0.2623;
845.1000;0.1498;0.2551;
845.4000;0.1530;0.2742;
845.7000;0.1498;0.2671;
846.0000;0.1506;0.2599;
846.3000;0.1636;0.3005;
846.6000;0.1506;0.2623;
846.9000;0.1530;0.2647;
847.2000;0.1514;0.2575;
847.5000;0.1408;0.2218;
847.8000;0.1506;0.2504;
848.1000;0.1490;0.2480;
848.4000;0.1498;0.2504;
848.7000;0.1538;0.2647;
849.0000;0.1498;0.2504;
849.3000;0.1449;0.2408;
849.6000;0.1481;0.2480;
849.9000;0.1522;0.2575;
850.2000;0.1547;0.2599;
850.5000;0.1498;0.2432;
850.8000;0.1498;0.2385;
851.1000;0.1522;0.2337;
851.4000;0.1514;0.2337;
851.7000;0.1498;0.2385;
852.0000;0.1490;0.2385;
852.3000;0.1506;0.2456;
852.6000;0.1538;0.2575;
852.9000;0.1498;0.2408;
853.2000;0.1514;0.2408;
853.5000;0.1522;0.2408;
853.8000;0.1514;0.2408;
854.1000;0.1498;0.2385;
854.4000;0.1514;0.2480;
854.7000;0.1490;0.2551;
855.0000;0.1514;0.2623;
855.3000;0.1498;0.2504;
855.6000;0.1571;0.2766;
855.9000;0.1506;0.2599;
856.2000;0.1506;0.2599;
856.5000;0.1506;0.2551;
856.8000;0.1530;0.2599;
857.1000;0.1498;0.2456;
857.4000;0.1522;0.2528;
857.7000;0.1506;0.2504;
858.0000;0.1506;0.2504;
858.3000;0.1490;0.2480;
858.6000;0.1514;0.2528;
858.9000;0.1522;0.2695;
859.2000;0.1351;0.2289;
859.5000;0.1490;0.2671;
859.8000;0.1506;0.2647;
860.1000;0.1514;0.2695;
860.4000;0.1514;0.2671;
860.7000;0.1457;0.2599;
861.0000;0.1506;0.2742;
861.3000;0.1506;0.2718;
861.6000;0.1498;0.2599;
861.9000;0.1506;0.2599;
862.2000;0.1530;0.2623;
862.5000;0.1506;0.2695;
862.8000;0.1587;0.2933;
863.1000;0.1522;0.2790;
863.4000;0.1522;0.2718;
863.7000;0.1473;0.2551;
864.0000;0.1473;0.2528;
864.3000;0.1498;0.2575;
864.6000;0.1498;0.2575;
864.9000;0.1522;0.2623;
865.2000;0.1506;0.2671;
865.5000;0.1538;0.2766;
865.8000;0.1514;0.2790;
866.1000;0.1563;0.2814;
866.4000;0.1498;0.2623;
866.7000;0.1522;0.2671;
867.0000;0.1457;0.2528;
867.3000;0.1490;0.2647;
867.6000;0.1498;0.2671;
867.9000;0.1506;0.2647;
868.2000;0.1530;0.2718;
868.5000;0.1506;0.2599;
868.8000;0.1481;0.2504;
869.1000;0.1547;0.2742;
869.4000;0.1490;0.2575;
869.7000;0.1490;0.2456;
870.0000;0.1490;0.2504;
870.3000;0.1514;0.2528;
870.6000;0.1530;0.2695;
870.9000;0.1498;0.2695;
871.2000;0.1490;0.2695;
871.5000;0.1563;0.2766;
871.8000;0.1498;0.2647;
872.1000;0.1498;0.2647;
872.4000;0.1514;0.2671;
872.7000;0.1522;0.2647;
873.0000;0.1514;0.2671;
873.3000;0.1473;0.2599;
873.6000;0.1506;0.2623;
873.9000;0.1498;0.2647;
874.2000;0.1481;0.2647;
874.5000;0.1555;0.2885;
874.8000;0.1384;0.2432;
875.1000;0.1392;0.2504;
875.4000;0.1498;0.2742;
875.7000;0.1498;0.2766;
876.0000;0.1530;0.2766;
876.3000;0.1522;0.2814;
876.6000;0.1490;0.2766;
876.9000;0.1522;0.2909;
877.2000;0.1506;0.2790;
877.5000;0.1514;0.2718;
877.8000;0.1514;0.2742;
878.1000;0.1514;0.2766;
878.4000;0.1514;0.2718;
878.7000;0.1498;0.2695;
879.0000;0.1498;0.2671;
879.3000;0.1473;0.2599;
879.6000;0.1506;0.2766;
879.9000;0.1481;0.2695;
880.2000;0.1514;0.2838;
880.5000;0.1490;0.2790;
880.8000;0.1498;0.2695;
881.1000;0.1498;0.2718;
881.4000;0.1498;0.2671;
881.7000;0.1481;0.2647;
882.0000;0.1481;0.2647;
882.3000;0.1522;0.2718;
882.6000;0.1522;0.2671;
882.9000;0.1481;0.2528;
883.2000;0.1522;0.2528;
883.5000;0.1498;0.2599;
883.8000;0.1522;0.2599;
884.1000;0.1400;0.2408;
884.4000;0.1514;0.2766;
884.7000;0.1506;0.2742;
885.0000;0.1522;0.2742;
885.3000;0.1481;0.2742;
885.6000;0.1506;0.2766;
885.9000;0.1498;0.2861;
886.2000;0.1506;0.2861;
886.5000;0.1514;0.2909;
886.8000;0.1498;0.2838;
887.1000;0.1514;0.2790;
887.4000;0.1498;0.2742;
887.7000;0.1530;0.2695;
888.0000;0.1506;0.2647;
888.3000;0.1498;0.2647;
888.6000;0.1514;0.2742;
888.9000;0.1506;0.2671;
889.2000;0.1465;0.2599;
889.5000;0.1506;0.2695;
889.8000;0.1514;0.2695;
890.1000;0.1514;0.2623;
890.4000;0.1506;0.2647;
890.7000;0.1547;0.2718;
891.0000;0.1441;0.2408;
891.3000;0.1506;0.2623;
891.6000;0.1506;0.2695;
891.9000;0.1498;0.2671;
892.2000;0.1506;0.2599;
892.5000;0.1522;0.2623;
892.8000;0.1473;0.2504;
893.1000;0.1522;0.2551;
893.4000;0.1538;0.2599;
893.7000;0.1400;0.2265;
894.0000;0.1506;0.2575;
894.3000;0.1514;0.2551;
894.6000;0.1498;0.2504;
894.9000;0.1498;0.2504;
895.2000;0.1530;0.2504;
895.5000;0.1498;0.2480;
895.8000;0.1490;0.2504;
896.1000;0.1514;0.2551;
896.4000;0.1506;0.2623;
896.7000;0.1498;0.2647;
897.0000;0.1490;0.2742;
897.3000;0.1498;0.2861;
897.6000;0.1498;0.2838;
897.9000;0.1522;0.2909;
898.2000;0.1538;0.2933;
898.5000;0.1498;0.2838;
898.8000;0.1522;0.2933;
899.1000;0.1530;0.2766;
899.4000;0.1530;0.2671;
899.7000;0.1473;0.2504;
900.0000;0.1506;0.2599;
900.3000;0.1514;0.2599;
900.6000;0.1498;0.2599;
900.9000;0.1506;0.2623;
901.2000;0.1506;0.2623;
901.5000;0.1506;0.2718;
901.8000;0.1514;0.2742;
902.1000;0.1498;0.2599;
902.4000;0.1498;0.2623;
902.7000;0.1490;0.2647;
903.0000;0.1506;0.2742;
903.3000;0.1498;0.2695;
903.6000;0.1514;0.2671;
903.9000;0.1514;0.2647;
904.2000;0.1522;0.2647;
904.5000;0.1498;0.2718;
904.8000;0.1506;0.2766;
905.1000;0.1506;0.2766;
905.4000;0.1506;0.2766;
905.7000;0.1506;0.2718;
906.0000;0.1547;0.2861;
906.3000;0.1506;0.2695;
906.6000;0.1522;0.2838;
906.9000;0.1514;0.2909;
907.2000;0.1490;0.2838;
907.5000;0.1490;0.2766;
907.8000;0.1547;0.3005;
908.1000;0.1498;0.2861;
908.4000;0.1506;0.2838;
908.7000;0.1506;0.2861;
909.0000;0.1522;0.2861;
909.3000;0.1514;0.2909;
909.6000;0.1498;0.2838;
909.9000;0.1506;0.2838;
910.2000;0.1514;0.2790;
910.5000;0.1530;0.2742;
910.8000;0.1384;0.2337;
911.1000;0.1514;0.2671;
911.4000;0.1498;0.2718;
911.7000;0.1457;0.2695;
912.0000;0.1506;0.2766;
912.3000;0.1530;0.2766;
912.6000;0.1481;0.2718;
912.9000;0.1547;0.2861;
913.2000;0.1530;0.2790;
913.5000;0.1587;0.2981;
913.8000;0.1465;0.2647;
914.1000;0.1473;0.2671;
914.4000;0.1408;0.2504;
914.7000;0.1522;0.2718;
915.0000;0.1595;0.2909;
915.3000;0.1514;0.2671;
915.6000;0.1514;0.2575;
915.9000;0.1538;0.2575;
916.2000;0.1514;0.2456;
916.5000;0.1441;0.2313;
916.8000;0.1416;0.2170;
917.1000;0.1514;0.2408;
917.4000;0.1522;0.2385;
917.7000;0.1498;0.2361;
918.0000;0.1498;0.2385;
918.3000;0.1490;0.2456;
918.6000;0.1506;0.2432;
918.9000;0.1473;0.2337;
919.2000;0.1481;0.2361;
919.5000;0.1506;0.2504;
919.8000;0.1555;0.2695;
920.1000;0.1481;0.2480;
920.4000;0.1514;0.2599;
920.7000;0.1506;0.2575;
921.0000;0.1498;0.2528;
921.3000;0.1506;0.2504;
921.6000;0.1481;0.2385;
921.9000;0.1530;0.2528;
922.2000;0.1506;0.2504;
922.5000;0.1498;0.2575;
922.8000;0.1498;0.2623;
923.1000;0.1522;0.2718;
923.4000;0.1506;0.2647;
923.7000;0.1571;0.2790;
924.0000;0.1490;0.2647;
924.3000;0.1530;0.2647;
924.6000;0.1473;0.2408;
924.9000;0.1514;0.2575;
925.2000;0.1522;0.2551;
925.5000;0.1490;0.2480;
925.8000;0.1563;0.2623;
926.1000;0.1522;0.2456;
926.4000;0.1506;0.2480;
926.7000;0.1522;0.2504;
927.0000;0.1506;0.2480;
927.3000;0.1514;0.2480;
927.6000;0.1514;0.2504;
927.9000;0.1506;0.2504;
928.2000;0.1522;0.2623;
928.5000;0.1514;0.2623;
928.8000;0.1506;0.2599;
929.1000;0.1498;0.2599;
929.4000;0.1490;0.2528;
929.7000;0.1498;0.2504;
930.0000;0.1425;0.2313;
930.3000;0.1506;0.2599;
930.6000;0.1498;0.2599;
930.9000;0.1473;0.2432;
931.2000;0.1506;0.2480;
931.5000;0.1506;0.2504;
931.8000;0.1408;0.2289;
932.1000;0.1490;0.2575;
932.4000;0.1490;0.2623;
932.7000;0.1514;0.2623;
933.0000;0.1506;0.2623;
933.3000;0.1506;0.2599;
933.6000;0.1530;0.2623;
933.9000;0.1514;0.2599;
934.2000;0.1514;0.2647;
934.5000;0.1481;0.2528;
934.8000;0.1490;0.2599;
935.1000;0.1506;0.2695;
935.4000;0.1530;0.2790;
935.7000;0.1555;0.2766;
936.0000;0.1530;0.2814;
936.3000;0.1506;0.2838;
936.6000;0.1514;0.2885;
936.9000;0.1506;0.2766;
937.2000;0.1506;0.2838;
937.5000;0.1506;0.2766;
937.8000;0.1522;0.2838;
938.1000;0.1514;0.2742;
938.4000;0.1506;0.2695;
938.7000;0.1465;0.2528;
939.0000;0.1563;0.2742;
939.3000;0.1506;0.2599;
939.6000;0.1514;0.2790;
939.9000;0.1481;0.2814;
940.2000;0.1506;0.2814;
940.5000;0.1522;0.2718;
940.8000;0.1465;0.2551;
941.1000;0.1498;0.2671;
941.4000;0.1465;0.2575;
941.7000;0.1490;0.2504;
942.0000;0.1514;0.2599;
942.3000;0.1506;0.2551;
942.6000;0.1400;0.2289;
942.9000;0.1506;0.2480;
943.2000;0.1522;0.2599;
943.5000;0.1490;0.2647;
943.8000;0.1408;0.2456;
944.1000;0.1522;0.2695;
944.4000;0.1522;0.2671;
944.7000;0.1530;0.2695;
945.0000;0.1498;0.2671;
945.3000;0.1571;0.2838;
945.6000;0.1490;0.2623;
945.9000;0.1506;0.2623;
946.2000;0.1514;0.2623;
946.5000;0.1514;0.2599;
946.8000;0.1514;0.2647;
947.1000;0.1514;0.2671;
947.4000;0.1579;0.2838;
947.7000;0.1514;0.2623;
948.0000;0.1506;0.2575;
948.3000;0.1514;0.2575;
948.6000;0.1498;0.2647;
948.9000;0.1522;0.2671;
949.2000;0.1587;0.2814;
949.5000;0.1514;0.2647;
949.8000;0.1490;0.2480;
950.1000;0.1498;0.2480;
950.4000;0.1498;0.2480;
950.7000;0.1514;0.2528;
951.0000;0.1522;0.2480;
951.3000;0.1514;0.2432;
951.6000;0.1490;0.2385;
951.9000;0.1530;0.2456;
952.2000;0.1481;0.2337;
952.5000;0.1498;0.2408;
952.8000;0.1579;0.2718;
953.1000;0.1392;0.2194;
953.4000;0.1530;0.2599;
953.7000;0.1538;0.2647;
954.0000;0.1433;0.2337;
954.3000;0.1506;0.2575;
954.6000;0.1425;0.2313;
954.9000;0.1351;0.2194;
955.2000;0.1522;0.2551;
955.5000;0.1506;0.2480;
955.8000;0.1547;0.2623;
956.1000;0.1506;0.2456;
956.4000;0.1498;0.2432;
956.7000;0.1579;0.2647;
957.0000;0.1522;0.2385;
957.3000;0.1498;0.2408;
957.6000;0.1506;0.2504;
957.9000;0.1490;0.2528;
958.2000;0.1498;0.2575;
958.5000;0.1538;0.2647;
958.8000;0.1514;0.2695;
959.1000;0.1522;0.2623;
959.4000;0.1514;0.2599;
959.7000;0.1506;0.2575;
960.0000;0.1522;0.2623;
960.3000;0.1514;0.2575;
960.6000;0.1490;0.2504;
960.9000;0.1506;0.2623;
961.2000;0.1538;0.2671;
961.5000;0.1514;0.2599;
961.8000;0.1473;0.2504;
962.1000;0.1498;0.2623;
962.4000;0.1530;0.2742;
962.7000;0.1522;0.2742;
963.0000;0.1547;0.2814;
963.3000;0.1498;0.2623;
963.6000;0.1506;0.2623;
963.9000;0.1498;0.2528;
964.2000;0.1530;0.2551;
964.5000;0.1522;0.2575;
964.8000;0.1498;0.2599;
965.1000;0.1538;0.2766;
965.4000;0.1547;0.2790;
965.7000;0.1490;0.2671;
966.0000;0.1522;0.2790;
966.3000;0.1392;0.2408;
966.6000;0.1514;0.2790;
966.9000;0.1514;0.2838;
967.2000;0.1473;0.2838;
967.5000;0.1498;0.2909;
967.8000;0.1514;0.2933;
968.1000;0.1538;0.2885;
968.4000;0.1538;0.2933;
968.7000;0.1481;0.2766;
969.0000;0.1481;0.2671;
969.3000;0.1465;0.2695;
969.6000;0.1522;0.2861;
969.9000;0.1522;0.2838;
970.2000;0.1506;0.2790;
970.5000;0.1522;0.2790;
970.8000;0.1506;0.2718;
971.1000;0.1522;0.2861;
971.4000;0.1506;0.2861;
971.7000;0.1514;0.2838;
972.0000;0.1498;0.2766;
972.3000;0.1498;0.2647;
972.6000;0.1481;0.2551;
972.9000;0.1481;0.2456;
973.2000;0.1465;0.2408;
973.5000;0.1473;0.2456;
973.8000;0.1465;0.2504;
974.1000;0.1522;0.2575;
974.4000;0.1530;0.2599;
974.7000;0.1425;0.2361;
975.0000;0.1522;0.2551;
975.3000;0.1490;0.2480;
975.6000;0.1457;0.2456;
975.9000;0.1481;0.2528;
976.2000;0.1490;0.2504;
976.5000;0.1490;0.2504;
976.8000;0.1473;0.2480;
977.1000;0.1579;0.2742;
977.4000;0.1514;0.2599;
977.7000;0.1449;0.2408;
978.0000;0.1506;0.2575;
978.3000;0.1506;0.2551;
978.6000;0.1506;0.2480;
978.9000;0.1490;0.2480;
979.2000;0.1506;0.2623;
979.5000;0.1506;0.2551;
979.8000;0.1555;0.2695;
980.1000;0.1506;0.2551;
980.4000;0.1530;0.2647;
980.7000;0.1506;0.2647;
981.0000;0.1522;0.2671;
981.3000;0.1481;0.2599;
981.6000;0.1498;0.2647;
981.9000;0.1514;0.2671;
982.2000;0.1449;0.2575;
982.5000;0.1498;0.2695;
982.8000;0.1506;0.2814;
983.1000;0.1498;0.2790;
983.4000;0.1530;0.2909;
983.7000;0.1595;0.2957;
984.0000;0.1506;0.2695;
984.3000;0.1490;0.2742;
984.6000;0.1538;0.2838;
984.9000;0.1498;0.2718;
985.2000;0.1506;0.2790;
985.5000;0.1514;0.2861;
985.8000;0.1408;0.2599;
986.1000;0.1514;0.2909;
986.4000;0.1522;0.2957;
986.7000;0.1530;0.2981;
987.0000;0.1555;0.3148;
987.3000;0.1506;0.3028;
987.6000;0.1530;0.2981;
987.9000;0.1506;0.2838;
988.2000;0.1514;0.2742;
988.5000;0.1547;0.2838;
988.8000;0.1498;0.2766;
989.1000;0.1514;0.2766;
989.4000;0.1514;0.2814;
989.7000;0.1490;0.2718;
990.0000;0.1498;0.2647;
990.3000;0.1498;0.2695;
990.6000;0.1416;0.2528;
990.9000;0.1538;0.2861;
991.2000;0.1514;0.2790;
991.5000;0.1522;0.2718;
991.8000;0.1506;0.2623;
992.1000;0.1481;0.2551;
992.4000;0.1595;0.2861;
992.7000;0.1514;0.2742;
993.0000;0.1490;0.2742;
993.3000;0.1538;0.2885;
993.6000;0.1506;0.2718;
993.9000;0.1490;0.2718;
994.2000;0.1425;0.2599;
994.5000;0.1587;0.2957;
994.8000;0.1522;0.2838;
995.1000;0.1547;0.2933;
995.4000;0.1514;0.2814;
995.7000;0.1498;0.2718;
996.0000;0.1514;0.2766;
996.3000;0.1416;0.2551;
996.6000;0.1498;0.2695;
996.9000;0.1514;0.2695;
997.2000;0.1514;0.2671;
997.5000;0.1506;0.2599;
997.8000;0.1522;0.2575;
998.1000;0.1587;0.2790;
998.4000;0.1514;0.2551;
998.7000;0.1530;0.2599;
999.0000;0.1547;0.2671;
999.3000;0.1506;0.2528;
999.6000;0.1498;0.2551;
999.9000;0.1498;0.2551;
1000.2000;0.1514;0.2551;
1000.5000;0.1465;0.2385;
1000.8000;0.1644;0.2933;
1001.1000;0.1498;0.2480;
1001.4000;0.1498;0.2408;
1001.7000;0.1490;0.2504;
1002.0000;0.1490;0.2528;
1002.3000;0.1514;0.2575;
1002.6000;0.1514;0.2695;
1002.9000;0.1571;0.2909;
1003.2000;0.1530;0.2814;
1003.5000;0.1514;0.2814;
1003.8000;0.1465;0.2742;
1004.1000;0.1547;0.2957;
1004.4000;0.1498;0.2861;
1004.7000;0.1547;0.2909;
1005.0000;0.1514;0.2790;
1005.3000;0.1514;0.2766;
1005.6000;0.1579;0.2981;
1005.9000;0.1530;0.2790;
1006.2000;0.1490;0.2718;
1006.5000;0.1514;0.2766;
1006.8000;0.1506;0.2814;
1007.1000;0.1408;0.2551;
1007.4000;0.1522;0.2790;
1007.7000;0.1522;0.2790;
1008.0000;0.1506;0.2718;
1008.3000;0.1522;0.2766;
1008.6000;0.1579;0.2933;
1008.9000;0.1481;0.2718;
1009.2000;0.1514;0.2790;
1009.5000;0.1514;0.2766;
1009.8000;0.1506;0.2718;
1010.1000;0.1457;0.2623;
1010.4000;0.1416;0.2599;
1010.7000;0.1547;0.2885;
1011.0000;0.1563;0.2981;
1011.3000;0.1490;0.2861;
1011.6000;0.1506;0.2933;
1011.9000;0.1457;0.2814;
1012.2000;0.1498;0.2885;
1012.5000;0.1498;0.2957;
1012.8000;0.1547;0.3124;
1013.1000;0.1506;0.3100;
1013.4000;0.1506;0.3100;
1013.7000;0.1538;0.3100;
1014.0000;0.1481;0.2957;
1014.3000;0.1425;0.2838;
1014.6000;0.1490;0.2933;
1014.9000;0.1490;0.2957;
1015.2000;0.1522;0.3052;
1015.5000;0.1514;0.3100;
1015.8000;0.1498;0.3076;
1016.1000;0.1506;0.3076;
1016.4000;0.1514;0.3100;
1016.7000;0.1506;0.3052;
1017.0000;0.1498;0.3005;
1017.3000;0.1441;0.2766;
1017.6000;0.1506;0.2838;
1017.9000;0.1506;0.2814;
1018.2000;0.1457;0.2623;
1018.5000;0.1579;0.2885;
1018.8000;0.1530;0.2742;
1019.1000;0.1514;0.2718;
1019.4000;0.1595;0.2981;
1019.7000;0.1498;0.2695;
1020.0000;0.1522;0.2718;
1020.3000;0.1522;0.2671;
1020.6000;0.1457;0.2504;
1020.9000;0.1506;0.2599;
1021.2000;0.1498;0.2647;
1021.5000;0.1514;0.2671;
1021.8000;0.1506;0.2718;
1022.1000;0.1522;0.2861;
1022.4000;0.1514;0.2861;
1022.7000;0.1481;0.2909;
1023.0000;0.1514;0.2933;
1023.3000;0.1514;0.3005;
1023.6000;0.1490;0.2885;
1023.9000;0.1490;0.2861;
1024.2000;0.1538;0.2861;
1024.5000;0.1522;0.2814;
1024.8000;0.1506;0.2742;
1025.1000;0.1514;0.2766;
1025.4000;0.1636;0.3028;
1025.7000;0.1522;0.2766;
1026.0000;0.1514;0.2718;
1026.3000;0.1490;0.2623;
1026.6000;0.1498;0.2575;
1026.9000;0.1498;0.2528;
1027.2000;0.1490;0.2599;
1027.5000;0.1506;0.2718;
1027.8000;0.1481;0.2647;
1028.1000;0.1498;0.2742;
1028.4000;0.1514;0.2790;
1028.7000;0.1506;0.2814;
1029.0000;0.1481;0.2695;
1029.3000;0.1498;0.2814;
1029.6000;0.1506;0.2790;
1029.9000;0.1490;0.2718;
1030.2000;0.1490;0.2671;
1030.5000;0.1514;0.2766;
1030.8000;0.1473;0.2671;
1031.1000;0.1449;0.2551;
1031.4000;0.1498;0.2718;
1031.7000;0.1498;0.2742;
1032.0000;0.1506;0.2790;
1032.3000;0.1506;0.2790;
1032.6000;0.1506;0.2766;
1032.9000;0.1392;0.2504;
1033.2000;0.1506;0.2885;
1033.5000;0.1620;0.3148;
1033.8000;0.1514;0.2909;
1034.1000;0.1441;0.2623;
1034.4000;0.1547;0.2933;
1034.7000;0.1538;0.2814;
1035.0000;0.1538;0.2814;
1035.3000;0.1530;0.2766;
1035.6000;0.1481;0.2742;
1035.9000;0.1449;0.2551;
1036.2000;0.1416;0.2504;
1036.5000;0.1449;0.2575;
1036.8000;0.1498;0.2742;
1037.1000;0.1530;0.2814;
1037.4000;0.1579;0.2838;
1037.7000;0.1514;0.2671;
1038.0000;0.1514;0.2742;
1038.3000;0.1498;0.2766;
1038.6000;0.1490;0.2814;
1038.9000;0.1506;0.2814;
1039.2000;0.1481;0.2695;
1039.5000;0.1498;0.2742;
1039.8000;0.1473;0.2647;
1040.1000;0.1612;0.2957;
1040.4000;0.1506;0.2742;
1040.7000;0.1522;0.2814;
1041.0000;0.1514;0.2814;
1041.3000;0.1514;0.2766;
1041.6000;0.1538;0.2766;
1041.9000;0.1522;0.2718;
1042.2000;0.1514;0.2623;
1042.5000;0.1514;0.2551;
1042.8000;0.1530;0.2623;
1043.1000;0.1498;0.2575;
1043.4000;0.1506;0.2575;
1043.7000;0.1514;0.2528;
1044.0000;0.1498;0.2504;
1044.3000;0.1514;0.2456;
1044.6000;0.1595;0.2695;
1044.9000;0.1530;0.2551;
1045.2000;0.1522;0.2599;
1045.5000;0.1506;0.2575;
1045.8000;0.1522;0.2671;
1046.1000;0.1522;0.2742;
1046.4000;0.1604;0.2957;
1046.7000;0.1408;0.2599;
1047.0000;0.1514;0.2790;
1047.3000;0.1498;0.2790;
1047.6000;0.1522;0.2933;
1047.9000;0.1514;0.2885;
1048.2000;0.1498;0.2861;
1048.5000;0.1538;0.2909;
1048.8000;0.1547;0.2981;
1049.1000;0.1563;0.3052;
1049.4000;0.1506;0.2933;
1049.7000;0.1498;0.2861;
1050.0000;0.1400;0.2671;
1050.3000;0.1530;0.2933;
1050.6000;0.1506;0.2790;
1050.9000;0.1498;0.2766;
1051.2000;0.1514;0.2790;
1051.5000;0.1522;0.2742;
1051.8000;0.1636;0.3076;
1052.1000;0.1506;0.2718;
1052.4000;0.1538;0.2742;
1052.7000;0.1490;0.2647;
1053.0000;0.1498;0.2647;
1053.3000;0.1530;0.2790;
1053.6000;0.1490;0.2647;
1053.9000;0.1465;0.2599;
1054.2000;0.1481;0.2599;
1054.5000;0.1449;0.2456;
1054.8000;0.1538;0.2623;
1055.1000;0.1522;0.2671;
1055.4000;0.1498;0.2671;
1055.7000;0.1514;0.2742;
1056.0000;0.1481;0.2695;
1056.3000;0.1514;0.2647;
1056.6000;0.1522;0.2599;
1056.9000;0.1473;0.2504;
1057.2000;0.1490;0.2456;
1057.5000;0.1490;0.2432;
1057.8000;0.1481;0.2480;
1058.1000;0.1530;0.2575;
1058.4000;0.1530;0.2647;
1058.7000;0.1498;0.2551;
1059.0000;0.1506;0.2695;
1059.3000;0.1530;0.2766;
1059.6000;0.1490;0.2766;
1059.9000;0.1522;0.2885;
1060.2000;0.1538;0.2838;
1060.5000;0.1522;0.2933;
1060.8000;0.1506;0.2981;
1061.1000;0.1522;0.2957;
1061.4000;0.1498;0.2909;
1061.7000;0.1547;0.2981;
1062.0000;0.1514;0.2814;
1062.3000;0.1514;0.2695;
1062.6000;0.1522;0.2790;
1062.9000;0.1514;0.2861;
1063.2000;0.1514;0.2957;
1063.5000;0.1522;0.2885;
1063.8000;0.1490;0.2838;
1064.1000;0.1514;0.2790;
1064.4000;0.1498;0.2742;
1064.7000;0.1506;0.2695;
1065.0000;0.1490;0.2695;
1065.3000;0.1481;0.2695;
1065.6000;0.1457;0.2599;
1065.9000;0.1498;0.2742;
1066.2000;0.1465;0.2623;
1066.5000;0.1522;0.2766;
1066.8000;0.1530;0.2838;
1067.1000;0.1473;0.2695;
1067.4000;0.1498;0.2790;
1067.7000;0.1506;0.2790;
1068.0000;0.1490;0.2695;
1068.3000;0.1522;0.2790;
1068.6000;0.1571;0.2933;
1068.9000;0.1530;0.2838;
1069.2000;0.1530;0.2814;
1069.5000;0.1530;0.2742;
1069.8000;0.1490;0.2647;
1070.1000;0.1514;0.2671;
1070.4000;0.1514;0.2766;
1070.7000;0.1416;0.2528;
1071.0000;0.1555;0.2885;
1071.3000;0.1490;0.2766;
1071.6000;0.1522;0.2861;
1071.9000;0.1433;0.2647;
1072.2000;0.1490;0.2814;
1072.5000;0.1514;0.2861;
1072.8000;0.1498;0.2814;
1073.1000;0.1579;0.3005;
1073.4000;0.1514;0.2766;
1073.7000;0.1408;0.2480;
1074.0000;0.1506;0.2647;
1074.3000;0.1506;0.2671;
1074.6000;0.1514;0.2695;
1074.9000;0.1514;0.2718;
1075.2000;0.1498;0.2599;
1075.5000;0.1530;0.2575;
1075.8000;0.1481;0.2504;
1076.1000;0.1498;0.2647;
1076.4000;0.1514;0.2671;
1076.7000;0.1498;0.2599;
1077.0000;0.1506;0.2575;
1077.3000;0.1498;0.2551;
1077.6000;0.1514;0.2504;
1077.9000;0.1490;0.2504;
1078.2000;0.1563;0.2885;
1078.5000;0.1506;0.2766;
1078.8000;0.1522;0.2885;
1079.1000;0.1538;0.2981;
1079.4000;0.1498;0.2838;
1079.7000;0.1481;0.2885;
1080.0000;0.1506;0.2981;
1080.3000;0.1498;0.2957;
1080.6000;0.1506;0.2933;
1080.9000;0.1522;0.2981;
1081.2000;0.1514;0.2909;
1081.5000;0.1506;0.2861;
1081.8000;0.1522;0.2909;
1082.1000;0.1522;0.2861;
1082.4000;0.1473;0.2766;
1082.7000;0.1530;0.2933;
1083.0000;0.1506;0.2814;
1083.3000;0.1522;0.2838;
1083.6000;0.1514;0.2838;
1083.9000;0.1530;0.2766;
1084.2000;0.1506;0.2671;
1084.5000;0.1498;0.2695;
1084.8000;0.1530;0.2838;
1085.1000;0.1522;0.2909;
1085.4000;0.1514;0.2909;
1085.7000;0.1490;0.2838;
1086.0000;0.1506;0.2790;
1086.3000;0.1628;0.3195;
1086.6000;0.1571;0.2981;
1086.9000;0.1481;0.2718;
1087.2000;0.1522;0.2814;
1087.5000;0.1506;0.2718;
1087.8000;0.1392;0.2480;
1088.1000;0.1644;0.3124;
1088.4000;0.1514;0.2766;
1088.7000;0.1514;0.2766;
1089.0000;0.1498;0.2671;
1089.3000;0.1481;0.2599;
1089.6000;0.1506;0.2647;
1089.9000;0.1498;0.2695;
1090.2000;0.1514;0.2718;
1090.5000;0.1522;0.2814;
1090.8000;0.1506;0.2742;
1091.1000;0.1498;0.2742;
1091.4000;0.1506;0.2718;
1091.7000;0.1490;0.2695;
1092.0000;0.1522;0.2742;
1092.3000;0.1506;0.2718;
1092.6000;0.1530;0.2814;
1092.9000;0.1506;0.2814;
1093.2000;0.1506;0.2861;
1093.5000;0.1498;0.2861;
1093.8000;0.1506;0.2885;
1094.1000;0.1522;0.2838;
1094.4000;0.1555;0.2981;
1094.7000;0.1506;0.2885;
1095.0000;0.1384;0.2599;
1095.3000;0.1506;0.2814;
1095.6000;0.1481;0.2814;
1095.9000;0.1506;0.2814;
1096.2000;0.1514;0.2790;
1096.5000;0.1506;0.2814;
1096.8000;0.1481;0.2790;
1097.1000;0.1522;0.2814;
1097.4000;0.1506;0.2814;
1097.7000;0.1547;0.2909;
1098.0000;0.1514;0.2838;
1098.3000;0.1514;0.2885;
1098.6000;0.1498;0.2885;
1098.9000;0.1481;0.2861;
1099.2000;0.1514;0.2909;
1099.5000;0.1522;0.2909;
1099.8000;0.1506;0.2861;
1100.1000;0.1555;0.3028;
1100.4000;0.1522;0.2838;
1100.7000;0.1530;0.2766;
1101.0000;0.1522;0.2766;
1101.3000;0.1481;0.2814;
1101.6000;0.1522;0.2909;
1101.9000;0.1506;0.2790;
1102.2000;0.1522;0.2695;
1102.5000;0.1506;0.2623;
1102.8000;0.1506;0.2575;
1103.1000;0.1465;0.2432;
1103.4000;0.1522;0.2504;
1103.7000;0.1522;0.2599;
1104.0000;0.1498;0.2575;
1104.3000;0.1506;0.2599;
1104.6000;0.1498;0.2599;
1104.9000;0.1490;0.2504;
1105.2000;0.1522;0.2599;
1105.5000;0.1506;0.2528;
1105.8000;0.1481;0.2504;
1106.1000;0.1514;0.2504;
1106.4000;0.1498;0.2456;
1106.7000;0.1498;0.2361;
1107.0000;0.1498;0.2432;
1107.3000;0.1514;0.2432;
1107.6000;0.1514;0.2528;
1107.9000;0.1384;0.2194;
1108.2000;0.1538;0.2575;
1108.5000;0.1498;0.2480;
1108.8000;0.1498;0.2361;
1109.1000;0.1408;0.2122;
1109.4000;0.1481;0.2313;
1109.7000;0.1571;0.2575;
1110.0000;0.1506;0.2480;
1110.3000;0.1449;0.2241;
1110.6000;0.1490;0.2361;
1110.9000;0.1498;0.2432;
1111.2000;0.1400;0.2218;
1111.5000;0.1498;0.2551;
1111.8000;0.1498;0.2647;
1112.1000;0.1538;0.2742;
1112.4000;0.1522;0.2718;
1112.7000;0.1514;0.2814;
1113.0000;0.1498;0.2814;
1113.3000;0.1506;0.2766;
1113.6000;0.1538;0.2838;
1113.9000;0.1506;0.2766;
1114.2000;0.1522;0.2814;
1114.5000;0.1498;0.2742;
1114.8000;0.1636;0.3124;
1115.1000;0.1506;0.2718;
1115.4000;0.1473;0.2623;
1115.7000;0.1547;0.2742;
1116.0000;0.1522;0.2647;
1116.3000;0.1498;0.2575;
1116.6000;0.1481;0.2575;
1116.9000;0.1538;0.2695;
1117.2000;0.1498;0.2551;
1117.5000;0.1514;0.2623;
1117.8000;0.1530;0.2695;
1118.1000;0.1506;0.2623;
1118.4000;0.1514;0.2575;
1118.7000;0.1506;0.2528;
1119.0000;0.1498;0.2528;
1119.3000;0.1498;0.2456;
1119.6000;0.1514;0.2528;
1119.9000;0.1400;0.2194;
1120.2000;0.1547;0.2528;
1120.5000;0.1522;0.2551;
1120.8000;0.1514;0.2551;
1121.1000;0.1522;0.2575;
1121.4000;0.1506;0.2647;
1121.7000;0.1563;0.2742;
1122.0000;0.1506;0.2528;
1122.3000;0.1506;0.2623;
1122.6000;0.1530;0.2695;
1122.9000;0.1522;0.2695;
1123.2000;0.1506;0.2718;
1123.5000;0.1490;0.2528;
1123.8000;0.1506;0.2599;
1124.1000;0.1449;0.2385;
1124.4000;0.1498;0.2599;
1124.7000;0.1481;0.2599;
1125.0000;0.1587;0.2885;
1125.3000;0.1506;0.2671;
1125.6000;0.1498;0.2671;
1125.9000;0.1587;0.2957;
1126.2000;0.1481;0.2671;
1126.5000;0.1514;0.2742;
1126.8000;0.1587;0.2742;
1127.1000;0.1473;0.2456;
1127.4000;0.1490;0.2432;
1127.7000;0.1514;0.2408;
1128.0000;0.1555;0.2385;
1128.3000;0.1481;0.2218;
1128.6000;0.1481;0.2289;
1128.9000;0.1530;0.2361;
1129.2000;0.1506;0.2313;
1129.5000;0.1498;0.2289;
1129.8000;0.1506;0.2265;
1130.1000;0.1506;0.2265;
1130.4000;0.1530;0.2361;
1130.7000;0.1514;0.2432;
1131.0000;0.1514;0.2528;
1131.3000;0.1522;0.2599;
1131.6000;0.1433;0.2313;
1131.9000;0.1441;0.2337;
1132.2000;0.1506;0.2528;
1132.5000;0.1481;0.2528;
1132.8000;0.1506;0.2599;
1133.1000;0.1473;0.2408;
1133.4000;0.1449;0.2289;
1133.7000;0.1498;0.2504;
1134.0000;0.1506;0.2623;
1134.3000;0.1530;0.2718;
1134.6000;0.1538;0.2718;
1134.9000;0.1481;0.2575;
1135.2000;0.1457;0.2361;
1135.5000;0.1498;0.2504;
1135.8000;0.1514;0.2671;
1136.1000;0.1506;0.2647;
1136.4000;0.1490;0.2623;
1136.7000;0.1465;0.2647;
1137.0000;0.1481;0.2695;
1137.3000;0.1490;0.2742;
1137.6000;0.1498;0.2718;
1137.9000;0.1506;0.2766;
1138.2000;0.1506;0.2790;
1138.5000;0.1490;0.2623;
1138.8000;0.1506;0.2671;
1139.1000;0.1522;0.2695;
1139.4000;0.1514;0.2575;
1139.7000;0.1498;0.2456;
1140.0000;0.1473;0.2432;
1140.3000;0.1514;0.2551;
1140.6000;0.1530;0.2599;
1140.9000;0.1498;0.2528;
1141.2000;0.1514;0.2575;
1141.5000;0.1498;0.2480;
1141.8000;0.1612;0.2861;
1142.1000;0.1490;0.2480;
1142.4000;0.1506;0.2504;
1142.7000;0.1408;0.2218;
1143.0000;0.1506;0.2408;
1143.3000;0.1514;0.2504;
1143.6000;0.1498;0.2456;
1143.9000;0.1522;0.2504;
1144.2000;0.1506;0.2504;
1144.5000;0.1498;0.2504;
1144.8000;0.1514;0.2504;
1145.1000;0.1522;0.2599;
1145.4000;0.1530;0.2671;
1145.7000;0.1530;0.2718;
1146.0000;0.1522;0.2790;
1146.3000;0.1490;0.2671;
1146.6000;0.1514;0.2790;
1146.9000;0.1490;0.2790;
1147.2000;0.1498;0.2742;
1147.5000;0.1498;0.2671;
1147.8000;0.1506;0.2718;
1148.1000;0.1563;0.2861;
1148.4000;0.1522;0.2742;
1148.7000;0.1514;0.2790;
1149.0000;0.1571;0.2957;
1149.3000;0.1514;0.2766;
1149.6000;0.1498;0.2647;
1149.9000;0.1587;0.2885;
1150.2000;0.1506;0.2647;
1150.5000;0.1506;0.2742;
1150.8000;0.1555;0.2909;
1151.1000;0.1514;0.2885;
1151.4000;0.1522;0.2861;
1151.7000;0.1547;0.3028;
1152.0000;0.1506;0.2766;
1152.3000;0.1530;0.2790;
1152.6000;0.1571;0.2957;
1152.9000;0.1490;0.2671;
1153.2000;0.1490;0.2695;
1153.5000;0.1490;0.2695;
1153.8000;0.1530;0.2814;
1154.1000;0.1498;0.2838;
1154.4000;0.1514;0.2885;
1154.7000;0.1522;0.2838;
1155.0000;0.1538;0.2838;
1155.3000;0.1408;0.2504;
1155.6000;0.1490;0.2766;
1155.9000;0.1514;0.2885;
1156.2000;0.1490;0.2790;
1156.5000;0.1530;0.2861;
1156.8000;0.1506;0.2838;
1157.1000;0.1506;0.2766;
1157.4000;0.1506;0.2790;
1157.7000;0.1498;0.2790;
1158.0000;0.1490;0.2766;
1158.3000;0.1490;0.2742;
1158.6000;0.1433;0.2575;
1158.9000;0.1498;0.2671;
1159.2000;0.1506;0.2575;
1159.5000;0.1522;0.2551;
1159.8000;0.1481;0.2480;
1160.1000;0.1522;0.2623;
1160.4000;0.1498;0.2575;
1160.7000;0.1522;0.2551;
1161.0000;0.1490;0.2504;
1161.3000;0.1498;0.2575;
1161.6000;0.1425;0.2361;
1161.9000;0.1506;0.2671;
1162.2000;0.1522;0.2766;
1162.5000;0.1514;0.2742;
1162.8000;0.1530;0.2861;
1163.1000;0.1506;0.2814;
1163.4000;0.1498;0.2861;
1163.7000;0.1514;0.2838;
1164.0000;0.1530;0.2861;
1164.3000;0.1506;0.2790;
1164.6000;0.1514;0.2695;
1164.9000;0.1498;0.2671;
1165.2000;0.1530;0.2742;
1165.5000;0.1514;0.2647;
1165.8000;0.1506;0.2695;
1166.1000;0.1620;0.2957;
1166.4000;0.1522;0.2766;
1166.7000;0.1595;0.2909;
1167.0000;0.1514;0.2599;
1167.3000;0.1530;0.2599;
1167.6000;0.1530;0.2647;
1167.9000;0.1514;0.2551;
1168.2000;0.1538;0.2647;
1168.5000;0.1522;0.2695;
1168.8000;0.1538;0.2790;
1169.1000;0.1506;0.2718;
1169.4000;0.1506;0.2742;
1169.7000;0.1457;0.2695;
1170.0000;0.1514;0.2814;
1170.3000;0.1481;0.2742;
1170.6000;0.1481;0.2814;
1170.9000;0.1530;0.2909;
1171.2000;0.1506;0.2718;
1171.5000;0.1514;0.2766;
1171.8000;0.1514;0.2671;
1172.1000;0.1506;0.2647;
1172.4000;0.1490;0.2575;
1172.7000;0.1506;0.2647;
1173.0000;0.1416;0.2504;
1173.3000;0.1522;0.2790;
1173.6000;0.1490;0.2695;
1173.9000;0.1506;0.2742;
1174.2000;0.1571;0.2957;
1174.5000;0.1514;0.2790;
1174.8000;0.1433;0.2647;
1175.1000;0.1506;0.2861;
1175.4000;0.1571;0.2981;
1175.7000;0.1514;0.2742;
1176.0000;0.1490;0.2695;
1176.3000;0.1522;0.2814;
1176.6000;0.1522;0.2814;
1176.9000;0.1530;0.2885;
1177.2000;0.1555;0.2933;
1177.5000;0.1514;0.2718;
1177.8000;0.1490;0.2647;
1178.1000;0.1522;0.2695;
1178.4000;0.1498;0.2695;
1178.7000;0.1522;0.2838;
1179.0000;0.1514;0.2861;
1179.3000;0.1473;0.2718;
1179.6000;0.1506;0.2814;
1179.9000;0.1514;0.2814;
1180.2000;0.1465;0.2623;
1180.5000;0.1530;0.2814;
1180.8000;0.1498;0.2766;
1181.1000;0.1498;0.2742;
1181.4000;0.1498;0.2766;
1181.7000;0.1514;0.2933;
1182.0000;0.1530;0.2861;
1182.3000;0.1506;0.2766;
1182.6000;0.1457;0.2623;
1182.9000;0.1514;0.2814;
1183.2000;0.1506;0.2718;
1183.5000;0.1514;0.2718;
1183.8000;0.1506;0.2623;
1184.1000;0.1514;0.2647;
1184.4000;0.1490;0.2551;
1184.7000;0.1522;0.2551;
1185.0000;0.1498;0.2551;
1185.3000;0.1538;0.2695;
1185.6000;0.1506;0.2671;
1185.9000;0.1522;0.2695;
1186.2000;0.1498;0.2671;
1186.5000;0.1498;0.2623;
1186.8000;0.1514;0.2647;
1187.1000;0.1563;0.2742;
1187.4000;0.1522;0.2718;
1187.7000;0.1530;0.2695;
1188.0000;0.1514;0.2623;
1188.3000;0.1473;0.2575;
1188.6000;0.1490;0.2647;
1188.9000;0.1457;0.2575;
1189.2000;0.1490;0.2647;
1189.5000;0.1530;0.2838;
1189.8000;0.1514;0.2814;
1190.1000;0.1506;0.2718;
1190.4000;0.1457;0.2551;
1190.7000;0.1506;0.2671;
1191.0000;0.1514;0.2671;
1191.3000;0.1563;0.2742;
1191.6000;0.1538;0.2718;
1191.9000;0.1457;0.2551;
1192.2000;0.1506;0.2671;
1192.5000;0.1498;0.2695;
1192.8000;0.1522;0.2647;
1193.1000;0.1506;0.2671;
1193.4000;0.1506;0.2695;
1193.7000;0.1522;0.2742;
1194.0000;0.1506;0.2695;
1194.3000;0.1506;0.2647;
1194.6000;0.1490;0.2623;
1194.9000;0.1514;0.2718;
1195.2000;0.1514;0.2838;
1195.5000;0.1490;0.2766;
1195.8000;0.1490;0.2814;
1196.1000;0.1522;0.2838;
1196.4000;0.1498;0.2790;
1196.7000;0.1498;0.2838;
1197.0000;0.1506;0.2933;
1197.3000;0.1490;0.2838;
1197.6000;0.1522;0.2838;
1197.9000;0.1498;0.2790;
1198.2000;0.1620;0.3100;
1198.5000;0.1490;0.2790;
1198.8000;0.1514;0.2838;
1199.1000;0.1522;0.2861;
1199.4000;0.1514;0.2909;
1199.7000;0.1604;0.3005;
1200.0000;0.1465;0.2599;
1200.3000;0.1433;0.2456;
1200.6000;0.1514;0.2695;
1200.9000;0.1514;0.2742;
1201.2000;0.1490;0.2623;
1201.5000;0.1514;0.2647;
1201.8000;0.1498;0.2623;
1202.1000;0.1506;0.2647;
1202.4000;0.1514;0.2718;
1202.7000;0.1514;0.2742;
1203.0000;0.1481;0.2623;
1203.3000;0.1636;0.3028;
1203.6000;0.1522;0.2623;
1203.9000;0.1514;0.2551;
1204.2000;0.1498;0.2504;
1204.5000;0.1514;0.2575;
1204.8000;0.1506;0.2695;
1205.1000;0.1555;0.2790;
1205.4000;0.1538;0.2814;
1205.7000;0.1498;0.2742;
1206.0000;0.1506;0.2742;
1206.3000;0.1522;0.2766;
1206.6000;0.1498;0.2861;
1206.9000;0.1514;0.2861;
1207.2000;0.1498;0.2695;
1207.5000;0.1506;0.2695;
1207.8000;0.1506;0.2718;
1208.1000;0.1490;0.2575;
1208.4000;0.1498;0.2575;
1208.7000;0.1498;0.2551;
1209.0000;0.1433;0.2456;
1209.3000;0.1514;0.2623;
1209.6000;0.1612;0.2861;
1209.9000;0.1498;0.2551;
1210.2000;0.1522;0.2671;
1210.5000;0.1514;0.2551;
1210.8000;0.1506;0.2528;
1211.1000;0.1506;0.2504;
1211.4000;0.1522;0.2575;
1211.7000;0.1506;0.2551;
1212.0000;0.1514;0.2551;
1212.3000;0.1514;0.2480;
1212.6000;0.1514;0.2432;
1212.9000;0.1547;0.2504;
1213.2000;0.1530;0.2551;
1213.5000;0.1498;0.2432;
1213.8000;0.1514;0.2480;
1214.1000;0.1490;0.2361;
1214.4000;0.1433;0.2218;
1214.7000;0.1522;0.2480;
1215.0000;0.1506;0.2504;
1215.3000;0.1514;0.2456;
1215.6000;0.1530;0.2504;
1215.9000;0.1506;0.2456;
1216.2000;0.1522;0.2504;
1216.5000;0.1506;0.2504;
1216.8000;0.1530;0.2575;
1217.1000;0.1514;0.2623;
1217.4000;0.1514;0.2599;
1217.7000;0.1490;0.2599;
1218.0000;0.1514;0.2599;
1218.3000;0.1498;0.2551;
1218.6000;0.1498;0.2528;
1218.9000;0.1490;0.2528;
1219.2000;0.1595;0.2742;
1219.5000;0.1514;0.2599;
1219.8000;0.1498;0.2551;
1220.1000;0.1490;0.2551;
1220.4000;0.1514;0.2647;
1220.7000;0.1514;0.2623;
1221.0000;0.1563;0.2838;
1221.3000;0.1473;0.2528;
1221.6000;0.1498;0.2671;
1221.9000;0.1514;0.2671;
1222.2000;0.1490;0.2599;
1222.5000;0.1490;0.2647;
1222.8000;0.1498;0.2599;
1223.1000;0.1498;0.2575;
1223.4000;0.1522;0.2647;
1223.7000;0.1514;0.2671;
1224.0000;0.1514;0.2695;
1224.3000;0.1490;0.2623;
1224.6000;0.1498;0.2742;
1224.9000;0.1563;0.2790;
1225.2000;0.1498;0.2718;
1225.5000;0.1481;0.2718;
1225.8000;0.1473;0.2623;
1226.1000;0.1514;0.2647;
1226.4000;0.1522;0.2742;
1226.7000;0.1530;0.2814;
1227.0000;0.1473;0.2718;
1227.3000;0.1506;0.2838;
1227.6000;0.1490;0.2766;
1227.9000;0.1490;0.2814;
1228.2000;0.1514;0.2909;
1228.5000;0.1538;0.2861;
1228.8000;0.1530;0.2814;
1229.1000;0.1490;0.2742;
1229.4000;0.1490;0.2742;
1229.7000;0.1498;0.2766;
1230.0000;0.1514;0.2718;
1230.3000;0.1506;0.2718;
1230.6000;0.1481;0.2695;
1230.9000;0.1506;0.2766;
1231.2000;0.1498;0.2718;
1231.5000;0.1530;0.2790;
1231.8000;0.1473;0.2623;
1232.1000;0.1514;0.2718;
1232.4000;0.1506;0.2814;
1232.7000;0.1522;0.2766;
1233.0000;0.1498;0.2671;
1233.3000;0.1514;0.2671;
1233.6000;0.1506;0.2671;
1233.9000;0.1408;0.2337;
1234.2000;0.1498;0.2718;
1234.5000;0.1514;0.2814;
1234.8000;0.1522;0.2838;
1235.1000;0.1481;0.2695;
1235.4000;0.1506;0.2766;
1235.7000;0.1506;0.2766;
1236.0000;0.1538;0.2718;
1236.3000;0.1514;0.2623;
1236.6000;0.1522;0.2575;
1236.9000;0.1563;0.2671;
1237.2000;0.1522;0.2575;
1237.5000;0.1514;0.2599;
1237.8000;0.1506;0.2671;
1238.1000;0.1490;0.2695;
1238.4000;0.1506;0.2671;
1238.7000;0.1498;0.2647;
1239.0000;0.1498;0.2623;
1239.3000;0.1490;0.2599;
1239.6000;0.1481;0.2623;
1239.9000;0.1498;0.2766;
1240.2000;0.1514;0.2790;
1240.5000;0.1490;0.2742;
1240.8000;0.1498;0.2718;
1241.1000;0.1498;0.2671;
1241.4000;0.1514;0.2742;
1241.7000;0.1514;0.2766;
1242.0000;0.1579;0.2957;
1242.3000;0.1506;0.2742;
1242.6000;0.1612;0.2933;
1242.9000;0.1522;0.2742;
1243.2000;0.1490;0.2718;
1243.5000;0.1498;0.2718;
1243.8000;0.1514;0.2718;
1244.1000;0.1522;0.2599;
1244.4000;0.1514;0.2551;
1244.7000;0.1498;0.2575;
1245.0000;0.1514;0.2623;
1245.3000;0.1514;0.2623;
1245.6000;0.1522;0.2647;
1245.9000;0.1498;0.2599;
1246.2000;0.1514;0.2647;
1246.5000;0.1498;0.2551;
1246.8000;0.1522;0.2647;
1247.1000;0.1506;0.2695;
1247.4000;0.1506;0.2695;
1247.7000;0.1522;0.2695;
1248.0000;0.1595;0.2790;
1248.3000;0.1514;0.2551;
1248.6000;0.1506;0.2504;
1248.9000;0.1490;0.2528;
1249.2000;0.1522;0.2551;
1249.5000;0.1522;0.2599;
1249.8000;0.1514;0.2504;
1250.1000;0.1506;0.2504;
1250.4000;0.1498;0.2456;
1250.7000;0.1457;0.2337;
1251.0000;0.1441;0.2289;
1251.3000;0.1498;0.2575;
1251.6000;0.1538;0.2647;
1251.9000;0.1514;0.2575;
1252.2000;0.1514;0.2647;
1252.5000;0.1506;0.2623;
1252.8000;0.1530;0.2575;
1253.1000;0.1449;0.2337;
1253.4000;0.1506;0.2480;
1253.7000;0.1498;0.2623;
1254.0000;0.1522;0.2623;
1254.3000;0.1481;0.2575;
1254.6000;0.1506;0.2647;
1254.9000;0.1506;0.2623;
1255.2000;0.1506;0.2504;
1255.5000;0.1506;0.2385;
1255.8000;0.1481;0.2289;
1256.1000;0.1538;0.2385;
1256.4000;0.1498;0.2361;
1256.7000;0.1465;0.2265;
1257.0000;0.1530;0.2480;
1257.3000;0.1506;0.2361;
1257.6000;0.1490;0.2337;
1257.9000;0.1555;0.2385;
1258.2000;0.1522;0.2241;
1258.5000;0.1498;0.2289;
1258.8000;0.1547;0.2551;
1259.1000;0.1506;0.2456;
1259.4000;0.1530;0.2432;
1259.7000;0.1522;0.2456;
1260.0000;0.1604;0.2623;
1260.3000;0.1490;0.2408;
1260.6000;0.1498;0.2361;
1260.9000;0.1392;0.2098;
1261.2000;0.1522;0.2551;
1261.5000;0.1514;0.2480;
1261.8000;0.1530;0.2480;
1262.1000;0.1522;0.2599;
1262.4000;0.1514;0.2551;
1262.7000;0.1522;0.2575;
1263.0000;0.1490;0.2408;
1263.3000;0.1506;0.2528;
1263.6000;0.1498;0.2480;
1263.9000;0.1595;0.2814;
1264.2000;0.1522;0.2695;
1264.5000;0.1514;0.2671;
1264.8000;0.1530;0.2718;
1265.1000;0.1514;0.2742;
1265.4000;0.1522;0.2766;
1265.7000;0.1514;0.2861;
1266.0000;0.1514;0.2861;
1266.3000;0.1498;0.2885;
1266.6000;0.1465;0.2718;
1266.9000;0.1506;0.2766;
1267.2000;0.1506;0.2814;
1267.5000;0.1506;0.2814;
1267.8000;0.1530;0.2766;
1268.1000;0.1498;0.2647;
1268.4000;0.1522;0.2671;
1268.7000;0.1506;0.2671;
1269.0000;0.1522;0.2695;
1269.3000;0.1514;0.2742;
1269.6000;0.1514;0.2671;
1269.9000;0.1506;0.2599;
1270.2000;0.1571;0.2861;
1270.5000;0.1522;0.2671;
1270.8000;0.1490;0.2504;
1271.1000;0.1522;0.2551;
1271.4000;0.1506;0.2575;
1271.7000;0.1522;0.2551;
1272.0000;0.1538;0.2647;
1272.3000;0.1587;0.2814;
1272.6000;0.1530;0.2623;
1272.9000;0.1481;0.2551;
1273.2000;0.1538;0.2671;
1273.5000;0.1506;0.2575;
1273.8000;0.1628;0.3005;
1274.1000;0.1612;0.3005;
1274.4000;0.1538;0.2814;
1274.7000;0.1530;0.2671;
1275.0000;0.1514;0.2671;
1275.3000;0.1514;0.2623;
1275.6000;0.1457;0.2480;
1275.9000;0.1490;0.2504;
1276.2000;0.1514;0.2480;
1276.5000;0.1530;0.2551;
1276.8000;0.1677;0.3005;
1277.1000;0.1490;0.2695;
1277.4000;0.1498;0.2718;
1277.7000;0.1498;0.2718;
1278.0000;0.1514;0.2647;
1278.3000;0.1506;0.2623;
1278.6000;0.1530;0.2695;
1278.9000;0.1498;0.2671;
1279.2000;0.1514;0.2790;
1279.5000;0.1481;0.2671;
1279.8000;0.1612;0.2981;
1280.1000;0.1563;0.2766;
1280.4000;0.1530;0.2623;
1280.7000;0.1490;0.2504;
1281.0000;0.1498;0.2623;
1281.3000;0.1506;0.2599;
1281.6000;0.1522;0.2671;
1281.9000;0.1490;0.2623;
1282.2000;0.1522;0.2814;
1282.5000;0.1514;0.2790;
1282.8000;0.1547;0.2790;
1283.1000;0.1506;0.2718;
1283.4000;0.1514;0.2718;
1283.7000;0.1514;0.2766;
1284.0000;0.1481;0.2695;
1284.3000;0.1547;0.2790;
1284.6000;0.1481;0.2599;
1284.9000;0.1481;0.2623;
1285.2000;0.1506;0.2718;
1285.5000;0.1514;0.2742;
1285.8000;0.1514;0.2742;
1286.1000;0.1514;0.2718;
1286.4000;0.1514;0.2742;
1286.7000;0.1514;0.2766;
1287.0000;0.1538;0.2790;
1287.3000;0.1514;0.2838;
1287.6000;0.1506;0.2790;
1287.9000;0.1652;0.3148;
1288.2000;0.1514;0.2742;
1288.5000;0.1514;0.2766;
1288.8000;0.1490;0.2671;
1289.1000;0.1522;0.2671;
1289.4000;0.1481;0.2623;
1289.7000;0.1506;0.2623;
1290.0000;0.1490;0.2599;
1290.3000;0.1506;0.2623;
1290.6000;0.1498;0.2671;
1290.9000;0.1506;0.2647;
1291.2000;0.1416;0.2408;
1291.5000;0.1506;0.2695;
1291.8000;0.1506;0.2718;
1292.1000;0.1514;0.2647;
1292.4000;0.1506;0.2575;
1292.7000;0.1514;0.2528;
1293.0000;0.1481;0.2432;
1293.3000;0.1506;0.2575;
1293.6000;0.1506;0.2671;
1293.9000;0.1506;0.2766;
1294.2000;0.1514;0.2742;
1294.5000;0.1481;0.2695;
1294.8000;0.1498;0.2671;
1295.1000;0.1506;0.2718;
1295.4000;0.1506;0.2718;
1295.7000;0.1506;0.2718;
1296.0000;0.1579;0.2885;
1296.3000;0.1481;0.2599;
1296.6000;0.1514;0.2814;
1296.9000;0.1522;0.2718;
1297.2000;0.1441;0.2528;
1297.5000;0.1522;0.2671;
1297.8000;0.1522;0.2647;
1298.1000;0.1628;0.3005;
1298.4000;0.1538;0.2766;
1298.7000;0.1563;0.2790;
1299.0000;0.1628;0.2957;
1299.3000;0.1433;0.2432;
1299.6000;0.1498;0.2575;
1299.9000;0.1506;0.2575;
1300.2000;0.1530;0.2575;
1300.5000;0.1498;0.2599;
1300.8000;0.1514;0.2623;
1301.1000;0.1522;0.2695;
1301.4000;0.1522;0.2599;
1301.7000;0.1506;0.2551;
1302.0000;0.1547;0.2623;
1302.3000;0.1490;0.2504;
1302.6000;0.1514;0.2575;
1302.9000;0.1514;0.2504;
1303.2000;0.1522;0.2575;
1303.5000;0.1514;0.2528;
1303.8000;0.1522;0.2575;
1304.1000;0.1506;0.2528;
1304.4000;0.1506;0.2480;
1304.7000;0.1514;0.2480;
1305.0000;0.1506;0.2408;
1305.3000;0.1530;0.2504;
1305.6000;0.1506;0.2480;
1305.9000;0.1490;0.2504;
1306.2000;0.1506;0.2647;
1306.5000;0.1498;0.2551;
1306.8000;0.1498;0.2480;
1307.1000;0.1498;0.2480;
1307.4000;0.1498;0.2528;
1307.7000;0.1506;0.2480;
1308.0000;0.1514;0.2528;
1308.3000;0.1490;0.2456;
1308.6000;0.1514;0.2551;
1308.9000;0.1498;0.2575;
1309.2000;0.1522;0.2647;
1309.5000;0.1530;0.2647;
1309.8000;0.1538;0.2671;
1310.1000;0.1498;0.2575;
1310.4000;0.1498;0.2599;
1310.7000;0.1465;0.2551;
1311.0000;0.1514;0.2647;
1311.3000;0.1514;0.2599;
1311.6000;0.1538;0.2695;
1311.9000;0.1490;0.2599;
1312.2000;0.1522;0.2647;
1312.5000;0.1620;0.2885;
1312.8000;0.1506;0.2599;
1313.1000;0.1522;0.2695;
1313.4000;0.1522;0.2671;
1313.7000;0.1522;0.2623;
1314.0000;0.1530;0.2695;
1314.3000;0.1506;0.2647;
1314.6000;0.1506;0.2551;
1314.9000;0.1441;0.2456;
1315.2000;0.1563;0.2790;
1315.5000;0.1425;0.2575;
1315.8000;0.1490;0.2671;
1316.1000;0.1416;0.2528;
1316.4000;0.1490;0.2790;
1316.7000;0.1530;0.2885;
1317.0000;0.1522;0.2766;
1317.3000;0.1522;0.2766;
1317.6000;0.1530;0.2790;
1317.9000;0.1514;0.2742;
1318.2000;0.1538;0.2909;
1318.5000;0.1514;0.2838;
1318.8000;0.1506;0.2790;
1319.1000;0.1530;0.2861;
1319.4000;0.1506;0.2790;
1319.7000;0.1555;0.2790;
1320.0000;0.1522;0.2718;
1320.3000;0.1514;0.2599;
1320.6000;0.1530;0.2575;
1320.9000;0.1522;0.2504;
1321.2000;0.1441;0.2313;
1321.5000;0.1465;0.2337;
1321.8000;0.1514;0.2432;
1322.1000;0.1555;0.2599;
1322.4000;0.1522;0.2647;
1322.7000;0.1481;0.2623;
1323.0000;0.1490;0.2647;
1323.3000;0.1490;0.2599;
1323.6000;0.1498;0.2551;
1323.9000;0.1530;0.2551;
1324.2000;0.1506;0.2551;
1324.5000;0.1506;0.2551;
1324.8000;0.1506;0.2504;
1325.1000;0.1530;0.2599;
1325.4000;0.1538;0.2623;
1325.7000;0.1506;0.2599;
1326.0000;0.1514;0.2695;
1326.3000;0.1522;0.2647;
1326.6000;0.1506;0.2623;
1326.9000;0.1498;0.2718;
1327.2000;0.1514;0.2671;
1327.5000;0.1506;0.2623;
1327.8000;0.1514;0.2623;
1328.1000;0.1506;0.2599;
1328.4000;0.1506;0.2551;
1328.7000;0.1498;0.2575;
1329.0000;0.1416;0.2337;
1329.3000;0.1530;0.2599;
1329.6000;0.1506;0.2528;
1329.9000;0.1514;0.2575;
1330.2000;0.1506;0.2623;
1330.5000;0.1490;0.2504;
1330.8000;0.1498;0.2504;
1331.1000;0.1595;0.2695;
1331.4000;0.1481;0.2504;
1331.7000;0.1514;0.2528;
1332.0000;0.1522;0.2575;
1332.3000;0.1490;0.2432;
1332.6000;0.1498;0.2408;
1332.9000;0.1498;0.2432;
1333.2000;0.1490;0.2361;
1333.5000;0.1498;0.2504;
1333.8000;0.1506;0.2480;
1334.1000;0.1498;0.2504;
1334.4000;0.1498;0.2551;
1334.7000;0.1530;0.2695;
1335.0000;0.1490;0.2695;
1335.3000;0.1498;0.2695;
1335.6000;0.1506;0.2623;
1335.9000;0.1571;0.2695;
1336.2000;0.1498;0.2575;
1336.5000;0.1522;0.2623;
1336.8000;0.1498;0.2551;
1337.1000;0.1538;0.2647;
1337.4000;0.1490;0.2551;
1337.7000;0.1384;0.2265;
1338.0000;0.1514;0.2647;
1338.3000;0.1514;0.2742;
1338.6000;0.1490;0.2575;
1338.9000;0.1530;0.2647;
1339.2000;0.1555;0.2742;
1339.5000;0.1490;0.2647;
1339.8000;0.1522;0.2695;
1340.1000;0.1538;0.2718;
1340.4000;0.1433;0.2528;
1340.7000;0.1514;0.2695;
1341.0000;0.1522;0.2766;
1341.3000;0.1514;0.2599;
1341.6000;0.1465;0.2480;
1341.9000;0.1514;0.2575;
1342.2000;0.1514;0.2528;
1342.5000;0.1433;0.2337;
1342.8000;0.1498;0.2480;
1343.1000;0.1498;0.2480;
1343.4000;0.1506;0.2432;
1343.7000;0.1514;0.2432;
1344.0000;0.1498;0.2408;
1344.3000;0.1506;0.2385;
1344.6000;0.1498;0.2385;
1344.9000;0.1595;0.2647;
1345.2000;0.1498;0.2361;
1345.5000;0.1498;0.2313;
1345.8000;0.1579;0.2575;
1346.1000;0.1514;0.2385;
1346.4000;0.1563;0.2480;
1346.7000;0.1571;0.2551;
1347.0000;0.1514;0.2337;
1347.3000;0.1522;0.2480;
1347.6000;0.1506;0.2480;
1347.9000;0.1522;0.2623;
1348.2000;0.1604;0.2909;
1348.5000;0.1506;0.2551;
1348.8000;0.1514;0.2551;
1349.1000;0.1506;0.2432;
1349.4000;0.1506;0.2432;
1349.7000;0.1498;0.2408;
1350.0000;0.1514;0.2480;
1350.3000;0.1538;0.2623;
1350.6000;0.1498;0.2528;
1350.9000;0.1514;0.2504;
1351.2000;0.1498;0.2432;
1351.5000;0.1514;0.2385;
1351.8000;0.1490;0.2265;
1352.1000;0.1506;0.2313;
1352.4000;0.1579;0.2480;
1352.7000;0.1441;0.2146;
1353.0000;0.1514;0.2385;
1353.3000;0.1538;0.2408;
1353.6000;0.1530;0.2480;
1353.9000;0.1636;0.2623;
1354.2000;0.1498;0.2218;
1354.5000;0.1498;0.2241;
1354.8000;0.1490;0.2337;
1355.1000;0.1506;0.2385;
1355.4000;0.1538;0.2456;
1355.7000;0.1506;0.2432;
1356.0000;0.1473;0.2385;
1356.3000;0.1506;0.2480;
1356.6000;0.1498;0.2408;
1356.9000;0.1490;0.2337;
1357.2000;0.1514;0.2408;
1357.5000;0.1514;0.2289;
1357.8000;0.1514;0.2337;
1358.1000;0.1506;0.2337;
1358.4000;0.1522;0.2361;
1358.7000;0.1514;0.2265;
1359.0000;0.1522;0.2313;
1359.3000;0.1392;0.2003;
1359.6000;0.1514;0.2337;
1359.9000;0.1506;0.2289;
1360.2000;0.1514;0.2361;
1360.5000;0.1514;0.2408;
1360.8000;0.1481;0.2408;
1361.1000;0.1506;0.2456;
1361.4000;0.1506;0.2575;
1361.7000;0.1522;0.2647;
1362.0000;0.1481;0.2528;
1362.3000;0.1514;0.2551;
1362.6000;0.1514;0.2551;
1362.9000;0.1506;0.2504;
1363.2000;0.1587;0.2671;
1363.5000;0.1506;0.2480;
1363.8000;0.1506;0.2432;
1364.1000;0.1514;0.2361;
1364.4000;0.1498;0.2408;
1364.7000;0.1522;0.2551;
1365.0000;0.1473;0.2432;
1365.3000;0.1514;0.2599;
1365.6000;0.1522;0.2528;
1365.9000;0.1433;0.2313;
1366.2000;0.1514;0.2504;
1366.5000;0.1498;0.2480;
1366.8000;0.1522;0.2528;
1367.1000;0.1530;0.2551;
1367.4000;0.1498;0.2551;
1367.7000;0.1490;0.2456;
1368.0000;0.1522;0.2551;
1368.3000;0.1514;0.2504;
1368.6000;0.1522;0.2551;
1368.9000;0.1498;0.2504;
1369.2000;0.1514;0.2575;
1369.5000;0.1514;0.2480;
1369.8000;0.1514;0.2480;
1370.1000;0.1506;0.2408;
1370.4000;0.1506;0.2504;
1370.7000;0.1514;0.2575;
1371.0000;0.1490;0.2504;
1371.3000;0.1490;0.2504;
1371.6000;0.1490;0.2408;
1371.9000;0.1571;0.2575;
1372.2000;0.1514;0.2385;
1372.5000;0.1506;0.2337;
1372.8000;0.1538;0.2456;
1373.1000;0.1481;0.2313;
1373.4000;0.1522;0.2337;
1373.7000;0.1490;0.2218;
1374.0000;0.1547;0.2361;
1374.3000;0.1506;0.2289;
1374.6000;0.1522;0.2408;
1374.9000;0.1481;0.2385;
1375.2000;0.1522;0.2528;
1375.5000;0.1498;0.2432;
1375.8000;0.1481;0.2385;
1376.1000;0.1498;0.2361;
1376.4000;0.1498;0.2337;
1376.7000;0.1498;0.2456;
1377.0000;0.1416;0.2194;
1377.3000;0.1522;0.2480;
1377.6000;0.1490;0.2313;
1377.9000;0.1457;0.2170;
1378.2000;0.1514;0.2289;
1378.5000;0.1530;0.2313;
1378.8000;0.1530;0.2385;
1379.1000;0.1522;0.2432;
1379.4000;0.1522;0.2361;
1379.7000;0.1506;0.2289;
1380.0000;0.1506;0.2337;
1380.3000;0.1514;0.2385;
1380.6000;0.1514;0.2385;
1380.9000;0.1530;0.2456;
1381.2000;0.1538;0.2408;
1381.5000;0.1457;0.2194;
1381.8000;0.1481;0.2313;
1382.1000;0.1473;0.2361;
1382.4000;0.1514;0.2385;
1382.7000;0.1514;0.2408;
1383.0000;0.1498;0.2504;
1383.3000;0.1506;0.2504;
1383.6000;0.1490;0.2432;
1383.9000;0.1522;0.2599;
1384.2000;0.1506;0.2504;
1384.5000;0.1514;0.2528;
1384.8000;0.1522;0.2528;
1385.1000;0.1547;0.2575;
1385.4000;0.1481;0.2456;
1385.7000;0.1490;0.2432;
1386.0000;0.1506;0.2480;
1386.3000;0.1530;0.2432;
1386.6000;0.1490;0.2361;
1386.9000;0.1506;0.2408;
1387.2000;0.1490;0.2432;
1387.5000;0.1579;0.2718;
1387.8000;0.1514;0.2551;
1388.1000;0.1498;0.2504;
1388.4000;0.1514;0.2408;
1388.7000;0.1514;0.2432;
1389.0000;0.1506;0.2408;
1389.3000;0.1498;0.2432;
1389.6000;0.1465;0.2432;
1389.9000;0.1522;0.2528;
1390.2000;0.1498;0.2337;
1390.5000;0.1514;0.2265;
1390.8000;0.1490;0.2241;
1391.1000;0.1530;0.2313;
1391.4000;0.1465;0.2170;
1391.7000;0.1530;0.2361;
1392.0000;0.1514;0.2313;
1392.3000;0.1498;0.2265;
1392.6000;0.1481;0.2289;
1392.9000;0.1506;0.2385;
1393.2000;0.1498;0.2480;
1393.5000;0.1506;0.2480;
1393.8000;0.1498;0.2528;
1394.1000;0.1522;0.2599;
1394.4000;0.1506;0.2528;
1394.7000;0.1481;0.2432;
1395.0000;0.1522;0.2432;
1395.3000;0.1530;0.2408;
1395.6000;0.1514;0.2289;
1395.9000;0.1498;0.2194;
1396.2000;0.1506;0.2218;
1396.5000;0.1514;0.2241;
1396.8000;0.1506;0.2265;
1397.1000;0.1498;0.2265;
1397.4000;0.1506;0.2265;
1397.7000;0.1522;0.2385;
1398.0000;0.1522;0.2385;
1398.3000;0.1498;0.2337;
1398.6000;0.1490;0.2313;
1398.9000;0.1498;0.2313;
1399.2000;0.1506;0.2313;
1399.5000;0.1506;0.2337;
1399.8000;0.1506;0.2361;
