time/ms;Fluo/V;P700 deltaI/I x10³;
-199.8000;0.1490;0.3982;
-199.5000;0.1514;0.4078;
-199.2000;0.1506;0.4006;
-198.9000;0.1498;0.4030;
-198.6000;0.1498;0.4006;
-198.3000;0.1514;0.4101;
-198.0000;0.1530;0.4244;
-197.7000;0.1514;0.4244;
-197.4000;0.1498;0.4292;
-197.1000;0.1555;0.4411;
-196.8000;0.1498;0.4244;
-196.5000;0.1425;0.4101;
-196.2000;0.1522;0.4340;
-195.9000;0.1498;0.4149;
-195.6000;0.1530;0.4244;
-195.3000;0.1514;0.4316;
-195.0000;0.1506;0.4244;
-194.7000;0.1547;0.4197;
-194.4000;0.1538;0.4173;
-194.1000;0.1522;0.4197;
-193.8000;0.1587;0.4411;
-193.5000;0.1498;0.4197;
-193.2000;0.1498;0.4244;
-192.9000;0.1530;0.4244;
-192.6000;0.1498;0.4197;
-192.3000;0.1514;0.4244;
-192.0000;0.1522;0.4244;
-191.7000;0.1498;0.4149;
-191.4000;0.1538;0.4244;
-191.1000;0.1514;0.4149;
-190.8000;0.1522;0.4149;
-190.5000;0.1522;0.4244;
-190.2000;0.1506;0.4244;
-189.9000;0.1457;0.4078;
-189.6000;0.1530;0.4173;
-189.3000;0.1538;0.4316;
-189.0000;0.1481;0.4292;
-188.7000;0.1522;0.4292;
-188.4000;0.1490;0.4197;
-188.1000;0.1514;0.4292;
-187.8000;0.1514;0.4364;
-187.5000;0.1506;0.4364;
-187.2000;0.1571;0.4554;
-186.9000;0.1514;0.4340;
-186.6000;0.1514;0.4340;
-186.3000;0.1522;0.4316;
-186.0000;0.1522;0.4268;
-185.7000;0.1473;0.4197;
-185.4000;0.1498;0.4173;
-185.1000;0.1498;0.4221;
-184.8000;0.1506;0.4221;
-184.5000;0.1514;0.4244;
-184.2000;0.1522;0.4292;
-183.9000;0.1490;0.4221;
-183.6000;0.1498;0.4101;
-183.3000;0.1522;0.4173;
-183.0000;0.1514;0.4221;
-182.7000;0.1522;0.4197;
-182.4000;0.1522;0.4292;
-182.1000;0.1514;0.4340;
-181.8000;0.1490;0.4292;
-181.5000;0.1465;0.4173;
-181.2000;0.1506;0.4244;
-180.9000;0.1498;0.4244;
-180.6000;0.1506;0.4244;
-180.3000;0.1522;0.4221;
-180.0000;0.1514;0.4292;
-179.7000;0.1514;0.4244;
-179.4000;0.1490;0.4149;
-179.1000;0.1506;0.4221;
-178.8000;0.1490;0.4197;
-178.5000;0.1538;0.4316;
-178.2000;0.1506;0.4197;
-177.9000;0.1473;0.4125;
-177.6000;0.1522;0.4388;
-177.3000;0.1506;0.4316;
-177.0000;0.1530;0.4364;
-176.7000;0.1506;0.4292;
-176.4000;0.1506;0.4292;
-176.1000;0.1538;0.4364;
-175.8000;0.1498;0.4268;
-175.5000;0.1538;0.4316;
-175.2000;0.1506;0.4173;
-174.9000;0.1530;0.4244;
-174.6000;0.1530;0.4292;
-174.3000;0.1522;0.4197;
-174.0000;0.1514;0.4221;
-173.7000;0.1522;0.4364;
-173.4000;0.1579;0.4650;
-173.1000;0.1416;0.4149;
-172.8000;0.1514;0.4411;
-172.5000;0.1441;0.4149;
-172.2000;0.1506;0.4340;
-171.9000;0.1506;0.4340;
-171.6000;0.1481;0.4244;
-171.3000;0.1506;0.4316;
-171.0000;0.1457;0.4244;
-170.7000;0.1433;0.4125;
-170.4000;0.1490;0.4221;
-170.1000;0.1571;0.4411;
-169.8000;0.1547;0.4292;
-169.5000;0.1473;0.4030;
-169.2000;0.1481;0.4078;
-168.9000;0.1457;0.4078;
-168.6000;0.1506;0.4197;
-168.3000;0.1514;0.4197;
-168.0000;0.1571;0.4388;
-167.7000;0.1514;0.4316;
-167.4000;0.1522;0.4316;
-167.1000;0.1514;0.4316;
-166.8000;0.1530;0.4388;
-166.5000;0.1506;0.4435;
-166.2000;0.1473;0.4292;
-165.9000;0.1522;0.4411;
-165.6000;0.1514;0.4364;
-165.3000;0.1514;0.4292;
-165.0000;0.1490;0.4221;
-164.7000;0.1465;0.4149;
-164.4000;0.1506;0.4316;
-164.1000;0.1506;0.4292;
-163.8000;0.1522;0.4268;
-163.5000;0.1522;0.4221;
-163.2000;0.1506;0.4149;
-162.9000;0.1514;0.4197;
-162.6000;0.1506;0.4197;
-162.3000;0.1498;0.4244;
-162.0000;0.1514;0.4221;
-161.7000;0.1490;0.4173;
-161.4000;0.1506;0.4268;
-161.1000;0.1530;0.4340;
-160.8000;0.1522;0.4268;
-160.5000;0.1481;0.4173;
-160.2000;0.1506;0.4268;
-159.9000;0.1522;0.4268;
-159.6000;0.1555;0.4316;
-159.3000;0.1530;0.4221;
-159.0000;0.1514;0.4221;
-158.7000;0.1530;0.4244;
-158.4000;0.1514;0.4221;
-158.1000;0.1538;0.4268;
-157.8000;0.1522;0.4244;
-157.5000;0.1481;0.4173;
-157.2000;0.1522;0.4268;
-156.9000;0.1506;0.4197;
-156.6000;0.1514;0.4244;
-156.3000;0.1555;0.4340;
-156.0000;0.1506;0.4197;
-155.7000;0.1522;0.4221;
-155.4000;0.1522;0.4197;
-155.1000;0.1490;0.4173;
-154.8000;0.1612;0.4459;
-154.5000;0.1579;0.4340;
-154.2000;0.1530;0.4221;
-153.9000;0.1514;0.4173;
-153.6000;0.1506;0.4221;
-153.3000;0.1538;0.4340;
-153.0000;0.1587;0.4507;
-152.7000;0.1514;0.4388;
-152.4000;0.1514;0.4364;
-152.1000;0.1514;0.4411;
-151.8000;0.1506;0.4340;
-151.5000;0.1498;0.4388;
-151.2000;0.1522;0.4316;
-150.9000;0.1514;0.4388;
-150.6000;0.1538;0.4411;
-150.3000;0.1522;0.4268;
-150.0000;0.1514;0.4268;
-149.7000;0.1563;0.4435;
-149.4000;0.1498;0.4197;
-149.1000;0.1449;0.4030;
-148.8000;0.1514;0.4244;
-148.5000;0.1522;0.4244;
-148.2000;0.1498;0.4149;
-147.9000;0.1555;0.4221;
-147.6000;0.1522;0.4173;
-147.3000;0.1514;0.4054;
-147.0000;0.1506;0.4006;
-146.7000;0.1514;0.4030;
-146.4000;0.1473;0.4078;
-146.1000;0.1392;0.3863;
-145.8000;0.1514;0.4197;
-145.5000;0.1530;0.4221;
-145.2000;0.1514;0.4173;
-144.9000;0.1498;0.4197;
-144.6000;0.1514;0.4221;
-144.3000;0.1506;0.4292;
-144.0000;0.1498;0.4316;
-143.7000;0.1547;0.4388;
-143.4000;0.1498;0.4197;
-143.1000;0.1498;0.4268;
-142.8000;0.1506;0.4388;
-142.5000;0.1506;0.4364;
-142.2000;0.1506;0.4411;
-141.9000;0.1506;0.4435;
-141.6000;0.1530;0.4507;
-141.3000;0.1498;0.4435;
-141.0000;0.1506;0.4388;
-140.7000;0.1506;0.4340;
-140.4000;0.1506;0.4244;
-140.1000;0.1547;0.4316;
-139.8000;0.1547;0.4292;
-139.5000;0.1563;0.4435;
-139.2000;0.1514;0.4459;
-138.9000;0.1498;0.4388;
-138.6000;0.1522;0.4388;
-138.3000;0.1522;0.4435;
-138.0000;0.1506;0.4268;
-137.7000;0.1514;0.4221;
-137.4000;0.1522;0.4197;
-137.1000;0.1490;0.4101;
-136.8000;0.1514;0.4125;
-136.5000;0.1522;0.4125;
-136.2000;0.1514;0.4173;
-135.9000;0.1514;0.4244;
-135.6000;0.1547;0.4411;
-135.3000;0.1506;0.4316;
-135.0000;0.1514;0.4340;
-134.7000;0.1547;0.4411;
-134.4000;0.1449;0.4125;
-134.1000;0.1473;0.4244;
-133.8000;0.1530;0.4507;
-133.5000;0.1327;0.3958;
-133.2000;0.1506;0.4483;
-132.9000;0.1498;0.4459;
-132.6000;0.1473;0.4411;
-132.3000;0.1514;0.4483;
-132.0000;0.1506;0.4459;
-131.7000;0.1481;0.4388;
-131.4000;0.1490;0.4364;
-131.1000;0.1506;0.4388;
-130.8000;0.1498;0.4316;
-130.5000;0.1441;0.4173;
-130.2000;0.1514;0.4316;
-129.9000;0.1506;0.4316;
-129.6000;0.1514;0.4340;
-129.3000;0.1498;0.4292;
-129.0000;0.1530;0.4459;
-128.7000;0.1506;0.4531;
-128.4000;0.1514;0.4459;
-128.1000;0.1547;0.4531;
-127.8000;0.1506;0.4364;
-127.5000;0.1506;0.4316;
-127.2000;0.1514;0.4316;
-126.9000;0.1498;0.4340;
-126.6000;0.1481;0.4221;
-126.3000;0.1498;0.4244;
-126.0000;0.1514;0.4244;
-125.7000;0.1498;0.4316;
-125.4000;0.1498;0.4340;
-125.1000;0.1522;0.4459;
-124.8000;0.1620;0.4769;
-124.5000;0.1530;0.4459;
-124.2000;0.1538;0.4459;
-123.9000;0.1498;0.4364;
-123.6000;0.1522;0.4459;
-123.3000;0.1530;0.4459;
-123.0000;0.1514;0.4507;
-122.7000;0.1612;0.4698;
-122.4000;0.1514;0.4411;
-122.1000;0.1514;0.4411;
-121.8000;0.1530;0.4364;
-121.5000;0.1514;0.4340;
-121.2000;0.1498;0.4268;
-120.9000;0.1514;0.4292;
-120.6000;0.1481;0.4268;
-120.3000;0.1498;0.4316;
-120.0000;0.1498;0.4268;
-119.7000;0.1514;0.4364;
-119.4000;0.1530;0.4435;
-119.1000;0.1522;0.4364;
-118.8000;0.1514;0.4316;
-118.5000;0.1514;0.4388;
-118.2000;0.1563;0.4459;
-117.9000;0.1522;0.4411;
-117.6000;0.1514;0.4364;
-117.3000;0.1498;0.4316;
-117.0000;0.1514;0.4364;
-116.7000;0.1506;0.4411;
-116.4000;0.1498;0.4411;
-116.1000;0.1506;0.4268;
-115.8000;0.1416;0.3958;
-115.5000;0.1522;0.4221;
-115.2000;0.1514;0.4244;
-114.9000;0.1490;0.4292;
-114.6000;0.1555;0.4435;
-114.3000;0.1514;0.4364;
-114.0000;0.1490;0.4340;
-113.7000;0.1514;0.4411;
-113.4000;0.1506;0.4411;
-113.1000;0.1490;0.4459;
-112.8000;0.1514;0.4483;
-112.5000;0.1522;0.4507;
-112.2000;0.1522;0.4578;
-111.9000;0.1498;0.4483;
-111.6000;0.1522;0.4435;
-111.3000;0.1506;0.4316;
-111.0000;0.1416;0.4149;
-110.7000;0.1514;0.4268;
-110.4000;0.1498;0.4149;
-110.1000;0.1408;0.3934;
-109.8000;0.1604;0.4435;
-109.5000;0.1612;0.4578;
-109.2000;0.1490;0.4268;
-108.9000;0.1522;0.4388;
-108.6000;0.1506;0.4411;
-108.3000;0.1392;0.4101;
-108.0000;0.1522;0.4388;
-107.7000;0.1530;0.4244;
-107.4000;0.1490;0.4173;
-107.1000;0.1514;0.4221;
-106.8000;0.1530;0.4316;
-106.5000;0.1538;0.4411;
-106.2000;0.1514;0.4388;
-105.9000;0.1498;0.4364;
-105.6000;0.1522;0.4340;
-105.3000;0.1514;0.4388;
-105.0000;0.1506;0.4388;
-104.7000;0.1506;0.4364;
-104.4000;0.1514;0.4268;
-104.1000;0.1530;0.4244;
-103.8000;0.1514;0.4149;
-103.5000;0.1514;0.4078;
-103.2000;0.1506;0.4054;
-102.9000;0.1522;0.4101;
-102.6000;0.1514;0.4054;
-102.3000;0.1514;0.4101;
-102.0000;0.1498;0.4101;
-101.7000;0.1514;0.4101;
-101.4000;0.1522;0.4173;
-101.1000;0.1506;0.4078;
-100.8000;0.1514;0.4101;
-100.5000;0.1506;0.4078;
-100.2000;0.1514;0.4149;
-99.9000;0.1481;0.4054;
-99.6000;0.1514;0.4149;
-99.3000;0.1498;0.4197;
-99.0000;0.1587;0.4554;
-98.7000;0.1555;0.4507;
-98.4000;0.1506;0.4340;
-98.1000;0.1514;0.4316;
-97.8000;0.1555;0.4435;
-97.5000;0.1514;0.4268;
-97.2000;0.1514;0.4173;
-96.9000;0.1522;0.4221;
-96.6000;0.1522;0.4244;
-96.3000;0.1514;0.4244;
-96.0000;0.1530;0.4316;
-95.7000;0.1522;0.4364;
-95.4000;0.1530;0.4364;
-95.1000;0.1514;0.4292;
-94.8000;0.1473;0.4244;
-94.5000;0.1530;0.4435;
-94.2000;0.1490;0.4435;
-93.9000;0.1530;0.4578;
-93.6000;0.1514;0.4531;
-93.3000;0.1522;0.4554;
-93.0000;0.1433;0.4388;
-92.7000;0.1506;0.4602;
-92.4000;0.1514;0.4650;
-92.1000;0.1506;0.4626;
-91.8000;0.1506;0.4626;
-91.5000;0.1547;0.4745;
-91.2000;0.1530;0.4650;
-90.9000;0.1498;0.4626;
-90.6000;0.1473;0.4507;
-90.3000;0.1506;0.4698;
-90.0000;0.1563;0.4674;
-89.7000;0.1506;0.4602;
-89.4000;0.1522;0.4554;
-89.1000;0.1563;0.4626;
-88.8000;0.1514;0.4531;
-88.5000;0.1490;0.4411;
-88.2000;0.1522;0.4459;
-87.9000;0.1522;0.4483;
-87.6000;0.1473;0.4340;
-87.3000;0.1506;0.4531;
-87.0000;0.1465;0.4364;
-86.7000;0.1538;0.4602;
-86.4000;0.1506;0.4578;
-86.1000;0.1522;0.4554;
-85.8000;0.1506;0.4578;
-85.5000;0.1514;0.4626;
-85.2000;0.1506;0.4602;
-84.9000;0.1530;0.4602;
-84.6000;0.1522;0.4483;
-84.3000;0.1506;0.4435;
-84.0000;0.1498;0.4340;
-83.7000;0.1530;0.4292;
-83.4000;0.1514;0.4388;
-83.1000;0.1506;0.4364;
-82.8000;0.1530;0.4388;
-82.5000;0.1538;0.4459;
-82.2000;0.1522;0.4364;
-81.9000;0.1506;0.4364;
-81.6000;0.1498;0.4364;
-81.3000;0.1506;0.4435;
-81.0000;0.1506;0.4435;
-80.7000;0.1530;0.4602;
-80.4000;0.1522;0.4483;
-80.1000;0.1506;0.4435;
-79.8000;0.1555;0.4602;
-79.5000;0.1563;0.4626;
-79.2000;0.1522;0.4483;
-78.9000;0.1392;0.4125;
-78.6000;0.1514;0.4483;
-78.3000;0.1490;0.4388;
-78.0000;0.1514;0.4292;
-77.7000;0.1514;0.4244;
-77.4000;0.1555;0.4483;
-77.1000;0.1514;0.4268;
-76.8000;0.1530;0.4244;
-76.5000;0.1433;0.4030;
-76.2000;0.1514;0.4221;
-75.9000;0.1506;0.4125;
-75.6000;0.1522;0.4244;
-75.3000;0.1555;0.4268;
-75.0000;0.1490;0.4221;
-74.7000;0.1514;0.4364;
-74.4000;0.1530;0.4411;
-74.1000;0.1522;0.4459;
-73.8000;0.1522;0.4435;
-73.5000;0.1514;0.4388;
-73.2000;0.1530;0.4388;
-72.9000;0.1498;0.4221;
-72.6000;0.1563;0.4459;
-72.3000;0.1506;0.4292;
-72.0000;0.1595;0.4507;
-71.7000;0.1514;0.4221;
-71.4000;0.1490;0.4221;
-71.1000;0.1514;0.4244;
-70.8000;0.1498;0.4149;
-70.5000;0.1514;0.4101;
-70.2000;0.1506;0.4101;
-69.9000;0.1506;0.4221;
-69.6000;0.1620;0.4650;
-69.3000;0.1530;0.4364;
-69.0000;0.1538;0.4340;
-68.7000;0.1506;0.4244;
-68.4000;0.1506;0.4268;
-68.1000;0.1473;0.4173;
-67.8000;0.1538;0.4388;
-67.5000;0.1498;0.4316;
-67.2000;0.1579;0.4531;
-66.9000;0.1514;0.4292;
-66.6000;0.1506;0.4292;
-66.3000;0.1490;0.4316;
-66.0000;0.1555;0.4483;
-65.7000;0.1498;0.4340;
-65.4000;0.1506;0.4268;
-65.1000;0.1514;0.4268;
-64.8000;0.1506;0.4197;
-64.5000;0.1595;0.4435;
-64.2000;0.1514;0.4244;
-63.9000;0.1514;0.4149;
-63.6000;0.1530;0.4149;
-63.3000;0.1514;0.4125;
-63.0000;0.1514;0.4173;
-62.7000;0.1506;0.4173;
-62.4000;0.1530;0.4244;
-62.1000;0.1530;0.4149;
-61.8000;0.1506;0.4149;
-61.5000;0.1457;0.4125;
-61.2000;0.1571;0.4411;
-60.9000;0.1530;0.4268;
-60.6000;0.1490;0.4292;
-60.3000;0.1490;0.4340;
-60.0000;0.1628;0.4650;
-59.7000;0.1514;0.4388;
-59.4000;0.1473;0.4292;
-59.1000;0.1465;0.4221;
-58.8000;0.1538;0.4340;
-58.5000;0.1522;0.4364;
-58.2000;0.1506;0.4364;
-57.9000;0.1514;0.4292;
-57.6000;0.1481;0.4244;
-57.3000;0.1547;0.4411;
-57.0000;0.1522;0.4364;
-56.7000;0.1449;0.4197;
-56.4000;0.1490;0.4244;
-56.1000;0.1506;0.4364;
-55.8000;0.1498;0.4388;
-55.5000;0.1555;0.4578;
-55.2000;0.1506;0.4602;
-54.9000;0.1514;0.4507;
-54.6000;0.1465;0.4340;
-54.3000;0.1506;0.4388;
-54.0000;0.1547;0.4459;
-53.7000;0.1514;0.4340;
-53.4000;0.1538;0.4340;
-53.1000;0.1457;0.4101;
-52.8000;0.1571;0.4435;
-52.5000;0.1481;0.4244;
-52.2000;0.1522;0.4435;
-51.9000;0.1555;0.4459;
-51.6000;0.1506;0.4316;
-51.3000;0.1522;0.4340;
-51.0000;0.1514;0.4388;
-50.7000;0.1538;0.4459;
-50.4000;0.1506;0.4340;
-50.1000;0.1538;0.4435;
-49.8000;0.1522;0.4459;
-49.5000;0.1522;0.4459;
-49.2000;0.1498;0.4388;
-48.9000;0.1514;0.4507;
-48.6000;0.1506;0.4459;
-48.3000;0.1522;0.4411;
-48.0000;0.1538;0.4411;
-47.7000;0.1506;0.4244;
-47.4000;0.1457;0.4101;
-47.1000;0.1498;0.4244;
-46.8000;0.1563;0.4388;
-46.5000;0.1522;0.4268;
-46.2000;0.1522;0.4268;
-45.9000;0.1514;0.4340;
-45.6000;0.1522;0.4340;
-45.3000;0.1522;0.4364;
-45.0000;0.1514;0.4388;
-44.7000;0.1465;0.4173;
-44.4000;0.1530;0.4388;
-44.1000;0.1530;0.4292;
-43.8000;0.1481;0.4173;
-43.5000;0.1465;0.4125;
-43.2000;0.1498;0.4149;
-42.9000;0.1555;0.4268;
-42.6000;0.1530;0.4268;
-42.3000;0.1498;0.4197;
-42.0000;0.1514;0.4316;
-41.7000;0.1514;0.4340;
-41.4000;0.1522;0.4340;
-41.1000;0.1498;0.4244;
-40.8000;0.1514;0.4221;
-40.5000;0.1465;0.4101;
-40.2000;0.1506;0.4173;
-39.9000;0.1514;0.4221;
-39.6000;0.1530;0.4221;
-39.3000;0.1506;0.4173;
-39.0000;0.1530;0.4221;
-38.7000;0.1506;0.4149;
-38.4000;0.1449;0.4054;
-38.1000;0.1522;0.4125;
-37.8000;0.1563;0.4340;
-37.5000;0.1384;0.3887;
-37.2000;0.1514;0.4292;
-36.9000;0.1498;0.4244;
-36.6000;0.1595;0.4388;
-36.3000;0.1506;0.4125;
-36.0000;0.1457;0.4054;
-35.7000;0.1538;0.4411;
-35.4000;0.1530;0.4435;
-35.1000;0.1538;0.4507;
-34.8000;0.1514;0.4507;
-34.5000;0.1490;0.4364;
-34.2000;0.1514;0.4388;
-33.9000;0.1506;0.4340;
-33.6000;0.1522;0.4316;
-33.3000;0.1481;0.4316;
-33.0000;0.1522;0.4411;
-32.7000;0.1498;0.4388;
-32.4000;0.1506;0.4388;
-32.1000;0.1506;0.4292;
-31.8000;0.1522;0.4340;
-31.5000;0.1595;0.4483;
-31.2000;0.1506;0.4221;
-30.9000;0.1457;0.4125;
-30.6000;0.1514;0.4197;
-30.3000;0.1514;0.4244;
-30.0000;0.1522;0.4292;
-29.7000;0.1506;0.4197;
-29.4000;0.1506;0.4125;
-29.1000;0.1522;0.4149;
-28.8000;0.1538;0.4149;
-28.5000;0.1522;0.4125;
-28.2000;0.1514;0.4101;
-27.9000;0.1498;0.4054;
-27.6000;0.1514;0.4054;
-27.3000;0.1498;0.3982;
-27.0000;0.1514;0.4054;
-26.7000;0.1506;0.4173;
-26.4000;0.1506;0.4244;
-26.1000;0.1498;0.4268;
-25.8000;0.1522;0.4340;
-25.5000;0.1498;0.4221;
-25.2000;0.1522;0.4268;
-24.9000;0.1530;0.4221;
-24.6000;0.1514;0.4173;
-24.3000;0.1506;0.4221;
-24.0000;0.1506;0.4292;
-23.7000;0.1522;0.4316;
-23.4000;0.1490;0.4221;
-23.1000;0.1490;0.4221;
-22.8000;0.1473;0.4197;
-22.5000;0.1514;0.4292;
-22.2000;0.1506;0.4244;
-21.9000;0.1490;0.4268;
-21.6000;0.1604;0.4531;
-21.3000;0.1506;0.4292;
-21.0000;0.1538;0.4388;
-20.7000;0.1571;0.4483;
-20.4000;0.1490;0.4292;
-20.1000;0.1522;0.4388;
-19.8000;0.1547;0.4316;
-19.5000;0.1522;0.4125;
-19.2000;0.1498;0.4101;
-18.9000;0.1481;0.4125;
-18.6000;0.1522;0.4125;
-18.3000;0.1530;0.4125;
-18.0000;0.1490;0.4030;
-17.7000;0.1522;0.4078;
-17.4000;0.1547;0.4149;
-17.1000;0.1506;0.4101;
-16.8000;0.1416;0.3815;
-16.5000;0.1636;0.4411;
-16.2000;0.1530;0.4030;
-15.9000;0.1514;0.4006;
-15.6000;0.1522;0.4101;
-15.3000;0.1514;0.4078;
-15.0000;0.1490;0.4054;
-14.7000;0.1522;0.4244;
-14.4000;0.1506;0.4244;
-14.1000;0.1514;0.4244;
-13.8000;0.1498;0.4173;
-13.5000;0.1587;0.4340;
-13.2000;0.1506;0.4149;
-12.9000;0.1506;0.4149;
-12.6000;0.1506;0.4030;
-12.3000;0.1514;0.4078;
-12.0000;0.1441;0.3934;
-11.7000;0.1498;0.4078;
-11.4000;0.1538;0.4173;
-11.1000;0.1522;0.4125;
-10.8000;0.1498;0.4125;
-10.5000;0.1538;0.4197;
-10.2000;0.1490;0.4006;
-9.9000;0.1498;0.4101;
-9.6000;0.1514;0.4125;
-9.3000;0.1522;0.4173;
-9.0000;0.1514;0.4244;
-8.7000;0.1514;0.4268;
-8.4000;0.1506;0.4221;
-8.1000;0.1530;0.4197;
-7.8000;0.1481;0.4054;
-7.5000;0.1490;0.4125;
-7.2000;0.1514;0.4125;
-6.9000;0.1579;0.4292;
-6.6000;0.1522;0.4221;
-6.3000;0.1522;0.4244;
-6.0000;0.1522;0.4316;
-5.7000;0.1538;0.4340;
-5.4000;0.1490;0.4197;
-5.1000;0.1514;0.4221;
-4.8000;0.1490;0.4197;
-4.5000;0.1538;0.4292;
-4.2000;0.1481;0.4149;
-3.9000;0.1547;0.4244;
-3.6000;0.1498;0.4054;
-3.3000;0.1514;0.4078;
-3.0000;0.1522;0.4125;
-2.7000;0.1522;0.4125;
-2.4000;0.1514;0.4149;
-2.1000;0.1514;0.4149;
-1.8000;0.1514;0.4149;
-1.5000;0.1481;0.4101;
-1.2000;0.1506;0.4054;
-0.9000;0.1481;0.3934;
-0.6000;0.1490;0.4006;
-0.3000;0.1538;0.4149;
0.0000;0.1538;0.4149;
0.3000;0.1506;0.4292;
0.6000;0.1538;0.4483;
0.9000;0.1538;0.4626;
1.2000;0.1644;0.4960;
1.5000;0.1579;0.4912;
1.8000;0.1571;0.5031;
2.1000;0.1604;0.5198;
2.4000;0.1563;0.5174;
2.7000;0.1579;0.5222;
3.0000;0.1636;0.5461;
3.3000;0.1636;0.5508;
3.6000;0.1612;0.5556;
3.9000;0.1587;0.5532;
4.2000;0.1595;0.5556;
4.5000;0.1595;0.5604;
4.8000;0.1612;0.5651;
5.1000;0.1636;0.5771;
5.4000;0.1604;0.5747;
5.7000;0.1620;0.5842;
6.0000;0.1604;0.5771;
6.3000;0.1587;0.5747;
6.6000;0.1612;0.5818;
6.9000;0.1612;0.5818;
7.2000;0.1595;0.5818;
7.5000;0.1693;0.6009;
7.8000;0.1595;0.5771;
8.1000;0.1620;0.5890;
8.4000;0.1595;0.5842;
8.7000;0.1612;0.5937;
9.0000;0.1604;0.6057;
9.3000;0.1612;0.6009;
9.6000;0.1701;0.6176;
9.9000;0.1628;0.6033;
10.2000;0.1595;0.5985;
10.5000;0.1595;0.5985;
10.8000;0.1604;0.5985;
11.1000;0.1661;0.6128;
11.4000;0.1636;0.6081;
11.7000;0.1604;0.5985;
12.0000;0.1652;0.6057;
12.3000;0.1595;0.5890;
12.6000;0.1612;0.5890;
12.9000;0.1685;0.6152;
13.2000;0.1604;0.5866;
13.5000;0.1636;0.5961;
13.8000;0.1628;0.5818;
14.1000;0.1547;0.5651;
14.4000;0.1604;0.5842;
14.7000;0.1595;0.5866;
15.0000;0.1636;0.5985;
15.3000;0.1595;0.5890;
15.6000;0.1604;0.6033;
15.9000;0.1579;0.5937;
16.2000;0.1628;0.6057;
16.5000;0.1595;0.5961;
16.8000;0.1604;0.5985;
17.1000;0.1685;0.6152;
17.4000;0.1604;0.5961;
17.7000;0.1628;0.6033;
18.0000;0.1612;0.6009;
18.3000;0.1595;0.5985;
18.6000;0.1628;0.6033;
18.9000;0.1620;0.6128;
19.2000;0.1612;0.6081;
19.5000;0.1612;0.6033;
19.8000;0.1628;0.6104;
20.1000;0.1563;0.5985;
20.4000;0.1669;0.6081;
20.7000;0.1604;0.5890;
21.0000;0.1595;0.5890;
21.3000;0.1628;0.5866;
21.6000;0.1571;0.5723;
21.9000;0.1636;0.5842;
22.2000;0.1595;0.5794;
22.5000;0.1579;0.5771;
22.8000;0.1604;0.5914;
23.1000;0.1612;0.5914;
23.4000;0.1595;0.5842;
23.7000;0.1595;0.5866;
24.0000;0.1620;0.5985;
24.3000;0.1612;0.6009;
24.6000;0.1612;0.6033;
24.9000;0.1612;0.5937;
25.2000;0.1555;0.5842;
25.5000;0.1612;0.5985;
25.8000;0.1612;0.6057;
26.1000;0.1587;0.5937;
26.4000;0.1620;0.6033;
26.7000;0.1628;0.6081;
27.0000;0.1685;0.6343;
27.3000;0.1636;0.6176;
27.6000;0.1604;0.6104;
27.9000;0.1709;0.6414;
28.2000;0.1628;0.6104;
28.5000;0.1587;0.6081;
28.8000;0.1604;0.6128;
29.1000;0.1652;0.6128;
29.4000;0.1612;0.5937;
29.7000;0.1595;0.5866;
30.0000;0.1604;0.5890;
30.3000;0.1612;0.5914;
30.6000;0.1587;0.5866;
30.9000;0.1620;0.5985;
31.2000;0.1612;0.5937;
31.5000;0.1595;0.5866;
31.8000;0.1604;0.5961;
32.1000;0.1620;0.5937;
32.4000;0.1579;0.5914;
32.7000;0.1661;0.6176;
33.0000;0.1620;0.6033;
33.3000;0.1587;0.5890;
33.6000;0.1506;0.5675;
33.9000;0.1612;0.5961;
34.2000;0.1587;0.5890;
34.5000;0.1612;0.5961;
34.8000;0.1620;0.5961;
35.1000;0.1604;0.6009;
35.4000;0.1628;0.6009;
35.7000;0.1604;0.5961;
36.0000;0.1628;0.5937;
36.3000;0.1620;0.5842;
36.6000;0.1612;0.5961;
36.9000;0.1547;0.5818;
37.2000;0.1636;0.5961;
37.5000;0.1604;0.5818;
37.8000;0.1693;0.6033;
38.1000;0.1612;0.5794;
38.4000;0.1636;0.5842;
38.7000;0.1628;0.5794;
39.0000;0.1620;0.5794;
39.3000;0.1547;0.5651;
39.6000;0.1628;0.5771;
39.9000;0.1628;0.5842;
40.2000;0.1620;0.5890;
40.5000;0.1595;0.5890;
40.8000;0.1604;0.5937;
41.1000;0.1514;0.5675;
41.4000;0.1612;0.5985;
41.7000;0.1612;0.5985;
42.0000;0.1587;0.6081;
42.3000;0.1620;0.6200;
42.6000;0.1612;0.6200;
42.9000;0.1604;0.6176;
43.2000;0.1636;0.6176;
43.5000;0.1612;0.6152;
43.8000;0.1620;0.6104;
44.1000;0.1604;0.6104;
44.4000;0.1595;0.6033;
44.7000;0.1612;0.6081;
45.0000;0.1604;0.6009;
45.3000;0.1612;0.6009;
45.6000;0.1620;0.6033;
45.9000;0.1604;0.6033;
46.2000;0.1620;0.6081;
46.5000;0.1604;0.6081;
46.8000;0.1604;0.6128;
47.1000;0.1628;0.6176;
47.4000;0.1628;0.6128;
47.7000;0.1604;0.6104;
48.0000;0.1587;0.6033;
48.3000;0.1595;0.6128;
48.6000;0.1628;0.6247;
48.9000;0.1612;0.6176;
49.2000;0.1620;0.6128;
49.5000;0.1620;0.6081;
49.8000;0.1612;0.6009;
50.1000;0.1636;0.5985;
50.4000;0.1620;0.6009;
50.7000;0.1620;0.5961;
51.0000;0.1628;0.5961;
51.3000;0.1604;0.5961;
51.6000;0.1612;0.6033;
51.9000;0.1628;0.6081;
52.2000;0.1579;0.6033;
52.5000;0.1587;0.6081;
52.8000;0.1620;0.6152;
53.1000;0.1595;0.6033;
53.4000;0.1669;0.6224;
53.7000;0.1538;0.5866;
54.0000;0.1620;0.6104;
54.3000;0.1612;0.6128;
54.6000;0.1595;0.6128;
54.9000;0.1628;0.6176;
55.2000;0.1636;0.6319;
55.5000;0.1652;0.6343;
55.8000;0.1636;0.6343;
56.1000;0.1587;0.6152;
56.4000;0.1620;0.6128;
56.7000;0.1555;0.5937;
57.0000;0.1612;0.6057;
57.3000;0.1685;0.6176;
57.6000;0.1604;0.5961;
57.9000;0.1612;0.5985;
58.2000;0.1669;0.6176;
58.5000;0.1579;0.6033;
58.8000;0.1628;0.6271;
59.1000;0.1620;0.6295;
59.4000;0.1587;0.6200;
59.7000;0.1587;0.6176;
60.0000;0.1636;0.6271;
60.3000;0.1628;0.6271;
60.6000;0.1563;0.6057;
60.9000;0.1522;0.5985;
61.2000;0.1506;0.5866;
61.5000;0.1620;0.6247;
61.8000;0.1620;0.6224;
62.1000;0.1595;0.6176;
62.4000;0.1579;0.6224;
62.7000;0.1595;0.6247;
63.0000;0.1595;0.6367;
63.3000;0.1620;0.6391;
63.6000;0.1612;0.6343;
63.9000;0.1563;0.6176;
64.2000;0.1579;0.6176;
64.5000;0.1620;0.6200;
64.8000;0.1612;0.6081;
65.1000;0.1604;0.6009;
65.4000;0.1612;0.6081;
65.7000;0.1636;0.6081;
66.0000;0.1595;0.6033;
66.3000;0.1612;0.6009;
66.6000;0.1587;0.5961;
66.9000;0.1604;0.6057;
67.2000;0.1612;0.6128;
67.5000;0.1620;0.6081;
67.8000;0.1604;0.6081;
68.1000;0.1636;0.6200;
68.4000;0.1628;0.6200;
68.7000;0.1604;0.6104;
69.0000;0.1636;0.6152;
69.3000;0.1595;0.6033;
69.6000;0.1604;0.6057;
69.9000;0.1595;0.6057;
70.2000;0.1506;0.5699;
70.5000;0.1595;0.6033;
70.8000;0.1628;0.6033;
71.1000;0.1628;0.6081;
71.4000;0.1587;0.6057;
71.7000;0.1612;0.6081;
72.0000;0.1604;0.6128;
72.3000;0.1612;0.6104;
72.6000;0.1612;0.6104;
72.9000;0.1628;0.6152;
73.2000;0.1644;0.6224;
73.5000;0.1620;0.6152;
73.8000;0.1620;0.6009;
74.1000;0.1612;0.6104;
74.4000;0.1604;0.6057;
74.7000;0.1604;0.6009;
75.0000;0.1563;0.5842;
75.3000;0.1620;0.5985;
75.6000;0.1628;0.6009;
75.9000;0.1555;0.5890;
76.2000;0.1636;0.6081;
76.5000;0.1530;0.5842;
76.8000;0.1595;0.6033;
77.1000;0.1628;0.6152;
77.4000;0.1506;0.5842;
77.7000;0.1563;0.5937;
78.0000;0.1587;0.5961;
78.3000;0.1571;0.5914;
78.6000;0.1620;0.6009;
78.9000;0.1595;0.5961;
79.2000;0.1636;0.6128;
79.5000;0.1498;0.5818;
79.8000;0.1612;0.6152;
80.1000;0.1636;0.6247;
80.4000;0.1612;0.6247;
80.7000;0.1612;0.6247;
81.0000;0.1604;0.6200;
81.3000;0.1628;0.6176;
81.6000;0.1628;0.6081;
81.9000;0.1612;0.6009;
82.2000;0.1620;0.5985;
82.5000;0.1612;0.5937;
82.8000;0.1595;0.5842;
83.1000;0.1604;0.5866;
83.4000;0.1620;0.5985;
83.7000;0.1628;0.6200;
84.0000;0.1579;0.6128;
84.3000;0.1628;0.6176;
84.6000;0.1612;0.6200;
84.9000;0.1620;0.6247;
85.2000;0.1604;0.6247;
85.5000;0.1604;0.6271;
85.8000;0.1604;0.6176;
86.1000;0.1612;0.6128;
86.4000;0.1604;0.6152;
86.7000;0.1612;0.6152;
87.0000;0.1612;0.6152;
87.3000;0.1595;0.6081;
87.6000;0.1604;0.6104;
87.9000;0.1620;0.6128;
88.2000;0.1587;0.6009;
88.5000;0.1604;0.6128;
88.8000;0.1628;0.6200;
89.1000;0.1506;0.5914;
89.4000;0.1620;0.6224;
89.7000;0.1620;0.6128;
90.0000;0.1612;0.6128;
90.3000;0.1652;0.6200;
90.6000;0.1612;0.6152;
90.9000;0.1612;0.6200;
91.2000;0.1636;0.6247;
91.5000;0.1620;0.6247;
91.8000;0.1612;0.6200;
92.1000;0.1620;0.6271;
92.4000;0.1604;0.6200;
92.7000;0.1595;0.6200;
93.0000;0.1612;0.6224;
93.3000;0.1620;0.6200;
93.6000;0.1538;0.6009;
93.9000;0.1644;0.6319;
94.2000;0.1595;0.6224;
94.5000;0.1612;0.6247;
94.8000;0.1620;0.6247;
95.1000;0.1620;0.6271;
95.4000;0.1677;0.6414;
95.7000;0.1636;0.6319;
96.0000;0.1587;0.6176;
96.3000;0.1604;0.6295;
96.6000;0.1628;0.6343;
96.9000;0.1636;0.6438;
97.2000;0.1555;0.6128;
97.5000;0.1612;0.6271;
97.8000;0.1604;0.6247;
98.1000;0.1604;0.6224;
98.4000;0.1579;0.6152;
98.7000;0.1604;0.6200;
99.0000;0.1587;0.6128;
99.3000;0.1612;0.6176;
99.6000;0.1620;0.6176;
99.9000;0.1604;0.6224;
100.2000;0.1620;0.6224;
100.5000;0.1620;0.6176;
100.8000;0.1620;0.6176;
101.1000;0.1547;0.5961;
101.4000;0.1628;0.6176;
101.7000;0.1620;0.6224;
102.0000;0.1620;0.6271;
102.3000;0.1612;0.6224;
102.6000;0.1604;0.6247;
102.9000;0.1612;0.6247;
103.2000;0.1555;0.6128;
103.5000;0.1604;0.6271;
103.8000;0.1612;0.6271;
104.1000;0.1620;0.6319;
104.4000;0.1612;0.6295;
104.7000;0.1612;0.6295;
105.0000;0.1595;0.6271;
105.3000;0.1612;0.6247;
105.6000;0.1604;0.6271;
105.9000;0.1620;0.6271;
106.2000;0.1636;0.6176;
106.5000;0.1620;0.6081;
106.8000;0.1701;0.6367;
107.1000;0.1620;0.6152;
107.4000;0.1628;0.6152;
107.7000;0.1604;0.6033;
108.0000;0.1604;0.6081;
108.3000;0.1595;0.6128;
108.6000;0.1579;0.6128;
108.9000;0.1595;0.6224;
109.2000;0.1620;0.6343;
109.5000;0.1612;0.6271;
109.8000;0.1628;0.6295;
110.1000;0.1636;0.6295;
110.4000;0.1587;0.6247;
110.7000;0.1612;0.6367;
111.0000;0.1636;0.6414;
111.3000;0.1620;0.6343;
111.6000;0.1620;0.6176;
111.9000;0.1636;0.6152;
112.2000;0.1547;0.5937;
112.5000;0.1604;0.6057;
112.8000;0.1612;0.6104;
113.1000;0.1636;0.6247;
113.4000;0.1579;0.6081;
113.7000;0.1595;0.6033;
114.0000;0.1604;0.6009;
114.3000;0.1620;0.6033;
114.6000;0.1595;0.5961;
114.9000;0.1620;0.6033;
115.2000;0.1595;0.6033;
115.5000;0.1587;0.6081;
115.8000;0.1612;0.6081;
116.1000;0.1612;0.6128;
116.4000;0.1612;0.6224;
116.7000;0.1612;0.6224;
117.0000;0.1620;0.6247;
117.3000;0.1595;0.6200;
117.6000;0.1636;0.6224;
117.9000;0.1612;0.6104;
118.2000;0.1677;0.6176;
118.5000;0.1669;0.6104;
118.8000;0.1620;0.5937;
119.1000;0.1620;0.5914;
119.4000;0.1604;0.5961;
119.7000;0.1620;0.6033;
120.0000;0.1620;0.6081;
120.3000;0.1571;0.5914;
120.6000;0.1620;0.6033;
120.9000;0.1587;0.5890;
121.2000;0.1620;0.5985;
121.5000;0.1612;0.5961;
121.8000;0.1612;0.5818;
122.1000;0.1547;0.5675;
122.4000;0.1620;0.5890;
122.7000;0.1628;0.5961;
123.0000;0.1620;0.5937;
123.3000;0.1571;0.5890;
123.6000;0.1595;0.5890;
123.9000;0.1604;0.5842;
124.2000;0.1579;0.5794;
124.5000;0.1587;0.5842;
124.8000;0.1620;0.5842;
125.1000;0.1604;0.5842;
125.4000;0.1604;0.5937;
125.7000;0.1620;0.5985;
126.0000;0.1620;0.5937;
126.3000;0.1579;0.5937;
126.6000;0.1604;0.5985;
126.9000;0.1620;0.5985;
127.2000;0.1612;0.6033;
127.5000;0.1595;0.5985;
127.8000;0.1587;0.5961;
128.1000;0.1547;0.5866;
128.4000;0.1604;0.5985;
128.7000;0.1742;0.6295;
129.0000;0.1604;0.6009;
129.3000;0.1595;0.5961;
129.6000;0.1604;0.5937;
129.9000;0.1595;0.5866;
130.2000;0.1612;0.5866;
130.5000;0.1628;0.5890;
130.8000;0.1595;0.5866;
131.1000;0.1612;0.5890;
131.4000;0.1620;0.6009;
131.7000;0.1604;0.6009;
132.0000;0.1604;0.6009;
132.3000;0.1604;0.5937;
132.6000;0.1661;0.6104;
132.9000;0.1628;0.6033;
133.2000;0.1628;0.6009;
133.5000;0.1685;0.6152;
133.8000;0.1604;0.5914;
134.1000;0.1620;0.5937;
134.4000;0.1604;0.5961;
134.7000;0.1612;0.5985;
135.0000;0.1604;0.5985;
135.3000;0.1652;0.6033;
135.6000;0.1636;0.6128;
135.9000;0.1595;0.6009;
136.2000;0.1555;0.5890;
136.5000;0.1628;0.6104;
136.8000;0.1612;0.6057;
137.1000;0.1628;0.6200;
137.4000;0.1628;0.6152;
137.7000;0.1612;0.6152;
138.0000;0.1587;0.6128;
138.3000;0.1595;0.6033;
138.6000;0.1612;0.5985;
138.9000;0.1604;0.5985;
139.2000;0.1587;0.5961;
139.5000;0.1612;0.5914;
139.8000;0.1612;0.5890;
140.1000;0.1612;0.5842;
140.4000;0.1595;0.5771;
140.7000;0.1620;0.5866;
141.0000;0.1620;0.5866;
141.3000;0.1595;0.5747;
141.6000;0.1595;0.5723;
141.9000;0.1595;0.5699;
142.2000;0.1604;0.5699;
142.5000;0.1604;0.5699;
142.8000;0.1604;0.5723;
143.1000;0.1644;0.5842;
143.4000;0.1587;0.5747;
143.7000;0.1604;0.5818;
144.0000;0.1620;0.5914;
144.3000;0.1644;0.6009;
144.6000;0.1563;0.5794;
144.9000;0.1604;0.5866;
145.2000;0.1620;0.5914;
145.5000;0.1595;0.5937;
145.8000;0.1604;0.5985;
146.1000;0.1669;0.6247;
146.4000;0.1612;0.6104;
146.7000;0.1612;0.6081;
147.0000;0.1661;0.6081;
147.3000;0.1612;0.6033;
147.6000;0.1604;0.6104;
147.9000;0.1604;0.6200;
148.2000;0.1620;0.6247;
148.5000;0.1612;0.6224;
148.8000;0.1579;0.6152;
149.1000;0.1661;0.6271;
149.4000;0.1514;0.5842;
149.7000;0.1612;0.6104;
150.0000;0.1579;0.5985;
150.3000;0.1571;0.5914;
150.6000;0.1612;0.6009;
150.9000;0.1620;0.6057;
151.2000;0.1490;0.5723;
151.5000;0.1587;0.5866;
151.8000;0.1620;0.5937;
152.1000;0.1595;0.5914;
152.4000;0.1595;0.5842;
152.7000;0.1620;0.5914;
153.0000;0.1652;0.6057;
153.3000;0.1628;0.6128;
153.6000;0.1604;0.6152;
153.9000;0.1538;0.6009;
154.2000;0.1604;0.6200;
154.5000;0.1612;0.6247;
154.8000;0.1661;0.6295;
155.1000;0.1604;0.6081;
155.4000;0.1612;0.6009;
155.7000;0.1669;0.6176;
156.0000;0.1620;0.6081;
156.3000;0.1612;0.6128;
156.6000;0.1604;0.6033;
156.9000;0.1563;0.6009;
157.2000;0.1571;0.5914;
157.5000;0.1555;0.5937;
157.8000;0.1620;0.6104;
158.1000;0.1628;0.6081;
158.4000;0.1620;0.5985;
158.7000;0.1620;0.5890;
159.0000;0.1612;0.5866;
159.3000;0.1595;0.5866;
159.6000;0.1604;0.5890;
159.9000;0.1595;0.5890;
160.2000;0.1595;0.5890;
160.5000;0.1563;0.5699;
160.8000;0.1595;0.5914;
161.1000;0.1652;0.6081;
161.4000;0.1612;0.5985;
161.7000;0.1604;0.6033;
162.0000;0.1587;0.6057;
162.3000;0.1595;0.5961;
162.6000;0.1595;0.5937;
162.9000;0.1620;0.5985;
163.2000;0.1522;0.5890;
163.5000;0.1612;0.6009;
163.8000;0.1604;0.5890;
164.1000;0.1604;0.5890;
164.4000;0.1595;0.5961;
164.7000;0.1604;0.5914;
165.0000;0.1604;0.5985;
165.3000;0.1612;0.6033;
165.6000;0.1604;0.6033;
165.9000;0.1595;0.6033;
166.2000;0.1620;0.6057;
166.5000;0.1612;0.6033;
166.8000;0.1612;0.5961;
167.1000;0.1571;0.5890;
167.4000;0.1604;0.5985;
167.7000;0.1604;0.6009;
168.0000;0.1604;0.6057;
168.3000;0.1604;0.6009;
168.6000;0.1595;0.6009;
168.9000;0.1587;0.5985;
169.2000;0.1604;0.6081;
169.5000;0.1571;0.5985;
169.8000;0.1604;0.6057;
170.1000;0.1661;0.6128;
170.4000;0.1604;0.6009;
170.7000;0.1595;0.5937;
171.0000;0.1718;0.6295;
171.3000;0.1587;0.5961;
171.6000;0.1595;0.6057;
171.9000;0.1612;0.6152;
172.2000;0.1620;0.6081;
172.5000;0.1587;0.6057;
172.8000;0.1604;0.6104;
173.1000;0.1604;0.6104;
173.4000;0.1595;0.6033;
173.7000;0.1595;0.6033;
174.0000;0.1555;0.5890;
174.3000;0.1595;0.5961;
174.6000;0.1595;0.5985;
174.9000;0.1604;0.6009;
175.2000;0.1620;0.6009;
175.5000;0.1595;0.5914;
175.8000;0.1595;0.5914;
176.1000;0.1579;0.5842;
176.4000;0.1595;0.5842;
176.7000;0.1620;0.5890;
177.0000;0.1661;0.5890;
177.3000;0.1587;0.5842;
177.6000;0.1595;0.5914;
177.9000;0.1652;0.6081;
178.2000;0.1595;0.5937;
178.5000;0.1636;0.6057;
178.8000;0.1571;0.5937;
179.1000;0.1587;0.5914;
179.4000;0.1620;0.6009;
179.7000;0.1612;0.5937;
180.0000;0.1628;0.6009;
180.3000;0.1595;0.5985;
180.6000;0.1604;0.5937;
180.9000;0.1612;0.5961;
181.2000;0.1612;0.5937;
181.5000;0.1587;0.5985;
181.8000;0.1595;0.5985;
182.1000;0.1620;0.6081;
182.4000;0.1612;0.6152;
182.7000;0.1628;0.6128;
183.0000;0.1612;0.6152;
183.3000;0.1612;0.6152;
183.6000;0.1595;0.6033;
183.9000;0.1595;0.6081;
184.2000;0.1628;0.6128;
184.5000;0.1604;0.6057;
184.8000;0.1620;0.6081;
185.1000;0.1587;0.6009;
185.4000;0.1587;0.6081;
185.7000;0.1595;0.5961;
186.0000;0.1587;0.6033;
186.3000;0.1595;0.6081;
186.6000;0.1563;0.6033;
186.9000;0.1612;0.6247;
187.2000;0.1693;0.6462;
187.5000;0.1571;0.6152;
187.8000;0.1612;0.6247;
188.1000;0.1595;0.6247;
188.4000;0.1612;0.6343;
188.7000;0.1620;0.6319;
189.0000;0.1595;0.6271;
189.3000;0.1587;0.6271;
189.6000;0.1604;0.6247;
189.9000;0.1595;0.6224;
190.2000;0.1579;0.6176;
190.5000;0.1595;0.6271;
190.8000;0.1587;0.6247;
191.1000;0.1604;0.6176;
191.4000;0.1595;0.6200;
191.7000;0.1587;0.6176;
192.0000;0.1693;0.6367;
192.3000;0.1595;0.6081;
192.6000;0.1612;0.6128;
192.9000;0.1620;0.6247;
193.2000;0.1604;0.6176;
193.5000;0.1604;0.6152;
193.8000;0.1604;0.6104;
194.1000;0.1571;0.6009;
194.4000;0.1587;0.5937;
194.7000;0.1612;0.6033;
195.0000;0.1612;0.6033;
195.3000;0.1587;0.6033;
195.6000;0.1595;0.6033;
195.9000;0.1595;0.6057;
196.2000;0.1595;0.6033;
196.5000;0.1604;0.5985;
196.8000;0.1620;0.6033;
197.1000;0.1604;0.6081;
197.4000;0.1620;0.6104;
197.7000;0.1604;0.6104;
198.0000;0.1587;0.6057;
198.3000;0.1612;0.6152;
198.6000;0.1612;0.6200;
198.9000;0.1612;0.6224;
199.2000;0.1595;0.6176;
199.5000;0.1620;0.6176;
199.8000;0.1612;0.6152;
200.1000;0.1587;0.6128;
200.4000;0.1595;0.6104;
200.7000;0.1587;0.6033;
201.0000;0.1604;0.6128;
201.3000;0.1620;0.6152;
201.6000;0.1587;0.6104;
201.9000;0.1587;0.6104;
202.2000;0.1612;0.6224;
202.5000;0.1620;0.6271;
202.8000;0.1587;0.6247;
203.1000;0.1595;0.6319;
203.4000;0.1612;0.6295;
203.7000;0.1612;0.6224;
204.0000;0.1628;0.6295;
204.3000;0.1612;0.6224;
204.6000;0.1595;0.6152;
204.9000;0.1628;0.6152;
205.2000;0.1530;0.5818;
205.5000;0.1579;0.5985;
205.8000;0.1612;0.6104;
206.1000;0.1726;0.6367;
206.4000;0.1636;0.6247;
206.7000;0.1604;0.6271;
207.0000;0.1587;0.6247;
207.3000;0.1604;0.6319;
207.6000;0.1587;0.6247;
207.9000;0.1595;0.6247;
208.2000;0.1587;0.6176;
208.5000;0.1604;0.6200;
208.8000;0.1587;0.6152;
209.1000;0.1604;0.6152;
209.4000;0.1563;0.6009;
209.7000;0.1587;0.5985;
210.0000;0.1571;0.5985;
210.3000;0.1571;0.6033;
210.6000;0.1636;0.6152;
210.9000;0.1604;0.6152;
211.2000;0.1595;0.6081;
211.5000;0.1563;0.6033;
211.8000;0.1612;0.6081;
212.1000;0.1620;0.6081;
212.4000;0.1669;0.6319;
212.7000;0.1620;0.6200;
213.0000;0.1612;0.6224;
213.3000;0.1579;0.6224;
213.6000;0.1587;0.6343;
213.9000;0.1612;0.6414;
214.2000;0.1587;0.6367;
214.5000;0.1595;0.6438;
214.8000;0.1579;0.6367;
215.1000;0.1628;0.6510;
215.4000;0.1612;0.6510;
215.7000;0.1612;0.6510;
216.0000;0.1595;0.6414;
216.3000;0.1604;0.6462;
216.6000;0.1604;0.6414;
216.9000;0.1604;0.6391;
217.2000;0.1604;0.6367;
217.5000;0.1604;0.6319;
217.8000;0.1587;0.6295;
218.1000;0.1555;0.6176;
218.4000;0.1620;0.6319;
218.7000;0.1571;0.6152;
219.0000;0.1652;0.6271;
219.3000;0.1604;0.6152;
219.6000;0.1595;0.6128;
219.9000;0.1628;0.6128;
220.2000;0.1620;0.6128;
220.5000;0.1604;0.6081;
220.8000;0.1612;0.6152;
221.1000;0.1604;0.6152;
221.4000;0.1579;0.6152;
221.7000;0.1612;0.6200;
222.0000;0.1652;0.6319;
222.3000;0.1595;0.6152;
222.6000;0.1595;0.6128;
222.9000;0.1595;0.6104;
223.2000;0.1604;0.6152;
223.5000;0.1579;0.6081;
223.8000;0.1677;0.6391;
224.1000;0.1628;0.6224;
224.4000;0.1612;0.6128;
224.7000;0.1612;0.6200;
225.0000;0.1612;0.6152;
225.3000;0.1604;0.6128;
225.6000;0.1595;0.6152;
225.9000;0.1587;0.6128;
226.2000;0.1538;0.5937;
226.5000;0.1628;0.6176;
226.8000;0.1604;0.6128;
227.1000;0.1579;0.6009;
227.4000;0.1604;0.6176;
227.7000;0.1595;0.6247;
228.0000;0.1579;0.6295;
228.3000;0.1604;0.6343;
228.6000;0.1612;0.6391;
228.9000;0.1595;0.6414;
229.2000;0.1587;0.6414;
229.5000;0.1604;0.6462;
229.8000;0.1604;0.6438;
230.1000;0.1563;0.6295;
230.4000;0.1595;0.6343;
230.7000;0.1498;0.6009;
231.0000;0.1595;0.6247;
231.3000;0.1612;0.6295;
231.6000;0.1595;0.6224;
231.9000;0.1595;0.6152;
232.2000;0.1587;0.6200;
232.5000;0.1620;0.6224;
232.8000;0.1604;0.6176;
233.1000;0.1612;0.6247;
233.4000;0.1604;0.6391;
233.7000;0.1587;0.6319;
234.0000;0.1587;0.6319;
234.3000;0.1620;0.6462;
234.6000;0.1514;0.6247;
234.9000;0.1612;0.6319;
235.2000;0.1587;0.6224;
235.5000;0.1644;0.6200;
235.8000;0.1604;0.6128;
236.1000;0.1587;0.6176;
236.4000;0.1595;0.6128;
236.7000;0.1644;0.6200;
237.0000;0.1628;0.6152;
237.3000;0.1604;0.6033;
237.6000;0.1579;0.6033;
237.9000;0.1604;0.6057;
238.2000;0.1612;0.6104;
238.5000;0.1563;0.5890;
238.8000;0.1604;0.6033;
239.1000;0.1734;0.6391;
239.4000;0.1604;0.6081;
239.7000;0.1579;0.6009;
240.0000;0.1604;0.6057;
240.3000;0.1595;0.6081;
240.6000;0.1604;0.6200;
240.9000;0.1701;0.6557;
241.2000;0.1571;0.6176;
241.5000;0.1628;0.6247;
241.8000;0.1604;0.6200;
242.1000;0.1620;0.6247;
242.4000;0.1604;0.6176;
242.7000;0.1661;0.6295;
243.0000;0.1620;0.6247;
243.3000;0.1604;0.6224;
243.6000;0.1498;0.5961;
243.9000;0.1628;0.6367;
244.2000;0.1604;0.6295;
244.5000;0.1579;0.6271;
244.8000;0.1587;0.6271;
245.1000;0.1612;0.6319;
245.4000;0.1612;0.6247;
245.7000;0.1481;0.5914;
246.0000;0.1628;0.6343;
246.3000;0.1612;0.6224;
246.6000;0.1612;0.6224;
246.9000;0.1620;0.6271;
247.2000;0.1604;0.6271;
247.5000;0.1563;0.6104;
247.8000;0.1514;0.5961;
248.1000;0.1555;0.6009;
248.4000;0.1628;0.6271;
248.7000;0.1579;0.6104;
249.0000;0.1620;0.6176;
249.3000;0.1612;0.6152;
249.6000;0.1628;0.6343;
249.9000;0.1734;0.6605;
250.2000;0.1538;0.6104;
250.5000;0.1604;0.6295;
250.8000;0.1620;0.6367;
251.1000;0.1563;0.6247;
251.4000;0.1579;0.6271;
251.7000;0.1652;0.6462;
252.0000;0.1604;0.6271;
252.3000;0.1595;0.6200;
252.6000;0.1604;0.6176;
252.9000;0.1587;0.6176;
253.2000;0.1669;0.6247;
253.5000;0.1612;0.5961;
253.8000;0.1620;0.6009;
254.1000;0.1595;0.5961;
254.4000;0.1620;0.5985;
254.7000;0.1620;0.6057;
255.0000;0.1587;0.6081;
255.3000;0.1587;0.6152;
255.6000;0.1595;0.6176;
255.9000;0.1620;0.6271;
256.2000;0.1571;0.6176;
256.5000;0.1579;0.6128;
256.8000;0.1604;0.6128;
257.1000;0.1612;0.6104;
257.4000;0.1547;0.5985;
257.7000;0.1612;0.6176;
258.0000;0.1628;0.6247;
258.3000;0.1612;0.6224;
258.6000;0.1612;0.6200;
258.9000;0.1595;0.6200;
259.2000;0.1636;0.6295;
259.5000;0.1612;0.6200;
259.8000;0.1604;0.6152;
260.1000;0.1595;0.6128;
260.4000;0.1652;0.6200;
260.7000;0.1604;0.6128;
261.0000;0.1636;0.6152;
261.3000;0.1595;0.6033;
261.6000;0.1612;0.6009;
261.9000;0.1595;0.6081;
262.2000;0.1620;0.6104;
262.5000;0.1604;0.6176;
262.8000;0.1595;0.6152;
263.1000;0.1595;0.6152;
263.4000;0.1628;0.6295;
263.7000;0.1612;0.6152;
264.0000;0.1587;0.6224;
264.3000;0.1595;0.6247;
264.6000;0.1604;0.6319;
264.9000;0.1612;0.6414;
265.2000;0.1620;0.6414;
265.5000;0.1595;0.6343;
265.8000;0.1604;0.6343;
266.1000;0.1555;0.6319;
266.4000;0.1644;0.6581;
266.7000;0.1636;0.6557;
267.0000;0.1604;0.6414;
267.3000;0.1530;0.6152;
267.6000;0.1612;0.6319;
267.9000;0.1620;0.6295;
268.2000;0.1481;0.5961;
268.5000;0.1636;0.6391;
268.8000;0.1579;0.6176;
269.1000;0.1612;0.6200;
269.4000;0.1612;0.6128;
269.7000;0.1612;0.6128;
270.0000;0.1652;0.6271;
270.3000;0.1612;0.6224;
270.6000;0.1604;0.6200;
270.9000;0.1628;0.6247;
271.2000;0.1612;0.6247;
271.5000;0.1604;0.6152;
271.8000;0.1595;0.6152;
272.1000;0.1595;0.6128;
272.4000;0.1538;0.5937;
272.7000;0.1595;0.6152;
273.0000;0.1636;0.6247;
273.3000;0.1555;0.5985;
273.6000;0.1587;0.6009;
273.9000;0.1612;0.6057;
274.2000;0.1636;0.6247;
274.5000;0.1604;0.6152;
274.8000;0.1604;0.6200;
275.1000;0.1604;0.6224;
275.4000;0.1620;0.6247;
275.7000;0.1604;0.6176;
276.0000;0.1612;0.6152;
276.3000;0.1595;0.6152;
276.6000;0.1612;0.6224;
276.9000;0.1620;0.6152;
277.2000;0.1604;0.6152;
277.5000;0.1604;0.6104;
277.8000;0.1604;0.6104;
278.1000;0.1628;0.6104;
278.4000;0.1587;0.6057;
278.7000;0.1661;0.6200;
279.0000;0.1628;0.6128;
279.3000;0.1579;0.5961;
279.6000;0.1604;0.6057;
279.9000;0.1612;0.6009;
280.2000;0.1628;0.6176;
280.5000;0.1579;0.6176;
280.8000;0.1636;0.6367;
281.1000;0.1620;0.6391;
281.4000;0.1612;0.6319;
281.7000;0.1604;0.6295;
282.0000;0.1579;0.6271;
282.3000;0.1612;0.6319;
282.6000;0.1595;0.6319;
282.9000;0.1604;0.6319;
283.2000;0.1587;0.6247;
283.5000;0.1595;0.6224;
283.8000;0.1612;0.6224;
284.1000;0.1587;0.6176;
284.4000;0.1677;0.6391;
284.7000;0.1579;0.6200;
285.0000;0.1587;0.6224;
285.3000;0.1620;0.6224;
285.6000;0.1612;0.6224;
285.9000;0.1587;0.6128;
286.2000;0.1587;0.6081;
286.5000;0.1604;0.6128;
286.8000;0.1652;0.6295;
287.1000;0.1595;0.6224;
287.4000;0.1620;0.6152;
287.7000;0.1595;0.6057;
288.0000;0.1612;0.6057;
288.3000;0.1604;0.6057;
288.6000;0.1538;0.5914;
288.9000;0.1563;0.6033;
289.2000;0.1530;0.5866;
289.5000;0.1563;0.5985;
289.8000;0.1604;0.6009;
290.1000;0.1587;0.5914;
290.4000;0.1644;0.6057;
290.7000;0.1604;0.5937;
291.0000;0.1579;0.5914;
291.3000;0.1612;0.6033;
291.6000;0.1595;0.6033;
291.9000;0.1604;0.6081;
292.2000;0.1604;0.6081;
292.5000;0.1628;0.6176;
292.8000;0.1620;0.6176;
293.1000;0.1587;0.6081;
293.4000;0.1604;0.6152;
293.7000;0.1604;0.6081;
294.0000;0.1595;0.6009;
294.3000;0.1620;0.6081;
294.6000;0.1612;0.6033;
294.9000;0.1604;0.6081;
295.2000;0.1579;0.6081;
295.5000;0.1604;0.6200;
295.8000;0.1595;0.6128;
296.1000;0.1620;0.6057;
296.4000;0.1604;0.5937;
296.7000;0.1604;0.5985;
297.0000;0.1636;0.6057;
297.3000;0.1734;0.6367;
297.6000;0.1604;0.6033;
297.9000;0.1571;0.5914;
298.2000;0.1604;0.5890;
298.5000;0.1620;0.5866;
298.8000;0.1571;0.5699;
299.1000;0.1604;0.5818;
299.4000;0.1620;0.5985;
299.7000;0.1595;0.6009;
300.0000;0.1595;0.6081;
300.3000;0.1604;0.6081;
300.6000;0.1595;0.6081;
300.9000;0.1620;0.6176;
301.2000;0.1587;0.6104;
301.5000;0.1612;0.6128;
301.8000;0.1571;0.6057;
302.1000;0.1644;0.6224;
302.4000;0.1644;0.6295;
302.7000;0.1620;0.6224;
303.0000;0.1579;0.6128;
303.3000;0.1530;0.6081;
303.6000;0.1620;0.6319;
303.9000;0.1579;0.6247;
304.2000;0.1612;0.6224;
304.5000;0.1595;0.6271;
304.8000;0.1677;0.6534;
305.1000;0.1620;0.6295;
305.4000;0.1579;0.6176;
305.7000;0.1595;0.6247;
306.0000;0.1579;0.6271;
306.3000;0.1473;0.6033;
306.6000;0.1661;0.6557;
306.9000;0.1587;0.6367;
307.2000;0.1563;0.6271;
307.5000;0.1604;0.6319;
307.8000;0.1587;0.6343;
308.1000;0.1612;0.6319;
308.4000;0.1620;0.6319;
308.7000;0.1595;0.6247;
309.0000;0.1587;0.6319;
309.3000;0.1604;0.6367;
309.6000;0.1595;0.6367;
309.9000;0.1595;0.6367;
310.2000;0.1579;0.6271;
310.5000;0.1595;0.6319;
310.8000;0.1595;0.6224;
311.1000;0.1563;0.6152;
311.4000;0.1595;0.6295;
311.7000;0.1604;0.6247;
312.0000;0.1612;0.6271;
312.3000;0.1595;0.6271;
312.6000;0.1612;0.6295;
312.9000;0.1628;0.6367;
313.2000;0.1612;0.6271;
313.5000;0.1604;0.6128;
313.8000;0.1612;0.6247;
314.1000;0.1628;0.6319;
314.4000;0.1612;0.6343;
314.7000;0.1595;0.6224;
315.0000;0.1612;0.6247;
315.3000;0.1612;0.6224;
315.6000;0.1587;0.6176;
315.9000;0.1579;0.6176;
316.2000;0.1669;0.6414;
316.5000;0.1595;0.6224;
316.8000;0.1628;0.6319;
317.1000;0.1595;0.6295;
317.4000;0.1555;0.6224;
317.7000;0.1595;0.6295;
318.0000;0.1595;0.6271;
318.3000;0.1563;0.6176;
318.6000;0.1595;0.6224;
318.9000;0.1595;0.6152;
319.2000;0.1571;0.6057;
319.5000;0.1612;0.6104;
319.8000;0.1595;0.6104;
320.1000;0.1604;0.6057;
320.4000;0.1612;0.6104;
320.7000;0.1612;0.6057;
321.0000;0.1579;0.6033;
321.3000;0.1563;0.6033;
321.6000;0.1595;0.6081;
321.9000;0.1604;0.6081;
322.2000;0.1595;0.6009;
322.5000;0.1595;0.5961;
322.8000;0.1555;0.5914;
323.1000;0.1652;0.6176;
323.4000;0.1587;0.5985;
323.7000;0.1604;0.6104;
324.0000;0.1604;0.6104;
324.3000;0.1620;0.6152;
324.6000;0.1595;0.6057;
324.9000;0.1604;0.6104;
325.2000;0.1604;0.6057;
325.5000;0.1604;0.6081;
325.8000;0.1587;0.6081;
326.1000;0.1604;0.6081;
326.4000;0.1595;0.6081;
326.7000;0.1595;0.6104;
327.0000;0.1571;0.6081;
327.3000;0.1604;0.6200;
327.6000;0.1628;0.6343;
327.9000;0.1595;0.6247;
328.2000;0.1587;0.6247;
328.5000;0.1579;0.6247;
328.8000;0.1595;0.6343;
329.1000;0.1604;0.6367;
329.4000;0.1555;0.6200;
329.7000;0.1595;0.6295;
330.0000;0.1604;0.6271;
330.3000;0.1571;0.6200;
330.6000;0.1620;0.6367;
330.9000;0.1604;0.6271;
331.2000;0.1669;0.6391;
331.5000;0.1579;0.6128;
331.8000;0.1604;0.6176;
332.1000;0.1595;0.6152;
332.4000;0.1538;0.6009;
332.7000;0.1579;0.6081;
333.0000;0.1514;0.5985;
333.3000;0.1620;0.6247;
333.6000;0.1595;0.6128;
333.9000;0.1595;0.6104;
334.2000;0.1595;0.6104;
334.5000;0.1587;0.6152;
334.8000;0.1612;0.6152;
335.1000;0.1604;0.6152;
335.4000;0.1595;0.6104;
335.7000;0.1612;0.6295;
336.0000;0.1604;0.6295;
336.3000;0.1595;0.6271;
336.6000;0.1595;0.6271;
336.9000;0.1612;0.6319;
337.2000;0.1595;0.6271;
337.5000;0.1612;0.6200;
337.8000;0.1595;0.6033;
338.1000;0.1628;0.6152;
338.4000;0.1604;0.6033;
338.7000;0.1587;0.6033;
339.0000;0.1604;0.6081;
339.3000;0.1612;0.6104;
339.6000;0.1612;0.6128;
339.9000;0.1612;0.6104;
340.2000;0.1473;0.5794;
340.5000;0.1595;0.6104;
340.8000;0.1604;0.6176;
341.1000;0.1595;0.6152;
341.4000;0.1612;0.6152;
341.7000;0.1604;0.6128;
342.0000;0.1604;0.6200;
342.3000;0.1644;0.6224;
342.6000;0.1604;0.6104;
342.9000;0.1652;0.6224;
343.2000;0.1490;0.5890;
343.5000;0.1604;0.6271;
343.8000;0.1587;0.6200;
344.1000;0.1587;0.6200;
344.4000;0.1579;0.6128;
344.7000;0.1579;0.6104;
345.0000;0.1612;0.6224;
345.3000;0.1579;0.6176;
345.6000;0.1612;0.6224;
345.9000;0.1612;0.6247;
346.2000;0.1612;0.6247;
346.5000;0.1595;0.6152;
346.8000;0.1579;0.6200;
347.1000;0.1595;0.6176;
347.4000;0.1620;0.6224;
347.7000;0.1481;0.5890;
348.0000;0.1595;0.6176;
348.3000;0.1579;0.6176;
348.6000;0.1595;0.6200;
348.9000;0.1604;0.6271;
349.2000;0.1612;0.6367;
349.5000;0.1595;0.6367;
349.8000;0.1604;0.6224;
350.1000;0.1595;0.6152;
350.4000;0.1587;0.6057;
350.7000;0.1595;0.6104;
351.0000;0.1604;0.6152;
351.3000;0.1604;0.6200;
351.6000;0.1604;0.6152;
351.9000;0.1620;0.6295;
352.2000;0.1595;0.6295;
352.5000;0.1595;0.6343;
352.8000;0.1612;0.6414;
353.1000;0.1555;0.6247;
353.4000;0.1595;0.6319;
353.7000;0.1571;0.6271;
354.0000;0.1595;0.6295;
354.3000;0.1587;0.6295;
354.6000;0.1587;0.6224;
354.9000;0.1612;0.6247;
355.2000;0.1604;0.6271;
355.5000;0.1595;0.6176;
355.8000;0.1612;0.6152;
356.1000;0.1612;0.6224;
356.4000;0.1612;0.6224;
356.7000;0.1620;0.6295;
357.0000;0.1604;0.6271;
357.3000;0.1604;0.6295;
357.6000;0.1636;0.6271;
357.9000;0.1612;0.6271;
358.2000;0.1587;0.6224;
358.5000;0.1595;0.6247;
358.8000;0.1595;0.6176;
359.1000;0.1522;0.6009;
359.4000;0.1587;0.6152;
359.7000;0.1612;0.6200;
360.0000;0.1595;0.6271;
360.3000;0.1612;0.6295;
360.6000;0.1595;0.6224;
360.9000;0.1620;0.6200;
361.2000;0.1498;0.5818;
361.5000;0.1579;0.5985;
361.8000;0.1604;0.6081;
362.1000;0.1587;0.6033;
362.4000;0.1604;0.5985;
362.7000;0.1587;0.5961;
363.0000;0.1538;0.5818;
363.3000;0.1571;0.5937;
363.6000;0.1604;0.6033;
363.9000;0.1628;0.6104;
364.2000;0.1579;0.6033;
364.5000;0.1604;0.6081;
364.8000;0.1628;0.6152;
365.1000;0.1604;0.6081;
365.4000;0.1604;0.6128;
365.7000;0.1604;0.6176;
366.0000;0.1587;0.6152;
366.3000;0.1587;0.6176;
366.6000;0.1587;0.6128;
366.9000;0.1612;0.6247;
367.2000;0.1628;0.6295;
367.5000;0.1587;0.6200;
367.8000;0.1636;0.6319;
368.1000;0.1595;0.6247;
368.4000;0.1595;0.6247;
368.7000;0.1620;0.6271;
369.0000;0.1604;0.6224;
369.3000;0.1538;0.6033;
369.6000;0.1604;0.6152;
369.9000;0.1595;0.6128;
370.2000;0.1547;0.5985;
370.5000;0.1587;0.6176;
370.8000;0.1604;0.6224;
371.1000;0.1595;0.6271;
371.4000;0.1579;0.6224;
371.7000;0.1595;0.6200;
372.0000;0.1595;0.6176;
372.3000;0.1595;0.6200;
372.6000;0.1620;0.6271;
372.9000;0.1620;0.6319;
373.2000;0.1612;0.6319;
373.5000;0.1595;0.6176;
373.8000;0.1612;0.6200;
374.1000;0.1595;0.6152;
374.4000;0.1612;0.6200;
374.7000;0.1595;0.6271;
375.0000;0.1579;0.6295;
375.3000;0.1604;0.6319;
375.6000;0.1595;0.6271;
375.9000;0.1604;0.6295;
376.2000;0.1595;0.6271;
376.5000;0.1579;0.6224;
376.8000;0.1530;0.5985;
377.1000;0.1595;0.6271;
377.4000;0.1661;0.6414;
377.7000;0.1595;0.6224;
378.0000;0.1563;0.6152;
378.3000;0.1473;0.5818;
378.6000;0.1595;0.6200;
378.9000;0.1555;0.6009;
379.2000;0.1587;0.6247;
379.5000;0.1620;0.6271;
379.8000;0.1604;0.6319;
380.1000;0.1604;0.6319;
380.4000;0.1595;0.6343;
380.7000;0.1587;0.6247;
381.0000;0.1604;0.6319;
381.3000;0.1595;0.6295;
381.6000;0.1604;0.6247;
381.9000;0.1604;0.6176;
382.2000;0.1587;0.6224;
382.5000;0.1587;0.6247;
382.8000;0.1555;0.6152;
383.1000;0.1587;0.6295;
383.4000;0.1587;0.6247;
383.7000;0.1612;0.6319;
384.0000;0.1595;0.6176;
384.3000;0.1587;0.6176;
384.6000;0.1612;0.6152;
384.9000;0.1620;0.6152;
385.2000;0.1620;0.6152;
385.5000;0.1604;0.6081;
385.8000;0.1587;0.5961;
386.1000;0.1612;0.6057;
386.4000;0.1612;0.6057;
386.7000;0.1604;0.6057;
387.0000;0.1587;0.5985;
387.3000;0.1595;0.5914;
387.6000;0.1604;0.5794;
387.9000;0.1595;0.5794;
388.2000;0.1579;0.5866;
388.5000;0.1579;0.5961;
388.8000;0.1579;0.5937;
389.1000;0.1595;0.6057;
389.4000;0.1595;0.6009;
389.7000;0.1538;0.5866;
390.0000;0.1604;0.6033;
390.3000;0.1612;0.5985;
390.6000;0.1563;0.5842;
390.9000;0.1620;0.6009;
391.2000;0.1595;0.6081;
391.5000;0.1628;0.6104;
391.8000;0.1595;0.6033;
392.1000;0.1620;0.6104;
392.4000;0.1571;0.6033;
392.7000;0.1604;0.6128;
393.0000;0.1579;0.6057;
393.3000;0.1579;0.6033;
393.6000;0.1604;0.6057;
393.9000;0.1612;0.6009;
394.2000;0.1604;0.5985;
394.5000;0.1604;0.5961;
394.8000;0.1620;0.5914;
395.1000;0.1595;0.5985;
395.4000;0.1604;0.6033;
395.7000;0.1595;0.5985;
396.0000;0.1595;0.5937;
396.3000;0.1579;0.5890;
396.6000;0.1604;0.6009;
396.9000;0.1547;0.5818;
397.2000;0.1604;0.5937;
397.5000;0.1530;0.5794;
397.8000;0.1628;0.6009;
398.1000;0.1587;0.5914;
398.4000;0.1636;0.6033;
398.7000;0.1604;0.5842;
399.0000;0.1587;0.5842;
399.3000;0.1563;0.5723;
399.6000;0.1604;0.5794;
399.9000;0.1718;0.6176;
400.2000;0.1628;0.5914;
400.5000;0.1604;0.5890;
400.8000;0.1587;0.5890;
401.1000;0.1718;0.6200;
401.4000;0.1701;0.6128;
401.7000;0.1579;0.5842;
402.0000;0.1587;0.5794;
402.3000;0.1612;0.5890;
402.6000;0.1563;0.5723;
402.9000;0.1636;0.5914;
403.2000;0.1587;0.5914;
403.5000;0.1595;0.5937;
403.8000;0.1595;0.5985;
404.1000;0.1595;0.6009;
404.4000;0.1538;0.5794;
404.7000;0.1612;0.5985;
405.0000;0.1636;0.6033;
405.3000;0.1595;0.5890;
405.6000;0.1612;0.6009;
405.9000;0.1628;0.6057;
406.2000;0.1555;0.5818;
406.5000;0.1604;0.6009;
406.8000;0.1595;0.5985;
407.1000;0.1595;0.6009;
407.4000;0.1595;0.6009;
407.7000;0.1587;0.5985;
408.0000;0.1595;0.6104;
408.3000;0.1587;0.6128;
408.6000;0.1595;0.6176;
408.9000;0.1579;0.6081;
409.2000;0.1595;0.6104;
409.5000;0.1604;0.6057;
409.8000;0.1498;0.5771;
410.1000;0.1612;0.6104;
410.4000;0.1612;0.6057;
410.7000;0.1620;0.6057;
411.0000;0.1604;0.6081;
411.3000;0.1604;0.6057;
411.6000;0.1612;0.6152;
411.9000;0.1595;0.6057;
412.2000;0.1530;0.5890;
412.5000;0.1612;0.6009;
412.8000;0.1563;0.5914;
413.1000;0.1587;0.5985;
413.4000;0.1604;0.5985;
413.7000;0.1595;0.5961;
414.0000;0.1571;0.5985;
414.3000;0.1563;0.5866;
414.6000;0.1604;0.6033;
414.9000;0.1620;0.5985;
415.2000;0.1644;0.6033;
415.5000;0.1538;0.5794;
415.8000;0.1587;0.5961;
416.1000;0.1620;0.6081;
416.4000;0.1612;0.6081;
416.7000;0.1587;0.6104;
417.0000;0.1636;0.6247;
417.3000;0.1587;0.6247;
417.6000;0.1620;0.6295;
417.9000;0.1612;0.6224;
418.2000;0.1579;0.6152;
418.5000;0.1620;0.6200;
418.8000;0.1595;0.6200;
419.1000;0.1595;0.6152;
419.4000;0.1604;0.6128;
419.7000;0.1612;0.6033;
420.0000;0.1587;0.5890;
420.3000;0.1636;0.5985;
420.6000;0.1563;0.5818;
420.9000;0.1644;0.6057;
421.2000;0.1579;0.5914;
421.5000;0.1563;0.5866;
421.8000;0.1628;0.6009;
422.1000;0.1620;0.6033;
422.4000;0.1652;0.6152;
422.7000;0.1677;0.6271;
423.0000;0.1571;0.6009;
423.3000;0.1652;0.6271;
423.6000;0.1612;0.6104;
423.9000;0.1620;0.6128;
424.2000;0.1579;0.6104;
424.5000;0.1595;0.6128;
424.8000;0.1677;0.6367;
425.1000;0.1604;0.6200;
425.4000;0.1604;0.6200;
425.7000;0.1571;0.6128;
426.0000;0.1612;0.6176;
426.3000;0.1587;0.6152;
426.6000;0.1595;0.6152;
426.9000;0.1669;0.6271;
427.2000;0.1595;0.6009;
427.5000;0.1612;0.6057;
427.8000;0.1620;0.6081;
428.1000;0.1604;0.6104;
428.4000;0.1563;0.5985;
428.7000;0.1628;0.6152;
429.0000;0.1612;0.6104;
429.3000;0.1587;0.6057;
429.6000;0.1571;0.6104;
429.9000;0.1612;0.6200;
430.2000;0.1538;0.5985;
430.5000;0.1587;0.6152;
430.8000;0.1595;0.6081;
431.1000;0.1587;0.6128;
431.4000;0.1579;0.6128;
431.7000;0.1595;0.6176;
432.0000;0.1522;0.5890;
432.3000;0.1579;0.6128;
432.6000;0.1571;0.6081;
432.9000;0.1579;0.6200;
433.2000;0.1595;0.6247;
433.5000;0.1620;0.6319;
433.8000;0.1628;0.6295;
434.1000;0.1595;0.6152;
434.4000;0.1620;0.6247;
434.7000;0.1579;0.6057;
435.0000;0.1604;0.6128;
435.3000;0.1636;0.6104;
435.6000;0.1612;0.6033;
435.9000;0.1612;0.6033;
436.2000;0.1604;0.6033;
436.5000;0.1612;0.6033;
436.8000;0.1579;0.5961;
437.1000;0.1709;0.6319;
437.4000;0.1571;0.6009;
437.7000;0.1612;0.6128;
438.0000;0.1628;0.6128;
438.3000;0.1620;0.6057;
438.6000;0.1587;0.5961;
438.9000;0.1595;0.6009;
439.2000;0.1571;0.5961;
439.5000;0.1758;0.6462;
439.8000;0.1571;0.6009;
440.1000;0.1506;0.5794;
440.4000;0.1701;0.6271;
440.7000;0.1587;0.5961;
441.0000;0.1579;0.5985;
441.3000;0.1571;0.5985;
441.6000;0.1595;0.6104;
441.9000;0.1587;0.6128;
442.2000;0.1579;0.6081;
442.5000;0.1571;0.6033;
442.8000;0.1587;0.6057;
443.1000;0.1612;0.6104;
443.4000;0.1595;0.6081;
443.7000;0.1587;0.6057;
444.0000;0.1571;0.6009;
444.3000;0.1563;0.5961;
444.6000;0.1604;0.6033;
444.9000;0.1571;0.6009;
445.2000;0.1579;0.6033;
445.5000;0.1620;0.6081;
445.8000;0.1604;0.6033;
446.1000;0.1595;0.6009;
446.4000;0.1726;0.6343;
446.7000;0.1620;0.5937;
447.0000;0.1628;0.5961;
447.3000;0.1547;0.5818;
447.6000;0.1547;0.5794;
447.9000;0.1612;0.6057;
448.2000;0.1620;0.6104;
448.5000;0.1481;0.5818;
448.8000;0.1604;0.6224;
449.1000;0.1563;0.6104;
449.4000;0.1595;0.6104;
449.7000;0.1595;0.6057;
450.0000;0.1604;0.6033;
450.3000;0.1595;0.6033;
450.6000;0.1587;0.5985;
450.9000;0.1612;0.5937;
451.2000;0.1628;0.6033;
451.5000;0.1595;0.6033;
451.8000;0.1620;0.6104;
452.1000;0.1595;0.6152;
452.4000;0.1595;0.6152;
452.7000;0.1579;0.6128;
453.0000;0.1685;0.6438;
453.3000;0.1587;0.6152;
453.6000;0.1604;0.6152;
453.9000;0.1612;0.6176;
454.2000;0.1612;0.6176;
454.5000;0.1563;0.6081;
454.8000;0.1628;0.6081;
455.1000;0.1628;0.6009;
455.4000;0.1620;0.6009;
455.7000;0.1604;0.5961;
456.0000;0.1693;0.6176;
456.3000;0.1644;0.5961;
456.6000;0.1604;0.5985;
456.9000;0.1604;0.5985;
457.2000;0.1620;0.6033;
457.5000;0.1604;0.5914;
457.8000;0.1571;0.5961;
458.1000;0.1595;0.6009;
458.4000;0.1604;0.6009;
458.7000;0.1604;0.6033;
459.0000;0.1571;0.5985;
459.3000;0.1604;0.6128;
459.6000;0.1579;0.6081;
459.9000;0.1579;0.6009;
460.2000;0.1595;0.6033;
460.5000;0.1587;0.5961;
460.8000;0.1604;0.6128;
461.1000;0.1652;0.6271;
461.4000;0.1555;0.5961;
461.7000;0.1587;0.5985;
462.0000;0.1628;0.6081;
462.3000;0.1628;0.6033;
462.6000;0.1579;0.6009;
462.9000;0.1612;0.6104;
463.2000;0.1579;0.6009;
463.5000;0.1620;0.6152;
463.8000;0.1612;0.6176;
464.1000;0.1571;0.6128;
464.4000;0.1579;0.6152;
464.7000;0.1579;0.6104;
465.0000;0.1595;0.6081;
465.3000;0.1571;0.5985;
465.6000;0.1538;0.5866;
465.9000;0.1604;0.5985;
466.2000;0.1587;0.5985;
466.5000;0.1595;0.6200;
466.8000;0.1490;0.5914;
467.1000;0.1612;0.6176;
467.4000;0.1612;0.6128;
467.7000;0.1595;0.6152;
468.0000;0.1595;0.6176;
468.3000;0.1669;0.6343;
468.6000;0.1685;0.6343;
468.9000;0.1604;0.6176;
469.2000;0.1604;0.6152;
469.5000;0.1604;0.6128;
469.8000;0.1604;0.6033;
470.1000;0.1587;0.6057;
470.4000;0.1604;0.6081;
470.7000;0.1620;0.6176;
471.0000;0.1612;0.6200;
471.3000;0.1636;0.6176;
471.6000;0.1604;0.6104;
471.9000;0.1587;0.6033;
472.2000;0.1595;0.6128;
472.5000;0.1579;0.6128;
472.8000;0.1604;0.6176;
473.1000;0.1604;0.6152;
473.4000;0.1604;0.6152;
473.7000;0.1595;0.6152;
474.0000;0.1612;0.6104;
474.3000;0.1579;0.6057;
474.6000;0.1595;0.6152;
474.9000;0.1579;0.6033;
475.2000;0.1595;0.5985;
475.5000;0.1652;0.6152;
475.8000;0.1595;0.6009;
476.1000;0.1604;0.6057;
476.4000;0.1595;0.6057;
476.7000;0.1604;0.6104;
477.0000;0.1514;0.5818;
477.3000;0.1587;0.5985;
477.6000;0.1595;0.5985;
477.9000;0.1612;0.6009;
478.2000;0.1693;0.6224;
478.5000;0.1595;0.6081;
478.8000;0.1587;0.6033;
479.1000;0.1612;0.6057;
479.4000;0.1595;0.6009;
479.7000;0.1579;0.6057;
480.0000;0.1604;0.6081;
480.3000;0.1612;0.6009;
480.6000;0.1595;0.6033;
480.9000;0.1604;0.6104;
481.2000;0.1587;0.5985;
481.5000;0.1579;0.5985;
481.8000;0.1604;0.6057;
482.1000;0.1612;0.6057;
482.4000;0.1612;0.6057;
482.7000;0.1587;0.6033;
483.0000;0.1595;0.6152;
483.3000;0.1604;0.6128;
483.6000;0.1604;0.6057;
483.9000;0.1595;0.6057;
484.2000;0.1612;0.6128;
484.5000;0.1604;0.6104;
484.8000;0.1538;0.5914;
485.1000;0.1571;0.6057;
485.4000;0.1604;0.6128;
485.7000;0.1579;0.6081;
486.0000;0.1595;0.5985;
486.3000;0.1628;0.6104;
486.6000;0.1587;0.5985;
486.9000;0.1612;0.6081;
487.2000;0.1652;0.6152;
487.5000;0.1579;0.5961;
487.8000;0.1595;0.5961;
488.1000;0.1604;0.6104;
488.4000;0.1652;0.6271;
488.7000;0.1604;0.6128;
489.0000;0.1604;0.6247;
489.3000;0.1587;0.6295;
489.6000;0.1595;0.6247;
489.9000;0.1636;0.6271;
490.2000;0.1595;0.6247;
490.5000;0.1604;0.6200;
490.8000;0.1612;0.6224;
491.1000;0.1595;0.6295;
491.4000;0.1636;0.6438;
491.7000;0.1595;0.6367;
492.0000;0.1595;0.6367;
492.3000;0.1571;0.6271;
492.6000;0.1595;0.6391;
492.9000;0.1595;0.6438;
493.2000;0.1587;0.6462;
493.5000;0.1612;0.6438;
493.8000;0.1644;0.6486;
494.1000;0.1595;0.6367;
494.4000;0.1620;0.6343;
494.7000;0.1604;0.6271;
495.0000;0.1579;0.6200;
495.3000;0.1595;0.6271;
495.6000;0.1563;0.6128;
495.9000;0.1661;0.6367;
496.2000;0.1734;0.6557;
496.5000;0.1587;0.6200;
496.8000;0.1587;0.6295;
497.1000;0.1693;0.6557;
497.4000;0.1612;0.6319;
497.7000;0.1538;0.6128;
498.0000;0.1595;0.6247;
498.3000;0.1604;0.6247;
498.6000;0.1579;0.6271;
498.9000;0.1636;0.6438;
499.2000;0.1547;0.6200;
499.5000;0.1555;0.6081;
499.8000;0.1612;0.6200;
500.1000;0.1612;0.6176;
500.4000;0.1595;0.6128;
500.7000;0.1628;0.6200;
501.0000;0.1587;0.6152;
501.3000;0.1612;0.6200;
501.6000;0.1579;0.6104;
501.9000;0.1604;0.6128;
502.2000;0.1587;0.6104;
502.5000;0.1612;0.6200;
502.8000;0.1595;0.6176;
503.1000;0.1587;0.6081;
503.4000;0.1595;0.6081;
503.7000;0.1604;0.6152;
504.0000;0.1587;0.6081;
504.3000;0.1604;0.6152;
504.6000;0.1604;0.6200;
504.9000;0.1587;0.6152;
505.2000;0.1595;0.6176;
505.5000;0.1595;0.6128;
505.8000;0.1490;0.5866;
506.1000;0.1612;0.6176;
506.4000;0.1595;0.6104;
506.7000;0.1563;0.6033;
507.0000;0.1620;0.6200;
507.3000;0.1604;0.6200;
507.6000;0.1563;0.6152;
507.9000;0.1579;0.6200;
508.2000;0.1587;0.6128;
508.5000;0.1587;0.6224;
508.8000;0.1620;0.6319;
509.1000;0.1628;0.6367;
509.4000;0.1571;0.6009;
509.7000;0.1587;0.6033;
510.0000;0.1604;0.6081;
510.3000;0.1612;0.6128;
510.6000;0.1604;0.6176;
510.9000;0.1595;0.6176;
511.2000;0.1579;0.6128;
511.5000;0.1620;0.6152;
511.8000;0.1587;0.6057;
512.1000;0.1587;0.6033;
512.4000;0.1587;0.6057;
512.7000;0.1522;0.5842;
513.0000;0.1587;0.5937;
513.3000;0.1604;0.5937;
513.6000;0.1571;0.5866;
513.9000;0.1595;0.5890;
514.2000;0.1563;0.5794;
514.5000;0.1522;0.5627;
514.8000;0.1693;0.6128;
515.1000;0.1604;0.5914;
515.4000;0.1571;0.5985;
515.7000;0.1587;0.6033;
516.0000;0.1587;0.6057;
516.3000;0.1604;0.6081;
516.6000;0.1595;0.6057;
516.9000;0.1522;0.5890;
517.2000;0.1547;0.5914;
517.5000;0.1587;0.5985;
517.8000;0.1587;0.5914;
518.1000;0.1547;0.5842;
518.4000;0.1481;0.5604;
518.7000;0.1579;0.5842;
519.0000;0.1587;0.5866;
519.3000;0.1538;0.5723;
519.6000;0.1669;0.5937;
519.9000;0.1571;0.5818;
520.2000;0.1652;0.6057;
520.5000;0.1595;0.5866;
520.8000;0.1490;0.5675;
521.1000;0.1563;0.5914;
521.4000;0.1604;0.6009;
521.7000;0.1604;0.6057;
522.0000;0.1473;0.5699;
522.3000;0.1612;0.5985;
522.6000;0.1579;0.5961;
522.9000;0.1579;0.6033;
523.2000;0.1579;0.5937;
523.5000;0.1669;0.6176;
523.8000;0.1579;0.5961;
524.1000;0.1595;0.6057;
524.4000;0.1587;0.6033;
524.7000;0.1628;0.6081;
525.0000;0.1587;0.6081;
525.3000;0.1563;0.5961;
525.6000;0.1530;0.5842;
525.9000;0.1579;0.6081;
526.2000;0.1612;0.6176;
526.5000;0.1587;0.6152;
526.8000;0.1587;0.6128;
527.1000;0.1604;0.6152;
527.4000;0.1563;0.5961;
527.7000;0.1579;0.5866;
528.0000;0.1612;0.5985;
528.3000;0.1595;0.5890;
528.6000;0.1571;0.5794;
528.9000;0.1571;0.5747;
529.2000;0.1587;0.5723;
529.5000;0.1604;0.5771;
529.8000;0.1604;0.5794;
530.1000;0.1620;0.5794;
530.4000;0.1612;0.5747;
530.7000;0.1595;0.5651;
531.0000;0.1604;0.5675;
531.3000;0.1636;0.5818;
531.6000;0.1579;0.5771;
531.9000;0.1612;0.5890;
532.2000;0.1595;0.5914;
532.5000;0.1644;0.6009;
532.8000;0.1628;0.6057;
533.1000;0.1563;0.5818;
533.4000;0.1620;0.5866;
533.7000;0.1612;0.5842;
534.0000;0.1612;0.5890;
534.3000;0.1620;0.5866;
534.6000;0.1563;0.5842;
534.9000;0.1595;0.5866;
535.2000;0.1604;0.5937;
535.5000;0.1579;0.6033;
535.8000;0.1587;0.6081;
536.1000;0.1612;0.6104;
536.4000;0.1612;0.6033;
536.7000;0.1620;0.6057;
537.0000;0.1595;0.6033;
537.3000;0.1604;0.6009;
537.6000;0.1587;0.5890;
537.9000;0.1587;0.5842;
538.2000;0.1620;0.5842;
538.5000;0.1571;0.5794;
538.8000;0.1661;0.6081;
539.1000;0.1612;0.5890;
539.4000;0.1555;0.5723;
539.7000;0.1595;0.5890;
540.0000;0.1612;0.5937;
540.3000;0.1612;0.6009;
540.6000;0.1620;0.6057;
540.9000;0.1636;0.6104;
541.2000;0.1595;0.6009;
541.5000;0.1571;0.6009;
541.8000;0.1669;0.6224;
542.1000;0.1604;0.6033;
542.4000;0.1547;0.5842;
542.7000;0.1620;0.5961;
543.0000;0.1571;0.5866;
543.3000;0.1604;0.6009;
543.6000;0.1579;0.6057;
543.9000;0.1612;0.6104;
544.2000;0.1604;0.6176;
544.5000;0.1595;0.6152;
544.8000;0.1595;0.6176;
545.1000;0.1547;0.6033;
545.4000;0.1595;0.6128;
545.7000;0.1579;0.6057;
546.0000;0.1620;0.6247;
546.3000;0.1612;0.6200;
546.6000;0.1587;0.6128;
546.9000;0.1587;0.6057;
547.2000;0.1563;0.6033;
547.5000;0.1595;0.6033;
547.8000;0.1612;0.5985;
548.1000;0.1595;0.5937;
548.4000;0.1579;0.5890;
548.7000;0.1604;0.5818;
549.0000;0.1587;0.5723;
549.3000;0.1620;0.5842;
549.6000;0.1579;0.5699;
549.9000;0.1595;0.5675;
550.2000;0.1595;0.5747;
550.5000;0.1612;0.5914;
550.8000;0.1612;0.5937;
551.1000;0.1587;0.5914;
551.4000;0.1604;0.5914;
551.7000;0.1595;0.5842;
552.0000;0.1498;0.5699;
552.3000;0.1571;0.5890;
552.6000;0.1571;0.5866;
552.9000;0.1693;0.6152;
553.2000;0.1579;0.5914;
553.5000;0.1579;0.5914;
553.8000;0.1628;0.5961;
554.1000;0.1498;0.5604;
554.4000;0.1571;0.5842;
554.7000;0.1612;0.5937;
555.0000;0.1587;0.5914;
555.3000;0.1571;0.5937;
555.6000;0.1620;0.6104;
555.9000;0.1579;0.6057;
556.2000;0.1571;0.5985;
556.5000;0.1587;0.6057;
556.8000;0.1628;0.6152;
557.1000;0.1547;0.5890;
557.4000;0.1579;0.5842;
557.7000;0.1579;0.5890;
558.0000;0.1595;0.5961;
558.3000;0.1595;0.5937;
558.6000;0.1587;0.5937;
558.9000;0.1579;0.5937;
559.2000;0.1620;0.6033;
559.5000;0.1612;0.6033;
559.8000;0.1571;0.5866;
560.1000;0.1587;0.5937;
560.4000;0.1587;0.5961;
560.7000;0.1587;0.5818;
561.0000;0.1579;0.5890;
561.3000;0.1595;0.5866;
561.6000;0.1595;0.5937;
561.9000;0.1620;0.6009;
562.2000;0.1604;0.5961;
562.5000;0.1595;0.5961;
562.8000;0.1579;0.5961;
563.1000;0.1628;0.6009;
563.4000;0.1604;0.6033;
563.7000;0.1595;0.5985;
564.0000;0.1579;0.5890;
564.3000;0.1587;0.5937;
564.6000;0.1604;0.6009;
564.9000;0.1612;0.6128;
565.2000;0.1628;0.6104;
565.5000;0.1587;0.6009;
565.8000;0.1604;0.6081;
566.1000;0.1612;0.6152;
566.4000;0.1587;0.6009;
566.7000;0.1620;0.6128;
567.0000;0.1604;0.6104;
567.3000;0.1595;0.6081;
567.6000;0.1604;0.6033;
567.9000;0.1473;0.5675;
568.2000;0.1612;0.5961;
568.5000;0.1595;0.5937;
568.8000;0.1604;0.6009;
569.1000;0.1595;0.6009;
569.4000;0.1612;0.6009;
569.7000;0.1604;0.6009;
570.0000;0.1595;0.5914;
570.3000;0.1612;0.5985;
570.6000;0.1587;0.5890;
570.9000;0.1628;0.5985;
571.2000;0.1587;0.5937;
571.5000;0.1587;0.5961;
571.8000;0.1604;0.5961;
572.1000;0.1563;0.5937;
572.4000;0.1604;0.6057;
572.7000;0.1595;0.6104;
573.0000;0.1555;0.5937;
573.3000;0.1563;0.5890;
573.6000;0.1571;0.5961;
573.9000;0.1587;0.6104;
574.2000;0.1620;0.6200;
574.5000;0.1587;0.6152;
574.8000;0.1530;0.5985;
575.1000;0.1612;0.6152;
575.4000;0.1604;0.6128;
575.7000;0.1522;0.5961;
576.0000;0.1547;0.5890;
576.3000;0.1604;0.6033;
576.6000;0.1473;0.5747;
576.9000;0.1587;0.6057;
577.2000;0.1604;0.6081;
577.5000;0.1571;0.5890;
577.8000;0.1612;0.6057;
578.1000;0.1636;0.6152;
578.4000;0.1669;0.6176;
578.7000;0.1604;0.6033;
579.0000;0.1604;0.6081;
579.3000;0.1604;0.6104;
579.6000;0.1652;0.6271;
579.9000;0.1579;0.6081;
580.2000;0.1587;0.6104;
580.5000;0.1595;0.6152;
580.8000;0.1571;0.6057;
581.1000;0.1595;0.6200;
581.4000;0.1620;0.6176;
581.7000;0.1685;0.6391;
582.0000;0.1538;0.5937;
582.3000;0.1595;0.6081;
582.6000;0.1595;0.6033;
582.9000;0.1587;0.6033;
583.2000;0.1612;0.6033;
583.5000;0.1506;0.5842;
583.8000;0.1628;0.6152;
584.1000;0.1612;0.6128;
584.4000;0.1579;0.6009;
584.7000;0.1465;0.5699;
585.0000;0.1587;0.6081;
585.3000;0.1587;0.6104;
585.6000;0.1587;0.6081;
585.9000;0.1587;0.6104;
586.2000;0.1595;0.6104;
586.5000;0.1701;0.6391;
586.8000;0.1579;0.6128;
587.1000;0.1579;0.6128;
587.4000;0.1604;0.6271;
587.7000;0.1612;0.6224;
588.0000;0.1595;0.6152;
588.3000;0.1587;0.6200;
588.6000;0.1612;0.6152;
588.9000;0.1612;0.6224;
589.2000;0.1604;0.6176;
589.5000;0.1587;0.6176;
589.8000;0.1563;0.6104;
590.1000;0.1612;0.6319;
590.4000;0.1595;0.6319;
590.7000;0.1595;0.6200;
591.0000;0.1612;0.6343;
591.3000;0.1604;0.6319;
591.6000;0.1595;0.6295;
591.9000;0.1481;0.6009;
592.2000;0.1604;0.6295;
592.5000;0.1832;0.6844;
592.8000;0.1612;0.6200;
593.1000;0.1595;0.6152;
593.4000;0.1604;0.6081;
593.7000;0.1612;0.6057;
594.0000;0.1571;0.6104;
594.3000;0.1620;0.6176;
594.6000;0.1612;0.6152;
594.9000;0.1587;0.6104;
595.2000;0.1522;0.5985;
595.5000;0.1612;0.6271;
595.8000;0.1595;0.6295;
596.1000;0.1604;0.6295;
596.4000;0.1579;0.6224;
596.7000;0.1587;0.6176;
597.0000;0.1612;0.6271;
597.3000;0.1620;0.6200;
597.6000;0.1587;0.6176;
597.9000;0.1587;0.6152;
598.2000;0.1604;0.6152;
598.5000;0.1587;0.6104;
598.8000;0.1620;0.6152;
599.1000;0.1595;0.6057;
599.4000;0.1612;0.6128;
599.7000;0.1555;0.6009;
600.0000;0.1604;0.6176;
600.3000;0.1604;0.6176;
600.6000;0.1693;0.6438;
600.9000;0.1612;0.6176;
601.2000;0.1604;0.6128;
601.5000;0.1579;0.5937;
601.8000;0.1652;0.6081;
602.1000;0.1571;0.5771;
602.4000;0.1612;0.5794;
602.7000;0.1563;0.5532;
603.0000;0.1547;0.5317;
603.3000;0.1571;0.5341;
603.6000;0.1555;0.5127;
603.9000;0.1555;0.4984;
604.2000;0.1547;0.4984;
604.5000;0.1530;0.4936;
604.8000;0.1538;0.5008;
605.1000;0.1555;0.4936;
605.4000;0.1538;0.4793;
605.7000;0.1555;0.4864;
606.0000;0.1547;0.4745;
606.3000;0.1538;0.4841;
606.6000;0.1530;0.4841;
606.9000;0.1538;0.4864;
607.2000;0.1538;0.4793;
607.5000;0.1522;0.4769;
607.8000;0.1595;0.4888;
608.1000;0.1571;0.4698;
608.4000;0.1538;0.4578;
608.7000;0.1506;0.4531;
609.0000;0.1563;0.4602;
609.3000;0.1620;0.4745;
609.6000;0.1514;0.4578;
609.9000;0.1522;0.4674;
610.2000;0.1636;0.4936;
610.5000;0.1481;0.4483;
610.8000;0.1514;0.4459;
611.1000;0.1506;0.4364;
611.4000;0.1522;0.4388;
611.7000;0.1555;0.4483;
612.0000;0.1538;0.4507;
612.3000;0.1506;0.4292;
612.6000;0.1522;0.4292;
612.9000;0.1465;0.4173;
613.2000;0.1506;0.4244;
613.5000;0.1522;0.4292;
613.8000;0.1547;0.4459;
614.1000;0.1538;0.4364;
614.4000;0.1522;0.4244;
614.7000;0.1522;0.4268;
615.0000;0.1530;0.4244;
615.3000;0.1506;0.4173;
615.6000;0.1514;0.4244;
615.9000;0.1563;0.4388;
616.2000;0.1587;0.4483;
616.5000;0.1506;0.4221;
616.8000;0.1506;0.4316;
617.1000;0.1490;0.4340;
617.4000;0.1530;0.4507;
617.7000;0.1490;0.4340;
618.0000;0.1490;0.4316;
618.3000;0.1506;0.4364;
618.6000;0.1490;0.4316;
618.9000;0.1538;0.4459;
619.2000;0.1376;0.4101;
619.5000;0.1522;0.4435;
619.8000;0.1490;0.4364;
620.1000;0.1514;0.4507;
620.4000;0.1522;0.4459;
620.7000;0.1522;0.4411;
621.0000;0.1522;0.4507;
621.3000;0.1506;0.4531;
621.6000;0.1506;0.4435;
621.9000;0.1490;0.4435;
622.2000;0.1490;0.4292;
622.5000;0.1457;0.4101;
622.8000;0.1490;0.4173;
623.1000;0.1498;0.4197;
623.4000;0.1538;0.4221;
623.7000;0.1481;0.4101;
624.0000;0.1490;0.4078;
624.3000;0.1530;0.4316;
624.6000;0.1506;0.4316;
624.9000;0.1441;0.4221;
625.2000;0.1514;0.4388;
625.5000;0.1498;0.4364;
625.8000;0.1473;0.4292;
626.1000;0.1465;0.4268;
626.4000;0.1514;0.4340;
626.7000;0.1530;0.4435;
627.0000;0.1538;0.4435;
627.3000;0.1514;0.4292;
627.6000;0.1514;0.4364;
627.9000;0.1514;0.4364;
628.2000;0.1481;0.4244;
628.5000;0.1416;0.4125;
628.8000;0.1408;0.4078;
629.1000;0.1522;0.4364;
629.4000;0.1506;0.4411;
629.7000;0.1522;0.4459;
630.0000;0.1465;0.4364;
630.3000;0.1514;0.4483;
630.6000;0.1506;0.4364;
630.9000;0.1530;0.4340;
631.2000;0.1498;0.4244;
631.5000;0.1514;0.4292;
631.8000;0.1530;0.4316;
632.1000;0.1514;0.4316;
632.4000;0.1481;0.4221;
632.7000;0.1506;0.4292;
633.0000;0.1506;0.4268;
633.3000;0.1530;0.4268;
633.6000;0.1498;0.4268;
633.9000;0.1498;0.4244;
634.2000;0.1498;0.4340;
634.5000;0.1473;0.4340;
634.8000;0.1490;0.4364;
635.1000;0.1498;0.4316;
635.4000;0.1669;0.4769;
635.7000;0.1490;0.4340;
636.0000;0.1506;0.4411;
636.3000;0.1506;0.4340;
636.6000;0.1425;0.4197;
636.9000;0.1547;0.4507;
637.2000;0.1579;0.4554;
637.5000;0.1498;0.4388;
637.8000;0.1498;0.4388;
638.1000;0.1473;0.4435;
638.4000;0.1498;0.4435;
638.7000;0.1498;0.4459;
639.0000;0.1579;0.4698;
639.3000;0.1490;0.4507;
639.6000;0.1441;0.4411;
639.9000;0.1506;0.4459;
640.2000;0.1490;0.4411;
640.5000;0.1547;0.4459;
640.8000;0.1530;0.4340;
641.1000;0.1514;0.4292;
641.4000;0.1514;0.4244;
641.7000;0.1514;0.4364;
642.0000;0.1506;0.4388;
642.3000;0.1514;0.4316;
642.6000;0.1498;0.4268;
642.9000;0.1473;0.4221;
643.2000;0.1522;0.4340;
643.5000;0.1530;0.4244;
643.8000;0.1498;0.4197;
644.1000;0.1498;0.4197;
644.4000;0.1498;0.4173;
644.7000;0.1514;0.4340;
645.0000;0.1490;0.4292;
645.3000;0.1490;0.4268;
645.6000;0.1498;0.4316;
645.9000;0.1473;0.4340;
646.2000;0.1506;0.4459;
646.5000;0.1498;0.4531;
646.8000;0.1498;0.4531;
647.1000;0.1490;0.4507;
647.4000;0.1522;0.4554;
647.7000;0.1522;0.4483;
648.0000;0.1612;0.4578;
648.3000;0.1473;0.4268;
648.6000;0.1498;0.4364;
648.9000;0.1538;0.4507;
649.2000;0.1449;0.4173;
649.5000;0.1490;0.4364;
649.8000;0.1473;0.4388;
650.1000;0.1587;0.4626;
650.4000;0.1481;0.4411;
650.7000;0.1522;0.4411;
651.0000;0.1449;0.4173;
651.3000;0.1490;0.4292;
651.6000;0.1506;0.4316;
651.9000;0.1473;0.4268;
652.2000;0.1612;0.4626;
652.5000;0.1506;0.4483;
652.8000;0.1530;0.4507;
653.1000;0.1506;0.4459;
653.4000;0.1538;0.4507;
653.7000;0.1498;0.4364;
654.0000;0.1506;0.4411;
654.3000;0.1514;0.4435;
654.6000;0.1498;0.4364;
654.9000;0.1498;0.4388;
655.2000;0.1514;0.4435;
655.5000;0.1490;0.4388;
655.8000;0.1506;0.4388;
656.1000;0.1514;0.4435;
656.4000;0.1522;0.4459;
656.7000;0.1506;0.4459;
657.0000;0.1490;0.4388;
657.3000;0.1473;0.4268;
657.6000;0.1514;0.4388;
657.9000;0.1490;0.4340;
658.2000;0.1547;0.4435;
658.5000;0.1498;0.4364;
658.8000;0.1514;0.4435;
659.1000;0.1522;0.4459;
659.4000;0.1465;0.4292;
659.7000;0.1506;0.4364;
660.0000;0.1579;0.4459;
660.3000;0.1514;0.4244;
660.6000;0.1571;0.4531;
660.9000;0.1547;0.4411;
661.2000;0.1538;0.4411;
661.5000;0.1522;0.4388;
661.8000;0.1514;0.4483;
662.1000;0.1490;0.4388;
662.4000;0.1481;0.4316;
662.7000;0.1506;0.4316;
663.0000;0.1522;0.4292;
663.3000;0.1498;0.4244;
663.6000;0.1506;0.4149;
663.9000;0.1514;0.4197;
664.2000;0.1514;0.4197;
664.5000;0.1506;0.4244;
664.8000;0.1490;0.4221;
665.1000;0.1473;0.4078;
665.4000;0.1498;0.4173;
665.7000;0.1498;0.4197;
666.0000;0.1481;0.4030;
666.3000;0.1506;0.4149;
666.6000;0.1498;0.4197;
666.9000;0.1490;0.4149;
667.2000;0.1506;0.4125;
667.5000;0.1481;0.4078;
667.8000;0.1547;0.4221;
668.1000;0.1555;0.4221;
668.4000;0.1506;0.4149;
668.7000;0.1506;0.4173;
669.0000;0.1490;0.4054;
669.3000;0.1506;0.4149;
669.6000;0.1506;0.4149;
669.9000;0.1506;0.4197;
670.2000;0.1514;0.4244;
670.5000;0.1490;0.4197;
670.8000;0.1449;0.4030;
671.1000;0.1522;0.4197;
671.4000;0.1506;0.4244;
671.7000;0.1522;0.4340;
672.0000;0.1490;0.4221;
672.3000;0.1522;0.4292;
672.6000;0.1481;0.4173;
672.9000;0.1449;0.4101;
673.2000;0.1555;0.4364;
673.5000;0.1481;0.4149;
673.8000;0.1563;0.4388;
674.1000;0.1506;0.4244;
674.4000;0.1571;0.4316;
674.7000;0.1473;0.4054;
675.0000;0.1498;0.4244;
675.3000;0.1506;0.4244;
675.6000;0.1538;0.4364;
675.9000;0.1579;0.4459;
676.2000;0.1498;0.4244;
676.5000;0.1498;0.4292;
676.8000;0.1490;0.4268;
677.1000;0.1538;0.4411;
677.4000;0.1490;0.4268;
677.7000;0.1490;0.4244;
678.0000;0.1506;0.4292;
678.3000;0.1490;0.4316;
678.6000;0.1498;0.4292;
678.9000;0.1538;0.4340;
679.2000;0.1490;0.4173;
679.5000;0.1498;0.4149;
679.8000;0.1498;0.4149;
680.1000;0.1498;0.4244;
680.4000;0.1498;0.4244;
680.7000;0.1490;0.4101;
681.0000;0.1522;0.4173;
681.3000;0.1506;0.4221;
681.6000;0.1506;0.4292;
681.9000;0.1522;0.4316;
682.2000;0.1498;0.4340;
682.5000;0.1490;0.4244;
682.8000;0.1481;0.4292;
683.1000;0.1490;0.4388;
683.4000;0.1514;0.4435;
683.7000;0.1481;0.4340;
684.0000;0.1530;0.4435;
684.3000;0.1498;0.4221;
684.6000;0.1441;0.3958;
684.9000;0.1433;0.3982;
685.2000;0.1473;0.4149;
685.5000;0.1522;0.4268;
685.8000;0.1498;0.4244;
686.1000;0.1522;0.4292;
686.4000;0.1498;0.4125;
686.7000;0.1506;0.4030;
687.0000;0.1311;0.3577;
687.3000;0.1506;0.4101;
687.6000;0.1514;0.4125;
687.9000;0.1481;0.4173;
688.2000;0.1498;0.4197;
688.5000;0.1506;0.4078;
688.8000;0.1514;0.4125;
689.1000;0.1481;0.4054;
689.4000;0.1425;0.3911;
689.7000;0.1506;0.4125;
690.0000;0.1481;0.4101;
690.3000;0.1522;0.4197;
690.6000;0.1506;0.4197;
690.9000;0.1506;0.4292;
691.2000;0.1498;0.4292;
691.5000;0.1587;0.4554;
691.8000;0.1498;0.4268;
692.1000;0.1514;0.4364;
692.4000;0.1506;0.4388;
692.7000;0.1481;0.4411;
693.0000;0.1514;0.4531;
693.3000;0.1506;0.4483;
693.6000;0.1514;0.4507;
693.9000;0.1514;0.4507;
694.2000;0.1490;0.4411;
694.5000;0.1498;0.4364;
694.8000;0.1514;0.4292;
695.1000;0.1514;0.4244;
695.4000;0.1506;0.4173;
695.7000;0.1514;0.4340;
696.0000;0.1481;0.4197;
696.3000;0.1514;0.4340;
696.6000;0.1587;0.4531;
696.9000;0.1481;0.4221;
697.2000;0.1506;0.4316;
697.5000;0.1538;0.4435;
697.8000;0.1555;0.4411;
698.1000;0.1530;0.4364;
698.4000;0.1490;0.4221;
698.7000;0.1449;0.4030;
699.0000;0.1490;0.4173;
699.3000;0.1506;0.4101;
699.6000;0.1490;0.4101;
699.9000;0.1457;0.4078;
700.2000;0.1506;0.4197;
700.5000;0.1490;0.4173;
700.8000;0.1547;0.4340;
701.1000;0.1490;0.4173;
701.4000;0.1506;0.4197;
701.7000;0.1506;0.4221;
702.0000;0.1498;0.4149;
702.3000;0.1481;0.3982;
702.6000;0.1498;0.3958;
702.9000;0.1506;0.4006;
703.2000;0.1506;0.4006;
703.5000;0.1506;0.3958;
703.8000;0.1498;0.3982;
704.1000;0.1490;0.4006;
704.4000;0.1490;0.4078;
704.7000;0.1522;0.4078;
705.0000;0.1498;0.4006;
705.3000;0.1473;0.3982;
705.6000;0.1490;0.4078;
705.9000;0.1490;0.4078;
706.2000;0.1506;0.4244;
706.5000;0.1522;0.4316;
706.8000;0.1465;0.4316;
707.1000;0.1457;0.4364;
707.4000;0.1514;0.4388;
707.7000;0.1530;0.4388;
708.0000;0.1522;0.4364;
708.3000;0.1498;0.4340;
708.6000;0.1498;0.4268;
708.9000;0.1506;0.4244;
709.2000;0.1498;0.4244;
709.5000;0.1498;0.4149;
709.8000;0.1473;0.4006;
710.1000;0.1416;0.3768;
710.4000;0.1481;0.3887;
710.7000;0.1490;0.3934;
711.0000;0.1498;0.3958;
711.3000;0.1506;0.4101;
711.6000;0.1433;0.3863;
711.9000;0.1498;0.4030;
712.2000;0.1498;0.4030;
712.5000;0.1522;0.4173;
712.8000;0.1490;0.4030;
713.1000;0.1514;0.4006;
713.4000;0.1498;0.3934;
713.7000;0.1473;0.3839;
714.0000;0.1481;0.3934;
714.3000;0.1506;0.3982;
714.6000;0.1506;0.3934;
714.9000;0.1514;0.3911;
715.2000;0.1498;0.3863;
715.5000;0.1498;0.3839;
715.8000;0.1506;0.3863;
716.1000;0.1506;0.3839;
716.4000;0.1465;0.3744;
716.7000;0.1473;0.3839;
717.0000;0.1481;0.3934;
717.3000;0.1506;0.4030;
717.6000;0.1425;0.3911;
717.9000;0.1514;0.4125;
718.2000;0.1498;0.4149;
718.5000;0.1498;0.4149;
718.8000;0.1538;0.4268;
719.1000;0.1490;0.4101;
719.4000;0.1384;0.3815;
719.7000;0.1522;0.4125;
720.0000;0.1490;0.4030;
720.3000;0.1457;0.4078;
720.6000;0.1481;0.4030;
720.9000;0.1563;0.4268;
721.2000;0.1506;0.4078;
721.5000;0.1465;0.3934;
721.8000;0.1457;0.3911;
722.1000;0.1490;0.3887;
722.4000;0.1514;0.3958;
722.7000;0.1465;0.3744;
723.0000;0.1481;0.3863;
723.3000;0.1506;0.3982;
723.6000;0.1514;0.3958;
723.9000;0.1522;0.3958;
724.2000;0.1547;0.4149;
724.5000;0.1384;0.3601;
724.8000;0.1449;0.3839;
725.1000;0.1530;0.4101;
725.4000;0.1481;0.4101;
725.7000;0.1425;0.4030;
726.0000;0.1538;0.4244;
726.3000;0.1498;0.4125;
726.6000;0.1579;0.4292;
726.9000;0.1490;0.4030;
727.2000;0.1506;0.4078;
727.5000;0.1490;0.4030;
727.8000;0.1490;0.3982;
728.1000;0.1441;0.3839;
728.4000;0.1490;0.3887;
728.7000;0.1547;0.4006;
729.0000;0.1514;0.4030;
729.3000;0.1498;0.3982;
729.6000;0.1498;0.3911;
729.9000;0.1498;0.3982;
730.2000;0.1514;0.4006;
730.5000;0.1514;0.4006;
730.8000;0.1473;0.3982;
731.1000;0.1514;0.4101;
731.4000;0.1514;0.4101;
731.7000;0.1506;0.4054;
732.0000;0.1490;0.4101;
732.3000;0.1506;0.4125;
732.6000;0.1481;0.3982;
732.9000;0.1490;0.4078;
733.2000;0.1506;0.4101;
733.5000;0.1473;0.4030;
733.8000;0.1522;0.4197;
734.1000;0.1514;0.4125;
734.4000;0.1563;0.4340;
734.7000;0.1506;0.4125;
735.0000;0.1481;0.4101;
735.3000;0.1506;0.4173;
735.6000;0.1481;0.4101;
735.9000;0.1498;0.4125;
736.2000;0.1490;0.4173;
736.5000;0.1441;0.3982;
736.8000;0.1490;0.4101;
737.1000;0.1490;0.4101;
737.4000;0.1490;0.4197;
737.7000;0.1514;0.4197;
738.0000;0.1498;0.4054;
738.3000;0.1506;0.4030;
738.6000;0.1490;0.3934;
738.9000;0.1498;0.4006;
739.2000;0.1506;0.4054;
739.5000;0.1473;0.4006;
739.8000;0.1506;0.4125;
740.1000;0.1506;0.4244;
740.4000;0.1498;0.4221;
740.7000;0.1506;0.4268;
741.0000;0.1498;0.4244;
741.3000;0.1481;0.4221;
741.6000;0.1506;0.4221;
741.9000;0.1522;0.4149;
742.2000;0.1449;0.4006;
742.5000;0.1473;0.4054;
742.8000;0.1384;0.3768;
743.1000;0.1481;0.4054;
743.4000;0.1441;0.4054;
743.7000;0.1490;0.4173;
744.0000;0.1506;0.4149;
744.3000;0.1473;0.4054;
744.6000;0.1514;0.4054;
744.9000;0.1498;0.3934;
745.2000;0.1465;0.3863;
745.5000;0.1457;0.3863;
745.8000;0.1490;0.4006;
746.1000;0.1498;0.4054;
746.4000;0.1441;0.3934;
746.7000;0.1481;0.3982;
747.0000;0.1547;0.4101;
747.3000;0.1498;0.3982;
747.6000;0.1490;0.3911;
747.9000;0.1538;0.4006;
748.2000;0.1563;0.4125;
748.5000;0.1498;0.4030;
748.8000;0.1481;0.4006;
749.1000;0.1514;0.4101;
749.4000;0.1506;0.4197;
749.7000;0.1506;0.4078;
750.0000;0.1490;0.4078;
750.3000;0.1473;0.4030;
750.6000;0.1506;0.4173;
750.9000;0.1506;0.4149;
751.2000;0.1473;0.4101;
751.5000;0.1481;0.4054;
751.8000;0.1490;0.4125;
752.1000;0.1514;0.4268;
752.4000;0.1498;0.4244;
752.7000;0.1490;0.4340;
753.0000;0.1481;0.4316;
753.3000;0.1514;0.4411;
753.6000;0.1498;0.4316;
753.9000;0.1498;0.4292;
754.2000;0.1506;0.4340;
754.5000;0.1506;0.4388;
754.8000;0.1481;0.4268;
755.1000;0.1514;0.4316;
755.4000;0.1498;0.4268;
755.7000;0.1449;0.4101;
756.0000;0.1506;0.4125;
756.3000;0.1457;0.4054;
756.6000;0.1473;0.4149;
756.9000;0.1490;0.4173;
757.2000;0.1408;0.3982;
757.5000;0.1498;0.4149;
757.8000;0.1490;0.4125;
758.1000;0.1490;0.4078;
758.4000;0.1498;0.4054;
758.7000;0.1498;0.4030;
759.0000;0.1514;0.4030;
759.3000;0.1473;0.3911;
759.6000;0.1473;0.3982;
759.9000;0.1530;0.4101;
760.2000;0.1506;0.4030;
760.5000;0.1522;0.4173;
760.8000;0.1465;0.3982;
761.1000;0.1595;0.4364;
761.4000;0.1481;0.4101;
761.7000;0.1481;0.4078;
762.0000;0.1490;0.4173;
762.3000;0.1473;0.4125;
762.6000;0.1514;0.4173;
762.9000;0.1506;0.4149;
763.2000;0.1465;0.4078;
763.5000;0.1506;0.4101;
763.8000;0.1522;0.4197;
764.1000;0.1522;0.4173;
764.4000;0.1547;0.4244;
764.7000;0.1490;0.4078;
765.0000;0.1481;0.4030;
765.3000;0.1490;0.4054;
765.6000;0.1490;0.4054;
765.9000;0.1481;0.4125;
766.2000;0.1481;0.4078;
766.5000;0.1547;0.4221;
766.8000;0.1498;0.4054;
767.1000;0.1506;0.4054;
767.4000;0.1514;0.4078;
767.7000;0.1506;0.4173;
768.0000;0.1490;0.4078;
768.3000;0.1506;0.4030;
768.6000;0.1522;0.4030;
768.9000;0.1522;0.4054;
769.2000;0.1473;0.4030;
769.5000;0.1425;0.3887;
769.8000;0.1555;0.4221;
770.1000;0.1490;0.4054;
770.4000;0.1506;0.4101;
770.7000;0.1498;0.4054;
771.0000;0.1481;0.4030;
771.3000;0.1530;0.4006;
771.6000;0.1506;0.3982;
771.9000;0.1498;0.3934;
772.2000;0.1498;0.3934;
772.5000;0.1506;0.3934;
772.8000;0.1506;0.3958;
773.1000;0.1506;0.4006;
773.4000;0.1490;0.3911;
773.7000;0.1514;0.3958;
774.0000;0.1506;0.4030;
774.3000;0.1490;0.3958;
774.6000;0.1506;0.3958;
774.9000;0.1490;0.3982;
775.2000;0.1498;0.4006;
775.5000;0.1498;0.4030;
775.8000;0.1498;0.4101;
776.1000;0.1465;0.4030;
776.4000;0.1473;0.4054;
776.7000;0.1530;0.4173;
777.0000;0.1498;0.4125;
777.3000;0.1522;0.4221;
777.6000;0.1481;0.4244;
777.9000;0.1490;0.4197;
778.2000;0.1481;0.4173;
778.5000;0.1506;0.4173;
778.8000;0.1498;0.4101;
779.1000;0.1481;0.3958;
779.4000;0.1473;0.3982;
779.7000;0.1506;0.3958;
780.0000;0.1498;0.3982;
780.3000;0.1514;0.3934;
780.6000;0.1481;0.3958;
780.9000;0.1465;0.4006;
781.2000;0.1433;0.4030;
781.5000;0.1441;0.3887;
781.8000;0.1506;0.4054;
782.1000;0.1498;0.4078;
782.4000;0.1498;0.4078;
782.7000;0.1498;0.4101;
783.0000;0.1465;0.4030;
783.3000;0.1506;0.4173;
783.6000;0.1506;0.4149;
783.9000;0.1481;0.4101;
784.2000;0.1490;0.4149;
784.5000;0.1514;0.4125;
784.8000;0.1498;0.4125;
785.1000;0.1490;0.4054;
785.4000;0.1506;0.4149;
785.7000;0.1514;0.4244;
786.0000;0.1498;0.4221;
786.3000;0.1481;0.4173;
786.6000;0.1441;0.3982;
786.9000;0.1506;0.4125;
787.2000;0.1490;0.4078;
787.5000;0.1481;0.4078;
787.8000;0.1490;0.4101;
788.1000;0.1506;0.4125;
788.4000;0.1457;0.3982;
788.7000;0.1530;0.3958;
789.0000;0.1481;0.3791;
789.3000;0.1506;0.3863;
789.6000;0.1498;0.3839;
789.9000;0.1490;0.3791;
790.2000;0.1490;0.3815;
790.5000;0.1490;0.3839;
790.8000;0.1514;0.3768;
791.1000;0.1563;0.3863;
791.4000;0.1498;0.3768;
791.7000;0.1498;0.3791;
792.0000;0.1514;0.3839;
792.3000;0.1490;0.3791;
792.6000;0.1498;0.3911;
792.9000;0.1498;0.3911;
793.2000;0.1506;0.3863;
793.5000;0.1506;0.3815;
793.8000;0.1490;0.3768;
794.1000;0.1490;0.3672;
794.4000;0.1498;0.3672;
794.7000;0.1498;0.3768;
795.0000;0.1481;0.3720;
795.3000;0.1506;0.3744;
795.6000;0.1498;0.3720;
795.9000;0.1506;0.3815;
796.2000;0.1538;0.3982;
796.5000;0.1481;0.3863;
796.8000;0.1490;0.3863;
797.1000;0.1498;0.3839;
797.4000;0.1498;0.3791;
797.7000;0.1498;0.3863;
798.0000;0.1506;0.3911;
798.3000;0.1498;0.3839;
798.6000;0.1506;0.3839;
798.9000;0.1481;0.3863;
799.2000;0.1481;0.3982;
799.5000;0.1392;0.3744;
799.8000;0.1498;0.4006;
800.1000;0.1481;0.4030;
800.4000;0.1514;0.4101;
800.7000;0.1490;0.4054;
801.0000;0.1416;0.3934;
801.3000;0.1490;0.4101;
801.6000;0.1490;0.4054;
801.9000;0.1498;0.4054;
802.2000;0.1506;0.4101;
802.5000;0.1498;0.4078;
802.8000;0.1481;0.4054;
803.1000;0.1538;0.4125;
803.4000;0.1506;0.4054;
803.7000;0.1490;0.4030;
804.0000;0.1490;0.4078;
804.3000;0.1498;0.4101;
804.6000;0.1490;0.4078;
804.9000;0.1490;0.4125;
805.2000;0.1490;0.4101;
805.5000;0.1498;0.4197;
805.8000;0.1473;0.4221;
806.1000;0.1498;0.4268;
806.4000;0.1514;0.4173;
806.7000;0.1563;0.4268;
807.0000;0.1384;0.3839;
807.3000;0.1514;0.4030;
807.6000;0.1490;0.4030;
807.9000;0.1490;0.4054;
808.2000;0.1587;0.4268;
808.5000;0.1498;0.3982;
808.8000;0.1498;0.3958;
809.1000;0.1490;0.3911;
809.4000;0.1490;0.3982;
809.7000;0.1490;0.4030;
810.0000;0.1522;0.4101;
810.3000;0.1522;0.4244;
810.6000;0.1506;0.4149;
810.9000;0.1498;0.4078;
811.2000;0.1514;0.4078;
811.5000;0.1604;0.4244;
811.8000;0.1514;0.4078;
812.1000;0.1506;0.4054;
812.4000;0.1522;0.4054;
812.7000;0.1522;0.4078;
813.0000;0.1506;0.4006;
813.3000;0.1490;0.3982;
813.6000;0.1498;0.4054;
813.9000;0.1400;0.3863;
814.2000;0.1465;0.4030;
814.5000;0.1506;0.4173;
814.8000;0.1490;0.4101;
815.1000;0.1498;0.4125;
815.4000;0.1481;0.4078;
815.7000;0.1498;0.4125;
816.0000;0.1490;0.4054;
816.3000;0.1481;0.3982;
816.6000;0.1481;0.4030;
816.9000;0.1506;0.4149;
817.2000;0.1498;0.4125;
817.5000;0.1498;0.4149;
817.8000;0.1506;0.4101;
818.1000;0.1481;0.4030;
818.4000;0.1473;0.4030;
818.7000;0.1506;0.4101;
819.0000;0.1465;0.3934;
819.3000;0.1490;0.4006;
819.6000;0.1522;0.4030;
819.9000;0.1506;0.3982;
820.2000;0.1555;0.4197;
820.5000;0.1465;0.3958;
820.8000;0.1498;0.4101;
821.1000;0.1490;0.4006;
821.4000;0.1465;0.4030;
821.7000;0.1506;0.4078;
822.0000;0.1473;0.3958;
822.3000;0.1473;0.4101;
822.6000;0.1498;0.4197;
822.9000;0.1498;0.4244;
823.2000;0.1481;0.4173;
823.5000;0.1490;0.4221;
823.8000;0.1498;0.4197;
824.1000;0.1498;0.4244;
824.4000;0.1595;0.4507;
824.7000;0.1498;0.4173;
825.0000;0.1433;0.3934;
825.3000;0.1538;0.4221;
825.6000;0.1490;0.4078;
825.9000;0.1514;0.4149;
826.2000;0.1490;0.4173;
826.5000;0.1465;0.4101;
826.8000;0.1506;0.4221;
827.1000;0.1530;0.4244;
827.4000;0.1506;0.4173;
827.7000;0.1498;0.4125;
828.0000;0.1490;0.3982;
828.3000;0.1506;0.4078;
828.6000;0.1522;0.4078;
828.9000;0.1514;0.4054;
829.2000;0.1481;0.4006;
829.5000;0.1498;0.4101;
829.8000;0.1522;0.4197;
830.1000;0.1376;0.3744;
830.4000;0.1490;0.4078;
830.7000;0.1441;0.3887;
831.0000;0.1490;0.4078;
831.3000;0.1595;0.4340;
831.6000;0.1490;0.4054;
831.9000;0.1506;0.4054;
832.2000;0.1498;0.3958;
832.5000;0.1530;0.3982;
832.8000;0.1498;0.3934;
833.1000;0.1506;0.3911;
833.4000;0.1514;0.3958;
833.7000;0.1522;0.4054;
834.0000;0.1522;0.4030;
834.3000;0.1490;0.4006;
834.6000;0.1506;0.3934;
834.9000;0.1547;0.4078;
835.2000;0.1465;0.3958;
835.5000;0.1490;0.4006;
835.8000;0.1506;0.4006;
836.1000;0.1498;0.3982;
836.4000;0.1498;0.3958;
836.7000;0.1506;0.3982;
837.0000;0.1481;0.3958;
837.3000;0.1425;0.3768;
837.6000;0.1522;0.3982;
837.9000;0.1514;0.3934;
838.2000;0.1416;0.3744;
838.5000;0.1465;0.3839;
838.8000;0.1514;0.3934;
839.1000;0.1571;0.4149;
839.4000;0.1506;0.4006;
839.7000;0.1506;0.3958;
840.0000;0.1506;0.4006;
840.3000;0.1604;0.4364;
840.6000;0.1498;0.4101;
840.9000;0.1490;0.4197;
841.2000;0.1522;0.4244;
841.5000;0.1498;0.4292;
841.8000;0.1506;0.4388;
842.1000;0.1481;0.4364;
842.4000;0.1522;0.4411;
842.7000;0.1538;0.4507;
843.0000;0.1514;0.4435;
843.3000;0.1498;0.4364;
843.6000;0.1506;0.4340;
843.9000;0.1522;0.4268;
844.2000;0.1530;0.4244;
844.5000;0.1481;0.4054;
844.8000;0.1465;0.3934;
845.1000;0.1506;0.4078;
845.4000;0.1514;0.4006;
845.7000;0.1538;0.4078;
846.0000;0.1498;0.4054;
846.3000;0.1490;0.4054;
846.6000;0.1490;0.4006;
846.9000;0.1498;0.4054;
847.2000;0.1481;0.4030;
847.5000;0.1481;0.4078;
847.8000;0.1506;0.4197;
848.1000;0.1498;0.4221;
848.4000;0.1498;0.4244;
848.7000;0.1506;0.4197;
849.0000;0.1457;0.4006;
849.3000;0.1498;0.4078;
849.6000;0.1506;0.4054;
849.9000;0.1514;0.4054;
850.2000;0.1481;0.4006;
850.5000;0.1506;0.4101;
850.8000;0.1473;0.4078;
851.1000;0.1498;0.4125;
851.4000;0.1473;0.4006;
851.7000;0.1620;0.4411;
852.0000;0.1490;0.4078;
852.3000;0.1490;0.4006;
852.6000;0.1481;0.4006;
852.9000;0.1481;0.3982;
853.2000;0.1498;0.3958;
853.5000;0.1457;0.3839;
853.8000;0.1490;0.3887;
854.1000;0.1490;0.3887;
854.4000;0.1481;0.3911;
854.7000;0.1498;0.3958;
855.0000;0.1498;0.3911;
855.3000;0.1473;0.3863;
855.6000;0.1490;0.3934;
855.9000;0.1498;0.4006;
856.2000;0.1343;0.3648;
856.5000;0.1481;0.3982;
856.8000;0.1530;0.4149;
857.1000;0.1498;0.4054;
857.4000;0.1498;0.4125;
857.7000;0.1506;0.4173;
858.0000;0.1481;0.4125;
858.3000;0.1538;0.4364;
858.6000;0.1490;0.4268;
858.9000;0.1490;0.4197;
859.2000;0.1538;0.4268;
859.5000;0.1473;0.4078;
859.8000;0.1514;0.4244;
860.1000;0.1473;0.4125;
860.4000;0.1506;0.4244;
860.7000;0.1498;0.4244;
861.0000;0.1530;0.4364;
861.3000;0.1498;0.4244;
861.6000;0.1498;0.4316;
861.9000;0.1481;0.4292;
862.2000;0.1408;0.4125;
862.5000;0.1498;0.4292;
862.8000;0.1481;0.4316;
863.1000;0.1490;0.4364;
863.4000;0.1481;0.4316;
863.7000;0.1498;0.4316;
864.0000;0.1498;0.4340;
864.3000;0.1368;0.4006;
864.6000;0.1376;0.4125;
864.9000;0.1490;0.4411;
865.2000;0.1481;0.4364;
865.5000;0.1522;0.4364;
865.8000;0.1498;0.4268;
866.1000;0.1506;0.4316;
866.4000;0.1514;0.4340;
866.7000;0.1498;0.4268;
867.0000;0.1530;0.4244;
867.3000;0.1514;0.4292;
867.6000;0.1506;0.4221;
867.9000;0.1587;0.4435;
868.2000;0.1481;0.4078;
868.5000;0.1514;0.4101;
868.8000;0.1498;0.4149;
869.1000;0.1498;0.4244;
869.4000;0.1498;0.4244;
869.7000;0.1490;0.4125;
870.0000;0.1506;0.4054;
870.3000;0.1506;0.4101;
870.6000;0.1506;0.4054;
870.9000;0.1514;0.4030;
871.2000;0.1490;0.3982;
871.5000;0.1490;0.3958;
871.8000;0.1514;0.4030;
872.1000;0.1490;0.4006;
872.4000;0.1490;0.3911;
872.7000;0.1490;0.3887;
873.0000;0.1604;0.4197;
873.3000;0.1473;0.3887;
873.6000;0.1538;0.4030;
873.9000;0.1490;0.4030;
874.2000;0.1433;0.3863;
874.5000;0.1498;0.4030;
874.8000;0.1506;0.4054;
875.1000;0.1587;0.4340;
875.4000;0.1473;0.4101;
875.7000;0.1490;0.4101;
876.0000;0.1498;0.4149;
876.3000;0.1490;0.4173;
876.6000;0.1514;0.4197;
876.9000;0.1506;0.4101;
877.2000;0.1498;0.4078;
877.5000;0.1538;0.4125;
877.8000;0.1506;0.4030;
878.1000;0.1514;0.4078;
878.4000;0.1506;0.3958;
878.7000;0.1514;0.3934;
879.0000;0.1506;0.3934;
879.3000;0.1465;0.3839;
879.6000;0.1490;0.3958;
879.9000;0.1490;0.4054;
880.2000;0.1587;0.4316;
880.5000;0.1498;0.4030;
880.8000;0.1473;0.4006;
881.1000;0.1522;0.4173;
881.4000;0.1490;0.4054;
881.7000;0.1498;0.4125;
882.0000;0.1481;0.4125;
882.3000;0.1498;0.4149;
882.6000;0.1506;0.4101;
882.9000;0.1514;0.4125;
883.2000;0.1538;0.4244;
883.5000;0.1538;0.4244;
883.8000;0.1498;0.4149;
884.1000;0.1490;0.4101;
884.4000;0.1490;0.4078;
884.7000;0.1481;0.3982;
885.0000;0.1441;0.3958;
885.3000;0.1538;0.4149;
885.6000;0.1498;0.4054;
885.9000;0.1473;0.4078;
886.2000;0.1490;0.4149;
886.5000;0.1473;0.4054;
886.8000;0.1449;0.3911;
887.1000;0.1490;0.4054;
887.4000;0.1498;0.4125;
887.7000;0.1506;0.4173;
888.0000;0.1636;0.4531;
888.3000;0.1514;0.4125;
888.6000;0.1490;0.4030;
888.9000;0.1490;0.4054;
889.2000;0.1522;0.4101;
889.5000;0.1498;0.4030;
889.8000;0.1473;0.4030;
890.1000;0.1481;0.4054;
890.4000;0.1490;0.4149;
890.7000;0.1506;0.4101;
891.0000;0.1490;0.4078;
891.3000;0.1481;0.4054;
891.6000;0.1490;0.4149;
891.9000;0.1498;0.4101;
892.2000;0.1498;0.4197;
892.5000;0.1498;0.4197;
892.8000;0.1498;0.4197;
893.1000;0.1506;0.4197;
893.4000;0.1490;0.4197;
893.7000;0.1498;0.4197;
894.0000;0.1522;0.4173;
894.3000;0.1465;0.4054;
894.6000;0.1490;0.4101;
894.9000;0.1433;0.3887;
895.2000;0.1498;0.4006;
895.5000;0.1473;0.4006;
895.8000;0.1514;0.4125;
896.1000;0.1538;0.4149;
896.4000;0.1490;0.3982;
896.7000;0.1490;0.3934;
897.0000;0.1481;0.3911;
897.3000;0.1514;0.3982;
897.6000;0.1473;0.3887;
897.9000;0.1514;0.3934;
898.2000;0.1587;0.4244;
898.5000;0.1490;0.3958;
898.8000;0.1481;0.3911;
899.1000;0.1457;0.3839;
899.4000;0.1514;0.4078;
899.7000;0.1506;0.4101;
900.0000;0.1473;0.4078;
900.3000;0.1538;0.4244;
900.6000;0.1506;0.4101;
900.9000;0.1514;0.4101;
901.2000;0.1571;0.4244;
901.5000;0.1522;0.4149;
901.8000;0.1498;0.4125;
902.1000;0.1498;0.4101;
902.4000;0.1481;0.4078;
902.7000;0.1490;0.4078;
903.0000;0.1514;0.4125;
903.3000;0.1530;0.4244;
903.6000;0.1506;0.4125;
903.9000;0.1490;0.4197;
904.2000;0.1457;0.4101;
904.5000;0.1514;0.4340;
904.8000;0.1490;0.4292;
905.1000;0.1473;0.4149;
905.4000;0.1530;0.4221;
905.7000;0.1514;0.4221;
906.0000;0.1506;0.4221;
906.3000;0.1498;0.4197;
906.6000;0.1481;0.4244;
906.9000;0.1481;0.4292;
907.2000;0.1498;0.4340;
907.5000;0.1384;0.4054;
907.8000;0.1490;0.4316;
908.1000;0.1498;0.4411;
908.4000;0.1498;0.4364;
908.7000;0.1514;0.4316;
909.0000;0.1498;0.4316;
909.3000;0.1490;0.4268;
909.6000;0.1490;0.4316;
909.9000;0.1498;0.4244;
910.2000;0.1490;0.4149;
910.5000;0.1498;0.4149;
910.8000;0.1506;0.4078;
911.1000;0.1490;0.4078;
911.4000;0.1441;0.3982;
911.7000;0.1490;0.4078;
912.0000;0.1498;0.4078;
912.3000;0.1498;0.4197;
912.6000;0.1498;0.4197;
912.9000;0.1481;0.4149;
913.2000;0.1481;0.4125;
913.5000;0.1490;0.4149;
913.8000;0.1506;0.4078;
914.1000;0.1506;0.4173;
914.4000;0.1481;0.4078;
914.7000;0.1498;0.4125;
915.0000;0.1490;0.4173;
915.3000;0.1490;0.4149;
915.6000;0.1441;0.3958;
915.9000;0.1498;0.4101;
916.2000;0.1522;0.4125;
916.5000;0.1481;0.4030;
916.8000;0.1490;0.4173;
917.1000;0.1514;0.4292;
917.4000;0.1490;0.4364;
917.7000;0.1490;0.4388;
918.0000;0.1490;0.4268;
918.3000;0.1498;0.4268;
918.6000;0.1506;0.4268;
918.9000;0.1538;0.4316;
919.2000;0.1465;0.4006;
919.5000;0.1465;0.3934;
919.8000;0.1506;0.4030;
920.1000;0.1547;0.4221;
920.4000;0.1481;0.4078;
920.7000;0.1490;0.4197;
921.0000;0.1506;0.4268;
921.3000;0.1514;0.4173;
921.6000;0.1506;0.4125;
921.9000;0.1555;0.4268;
922.2000;0.1481;0.4078;
922.5000;0.1522;0.4125;
922.8000;0.1481;0.4030;
923.1000;0.1506;0.4197;
923.4000;0.1490;0.4125;
923.7000;0.1498;0.4125;
924.0000;0.1522;0.4173;
924.3000;0.1506;0.4149;
924.6000;0.1481;0.4125;
924.9000;0.1498;0.4125;
925.2000;0.1563;0.4292;
925.5000;0.1514;0.4173;
925.8000;0.1490;0.4173;
926.1000;0.1506;0.4078;
926.4000;0.1506;0.4078;
926.7000;0.1498;0.4078;
927.0000;0.1490;0.4054;
927.3000;0.1473;0.4030;
927.6000;0.1490;0.4101;
927.9000;0.1481;0.4030;
928.2000;0.1506;0.3982;
928.5000;0.1433;0.3791;
928.8000;0.1481;0.3982;
929.1000;0.1481;0.3982;
929.4000;0.1481;0.3911;
929.7000;0.1498;0.3934;
930.0000;0.1449;0.3744;
930.3000;0.1490;0.3958;
930.6000;0.1498;0.3982;
930.9000;0.1498;0.4006;
931.2000;0.1498;0.4078;
931.5000;0.1506;0.4173;
931.8000;0.1490;0.4197;
932.1000;0.1457;0.4054;
932.4000;0.1481;0.4173;
932.7000;0.1498;0.4292;
933.0000;0.1563;0.4459;
933.3000;0.1514;0.4292;
933.6000;0.1506;0.4221;
933.9000;0.1506;0.4173;
934.2000;0.1506;0.4125;
934.5000;0.1498;0.4149;
934.8000;0.1498;0.4221;
935.1000;0.1490;0.4244;
935.4000;0.1530;0.4268;
935.7000;0.1433;0.3958;
936.0000;0.1514;0.4244;
936.3000;0.1481;0.4173;
936.6000;0.1498;0.4244;
936.9000;0.1506;0.4173;
937.2000;0.1522;0.4221;
937.5000;0.1449;0.3982;
937.8000;0.1522;0.4173;
938.1000;0.1498;0.4197;
938.4000;0.1628;0.4602;
938.7000;0.1481;0.4221;
939.0000;0.1498;0.4244;
939.3000;0.1506;0.4268;
939.6000;0.1514;0.4268;
939.9000;0.1538;0.4292;
940.2000;0.1498;0.4173;
940.5000;0.1473;0.4101;
940.8000;0.1579;0.4388;
941.1000;0.1498;0.4078;
941.4000;0.1498;0.4054;
941.7000;0.1563;0.4221;
942.0000;0.1490;0.3887;
942.3000;0.1481;0.3815;
942.6000;0.1384;0.3553;
942.9000;0.1514;0.3982;
943.2000;0.1514;0.4030;
943.5000;0.1506;0.4101;
943.8000;0.1522;0.4173;
944.1000;0.1506;0.4197;
944.4000;0.1465;0.4221;
944.7000;0.1506;0.4268;
945.0000;0.1433;0.3958;
945.3000;0.1498;0.4197;
945.6000;0.1506;0.4221;
945.9000;0.1506;0.4078;
946.2000;0.1506;0.4006;
946.5000;0.1506;0.4149;
946.8000;0.1506;0.4078;
947.1000;0.1506;0.4030;
947.4000;0.1416;0.3839;
947.7000;0.1498;0.4030;
948.0000;0.1514;0.4054;
948.3000;0.1490;0.4054;
948.6000;0.1481;0.4101;
948.9000;0.1498;0.4149;
949.2000;0.1522;0.4244;
949.5000;0.1498;0.4078;
949.8000;0.1514;0.4125;
950.1000;0.1481;0.4078;
950.4000;0.1490;0.4054;
950.7000;0.1498;0.4030;
951.0000;0.1506;0.3982;
951.3000;0.1490;0.3887;
951.6000;0.1498;0.3958;
951.9000;0.1498;0.3958;
952.2000;0.1498;0.3911;
952.5000;0.1449;0.3744;
952.8000;0.1490;0.3839;
953.1000;0.1538;0.4030;
953.4000;0.1490;0.3863;
953.7000;0.1522;0.3863;
954.0000;0.1392;0.3601;
954.3000;0.1425;0.3672;
954.6000;0.1481;0.3887;
954.9000;0.1563;0.4101;
955.2000;0.1498;0.4030;
955.5000;0.1465;0.3934;
955.8000;0.1490;0.3934;
956.1000;0.1506;0.4030;
956.4000;0.1490;0.3982;
956.7000;0.1490;0.3958;
957.0000;0.1473;0.3934;
957.3000;0.1490;0.3934;
957.6000;0.1449;0.3768;
957.9000;0.1481;0.3934;
958.2000;0.1481;0.3863;
958.5000;0.1498;0.3934;
958.8000;0.1522;0.3958;
959.1000;0.1481;0.3887;
959.4000;0.1490;0.3958;
959.7000;0.1490;0.3958;
960.0000;0.1498;0.4054;
960.3000;0.1587;0.4244;
960.6000;0.1530;0.4125;
960.9000;0.1514;0.4078;
961.2000;0.1506;0.4078;
961.5000;0.1457;0.3958;
961.8000;0.1481;0.4078;
962.1000;0.1490;0.4030;
962.4000;0.1506;0.4078;
962.7000;0.1514;0.4149;
963.0000;0.1498;0.3934;
963.3000;0.1490;0.3911;
963.6000;0.1514;0.3863;
963.9000;0.1490;0.3863;
964.2000;0.1498;0.3934;
964.5000;0.1538;0.4030;
964.8000;0.1498;0.3863;
965.1000;0.1506;0.3958;
965.4000;0.1490;0.3934;
965.7000;0.1490;0.3958;
966.0000;0.1498;0.3911;
966.3000;0.1498;0.3934;
966.6000;0.1538;0.3982;
966.9000;0.1506;0.3887;
967.2000;0.1506;0.3958;
967.5000;0.1514;0.4101;
967.8000;0.1522;0.4101;
968.1000;0.1441;0.3934;
968.4000;0.1490;0.4054;
968.7000;0.1498;0.4054;
969.0000;0.1612;0.4316;
969.3000;0.1498;0.4078;
969.6000;0.1514;0.4125;
969.9000;0.1481;0.4078;
970.2000;0.1490;0.4149;
970.5000;0.1498;0.4149;
970.8000;0.1506;0.4054;
971.1000;0.1522;0.4054;
971.4000;0.1408;0.3839;
971.7000;0.1514;0.4101;
972.0000;0.1433;0.3911;
972.3000;0.1481;0.4006;
972.6000;0.1530;0.4101;
972.9000;0.1490;0.3934;
973.2000;0.1481;0.3887;
973.5000;0.1481;0.3911;
973.8000;0.1490;0.3863;
974.1000;0.1506;0.3934;
974.4000;0.1514;0.3982;
974.7000;0.1506;0.3982;
975.0000;0.1490;0.3887;
975.3000;0.1538;0.3934;
975.6000;0.1506;0.3815;
975.9000;0.1506;0.3911;
976.2000;0.1473;0.3934;
976.5000;0.1530;0.4054;
976.8000;0.1498;0.3958;
977.1000;0.1555;0.4006;
977.4000;0.1498;0.3839;
977.7000;0.1498;0.3911;
978.0000;0.1514;0.3982;
978.3000;0.1587;0.4197;
978.6000;0.1473;0.3863;
978.9000;0.1579;0.4030;
979.2000;0.1465;0.3768;
979.5000;0.1392;0.3553;
979.8000;0.1514;0.3863;
980.1000;0.1490;0.3791;
980.4000;0.1498;0.3768;
980.7000;0.1514;0.3839;
981.0000;0.1465;0.3648;
981.3000;0.1449;0.3768;
981.6000;0.1473;0.3958;
981.9000;0.1530;0.4078;
982.2000;0.1490;0.3958;
982.5000;0.1514;0.3982;
982.8000;0.1506;0.4030;
983.1000;0.1514;0.4006;
983.4000;0.1465;0.3911;
983.7000;0.1490;0.3958;
984.0000;0.1376;0.3601;
984.3000;0.1530;0.3934;
984.6000;0.1433;0.3672;
984.9000;0.1498;0.3791;
985.2000;0.1490;0.3791;
985.5000;0.1514;0.3887;
985.8000;0.1473;0.3839;
986.1000;0.1514;0.3958;
986.4000;0.1514;0.3934;
986.7000;0.1514;0.3911;
987.0000;0.1490;0.3839;
987.3000;0.1538;0.3887;
987.6000;0.1514;0.3839;
987.9000;0.1481;0.3768;
988.2000;0.1506;0.3744;
988.5000;0.1506;0.3744;
988.8000;0.1514;0.3768;
989.1000;0.1506;0.3791;
989.4000;0.1490;0.3744;
989.7000;0.1490;0.3720;
990.0000;0.1604;0.4030;
990.3000;0.1490;0.3768;
990.6000;0.1481;0.3720;
990.9000;0.1506;0.3839;
991.2000;0.1587;0.4054;
991.5000;0.1498;0.3887;
991.8000;0.1481;0.3958;
992.1000;0.1530;0.4078;
992.4000;0.1506;0.4078;
992.7000;0.1490;0.4078;
993.0000;0.1481;0.3982;
993.3000;0.1547;0.4197;
993.6000;0.1514;0.4125;
993.9000;0.1465;0.4078;
994.2000;0.1530;0.4197;
994.5000;0.1473;0.4030;
994.8000;0.1481;0.4078;
995.1000;0.1490;0.4030;
995.4000;0.1490;0.4006;
995.7000;0.1473;0.3958;
996.0000;0.1490;0.3934;
996.3000;0.1514;0.4078;
996.6000;0.1522;0.4006;
996.9000;0.1498;0.3934;
997.2000;0.1522;0.4101;
997.5000;0.1514;0.4149;
997.8000;0.1490;0.4030;
998.1000;0.1490;0.4078;
998.4000;0.1555;0.4221;
998.7000;0.1490;0.4125;
999.0000;0.1490;0.4125;
999.3000;0.1481;0.4125;
999.6000;0.1490;0.4125;
999.9000;0.1498;0.4173;
1000.2000;0.1506;0.4173;
1000.5000;0.1498;0.4125;
1000.8000;0.1498;0.4149;
1001.1000;0.1498;0.4125;
1001.4000;0.1498;0.4173;
1001.7000;0.1481;0.4101;
1002.0000;0.1490;0.4078;
1002.3000;0.1481;0.3958;
1002.6000;0.1522;0.3982;
1002.9000;0.1490;0.3863;
1003.2000;0.1473;0.3958;
1003.5000;0.1506;0.4030;
1003.8000;0.1506;0.4125;
1004.1000;0.1514;0.4221;
1004.4000;0.1481;0.4149;
1004.7000;0.1506;0.4197;
1005.0000;0.1514;0.4221;
1005.3000;0.1612;0.4459;
1005.6000;0.1490;0.4173;
1005.9000;0.1498;0.4221;
1006.2000;0.1498;0.4316;
1006.5000;0.1498;0.4340;
1006.8000;0.1490;0.4364;
1007.1000;0.1490;0.4292;
1007.4000;0.1498;0.4173;
1007.7000;0.1514;0.4149;
1008.0000;0.1481;0.4125;
1008.3000;0.1538;0.4292;
1008.6000;0.1506;0.4125;
1008.9000;0.1506;0.4125;
1009.2000;0.1514;0.4197;
1009.5000;0.1498;0.4197;
1009.8000;0.1498;0.4197;
1010.1000;0.1514;0.4197;
1010.4000;0.1514;0.4221;
1010.7000;0.1506;0.4125;
1011.0000;0.1473;0.4054;
1011.3000;0.1506;0.4221;
1011.6000;0.1490;0.4125;
1011.9000;0.1498;0.4054;
1012.2000;0.1506;0.4197;
1012.5000;0.1514;0.4221;
1012.8000;0.1473;0.4125;
1013.1000;0.1490;0.4030;
1013.4000;0.1498;0.4006;
1013.7000;0.1498;0.3934;
1014.0000;0.1506;0.4054;
1014.3000;0.1587;0.4221;
1014.6000;0.1522;0.4054;
1014.9000;0.1465;0.3911;
1015.2000;0.1498;0.3911;
1015.5000;0.1514;0.3958;
1015.8000;0.1490;0.3863;
1016.1000;0.1506;0.3934;
1016.4000;0.1481;0.3791;
1016.7000;0.1490;0.3815;
1017.0000;0.1481;0.3815;
1017.3000;0.1506;0.3815;
1017.6000;0.1498;0.3887;
1017.9000;0.1481;0.3958;
1018.2000;0.1506;0.4030;
1018.5000;0.1506;0.4030;
1018.8000;0.1498;0.4054;
1019.1000;0.1441;0.3911;
1019.4000;0.1490;0.4101;
1019.7000;0.1498;0.4173;
1020.0000;0.1416;0.4006;
1020.3000;0.1481;0.4125;
1020.6000;0.1481;0.4173;
1020.9000;0.1490;0.4292;
1021.2000;0.1473;0.4292;
1021.5000;0.1498;0.4316;
1021.8000;0.1506;0.4316;
1022.1000;0.1506;0.4316;
1022.4000;0.1522;0.4292;
1022.7000;0.1498;0.4244;
1023.0000;0.1506;0.4173;
1023.3000;0.1506;0.4054;
1023.6000;0.1514;0.3958;
1023.9000;0.1498;0.3863;
1024.2000;0.1522;0.3934;
1024.5000;0.1490;0.3911;
1024.8000;0.1628;0.4292;
1025.1000;0.1498;0.3982;
1025.4000;0.1604;0.4292;
1025.7000;0.1506;0.3982;
1026.0000;0.1425;0.3744;
1026.3000;0.1514;0.3911;
1026.6000;0.1506;0.3911;
1026.9000;0.1449;0.3744;
1027.2000;0.1506;0.4006;
1027.5000;0.1416;0.3815;
1027.8000;0.1473;0.3934;
1028.1000;0.1490;0.4006;
1028.4000;0.1514;0.4078;
1028.7000;0.1490;0.4078;
1029.0000;0.1514;0.4149;
1029.3000;0.1490;0.4125;
1029.6000;0.1506;0.4173;
1029.9000;0.1506;0.4173;
1030.2000;0.1473;0.4078;
1030.5000;0.1514;0.4125;
1030.8000;0.1490;0.4054;
1031.1000;0.1506;0.4125;
1031.4000;0.1506;0.4197;
1031.7000;0.1498;0.4173;
1032.0000;0.1498;0.4149;
1032.3000;0.1506;0.4125;
1032.6000;0.1506;0.4173;
1032.9000;0.1481;0.4173;
1033.2000;0.1473;0.4173;
1033.5000;0.1481;0.4078;
1033.8000;0.1490;0.4197;
1034.1000;0.1506;0.4221;
1034.4000;0.1498;0.4197;
1034.7000;0.1490;0.4173;
1035.0000;0.1457;0.4078;
1035.3000;0.1506;0.4101;
1035.6000;0.1490;0.4149;
1035.9000;0.1604;0.4507;
1036.2000;0.1490;0.4125;
1036.5000;0.1522;0.4125;
1036.8000;0.1498;0.4078;
1037.1000;0.1490;0.4030;
1037.4000;0.1498;0.4078;
1037.7000;0.1498;0.4101;
1038.0000;0.1595;0.4364;
1038.3000;0.1498;0.4006;
1038.6000;0.1498;0.4030;
1038.9000;0.1498;0.4006;
1039.2000;0.1538;0.4078;
1039.5000;0.1490;0.3911;
1039.8000;0.1481;0.3911;
1040.1000;0.1498;0.3839;
1040.4000;0.1522;0.3911;
1040.7000;0.1498;0.3815;
1041.0000;0.1538;0.3911;
1041.3000;0.1506;0.3863;
1041.6000;0.1490;0.3863;
1041.9000;0.1522;0.3934;
1042.2000;0.1498;0.3934;
1042.5000;0.1514;0.4006;
1042.8000;0.1506;0.3934;
1043.1000;0.1514;0.3934;
1043.4000;0.1498;0.3911;
1043.7000;0.1490;0.3887;
1044.0000;0.1506;0.3911;
1044.3000;0.1522;0.4054;
1044.6000;0.1498;0.4030;
1044.9000;0.1481;0.3958;
1045.2000;0.1506;0.3958;
1045.5000;0.1481;0.3863;
1045.8000;0.1498;0.3982;
1046.1000;0.1490;0.3911;
1046.4000;0.1522;0.4030;
1046.7000;0.1498;0.4078;
1047.0000;0.1506;0.4054;
1047.3000;0.1498;0.4078;
1047.6000;0.1506;0.4078;
1047.9000;0.1522;0.4078;
1048.2000;0.1514;0.4030;
1048.5000;0.1530;0.4173;
1048.8000;0.1530;0.4125;
1049.1000;0.1473;0.4030;
1049.4000;0.1530;0.4268;
1049.7000;0.1506;0.4221;
1050.0000;0.1490;0.4197;
1050.3000;0.1498;0.4221;
1050.6000;0.1498;0.4268;
1050.9000;0.1506;0.4197;
1051.2000;0.1506;0.4173;
1051.5000;0.1490;0.4054;
1051.8000;0.1514;0.4125;
1052.1000;0.1514;0.4078;
1052.4000;0.1506;0.4149;
1052.7000;0.1506;0.4054;
1053.0000;0.1506;0.4149;
1053.3000;0.1481;0.4006;
1053.6000;0.1481;0.4006;
1053.9000;0.1465;0.4006;
1054.2000;0.1481;0.3958;
1054.5000;0.1473;0.3982;
1054.8000;0.1506;0.4125;
1055.1000;0.1490;0.4125;
1055.4000;0.1530;0.4244;
1055.7000;0.1514;0.4125;
1056.0000;0.1514;0.4125;
1056.3000;0.1522;0.4054;
1056.6000;0.1547;0.4197;
1056.9000;0.1514;0.4078;
1057.2000;0.1506;0.4006;
1057.5000;0.1547;0.4149;
1057.8000;0.1490;0.4078;
1058.1000;0.1498;0.4078;
1058.4000;0.1530;0.4197;
1058.7000;0.1555;0.4268;
1059.0000;0.1522;0.4149;
1059.3000;0.1538;0.4149;
1059.6000;0.1522;0.4078;
1059.9000;0.1506;0.4006;
1060.2000;0.1498;0.4054;
1060.5000;0.1571;0.4101;
1060.8000;0.1506;0.3911;
1061.1000;0.1514;0.3958;
1061.4000;0.1490;0.3934;
1061.7000;0.1506;0.3958;
1062.0000;0.1457;0.3839;
1062.3000;0.1514;0.4078;
1062.6000;0.1506;0.4078;
1062.9000;0.1465;0.3887;
1063.2000;0.1481;0.3958;
1063.5000;0.1506;0.4101;
1063.8000;0.1514;0.4149;
1064.1000;0.1498;0.4101;
1064.4000;0.1498;0.4054;
1064.7000;0.1514;0.4030;
1065.0000;0.1392;0.3696;
1065.3000;0.1587;0.4125;
1065.6000;0.1506;0.3934;
1065.9000;0.1514;0.4006;
1066.2000;0.1506;0.4006;
1066.5000;0.1506;0.4054;
1066.8000;0.1522;0.4125;
1067.1000;0.1514;0.4054;
1067.4000;0.1498;0.3982;
1067.7000;0.1522;0.4006;
1068.0000;0.1498;0.3958;
1068.3000;0.1498;0.3982;
1068.6000;0.1555;0.4221;
1068.9000;0.1506;0.3934;
1069.2000;0.1514;0.3958;
1069.5000;0.1506;0.4006;
1069.8000;0.1506;0.3958;
1070.1000;0.1522;0.4054;
1070.4000;0.1506;0.4030;
1070.7000;0.1490;0.3958;
1071.0000;0.1514;0.4054;
1071.3000;0.1498;0.4006;
1071.6000;0.1514;0.4101;
1071.9000;0.1473;0.3934;
1072.2000;0.1506;0.4006;
1072.5000;0.1514;0.4006;
1072.8000;0.1481;0.3911;
1073.1000;0.1514;0.3982;
1073.4000;0.1490;0.3791;
1073.7000;0.1457;0.3648;
1074.0000;0.1563;0.3863;
1074.3000;0.1522;0.3696;
1074.6000;0.1490;0.3696;
1074.9000;0.1490;0.3648;
1075.2000;0.1498;0.3744;
1075.5000;0.1490;0.3696;
1075.8000;0.1595;0.4006;
1076.1000;0.1481;0.3791;
1076.4000;0.1481;0.3815;
1076.7000;0.1498;0.3887;
1077.0000;0.1490;0.3911;
1077.3000;0.1481;0.3815;
1077.6000;0.1514;0.3911;
1077.9000;0.1498;0.3911;
1078.2000;0.1490;0.3887;
1078.5000;0.1473;0.3887;
1078.8000;0.1481;0.3911;
1079.1000;0.1506;0.3839;
1079.4000;0.1514;0.3887;
1079.7000;0.1506;0.3958;
1080.0000;0.1514;0.3982;
1080.3000;0.1514;0.4006;
1080.6000;0.1571;0.4101;
1080.9000;0.1498;0.3887;
1081.2000;0.1571;0.4030;
1081.5000;0.1555;0.3958;
1081.8000;0.1498;0.3839;
1082.1000;0.1530;0.3958;
1082.4000;0.1506;0.3863;
1082.7000;0.1481;0.3934;
1083.0000;0.1457;0.3887;
1083.3000;0.1498;0.3958;
1083.6000;0.1514;0.4006;
1083.9000;0.1498;0.3911;
1084.2000;0.1490;0.3911;
1084.5000;0.1514;0.3934;
1084.8000;0.1498;0.3958;
1085.1000;0.1490;0.3887;
1085.4000;0.1490;0.3839;
1085.7000;0.1473;0.3839;
1086.0000;0.1579;0.4197;
1086.3000;0.1433;0.3791;
1086.6000;0.1490;0.3887;
1086.9000;0.1498;0.3934;
1087.2000;0.1473;0.3839;
1087.5000;0.1449;0.3768;
1087.8000;0.1506;0.3791;
1088.1000;0.1481;0.3791;
1088.4000;0.1522;0.3911;
1088.7000;0.1473;0.3815;
1089.0000;0.1481;0.3815;
1089.3000;0.1498;0.3839;
1089.6000;0.1465;0.3815;
1089.9000;0.1498;0.3911;
1090.2000;0.1579;0.4078;
1090.5000;0.1506;0.3934;
1090.8000;0.1498;0.3887;
1091.1000;0.1481;0.3815;
1091.4000;0.1498;0.3863;
1091.7000;0.1481;0.3863;
1092.0000;0.1473;0.3887;
1092.3000;0.1490;0.3863;
1092.6000;0.1498;0.3863;
1092.9000;0.1490;0.3839;
1093.2000;0.1473;0.3887;
1093.5000;0.1514;0.3982;
1093.8000;0.1530;0.4006;
1094.1000;0.1506;0.3934;
1094.4000;0.1506;0.3863;
1094.7000;0.1506;0.3815;
1095.0000;0.1506;0.3863;
1095.3000;0.1498;0.3863;
1095.6000;0.1506;0.3958;
1095.9000;0.1506;0.4030;
1096.2000;0.1506;0.3958;
1096.5000;0.1490;0.3911;
1096.8000;0.1506;0.3887;
1097.1000;0.1498;0.4006;
1097.4000;0.1498;0.4054;
1097.7000;0.1473;0.4006;
1098.0000;0.1490;0.4006;
1098.3000;0.1481;0.3934;
1098.6000;0.1498;0.3911;
1098.9000;0.1498;0.4006;
1099.2000;0.1490;0.3982;
1099.5000;0.1490;0.4006;
1099.8000;0.1408;0.3791;
1100.1000;0.1506;0.4101;
1100.4000;0.1384;0.3791;
1100.7000;0.1498;0.3982;
1101.0000;0.1514;0.4030;
1101.3000;0.1522;0.4125;
1101.6000;0.1498;0.4054;
1101.9000;0.1514;0.4101;
1102.2000;0.1514;0.4101;
1102.5000;0.1514;0.4006;
1102.8000;0.1498;0.3982;
1103.1000;0.1416;0.3744;
1103.4000;0.1498;0.3934;
1103.7000;0.1498;0.3911;
1104.0000;0.1522;0.4006;
1104.3000;0.1538;0.4101;
1104.6000;0.1612;0.4340;
1104.9000;0.1465;0.3958;
1105.2000;0.1481;0.3982;
1105.5000;0.1506;0.4030;
1105.8000;0.1481;0.3958;
1106.1000;0.1506;0.4078;
1106.4000;0.1481;0.3863;
1106.7000;0.1498;0.3934;
1107.0000;0.1449;0.3720;
1107.3000;0.1514;0.3934;
1107.6000;0.1498;0.3958;
1107.9000;0.1490;0.3958;
1108.2000;0.1457;0.3911;
1108.5000;0.1490;0.4006;
1108.8000;0.1490;0.3934;
1109.1000;0.1514;0.4054;
1109.4000;0.1506;0.4078;
1109.7000;0.1514;0.4101;
1110.0000;0.1481;0.4054;
1110.3000;0.1530;0.4125;
1110.6000;0.1490;0.4030;
1110.9000;0.1498;0.4006;
1111.2000;0.1547;0.4125;
1111.5000;0.1530;0.4054;
1111.8000;0.1449;0.3887;
1112.1000;0.1530;0.4078;
1112.4000;0.1514;0.4030;
1112.7000;0.1514;0.4054;
1113.0000;0.1506;0.3982;
1113.3000;0.1481;0.3911;
1113.6000;0.1481;0.3911;
1113.9000;0.1498;0.3911;
1114.2000;0.1490;0.3863;
1114.5000;0.1473;0.3863;
1114.8000;0.1506;0.3863;
1115.1000;0.1522;0.3934;
1115.4000;0.1498;0.3958;
1115.7000;0.1498;0.3887;
1116.0000;0.1563;0.4078;
1116.3000;0.1490;0.3911;
1116.6000;0.1522;0.4006;
1116.9000;0.1522;0.3958;
1117.2000;0.1522;0.3982;
1117.5000;0.1490;0.3958;
1117.8000;0.1547;0.4125;
1118.1000;0.1538;0.3982;
1118.4000;0.1498;0.4006;
1118.7000;0.1506;0.4101;
1119.0000;0.1490;0.4101;
1119.3000;0.1490;0.4101;
1119.6000;0.1490;0.4101;
1119.9000;0.1465;0.4030;
1120.2000;0.1449;0.4030;
1120.5000;0.1441;0.4030;
1120.8000;0.1473;0.4030;
1121.1000;0.1481;0.4030;
1121.4000;0.1514;0.4078;
1121.7000;0.1514;0.4030;
1122.0000;0.1498;0.3958;
1122.3000;0.1481;0.3839;
1122.6000;0.1498;0.3887;
1122.9000;0.1514;0.4006;
1123.2000;0.1530;0.4030;
1123.5000;0.1506;0.3934;
1123.8000;0.1530;0.3911;
1124.1000;0.1522;0.3839;
1124.4000;0.1514;0.3768;
1124.7000;0.1522;0.3720;
1125.0000;0.1457;0.3648;
1125.3000;0.1376;0.3434;
1125.6000;0.1498;0.3791;
1125.9000;0.1481;0.3863;
1126.2000;0.1506;0.3934;
1126.5000;0.1498;0.3982;
1126.8000;0.1514;0.3958;
1127.1000;0.1498;0.3934;
1127.4000;0.1490;0.4030;
1127.7000;0.1498;0.4054;
1128.0000;0.1506;0.4101;
1128.3000;0.1530;0.4149;
1128.6000;0.1498;0.4101;
1128.9000;0.1481;0.4006;
1129.2000;0.1498;0.4054;
1129.5000;0.1506;0.4006;
1129.8000;0.1530;0.4030;
1130.1000;0.1498;0.3958;
1130.4000;0.1506;0.3958;
1130.7000;0.1506;0.4006;
1131.0000;0.1498;0.3911;
1131.3000;0.1490;0.3911;
1131.6000;0.1473;0.3934;
1131.9000;0.1498;0.3934;
1132.2000;0.1490;0.3839;
1132.5000;0.1506;0.3839;
1132.8000;0.1498;0.3863;
1133.1000;0.1563;0.4101;
1133.4000;0.1498;0.3958;
1133.7000;0.1498;0.3958;
1134.0000;0.1547;0.4054;
1134.3000;0.1514;0.3839;
1134.6000;0.1514;0.3839;
1134.9000;0.1506;0.3768;
1135.2000;0.1514;0.3768;
1135.5000;0.1514;0.3791;
1135.8000;0.1425;0.3648;
1136.1000;0.1506;0.3863;
1136.4000;0.1514;0.3839;
1136.7000;0.1481;0.3911;
1137.0000;0.1490;0.3982;
1137.3000;0.1481;0.3982;
1137.6000;0.1514;0.4078;
1137.9000;0.1498;0.3934;
1138.2000;0.1490;0.3863;
1138.5000;0.1506;0.3958;
1138.8000;0.1506;0.3934;
1139.1000;0.1506;0.3958;
1139.4000;0.1498;0.3958;
1139.7000;0.1506;0.3982;
1140.0000;0.1481;0.3911;
1140.3000;0.1514;0.4006;
1140.6000;0.1498;0.3958;
1140.9000;0.1327;0.3553;
1141.2000;0.1490;0.3958;
1141.5000;0.1498;0.3982;
1141.8000;0.1490;0.4054;
1142.1000;0.1498;0.4078;
1142.4000;0.1481;0.3982;
1142.7000;0.1490;0.3982;
1143.0000;0.1522;0.4030;
1143.3000;0.1490;0.3911;
1143.6000;0.1514;0.3839;
1143.9000;0.1473;0.3720;
1144.2000;0.1490;0.3791;
1144.5000;0.1498;0.3768;
1144.8000;0.1604;0.4125;
1145.1000;0.1506;0.3863;
1145.4000;0.1498;0.3863;
1145.7000;0.1490;0.3863;
1146.0000;0.1514;0.3982;
1146.3000;0.1644;0.4268;
1146.6000;0.1506;0.3863;
1146.9000;0.1498;0.3839;
1147.2000;0.1506;0.3911;
1147.5000;0.1506;0.3815;
1147.8000;0.1457;0.3672;
1148.1000;0.1498;0.3887;
1148.4000;0.1490;0.3863;
1148.7000;0.1522;0.3982;
1149.0000;0.1481;0.3911;
1149.3000;0.1490;0.3839;
1149.6000;0.1490;0.3839;
1149.9000;0.1514;0.3911;
1150.2000;0.1359;0.3529;
1150.5000;0.1506;0.4006;
1150.8000;0.1506;0.3982;
1151.1000;0.1498;0.4006;
1151.4000;0.1506;0.4054;
1151.7000;0.1498;0.4030;
1152.0000;0.1571;0.4221;
1152.3000;0.1506;0.4030;
1152.6000;0.1498;0.3911;
1152.9000;0.1522;0.3887;
1153.2000;0.1530;0.3863;
1153.5000;0.1498;0.3839;
1153.8000;0.1490;0.3815;
1154.1000;0.1514;0.3958;
1154.4000;0.1506;0.3958;
1154.7000;0.1498;0.3982;
1155.0000;0.1514;0.4054;
1155.3000;0.1473;0.3982;
1155.6000;0.1620;0.4388;
1155.9000;0.1490;0.4006;
1156.2000;0.1530;0.4125;
1156.5000;0.1579;0.4149;
1156.8000;0.1506;0.3982;
1157.1000;0.1498;0.3958;
1157.4000;0.1498;0.3934;
1157.7000;0.1514;0.3982;
1158.0000;0.1490;0.3934;
1158.3000;0.1473;0.3958;
1158.6000;0.1490;0.4125;
1158.9000;0.1514;0.4221;
1159.2000;0.1514;0.4221;
1159.5000;0.1481;0.4149;
1159.8000;0.1498;0.4197;
1160.1000;0.1538;0.4244;
1160.4000;0.1481;0.4149;
1160.7000;0.1506;0.4244;
1161.0000;0.1506;0.4244;
1161.3000;0.1490;0.4197;
1161.6000;0.1514;0.4197;
1161.9000;0.1506;0.4101;
1162.2000;0.1490;0.3887;
1162.5000;0.1514;0.3958;
1162.8000;0.1522;0.4054;
1163.1000;0.1506;0.4030;
1163.4000;0.1498;0.4006;
1163.7000;0.1481;0.3863;
1164.0000;0.1506;0.3863;
1164.3000;0.1506;0.3815;
1164.6000;0.1376;0.3481;
1164.9000;0.1636;0.4101;
1165.2000;0.1481;0.3696;
1165.5000;0.1538;0.3887;
1165.8000;0.1522;0.3887;
1166.1000;0.1498;0.3768;
1166.4000;0.1498;0.3720;
1166.7000;0.1506;0.3696;
1167.0000;0.1563;0.3887;
1167.3000;0.1465;0.3624;
1167.6000;0.1530;0.3791;
1167.9000;0.1530;0.3768;
1168.2000;0.1506;0.3863;
1168.5000;0.1449;0.3791;
1168.8000;0.1498;0.3958;
1169.1000;0.1481;0.3934;
1169.4000;0.1506;0.4078;
1169.7000;0.1514;0.4006;
1170.0000;0.1498;0.3958;
1170.3000;0.1595;0.4197;
1170.6000;0.1490;0.3911;
1170.9000;0.1506;0.4006;
1171.2000;0.1506;0.4054;
1171.5000;0.1498;0.3934;
1171.8000;0.1506;0.3911;
1172.1000;0.1563;0.4101;
1172.4000;0.1506;0.4006;
1172.7000;0.1416;0.3768;
1173.0000;0.1506;0.4054;
1173.3000;0.1538;0.4197;
1173.6000;0.1457;0.3863;
1173.9000;0.1506;0.4054;
1174.2000;0.1498;0.3982;
1174.5000;0.1514;0.4006;
1174.8000;0.1498;0.3982;
1175.1000;0.1498;0.4006;
1175.4000;0.1506;0.3982;
1175.7000;0.1506;0.3934;
1176.0000;0.1465;0.3934;
1176.3000;0.1506;0.4054;
1176.6000;0.1490;0.4054;
1176.9000;0.1481;0.4054;
1177.2000;0.1514;0.4078;
1177.5000;0.1530;0.4197;
1177.8000;0.1506;0.4125;
1178.1000;0.1498;0.4006;
1178.4000;0.1498;0.4125;
1178.7000;0.1498;0.4101;
1179.0000;0.1433;0.4006;
1179.3000;0.1563;0.4292;
1179.6000;0.1416;0.3911;
1179.9000;0.1498;0.4125;
1180.2000;0.1433;0.3911;
1180.5000;0.1465;0.3982;
1180.8000;0.1490;0.3958;
1181.1000;0.1506;0.4006;
1181.4000;0.1506;0.4030;
1181.7000;0.1490;0.4030;
1182.0000;0.1359;0.3744;
1182.3000;0.1514;0.4030;
1182.6000;0.1376;0.3672;
1182.9000;0.1506;0.4006;
1183.2000;0.1563;0.4244;
1183.5000;0.1506;0.4197;
1183.8000;0.1498;0.4101;
1184.1000;0.1433;0.3934;
1184.4000;0.1465;0.4030;
1184.7000;0.1506;0.4078;
1185.0000;0.1498;0.4054;
1185.3000;0.1506;0.4125;
1185.6000;0.1481;0.4030;
1185.9000;0.1498;0.4030;
1186.2000;0.1498;0.4078;
1186.5000;0.1514;0.4101;
1186.8000;0.1498;0.4054;
1187.1000;0.1498;0.4078;
1187.4000;0.1498;0.4101;
1187.7000;0.1498;0.4054;
1188.0000;0.1506;0.4006;
1188.3000;0.1514;0.4054;
1188.6000;0.1481;0.4006;
1188.9000;0.1481;0.4006;
1189.2000;0.1481;0.3958;
1189.5000;0.1490;0.3958;
1189.8000;0.1368;0.3577;
1190.1000;0.1498;0.3839;
1190.4000;0.1449;0.3791;
1190.7000;0.1498;0.3958;
1191.0000;0.1506;0.3887;
1191.3000;0.1490;0.3791;
1191.6000;0.1481;0.3768;
1191.9000;0.1604;0.4149;
1192.2000;0.1481;0.3839;
1192.5000;0.1441;0.3839;
1192.8000;0.1506;0.4054;
1193.1000;0.1498;0.4030;
1193.4000;0.1555;0.4101;
1193.7000;0.1530;0.4101;
1194.0000;0.1522;0.4006;
1194.3000;0.1498;0.3911;
1194.6000;0.1522;0.4054;
1194.9000;0.1506;0.4054;
1195.2000;0.1563;0.4268;
1195.5000;0.1490;0.4125;
1195.8000;0.1433;0.3982;
1196.1000;0.1506;0.4173;
1196.4000;0.1481;0.4078;
1196.7000;0.1514;0.4149;
1197.0000;0.1498;0.4173;
1197.3000;0.1547;0.4340;
1197.6000;0.1481;0.4197;
1197.9000;0.1498;0.4149;
1198.2000;0.1498;0.4149;
1198.5000;0.1498;0.4173;
1198.8000;0.1465;0.4054;
1199.1000;0.1490;0.4101;
1199.4000;0.1514;0.4173;
1199.7000;0.1498;0.4149;
1200.0000;0.1555;0.4221;
1200.3000;0.1514;0.4149;
1200.6000;0.1498;0.4078;
1200.9000;0.1506;0.4030;
1201.2000;0.1481;0.3815;
1201.5000;0.1506;0.3839;
1201.8000;0.1498;0.3911;
1202.1000;0.1595;0.4197;
1202.4000;0.1506;0.4054;
1202.7000;0.1465;0.3958;
1203.0000;0.1522;0.4101;
1203.3000;0.1563;0.4197;
1203.6000;0.1416;0.3791;
1203.9000;0.1498;0.4054;
1204.2000;0.1530;0.4173;
1204.5000;0.1530;0.4173;
1204.8000;0.1498;0.4173;
1205.1000;0.1522;0.4292;
1205.4000;0.1506;0.4221;
1205.7000;0.1457;0.4006;
1206.0000;0.1490;0.4030;
1206.3000;0.1506;0.3982;
1206.6000;0.1506;0.3982;
1206.9000;0.1506;0.3958;
1207.2000;0.1498;0.3863;
1207.5000;0.1514;0.3887;
1207.8000;0.1498;0.3887;
1208.1000;0.1490;0.3911;
1208.4000;0.1481;0.3934;
1208.7000;0.1506;0.4078;
1209.0000;0.1514;0.4173;
1209.3000;0.1563;0.4340;
1209.6000;0.1522;0.4101;
1209.9000;0.1514;0.4101;
1210.2000;0.1514;0.4149;
1210.5000;0.1506;0.4101;
1210.8000;0.1506;0.4197;
1211.1000;0.1506;0.4078;
1211.4000;0.1506;0.4030;
1211.7000;0.1490;0.3934;
1212.0000;0.1490;0.3887;
1212.3000;0.1490;0.3863;
1212.6000;0.1481;0.3863;
1212.9000;0.1481;0.3815;
1213.2000;0.1490;0.3982;
1213.5000;0.1506;0.4125;
1213.8000;0.1498;0.4101;
1214.1000;0.1498;0.4030;
1214.4000;0.1490;0.3958;
1214.7000;0.1481;0.3934;
1215.0000;0.1506;0.3982;
1215.3000;0.1506;0.3982;
1215.6000;0.1490;0.3958;
1215.9000;0.1563;0.4125;
1216.2000;0.1538;0.4054;
1216.5000;0.1481;0.3934;
1216.8000;0.1506;0.4006;
1217.1000;0.1490;0.3958;
1217.4000;0.1498;0.3958;
1217.7000;0.1538;0.3911;
1218.0000;0.1473;0.3744;
1218.3000;0.1547;0.4030;
1218.6000;0.1498;0.4006;
1218.9000;0.1490;0.4078;
1219.2000;0.1506;0.4197;
1219.5000;0.1490;0.4221;
1219.8000;0.1547;0.4388;
1220.1000;0.1538;0.4364;
1220.4000;0.1522;0.4292;
1220.7000;0.1506;0.4244;
1221.0000;0.1530;0.4292;
1221.3000;0.1530;0.4292;
1221.6000;0.1481;0.4221;
1221.9000;0.1481;0.4197;
1222.2000;0.1481;0.4197;
1222.5000;0.1514;0.4340;
1222.8000;0.1522;0.4268;
1223.1000;0.1522;0.4244;
1223.4000;0.1481;0.4173;
1223.7000;0.1490;0.4101;
1224.0000;0.1506;0.4101;
1224.3000;0.1506;0.4149;
1224.6000;0.1465;0.4030;
1224.9000;0.1506;0.4125;
1225.2000;0.1506;0.4054;
1225.5000;0.1522;0.4078;
1225.8000;0.1490;0.4006;
1226.1000;0.1473;0.3982;
1226.4000;0.1522;0.4221;
1226.7000;0.1506;0.4268;
1227.0000;0.1563;0.4316;
1227.3000;0.1498;0.4149;
1227.6000;0.1498;0.4197;
1227.9000;0.1522;0.4340;
1228.2000;0.1498;0.4268;
1228.5000;0.1498;0.4244;
1228.8000;0.1506;0.4221;
1229.1000;0.1506;0.4173;
1229.4000;0.1473;0.4173;
1229.7000;0.1571;0.4340;
1230.0000;0.1506;0.4149;
1230.3000;0.1506;0.4149;
1230.6000;0.1530;0.4149;
1230.9000;0.1506;0.4101;
1231.2000;0.1571;0.4244;
1231.5000;0.1498;0.4030;
1231.8000;0.1514;0.3982;
1232.1000;0.1481;0.3887;
1232.4000;0.1481;0.3911;
1232.7000;0.1481;0.3982;
1233.0000;0.1506;0.4006;
1233.3000;0.1481;0.3863;
1233.6000;0.1498;0.3863;
1233.9000;0.1481;0.3815;
1234.2000;0.1506;0.4006;
1234.5000;0.1481;0.3934;
1234.8000;0.1498;0.4030;
1235.1000;0.1506;0.4173;
1235.4000;0.1498;0.4149;
1235.7000;0.1498;0.4078;
1236.0000;0.1473;0.3863;
1236.3000;0.1538;0.4125;
1236.6000;0.1506;0.3958;
1236.9000;0.1514;0.3958;
1237.2000;0.1490;0.3887;
1237.5000;0.1498;0.4030;
1237.8000;0.1490;0.3934;
1238.1000;0.1506;0.3911;
1238.4000;0.1506;0.3934;
1238.7000;0.1481;0.3911;
1239.0000;0.1522;0.4030;
1239.3000;0.1522;0.4125;
1239.6000;0.1490;0.4125;
1239.9000;0.1498;0.4173;
1240.2000;0.1498;0.4125;
1240.5000;0.1514;0.4173;
1240.8000;0.1522;0.4197;
1241.1000;0.1498;0.4054;
1241.4000;0.1481;0.3958;
1241.7000;0.1522;0.4078;
1242.0000;0.1522;0.4078;
1242.3000;0.1530;0.4244;
1242.6000;0.1506;0.4125;
1242.9000;0.1498;0.4125;
1243.2000;0.1498;0.4078;
1243.5000;0.1522;0.4149;
1243.8000;0.1490;0.4054;
1244.1000;0.1498;0.4173;
1244.4000;0.1506;0.4221;
1244.7000;0.1490;0.4268;
1245.0000;0.1498;0.4316;
1245.3000;0.1498;0.4292;
1245.6000;0.1514;0.4197;
1245.9000;0.1498;0.4221;
1246.2000;0.1490;0.4197;
1246.5000;0.1490;0.4197;
1246.8000;0.1498;0.4173;
1247.1000;0.1457;0.4078;
1247.4000;0.1490;0.4101;
1247.7000;0.1514;0.4125;
1248.0000;0.1514;0.4173;
1248.3000;0.1481;0.4030;
1248.6000;0.1563;0.4268;
1248.9000;0.1433;0.3863;
1249.2000;0.1498;0.4030;
1249.5000;0.1498;0.4054;
1249.8000;0.1506;0.4054;
1250.1000;0.1481;0.4054;
1250.4000;0.1498;0.4054;
1250.7000;0.1522;0.4173;
1251.0000;0.1481;0.4101;
1251.3000;0.1498;0.4149;
1251.6000;0.1481;0.4078;
1251.9000;0.1490;0.4078;
1252.2000;0.1498;0.4173;
1252.5000;0.1498;0.4149;
1252.8000;0.1506;0.4078;
1253.1000;0.1457;0.3958;
1253.4000;0.1563;0.4268;
1253.7000;0.1506;0.4125;
1254.0000;0.1506;0.4125;
1254.3000;0.1490;0.4078;
1254.6000;0.1514;0.4173;
1254.9000;0.1506;0.4078;
1255.2000;0.1490;0.4030;
1255.5000;0.1490;0.4006;
1255.8000;0.1490;0.3982;
1256.1000;0.1498;0.3958;
1256.4000;0.1465;0.3863;
1256.7000;0.1514;0.3982;
1257.0000;0.1490;0.3887;
1257.3000;0.1498;0.3911;
1257.6000;0.1481;0.3887;
1257.9000;0.1481;0.4006;
1258.2000;0.1555;0.4197;
1258.5000;0.1506;0.3958;
1258.8000;0.1628;0.4316;
1259.1000;0.1473;0.3982;
1259.4000;0.1498;0.4078;
1259.7000;0.1498;0.4125;
1260.0000;0.1498;0.4125;
1260.3000;0.1522;0.4173;
1260.6000;0.1498;0.4125;
1260.9000;0.1587;0.4364;
1261.2000;0.1506;0.4054;
1261.5000;0.1498;0.4054;
1261.8000;0.1498;0.4101;
1262.1000;0.1506;0.4149;
1262.4000;0.1416;0.3934;
1262.7000;0.1490;0.4221;
1263.0000;0.1490;0.4244;
1263.3000;0.1522;0.4364;
1263.6000;0.1579;0.4483;
1263.9000;0.1498;0.4268;
1264.2000;0.1498;0.4268;
1264.5000;0.1498;0.4197;
1264.8000;0.1490;0.4173;
1265.1000;0.1514;0.4244;
1265.4000;0.1538;0.4340;
1265.7000;0.1506;0.4197;
1266.0000;0.1498;0.4197;
1266.3000;0.1506;0.4173;
1266.6000;0.1514;0.4221;
1266.9000;0.1506;0.4197;
1267.2000;0.1457;0.4006;
1267.5000;0.1408;0.3791;
1267.8000;0.1498;0.4030;
1268.1000;0.1490;0.4054;
1268.4000;0.1514;0.4197;
1268.7000;0.1481;0.4030;
1269.0000;0.1490;0.4078;
1269.3000;0.1506;0.4125;
1269.6000;0.1498;0.4006;
1269.9000;0.1490;0.3934;
1270.2000;0.1514;0.4030;
1270.5000;0.1514;0.4078;
1270.8000;0.1506;0.4054;
1271.1000;0.1425;0.3887;
1271.4000;0.1514;0.4054;
1271.7000;0.1514;0.4006;
1272.0000;0.1449;0.3815;
1272.3000;0.1498;0.3958;
1272.6000;0.1498;0.3887;
1272.9000;0.1506;0.3887;
1273.2000;0.1514;0.4006;
1273.5000;0.1481;0.3934;
1273.8000;0.1490;0.4006;
1274.1000;0.1498;0.3958;
1274.4000;0.1498;0.4030;
1274.7000;0.1498;0.4006;
1275.0000;0.1498;0.4030;
1275.3000;0.1490;0.3982;
1275.6000;0.1514;0.4173;
1275.9000;0.1522;0.4268;
1276.2000;0.1490;0.4221;
1276.5000;0.1392;0.3934;
1276.8000;0.1514;0.4221;
1277.1000;0.1506;0.4125;
1277.4000;0.1514;0.4197;
1277.7000;0.1498;0.4101;
1278.0000;0.1506;0.4149;
1278.3000;0.1506;0.4149;
1278.6000;0.1506;0.4221;
1278.9000;0.1481;0.4221;
1279.2000;0.1481;0.4221;
1279.5000;0.1579;0.4531;
1279.8000;0.1498;0.4244;
1280.1000;0.1547;0.4364;
1280.4000;0.1522;0.4221;
1280.7000;0.1481;0.4078;
1281.0000;0.1490;0.4101;
1281.3000;0.1506;0.4125;
1281.6000;0.1481;0.4078;
1281.9000;0.1506;0.4197;
1282.2000;0.1506;0.4125;
1282.5000;0.1490;0.4101;
1282.8000;0.1490;0.4054;
1283.1000;0.1522;0.4173;
1283.4000;0.1506;0.4125;
1283.7000;0.1490;0.4006;
1284.0000;0.1506;0.4101;
1284.3000;0.1506;0.4078;
1284.6000;0.1343;0.3601;
1284.9000;0.1587;0.4125;
1285.2000;0.1490;0.3863;
1285.5000;0.1498;0.3839;
1285.8000;0.1490;0.3815;
1286.1000;0.1538;0.3958;
1286.4000;0.1498;0.3982;
1286.7000;0.1514;0.4101;
1287.0000;0.1498;0.4149;
1287.3000;0.1425;0.3958;
1287.6000;0.1490;0.4149;
1287.9000;0.1530;0.4221;
1288.2000;0.1522;0.4221;
1288.5000;0.1506;0.4221;
1288.8000;0.1506;0.4149;
1289.1000;0.1441;0.3887;
1289.4000;0.1506;0.4125;
1289.7000;0.1498;0.4173;
1290.0000;0.1498;0.4149;
1290.3000;0.1506;0.4125;
1290.6000;0.1498;0.4173;
1290.9000;0.1514;0.4221;
1291.2000;0.1457;0.4054;
1291.5000;0.1506;0.4268;
1291.8000;0.1481;0.4244;
1292.1000;0.1506;0.4244;
1292.4000;0.1514;0.4221;
1292.7000;0.1506;0.4268;
1293.0000;0.1506;0.4292;
1293.3000;0.1498;0.4340;
1293.6000;0.1514;0.4388;
1293.9000;0.1506;0.4268;
1294.2000;0.1498;0.4244;
1294.5000;0.1441;0.4101;
1294.8000;0.1514;0.4244;
1295.1000;0.1498;0.4268;
1295.4000;0.1506;0.4316;
1295.7000;0.1498;0.4292;
1296.0000;0.1522;0.4268;
1296.3000;0.1498;0.4173;
1296.6000;0.1481;0.4101;
1296.9000;0.1498;0.4125;
1297.2000;0.1376;0.3744;
1297.5000;0.1530;0.4030;
1297.8000;0.1514;0.4006;
1298.1000;0.1498;0.3911;
1298.4000;0.1449;0.3791;
1298.7000;0.1612;0.4149;
1299.0000;0.1498;0.3958;
1299.3000;0.1522;0.4054;
1299.6000;0.1563;0.4197;
1299.9000;0.1506;0.4054;
1300.2000;0.1522;0.4030;
1300.5000;0.1530;0.4078;
1300.8000;0.1481;0.4054;
1301.1000;0.1490;0.4006;
1301.4000;0.1490;0.4006;
1301.7000;0.1514;0.4054;
1302.0000;0.1514;0.4101;
1302.3000;0.1498;0.4030;
1302.6000;0.1481;0.3982;
1302.9000;0.1522;0.4030;
1303.2000;0.1522;0.4101;
1303.5000;0.1563;0.4292;
1303.8000;0.1498;0.4101;
1304.1000;0.1522;0.4197;
1304.4000;0.1506;0.4173;
1304.7000;0.1514;0.4125;
1305.0000;0.1490;0.4054;
1305.3000;0.1498;0.4078;
1305.6000;0.1547;0.4173;
1305.9000;0.1481;0.4078;
1306.2000;0.1498;0.4054;
1306.5000;0.1506;0.4054;
1306.8000;0.1506;0.4101;
1307.1000;0.1490;0.4078;
1307.4000;0.1530;0.4149;
1307.7000;0.1506;0.4030;
1308.0000;0.1522;0.4078;
1308.3000;0.1522;0.4054;
1308.6000;0.1514;0.4054;
1308.9000;0.1506;0.4078;
1309.2000;0.1514;0.4054;
1309.5000;0.1506;0.4054;
1309.8000;0.1506;0.4149;
1310.1000;0.1506;0.4197;
1310.4000;0.1563;0.4244;
1310.7000;0.1473;0.4006;
1311.0000;0.1506;0.4078;
1311.3000;0.1490;0.3887;
1311.6000;0.1498;0.3839;
1311.9000;0.1506;0.3911;
1312.2000;0.1473;0.3982;
1312.5000;0.1506;0.4197;
1312.8000;0.1587;0.4435;
1313.1000;0.1530;0.4268;
1313.4000;0.1530;0.4221;
1313.7000;0.1514;0.4054;
1314.0000;0.1498;0.4030;
1314.3000;0.1579;0.4125;
1314.6000;0.1449;0.3815;
1314.9000;0.1490;0.3887;
1315.2000;0.1506;0.3911;
1315.5000;0.1522;0.3934;
1315.8000;0.1563;0.4125;
1316.1000;0.1498;0.3887;
1316.4000;0.1522;0.3958;
1316.7000;0.1490;0.3863;
1317.0000;0.1490;0.3911;
1317.3000;0.1473;0.3887;
1317.6000;0.1506;0.3911;
1317.9000;0.1506;0.3982;
1318.2000;0.1498;0.4078;
1318.5000;0.1506;0.4078;
1318.8000;0.1490;0.4030;
1319.1000;0.1449;0.3958;
1319.4000;0.1490;0.4030;
1319.7000;0.1490;0.4006;
1320.0000;0.1498;0.4030;
1320.3000;0.1490;0.3982;
1320.6000;0.1514;0.4078;
1320.9000;0.1498;0.3911;
1321.2000;0.1457;0.3887;
1321.5000;0.1498;0.3958;
1321.8000;0.1490;0.4006;
1322.1000;0.1465;0.3863;
1322.4000;0.1498;0.4054;
1322.7000;0.1481;0.3934;
1323.0000;0.1530;0.4078;
1323.3000;0.1490;0.3911;
1323.6000;0.1498;0.3887;
1323.9000;0.1490;0.3839;
1324.2000;0.1490;0.3863;
1324.5000;0.1506;0.3863;
1324.8000;0.1490;0.3911;
1325.1000;0.1490;0.3982;
1325.4000;0.1522;0.4173;
1325.7000;0.1498;0.4149;
1326.0000;0.1498;0.4125;
1326.3000;0.1498;0.4101;
1326.6000;0.1481;0.4030;
1326.9000;0.1506;0.4197;
1327.2000;0.1522;0.4149;
1327.5000;0.1506;0.4054;
1327.8000;0.1514;0.4078;
1328.1000;0.1498;0.4078;
1328.4000;0.1506;0.4197;
1328.7000;0.1514;0.4173;
1329.0000;0.1498;0.4173;
1329.3000;0.1506;0.4197;
1329.6000;0.1490;0.4221;
1329.9000;0.1490;0.4221;
1330.2000;0.1514;0.4292;
1330.5000;0.1522;0.4244;
1330.8000;0.1490;0.4244;
1331.1000;0.1514;0.4316;
1331.4000;0.1514;0.4340;
1331.7000;0.1522;0.4268;
1332.0000;0.1498;0.4173;
1332.3000;0.1506;0.4173;
1332.6000;0.1498;0.4149;
1332.9000;0.1498;0.4101;
1333.2000;0.1481;0.4006;
1333.5000;0.1498;0.4078;
1333.8000;0.1506;0.4101;
1334.1000;0.1506;0.4078;
1334.4000;0.1481;0.4006;
1334.7000;0.1514;0.4125;
1335.0000;0.1498;0.4078;
1335.3000;0.1490;0.4125;
1335.6000;0.1530;0.4125;
1335.9000;0.1506;0.4078;
1336.2000;0.1506;0.4078;
1336.5000;0.1498;0.4078;
1336.8000;0.1547;0.4244;
1337.1000;0.1481;0.4101;
1337.4000;0.1473;0.4101;
1337.7000;0.1481;0.4078;
1338.0000;0.1490;0.4054;
1338.3000;0.1481;0.4125;
1338.6000;0.1498;0.4197;
1338.9000;0.1457;0.4030;
1339.2000;0.1514;0.4197;
1339.5000;0.1481;0.4078;
1339.8000;0.1547;0.4292;
1340.1000;0.1530;0.4268;
1340.4000;0.1506;0.4173;
1340.7000;0.1498;0.4149;
1341.0000;0.1498;0.4125;
1341.3000;0.1514;0.4149;
1341.6000;0.1498;0.4197;
1341.9000;0.1555;0.4292;
1342.2000;0.1514;0.4149;
1342.5000;0.1481;0.4149;
1342.8000;0.1522;0.4101;
1343.1000;0.1514;0.4054;
1343.4000;0.1498;0.3863;
1343.7000;0.1498;0.3911;
1344.0000;0.1498;0.3911;
1344.3000;0.1506;0.3934;
1344.6000;0.1481;0.3911;
1344.9000;0.1498;0.4006;
1345.2000;0.1441;0.3958;
1345.5000;0.1514;0.4101;
1345.8000;0.1514;0.4221;
1346.1000;0.1457;0.4101;
1346.4000;0.1514;0.4149;
1346.7000;0.1514;0.4101;
1347.0000;0.1506;0.4006;
1347.3000;0.1506;0.4030;
1347.6000;0.1506;0.4054;
1347.9000;0.1530;0.4101;
1348.2000;0.1490;0.4101;
1348.5000;0.1498;0.4173;
1348.8000;0.1473;0.4125;
1349.1000;0.1514;0.4244;
1349.4000;0.1514;0.4221;
1349.7000;0.1490;0.4221;
1350.0000;0.1481;0.4173;
1350.3000;0.1490;0.4268;
1350.6000;0.1481;0.4244;
1350.9000;0.1522;0.4221;
1351.2000;0.1514;0.4244;
1351.5000;0.1473;0.4197;
1351.8000;0.1506;0.4221;
1352.1000;0.1490;0.4244;
1352.4000;0.1547;0.4316;
1352.7000;0.1498;0.4244;
1353.0000;0.1522;0.4292;
1353.3000;0.1506;0.4149;
1353.6000;0.1514;0.4078;
1353.9000;0.1481;0.4006;
1354.2000;0.1514;0.4125;
1354.5000;0.1490;0.4054;
1354.8000;0.1547;0.4292;
1355.1000;0.1506;0.4173;
1355.4000;0.1490;0.4173;
1355.7000;0.1522;0.4340;
1356.0000;0.1490;0.4340;
1356.3000;0.1481;0.4340;
1356.6000;0.1514;0.4340;
1356.9000;0.1522;0.4197;
1357.2000;0.1481;0.4197;
1357.5000;0.1506;0.4221;
1357.8000;0.1506;0.4173;
1358.1000;0.1538;0.4292;
1358.4000;0.1514;0.4268;
1358.7000;0.1416;0.3982;
1359.0000;0.1514;0.4268;
1359.3000;0.1506;0.4268;
1359.6000;0.1522;0.4340;
1359.9000;0.1490;0.4292;
1360.2000;0.1490;0.4197;
1360.5000;0.1506;0.4268;
1360.8000;0.1457;0.4149;
1361.1000;0.1514;0.4268;
1361.4000;0.1490;0.4244;
1361.7000;0.1514;0.4244;
1362.0000;0.1514;0.4221;
1362.3000;0.1498;0.4173;
1362.6000;0.1490;0.4125;
1362.9000;0.1490;0.4125;
1363.2000;0.1481;0.4054;
1363.5000;0.1506;0.4054;
1363.8000;0.1498;0.3911;
1364.1000;0.1441;0.3768;
1364.4000;0.1514;0.4006;
1364.7000;0.1506;0.4078;
1365.0000;0.1498;0.4078;
1365.3000;0.1441;0.3934;
1365.6000;0.1506;0.4078;
1365.9000;0.1506;0.4125;
1366.2000;0.1490;0.4054;
1366.5000;0.1498;0.4101;
1366.8000;0.1490;0.4054;
1367.1000;0.1498;0.4125;
1367.4000;0.1490;0.4078;
1367.7000;0.1498;0.4054;
1368.0000;0.1506;0.4101;
1368.3000;0.1433;0.3934;
1368.6000;0.1514;0.4221;
1368.9000;0.1514;0.4149;
1369.2000;0.1530;0.4173;
1369.5000;0.1506;0.4078;
1369.8000;0.1473;0.3958;
1370.1000;0.1514;0.4101;
1370.4000;0.1506;0.4149;
1370.7000;0.1506;0.4197;
1371.0000;0.1514;0.4173;
1371.3000;0.1547;0.4197;
1371.6000;0.1506;0.4149;
1371.9000;0.1514;0.4197;
1372.2000;0.1506;0.4125;
1372.5000;0.1498;0.4101;
1372.8000;0.1506;0.4078;
1373.1000;0.1498;0.4006;
1373.4000;0.1514;0.4030;
1373.7000;0.1473;0.3958;
1374.0000;0.1498;0.4030;
1374.3000;0.1506;0.4125;
1374.6000;0.1514;0.4149;
1374.9000;0.1514;0.4197;
1375.2000;0.1498;0.4197;
1375.5000;0.1490;0.4149;
1375.8000;0.1506;0.4149;
1376.1000;0.1506;0.4125;
1376.4000;0.1514;0.4078;
1376.7000;0.1498;0.4101;
1377.0000;0.1506;0.4197;
1377.3000;0.1490;0.4149;
1377.6000;0.1506;0.4197;
1377.9000;0.1555;0.4388;
1378.2000;0.1506;0.4197;
1378.5000;0.1481;0.4078;
1378.8000;0.1465;0.3982;
1379.1000;0.1522;0.4125;
1379.4000;0.1425;0.3863;
1379.7000;0.1522;0.4221;
1380.0000;0.1498;0.4221;
1380.3000;0.1530;0.4268;
1380.6000;0.1514;0.4173;
1380.9000;0.1506;0.4197;
1381.2000;0.1506;0.4173;
1381.5000;0.1506;0.4268;
1381.8000;0.1522;0.4221;
1382.1000;0.1604;0.4507;
1382.4000;0.1498;0.4244;
1382.7000;0.1473;0.4244;
1383.0000;0.1514;0.4340;
1383.3000;0.1498;0.4316;
1383.6000;0.1498;0.4197;
1383.9000;0.1490;0.4173;
1384.2000;0.1481;0.4197;
1384.5000;0.1498;0.4197;
1384.8000;0.1498;0.4149;
1385.1000;0.1506;0.4173;
1385.4000;0.1473;0.4125;
1385.7000;0.1506;0.4197;
1386.0000;0.1490;0.4221;
1386.3000;0.1522;0.4316;
1386.6000;0.1490;0.4340;
1386.9000;0.1506;0.4340;
1387.2000;0.1490;0.4268;
1387.5000;0.1506;0.4316;
1387.8000;0.1530;0.4411;
1388.1000;0.1433;0.4149;
1388.4000;0.1506;0.4292;
1388.7000;0.1538;0.4388;
1389.0000;0.1506;0.4364;
1389.3000;0.1571;0.4411;
1389.6000;0.1506;0.4268;
1389.9000;0.1490;0.4149;
1390.2000;0.1490;0.4101;
1390.5000;0.1555;0.4292;
1390.8000;0.1514;0.4221;
1391.1000;0.1498;0.4268;
1391.4000;0.1628;0.4507;
1391.7000;0.1490;0.4221;
1392.0000;0.1530;0.4364;
1392.3000;0.1490;0.4316;
1392.6000;0.1384;0.3958;
1392.9000;0.1490;0.4268;
1393.2000;0.1498;0.4292;
1393.5000;0.1481;0.4197;
1393.8000;0.1481;0.4078;
1394.1000;0.1481;0.4054;
1394.4000;0.1522;0.4078;
1394.7000;0.1449;0.3839;
1395.0000;0.1490;0.3982;
1395.3000;0.1506;0.3982;
1395.6000;0.1498;0.3958;
1395.9000;0.1498;0.4006;
1396.2000;0.1498;0.4030;
1396.5000;0.1490;0.4054;
1396.8000;0.1506;0.4149;
1397.1000;0.1449;0.4101;
1397.4000;0.1465;0.4221;
1397.7000;0.1506;0.4268;
1398.0000;0.1498;0.4268;
1398.3000;0.1465;0.4221;
1398.6000;0.1465;0.4173;
1398.9000;0.1490;0.4173;
1399.2000;0.1490;0.4197;
1399.5000;0.1425;0.4078;
1399.8000;0.1506;0.4364;
