time/ms;Fluo/V;P700 deltaI/I x10³;
-199.8000;0.1514;0.4292;
-199.5000;0.1473;0.4244;
-199.2000;0.1481;0.4268;
-198.9000;0.1547;0.4340;
-198.6000;0.1490;0.4149;
-198.3000;0.1490;0.4125;
-198.0000;0.1506;0.4197;
-197.7000;0.1498;0.4268;
-197.4000;0.1522;0.4340;
-197.1000;0.1506;0.4292;
-196.8000;0.1490;0.4340;
-196.5000;0.1498;0.4340;
-196.2000;0.1498;0.4340;
-195.9000;0.1506;0.4244;
-195.6000;0.1498;0.4340;
-195.3000;0.1457;0.4268;
-195.0000;0.1473;0.4364;
-194.7000;0.1490;0.4388;
-194.4000;0.1490;0.4340;
-194.1000;0.1506;0.4316;
-193.8000;0.1490;0.4244;
-193.5000;0.1473;0.4244;
-193.2000;0.1490;0.4244;
-192.9000;0.1514;0.4173;
-192.6000;0.1498;0.4221;
-192.3000;0.1571;0.4388;
-192.0000;0.1490;0.4221;
-191.7000;0.1498;0.4268;
-191.4000;0.1416;0.4149;
-191.1000;0.1604;0.4698;
-190.8000;0.1465;0.4316;
-190.5000;0.1498;0.4388;
-190.2000;0.1490;0.4292;
-189.9000;0.1481;0.4221;
-189.6000;0.1490;0.4268;
-189.3000;0.1506;0.4388;
-189.0000;0.1522;0.4531;
-188.7000;0.1473;0.4507;
-188.4000;0.1481;0.4554;
-188.1000;0.1481;0.4554;
-187.8000;0.1579;0.4817;
-187.5000;0.1490;0.4531;
-187.2000;0.1490;0.4459;
-186.9000;0.1473;0.4364;
-186.6000;0.1490;0.4388;
-186.3000;0.1506;0.4435;
-186.0000;0.1481;0.4388;
-185.7000;0.1506;0.4364;
-185.4000;0.1319;0.3839;
-185.1000;0.1490;0.4316;
-184.8000;0.1490;0.4316;
-184.5000;0.1490;0.4340;
-184.2000;0.1514;0.4411;
-183.9000;0.1490;0.4364;
-183.6000;0.1473;0.4244;
-183.3000;0.1481;0.4221;
-183.0000;0.1506;0.4292;
-182.7000;0.1473;0.4316;
-182.4000;0.1514;0.4340;
-182.1000;0.1490;0.4292;
-181.8000;0.1514;0.4435;
-181.5000;0.1490;0.4435;
-181.2000;0.1457;0.4411;
-180.9000;0.1498;0.4507;
-180.6000;0.1498;0.4459;
-180.3000;0.1433;0.4388;
-180.0000;0.1481;0.4507;
-179.7000;0.1587;0.4745;
-179.4000;0.1481;0.4340;
-179.1000;0.1506;0.4435;
-178.8000;0.1473;0.4364;
-178.5000;0.1498;0.4435;
-178.2000;0.1490;0.4388;
-177.9000;0.1490;0.4459;
-177.6000;0.1498;0.4411;
-177.3000;0.1522;0.4578;
-177.0000;0.1506;0.4435;
-176.7000;0.1490;0.4435;
-176.4000;0.1441;0.4316;
-176.1000;0.1604;0.4745;
-175.8000;0.1481;0.4364;
-175.5000;0.1547;0.4602;
-175.2000;0.1490;0.4507;
-174.9000;0.1514;0.4435;
-174.6000;0.1490;0.4292;
-174.3000;0.1490;0.4268;
-174.0000;0.1449;0.4149;
-173.7000;0.1425;0.4078;
-173.4000;0.1506;0.4340;
-173.1000;0.1392;0.4054;
-172.8000;0.1408;0.4054;
-172.5000;0.1441;0.4054;
-172.2000;0.1506;0.4316;
-171.9000;0.1490;0.4316;
-171.6000;0.1392;0.4078;
-171.3000;0.1498;0.4411;
-171.0000;0.1506;0.4388;
-170.7000;0.1490;0.4364;
-170.4000;0.1473;0.4292;
-170.1000;0.1473;0.4221;
-169.8000;0.1506;0.4340;
-169.5000;0.1498;0.4268;
-169.2000;0.1433;0.4078;
-168.9000;0.1498;0.4244;
-168.6000;0.1498;0.4244;
-168.3000;0.1498;0.4197;
-168.0000;0.1457;0.4125;
-167.7000;0.1620;0.4411;
-167.4000;0.1481;0.4149;
-167.1000;0.1506;0.4221;
-166.8000;0.1498;0.4197;
-166.5000;0.1506;0.4101;
-166.2000;0.1473;0.4101;
-165.9000;0.1498;0.4221;
-165.6000;0.1490;0.4197;
-165.3000;0.1490;0.4197;
-165.0000;0.1481;0.4173;
-164.7000;0.1514;0.4316;
-164.4000;0.1490;0.4292;
-164.1000;0.1473;0.4221;
-163.8000;0.1416;0.4078;
-163.5000;0.1481;0.4149;
-163.2000;0.1473;0.4173;
-162.9000;0.1465;0.4197;
-162.6000;0.1498;0.4244;
-162.3000;0.1522;0.4340;
-162.0000;0.1481;0.4244;
-161.7000;0.1481;0.4316;
-161.4000;0.1433;0.4221;
-161.1000;0.1481;0.4388;
-160.8000;0.1490;0.4507;
-160.5000;0.1441;0.4244;
-160.2000;0.1498;0.4388;
-159.9000;0.1498;0.4340;
-159.6000;0.1481;0.4244;
-159.3000;0.1506;0.4292;
-159.0000;0.1587;0.4483;
-158.7000;0.1498;0.4268;
-158.4000;0.1473;0.4316;
-158.1000;0.1506;0.4316;
-157.8000;0.1563;0.4483;
-157.5000;0.1481;0.4244;
-157.2000;0.1465;0.4149;
-156.9000;0.1481;0.4149;
-156.6000;0.1481;0.4244;
-156.3000;0.1490;0.4221;
-156.0000;0.1481;0.4149;
-155.7000;0.1359;0.3863;
-155.4000;0.1498;0.4125;
-155.1000;0.1555;0.4221;
-154.8000;0.1498;0.3958;
-154.5000;0.1506;0.3982;
-154.2000;0.1433;0.3839;
-153.9000;0.1514;0.4149;
-153.6000;0.1506;0.4149;
-153.3000;0.1473;0.4054;
-153.0000;0.1392;0.3744;
-152.7000;0.1498;0.4078;
-152.4000;0.1522;0.4221;
-152.1000;0.1425;0.3911;
-151.8000;0.1514;0.4173;
-151.5000;0.1522;0.4244;
-151.2000;0.1441;0.4030;
-150.9000;0.1506;0.4173;
-150.6000;0.1465;0.4101;
-150.3000;0.1538;0.4268;
-150.0000;0.1473;0.4125;
-149.7000;0.1506;0.4268;
-149.4000;0.1522;0.4340;
-149.1000;0.1498;0.4292;
-148.8000;0.1498;0.4388;
-148.5000;0.1514;0.4388;
-148.2000;0.1522;0.4388;
-147.9000;0.1481;0.4340;
-147.6000;0.1498;0.4388;
-147.3000;0.1465;0.4316;
-147.0000;0.1473;0.4221;
-146.7000;0.1433;0.4101;
-146.4000;0.1473;0.4221;
-146.1000;0.1433;0.4078;
-145.8000;0.1490;0.4197;
-145.5000;0.1473;0.4221;
-145.2000;0.1555;0.4364;
-144.9000;0.1481;0.4292;
-144.6000;0.1498;0.4340;
-144.3000;0.1498;0.4268;
-144.0000;0.1587;0.4459;
-143.7000;0.1628;0.4578;
-143.4000;0.1498;0.4221;
-143.1000;0.1481;0.4221;
-142.8000;0.1498;0.4244;
-142.5000;0.1538;0.4316;
-142.2000;0.1490;0.4244;
-141.9000;0.1473;0.4244;
-141.6000;0.1498;0.4340;
-141.3000;0.1481;0.4244;
-141.0000;0.1481;0.4292;
-140.7000;0.1481;0.4292;
-140.4000;0.1457;0.4173;
-140.1000;0.1628;0.4626;
-139.8000;0.1530;0.4340;
-139.5000;0.1473;0.4221;
-139.2000;0.1498;0.4244;
-138.9000;0.1490;0.4244;
-138.6000;0.1538;0.4292;
-138.3000;0.1473;0.4197;
-138.0000;0.1433;0.4149;
-137.7000;0.1392;0.4125;
-137.4000;0.1498;0.4364;
-137.1000;0.1481;0.4292;
-136.8000;0.1490;0.4364;
-136.5000;0.1481;0.4197;
-136.2000;0.1465;0.4101;
-135.9000;0.1530;0.4364;
-135.6000;0.1498;0.4316;
-135.3000;0.1441;0.4149;
-135.0000;0.1441;0.4173;
-134.7000;0.1514;0.4340;
-134.4000;0.1514;0.4316;
-134.1000;0.1465;0.4244;
-133.8000;0.1481;0.4364;
-133.5000;0.1473;0.4364;
-133.2000;0.1498;0.4340;
-132.9000;0.1538;0.4364;
-132.6000;0.1473;0.4221;
-132.3000;0.1490;0.4316;
-132.0000;0.1490;0.4316;
-131.7000;0.1490;0.4340;
-131.4000;0.1473;0.4316;
-131.1000;0.1465;0.4340;
-130.8000;0.1514;0.4435;
-130.5000;0.1481;0.4411;
-130.2000;0.1473;0.4292;
-129.9000;0.1465;0.4268;
-129.6000;0.1465;0.4173;
-129.3000;0.1465;0.4125;
-129.0000;0.1441;0.4030;
-128.7000;0.1514;0.4244;
-128.4000;0.1506;0.4197;
-128.1000;0.1506;0.4101;
-127.8000;0.1498;0.4054;
-127.5000;0.1490;0.4006;
-127.2000;0.1522;0.4078;
-126.9000;0.1490;0.4054;
-126.6000;0.1506;0.4078;
-126.3000;0.1473;0.3958;
-126.0000;0.1498;0.4078;
-125.7000;0.1498;0.4078;
-125.4000;0.1498;0.4078;
-125.1000;0.1490;0.4006;
-124.8000;0.1506;0.3934;
-124.5000;0.1498;0.3982;
-124.2000;0.1498;0.3982;
-123.9000;0.1473;0.4006;
-123.6000;0.1465;0.3958;
-123.3000;0.1490;0.3863;
-123.0000;0.1490;0.3863;
-122.7000;0.1490;0.3887;
-122.4000;0.1490;0.3934;
-122.1000;0.1506;0.4078;
-121.8000;0.1490;0.4078;
-121.5000;0.1506;0.4078;
-121.2000;0.1498;0.4101;
-120.9000;0.1473;0.4006;
-120.6000;0.1490;0.4006;
-120.3000;0.1457;0.3911;
-120.0000;0.1465;0.3863;
-119.7000;0.1498;0.3887;
-119.4000;0.1490;0.3934;
-119.1000;0.1522;0.3982;
-118.8000;0.1490;0.3982;
-118.5000;0.1490;0.4030;
-118.2000;0.1514;0.4101;
-117.9000;0.1514;0.4078;
-117.6000;0.1506;0.4149;
-117.3000;0.1498;0.4173;
-117.0000;0.1490;0.4125;
-116.7000;0.1473;0.4078;
-116.4000;0.1498;0.4125;
-116.1000;0.1465;0.4030;
-115.8000;0.1400;0.3815;
-115.5000;0.1506;0.4101;
-115.2000;0.1473;0.4078;
-114.9000;0.1498;0.4101;
-114.6000;0.1530;0.4221;
-114.3000;0.1490;0.4030;
-114.0000;0.1473;0.3911;
-113.7000;0.1514;0.4030;
-113.4000;0.1490;0.4078;
-113.1000;0.1490;0.4125;
-112.8000;0.1490;0.4221;
-112.5000;0.1490;0.4197;
-112.2000;0.1506;0.4197;
-111.9000;0.1514;0.4197;
-111.6000;0.1490;0.4125;
-111.3000;0.1498;0.4078;
-111.0000;0.1514;0.4125;
-110.7000;0.1481;0.4054;
-110.4000;0.1490;0.4054;
-110.1000;0.1506;0.4078;
-109.8000;0.1522;0.4197;
-109.5000;0.1449;0.4125;
-109.2000;0.1490;0.4125;
-108.9000;0.1490;0.4197;
-108.6000;0.1457;0.4101;
-108.3000;0.1481;0.4173;
-108.0000;0.1579;0.4411;
-107.7000;0.1522;0.4221;
-107.4000;0.1490;0.4125;
-107.1000;0.1498;0.4197;
-106.8000;0.1465;0.4101;
-106.5000;0.1473;0.4006;
-106.2000;0.1514;0.4197;
-105.9000;0.1506;0.4197;
-105.6000;0.1514;0.4221;
-105.3000;0.1498;0.4125;
-105.0000;0.1506;0.4149;
-104.7000;0.1473;0.4030;
-104.4000;0.1490;0.4054;
-104.1000;0.1481;0.4006;
-103.8000;0.1498;0.4125;
-103.5000;0.1498;0.4078;
-103.2000;0.1490;0.4030;
-102.9000;0.1490;0.4101;
-102.6000;0.1498;0.4149;
-102.3000;0.1490;0.4173;
-102.0000;0.1506;0.4197;
-101.7000;0.1490;0.4149;
-101.4000;0.1498;0.4149;
-101.1000;0.1514;0.4197;
-100.8000;0.1498;0.4078;
-100.5000;0.1498;0.4054;
-100.2000;0.1490;0.4078;
-99.9000;0.1506;0.4244;
-99.6000;0.1490;0.4268;
-99.3000;0.1498;0.4316;
-99.0000;0.1498;0.4268;
-98.7000;0.1481;0.4268;
-98.4000;0.1490;0.4316;
-98.1000;0.1481;0.4221;
-97.8000;0.1481;0.4244;
-97.5000;0.1506;0.4244;
-97.2000;0.1490;0.4149;
-96.9000;0.1481;0.4173;
-96.6000;0.1490;0.4221;
-96.3000;0.1490;0.4244;
-96.0000;0.1473;0.4173;
-95.7000;0.1498;0.4292;
-95.4000;0.1498;0.4292;
-95.1000;0.1498;0.4268;
-94.8000;0.1514;0.4268;
-94.5000;0.1522;0.4268;
-94.2000;0.1490;0.4268;
-93.9000;0.1506;0.4316;
-93.6000;0.1498;0.4364;
-93.3000;0.1490;0.4340;
-93.0000;0.1506;0.4388;
-92.7000;0.1498;0.4364;
-92.4000;0.1506;0.4316;
-92.1000;0.1506;0.4268;
-91.8000;0.1481;0.4125;
-91.5000;0.1490;0.4244;
-91.2000;0.1433;0.4149;
-90.9000;0.1449;0.4173;
-90.6000;0.1498;0.4268;
-90.3000;0.1498;0.4268;
-90.0000;0.1490;0.4316;
-89.7000;0.1498;0.4292;
-89.4000;0.1498;0.4268;
-89.1000;0.1498;0.4125;
-88.8000;0.1392;0.3839;
-88.5000;0.1498;0.4078;
-88.2000;0.1506;0.4125;
-87.9000;0.1506;0.4149;
-87.6000;0.1481;0.4173;
-87.3000;0.1498;0.4197;
-87.0000;0.1481;0.4078;
-86.7000;0.1490;0.4173;
-86.4000;0.1555;0.4316;
-86.1000;0.1498;0.4078;
-85.8000;0.1490;0.4125;
-85.5000;0.1522;0.4268;
-85.2000;0.1490;0.4221;
-84.9000;0.1498;0.4268;
-84.6000;0.1514;0.4244;
-84.3000;0.1490;0.4221;
-84.0000;0.1481;0.4125;
-83.7000;0.1514;0.4078;
-83.4000;0.1506;0.4054;
-83.1000;0.1498;0.4078;
-82.8000;0.1433;0.3911;
-82.5000;0.1498;0.4030;
-82.2000;0.1441;0.3958;
-81.9000;0.1490;0.4101;
-81.6000;0.1490;0.4197;
-81.3000;0.1481;0.4268;
-81.0000;0.1506;0.4292;
-80.7000;0.1571;0.4364;
-80.4000;0.1481;0.4221;
-80.1000;0.1498;0.4221;
-79.8000;0.1514;0.4244;
-79.5000;0.1506;0.4197;
-79.2000;0.1514;0.4101;
-78.9000;0.1416;0.3887;
-78.6000;0.1425;0.3934;
-78.3000;0.1490;0.4197;
-78.0000;0.1506;0.4268;
-77.7000;0.1481;0.4173;
-77.4000;0.1514;0.4268;
-77.1000;0.1506;0.4316;
-76.8000;0.1392;0.4101;
-76.5000;0.1506;0.4364;
-76.2000;0.1490;0.4292;
-75.9000;0.1465;0.4173;
-75.6000;0.1490;0.4197;
-75.3000;0.1506;0.4268;
-75.0000;0.1498;0.4292;
-74.7000;0.1481;0.4268;
-74.4000;0.1481;0.4197;
-74.1000;0.1481;0.4173;
-73.8000;0.1506;0.4221;
-73.5000;0.1490;0.4125;
-73.2000;0.1490;0.4125;
-72.9000;0.1490;0.4149;
-72.6000;0.1506;0.4244;
-72.3000;0.1498;0.4244;
-72.0000;0.1498;0.4316;
-71.7000;0.1506;0.4364;
-71.4000;0.1498;0.4388;
-71.1000;0.1498;0.4340;
-70.8000;0.1506;0.4340;
-70.5000;0.1498;0.4316;
-70.2000;0.1506;0.4364;
-69.9000;0.1498;0.4292;
-69.6000;0.1481;0.4197;
-69.3000;0.1481;0.4173;
-69.0000;0.1400;0.4054;
-68.7000;0.1490;0.4244;
-68.4000;0.1530;0.4388;
-68.1000;0.1498;0.4173;
-67.8000;0.1384;0.3791;
-67.5000;0.1498;0.4101;
-67.2000;0.1433;0.3887;
-66.9000;0.1555;0.4268;
-66.6000;0.1522;0.4173;
-66.3000;0.1506;0.4101;
-66.0000;0.1481;0.3982;
-65.7000;0.1490;0.4030;
-65.4000;0.1498;0.4125;
-65.1000;0.1490;0.4101;
-64.8000;0.1530;0.4125;
-64.5000;0.1490;0.4078;
-64.2000;0.1490;0.4054;
-63.9000;0.1498;0.4125;
-63.6000;0.1490;0.4149;
-63.3000;0.1498;0.4197;
-63.0000;0.1498;0.4221;
-62.7000;0.1506;0.4292;
-62.4000;0.1604;0.4578;
-62.1000;0.1441;0.4149;
-61.8000;0.1538;0.4388;
-61.5000;0.1481;0.4340;
-61.2000;0.1628;0.4650;
-60.9000;0.1498;0.4292;
-60.6000;0.1498;0.4197;
-60.3000;0.1522;0.4292;
-60.0000;0.1490;0.4244;
-59.7000;0.1514;0.4221;
-59.4000;0.1490;0.4244;
-59.1000;0.1473;0.4268;
-58.8000;0.1441;0.4101;
-58.5000;0.1498;0.4268;
-58.2000;0.1530;0.4364;
-57.9000;0.1522;0.4292;
-57.6000;0.1498;0.4316;
-57.3000;0.1490;0.4244;
-57.0000;0.1481;0.4078;
-56.7000;0.1473;0.4173;
-56.4000;0.1538;0.4316;
-56.1000;0.1555;0.4459;
-55.8000;0.1506;0.4292;
-55.5000;0.1490;0.4268;
-55.2000;0.1433;0.4149;
-54.9000;0.1538;0.4340;
-54.6000;0.1506;0.4268;
-54.3000;0.1563;0.4364;
-54.0000;0.1514;0.4221;
-53.7000;0.1490;0.4173;
-53.4000;0.1481;0.4125;
-53.1000;0.1457;0.4101;
-52.8000;0.1441;0.3982;
-52.5000;0.1490;0.4101;
-52.2000;0.1506;0.4101;
-51.9000;0.1506;0.4125;
-51.6000;0.1571;0.4292;
-51.3000;0.1490;0.4125;
-51.0000;0.1490;0.4078;
-50.7000;0.1498;0.4125;
-50.4000;0.1400;0.3863;
-50.1000;0.1449;0.4006;
-49.8000;0.1490;0.4125;
-49.5000;0.1433;0.3958;
-49.2000;0.1473;0.4101;
-48.9000;0.1481;0.4125;
-48.6000;0.1449;0.4030;
-48.3000;0.1522;0.4244;
-48.0000;0.1530;0.4221;
-47.7000;0.1506;0.4125;
-47.4000;0.1563;0.4221;
-47.1000;0.1433;0.3934;
-46.8000;0.1506;0.4149;
-46.5000;0.1473;0.3982;
-46.2000;0.1473;0.4078;
-45.9000;0.1465;0.4101;
-45.6000;0.1514;0.4173;
-45.3000;0.1538;0.4197;
-45.0000;0.1490;0.4054;
-44.7000;0.1506;0.4125;
-44.4000;0.1514;0.4244;
-44.1000;0.1506;0.4221;
-43.8000;0.1457;0.4078;
-43.5000;0.1498;0.4173;
-43.2000;0.1490;0.4197;
-42.9000;0.1481;0.4221;
-42.6000;0.1490;0.4149;
-42.3000;0.1498;0.4125;
-42.0000;0.1514;0.4197;
-41.7000;0.1506;0.4078;
-41.4000;0.1498;0.4030;
-41.1000;0.1498;0.4078;
-40.8000;0.1473;0.4006;
-40.5000;0.1522;0.4173;
-40.2000;0.1425;0.4006;
-39.9000;0.1490;0.4149;
-39.6000;0.1522;0.4221;
-39.3000;0.1473;0.4078;
-39.0000;0.1506;0.4101;
-38.7000;0.1498;0.4054;
-38.4000;0.1473;0.4054;
-38.1000;0.1473;0.3982;
-37.8000;0.1506;0.4125;
-37.5000;0.1498;0.4054;
-37.2000;0.1498;0.4101;
-36.9000;0.1490;0.4030;
-36.6000;0.1465;0.4030;
-36.3000;0.1490;0.4078;
-36.0000;0.1481;0.4054;
-35.7000;0.1522;0.4149;
-35.4000;0.1490;0.4149;
-35.1000;0.1514;0.4149;
-34.8000;0.1498;0.4054;
-34.5000;0.1498;0.4054;
-34.2000;0.1490;0.4030;
-33.9000;0.1522;0.4221;
-33.6000;0.1514;0.4292;
-33.3000;0.1506;0.4268;
-33.0000;0.1498;0.4268;
-32.7000;0.1498;0.4221;
-32.4000;0.1473;0.4221;
-32.1000;0.1490;0.4221;
-31.8000;0.1514;0.4316;
-31.5000;0.1563;0.4364;
-31.2000;0.1441;0.4101;
-30.9000;0.1498;0.4268;
-30.6000;0.1473;0.4197;
-30.3000;0.1481;0.4149;
-30.0000;0.1522;0.4244;
-29.7000;0.1506;0.4340;
-29.4000;0.1481;0.4244;
-29.1000;0.1490;0.4316;
-28.8000;0.1473;0.4292;
-28.5000;0.1530;0.4435;
-28.2000;0.1473;0.4411;
-27.9000;0.1490;0.4316;
-27.6000;0.1449;0.4221;
-27.3000;0.1473;0.4268;
-27.0000;0.1481;0.4292;
-26.7000;0.1481;0.4340;
-26.4000;0.1433;0.4101;
-26.1000;0.1506;0.4197;
-25.8000;0.1506;0.4173;
-25.5000;0.1473;0.4006;
-25.2000;0.1490;0.4030;
-24.9000;0.1481;0.3839;
-24.6000;0.1514;0.3911;
-24.3000;0.1498;0.3863;
-24.0000;0.1498;0.3863;
-23.7000;0.1490;0.3887;
-23.4000;0.1490;0.3863;
-23.1000;0.1498;0.3863;
-22.8000;0.1481;0.3863;
-22.5000;0.1522;0.3982;
-22.2000;0.1514;0.3982;
-21.9000;0.1473;0.3887;
-21.6000;0.1465;0.3887;
-21.3000;0.1457;0.3911;
-21.0000;0.1506;0.4054;
-20.7000;0.1538;0.4173;
-20.4000;0.1457;0.3911;
-20.1000;0.1465;0.3887;
-19.8000;0.1498;0.3934;
-19.5000;0.1490;0.3911;
-19.2000;0.1514;0.3911;
-18.9000;0.1514;0.4030;
-18.6000;0.1547;0.4078;
-18.3000;0.1490;0.3934;
-18.0000;0.1490;0.3958;
-17.7000;0.1457;0.3815;
-17.4000;0.1522;0.3911;
-17.1000;0.1514;0.3958;
-16.8000;0.1506;0.3911;
-16.5000;0.1465;0.3839;
-16.2000;0.1490;0.3911;
-15.9000;0.1490;0.3958;
-15.6000;0.1506;0.3958;
-15.3000;0.1506;0.3863;
-15.0000;0.1490;0.3815;
-14.7000;0.1506;0.3934;
-14.4000;0.1498;0.3958;
-14.1000;0.1506;0.4101;
-13.8000;0.1514;0.4125;
-13.5000;0.1538;0.4149;
-13.2000;0.1514;0.4030;
-12.9000;0.1506;0.4006;
-12.6000;0.1481;0.3982;
-12.3000;0.1538;0.4054;
-12.0000;0.1506;0.3982;
-11.7000;0.1490;0.4030;
-11.4000;0.1498;0.4125;
-11.1000;0.1522;0.4149;
-10.8000;0.1498;0.4054;
-10.5000;0.1514;0.4030;
-10.2000;0.1490;0.3982;
-9.9000;0.1481;0.3982;
-9.6000;0.1457;0.3958;
-9.3000;0.1490;0.4054;
-9.0000;0.1481;0.4078;
-8.7000;0.1506;0.4125;
-8.4000;0.1481;0.4054;
-8.1000;0.1498;0.4078;
-7.8000;0.1522;0.4078;
-7.5000;0.1506;0.4006;
-7.2000;0.1506;0.3934;
-6.9000;0.1506;0.4030;
-6.6000;0.1498;0.4006;
-6.3000;0.1514;0.4030;
-6.0000;0.1498;0.4030;
-5.7000;0.1490;0.4101;
-5.4000;0.1498;0.4149;
-5.1000;0.1416;0.4030;
-4.8000;0.1498;0.4340;
-4.5000;0.1490;0.4364;
-4.2000;0.1506;0.4292;
-3.9000;0.1506;0.4292;
-3.6000;0.1490;0.4316;
-3.3000;0.1506;0.4316;
-3.0000;0.1498;0.4340;
-2.7000;0.1498;0.4316;
-2.4000;0.1514;0.4292;
-2.1000;0.1498;0.4244;
-1.8000;0.1522;0.4268;
-1.5000;0.1506;0.4125;
-1.2000;0.1506;0.4244;
-0.9000;0.1490;0.4173;
-0.6000;0.1522;0.4173;
-0.3000;0.1514;0.4149;
0.0000;0.1514;0.4149;
0.3000;0.1506;0.3911;
0.6000;0.1514;0.4149;
0.9000;0.1514;0.4292;
1.2000;0.1538;0.4531;
1.5000;0.1530;0.4650;
1.8000;0.1579;0.4841;
2.1000;0.1571;0.4960;
2.4000;0.1571;0.5103;
2.7000;0.1563;0.5151;
3.0000;0.1604;0.5294;
3.3000;0.1587;0.5222;
3.6000;0.1595;0.5270;
3.9000;0.1669;0.5508;
4.2000;0.1587;0.5413;
4.5000;0.1612;0.5484;
4.8000;0.1628;0.5556;
5.1000;0.1620;0.5508;
5.4000;0.1587;0.5484;
5.7000;0.1587;0.5532;
6.0000;0.1612;0.5484;
6.3000;0.1571;0.5341;
6.6000;0.1604;0.5604;
6.9000;0.1612;0.5651;
7.2000;0.1620;0.5675;
7.5000;0.1612;0.5556;
7.8000;0.1628;0.5580;
8.1000;0.1604;0.5532;
8.4000;0.1636;0.5604;
8.7000;0.1636;0.5604;
9.0000;0.1628;0.5627;
9.3000;0.1620;0.5675;
9.6000;0.1620;0.5675;
9.9000;0.1595;0.5604;
10.2000;0.1636;0.5723;
10.5000;0.1604;0.5651;
10.8000;0.1620;0.5771;
11.1000;0.1628;0.5937;
11.4000;0.1612;0.5866;
11.7000;0.1628;0.5818;
12.0000;0.1604;0.5747;
12.3000;0.1612;0.5699;
12.6000;0.1628;0.5747;
12.9000;0.1620;0.5747;
13.2000;0.1612;0.5818;
13.5000;0.1628;0.5818;
13.8000;0.1628;0.5747;
14.1000;0.1636;0.5747;
14.4000;0.1612;0.5604;
14.7000;0.1636;0.5580;
15.0000;0.1636;0.5604;
15.3000;0.1628;0.5604;
15.6000;0.1612;0.5580;
15.9000;0.1612;0.5580;
16.2000;0.1628;0.5627;
16.5000;0.1628;0.5675;
16.8000;0.1628;0.5699;
17.1000;0.1620;0.5747;
17.4000;0.1620;0.5699;
17.7000;0.1636;0.5627;
18.0000;0.1636;0.5675;
18.3000;0.1612;0.5651;
18.6000;0.1628;0.5747;
18.9000;0.1636;0.5747;
19.2000;0.1644;0.5747;
19.5000;0.1620;0.5723;
19.8000;0.1620;0.5699;
20.1000;0.1652;0.5723;
20.4000;0.1636;0.5771;
20.7000;0.1636;0.5675;
21.0000;0.1620;0.5604;
21.3000;0.1636;0.5580;
21.6000;0.1636;0.5437;
21.9000;0.1628;0.5389;
22.2000;0.1620;0.5413;
22.5000;0.1620;0.5437;
22.8000;0.1636;0.5437;
23.1000;0.1628;0.5437;
23.4000;0.1628;0.5413;
23.7000;0.1628;0.5365;
24.0000;0.1522;0.5151;
24.3000;0.1628;0.5365;
24.6000;0.1636;0.5389;
24.9000;0.1628;0.5389;
25.2000;0.1628;0.5461;
25.5000;0.1644;0.5556;
25.8000;0.1628;0.5580;
26.1000;0.1612;0.5508;
26.4000;0.1628;0.5484;
26.7000;0.1628;0.5484;
27.0000;0.1628;0.5508;
27.3000;0.1636;0.5532;
27.6000;0.1620;0.5580;
27.9000;0.1612;0.5532;
28.2000;0.1636;0.5604;
28.5000;0.1742;0.5890;
28.8000;0.1620;0.5532;
29.1000;0.1636;0.5580;
29.4000;0.1628;0.5580;
29.7000;0.1620;0.5580;
30.0000;0.1620;0.5627;
30.3000;0.1620;0.5627;
30.6000;0.1636;0.5723;
30.9000;0.1636;0.5651;
31.2000;0.1514;0.5341;
31.5000;0.1628;0.5651;
31.8000;0.1636;0.5651;
32.1000;0.1644;0.5747;
32.4000;0.1628;0.5699;
32.7000;0.1620;0.5627;
33.0000;0.1620;0.5651;
33.3000;0.1620;0.5699;
33.6000;0.1563;0.5556;
33.9000;0.1620;0.5580;
34.2000;0.1547;0.5365;
34.5000;0.1612;0.5532;
34.8000;0.1636;0.5604;
35.1000;0.1669;0.5747;
35.4000;0.1628;0.5723;
35.7000;0.1620;0.5675;
36.0000;0.1628;0.5747;
36.3000;0.1612;0.5771;
36.6000;0.1449;0.5222;
36.9000;0.1644;0.5794;
37.2000;0.1693;0.5961;
37.5000;0.1620;0.5794;
37.8000;0.1620;0.5794;
38.1000;0.1628;0.5818;
38.4000;0.1677;0.5961;
38.7000;0.1620;0.5794;
39.0000;0.1620;0.5771;
39.3000;0.1604;0.5675;
39.6000;0.1612;0.5723;
39.9000;0.1620;0.5699;
40.2000;0.1636;0.5723;
40.5000;0.1636;0.5723;
40.8000;0.1644;0.5675;
41.1000;0.1685;0.5699;
41.4000;0.1644;0.5699;
41.7000;0.1620;0.5580;
42.0000;0.1644;0.5723;
42.3000;0.1644;0.5794;
42.6000;0.1579;0.5651;
42.9000;0.1644;0.5747;
43.2000;0.1644;0.5699;
43.5000;0.1693;0.5866;
43.8000;0.1701;0.5890;
44.1000;0.1636;0.5747;
44.4000;0.1628;0.5675;
44.7000;0.1628;0.5604;
45.0000;0.1636;0.5627;
45.3000;0.1636;0.5627;
45.6000;0.1636;0.5651;
45.9000;0.1644;0.5627;
46.2000;0.1652;0.5604;
46.5000;0.1661;0.5627;
46.8000;0.1628;0.5532;
47.1000;0.1620;0.5484;
47.4000;0.1661;0.5580;
47.7000;0.1652;0.5508;
48.0000;0.1620;0.5580;
48.3000;0.1620;0.5627;
48.6000;0.1628;0.5699;
48.9000;0.1636;0.5675;
49.2000;0.1628;0.5747;
49.5000;0.1563;0.5651;
49.8000;0.1579;0.5675;
50.1000;0.1652;0.5842;
50.4000;0.1628;0.5747;
50.7000;0.1636;0.5771;
51.0000;0.1620;0.5723;
51.3000;0.1636;0.5675;
51.6000;0.1628;0.5580;
51.9000;0.1628;0.5580;
52.2000;0.1636;0.5627;
52.5000;0.1628;0.5699;
52.8000;0.1612;0.5699;
53.1000;0.1661;0.5866;
53.4000;0.1628;0.5842;
53.7000;0.1628;0.5771;
54.0000;0.1628;0.5771;
54.3000;0.1628;0.5771;
54.6000;0.1563;0.5508;
54.9000;0.1644;0.5818;
55.2000;0.1612;0.5842;
55.5000;0.1620;0.5914;
55.8000;0.1612;0.5842;
56.1000;0.1587;0.5747;
56.4000;0.1563;0.5699;
56.7000;0.1636;0.5937;
57.0000;0.1636;0.5914;
57.3000;0.1652;0.5866;
57.6000;0.1718;0.6081;
57.9000;0.1595;0.5771;
58.2000;0.1669;0.6009;
58.5000;0.1612;0.5818;
58.8000;0.1628;0.5842;
59.1000;0.1669;0.5985;
59.4000;0.1636;0.5937;
59.7000;0.1579;0.5842;
60.0000;0.1628;0.5866;
60.3000;0.1628;0.5794;
60.6000;0.1628;0.5794;
60.9000;0.1595;0.5699;
61.2000;0.1587;0.5747;
61.5000;0.1604;0.5794;
61.8000;0.1636;0.5866;
62.1000;0.1620;0.5818;
62.4000;0.1620;0.5866;
62.7000;0.1636;0.5985;
63.0000;0.1750;0.6391;
63.3000;0.1742;0.6367;
63.6000;0.1669;0.6176;
63.9000;0.1742;0.6343;
64.2000;0.1628;0.5937;
64.5000;0.1783;0.6438;
64.8000;0.1628;0.5890;
65.1000;0.1636;0.5961;
65.4000;0.1644;0.6009;
65.7000;0.1652;0.6033;
66.0000;0.1620;0.5890;
66.3000;0.1636;0.5842;
66.6000;0.1685;0.5961;
66.9000;0.1693;0.5961;
67.2000;0.1644;0.5914;
67.5000;0.1612;0.5842;
67.8000;0.1628;0.5771;
68.1000;0.1628;0.5914;
68.4000;0.1644;0.5961;
68.7000;0.1620;0.5890;
69.0000;0.1669;0.6009;
69.3000;0.1628;0.6009;
69.6000;0.1652;0.6033;
69.9000;0.1628;0.5914;
70.2000;0.1644;0.5937;
70.5000;0.1628;0.5914;
70.8000;0.1636;0.6057;
71.1000;0.1628;0.6081;
71.4000;0.1612;0.6081;
71.7000;0.1636;0.6081;
72.0000;0.1677;0.6128;
72.3000;0.1628;0.5914;
72.6000;0.1612;0.5866;
72.9000;0.1628;0.6009;
73.2000;0.1636;0.6033;
73.5000;0.1612;0.5866;
73.8000;0.1661;0.5961;
74.1000;0.1620;0.5890;
74.4000;0.1604;0.5794;
74.7000;0.1644;0.5890;
75.0000;0.1620;0.5842;
75.3000;0.1742;0.6200;
75.6000;0.1644;0.5937;
75.9000;0.1644;0.5890;
76.2000;0.1628;0.5961;
76.5000;0.1620;0.5866;
76.8000;0.1628;0.5842;
77.1000;0.1620;0.5794;
77.4000;0.1628;0.5890;
77.7000;0.1620;0.5818;
78.0000;0.1636;0.5794;
78.3000;0.1628;0.5771;
78.6000;0.1636;0.5890;
78.9000;0.1636;0.5842;
79.2000;0.1644;0.5866;
79.5000;0.1628;0.5842;
79.8000;0.1709;0.6081;
80.1000;0.1644;0.5914;
80.4000;0.1661;0.5914;
80.7000;0.1669;0.6009;
81.0000;0.1636;0.5842;
81.3000;0.1644;0.5771;
81.6000;0.1579;0.5532;
81.9000;0.1652;0.5675;
82.2000;0.1677;0.5771;
82.5000;0.1661;0.5747;
82.8000;0.1693;0.5842;
83.1000;0.1620;0.5651;
83.4000;0.1604;0.5604;
83.7000;0.1644;0.5723;
84.0000;0.1644;0.5699;
84.3000;0.1742;0.5914;
84.6000;0.1652;0.5794;
84.9000;0.1644;0.5818;
85.2000;0.1636;0.5818;
85.5000;0.1620;0.5723;
85.8000;0.1677;0.5818;
86.1000;0.1661;0.5771;
86.4000;0.1644;0.5723;
86.7000;0.1490;0.5222;
87.0000;0.1538;0.5317;
87.3000;0.1604;0.5437;
87.6000;0.1612;0.5389;
87.9000;0.1571;0.5270;
88.2000;0.1636;0.5437;
88.5000;0.1669;0.5627;
88.8000;0.1628;0.5580;
89.1000;0.1636;0.5508;
89.4000;0.1612;0.5508;
89.7000;0.1571;0.5437;
90.0000;0.1604;0.5484;
90.3000;0.1636;0.5532;
90.6000;0.1628;0.5556;
90.9000;0.1661;0.5747;
91.2000;0.1644;0.5699;
91.5000;0.1644;0.5723;
91.8000;0.1718;0.5890;
92.1000;0.1644;0.5723;
92.4000;0.1628;0.5723;
92.7000;0.1669;0.5747;
93.0000;0.1628;0.5604;
93.3000;0.1628;0.5580;
93.6000;0.1636;0.5508;
93.9000;0.1644;0.5556;
94.2000;0.1628;0.5484;
94.5000;0.1628;0.5508;
94.8000;0.1628;0.5461;
95.1000;0.1636;0.5556;
95.4000;0.1669;0.5604;
95.7000;0.1620;0.5461;
96.0000;0.1612;0.5484;
96.3000;0.1628;0.5556;
96.6000;0.1628;0.5556;
96.9000;0.1620;0.5580;
97.2000;0.1644;0.5675;
97.5000;0.1595;0.5556;
97.8000;0.1636;0.5699;
98.1000;0.1644;0.5699;
98.4000;0.1644;0.5699;
98.7000;0.1652;0.5604;
99.0000;0.1636;0.5580;
99.3000;0.1620;0.5556;
99.6000;0.1628;0.5604;
99.9000;0.1628;0.5723;
100.2000;0.1612;0.5771;
100.5000;0.1636;0.5771;
100.8000;0.1628;0.5771;
101.1000;0.1620;0.5866;
101.4000;0.1628;0.5866;
101.7000;0.1669;0.5961;
102.0000;0.1644;0.5890;
102.3000;0.1620;0.5842;
102.6000;0.1661;0.5985;
102.9000;0.1612;0.5818;
103.2000;0.1628;0.5866;
103.5000;0.1636;0.5937;
103.8000;0.1628;0.5866;
104.1000;0.1620;0.5842;
104.4000;0.1652;0.5890;
104.7000;0.1636;0.5866;
105.0000;0.1636;0.5866;
105.3000;0.1644;0.5937;
105.6000;0.1636;0.5937;
105.9000;0.1612;0.5794;
106.2000;0.1652;0.5866;
106.5000;0.1685;0.5890;
106.8000;0.1644;0.5842;
107.1000;0.1636;0.5818;
107.4000;0.1644;0.5794;
107.7000;0.1644;0.5794;
108.0000;0.1620;0.5723;
108.3000;0.1612;0.5723;
108.6000;0.1628;0.5747;
108.9000;0.1628;0.5818;
109.2000;0.1636;0.5794;
109.5000;0.1644;0.5818;
109.8000;0.1587;0.5651;
110.1000;0.1620;0.5794;
110.4000;0.1620;0.5794;
110.7000;0.1644;0.5771;
111.0000;0.1620;0.5747;
111.3000;0.1604;0.5699;
111.6000;0.1652;0.5890;
111.9000;0.1628;0.5794;
112.2000;0.1652;0.5961;
112.5000;0.1652;0.5866;
112.8000;0.1628;0.5771;
113.1000;0.1636;0.5723;
113.4000;0.1669;0.5794;
113.7000;0.1652;0.5699;
114.0000;0.1685;0.5818;
114.3000;0.1612;0.5699;
114.6000;0.1587;0.5651;
114.9000;0.1604;0.5675;
115.2000;0.1628;0.5675;
115.5000;0.1620;0.5556;
115.8000;0.1628;0.5556;
116.1000;0.1628;0.5556;
116.4000;0.1612;0.5508;
116.7000;0.1620;0.5580;
117.0000;0.1636;0.5651;
117.3000;0.1604;0.5484;
117.6000;0.1644;0.5556;
117.9000;0.1644;0.5604;
118.2000;0.1644;0.5627;
118.5000;0.1652;0.5651;
118.8000;0.1571;0.5461;
119.1000;0.1620;0.5604;
119.4000;0.1595;0.5651;
119.7000;0.1652;0.5771;
120.0000;0.1620;0.5771;
120.3000;0.1628;0.5818;
120.6000;0.1620;0.5794;
120.9000;0.1636;0.5818;
121.2000;0.1644;0.5794;
121.5000;0.1620;0.5723;
121.8000;0.1620;0.5747;
122.1000;0.1628;0.5866;
122.4000;0.1661;0.5937;
122.7000;0.1612;0.5794;
123.0000;0.1661;0.5914;
123.3000;0.1620;0.5937;
123.6000;0.1628;0.6009;
123.9000;0.1620;0.5961;
124.2000;0.1620;0.5866;
124.5000;0.1636;0.5914;
124.8000;0.1636;0.5818;
125.1000;0.1636;0.5818;
125.4000;0.1612;0.5723;
125.7000;0.1604;0.5723;
126.0000;0.1636;0.5675;
126.3000;0.1636;0.5627;
126.6000;0.1620;0.5580;
126.9000;0.1620;0.5580;
127.2000;0.1595;0.5580;
127.5000;0.1636;0.5651;
127.8000;0.1636;0.5532;
128.1000;0.1628;0.5723;
128.4000;0.1644;0.5699;
128.7000;0.1652;0.5699;
129.0000;0.1644;0.5747;
129.3000;0.1644;0.5771;
129.6000;0.1620;0.5771;
129.9000;0.1620;0.5747;
130.2000;0.1620;0.5651;
130.5000;0.1612;0.5651;
130.8000;0.1636;0.5675;
131.1000;0.1620;0.5580;
131.4000;0.1612;0.5580;
131.7000;0.1628;0.5651;
132.0000;0.1547;0.5508;
132.3000;0.1563;0.5675;
132.6000;0.1636;0.5818;
132.9000;0.1620;0.5771;
133.2000;0.1636;0.5771;
133.5000;0.1620;0.5723;
133.8000;0.1620;0.5723;
134.1000;0.1628;0.5723;
134.4000;0.1620;0.5651;
134.7000;0.1628;0.5723;
135.0000;0.1628;0.5723;
135.3000;0.1620;0.5747;
135.6000;0.1620;0.5866;
135.9000;0.1620;0.5890;
136.2000;0.1718;0.6128;
136.5000;0.1644;0.5914;
136.8000;0.1628;0.5842;
137.1000;0.1604;0.5747;
137.4000;0.1620;0.5818;
137.7000;0.1636;0.5747;
138.0000;0.1636;0.5747;
138.3000;0.1628;0.5747;
138.6000;0.1628;0.5723;
138.9000;0.1644;0.5723;
139.2000;0.1620;0.5747;
139.5000;0.1636;0.5842;
139.8000;0.1644;0.5842;
140.1000;0.1620;0.5818;
140.4000;0.1652;0.5842;
140.7000;0.1644;0.5818;
141.0000;0.1628;0.5747;
141.3000;0.1628;0.5699;
141.6000;0.1636;0.5723;
141.9000;0.1628;0.5675;
142.2000;0.1628;0.5699;
142.5000;0.1612;0.5699;
142.8000;0.1620;0.5651;
143.1000;0.1636;0.5580;
143.4000;0.1636;0.5604;
143.7000;0.1620;0.5556;
144.0000;0.1620;0.5556;
144.3000;0.1644;0.5556;
144.6000;0.1644;0.5627;
144.9000;0.1628;0.5699;
145.2000;0.1628;0.5723;
145.5000;0.1628;0.5747;
145.8000;0.1628;0.5794;
146.1000;0.1530;0.5604;
146.4000;0.1636;0.5818;
146.7000;0.1636;0.5818;
147.0000;0.1636;0.5794;
147.3000;0.1612;0.5818;
147.6000;0.1620;0.5914;
147.9000;0.1620;0.5937;
148.2000;0.1644;0.5961;
148.5000;0.1579;0.5794;
148.8000;0.1620;0.5890;
149.1000;0.1636;0.5985;
149.4000;0.1587;0.5890;
149.7000;0.1628;0.5914;
150.0000;0.1628;0.5914;
150.3000;0.1636;0.5937;
150.6000;0.1652;0.5961;
150.9000;0.1628;0.5937;
151.2000;0.1644;0.5937;
151.5000;0.1636;0.5937;
151.8000;0.1636;0.5961;
152.1000;0.1644;0.6009;
152.4000;0.1522;0.5651;
152.7000;0.1628;0.5914;
153.0000;0.1636;0.5914;
153.3000;0.1612;0.5866;
153.6000;0.1587;0.5699;
153.9000;0.1628;0.5723;
154.2000;0.1620;0.5675;
154.5000;0.1628;0.5723;
154.8000;0.1636;0.5794;
155.1000;0.1587;0.5627;
155.4000;0.1612;0.5771;
155.7000;0.1636;0.5842;
156.0000;0.1685;0.5961;
156.3000;0.1612;0.5723;
156.6000;0.1628;0.5794;
156.9000;0.1628;0.5747;
157.2000;0.1693;0.5914;
157.5000;0.1628;0.5675;
157.8000;0.1628;0.5723;
158.1000;0.1628;0.5747;
158.4000;0.1652;0.5842;
158.7000;0.1636;0.5794;
159.0000;0.1636;0.5723;
159.3000;0.1604;0.5747;
159.6000;0.1701;0.5985;
159.9000;0.1636;0.5747;
160.2000;0.1628;0.5699;
160.5000;0.1636;0.5675;
160.8000;0.1644;0.5651;
161.1000;0.1644;0.5651;
161.4000;0.1636;0.5675;
161.7000;0.1636;0.5723;
162.0000;0.1628;0.5723;
162.3000;0.1628;0.5675;
162.6000;0.1636;0.5604;
162.9000;0.1628;0.5651;
163.2000;0.1620;0.5651;
163.5000;0.1636;0.5675;
163.8000;0.1579;0.5508;
164.1000;0.1604;0.5627;
164.4000;0.1587;0.5580;
164.7000;0.1555;0.5508;
165.0000;0.1628;0.5627;
165.3000;0.1636;0.5627;
165.6000;0.1628;0.5651;
165.9000;0.1620;0.5699;
166.2000;0.1636;0.5747;
166.5000;0.1644;0.5723;
166.8000;0.1636;0.5604;
167.1000;0.1628;0.5651;
167.4000;0.1636;0.5747;
167.7000;0.1547;0.5556;
168.0000;0.1628;0.5866;
168.3000;0.1595;0.5842;
168.6000;0.1636;0.5818;
168.9000;0.1612;0.5818;
169.2000;0.1628;0.5818;
169.5000;0.1620;0.5747;
169.8000;0.1612;0.5699;
170.1000;0.1579;0.5604;
170.4000;0.1620;0.5699;
170.7000;0.1620;0.5723;
171.0000;0.1612;0.5627;
171.3000;0.1636;0.5675;
171.6000;0.1644;0.5771;
171.9000;0.1620;0.5723;
172.2000;0.1571;0.5532;
172.5000;0.1579;0.5556;
172.8000;0.1661;0.5818;
173.1000;0.1628;0.5723;
173.4000;0.1628;0.5747;
173.7000;0.1677;0.5842;
174.0000;0.1636;0.5771;
174.3000;0.1644;0.5794;
174.6000;0.1652;0.5890;
174.9000;0.1595;0.5747;
175.2000;0.1636;0.5890;
175.5000;0.1620;0.5794;
175.8000;0.1628;0.5842;
176.1000;0.1612;0.5747;
176.4000;0.1620;0.5747;
176.7000;0.1604;0.5747;
177.0000;0.1636;0.5723;
177.3000;0.1644;0.5747;
177.6000;0.1628;0.5723;
177.9000;0.1628;0.5675;
178.2000;0.1644;0.5747;
178.5000;0.1644;0.5747;
178.8000;0.1628;0.5771;
179.1000;0.1652;0.5818;
179.4000;0.1595;0.5723;
179.7000;0.1522;0.5580;
180.0000;0.1636;0.5818;
180.3000;0.1652;0.5914;
180.6000;0.1579;0.5675;
180.9000;0.1628;0.5771;
181.2000;0.1628;0.5699;
181.5000;0.1652;0.5675;
181.8000;0.1661;0.5675;
182.1000;0.1571;0.5461;
182.4000;0.1775;0.6057;
182.7000;0.1620;0.5627;
183.0000;0.1636;0.5627;
183.3000;0.1465;0.5151;
183.6000;0.1612;0.5580;
183.9000;0.1587;0.5461;
184.2000;0.1620;0.5627;
184.5000;0.1579;0.5461;
184.8000;0.1636;0.5580;
185.1000;0.1604;0.5604;
185.4000;0.1644;0.5771;
185.7000;0.1628;0.5794;
186.0000;0.1628;0.5842;
186.3000;0.1636;0.5937;
186.6000;0.1628;0.5890;
186.9000;0.1628;0.5866;
187.2000;0.1620;0.5842;
187.5000;0.1538;0.5723;
187.8000;0.1677;0.6152;
188.1000;0.1628;0.5937;
188.4000;0.1652;0.6009;
188.7000;0.1563;0.5723;
189.0000;0.1612;0.5699;
189.3000;0.1644;0.5747;
189.6000;0.1734;0.5961;
189.9000;0.1620;0.5699;
190.2000;0.1644;0.5723;
190.5000;0.1636;0.5699;
190.8000;0.1652;0.5794;
191.1000;0.1644;0.5842;
191.4000;0.1612;0.5699;
191.7000;0.1628;0.5747;
192.0000;0.1620;0.5699;
192.3000;0.1620;0.5699;
192.6000;0.1644;0.5771;
192.9000;0.1612;0.5794;
193.2000;0.1636;0.5914;
193.5000;0.1612;0.5747;
193.8000;0.1628;0.5747;
194.1000;0.1628;0.5675;
194.4000;0.1628;0.5627;
194.7000;0.1661;0.5747;
195.0000;0.1628;0.5604;
195.3000;0.1652;0.5627;
195.6000;0.1701;0.5771;
195.9000;0.1612;0.5580;
196.2000;0.1644;0.5651;
196.5000;0.1604;0.5556;
196.8000;0.1579;0.5437;
197.1000;0.1750;0.5914;
197.4000;0.1628;0.5604;
197.7000;0.1669;0.5794;
198.0000;0.1636;0.5699;
198.3000;0.1604;0.5651;
198.6000;0.1612;0.5675;
198.9000;0.1644;0.5723;
199.2000;0.1628;0.5675;
199.5000;0.1636;0.5699;
199.8000;0.1620;0.5651;
200.1000;0.1620;0.5723;
200.4000;0.1587;0.5532;
200.7000;0.1604;0.5604;
201.0000;0.1628;0.5532;
201.3000;0.1628;0.5532;
201.6000;0.1636;0.5604;
201.9000;0.1636;0.5699;
202.2000;0.1652;0.5723;
202.5000;0.1636;0.5651;
202.8000;0.1620;0.5627;
203.1000;0.1612;0.5580;
203.4000;0.1652;0.5604;
203.7000;0.1677;0.5675;
204.0000;0.1628;0.5604;
204.3000;0.1620;0.5627;
204.6000;0.1652;0.5747;
204.9000;0.1620;0.5818;
205.2000;0.1644;0.5914;
205.5000;0.1652;0.5842;
205.8000;0.1595;0.5651;
206.1000;0.1661;0.5747;
206.4000;0.1669;0.5818;
206.7000;0.1661;0.5794;
207.0000;0.1636;0.5675;
207.3000;0.1628;0.5627;
207.6000;0.1612;0.5580;
207.9000;0.1636;0.5580;
208.2000;0.1628;0.5461;
208.5000;0.1628;0.5508;
208.8000;0.1677;0.5604;
209.1000;0.1628;0.5484;
209.4000;0.1628;0.5484;
209.7000;0.1628;0.5461;
210.0000;0.1636;0.5508;
210.3000;0.1620;0.5461;
210.6000;0.1636;0.5413;
210.9000;0.1652;0.5484;
211.2000;0.1669;0.5556;
211.5000;0.1652;0.5437;
211.8000;0.1628;0.5365;
212.1000;0.1628;0.5413;
212.4000;0.1661;0.5580;
212.7000;0.1636;0.5580;
213.0000;0.1652;0.5627;
213.3000;0.1628;0.5556;
213.6000;0.1628;0.5627;
213.9000;0.1620;0.5604;
214.2000;0.1644;0.5699;
214.5000;0.1628;0.5699;
214.8000;0.1620;0.5699;
215.1000;0.1644;0.5723;
215.4000;0.1661;0.5651;
215.7000;0.1652;0.5604;
216.0000;0.1604;0.5484;
216.3000;0.1628;0.5651;
216.6000;0.1644;0.5627;
216.9000;0.1563;0.5484;
217.2000;0.1636;0.5604;
217.5000;0.1620;0.5532;
217.8000;0.1620;0.5437;
218.1000;0.1628;0.5413;
218.4000;0.1644;0.5437;
218.7000;0.1636;0.5484;
219.0000;0.1612;0.5437;
219.3000;0.1620;0.5461;
219.6000;0.1644;0.5508;
219.9000;0.1538;0.5222;
220.2000;0.1620;0.5484;
220.5000;0.1620;0.5532;
220.8000;0.1685;0.5699;
221.1000;0.1595;0.5484;
221.4000;0.1612;0.5532;
221.7000;0.1636;0.5604;
222.0000;0.1587;0.5413;
222.3000;0.1636;0.5604;
222.6000;0.1587;0.5461;
222.9000;0.1612;0.5484;
223.2000;0.1604;0.5508;
223.5000;0.1628;0.5651;
223.8000;0.1612;0.5675;
224.1000;0.1604;0.5604;
224.4000;0.1612;0.5651;
224.7000;0.1628;0.5651;
225.0000;0.1620;0.5556;
225.3000;0.1604;0.5508;
225.6000;0.1620;0.5437;
225.9000;0.1677;0.5556;
226.2000;0.1612;0.5365;
226.5000;0.1612;0.5437;
226.8000;0.1555;0.5222;
227.1000;0.1628;0.5484;
227.4000;0.1636;0.5508;
227.7000;0.1636;0.5508;
228.0000;0.1628;0.5413;
228.3000;0.1644;0.5484;
228.6000;0.1620;0.5461;
228.9000;0.1636;0.5437;
229.2000;0.1620;0.5461;
229.5000;0.1644;0.5437;
229.8000;0.1636;0.5437;
230.1000;0.1636;0.5413;
230.4000;0.1604;0.5413;
230.7000;0.1628;0.5437;
231.0000;0.1612;0.5365;
231.3000;0.1636;0.5389;
231.6000;0.1644;0.5437;
231.9000;0.1620;0.5461;
232.2000;0.1612;0.5437;
232.5000;0.1620;0.5556;
232.8000;0.1620;0.5627;
233.1000;0.1604;0.5556;
233.4000;0.1661;0.5604;
233.7000;0.1620;0.5556;
234.0000;0.1636;0.5604;
234.3000;0.1604;0.5580;
234.6000;0.1636;0.5675;
234.9000;0.1644;0.5627;
235.2000;0.1604;0.5556;
235.5000;0.1612;0.5556;
235.8000;0.1620;0.5651;
236.1000;0.1620;0.5794;
236.4000;0.1620;0.5842;
236.7000;0.1604;0.5818;
237.0000;0.1636;0.5914;
237.3000;0.1628;0.5985;
237.6000;0.1636;0.5937;
237.9000;0.1644;0.5890;
238.2000;0.1652;0.5914;
238.5000;0.1636;0.5818;
238.8000;0.1652;0.5771;
239.1000;0.1628;0.5699;
239.4000;0.1620;0.5651;
239.7000;0.1604;0.5580;
240.0000;0.1636;0.5699;
240.3000;0.1620;0.5699;
240.6000;0.1620;0.5675;
240.9000;0.1628;0.5699;
241.2000;0.1604;0.5651;
241.5000;0.1628;0.5651;
241.8000;0.1620;0.5651;
242.1000;0.1612;0.5747;
242.4000;0.1628;0.5771;
242.7000;0.1636;0.5771;
243.0000;0.1628;0.5794;
243.3000;0.1628;0.5747;
243.6000;0.1620;0.5794;
243.9000;0.1636;0.5818;
244.2000;0.1636;0.5818;
244.5000;0.1620;0.5866;
244.8000;0.1628;0.5842;
245.1000;0.1652;0.5866;
245.4000;0.1636;0.5866;
245.7000;0.1636;0.5723;
246.0000;0.1620;0.5604;
246.3000;0.1636;0.5699;
246.6000;0.1620;0.5699;
246.9000;0.1612;0.5699;
247.2000;0.1612;0.5747;
247.5000;0.1628;0.5818;
247.8000;0.1595;0.5794;
248.1000;0.1604;0.5842;
248.4000;0.1604;0.5842;
248.7000;0.1628;0.5914;
249.0000;0.1620;0.5914;
249.3000;0.1628;0.5914;
249.6000;0.1636;0.5937;
249.9000;0.1628;0.5866;
250.2000;0.1620;0.5914;
250.5000;0.1595;0.5890;
250.8000;0.1636;0.5937;
251.1000;0.1620;0.5818;
251.4000;0.1612;0.5771;
251.7000;0.1628;0.5794;
252.0000;0.1636;0.5818;
252.3000;0.1669;0.5961;
252.6000;0.1636;0.5866;
252.9000;0.1620;0.5794;
253.2000;0.1636;0.5818;
253.5000;0.1620;0.5747;
253.8000;0.1628;0.5747;
254.1000;0.1636;0.5794;
254.4000;0.1636;0.5747;
254.7000;0.1628;0.5747;
255.0000;0.1644;0.5723;
255.3000;0.1628;0.5699;
255.6000;0.1636;0.5747;
255.9000;0.1620;0.5747;
256.2000;0.1612;0.5723;
256.5000;0.1709;0.6033;
256.8000;0.1620;0.5866;
257.1000;0.1612;0.5794;
257.4000;0.1628;0.5818;
257.7000;0.1620;0.5842;
258.0000;0.1628;0.5842;
258.3000;0.1604;0.5771;
258.6000;0.1620;0.5914;
258.9000;0.1604;0.5890;
259.2000;0.1620;0.5890;
259.5000;0.1644;0.5890;
259.8000;0.1636;0.5890;
260.1000;0.1604;0.5794;
260.4000;0.1604;0.5771;
260.7000;0.1628;0.5890;
261.0000;0.1595;0.5818;
261.3000;0.1620;0.5842;
261.6000;0.1620;0.5890;
261.9000;0.1604;0.5747;
262.2000;0.1612;0.5699;
262.5000;0.1620;0.5771;
262.8000;0.1636;0.5771;
263.1000;0.1612;0.5794;
263.4000;0.1522;0.5532;
263.7000;0.1620;0.5842;
264.0000;0.1620;0.5866;
264.3000;0.1742;0.6128;
264.6000;0.1563;0.5532;
264.9000;0.1612;0.5675;
265.2000;0.1620;0.5675;
265.5000;0.1661;0.5771;
265.8000;0.1628;0.5747;
266.1000;0.1620;0.5794;
266.4000;0.1604;0.5771;
266.7000;0.1628;0.5794;
267.0000;0.1628;0.5771;
267.3000;0.1620;0.5747;
267.6000;0.1620;0.5771;
267.9000;0.1620;0.5699;
268.2000;0.1620;0.5627;
268.5000;0.1628;0.5675;
268.8000;0.1620;0.5580;
269.1000;0.1628;0.5580;
269.4000;0.1620;0.5699;
269.7000;0.1636;0.5794;
270.0000;0.1628;0.5747;
270.3000;0.1604;0.5675;
270.6000;0.1506;0.5389;
270.9000;0.1620;0.5675;
271.2000;0.1734;0.6009;
271.5000;0.1587;0.5651;
271.8000;0.1612;0.5794;
272.1000;0.1644;0.5914;
272.4000;0.1661;0.5961;
272.7000;0.1620;0.5866;
273.0000;0.1612;0.5866;
273.3000;0.1636;0.5914;
273.6000;0.1652;0.5866;
273.9000;0.1604;0.5699;
274.2000;0.1612;0.5651;
274.5000;0.1587;0.5580;
274.8000;0.1612;0.5627;
275.1000;0.1563;0.5508;
275.4000;0.1620;0.5723;
275.7000;0.1636;0.5675;
276.0000;0.1628;0.5771;
276.3000;0.1604;0.5723;
276.6000;0.1604;0.5723;
276.9000;0.1612;0.5794;
277.2000;0.1644;0.5866;
277.5000;0.1652;0.5961;
277.8000;0.1628;0.5890;
278.1000;0.1628;0.5866;
278.4000;0.1718;0.6033;
278.7000;0.1612;0.5723;
279.0000;0.1612;0.5747;
279.3000;0.1620;0.5771;
279.6000;0.1604;0.5771;
279.9000;0.1628;0.5818;
280.2000;0.1620;0.5747;
280.5000;0.1652;0.5771;
280.8000;0.1644;0.5699;
281.1000;0.1636;0.5627;
281.4000;0.1628;0.5604;
281.7000;0.1636;0.5556;
282.0000;0.1620;0.5651;
282.3000;0.1652;0.5699;
282.6000;0.1628;0.5604;
282.9000;0.1620;0.5580;
283.2000;0.1620;0.5604;
283.5000;0.1620;0.5484;
283.8000;0.1514;0.5127;
284.1000;0.1620;0.5484;
284.4000;0.1644;0.5556;
284.7000;0.1563;0.5365;
285.0000;0.1628;0.5580;
285.3000;0.1685;0.5723;
285.6000;0.1636;0.5747;
285.9000;0.1620;0.5675;
286.2000;0.1620;0.5747;
286.5000;0.1595;0.5651;
286.8000;0.1628;0.5842;
287.1000;0.1628;0.5818;
287.4000;0.1612;0.5794;
287.7000;0.1628;0.5627;
288.0000;0.1628;0.5675;
288.3000;0.1579;0.5675;
288.6000;0.1579;0.5508;
288.9000;0.1620;0.5675;
289.2000;0.1636;0.5794;
289.5000;0.1620;0.5747;
289.8000;0.1604;0.5890;
290.1000;0.1652;0.6033;
290.4000;0.1644;0.6033;
290.7000;0.1636;0.5914;
291.0000;0.1628;0.5818;
291.3000;0.1636;0.5794;
291.6000;0.1620;0.5818;
291.9000;0.1636;0.5890;
292.2000;0.1620;0.5914;
292.5000;0.1628;0.5890;
292.8000;0.1612;0.5937;
293.1000;0.1693;0.6057;
293.4000;0.1644;0.5890;
293.7000;0.1677;0.6033;
294.0000;0.1628;0.5890;
294.3000;0.1661;0.5937;
294.6000;0.1644;0.5842;
294.9000;0.1620;0.5842;
295.2000;0.1669;0.5961;
295.5000;0.1628;0.5842;
295.8000;0.1628;0.5818;
296.1000;0.1604;0.5866;
296.4000;0.1620;0.5890;
296.7000;0.1620;0.5866;
297.0000;0.1644;0.5914;
297.3000;0.1677;0.6057;
297.6000;0.1604;0.5818;
297.9000;0.1644;0.5771;
298.2000;0.1750;0.6224;
298.5000;0.1628;0.5890;
298.8000;0.1579;0.5794;
299.1000;0.1701;0.6057;
299.4000;0.1726;0.6128;
299.7000;0.1514;0.5484;
300.0000;0.1620;0.5818;
300.3000;0.1644;0.5914;
300.6000;0.1669;0.5937;
300.9000;0.1636;0.5818;
301.2000;0.1530;0.5532;
301.5000;0.1604;0.5723;
301.8000;0.1652;0.5842;
302.1000;0.1612;0.5771;
302.4000;0.1612;0.5747;
302.7000;0.1612;0.5771;
303.0000;0.1636;0.5794;
303.3000;0.1644;0.5914;
303.6000;0.1571;0.5818;
303.9000;0.1612;0.5961;
304.2000;0.1628;0.6009;
304.5000;0.1612;0.6033;
304.8000;0.1587;0.5914;
305.1000;0.1612;0.5890;
305.4000;0.1612;0.5818;
305.7000;0.1636;0.5818;
306.0000;0.1612;0.5794;
306.3000;0.1620;0.5818;
306.6000;0.1612;0.5771;
306.9000;0.1644;0.5866;
307.2000;0.1628;0.5866;
307.5000;0.1628;0.5794;
307.8000;0.1612;0.5723;
308.1000;0.1612;0.5651;
308.4000;0.1628;0.5747;
308.7000;0.1628;0.5723;
309.0000;0.1636;0.5771;
309.3000;0.1636;0.5699;
309.6000;0.1628;0.5771;
309.9000;0.1644;0.5842;
310.2000;0.1620;0.5771;
310.5000;0.1628;0.5747;
310.8000;0.1628;0.5747;
311.1000;0.1620;0.5723;
311.4000;0.1620;0.5723;
311.7000;0.1628;0.5723;
312.0000;0.1620;0.5771;
312.3000;0.1571;0.5675;
312.6000;0.1628;0.5842;
312.9000;0.1620;0.5866;
313.2000;0.1538;0.5651;
313.5000;0.1636;0.5890;
313.8000;0.1636;0.5937;
314.1000;0.1636;0.5914;
314.4000;0.1620;0.5842;
314.7000;0.1620;0.5818;
315.0000;0.1652;0.5890;
315.3000;0.1636;0.5914;
315.6000;0.1636;0.5961;
315.9000;0.1661;0.5985;
316.2000;0.1644;0.5890;
316.5000;0.1644;0.5866;
316.8000;0.1636;0.5866;
317.1000;0.1612;0.5866;
317.4000;0.1628;0.5961;
317.7000;0.1652;0.5985;
318.0000;0.1604;0.5842;
318.3000;0.1604;0.5771;
318.6000;0.1604;0.5699;
318.9000;0.1628;0.5675;
319.2000;0.1620;0.5627;
319.5000;0.1620;0.5532;
319.8000;0.1636;0.5580;
320.1000;0.1636;0.5627;
320.4000;0.1612;0.5556;
320.7000;0.1644;0.5627;
321.0000;0.1652;0.5627;
321.3000;0.1652;0.5627;
321.6000;0.1612;0.5580;
321.9000;0.1661;0.5651;
322.2000;0.1652;0.5604;
322.5000;0.1652;0.5580;
322.8000;0.1620;0.5508;
323.1000;0.1636;0.5532;
323.4000;0.1579;0.5389;
323.7000;0.1563;0.5341;
324.0000;0.1620;0.5532;
324.3000;0.1612;0.5532;
324.6000;0.1612;0.5484;
324.9000;0.1628;0.5532;
325.2000;0.1547;0.5365;
325.5000;0.1628;0.5580;
325.8000;0.1604;0.5461;
326.1000;0.1579;0.5365;
326.4000;0.1595;0.5389;
326.7000;0.1620;0.5461;
327.0000;0.1571;0.5389;
327.3000;0.1612;0.5532;
327.6000;0.1652;0.5699;
327.9000;0.1612;0.5699;
328.2000;0.1636;0.5771;
328.5000;0.1652;0.5866;
328.8000;0.1636;0.5771;
329.1000;0.1628;0.5794;
329.4000;0.1620;0.5747;
329.7000;0.1661;0.5842;
330.0000;0.1547;0.5604;
330.3000;0.1636;0.5937;
330.6000;0.1620;0.5866;
330.9000;0.1612;0.5842;
331.2000;0.1644;0.5937;
331.5000;0.1644;0.6009;
331.8000;0.1620;0.5985;
332.1000;0.1620;0.5985;
332.4000;0.1620;0.5866;
332.7000;0.1612;0.5771;
333.0000;0.1612;0.5699;
333.3000;0.1628;0.5747;
333.6000;0.1620;0.5794;
333.9000;0.1612;0.5818;
334.2000;0.1612;0.5747;
334.5000;0.1628;0.5794;
334.8000;0.1612;0.5771;
335.1000;0.1636;0.5818;
335.4000;0.1644;0.5866;
335.7000;0.1636;0.5866;
336.0000;0.1620;0.5747;
336.3000;0.1628;0.5866;
336.6000;0.1628;0.5914;
336.9000;0.1628;0.5961;
337.2000;0.1636;0.6081;
337.5000;0.1628;0.6033;
337.8000;0.1644;0.6057;
338.1000;0.1628;0.5937;
338.4000;0.1612;0.5866;
338.7000;0.1636;0.5914;
339.0000;0.1620;0.5818;
339.3000;0.1604;0.5818;
339.6000;0.1612;0.5675;
339.9000;0.1701;0.5937;
340.2000;0.1628;0.5771;
340.5000;0.1628;0.5794;
340.8000;0.1620;0.5771;
341.1000;0.1636;0.5818;
341.4000;0.1620;0.5794;
341.7000;0.1669;0.5937;
342.0000;0.1644;0.5914;
342.3000;0.1612;0.5866;
342.6000;0.1612;0.5890;
342.9000;0.1612;0.5866;
343.2000;0.1604;0.5890;
343.5000;0.1620;0.5842;
343.8000;0.1604;0.5771;
344.1000;0.1612;0.5747;
344.4000;0.1612;0.5818;
344.7000;0.1595;0.5723;
345.0000;0.1612;0.5771;
345.3000;0.1612;0.5723;
345.6000;0.1628;0.5747;
345.9000;0.1612;0.5651;
346.2000;0.1620;0.5675;
346.5000;0.1612;0.5675;
346.8000;0.1661;0.5771;
347.1000;0.1636;0.5675;
347.4000;0.1636;0.5699;
347.7000;0.1628;0.5651;
348.0000;0.1612;0.5508;
348.3000;0.1604;0.5461;
348.6000;0.1620;0.5508;
348.9000;0.1595;0.5532;
349.2000;0.1620;0.5580;
349.5000;0.1636;0.5580;
349.8000;0.1612;0.5580;
350.1000;0.1636;0.5604;
350.4000;0.1612;0.5556;
350.7000;0.1612;0.5484;
351.0000;0.1636;0.5556;
351.3000;0.1644;0.5627;
351.6000;0.1636;0.5675;
351.9000;0.1628;0.5627;
352.2000;0.1620;0.5651;
352.5000;0.1636;0.5723;
352.8000;0.1726;0.5985;
353.1000;0.1628;0.5627;
353.4000;0.1612;0.5723;
353.7000;0.1636;0.5818;
354.0000;0.1612;0.5747;
354.3000;0.1620;0.5842;
354.6000;0.1620;0.5818;
354.9000;0.1644;0.5794;
355.2000;0.1612;0.5723;
355.5000;0.1620;0.5794;
355.8000;0.1620;0.5818;
356.1000;0.1620;0.5842;
356.4000;0.1620;0.5747;
356.7000;0.1612;0.5699;
357.0000;0.1620;0.5699;
357.3000;0.1628;0.5771;
357.6000;0.1628;0.5866;
357.9000;0.1644;0.5937;
358.2000;0.1620;0.5961;
358.5000;0.1620;0.5914;
358.8000;0.1652;0.5890;
359.1000;0.1612;0.5794;
359.4000;0.1612;0.5771;
359.7000;0.1628;0.5890;
360.0000;0.1620;0.5818;
360.3000;0.1718;0.6033;
360.6000;0.1612;0.5771;
360.9000;0.1620;0.5723;
361.2000;0.1612;0.5723;
361.5000;0.1636;0.5794;
361.8000;0.1604;0.5771;
362.1000;0.1636;0.5794;
362.4000;0.1620;0.5771;
362.7000;0.1628;0.5818;
363.0000;0.1620;0.5771;
363.3000;0.1620;0.5818;
363.6000;0.1620;0.5794;
363.9000;0.1628;0.5890;
364.2000;0.1636;0.5937;
364.5000;0.1595;0.5818;
364.8000;0.1612;0.5914;
365.1000;0.1628;0.5914;
365.4000;0.1628;0.5914;
365.7000;0.1628;0.5842;
366.0000;0.1758;0.6128;
366.3000;0.1612;0.5771;
366.6000;0.1636;0.5747;
366.9000;0.1620;0.5699;
367.2000;0.1628;0.5794;
367.5000;0.1628;0.5699;
367.8000;0.1620;0.5627;
368.1000;0.1604;0.5604;
368.4000;0.1628;0.5699;
368.7000;0.1628;0.5651;
369.0000;0.1677;0.5818;
369.3000;0.1628;0.5723;
369.6000;0.1620;0.5723;
369.9000;0.1685;0.5842;
370.2000;0.1636;0.5723;
370.5000;0.1612;0.5699;
370.8000;0.1612;0.5627;
371.1000;0.1628;0.5604;
371.4000;0.1636;0.5699;
371.7000;0.1636;0.5675;
372.0000;0.1612;0.5580;
372.3000;0.1636;0.5723;
372.6000;0.1644;0.5627;
372.9000;0.1636;0.5604;
373.2000;0.1612;0.5556;
373.5000;0.1620;0.5627;
373.8000;0.1718;0.5937;
374.1000;0.1612;0.5627;
374.4000;0.1628;0.5723;
374.7000;0.1628;0.5866;
375.0000;0.1555;0.5627;
375.3000;0.1709;0.6081;
375.6000;0.1636;0.5937;
375.9000;0.1522;0.5675;
376.2000;0.1620;0.5985;
376.5000;0.1652;0.6057;
376.8000;0.1628;0.5961;
377.1000;0.1612;0.5914;
377.4000;0.1571;0.5651;
377.7000;0.1604;0.5890;
378.0000;0.1636;0.5866;
378.3000;0.1628;0.5890;
378.6000;0.1628;0.5866;
378.9000;0.1628;0.5771;
379.2000;0.1628;0.5771;
379.5000;0.1490;0.5484;
379.8000;0.1644;0.5818;
380.1000;0.1636;0.5747;
380.4000;0.1636;0.5818;
380.7000;0.1636;0.5890;
381.0000;0.1636;0.5866;
381.3000;0.1595;0.5747;
381.6000;0.1612;0.5866;
381.9000;0.1628;0.5961;
382.2000;0.1620;0.5961;
382.5000;0.1693;0.6128;
382.8000;0.1620;0.5961;
383.1000;0.1620;0.6009;
383.4000;0.1636;0.6033;
383.7000;0.1612;0.5961;
384.0000;0.1604;0.5985;
384.3000;0.1628;0.6009;
384.6000;0.1620;0.5937;
384.9000;0.1612;0.5961;
385.2000;0.1628;0.5914;
385.5000;0.1620;0.5866;
385.8000;0.1612;0.5866;
386.1000;0.1750;0.6295;
386.4000;0.1718;0.6176;
386.7000;0.1620;0.5937;
387.0000;0.1620;0.5937;
387.3000;0.1628;0.5985;
387.6000;0.1628;0.5937;
387.9000;0.1612;0.5794;
388.2000;0.1644;0.5818;
388.5000;0.1669;0.5985;
388.8000;0.1620;0.5866;
389.1000;0.1604;0.5842;
389.4000;0.1628;0.5771;
389.7000;0.1612;0.5747;
390.0000;0.1604;0.5794;
390.3000;0.1612;0.5794;
390.6000;0.1628;0.5747;
390.9000;0.1644;0.5771;
391.2000;0.1718;0.6009;
391.5000;0.1652;0.5914;
391.8000;0.1644;0.5842;
392.1000;0.1677;0.5914;
392.4000;0.1628;0.5771;
392.7000;0.1587;0.5580;
393.0000;0.1628;0.5794;
393.3000;0.1620;0.5699;
393.6000;0.1750;0.6152;
393.9000;0.1612;0.5818;
394.2000;0.1620;0.5771;
394.5000;0.1644;0.5818;
394.8000;0.1571;0.5604;
395.1000;0.1620;0.5723;
395.4000;0.1612;0.5699;
395.7000;0.1750;0.6057;
396.0000;0.1620;0.5771;
396.3000;0.1579;0.5699;
396.6000;0.1628;0.5842;
396.9000;0.1620;0.5842;
397.2000;0.1604;0.5794;
397.5000;0.1604;0.5866;
397.8000;0.1595;0.5914;
398.1000;0.1604;0.5937;
398.4000;0.1595;0.5842;
398.7000;0.1628;0.5985;
399.0000;0.1628;0.5914;
399.3000;0.1620;0.5866;
399.6000;0.1555;0.5747;
399.9000;0.1636;0.5914;
400.2000;0.1620;0.5818;
400.5000;0.1628;0.5866;
400.8000;0.1628;0.5866;
401.1000;0.1628;0.5842;
401.4000;0.1636;0.5890;
401.7000;0.1661;0.5937;
402.0000;0.1620;0.5771;
402.3000;0.1685;0.5914;
402.6000;0.1652;0.5890;
402.9000;0.1628;0.5842;
403.2000;0.1612;0.5818;
403.5000;0.1620;0.5771;
403.8000;0.1620;0.5771;
404.1000;0.1604;0.5699;
404.4000;0.1636;0.5794;
404.7000;0.1628;0.5771;
405.0000;0.1636;0.5842;
405.3000;0.1644;0.5818;
405.6000;0.1620;0.5747;
405.9000;0.1636;0.5747;
406.2000;0.1612;0.5723;
406.5000;0.1620;0.5675;
406.8000;0.1620;0.5723;
407.1000;0.1620;0.5747;
407.4000;0.1604;0.5699;
407.7000;0.1652;0.5818;
408.0000;0.1644;0.5842;
408.3000;0.1701;0.6152;
408.6000;0.1595;0.5842;
408.9000;0.1661;0.6057;
409.2000;0.1628;0.5842;
409.5000;0.1571;0.5675;
409.8000;0.1620;0.5723;
410.1000;0.1604;0.5699;
410.4000;0.1604;0.5794;
410.7000;0.1612;0.5890;
411.0000;0.1644;0.5914;
411.3000;0.1579;0.5842;
411.6000;0.1628;0.5914;
411.9000;0.1644;0.5914;
412.2000;0.1644;0.5937;
412.5000;0.1628;0.5914;
412.8000;0.1628;0.5914;
413.1000;0.1669;0.6033;
413.4000;0.1636;0.5961;
413.7000;0.1652;0.6009;
414.0000;0.1644;0.5914;
414.3000;0.1701;0.6009;
414.6000;0.1644;0.5818;
414.9000;0.1612;0.5771;
415.2000;0.1677;0.5914;
415.5000;0.1612;0.5794;
415.8000;0.1604;0.5794;
416.1000;0.1636;0.5794;
416.4000;0.1628;0.5794;
416.7000;0.1677;0.5866;
417.0000;0.1742;0.6033;
417.3000;0.1775;0.6081;
417.6000;0.1604;0.5627;
417.9000;0.1595;0.5580;
418.2000;0.1644;0.5771;
418.5000;0.1669;0.5914;
418.8000;0.1726;0.6081;
419.1000;0.1669;0.5961;
419.4000;0.1701;0.6152;
419.7000;0.1693;0.6152;
420.0000;0.1644;0.6033;
420.3000;0.1604;0.5842;
420.6000;0.1628;0.5842;
420.9000;0.1612;0.5771;
421.2000;0.1628;0.5794;
421.5000;0.1652;0.5818;
421.8000;0.1612;0.5794;
422.1000;0.1612;0.5747;
422.4000;0.1612;0.5723;
422.7000;0.1571;0.5651;
423.0000;0.1620;0.5723;
423.3000;0.1644;0.5794;
423.6000;0.1677;0.5914;
423.9000;0.1620;0.5675;
424.2000;0.1620;0.5604;
424.5000;0.1612;0.5556;
424.8000;0.1538;0.5461;
425.1000;0.1652;0.5699;
425.4000;0.1604;0.5627;
425.7000;0.1612;0.5699;
426.0000;0.1530;0.5461;
426.3000;0.1612;0.5699;
426.6000;0.1628;0.5747;
426.9000;0.1620;0.5699;
427.2000;0.1498;0.5437;
427.5000;0.1604;0.5675;
427.8000;0.1652;0.5771;
428.1000;0.1628;0.5723;
428.4000;0.1620;0.5771;
428.7000;0.1612;0.5794;
429.0000;0.1628;0.5914;
429.3000;0.1620;0.5842;
429.6000;0.1628;0.5866;
429.9000;0.1636;0.5794;
430.2000;0.1628;0.5794;
430.5000;0.1628;0.5723;
430.8000;0.1685;0.5866;
431.1000;0.1490;0.5389;
431.4000;0.1628;0.5771;
431.7000;0.1652;0.5842;
432.0000;0.1595;0.5699;
432.3000;0.1563;0.5627;
432.6000;0.1595;0.5794;
432.9000;0.1587;0.5747;
433.2000;0.1628;0.5771;
433.5000;0.1587;0.5699;
433.8000;0.1612;0.5794;
434.1000;0.1620;0.5794;
434.4000;0.1604;0.5747;
434.7000;0.1620;0.5651;
435.0000;0.1604;0.5627;
435.3000;0.1628;0.5699;
435.6000;0.1620;0.5675;
435.9000;0.1628;0.5747;
436.2000;0.1612;0.5675;
436.5000;0.1644;0.5723;
436.8000;0.1628;0.5818;
437.1000;0.1644;0.5794;
437.4000;0.1620;0.5699;
437.7000;0.1644;0.5747;
438.0000;0.1620;0.5675;
438.3000;0.1595;0.5627;
438.6000;0.1620;0.5675;
438.9000;0.1628;0.5747;
439.2000;0.1652;0.5842;
439.5000;0.1612;0.5890;
439.8000;0.1579;0.5818;
440.1000;0.1628;0.5914;
440.4000;0.1636;0.5985;
440.7000;0.1628;0.5914;
441.0000;0.1636;0.5890;
441.3000;0.1677;0.5961;
441.6000;0.1604;0.5675;
441.9000;0.1677;0.5842;
442.2000;0.1579;0.5413;
442.5000;0.1579;0.5461;
442.8000;0.1612;0.5484;
443.1000;0.1644;0.5556;
443.4000;0.1677;0.5675;
443.7000;0.1620;0.5532;
444.0000;0.1620;0.5604;
444.3000;0.1620;0.5604;
444.6000;0.1555;0.5437;
444.9000;0.1628;0.5580;
445.2000;0.1604;0.5437;
445.5000;0.1628;0.5508;
445.8000;0.1620;0.5556;
446.1000;0.1628;0.5675;
446.4000;0.1628;0.5675;
446.7000;0.1604;0.5651;
447.0000;0.1628;0.5723;
447.3000;0.1628;0.5818;
447.6000;0.1604;0.5771;
447.9000;0.1636;0.5723;
448.2000;0.1669;0.5747;
448.5000;0.1612;0.5675;
448.8000;0.1612;0.5556;
449.1000;0.1595;0.5389;
449.4000;0.1612;0.5389;
449.7000;0.1620;0.5413;
450.0000;0.1628;0.5341;
450.3000;0.1620;0.5270;
450.6000;0.1522;0.4936;
450.9000;0.1636;0.5365;
451.2000;0.1620;0.5365;
451.5000;0.1604;0.5294;
451.8000;0.1636;0.5484;
452.1000;0.1612;0.5461;
452.4000;0.1636;0.5484;
452.7000;0.1620;0.5484;
453.0000;0.1612;0.5580;
453.3000;0.1644;0.5627;
453.6000;0.1620;0.5604;
453.9000;0.1612;0.5484;
454.2000;0.1612;0.5484;
454.5000;0.1595;0.5580;
454.8000;0.1636;0.5604;
455.1000;0.1612;0.5580;
455.4000;0.1628;0.5604;
455.7000;0.1636;0.5604;
456.0000;0.1693;0.5699;
456.3000;0.1620;0.5532;
456.6000;0.1620;0.5556;
456.9000;0.1628;0.5580;
457.2000;0.1628;0.5556;
457.5000;0.1628;0.5556;
457.8000;0.1620;0.5508;
458.1000;0.1604;0.5461;
458.4000;0.1628;0.5627;
458.7000;0.1620;0.5604;
459.0000;0.1644;0.5627;
459.3000;0.1628;0.5580;
459.6000;0.1644;0.5627;
459.9000;0.1636;0.5604;
460.2000;0.1620;0.5532;
460.5000;0.1620;0.5484;
460.8000;0.1620;0.5532;
461.1000;0.1620;0.5508;
461.4000;0.1644;0.5556;
461.7000;0.1620;0.5532;
462.0000;0.1587;0.5413;
462.3000;0.1644;0.5580;
462.6000;0.1636;0.5508;
462.9000;0.1636;0.5389;
463.2000;0.1620;0.5389;
463.5000;0.1620;0.5484;
463.8000;0.1628;0.5556;
464.1000;0.1677;0.5627;
464.4000;0.1620;0.5484;
464.7000;0.1636;0.5580;
465.0000;0.1595;0.5484;
465.3000;0.1620;0.5556;
465.6000;0.1595;0.5651;
465.9000;0.1612;0.5747;
466.2000;0.1612;0.5747;
466.5000;0.1563;0.5604;
466.8000;0.1628;0.5771;
467.1000;0.1620;0.5699;
467.4000;0.1636;0.5723;
467.7000;0.1604;0.5699;
468.0000;0.1669;0.5794;
468.3000;0.1604;0.5651;
468.6000;0.1595;0.5604;
468.9000;0.1620;0.5604;
469.2000;0.1628;0.5675;
469.5000;0.1604;0.5627;
469.8000;0.1587;0.5604;
470.1000;0.1644;0.5723;
470.4000;0.1612;0.5580;
470.7000;0.1612;0.5675;
471.0000;0.1620;0.5723;
471.3000;0.1620;0.5723;
471.6000;0.1514;0.5389;
471.9000;0.1571;0.5508;
472.2000;0.1620;0.5651;
472.5000;0.1612;0.5604;
472.8000;0.1636;0.5508;
473.1000;0.1628;0.5341;
473.4000;0.1644;0.5413;
473.7000;0.1595;0.5389;
474.0000;0.1628;0.5484;
474.3000;0.1604;0.5508;
474.6000;0.1628;0.5484;
474.9000;0.1628;0.5484;
475.2000;0.1636;0.5484;
475.5000;0.1612;0.5437;
475.8000;0.1587;0.5365;
476.1000;0.1595;0.5437;
476.4000;0.1636;0.5580;
476.7000;0.1628;0.5556;
477.0000;0.1612;0.5556;
477.3000;0.1652;0.5651;
477.6000;0.1636;0.5580;
477.9000;0.1636;0.5580;
478.2000;0.1620;0.5604;
478.5000;0.1595;0.5627;
478.8000;0.1636;0.5771;
479.1000;0.1620;0.5699;
479.4000;0.1612;0.5627;
479.7000;0.1636;0.5580;
480.0000;0.1628;0.5556;
480.3000;0.1628;0.5532;
480.6000;0.1612;0.5556;
480.9000;0.1604;0.5532;
481.2000;0.1636;0.5627;
481.5000;0.1628;0.5627;
481.8000;0.1628;0.5675;
482.1000;0.1620;0.5699;
482.4000;0.1620;0.5627;
482.7000;0.1636;0.5723;
483.0000;0.1636;0.5699;
483.3000;0.1620;0.5699;
483.6000;0.1628;0.5723;
483.9000;0.1620;0.5699;
484.2000;0.1620;0.5651;
484.5000;0.1636;0.5627;
484.8000;0.1612;0.5484;
485.1000;0.1620;0.5532;
485.4000;0.1644;0.5508;
485.7000;0.1628;0.5580;
486.0000;0.1620;0.5508;
486.3000;0.1620;0.5556;
486.6000;0.1726;0.5842;
486.9000;0.1620;0.5508;
487.2000;0.1628;0.5556;
487.5000;0.1620;0.5556;
487.8000;0.1628;0.5556;
488.1000;0.1628;0.5627;
488.4000;0.1579;0.5532;
488.7000;0.1612;0.5699;
489.0000;0.1636;0.5771;
489.3000;0.1636;0.5794;
489.6000;0.1579;0.5675;
489.9000;0.1620;0.5747;
490.2000;0.1595;0.5699;
490.5000;0.1636;0.5794;
490.8000;0.1612;0.5794;
491.1000;0.1612;0.5818;
491.4000;0.1620;0.5771;
491.7000;0.1595;0.5604;
492.0000;0.1612;0.5771;
492.3000;0.1636;0.5866;
492.6000;0.1758;0.6176;
492.9000;0.1612;0.5794;
493.2000;0.1628;0.5771;
493.5000;0.1628;0.5699;
493.8000;0.1612;0.5532;
494.1000;0.1595;0.5556;
494.4000;0.1563;0.5484;
494.7000;0.1628;0.5771;
495.0000;0.1612;0.5747;
495.3000;0.1620;0.5699;
495.6000;0.1644;0.5747;
495.9000;0.1644;0.5699;
496.2000;0.1644;0.5771;
496.5000;0.1750;0.6152;
496.8000;0.1669;0.6009;
497.1000;0.1628;0.5818;
497.4000;0.1620;0.5771;
497.7000;0.1555;0.5651;
498.0000;0.1595;0.5699;
498.3000;0.1644;0.5794;
498.6000;0.1644;0.5747;
498.9000;0.1612;0.5675;
499.2000;0.1636;0.5818;
499.5000;0.1628;0.5890;
499.8000;0.1652;0.5890;
500.1000;0.1620;0.5818;
500.4000;0.1620;0.5771;
500.7000;0.1604;0.5818;
501.0000;0.1612;0.5794;
501.3000;0.1644;0.5818;
501.6000;0.1628;0.5747;
501.9000;0.1636;0.5723;
502.2000;0.1701;0.5937;
502.5000;0.1628;0.5794;
502.8000;0.1612;0.5771;
503.1000;0.1636;0.5818;
503.4000;0.1612;0.5794;
503.7000;0.1628;0.5866;
504.0000;0.1644;0.5866;
504.3000;0.1612;0.5794;
504.6000;0.1734;0.6033;
504.9000;0.1628;0.5747;
505.2000;0.1677;0.5818;
505.5000;0.1612;0.5723;
505.8000;0.1604;0.5771;
506.1000;0.1636;0.5818;
506.4000;0.1628;0.5651;
506.7000;0.1644;0.5771;
507.0000;0.1612;0.5651;
507.3000;0.1595;0.5699;
507.6000;0.1620;0.5747;
507.9000;0.1604;0.5818;
508.2000;0.1620;0.5699;
508.5000;0.1636;0.5699;
508.8000;0.1587;0.5580;
509.1000;0.1612;0.5675;
509.4000;0.1498;0.5341;
509.7000;0.1628;0.5771;
510.0000;0.1571;0.5651;
510.3000;0.1628;0.5866;
510.6000;0.1620;0.5818;
510.9000;0.1604;0.5794;
511.2000;0.1620;0.5890;
511.5000;0.1530;0.5627;
511.8000;0.1571;0.5627;
512.1000;0.1636;0.5842;
512.4000;0.1587;0.5794;
512.7000;0.1628;0.5985;
513.0000;0.1628;0.5961;
513.3000;0.1644;0.5914;
513.6000;0.1644;0.5794;
513.9000;0.1620;0.5771;
514.2000;0.1604;0.5771;
514.5000;0.1620;0.5818;
514.8000;0.1538;0.5604;
515.1000;0.1620;0.5842;
515.4000;0.1595;0.5818;
515.7000;0.1612;0.5914;
516.0000;0.1604;0.5914;
516.3000;0.1628;0.5866;
516.6000;0.1547;0.5627;
516.9000;0.1604;0.5747;
517.2000;0.1636;0.5794;
517.5000;0.1620;0.5699;
517.8000;0.1620;0.5723;
518.1000;0.1636;0.5842;
518.4000;0.1628;0.5794;
518.7000;0.1612;0.5794;
519.0000;0.1620;0.5723;
519.3000;0.1620;0.5699;
519.6000;0.1571;0.5604;
519.9000;0.1628;0.5771;
520.2000;0.1612;0.5794;
520.5000;0.1620;0.5747;
520.8000;0.1612;0.5675;
521.1000;0.1620;0.5675;
521.4000;0.1628;0.5699;
521.7000;0.1628;0.5699;
522.0000;0.1620;0.5627;
522.3000;0.1644;0.5580;
522.6000;0.1604;0.5484;
522.9000;0.1612;0.5580;
523.2000;0.1628;0.5627;
523.5000;0.1571;0.5437;
523.8000;0.1628;0.5532;
524.1000;0.1612;0.5532;
524.4000;0.1628;0.5580;
524.7000;0.1644;0.5556;
525.0000;0.1636;0.5532;
525.3000;0.1620;0.5532;
525.6000;0.1604;0.5580;
525.9000;0.1620;0.5627;
526.2000;0.1612;0.5651;
526.5000;0.1604;0.5651;
526.8000;0.1636;0.5747;
527.1000;0.1571;0.5532;
527.4000;0.1620;0.5627;
527.7000;0.1490;0.5246;
528.0000;0.1620;0.5604;
528.3000;0.1612;0.5532;
528.6000;0.1620;0.5556;
528.9000;0.1620;0.5556;
529.2000;0.1685;0.5699;
529.5000;0.1620;0.5484;
529.8000;0.1620;0.5532;
530.1000;0.1628;0.5604;
530.4000;0.1530;0.5341;
530.7000;0.1628;0.5651;
531.0000;0.1604;0.5604;
531.3000;0.1701;0.5914;
531.6000;0.1612;0.5675;
531.9000;0.1661;0.5842;
532.2000;0.1604;0.5771;
532.5000;0.1620;0.5723;
532.8000;0.1628;0.5699;
533.1000;0.1612;0.5627;
533.4000;0.1718;0.5866;
533.7000;0.1628;0.5627;
534.0000;0.1620;0.5675;
534.3000;0.1620;0.5675;
534.6000;0.1579;0.5580;
534.9000;0.1620;0.5723;
535.2000;0.1636;0.5747;
535.5000;0.1726;0.5961;
535.8000;0.1612;0.5604;
536.1000;0.1579;0.5556;
536.4000;0.1587;0.5627;
536.7000;0.1604;0.5699;
537.0000;0.1604;0.5627;
537.3000;0.1522;0.5389;
537.6000;0.1620;0.5627;
537.9000;0.1612;0.5627;
538.2000;0.1620;0.5675;
538.5000;0.1652;0.5747;
538.8000;0.1636;0.5818;
539.1000;0.1604;0.5794;
539.4000;0.1571;0.5723;
539.7000;0.1620;0.5794;
540.0000;0.1636;0.5794;
540.3000;0.1620;0.5675;
540.6000;0.1636;0.5627;
540.9000;0.1620;0.5604;
541.2000;0.1620;0.5651;
541.5000;0.1522;0.5365;
541.8000;0.1612;0.5627;
542.1000;0.1604;0.5627;
542.4000;0.1571;0.5556;
542.7000;0.1620;0.5747;
543.0000;0.1612;0.5771;
543.3000;0.1612;0.5842;
543.6000;0.1628;0.5890;
543.9000;0.1620;0.5914;
544.2000;0.1604;0.5794;
544.5000;0.1612;0.5771;
544.8000;0.1628;0.5866;
545.1000;0.1595;0.5747;
545.4000;0.1620;0.5747;
545.7000;0.1595;0.5675;
546.0000;0.1628;0.5651;
546.3000;0.1604;0.5604;
546.6000;0.1604;0.5699;
546.9000;0.1612;0.5699;
547.2000;0.1595;0.5723;
547.5000;0.1604;0.5771;
547.8000;0.1555;0.5723;
548.1000;0.1636;0.5794;
548.4000;0.1506;0.5508;
548.7000;0.1612;0.5747;
549.0000;0.1604;0.5866;
549.3000;0.1604;0.5961;
549.6000;0.1636;0.5985;
549.9000;0.1604;0.5890;
550.2000;0.1620;0.5866;
550.5000;0.1595;0.5747;
550.8000;0.1612;0.5771;
551.1000;0.1661;0.5818;
551.4000;0.1595;0.5675;
551.7000;0.1612;0.5675;
552.0000;0.1612;0.5556;
552.3000;0.1636;0.5627;
552.6000;0.1571;0.5604;
552.9000;0.1661;0.5794;
553.2000;0.1612;0.5604;
553.5000;0.1604;0.5532;
553.8000;0.1644;0.5651;
554.1000;0.1612;0.5604;
554.4000;0.1628;0.5699;
554.7000;0.1604;0.5651;
555.0000;0.1661;0.5890;
555.3000;0.1628;0.5866;
555.6000;0.1644;0.5890;
555.9000;0.1652;0.5985;
556.2000;0.1612;0.5771;
556.5000;0.1587;0.5699;
556.8000;0.1644;0.5794;
557.1000;0.1612;0.5699;
557.4000;0.1612;0.5747;
557.7000;0.1636;0.5747;
558.0000;0.1644;0.5771;
558.3000;0.1571;0.5675;
558.6000;0.1612;0.5723;
558.9000;0.1661;0.5914;
559.2000;0.1620;0.5723;
559.5000;0.1547;0.5556;
559.8000;0.1595;0.5675;
560.1000;0.1636;0.5675;
560.4000;0.1620;0.5580;
560.7000;0.1620;0.5580;
561.0000;0.1620;0.5580;
561.3000;0.1612;0.5604;
561.6000;0.1644;0.5651;
561.9000;0.1620;0.5627;
562.2000;0.1579;0.5484;
562.5000;0.1620;0.5580;
562.8000;0.1612;0.5651;
563.1000;0.1612;0.5699;
563.4000;0.1522;0.5437;
563.7000;0.1612;0.5675;
564.0000;0.1612;0.5651;
564.3000;0.1595;0.5675;
564.6000;0.1604;0.5675;
564.9000;0.1620;0.5627;
565.2000;0.1644;0.5651;
565.5000;0.1579;0.5508;
565.8000;0.1612;0.5604;
566.1000;0.1620;0.5604;
566.4000;0.1555;0.5461;
566.7000;0.1620;0.5627;
567.0000;0.1604;0.5651;
567.3000;0.1604;0.5651;
567.6000;0.1620;0.5699;
567.9000;0.1636;0.5747;
568.2000;0.1620;0.5723;
568.5000;0.1595;0.5651;
568.8000;0.1620;0.5747;
569.1000;0.1612;0.5771;
569.4000;0.1636;0.5794;
569.7000;0.1612;0.5723;
570.0000;0.1612;0.5794;
570.3000;0.1612;0.5890;
570.6000;0.1604;0.5914;
570.9000;0.1628;0.6009;
571.2000;0.1547;0.5723;
571.5000;0.1604;0.5818;
571.8000;0.1620;0.5818;
572.1000;0.1644;0.5914;
572.4000;0.1612;0.5842;
572.7000;0.1612;0.5842;
573.0000;0.1612;0.5842;
573.3000;0.1612;0.5771;
573.6000;0.1620;0.5699;
573.9000;0.1612;0.5747;
574.2000;0.1612;0.5723;
574.5000;0.1620;0.5747;
574.8000;0.1620;0.5723;
575.1000;0.1481;0.5389;
575.4000;0.1604;0.5675;
575.7000;0.1644;0.5794;
576.0000;0.1620;0.5771;
576.3000;0.1587;0.5723;
576.6000;0.1620;0.5842;
576.9000;0.1604;0.5818;
577.2000;0.1612;0.5747;
577.5000;0.1661;0.5818;
577.8000;0.1612;0.5675;
578.1000;0.1595;0.5651;
578.4000;0.1612;0.5627;
578.7000;0.1628;0.5771;
579.0000;0.1612;0.5723;
579.3000;0.1604;0.5818;
579.6000;0.1612;0.5771;
579.9000;0.1595;0.5818;
580.2000;0.1595;0.5794;
580.5000;0.1628;0.5771;
580.8000;0.1620;0.5771;
581.1000;0.1636;0.5699;
581.4000;0.1612;0.5627;
581.7000;0.1620;0.5723;
582.0000;0.1612;0.5747;
582.3000;0.1620;0.5723;
582.6000;0.1595;0.5627;
582.9000;0.1612;0.5604;
583.2000;0.1628;0.5604;
583.5000;0.1661;0.5794;
583.8000;0.1612;0.5604;
584.1000;0.1620;0.5604;
584.4000;0.1628;0.5651;
584.7000;0.1628;0.5675;
585.0000;0.1628;0.5699;
585.3000;0.1604;0.5675;
585.6000;0.1612;0.5675;
585.9000;0.1612;0.5771;
586.2000;0.1726;0.6033;
586.5000;0.1612;0.5604;
586.8000;0.1620;0.5604;
587.1000;0.1644;0.5723;
587.4000;0.1620;0.5675;
587.7000;0.1652;0.5699;
588.0000;0.1620;0.5627;
588.3000;0.1652;0.5794;
588.6000;0.1612;0.5627;
588.9000;0.1677;0.5842;
589.2000;0.1620;0.5747;
589.5000;0.1612;0.5651;
589.8000;0.1620;0.5580;
590.1000;0.1620;0.5651;
590.4000;0.1620;0.5651;
590.7000;0.1628;0.5580;
591.0000;0.1612;0.5580;
591.3000;0.1612;0.5580;
591.6000;0.1628;0.5627;
591.9000;0.1612;0.5556;
592.2000;0.1571;0.5437;
592.5000;0.1612;0.5580;
592.8000;0.1620;0.5627;
593.1000;0.1628;0.5723;
593.4000;0.1595;0.5604;
593.7000;0.1612;0.5556;
594.0000;0.1620;0.5580;
594.3000;0.1620;0.5508;
594.6000;0.1628;0.5508;
594.9000;0.1669;0.5651;
595.2000;0.1628;0.5580;
595.5000;0.1628;0.5699;
595.8000;0.1612;0.5675;
596.1000;0.1530;0.5389;
596.4000;0.1595;0.5484;
596.7000;0.1709;0.5818;
597.0000;0.1620;0.5580;
597.3000;0.1620;0.5556;
597.6000;0.1612;0.5604;
597.9000;0.1612;0.5461;
598.2000;0.1628;0.5484;
598.5000;0.1628;0.5604;
598.8000;0.1604;0.5532;
599.1000;0.1612;0.5651;
599.4000;0.1636;0.5723;
599.7000;0.1636;0.5699;
600.0000;0.1604;0.5675;
600.3000;0.1563;0.5556;
600.6000;0.1604;0.5627;
600.9000;0.1595;0.5508;
601.2000;0.1604;0.5508;
601.5000;0.1595;0.5461;
601.8000;0.1595;0.5341;
602.1000;0.1587;0.5222;
602.4000;0.1620;0.5294;
602.7000;0.1571;0.5174;
603.0000;0.1587;0.5270;
603.3000;0.1587;0.5198;
603.6000;0.1538;0.4864;
603.9000;0.1652;0.5103;
604.2000;0.1595;0.4912;
604.5000;0.1579;0.4841;
604.8000;0.1530;0.4674;
605.1000;0.1579;0.4745;
605.4000;0.1571;0.4721;
605.7000;0.1579;0.4650;
606.0000;0.1547;0.4626;
606.3000;0.1530;0.4602;
606.6000;0.1579;0.4721;
606.9000;0.1628;0.4841;
607.2000;0.1547;0.4507;
607.5000;0.1620;0.4674;
607.8000;0.1538;0.4435;
608.1000;0.1555;0.4435;
608.4000;0.1498;0.4221;
608.7000;0.1547;0.4364;
609.0000;0.1547;0.4388;
609.3000;0.1547;0.4364;
609.6000;0.1547;0.4411;
609.9000;0.1547;0.4435;
610.2000;0.1547;0.4435;
610.5000;0.1538;0.4316;
610.8000;0.1449;0.3958;
611.1000;0.1555;0.4197;
611.4000;0.1538;0.4149;
611.7000;0.1514;0.4078;
612.0000;0.1555;0.4173;
612.3000;0.1555;0.4268;
612.6000;0.1547;0.4268;
612.9000;0.1514;0.4149;
613.2000;0.1538;0.4197;
613.5000;0.1555;0.4244;
613.8000;0.1530;0.4268;
614.1000;0.1547;0.4244;
614.4000;0.1538;0.4197;
614.7000;0.1555;0.4244;
615.0000;0.1522;0.4268;
615.3000;0.1555;0.4316;
615.6000;0.1538;0.4340;
615.9000;0.1571;0.4459;
616.2000;0.1547;0.4459;
616.5000;0.1555;0.4483;
616.8000;0.1547;0.4459;
617.1000;0.1530;0.4483;
617.4000;0.1538;0.4602;
617.7000;0.1555;0.4578;
618.0000;0.1530;0.4531;
618.3000;0.1530;0.4602;
618.6000;0.1538;0.4507;
618.9000;0.1522;0.4435;
619.2000;0.1530;0.4507;
619.5000;0.1530;0.4554;
619.8000;0.1538;0.4435;
620.1000;0.1595;0.4483;
620.4000;0.1538;0.4316;
620.7000;0.1547;0.4435;
621.0000;0.1547;0.4364;
621.3000;0.1612;0.4507;
621.6000;0.1547;0.4411;
621.9000;0.1530;0.4364;
622.2000;0.1555;0.4388;
622.5000;0.1547;0.4388;
622.8000;0.1514;0.4268;
623.1000;0.1522;0.4292;
623.4000;0.1555;0.4364;
623.7000;0.1538;0.4411;
624.0000;0.1547;0.4459;
624.3000;0.1571;0.4554;
624.6000;0.1522;0.4435;
624.9000;0.1490;0.4388;
625.2000;0.1563;0.4554;
625.5000;0.1538;0.4483;
625.8000;0.1530;0.4483;
626.1000;0.1416;0.4221;
626.4000;0.1547;0.4531;
626.7000;0.1595;0.4602;
627.0000;0.1530;0.4364;
627.3000;0.1514;0.4388;
627.6000;0.1490;0.4316;
627.9000;0.1579;0.4507;
628.2000;0.1538;0.4364;
628.5000;0.1563;0.4411;
628.8000;0.1530;0.4221;
629.1000;0.1538;0.4292;
629.4000;0.1563;0.4388;
629.7000;0.1498;0.4388;
630.0000;0.1530;0.4435;
630.3000;0.1538;0.4411;
630.6000;0.1555;0.4411;
630.9000;0.1538;0.4340;
631.2000;0.1620;0.4531;
631.5000;0.1555;0.4364;
631.8000;0.1530;0.4221;
632.1000;0.1595;0.4364;
632.4000;0.1530;0.4149;
632.7000;0.1571;0.4244;
633.0000;0.1538;0.4173;
633.3000;0.1538;0.4221;
633.6000;0.1522;0.4197;
633.9000;0.1522;0.4292;
634.2000;0.1498;0.4340;
634.5000;0.1522;0.4364;
634.8000;0.1530;0.4459;
635.1000;0.1514;0.4435;
635.4000;0.1522;0.4507;
635.7000;0.1538;0.4531;
636.0000;0.1555;0.4626;
636.3000;0.1514;0.4578;
636.6000;0.1547;0.4626;
636.9000;0.1547;0.4602;
637.2000;0.1538;0.4650;
637.5000;0.1530;0.4578;
637.8000;0.1547;0.4554;
638.1000;0.1530;0.4578;
638.4000;0.1530;0.4650;
638.7000;0.1514;0.4531;
639.0000;0.1530;0.4459;
639.3000;0.1538;0.4388;
639.6000;0.1530;0.4268;
639.9000;0.1530;0.4268;
640.2000;0.1522;0.4268;
640.5000;0.1506;0.4125;
640.8000;0.1547;0.4244;
641.1000;0.1530;0.4173;
641.4000;0.1538;0.4149;
641.7000;0.1644;0.4531;
642.0000;0.1538;0.4173;
642.3000;0.1530;0.4221;
642.6000;0.1538;0.4197;
642.9000;0.1530;0.4197;
643.2000;0.1538;0.4197;
643.5000;0.1530;0.4149;
643.8000;0.1530;0.4197;
644.1000;0.1547;0.4316;
644.4000;0.1522;0.4244;
644.7000;0.1530;0.4268;
645.0000;0.1490;0.4221;
645.3000;0.1555;0.4411;
645.6000;0.1538;0.4244;
645.9000;0.1547;0.4316;
646.2000;0.1530;0.4316;
646.5000;0.1522;0.4292;
646.8000;0.1538;0.4292;
647.1000;0.1522;0.4244;
647.4000;0.1538;0.4292;
647.7000;0.1547;0.4364;
648.0000;0.1506;0.4292;
648.3000;0.1506;0.4292;
648.6000;0.1547;0.4268;
648.9000;0.1538;0.4340;
649.2000;0.1530;0.4316;
649.5000;0.1465;0.4149;
649.8000;0.1449;0.4125;
650.1000;0.1530;0.4292;
650.4000;0.1457;0.4078;
650.7000;0.1506;0.4364;
651.0000;0.1425;0.4101;
651.3000;0.1522;0.4483;
651.6000;0.1506;0.4411;
651.9000;0.1538;0.4578;
652.2000;0.1490;0.4483;
652.5000;0.1571;0.4721;
652.8000;0.1555;0.4650;
653.1000;0.1522;0.4626;
653.4000;0.1604;0.4793;
653.7000;0.1522;0.4602;
654.0000;0.1530;0.4650;
654.3000;0.1457;0.4435;
654.6000;0.1522;0.4602;
654.9000;0.1555;0.4602;
655.2000;0.1538;0.4554;
655.5000;0.1538;0.4507;
655.8000;0.1522;0.4531;
656.1000;0.1530;0.4483;
656.4000;0.1498;0.4388;
656.7000;0.1522;0.4483;
657.0000;0.1538;0.4411;
657.3000;0.1433;0.4149;
657.6000;0.1514;0.4340;
657.9000;0.1514;0.4268;
658.2000;0.1522;0.4197;
658.5000;0.1555;0.4411;
658.8000;0.1530;0.4340;
659.1000;0.1506;0.4292;
659.4000;0.1571;0.4483;
659.7000;0.1514;0.4340;
660.0000;0.1547;0.4483;
660.3000;0.1530;0.4388;
660.6000;0.1530;0.4411;
660.9000;0.1514;0.4388;
661.2000;0.1522;0.4364;
661.5000;0.1530;0.4340;
661.8000;0.1522;0.4364;
662.1000;0.1530;0.4435;
662.4000;0.1530;0.4483;
662.7000;0.1547;0.4507;
663.0000;0.1547;0.4507;
663.3000;0.1522;0.4483;
663.6000;0.1571;0.4626;
663.9000;0.1530;0.4531;
664.2000;0.1555;0.4602;
664.5000;0.1522;0.4483;
664.8000;0.1498;0.4340;
665.1000;0.1538;0.4459;
665.4000;0.1530;0.4435;
665.7000;0.1620;0.4721;
666.0000;0.1530;0.4435;
666.3000;0.1522;0.4459;
666.6000;0.1563;0.4578;
666.9000;0.1522;0.4626;
667.2000;0.1530;0.4650;
667.5000;0.1522;0.4602;
667.8000;0.1547;0.4578;
668.1000;0.1579;0.4674;
668.4000;0.1490;0.4411;
668.7000;0.1498;0.4411;
669.0000;0.1530;0.4483;
669.3000;0.1522;0.4411;
669.6000;0.1538;0.4411;
669.9000;0.1530;0.4411;
670.2000;0.1555;0.4388;
670.5000;0.1514;0.4411;
670.8000;0.1530;0.4507;
671.1000;0.1530;0.4507;
671.4000;0.1522;0.4364;
671.7000;0.1538;0.4340;
672.0000;0.1538;0.4364;
672.3000;0.1530;0.4435;
672.6000;0.1522;0.4507;
672.9000;0.1530;0.4459;
673.2000;0.1522;0.4459;
673.5000;0.1563;0.4531;
673.8000;0.1628;0.4650;
674.1000;0.1522;0.4316;
674.4000;0.1563;0.4483;
674.7000;0.1563;0.4602;
675.0000;0.1620;0.4745;
675.3000;0.1498;0.4435;
675.6000;0.1457;0.4268;
675.9000;0.1571;0.4531;
676.2000;0.1530;0.4411;
676.5000;0.1522;0.4411;
676.8000;0.1547;0.4459;
677.1000;0.1579;0.4554;
677.4000;0.1538;0.4507;
677.7000;0.1547;0.4626;
678.0000;0.1530;0.4650;
678.3000;0.1604;0.4769;
678.6000;0.1514;0.4578;
678.9000;0.1522;0.4507;
679.2000;0.1538;0.4578;
679.5000;0.1530;0.4578;
679.8000;0.1563;0.4698;
680.1000;0.1563;0.4674;
680.4000;0.1538;0.4554;
680.7000;0.1522;0.4459;
681.0000;0.1514;0.4388;
681.3000;0.1522;0.4411;
681.6000;0.1522;0.4388;
681.9000;0.1538;0.4435;
682.2000;0.1530;0.4411;
682.5000;0.1506;0.4411;
682.8000;0.1514;0.4388;
683.1000;0.1514;0.4316;
683.4000;0.1538;0.4364;
683.7000;0.1530;0.4292;
684.0000;0.1530;0.4292;
684.3000;0.1538;0.4292;
684.6000;0.1498;0.4221;
684.9000;0.1530;0.4411;
685.2000;0.1530;0.4411;
685.5000;0.1530;0.4364;
685.8000;0.1498;0.4292;
686.1000;0.1538;0.4340;
686.4000;0.1538;0.4364;
686.7000;0.1530;0.4268;
687.0000;0.1530;0.4388;
687.3000;0.1514;0.4268;
687.6000;0.1522;0.4292;
687.9000;0.1416;0.4054;
688.2000;0.1547;0.4388;
688.5000;0.1514;0.4316;
688.8000;0.1538;0.4292;
689.1000;0.1449;0.3958;
689.4000;0.1522;0.4244;
689.7000;0.1522;0.4173;
690.0000;0.1457;0.3982;
690.3000;0.1514;0.4149;
690.6000;0.1547;0.4221;
690.9000;0.1408;0.3958;
691.2000;0.1530;0.4268;
691.5000;0.1530;0.4244;
691.8000;0.1506;0.4078;
692.1000;0.1547;0.4173;
692.4000;0.1538;0.4197;
692.7000;0.1538;0.4149;
693.0000;0.1652;0.4554;
693.3000;0.1563;0.4340;
693.6000;0.1530;0.4292;
693.9000;0.1530;0.4268;
694.2000;0.1514;0.4197;
694.5000;0.1530;0.4292;
694.8000;0.1538;0.4364;
695.1000;0.1555;0.4411;
695.4000;0.1547;0.4411;
695.7000;0.1506;0.4388;
696.0000;0.1538;0.4435;
696.3000;0.1538;0.4483;
696.6000;0.1530;0.4411;
696.9000;0.1547;0.4435;
697.2000;0.1530;0.4388;
697.5000;0.1473;0.4221;
697.8000;0.1563;0.4507;
698.1000;0.1530;0.4459;
698.4000;0.1530;0.4435;
698.7000;0.1571;0.4531;
699.0000;0.1522;0.4435;
699.3000;0.1522;0.4388;
699.6000;0.1538;0.4388;
699.9000;0.1530;0.4292;
700.2000;0.1490;0.4268;
700.5000;0.1530;0.4340;
700.8000;0.1522;0.4340;
701.1000;0.1530;0.4340;
701.4000;0.1538;0.4364;
701.7000;0.1514;0.4316;
702.0000;0.1530;0.4244;
702.3000;0.1538;0.4268;
702.6000;0.1530;0.4197;
702.9000;0.1530;0.4197;
703.2000;0.1514;0.4197;
703.5000;0.1498;0.4221;
703.8000;0.1522;0.4340;
704.1000;0.1522;0.4388;
704.4000;0.1514;0.4435;
704.7000;0.1514;0.4388;
705.0000;0.1506;0.4435;
705.3000;0.1530;0.4483;
705.6000;0.1514;0.4411;
705.9000;0.1506;0.4292;
706.2000;0.1490;0.4197;
706.5000;0.1522;0.4197;
706.8000;0.1506;0.4149;
707.1000;0.1514;0.4101;
707.4000;0.1620;0.4459;
707.7000;0.1530;0.4340;
708.0000;0.1530;0.4292;
708.3000;0.1506;0.4292;
708.6000;0.1522;0.4388;
708.9000;0.1506;0.4364;
709.2000;0.1530;0.4435;
709.5000;0.1538;0.4435;
709.8000;0.1547;0.4483;
710.1000;0.1522;0.4316;
710.4000;0.1498;0.4244;
710.7000;0.1538;0.4316;
711.0000;0.1506;0.4244;
711.3000;0.1506;0.4268;
711.6000;0.1530;0.4316;
711.9000;0.1522;0.4221;
712.2000;0.1538;0.4221;
712.5000;0.1538;0.4173;
712.8000;0.1555;0.4197;
713.1000;0.1530;0.4173;
713.4000;0.1538;0.4292;
713.7000;0.1514;0.4340;
714.0000;0.1490;0.4364;
714.3000;0.1538;0.4459;
714.6000;0.1514;0.4388;
714.9000;0.1408;0.4078;
715.2000;0.1547;0.4364;
715.5000;0.1522;0.4340;
715.8000;0.1530;0.4364;
716.1000;0.1400;0.4006;
716.4000;0.1530;0.4340;
716.7000;0.1530;0.4221;
717.0000;0.1473;0.4030;
717.3000;0.1506;0.4078;
717.6000;0.1522;0.4197;
717.9000;0.1514;0.4173;
718.2000;0.1441;0.4030;
718.5000;0.1506;0.4221;
718.8000;0.1530;0.4268;
719.1000;0.1530;0.4244;
719.4000;0.1644;0.4531;
719.7000;0.1530;0.4197;
720.0000;0.1522;0.4197;
720.3000;0.1514;0.4197;
720.6000;0.1514;0.4316;
720.9000;0.1506;0.4268;
721.2000;0.1514;0.4244;
721.5000;0.1514;0.4173;
721.8000;0.1514;0.4197;
722.1000;0.1514;0.4221;
722.4000;0.1506;0.4268;
722.7000;0.1563;0.4364;
723.0000;0.1547;0.4364;
723.3000;0.1538;0.4316;
723.6000;0.1530;0.4364;
723.9000;0.1530;0.4388;
724.2000;0.1514;0.4411;
724.5000;0.1514;0.4340;
724.8000;0.1595;0.4554;
725.1000;0.1530;0.4435;
725.4000;0.1530;0.4292;
725.7000;0.1530;0.4316;
726.0000;0.1538;0.4340;
726.3000;0.1506;0.4221;
726.6000;0.1514;0.4292;
726.9000;0.1522;0.4340;
727.2000;0.1547;0.4388;
727.5000;0.1522;0.4364;
727.8000;0.1506;0.4316;
728.1000;0.1506;0.4292;
728.4000;0.1530;0.4292;
728.7000;0.1514;0.4173;
729.0000;0.1506;0.4173;
729.3000;0.1514;0.4197;
729.6000;0.1522;0.4221;
729.9000;0.1506;0.4149;
730.2000;0.1538;0.4292;
730.5000;0.1522;0.4221;
730.8000;0.1506;0.4149;
731.1000;0.1522;0.4244;
731.4000;0.1506;0.4244;
731.7000;0.1522;0.4268;
732.0000;0.1538;0.4268;
732.3000;0.1506;0.4173;
732.6000;0.1530;0.4125;
732.9000;0.1538;0.4078;
733.2000;0.1522;0.4030;
733.5000;0.1514;0.4101;
733.8000;0.1538;0.4244;
734.1000;0.1506;0.4221;
734.4000;0.1530;0.4221;
734.7000;0.1522;0.4149;
735.0000;0.1522;0.4149;
735.3000;0.1530;0.4268;
735.6000;0.1522;0.4244;
735.9000;0.1538;0.4268;
736.2000;0.1538;0.4244;
736.5000;0.1449;0.3958;
736.8000;0.1555;0.4316;
737.1000;0.1563;0.4340;
737.4000;0.1547;0.4364;
737.7000;0.1514;0.4292;
738.0000;0.1563;0.4388;
738.3000;0.1530;0.4340;
738.6000;0.1506;0.4292;
738.9000;0.1530;0.4388;
739.2000;0.1506;0.4221;
739.5000;0.1425;0.4078;
739.8000;0.1490;0.4149;
740.1000;0.1506;0.4197;
740.4000;0.1547;0.4292;
740.7000;0.1530;0.4197;
741.0000;0.1563;0.4221;
741.3000;0.1473;0.4054;
741.6000;0.1538;0.4197;
741.9000;0.1506;0.4173;
742.2000;0.1506;0.4149;
742.5000;0.1522;0.4197;
742.8000;0.1547;0.4316;
743.1000;0.1530;0.4268;
743.4000;0.1506;0.4316;
743.7000;0.1384;0.3958;
744.0000;0.1530;0.4268;
744.3000;0.1506;0.4149;
744.6000;0.1514;0.4149;
744.9000;0.1555;0.4292;
745.2000;0.1530;0.4221;
745.5000;0.1441;0.4006;
745.8000;0.1416;0.4054;
746.1000;0.1555;0.4483;
746.4000;0.1530;0.4483;
746.7000;0.1530;0.4459;
747.0000;0.1555;0.4483;
747.3000;0.1547;0.4411;
747.6000;0.1547;0.4340;
747.9000;0.1547;0.4388;
748.2000;0.1571;0.4364;
748.5000;0.1530;0.4244;
748.8000;0.1473;0.4221;
749.1000;0.1530;0.4316;
749.4000;0.1514;0.4340;
749.7000;0.1530;0.4340;
750.0000;0.1538;0.4388;
750.3000;0.1636;0.4674;
750.6000;0.1530;0.4316;
750.9000;0.1522;0.4292;
751.2000;0.1441;0.4173;
751.5000;0.1449;0.4197;
751.8000;0.1522;0.4388;
752.1000;0.1547;0.4411;
752.4000;0.1530;0.4316;
752.7000;0.1522;0.4340;
753.0000;0.1538;0.4411;
753.3000;0.1530;0.4340;
753.6000;0.1563;0.4388;
753.9000;0.1530;0.4292;
754.2000;0.1514;0.4197;
754.5000;0.1530;0.4292;
754.8000;0.1514;0.4316;
755.1000;0.1514;0.4268;
755.4000;0.1522;0.4316;
755.7000;0.1538;0.4411;
756.0000;0.1538;0.4411;
756.3000;0.1506;0.4316;
756.6000;0.1530;0.4340;
756.9000;0.1547;0.4388;
757.2000;0.1506;0.4292;
757.5000;0.1522;0.4244;
757.8000;0.1547;0.4340;
758.1000;0.1555;0.4316;
758.4000;0.1522;0.4244;
758.7000;0.1522;0.4292;
759.0000;0.1506;0.4244;
759.3000;0.1514;0.4292;
759.6000;0.1538;0.4364;
759.9000;0.1579;0.4554;
760.2000;0.1530;0.4388;
760.5000;0.1530;0.4340;
760.8000;0.1563;0.4388;
761.1000;0.1457;0.4006;
761.4000;0.1530;0.4149;
761.7000;0.1547;0.4125;
762.0000;0.1514;0.4054;
762.3000;0.1595;0.4173;
762.6000;0.1547;0.4054;
762.9000;0.1514;0.4030;
763.2000;0.1425;0.3768;
763.5000;0.1538;0.4268;
763.8000;0.1514;0.4221;
764.1000;0.1522;0.4316;
764.4000;0.1514;0.4268;
764.7000;0.1604;0.4531;
765.0000;0.1538;0.4340;
765.3000;0.1530;0.4268;
765.6000;0.1514;0.4125;
765.9000;0.1522;0.4125;
766.2000;0.1563;0.4316;
766.5000;0.1506;0.4149;
766.8000;0.1441;0.4030;
767.1000;0.1514;0.4221;
767.4000;0.1522;0.4221;
767.7000;0.1473;0.4078;
768.0000;0.1555;0.4388;
768.3000;0.1498;0.4268;
768.6000;0.1547;0.4316;
768.9000;0.1522;0.4244;
769.2000;0.1538;0.4292;
769.5000;0.1530;0.4173;
769.8000;0.1595;0.4292;
770.1000;0.1522;0.4197;
770.4000;0.1522;0.4125;
770.7000;0.1514;0.4078;
771.0000;0.1530;0.4173;
771.3000;0.1547;0.4221;
771.6000;0.1522;0.4244;
771.9000;0.1498;0.4149;
772.2000;0.1530;0.4221;
772.5000;0.1587;0.4388;
772.8000;0.1514;0.4268;
773.1000;0.1457;0.4125;
773.4000;0.1530;0.4316;
773.7000;0.1579;0.4626;
774.0000;0.1522;0.4554;
774.3000;0.1465;0.4411;
774.6000;0.1522;0.4626;
774.9000;0.1514;0.4531;
775.2000;0.1465;0.4268;
775.5000;0.1530;0.4316;
775.8000;0.1506;0.4244;
776.1000;0.1506;0.4244;
776.4000;0.1490;0.4244;
776.7000;0.1538;0.4316;
777.0000;0.1538;0.4340;
777.3000;0.1587;0.4507;
777.6000;0.1506;0.4340;
777.9000;0.1530;0.4388;
778.2000;0.1522;0.4221;
778.5000;0.1490;0.4173;
778.8000;0.1514;0.4292;
779.1000;0.1522;0.4316;
779.4000;0.1530;0.4244;
779.7000;0.1490;0.4125;
780.0000;0.1522;0.4292;
780.3000;0.1530;0.4316;
780.6000;0.1547;0.4435;
780.9000;0.1530;0.4364;
781.2000;0.1514;0.4316;
781.5000;0.1538;0.4411;
781.8000;0.1506;0.4364;
782.1000;0.1465;0.4244;
782.4000;0.1538;0.4364;
782.7000;0.1514;0.4411;
783.0000;0.1628;0.4698;
783.3000;0.1530;0.4507;
783.6000;0.1506;0.4340;
783.9000;0.1538;0.4340;
784.2000;0.1522;0.4340;
784.5000;0.1514;0.4292;
784.8000;0.1555;0.4388;
785.1000;0.1522;0.4364;
785.4000;0.1506;0.4244;
785.7000;0.1555;0.4340;
786.0000;0.1587;0.4388;
786.3000;0.1547;0.4268;
786.6000;0.1506;0.4173;
786.9000;0.1530;0.4268;
787.2000;0.1498;0.4197;
787.5000;0.1522;0.4244;
787.8000;0.1522;0.4221;
788.1000;0.1538;0.4316;
788.4000;0.1530;0.4292;
788.7000;0.1595;0.4435;
789.0000;0.1604;0.4459;
789.3000;0.1514;0.4244;
789.6000;0.1514;0.4292;
789.9000;0.1530;0.4340;
790.2000;0.1530;0.4292;
790.5000;0.1547;0.4364;
790.8000;0.1644;0.4578;
791.1000;0.1538;0.4292;
791.4000;0.1506;0.4244;
791.7000;0.1465;0.4173;
792.0000;0.1530;0.4340;
792.3000;0.1522;0.4340;
792.6000;0.1538;0.4364;
792.9000;0.1465;0.4149;
793.2000;0.1506;0.4292;
793.5000;0.1522;0.4435;
793.8000;0.1457;0.4364;
794.1000;0.1547;0.4626;
794.4000;0.1530;0.4602;
794.7000;0.1547;0.4626;
795.0000;0.1514;0.4531;
795.3000;0.1514;0.4507;
795.6000;0.1522;0.4554;
795.9000;0.1547;0.4626;
796.2000;0.1530;0.4578;
796.5000;0.1514;0.4507;
796.8000;0.1514;0.4459;
797.1000;0.1547;0.4531;
797.4000;0.1555;0.4626;
797.7000;0.1522;0.4602;
798.0000;0.1530;0.4721;
798.3000;0.1506;0.4650;
798.6000;0.1506;0.4674;
798.9000;0.1506;0.4554;
799.2000;0.1530;0.4578;
799.5000;0.1547;0.4602;
799.8000;0.1522;0.4459;
800.1000;0.1555;0.4507;
800.4000;0.1530;0.4364;
800.7000;0.1498;0.4221;
801.0000;0.1522;0.4292;
801.3000;0.1530;0.4268;
801.6000;0.1538;0.4340;
801.9000;0.1530;0.4340;
802.2000;0.1522;0.4340;
802.5000;0.1652;0.4626;
802.8000;0.1538;0.4316;
803.1000;0.1514;0.4197;
803.4000;0.1547;0.4149;
803.7000;0.1547;0.4173;
804.0000;0.1547;0.4292;
804.3000;0.1514;0.4221;
804.6000;0.1522;0.4268;
804.9000;0.1514;0.4268;
805.2000;0.1530;0.4388;
805.5000;0.1538;0.4411;
805.8000;0.1604;0.4483;
806.1000;0.1555;0.4244;
806.4000;0.1530;0.4244;
806.7000;0.1555;0.4388;
807.0000;0.1547;0.4411;
807.3000;0.1538;0.4435;
807.6000;0.1522;0.4531;
807.9000;0.1514;0.4531;
808.2000;0.1514;0.4554;
808.5000;0.1506;0.4483;
808.8000;0.1457;0.4411;
809.1000;0.1473;0.4388;
809.4000;0.1498;0.4459;
809.7000;0.1522;0.4459;
810.0000;0.1498;0.4316;
810.3000;0.1530;0.4364;
810.6000;0.1530;0.4173;
810.9000;0.1538;0.4173;
811.2000;0.1538;0.4149;
811.5000;0.1522;0.4149;
811.8000;0.1530;0.4316;
812.1000;0.1530;0.4268;
812.4000;0.1547;0.4411;
812.7000;0.1555;0.4435;
813.0000;0.1522;0.4459;
813.3000;0.1522;0.4459;
813.6000;0.1530;0.4435;
813.9000;0.1530;0.4388;
814.2000;0.1522;0.4316;
814.5000;0.1522;0.4292;
814.8000;0.1506;0.4268;
815.1000;0.1547;0.4459;
815.4000;0.1530;0.4411;
815.7000;0.1530;0.4435;
816.0000;0.1416;0.4101;
816.3000;0.1547;0.4316;
816.6000;0.1538;0.4292;
816.9000;0.1530;0.4292;
817.2000;0.1547;0.4268;
817.5000;0.1538;0.4244;
817.8000;0.1530;0.4316;
818.1000;0.1547;0.4340;
818.4000;0.1522;0.4244;
818.7000;0.1547;0.4292;
819.0000;0.1498;0.4149;
819.3000;0.1530;0.4221;
819.6000;0.1522;0.4197;
819.9000;0.1514;0.4244;
820.2000;0.1538;0.4292;
820.5000;0.1530;0.4340;
820.8000;0.1514;0.4292;
821.1000;0.1514;0.4244;
821.4000;0.1538;0.4364;
821.7000;0.1555;0.4411;
822.0000;0.1530;0.4316;
822.3000;0.1514;0.4364;
822.6000;0.1547;0.4531;
822.9000;0.1530;0.4459;
823.2000;0.1530;0.4554;
823.5000;0.1514;0.4483;
823.8000;0.1506;0.4459;
824.1000;0.1538;0.4507;
824.4000;0.1563;0.4483;
824.7000;0.1522;0.4388;
825.0000;0.1555;0.4388;
825.3000;0.1530;0.4292;
825.6000;0.1547;0.4316;
825.9000;0.1522;0.4244;
826.2000;0.1538;0.4244;
826.5000;0.1530;0.4244;
826.8000;0.1408;0.3911;
827.1000;0.1530;0.4149;
827.4000;0.1538;0.4125;
827.7000;0.1571;0.4197;
828.0000;0.1522;0.4101;
828.3000;0.1514;0.4173;
828.6000;0.1522;0.4197;
828.9000;0.1522;0.4244;
829.2000;0.1514;0.4173;
829.5000;0.1538;0.4244;
829.8000;0.1465;0.4078;
830.1000;0.1514;0.4292;
830.4000;0.1530;0.4316;
830.7000;0.1522;0.4292;
831.0000;0.1563;0.4316;
831.3000;0.1522;0.4197;
831.6000;0.1522;0.4268;
831.9000;0.1538;0.4340;
832.2000;0.1530;0.4364;
832.5000;0.1530;0.4388;
832.8000;0.1538;0.4507;
833.1000;0.1522;0.4483;
833.4000;0.1522;0.4459;
833.7000;0.1522;0.4316;
834.0000;0.1555;0.4388;
834.3000;0.1538;0.4507;
834.6000;0.1538;0.4435;
834.9000;0.1538;0.4483;
835.2000;0.1465;0.4292;
835.5000;0.1547;0.4435;
835.8000;0.1514;0.4316;
836.1000;0.1538;0.4268;
836.4000;0.1473;0.4101;
836.7000;0.1441;0.4101;
837.0000;0.1522;0.4364;
837.3000;0.1514;0.4268;
837.6000;0.1547;0.4411;
837.9000;0.1579;0.4459;
838.2000;0.1490;0.4316;
838.5000;0.1530;0.4435;
838.8000;0.1538;0.4411;
839.1000;0.1522;0.4340;
839.4000;0.1604;0.4459;
839.7000;0.1538;0.4340;
840.0000;0.1433;0.3934;
840.3000;0.1538;0.4244;
840.6000;0.1530;0.4268;
840.9000;0.1530;0.4316;
841.2000;0.1547;0.4411;
841.5000;0.1506;0.4411;
841.8000;0.1498;0.4364;
842.1000;0.1530;0.4364;
842.4000;0.1506;0.4244;
842.7000;0.1538;0.4364;
843.0000;0.1514;0.4292;
843.3000;0.1530;0.4316;
843.6000;0.1538;0.4292;
843.9000;0.1514;0.4268;
844.2000;0.1530;0.4292;
844.5000;0.1522;0.4221;
844.8000;0.1538;0.4173;
845.1000;0.1514;0.4006;
845.4000;0.1538;0.4030;
845.7000;0.1522;0.4006;
846.0000;0.1538;0.4078;
846.3000;0.1538;0.4125;
846.6000;0.1530;0.4149;
846.9000;0.1522;0.4173;
847.2000;0.1522;0.4197;
847.5000;0.1530;0.4244;
847.8000;0.1522;0.4197;
848.1000;0.1522;0.4197;
848.4000;0.1620;0.4507;
848.7000;0.1530;0.4268;
849.0000;0.1514;0.4292;
849.3000;0.1530;0.4316;
849.6000;0.1530;0.4292;
849.9000;0.1555;0.4268;
850.2000;0.1522;0.4197;
850.5000;0.1522;0.4221;
850.8000;0.1538;0.4197;
851.1000;0.1538;0.4173;
851.4000;0.1530;0.4125;
851.7000;0.1530;0.4221;
852.0000;0.1514;0.4173;
852.3000;0.1538;0.4316;
852.6000;0.1547;0.4388;
852.9000;0.1506;0.4173;
853.2000;0.1530;0.4244;
853.5000;0.1522;0.4292;
853.8000;0.1604;0.4435;
854.1000;0.1547;0.4292;
854.4000;0.1514;0.4292;
854.7000;0.1522;0.4244;
855.0000;0.1547;0.4340;
855.3000;0.1538;0.4340;
855.6000;0.1514;0.4316;
855.9000;0.1514;0.4340;
856.2000;0.1530;0.4364;
856.5000;0.1538;0.4316;
856.8000;0.1538;0.4411;
857.1000;0.1522;0.4340;
857.4000;0.1522;0.4244;
857.7000;0.1514;0.4244;
858.0000;0.1538;0.4316;
858.3000;0.1530;0.4244;
858.6000;0.1514;0.4197;
858.9000;0.1538;0.4316;
859.2000;0.1522;0.4292;
859.5000;0.1538;0.4244;
859.8000;0.1530;0.4268;
860.1000;0.1498;0.4340;
860.4000;0.1563;0.4507;
860.7000;0.1522;0.4483;
861.0000;0.1514;0.4459;
861.3000;0.1425;0.4221;
861.6000;0.1538;0.4507;
861.9000;0.1522;0.4483;
862.2000;0.1530;0.4531;
862.5000;0.1547;0.4531;
862.8000;0.1644;0.4817;
863.1000;0.1522;0.4483;
863.4000;0.1441;0.4292;
863.7000;0.1522;0.4459;
864.0000;0.1514;0.4507;
864.3000;0.1522;0.4411;
864.6000;0.1514;0.4340;
864.9000;0.1530;0.4316;
865.2000;0.1530;0.4292;
865.5000;0.1530;0.4268;
865.8000;0.1555;0.4364;
866.1000;0.1506;0.4173;
866.4000;0.1530;0.4268;
866.7000;0.1538;0.4316;
867.0000;0.1547;0.4316;
867.3000;0.1522;0.4292;
867.6000;0.1538;0.4316;
867.9000;0.1473;0.4054;
868.2000;0.1522;0.4078;
868.5000;0.1465;0.3887;
868.8000;0.1530;0.4054;
869.1000;0.1538;0.4054;
869.4000;0.1465;0.3839;
869.7000;0.1441;0.3791;
870.0000;0.1522;0.4030;
870.3000;0.1652;0.4435;
870.6000;0.1612;0.4292;
870.9000;0.1530;0.4125;
871.2000;0.1530;0.4101;
871.5000;0.1522;0.4173;
871.8000;0.1538;0.4244;
872.1000;0.1530;0.4268;
872.4000;0.1547;0.4316;
872.7000;0.1530;0.4268;
873.0000;0.1547;0.4292;
873.3000;0.1522;0.4268;
873.6000;0.1522;0.4173;
873.9000;0.1530;0.4244;
874.2000;0.1514;0.4173;
874.5000;0.1555;0.4292;
874.8000;0.1530;0.4173;
875.1000;0.1530;0.4244;
875.4000;0.1522;0.4292;
875.7000;0.1530;0.4340;
876.0000;0.1506;0.4197;
876.3000;0.1514;0.4173;
876.6000;0.1506;0.4173;
876.9000;0.1514;0.4244;
877.2000;0.1530;0.4268;
877.5000;0.1530;0.4244;
877.8000;0.1506;0.4173;
878.1000;0.1538;0.4197;
878.4000;0.1538;0.4173;
878.7000;0.1547;0.4221;
879.0000;0.1514;0.4149;
879.3000;0.1538;0.4149;
879.6000;0.1563;0.4173;
879.9000;0.1514;0.4054;
880.2000;0.1425;0.3863;
880.5000;0.1514;0.4101;
880.8000;0.1604;0.4411;
881.1000;0.1547;0.4173;
881.4000;0.1595;0.4268;
881.7000;0.1481;0.3911;
882.0000;0.1514;0.3958;
882.3000;0.1563;0.4101;
882.6000;0.1547;0.4030;
882.9000;0.1530;0.4054;
883.2000;0.1490;0.3982;
883.5000;0.1595;0.4364;
883.8000;0.1538;0.4268;
884.1000;0.1530;0.4292;
884.4000;0.1514;0.4316;
884.7000;0.1595;0.4507;
885.0000;0.1530;0.4388;
885.3000;0.1506;0.4340;
885.6000;0.1514;0.4340;
885.9000;0.1571;0.4483;
886.2000;0.1538;0.4340;
886.5000;0.1530;0.4197;
886.8000;0.1547;0.4173;
887.1000;0.1530;0.4054;
887.4000;0.1530;0.4197;
887.7000;0.1571;0.4292;
888.0000;0.1530;0.4221;
888.3000;0.1522;0.4173;
888.6000;0.1522;0.4149;
888.9000;0.1522;0.4221;
889.2000;0.1530;0.4268;
889.5000;0.1547;0.4340;
889.8000;0.1538;0.4340;
890.1000;0.1522;0.4316;
890.4000;0.1555;0.4340;
890.7000;0.1514;0.4316;
891.0000;0.1530;0.4411;
891.3000;0.1530;0.4483;
891.6000;0.1530;0.4459;
891.9000;0.1530;0.4388;
892.2000;0.1522;0.4316;
892.5000;0.1481;0.4197;
892.8000;0.1514;0.4292;
893.1000;0.1441;0.4054;
893.4000;0.1547;0.4221;
893.7000;0.1522;0.4197;
894.0000;0.1506;0.4078;
894.3000;0.1579;0.4221;
894.6000;0.1522;0.4149;
894.9000;0.1538;0.4268;
895.2000;0.1408;0.3982;
895.5000;0.1563;0.4292;
895.8000;0.1522;0.4149;
896.1000;0.1538;0.4173;
896.4000;0.1547;0.4244;
896.7000;0.1547;0.4340;
897.0000;0.1514;0.4292;
897.3000;0.1538;0.4340;
897.6000;0.1547;0.4364;
897.9000;0.1522;0.4340;
898.2000;0.1547;0.4388;
898.5000;0.1498;0.4316;
898.8000;0.1530;0.4340;
899.1000;0.1506;0.4364;
899.4000;0.1522;0.4316;
899.7000;0.1604;0.4531;
900.0000;0.1538;0.4340;
900.3000;0.1555;0.4411;
900.6000;0.1547;0.4292;
900.9000;0.1522;0.4197;
901.2000;0.1433;0.3934;
901.5000;0.1473;0.4030;
901.8000;0.1587;0.4316;
902.1000;0.1498;0.4078;
902.4000;0.1555;0.4197;
902.7000;0.1449;0.3863;
903.0000;0.1555;0.4149;
903.3000;0.1514;0.4054;
903.6000;0.1457;0.3911;
903.9000;0.1579;0.4197;
904.2000;0.1604;0.4268;
904.5000;0.1538;0.4054;
904.8000;0.1620;0.4364;
905.1000;0.1522;0.4078;
905.4000;0.1522;0.3958;
905.7000;0.1522;0.4030;
906.0000;0.1522;0.4030;
906.3000;0.1522;0.4054;
906.6000;0.1530;0.4101;
906.9000;0.1538;0.4149;
907.2000;0.1506;0.4125;
907.5000;0.1514;0.4125;
907.8000;0.1514;0.4054;
908.1000;0.1555;0.4149;
908.4000;0.1538;0.4125;
908.7000;0.1506;0.4030;
909.0000;0.1587;0.4221;
909.3000;0.1522;0.4101;
909.6000;0.1522;0.4030;
909.9000;0.1538;0.4078;
910.2000;0.1538;0.4078;
910.5000;0.1514;0.4054;
910.8000;0.1530;0.4173;
911.1000;0.1547;0.4244;
911.4000;0.1498;0.4149;
911.7000;0.1522;0.4149;
912.0000;0.1547;0.4125;
912.3000;0.1522;0.4149;
912.6000;0.1514;0.4101;
912.9000;0.1506;0.4125;
913.2000;0.1522;0.4221;
913.5000;0.1538;0.4364;
913.8000;0.1530;0.4388;
914.1000;0.1506;0.4268;
914.4000;0.1506;0.4221;
914.7000;0.1530;0.4244;
915.0000;0.1522;0.4149;
915.3000;0.1506;0.3958;
915.6000;0.1514;0.3887;
915.9000;0.1547;0.3958;
916.2000;0.1530;0.4125;
916.5000;0.1506;0.4125;
916.8000;0.1538;0.4173;
917.1000;0.1530;0.4125;
917.4000;0.1522;0.4101;
917.7000;0.1538;0.4197;
918.0000;0.1490;0.4125;
918.3000;0.1538;0.4244;
918.6000;0.1547;0.4292;
918.9000;0.1547;0.4221;
919.2000;0.1530;0.4149;
919.5000;0.1538;0.4078;
919.8000;0.1555;0.4197;
920.1000;0.1587;0.4364;
920.4000;0.1530;0.4244;
920.7000;0.1522;0.4316;
921.0000;0.1514;0.4364;
921.3000;0.1522;0.4364;
921.6000;0.1530;0.4316;
921.9000;0.1514;0.4316;
922.2000;0.1522;0.4316;
922.5000;0.1498;0.4221;
922.8000;0.1538;0.4316;
923.1000;0.1530;0.4340;
923.4000;0.1506;0.4268;
923.7000;0.1506;0.4197;
924.0000;0.1538;0.4364;
924.3000;0.1514;0.4268;
924.6000;0.1530;0.4316;
924.9000;0.1547;0.4316;
925.2000;0.1473;0.4125;
925.5000;0.1490;0.4197;
925.8000;0.1587;0.4388;
926.1000;0.1506;0.4292;
926.4000;0.1506;0.4316;
926.7000;0.1620;0.4531;
927.0000;0.1612;0.4531;
927.3000;0.1498;0.4078;
927.6000;0.1530;0.4030;
927.9000;0.1506;0.4030;
928.2000;0.1530;0.4125;
928.5000;0.1563;0.4197;
928.8000;0.1498;0.4078;
929.1000;0.1587;0.4244;
929.4000;0.1547;0.4221;
929.7000;0.1538;0.4197;
930.0000;0.1514;0.4054;
930.3000;0.1530;0.4054;
930.6000;0.1530;0.4006;
930.9000;0.1490;0.3934;
931.2000;0.1547;0.4101;
931.5000;0.1538;0.4030;
931.8000;0.1522;0.4006;
932.1000;0.1555;0.4101;
932.4000;0.1530;0.4054;
932.7000;0.1547;0.4101;
933.0000;0.1530;0.4030;
933.3000;0.1522;0.4006;
933.6000;0.1538;0.4149;
933.9000;0.1506;0.3958;
934.2000;0.1514;0.4030;
934.5000;0.1538;0.4125;
934.8000;0.1522;0.4078;
935.1000;0.1571;0.4173;
935.4000;0.1538;0.4078;
935.7000;0.1530;0.4125;
936.0000;0.1522;0.4149;
936.3000;0.1506;0.4078;
936.6000;0.1473;0.3958;
936.9000;0.1547;0.4221;
937.2000;0.1604;0.4388;
937.5000;0.1538;0.4268;
937.8000;0.1522;0.4221;
938.1000;0.1498;0.4101;
938.4000;0.1530;0.4125;
938.7000;0.1506;0.3982;
939.0000;0.1514;0.3982;
939.3000;0.1563;0.3958;
939.6000;0.1416;0.3601;
939.9000;0.1514;0.3791;
940.2000;0.1595;0.3958;
940.5000;0.1449;0.3672;
940.8000;0.1555;0.3958;
941.1000;0.1506;0.3839;
941.4000;0.1530;0.3958;
941.7000;0.1530;0.4006;
942.0000;0.1506;0.4030;
942.3000;0.1514;0.4054;
942.6000;0.1506;0.4054;
942.9000;0.1538;0.4197;
943.2000;0.1498;0.4054;
943.5000;0.1547;0.4244;
943.8000;0.1514;0.4101;
944.1000;0.1530;0.4101;
944.4000;0.1522;0.4054;
944.7000;0.1530;0.4030;
945.0000;0.1547;0.4078;
945.3000;0.1547;0.4030;
945.6000;0.1661;0.4364;
945.9000;0.1547;0.4030;
946.2000;0.1514;0.3982;
946.5000;0.1579;0.4149;
946.8000;0.1522;0.4030;
947.1000;0.1514;0.3982;
947.4000;0.1522;0.4006;
947.7000;0.1416;0.3696;
948.0000;0.1506;0.3958;
948.3000;0.1579;0.4173;
948.6000;0.1514;0.4030;
948.9000;0.1547;0.4078;
949.2000;0.1530;0.4054;
949.5000;0.1538;0.4006;
949.8000;0.1538;0.3982;
950.1000;0.1514;0.3982;
950.4000;0.1547;0.4101;
950.7000;0.1514;0.4173;
951.0000;0.1555;0.4268;
951.3000;0.1522;0.4221;
951.6000;0.1457;0.4054;
951.9000;0.1547;0.4244;
952.2000;0.1530;0.4173;
952.5000;0.1530;0.4149;
952.8000;0.1538;0.4244;
953.1000;0.1538;0.4197;
953.4000;0.1465;0.3934;
953.7000;0.1514;0.4054;
954.0000;0.1530;0.4054;
954.3000;0.1563;0.4173;
954.6000;0.1530;0.4221;
954.9000;0.1522;0.4340;
955.2000;0.1538;0.4292;
955.5000;0.1522;0.4388;
955.8000;0.1506;0.4388;
956.1000;0.1514;0.4388;
956.4000;0.1457;0.4173;
956.7000;0.1522;0.4149;
957.0000;0.1538;0.4173;
957.3000;0.1498;0.4149;
957.6000;0.1522;0.4197;
957.9000;0.1612;0.4435;
958.2000;0.1530;0.4173;
958.5000;0.1530;0.4221;
958.8000;0.1506;0.4221;
959.1000;0.1547;0.4316;
959.4000;0.1547;0.4244;
959.7000;0.1563;0.4244;
960.0000;0.1547;0.4221;
960.3000;0.1530;0.4078;
960.6000;0.1522;0.4101;
960.9000;0.1514;0.4101;
961.2000;0.1555;0.4244;
961.5000;0.1514;0.4221;
961.8000;0.1506;0.4149;
962.1000;0.1538;0.4173;
962.4000;0.1506;0.4197;
962.7000;0.1530;0.4197;
963.0000;0.1514;0.4221;
963.3000;0.1449;0.4101;
963.6000;0.1530;0.4340;
963.9000;0.1522;0.4316;
964.2000;0.1571;0.4459;
964.5000;0.1433;0.4030;
964.8000;0.1408;0.3911;
965.1000;0.1522;0.4101;
965.4000;0.1555;0.4173;
965.7000;0.1587;0.4316;
966.0000;0.1522;0.4197;
966.3000;0.1538;0.4221;
966.6000;0.1522;0.4268;
966.9000;0.1441;0.4030;
967.2000;0.1514;0.4268;
967.5000;0.1555;0.4340;
967.8000;0.1538;0.4292;
968.1000;0.1530;0.4221;
968.4000;0.1530;0.4221;
968.7000;0.1538;0.4221;
969.0000;0.1538;0.4268;
969.3000;0.1538;0.4268;
969.6000;0.1514;0.4173;
969.9000;0.1547;0.4316;
970.2000;0.1530;0.4244;
970.5000;0.1547;0.4268;
970.8000;0.1514;0.4149;
971.1000;0.1514;0.4173;
971.4000;0.1522;0.4197;
971.7000;0.1530;0.4221;
972.0000;0.1547;0.4221;
972.3000;0.1530;0.4125;
972.6000;0.1490;0.4006;
972.9000;0.1612;0.4268;
973.2000;0.1530;0.4125;
973.5000;0.1490;0.4054;
973.8000;0.1612;0.4268;
974.1000;0.1522;0.4054;
974.4000;0.1498;0.4030;
974.7000;0.1538;0.4197;
975.0000;0.1555;0.4292;
975.3000;0.1473;0.4030;
975.6000;0.1563;0.4292;
975.9000;0.1530;0.4197;
976.2000;0.1538;0.4221;
976.5000;0.1522;0.4221;
976.8000;0.1425;0.3934;
977.1000;0.1530;0.4268;
977.4000;0.1465;0.4030;
977.7000;0.1538;0.4221;
978.0000;0.1538;0.4221;
978.3000;0.1530;0.4197;
978.6000;0.1514;0.4101;
978.9000;0.1579;0.4197;
979.2000;0.1522;0.4078;
979.5000;0.1661;0.4435;
979.8000;0.1547;0.4125;
980.1000;0.1498;0.3958;
980.4000;0.1538;0.4101;
980.7000;0.1498;0.3982;
981.0000;0.1522;0.4054;
981.3000;0.1530;0.4197;
981.6000;0.1555;0.4221;
981.9000;0.1530;0.4173;
982.2000;0.1530;0.4101;
982.5000;0.1530;0.4006;
982.8000;0.1538;0.4030;
983.1000;0.1522;0.4006;
983.4000;0.1514;0.4030;
983.7000;0.1538;0.4054;
984.0000;0.1530;0.4006;
984.3000;0.1530;0.3982;
984.6000;0.1563;0.4030;
984.9000;0.1514;0.3863;
985.2000;0.1506;0.3934;
985.5000;0.1522;0.3863;
985.8000;0.1547;0.3982;
986.1000;0.1522;0.3982;
986.4000;0.1595;0.4101;
986.7000;0.1595;0.4197;
987.0000;0.1522;0.3958;
987.3000;0.1571;0.4173;
987.6000;0.1514;0.3982;
987.9000;0.1514;0.4006;
988.2000;0.1563;0.4125;
988.5000;0.1514;0.4006;
988.8000;0.1490;0.4125;
989.1000;0.1441;0.3887;
989.4000;0.1571;0.4268;
989.7000;0.1506;0.4197;
990.0000;0.1522;0.4244;
990.3000;0.1498;0.4078;
990.6000;0.1490;0.4006;
990.9000;0.1522;0.4006;
991.2000;0.1538;0.3863;
991.5000;0.1530;0.3887;
991.8000;0.1514;0.3911;
992.1000;0.1473;0.3791;
992.4000;0.1604;0.4101;
992.7000;0.1514;0.4030;
993.0000;0.1522;0.4078;
993.3000;0.1538;0.4125;
993.6000;0.1587;0.4268;
993.9000;0.1530;0.4149;
994.2000;0.1522;0.4149;
994.5000;0.1563;0.4316;
994.8000;0.1522;0.4173;
995.1000;0.1522;0.4125;
995.4000;0.1555;0.4197;
995.7000;0.1620;0.4316;
996.0000;0.1530;0.4125;
996.3000;0.1522;0.4078;
996.6000;0.1555;0.4101;
996.9000;0.1522;0.3982;
997.2000;0.1538;0.4030;
997.5000;0.1530;0.4006;
997.8000;0.1522;0.4078;
998.1000;0.1498;0.3934;
998.4000;0.1555;0.4101;
998.7000;0.1538;0.4054;
999.0000;0.1408;0.3696;
999.3000;0.1522;0.3934;
999.6000;0.1555;0.4054;
999.9000;0.1449;0.3839;
1000.2000;0.1522;0.4101;
1000.5000;0.1490;0.3958;
1000.8000;0.1522;0.3982;
1001.1000;0.1522;0.3934;
1001.4000;0.1547;0.3934;
1001.7000;0.1522;0.3911;
1002.0000;0.1530;0.3982;
1002.3000;0.1530;0.3863;
1002.6000;0.1547;0.4030;
1002.9000;0.1522;0.4030;
1003.2000;0.1514;0.4054;
1003.5000;0.1522;0.4101;
1003.8000;0.1530;0.4078;
1004.1000;0.1522;0.4197;
1004.4000;0.1514;0.4101;
1004.7000;0.1514;0.4078;
1005.0000;0.1490;0.3982;
1005.3000;0.1530;0.4125;
1005.6000;0.1530;0.4149;
1005.9000;0.1506;0.4125;
1006.2000;0.1522;0.4125;
1006.5000;0.1522;0.4173;
1006.8000;0.1530;0.4078;
1007.1000;0.1522;0.4054;
1007.4000;0.1563;0.4125;
1007.7000;0.1538;0.3982;
1008.0000;0.1530;0.3958;
1008.3000;0.1538;0.3982;
1008.6000;0.1538;0.3934;
1008.9000;0.1530;0.3934;
1009.2000;0.1514;0.3934;
1009.5000;0.1563;0.4030;
1009.8000;0.1538;0.4054;
1010.1000;0.1547;0.4125;
1010.4000;0.1555;0.4149;
1010.7000;0.1514;0.4101;
1011.0000;0.1522;0.4197;
1011.3000;0.1530;0.4340;
1011.6000;0.1547;0.4388;
1011.9000;0.1563;0.4316;
1012.2000;0.1441;0.4054;
1012.5000;0.1538;0.4340;
1012.8000;0.1514;0.4268;
1013.1000;0.1604;0.4364;
1013.4000;0.1498;0.4101;
1013.7000;0.1538;0.4244;
1014.0000;0.1530;0.4221;
1014.3000;0.1514;0.4173;
1014.6000;0.1522;0.4149;
1014.9000;0.1530;0.4197;
1015.2000;0.1473;0.4030;
1015.5000;0.1538;0.4221;
1015.8000;0.1538;0.4125;
1016.1000;0.1547;0.4030;
1016.4000;0.1530;0.4006;
1016.7000;0.1538;0.3982;
1017.0000;0.1587;0.4101;
1017.3000;0.1538;0.3934;
1017.6000;0.1473;0.3720;
1017.9000;0.1563;0.4030;
1018.2000;0.1416;0.3648;
1018.5000;0.1571;0.4054;
1018.8000;0.1530;0.3982;
1019.1000;0.1547;0.4006;
1019.4000;0.1530;0.3958;
1019.7000;0.1408;0.3696;
1020.0000;0.1449;0.3768;
1020.3000;0.1522;0.3982;
1020.6000;0.1530;0.3863;
1020.9000;0.1498;0.3768;
1021.2000;0.1547;0.3911;
1021.5000;0.1530;0.3887;
1021.8000;0.1522;0.3863;
1022.1000;0.1547;0.3934;
1022.4000;0.1538;0.3863;
1022.7000;0.1530;0.3911;
1023.0000;0.1587;0.4054;
1023.3000;0.1530;0.3911;
1023.6000;0.1555;0.3958;
1023.9000;0.1481;0.3911;
1024.2000;0.1514;0.4030;
1024.5000;0.1628;0.4316;
1024.8000;0.1506;0.3982;
1025.1000;0.1530;0.3958;
1025.4000;0.1522;0.4006;
1025.7000;0.1547;0.3982;
1026.0000;0.1449;0.3791;
1026.3000;0.1514;0.4054;
1026.6000;0.1530;0.4078;
1026.9000;0.1506;0.4006;
1027.2000;0.1547;0.4054;
1027.5000;0.1522;0.4101;
1027.8000;0.1530;0.4030;
1028.1000;0.1522;0.4054;
1028.4000;0.1506;0.4101;
1028.7000;0.1530;0.4125;
1029.0000;0.1579;0.4292;
1029.3000;0.1506;0.4125;
1029.6000;0.1530;0.4149;
1029.9000;0.1506;0.4054;
1030.2000;0.1538;0.4101;
1030.5000;0.1530;0.4054;
1030.8000;0.1555;0.4125;
1031.1000;0.1547;0.4054;
1031.4000;0.1490;0.3934;
1031.7000;0.1514;0.4006;
1032.0000;0.1538;0.4125;
1032.3000;0.1538;0.4125;
1032.6000;0.1538;0.4221;
1032.9000;0.1530;0.4244;
1033.2000;0.1530;0.4340;
1033.5000;0.1514;0.4292;
1033.8000;0.1522;0.4316;
1034.1000;0.1490;0.4292;
1034.4000;0.1530;0.4316;
1034.7000;0.1530;0.4340;
1035.0000;0.1522;0.4316;
1035.3000;0.1506;0.4316;
1035.6000;0.1530;0.4316;
1035.9000;0.1538;0.4411;
1036.2000;0.1530;0.4364;
1036.5000;0.1538;0.4388;
1036.8000;0.1506;0.4268;
1037.1000;0.1522;0.4340;
1037.4000;0.1522;0.4316;
1037.7000;0.1498;0.4221;
1038.0000;0.1522;0.4149;
1038.3000;0.1522;0.4173;
1038.6000;0.1514;0.4244;
1038.9000;0.1538;0.4268;
1039.2000;0.1490;0.4221;
1039.5000;0.1498;0.4292;
1039.8000;0.1457;0.4197;
1040.1000;0.1514;0.4316;
1040.4000;0.1522;0.4316;
1040.7000;0.1514;0.4268;
1041.0000;0.1514;0.4292;
1041.3000;0.1538;0.4340;
1041.6000;0.1530;0.4292;
1041.9000;0.1530;0.4340;
1042.2000;0.1481;0.4292;
1042.5000;0.1547;0.4388;
1042.8000;0.1530;0.4268;
1043.1000;0.1449;0.3982;
1043.4000;0.1538;0.4221;
1043.7000;0.1522;0.4173;
1044.0000;0.1433;0.3958;
1044.3000;0.1563;0.4292;
1044.6000;0.1522;0.4244;
1044.9000;0.1547;0.4268;
1045.2000;0.1555;0.4268;
1045.5000;0.1506;0.4149;
1045.8000;0.1530;0.4244;
1046.1000;0.1595;0.4388;
1046.4000;0.1530;0.4197;
1046.7000;0.1530;0.4197;
1047.0000;0.1522;0.4221;
1047.3000;0.1425;0.3982;
1047.6000;0.1538;0.4316;
1047.9000;0.1457;0.4149;
1048.2000;0.1522;0.4435;
1048.5000;0.1538;0.4435;
1048.8000;0.1547;0.4411;
1049.1000;0.1530;0.4292;
1049.4000;0.1563;0.4388;
1049.7000;0.1522;0.4197;
1050.0000;0.1449;0.4030;
1050.3000;0.1530;0.4221;
1050.6000;0.1514;0.4197;
1050.9000;0.1538;0.4268;
1051.2000;0.1506;0.4197;
1051.5000;0.1538;0.4316;
1051.8000;0.1530;0.4197;
1052.1000;0.1530;0.4125;
1052.4000;0.1530;0.4125;
1052.7000;0.1522;0.4173;
1053.0000;0.1514;0.4149;
1053.3000;0.1547;0.4197;
1053.6000;0.1522;0.4173;
1053.9000;0.1555;0.4244;
1054.2000;0.1530;0.4197;
1054.5000;0.1555;0.4221;
1054.8000;0.1465;0.4078;
1055.1000;0.1490;0.4149;
1055.4000;0.1530;0.4173;
1055.7000;0.1441;0.3911;
1056.0000;0.1514;0.4101;
1056.3000;0.1416;0.3791;
1056.6000;0.1506;0.4054;
1056.9000;0.1538;0.4101;
1057.2000;0.1473;0.3911;
1057.5000;0.1514;0.4030;
1057.8000;0.1530;0.4054;
1058.1000;0.1522;0.4030;
1058.4000;0.1522;0.4030;
1058.7000;0.1473;0.3958;
1059.0000;0.1498;0.4101;
1059.3000;0.1530;0.4149;
1059.6000;0.1522;0.4125;
1059.9000;0.1530;0.4221;
1060.2000;0.1530;0.4244;
1060.5000;0.1530;0.4268;
1060.8000;0.1547;0.4244;
1061.1000;0.1538;0.4173;
1061.4000;0.1514;0.4078;
1061.7000;0.1530;0.4125;
1062.0000;0.1530;0.4221;
1062.3000;0.1538;0.4221;
1062.6000;0.1498;0.4221;
1062.9000;0.1547;0.4316;
1063.2000;0.1547;0.4340;
1063.5000;0.1538;0.4411;
1063.8000;0.1538;0.4364;
1064.1000;0.1538;0.4364;
1064.4000;0.1522;0.4292;
1064.7000;0.1514;0.4197;
1065.0000;0.1514;0.4244;
1065.3000;0.1563;0.4364;
1065.6000;0.1538;0.4316;
1065.9000;0.1538;0.4268;
1066.2000;0.1547;0.4244;
1066.5000;0.1514;0.4221;
1066.8000;0.1506;0.4221;
1067.1000;0.1538;0.4340;
1067.4000;0.1644;0.4602;
1067.7000;0.1547;0.4340;
1068.0000;0.1530;0.4316;
1068.3000;0.1506;0.4244;
1068.6000;0.1522;0.4244;
1068.9000;0.1555;0.4316;
1069.2000;0.1506;0.4173;
1069.5000;0.1530;0.4173;
1069.8000;0.1530;0.4221;
1070.1000;0.1506;0.4125;
1070.4000;0.1506;0.4173;
1070.7000;0.1522;0.4149;
1071.0000;0.1538;0.4149;
1071.3000;0.1498;0.3982;
1071.6000;0.1530;0.4101;
1071.9000;0.1506;0.4078;
1072.2000;0.1538;0.4125;
1072.5000;0.1530;0.4078;
1072.8000;0.1449;0.3934;
1073.1000;0.1490;0.4101;
1073.4000;0.1530;0.4292;
1073.7000;0.1538;0.4244;
1074.0000;0.1538;0.4221;
1074.3000;0.1522;0.4221;
1074.6000;0.1547;0.4244;
1074.9000;0.1612;0.4435;
1075.2000;0.1498;0.4197;
1075.5000;0.1530;0.4244;
1075.8000;0.1530;0.4197;
1076.1000;0.1530;0.4221;
1076.4000;0.1506;0.4101;
1076.7000;0.1522;0.4054;
1077.0000;0.1530;0.4125;
1077.3000;0.1522;0.4125;
1077.6000;0.1547;0.4197;
1077.9000;0.1522;0.4101;
1078.2000;0.1449;0.3958;
1078.5000;0.1506;0.4173;
1078.8000;0.1506;0.4125;
1079.1000;0.1498;0.4078;
1079.4000;0.1530;0.4125;
1079.7000;0.1530;0.4268;
1080.0000;0.1547;0.4316;
1080.3000;0.1530;0.4244;
1080.6000;0.1506;0.4221;
1080.9000;0.1538;0.4221;
1081.2000;0.1530;0.4173;
1081.5000;0.1547;0.4173;
1081.8000;0.1538;0.4173;
1082.1000;0.1522;0.4101;
1082.4000;0.1530;0.4173;
1082.7000;0.1522;0.4078;
1083.0000;0.1522;0.4078;
1083.3000;0.1547;0.4149;
1083.6000;0.1530;0.4149;
1083.9000;0.1498;0.4030;
1084.2000;0.1555;0.4173;
1084.5000;0.1538;0.4197;
1084.8000;0.1595;0.4316;
1085.1000;0.1514;0.4149;
1085.4000;0.1538;0.4268;
1085.7000;0.1530;0.4268;
1086.0000;0.1538;0.4221;
1086.3000;0.1530;0.4244;
1086.6000;0.1547;0.4197;
1086.9000;0.1547;0.4173;
1087.2000;0.1506;0.4125;
1087.5000;0.1498;0.4054;
1087.8000;0.1498;0.4173;
1088.1000;0.1522;0.4268;
1088.4000;0.1522;0.4292;
1088.7000;0.1547;0.4292;
1089.0000;0.1514;0.4268;
1089.3000;0.1538;0.4292;
1089.6000;0.1514;0.4197;
1089.9000;0.1441;0.4006;
1090.2000;0.1563;0.4388;
1090.5000;0.1433;0.4125;
1090.8000;0.1514;0.4364;
1091.1000;0.1530;0.4340;
1091.4000;0.1595;0.4507;
1091.7000;0.1571;0.4435;
1092.0000;0.1522;0.4316;
1092.3000;0.1538;0.4268;
1092.6000;0.1530;0.4244;
1092.9000;0.1547;0.4340;
1093.2000;0.1538;0.4316;
1093.5000;0.1538;0.4435;
1093.8000;0.1530;0.4388;
1094.1000;0.1538;0.4292;
1094.4000;0.1498;0.4197;
1094.7000;0.1514;0.4221;
1095.0000;0.1530;0.4221;
1095.3000;0.1530;0.4244;
1095.6000;0.1547;0.4292;
1095.9000;0.1522;0.4292;
1096.2000;0.1555;0.4316;
1096.5000;0.1457;0.4125;
1096.8000;0.1522;0.4268;
1097.1000;0.1538;0.4364;
1097.4000;0.1555;0.4435;
1097.7000;0.1530;0.4340;
1098.0000;0.1530;0.4340;
1098.3000;0.1506;0.4268;
1098.6000;0.1514;0.4316;
1098.9000;0.1522;0.4268;
1099.2000;0.1522;0.4292;
1099.5000;0.1547;0.4316;
1099.8000;0.1522;0.4340;
1100.1000;0.1522;0.4292;
1100.4000;0.1506;0.4173;
1100.7000;0.1514;0.4173;
1101.0000;0.1547;0.4244;
1101.3000;0.1498;0.4149;
1101.6000;0.1498;0.4173;
1101.9000;0.1538;0.4197;
1102.2000;0.1530;0.4197;
1102.5000;0.1538;0.4244;
1102.8000;0.1506;0.4149;
1103.1000;0.1530;0.4244;
1103.4000;0.1465;0.4030;
1103.7000;0.1522;0.4197;
1104.0000;0.1514;0.4268;
1104.3000;0.1514;0.4197;
1104.6000;0.1530;0.4221;
1104.9000;0.1514;0.4244;
1105.2000;0.1506;0.4173;
1105.5000;0.1498;0.4197;
1105.8000;0.1579;0.4292;
1106.1000;0.1506;0.4054;
1106.4000;0.1530;0.4054;
1106.7000;0.1522;0.3958;
1107.0000;0.1522;0.4054;
1107.3000;0.1538;0.4054;
1107.6000;0.1555;0.4101;
1107.9000;0.1514;0.4125;
1108.2000;0.1530;0.4292;
1108.5000;0.1522;0.4316;
1108.8000;0.1522;0.4292;
1109.1000;0.1506;0.4316;
1109.4000;0.1490;0.4173;
1109.7000;0.1514;0.4244;
1110.0000;0.1498;0.4054;
1110.3000;0.1514;0.4149;
1110.6000;0.1433;0.3982;
1110.9000;0.1530;0.4149;
1111.2000;0.1538;0.4221;
1111.5000;0.1685;0.4554;
1111.8000;0.1514;0.4101;
1112.1000;0.1522;0.4244;
1112.4000;0.1530;0.4340;
1112.7000;0.1530;0.4340;
1113.0000;0.1555;0.4292;
1113.3000;0.1522;0.4197;
1113.6000;0.1408;0.3911;
1113.9000;0.1465;0.4030;
1114.2000;0.1514;0.4149;
1114.5000;0.1514;0.4197;
1114.8000;0.1530;0.4340;
1115.1000;0.1571;0.4435;
1115.4000;0.1506;0.4268;
1115.7000;0.1547;0.4388;
1116.0000;0.1514;0.4268;
1116.3000;0.1538;0.4316;
1116.6000;0.1587;0.4340;
1116.9000;0.1538;0.4268;
1117.2000;0.1612;0.4411;
1117.5000;0.1555;0.4125;
1117.8000;0.1538;0.4173;
1118.1000;0.1506;0.4125;
1118.4000;0.1530;0.4197;
1118.7000;0.1498;0.4125;
1119.0000;0.1571;0.4388;
1119.3000;0.1547;0.4268;
1119.6000;0.1498;0.4078;
1119.9000;0.1538;0.4197;
1120.2000;0.1530;0.4268;
1120.5000;0.1530;0.4244;
1120.8000;0.1506;0.4221;
1121.1000;0.1522;0.4197;
1121.4000;0.1530;0.4268;
1121.7000;0.1538;0.4316;
1122.0000;0.1530;0.4268;
1122.3000;0.1522;0.4221;
1122.6000;0.1595;0.4435;
1122.9000;0.1555;0.4340;
1123.2000;0.1530;0.4244;
1123.5000;0.1506;0.4149;
1123.8000;0.1538;0.4149;
1124.1000;0.1555;0.4197;
1124.4000;0.1547;0.4149;
1124.7000;0.1514;0.4054;
1125.0000;0.1530;0.4101;
1125.3000;0.1530;0.4125;
1125.6000;0.1530;0.4101;
1125.9000;0.1530;0.4078;
1126.2000;0.1538;0.4125;
1126.5000;0.1538;0.4149;
1126.8000;0.1530;0.4173;
1127.1000;0.1498;0.4173;
1127.4000;0.1514;0.4268;
1127.7000;0.1587;0.4435;
1128.0000;0.1530;0.4316;
1128.3000;0.1465;0.4101;
1128.6000;0.1473;0.4030;
1128.9000;0.1522;0.4030;
1129.2000;0.1595;0.4197;
1129.5000;0.1514;0.3911;
1129.8000;0.1587;0.4054;
1130.1000;0.1498;0.3791;
1130.4000;0.1514;0.3887;
1130.7000;0.1522;0.3958;
1131.0000;0.1522;0.3934;
1131.3000;0.1522;0.4006;
1131.6000;0.1530;0.4078;
1131.9000;0.1530;0.4149;
1132.2000;0.1522;0.4125;
1132.5000;0.1547;0.4197;
1132.8000;0.1547;0.4197;
1133.1000;0.1514;0.4030;
1133.4000;0.1555;0.4054;
1133.7000;0.1538;0.3958;
1134.0000;0.1522;0.3982;
1134.3000;0.1547;0.4054;
1134.6000;0.1595;0.4292;
1134.9000;0.1530;0.4125;
1135.2000;0.1530;0.4125;
1135.5000;0.1579;0.4292;
1135.8000;0.1522;0.4125;
1136.1000;0.1538;0.4173;
1136.4000;0.1522;0.4149;
1136.7000;0.1563;0.4292;
1137.0000;0.1514;0.4125;
1137.3000;0.1522;0.4054;
1137.6000;0.1522;0.4006;
1137.9000;0.1473;0.3911;
1138.2000;0.1530;0.4101;
1138.5000;0.1547;0.4030;
1138.8000;0.1522;0.3958;
1139.1000;0.1506;0.3958;
1139.4000;0.1547;0.4101;
1139.7000;0.1555;0.4101;
1140.0000;0.1530;0.4149;
1140.3000;0.1465;0.4030;
1140.6000;0.1530;0.4244;
1140.9000;0.1604;0.4411;
1141.2000;0.1530;0.4244;
1141.5000;0.1514;0.4221;
1141.8000;0.1514;0.4244;
1142.1000;0.1514;0.4173;
1142.4000;0.1522;0.4221;
1142.7000;0.1514;0.4125;
1143.0000;0.1530;0.4221;
1143.3000;0.1547;0.4221;
1143.6000;0.1530;0.4125;
1143.9000;0.1514;0.4078;
1144.2000;0.1522;0.4006;
1144.5000;0.1530;0.3982;
1144.8000;0.1530;0.4054;
1145.1000;0.1522;0.4054;
1145.4000;0.1530;0.4078;
1145.7000;0.1530;0.4149;
1146.0000;0.1538;0.4149;
1146.3000;0.1506;0.4030;
1146.6000;0.1547;0.4030;
1146.9000;0.1530;0.3934;
1147.2000;0.1530;0.3958;
1147.5000;0.1571;0.3982;
1147.8000;0.1538;0.3982;
1148.1000;0.1522;0.3887;
1148.4000;0.1538;0.4030;
1148.7000;0.1522;0.4054;
1149.0000;0.1522;0.4125;
1149.3000;0.1506;0.4173;
1149.6000;0.1547;0.4268;
1149.9000;0.1555;0.4292;
1150.2000;0.1538;0.4173;
1150.5000;0.1547;0.4173;
1150.8000;0.1547;0.4101;
1151.1000;0.1555;0.4078;
1151.4000;0.1538;0.4078;
1151.7000;0.1514;0.4078;
1152.0000;0.1547;0.4197;
1152.3000;0.1514;0.4101;
1152.6000;0.1522;0.4006;
1152.9000;0.1563;0.4078;
1153.2000;0.1473;0.3911;
1153.5000;0.1522;0.4054;
1153.8000;0.1530;0.4125;
1154.1000;0.1506;0.4125;
1154.4000;0.1490;0.4101;
1154.7000;0.1514;0.4268;
1155.0000;0.1522;0.4292;
1155.3000;0.1530;0.4340;
1155.6000;0.1538;0.4364;
1155.9000;0.1514;0.4340;
1156.2000;0.1522;0.4411;
1156.5000;0.1506;0.4364;
1156.8000;0.1595;0.4626;
1157.1000;0.1530;0.4340;
1157.4000;0.1514;0.4221;
1157.7000;0.1530;0.4244;
1158.0000;0.1530;0.4221;
1158.3000;0.1506;0.4173;
1158.6000;0.1514;0.4221;
1158.9000;0.1547;0.4316;
1159.2000;0.1522;0.4268;
1159.5000;0.1522;0.4197;
1159.8000;0.1563;0.4316;
1160.1000;0.1522;0.4173;
1160.4000;0.1522;0.4197;
1160.7000;0.1612;0.4340;
1161.0000;0.1563;0.4244;
1161.3000;0.1538;0.4125;
1161.6000;0.1547;0.4149;
1161.9000;0.1530;0.4125;
1162.2000;0.1530;0.4101;
1162.5000;0.1530;0.4173;
1162.8000;0.1498;0.4006;
1163.1000;0.1563;0.4125;
1163.4000;0.1538;0.4054;
1163.7000;0.1522;0.3934;
1164.0000;0.1498;0.3934;
1164.3000;0.1530;0.4030;
1164.6000;0.1498;0.3839;
1164.9000;0.1490;0.3839;
1165.2000;0.1514;0.3911;
1165.5000;0.1522;0.4054;
1165.8000;0.1669;0.4411;
1166.1000;0.1514;0.4030;
1166.4000;0.1530;0.4125;
1166.7000;0.1538;0.4221;
1167.0000;0.1555;0.4244;
1167.3000;0.1538;0.4221;
1167.6000;0.1498;0.4149;
1167.9000;0.1530;0.4149;
1168.2000;0.1522;0.4149;
1168.5000;0.1538;0.4244;
1168.8000;0.1441;0.4006;
1169.1000;0.1530;0.4221;
1169.4000;0.1547;0.4173;
1169.7000;0.1514;0.4030;
1170.0000;0.1522;0.4078;
1170.3000;0.1514;0.4078;
1170.6000;0.1530;0.4101;
1170.9000;0.1530;0.4054;
1171.2000;0.1514;0.4054;
1171.5000;0.1530;0.4101;
1171.8000;0.1530;0.4101;
1172.1000;0.1514;0.4054;
1172.4000;0.1547;0.4173;
1172.7000;0.1522;0.4125;
1173.0000;0.1563;0.4221;
1173.3000;0.1538;0.4173;
1173.6000;0.1498;0.4078;
1173.9000;0.1522;0.4149;
1174.2000;0.1416;0.3839;
1174.5000;0.1514;0.4078;
1174.8000;0.1498;0.4078;
1175.1000;0.1579;0.4292;
1175.4000;0.1563;0.4197;
1175.7000;0.1498;0.4006;
1176.0000;0.1490;0.3982;
1176.3000;0.1563;0.4221;
1176.6000;0.1538;0.4125;
1176.9000;0.1506;0.4125;
1177.2000;0.1587;0.4364;
1177.5000;0.1490;0.4078;
1177.8000;0.1522;0.4221;
1178.1000;0.1522;0.4078;
1178.4000;0.1563;0.4006;
1178.7000;0.1530;0.3934;
1179.0000;0.1530;0.3911;
1179.3000;0.1547;0.4125;
1179.6000;0.1514;0.4006;
1179.9000;0.1547;0.3982;
1180.2000;0.1530;0.3934;
1180.5000;0.1514;0.3911;
1180.8000;0.1563;0.4030;
1181.1000;0.1538;0.3982;
1181.4000;0.1514;0.4006;
1181.7000;0.1571;0.4221;
1182.0000;0.1530;0.4244;
1182.3000;0.1571;0.4292;
1182.6000;0.1538;0.4125;
1182.9000;0.1514;0.4030;
1183.2000;0.1522;0.4006;
1183.5000;0.1538;0.4101;
1183.8000;0.1522;0.4125;
1184.1000;0.1547;0.4149;
1184.4000;0.1522;0.4197;
1184.7000;0.1514;0.4221;
1185.0000;0.1530;0.4173;
1185.3000;0.1490;0.4054;
1185.6000;0.1522;0.4125;
1185.9000;0.1522;0.4173;
1186.2000;0.1514;0.4054;
1186.5000;0.1506;0.4054;
1186.8000;0.1498;0.4054;
1187.1000;0.1579;0.4149;
1187.4000;0.1547;0.4054;
1187.7000;0.1514;0.3982;
1188.0000;0.1530;0.4054;
1188.3000;0.1473;0.3863;
1188.6000;0.1514;0.3911;
1188.9000;0.1595;0.4125;
1189.2000;0.1538;0.4054;
1189.5000;0.1506;0.3958;
1189.8000;0.1498;0.3887;
1190.1000;0.1490;0.3863;
1190.4000;0.1522;0.3958;
1190.7000;0.1530;0.4006;
1191.0000;0.1498;0.3958;
1191.3000;0.1538;0.4101;
1191.6000;0.1530;0.4030;
1191.9000;0.1538;0.4078;
1192.2000;0.1538;0.3934;
1192.5000;0.1530;0.3934;
1192.8000;0.1595;0.4125;
1193.1000;0.1530;0.3958;
1193.4000;0.1530;0.3911;
1193.7000;0.1538;0.3911;
1194.0000;0.1530;0.3934;
1194.3000;0.1498;0.3911;
1194.6000;0.1530;0.4006;
1194.9000;0.1555;0.4173;
1195.2000;0.1530;0.4173;
1195.5000;0.1530;0.4101;
1195.8000;0.1514;0.3982;
1196.1000;0.1522;0.3958;
1196.4000;0.1490;0.3863;
1196.7000;0.1498;0.3839;
1197.0000;0.1506;0.3768;
1197.3000;0.1473;0.3720;
1197.6000;0.1530;0.3911;
1197.9000;0.1506;0.3958;
1198.2000;0.1514;0.4030;
1198.5000;0.1538;0.4149;
1198.8000;0.1530;0.4149;
1199.1000;0.1522;0.4197;
1199.4000;0.1555;0.4292;
1199.7000;0.1538;0.4292;
1200.0000;0.1506;0.4221;
1200.3000;0.1506;0.4149;
1200.6000;0.1555;0.4292;
1200.9000;0.1538;0.4149;
1201.2000;0.1538;0.4173;
1201.5000;0.1514;0.4173;
1201.8000;0.1522;0.4197;
1202.1000;0.1522;0.4149;
1202.4000;0.1498;0.4054;
1202.7000;0.1538;0.4054;
1203.0000;0.1547;0.4173;
1203.3000;0.1416;0.3839;
1203.6000;0.1514;0.4054;
1203.9000;0.1522;0.4054;
1204.2000;0.1530;0.4101;
1204.5000;0.1522;0.4054;
1204.8000;0.1490;0.4030;
1205.1000;0.1530;0.4054;
1205.4000;0.1522;0.4054;
1205.7000;0.1538;0.4149;
1206.0000;0.1530;0.4173;
1206.3000;0.1522;0.4125;
1206.6000;0.1538;0.4149;
1206.9000;0.1465;0.4078;
1207.2000;0.1506;0.4149;
1207.5000;0.1530;0.4221;
1207.8000;0.1628;0.4483;
1208.1000;0.1506;0.4197;
1208.4000;0.1522;0.4340;
1208.7000;0.1498;0.4292;
1209.0000;0.1522;0.4292;
1209.3000;0.1538;0.4244;
1209.6000;0.1538;0.4173;
1209.9000;0.1506;0.4054;
1210.2000;0.1506;0.4078;
1210.5000;0.1530;0.4173;
1210.8000;0.1514;0.4149;
1211.1000;0.1595;0.4197;
1211.4000;0.1514;0.3982;
1211.7000;0.1530;0.4054;
1212.0000;0.1473;0.3887;
1212.3000;0.1522;0.4078;
1212.6000;0.1514;0.4078;
1212.9000;0.1547;0.4078;
1213.2000;0.1530;0.4030;
1213.5000;0.1530;0.4030;
1213.8000;0.1522;0.3958;
1214.1000;0.1530;0.3863;
1214.4000;0.1522;0.3958;
1214.7000;0.1530;0.3934;
1215.0000;0.1481;0.3815;
1215.3000;0.1547;0.3934;
1215.6000;0.1522;0.3911;
1215.9000;0.1530;0.3934;
1216.2000;0.1522;0.4006;
1216.5000;0.1506;0.3911;
1216.8000;0.1604;0.4173;
1217.1000;0.1555;0.4006;
1217.4000;0.1530;0.3958;
1217.7000;0.1538;0.3934;
1218.0000;0.1514;0.3887;
1218.3000;0.1514;0.3934;
1218.6000;0.1506;0.3863;
1218.9000;0.1514;0.3887;
1219.2000;0.1498;0.3863;
1219.5000;0.1514;0.3863;
1219.8000;0.1530;0.3934;
1220.1000;0.1506;0.3839;
1220.4000;0.1530;0.3887;
1220.7000;0.1506;0.3911;
1221.0000;0.1514;0.3958;
1221.3000;0.1506;0.3934;
1221.6000;0.1457;0.3791;
1221.9000;0.1522;0.3982;
1222.2000;0.1530;0.3887;
1222.5000;0.1636;0.4125;
1222.8000;0.1538;0.3887;
1223.1000;0.1555;0.3958;
1223.4000;0.1400;0.3577;
1223.7000;0.1628;0.4149;
1224.0000;0.1530;0.3911;
1224.3000;0.1506;0.3863;
1224.6000;0.1522;0.3958;
1224.9000;0.1530;0.4030;
1225.2000;0.1449;0.3791;
1225.5000;0.1522;0.3911;
1225.8000;0.1547;0.4006;
1226.1000;0.1538;0.3934;
1226.4000;0.1514;0.3958;
1226.7000;0.1522;0.4030;
1227.0000;0.1530;0.4030;
1227.3000;0.1506;0.4030;
1227.6000;0.1522;0.4054;
1227.9000;0.1530;0.4054;
1228.2000;0.1522;0.4101;
1228.5000;0.1530;0.4101;
1228.8000;0.1530;0.4149;
1229.1000;0.1530;0.4125;
1229.4000;0.1498;0.4173;
1229.7000;0.1538;0.4244;
1230.0000;0.1522;0.4197;
1230.3000;0.1538;0.4054;
1230.6000;0.1522;0.3958;
1230.9000;0.1522;0.3958;
1231.2000;0.1538;0.4030;
1231.5000;0.1514;0.3934;
1231.8000;0.1473;0.3791;
1232.1000;0.1506;0.3863;
1232.4000;0.1514;0.3934;
1232.7000;0.1555;0.4054;
1233.0000;0.1408;0.3601;
1233.3000;0.1530;0.3839;
1233.6000;0.1498;0.3815;
1233.9000;0.1522;0.3839;
1234.2000;0.1522;0.3791;
1234.5000;0.1514;0.3744;
1234.8000;0.1522;0.3887;
1235.1000;0.1530;0.3839;
1235.4000;0.1498;0.3768;
1235.7000;0.1506;0.3696;
1236.0000;0.1563;0.3958;
1236.3000;0.1514;0.3863;
1236.6000;0.1522;0.3934;
1236.9000;0.1506;0.3887;
1237.2000;0.1538;0.4006;
1237.5000;0.1514;0.3958;
1237.8000;0.1498;0.3958;
1238.1000;0.1530;0.4006;
1238.4000;0.1538;0.4054;
1238.7000;0.1514;0.3982;
1239.0000;0.1522;0.3911;
1239.3000;0.1563;0.4054;
1239.6000;0.1514;0.3887;
1239.9000;0.1530;0.3934;
1240.2000;0.1498;0.3887;
1240.5000;0.1490;0.3839;
1240.8000;0.1506;0.3934;
1241.1000;0.1522;0.3887;
1241.4000;0.1522;0.3934;
1241.7000;0.1522;0.3839;
1242.0000;0.1538;0.3863;
1242.3000;0.1473;0.3768;
1242.6000;0.1587;0.4078;
1242.9000;0.1538;0.3934;
1243.2000;0.1538;0.3887;
1243.5000;0.1595;0.4030;
1243.8000;0.1530;0.3696;
1244.1000;0.1547;0.3696;
1244.4000;0.1530;0.3696;
1244.7000;0.1514;0.3672;
1245.0000;0.1498;0.3648;
1245.3000;0.1538;0.3768;
1245.6000;0.1335;0.3243;
1245.9000;0.1498;0.3624;
1246.2000;0.1506;0.3720;
1246.5000;0.1490;0.3672;
1246.8000;0.1571;0.3839;
1247.1000;0.1522;0.3696;
1247.4000;0.1522;0.3720;
1247.7000;0.1595;0.3934;
1248.0000;0.1506;0.3744;
1248.3000;0.1506;0.3696;
1248.6000;0.1506;0.3696;
1248.9000;0.1522;0.3791;
1249.2000;0.1506;0.3791;
1249.5000;0.1522;0.3839;
1249.8000;0.1530;0.3934;
1250.1000;0.1514;0.3839;
1250.4000;0.1481;0.3648;
1250.7000;0.1522;0.3815;
1251.0000;0.1547;0.4030;
1251.3000;0.1522;0.3911;
1251.6000;0.1514;0.3911;
1251.9000;0.1555;0.3934;
1252.2000;0.1530;0.3911;
1252.5000;0.1530;0.3934;
1252.8000;0.1506;0.3911;
1253.1000;0.1555;0.4078;
1253.4000;0.1514;0.3958;
1253.7000;0.1555;0.4030;
1254.0000;0.1530;0.3863;
1254.3000;0.1530;0.3791;
1254.6000;0.1538;0.3768;
1254.9000;0.1587;0.3791;
1255.2000;0.1530;0.3648;
1255.5000;0.1530;0.3624;
1255.8000;0.1522;0.3648;
1256.1000;0.1563;0.3720;
1256.4000;0.1547;0.3696;
1256.7000;0.1506;0.3553;
1257.0000;0.1547;0.3624;
1257.3000;0.1514;0.3624;
1257.6000;0.1530;0.3601;
1257.9000;0.1522;0.3601;
1258.2000;0.1514;0.3696;
1258.5000;0.1498;0.3768;
1258.8000;0.1498;0.3744;
1259.1000;0.1506;0.3744;
1259.4000;0.1530;0.3839;
1259.7000;0.1538;0.3934;
1260.0000;0.1530;0.3934;
1260.3000;0.1530;0.3887;
1260.6000;0.1547;0.3934;
1260.9000;0.1547;0.4006;
1261.2000;0.1538;0.3911;
1261.5000;0.1538;0.3934;
1261.8000;0.1522;0.3934;
1262.1000;0.1530;0.3958;
1262.4000;0.1498;0.3887;
1262.7000;0.1522;0.3887;
1263.0000;0.1514;0.3815;
1263.3000;0.1514;0.3839;
1263.6000;0.1490;0.3791;
1263.9000;0.1571;0.3982;
1264.2000;0.1547;0.3934;
1264.5000;0.1555;0.3911;
1264.8000;0.1506;0.3839;
1265.1000;0.1538;0.3982;
1265.4000;0.1530;0.3887;
1265.7000;0.1555;0.3863;
1266.0000;0.1555;0.3911;
1266.3000;0.1530;0.3911;
1266.6000;0.1481;0.3744;
1266.9000;0.1498;0.3791;
1267.2000;0.1571;0.3958;
1267.5000;0.1595;0.4125;
1267.8000;0.1522;0.3958;
1268.1000;0.1514;0.3958;
1268.4000;0.1530;0.4101;
1268.7000;0.1530;0.4030;
1269.0000;0.1498;0.3982;
1269.3000;0.1530;0.4197;
1269.6000;0.1555;0.4197;
1269.9000;0.1514;0.4078;
1270.2000;0.1538;0.4221;
1270.5000;0.1457;0.4030;
1270.8000;0.1465;0.4006;
1271.1000;0.1506;0.4054;
1271.4000;0.1530;0.4125;
1271.7000;0.1506;0.4078;
1272.0000;0.1530;0.4149;
1272.3000;0.1490;0.4101;
1272.6000;0.1530;0.4221;
1272.9000;0.1538;0.4149;
1273.2000;0.1530;0.4173;
1273.5000;0.1547;0.4244;
1273.8000;0.1506;0.4078;
1274.1000;0.1522;0.4030;
1274.4000;0.1522;0.4030;
1274.7000;0.1563;0.4268;
1275.0000;0.1522;0.4078;
1275.3000;0.1530;0.4149;
1275.6000;0.1538;0.4221;
1275.9000;0.1547;0.4221;
1276.2000;0.1530;0.4149;
1276.5000;0.1538;0.4173;
1276.8000;0.1530;0.4149;
1277.1000;0.1538;0.4078;
1277.4000;0.1514;0.4006;
1277.7000;0.1555;0.4173;
1278.0000;0.1538;0.4125;
1278.3000;0.1652;0.4483;
1278.6000;0.1506;0.4125;
1278.9000;0.1530;0.4149;
1279.2000;0.1522;0.4078;
1279.5000;0.1514;0.4054;
1279.8000;0.1481;0.4030;
1280.1000;0.1506;0.4030;
1280.4000;0.1506;0.3982;
1280.7000;0.1490;0.3958;
1281.0000;0.1538;0.4054;
1281.3000;0.1514;0.3982;
1281.6000;0.1473;0.3958;
1281.9000;0.1579;0.4268;
1282.2000;0.1506;0.4078;
1282.5000;0.1571;0.4173;
1282.8000;0.1661;0.4435;
1283.1000;0.1514;0.4078;
1283.4000;0.1628;0.4340;
1283.7000;0.1498;0.3982;
1284.0000;0.1481;0.4006;
1284.3000;0.1538;0.4149;
1284.6000;0.1514;0.4173;
1284.9000;0.1498;0.4197;
1285.2000;0.1538;0.4316;
1285.5000;0.1514;0.4173;
1285.8000;0.1498;0.4149;
1286.1000;0.1530;0.4125;
1286.4000;0.1514;0.4149;
1286.7000;0.1530;0.4125;
1287.0000;0.1522;0.4149;
1287.3000;0.1579;0.4340;
1287.6000;0.1555;0.4221;
1287.9000;0.1514;0.4149;
1288.2000;0.1538;0.4221;
1288.5000;0.1530;0.4173;
1288.8000;0.1514;0.4125;
1289.1000;0.1530;0.4221;
1289.4000;0.1522;0.4221;
1289.7000;0.1522;0.4197;
1290.0000;0.1514;0.4125;
1290.3000;0.1530;0.4173;
1290.6000;0.1506;0.4054;
1290.9000;0.1547;0.4173;
1291.2000;0.1522;0.4054;
1291.5000;0.1522;0.3982;
1291.8000;0.1563;0.4173;
1292.1000;0.1530;0.4125;
1292.4000;0.1514;0.4149;
1292.7000;0.1530;0.4173;
1293.0000;0.1538;0.4197;
1293.3000;0.1538;0.4125;
1293.6000;0.1538;0.4101;
1293.9000;0.1514;0.4149;
1294.2000;0.1612;0.4435;
1294.5000;0.1514;0.4173;
1294.8000;0.1538;0.4197;
1295.1000;0.1514;0.4125;
1295.4000;0.1506;0.4078;
1295.7000;0.1530;0.4101;
1296.0000;0.1538;0.4054;
1296.3000;0.1514;0.3934;
1296.6000;0.1522;0.3887;
1296.9000;0.1522;0.3911;
1297.2000;0.1522;0.3934;
1297.5000;0.1538;0.4078;
1297.8000;0.1498;0.4078;
1298.1000;0.1522;0.4149;
1298.4000;0.1506;0.4006;
1298.7000;0.1514;0.3982;
1299.0000;0.1514;0.4006;
1299.3000;0.1522;0.4030;
1299.6000;0.1514;0.3982;
1299.9000;0.1555;0.4030;
1300.2000;0.1652;0.4340;
1300.5000;0.1530;0.3958;
1300.8000;0.1506;0.3934;
1301.1000;0.1538;0.4101;
1301.4000;0.1498;0.4125;
1301.7000;0.1522;0.4197;
1302.0000;0.1522;0.4173;
1302.3000;0.1530;0.4173;
1302.6000;0.1530;0.4101;
1302.9000;0.1530;0.4125;
1303.2000;0.1514;0.4101;
1303.5000;0.1514;0.4101;
1303.8000;0.1514;0.4197;
1304.1000;0.1547;0.4316;
1304.4000;0.1538;0.4244;
1304.7000;0.1530;0.4221;
1305.0000;0.1522;0.4101;
1305.3000;0.1571;0.4292;
1305.6000;0.1506;0.4149;
1305.9000;0.1547;0.4197;
1306.2000;0.1514;0.4101;
1306.5000;0.1530;0.4149;
1306.8000;0.1465;0.4006;
1307.1000;0.1514;0.4221;
1307.4000;0.1522;0.4173;
1307.7000;0.1555;0.4125;
1308.0000;0.1555;0.4149;
1308.3000;0.1522;0.4030;
1308.6000;0.1555;0.4054;
1308.9000;0.1538;0.4078;
1309.2000;0.1530;0.4101;
1309.5000;0.1514;0.4030;
1309.8000;0.1538;0.4078;
1310.1000;0.1530;0.3958;
1310.4000;0.1522;0.4006;
1310.7000;0.1522;0.3982;
1311.0000;0.1498;0.3982;
1311.3000;0.1538;0.4030;
1311.6000;0.1506;0.3982;
1311.9000;0.1522;0.4125;
1312.2000;0.1514;0.4149;
1312.5000;0.1718;0.4769;
1312.8000;0.1473;0.4078;
1313.1000;0.1530;0.4244;
1313.4000;0.1498;0.4006;
1313.7000;0.1530;0.4006;
1314.0000;0.1538;0.3887;
1314.3000;0.1530;0.3887;
1314.6000;0.1530;0.3863;
1314.9000;0.1522;0.3815;
1315.2000;0.1522;0.3815;
1315.5000;0.1465;0.3696;
1315.8000;0.1579;0.4030;
1316.1000;0.1506;0.3839;
1316.4000;0.1498;0.3839;
1316.7000;0.1522;0.3958;
1317.0000;0.1408;0.3624;
1317.3000;0.1490;0.3815;
1317.6000;0.1408;0.3601;
1317.9000;0.1490;0.3887;
1318.2000;0.1514;0.3887;
1318.5000;0.1506;0.3887;
1318.8000;0.1530;0.3934;
1319.1000;0.1473;0.3839;
1319.4000;0.1522;0.4006;
1319.7000;0.1522;0.4078;
1320.0000;0.1506;0.4054;
1320.3000;0.1506;0.4054;
1320.6000;0.1408;0.3768;
1320.9000;0.1530;0.4125;
1321.2000;0.1522;0.4101;
1321.5000;0.1530;0.4030;
1321.8000;0.1498;0.4054;
1322.1000;0.1538;0.4149;
1322.4000;0.1514;0.4101;
1322.7000;0.1514;0.4030;
1323.0000;0.1530;0.4054;
1323.3000;0.1530;0.4078;
1323.6000;0.1538;0.4054;
1323.9000;0.1522;0.4030;
1324.2000;0.1522;0.4101;
1324.5000;0.1522;0.4101;
1324.8000;0.1514;0.4197;
1325.1000;0.1620;0.4531;
1325.4000;0.1530;0.4268;
1325.7000;0.1522;0.4197;
1326.0000;0.1530;0.4149;
1326.3000;0.1522;0.4101;
1326.6000;0.1538;0.4173;
1326.9000;0.1547;0.4149;
1327.2000;0.1522;0.4101;
1327.5000;0.1538;0.4101;
1327.8000;0.1514;0.4054;
1328.1000;0.1538;0.4197;
1328.4000;0.1530;0.4101;
1328.7000;0.1514;0.4125;
1329.0000;0.1514;0.4221;
1329.3000;0.1522;0.4173;
1329.6000;0.1522;0.4149;
1329.9000;0.1498;0.4173;
1330.2000;0.1522;0.4292;
1330.5000;0.1514;0.4268;
1330.8000;0.1547;0.4244;
1331.1000;0.1530;0.4221;
1331.4000;0.1530;0.4125;
1331.7000;0.1522;0.4030;
1332.0000;0.1538;0.4078;
1332.3000;0.1522;0.3982;
1332.6000;0.1473;0.3791;
1332.9000;0.1563;0.4173;
1333.2000;0.1530;0.4054;
1333.5000;0.1530;0.4030;
1333.8000;0.1514;0.3911;
1334.1000;0.1514;0.3863;
1334.4000;0.1530;0.3958;
1334.7000;0.1522;0.3863;
1335.0000;0.1514;0.3791;
1335.3000;0.1506;0.3768;
1335.6000;0.1481;0.3768;
1335.9000;0.1522;0.3839;
1336.2000;0.1522;0.3887;
1336.5000;0.1587;0.4125;
1336.8000;0.1514;0.3887;
1337.1000;0.1514;0.3839;
1337.4000;0.1433;0.3601;
1337.7000;0.1530;0.3863;
1338.0000;0.1522;0.3887;
1338.3000;0.1522;0.3839;
1338.6000;0.1620;0.4125;
1338.9000;0.1530;0.3982;
1339.2000;0.1530;0.4030;
1339.5000;0.1620;0.4316;
1339.8000;0.1547;0.4125;
1340.1000;0.1595;0.4244;
1340.4000;0.1457;0.3911;
1340.7000;0.1449;0.3911;
1341.0000;0.1530;0.4078;
1341.3000;0.1522;0.3982;
1341.6000;0.1514;0.3911;
1341.9000;0.1530;0.3911;
1342.2000;0.1522;0.3934;
1342.5000;0.1514;0.3887;
1342.8000;0.1555;0.3982;
1343.1000;0.1522;0.3934;
1343.4000;0.1563;0.4030;
1343.7000;0.1563;0.4078;
1344.0000;0.1490;0.3934;
1344.3000;0.1490;0.3958;
1344.6000;0.1506;0.3958;
1344.9000;0.1522;0.3982;
1345.2000;0.1514;0.3911;
1345.5000;0.1538;0.4030;
1345.8000;0.1473;0.3887;
1346.1000;0.1514;0.3982;
1346.4000;0.1547;0.4078;
1346.7000;0.1506;0.4054;
1347.0000;0.1547;0.4149;
1347.3000;0.1547;0.4268;
1347.6000;0.1530;0.4173;
1347.9000;0.1481;0.3863;
1348.2000;0.1538;0.3934;
1348.5000;0.1530;0.3958;
1348.8000;0.1530;0.3982;
1349.1000;0.1538;0.4054;
1349.4000;0.1538;0.4006;
1349.7000;0.1530;0.4030;
1350.0000;0.1547;0.4054;
1350.3000;0.1530;0.4054;
1350.6000;0.1530;0.4054;
1350.9000;0.1571;0.4078;
1351.2000;0.1522;0.4030;
1351.5000;0.1538;0.4101;
1351.8000;0.1530;0.4006;
1352.1000;0.1408;0.3648;
1352.4000;0.1506;0.3934;
1352.7000;0.1538;0.4006;
1353.0000;0.1514;0.4030;
1353.3000;0.1506;0.4030;
1353.6000;0.1514;0.3934;
1353.9000;0.1522;0.3958;
1354.2000;0.1530;0.3911;
1354.5000;0.1384;0.3553;
1354.8000;0.1514;0.3887;
1355.1000;0.1530;0.4030;
1355.4000;0.1547;0.4078;
1355.7000;0.1530;0.4078;
1356.0000;0.1522;0.4101;
1356.3000;0.1514;0.4054;
1356.6000;0.1514;0.4030;
1356.9000;0.1530;0.4101;
1357.2000;0.1506;0.4101;
1357.5000;0.1522;0.4268;
1357.8000;0.1538;0.4268;
1358.1000;0.1530;0.4221;
1358.4000;0.1538;0.4244;
1358.7000;0.1522;0.4197;
1359.0000;0.1547;0.4197;
1359.3000;0.1522;0.4173;
1359.6000;0.1416;0.3887;
1359.9000;0.1490;0.4006;
1360.2000;0.1579;0.4173;
1360.5000;0.1514;0.4030;
1360.8000;0.1506;0.4078;
1361.1000;0.1547;0.4221;
1361.4000;0.1579;0.4268;
1361.7000;0.1498;0.4030;
1362.0000;0.1522;0.4197;
1362.3000;0.1522;0.4149;
1362.6000;0.1604;0.4388;
1362.9000;0.1506;0.4149;
1363.2000;0.1522;0.4101;
1363.5000;0.1530;0.4221;
1363.8000;0.1506;0.4149;
1364.1000;0.1514;0.4173;
1364.4000;0.1547;0.4292;
1364.7000;0.1522;0.4173;
1365.0000;0.1538;0.4197;
1365.3000;0.1514;0.4125;
1365.6000;0.1538;0.4173;
1365.9000;0.1530;0.4149;
1366.2000;0.1538;0.4149;
1366.5000;0.1506;0.4030;
1366.8000;0.1530;0.4054;
1367.1000;0.1530;0.4101;
1367.4000;0.1538;0.4125;
1367.7000;0.1498;0.4078;
1368.0000;0.1522;0.4054;
1368.3000;0.1555;0.4125;
1368.6000;0.1514;0.3958;
1368.9000;0.1498;0.4006;
1369.2000;0.1498;0.3982;
1369.5000;0.1530;0.4054;
1369.8000;0.1530;0.4030;
1370.1000;0.1530;0.4006;
1370.4000;0.1530;0.4030;
1370.7000;0.1538;0.4173;
1371.0000;0.1522;0.4101;
1371.3000;0.1530;0.4149;
1371.6000;0.1547;0.4173;
1371.9000;0.1555;0.4149;
1372.2000;0.1506;0.4125;
1372.5000;0.1530;0.4101;
1372.8000;0.1522;0.4078;
1373.1000;0.1514;0.4078;
1373.4000;0.1522;0.4125;
1373.7000;0.1522;0.4197;
1374.0000;0.1514;0.4173;
1374.3000;0.1408;0.3863;
1374.6000;0.1490;0.3958;
1374.9000;0.1595;0.4244;
1375.2000;0.1514;0.3934;
1375.5000;0.1425;0.3768;
1375.8000;0.1449;0.3791;
1376.1000;0.1530;0.4006;
1376.4000;0.1514;0.4006;
1376.7000;0.1522;0.4054;
1377.0000;0.1514;0.3982;
1377.3000;0.1530;0.4149;
1377.6000;0.1506;0.4078;
1377.9000;0.1522;0.4149;
1378.2000;0.1522;0.4149;
1378.5000;0.1538;0.4173;
1378.8000;0.1506;0.4078;
1379.1000;0.1530;0.4197;
1379.4000;0.1522;0.4292;
1379.7000;0.1538;0.4364;
1380.0000;0.1530;0.4244;
1380.3000;0.1530;0.4173;
1380.6000;0.1555;0.4221;
1380.9000;0.1530;0.4221;
1381.2000;0.1547;0.4197;
1381.5000;0.1547;0.4173;
1381.8000;0.1538;0.4149;
1382.1000;0.1506;0.4101;
1382.4000;0.1538;0.4149;
1382.7000;0.1522;0.4078;
1383.0000;0.1514;0.3958;
1383.3000;0.1514;0.3958;
1383.6000;0.1506;0.3958;
1383.9000;0.1538;0.4006;
1384.2000;0.1522;0.4078;
1384.5000;0.1555;0.4125;
1384.8000;0.1538;0.4006;
1385.1000;0.1547;0.4078;
1385.4000;0.1522;0.4101;
1385.7000;0.1530;0.4078;
1386.0000;0.1522;0.4054;
1386.3000;0.1538;0.4149;
1386.6000;0.1547;0.4197;
1386.9000;0.1506;0.4078;
1387.2000;0.1514;0.4149;
1387.5000;0.1514;0.4101;
1387.8000;0.1530;0.4149;
1388.1000;0.1538;0.4221;
1388.4000;0.1522;0.4221;
1388.7000;0.1530;0.4268;
1389.0000;0.1530;0.4268;
1389.3000;0.1530;0.4221;
1389.6000;0.1538;0.4221;
1389.9000;0.1522;0.4101;
1390.2000;0.1522;0.4125;
1390.5000;0.1538;0.4149;
1390.8000;0.1538;0.4101;
1391.1000;0.1530;0.4149;
1391.4000;0.1555;0.4149;
1391.7000;0.1547;0.4101;
1392.0000;0.1522;0.4030;
1392.3000;0.1628;0.4340;
1392.6000;0.1538;0.4173;
1392.9000;0.1530;0.4125;
1393.2000;0.1522;0.4125;
1393.5000;0.1514;0.4197;
1393.8000;0.1530;0.4221;
1394.1000;0.1514;0.4197;
1394.4000;0.1522;0.4316;
1394.7000;0.1522;0.4197;
1395.0000;0.1514;0.4221;
1395.3000;0.1538;0.4173;
1395.6000;0.1571;0.4340;
1395.9000;0.1522;0.4244;
1396.2000;0.1514;0.4221;
1396.5000;0.1522;0.4173;
1396.8000;0.1530;0.4197;
1397.1000;0.1530;0.4173;
1397.4000;0.1522;0.4149;
1397.7000;0.1530;0.4173;
1398.0000;0.1530;0.4197;
1398.3000;0.1538;0.4149;
1398.6000;0.1530;0.4173;
1398.9000;0.1538;0.4149;
1399.2000;0.1547;0.4101;
1399.5000;0.1530;0.4125;
1399.8000;0.1547;0.4244;
