time/ms;Fluo/V;P700 deltaI/I x10³;
-199.8000;0.1530;0.3386;
-199.5000;0.1522;0.3291;
-199.2000;0.1604;0.3481;
-198.9000;0.1490;0.3171;
-198.6000;0.1522;0.3243;
-198.3000;0.1465;0.3100;
-198.0000;0.1473;0.3052;
-197.7000;0.1530;0.3314;
-197.4000;0.1522;0.3291;
-197.1000;0.1530;0.3195;
-196.8000;0.1522;0.3124;
-196.5000;0.1530;0.3195;
-196.2000;0.1522;0.3267;
-195.9000;0.1547;0.3291;
-195.6000;0.1514;0.3243;
-195.3000;0.1538;0.3291;
-195.0000;0.1530;0.3386;
-194.7000;0.1530;0.3338;
-194.4000;0.1522;0.3219;
-194.1000;0.1498;0.3124;
-193.8000;0.1530;0.3219;
-193.5000;0.1538;0.3291;
-193.2000;0.1555;0.3267;
-192.9000;0.1563;0.3291;
-192.6000;0.1425;0.2957;
-192.3000;0.1522;0.3171;
-192.0000;0.1547;0.3243;
-191.7000;0.1693;0.3553;
-191.4000;0.1538;0.3195;
-191.1000;0.1490;0.3052;
-190.8000;0.1538;0.3219;
-190.5000;0.1547;0.3267;
-190.2000;0.1530;0.3291;
-189.9000;0.1538;0.3314;
-189.6000;0.1490;0.3243;
-189.3000;0.1547;0.3291;
-189.0000;0.1473;0.3100;
-188.7000;0.1522;0.3243;
-188.4000;0.1522;0.3314;
-188.1000;0.1465;0.3219;
-187.8000;0.1547;0.3410;
-187.5000;0.1514;0.3291;
-187.2000;0.1530;0.3291;
-186.9000;0.1514;0.3243;
-186.6000;0.1530;0.3243;
-186.3000;0.1522;0.3219;
-186.0000;0.1465;0.3076;
-185.7000;0.1555;0.3362;
-185.4000;0.1522;0.3219;
-185.1000;0.1547;0.3362;
-184.8000;0.1530;0.3291;
-184.5000;0.1522;0.3243;
-184.2000;0.1522;0.3267;
-183.9000;0.1547;0.3243;
-183.6000;0.1538;0.3338;
-183.3000;0.1530;0.3338;
-183.0000;0.1530;0.3362;
-182.7000;0.1449;0.3100;
-182.4000;0.1538;0.3386;
-182.1000;0.1538;0.3386;
-181.8000;0.1522;0.3314;
-181.5000;0.1416;0.3028;
-181.2000;0.1530;0.3219;
-180.9000;0.1522;0.3195;
-180.6000;0.1522;0.3148;
-180.3000;0.1522;0.3148;
-180.0000;0.1547;0.3171;
-179.7000;0.1530;0.3052;
-179.4000;0.1538;0.3076;
-179.1000;0.1636;0.3386;
-178.8000;0.1530;0.3195;
-178.5000;0.1522;0.3195;
-178.2000;0.1530;0.3338;
-177.9000;0.1538;0.3291;
-177.6000;0.1538;0.3410;
-177.3000;0.1538;0.3410;
-177.0000;0.1522;0.3434;
-176.7000;0.1530;0.3362;
-176.4000;0.1547;0.3362;
-176.1000;0.1530;0.3386;
-175.8000;0.1595;0.3624;
-175.5000;0.1612;0.3672;
-175.2000;0.1563;0.3529;
-174.9000;0.1538;0.3410;
-174.6000;0.1408;0.2981;
-174.3000;0.1522;0.3243;
-174.0000;0.1473;0.3028;
-173.7000;0.1506;0.3171;
-173.4000;0.1522;0.3267;
-173.1000;0.1416;0.3100;
-172.8000;0.1530;0.3314;
-172.5000;0.1563;0.3386;
-172.2000;0.1547;0.3362;
-171.9000;0.1538;0.3386;
-171.6000;0.1522;0.3314;
-171.3000;0.1579;0.3458;
-171.0000;0.1408;0.3005;
-170.7000;0.1522;0.3314;
-170.4000;0.1506;0.3362;
-170.1000;0.1555;0.3481;
-169.8000;0.1555;0.3481;
-169.5000;0.1506;0.3338;
-169.2000;0.1506;0.3410;
-168.9000;0.1473;0.3291;
-168.6000;0.1547;0.3505;
-168.3000;0.1538;0.3529;
-168.0000;0.1628;0.3791;
-167.7000;0.1498;0.3386;
-167.4000;0.1530;0.3386;
-167.1000;0.1530;0.3338;
-166.8000;0.1522;0.3219;
-166.5000;0.1522;0.3171;
-166.2000;0.1522;0.3219;
-165.9000;0.1555;0.3243;
-165.6000;0.1522;0.3219;
-165.3000;0.1530;0.3267;
-165.0000;0.1547;0.3291;
-164.7000;0.1563;0.3410;
-164.4000;0.1530;0.3291;
-164.1000;0.1547;0.3267;
-163.8000;0.1538;0.3171;
-163.5000;0.1547;0.3267;
-163.2000;0.1538;0.3267;
-162.9000;0.1522;0.3243;
-162.6000;0.1506;0.3291;
-162.3000;0.1514;0.3291;
-162.0000;0.1555;0.3410;
-161.7000;0.1457;0.3171;
-161.4000;0.1522;0.3338;
-161.1000;0.1538;0.3386;
-160.8000;0.1547;0.3458;
-160.5000;0.1547;0.3481;
-160.2000;0.1522;0.3410;
-159.9000;0.1514;0.3362;
-159.6000;0.1530;0.3338;
-159.3000;0.1490;0.3195;
-159.0000;0.1514;0.3314;
-158.7000;0.1514;0.3314;
-158.4000;0.1506;0.3386;
-158.1000;0.1530;0.3529;
-157.8000;0.1506;0.3505;
-157.5000;0.1514;0.3577;
-157.2000;0.1522;0.3529;
-156.9000;0.1530;0.3672;
-156.6000;0.1522;0.3601;
-156.3000;0.1530;0.3553;
-156.0000;0.1579;0.3672;
-155.7000;0.1538;0.3601;
-155.4000;0.1547;0.3672;
-155.1000;0.1481;0.3505;
-154.8000;0.1522;0.3529;
-154.5000;0.1522;0.3481;
-154.2000;0.1530;0.3458;
-153.9000;0.1538;0.3481;
-153.6000;0.1514;0.3458;
-153.3000;0.1522;0.3410;
-153.0000;0.1530;0.3362;
-152.7000;0.1481;0.3267;
-152.4000;0.1522;0.3338;
-152.1000;0.1522;0.3362;
-151.8000;0.1538;0.3410;
-151.5000;0.1530;0.3362;
-151.2000;0.1530;0.3410;
-150.9000;0.1522;0.3362;
-150.6000;0.1571;0.3505;
-150.3000;0.1563;0.3434;
-150.0000;0.1530;0.3410;
-149.7000;0.1547;0.3386;
-149.4000;0.1547;0.3362;
-149.1000;0.1514;0.3291;
-148.8000;0.1538;0.3338;
-148.5000;0.1514;0.3243;
-148.2000;0.1555;0.3338;
-147.9000;0.1522;0.3291;
-147.6000;0.1587;0.3505;
-147.3000;0.1498;0.3291;
-147.0000;0.1547;0.3386;
-146.7000;0.1538;0.3362;
-146.4000;0.1555;0.3481;
-146.1000;0.1514;0.3410;
-145.8000;0.1595;0.3696;
-145.5000;0.1465;0.3291;
-145.2000;0.1465;0.3243;
-144.9000;0.1530;0.3338;
-144.6000;0.1547;0.3338;
-144.3000;0.1547;0.3338;
-144.0000;0.1587;0.3410;
-143.7000;0.1538;0.3195;
-143.4000;0.1530;0.3195;
-143.1000;0.1514;0.3124;
-142.8000;0.1530;0.3124;
-142.5000;0.1538;0.3028;
-142.2000;0.1538;0.3052;
-141.9000;0.1514;0.3028;
-141.6000;0.1547;0.3148;
-141.3000;0.1563;0.3171;
-141.0000;0.1530;0.3028;
-140.7000;0.1538;0.3100;
-140.4000;0.1538;0.3171;
-140.1000;0.1514;0.3124;
-139.8000;0.1547;0.3243;
-139.5000;0.1571;0.3386;
-139.2000;0.1530;0.3338;
-138.9000;0.1538;0.3362;
-138.6000;0.1522;0.3338;
-138.3000;0.1538;0.3338;
-138.0000;0.1530;0.3267;
-137.7000;0.1538;0.3291;
-137.4000;0.1555;0.3338;
-137.1000;0.1555;0.3314;
-136.8000;0.1530;0.3219;
-136.5000;0.1522;0.3195;
-136.2000;0.1538;0.3243;
-135.9000;0.1530;0.3219;
-135.6000;0.1530;0.3267;
-135.3000;0.1538;0.3314;
-135.0000;0.1571;0.3529;
-134.7000;0.1498;0.3338;
-134.4000;0.1538;0.3481;
-134.1000;0.1547;0.3410;
-133.8000;0.1530;0.3314;
-133.5000;0.1530;0.3338;
-133.2000;0.1571;0.3434;
-132.9000;0.1490;0.3243;
-132.6000;0.1538;0.3243;
-132.3000;0.1628;0.3410;
-132.0000;0.1514;0.3148;
-131.7000;0.1465;0.2957;
-131.4000;0.1530;0.3148;
-131.1000;0.1538;0.3076;
-130.8000;0.1514;0.3052;
-130.5000;0.1514;0.3124;
-130.2000;0.1538;0.3195;
-129.9000;0.1522;0.3219;
-129.6000;0.1547;0.3267;
-129.3000;0.1514;0.3219;
-129.0000;0.1530;0.3338;
-128.7000;0.1514;0.3291;
-128.4000;0.1522;0.3314;
-128.1000;0.1547;0.3434;
-127.8000;0.1514;0.3386;
-127.5000;0.1547;0.3481;
-127.2000;0.1514;0.3362;
-126.9000;0.1538;0.3458;
-126.6000;0.1538;0.3434;
-126.3000;0.1522;0.3434;
-126.0000;0.1522;0.3434;
-125.7000;0.1530;0.3434;
-125.4000;0.1506;0.3386;
-125.1000;0.1522;0.3434;
-124.8000;0.1555;0.3505;
-124.5000;0.1514;0.3362;
-124.2000;0.1530;0.3434;
-123.9000;0.1538;0.3458;
-123.6000;0.1522;0.3362;
-123.3000;0.1555;0.3410;
-123.0000;0.1538;0.3362;
-122.7000;0.1530;0.3362;
-122.4000;0.1587;0.3434;
-122.1000;0.1538;0.3314;
-121.8000;0.1555;0.3362;
-121.5000;0.1481;0.3195;
-121.2000;0.1481;0.3171;
-120.9000;0.1555;0.3338;
-120.6000;0.1538;0.3291;
-120.3000;0.1555;0.3362;
-120.0000;0.1530;0.3338;
-119.7000;0.1555;0.3434;
-119.4000;0.1530;0.3434;
-119.1000;0.1522;0.3505;
-118.8000;0.1530;0.3553;
-118.5000;0.1522;0.3529;
-118.2000;0.1530;0.3529;
-117.9000;0.1538;0.3505;
-117.6000;0.1538;0.3434;
-117.3000;0.1530;0.3410;
-117.0000;0.1555;0.3481;
-116.7000;0.1384;0.3124;
-116.4000;0.1514;0.3458;
-116.1000;0.1506;0.3291;
-115.8000;0.1522;0.3338;
-115.5000;0.1538;0.3386;
-115.2000;0.1522;0.3291;
-114.9000;0.1506;0.3267;
-114.6000;0.1530;0.3314;
-114.3000;0.1538;0.3314;
-114.0000;0.1506;0.3291;
-113.7000;0.1506;0.3362;
-113.4000;0.1530;0.3458;
-113.1000;0.1530;0.3458;
-112.8000;0.1514;0.3434;
-112.5000;0.1530;0.3624;
-112.2000;0.1538;0.3577;
-111.9000;0.1514;0.3458;
-111.6000;0.1547;0.3529;
-111.3000;0.1547;0.3553;
-111.0000;0.1530;0.3386;
-110.7000;0.1595;0.3529;
-110.4000;0.1538;0.3458;
-110.1000;0.1514;0.3410;
-109.8000;0.1514;0.3291;
-109.5000;0.1522;0.3291;
-109.2000;0.1612;0.3481;
-108.9000;0.1498;0.3171;
-108.6000;0.1547;0.3386;
-108.3000;0.1530;0.3338;
-108.0000;0.1522;0.3243;
-107.7000;0.1522;0.3219;
-107.4000;0.1530;0.3195;
-107.1000;0.1538;0.3171;
-106.8000;0.1514;0.3219;
-106.5000;0.1538;0.3291;
-106.2000;0.1538;0.3219;
-105.9000;0.1555;0.3314;
-105.6000;0.1530;0.3267;
-105.3000;0.1547;0.3410;
-105.0000;0.1547;0.3410;
-104.7000;0.1555;0.3338;
-104.4000;0.1538;0.3291;
-104.1000;0.1547;0.3291;
-103.8000;0.1555;0.3314;
-103.5000;0.1538;0.3291;
-103.2000;0.1514;0.3362;
-102.9000;0.1490;0.3362;
-102.6000;0.1530;0.3458;
-102.3000;0.1522;0.3458;
-102.0000;0.1522;0.3458;
-101.7000;0.1522;0.3505;
-101.4000;0.1522;0.3505;
-101.1000;0.1530;0.3481;
-100.8000;0.1522;0.3458;
-100.5000;0.1538;0.3505;
-100.2000;0.1547;0.3434;
-99.9000;0.1522;0.3386;
-99.6000;0.1498;0.3291;
-99.3000;0.1490;0.3338;
-99.0000;0.1547;0.3458;
-98.7000;0.1506;0.3314;
-98.4000;0.1530;0.3314;
-98.1000;0.1547;0.3338;
-97.8000;0.1522;0.3386;
-97.5000;0.1490;0.3338;
-97.2000;0.1587;0.3624;
-96.9000;0.1530;0.3481;
-96.6000;0.1547;0.3481;
-96.3000;0.1522;0.3434;
-96.0000;0.1547;0.3458;
-95.7000;0.1579;0.3529;
-95.4000;0.1538;0.3481;
-95.1000;0.1555;0.3553;
-94.8000;0.1514;0.3529;
-94.5000;0.1449;0.3338;
-94.2000;0.1522;0.3481;
-93.9000;0.1538;0.3481;
-93.6000;0.1595;0.3601;
-93.3000;0.1514;0.3410;
-93.0000;0.1530;0.3553;
-92.7000;0.1506;0.3434;
-92.4000;0.1522;0.3481;
-92.1000;0.1522;0.3434;
-91.8000;0.1530;0.3434;
-91.5000;0.1506;0.3219;
-91.2000;0.1538;0.3410;
-90.9000;0.1522;0.3386;
-90.6000;0.1530;0.3434;
-90.3000;0.1538;0.3458;
-90.0000;0.1547;0.3481;
-89.7000;0.1555;0.3481;
-89.4000;0.1547;0.3505;
-89.1000;0.1522;0.3481;
-88.8000;0.1490;0.3386;
-88.5000;0.1538;0.3624;
-88.2000;0.1514;0.3624;
-87.9000;0.1481;0.3410;
-87.6000;0.1506;0.3410;
-87.3000;0.1490;0.3362;
-87.0000;0.1555;0.3505;
-86.7000;0.1449;0.3291;
-86.4000;0.1547;0.3434;
-86.1000;0.1530;0.3338;
-85.8000;0.1547;0.3362;
-85.5000;0.1530;0.3434;
-85.2000;0.1538;0.3410;
-84.9000;0.1579;0.3505;
-84.6000;0.1563;0.3458;
-84.3000;0.1514;0.3362;
-84.0000;0.1538;0.3481;
-83.7000;0.1538;0.3458;
-83.4000;0.1563;0.3529;
-83.1000;0.1538;0.3505;
-82.8000;0.1457;0.3362;
-82.5000;0.1514;0.3458;
-82.2000;0.1547;0.3505;
-81.9000;0.1652;0.3696;
-81.6000;0.1547;0.3386;
-81.3000;0.1522;0.3291;
-81.0000;0.1530;0.3314;
-80.7000;0.1547;0.3458;
-80.4000;0.1530;0.3529;
-80.1000;0.1514;0.3434;
-79.8000;0.1604;0.3648;
-79.5000;0.1547;0.3601;
-79.2000;0.1522;0.3601;
-78.9000;0.1473;0.3458;
-78.6000;0.1506;0.3458;
-78.3000;0.1530;0.3505;
-78.0000;0.1522;0.3481;
-77.7000;0.1522;0.3410;
-77.4000;0.1530;0.3434;
-77.1000;0.1522;0.3362;
-76.8000;0.1530;0.3410;
-76.5000;0.1538;0.3362;
-76.2000;0.1441;0.3124;
-75.9000;0.1530;0.3338;
-75.6000;0.1490;0.3267;
-75.3000;0.1514;0.3410;
-75.0000;0.1522;0.3434;
-74.7000;0.1514;0.3434;
-74.4000;0.1522;0.3505;
-74.1000;0.1490;0.3434;
-73.8000;0.1538;0.3458;
-73.5000;0.1538;0.3529;
-73.2000;0.1547;0.3434;
-72.9000;0.1530;0.3410;
-72.6000;0.1514;0.3338;
-72.3000;0.1571;0.3458;
-72.0000;0.1547;0.3386;
-71.7000;0.1547;0.3434;
-71.4000;0.1530;0.3410;
-71.1000;0.1530;0.3362;
-70.8000;0.1514;0.3338;
-70.5000;0.1514;0.3362;
-70.2000;0.1547;0.3458;
-69.9000;0.1530;0.3410;
-69.6000;0.1522;0.3434;
-69.3000;0.1628;0.3720;
-69.0000;0.1547;0.3529;
-68.7000;0.1530;0.3505;
-68.4000;0.1530;0.3553;
-68.1000;0.1530;0.3481;
-67.8000;0.1530;0.3410;
-67.5000;0.1538;0.3410;
-67.2000;0.1538;0.3338;
-66.9000;0.1514;0.3291;
-66.6000;0.1522;0.3362;
-66.3000;0.1547;0.3386;
-66.0000;0.1538;0.3386;
-65.7000;0.1538;0.3338;
-65.4000;0.1522;0.3338;
-65.1000;0.1538;0.3362;
-64.8000;0.1522;0.3291;
-64.5000;0.1530;0.3314;
-64.2000;0.1538;0.3362;
-63.9000;0.1530;0.3338;
-63.6000;0.1538;0.3314;
-63.3000;0.1522;0.3267;
-63.0000;0.1538;0.3267;
-62.7000;0.1538;0.3362;
-62.4000;0.1547;0.3386;
-62.1000;0.1538;0.3314;
-61.8000;0.1644;0.3624;
-61.5000;0.1555;0.3314;
-61.2000;0.1547;0.3291;
-60.9000;0.1538;0.3291;
-60.6000;0.1514;0.3243;
-60.3000;0.1547;0.3314;
-60.0000;0.1530;0.3243;
-59.7000;0.1547;0.3291;
-59.4000;0.1530;0.3267;
-59.1000;0.1538;0.3386;
-58.8000;0.1547;0.3338;
-58.5000;0.1538;0.3291;
-58.2000;0.1522;0.3243;
-57.9000;0.1384;0.2861;
-57.6000;0.1530;0.3314;
-57.3000;0.1555;0.3362;
-57.0000;0.1538;0.3338;
-56.7000;0.1563;0.3410;
-56.4000;0.1547;0.3434;
-56.1000;0.1547;0.3410;
-55.8000;0.1595;0.3458;
-55.5000;0.1530;0.3171;
-55.2000;0.1538;0.3171;
-54.9000;0.1538;0.3291;
-54.6000;0.1538;0.3243;
-54.3000;0.1538;0.3195;
-54.0000;0.1416;0.2933;
-53.7000;0.1522;0.3219;
-53.4000;0.1571;0.3386;
-53.1000;0.1587;0.3458;
-52.8000;0.1555;0.3386;
-52.5000;0.1538;0.3386;
-52.2000;0.1547;0.3434;
-51.9000;0.1522;0.3386;
-51.6000;0.1506;0.3362;
-51.3000;0.1547;0.3458;
-51.0000;0.1571;0.3410;
-50.7000;0.1506;0.3148;
-50.4000;0.1530;0.3195;
-50.1000;0.1522;0.3243;
-49.8000;0.1555;0.3338;
-49.5000;0.1522;0.3195;
-49.2000;0.1538;0.3243;
-48.9000;0.1547;0.3291;
-48.6000;0.1522;0.3267;
-48.3000;0.1538;0.3338;
-48.0000;0.1555;0.3481;
-47.7000;0.1481;0.3338;
-47.4000;0.1530;0.3481;
-47.1000;0.1530;0.3458;
-46.8000;0.1514;0.3338;
-46.5000;0.1530;0.3410;
-46.2000;0.1522;0.3386;
-45.9000;0.1530;0.3410;
-45.6000;0.1555;0.3362;
-45.3000;0.1530;0.3291;
-45.0000;0.1587;0.3553;
-44.7000;0.1571;0.3481;
-44.4000;0.1514;0.3314;
-44.1000;0.1644;0.3577;
-43.8000;0.1514;0.3219;
-43.5000;0.1506;0.3291;
-43.2000;0.1514;0.3291;
-42.9000;0.1522;0.3386;
-42.6000;0.1538;0.3386;
-42.3000;0.1530;0.3386;
-42.0000;0.1547;0.3386;
-41.7000;0.1547;0.3434;
-41.4000;0.1547;0.3458;
-41.1000;0.1514;0.3481;
-40.8000;0.1530;0.3624;
-40.5000;0.1530;0.3624;
-40.2000;0.1604;0.3744;
-39.9000;0.1530;0.3553;
-39.6000;0.1547;0.3529;
-39.3000;0.1490;0.3362;
-39.0000;0.1522;0.3481;
-38.7000;0.1530;0.3410;
-38.4000;0.1522;0.3362;
-38.1000;0.1530;0.3386;
-37.8000;0.1425;0.3100;
-37.5000;0.1514;0.3243;
-37.2000;0.1628;0.3553;
-36.9000;0.1587;0.3386;
-36.6000;0.1555;0.3243;
-36.3000;0.1530;0.3171;
-36.0000;0.1555;0.3243;
-35.7000;0.1571;0.3314;
-35.4000;0.1547;0.3314;
-35.1000;0.1538;0.3338;
-34.8000;0.1522;0.3338;
-34.5000;0.1538;0.3362;
-34.2000;0.1530;0.3291;
-33.9000;0.1530;0.3314;
-33.6000;0.1547;0.3314;
-33.3000;0.1538;0.3314;
-33.0000;0.1555;0.3314;
-32.7000;0.1587;0.3458;
-32.4000;0.1530;0.3314;
-32.1000;0.1538;0.3267;
-31.8000;0.1530;0.3243;
-31.5000;0.1555;0.3267;
-31.2000;0.1530;0.3243;
-30.9000;0.1514;0.3267;
-30.6000;0.1473;0.3219;
-30.3000;0.1538;0.3291;
-30.0000;0.1547;0.3314;
-29.7000;0.1538;0.3410;
-29.4000;0.1595;0.3648;
-29.1000;0.1522;0.3410;
-28.8000;0.1555;0.3434;
-28.5000;0.1481;0.3171;
-28.2000;0.1514;0.3267;
-27.9000;0.1547;0.3362;
-27.6000;0.1465;0.3195;
-27.3000;0.1547;0.3362;
-27.0000;0.1465;0.3124;
-26.7000;0.1538;0.3362;
-26.4000;0.1465;0.3148;
-26.1000;0.1530;0.3386;
-25.8000;0.1612;0.3553;
-25.5000;0.1538;0.3362;
-25.2000;0.1547;0.3386;
-24.9000;0.1571;0.3434;
-24.6000;0.1530;0.3338;
-24.3000;0.1514;0.3291;
-24.0000;0.1547;0.3386;
-23.7000;0.1547;0.3386;
-23.4000;0.1530;0.3338;
-23.1000;0.1481;0.3171;
-22.8000;0.1538;0.3410;
-22.5000;0.1547;0.3410;
-22.2000;0.1538;0.3434;
-21.9000;0.1563;0.3410;
-21.6000;0.1547;0.3338;
-21.3000;0.1538;0.3338;
-21.0000;0.1490;0.3124;
-20.7000;0.1514;0.3171;
-20.4000;0.1538;0.3291;
-20.1000;0.1538;0.3267;
-19.8000;0.1555;0.3362;
-19.5000;0.1547;0.3291;
-19.2000;0.1587;0.3458;
-18.9000;0.1538;0.3362;
-18.6000;0.1555;0.3362;
-18.3000;0.1530;0.3291;
-18.0000;0.1538;0.3338;
-17.7000;0.1530;0.3291;
-17.4000;0.1530;0.3362;
-17.1000;0.1425;0.3028;
-16.8000;0.1522;0.3267;
-16.5000;0.1530;0.3338;
-16.2000;0.1433;0.3076;
-15.9000;0.1538;0.3314;
-15.6000;0.1514;0.3243;
-15.3000;0.1661;0.3696;
-15.0000;0.1587;0.3505;
-14.7000;0.1498;0.3386;
-14.4000;0.1547;0.3553;
-14.1000;0.1522;0.3434;
-13.8000;0.1490;0.3338;
-13.5000;0.1530;0.3362;
-13.2000;0.1547;0.3386;
-12.9000;0.1538;0.3386;
-12.6000;0.1506;0.3219;
-12.3000;0.1538;0.3219;
-12.0000;0.1530;0.3195;
-11.7000;0.1538;0.3219;
-11.4000;0.1514;0.3148;
-11.1000;0.1530;0.3148;
-10.8000;0.1530;0.3124;
-10.5000;0.1522;0.3100;
-10.2000;0.1400;0.2766;
-9.9000;0.1522;0.3148;
-9.6000;0.1555;0.3195;
-9.3000;0.1530;0.3219;
-9.0000;0.1506;0.3243;
-8.7000;0.1538;0.3386;
-8.4000;0.1555;0.3434;
-8.1000;0.1538;0.3410;
-7.8000;0.1498;0.3243;
-7.5000;0.1506;0.3386;
-7.2000;0.1506;0.3386;
-6.9000;0.1514;0.3434;
-6.6000;0.1481;0.3338;
-6.3000;0.1530;0.3458;
-6.0000;0.1595;0.3601;
-5.7000;0.1530;0.3386;
-5.4000;0.1498;0.3171;
-5.1000;0.1522;0.3243;
-4.8000;0.1530;0.3338;
-4.5000;0.1481;0.3291;
-4.2000;0.1538;0.3338;
-3.9000;0.1498;0.3243;
-3.6000;0.1514;0.3362;
-3.3000;0.1538;0.3386;
-3.0000;0.1547;0.3338;
-2.7000;0.1530;0.3410;
-2.4000;0.1473;0.3291;
-2.1000;0.1457;0.3267;
-1.8000;0.1538;0.3386;
-1.5000;0.1522;0.3291;
-1.2000;0.1547;0.3362;
-0.9000;0.1506;0.3314;
-0.6000;0.1538;0.3410;
-0.3000;0.1563;0.3505;
0.0000;0.1563;0.3505;
0.3000;0.1547;0.3601;
0.6000;0.1538;0.3577;
0.9000;0.1571;0.3720;
1.2000;0.1538;0.3768;
1.5000;0.1547;0.3863;
1.8000;0.1563;0.3934;
2.1000;0.1587;0.4030;
2.4000;0.1555;0.3934;
2.7000;0.1563;0.4054;
3.0000;0.1563;0.4149;
3.3000;0.1595;0.4221;
3.6000;0.1563;0.4244;
3.9000;0.1571;0.4244;
4.2000;0.1587;0.4173;
4.5000;0.1595;0.4292;
4.8000;0.1587;0.4340;
5.1000;0.1547;0.4292;
5.4000;0.1595;0.4435;
5.7000;0.1571;0.4411;
6.0000;0.1604;0.4554;
6.3000;0.1579;0.4554;
6.6000;0.1481;0.4292;
6.9000;0.1595;0.4602;
7.2000;0.1636;0.4745;
7.5000;0.1612;0.4698;
7.8000;0.1538;0.4531;
8.1000;0.1636;0.4817;
8.4000;0.1571;0.4650;
8.7000;0.1587;0.4721;
9.0000;0.1612;0.4698;
9.3000;0.1538;0.4507;
9.6000;0.1644;0.4793;
9.9000;0.1604;0.4698;
10.2000;0.1490;0.4411;
10.5000;0.1595;0.4674;
10.8000;0.1620;0.4745;
11.1000;0.1571;0.4650;
11.4000;0.1571;0.4650;
11.7000;0.1571;0.4674;
12.0000;0.1579;0.4745;
12.3000;0.1579;0.4793;
12.6000;0.1579;0.4769;
12.9000;0.1579;0.4793;
13.2000;0.1628;0.4936;
13.5000;0.1604;0.4864;
13.8000;0.1595;0.4793;
14.1000;0.1587;0.4793;
14.4000;0.1571;0.4698;
14.7000;0.1604;0.4769;
15.0000;0.1595;0.4721;
15.3000;0.1571;0.4626;
15.6000;0.1595;0.4769;
15.9000;0.1595;0.4769;
16.2000;0.1693;0.4936;
16.5000;0.1595;0.4721;
16.8000;0.1579;0.4650;
17.1000;0.1595;0.4698;
17.4000;0.1604;0.4674;
17.7000;0.1587;0.4698;
18.0000;0.1595;0.4769;
18.3000;0.1538;0.4554;
18.6000;0.1604;0.4793;
18.9000;0.1604;0.4769;
19.2000;0.1571;0.4650;
19.5000;0.1604;0.4674;
19.8000;0.1595;0.4626;
20.1000;0.1595;0.4698;
20.4000;0.1644;0.4864;
20.7000;0.1506;0.4435;
21.0000;0.1579;0.4817;
21.3000;0.1587;0.4793;
21.6000;0.1595;0.4888;
21.9000;0.1595;0.4936;
22.2000;0.1587;0.4841;
22.5000;0.1628;0.4912;
22.8000;0.1571;0.4769;
23.1000;0.1587;0.4841;
23.4000;0.1547;0.4698;
23.7000;0.1661;0.5008;
24.0000;0.1612;0.4912;
24.3000;0.1465;0.4483;
24.6000;0.1579;0.4650;
24.9000;0.1595;0.4602;
25.2000;0.1579;0.4578;
25.5000;0.1579;0.4554;
25.8000;0.1587;0.4554;
26.1000;0.1587;0.4507;
26.4000;0.1555;0.4411;
26.7000;0.1595;0.4626;
27.0000;0.1595;0.4626;
27.3000;0.1587;0.4721;
27.6000;0.1612;0.4793;
27.9000;0.1595;0.4793;
28.2000;0.1587;0.4769;
28.5000;0.1563;0.4817;
28.8000;0.1595;0.4793;
29.1000;0.1636;0.4888;
29.4000;0.1587;0.4650;
29.7000;0.1587;0.4745;
30.0000;0.1579;0.4745;
30.3000;0.1595;0.4793;
30.6000;0.1522;0.4578;
30.9000;0.1587;0.4769;
31.2000;0.1604;0.4745;
31.5000;0.1579;0.4674;
31.8000;0.1530;0.4554;
32.1000;0.1587;0.4793;
32.4000;0.1538;0.4674;
32.7000;0.1595;0.4864;
33.0000;0.1595;0.4817;
33.3000;0.1595;0.4721;
33.6000;0.1604;0.4793;
33.9000;0.1579;0.4721;
34.2000;0.1620;0.4864;
34.5000;0.1595;0.4793;
34.8000;0.1587;0.4817;
35.1000;0.1620;0.4912;
35.4000;0.1595;0.4841;
35.7000;0.1579;0.4769;
36.0000;0.1547;0.4650;
36.3000;0.1563;0.4674;
36.6000;0.1595;0.4721;
36.9000;0.1612;0.4650;
37.2000;0.1579;0.4531;
37.5000;0.1604;0.4578;
37.8000;0.1604;0.4554;
38.1000;0.1587;0.4578;
38.4000;0.1579;0.4650;
38.7000;0.1620;0.4817;
39.0000;0.1579;0.4674;
39.3000;0.1604;0.4674;
39.6000;0.1587;0.4626;
39.9000;0.1579;0.4602;
40.2000;0.1571;0.4554;
40.5000;0.1595;0.4602;
40.8000;0.1587;0.4578;
41.1000;0.1604;0.4626;
41.4000;0.1579;0.4531;
41.7000;0.1595;0.4531;
42.0000;0.1758;0.5031;
42.3000;0.1587;0.4650;
42.6000;0.1579;0.4602;
42.9000;0.1481;0.4268;
43.2000;0.1579;0.4531;
43.5000;0.1555;0.4507;
43.8000;0.1587;0.4602;
44.1000;0.1604;0.4626;
44.4000;0.1571;0.4578;
44.7000;0.1595;0.4698;
45.0000;0.1563;0.4745;
45.3000;0.1571;0.4793;
45.6000;0.1604;0.4936;
45.9000;0.1612;0.4912;
46.2000;0.1604;0.4864;
46.5000;0.1587;0.4769;
46.8000;0.1587;0.4793;
47.1000;0.1587;0.4745;
47.4000;0.1555;0.4745;
47.7000;0.1587;0.4769;
48.0000;0.1628;0.4841;
48.3000;0.1644;0.4864;
48.6000;0.1595;0.4769;
48.9000;0.1587;0.4793;
49.2000;0.1587;0.4817;
49.5000;0.1587;0.4864;
49.8000;0.1587;0.4793;
50.1000;0.1579;0.4793;
50.4000;0.1571;0.4745;
50.7000;0.1587;0.4793;
51.0000;0.1587;0.4769;
51.3000;0.1612;0.4721;
51.6000;0.1595;0.4769;
51.9000;0.1547;0.4721;
52.2000;0.1644;0.5031;
52.5000;0.1587;0.4698;
52.8000;0.1595;0.4674;
53.1000;0.1644;0.4817;
53.4000;0.1595;0.4602;
53.7000;0.1595;0.4626;
54.0000;0.1555;0.4554;
54.3000;0.1595;0.4674;
54.6000;0.1587;0.4721;
54.9000;0.1522;0.4531;
55.2000;0.1538;0.4554;
55.5000;0.1595;0.4674;
55.8000;0.1571;0.4674;
56.1000;0.1595;0.4769;
56.4000;0.1571;0.4721;
56.7000;0.1595;0.4793;
57.0000;0.1595;0.4769;
57.3000;0.1587;0.4817;
57.6000;0.1604;0.4841;
57.9000;0.1571;0.4745;
58.2000;0.1661;0.4984;
58.5000;0.1604;0.4817;
58.8000;0.1571;0.4698;
59.1000;0.1579;0.4721;
59.4000;0.1604;0.4793;
59.7000;0.1595;0.4769;
60.0000;0.1595;0.4721;
60.3000;0.1595;0.4674;
60.6000;0.1587;0.4721;
60.9000;0.1587;0.4745;
61.2000;0.1595;0.4745;
61.5000;0.1587;0.4769;
61.8000;0.1595;0.4793;
62.1000;0.1677;0.5008;
62.4000;0.1571;0.4721;
62.7000;0.1595;0.4793;
63.0000;0.1579;0.4698;
63.3000;0.1604;0.4745;
63.6000;0.1628;0.4841;
63.9000;0.1595;0.4745;
64.2000;0.1579;0.4698;
64.5000;0.1620;0.4769;
64.8000;0.1595;0.4769;
65.1000;0.1587;0.4817;
65.4000;0.1563;0.4745;
65.7000;0.1604;0.4817;
66.0000;0.1579;0.4817;
66.3000;0.1587;0.4864;
66.6000;0.1636;0.4936;
66.9000;0.1587;0.4769;
67.2000;0.1587;0.4721;
67.5000;0.1587;0.4650;
67.8000;0.1595;0.4721;
68.1000;0.1612;0.4674;
68.4000;0.1587;0.4578;
68.7000;0.1579;0.4578;
69.0000;0.1563;0.4531;
69.3000;0.1595;0.4626;
69.6000;0.1571;0.4602;
69.9000;0.1595;0.4602;
70.2000;0.1587;0.4650;
70.5000;0.1604;0.4674;
70.8000;0.1595;0.4650;
71.1000;0.1726;0.5103;
71.4000;0.1563;0.4745;
71.7000;0.1604;0.4817;
72.0000;0.1490;0.4507;
72.3000;0.1579;0.4650;
72.6000;0.1563;0.4650;
72.9000;0.1750;0.5103;
73.2000;0.1604;0.4674;
73.5000;0.1587;0.4602;
73.8000;0.1571;0.4578;
74.1000;0.1644;0.4674;
74.4000;0.1595;0.4578;
74.7000;0.1595;0.4674;
75.0000;0.1587;0.4602;
75.3000;0.1571;0.4578;
75.6000;0.1579;0.4578;
75.9000;0.1595;0.4578;
76.2000;0.1555;0.4411;
76.5000;0.1595;0.4674;
76.8000;0.1628;0.4745;
77.1000;0.1612;0.4674;
77.4000;0.1587;0.4674;
77.7000;0.1620;0.4793;
78.0000;0.1579;0.4721;
78.3000;0.1604;0.4745;
78.6000;0.1571;0.4650;
78.9000;0.1465;0.4292;
79.2000;0.1522;0.4340;
79.5000;0.1604;0.4602;
79.8000;0.1555;0.4507;
80.1000;0.1547;0.4435;
80.4000;0.1563;0.4435;
80.7000;0.1587;0.4459;
81.0000;0.1563;0.4388;
81.3000;0.1595;0.4507;
81.6000;0.1579;0.4435;
81.9000;0.1587;0.4459;
82.2000;0.1587;0.4435;
82.5000;0.1595;0.4483;
82.8000;0.1506;0.4459;
83.1000;0.1595;0.4650;
83.4000;0.1571;0.4626;
83.7000;0.1587;0.4650;
84.0000;0.1693;0.5008;
84.3000;0.1595;0.4626;
84.6000;0.1604;0.4602;
84.9000;0.1612;0.4721;
85.2000;0.1595;0.4674;
85.5000;0.1579;0.4721;
85.8000;0.1620;0.4817;
86.1000;0.1555;0.4578;
86.4000;0.1579;0.4578;
86.7000;0.1579;0.4507;
87.0000;0.1612;0.4578;
87.3000;0.1579;0.4531;
87.6000;0.1530;0.4483;
87.9000;0.1571;0.4578;
88.2000;0.1579;0.4578;
88.5000;0.1636;0.4674;
88.8000;0.1587;0.4578;
89.1000;0.1579;0.4602;
89.4000;0.1595;0.4650;
89.7000;0.1604;0.4602;
90.0000;0.1579;0.4459;
90.3000;0.1587;0.4459;
90.6000;0.1563;0.4435;
90.9000;0.1563;0.4507;
91.2000;0.1595;0.4602;
91.5000;0.1579;0.4626;
91.8000;0.1579;0.4626;
92.1000;0.1595;0.4674;
92.4000;0.1628;0.4721;
92.7000;0.1579;0.4483;
93.0000;0.1595;0.4531;
93.3000;0.1604;0.4531;
93.6000;0.1595;0.4531;
93.9000;0.1595;0.4578;
94.2000;0.1595;0.4602;
94.5000;0.1530;0.4531;
94.8000;0.1604;0.4674;
95.1000;0.1644;0.4793;
95.4000;0.1604;0.4626;
95.7000;0.1587;0.4554;
96.0000;0.1587;0.4578;
96.3000;0.1612;0.4602;
96.6000;0.1612;0.4626;
96.9000;0.1587;0.4602;
97.2000;0.1579;0.4602;
97.5000;0.1595;0.4507;
97.8000;0.1595;0.4507;
98.1000;0.1604;0.4483;
98.4000;0.1563;0.4411;
98.7000;0.1652;0.4626;
99.0000;0.1571;0.4459;
99.3000;0.1604;0.4531;
99.6000;0.1595;0.4602;
99.9000;0.1555;0.4364;
100.2000;0.1718;0.4936;
100.5000;0.1571;0.4531;
100.8000;0.1563;0.4483;
101.1000;0.1465;0.4292;
101.4000;0.1604;0.4674;
101.7000;0.1595;0.4698;
102.0000;0.1604;0.4698;
102.3000;0.1587;0.4626;
102.6000;0.1604;0.4674;
102.9000;0.1579;0.4554;
103.2000;0.1579;0.4602;
103.5000;0.1563;0.4554;
103.8000;0.1555;0.4554;
104.1000;0.1587;0.4698;
104.4000;0.1579;0.4626;
104.7000;0.1530;0.4578;
105.0000;0.1571;0.4721;
105.3000;0.1579;0.4698;
105.6000;0.1579;0.4721;
105.9000;0.1571;0.4721;
106.2000;0.1595;0.4745;
106.5000;0.1612;0.4745;
106.8000;0.1636;0.4936;
107.1000;0.1506;0.4578;
107.4000;0.1571;0.4674;
107.7000;0.1579;0.4745;
108.0000;0.1587;0.4745;
108.3000;0.1587;0.4745;
108.6000;0.1563;0.4745;
108.9000;0.1612;0.4793;
109.2000;0.1522;0.4626;
109.5000;0.1579;0.4745;
109.8000;0.1587;0.4745;
110.1000;0.1579;0.4674;
110.4000;0.1587;0.4602;
110.7000;0.1612;0.4602;
111.0000;0.1620;0.4602;
111.3000;0.1571;0.4435;
111.6000;0.1612;0.4578;
111.9000;0.1685;0.4721;
112.2000;0.1604;0.4507;
112.5000;0.1579;0.4531;
112.8000;0.1612;0.4626;
113.1000;0.1595;0.4602;
113.4000;0.1595;0.4674;
113.7000;0.1595;0.4650;
114.0000;0.1530;0.4531;
114.3000;0.1604;0.4793;
114.6000;0.1587;0.4745;
114.9000;0.1555;0.4626;
115.2000;0.1563;0.4626;
115.5000;0.1571;0.4602;
115.8000;0.1587;0.4721;
116.1000;0.1587;0.4745;
116.4000;0.1506;0.4554;
116.7000;0.1571;0.4769;
117.0000;0.1604;0.4912;
117.3000;0.1481;0.4602;
117.6000;0.1571;0.4817;
117.9000;0.1587;0.4864;
118.2000;0.1612;0.4888;
118.5000;0.1522;0.4602;
118.8000;0.1604;0.4841;
119.1000;0.1604;0.4793;
119.4000;0.1661;0.4984;
119.7000;0.1612;0.4817;
120.0000;0.1571;0.4745;
120.3000;0.1587;0.4769;
120.6000;0.1595;0.4793;
120.9000;0.1571;0.4817;
121.2000;0.1571;0.4841;
121.5000;0.1587;0.4864;
121.8000;0.1587;0.4793;
122.1000;0.1555;0.4721;
122.4000;0.1563;0.4721;
122.7000;0.1587;0.4817;
123.0000;0.1612;0.4864;
123.3000;0.1571;0.4793;
123.6000;0.1571;0.4745;
123.9000;0.1571;0.4769;
124.2000;0.1538;0.4650;
124.5000;0.1612;0.4864;
124.8000;0.1612;0.4793;
125.1000;0.1457;0.4388;
125.4000;0.1563;0.4650;
125.7000;0.1595;0.4721;
126.0000;0.1587;0.4793;
126.3000;0.1563;0.4769;
126.6000;0.1457;0.4554;
126.9000;0.1571;0.4912;
127.2000;0.1652;0.5079;
127.5000;0.1579;0.4912;
127.8000;0.1571;0.4888;
128.1000;0.1652;0.5055;
128.4000;0.1612;0.5008;
128.7000;0.1595;0.4960;
129.0000;0.1604;0.4912;
129.3000;0.1571;0.4793;
129.6000;0.1579;0.4841;
129.9000;0.1481;0.4674;
130.2000;0.1587;0.4984;
130.5000;0.1571;0.4960;
130.8000;0.1579;0.4960;
131.1000;0.1587;0.4960;
131.4000;0.1587;0.4912;
131.7000;0.1587;0.4912;
132.0000;0.1579;0.4841;
132.3000;0.1669;0.5127;
132.6000;0.1595;0.5031;
132.9000;0.1595;0.5079;
133.2000;0.1571;0.5031;
133.5000;0.1587;0.4960;
133.8000;0.1587;0.4864;
134.1000;0.1587;0.4864;
134.4000;0.1628;0.4936;
134.7000;0.1587;0.4817;
135.0000;0.1595;0.4793;
135.3000;0.1604;0.4841;
135.6000;0.1595;0.4841;
135.9000;0.1563;0.4817;
136.2000;0.1604;0.4960;
136.5000;0.1587;0.4864;
136.8000;0.1579;0.4817;
137.1000;0.1595;0.4841;
137.4000;0.1555;0.4864;
137.7000;0.1612;0.4960;
138.0000;0.1587;0.4984;
138.3000;0.1595;0.4984;
138.6000;0.1587;0.4984;
138.9000;0.1612;0.5031;
139.2000;0.1571;0.4912;
139.5000;0.1587;0.4912;
139.8000;0.1604;0.4960;
140.1000;0.1604;0.4984;
140.4000;0.1563;0.4864;
140.7000;0.1579;0.4864;
141.0000;0.1498;0.4626;
141.3000;0.1620;0.4936;
141.6000;0.1587;0.4864;
141.9000;0.1579;0.4841;
142.2000;0.1571;0.4769;
142.5000;0.1579;0.4841;
142.8000;0.1579;0.4864;
143.1000;0.1579;0.4769;
143.4000;0.1587;0.4698;
143.7000;0.1587;0.4721;
144.0000;0.1587;0.4745;
144.3000;0.1571;0.4674;
144.6000;0.1587;0.4817;
144.9000;0.1587;0.4936;
145.2000;0.1571;0.4960;
145.5000;0.1612;0.5103;
145.8000;0.1595;0.5151;
146.1000;0.1571;0.5031;
146.4000;0.1587;0.5055;
146.7000;0.1587;0.4960;
147.0000;0.1595;0.4912;
147.3000;0.1587;0.4841;
147.6000;0.1579;0.4841;
147.9000;0.1563;0.4841;
148.2000;0.1547;0.4745;
148.5000;0.1579;0.4745;
148.8000;0.1579;0.4721;
149.1000;0.1514;0.4602;
149.4000;0.1538;0.4769;
149.7000;0.1563;0.4888;
150.0000;0.1587;0.4841;
150.3000;0.1604;0.4769;
150.6000;0.1473;0.4435;
150.9000;0.1587;0.4769;
151.2000;0.1571;0.4745;
151.5000;0.1587;0.4769;
151.8000;0.1587;0.4864;
152.1000;0.1612;0.4864;
152.4000;0.1604;0.4793;
152.7000;0.1579;0.4650;
153.0000;0.1587;0.4721;
153.3000;0.1620;0.4769;
153.6000;0.1587;0.4745;
153.9000;0.1571;0.4674;
154.2000;0.1587;0.4745;
154.5000;0.1612;0.4745;
154.8000;0.1595;0.4721;
155.1000;0.1579;0.4626;
155.4000;0.1514;0.4459;
155.7000;0.1587;0.4698;
156.0000;0.1595;0.4817;
156.3000;0.1522;0.4626;
156.6000;0.1579;0.4698;
156.9000;0.1595;0.4745;
157.2000;0.1579;0.4817;
157.5000;0.1587;0.4841;
157.8000;0.1587;0.4936;
158.1000;0.1595;0.4936;
158.4000;0.1677;0.5174;
158.7000;0.1571;0.4769;
159.0000;0.1555;0.4745;
159.3000;0.1571;0.4841;
159.6000;0.1587;0.4841;
159.9000;0.1595;0.4912;
160.2000;0.1563;0.4721;
160.5000;0.1595;0.4864;
160.8000;0.1579;0.4888;
161.1000;0.1604;0.4984;
161.4000;0.1579;0.4984;
161.7000;0.1555;0.4936;
162.0000;0.1579;0.4984;
162.3000;0.1595;0.5031;
162.6000;0.1595;0.4960;
162.9000;0.1595;0.4912;
163.2000;0.1587;0.4888;
163.5000;0.1587;0.4841;
163.8000;0.1579;0.4745;
164.1000;0.1587;0.4745;
164.4000;0.1555;0.4674;
164.7000;0.1571;0.4626;
165.0000;0.1547;0.4507;
165.3000;0.1530;0.4531;
165.6000;0.1579;0.4650;
165.9000;0.1587;0.4626;
166.2000;0.1579;0.4674;
166.5000;0.1595;0.4769;
166.8000;0.1579;0.4817;
167.1000;0.1587;0.4841;
167.4000;0.1563;0.4745;
167.7000;0.1587;0.4721;
168.0000;0.1571;0.4602;
168.3000;0.1571;0.4698;
168.6000;0.1579;0.4793;
168.9000;0.1579;0.4817;
169.2000;0.1595;0.4817;
169.5000;0.1579;0.4817;
169.8000;0.1579;0.4888;
170.1000;0.1579;0.4888;
170.4000;0.1555;0.4888;
170.7000;0.1563;0.4888;
171.0000;0.1587;0.5008;
171.3000;0.1490;0.4674;
171.6000;0.1579;0.4984;
171.9000;0.1555;0.4960;
172.2000;0.1612;0.5008;
172.5000;0.1595;0.4888;
172.8000;0.1587;0.4841;
173.1000;0.1595;0.4912;
173.4000;0.1571;0.4817;
173.7000;0.1547;0.4769;
174.0000;0.1579;0.4864;
174.3000;0.1587;0.4817;
174.6000;0.1579;0.4912;
174.9000;0.1587;0.4936;
175.2000;0.1587;0.4888;
175.5000;0.1587;0.4817;
175.8000;0.1628;0.5055;
176.1000;0.1571;0.4960;
176.4000;0.1595;0.4984;
176.7000;0.1604;0.4912;
177.0000;0.1506;0.4745;
177.3000;0.1612;0.4936;
177.6000;0.1595;0.4936;
177.9000;0.1547;0.4721;
178.2000;0.1587;0.4888;
178.5000;0.1514;0.4626;
178.8000;0.1547;0.4745;
179.1000;0.1595;0.4793;
179.4000;0.1595;0.4745;
179.7000;0.1571;0.4674;
180.0000;0.1587;0.4745;
180.3000;0.1595;0.4698;
180.6000;0.1587;0.4674;
180.9000;0.1595;0.4650;
181.2000;0.1595;0.4698;
181.5000;0.1587;0.4626;
181.8000;0.1587;0.4578;
182.1000;0.1579;0.4626;
182.4000;0.1522;0.4435;
182.7000;0.1579;0.4626;
183.0000;0.1579;0.4793;
183.3000;0.1571;0.4769;
183.6000;0.1579;0.4817;
183.9000;0.1587;0.4936;
184.2000;0.1579;0.4984;
184.5000;0.1587;0.4888;
184.8000;0.1579;0.4984;
185.1000;0.1595;0.4984;
185.4000;0.1579;0.4888;
185.7000;0.1587;0.4841;
186.0000;0.1587;0.4864;
186.3000;0.1579;0.4912;
186.6000;0.1587;0.4864;
186.9000;0.1579;0.4721;
187.2000;0.1604;0.4793;
187.5000;0.1579;0.4841;
187.8000;0.1579;0.4841;
188.1000;0.1669;0.5008;
188.4000;0.1595;0.4864;
188.7000;0.1587;0.4960;
189.0000;0.1498;0.4745;
189.3000;0.1718;0.5246;
189.6000;0.1595;0.5055;
189.9000;0.1587;0.5008;
190.2000;0.1612;0.5008;
190.5000;0.1506;0.4650;
190.8000;0.1587;0.4769;
191.1000;0.1514;0.4578;
191.4000;0.1555;0.4674;
191.7000;0.1587;0.4841;
192.0000;0.1571;0.4817;
192.3000;0.1506;0.4769;
192.6000;0.1563;0.4864;
192.9000;0.1563;0.4769;
193.2000;0.1595;0.4817;
193.5000;0.1579;0.4817;
193.8000;0.1547;0.4745;
194.1000;0.1571;0.4817;
194.4000;0.1587;0.4888;
194.7000;0.1522;0.4626;
195.0000;0.1587;0.4864;
195.3000;0.1652;0.5031;
195.6000;0.1514;0.4698;
195.9000;0.1538;0.4864;
196.2000;0.1522;0.4864;
196.5000;0.1579;0.4960;
196.8000;0.1563;0.4936;
197.1000;0.1579;0.5008;
197.4000;0.1587;0.5008;
197.7000;0.1636;0.5055;
198.0000;0.1563;0.4864;
198.3000;0.1661;0.5103;
198.6000;0.1587;0.4984;
198.9000;0.1644;0.5151;
199.2000;0.1579;0.4984;
199.5000;0.1595;0.5008;
199.8000;0.1595;0.5055;
200.1000;0.1579;0.5079;
200.4000;0.1636;0.5151;
200.7000;0.1612;0.5008;
201.0000;0.1604;0.4936;
201.3000;0.1604;0.4841;
201.6000;0.1571;0.4721;
201.9000;0.1571;0.4721;
202.2000;0.1595;0.4793;
202.5000;0.1726;0.5151;
202.8000;0.1514;0.4626;
203.1000;0.1579;0.4793;
203.4000;0.1595;0.4817;
203.7000;0.1579;0.4721;
204.0000;0.1587;0.4745;
204.3000;0.1587;0.4841;
204.6000;0.1604;0.4936;
204.9000;0.1612;0.4984;
205.2000;0.1595;0.4888;
205.5000;0.1587;0.4793;
205.8000;0.1587;0.4793;
206.1000;0.1587;0.4841;
206.4000;0.1579;0.4841;
206.7000;0.1563;0.4698;
207.0000;0.1587;0.4745;
207.3000;0.1587;0.4817;
207.6000;0.1595;0.4769;
207.9000;0.1587;0.4650;
208.2000;0.1563;0.4578;
208.5000;0.1579;0.4602;
208.8000;0.1571;0.4650;
209.1000;0.1595;0.4674;
209.4000;0.1563;0.4626;
209.7000;0.1587;0.4721;
210.0000;0.1612;0.4841;
210.3000;0.1563;0.4650;
210.6000;0.1587;0.4769;
210.9000;0.1595;0.4745;
211.2000;0.1563;0.4698;
211.5000;0.1661;0.4960;
211.8000;0.1571;0.4745;
212.1000;0.1571;0.4721;
212.4000;0.1490;0.4578;
212.7000;0.1571;0.4793;
213.0000;0.1604;0.4793;
213.3000;0.1612;0.4841;
213.6000;0.1579;0.4793;
213.9000;0.1555;0.4698;
214.2000;0.1530;0.4674;
214.5000;0.1587;0.4769;
214.8000;0.1612;0.4841;
215.1000;0.1693;0.5198;
215.4000;0.1612;0.4888;
215.7000;0.1587;0.4864;
216.0000;0.1571;0.4817;
216.3000;0.1604;0.4912;
216.6000;0.1579;0.4936;
216.9000;0.1604;0.5008;
217.2000;0.1571;0.4841;
217.5000;0.1579;0.4960;
217.8000;0.1620;0.5031;
218.1000;0.1579;0.4960;
218.4000;0.1538;0.4888;
218.7000;0.1612;0.4936;
219.0000;0.1595;0.4888;
219.3000;0.1620;0.5031;
219.6000;0.1563;0.4912;
219.9000;0.1587;0.4912;
220.2000;0.1547;0.4841;
220.5000;0.1579;0.5008;
220.8000;0.1661;0.5198;
221.1000;0.1555;0.4888;
221.4000;0.1563;0.5008;
221.7000;0.1636;0.5127;
222.0000;0.1587;0.5127;
222.3000;0.1693;0.5413;
222.6000;0.1571;0.5031;
222.9000;0.1612;0.5008;
223.2000;0.1604;0.5055;
223.5000;0.1587;0.4936;
223.8000;0.1579;0.4888;
224.1000;0.1587;0.4912;
224.4000;0.1612;0.4936;
224.7000;0.1571;0.4817;
225.0000;0.1571;0.4912;
225.3000;0.1571;0.5008;
225.6000;0.1571;0.5008;
225.9000;0.1579;0.5008;
226.2000;0.1587;0.5031;
226.5000;0.1563;0.5008;
226.8000;0.1595;0.5031;
227.1000;0.1604;0.5055;
227.4000;0.1652;0.5222;
227.7000;0.1604;0.5174;
228.0000;0.1579;0.5055;
228.3000;0.1579;0.4984;
228.6000;0.1604;0.5079;
228.9000;0.1604;0.5103;
229.2000;0.1587;0.5103;
229.5000;0.1595;0.5103;
229.8000;0.1563;0.5079;
230.1000;0.1481;0.4769;
230.4000;0.1579;0.5103;
230.7000;0.1587;0.5079;
231.0000;0.1571;0.5055;
231.3000;0.1579;0.5031;
231.6000;0.1579;0.5079;
231.9000;0.1587;0.5079;
232.2000;0.1628;0.5174;
232.5000;0.1604;0.5103;
232.8000;0.1595;0.5079;
233.1000;0.1628;0.5151;
233.4000;0.1587;0.5031;
233.7000;0.1579;0.5008;
234.0000;0.1587;0.5079;
234.3000;0.1530;0.4936;
234.6000;0.1579;0.5127;
234.9000;0.1587;0.5222;
235.2000;0.1457;0.4817;
235.5000;0.1530;0.4960;
235.8000;0.1604;0.5103;
236.1000;0.1726;0.5341;
236.4000;0.1636;0.5151;
236.7000;0.1587;0.5008;
237.0000;0.1571;0.4960;
237.3000;0.1587;0.4960;
237.6000;0.1579;0.4888;
237.9000;0.1579;0.4984;
238.2000;0.1547;0.4888;
238.5000;0.1612;0.5008;
238.8000;0.1587;0.4912;
239.1000;0.1595;0.4912;
239.4000;0.1604;0.4960;
239.7000;0.1604;0.4864;
240.0000;0.1604;0.4841;
240.3000;0.1547;0.4817;
240.6000;0.1571;0.4960;
240.9000;0.1587;0.4888;
241.2000;0.1587;0.4864;
241.5000;0.1563;0.4912;
241.8000;0.1555;0.4960;
242.1000;0.1595;0.5127;
242.4000;0.1587;0.5055;
242.7000;0.1579;0.5127;
243.0000;0.1579;0.5079;
243.3000;0.1595;0.5008;
243.6000;0.1571;0.4936;
243.9000;0.1579;0.5008;
244.2000;0.1571;0.5055;
244.5000;0.1595;0.5079;
244.8000;0.1571;0.5079;
245.1000;0.1612;0.5174;
245.4000;0.1571;0.5008;
245.7000;0.1579;0.4936;
246.0000;0.1587;0.4888;
246.3000;0.1604;0.4960;
246.6000;0.1595;0.4936;
246.9000;0.1587;0.5008;
247.2000;0.1595;0.4936;
247.5000;0.1595;0.4936;
247.8000;0.1652;0.5174;
248.1000;0.1555;0.4888;
248.4000;0.1620;0.4984;
248.7000;0.1612;0.5031;
249.0000;0.1595;0.4960;
249.3000;0.1579;0.4864;
249.6000;0.1465;0.4578;
249.9000;0.1571;0.4817;
250.2000;0.1571;0.4769;
250.5000;0.1652;0.5008;
250.8000;0.1604;0.4912;
251.1000;0.1571;0.4841;
251.4000;0.1587;0.4888;
251.7000;0.1555;0.4769;
252.0000;0.1563;0.4721;
252.3000;0.1661;0.5008;
252.6000;0.1547;0.4554;
252.9000;0.1547;0.4602;
253.2000;0.1595;0.4698;
253.5000;0.1587;0.4698;
253.8000;0.1595;0.4721;
254.1000;0.1571;0.4745;
254.4000;0.1579;0.4674;
254.7000;0.1579;0.4626;
255.0000;0.1587;0.4626;
255.3000;0.1604;0.4674;
255.6000;0.1587;0.4721;
255.9000;0.1555;0.4745;
256.2000;0.1579;0.4769;
256.5000;0.1571;0.4841;
256.8000;0.1579;0.4864;
257.1000;0.1571;0.4888;
257.4000;0.1587;0.4960;
257.7000;0.1595;0.5008;
258.0000;0.1579;0.4984;
258.3000;0.1579;0.4984;
258.6000;0.1571;0.4912;
258.9000;0.1612;0.4912;
259.2000;0.1530;0.4793;
259.5000;0.1604;0.5031;
259.8000;0.1595;0.4960;
260.1000;0.1571;0.4912;
260.4000;0.1595;0.4984;
260.7000;0.1571;0.4864;
261.0000;0.1587;0.4817;
261.3000;0.1571;0.4793;
261.6000;0.1579;0.4888;
261.9000;0.1587;0.4912;
262.2000;0.1636;0.4960;
262.5000;0.1571;0.4745;
262.8000;0.1595;0.4721;
263.1000;0.1538;0.4674;
263.4000;0.1595;0.4817;
263.7000;0.1571;0.4793;
264.0000;0.1579;0.4817;
264.3000;0.1547;0.4769;
264.6000;0.1604;0.4912;
264.9000;0.1587;0.4864;
265.2000;0.1604;0.4888;
265.5000;0.1604;0.4888;
265.8000;0.1579;0.4888;
266.1000;0.1595;0.4912;
266.4000;0.1579;0.4888;
266.7000;0.1644;0.5008;
267.0000;0.1571;0.4936;
267.3000;0.1538;0.4936;
267.6000;0.1571;0.4984;
267.9000;0.1587;0.4984;
268.2000;0.1571;0.4888;
268.5000;0.1563;0.4841;
268.8000;0.1579;0.4912;
269.1000;0.1555;0.4864;
269.4000;0.1587;0.4888;
269.7000;0.1571;0.4793;
270.0000;0.1612;0.4817;
270.3000;0.1555;0.4745;
270.6000;0.1563;0.4888;
270.9000;0.1595;0.4960;
271.2000;0.1595;0.4984;
271.5000;0.1579;0.4936;
271.8000;0.1587;0.4888;
272.1000;0.1579;0.4888;
272.4000;0.1530;0.4817;
272.7000;0.1563;0.4912;
273.0000;0.1563;0.4793;
273.3000;0.1530;0.4650;
273.6000;0.1514;0.4650;
273.9000;0.1571;0.4817;
274.2000;0.1563;0.4817;
274.5000;0.1547;0.4745;
274.8000;0.1595;0.4912;
275.1000;0.1579;0.4864;
275.4000;0.1652;0.5079;
275.7000;0.1579;0.4888;
276.0000;0.1587;0.4864;
276.3000;0.1571;0.4960;
276.6000;0.1571;0.4864;
276.9000;0.1587;0.4912;
277.2000;0.1604;0.4841;
277.5000;0.1571;0.4817;
277.8000;0.1563;0.4793;
278.1000;0.1620;0.4960;
278.4000;0.1612;0.4984;
278.7000;0.1587;0.5008;
279.0000;0.1595;0.4912;
279.3000;0.1595;0.4864;
279.6000;0.1571;0.4793;
279.9000;0.1563;0.4674;
280.2000;0.1628;0.4817;
280.5000;0.1571;0.4626;
280.8000;0.1571;0.4650;
281.1000;0.1644;0.4912;
281.4000;0.1587;0.4793;
281.7000;0.1620;0.4864;
282.0000;0.1579;0.4745;
282.3000;0.1571;0.4793;
282.6000;0.1595;0.4745;
282.9000;0.1563;0.4769;
283.2000;0.1587;0.4817;
283.5000;0.1579;0.4793;
283.8000;0.1571;0.4817;
284.1000;0.1473;0.4483;
284.4000;0.1579;0.4769;
284.7000;0.1571;0.4793;
285.0000;0.1604;0.4888;
285.3000;0.1595;0.4769;
285.6000;0.1555;0.4745;
285.9000;0.1595;0.4888;
286.2000;0.1522;0.4721;
286.5000;0.1595;0.4888;
286.8000;0.1587;0.4817;
287.1000;0.1628;0.4936;
287.4000;0.1579;0.4864;
287.7000;0.1571;0.4769;
288.0000;0.1579;0.4745;
288.3000;0.1587;0.4745;
288.6000;0.1571;0.4721;
288.9000;0.1612;0.4817;
289.2000;0.1514;0.4483;
289.5000;0.1547;0.4554;
289.8000;0.1465;0.4435;
290.1000;0.1579;0.4745;
290.4000;0.1595;0.4817;
290.7000;0.1571;0.4817;
291.0000;0.1555;0.4793;
291.3000;0.1628;0.4888;
291.6000;0.1587;0.4817;
291.9000;0.1538;0.4721;
292.2000;0.1571;0.4721;
292.5000;0.1604;0.4745;
292.8000;0.1693;0.5055;
293.1000;0.1604;0.4864;
293.4000;0.1579;0.4864;
293.7000;0.1595;0.4936;
294.0000;0.1579;0.4960;
294.3000;0.1620;0.5008;
294.6000;0.1555;0.4841;
294.9000;0.1457;0.4507;
295.2000;0.1628;0.4912;
295.5000;0.1563;0.4817;
295.8000;0.1587;0.4841;
296.1000;0.1563;0.4817;
296.4000;0.1530;0.4721;
296.7000;0.1579;0.4841;
297.0000;0.1595;0.4817;
297.3000;0.1563;0.4793;
297.6000;0.1547;0.4721;
297.9000;0.1595;0.4841;
298.2000;0.1587;0.4817;
298.5000;0.1604;0.4841;
298.8000;0.1481;0.4507;
299.1000;0.1571;0.4793;
299.4000;0.1620;0.5008;
299.7000;0.1579;0.5031;
300.0000;0.1579;0.5055;
300.3000;0.1563;0.5031;
300.6000;0.1579;0.5127;
300.9000;0.1571;0.5055;
301.2000;0.1547;0.4936;
301.5000;0.1579;0.4936;
301.8000;0.1579;0.4984;
302.1000;0.1579;0.4984;
302.4000;0.1571;0.4888;
302.7000;0.1563;0.4841;
303.0000;0.1563;0.4888;
303.3000;0.1669;0.5151;
303.6000;0.1579;0.4936;
303.9000;0.1595;0.4936;
304.2000;0.1652;0.5174;
304.5000;0.1595;0.5031;
304.8000;0.1563;0.4936;
305.1000;0.1579;0.4888;
305.4000;0.1547;0.4721;
305.7000;0.1579;0.4841;
306.0000;0.1547;0.4793;
306.3000;0.1669;0.5079;
306.6000;0.1555;0.4793;
306.9000;0.1579;0.4864;
307.2000;0.1604;0.4912;
307.5000;0.1587;0.4841;
307.8000;0.1563;0.4721;
308.1000;0.1579;0.4817;
308.4000;0.1579;0.4817;
308.7000;0.1587;0.4793;
309.0000;0.1604;0.4888;
309.3000;0.1612;0.4888;
309.6000;0.1563;0.4793;
309.9000;0.1579;0.4745;
310.2000;0.1661;0.4936;
310.5000;0.1571;0.4650;
310.8000;0.1579;0.4626;
311.1000;0.1522;0.4531;
311.4000;0.1595;0.4721;
311.7000;0.1604;0.4745;
312.0000;0.1571;0.4650;
312.3000;0.1579;0.4698;
312.6000;0.1571;0.4650;
312.9000;0.1587;0.4578;
313.2000;0.1595;0.4602;
313.5000;0.1595;0.4602;
313.8000;0.1628;0.4769;
314.1000;0.1563;0.4674;
314.4000;0.1587;0.4793;
314.7000;0.1579;0.4793;
315.0000;0.1587;0.4769;
315.3000;0.1579;0.4793;
315.6000;0.1571;0.4817;
315.9000;0.1595;0.4936;
316.2000;0.1571;0.4912;
316.5000;0.1595;0.4960;
316.8000;0.1547;0.4864;
317.1000;0.1555;0.4841;
317.4000;0.1579;0.4817;
317.7000;0.1587;0.4745;
318.0000;0.1563;0.4721;
318.3000;0.1587;0.4817;
318.6000;0.1571;0.4745;
318.9000;0.1612;0.4793;
319.2000;0.1571;0.4698;
319.5000;0.1620;0.4817;
319.8000;0.1547;0.4602;
320.1000;0.1571;0.4745;
320.4000;0.1555;0.4650;
320.7000;0.1563;0.4674;
321.0000;0.1612;0.4888;
321.3000;0.1571;0.4745;
321.6000;0.1563;0.4793;
321.9000;0.1587;0.4841;
322.2000;0.1530;0.4817;
322.5000;0.1595;0.4960;
322.8000;0.1563;0.4960;
323.1000;0.1571;0.4960;
323.4000;0.1579;0.4888;
323.7000;0.1604;0.4960;
324.0000;0.1547;0.4769;
324.3000;0.1571;0.4745;
324.6000;0.1587;0.4745;
324.9000;0.1604;0.4864;
325.2000;0.1604;0.4912;
325.5000;0.1555;0.4793;
325.8000;0.1587;0.4888;
326.1000;0.1571;0.4817;
326.4000;0.1538;0.4698;
326.7000;0.1555;0.4793;
327.0000;0.1604;0.4864;
327.3000;0.1685;0.5151;
327.6000;0.1563;0.4817;
327.9000;0.1587;0.4841;
328.2000;0.1579;0.4912;
328.5000;0.1669;0.5174;
328.8000;0.1587;0.4936;
329.1000;0.1612;0.5031;
329.4000;0.1571;0.4912;
329.7000;0.1587;0.4841;
330.0000;0.1620;0.4841;
330.3000;0.1538;0.4650;
330.6000;0.1579;0.4721;
330.9000;0.1555;0.4674;
331.2000;0.1612;0.4817;
331.5000;0.1579;0.4745;
331.8000;0.1579;0.4745;
332.1000;0.1571;0.4650;
332.4000;0.1587;0.4769;
332.7000;0.1612;0.4817;
333.0000;0.1595;0.4793;
333.3000;0.1555;0.4721;
333.6000;0.1571;0.4769;
333.9000;0.1571;0.4769;
334.2000;0.1579;0.4841;
334.5000;0.1595;0.4793;
334.8000;0.1555;0.4674;
335.1000;0.1579;0.4745;
335.4000;0.1595;0.4817;
335.7000;0.1595;0.4650;
336.0000;0.1579;0.4650;
336.3000;0.1514;0.4578;
336.6000;0.1587;0.4769;
336.9000;0.1587;0.4698;
337.2000;0.1571;0.4674;
337.5000;0.1571;0.4650;
337.8000;0.1628;0.4745;
338.1000;0.1595;0.4650;
338.4000;0.1620;0.4721;
338.7000;0.1555;0.4507;
339.0000;0.1563;0.4578;
339.3000;0.1579;0.4698;
339.6000;0.1579;0.4698;
339.9000;0.1538;0.4602;
340.2000;0.1595;0.4745;
340.5000;0.1579;0.4698;
340.8000;0.1595;0.4817;
341.1000;0.1587;0.4793;
341.4000;0.1587;0.4817;
341.7000;0.1595;0.4864;
342.0000;0.1587;0.4817;
342.3000;0.1555;0.4721;
342.6000;0.1571;0.4769;
342.9000;0.1604;0.4817;
343.2000;0.1498;0.4507;
343.5000;0.1579;0.4745;
343.8000;0.1579;0.4650;
344.1000;0.1555;0.4626;
344.4000;0.1563;0.4674;
344.7000;0.1587;0.4626;
345.0000;0.1571;0.4483;
345.3000;0.1587;0.4578;
345.6000;0.1620;0.4674;
345.9000;0.1587;0.4602;
346.2000;0.1579;0.4602;
346.5000;0.1587;0.4721;
346.8000;0.1636;0.4888;
347.1000;0.1604;0.4817;
347.4000;0.1579;0.4793;
347.7000;0.1595;0.4817;
348.0000;0.1506;0.4650;
348.3000;0.1604;0.4817;
348.6000;0.1587;0.4674;
348.9000;0.1579;0.4650;
349.2000;0.1571;0.4626;
349.5000;0.1571;0.4531;
349.8000;0.1587;0.4698;
350.1000;0.1587;0.4721;
350.4000;0.1555;0.4721;
350.7000;0.1571;0.4769;
351.0000;0.1555;0.4674;
351.3000;0.1571;0.4769;
351.6000;0.1571;0.4721;
351.9000;0.1571;0.4769;
352.2000;0.1604;0.4841;
352.5000;0.1595;0.4888;
352.8000;0.1571;0.4912;
353.1000;0.1563;0.4984;
353.4000;0.1612;0.5174;
353.7000;0.1587;0.5127;
354.0000;0.1652;0.5222;
354.3000;0.1604;0.5103;
354.6000;0.1644;0.5151;
354.9000;0.1579;0.4984;
355.2000;0.1563;0.4888;
355.5000;0.1587;0.4984;
355.8000;0.1579;0.5008;
356.1000;0.1604;0.5031;
356.4000;0.1571;0.4936;
356.7000;0.1595;0.4984;
357.0000;0.1579;0.4936;
357.3000;0.1620;0.5055;
357.6000;0.1579;0.4960;
357.9000;0.1579;0.4912;
358.2000;0.1579;0.4841;
358.5000;0.1587;0.4793;
358.8000;0.1620;0.4769;
359.1000;0.1718;0.4960;
359.4000;0.1587;0.4578;
359.7000;0.1587;0.4626;
360.0000;0.1685;0.4984;
360.3000;0.1579;0.4793;
360.6000;0.1595;0.4745;
360.9000;0.1587;0.4817;
361.2000;0.1579;0.4793;
361.5000;0.1587;0.4793;
361.8000;0.1579;0.4888;
362.1000;0.1571;0.4864;
362.4000;0.1595;0.4841;
362.7000;0.1571;0.4745;
363.0000;0.1587;0.4841;
363.3000;0.1579;0.4745;
363.6000;0.1587;0.4841;
363.9000;0.1579;0.4888;
364.2000;0.1612;0.4936;
364.5000;0.1563;0.4864;
364.8000;0.1579;0.4864;
365.1000;0.1579;0.4841;
365.4000;0.1636;0.4984;
365.7000;0.1579;0.4912;
366.0000;0.1555;0.4864;
366.3000;0.1571;0.4936;
366.6000;0.1571;0.4936;
366.9000;0.1563;0.5008;
367.2000;0.1563;0.5031;
367.5000;0.1595;0.5031;
367.8000;0.1514;0.4841;
368.1000;0.1579;0.4888;
368.4000;0.1490;0.4602;
368.7000;0.1579;0.4841;
369.0000;0.1612;0.4888;
369.3000;0.1620;0.4960;
369.6000;0.1612;0.4888;
369.9000;0.1620;0.4912;
370.2000;0.1636;0.4960;
370.5000;0.1587;0.4864;
370.8000;0.1579;0.4864;
371.1000;0.1579;0.4936;
371.4000;0.1563;0.4912;
371.7000;0.1563;0.4841;
372.0000;0.1595;0.4912;
372.3000;0.1587;0.4793;
372.6000;0.1604;0.4817;
372.9000;0.1587;0.4793;
373.2000;0.1579;0.4745;
373.5000;0.1571;0.4745;
373.8000;0.1587;0.4841;
374.1000;0.1620;0.4888;
374.4000;0.1595;0.4888;
374.7000;0.1555;0.4793;
375.0000;0.1595;0.4936;
375.3000;0.1587;0.4888;
375.6000;0.1604;0.4936;
375.9000;0.1571;0.4841;
376.2000;0.1587;0.4936;
376.5000;0.1587;0.4984;
376.8000;0.1604;0.5055;
377.1000;0.1579;0.4960;
377.4000;0.1579;0.4984;
377.7000;0.1587;0.5055;
378.0000;0.1571;0.4936;
378.3000;0.1612;0.4960;
378.6000;0.1669;0.5008;
378.9000;0.1579;0.4817;
379.2000;0.1587;0.4817;
379.5000;0.1604;0.4888;
379.8000;0.1587;0.4912;
380.1000;0.1563;0.4817;
380.4000;0.1587;0.4888;
380.7000;0.1563;0.4888;
381.0000;0.1587;0.4984;
381.3000;0.1579;0.5008;
381.6000;0.1571;0.5031;
381.9000;0.1587;0.5008;
382.2000;0.1587;0.4912;
382.5000;0.1587;0.4936;
382.8000;0.1563;0.4936;
383.1000;0.1604;0.4960;
383.4000;0.1579;0.4984;
383.7000;0.1579;0.5031;
384.0000;0.1579;0.5008;
384.3000;0.1579;0.5008;
384.6000;0.1604;0.5008;
384.9000;0.1579;0.4888;
385.2000;0.1530;0.4674;
385.5000;0.1587;0.4817;
385.8000;0.1587;0.4793;
386.1000;0.1661;0.5031;
386.4000;0.1612;0.4864;
386.7000;0.1571;0.4769;
387.0000;0.1612;0.4912;
387.3000;0.1612;0.4912;
387.6000;0.1612;0.4936;
387.9000;0.1547;0.4817;
388.2000;0.1587;0.4864;
388.5000;0.1579;0.4864;
388.8000;0.1604;0.4888;
389.1000;0.1587;0.4864;
389.4000;0.1620;0.5008;
389.7000;0.1579;0.4936;
390.0000;0.1587;0.5008;
390.3000;0.1571;0.4888;
390.6000;0.1587;0.4817;
390.9000;0.1579;0.4698;
391.2000;0.1604;0.4769;
391.5000;0.1563;0.4698;
391.8000;0.1555;0.4698;
392.1000;0.1587;0.4793;
392.4000;0.1644;0.4960;
392.7000;0.1571;0.4721;
393.0000;0.1571;0.4769;
393.3000;0.1579;0.4817;
393.6000;0.1571;0.4793;
393.9000;0.1563;0.4841;
394.2000;0.1571;0.4912;
394.5000;0.1612;0.5031;
394.8000;0.1587;0.5031;
395.1000;0.1595;0.4984;
395.4000;0.1595;0.5008;
395.7000;0.1644;0.5151;
396.0000;0.1587;0.4936;
396.3000;0.1587;0.4936;
396.6000;0.1571;0.4841;
396.9000;0.1538;0.4841;
397.2000;0.1579;0.4936;
397.5000;0.1595;0.4912;
397.8000;0.1563;0.4888;
398.1000;0.1604;0.4936;
398.4000;0.1481;0.4674;
398.7000;0.1449;0.4674;
399.0000;0.1563;0.4888;
399.3000;0.1571;0.4936;
399.6000;0.1563;0.4936;
399.9000;0.1571;0.5008;
400.2000;0.1563;0.4960;
400.5000;0.1571;0.4912;
400.8000;0.1465;0.4674;
401.1000;0.1571;0.5055;
401.4000;0.1563;0.5031;
401.7000;0.1530;0.4936;
402.0000;0.1563;0.5008;
402.3000;0.1587;0.5055;
402.6000;0.1571;0.5031;
402.9000;0.1587;0.5008;
403.2000;0.1579;0.4888;
403.5000;0.1571;0.4888;
403.8000;0.1604;0.5031;
404.1000;0.1571;0.4912;
404.4000;0.1555;0.4888;
404.7000;0.1587;0.4912;
405.0000;0.1595;0.4912;
405.3000;0.1595;0.4960;
405.6000;0.1563;0.4912;
405.9000;0.1563;0.4984;
406.2000;0.1587;0.5079;
406.5000;0.1571;0.5008;
406.8000;0.1628;0.5103;
407.1000;0.1579;0.4936;
407.4000;0.1579;0.4960;
407.7000;0.1587;0.4960;
408.0000;0.1620;0.5055;
408.3000;0.1579;0.4960;
408.6000;0.1571;0.4960;
408.9000;0.1473;0.4674;
409.2000;0.1612;0.4984;
409.5000;0.1587;0.4912;
409.8000;0.1587;0.4888;
410.1000;0.1571;0.4960;
410.4000;0.1579;0.5031;
410.7000;0.1685;0.5341;
411.0000;0.1555;0.5031;
411.3000;0.1595;0.5031;
411.6000;0.1595;0.4960;
411.9000;0.1563;0.4841;
412.2000;0.1595;0.5031;
412.5000;0.1587;0.4984;
412.8000;0.1587;0.4936;
413.1000;0.1579;0.4936;
413.4000;0.1620;0.5055;
413.7000;0.1587;0.4864;
414.0000;0.1595;0.4912;
414.3000;0.1595;0.4888;
414.6000;0.1579;0.4721;
414.9000;0.1514;0.4554;
415.2000;0.1563;0.4721;
415.5000;0.1587;0.4817;
415.8000;0.1579;0.4817;
416.1000;0.1571;0.4864;
416.4000;0.1530;0.4793;
416.7000;0.1571;0.4912;
417.0000;0.1595;0.4936;
417.3000;0.1587;0.4769;
417.6000;0.1587;0.4674;
417.9000;0.1579;0.4554;
418.2000;0.1506;0.4364;
418.5000;0.1571;0.4602;
418.8000;0.1579;0.4602;
419.1000;0.1604;0.4674;
419.4000;0.1571;0.4531;
419.7000;0.1587;0.4483;
420.0000;0.1587;0.4435;
420.3000;0.1506;0.4316;
420.6000;0.1579;0.4578;
420.9000;0.1547;0.4554;
421.2000;0.1595;0.4721;
421.5000;0.1669;0.4864;
421.8000;0.1538;0.4507;
422.1000;0.1555;0.4554;
422.4000;0.1571;0.4578;
422.7000;0.1587;0.4602;
423.0000;0.1604;0.4602;
423.3000;0.1644;0.4650;
423.6000;0.1587;0.4578;
423.9000;0.1563;0.4602;
424.2000;0.1612;0.4745;
424.5000;0.1587;0.4650;
424.8000;0.1595;0.4698;
425.1000;0.1579;0.4674;
425.4000;0.1579;0.4721;
425.7000;0.1579;0.4769;
426.0000;0.1604;0.4888;
426.3000;0.1530;0.4745;
426.6000;0.1571;0.4769;
426.9000;0.1595;0.4769;
427.2000;0.1571;0.4745;
427.5000;0.1579;0.4817;
427.8000;0.1587;0.4769;
428.1000;0.1571;0.4745;
428.4000;0.1595;0.4721;
428.7000;0.1571;0.4626;
429.0000;0.1579;0.4578;
429.3000;0.1620;0.4721;
429.6000;0.1579;0.4721;
429.9000;0.1563;0.4698;
430.2000;0.1604;0.4841;
430.5000;0.1571;0.4698;
430.8000;0.1587;0.4698;
431.1000;0.1677;0.4984;
431.4000;0.1587;0.4817;
431.7000;0.1579;0.4745;
432.0000;0.1587;0.4650;
432.3000;0.1563;0.4578;
432.6000;0.1595;0.4745;
432.9000;0.1604;0.4841;
433.2000;0.1571;0.4745;
433.5000;0.1595;0.4864;
433.8000;0.1571;0.4793;
434.1000;0.1506;0.4650;
434.4000;0.1563;0.4769;
434.7000;0.1595;0.4888;
435.0000;0.1579;0.4841;
435.3000;0.1555;0.4817;
435.6000;0.1571;0.4769;
435.9000;0.1579;0.4864;
436.2000;0.1571;0.4817;
436.5000;0.1579;0.4817;
436.8000;0.1563;0.4817;
437.1000;0.1579;0.4864;
437.4000;0.1579;0.4912;
437.7000;0.1579;0.4912;
438.0000;0.1571;0.4864;
438.3000;0.1579;0.4817;
438.6000;0.1595;0.4841;
438.9000;0.1579;0.4769;
439.2000;0.1457;0.4459;
439.5000;0.1579;0.4769;
439.8000;0.1652;0.4888;
440.1000;0.1579;0.4650;
440.4000;0.1595;0.4698;
440.7000;0.1579;0.4721;
441.0000;0.1644;0.4960;
441.3000;0.1587;0.4817;
441.6000;0.1595;0.4793;
441.9000;0.1563;0.4793;
442.2000;0.1604;0.4841;
442.5000;0.1563;0.4769;
442.8000;0.1595;0.4888;
443.1000;0.1579;0.4841;
443.4000;0.1563;0.4793;
443.7000;0.1587;0.4793;
444.0000;0.1595;0.4936;
444.3000;0.1579;0.4936;
444.6000;0.1587;0.4864;
444.9000;0.1579;0.4960;
445.2000;0.1587;0.4960;
445.5000;0.1628;0.5079;
445.8000;0.1587;0.4960;
446.1000;0.1652;0.5079;
446.4000;0.1579;0.4936;
446.7000;0.1571;0.4936;
447.0000;0.1571;0.4888;
447.3000;0.1644;0.5055;
447.6000;0.1563;0.4793;
447.9000;0.1595;0.4864;
448.2000;0.1571;0.4864;
448.5000;0.1547;0.4745;
448.8000;0.1547;0.4793;
449.1000;0.1587;0.4841;
449.4000;0.1604;0.4936;
449.7000;0.1571;0.4841;
450.0000;0.1547;0.4698;
450.3000;0.1587;0.4769;
450.6000;0.1595;0.4817;
450.9000;0.1563;0.4721;
451.2000;0.1579;0.4817;
451.5000;0.1587;0.4864;
451.8000;0.1595;0.4912;
452.1000;0.1595;0.4912;
452.4000;0.1555;0.4745;
452.7000;0.1579;0.4769;
453.0000;0.1587;0.4793;
453.3000;0.1571;0.4721;
453.6000;0.1563;0.4674;
453.9000;0.1587;0.4674;
454.2000;0.1595;0.4626;
454.5000;0.1579;0.4626;
454.8000;0.1563;0.4602;
455.1000;0.1579;0.4674;
455.4000;0.1571;0.4721;
455.7000;0.1587;0.4793;
456.0000;0.1587;0.4721;
456.3000;0.1563;0.4698;
456.6000;0.1579;0.4793;
456.9000;0.1579;0.4769;
457.2000;0.1595;0.4769;
457.5000;0.1595;0.4769;
457.8000;0.1522;0.4578;
458.1000;0.1620;0.4864;
458.4000;0.1563;0.4793;
458.7000;0.1563;0.4793;
459.0000;0.1538;0.4769;
459.3000;0.1530;0.4745;
459.6000;0.1563;0.4721;
459.9000;0.1522;0.4507;
460.2000;0.1547;0.4602;
460.5000;0.1571;0.4698;
460.8000;0.1587;0.4626;
461.1000;0.1595;0.4650;
461.4000;0.1465;0.4435;
461.7000;0.1628;0.4841;
462.0000;0.1604;0.4841;
462.3000;0.1612;0.4841;
462.6000;0.1587;0.4817;
462.9000;0.1579;0.4698;
463.2000;0.1652;0.4864;
463.5000;0.1547;0.4578;
463.8000;0.1587;0.4626;
464.1000;0.1530;0.4459;
464.4000;0.1644;0.4674;
464.7000;0.1595;0.4531;
465.0000;0.1587;0.4483;
465.3000;0.1522;0.4411;
465.6000;0.1555;0.4578;
465.9000;0.1604;0.4698;
466.2000;0.1604;0.4674;
466.5000;0.1587;0.4698;
466.8000;0.1522;0.4459;
467.1000;0.1571;0.4650;
467.4000;0.1595;0.4745;
467.7000;0.1604;0.4721;
468.0000;0.1579;0.4769;
468.3000;0.1579;0.4769;
468.6000;0.1595;0.4864;
468.9000;0.1530;0.4674;
469.2000;0.1587;0.4817;
469.5000;0.1587;0.4793;
469.8000;0.1587;0.4793;
470.1000;0.1465;0.4459;
470.4000;0.1571;0.4793;
470.7000;0.1595;0.4793;
471.0000;0.1587;0.4841;
471.3000;0.1595;0.4841;
471.6000;0.1579;0.4793;
471.9000;0.1563;0.4841;
472.2000;0.1595;0.4984;
472.5000;0.1563;0.4841;
472.8000;0.1563;0.4888;
473.1000;0.1571;0.4888;
473.4000;0.1571;0.4793;
473.7000;0.1595;0.4817;
474.0000;0.1701;0.5151;
474.3000;0.1579;0.4769;
474.6000;0.1579;0.4745;
474.9000;0.1612;0.4793;
475.2000;0.1669;0.5031;
475.5000;0.1571;0.4817;
475.8000;0.1612;0.4936;
476.1000;0.1571;0.4912;
476.4000;0.1604;0.5008;
476.7000;0.1579;0.4936;
477.0000;0.1522;0.4769;
477.3000;0.1555;0.4841;
477.6000;0.1595;0.4960;
477.9000;0.1563;0.4936;
478.2000;0.1571;0.4888;
478.5000;0.1587;0.4864;
478.8000;0.1579;0.4817;
479.1000;0.1571;0.4769;
479.4000;0.1604;0.4841;
479.7000;0.1579;0.4721;
480.0000;0.1579;0.4721;
480.3000;0.1587;0.4793;
480.6000;0.1579;0.4769;
480.9000;0.1579;0.4698;
481.2000;0.1587;0.4721;
481.5000;0.1571;0.4674;
481.8000;0.1587;0.4698;
482.1000;0.1563;0.4626;
482.4000;0.1563;0.4721;
482.7000;0.1604;0.4841;
483.0000;0.1579;0.4769;
483.3000;0.1620;0.4888;
483.6000;0.1555;0.4793;
483.9000;0.1547;0.4721;
484.2000;0.1587;0.4888;
484.5000;0.1579;0.4912;
484.8000;0.1587;0.4864;
485.1000;0.1571;0.4841;
485.4000;0.1547;0.4721;
485.7000;0.1595;0.4817;
486.0000;0.1587;0.4769;
486.3000;0.1595;0.4864;
486.6000;0.1661;0.4936;
486.9000;0.1604;0.4841;
487.2000;0.1595;0.4817;
487.5000;0.1579;0.4769;
487.8000;0.1595;0.4769;
488.1000;0.1612;0.4841;
488.4000;0.1579;0.4769;
488.7000;0.1571;0.4793;
489.0000;0.1587;0.4888;
489.3000;0.1604;0.4888;
489.6000;0.1579;0.4769;
489.9000;0.1506;0.4554;
490.2000;0.1661;0.5008;
490.5000;0.1587;0.4817;
490.8000;0.1628;0.4888;
491.1000;0.1595;0.4769;
491.4000;0.1587;0.4721;
491.7000;0.1595;0.4793;
492.0000;0.1555;0.4721;
492.3000;0.1547;0.4769;
492.6000;0.1595;0.4817;
492.9000;0.1604;0.4817;
493.2000;0.1449;0.4483;
493.5000;0.1595;0.4864;
493.8000;0.1555;0.4793;
494.1000;0.1571;0.4769;
494.4000;0.1563;0.4888;
494.7000;0.1620;0.5055;
495.0000;0.1595;0.4936;
495.3000;0.1587;0.4936;
495.6000;0.1620;0.5055;
495.9000;0.1587;0.4984;
496.2000;0.1579;0.4984;
496.5000;0.1587;0.4960;
496.8000;0.1563;0.4912;
497.1000;0.1604;0.5008;
497.4000;0.1563;0.4864;
497.7000;0.1547;0.4864;
498.0000;0.1579;0.4864;
498.3000;0.1595;0.4912;
498.6000;0.1587;0.4817;
498.9000;0.1579;0.4817;
499.2000;0.1547;0.4745;
499.5000;0.1587;0.4936;
499.8000;0.1595;0.5008;
500.1000;0.1587;0.4936;
500.4000;0.1563;0.4841;
500.7000;0.1595;0.4912;
501.0000;0.1571;0.4864;
501.3000;0.1538;0.4793;
501.6000;0.1563;0.4864;
501.9000;0.1571;0.4936;
502.2000;0.1563;0.4960;
502.5000;0.1579;0.4984;
502.8000;0.1538;0.4960;
503.1000;0.1571;0.4912;
503.4000;0.1595;0.5008;
503.7000;0.1563;0.4960;
504.0000;0.1571;0.5031;
504.3000;0.1563;0.5055;
504.6000;0.1604;0.5151;
504.9000;0.1571;0.5103;
505.2000;0.1563;0.5031;
505.5000;0.1579;0.5031;
505.8000;0.1579;0.4984;
506.1000;0.1587;0.5008;
506.4000;0.1587;0.5008;
506.7000;0.1587;0.4984;
507.0000;0.1587;0.4984;
507.3000;0.1652;0.5174;
507.6000;0.1579;0.5031;
507.9000;0.1595;0.5055;
508.2000;0.1571;0.4984;
508.5000;0.1595;0.4984;
508.8000;0.1555;0.4960;
509.1000;0.1555;0.4936;
509.4000;0.1538;0.4912;
509.7000;0.1587;0.4984;
510.0000;0.1538;0.4912;
510.3000;0.1571;0.4984;
510.6000;0.1538;0.4888;
510.9000;0.1587;0.4984;
511.2000;0.1604;0.5008;
511.5000;0.1595;0.5031;
511.8000;0.1587;0.5055;
512.1000;0.1571;0.5031;
512.4000;0.1571;0.5008;
512.7000;0.1579;0.5079;
513.0000;0.1587;0.5079;
513.3000;0.1604;0.5127;
513.6000;0.1571;0.5031;
513.9000;0.1571;0.5008;
514.2000;0.1636;0.5174;
514.5000;0.1579;0.5031;
514.8000;0.1595;0.5008;
515.1000;0.1587;0.5008;
515.4000;0.1595;0.4984;
515.7000;0.1587;0.4936;
516.0000;0.1587;0.4984;
516.3000;0.1571;0.5055;
516.6000;0.1587;0.5055;
516.9000;0.1579;0.5079;
517.2000;0.1685;0.5365;
517.5000;0.1587;0.5127;
517.8000;0.1587;0.5174;
518.1000;0.1620;0.5246;
518.4000;0.1587;0.5127;
518.7000;0.1571;0.5055;
519.0000;0.1571;0.5079;
519.3000;0.1571;0.4960;
519.6000;0.1555;0.4960;
519.9000;0.1579;0.5055;
520.2000;0.1595;0.5031;
520.5000;0.1579;0.4936;
520.8000;0.1595;0.5008;
521.1000;0.1595;0.5055;
521.4000;0.1587;0.5055;
521.7000;0.1595;0.5031;
522.0000;0.1571;0.4984;
522.3000;0.1595;0.5031;
522.6000;0.1587;0.5008;
522.9000;0.1571;0.4888;
523.2000;0.1595;0.4912;
523.5000;0.1571;0.4793;
523.8000;0.1579;0.4841;
524.1000;0.1652;0.5008;
524.4000;0.1587;0.4817;
524.7000;0.1563;0.4841;
525.0000;0.1587;0.4841;
525.3000;0.1587;0.4888;
525.6000;0.1612;0.4817;
525.9000;0.1587;0.4698;
526.2000;0.1490;0.4340;
526.5000;0.1595;0.4602;
526.8000;0.1579;0.4578;
527.1000;0.1595;0.4626;
527.4000;0.1587;0.4650;
527.7000;0.1595;0.4698;
528.0000;0.1595;0.4721;
528.3000;0.1579;0.4674;
528.6000;0.1563;0.4650;
528.9000;0.1595;0.4674;
529.2000;0.1571;0.4698;
529.5000;0.1595;0.4769;
529.8000;0.1571;0.4650;
530.1000;0.1587;0.4602;
530.4000;0.1579;0.4602;
530.7000;0.1595;0.4602;
531.0000;0.1571;0.4650;
531.3000;0.1571;0.4674;
531.6000;0.1538;0.4578;
531.9000;0.1661;0.4817;
532.2000;0.1579;0.4650;
532.5000;0.1571;0.4745;
532.8000;0.1579;0.4769;
533.1000;0.1595;0.4745;
533.4000;0.1595;0.4793;
533.7000;0.1579;0.4698;
534.0000;0.1718;0.5008;
534.3000;0.1587;0.4745;
534.6000;0.1709;0.5055;
534.9000;0.1514;0.4602;
535.2000;0.1555;0.4769;
535.5000;0.1579;0.4912;
535.8000;0.1457;0.4602;
536.1000;0.1555;0.4864;
536.4000;0.1587;0.4960;
536.7000;0.1595;0.4912;
537.0000;0.1563;0.4912;
537.3000;0.1587;0.4912;
537.6000;0.1595;0.4912;
537.9000;0.1628;0.4960;
538.2000;0.1604;0.4817;
538.5000;0.1587;0.4769;
538.8000;0.1563;0.4650;
539.1000;0.1563;0.4626;
539.4000;0.1595;0.4698;
539.7000;0.1595;0.4674;
540.0000;0.1563;0.4626;
540.3000;0.1579;0.4674;
540.6000;0.1587;0.4698;
540.9000;0.1579;0.4769;
541.2000;0.1587;0.4745;
541.5000;0.1579;0.4769;
541.8000;0.1595;0.4912;
542.1000;0.1587;0.4888;
542.4000;0.1604;0.4793;
542.7000;0.1571;0.4650;
543.0000;0.1579;0.4650;
543.3000;0.1555;0.4554;
543.6000;0.1587;0.4531;
543.9000;0.1587;0.4626;
544.2000;0.1595;0.4626;
544.5000;0.1587;0.4602;
544.8000;0.1693;0.4841;
545.1000;0.1579;0.4554;
545.4000;0.1595;0.4674;
545.7000;0.1571;0.4769;
546.0000;0.1563;0.4698;
546.3000;0.1587;0.4698;
546.6000;0.1563;0.4602;
546.9000;0.1563;0.4602;
547.2000;0.1563;0.4674;
547.5000;0.1620;0.4864;
547.8000;0.1579;0.4721;
548.1000;0.1522;0.4531;
548.4000;0.1579;0.4578;
548.7000;0.1604;0.4554;
549.0000;0.1547;0.4483;
549.3000;0.1652;0.4817;
549.6000;0.1587;0.4721;
549.9000;0.1579;0.4626;
550.2000;0.1579;0.4602;
550.5000;0.1612;0.4698;
550.8000;0.1571;0.4507;
551.1000;0.1604;0.4650;
551.4000;0.1587;0.4626;
551.7000;0.1563;0.4698;
552.0000;0.1563;0.4745;
552.3000;0.1579;0.4793;
552.6000;0.1571;0.4793;
552.9000;0.1563;0.4745;
553.2000;0.1604;0.4793;
553.5000;0.1498;0.4507;
553.8000;0.1595;0.4769;
554.1000;0.1579;0.4698;
554.4000;0.1579;0.4674;
554.7000;0.1677;0.4888;
555.0000;0.1555;0.4578;
555.3000;0.1587;0.4650;
555.6000;0.1604;0.4698;
555.9000;0.1595;0.4721;
556.2000;0.1620;0.4745;
556.5000;0.1612;0.4674;
556.8000;0.1571;0.4531;
557.1000;0.1604;0.4674;
557.4000;0.1571;0.4602;
557.7000;0.1587;0.4721;
558.0000;0.1571;0.4626;
558.3000;0.1579;0.4602;
558.6000;0.1587;0.4531;
558.9000;0.1604;0.4531;
559.2000;0.1563;0.4507;
559.5000;0.1563;0.4578;
559.8000;0.1587;0.4626;
560.1000;0.1604;0.4650;
560.4000;0.1620;0.4650;
560.7000;0.1644;0.4698;
561.0000;0.1465;0.4268;
561.3000;0.1595;0.4674;
561.6000;0.1587;0.4626;
561.9000;0.1579;0.4650;
562.2000;0.1571;0.4602;
562.5000;0.1604;0.4674;
562.8000;0.1571;0.4626;
563.1000;0.1563;0.4578;
563.4000;0.1579;0.4698;
563.7000;0.1579;0.4674;
564.0000;0.1604;0.4745;
564.3000;0.1595;0.4745;
564.6000;0.1595;0.4698;
564.9000;0.1571;0.4626;
565.2000;0.1579;0.4650;
565.5000;0.1563;0.4650;
565.8000;0.1571;0.4698;
566.1000;0.1571;0.4698;
566.4000;0.1604;0.4769;
566.7000;0.1587;0.4721;
567.0000;0.1587;0.4674;
567.3000;0.1595;0.4674;
567.6000;0.1579;0.4769;
567.9000;0.1587;0.4745;
568.2000;0.1579;0.4698;
568.5000;0.1661;0.4864;
568.8000;0.1636;0.4864;
569.1000;0.1579;0.4698;
569.4000;0.1530;0.4578;
569.7000;0.1604;0.4698;
570.0000;0.1595;0.4578;
570.3000;0.1595;0.4626;
570.6000;0.1595;0.4650;
570.9000;0.1636;0.4817;
571.2000;0.1587;0.4650;
571.5000;0.1595;0.4721;
571.8000;0.1587;0.4674;
572.1000;0.1498;0.4411;
572.4000;0.1579;0.4626;
572.7000;0.1579;0.4531;
573.0000;0.1587;0.4578;
573.3000;0.1604;0.4578;
573.6000;0.1579;0.4435;
573.9000;0.1563;0.4364;
574.2000;0.1522;0.4244;
574.5000;0.1571;0.4435;
574.8000;0.1563;0.4411;
575.1000;0.1604;0.4507;
575.4000;0.1481;0.4244;
575.7000;0.1563;0.4483;
576.0000;0.1571;0.4459;
576.3000;0.1555;0.4459;
576.6000;0.1620;0.4578;
576.9000;0.1563;0.4531;
577.2000;0.1538;0.4459;
577.5000;0.1579;0.4531;
577.8000;0.1571;0.4483;
578.1000;0.1530;0.4435;
578.4000;0.1571;0.4578;
578.7000;0.1571;0.4531;
579.0000;0.1563;0.4483;
579.3000;0.1595;0.4531;
579.6000;0.1587;0.4554;
579.9000;0.1555;0.4507;
580.2000;0.1514;0.4411;
580.5000;0.1555;0.4507;
580.8000;0.1587;0.4602;
581.1000;0.1595;0.4602;
581.4000;0.1604;0.4602;
581.7000;0.1579;0.4483;
582.0000;0.1669;0.4698;
582.3000;0.1538;0.4435;
582.6000;0.1620;0.4721;
582.9000;0.1587;0.4650;
583.2000;0.1579;0.4674;
583.5000;0.1579;0.4578;
583.8000;0.1555;0.4554;
584.1000;0.1547;0.4531;
584.4000;0.1595;0.4602;
584.7000;0.1595;0.4578;
585.0000;0.1579;0.4578;
585.3000;0.1555;0.4364;
585.6000;0.1571;0.4388;
585.9000;0.1555;0.4364;
586.2000;0.1595;0.4483;
586.5000;0.1661;0.4674;
586.8000;0.1579;0.4531;
587.1000;0.1595;0.4602;
587.4000;0.1587;0.4602;
587.7000;0.1571;0.4507;
588.0000;0.1677;0.4793;
588.3000;0.1587;0.4507;
588.6000;0.1620;0.4674;
588.9000;0.1595;0.4674;
589.2000;0.1579;0.4650;
589.5000;0.1604;0.4769;
589.8000;0.1579;0.4674;
590.1000;0.1587;0.4721;
590.4000;0.1579;0.4745;
590.7000;0.1555;0.4698;
591.0000;0.1579;0.4745;
591.3000;0.1587;0.4698;
591.6000;0.1587;0.4674;
591.9000;0.1579;0.4554;
592.2000;0.1555;0.4459;
592.5000;0.1587;0.4531;
592.8000;0.1652;0.4626;
593.1000;0.1612;0.4459;
593.4000;0.1595;0.4340;
593.7000;0.1587;0.4483;
594.0000;0.1595;0.4507;
594.3000;0.1579;0.4602;
594.6000;0.1563;0.4602;
594.9000;0.1587;0.4650;
595.2000;0.1563;0.4626;
595.5000;0.1587;0.4721;
595.8000;0.1579;0.4721;
596.1000;0.1604;0.4864;
596.4000;0.1587;0.4841;
596.7000;0.1579;0.4864;
597.0000;0.1587;0.4936;
597.3000;0.1604;0.4984;
597.6000;0.1587;0.4793;
597.9000;0.1579;0.4769;
598.2000;0.1571;0.4698;
598.5000;0.1587;0.4793;
598.8000;0.1571;0.4745;
599.1000;0.1587;0.4817;
599.4000;0.1571;0.4698;
599.7000;0.1587;0.4626;
600.0000;0.1571;0.4578;
600.3000;0.1587;0.4531;
600.6000;0.1595;0.4554;
600.9000;0.1587;0.4507;
601.2000;0.1563;0.4411;
601.5000;0.1555;0.4340;
601.8000;0.1547;0.4268;
602.1000;0.1555;0.4149;
602.4000;0.1587;0.4149;
602.7000;0.1563;0.4125;
603.0000;0.1563;0.4006;
603.3000;0.1620;0.4125;
603.6000;0.1547;0.3839;
603.9000;0.1555;0.3720;
604.2000;0.1579;0.3696;
604.5000;0.1563;0.3648;
604.8000;0.1522;0.3434;
605.1000;0.1620;0.3696;
605.4000;0.1522;0.3314;
605.7000;0.1522;0.3291;
606.0000;0.1595;0.3553;
606.3000;0.1555;0.3386;
606.6000;0.1514;0.3195;
606.9000;0.1538;0.3243;
607.2000;0.1506;0.3195;
607.5000;0.1530;0.3267;
607.8000;0.1506;0.3267;
608.1000;0.1538;0.3362;
608.4000;0.1514;0.3314;
608.7000;0.1514;0.3267;
609.0000;0.1530;0.3243;
609.3000;0.1522;0.3148;
609.6000;0.1530;0.3148;
609.9000;0.1514;0.3052;
610.2000;0.1506;0.3076;
610.5000;0.1579;0.3291;
610.8000;0.1514;0.3076;
611.1000;0.1506;0.3052;
611.4000;0.1514;0.3052;
611.7000;0.1522;0.3028;
612.0000;0.1514;0.2957;
612.3000;0.1522;0.3005;
612.6000;0.1522;0.2981;
612.9000;0.1498;0.2885;
613.2000;0.1514;0.2909;
613.5000;0.1522;0.2909;
613.8000;0.1522;0.2861;
614.1000;0.1514;0.2838;
614.4000;0.1514;0.2766;
614.7000;0.1514;0.2838;
615.0000;0.1416;0.2647;
615.3000;0.1425;0.2647;
615.6000;0.1522;0.2933;
615.9000;0.1514;0.2957;
616.2000;0.1506;0.3100;
616.5000;0.1538;0.3124;
616.8000;0.1514;0.3100;
617.1000;0.1530;0.3148;
617.4000;0.1620;0.3434;
617.7000;0.1514;0.3052;
618.0000;0.1514;0.2981;
618.3000;0.1514;0.3005;
618.6000;0.1449;0.2814;
618.9000;0.1490;0.2981;
619.2000;0.1506;0.2933;
619.5000;0.1490;0.2790;
619.8000;0.1522;0.2814;
620.1000;0.1522;0.2909;
620.4000;0.1514;0.2861;
620.7000;0.1547;0.3076;
621.0000;0.1514;0.2885;
621.3000;0.1538;0.2981;
621.6000;0.1514;0.2909;
621.9000;0.1441;0.2695;
622.2000;0.1481;0.2766;
622.5000;0.1498;0.2861;
622.8000;0.1498;0.2814;
623.1000;0.1481;0.2838;
623.4000;0.1506;0.2861;
623.7000;0.1612;0.3195;
624.0000;0.1530;0.2981;
624.3000;0.1490;0.2838;
624.6000;0.1376;0.2623;
624.9000;0.1555;0.3124;
625.2000;0.1506;0.3052;
625.5000;0.1441;0.2885;
625.8000;0.1514;0.3052;
626.1000;0.1530;0.3052;
626.4000;0.1514;0.3052;
626.7000;0.1498;0.2957;
627.0000;0.1319;0.2528;
627.3000;0.1514;0.3028;
627.6000;0.1514;0.2981;
627.9000;0.1547;0.3100;
628.2000;0.1481;0.2909;
628.5000;0.1490;0.2957;
628.8000;0.1498;0.3052;
629.1000;0.1506;0.2957;
629.4000;0.1506;0.2933;
629.7000;0.1579;0.3171;
630.0000;0.1490;0.2981;
630.3000;0.1604;0.3195;
630.6000;0.1490;0.2909;
630.9000;0.1506;0.3052;
631.2000;0.1530;0.3171;
631.5000;0.1514;0.3124;
631.8000;0.1506;0.3076;
632.1000;0.1555;0.3171;
632.4000;0.1506;0.2909;
632.7000;0.1506;0.2909;
633.0000;0.1530;0.2981;
633.3000;0.1514;0.2957;
633.6000;0.1490;0.2885;
633.9000;0.1490;0.2838;
634.2000;0.1490;0.2885;
634.5000;0.1522;0.2981;
634.8000;0.1522;0.2981;
635.1000;0.1498;0.2933;
635.4000;0.1522;0.3005;
635.7000;0.1490;0.2933;
636.0000;0.1473;0.2838;
636.3000;0.1530;0.3028;
636.6000;0.1506;0.3028;
636.9000;0.1481;0.2933;
637.2000;0.1514;0.2933;
637.5000;0.1538;0.2909;
637.8000;0.1481;0.2885;
638.1000;0.1433;0.2861;
638.4000;0.1522;0.3171;
638.7000;0.1514;0.3124;
639.0000;0.1514;0.3195;
639.3000;0.1571;0.3171;
639.6000;0.1490;0.2957;
639.9000;0.1498;0.3028;
640.2000;0.1514;0.3028;
640.5000;0.1506;0.2957;
640.8000;0.1498;0.2933;
641.1000;0.1530;0.2957;
641.4000;0.1506;0.2957;
641.7000;0.1498;0.3028;
642.0000;0.1522;0.3100;
642.3000;0.1538;0.3171;
642.6000;0.1481;0.3005;
642.9000;0.1514;0.3100;
643.2000;0.1506;0.3005;
643.5000;0.1506;0.2981;
643.8000;0.1555;0.3052;
644.1000;0.1530;0.2861;
644.4000;0.1498;0.2718;
644.7000;0.1449;0.2647;
645.0000;0.1514;0.2885;
645.3000;0.1498;0.2885;
645.6000;0.1514;0.2933;
645.9000;0.1425;0.2647;
646.2000;0.1522;0.2861;
646.5000;0.1490;0.2838;
646.8000;0.1514;0.2861;
647.1000;0.1490;0.2718;
647.4000;0.1538;0.2933;
647.7000;0.1457;0.2671;
648.0000;0.1522;0.2861;
648.3000;0.1376;0.2456;
648.6000;0.1506;0.2814;
648.9000;0.1392;0.2599;
649.2000;0.1425;0.2718;
649.5000;0.1514;0.2885;
649.8000;0.1490;0.2885;
650.1000;0.1498;0.2981;
650.4000;0.1490;0.2909;
650.7000;0.1514;0.2981;
651.0000;0.1506;0.2981;
651.3000;0.1481;0.2909;
651.6000;0.1498;0.3005;
651.9000;0.1514;0.3148;
652.2000;0.1490;0.3171;
652.5000;0.1498;0.3100;
652.8000;0.1457;0.3005;
653.1000;0.1498;0.3076;
653.4000;0.1514;0.3076;
653.7000;0.1490;0.2981;
654.0000;0.1465;0.2861;
654.3000;0.1457;0.2790;
654.6000;0.1506;0.2981;
654.9000;0.1498;0.3005;
655.2000;0.1490;0.2981;
655.5000;0.1473;0.2933;
655.8000;0.1522;0.3005;
656.1000;0.1506;0.3005;
656.4000;0.1498;0.2933;
656.7000;0.1490;0.2909;
657.0000;0.1384;0.2599;
657.3000;0.1498;0.2909;
657.6000;0.1514;0.2933;
657.9000;0.1498;0.2933;
658.2000;0.1514;0.3076;
658.5000;0.1506;0.3100;
658.8000;0.1498;0.3005;
659.1000;0.1514;0.3124;
659.4000;0.1498;0.3100;
659.7000;0.1506;0.3124;
660.0000;0.1490;0.3100;
660.3000;0.1465;0.3005;
660.6000;0.1490;0.3028;
660.9000;0.1498;0.3005;
661.2000;0.1473;0.2981;
661.5000;0.1481;0.2909;
661.8000;0.1490;0.2838;
662.1000;0.1481;0.2838;
662.4000;0.1498;0.2981;
662.7000;0.1587;0.3219;
663.0000;0.1473;0.2957;
663.3000;0.1506;0.3052;
663.6000;0.1506;0.3100;
663.9000;0.1522;0.3148;
664.2000;0.1498;0.3052;
664.5000;0.1498;0.3028;
664.8000;0.1522;0.3148;
665.1000;0.1490;0.3028;
665.4000;0.1522;0.3005;
665.7000;0.1498;0.2933;
666.0000;0.1498;0.2981;
666.3000;0.1579;0.3195;
666.6000;0.1490;0.2957;
666.9000;0.1498;0.2981;
667.2000;0.1498;0.2933;
667.5000;0.1490;0.2909;
667.8000;0.1514;0.2933;
668.1000;0.1514;0.2885;
668.4000;0.1490;0.3005;
668.7000;0.1506;0.2981;
669.0000;0.1498;0.2933;
669.3000;0.1498;0.2981;
669.6000;0.1522;0.2957;
669.9000;0.1506;0.2933;
670.2000;0.1522;0.3028;
670.5000;0.1425;0.2838;
670.8000;0.1506;0.3005;
671.1000;0.1506;0.3076;
671.4000;0.1522;0.3076;
671.7000;0.1506;0.3028;
672.0000;0.1579;0.3362;
672.3000;0.1522;0.3243;
672.6000;0.1441;0.3005;
672.9000;0.1506;0.3076;
673.2000;0.1433;0.2933;
673.5000;0.1498;0.3076;
673.8000;0.1514;0.3124;
674.1000;0.1514;0.3171;
674.4000;0.1473;0.3076;
674.7000;0.1530;0.3148;
675.0000;0.1506;0.3052;
675.3000;0.1571;0.3291;
675.6000;0.1457;0.3100;
675.9000;0.1449;0.3100;
676.2000;0.1490;0.3291;
676.5000;0.1498;0.3338;
676.8000;0.1473;0.3243;
677.1000;0.1498;0.3386;
677.4000;0.1490;0.3314;
677.7000;0.1498;0.3386;
678.0000;0.1498;0.3314;
678.3000;0.1514;0.3243;
678.6000;0.1506;0.3267;
678.9000;0.1506;0.3243;
679.2000;0.1449;0.2981;
679.5000;0.1506;0.3148;
679.8000;0.1481;0.3148;
680.1000;0.1506;0.3148;
680.4000;0.1514;0.3052;
680.7000;0.1506;0.2981;
681.0000;0.1343;0.2575;
681.3000;0.1514;0.3124;
681.6000;0.1506;0.3076;
681.9000;0.1481;0.3005;
682.2000;0.1490;0.3100;
682.5000;0.1498;0.3100;
682.8000;0.1490;0.3052;
683.1000;0.1473;0.2981;
683.4000;0.1522;0.3171;
683.7000;0.1481;0.3100;
684.0000;0.1506;0.3076;
684.3000;0.1498;0.3028;
684.6000;0.1555;0.3195;
684.9000;0.1481;0.3005;
685.2000;0.1449;0.2933;
685.5000;0.1506;0.3052;
685.8000;0.1506;0.3052;
686.1000;0.1490;0.3052;
686.4000;0.1506;0.3076;
686.7000;0.1506;0.3076;
687.0000;0.1530;0.2981;
687.3000;0.1457;0.2766;
687.6000;0.1498;0.2814;
687.9000;0.1587;0.3005;
688.2000;0.1376;0.2528;
688.5000;0.1473;0.2790;
688.8000;0.1547;0.3076;
689.1000;0.1506;0.3005;
689.4000;0.1498;0.3028;
689.7000;0.1506;0.2981;
690.0000;0.1498;0.3052;
690.3000;0.1433;0.2909;
690.6000;0.1433;0.2981;
690.9000;0.1498;0.3195;
691.2000;0.1522;0.3267;
691.5000;0.1481;0.3195;
691.8000;0.1514;0.3219;
692.1000;0.1514;0.3219;
692.4000;0.1449;0.3052;
692.7000;0.1473;0.3124;
693.0000;0.1481;0.3148;
693.3000;0.1473;0.3219;
693.6000;0.1408;0.3028;
693.9000;0.1506;0.3362;
694.2000;0.1514;0.3314;
694.5000;0.1473;0.3148;
694.8000;0.1506;0.3195;
695.1000;0.1457;0.3028;
695.4000;0.1563;0.3291;
695.7000;0.1514;0.3124;
696.0000;0.1481;0.3100;
696.3000;0.1514;0.3243;
696.6000;0.1481;0.3076;
696.9000;0.1522;0.3171;
697.2000;0.1441;0.3005;
697.5000;0.1433;0.2933;
697.8000;0.1498;0.3100;
698.1000;0.1522;0.3076;
698.4000;0.1498;0.2933;
698.7000;0.1506;0.3028;
699.0000;0.1506;0.3100;
699.3000;0.1490;0.3028;
699.6000;0.1473;0.3076;
699.9000;0.1498;0.3171;
700.2000;0.1506;0.3195;
700.5000;0.1514;0.3219;
700.8000;0.1514;0.3195;
701.1000;0.1514;0.3219;
701.4000;0.1498;0.3148;
701.7000;0.1498;0.3124;
702.0000;0.1498;0.3219;
702.3000;0.1506;0.3267;
702.6000;0.1498;0.3195;
702.9000;0.1514;0.3291;
703.2000;0.1498;0.3243;
703.5000;0.1506;0.3219;
703.8000;0.1490;0.3100;
704.1000;0.1490;0.3076;
704.4000;0.1481;0.3028;
704.7000;0.1506;0.3052;
705.0000;0.1538;0.3148;
705.3000;0.1490;0.2981;
705.6000;0.1490;0.2933;
705.9000;0.1604;0.3195;
706.2000;0.1449;0.2790;
706.5000;0.1522;0.2957;
706.8000;0.1490;0.2933;
707.1000;0.1522;0.3124;
707.4000;0.1481;0.3028;
707.7000;0.1506;0.3100;
708.0000;0.1473;0.3076;
708.3000;0.1506;0.3005;
708.6000;0.1498;0.2957;
708.9000;0.1490;0.3005;
709.2000;0.1465;0.2957;
709.5000;0.1498;0.3028;
709.8000;0.1514;0.3124;
710.1000;0.1498;0.3195;
710.4000;0.1490;0.3243;
710.7000;0.1530;0.3314;
711.0000;0.1490;0.3195;
711.3000;0.1563;0.3434;
711.6000;0.1498;0.3219;
711.9000;0.1490;0.3267;
712.2000;0.1547;0.3434;
712.5000;0.1465;0.3219;
712.8000;0.1473;0.3195;
713.1000;0.1457;0.3100;
713.4000;0.1498;0.3171;
713.7000;0.1506;0.3195;
714.0000;0.1506;0.3195;
714.3000;0.1506;0.3100;
714.6000;0.1490;0.3076;
714.9000;0.1514;0.3219;
715.2000;0.1506;0.3219;
715.5000;0.1490;0.3028;
715.8000;0.1481;0.2981;
716.1000;0.1514;0.3171;
716.4000;0.1490;0.3005;
716.7000;0.1490;0.3005;
717.0000;0.1498;0.3028;
717.3000;0.1506;0.2933;
717.6000;0.1522;0.2981;
717.9000;0.1473;0.2885;
718.2000;0.1498;0.3005;
718.5000;0.1481;0.3005;
718.8000;0.1506;0.3028;
719.1000;0.1473;0.2909;
719.4000;0.1506;0.3005;
719.7000;0.1514;0.3052;
720.0000;0.1514;0.3005;
720.3000;0.1490;0.2981;
720.6000;0.1498;0.2933;
720.9000;0.1490;0.2885;
721.2000;0.1506;0.2885;
721.5000;0.1481;0.2838;
721.8000;0.1490;0.2838;
722.1000;0.1473;0.2838;
722.4000;0.1490;0.2885;
722.7000;0.1498;0.2933;
723.0000;0.1514;0.2933;
723.3000;0.1514;0.2909;
723.6000;0.1530;0.2909;
723.9000;0.1490;0.2790;
724.2000;0.1506;0.2814;
724.5000;0.1506;0.2838;
724.8000;0.1514;0.2909;
725.1000;0.1481;0.2885;
725.4000;0.1490;0.2933;
725.7000;0.1522;0.3028;
726.0000;0.1481;0.3005;
726.3000;0.1522;0.3052;
726.6000;0.1506;0.3005;
726.9000;0.1498;0.3005;
727.2000;0.1506;0.3028;
727.5000;0.1490;0.3052;
727.8000;0.1490;0.3052;
728.1000;0.1506;0.3100;
728.4000;0.1498;0.3100;
728.7000;0.1498;0.3052;
729.0000;0.1547;0.3100;
729.3000;0.1498;0.2957;
729.6000;0.1498;0.2933;
729.9000;0.1514;0.3028;
730.2000;0.1498;0.3028;
730.5000;0.1514;0.3028;
730.8000;0.1571;0.3124;
731.1000;0.1498;0.2933;
731.4000;0.1514;0.2957;
731.7000;0.1506;0.2933;
732.0000;0.1481;0.2885;
732.3000;0.1490;0.2861;
732.6000;0.1498;0.2909;
732.9000;0.1416;0.2695;
733.2000;0.1514;0.2909;
733.5000;0.1408;0.2647;
733.8000;0.1490;0.2885;
734.1000;0.1506;0.2933;
734.4000;0.1498;0.3028;
734.7000;0.1506;0.3076;
735.0000;0.1498;0.3100;
735.3000;0.1498;0.3124;
735.6000;0.1481;0.3148;
735.9000;0.1514;0.3171;
736.2000;0.1522;0.3148;
736.5000;0.1359;0.2742;
736.8000;0.1490;0.3124;
737.1000;0.1506;0.3171;
737.4000;0.1538;0.3243;
737.7000;0.1514;0.3124;
738.0000;0.1514;0.3243;
738.3000;0.1547;0.3362;
738.6000;0.1498;0.3219;
738.9000;0.1514;0.3314;
739.2000;0.1530;0.3362;
739.5000;0.1490;0.3314;
739.8000;0.1498;0.3267;
740.1000;0.1514;0.3219;
740.4000;0.1498;0.3171;
740.7000;0.1481;0.3124;
741.0000;0.1481;0.3100;
741.3000;0.1514;0.3148;
741.6000;0.1506;0.3124;
741.9000;0.1498;0.3100;
742.2000;0.1473;0.3100;
742.5000;0.1481;0.3124;
742.8000;0.1506;0.3076;
743.1000;0.1449;0.3076;
743.4000;0.1563;0.3291;
743.7000;0.1498;0.3076;
744.0000;0.1498;0.3100;
744.3000;0.1506;0.3076;
744.6000;0.1490;0.2957;
744.9000;0.1473;0.2861;
745.2000;0.1522;0.3052;
745.5000;0.1481;0.2909;
745.8000;0.1481;0.2957;
746.1000;0.1449;0.2909;
746.4000;0.1490;0.3076;
746.7000;0.1416;0.2838;
747.0000;0.1506;0.3100;
747.3000;0.1506;0.3124;
747.6000;0.1498;0.3100;
747.9000;0.1473;0.3076;
748.2000;0.1522;0.3028;
748.5000;0.1506;0.3052;
748.8000;0.1522;0.3100;
749.1000;0.1514;0.3100;
749.4000;0.1473;0.3052;
749.7000;0.1547;0.3267;
750.0000;0.1498;0.3171;
750.3000;0.1506;0.3243;
750.6000;0.1473;0.3124;
750.9000;0.1506;0.3076;
751.2000;0.1498;0.3005;
751.5000;0.1498;0.3005;
751.8000;0.1514;0.2981;
752.1000;0.1530;0.3052;
752.4000;0.1514;0.3052;
752.7000;0.1514;0.3076;
753.0000;0.1481;0.3028;
753.3000;0.1481;0.3028;
753.6000;0.1490;0.3076;
753.9000;0.1498;0.3100;
754.2000;0.1490;0.2981;
754.5000;0.1490;0.2933;
754.8000;0.1506;0.3005;
755.1000;0.1498;0.3052;
755.4000;0.1506;0.3052;
755.7000;0.1490;0.2981;
756.0000;0.1473;0.2981;
756.3000;0.1490;0.2981;
756.6000;0.1481;0.2981;
756.9000;0.1514;0.3076;
757.2000;0.1506;0.3076;
757.5000;0.1579;0.3267;
757.8000;0.1514;0.3100;
758.1000;0.1481;0.3052;
758.4000;0.1498;0.3148;
758.7000;0.1490;0.3124;
759.0000;0.1498;0.3195;
759.3000;0.1481;0.3076;
759.6000;0.1498;0.3100;
759.9000;0.1498;0.3100;
760.2000;0.1530;0.3171;
760.5000;0.1547;0.3314;
760.8000;0.1498;0.3195;
761.1000;0.1522;0.3148;
761.4000;0.1514;0.3100;
761.7000;0.1490;0.3005;
762.0000;0.1481;0.2957;
762.3000;0.1514;0.3028;
762.6000;0.1506;0.3005;
762.9000;0.1433;0.2838;
763.2000;0.1449;0.2957;
763.5000;0.1481;0.2981;
763.8000;0.1498;0.3028;
764.1000;0.1506;0.3052;
764.4000;0.1481;0.2885;
764.7000;0.1490;0.3028;
765.0000;0.1481;0.3052;
765.3000;0.1481;0.3124;
765.6000;0.1587;0.3386;
765.9000;0.1522;0.3195;
766.2000;0.1473;0.2957;
766.5000;0.1490;0.2933;
766.8000;0.1490;0.3005;
767.1000;0.1514;0.3100;
767.4000;0.1571;0.3219;
767.7000;0.1506;0.2981;
768.0000;0.1498;0.2981;
768.3000;0.1604;0.3243;
768.6000;0.1506;0.2981;
768.9000;0.1498;0.3076;
769.2000;0.1514;0.3052;
769.5000;0.1595;0.3291;
769.8000;0.1506;0.2981;
770.1000;0.1433;0.2766;
770.4000;0.1490;0.2933;
770.7000;0.1490;0.2933;
771.0000;0.1449;0.2933;
771.3000;0.1498;0.3148;
771.6000;0.1498;0.3052;
771.9000;0.1490;0.3052;
772.2000;0.1441;0.2838;
772.5000;0.1498;0.2909;
772.8000;0.1587;0.3148;
773.1000;0.1506;0.2909;
773.4000;0.1506;0.2909;
773.7000;0.1473;0.2838;
774.0000;0.1506;0.2885;
774.3000;0.1506;0.2838;
774.6000;0.1514;0.2861;
774.9000;0.1506;0.2861;
775.2000;0.1498;0.2957;
775.5000;0.1481;0.2933;
775.8000;0.1514;0.3028;
776.1000;0.1522;0.3005;
776.4000;0.1498;0.2957;
776.7000;0.1481;0.2861;
777.0000;0.1506;0.2885;
777.3000;0.1506;0.2981;
777.6000;0.1506;0.2981;
777.9000;0.1514;0.2861;
778.2000;0.1506;0.2790;
778.5000;0.1498;0.2838;
778.8000;0.1604;0.3171;
779.1000;0.1514;0.2838;
779.4000;0.1465;0.2814;
779.7000;0.1538;0.3005;
780.0000;0.1498;0.2933;
780.3000;0.1595;0.3171;
780.6000;0.1433;0.2695;
780.9000;0.1506;0.2838;
781.2000;0.1538;0.2957;
781.5000;0.1506;0.2909;
781.8000;0.1457;0.2766;
782.1000;0.1490;0.2957;
782.4000;0.1490;0.2957;
782.7000;0.1400;0.2671;
783.0000;0.1506;0.2909;
783.3000;0.1530;0.2981;
783.6000;0.1490;0.2814;
783.9000;0.1514;0.2814;
784.2000;0.1481;0.2718;
784.5000;0.1481;0.2790;
784.8000;0.1563;0.3052;
785.1000;0.1490;0.2861;
785.4000;0.1498;0.2838;
785.7000;0.1368;0.2551;
786.0000;0.1481;0.2814;
786.3000;0.1490;0.2814;
786.6000;0.1441;0.2718;
786.9000;0.1498;0.2885;
787.2000;0.1498;0.2909;
787.5000;0.1620;0.3219;
787.8000;0.1376;0.2528;
788.1000;0.1490;0.2885;
788.4000;0.1481;0.2861;
788.7000;0.1490;0.2766;
789.0000;0.1449;0.2599;
789.3000;0.1530;0.2838;
789.6000;0.1498;0.2718;
789.9000;0.1490;0.2742;
790.2000;0.1506;0.2718;
790.5000;0.1441;0.2647;
790.8000;0.1481;0.2790;
791.1000;0.1506;0.2838;
791.4000;0.1538;0.2933;
791.7000;0.1506;0.2838;
792.0000;0.1449;0.2695;
792.3000;0.1449;0.2742;
792.6000;0.1473;0.2766;
792.9000;0.1498;0.2909;
793.2000;0.1498;0.2909;
793.5000;0.1506;0.3005;
793.8000;0.1506;0.3076;
794.1000;0.1595;0.3267;
794.4000;0.1457;0.2885;
794.7000;0.1522;0.3005;
795.0000;0.1514;0.2957;
795.3000;0.1506;0.2957;
795.6000;0.1506;0.2933;
795.9000;0.1490;0.2909;
796.2000;0.1514;0.2885;
796.5000;0.1514;0.2814;
796.8000;0.1514;0.2790;
797.1000;0.1498;0.2790;
797.4000;0.1490;0.2742;
797.7000;0.1490;0.2790;
798.0000;0.1481;0.2838;
798.3000;0.1506;0.2957;
798.6000;0.1514;0.2885;
798.9000;0.1490;0.2885;
799.2000;0.1481;0.2957;
799.5000;0.1473;0.2981;
799.8000;0.1490;0.2957;
800.1000;0.1498;0.2957;
800.4000;0.1514;0.3076;
800.7000;0.1522;0.3124;
801.0000;0.1587;0.3267;
801.3000;0.1506;0.2957;
801.6000;0.1481;0.2885;
801.9000;0.1481;0.3005;
802.2000;0.1604;0.3243;
802.5000;0.1498;0.2933;
802.8000;0.1473;0.2981;
803.1000;0.1490;0.3028;
803.4000;0.1571;0.3195;
803.7000;0.1457;0.3005;
804.0000;0.1498;0.3028;
804.3000;0.1490;0.2981;
804.6000;0.1490;0.2981;
804.9000;0.1522;0.3005;
805.2000;0.1530;0.3076;
805.5000;0.1498;0.2957;
805.8000;0.1506;0.2909;
806.1000;0.1465;0.2790;
806.4000;0.1481;0.2742;
806.7000;0.1522;0.2861;
807.0000;0.1506;0.2671;
807.3000;0.1563;0.2885;
807.6000;0.1481;0.2647;
807.9000;0.1457;0.2599;
808.2000;0.1514;0.2742;
808.5000;0.1481;0.2575;
808.8000;0.1522;0.2695;
809.1000;0.1506;0.2671;
809.4000;0.1449;0.2623;
809.7000;0.1498;0.2814;
810.0000;0.1449;0.2647;
810.3000;0.1490;0.2885;
810.6000;0.1498;0.2838;
810.9000;0.1514;0.2838;
811.2000;0.1481;0.2790;
811.5000;0.1481;0.2861;
811.8000;0.1498;0.2909;
812.1000;0.1506;0.2957;
812.4000;0.1441;0.2718;
812.7000;0.1473;0.2814;
813.0000;0.1481;0.2790;
813.3000;0.1514;0.2861;
813.6000;0.1457;0.2790;
813.9000;0.1498;0.2838;
814.2000;0.1473;0.2790;
814.5000;0.1457;0.2695;
814.8000;0.1498;0.2814;
815.1000;0.1498;0.2742;
815.4000;0.1481;0.2671;
815.7000;0.1506;0.2718;
816.0000;0.1514;0.2742;
816.3000;0.1481;0.2695;
816.6000;0.1465;0.2718;
816.9000;0.1473;0.2742;
817.2000;0.1538;0.2814;
817.5000;0.1498;0.2790;
817.8000;0.1506;0.2766;
818.1000;0.1473;0.2671;
818.4000;0.1490;0.2742;
818.7000;0.1473;0.2695;
819.0000;0.1433;0.2647;
819.3000;0.1498;0.2838;
819.6000;0.1490;0.2838;
819.9000;0.1514;0.2814;
820.2000;0.1425;0.2623;
820.5000;0.1490;0.2861;
820.8000;0.1498;0.2885;
821.1000;0.1506;0.2885;
821.4000;0.1490;0.2838;
821.7000;0.1506;0.2933;
822.0000;0.1506;0.2885;
822.3000;0.1481;0.2766;
822.6000;0.1506;0.2885;
822.9000;0.1473;0.2790;
823.2000;0.1481;0.2814;
823.5000;0.1604;0.3171;
823.8000;0.1506;0.3076;
824.1000;0.1498;0.2981;
824.4000;0.1498;0.3052;
824.7000;0.1490;0.2885;
825.0000;0.1514;0.2933;
825.3000;0.1490;0.2814;
825.6000;0.1530;0.2909;
825.9000;0.1473;0.2695;
826.2000;0.1490;0.2790;
826.5000;0.1490;0.2814;
826.8000;0.1506;0.2790;
827.1000;0.1481;0.2766;
827.4000;0.1473;0.2695;
827.7000;0.1465;0.2718;
828.0000;0.1498;0.2766;
828.3000;0.1481;0.2671;
828.6000;0.1579;0.2957;
828.9000;0.1514;0.2861;
829.2000;0.1498;0.2814;
829.5000;0.1538;0.3028;
829.8000;0.1457;0.2790;
830.1000;0.1490;0.2885;
830.4000;0.1506;0.2909;
830.7000;0.1498;0.2933;
831.0000;0.1457;0.2861;
831.3000;0.1490;0.2909;
831.6000;0.1490;0.2861;
831.9000;0.1506;0.2838;
832.2000;0.1490;0.2861;
832.5000;0.1490;0.2790;
832.8000;0.1498;0.2885;
833.1000;0.1522;0.3005;
833.4000;0.1490;0.2838;
833.7000;0.1490;0.2838;
834.0000;0.1514;0.2981;
834.3000;0.1522;0.3052;
834.6000;0.1530;0.3052;
834.9000;0.1473;0.2933;
835.2000;0.1490;0.3052;
835.5000;0.1530;0.3148;
835.8000;0.1473;0.2933;
836.1000;0.1465;0.2861;
836.4000;0.1490;0.2909;
836.7000;0.1514;0.2957;
837.0000;0.1498;0.2885;
837.3000;0.1481;0.2861;
837.6000;0.1490;0.2861;
837.9000;0.1408;0.2575;
838.2000;0.1514;0.2790;
838.5000;0.1530;0.2909;
838.8000;0.1498;0.2885;
839.1000;0.1441;0.2790;
839.4000;0.1514;0.2933;
839.7000;0.1522;0.3005;
840.0000;0.1457;0.2861;
840.3000;0.1490;0.2885;
840.6000;0.1522;0.3005;
840.9000;0.1490;0.2981;
841.2000;0.1498;0.3028;
841.5000;0.1481;0.3028;
841.8000;0.1498;0.2981;
842.1000;0.1506;0.2957;
842.4000;0.1506;0.2885;
842.7000;0.1522;0.2814;
843.0000;0.1506;0.2718;
843.3000;0.1506;0.2647;
843.6000;0.1481;0.2647;
843.9000;0.1498;0.2695;
844.2000;0.1506;0.2647;
844.5000;0.1498;0.2575;
844.8000;0.1498;0.2623;
845.1000;0.1481;0.2647;
845.4000;0.1490;0.2695;
845.7000;0.1498;0.2766;
846.0000;0.1481;0.2671;
846.3000;0.1498;0.2742;
846.6000;0.1481;0.2718;
846.9000;0.1506;0.2790;
847.2000;0.1514;0.2814;
847.5000;0.1473;0.2790;
847.8000;0.1490;0.2909;
848.1000;0.1530;0.3028;
848.4000;0.1522;0.3052;
848.7000;0.1514;0.3052;
849.0000;0.1514;0.3100;
849.3000;0.1514;0.3171;
849.6000;0.1498;0.3005;
849.9000;0.1498;0.3028;
850.2000;0.1506;0.3052;
850.5000;0.1481;0.2957;
850.8000;0.1481;0.2885;
851.1000;0.1538;0.3028;
851.4000;0.1457;0.2909;
851.7000;0.1506;0.3100;
852.0000;0.1490;0.3076;
852.3000;0.1481;0.2933;
852.6000;0.1498;0.2933;
852.9000;0.1490;0.2957;
853.2000;0.1506;0.3005;
853.5000;0.1563;0.3291;
853.8000;0.1514;0.3148;
854.1000;0.1579;0.3314;
854.4000;0.1571;0.3243;
854.7000;0.1522;0.3052;
855.0000;0.1547;0.3100;
855.3000;0.1498;0.2933;
855.6000;0.1506;0.2957;
855.9000;0.1498;0.2933;
856.2000;0.1506;0.2909;
856.5000;0.1465;0.2814;
856.8000;0.1498;0.2861;
857.1000;0.1506;0.2838;
857.4000;0.1571;0.3100;
857.7000;0.1506;0.2933;
858.0000;0.1522;0.2981;
858.3000;0.1490;0.2957;
858.6000;0.1498;0.2885;
858.9000;0.1498;0.2861;
859.2000;0.1473;0.2814;
859.5000;0.1530;0.3052;
859.8000;0.1490;0.3005;
860.1000;0.1506;0.3076;
860.4000;0.1481;0.2957;
860.7000;0.1514;0.2957;
861.0000;0.1498;0.3052;
861.3000;0.1490;0.3005;
861.6000;0.1498;0.3148;
861.9000;0.1571;0.3291;
862.2000;0.1473;0.3124;
862.5000;0.1473;0.2981;
862.8000;0.1595;0.3338;
863.1000;0.1481;0.3124;
863.4000;0.1490;0.3171;
863.7000;0.1498;0.3052;
864.0000;0.1514;0.3100;
864.3000;0.1498;0.3028;
864.6000;0.1506;0.3052;
864.9000;0.1506;0.3005;
865.2000;0.1498;0.3005;
865.5000;0.1481;0.2933;
865.8000;0.1490;0.2981;
866.1000;0.1538;0.3171;
866.4000;0.1506;0.3028;
866.7000;0.1514;0.2957;
867.0000;0.1506;0.2861;
867.3000;0.1498;0.2838;
867.6000;0.1514;0.2933;
867.9000;0.1457;0.2838;
868.2000;0.1457;0.2981;
868.5000;0.1490;0.2957;
868.8000;0.1441;0.2814;
869.1000;0.1490;0.3028;
869.4000;0.1465;0.2957;
869.7000;0.1498;0.3005;
870.0000;0.1514;0.3052;
870.3000;0.1498;0.3052;
870.6000;0.1514;0.3100;
870.9000;0.1498;0.3148;
871.2000;0.1514;0.3148;
871.5000;0.1514;0.3243;
871.8000;0.1498;0.3291;
872.1000;0.1490;0.3267;
872.4000;0.1481;0.3243;
872.7000;0.1498;0.3195;
873.0000;0.1530;0.3291;
873.3000;0.1425;0.3052;
873.6000;0.1555;0.3338;
873.9000;0.1481;0.3100;
874.2000;0.1498;0.3195;
874.5000;0.1465;0.3005;
874.8000;0.1547;0.3124;
875.1000;0.1490;0.3100;
875.4000;0.1498;0.3052;
875.7000;0.1498;0.3052;
876.0000;0.1498;0.3005;
876.3000;0.1506;0.3028;
876.6000;0.1555;0.3219;
876.9000;0.1498;0.3052;
877.2000;0.1506;0.3124;
877.5000;0.1522;0.3243;
877.8000;0.1441;0.2981;
878.1000;0.1563;0.3195;
878.4000;0.1547;0.3148;
878.7000;0.1481;0.3028;
879.0000;0.1498;0.3124;
879.3000;0.1514;0.3195;
879.6000;0.1481;0.3124;
879.9000;0.1425;0.2861;
880.2000;0.1498;0.3148;
880.5000;0.1563;0.3314;
880.8000;0.1514;0.3195;
881.1000;0.1490;0.3124;
881.4000;0.1514;0.3243;
881.7000;0.1481;0.3052;
882.0000;0.1514;0.3171;
882.3000;0.1506;0.3148;
882.6000;0.1506;0.3124;
882.9000;0.1441;0.2981;
883.2000;0.1498;0.3076;
883.5000;0.1514;0.3052;
883.8000;0.1498;0.3005;
884.1000;0.1522;0.3100;
884.4000;0.1449;0.2885;
884.7000;0.1514;0.2981;
885.0000;0.1498;0.2981;
885.3000;0.1498;0.3028;
885.6000;0.1481;0.2957;
885.9000;0.1490;0.3028;
886.2000;0.1498;0.3052;
886.5000;0.1522;0.3148;
886.8000;0.1490;0.3076;
887.1000;0.1506;0.3076;
887.4000;0.1498;0.3028;
887.7000;0.1514;0.3028;
888.0000;0.1473;0.2933;
888.3000;0.1490;0.3028;
888.6000;0.1498;0.2933;
888.9000;0.1473;0.2909;
889.2000;0.1498;0.2933;
889.5000;0.1506;0.3005;
889.8000;0.1481;0.2885;
890.1000;0.1457;0.2838;
890.4000;0.1506;0.2885;
890.7000;0.1481;0.2957;
891.0000;0.1522;0.3100;
891.3000;0.1547;0.3100;
891.6000;0.1506;0.2933;
891.9000;0.1530;0.3052;
892.2000;0.1473;0.2981;
892.5000;0.1490;0.3028;
892.8000;0.1481;0.2981;
893.1000;0.1490;0.2909;
893.4000;0.1490;0.2861;
893.7000;0.1506;0.2838;
894.0000;0.1498;0.2838;
894.3000;0.1498;0.2814;
894.6000;0.1514;0.2957;
894.9000;0.1514;0.2933;
895.2000;0.1514;0.3005;
895.5000;0.1481;0.2981;
895.8000;0.1498;0.3028;
896.1000;0.1498;0.3028;
896.4000;0.1498;0.3076;
896.7000;0.1465;0.2885;
897.0000;0.1473;0.2909;
897.3000;0.1384;0.2623;
897.6000;0.1514;0.3005;
897.9000;0.1522;0.3052;
898.2000;0.1514;0.3028;
898.5000;0.1530;0.3100;
898.8000;0.1481;0.2981;
899.1000;0.1490;0.3005;
899.4000;0.1441;0.2861;
899.7000;0.1506;0.3005;
900.0000;0.1506;0.3028;
900.3000;0.1481;0.2885;
900.6000;0.1481;0.2933;
900.9000;0.1490;0.2885;
901.2000;0.1481;0.2861;
901.5000;0.1465;0.2814;
901.8000;0.1506;0.2981;
902.1000;0.1473;0.2933;
902.4000;0.1449;0.2790;
902.7000;0.1506;0.3028;
903.0000;0.1506;0.3076;
903.3000;0.1498;0.3028;
903.6000;0.1530;0.3005;
903.9000;0.1571;0.3171;
904.2000;0.1506;0.3052;
904.5000;0.1522;0.3052;
904.8000;0.1490;0.2933;
905.1000;0.1490;0.2909;
905.4000;0.1449;0.2790;
905.7000;0.1498;0.2909;
906.0000;0.1490;0.2933;
906.3000;0.1506;0.2957;
906.6000;0.1555;0.2981;
906.9000;0.1490;0.2861;
907.2000;0.1490;0.2861;
907.5000;0.1498;0.2885;
907.8000;0.1530;0.3076;
908.1000;0.1490;0.2933;
908.4000;0.1506;0.2933;
908.7000;0.1522;0.3076;
909.0000;0.1604;0.3362;
909.3000;0.1490;0.3076;
909.6000;0.1490;0.3076;
909.9000;0.1490;0.3052;
910.2000;0.1408;0.2885;
910.5000;0.1498;0.3100;
910.8000;0.1514;0.3100;
911.1000;0.1490;0.3052;
911.4000;0.1498;0.3052;
911.7000;0.1490;0.3076;
912.0000;0.1522;0.3100;
912.3000;0.1449;0.2909;
912.6000;0.1506;0.3005;
912.9000;0.1498;0.3028;
913.2000;0.1506;0.3052;
913.5000;0.1506;0.3052;
913.8000;0.1506;0.3076;
914.1000;0.1490;0.3148;
914.4000;0.1514;0.3195;
914.7000;0.1490;0.3076;
915.0000;0.1473;0.3076;
915.3000;0.1498;0.3052;
915.6000;0.1514;0.3076;
915.9000;0.1522;0.3100;
916.2000;0.1335;0.2671;
916.5000;0.1555;0.3171;
916.8000;0.1522;0.3100;
917.1000;0.1506;0.3076;
917.4000;0.1522;0.3100;
917.7000;0.1400;0.2838;
918.0000;0.1441;0.2981;
918.3000;0.1563;0.3338;
918.6000;0.1490;0.3100;
918.9000;0.1465;0.3100;
919.2000;0.1473;0.3028;
919.5000;0.1506;0.3148;
919.8000;0.1481;0.3148;
920.1000;0.1522;0.3195;
920.4000;0.1538;0.3171;
920.7000;0.1498;0.3124;
921.0000;0.1579;0.3219;
921.3000;0.1547;0.3243;
921.6000;0.1514;0.3195;
921.9000;0.1490;0.3148;
922.2000;0.1465;0.3005;
922.5000;0.1498;0.3100;
922.8000;0.1490;0.3028;
923.1000;0.1433;0.2861;
923.4000;0.1433;0.2861;
923.7000;0.1498;0.2981;
924.0000;0.1498;0.3028;
924.3000;0.1563;0.3171;
924.6000;0.1498;0.2957;
924.9000;0.1490;0.2861;
925.2000;0.1473;0.2790;
925.5000;0.1490;0.2861;
925.8000;0.1506;0.2814;
926.1000;0.1490;0.2766;
926.4000;0.1457;0.2718;
926.7000;0.1457;0.2766;
927.0000;0.1514;0.2838;
927.3000;0.1506;0.2814;
927.6000;0.1538;0.2933;
927.9000;0.1400;0.2504;
928.2000;0.1506;0.2838;
928.5000;0.1506;0.2814;
928.8000;0.1498;0.2766;
929.1000;0.1514;0.2861;
929.4000;0.1498;0.2790;
929.7000;0.1498;0.2838;
930.0000;0.1498;0.2885;
930.3000;0.1490;0.2838;
930.6000;0.1514;0.2933;
930.9000;0.1473;0.2957;
931.2000;0.1522;0.2933;
931.5000;0.1571;0.3100;
931.8000;0.1506;0.2861;
932.1000;0.1490;0.2861;
932.4000;0.1490;0.2838;
932.7000;0.1498;0.2838;
933.0000;0.1490;0.2838;
933.3000;0.1481;0.2838;
933.6000;0.1498;0.2933;
933.9000;0.1506;0.3028;
934.2000;0.1498;0.3148;
934.5000;0.1490;0.3124;
934.8000;0.1514;0.3076;
935.1000;0.1530;0.3148;
935.4000;0.1473;0.2957;
935.7000;0.1498;0.3005;
936.0000;0.1490;0.2933;
936.3000;0.1522;0.2885;
936.6000;0.1506;0.2861;
936.9000;0.1498;0.2885;
937.2000;0.1555;0.2933;
937.5000;0.1514;0.2885;
937.8000;0.1498;0.2861;
938.1000;0.1498;0.2861;
938.4000;0.1490;0.2814;
938.7000;0.1490;0.2909;
939.0000;0.1506;0.3005;
939.3000;0.1498;0.3052;
939.6000;0.1473;0.2981;
939.9000;0.1506;0.3028;
940.2000;0.1481;0.2885;
940.5000;0.1498;0.2909;
940.8000;0.1490;0.2933;
941.1000;0.1506;0.3028;
941.4000;0.1506;0.3028;
941.7000;0.1522;0.3100;
942.0000;0.1579;0.3243;
942.3000;0.1571;0.3219;
942.6000;0.1506;0.3076;
942.9000;0.1498;0.2981;
943.2000;0.1522;0.3005;
943.5000;0.1506;0.2957;
943.8000;0.1490;0.2957;
944.1000;0.1457;0.2933;
944.4000;0.1490;0.2933;
944.7000;0.1587;0.3148;
945.0000;0.1490;0.2909;
945.3000;0.1481;0.2814;
945.6000;0.1490;0.2861;
945.9000;0.1498;0.2861;
946.2000;0.1506;0.2838;
946.5000;0.1506;0.2766;
946.8000;0.1498;0.2790;
947.1000;0.1498;0.2838;
947.4000;0.1530;0.2957;
947.7000;0.1498;0.3005;
948.0000;0.1530;0.3005;
948.3000;0.1506;0.2933;
948.6000;0.1473;0.2861;
948.9000;0.1490;0.2909;
949.2000;0.1490;0.2957;
949.5000;0.1514;0.2981;
949.8000;0.1392;0.2718;
950.1000;0.1506;0.3005;
950.4000;0.1506;0.2933;
950.7000;0.1506;0.2909;
951.0000;0.1522;0.2957;
951.3000;0.1522;0.2981;
951.6000;0.1498;0.2909;
951.9000;0.1571;0.3195;
952.2000;0.1481;0.2957;
952.5000;0.1490;0.2957;
952.8000;0.1490;0.2981;
953.1000;0.1490;0.3005;
953.4000;0.1490;0.3028;
953.7000;0.1498;0.3100;
954.0000;0.1465;0.3028;
954.3000;0.1498;0.3076;
954.6000;0.1530;0.3243;
954.9000;0.1449;0.3028;
955.2000;0.1506;0.3124;
955.5000;0.1490;0.3124;
955.8000;0.1481;0.3076;
956.1000;0.1490;0.3124;
956.4000;0.1498;0.3219;
956.7000;0.1506;0.3195;
957.0000;0.1384;0.2790;
957.3000;0.1490;0.3076;
957.6000;0.1490;0.3100;
957.9000;0.1555;0.3291;
958.2000;0.1490;0.3052;
958.5000;0.1473;0.3028;
958.8000;0.1498;0.3076;
959.1000;0.1449;0.2981;
959.4000;0.1490;0.3052;
959.7000;0.1490;0.3005;
960.0000;0.1514;0.2957;
960.3000;0.1449;0.2790;
960.6000;0.1449;0.2766;
960.9000;0.1392;0.2599;
961.2000;0.1547;0.3052;
961.5000;0.1481;0.2981;
961.8000;0.1498;0.2933;
962.1000;0.1522;0.3005;
962.4000;0.1481;0.2885;
962.7000;0.1522;0.3005;
963.0000;0.1514;0.3076;
963.3000;0.1506;0.3028;
963.6000;0.1506;0.2933;
963.9000;0.1498;0.2933;
964.2000;0.1498;0.2885;
964.5000;0.1490;0.2909;
964.8000;0.1506;0.2933;
965.1000;0.1473;0.2814;
965.4000;0.1514;0.2861;
965.7000;0.1571;0.2981;
966.0000;0.1473;0.2718;
966.3000;0.1514;0.2885;
966.6000;0.1555;0.3028;
966.9000;0.1490;0.2838;
967.2000;0.1498;0.2838;
967.5000;0.1449;0.2766;
967.8000;0.1498;0.2933;
968.1000;0.1506;0.2957;
968.4000;0.1506;0.2933;
968.7000;0.1441;0.2814;
969.0000;0.1506;0.2933;
969.3000;0.1538;0.3028;
969.6000;0.1498;0.2861;
969.9000;0.1490;0.2814;
970.2000;0.1506;0.2861;
970.5000;0.1506;0.2957;
970.8000;0.1433;0.2790;
971.1000;0.1514;0.2981;
971.4000;0.1490;0.2909;
971.7000;0.1457;0.2766;
972.0000;0.1490;0.2742;
972.3000;0.1490;0.2790;
972.6000;0.1490;0.2814;
972.9000;0.1481;0.2766;
973.2000;0.1506;0.2766;
973.5000;0.1481;0.2838;
973.8000;0.1506;0.2790;
974.1000;0.1465;0.2790;
974.4000;0.1490;0.2838;
974.7000;0.1498;0.2885;
975.0000;0.1587;0.3267;
975.3000;0.1498;0.2909;
975.6000;0.1514;0.2981;
975.9000;0.1538;0.3124;
976.2000;0.1514;0.3028;
976.5000;0.1490;0.3052;
976.8000;0.1490;0.3005;
977.1000;0.1571;0.3267;
977.4000;0.1490;0.3028;
977.7000;0.1498;0.3076;
978.0000;0.1522;0.3195;
978.3000;0.1481;0.3124;
978.6000;0.1441;0.2957;
978.9000;0.1612;0.3362;
979.2000;0.1498;0.3005;
979.5000;0.1481;0.2957;
979.8000;0.1506;0.2981;
980.1000;0.1514;0.3052;
980.4000;0.1538;0.3148;
980.7000;0.1498;0.3028;
981.0000;0.1457;0.2933;
981.3000;0.1514;0.3005;
981.6000;0.1506;0.3100;
981.9000;0.1547;0.3148;
982.2000;0.1498;0.2957;
982.5000;0.1490;0.2861;
982.8000;0.1506;0.2814;
983.1000;0.1441;0.2695;
983.4000;0.1457;0.2790;
983.7000;0.1506;0.2885;
984.0000;0.1498;0.2861;
984.3000;0.1498;0.2933;
984.6000;0.1506;0.2933;
984.9000;0.1481;0.2838;
985.2000;0.1571;0.3076;
985.5000;0.1506;0.2933;
985.8000;0.1433;0.2695;
986.1000;0.1473;0.2814;
986.4000;0.1384;0.2551;
986.7000;0.1506;0.2933;
987.0000;0.1490;0.2933;
987.3000;0.1498;0.2909;
987.6000;0.1498;0.2885;
987.9000;0.1490;0.2790;
988.2000;0.1514;0.2933;
988.5000;0.1490;0.2861;
988.8000;0.1498;0.2814;
989.1000;0.1481;0.2742;
989.4000;0.1522;0.2838;
989.7000;0.1547;0.2933;
990.0000;0.1481;0.2742;
990.3000;0.1514;0.2742;
990.6000;0.1514;0.2861;
990.9000;0.1547;0.2909;
991.2000;0.1514;0.2838;
991.5000;0.1498;0.2838;
991.8000;0.1514;0.2838;
992.1000;0.1498;0.2790;
992.4000;0.1441;0.2695;
992.7000;0.1498;0.2861;
993.0000;0.1506;0.2885;
993.3000;0.1449;0.2766;
993.6000;0.1473;0.2838;
993.9000;0.1620;0.3243;
994.2000;0.1498;0.2838;
994.5000;0.1514;0.2981;
994.8000;0.1449;0.2838;
995.1000;0.1490;0.2909;
995.4000;0.1571;0.3100;
995.7000;0.1514;0.2957;
996.0000;0.1490;0.2885;
996.3000;0.1490;0.2861;
996.6000;0.1490;0.2861;
996.9000;0.1522;0.2957;
997.2000;0.1506;0.2885;
997.5000;0.1538;0.3005;
997.8000;0.1473;0.2885;
998.1000;0.1514;0.2957;
998.4000;0.1490;0.2885;
998.7000;0.1498;0.2885;
999.0000;0.1359;0.2480;
999.3000;0.1498;0.2695;
999.6000;0.1530;0.2718;
999.9000;0.1498;0.2671;
1000.2000;0.1490;0.2623;
1000.5000;0.1506;0.2695;
1000.8000;0.1514;0.2742;
1001.1000;0.1506;0.2647;
1001.4000;0.1490;0.2623;
1001.7000;0.1506;0.2599;
1002.0000;0.1498;0.2575;
1002.3000;0.1498;0.2504;
1002.6000;0.1490;0.2480;
1002.9000;0.1473;0.2528;
1003.2000;0.1514;0.2647;
1003.5000;0.1514;0.2671;
1003.8000;0.1498;0.2599;
1004.1000;0.1514;0.2671;
1004.4000;0.1481;0.2623;
1004.7000;0.1514;0.2790;
1005.0000;0.1514;0.2909;
1005.3000;0.1498;0.2838;
1005.6000;0.1498;0.2933;
1005.9000;0.1498;0.2933;
1006.2000;0.1490;0.2933;
1006.5000;0.1522;0.2957;
1006.8000;0.1490;0.2909;
1007.1000;0.1522;0.2981;
1007.4000;0.1555;0.3052;
1007.7000;0.1514;0.2814;
1008.0000;0.1498;0.2766;
1008.3000;0.1490;0.2718;
1008.6000;0.1522;0.2766;
1008.9000;0.1473;0.2718;
1009.2000;0.1490;0.2790;
1009.5000;0.1563;0.3005;
1009.8000;0.1481;0.2861;
1010.1000;0.1498;0.2933;
1010.4000;0.1490;0.3005;
1010.7000;0.1514;0.3100;
1011.0000;0.1498;0.3028;
1011.3000;0.1522;0.3076;
1011.6000;0.1506;0.2981;
1011.9000;0.1522;0.3100;
1012.2000;0.1522;0.3100;
1012.5000;0.1506;0.3148;
1012.8000;0.1457;0.3028;
1013.1000;0.1481;0.3124;
1013.4000;0.1506;0.3124;
1013.7000;0.1490;0.3076;
1014.0000;0.1522;0.3171;
1014.3000;0.1490;0.3171;
1014.6000;0.1514;0.3171;
1014.9000;0.1522;0.3243;
1015.2000;0.1644;0.3529;
1015.5000;0.1506;0.3028;
1015.8000;0.1587;0.3314;
1016.1000;0.1441;0.2957;
1016.4000;0.1571;0.3291;
1016.7000;0.1433;0.2933;
1017.0000;0.1498;0.3148;
1017.3000;0.1587;0.3458;
1017.6000;0.1514;0.3124;
1017.9000;0.1530;0.3052;
1018.2000;0.1506;0.3028;
1018.5000;0.1587;0.3195;
1018.8000;0.1506;0.2957;
1019.1000;0.1481;0.2957;
1019.4000;0.1490;0.2957;
1019.7000;0.1514;0.2981;
1020.0000;0.1547;0.3052;
1020.3000;0.1514;0.3052;
1020.6000;0.1490;0.3028;
1020.9000;0.1506;0.3076;
1021.2000;0.1481;0.3005;
1021.5000;0.1473;0.2957;
1021.8000;0.1490;0.3005;
1022.1000;0.1506;0.3100;
1022.4000;0.1498;0.3076;
1022.7000;0.1514;0.3052;
1023.0000;0.1465;0.2957;
1023.3000;0.1514;0.2981;
1023.6000;0.1481;0.2957;
1023.9000;0.1514;0.2957;
1024.2000;0.1522;0.3028;
1024.5000;0.1498;0.2957;
1024.8000;0.1490;0.2814;
1025.1000;0.1490;0.2742;
1025.4000;0.1506;0.2790;
1025.7000;0.1530;0.2885;
1026.0000;0.1465;0.2671;
1026.3000;0.1490;0.2742;
1026.6000;0.1498;0.2790;
1026.9000;0.1498;0.2766;
1027.2000;0.1490;0.2718;
1027.5000;0.1441;0.2599;
1027.8000;0.1506;0.2790;
1028.1000;0.1498;0.2742;
1028.4000;0.1490;0.2766;
1028.7000;0.1530;0.2885;
1029.0000;0.1538;0.2957;
1029.3000;0.1400;0.2647;
1029.6000;0.1481;0.2838;
1029.9000;0.1490;0.2861;
1030.2000;0.1473;0.2838;
1030.5000;0.1506;0.2885;
1030.8000;0.1498;0.2861;
1031.1000;0.1490;0.2790;
1031.4000;0.1490;0.2766;
1031.7000;0.1449;0.2623;
1032.0000;0.1506;0.2838;
1032.3000;0.1490;0.2742;
1032.6000;0.1498;0.2695;
1032.9000;0.1473;0.2695;
1033.2000;0.1425;0.2647;
1033.5000;0.1490;0.2814;
1033.8000;0.1481;0.2790;
1034.1000;0.1555;0.3005;
1034.4000;0.1522;0.2861;
1034.7000;0.1490;0.2742;
1035.0000;0.1481;0.2718;
1035.3000;0.1498;0.2742;
1035.6000;0.1538;0.2790;
1035.9000;0.1490;0.2718;
1036.2000;0.1498;0.2861;
1036.5000;0.1506;0.2790;
1036.8000;0.1498;0.2838;
1037.1000;0.1547;0.2909;
1037.4000;0.1506;0.2838;
1037.7000;0.1457;0.2766;
1038.0000;0.1481;0.2814;
1038.3000;0.1498;0.2766;
1038.6000;0.1392;0.2504;
1038.9000;0.1522;0.2885;
1039.2000;0.1481;0.2814;
1039.5000;0.1522;0.2885;
1039.8000;0.1481;0.2790;
1040.1000;0.1473;0.2742;
1040.4000;0.1457;0.2718;
1040.7000;0.1538;0.2933;
1041.0000;0.1514;0.2814;
1041.3000;0.1514;0.2909;
1041.6000;0.1522;0.2981;
1041.9000;0.1498;0.2885;
1042.2000;0.1490;0.2861;
1042.5000;0.1612;0.3124;
1042.8000;0.1416;0.2599;
1043.1000;0.1481;0.2718;
1043.4000;0.1522;0.2790;
1043.7000;0.1530;0.2814;
1044.0000;0.1555;0.2933;
1044.3000;0.1514;0.2766;
1044.6000;0.1506;0.2790;
1044.9000;0.1465;0.2766;
1045.2000;0.1498;0.2814;
1045.5000;0.1506;0.2885;
1045.8000;0.1514;0.2909;
1046.1000;0.1514;0.3052;
1046.4000;0.1514;0.2957;
1046.7000;0.1490;0.2838;
1047.0000;0.1498;0.2909;
1047.3000;0.1498;0.2861;
1047.6000;0.1514;0.2909;
1047.9000;0.1490;0.2838;
1048.2000;0.1498;0.2838;
1048.5000;0.1538;0.3028;
1048.8000;0.1522;0.2957;
1049.1000;0.1498;0.2885;
1049.4000;0.1490;0.2766;
1049.7000;0.1563;0.2957;
1050.0000;0.1481;0.2671;
1050.3000;0.1490;0.2695;
1050.6000;0.1425;0.2551;
1050.9000;0.1498;0.2718;
1051.2000;0.1490;0.2742;
1051.5000;0.1604;0.3052;
1051.8000;0.1490;0.2766;
1052.1000;0.1522;0.2933;
1052.4000;0.1490;0.2885;
1052.7000;0.1490;0.2909;
1053.0000;0.1490;0.2933;
1053.3000;0.1473;0.2838;
1053.6000;0.1490;0.2838;
1053.9000;0.1522;0.2933;
1054.2000;0.1481;0.2838;
1054.5000;0.1457;0.2742;
1054.8000;0.1490;0.2814;
1055.1000;0.1498;0.2695;
1055.4000;0.1636;0.3124;
1055.7000;0.1481;0.2671;
1056.0000;0.1522;0.2814;
1056.3000;0.1498;0.2742;
1056.6000;0.1506;0.2671;
1056.9000;0.1514;0.2647;
1057.2000;0.1481;0.2623;
1057.5000;0.1514;0.2766;
1057.8000;0.1506;0.2790;
1058.1000;0.1547;0.2909;
1058.4000;0.1473;0.2790;
1058.7000;0.1473;0.2790;
1059.0000;0.1490;0.2695;
1059.3000;0.1506;0.2695;
1059.6000;0.1490;0.2718;
1059.9000;0.1498;0.2718;
1060.2000;0.1514;0.2718;
1060.5000;0.1506;0.2623;
1060.8000;0.1490;0.2575;
1061.1000;0.1481;0.2599;
1061.4000;0.1506;0.2695;
1061.7000;0.1514;0.2766;
1062.0000;0.1506;0.2695;
1062.3000;0.1498;0.2647;
1062.6000;0.1506;0.2695;
1062.9000;0.1481;0.2647;
1063.2000;0.1522;0.2766;
1063.5000;0.1490;0.2718;
1063.8000;0.1449;0.2647;
1064.1000;0.1490;0.2742;
1064.4000;0.1506;0.2814;
1064.7000;0.1490;0.2790;
1065.0000;0.1481;0.2718;
1065.3000;0.1490;0.2671;
1065.6000;0.1498;0.2742;
1065.9000;0.1595;0.2981;
1066.2000;0.1506;0.2766;
1066.5000;0.1490;0.2790;
1066.8000;0.1384;0.2432;
1067.1000;0.1506;0.2766;
1067.4000;0.1498;0.2814;
1067.7000;0.1498;0.2695;
1068.0000;0.1563;0.2766;
1068.3000;0.1490;0.2575;
1068.6000;0.1490;0.2575;
1068.9000;0.1498;0.2695;
1069.2000;0.1498;0.2766;
1069.5000;0.1506;0.2718;
1069.8000;0.1498;0.2766;
1070.1000;0.1506;0.2814;
1070.4000;0.1514;0.2909;
1070.7000;0.1514;0.2933;
1071.0000;0.1490;0.2909;
1071.3000;0.1481;0.2838;
1071.6000;0.1538;0.3005;
1071.9000;0.1547;0.3052;
1072.2000;0.1490;0.2814;
1072.5000;0.1465;0.2695;
1072.8000;0.1498;0.2790;
1073.1000;0.1384;0.2456;
1073.4000;0.1547;0.2861;
1073.7000;0.1514;0.2766;
1074.0000;0.1587;0.2909;
1074.3000;0.1530;0.2766;
1074.6000;0.1563;0.2885;
1074.9000;0.1498;0.2742;
1075.2000;0.1506;0.2814;
1075.5000;0.1473;0.2742;
1075.8000;0.1481;0.2838;
1076.1000;0.1498;0.2838;
1076.4000;0.1465;0.2742;
1076.7000;0.1506;0.2766;
1077.0000;0.1498;0.2790;
1077.3000;0.1506;0.2885;
1077.6000;0.1498;0.2814;
1077.9000;0.1498;0.2742;
1078.2000;0.1490;0.2671;
1078.5000;0.1522;0.2766;
1078.8000;0.1506;0.2671;
1079.1000;0.1506;0.2671;
1079.4000;0.1490;0.2671;
1079.7000;0.1514;0.2695;
1080.0000;0.1522;0.2647;
1080.3000;0.1498;0.2575;
1080.6000;0.1465;0.2504;
1080.9000;0.1595;0.2861;
1081.2000;0.1506;0.2695;
1081.5000;0.1498;0.2695;
1081.8000;0.1506;0.2599;
1082.1000;0.1490;0.2623;
1082.4000;0.1441;0.2528;
1082.7000;0.1473;0.2647;
1083.0000;0.1490;0.2647;
1083.3000;0.1506;0.2695;
1083.6000;0.1506;0.2742;
1083.9000;0.1481;0.2647;
1084.2000;0.1481;0.2671;
1084.5000;0.1506;0.2742;
1084.8000;0.1506;0.2790;
1085.1000;0.1473;0.2671;
1085.4000;0.1490;0.2695;
1085.7000;0.1506;0.2790;
1086.0000;0.1473;0.2814;
1086.3000;0.1514;0.2909;
1086.6000;0.1481;0.2766;
1086.9000;0.1530;0.2838;
1087.2000;0.1481;0.2766;
1087.5000;0.1498;0.2814;
1087.8000;0.1506;0.2838;
1088.1000;0.1465;0.2718;
1088.4000;0.1498;0.2718;
1088.7000;0.1490;0.2718;
1089.0000;0.1530;0.2838;
1089.3000;0.1481;0.2742;
1089.6000;0.1498;0.2838;
1089.9000;0.1465;0.2790;
1090.2000;0.1538;0.2861;
1090.5000;0.1538;0.3005;
1090.8000;0.1473;0.2790;
1091.1000;0.1481;0.2766;
1091.4000;0.1498;0.2766;
1091.7000;0.1490;0.2671;
1092.0000;0.1368;0.2385;
1092.3000;0.1490;0.2671;
1092.6000;0.1506;0.2718;
1092.9000;0.1433;0.2528;
1093.2000;0.1457;0.2599;
1093.5000;0.1498;0.2742;
1093.8000;0.1506;0.2742;
1094.1000;0.1481;0.2766;
1094.4000;0.1473;0.2766;
1094.7000;0.1498;0.2766;
1095.0000;0.1506;0.2838;
1095.3000;0.1498;0.2861;
1095.6000;0.1498;0.2814;
1095.9000;0.1506;0.2742;
1096.2000;0.1506;0.2695;
1096.5000;0.1522;0.2695;
1096.8000;0.1514;0.2718;
1097.1000;0.1547;0.2885;
1097.4000;0.1490;0.2647;
1097.7000;0.1481;0.2671;
1098.0000;0.1490;0.2671;
1098.3000;0.1498;0.2695;
1098.6000;0.1490;0.2695;
1098.9000;0.1481;0.2671;
1099.2000;0.1457;0.2671;
1099.5000;0.1441;0.2599;
1099.8000;0.1490;0.2742;
1100.1000;0.1514;0.2838;
1100.4000;0.1506;0.2814;
1100.7000;0.1498;0.2814;
1101.0000;0.1490;0.2814;
1101.3000;0.1547;0.2885;
1101.6000;0.1514;0.2766;
1101.9000;0.1506;0.2790;
1102.2000;0.1514;0.2814;
1102.5000;0.1506;0.2766;
1102.8000;0.1490;0.2742;
1103.1000;0.1473;0.2766;
1103.4000;0.1498;0.2695;
1103.7000;0.1441;0.2575;
1104.0000;0.1481;0.2718;
1104.3000;0.1490;0.2838;
1104.6000;0.1490;0.2766;
1104.9000;0.1522;0.2909;
1105.2000;0.1490;0.2885;
1105.5000;0.1506;0.2909;
1105.8000;0.1473;0.2790;
1106.1000;0.1498;0.2742;
1106.4000;0.1457;0.2695;
1106.7000;0.1441;0.2599;
1107.0000;0.1498;0.2718;
1107.3000;0.1465;0.2647;
1107.6000;0.1506;0.2790;
1107.9000;0.1498;0.2861;
1108.2000;0.1506;0.2957;
1108.5000;0.1481;0.2933;
1108.8000;0.1498;0.2981;
1109.1000;0.1416;0.2742;
1109.4000;0.1506;0.2933;
1109.7000;0.1481;0.2909;
1110.0000;0.1514;0.2933;
1110.3000;0.1514;0.2861;
1110.6000;0.1514;0.2861;
1110.9000;0.1473;0.2790;
1111.2000;0.1612;0.3124;
1111.5000;0.1612;0.3171;
1111.8000;0.1538;0.2957;
1112.1000;0.1514;0.2909;
1112.4000;0.1481;0.2790;
1112.7000;0.1335;0.2361;
1113.0000;0.1555;0.2981;
1113.3000;0.1490;0.2814;
1113.6000;0.1498;0.2790;
1113.9000;0.1441;0.2695;
1114.2000;0.1522;0.2933;
1114.5000;0.1498;0.2861;
1114.8000;0.1506;0.2861;
1115.1000;0.1465;0.2814;
1115.4000;0.1481;0.2909;
1115.7000;0.1514;0.3028;
1116.0000;0.1490;0.2981;
1116.3000;0.1490;0.2957;
1116.6000;0.1498;0.3005;
1116.9000;0.1514;0.3076;
1117.2000;0.1506;0.3052;
1117.5000;0.1498;0.3076;
1117.8000;0.1498;0.3124;
1118.1000;0.1498;0.3052;
1118.4000;0.1522;0.3100;
1118.7000;0.1514;0.3100;
1119.0000;0.1473;0.2957;
1119.3000;0.1490;0.3076;
1119.6000;0.1498;0.3005;
1119.9000;0.1506;0.3052;
1120.2000;0.1490;0.3005;
1120.5000;0.1490;0.2933;
1120.8000;0.1498;0.3028;
1121.1000;0.1538;0.3124;
1121.4000;0.1490;0.2981;
1121.7000;0.1506;0.3028;
1122.0000;0.1514;0.3076;
1122.3000;0.1498;0.2957;
1122.6000;0.1506;0.3028;
1122.9000;0.1514;0.3076;
1123.2000;0.1473;0.3005;
1123.5000;0.1498;0.3148;
1123.8000;0.1473;0.3076;
1124.1000;0.1490;0.3076;
1124.4000;0.1490;0.3028;
1124.7000;0.1506;0.3028;
1125.0000;0.1490;0.3052;
1125.3000;0.1473;0.2885;
1125.6000;0.1490;0.2933;
1125.9000;0.1473;0.2909;
1126.2000;0.1498;0.3028;
1126.5000;0.1506;0.3028;
1126.8000;0.1490;0.2957;
1127.1000;0.1481;0.2957;
1127.4000;0.1522;0.3005;
1127.7000;0.1522;0.2957;
1128.0000;0.1498;0.2933;
1128.3000;0.1376;0.2623;
1128.6000;0.1490;0.2861;
1128.9000;0.1506;0.2981;
1129.2000;0.1506;0.3076;
1129.5000;0.1473;0.2957;
1129.8000;0.1506;0.3052;
1130.1000;0.1473;0.2981;
1130.4000;0.1506;0.3052;
1130.7000;0.1506;0.2933;
1131.0000;0.1506;0.3076;
1131.3000;0.1465;0.2957;
1131.6000;0.1498;0.3028;
1131.9000;0.1579;0.3100;
1132.2000;0.1465;0.2885;
1132.5000;0.1473;0.3005;
1132.8000;0.1522;0.3124;
1133.1000;0.1433;0.2838;
1133.4000;0.1473;0.3005;
1133.7000;0.1514;0.3100;
1134.0000;0.1522;0.3052;
1134.3000;0.1506;0.3028;
1134.6000;0.1579;0.3195;
1134.9000;0.1514;0.2981;
1135.2000;0.1547;0.3076;
1135.5000;0.1498;0.2981;
1135.8000;0.1408;0.2861;
1136.1000;0.1449;0.2957;
1136.4000;0.1498;0.3076;
1136.7000;0.1498;0.3076;
1137.0000;0.1490;0.3100;
1137.3000;0.1498;0.3124;
1137.6000;0.1514;0.3124;
1137.9000;0.1506;0.3076;
1138.2000;0.1498;0.3100;
1138.5000;0.1481;0.3076;
1138.8000;0.1506;0.3124;
1139.1000;0.1490;0.3052;
1139.4000;0.1498;0.3124;
1139.7000;0.1506;0.3171;
1140.0000;0.1498;0.3124;
1140.3000;0.1506;0.3076;
1140.6000;0.1522;0.3028;
1140.9000;0.1498;0.3052;
1141.2000;0.1481;0.3076;
1141.5000;0.1457;0.2957;
1141.8000;0.1514;0.3028;
1142.1000;0.1514;0.3076;
1142.4000;0.1490;0.3052;
1142.7000;0.1498;0.3028;
1143.0000;0.1506;0.3124;
1143.3000;0.1530;0.3195;
1143.6000;0.1473;0.3148;
1143.9000;0.1490;0.3100;
1144.2000;0.1465;0.2981;
1144.5000;0.1490;0.3052;
1144.8000;0.1547;0.3195;
1145.1000;0.1490;0.2981;
1145.4000;0.1433;0.2909;
1145.7000;0.1498;0.3052;
1146.0000;0.1400;0.2933;
1146.3000;0.1481;0.3195;
1146.6000;0.1473;0.3124;
1146.9000;0.1498;0.3171;
1147.2000;0.1506;0.3243;
1147.5000;0.1506;0.3195;
1147.8000;0.1506;0.3267;
1148.1000;0.1490;0.3386;
1148.4000;0.1498;0.3410;
1148.7000;0.1449;0.3267;
1149.0000;0.1498;0.3291;
1149.3000;0.1498;0.3243;
1149.6000;0.1490;0.3100;
1149.9000;0.1506;0.3124;
1150.2000;0.1473;0.3100;
1150.5000;0.1490;0.3219;
1150.8000;0.1506;0.3291;
1151.1000;0.1555;0.3362;
1151.4000;0.1498;0.3267;
1151.7000;0.1490;0.3314;
1152.0000;0.1506;0.3291;
1152.3000;0.1498;0.3291;
1152.6000;0.1514;0.3314;
1152.9000;0.1498;0.3219;
1153.2000;0.1514;0.3219;
1153.5000;0.1522;0.3219;
1153.8000;0.1441;0.3005;
1154.1000;0.1473;0.3052;
1154.4000;0.1490;0.3100;
1154.7000;0.1481;0.3076;
1155.0000;0.1490;0.3171;
1155.3000;0.1465;0.3195;
1155.6000;0.1465;0.3148;
1155.9000;0.1514;0.3291;
1156.2000;0.1506;0.3267;
1156.5000;0.1538;0.3410;
1156.8000;0.1498;0.3243;
1157.1000;0.1514;0.3243;
1157.4000;0.1481;0.3124;
1157.7000;0.1498;0.3100;
1158.0000;0.1490;0.3124;
1158.3000;0.1506;0.3195;
1158.6000;0.1514;0.3171;
1158.9000;0.1506;0.3124;
1159.2000;0.1506;0.3124;
1159.5000;0.1506;0.3148;
1159.8000;0.1506;0.3100;
1160.1000;0.1522;0.3124;
1160.4000;0.1498;0.3076;
1160.7000;0.1522;0.3124;
1161.0000;0.1522;0.3076;
1161.3000;0.1506;0.3052;
1161.6000;0.1498;0.3005;
1161.9000;0.1579;0.3267;
1162.2000;0.1506;0.3028;
1162.5000;0.1522;0.3005;
1162.8000;0.1490;0.3028;
1163.1000;0.1579;0.3267;
1163.4000;0.1514;0.3100;
1163.7000;0.1465;0.2861;
1164.0000;0.1473;0.2885;
1164.3000;0.1498;0.2957;
1164.6000;0.1506;0.2981;
1164.9000;0.1514;0.2981;
1165.2000;0.1506;0.2957;
1165.5000;0.1490;0.3005;
1165.8000;0.1498;0.2981;
1166.1000;0.1547;0.3076;
1166.4000;0.1506;0.2933;
1166.7000;0.1490;0.2814;
1167.0000;0.1481;0.2790;
1167.3000;0.1506;0.2885;
1167.6000;0.1490;0.2814;
1167.9000;0.1481;0.2790;
1168.2000;0.1498;0.2885;
1168.5000;0.1498;0.2933;
1168.8000;0.1457;0.2885;
1169.1000;0.1530;0.3052;
1169.4000;0.1481;0.2981;
1169.7000;0.1490;0.3076;
1170.0000;0.1506;0.3100;
1170.3000;0.1506;0.3052;
1170.6000;0.1498;0.3005;
1170.9000;0.1498;0.3100;
1171.2000;0.1530;0.3219;
1171.5000;0.1571;0.3314;
1171.8000;0.1481;0.3171;
1172.1000;0.1465;0.3148;
1172.4000;0.1392;0.2981;
1172.7000;0.1490;0.3195;
1173.0000;0.1547;0.3291;
1173.3000;0.1490;0.3124;
1173.6000;0.1506;0.3100;
1173.9000;0.1490;0.3028;
1174.2000;0.1538;0.3124;
1174.5000;0.1481;0.3052;
1174.8000;0.1433;0.2981;
1175.1000;0.1498;0.3124;
1175.4000;0.1490;0.3100;
1175.7000;0.1457;0.3052;
1176.0000;0.1481;0.3148;
1176.3000;0.1522;0.3243;
1176.6000;0.1498;0.3219;
1176.9000;0.1490;0.3171;
1177.2000;0.1498;0.3076;
1177.5000;0.1498;0.3100;
1177.8000;0.1530;0.3243;
1178.1000;0.1449;0.3076;
1178.4000;0.1506;0.3267;
1178.7000;0.1498;0.3219;
1179.0000;0.1498;0.3219;
1179.3000;0.1514;0.3243;
1179.6000;0.1506;0.3219;
1179.9000;0.1465;0.3171;
1180.2000;0.1498;0.3243;
1180.5000;0.1514;0.3291;
1180.8000;0.1514;0.3314;
1181.1000;0.1481;0.3171;
1181.4000;0.1481;0.3076;
1181.7000;0.1506;0.3148;
1182.0000;0.1490;0.3171;
1182.3000;0.1490;0.3171;
1182.6000;0.1376;0.2861;
1182.9000;0.1530;0.3243;
1183.2000;0.1514;0.3267;
1183.5000;0.1490;0.3267;
1183.8000;0.1465;0.3195;
1184.1000;0.1481;0.3171;
1184.4000;0.1506;0.3219;
1184.7000;0.1506;0.3195;
1185.0000;0.1441;0.2957;
1185.3000;0.1514;0.3076;
1185.6000;0.1514;0.3100;
1185.9000;0.1514;0.3076;
1186.2000;0.1498;0.2957;
1186.5000;0.1506;0.2981;
1186.8000;0.1514;0.3028;
1187.1000;0.1506;0.2885;
1187.4000;0.1506;0.2981;
1187.7000;0.1498;0.3052;
1188.0000;0.1571;0.3291;
1188.3000;0.1498;0.3005;
1188.6000;0.1506;0.3124;
1188.9000;0.1481;0.3076;
1189.2000;0.1506;0.3267;
1189.5000;0.1555;0.3338;
1189.8000;0.1498;0.3219;
1190.1000;0.1449;0.3124;
1190.4000;0.1555;0.3386;
1190.7000;0.1481;0.3267;
1191.0000;0.1498;0.3314;
1191.3000;0.1490;0.3362;
1191.6000;0.1498;0.3386;
1191.9000;0.1498;0.3291;
1192.2000;0.1506;0.3195;
1192.5000;0.1498;0.3171;
1192.8000;0.1441;0.2933;
1193.1000;0.1530;0.3124;
1193.4000;0.1514;0.3052;
1193.7000;0.1514;0.3076;
1194.0000;0.1579;0.3219;
1194.3000;0.1481;0.3052;
1194.6000;0.1506;0.3219;
1194.9000;0.1498;0.3195;
1195.2000;0.1555;0.3314;
1195.5000;0.1506;0.3124;
1195.8000;0.1514;0.3243;
1196.1000;0.1481;0.3219;
1196.4000;0.1498;0.3219;
1196.7000;0.1506;0.3195;
1197.0000;0.1506;0.3148;
1197.3000;0.1498;0.3052;
1197.6000;0.1579;0.3291;
1197.9000;0.1490;0.3028;
1198.2000;0.1506;0.3052;
1198.5000;0.1538;0.3148;
1198.8000;0.1498;0.3100;
1199.1000;0.1514;0.3100;
1199.4000;0.1473;0.3005;
1199.7000;0.1498;0.3005;
1200.0000;0.1498;0.2933;
1200.3000;0.1490;0.2981;
1200.6000;0.1465;0.2957;
1200.9000;0.1490;0.3005;
1201.2000;0.1481;0.3005;
1201.5000;0.1498;0.3148;
1201.8000;0.1506;0.3100;
1202.1000;0.1490;0.3005;
1202.4000;0.1506;0.2957;
1202.7000;0.1555;0.3052;
1203.0000;0.1506;0.2981;
1203.3000;0.1490;0.3005;
1203.6000;0.1579;0.3195;
1203.9000;0.1490;0.2933;
1204.2000;0.1481;0.2909;
1204.5000;0.1498;0.2861;
1204.8000;0.1506;0.3005;
1205.1000;0.1506;0.2981;
1205.4000;0.1506;0.2957;
1205.7000;0.1595;0.3267;
1206.0000;0.1514;0.3171;
1206.3000;0.1490;0.3076;
1206.6000;0.1481;0.3076;
1206.9000;0.1498;0.3076;
1207.2000;0.1481;0.3052;
1207.5000;0.1514;0.3124;
1207.8000;0.1522;0.3171;
1208.1000;0.1498;0.3052;
1208.4000;0.1490;0.2957;
1208.7000;0.1522;0.3028;
1209.0000;0.1514;0.2981;
1209.3000;0.1514;0.3028;
1209.6000;0.1441;0.2766;
1209.9000;0.1481;0.2933;
1210.2000;0.1514;0.2981;
1210.5000;0.1498;0.3005;
1210.8000;0.1506;0.3052;
1211.1000;0.1514;0.2957;
1211.4000;0.1530;0.3028;
1211.7000;0.1506;0.2981;
1212.0000;0.1587;0.3291;
1212.3000;0.1481;0.2861;
1212.6000;0.1506;0.2909;
1212.9000;0.1498;0.2909;
1213.2000;0.1490;0.3005;
1213.5000;0.1425;0.2957;
1213.8000;0.1498;0.3148;
1214.1000;0.1506;0.3148;
1214.4000;0.1490;0.3100;
1214.7000;0.1514;0.3124;
1215.0000;0.1490;0.3148;
1215.3000;0.1498;0.3148;
1215.6000;0.1490;0.3028;
1215.9000;0.1465;0.2933;
1216.2000;0.1538;0.3100;
1216.5000;0.1514;0.2933;
1216.8000;0.1555;0.3076;
1217.1000;0.1498;0.2885;
1217.4000;0.1392;0.2647;
1217.7000;0.1449;0.2790;
1218.0000;0.1514;0.3076;
1218.3000;0.1514;0.3052;
1218.6000;0.1547;0.3148;
1218.9000;0.1530;0.3100;
1219.2000;0.1555;0.3171;
1219.5000;0.1498;0.2981;
1219.8000;0.1498;0.2933;
1220.1000;0.1506;0.2957;
1220.4000;0.1522;0.3005;
1220.7000;0.1514;0.3005;
1221.0000;0.1490;0.2885;
1221.3000;0.1498;0.2861;
1221.6000;0.1522;0.2885;
1221.9000;0.1498;0.2885;
1222.2000;0.1416;0.2766;
1222.5000;0.1481;0.2909;
1222.8000;0.1490;0.2957;
1223.1000;0.1481;0.3028;
1223.4000;0.1490;0.3052;
1223.7000;0.1506;0.3171;
1224.0000;0.1514;0.3124;
1224.3000;0.1498;0.3076;
1224.6000;0.1490;0.3052;
1224.9000;0.1490;0.3005;
1225.2000;0.1506;0.3076;
1225.5000;0.1530;0.3076;
1225.8000;0.1514;0.3124;
1226.1000;0.1514;0.2981;
1226.4000;0.1498;0.2933;
1226.7000;0.1490;0.2981;
1227.0000;0.1506;0.3124;
1227.3000;0.1587;0.3386;
1227.6000;0.1473;0.3219;
1227.9000;0.1530;0.3434;
1228.2000;0.1490;0.3291;
1228.5000;0.1571;0.3434;
1228.8000;0.1490;0.3291;
1229.1000;0.1490;0.3291;
1229.4000;0.1490;0.3291;
1229.7000;0.1506;0.3267;
1230.0000;0.1490;0.3148;
1230.3000;0.1498;0.3148;
1230.6000;0.1481;0.3100;
1230.9000;0.1522;0.3219;
1231.2000;0.1498;0.3028;
1231.5000;0.1506;0.3100;
1231.8000;0.1514;0.3171;
1232.1000;0.1498;0.3148;
1232.4000;0.1481;0.3124;
1232.7000;0.1490;0.3291;
1233.0000;0.1498;0.3291;
1233.3000;0.1506;0.3338;
1233.6000;0.1506;0.3362;
1233.9000;0.1473;0.3267;
1234.2000;0.1490;0.3219;
1234.5000;0.1498;0.3267;
1234.8000;0.1490;0.3267;
1235.1000;0.1481;0.3219;
1235.4000;0.1498;0.3195;
1235.7000;0.1465;0.3052;
1236.0000;0.1506;0.3171;
1236.3000;0.1522;0.3148;
1236.6000;0.1498;0.3100;
1236.9000;0.1514;0.3171;
1237.2000;0.1514;0.3195;
1237.5000;0.1506;0.3243;
1237.8000;0.1481;0.3267;
1238.1000;0.1490;0.3314;
1238.4000;0.1498;0.3338;
1238.7000;0.1498;0.3410;
1239.0000;0.1498;0.3362;
1239.3000;0.1506;0.3386;
1239.6000;0.1490;0.3338;
1239.9000;0.1449;0.3124;
1240.2000;0.1481;0.3195;
1240.5000;0.1449;0.3005;
1240.8000;0.1498;0.3100;
1241.1000;0.1506;0.3100;
1241.4000;0.1490;0.3100;
1241.7000;0.1498;0.3171;
1242.0000;0.1498;0.3195;
1242.3000;0.1514;0.3171;
1242.6000;0.1506;0.3195;
1242.9000;0.1514;0.3243;
1243.2000;0.1538;0.3291;
1243.5000;0.1530;0.3171;
1243.8000;0.1490;0.3052;
1244.1000;0.1547;0.3148;
1244.4000;0.1498;0.3076;
1244.7000;0.1514;0.3028;
1245.0000;0.1481;0.3005;
1245.3000;0.1506;0.3052;
1245.6000;0.1490;0.3052;
1245.9000;0.1514;0.3148;
1246.2000;0.1481;0.3148;
1246.5000;0.1481;0.3171;
1246.8000;0.1490;0.3219;
1247.1000;0.1490;0.3171;
1247.4000;0.1498;0.3100;
1247.7000;0.1449;0.2981;
1248.0000;0.1530;0.3171;
1248.3000;0.1506;0.3148;
1248.6000;0.1498;0.3100;
1248.9000;0.1514;0.3100;
1249.2000;0.1498;0.2957;
1249.5000;0.1449;0.2838;
1249.8000;0.1514;0.3052;
1250.1000;0.1514;0.3005;
1250.4000;0.1514;0.3028;
1250.7000;0.1571;0.3195;
1251.0000;0.1563;0.3124;
1251.3000;0.1538;0.3052;
1251.6000;0.1522;0.2981;
1251.9000;0.1498;0.3005;
1252.2000;0.1490;0.3005;
1252.5000;0.1490;0.2861;
1252.8000;0.1538;0.2909;
1253.1000;0.1506;0.2933;
1253.4000;0.1481;0.2957;
1253.7000;0.1514;0.3076;
1254.0000;0.1506;0.3100;
1254.3000;0.1490;0.3124;
1254.6000;0.1506;0.3124;
1254.9000;0.1522;0.3171;
1255.2000;0.1490;0.3100;
1255.5000;0.1490;0.3076;
1255.8000;0.1506;0.3171;
1256.1000;0.1490;0.3124;
1256.4000;0.1465;0.3124;
1256.7000;0.1506;0.3219;
1257.0000;0.1514;0.3148;
1257.3000;0.1433;0.2885;
1257.6000;0.1571;0.3314;
1257.9000;0.1506;0.3171;
1258.2000;0.1538;0.3267;
1258.5000;0.1514;0.3005;
1258.8000;0.1506;0.2957;
1259.1000;0.1514;0.2909;
1259.4000;0.1514;0.2885;
1259.7000;0.1498;0.2981;
1260.0000;0.1514;0.3052;
1260.3000;0.1506;0.3028;
1260.6000;0.1563;0.3243;
1260.9000;0.1498;0.3124;
1261.2000;0.1498;0.3171;
1261.5000;0.1490;0.3124;
1261.8000;0.1522;0.3195;
1262.1000;0.1530;0.3195;
1262.4000;0.1514;0.3148;
1262.7000;0.1506;0.3148;
1263.0000;0.1530;0.3171;
1263.3000;0.1490;0.3124;
1263.6000;0.1514;0.3219;
1263.9000;0.1481;0.3076;
1264.2000;0.1441;0.3028;
1264.5000;0.1490;0.3195;
1264.8000;0.1498;0.3267;
1265.1000;0.1490;0.3243;
1265.4000;0.1628;0.3601;
1265.7000;0.1514;0.3267;
1266.0000;0.1490;0.3243;
1266.3000;0.1538;0.3338;
1266.6000;0.1490;0.3314;
1266.9000;0.1514;0.3338;
1267.2000;0.1555;0.3362;
1267.5000;0.1498;0.3219;
1267.8000;0.1425;0.2957;
1268.1000;0.1498;0.3124;
1268.4000;0.1473;0.3124;
1268.7000;0.1368;0.2838;
1269.0000;0.1473;0.3124;
1269.3000;0.1506;0.3219;
1269.6000;0.1490;0.3100;
1269.9000;0.1506;0.3124;
1270.2000;0.1465;0.3005;
1270.5000;0.1547;0.3243;
1270.8000;0.1514;0.3219;
1271.1000;0.1595;0.3529;
1271.4000;0.1498;0.3338;
1271.7000;0.1490;0.3338;
1272.0000;0.1490;0.3362;
1272.3000;0.1481;0.3291;
1272.6000;0.1465;0.3195;
1272.9000;0.1506;0.3195;
1273.2000;0.1514;0.3171;
1273.5000;0.1506;0.3148;
1273.8000;0.1498;0.3148;
1274.1000;0.1490;0.3100;
1274.4000;0.1457;0.3052;
1274.7000;0.1514;0.3195;
1275.0000;0.1498;0.3148;
1275.3000;0.1522;0.3243;
1275.6000;0.1514;0.3291;
1275.9000;0.1449;0.3076;
1276.2000;0.1530;0.3291;
1276.5000;0.1620;0.3505;
1276.8000;0.1490;0.3100;
1277.1000;0.1498;0.3124;
1277.4000;0.1514;0.3243;
1277.7000;0.1514;0.3243;
1278.0000;0.1506;0.3219;
1278.3000;0.1498;0.3267;
1278.6000;0.1514;0.3219;
1278.9000;0.1522;0.3195;
1279.2000;0.1498;0.3219;
1279.5000;0.1441;0.3148;
1279.8000;0.1449;0.3100;
1280.1000;0.1335;0.2742;
1280.4000;0.1522;0.3171;
1280.7000;0.1522;0.3124;
1281.0000;0.1481;0.2981;
1281.3000;0.1449;0.2861;
1281.6000;0.1498;0.3005;
1281.9000;0.1481;0.2981;
1282.2000;0.1465;0.2957;
1282.5000;0.1498;0.3005;
1282.8000;0.1522;0.3100;
1283.1000;0.1514;0.3100;
1283.4000;0.1514;0.3100;
1283.7000;0.1498;0.3052;
1284.0000;0.1514;0.3100;
1284.3000;0.1498;0.3052;
1284.6000;0.1514;0.3052;
1284.9000;0.1506;0.3100;
1285.2000;0.1530;0.3076;
1285.5000;0.1522;0.3005;
1285.8000;0.1473;0.2957;
1286.1000;0.1514;0.3028;
1286.4000;0.1514;0.3052;
1286.7000;0.1506;0.2957;
1287.0000;0.1498;0.2957;
1287.3000;0.1506;0.2981;
1287.6000;0.1506;0.3005;
1287.9000;0.1506;0.3005;
1288.2000;0.1498;0.3052;
1288.5000;0.1498;0.3028;
1288.8000;0.1514;0.3171;
1289.1000;0.1506;0.3314;
1289.4000;0.1481;0.3291;
1289.7000;0.1506;0.3362;
1290.0000;0.1522;0.3338;
1290.3000;0.1522;0.3219;
1290.6000;0.1514;0.3195;
1290.9000;0.1498;0.3148;
1291.2000;0.1547;0.3291;
1291.5000;0.1506;0.3100;
1291.8000;0.1506;0.3028;
1292.1000;0.1514;0.3076;
1292.4000;0.1490;0.3124;
1292.7000;0.1490;0.3124;
1293.0000;0.1498;0.3076;
1293.3000;0.1473;0.2933;
1293.6000;0.1481;0.2933;
1293.9000;0.1490;0.2957;
1294.2000;0.1481;0.2981;
1294.5000;0.1514;0.3052;
1294.8000;0.1498;0.3052;
1295.1000;0.1506;0.3124;
1295.4000;0.1465;0.3052;
1295.7000;0.1506;0.3148;
1296.0000;0.1506;0.3219;
1296.3000;0.1620;0.3577;
1296.6000;0.1473;0.3267;
1296.9000;0.1522;0.3338;
1297.2000;0.1490;0.3338;
1297.5000;0.1522;0.3386;
1297.8000;0.1506;0.3267;
1298.1000;0.1514;0.3267;
1298.4000;0.1498;0.3267;
1298.7000;0.1498;0.3291;
1299.0000;0.1506;0.3338;
1299.3000;0.1522;0.3338;
1299.6000;0.1490;0.3338;
1299.9000;0.1376;0.3076;
1300.2000;0.1498;0.3458;
1300.5000;0.1490;0.3410;
1300.8000;0.1457;0.3243;
1301.1000;0.1530;0.3362;
1301.4000;0.1465;0.3219;
1301.7000;0.1514;0.3291;
1302.0000;0.1506;0.3267;
1302.3000;0.1506;0.3291;
1302.6000;0.1506;0.3267;
1302.9000;0.1457;0.3195;
1303.2000;0.1490;0.3338;
1303.5000;0.1498;0.3314;
1303.8000;0.1441;0.3195;
1304.1000;0.1555;0.3505;
1304.4000;0.1506;0.3338;
1304.7000;0.1522;0.3338;
1305.0000;0.1604;0.3458;
1305.3000;0.1490;0.3148;
1305.6000;0.1498;0.3195;
1305.9000;0.1522;0.3195;
1306.2000;0.1571;0.3291;
1306.5000;0.1506;0.3100;
1306.8000;0.1498;0.3076;
1307.1000;0.1473;0.3052;
1307.4000;0.1522;0.3171;
1307.7000;0.1514;0.3195;
1308.0000;0.1449;0.3028;
1308.3000;0.1522;0.3171;
1308.6000;0.1514;0.3195;
1308.9000;0.1506;0.3148;
1309.2000;0.1481;0.3148;
1309.5000;0.1392;0.2957;
1309.8000;0.1522;0.3291;
1310.1000;0.1506;0.3243;
1310.4000;0.1490;0.3219;
1310.7000;0.1490;0.3219;
1311.0000;0.1514;0.3171;
1311.3000;0.1506;0.3100;
1311.6000;0.1498;0.3124;
1311.9000;0.1506;0.3148;
1312.2000;0.1506;0.3171;
1312.5000;0.1506;0.3171;
1312.8000;0.1498;0.3171;
1313.1000;0.1506;0.3219;
1313.4000;0.1530;0.3291;
1313.7000;0.1498;0.3148;
1314.0000;0.1522;0.3243;
1314.3000;0.1490;0.3148;
1314.6000;0.1522;0.3148;
1314.9000;0.1498;0.2957;
1315.2000;0.1522;0.2981;
1315.5000;0.1547;0.3028;
1315.8000;0.1473;0.2909;
1316.1000;0.1481;0.2933;
1316.4000;0.1563;0.3100;
1316.7000;0.1498;0.2909;
1317.0000;0.1498;0.2909;
1317.3000;0.1506;0.2933;
1317.6000;0.1514;0.2981;
1317.9000;0.1498;0.2981;
1318.2000;0.1506;0.2957;
1318.5000;0.1498;0.2981;
1318.8000;0.1514;0.2957;
1319.1000;0.1522;0.2957;
1319.4000;0.1408;0.2742;
1319.7000;0.1514;0.3028;
1320.0000;0.1522;0.3052;
1320.3000;0.1522;0.3076;
1320.6000;0.1490;0.2981;
1320.9000;0.1490;0.3052;
1321.2000;0.1522;0.3171;
1321.5000;0.1473;0.3052;
1321.8000;0.1498;0.3171;
1322.1000;0.1490;0.3171;
1322.4000;0.1522;0.3219;
1322.7000;0.1514;0.3243;
1323.0000;0.1522;0.3267;
1323.3000;0.1547;0.3338;
1323.6000;0.1490;0.3291;
1323.9000;0.1514;0.3362;
1324.2000;0.1522;0.3314;
1324.5000;0.1481;0.3243;
1324.8000;0.1490;0.3314;
1325.1000;0.1522;0.3386;
1325.4000;0.1506;0.3267;
1325.7000;0.1498;0.3314;
1326.0000;0.1498;0.3362;
1326.3000;0.1522;0.3434;
1326.6000;0.1498;0.3243;
1326.9000;0.1522;0.3314;
1327.2000;0.1425;0.3124;
1327.5000;0.1514;0.3458;
1327.8000;0.1587;0.3648;
1328.1000;0.1522;0.3314;
1328.4000;0.1506;0.3243;
1328.7000;0.1490;0.3171;
1329.0000;0.1522;0.3362;
1329.3000;0.1522;0.3314;
1329.6000;0.1522;0.3267;
1329.9000;0.1498;0.3195;
1330.2000;0.1514;0.3219;
1330.5000;0.1506;0.3195;
1330.8000;0.1490;0.3267;
1331.1000;0.1465;0.3124;
1331.4000;0.1498;0.3171;
1331.7000;0.1498;0.3148;
1332.0000;0.1490;0.3148;
1332.3000;0.1473;0.3052;
1332.6000;0.1555;0.3195;
1332.9000;0.1506;0.2957;
1333.2000;0.1538;0.2957;
1333.5000;0.1498;0.2885;
1333.8000;0.1514;0.2957;
1334.1000;0.1514;0.2933;
1334.4000;0.1571;0.3195;
1334.7000;0.1522;0.3052;
1335.0000;0.1547;0.3171;
1335.3000;0.1522;0.3171;
1335.6000;0.1506;0.3100;
1335.9000;0.1481;0.3076;
1336.2000;0.1636;0.3410;
1336.5000;0.1506;0.2981;
1336.8000;0.1522;0.3005;
1337.1000;0.1547;0.3052;
1337.4000;0.1481;0.2957;
1337.7000;0.1490;0.3028;
1338.0000;0.1425;0.2885;
1338.3000;0.1522;0.3148;
1338.6000;0.1498;0.3100;
1338.9000;0.1538;0.3100;
1339.2000;0.1506;0.2957;
1339.5000;0.1514;0.2981;
1339.8000;0.1506;0.2981;
1340.1000;0.1498;0.3005;
1340.4000;0.1514;0.3052;
1340.7000;0.1522;0.3028;
1341.0000;0.1522;0.3100;
1341.3000;0.1498;0.3028;
1341.6000;0.1490;0.3005;
1341.9000;0.1555;0.3219;
1342.2000;0.1490;0.3028;
1342.5000;0.1490;0.3005;
1342.8000;0.1514;0.3028;
1343.1000;0.1506;0.3052;
1343.4000;0.1555;0.3291;
1343.7000;0.1498;0.3100;
1344.0000;0.1506;0.3148;
1344.3000;0.1498;0.3076;
1344.6000;0.1506;0.3171;
1344.9000;0.1481;0.3148;
1345.2000;0.1522;0.3219;
1345.5000;0.1498;0.3100;
1345.8000;0.1522;0.3171;
1346.1000;0.1498;0.3171;
1346.4000;0.1481;0.3100;
1346.7000;0.1498;0.3124;
1347.0000;0.1498;0.3148;
1347.3000;0.1465;0.3005;
1347.6000;0.1490;0.3076;
1347.9000;0.1498;0.3100;
1348.2000;0.1490;0.3076;
1348.5000;0.1481;0.2981;
1348.8000;0.1384;0.2766;
1349.1000;0.1522;0.3052;
1349.4000;0.1514;0.3076;
1349.7000;0.1514;0.3148;
1350.0000;0.1498;0.3100;
1350.3000;0.1571;0.3386;
1350.6000;0.1506;0.3171;
1350.9000;0.1498;0.3124;
1351.2000;0.1514;0.3100;
1351.5000;0.1490;0.2981;
1351.8000;0.1522;0.3005;
1352.1000;0.1514;0.3005;
1352.4000;0.1506;0.3052;
1352.7000;0.1506;0.3124;
1353.0000;0.1506;0.3052;
1353.3000;0.1481;0.3100;
1353.6000;0.1506;0.3195;
1353.9000;0.1425;0.2933;
1354.2000;0.1514;0.3171;
1354.5000;0.1449;0.3076;
1354.8000;0.1506;0.3195;
1355.1000;0.1514;0.3219;
1355.4000;0.1498;0.3195;
1355.7000;0.1498;0.3148;
1356.0000;0.1514;0.3195;
1356.3000;0.1530;0.3195;
1356.6000;0.1506;0.3195;
1356.9000;0.1514;0.3243;
1357.2000;0.1538;0.3291;
1357.5000;0.1473;0.3195;
1357.8000;0.1498;0.3148;
1358.1000;0.1506;0.3052;
1358.4000;0.1498;0.3052;
1358.7000;0.1514;0.3148;
1359.0000;0.1481;0.3076;
1359.3000;0.1498;0.3076;
1359.6000;0.1514;0.3171;
1359.9000;0.1465;0.3005;
1360.2000;0.1384;0.2838;
1360.5000;0.1490;0.3148;
1360.8000;0.1433;0.2933;
1361.1000;0.1530;0.3219;
1361.4000;0.1514;0.3148;
1361.7000;0.1514;0.3171;
1362.0000;0.1506;0.3076;
1362.3000;0.1506;0.3100;
1362.6000;0.1490;0.3052;
1362.9000;0.1547;0.3124;
1363.2000;0.1441;0.2885;
1363.5000;0.1473;0.3028;
1363.8000;0.1522;0.3148;
1364.1000;0.1481;0.3028;
1364.4000;0.1490;0.3005;
1364.7000;0.1498;0.2981;
1365.0000;0.1522;0.3005;
1365.3000;0.1506;0.2957;
1365.6000;0.1522;0.3052;
1365.9000;0.1490;0.3076;
1366.2000;0.1481;0.3028;
1366.5000;0.1498;0.3124;
1366.8000;0.1490;0.3148;
1367.1000;0.1490;0.3076;
1367.4000;0.1506;0.3076;
1367.7000;0.1506;0.3052;
1368.0000;0.1514;0.3076;
1368.3000;0.1473;0.3028;
1368.6000;0.1547;0.3267;
1368.9000;0.1506;0.3195;
1369.2000;0.1514;0.3195;
1369.5000;0.1498;0.3171;
1369.8000;0.1612;0.3458;
1370.1000;0.1522;0.3171;
1370.4000;0.1514;0.3195;
1370.7000;0.1490;0.3171;
1371.0000;0.1490;0.3195;
1371.3000;0.1498;0.3124;
1371.6000;0.1506;0.3100;
1371.9000;0.1433;0.2838;
1372.2000;0.1490;0.2957;
1372.5000;0.1514;0.3076;
1372.8000;0.1481;0.3100;
1373.1000;0.1522;0.3171;
1373.4000;0.1506;0.3148;
1373.7000;0.1538;0.3291;
1374.0000;0.1522;0.3267;
1374.3000;0.1498;0.3219;
1374.6000;0.1506;0.3219;
1374.9000;0.1571;0.3314;
1375.2000;0.1538;0.3171;
1375.5000;0.1506;0.3005;
1375.8000;0.1514;0.3028;
1376.1000;0.1595;0.3291;
1376.4000;0.1506;0.3076;
1376.7000;0.1490;0.3076;
1377.0000;0.1498;0.3171;
1377.3000;0.1514;0.3195;
1377.6000;0.1506;0.3171;
1377.9000;0.1498;0.3148;
1378.2000;0.1465;0.2981;
1378.5000;0.1498;0.3100;
1378.8000;0.1498;0.3100;
1379.1000;0.1522;0.3148;
1379.4000;0.1522;0.3171;
1379.7000;0.1506;0.3052;
1380.0000;0.1498;0.3076;
1380.3000;0.1481;0.3028;
1380.6000;0.1506;0.3076;
1380.9000;0.1522;0.3100;
1381.2000;0.1595;0.3291;
1381.5000;0.1481;0.2981;
1381.8000;0.1490;0.2981;
1382.1000;0.1490;0.3028;
1382.4000;0.1498;0.3052;
1382.7000;0.1490;0.3100;
1383.0000;0.1498;0.3124;
1383.3000;0.1498;0.3148;
1383.6000;0.1498;0.3124;
1383.9000;0.1506;0.3195;
1384.2000;0.1506;0.3124;
1384.5000;0.1514;0.3052;
1384.8000;0.1506;0.3005;
1385.1000;0.1514;0.3076;
1385.4000;0.1498;0.3076;
1385.7000;0.1522;0.3124;
1386.0000;0.1400;0.2814;
1386.3000;0.1530;0.3195;
1386.6000;0.1490;0.3076;
1386.9000;0.1506;0.3195;
1387.2000;0.1506;0.3291;
1387.5000;0.1522;0.3314;
1387.8000;0.1498;0.3291;
1388.1000;0.1481;0.3219;
1388.4000;0.1498;0.3219;
1388.7000;0.1506;0.3243;
1389.0000;0.1506;0.3171;
1389.3000;0.1506;0.3100;
1389.6000;0.1506;0.3100;
1389.9000;0.1506;0.3124;
1390.2000;0.1498;0.3148;
1390.5000;0.1498;0.3148;
1390.8000;0.1498;0.3171;
1391.1000;0.1530;0.3219;
1391.4000;0.1506;0.3124;
1391.7000;0.1514;0.3171;
1392.0000;0.1490;0.3148;
1392.3000;0.1547;0.3195;
1392.6000;0.1498;0.3076;
1392.9000;0.1498;0.3076;
1393.2000;0.1506;0.3005;
1393.5000;0.1530;0.3171;
1393.8000;0.1530;0.3148;
1394.1000;0.1498;0.3076;
1394.4000;0.1490;0.3076;
1394.7000;0.1498;0.3148;
1395.0000;0.1498;0.3195;
1395.3000;0.1506;0.3243;
1395.6000;0.1498;0.3195;
1395.9000;0.1506;0.3124;
1396.2000;0.1490;0.3124;
1396.5000;0.1498;0.3076;
1396.8000;0.1376;0.2766;
1397.1000;0.1490;0.3148;
1397.4000;0.1514;0.3267;
1397.7000;0.1506;0.3148;
1398.0000;0.1490;0.3100;
1398.3000;0.1490;0.3076;
1398.6000;0.1490;0.3124;
1398.9000;0.1506;0.3219;
1399.2000;0.1571;0.3410;
1399.5000;0.1506;0.3243;
1399.8000;0.1490;0.3219;
