time/ms;Fluo/V;P700 deltaI/I x10³;
-199.8000;0.1506;0.3815;
-199.5000;0.1514;0.3934;
-199.2000;0.1514;0.3958;
-198.9000;0.1506;0.3958;
-198.6000;0.1530;0.3934;
-198.3000;0.1514;0.3911;
-198.0000;0.1506;0.3958;
-197.7000;0.1522;0.4006;
-197.4000;0.1522;0.3958;
-197.1000;0.1522;0.3934;
-196.8000;0.1506;0.3982;
-196.5000;0.1490;0.3934;
-196.2000;0.1498;0.3911;
-195.9000;0.1506;0.3887;
-195.6000;0.1514;0.3911;
-195.3000;0.1514;0.3863;
-195.0000;0.1498;0.3791;
-194.7000;0.1506;0.3887;
-194.4000;0.1490;0.3887;
-194.1000;0.1522;0.4006;
-193.8000;0.1506;0.4006;
-193.5000;0.1490;0.4006;
-193.2000;0.1506;0.4173;
-192.9000;0.1522;0.4149;
-192.6000;0.1498;0.4101;
-192.3000;0.1514;0.4197;
-192.0000;0.1498;0.4101;
-191.7000;0.1530;0.4173;
-191.4000;0.1481;0.4101;
-191.1000;0.1506;0.4006;
-190.8000;0.1506;0.4006;
-190.5000;0.1514;0.4054;
-190.2000;0.1498;0.4149;
-189.9000;0.1498;0.4173;
-189.6000;0.1490;0.4173;
-189.3000;0.1481;0.4173;
-189.0000;0.1506;0.4268;
-188.7000;0.1498;0.4197;
-188.4000;0.1522;0.4292;
-188.1000;0.1506;0.4268;
-187.8000;0.1514;0.4292;
-187.5000;0.1514;0.4221;
-187.2000;0.1522;0.4244;
-186.9000;0.1506;0.4221;
-186.6000;0.1514;0.4268;
-186.3000;0.1530;0.4340;
-186.0000;0.1514;0.4268;
-185.7000;0.1490;0.4197;
-185.4000;0.1498;0.4244;
-185.1000;0.1506;0.4173;
-184.8000;0.1506;0.4125;
-184.5000;0.1506;0.4149;
-184.2000;0.1514;0.4101;
-183.9000;0.1498;0.4125;
-183.6000;0.1506;0.4078;
-183.3000;0.1514;0.4221;
-183.0000;0.1506;0.4221;
-182.7000;0.1538;0.4197;
-182.4000;0.1457;0.4101;
-182.1000;0.1530;0.4244;
-181.8000;0.1514;0.4197;
-181.5000;0.1514;0.4268;
-181.2000;0.1522;0.4292;
-180.9000;0.1498;0.4173;
-180.6000;0.1490;0.4197;
-180.3000;0.1530;0.4221;
-180.0000;0.1514;0.4244;
-179.7000;0.1514;0.4268;
-179.4000;0.1506;0.4197;
-179.1000;0.1506;0.4125;
-178.8000;0.1506;0.4030;
-178.5000;0.1498;0.4054;
-178.2000;0.1498;0.3934;
-177.9000;0.1514;0.3958;
-177.6000;0.1522;0.4030;
-177.3000;0.1506;0.3934;
-177.0000;0.1514;0.3863;
-176.7000;0.1506;0.3863;
-176.4000;0.1498;0.3863;
-176.1000;0.1522;0.3982;
-175.8000;0.1506;0.4054;
-175.5000;0.1449;0.3911;
-175.2000;0.1514;0.3958;
-174.9000;0.1514;0.3982;
-174.6000;0.1538;0.4101;
-174.3000;0.1490;0.3958;
-174.0000;0.1498;0.4006;
-173.7000;0.1506;0.4006;
-173.4000;0.1498;0.3958;
-173.1000;0.1506;0.4054;
-172.8000;0.1498;0.4006;
-172.5000;0.1506;0.4030;
-172.2000;0.1522;0.4006;
-171.9000;0.1514;0.4030;
-171.6000;0.1498;0.4006;
-171.3000;0.1579;0.4173;
-171.0000;0.1571;0.4244;
-170.7000;0.1522;0.4197;
-170.4000;0.1514;0.4125;
-170.1000;0.1514;0.4101;
-169.8000;0.1522;0.4149;
-169.5000;0.1506;0.4078;
-169.2000;0.1571;0.4244;
-168.9000;0.1498;0.4054;
-168.6000;0.1498;0.4030;
-168.3000;0.1506;0.4054;
-168.0000;0.1514;0.4078;
-167.7000;0.1465;0.3958;
-167.4000;0.1481;0.4030;
-167.1000;0.1506;0.3982;
-166.8000;0.1514;0.4101;
-166.5000;0.1473;0.4054;
-166.2000;0.1506;0.4149;
-165.9000;0.1514;0.4197;
-165.6000;0.1506;0.4197;
-165.3000;0.1522;0.4221;
-165.0000;0.1408;0.4006;
-164.7000;0.1514;0.4268;
-164.4000;0.1522;0.4244;
-164.1000;0.1473;0.4149;
-163.8000;0.1490;0.4101;
-163.5000;0.1506;0.4197;
-163.2000;0.1522;0.4316;
-162.9000;0.1522;0.4292;
-162.6000;0.1530;0.4388;
-162.3000;0.1473;0.4197;
-162.0000;0.1530;0.4364;
-161.7000;0.1514;0.4292;
-161.4000;0.1506;0.4268;
-161.1000;0.1604;0.4483;
-160.8000;0.1514;0.4268;
-160.5000;0.1498;0.4292;
-160.2000;0.1506;0.4316;
-159.9000;0.1498;0.4388;
-159.6000;0.1538;0.4483;
-159.3000;0.1522;0.4411;
-159.0000;0.1522;0.4388;
-158.7000;0.1530;0.4388;
-158.4000;0.1522;0.4388;
-158.1000;0.1547;0.4388;
-157.8000;0.1522;0.4316;
-157.5000;0.1514;0.4221;
-157.2000;0.1514;0.4173;
-156.9000;0.1506;0.4149;
-156.6000;0.1522;0.4244;
-156.3000;0.1465;0.4078;
-156.0000;0.1514;0.4221;
-155.7000;0.1530;0.4221;
-155.4000;0.1522;0.4101;
-155.1000;0.1514;0.4078;
-154.8000;0.1514;0.4101;
-154.5000;0.1514;0.4101;
-154.2000;0.1506;0.4125;
-153.9000;0.1514;0.4149;
-153.6000;0.1514;0.4101;
-153.3000;0.1522;0.4101;
-153.0000;0.1514;0.4101;
-152.7000;0.1530;0.4244;
-152.4000;0.1530;0.4173;
-152.1000;0.1522;0.4173;
-151.8000;0.1498;0.4173;
-151.5000;0.1506;0.4149;
-151.2000;0.1538;0.4149;
-150.9000;0.1506;0.4054;
-150.6000;0.1490;0.4006;
-150.3000;0.1506;0.4101;
-150.0000;0.1514;0.4149;
-149.7000;0.1514;0.4125;
-149.4000;0.1498;0.4149;
-149.1000;0.1449;0.4078;
-148.8000;0.1506;0.4173;
-148.5000;0.1514;0.4149;
-148.2000;0.1490;0.4125;
-147.9000;0.1514;0.4244;
-147.6000;0.1498;0.4197;
-147.3000;0.1522;0.4197;
-147.0000;0.1514;0.4101;
-146.7000;0.1498;0.4030;
-146.4000;0.1644;0.4340;
-146.1000;0.1530;0.4006;
-145.8000;0.1498;0.3982;
-145.5000;0.1498;0.4030;
-145.2000;0.1506;0.4078;
-144.9000;0.1514;0.4125;
-144.6000;0.1498;0.4030;
-144.3000;0.1522;0.4030;
-144.0000;0.1514;0.4030;
-143.7000;0.1530;0.4078;
-143.4000;0.1449;0.3934;
-143.1000;0.1522;0.4101;
-142.8000;0.1530;0.4221;
-142.5000;0.1522;0.4221;
-142.2000;0.1514;0.4221;
-141.9000;0.1514;0.4149;
-141.6000;0.1506;0.4030;
-141.3000;0.1506;0.4054;
-141.0000;0.1498;0.4006;
-140.7000;0.1506;0.3982;
-140.4000;0.1498;0.3982;
-140.1000;0.1506;0.4054;
-139.8000;0.1506;0.4173;
-139.5000;0.1457;0.4125;
-139.2000;0.1498;0.4268;
-138.9000;0.1522;0.4364;
-138.6000;0.1506;0.4316;
-138.3000;0.1506;0.4268;
-138.0000;0.1498;0.4197;
-137.7000;0.1506;0.4197;
-137.4000;0.1514;0.4173;
-137.1000;0.1514;0.4221;
-136.8000;0.1490;0.4125;
-136.5000;0.1498;0.4173;
-136.2000;0.1571;0.4316;
-135.9000;0.1392;0.3934;
-135.6000;0.1490;0.4244;
-135.3000;0.1498;0.4197;
-135.0000;0.1506;0.4197;
-134.7000;0.1514;0.4244;
-134.4000;0.1498;0.4197;
-134.1000;0.1522;0.4292;
-133.8000;0.1506;0.4197;
-133.5000;0.1522;0.4197;
-133.2000;0.1490;0.4149;
-132.9000;0.1514;0.4268;
-132.6000;0.1514;0.4244;
-132.3000;0.1547;0.4292;
-132.0000;0.1514;0.4292;
-131.7000;0.1498;0.4173;
-131.4000;0.1506;0.4244;
-131.1000;0.1498;0.4221;
-130.8000;0.1506;0.4244;
-130.5000;0.1498;0.4340;
-130.2000;0.1563;0.4531;
-129.9000;0.1514;0.4411;
-129.6000;0.1530;0.4483;
-129.3000;0.1514;0.4435;
-129.0000;0.1490;0.4388;
-128.7000;0.1498;0.4364;
-128.4000;0.1530;0.4435;
-128.1000;0.1514;0.4316;
-127.8000;0.1514;0.4244;
-127.5000;0.1498;0.4173;
-127.2000;0.1481;0.4221;
-126.9000;0.1506;0.4340;
-126.6000;0.1465;0.4101;
-126.3000;0.1514;0.4221;
-126.0000;0.1490;0.4173;
-125.7000;0.1514;0.4268;
-125.4000;0.1514;0.4244;
-125.1000;0.1481;0.4197;
-124.8000;0.1481;0.4173;
-124.5000;0.1498;0.4149;
-124.2000;0.1498;0.4149;
-123.9000;0.1547;0.4268;
-123.6000;0.1498;0.4101;
-123.3000;0.1506;0.4197;
-123.0000;0.1522;0.4268;
-122.7000;0.1490;0.4221;
-122.4000;0.1506;0.4197;
-122.1000;0.1506;0.4221;
-121.8000;0.1506;0.4149;
-121.5000;0.1555;0.4292;
-121.2000;0.1408;0.3958;
-120.9000;0.1514;0.4197;
-120.6000;0.1506;0.4244;
-120.3000;0.1481;0.4149;
-120.0000;0.1457;0.4054;
-119.7000;0.1530;0.4173;
-119.4000;0.1522;0.4197;
-119.1000;0.1481;0.4101;
-118.8000;0.1604;0.4435;
-118.5000;0.1522;0.4268;
-118.2000;0.1506;0.4292;
-117.9000;0.1514;0.4316;
-117.6000;0.1571;0.4435;
-117.3000;0.1514;0.4268;
-117.0000;0.1514;0.4292;
-116.7000;0.1522;0.4316;
-116.4000;0.1530;0.4340;
-116.1000;0.1506;0.4292;
-115.8000;0.1514;0.4125;
-115.5000;0.1498;0.4221;
-115.2000;0.1473;0.4197;
-114.9000;0.1514;0.4316;
-114.6000;0.1465;0.4101;
-114.3000;0.1530;0.4173;
-114.0000;0.1522;0.4125;
-113.7000;0.1506;0.4054;
-113.4000;0.1449;0.4030;
-113.1000;0.1506;0.4173;
-112.8000;0.1547;0.4268;
-112.5000;0.1490;0.4149;
-112.2000;0.1473;0.4078;
-111.9000;0.1555;0.4197;
-111.6000;0.1514;0.4078;
-111.3000;0.1522;0.4054;
-111.0000;0.1579;0.4316;
-110.7000;0.1498;0.4149;
-110.4000;0.1522;0.4221;
-110.1000;0.1538;0.4244;
-109.8000;0.1506;0.4197;
-109.5000;0.1498;0.4149;
-109.2000;0.1506;0.4054;
-108.9000;0.1514;0.4054;
-108.6000;0.1514;0.4078;
-108.3000;0.1514;0.4101;
-108.0000;0.1514;0.4268;
-107.7000;0.1498;0.4244;
-107.4000;0.1514;0.4316;
-107.1000;0.1498;0.4221;
-106.8000;0.1514;0.4221;
-106.5000;0.1522;0.4221;
-106.2000;0.1506;0.4244;
-105.9000;0.1530;0.4221;
-105.6000;0.1490;0.4006;
-105.3000;0.1425;0.3863;
-105.0000;0.1490;0.4030;
-104.7000;0.1530;0.4125;
-104.4000;0.1506;0.4078;
-104.1000;0.1514;0.4078;
-103.8000;0.1514;0.4173;
-103.5000;0.1514;0.4149;
-103.2000;0.1498;0.4101;
-102.9000;0.1490;0.4006;
-102.6000;0.1522;0.4101;
-102.3000;0.1490;0.3911;
-102.0000;0.1514;0.4030;
-101.7000;0.1506;0.3982;
-101.4000;0.1490;0.4054;
-101.1000;0.1481;0.4054;
-100.8000;0.1514;0.4197;
-100.5000;0.1465;0.3958;
-100.2000;0.1538;0.4054;
-99.9000;0.1555;0.4173;
-99.6000;0.1514;0.4030;
-99.3000;0.1498;0.3911;
-99.0000;0.1416;0.3744;
-98.7000;0.1514;0.4030;
-98.4000;0.1498;0.3934;
-98.1000;0.1490;0.3934;
-97.8000;0.1506;0.4030;
-97.5000;0.1457;0.3887;
-97.2000;0.1506;0.3982;
-96.9000;0.1400;0.3768;
-96.6000;0.1506;0.4006;
-96.3000;0.1490;0.3934;
-96.0000;0.1506;0.4006;
-95.7000;0.1506;0.4030;
-95.4000;0.1530;0.4101;
-95.1000;0.1514;0.4101;
-94.8000;0.1538;0.4101;
-94.5000;0.1547;0.4078;
-94.2000;0.1514;0.4030;
-93.9000;0.1522;0.4006;
-93.6000;0.1530;0.4006;
-93.3000;0.1522;0.3982;
-93.0000;0.1514;0.3958;
-92.7000;0.1498;0.3958;
-92.4000;0.1506;0.4030;
-92.1000;0.1498;0.3958;
-91.8000;0.1506;0.4006;
-91.5000;0.1514;0.4054;
-91.2000;0.1498;0.4054;
-90.9000;0.1514;0.4125;
-90.6000;0.1612;0.4388;
-90.3000;0.1522;0.4149;
-90.0000;0.1441;0.3934;
-89.7000;0.1481;0.4030;
-89.4000;0.1604;0.4292;
-89.1000;0.1490;0.4054;
-88.8000;0.1490;0.4078;
-88.5000;0.1522;0.4173;
-88.2000;0.1498;0.4173;
-87.9000;0.1441;0.3958;
-87.6000;0.1457;0.3982;
-87.3000;0.1514;0.4173;
-87.0000;0.1498;0.4078;
-86.7000;0.1506;0.4054;
-86.4000;0.1506;0.4030;
-86.1000;0.1514;0.4054;
-85.8000;0.1498;0.3982;
-85.5000;0.1506;0.4030;
-85.2000;0.1506;0.3934;
-84.9000;0.1506;0.3958;
-84.6000;0.1498;0.4078;
-84.3000;0.1530;0.4125;
-84.0000;0.1498;0.4173;
-83.7000;0.1506;0.4197;
-83.4000;0.1506;0.4149;
-83.1000;0.1530;0.4244;
-82.8000;0.1514;0.4221;
-82.5000;0.1506;0.4292;
-82.2000;0.1522;0.4316;
-81.9000;0.1498;0.4244;
-81.6000;0.1506;0.4244;
-81.3000;0.1514;0.4316;
-81.0000;0.1498;0.4244;
-80.7000;0.1522;0.4292;
-80.4000;0.1498;0.4268;
-80.1000;0.1514;0.4268;
-79.8000;0.1547;0.4388;
-79.5000;0.1498;0.4292;
-79.2000;0.1514;0.4340;
-78.9000;0.1530;0.4244;
-78.6000;0.1514;0.4197;
-78.3000;0.1514;0.4221;
-78.0000;0.1506;0.4197;
-77.7000;0.1522;0.4244;
-77.4000;0.1522;0.4244;
-77.1000;0.1506;0.4149;
-76.8000;0.1465;0.3934;
-76.5000;0.1612;0.4221;
-76.2000;0.1530;0.3958;
-75.9000;0.1604;0.4340;
-75.6000;0.1522;0.3982;
-75.3000;0.1506;0.3887;
-75.0000;0.1441;0.3648;
-74.7000;0.1481;0.3839;
-74.4000;0.1473;0.3791;
-74.1000;0.1514;0.4006;
-73.8000;0.1612;0.4268;
-73.5000;0.1498;0.4030;
-73.2000;0.1514;0.4125;
-72.9000;0.1604;0.4244;
-72.6000;0.1465;0.3911;
-72.3000;0.1457;0.3815;
-72.0000;0.1498;0.3934;
-71.7000;0.1498;0.3982;
-71.4000;0.1522;0.4078;
-71.1000;0.1530;0.4101;
-70.8000;0.1506;0.4030;
-70.5000;0.1506;0.4006;
-70.2000;0.1514;0.4149;
-69.9000;0.1522;0.4173;
-69.6000;0.1441;0.3958;
-69.3000;0.1514;0.4197;
-69.0000;0.1530;0.4292;
-68.7000;0.1571;0.4388;
-68.4000;0.1538;0.4244;
-68.1000;0.1498;0.4173;
-67.8000;0.1506;0.4149;
-67.5000;0.1465;0.4054;
-67.2000;0.1473;0.4054;
-66.9000;0.1490;0.4149;
-66.6000;0.1538;0.4268;
-66.3000;0.1587;0.4340;
-66.0000;0.1555;0.4197;
-65.7000;0.1490;0.4030;
-65.4000;0.1571;0.4197;
-65.1000;0.1498;0.4030;
-64.8000;0.1490;0.4030;
-64.5000;0.1522;0.4078;
-64.2000;0.1506;0.4006;
-63.9000;0.1555;0.4197;
-63.6000;0.1522;0.4173;
-63.3000;0.1506;0.4173;
-63.0000;0.1522;0.4125;
-62.7000;0.1498;0.4030;
-62.4000;0.1514;0.4006;
-62.1000;0.1514;0.3958;
-61.8000;0.1514;0.3911;
-61.5000;0.1522;0.4006;
-61.2000;0.1514;0.4054;
-60.9000;0.1506;0.4054;
-60.6000;0.1498;0.4078;
-60.3000;0.1522;0.4054;
-60.0000;0.1498;0.4006;
-59.7000;0.1506;0.4054;
-59.4000;0.1506;0.4030;
-59.1000;0.1481;0.3982;
-58.8000;0.1530;0.4149;
-58.5000;0.1522;0.4173;
-58.2000;0.1498;0.4101;
-57.9000;0.1522;0.4125;
-57.6000;0.1595;0.4340;
-57.3000;0.1498;0.4125;
-57.0000;0.1473;0.4101;
-56.7000;0.1514;0.4173;
-56.4000;0.1522;0.4078;
-56.1000;0.1498;0.4030;
-55.8000;0.1465;0.3982;
-55.5000;0.1506;0.4078;
-55.2000;0.1506;0.4149;
-54.9000;0.1522;0.4244;
-54.6000;0.1506;0.4244;
-54.3000;0.1636;0.4626;
-54.0000;0.1481;0.4173;
-53.7000;0.1498;0.4244;
-53.4000;0.1522;0.4244;
-53.1000;0.1514;0.4292;
-52.8000;0.1498;0.4244;
-52.5000;0.1522;0.4292;
-52.2000;0.1506;0.4125;
-51.9000;0.1522;0.4173;
-51.6000;0.1555;0.4292;
-51.3000;0.1506;0.4125;
-51.0000;0.1555;0.4244;
-50.7000;0.1490;0.4101;
-50.4000;0.1547;0.4149;
-50.1000;0.1514;0.4030;
-49.8000;0.1498;0.4054;
-49.5000;0.1498;0.3982;
-49.2000;0.1563;0.4101;
-48.9000;0.1514;0.3958;
-48.6000;0.1506;0.3934;
-48.3000;0.1522;0.4078;
-48.0000;0.1498;0.4006;
-47.7000;0.1498;0.4078;
-47.4000;0.1490;0.4054;
-47.1000;0.1506;0.4125;
-46.8000;0.1481;0.4054;
-46.5000;0.1514;0.4173;
-46.2000;0.1433;0.3958;
-45.9000;0.1530;0.4197;
-45.6000;0.1530;0.4173;
-45.3000;0.1538;0.4244;
-45.0000;0.1481;0.4197;
-44.7000;0.1473;0.4101;
-44.4000;0.1384;0.3815;
-44.1000;0.1514;0.4030;
-43.8000;0.1506;0.4054;
-43.5000;0.1514;0.4030;
-43.2000;0.1514;0.4006;
-42.9000;0.1498;0.3863;
-42.6000;0.1514;0.3958;
-42.3000;0.1506;0.3982;
-42.0000;0.1490;0.4006;
-41.7000;0.1514;0.4149;
-41.4000;0.1514;0.4054;
-41.1000;0.1490;0.4006;
-40.8000;0.1506;0.4006;
-40.5000;0.1522;0.4054;
-40.2000;0.1522;0.4030;
-39.9000;0.1522;0.4006;
-39.6000;0.1506;0.4101;
-39.3000;0.1522;0.4125;
-39.0000;0.1506;0.4101;
-38.7000;0.1571;0.4244;
-38.4000;0.1465;0.3911;
-38.1000;0.1547;0.4197;
-37.8000;0.1514;0.4125;
-37.5000;0.1514;0.4054;
-37.2000;0.1522;0.4149;
-36.9000;0.1514;0.4197;
-36.6000;0.1514;0.4221;
-36.3000;0.1514;0.4149;
-36.0000;0.1514;0.4125;
-35.7000;0.1506;0.3934;
-35.4000;0.1498;0.3791;
-35.1000;0.1514;0.3839;
-34.8000;0.1465;0.3768;
-34.5000;0.1514;0.4006;
-34.2000;0.1514;0.4078;
-33.9000;0.1514;0.4078;
-33.6000;0.1530;0.4078;
-33.3000;0.1498;0.4101;
-33.0000;0.1522;0.4125;
-32.7000;0.1506;0.4101;
-32.4000;0.1506;0.4006;
-32.1000;0.1425;0.3744;
-31.8000;0.1506;0.3934;
-31.5000;0.1514;0.3982;
-31.2000;0.1441;0.3768;
-30.9000;0.1506;0.3934;
-30.6000;0.1506;0.3982;
-30.3000;0.1514;0.4006;
-30.0000;0.1506;0.4006;
-29.7000;0.1522;0.4030;
-29.4000;0.1490;0.4006;
-29.1000;0.1514;0.4149;
-28.8000;0.1661;0.4578;
-28.5000;0.1514;0.4173;
-28.2000;0.1530;0.4173;
-27.9000;0.1506;0.4101;
-27.6000;0.1530;0.4197;
-27.3000;0.1498;0.4149;
-27.0000;0.1498;0.4173;
-26.7000;0.1506;0.4268;
-26.4000;0.1522;0.4388;
-26.1000;0.1514;0.4411;
-25.8000;0.1490;0.4292;
-25.5000;0.1481;0.4149;
-25.2000;0.1490;0.4149;
-24.9000;0.1498;0.4149;
-24.6000;0.1514;0.4197;
-24.3000;0.1506;0.4173;
-24.0000;0.1506;0.4197;
-23.7000;0.1514;0.4125;
-23.4000;0.1563;0.4149;
-23.1000;0.1563;0.4078;
-22.8000;0.1522;0.3958;
-22.5000;0.1457;0.3839;
-22.2000;0.1547;0.4054;
-21.9000;0.1481;0.4030;
-21.6000;0.1547;0.4268;
-21.3000;0.1498;0.4173;
-21.0000;0.1506;0.4054;
-20.7000;0.1498;0.4006;
-20.4000;0.1368;0.3529;
-20.1000;0.1416;0.3481;
-19.8000;0.1490;0.3791;
-19.5000;0.1538;0.4054;
-19.2000;0.1514;0.3958;
-18.9000;0.1538;0.4078;
-18.6000;0.1514;0.4078;
-18.3000;0.1514;0.4078;
-18.0000;0.1368;0.3624;
-17.7000;0.1498;0.3791;
-17.4000;0.1514;0.3863;
-17.1000;0.1530;0.4006;
-16.8000;0.1506;0.4006;
-16.5000;0.1481;0.3982;
-16.2000;0.1506;0.4101;
-15.9000;0.1481;0.3911;
-15.6000;0.1514;0.3982;
-15.3000;0.1498;0.3982;
-15.0000;0.1506;0.4006;
-14.7000;0.1506;0.3982;
-14.4000;0.1506;0.4006;
-14.1000;0.1498;0.4054;
-13.8000;0.1514;0.4149;
-13.5000;0.1498;0.4149;
-13.2000;0.1538;0.4244;
-12.9000;0.1490;0.4173;
-12.6000;0.1514;0.4197;
-12.3000;0.1465;0.4101;
-12.0000;0.1538;0.4221;
-11.7000;0.1571;0.4221;
-11.4000;0.1514;0.4125;
-11.1000;0.1490;0.4030;
-10.8000;0.1506;0.4006;
-10.5000;0.1514;0.4030;
-10.2000;0.1498;0.3934;
-9.9000;0.1490;0.3958;
-9.6000;0.1384;0.3696;
-9.3000;0.1506;0.4030;
-9.0000;0.1506;0.4078;
-8.7000;0.1514;0.3982;
-8.4000;0.1498;0.3958;
-8.1000;0.1522;0.4078;
-7.8000;0.1514;0.3982;
-7.5000;0.1498;0.3887;
-7.2000;0.1498;0.3934;
-6.9000;0.1538;0.4054;
-6.6000;0.1522;0.3934;
-6.3000;0.1498;0.3863;
-6.0000;0.1579;0.4054;
-5.7000;0.1514;0.3839;
-5.4000;0.1514;0.3911;
-5.1000;0.1473;0.3934;
-4.8000;0.1563;0.4173;
-4.5000;0.1506;0.4006;
-4.2000;0.1547;0.4125;
-3.9000;0.1490;0.3958;
-3.6000;0.1514;0.3934;
-3.3000;0.1530;0.3982;
-3.0000;0.1457;0.3887;
-2.7000;0.1514;0.3887;
-2.4000;0.1433;0.3744;
-2.1000;0.1538;0.3982;
-1.8000;0.1538;0.3934;
-1.5000;0.1408;0.3601;
-1.2000;0.1522;0.3863;
-0.9000;0.1498;0.3815;
-0.6000;0.1465;0.3672;
-0.3000;0.1514;0.3791;
0.0000;0.1514;0.3791;
0.3000;0.1506;0.3577;
0.6000;0.1514;0.3791;
0.9000;0.1595;0.4149;
1.2000;0.1522;0.4125;
1.5000;0.1555;0.4292;
1.8000;0.1490;0.4268;
2.1000;0.1547;0.4411;
2.4000;0.1595;0.4698;
2.7000;0.1604;0.4841;
3.0000;0.1490;0.4554;
3.3000;0.1587;0.4912;
3.6000;0.1595;0.5031;
3.9000;0.1652;0.5174;
4.2000;0.1563;0.5103;
4.5000;0.1644;0.5246;
4.8000;0.1604;0.5127;
5.1000;0.1604;0.5222;
5.4000;0.1595;0.5198;
5.7000;0.1595;0.5317;
6.0000;0.1628;0.5461;
6.3000;0.1604;0.5508;
6.6000;0.1677;0.5699;
6.9000;0.1595;0.5580;
7.2000;0.1604;0.5699;
7.5000;0.1604;0.5747;
7.8000;0.1587;0.5723;
8.1000;0.1604;0.5699;
8.4000;0.1595;0.5651;
8.7000;0.1595;0.5556;
9.0000;0.1604;0.5627;
9.3000;0.1579;0.5580;
9.6000;0.1612;0.5651;
9.9000;0.1587;0.5556;
10.2000;0.1612;0.5580;
10.5000;0.1595;0.5627;
10.8000;0.1587;0.5651;
11.1000;0.1628;0.5723;
11.4000;0.1604;0.5699;
11.7000;0.1587;0.5580;
12.0000;0.1587;0.5532;
12.3000;0.1604;0.5556;
12.6000;0.1604;0.5532;
12.9000;0.1612;0.5532;
13.2000;0.1595;0.5604;
13.5000;0.1604;0.5651;
13.8000;0.1514;0.5365;
14.1000;0.1604;0.5580;
14.4000;0.1612;0.5651;
14.7000;0.1620;0.5747;
15.0000;0.1595;0.5699;
15.3000;0.1612;0.5723;
15.6000;0.1612;0.5771;
15.9000;0.1587;0.5699;
16.2000;0.1709;0.6057;
16.5000;0.1604;0.5771;
16.8000;0.1522;0.5580;
17.1000;0.1604;0.5818;
17.4000;0.1595;0.5818;
17.7000;0.1595;0.5771;
18.0000;0.1612;0.5675;
18.3000;0.1604;0.5699;
18.6000;0.1595;0.5675;
18.9000;0.1563;0.5508;
19.2000;0.1636;0.5818;
19.5000;0.1636;0.5747;
19.8000;0.1604;0.5627;
20.1000;0.1628;0.5651;
20.4000;0.1595;0.5699;
20.7000;0.1579;0.5651;
21.0000;0.1661;0.5794;
21.3000;0.1620;0.5651;
21.6000;0.1612;0.5627;
21.9000;0.1595;0.5556;
22.2000;0.1595;0.5532;
22.5000;0.1571;0.5484;
22.8000;0.1604;0.5627;
23.1000;0.1620;0.5675;
23.4000;0.1620;0.5675;
23.7000;0.1595;0.5580;
24.0000;0.1595;0.5604;
24.3000;0.1595;0.5627;
24.6000;0.1620;0.5627;
24.9000;0.1604;0.5651;
25.2000;0.1604;0.5627;
25.5000;0.1644;0.5699;
25.8000;0.1587;0.5508;
26.1000;0.1628;0.5580;
26.4000;0.1644;0.5699;
26.7000;0.1579;0.5627;
27.0000;0.1604;0.5627;
27.3000;0.1604;0.5580;
27.6000;0.1579;0.5461;
27.9000;0.1628;0.5532;
28.2000;0.1628;0.5627;
28.5000;0.1604;0.5604;
28.8000;0.1595;0.5532;
29.1000;0.1620;0.5556;
29.4000;0.1587;0.5461;
29.7000;0.1604;0.5437;
30.0000;0.1579;0.5484;
30.3000;0.1595;0.5532;
30.6000;0.1604;0.5508;
30.9000;0.1595;0.5484;
31.2000;0.1595;0.5437;
31.5000;0.1612;0.5508;
31.8000;0.1612;0.5508;
32.1000;0.1604;0.5556;
32.4000;0.1595;0.5627;
32.7000;0.1612;0.5675;
33.0000;0.1579;0.5604;
33.3000;0.1604;0.5723;
33.6000;0.1620;0.5794;
33.9000;0.1579;0.5699;
34.2000;0.1620;0.5747;
34.5000;0.1604;0.5627;
34.8000;0.1620;0.5723;
35.1000;0.1595;0.5771;
35.4000;0.1587;0.5747;
35.7000;0.1514;0.5437;
36.0000;0.1595;0.5651;
36.3000;0.1587;0.5651;
36.6000;0.1538;0.5508;
36.9000;0.1636;0.5771;
37.2000;0.1620;0.5699;
37.5000;0.1604;0.5604;
37.8000;0.1595;0.5508;
38.1000;0.1571;0.5532;
38.4000;0.1604;0.5604;
38.7000;0.1498;0.5294;
39.0000;0.1579;0.5532;
39.3000;0.1579;0.5508;
39.6000;0.1612;0.5580;
39.9000;0.1579;0.5413;
40.2000;0.1652;0.5627;
40.5000;0.1547;0.5365;
40.8000;0.1571;0.5556;
41.1000;0.1604;0.5675;
41.4000;0.1587;0.5651;
41.7000;0.1612;0.5747;
42.0000;0.1701;0.5914;
42.3000;0.1612;0.5771;
42.6000;0.1612;0.5771;
42.9000;0.1644;0.5771;
43.2000;0.1579;0.5556;
43.5000;0.1612;0.5794;
43.8000;0.1490;0.5556;
44.1000;0.1587;0.5699;
44.4000;0.1604;0.5771;
44.7000;0.1604;0.5842;
45.0000;0.1579;0.5818;
45.3000;0.1628;0.5961;
45.6000;0.1587;0.5937;
45.9000;0.1587;0.5914;
46.2000;0.1595;0.5961;
46.5000;0.1604;0.5937;
46.8000;0.1709;0.6104;
47.1000;0.1612;0.5747;
47.4000;0.1652;0.5866;
47.7000;0.1604;0.5723;
48.0000;0.1628;0.5818;
48.3000;0.1612;0.5771;
48.6000;0.1595;0.5842;
48.9000;0.1612;0.5890;
49.2000;0.1595;0.5890;
49.5000;0.1669;0.6009;
49.8000;0.1579;0.5699;
50.1000;0.1620;0.5723;
50.4000;0.1604;0.5771;
50.7000;0.1579;0.5794;
51.0000;0.1579;0.5890;
51.3000;0.1595;0.5985;
51.6000;0.1587;0.5985;
51.9000;0.1514;0.5747;
52.2000;0.1612;0.5890;
52.5000;0.1604;0.5771;
52.8000;0.1604;0.5699;
53.1000;0.1579;0.5747;
53.4000;0.1595;0.5818;
53.7000;0.1604;0.5794;
54.0000;0.1620;0.5771;
54.3000;0.1587;0.5651;
54.6000;0.1579;0.5651;
54.9000;0.1604;0.5723;
55.2000;0.1595;0.5675;
55.5000;0.1604;0.5627;
55.8000;0.1595;0.5604;
56.1000;0.1604;0.5484;
56.4000;0.1612;0.5484;
56.7000;0.1644;0.5508;
57.0000;0.1644;0.5556;
57.3000;0.1587;0.5484;
57.6000;0.1595;0.5627;
57.9000;0.1612;0.5699;
58.2000;0.1604;0.5723;
58.5000;0.1612;0.5675;
58.8000;0.1628;0.5675;
59.1000;0.1604;0.5627;
59.4000;0.1595;0.5651;
59.7000;0.1547;0.5461;
60.0000;0.1587;0.5604;
60.3000;0.1595;0.5627;
60.6000;0.1595;0.5723;
60.9000;0.1587;0.5699;
61.2000;0.1571;0.5699;
61.5000;0.1604;0.5747;
61.8000;0.1620;0.5794;
62.1000;0.1595;0.5794;
62.4000;0.1628;0.5890;
62.7000;0.1652;0.6033;
63.0000;0.1628;0.5937;
63.3000;0.1604;0.6009;
63.6000;0.1595;0.5937;
63.9000;0.1604;0.5890;
64.2000;0.1620;0.5937;
64.5000;0.1579;0.5842;
64.8000;0.1587;0.5747;
65.1000;0.1604;0.5771;
65.4000;0.1587;0.5771;
65.7000;0.1636;0.5961;
66.0000;0.1644;0.5890;
66.3000;0.1612;0.5842;
66.6000;0.1734;0.6200;
66.9000;0.1628;0.5866;
67.2000;0.1571;0.5771;
67.5000;0.1595;0.5842;
67.8000;0.1538;0.5651;
68.1000;0.1612;0.5914;
68.4000;0.1595;0.5866;
68.7000;0.1538;0.5675;
69.0000;0.1604;0.5890;
69.3000;0.1612;0.5914;
69.6000;0.1595;0.5890;
69.9000;0.1628;0.5890;
70.2000;0.1612;0.5794;
70.5000;0.1612;0.5771;
70.8000;0.1587;0.5842;
71.1000;0.1595;0.5842;
71.4000;0.1595;0.5818;
71.7000;0.1595;0.5794;
72.0000;0.1587;0.5771;
72.3000;0.1604;0.5818;
72.6000;0.1620;0.5890;
72.9000;0.1579;0.5866;
73.2000;0.1612;0.5818;
73.5000;0.1595;0.5794;
73.8000;0.1604;0.5818;
74.1000;0.1604;0.5771;
74.4000;0.1620;0.5794;
74.7000;0.1620;0.5723;
75.0000;0.1579;0.5580;
75.3000;0.1604;0.5604;
75.6000;0.1595;0.5627;
75.9000;0.1604;0.5627;
76.2000;0.1595;0.5556;
76.5000;0.1685;0.5771;
76.8000;0.1514;0.5341;
77.1000;0.1604;0.5604;
77.4000;0.1587;0.5604;
77.7000;0.1661;0.5818;
78.0000;0.1595;0.5723;
78.3000;0.1587;0.5747;
78.6000;0.1620;0.5890;
78.9000;0.1530;0.5699;
79.2000;0.1547;0.5771;
79.5000;0.1604;0.6009;
79.8000;0.1604;0.5985;
80.1000;0.1587;0.5985;
80.4000;0.1587;0.5937;
80.7000;0.1595;0.5842;
81.0000;0.1595;0.5818;
81.3000;0.1595;0.5794;
81.6000;0.1571;0.5794;
81.9000;0.1628;0.5914;
82.2000;0.1652;0.5985;
82.5000;0.1587;0.5747;
82.8000;0.1604;0.5771;
83.1000;0.1595;0.5771;
83.4000;0.1636;0.5961;
83.7000;0.1612;0.5937;
84.0000;0.1587;0.5937;
84.3000;0.1604;0.5890;
84.6000;0.1604;0.5937;
84.9000;0.1579;0.5866;
85.2000;0.1661;0.6033;
85.5000;0.1604;0.5842;
85.8000;0.1595;0.5794;
86.1000;0.1612;0.5723;
86.4000;0.1612;0.5651;
86.7000;0.1579;0.5627;
87.0000;0.1587;0.5794;
87.3000;0.1587;0.5723;
87.6000;0.1620;0.5842;
87.9000;0.1595;0.5866;
88.2000;0.1587;0.5914;
88.5000;0.1595;0.5914;
88.8000;0.1595;0.5985;
89.1000;0.1587;0.5961;
89.4000;0.1587;0.5937;
89.7000;0.1742;0.6271;
90.0000;0.1604;0.5937;
90.3000;0.1604;0.5914;
90.6000;0.1595;0.5914;
90.9000;0.1595;0.5890;
91.2000;0.1604;0.5914;
91.5000;0.1604;0.5866;
91.8000;0.1750;0.6224;
92.1000;0.1709;0.6057;
92.4000;0.1628;0.5961;
92.7000;0.1604;0.5890;
93.0000;0.1595;0.5866;
93.3000;0.1563;0.5747;
93.6000;0.1571;0.5771;
93.9000;0.1636;0.5961;
94.2000;0.1604;0.5914;
94.5000;0.1595;0.5794;
94.8000;0.1612;0.5866;
95.1000;0.1571;0.5794;
95.4000;0.1636;0.5937;
95.7000;0.1579;0.5890;
96.0000;0.1652;0.6104;
96.3000;0.1514;0.5675;
96.6000;0.1587;0.5842;
96.9000;0.1595;0.5866;
97.2000;0.1604;0.5818;
97.5000;0.1587;0.5675;
97.8000;0.1612;0.5771;
98.1000;0.1530;0.5627;
98.4000;0.1636;0.5890;
98.7000;0.1587;0.5723;
99.0000;0.1701;0.6057;
99.3000;0.1571;0.5723;
99.6000;0.1579;0.5675;
99.9000;0.1522;0.5580;
100.2000;0.1604;0.5818;
100.5000;0.1652;0.5914;
100.8000;0.1555;0.5723;
101.1000;0.1652;0.5937;
101.4000;0.1612;0.5794;
101.7000;0.1587;0.5794;
102.0000;0.1579;0.5794;
102.3000;0.1587;0.5866;
102.6000;0.1661;0.6009;
102.9000;0.1587;0.5866;
103.2000;0.1620;0.5866;
103.5000;0.1612;0.5890;
103.8000;0.1587;0.5914;
104.1000;0.1595;0.5961;
104.4000;0.1587;0.5985;
104.7000;0.1595;0.5914;
105.0000;0.1571;0.5818;
105.3000;0.1563;0.5842;
105.6000;0.1579;0.5842;
105.9000;0.1595;0.5914;
106.2000;0.1595;0.6009;
106.5000;0.1612;0.6104;
106.8000;0.1620;0.6128;
107.1000;0.1612;0.6081;
107.4000;0.1587;0.6033;
107.7000;0.1595;0.5985;
108.0000;0.1587;0.6009;
108.3000;0.1612;0.6152;
108.6000;0.1612;0.6104;
108.9000;0.1579;0.6081;
109.2000;0.1587;0.6128;
109.5000;0.1587;0.6057;
109.8000;0.1604;0.6081;
110.1000;0.1612;0.6081;
110.4000;0.1595;0.5961;
110.7000;0.1595;0.5890;
111.0000;0.1571;0.5818;
111.3000;0.1628;0.5985;
111.6000;0.1587;0.5961;
111.9000;0.1530;0.5771;
112.2000;0.1604;0.5985;
112.5000;0.1595;0.5937;
112.8000;0.1481;0.5675;
113.1000;0.1579;0.6009;
113.4000;0.1587;0.5961;
113.7000;0.1604;0.5985;
114.0000;0.1652;0.6057;
114.3000;0.1579;0.5914;
114.6000;0.1604;0.6081;
114.9000;0.1587;0.6057;
115.2000;0.1579;0.6009;
115.5000;0.1571;0.5914;
115.8000;0.1571;0.5771;
116.1000;0.1612;0.5890;
116.4000;0.1587;0.5818;
116.7000;0.1579;0.5818;
117.0000;0.1571;0.5771;
117.3000;0.1579;0.5794;
117.6000;0.1587;0.5866;
117.9000;0.1587;0.5771;
118.2000;0.1595;0.5723;
118.5000;0.1579;0.5699;
118.8000;0.1579;0.5723;
119.1000;0.1571;0.5675;
119.4000;0.1530;0.5604;
119.7000;0.1595;0.5794;
120.0000;0.1555;0.5771;
120.3000;0.1587;0.5842;
120.6000;0.1685;0.6152;
120.9000;0.1587;0.5961;
121.2000;0.1661;0.6200;
121.5000;0.1571;0.6057;
121.8000;0.1563;0.6057;
122.1000;0.1628;0.6176;
122.4000;0.1563;0.5937;
122.7000;0.1604;0.5985;
123.0000;0.1571;0.5842;
123.3000;0.1604;0.5937;
123.6000;0.1498;0.5675;
123.9000;0.1579;0.5866;
124.2000;0.1587;0.5985;
124.5000;0.1604;0.5914;
124.8000;0.1604;0.5890;
125.1000;0.1595;0.5914;
125.4000;0.1595;0.5818;
125.7000;0.1587;0.5842;
126.0000;0.1620;0.5985;
126.3000;0.1587;0.5890;
126.6000;0.1571;0.5842;
126.9000;0.1587;0.5866;
127.2000;0.1595;0.5866;
127.5000;0.1587;0.5842;
127.8000;0.1530;0.5651;
128.1000;0.1587;0.5866;
128.4000;0.1604;0.5794;
128.7000;0.1595;0.5842;
129.0000;0.1595;0.5794;
129.3000;0.1595;0.5818;
129.6000;0.1604;0.5818;
129.9000;0.1620;0.5866;
130.2000;0.1620;0.5842;
130.5000;0.1587;0.5747;
130.8000;0.1571;0.5651;
131.1000;0.1628;0.5675;
131.4000;0.1604;0.5627;
131.7000;0.1628;0.5723;
132.0000;0.1587;0.5627;
132.3000;0.1579;0.5604;
132.6000;0.1620;0.5651;
132.9000;0.1587;0.5627;
133.2000;0.1604;0.5580;
133.5000;0.1587;0.5532;
133.8000;0.1612;0.5580;
134.1000;0.1604;0.5627;
134.4000;0.1628;0.5651;
134.7000;0.1595;0.5604;
135.0000;0.1701;0.5937;
135.3000;0.1612;0.5771;
135.6000;0.1604;0.5675;
135.9000;0.1701;0.5937;
136.2000;0.1636;0.5723;
136.5000;0.1595;0.5651;
136.8000;0.1571;0.5675;
137.1000;0.1652;0.5866;
137.4000;0.1595;0.5699;
137.7000;0.1604;0.5675;
138.0000;0.1571;0.5675;
138.3000;0.1604;0.5771;
138.6000;0.1595;0.5699;
138.9000;0.1579;0.5723;
139.2000;0.1604;0.5794;
139.5000;0.1636;0.5866;
139.8000;0.1579;0.5747;
140.1000;0.1595;0.5651;
140.4000;0.1579;0.5556;
140.7000;0.1587;0.5508;
141.0000;0.1473;0.5198;
141.3000;0.1530;0.5317;
141.6000;0.1579;0.5437;
141.9000;0.1579;0.5365;
142.2000;0.1587;0.5461;
142.5000;0.1587;0.5580;
142.8000;0.1587;0.5699;
143.1000;0.1604;0.5771;
143.4000;0.1587;0.5723;
143.7000;0.1579;0.5771;
144.0000;0.1579;0.5771;
144.3000;0.1604;0.5794;
144.6000;0.1612;0.5818;
144.9000;0.1587;0.5747;
145.2000;0.1563;0.5675;
145.5000;0.1612;0.5866;
145.8000;0.1620;0.5890;
146.1000;0.1579;0.5747;
146.4000;0.1587;0.5771;
146.7000;0.1465;0.5413;
147.0000;0.1604;0.5747;
147.3000;0.1595;0.5794;
147.6000;0.1587;0.5866;
147.9000;0.1571;0.5723;
148.2000;0.1612;0.5937;
148.5000;0.1595;0.5818;
148.8000;0.1579;0.5771;
149.1000;0.1579;0.5747;
149.4000;0.1579;0.5771;
149.7000;0.1571;0.5771;
150.0000;0.1563;0.5675;
150.3000;0.1595;0.5699;
150.6000;0.1628;0.5794;
150.9000;0.1587;0.5818;
151.2000;0.1612;0.5914;
151.5000;0.1604;0.5985;
151.8000;0.1644;0.6104;
152.1000;0.1604;0.5985;
152.4000;0.1604;0.6009;
152.7000;0.1571;0.5914;
153.0000;0.1595;0.5961;
153.3000;0.1604;0.5937;
153.6000;0.1595;0.5866;
153.9000;0.1604;0.5914;
154.2000;0.1579;0.5937;
154.5000;0.1571;0.6009;
154.8000;0.1685;0.6319;
155.1000;0.1612;0.6081;
155.4000;0.1563;0.5937;
155.7000;0.1644;0.6081;
156.0000;0.1604;0.5985;
156.3000;0.1587;0.5818;
156.6000;0.1514;0.5675;
156.9000;0.1579;0.5961;
157.2000;0.1604;0.6057;
157.5000;0.1636;0.6104;
157.8000;0.1571;0.6009;
158.1000;0.1579;0.5914;
158.4000;0.1612;0.5890;
158.7000;0.1620;0.5914;
159.0000;0.1547;0.5699;
159.3000;0.1587;0.5794;
159.6000;0.1612;0.5890;
159.9000;0.1604;0.5961;
160.2000;0.1449;0.5604;
160.5000;0.1587;0.5961;
160.8000;0.1587;0.5937;
161.1000;0.1604;0.6057;
161.4000;0.1579;0.6033;
161.7000;0.1587;0.6081;
162.0000;0.1612;0.6057;
162.3000;0.1595;0.5985;
162.6000;0.1595;0.5985;
162.9000;0.1604;0.5842;
163.2000;0.1595;0.5842;
163.5000;0.1612;0.5914;
163.8000;0.1555;0.5818;
164.1000;0.1595;0.5866;
164.4000;0.1571;0.5818;
164.7000;0.1571;0.5771;
165.0000;0.1587;0.5794;
165.3000;0.1595;0.5723;
165.6000;0.1530;0.5484;
165.9000;0.1579;0.5651;
166.2000;0.1604;0.5771;
166.5000;0.1620;0.5866;
166.8000;0.1604;0.5866;
167.1000;0.1595;0.5937;
167.4000;0.1595;0.5961;
167.7000;0.1612;0.6033;
168.0000;0.1612;0.6033;
168.3000;0.1652;0.6081;
168.6000;0.1604;0.5937;
168.9000;0.1604;0.5914;
169.2000;0.1587;0.5914;
169.5000;0.1587;0.5914;
169.8000;0.1612;0.5866;
170.1000;0.1604;0.5794;
170.4000;0.1595;0.5747;
170.7000;0.1604;0.5771;
171.0000;0.1620;0.5818;
171.3000;0.1604;0.5794;
171.6000;0.1538;0.5723;
171.9000;0.1595;0.5818;
172.2000;0.1612;0.5818;
172.5000;0.1595;0.5723;
172.8000;0.1612;0.5723;
173.1000;0.1579;0.5604;
173.4000;0.1587;0.5651;
173.7000;0.1587;0.5771;
174.0000;0.1563;0.5723;
174.3000;0.1612;0.5818;
174.6000;0.1587;0.5747;
174.9000;0.1595;0.5842;
175.2000;0.1490;0.5508;
175.5000;0.1595;0.5794;
175.8000;0.1604;0.5771;
176.1000;0.1587;0.5723;
176.4000;0.1604;0.5818;
176.7000;0.1612;0.5842;
177.0000;0.1587;0.5747;
177.3000;0.1587;0.5747;
177.6000;0.1563;0.5627;
177.9000;0.1604;0.5723;
178.2000;0.1677;0.5985;
178.5000;0.1612;0.5890;
178.8000;0.1604;0.5771;
179.1000;0.1595;0.5794;
179.4000;0.1604;0.5866;
179.7000;0.1604;0.5890;
180.0000;0.1555;0.5747;
180.3000;0.1612;0.5866;
180.6000;0.1595;0.5914;
180.9000;0.1579;0.5866;
181.2000;0.1595;0.5890;
181.5000;0.1595;0.5842;
181.8000;0.1563;0.5794;
182.1000;0.1555;0.5914;
182.4000;0.1579;0.5985;
182.7000;0.1620;0.6081;
183.0000;0.1595;0.5985;
183.3000;0.1604;0.6009;
183.6000;0.1604;0.6057;
183.9000;0.1612;0.6176;
184.2000;0.1604;0.6128;
184.5000;0.1612;0.6152;
184.8000;0.1595;0.6081;
185.1000;0.1579;0.5961;
185.4000;0.1595;0.5961;
185.7000;0.1612;0.5866;
186.0000;0.1604;0.5794;
186.3000;0.1538;0.5651;
186.6000;0.1604;0.5794;
186.9000;0.1693;0.6033;
187.2000;0.1612;0.5818;
187.5000;0.1604;0.5842;
187.8000;0.1604;0.5818;
188.1000;0.1587;0.5818;
188.4000;0.1604;0.5890;
188.7000;0.1604;0.5818;
189.0000;0.1587;0.5818;
189.3000;0.1579;0.5794;
189.6000;0.1652;0.5961;
189.9000;0.1595;0.5914;
190.2000;0.1595;0.5937;
190.5000;0.1587;0.5890;
190.8000;0.1595;0.5818;
191.1000;0.1587;0.5794;
191.4000;0.1555;0.5723;
191.7000;0.1612;0.5842;
192.0000;0.1604;0.5890;
192.3000;0.1604;0.5890;
192.6000;0.1587;0.5842;
192.9000;0.1579;0.5866;
193.2000;0.1595;0.5914;
193.5000;0.1595;0.5961;
193.8000;0.1579;0.5985;
194.1000;0.1587;0.6009;
194.4000;0.1595;0.6033;
194.7000;0.1514;0.5866;
195.0000;0.1612;0.6200;
195.3000;0.1587;0.6128;
195.6000;0.1595;0.6104;
195.9000;0.1595;0.6152;
196.2000;0.1595;0.6152;
196.5000;0.1644;0.6200;
196.8000;0.1514;0.5842;
197.1000;0.1587;0.6104;
197.4000;0.1571;0.6009;
197.7000;0.1612;0.6009;
198.0000;0.1579;0.5985;
198.3000;0.1677;0.6247;
198.6000;0.1612;0.6057;
198.9000;0.1677;0.6271;
199.2000;0.1661;0.6057;
199.5000;0.1595;0.5794;
199.8000;0.1604;0.5866;
200.1000;0.1604;0.5794;
200.4000;0.1579;0.5771;
200.7000;0.1612;0.5890;
201.0000;0.1604;0.5747;
201.3000;0.1612;0.5842;
201.6000;0.1604;0.5818;
201.9000;0.1571;0.5771;
202.2000;0.1604;0.5771;
202.5000;0.1595;0.5794;
202.8000;0.1604;0.5866;
203.1000;0.1595;0.5842;
203.4000;0.1595;0.5771;
203.7000;0.1595;0.5747;
204.0000;0.1555;0.5532;
204.3000;0.1595;0.5675;
204.6000;0.1571;0.5532;
204.9000;0.1677;0.5890;
205.2000;0.1587;0.5604;
205.5000;0.1604;0.5604;
205.8000;0.1595;0.5580;
206.1000;0.1595;0.5580;
206.4000;0.1604;0.5651;
206.7000;0.1628;0.5747;
207.0000;0.1587;0.5723;
207.3000;0.1595;0.5699;
207.6000;0.1498;0.5484;
207.9000;0.1604;0.5699;
208.2000;0.1579;0.5651;
208.5000;0.1571;0.5699;
208.8000;0.1636;0.5818;
209.1000;0.1595;0.5723;
209.4000;0.1595;0.5771;
209.7000;0.1604;0.5794;
210.0000;0.1612;0.5794;
210.3000;0.1677;0.6009;
210.6000;0.1595;0.5842;
210.9000;0.1620;0.5985;
211.2000;0.1620;0.5961;
211.5000;0.1734;0.6247;
211.8000;0.1612;0.5866;
212.1000;0.1604;0.5794;
212.4000;0.1587;0.5794;
212.7000;0.1742;0.6200;
213.0000;0.1563;0.5747;
213.3000;0.1644;0.6033;
213.6000;0.1587;0.5747;
213.9000;0.1587;0.5771;
214.2000;0.1604;0.5771;
214.5000;0.1652;0.5890;
214.8000;0.1571;0.5723;
215.1000;0.1595;0.5842;
215.4000;0.1604;0.5794;
215.7000;0.1579;0.5818;
216.0000;0.1595;0.5818;
216.3000;0.1604;0.5794;
216.6000;0.1579;0.5818;
216.9000;0.1628;0.6057;
217.2000;0.1604;0.5890;
217.5000;0.1587;0.5818;
217.8000;0.1612;0.5866;
218.1000;0.1587;0.5723;
218.4000;0.1571;0.5675;
218.7000;0.1661;0.5937;
219.0000;0.1579;0.5747;
219.3000;0.1604;0.5771;
219.6000;0.1652;0.5937;
219.9000;0.1612;0.5842;
220.2000;0.1563;0.5723;
220.5000;0.1612;0.5866;
220.8000;0.1587;0.5794;
221.1000;0.1579;0.5818;
221.4000;0.1620;0.5961;
221.7000;0.1555;0.5794;
222.0000;0.1620;0.5937;
222.3000;0.1579;0.5842;
222.6000;0.1571;0.5866;
222.9000;0.1595;0.5937;
223.2000;0.1595;0.5866;
223.5000;0.1604;0.5818;
223.8000;0.1595;0.5675;
224.1000;0.1661;0.5818;
224.4000;0.1604;0.5651;
224.7000;0.1669;0.5914;
225.0000;0.1612;0.5794;
225.3000;0.1587;0.5675;
225.6000;0.1604;0.5723;
225.9000;0.1612;0.5747;
226.2000;0.1579;0.5723;
226.5000;0.1587;0.5699;
226.8000;0.1604;0.5818;
227.1000;0.1595;0.5818;
227.4000;0.1595;0.5818;
227.7000;0.1587;0.5771;
228.0000;0.1595;0.5818;
228.3000;0.1571;0.5794;
228.6000;0.1481;0.5580;
228.9000;0.1587;0.5890;
229.2000;0.1579;0.5818;
229.5000;0.1563;0.5699;
229.8000;0.1579;0.5747;
230.1000;0.1587;0.5794;
230.4000;0.1514;0.5675;
230.7000;0.1595;0.5914;
231.0000;0.1514;0.5627;
231.3000;0.1612;0.5890;
231.6000;0.1579;0.5818;
231.9000;0.1587;0.5818;
232.2000;0.1595;0.5842;
232.5000;0.1595;0.5794;
232.8000;0.1669;0.5961;
233.1000;0.1595;0.5723;
233.4000;0.1595;0.5794;
233.7000;0.1604;0.5842;
234.0000;0.1595;0.5866;
234.3000;0.1587;0.5771;
234.6000;0.1587;0.5794;
234.9000;0.1620;0.5842;
235.2000;0.1595;0.5747;
235.5000;0.1661;0.5866;
235.8000;0.1587;0.5699;
236.1000;0.1579;0.5651;
236.4000;0.1579;0.5651;
236.7000;0.1555;0.5556;
237.0000;0.1522;0.5508;
237.3000;0.1604;0.5890;
237.6000;0.1555;0.5723;
237.9000;0.1604;0.5818;
238.2000;0.1563;0.5771;
238.5000;0.1579;0.5771;
238.8000;0.1595;0.5747;
239.1000;0.1587;0.5747;
239.4000;0.1604;0.5794;
239.7000;0.1555;0.5771;
240.0000;0.1612;0.5985;
240.3000;0.1587;0.5937;
240.6000;0.1604;0.5866;
240.9000;0.1571;0.5842;
241.2000;0.1538;0.5794;
241.5000;0.1571;0.5818;
241.8000;0.1587;0.5866;
242.1000;0.1587;0.5794;
242.4000;0.1571;0.5747;
242.7000;0.1587;0.5771;
243.0000;0.1587;0.5794;
243.3000;0.1587;0.5818;
243.6000;0.1612;0.5818;
243.9000;0.1595;0.5794;
244.2000;0.1620;0.5866;
244.5000;0.1563;0.5699;
244.8000;0.1604;0.5771;
245.1000;0.1595;0.5747;
245.4000;0.1628;0.5818;
245.7000;0.1620;0.5771;
246.0000;0.1612;0.5747;
246.3000;0.1718;0.5985;
246.6000;0.1587;0.5627;
246.9000;0.1571;0.5604;
247.2000;0.1587;0.5604;
247.5000;0.1587;0.5556;
247.8000;0.1595;0.5508;
248.1000;0.1579;0.5484;
248.4000;0.1604;0.5532;
248.7000;0.1604;0.5604;
249.0000;0.1612;0.5627;
249.3000;0.1612;0.5580;
249.6000;0.1587;0.5461;
249.9000;0.1604;0.5556;
250.2000;0.1595;0.5580;
250.5000;0.1595;0.5580;
250.8000;0.1595;0.5556;
251.1000;0.1612;0.5580;
251.4000;0.1587;0.5532;
251.7000;0.1595;0.5580;
252.0000;0.1620;0.5580;
252.3000;0.1571;0.5461;
252.6000;0.1563;0.5437;
252.9000;0.1595;0.5556;
253.2000;0.1595;0.5580;
253.5000;0.1579;0.5580;
253.8000;0.1620;0.5604;
254.1000;0.1547;0.5461;
254.4000;0.1604;0.5675;
254.7000;0.1595;0.5675;
255.0000;0.1628;0.5723;
255.3000;0.1579;0.5532;
255.6000;0.1628;0.5651;
255.9000;0.1522;0.5437;
256.2000;0.1571;0.5627;
256.5000;0.1587;0.5604;
256.8000;0.1579;0.5627;
257.1000;0.1644;0.5771;
257.4000;0.1595;0.5747;
257.7000;0.1604;0.5699;
258.0000;0.1579;0.5651;
258.3000;0.1604;0.5818;
258.6000;0.1579;0.5771;
258.9000;0.1579;0.5842;
259.2000;0.1587;0.5890;
259.5000;0.1612;0.5961;
259.8000;0.1579;0.5961;
260.1000;0.1587;0.5914;
260.4000;0.1579;0.5818;
260.7000;0.1604;0.5866;
261.0000;0.1595;0.5842;
261.3000;0.1579;0.5914;
261.6000;0.1604;0.5890;
261.9000;0.1587;0.5890;
262.2000;0.1571;0.5794;
262.5000;0.1579;0.5842;
262.8000;0.1571;0.5771;
263.1000;0.1604;0.5866;
263.4000;0.1595;0.5866;
263.7000;0.1644;0.5914;
264.0000;0.1595;0.5723;
264.3000;0.1587;0.5651;
264.6000;0.1595;0.5723;
264.9000;0.1595;0.5699;
265.2000;0.1612;0.5580;
265.5000;0.1595;0.5651;
265.8000;0.1587;0.5675;
266.1000;0.1587;0.5651;
266.4000;0.1595;0.5675;
266.7000;0.1587;0.5771;
267.0000;0.1595;0.5771;
267.3000;0.1595;0.5818;
267.6000;0.1636;0.5961;
267.9000;0.1620;0.5914;
268.2000;0.1579;0.5771;
268.5000;0.1612;0.5771;
268.8000;0.1579;0.5627;
269.1000;0.1604;0.5651;
269.4000;0.1587;0.5627;
269.7000;0.1563;0.5580;
270.0000;0.1579;0.5627;
270.3000;0.1652;0.5771;
270.6000;0.1571;0.5604;
270.9000;0.1636;0.5675;
271.2000;0.1587;0.5532;
271.5000;0.1595;0.5556;
271.8000;0.1587;0.5461;
272.1000;0.1587;0.5556;
272.4000;0.1587;0.5580;
272.7000;0.1571;0.5627;
273.0000;0.1701;0.5961;
273.3000;0.1538;0.5651;
273.6000;0.1571;0.5771;
273.9000;0.1579;0.5794;
274.2000;0.1563;0.5794;
274.5000;0.1587;0.5866;
274.8000;0.1595;0.5985;
275.1000;0.1587;0.5937;
275.4000;0.1571;0.5890;
275.7000;0.1587;0.5937;
276.0000;0.1579;0.5914;
276.3000;0.1604;0.5937;
276.6000;0.1628;0.6057;
276.9000;0.1612;0.6104;
277.2000;0.1587;0.6081;
277.5000;0.1530;0.5914;
277.8000;0.1571;0.6104;
278.1000;0.1555;0.6009;
278.4000;0.1530;0.5842;
278.7000;0.1604;0.5937;
279.0000;0.1579;0.5866;
279.3000;0.1579;0.5818;
279.6000;0.1587;0.5747;
279.9000;0.1547;0.5675;
280.2000;0.1595;0.5866;
280.5000;0.1579;0.5985;
280.8000;0.1563;0.5914;
281.1000;0.1595;0.5914;
281.4000;0.1587;0.5818;
281.7000;0.1595;0.5961;
282.0000;0.1571;0.5747;
282.3000;0.1595;0.5818;
282.6000;0.1587;0.5723;
282.9000;0.1579;0.5723;
283.2000;0.1579;0.5771;
283.5000;0.1571;0.5771;
283.8000;0.1563;0.5723;
284.1000;0.1604;0.5818;
284.4000;0.1563;0.5794;
284.7000;0.1652;0.6104;
285.0000;0.1595;0.5937;
285.3000;0.1579;0.5961;
285.6000;0.1636;0.6081;
285.9000;0.1571;0.5961;
286.2000;0.1571;0.6081;
286.5000;0.1522;0.5914;
286.8000;0.1587;0.6033;
287.1000;0.1587;0.6009;
287.4000;0.1604;0.6081;
287.7000;0.1620;0.6081;
288.0000;0.1620;0.6128;
288.3000;0.1587;0.6081;
288.6000;0.1604;0.6104;
288.9000;0.1612;0.6152;
289.2000;0.1579;0.6033;
289.5000;0.1587;0.6033;
289.8000;0.1612;0.6104;
290.1000;0.1612;0.6081;
290.4000;0.1587;0.6033;
290.7000;0.1612;0.6152;
291.0000;0.1571;0.6057;
291.3000;0.1579;0.6057;
291.6000;0.1587;0.6104;
291.9000;0.1620;0.6081;
292.2000;0.1563;0.6057;
292.5000;0.1579;0.6033;
292.8000;0.1620;0.6081;
293.1000;0.1595;0.5914;
293.4000;0.1538;0.5794;
293.7000;0.1587;0.5890;
294.0000;0.1677;0.6081;
294.3000;0.1628;0.5937;
294.6000;0.1612;0.5794;
294.9000;0.1587;0.5771;
295.2000;0.1563;0.5794;
295.5000;0.1587;0.5937;
295.8000;0.1579;0.5866;
296.1000;0.1595;0.5914;
296.4000;0.1587;0.5794;
296.7000;0.1612;0.5914;
297.0000;0.1595;0.5985;
297.3000;0.1579;0.5842;
297.6000;0.1579;0.5818;
297.9000;0.1563;0.5842;
298.2000;0.1595;0.5890;
298.5000;0.1620;0.5961;
298.8000;0.1604;0.5961;
299.1000;0.1579;0.5890;
299.4000;0.1612;0.6009;
299.7000;0.1595;0.5961;
300.0000;0.1587;0.5937;
300.3000;0.1595;0.5937;
300.6000;0.1563;0.5890;
300.9000;0.1579;0.5937;
301.2000;0.1522;0.5794;
301.5000;0.1612;0.6009;
301.8000;0.1579;0.5961;
302.1000;0.1604;0.5985;
302.4000;0.1571;0.5866;
302.7000;0.1587;0.5985;
303.0000;0.1604;0.6057;
303.3000;0.1587;0.6009;
303.6000;0.1563;0.5937;
303.9000;0.1587;0.5961;
304.2000;0.1612;0.6057;
304.5000;0.1604;0.6057;
304.8000;0.1522;0.5794;
305.1000;0.1595;0.5961;
305.4000;0.1587;0.5937;
305.7000;0.1587;0.5985;
306.0000;0.1587;0.5985;
306.3000;0.1595;0.5937;
306.6000;0.1547;0.5842;
306.9000;0.1595;0.5914;
307.2000;0.1571;0.5794;
307.5000;0.1579;0.5794;
307.8000;0.1571;0.5890;
308.1000;0.1555;0.5818;
308.4000;0.1620;0.5985;
308.7000;0.1612;0.6033;
309.0000;0.1587;0.6033;
309.3000;0.1571;0.5937;
309.6000;0.1587;0.5890;
309.9000;0.1587;0.5914;
310.2000;0.1644;0.5985;
310.5000;0.1604;0.5985;
310.8000;0.1579;0.6057;
311.1000;0.1595;0.6081;
311.4000;0.1579;0.6057;
311.7000;0.1612;0.6104;
312.0000;0.1595;0.5985;
312.3000;0.1587;0.6033;
312.6000;0.1563;0.6081;
312.9000;0.1563;0.6104;
313.2000;0.1579;0.6081;
313.5000;0.1604;0.6104;
313.8000;0.1620;0.6081;
314.1000;0.1685;0.6247;
314.4000;0.1522;0.5818;
314.7000;0.1571;0.5890;
315.0000;0.1595;0.5866;
315.3000;0.1587;0.5818;
315.6000;0.1563;0.5723;
315.9000;0.1538;0.5699;
316.2000;0.1587;0.5818;
316.5000;0.1587;0.5842;
316.8000;0.1555;0.5723;
317.1000;0.1587;0.5771;
317.4000;0.1595;0.5747;
317.7000;0.1587;0.5747;
318.0000;0.1481;0.5413;
318.3000;0.1579;0.5651;
318.6000;0.1571;0.5675;
318.9000;0.1587;0.5675;
319.2000;0.1587;0.5771;
319.5000;0.1595;0.5771;
319.8000;0.1620;0.5890;
320.1000;0.1604;0.5866;
320.4000;0.1604;0.5818;
320.7000;0.1636;0.5794;
321.0000;0.1604;0.5675;
321.3000;0.1595;0.5699;
321.6000;0.1644;0.5747;
321.9000;0.1587;0.5747;
322.2000;0.1604;0.5771;
322.5000;0.1595;0.5771;
322.8000;0.1571;0.5747;
323.1000;0.1579;0.5747;
323.4000;0.1595;0.5651;
323.7000;0.1595;0.5723;
324.0000;0.1571;0.5723;
324.3000;0.1571;0.5747;
324.6000;0.1587;0.5818;
324.9000;0.1612;0.5937;
325.2000;0.1587;0.5890;
325.5000;0.1595;0.5961;
325.8000;0.1595;0.5937;
326.1000;0.1604;0.5985;
326.4000;0.1620;0.6009;
326.7000;0.1587;0.5794;
327.0000;0.1661;0.5937;
327.3000;0.1571;0.5818;
327.6000;0.1571;0.5699;
327.9000;0.1595;0.5747;
328.2000;0.1579;0.5747;
328.5000;0.1587;0.5794;
328.8000;0.1547;0.5723;
329.1000;0.1595;0.5866;
329.4000;0.1514;0.5723;
329.7000;0.1595;0.5937;
330.0000;0.1604;0.5866;
330.3000;0.1685;0.6033;
330.6000;0.1595;0.5771;
330.9000;0.1595;0.5771;
331.2000;0.1571;0.5723;
331.5000;0.1604;0.5818;
331.8000;0.1571;0.5771;
332.1000;0.1587;0.5771;
332.4000;0.1579;0.5747;
332.7000;0.1571;0.5723;
333.0000;0.1530;0.5651;
333.3000;0.1587;0.5842;
333.6000;0.1595;0.5794;
333.9000;0.1579;0.5771;
334.2000;0.1555;0.5842;
334.5000;0.1579;0.5866;
334.8000;0.1579;0.5842;
335.1000;0.1579;0.5771;
335.4000;0.1587;0.5842;
335.7000;0.1571;0.5794;
336.0000;0.1612;0.5866;
336.3000;0.1579;0.5771;
336.6000;0.1579;0.5890;
336.9000;0.1587;0.5890;
337.2000;0.1587;0.5961;
337.5000;0.1547;0.5961;
337.8000;0.1587;0.6009;
338.1000;0.1587;0.6009;
338.4000;0.1587;0.5985;
338.7000;0.1579;0.5890;
339.0000;0.1685;0.6128;
339.3000;0.1571;0.5771;
339.6000;0.1595;0.5890;
339.9000;0.1587;0.5866;
340.2000;0.1587;0.5890;
340.5000;0.1563;0.5818;
340.8000;0.1734;0.6343;
341.1000;0.1587;0.6033;
341.4000;0.1579;0.6009;
341.7000;0.1685;0.6247;
342.0000;0.1587;0.5937;
342.3000;0.1595;0.5937;
342.6000;0.1628;0.6009;
342.9000;0.1587;0.5842;
343.2000;0.1612;0.5866;
343.5000;0.1612;0.5842;
343.8000;0.1595;0.5842;
344.1000;0.1595;0.5818;
344.4000;0.1563;0.5890;
344.7000;0.1563;0.5842;
345.0000;0.1612;0.6009;
345.3000;0.1579;0.5818;
345.6000;0.1538;0.5675;
345.9000;0.1644;0.6057;
346.2000;0.1628;0.6104;
346.5000;0.1579;0.5985;
346.8000;0.1547;0.5890;
347.1000;0.1587;0.6033;
347.4000;0.1612;0.6009;
347.7000;0.1595;0.5985;
348.0000;0.1644;0.6081;
348.3000;0.1595;0.5937;
348.6000;0.1604;0.5985;
348.9000;0.1579;0.5890;
349.2000;0.1612;0.5985;
349.5000;0.1555;0.5794;
349.8000;0.1636;0.5961;
350.1000;0.1587;0.5866;
350.4000;0.1563;0.5842;
350.7000;0.1555;0.5914;
351.0000;0.1571;0.5985;
351.3000;0.1587;0.5937;
351.6000;0.1579;0.5866;
351.9000;0.1579;0.5890;
352.2000;0.1587;0.5985;
352.5000;0.1579;0.5961;
352.8000;0.1652;0.6104;
353.1000;0.1612;0.5961;
353.4000;0.1595;0.5937;
353.7000;0.1579;0.5937;
354.0000;0.1595;0.5937;
354.3000;0.1604;0.5890;
354.6000;0.1563;0.5747;
354.9000;0.1620;0.5866;
355.2000;0.1604;0.5794;
355.5000;0.1587;0.5842;
355.8000;0.1579;0.5771;
356.1000;0.1587;0.5771;
356.4000;0.1595;0.5842;
356.7000;0.1538;0.5627;
357.0000;0.1571;0.5794;
357.3000;0.1571;0.5818;
357.6000;0.1579;0.5866;
357.9000;0.1612;0.5961;
358.2000;0.1587;0.5961;
358.5000;0.1587;0.5961;
358.8000;0.1595;0.6009;
359.1000;0.1563;0.5985;
359.4000;0.1636;0.6176;
359.7000;0.1587;0.6009;
360.0000;0.1579;0.6033;
360.3000;0.1604;0.6081;
360.6000;0.1547;0.5961;
360.9000;0.1587;0.6009;
361.2000;0.1636;0.6009;
361.5000;0.1595;0.5866;
361.8000;0.1571;0.5794;
362.1000;0.1579;0.5818;
362.4000;0.1481;0.5604;
362.7000;0.1612;0.5937;
363.0000;0.1620;0.6009;
363.3000;0.1563;0.5914;
363.6000;0.1587;0.5985;
363.9000;0.1661;0.6128;
364.2000;0.1595;0.5890;
364.5000;0.1604;0.5937;
364.8000;0.1628;0.6033;
365.1000;0.1571;0.5937;
365.4000;0.1620;0.6033;
365.7000;0.1644;0.6104;
366.0000;0.1595;0.5961;
366.3000;0.1620;0.5985;
366.6000;0.1555;0.5937;
366.9000;0.1604;0.6057;
367.2000;0.1628;0.6009;
367.5000;0.1604;0.6033;
367.8000;0.1612;0.6009;
368.1000;0.1571;0.6009;
368.4000;0.1555;0.5818;
368.7000;0.1669;0.6033;
369.0000;0.1571;0.5818;
369.3000;0.1595;0.5937;
369.6000;0.1595;0.5914;
369.9000;0.1579;0.5842;
370.2000;0.1522;0.5651;
370.5000;0.1604;0.5890;
370.8000;0.1555;0.5794;
371.1000;0.1595;0.5890;
371.4000;0.1579;0.5794;
371.7000;0.1587;0.5866;
372.0000;0.1661;0.6033;
372.3000;0.1579;0.5842;
372.6000;0.1587;0.5818;
372.9000;0.1587;0.5818;
373.2000;0.1612;0.5818;
373.5000;0.1571;0.5627;
373.8000;0.1604;0.5723;
374.1000;0.1579;0.5747;
374.4000;0.1587;0.5818;
374.7000;0.1595;0.5914;
375.0000;0.1595;0.5866;
375.3000;0.1587;0.5794;
375.6000;0.1571;0.5699;
375.9000;0.1612;0.5818;
376.2000;0.1579;0.5794;
376.5000;0.1579;0.5842;
376.8000;0.1612;0.5842;
377.1000;0.1579;0.5723;
377.4000;0.1587;0.5723;
377.7000;0.1587;0.5771;
378.0000;0.1595;0.5723;
378.3000;0.1595;0.5627;
378.6000;0.1579;0.5699;
378.9000;0.1604;0.5771;
379.2000;0.1579;0.5794;
379.5000;0.1587;0.5794;
379.8000;0.1628;0.5914;
380.1000;0.1563;0.5699;
380.4000;0.1579;0.5723;
380.7000;0.1595;0.5771;
381.0000;0.1595;0.5818;
381.3000;0.1587;0.5890;
381.6000;0.1563;0.5818;
381.9000;0.1587;0.5937;
382.2000;0.1595;0.5961;
382.5000;0.1587;0.5914;
382.8000;0.1604;0.5914;
383.1000;0.1579;0.5890;
383.4000;0.1579;0.5794;
383.7000;0.1579;0.5771;
384.0000;0.1595;0.5818;
384.3000;0.1571;0.5818;
384.6000;0.1587;0.5890;
384.9000;0.1595;0.5866;
385.2000;0.1612;0.5866;
385.5000;0.1587;0.5914;
385.8000;0.1595;0.5937;
386.1000;0.1547;0.5818;
386.4000;0.1587;0.5961;
386.7000;0.1595;0.5961;
387.0000;0.1579;0.5914;
387.3000;0.1620;0.6057;
387.6000;0.1555;0.5794;
387.9000;0.1571;0.5866;
388.2000;0.1661;0.6009;
388.5000;0.1587;0.5890;
388.8000;0.1595;0.6009;
389.1000;0.1604;0.6033;
389.4000;0.1563;0.5914;
389.7000;0.1587;0.5914;
390.0000;0.1595;0.5890;
390.3000;0.1587;0.5794;
390.6000;0.1612;0.5914;
390.9000;0.1563;0.5723;
391.2000;0.1587;0.5747;
391.5000;0.1595;0.5699;
391.8000;0.1587;0.5675;
392.1000;0.1587;0.5699;
392.4000;0.1595;0.5723;
392.7000;0.1571;0.5699;
393.0000;0.1587;0.5842;
393.3000;0.1587;0.5842;
393.6000;0.1595;0.5914;
393.9000;0.1604;0.5890;
394.2000;0.1555;0.5699;
394.5000;0.1595;0.5771;
394.8000;0.1579;0.5651;
395.1000;0.1571;0.5675;
395.4000;0.1587;0.5794;
395.7000;0.1563;0.5747;
396.0000;0.1587;0.5890;
396.3000;0.1490;0.5604;
396.6000;0.1595;0.5842;
396.9000;0.1579;0.5842;
397.2000;0.1473;0.5675;
397.5000;0.1587;0.6009;
397.8000;0.1587;0.5985;
398.1000;0.1587;0.5866;
398.4000;0.1587;0.5914;
398.7000;0.1563;0.5866;
399.0000;0.1604;0.6009;
399.3000;0.1595;0.5961;
399.6000;0.1587;0.5818;
399.9000;0.1587;0.5937;
400.2000;0.1579;0.5985;
400.5000;0.1498;0.5771;
400.8000;0.1579;0.5961;
401.1000;0.1587;0.5937;
401.4000;0.1595;0.5890;
401.7000;0.1595;0.5961;
402.0000;0.1612;0.6009;
402.3000;0.1604;0.6081;
402.6000;0.1612;0.6009;
402.9000;0.1587;0.5961;
403.2000;0.1595;0.5937;
403.5000;0.1595;0.5937;
403.8000;0.1587;0.5937;
404.1000;0.1587;0.5937;
404.4000;0.1579;0.5890;
404.7000;0.1579;0.5914;
405.0000;0.1604;0.5985;
405.3000;0.1579;0.6009;
405.6000;0.1563;0.6009;
405.9000;0.1587;0.5985;
406.2000;0.1571;0.5961;
406.5000;0.1612;0.6200;
406.8000;0.1579;0.6057;
407.1000;0.1563;0.6033;
407.4000;0.1571;0.6033;
407.7000;0.1595;0.6081;
408.0000;0.1604;0.6104;
408.3000;0.1595;0.6128;
408.6000;0.1563;0.6081;
408.9000;0.1604;0.6176;
409.2000;0.1587;0.6104;
409.5000;0.1579;0.6081;
409.8000;0.1563;0.5985;
410.1000;0.1579;0.6009;
410.4000;0.1579;0.5961;
410.7000;0.1604;0.5937;
411.0000;0.1587;0.5866;
411.3000;0.1652;0.6104;
411.6000;0.1579;0.5890;
411.9000;0.1579;0.5866;
412.2000;0.1473;0.5651;
412.5000;0.1587;0.5866;
412.8000;0.1587;0.5890;
413.1000;0.1595;0.5914;
413.4000;0.1595;0.5937;
413.7000;0.1604;0.5937;
414.0000;0.1571;0.5747;
414.3000;0.1604;0.5866;
414.6000;0.1595;0.5842;
414.9000;0.1587;0.5771;
415.2000;0.1628;0.5937;
415.5000;0.1587;0.5794;
415.8000;0.1604;0.5818;
416.1000;0.1587;0.5818;
416.4000;0.1579;0.5914;
416.7000;0.1587;0.5890;
417.0000;0.1563;0.5818;
417.3000;0.1579;0.5866;
417.6000;0.1579;0.5866;
417.9000;0.1571;0.5890;
418.2000;0.1587;0.5914;
418.5000;0.1604;0.5985;
418.8000;0.1612;0.5985;
419.1000;0.1547;0.5914;
419.4000;0.1620;0.6128;
419.7000;0.1587;0.6104;
420.0000;0.1571;0.6009;
420.3000;0.1538;0.5842;
420.6000;0.1579;0.5914;
420.9000;0.1644;0.6128;
421.2000;0.1579;0.5890;
421.5000;0.1481;0.5651;
421.8000;0.1579;0.5914;
422.1000;0.1612;0.6057;
422.4000;0.1718;0.6343;
422.7000;0.1506;0.5794;
423.0000;0.1604;0.6033;
423.3000;0.1522;0.5842;
423.6000;0.1604;0.6033;
423.9000;0.1587;0.5985;
424.2000;0.1579;0.5914;
424.5000;0.1595;0.5937;
424.8000;0.1579;0.5937;
425.1000;0.1595;0.5914;
425.4000;0.1587;0.5914;
425.7000;0.1563;0.5818;
426.0000;0.1595;0.5890;
426.3000;0.1595;0.5937;
426.6000;0.1571;0.5747;
426.9000;0.1595;0.5818;
427.2000;0.1587;0.5842;
427.5000;0.1595;0.6009;
427.8000;0.1579;0.5985;
428.1000;0.1587;0.6009;
428.4000;0.1579;0.5961;
428.7000;0.1604;0.6009;
429.0000;0.1604;0.5985;
429.3000;0.1595;0.5985;
429.6000;0.1587;0.5937;
429.9000;0.1587;0.5890;
430.2000;0.1571;0.5842;
430.5000;0.1579;0.5818;
430.8000;0.1636;0.5818;
431.1000;0.1604;0.5771;
431.4000;0.1579;0.5723;
431.7000;0.1587;0.5651;
432.0000;0.1628;0.5818;
432.3000;0.1563;0.5651;
432.6000;0.1587;0.5794;
432.9000;0.1595;0.5937;
433.2000;0.1571;0.5866;
433.5000;0.1587;0.5866;
433.8000;0.1595;0.5914;
434.1000;0.1604;0.6009;
434.4000;0.1579;0.5914;
434.7000;0.1538;0.5771;
435.0000;0.1547;0.5842;
435.3000;0.1612;0.6009;
435.6000;0.1555;0.5937;
435.9000;0.1571;0.5961;
436.2000;0.1538;0.5794;
436.5000;0.1604;0.5985;
436.8000;0.1522;0.5794;
437.1000;0.1612;0.6057;
437.4000;0.1587;0.5914;
437.7000;0.1571;0.5842;
438.0000;0.1571;0.5818;
438.3000;0.1587;0.5794;
438.6000;0.1587;0.5818;
438.9000;0.1595;0.5961;
439.2000;0.1555;0.5937;
439.5000;0.1612;0.6033;
439.8000;0.1506;0.5818;
440.1000;0.1587;0.5937;
440.4000;0.1587;0.5890;
440.7000;0.1579;0.5961;
441.0000;0.1604;0.5961;
441.3000;0.1595;0.5890;
441.6000;0.1587;0.5842;
441.9000;0.1530;0.5699;
442.2000;0.1579;0.5842;
442.5000;0.1587;0.5842;
442.8000;0.1669;0.6081;
443.1000;0.1538;0.5723;
443.4000;0.1595;0.5866;
443.7000;0.1571;0.5747;
444.0000;0.1693;0.6033;
444.3000;0.1571;0.5723;
444.6000;0.1579;0.5771;
444.9000;0.1587;0.5818;
445.2000;0.1579;0.5890;
445.5000;0.1538;0.5723;
445.8000;0.1538;0.5723;
446.1000;0.1563;0.5747;
446.4000;0.1620;0.5914;
446.7000;0.1595;0.5747;
447.0000;0.1595;0.5699;
447.3000;0.1612;0.5818;
447.6000;0.1563;0.5651;
447.9000;0.1620;0.5842;
448.2000;0.1579;0.5818;
448.5000;0.1571;0.5842;
448.8000;0.1555;0.5866;
449.1000;0.1579;0.5961;
449.4000;0.1595;0.5985;
449.7000;0.1579;0.5937;
450.0000;0.1579;0.6033;
450.3000;0.1579;0.5985;
450.6000;0.1579;0.5961;
450.9000;0.1604;0.5914;
451.2000;0.1636;0.5961;
451.5000;0.1579;0.5842;
451.8000;0.1587;0.5914;
452.1000;0.1595;0.5890;
452.4000;0.1587;0.5866;
452.7000;0.1547;0.5818;
453.0000;0.1595;0.5866;
453.3000;0.1595;0.5842;
453.6000;0.1571;0.5675;
453.9000;0.1595;0.5723;
454.2000;0.1612;0.5794;
454.5000;0.1595;0.5794;
454.8000;0.1571;0.5818;
455.1000;0.1579;0.5747;
455.4000;0.1587;0.5794;
455.7000;0.1628;0.5866;
456.0000;0.1587;0.5818;
456.3000;0.1620;0.5890;
456.6000;0.1595;0.5818;
456.9000;0.1595;0.5771;
457.2000;0.1579;0.5675;
457.5000;0.1587;0.5627;
457.8000;0.1579;0.5556;
458.1000;0.1579;0.5651;
458.4000;0.1530;0.5532;
458.7000;0.1514;0.5484;
459.0000;0.1612;0.5771;
459.3000;0.1530;0.5532;
459.6000;0.1587;0.5627;
459.9000;0.1538;0.5484;
460.2000;0.1587;0.5580;
460.5000;0.1571;0.5580;
460.8000;0.1595;0.5651;
461.1000;0.1514;0.5484;
461.4000;0.1701;0.5866;
461.7000;0.1547;0.5604;
462.0000;0.1571;0.5604;
462.3000;0.1612;0.5723;
462.6000;0.1571;0.5580;
462.9000;0.1587;0.5699;
463.2000;0.1587;0.5699;
463.5000;0.1571;0.5699;
463.8000;0.1547;0.5675;
464.1000;0.1579;0.5818;
464.4000;0.1595;0.5794;
464.7000;0.1498;0.5556;
465.0000;0.1579;0.5842;
465.3000;0.1612;0.5914;
465.6000;0.1595;0.5890;
465.9000;0.1563;0.5747;
466.2000;0.1579;0.5818;
466.5000;0.1595;0.5914;
466.8000;0.1530;0.5675;
467.1000;0.1530;0.5651;
467.4000;0.1571;0.5818;
467.7000;0.1555;0.5818;
468.0000;0.1530;0.5747;
468.3000;0.1563;0.5890;
468.6000;0.1579;0.5890;
468.9000;0.1612;0.5914;
469.2000;0.1563;0.5794;
469.5000;0.1620;0.5985;
469.8000;0.1595;0.5818;
470.1000;0.1612;0.5842;
470.4000;0.1595;0.5723;
470.7000;0.1563;0.5604;
471.0000;0.1579;0.5651;
471.3000;0.1571;0.5747;
471.6000;0.1571;0.5890;
471.9000;0.1587;0.5842;
472.2000;0.1579;0.5842;
472.5000;0.1587;0.5818;
472.8000;0.1604;0.5890;
473.1000;0.1587;0.5794;
473.4000;0.1587;0.5842;
473.7000;0.1636;0.5961;
474.0000;0.1563;0.5747;
474.3000;0.1587;0.5699;
474.6000;0.1595;0.5723;
474.9000;0.1612;0.5747;
475.2000;0.1563;0.5580;
475.5000;0.1579;0.5627;
475.8000;0.1587;0.5556;
476.1000;0.1587;0.5604;
476.4000;0.1595;0.5675;
476.7000;0.1579;0.5723;
477.0000;0.1579;0.5651;
477.3000;0.1579;0.5627;
477.6000;0.1587;0.5651;
477.9000;0.1555;0.5627;
478.2000;0.1595;0.5651;
478.5000;0.1595;0.5699;
478.8000;0.1587;0.5771;
479.1000;0.1612;0.5914;
479.4000;0.1579;0.5890;
479.7000;0.1587;0.5937;
480.0000;0.1571;0.5937;
480.3000;0.1604;0.5914;
480.6000;0.1595;0.5914;
480.9000;0.1595;0.5937;
481.2000;0.1473;0.5508;
481.5000;0.1587;0.5794;
481.8000;0.1604;0.5866;
482.1000;0.1481;0.5532;
482.4000;0.1465;0.5532;
482.7000;0.1661;0.5937;
483.0000;0.1652;0.6009;
483.3000;0.1400;0.5365;
483.6000;0.1595;0.5914;
483.9000;0.1587;0.5961;
484.2000;0.1604;0.6081;
484.5000;0.1595;0.6128;
484.8000;0.1604;0.6128;
485.1000;0.1644;0.6224;
485.4000;0.1587;0.5985;
485.7000;0.1595;0.6033;
486.0000;0.1628;0.6104;
486.3000;0.1571;0.5914;
486.6000;0.1579;0.5937;
486.9000;0.1579;0.5961;
487.2000;0.1498;0.5842;
487.5000;0.1563;0.5961;
487.8000;0.1579;0.5985;
488.1000;0.1587;0.5961;
488.4000;0.1571;0.5842;
488.7000;0.1571;0.5747;
489.0000;0.1652;0.5961;
489.3000;0.1595;0.5794;
489.6000;0.1587;0.5699;
489.9000;0.1563;0.5675;
490.2000;0.1604;0.5675;
490.5000;0.1579;0.5627;
490.8000;0.1579;0.5723;
491.1000;0.1579;0.5794;
491.4000;0.1587;0.5771;
491.7000;0.1587;0.5794;
492.0000;0.1571;0.5842;
492.3000;0.1571;0.5914;
492.6000;0.1571;0.5842;
492.9000;0.1587;0.5914;
493.2000;0.1579;0.5842;
493.5000;0.1587;0.5771;
493.8000;0.1595;0.5914;
494.1000;0.1563;0.5794;
494.4000;0.1604;0.5914;
494.7000;0.1563;0.5771;
495.0000;0.1579;0.5866;
495.3000;0.1587;0.5985;
495.6000;0.1612;0.6033;
495.9000;0.1587;0.6033;
496.2000;0.1612;0.6033;
496.5000;0.1579;0.6033;
496.8000;0.1563;0.5985;
497.1000;0.1604;0.6033;
497.4000;0.1579;0.5985;
497.7000;0.1595;0.5937;
498.0000;0.1555;0.5890;
498.3000;0.1571;0.5937;
498.6000;0.1579;0.5985;
498.9000;0.1579;0.5985;
499.2000;0.1587;0.6033;
499.5000;0.1587;0.6104;
499.8000;0.1612;0.6128;
500.1000;0.1612;0.6033;
500.4000;0.1595;0.6033;
500.7000;0.1604;0.6057;
501.0000;0.1636;0.6128;
501.3000;0.1595;0.6009;
501.6000;0.1587;0.6009;
501.9000;0.1473;0.5651;
502.2000;0.1579;0.5985;
502.5000;0.1579;0.6104;
502.8000;0.1595;0.6176;
503.1000;0.1538;0.5985;
503.4000;0.1555;0.5985;
503.7000;0.1449;0.5699;
504.0000;0.1604;0.6104;
504.3000;0.1595;0.6033;
504.6000;0.1587;0.5937;
504.9000;0.1595;0.5842;
505.2000;0.1579;0.5771;
505.5000;0.1481;0.5484;
505.8000;0.1587;0.5794;
506.1000;0.1563;0.5723;
506.4000;0.1628;0.5866;
506.7000;0.1620;0.5747;
507.0000;0.1579;0.5699;
507.3000;0.1587;0.5747;
507.6000;0.1595;0.5794;
507.9000;0.1579;0.5651;
508.2000;0.1587;0.5747;
508.5000;0.1571;0.5675;
508.8000;0.1579;0.5651;
509.1000;0.1661;0.5890;
509.4000;0.1595;0.5699;
509.7000;0.1595;0.5699;
510.0000;0.1628;0.5890;
510.3000;0.1595;0.5818;
510.6000;0.1595;0.5842;
510.9000;0.1579;0.5890;
511.2000;0.1604;0.5890;
511.5000;0.1587;0.5937;
511.8000;0.1595;0.5937;
512.1000;0.1620;0.6104;
512.4000;0.1595;0.5985;
512.7000;0.1571;0.5937;
513.0000;0.1579;0.6033;
513.3000;0.1579;0.6128;
513.6000;0.1587;0.6128;
513.9000;0.1571;0.6033;
514.2000;0.1587;0.6104;
514.5000;0.1587;0.6081;
514.8000;0.1579;0.6009;
515.1000;0.1579;0.6081;
515.4000;0.1595;0.6128;
515.7000;0.1547;0.6009;
516.0000;0.1587;0.6104;
516.3000;0.1587;0.6009;
516.6000;0.1587;0.6033;
516.9000;0.1620;0.6128;
517.2000;0.1595;0.6033;
517.5000;0.1701;0.6319;
517.8000;0.1604;0.6104;
518.1000;0.1579;0.6033;
518.4000;0.1579;0.6033;
518.7000;0.1579;0.5985;
519.0000;0.1579;0.6057;
519.3000;0.1579;0.6009;
519.6000;0.1604;0.6104;
519.9000;0.1595;0.6081;
520.2000;0.1587;0.5985;
520.5000;0.1579;0.6033;
520.8000;0.1595;0.6057;
521.1000;0.1563;0.6033;
521.4000;0.1604;0.6081;
521.7000;0.1514;0.5842;
522.0000;0.1612;0.6033;
522.3000;0.1587;0.5985;
522.6000;0.1555;0.5937;
522.9000;0.1579;0.5937;
523.2000;0.1612;0.6081;
523.5000;0.1563;0.6033;
523.8000;0.1563;0.5914;
524.1000;0.1587;0.6033;
524.4000;0.1579;0.5914;
524.7000;0.1571;0.5866;
525.0000;0.1579;0.5914;
525.3000;0.1571;0.5914;
525.6000;0.1579;0.5842;
525.9000;0.1547;0.5699;
526.2000;0.1587;0.5937;
526.5000;0.1555;0.5890;
526.8000;0.1579;0.5961;
527.1000;0.1587;0.5985;
527.4000;0.1595;0.6057;
527.7000;0.1693;0.6462;
528.0000;0.1587;0.6152;
528.3000;0.1579;0.6081;
528.6000;0.1587;0.6033;
528.9000;0.1661;0.6319;
529.2000;0.1587;0.6128;
529.5000;0.1604;0.6104;
529.8000;0.1620;0.6247;
530.1000;0.1587;0.6104;
530.4000;0.1571;0.6081;
530.7000;0.1579;0.6057;
531.0000;0.1587;0.5985;
531.3000;0.1579;0.5961;
531.6000;0.1555;0.5914;
531.9000;0.1571;0.5985;
532.2000;0.1555;0.5961;
532.5000;0.1571;0.5985;
532.8000;0.1587;0.6033;
533.1000;0.1661;0.6200;
533.4000;0.1587;0.5890;
533.7000;0.1595;0.5842;
534.0000;0.1587;0.5890;
534.3000;0.1571;0.5818;
534.6000;0.1604;0.5914;
534.9000;0.1587;0.5937;
535.2000;0.1587;0.5985;
535.5000;0.1563;0.5914;
535.8000;0.1555;0.5961;
536.1000;0.1604;0.6033;
536.4000;0.1530;0.5842;
536.7000;0.1579;0.5842;
537.0000;0.1530;0.5699;
537.3000;0.1579;0.5842;
537.6000;0.1547;0.5723;
537.9000;0.1587;0.5794;
538.2000;0.1587;0.5818;
538.5000;0.1587;0.5866;
538.8000;0.1587;0.5890;
539.1000;0.1587;0.6009;
539.4000;0.1595;0.5914;
539.7000;0.1636;0.5914;
540.0000;0.1579;0.5699;
540.3000;0.1498;0.5532;
540.6000;0.1595;0.5937;
540.9000;0.1595;0.6033;
541.2000;0.1595;0.6152;
541.5000;0.1579;0.6057;
541.8000;0.1571;0.5937;
542.1000;0.1612;0.6081;
542.4000;0.1563;0.6033;
542.7000;0.1612;0.6152;
543.0000;0.1587;0.6033;
543.3000;0.1563;0.5937;
543.6000;0.1595;0.6057;
543.9000;0.1587;0.6057;
544.2000;0.1604;0.6033;
544.5000;0.1587;0.5985;
544.8000;0.1563;0.5914;
545.1000;0.1563;0.5961;
545.4000;0.1555;0.5985;
545.7000;0.1538;0.5914;
546.0000;0.1595;0.6081;
546.3000;0.1587;0.6152;
546.6000;0.1538;0.6128;
546.9000;0.1595;0.6104;
547.2000;0.1587;0.6081;
547.5000;0.1652;0.6200;
547.8000;0.1587;0.6081;
548.1000;0.1587;0.6057;
548.4000;0.1571;0.6057;
548.7000;0.1555;0.6009;
549.0000;0.1587;0.6152;
549.3000;0.1571;0.6128;
549.6000;0.1595;0.6128;
549.9000;0.1620;0.6271;
550.2000;0.1595;0.6200;
550.5000;0.1571;0.6152;
550.8000;0.1579;0.6224;
551.1000;0.1571;0.6224;
551.4000;0.1604;0.6295;
551.7000;0.1587;0.6271;
552.0000;0.1604;0.6224;
552.3000;0.1571;0.6176;
552.6000;0.1571;0.6176;
552.9000;0.1587;0.6033;
553.2000;0.1595;0.6081;
553.5000;0.1587;0.6152;
553.8000;0.1579;0.6104;
554.1000;0.1604;0.6176;
554.4000;0.1587;0.6128;
554.7000;0.1571;0.6081;
555.0000;0.1587;0.6176;
555.3000;0.1595;0.6057;
555.6000;0.1604;0.6009;
555.9000;0.1571;0.5914;
556.2000;0.1563;0.5866;
556.5000;0.1555;0.5937;
556.8000;0.1587;0.6081;
557.1000;0.1587;0.6152;
557.4000;0.1587;0.6128;
557.7000;0.1595;0.6104;
558.0000;0.1587;0.6104;
558.3000;0.1579;0.6033;
558.6000;0.1587;0.5985;
558.9000;0.1579;0.5985;
559.2000;0.1595;0.5985;
559.5000;0.1604;0.6081;
559.8000;0.1571;0.6057;
560.1000;0.1579;0.6057;
560.4000;0.1587;0.6057;
560.7000;0.1587;0.6033;
561.0000;0.1571;0.6033;
561.3000;0.1579;0.6081;
561.6000;0.1579;0.6033;
561.9000;0.1587;0.6033;
562.2000;0.1595;0.6104;
562.5000;0.1587;0.6128;
562.8000;0.1587;0.6224;
563.1000;0.1579;0.6200;
563.4000;0.1571;0.6176;
563.7000;0.1579;0.6200;
564.0000;0.1571;0.6152;
564.3000;0.1555;0.6104;
564.6000;0.1579;0.6200;
564.9000;0.1563;0.6176;
565.2000;0.1563;0.6152;
565.5000;0.1555;0.6152;
565.8000;0.1579;0.6176;
566.1000;0.1555;0.6128;
566.4000;0.1587;0.6128;
566.7000;0.1579;0.6200;
567.0000;0.1530;0.6128;
567.3000;0.1579;0.6271;
567.6000;0.1530;0.6176;
567.9000;0.1579;0.6319;
568.2000;0.1604;0.6319;
568.5000;0.1392;0.5747;
568.8000;0.1571;0.6152;
569.1000;0.1538;0.6081;
569.4000;0.1604;0.6152;
569.7000;0.1579;0.6152;
570.0000;0.1555;0.6104;
570.3000;0.1571;0.6128;
570.6000;0.1481;0.5937;
570.9000;0.1579;0.6176;
571.2000;0.1579;0.6152;
571.5000;0.1579;0.6128;
571.8000;0.1587;0.6057;
572.1000;0.1595;0.6009;
572.4000;0.1571;0.6009;
572.7000;0.1587;0.6057;
573.0000;0.1579;0.6057;
573.3000;0.1498;0.5866;
573.6000;0.1612;0.6128;
573.9000;0.1693;0.6343;
574.2000;0.1563;0.6009;
574.5000;0.1587;0.6081;
574.8000;0.1587;0.6152;
575.1000;0.1530;0.5937;
575.4000;0.1628;0.6247;
575.7000;0.1457;0.5699;
576.0000;0.1652;0.6271;
576.3000;0.1595;0.6128;
576.6000;0.1547;0.6057;
576.9000;0.1587;0.6104;
577.2000;0.1538;0.5961;
577.5000;0.1587;0.6057;
577.8000;0.1571;0.6033;
578.1000;0.1579;0.6009;
578.4000;0.1579;0.6081;
578.7000;0.1595;0.6152;
579.0000;0.1595;0.6176;
579.3000;0.1587;0.6104;
579.6000;0.1612;0.6081;
579.9000;0.1587;0.5961;
580.2000;0.1579;0.5914;
580.5000;0.1587;0.5914;
580.8000;0.1571;0.5914;
581.1000;0.1579;0.5914;
581.4000;0.1579;0.5937;
581.7000;0.1555;0.5890;
582.0000;0.1587;0.5890;
582.3000;0.1587;0.5794;
582.6000;0.1604;0.5818;
582.9000;0.1604;0.5866;
583.2000;0.1661;0.6128;
583.5000;0.1571;0.5914;
583.8000;0.1587;0.5985;
584.1000;0.1587;0.5937;
584.4000;0.1587;0.5818;
584.7000;0.1587;0.5794;
585.0000;0.1587;0.5818;
585.3000;0.1538;0.5747;
585.6000;0.1587;0.5818;
585.9000;0.1555;0.5675;
586.2000;0.1563;0.5699;
586.5000;0.1465;0.5461;
586.8000;0.1579;0.5794;
587.1000;0.1571;0.5794;
587.4000;0.1604;0.5818;
587.7000;0.1587;0.5842;
588.0000;0.1612;0.5866;
588.3000;0.1579;0.5771;
588.6000;0.1563;0.5627;
588.9000;0.1579;0.5604;
589.2000;0.1587;0.5675;
589.5000;0.1555;0.5604;
589.8000;0.1563;0.5627;
590.1000;0.1620;0.5699;
590.4000;0.1587;0.5604;
590.7000;0.1628;0.5794;
591.0000;0.1506;0.5484;
591.3000;0.1595;0.5699;
591.6000;0.1571;0.5675;
591.9000;0.1555;0.5556;
592.2000;0.1571;0.5699;
592.5000;0.1587;0.5723;
592.8000;0.1628;0.5818;
593.1000;0.1604;0.5794;
593.4000;0.1587;0.5747;
593.7000;0.1547;0.5675;
594.0000;0.1604;0.5866;
594.3000;0.1571;0.5866;
594.6000;0.1604;0.5937;
594.9000;0.1579;0.5961;
595.2000;0.1587;0.6009;
595.5000;0.1587;0.6009;
595.8000;0.1612;0.5985;
596.1000;0.1579;0.5890;
596.4000;0.1579;0.5866;
596.7000;0.1595;0.5985;
597.0000;0.1547;0.5914;
597.3000;0.1579;0.5866;
597.6000;0.1595;0.5914;
597.9000;0.1685;0.6152;
598.2000;0.1661;0.6152;
598.5000;0.1579;0.5937;
598.8000;0.1636;0.6081;
599.1000;0.1571;0.5866;
599.4000;0.1628;0.5985;
599.7000;0.1563;0.5771;
600.0000;0.1563;0.5794;
600.3000;0.1595;0.5747;
600.6000;0.1595;0.5747;
600.9000;0.1587;0.5651;
601.2000;0.1555;0.5627;
601.5000;0.1555;0.5508;
601.8000;0.1587;0.5532;
602.1000;0.1620;0.5580;
602.4000;0.1522;0.5222;
602.7000;0.1661;0.5461;
603.0000;0.1563;0.5079;
603.3000;0.1555;0.4960;
603.6000;0.1538;0.4912;
603.9000;0.1563;0.4936;
604.2000;0.1530;0.4817;
604.5000;0.1579;0.4912;
604.8000;0.1555;0.4817;
605.1000;0.1538;0.4721;
605.4000;0.1522;0.4626;
605.7000;0.1530;0.4578;
606.0000;0.1425;0.4149;
606.3000;0.1530;0.4411;
606.6000;0.1514;0.4340;
606.9000;0.1522;0.4388;
607.2000;0.1522;0.4340;
607.5000;0.1522;0.4340;
607.8000;0.1522;0.4316;
608.1000;0.1522;0.4388;
608.4000;0.1522;0.4483;
608.7000;0.1530;0.4435;
609.0000;0.1473;0.4268;
609.3000;0.1514;0.4340;
609.6000;0.1498;0.4364;
609.9000;0.1490;0.4340;
610.2000;0.1522;0.4364;
610.5000;0.1538;0.4388;
610.8000;0.1530;0.4411;
611.1000;0.1514;0.4411;
611.4000;0.1506;0.4364;
611.7000;0.1522;0.4435;
612.0000;0.1506;0.4268;
612.3000;0.1514;0.4268;
612.6000;0.1481;0.4149;
612.9000;0.1530;0.4197;
613.2000;0.1498;0.4101;
613.5000;0.1506;0.4149;
613.8000;0.1579;0.4268;
614.1000;0.1506;0.4125;
614.4000;0.1514;0.4221;
614.7000;0.1563;0.4340;
615.0000;0.1571;0.4411;
615.3000;0.1514;0.4268;
615.6000;0.1498;0.4244;
615.9000;0.1473;0.4125;
616.2000;0.1506;0.4221;
616.5000;0.1506;0.4173;
616.8000;0.1449;0.3911;
617.1000;0.1506;0.4101;
617.4000;0.1506;0.4149;
617.7000;0.1506;0.4197;
618.0000;0.1506;0.4244;
618.3000;0.1522;0.4244;
618.6000;0.1530;0.4316;
618.9000;0.1490;0.4268;
619.2000;0.1514;0.4388;
619.5000;0.1506;0.4388;
619.8000;0.1538;0.4340;
620.1000;0.1498;0.4316;
620.4000;0.1514;0.4292;
620.7000;0.1498;0.4173;
621.0000;0.1506;0.4054;
621.3000;0.1506;0.4054;
621.6000;0.1498;0.4054;
621.9000;0.1473;0.4054;
622.2000;0.1530;0.4268;
622.5000;0.1571;0.4388;
622.8000;0.1514;0.4268;
623.1000;0.1449;0.4078;
623.4000;0.1563;0.4411;
623.7000;0.1538;0.4388;
624.0000;0.1498;0.4173;
624.3000;0.1506;0.4244;
624.6000;0.1490;0.4149;
624.9000;0.1498;0.4197;
625.2000;0.1416;0.3982;
625.5000;0.1506;0.4221;
625.8000;0.1498;0.4173;
626.1000;0.1506;0.4173;
626.4000;0.1506;0.4197;
626.7000;0.1498;0.4173;
627.0000;0.1481;0.4149;
627.3000;0.1481;0.4149;
627.6000;0.1465;0.4101;
627.9000;0.1498;0.4244;
628.2000;0.1587;0.4483;
628.5000;0.1457;0.4244;
628.8000;0.1514;0.4316;
629.1000;0.1490;0.4244;
629.4000;0.1563;0.4364;
629.7000;0.1514;0.4316;
630.0000;0.1498;0.4292;
630.3000;0.1498;0.4316;
630.6000;0.1498;0.4316;
630.9000;0.1530;0.4435;
631.2000;0.1490;0.4244;
631.5000;0.1498;0.4340;
631.8000;0.1522;0.4364;
632.1000;0.1514;0.4388;
632.4000;0.1498;0.4411;
632.7000;0.1498;0.4316;
633.0000;0.1498;0.4364;
633.3000;0.1514;0.4411;
633.6000;0.1490;0.4292;
633.9000;0.1481;0.4197;
634.2000;0.1506;0.4268;
634.5000;0.1514;0.4292;
634.8000;0.1498;0.4340;
635.1000;0.1498;0.4292;
635.4000;0.1481;0.4244;
635.7000;0.1506;0.4292;
636.0000;0.1506;0.4388;
636.3000;0.1481;0.4340;
636.6000;0.1498;0.4435;
636.9000;0.1514;0.4411;
637.2000;0.1481;0.4316;
637.5000;0.1498;0.4340;
637.8000;0.1425;0.4101;
638.1000;0.1530;0.4316;
638.4000;0.1506;0.4292;
638.7000;0.1514;0.4292;
639.0000;0.1506;0.4197;
639.3000;0.1490;0.4221;
639.6000;0.1490;0.4197;
639.9000;0.1506;0.4173;
640.2000;0.1473;0.4197;
640.5000;0.1449;0.4101;
640.8000;0.1522;0.4268;
641.1000;0.1473;0.4149;
641.4000;0.1498;0.4149;
641.7000;0.1481;0.4197;
642.0000;0.1481;0.4221;
642.3000;0.1514;0.4316;
642.6000;0.1506;0.4268;
642.9000;0.1506;0.4244;
643.2000;0.1530;0.4340;
643.5000;0.1506;0.4268;
643.8000;0.1481;0.4244;
644.1000;0.1490;0.4292;
644.4000;0.1481;0.4292;
644.7000;0.1522;0.4292;
645.0000;0.1506;0.4173;
645.3000;0.1490;0.4268;
645.6000;0.1506;0.4411;
645.9000;0.1481;0.4340;
646.2000;0.1490;0.4411;
646.5000;0.1498;0.4411;
646.8000;0.1490;0.4364;
647.1000;0.1506;0.4411;
647.4000;0.1514;0.4364;
647.7000;0.1506;0.4244;
648.0000;0.1498;0.4292;
648.3000;0.1490;0.4268;
648.6000;0.1506;0.4316;
648.9000;0.1538;0.4388;
649.2000;0.1595;0.4531;
649.5000;0.1514;0.4388;
649.8000;0.1514;0.4411;
650.1000;0.1490;0.4435;
650.4000;0.1506;0.4507;
650.7000;0.1481;0.4388;
651.0000;0.1547;0.4578;
651.3000;0.1498;0.4435;
651.6000;0.1498;0.4364;
651.9000;0.1498;0.4435;
652.2000;0.1490;0.4411;
652.5000;0.1465;0.4388;
652.8000;0.1481;0.4340;
653.1000;0.1490;0.4316;
653.4000;0.1522;0.4411;
653.7000;0.1481;0.4364;
654.0000;0.1498;0.4459;
654.3000;0.1506;0.4459;
654.6000;0.1522;0.4435;
654.9000;0.1530;0.4340;
655.2000;0.1498;0.4268;
655.5000;0.1498;0.4292;
655.8000;0.1498;0.4364;
656.1000;0.1506;0.4388;
656.4000;0.1481;0.4292;
656.7000;0.1498;0.4411;
657.0000;0.1465;0.4435;
657.3000;0.1498;0.4435;
657.6000;0.1481;0.4411;
657.9000;0.1498;0.4435;
658.2000;0.1481;0.4411;
658.5000;0.1498;0.4388;
658.8000;0.1506;0.4411;
659.1000;0.1498;0.4364;
659.4000;0.1490;0.4316;
659.7000;0.1457;0.4125;
660.0000;0.1555;0.4459;
660.3000;0.1498;0.4268;
660.6000;0.1490;0.4316;
660.9000;0.1473;0.4149;
661.2000;0.1498;0.4244;
661.5000;0.1473;0.4244;
661.8000;0.1571;0.4507;
662.1000;0.1490;0.4197;
662.4000;0.1490;0.4173;
662.7000;0.1473;0.4101;
663.0000;0.1473;0.4149;
663.3000;0.1481;0.4173;
663.6000;0.1661;0.4626;
663.9000;0.1498;0.4268;
664.2000;0.1498;0.4173;
664.5000;0.1506;0.4244;
664.8000;0.1506;0.4244;
665.1000;0.1522;0.4268;
665.4000;0.1498;0.4197;
665.7000;0.1481;0.4221;
666.0000;0.1457;0.4149;
666.3000;0.1506;0.4244;
666.6000;0.1514;0.4268;
666.9000;0.1506;0.4292;
667.2000;0.1481;0.4268;
667.5000;0.1498;0.4316;
667.8000;0.1514;0.4435;
668.1000;0.1408;0.4125;
668.4000;0.1506;0.4388;
668.7000;0.1481;0.4364;
669.0000;0.1481;0.4340;
669.3000;0.1506;0.4364;
669.6000;0.1490;0.4221;
669.9000;0.1490;0.4221;
670.2000;0.1498;0.4197;
670.5000;0.1481;0.4197;
670.8000;0.1506;0.4292;
671.1000;0.1498;0.4221;
671.4000;0.1498;0.4244;
671.7000;0.1514;0.4292;
672.0000;0.1490;0.4316;
672.3000;0.1441;0.4101;
672.6000;0.1530;0.4340;
672.9000;0.1685;0.4721;
673.2000;0.1506;0.4221;
673.5000;0.1481;0.4173;
673.8000;0.1498;0.4173;
674.1000;0.1522;0.4244;
674.4000;0.1481;0.4221;
674.7000;0.1498;0.4244;
675.0000;0.1449;0.4125;
675.3000;0.1490;0.4221;
675.6000;0.1449;0.4054;
675.9000;0.1498;0.4149;
676.2000;0.1473;0.4149;
676.5000;0.1498;0.4244;
676.8000;0.1514;0.4292;
677.1000;0.1604;0.4602;
677.4000;0.1490;0.4197;
677.7000;0.1473;0.4173;
678.0000;0.1506;0.4173;
678.3000;0.1506;0.4078;
678.6000;0.1490;0.4149;
678.9000;0.1481;0.4030;
679.2000;0.1481;0.3887;
679.5000;0.1481;0.3863;
679.8000;0.1481;0.3791;
680.1000;0.1490;0.3911;
680.4000;0.1481;0.3887;
680.7000;0.1514;0.3911;
681.0000;0.1490;0.3839;
681.3000;0.1481;0.3934;
681.6000;0.1506;0.4054;
681.9000;0.1490;0.4078;
682.2000;0.1481;0.4101;
682.5000;0.1465;0.4054;
682.8000;0.1473;0.4054;
683.1000;0.1514;0.4244;
683.4000;0.1416;0.4006;
683.7000;0.1498;0.4173;
684.0000;0.1620;0.4459;
684.3000;0.1490;0.4125;
684.6000;0.1457;0.4101;
684.9000;0.1473;0.4125;
685.2000;0.1465;0.4101;
685.5000;0.1490;0.4125;
685.8000;0.1514;0.4197;
686.1000;0.1506;0.4221;
686.4000;0.1498;0.4054;
686.7000;0.1457;0.3958;
687.0000;0.1498;0.4030;
687.3000;0.1506;0.4054;
687.6000;0.1433;0.3934;
687.9000;0.1498;0.4101;
688.2000;0.1555;0.4244;
688.5000;0.1530;0.4078;
688.8000;0.1530;0.4125;
689.1000;0.1490;0.4101;
689.4000;0.1392;0.3887;
689.7000;0.1490;0.4149;
690.0000;0.1498;0.4268;
690.3000;0.1538;0.4435;
690.6000;0.1473;0.4197;
690.9000;0.1620;0.4554;
691.2000;0.1595;0.4411;
691.5000;0.1425;0.4006;
691.8000;0.1473;0.4054;
692.1000;0.1498;0.4054;
692.4000;0.1498;0.4006;
692.7000;0.1490;0.3911;
693.0000;0.1481;0.3815;
693.3000;0.1376;0.3672;
693.6000;0.1506;0.4030;
693.9000;0.1449;0.3839;
694.2000;0.1595;0.4221;
694.5000;0.1473;0.4030;
694.8000;0.1498;0.4173;
695.1000;0.1498;0.4149;
695.4000;0.1506;0.4125;
695.7000;0.1465;0.3958;
696.0000;0.1498;0.4101;
696.3000;0.1514;0.4101;
696.6000;0.1498;0.4078;
696.9000;0.1400;0.3768;
697.2000;0.1514;0.4173;
697.5000;0.1644;0.4459;
697.8000;0.1481;0.4054;
698.1000;0.1408;0.3887;
698.4000;0.1498;0.4173;
698.7000;0.1498;0.4149;
699.0000;0.1449;0.3911;
699.3000;0.1490;0.4078;
699.6000;0.1473;0.4054;
699.9000;0.1490;0.4101;
700.2000;0.1481;0.4078;
700.5000;0.1481;0.4078;
700.8000;0.1481;0.4101;
701.1000;0.1498;0.4149;
701.4000;0.1465;0.4054;
701.7000;0.1481;0.4101;
702.0000;0.1473;0.4101;
702.3000;0.1481;0.4149;
702.6000;0.1465;0.3982;
702.9000;0.1498;0.4054;
703.2000;0.1498;0.4054;
703.5000;0.1449;0.3863;
703.8000;0.1498;0.4030;
704.1000;0.1481;0.3934;
704.4000;0.1481;0.3887;
704.7000;0.1481;0.3839;
705.0000;0.1498;0.3887;
705.3000;0.1481;0.3911;
705.6000;0.1490;0.4078;
705.9000;0.1490;0.4030;
706.2000;0.1465;0.3911;
706.5000;0.1473;0.3863;
706.8000;0.1457;0.3839;
707.1000;0.1490;0.3934;
707.4000;0.1481;0.3911;
707.7000;0.1498;0.4149;
708.0000;0.1498;0.4173;
708.3000;0.1490;0.4221;
708.6000;0.1490;0.4173;
708.9000;0.1490;0.4149;
709.2000;0.1490;0.4101;
709.5000;0.1481;0.4197;
709.8000;0.1498;0.4197;
710.1000;0.1473;0.4101;
710.4000;0.1522;0.4244;
710.7000;0.1498;0.4101;
711.0000;0.1506;0.4101;
711.3000;0.1473;0.4054;
711.6000;0.1490;0.4030;
711.9000;0.1498;0.4006;
712.2000;0.1490;0.3982;
712.5000;0.1514;0.4101;
712.8000;0.1457;0.4030;
713.1000;0.1506;0.4173;
713.4000;0.1473;0.4078;
713.7000;0.1530;0.4173;
714.0000;0.1498;0.4173;
714.3000;0.1465;0.4125;
714.6000;0.1612;0.4507;
714.9000;0.1490;0.4101;
715.2000;0.1522;0.4221;
715.5000;0.1490;0.4054;
715.8000;0.1481;0.3982;
716.1000;0.1481;0.3982;
716.4000;0.1498;0.4101;
716.7000;0.1481;0.4197;
717.0000;0.1481;0.4125;
717.3000;0.1384;0.3958;
717.6000;0.1457;0.4173;
717.9000;0.1514;0.4292;
718.2000;0.1563;0.4435;
718.5000;0.1498;0.4268;
718.8000;0.1465;0.4197;
719.1000;0.1473;0.4197;
719.4000;0.1555;0.4340;
719.7000;0.1481;0.4244;
720.0000;0.1481;0.4244;
720.3000;0.1490;0.4364;
720.6000;0.1514;0.4364;
720.9000;0.1481;0.4268;
721.2000;0.1506;0.4268;
721.5000;0.1473;0.4173;
721.8000;0.1473;0.4078;
722.1000;0.1506;0.4221;
722.4000;0.1514;0.4244;
722.7000;0.1481;0.4125;
723.0000;0.1498;0.4149;
723.3000;0.1481;0.4221;
723.6000;0.1506;0.4340;
723.9000;0.1481;0.4221;
724.2000;0.1490;0.4197;
724.5000;0.1498;0.4149;
724.8000;0.1506;0.4221;
725.1000;0.1384;0.3815;
725.4000;0.1506;0.4030;
725.7000;0.1506;0.4054;
726.0000;0.1522;0.4101;
726.3000;0.1522;0.4078;
726.6000;0.1506;0.4030;
726.9000;0.1473;0.3934;
727.2000;0.1490;0.3958;
727.5000;0.1490;0.4078;
727.8000;0.1506;0.4101;
728.1000;0.1490;0.3911;
728.4000;0.1465;0.3887;
728.7000;0.1465;0.3958;
729.0000;0.1473;0.3887;
729.3000;0.1514;0.3934;
729.6000;0.1490;0.3934;
729.9000;0.1473;0.3958;
730.2000;0.1530;0.4078;
730.5000;0.1473;0.3934;
730.8000;0.1498;0.4006;
731.1000;0.1522;0.4078;
731.4000;0.1514;0.4078;
731.7000;0.1538;0.4054;
732.0000;0.1490;0.4006;
732.3000;0.1490;0.4078;
732.6000;0.1441;0.3982;
732.9000;0.1490;0.4101;
733.2000;0.1481;0.4125;
733.5000;0.1514;0.4078;
733.8000;0.1514;0.4054;
734.1000;0.1481;0.3958;
734.4000;0.1449;0.3982;
734.7000;0.1481;0.4054;
735.0000;0.1490;0.4149;
735.3000;0.1441;0.4054;
735.6000;0.1490;0.4149;
735.9000;0.1498;0.4149;
736.2000;0.1514;0.4173;
736.5000;0.1514;0.4197;
736.8000;0.1457;0.4054;
737.1000;0.1514;0.4125;
737.4000;0.1490;0.4006;
737.7000;0.1490;0.3982;
738.0000;0.1473;0.3839;
738.3000;0.1498;0.4006;
738.6000;0.1498;0.3934;
738.9000;0.1522;0.4030;
739.2000;0.1514;0.3982;
739.5000;0.1481;0.3911;
739.8000;0.1506;0.3934;
740.1000;0.1506;0.4054;
740.4000;0.1465;0.3934;
740.7000;0.1490;0.4030;
741.0000;0.1481;0.4030;
741.3000;0.1514;0.4054;
741.6000;0.1522;0.4101;
741.9000;0.1490;0.4078;
742.2000;0.1498;0.4101;
742.5000;0.1522;0.4101;
742.8000;0.1522;0.4149;
743.1000;0.1506;0.4149;
743.4000;0.1490;0.4149;
743.7000;0.1481;0.4078;
744.0000;0.1490;0.4101;
744.3000;0.1481;0.4101;
744.6000;0.1514;0.4149;
744.9000;0.1522;0.4101;
745.2000;0.1514;0.4125;
745.5000;0.1514;0.4173;
745.8000;0.1490;0.4149;
746.1000;0.1514;0.4197;
746.4000;0.1481;0.4125;
746.7000;0.1498;0.4101;
747.0000;0.1384;0.3863;
747.3000;0.1498;0.4101;
747.6000;0.1490;0.4054;
747.9000;0.1514;0.4149;
748.2000;0.1506;0.4101;
748.5000;0.1498;0.4101;
748.8000;0.1481;0.3958;
749.1000;0.1587;0.4244;
749.4000;0.1473;0.3982;
749.7000;0.1498;0.4054;
750.0000;0.1457;0.4054;
750.3000;0.1490;0.4101;
750.6000;0.1506;0.4101;
750.9000;0.1473;0.3958;
751.2000;0.1506;0.4054;
751.5000;0.1498;0.4054;
751.8000;0.1498;0.4078;
752.1000;0.1490;0.3982;
752.4000;0.1473;0.3958;
752.7000;0.1490;0.4030;
753.0000;0.1498;0.4006;
753.3000;0.1498;0.4030;
753.6000;0.1481;0.4054;
753.9000;0.1490;0.4078;
754.2000;0.1506;0.4149;
754.5000;0.1481;0.4101;
754.8000;0.1498;0.4173;
755.1000;0.1457;0.4078;
755.4000;0.1473;0.4078;
755.7000;0.1481;0.4054;
756.0000;0.1449;0.3958;
756.3000;0.1498;0.4101;
756.6000;0.1473;0.3958;
756.9000;0.1490;0.3982;
757.2000;0.1506;0.4054;
757.5000;0.1481;0.4030;
757.8000;0.1506;0.4078;
758.1000;0.1481;0.4030;
758.4000;0.1457;0.3934;
758.7000;0.1392;0.3839;
759.0000;0.1490;0.4149;
759.3000;0.1506;0.4221;
759.6000;0.1563;0.4388;
759.9000;0.1506;0.4244;
760.2000;0.1376;0.3911;
760.5000;0.1457;0.4221;
760.8000;0.1473;0.4316;
761.1000;0.1465;0.4292;
761.4000;0.1514;0.4340;
761.7000;0.1481;0.4316;
762.0000;0.1538;0.4483;
762.3000;0.1506;0.4316;
762.6000;0.1498;0.4268;
762.9000;0.1481;0.4197;
763.2000;0.1498;0.4197;
763.5000;0.1506;0.4173;
763.8000;0.1514;0.4221;
764.1000;0.1481;0.4101;
764.4000;0.1506;0.4173;
764.7000;0.1481;0.4197;
765.0000;0.1408;0.3911;
765.3000;0.1490;0.4125;
765.6000;0.1506;0.4101;
765.9000;0.1506;0.4101;
766.2000;0.1490;0.4078;
766.5000;0.1498;0.4006;
766.8000;0.1498;0.4006;
767.1000;0.1498;0.3958;
767.4000;0.1506;0.4054;
767.7000;0.1498;0.4125;
768.0000;0.1416;0.3863;
768.3000;0.1522;0.4101;
768.6000;0.1506;0.4078;
768.9000;0.1481;0.4078;
769.2000;0.1465;0.4101;
769.5000;0.1506;0.4101;
769.8000;0.1514;0.4244;
770.1000;0.1506;0.4244;
770.4000;0.1498;0.4149;
770.7000;0.1465;0.4268;
771.0000;0.1425;0.4173;
771.3000;0.1481;0.4316;
771.6000;0.1473;0.4173;
771.9000;0.1506;0.4268;
772.2000;0.1433;0.4054;
772.5000;0.1506;0.4244;
772.8000;0.1506;0.4244;
773.1000;0.1441;0.4078;
773.4000;0.1490;0.4149;
773.7000;0.1498;0.4149;
774.0000;0.1490;0.4078;
774.3000;0.1498;0.4197;
774.6000;0.1490;0.4244;
774.9000;0.1473;0.4244;
775.2000;0.1514;0.4364;
775.5000;0.1498;0.4388;
775.8000;0.1514;0.4459;
776.1000;0.1522;0.4531;
776.4000;0.1481;0.4340;
776.7000;0.1498;0.4292;
777.0000;0.1481;0.4125;
777.3000;0.1490;0.4149;
777.6000;0.1498;0.4244;
777.9000;0.1490;0.4221;
778.2000;0.1490;0.4221;
778.5000;0.1490;0.4197;
778.8000;0.1408;0.3958;
779.1000;0.1498;0.4197;
779.4000;0.1498;0.4125;
779.7000;0.1490;0.4197;
780.0000;0.1506;0.4197;
780.3000;0.1506;0.4197;
780.6000;0.1498;0.4221;
780.9000;0.1498;0.4244;
781.2000;0.1481;0.4244;
781.5000;0.1514;0.4268;
781.8000;0.1506;0.4268;
782.1000;0.1514;0.4340;
782.4000;0.1416;0.4149;
782.7000;0.1473;0.4268;
783.0000;0.1506;0.4364;
783.3000;0.1506;0.4483;
783.6000;0.1579;0.4626;
783.9000;0.1490;0.4459;
784.2000;0.1514;0.4340;
784.5000;0.1498;0.4244;
784.8000;0.1481;0.4197;
785.1000;0.1465;0.4125;
785.4000;0.1490;0.4173;
785.7000;0.1514;0.4244;
786.0000;0.1416;0.3982;
786.3000;0.1449;0.4078;
786.6000;0.1384;0.3911;
786.9000;0.1457;0.4006;
787.2000;0.1514;0.4173;
787.5000;0.1490;0.4078;
787.8000;0.1481;0.3982;
788.1000;0.1563;0.4197;
788.4000;0.1465;0.3934;
788.7000;0.1449;0.3982;
789.0000;0.1514;0.4149;
789.3000;0.1538;0.4197;
789.6000;0.1538;0.4221;
789.9000;0.1506;0.4101;
790.2000;0.1481;0.4030;
790.5000;0.1547;0.4268;
790.8000;0.1498;0.4221;
791.1000;0.1506;0.4197;
791.4000;0.1506;0.4244;
791.7000;0.1498;0.4221;
792.0000;0.1473;0.4101;
792.3000;0.1506;0.4221;
792.6000;0.1490;0.4268;
792.9000;0.1506;0.4316;
793.2000;0.1498;0.4292;
793.5000;0.1506;0.4316;
793.8000;0.1481;0.4316;
794.1000;0.1473;0.4268;
794.4000;0.1481;0.4292;
794.7000;0.1506;0.4388;
795.0000;0.1522;0.4483;
795.3000;0.1481;0.4292;
795.6000;0.1506;0.4244;
795.9000;0.1490;0.4197;
796.2000;0.1498;0.4244;
796.5000;0.1490;0.4221;
796.8000;0.1522;0.4221;
797.1000;0.1506;0.4030;
797.4000;0.1473;0.3958;
797.7000;0.1498;0.4101;
798.0000;0.1498;0.4173;
798.3000;0.1473;0.4173;
798.6000;0.1490;0.4221;
798.9000;0.1498;0.4244;
799.2000;0.1481;0.4221;
799.5000;0.1498;0.4268;
799.8000;0.1547;0.4435;
800.1000;0.1473;0.4173;
800.4000;0.1481;0.4244;
800.7000;0.1490;0.4244;
801.0000;0.1498;0.4292;
801.3000;0.1481;0.4268;
801.6000;0.1441;0.4101;
801.9000;0.1506;0.4221;
802.2000;0.1514;0.4197;
802.5000;0.1522;0.4292;
802.8000;0.1612;0.4507;
803.1000;0.1481;0.4054;
803.4000;0.1506;0.4125;
803.7000;0.1530;0.4197;
804.0000;0.1490;0.4078;
804.3000;0.1481;0.4101;
804.6000;0.1587;0.4435;
804.9000;0.1498;0.4149;
805.2000;0.1498;0.4149;
805.5000;0.1490;0.4101;
805.8000;0.1490;0.4173;
806.1000;0.1481;0.4149;
806.4000;0.1506;0.4221;
806.7000;0.1498;0.4244;
807.0000;0.1481;0.4197;
807.3000;0.1498;0.4221;
807.6000;0.1522;0.4173;
807.9000;0.1579;0.4292;
808.2000;0.1587;0.4411;
808.5000;0.1490;0.4221;
808.8000;0.1530;0.4244;
809.1000;0.1506;0.4221;
809.4000;0.1473;0.4316;
809.7000;0.1530;0.4507;
810.0000;0.1514;0.4531;
810.3000;0.1522;0.4554;
810.6000;0.1416;0.4268;
810.9000;0.1441;0.4388;
811.2000;0.1514;0.4578;
811.5000;0.1490;0.4411;
811.8000;0.1449;0.4268;
812.1000;0.1498;0.4268;
812.4000;0.1490;0.4221;
812.7000;0.1498;0.4340;
813.0000;0.1490;0.4221;
813.3000;0.1514;0.4221;
813.6000;0.1498;0.4125;
813.9000;0.1465;0.4030;
814.2000;0.1498;0.4101;
814.5000;0.1514;0.4173;
814.8000;0.1506;0.4221;
815.1000;0.1522;0.4268;
815.4000;0.1514;0.4268;
815.7000;0.1481;0.4173;
816.0000;0.1514;0.4197;
816.3000;0.1506;0.4244;
816.6000;0.1457;0.4078;
816.9000;0.1490;0.4149;
817.2000;0.1506;0.4221;
817.5000;0.1481;0.4268;
817.8000;0.1481;0.4292;
818.1000;0.1514;0.4292;
818.4000;0.1498;0.4316;
818.7000;0.1490;0.4221;
819.0000;0.1595;0.4459;
819.3000;0.1490;0.4197;
819.6000;0.1481;0.4268;
819.9000;0.1514;0.4411;
820.2000;0.1465;0.4292;
820.5000;0.1490;0.4340;
820.8000;0.1490;0.4411;
821.1000;0.1490;0.4316;
821.4000;0.1473;0.4340;
821.7000;0.1506;0.4459;
822.0000;0.1481;0.4364;
822.3000;0.1506;0.4364;
822.6000;0.1555;0.4388;
822.9000;0.1555;0.4364;
823.2000;0.1465;0.4125;
823.5000;0.1457;0.4078;
823.8000;0.1490;0.4149;
824.1000;0.1481;0.4078;
824.4000;0.1490;0.4054;
824.7000;0.1514;0.4125;
825.0000;0.1441;0.4054;
825.3000;0.1498;0.4197;
825.6000;0.1595;0.4435;
825.9000;0.1473;0.4149;
826.2000;0.1481;0.4125;
826.5000;0.1530;0.4197;
826.8000;0.1538;0.4221;
827.1000;0.1498;0.4149;
827.4000;0.1506;0.4173;
827.7000;0.1506;0.4173;
828.0000;0.1473;0.4078;
828.3000;0.1498;0.4125;
828.6000;0.1449;0.4101;
828.9000;0.1506;0.4268;
829.2000;0.1506;0.4244;
829.5000;0.1490;0.4197;
829.8000;0.1490;0.4197;
830.1000;0.1490;0.4244;
830.4000;0.1490;0.4244;
830.7000;0.1498;0.4316;
831.0000;0.1481;0.4268;
831.3000;0.1498;0.4268;
831.6000;0.1498;0.4292;
831.9000;0.1498;0.4292;
832.2000;0.1490;0.4221;
832.5000;0.1465;0.4149;
832.8000;0.1506;0.4268;
833.1000;0.1563;0.4316;
833.4000;0.1490;0.4149;
833.7000;0.1490;0.4197;
834.0000;0.1498;0.4197;
834.3000;0.1481;0.4101;
834.6000;0.1481;0.4054;
834.9000;0.1490;0.4078;
835.2000;0.1490;0.4149;
835.5000;0.1465;0.4054;
835.8000;0.1506;0.4054;
836.1000;0.1514;0.4101;
836.4000;0.1473;0.3958;
836.7000;0.1490;0.4030;
837.0000;0.1490;0.3934;
837.3000;0.1490;0.3982;
837.6000;0.1490;0.3982;
837.9000;0.1481;0.4006;
838.2000;0.1465;0.3863;
838.5000;0.1506;0.4030;
838.8000;0.1498;0.4197;
839.1000;0.1481;0.4173;
839.4000;0.1587;0.4340;
839.7000;0.1498;0.4078;
840.0000;0.1473;0.3958;
840.3000;0.1490;0.3982;
840.6000;0.1465;0.3911;
840.9000;0.1506;0.4149;
841.2000;0.1547;0.4221;
841.5000;0.1498;0.4078;
841.8000;0.1457;0.3958;
842.1000;0.1498;0.4054;
842.4000;0.1481;0.4006;
842.7000;0.1498;0.4006;
843.0000;0.1465;0.3934;
843.3000;0.1579;0.4435;
843.6000;0.1490;0.4221;
843.9000;0.1506;0.4173;
844.2000;0.1498;0.4221;
844.5000;0.1481;0.4101;
844.8000;0.1490;0.4173;
845.1000;0.1449;0.4125;
845.4000;0.1416;0.4078;
845.7000;0.1449;0.4149;
846.0000;0.1481;0.4364;
846.3000;0.1465;0.4316;
846.6000;0.1481;0.4364;
846.9000;0.1473;0.4364;
847.2000;0.1498;0.4340;
847.5000;0.1522;0.4435;
847.8000;0.1490;0.4364;
848.1000;0.1473;0.4268;
848.4000;0.1547;0.4435;
848.7000;0.1498;0.4411;
849.0000;0.1538;0.4507;
849.3000;0.1506;0.4340;
849.6000;0.1555;0.4435;
849.9000;0.1498;0.4340;
850.2000;0.1490;0.4221;
850.5000;0.1465;0.4149;
850.8000;0.1481;0.4149;
851.1000;0.1490;0.4101;
851.4000;0.1490;0.4173;
851.7000;0.1514;0.4244;
852.0000;0.1490;0.4268;
852.3000;0.1522;0.4340;
852.6000;0.1498;0.4268;
852.9000;0.1490;0.4221;
853.2000;0.1465;0.4221;
853.5000;0.1473;0.4268;
853.8000;0.1506;0.4268;
854.1000;0.1473;0.4149;
854.4000;0.1514;0.4197;
854.7000;0.1490;0.4054;
855.0000;0.1498;0.4173;
855.3000;0.1490;0.4149;
855.6000;0.1506;0.4173;
855.9000;0.1481;0.4173;
856.2000;0.1490;0.4125;
856.5000;0.1498;0.4149;
856.8000;0.1473;0.4125;
857.1000;0.1490;0.4078;
857.4000;0.1490;0.4054;
857.7000;0.1473;0.4030;
858.0000;0.1498;0.4101;
858.3000;0.1498;0.4054;
858.6000;0.1506;0.4149;
858.9000;0.1490;0.4173;
859.2000;0.1498;0.4125;
859.5000;0.1498;0.4078;
859.8000;0.1522;0.4149;
860.1000;0.1473;0.3982;
860.4000;0.1457;0.4030;
860.7000;0.1481;0.4149;
861.0000;0.1400;0.3934;
861.3000;0.1473;0.4125;
861.6000;0.1481;0.4173;
861.9000;0.1498;0.4197;
862.2000;0.1481;0.4197;
862.5000;0.1498;0.4292;
862.8000;0.1506;0.4268;
863.1000;0.1555;0.4340;
863.4000;0.1498;0.4125;
863.7000;0.1506;0.4221;
864.0000;0.1514;0.4292;
864.3000;0.1530;0.4411;
864.6000;0.1490;0.4197;
864.9000;0.1465;0.4101;
865.2000;0.1481;0.4078;
865.5000;0.1498;0.4054;
865.8000;0.1498;0.4149;
866.1000;0.1473;0.4054;
866.4000;0.1481;0.4078;
866.7000;0.1473;0.4078;
867.0000;0.1490;0.4101;
867.3000;0.1481;0.4054;
867.6000;0.1490;0.3934;
867.9000;0.1473;0.3934;
868.2000;0.1481;0.3958;
868.5000;0.1465;0.3887;
868.8000;0.1481;0.4006;
869.1000;0.1514;0.4125;
869.4000;0.1481;0.4030;
869.7000;0.1457;0.3982;
870.0000;0.1457;0.3982;
870.3000;0.1473;0.4006;
870.6000;0.1547;0.4244;
870.9000;0.1481;0.4078;
871.2000;0.1514;0.4101;
871.5000;0.1481;0.3982;
871.8000;0.1498;0.4030;
872.1000;0.1498;0.4030;
872.4000;0.1481;0.3863;
872.7000;0.1490;0.3863;
873.0000;0.1490;0.3887;
873.3000;0.1530;0.4006;
873.6000;0.1384;0.3720;
873.9000;0.1490;0.3982;
874.2000;0.1490;0.4006;
874.5000;0.1604;0.4197;
874.8000;0.1506;0.3982;
875.1000;0.1506;0.3982;
875.4000;0.1498;0.3958;
875.7000;0.1465;0.3887;
876.0000;0.1490;0.3958;
876.3000;0.1473;0.3863;
876.6000;0.1563;0.4078;
876.9000;0.1490;0.3982;
877.2000;0.1522;0.4125;
877.5000;0.1490;0.3958;
877.8000;0.1506;0.3887;
878.1000;0.1481;0.3911;
878.4000;0.1473;0.3934;
878.7000;0.1481;0.4030;
879.0000;0.1530;0.4244;
879.3000;0.1490;0.4244;
879.6000;0.1408;0.4030;
879.9000;0.1498;0.4197;
880.2000;0.1571;0.4388;
880.5000;0.1530;0.4316;
880.8000;0.1481;0.4078;
881.1000;0.1473;0.4030;
881.4000;0.1506;0.4101;
881.7000;0.1490;0.4101;
882.0000;0.1481;0.4078;
882.3000;0.1473;0.4054;
882.6000;0.1416;0.3982;
882.9000;0.1490;0.4125;
883.2000;0.1490;0.4054;
883.5000;0.1506;0.4101;
883.8000;0.1498;0.4244;
884.1000;0.1498;0.4197;
884.4000;0.1498;0.4221;
884.7000;0.1465;0.4149;
885.0000;0.1555;0.4388;
885.3000;0.1481;0.4149;
885.6000;0.1481;0.4101;
885.9000;0.1547;0.4268;
886.2000;0.1433;0.3911;
886.5000;0.1498;0.4078;
886.8000;0.1498;0.4125;
887.1000;0.1433;0.3958;
887.4000;0.1506;0.4173;
887.7000;0.1514;0.4149;
888.0000;0.1547;0.4221;
888.3000;0.1506;0.4030;
888.6000;0.1522;0.4149;
888.9000;0.1498;0.4221;
889.2000;0.1433;0.4125;
889.5000;0.1490;0.4292;
889.8000;0.1490;0.4292;
890.1000;0.1514;0.4388;
890.4000;0.1490;0.4316;
890.7000;0.1473;0.4316;
891.0000;0.1473;0.4340;
891.3000;0.1498;0.4459;
891.6000;0.1498;0.4459;
891.9000;0.1490;0.4388;
892.2000;0.1481;0.4292;
892.5000;0.1490;0.4316;
892.8000;0.1490;0.4364;
893.1000;0.1457;0.4316;
893.4000;0.1514;0.4435;
893.7000;0.1490;0.4388;
894.0000;0.1490;0.4435;
894.3000;0.1514;0.4459;
894.6000;0.1498;0.4459;
894.9000;0.1441;0.4197;
895.2000;0.1514;0.4435;
895.5000;0.1514;0.4483;
895.8000;0.1595;0.4602;
896.1000;0.1359;0.4030;
896.4000;0.1514;0.4316;
896.7000;0.1522;0.4316;
897.0000;0.1465;0.4340;
897.3000;0.1490;0.4364;
897.6000;0.1481;0.4340;
897.9000;0.1506;0.4459;
898.2000;0.1506;0.4531;
898.5000;0.1473;0.4459;
898.8000;0.1490;0.4483;
899.1000;0.1506;0.4459;
899.4000;0.1514;0.4435;
899.7000;0.1514;0.4507;
900.0000;0.1522;0.4531;
900.3000;0.1481;0.4411;
900.6000;0.1530;0.4531;
900.9000;0.1498;0.4531;
901.2000;0.1506;0.4602;
901.5000;0.1473;0.4459;
901.8000;0.1498;0.4531;
902.1000;0.1506;0.4507;
902.4000;0.1498;0.4459;
902.7000;0.1433;0.4244;
903.0000;0.1498;0.4364;
903.3000;0.1490;0.4340;
903.6000;0.1498;0.4388;
903.9000;0.1457;0.4364;
904.2000;0.1498;0.4650;
904.5000;0.1457;0.4459;
904.8000;0.1498;0.4531;
905.1000;0.1514;0.4507;
905.4000;0.1498;0.4459;
905.7000;0.1490;0.4483;
906.0000;0.1490;0.4459;
906.3000;0.1547;0.4578;
906.6000;0.1498;0.4411;
906.9000;0.1506;0.4411;
907.2000;0.1368;0.4054;
907.5000;0.1498;0.4316;
907.8000;0.1465;0.4197;
908.1000;0.1490;0.4173;
908.4000;0.1481;0.4221;
908.7000;0.1490;0.4221;
909.0000;0.1579;0.4316;
909.3000;0.1498;0.4125;
909.6000;0.1514;0.4197;
909.9000;0.1530;0.4292;
910.2000;0.1563;0.4364;
910.5000;0.1498;0.4221;
910.8000;0.1433;0.4006;
911.1000;0.1490;0.4125;
911.4000;0.1490;0.4173;
911.7000;0.1604;0.4483;
912.0000;0.1481;0.4244;
912.3000;0.1506;0.4244;
912.6000;0.1498;0.4197;
912.9000;0.1481;0.4149;
913.2000;0.1506;0.4292;
913.5000;0.1498;0.4268;
913.8000;0.1490;0.4149;
914.1000;0.1481;0.4101;
914.4000;0.1481;0.4197;
914.7000;0.1498;0.4221;
915.0000;0.1530;0.4292;
915.3000;0.1498;0.4244;
915.6000;0.1498;0.4292;
915.9000;0.1506;0.4268;
916.2000;0.1506;0.4316;
916.5000;0.1465;0.4244;
916.8000;0.1457;0.4197;
917.1000;0.1490;0.4292;
917.4000;0.1506;0.4268;
917.7000;0.1473;0.4149;
918.0000;0.1481;0.4197;
918.3000;0.1506;0.4244;
918.6000;0.1433;0.4125;
918.9000;0.1498;0.4292;
919.2000;0.1490;0.4244;
919.5000;0.1481;0.4221;
919.8000;0.1506;0.4316;
920.1000;0.1506;0.4244;
920.4000;0.1522;0.4292;
920.7000;0.1392;0.3887;
921.0000;0.1514;0.4125;
921.3000;0.1481;0.4125;
921.6000;0.1530;0.4268;
921.9000;0.1457;0.4101;
922.2000;0.1514;0.4197;
922.5000;0.1522;0.4268;
922.8000;0.1481;0.4221;
923.1000;0.1514;0.4316;
923.4000;0.1490;0.4268;
923.7000;0.1498;0.4340;
924.0000;0.1465;0.4149;
924.3000;0.1481;0.4173;
924.6000;0.1595;0.4531;
924.9000;0.1506;0.4316;
925.2000;0.1498;0.4364;
925.5000;0.1481;0.4388;
925.8000;0.1473;0.4364;
926.1000;0.1522;0.4483;
926.4000;0.1490;0.4244;
926.7000;0.1506;0.4292;
927.0000;0.1490;0.4173;
927.3000;0.1473;0.4197;
927.6000;0.1506;0.4292;
927.9000;0.1490;0.4244;
928.2000;0.1441;0.4173;
928.5000;0.1490;0.4364;
928.8000;0.1506;0.4388;
929.1000;0.1449;0.4292;
929.4000;0.1506;0.4435;
929.7000;0.1481;0.4340;
930.0000;0.1481;0.4292;
930.3000;0.1465;0.4268;
930.6000;0.1506;0.4411;
930.9000;0.1490;0.4411;
931.2000;0.1555;0.4507;
931.5000;0.1498;0.4292;
931.8000;0.1506;0.4316;
932.1000;0.1457;0.4173;
932.4000;0.1465;0.4101;
932.7000;0.1498;0.4173;
933.0000;0.1449;0.4006;
933.3000;0.1506;0.4101;
933.6000;0.1498;0.4149;
933.9000;0.1465;0.4197;
934.2000;0.1514;0.4364;
934.5000;0.1506;0.4340;
934.8000;0.1490;0.4268;
935.1000;0.1498;0.4221;
935.4000;0.1498;0.4221;
935.7000;0.1490;0.4173;
936.0000;0.1490;0.4244;
936.3000;0.1465;0.4221;
936.6000;0.1498;0.4340;
936.9000;0.1498;0.4292;
937.2000;0.1408;0.4078;
937.5000;0.1465;0.4221;
937.8000;0.1514;0.4340;
938.1000;0.1498;0.4340;
938.4000;0.1530;0.4459;
938.7000;0.1498;0.4459;
939.0000;0.1498;0.4507;
939.3000;0.1506;0.4507;
939.6000;0.1481;0.4411;
939.9000;0.1490;0.4316;
940.2000;0.1449;0.4078;
940.5000;0.1473;0.4268;
940.8000;0.1514;0.4316;
941.1000;0.1498;0.4244;
941.4000;0.1498;0.4221;
941.7000;0.1408;0.3934;
942.0000;0.1498;0.4197;
942.3000;0.1547;0.4388;
942.6000;0.1433;0.4078;
942.9000;0.1514;0.4244;
943.2000;0.1490;0.4173;
943.5000;0.1522;0.4340;
943.8000;0.1514;0.4411;
944.1000;0.1498;0.4268;
944.4000;0.1506;0.4340;
944.7000;0.1457;0.4221;
945.0000;0.1563;0.4531;
945.3000;0.1473;0.4292;
945.6000;0.1498;0.4340;
945.9000;0.1473;0.4292;
946.2000;0.1473;0.4268;
946.5000;0.1481;0.4221;
946.8000;0.1498;0.4268;
947.1000;0.1481;0.4292;
947.4000;0.1490;0.4316;
947.7000;0.1473;0.4268;
948.0000;0.1498;0.4292;
948.3000;0.1498;0.4268;
948.6000;0.1498;0.4292;
948.9000;0.1465;0.4244;
949.2000;0.1473;0.4244;
949.5000;0.1514;0.4340;
949.8000;0.1498;0.4292;
950.1000;0.1490;0.4292;
950.4000;0.1506;0.4244;
950.7000;0.1498;0.4292;
951.0000;0.1514;0.4268;
951.3000;0.1498;0.4244;
951.6000;0.1490;0.4292;
951.9000;0.1506;0.4221;
952.2000;0.1498;0.4125;
952.5000;0.1506;0.4197;
952.8000;0.1490;0.4221;
953.1000;0.1465;0.4078;
953.4000;0.1506;0.4149;
953.7000;0.1514;0.4197;
954.0000;0.1514;0.4197;
954.3000;0.1498;0.4197;
954.6000;0.1481;0.4173;
954.9000;0.1506;0.4316;
955.2000;0.1498;0.4316;
955.5000;0.1433;0.4149;
955.8000;0.1563;0.4388;
956.1000;0.1473;0.4221;
956.4000;0.1465;0.4197;
956.7000;0.1490;0.4268;
957.0000;0.1481;0.4316;
957.3000;0.1490;0.4364;
957.6000;0.1392;0.3958;
957.9000;0.1490;0.4244;
958.2000;0.1481;0.4292;
958.5000;0.1498;0.4340;
958.8000;0.1481;0.4292;
959.1000;0.1441;0.4221;
959.4000;0.1506;0.4388;
959.7000;0.1555;0.4459;
960.0000;0.1522;0.4411;
960.3000;0.1490;0.4364;
960.6000;0.1473;0.4221;
960.9000;0.1506;0.4340;
961.2000;0.1571;0.4554;
961.5000;0.1473;0.4316;
961.8000;0.1481;0.4292;
962.1000;0.1514;0.4435;
962.4000;0.1490;0.4411;
962.7000;0.1473;0.4244;
963.0000;0.1425;0.4030;
963.3000;0.1465;0.4244;
963.6000;0.1465;0.4292;
963.9000;0.1498;0.4364;
964.2000;0.1481;0.4292;
964.5000;0.1506;0.4411;
964.8000;0.1498;0.4292;
965.1000;0.1506;0.4268;
965.4000;0.1490;0.4292;
965.7000;0.1441;0.4125;
966.0000;0.1498;0.4244;
966.3000;0.1506;0.4268;
966.6000;0.1498;0.4197;
966.9000;0.1376;0.3863;
967.2000;0.1506;0.4244;
967.5000;0.1514;0.4364;
967.8000;0.1457;0.4197;
968.1000;0.1514;0.4316;
968.4000;0.1481;0.4292;
968.7000;0.1490;0.4268;
969.0000;0.1490;0.4149;
969.3000;0.1506;0.4149;
969.6000;0.1490;0.4149;
969.9000;0.1473;0.4173;
970.2000;0.1481;0.4197;
970.5000;0.1506;0.4244;
970.8000;0.1506;0.4268;
971.1000;0.1481;0.4149;
971.4000;0.1498;0.4197;
971.7000;0.1490;0.4197;
972.0000;0.1481;0.4125;
972.3000;0.1506;0.4125;
972.6000;0.1498;0.4125;
972.9000;0.1506;0.4197;
973.2000;0.1506;0.4221;
973.5000;0.1473;0.4197;
973.8000;0.1506;0.4292;
974.1000;0.1506;0.4292;
974.4000;0.1473;0.4292;
974.7000;0.1449;0.4268;
975.0000;0.1506;0.4316;
975.3000;0.1498;0.4244;
975.6000;0.1473;0.4173;
975.9000;0.1522;0.4268;
976.2000;0.1490;0.4125;
976.5000;0.1506;0.4101;
976.8000;0.1522;0.4173;
977.1000;0.1506;0.4078;
977.4000;0.1498;0.4149;
977.7000;0.1514;0.4125;
978.0000;0.1473;0.4030;
978.3000;0.1490;0.4221;
978.6000;0.1457;0.4078;
978.9000;0.1449;0.4006;
979.2000;0.1522;0.4197;
979.5000;0.1498;0.4101;
979.8000;0.1392;0.3696;
980.1000;0.1481;0.3911;
980.4000;0.1490;0.3982;
980.7000;0.1498;0.4006;
981.0000;0.1506;0.3982;
981.3000;0.1506;0.4030;
981.6000;0.1547;0.4125;
981.9000;0.1506;0.4054;
982.2000;0.1555;0.4197;
982.5000;0.1449;0.3934;
982.8000;0.1498;0.4006;
983.1000;0.1514;0.3958;
983.4000;0.1498;0.3934;
983.7000;0.1506;0.3934;
984.0000;0.1506;0.3982;
984.3000;0.1490;0.3982;
984.6000;0.1612;0.4316;
984.9000;0.1514;0.4101;
985.2000;0.1530;0.4054;
985.5000;0.1473;0.4030;
985.8000;0.1490;0.4078;
986.1000;0.1498;0.4149;
986.4000;0.1490;0.4149;
986.7000;0.1498;0.4101;
987.0000;0.1498;0.4125;
987.3000;0.1506;0.4078;
987.6000;0.1416;0.3958;
987.9000;0.1481;0.4054;
988.2000;0.1506;0.4030;
988.5000;0.1498;0.3982;
988.8000;0.1506;0.3982;
989.1000;0.1563;0.4125;
989.4000;0.1490;0.3934;
989.7000;0.1522;0.4054;
990.0000;0.1433;0.3887;
990.3000;0.1498;0.4197;
990.6000;0.1498;0.4101;
990.9000;0.1498;0.4101;
991.2000;0.1490;0.4054;
991.5000;0.1457;0.3934;
991.8000;0.1473;0.4054;
992.1000;0.1538;0.4316;
992.4000;0.1506;0.4340;
992.7000;0.1457;0.4197;
993.0000;0.1490;0.4173;
993.3000;0.1514;0.4221;
993.6000;0.1555;0.4316;
993.9000;0.1563;0.4364;
994.2000;0.1490;0.4125;
994.5000;0.1416;0.3863;
994.8000;0.1473;0.4149;
995.1000;0.1441;0.4030;
995.4000;0.1490;0.4221;
995.7000;0.1481;0.4173;
996.0000;0.1530;0.4197;
996.3000;0.1481;0.4101;
996.6000;0.1465;0.4149;
996.9000;0.1498;0.4221;
997.2000;0.1481;0.4125;
997.5000;0.1530;0.4149;
997.8000;0.1498;0.3982;
998.1000;0.1563;0.4101;
998.4000;0.1481;0.3887;
998.7000;0.1506;0.3887;
999.0000;0.1490;0.3815;
999.3000;0.1490;0.3815;
999.6000;0.1498;0.3911;
999.9000;0.1490;0.3958;
1000.2000;0.1498;0.3887;
1000.5000;0.1481;0.3863;
1000.8000;0.1490;0.3887;
1001.1000;0.1368;0.3601;
1001.4000;0.1473;0.3863;
1001.7000;0.1473;0.3791;
1002.0000;0.1498;0.3744;
1002.3000;0.1490;0.3720;
1002.6000;0.1498;0.3768;
1002.9000;0.1522;0.3911;
1003.2000;0.1490;0.3863;
1003.5000;0.1498;0.3982;
1003.8000;0.1425;0.3720;
1004.1000;0.1506;0.4030;
1004.4000;0.1506;0.3982;
1004.7000;0.1498;0.3887;
1005.0000;0.1498;0.3815;
1005.3000;0.1481;0.3648;
1005.6000;0.1604;0.4006;
1005.9000;0.1506;0.3768;
1006.2000;0.1425;0.3553;
1006.5000;0.1522;0.3887;
1006.8000;0.1490;0.3863;
1007.1000;0.1481;0.3934;
1007.4000;0.1490;0.4054;
1007.7000;0.1498;0.3982;
1008.0000;0.1490;0.3934;
1008.3000;0.1490;0.3934;
1008.6000;0.1506;0.3982;
1008.9000;0.1514;0.4030;
1009.2000;0.1498;0.4006;
1009.5000;0.1498;0.3958;
1009.8000;0.1465;0.3863;
1010.1000;0.1506;0.3911;
1010.4000;0.1506;0.3887;
1010.7000;0.1490;0.3887;
1011.0000;0.1392;0.3577;
1011.3000;0.1490;0.3863;
1011.6000;0.1498;0.3887;
1011.9000;0.1490;0.3911;
1012.2000;0.1481;0.3958;
1012.5000;0.1481;0.4006;
1012.8000;0.1506;0.4101;
1013.1000;0.1490;0.4006;
1013.4000;0.1392;0.3720;
1013.7000;0.1506;0.4054;
1014.0000;0.1506;0.4054;
1014.3000;0.1506;0.4030;
1014.6000;0.1481;0.3934;
1014.9000;0.1490;0.3911;
1015.2000;0.1498;0.4030;
1015.5000;0.1514;0.4101;
1015.8000;0.1481;0.4030;
1016.1000;0.1498;0.4054;
1016.4000;0.1481;0.4030;
1016.7000;0.1587;0.4244;
1017.0000;0.1506;0.3887;
1017.3000;0.1506;0.3791;
1017.6000;0.1465;0.3744;
1017.9000;0.1522;0.3934;
1018.2000;0.1490;0.3839;
1018.5000;0.1490;0.3839;
1018.8000;0.1490;0.3863;
1019.1000;0.1457;0.3815;
1019.4000;0.1563;0.4054;
1019.7000;0.1506;0.3934;
1020.0000;0.1481;0.3934;
1020.3000;0.1490;0.4030;
1020.6000;0.1490;0.4125;
1020.9000;0.1465;0.4125;
1021.2000;0.1465;0.4173;
1021.5000;0.1538;0.4364;
1021.8000;0.1498;0.4292;
1022.1000;0.1636;0.4626;
1022.4000;0.1481;0.4149;
1022.7000;0.1481;0.4125;
1023.0000;0.1473;0.4125;
1023.3000;0.1563;0.4268;
1023.6000;0.1498;0.4149;
1023.9000;0.1473;0.4149;
1024.2000;0.1498;0.4149;
1024.5000;0.1490;0.4101;
1024.8000;0.1506;0.4149;
1025.1000;0.1490;0.4030;
1025.4000;0.1490;0.3958;
1025.7000;0.1498;0.3911;
1026.0000;0.1490;0.3982;
1026.3000;0.1465;0.3982;
1026.6000;0.1498;0.4125;
1026.9000;0.1498;0.4125;
1027.2000;0.1514;0.4125;
1027.5000;0.1473;0.4030;
1027.8000;0.1579;0.4292;
1028.1000;0.1465;0.4006;
1028.4000;0.1506;0.4078;
1028.7000;0.1490;0.4101;
1029.0000;0.1506;0.4173;
1029.3000;0.1433;0.4006;
1029.6000;0.1498;0.4101;
1029.9000;0.1457;0.4030;
1030.2000;0.1490;0.4173;
1030.5000;0.1498;0.4197;
1030.8000;0.1506;0.4173;
1031.1000;0.1530;0.4197;
1031.4000;0.1579;0.4244;
1031.7000;0.1530;0.4125;
1032.0000;0.1473;0.3934;
1032.3000;0.1547;0.4125;
1032.6000;0.1514;0.4054;
1032.9000;0.1514;0.4078;
1033.2000;0.1530;0.4149;
1033.5000;0.1498;0.4173;
1033.8000;0.1563;0.4316;
1034.1000;0.1465;0.3934;
1034.4000;0.1490;0.3958;
1034.7000;0.1571;0.4125;
1035.0000;0.1555;0.4101;
1035.3000;0.1506;0.4030;
1035.6000;0.1579;0.4197;
1035.9000;0.1457;0.3911;
1036.2000;0.1506;0.3958;
1036.5000;0.1506;0.3958;
1036.8000;0.1425;0.3839;
1037.1000;0.1490;0.4054;
1037.4000;0.1506;0.4030;
1037.7000;0.1538;0.4054;
1038.0000;0.1490;0.3958;
1038.3000;0.1498;0.4030;
1038.6000;0.1514;0.3958;
1038.9000;0.1498;0.4006;
1039.2000;0.1457;0.3958;
1039.5000;0.1498;0.4030;
1039.8000;0.1506;0.4125;
1040.1000;0.1457;0.4078;
1040.4000;0.1522;0.4244;
1040.7000;0.1498;0.4221;
1041.0000;0.1498;0.4244;
1041.3000;0.1490;0.4221;
1041.6000;0.1498;0.4125;
1041.9000;0.1506;0.4173;
1042.2000;0.1473;0.4078;
1042.5000;0.1498;0.4030;
1042.8000;0.1514;0.4030;
1043.1000;0.1465;0.3958;
1043.4000;0.1473;0.4030;
1043.7000;0.1490;0.4030;
1044.0000;0.1490;0.4101;
1044.3000;0.1498;0.4221;
1044.6000;0.1490;0.4101;
1044.9000;0.1498;0.4173;
1045.2000;0.1498;0.4197;
1045.5000;0.1465;0.4101;
1045.8000;0.1498;0.4149;
1046.1000;0.1465;0.4078;
1046.4000;0.1498;0.4101;
1046.7000;0.1514;0.4054;
1047.0000;0.1473;0.3982;
1047.3000;0.1490;0.4149;
1047.6000;0.1506;0.4197;
1047.9000;0.1506;0.4101;
1048.2000;0.1490;0.4173;
1048.5000;0.1498;0.4101;
1048.8000;0.1490;0.4101;
1049.1000;0.1441;0.3958;
1049.4000;0.1506;0.4006;
1049.7000;0.1538;0.4173;
1050.0000;0.1514;0.4125;
1050.3000;0.1514;0.4030;
1050.6000;0.1587;0.4292;
1050.9000;0.1400;0.3768;
1051.2000;0.1530;0.4078;
1051.5000;0.1481;0.4030;
1051.8000;0.1359;0.3768;
1052.1000;0.1498;0.4030;
1052.4000;0.1530;0.4078;
1052.7000;0.1563;0.4173;
1053.0000;0.1465;0.3887;
1053.3000;0.1506;0.4078;
1053.6000;0.1522;0.4078;
1053.9000;0.1473;0.3911;
1054.2000;0.1506;0.3982;
1054.5000;0.1514;0.3982;
1054.8000;0.1506;0.4006;
1055.1000;0.1473;0.3934;
1055.4000;0.1441;0.3815;
1055.7000;0.1490;0.3911;
1056.0000;0.1473;0.3815;
1056.3000;0.1481;0.3815;
1056.6000;0.1595;0.4197;
1056.9000;0.1498;0.3982;
1057.2000;0.1481;0.3934;
1057.5000;0.1457;0.3839;
1057.8000;0.1481;0.3887;
1058.1000;0.1481;0.3815;
1058.4000;0.1490;0.3815;
1058.7000;0.1530;0.3863;
1059.0000;0.1490;0.3768;
1059.3000;0.1490;0.3839;
1059.6000;0.1457;0.3696;
1059.9000;0.1547;0.3887;
1060.2000;0.1490;0.3768;
1060.5000;0.1481;0.3839;
1060.8000;0.1490;0.3982;
1061.1000;0.1522;0.4030;
1061.4000;0.1473;0.4078;
1061.7000;0.1473;0.4030;
1062.0000;0.1498;0.4125;
1062.3000;0.1506;0.4125;
1062.6000;0.1481;0.4101;
1062.9000;0.1457;0.3911;
1063.2000;0.1514;0.4078;
1063.5000;0.1514;0.4101;
1063.8000;0.1465;0.4006;
1064.1000;0.1506;0.3982;
1064.4000;0.1490;0.3839;
1064.7000;0.1522;0.3863;
1065.0000;0.1498;0.3839;
1065.3000;0.1506;0.3791;
1065.6000;0.1490;0.3791;
1065.9000;0.1490;0.3768;
1066.2000;0.1481;0.3720;
1066.5000;0.1481;0.3839;
1066.8000;0.1481;0.3911;
1067.1000;0.1506;0.3982;
1067.4000;0.1498;0.3982;
1067.7000;0.1457;0.4030;
1068.0000;0.1481;0.4006;
1068.3000;0.1481;0.4054;
1068.6000;0.1481;0.4030;
1068.9000;0.1530;0.4173;
1069.2000;0.1481;0.4030;
1069.5000;0.1490;0.3982;
1069.8000;0.1506;0.4054;
1070.1000;0.1490;0.4006;
1070.4000;0.1490;0.3982;
1070.7000;0.1481;0.3911;
1071.0000;0.1481;0.3863;
1071.3000;0.1514;0.3934;
1071.6000;0.1506;0.3887;
1071.9000;0.1433;0.3839;
1072.2000;0.1481;0.3934;
1072.5000;0.1490;0.3934;
1072.8000;0.1490;0.3911;
1073.1000;0.1465;0.3911;
1073.4000;0.1457;0.3982;
1073.7000;0.1400;0.3791;
1074.0000;0.1481;0.4030;
1074.3000;0.1522;0.4054;
1074.6000;0.1547;0.4125;
1074.9000;0.1498;0.3982;
1075.2000;0.1481;0.3911;
1075.5000;0.1473;0.3911;
1075.8000;0.1506;0.4054;
1076.1000;0.1530;0.4101;
1076.4000;0.1457;0.3911;
1076.7000;0.1571;0.4268;
1077.0000;0.1457;0.3982;
1077.3000;0.1579;0.4244;
1077.6000;0.1473;0.3934;
1077.9000;0.1473;0.3934;
1078.2000;0.1490;0.3958;
1078.5000;0.1514;0.3934;
1078.8000;0.1481;0.3958;
1079.1000;0.1506;0.4030;
1079.4000;0.1473;0.3934;
1079.7000;0.1481;0.3982;
1080.0000;0.1522;0.4197;
1080.3000;0.1473;0.4125;
1080.6000;0.1522;0.4149;
1080.9000;0.1473;0.4030;
1081.2000;0.1481;0.4006;
1081.5000;0.1522;0.4125;
1081.8000;0.1441;0.3911;
1082.1000;0.1498;0.4125;
1082.4000;0.1490;0.4101;
1082.7000;0.1498;0.4149;
1083.0000;0.1490;0.4173;
1083.3000;0.1490;0.4078;
1083.6000;0.1498;0.4006;
1083.9000;0.1457;0.3863;
1084.2000;0.1498;0.4030;
1084.5000;0.1506;0.4054;
1084.8000;0.1490;0.4078;
1085.1000;0.1465;0.4054;
1085.4000;0.1571;0.4292;
1085.7000;0.1522;0.4149;
1086.0000;0.1514;0.4197;
1086.3000;0.1506;0.4149;
1086.6000;0.1522;0.4197;
1086.9000;0.1498;0.4125;
1087.2000;0.1473;0.4101;
1087.5000;0.1490;0.4197;
1087.8000;0.1498;0.4197;
1088.1000;0.1490;0.4149;
1088.4000;0.1481;0.4149;
1088.7000;0.1506;0.4173;
1089.0000;0.1457;0.3958;
1089.3000;0.1490;0.4054;
1089.6000;0.1490;0.4030;
1089.9000;0.1628;0.4340;
1090.2000;0.1530;0.4054;
1090.5000;0.1522;0.4078;
1090.8000;0.1522;0.4006;
1091.1000;0.1465;0.3791;
1091.4000;0.1514;0.3958;
1091.7000;0.1506;0.3982;
1092.0000;0.1457;0.3887;
1092.3000;0.1498;0.4030;
1092.6000;0.1481;0.4006;
1092.9000;0.1449;0.3958;
1093.2000;0.1490;0.4030;
1093.5000;0.1498;0.4054;
1093.8000;0.1522;0.4101;
1094.1000;0.1506;0.4054;
1094.4000;0.1481;0.3958;
1094.7000;0.1490;0.3982;
1095.0000;0.1490;0.3911;
1095.3000;0.1490;0.3982;
1095.6000;0.1481;0.4006;
1095.9000;0.1473;0.3863;
1096.2000;0.1506;0.4006;
1096.5000;0.1490;0.3911;
1096.8000;0.1514;0.3934;
1097.1000;0.1498;0.3934;
1097.4000;0.1490;0.3887;
1097.7000;0.1522;0.4030;
1098.0000;0.1506;0.3934;
1098.3000;0.1481;0.3958;
1098.6000;0.1473;0.3911;
1098.9000;0.1368;0.3672;
1099.2000;0.1473;0.3958;
1099.5000;0.1498;0.4078;
1099.8000;0.1481;0.4030;
1100.1000;0.1506;0.4030;
1100.4000;0.1498;0.4149;
1100.7000;0.1498;0.4101;
1101.0000;0.1522;0.4173;
1101.3000;0.1514;0.4221;
1101.6000;0.1490;0.4101;
1101.9000;0.1506;0.4030;
1102.2000;0.1514;0.4054;
1102.5000;0.1481;0.4125;
1102.8000;0.1498;0.4149;
1103.1000;0.1506;0.4197;
1103.4000;0.1490;0.4221;
1103.7000;0.1514;0.4221;
1104.0000;0.1481;0.4125;
1104.3000;0.1490;0.4101;
1104.6000;0.1481;0.4078;
1104.9000;0.1498;0.4078;
1105.2000;0.1498;0.3982;
1105.5000;0.1506;0.4030;
1105.8000;0.1425;0.3815;
1106.1000;0.1506;0.4030;
1106.4000;0.1473;0.4030;
1106.7000;0.1498;0.4054;
1107.0000;0.1498;0.4054;
1107.3000;0.1490;0.4006;
1107.6000;0.1473;0.3934;
1107.9000;0.1522;0.4030;
1108.2000;0.1490;0.3958;
1108.5000;0.1490;0.3958;
1108.8000;0.1685;0.4578;
1109.1000;0.1473;0.3958;
1109.4000;0.1490;0.4030;
1109.7000;0.1465;0.3982;
1110.0000;0.1490;0.4078;
1110.3000;0.1506;0.4197;
1110.6000;0.1490;0.4078;
1110.9000;0.1490;0.4173;
1111.2000;0.1506;0.4268;
1111.5000;0.1490;0.4292;
1111.8000;0.1490;0.4292;
1112.1000;0.1473;0.4197;
1112.4000;0.1498;0.4244;
1112.7000;0.1514;0.4268;
1113.0000;0.1490;0.4197;
1113.3000;0.1498;0.4197;
1113.6000;0.1547;0.4292;
1113.9000;0.1498;0.4149;
1114.2000;0.1522;0.4221;
1114.5000;0.1506;0.4149;
1114.8000;0.1498;0.4173;
1115.1000;0.1595;0.4340;
1115.4000;0.1498;0.4125;
1115.7000;0.1481;0.4054;
1116.0000;0.1425;0.3887;
1116.3000;0.1514;0.4125;
1116.6000;0.1473;0.4054;
1116.9000;0.1457;0.3934;
1117.2000;0.1490;0.3911;
1117.5000;0.1481;0.3911;
1117.8000;0.1506;0.3958;
1118.1000;0.1514;0.4054;
1118.4000;0.1514;0.4101;
1118.7000;0.1498;0.3934;
1119.0000;0.1506;0.4054;
1119.3000;0.1490;0.4030;
1119.6000;0.1490;0.4030;
1119.9000;0.1473;0.3958;
1120.2000;0.1490;0.4054;
1120.5000;0.1506;0.4101;
1120.8000;0.1481;0.4030;
1121.1000;0.1490;0.4078;
1121.4000;0.1481;0.4054;
1121.7000;0.1571;0.4244;
1122.0000;0.1490;0.4030;
1122.3000;0.1481;0.3982;
1122.6000;0.1506;0.4006;
1122.9000;0.1498;0.3982;
1123.2000;0.1514;0.4030;
1123.5000;0.1506;0.4149;
1123.8000;0.1473;0.4197;
1124.1000;0.1408;0.3911;
1124.4000;0.1490;0.4101;
1124.7000;0.1620;0.4340;
1125.0000;0.1506;0.3982;
1125.3000;0.1498;0.4006;
1125.6000;0.1514;0.4149;
1125.9000;0.1473;0.4054;
1126.2000;0.1490;0.4030;
1126.5000;0.1457;0.3982;
1126.8000;0.1498;0.4054;
1127.1000;0.1506;0.4030;
1127.4000;0.1465;0.3958;
1127.7000;0.1514;0.4101;
1128.0000;0.1433;0.3863;
1128.3000;0.1490;0.3982;
1128.6000;0.1498;0.3982;
1128.9000;0.1481;0.3887;
1129.2000;0.1498;0.4006;
1129.5000;0.1481;0.4078;
1129.8000;0.1457;0.4054;
1130.1000;0.1481;0.4101;
1130.4000;0.1490;0.4125;
1130.7000;0.1498;0.4149;
1131.0000;0.1473;0.4101;
1131.3000;0.1490;0.4101;
1131.6000;0.1595;0.4364;
1131.9000;0.1449;0.4030;
1132.2000;0.1498;0.4054;
1132.5000;0.1481;0.4030;
1132.8000;0.1612;0.4364;
1133.1000;0.1490;0.4078;
1133.4000;0.1522;0.4197;
1133.7000;0.1481;0.4125;
1134.0000;0.1498;0.4197;
1134.3000;0.1490;0.4101;
1134.6000;0.1490;0.4078;
1134.9000;0.1481;0.4101;
1135.2000;0.1530;0.4173;
1135.5000;0.1498;0.4101;
1135.8000;0.1481;0.3958;
1136.1000;0.1425;0.3720;
1136.4000;0.1490;0.3887;
1136.7000;0.1522;0.3934;
1137.0000;0.1481;0.3911;
1137.3000;0.1506;0.3911;
1137.6000;0.1457;0.3839;
1137.9000;0.1473;0.3911;
1138.2000;0.1547;0.4149;
1138.5000;0.1498;0.4006;
1138.8000;0.1481;0.3982;
1139.1000;0.1384;0.3815;
1139.4000;0.1498;0.4149;
1139.7000;0.1506;0.4221;
1140.0000;0.1490;0.4149;
1140.3000;0.1498;0.4173;
1140.6000;0.1514;0.4173;
1140.9000;0.1514;0.4221;
1141.2000;0.1490;0.4125;
1141.5000;0.1490;0.4197;
1141.8000;0.1514;0.4292;
1142.1000;0.1555;0.4316;
1142.4000;0.1425;0.4030;
1142.7000;0.1498;0.4197;
1143.0000;0.1490;0.4221;
1143.3000;0.1506;0.4268;
1143.6000;0.1538;0.4292;
1143.9000;0.1490;0.4173;
1144.2000;0.1384;0.3791;
1144.5000;0.1465;0.3934;
1144.8000;0.1506;0.4006;
1145.1000;0.1506;0.4054;
1145.4000;0.1506;0.4054;
1145.7000;0.1547;0.4197;
1146.0000;0.1498;0.4149;
1146.3000;0.1506;0.4221;
1146.6000;0.1498;0.4268;
1146.9000;0.1514;0.4292;
1147.2000;0.1498;0.4268;
1147.5000;0.1498;0.4268;
1147.8000;0.1490;0.4244;
1148.1000;0.1490;0.4149;
1148.4000;0.1481;0.4125;
1148.7000;0.1530;0.4173;
1149.0000;0.1473;0.4078;
1149.3000;0.1490;0.4006;
1149.6000;0.1498;0.4030;
1149.9000;0.1514;0.4006;
1150.2000;0.1498;0.3911;
1150.5000;0.1498;0.3863;
1150.8000;0.1555;0.3982;
1151.1000;0.1522;0.3958;
1151.4000;0.1498;0.3863;
1151.7000;0.1530;0.3934;
1152.0000;0.1506;0.3887;
1152.3000;0.1498;0.3982;
1152.6000;0.1530;0.4006;
1152.9000;0.1498;0.3934;
1153.2000;0.1514;0.3863;
1153.5000;0.1481;0.3791;
1153.8000;0.1547;0.3863;
1154.1000;0.1465;0.3696;
1154.4000;0.1490;0.3720;
1154.7000;0.1563;0.3982;
1155.0000;0.1416;0.3696;
1155.3000;0.1498;0.3934;
1155.6000;0.1457;0.3815;
1155.9000;0.1457;0.3815;
1156.2000;0.1481;0.3863;
1156.5000;0.1481;0.3934;
1156.8000;0.1441;0.3887;
1157.1000;0.1506;0.4101;
1157.4000;0.1506;0.4030;
1157.7000;0.1538;0.4221;
1158.0000;0.1490;0.4078;
1158.3000;0.1498;0.4030;
1158.6000;0.1481;0.4054;
1158.9000;0.1425;0.3934;
1159.2000;0.1481;0.4006;
1159.5000;0.1498;0.4078;
1159.8000;0.1498;0.4101;
1160.1000;0.1498;0.4125;
1160.4000;0.1473;0.4101;
1160.7000;0.1506;0.4030;
1161.0000;0.1465;0.3911;
1161.3000;0.1514;0.4101;
1161.6000;0.1506;0.4030;
1161.9000;0.1571;0.4149;
1162.2000;0.1473;0.3911;
1162.5000;0.1473;0.3982;
1162.8000;0.1481;0.4006;
1163.1000;0.1481;0.4030;
1163.4000;0.1490;0.4101;
1163.7000;0.1498;0.4149;
1164.0000;0.1481;0.4173;
1164.3000;0.1506;0.4221;
1164.6000;0.1538;0.4364;
1164.9000;0.1490;0.4173;
1165.2000;0.1490;0.4197;
1165.5000;0.1498;0.4221;
1165.8000;0.1514;0.4173;
1166.1000;0.1506;0.4173;
1166.4000;0.1571;0.4340;
1166.7000;0.1538;0.4197;
1167.0000;0.1376;0.3696;
1167.3000;0.1498;0.3934;
1167.6000;0.1506;0.3958;
1167.9000;0.1441;0.3839;
1168.2000;0.1547;0.4054;
1168.5000;0.1506;0.3887;
1168.8000;0.1490;0.3863;
1169.1000;0.1473;0.3887;
1169.4000;0.1425;0.3768;
1169.7000;0.1628;0.4292;
1170.0000;0.1506;0.4006;
1170.3000;0.1490;0.3911;
1170.6000;0.1547;0.4078;
1170.9000;0.1498;0.3934;
1171.2000;0.1441;0.3720;
1171.5000;0.1490;0.3863;
1171.8000;0.1490;0.3911;
1172.1000;0.1506;0.3958;
1172.4000;0.1490;0.4030;
1172.7000;0.1514;0.4030;
1173.0000;0.1490;0.4006;
1173.3000;0.1506;0.4006;
1173.6000;0.1530;0.4149;
1173.9000;0.1490;0.4197;
1174.2000;0.1506;0.4149;
1174.5000;0.1473;0.4101;
1174.8000;0.1498;0.4221;
1175.1000;0.1498;0.4149;
1175.4000;0.1490;0.4149;
1175.7000;0.1490;0.4149;
1176.0000;0.1490;0.4101;
1176.3000;0.1498;0.4244;
1176.6000;0.1506;0.4316;
1176.9000;0.1506;0.4364;
1177.2000;0.1514;0.4411;
1177.5000;0.1498;0.4292;
1177.8000;0.1481;0.4340;
1178.1000;0.1522;0.4411;
1178.4000;0.1490;0.4388;
1178.7000;0.1473;0.4364;
1179.0000;0.1481;0.4364;
1179.3000;0.1481;0.4364;
1179.6000;0.1481;0.4292;
1179.9000;0.1498;0.4244;
1180.2000;0.1490;0.4149;
1180.5000;0.1498;0.4078;
1180.8000;0.1490;0.4054;
1181.1000;0.1457;0.3958;
1181.4000;0.1481;0.4054;
1181.7000;0.1498;0.4006;
1182.0000;0.1490;0.4030;
1182.3000;0.1490;0.4125;
1182.6000;0.1506;0.4078;
1182.9000;0.1449;0.3958;
1183.2000;0.1490;0.3982;
1183.5000;0.1481;0.3911;
1183.8000;0.1506;0.4006;
1184.1000;0.1498;0.3982;
1184.4000;0.1490;0.4006;
1184.7000;0.1530;0.4125;
1185.0000;0.1481;0.4101;
1185.3000;0.1522;0.4221;
1185.6000;0.1490;0.4149;
1185.9000;0.1376;0.3863;
1186.2000;0.1498;0.4125;
1186.5000;0.1490;0.4149;
1186.8000;0.1490;0.4149;
1187.1000;0.1498;0.4125;
1187.4000;0.1416;0.3887;
1187.7000;0.1498;0.4078;
1188.0000;0.1498;0.4125;
1188.3000;0.1498;0.4173;
1188.6000;0.1498;0.4244;
1188.9000;0.1514;0.4292;
1189.2000;0.1498;0.4221;
1189.5000;0.1449;0.4125;
1189.8000;0.1506;0.4244;
1190.1000;0.1481;0.4221;
1190.4000;0.1490;0.4125;
1190.7000;0.1449;0.4006;
1191.0000;0.1595;0.4435;
1191.3000;0.1490;0.4030;
1191.6000;0.1433;0.3815;
1191.9000;0.1408;0.3696;
1192.2000;0.1490;0.4054;
1192.5000;0.1490;0.4101;
1192.8000;0.1498;0.4030;
1193.1000;0.1481;0.4101;
1193.4000;0.1481;0.4078;
1193.7000;0.1547;0.4244;
1194.0000;0.1498;0.4125;
1194.3000;0.1498;0.4054;
1194.6000;0.1547;0.4197;
1194.9000;0.1514;0.4054;
1195.2000;0.1514;0.4101;
1195.5000;0.1498;0.4101;
1195.8000;0.1490;0.4149;
1196.1000;0.1514;0.4149;
1196.4000;0.1498;0.4101;
1196.7000;0.1368;0.3648;
1197.0000;0.1498;0.3982;
1197.3000;0.1514;0.4078;
1197.6000;0.1498;0.4030;
1197.9000;0.1514;0.4149;
1198.2000;0.1498;0.4101;
1198.5000;0.1473;0.4030;
1198.8000;0.1498;0.4054;
1199.1000;0.1498;0.4078;
1199.4000;0.1498;0.4101;
1199.7000;0.1481;0.4006;
1200.0000;0.1481;0.4054;
1200.3000;0.1595;0.4388;
1200.6000;0.1514;0.4244;
1200.9000;0.1506;0.4244;
1201.2000;0.1498;0.4173;
1201.5000;0.1506;0.4078;
1201.8000;0.1538;0.4173;
1202.1000;0.1498;0.4125;
1202.4000;0.1473;0.4054;
1202.7000;0.1490;0.4101;
1203.0000;0.1514;0.4197;
1203.3000;0.1481;0.4078;
1203.6000;0.1473;0.4101;
1203.9000;0.1498;0.4054;
1204.2000;0.1514;0.4054;
1204.5000;0.1538;0.4101;
1204.8000;0.1490;0.3982;
1205.1000;0.1522;0.4078;
1205.4000;0.1506;0.4078;
1205.7000;0.1514;0.4125;
1206.0000;0.1563;0.4292;
1206.3000;0.1490;0.4125;
1206.6000;0.1490;0.4101;
1206.9000;0.1490;0.4101;
1207.2000;0.1473;0.3934;
1207.5000;0.1498;0.3982;
1207.8000;0.1481;0.4006;
1208.1000;0.1481;0.4078;
1208.4000;0.1473;0.4078;
1208.7000;0.1490;0.4101;
1209.0000;0.1465;0.4030;
1209.3000;0.1473;0.4078;
1209.6000;0.1498;0.4125;
1209.9000;0.1490;0.4078;
1210.2000;0.1481;0.4078;
1210.5000;0.1473;0.4173;
1210.8000;0.1498;0.4197;
1211.1000;0.1498;0.4244;
1211.4000;0.1490;0.4197;
1211.7000;0.1498;0.4197;
1212.0000;0.1522;0.4173;
1212.3000;0.1506;0.4125;
1212.6000;0.1555;0.4388;
1212.9000;0.1490;0.4244;
1213.2000;0.1498;0.4197;
1213.5000;0.1604;0.4364;
1213.8000;0.1490;0.4125;
1214.1000;0.1481;0.4244;
1214.4000;0.1481;0.4268;
1214.7000;0.1481;0.4221;
1215.0000;0.1506;0.4244;
1215.3000;0.1490;0.4173;
1215.6000;0.1506;0.4125;
1215.9000;0.1481;0.4173;
1216.2000;0.1498;0.4197;
1216.5000;0.1490;0.4078;
1216.8000;0.1449;0.3911;
1217.1000;0.1514;0.3982;
1217.4000;0.1514;0.4054;
1217.7000;0.1490;0.3958;
1218.0000;0.1498;0.4006;
1218.3000;0.1498;0.3934;
1218.6000;0.1498;0.3911;
1218.9000;0.1498;0.3911;
1219.2000;0.1498;0.3982;
1219.5000;0.1465;0.3911;
1219.8000;0.1490;0.3863;
1220.1000;0.1473;0.3839;
1220.4000;0.1481;0.3863;
1220.7000;0.1498;0.3887;
1221.0000;0.1498;0.3958;
1221.3000;0.1498;0.4006;
1221.6000;0.1506;0.4054;
1221.9000;0.1506;0.4030;
1222.2000;0.1498;0.3911;
1222.5000;0.1506;0.3934;
1222.8000;0.1481;0.3863;
1223.1000;0.1481;0.3863;
1223.4000;0.1481;0.3863;
1223.7000;0.1481;0.3839;
1224.0000;0.1498;0.3934;
1224.3000;0.1481;0.3911;
1224.6000;0.1481;0.3887;
1224.9000;0.1563;0.4078;
1225.2000;0.1612;0.4197;
1225.5000;0.1457;0.3768;
1225.8000;0.1514;0.3887;
1226.1000;0.1490;0.3863;
1226.4000;0.1490;0.3863;
1226.7000;0.1457;0.3863;
1227.0000;0.1473;0.3839;
1227.3000;0.1498;0.3815;
1227.6000;0.1506;0.3934;
1227.9000;0.1522;0.3934;
1228.2000;0.1490;0.3887;
1228.5000;0.1522;0.3958;
1228.8000;0.1425;0.3720;
1229.1000;0.1490;0.3839;
1229.4000;0.1498;0.3958;
1229.7000;0.1490;0.4054;
1230.0000;0.1481;0.3982;
1230.3000;0.1498;0.4054;
1230.6000;0.1506;0.4078;
1230.9000;0.1498;0.4006;
1231.2000;0.1514;0.4030;
1231.5000;0.1490;0.4030;
1231.8000;0.1506;0.3982;
1232.1000;0.1530;0.4030;
1232.4000;0.1490;0.3934;
1232.7000;0.1490;0.3911;
1233.0000;0.1530;0.3934;
1233.3000;0.1490;0.3911;
1233.6000;0.1514;0.3958;
1233.9000;0.1498;0.3958;
1234.2000;0.1514;0.4054;
1234.5000;0.1530;0.4149;
1234.8000;0.1481;0.4030;
1235.1000;0.1473;0.3982;
1235.4000;0.1498;0.4030;
1235.7000;0.1481;0.3958;
1236.0000;0.1490;0.4030;
1236.3000;0.1506;0.4078;
1236.6000;0.1506;0.4101;
1236.9000;0.1490;0.4101;
1237.2000;0.1498;0.4030;
1237.5000;0.1481;0.4125;
1237.8000;0.1506;0.4197;
1238.1000;0.1506;0.4149;
1238.4000;0.1506;0.4078;
1238.7000;0.1498;0.4149;
1239.0000;0.1490;0.4173;
1239.3000;0.1498;0.4101;
1239.6000;0.1498;0.4078;
1239.9000;0.1506;0.4030;
1240.2000;0.1498;0.3958;
1240.5000;0.1400;0.3768;
1240.8000;0.1425;0.3815;
1241.1000;0.1457;0.3934;
1241.4000;0.1506;0.4078;
1241.7000;0.1498;0.4101;
1242.0000;0.1473;0.4078;
1242.3000;0.1473;0.4054;
1242.6000;0.1481;0.4078;
1242.9000;0.1522;0.4101;
1243.2000;0.1498;0.4054;
1243.5000;0.1514;0.4078;
1243.8000;0.1481;0.4054;
1244.1000;0.1506;0.4173;
1244.4000;0.1498;0.4244;
1244.7000;0.1498;0.4244;
1245.0000;0.1506;0.4221;
1245.3000;0.1481;0.4197;
1245.6000;0.1514;0.4268;
1245.9000;0.1457;0.4078;
1246.2000;0.1490;0.4078;
1246.5000;0.1490;0.4149;
1246.8000;0.1514;0.4221;
1247.1000;0.1498;0.4173;
1247.4000;0.1490;0.4197;
1247.7000;0.1481;0.4197;
1248.0000;0.1555;0.4411;
1248.3000;0.1506;0.4316;
1248.6000;0.1490;0.4292;
1248.9000;0.1498;0.4244;
1249.2000;0.1498;0.4149;
1249.5000;0.1530;0.4197;
1249.8000;0.1506;0.4125;
1250.1000;0.1506;0.4054;
1250.4000;0.1481;0.3934;
1250.7000;0.1506;0.4030;
1251.0000;0.1506;0.4054;
1251.3000;0.1506;0.4125;
1251.6000;0.1473;0.4030;
1251.9000;0.1481;0.3982;
1252.2000;0.1481;0.3982;
1252.5000;0.1481;0.3934;
1252.8000;0.1506;0.3863;
1253.1000;0.1490;0.3863;
1253.4000;0.1538;0.3934;
1253.7000;0.1555;0.4149;
1254.0000;0.1498;0.4006;
1254.3000;0.1441;0.3911;
1254.6000;0.1514;0.4054;
1254.9000;0.1506;0.3982;
1255.2000;0.1498;0.4030;
1255.5000;0.1506;0.4054;
1255.8000;0.1457;0.4006;
1256.1000;0.1514;0.4149;
1256.4000;0.1481;0.4125;
1256.7000;0.1587;0.4388;
1257.0000;0.1498;0.4197;
1257.3000;0.1595;0.4388;
1257.6000;0.1457;0.4006;
1257.9000;0.1514;0.4292;
1258.2000;0.1498;0.4292;
1258.5000;0.1506;0.4316;
1258.8000;0.1473;0.4244;
1259.1000;0.1490;0.4197;
1259.4000;0.1481;0.4101;
1259.7000;0.1498;0.4101;
1260.0000;0.1514;0.4173;
1260.3000;0.1490;0.4149;
1260.6000;0.1465;0.4054;
1260.9000;0.1506;0.4221;
1261.2000;0.1498;0.4244;
1261.5000;0.1490;0.4101;
1261.8000;0.1498;0.4149;
1262.1000;0.1481;0.4125;
1262.4000;0.1498;0.4197;
1262.7000;0.1441;0.4125;
1263.0000;0.1441;0.4054;
1263.3000;0.1498;0.4173;
1263.6000;0.1498;0.4078;
1263.9000;0.1514;0.4149;
1264.2000;0.1473;0.4125;
1264.5000;0.1481;0.4173;
1264.8000;0.1538;0.4340;
1265.1000;0.1465;0.4221;
1265.4000;0.1498;0.4268;
1265.7000;0.1506;0.4268;
1266.0000;0.1481;0.4149;
1266.3000;0.1514;0.4221;
1266.6000;0.1506;0.4173;
1266.9000;0.1506;0.4125;
1267.2000;0.1506;0.4101;
1267.5000;0.1498;0.4197;
1267.8000;0.1498;0.4149;
1268.1000;0.1498;0.4173;
1268.4000;0.1465;0.3982;
1268.7000;0.1481;0.3982;
1269.0000;0.1530;0.4125;
1269.3000;0.1498;0.4054;
1269.6000;0.1481;0.4054;
1269.9000;0.1514;0.4054;
1270.2000;0.1490;0.4006;
1270.5000;0.1522;0.4030;
1270.8000;0.1425;0.3768;
1271.1000;0.1490;0.3958;
1271.4000;0.1498;0.4054;
1271.7000;0.1498;0.3982;
1272.0000;0.1514;0.4078;
1272.3000;0.1490;0.4006;
1272.6000;0.1490;0.3958;
1272.9000;0.1587;0.4221;
1273.2000;0.1522;0.4125;
1273.5000;0.1481;0.4078;
1273.8000;0.1481;0.4054;
1274.1000;0.1425;0.3911;
1274.4000;0.1514;0.4078;
1274.7000;0.1514;0.4054;
1275.0000;0.1490;0.3934;
1275.3000;0.1506;0.4006;
1275.6000;0.1498;0.4030;
1275.9000;0.1498;0.4030;
1276.2000;0.1506;0.4006;
1276.5000;0.1498;0.4054;
1276.8000;0.1530;0.4173;
1277.1000;0.1481;0.4125;
1277.4000;0.1506;0.4173;
1277.7000;0.1490;0.4101;
1278.0000;0.1481;0.4078;
1278.3000;0.1506;0.4149;
1278.6000;0.1433;0.3839;
1278.9000;0.1498;0.4030;
1279.2000;0.1498;0.4006;
1279.5000;0.1514;0.4149;
1279.8000;0.1465;0.3958;
1280.1000;0.1604;0.4292;
1280.4000;0.1465;0.3934;
1280.7000;0.1555;0.4125;
1281.0000;0.1481;0.3982;
1281.3000;0.1506;0.4054;
1281.6000;0.1465;0.3934;
1281.9000;0.1506;0.4030;
1282.2000;0.1514;0.3982;
1282.5000;0.1538;0.4054;
1282.8000;0.1490;0.3911;
1283.1000;0.1514;0.3982;
1283.4000;0.1506;0.3958;
1283.7000;0.1441;0.3768;
1284.0000;0.1481;0.3934;
1284.3000;0.1473;0.3911;
1284.6000;0.1506;0.4125;
1284.9000;0.1490;0.4101;
1285.2000;0.1473;0.4078;
1285.5000;0.1457;0.4006;
1285.8000;0.1498;0.4101;
1286.1000;0.1498;0.4101;
1286.4000;0.1481;0.4054;
1286.7000;0.1400;0.3839;
1287.0000;0.1416;0.3839;
1287.3000;0.1490;0.4030;
1287.6000;0.1506;0.4006;
1287.9000;0.1506;0.3958;
1288.2000;0.1465;0.3934;
1288.5000;0.1498;0.4054;
1288.8000;0.1498;0.4078;
1289.1000;0.1490;0.4054;
1289.4000;0.1490;0.4101;
1289.7000;0.1538;0.4221;
1290.0000;0.1490;0.4101;
1290.3000;0.1498;0.4173;
1290.6000;0.1498;0.4268;
1290.9000;0.1506;0.4316;
1291.2000;0.1481;0.4197;
1291.5000;0.1490;0.4244;
1291.8000;0.1441;0.4078;
1292.1000;0.1481;0.4149;
1292.4000;0.1490;0.4125;
1292.7000;0.1490;0.4125;
1293.0000;0.1490;0.4173;
1293.3000;0.1514;0.4292;
1293.6000;0.1490;0.4268;
1293.9000;0.1457;0.4221;
1294.2000;0.1506;0.4292;
1294.5000;0.1530;0.4268;
1294.8000;0.1563;0.4411;
1295.1000;0.1506;0.4244;
1295.4000;0.1514;0.4292;
1295.7000;0.1498;0.4244;
1296.0000;0.1481;0.4149;
1296.3000;0.1530;0.4197;
1296.6000;0.1481;0.4078;
1296.9000;0.1506;0.4125;
1297.2000;0.1490;0.4054;
1297.5000;0.1490;0.4030;
1297.8000;0.1481;0.4006;
1298.1000;0.1506;0.3958;
1298.4000;0.1514;0.4006;
1298.7000;0.1530;0.4078;
1299.0000;0.1473;0.4006;
1299.3000;0.1490;0.4006;
1299.6000;0.1473;0.3958;
1299.9000;0.1506;0.3982;
1300.2000;0.1514;0.4030;
1300.5000;0.1538;0.4125;
1300.8000;0.1506;0.3982;
1301.1000;0.1595;0.4268;
1301.4000;0.1498;0.4054;
1301.7000;0.1530;0.4125;
1302.0000;0.1465;0.3934;
1302.3000;0.1490;0.4006;
1302.6000;0.1433;0.3911;
1302.9000;0.1384;0.3791;
1303.2000;0.1490;0.4030;
1303.5000;0.1490;0.3958;
1303.8000;0.1514;0.3982;
1304.1000;0.1522;0.4101;
1304.4000;0.1490;0.4054;
1304.7000;0.1514;0.4125;
1305.0000;0.1490;0.4054;
1305.3000;0.1498;0.4030;
1305.6000;0.1563;0.4244;
1305.9000;0.1498;0.3934;
1306.2000;0.1481;0.4006;
1306.5000;0.1530;0.4101;
1306.8000;0.1506;0.3958;
1307.1000;0.1481;0.3911;
1307.4000;0.1514;0.3958;
1307.7000;0.1506;0.3934;
1308.0000;0.1514;0.3863;
1308.3000;0.1490;0.3791;
1308.6000;0.1473;0.3744;
1308.9000;0.1498;0.3815;
1309.2000;0.1490;0.3744;
1309.5000;0.1506;0.3887;
1309.8000;0.1530;0.3815;
1310.1000;0.1498;0.3863;
1310.4000;0.1473;0.3839;
1310.7000;0.1522;0.3982;
1311.0000;0.1498;0.3982;
1311.3000;0.1481;0.3934;
1311.6000;0.1465;0.3791;
1311.9000;0.1490;0.3887;
1312.2000;0.1481;0.3911;
1312.5000;0.1490;0.3863;
1312.8000;0.1416;0.3720;
1313.1000;0.1506;0.3839;
1313.4000;0.1498;0.3887;
1313.7000;0.1530;0.3934;
1314.0000;0.1506;0.3815;
1314.3000;0.1490;0.3791;
1314.6000;0.1490;0.3744;
1314.9000;0.1465;0.3720;
1315.2000;0.1481;0.3744;
1315.5000;0.1498;0.3744;
1315.8000;0.1555;0.3839;
1316.1000;0.1498;0.3768;
1316.4000;0.1506;0.3768;
1316.7000;0.1506;0.3815;
1317.0000;0.1514;0.3863;
1317.3000;0.1490;0.3720;
1317.6000;0.1473;0.3720;
1317.9000;0.1433;0.3624;
1318.2000;0.1473;0.3768;
1318.5000;0.1481;0.3768;
1318.8000;0.1465;0.3744;
1319.1000;0.1498;0.3839;
1319.4000;0.1490;0.3839;
1319.7000;0.1514;0.3934;
1320.0000;0.1481;0.3911;
1320.3000;0.1457;0.3934;
1320.6000;0.1481;0.4054;
1320.9000;0.1506;0.4101;
1321.2000;0.1498;0.4054;
1321.5000;0.1481;0.3934;
1321.8000;0.1530;0.4125;
1322.1000;0.1490;0.4078;
1322.4000;0.1498;0.4125;
1322.7000;0.1473;0.4030;
1323.0000;0.1473;0.4030;
1323.3000;0.1490;0.4197;
1323.6000;0.1490;0.4054;
1323.9000;0.1628;0.4388;
1324.2000;0.1490;0.3982;
1324.5000;0.1506;0.4054;
1324.8000;0.1490;0.4101;
1325.1000;0.1506;0.4125;
1325.4000;0.1498;0.4125;
1325.7000;0.1522;0.4125;
1326.0000;0.1441;0.3934;
1326.3000;0.1498;0.3982;
1326.6000;0.1498;0.4030;
1326.9000;0.1490;0.3911;
1327.2000;0.1490;0.3911;
1327.5000;0.1441;0.3839;
1327.8000;0.1506;0.4054;
1328.1000;0.1490;0.3982;
1328.4000;0.1481;0.3958;
1328.7000;0.1490;0.4030;
1329.0000;0.1473;0.4006;
1329.3000;0.1506;0.4101;
1329.6000;0.1506;0.4078;
1329.9000;0.1506;0.4078;
1330.2000;0.1522;0.4197;
1330.5000;0.1498;0.4173;
1330.8000;0.1522;0.4197;
1331.1000;0.1514;0.4197;
1331.4000;0.1351;0.3744;
1331.7000;0.1498;0.4078;
1332.0000;0.1506;0.4101;
1332.3000;0.1506;0.4101;
1332.6000;0.1490;0.4030;
1332.9000;0.1481;0.3982;
1333.2000;0.1425;0.3720;
1333.5000;0.1506;0.3982;
1333.8000;0.1490;0.3839;
1334.1000;0.1473;0.3768;
1334.4000;0.1481;0.3720;
1334.7000;0.1498;0.3744;
1335.0000;0.1465;0.3601;
1335.3000;0.1481;0.3648;
1335.6000;0.1481;0.3768;
1335.9000;0.1473;0.3744;
1336.2000;0.1530;0.3958;
1336.5000;0.1595;0.4149;
1336.8000;0.1506;0.3934;
1337.1000;0.1506;0.3982;
1337.4000;0.1498;0.3982;
1337.7000;0.1490;0.3958;
1338.0000;0.1506;0.3982;
1338.3000;0.1498;0.3911;
1338.6000;0.1514;0.3911;
1338.9000;0.1530;0.3958;
1339.2000;0.1498;0.3887;
1339.5000;0.1514;0.3934;
1339.8000;0.1547;0.4006;
1340.1000;0.1481;0.3815;
1340.4000;0.1473;0.3791;
1340.7000;0.1498;0.3768;
1341.0000;0.1498;0.3696;
1341.3000;0.1506;0.3768;
1341.6000;0.1490;0.3672;
1341.9000;0.1563;0.3791;
1342.2000;0.1498;0.3720;
1342.5000;0.1498;0.3768;
1342.8000;0.1498;0.3863;
1343.1000;0.1490;0.3839;
1343.4000;0.1579;0.4054;
1343.7000;0.1481;0.3744;
1344.0000;0.1498;0.3839;
1344.3000;0.1498;0.3958;
1344.6000;0.1498;0.3934;
1344.9000;0.1408;0.3720;
1345.2000;0.1498;0.3911;
1345.5000;0.1506;0.3934;
1345.8000;0.1490;0.3863;
1346.1000;0.1506;0.3911;
1346.4000;0.1481;0.3791;
1346.7000;0.1506;0.3863;
1347.0000;0.1465;0.3744;
1347.3000;0.1465;0.3744;
1347.6000;0.1498;0.3887;
1347.9000;0.1498;0.3958;
1348.2000;0.1498;0.3982;
1348.5000;0.1490;0.4006;
1348.8000;0.1498;0.4006;
1349.1000;0.1530;0.4078;
1349.4000;0.1498;0.4030;
1349.7000;0.1538;0.4054;
1350.0000;0.1498;0.3887;
1350.3000;0.1506;0.3982;
1350.6000;0.1514;0.4101;
1350.9000;0.1490;0.4030;
1351.2000;0.1490;0.4006;
1351.5000;0.1449;0.3982;
1351.8000;0.1490;0.4149;
1352.1000;0.1498;0.4078;
1352.4000;0.1587;0.4316;
1352.7000;0.1400;0.3863;
1353.0000;0.1506;0.4030;
1353.3000;0.1457;0.3863;
1353.6000;0.1498;0.3934;
1353.9000;0.1498;0.4006;
1354.2000;0.1473;0.3958;
1354.5000;0.1457;0.3934;
1354.8000;0.1392;0.3672;
1355.1000;0.1547;0.4173;
1355.4000;0.1498;0.4006;
1355.7000;0.1498;0.4101;
1356.0000;0.1506;0.4078;
1356.3000;0.1498;0.4101;
1356.6000;0.1498;0.4101;
1356.9000;0.1490;0.4078;
1357.2000;0.1506;0.4101;
1357.5000;0.1490;0.4125;
1357.8000;0.1490;0.4078;
1358.1000;0.1506;0.4197;
1358.4000;0.1522;0.4316;
1358.7000;0.1498;0.4268;
1359.0000;0.1514;0.4292;
1359.3000;0.1498;0.4149;
1359.6000;0.1506;0.4149;
1359.9000;0.1473;0.4054;
1360.2000;0.1506;0.4149;
1360.5000;0.1490;0.4125;
1360.8000;0.1449;0.4006;
1361.1000;0.1506;0.4078;
1361.4000;0.1490;0.4006;
1361.7000;0.1514;0.4030;
1362.0000;0.1490;0.3958;
1362.3000;0.1506;0.4054;
1362.6000;0.1473;0.4006;
1362.9000;0.1498;0.4101;
1363.2000;0.1498;0.4078;
1363.5000;0.1498;0.3982;
1363.8000;0.1563;0.4149;
1364.1000;0.1530;0.4006;
1364.4000;0.1498;0.3982;
1364.7000;0.1490;0.4030;
1365.0000;0.1506;0.4006;
1365.3000;0.1498;0.3911;
1365.6000;0.1514;0.3982;
1365.9000;0.1514;0.3982;
1366.2000;0.1514;0.4006;
1366.5000;0.1498;0.3958;
1366.8000;0.1490;0.3887;
1367.1000;0.1498;0.3911;
1367.4000;0.1498;0.3791;
1367.7000;0.1490;0.3863;
1368.0000;0.1506;0.3934;
1368.3000;0.1498;0.3911;
1368.6000;0.1498;0.4006;
1368.9000;0.1498;0.4054;
1369.2000;0.1506;0.4030;
1369.5000;0.1498;0.4006;
1369.8000;0.1490;0.4054;
1370.1000;0.1498;0.4054;
1370.4000;0.1514;0.4030;
1370.7000;0.1490;0.3934;
1371.0000;0.1498;0.4030;
1371.3000;0.1465;0.3958;
1371.6000;0.1555;0.4221;
1371.9000;0.1490;0.4054;
1372.2000;0.1384;0.3791;
1372.5000;0.1538;0.4078;
1372.8000;0.1522;0.3982;
1373.1000;0.1481;0.3839;
1373.4000;0.1498;0.3887;
1373.7000;0.1481;0.3839;
1374.0000;0.1514;0.3863;
1374.3000;0.1490;0.3815;
1374.6000;0.1547;0.3982;
1374.9000;0.1498;0.3887;
1375.2000;0.1522;0.3863;
1375.5000;0.1628;0.4125;
1375.8000;0.1490;0.3672;
1376.1000;0.1506;0.3839;
1376.4000;0.1498;0.3863;
1376.7000;0.1563;0.4006;
1377.0000;0.1595;0.4149;
1377.3000;0.1490;0.3791;
1377.6000;0.1408;0.3601;
1377.9000;0.1506;0.3887;
1378.2000;0.1587;0.4149;
1378.5000;0.1441;0.3720;
1378.8000;0.1506;0.3839;
1379.1000;0.1506;0.3791;
1379.4000;0.1498;0.3839;
1379.7000;0.1490;0.3815;
1380.0000;0.1514;0.3839;
1380.3000;0.1473;0.3696;
1380.6000;0.1481;0.3720;
1380.9000;0.1457;0.3696;
1381.2000;0.1514;0.3791;
1381.5000;0.1490;0.3744;
1381.8000;0.1506;0.3720;
1382.1000;0.1408;0.3434;
1382.4000;0.1408;0.3505;
1382.7000;0.1498;0.3839;
1383.0000;0.1563;0.4006;
1383.3000;0.1490;0.3696;
1383.6000;0.1506;0.3744;
1383.9000;0.1473;0.3696;
1384.2000;0.1490;0.3791;
1384.5000;0.1368;0.3434;
1384.8000;0.1490;0.3672;
1385.1000;0.1490;0.3672;
1385.4000;0.1481;0.3744;
1385.7000;0.1490;0.3744;
1386.0000;0.1506;0.3744;
1386.3000;0.1498;0.3696;
1386.6000;0.1481;0.3672;
1386.9000;0.1514;0.3768;
1387.2000;0.1481;0.3624;
1387.5000;0.1465;0.3601;
1387.8000;0.1490;0.3648;
1388.1000;0.1514;0.3720;
1388.4000;0.1490;0.3696;
1388.7000;0.1498;0.3791;
1389.0000;0.1473;0.3744;
1389.3000;0.1547;0.3958;
1389.6000;0.1481;0.3720;
1389.9000;0.1473;0.3696;
1390.2000;0.1490;0.3768;
1390.5000;0.1498;0.3791;
1390.8000;0.1481;0.3839;
1391.1000;0.1490;0.3887;
1391.4000;0.1514;0.4054;
1391.7000;0.1514;0.4030;
1392.0000;0.1514;0.4030;
1392.3000;0.1490;0.3911;
1392.6000;0.1514;0.3958;
1392.9000;0.1522;0.3958;
1393.2000;0.1514;0.3958;
1393.5000;0.1514;0.4006;
1393.8000;0.1498;0.4054;
1394.1000;0.1498;0.3982;
1394.4000;0.1514;0.4006;
1394.7000;0.1506;0.4006;
1395.0000;0.1514;0.4006;
1395.3000;0.1514;0.3982;
1395.6000;0.1481;0.3934;
1395.9000;0.1481;0.3934;
1396.2000;0.1498;0.3982;
1396.5000;0.1506;0.3982;
1396.8000;0.1498;0.3958;
1397.1000;0.1514;0.3958;
1397.4000;0.1522;0.3982;
1397.7000;0.1498;0.3958;
1398.0000;0.1538;0.3958;
1398.3000;0.1481;0.3887;
1398.6000;0.1506;0.4054;
1398.9000;0.1473;0.3958;
1399.2000;0.1498;0.3982;
1399.5000;0.1473;0.3911;
1399.8000;0.1490;0.3958;
