time/ms;Fluo/V;P700 deltaI/I x10³;
-199.8000;0.1579;0.3052;
-199.5000;0.1547;0.2909;
-199.2000;0.1563;0.2981;
-198.9000;0.1604;0.3076;
-198.6000;0.1587;0.3076;
-198.3000;0.1563;0.3124;
-198.0000;0.1579;0.3148;
-197.7000;0.1547;0.3076;
-197.4000;0.1563;0.3124;
-197.1000;0.1547;0.3148;
-196.8000;0.1538;0.3052;
-196.5000;0.1530;0.3052;
-196.2000;0.1555;0.3076;
-195.9000;0.1538;0.3100;
-195.6000;0.1555;0.3100;
-195.3000;0.1563;0.3100;
-195.0000;0.1547;0.3076;
-194.7000;0.1579;0.3124;
-194.4000;0.1571;0.3076;
-194.1000;0.1579;0.3100;
-193.8000;0.1571;0.3195;
-193.5000;0.1555;0.3219;
-193.2000;0.1563;0.3219;
-192.9000;0.1481;0.3005;
-192.6000;0.1571;0.3291;
-192.3000;0.1563;0.3386;
-192.0000;0.1555;0.3314;
-191.7000;0.1571;0.3434;
-191.4000;0.1555;0.3434;
-191.1000;0.1563;0.3410;
-190.8000;0.1571;0.3410;
-190.5000;0.1563;0.3314;
-190.2000;0.1571;0.3386;
-189.9000;0.1571;0.3410;
-189.6000;0.1547;0.3338;
-189.3000;0.1563;0.3386;
-189.0000;0.1604;0.3458;
-188.7000;0.1595;0.3362;
-188.4000;0.1563;0.3291;
-188.1000;0.1579;0.3267;
-187.8000;0.1563;0.3243;
-187.5000;0.1587;0.3314;
-187.2000;0.1587;0.3267;
-186.9000;0.1555;0.3267;
-186.6000;0.1571;0.3458;
-186.3000;0.1457;0.3124;
-186.0000;0.1579;0.3434;
-185.7000;0.1481;0.3195;
-185.4000;0.1522;0.3219;
-185.1000;0.1571;0.3362;
-184.8000;0.1587;0.3386;
-184.5000;0.1555;0.3171;
-184.2000;0.1563;0.3171;
-183.9000;0.1530;0.3314;
-183.6000;0.1587;0.3458;
-183.3000;0.1571;0.3505;
-183.0000;0.1547;0.3505;
-182.7000;0.1547;0.3505;
-182.4000;0.1547;0.3434;
-182.1000;0.1563;0.3458;
-181.8000;0.1490;0.3219;
-181.5000;0.1555;0.3219;
-181.2000;0.1571;0.3243;
-180.9000;0.1563;0.3124;
-180.6000;0.1579;0.3148;
-180.3000;0.1571;0.3124;
-180.0000;0.1547;0.3124;
-179.7000;0.1555;0.3124;
-179.4000;0.1547;0.3100;
-179.1000;0.1571;0.3124;
-178.8000;0.1555;0.3052;
-178.5000;0.1563;0.3124;
-178.2000;0.1587;0.3171;
-177.9000;0.1563;0.3100;
-177.6000;0.1555;0.3076;
-177.3000;0.1506;0.2861;
-177.0000;0.1571;0.3100;
-176.7000;0.1563;0.2981;
-176.4000;0.1555;0.3005;
-176.1000;0.1571;0.3028;
-175.8000;0.1563;0.2981;
-175.5000;0.1547;0.3028;
-175.2000;0.1628;0.3171;
-174.9000;0.1555;0.2933;
-174.6000;0.1563;0.2933;
-174.3000;0.1563;0.2957;
-174.0000;0.1547;0.2933;
-173.7000;0.1555;0.2933;
-173.4000;0.1555;0.2885;
-173.1000;0.1571;0.2861;
-172.8000;0.1514;0.2742;
-172.5000;0.1555;0.2838;
-172.2000;0.1571;0.2957;
-171.9000;0.1587;0.3052;
-171.6000;0.1547;0.3076;
-171.3000;0.1514;0.3005;
-171.0000;0.1555;0.3148;
-170.7000;0.1571;0.3267;
-170.4000;0.1579;0.3124;
-170.1000;0.1571;0.3100;
-169.8000;0.1563;0.3076;
-169.5000;0.1563;0.3100;
-169.2000;0.1563;0.3076;
-168.9000;0.1620;0.3219;
-168.6000;0.1530;0.2957;
-168.3000;0.1547;0.3005;
-168.0000;0.1555;0.2933;
-167.7000;0.1563;0.2933;
-167.4000;0.1547;0.2933;
-167.1000;0.1563;0.3052;
-166.8000;0.1579;0.3028;
-166.5000;0.1587;0.3100;
-166.2000;0.1555;0.3100;
-165.9000;0.1514;0.2981;
-165.6000;0.1571;0.3100;
-165.3000;0.1506;0.2957;
-165.0000;0.1571;0.3076;
-164.7000;0.1547;0.3052;
-164.4000;0.1538;0.3052;
-164.1000;0.1571;0.3124;
-163.8000;0.1612;0.3171;
-163.5000;0.1579;0.3076;
-163.2000;0.1547;0.3028;
-162.9000;0.1555;0.3124;
-162.6000;0.1563;0.3076;
-162.3000;0.1563;0.3052;
-162.0000;0.1587;0.3148;
-161.7000;0.1652;0.3338;
-161.4000;0.1571;0.3171;
-161.1000;0.1571;0.3171;
-160.8000;0.1538;0.3076;
-160.5000;0.1555;0.3076;
-160.2000;0.1579;0.3076;
-159.9000;0.1587;0.3124;
-159.6000;0.1506;0.3028;
-159.3000;0.1587;0.3148;
-159.0000;0.1563;0.3124;
-158.7000;0.1498;0.2981;
-158.4000;0.1506;0.2957;
-158.1000;0.1547;0.3052;
-157.8000;0.1636;0.3195;
-157.5000;0.1685;0.3267;
-157.2000;0.1530;0.2933;
-156.9000;0.1579;0.3076;
-156.6000;0.1522;0.2957;
-156.3000;0.1555;0.3100;
-156.0000;0.1571;0.3076;
-155.7000;0.1595;0.3052;
-155.4000;0.1563;0.2957;
-155.1000;0.1563;0.2981;
-154.8000;0.1563;0.2933;
-154.5000;0.1571;0.2957;
-154.2000;0.1538;0.2933;
-153.9000;0.1555;0.2981;
-153.6000;0.1547;0.3005;
-153.3000;0.1563;0.3005;
-153.0000;0.1571;0.3076;
-152.7000;0.1563;0.3005;
-152.4000;0.1555;0.2933;
-152.1000;0.1555;0.3005;
-151.8000;0.1530;0.2885;
-151.5000;0.1563;0.2981;
-151.2000;0.1644;0.3219;
-150.9000;0.1571;0.3100;
-150.6000;0.1563;0.3171;
-150.3000;0.1579;0.3124;
-150.0000;0.1522;0.3005;
-149.7000;0.1555;0.3028;
-149.4000;0.1547;0.2957;
-149.1000;0.1563;0.3052;
-148.8000;0.1604;0.3219;
-148.5000;0.1661;0.3386;
-148.2000;0.1636;0.3314;
-147.9000;0.1547;0.3124;
-147.6000;0.1530;0.3100;
-147.3000;0.1538;0.3076;
-147.0000;0.1563;0.3171;
-146.7000;0.1538;0.3195;
-146.4000;0.1547;0.3171;
-146.1000;0.1538;0.3148;
-145.8000;0.1579;0.3243;
-145.5000;0.1563;0.3171;
-145.2000;0.1555;0.3076;
-144.9000;0.1571;0.3148;
-144.6000;0.1571;0.3171;
-144.3000;0.1555;0.3171;
-144.0000;0.1547;0.3100;
-143.7000;0.1571;0.3076;
-143.4000;0.1661;0.3267;
-143.1000;0.1555;0.2957;
-142.8000;0.1555;0.3005;
-142.5000;0.1563;0.3076;
-142.2000;0.1579;0.3124;
-141.9000;0.1571;0.3052;
-141.6000;0.1547;0.3028;
-141.3000;0.1481;0.2790;
-141.0000;0.1563;0.3005;
-140.7000;0.1579;0.3028;
-140.4000;0.1547;0.2957;
-140.1000;0.1563;0.3052;
-139.8000;0.1595;0.3124;
-139.5000;0.1644;0.3338;
-139.2000;0.1555;0.3052;
-138.9000;0.1514;0.2909;
-138.6000;0.1587;0.3052;
-138.3000;0.1563;0.2957;
-138.0000;0.1579;0.3028;
-137.7000;0.1547;0.2909;
-137.4000;0.1547;0.2933;
-137.1000;0.1571;0.3005;
-136.8000;0.1547;0.2957;
-136.5000;0.1555;0.3005;
-136.2000;0.1547;0.3005;
-135.9000;0.1555;0.3052;
-135.6000;0.1514;0.2957;
-135.3000;0.1571;0.3052;
-135.0000;0.1571;0.3076;
-134.7000;0.1620;0.3243;
-134.4000;0.1563;0.3076;
-134.1000;0.1571;0.3219;
-133.8000;0.1579;0.3243;
-133.5000;0.1563;0.3291;
-133.2000;0.1587;0.3243;
-132.9000;0.1571;0.3195;
-132.6000;0.1587;0.3171;
-132.3000;0.1563;0.3148;
-132.0000;0.1587;0.3243;
-131.7000;0.1579;0.3219;
-131.4000;0.1563;0.3171;
-131.1000;0.1555;0.3195;
-130.8000;0.1555;0.3219;
-130.5000;0.1587;0.3243;
-130.2000;0.1579;0.3219;
-129.9000;0.1563;0.3171;
-129.6000;0.1563;0.3148;
-129.3000;0.1587;0.3100;
-129.0000;0.1571;0.3052;
-128.7000;0.1579;0.3076;
-128.4000;0.1547;0.2957;
-128.1000;0.1563;0.2933;
-127.8000;0.1571;0.3028;
-127.5000;0.1693;0.3410;
-127.2000;0.1538;0.3052;
-126.9000;0.1571;0.3100;
-126.6000;0.1620;0.3291;
-126.3000;0.1628;0.3291;
-126.0000;0.1498;0.2909;
-125.7000;0.1530;0.3028;
-125.4000;0.1555;0.2933;
-125.1000;0.1571;0.3052;
-124.8000;0.1538;0.2981;
-124.5000;0.1604;0.3100;
-124.2000;0.1563;0.3100;
-123.9000;0.1563;0.3195;
-123.6000;0.1579;0.3148;
-123.3000;0.1555;0.3100;
-123.0000;0.1571;0.3124;
-122.7000;0.1563;0.3005;
-122.4000;0.1547;0.2981;
-122.1000;0.1563;0.3028;
-121.8000;0.1563;0.3028;
-121.5000;0.1571;0.3148;
-121.2000;0.1555;0.3148;
-120.9000;0.1555;0.3219;
-120.6000;0.1555;0.3148;
-120.3000;0.1555;0.3171;
-120.0000;0.1579;0.3171;
-119.7000;0.1579;0.3171;
-119.4000;0.1563;0.3148;
-119.1000;0.1604;0.3291;
-118.8000;0.1538;0.3148;
-118.5000;0.1555;0.3243;
-118.2000;0.1563;0.3219;
-117.9000;0.1571;0.3219;
-117.6000;0.1571;0.3219;
-117.3000;0.1612;0.3267;
-117.0000;0.1563;0.3124;
-116.7000;0.1587;0.3148;
-116.4000;0.1563;0.3100;
-116.1000;0.1571;0.3195;
-115.8000;0.1514;0.2981;
-115.5000;0.1563;0.3124;
-115.2000;0.1530;0.3124;
-114.9000;0.1547;0.3171;
-114.6000;0.1547;0.3100;
-114.3000;0.1555;0.3052;
-114.0000;0.1547;0.3052;
-113.7000;0.1555;0.3124;
-113.4000;0.1547;0.3005;
-113.1000;0.1555;0.3052;
-112.8000;0.1555;0.3076;
-112.5000;0.1579;0.3219;
-112.2000;0.1563;0.3195;
-111.9000;0.1555;0.3314;
-111.6000;0.1595;0.3362;
-111.3000;0.1563;0.3195;
-111.0000;0.1563;0.3243;
-110.7000;0.1563;0.3243;
-110.4000;0.1538;0.3219;
-110.1000;0.1555;0.3219;
-109.8000;0.1563;0.3314;
-109.5000;0.1547;0.3291;
-109.2000;0.1465;0.3076;
-108.9000;0.1547;0.3314;
-108.6000;0.1433;0.2981;
-108.3000;0.1563;0.3362;
-108.0000;0.1547;0.3362;
-107.7000;0.1522;0.3362;
-107.4000;0.1563;0.3386;
-107.1000;0.1579;0.3386;
-106.8000;0.1547;0.3386;
-106.5000;0.1555;0.3434;
-106.2000;0.1563;0.3386;
-105.9000;0.1571;0.3314;
-105.6000;0.1563;0.3243;
-105.3000;0.1514;0.3076;
-105.0000;0.1571;0.3195;
-104.7000;0.1579;0.3219;
-104.4000;0.1587;0.3267;
-104.1000;0.1563;0.3243;
-103.8000;0.1587;0.3314;
-103.5000;0.1473;0.3005;
-103.2000;0.1579;0.3267;
-102.9000;0.1547;0.3195;
-102.6000;0.1547;0.3195;
-102.3000;0.1571;0.3314;
-102.0000;0.1571;0.3386;
-101.7000;0.1571;0.3386;
-101.4000;0.1530;0.3314;
-101.1000;0.1547;0.3314;
-100.8000;0.1587;0.3458;
-100.5000;0.1587;0.3481;
-100.2000;0.1555;0.3410;
-99.9000;0.1547;0.3362;
-99.6000;0.1563;0.3458;
-99.3000;0.1555;0.3458;
-99.0000;0.1547;0.3338;
-98.7000;0.1563;0.3314;
-98.4000;0.1571;0.3338;
-98.1000;0.1563;0.3314;
-97.8000;0.1555;0.3267;
-97.5000;0.1530;0.3267;
-97.2000;0.1579;0.3362;
-96.9000;0.1530;0.3362;
-96.6000;0.1571;0.3458;
-96.3000;0.1547;0.3434;
-96.0000;0.1604;0.3553;
-95.7000;0.1555;0.3481;
-95.4000;0.1555;0.3314;
-95.1000;0.1604;0.3410;
-94.8000;0.1555;0.3386;
-94.5000;0.1538;0.3314;
-94.2000;0.1547;0.3362;
-93.9000;0.1571;0.3434;
-93.6000;0.1571;0.3434;
-93.3000;0.1571;0.3458;
-93.0000;0.1595;0.3481;
-92.7000;0.1595;0.3481;
-92.4000;0.1547;0.3362;
-92.1000;0.1530;0.3267;
-91.8000;0.1498;0.3219;
-91.5000;0.1579;0.3481;
-91.2000;0.1547;0.3314;
-90.9000;0.1563;0.3314;
-90.6000;0.1498;0.3148;
-90.3000;0.1563;0.3338;
-90.0000;0.1571;0.3434;
-89.7000;0.1563;0.3386;
-89.4000;0.1555;0.3481;
-89.1000;0.1555;0.3434;
-88.8000;0.1547;0.3338;
-88.5000;0.1530;0.3386;
-88.2000;0.1530;0.3362;
-87.9000;0.1563;0.3458;
-87.6000;0.1547;0.3481;
-87.3000;0.1555;0.3458;
-87.0000;0.1563;0.3481;
-86.7000;0.1514;0.3458;
-86.4000;0.1555;0.3505;
-86.1000;0.1547;0.3505;
-85.8000;0.1555;0.3434;
-85.5000;0.1538;0.3362;
-85.2000;0.1530;0.3362;
-84.9000;0.1563;0.3481;
-84.6000;0.1498;0.3314;
-84.3000;0.1555;0.3410;
-84.0000;0.1595;0.3529;
-83.7000;0.1530;0.3338;
-83.4000;0.1555;0.3434;
-83.1000;0.1571;0.3362;
-82.8000;0.1563;0.3338;
-82.5000;0.1636;0.3577;
-82.2000;0.1571;0.3314;
-81.9000;0.1449;0.3028;
-81.6000;0.1587;0.3410;
-81.3000;0.1563;0.3410;
-81.0000;0.1547;0.3410;
-80.7000;0.1555;0.3410;
-80.4000;0.1571;0.3458;
-80.1000;0.1587;0.3481;
-79.8000;0.1555;0.3386;
-79.5000;0.1620;0.3505;
-79.2000;0.1571;0.3410;
-78.9000;0.1604;0.3505;
-78.6000;0.1579;0.3481;
-78.3000;0.1563;0.3362;
-78.0000;0.1555;0.3386;
-77.7000;0.1538;0.3291;
-77.4000;0.1555;0.3291;
-77.1000;0.1555;0.3338;
-76.8000;0.1595;0.3458;
-76.5000;0.1498;0.3243;
-76.2000;0.1571;0.3386;
-75.9000;0.1571;0.3314;
-75.6000;0.1538;0.3291;
-75.3000;0.1563;0.3434;
-75.0000;0.1571;0.3434;
-74.7000;0.1579;0.3434;
-74.4000;0.1571;0.3362;
-74.1000;0.1571;0.3267;
-73.8000;0.1547;0.3219;
-73.5000;0.1595;0.3314;
-73.2000;0.1547;0.3171;
-72.9000;0.1563;0.3291;
-72.6000;0.1579;0.3338;
-72.3000;0.1579;0.3362;
-72.0000;0.1563;0.3362;
-71.7000;0.1514;0.3219;
-71.4000;0.1547;0.3243;
-71.1000;0.1538;0.3195;
-70.8000;0.1595;0.3267;
-70.5000;0.1555;0.3076;
-70.2000;0.1604;0.3219;
-69.9000;0.1522;0.2933;
-69.6000;0.1563;0.3100;
-69.3000;0.1571;0.3148;
-69.0000;0.1571;0.3195;
-68.7000;0.1563;0.3243;
-68.4000;0.1587;0.3291;
-68.1000;0.1571;0.3314;
-67.8000;0.1652;0.3601;
-67.5000;0.1563;0.3362;
-67.2000;0.1571;0.3362;
-66.9000;0.1563;0.3386;
-66.6000;0.1530;0.3243;
-66.3000;0.1579;0.3362;
-66.0000;0.1571;0.3314;
-65.7000;0.1595;0.3386;
-65.4000;0.1514;0.3171;
-65.1000;0.1563;0.3291;
-64.8000;0.1587;0.3267;
-64.5000;0.1587;0.3243;
-64.2000;0.1547;0.3100;
-63.9000;0.1555;0.3028;
-63.6000;0.1514;0.2933;
-63.3000;0.1563;0.3124;
-63.0000;0.1571;0.3171;
-62.7000;0.1547;0.3148;
-62.4000;0.1555;0.3219;
-62.1000;0.1579;0.3219;
-61.8000;0.1604;0.3338;
-61.5000;0.1563;0.3243;
-61.2000;0.1547;0.3243;
-60.9000;0.1579;0.3386;
-60.6000;0.1498;0.3124;
-60.3000;0.1563;0.3291;
-60.0000;0.1563;0.3314;
-59.7000;0.1555;0.3314;
-59.4000;0.1604;0.3529;
-59.1000;0.1563;0.3338;
-58.8000;0.1579;0.3338;
-58.5000;0.1571;0.3219;
-58.2000;0.1547;0.3148;
-57.9000;0.1555;0.3100;
-57.6000;0.1571;0.3100;
-57.3000;0.1571;0.3076;
-57.0000;0.1555;0.2981;
-56.7000;0.1538;0.3052;
-56.4000;0.1555;0.3171;
-56.1000;0.1555;0.3195;
-55.8000;0.1571;0.3314;
-55.5000;0.1579;0.3314;
-55.2000;0.1563;0.3243;
-54.9000;0.1555;0.3219;
-54.6000;0.1555;0.3195;
-54.3000;0.1547;0.3148;
-54.0000;0.1547;0.3100;
-53.7000;0.1538;0.3100;
-53.4000;0.1547;0.3100;
-53.1000;0.1571;0.3171;
-52.8000;0.1620;0.3386;
-52.5000;0.1587;0.3243;
-52.2000;0.1563;0.3195;
-51.9000;0.1579;0.3195;
-51.6000;0.1579;0.3291;
-51.3000;0.1571;0.3171;
-51.0000;0.1563;0.3243;
-50.7000;0.1555;0.3171;
-50.4000;0.1685;0.3577;
-50.1000;0.1579;0.3243;
-49.8000;0.1547;0.3219;
-49.5000;0.1555;0.3171;
-49.2000;0.1555;0.3148;
-48.9000;0.1579;0.3267;
-48.6000;0.1555;0.3267;
-48.3000;0.1547;0.3243;
-48.0000;0.1587;0.3338;
-47.7000;0.1449;0.2909;
-47.4000;0.1538;0.3171;
-47.1000;0.1555;0.3076;
-46.8000;0.1636;0.3243;
-46.5000;0.1563;0.3148;
-46.2000;0.1555;0.3076;
-45.9000;0.1563;0.3052;
-45.6000;0.1587;0.3100;
-45.3000;0.1563;0.3052;
-45.0000;0.1563;0.3076;
-44.7000;0.1579;0.3267;
-44.4000;0.1547;0.3100;
-44.1000;0.1555;0.3195;
-43.8000;0.1563;0.3148;
-43.5000;0.1547;0.3171;
-43.2000;0.1547;0.3219;
-42.9000;0.1555;0.3291;
-42.6000;0.1473;0.2957;
-42.3000;0.1571;0.3195;
-42.0000;0.1563;0.3195;
-41.7000;0.1571;0.3243;
-41.4000;0.1685;0.3505;
-41.1000;0.1563;0.3171;
-40.8000;0.1547;0.3195;
-40.5000;0.1498;0.3124;
-40.2000;0.1547;0.3291;
-39.9000;0.1563;0.3291;
-39.6000;0.1587;0.3291;
-39.3000;0.1457;0.2885;
-39.0000;0.1563;0.3219;
-38.7000;0.1563;0.3171;
-38.4000;0.1571;0.3171;
-38.1000;0.1555;0.3195;
-37.8000;0.1547;0.3243;
-37.5000;0.1538;0.3291;
-37.2000;0.1563;0.3386;
-36.9000;0.1555;0.3362;
-36.6000;0.1538;0.3434;
-36.3000;0.1563;0.3553;
-36.0000;0.1538;0.3458;
-35.7000;0.1547;0.3386;
-35.4000;0.1506;0.3291;
-35.1000;0.1571;0.3434;
-34.8000;0.1579;0.3481;
-34.5000;0.1563;0.3434;
-34.2000;0.1490;0.3195;
-33.9000;0.1604;0.3434;
-33.6000;0.1538;0.3338;
-33.3000;0.1547;0.3386;
-33.0000;0.1555;0.3410;
-32.7000;0.1555;0.3505;
-32.4000;0.1563;0.3481;
-32.1000;0.1563;0.3410;
-31.8000;0.1555;0.3291;
-31.5000;0.1555;0.3338;
-31.2000;0.1547;0.3267;
-30.9000;0.1547;0.3267;
-30.6000;0.1571;0.3267;
-30.3000;0.1571;0.3267;
-30.0000;0.1563;0.3314;
-29.7000;0.1571;0.3338;
-29.4000;0.1555;0.3291;
-29.1000;0.1473;0.2981;
-28.8000;0.1522;0.3124;
-28.5000;0.1555;0.3219;
-28.2000;0.1571;0.3386;
-27.9000;0.1547;0.3314;
-27.6000;0.1555;0.3267;
-27.3000;0.1547;0.3338;
-27.0000;0.1522;0.3243;
-26.7000;0.1538;0.3219;
-26.4000;0.1563;0.3219;
-26.1000;0.1571;0.3314;
-25.8000;0.1555;0.3314;
-25.5000;0.1571;0.3362;
-25.2000;0.1547;0.3267;
-24.9000;0.1579;0.3410;
-24.6000;0.1587;0.3410;
-24.3000;0.1563;0.3314;
-24.0000;0.1514;0.3219;
-23.7000;0.1571;0.3362;
-23.4000;0.1449;0.3052;
-23.1000;0.1579;0.3362;
-22.8000;0.1563;0.3243;
-22.5000;0.1571;0.3243;
-22.2000;0.1481;0.3076;
-21.9000;0.1579;0.3338;
-21.6000;0.1555;0.3219;
-21.3000;0.1547;0.3148;
-21.0000;0.1563;0.3219;
-20.7000;0.1555;0.3171;
-20.4000;0.1555;0.3171;
-20.1000;0.1563;0.3171;
-19.8000;0.1563;0.3219;
-19.5000;0.1571;0.3195;
-19.2000;0.1571;0.3219;
-18.9000;0.1563;0.3171;
-18.6000;0.1555;0.3195;
-18.3000;0.1661;0.3553;
-18.0000;0.1579;0.3243;
-17.7000;0.1547;0.3219;
-17.4000;0.1587;0.3362;
-17.1000;0.1579;0.3243;
-16.8000;0.1571;0.3314;
-16.5000;0.1595;0.3362;
-16.2000;0.1473;0.2981;
-15.9000;0.1547;0.3195;
-15.6000;0.1555;0.3243;
-15.3000;0.1522;0.3267;
-15.0000;0.1547;0.3291;
-14.7000;0.1579;0.3338;
-14.4000;0.1571;0.3314;
-14.1000;0.1595;0.3362;
-13.8000;0.1547;0.3195;
-13.5000;0.1612;0.3291;
-13.2000;0.1571;0.3171;
-12.9000;0.1587;0.3195;
-12.6000;0.1547;0.3148;
-12.3000;0.1587;0.3314;
-12.0000;0.1563;0.3314;
-11.7000;0.1522;0.3219;
-11.4000;0.1571;0.3195;
-11.1000;0.1538;0.3195;
-10.8000;0.1514;0.3171;
-10.5000;0.1628;0.3529;
-10.2000;0.1579;0.3338;
-9.9000;0.1547;0.3291;
-9.6000;0.1652;0.3601;
-9.3000;0.1555;0.3386;
-9.0000;0.1579;0.3434;
-8.7000;0.1563;0.3362;
-8.4000;0.1555;0.3267;
-8.1000;0.1563;0.3314;
-7.8000;0.1571;0.3291;
-7.5000;0.1571;0.3291;
-7.2000;0.1547;0.3243;
-6.9000;0.1538;0.3243;
-6.6000;0.1571;0.3338;
-6.3000;0.1571;0.3243;
-6.0000;0.1547;0.3195;
-5.7000;0.1538;0.3219;
-5.4000;0.1538;0.3291;
-5.1000;0.1555;0.3314;
-4.8000;0.1555;0.3291;
-4.5000;0.1530;0.3195;
-4.2000;0.1604;0.3386;
-3.9000;0.1579;0.3338;
-3.6000;0.1579;0.3314;
-3.3000;0.1571;0.3314;
-3.0000;0.1587;0.3410;
-2.7000;0.1571;0.3338;
-2.4000;0.1571;0.3338;
-2.1000;0.1506;0.3171;
-1.8000;0.1579;0.3338;
-1.5000;0.1555;0.3314;
-1.2000;0.1579;0.3267;
-0.9000;0.1547;0.3195;
-0.6000;0.1530;0.3148;
-0.3000;0.1538;0.3148;
0.0000;0.1538;0.3148;
0.3000;0.1555;0.3005;
0.6000;0.1555;0.3100;
0.9000;0.1612;0.3410;
1.2000;0.1604;0.3505;
1.5000;0.1571;0.3577;
1.8000;0.1628;0.3768;
2.1000;0.1563;0.3648;
2.4000;0.1571;0.3768;
2.7000;0.1620;0.4006;
3.0000;0.1579;0.3982;
3.3000;0.1587;0.4030;
3.6000;0.1579;0.4125;
3.9000;0.1579;0.4125;
4.2000;0.1522;0.4030;
4.5000;0.1579;0.4221;
4.8000;0.1555;0.4173;
5.1000;0.1571;0.4244;
5.4000;0.1563;0.4221;
5.7000;0.1595;0.4435;
6.0000;0.1587;0.4340;
6.3000;0.1571;0.4340;
6.6000;0.1652;0.4531;
6.9000;0.1587;0.4364;
7.2000;0.1579;0.4388;
7.5000;0.1579;0.4435;
7.8000;0.1628;0.4554;
8.1000;0.1587;0.4507;
8.4000;0.1563;0.4626;
8.7000;0.1579;0.4650;
9.0000;0.1612;0.4721;
9.3000;0.1579;0.4698;
9.6000;0.1571;0.4674;
9.9000;0.1579;0.4674;
10.2000;0.1579;0.4602;
10.5000;0.1563;0.4483;
10.8000;0.1587;0.4507;
11.1000;0.1587;0.4507;
11.4000;0.1571;0.4531;
11.7000;0.1571;0.4602;
12.0000;0.1579;0.4602;
12.3000;0.1587;0.4650;
12.6000;0.1595;0.4674;
12.9000;0.1555;0.4531;
13.2000;0.1579;0.4602;
13.5000;0.1530;0.4435;
13.8000;0.1595;0.4483;
14.1000;0.1587;0.4435;
14.4000;0.1628;0.4483;
14.7000;0.1579;0.4340;
15.0000;0.1579;0.4316;
15.3000;0.1595;0.4316;
15.6000;0.1612;0.4292;
15.9000;0.1587;0.4221;
16.2000;0.1595;0.4125;
16.5000;0.1595;0.4173;
16.8000;0.1579;0.4125;
17.1000;0.1604;0.4244;
17.4000;0.1604;0.4292;
17.7000;0.1587;0.4292;
18.0000;0.1604;0.4292;
18.3000;0.1587;0.4197;
18.6000;0.1587;0.4101;
18.9000;0.1595;0.4101;
19.2000;0.1644;0.4364;
19.5000;0.1595;0.4316;
19.8000;0.1595;0.4364;
20.1000;0.1579;0.4388;
20.4000;0.1579;0.4435;
20.7000;0.1571;0.4388;
21.0000;0.1563;0.4364;
21.3000;0.1563;0.4388;
21.6000;0.1595;0.4459;
21.9000;0.1595;0.4507;
22.2000;0.1555;0.4507;
22.5000;0.1579;0.4554;
22.8000;0.1579;0.4483;
23.1000;0.1652;0.4674;
23.4000;0.1612;0.4531;
23.7000;0.1612;0.4578;
24.0000;0.1555;0.4435;
24.3000;0.1604;0.4554;
24.6000;0.1604;0.4531;
24.9000;0.1587;0.4483;
25.2000;0.1563;0.4316;
25.5000;0.1604;0.4435;
25.8000;0.1595;0.4411;
26.1000;0.1644;0.4554;
26.4000;0.1595;0.4507;
26.7000;0.1587;0.4459;
27.0000;0.1587;0.4459;
27.3000;0.1587;0.4411;
27.6000;0.1587;0.4411;
27.9000;0.1579;0.4388;
28.2000;0.1522;0.4340;
28.5000;0.1604;0.4507;
28.8000;0.1604;0.4435;
29.1000;0.1587;0.4340;
29.4000;0.1604;0.4411;
29.7000;0.1571;0.4435;
30.0000;0.1587;0.4507;
30.3000;0.1587;0.4483;
30.6000;0.1571;0.4435;
30.9000;0.1579;0.4507;
31.2000;0.1636;0.4554;
31.5000;0.1652;0.4602;
31.8000;0.1612;0.4578;
32.1000;0.1587;0.4507;
32.4000;0.1587;0.4602;
32.7000;0.1587;0.4531;
33.0000;0.1587;0.4531;
33.3000;0.1620;0.4602;
33.6000;0.1587;0.4507;
33.9000;0.1571;0.4554;
34.2000;0.1587;0.4602;
34.5000;0.1587;0.4650;
34.8000;0.1612;0.4793;
35.1000;0.1604;0.4793;
35.4000;0.1571;0.4698;
35.7000;0.1579;0.4602;
36.0000;0.1579;0.4531;
36.3000;0.1571;0.4602;
36.6000;0.1571;0.4650;
36.9000;0.1595;0.4674;
37.2000;0.1709;0.4960;
37.5000;0.1587;0.4626;
37.8000;0.1604;0.4626;
38.1000;0.1530;0.4483;
38.4000;0.1571;0.4674;
38.7000;0.1579;0.4626;
39.0000;0.1547;0.4602;
39.3000;0.1587;0.4602;
39.6000;0.1644;0.4674;
39.9000;0.1579;0.4507;
40.2000;0.1579;0.4507;
40.5000;0.1571;0.4531;
40.8000;0.1587;0.4578;
41.1000;0.1579;0.4626;
41.4000;0.1587;0.4650;
41.7000;0.1579;0.4650;
42.0000;0.1579;0.4650;
42.3000;0.1579;0.4650;
42.6000;0.1595;0.4674;
42.9000;0.1587;0.4650;
43.2000;0.1571;0.4745;
43.5000;0.1563;0.4841;
43.8000;0.1571;0.4817;
44.1000;0.1579;0.4745;
44.4000;0.1595;0.4793;
44.7000;0.1579;0.4721;
45.0000;0.1563;0.4650;
45.3000;0.1628;0.4769;
45.6000;0.1587;0.4531;
45.9000;0.1587;0.4483;
46.2000;0.1571;0.4531;
46.5000;0.1579;0.4554;
46.8000;0.1579;0.4578;
47.1000;0.1620;0.4650;
47.4000;0.1571;0.4626;
47.7000;0.1612;0.4698;
48.0000;0.1595;0.4698;
48.3000;0.1620;0.4745;
48.6000;0.1595;0.4674;
48.9000;0.1571;0.4602;
49.2000;0.1579;0.4602;
49.5000;0.1530;0.4554;
49.8000;0.1571;0.4554;
50.1000;0.1636;0.4602;
50.4000;0.1481;0.4197;
50.7000;0.1587;0.4435;
51.0000;0.1571;0.4364;
51.3000;0.1587;0.4435;
51.6000;0.1579;0.4507;
51.9000;0.1587;0.4531;
52.2000;0.1571;0.4626;
52.5000;0.1579;0.4602;
52.8000;0.1571;0.4626;
53.1000;0.1579;0.4626;
53.4000;0.1571;0.4650;
53.7000;0.1563;0.4578;
54.0000;0.1571;0.4554;
54.3000;0.1579;0.4578;
54.6000;0.1595;0.4674;
54.9000;0.1587;0.4650;
55.2000;0.1587;0.4698;
55.5000;0.1522;0.4483;
55.8000;0.1587;0.4674;
56.1000;0.1579;0.4674;
56.4000;0.1587;0.4769;
56.7000;0.1604;0.4912;
57.0000;0.1595;0.4817;
57.3000;0.1571;0.4674;
57.6000;0.1718;0.5151;
57.9000;0.1595;0.4769;
58.2000;0.1604;0.4793;
58.5000;0.1563;0.4602;
58.8000;0.1571;0.4745;
59.1000;0.1571;0.4793;
59.4000;0.1571;0.4745;
59.7000;0.1579;0.4721;
60.0000;0.1612;0.4674;
60.3000;0.1579;0.4674;
60.6000;0.1652;0.4936;
60.9000;0.1595;0.4721;
61.2000;0.1563;0.4626;
61.5000;0.1604;0.4674;
61.8000;0.1587;0.4626;
62.1000;0.1587;0.4650;
62.4000;0.1579;0.4459;
62.7000;0.1587;0.4435;
63.0000;0.1579;0.4459;
63.3000;0.1579;0.4364;
63.6000;0.1587;0.4531;
63.9000;0.1571;0.4483;
64.2000;0.1571;0.4483;
64.5000;0.1644;0.4769;
64.8000;0.1579;0.4626;
65.1000;0.1587;0.4698;
65.4000;0.1555;0.4674;
65.7000;0.1612;0.4745;
66.0000;0.1595;0.4721;
66.3000;0.1595;0.4769;
66.6000;0.1701;0.5008;
66.9000;0.1587;0.4793;
67.2000;0.1595;0.4841;
67.5000;0.1620;0.4841;
67.8000;0.1579;0.4841;
68.1000;0.1612;0.4936;
68.4000;0.1579;0.4841;
68.7000;0.1587;0.4817;
69.0000;0.1579;0.4745;
69.3000;0.1571;0.4769;
69.6000;0.1604;0.4841;
69.9000;0.1587;0.4769;
70.2000;0.1563;0.4650;
70.5000;0.1579;0.4650;
70.8000;0.1595;0.4626;
71.1000;0.1547;0.4531;
71.4000;0.1579;0.4626;
71.7000;0.1587;0.4721;
72.0000;0.1579;0.4650;
72.3000;0.1579;0.4650;
72.6000;0.1530;0.4531;
72.9000;0.1587;0.4554;
73.2000;0.1620;0.4626;
73.5000;0.1587;0.4554;
73.8000;0.1563;0.4459;
74.1000;0.1571;0.4531;
74.4000;0.1579;0.4578;
74.7000;0.1587;0.4626;
75.0000;0.1579;0.4578;
75.3000;0.1579;0.4554;
75.6000;0.1669;0.4817;
75.9000;0.1579;0.4531;
76.2000;0.1587;0.4578;
76.5000;0.1636;0.4769;
76.8000;0.1587;0.4721;
77.1000;0.1579;0.4793;
77.4000;0.1579;0.4626;
77.7000;0.1595;0.4626;
78.0000;0.1579;0.4698;
78.3000;0.1571;0.4698;
78.6000;0.1579;0.4626;
78.9000;0.1587;0.4674;
79.2000;0.1604;0.4721;
79.5000;0.1579;0.4698;
79.8000;0.1693;0.5055;
80.1000;0.1587;0.4817;
80.4000;0.1563;0.4841;
80.7000;0.1563;0.4769;
81.0000;0.1563;0.4769;
81.3000;0.1579;0.4793;
81.6000;0.1604;0.4817;
81.9000;0.1571;0.4674;
82.2000;0.1620;0.4769;
82.5000;0.1530;0.4578;
82.8000;0.1571;0.4769;
83.1000;0.1579;0.4745;
83.4000;0.1579;0.4817;
83.7000;0.1579;0.4841;
84.0000;0.1620;0.4960;
84.3000;0.1587;0.4769;
84.6000;0.1644;0.4864;
84.9000;0.1579;0.4674;
85.2000;0.1465;0.4340;
85.5000;0.1587;0.4698;
85.8000;0.1604;0.4650;
86.1000;0.1579;0.4674;
86.4000;0.1587;0.4650;
86.7000;0.1620;0.4674;
87.0000;0.1579;0.4531;
87.3000;0.1555;0.4554;
87.6000;0.1677;0.4793;
87.9000;0.1587;0.4602;
88.2000;0.1571;0.4626;
88.5000;0.1587;0.4745;
88.8000;0.1490;0.4459;
89.1000;0.1604;0.4793;
89.4000;0.1612;0.4721;
89.7000;0.1587;0.4721;
90.0000;0.1571;0.4578;
90.3000;0.1595;0.4674;
90.6000;0.1579;0.4626;
90.9000;0.1669;0.4912;
91.2000;0.1563;0.4578;
91.5000;0.1595;0.4769;
91.8000;0.1693;0.5079;
92.1000;0.1579;0.4721;
92.4000;0.1571;0.4650;
92.7000;0.1563;0.4650;
93.0000;0.1563;0.4626;
93.3000;0.1620;0.4698;
93.6000;0.1587;0.4578;
93.9000;0.1595;0.4554;
94.2000;0.1587;0.4554;
94.5000;0.1563;0.4602;
94.8000;0.1579;0.4602;
95.1000;0.1587;0.4626;
95.4000;0.1498;0.4435;
95.7000;0.1571;0.4602;
96.0000;0.1579;0.4650;
96.3000;0.1652;0.4864;
96.6000;0.1538;0.4531;
96.9000;0.1595;0.4650;
97.2000;0.1563;0.4602;
97.5000;0.1538;0.4483;
97.8000;0.1595;0.4650;
98.1000;0.1587;0.4650;
98.4000;0.1628;0.4864;
98.7000;0.1547;0.4721;
99.0000;0.1587;0.4864;
99.3000;0.1587;0.4864;
99.6000;0.1579;0.4793;
99.9000;0.1579;0.4793;
100.2000;0.1571;0.4817;
100.5000;0.1571;0.4745;
100.8000;0.1571;0.4721;
101.1000;0.1571;0.4650;
101.4000;0.1587;0.4554;
101.7000;0.1595;0.4578;
102.0000;0.1579;0.4578;
102.3000;0.1571;0.4578;
102.6000;0.1579;0.4602;
102.9000;0.1595;0.4698;
103.2000;0.1685;0.5008;
103.5000;0.1595;0.4745;
103.8000;0.1555;0.4698;
104.1000;0.1571;0.4698;
104.4000;0.1587;0.4769;
104.7000;0.1604;0.4721;
105.0000;0.1595;0.4721;
105.3000;0.1595;0.4674;
105.6000;0.1595;0.4674;
105.9000;0.1579;0.4674;
106.2000;0.1563;0.4650;
106.5000;0.1579;0.4650;
106.8000;0.1595;0.4698;
107.1000;0.1563;0.4650;
107.4000;0.1579;0.4698;
107.7000;0.1604;0.4769;
108.0000;0.1579;0.4650;
108.3000;0.1587;0.4698;
108.6000;0.1595;0.4721;
108.9000;0.1620;0.4888;
109.2000;0.1628;0.4793;
109.5000;0.1563;0.4626;
109.8000;0.1587;0.4721;
110.1000;0.1579;0.4745;
110.4000;0.1579;0.4721;
110.7000;0.1563;0.4769;
111.0000;0.1587;0.4912;
111.3000;0.1587;0.4888;
111.6000;0.1555;0.4817;
111.9000;0.1595;0.4912;
112.2000;0.1571;0.4864;
112.5000;0.1538;0.4769;
112.8000;0.1571;0.4888;
113.1000;0.1579;0.4936;
113.4000;0.1587;0.5031;
113.7000;0.1563;0.4888;
114.0000;0.1587;0.4864;
114.3000;0.1579;0.4841;
114.6000;0.1571;0.4793;
114.9000;0.1587;0.4912;
115.2000;0.1620;0.5055;
115.5000;0.1579;0.4936;
115.8000;0.1595;0.4888;
116.1000;0.1595;0.4888;
116.4000;0.1620;0.4912;
116.7000;0.1547;0.4674;
117.0000;0.1563;0.4793;
117.3000;0.1652;0.5008;
117.6000;0.1571;0.4817;
117.9000;0.1628;0.4984;
118.2000;0.1604;0.4912;
118.5000;0.1579;0.4793;
118.8000;0.1571;0.4769;
119.1000;0.1563;0.4793;
119.4000;0.1620;0.5079;
119.7000;0.1587;0.4912;
120.0000;0.1579;0.4793;
120.3000;0.1571;0.4698;
120.6000;0.1628;0.4817;
120.9000;0.1685;0.5055;
121.2000;0.1579;0.4817;
121.5000;0.1595;0.4912;
121.8000;0.1563;0.4864;
122.1000;0.1571;0.4864;
122.4000;0.1579;0.4841;
122.7000;0.1563;0.4817;
123.0000;0.1587;0.4864;
123.3000;0.1571;0.4864;
123.6000;0.1506;0.4698;
123.9000;0.1555;0.4817;
124.2000;0.1595;0.4912;
124.5000;0.1604;0.5031;
124.8000;0.1595;0.4936;
125.1000;0.1579;0.4888;
125.4000;0.1579;0.4817;
125.7000;0.1587;0.4769;
126.0000;0.1571;0.4650;
126.3000;0.1579;0.4698;
126.6000;0.1538;0.4626;
126.9000;0.1587;0.4817;
127.2000;0.1579;0.4817;
127.5000;0.1587;0.4793;
127.8000;0.1595;0.4769;
128.1000;0.1644;0.4912;
128.4000;0.1579;0.4769;
128.7000;0.1579;0.4793;
129.0000;0.1612;0.4888;
129.3000;0.1579;0.4793;
129.6000;0.1555;0.4721;
129.9000;0.1571;0.4817;
130.2000;0.1644;0.5008;
130.5000;0.1571;0.4817;
130.8000;0.1579;0.4793;
131.1000;0.1587;0.4841;
131.4000;0.1612;0.4841;
131.7000;0.1595;0.4793;
132.0000;0.1579;0.4769;
132.3000;0.1579;0.4793;
132.6000;0.1579;0.4841;
132.9000;0.1579;0.4888;
133.2000;0.1579;0.4888;
133.5000;0.1563;0.4864;
133.8000;0.1547;0.4888;
134.1000;0.1555;0.4888;
134.4000;0.1587;0.4864;
134.7000;0.1571;0.4745;
135.0000;0.1530;0.4578;
135.3000;0.1595;0.4841;
135.6000;0.1538;0.4698;
135.9000;0.1579;0.4698;
136.2000;0.1579;0.4745;
136.5000;0.1620;0.4817;
136.8000;0.1595;0.4745;
137.1000;0.1571;0.4674;
137.4000;0.1571;0.4674;
137.7000;0.1579;0.4674;
138.0000;0.1571;0.4841;
138.3000;0.1595;0.4864;
138.6000;0.1555;0.4769;
138.9000;0.1595;0.4888;
139.2000;0.1579;0.4888;
139.5000;0.1595;0.4841;
139.8000;0.1587;0.4793;
140.1000;0.1579;0.4745;
140.4000;0.1587;0.4674;
140.7000;0.1579;0.4602;
141.0000;0.1595;0.4650;
141.3000;0.1604;0.4721;
141.6000;0.1571;0.4626;
141.9000;0.1481;0.4268;
142.2000;0.1555;0.4435;
142.5000;0.1571;0.4507;
142.8000;0.1579;0.4531;
143.1000;0.1579;0.4483;
143.4000;0.1604;0.4554;
143.7000;0.1563;0.4507;
144.0000;0.1587;0.4602;
144.3000;0.1547;0.4531;
144.6000;0.1644;0.4674;
144.9000;0.1579;0.4483;
145.2000;0.1571;0.4578;
145.5000;0.1604;0.4721;
145.8000;0.1620;0.4721;
146.1000;0.1579;0.4626;
146.4000;0.1514;0.4531;
146.7000;0.1579;0.4650;
147.0000;0.1563;0.4578;
147.3000;0.1563;0.4578;
147.6000;0.1579;0.4626;
147.9000;0.1563;0.4674;
148.2000;0.1587;0.4674;
148.5000;0.1604;0.4602;
148.8000;0.1587;0.4554;
149.1000;0.1587;0.4507;
149.4000;0.1571;0.4364;
149.7000;0.1604;0.4483;
150.0000;0.1612;0.4459;
150.3000;0.1563;0.4483;
150.6000;0.1587;0.4602;
150.9000;0.1563;0.4578;
151.2000;0.1587;0.4602;
151.5000;0.1587;0.4650;
151.8000;0.1595;0.4769;
152.1000;0.1628;0.4841;
152.4000;0.1555;0.4626;
152.7000;0.1579;0.4721;
153.0000;0.1595;0.4841;
153.3000;0.1587;0.4841;
153.6000;0.1579;0.4793;
153.9000;0.1579;0.4745;
154.2000;0.1587;0.4650;
154.5000;0.1571;0.4650;
154.8000;0.1604;0.4650;
155.1000;0.1661;0.4841;
155.4000;0.1530;0.4435;
155.7000;0.1579;0.4626;
156.0000;0.1579;0.4626;
156.3000;0.1579;0.4650;
156.6000;0.1506;0.4435;
156.9000;0.1571;0.4507;
157.2000;0.1563;0.4507;
157.5000;0.1563;0.4650;
157.8000;0.1595;0.4698;
158.1000;0.1579;0.4674;
158.4000;0.1555;0.4650;
158.7000;0.1571;0.4698;
159.0000;0.1538;0.4650;
159.3000;0.1571;0.4650;
159.6000;0.1538;0.4507;
159.9000;0.1579;0.4602;
160.2000;0.1563;0.4578;
160.5000;0.1563;0.4483;
160.8000;0.1579;0.4531;
161.1000;0.1587;0.4554;
161.4000;0.1587;0.4483;
161.7000;0.1604;0.4531;
162.0000;0.1498;0.4292;
162.3000;0.1612;0.4602;
162.6000;0.1571;0.4483;
162.9000;0.1547;0.4388;
163.2000;0.1530;0.4268;
163.5000;0.1652;0.4578;
163.8000;0.1612;0.4578;
164.1000;0.1579;0.4483;
164.4000;0.1579;0.4459;
164.7000;0.1571;0.4483;
165.0000;0.1571;0.4554;
165.3000;0.1579;0.4554;
165.6000;0.1587;0.4554;
165.9000;0.1612;0.4626;
166.2000;0.1579;0.4554;
166.5000;0.1514;0.4316;
166.8000;0.1579;0.4554;
167.1000;0.1595;0.4578;
167.4000;0.1579;0.4531;
167.7000;0.1652;0.4721;
168.0000;0.1587;0.4459;
168.3000;0.1669;0.4650;
168.6000;0.1579;0.4459;
168.9000;0.1571;0.4507;
169.2000;0.1571;0.4626;
169.5000;0.1620;0.4721;
169.8000;0.1636;0.4745;
170.1000;0.1563;0.4554;
170.4000;0.1595;0.4602;
170.7000;0.1661;0.4793;
171.0000;0.1579;0.4554;
171.3000;0.1555;0.4459;
171.6000;0.1506;0.4316;
171.9000;0.1595;0.4578;
172.2000;0.1579;0.4483;
172.5000;0.1604;0.4531;
172.8000;0.1579;0.4435;
173.1000;0.1587;0.4292;
173.4000;0.1587;0.4268;
173.7000;0.1571;0.4197;
174.0000;0.1547;0.4149;
174.3000;0.1555;0.4268;
174.6000;0.1628;0.4411;
174.9000;0.1587;0.4292;
175.2000;0.1587;0.4268;
175.5000;0.1563;0.4268;
175.8000;0.1579;0.4244;
176.1000;0.1587;0.4340;
176.4000;0.1587;0.4340;
176.7000;0.1587;0.4316;
177.0000;0.1579;0.4197;
177.3000;0.1579;0.4221;
177.6000;0.1595;0.4292;
177.9000;0.1579;0.4316;
178.2000;0.1604;0.4459;
178.5000;0.1587;0.4388;
178.8000;0.1571;0.4411;
179.1000;0.1547;0.4388;
179.4000;0.1571;0.4364;
179.7000;0.1514;0.4149;
180.0000;0.1587;0.4316;
180.3000;0.1571;0.4292;
180.6000;0.1571;0.4244;
180.9000;0.1579;0.4292;
181.2000;0.1555;0.4268;
181.5000;0.1506;0.4149;
181.8000;0.1538;0.4101;
182.1000;0.1595;0.4268;
182.4000;0.1579;0.4221;
182.7000;0.1595;0.4316;
183.0000;0.1595;0.4459;
183.3000;0.1701;0.4721;
183.6000;0.1571;0.4316;
183.9000;0.1579;0.4316;
184.2000;0.1571;0.4292;
184.5000;0.1522;0.4316;
184.8000;0.1595;0.4435;
185.1000;0.1563;0.4316;
185.4000;0.1555;0.4292;
185.7000;0.1579;0.4388;
186.0000;0.1595;0.4435;
186.3000;0.1587;0.4459;
186.6000;0.1555;0.4340;
186.9000;0.1563;0.4316;
187.2000;0.1571;0.4340;
187.5000;0.1587;0.4340;
187.8000;0.1571;0.4388;
188.1000;0.1587;0.4411;
188.4000;0.1579;0.4459;
188.7000;0.1538;0.4364;
189.0000;0.1571;0.4435;
189.3000;0.1571;0.4411;
189.6000;0.1547;0.4340;
189.9000;0.1530;0.4197;
190.2000;0.1571;0.4292;
190.5000;0.1555;0.4292;
190.8000;0.1579;0.4340;
191.1000;0.1587;0.4411;
191.4000;0.1595;0.4531;
191.7000;0.1465;0.4125;
192.0000;0.1563;0.4388;
192.3000;0.1563;0.4364;
192.6000;0.1571;0.4364;
192.9000;0.1579;0.4411;
193.2000;0.1563;0.4340;
193.5000;0.1571;0.4411;
193.8000;0.1595;0.4459;
194.1000;0.1571;0.4364;
194.4000;0.1587;0.4388;
194.7000;0.1563;0.4411;
195.0000;0.1587;0.4459;
195.3000;0.1579;0.4364;
195.6000;0.1579;0.4388;
195.9000;0.1555;0.4411;
196.2000;0.1555;0.4340;
196.5000;0.1587;0.4364;
196.8000;0.1547;0.4340;
197.1000;0.1595;0.4388;
197.4000;0.1579;0.4364;
197.7000;0.1555;0.4244;
198.0000;0.1595;0.4292;
198.3000;0.1555;0.4197;
198.6000;0.1563;0.4268;
198.9000;0.1579;0.4388;
199.2000;0.1579;0.4411;
199.5000;0.1522;0.4316;
199.8000;0.1595;0.4531;
200.1000;0.1587;0.4531;
200.4000;0.1563;0.4435;
200.7000;0.1571;0.4459;
201.0000;0.1498;0.4173;
201.3000;0.1571;0.4316;
201.6000;0.1587;0.4268;
201.9000;0.1587;0.4292;
202.2000;0.1506;0.4173;
202.5000;0.1595;0.4340;
202.8000;0.1587;0.4364;
203.1000;0.1587;0.4388;
203.4000;0.1563;0.4292;
203.7000;0.1538;0.4197;
204.0000;0.1604;0.4292;
204.3000;0.1587;0.4268;
204.6000;0.1514;0.4149;
204.9000;0.1579;0.4316;
205.2000;0.1579;0.4364;
205.5000;0.1555;0.4221;
205.8000;0.1587;0.4316;
206.1000;0.1587;0.4316;
206.4000;0.1571;0.4268;
206.7000;0.1547;0.4173;
207.0000;0.1661;0.4554;
207.3000;0.1628;0.4411;
207.6000;0.1555;0.4292;
207.9000;0.1612;0.4531;
208.2000;0.1587;0.4316;
208.5000;0.1587;0.4244;
208.8000;0.1571;0.4244;
209.1000;0.1547;0.4244;
209.4000;0.1579;0.4364;
209.7000;0.1595;0.4316;
210.0000;0.1506;0.4149;
210.3000;0.1579;0.4316;
210.6000;0.1563;0.4268;
210.9000;0.1587;0.4411;
211.2000;0.1473;0.4125;
211.5000;0.1563;0.4340;
211.8000;0.1587;0.4411;
212.1000;0.1595;0.4459;
212.4000;0.1579;0.4435;
212.7000;0.1571;0.4435;
213.0000;0.1563;0.4411;
213.3000;0.1628;0.4554;
213.6000;0.1579;0.4411;
213.9000;0.1571;0.4340;
214.2000;0.1612;0.4388;
214.5000;0.1579;0.4340;
214.8000;0.1604;0.4435;
215.1000;0.1571;0.4411;
215.4000;0.1571;0.4411;
215.7000;0.1522;0.4316;
216.0000;0.1587;0.4364;
216.3000;0.1555;0.4244;
216.6000;0.1563;0.4292;
216.9000;0.1547;0.4268;
217.2000;0.1579;0.4340;
217.5000;0.1612;0.4435;
217.8000;0.1563;0.4340;
218.1000;0.1571;0.4411;
218.4000;0.1595;0.4411;
218.7000;0.1587;0.4316;
219.0000;0.1538;0.4221;
219.3000;0.1522;0.4125;
219.6000;0.1604;0.4316;
219.9000;0.1604;0.4268;
220.2000;0.1587;0.4316;
220.5000;0.1587;0.4364;
220.8000;0.1587;0.4340;
221.1000;0.1555;0.4268;
221.4000;0.1571;0.4292;
221.7000;0.1595;0.4388;
222.0000;0.1563;0.4268;
222.3000;0.1579;0.4244;
222.6000;0.1579;0.4268;
222.9000;0.1563;0.4244;
223.2000;0.1563;0.4221;
223.5000;0.1563;0.4173;
223.8000;0.1579;0.4173;
224.1000;0.1538;0.4006;
224.4000;0.1644;0.4411;
224.7000;0.1579;0.4268;
225.0000;0.1701;0.4578;
225.3000;0.1571;0.4292;
225.6000;0.1506;0.4149;
225.9000;0.1571;0.4268;
226.2000;0.1644;0.4435;
226.5000;0.1587;0.4292;
226.8000;0.1571;0.4244;
227.1000;0.1579;0.4316;
227.4000;0.1579;0.4316;
227.7000;0.1604;0.4364;
228.0000;0.1587;0.4316;
228.3000;0.1555;0.4268;
228.6000;0.1571;0.4316;
228.9000;0.1522;0.4268;
229.2000;0.1571;0.4316;
229.5000;0.1547;0.4364;
229.8000;0.1579;0.4435;
230.1000;0.1571;0.4459;
230.4000;0.1587;0.4507;
230.7000;0.1579;0.4483;
231.0000;0.1571;0.4531;
231.3000;0.1612;0.4602;
231.6000;0.1595;0.4602;
231.9000;0.1563;0.4531;
232.2000;0.1571;0.4531;
232.5000;0.1563;0.4507;
232.8000;0.1595;0.4483;
233.1000;0.1538;0.4411;
233.4000;0.1571;0.4411;
233.7000;0.1571;0.4388;
234.0000;0.1579;0.4435;
234.3000;0.1579;0.4411;
234.6000;0.1587;0.4483;
234.9000;0.1587;0.4483;
235.2000;0.1498;0.4221;
235.5000;0.1587;0.4459;
235.8000;0.1571;0.4388;
236.1000;0.1612;0.4483;
236.4000;0.1595;0.4483;
236.7000;0.1555;0.4340;
237.0000;0.1571;0.4388;
237.3000;0.1571;0.4364;
237.6000;0.1579;0.4388;
237.9000;0.1555;0.4292;
238.2000;0.1571;0.4364;
238.5000;0.1571;0.4340;
238.8000;0.1620;0.4507;
239.1000;0.1587;0.4507;
239.4000;0.1604;0.4554;
239.7000;0.1538;0.4388;
240.0000;0.1579;0.4483;
240.3000;0.1547;0.4435;
240.6000;0.1595;0.4507;
240.9000;0.1685;0.4745;
241.2000;0.1636;0.4698;
241.5000;0.1522;0.4435;
241.8000;0.1620;0.4674;
242.1000;0.1587;0.4554;
242.4000;0.1677;0.4841;
242.7000;0.1595;0.4602;
243.0000;0.1579;0.4554;
243.3000;0.1587;0.4531;
243.6000;0.1563;0.4459;
243.9000;0.1587;0.4483;
244.2000;0.1595;0.4602;
244.5000;0.1571;0.4554;
244.8000;0.1563;0.4435;
245.1000;0.1579;0.4435;
245.4000;0.1571;0.4411;
245.7000;0.1579;0.4459;
246.0000;0.1579;0.4507;
246.3000;0.1579;0.4578;
246.6000;0.1595;0.4602;
246.9000;0.1579;0.4578;
247.2000;0.1538;0.4483;
247.5000;0.1571;0.4507;
247.8000;0.1571;0.4531;
248.1000;0.1587;0.4483;
248.4000;0.1595;0.4507;
248.7000;0.1595;0.4626;
249.0000;0.1571;0.4674;
249.3000;0.1595;0.4698;
249.6000;0.1555;0.4578;
249.9000;0.1620;0.4745;
250.2000;0.1595;0.4650;
250.5000;0.1563;0.4554;
250.8000;0.1579;0.4626;
251.1000;0.1571;0.4674;
251.4000;0.1563;0.4674;
251.7000;0.1587;0.4626;
252.0000;0.1595;0.4626;
252.3000;0.1587;0.4531;
252.6000;0.1563;0.4507;
252.9000;0.1587;0.4578;
253.2000;0.1612;0.4674;
253.5000;0.1587;0.4626;
253.8000;0.1579;0.4721;
254.1000;0.1563;0.4626;
254.4000;0.1595;0.4626;
254.7000;0.1579;0.4554;
255.0000;0.1555;0.4531;
255.3000;0.1628;0.4554;
255.6000;0.1579;0.4364;
255.9000;0.1498;0.4197;
256.2000;0.1563;0.4388;
256.5000;0.1571;0.4554;
256.8000;0.1579;0.4650;
257.1000;0.1555;0.4650;
257.4000;0.1563;0.4650;
257.7000;0.1587;0.4769;
258.0000;0.1587;0.4769;
258.3000;0.1563;0.4650;
258.6000;0.1595;0.4602;
258.9000;0.1571;0.4578;
259.2000;0.1579;0.4554;
259.5000;0.1579;0.4531;
259.8000;0.1587;0.4602;
260.1000;0.1587;0.4578;
260.4000;0.1612;0.4674;
260.7000;0.1579;0.4626;
261.0000;0.1579;0.4602;
261.3000;0.1579;0.4626;
261.6000;0.1563;0.4459;
261.9000;0.1530;0.4292;
262.2000;0.1571;0.4340;
262.5000;0.1571;0.4364;
262.8000;0.1579;0.4459;
263.1000;0.1579;0.4435;
263.4000;0.1587;0.4507;
263.7000;0.1579;0.4554;
264.0000;0.1579;0.4507;
264.3000;0.1587;0.4578;
264.6000;0.1571;0.4578;
264.9000;0.1612;0.4674;
265.2000;0.1612;0.4626;
265.5000;0.1563;0.4483;
265.8000;0.1563;0.4483;
266.1000;0.1571;0.4578;
266.4000;0.1563;0.4507;
266.7000;0.1547;0.4483;
267.0000;0.1563;0.4531;
267.3000;0.1685;0.4888;
267.6000;0.1587;0.4650;
267.9000;0.1538;0.4602;
268.2000;0.1538;0.4554;
268.5000;0.1595;0.4721;
268.8000;0.1587;0.4698;
269.1000;0.1604;0.4745;
269.4000;0.1579;0.4578;
269.7000;0.1563;0.4602;
270.0000;0.1595;0.4650;
270.3000;0.1579;0.4602;
270.6000;0.1563;0.4650;
270.9000;0.1579;0.4602;
271.2000;0.1571;0.4435;
271.5000;0.1579;0.4364;
271.8000;0.1579;0.4340;
272.1000;0.1563;0.4316;
272.4000;0.1636;0.4507;
272.7000;0.1620;0.4578;
273.0000;0.1571;0.4483;
273.3000;0.1538;0.4364;
273.6000;0.1579;0.4459;
273.9000;0.1563;0.4388;
274.2000;0.1587;0.4483;
274.5000;0.1579;0.4435;
274.8000;0.1579;0.4435;
275.1000;0.1579;0.4388;
275.4000;0.1571;0.4435;
275.7000;0.1571;0.4388;
276.0000;0.1587;0.4411;
276.3000;0.1595;0.4507;
276.6000;0.1587;0.4602;
276.9000;0.1538;0.4531;
277.2000;0.1547;0.4483;
277.5000;0.1498;0.4364;
277.8000;0.1579;0.4554;
278.1000;0.1571;0.4507;
278.4000;0.1587;0.4483;
278.7000;0.1587;0.4483;
279.0000;0.1473;0.4244;
279.3000;0.1547;0.4411;
279.6000;0.1587;0.4507;
279.9000;0.1457;0.4125;
280.2000;0.1571;0.4411;
280.5000;0.1563;0.4292;
280.8000;0.1538;0.4173;
281.1000;0.1571;0.4292;
281.4000;0.1685;0.4650;
281.7000;0.1555;0.4364;
282.0000;0.1579;0.4411;
282.3000;0.1563;0.4340;
282.6000;0.1579;0.4340;
282.9000;0.1595;0.4316;
283.2000;0.1571;0.4292;
283.5000;0.1571;0.4292;
283.8000;0.1563;0.4221;
284.1000;0.1579;0.4268;
284.4000;0.1587;0.4316;
284.7000;0.1579;0.4364;
285.0000;0.1587;0.4459;
285.3000;0.1595;0.4578;
285.6000;0.1587;0.4531;
285.9000;0.1571;0.4602;
286.2000;0.1563;0.4507;
286.5000;0.1563;0.4507;
286.8000;0.1604;0.4578;
287.1000;0.1579;0.4531;
287.4000;0.1579;0.4507;
287.7000;0.1579;0.4435;
288.0000;0.1612;0.4531;
288.3000;0.1587;0.4459;
288.6000;0.1579;0.4459;
288.9000;0.1547;0.4507;
289.2000;0.1587;0.4578;
289.5000;0.1669;0.4769;
289.8000;0.1555;0.4483;
290.1000;0.1555;0.4507;
290.4000;0.1571;0.4602;
290.7000;0.1587;0.4602;
291.0000;0.1587;0.4650;
291.3000;0.1555;0.4674;
291.6000;0.1571;0.4674;
291.9000;0.1571;0.4674;
292.2000;0.1579;0.4698;
292.5000;0.1579;0.4721;
292.8000;0.1563;0.4602;
293.1000;0.1571;0.4554;
293.4000;0.1571;0.4602;
293.7000;0.1563;0.4554;
294.0000;0.1612;0.4698;
294.3000;0.1579;0.4507;
294.6000;0.1587;0.4411;
294.9000;0.1587;0.4507;
295.2000;0.1571;0.4483;
295.5000;0.1571;0.4483;
295.8000;0.1587;0.4483;
296.1000;0.1555;0.4364;
296.4000;0.1604;0.4435;
296.7000;0.1579;0.4364;
297.0000;0.1579;0.4340;
297.3000;0.1530;0.4221;
297.6000;0.1490;0.4221;
297.9000;0.1579;0.4388;
298.2000;0.1587;0.4388;
298.5000;0.1595;0.4388;
298.8000;0.1530;0.4221;
299.1000;0.1547;0.4364;
299.4000;0.1563;0.4459;
299.7000;0.1579;0.4483;
300.0000;0.1571;0.4411;
300.3000;0.1620;0.4531;
300.6000;0.1538;0.4292;
300.9000;0.1506;0.4221;
301.2000;0.1587;0.4364;
301.5000;0.1677;0.4578;
301.8000;0.1579;0.4435;
302.1000;0.1579;0.4459;
302.4000;0.1579;0.4435;
302.7000;0.1571;0.4411;
303.0000;0.1587;0.4507;
303.3000;0.1514;0.4388;
303.6000;0.1595;0.4602;
303.9000;0.1587;0.4674;
304.2000;0.1587;0.4626;
304.5000;0.1563;0.4435;
304.8000;0.1579;0.4435;
305.1000;0.1563;0.4411;
305.4000;0.1571;0.4435;
305.7000;0.1571;0.4411;
306.0000;0.1547;0.4292;
306.3000;0.1587;0.4364;
306.6000;0.1563;0.4244;
306.9000;0.1579;0.4244;
307.2000;0.1571;0.4292;
307.5000;0.1612;0.4364;
307.8000;0.1595;0.4268;
308.1000;0.1587;0.4268;
308.4000;0.1571;0.4149;
308.7000;0.1612;0.4244;
309.0000;0.1587;0.4292;
309.3000;0.1587;0.4435;
309.6000;0.1530;0.4364;
309.9000;0.1579;0.4435;
310.2000;0.1579;0.4459;
310.5000;0.1538;0.4388;
310.8000;0.1571;0.4554;
311.1000;0.1563;0.4507;
311.4000;0.1571;0.4578;
311.7000;0.1587;0.4578;
312.0000;0.1587;0.4650;
312.3000;0.1571;0.4674;
312.6000;0.1636;0.4674;
312.9000;0.1579;0.4483;
313.2000;0.1579;0.4554;
313.5000;0.1571;0.4507;
313.8000;0.1506;0.4364;
314.1000;0.1547;0.4531;
314.4000;0.1571;0.4578;
314.7000;0.1563;0.4459;
315.0000;0.1547;0.4388;
315.3000;0.1628;0.4626;
315.6000;0.1563;0.4459;
315.9000;0.1563;0.4483;
316.2000;0.1563;0.4507;
316.5000;0.1555;0.4364;
316.8000;0.1498;0.4244;
317.1000;0.1538;0.4316;
317.4000;0.1595;0.4435;
317.7000;0.1604;0.4411;
318.0000;0.1620;0.4435;
318.3000;0.1563;0.4364;
318.6000;0.1563;0.4364;
318.9000;0.1587;0.4411;
319.2000;0.1465;0.4197;
319.5000;0.1595;0.4626;
319.8000;0.1579;0.4650;
320.1000;0.1547;0.4578;
320.4000;0.1555;0.4507;
320.7000;0.1555;0.4435;
321.0000;0.1595;0.4459;
321.3000;0.1571;0.4411;
321.6000;0.1595;0.4531;
321.9000;0.1571;0.4507;
322.2000;0.1604;0.4578;
322.5000;0.1579;0.4531;
322.8000;0.1587;0.4554;
323.1000;0.1563;0.4507;
323.4000;0.1563;0.4364;
323.7000;0.1547;0.4340;
324.0000;0.1571;0.4411;
324.3000;0.1547;0.4388;
324.6000;0.1595;0.4531;
324.9000;0.1579;0.4507;
325.2000;0.1587;0.4578;
325.5000;0.1490;0.4268;
325.8000;0.1595;0.4626;
326.1000;0.1571;0.4578;
326.4000;0.1563;0.4531;
326.7000;0.1579;0.4531;
327.0000;0.1571;0.4483;
327.3000;0.1620;0.4626;
327.6000;0.1563;0.4435;
327.9000;0.1587;0.4483;
328.2000;0.1563;0.4388;
328.5000;0.1587;0.4531;
328.8000;0.1571;0.4507;
329.1000;0.1595;0.4531;
329.4000;0.1579;0.4531;
329.7000;0.1644;0.4721;
330.0000;0.1571;0.4507;
330.3000;0.1514;0.4340;
330.6000;0.1538;0.4364;
330.9000;0.1628;0.4626;
331.2000;0.1563;0.4435;
331.5000;0.1547;0.4340;
331.8000;0.1563;0.4364;
332.1000;0.1571;0.4364;
332.4000;0.1465;0.4030;
332.7000;0.1595;0.4364;
333.0000;0.1571;0.4244;
333.3000;0.1604;0.4292;
333.6000;0.1579;0.4340;
333.9000;0.1571;0.4435;
334.2000;0.1652;0.4626;
334.5000;0.1604;0.4507;
334.8000;0.1571;0.4388;
335.1000;0.1571;0.4388;
335.4000;0.1530;0.4388;
335.7000;0.1538;0.4435;
336.0000;0.1563;0.4435;
336.3000;0.1571;0.4531;
336.6000;0.1620;0.4578;
336.9000;0.1563;0.4507;
337.2000;0.1587;0.4507;
337.5000;0.1595;0.4435;
337.8000;0.1571;0.4340;
338.1000;0.1579;0.4316;
338.4000;0.1563;0.4411;
338.7000;0.1563;0.4531;
339.0000;0.1547;0.4459;
339.3000;0.1571;0.4578;
339.6000;0.1620;0.4602;
339.9000;0.1587;0.4554;
340.2000;0.1579;0.4507;
340.5000;0.1579;0.4411;
340.8000;0.1595;0.4459;
341.1000;0.1595;0.4459;
341.4000;0.1579;0.4531;
341.7000;0.1620;0.4626;
342.0000;0.1579;0.4554;
342.3000;0.1579;0.4483;
342.6000;0.1579;0.4507;
342.9000;0.1571;0.4578;
343.2000;0.1571;0.4483;
343.5000;0.1636;0.4650;
343.8000;0.1571;0.4435;
344.1000;0.1587;0.4578;
344.4000;0.1481;0.4340;
344.7000;0.1563;0.4554;
345.0000;0.1595;0.4626;
345.3000;0.1563;0.4578;
345.6000;0.1595;0.4698;
345.9000;0.1579;0.4674;
346.2000;0.1571;0.4602;
346.5000;0.1571;0.4531;
346.8000;0.1538;0.4459;
347.1000;0.1555;0.4626;
347.4000;0.1563;0.4698;
347.7000;0.1579;0.4674;
348.0000;0.1563;0.4674;
348.3000;0.1571;0.4674;
348.6000;0.1620;0.4793;
348.9000;0.1652;0.4745;
349.2000;0.1563;0.4459;
349.5000;0.1465;0.4244;
349.8000;0.1587;0.4578;
350.1000;0.1555;0.4626;
350.4000;0.1563;0.4626;
350.7000;0.1571;0.4602;
351.0000;0.1449;0.4411;
351.3000;0.1579;0.4698;
351.6000;0.1579;0.4745;
351.9000;0.1571;0.4650;
352.2000;0.1709;0.4984;
352.5000;0.1571;0.4602;
352.8000;0.1571;0.4674;
353.1000;0.1587;0.4817;
353.4000;0.1563;0.4793;
353.7000;0.1587;0.4817;
354.0000;0.1579;0.4721;
354.3000;0.1547;0.4578;
354.6000;0.1595;0.4602;
354.9000;0.1595;0.4793;
355.2000;0.1587;0.4769;
355.5000;0.1579;0.4650;
355.8000;0.1571;0.4578;
356.1000;0.1571;0.4674;
356.4000;0.1620;0.4793;
356.7000;0.1555;0.4578;
357.0000;0.1571;0.4578;
357.3000;0.1628;0.4698;
357.6000;0.1595;0.4578;
357.9000;0.1538;0.4411;
358.2000;0.1547;0.4411;
358.5000;0.1587;0.4578;
358.8000;0.1587;0.4602;
359.1000;0.1579;0.4554;
359.4000;0.1563;0.4531;
359.7000;0.1571;0.4507;
360.0000;0.1579;0.4554;
360.3000;0.1587;0.4578;
360.6000;0.1595;0.4626;
360.9000;0.1587;0.4578;
361.2000;0.1587;0.4554;
361.5000;0.1587;0.4507;
361.8000;0.1612;0.4554;
362.1000;0.1587;0.4507;
362.4000;0.1612;0.4626;
362.7000;0.1595;0.4507;
363.0000;0.1595;0.4459;
363.3000;0.1571;0.4292;
363.6000;0.1612;0.4411;
363.9000;0.1571;0.4411;
364.2000;0.1555;0.4435;
364.5000;0.1587;0.4554;
364.8000;0.1563;0.4507;
365.1000;0.1587;0.4411;
365.4000;0.1604;0.4435;
365.7000;0.1563;0.4388;
366.0000;0.1498;0.4197;
366.3000;0.1563;0.4388;
366.6000;0.1595;0.4435;
366.9000;0.1571;0.4411;
367.2000;0.1538;0.4340;
367.5000;0.1587;0.4411;
367.8000;0.1563;0.4411;
368.1000;0.1579;0.4411;
368.4000;0.1595;0.4411;
368.7000;0.1571;0.4364;
369.0000;0.1563;0.4292;
369.3000;0.1563;0.4292;
369.6000;0.1587;0.4316;
369.9000;0.1595;0.4316;
370.2000;0.1571;0.4340;
370.5000;0.1579;0.4388;
370.8000;0.1563;0.4340;
371.1000;0.1579;0.4411;
371.4000;0.1587;0.4411;
371.7000;0.1579;0.4364;
372.0000;0.1587;0.4364;
372.3000;0.1677;0.4602;
372.6000;0.1628;0.4483;
372.9000;0.1571;0.4435;
373.2000;0.1604;0.4602;
373.5000;0.1661;0.4602;
373.8000;0.1587;0.4435;
374.1000;0.1604;0.4483;
374.4000;0.1579;0.4411;
374.7000;0.1579;0.4411;
375.0000;0.1595;0.4483;
375.3000;0.1571;0.4388;
375.6000;0.1547;0.4435;
375.9000;0.1579;0.4554;
376.2000;0.1587;0.4602;
376.5000;0.1498;0.4388;
376.8000;0.1571;0.4554;
377.1000;0.1538;0.4483;
377.4000;0.1571;0.4411;
377.7000;0.1587;0.4507;
378.0000;0.1587;0.4531;
378.3000;0.1522;0.4388;
378.6000;0.1563;0.4578;
378.9000;0.1571;0.4554;
379.2000;0.1579;0.4578;
379.5000;0.1579;0.4698;
379.8000;0.1587;0.4578;
380.1000;0.1587;0.4602;
380.4000;0.1514;0.4340;
380.7000;0.1571;0.4531;
381.0000;0.1555;0.4602;
381.3000;0.1522;0.4507;
381.6000;0.1571;0.4650;
381.9000;0.1555;0.4578;
382.2000;0.1579;0.4578;
382.5000;0.1587;0.4531;
382.8000;0.1604;0.4531;
383.1000;0.1579;0.4483;
383.4000;0.1579;0.4507;
383.7000;0.1612;0.4507;
384.0000;0.1555;0.4411;
384.3000;0.1555;0.4459;
384.6000;0.1555;0.4364;
384.9000;0.1579;0.4435;
385.2000;0.1571;0.4578;
385.5000;0.1571;0.4578;
385.8000;0.1571;0.4698;
386.1000;0.1587;0.4698;
386.4000;0.1579;0.4626;
386.7000;0.1563;0.4531;
387.0000;0.1563;0.4578;
387.3000;0.1563;0.4578;
387.6000;0.1555;0.4507;
387.9000;0.1579;0.4578;
388.2000;0.1514;0.4435;
388.5000;0.1571;0.4674;
388.8000;0.1587;0.4674;
389.1000;0.1530;0.4507;
389.4000;0.1595;0.4769;
389.7000;0.1555;0.4674;
390.0000;0.1579;0.4698;
390.3000;0.1547;0.4578;
390.6000;0.1563;0.4602;
390.9000;0.1579;0.4602;
391.2000;0.1563;0.4578;
391.5000;0.1563;0.4602;
391.8000;0.1579;0.4626;
392.1000;0.1579;0.4650;
392.4000;0.1718;0.5151;
392.7000;0.1571;0.4698;
393.0000;0.1620;0.4817;
393.3000;0.1530;0.4507;
393.6000;0.1579;0.4650;
393.9000;0.1595;0.4674;
394.2000;0.1612;0.4721;
394.5000;0.1555;0.4578;
394.8000;0.1587;0.4650;
395.1000;0.1604;0.4626;
395.4000;0.1669;0.4793;
395.7000;0.1587;0.4578;
396.0000;0.1555;0.4483;
396.3000;0.1547;0.4483;
396.6000;0.1612;0.4698;
396.9000;0.1579;0.4602;
397.2000;0.1587;0.4554;
397.5000;0.1636;0.4674;
397.8000;0.1587;0.4578;
398.1000;0.1563;0.4554;
398.4000;0.1587;0.4483;
398.7000;0.1571;0.4435;
399.0000;0.1555;0.4459;
399.3000;0.1579;0.4531;
399.6000;0.1579;0.4531;
399.9000;0.1595;0.4602;
400.2000;0.1555;0.4578;
400.5000;0.1571;0.4626;
400.8000;0.1571;0.4554;
401.1000;0.1571;0.4483;
401.4000;0.1571;0.4554;
401.7000;0.1571;0.4626;
402.0000;0.1571;0.4650;
402.3000;0.1555;0.4626;
402.6000;0.1571;0.4578;
402.9000;0.1571;0.4531;
403.2000;0.1579;0.4411;
403.5000;0.1620;0.4435;
403.8000;0.1587;0.4340;
404.1000;0.1563;0.4244;
404.4000;0.1595;0.4292;
404.7000;0.1644;0.4388;
405.0000;0.1587;0.4173;
405.3000;0.1579;0.4125;
405.6000;0.1595;0.4268;
405.9000;0.1587;0.4268;
406.2000;0.1579;0.4292;
406.5000;0.1579;0.4316;
406.8000;0.1587;0.4364;
407.1000;0.1595;0.4435;
407.4000;0.1628;0.4507;
407.7000;0.1587;0.4364;
408.0000;0.1563;0.4268;
408.3000;0.1571;0.4221;
408.6000;0.1612;0.4411;
408.9000;0.1555;0.4292;
409.2000;0.1514;0.4197;
409.5000;0.1555;0.4316;
409.8000;0.1587;0.4435;
410.1000;0.1587;0.4554;
410.4000;0.1595;0.4531;
410.7000;0.1587;0.4554;
411.0000;0.1587;0.4554;
411.3000;0.1587;0.4483;
411.6000;0.1636;0.4578;
411.9000;0.1587;0.4507;
412.2000;0.1693;0.4745;
412.5000;0.1571;0.4483;
412.8000;0.1547;0.4364;
413.1000;0.1669;0.4626;
413.4000;0.1587;0.4411;
413.7000;0.1571;0.4435;
414.0000;0.1612;0.4554;
414.3000;0.1571;0.4459;
414.6000;0.1571;0.4531;
414.9000;0.1555;0.4435;
415.2000;0.1587;0.4483;
415.5000;0.1571;0.4531;
415.8000;0.1579;0.4507;
416.1000;0.1555;0.4435;
416.4000;0.1579;0.4578;
416.7000;0.1579;0.4531;
417.0000;0.1563;0.4507;
417.3000;0.1604;0.4554;
417.6000;0.1571;0.4578;
417.9000;0.1571;0.4698;
418.2000;0.1555;0.4650;
418.5000;0.1587;0.4793;
418.8000;0.1579;0.4650;
419.1000;0.1579;0.4698;
419.4000;0.1571;0.4626;
419.7000;0.1579;0.4650;
420.0000;0.1612;0.4674;
420.3000;0.1571;0.4650;
420.6000;0.1595;0.4698;
420.9000;0.1587;0.4602;
421.2000;0.1604;0.4602;
421.5000;0.1595;0.4698;
421.8000;0.1571;0.4650;
422.1000;0.1563;0.4626;
422.4000;0.1579;0.4650;
422.7000;0.1571;0.4578;
423.0000;0.1563;0.4483;
423.3000;0.1522;0.4364;
423.6000;0.1571;0.4507;
423.9000;0.1579;0.4483;
424.2000;0.1587;0.4411;
424.5000;0.1587;0.4435;
424.8000;0.1563;0.4435;
425.1000;0.1587;0.4459;
425.4000;0.1563;0.4340;
425.7000;0.1563;0.4340;
426.0000;0.1579;0.4364;
426.3000;0.1587;0.4364;
426.6000;0.1628;0.4554;
426.9000;0.1571;0.4459;
427.2000;0.1579;0.4531;
427.5000;0.1555;0.4554;
427.8000;0.1457;0.4268;
428.1000;0.1604;0.4698;
428.4000;0.1579;0.4626;
428.7000;0.1571;0.4626;
429.0000;0.1579;0.4650;
429.3000;0.1587;0.4721;
429.6000;0.1587;0.4602;
429.9000;0.1555;0.4554;
430.2000;0.1579;0.4578;
430.5000;0.1571;0.4578;
430.8000;0.1571;0.4531;
431.1000;0.1571;0.4531;
431.4000;0.1571;0.4531;
431.7000;0.1758;0.5079;
432.0000;0.1571;0.4626;
432.3000;0.1571;0.4507;
432.6000;0.1587;0.4602;
432.9000;0.1604;0.4674;
433.2000;0.1579;0.4698;
433.5000;0.1571;0.4721;
433.8000;0.1555;0.4626;
434.1000;0.1563;0.4602;
434.4000;0.1579;0.4602;
434.7000;0.1563;0.4578;
435.0000;0.1538;0.4435;
435.3000;0.1563;0.4531;
435.6000;0.1636;0.4626;
435.9000;0.1579;0.4507;
436.2000;0.1579;0.4531;
436.5000;0.1587;0.4554;
436.8000;0.1661;0.4841;
437.1000;0.1555;0.4602;
437.4000;0.1612;0.4650;
437.7000;0.1571;0.4626;
438.0000;0.1595;0.4698;
438.3000;0.1563;0.4578;
438.6000;0.1595;0.4554;
438.9000;0.1579;0.4554;
439.2000;0.1555;0.4554;
439.5000;0.1555;0.4554;
439.8000;0.1571;0.4578;
440.1000;0.1579;0.4674;
440.4000;0.1522;0.4483;
440.7000;0.1547;0.4602;
441.0000;0.1669;0.4936;
441.3000;0.1628;0.4912;
441.6000;0.1587;0.4817;
441.9000;0.1612;0.4769;
442.2000;0.1571;0.4721;
442.5000;0.1595;0.4721;
442.8000;0.1498;0.4388;
443.1000;0.1595;0.4745;
443.4000;0.1514;0.4554;
443.7000;0.1587;0.4674;
444.0000;0.1579;0.4650;
444.3000;0.1652;0.4793;
444.6000;0.1538;0.4531;
444.9000;0.1571;0.4650;
445.2000;0.1652;0.4745;
445.5000;0.1571;0.4507;
445.8000;0.1563;0.4531;
446.1000;0.1571;0.4602;
446.4000;0.1563;0.4578;
446.7000;0.1579;0.4531;
447.0000;0.1604;0.4626;
447.3000;0.1571;0.4602;
447.6000;0.1587;0.4793;
447.9000;0.1563;0.4650;
448.2000;0.1538;0.4483;
448.5000;0.1620;0.4650;
448.8000;0.1563;0.4411;
449.1000;0.1628;0.4507;
449.4000;0.1579;0.4388;
449.7000;0.1579;0.4316;
450.0000;0.1571;0.4292;
450.3000;0.1571;0.4340;
450.6000;0.1579;0.4435;
450.9000;0.1595;0.4554;
451.2000;0.1563;0.4602;
451.5000;0.1571;0.4602;
451.8000;0.1571;0.4626;
452.1000;0.1555;0.4698;
452.4000;0.1571;0.4650;
452.7000;0.1555;0.4650;
453.0000;0.1571;0.4650;
453.3000;0.1563;0.4674;
453.6000;0.1563;0.4721;
453.9000;0.1563;0.4745;
454.2000;0.1587;0.4769;
454.5000;0.1595;0.4817;
454.8000;0.1595;0.4769;
455.1000;0.1587;0.4674;
455.4000;0.1612;0.4745;
455.7000;0.1587;0.4650;
456.0000;0.1587;0.4674;
456.3000;0.1571;0.4650;
456.6000;0.1620;0.4721;
456.9000;0.1571;0.4602;
457.2000;0.1604;0.4674;
457.5000;0.1571;0.4578;
457.8000;0.1563;0.4554;
458.1000;0.1652;0.4793;
458.4000;0.1563;0.4578;
458.7000;0.1587;0.4626;
459.0000;0.1644;0.4674;
459.3000;0.1555;0.4435;
459.6000;0.1571;0.4459;
459.9000;0.1587;0.4507;
460.2000;0.1595;0.4483;
460.5000;0.1587;0.4459;
460.8000;0.1571;0.4554;
461.1000;0.1587;0.4674;
461.4000;0.1604;0.4817;
461.7000;0.1571;0.4626;
462.0000;0.1579;0.4650;
462.3000;0.1571;0.4769;
462.6000;0.1595;0.4769;
462.9000;0.1579;0.4674;
463.2000;0.1571;0.4674;
463.5000;0.1595;0.4698;
463.8000;0.1571;0.4674;
464.1000;0.1604;0.4721;
464.4000;0.1555;0.4602;
464.7000;0.1563;0.4554;
465.0000;0.1538;0.4531;
465.3000;0.1587;0.4674;
465.6000;0.1612;0.4674;
465.9000;0.1612;0.4650;
466.2000;0.1579;0.4531;
466.5000;0.1612;0.4602;
466.8000;0.1604;0.4531;
467.1000;0.1604;0.4602;
467.4000;0.1473;0.4340;
467.7000;0.1514;0.4388;
468.0000;0.1604;0.4483;
468.3000;0.1595;0.4459;
468.6000;0.1595;0.4435;
468.9000;0.1563;0.4411;
469.2000;0.1644;0.4698;
469.5000;0.1563;0.4483;
469.8000;0.1563;0.4531;
470.1000;0.1571;0.4507;
470.4000;0.1579;0.4531;
470.7000;0.1563;0.4554;
471.0000;0.1579;0.4626;
471.3000;0.1587;0.4602;
471.6000;0.1579;0.4554;
471.9000;0.1587;0.4531;
472.2000;0.1628;0.4554;
472.5000;0.1555;0.4411;
472.8000;0.1563;0.4435;
473.1000;0.1604;0.4554;
473.4000;0.1563;0.4602;
473.7000;0.1579;0.4626;
474.0000;0.1571;0.4602;
474.3000;0.1563;0.4578;
474.6000;0.1579;0.4602;
474.9000;0.1571;0.4650;
475.2000;0.1555;0.4602;
475.5000;0.1555;0.4507;
475.8000;0.1604;0.4626;
476.1000;0.1571;0.4531;
476.4000;0.1563;0.4507;
476.7000;0.1595;0.4650;
477.0000;0.1579;0.4554;
477.3000;0.1571;0.4531;
477.6000;0.1571;0.4459;
477.9000;0.1579;0.4483;
478.2000;0.1571;0.4435;
478.5000;0.1563;0.4388;
478.8000;0.1579;0.4531;
479.1000;0.1555;0.4507;
479.4000;0.1579;0.4578;
479.7000;0.1579;0.4554;
480.0000;0.1563;0.4483;
480.3000;0.1612;0.4531;
480.6000;0.1604;0.4507;
480.9000;0.1530;0.4292;
481.2000;0.1563;0.4316;
481.5000;0.1579;0.4388;
481.8000;0.1555;0.4388;
482.1000;0.1628;0.4578;
482.4000;0.1579;0.4507;
482.7000;0.1522;0.4316;
483.0000;0.1571;0.4459;
483.3000;0.1595;0.4459;
483.6000;0.1555;0.4411;
483.9000;0.1547;0.4459;
484.2000;0.1652;0.4698;
484.5000;0.1547;0.4483;
484.8000;0.1555;0.4483;
485.1000;0.1555;0.4507;
485.4000;0.1481;0.4292;
485.7000;0.1604;0.4650;
486.0000;0.1555;0.4483;
486.3000;0.1522;0.4388;
486.6000;0.1579;0.4578;
486.9000;0.1522;0.4459;
487.2000;0.1555;0.4483;
487.5000;0.1579;0.4507;
487.8000;0.1579;0.4507;
488.1000;0.1587;0.4411;
488.4000;0.1571;0.4364;
488.7000;0.1587;0.4554;
489.0000;0.1571;0.4602;
489.3000;0.1644;0.4769;
489.6000;0.1612;0.4626;
489.9000;0.1587;0.4435;
490.2000;0.1587;0.4435;
490.5000;0.1628;0.4531;
490.8000;0.1677;0.4650;
491.1000;0.1555;0.4316;
491.4000;0.1547;0.4316;
491.7000;0.1555;0.4244;
492.0000;0.1587;0.4364;
492.3000;0.1587;0.4364;
492.6000;0.1579;0.4388;
492.9000;0.1579;0.4340;
493.2000;0.1579;0.4340;
493.5000;0.1571;0.4316;
493.8000;0.1587;0.4435;
494.1000;0.1595;0.4459;
494.4000;0.1555;0.4388;
494.7000;0.1587;0.4483;
495.0000;0.1571;0.4435;
495.3000;0.1563;0.4483;
495.6000;0.1547;0.4435;
495.9000;0.1563;0.4435;
496.2000;0.1579;0.4459;
496.5000;0.1571;0.4411;
496.8000;0.1579;0.4411;
497.1000;0.1571;0.4483;
497.4000;0.1555;0.4340;
497.7000;0.1595;0.4388;
498.0000;0.1571;0.4364;
498.3000;0.1555;0.4292;
498.6000;0.1595;0.4411;
498.9000;0.1587;0.4435;
499.2000;0.1595;0.4388;
499.5000;0.1571;0.4411;
499.8000;0.1595;0.4364;
500.1000;0.1571;0.4364;
500.4000;0.1555;0.4268;
500.7000;0.1563;0.4364;
501.0000;0.1563;0.4388;
501.3000;0.1555;0.4435;
501.6000;0.1579;0.4483;
501.9000;0.1563;0.4411;
502.2000;0.1604;0.4578;
502.5000;0.1579;0.4459;
502.8000;0.1604;0.4483;
503.1000;0.1579;0.4388;
503.4000;0.1571;0.4364;
503.7000;0.1595;0.4411;
504.0000;0.1628;0.4411;
504.3000;0.1547;0.4244;
504.6000;0.1547;0.4197;
504.9000;0.1620;0.4435;
505.2000;0.1612;0.4554;
505.5000;0.1547;0.4340;
505.8000;0.1579;0.4411;
506.1000;0.1457;0.4125;
506.4000;0.1595;0.4411;
506.7000;0.1652;0.4459;
507.0000;0.1514;0.4078;
507.3000;0.1652;0.4364;
507.6000;0.1555;0.4149;
507.9000;0.1587;0.4316;
508.2000;0.1579;0.4197;
508.5000;0.1579;0.4244;
508.8000;0.1587;0.4316;
509.1000;0.1563;0.4244;
509.4000;0.1579;0.4340;
509.7000;0.1538;0.4221;
510.0000;0.1571;0.4244;
510.3000;0.1587;0.4292;
510.6000;0.1587;0.4244;
510.9000;0.1522;0.4101;
511.2000;0.1563;0.4244;
511.5000;0.1587;0.4268;
511.8000;0.1628;0.4316;
512.1000;0.1587;0.4292;
512.4000;0.1555;0.4268;
512.7000;0.1595;0.4340;
513.0000;0.1628;0.4435;
513.3000;0.1563;0.4268;
513.6000;0.1587;0.4435;
513.9000;0.1563;0.4340;
514.2000;0.1579;0.4411;
514.5000;0.1579;0.4388;
514.8000;0.1604;0.4435;
515.1000;0.1595;0.4364;
515.4000;0.1579;0.4340;
515.7000;0.1547;0.4221;
516.0000;0.1563;0.4364;
516.3000;0.1555;0.4388;
516.6000;0.1628;0.4554;
516.9000;0.1555;0.4364;
517.2000;0.1587;0.4316;
517.5000;0.1612;0.4411;
517.8000;0.1563;0.4316;
518.1000;0.1571;0.4411;
518.4000;0.1571;0.4435;
518.7000;0.1555;0.4340;
519.0000;0.1579;0.4388;
519.3000;0.1571;0.4435;
519.6000;0.1571;0.4459;
519.9000;0.1547;0.4435;
520.2000;0.1587;0.4459;
520.5000;0.1555;0.4435;
520.8000;0.1571;0.4483;
521.1000;0.1571;0.4435;
521.4000;0.1563;0.4388;
521.7000;0.1555;0.4340;
522.0000;0.1563;0.4388;
522.3000;0.1579;0.4411;
522.6000;0.1538;0.4364;
522.9000;0.1587;0.4435;
523.2000;0.1555;0.4364;
523.5000;0.1571;0.4411;
523.8000;0.1587;0.4507;
524.1000;0.1579;0.4507;
524.4000;0.1604;0.4483;
524.7000;0.1579;0.4507;
525.0000;0.1579;0.4578;
525.3000;0.1595;0.4554;
525.6000;0.1693;0.4841;
525.9000;0.1530;0.4435;
526.2000;0.1563;0.4388;
526.5000;0.1571;0.4364;
526.8000;0.1571;0.4316;
527.1000;0.1587;0.4388;
527.4000;0.1571;0.4364;
527.7000;0.1538;0.4292;
528.0000;0.1563;0.4435;
528.3000;0.1604;0.4483;
528.6000;0.1579;0.4483;
528.9000;0.1506;0.4364;
529.2000;0.1636;0.4721;
529.5000;0.1555;0.4531;
529.8000;0.1595;0.4650;
530.1000;0.1571;0.4507;
530.4000;0.1571;0.4531;
530.7000;0.1579;0.4578;
531.0000;0.1571;0.4578;
531.3000;0.1579;0.4411;
531.6000;0.1571;0.4364;
531.9000;0.1563;0.4316;
532.2000;0.1595;0.4340;
532.5000;0.1595;0.4244;
532.8000;0.1587;0.4268;
533.1000;0.1587;0.4149;
533.4000;0.1538;0.4006;
533.7000;0.1571;0.4078;
534.0000;0.1571;0.4101;
534.3000;0.1563;0.4149;
534.6000;0.1579;0.4244;
534.9000;0.1579;0.4268;
535.2000;0.1587;0.4221;
535.5000;0.1579;0.4221;
535.8000;0.1612;0.4316;
536.1000;0.1587;0.4268;
536.4000;0.1587;0.4316;
536.7000;0.1595;0.4388;
537.0000;0.1579;0.4316;
537.3000;0.1595;0.4316;
537.6000;0.1571;0.4292;
537.9000;0.1571;0.4292;
538.2000;0.1595;0.4340;
538.5000;0.1571;0.4292;
538.8000;0.1530;0.4316;
539.1000;0.1530;0.4316;
539.4000;0.1481;0.4173;
539.7000;0.1628;0.4507;
540.0000;0.1644;0.4507;
540.3000;0.1522;0.4173;
540.6000;0.1555;0.4244;
540.9000;0.1579;0.4292;
541.2000;0.1579;0.4316;
541.5000;0.1547;0.4173;
541.8000;0.1547;0.4173;
542.1000;0.1587;0.4197;
542.4000;0.1563;0.4078;
542.7000;0.1579;0.4149;
543.0000;0.1579;0.4173;
543.3000;0.1555;0.4101;
543.6000;0.1579;0.4268;
543.9000;0.1563;0.4244;
544.2000;0.1587;0.4268;
544.5000;0.1547;0.4173;
544.8000;0.1587;0.4411;
545.1000;0.1571;0.4388;
545.4000;0.1636;0.4578;
545.7000;0.1571;0.4388;
546.0000;0.1563;0.4483;
546.3000;0.1571;0.4483;
546.6000;0.1595;0.4554;
546.9000;0.1612;0.4554;
547.2000;0.1571;0.4483;
547.5000;0.1587;0.4554;
547.8000;0.1579;0.4483;
548.1000;0.1571;0.4459;
548.4000;0.1579;0.4435;
548.7000;0.1506;0.4197;
549.0000;0.1571;0.4435;
549.3000;0.1587;0.4554;
549.6000;0.1547;0.4411;
549.9000;0.1587;0.4364;
550.2000;0.1587;0.4340;
550.5000;0.1571;0.4388;
550.8000;0.1579;0.4388;
551.1000;0.1595;0.4459;
551.4000;0.1563;0.4435;
551.7000;0.1587;0.4435;
552.0000;0.1587;0.4411;
552.3000;0.1587;0.4364;
552.6000;0.1571;0.4388;
552.9000;0.1612;0.4554;
553.2000;0.1571;0.4411;
553.5000;0.1604;0.4435;
553.8000;0.1587;0.4388;
554.1000;0.1579;0.4435;
554.4000;0.1587;0.4411;
554.7000;0.1563;0.4388;
555.0000;0.1514;0.4197;
555.3000;0.1538;0.4364;
555.6000;0.1587;0.4531;
555.9000;0.1506;0.4364;
556.2000;0.1571;0.4435;
556.5000;0.1595;0.4411;
556.8000;0.1587;0.4340;
557.1000;0.1587;0.4364;
557.4000;0.1571;0.4340;
557.7000;0.1522;0.4197;
558.0000;0.1669;0.4626;
558.3000;0.1579;0.4411;
558.6000;0.1612;0.4507;
558.9000;0.1571;0.4364;
559.2000;0.1587;0.4388;
559.5000;0.1604;0.4292;
559.8000;0.1587;0.4197;
560.1000;0.1555;0.4054;
560.4000;0.1579;0.4078;
560.7000;0.1481;0.3863;
561.0000;0.1571;0.4197;
561.3000;0.1579;0.4197;
561.6000;0.1563;0.4149;
561.9000;0.1652;0.4364;
562.2000;0.1661;0.4411;
562.5000;0.1579;0.4197;
562.8000;0.1563;0.4149;
563.1000;0.1579;0.4173;
563.4000;0.1579;0.4292;
563.7000;0.1555;0.4221;
564.0000;0.1579;0.4340;
564.3000;0.1514;0.4149;
564.6000;0.1571;0.4388;
564.9000;0.1579;0.4483;
565.2000;0.1506;0.4292;
565.5000;0.1579;0.4411;
565.8000;0.1555;0.4340;
566.1000;0.1571;0.4316;
566.4000;0.1587;0.4316;
566.7000;0.1587;0.4364;
567.0000;0.1571;0.4268;
567.3000;0.1530;0.4244;
567.6000;0.1563;0.4244;
567.9000;0.1563;0.4197;
568.2000;0.1571;0.4197;
568.5000;0.1579;0.4221;
568.8000;0.1563;0.4268;
569.1000;0.1563;0.4316;
569.4000;0.1563;0.4340;
569.7000;0.1604;0.4411;
570.0000;0.1595;0.4435;
570.3000;0.1579;0.4316;
570.6000;0.1571;0.4244;
570.9000;0.1579;0.4316;
571.2000;0.1547;0.4197;
571.5000;0.1587;0.4316;
571.8000;0.1571;0.4244;
572.1000;0.1587;0.4221;
572.4000;0.1579;0.4197;
572.7000;0.1595;0.4268;
573.0000;0.1595;0.4244;
573.3000;0.1595;0.4268;
573.6000;0.1587;0.4292;
573.9000;0.1506;0.4197;
574.2000;0.1571;0.4364;
574.5000;0.1595;0.4411;
574.8000;0.1571;0.4388;
575.1000;0.1587;0.4435;
575.4000;0.1571;0.4459;
575.7000;0.1579;0.4411;
576.0000;0.1579;0.4411;
576.3000;0.1571;0.4340;
576.6000;0.1595;0.4388;
576.9000;0.1547;0.4292;
577.2000;0.1587;0.4244;
577.5000;0.1514;0.4054;
577.8000;0.1547;0.4244;
578.1000;0.1555;0.4244;
578.4000;0.1628;0.4459;
578.7000;0.1587;0.4316;
579.0000;0.1571;0.4268;
579.3000;0.1579;0.4340;
579.6000;0.1490;0.4078;
579.9000;0.1604;0.4316;
580.2000;0.1579;0.4316;
580.5000;0.1620;0.4388;
580.8000;0.1612;0.4292;
581.1000;0.1579;0.4221;
581.4000;0.1587;0.4292;
581.7000;0.1677;0.4650;
582.0000;0.1490;0.4101;
582.3000;0.1538;0.4292;
582.6000;0.1604;0.4411;
582.9000;0.1620;0.4507;
583.2000;0.1530;0.4244;
583.5000;0.1571;0.4459;
583.8000;0.1563;0.4411;
584.1000;0.1587;0.4388;
584.4000;0.1563;0.4268;
584.7000;0.1522;0.4197;
585.0000;0.1587;0.4244;
585.3000;0.1538;0.4268;
585.6000;0.1563;0.4316;
585.9000;0.1571;0.4316;
586.2000;0.1612;0.4411;
586.5000;0.1506;0.4197;
586.8000;0.1563;0.4435;
587.1000;0.1595;0.4507;
587.4000;0.1563;0.4459;
587.7000;0.1595;0.4459;
588.0000;0.1579;0.4411;
588.3000;0.1579;0.4435;
588.6000;0.1579;0.4388;
588.9000;0.1571;0.4435;
589.2000;0.1595;0.4483;
589.5000;0.1563;0.4364;
589.8000;0.1587;0.4435;
590.1000;0.1620;0.4531;
590.4000;0.1563;0.4435;
590.7000;0.1595;0.4507;
591.0000;0.1579;0.4411;
591.3000;0.1595;0.4411;
591.6000;0.1563;0.4388;
591.9000;0.1587;0.4459;
592.2000;0.1579;0.4435;
592.5000;0.1571;0.4411;
592.8000;0.1595;0.4507;
593.1000;0.1579;0.4507;
593.4000;0.1628;0.4578;
593.7000;0.1522;0.4340;
594.0000;0.1563;0.4364;
594.3000;0.1563;0.4388;
594.6000;0.1571;0.4411;
594.9000;0.1587;0.4268;
595.2000;0.1563;0.4340;
595.5000;0.1571;0.4364;
595.8000;0.1579;0.4364;
596.1000;0.1595;0.4340;
596.4000;0.1587;0.4411;
596.7000;0.1555;0.4268;
597.0000;0.1547;0.4221;
597.3000;0.1604;0.4459;
597.6000;0.1571;0.4364;
597.9000;0.1636;0.4554;
598.2000;0.1571;0.4388;
598.5000;0.1555;0.4292;
598.8000;0.1555;0.4268;
599.1000;0.1547;0.4221;
599.4000;0.1563;0.4244;
599.7000;0.1587;0.4316;
600.0000;0.1547;0.4197;
600.3000;0.1604;0.4268;
600.6000;0.1587;0.4221;
600.9000;0.1522;0.4006;
601.2000;0.1587;0.4125;
601.5000;0.1563;0.4054;
601.8000;0.1587;0.4006;
602.1000;0.1547;0.3839;
602.4000;0.1506;0.3624;
602.7000;0.1555;0.3696;
603.0000;0.1571;0.3672;
603.3000;0.1538;0.3505;
603.6000;0.1538;0.3434;
603.9000;0.1547;0.3338;
604.2000;0.1530;0.3314;
604.5000;0.1522;0.3291;
604.8000;0.1571;0.3410;
605.1000;0.1522;0.3314;
605.4000;0.1522;0.3314;
605.7000;0.1490;0.3124;
606.0000;0.1530;0.3124;
606.3000;0.1522;0.3028;
606.6000;0.1481;0.2885;
606.9000;0.1514;0.2981;
607.2000;0.1547;0.3052;
607.5000;0.1514;0.2957;
607.8000;0.1530;0.3076;
608.1000;0.1506;0.3052;
608.4000;0.1538;0.3219;
608.7000;0.1514;0.3124;
609.0000;0.1538;0.3076;
609.3000;0.1522;0.3052;
609.6000;0.1547;0.3076;
609.9000;0.1506;0.2909;
610.2000;0.1514;0.2957;
610.5000;0.1506;0.3005;
610.8000;0.1636;0.3291;
611.1000;0.1530;0.2861;
611.4000;0.1392;0.2575;
611.7000;0.1522;0.2885;
612.0000;0.1522;0.2885;
612.3000;0.1547;0.3052;
612.6000;0.1538;0.3171;
612.9000;0.1530;0.3124;
613.2000;0.1514;0.3124;
613.5000;0.1506;0.3124;
613.8000;0.1506;0.3076;
614.1000;0.1522;0.3076;
614.4000;0.1538;0.3100;
614.7000;0.1514;0.3028;
615.0000;0.1514;0.3005;
615.3000;0.1506;0.3005;
615.6000;0.1490;0.3005;
615.9000;0.1547;0.3124;
616.2000;0.1506;0.3005;
616.5000;0.1514;0.2981;
616.8000;0.1506;0.2861;
617.1000;0.1506;0.2861;
617.4000;0.1481;0.2790;
617.7000;0.1522;0.2933;
618.0000;0.1514;0.2885;
618.3000;0.1498;0.2790;
618.6000;0.1514;0.2814;
618.9000;0.1506;0.2814;
619.2000;0.1506;0.2766;
619.5000;0.1498;0.2790;
619.8000;0.1530;0.2838;
620.1000;0.1522;0.2814;
620.4000;0.1514;0.2766;
620.7000;0.1498;0.2766;
621.0000;0.1498;0.2790;
621.3000;0.1514;0.2790;
621.6000;0.1490;0.2695;
621.9000;0.1473;0.2599;
622.2000;0.1498;0.2742;
622.5000;0.1514;0.2742;
622.8000;0.1604;0.2933;
623.1000;0.1506;0.2647;
623.4000;0.1555;0.2742;
623.7000;0.1490;0.2623;
624.0000;0.1465;0.2599;
624.3000;0.1481;0.2575;
624.6000;0.1506;0.2623;
624.9000;0.1612;0.2909;
625.2000;0.1481;0.2671;
625.5000;0.1522;0.2742;
625.8000;0.1522;0.2838;
626.1000;0.1481;0.2766;
626.4000;0.1441;0.2647;
626.7000;0.1514;0.2933;
627.0000;0.1498;0.2909;
627.3000;0.1522;0.2957;
627.6000;0.1490;0.2861;
627.9000;0.1465;0.2766;
628.2000;0.1506;0.2790;
628.5000;0.1522;0.2766;
628.8000;0.1514;0.2647;
629.1000;0.1498;0.2647;
629.4000;0.1498;0.2671;
629.7000;0.1498;0.2695;
630.0000;0.1563;0.2909;
630.3000;0.1514;0.2838;
630.6000;0.1506;0.2790;
630.9000;0.1506;0.2838;
631.2000;0.1604;0.3124;
631.5000;0.1490;0.2814;
631.8000;0.1481;0.2742;
632.1000;0.1506;0.2838;
632.4000;0.1514;0.2981;
632.7000;0.1490;0.2981;
633.0000;0.1530;0.3100;
633.3000;0.1522;0.3100;
633.6000;0.1571;0.3291;
633.9000;0.1506;0.3148;
634.2000;0.1498;0.3100;
634.5000;0.1481;0.3028;
634.8000;0.1498;0.3005;
635.1000;0.1498;0.3124;
635.4000;0.1506;0.3076;
635.7000;0.1498;0.3028;
636.0000;0.1481;0.3076;
636.3000;0.1555;0.3267;
636.6000;0.1595;0.3314;
636.9000;0.1522;0.3171;
637.2000;0.1490;0.3171;
637.5000;0.1465;0.3100;
637.8000;0.1498;0.3028;
638.1000;0.1481;0.3028;
638.4000;0.1514;0.2981;
638.7000;0.1481;0.2885;
639.0000;0.1498;0.2957;
639.3000;0.1514;0.3005;
639.6000;0.1522;0.2933;
639.9000;0.1514;0.3052;
640.2000;0.1498;0.3005;
640.5000;0.1514;0.3124;
640.8000;0.1514;0.3195;
641.1000;0.1514;0.3171;
641.4000;0.1506;0.3124;
641.7000;0.1490;0.3028;
642.0000;0.1522;0.3124;
642.3000;0.1506;0.3005;
642.6000;0.1490;0.3052;
642.9000;0.1490;0.3005;
643.2000;0.1538;0.3076;
643.5000;0.1498;0.2957;
643.8000;0.1490;0.2933;
644.1000;0.1498;0.3076;
644.4000;0.1473;0.3028;
644.7000;0.1506;0.3195;
645.0000;0.1506;0.3148;
645.3000;0.1514;0.3195;
645.6000;0.1481;0.3171;
645.9000;0.1457;0.3052;
646.2000;0.1490;0.3100;
646.5000;0.1498;0.3052;
646.8000;0.1587;0.3267;
647.1000;0.1498;0.3052;
647.4000;0.1498;0.3052;
647.7000;0.1530;0.3100;
648.0000;0.1449;0.2861;
648.3000;0.1498;0.2933;
648.6000;0.1490;0.2981;
648.9000;0.1514;0.3028;
649.2000;0.1449;0.2861;
649.5000;0.1498;0.2981;
649.8000;0.1506;0.3005;
650.1000;0.1490;0.2957;
650.4000;0.1506;0.2957;
650.7000;0.1498;0.2933;
651.0000;0.1555;0.3076;
651.3000;0.1506;0.2957;
651.6000;0.1457;0.2742;
651.9000;0.1522;0.3005;
652.2000;0.1522;0.3005;
652.5000;0.1563;0.3124;
652.8000;0.1506;0.3028;
653.1000;0.1490;0.3052;
653.4000;0.1498;0.2933;
653.7000;0.1514;0.2957;
654.0000;0.1449;0.2814;
654.3000;0.1490;0.2814;
654.6000;0.1481;0.2861;
654.9000;0.1522;0.2909;
655.2000;0.1506;0.2861;
655.5000;0.1514;0.2838;
655.8000;0.1425;0.2599;
656.1000;0.1538;0.2957;
656.4000;0.1506;0.2861;
656.7000;0.1514;0.2790;
657.0000;0.1490;0.2790;
657.3000;0.1620;0.3195;
657.6000;0.1522;0.2933;
657.9000;0.1514;0.2957;
658.2000;0.1522;0.2981;
658.5000;0.1465;0.2766;
658.8000;0.1498;0.2885;
659.1000;0.1571;0.3100;
659.4000;0.1498;0.2957;
659.7000;0.1538;0.3148;
660.0000;0.1522;0.3028;
660.3000;0.1571;0.3076;
660.6000;0.1490;0.2861;
660.9000;0.1498;0.2838;
661.2000;0.1514;0.2885;
661.5000;0.1490;0.2838;
661.8000;0.1514;0.2909;
662.1000;0.1514;0.2838;
662.4000;0.1490;0.2790;
662.7000;0.1490;0.2766;
663.0000;0.1514;0.2861;
663.3000;0.1506;0.2861;
663.6000;0.1490;0.2885;
663.9000;0.1498;0.3052;
664.2000;0.1498;0.3028;
664.5000;0.1506;0.3005;
664.8000;0.1514;0.3028;
665.1000;0.1506;0.3005;
665.4000;0.1514;0.2885;
665.7000;0.1498;0.2814;
666.0000;0.1498;0.2861;
666.3000;0.1514;0.2885;
666.6000;0.1522;0.2981;
666.9000;0.1547;0.3076;
667.2000;0.1514;0.3005;
667.5000;0.1506;0.2981;
667.8000;0.1522;0.3052;
668.1000;0.1522;0.2981;
668.4000;0.1514;0.2933;
668.7000;0.1433;0.2742;
669.0000;0.1514;0.3076;
669.3000;0.1506;0.2981;
669.6000;0.1514;0.3005;
669.9000;0.1490;0.2957;
670.2000;0.1522;0.2957;
670.5000;0.1481;0.2909;
670.8000;0.1498;0.2909;
671.1000;0.1522;0.2957;
671.4000;0.1506;0.2933;
671.7000;0.1530;0.3052;
672.0000;0.1498;0.3028;
672.3000;0.1490;0.2933;
672.6000;0.1506;0.3005;
672.9000;0.1506;0.3052;
673.2000;0.1425;0.2814;
673.5000;0.1522;0.3100;
673.8000;0.1514;0.3076;
674.1000;0.1514;0.3005;
674.4000;0.1441;0.2742;
674.7000;0.1457;0.2790;
675.0000;0.1498;0.2790;
675.3000;0.1514;0.2909;
675.6000;0.1498;0.2885;
675.9000;0.1498;0.2838;
676.2000;0.1490;0.2933;
676.5000;0.1514;0.3028;
676.8000;0.1473;0.2957;
677.1000;0.1481;0.2957;
677.4000;0.1522;0.3124;
677.7000;0.1490;0.2957;
678.0000;0.1490;0.2838;
678.3000;0.1481;0.2838;
678.6000;0.1530;0.2933;
678.9000;0.1538;0.2933;
679.2000;0.1498;0.2838;
679.5000;0.1498;0.2885;
679.8000;0.1441;0.2718;
680.1000;0.1522;0.2861;
680.4000;0.1449;0.2695;
680.7000;0.1498;0.2861;
681.0000;0.1522;0.2957;
681.3000;0.1473;0.2814;
681.6000;0.1498;0.2861;
681.9000;0.1522;0.2957;
682.2000;0.1514;0.2933;
682.5000;0.1506;0.2933;
682.8000;0.1498;0.2909;
683.1000;0.1522;0.3052;
683.4000;0.1506;0.2981;
683.7000;0.1490;0.2933;
684.0000;0.1498;0.2981;
684.3000;0.1555;0.3195;
684.6000;0.1530;0.3148;
684.9000;0.1514;0.3243;
685.2000;0.1481;0.3124;
685.5000;0.1506;0.3195;
685.8000;0.1506;0.3148;
686.1000;0.1481;0.2981;
686.4000;0.1514;0.3028;
686.7000;0.1473;0.2909;
687.0000;0.1530;0.3028;
687.3000;0.1571;0.3076;
687.6000;0.1481;0.2838;
687.9000;0.1506;0.2838;
688.2000;0.1506;0.2814;
688.5000;0.1506;0.2814;
688.8000;0.1498;0.2861;
689.1000;0.1506;0.2766;
689.4000;0.1481;0.2718;
689.7000;0.1522;0.2885;
690.0000;0.1506;0.2885;
690.3000;0.1490;0.2861;
690.6000;0.1490;0.2861;
690.9000;0.1506;0.2861;
691.2000;0.1506;0.2838;
691.5000;0.1384;0.2551;
691.8000;0.1473;0.2695;
692.1000;0.1457;0.2718;
692.4000;0.1506;0.2838;
692.7000;0.1555;0.3052;
693.0000;0.1563;0.3124;
693.3000;0.1498;0.2861;
693.6000;0.1392;0.2551;
693.9000;0.1449;0.2671;
694.2000;0.1522;0.2909;
694.5000;0.1498;0.2981;
694.8000;0.1514;0.2885;
695.1000;0.1522;0.2861;
695.4000;0.1465;0.2718;
695.7000;0.1514;0.2957;
696.0000;0.1506;0.2957;
696.3000;0.1506;0.2957;
696.6000;0.1530;0.3052;
696.9000;0.1384;0.2671;
697.2000;0.1481;0.2838;
697.5000;0.1506;0.2957;
697.8000;0.1514;0.2981;
698.1000;0.1498;0.2909;
698.4000;0.1490;0.2933;
698.7000;0.1490;0.2933;
699.0000;0.1547;0.3028;
699.3000;0.1506;0.2933;
699.6000;0.1506;0.2909;
699.9000;0.1547;0.3005;
700.2000;0.1514;0.2933;
700.5000;0.1498;0.2885;
700.8000;0.1473;0.2814;
701.1000;0.1498;0.2814;
701.4000;0.1538;0.2909;
701.7000;0.1538;0.2838;
702.0000;0.1449;0.2599;
702.3000;0.1514;0.2742;
702.6000;0.1465;0.2671;
702.9000;0.1506;0.2766;
703.2000;0.1498;0.2814;
703.5000;0.1490;0.2695;
703.8000;0.1563;0.2814;
704.1000;0.1481;0.2623;
704.4000;0.1490;0.2647;
704.7000;0.1498;0.2742;
705.0000;0.1465;0.2695;
705.3000;0.1490;0.2742;
705.6000;0.1514;0.2718;
705.9000;0.1481;0.2647;
706.2000;0.1522;0.2766;
706.5000;0.1522;0.2695;
706.8000;0.1506;0.2695;
707.1000;0.1498;0.2718;
707.4000;0.1514;0.2742;
707.7000;0.1498;0.2695;
708.0000;0.1498;0.2695;
708.3000;0.1481;0.2647;
708.6000;0.1490;0.2766;
708.9000;0.1506;0.2861;
709.2000;0.1498;0.2814;
709.5000;0.1490;0.2838;
709.8000;0.1514;0.2838;
710.1000;0.1498;0.2742;
710.4000;0.1481;0.2814;
710.7000;0.1506;0.2885;
711.0000;0.1498;0.2885;
711.3000;0.1433;0.2790;
711.6000;0.1481;0.2861;
711.9000;0.1481;0.2838;
712.2000;0.1514;0.2909;
712.5000;0.1555;0.3028;
712.8000;0.1490;0.2814;
713.1000;0.1522;0.2885;
713.4000;0.1481;0.2742;
713.7000;0.1498;0.2742;
714.0000;0.1514;0.2790;
714.3000;0.1490;0.2766;
714.6000;0.1514;0.2909;
714.9000;0.1473;0.2885;
715.2000;0.1481;0.2933;
715.5000;0.1481;0.3028;
715.8000;0.1514;0.3028;
716.1000;0.1506;0.3028;
716.4000;0.1490;0.3005;
716.7000;0.1473;0.2981;
717.0000;0.1579;0.3195;
717.3000;0.1481;0.2742;
717.6000;0.1457;0.2575;
717.9000;0.1514;0.2647;
718.2000;0.1571;0.2814;
718.5000;0.1481;0.2671;
718.8000;0.1514;0.2766;
719.1000;0.1425;0.2504;
719.4000;0.1498;0.2623;
719.7000;0.1522;0.2671;
720.0000;0.1359;0.2194;
720.3000;0.1457;0.2480;
720.6000;0.1514;0.2623;
720.9000;0.1506;0.2766;
721.2000;0.1506;0.2814;
721.5000;0.1506;0.2766;
721.8000;0.1506;0.2838;
722.1000;0.1498;0.2790;
722.4000;0.1481;0.2790;
722.7000;0.1490;0.2885;
723.0000;0.1514;0.2909;
723.3000;0.1506;0.2861;
723.6000;0.1498;0.2885;
723.9000;0.1481;0.2861;
724.2000;0.1481;0.2861;
724.5000;0.1498;0.2861;
724.8000;0.1506;0.2885;
725.1000;0.1514;0.2838;
725.4000;0.1481;0.2814;
725.7000;0.1563;0.2933;
726.0000;0.1579;0.2981;
726.3000;0.1498;0.2695;
726.6000;0.1498;0.2695;
726.9000;0.1490;0.2742;
727.2000;0.1506;0.2814;
727.5000;0.1522;0.2838;
727.8000;0.1506;0.2814;
728.1000;0.1522;0.2790;
728.4000;0.1522;0.2814;
728.7000;0.1473;0.2718;
729.0000;0.1514;0.2838;
729.3000;0.1481;0.2790;
729.6000;0.1498;0.2814;
729.9000;0.1498;0.2814;
730.2000;0.1498;0.2933;
730.5000;0.1490;0.2861;
730.8000;0.1498;0.2933;
731.1000;0.1514;0.2933;
731.4000;0.1506;0.2885;
731.7000;0.1506;0.2790;
732.0000;0.1498;0.2885;
732.3000;0.1514;0.2909;
732.6000;0.1490;0.2790;
732.9000;0.1522;0.2814;
733.2000;0.1522;0.2885;
733.5000;0.1506;0.2861;
733.8000;0.1481;0.2718;
734.1000;0.1481;0.2647;
734.4000;0.1481;0.2766;
734.7000;0.1498;0.2838;
735.0000;0.1506;0.2885;
735.3000;0.1498;0.2814;
735.6000;0.1490;0.2766;
735.9000;0.1514;0.2742;
736.2000;0.1481;0.2647;
736.5000;0.1530;0.2718;
736.8000;0.1530;0.2695;
737.1000;0.1530;0.2695;
737.4000;0.1514;0.2718;
737.7000;0.1595;0.2957;
738.0000;0.1522;0.2790;
738.3000;0.1506;0.2766;
738.6000;0.1555;0.2981;
738.9000;0.1481;0.2885;
739.2000;0.1506;0.2861;
739.5000;0.1490;0.2790;
739.8000;0.1498;0.2838;
740.1000;0.1425;0.2671;
740.4000;0.1498;0.2909;
740.7000;0.1498;0.2885;
741.0000;0.1449;0.2766;
741.3000;0.1490;0.2861;
741.6000;0.1481;0.2814;
741.9000;0.1425;0.2695;
742.2000;0.1457;0.2814;
742.5000;0.1522;0.2981;
742.8000;0.1498;0.2909;
743.1000;0.1538;0.3052;
743.4000;0.1579;0.3052;
743.7000;0.1612;0.3124;
744.0000;0.1481;0.2814;
744.3000;0.1522;0.2933;
744.6000;0.1530;0.2885;
744.9000;0.1490;0.2766;
745.2000;0.1481;0.2861;
745.5000;0.1490;0.2838;
745.8000;0.1563;0.3052;
746.1000;0.1506;0.2885;
746.4000;0.1579;0.3028;
746.7000;0.1506;0.2909;
747.0000;0.1441;0.2766;
747.3000;0.1490;0.2838;
747.6000;0.1498;0.2957;
747.9000;0.1425;0.2790;
748.2000;0.1514;0.2933;
748.5000;0.1481;0.2957;
748.8000;0.1368;0.2647;
749.1000;0.1522;0.2909;
749.4000;0.1498;0.2885;
749.7000;0.1514;0.2957;
750.0000;0.1530;0.2885;
750.3000;0.1481;0.2838;
750.6000;0.1498;0.2957;
750.9000;0.1514;0.2957;
751.2000;0.1538;0.3028;
751.5000;0.1498;0.2933;
751.8000;0.1522;0.2957;
752.1000;0.1473;0.2861;
752.4000;0.1400;0.2623;
752.7000;0.1490;0.2885;
753.0000;0.1530;0.3028;
753.3000;0.1604;0.3171;
753.6000;0.1514;0.2885;
753.9000;0.1498;0.2909;
754.2000;0.1563;0.3076;
754.5000;0.1506;0.2909;
754.8000;0.1506;0.2885;
755.1000;0.1506;0.2957;
755.4000;0.1555;0.3100;
755.7000;0.1530;0.3052;
756.0000;0.1506;0.2933;
756.3000;0.1498;0.3005;
756.6000;0.1481;0.2981;
756.9000;0.1506;0.3005;
757.2000;0.1490;0.2885;
757.5000;0.1498;0.2981;
757.8000;0.1506;0.3052;
758.1000;0.1490;0.2933;
758.4000;0.1490;0.2909;
758.7000;0.1514;0.3052;
759.0000;0.1490;0.3028;
759.3000;0.1522;0.2957;
759.6000;0.1506;0.2861;
759.9000;0.1514;0.2885;
760.2000;0.1498;0.2814;
760.5000;0.1490;0.2814;
760.8000;0.1498;0.2838;
761.1000;0.1506;0.2861;
761.4000;0.1514;0.2885;
761.7000;0.1481;0.2766;
762.0000;0.1498;0.2814;
762.3000;0.1498;0.2861;
762.6000;0.1498;0.2814;
762.9000;0.1490;0.2861;
763.2000;0.1490;0.2909;
763.5000;0.1530;0.3005;
763.8000;0.1490;0.3028;
764.1000;0.1506;0.2909;
764.4000;0.1490;0.2838;
764.7000;0.1522;0.2957;
765.0000;0.1555;0.3171;
765.3000;0.1514;0.3028;
765.6000;0.1490;0.2957;
765.9000;0.1538;0.3028;
766.2000;0.1498;0.2861;
766.5000;0.1530;0.2933;
766.8000;0.1498;0.2861;
767.1000;0.1490;0.2838;
767.4000;0.1522;0.3028;
767.7000;0.1498;0.2861;
768.0000;0.1498;0.2861;
768.3000;0.1506;0.2933;
768.6000;0.1457;0.2814;
768.9000;0.1514;0.3005;
769.2000;0.1498;0.2933;
769.5000;0.1498;0.3028;
769.8000;0.1490;0.3005;
770.1000;0.1490;0.2909;
770.4000;0.1498;0.2885;
770.7000;0.1514;0.2909;
771.0000;0.1514;0.2933;
771.3000;0.1514;0.2909;
771.6000;0.1514;0.2838;
771.9000;0.1514;0.2766;
772.2000;0.1481;0.2695;
772.5000;0.1490;0.2718;
772.8000;0.1449;0.2599;
773.1000;0.1465;0.2766;
773.4000;0.1498;0.2766;
773.7000;0.1506;0.2814;
774.0000;0.1522;0.2861;
774.3000;0.1498;0.2838;
774.6000;0.1473;0.2695;
774.9000;0.1506;0.2742;
775.2000;0.1498;0.2695;
775.5000;0.1522;0.2885;
775.8000;0.1465;0.2861;
776.1000;0.1571;0.3148;
776.4000;0.1563;0.3148;
776.7000;0.1571;0.3219;
777.0000;0.1498;0.2909;
777.3000;0.1530;0.3005;
777.6000;0.1498;0.2957;
777.9000;0.1490;0.2909;
778.2000;0.1538;0.2981;
778.5000;0.1490;0.2814;
778.8000;0.1514;0.2861;
779.1000;0.1514;0.2814;
779.4000;0.1441;0.2623;
779.7000;0.1506;0.2790;
780.0000;0.1506;0.2790;
780.3000;0.1506;0.2790;
780.6000;0.1506;0.2814;
780.9000;0.1506;0.2838;
781.2000;0.1498;0.2790;
781.5000;0.1490;0.2838;
781.8000;0.1530;0.2933;
782.1000;0.1514;0.2885;
782.4000;0.1490;0.2814;
782.7000;0.1514;0.2861;
783.0000;0.1547;0.2838;
783.3000;0.1498;0.2671;
783.6000;0.1514;0.2647;
783.9000;0.1514;0.2695;
784.2000;0.1506;0.2838;
784.5000;0.1490;0.2814;
784.8000;0.1498;0.2885;
785.1000;0.1506;0.2885;
785.4000;0.1514;0.2790;
785.7000;0.1473;0.2718;
786.0000;0.1506;0.2814;
786.3000;0.1490;0.2742;
786.6000;0.1449;0.2551;
786.9000;0.1530;0.2766;
787.2000;0.1514;0.2766;
787.5000;0.1514;0.2790;
787.8000;0.1506;0.2861;
788.1000;0.1522;0.2909;
788.4000;0.1530;0.3028;
788.7000;0.1481;0.2957;
789.0000;0.1506;0.2981;
789.3000;0.1490;0.2933;
789.6000;0.1571;0.3005;
789.9000;0.1490;0.2718;
790.2000;0.1449;0.2718;
790.5000;0.1473;0.2718;
790.8000;0.1498;0.2838;
791.1000;0.1506;0.2790;
791.4000;0.1514;0.2909;
791.7000;0.1522;0.3052;
792.0000;0.1514;0.3076;
792.3000;0.1498;0.3124;
792.6000;0.1498;0.3076;
792.9000;0.1498;0.2909;
793.2000;0.1522;0.2981;
793.5000;0.1481;0.2885;
793.8000;0.1498;0.2861;
794.1000;0.1490;0.2814;
794.4000;0.1368;0.2408;
794.7000;0.1490;0.2718;
795.0000;0.1473;0.2623;
795.3000;0.1473;0.2599;
795.6000;0.1473;0.2599;
795.9000;0.1522;0.2718;
796.2000;0.1473;0.2647;
796.5000;0.1481;0.2671;
796.8000;0.1498;0.2718;
797.1000;0.1514;0.2671;
797.4000;0.1481;0.2551;
797.7000;0.1490;0.2504;
798.0000;0.1498;0.2504;
798.3000;0.1522;0.2599;
798.6000;0.1522;0.2695;
798.9000;0.1490;0.2671;
799.2000;0.1514;0.2718;
799.5000;0.1506;0.2742;
799.8000;0.1490;0.2790;
800.1000;0.1514;0.2838;
800.4000;0.1498;0.2766;
800.7000;0.1490;0.2814;
801.0000;0.1481;0.2790;
801.3000;0.1473;0.2623;
801.6000;0.1481;0.2671;
801.9000;0.1490;0.2695;
802.2000;0.1514;0.2814;
802.5000;0.1465;0.2671;
802.8000;0.1490;0.2671;
803.1000;0.1498;0.2695;
803.4000;0.1514;0.2766;
803.7000;0.1522;0.2885;
804.0000;0.1490;0.2838;
804.3000;0.1490;0.2814;
804.6000;0.1498;0.2814;
804.9000;0.1490;0.2790;
805.2000;0.1498;0.2814;
805.5000;0.1498;0.2814;
805.8000;0.1498;0.2861;
806.1000;0.1514;0.2933;
806.4000;0.1506;0.2885;
806.7000;0.1481;0.2766;
807.0000;0.1498;0.2814;
807.3000;0.1555;0.2981;
807.6000;0.1522;0.2933;
807.9000;0.1506;0.2909;
808.2000;0.1465;0.2814;
808.5000;0.1522;0.2909;
808.8000;0.1498;0.2814;
809.1000;0.1579;0.3076;
809.4000;0.1498;0.2885;
809.7000;0.1522;0.3028;
810.0000;0.1490;0.3028;
810.3000;0.1514;0.3148;
810.6000;0.1490;0.3124;
810.9000;0.1506;0.3052;
811.2000;0.1498;0.3076;
811.5000;0.1579;0.3171;
811.8000;0.1449;0.2861;
812.1000;0.1400;0.2790;
812.4000;0.1457;0.2957;
812.7000;0.1563;0.3267;
813.0000;0.1522;0.3195;
813.3000;0.1522;0.3100;
813.6000;0.1506;0.3052;
813.9000;0.1522;0.3100;
814.2000;0.1538;0.3124;
814.5000;0.1481;0.2933;
814.8000;0.1498;0.2861;
815.1000;0.1587;0.3028;
815.4000;0.1498;0.2838;
815.7000;0.1506;0.2861;
816.0000;0.1506;0.2838;
816.3000;0.1506;0.2861;
816.6000;0.1473;0.2814;
816.9000;0.1465;0.2766;
817.2000;0.1490;0.2718;
817.5000;0.1465;0.2647;
817.8000;0.1490;0.2742;
818.1000;0.1498;0.2861;
818.4000;0.1490;0.2742;
818.7000;0.1498;0.2647;
819.0000;0.1514;0.2695;
819.3000;0.1514;0.2671;
819.6000;0.1514;0.2647;
819.9000;0.1595;0.2885;
820.2000;0.1530;0.2766;
820.5000;0.1595;0.2933;
820.8000;0.1408;0.2432;
821.1000;0.1441;0.2551;
821.4000;0.1538;0.2861;
821.7000;0.1498;0.2742;
822.0000;0.1506;0.2718;
822.3000;0.1498;0.2790;
822.6000;0.1522;0.2838;
822.9000;0.1522;0.2885;
823.2000;0.1498;0.2838;
823.5000;0.1538;0.2909;
823.8000;0.1514;0.2838;
824.1000;0.1498;0.2885;
824.4000;0.1498;0.2981;
824.7000;0.1506;0.2909;
825.0000;0.1490;0.2838;
825.3000;0.1433;0.2718;
825.6000;0.1547;0.3005;
825.9000;0.1506;0.2933;
826.2000;0.1490;0.2885;
826.5000;0.1514;0.2957;
826.8000;0.1538;0.2957;
827.1000;0.1392;0.2599;
827.4000;0.1449;0.2790;
827.7000;0.1506;0.2838;
828.0000;0.1506;0.2909;
828.3000;0.1563;0.3005;
828.6000;0.1498;0.2790;
828.9000;0.1481;0.2742;
829.2000;0.1481;0.2790;
829.5000;0.1506;0.2814;
829.8000;0.1530;0.2885;
830.1000;0.1506;0.2838;
830.4000;0.1490;0.2838;
830.7000;0.1457;0.2814;
831.0000;0.1514;0.2981;
831.3000;0.1506;0.2981;
831.6000;0.1506;0.2957;
831.9000;0.1514;0.3076;
832.2000;0.1514;0.3052;
832.5000;0.1481;0.2909;
832.8000;0.1587;0.3243;
833.1000;0.1522;0.3028;
833.4000;0.1514;0.2933;
833.7000;0.1538;0.3028;
834.0000;0.1604;0.3219;
834.3000;0.1506;0.3028;
834.6000;0.1400;0.2718;
834.9000;0.1563;0.3124;
835.2000;0.1514;0.3052;
835.5000;0.1587;0.3076;
835.8000;0.1514;0.2909;
836.1000;0.1506;0.2861;
836.4000;0.1514;0.2957;
836.7000;0.1490;0.2885;
837.0000;0.1449;0.2671;
837.3000;0.1579;0.2909;
837.6000;0.1490;0.2695;
837.9000;0.1514;0.2790;
838.2000;0.1547;0.2861;
838.5000;0.1530;0.2766;
838.8000;0.1498;0.2742;
839.1000;0.1514;0.2790;
839.4000;0.1425;0.2504;
839.7000;0.1514;0.2790;
840.0000;0.1579;0.2909;
840.3000;0.1498;0.2790;
840.6000;0.1514;0.2838;
840.9000;0.1522;0.2909;
841.2000;0.1490;0.2861;
841.5000;0.1498;0.2957;
841.8000;0.1522;0.2933;
842.1000;0.1506;0.2909;
842.4000;0.1514;0.2957;
842.7000;0.1514;0.2981;
843.0000;0.1595;0.3267;
843.3000;0.1530;0.2981;
843.6000;0.1506;0.2933;
843.9000;0.1481;0.2814;
844.2000;0.1490;0.2790;
844.5000;0.1506;0.2909;
844.8000;0.1530;0.3052;
845.1000;0.1490;0.2861;
845.4000;0.1506;0.2909;
845.7000;0.1563;0.3028;
846.0000;0.1506;0.2957;
846.3000;0.1506;0.3028;
846.6000;0.1490;0.3052;
846.9000;0.1498;0.3052;
847.2000;0.1514;0.3028;
847.5000;0.1481;0.3028;
847.8000;0.1490;0.3005;
848.1000;0.1506;0.3028;
848.4000;0.1473;0.3028;
848.7000;0.1490;0.3028;
849.0000;0.1481;0.3052;
849.3000;0.1490;0.3076;
849.6000;0.1473;0.3005;
849.9000;0.1498;0.3028;
850.2000;0.1481;0.2933;
850.5000;0.1506;0.2909;
850.8000;0.1498;0.2909;
851.1000;0.1579;0.3195;
851.4000;0.1522;0.3028;
851.7000;0.1473;0.2814;
852.0000;0.1514;0.2981;
852.3000;0.1490;0.2957;
852.6000;0.1506;0.3005;
852.9000;0.1490;0.2957;
853.2000;0.1506;0.3005;
853.5000;0.1498;0.3052;
853.8000;0.1514;0.3100;
854.1000;0.1530;0.3148;
854.4000;0.1490;0.2933;
854.7000;0.1481;0.2909;
855.0000;0.1514;0.2957;
855.3000;0.1498;0.2981;
855.6000;0.1506;0.3005;
855.9000;0.1490;0.3124;
856.2000;0.1506;0.3100;
856.5000;0.1473;0.2981;
856.8000;0.1547;0.3267;
857.1000;0.1522;0.3219;
857.4000;0.1506;0.3124;
857.7000;0.1441;0.2957;
858.0000;0.1514;0.2981;
858.3000;0.1514;0.3028;
858.6000;0.1506;0.3005;
858.9000;0.1514;0.3076;
859.2000;0.1522;0.3005;
859.5000;0.1490;0.2909;
859.8000;0.1490;0.2885;
860.1000;0.1425;0.2671;
860.4000;0.1490;0.2814;
860.7000;0.1522;0.2790;
861.0000;0.1506;0.2814;
861.3000;0.1506;0.2861;
861.6000;0.1514;0.2885;
861.9000;0.1538;0.2909;
862.2000;0.1473;0.2671;
862.5000;0.1514;0.2766;
862.8000;0.1481;0.2695;
863.1000;0.1481;0.2742;
863.4000;0.1465;0.2623;
863.7000;0.1498;0.2718;
864.0000;0.1522;0.2742;
864.3000;0.1563;0.2909;
864.6000;0.1498;0.2766;
864.9000;0.1457;0.2575;
865.2000;0.1506;0.2838;
865.5000;0.1514;0.2909;
865.8000;0.1490;0.2861;
866.1000;0.1514;0.2909;
866.4000;0.1490;0.2861;
866.7000;0.1514;0.3005;
867.0000;0.1522;0.3076;
867.3000;0.1514;0.2885;
867.6000;0.1498;0.2742;
867.9000;0.1604;0.2957;
868.2000;0.1498;0.2671;
868.5000;0.1506;0.2766;
868.8000;0.1498;0.2766;
869.1000;0.1473;0.2718;
869.4000;0.1498;0.2766;
869.7000;0.1457;0.2575;
870.0000;0.1498;0.2671;
870.3000;0.1538;0.2742;
870.6000;0.1498;0.2599;
870.9000;0.1490;0.2599;
871.2000;0.1506;0.2551;
871.5000;0.1506;0.2528;
871.8000;0.1498;0.2551;
872.1000;0.1530;0.2718;
872.4000;0.1563;0.2838;
872.7000;0.1530;0.2718;
873.0000;0.1514;0.2718;
873.3000;0.1506;0.2647;
873.6000;0.1490;0.2647;
873.9000;0.1481;0.2647;
874.2000;0.1530;0.2814;
874.5000;0.1498;0.2766;
874.8000;0.1522;0.2838;
875.1000;0.1425;0.2480;
875.4000;0.1433;0.2456;
875.7000;0.1490;0.2623;
876.0000;0.1465;0.2551;
876.3000;0.1473;0.2528;
876.6000;0.1506;0.2671;
876.9000;0.1506;0.2647;
877.2000;0.1490;0.2647;
877.5000;0.1530;0.2742;
877.8000;0.1481;0.2623;
878.1000;0.1481;0.2575;
878.4000;0.1522;0.2599;
878.7000;0.1506;0.2599;
879.0000;0.1490;0.2575;
879.3000;0.1498;0.2528;
879.6000;0.1522;0.2623;
879.9000;0.1498;0.2599;
880.2000;0.1506;0.2575;
880.5000;0.1490;0.2456;
880.8000;0.1490;0.2361;
881.1000;0.1514;0.2361;
881.4000;0.1457;0.2265;
881.7000;0.1498;0.2385;
882.0000;0.1498;0.2337;
882.3000;0.1465;0.2241;
882.6000;0.1498;0.2385;
882.9000;0.1490;0.2337;
883.2000;0.1465;0.2337;
883.5000;0.1506;0.2480;
883.8000;0.1506;0.2408;
884.1000;0.1514;0.2385;
884.4000;0.1555;0.2551;
884.7000;0.1498;0.2361;
885.0000;0.1506;0.2385;
885.3000;0.1514;0.2337;
885.6000;0.1522;0.2361;
885.9000;0.1506;0.2385;
886.2000;0.1514;0.2528;
886.5000;0.1506;0.2575;
886.8000;0.1416;0.2337;
887.1000;0.1498;0.2551;
887.4000;0.1506;0.2623;
887.7000;0.1506;0.2599;
888.0000;0.1587;0.2790;
888.3000;0.1514;0.2647;
888.6000;0.1530;0.2742;
888.9000;0.1498;0.2623;
889.2000;0.1490;0.2575;
889.5000;0.1530;0.2623;
889.8000;0.1530;0.2599;
890.1000;0.1506;0.2623;
890.4000;0.1514;0.2695;
890.7000;0.1498;0.2718;
891.0000;0.1522;0.2718;
891.3000;0.1514;0.2695;
891.6000;0.1514;0.2599;
891.9000;0.1490;0.2575;
892.2000;0.1506;0.2599;
892.5000;0.1514;0.2599;
892.8000;0.1498;0.2528;
893.1000;0.1506;0.2599;
893.4000;0.1506;0.2599;
893.7000;0.1522;0.2623;
894.0000;0.1498;0.2623;
894.3000;0.1530;0.2766;
894.6000;0.1498;0.2623;
894.9000;0.1506;0.2599;
895.2000;0.1498;0.2599;
895.5000;0.1506;0.2742;
895.8000;0.1514;0.2790;
896.1000;0.1433;0.2695;
896.4000;0.1490;0.2861;
896.7000;0.1490;0.2838;
897.0000;0.1481;0.2814;
897.3000;0.1481;0.2790;
897.6000;0.1522;0.2814;
897.9000;0.1514;0.2790;
898.2000;0.1384;0.2504;
898.5000;0.1490;0.2742;
898.8000;0.1514;0.2861;
899.1000;0.1522;0.2814;
899.4000;0.1498;0.2861;
899.7000;0.1514;0.2909;
900.0000;0.1481;0.2885;
900.3000;0.1530;0.2981;
900.6000;0.1506;0.2885;
900.9000;0.1514;0.2933;
901.2000;0.1498;0.2885;
901.5000;0.1571;0.3028;
901.8000;0.1571;0.3100;
902.1000;0.1498;0.2909;
902.4000;0.1498;0.2814;
902.7000;0.1433;0.2551;
903.0000;0.1490;0.2647;
903.3000;0.1522;0.2766;
903.6000;0.1441;0.2671;
903.9000;0.1481;0.2718;
904.2000;0.1498;0.2766;
904.5000;0.1620;0.3005;
904.8000;0.1498;0.2671;
905.1000;0.1490;0.2623;
905.4000;0.1498;0.2551;
905.7000;0.1579;0.2766;
906.0000;0.1498;0.2623;
906.3000;0.1457;0.2480;
906.6000;0.1506;0.2599;
906.9000;0.1490;0.2480;
907.2000;0.1522;0.2647;
907.5000;0.1498;0.2575;
907.8000;0.1514;0.2671;
908.1000;0.1522;0.2742;
908.4000;0.1514;0.2790;
908.7000;0.1481;0.2838;
909.0000;0.1498;0.2981;
909.3000;0.1457;0.2909;
909.6000;0.1481;0.2861;
909.9000;0.1498;0.2885;
910.2000;0.1514;0.2957;
910.5000;0.1498;0.2957;
910.8000;0.1506;0.3028;
911.1000;0.1498;0.3028;
911.4000;0.1506;0.3076;
911.7000;0.1506;0.3028;
912.0000;0.1514;0.2957;
912.3000;0.1506;0.2838;
912.6000;0.1538;0.3028;
912.9000;0.1481;0.2861;
913.2000;0.1506;0.2933;
913.5000;0.1514;0.2957;
913.8000;0.1547;0.3052;
914.1000;0.1514;0.2981;
914.4000;0.1449;0.2838;
914.7000;0.1498;0.2885;
915.0000;0.1490;0.2885;
915.3000;0.1522;0.2981;
915.6000;0.1514;0.2933;
915.9000;0.1465;0.2790;
916.2000;0.1514;0.2885;
916.5000;0.1498;0.2790;
916.8000;0.1506;0.2814;
917.1000;0.1514;0.2861;
917.4000;0.1530;0.2790;
917.7000;0.1538;0.2861;
918.0000;0.1506;0.2814;
918.3000;0.1498;0.2861;
918.6000;0.1522;0.2861;
918.9000;0.1498;0.2718;
919.2000;0.1506;0.2695;
919.5000;0.1514;0.2790;
919.8000;0.1547;0.2838;
920.1000;0.1506;0.2790;
920.4000;0.1514;0.2790;
920.7000;0.1498;0.2838;
921.0000;0.1514;0.2885;
921.3000;0.1473;0.2861;
921.6000;0.1522;0.2981;
921.9000;0.1481;0.2957;
922.2000;0.1506;0.3028;
922.5000;0.1498;0.3052;
922.8000;0.1473;0.2981;
923.1000;0.1514;0.3028;
923.4000;0.1506;0.2957;
923.7000;0.1498;0.2885;
924.0000;0.1433;0.2671;
924.3000;0.1530;0.2838;
924.6000;0.1449;0.2647;
924.9000;0.1465;0.2599;
925.2000;0.1416;0.2456;
925.5000;0.1392;0.2361;
925.8000;0.1514;0.2671;
926.1000;0.1441;0.2528;
926.4000;0.1481;0.2647;
926.7000;0.1473;0.2599;
927.0000;0.1498;0.2695;
927.3000;0.1498;0.2671;
927.6000;0.1498;0.2647;
927.9000;0.1522;0.2647;
928.2000;0.1433;0.2480;
928.5000;0.1441;0.2575;
928.8000;0.1563;0.2814;
929.1000;0.1449;0.2480;
929.4000;0.1530;0.2718;
929.7000;0.1457;0.2623;
930.0000;0.1538;0.2909;
930.3000;0.1498;0.2766;
930.6000;0.1498;0.2718;
930.9000;0.1481;0.2718;
931.2000;0.1506;0.2718;
931.5000;0.1465;0.2575;
931.8000;0.1506;0.2528;
932.1000;0.1490;0.2528;
932.4000;0.1465;0.2432;
932.7000;0.1522;0.2599;
933.0000;0.1498;0.2575;
933.3000;0.1392;0.2337;
933.6000;0.1490;0.2551;
933.9000;0.1441;0.2385;
934.2000;0.1498;0.2551;
934.5000;0.1514;0.2623;
934.8000;0.1498;0.2528;
935.1000;0.1481;0.2551;
935.4000;0.1530;0.2623;
935.7000;0.1490;0.2480;
936.0000;0.1490;0.2551;
936.3000;0.1514;0.2575;
936.6000;0.1514;0.2551;
936.9000;0.1522;0.2551;
937.2000;0.1481;0.2456;
937.5000;0.1490;0.2528;
937.8000;0.1490;0.2623;
938.1000;0.1498;0.2718;
938.4000;0.1498;0.2718;
938.7000;0.1506;0.2695;
939.0000;0.1473;0.2671;
939.3000;0.1522;0.2814;
939.6000;0.1514;0.2742;
939.9000;0.1538;0.2695;
940.2000;0.1522;0.2623;
940.5000;0.1514;0.2623;
940.8000;0.1514;0.2575;
941.1000;0.1514;0.2528;
941.4000;0.1490;0.2480;
941.7000;0.1506;0.2480;
942.0000;0.1530;0.2671;
942.3000;0.1465;0.2480;
942.6000;0.1498;0.2551;
942.9000;0.1490;0.2599;
943.2000;0.1498;0.2647;
943.5000;0.1498;0.2647;
943.8000;0.1547;0.2814;
944.1000;0.1449;0.2504;
944.4000;0.1522;0.2647;
944.7000;0.1498;0.2456;
945.0000;0.1530;0.2480;
945.3000;0.1392;0.2122;
945.6000;0.1538;0.2432;
945.9000;0.1481;0.2289;
946.2000;0.1449;0.2218;
946.5000;0.1498;0.2504;
946.8000;0.1530;0.2671;
947.1000;0.1555;0.2718;
947.4000;0.1506;0.2695;
947.7000;0.1449;0.2528;
948.0000;0.1473;0.2551;
948.3000;0.1498;0.2528;
948.6000;0.1514;0.2599;
948.9000;0.1498;0.2551;
949.2000;0.1514;0.2575;
949.5000;0.1522;0.2575;
949.8000;0.1490;0.2623;
950.1000;0.1538;0.2718;
950.4000;0.1481;0.2575;
950.7000;0.1498;0.2575;
951.0000;0.1490;0.2528;
951.3000;0.1368;0.2218;
951.6000;0.1473;0.2480;
951.9000;0.1636;0.2766;
952.2000;0.1506;0.2456;
952.5000;0.1473;0.2456;
952.8000;0.1506;0.2647;
953.1000;0.1530;0.2671;
953.4000;0.1498;0.2599;
953.7000;0.1498;0.2575;
954.0000;0.1368;0.2241;
954.3000;0.1514;0.2623;
954.6000;0.1514;0.2575;
954.9000;0.1571;0.2742;
955.2000;0.1506;0.2623;
955.5000;0.1498;0.2551;
955.8000;0.1481;0.2385;
956.1000;0.1490;0.2385;
956.4000;0.1481;0.2408;
956.7000;0.1465;0.2408;
957.0000;0.1498;0.2551;
957.3000;0.1481;0.2575;
957.6000;0.1490;0.2575;
957.9000;0.1498;0.2551;
958.2000;0.1506;0.2528;
958.5000;0.1498;0.2528;
958.8000;0.1490;0.2551;
959.1000;0.1498;0.2551;
959.4000;0.1490;0.2528;
959.7000;0.1498;0.2480;
960.0000;0.1506;0.2528;
960.3000;0.1522;0.2575;
960.6000;0.1514;0.2647;
960.9000;0.1530;0.2671;
961.2000;0.1514;0.2671;
961.5000;0.1498;0.2695;
961.8000;0.1498;0.2671;
962.1000;0.1490;0.2647;
962.4000;0.1522;0.2623;
962.7000;0.1506;0.2599;
963.0000;0.1481;0.2623;
963.3000;0.1498;0.2647;
963.6000;0.1481;0.2599;
963.9000;0.1514;0.2599;
964.2000;0.1433;0.2408;
964.5000;0.1473;0.2575;
964.8000;0.1514;0.2742;
965.1000;0.1514;0.2909;
965.4000;0.1514;0.2933;
965.7000;0.1563;0.3124;
966.0000;0.1490;0.2933;
966.3000;0.1481;0.2957;
966.6000;0.1506;0.2838;
966.9000;0.1530;0.2861;
967.2000;0.1506;0.2742;
967.5000;0.1522;0.2718;
967.8000;0.1555;0.2861;
968.1000;0.1408;0.2456;
968.4000;0.1498;0.2718;
968.7000;0.1514;0.2742;
969.0000;0.1522;0.2766;
969.3000;0.1498;0.2766;
969.6000;0.1490;0.2671;
969.9000;0.1530;0.2742;
970.2000;0.1530;0.2766;
970.5000;0.1522;0.2695;
970.8000;0.1506;0.2718;
971.1000;0.1522;0.2647;
971.4000;0.1490;0.2671;
971.7000;0.1514;0.2671;
972.0000;0.1506;0.2647;
972.3000;0.1514;0.2647;
972.6000;0.1514;0.2695;
972.9000;0.1522;0.2814;
973.2000;0.1457;0.2671;
973.5000;0.1522;0.2885;
973.8000;0.1498;0.2885;
974.1000;0.1555;0.2909;
974.4000;0.1514;0.2814;
974.7000;0.1473;0.2766;
975.0000;0.1481;0.2742;
975.3000;0.1506;0.2814;
975.6000;0.1514;0.2814;
975.9000;0.1384;0.2456;
976.2000;0.1498;0.2718;
976.5000;0.1506;0.2718;
976.8000;0.1473;0.2623;
977.1000;0.1368;0.2361;
977.4000;0.1481;0.2671;
977.7000;0.1490;0.2718;
978.0000;0.1555;0.2909;
978.3000;0.1514;0.2742;
978.6000;0.1514;0.2671;
978.9000;0.1506;0.2671;
979.2000;0.1555;0.2861;
979.5000;0.1506;0.2742;
979.8000;0.1490;0.2695;
980.1000;0.1514;0.2718;
980.4000;0.1498;0.2671;
980.7000;0.1498;0.2599;
981.0000;0.1522;0.2599;
981.3000;0.1481;0.2528;
981.6000;0.1490;0.2528;
981.9000;0.1433;0.2385;
982.2000;0.1498;0.2480;
982.5000;0.1498;0.2599;
982.8000;0.1481;0.2647;
983.1000;0.1498;0.2695;
983.4000;0.1506;0.2718;
983.7000;0.1587;0.2909;
984.0000;0.1587;0.2981;
984.3000;0.1522;0.2838;
984.6000;0.1530;0.2695;
984.9000;0.1481;0.2599;
985.2000;0.1514;0.2790;
985.5000;0.1498;0.2718;
985.8000;0.1481;0.2575;
986.1000;0.1530;0.2623;
986.4000;0.1506;0.2480;
986.7000;0.1595;0.2671;
987.0000;0.1538;0.2528;
987.3000;0.1506;0.2504;
987.6000;0.1506;0.2432;
987.9000;0.1473;0.2432;
988.2000;0.1506;0.2480;
988.5000;0.1498;0.2408;
988.8000;0.1506;0.2408;
989.1000;0.1547;0.2528;
989.4000;0.1538;0.2528;
989.7000;0.1530;0.2551;
990.0000;0.1506;0.2528;
990.3000;0.1506;0.2551;
990.6000;0.1506;0.2623;
990.9000;0.1481;0.2528;
991.2000;0.1514;0.2647;
991.5000;0.1490;0.2623;
991.8000;0.1498;0.2695;
992.1000;0.1514;0.2766;
992.4000;0.1490;0.2695;
992.7000;0.1522;0.2742;
993.0000;0.1498;0.2718;
993.3000;0.1514;0.2623;
993.6000;0.1514;0.2575;
993.9000;0.1514;0.2528;
994.2000;0.1490;0.2504;
994.5000;0.1514;0.2647;
994.8000;0.1538;0.2647;
995.1000;0.1506;0.2623;
995.4000;0.1498;0.2551;
995.7000;0.1522;0.2671;
996.0000;0.1490;0.2551;
996.3000;0.1498;0.2599;
996.6000;0.1506;0.2647;
996.9000;0.1433;0.2480;
997.2000;0.1522;0.2647;
997.5000;0.1514;0.2647;
997.8000;0.1587;0.2909;
998.1000;0.1473;0.2623;
998.4000;0.1506;0.2647;
998.7000;0.1506;0.2766;
999.0000;0.1514;0.2718;
999.3000;0.1473;0.2551;
999.6000;0.1604;0.2814;
999.9000;0.1498;0.2671;
1000.2000;0.1498;0.2671;
1000.5000;0.1498;0.2695;
1000.8000;0.1514;0.2695;
1001.1000;0.1498;0.2718;
1001.4000;0.1490;0.2647;
1001.7000;0.1473;0.2504;
1002.0000;0.1506;0.2504;
1002.3000;0.1514;0.2528;
1002.6000;0.1498;0.2480;
1002.9000;0.1506;0.2528;
1003.2000;0.1498;0.2385;
1003.5000;0.1498;0.2432;
1003.8000;0.1416;0.2146;
1004.1000;0.1481;0.2385;
1004.4000;0.1465;0.2432;
1004.7000;0.1522;0.2599;
1005.0000;0.1473;0.2504;
1005.3000;0.1530;0.2718;
1005.6000;0.1490;0.2695;
1005.9000;0.1457;0.2647;
1006.2000;0.1506;0.2838;
1006.5000;0.1530;0.2861;
1006.8000;0.1473;0.2766;
1007.1000;0.1473;0.2718;
1007.4000;0.1514;0.2790;
1007.7000;0.1506;0.2671;
1008.0000;0.1604;0.2933;
1008.3000;0.1514;0.2718;
1008.6000;0.1392;0.2456;
1008.9000;0.1514;0.2671;
1009.2000;0.1506;0.2695;
1009.5000;0.1498;0.2599;
1009.8000;0.1506;0.2575;
1010.1000;0.1514;0.2599;
1010.4000;0.1514;0.2671;
1010.7000;0.1522;0.2671;
1011.0000;0.1506;0.2647;
1011.3000;0.1530;0.2671;
1011.6000;0.1506;0.2551;
1011.9000;0.1522;0.2671;
1012.2000;0.1481;0.2575;
1012.5000;0.1571;0.2766;
1012.8000;0.1522;0.2623;
1013.1000;0.1506;0.2647;
1013.4000;0.1473;0.2551;
1013.7000;0.1433;0.2408;
1014.0000;0.1514;0.2623;
1014.3000;0.1514;0.2695;
1014.6000;0.1473;0.2575;
1014.9000;0.1490;0.2575;
1015.2000;0.1498;0.2623;
1015.5000;0.1490;0.2551;
1015.8000;0.1522;0.2671;
1016.1000;0.1498;0.2671;
1016.4000;0.1498;0.2742;
1016.7000;0.1498;0.2742;
1017.0000;0.1473;0.2671;
1017.3000;0.1506;0.2671;
1017.6000;0.1530;0.2671;
1017.9000;0.1498;0.2528;
1018.2000;0.1530;0.2575;
1018.5000;0.1498;0.2432;
1018.8000;0.1579;0.2671;
1019.1000;0.1514;0.2504;
1019.4000;0.1506;0.2432;
1019.7000;0.1498;0.2432;
1020.0000;0.1506;0.2599;
1020.3000;0.1498;0.2623;
1020.6000;0.1587;0.2766;
1020.9000;0.1473;0.2528;
1021.2000;0.1522;0.2599;
1021.5000;0.1400;0.2289;
1021.8000;0.1514;0.2575;
1022.1000;0.1506;0.2504;
1022.4000;0.1514;0.2599;
1022.7000;0.1392;0.2241;
1023.0000;0.1514;0.2599;
1023.3000;0.1498;0.2575;
1023.6000;0.1538;0.2647;
1023.9000;0.1473;0.2456;
1024.2000;0.1514;0.2575;
1024.5000;0.1514;0.2504;
1024.8000;0.1490;0.2456;
1025.1000;0.1522;0.2504;
1025.4000;0.1506;0.2504;
1025.7000;0.1514;0.2528;
1026.0000;0.1522;0.2480;
1026.3000;0.1514;0.2480;
1026.6000;0.1538;0.2504;
1026.9000;0.1514;0.2480;
1027.2000;0.1457;0.2361;
1027.5000;0.1522;0.2551;
1027.8000;0.1514;0.2551;
1028.1000;0.1490;0.2504;
1028.4000;0.1498;0.2575;
1028.7000;0.1465;0.2408;
1029.0000;0.1555;0.2695;
1029.3000;0.1506;0.2575;
1029.6000;0.1506;0.2575;
1029.9000;0.1506;0.2528;
1030.2000;0.1506;0.2480;
1030.5000;0.1498;0.2480;
1030.8000;0.1498;0.2528;
1031.1000;0.1490;0.2575;
1031.4000;0.1449;0.2504;
1031.7000;0.1506;0.2647;
1032.0000;0.1522;0.2599;
1032.3000;0.1498;0.2575;
1032.6000;0.1506;0.2575;
1032.9000;0.1514;0.2671;
1033.2000;0.1538;0.2742;
1033.5000;0.1498;0.2599;
1033.8000;0.1498;0.2599;
1034.1000;0.1506;0.2623;
1034.4000;0.1612;0.2933;
1034.7000;0.1514;0.2671;
1035.0000;0.1522;0.2647;
1035.3000;0.1514;0.2647;
1035.6000;0.1490;0.2623;
1035.9000;0.1506;0.2671;
1036.2000;0.1490;0.2504;
1036.5000;0.1506;0.2528;
1036.8000;0.1481;0.2361;
1037.1000;0.1563;0.2623;
1037.4000;0.1481;0.2456;
1037.7000;0.1514;0.2599;
1038.0000;0.1490;0.2551;
1038.3000;0.1490;0.2504;
1038.6000;0.1514;0.2504;
1038.9000;0.1522;0.2599;
1039.2000;0.1514;0.2528;
1039.5000;0.1473;0.2337;
1039.8000;0.1490;0.2337;
1040.1000;0.1514;0.2361;
1040.4000;0.1506;0.2337;
1040.7000;0.1498;0.2241;
1041.0000;0.1530;0.2432;
1041.3000;0.1465;0.2361;
1041.6000;0.1506;0.2408;
1041.9000;0.1490;0.2432;
1042.2000;0.1514;0.2528;
1042.5000;0.1530;0.2551;
1042.8000;0.1530;0.2647;
1043.1000;0.1481;0.2528;
1043.4000;0.1481;0.2528;
1043.7000;0.1506;0.2551;
1044.0000;0.1514;0.2623;
1044.3000;0.1506;0.2647;
1044.6000;0.1441;0.2480;
1044.9000;0.1441;0.2551;
1045.2000;0.1498;0.2671;
1045.5000;0.1481;0.2623;
1045.8000;0.1506;0.2623;
1046.1000;0.1465;0.2361;
1046.4000;0.1604;0.2790;
1046.7000;0.1416;0.2361;
1047.0000;0.1498;0.2623;
1047.3000;0.1498;0.2647;
1047.6000;0.1514;0.2790;
1047.9000;0.1335;0.2432;
1048.2000;0.1473;0.2790;
1048.5000;0.1481;0.2766;
1048.8000;0.1530;0.2861;
1049.1000;0.1498;0.2718;
1049.4000;0.1506;0.2718;
1049.7000;0.1506;0.2671;
1050.0000;0.1506;0.2671;
1050.3000;0.1522;0.2671;
1050.6000;0.1506;0.2647;
1050.9000;0.1514;0.2647;
1051.2000;0.1506;0.2671;
1051.5000;0.1514;0.2647;
1051.8000;0.1522;0.2599;
1052.1000;0.1514;0.2504;
1052.4000;0.1441;0.2385;
1052.7000;0.1530;0.2551;
1053.0000;0.1506;0.2528;
1053.3000;0.1506;0.2480;
1053.6000;0.1522;0.2432;
1053.9000;0.1506;0.2504;
1054.2000;0.1498;0.2528;
1054.5000;0.1490;0.2599;
1054.8000;0.1498;0.2623;
1055.1000;0.1490;0.2551;
1055.4000;0.1522;0.2575;
1055.7000;0.1522;0.2504;
1056.0000;0.1473;0.2313;
1056.3000;0.1481;0.2385;
1056.6000;0.1530;0.2504;
1056.9000;0.1473;0.2432;
1057.2000;0.1514;0.2551;
1057.5000;0.1481;0.2480;
1057.8000;0.1490;0.2432;
1058.1000;0.1530;0.2456;
1058.4000;0.1612;0.2718;
1058.7000;0.1498;0.2504;
1059.0000;0.1498;0.2528;
1059.3000;0.1457;0.2408;
1059.6000;0.1547;0.2647;
1059.9000;0.1514;0.2551;
1060.2000;0.1498;0.2575;
1060.5000;0.1473;0.2599;
1060.8000;0.1506;0.2671;
1061.1000;0.1506;0.2718;
1061.4000;0.1522;0.2742;
1061.7000;0.1490;0.2575;
1062.0000;0.1506;0.2599;
1062.3000;0.1490;0.2599;
1062.6000;0.1506;0.2599;
1062.9000;0.1490;0.2504;
1063.2000;0.1473;0.2408;
1063.5000;0.1351;0.2170;
1063.8000;0.1433;0.2408;
1064.1000;0.1514;0.2599;
1064.4000;0.1587;0.2742;
1064.7000;0.1481;0.2480;
1065.0000;0.1522;0.2599;
1065.3000;0.1514;0.2575;
1065.6000;0.1530;0.2647;
1065.9000;0.1538;0.2695;
1066.2000;0.1514;0.2575;
1066.5000;0.1506;0.2599;
1066.8000;0.1547;0.2766;
1067.1000;0.1506;0.2647;
1067.4000;0.1481;0.2599;
1067.7000;0.1514;0.2647;
1068.0000;0.1530;0.2671;
1068.3000;0.1506;0.2551;
1068.6000;0.1506;0.2504;
1068.9000;0.1522;0.2528;
1069.2000;0.1498;0.2480;
1069.5000;0.1538;0.2551;
1069.8000;0.1522;0.2551;
1070.1000;0.1506;0.2575;
1070.4000;0.1506;0.2528;
1070.7000;0.1506;0.2551;
1071.0000;0.1506;0.2599;
1071.3000;0.1490;0.2551;
1071.6000;0.1506;0.2599;
1071.9000;0.1449;0.2504;
1072.2000;0.1530;0.2671;
1072.5000;0.1514;0.2575;
1072.8000;0.1490;0.2480;
1073.1000;0.1514;0.2575;
1073.4000;0.1530;0.2671;
1073.7000;0.1522;0.2647;
1074.0000;0.1506;0.2575;
1074.3000;0.1490;0.2551;
1074.6000;0.1490;0.2623;
1074.9000;0.1595;0.2885;
1075.2000;0.1522;0.2647;
1075.5000;0.1490;0.2575;
1075.8000;0.1506;0.2551;
1076.1000;0.1506;0.2528;
1076.4000;0.1490;0.2480;
1076.7000;0.1530;0.2599;
1077.0000;0.1595;0.2814;
1077.3000;0.1490;0.2528;
1077.6000;0.1522;0.2671;
1077.9000;0.1514;0.2623;
1078.2000;0.1490;0.2599;
1078.5000;0.1522;0.2599;
1078.8000;0.1530;0.2623;
1079.1000;0.1498;0.2528;
1079.4000;0.1449;0.2432;
1079.7000;0.1498;0.2671;
1080.0000;0.1506;0.2647;
1080.3000;0.1579;0.2909;
1080.6000;0.1530;0.2766;
1080.9000;0.1514;0.2742;
1081.2000;0.1490;0.2695;
1081.5000;0.1522;0.2790;
1081.8000;0.1416;0.2551;
1082.1000;0.1506;0.2790;
1082.4000;0.1465;0.2623;
1082.7000;0.1498;0.2766;
1083.0000;0.1449;0.2766;
1083.3000;0.1506;0.2766;
1083.6000;0.1498;0.2623;
1083.9000;0.1490;0.2575;
1084.2000;0.1652;0.2933;
1084.5000;0.1473;0.2361;
1084.8000;0.1449;0.2265;
1085.1000;0.1498;0.2361;
1085.4000;0.1457;0.2218;
1085.7000;0.1490;0.2432;
1086.0000;0.1547;0.2432;
1086.3000;0.1514;0.2432;
1086.6000;0.1498;0.2337;
1086.9000;0.1506;0.2361;
1087.2000;0.1498;0.2361;
1087.5000;0.1506;0.2361;
1087.8000;0.1547;0.2408;
1088.1000;0.1514;0.2241;
1088.4000;0.1530;0.2313;
1088.7000;0.1506;0.2289;
1089.0000;0.1506;0.2265;
1089.3000;0.1498;0.2337;
1089.6000;0.1498;0.2385;
1089.9000;0.1465;0.2313;
1090.2000;0.1506;0.2385;
1090.5000;0.1506;0.2432;
1090.8000;0.1522;0.2480;
1091.1000;0.1506;0.2432;
1091.4000;0.1530;0.2551;
1091.7000;0.1506;0.2575;
1092.0000;0.1490;0.2432;
1092.3000;0.1530;0.2528;
1092.6000;0.1498;0.2385;
1092.9000;0.1522;0.2385;
1093.2000;0.1530;0.2385;
1093.5000;0.1498;0.2361;
1093.8000;0.1506;0.2361;
1094.1000;0.1481;0.2289;
1094.4000;0.1490;0.2313;
1094.7000;0.1498;0.2337;
1095.0000;0.1506;0.2313;
1095.3000;0.1473;0.2408;
1095.6000;0.1498;0.2432;
1095.9000;0.1384;0.2194;
1096.2000;0.1498;0.2432;
1096.5000;0.1498;0.2361;
1096.8000;0.1473;0.2265;
1097.1000;0.1514;0.2337;
1097.4000;0.1514;0.2289;
1097.7000;0.1506;0.2408;
1098.0000;0.1530;0.2551;
1098.3000;0.1498;0.2480;
1098.6000;0.1498;0.2480;
1098.9000;0.1506;0.2480;
1099.2000;0.1490;0.2504;
1099.5000;0.1490;0.2504;
1099.8000;0.1555;0.2671;
1100.1000;0.1490;0.2551;
1100.4000;0.1506;0.2575;
1100.7000;0.1538;0.2671;
1101.0000;0.1490;0.2575;
1101.3000;0.1498;0.2575;
1101.6000;0.1506;0.2528;
1101.9000;0.1481;0.2480;
1102.2000;0.1522;0.2575;
1102.5000;0.1514;0.2575;
1102.8000;0.1506;0.2528;
1103.1000;0.1522;0.2551;
1103.4000;0.1514;0.2551;
1103.7000;0.1506;0.2528;
1104.0000;0.1481;0.2551;
1104.3000;0.1498;0.2671;
1104.6000;0.1563;0.2790;
1104.9000;0.1498;0.2647;
1105.2000;0.1490;0.2551;
1105.5000;0.1506;0.2599;
1105.8000;0.1506;0.2551;
1106.1000;0.1506;0.2551;
1106.4000;0.1530;0.2599;
1106.7000;0.1555;0.2695;
1107.0000;0.1506;0.2575;
1107.3000;0.1498;0.2718;
1107.6000;0.1498;0.2695;
1107.9000;0.1506;0.2599;
1108.2000;0.1408;0.2408;
1108.5000;0.1441;0.2528;
1108.8000;0.1522;0.2718;
1109.1000;0.1506;0.2623;
1109.4000;0.1498;0.2599;
1109.7000;0.1498;0.2504;
1110.0000;0.1506;0.2480;
1110.3000;0.1506;0.2456;
1110.6000;0.1481;0.2456;
1110.9000;0.1514;0.2623;
1111.2000;0.1514;0.2599;
1111.5000;0.1498;0.2647;
1111.8000;0.1498;0.2647;
1112.1000;0.1498;0.2695;
1112.4000;0.1506;0.2718;
1112.7000;0.1441;0.2575;
1113.0000;0.1498;0.2695;
1113.3000;0.1522;0.2742;
1113.6000;0.1498;0.2671;
1113.9000;0.1490;0.2647;
1114.2000;0.1514;0.2647;
1114.5000;0.1506;0.2647;
1114.8000;0.1457;0.2575;
1115.1000;0.1506;0.2766;
1115.4000;0.1498;0.2695;
1115.7000;0.1498;0.2599;
1116.0000;0.1514;0.2575;
1116.3000;0.1530;0.2647;
1116.6000;0.1498;0.2575;
1116.9000;0.1498;0.2551;
1117.2000;0.1498;0.2623;
1117.5000;0.1530;0.2647;
1117.8000;0.1538;0.2814;
1118.1000;0.1465;0.2718;
1118.4000;0.1481;0.2885;
1118.7000;0.1530;0.3028;
1119.0000;0.1506;0.2885;
1119.3000;0.1514;0.2933;
1119.6000;0.1538;0.2957;
1119.9000;0.1538;0.2957;
1120.2000;0.1498;0.2838;
1120.5000;0.1490;0.2790;
1120.8000;0.1522;0.2814;
1121.1000;0.1514;0.2885;
1121.4000;0.1481;0.2814;
1121.7000;0.1490;0.2814;
1122.0000;0.1506;0.2861;
1122.3000;0.1498;0.2861;
1122.6000;0.1522;0.2909;
1122.9000;0.1473;0.2790;
1123.2000;0.1433;0.2551;
1123.5000;0.1595;0.3005;
1123.8000;0.1506;0.2718;
1124.1000;0.1506;0.2718;
1124.4000;0.1473;0.2718;
1124.7000;0.1514;0.2885;
1125.0000;0.1506;0.2814;
1125.3000;0.1538;0.2885;
1125.6000;0.1506;0.2861;
1125.9000;0.1514;0.2814;
1126.2000;0.1579;0.2957;
1126.5000;0.1530;0.2790;
1126.8000;0.1490;0.2671;
1127.1000;0.1490;0.2742;
1127.4000;0.1506;0.2718;
1127.7000;0.1506;0.2742;
1128.0000;0.1522;0.2766;
1128.3000;0.1514;0.2718;
1128.6000;0.1514;0.2647;
1128.9000;0.1506;0.2575;
1129.2000;0.1530;0.2623;
1129.5000;0.1514;0.2575;
1129.8000;0.1522;0.2599;
1130.1000;0.1538;0.2790;
1130.4000;0.1449;0.2504;
1130.7000;0.1506;0.2718;
1131.0000;0.1620;0.2981;
1131.3000;0.1457;0.2528;
1131.6000;0.1506;0.2671;
1131.9000;0.1538;0.2766;
1132.2000;0.1498;0.2671;
1132.5000;0.1514;0.2718;
1132.8000;0.1498;0.2671;
1133.1000;0.1490;0.2551;
1133.4000;0.1490;0.2528;
1133.7000;0.1465;0.2504;
1134.0000;0.1506;0.2647;
1134.3000;0.1530;0.2766;
1134.6000;0.1490;0.2599;
1134.9000;0.1522;0.2647;
1135.2000;0.1514;0.2599;
1135.5000;0.1498;0.2575;
1135.8000;0.1441;0.2504;
1136.1000;0.1530;0.2671;
1136.4000;0.1490;0.2599;
1136.7000;0.1530;0.2718;
1137.0000;0.1498;0.2551;
1137.3000;0.1416;0.2313;
1137.6000;0.1498;0.2528;
1137.9000;0.1514;0.2504;
1138.2000;0.1514;0.2480;
1138.5000;0.1571;0.2671;
1138.8000;0.1522;0.2599;
1139.1000;0.1498;0.2575;
1139.4000;0.1481;0.2623;
1139.7000;0.1522;0.2695;
1140.0000;0.1392;0.2361;
1140.3000;0.1506;0.2671;
1140.6000;0.1514;0.2790;
1140.9000;0.1457;0.2623;
1141.2000;0.1498;0.2718;
1141.5000;0.1506;0.2671;
1141.8000;0.1498;0.2551;
1142.1000;0.1392;0.2218;
1142.4000;0.1547;0.2695;
1142.7000;0.1498;0.2599;
1143.0000;0.1506;0.2599;
1143.3000;0.1514;0.2599;
1143.6000;0.1498;0.2551;
1143.9000;0.1506;0.2647;
1144.2000;0.1522;0.2695;
1144.5000;0.1530;0.2695;
1144.8000;0.1514;0.2695;
1145.1000;0.1490;0.2623;
1145.4000;0.1522;0.2742;
1145.7000;0.1538;0.2790;
1146.0000;0.1506;0.2671;
1146.3000;0.1506;0.2623;
1146.6000;0.1514;0.2623;
1146.9000;0.1522;0.2695;
1147.2000;0.1465;0.2551;
1147.5000;0.1481;0.2671;
1147.8000;0.1368;0.2432;
1148.1000;0.1498;0.2695;
1148.4000;0.1522;0.2766;
1148.7000;0.1498;0.2647;
1149.0000;0.1506;0.2623;
1149.3000;0.1506;0.2671;
1149.6000;0.1530;0.2718;
1149.9000;0.1490;0.2671;
1150.2000;0.1498;0.2695;
1150.5000;0.1498;0.2742;
1150.8000;0.1514;0.2838;
1151.1000;0.1506;0.2718;
1151.4000;0.1481;0.2695;
1151.7000;0.1490;0.2742;
1152.0000;0.1490;0.2790;
1152.3000;0.1506;0.2790;
1152.6000;0.1628;0.3005;
1152.9000;0.1514;0.2695;
1153.2000;0.1530;0.2766;
1153.5000;0.1481;0.2671;
1153.8000;0.1530;0.2695;
1154.1000;0.1490;0.2623;
1154.4000;0.1498;0.2575;
1154.7000;0.1506;0.2718;
1155.0000;0.1530;0.2790;
1155.3000;0.1506;0.2695;
1155.6000;0.1612;0.2957;
1155.9000;0.1506;0.2718;
1156.2000;0.1506;0.2718;
1156.5000;0.1522;0.2766;
1156.8000;0.1506;0.2718;
1157.1000;0.1530;0.2766;
1157.4000;0.1506;0.2695;
1157.7000;0.1506;0.2671;
1158.0000;0.1498;0.2647;
1158.3000;0.1490;0.2623;
1158.6000;0.1506;0.2766;
1158.9000;0.1604;0.3028;
1159.2000;0.1490;0.2718;
1159.5000;0.1473;0.2599;
1159.8000;0.1490;0.2551;
1160.1000;0.1506;0.2599;
1160.4000;0.1498;0.2504;
1160.7000;0.1547;0.2695;
1161.0000;0.1498;0.2647;
1161.3000;0.1530;0.2742;
1161.6000;0.1514;0.2695;
1161.9000;0.1514;0.2695;
1162.2000;0.1514;0.2647;
1162.5000;0.1530;0.2623;
1162.8000;0.1555;0.2742;
1163.1000;0.1490;0.2599;
1163.4000;0.1481;0.2528;
1163.7000;0.1522;0.2599;
1164.0000;0.1514;0.2647;
1164.3000;0.1473;0.2528;
1164.6000;0.1514;0.2695;
1164.9000;0.1538;0.2718;
1165.2000;0.1506;0.2551;
1165.5000;0.1538;0.2504;
1165.8000;0.1514;0.2456;
1166.1000;0.1604;0.2718;
1166.4000;0.1530;0.2480;
1166.7000;0.1530;0.2385;
1167.0000;0.1498;0.2289;
1167.3000;0.1506;0.2265;
1167.6000;0.1538;0.2313;
1167.9000;0.1547;0.2480;
1168.2000;0.1506;0.2504;
1168.5000;0.1644;0.2909;
1168.8000;0.1498;0.2623;
1169.1000;0.1514;0.2647;
1169.4000;0.1490;0.2647;
1169.7000;0.1506;0.2671;
1170.0000;0.1498;0.2623;
1170.3000;0.1538;0.2718;
1170.6000;0.1514;0.2671;
1170.9000;0.1514;0.2599;
1171.2000;0.1481;0.2504;
1171.5000;0.1449;0.2265;
1171.8000;0.1563;0.2599;
1172.1000;0.1498;0.2456;
1172.4000;0.1498;0.2599;
1172.7000;0.1538;0.2671;
1173.0000;0.1506;0.2742;
1173.3000;0.1530;0.2838;
1173.6000;0.1506;0.2766;
1173.9000;0.1514;0.2814;
1174.2000;0.1465;0.2623;
1174.5000;0.1514;0.2814;
1174.8000;0.1473;0.2718;
1175.1000;0.1449;0.2575;
1175.4000;0.1490;0.2695;
1175.7000;0.1498;0.2695;
1176.0000;0.1506;0.2671;
1176.3000;0.1555;0.2790;
1176.6000;0.1530;0.2742;
1176.9000;0.1514;0.2695;
1177.2000;0.1530;0.2671;
1177.5000;0.1514;0.2695;
1177.8000;0.1612;0.2885;
1178.1000;0.1506;0.2718;
1178.4000;0.1547;0.2814;
1178.7000;0.1490;0.2695;
1179.0000;0.1498;0.2718;
1179.3000;0.1514;0.2790;
1179.6000;0.1547;0.2933;
1179.9000;0.1514;0.2885;
1180.2000;0.1506;0.2790;
1180.5000;0.1514;0.2885;
1180.8000;0.1530;0.2814;
1181.1000;0.1530;0.2766;
1181.4000;0.1498;0.2742;
1181.7000;0.1522;0.2814;
1182.0000;0.1498;0.2766;
1182.3000;0.1498;0.2742;
1182.6000;0.1481;0.2718;
1182.9000;0.1506;0.2814;
1183.2000;0.1473;0.2742;
1183.5000;0.1514;0.2814;
1183.8000;0.1498;0.2814;
1184.1000;0.1506;0.2742;
1184.4000;0.1506;0.2695;
1184.7000;0.1522;0.2718;
1185.0000;0.1498;0.2671;
1185.3000;0.1506;0.2718;
1185.6000;0.1490;0.2718;
1185.9000;0.1538;0.2861;
1186.2000;0.1506;0.2718;
1186.5000;0.1506;0.2790;
1186.8000;0.1506;0.2790;
1187.1000;0.1481;0.2766;
1187.4000;0.1498;0.2814;
1187.7000;0.1498;0.2695;
1188.0000;0.1490;0.2671;
1188.3000;0.1506;0.2718;
1188.6000;0.1506;0.2766;
1188.9000;0.1563;0.2957;
1189.2000;0.1498;0.2861;
1189.5000;0.1530;0.2909;
1189.8000;0.1457;0.2766;
1190.1000;0.1522;0.2885;
1190.4000;0.1530;0.2861;
1190.7000;0.1522;0.2885;
1191.0000;0.1441;0.2671;
1191.3000;0.1498;0.2861;
1191.6000;0.1530;0.2957;
1191.9000;0.1506;0.2909;
1192.2000;0.1490;0.2957;
1192.5000;0.1506;0.2957;
1192.8000;0.1408;0.2647;
1193.1000;0.1481;0.2838;
1193.4000;0.1530;0.2909;
1193.7000;0.1498;0.2742;
1194.0000;0.1433;0.2528;
1194.3000;0.1433;0.2551;
1194.6000;0.1530;0.2885;
1194.9000;0.1514;0.2861;
1195.2000;0.1514;0.2861;
1195.5000;0.1547;0.3005;
1195.8000;0.1481;0.2814;
1196.1000;0.1514;0.2814;
1196.4000;0.1547;0.2909;
1196.7000;0.1506;0.2814;
1197.0000;0.1514;0.2814;
1197.3000;0.1498;0.2742;
1197.6000;0.1490;0.2790;
1197.9000;0.1514;0.2790;
1198.2000;0.1514;0.2742;
1198.5000;0.1522;0.2766;
1198.8000;0.1530;0.2766;
1199.1000;0.1506;0.2766;
1199.4000;0.1538;0.2814;
1199.7000;0.1498;0.2742;
1200.0000;0.1498;0.2695;
1200.3000;0.1522;0.2790;
1200.6000;0.1555;0.2861;
1200.9000;0.1514;0.2718;
1201.2000;0.1514;0.2742;
1201.5000;0.1522;0.2885;
1201.8000;0.1555;0.2981;
1202.1000;0.1514;0.2838;
1202.4000;0.1579;0.2933;
1202.7000;0.1595;0.2861;
1203.0000;0.1506;0.2599;
1203.3000;0.1498;0.2623;
1203.6000;0.1547;0.2742;
1203.9000;0.1498;0.2599;
1204.2000;0.1498;0.2575;
1204.5000;0.1481;0.2623;
1204.8000;0.1473;0.2599;
1205.1000;0.1490;0.2623;
1205.4000;0.1384;0.2361;
1205.7000;0.1522;0.2647;
1206.0000;0.1498;0.2599;
1206.3000;0.1473;0.2456;
1206.6000;0.1522;0.2695;
1206.9000;0.1506;0.2695;
1207.2000;0.1490;0.2599;
1207.5000;0.1514;0.2647;
1207.8000;0.1490;0.2647;
1208.1000;0.1506;0.2718;
1208.4000;0.1514;0.2718;
1208.7000;0.1514;0.2766;
1209.0000;0.1506;0.2814;
1209.3000;0.1530;0.2861;
1209.6000;0.1514;0.2742;
1209.9000;0.1490;0.2671;
1210.2000;0.1490;0.2671;
1210.5000;0.1530;0.2742;
1210.8000;0.1506;0.2671;
1211.1000;0.1368;0.2289;
1211.4000;0.1506;0.2695;
1211.7000;0.1490;0.2599;
1212.0000;0.1481;0.2599;
1212.3000;0.1433;0.2480;
1212.6000;0.1522;0.2695;
1212.9000;0.1514;0.2623;
1213.2000;0.1498;0.2647;
1213.5000;0.1490;0.2599;
1213.8000;0.1498;0.2528;
1214.1000;0.1481;0.2623;
1214.4000;0.1522;0.2695;
1214.7000;0.1490;0.2647;
1215.0000;0.1490;0.2575;
1215.3000;0.1506;0.2599;
1215.6000;0.1530;0.2623;
1215.9000;0.1384;0.2241;
1216.2000;0.1457;0.2551;
1216.5000;0.1498;0.2575;
1216.8000;0.1457;0.2480;
1217.1000;0.1522;0.2599;
1217.4000;0.1522;0.2599;
1217.7000;0.1612;0.2814;
1218.0000;0.1514;0.2623;
1218.3000;0.1530;0.2718;
1218.6000;0.1669;0.3076;
1218.9000;0.1506;0.2647;
1219.2000;0.1506;0.2766;
1219.5000;0.1498;0.2718;
1219.8000;0.1473;0.2623;
1220.1000;0.1473;0.2647;
1220.4000;0.1457;0.2647;
1220.7000;0.1514;0.2742;
1221.0000;0.1498;0.2790;
1221.3000;0.1498;0.2838;
1221.6000;0.1498;0.2742;
1221.9000;0.1522;0.2742;
1222.2000;0.1481;0.2647;
1222.5000;0.1506;0.2623;
1222.8000;0.1498;0.2528;
1223.1000;0.1433;0.2432;
1223.4000;0.1547;0.2647;
1223.7000;0.1449;0.2408;
1224.0000;0.1490;0.2456;
1224.3000;0.1498;0.2528;
1224.6000;0.1506;0.2647;
1224.9000;0.1506;0.2599;
1225.2000;0.1490;0.2623;
1225.5000;0.1522;0.2671;
1225.8000;0.1498;0.2623;
1226.1000;0.1538;0.2695;
1226.4000;0.1498;0.2623;
1226.7000;0.1506;0.2742;
1227.0000;0.1506;0.2814;
1227.3000;0.1514;0.2766;
1227.6000;0.1587;0.2933;
1227.9000;0.1498;0.2599;
1228.2000;0.1522;0.2551;
1228.5000;0.1514;0.2504;
1228.8000;0.1522;0.2528;
1229.1000;0.1506;0.2504;
1229.4000;0.1465;0.2337;
1229.7000;0.1612;0.2695;
1230.0000;0.1506;0.2385;
1230.3000;0.1514;0.2432;
1230.6000;0.1498;0.2385;
1230.9000;0.1538;0.2528;
1231.2000;0.1506;0.2504;
1231.5000;0.1498;0.2504;
1231.8000;0.1490;0.2575;
1232.1000;0.1555;0.2742;
1232.4000;0.1498;0.2551;
1232.7000;0.1563;0.2695;
1233.0000;0.1473;0.2480;
1233.3000;0.1522;0.2504;
1233.6000;0.1506;0.2504;
1233.9000;0.1506;0.2480;
1234.2000;0.1538;0.2528;
1234.5000;0.1571;0.2575;
1234.8000;0.1514;0.2432;
1235.1000;0.1571;0.2599;
1235.4000;0.1522;0.2504;
1235.7000;0.1457;0.2385;
1236.0000;0.1506;0.2599;
1236.3000;0.1514;0.2671;
1236.6000;0.1530;0.2695;
1236.9000;0.1490;0.2575;
1237.2000;0.1498;0.2528;
1237.5000;0.1506;0.2575;
1237.8000;0.1506;0.2551;
1238.1000;0.1506;0.2528;
1238.4000;0.1514;0.2528;
1238.7000;0.1514;0.2480;
1239.0000;0.1506;0.2504;
1239.3000;0.1506;0.2551;
1239.6000;0.1514;0.2575;
1239.9000;0.1490;0.2528;
1240.2000;0.1522;0.2528;
1240.5000;0.1506;0.2480;
1240.8000;0.1620;0.2695;
1241.1000;0.1498;0.2432;
1241.4000;0.1514;0.2408;
1241.7000;0.1506;0.2480;
1242.0000;0.1498;0.2408;
1242.3000;0.1433;0.2265;
1242.6000;0.1522;0.2480;
1242.9000;0.1514;0.2528;
1243.2000;0.1490;0.2575;
1243.5000;0.1555;0.2718;
1243.8000;0.1490;0.2551;
1244.1000;0.1506;0.2623;
1244.4000;0.1490;0.2647;
1244.7000;0.1490;0.2575;
1245.0000;0.1498;0.2551;
1245.3000;0.1498;0.2599;
1245.6000;0.1604;0.2861;
1245.9000;0.1514;0.2647;
1246.2000;0.1490;0.2551;
1246.5000;0.1506;0.2647;
1246.8000;0.1530;0.2695;
1247.1000;0.1530;0.2623;
1247.4000;0.1514;0.2671;
1247.7000;0.1514;0.2623;
1248.0000;0.1514;0.2671;
1248.3000;0.1522;0.2695;
1248.6000;0.1490;0.2623;
1248.9000;0.1498;0.2647;
1249.2000;0.1506;0.2623;
1249.5000;0.1416;0.2313;
1249.8000;0.1465;0.2432;
1250.1000;0.1555;0.2671;
1250.4000;0.1506;0.2599;
1250.7000;0.1522;0.2647;
1251.0000;0.1481;0.2480;
1251.3000;0.1555;0.2575;
1251.6000;0.1571;0.2551;
1251.9000;0.1498;0.2361;
1252.2000;0.1498;0.2313;
1252.5000;0.1457;0.2265;
1252.8000;0.1514;0.2432;
1253.1000;0.1441;0.2289;
1253.4000;0.1498;0.2385;
1253.7000;0.1506;0.2480;
1254.0000;0.1514;0.2551;
1254.3000;0.1506;0.2551;
1254.6000;0.1514;0.2599;
1254.9000;0.1514;0.2623;
1255.2000;0.1514;0.2695;
1255.5000;0.1538;0.2766;
1255.8000;0.1506;0.2718;
1256.1000;0.1506;0.2718;
1256.4000;0.1498;0.2766;
1256.7000;0.1490;0.2718;
1257.0000;0.1530;0.2838;
1257.3000;0.1498;0.2838;
1257.6000;0.1481;0.2814;
1257.9000;0.1522;0.2861;
1258.2000;0.1522;0.2814;
1258.5000;0.1506;0.2742;
1258.8000;0.1481;0.2742;
1259.1000;0.1498;0.2742;
1259.4000;0.1416;0.2504;
1259.7000;0.1579;0.2885;
1260.0000;0.1473;0.2599;
1260.3000;0.1522;0.2695;
1260.6000;0.1425;0.2432;
1260.9000;0.1441;0.2575;
1261.2000;0.1506;0.2671;
1261.5000;0.1457;0.2456;
1261.8000;0.1498;0.2528;
1262.1000;0.1506;0.2480;
1262.4000;0.1506;0.2504;
1262.7000;0.1514;0.2480;
1263.0000;0.1425;0.2218;
1263.3000;0.1490;0.2456;
1263.6000;0.1538;0.2432;
1263.9000;0.1498;0.2361;
1264.2000;0.1498;0.2361;
1264.5000;0.1522;0.2504;
1264.8000;0.1530;0.2551;
1265.1000;0.1498;0.2575;
1265.4000;0.1514;0.2671;
1265.7000;0.1522;0.2742;
1266.0000;0.1514;0.2718;
1266.3000;0.1514;0.2671;
1266.6000;0.1522;0.2695;
1266.9000;0.1514;0.2551;
1267.2000;0.1522;0.2599;
1267.5000;0.1506;0.2504;
1267.8000;0.1522;0.2504;
1268.1000;0.1490;0.2385;
1268.4000;0.1465;0.2337;
1268.7000;0.1490;0.2480;
1269.0000;0.1498;0.2528;
1269.3000;0.1481;0.2504;
1269.6000;0.1547;0.2742;
1269.9000;0.1506;0.2599;
1270.2000;0.1498;0.2551;
1270.5000;0.1490;0.2575;
1270.8000;0.1506;0.2766;
1271.1000;0.1514;0.2933;
1271.4000;0.1506;0.2909;
1271.7000;0.1490;0.2790;
1272.0000;0.1506;0.2790;
1272.3000;0.1506;0.2790;
1272.6000;0.1538;0.2885;
1272.9000;0.1514;0.2861;
1273.2000;0.1506;0.2861;
1273.5000;0.1530;0.2909;
1273.8000;0.1506;0.2790;
1274.1000;0.1522;0.2766;
1274.4000;0.1506;0.2766;
1274.7000;0.1506;0.2861;
1275.0000;0.1522;0.2885;
1275.3000;0.1522;0.2838;
1275.6000;0.1595;0.3005;
1275.9000;0.1481;0.2671;
1276.2000;0.1555;0.2671;
1276.5000;0.1506;0.2551;
1276.8000;0.1498;0.2575;
1277.1000;0.1498;0.2551;
1277.4000;0.1522;0.2623;
1277.7000;0.1506;0.2551;
1278.0000;0.1506;0.2456;
1278.3000;0.1498;0.2456;
1278.6000;0.1579;0.2671;
1278.9000;0.1490;0.2456;
1279.2000;0.1506;0.2599;
1279.5000;0.1506;0.2528;
1279.8000;0.1490;0.2551;
1280.1000;0.1514;0.2718;
1280.4000;0.1481;0.2671;
1280.7000;0.1514;0.2718;
1281.0000;0.1514;0.2623;
1281.3000;0.1506;0.2671;
1281.6000;0.1514;0.2671;
1281.9000;0.1490;0.2647;
1282.2000;0.1506;0.2695;
1282.5000;0.1506;0.2718;
1282.8000;0.1506;0.2742;
1283.1000;0.1506;0.2790;
1283.4000;0.1506;0.2790;
1283.7000;0.1514;0.2814;
1284.0000;0.1498;0.2742;
1284.3000;0.1522;0.2718;
1284.6000;0.1433;0.2408;
1284.9000;0.1473;0.2551;
1285.2000;0.1490;0.2504;
1285.5000;0.1538;0.2599;
1285.8000;0.1612;0.2838;
1286.1000;0.1514;0.2575;
1286.4000;0.1498;0.2551;
1286.7000;0.1449;0.2408;
1287.0000;0.1571;0.2599;
1287.3000;0.1506;0.2456;
1287.6000;0.1498;0.2408;
1287.9000;0.1433;0.2194;
1288.2000;0.1498;0.2313;
1288.5000;0.1490;0.2265;
1288.8000;0.1498;0.2265;
1289.1000;0.1514;0.2385;
1289.4000;0.1498;0.2408;
1289.7000;0.1490;0.2385;
1290.0000;0.1514;0.2528;
1290.3000;0.1514;0.2528;
1290.6000;0.1498;0.2480;
1290.9000;0.1498;0.2385;
1291.2000;0.1506;0.2385;
1291.5000;0.1506;0.2385;
1291.8000;0.1490;0.2337;
1292.1000;0.1530;0.2528;
1292.4000;0.1473;0.2408;
1292.7000;0.1506;0.2575;
1293.0000;0.1522;0.2623;
1293.3000;0.1498;0.2551;
1293.6000;0.1457;0.2456;
1293.9000;0.1506;0.2528;
1294.2000;0.1498;0.2575;
1294.5000;0.1481;0.2528;
1294.8000;0.1490;0.2528;
1295.1000;0.1498;0.2647;
1295.4000;0.1628;0.2933;
1295.7000;0.1514;0.2504;
1296.0000;0.1530;0.2575;
1296.3000;0.1506;0.2575;
1296.6000;0.1587;0.2766;
1296.9000;0.1522;0.2599;
1297.2000;0.1441;0.2456;
1297.5000;0.1530;0.2575;
1297.8000;0.1522;0.2528;
1298.1000;0.1514;0.2528;
1298.4000;0.1530;0.2575;
1298.7000;0.1522;0.2551;
1299.0000;0.1490;0.2504;
1299.3000;0.1506;0.2599;
1299.6000;0.1506;0.2528;
1299.9000;0.1506;0.2551;
1300.2000;0.1506;0.2623;
1300.5000;0.1481;0.2575;
1300.8000;0.1555;0.2742;
1301.1000;0.1441;0.2575;
1301.4000;0.1498;0.2695;
1301.7000;0.1555;0.2838;
1302.0000;0.1514;0.2814;
1302.3000;0.1506;0.2695;
1302.6000;0.1506;0.2623;
1302.9000;0.1498;0.2575;
1303.2000;0.1506;0.2599;
1303.5000;0.1522;0.2647;
1303.8000;0.1522;0.2623;
1304.1000;0.1506;0.2528;
1304.4000;0.1457;0.2432;
1304.7000;0.1506;0.2599;
1305.0000;0.1522;0.2528;
1305.3000;0.1490;0.2456;
1305.6000;0.1514;0.2480;
1305.9000;0.1522;0.2480;
1306.2000;0.1538;0.2528;
1306.5000;0.1498;0.2504;
1306.8000;0.1473;0.2432;
1307.1000;0.1514;0.2504;
1307.4000;0.1538;0.2528;
1307.7000;0.1498;0.2456;
1308.0000;0.1498;0.2480;
1308.3000;0.1506;0.2504;
1308.6000;0.1514;0.2551;
1308.9000;0.1563;0.2647;
1309.2000;0.1506;0.2551;
1309.5000;0.1514;0.2599;
1309.8000;0.1498;0.2504;
1310.1000;0.1514;0.2551;
1310.4000;0.1498;0.2480;
1310.7000;0.1555;0.2695;
1311.0000;0.1522;0.2647;
1311.3000;0.1514;0.2599;
1311.6000;0.1506;0.2551;
1311.9000;0.1506;0.2551;
1312.2000;0.1506;0.2551;
1312.5000;0.1416;0.2361;
1312.8000;0.1490;0.2623;
1313.1000;0.1498;0.2647;
1313.4000;0.1530;0.2647;
1313.7000;0.1490;0.2551;
1314.0000;0.1514;0.2599;
1314.3000;0.1498;0.2575;
1314.6000;0.1514;0.2671;
1314.9000;0.1490;0.2647;
1315.2000;0.1522;0.2766;
1315.5000;0.1514;0.2718;
1315.8000;0.1473;0.2528;
1316.1000;0.1506;0.2575;
1316.4000;0.1481;0.2504;
1316.7000;0.1612;0.2814;
1317.0000;0.1522;0.2528;
1317.3000;0.1506;0.2599;
1317.6000;0.1514;0.2671;
1317.9000;0.1498;0.2742;
1318.2000;0.1522;0.2790;
1318.5000;0.1514;0.2814;
1318.8000;0.1514;0.2766;
1319.1000;0.1498;0.2647;
1319.4000;0.1538;0.2742;
1319.7000;0.1506;0.2599;
1320.0000;0.1498;0.2599;
1320.3000;0.1514;0.2695;
1320.6000;0.1538;0.2766;
1320.9000;0.1530;0.2766;
1321.2000;0.1506;0.2647;
1321.5000;0.1514;0.2695;
1321.8000;0.1530;0.2695;
1322.1000;0.1506;0.2623;
1322.4000;0.1425;0.2385;
1322.7000;0.1538;0.2647;
1323.0000;0.1514;0.2623;
1323.3000;0.1506;0.2599;
1323.6000;0.1522;0.2575;
1323.9000;0.1506;0.2504;
1324.2000;0.1522;0.2551;
1324.5000;0.1506;0.2551;
1324.8000;0.1481;0.2504;
1325.1000;0.1514;0.2575;
1325.4000;0.1538;0.2623;
1325.7000;0.1506;0.2528;
1326.0000;0.1522;0.2599;
1326.3000;0.1514;0.2599;
1326.6000;0.1506;0.2647;
1326.9000;0.1514;0.2695;
1327.2000;0.1514;0.2671;
1327.5000;0.1490;0.2695;
1327.8000;0.1506;0.2718;
1328.1000;0.1506;0.2790;
1328.4000;0.1506;0.2718;
1328.7000;0.1473;0.2551;
1329.0000;0.1514;0.2623;
1329.3000;0.1498;0.2623;
1329.6000;0.1530;0.2695;
1329.9000;0.1498;0.2551;
1330.2000;0.1514;0.2623;
1330.5000;0.1522;0.2647;
1330.8000;0.1498;0.2528;
1331.1000;0.1514;0.2528;
1331.4000;0.1506;0.2504;
1331.7000;0.1490;0.2528;
1332.0000;0.1498;0.2647;
1332.3000;0.1506;0.2671;
1332.6000;0.1587;0.2909;
1332.9000;0.1506;0.2647;
1333.2000;0.1498;0.2623;
1333.5000;0.1384;0.2408;
1333.8000;0.1506;0.2695;
1334.1000;0.1498;0.2647;
1334.4000;0.1490;0.2623;
1334.7000;0.1506;0.2647;
1335.0000;0.1498;0.2575;
1335.3000;0.1498;0.2551;
1335.6000;0.1514;0.2647;
1335.9000;0.1506;0.2671;
1336.2000;0.1506;0.2528;
1336.5000;0.1506;0.2575;
1336.8000;0.1490;0.2599;
1337.1000;0.1514;0.2671;
1337.4000;0.1522;0.2718;
1337.7000;0.1498;0.2623;
1338.0000;0.1490;0.2575;
1338.3000;0.1514;0.2575;
1338.6000;0.1506;0.2623;
1338.9000;0.1498;0.2671;
1339.2000;0.1498;0.2599;
1339.5000;0.1530;0.2695;
1339.8000;0.1530;0.2718;
1340.1000;0.1449;0.2528;
1340.4000;0.1490;0.2742;
1340.7000;0.1620;0.3052;
1341.0000;0.1498;0.2790;
1341.3000;0.1498;0.2695;
1341.6000;0.1522;0.2695;
1341.9000;0.1514;0.2647;
1342.2000;0.1522;0.2742;
1342.5000;0.1530;0.2623;
1342.8000;0.1555;0.2647;
1343.1000;0.1506;0.2575;
1343.4000;0.1400;0.2408;
1343.7000;0.1498;0.2575;
1344.0000;0.1490;0.2671;
1344.3000;0.1506;0.2718;
1344.6000;0.1514;0.2742;
1344.9000;0.1498;0.2742;
1345.2000;0.1498;0.2695;
1345.5000;0.1506;0.2718;
1345.8000;0.1498;0.2623;
1346.1000;0.1514;0.2647;
1346.4000;0.1506;0.2671;
1346.7000;0.1530;0.2695;
1347.0000;0.1498;0.2671;
1347.3000;0.1506;0.2718;
1347.6000;0.1563;0.2957;
1347.9000;0.1506;0.2838;
1348.2000;0.1498;0.2790;
1348.5000;0.1449;0.2551;
1348.8000;0.1506;0.2718;
1349.1000;0.1506;0.2695;
1349.4000;0.1392;0.2361;
1349.7000;0.1481;0.2695;
1350.0000;0.1433;0.2551;
1350.3000;0.1498;0.2742;
1350.6000;0.1490;0.2766;
1350.9000;0.1490;0.2766;
1351.2000;0.1522;0.2790;
1351.5000;0.1522;0.2814;
1351.8000;0.1490;0.2647;
1352.1000;0.1473;0.2599;
1352.4000;0.1392;0.2408;
1352.7000;0.1498;0.2647;
1353.0000;0.1538;0.2790;
1353.3000;0.1498;0.2695;
1353.6000;0.1522;0.2790;
1353.9000;0.1514;0.2742;
1354.2000;0.1514;0.2766;
1354.5000;0.1506;0.2766;
1354.8000;0.1514;0.2695;
1355.1000;0.1498;0.2695;
1355.4000;0.1498;0.2718;
1355.7000;0.1522;0.2742;
1356.0000;0.1506;0.2695;
1356.3000;0.1498;0.2671;
1356.6000;0.1514;0.2742;
1356.9000;0.1506;0.2766;
1357.2000;0.1506;0.2838;
1357.5000;0.1506;0.2933;
1357.8000;0.1498;0.2885;
1358.1000;0.1498;0.2861;
1358.4000;0.1506;0.2838;
1358.7000;0.1506;0.2814;
1359.0000;0.1587;0.2957;
1359.3000;0.1481;0.2671;
1359.6000;0.1522;0.2671;
1359.9000;0.1481;0.2551;
1360.2000;0.1506;0.2551;
1360.5000;0.1498;0.2599;
1360.8000;0.1514;0.2647;
1361.1000;0.1498;0.2551;
1361.4000;0.1514;0.2551;
1361.7000;0.1498;0.2551;
1362.0000;0.1498;0.2551;
1362.3000;0.1506;0.2695;
1362.6000;0.1498;0.2671;
1362.9000;0.1506;0.2575;
1363.2000;0.1522;0.2599;
1363.5000;0.1530;0.2599;
1363.8000;0.1514;0.2504;
1364.1000;0.1506;0.2528;
1364.4000;0.1506;0.2504;
1364.7000;0.1506;0.2504;
1365.0000;0.1514;0.2504;
1365.3000;0.1514;0.2551;
1365.6000;0.1530;0.2623;
1365.9000;0.1522;0.2575;
1366.2000;0.1498;0.2504;
1366.5000;0.1449;0.2385;
1366.8000;0.1392;0.2194;
1367.1000;0.1506;0.2528;
1367.4000;0.1490;0.2551;
1367.7000;0.1498;0.2599;
1368.0000;0.1490;0.2504;
1368.3000;0.1465;0.2504;
1368.6000;0.1514;0.2551;
1368.9000;0.1506;0.2551;
1369.2000;0.1522;0.2623;
1369.5000;0.1514;0.2551;
1369.8000;0.1522;0.2599;
1370.1000;0.1498;0.2551;
1370.4000;0.1490;0.2456;
1370.7000;0.1522;0.2575;
1371.0000;0.1506;0.2623;
1371.3000;0.1506;0.2647;
1371.6000;0.1473;0.2528;
1371.9000;0.1514;0.2504;
1372.2000;0.1514;0.2480;
1372.5000;0.1481;0.2551;
1372.8000;0.1498;0.2575;
1373.1000;0.1514;0.2695;
1373.4000;0.1514;0.2790;
1373.7000;0.1400;0.2456;
1374.0000;0.1538;0.2766;
1374.3000;0.1457;0.2528;
1374.6000;0.1530;0.2790;
1374.9000;0.1506;0.2695;
1375.2000;0.1506;0.2647;
1375.5000;0.1498;0.2623;
1375.8000;0.1522;0.2695;
1376.1000;0.1506;0.2671;
1376.4000;0.1522;0.2647;
1376.7000;0.1522;0.2647;
1377.0000;0.1473;0.2480;
1377.3000;0.1490;0.2504;
1377.6000;0.1506;0.2456;
1377.9000;0.1441;0.2361;
1378.2000;0.1522;0.2623;
1378.5000;0.1514;0.2671;
1378.8000;0.1490;0.2551;
1379.1000;0.1506;0.2551;
1379.4000;0.1530;0.2695;
1379.7000;0.1506;0.2623;
1380.0000;0.1530;0.2647;
1380.3000;0.1490;0.2551;
1380.6000;0.1465;0.2599;
1380.9000;0.1538;0.2718;
1381.2000;0.1547;0.2647;
1381.5000;0.1530;0.2647;
1381.8000;0.1514;0.2528;
1382.1000;0.1490;0.2480;
1382.4000;0.1449;0.2385;
1382.7000;0.1498;0.2408;
1383.0000;0.1506;0.2385;
1383.3000;0.1514;0.2289;
1383.6000;0.1490;0.2289;
1383.9000;0.1522;0.2408;
1384.2000;0.1490;0.2313;
1384.5000;0.1457;0.2265;
1384.8000;0.1522;0.2432;
1385.1000;0.1530;0.2480;
1385.4000;0.1481;0.2361;
1385.7000;0.1514;0.2480;
1386.0000;0.1530;0.2504;
1386.3000;0.1498;0.2432;
1386.6000;0.1506;0.2599;
1386.9000;0.1498;0.2623;
1387.2000;0.1514;0.2647;
1387.5000;0.1506;0.2599;
1387.8000;0.1514;0.2623;
1388.1000;0.1490;0.2504;
1388.4000;0.1498;0.2528;
1388.7000;0.1506;0.2456;
1389.0000;0.1481;0.2432;
1389.3000;0.1514;0.2551;
1389.6000;0.1530;0.2695;
1389.9000;0.1522;0.2671;
1390.2000;0.1514;0.2647;
1390.5000;0.1506;0.2480;
1390.8000;0.1522;0.2361;
1391.1000;0.1530;0.2385;
1391.4000;0.1530;0.2361;
1391.7000;0.1506;0.2408;
1392.0000;0.1522;0.2385;
1392.3000;0.1514;0.2480;
1392.6000;0.1530;0.2551;
1392.9000;0.1490;0.2528;
1393.2000;0.1498;0.2551;
1393.5000;0.1538;0.2623;
1393.8000;0.1530;0.2528;
1394.1000;0.1522;0.2504;
1394.4000;0.1498;0.2408;
1394.7000;0.1506;0.2480;
1395.0000;0.1514;0.2551;
1395.3000;0.1490;0.2528;
1395.6000;0.1506;0.2480;
1395.9000;0.1498;0.2575;
1396.2000;0.1498;0.2504;
1396.5000;0.1490;0.2528;
1396.8000;0.1506;0.2504;
1397.1000;0.1522;0.2504;
1397.4000;0.1481;0.2432;
1397.7000;0.1530;0.2551;
1398.0000;0.1506;0.2408;
1398.3000;0.1481;0.2432;
1398.6000;0.1490;0.2337;
1398.9000;0.1514;0.2289;
1399.2000;0.1498;0.2241;
1399.5000;0.1514;0.2361;
1399.8000;0.1498;0.2361;
