time/ms;Fluo/V;P700 deltaI/I x10³;
-199.8000;0.1506;0.2575;
-199.5000;0.1506;0.2551;
-199.2000;0.1506;0.2575;
-198.9000;0.1481;0.2480;
-198.6000;0.1490;0.2575;
-198.3000;0.1498;0.2647;
-198.0000;0.1498;0.2623;
-197.7000;0.1490;0.2551;
-197.4000;0.1481;0.2504;
-197.1000;0.1481;0.2480;
-196.8000;0.1506;0.2599;
-196.5000;0.1498;0.2575;
-196.2000;0.1473;0.2408;
-195.9000;0.1587;0.2718;
-195.6000;0.1506;0.2575;
-195.3000;0.1473;0.2504;
-195.0000;0.1522;0.2647;
-194.7000;0.1473;0.2480;
-194.4000;0.1506;0.2551;
-194.1000;0.1498;0.2480;
-193.8000;0.1555;0.2551;
-193.5000;0.1506;0.2456;
-193.2000;0.1571;0.2623;
-192.9000;0.1481;0.2432;
-192.6000;0.1473;0.2408;
-192.3000;0.1433;0.2361;
-192.0000;0.1498;0.2528;
-191.7000;0.1490;0.2599;
-191.4000;0.1473;0.2623;
-191.1000;0.1490;0.2575;
-190.8000;0.1473;0.2575;
-190.5000;0.1498;0.2599;
-190.2000;0.1506;0.2623;
-189.9000;0.1481;0.2575;
-189.6000;0.1538;0.2695;
-189.3000;0.1473;0.2551;
-189.0000;0.1498;0.2695;
-188.7000;0.1498;0.2718;
-188.4000;0.1481;0.2623;
-188.1000;0.1481;0.2599;
-187.8000;0.1465;0.2551;
-187.5000;0.1481;0.2551;
-187.2000;0.1538;0.2814;
-186.9000;0.1490;0.2695;
-186.6000;0.1498;0.2623;
-186.3000;0.1481;0.2671;
-186.0000;0.1473;0.2623;
-185.7000;0.1490;0.2671;
-185.4000;0.1481;0.2647;
-185.1000;0.1506;0.2742;
-184.8000;0.1555;0.2885;
-184.5000;0.1490;0.2671;
-184.2000;0.1490;0.2599;
-183.9000;0.1490;0.2528;
-183.6000;0.1498;0.2599;
-183.3000;0.1498;0.2599;
-183.0000;0.1547;0.2695;
-182.7000;0.1498;0.2504;
-182.4000;0.1498;0.2480;
-182.1000;0.1506;0.2480;
-181.8000;0.1514;0.2504;
-181.5000;0.1506;0.2480;
-181.2000;0.1473;0.2385;
-180.9000;0.1498;0.2528;
-180.6000;0.1481;0.2480;
-180.3000;0.1490;0.2480;
-180.0000;0.1490;0.2480;
-179.7000;0.1481;0.2575;
-179.4000;0.1481;0.2504;
-179.1000;0.1498;0.2528;
-178.8000;0.1498;0.2480;
-178.5000;0.1490;0.2432;
-178.2000;0.1465;0.2408;
-177.9000;0.1498;0.2408;
-177.6000;0.1408;0.2313;
-177.3000;0.1473;0.2528;
-177.0000;0.1465;0.2504;
-176.7000;0.1465;0.2504;
-176.4000;0.1481;0.2528;
-176.1000;0.1473;0.2528;
-175.8000;0.1506;0.2551;
-175.5000;0.1473;0.2456;
-175.2000;0.1481;0.2432;
-174.9000;0.1514;0.2528;
-174.6000;0.1481;0.2480;
-174.3000;0.1506;0.2551;
-174.0000;0.1473;0.2504;
-173.7000;0.1498;0.2551;
-173.4000;0.1506;0.2528;
-173.1000;0.1490;0.2504;
-172.8000;0.1481;0.2456;
-172.5000;0.1481;0.2480;
-172.2000;0.1506;0.2480;
-171.9000;0.1473;0.2408;
-171.6000;0.1457;0.2385;
-171.3000;0.1506;0.2528;
-171.0000;0.1514;0.2599;
-170.7000;0.1481;0.2504;
-170.4000;0.1473;0.2551;
-170.1000;0.1547;0.2742;
-169.8000;0.1522;0.2671;
-169.5000;0.1481;0.2647;
-169.2000;0.1498;0.2718;
-168.9000;0.1498;0.2742;
-168.6000;0.1490;0.2647;
-168.3000;0.1498;0.2647;
-168.0000;0.1498;0.2647;
-167.7000;0.1457;0.2432;
-167.4000;0.1498;0.2504;
-167.1000;0.1368;0.2194;
-166.8000;0.1481;0.2432;
-166.5000;0.1457;0.2361;
-166.2000;0.1457;0.2361;
-165.9000;0.1506;0.2504;
-165.6000;0.1498;0.2551;
-165.3000;0.1530;0.2695;
-165.0000;0.1628;0.2981;
-164.7000;0.1473;0.2599;
-164.4000;0.1506;0.2671;
-164.1000;0.1490;0.2432;
-163.8000;0.1498;0.2504;
-163.5000;0.1481;0.2528;
-163.2000;0.1481;0.2528;
-162.9000;0.1490;0.2575;
-162.6000;0.1481;0.2575;
-162.3000;0.1481;0.2575;
-162.0000;0.1457;0.2432;
-161.7000;0.1490;0.2504;
-161.4000;0.1481;0.2551;
-161.1000;0.1481;0.2456;
-160.8000;0.1490;0.2504;
-160.5000;0.1490;0.2504;
-160.2000;0.1490;0.2480;
-159.9000;0.1408;0.2194;
-159.6000;0.1481;0.2337;
-159.3000;0.1481;0.2265;
-159.0000;0.1481;0.2289;
-158.7000;0.1498;0.2337;
-158.4000;0.1498;0.2385;
-158.1000;0.1498;0.2361;
-157.8000;0.1522;0.2408;
-157.5000;0.1490;0.2313;
-157.2000;0.1481;0.2289;
-156.9000;0.1522;0.2528;
-156.6000;0.1465;0.2361;
-156.3000;0.1465;0.2289;
-156.0000;0.1441;0.2170;
-155.7000;0.1490;0.2265;
-155.4000;0.1490;0.2337;
-155.1000;0.1490;0.2289;
-154.8000;0.1490;0.2218;
-154.5000;0.1473;0.2218;
-154.2000;0.1465;0.2218;
-153.9000;0.1473;0.2241;
-153.6000;0.1498;0.2194;
-153.3000;0.1514;0.2241;
-153.0000;0.1522;0.2265;
-152.7000;0.1490;0.2218;
-152.4000;0.1587;0.2408;
-152.1000;0.1498;0.2122;
-151.8000;0.1506;0.2146;
-151.5000;0.1490;0.2027;
-151.2000;0.1490;0.2075;
-150.9000;0.1481;0.2098;
-150.6000;0.1498;0.2146;
-150.3000;0.1506;0.2146;
-150.0000;0.1506;0.2170;
-149.7000;0.1473;0.2170;
-149.4000;0.1498;0.2194;
-149.1000;0.1481;0.2098;
-148.8000;0.1498;0.2122;
-148.5000;0.1473;0.2051;
-148.2000;0.1481;0.2075;
-147.9000;0.1522;0.2241;
-147.6000;0.1490;0.2075;
-147.3000;0.1481;0.2122;
-147.0000;0.1506;0.2194;
-146.7000;0.1490;0.2194;
-146.4000;0.1481;0.2146;
-146.1000;0.1481;0.2146;
-145.8000;0.1473;0.2146;
-145.5000;0.1506;0.2313;
-145.2000;0.1473;0.2194;
-144.9000;0.1481;0.2289;
-144.6000;0.1498;0.2337;
-144.3000;0.1490;0.2218;
-144.0000;0.1473;0.2194;
-143.7000;0.1498;0.2170;
-143.4000;0.1579;0.2408;
-143.1000;0.1481;0.2098;
-142.8000;0.1490;0.2075;
-142.5000;0.1498;0.2146;
-142.2000;0.1506;0.2170;
-141.9000;0.1490;0.2194;
-141.6000;0.1498;0.2194;
-141.3000;0.1587;0.2504;
-141.0000;0.1425;0.2146;
-140.7000;0.1490;0.2385;
-140.4000;0.1579;0.2671;
-140.1000;0.1481;0.2361;
-139.8000;0.1473;0.2408;
-139.5000;0.1498;0.2432;
-139.2000;0.1490;0.2456;
-138.9000;0.1481;0.2504;
-138.6000;0.1498;0.2432;
-138.3000;0.1498;0.2456;
-138.0000;0.1506;0.2480;
-137.7000;0.1498;0.2623;
-137.4000;0.1506;0.2551;
-137.1000;0.1490;0.2480;
-136.8000;0.1498;0.2408;
-136.5000;0.1490;0.2361;
-136.2000;0.1498;0.2337;
-135.9000;0.1506;0.2313;
-135.6000;0.1481;0.2289;
-135.3000;0.1514;0.2408;
-135.0000;0.1498;0.2385;
-134.7000;0.1490;0.2337;
-134.4000;0.1465;0.2313;
-134.1000;0.1498;0.2337;
-133.8000;0.1498;0.2361;
-133.5000;0.1498;0.2432;
-133.2000;0.1490;0.2408;
-132.9000;0.1506;0.2480;
-132.6000;0.1490;0.2408;
-132.3000;0.1490;0.2480;
-132.0000;0.1538;0.2599;
-131.7000;0.1457;0.2408;
-131.4000;0.1490;0.2528;
-131.1000;0.1490;0.2528;
-130.8000;0.1481;0.2504;
-130.5000;0.1481;0.2432;
-130.2000;0.1457;0.2337;
-129.9000;0.1498;0.2456;
-129.6000;0.1498;0.2480;
-129.3000;0.1490;0.2528;
-129.0000;0.1473;0.2480;
-128.7000;0.1506;0.2504;
-128.4000;0.1490;0.2432;
-128.1000;0.1490;0.2385;
-127.8000;0.1481;0.2313;
-127.5000;0.1481;0.2265;
-127.2000;0.1481;0.2241;
-126.9000;0.1498;0.2241;
-126.6000;0.1481;0.2194;
-126.3000;0.1433;0.2051;
-126.0000;0.1498;0.2218;
-125.7000;0.1498;0.2218;
-125.4000;0.1498;0.2241;
-125.1000;0.1481;0.2218;
-124.8000;0.1506;0.2313;
-124.5000;0.1490;0.2313;
-124.2000;0.1481;0.2337;
-123.9000;0.1490;0.2385;
-123.6000;0.1457;0.2361;
-123.3000;0.1498;0.2480;
-123.0000;0.1481;0.2361;
-122.7000;0.1481;0.2361;
-122.4000;0.1514;0.2480;
-122.1000;0.1498;0.2480;
-121.8000;0.1481;0.2551;
-121.5000;0.1481;0.2623;
-121.2000;0.1490;0.2647;
-120.9000;0.1498;0.2695;
-120.6000;0.1498;0.2695;
-120.3000;0.1490;0.2599;
-120.0000;0.1481;0.2528;
-119.7000;0.1490;0.2408;
-119.4000;0.1514;0.2456;
-119.1000;0.1416;0.2194;
-118.8000;0.1481;0.2408;
-118.5000;0.1473;0.2456;
-118.2000;0.1490;0.2480;
-117.9000;0.1530;0.2504;
-117.6000;0.1481;0.2289;
-117.3000;0.1376;0.2075;
-117.0000;0.1481;0.2385;
-116.7000;0.1490;0.2361;
-116.4000;0.1538;0.2480;
-116.1000;0.1514;0.2361;
-115.8000;0.1490;0.2289;
-115.5000;0.1481;0.2289;
-115.2000;0.1498;0.2361;
-114.9000;0.1473;0.2313;
-114.6000;0.1522;0.2337;
-114.3000;0.1498;0.2385;
-114.0000;0.1441;0.2289;
-113.7000;0.1490;0.2408;
-113.4000;0.1498;0.2432;
-113.1000;0.1498;0.2456;
-112.8000;0.1481;0.2480;
-112.5000;0.1490;0.2456;
-112.2000;0.1473;0.2337;
-111.9000;0.1498;0.2385;
-111.6000;0.1498;0.2408;
-111.3000;0.1498;0.2432;
-111.0000;0.1538;0.2504;
-110.7000;0.1481;0.2337;
-110.4000;0.1481;0.2337;
-110.1000;0.1498;0.2385;
-109.8000;0.1490;0.2313;
-109.5000;0.1522;0.2337;
-109.2000;0.1498;0.2313;
-108.9000;0.1490;0.2194;
-108.6000;0.1433;0.2098;
-108.3000;0.1490;0.2170;
-108.0000;0.1490;0.2098;
-107.7000;0.1506;0.2170;
-107.4000;0.1465;0.2218;
-107.1000;0.1465;0.2241;
-106.8000;0.1408;0.2075;
-106.5000;0.1481;0.2122;
-106.2000;0.1481;0.2122;
-105.9000;0.1481;0.2122;
-105.6000;0.1473;0.2194;
-105.3000;0.1498;0.2170;
-105.0000;0.1490;0.2146;
-104.7000;0.1522;0.2170;
-104.4000;0.1498;0.2122;
-104.1000;0.1514;0.2170;
-103.8000;0.1498;0.2146;
-103.5000;0.1441;0.2003;
-103.2000;0.1481;0.2194;
-102.9000;0.1449;0.2075;
-102.6000;0.1498;0.2194;
-102.3000;0.1506;0.2170;
-102.0000;0.1473;0.2146;
-101.7000;0.1481;0.2170;
-101.4000;0.1498;0.2170;
-101.1000;0.1620;0.2504;
-100.8000;0.1473;0.2075;
-100.5000;0.1481;0.2051;
-100.2000;0.1571;0.2361;
-99.9000;0.1498;0.2170;
-99.6000;0.1481;0.2146;
-99.3000;0.1628;0.2456;
-99.0000;0.1498;0.2098;
-98.7000;0.1490;0.2170;
-98.4000;0.1506;0.2218;
-98.1000;0.1514;0.2289;
-97.8000;0.1498;0.2218;
-97.5000;0.1522;0.2289;
-97.2000;0.1506;0.2337;
-96.9000;0.1441;0.2051;
-96.6000;0.1490;0.2122;
-96.3000;0.1530;0.2170;
-96.0000;0.1498;0.2003;
-95.7000;0.1481;0.2003;
-95.4000;0.1457;0.1908;
-95.1000;0.1547;0.2170;
-94.8000;0.1514;0.2098;
-94.5000;0.1514;0.2146;
-94.2000;0.1473;0.2051;
-93.9000;0.1457;0.2051;
-93.6000;0.1587;0.2385;
-93.3000;0.1490;0.2075;
-93.0000;0.1555;0.2265;
-92.7000;0.1506;0.2146;
-92.4000;0.1490;0.2146;
-92.1000;0.1506;0.2146;
-91.8000;0.1457;0.2122;
-91.5000;0.1498;0.2146;
-91.2000;0.1563;0.2218;
-90.9000;0.1457;0.2003;
-90.6000;0.1473;0.2098;
-90.3000;0.1465;0.2122;
-90.0000;0.1498;0.2122;
-89.7000;0.1490;0.2170;
-89.4000;0.1506;0.2218;
-89.1000;0.1465;0.2075;
-88.8000;0.1490;0.2075;
-88.5000;0.1506;0.2003;
-88.2000;0.1506;0.2098;
-87.9000;0.1481;0.2098;
-87.6000;0.1490;0.2051;
-87.3000;0.1490;0.2051;
-87.0000;0.1490;0.2098;
-86.7000;0.1490;0.2027;
-86.4000;0.1481;0.1955;
-86.1000;0.1481;0.2003;
-85.8000;0.1498;0.2098;
-85.5000;0.1498;0.2146;
-85.2000;0.1473;0.1979;
-84.9000;0.1514;0.2122;
-84.6000;0.1498;0.2098;
-84.3000;0.1506;0.2122;
-84.0000;0.1465;0.2075;
-83.7000;0.1449;0.2003;
-83.4000;0.1514;0.2241;
-83.1000;0.1481;0.2218;
-82.8000;0.1490;0.2098;
-82.5000;0.1514;0.2075;
-82.2000;0.1473;0.2027;
-81.9000;0.1490;0.1979;
-81.6000;0.1490;0.1955;
-81.3000;0.1473;0.1908;
-81.0000;0.1514;0.2027;
-80.7000;0.1490;0.2003;
-80.4000;0.1514;0.2051;
-80.1000;0.1490;0.2003;
-79.8000;0.1481;0.2027;
-79.5000;0.1481;0.2051;
-79.2000;0.1555;0.2218;
-78.9000;0.1571;0.2218;
-78.6000;0.1506;0.2051;
-78.3000;0.1514;0.2194;
-78.0000;0.1498;0.2122;
-77.7000;0.1506;0.2241;
-77.4000;0.1481;0.2146;
-77.1000;0.1490;0.2170;
-76.8000;0.1506;0.2122;
-76.5000;0.1481;0.2003;
-76.2000;0.1522;0.2146;
-75.9000;0.1481;0.1955;
-75.6000;0.1481;0.1979;
-75.3000;0.1465;0.2003;
-75.0000;0.1498;0.2051;
-74.7000;0.1473;0.2003;
-74.4000;0.1498;0.2075;
-74.1000;0.1490;0.2098;
-73.8000;0.1498;0.2027;
-73.5000;0.1449;0.1955;
-73.2000;0.1498;0.2075;
-72.9000;0.1547;0.2098;
-72.6000;0.1522;0.2075;
-72.3000;0.1506;0.2027;
-72.0000;0.1498;0.2051;
-71.7000;0.1530;0.2075;
-71.4000;0.1490;0.1979;
-71.1000;0.1490;0.1836;
-70.8000;0.1506;0.1908;
-70.5000;0.1490;0.1884;
-70.2000;0.1498;0.2003;
-69.9000;0.1498;0.2075;
-69.6000;0.1563;0.2241;
-69.3000;0.1481;0.2051;
-69.0000;0.1530;0.2122;
-68.7000;0.1376;0.1765;
-68.4000;0.1481;0.2027;
-68.1000;0.1571;0.2361;
-67.8000;0.1490;0.2218;
-67.5000;0.1481;0.2075;
-67.2000;0.1498;0.2075;
-66.9000;0.1481;0.1979;
-66.6000;0.1506;0.2122;
-66.3000;0.1506;0.2241;
-66.0000;0.1506;0.2170;
-65.7000;0.1506;0.2122;
-65.4000;0.1506;0.2170;
-65.1000;0.1473;0.2027;
-64.8000;0.1473;0.2051;
-64.5000;0.1490;0.2170;
-64.2000;0.1490;0.2098;
-63.9000;0.1498;0.2098;
-63.6000;0.1441;0.1931;
-63.3000;0.1506;0.2098;
-63.0000;0.1481;0.2075;
-62.7000;0.1498;0.2075;
-62.4000;0.1514;0.2075;
-62.1000;0.1506;0.1931;
-61.8000;0.1481;0.1931;
-61.5000;0.1473;0.1979;
-61.2000;0.1506;0.2146;
-60.9000;0.1481;0.2098;
-60.6000;0.1441;0.2027;
-60.3000;0.1490;0.2146;
-60.0000;0.1457;0.1979;
-59.7000;0.1481;0.2146;
-59.4000;0.1392;0.1884;
-59.1000;0.1571;0.2289;
-58.8000;0.1498;0.2122;
-58.5000;0.1449;0.1955;
-58.2000;0.1481;0.2051;
-57.9000;0.1498;0.2122;
-57.6000;0.1490;0.2146;
-57.3000;0.1530;0.2313;
-57.0000;0.1481;0.2122;
-56.7000;0.1425;0.1931;
-56.4000;0.1481;0.2075;
-56.1000;0.1473;0.2122;
-55.8000;0.1498;0.2194;
-55.5000;0.1481;0.2075;
-55.2000;0.1465;0.2003;
-54.9000;0.1490;0.2027;
-54.6000;0.1498;0.2051;
-54.3000;0.1547;0.2146;
-54.0000;0.1490;0.1979;
-53.7000;0.1498;0.1955;
-53.4000;0.1481;0.2027;
-53.1000;0.1481;0.2170;
-52.8000;0.1538;0.2361;
-52.5000;0.1481;0.2170;
-52.2000;0.1498;0.2194;
-51.9000;0.1538;0.2313;
-51.6000;0.1490;0.2241;
-51.3000;0.1498;0.2313;
-51.0000;0.1481;0.2241;
-50.7000;0.1465;0.2098;
-50.4000;0.1457;0.2122;
-50.1000;0.1481;0.2218;
-49.8000;0.1498;0.2241;
-49.5000;0.1465;0.2170;
-49.2000;0.1473;0.2146;
-48.9000;0.1473;0.2075;
-48.6000;0.1490;0.2146;
-48.3000;0.1481;0.2003;
-48.0000;0.1506;0.2075;
-47.7000;0.1449;0.1931;
-47.4000;0.1465;0.2003;
-47.1000;0.1481;0.2051;
-46.8000;0.1490;0.2122;
-46.5000;0.1481;0.2075;
-46.2000;0.1498;0.2075;
-45.9000;0.1522;0.2218;
-45.6000;0.1473;0.2170;
-45.3000;0.1481;0.2170;
-45.0000;0.1473;0.2075;
-44.7000;0.1522;0.2146;
-44.4000;0.1498;0.2170;
-44.1000;0.1490;0.2146;
-43.8000;0.1481;0.2098;
-43.5000;0.1490;0.2098;
-43.2000;0.1490;0.2122;
-42.9000;0.1490;0.2170;
-42.6000;0.1498;0.2122;
-42.3000;0.1465;0.1979;
-42.0000;0.1498;0.2218;
-41.7000;0.1481;0.2218;
-41.4000;0.1481;0.2146;
-41.1000;0.1498;0.2146;
-40.8000;0.1555;0.2218;
-40.5000;0.1514;0.2027;
-40.2000;0.1490;0.1908;
-39.9000;0.1408;0.1645;
-39.6000;0.1457;0.1908;
-39.3000;0.1498;0.2122;
-39.0000;0.1481;0.2051;
-38.7000;0.1498;0.1979;
-38.4000;0.1490;0.1884;
-38.1000;0.1522;0.1931;
-37.8000;0.1506;0.1955;
-37.5000;0.1547;0.2075;
-37.2000;0.1547;0.2122;
-36.9000;0.1522;0.2027;
-36.6000;0.1490;0.1955;
-36.3000;0.1490;0.2027;
-36.0000;0.1514;0.2075;
-35.7000;0.1498;0.1955;
-35.4000;0.1506;0.2027;
-35.1000;0.1481;0.2027;
-34.8000;0.1481;0.2170;
-34.5000;0.1498;0.2098;
-34.2000;0.1481;0.2075;
-33.9000;0.1530;0.2194;
-33.6000;0.1490;0.2122;
-33.3000;0.1481;0.2098;
-33.0000;0.1473;0.2075;
-32.7000;0.1514;0.2218;
-32.4000;0.1465;0.2098;
-32.1000;0.1490;0.2170;
-31.8000;0.1441;0.2051;
-31.5000;0.1490;0.2146;
-31.2000;0.1498;0.2194;
-30.9000;0.1481;0.2075;
-30.6000;0.1481;0.2003;
-30.3000;0.1506;0.2051;
-30.0000;0.1441;0.2003;
-29.7000;0.1506;0.2218;
-29.4000;0.1514;0.2361;
-29.1000;0.1481;0.2194;
-28.8000;0.1498;0.2170;
-28.5000;0.1498;0.2146;
-28.2000;0.1506;0.2170;
-27.9000;0.1481;0.2003;
-27.6000;0.1506;0.2075;
-27.3000;0.1571;0.2289;
-27.0000;0.1498;0.2146;
-26.7000;0.1498;0.2170;
-26.4000;0.1579;0.2432;
-26.1000;0.1473;0.2218;
-25.8000;0.1490;0.2122;
-25.5000;0.1433;0.2027;
-25.2000;0.1481;0.2122;
-24.9000;0.1514;0.2218;
-24.6000;0.1506;0.2289;
-24.3000;0.1490;0.2241;
-24.0000;0.1498;0.2289;
-23.7000;0.1579;0.2480;
-23.4000;0.1473;0.2170;
-23.1000;0.1457;0.2194;
-22.8000;0.1473;0.2170;
-22.5000;0.1465;0.2170;
-22.2000;0.1506;0.2313;
-21.9000;0.1481;0.2337;
-21.6000;0.1481;0.2241;
-21.3000;0.1481;0.2241;
-21.0000;0.1490;0.2313;
-20.7000;0.1473;0.2289;
-20.4000;0.1449;0.2265;
-20.1000;0.1465;0.2241;
-19.8000;0.1522;0.2385;
-19.5000;0.1473;0.2194;
-19.2000;0.1351;0.1955;
-18.9000;0.1457;0.2241;
-18.6000;0.1473;0.2289;
-18.3000;0.1498;0.2265;
-18.0000;0.1473;0.2122;
-17.7000;0.1490;0.2170;
-17.4000;0.1457;0.2075;
-17.1000;0.1473;0.2051;
-16.8000;0.1506;0.2098;
-16.5000;0.1498;0.2170;
-16.2000;0.1473;0.2170;
-15.9000;0.1490;0.2241;
-15.6000;0.1473;0.2218;
-15.3000;0.1481;0.2265;
-15.0000;0.1481;0.2313;
-14.7000;0.1490;0.2265;
-14.4000;0.1506;0.2265;
-14.1000;0.1343;0.1788;
-13.8000;0.1498;0.2241;
-13.5000;0.1498;0.2241;
-13.2000;0.1465;0.2122;
-12.9000;0.1481;0.2122;
-12.6000;0.1490;0.2146;
-12.3000;0.1490;0.2194;
-12.0000;0.1481;0.2194;
-11.7000;0.1506;0.2265;
-11.4000;0.1490;0.2218;
-11.1000;0.1490;0.2289;
-10.8000;0.1522;0.2432;
-10.5000;0.1506;0.2385;
-10.2000;0.1441;0.2218;
-9.9000;0.1514;0.2456;
-9.6000;0.1522;0.2432;
-9.3000;0.1481;0.2241;
-9.0000;0.1473;0.2194;
-8.7000;0.1490;0.2241;
-8.4000;0.1490;0.2194;
-8.1000;0.1473;0.2146;
-7.8000;0.1498;0.2241;
-7.5000;0.1514;0.2313;
-7.2000;0.1481;0.2265;
-6.9000;0.1473;0.2241;
-6.6000;0.1490;0.2289;
-6.3000;0.1473;0.2313;
-6.0000;0.1498;0.2265;
-5.7000;0.1490;0.2122;
-5.4000;0.1481;0.2170;
-5.1000;0.1490;0.2265;
-4.8000;0.1433;0.2051;
-4.5000;0.1481;0.2146;
-4.2000;0.1490;0.2146;
-3.9000;0.1538;0.2218;
-3.6000;0.1473;0.2098;
-3.3000;0.1392;0.1908;
-3.0000;0.1490;0.2170;
-2.7000;0.1498;0.2170;
-2.4000;0.1530;0.2218;
-2.1000;0.1498;0.2051;
-1.8000;0.1481;0.2051;
-1.5000;0.1595;0.2337;
-1.2000;0.1425;0.2075;
-0.9000;0.1522;0.2241;
-0.6000;0.1481;0.2146;
-0.3000;0.1490;0.2146;
0.0000;0.1490;0.2146;
0.3000;0.1498;0.1955;
0.6000;0.1538;0.2337;
0.9000;0.1506;0.2408;
1.2000;0.1522;0.2575;
1.5000;0.1506;0.2718;
1.8000;0.1530;0.2933;
2.1000;0.1547;0.3052;
2.4000;0.1547;0.3195;
2.7000;0.1579;0.3362;
3.0000;0.1555;0.3386;
3.3000;0.1563;0.3505;
3.6000;0.1579;0.3505;
3.9000;0.1555;0.3505;
4.2000;0.1555;0.3577;
4.5000;0.1563;0.3696;
4.8000;0.1612;0.3863;
5.1000;0.1571;0.3791;
5.4000;0.1547;0.3768;
5.7000;0.1571;0.3887;
6.0000;0.1571;0.3934;
6.3000;0.1498;0.3768;
6.6000;0.1555;0.3934;
6.9000;0.1579;0.3911;
7.2000;0.1555;0.3863;
7.5000;0.1555;0.3887;
7.8000;0.1579;0.3958;
8.1000;0.1481;0.3648;
8.4000;0.1571;0.3863;
8.7000;0.1579;0.3887;
9.0000;0.1595;0.3887;
9.3000;0.1514;0.3720;
9.6000;0.1604;0.3934;
9.9000;0.1563;0.3863;
10.2000;0.1595;0.3911;
10.5000;0.1563;0.3815;
10.8000;0.1571;0.3791;
11.1000;0.1563;0.3791;
11.4000;0.1563;0.3863;
11.7000;0.1481;0.3672;
12.0000;0.1563;0.3911;
12.3000;0.1571;0.3911;
12.6000;0.1481;0.3720;
12.9000;0.1579;0.3958;
13.2000;0.1579;0.3911;
13.5000;0.1563;0.3887;
13.8000;0.1555;0.3791;
14.1000;0.1579;0.3911;
14.4000;0.1579;0.3839;
14.7000;0.1441;0.3553;
15.0000;0.1587;0.3934;
15.3000;0.1571;0.3982;
15.6000;0.1563;0.3887;
15.9000;0.1579;0.3887;
16.2000;0.1514;0.3696;
16.5000;0.1587;0.3887;
16.8000;0.1563;0.3839;
17.1000;0.1571;0.3815;
17.4000;0.1579;0.3887;
17.7000;0.1587;0.3863;
18.0000;0.1538;0.3696;
18.3000;0.1571;0.3768;
18.6000;0.1571;0.3863;
18.9000;0.1555;0.3863;
19.2000;0.1579;0.3911;
19.5000;0.1571;0.3887;
19.8000;0.1571;0.3911;
20.1000;0.1522;0.3791;
20.4000;0.1563;0.3958;
20.7000;0.1587;0.4030;
21.0000;0.1587;0.4054;
21.3000;0.1595;0.4101;
21.6000;0.1506;0.3839;
21.9000;0.1571;0.3982;
22.2000;0.1571;0.4030;
22.5000;0.1587;0.4054;
22.8000;0.1547;0.3958;
23.1000;0.1547;0.3958;
23.4000;0.1579;0.4030;
23.7000;0.1547;0.3911;
24.0000;0.1522;0.3791;
24.3000;0.1587;0.3934;
24.6000;0.1587;0.3887;
24.9000;0.1571;0.3911;
25.2000;0.1579;0.3934;
25.5000;0.1571;0.3934;
25.8000;0.1538;0.3911;
26.1000;0.1571;0.4006;
26.4000;0.1571;0.3982;
26.7000;0.1587;0.3958;
27.0000;0.1595;0.3934;
27.3000;0.1522;0.3696;
27.6000;0.1595;0.3887;
27.9000;0.1571;0.3911;
28.2000;0.1547;0.3934;
28.5000;0.1571;0.4078;
28.8000;0.1547;0.3982;
29.1000;0.1587;0.4054;
29.4000;0.1587;0.4054;
29.7000;0.1563;0.3982;
30.0000;0.1595;0.4078;
30.3000;0.1530;0.3839;
30.6000;0.1555;0.3887;
30.9000;0.1652;0.4101;
31.2000;0.1555;0.3839;
31.5000;0.1628;0.3934;
31.8000;0.1595;0.3911;
32.1000;0.1571;0.3768;
32.4000;0.1587;0.3768;
32.7000;0.1677;0.4030;
33.0000;0.1563;0.3768;
33.3000;0.1579;0.3768;
33.6000;0.1490;0.3529;
33.9000;0.1555;0.3744;
34.2000;0.1595;0.3887;
34.5000;0.1522;0.3672;
34.8000;0.1538;0.3696;
35.1000;0.1571;0.3815;
35.4000;0.1644;0.4054;
35.7000;0.1604;0.3982;
36.0000;0.1595;0.3958;
36.3000;0.1555;0.3863;
36.6000;0.1628;0.4054;
36.9000;0.1579;0.3934;
37.2000;0.1595;0.3958;
37.5000;0.1579;0.3958;
37.8000;0.1514;0.3863;
38.1000;0.1555;0.4054;
38.4000;0.1555;0.3982;
38.7000;0.1555;0.3934;
39.0000;0.1563;0.3863;
39.3000;0.1522;0.3815;
39.6000;0.1530;0.3791;
39.9000;0.1514;0.3720;
40.2000;0.1473;0.3672;
40.5000;0.1563;0.3911;
40.8000;0.1579;0.3911;
41.1000;0.1571;0.3863;
41.4000;0.1506;0.3648;
41.7000;0.1628;0.3982;
42.0000;0.1555;0.3768;
42.3000;0.1571;0.3768;
42.6000;0.1571;0.3744;
42.9000;0.1563;0.3648;
43.2000;0.1579;0.3648;
43.5000;0.1555;0.3672;
43.8000;0.1563;0.3696;
44.1000;0.1571;0.3744;
44.4000;0.1563;0.3791;
44.7000;0.1530;0.3696;
45.0000;0.1587;0.3863;
45.3000;0.1538;0.3696;
45.6000;0.1571;0.3768;
45.9000;0.1547;0.3696;
46.2000;0.1587;0.3815;
46.5000;0.1579;0.3863;
46.8000;0.1563;0.3839;
47.1000;0.1571;0.3887;
47.4000;0.1579;0.3887;
47.7000;0.1587;0.3887;
48.0000;0.1563;0.3863;
48.3000;0.1571;0.3815;
48.6000;0.1587;0.3768;
48.9000;0.1530;0.3624;
49.2000;0.1563;0.3720;
49.5000;0.1579;0.3696;
49.8000;0.1693;0.3982;
50.1000;0.1636;0.3839;
50.4000;0.1571;0.3672;
50.7000;0.1547;0.3744;
51.0000;0.1587;0.3768;
51.3000;0.1563;0.3672;
51.6000;0.1563;0.3791;
51.9000;0.1563;0.3744;
52.2000;0.1579;0.3768;
52.5000;0.1579;0.3791;
52.8000;0.1563;0.3815;
53.1000;0.1538;0.3696;
53.4000;0.1587;0.3768;
53.7000;0.1587;0.3696;
54.0000;0.1612;0.3720;
54.3000;0.1636;0.3768;
54.6000;0.1612;0.3815;
54.9000;0.1628;0.3887;
55.2000;0.1587;0.3744;
55.5000;0.1514;0.3553;
55.8000;0.1604;0.3791;
56.1000;0.1547;0.3624;
56.4000;0.1538;0.3577;
56.7000;0.1612;0.3768;
57.0000;0.1612;0.3839;
57.3000;0.1555;0.3720;
57.6000;0.1579;0.3791;
57.9000;0.1579;0.3791;
58.2000;0.1595;0.3768;
58.5000;0.1563;0.3601;
58.8000;0.1612;0.3768;
59.1000;0.1571;0.3672;
59.4000;0.1579;0.3672;
59.7000;0.1579;0.3648;
60.0000;0.1571;0.3624;
60.3000;0.1571;0.3648;
60.6000;0.1628;0.3839;
60.9000;0.1555;0.3696;
61.2000;0.1563;0.3768;
61.5000;0.1579;0.3839;
61.8000;0.1530;0.3648;
62.1000;0.1514;0.3672;
62.4000;0.1595;0.3839;
62.7000;0.1612;0.3911;
63.0000;0.1579;0.3911;
63.3000;0.1490;0.3624;
63.6000;0.1595;0.3934;
63.9000;0.1457;0.3553;
64.2000;0.1579;0.3887;
64.5000;0.1587;0.3958;
64.8000;0.1571;0.3958;
65.1000;0.1579;0.3958;
65.4000;0.1579;0.3958;
65.7000;0.1595;0.3958;
66.0000;0.1571;0.3934;
66.3000;0.1555;0.3863;
66.6000;0.1555;0.3839;
66.9000;0.1547;0.3863;
67.2000;0.1571;0.3934;
67.5000;0.1547;0.3863;
67.8000;0.1563;0.3911;
68.1000;0.1563;0.3863;
68.4000;0.1522;0.3672;
68.7000;0.1726;0.4173;
69.0000;0.1547;0.3839;
69.3000;0.1579;0.3934;
69.6000;0.1563;0.4006;
69.9000;0.1514;0.3934;
70.2000;0.1563;0.4006;
70.5000;0.1595;0.4030;
70.8000;0.1514;0.3887;
71.1000;0.1571;0.4054;
71.4000;0.1579;0.4125;
71.7000;0.1555;0.4054;
72.0000;0.1620;0.4149;
72.3000;0.1563;0.3934;
72.6000;0.1563;0.3934;
72.9000;0.1604;0.4101;
73.2000;0.1547;0.3958;
73.5000;0.1563;0.4054;
73.8000;0.1563;0.3982;
74.1000;0.1563;0.3958;
74.4000;0.1587;0.3958;
74.7000;0.1604;0.3958;
75.0000;0.1604;0.3982;
75.3000;0.1579;0.3982;
75.6000;0.1579;0.4006;
75.9000;0.1595;0.4054;
76.2000;0.1587;0.4054;
76.5000;0.1538;0.3982;
76.8000;0.1579;0.4173;
77.1000;0.1563;0.4078;
77.4000;0.1555;0.3982;
77.7000;0.1563;0.4006;
78.0000;0.1579;0.4006;
78.3000;0.1579;0.4030;
78.6000;0.1563;0.4030;
78.9000;0.1547;0.3982;
79.2000;0.1563;0.4030;
79.5000;0.1579;0.4006;
79.8000;0.1555;0.3982;
80.1000;0.1555;0.3958;
80.4000;0.1563;0.3982;
80.7000;0.1530;0.3887;
81.0000;0.1587;0.3911;
81.3000;0.1563;0.3887;
81.6000;0.1481;0.3648;
81.9000;0.1506;0.3672;
82.2000;0.1579;0.3815;
82.5000;0.1587;0.3863;
82.8000;0.1514;0.3720;
83.1000;0.1579;0.3815;
83.4000;0.1514;0.3648;
83.7000;0.1579;0.3887;
84.0000;0.1571;0.3887;
84.3000;0.1433;0.3529;
84.6000;0.1571;0.3887;
84.9000;0.1555;0.3887;
85.2000;0.1563;0.3934;
85.5000;0.1579;0.3958;
85.8000;0.1604;0.3982;
86.1000;0.1506;0.3791;
86.4000;0.1595;0.3934;
86.7000;0.1555;0.3839;
87.0000;0.1726;0.4292;
87.3000;0.1571;0.3839;
87.6000;0.1571;0.3839;
87.9000;0.1425;0.3291;
88.2000;0.1514;0.3577;
88.5000;0.1579;0.3672;
88.8000;0.1604;0.3768;
89.1000;0.1587;0.3768;
89.4000;0.1571;0.3744;
89.7000;0.1498;0.3529;
90.0000;0.1652;0.3863;
90.3000;0.1571;0.3768;
90.6000;0.1587;0.3791;
90.9000;0.1555;0.3720;
91.2000;0.1579;0.3839;
91.5000;0.1506;0.3505;
91.8000;0.1595;0.3791;
92.1000;0.1563;0.3744;
92.4000;0.1563;0.3791;
92.7000;0.1669;0.4054;
93.0000;0.1595;0.3839;
93.3000;0.1587;0.3958;
93.6000;0.1595;0.4006;
93.9000;0.1563;0.3887;
94.2000;0.1563;0.3839;
94.5000;0.1563;0.3863;
94.8000;0.1547;0.3887;
95.1000;0.1563;0.3863;
95.4000;0.1579;0.3839;
95.7000;0.1563;0.3839;
96.0000;0.1555;0.3791;
96.3000;0.1563;0.3815;
96.6000;0.1555;0.3815;
96.9000;0.1547;0.3744;
97.2000;0.1563;0.3791;
97.5000;0.1555;0.3791;
97.8000;0.1628;0.3934;
98.1000;0.1473;0.3458;
98.4000;0.1563;0.3791;
98.7000;0.1587;0.3791;
99.0000;0.1547;0.3768;
99.3000;0.1571;0.3815;
99.6000;0.1563;0.3791;
99.9000;0.1555;0.3839;
100.2000;0.1571;0.3791;
100.5000;0.1563;0.3696;
100.8000;0.1555;0.3601;
101.1000;0.1571;0.3648;
101.4000;0.1612;0.3744;
101.7000;0.1563;0.3672;
102.0000;0.1579;0.3720;
102.3000;0.1595;0.3768;
102.6000;0.1571;0.3696;
102.9000;0.1555;0.3720;
103.2000;0.1587;0.3696;
103.5000;0.1579;0.3744;
103.8000;0.1538;0.3720;
104.1000;0.1555;0.3720;
104.4000;0.1579;0.3696;
104.7000;0.1547;0.3577;
105.0000;0.1547;0.3529;
105.3000;0.1522;0.3338;
105.6000;0.1563;0.3481;
105.9000;0.1579;0.3624;
106.2000;0.1547;0.3529;
106.5000;0.1538;0.3481;
106.8000;0.1571;0.3624;
107.1000;0.1563;0.3577;
107.4000;0.1571;0.3577;
107.7000;0.1547;0.3553;
108.0000;0.1587;0.3696;
108.3000;0.1563;0.3672;
108.6000;0.1579;0.3791;
108.9000;0.1579;0.3744;
109.2000;0.1579;0.3768;
109.5000;0.1555;0.3768;
109.8000;0.1571;0.3815;
110.1000;0.1571;0.3815;
110.4000;0.1555;0.3815;
110.7000;0.1538;0.3815;
111.0000;0.1579;0.3911;
111.3000;0.1571;0.3839;
111.6000;0.1571;0.3887;
111.9000;0.1506;0.3720;
112.2000;0.1563;0.3791;
112.5000;0.1571;0.3839;
112.8000;0.1783;0.4435;
113.1000;0.1669;0.4125;
113.4000;0.1555;0.3815;
113.7000;0.1604;0.3911;
114.0000;0.1587;0.3863;
114.3000;0.1555;0.3815;
114.6000;0.1620;0.3839;
114.9000;0.1587;0.3863;
115.2000;0.1571;0.3791;
115.5000;0.1587;0.3863;
115.8000;0.1571;0.3863;
116.1000;0.1555;0.3887;
116.4000;0.1636;0.4101;
116.7000;0.1571;0.3887;
117.0000;0.1579;0.3934;
117.3000;0.1538;0.3791;
117.6000;0.1636;0.4030;
117.9000;0.1555;0.3815;
118.2000;0.1587;0.3934;
118.5000;0.1522;0.3815;
118.8000;0.1563;0.3815;
119.1000;0.1555;0.3815;
119.4000;0.1522;0.3744;
119.7000;0.1563;0.3744;
120.0000;0.1563;0.3839;
120.3000;0.1538;0.3744;
120.6000;0.1555;0.3768;
120.9000;0.1563;0.3744;
121.2000;0.1538;0.3648;
121.5000;0.1547;0.3720;
121.8000;0.1563;0.3720;
122.1000;0.1587;0.3791;
122.4000;0.1571;0.3720;
122.7000;0.1555;0.3744;
123.0000;0.1555;0.3768;
123.3000;0.1571;0.3839;
123.6000;0.1579;0.3911;
123.9000;0.1563;0.3863;
124.2000;0.1587;0.3958;
124.5000;0.1604;0.4054;
124.8000;0.1636;0.4197;
125.1000;0.1555;0.3934;
125.4000;0.1555;0.3958;
125.7000;0.1563;0.3982;
126.0000;0.1571;0.4006;
126.3000;0.1547;0.3887;
126.6000;0.1481;0.3529;
126.9000;0.1571;0.3815;
127.2000;0.1522;0.3696;
127.5000;0.1555;0.3744;
127.8000;0.1579;0.3839;
128.1000;0.1530;0.3744;
128.4000;0.1579;0.3911;
128.7000;0.1563;0.3863;
129.0000;0.1547;0.3791;
129.3000;0.1579;0.3863;
129.6000;0.1563;0.3839;
129.9000;0.1579;0.3934;
130.2000;0.1563;0.3863;
130.5000;0.1547;0.3863;
130.8000;0.1563;0.3815;
131.1000;0.1563;0.3863;
131.4000;0.1571;0.3815;
131.7000;0.1563;0.3720;
132.0000;0.1571;0.3744;
132.3000;0.1563;0.3839;
132.6000;0.1555;0.3863;
132.9000;0.1563;0.3815;
133.2000;0.1571;0.3791;
133.5000;0.1571;0.3720;
133.8000;0.1612;0.3887;
134.1000;0.1579;0.3863;
134.4000;0.1571;0.3744;
134.7000;0.1547;0.3720;
135.0000;0.1587;0.3863;
135.3000;0.1571;0.3887;
135.6000;0.1571;0.3839;
135.9000;0.1547;0.3791;
136.2000;0.1563;0.3839;
136.5000;0.1563;0.3863;
136.8000;0.1571;0.3863;
137.1000;0.1547;0.3863;
137.4000;0.1587;0.3982;
137.7000;0.1555;0.3911;
138.0000;0.1579;0.3911;
138.3000;0.1587;0.3911;
138.6000;0.1563;0.3911;
138.9000;0.1604;0.3934;
139.2000;0.1563;0.3839;
139.5000;0.1547;0.3791;
139.8000;0.1571;0.3887;
140.1000;0.1563;0.3815;
140.4000;0.1571;0.3839;
140.7000;0.1563;0.3887;
141.0000;0.1587;0.3982;
141.3000;0.1587;0.4054;
141.6000;0.1644;0.4268;
141.9000;0.1579;0.4078;
142.2000;0.1555;0.4078;
142.5000;0.1563;0.3911;
142.8000;0.1571;0.3887;
143.1000;0.1563;0.3815;
143.4000;0.1571;0.3768;
143.7000;0.1604;0.3791;
144.0000;0.1563;0.3720;
144.3000;0.1587;0.3815;
144.6000;0.1563;0.3744;
144.9000;0.1604;0.3887;
145.2000;0.1506;0.3696;
145.5000;0.1555;0.3934;
145.8000;0.1547;0.3982;
146.1000;0.1563;0.4030;
146.4000;0.1579;0.4054;
146.7000;0.1571;0.4078;
147.0000;0.1604;0.4197;
147.3000;0.1563;0.4006;
147.6000;0.1571;0.4125;
147.9000;0.1579;0.4197;
148.2000;0.1612;0.4197;
148.5000;0.1571;0.3982;
148.8000;0.1555;0.3958;
149.1000;0.1587;0.3934;
149.4000;0.1555;0.3863;
149.7000;0.1538;0.3744;
150.0000;0.1579;0.3791;
150.3000;0.1522;0.3648;
150.6000;0.1514;0.3648;
150.9000;0.1595;0.3887;
151.2000;0.1514;0.3672;
151.5000;0.1368;0.3243;
151.8000;0.1587;0.3839;
152.1000;0.1563;0.3839;
152.4000;0.1571;0.3863;
152.7000;0.1555;0.3768;
153.0000;0.1571;0.3839;
153.3000;0.1514;0.3648;
153.6000;0.1498;0.3672;
153.9000;0.1604;0.3911;
154.2000;0.1612;0.3934;
154.5000;0.1547;0.3744;
154.8000;0.1547;0.3744;
155.1000;0.1547;0.3744;
155.4000;0.1547;0.3744;
155.7000;0.1628;0.3982;
156.0000;0.1555;0.3863;
156.3000;0.1555;0.3815;
156.6000;0.1620;0.3958;
156.9000;0.1587;0.3791;
157.2000;0.1563;0.3768;
157.5000;0.1563;0.3720;
157.8000;0.1563;0.3791;
158.1000;0.1522;0.3624;
158.4000;0.1547;0.3744;
158.7000;0.1538;0.3648;
159.0000;0.1563;0.3815;
159.3000;0.1563;0.3934;
159.6000;0.1563;0.3911;
159.9000;0.1506;0.3768;
160.2000;0.1538;0.3791;
160.5000;0.1563;0.3863;
160.8000;0.1563;0.3911;
161.1000;0.1555;0.3839;
161.4000;0.1555;0.3911;
161.7000;0.1555;0.3839;
162.0000;0.1579;0.3887;
162.3000;0.1579;0.3839;
162.6000;0.1579;0.3863;
162.9000;0.1571;0.3839;
163.2000;0.1514;0.3672;
163.5000;0.1555;0.3863;
163.8000;0.1563;0.3887;
164.1000;0.1563;0.3863;
164.4000;0.1563;0.3791;
164.7000;0.1571;0.3839;
165.0000;0.1579;0.3887;
165.3000;0.1579;0.3934;
165.6000;0.1563;0.3934;
165.9000;0.1514;0.3815;
166.2000;0.1669;0.4173;
166.5000;0.1587;0.3934;
166.8000;0.1490;0.3672;
167.1000;0.1563;0.3911;
167.4000;0.1587;0.3958;
167.7000;0.1563;0.3934;
168.0000;0.1555;0.3911;
168.3000;0.1571;0.3863;
168.6000;0.1571;0.3863;
168.9000;0.1579;0.3768;
169.2000;0.1555;0.3624;
169.5000;0.1555;0.3672;
169.8000;0.1587;0.3791;
170.1000;0.1571;0.3768;
170.4000;0.1587;0.3768;
170.7000;0.1571;0.3696;
171.0000;0.1555;0.3648;
171.3000;0.1555;0.3648;
171.6000;0.1579;0.3744;
171.9000;0.1587;0.3768;
172.2000;0.1571;0.3696;
172.5000;0.1571;0.3648;
172.8000;0.1571;0.3672;
173.1000;0.1571;0.3672;
173.4000;0.1571;0.3720;
173.7000;0.1579;0.3744;
174.0000;0.1579;0.3720;
174.3000;0.1652;0.3887;
174.6000;0.1522;0.3553;
174.9000;0.1571;0.3720;
175.2000;0.1563;0.3744;
175.5000;0.1571;0.3815;
175.8000;0.1555;0.3744;
176.1000;0.1571;0.3791;
176.4000;0.1701;0.4030;
176.7000;0.1555;0.3720;
177.0000;0.1563;0.3791;
177.3000;0.1498;0.3601;
177.6000;0.1563;0.3768;
177.9000;0.1579;0.3744;
178.2000;0.1579;0.3815;
178.5000;0.1547;0.3768;
178.8000;0.1579;0.3887;
179.1000;0.1636;0.4030;
179.4000;0.1538;0.3744;
179.7000;0.1644;0.4030;
180.0000;0.1571;0.3815;
180.3000;0.1555;0.3768;
180.6000;0.1579;0.3815;
180.9000;0.1563;0.3696;
181.2000;0.1498;0.3434;
181.5000;0.1563;0.3553;
181.8000;0.1563;0.3672;
182.1000;0.1555;0.3720;
182.4000;0.1547;0.3744;
182.7000;0.1563;0.3839;
183.0000;0.1555;0.3791;
183.3000;0.1555;0.3815;
183.6000;0.1571;0.3839;
183.9000;0.1563;0.3791;
184.2000;0.1571;0.3839;
184.5000;0.1563;0.3863;
184.8000;0.1571;0.3911;
185.1000;0.1587;0.3982;
185.4000;0.1538;0.3863;
185.7000;0.1571;0.3934;
186.0000;0.1563;0.3934;
186.3000;0.1538;0.3815;
186.6000;0.1555;0.3934;
186.9000;0.1587;0.3982;
187.2000;0.1563;0.3839;
187.5000;0.1555;0.3791;
187.8000;0.1709;0.4078;
188.1000;0.1563;0.3696;
188.4000;0.1563;0.3624;
188.7000;0.1563;0.3672;
189.0000;0.1563;0.3696;
189.3000;0.1514;0.3624;
189.6000;0.1595;0.3768;
189.9000;0.1587;0.3839;
190.2000;0.1571;0.3815;
190.5000;0.1579;0.3815;
190.8000;0.1620;0.4030;
191.1000;0.1595;0.3863;
191.4000;0.1530;0.3720;
191.7000;0.1563;0.3863;
192.0000;0.1571;0.3863;
192.3000;0.1571;0.3887;
192.6000;0.1563;0.3815;
192.9000;0.1571;0.3887;
193.2000;0.1563;0.3887;
193.5000;0.1547;0.3839;
193.8000;0.1563;0.3839;
194.1000;0.1563;0.3839;
194.4000;0.1555;0.3887;
194.7000;0.1563;0.3982;
195.0000;0.1547;0.4006;
195.3000;0.1563;0.4030;
195.6000;0.1555;0.4030;
195.9000;0.1571;0.4030;
196.2000;0.1555;0.3887;
196.5000;0.1571;0.3958;
196.8000;0.1571;0.3958;
197.1000;0.1677;0.4149;
197.4000;0.1522;0.3768;
197.7000;0.1555;0.3839;
198.0000;0.1563;0.3934;
198.3000;0.1514;0.3744;
198.6000;0.1563;0.3911;
198.9000;0.1538;0.3791;
199.2000;0.1563;0.3839;
199.5000;0.1530;0.3744;
199.8000;0.1555;0.3815;
200.1000;0.1571;0.3934;
200.4000;0.1563;0.3958;
200.7000;0.1538;0.3839;
201.0000;0.1571;0.3934;
201.3000;0.1563;0.3934;
201.6000;0.1473;0.3624;
201.9000;0.1587;0.3934;
202.2000;0.1563;0.3982;
202.5000;0.1579;0.3958;
202.8000;0.1490;0.3720;
203.1000;0.1547;0.3911;
203.4000;0.1555;0.3887;
203.7000;0.1571;0.3934;
204.0000;0.1620;0.4030;
204.3000;0.1506;0.3744;
204.6000;0.1563;0.3839;
204.9000;0.1579;0.3887;
205.2000;0.1481;0.3672;
205.5000;0.1595;0.3887;
205.8000;0.1530;0.3791;
206.1000;0.1563;0.3791;
206.4000;0.1587;0.3863;
206.7000;0.1604;0.3911;
207.0000;0.1498;0.3624;
207.3000;0.1628;0.3911;
207.6000;0.1571;0.3744;
207.9000;0.1571;0.3720;
208.2000;0.1563;0.3672;
208.5000;0.1555;0.3601;
208.8000;0.1571;0.3696;
209.1000;0.1547;0.3696;
209.4000;0.1579;0.3720;
209.7000;0.1555;0.3624;
210.0000;0.1530;0.3624;
210.3000;0.1563;0.3768;
210.6000;0.1555;0.3815;
210.9000;0.1547;0.3863;
211.2000;0.1498;0.3720;
211.5000;0.1587;0.4006;
211.8000;0.1555;0.3887;
212.1000;0.1555;0.3863;
212.4000;0.1555;0.3839;
212.7000;0.1563;0.3911;
213.0000;0.1555;0.3839;
213.3000;0.1579;0.3839;
213.6000;0.1571;0.3791;
213.9000;0.1579;0.3911;
214.2000;0.1538;0.3839;
214.5000;0.1677;0.4292;
214.8000;0.1595;0.4054;
215.1000;0.1547;0.4054;
215.4000;0.1555;0.4054;
215.7000;0.1571;0.4125;
216.0000;0.1571;0.4054;
216.3000;0.1652;0.4340;
216.6000;0.1563;0.4054;
216.9000;0.1481;0.3744;
217.2000;0.1547;0.3863;
217.5000;0.1555;0.3887;
217.8000;0.1563;0.3958;
218.1000;0.1555;0.4101;
218.4000;0.1563;0.4173;
218.7000;0.1571;0.4221;
219.0000;0.1612;0.4268;
219.3000;0.1571;0.4173;
219.6000;0.1563;0.4101;
219.9000;0.1555;0.4054;
220.2000;0.1563;0.4149;
220.5000;0.1563;0.4221;
220.8000;0.1498;0.4101;
221.1000;0.1547;0.4149;
221.4000;0.1547;0.4173;
221.7000;0.1571;0.4173;
222.0000;0.1579;0.4125;
222.3000;0.1571;0.4054;
222.6000;0.1563;0.4006;
222.9000;0.1522;0.3863;
223.2000;0.1587;0.3982;
223.5000;0.1563;0.3791;
223.8000;0.1563;0.3839;
224.1000;0.1587;0.3863;
224.4000;0.1563;0.3863;
224.7000;0.1579;0.3911;
225.0000;0.1571;0.3934;
225.3000;0.1571;0.4030;
225.6000;0.1579;0.4006;
225.9000;0.1595;0.4078;
226.2000;0.1685;0.4340;
226.5000;0.1579;0.3982;
226.8000;0.1563;0.3934;
227.1000;0.1563;0.3911;
227.4000;0.1636;0.4078;
227.7000;0.1498;0.3672;
228.0000;0.1571;0.3791;
228.3000;0.1571;0.3720;
228.6000;0.1555;0.3744;
228.9000;0.1530;0.3672;
229.2000;0.1579;0.3744;
229.5000;0.1571;0.3815;
229.8000;0.1563;0.3815;
230.1000;0.1555;0.3768;
230.4000;0.1563;0.3768;
230.7000;0.1563;0.3791;
231.0000;0.1563;0.3839;
231.3000;0.1563;0.3911;
231.6000;0.1555;0.3863;
231.9000;0.1555;0.3863;
232.2000;0.1571;0.3934;
232.5000;0.1571;0.3982;
232.8000;0.1547;0.3839;
233.1000;0.1571;0.3887;
233.4000;0.1563;0.3815;
233.7000;0.1579;0.3839;
234.0000;0.1563;0.3839;
234.3000;0.1579;0.3887;
234.6000;0.1571;0.3911;
234.9000;0.1563;0.3982;
235.2000;0.1571;0.3958;
235.5000;0.1685;0.4244;
235.8000;0.1571;0.3958;
236.1000;0.1579;0.4006;
236.4000;0.1538;0.3887;
236.7000;0.1555;0.3982;
237.0000;0.1571;0.4006;
237.3000;0.1555;0.3934;
237.6000;0.1555;0.3934;
237.9000;0.1547;0.3887;
238.2000;0.1563;0.3863;
238.5000;0.1571;0.3911;
238.8000;0.1563;0.3958;
239.1000;0.1595;0.4054;
239.4000;0.1563;0.3982;
239.7000;0.1563;0.3958;
240.0000;0.1547;0.3815;
240.3000;0.1604;0.3958;
240.6000;0.1555;0.3839;
240.9000;0.1555;0.3839;
241.2000;0.1555;0.3863;
241.5000;0.1571;0.3887;
241.8000;0.1547;0.3934;
242.1000;0.1547;0.3911;
242.4000;0.1547;0.3839;
242.7000;0.1538;0.3839;
243.0000;0.1571;0.3911;
243.3000;0.1620;0.4078;
243.6000;0.1661;0.4149;
243.9000;0.1587;0.3982;
244.2000;0.1563;0.3815;
244.5000;0.1571;0.3911;
244.8000;0.1563;0.3863;
245.1000;0.1555;0.3887;
245.4000;0.1498;0.3768;
245.7000;0.1563;0.3958;
246.0000;0.1563;0.3958;
246.3000;0.1563;0.3982;
246.6000;0.1661;0.4149;
246.9000;0.1555;0.3887;
247.2000;0.1555;0.3982;
247.5000;0.1669;0.4340;
247.8000;0.1563;0.4030;
248.1000;0.1587;0.4125;
248.4000;0.1563;0.4054;
248.7000;0.1636;0.4340;
249.0000;0.1571;0.4149;
249.3000;0.1571;0.4054;
249.6000;0.1595;0.4054;
249.9000;0.1563;0.4054;
250.2000;0.1595;0.4125;
250.5000;0.1571;0.4054;
250.8000;0.1571;0.4078;
251.1000;0.1604;0.4244;
251.4000;0.1587;0.4173;
251.7000;0.1547;0.4006;
252.0000;0.1563;0.4054;
252.3000;0.1555;0.4054;
252.6000;0.1563;0.4054;
252.9000;0.1579;0.4006;
253.2000;0.1547;0.3863;
253.5000;0.1555;0.3863;
253.8000;0.1571;0.3911;
254.1000;0.1571;0.3958;
254.4000;0.1563;0.3958;
254.7000;0.1579;0.3911;
255.0000;0.1579;0.3982;
255.3000;0.1579;0.4006;
255.6000;0.1563;0.4030;
255.9000;0.1595;0.4149;
256.2000;0.1555;0.4054;
256.5000;0.1579;0.4125;
256.8000;0.1579;0.4149;
257.1000;0.1538;0.4030;
257.4000;0.1563;0.4054;
257.7000;0.1563;0.3982;
258.0000;0.1571;0.3982;
258.3000;0.1555;0.3911;
258.6000;0.1563;0.3911;
258.9000;0.1490;0.3696;
259.2000;0.1604;0.4054;
259.5000;0.1563;0.4006;
259.8000;0.1547;0.4030;
260.1000;0.1571;0.4006;
260.4000;0.1579;0.3982;
260.7000;0.1514;0.3815;
261.0000;0.1563;0.4006;
261.3000;0.1506;0.3839;
261.6000;0.1579;0.3863;
261.9000;0.1555;0.3839;
262.2000;0.1481;0.3672;
262.5000;0.1571;0.3934;
262.8000;0.1563;0.3982;
263.1000;0.1547;0.3911;
263.4000;0.1571;0.3887;
263.7000;0.1579;0.3982;
264.0000;0.1563;0.3863;
264.3000;0.1571;0.3839;
264.6000;0.1571;0.3887;
264.9000;0.1547;0.3839;
265.2000;0.1563;0.3839;
265.5000;0.1571;0.3887;
265.8000;0.1555;0.3863;
266.1000;0.1571;0.3887;
266.4000;0.1522;0.3720;
266.7000;0.1587;0.3911;
267.0000;0.1587;0.3887;
267.3000;0.1571;0.3934;
267.6000;0.1490;0.3672;
267.9000;0.1563;0.3982;
268.2000;0.1587;0.3982;
268.5000;0.1555;0.3815;
268.8000;0.1563;0.3911;
269.1000;0.1571;0.3934;
269.4000;0.1514;0.3863;
269.7000;0.1522;0.3815;
270.0000;0.1563;0.3839;
270.3000;0.1579;0.3887;
270.6000;0.1498;0.3672;
270.9000;0.1563;0.3791;
271.2000;0.1563;0.3768;
271.5000;0.1555;0.3791;
271.8000;0.1595;0.3934;
272.1000;0.1579;0.3911;
272.4000;0.1530;0.3744;
272.7000;0.1563;0.3815;
273.0000;0.1538;0.3720;
273.3000;0.1563;0.3720;
273.6000;0.1522;0.3696;
273.9000;0.1538;0.3791;
274.2000;0.1644;0.3982;
274.5000;0.1522;0.3744;
274.8000;0.1571;0.3863;
275.1000;0.1547;0.3911;
275.4000;0.1538;0.3982;
275.7000;0.1563;0.4006;
276.0000;0.1563;0.4054;
276.3000;0.1563;0.3934;
276.6000;0.1555;0.3839;
276.9000;0.1571;0.3887;
277.2000;0.1604;0.3863;
277.5000;0.1530;0.3720;
277.8000;0.1571;0.3768;
278.1000;0.1547;0.3696;
278.4000;0.1579;0.3791;
278.7000;0.1530;0.3744;
279.0000;0.1547;0.3768;
279.3000;0.1579;0.3863;
279.6000;0.1547;0.3791;
279.9000;0.1563;0.3744;
280.2000;0.1563;0.3696;
280.5000;0.1587;0.3720;
280.8000;0.1538;0.3577;
281.1000;0.1587;0.3696;
281.4000;0.1547;0.3648;
281.7000;0.1595;0.3744;
282.0000;0.1709;0.4006;
282.3000;0.1555;0.3672;
282.6000;0.1604;0.3815;
282.9000;0.1481;0.3505;
283.2000;0.1571;0.3744;
283.5000;0.1441;0.3291;
283.8000;0.1555;0.3577;
284.1000;0.1522;0.3601;
284.4000;0.1563;0.3791;
284.7000;0.1571;0.3815;
285.0000;0.1522;0.3648;
285.3000;0.1571;0.3720;
285.6000;0.1652;0.3958;
285.9000;0.1563;0.3744;
286.2000;0.1579;0.3768;
286.5000;0.1579;0.3815;
286.8000;0.1579;0.3768;
287.1000;0.1571;0.3768;
287.4000;0.1563;0.3768;
287.7000;0.1595;0.3911;
288.0000;0.1563;0.3887;
288.3000;0.1547;0.3839;
288.6000;0.1620;0.4030;
288.9000;0.1579;0.3982;
289.2000;0.1571;0.3934;
289.5000;0.1530;0.3839;
289.8000;0.1571;0.3934;
290.1000;0.1571;0.3887;
290.4000;0.1514;0.3768;
290.7000;0.1547;0.3815;
291.0000;0.1555;0.3887;
291.3000;0.1547;0.3815;
291.6000;0.1587;0.4006;
291.9000;0.1563;0.3887;
292.2000;0.1612;0.4078;
292.5000;0.1579;0.3934;
292.8000;0.1563;0.3887;
293.1000;0.1538;0.3744;
293.4000;0.1579;0.3839;
293.7000;0.1481;0.3624;
294.0000;0.1571;0.3744;
294.3000;0.1498;0.3577;
294.6000;0.1563;0.3696;
294.9000;0.1555;0.3624;
295.2000;0.1661;0.3839;
295.5000;0.1547;0.3648;
295.8000;0.1595;0.3768;
296.1000;0.1563;0.3815;
296.4000;0.1563;0.3791;
296.7000;0.1563;0.3815;
297.0000;0.1579;0.3911;
297.3000;0.1530;0.3791;
297.6000;0.1555;0.3934;
297.9000;0.1587;0.3934;
298.2000;0.1579;0.3934;
298.5000;0.1587;0.3863;
298.8000;0.1604;0.3958;
299.1000;0.1563;0.3911;
299.4000;0.1571;0.3911;
299.7000;0.1620;0.4030;
300.0000;0.1571;0.3887;
300.3000;0.1530;0.3815;
300.6000;0.1555;0.3958;
300.9000;0.1563;0.4006;
301.2000;0.1571;0.4054;
301.5000;0.1571;0.4030;
301.8000;0.1547;0.4006;
302.1000;0.1514;0.3934;
302.4000;0.1571;0.4030;
302.7000;0.1555;0.3982;
303.0000;0.1563;0.3958;
303.3000;0.1587;0.4006;
303.6000;0.1547;0.3839;
303.9000;0.1563;0.3911;
304.2000;0.1563;0.3934;
304.5000;0.1587;0.3982;
304.8000;0.1547;0.3887;
305.1000;0.1563;0.3863;
305.4000;0.1595;0.4006;
305.7000;0.1555;0.3934;
306.0000;0.1620;0.4078;
306.3000;0.1555;0.3911;
306.6000;0.1538;0.3863;
306.9000;0.1579;0.3958;
307.2000;0.1563;0.3863;
307.5000;0.1563;0.3839;
307.8000;0.1547;0.3744;
308.1000;0.1571;0.3744;
308.4000;0.1538;0.3696;
308.7000;0.1579;0.3768;
309.0000;0.1563;0.3744;
309.3000;0.1547;0.3672;
309.6000;0.1563;0.3815;
309.9000;0.1547;0.3768;
310.2000;0.1555;0.3863;
310.5000;0.1571;0.3958;
310.8000;0.1547;0.3982;
311.1000;0.1563;0.4030;
311.4000;0.1563;0.4030;
311.7000;0.1563;0.4030;
312.0000;0.1571;0.4006;
312.3000;0.1547;0.3934;
312.6000;0.1547;0.3863;
312.9000;0.1563;0.3863;
313.2000;0.1555;0.3815;
313.5000;0.1555;0.3791;
313.8000;0.1538;0.3791;
314.1000;0.1425;0.3529;
314.4000;0.1579;0.3863;
314.7000;0.1563;0.3815;
315.0000;0.1604;0.3911;
315.3000;0.1555;0.3744;
315.6000;0.1547;0.3720;
315.9000;0.1547;0.3744;
316.2000;0.1587;0.3839;
316.5000;0.1563;0.3911;
316.8000;0.1498;0.3720;
317.1000;0.1620;0.4054;
317.4000;0.1571;0.3863;
317.7000;0.1563;0.3863;
318.0000;0.1538;0.3911;
318.3000;0.1579;0.4125;
318.6000;0.1555;0.4078;
318.9000;0.1547;0.4006;
319.2000;0.1604;0.4125;
319.5000;0.1571;0.3982;
319.8000;0.1555;0.3791;
320.1000;0.1571;0.3839;
320.4000;0.1571;0.3887;
320.7000;0.1620;0.4030;
321.0000;0.1522;0.3768;
321.3000;0.1555;0.3887;
321.6000;0.1555;0.3887;
321.9000;0.1661;0.4101;
322.2000;0.1547;0.3887;
322.5000;0.1571;0.3934;
322.8000;0.1579;0.3887;
323.1000;0.1425;0.3529;
323.4000;0.1612;0.4125;
323.7000;0.1571;0.3958;
324.0000;0.1555;0.3934;
324.3000;0.1555;0.3958;
324.6000;0.1571;0.3887;
324.9000;0.1563;0.3958;
325.2000;0.1563;0.3958;
325.5000;0.1555;0.3911;
325.8000;0.1538;0.3958;
326.1000;0.1579;0.4054;
326.4000;0.1563;0.3982;
326.7000;0.1555;0.3934;
327.0000;0.1563;0.3958;
327.3000;0.1563;0.3982;
327.6000;0.1571;0.3934;
327.9000;0.1563;0.3911;
328.2000;0.1563;0.3863;
328.5000;0.1571;0.3887;
328.8000;0.1563;0.3887;
329.1000;0.1571;0.3815;
329.4000;0.1547;0.3744;
329.7000;0.1538;0.3720;
330.0000;0.1563;0.3791;
330.3000;0.1555;0.3815;
330.6000;0.1604;0.3934;
330.9000;0.1563;0.3744;
331.2000;0.1555;0.3768;
331.5000;0.1555;0.3791;
331.8000;0.1547;0.3720;
332.1000;0.1538;0.3696;
332.4000;0.1547;0.3744;
332.7000;0.1571;0.3768;
333.0000;0.1579;0.3791;
333.3000;0.1547;0.3696;
333.6000;0.1579;0.3791;
333.9000;0.1555;0.3720;
334.2000;0.1547;0.3744;
334.5000;0.1563;0.3791;
334.8000;0.1579;0.3839;
335.1000;0.1547;0.3720;
335.4000;0.1538;0.3720;
335.7000;0.1579;0.3768;
336.0000;0.1538;0.3696;
336.3000;0.1522;0.3672;
336.6000;0.1571;0.3768;
336.9000;0.1571;0.3768;
337.2000;0.1555;0.3648;
337.5000;0.1563;0.3696;
337.8000;0.1571;0.3791;
338.1000;0.1579;0.3887;
338.4000;0.1612;0.3958;
338.7000;0.1579;0.3839;
339.0000;0.1579;0.3815;
339.3000;0.1587;0.3815;
339.6000;0.1555;0.3744;
339.9000;0.1579;0.3791;
340.2000;0.1571;0.3815;
340.5000;0.1652;0.3982;
340.8000;0.1481;0.3529;
341.1000;0.1563;0.3744;
341.4000;0.1449;0.3505;
341.7000;0.1579;0.3815;
342.0000;0.1587;0.3911;
342.3000;0.1530;0.3815;
342.6000;0.1563;0.3982;
342.9000;0.1652;0.4268;
343.2000;0.1498;0.3911;
343.5000;0.1571;0.4173;
343.8000;0.1530;0.4078;
344.1000;0.1547;0.4149;
344.4000;0.1547;0.4078;
344.7000;0.1620;0.4197;
345.0000;0.1538;0.4149;
345.3000;0.1628;0.4411;
345.6000;0.1563;0.4101;
345.9000;0.1506;0.3887;
346.2000;0.1506;0.3815;
346.5000;0.1555;0.3887;
346.8000;0.1595;0.3982;
347.1000;0.1587;0.3839;
347.4000;0.1563;0.3791;
347.7000;0.1506;0.3601;
348.0000;0.1530;0.3648;
348.3000;0.1587;0.3815;
348.6000;0.1579;0.3839;
348.9000;0.1555;0.3720;
349.2000;0.1571;0.3791;
349.5000;0.1571;0.3768;
349.8000;0.1587;0.3791;
350.1000;0.1563;0.3744;
350.4000;0.1587;0.3839;
350.7000;0.1538;0.3815;
351.0000;0.1579;0.3934;
351.3000;0.1538;0.3815;
351.6000;0.1538;0.3791;
351.9000;0.1571;0.3839;
352.2000;0.1555;0.3791;
352.5000;0.1563;0.3768;
352.8000;0.1555;0.3696;
353.1000;0.1579;0.3791;
353.4000;0.1563;0.3744;
353.7000;0.1571;0.3672;
354.0000;0.1579;0.3696;
354.3000;0.1530;0.3624;
354.6000;0.1514;0.3624;
354.9000;0.1563;0.3839;
355.2000;0.1555;0.3934;
355.5000;0.1547;0.3934;
355.8000;0.1555;0.3958;
356.1000;0.1547;0.4006;
356.4000;0.1563;0.4030;
356.7000;0.1628;0.4149;
357.0000;0.1547;0.3934;
357.3000;0.1563;0.4006;
357.6000;0.1514;0.3863;
357.9000;0.1555;0.4006;
358.2000;0.1555;0.4006;
358.5000;0.1522;0.3958;
358.8000;0.1579;0.4054;
359.1000;0.1555;0.4054;
359.4000;0.1628;0.4197;
359.7000;0.1555;0.4078;
360.0000;0.1595;0.4101;
360.3000;0.1547;0.3958;
360.6000;0.1547;0.3982;
360.9000;0.1538;0.3934;
361.2000;0.1587;0.4030;
361.5000;0.1555;0.3982;
361.8000;0.1547;0.4078;
362.1000;0.1571;0.4101;
362.4000;0.1563;0.4101;
362.7000;0.1514;0.3911;
363.0000;0.1563;0.4030;
363.3000;0.1514;0.3839;
363.6000;0.1563;0.3958;
363.9000;0.1595;0.4078;
364.2000;0.1563;0.4006;
364.5000;0.1587;0.3934;
364.8000;0.1563;0.3839;
365.1000;0.1579;0.3839;
365.4000;0.1530;0.3744;
365.7000;0.1604;0.3982;
366.0000;0.1547;0.3839;
366.3000;0.1579;0.3934;
366.6000;0.1555;0.3863;
366.9000;0.1538;0.3839;
367.2000;0.1547;0.3887;
367.5000;0.1579;0.3934;
367.8000;0.1587;0.3934;
368.1000;0.1579;0.3934;
368.4000;0.1571;0.3934;
368.7000;0.1579;0.3958;
369.0000;0.1555;0.3911;
369.3000;0.1465;0.3672;
369.6000;0.1571;0.3934;
369.9000;0.1555;0.3911;
370.2000;0.1595;0.4125;
370.5000;0.1571;0.4125;
370.8000;0.1547;0.4030;
371.1000;0.1636;0.4173;
371.4000;0.1563;0.3934;
371.7000;0.1547;0.4030;
372.0000;0.1571;0.4149;
372.3000;0.1571;0.4054;
372.6000;0.1538;0.3934;
372.9000;0.1571;0.4006;
373.2000;0.1555;0.3934;
373.5000;0.1555;0.4006;
373.8000;0.1530;0.3958;
374.1000;0.1571;0.4054;
374.4000;0.1555;0.3958;
374.7000;0.1547;0.4006;
375.0000;0.1563;0.3958;
375.3000;0.1571;0.3934;
375.6000;0.1644;0.4101;
375.9000;0.1547;0.3839;
376.2000;0.1547;0.3887;
376.5000;0.1579;0.3887;
376.8000;0.1571;0.3815;
377.1000;0.1555;0.3839;
377.4000;0.1547;0.3839;
377.7000;0.1563;0.3911;
378.0000;0.1538;0.3791;
378.3000;0.1555;0.3768;
378.6000;0.1628;0.3911;
378.9000;0.1555;0.3720;
379.2000;0.1620;0.3911;
379.5000;0.1555;0.3744;
379.8000;0.1595;0.3839;
380.1000;0.1538;0.3672;
380.4000;0.1530;0.3696;
380.7000;0.1538;0.3696;
381.0000;0.1571;0.3768;
381.3000;0.1547;0.3815;
381.6000;0.1547;0.3887;
381.9000;0.1563;0.3958;
382.2000;0.1563;0.3863;
382.5000;0.1604;0.3958;
382.8000;0.1547;0.3720;
383.1000;0.1555;0.3815;
383.4000;0.1522;0.3696;
383.7000;0.1571;0.3911;
384.0000;0.1547;0.3863;
384.3000;0.1571;0.3958;
384.6000;0.1506;0.3863;
384.9000;0.1490;0.3791;
385.2000;0.1538;0.3911;
385.5000;0.1587;0.3887;
385.8000;0.1563;0.3791;
386.1000;0.1547;0.3815;
386.4000;0.1563;0.3815;
386.7000;0.1563;0.3839;
387.0000;0.1563;0.3863;
387.3000;0.1595;0.4006;
387.6000;0.1547;0.3768;
387.9000;0.1571;0.3863;
388.2000;0.1563;0.3911;
388.5000;0.1555;0.3815;
388.8000;0.1522;0.3744;
389.1000;0.1579;0.3791;
389.4000;0.1595;0.3839;
389.7000;0.1538;0.3601;
390.0000;0.1571;0.3720;
390.3000;0.1628;0.3934;
390.6000;0.1571;0.3791;
390.9000;0.1563;0.3911;
391.2000;0.1595;0.4030;
391.5000;0.1587;0.3934;
391.8000;0.1604;0.3958;
392.1000;0.1604;0.4030;
392.4000;0.1490;0.3696;
392.7000;0.1571;0.3863;
393.0000;0.1522;0.3720;
393.3000;0.1563;0.3815;
393.6000;0.1563;0.3791;
393.9000;0.1481;0.3601;
394.2000;0.1530;0.3744;
394.5000;0.1555;0.3768;
394.8000;0.1563;0.3791;
395.1000;0.1604;0.3911;
395.4000;0.1538;0.3720;
395.7000;0.1555;0.3887;
396.0000;0.1571;0.3934;
396.3000;0.1498;0.3839;
396.6000;0.1563;0.3958;
396.9000;0.1538;0.3887;
397.2000;0.1563;0.3863;
397.5000;0.1587;0.3934;
397.8000;0.1555;0.3768;
398.1000;0.1555;0.3744;
398.4000;0.1571;0.3720;
398.7000;0.1587;0.3744;
399.0000;0.1506;0.3553;
399.3000;0.1538;0.3624;
399.6000;0.1538;0.3624;
399.9000;0.1563;0.3696;
400.2000;0.1547;0.3696;
400.5000;0.1555;0.3696;
400.8000;0.1563;0.3720;
401.1000;0.1490;0.3577;
401.4000;0.1555;0.3696;
401.7000;0.1579;0.3768;
402.0000;0.1563;0.3839;
402.3000;0.1547;0.3911;
402.6000;0.1563;0.3958;
402.9000;0.1555;0.3839;
403.2000;0.1547;0.3839;
403.5000;0.1571;0.3958;
403.8000;0.1579;0.3934;
404.1000;0.1563;0.3863;
404.4000;0.1579;0.3958;
404.7000;0.1538;0.3815;
405.0000;0.1563;0.3911;
405.3000;0.1563;0.3863;
405.6000;0.1555;0.3863;
405.9000;0.1547;0.3839;
406.2000;0.1547;0.3982;
406.5000;0.1587;0.3982;
406.8000;0.1563;0.3934;
407.1000;0.1563;0.3815;
407.4000;0.1555;0.3887;
407.7000;0.1571;0.4030;
408.0000;0.1563;0.4006;
408.3000;0.1547;0.3887;
408.6000;0.1498;0.3720;
408.9000;0.1571;0.3839;
409.2000;0.1555;0.3744;
409.5000;0.1604;0.3911;
409.8000;0.1563;0.3839;
410.1000;0.1563;0.3863;
410.4000;0.1498;0.3744;
410.7000;0.1563;0.3887;
411.0000;0.1612;0.4125;
411.3000;0.1522;0.3911;
411.6000;0.1563;0.3982;
411.9000;0.1563;0.3958;
412.2000;0.1563;0.3958;
412.5000;0.1522;0.3815;
412.8000;0.1547;0.3887;
413.1000;0.1563;0.3911;
413.4000;0.1522;0.3768;
413.7000;0.1490;0.3696;
414.0000;0.1628;0.4101;
414.3000;0.1563;0.3982;
414.6000;0.1563;0.4030;
414.9000;0.1636;0.4125;
415.2000;0.1514;0.3815;
415.5000;0.1547;0.3982;
415.8000;0.1620;0.4125;
416.1000;0.1538;0.3934;
416.4000;0.1563;0.3958;
416.7000;0.1555;0.3958;
417.0000;0.1425;0.3601;
417.3000;0.1522;0.3839;
417.6000;0.1538;0.3815;
417.9000;0.1571;0.3911;
418.2000;0.1555;0.3911;
418.5000;0.1563;0.3911;
418.8000;0.1555;0.3934;
419.1000;0.1563;0.3958;
419.4000;0.1555;0.3887;
419.7000;0.1571;0.3958;
420.0000;0.1555;0.3958;
420.3000;0.1555;0.3958;
420.6000;0.1571;0.3911;
420.9000;0.1498;0.3648;
421.2000;0.1530;0.3744;
421.5000;0.1587;0.3863;
421.8000;0.1538;0.3815;
422.1000;0.1547;0.3791;
422.4000;0.1555;0.3791;
422.7000;0.1547;0.3720;
423.0000;0.1555;0.3768;
423.3000;0.1555;0.3815;
423.6000;0.1506;0.3744;
423.9000;0.1538;0.3863;
424.2000;0.1604;0.4030;
424.5000;0.1587;0.4078;
424.8000;0.1555;0.4006;
425.1000;0.1555;0.4054;
425.4000;0.1571;0.4125;
425.7000;0.1547;0.4054;
426.0000;0.1620;0.4173;
426.3000;0.1579;0.4054;
426.6000;0.1498;0.3863;
426.9000;0.1538;0.3863;
427.2000;0.1595;0.3982;
427.5000;0.1555;0.3887;
427.8000;0.1506;0.3696;
428.1000;0.1563;0.3791;
428.4000;0.1547;0.3720;
428.7000;0.1587;0.3839;
429.0000;0.1652;0.3958;
429.3000;0.1604;0.3887;
429.6000;0.1579;0.3815;
429.9000;0.1571;0.3744;
430.2000;0.1620;0.3934;
430.5000;0.1571;0.3768;
430.8000;0.1555;0.3744;
431.1000;0.1547;0.3720;
431.4000;0.1547;0.3768;
431.7000;0.1547;0.3744;
432.0000;0.1555;0.3815;
432.3000;0.1555;0.3887;
432.6000;0.1547;0.3839;
432.9000;0.1571;0.3934;
433.2000;0.1571;0.3887;
433.5000;0.1677;0.4125;
433.8000;0.1538;0.3791;
434.1000;0.1579;0.3791;
434.4000;0.1563;0.3744;
434.7000;0.1555;0.3744;
435.0000;0.1563;0.3839;
435.3000;0.1538;0.3887;
435.6000;0.1538;0.3982;
435.9000;0.1547;0.4006;
436.2000;0.1628;0.4125;
436.5000;0.1555;0.3839;
436.8000;0.1571;0.3958;
437.1000;0.1547;0.3863;
437.4000;0.1563;0.3911;
437.7000;0.1506;0.3768;
438.0000;0.1571;0.3911;
438.3000;0.1555;0.3887;
438.6000;0.1563;0.3887;
438.9000;0.1490;0.3648;
439.2000;0.1587;0.3982;
439.5000;0.1555;0.3863;
439.8000;0.1538;0.3791;
440.1000;0.1579;0.3863;
440.4000;0.1628;0.4054;
440.7000;0.1579;0.3934;
441.0000;0.1498;0.3672;
441.3000;0.1555;0.3768;
441.6000;0.1563;0.3744;
441.9000;0.1563;0.3768;
442.2000;0.1563;0.3768;
442.5000;0.1563;0.3768;
442.8000;0.1547;0.3648;
443.1000;0.1555;0.3648;
443.4000;0.1563;0.3696;
443.7000;0.1563;0.3696;
444.0000;0.1555;0.3648;
444.3000;0.1538;0.3648;
444.6000;0.1522;0.3696;
444.9000;0.1563;0.3720;
445.2000;0.1571;0.3815;
445.5000;0.1587;0.3815;
445.8000;0.1571;0.3839;
446.1000;0.1579;0.3934;
446.4000;0.1595;0.3958;
446.7000;0.1481;0.3601;
447.0000;0.1555;0.3839;
447.3000;0.1563;0.3839;
447.6000;0.1579;0.3887;
447.9000;0.1652;0.4030;
448.2000;0.1571;0.3815;
448.5000;0.1547;0.3768;
448.8000;0.1547;0.3696;
449.1000;0.1547;0.3791;
449.4000;0.1571;0.3815;
449.7000;0.1547;0.3720;
450.0000;0.1587;0.3791;
450.3000;0.1555;0.3720;
450.6000;0.1547;0.3839;
450.9000;0.1555;0.3911;
451.2000;0.1571;0.3982;
451.5000;0.1514;0.3815;
451.8000;0.1563;0.3887;
452.1000;0.1563;0.3934;
452.4000;0.1538;0.3839;
452.7000;0.1530;0.3911;
453.0000;0.1579;0.3958;
453.3000;0.1644;0.4149;
453.6000;0.1547;0.3911;
453.9000;0.1547;0.3863;
454.2000;0.1530;0.3791;
454.5000;0.1571;0.3815;
454.8000;0.1555;0.3744;
455.1000;0.1555;0.3768;
455.4000;0.1563;0.3839;
455.7000;0.1555;0.3887;
456.0000;0.1547;0.3887;
456.3000;0.1547;0.3863;
456.6000;0.1563;0.3934;
456.9000;0.1538;0.3863;
457.2000;0.1547;0.3839;
457.5000;0.1473;0.3601;
457.8000;0.1571;0.3887;
458.1000;0.1563;0.3839;
458.4000;0.1579;0.3863;
458.7000;0.1538;0.3815;
459.0000;0.1547;0.3815;
459.3000;0.1563;0.3815;
459.6000;0.1522;0.3672;
459.9000;0.1555;0.3744;
460.2000;0.1669;0.4030;
460.5000;0.1571;0.3815;
460.8000;0.1530;0.3672;
461.1000;0.1563;0.3768;
461.4000;0.1571;0.3839;
461.7000;0.1595;0.3887;
462.0000;0.1555;0.3720;
462.3000;0.1555;0.3720;
462.6000;0.1547;0.3648;
462.9000;0.1547;0.3672;
463.2000;0.1587;0.3839;
463.5000;0.1563;0.3791;
463.8000;0.1547;0.3720;
464.1000;0.1571;0.3815;
464.4000;0.1628;0.4006;
464.7000;0.1547;0.3744;
465.0000;0.1555;0.3696;
465.3000;0.1530;0.3672;
465.6000;0.1547;0.3624;
465.9000;0.1571;0.3648;
466.2000;0.1538;0.3577;
466.5000;0.1538;0.3577;
466.8000;0.1571;0.3696;
467.1000;0.1555;0.3648;
467.4000;0.1595;0.3863;
467.7000;0.1571;0.3839;
468.0000;0.1538;0.3768;
468.3000;0.1498;0.3672;
468.6000;0.1571;0.3911;
468.9000;0.1563;0.3911;
469.2000;0.1538;0.3815;
469.5000;0.1661;0.4101;
469.8000;0.1563;0.3863;
470.1000;0.1579;0.3887;
470.4000;0.1538;0.3863;
470.7000;0.1571;0.3887;
471.0000;0.1490;0.3744;
471.3000;0.1571;0.3863;
471.6000;0.1563;0.3791;
471.9000;0.1522;0.3744;
472.2000;0.1538;0.3791;
472.5000;0.1620;0.4054;
472.8000;0.1530;0.3696;
473.1000;0.1571;0.3791;
473.4000;0.1547;0.3720;
473.7000;0.1571;0.3839;
474.0000;0.1628;0.4030;
474.3000;0.1571;0.3934;
474.6000;0.1563;0.3863;
474.9000;0.1620;0.4006;
475.2000;0.1579;0.3815;
475.5000;0.1571;0.3744;
475.8000;0.1604;0.3863;
476.1000;0.1555;0.3768;
476.4000;0.1547;0.3744;
476.7000;0.1506;0.3553;
477.0000;0.1571;0.3624;
477.3000;0.1547;0.3529;
477.6000;0.1555;0.3648;
477.9000;0.1604;0.3839;
478.2000;0.1579;0.3815;
478.5000;0.1571;0.3839;
478.8000;0.1587;0.3911;
479.1000;0.1612;0.4030;
479.4000;0.1571;0.4006;
479.7000;0.1587;0.4030;
480.0000;0.1563;0.4006;
480.3000;0.1547;0.3958;
480.6000;0.1571;0.4006;
480.9000;0.1563;0.3934;
481.2000;0.1555;0.3863;
481.5000;0.1538;0.3791;
481.8000;0.1620;0.3934;
482.1000;0.1563;0.3887;
482.4000;0.1604;0.4006;
482.7000;0.1620;0.4054;
483.0000;0.1538;0.3839;
483.3000;0.1628;0.4125;
483.6000;0.1595;0.4030;
483.9000;0.1563;0.3887;
484.2000;0.1555;0.3934;
484.5000;0.1490;0.3815;
484.8000;0.1555;0.4006;
485.1000;0.1571;0.4006;
485.4000;0.1547;0.3958;
485.7000;0.1538;0.3958;
486.0000;0.1538;0.3911;
486.3000;0.1506;0.3720;
486.6000;0.1555;0.3911;
486.9000;0.1441;0.3601;
487.2000;0.1538;0.3791;
487.5000;0.1571;0.3863;
487.8000;0.1555;0.3815;
488.1000;0.1538;0.3839;
488.4000;0.1571;0.3863;
488.7000;0.1530;0.3791;
489.0000;0.1595;0.3958;
489.3000;0.1628;0.4006;
489.6000;0.1563;0.3744;
489.9000;0.1563;0.3672;
490.2000;0.1555;0.3672;
490.5000;0.1595;0.3839;
490.8000;0.1563;0.3839;
491.1000;0.1563;0.3744;
491.4000;0.1538;0.3791;
491.7000;0.1563;0.3863;
492.0000;0.1563;0.3982;
492.3000;0.1563;0.4006;
492.6000;0.1555;0.3934;
492.9000;0.1555;0.4078;
493.2000;0.1563;0.4125;
493.5000;0.1555;0.4030;
493.8000;0.1571;0.4078;
494.1000;0.1514;0.3934;
494.4000;0.1530;0.3911;
494.7000;0.1563;0.3887;
495.0000;0.1555;0.3887;
495.3000;0.1595;0.3982;
495.6000;0.1612;0.4125;
495.9000;0.1579;0.3982;
496.2000;0.1563;0.3934;
496.5000;0.1579;0.3982;
496.8000;0.1587;0.4030;
497.1000;0.1563;0.3958;
497.4000;0.1563;0.4006;
497.7000;0.1514;0.3958;
498.0000;0.1571;0.4030;
498.3000;0.1555;0.3887;
498.6000;0.1555;0.3839;
498.9000;0.1547;0.3815;
499.2000;0.1498;0.3672;
499.5000;0.1571;0.3887;
499.8000;0.1571;0.3911;
500.1000;0.1498;0.3744;
500.4000;0.1563;0.4006;
500.7000;0.1563;0.4030;
501.0000;0.1555;0.4078;
501.3000;0.1563;0.4078;
501.6000;0.1563;0.4101;
501.9000;0.1563;0.4030;
502.2000;0.1579;0.4054;
502.5000;0.1595;0.4006;
502.8000;0.1579;0.3982;
503.1000;0.1498;0.3768;
503.4000;0.1555;0.3958;
503.7000;0.1547;0.3958;
504.0000;0.1514;0.3911;
504.3000;0.1547;0.3982;
504.6000;0.1563;0.4030;
504.9000;0.1547;0.3934;
505.2000;0.1595;0.4125;
505.5000;0.1571;0.4078;
505.8000;0.1563;0.3982;
506.1000;0.1587;0.4030;
506.4000;0.1579;0.3911;
506.7000;0.1571;0.3934;
507.0000;0.1571;0.3911;
507.3000;0.1563;0.3887;
507.6000;0.1547;0.3911;
507.9000;0.1530;0.3768;
508.2000;0.1563;0.3815;
508.5000;0.1555;0.3744;
508.8000;0.1522;0.3601;
509.1000;0.1555;0.3768;
509.4000;0.1555;0.3768;
509.7000;0.1498;0.3672;
510.0000;0.1563;0.3791;
510.3000;0.1425;0.3386;
510.6000;0.1587;0.3744;
510.9000;0.1579;0.3791;
511.2000;0.1555;0.3696;
511.5000;0.1547;0.3815;
511.8000;0.1498;0.3672;
512.1000;0.1490;0.3744;
512.4000;0.1555;0.3911;
512.7000;0.1555;0.3982;
513.0000;0.1579;0.4030;
513.3000;0.1571;0.3982;
513.6000;0.1579;0.4006;
513.9000;0.1563;0.3934;
514.2000;0.1555;0.3863;
514.5000;0.1587;0.3863;
514.8000;0.1563;0.3791;
515.1000;0.1563;0.3768;
515.4000;0.1538;0.3624;
515.7000;0.1457;0.3386;
516.0000;0.1555;0.3624;
516.3000;0.1555;0.3720;
516.6000;0.1620;0.3887;
516.9000;0.1555;0.3791;
517.2000;0.1555;0.3744;
517.5000;0.1425;0.3338;
517.8000;0.1563;0.3648;
518.1000;0.1555;0.3696;
518.4000;0.1612;0.3887;
518.7000;0.1644;0.4006;
519.0000;0.1563;0.3744;
519.3000;0.1604;0.3791;
519.6000;0.1555;0.3720;
519.9000;0.1563;0.3672;
520.2000;0.1547;0.3815;
520.5000;0.1563;0.3839;
520.8000;0.1506;0.3672;
521.1000;0.1571;0.3815;
521.4000;0.1563;0.3839;
521.7000;0.1587;0.3863;
522.0000;0.1555;0.3839;
522.3000;0.1571;0.3934;
522.6000;0.1555;0.3911;
522.9000;0.1555;0.3815;
523.2000;0.1563;0.3791;
523.5000;0.1563;0.3791;
523.8000;0.1563;0.3863;
524.1000;0.1579;0.3982;
524.4000;0.1530;0.3934;
524.7000;0.1538;0.3911;
525.0000;0.1571;0.4030;
525.3000;0.1563;0.3982;
525.6000;0.1530;0.3911;
525.9000;0.1538;0.3863;
526.2000;0.1563;0.3839;
526.5000;0.1538;0.3768;
526.8000;0.1563;0.3815;
527.1000;0.1563;0.3744;
527.4000;0.1538;0.3815;
527.7000;0.1579;0.3934;
528.0000;0.1604;0.4125;
528.3000;0.1547;0.3958;
528.6000;0.1652;0.4268;
528.9000;0.1538;0.4006;
529.2000;0.1457;0.3791;
529.5000;0.1506;0.3863;
529.8000;0.1563;0.3934;
530.1000;0.1563;0.3982;
530.4000;0.1538;0.3863;
530.7000;0.1530;0.3815;
531.0000;0.1547;0.3863;
531.3000;0.1522;0.3791;
531.6000;0.1579;0.3958;
531.9000;0.1579;0.3934;
532.2000;0.1555;0.3768;
532.5000;0.1563;0.3815;
532.8000;0.1490;0.3648;
533.1000;0.1563;0.3863;
533.4000;0.1555;0.3887;
533.7000;0.1644;0.4221;
534.0000;0.1538;0.3887;
534.3000;0.1636;0.4149;
534.6000;0.1555;0.4006;
534.9000;0.1587;0.4101;
535.2000;0.1522;0.3815;
535.5000;0.1571;0.3839;
535.8000;0.1620;0.3815;
536.1000;0.1547;0.3696;
536.4000;0.1563;0.3648;
536.7000;0.1530;0.3672;
537.0000;0.1563;0.3768;
537.3000;0.1571;0.3839;
537.6000;0.1530;0.3815;
537.9000;0.1563;0.3768;
538.2000;0.1571;0.3839;
538.5000;0.1579;0.3934;
538.8000;0.1571;0.3934;
539.1000;0.1604;0.4030;
539.4000;0.1563;0.3911;
539.7000;0.1587;0.4101;
540.0000;0.1563;0.4078;
540.3000;0.1579;0.4030;
540.6000;0.1563;0.3958;
540.9000;0.1563;0.3911;
541.2000;0.1547;0.3839;
541.5000;0.1547;0.3791;
541.8000;0.1604;0.3982;
542.1000;0.1555;0.3911;
542.4000;0.1587;0.3958;
542.7000;0.1555;0.3911;
543.0000;0.1652;0.4197;
543.3000;0.1538;0.3887;
543.6000;0.1506;0.3815;
543.9000;0.1579;0.3982;
544.2000;0.1555;0.3958;
544.5000;0.1555;0.3911;
544.8000;0.1555;0.3815;
545.1000;0.1547;0.3839;
545.4000;0.1547;0.3887;
545.7000;0.1547;0.3815;
546.0000;0.1555;0.3887;
546.3000;0.1506;0.3791;
546.6000;0.1563;0.3863;
546.9000;0.1555;0.3839;
547.2000;0.1538;0.3744;
547.5000;0.1547;0.3768;
547.8000;0.1563;0.3720;
548.1000;0.1547;0.3696;
548.4000;0.1538;0.3696;
548.7000;0.1693;0.4101;
549.0000;0.1555;0.3863;
549.3000;0.1538;0.3863;
549.6000;0.1547;0.3887;
549.9000;0.1604;0.3982;
550.2000;0.1538;0.3815;
550.5000;0.1555;0.3815;
550.8000;0.1563;0.3839;
551.1000;0.1555;0.3839;
551.4000;0.1530;0.3744;
551.7000;0.1547;0.3696;
552.0000;0.1547;0.3720;
552.3000;0.1579;0.3720;
552.6000;0.1514;0.3624;
552.9000;0.1547;0.3744;
553.2000;0.1538;0.3720;
553.5000;0.1587;0.3839;
553.8000;0.1563;0.3839;
554.1000;0.1547;0.3768;
554.4000;0.1555;0.3696;
554.7000;0.1595;0.3791;
555.0000;0.1571;0.3696;
555.3000;0.1555;0.3720;
555.6000;0.1498;0.3624;
555.9000;0.1522;0.3624;
556.2000;0.1579;0.3696;
556.5000;0.1579;0.3744;
556.8000;0.1571;0.3744;
557.1000;0.1563;0.3696;
557.4000;0.1555;0.3624;
557.7000;0.1579;0.3672;
558.0000;0.1547;0.3577;
558.3000;0.1555;0.3601;
558.6000;0.1547;0.3553;
558.9000;0.1563;0.3624;
559.2000;0.1547;0.3696;
559.5000;0.1563;0.3791;
559.8000;0.1547;0.3744;
560.1000;0.1563;0.3768;
560.4000;0.1563;0.3720;
560.7000;0.1563;0.3768;
561.0000;0.1563;0.3815;
561.3000;0.1595;0.3863;
561.6000;0.1579;0.3744;
561.9000;0.1538;0.3648;
562.2000;0.1571;0.3672;
562.5000;0.1555;0.3648;
562.8000;0.1563;0.3672;
563.1000;0.1571;0.3696;
563.4000;0.1563;0.3648;
563.7000;0.1547;0.3624;
564.0000;0.1571;0.3768;
564.3000;0.1563;0.3696;
564.6000;0.1563;0.3720;
564.9000;0.1555;0.3696;
565.2000;0.1579;0.3768;
565.5000;0.1571;0.3720;
565.8000;0.1547;0.3601;
566.1000;0.1571;0.3648;
566.4000;0.1595;0.3744;
566.7000;0.1677;0.3958;
567.0000;0.1538;0.3601;
567.3000;0.1538;0.3529;
567.6000;0.1571;0.3648;
567.9000;0.1498;0.3553;
568.2000;0.1555;0.3672;
568.5000;0.1514;0.3553;
568.8000;0.1563;0.3720;
569.1000;0.1571;0.3768;
569.4000;0.1563;0.3815;
569.7000;0.1587;0.3887;
570.0000;0.1563;0.3815;
570.3000;0.1522;0.3672;
570.6000;0.1563;0.3744;
570.9000;0.1563;0.3744;
571.2000;0.1506;0.3601;
571.5000;0.1563;0.3768;
571.8000;0.1416;0.3362;
572.1000;0.1481;0.3553;
572.4000;0.1563;0.3791;
572.7000;0.1563;0.3863;
573.0000;0.1555;0.3839;
573.3000;0.1661;0.4054;
573.6000;0.1538;0.3863;
573.9000;0.1547;0.3934;
574.2000;0.1538;0.3839;
574.5000;0.1530;0.3624;
574.8000;0.1579;0.3624;
575.1000;0.1571;0.3553;
575.4000;0.1571;0.3672;
575.7000;0.1555;0.3696;
576.0000;0.1506;0.3529;
576.3000;0.1473;0.3410;
576.6000;0.1563;0.3553;
576.9000;0.1587;0.3648;
577.2000;0.1571;0.3624;
577.5000;0.1555;0.3601;
577.8000;0.1579;0.3720;
578.1000;0.1547;0.3648;
578.4000;0.1547;0.3672;
578.7000;0.1506;0.3505;
579.0000;0.1595;0.3839;
579.3000;0.1571;0.3839;
579.6000;0.1571;0.3887;
579.9000;0.1481;0.3601;
580.2000;0.1563;0.3791;
580.5000;0.1571;0.3815;
580.8000;0.1628;0.3887;
581.1000;0.1644;0.3982;
581.4000;0.1547;0.3768;
581.7000;0.1628;0.3934;
582.0000;0.1563;0.3768;
582.3000;0.1563;0.3863;
582.6000;0.1563;0.3887;
582.9000;0.1571;0.3744;
583.2000;0.1563;0.3768;
583.5000;0.1563;0.3648;
583.8000;0.1538;0.3553;
584.1000;0.1563;0.3648;
584.4000;0.1563;0.3648;
584.7000;0.1563;0.3648;
585.0000;0.1514;0.3505;
585.3000;0.1563;0.3601;
585.6000;0.1563;0.3601;
585.9000;0.1563;0.3529;
586.2000;0.1555;0.3601;
586.5000;0.1555;0.3624;
586.8000;0.1579;0.3672;
587.1000;0.1563;0.3624;
587.4000;0.1579;0.3648;
587.7000;0.1530;0.3529;
588.0000;0.1555;0.3577;
588.3000;0.1579;0.3601;
588.6000;0.1587;0.3624;
588.9000;0.1579;0.3577;
589.2000;0.1547;0.3553;
589.5000;0.1555;0.3624;
589.8000;0.1555;0.3601;
590.1000;0.1571;0.3624;
590.4000;0.1547;0.3624;
590.7000;0.1530;0.3624;
591.0000;0.1563;0.3624;
591.3000;0.1555;0.3744;
591.6000;0.1555;0.3791;
591.9000;0.1555;0.3672;
592.2000;0.1555;0.3720;
592.5000;0.1547;0.3744;
592.8000;0.1538;0.3744;
593.1000;0.1563;0.3839;
593.4000;0.1571;0.3911;
593.7000;0.1563;0.3911;
594.0000;0.1522;0.3839;
594.3000;0.1701;0.4268;
594.6000;0.1547;0.3791;
594.9000;0.1555;0.3744;
595.2000;0.1530;0.3672;
595.5000;0.1563;0.3768;
595.8000;0.1538;0.3648;
596.1000;0.1571;0.3672;
596.4000;0.1563;0.3696;
596.7000;0.1547;0.3720;
597.0000;0.1555;0.3839;
597.3000;0.1563;0.3815;
597.6000;0.1547;0.3648;
597.9000;0.1563;0.3577;
598.2000;0.1538;0.3529;
598.5000;0.1538;0.3434;
598.8000;0.1555;0.3458;
599.1000;0.1555;0.3410;
599.4000;0.1441;0.3100;
599.7000;0.1555;0.3434;
600.0000;0.1563;0.3553;
600.3000;0.1547;0.3624;
600.6000;0.1538;0.3577;
600.9000;0.1555;0.3577;
601.2000;0.1506;0.3386;
601.5000;0.1555;0.3314;
601.8000;0.1465;0.3076;
602.1000;0.1547;0.3219;
602.4000;0.1530;0.3171;
602.7000;0.1538;0.3124;
603.0000;0.1416;0.2718;
603.3000;0.1490;0.2933;
603.6000;0.1522;0.2933;
603.9000;0.1506;0.2957;
604.2000;0.1506;0.2957;
604.5000;0.1514;0.3005;
604.8000;0.1506;0.2981;
605.1000;0.1522;0.2981;
605.4000;0.1563;0.2957;
605.7000;0.1490;0.2742;
606.0000;0.1481;0.2647;
606.3000;0.1571;0.2766;
606.6000;0.1514;0.2599;
606.9000;0.1490;0.2528;
607.2000;0.1506;0.2504;
607.5000;0.1498;0.2480;
607.8000;0.1490;0.2456;
608.1000;0.1490;0.2385;
608.4000;0.1408;0.2241;
608.7000;0.1490;0.2361;
609.0000;0.1490;0.2337;
609.3000;0.1538;0.2504;
609.6000;0.1498;0.2480;
609.9000;0.1490;0.2480;
610.2000;0.1498;0.2456;
610.5000;0.1498;0.2385;
610.8000;0.1465;0.2385;
611.1000;0.1490;0.2456;
611.4000;0.1514;0.2456;
611.7000;0.1425;0.2218;
612.0000;0.1538;0.2551;
612.3000;0.1481;0.2361;
612.6000;0.1498;0.2408;
612.9000;0.1490;0.2456;
613.2000;0.1481;0.2385;
613.5000;0.1400;0.2194;
613.8000;0.1481;0.2432;
614.1000;0.1473;0.2480;
614.4000;0.1522;0.2599;
614.7000;0.1481;0.2528;
615.0000;0.1473;0.2528;
615.3000;0.1465;0.2408;
615.6000;0.1490;0.2456;
615.9000;0.1473;0.2432;
616.2000;0.1473;0.2408;
616.5000;0.1481;0.2480;
616.8000;0.1498;0.2504;
617.1000;0.1490;0.2385;
617.4000;0.1473;0.2361;
617.7000;0.1490;0.2408;
618.0000;0.1327;0.1955;
618.3000;0.1465;0.2337;
618.6000;0.1490;0.2385;
618.9000;0.1457;0.2313;
619.2000;0.1449;0.2241;
619.5000;0.1465;0.2337;
619.8000;0.1490;0.2361;
620.1000;0.1481;0.2313;
620.4000;0.1473;0.2337;
620.7000;0.1481;0.2313;
621.0000;0.1530;0.2385;
621.3000;0.1555;0.2456;
621.6000;0.1481;0.2313;
621.9000;0.1604;0.2671;
622.2000;0.1473;0.2289;
622.5000;0.1490;0.2337;
622.8000;0.1490;0.2385;
623.1000;0.1490;0.2385;
623.4000;0.1506;0.2432;
623.7000;0.1481;0.2385;
624.0000;0.1408;0.2218;
624.3000;0.1506;0.2504;
624.6000;0.1481;0.2456;
624.9000;0.1473;0.2480;
625.2000;0.1481;0.2408;
625.5000;0.1473;0.2385;
625.8000;0.1433;0.2289;
626.1000;0.1506;0.2528;
626.4000;0.1522;0.2623;
626.7000;0.1441;0.2361;
627.0000;0.1425;0.2361;
627.3000;0.1538;0.2623;
627.6000;0.1473;0.2432;
627.9000;0.1538;0.2551;
628.2000;0.1441;0.2265;
628.5000;0.1441;0.2241;
628.8000;0.1490;0.2361;
629.1000;0.1465;0.2337;
629.4000;0.1433;0.2241;
629.7000;0.1530;0.2480;
630.0000;0.1490;0.2385;
630.3000;0.1473;0.2385;
630.6000;0.1481;0.2408;
630.9000;0.1547;0.2599;
631.2000;0.1498;0.2480;
631.5000;0.1490;0.2456;
631.8000;0.1481;0.2432;
632.1000;0.1481;0.2456;
632.4000;0.1498;0.2575;
632.7000;0.1490;0.2575;
633.0000;0.1490;0.2551;
633.3000;0.1481;0.2551;
633.6000;0.1425;0.2456;
633.9000;0.1481;0.2528;
634.2000;0.1498;0.2480;
634.5000;0.1490;0.2408;
634.8000;0.1473;0.2313;
635.1000;0.1473;0.2337;
635.4000;0.1465;0.2313;
635.7000;0.1490;0.2408;
636.0000;0.1481;0.2480;
636.3000;0.1490;0.2528;
636.6000;0.1514;0.2623;
636.9000;0.1473;0.2480;
637.2000;0.1481;0.2528;
637.5000;0.1555;0.2695;
637.8000;0.1473;0.2480;
638.1000;0.1473;0.2432;
638.4000;0.1457;0.2385;
638.7000;0.1473;0.2432;
639.0000;0.1481;0.2385;
639.3000;0.1473;0.2361;
639.6000;0.1465;0.2313;
639.9000;0.1465;0.2337;
640.2000;0.1465;0.2337;
640.5000;0.1457;0.2385;
640.8000;0.1563;0.2647;
641.1000;0.1481;0.2480;
641.4000;0.1473;0.2408;
641.7000;0.1481;0.2480;
642.0000;0.1465;0.2432;
642.3000;0.1595;0.2838;
642.6000;0.1481;0.2528;
642.9000;0.1490;0.2528;
643.2000;0.1490;0.2623;
643.5000;0.1473;0.2671;
643.8000;0.1457;0.2647;
644.1000;0.1473;0.2671;
644.4000;0.1473;0.2671;
644.7000;0.1465;0.2528;
645.0000;0.1490;0.2551;
645.3000;0.1490;0.2599;
645.6000;0.1498;0.2647;
645.9000;0.1465;0.2599;
646.2000;0.1473;0.2599;
646.5000;0.1490;0.2599;
646.8000;0.1433;0.2480;
647.1000;0.1481;0.2551;
647.4000;0.1384;0.2408;
647.7000;0.1425;0.2528;
648.0000;0.1498;0.2718;
648.3000;0.1481;0.2695;
648.6000;0.1490;0.2575;
648.9000;0.1433;0.2385;
649.2000;0.1498;0.2623;
649.5000;0.1473;0.2575;
649.8000;0.1473;0.2575;
650.1000;0.1473;0.2647;
650.4000;0.1465;0.2480;
650.7000;0.1465;0.2408;
651.0000;0.1465;0.2432;
651.3000;0.1522;0.2551;
651.6000;0.1506;0.2432;
651.9000;0.1457;0.2313;
652.2000;0.1433;0.2170;
652.5000;0.1490;0.2265;
652.8000;0.1506;0.2241;
653.1000;0.1498;0.2265;
653.4000;0.1465;0.2194;
653.7000;0.1465;0.2218;
654.0000;0.1498;0.2313;
654.3000;0.1481;0.2313;
654.6000;0.1481;0.2337;
654.9000;0.1425;0.2122;
655.2000;0.1490;0.2075;
655.5000;0.1481;0.2003;
655.8000;0.1473;0.2051;
656.1000;0.1449;0.2122;
656.4000;0.1465;0.2146;
656.7000;0.1465;0.2218;
657.0000;0.1473;0.2408;
657.3000;0.1449;0.2432;
657.6000;0.1490;0.2432;
657.9000;0.1473;0.2408;
658.2000;0.1473;0.2385;
658.5000;0.1506;0.2456;
658.8000;0.1481;0.2408;
659.1000;0.1465;0.2313;
659.4000;0.1465;0.2313;
659.7000;0.1473;0.2361;
660.0000;0.1449;0.2361;
660.3000;0.1457;0.2385;
660.6000;0.1433;0.2289;
660.9000;0.1481;0.2456;
661.2000;0.1449;0.2361;
661.5000;0.1473;0.2480;
661.8000;0.1449;0.2361;
662.1000;0.1481;0.2361;
662.4000;0.1473;0.2408;
662.7000;0.1473;0.2385;
663.0000;0.1465;0.2289;
663.3000;0.1457;0.2289;
663.6000;0.1481;0.2385;
663.9000;0.1457;0.2289;
664.2000;0.1481;0.2385;
664.5000;0.1490;0.2313;
664.8000;0.1465;0.2289;
665.1000;0.1449;0.2241;
665.4000;0.1481;0.2313;
665.7000;0.1449;0.2289;
666.0000;0.1547;0.2551;
666.3000;0.1425;0.2313;
666.6000;0.1457;0.2385;
666.9000;0.1473;0.2480;
667.2000;0.1368;0.2194;
667.5000;0.1514;0.2480;
667.8000;0.1449;0.2361;
668.1000;0.1530;0.2647;
668.4000;0.1498;0.2575;
668.7000;0.1490;0.2575;
669.0000;0.1457;0.2385;
669.3000;0.1449;0.2408;
669.6000;0.1481;0.2504;
669.9000;0.1457;0.2480;
670.2000;0.1465;0.2480;
670.5000;0.1473;0.2480;
670.8000;0.1498;0.2551;
671.1000;0.1498;0.2504;
671.4000;0.1465;0.2385;
671.7000;0.1449;0.2337;
672.0000;0.1490;0.2432;
672.3000;0.1473;0.2361;
672.6000;0.1457;0.2241;
672.9000;0.1506;0.2313;
673.2000;0.1514;0.2337;
673.5000;0.1473;0.2218;
673.8000;0.1506;0.2313;
674.1000;0.1498;0.2361;
674.4000;0.1473;0.2289;
674.7000;0.1481;0.2265;
675.0000;0.1457;0.2241;
675.3000;0.1522;0.2432;
675.6000;0.1490;0.2313;
675.9000;0.1481;0.2361;
676.2000;0.1473;0.2361;
676.5000;0.1481;0.2385;
676.8000;0.1465;0.2385;
677.1000;0.1465;0.2385;
677.4000;0.1465;0.2504;
677.7000;0.1465;0.2528;
678.0000;0.1481;0.2480;
678.3000;0.1465;0.2528;
678.6000;0.1481;0.2575;
678.9000;0.1449;0.2480;
679.2000;0.1481;0.2623;
679.5000;0.1449;0.2504;
679.8000;0.1473;0.2623;
680.1000;0.1481;0.2623;
680.4000;0.1481;0.2599;
680.7000;0.1481;0.2575;
681.0000;0.1465;0.2528;
681.3000;0.1490;0.2504;
681.6000;0.1587;0.2695;
681.9000;0.1506;0.2432;
682.2000;0.1473;0.2408;
682.5000;0.1465;0.2408;
682.8000;0.1473;0.2337;
683.1000;0.1425;0.2313;
683.4000;0.1473;0.2361;
683.7000;0.1425;0.2337;
684.0000;0.1425;0.2313;
684.3000;0.1465;0.2313;
684.6000;0.1465;0.2313;
684.9000;0.1457;0.2241;
685.2000;0.1465;0.2313;
685.5000;0.1490;0.2337;
685.8000;0.1473;0.2218;
686.1000;0.1433;0.2122;
686.4000;0.1498;0.2265;
686.7000;0.1457;0.2146;
687.0000;0.1433;0.2098;
687.3000;0.1490;0.2313;
687.6000;0.1473;0.2241;
687.9000;0.1465;0.2194;
688.2000;0.1441;0.2051;
688.5000;0.1465;0.2146;
688.8000;0.1506;0.2170;
689.1000;0.1441;0.2098;
689.4000;0.1481;0.2218;
689.7000;0.1465;0.2051;
690.0000;0.1473;0.2122;
690.3000;0.1538;0.2241;
690.6000;0.1481;0.2122;
690.9000;0.1449;0.2027;
691.2000;0.1465;0.2051;
691.5000;0.1441;0.1955;
691.8000;0.1465;0.2170;
692.1000;0.1465;0.2170;
692.4000;0.1465;0.2122;
692.7000;0.1498;0.2218;
693.0000;0.1473;0.2170;
693.3000;0.1473;0.2265;
693.6000;0.1465;0.2313;
693.9000;0.1490;0.2361;
694.2000;0.1481;0.2289;
694.5000;0.1449;0.2194;
694.8000;0.1465;0.2337;
695.1000;0.1490;0.2432;
695.4000;0.1473;0.2385;
695.7000;0.1490;0.2361;
696.0000;0.1376;0.2003;
696.3000;0.1473;0.2241;
696.6000;0.1473;0.2265;
696.9000;0.1408;0.2075;
697.2000;0.1514;0.2408;
697.5000;0.1473;0.2313;
697.8000;0.1481;0.2313;
698.1000;0.1498;0.2313;
698.4000;0.1473;0.2170;
698.7000;0.1441;0.2241;
699.0000;0.1490;0.2265;
699.3000;0.1449;0.2241;
699.6000;0.1473;0.2313;
699.9000;0.1490;0.2337;
700.2000;0.1490;0.2385;
700.5000;0.1465;0.2313;
700.8000;0.1465;0.2361;
701.1000;0.1481;0.2432;
701.4000;0.1481;0.2480;
701.7000;0.1473;0.2432;
702.0000;0.1506;0.2528;
702.3000;0.1490;0.2408;
702.6000;0.1449;0.2337;
702.9000;0.1473;0.2265;
703.2000;0.1481;0.2241;
703.5000;0.1498;0.2313;
703.8000;0.1490;0.2265;
704.1000;0.1506;0.2313;
704.4000;0.1473;0.2265;
704.7000;0.1449;0.2289;
705.0000;0.1465;0.2289;
705.3000;0.1481;0.2361;
705.6000;0.1441;0.2289;
705.9000;0.1465;0.2313;
706.2000;0.1457;0.2194;
706.5000;0.1473;0.2241;
706.8000;0.1481;0.2241;
707.1000;0.1465;0.2218;
707.4000;0.1473;0.2289;
707.7000;0.1514;0.2456;
708.0000;0.1473;0.2289;
708.3000;0.1490;0.2313;
708.6000;0.1506;0.2289;
708.9000;0.1481;0.2170;
709.2000;0.1490;0.2194;
709.5000;0.1481;0.2170;
709.8000;0.1449;0.2098;
710.1000;0.1457;0.2075;
710.4000;0.1473;0.2146;
710.7000;0.1457;0.2051;
711.0000;0.1481;0.2146;
711.3000;0.1490;0.2265;
711.6000;0.1481;0.2194;
711.9000;0.1490;0.2218;
712.2000;0.1416;0.2146;
712.5000;0.1481;0.2337;
712.8000;0.1457;0.2289;
713.1000;0.1481;0.2337;
713.4000;0.1449;0.2194;
713.7000;0.1490;0.2265;
714.0000;0.1490;0.2241;
714.3000;0.1490;0.2194;
714.6000;0.1490;0.2194;
714.9000;0.1481;0.2241;
715.2000;0.1481;0.2241;
715.5000;0.1547;0.2480;
715.8000;0.1473;0.2265;
716.1000;0.1457;0.2122;
716.4000;0.1481;0.2146;
716.7000;0.1473;0.2098;
717.0000;0.1498;0.2194;
717.3000;0.1368;0.1836;
717.6000;0.1490;0.2194;
717.9000;0.1563;0.2408;
718.2000;0.1490;0.2218;
718.5000;0.1490;0.2122;
718.8000;0.1498;0.2194;
719.1000;0.1473;0.2122;
719.4000;0.1465;0.2075;
719.7000;0.1490;0.2122;
720.0000;0.1481;0.2170;
720.3000;0.1416;0.2027;
720.6000;0.1490;0.2146;
720.9000;0.1498;0.2170;
721.2000;0.1506;0.2194;
721.5000;0.1465;0.2051;
721.8000;0.1490;0.2194;
722.1000;0.1351;0.1812;
722.4000;0.1587;0.2432;
722.7000;0.1490;0.2241;
723.0000;0.1473;0.2218;
723.3000;0.1457;0.2146;
723.6000;0.1473;0.2194;
723.9000;0.1481;0.2337;
724.2000;0.1473;0.2408;
724.5000;0.1481;0.2480;
724.8000;0.1457;0.2408;
725.1000;0.1457;0.2289;
725.4000;0.1506;0.2385;
725.7000;0.1498;0.2385;
726.0000;0.1490;0.2385;
726.3000;0.1457;0.2361;
726.6000;0.1457;0.2289;
726.9000;0.1498;0.2385;
727.2000;0.1473;0.2241;
727.5000;0.1473;0.2265;
727.8000;0.1465;0.2146;
728.1000;0.1538;0.2241;
728.4000;0.1473;0.2075;
728.7000;0.1359;0.1836;
729.0000;0.1473;0.2265;
729.3000;0.1506;0.2265;
729.6000;0.1457;0.2146;
729.9000;0.1514;0.2313;
730.2000;0.1473;0.2265;
730.5000;0.1457;0.2241;
730.8000;0.1457;0.2218;
731.1000;0.1522;0.2313;
731.4000;0.1465;0.2194;
731.7000;0.1473;0.2146;
732.0000;0.1498;0.2241;
732.3000;0.1481;0.2218;
732.6000;0.1473;0.2122;
732.9000;0.1473;0.2146;
733.2000;0.1490;0.2218;
733.5000;0.1473;0.2146;
733.8000;0.1465;0.2075;
734.1000;0.1433;0.2003;
734.4000;0.1481;0.2265;
734.7000;0.1473;0.2194;
735.0000;0.1425;0.2098;
735.3000;0.1465;0.2218;
735.6000;0.1465;0.2241;
735.9000;0.1473;0.2241;
736.2000;0.1473;0.2218;
736.5000;0.1465;0.2170;
736.8000;0.1457;0.2051;
737.1000;0.1449;0.2075;
737.4000;0.1481;0.2146;
737.7000;0.1465;0.2170;
738.0000;0.1465;0.2218;
738.3000;0.1433;0.2051;
738.6000;0.1498;0.2265;
738.9000;0.1457;0.2194;
739.2000;0.1473;0.2289;
739.5000;0.1481;0.2337;
739.8000;0.1481;0.2361;
740.1000;0.1481;0.2289;
740.4000;0.1490;0.2313;
740.7000;0.1490;0.2337;
741.0000;0.1473;0.2289;
741.3000;0.1490;0.2313;
741.6000;0.1473;0.2337;
741.9000;0.1530;0.2408;
742.2000;0.1506;0.2361;
742.5000;0.1457;0.2241;
742.8000;0.1465;0.2218;
743.1000;0.1514;0.2241;
743.4000;0.1514;0.2265;
743.7000;0.1506;0.2194;
744.0000;0.1490;0.2170;
744.3000;0.1433;0.2027;
744.6000;0.1473;0.2146;
744.9000;0.1481;0.2075;
745.2000;0.1481;0.2075;
745.5000;0.1473;0.2003;
745.8000;0.1465;0.2027;
746.1000;0.1498;0.2075;
746.4000;0.1457;0.2051;
746.7000;0.1481;0.2194;
747.0000;0.1490;0.2241;
747.3000;0.1481;0.2313;
747.6000;0.1490;0.2241;
747.9000;0.1473;0.2218;
748.2000;0.1433;0.2194;
748.5000;0.1473;0.2265;
748.8000;0.1441;0.2170;
749.1000;0.1457;0.2194;
749.4000;0.1473;0.2218;
749.7000;0.1465;0.2194;
750.0000;0.1481;0.2194;
750.3000;0.1490;0.2265;
750.6000;0.1473;0.2170;
750.9000;0.1481;0.2218;
751.2000;0.1481;0.2313;
751.5000;0.1473;0.2289;
751.8000;0.1473;0.2241;
752.1000;0.1490;0.2313;
752.4000;0.1441;0.2170;
752.7000;0.1433;0.2146;
753.0000;0.1473;0.2146;
753.3000;0.1465;0.2075;
753.6000;0.1490;0.2146;
753.9000;0.1473;0.2098;
754.2000;0.1506;0.2241;
754.5000;0.1465;0.2170;
754.8000;0.1481;0.2122;
755.1000;0.1481;0.2146;
755.4000;0.1465;0.2170;
755.7000;0.1481;0.2146;
756.0000;0.1457;0.2098;
756.3000;0.1473;0.2098;
756.6000;0.1481;0.2146;
756.9000;0.1473;0.2194;
757.2000;0.1473;0.2170;
757.5000;0.1465;0.2122;
757.8000;0.1481;0.2122;
758.1000;0.1433;0.2003;
758.4000;0.1457;0.2098;
758.7000;0.1465;0.2051;
759.0000;0.1449;0.1955;
759.3000;0.1522;0.2075;
759.6000;0.1481;0.2027;
759.9000;0.1473;0.2051;
760.2000;0.1538;0.2194;
760.5000;0.1481;0.2098;
760.8000;0.1465;0.2075;
761.1000;0.1555;0.2385;
761.4000;0.1473;0.2218;
761.7000;0.1465;0.2194;
762.0000;0.1506;0.2241;
762.3000;0.1473;0.2170;
762.6000;0.1473;0.2122;
762.9000;0.1506;0.2146;
763.2000;0.1498;0.2146;
763.5000;0.1490;0.2098;
763.8000;0.1473;0.2098;
764.1000;0.1498;0.2170;
764.4000;0.1490;0.2170;
764.7000;0.1490;0.2170;
765.0000;0.1473;0.2051;
765.3000;0.1579;0.2337;
765.6000;0.1457;0.2122;
765.9000;0.1457;0.2122;
766.2000;0.1449;0.2075;
766.5000;0.1473;0.2218;
766.8000;0.1490;0.2313;
767.1000;0.1473;0.2313;
767.4000;0.1408;0.2146;
767.7000;0.1506;0.2361;
768.0000;0.1490;0.2241;
768.3000;0.1498;0.2170;
768.6000;0.1465;0.2194;
768.9000;0.1473;0.2218;
769.2000;0.1441;0.2051;
769.5000;0.1481;0.2122;
769.8000;0.1490;0.2194;
770.1000;0.1449;0.2146;
770.4000;0.1473;0.2241;
770.7000;0.1465;0.2265;
771.0000;0.1481;0.2194;
771.3000;0.1490;0.2289;
771.6000;0.1473;0.2265;
771.9000;0.1465;0.2241;
772.2000;0.1506;0.2408;
772.5000;0.1490;0.2289;
772.8000;0.1473;0.2265;
773.1000;0.1490;0.2265;
773.4000;0.1473;0.2146;
773.7000;0.1481;0.2098;
774.0000;0.1473;0.2146;
774.3000;0.1490;0.2170;
774.6000;0.1433;0.2003;
774.9000;0.1449;0.2027;
775.2000;0.1465;0.1979;
775.5000;0.1473;0.2027;
775.8000;0.1481;0.2098;
776.1000;0.1465;0.2051;
776.4000;0.1449;0.2098;
776.7000;0.1571;0.2432;
777.0000;0.1547;0.2432;
777.3000;0.1481;0.2218;
777.6000;0.1490;0.2098;
777.9000;0.1514;0.2098;
778.2000;0.1449;0.1860;
778.5000;0.1547;0.2241;
778.8000;0.1481;0.2098;
779.1000;0.1457;0.2122;
779.4000;0.1473;0.2122;
779.7000;0.1506;0.2194;
780.0000;0.1481;0.2146;
780.3000;0.1481;0.2170;
780.6000;0.1465;0.2122;
780.9000;0.1465;0.2051;
781.2000;0.1490;0.2075;
781.5000;0.1449;0.2027;
781.8000;0.1465;0.2098;
782.1000;0.1473;0.2051;
782.4000;0.1473;0.2027;
782.7000;0.1473;0.2003;
783.0000;0.1473;0.1979;
783.3000;0.1400;0.1836;
783.6000;0.1481;0.1955;
783.9000;0.1490;0.2051;
784.2000;0.1563;0.2289;
784.5000;0.1465;0.2122;
784.8000;0.1465;0.2122;
785.1000;0.1473;0.2146;
785.4000;0.1433;0.1955;
785.7000;0.1490;0.2122;
786.0000;0.1481;0.2170;
786.3000;0.1343;0.1836;
786.6000;0.1408;0.2027;
786.9000;0.1490;0.2194;
787.2000;0.1481;0.2194;
787.5000;0.1376;0.1860;
787.8000;0.1473;0.2122;
788.1000;0.1514;0.2241;
788.4000;0.1490;0.2194;
788.7000;0.1473;0.2289;
789.0000;0.1465;0.2218;
789.3000;0.1473;0.2241;
789.6000;0.1473;0.2194;
789.9000;0.1481;0.2098;
790.2000;0.1481;0.2051;
790.5000;0.1490;0.2075;
790.8000;0.1408;0.1908;
791.1000;0.1490;0.2122;
791.4000;0.1465;0.2051;
791.7000;0.1449;0.2075;
792.0000;0.1571;0.2432;
792.3000;0.1457;0.2075;
792.6000;0.1473;0.2146;
792.9000;0.1416;0.2027;
793.2000;0.1457;0.2122;
793.5000;0.1473;0.2194;
793.8000;0.1359;0.1931;
794.1000;0.1481;0.2289;
794.4000;0.1457;0.2241;
794.7000;0.1449;0.2194;
795.0000;0.1473;0.2218;
795.3000;0.1465;0.2122;
795.6000;0.1490;0.2241;
795.9000;0.1490;0.2194;
796.2000;0.1457;0.2051;
796.5000;0.1473;0.2194;
796.8000;0.1473;0.2218;
797.1000;0.1425;0.2003;
797.4000;0.1465;0.2098;
797.7000;0.1481;0.2194;
798.0000;0.1498;0.2075;
798.3000;0.1441;0.1884;
798.6000;0.1530;0.2146;
798.9000;0.1481;0.2003;
799.2000;0.1481;0.1979;
799.5000;0.1408;0.1812;
799.8000;0.1465;0.2051;
800.1000;0.1441;0.2051;
800.4000;0.1481;0.2218;
800.7000;0.1416;0.2098;
801.0000;0.1595;0.2528;
801.3000;0.1457;0.2146;
801.6000;0.1473;0.2122;
801.9000;0.1465;0.2075;
802.2000;0.1457;0.2194;
802.5000;0.1457;0.2218;
802.8000;0.1465;0.2289;
803.1000;0.1473;0.2313;
803.4000;0.1457;0.2194;
803.7000;0.1433;0.2098;
804.0000;0.1473;0.2218;
804.3000;0.1457;0.2051;
804.6000;0.1457;0.2075;
804.9000;0.1522;0.2218;
805.2000;0.1481;0.2075;
805.5000;0.1490;0.2122;
805.8000;0.1481;0.2098;
806.1000;0.1400;0.1979;
806.4000;0.1481;0.2241;
806.7000;0.1498;0.2337;
807.0000;0.1498;0.2289;
807.3000;0.1449;0.2194;
807.6000;0.1473;0.2337;
807.9000;0.1490;0.2241;
808.2000;0.1465;0.2075;
808.5000;0.1481;0.2051;
808.8000;0.1449;0.1979;
809.1000;0.1465;0.1931;
809.4000;0.1416;0.1765;
809.7000;0.1457;0.1908;
810.0000;0.1481;0.2027;
810.3000;0.1498;0.2122;
810.6000;0.1490;0.2122;
810.9000;0.1481;0.2122;
811.2000;0.1449;0.2075;
811.5000;0.1490;0.2146;
811.8000;0.1481;0.2122;
812.1000;0.1490;0.2194;
812.4000;0.1473;0.2170;
812.7000;0.1481;0.2122;
813.0000;0.1473;0.2098;
813.3000;0.1481;0.2146;
813.6000;0.1498;0.2241;
813.9000;0.1481;0.2146;
814.2000;0.1490;0.2146;
814.5000;0.1490;0.2170;
814.8000;0.1425;0.2051;
815.1000;0.1473;0.2146;
815.4000;0.1481;0.2170;
815.7000;0.1441;0.2075;
816.0000;0.1587;0.2385;
816.3000;0.1530;0.2337;
816.6000;0.1465;0.2194;
816.9000;0.1563;0.2408;
817.2000;0.1563;0.2480;
817.5000;0.1481;0.2337;
817.8000;0.1425;0.2289;
818.1000;0.1465;0.2408;
818.4000;0.1481;0.2408;
818.7000;0.1498;0.2408;
819.0000;0.1457;0.2289;
819.3000;0.1481;0.2337;
819.6000;0.1481;0.2385;
819.9000;0.1481;0.2361;
820.2000;0.1490;0.2313;
820.5000;0.1473;0.2265;
820.8000;0.1498;0.2337;
821.1000;0.1498;0.2361;
821.4000;0.1473;0.2289;
821.7000;0.1490;0.2313;
822.0000;0.1530;0.2337;
822.3000;0.1481;0.2265;
822.6000;0.1481;0.2218;
822.9000;0.1473;0.2265;
823.2000;0.1473;0.2408;
823.5000;0.1522;0.2504;
823.8000;0.1490;0.2456;
824.1000;0.1433;0.2289;
824.4000;0.1473;0.2361;
824.7000;0.1473;0.2241;
825.0000;0.1522;0.2432;
825.3000;0.1449;0.2170;
825.6000;0.1473;0.2218;
825.9000;0.1465;0.2194;
826.2000;0.1457;0.2146;
826.5000;0.1481;0.2218;
826.8000;0.1473;0.2122;
827.1000;0.1473;0.2170;
827.4000;0.1490;0.2194;
827.7000;0.1490;0.2194;
828.0000;0.1490;0.2241;
828.3000;0.1457;0.2313;
828.6000;0.1473;0.2385;
828.9000;0.1481;0.2504;
829.2000;0.1473;0.2575;
829.5000;0.1457;0.2480;
829.8000;0.1465;0.2504;
830.1000;0.1465;0.2504;
830.4000;0.1481;0.2528;
830.7000;0.1490;0.2385;
831.0000;0.1498;0.2361;
831.3000;0.1490;0.2337;
831.6000;0.1465;0.2337;
831.9000;0.1522;0.2385;
832.2000;0.1465;0.2194;
832.5000;0.1481;0.2194;
832.8000;0.1530;0.2385;
833.1000;0.1481;0.2241;
833.4000;0.1473;0.2289;
833.7000;0.1465;0.2241;
834.0000;0.1490;0.2289;
834.3000;0.1481;0.2361;
834.6000;0.1465;0.2265;
834.9000;0.1473;0.2289;
835.2000;0.1465;0.2241;
835.5000;0.1473;0.2218;
835.8000;0.1514;0.2337;
836.1000;0.1490;0.2265;
836.4000;0.1506;0.2361;
836.7000;0.1506;0.2361;
837.0000;0.1449;0.2313;
837.3000;0.1441;0.2265;
837.6000;0.1481;0.2385;
837.9000;0.1457;0.2313;
838.2000;0.1506;0.2408;
838.5000;0.1481;0.2432;
838.8000;0.1473;0.2432;
839.1000;0.1490;0.2504;
839.4000;0.1425;0.2432;
839.7000;0.1465;0.2432;
840.0000;0.1457;0.2408;
840.3000;0.1490;0.2504;
840.6000;0.1481;0.2480;
840.9000;0.1465;0.2408;
841.2000;0.1473;0.2361;
841.5000;0.1490;0.2408;
841.8000;0.1481;0.2313;
842.1000;0.1465;0.2241;
842.4000;0.1449;0.2218;
842.7000;0.1473;0.2241;
843.0000;0.1481;0.2289;
843.3000;0.1449;0.2265;
843.6000;0.1457;0.2218;
843.9000;0.1465;0.2241;
844.2000;0.1481;0.2289;
844.5000;0.1481;0.2361;
844.8000;0.1457;0.2313;
845.1000;0.1473;0.2241;
845.4000;0.1481;0.2289;
845.7000;0.1457;0.2289;
846.0000;0.1481;0.2361;
846.3000;0.1490;0.2385;
846.6000;0.1571;0.2551;
846.9000;0.1490;0.2313;
847.2000;0.1465;0.2241;
847.5000;0.1465;0.2170;
847.8000;0.1490;0.2170;
848.1000;0.1481;0.2194;
848.4000;0.1490;0.2218;
848.7000;0.1457;0.2170;
849.0000;0.1457;0.2122;
849.3000;0.1506;0.2241;
849.6000;0.1481;0.2289;
849.9000;0.1498;0.2313;
850.2000;0.1473;0.2265;
850.5000;0.1481;0.2289;
850.8000;0.1498;0.2337;
851.1000;0.1522;0.2551;
851.4000;0.1481;0.2432;
851.7000;0.1465;0.2408;
852.0000;0.1457;0.2385;
852.3000;0.1473;0.2528;
852.6000;0.1481;0.2528;
852.9000;0.1473;0.2432;
853.2000;0.1457;0.2361;
853.5000;0.1490;0.2361;
853.8000;0.1449;0.2241;
854.1000;0.1490;0.2337;
854.4000;0.1473;0.2361;
854.7000;0.1473;0.2289;
855.0000;0.1473;0.2313;
855.3000;0.1579;0.2623;
855.6000;0.1473;0.2337;
855.9000;0.1473;0.2337;
856.2000;0.1473;0.2337;
856.5000;0.1465;0.2241;
856.8000;0.1481;0.2265;
857.1000;0.1481;0.2289;
857.4000;0.1473;0.2289;
857.7000;0.1473;0.2241;
858.0000;0.1441;0.2146;
858.3000;0.1506;0.2289;
858.6000;0.1498;0.2337;
858.9000;0.1441;0.2194;
859.2000;0.1498;0.2241;
859.5000;0.1481;0.2218;
859.8000;0.1481;0.2289;
860.1000;0.1490;0.2337;
860.4000;0.1465;0.2361;
860.7000;0.1465;0.2337;
861.0000;0.1465;0.2289;
861.3000;0.1514;0.2385;
861.6000;0.1473;0.2289;
861.9000;0.1449;0.2241;
862.2000;0.1416;0.2146;
862.5000;0.1473;0.2313;
862.8000;0.1473;0.2337;
863.1000;0.1481;0.2385;
863.4000;0.1473;0.2337;
863.7000;0.1473;0.2337;
864.0000;0.1465;0.2265;
864.3000;0.1441;0.2170;
864.6000;0.1473;0.2241;
864.9000;0.1506;0.2241;
865.2000;0.1481;0.2265;
865.5000;0.1465;0.2194;
865.8000;0.1465;0.2170;
866.1000;0.1490;0.2194;
866.4000;0.1481;0.2170;
866.7000;0.1433;0.2122;
867.0000;0.1473;0.2194;
867.3000;0.1481;0.2289;
867.6000;0.1490;0.2337;
867.9000;0.1481;0.2289;
868.2000;0.1441;0.2241;
868.5000;0.1473;0.2241;
868.8000;0.1473;0.2218;
869.1000;0.1441;0.2146;
869.4000;0.1465;0.2265;
869.7000;0.1473;0.2194;
870.0000;0.1498;0.2122;
870.3000;0.1498;0.2098;
870.6000;0.1481;0.2027;
870.9000;0.1490;0.2003;
871.2000;0.1490;0.1979;
871.5000;0.1473;0.1931;
871.8000;0.1465;0.1931;
872.1000;0.1449;0.1884;
872.4000;0.1498;0.1955;
872.7000;0.1465;0.1884;
873.0000;0.1498;0.2075;
873.3000;0.1473;0.2003;
873.6000;0.1465;0.2003;
873.9000;0.1481;0.2075;
874.2000;0.1465;0.2098;
874.5000;0.1465;0.2122;
874.8000;0.1465;0.2098;
875.1000;0.1514;0.2194;
875.4000;0.1465;0.2098;
875.7000;0.1473;0.2170;
876.0000;0.1465;0.2218;
876.3000;0.1490;0.2337;
876.6000;0.1498;0.2361;
876.9000;0.1457;0.2265;
877.2000;0.1457;0.2170;
877.5000;0.1465;0.2122;
877.8000;0.1481;0.2289;
878.1000;0.1490;0.2265;
878.4000;0.1416;0.2003;
878.7000;0.1473;0.2218;
879.0000;0.1449;0.2146;
879.3000;0.1465;0.2265;
879.6000;0.1457;0.2218;
879.9000;0.1457;0.2098;
880.2000;0.1449;0.2075;
880.5000;0.1481;0.2098;
880.8000;0.1465;0.2075;
881.1000;0.1473;0.2027;
881.4000;0.1473;0.1955;
881.7000;0.1490;0.1979;
882.0000;0.1498;0.1860;
882.3000;0.1473;0.1908;
882.6000;0.1473;0.1931;
882.9000;0.1563;0.2218;
883.2000;0.1449;0.1860;
883.5000;0.1473;0.1931;
883.8000;0.1473;0.2003;
884.1000;0.1490;0.2075;
884.4000;0.1465;0.2122;
884.7000;0.1433;0.2027;
885.0000;0.1473;0.2051;
885.3000;0.1522;0.2218;
885.6000;0.1498;0.2075;
885.9000;0.1481;0.2027;
886.2000;0.1457;0.1979;
886.5000;0.1481;0.2051;
886.8000;0.1481;0.2075;
887.1000;0.1465;0.2122;
887.4000;0.1481;0.2170;
887.7000;0.1481;0.2265;
888.0000;0.1465;0.2241;
888.3000;0.1498;0.2289;
888.6000;0.1481;0.2289;
888.9000;0.1481;0.2218;
889.2000;0.1465;0.2146;
889.5000;0.1457;0.2146;
889.8000;0.1481;0.2170;
890.1000;0.1481;0.2122;
890.4000;0.1481;0.2170;
890.7000;0.1481;0.2194;
891.0000;0.1481;0.2265;
891.3000;0.1490;0.2265;
891.6000;0.1465;0.2146;
891.9000;0.1481;0.2146;
892.2000;0.1465;0.2003;
892.5000;0.1498;0.2098;
892.8000;0.1465;0.2098;
893.1000;0.1465;0.2098;
893.4000;0.1481;0.2098;
893.7000;0.1408;0.1955;
894.0000;0.1473;0.2170;
894.3000;0.1481;0.2218;
894.6000;0.1457;0.2122;
894.9000;0.1481;0.2218;
895.2000;0.1473;0.2194;
895.5000;0.1555;0.2361;
895.8000;0.1481;0.2241;
896.1000;0.1481;0.2146;
896.4000;0.1465;0.2146;
896.7000;0.1481;0.2122;
897.0000;0.1425;0.2027;
897.3000;0.1465;0.2146;
897.6000;0.1481;0.2218;
897.9000;0.1473;0.2122;
898.2000;0.1563;0.2361;
898.5000;0.1490;0.2098;
898.8000;0.1530;0.2241;
899.1000;0.1457;0.2098;
899.4000;0.1473;0.2146;
899.7000;0.1465;0.2265;
900.0000;0.1490;0.2313;
900.3000;0.1449;0.2265;
900.6000;0.1457;0.2241;
900.9000;0.1465;0.2241;
901.2000;0.1473;0.2289;
901.5000;0.1481;0.2194;
901.8000;0.1538;0.2385;
902.1000;0.1490;0.2218;
902.4000;0.1481;0.2241;
902.7000;0.1457;0.2146;
903.0000;0.1490;0.2218;
903.3000;0.1425;0.2003;
903.6000;0.1490;0.2218;
903.9000;0.1490;0.2265;
904.2000;0.1457;0.2170;
904.5000;0.1473;0.2146;
904.8000;0.1490;0.2170;
905.1000;0.1473;0.2098;
905.4000;0.1481;0.2051;
905.7000;0.1490;0.2098;
906.0000;0.1498;0.2146;
906.3000;0.1490;0.2051;
906.6000;0.1465;0.2003;
906.9000;0.1465;0.1955;
907.2000;0.1449;0.1979;
907.5000;0.1465;0.2027;
907.8000;0.1498;0.2218;
908.1000;0.1465;0.2122;
908.4000;0.1457;0.2122;
908.7000;0.1498;0.2218;
909.0000;0.1498;0.2241;
909.3000;0.1514;0.2313;
909.6000;0.1473;0.2194;
909.9000;0.1473;0.2170;
910.2000;0.1490;0.2289;
910.5000;0.1490;0.2313;
910.8000;0.1473;0.2289;
911.1000;0.1465;0.2337;
911.4000;0.1473;0.2313;
911.7000;0.1490;0.2408;
912.0000;0.1481;0.2313;
912.3000;0.1481;0.2289;
912.6000;0.1457;0.2170;
912.9000;0.1473;0.2361;
913.2000;0.1465;0.2337;
913.5000;0.1473;0.2385;
913.8000;0.1490;0.2337;
914.1000;0.1473;0.2337;
914.4000;0.1481;0.2456;
914.7000;0.1449;0.2385;
915.0000;0.1465;0.2385;
915.3000;0.1481;0.2456;
915.6000;0.1481;0.2432;
915.9000;0.1441;0.2289;
916.2000;0.1433;0.2265;
916.5000;0.1506;0.2504;
916.8000;0.1351;0.2075;
917.1000;0.1465;0.2289;
917.4000;0.1465;0.2289;
917.7000;0.1481;0.2265;
918.0000;0.1465;0.2218;
918.3000;0.1457;0.2146;
918.6000;0.1473;0.2170;
918.9000;0.1473;0.2241;
919.2000;0.1473;0.2122;
919.5000;0.1481;0.2218;
919.8000;0.1465;0.2194;
920.1000;0.1473;0.2170;
920.4000;0.1506;0.2194;
920.7000;0.1506;0.2265;
921.0000;0.1465;0.2170;
921.3000;0.1490;0.2289;
921.6000;0.1481;0.2313;
921.9000;0.1473;0.2385;
922.2000;0.1481;0.2385;
922.5000;0.1465;0.2337;
922.8000;0.1473;0.2385;
923.1000;0.1490;0.2456;
923.4000;0.1473;0.2361;
923.7000;0.1481;0.2218;
924.0000;0.1457;0.2098;
924.3000;0.1490;0.2194;
924.6000;0.1473;0.2194;
924.9000;0.1465;0.2218;
925.2000;0.1465;0.2194;
925.5000;0.1384;0.2098;
925.8000;0.1473;0.2313;
926.1000;0.1481;0.2385;
926.4000;0.1465;0.2361;
926.7000;0.1514;0.2432;
927.0000;0.1473;0.2241;
927.3000;0.1457;0.2194;
927.6000;0.1465;0.2170;
927.9000;0.1449;0.2170;
928.2000;0.1465;0.2194;
928.5000;0.1457;0.2075;
928.8000;0.1449;0.2122;
929.1000;0.1351;0.1860;
929.4000;0.1473;0.2218;
929.7000;0.1506;0.2313;
930.0000;0.1481;0.2218;
930.3000;0.1514;0.2337;
930.6000;0.1441;0.2122;
930.9000;0.1473;0.2122;
931.2000;0.1441;0.2003;
931.5000;0.1473;0.2027;
931.8000;0.1547;0.2265;
932.1000;0.1481;0.2122;
932.4000;0.1416;0.1931;
932.7000;0.1465;0.2075;
933.0000;0.1441;0.1931;
933.3000;0.1514;0.2122;
933.6000;0.1490;0.2098;
933.9000;0.1498;0.2098;
934.2000;0.1449;0.2003;
934.5000;0.1473;0.2098;
934.8000;0.1457;0.2098;
935.1000;0.1457;0.2027;
935.4000;0.1473;0.2051;
935.7000;0.1490;0.2098;
936.0000;0.1490;0.2075;
936.3000;0.1498;0.2170;
936.6000;0.1457;0.2098;
936.9000;0.1465;0.2122;
937.2000;0.1481;0.2194;
937.5000;0.1392;0.1908;
937.8000;0.1473;0.2051;
938.1000;0.1457;0.2122;
938.4000;0.1465;0.2170;
938.7000;0.1449;0.2027;
939.0000;0.1481;0.2075;
939.3000;0.1481;0.2122;
939.6000;0.1473;0.2027;
939.9000;0.1620;0.2456;
940.2000;0.1506;0.2218;
940.5000;0.1473;0.2122;
940.8000;0.1481;0.2194;
941.1000;0.1473;0.2170;
941.4000;0.1481;0.2218;
941.7000;0.1473;0.2146;
942.0000;0.1457;0.2098;
942.3000;0.1473;0.2075;
942.6000;0.1490;0.2146;
942.9000;0.1481;0.2146;
943.2000;0.1498;0.2146;
943.5000;0.1473;0.2075;
943.8000;0.1449;0.2098;
944.1000;0.1473;0.2241;
944.4000;0.1481;0.2170;
944.7000;0.1473;0.2075;
945.0000;0.1473;0.2051;
945.3000;0.1449;0.2027;
945.6000;0.1449;0.2003;
945.9000;0.1481;0.1979;
946.2000;0.1457;0.1908;
946.5000;0.1490;0.2075;
946.8000;0.1498;0.2146;
947.1000;0.1433;0.2098;
947.4000;0.1481;0.2265;
947.7000;0.1473;0.2337;
948.0000;0.1465;0.2313;
948.3000;0.1481;0.2337;
948.6000;0.1473;0.2289;
948.9000;0.1481;0.2241;
949.2000;0.1473;0.2241;
949.5000;0.1457;0.2218;
949.8000;0.1481;0.2194;
950.1000;0.1481;0.2289;
950.4000;0.1481;0.2361;
950.7000;0.1457;0.2218;
951.0000;0.1465;0.2170;
951.3000;0.1490;0.2146;
951.6000;0.1498;0.2098;
951.9000;0.1465;0.1979;
952.2000;0.1514;0.2122;
952.5000;0.1490;0.2146;
952.8000;0.1498;0.2194;
953.1000;0.1547;0.2337;
953.4000;0.1481;0.2170;
953.7000;0.1449;0.2146;
954.0000;0.1481;0.2241;
954.3000;0.1547;0.2361;
954.6000;0.1473;0.2218;
954.9000;0.1457;0.2098;
955.2000;0.1490;0.2289;
955.5000;0.1465;0.2265;
955.8000;0.1408;0.2075;
956.1000;0.1457;0.2241;
956.4000;0.1506;0.2337;
956.7000;0.1481;0.2289;
957.0000;0.1481;0.2289;
957.3000;0.1449;0.2218;
957.6000;0.1481;0.2265;
957.9000;0.1506;0.2313;
958.2000;0.1473;0.2194;
958.5000;0.1473;0.2241;
958.8000;0.1441;0.2075;
959.1000;0.1465;0.2098;
959.4000;0.1465;0.2146;
959.7000;0.1473;0.2146;
960.0000;0.1457;0.2122;
960.3000;0.1490;0.2218;
960.6000;0.1481;0.2265;
960.9000;0.1555;0.2456;
961.2000;0.1506;0.2289;
961.5000;0.1416;0.2051;
961.8000;0.1473;0.2122;
962.1000;0.1481;0.2122;
962.4000;0.1473;0.2146;
962.7000;0.1473;0.2218;
963.0000;0.1425;0.2003;
963.3000;0.1465;0.2170;
963.6000;0.1490;0.2265;
963.9000;0.1490;0.2241;
964.2000;0.1465;0.2218;
964.5000;0.1368;0.1931;
964.8000;0.1481;0.2265;
965.1000;0.1465;0.2265;
965.4000;0.1498;0.2408;
965.7000;0.1473;0.2337;
966.0000;0.1481;0.2337;
966.3000;0.1481;0.2289;
966.6000;0.1490;0.2313;
966.9000;0.1490;0.2218;
967.2000;0.1473;0.2194;
967.5000;0.1473;0.2218;
967.8000;0.1473;0.2241;
968.1000;0.1473;0.2241;
968.4000;0.1473;0.2241;
968.7000;0.1490;0.2194;
969.0000;0.1498;0.2146;
969.3000;0.1481;0.2170;
969.6000;0.1473;0.2146;
969.9000;0.1465;0.2075;
970.2000;0.1441;0.2098;
970.5000;0.1481;0.2122;
970.8000;0.1392;0.1931;
971.1000;0.1465;0.2122;
971.4000;0.1490;0.2194;
971.7000;0.1449;0.2051;
972.0000;0.1465;0.2098;
972.3000;0.1425;0.2003;
972.6000;0.1457;0.1979;
972.9000;0.1465;0.2003;
973.2000;0.1473;0.2075;
973.5000;0.1457;0.1860;
973.8000;0.1465;0.1908;
974.1000;0.1498;0.1884;
974.4000;0.1473;0.1884;
974.7000;0.1433;0.1812;
975.0000;0.1473;0.1908;
975.3000;0.1449;0.1788;
975.6000;0.1465;0.1812;
975.9000;0.1457;0.1884;
976.2000;0.1465;0.1860;
976.5000;0.1473;0.1955;
976.8000;0.1473;0.1979;
977.1000;0.1498;0.2098;
977.4000;0.1490;0.2122;
977.7000;0.1473;0.2051;
978.0000;0.1473;0.2027;
978.3000;0.1498;0.2098;
978.6000;0.1465;0.2051;
978.9000;0.1473;0.2075;
979.2000;0.1481;0.2051;
979.5000;0.1498;0.2098;
979.8000;0.1522;0.2146;
980.1000;0.1359;0.1669;
980.4000;0.1465;0.1979;
980.7000;0.1465;0.1955;
981.0000;0.1457;0.2003;
981.3000;0.1473;0.2027;
981.6000;0.1473;0.2051;
981.9000;0.1465;0.2146;
982.2000;0.1473;0.2122;
982.5000;0.1465;0.2075;
982.8000;0.1465;0.2098;
983.1000;0.1449;0.2051;
983.4000;0.1473;0.2098;
983.7000;0.1481;0.2027;
984.0000;0.1490;0.2075;
984.3000;0.1457;0.2027;
984.6000;0.1465;0.2098;
984.9000;0.1473;0.2122;
985.2000;0.1457;0.2098;
985.5000;0.1498;0.2194;
985.8000;0.1514;0.2218;
986.1000;0.1490;0.2075;
986.4000;0.1490;0.2027;
986.7000;0.1465;0.1955;
987.0000;0.1506;0.2075;
987.3000;0.1481;0.2027;
987.6000;0.1473;0.2027;
987.9000;0.1441;0.1955;
988.2000;0.1359;0.1765;
988.5000;0.1465;0.2003;
988.8000;0.1490;0.2075;
989.1000;0.1522;0.2122;
989.4000;0.1473;0.2003;
989.7000;0.1481;0.2027;
990.0000;0.1465;0.2003;
990.3000;0.1473;0.2122;
990.6000;0.1579;0.2337;
990.9000;0.1481;0.2098;
991.2000;0.1473;0.2098;
991.5000;0.1506;0.2218;
991.8000;0.1481;0.2265;
992.1000;0.1425;0.2098;
992.4000;0.1481;0.2122;
992.7000;0.1498;0.2027;
993.0000;0.1473;0.2027;
993.3000;0.1506;0.2051;
993.6000;0.1473;0.2003;
993.9000;0.1465;0.2003;
994.2000;0.1506;0.2098;
994.5000;0.1335;0.1669;
994.8000;0.1465;0.2003;
995.1000;0.1595;0.2313;
995.4000;0.1555;0.2194;
995.7000;0.1490;0.2027;
996.0000;0.1457;0.1931;
996.3000;0.1481;0.2027;
996.6000;0.1490;0.1979;
996.9000;0.1481;0.1955;
997.2000;0.1490;0.2003;
997.5000;0.1481;0.2003;
997.8000;0.1457;0.1931;
998.1000;0.1465;0.2051;
998.4000;0.1481;0.2051;
998.7000;0.1490;0.2075;
999.0000;0.1506;0.2170;
999.3000;0.1490;0.2098;
999.6000;0.1498;0.2241;
999.9000;0.1473;0.2194;
1000.2000;0.1481;0.2337;
1000.5000;0.1481;0.2337;
1000.8000;0.1465;0.2265;
1001.1000;0.1481;0.2265;
1001.4000;0.1392;0.2122;
1001.7000;0.1473;0.2289;
1002.0000;0.1408;0.2051;
1002.3000;0.1481;0.2170;
1002.6000;0.1490;0.2241;
1002.9000;0.1400;0.2003;
1003.2000;0.1490;0.2170;
1003.5000;0.1473;0.2075;
1003.8000;0.1612;0.2385;
1004.1000;0.1514;0.2098;
1004.4000;0.1490;0.2051;
1004.7000;0.1490;0.2003;
1005.0000;0.1473;0.1979;
1005.3000;0.1490;0.2003;
1005.6000;0.1481;0.1860;
1005.9000;0.1433;0.1717;
1006.2000;0.1465;0.1860;
1006.5000;0.1498;0.1908;
1006.8000;0.1481;0.1884;
1007.1000;0.1506;0.1860;
1007.4000;0.1473;0.1812;
1007.7000;0.1449;0.1812;
1008.0000;0.1490;0.1908;
1008.3000;0.1555;0.1979;
1008.6000;0.1473;0.1812;
1008.9000;0.1538;0.2027;
1009.2000;0.1441;0.1836;
1009.5000;0.1441;0.1836;
1009.8000;0.1514;0.2170;
1010.1000;0.1473;0.2075;
1010.4000;0.1465;0.2098;
1010.7000;0.1473;0.2098;
1011.0000;0.1530;0.2313;
1011.3000;0.1490;0.2218;
1011.6000;0.1433;0.2098;
1011.9000;0.1449;0.2170;
1012.2000;0.1563;0.2361;
1012.5000;0.1490;0.2146;
1012.8000;0.1490;0.2170;
1013.1000;0.1441;0.2075;
1013.4000;0.1490;0.2146;
1013.7000;0.1514;0.2241;
1014.0000;0.1498;0.2218;
1014.3000;0.1425;0.2075;
1014.6000;0.1506;0.2337;
1014.9000;0.1465;0.2361;
1015.2000;0.1490;0.2385;
1015.5000;0.1506;0.2385;
1015.8000;0.1481;0.2265;
1016.1000;0.1481;0.2313;
1016.4000;0.1465;0.2313;
1016.7000;0.1490;0.2337;
1017.0000;0.1473;0.2218;
1017.3000;0.1473;0.2194;
1017.6000;0.1481;0.2122;
1017.9000;0.1457;0.1979;
1018.2000;0.1465;0.2003;
1018.5000;0.1465;0.2098;
1018.8000;0.1490;0.2146;
1019.1000;0.1522;0.2289;
1019.4000;0.1530;0.2289;
1019.7000;0.1400;0.2003;
1020.0000;0.1481;0.2218;
1020.3000;0.1449;0.2146;
1020.6000;0.1473;0.2218;
1020.9000;0.1433;0.2098;
1021.2000;0.1449;0.2265;
1021.5000;0.1481;0.2265;
1021.8000;0.1481;0.2194;
1022.1000;0.1473;0.2170;
1022.4000;0.1498;0.2241;
1022.7000;0.1481;0.2170;
1023.0000;0.1481;0.2098;
1023.3000;0.1490;0.2170;
1023.6000;0.1473;0.2098;
1023.9000;0.1457;0.2098;
1024.2000;0.1481;0.2170;
1024.5000;0.1457;0.2146;
1024.8000;0.1449;0.2146;
1025.1000;0.1473;0.2146;
1025.4000;0.1612;0.2456;
1025.7000;0.1473;0.1979;
1026.0000;0.1473;0.2003;
1026.3000;0.1490;0.2003;
1026.6000;0.1481;0.1908;
1026.9000;0.1490;0.2003;
1027.2000;0.1465;0.2075;
1027.5000;0.1473;0.2122;
1027.8000;0.1498;0.2170;
1028.1000;0.1473;0.2170;
1028.4000;0.1473;0.2265;
1028.7000;0.1490;0.2241;
1029.0000;0.1473;0.2098;
1029.3000;0.1481;0.2194;
1029.6000;0.1473;0.2170;
1029.9000;0.1473;0.2265;
1030.2000;0.1498;0.2337;
1030.5000;0.1473;0.2265;
1030.8000;0.1481;0.2265;
1031.1000;0.1449;0.2241;
1031.4000;0.1481;0.2289;
1031.7000;0.1506;0.2361;
1032.0000;0.1473;0.2265;
1032.3000;0.1457;0.2265;
1032.6000;0.1449;0.2194;
1032.9000;0.1416;0.2122;
1033.2000;0.1481;0.2289;
1033.5000;0.1433;0.2194;
1033.8000;0.1473;0.2265;
1034.1000;0.1530;0.2361;
1034.4000;0.1498;0.2170;
1034.7000;0.1547;0.2289;
1035.0000;0.1490;0.2027;
1035.3000;0.1490;0.2003;
1035.6000;0.1506;0.2098;
1035.9000;0.1465;0.2027;
1036.2000;0.1449;0.1955;
1036.5000;0.1400;0.1860;
1036.8000;0.1473;0.2098;
1037.1000;0.1441;0.2027;
1037.4000;0.1481;0.2218;
1037.7000;0.1457;0.2170;
1038.0000;0.1473;0.2218;
1038.3000;0.1465;0.2218;
1038.6000;0.1490;0.2218;
1038.9000;0.1425;0.2098;
1039.2000;0.1473;0.2241;
1039.5000;0.1433;0.2146;
1039.8000;0.1457;0.2361;
1040.1000;0.1490;0.2456;
1040.4000;0.1481;0.2385;
1040.7000;0.1473;0.2432;
1041.0000;0.1425;0.2289;
1041.3000;0.1506;0.2480;
1041.6000;0.1465;0.2361;
1041.9000;0.1441;0.2194;
1042.2000;0.1473;0.2194;
1042.5000;0.1538;0.2337;
1042.8000;0.1392;0.1979;
1043.1000;0.1498;0.2289;
1043.4000;0.1481;0.2241;
1043.7000;0.1481;0.2265;
1044.0000;0.1481;0.2265;
1044.3000;0.1473;0.2313;
1044.6000;0.1481;0.2361;
1044.9000;0.1449;0.2241;
1045.2000;0.1481;0.2313;
1045.5000;0.1481;0.2337;
1045.8000;0.1490;0.2361;
1046.1000;0.1473;0.2385;
1046.4000;0.1425;0.2218;
1046.7000;0.1498;0.2313;
1047.0000;0.1481;0.2241;
1047.3000;0.1514;0.2241;
1047.6000;0.1465;0.2146;
1047.9000;0.1490;0.2194;
1048.2000;0.1498;0.2218;
1048.5000;0.1481;0.2194;
1048.8000;0.1498;0.2241;
1049.1000;0.1490;0.2241;
1049.4000;0.1473;0.2265;
1049.7000;0.1498;0.2361;
1050.0000;0.1490;0.2337;
1050.3000;0.1425;0.2098;
1050.6000;0.1490;0.2218;
1050.9000;0.1473;0.2146;
1051.2000;0.1457;0.2051;
1051.5000;0.1473;0.2194;
1051.8000;0.1498;0.2289;
1052.1000;0.1481;0.2241;
1052.4000;0.1449;0.2170;
1052.7000;0.1457;0.2146;
1053.0000;0.1433;0.1979;
1053.3000;0.1481;0.2170;
1053.6000;0.1498;0.2218;
1053.9000;0.1457;0.2098;
1054.2000;0.1465;0.2075;
1054.5000;0.1465;0.2146;
1054.8000;0.1595;0.2528;
1055.1000;0.1473;0.2241;
1055.4000;0.1457;0.2313;
1055.7000;0.1498;0.2385;
1056.0000;0.1490;0.2289;
1056.3000;0.1490;0.2289;
1056.6000;0.1473;0.2265;
1056.9000;0.1441;0.2122;
1057.2000;0.1473;0.2122;
1057.5000;0.1465;0.2170;
1057.8000;0.1490;0.2289;
1058.1000;0.1457;0.2194;
1058.4000;0.1481;0.2241;
1058.7000;0.1506;0.2241;
1059.0000;0.1400;0.1979;
1059.3000;0.1473;0.2170;
1059.6000;0.1441;0.2146;
1059.9000;0.1563;0.2337;
1060.2000;0.1473;0.2146;
1060.5000;0.1465;0.2098;
1060.8000;0.1449;0.2075;
1061.1000;0.1481;0.2170;
1061.4000;0.1498;0.2241;
1061.7000;0.1490;0.2241;
1062.0000;0.1498;0.2194;
1062.3000;0.1481;0.2194;
1062.6000;0.1481;0.2313;
1062.9000;0.1481;0.2289;
1063.2000;0.1481;0.2289;
1063.5000;0.1368;0.1908;
1063.8000;0.1465;0.2098;
1064.1000;0.1400;0.1931;
1064.4000;0.1457;0.2122;
1064.7000;0.1490;0.2122;
1065.0000;0.1490;0.2003;
1065.3000;0.1506;0.2098;
1065.6000;0.1481;0.2003;
1065.9000;0.1465;0.2098;
1066.2000;0.1490;0.2170;
1066.5000;0.1498;0.2146;
1066.8000;0.1514;0.2265;
1067.1000;0.1514;0.2313;
1067.4000;0.1457;0.2194;
1067.7000;0.1506;0.2361;
1068.0000;0.1498;0.2408;
1068.3000;0.1473;0.2337;
1068.6000;0.1506;0.2408;
1068.9000;0.1498;0.2313;
1069.2000;0.1481;0.2265;
1069.5000;0.1481;0.2241;
1069.8000;0.1433;0.2146;
1070.1000;0.1498;0.2313;
1070.4000;0.1481;0.2313;
1070.7000;0.1465;0.2313;
1071.0000;0.1425;0.2265;
1071.3000;0.1481;0.2337;
1071.6000;0.1473;0.2361;
1071.9000;0.1490;0.2361;
1072.2000;0.1473;0.2313;
1072.5000;0.1449;0.2194;
1072.8000;0.1481;0.2146;
1073.1000;0.1473;0.2122;
1073.4000;0.1490;0.2098;
1073.7000;0.1441;0.2051;
1074.0000;0.1473;0.2122;
1074.3000;0.1425;0.2027;
1074.6000;0.1465;0.2051;
1074.9000;0.1473;0.2098;
1075.2000;0.1425;0.1955;
1075.5000;0.1465;0.2051;
1075.8000;0.1473;0.2146;
1076.1000;0.1465;0.2075;
1076.4000;0.1498;0.2122;
1076.7000;0.1481;0.2241;
1077.0000;0.1473;0.2241;
1077.3000;0.1498;0.2313;
1077.6000;0.1490;0.2218;
1077.9000;0.1490;0.2170;
1078.2000;0.1538;0.2289;
1078.5000;0.1563;0.2337;
1078.8000;0.1473;0.2098;
1079.1000;0.1465;0.2098;
1079.4000;0.1481;0.2122;
1079.7000;0.1498;0.2218;
1080.0000;0.1473;0.2170;
1080.3000;0.1473;0.2146;
1080.6000;0.1473;0.2146;
1080.9000;0.1473;0.2170;
1081.2000;0.1498;0.2313;
1081.5000;0.1473;0.2265;
1081.8000;0.1473;0.2313;
1082.1000;0.1522;0.2504;
1082.4000;0.1506;0.2432;
1082.7000;0.1498;0.2408;
1083.0000;0.1490;0.2456;
1083.3000;0.1473;0.2432;
1083.6000;0.1481;0.2480;
1083.9000;0.1465;0.2432;
1084.2000;0.1473;0.2480;
1084.5000;0.1433;0.2289;
1084.8000;0.1547;0.2504;
1085.1000;0.1563;0.2599;
1085.4000;0.1481;0.2432;
1085.7000;0.1457;0.2385;
1086.0000;0.1473;0.2385;
1086.3000;0.1481;0.2385;
1086.6000;0.1457;0.2289;
1086.9000;0.1465;0.2313;
1087.2000;0.1587;0.2718;
1087.5000;0.1441;0.2337;
1087.8000;0.1490;0.2456;
1088.1000;0.1498;0.2432;
1088.4000;0.1449;0.2337;
1088.7000;0.1400;0.2122;
1089.0000;0.1498;0.2432;
1089.3000;0.1465;0.2337;
1089.6000;0.1498;0.2337;
1089.9000;0.1490;0.2337;
1090.2000;0.1481;0.2313;
1090.5000;0.1465;0.2289;
1090.8000;0.1449;0.2313;
1091.1000;0.1473;0.2361;
1091.4000;0.1473;0.2241;
1091.7000;0.1408;0.2003;
1092.0000;0.1473;0.2170;
1092.3000;0.1457;0.2122;
1092.6000;0.1538;0.2289;
1092.9000;0.1465;0.2122;
1093.2000;0.1473;0.2122;
1093.5000;0.1498;0.2122;
1093.8000;0.1481;0.2146;
1094.1000;0.1449;0.2003;
1094.4000;0.1481;0.2122;
1094.7000;0.1490;0.2098;
1095.0000;0.1425;0.1979;
1095.3000;0.1490;0.2170;
1095.6000;0.1490;0.2075;
1095.9000;0.1530;0.2170;
1096.2000;0.1481;0.1979;
1096.5000;0.1473;0.1955;
1096.8000;0.1473;0.1836;
1097.1000;0.1490;0.1979;
1097.4000;0.1490;0.1955;
1097.7000;0.1457;0.1860;
1098.0000;0.1473;0.1908;
1098.3000;0.1473;0.1812;
1098.6000;0.1481;0.1908;
1098.9000;0.1555;0.2146;
1099.2000;0.1490;0.2051;
1099.5000;0.1465;0.2098;
1099.8000;0.1522;0.2265;
1100.1000;0.1498;0.2241;
1100.4000;0.1506;0.2241;
1100.7000;0.1473;0.2122;
1101.0000;0.1481;0.2289;
1101.3000;0.1473;0.2241;
1101.6000;0.1490;0.2313;
1101.9000;0.1457;0.2194;
1102.2000;0.1490;0.2241;
1102.5000;0.1490;0.2122;
1102.8000;0.1416;0.1955;
1103.1000;0.1473;0.2075;
1103.4000;0.1465;0.2146;
1103.7000;0.1473;0.2098;
1104.0000;0.1425;0.1955;
1104.3000;0.1498;0.2170;
1104.6000;0.1465;0.2098;
1104.9000;0.1481;0.2194;
1105.2000;0.1522;0.2194;
1105.5000;0.1473;0.2027;
1105.8000;0.1473;0.2051;
1106.1000;0.1465;0.2146;
1106.4000;0.1473;0.2241;
1106.7000;0.1473;0.2170;
1107.0000;0.1498;0.2218;
1107.3000;0.1473;0.2289;
1107.6000;0.1473;0.2313;
1107.9000;0.1473;0.2289;
1108.2000;0.1465;0.2241;
1108.5000;0.1498;0.2218;
1108.8000;0.1416;0.2027;
1109.1000;0.1595;0.2456;
1109.4000;0.1481;0.2146;
1109.7000;0.1473;0.2218;
1110.0000;0.1457;0.2218;
1110.3000;0.1465;0.2265;
1110.6000;0.1473;0.2313;
1110.9000;0.1498;0.2385;
1111.2000;0.1400;0.2051;
1111.5000;0.1473;0.2241;
1111.8000;0.1465;0.2265;
1112.1000;0.1473;0.2241;
1112.4000;0.1473;0.2337;
1112.7000;0.1457;0.2289;
1113.0000;0.1481;0.2265;
1113.3000;0.1473;0.2265;
1113.6000;0.1473;0.2313;
1113.9000;0.1473;0.2432;
1114.2000;0.1416;0.2218;
1114.5000;0.1465;0.2385;
1114.8000;0.1530;0.2504;
1115.1000;0.1473;0.2456;
1115.4000;0.1490;0.2456;
1115.7000;0.1498;0.2504;
1116.0000;0.1465;0.2385;
1116.3000;0.1481;0.2337;
1116.6000;0.1465;0.2265;
1116.9000;0.1490;0.2361;
1117.2000;0.1481;0.2337;
1117.5000;0.1465;0.2289;
1117.8000;0.1473;0.2313;
1118.1000;0.1481;0.2265;
1118.4000;0.1473;0.2194;
1118.7000;0.1457;0.2098;
1119.0000;0.1555;0.2432;
1119.3000;0.1465;0.2194;
1119.6000;0.1490;0.2265;
1119.9000;0.1457;0.2218;
1120.2000;0.1490;0.2313;
1120.5000;0.1514;0.2337;
1120.8000;0.1465;0.2170;
1121.1000;0.1563;0.2361;
1121.4000;0.1351;0.1717;
1121.7000;0.1498;0.2027;
1122.0000;0.1498;0.2027;
1122.3000;0.1481;0.1955;
1122.6000;0.1481;0.2003;
1122.9000;0.1514;0.2027;
1123.2000;0.1490;0.1979;
1123.5000;0.1473;0.1931;
1123.8000;0.1449;0.1812;
1124.1000;0.1473;0.1860;
1124.4000;0.1465;0.1955;
1124.7000;0.1441;0.2051;
1125.0000;0.1473;0.2170;
1125.3000;0.1473;0.2265;
1125.6000;0.1473;0.2241;
1125.9000;0.1473;0.2170;
1126.2000;0.1465;0.2194;
1126.5000;0.1498;0.2265;
1126.8000;0.1473;0.2218;
1127.1000;0.1457;0.2194;
1127.4000;0.1481;0.2218;
1127.7000;0.1473;0.2098;
1128.0000;0.1449;0.2051;
1128.3000;0.1481;0.2146;
1128.6000;0.1490;0.2146;
1128.9000;0.1359;0.1788;
1129.2000;0.1473;0.2075;
1129.5000;0.1449;0.2027;
1129.8000;0.1473;0.2051;
1130.1000;0.1465;0.2075;
1130.4000;0.1465;0.2051;
1130.7000;0.1514;0.2122;
1131.0000;0.1473;0.2051;
1131.3000;0.1481;0.2027;
1131.6000;0.1465;0.1979;
1131.9000;0.1481;0.2075;
1132.2000;0.1457;0.2027;
1132.5000;0.1473;0.2027;
1132.8000;0.1457;0.1884;
1133.1000;0.1481;0.1884;
1133.4000;0.1481;0.1908;
1133.7000;0.1498;0.1931;
1134.0000;0.1425;0.1741;
1134.3000;0.1457;0.1836;
1134.6000;0.1465;0.1908;
1134.9000;0.1457;0.1884;
1135.2000;0.1481;0.1884;
1135.5000;0.1473;0.1884;
1135.8000;0.1490;0.1979;
1136.1000;0.1465;0.2003;
1136.4000;0.1595;0.2265;
1136.7000;0.1473;0.1955;
1137.0000;0.1481;0.1955;
1137.3000;0.1481;0.2098;
1137.6000;0.1481;0.2098;
1137.9000;0.1522;0.2265;
1138.2000;0.1522;0.2218;
1138.5000;0.1473;0.2003;
1138.8000;0.1595;0.2361;
1139.1000;0.1490;0.2122;
1139.4000;0.1481;0.2146;
1139.7000;0.1498;0.2146;
1140.0000;0.1481;0.2122;
1140.3000;0.1433;0.2003;
1140.6000;0.1498;0.2146;
1140.9000;0.1449;0.2075;
1141.2000;0.1481;0.2194;
1141.5000;0.1481;0.2194;
1141.8000;0.1481;0.2146;
1142.1000;0.1416;0.2122;
1142.4000;0.1514;0.2408;
1142.7000;0.1481;0.2337;
1143.0000;0.1473;0.2170;
1143.3000;0.1514;0.2313;
1143.6000;0.1473;0.2241;
1143.9000;0.1538;0.2385;
1144.2000;0.1351;0.1836;
1144.5000;0.1465;0.2075;
1144.8000;0.1498;0.2098;
1145.1000;0.1425;0.1955;
1145.4000;0.1441;0.1931;
1145.7000;0.1465;0.2098;
1146.0000;0.1481;0.2122;
1146.3000;0.1465;0.2098;
1146.6000;0.1473;0.2003;
1146.9000;0.1473;0.2075;
1147.2000;0.1490;0.2051;
1147.5000;0.1481;0.2098;
1147.8000;0.1514;0.2146;
1148.1000;0.1522;0.2170;
1148.4000;0.1490;0.2075;
1148.7000;0.1481;0.2027;
1149.0000;0.1473;0.2027;
1149.3000;0.1457;0.1931;
1149.6000;0.1465;0.1884;
1149.9000;0.1490;0.1979;
1150.2000;0.1473;0.1979;
1150.5000;0.1490;0.2098;
1150.8000;0.1506;0.2122;
1151.1000;0.1351;0.1693;
1151.4000;0.1481;0.2051;
1151.7000;0.1490;0.2098;
1152.0000;0.1481;0.2122;
1152.3000;0.1473;0.2146;
1152.6000;0.1473;0.2218;
1152.9000;0.1522;0.2313;
1153.2000;0.1400;0.1931;
1153.5000;0.1481;0.2170;
1153.8000;0.1506;0.2194;
1154.1000;0.1449;0.2027;
1154.4000;0.1498;0.2146;
1154.7000;0.1490;0.2122;
1155.0000;0.1490;0.2098;
1155.3000;0.1481;0.2098;
1155.6000;0.1498;0.2122;
1155.9000;0.1522;0.2241;
1156.2000;0.1481;0.2218;
1156.5000;0.1481;0.2170;
1156.8000;0.1433;0.1979;
1157.1000;0.1473;0.2146;
1157.4000;0.1498;0.2194;
1157.7000;0.1498;0.2122;
1158.0000;0.1449;0.2051;
1158.3000;0.1457;0.2003;
1158.6000;0.1465;0.2003;
1158.9000;0.1416;0.1860;
1159.2000;0.1498;0.2051;
1159.5000;0.1425;0.1836;
1159.8000;0.1490;0.1979;
1160.1000;0.1465;0.1955;
1160.4000;0.1473;0.1955;
1160.7000;0.1506;0.1931;
1161.0000;0.1481;0.1884;
1161.3000;0.1400;0.1669;
1161.6000;0.1473;0.1955;
1161.9000;0.1441;0.1884;
1162.2000;0.1490;0.1979;
1162.5000;0.1457;0.1884;
1162.8000;0.1530;0.2098;
1163.1000;0.1457;0.1908;
1163.4000;0.1481;0.1955;
1163.7000;0.1481;0.2003;
1164.0000;0.1481;0.2098;
1164.3000;0.1481;0.2051;
1164.6000;0.1473;0.2051;
1164.9000;0.1441;0.1884;
1165.2000;0.1376;0.1645;
1165.5000;0.1498;0.1931;
1165.8000;0.1425;0.1812;
1166.1000;0.1563;0.2218;
1166.4000;0.1425;0.1931;
1166.7000;0.1506;0.2051;
1167.0000;0.1514;0.2027;
1167.3000;0.1530;0.2003;
1167.6000;0.1490;0.1979;
1167.9000;0.1457;0.1955;
1168.2000;0.1465;0.2027;
1168.5000;0.1481;0.2075;
1168.8000;0.1473;0.2194;
1169.1000;0.1481;0.2122;
1169.4000;0.1465;0.2098;
1169.7000;0.1506;0.2218;
1170.0000;0.1481;0.2027;
1170.3000;0.1465;0.2075;
1170.6000;0.1473;0.2003;
1170.9000;0.1490;0.1979;
1171.2000;0.1498;0.2051;
1171.5000;0.1490;0.1979;
1171.8000;0.1465;0.1908;
1172.1000;0.1481;0.2003;
1172.4000;0.1465;0.1908;
1172.7000;0.1490;0.1955;
1173.0000;0.1457;0.1836;
1173.3000;0.1481;0.1884;
1173.6000;0.1481;0.1908;
1173.9000;0.1473;0.1908;
1174.2000;0.1465;0.1931;
1174.5000;0.1481;0.2003;
1174.8000;0.1514;0.2075;
1175.1000;0.1465;0.1955;
1175.4000;0.1514;0.1979;
1175.7000;0.1498;0.1979;
1176.0000;0.1490;0.2051;
1176.3000;0.1457;0.2027;
1176.6000;0.1473;0.2027;
1176.9000;0.1465;0.2003;
1177.2000;0.1441;0.1931;
1177.5000;0.1490;0.1884;
1177.8000;0.1457;0.1645;
1178.1000;0.1498;0.1788;
1178.4000;0.1506;0.1931;
1178.7000;0.1465;0.1931;
1179.0000;0.1498;0.2122;
1179.3000;0.1490;0.2075;
1179.6000;0.1473;0.1955;
1179.9000;0.1465;0.1908;
1180.2000;0.1506;0.2075;
1180.5000;0.1425;0.1717;
1180.8000;0.1490;0.1860;
1181.1000;0.1490;0.1788;
1181.4000;0.1498;0.1931;
1181.7000;0.1490;0.1931;
1182.0000;0.1465;0.1931;
1182.3000;0.1481;0.2051;
1182.6000;0.1506;0.2075;
1182.9000;0.1465;0.1955;
1183.2000;0.1425;0.1908;
1183.5000;0.1441;0.1955;
1183.8000;0.1465;0.2098;
1184.1000;0.1506;0.2098;
1184.4000;0.1530;0.2194;
1184.7000;0.1449;0.2075;
1185.0000;0.1490;0.2146;
1185.3000;0.1481;0.2098;
1185.6000;0.1490;0.2098;
1185.9000;0.1481;0.2051;
1186.2000;0.1441;0.2027;
1186.5000;0.1473;0.2098;
1186.8000;0.1465;0.2003;
1187.1000;0.1498;0.2122;
1187.4000;0.1481;0.2027;
1187.7000;0.1368;0.1765;
1188.0000;0.1416;0.1788;
1188.3000;0.1465;0.1931;
1188.6000;0.1449;0.1884;
1188.9000;0.1498;0.1979;
1189.2000;0.1473;0.1884;
1189.5000;0.1465;0.1908;
1189.8000;0.1490;0.1979;
1190.1000;0.1514;0.2003;
1190.4000;0.1481;0.1979;
1190.7000;0.1400;0.1765;
1191.0000;0.1473;0.2051;
1191.3000;0.1498;0.2122;
1191.6000;0.1481;0.2075;
1191.9000;0.1490;0.2075;
1192.2000;0.1473;0.1955;
1192.5000;0.1473;0.1979;
1192.8000;0.1473;0.2027;
1193.1000;0.1465;0.2027;
1193.4000;0.1465;0.2098;
1193.7000;0.1473;0.2194;
1194.0000;0.1473;0.2241;
1194.3000;0.1490;0.2361;
1194.6000;0.1481;0.2289;
1194.9000;0.1481;0.2241;
1195.2000;0.1425;0.2051;
1195.5000;0.1457;0.2098;
1195.8000;0.1481;0.2194;
1196.1000;0.1595;0.2575;
1196.4000;0.1465;0.2265;
1196.7000;0.1473;0.2241;
1197.0000;0.1490;0.2265;
1197.3000;0.1449;0.2170;
1197.6000;0.1490;0.2194;
1197.9000;0.1498;0.2241;
1198.2000;0.1359;0.1836;
1198.5000;0.1490;0.2146;
1198.8000;0.1433;0.1979;
1199.1000;0.1465;0.2075;
1199.4000;0.1473;0.2170;
1199.7000;0.1481;0.2170;
1200.0000;0.1481;0.2122;
1200.3000;0.1441;0.1955;
1200.6000;0.1465;0.2027;
1200.9000;0.1490;0.2051;
1201.2000;0.1359;0.1693;
1201.5000;0.1449;0.1955;
1201.8000;0.1481;0.1979;
1202.1000;0.1506;0.2098;
1202.4000;0.1506;0.2122;
1202.7000;0.1571;0.2289;
1203.0000;0.1473;0.2075;
1203.3000;0.1465;0.2170;
1203.6000;0.1481;0.2241;
1203.9000;0.1506;0.2170;
1204.2000;0.1522;0.2194;
1204.5000;0.1481;0.2051;
1204.8000;0.1465;0.1955;
1205.1000;0.1490;0.2051;
1205.4000;0.1473;0.2027;
1205.7000;0.1530;0.2218;
1206.0000;0.1490;0.2075;
1206.3000;0.1595;0.2385;
1206.6000;0.1465;0.2122;
1206.9000;0.1490;0.2146;
1207.2000;0.1481;0.2098;
1207.5000;0.1473;0.2051;
1207.8000;0.1490;0.2027;
1208.1000;0.1465;0.2003;
1208.4000;0.1490;0.2075;
1208.7000;0.1490;0.2122;
1209.0000;0.1506;0.2027;
1209.3000;0.1490;0.2003;
1209.6000;0.1481;0.2027;
1209.9000;0.1449;0.1979;
1210.2000;0.1490;0.2075;
1210.5000;0.1498;0.2098;
1210.8000;0.1604;0.2432;
1211.1000;0.1473;0.2146;
1211.4000;0.1498;0.2218;
1211.7000;0.1465;0.2146;
1212.0000;0.1490;0.2170;
1212.3000;0.1490;0.2241;
1212.6000;0.1506;0.2337;
1212.9000;0.1595;0.2551;
1213.2000;0.1498;0.2289;
1213.5000;0.1481;0.2337;
1213.8000;0.1473;0.2361;
1214.1000;0.1490;0.2528;
1214.4000;0.1481;0.2385;
1214.7000;0.1465;0.2337;
1215.0000;0.1498;0.2385;
1215.3000;0.1473;0.2385;
1215.6000;0.1498;0.2408;
1215.9000;0.1425;0.2313;
1216.2000;0.1490;0.2385;
1216.5000;0.1490;0.2313;
1216.8000;0.1449;0.2361;
1217.1000;0.1473;0.2289;
1217.4000;0.1481;0.2218;
1217.7000;0.1473;0.2146;
1218.0000;0.1465;0.2098;
1218.3000;0.1490;0.2146;
1218.6000;0.1481;0.2098;
1218.9000;0.1490;0.2194;
1219.2000;0.1465;0.2194;
1219.5000;0.1473;0.2218;
1219.8000;0.1473;0.2241;
1220.1000;0.1490;0.2241;
1220.4000;0.1481;0.2241;
1220.7000;0.1481;0.2265;
1221.0000;0.1465;0.2170;
1221.3000;0.1490;0.2098;
1221.6000;0.1465;0.2051;
1221.9000;0.1449;0.1955;
1222.2000;0.1441;0.1931;
1222.5000;0.1481;0.2075;
1222.8000;0.1538;0.2265;
1223.1000;0.1490;0.2146;
1223.4000;0.1481;0.2146;
1223.7000;0.1457;0.2146;
1224.0000;0.1498;0.2194;
1224.3000;0.1481;0.2098;
1224.6000;0.1490;0.2146;
1224.9000;0.1457;0.2027;
1225.2000;0.1530;0.2146;
1225.5000;0.1473;0.2027;
1225.8000;0.1498;0.2051;
1226.1000;0.1433;0.1836;
1226.4000;0.1547;0.2170;
1226.7000;0.1457;0.1908;
1227.0000;0.1449;0.1955;
1227.3000;0.1408;0.1908;
1227.6000;0.1473;0.2075;
1227.9000;0.1449;0.1908;
1228.2000;0.1481;0.1884;
1228.5000;0.1473;0.1908;
1228.8000;0.1555;0.2146;
1229.1000;0.1522;0.2003;
1229.4000;0.1481;0.1884;
1229.7000;0.1473;0.1836;
1230.0000;0.1498;0.1908;
1230.3000;0.1473;0.1908;
1230.6000;0.1457;0.1884;
1230.9000;0.1481;0.1931;
1231.2000;0.1481;0.1931;
1231.5000;0.1490;0.2027;
1231.8000;0.1473;0.1955;
1232.1000;0.1498;0.2027;
1232.4000;0.1481;0.2003;
1232.7000;0.1473;0.2027;
1233.0000;0.1473;0.2027;
1233.3000;0.1465;0.1931;
1233.6000;0.1490;0.2027;
1233.9000;0.1522;0.2051;
1234.2000;0.1490;0.2003;
1234.5000;0.1481;0.2051;
1234.8000;0.1473;0.2003;
1235.1000;0.1481;0.1979;
1235.4000;0.1473;0.2051;
1235.7000;0.1465;0.2075;
1236.0000;0.1490;0.2122;
1236.3000;0.1481;0.2027;
1236.6000;0.1481;0.2003;
1236.9000;0.1490;0.1979;
1237.2000;0.1481;0.1908;
1237.5000;0.1359;0.1645;
1237.8000;0.1490;0.2027;
1238.1000;0.1490;0.2122;
1238.4000;0.1473;0.2122;
1238.7000;0.1473;0.2122;
1239.0000;0.1465;0.2146;
1239.3000;0.1490;0.2170;
1239.6000;0.1481;0.2098;
1239.9000;0.1425;0.1979;
1240.2000;0.1490;0.2146;
1240.5000;0.1530;0.2218;
1240.8000;0.1498;0.2146;
1241.1000;0.1538;0.2241;
1241.4000;0.1481;0.2003;
1241.7000;0.1465;0.1955;
1242.0000;0.1514;0.2098;
1242.3000;0.1481;0.2027;
1242.6000;0.1490;0.2003;
1242.9000;0.1506;0.2051;
1243.2000;0.1498;0.2146;
1243.5000;0.1481;0.2051;
1243.8000;0.1457;0.2003;
1244.1000;0.1481;0.1979;
1244.4000;0.1465;0.1955;
1244.7000;0.1490;0.1979;
1245.0000;0.1498;0.2075;
1245.3000;0.1441;0.2027;
1245.6000;0.1555;0.2385;
1245.9000;0.1473;0.2146;
1246.2000;0.1473;0.2170;
1246.5000;0.1481;0.2170;
1246.8000;0.1490;0.2218;
1247.1000;0.1490;0.2265;
1247.4000;0.1465;0.2122;
1247.7000;0.1473;0.2146;
1248.0000;0.1490;0.2146;
1248.3000;0.1473;0.2122;
1248.6000;0.1490;0.2122;
1248.9000;0.1481;0.2098;
1249.2000;0.1465;0.2051;
1249.5000;0.1465;0.2003;
1249.8000;0.1490;0.2051;
1250.1000;0.1538;0.2194;
1250.4000;0.1465;0.2051;
1250.7000;0.1481;0.2146;
1251.0000;0.1481;0.2194;
1251.3000;0.1595;0.2504;
1251.6000;0.1481;0.2194;
1251.9000;0.1506;0.2170;
1252.2000;0.1490;0.2146;
1252.5000;0.1547;0.2218;
1252.8000;0.1481;0.2122;
1253.1000;0.1490;0.2122;
1253.4000;0.1425;0.1908;
1253.7000;0.1465;0.1979;
1254.0000;0.1457;0.1931;
1254.3000;0.1473;0.1979;
1254.6000;0.1408;0.1860;
1254.9000;0.1473;0.2051;
1255.2000;0.1465;0.2027;
1255.5000;0.1465;0.2003;
1255.8000;0.1547;0.2218;
1256.1000;0.1481;0.1955;
1256.4000;0.1481;0.2027;
1256.7000;0.1473;0.2003;
1257.0000;0.1498;0.2098;
1257.3000;0.1359;0.1860;
1257.6000;0.1490;0.2194;
1257.9000;0.1490;0.2146;
1258.2000;0.1473;0.2218;
1258.5000;0.1490;0.2265;
1258.8000;0.1481;0.2265;
1259.1000;0.1490;0.2265;
1259.4000;0.1473;0.2194;
1259.7000;0.1490;0.2098;
1260.0000;0.1547;0.2385;
1260.3000;0.1490;0.2265;
1260.6000;0.1547;0.2361;
1260.9000;0.1498;0.2194;
1261.2000;0.1473;0.2289;
1261.5000;0.1465;0.2265;
1261.8000;0.1465;0.2241;
1262.1000;0.1473;0.2218;
1262.4000;0.1481;0.2241;
1262.7000;0.1465;0.2194;
1263.0000;0.1481;0.2194;
1263.3000;0.1473;0.2122;
1263.6000;0.1457;0.2098;
1263.9000;0.1441;0.2027;
1264.2000;0.1481;0.2075;
1264.5000;0.1457;0.2003;
1264.8000;0.1473;0.2003;
1265.1000;0.1514;0.2027;
1265.4000;0.1490;0.1979;
1265.7000;0.1465;0.1955;
1266.0000;0.1490;0.2051;
1266.3000;0.1481;0.2027;
1266.6000;0.1490;0.2146;
1266.9000;0.1481;0.2218;
1267.2000;0.1457;0.2194;
1267.5000;0.1490;0.2241;
1267.8000;0.1506;0.2337;
1268.1000;0.1425;0.2170;
1268.4000;0.1481;0.2218;
1268.7000;0.1473;0.2122;
1269.0000;0.1441;0.2098;
1269.3000;0.1481;0.2122;
1269.6000;0.1416;0.1979;
1269.9000;0.1473;0.2051;
1270.2000;0.1481;0.2051;
1270.5000;0.1481;0.2051;
1270.8000;0.1473;0.2051;
1271.1000;0.1481;0.1955;
1271.4000;0.1481;0.1908;
1271.7000;0.1465;0.1908;
1272.0000;0.1473;0.1908;
1272.3000;0.1473;0.1908;
1272.6000;0.1473;0.1836;
1272.9000;0.1538;0.2122;
1273.2000;0.1433;0.1836;
1273.5000;0.1498;0.1979;
1273.8000;0.1473;0.1908;
1274.1000;0.1514;0.2075;
1274.4000;0.1490;0.1931;
1274.7000;0.1473;0.1979;
1275.0000;0.1481;0.2003;
1275.3000;0.1498;0.2122;
1275.6000;0.1490;0.1955;
1275.9000;0.1465;0.1979;
1276.2000;0.1433;0.1931;
1276.5000;0.1473;0.2003;
1276.8000;0.1473;0.1979;
1277.1000;0.1530;0.2122;
1277.4000;0.1449;0.1884;
1277.7000;0.1530;0.2098;
1278.0000;0.1473;0.1955;
1278.3000;0.1425;0.1836;
1278.6000;0.1481;0.2003;
1278.9000;0.1441;0.1860;
1279.2000;0.1490;0.2027;
1279.5000;0.1490;0.2098;
1279.8000;0.1449;0.1979;
1280.1000;0.1473;0.2075;
1280.4000;0.1473;0.2075;
1280.7000;0.1490;0.2027;
1281.0000;0.1490;0.2122;
1281.3000;0.1522;0.2241;
1281.6000;0.1481;0.2122;
1281.9000;0.1449;0.2075;
1282.2000;0.1473;0.2003;
1282.5000;0.1481;0.2003;
1282.8000;0.1506;0.2027;
1283.1000;0.1490;0.2075;
1283.4000;0.1498;0.1979;
1283.7000;0.1490;0.1931;
1284.0000;0.1490;0.2027;
1284.3000;0.1481;0.2098;
1284.6000;0.1465;0.2075;
1284.9000;0.1490;0.2075;
1285.2000;0.1457;0.1955;
1285.5000;0.1490;0.1979;
1285.8000;0.1473;0.1979;
1286.1000;0.1473;0.1931;
1286.4000;0.1498;0.1884;
1286.7000;0.1465;0.1931;
1287.0000;0.1465;0.1884;
1287.3000;0.1465;0.1860;
1287.6000;0.1481;0.1931;
1287.9000;0.1465;0.1908;
1288.2000;0.1490;0.2027;
1288.5000;0.1498;0.2098;
1288.8000;0.1465;0.2027;
1289.1000;0.1481;0.2003;
1289.4000;0.1473;0.1931;
1289.7000;0.1465;0.1979;
1290.0000;0.1359;0.1741;
1290.3000;0.1416;0.1812;
1290.6000;0.1425;0.1836;
1290.9000;0.1490;0.2003;
1291.2000;0.1473;0.2003;
1291.5000;0.1506;0.2075;
1291.8000;0.1481;0.2122;
1292.1000;0.1498;0.2122;
1292.4000;0.1473;0.2003;
1292.7000;0.1441;0.1955;
1293.0000;0.1408;0.1765;
1293.3000;0.1449;0.1884;
1293.6000;0.1465;0.1979;
1293.9000;0.1498;0.2075;
1294.2000;0.1481;0.2051;
1294.5000;0.1473;0.2075;
1294.8000;0.1481;0.2146;
1295.1000;0.1481;0.2170;
1295.4000;0.1481;0.2122;
1295.7000;0.1465;0.2098;
1296.0000;0.1457;0.2051;
1296.3000;0.1441;0.2027;
1296.6000;0.1433;0.1884;
1296.9000;0.1473;0.2003;
1297.2000;0.1465;0.1979;
1297.5000;0.1490;0.2027;
1297.8000;0.1481;0.2027;
1298.1000;0.1449;0.1955;
1298.4000;0.1457;0.1979;
1298.7000;0.1465;0.1931;
1299.0000;0.1465;0.1860;
1299.3000;0.1481;0.1836;
1299.6000;0.1465;0.1812;
1299.9000;0.1506;0.1908;
1300.2000;0.1408;0.1621;
1300.5000;0.1481;0.1860;
1300.8000;0.1425;0.1788;
1301.1000;0.1490;0.1836;
1301.4000;0.1498;0.1812;
1301.7000;0.1481;0.1908;
1302.0000;0.1473;0.1860;
1302.3000;0.1465;0.1812;
1302.6000;0.1465;0.1860;
1302.9000;0.1498;0.1884;
1303.2000;0.1465;0.1741;
1303.5000;0.1457;0.1812;
1303.8000;0.1498;0.1931;
1304.1000;0.1490;0.1979;
1304.4000;0.1498;0.2051;
1304.7000;0.1457;0.1955;
1305.0000;0.1481;0.2122;
1305.3000;0.1457;0.2146;
1305.6000;0.1425;0.2003;
1305.9000;0.1473;0.2098;
1306.2000;0.1481;0.2098;
1306.5000;0.1490;0.2146;
1306.8000;0.1514;0.2170;
1307.1000;0.1473;0.2051;
1307.4000;0.1481;0.2122;
1307.7000;0.1490;0.2122;
1308.0000;0.1563;0.2194;
1308.3000;0.1547;0.2122;
1308.6000;0.1473;0.1931;
1308.9000;0.1490;0.1884;
1309.2000;0.1481;0.1884;
1309.5000;0.1473;0.1788;
1309.8000;0.1481;0.1836;
1310.1000;0.1498;0.1836;
1310.4000;0.1457;0.1812;
1310.7000;0.1481;0.1860;
1311.0000;0.1457;0.1741;
1311.3000;0.1506;0.1812;
1311.6000;0.1481;0.1836;
1311.9000;0.1530;0.2003;
1312.2000;0.1506;0.1931;
1312.5000;0.1490;0.1931;
1312.8000;0.1490;0.1979;
1313.1000;0.1514;0.2051;
1313.4000;0.1473;0.1931;
1313.7000;0.1465;0.1812;
1314.0000;0.1530;0.2098;
1314.3000;0.1449;0.1979;
1314.6000;0.1481;0.2122;
1314.9000;0.1481;0.2170;
1315.2000;0.1530;0.2289;
1315.5000;0.1473;0.2122;
1315.8000;0.1498;0.2122;
1316.1000;0.1473;0.2075;
1316.4000;0.1481;0.2098;
1316.7000;0.1498;0.1979;
1317.0000;0.1498;0.2075;
1317.3000;0.1530;0.2194;
1317.6000;0.1555;0.2218;
1317.9000;0.1498;0.2027;
1318.2000;0.1498;0.1955;
1318.5000;0.1473;0.2003;
1318.8000;0.1498;0.2051;
1319.1000;0.1465;0.1979;
1319.4000;0.1538;0.2194;
1319.7000;0.1441;0.2027;
1320.0000;0.1457;0.2122;
1320.3000;0.1481;0.2122;
1320.6000;0.1473;0.2098;
1320.9000;0.1481;0.2170;
1321.2000;0.1457;0.2146;
1321.5000;0.1481;0.2146;
1321.8000;0.1473;0.2122;
1322.1000;0.1473;0.2098;
1322.4000;0.1481;0.2122;
1322.7000;0.1473;0.2146;
1323.0000;0.1449;0.2051;
1323.3000;0.1530;0.2146;
1323.6000;0.1481;0.2051;
1323.9000;0.1490;0.2003;
1324.2000;0.1408;0.1836;
1324.5000;0.1481;0.2027;
1324.8000;0.1473;0.2075;
1325.1000;0.1473;0.2075;
1325.4000;0.1465;0.2027;
1325.7000;0.1481;0.2098;
1326.0000;0.1473;0.2122;
1326.3000;0.1465;0.2098;
1326.6000;0.1473;0.2075;
1326.9000;0.1481;0.2146;
1327.2000;0.1473;0.2098;
1327.5000;0.1473;0.2122;
1327.8000;0.1481;0.2146;
1328.1000;0.1457;0.2146;
1328.4000;0.1481;0.2170;
1328.7000;0.1490;0.2194;
1329.0000;0.1449;0.2146;
1329.3000;0.1465;0.2218;
1329.6000;0.1481;0.2241;
1329.9000;0.1490;0.2265;
1330.2000;0.1473;0.2337;
1330.5000;0.1473;0.2265;
1330.8000;0.1481;0.2241;
1331.1000;0.1481;0.2218;
1331.4000;0.1473;0.2194;
1331.7000;0.1571;0.2504;
1332.0000;0.1457;0.2146;
1332.3000;0.1490;0.2170;
1332.6000;0.1481;0.2241;
1332.9000;0.1514;0.2313;
1333.2000;0.1498;0.2241;
1333.5000;0.1473;0.2146;
1333.8000;0.1547;0.2241;
1334.1000;0.1490;0.1979;
1334.4000;0.1441;0.1884;
1334.7000;0.1498;0.1979;
1335.0000;0.1522;0.2075;
1335.3000;0.1449;0.1884;
1335.6000;0.1465;0.1908;
1335.9000;0.1473;0.1884;
1336.2000;0.1498;0.2027;
1336.5000;0.1498;0.2146;
1336.8000;0.1457;0.2075;
1337.1000;0.1530;0.2194;
1337.4000;0.1473;0.1931;
1337.7000;0.1604;0.2408;
1338.0000;0.1481;0.2051;
1338.3000;0.1481;0.2122;
1338.6000;0.1473;0.2170;
1338.9000;0.1530;0.2241;
1339.2000;0.1595;0.2456;
1339.5000;0.1408;0.1908;
1339.8000;0.1498;0.2098;
1340.1000;0.1465;0.1979;
1340.4000;0.1425;0.1836;
1340.7000;0.1481;0.2027;
1341.0000;0.1555;0.2289;
1341.3000;0.1449;0.2027;
1341.6000;0.1481;0.2098;
1341.9000;0.1473;0.2146;
1342.2000;0.1465;0.2218;
1342.5000;0.1473;0.2146;
1342.8000;0.1498;0.2241;
1343.1000;0.1481;0.2194;
1343.4000;0.1490;0.2194;
1343.7000;0.1392;0.1931;
1344.0000;0.1481;0.2170;
1344.3000;0.1473;0.2098;
1344.6000;0.1490;0.2122;
1344.9000;0.1465;0.2003;
1345.2000;0.1465;0.1979;
1345.5000;0.1481;0.2075;
1345.8000;0.1449;0.2027;
1346.1000;0.1465;0.2051;
1346.4000;0.1457;0.1979;
1346.7000;0.1498;0.2075;
1347.0000;0.1465;0.2027;
1347.3000;0.1465;0.2027;
1347.6000;0.1465;0.2051;
1347.9000;0.1465;0.2098;
1348.2000;0.1514;0.2194;
1348.5000;0.1481;0.2098;
1348.8000;0.1563;0.2385;
1349.1000;0.1473;0.2218;
1349.4000;0.1481;0.2241;
1349.7000;0.1481;0.2241;
1350.0000;0.1506;0.2361;
1350.3000;0.1481;0.2337;
1350.6000;0.1490;0.2313;
1350.9000;0.1481;0.2241;
1351.2000;0.1498;0.2313;
1351.5000;0.1490;0.2241;
1351.8000;0.1490;0.2170;
1352.1000;0.1620;0.2480;
1352.4000;0.1465;0.2027;
1352.7000;0.1481;0.2051;
1353.0000;0.1514;0.2122;
1353.3000;0.1473;0.2027;
1353.6000;0.1481;0.2146;
1353.9000;0.1441;0.2051;
1354.2000;0.1473;0.2170;
1354.5000;0.1490;0.2241;
1354.8000;0.1473;0.2122;
1355.1000;0.1514;0.2194;
1355.4000;0.1481;0.2098;
1355.7000;0.1498;0.2027;
1356.0000;0.1506;0.2075;
1356.3000;0.1498;0.2003;
1356.6000;0.1490;0.1979;
1356.9000;0.1555;0.2194;
1357.2000;0.1498;0.2075;
1357.5000;0.1473;0.2027;
1357.8000;0.1490;0.2075;
1358.1000;0.1490;0.2051;
1358.4000;0.1465;0.2003;
1358.7000;0.1457;0.1955;
1359.0000;0.1498;0.2051;
1359.3000;0.1481;0.1955;
1359.6000;0.1506;0.2027;
1359.9000;0.1481;0.2051;
1360.2000;0.1473;0.2051;
1360.5000;0.1481;0.2075;
1360.8000;0.1498;0.2194;
1361.1000;0.1498;0.2098;
1361.4000;0.1481;0.2075;
1361.7000;0.1457;0.2003;
1362.0000;0.1449;0.2027;
1362.3000;0.1506;0.2146;
1362.6000;0.1473;0.2051;
1362.9000;0.1473;0.2051;
1363.2000;0.1522;0.2194;
1363.5000;0.1481;0.2075;
1363.8000;0.1490;0.2098;
1364.1000;0.1465;0.2027;
1364.4000;0.1465;0.2003;
1364.7000;0.1465;0.1979;
1365.0000;0.1490;0.1955;
1365.3000;0.1498;0.2027;
1365.6000;0.1457;0.1908;
1365.9000;0.1473;0.1931;
1366.2000;0.1498;0.2003;
1366.5000;0.1449;0.1931;
1366.8000;0.1498;0.2003;
1367.1000;0.1530;0.2146;
1367.4000;0.1481;0.2051;
1367.7000;0.1522;0.2098;
1368.0000;0.1465;0.1884;
1368.3000;0.1481;0.1955;
1368.6000;0.1514;0.2003;
1368.9000;0.1490;0.1955;
1369.2000;0.1457;0.1860;
1369.5000;0.1481;0.1812;
1369.8000;0.1449;0.1765;
1370.1000;0.1449;0.1788;
1370.4000;0.1425;0.1765;
1370.7000;0.1473;0.1908;
1371.0000;0.1514;0.2027;
1371.3000;0.1530;0.2075;
1371.6000;0.1368;0.1741;
1371.9000;0.1425;0.1884;
1372.2000;0.1473;0.2051;
1372.5000;0.1490;0.2122;
1372.8000;0.1498;0.2075;
1373.1000;0.1449;0.1836;
1373.4000;0.1506;0.1955;
1373.7000;0.1465;0.1884;
1374.0000;0.1449;0.1860;
1374.3000;0.1490;0.1955;
1374.6000;0.1465;0.1884;
1374.9000;0.1465;0.1908;
1375.2000;0.1473;0.1979;
1375.5000;0.1473;0.2003;
1375.8000;0.1473;0.2003;
1376.1000;0.1481;0.2003;
1376.4000;0.1498;0.2075;
1376.7000;0.1506;0.2122;
1377.0000;0.1490;0.2075;
1377.3000;0.1473;0.2003;
1377.6000;0.1490;0.2122;
1377.9000;0.1481;0.2122;
1378.2000;0.1481;0.2075;
1378.5000;0.1457;0.2075;
1378.8000;0.1473;0.2146;
1379.1000;0.1481;0.2170;
1379.4000;0.1473;0.2170;
1379.7000;0.1416;0.1931;
1380.0000;0.1473;0.2027;
1380.3000;0.1465;0.1931;
1380.6000;0.1490;0.1955;
1380.9000;0.1449;0.1884;
1381.2000;0.1449;0.1931;
1381.5000;0.1473;0.2003;
1381.8000;0.1481;0.2051;
1382.1000;0.1490;0.2075;
1382.4000;0.1481;0.1979;
1382.7000;0.1473;0.2003;
1383.0000;0.1473;0.2075;
1383.3000;0.1481;0.2051;
1383.6000;0.1498;0.2122;
1383.9000;0.1481;0.2075;
1384.2000;0.1368;0.1836;
1384.5000;0.1473;0.2075;
1384.8000;0.1506;0.2170;
1385.1000;0.1457;0.2027;
1385.4000;0.1481;0.2075;
1385.7000;0.1538;0.2241;
1386.0000;0.1490;0.2075;
1386.3000;0.1506;0.2194;
1386.6000;0.1465;0.2098;
1386.9000;0.1498;0.2194;
1387.2000;0.1368;0.1812;
1387.5000;0.1473;0.2075;
1387.8000;0.1473;0.2098;
1388.1000;0.1473;0.2027;
1388.4000;0.1522;0.2075;
1388.7000;0.1498;0.2027;
1389.0000;0.1473;0.2051;
1389.3000;0.1465;0.2003;
1389.6000;0.1498;0.2051;
1389.9000;0.1498;0.1979;
1390.2000;0.1433;0.1860;
1390.5000;0.1465;0.1979;
1390.8000;0.1400;0.1765;
1391.1000;0.1547;0.2170;
1391.4000;0.1522;0.2170;
1391.7000;0.1530;0.2218;
1392.0000;0.1490;0.2051;
1392.3000;0.1612;0.2337;
1392.6000;0.1481;0.2027;
1392.9000;0.1425;0.1908;
1393.2000;0.1498;0.2075;
1393.5000;0.1490;0.2027;
1393.8000;0.1457;0.1955;
1394.1000;0.1425;0.1908;
1394.4000;0.1481;0.2051;
1394.7000;0.1481;0.2098;
1395.0000;0.1490;0.2170;
1395.3000;0.1481;0.2146;
1395.6000;0.1465;0.2241;
1395.9000;0.1473;0.2241;
1396.2000;0.1465;0.2146;
1396.5000;0.1481;0.2122;
1396.8000;0.1465;0.2146;
1397.1000;0.1490;0.2075;
1397.4000;0.1490;0.2098;
1397.7000;0.1433;0.1931;
1398.0000;0.1473;0.2075;
1398.3000;0.1457;0.2122;
1398.6000;0.1465;0.2075;
1398.9000;0.1457;0.2051;
1399.2000;0.1481;0.2194;
1399.5000;0.1490;0.2241;
1399.8000;0.1506;0.2289;
