time/ms;Fluo/V;P700 deltaI/I x10³;
-199.8000;0.1547;0.3124;
-199.5000;0.1555;0.3148;
-199.2000;0.1563;0.3171;
-198.9000;0.1563;0.3124;
-198.6000;0.1563;0.3100;
-198.3000;0.1571;0.3100;
-198.0000;0.1604;0.3243;
-197.7000;0.1547;0.3076;
-197.4000;0.1571;0.3076;
-197.1000;0.1579;0.3124;
-196.8000;0.1563;0.3028;
-196.5000;0.1563;0.3005;
-196.2000;0.1490;0.2838;
-195.9000;0.1538;0.3052;
-195.6000;0.1620;0.3314;
-195.3000;0.1563;0.3148;
-195.0000;0.1555;0.3195;
-194.7000;0.1490;0.3076;
-194.4000;0.1563;0.3195;
-194.1000;0.1538;0.3052;
-193.8000;0.1571;0.3148;
-193.5000;0.1465;0.2838;
-193.2000;0.1563;0.3124;
-192.9000;0.1538;0.3100;
-192.6000;0.1547;0.3076;
-192.3000;0.1547;0.3052;
-192.0000;0.1563;0.3148;
-191.7000;0.1555;0.3267;
-191.4000;0.1538;0.3219;
-191.1000;0.1628;0.3434;
-190.8000;0.1555;0.3195;
-190.5000;0.1563;0.3171;
-190.2000;0.1547;0.3171;
-189.9000;0.1555;0.3171;
-189.6000;0.1571;0.3171;
-189.3000;0.1563;0.3148;
-189.0000;0.1571;0.3243;
-188.7000;0.1587;0.3243;
-188.4000;0.1538;0.3100;
-188.1000;0.1555;0.3100;
-187.8000;0.1571;0.3171;
-187.5000;0.1490;0.2957;
-187.2000;0.1538;0.3100;
-186.9000;0.1555;0.3124;
-186.6000;0.1579;0.3219;
-186.3000;0.1547;0.3100;
-186.0000;0.1547;0.3100;
-185.7000;0.1530;0.3148;
-185.4000;0.1547;0.3219;
-185.1000;0.1579;0.3267;
-184.8000;0.1563;0.3243;
-184.5000;0.1547;0.3100;
-184.2000;0.1563;0.3100;
-183.9000;0.1555;0.3171;
-183.6000;0.1547;0.3148;
-183.3000;0.1563;0.3171;
-183.0000;0.1555;0.3148;
-182.7000;0.1563;0.3243;
-182.4000;0.1555;0.3148;
-182.1000;0.1571;0.3124;
-181.8000;0.1498;0.2957;
-181.5000;0.1555;0.3124;
-181.2000;0.1555;0.3100;
-180.9000;0.1555;0.3100;
-180.6000;0.1652;0.3458;
-180.3000;0.1563;0.3195;
-180.0000;0.1571;0.3243;
-179.7000;0.1612;0.3410;
-179.4000;0.1555;0.3267;
-179.1000;0.1555;0.3195;
-178.8000;0.1547;0.3171;
-178.5000;0.1530;0.3148;
-178.2000;0.1547;0.3148;
-177.9000;0.1473;0.2909;
-177.6000;0.1677;0.3410;
-177.3000;0.1441;0.2814;
-177.0000;0.1563;0.3100;
-176.7000;0.1571;0.3100;
-176.4000;0.1563;0.3148;
-176.1000;0.1587;0.3243;
-175.8000;0.1547;0.3171;
-175.5000;0.1555;0.3195;
-175.2000;0.1563;0.3219;
-174.9000;0.1555;0.3171;
-174.6000;0.1530;0.3148;
-174.3000;0.1538;0.3148;
-174.0000;0.1620;0.3267;
-173.7000;0.1563;0.3100;
-173.4000;0.1547;0.3076;
-173.1000;0.1530;0.3005;
-172.8000;0.1547;0.3124;
-172.5000;0.1530;0.3076;
-172.2000;0.1571;0.3148;
-171.9000;0.1563;0.3124;
-171.6000;0.1530;0.3052;
-171.3000;0.1538;0.3100;
-171.0000;0.1571;0.3243;
-170.7000;0.1579;0.3243;
-170.4000;0.1563;0.3314;
-170.1000;0.1620;0.3481;
-169.8000;0.1587;0.3434;
-169.5000;0.1579;0.3291;
-169.2000;0.1571;0.3267;
-168.9000;0.1563;0.3219;
-168.6000;0.1555;0.3219;
-168.3000;0.1555;0.3148;
-168.0000;0.1555;0.3171;
-167.7000;0.1555;0.3267;
-167.4000;0.1547;0.3386;
-167.1000;0.1571;0.3458;
-166.8000;0.1563;0.3362;
-166.5000;0.1579;0.3314;
-166.2000;0.1547;0.3267;
-165.9000;0.1547;0.3171;
-165.6000;0.1555;0.3219;
-165.3000;0.1571;0.3148;
-165.0000;0.1555;0.3148;
-164.7000;0.1555;0.3124;
-164.4000;0.1498;0.3028;
-164.1000;0.1579;0.3267;
-163.8000;0.1571;0.3171;
-163.5000;0.1579;0.3195;
-163.2000;0.1547;0.3100;
-162.9000;0.1563;0.3076;
-162.6000;0.1530;0.3028;
-162.3000;0.1530;0.2885;
-162.0000;0.1579;0.3052;
-161.7000;0.1571;0.3100;
-161.4000;0.1563;0.3028;
-161.1000;0.1538;0.3052;
-160.8000;0.1563;0.3171;
-160.5000;0.1563;0.3124;
-160.2000;0.1506;0.3005;
-159.9000;0.1571;0.3243;
-159.6000;0.1563;0.3219;
-159.3000;0.1530;0.3219;
-159.0000;0.1538;0.3267;
-158.7000;0.1595;0.3386;
-158.4000;0.1498;0.3052;
-158.1000;0.1506;0.3052;
-157.8000;0.1563;0.3195;
-157.5000;0.1547;0.3076;
-157.2000;0.1628;0.3291;
-156.9000;0.1587;0.3219;
-156.6000;0.1563;0.3171;
-156.3000;0.1530;0.3148;
-156.0000;0.1490;0.2909;
-155.7000;0.1555;0.3124;
-155.4000;0.1571;0.3124;
-155.1000;0.1530;0.3028;
-154.8000;0.1538;0.3028;
-154.5000;0.1571;0.3028;
-154.2000;0.1555;0.3100;
-153.9000;0.1555;0.3052;
-153.6000;0.1555;0.2981;
-153.3000;0.1547;0.2957;
-153.0000;0.1555;0.2933;
-152.7000;0.1563;0.3005;
-152.4000;0.1563;0.3028;
-152.1000;0.1547;0.2933;
-151.8000;0.1555;0.2909;
-151.5000;0.1538;0.3052;
-151.2000;0.1555;0.3124;
-150.9000;0.1547;0.3052;
-150.6000;0.1555;0.3148;
-150.3000;0.1538;0.3148;
-150.0000;0.1555;0.3124;
-149.7000;0.1555;0.3100;
-149.4000;0.1555;0.3052;
-149.1000;0.1571;0.3148;
-148.8000;0.1555;0.3195;
-148.5000;0.1555;0.3195;
-148.2000;0.1555;0.3291;
-147.9000;0.1563;0.3338;
-147.6000;0.1652;0.3529;
-147.3000;0.1538;0.3243;
-147.0000;0.1538;0.3219;
-146.7000;0.1555;0.3219;
-146.4000;0.1563;0.3267;
-146.1000;0.1547;0.3219;
-145.8000;0.1652;0.3291;
-145.5000;0.1563;0.3052;
-145.2000;0.1563;0.3005;
-144.9000;0.1563;0.3005;
-144.6000;0.1563;0.3028;
-144.3000;0.1555;0.3028;
-144.0000;0.1595;0.3171;
-143.7000;0.1555;0.3100;
-143.4000;0.1595;0.3243;
-143.1000;0.1571;0.3195;
-142.8000;0.1538;0.3171;
-142.5000;0.1498;0.3100;
-142.2000;0.1547;0.3219;
-141.9000;0.1579;0.3291;
-141.6000;0.1579;0.3219;
-141.3000;0.1555;0.3124;
-141.0000;0.1612;0.3267;
-140.7000;0.1433;0.2742;
-140.4000;0.1481;0.2885;
-140.1000;0.1563;0.3100;
-139.8000;0.1547;0.3005;
-139.5000;0.1579;0.3052;
-139.2000;0.1538;0.2957;
-138.9000;0.1579;0.3028;
-138.6000;0.1612;0.3005;
-138.3000;0.1555;0.2909;
-138.0000;0.1530;0.2933;
-137.7000;0.1563;0.2957;
-137.4000;0.1563;0.2933;
-137.1000;0.1547;0.2933;
-136.8000;0.1538;0.2981;
-136.5000;0.1555;0.3052;
-136.2000;0.1571;0.3005;
-135.9000;0.1506;0.2790;
-135.6000;0.1571;0.2885;
-135.3000;0.1547;0.2718;
-135.0000;0.1547;0.2671;
-134.7000;0.1538;0.2695;
-134.4000;0.1620;0.2909;
-134.1000;0.1547;0.2861;
-133.8000;0.1587;0.2909;
-133.5000;0.1547;0.2838;
-133.2000;0.1571;0.2885;
-132.9000;0.1547;0.2838;
-132.6000;0.1563;0.2909;
-132.3000;0.1571;0.3005;
-132.0000;0.1579;0.3100;
-131.7000;0.1563;0.3076;
-131.4000;0.1555;0.2957;
-131.1000;0.1530;0.2957;
-130.8000;0.1359;0.2456;
-130.5000;0.1530;0.2957;
-130.2000;0.1563;0.3005;
-129.9000;0.1506;0.2838;
-129.6000;0.1498;0.2814;
-129.3000;0.1522;0.2861;
-129.0000;0.1555;0.2909;
-128.7000;0.1563;0.3052;
-128.4000;0.1571;0.3028;
-128.1000;0.1587;0.3005;
-127.8000;0.1563;0.2957;
-127.5000;0.1547;0.2981;
-127.2000;0.1661;0.3314;
-126.9000;0.1563;0.3005;
-126.6000;0.1465;0.2790;
-126.3000;0.1571;0.3028;
-126.0000;0.1563;0.3076;
-125.7000;0.1579;0.3148;
-125.4000;0.1538;0.3028;
-125.1000;0.1555;0.3076;
-124.8000;0.1522;0.3028;
-124.5000;0.1571;0.3124;
-124.2000;0.1571;0.3148;
-123.9000;0.1538;0.3124;
-123.6000;0.1547;0.3171;
-123.3000;0.1563;0.3267;
-123.0000;0.1547;0.3314;
-122.7000;0.1563;0.3291;
-122.4000;0.1538;0.3267;
-122.1000;0.1563;0.3243;
-121.8000;0.1530;0.3148;
-121.5000;0.1555;0.3219;
-121.2000;0.1555;0.3195;
-120.9000;0.1555;0.3195;
-120.6000;0.1612;0.3219;
-120.3000;0.1579;0.3148;
-120.0000;0.1563;0.3100;
-119.7000;0.1571;0.3148;
-119.4000;0.1563;0.3052;
-119.1000;0.1555;0.3100;
-118.8000;0.1547;0.3124;
-118.5000;0.1563;0.3052;
-118.2000;0.1555;0.3005;
-117.9000;0.1547;0.2957;
-117.6000;0.1579;0.3052;
-117.3000;0.1547;0.3005;
-117.0000;0.1563;0.3148;
-116.7000;0.1587;0.3148;
-116.4000;0.1579;0.3100;
-116.1000;0.1547;0.3076;
-115.8000;0.1490;0.3005;
-115.5000;0.1538;0.3195;
-115.2000;0.1555;0.3124;
-114.9000;0.1547;0.3052;
-114.6000;0.1538;0.3076;
-114.3000;0.1563;0.3052;
-114.0000;0.1522;0.2909;
-113.7000;0.1587;0.3028;
-113.4000;0.1547;0.2957;
-113.1000;0.1571;0.3028;
-112.8000;0.1555;0.2957;
-112.5000;0.1538;0.2909;
-112.2000;0.1538;0.2933;
-111.9000;0.1555;0.2933;
-111.6000;0.1547;0.2981;
-111.3000;0.1555;0.3005;
-111.0000;0.1555;0.2933;
-110.7000;0.1555;0.2933;
-110.4000;0.1547;0.2957;
-110.1000;0.1522;0.3076;
-109.8000;0.1563;0.3076;
-109.5000;0.1563;0.3124;
-109.2000;0.1555;0.3052;
-108.9000;0.1571;0.3076;
-108.6000;0.1563;0.3028;
-108.3000;0.1547;0.2933;
-108.0000;0.1579;0.3005;
-107.7000;0.1563;0.2957;
-107.4000;0.1555;0.2933;
-107.1000;0.1408;0.2551;
-106.8000;0.1498;0.2742;
-106.5000;0.1522;0.2790;
-106.2000;0.1538;0.2742;
-105.9000;0.1587;0.2861;
-105.6000;0.1555;0.2671;
-105.3000;0.1547;0.2671;
-105.0000;0.1571;0.2718;
-104.7000;0.1563;0.2647;
-104.4000;0.1563;0.2742;
-104.1000;0.1538;0.2742;
-103.8000;0.1538;0.2814;
-103.5000;0.1538;0.2790;
-103.2000;0.1587;0.2933;
-102.9000;0.1563;0.2909;
-102.6000;0.1490;0.2814;
-102.3000;0.1547;0.2861;
-102.0000;0.1498;0.2695;
-101.7000;0.1595;0.2981;
-101.4000;0.1579;0.2933;
-101.1000;0.1579;0.2861;
-100.8000;0.1547;0.2718;
-100.5000;0.1571;0.2766;
-100.2000;0.1555;0.2718;
-99.9000;0.1571;0.2766;
-99.6000;0.1620;0.2885;
-99.3000;0.1547;0.2671;
-99.0000;0.1587;0.2766;
-98.7000;0.1604;0.2814;
-98.4000;0.1547;0.2695;
-98.1000;0.1538;0.2718;
-97.8000;0.1661;0.3124;
-97.5000;0.1547;0.2909;
-97.2000;0.1563;0.2933;
-96.9000;0.1538;0.2909;
-96.6000;0.1547;0.2957;
-96.3000;0.1563;0.2957;
-96.0000;0.1547;0.2909;
-95.7000;0.1563;0.2933;
-95.4000;0.1506;0.2861;
-95.1000;0.1530;0.3028;
-94.8000;0.1587;0.3148;
-94.5000;0.1555;0.3028;
-94.2000;0.1547;0.2957;
-93.9000;0.1579;0.3052;
-93.6000;0.1555;0.3005;
-93.3000;0.1506;0.2909;
-93.0000;0.1506;0.2909;
-92.7000;0.1530;0.2885;
-92.4000;0.1563;0.2957;
-92.1000;0.1538;0.2790;
-91.8000;0.1547;0.2885;
-91.5000;0.1547;0.2861;
-91.2000;0.1555;0.2790;
-90.9000;0.1555;0.2718;
-90.6000;0.1563;0.2814;
-90.3000;0.1563;0.2838;
-90.0000;0.1579;0.2885;
-89.7000;0.1587;0.2957;
-89.4000;0.1555;0.2909;
-89.1000;0.1547;0.2885;
-88.8000;0.1571;0.2885;
-88.5000;0.1538;0.2742;
-88.2000;0.1555;0.2814;
-87.9000;0.1465;0.2647;
-87.6000;0.1620;0.3124;
-87.3000;0.1555;0.3005;
-87.0000;0.1563;0.3076;
-86.7000;0.1547;0.3052;
-86.4000;0.1555;0.3028;
-86.1000;0.1563;0.3005;
-85.8000;0.1538;0.2933;
-85.5000;0.1522;0.2838;
-85.2000;0.1636;0.3171;
-84.9000;0.1644;0.3148;
-84.6000;0.1514;0.2885;
-84.3000;0.1498;0.2766;
-84.0000;0.1612;0.3052;
-83.7000;0.1547;0.2861;
-83.4000;0.1555;0.2933;
-83.1000;0.1555;0.2957;
-82.8000;0.1547;0.3052;
-82.5000;0.1538;0.3076;
-82.2000;0.1571;0.3124;
-81.9000;0.1457;0.2933;
-81.6000;0.1538;0.3100;
-81.3000;0.1579;0.3028;
-81.0000;0.1571;0.2957;
-80.7000;0.1538;0.2909;
-80.4000;0.1563;0.2957;
-80.1000;0.1547;0.2981;
-79.8000;0.1547;0.2909;
-79.5000;0.1563;0.2957;
-79.2000;0.1571;0.3028;
-78.9000;0.1563;0.2909;
-78.6000;0.1490;0.2647;
-78.3000;0.1547;0.2766;
-78.0000;0.1547;0.2790;
-77.7000;0.1563;0.2861;
-77.4000;0.1555;0.2790;
-77.1000;0.1547;0.2790;
-76.8000;0.1555;0.2766;
-76.5000;0.1563;0.2861;
-76.2000;0.1563;0.2814;
-75.9000;0.1555;0.2814;
-75.6000;0.1547;0.2766;
-75.3000;0.1538;0.2695;
-75.0000;0.1563;0.2742;
-74.7000;0.1555;0.2790;
-74.4000;0.1555;0.2933;
-74.1000;0.1547;0.2909;
-73.8000;0.1579;0.3005;
-73.5000;0.1547;0.2957;
-73.2000;0.1555;0.3100;
-72.9000;0.1555;0.3171;
-72.6000;0.1547;0.3076;
-72.3000;0.1547;0.2981;
-72.0000;0.1555;0.3028;
-71.7000;0.1612;0.3267;
-71.4000;0.1563;0.3100;
-71.1000;0.1490;0.2885;
-70.8000;0.1595;0.3171;
-70.5000;0.1538;0.3124;
-70.2000;0.1555;0.3148;
-69.9000;0.1563;0.3052;
-69.6000;0.1555;0.3028;
-69.3000;0.1441;0.2790;
-69.0000;0.1734;0.3529;
-68.7000;0.1571;0.3124;
-68.4000;0.1563;0.3124;
-68.1000;0.1571;0.3100;
-67.8000;0.1571;0.3100;
-67.5000;0.1555;0.3028;
-67.2000;0.1538;0.3028;
-66.9000;0.1498;0.2933;
-66.6000;0.1555;0.3100;
-66.3000;0.1571;0.3148;
-66.0000;0.1563;0.3052;
-65.7000;0.1425;0.2647;
-65.4000;0.1530;0.2933;
-65.1000;0.1571;0.3028;
-64.8000;0.1530;0.2861;
-64.5000;0.1628;0.3028;
-64.2000;0.1555;0.2861;
-63.9000;0.1449;0.2528;
-63.6000;0.1620;0.2957;
-63.3000;0.1571;0.2885;
-63.0000;0.1481;0.2766;
-62.7000;0.1547;0.2933;
-62.4000;0.1530;0.2838;
-62.1000;0.1571;0.2981;
-61.8000;0.1563;0.2933;
-61.5000;0.1571;0.2981;
-61.2000;0.1587;0.3005;
-60.9000;0.1579;0.2933;
-60.6000;0.1555;0.2933;
-60.3000;0.1563;0.3005;
-60.0000;0.1547;0.3028;
-59.7000;0.1555;0.3124;
-59.4000;0.1530;0.2957;
-59.1000;0.1555;0.3052;
-58.8000;0.1538;0.3052;
-58.5000;0.1555;0.3124;
-58.2000;0.1538;0.3076;
-57.9000;0.1547;0.3124;
-57.6000;0.1555;0.3148;
-57.3000;0.1571;0.3171;
-57.0000;0.1538;0.3076;
-56.7000;0.1530;0.3100;
-56.4000;0.1563;0.3124;
-56.1000;0.1530;0.3052;
-55.8000;0.1555;0.3148;
-55.5000;0.1563;0.3124;
-55.2000;0.1530;0.2957;
-54.9000;0.1547;0.2933;
-54.6000;0.1563;0.3028;
-54.3000;0.1571;0.2981;
-54.0000;0.1530;0.2981;
-53.7000;0.1620;0.3267;
-53.4000;0.1555;0.3100;
-53.1000;0.1563;0.3052;
-52.8000;0.1522;0.3052;
-52.5000;0.1555;0.3171;
-52.2000;0.1571;0.3171;
-51.9000;0.1563;0.3243;
-51.6000;0.1538;0.3148;
-51.3000;0.1571;0.3195;
-51.0000;0.1563;0.3171;
-50.7000;0.1563;0.3076;
-50.4000;0.1571;0.3052;
-50.1000;0.1547;0.3028;
-49.8000;0.1555;0.3076;
-49.5000;0.1571;0.3100;
-49.2000;0.1563;0.3148;
-48.9000;0.1555;0.3195;
-48.6000;0.1595;0.3219;
-48.3000;0.1555;0.3076;
-48.0000;0.1498;0.2909;
-47.7000;0.1457;0.2742;
-47.4000;0.1498;0.2814;
-47.1000;0.1620;0.3124;
-46.8000;0.1587;0.3028;
-46.5000;0.1514;0.2766;
-46.2000;0.1563;0.2861;
-45.9000;0.1490;0.2695;
-45.6000;0.1514;0.2861;
-45.3000;0.1547;0.2957;
-45.0000;0.1547;0.2981;
-44.7000;0.1563;0.2981;
-44.4000;0.1555;0.2957;
-44.1000;0.1579;0.3028;
-43.8000;0.1538;0.3005;
-43.5000;0.1587;0.3148;
-43.2000;0.1538;0.3028;
-42.9000;0.1538;0.2957;
-42.6000;0.1555;0.3028;
-42.3000;0.1538;0.3076;
-42.0000;0.1538;0.3076;
-41.7000;0.1563;0.3171;
-41.4000;0.1547;0.3195;
-41.1000;0.1587;0.3267;
-40.8000;0.1555;0.3243;
-40.5000;0.1538;0.3195;
-40.2000;0.1555;0.3291;
-39.9000;0.1530;0.3219;
-39.6000;0.1555;0.3243;
-39.3000;0.1571;0.3219;
-39.0000;0.1579;0.3314;
-38.7000;0.1571;0.3243;
-38.4000;0.1522;0.3148;
-38.1000;0.1555;0.3219;
-37.8000;0.1498;0.2981;
-37.5000;0.1555;0.3124;
-37.2000;0.1555;0.3124;
-36.9000;0.1604;0.3267;
-36.6000;0.1579;0.3219;
-36.3000;0.1547;0.3148;
-36.0000;0.1530;0.3195;
-35.7000;0.1530;0.3243;
-35.4000;0.1571;0.3291;
-35.1000;0.1563;0.3267;
-34.8000;0.1555;0.3219;
-34.5000;0.1579;0.3243;
-34.2000;0.1555;0.3195;
-33.9000;0.1555;0.3148;
-33.6000;0.1538;0.3124;
-33.3000;0.1530;0.3124;
-33.0000;0.1628;0.3386;
-32.7000;0.1555;0.3100;
-32.4000;0.1563;0.3005;
-32.1000;0.1571;0.2909;
-31.8000;0.1563;0.2790;
-31.5000;0.1547;0.2718;
-31.2000;0.1587;0.2885;
-30.9000;0.1595;0.3028;
-30.6000;0.1571;0.3005;
-30.3000;0.1563;0.3052;
-30.0000;0.1571;0.3052;
-29.7000;0.1563;0.2981;
-29.4000;0.1579;0.3005;
-29.1000;0.1571;0.3124;
-28.8000;0.1579;0.3100;
-28.5000;0.1555;0.3028;
-28.2000;0.1555;0.3005;
-27.9000;0.1530;0.2957;
-27.6000;0.1579;0.3028;
-27.3000;0.1547;0.3028;
-27.0000;0.1547;0.3100;
-26.7000;0.1555;0.3148;
-26.4000;0.1555;0.3100;
-26.1000;0.1563;0.3124;
-25.8000;0.1547;0.3076;
-25.5000;0.1563;0.3195;
-25.2000;0.1587;0.3243;
-24.9000;0.1555;0.3243;
-24.6000;0.1571;0.3267;
-24.3000;0.1571;0.3386;
-24.0000;0.1547;0.3291;
-23.7000;0.1636;0.3386;
-23.4000;0.1522;0.3100;
-23.1000;0.1547;0.3124;
-22.8000;0.1595;0.3291;
-22.5000;0.1498;0.3076;
-22.2000;0.1571;0.3314;
-21.9000;0.1555;0.3291;
-21.6000;0.1498;0.3195;
-21.3000;0.1563;0.3362;
-21.0000;0.1555;0.3386;
-20.7000;0.1547;0.3314;
-20.4000;0.1563;0.3410;
-20.1000;0.1530;0.3314;
-19.8000;0.1547;0.3386;
-19.5000;0.1595;0.3505;
-19.2000;0.1677;0.3720;
-18.9000;0.1547;0.3362;
-18.6000;0.1538;0.3338;
-18.3000;0.1538;0.3314;
-18.0000;0.1547;0.3267;
-17.7000;0.1563;0.3219;
-17.4000;0.1555;0.3100;
-17.1000;0.1571;0.3124;
-16.8000;0.1547;0.3005;
-16.5000;0.1563;0.3052;
-16.2000;0.1538;0.3005;
-15.9000;0.1465;0.2861;
-15.6000;0.1555;0.3171;
-15.3000;0.1530;0.3219;
-15.0000;0.1595;0.3386;
-14.7000;0.1563;0.3267;
-14.4000;0.1571;0.3219;
-14.1000;0.1547;0.3124;
-13.8000;0.1547;0.3148;
-13.5000;0.1547;0.3195;
-13.2000;0.1563;0.3219;
-12.9000;0.1538;0.3124;
-12.6000;0.1555;0.3171;
-12.3000;0.1563;0.3219;
-12.0000;0.1498;0.3005;
-11.7000;0.1547;0.3148;
-11.4000;0.1538;0.3124;
-11.1000;0.1563;0.3148;
-10.8000;0.1555;0.3219;
-10.5000;0.1547;0.3243;
-10.2000;0.1530;0.3219;
-9.9000;0.1563;0.3386;
-9.6000;0.1563;0.3314;
-9.3000;0.1555;0.3219;
-9.0000;0.1652;0.3434;
-8.7000;0.1514;0.3005;
-8.4000;0.1563;0.3076;
-8.1000;0.1563;0.3028;
-7.8000;0.1530;0.2957;
-7.5000;0.1538;0.3005;
-7.2000;0.1547;0.2957;
-6.9000;0.1563;0.3005;
-6.6000;0.1579;0.3076;
-6.3000;0.1547;0.3005;
-6.0000;0.1555;0.3005;
-5.7000;0.1555;0.2981;
-5.4000;0.1547;0.3100;
-5.1000;0.1571;0.3148;
-4.8000;0.1571;0.3124;
-4.5000;0.1579;0.3100;
-4.2000;0.1579;0.3076;
-3.9000;0.1522;0.3028;
-3.6000;0.1563;0.3100;
-3.3000;0.1587;0.3267;
-3.0000;0.1555;0.3219;
-2.7000;0.1547;0.3267;
-2.4000;0.1547;0.3243;
-2.1000;0.1547;0.3124;
-1.8000;0.1555;0.3195;
-1.5000;0.1522;0.3124;
-1.2000;0.1555;0.3124;
-0.9000;0.1563;0.3124;
-0.6000;0.1547;0.3195;
-0.3000;0.1587;0.3291;
0.0000;0.1587;0.3291;
0.3000;0.1514;0.2981;
0.6000;0.1563;0.3195;
0.9000;0.1579;0.3314;
1.2000;0.1579;0.3386;
1.5000;0.1538;0.3458;
1.8000;0.1563;0.3696;
2.1000;0.1514;0.3696;
2.4000;0.1571;0.3982;
2.7000;0.1587;0.3982;
3.0000;0.1587;0.4101;
3.3000;0.1587;0.4125;
3.6000;0.1587;0.4173;
3.9000;0.1547;0.4125;
4.2000;0.1579;0.4197;
4.5000;0.1595;0.4292;
4.8000;0.1587;0.4268;
5.1000;0.1587;0.4244;
5.4000;0.1587;0.4316;
5.7000;0.1587;0.4388;
6.0000;0.1587;0.4435;
6.3000;0.1595;0.4459;
6.6000;0.1587;0.4483;
6.9000;0.1555;0.4316;
7.2000;0.1571;0.4411;
7.5000;0.1587;0.4411;
7.8000;0.1587;0.4388;
8.1000;0.1595;0.4388;
8.4000;0.1595;0.4388;
8.7000;0.1604;0.4459;
9.0000;0.1604;0.4459;
9.3000;0.1628;0.4388;
9.6000;0.1612;0.4340;
9.9000;0.1498;0.4125;
10.2000;0.1726;0.4745;
10.5000;0.1685;0.4626;
10.8000;0.1579;0.4340;
11.1000;0.1587;0.4411;
11.4000;0.1571;0.4292;
11.7000;0.1579;0.4340;
12.0000;0.1587;0.4364;
12.3000;0.1612;0.4411;
12.6000;0.1579;0.4244;
12.9000;0.1636;0.4459;
13.2000;0.1555;0.4244;
13.5000;0.1604;0.4316;
13.8000;0.1595;0.4268;
14.1000;0.1579;0.4244;
14.4000;0.1587;0.4340;
14.7000;0.1604;0.4292;
15.0000;0.1579;0.4173;
15.3000;0.1457;0.3934;
15.6000;0.1587;0.4292;
15.9000;0.1604;0.4388;
16.2000;0.1587;0.4459;
16.5000;0.1579;0.4364;
16.8000;0.1587;0.4340;
17.1000;0.1604;0.4411;
17.4000;0.1587;0.4483;
17.7000;0.1595;0.4554;
18.0000;0.1587;0.4483;
18.3000;0.1595;0.4507;
18.6000;0.1595;0.4531;
18.9000;0.1612;0.4507;
19.2000;0.1595;0.4435;
19.5000;0.1563;0.4388;
19.8000;0.1587;0.4435;
20.1000;0.1595;0.4435;
20.4000;0.1604;0.4435;
20.7000;0.1587;0.4411;
21.0000;0.1604;0.4459;
21.3000;0.1579;0.4388;
21.6000;0.1636;0.4531;
21.9000;0.1571;0.4340;
22.2000;0.1563;0.4292;
22.5000;0.1644;0.4435;
22.8000;0.1604;0.4244;
23.1000;0.1595;0.4197;
23.4000;0.1579;0.4125;
23.7000;0.1490;0.3791;
24.0000;0.1579;0.3934;
24.3000;0.1563;0.3911;
24.6000;0.1587;0.4078;
24.9000;0.1604;0.4101;
25.2000;0.1563;0.3982;
25.5000;0.1604;0.4006;
25.8000;0.1595;0.4078;
26.1000;0.1571;0.4125;
26.4000;0.1579;0.4268;
26.7000;0.1595;0.4388;
27.0000;0.1595;0.4388;
27.3000;0.1571;0.4364;
27.6000;0.1612;0.4531;
27.9000;0.1563;0.4459;
28.2000;0.1571;0.4459;
28.5000;0.1538;0.4340;
28.8000;0.1644;0.4554;
29.1000;0.1587;0.4435;
29.4000;0.1530;0.4268;
29.7000;0.1612;0.4364;
30.0000;0.1595;0.4388;
30.3000;0.1587;0.4388;
30.6000;0.1522;0.4197;
30.9000;0.1530;0.4221;
31.2000;0.1595;0.4411;
31.5000;0.1677;0.4554;
31.8000;0.1604;0.4411;
32.1000;0.1547;0.4316;
32.4000;0.1498;0.4101;
32.7000;0.1571;0.4244;
33.0000;0.1652;0.4411;
33.3000;0.1644;0.4411;
33.6000;0.1555;0.4149;
33.9000;0.1538;0.4054;
34.2000;0.1595;0.4149;
34.5000;0.1604;0.4221;
34.8000;0.1579;0.4173;
35.1000;0.1587;0.4197;
35.4000;0.1587;0.4197;
35.7000;0.1595;0.4221;
36.0000;0.1587;0.4221;
36.3000;0.1604;0.4268;
36.6000;0.1604;0.4411;
36.9000;0.1595;0.4411;
37.2000;0.1595;0.4531;
37.5000;0.1595;0.4459;
37.8000;0.1571;0.4316;
38.1000;0.1604;0.4316;
38.4000;0.1595;0.4316;
38.7000;0.1563;0.4244;
39.0000;0.1579;0.4340;
39.3000;0.1595;0.4459;
39.6000;0.1595;0.4388;
39.9000;0.1604;0.4340;
40.2000;0.1604;0.4316;
40.5000;0.1604;0.4292;
40.8000;0.1620;0.4316;
41.1000;0.1579;0.4364;
41.4000;0.1579;0.4459;
41.7000;0.1579;0.4435;
42.0000;0.1636;0.4602;
42.3000;0.1571;0.4435;
42.6000;0.1587;0.4435;
42.9000;0.1587;0.4340;
43.2000;0.1595;0.4268;
43.5000;0.1563;0.4221;
43.8000;0.1587;0.4292;
44.1000;0.1571;0.4268;
44.4000;0.1579;0.4244;
44.7000;0.1587;0.4364;
45.0000;0.1669;0.4578;
45.3000;0.1587;0.4388;
45.6000;0.1498;0.4125;
45.9000;0.1571;0.4316;
46.2000;0.1620;0.4459;
46.5000;0.1595;0.4411;
46.8000;0.1579;0.4340;
47.1000;0.1579;0.4388;
47.4000;0.1571;0.4292;
47.7000;0.1677;0.4602;
48.0000;0.1604;0.4292;
48.3000;0.1587;0.4364;
48.6000;0.1595;0.4388;
48.9000;0.1595;0.4364;
49.2000;0.1579;0.4364;
49.5000;0.1571;0.4388;
49.8000;0.1587;0.4435;
50.1000;0.1620;0.4578;
50.4000;0.1595;0.4507;
50.7000;0.1571;0.4411;
51.0000;0.1522;0.4244;
51.3000;0.1587;0.4435;
51.6000;0.1604;0.4435;
51.9000;0.1636;0.4578;
52.2000;0.1604;0.4483;
52.5000;0.1571;0.4292;
52.8000;0.1693;0.4650;
53.1000;0.1620;0.4388;
53.4000;0.1644;0.4411;
53.7000;0.1595;0.4316;
54.0000;0.1612;0.4364;
54.3000;0.1587;0.4316;
54.6000;0.1571;0.4316;
54.9000;0.1595;0.4340;
55.2000;0.1661;0.4531;
55.5000;0.1555;0.4292;
55.8000;0.1571;0.4340;
56.1000;0.1587;0.4316;
56.4000;0.1652;0.4483;
56.7000;0.1587;0.4340;
57.0000;0.1669;0.4554;
57.3000;0.1587;0.4364;
57.6000;0.1595;0.4340;
57.9000;0.1522;0.4125;
58.2000;0.1547;0.4173;
58.5000;0.1579;0.4292;
58.8000;0.1612;0.4292;
59.1000;0.1563;0.4197;
59.4000;0.1563;0.4125;
59.7000;0.1555;0.4125;
60.0000;0.1563;0.4173;
60.3000;0.1579;0.4197;
60.6000;0.1579;0.4173;
60.9000;0.1571;0.4221;
61.2000;0.1604;0.4292;
61.5000;0.1571;0.4197;
61.8000;0.1595;0.4316;
62.1000;0.1571;0.4173;
62.4000;0.1595;0.4292;
62.7000;0.1604;0.4292;
63.0000;0.1595;0.4173;
63.3000;0.1595;0.4078;
63.6000;0.1595;0.4030;
63.9000;0.1579;0.3958;
64.2000;0.1595;0.3982;
64.5000;0.1587;0.4006;
64.8000;0.1587;0.4054;
65.1000;0.1563;0.4125;
65.4000;0.1555;0.4173;
65.7000;0.1595;0.4197;
66.0000;0.1604;0.4268;
66.3000;0.1587;0.4268;
66.6000;0.1595;0.4340;
66.9000;0.1620;0.4364;
67.2000;0.1579;0.4244;
67.5000;0.1563;0.4221;
67.8000;0.1579;0.4221;
68.1000;0.1587;0.4221;
68.4000;0.1669;0.4388;
68.7000;0.1612;0.4268;
69.0000;0.1604;0.4244;
69.3000;0.1604;0.4292;
69.6000;0.1579;0.4221;
69.9000;0.1522;0.4125;
70.2000;0.1563;0.4316;
70.5000;0.1547;0.4221;
70.8000;0.1604;0.4364;
71.1000;0.1563;0.4268;
71.4000;0.1587;0.4221;
71.7000;0.1563;0.4173;
72.0000;0.1571;0.4268;
72.3000;0.1636;0.4316;
72.6000;0.1587;0.4125;
72.9000;0.1628;0.4268;
73.2000;0.1595;0.4173;
73.5000;0.1579;0.4149;
73.8000;0.1587;0.4173;
74.1000;0.1579;0.4101;
74.4000;0.1530;0.4054;
74.7000;0.1571;0.4268;
75.0000;0.1620;0.4411;
75.3000;0.1571;0.4340;
75.6000;0.1571;0.4340;
75.9000;0.1644;0.4507;
76.2000;0.1530;0.4173;
76.5000;0.1587;0.4268;
76.8000;0.1579;0.4268;
77.1000;0.1465;0.3911;
77.4000;0.1571;0.4173;
77.7000;0.1579;0.4173;
78.0000;0.1604;0.4221;
78.3000;0.1587;0.4173;
78.6000;0.1595;0.4244;
78.9000;0.1620;0.4268;
79.2000;0.1595;0.4221;
79.5000;0.1579;0.4173;
79.8000;0.1587;0.4364;
80.1000;0.1734;0.4698;
80.4000;0.1579;0.4173;
80.7000;0.1563;0.4173;
81.0000;0.1595;0.4316;
81.3000;0.1555;0.4221;
81.6000;0.1579;0.4316;
81.9000;0.1587;0.4316;
82.2000;0.1595;0.4268;
82.5000;0.1579;0.4149;
82.8000;0.1587;0.4173;
83.1000;0.1579;0.4244;
83.4000;0.1644;0.4340;
83.7000;0.1579;0.4268;
84.0000;0.1563;0.4244;
84.3000;0.1587;0.4316;
84.6000;0.1595;0.4364;
84.9000;0.1628;0.4411;
85.2000;0.1587;0.4340;
85.5000;0.1587;0.4340;
85.8000;0.1587;0.4364;
86.1000;0.1555;0.4364;
86.4000;0.1595;0.4459;
86.7000;0.1604;0.4459;
87.0000;0.1587;0.4388;
87.3000;0.1620;0.4435;
87.6000;0.1579;0.4411;
87.9000;0.1498;0.4197;
88.2000;0.1604;0.4483;
88.5000;0.1587;0.4435;
88.8000;0.1563;0.4316;
89.1000;0.1604;0.4364;
89.4000;0.1555;0.4221;
89.7000;0.1612;0.4364;
90.0000;0.1587;0.4435;
90.3000;0.1604;0.4507;
90.6000;0.1604;0.4507;
90.9000;0.1563;0.4435;
91.2000;0.1587;0.4459;
91.5000;0.1498;0.4221;
91.8000;0.1571;0.4483;
92.1000;0.1506;0.4316;
92.4000;0.1766;0.4936;
92.7000;0.1628;0.4602;
93.0000;0.1644;0.4554;
93.3000;0.1587;0.4435;
93.6000;0.1571;0.4292;
93.9000;0.1587;0.4388;
94.2000;0.1563;0.4316;
94.5000;0.1587;0.4411;
94.8000;0.1604;0.4459;
95.1000;0.1644;0.4650;
95.4000;0.1571;0.4507;
95.7000;0.1587;0.4483;
96.0000;0.1652;0.4721;
96.3000;0.1547;0.4435;
96.6000;0.1587;0.4554;
96.9000;0.1579;0.4507;
97.2000;0.1595;0.4507;
97.5000;0.1612;0.4602;
97.8000;0.1498;0.4340;
98.1000;0.1587;0.4602;
98.4000;0.1579;0.4554;
98.7000;0.1587;0.4483;
99.0000;0.1490;0.4197;
99.3000;0.1579;0.4388;
99.6000;0.1579;0.4292;
99.9000;0.1579;0.4316;
100.2000;0.1587;0.4292;
100.5000;0.1595;0.4292;
100.8000;0.1579;0.4197;
101.1000;0.1579;0.4316;
101.4000;0.1587;0.4364;
101.7000;0.1587;0.4459;
102.0000;0.1579;0.4364;
102.3000;0.1563;0.4292;
102.6000;0.1587;0.4388;
102.9000;0.1595;0.4411;
103.2000;0.1563;0.4340;
103.5000;0.1587;0.4435;
103.8000;0.1563;0.4388;
104.1000;0.1628;0.4531;
104.4000;0.1595;0.4483;
104.7000;0.1587;0.4340;
105.0000;0.1579;0.4340;
105.3000;0.1587;0.4411;
105.6000;0.1579;0.4483;
105.9000;0.1579;0.4388;
106.2000;0.1563;0.4364;
106.5000;0.1604;0.4411;
106.8000;0.1595;0.4435;
107.1000;0.1587;0.4435;
107.4000;0.1612;0.4411;
107.7000;0.1604;0.4244;
108.0000;0.1555;0.4173;
108.3000;0.1669;0.4483;
108.6000;0.1579;0.4340;
108.9000;0.1571;0.4316;
109.2000;0.1604;0.4459;
109.5000;0.1579;0.4316;
109.8000;0.1555;0.4340;
110.1000;0.1604;0.4388;
110.4000;0.1522;0.4101;
110.7000;0.1595;0.4316;
111.0000;0.1595;0.4316;
111.3000;0.1587;0.4292;
111.6000;0.1587;0.4316;
111.9000;0.1587;0.4411;
112.2000;0.1595;0.4435;
112.5000;0.1595;0.4483;
112.8000;0.1701;0.4817;
113.1000;0.1587;0.4531;
113.4000;0.1563;0.4459;
113.7000;0.1595;0.4578;
114.0000;0.1587;0.4602;
114.3000;0.1587;0.4626;
114.6000;0.1604;0.4650;
114.9000;0.1579;0.4483;
115.2000;0.1538;0.4364;
115.5000;0.1571;0.4435;
115.8000;0.1522;0.4340;
116.1000;0.1595;0.4507;
116.4000;0.1579;0.4507;
116.7000;0.1595;0.4507;
117.0000;0.1587;0.4435;
117.3000;0.1595;0.4340;
117.6000;0.1579;0.4364;
117.9000;0.1563;0.4364;
118.2000;0.1587;0.4411;
118.5000;0.1587;0.4435;
118.8000;0.1555;0.4388;
119.1000;0.1595;0.4459;
119.4000;0.1579;0.4578;
119.7000;0.1595;0.4602;
120.0000;0.1571;0.4554;
120.3000;0.1604;0.4626;
120.6000;0.1579;0.4650;
120.9000;0.1579;0.4650;
121.2000;0.1579;0.4650;
121.5000;0.1563;0.4602;
121.8000;0.1514;0.4364;
122.1000;0.1587;0.4507;
122.4000;0.1604;0.4507;
122.7000;0.1604;0.4507;
123.0000;0.1587;0.4507;
123.3000;0.1595;0.4435;
123.6000;0.1604;0.4435;
123.9000;0.1587;0.4411;
124.2000;0.1571;0.4411;
124.5000;0.1579;0.4364;
124.8000;0.1579;0.4268;
125.1000;0.1563;0.4173;
125.4000;0.1587;0.4244;
125.7000;0.1571;0.4197;
126.0000;0.1579;0.4268;
126.3000;0.1571;0.4221;
126.6000;0.1595;0.4316;
126.9000;0.1604;0.4268;
127.2000;0.1595;0.4173;
127.5000;0.1620;0.4197;
127.8000;0.1595;0.4078;
128.1000;0.1587;0.4101;
128.4000;0.1595;0.4078;
128.7000;0.1595;0.4101;
129.0000;0.1579;0.4149;
129.3000;0.1595;0.4221;
129.6000;0.1587;0.4268;
129.9000;0.1587;0.4268;
130.2000;0.1587;0.4268;
130.5000;0.1571;0.4149;
130.8000;0.1571;0.4149;
131.1000;0.1579;0.4197;
131.4000;0.1563;0.4173;
131.7000;0.1547;0.4149;
132.0000;0.1571;0.4173;
132.3000;0.1636;0.4316;
132.6000;0.1587;0.4173;
132.9000;0.1579;0.4149;
133.2000;0.1563;0.4149;
133.5000;0.1587;0.4292;
133.8000;0.1604;0.4388;
134.1000;0.1579;0.4411;
134.4000;0.1587;0.4435;
134.7000;0.1612;0.4507;
135.0000;0.1587;0.4459;
135.3000;0.1628;0.4507;
135.6000;0.1587;0.4340;
135.9000;0.1579;0.4292;
136.2000;0.1587;0.4268;
136.5000;0.1579;0.4173;
136.8000;0.1579;0.4244;
137.1000;0.1579;0.4221;
137.4000;0.1571;0.4221;
137.7000;0.1612;0.4316;
138.0000;0.1587;0.4316;
138.3000;0.1587;0.4364;
138.6000;0.1604;0.4316;
138.9000;0.1514;0.4078;
139.2000;0.1595;0.4244;
139.5000;0.1587;0.4149;
139.8000;0.1579;0.4149;
140.1000;0.1571;0.4078;
140.4000;0.1604;0.4197;
140.7000;0.1571;0.4078;
141.0000;0.1579;0.4101;
141.3000;0.1595;0.4125;
141.6000;0.1604;0.4197;
141.9000;0.1677;0.4483;
142.2000;0.1595;0.4340;
142.5000;0.1587;0.4244;
142.8000;0.1579;0.4316;
143.1000;0.1587;0.4340;
143.4000;0.1579;0.4364;
143.7000;0.1579;0.4435;
144.0000;0.1628;0.4435;
144.3000;0.1579;0.4411;
144.6000;0.1595;0.4435;
144.9000;0.1587;0.4340;
145.2000;0.1579;0.4292;
145.5000;0.1595;0.4292;
145.8000;0.1579;0.4364;
146.1000;0.1587;0.4411;
146.4000;0.1579;0.4411;
146.7000;0.1604;0.4411;
147.0000;0.1473;0.4030;
147.3000;0.1555;0.4316;
147.6000;0.1563;0.4244;
147.9000;0.1604;0.4364;
148.2000;0.1595;0.4364;
148.5000;0.1595;0.4364;
148.8000;0.1587;0.4364;
149.1000;0.1579;0.4388;
149.4000;0.1595;0.4459;
149.7000;0.1595;0.4483;
150.0000;0.1571;0.4388;
150.3000;0.1587;0.4435;
150.6000;0.1595;0.4411;
150.9000;0.1579;0.4364;
151.2000;0.1571;0.4388;
151.5000;0.1595;0.4388;
151.8000;0.1579;0.4316;
152.1000;0.1587;0.4244;
152.4000;0.1587;0.4221;
152.7000;0.1555;0.4292;
153.0000;0.1587;0.4340;
153.3000;0.1595;0.4292;
153.6000;0.1555;0.4221;
153.9000;0.1563;0.4268;
154.2000;0.1563;0.4268;
154.5000;0.1571;0.4244;
154.8000;0.1595;0.4292;
155.1000;0.1563;0.4173;
155.4000;0.1628;0.4411;
155.7000;0.1612;0.4411;
156.0000;0.1571;0.4244;
156.3000;0.1571;0.4268;
156.6000;0.1555;0.4244;
156.9000;0.1595;0.4316;
157.2000;0.1587;0.4244;
157.5000;0.1579;0.4388;
157.8000;0.1563;0.4435;
158.1000;0.1644;0.4650;
158.4000;0.1579;0.4435;
158.7000;0.1579;0.4531;
159.0000;0.1595;0.4459;
159.3000;0.1579;0.4340;
159.6000;0.1579;0.4388;
159.9000;0.1595;0.4340;
160.2000;0.1604;0.4340;
160.5000;0.1595;0.4316;
160.8000;0.1604;0.4316;
161.1000;0.1587;0.4364;
161.4000;0.1595;0.4340;
161.7000;0.1595;0.4388;
162.0000;0.1661;0.4602;
162.3000;0.1595;0.4364;
162.6000;0.1563;0.4316;
162.9000;0.1587;0.4435;
163.2000;0.1563;0.4411;
163.5000;0.1579;0.4554;
163.8000;0.1587;0.4531;
164.1000;0.1571;0.4507;
164.4000;0.1522;0.4388;
164.7000;0.1579;0.4578;
165.0000;0.1571;0.4578;
165.3000;0.1563;0.4483;
165.6000;0.1595;0.4531;
165.9000;0.1587;0.4435;
166.2000;0.1579;0.4459;
166.5000;0.1579;0.4340;
166.8000;0.1669;0.4626;
167.1000;0.1579;0.4388;
167.4000;0.1595;0.4388;
167.7000;0.1579;0.4364;
168.0000;0.1620;0.4483;
168.3000;0.1595;0.4292;
168.6000;0.1587;0.4244;
168.9000;0.1514;0.4078;
169.2000;0.1555;0.4268;
169.5000;0.1579;0.4316;
169.8000;0.1563;0.4268;
170.1000;0.1595;0.4388;
170.4000;0.1579;0.4435;
170.7000;0.1595;0.4459;
171.0000;0.1620;0.4531;
171.3000;0.1604;0.4507;
171.6000;0.1587;0.4483;
171.9000;0.1563;0.4411;
172.2000;0.1636;0.4745;
172.5000;0.1587;0.4602;
172.8000;0.1579;0.4602;
173.1000;0.1652;0.4888;
173.4000;0.1563;0.4721;
173.7000;0.1595;0.4817;
174.0000;0.1587;0.4793;
174.3000;0.1579;0.4674;
174.6000;0.1555;0.4578;
174.9000;0.1595;0.4626;
175.2000;0.1579;0.4602;
175.5000;0.1587;0.4531;
175.8000;0.1579;0.4554;
176.1000;0.1579;0.4554;
176.4000;0.1563;0.4554;
176.7000;0.1604;0.4698;
177.0000;0.1587;0.4650;
177.3000;0.1563;0.4531;
177.6000;0.1506;0.4411;
177.9000;0.1595;0.4698;
178.2000;0.1579;0.4698;
178.5000;0.1563;0.4578;
178.8000;0.1571;0.4650;
179.1000;0.1555;0.4507;
179.4000;0.1579;0.4507;
179.7000;0.1587;0.4459;
180.0000;0.1587;0.4435;
180.3000;0.1587;0.4435;
180.6000;0.1587;0.4483;
180.9000;0.1579;0.4531;
181.2000;0.1555;0.4507;
181.5000;0.1579;0.4507;
181.8000;0.1612;0.4602;
182.1000;0.1571;0.4531;
182.4000;0.1449;0.4221;
182.7000;0.1579;0.4578;
183.0000;0.1652;0.4674;
183.3000;0.1579;0.4435;
183.6000;0.1595;0.4483;
183.9000;0.1726;0.4769;
184.2000;0.1587;0.4364;
184.5000;0.1587;0.4459;
184.8000;0.1571;0.4435;
185.1000;0.1595;0.4388;
185.4000;0.1612;0.4411;
185.7000;0.1571;0.4388;
186.0000;0.1555;0.4244;
186.3000;0.1547;0.4197;
186.6000;0.1571;0.4221;
186.9000;0.1604;0.4316;
187.2000;0.1555;0.4244;
187.5000;0.1555;0.4268;
187.8000;0.1620;0.4483;
188.1000;0.1506;0.4221;
188.4000;0.1661;0.4650;
188.7000;0.1587;0.4435;
189.0000;0.1587;0.4411;
189.3000;0.1587;0.4459;
189.6000;0.1595;0.4435;
189.9000;0.1587;0.4388;
190.2000;0.1555;0.4292;
190.5000;0.1587;0.4364;
190.8000;0.1595;0.4435;
191.1000;0.1587;0.4364;
191.4000;0.1595;0.4340;
191.7000;0.1571;0.4221;
192.0000;0.1595;0.4197;
192.3000;0.1571;0.4125;
192.6000;0.1579;0.4173;
192.9000;0.1571;0.4292;
193.2000;0.1595;0.4435;
193.5000;0.1595;0.4507;
193.8000;0.1587;0.4507;
194.1000;0.1579;0.4483;
194.4000;0.1571;0.4435;
194.7000;0.1604;0.4554;
195.0000;0.1587;0.4459;
195.3000;0.1579;0.4459;
195.6000;0.1587;0.4554;
195.9000;0.1579;0.4602;
196.2000;0.1571;0.4602;
196.5000;0.1595;0.4698;
196.8000;0.1587;0.4721;
197.1000;0.1587;0.4745;
197.4000;0.1563;0.4674;
197.7000;0.1579;0.4674;
198.0000;0.1579;0.4650;
198.3000;0.1595;0.4745;
198.6000;0.1595;0.4769;
198.9000;0.1587;0.4674;
199.2000;0.1620;0.4721;
199.5000;0.1604;0.4554;
199.8000;0.1587;0.4602;
200.1000;0.1579;0.4674;
200.4000;0.1571;0.4674;
200.7000;0.1604;0.4698;
201.0000;0.1563;0.4507;
201.3000;0.1571;0.4459;
201.6000;0.1563;0.4411;
201.9000;0.1547;0.4411;
202.2000;0.1547;0.4554;
202.5000;0.1579;0.4554;
202.8000;0.1628;0.4745;
203.1000;0.1571;0.4650;
203.4000;0.1652;0.4793;
203.7000;0.1571;0.4602;
204.0000;0.1612;0.4650;
204.3000;0.1514;0.4411;
204.6000;0.1636;0.4817;
204.9000;0.1587;0.4602;
205.2000;0.1595;0.4721;
205.5000;0.1579;0.4602;
205.8000;0.1571;0.4554;
206.1000;0.1579;0.4578;
206.4000;0.1563;0.4459;
206.7000;0.1481;0.4125;
207.0000;0.1563;0.4268;
207.3000;0.1595;0.4340;
207.6000;0.1604;0.4292;
207.9000;0.1498;0.4006;
208.2000;0.1604;0.4316;
208.5000;0.1587;0.4244;
208.8000;0.1595;0.4221;
209.1000;0.1555;0.4078;
209.4000;0.1571;0.4125;
209.7000;0.1563;0.4173;
210.0000;0.1595;0.4292;
210.3000;0.1587;0.4197;
210.6000;0.1571;0.4197;
210.9000;0.1555;0.4173;
211.2000;0.1595;0.4197;
211.5000;0.1628;0.4340;
211.8000;0.1571;0.4173;
212.1000;0.1579;0.4221;
212.4000;0.1587;0.4221;
212.7000;0.1579;0.4268;
213.0000;0.1571;0.4244;
213.3000;0.1579;0.4197;
213.6000;0.1571;0.4197;
213.9000;0.1587;0.4268;
214.2000;0.1620;0.4292;
214.5000;0.1579;0.4244;
214.8000;0.1579;0.4244;
215.1000;0.1612;0.4292;
215.4000;0.1595;0.4340;
215.7000;0.1571;0.4268;
216.0000;0.1571;0.4244;
216.3000;0.1587;0.4197;
216.6000;0.1595;0.4197;
216.9000;0.1571;0.4173;
217.2000;0.1555;0.4149;
217.5000;0.1571;0.4101;
217.8000;0.1604;0.4221;
218.1000;0.1563;0.4221;
218.4000;0.1587;0.4268;
218.7000;0.1555;0.4173;
219.0000;0.1595;0.4221;
219.3000;0.1571;0.4101;
219.6000;0.1595;0.4125;
219.9000;0.1595;0.4101;
220.2000;0.1701;0.4364;
220.5000;0.1620;0.4244;
220.8000;0.1595;0.4173;
221.1000;0.1595;0.4221;
221.4000;0.1604;0.4340;
221.7000;0.1595;0.4388;
222.0000;0.1571;0.4364;
222.3000;0.1701;0.4721;
222.6000;0.1595;0.4435;
222.9000;0.1587;0.4388;
223.2000;0.1595;0.4507;
223.5000;0.1538;0.4435;
223.8000;0.1579;0.4459;
224.1000;0.1563;0.4411;
224.4000;0.1547;0.4364;
224.7000;0.1579;0.4364;
225.0000;0.1563;0.4340;
225.3000;0.1595;0.4483;
225.6000;0.1522;0.4244;
225.9000;0.1587;0.4388;
226.2000;0.1579;0.4364;
226.5000;0.1579;0.4292;
226.8000;0.1587;0.4388;
227.1000;0.1571;0.4364;
227.4000;0.1652;0.4531;
227.7000;0.1571;0.4435;
228.0000;0.1595;0.4507;
228.3000;0.1644;0.4698;
228.6000;0.1628;0.4626;
228.9000;0.1563;0.4507;
229.2000;0.1571;0.4507;
229.5000;0.1563;0.4435;
229.8000;0.1571;0.4435;
230.1000;0.1571;0.4459;
230.4000;0.1628;0.4507;
230.7000;0.1604;0.4459;
231.0000;0.1604;0.4507;
231.3000;0.1563;0.4364;
231.6000;0.1571;0.4411;
231.9000;0.1530;0.4388;
232.2000;0.1612;0.4602;
232.5000;0.1587;0.4531;
232.8000;0.1563;0.4459;
233.1000;0.1547;0.4388;
233.4000;0.1579;0.4507;
233.7000;0.1587;0.4507;
234.0000;0.1579;0.4507;
234.3000;0.1579;0.4459;
234.6000;0.1595;0.4459;
234.9000;0.1595;0.4554;
235.2000;0.1547;0.4411;
235.5000;0.1587;0.4531;
235.8000;0.1555;0.4435;
236.1000;0.1595;0.4602;
236.4000;0.1587;0.4507;
236.7000;0.1547;0.4364;
237.0000;0.1612;0.4435;
237.3000;0.1587;0.4411;
237.6000;0.1579;0.4435;
237.9000;0.1652;0.4650;
238.2000;0.1547;0.4459;
238.5000;0.1530;0.4435;
238.8000;0.1644;0.4674;
239.1000;0.1595;0.4650;
239.4000;0.1595;0.4650;
239.7000;0.1595;0.4626;
240.0000;0.1563;0.4483;
240.3000;0.1579;0.4483;
240.6000;0.1579;0.4483;
240.9000;0.1620;0.4674;
241.2000;0.1555;0.4531;
241.5000;0.1587;0.4531;
241.8000;0.1587;0.4483;
242.1000;0.1612;0.4602;
242.4000;0.1579;0.4531;
242.7000;0.1587;0.4602;
243.0000;0.1579;0.4674;
243.3000;0.1620;0.4745;
243.6000;0.1595;0.4698;
243.9000;0.1563;0.4721;
244.2000;0.1661;0.4960;
244.5000;0.1579;0.4698;
244.8000;0.1579;0.4602;
245.1000;0.1579;0.4554;
245.4000;0.1579;0.4459;
245.7000;0.1595;0.4459;
246.0000;0.1595;0.4483;
246.3000;0.1579;0.4507;
246.6000;0.1579;0.4459;
246.9000;0.1563;0.4435;
247.2000;0.1587;0.4554;
247.5000;0.1555;0.4459;
247.8000;0.1587;0.4483;
248.1000;0.1612;0.4388;
248.4000;0.1685;0.4698;
248.7000;0.1604;0.4507;
249.0000;0.1595;0.4554;
249.3000;0.1571;0.4435;
249.6000;0.1685;0.4650;
249.9000;0.1604;0.4316;
250.2000;0.1587;0.4268;
250.5000;0.1579;0.4316;
250.8000;0.1563;0.4316;
251.1000;0.1612;0.4483;
251.4000;0.1595;0.4483;
251.7000;0.1636;0.4650;
252.0000;0.1555;0.4554;
252.3000;0.1595;0.4626;
252.6000;0.1587;0.4578;
252.9000;0.1547;0.4531;
253.2000;0.1563;0.4578;
253.5000;0.1595;0.4602;
253.8000;0.1604;0.4650;
254.1000;0.1604;0.4650;
254.4000;0.1587;0.4602;
254.7000;0.1579;0.4531;
255.0000;0.1579;0.4459;
255.3000;0.1555;0.4388;
255.6000;0.1579;0.4435;
255.9000;0.1514;0.4340;
256.2000;0.1587;0.4578;
256.5000;0.1563;0.4578;
256.8000;0.1587;0.4650;
257.1000;0.1571;0.4578;
257.4000;0.1579;0.4578;
257.7000;0.1506;0.4435;
258.0000;0.1595;0.4698;
258.3000;0.1595;0.4698;
258.6000;0.1587;0.4650;
258.9000;0.1612;0.4674;
259.2000;0.1571;0.4674;
259.5000;0.1652;0.4936;
259.8000;0.1587;0.4698;
260.1000;0.1628;0.4721;
260.4000;0.1587;0.4674;
260.7000;0.1595;0.4721;
261.0000;0.1644;0.4817;
261.3000;0.1555;0.4554;
261.6000;0.1587;0.4602;
261.9000;0.1587;0.4650;
262.2000;0.1555;0.4507;
262.5000;0.1538;0.4507;
262.8000;0.1579;0.4602;
263.1000;0.1563;0.4650;
263.4000;0.1604;0.4745;
263.7000;0.1563;0.4578;
264.0000;0.1652;0.4769;
264.3000;0.1563;0.4554;
264.6000;0.1595;0.4745;
264.9000;0.1612;0.4841;
265.2000;0.1587;0.4650;
265.5000;0.1595;0.4554;
265.8000;0.1595;0.4531;
266.1000;0.1595;0.4531;
266.4000;0.1587;0.4507;
266.7000;0.1579;0.4459;
267.0000;0.1604;0.4459;
267.3000;0.1522;0.4316;
267.6000;0.1563;0.4459;
267.9000;0.1587;0.4554;
268.2000;0.1604;0.4483;
268.5000;0.1579;0.4411;
268.8000;0.1571;0.4411;
269.1000;0.1604;0.4554;
269.4000;0.1587;0.4483;
269.7000;0.1595;0.4531;
270.0000;0.1620;0.4602;
270.3000;0.1652;0.4650;
270.6000;0.1595;0.4578;
270.9000;0.1595;0.4650;
271.2000;0.1587;0.4602;
271.5000;0.1563;0.4554;
271.8000;0.1595;0.4483;
272.1000;0.1587;0.4531;
272.4000;0.1693;0.4841;
272.7000;0.1563;0.4483;
273.0000;0.1595;0.4602;
273.3000;0.1579;0.4578;
273.6000;0.1579;0.4531;
273.9000;0.1669;0.4721;
274.2000;0.1612;0.4650;
274.5000;0.1587;0.4626;
274.8000;0.1587;0.4602;
275.1000;0.1587;0.4578;
275.4000;0.1571;0.4435;
275.7000;0.1555;0.4411;
276.0000;0.1595;0.4554;
276.3000;0.1595;0.4483;
276.6000;0.1563;0.4411;
276.9000;0.1547;0.4364;
277.2000;0.1587;0.4340;
277.5000;0.1587;0.4316;
277.8000;0.1563;0.4268;
278.1000;0.1604;0.4364;
278.4000;0.1579;0.4292;
278.7000;0.1563;0.4268;
279.0000;0.1587;0.4411;
279.3000;0.1555;0.4316;
279.6000;0.1587;0.4411;
279.9000;0.1579;0.4364;
280.2000;0.1465;0.4054;
280.5000;0.1685;0.4626;
280.8000;0.1547;0.4221;
281.1000;0.1612;0.4435;
281.4000;0.1628;0.4578;
281.7000;0.1587;0.4435;
282.0000;0.1587;0.4435;
282.3000;0.1587;0.4411;
282.6000;0.1579;0.4435;
282.9000;0.1587;0.4388;
283.2000;0.1604;0.4435;
283.5000;0.1595;0.4507;
283.8000;0.1612;0.4459;
284.1000;0.1579;0.4459;
284.4000;0.1530;0.4316;
284.7000;0.1587;0.4459;
285.0000;0.1587;0.4507;
285.3000;0.1587;0.4650;
285.6000;0.1579;0.4602;
285.9000;0.1587;0.4650;
286.2000;0.1652;0.4817;
286.5000;0.1579;0.4554;
286.8000;0.1579;0.4602;
287.1000;0.1538;0.4411;
287.4000;0.1571;0.4364;
287.7000;0.1579;0.4364;
288.0000;0.1612;0.4459;
288.3000;0.1620;0.4459;
288.6000;0.1579;0.4340;
288.9000;0.1604;0.4411;
289.2000;0.1595;0.4388;
289.5000;0.1587;0.4388;
289.8000;0.1579;0.4316;
290.1000;0.1579;0.4364;
290.4000;0.1604;0.4483;
290.7000;0.1587;0.4507;
291.0000;0.1620;0.4602;
291.3000;0.1636;0.4578;
291.6000;0.1587;0.4507;
291.9000;0.1595;0.4507;
292.2000;0.1604;0.4531;
292.5000;0.1579;0.4411;
292.8000;0.1579;0.4388;
293.1000;0.1579;0.4364;
293.4000;0.1587;0.4364;
293.7000;0.1571;0.4364;
294.0000;0.1571;0.4459;
294.3000;0.1579;0.4435;
294.6000;0.1579;0.4507;
294.9000;0.1563;0.4531;
295.2000;0.1612;0.4554;
295.5000;0.1595;0.4483;
295.8000;0.1604;0.4483;
296.1000;0.1579;0.4435;
296.4000;0.1490;0.4125;
296.7000;0.1579;0.4411;
297.0000;0.1579;0.4388;
297.3000;0.1555;0.4364;
297.6000;0.1620;0.4578;
297.9000;0.1595;0.4602;
298.2000;0.1587;0.4507;
298.5000;0.1595;0.4507;
298.8000;0.1490;0.4292;
299.1000;0.1652;0.4698;
299.4000;0.1538;0.4364;
299.7000;0.1587;0.4507;
300.0000;0.1563;0.4435;
300.3000;0.1571;0.4435;
300.6000;0.1579;0.4388;
300.9000;0.1587;0.4411;
301.2000;0.1595;0.4340;
301.5000;0.1604;0.4364;
301.8000;0.1579;0.4364;
302.1000;0.1644;0.4554;
302.4000;0.1604;0.4483;
302.7000;0.1604;0.4602;
303.0000;0.1547;0.4531;
303.3000;0.1571;0.4602;
303.6000;0.1579;0.4674;
303.9000;0.1579;0.4674;
304.2000;0.1604;0.4745;
304.5000;0.1498;0.4459;
304.8000;0.1587;0.4650;
305.1000;0.1563;0.4626;
305.4000;0.1587;0.4602;
305.7000;0.1587;0.4578;
306.0000;0.1595;0.4602;
306.3000;0.1563;0.4554;
306.6000;0.1571;0.4531;
306.9000;0.1555;0.4554;
307.2000;0.1595;0.4650;
307.5000;0.1612;0.4745;
307.8000;0.1595;0.4602;
308.1000;0.1587;0.4650;
308.4000;0.1563;0.4578;
308.7000;0.1587;0.4650;
309.0000;0.1563;0.4554;
309.3000;0.1587;0.4578;
309.6000;0.1595;0.4507;
309.9000;0.1579;0.4507;
310.2000;0.1579;0.4531;
310.5000;0.1571;0.4602;
310.8000;0.1579;0.4531;
311.1000;0.1620;0.4531;
311.4000;0.1579;0.4388;
311.7000;0.1571;0.4364;
312.0000;0.1587;0.4411;
312.3000;0.1595;0.4411;
312.6000;0.1579;0.4459;
312.9000;0.1563;0.4507;
313.2000;0.1595;0.4507;
313.5000;0.1612;0.4602;
313.8000;0.1595;0.4602;
314.1000;0.1587;0.4650;
314.4000;0.1587;0.4793;
314.7000;0.1587;0.4745;
315.0000;0.1571;0.4721;
315.3000;0.1579;0.4745;
315.6000;0.1571;0.4745;
315.9000;0.1579;0.4698;
316.2000;0.1604;0.4674;
316.5000;0.1571;0.4531;
316.8000;0.1579;0.4554;
317.1000;0.1595;0.4626;
317.4000;0.1604;0.4650;
317.7000;0.1579;0.4626;
318.0000;0.1587;0.4578;
318.3000;0.1677;0.4793;
318.6000;0.1595;0.4578;
318.9000;0.1587;0.4626;
319.2000;0.1595;0.4602;
319.5000;0.1595;0.4674;
319.8000;0.1579;0.4650;
320.1000;0.1595;0.4745;
320.4000;0.1587;0.4769;
320.7000;0.1595;0.4769;
321.0000;0.1595;0.4817;
321.3000;0.1579;0.4721;
321.6000;0.1620;0.4793;
321.9000;0.1718;0.5103;
322.2000;0.1587;0.4721;
322.5000;0.1604;0.4864;
322.8000;0.1595;0.4864;
323.1000;0.1571;0.4793;
323.4000;0.1587;0.4674;
323.7000;0.1595;0.4698;
324.0000;0.1571;0.4602;
324.3000;0.1595;0.4554;
324.6000;0.1587;0.4483;
324.9000;0.1604;0.4554;
325.2000;0.1579;0.4578;
325.5000;0.1587;0.4674;
325.8000;0.1579;0.4721;
326.1000;0.1604;0.4769;
326.4000;0.1563;0.4626;
326.7000;0.1587;0.4531;
327.0000;0.1579;0.4483;
327.3000;0.1579;0.4531;
327.6000;0.1579;0.4507;
327.9000;0.1571;0.4483;
328.2000;0.1563;0.4626;
328.5000;0.1595;0.4721;
328.8000;0.1587;0.4626;
329.1000;0.1604;0.4626;
329.4000;0.1555;0.4483;
329.7000;0.1595;0.4531;
330.0000;0.1490;0.4292;
330.3000;0.1595;0.4602;
330.6000;0.1587;0.4602;
330.9000;0.1628;0.4721;
331.2000;0.1571;0.4650;
331.5000;0.1595;0.4721;
331.8000;0.1587;0.4698;
332.1000;0.1579;0.4674;
332.4000;0.1538;0.4554;
332.7000;0.1571;0.4674;
333.0000;0.1530;0.4507;
333.3000;0.1579;0.4578;
333.6000;0.1595;0.4578;
333.9000;0.1579;0.4531;
334.2000;0.1547;0.4483;
334.5000;0.1571;0.4721;
334.8000;0.1579;0.4698;
335.1000;0.1595;0.4793;
335.4000;0.1571;0.4721;
335.7000;0.1620;0.4864;
336.0000;0.1555;0.4721;
336.3000;0.1530;0.4626;
336.6000;0.1571;0.4674;
336.9000;0.1571;0.4698;
337.2000;0.1571;0.4602;
337.5000;0.1555;0.4507;
337.8000;0.1571;0.4483;
338.1000;0.1587;0.4507;
338.4000;0.1604;0.4531;
338.7000;0.1587;0.4459;
339.0000;0.1571;0.4483;
339.3000;0.1587;0.4531;
339.6000;0.1595;0.4554;
339.9000;0.1571;0.4507;
340.2000;0.1587;0.4507;
340.5000;0.1579;0.4507;
340.8000;0.1587;0.4531;
341.1000;0.1579;0.4578;
341.4000;0.1571;0.4507;
341.7000;0.1579;0.4578;
342.0000;0.1571;0.4578;
342.3000;0.1579;0.4626;
342.6000;0.1571;0.4674;
342.9000;0.1571;0.4602;
343.2000;0.1530;0.4388;
343.5000;0.1571;0.4531;
343.8000;0.1587;0.4507;
344.1000;0.1579;0.4411;
344.4000;0.1587;0.4459;
344.7000;0.1669;0.4531;
345.0000;0.1595;0.4483;
345.3000;0.1604;0.4483;
345.6000;0.1522;0.4340;
345.9000;0.1538;0.4340;
346.2000;0.1579;0.4435;
346.5000;0.1579;0.4459;
346.8000;0.1604;0.4483;
347.1000;0.1579;0.4459;
347.4000;0.1571;0.4459;
347.7000;0.1587;0.4459;
348.0000;0.1587;0.4435;
348.3000;0.1579;0.4411;
348.6000;0.1579;0.4411;
348.9000;0.1587;0.4483;
349.2000;0.1547;0.4388;
349.5000;0.1595;0.4507;
349.8000;0.1571;0.4483;
350.1000;0.1555;0.4554;
350.4000;0.1555;0.4602;
350.7000;0.1571;0.4531;
351.0000;0.1587;0.4554;
351.3000;0.1587;0.4507;
351.6000;0.1563;0.4364;
351.9000;0.1612;0.4531;
352.2000;0.1595;0.4507;
352.5000;0.1571;0.4435;
352.8000;0.1538;0.4340;
353.1000;0.1579;0.4507;
353.4000;0.1587;0.4650;
353.7000;0.1612;0.4650;
354.0000;0.1636;0.4769;
354.3000;0.1628;0.4817;
354.6000;0.1595;0.4674;
354.9000;0.1490;0.4364;
355.2000;0.1604;0.4626;
355.5000;0.1579;0.4531;
355.8000;0.1579;0.4435;
356.1000;0.1587;0.4507;
356.4000;0.1604;0.4435;
356.7000;0.1595;0.4459;
357.0000;0.1522;0.4268;
357.3000;0.1612;0.4411;
357.6000;0.1587;0.4411;
357.9000;0.1612;0.4507;
358.2000;0.1587;0.4531;
358.5000;0.1579;0.4507;
358.8000;0.1563;0.4459;
359.1000;0.1490;0.4292;
359.4000;0.1579;0.4483;
359.7000;0.1595;0.4435;
360.0000;0.1604;0.4411;
360.3000;0.1620;0.4459;
360.6000;0.1579;0.4435;
360.9000;0.1571;0.4435;
361.2000;0.1547;0.4244;
361.5000;0.1579;0.4435;
361.8000;0.1538;0.4364;
362.1000;0.1612;0.4554;
362.4000;0.1587;0.4483;
362.7000;0.1547;0.4316;
363.0000;0.1563;0.4411;
363.3000;0.1563;0.4483;
363.6000;0.1571;0.4578;
363.9000;0.1604;0.4698;
364.2000;0.1595;0.4674;
364.5000;0.1571;0.4674;
364.8000;0.1571;0.4626;
365.1000;0.1604;0.4721;
365.4000;0.1685;0.4817;
365.7000;0.1571;0.4531;
366.0000;0.1587;0.4507;
366.3000;0.1669;0.4674;
366.6000;0.1547;0.4364;
366.9000;0.1579;0.4507;
367.2000;0.1571;0.4459;
367.5000;0.1579;0.4483;
367.8000;0.1587;0.4531;
368.1000;0.1595;0.4554;
368.4000;0.1587;0.4507;
368.7000;0.1587;0.4554;
369.0000;0.1579;0.4507;
369.3000;0.1587;0.4459;
369.6000;0.1579;0.4459;
369.9000;0.1563;0.4483;
370.2000;0.1612;0.4626;
370.5000;0.1636;0.4721;
370.8000;0.1579;0.4602;
371.1000;0.1555;0.4531;
371.4000;0.1604;0.4602;
371.7000;0.1612;0.4626;
372.0000;0.1571;0.4507;
372.3000;0.1579;0.4531;
372.6000;0.1579;0.4531;
372.9000;0.1522;0.4364;
373.2000;0.1555;0.4340;
373.5000;0.1636;0.4554;
373.8000;0.1547;0.4364;
374.1000;0.1604;0.4483;
374.4000;0.1571;0.4483;
374.7000;0.1571;0.4435;
375.0000;0.1473;0.4149;
375.3000;0.1522;0.4316;
375.6000;0.1587;0.4507;
375.9000;0.1563;0.4435;
376.2000;0.1563;0.4435;
376.5000;0.1506;0.4316;
376.8000;0.1579;0.4507;
377.1000;0.1636;0.4674;
377.4000;0.1563;0.4602;
377.7000;0.1612;0.4745;
378.0000;0.1522;0.4531;
378.3000;0.1636;0.4745;
378.6000;0.1587;0.4578;
378.9000;0.1595;0.4554;
379.2000;0.1604;0.4626;
379.5000;0.1595;0.4531;
379.8000;0.1661;0.4721;
380.1000;0.1579;0.4531;
380.4000;0.1587;0.4483;
380.7000;0.1587;0.4435;
381.0000;0.1522;0.4292;
381.3000;0.1718;0.4793;
381.6000;0.1604;0.4483;
381.9000;0.1604;0.4483;
382.2000;0.1595;0.4435;
382.5000;0.1571;0.4364;
382.8000;0.1465;0.4197;
383.1000;0.1579;0.4483;
383.4000;0.1579;0.4435;
383.7000;0.1636;0.4578;
384.0000;0.1587;0.4435;
384.3000;0.1652;0.4531;
384.6000;0.1587;0.4411;
384.9000;0.1555;0.4364;
385.2000;0.1571;0.4411;
385.5000;0.1571;0.4435;
385.8000;0.1595;0.4435;
386.1000;0.1579;0.4411;
386.4000;0.1547;0.4388;
386.7000;0.1587;0.4411;
387.0000;0.1595;0.4459;
387.3000;0.1587;0.4459;
387.6000;0.1579;0.4364;
387.9000;0.1563;0.4316;
388.2000;0.1612;0.4435;
388.5000;0.1514;0.4244;
388.8000;0.1587;0.4507;
389.1000;0.1563;0.4435;
389.4000;0.1579;0.4411;
389.7000;0.1595;0.4388;
390.0000;0.1563;0.4268;
390.3000;0.1571;0.4316;
390.6000;0.1563;0.4340;
390.9000;0.1604;0.4507;
391.2000;0.1571;0.4554;
391.5000;0.1669;0.4745;
391.8000;0.1563;0.4578;
392.1000;0.1579;0.4578;
392.4000;0.1693;0.4841;
392.7000;0.1571;0.4578;
393.0000;0.1563;0.4483;
393.3000;0.1587;0.4483;
393.6000;0.1571;0.4411;
393.9000;0.1579;0.4459;
394.2000;0.1538;0.4364;
394.5000;0.1587;0.4507;
394.8000;0.1481;0.4268;
395.1000;0.1587;0.4578;
395.4000;0.1579;0.4554;
395.7000;0.1579;0.4554;
396.0000;0.1620;0.4650;
396.3000;0.1579;0.4554;
396.6000;0.1571;0.4578;
396.9000;0.1579;0.4650;
397.2000;0.1652;0.4841;
397.5000;0.1547;0.4459;
397.8000;0.1555;0.4435;
398.1000;0.1587;0.4531;
398.4000;0.1595;0.4578;
398.7000;0.1579;0.4578;
399.0000;0.1636;0.4769;
399.3000;0.1612;0.4698;
399.6000;0.1563;0.4435;
399.9000;0.1595;0.4531;
400.2000;0.1587;0.4507;
400.5000;0.1538;0.4316;
400.8000;0.1571;0.4316;
401.1000;0.1571;0.4388;
401.4000;0.1644;0.4602;
401.7000;0.1579;0.4364;
402.0000;0.1579;0.4459;
402.3000;0.1579;0.4435;
402.6000;0.1579;0.4411;
402.9000;0.1595;0.4483;
403.2000;0.1604;0.4411;
403.5000;0.1587;0.4388;
403.8000;0.1571;0.4388;
404.1000;0.1571;0.4388;
404.4000;0.1579;0.4340;
404.7000;0.1661;0.4578;
405.0000;0.1628;0.4554;
405.3000;0.1595;0.4364;
405.6000;0.1547;0.4268;
405.9000;0.1579;0.4292;
406.2000;0.1604;0.4411;
406.5000;0.1595;0.4459;
406.8000;0.1579;0.4435;
407.1000;0.1595;0.4507;
407.4000;0.1587;0.4507;
407.7000;0.1538;0.4388;
408.0000;0.1579;0.4507;
408.3000;0.1620;0.4507;
408.6000;0.1563;0.4411;
408.9000;0.1579;0.4388;
409.2000;0.1571;0.4364;
409.5000;0.1555;0.4340;
409.8000;0.1571;0.4435;
410.1000;0.1579;0.4435;
410.4000;0.1547;0.4268;
410.7000;0.1571;0.4364;
411.0000;0.1587;0.4459;
411.3000;0.1595;0.4459;
411.6000;0.1644;0.4602;
411.9000;0.1595;0.4483;
412.2000;0.1571;0.4483;
412.5000;0.1612;0.4531;
412.8000;0.1579;0.4483;
413.1000;0.1579;0.4554;
413.4000;0.1620;0.4674;
413.7000;0.1579;0.4507;
414.0000;0.1620;0.4602;
414.3000;0.1563;0.4411;
414.6000;0.1595;0.4554;
414.9000;0.1563;0.4507;
415.2000;0.1579;0.4507;
415.5000;0.1677;0.4888;
415.8000;0.1620;0.4698;
416.1000;0.1579;0.4626;
416.4000;0.1538;0.4650;
416.7000;0.1587;0.4698;
417.0000;0.1530;0.4602;
417.3000;0.1571;0.4721;
417.6000;0.1595;0.4793;
417.9000;0.1587;0.4698;
418.2000;0.1538;0.4531;
418.5000;0.1604;0.4602;
418.8000;0.1644;0.4745;
419.1000;0.1506;0.4340;
419.4000;0.1595;0.4554;
419.7000;0.1595;0.4578;
420.0000;0.1612;0.4578;
420.3000;0.1579;0.4483;
420.6000;0.1555;0.4507;
420.9000;0.1604;0.4578;
421.2000;0.1579;0.4531;
421.5000;0.1571;0.4531;
421.8000;0.1571;0.4507;
422.1000;0.1587;0.4578;
422.4000;0.1604;0.4650;
422.7000;0.1563;0.4554;
423.0000;0.1571;0.4650;
423.3000;0.1587;0.4674;
423.6000;0.1587;0.4698;
423.9000;0.1587;0.4650;
424.2000;0.1579;0.4602;
424.5000;0.1612;0.4602;
424.8000;0.1628;0.4721;
425.1000;0.1636;0.4769;
425.4000;0.1563;0.4531;
425.7000;0.1595;0.4721;
426.0000;0.1579;0.4698;
426.3000;0.1579;0.4769;
426.6000;0.1571;0.4721;
426.9000;0.1595;0.4817;
427.2000;0.1587;0.4817;
427.5000;0.1604;0.4745;
427.8000;0.1604;0.4674;
428.1000;0.1620;0.4650;
428.4000;0.1604;0.4602;
428.7000;0.1685;0.4864;
429.0000;0.1579;0.4531;
429.3000;0.1595;0.4602;
429.6000;0.1604;0.4554;
429.9000;0.1587;0.4507;
430.2000;0.1587;0.4554;
430.5000;0.1571;0.4554;
430.8000;0.1595;0.4626;
431.1000;0.1628;0.4674;
431.4000;0.1538;0.4483;
431.7000;0.1595;0.4650;
432.0000;0.1595;0.4626;
432.3000;0.1612;0.4674;
432.6000;0.1587;0.4626;
432.9000;0.1571;0.4483;
433.2000;0.1555;0.4507;
433.5000;0.1563;0.4554;
433.8000;0.1595;0.4602;
434.1000;0.1547;0.4483;
434.4000;0.1612;0.4674;
434.7000;0.1628;0.4698;
435.0000;0.1612;0.4578;
435.3000;0.1579;0.4578;
435.6000;0.1571;0.4578;
435.9000;0.1595;0.4650;
436.2000;0.1579;0.4578;
436.5000;0.1563;0.4483;
436.8000;0.1473;0.4316;
437.1000;0.1547;0.4483;
437.4000;0.1595;0.4626;
437.7000;0.1579;0.4602;
438.0000;0.1587;0.4602;
438.3000;0.1571;0.4626;
438.6000;0.1604;0.4745;
438.9000;0.1604;0.4698;
439.2000;0.1595;0.4674;
439.5000;0.1579;0.4721;
439.8000;0.1587;0.4745;
440.1000;0.1571;0.4721;
440.4000;0.1587;0.4817;
440.7000;0.1579;0.4698;
441.0000;0.1555;0.4626;
441.3000;0.1612;0.4674;
441.6000;0.1571;0.4531;
441.9000;0.1563;0.4554;
442.2000;0.1587;0.4626;
442.5000;0.1579;0.4483;
442.8000;0.1587;0.4602;
443.1000;0.1547;0.4554;
443.4000;0.1579;0.4507;
443.7000;0.1587;0.4507;
444.0000;0.1506;0.4268;
444.3000;0.1579;0.4411;
444.6000;0.1555;0.4340;
444.9000;0.1612;0.4435;
445.2000;0.1628;0.4531;
445.5000;0.1587;0.4435;
445.8000;0.1587;0.4483;
446.1000;0.1587;0.4435;
446.4000;0.1571;0.4244;
446.7000;0.1563;0.4244;
447.0000;0.1579;0.4340;
447.3000;0.1571;0.4268;
447.6000;0.1563;0.4364;
447.9000;0.1579;0.4411;
448.2000;0.1571;0.4316;
448.5000;0.1587;0.4411;
448.8000;0.1595;0.4435;
449.1000;0.1604;0.4459;
449.4000;0.1604;0.4459;
449.7000;0.1579;0.4435;
450.0000;0.1465;0.4197;
450.3000;0.1587;0.4531;
450.6000;0.1595;0.4554;
450.9000;0.1604;0.4650;
451.2000;0.1563;0.4531;
451.5000;0.1579;0.4507;
451.8000;0.1571;0.4388;
452.1000;0.1579;0.4435;
452.4000;0.1604;0.4483;
452.7000;0.1620;0.4459;
453.0000;0.1587;0.4459;
453.3000;0.1595;0.4411;
453.6000;0.1579;0.4364;
453.9000;0.1571;0.4364;
454.2000;0.1530;0.4364;
454.5000;0.1571;0.4411;
454.8000;0.1587;0.4435;
455.1000;0.1612;0.4507;
455.4000;0.1595;0.4435;
455.7000;0.1620;0.4554;
456.0000;0.1555;0.4531;
456.3000;0.1587;0.4554;
456.6000;0.1579;0.4554;
456.9000;0.1595;0.4650;
457.2000;0.1595;0.4578;
457.5000;0.1579;0.4507;
457.8000;0.1587;0.4507;
458.1000;0.1595;0.4531;
458.4000;0.1571;0.4483;
458.7000;0.1522;0.4316;
459.0000;0.1571;0.4554;
459.3000;0.1571;0.4602;
459.6000;0.1579;0.4698;
459.9000;0.1579;0.4626;
460.2000;0.1571;0.4602;
460.5000;0.1595;0.4626;
460.8000;0.1595;0.4626;
461.1000;0.1595;0.4626;
461.4000;0.1636;0.4721;
461.7000;0.1579;0.4578;
462.0000;0.1571;0.4531;
462.3000;0.1579;0.4578;
462.6000;0.1579;0.4531;
462.9000;0.1555;0.4459;
463.2000;0.1604;0.4554;
463.5000;0.1620;0.4602;
463.8000;0.1555;0.4531;
464.1000;0.1595;0.4626;
464.4000;0.1587;0.4578;
464.7000;0.1579;0.4554;
465.0000;0.1579;0.4554;
465.3000;0.1587;0.4578;
465.6000;0.1563;0.4507;
465.9000;0.1587;0.4531;
466.2000;0.1595;0.4531;
466.5000;0.1587;0.4483;
466.8000;0.1587;0.4483;
467.1000;0.1636;0.4602;
467.4000;0.1587;0.4483;
467.7000;0.1587;0.4459;
468.0000;0.1441;0.4030;
468.3000;0.1579;0.4459;
468.6000;0.1595;0.4459;
468.9000;0.1579;0.4459;
469.2000;0.1522;0.4197;
469.5000;0.1563;0.4340;
469.8000;0.1579;0.4411;
470.1000;0.1595;0.4483;
470.4000;0.1571;0.4459;
470.7000;0.1595;0.4578;
471.0000;0.1498;0.4340;
471.3000;0.1587;0.4531;
471.6000;0.1669;0.4674;
471.9000;0.1587;0.4483;
472.2000;0.1595;0.4602;
472.5000;0.1595;0.4650;
472.8000;0.1547;0.4554;
473.1000;0.1595;0.4721;
473.4000;0.1595;0.4650;
473.7000;0.1685;0.4841;
474.0000;0.1547;0.4459;
474.3000;0.1579;0.4626;
474.6000;0.1595;0.4626;
474.9000;0.1579;0.4554;
475.2000;0.1490;0.4340;
475.5000;0.1571;0.4554;
475.8000;0.1571;0.4507;
476.1000;0.1506;0.4244;
476.4000;0.1571;0.4411;
476.7000;0.1579;0.4435;
477.0000;0.1571;0.4364;
477.3000;0.1547;0.4411;
477.6000;0.1563;0.4459;
477.9000;0.1595;0.4578;
478.2000;0.1571;0.4554;
478.5000;0.1538;0.4531;
478.8000;0.1636;0.4793;
479.1000;0.1595;0.4769;
479.4000;0.1498;0.4507;
479.7000;0.1587;0.4817;
480.0000;0.1587;0.4817;
480.3000;0.1587;0.4745;
480.6000;0.1571;0.4650;
480.9000;0.1563;0.4674;
481.2000;0.1563;0.4626;
481.5000;0.1587;0.4674;
481.8000;0.1579;0.4602;
482.1000;0.1604;0.4721;
482.4000;0.1604;0.4793;
482.7000;0.1604;0.4650;
483.0000;0.1587;0.4507;
483.3000;0.1579;0.4507;
483.6000;0.1538;0.4411;
483.9000;0.1595;0.4650;
484.2000;0.1595;0.4674;
484.5000;0.1628;0.4745;
484.8000;0.1604;0.4578;
485.1000;0.1563;0.4531;
485.4000;0.1587;0.4650;
485.7000;0.1595;0.4650;
486.0000;0.1612;0.4721;
486.3000;0.1587;0.4674;
486.6000;0.1604;0.4626;
486.9000;0.1571;0.4435;
487.2000;0.1579;0.4459;
487.5000;0.1587;0.4435;
487.8000;0.1587;0.4507;
488.1000;0.1669;0.4769;
488.4000;0.1604;0.4602;
488.7000;0.1595;0.4626;
489.0000;0.1579;0.4650;
489.3000;0.1587;0.4745;
489.6000;0.1571;0.4745;
489.9000;0.1579;0.4626;
490.2000;0.1555;0.4626;
490.5000;0.1498;0.4483;
490.8000;0.1579;0.4650;
491.1000;0.1579;0.4578;
491.4000;0.1563;0.4578;
491.7000;0.1587;0.4578;
492.0000;0.1579;0.4531;
492.3000;0.1563;0.4531;
492.6000;0.1612;0.4721;
492.9000;0.1604;0.4698;
493.2000;0.1693;0.4888;
493.5000;0.1587;0.4602;
493.8000;0.1587;0.4578;
494.1000;0.1563;0.4554;
494.4000;0.1587;0.4578;
494.7000;0.1579;0.4602;
495.0000;0.1620;0.4721;
495.3000;0.1579;0.4698;
495.6000;0.1571;0.4674;
495.9000;0.1579;0.4578;
496.2000;0.1555;0.4531;
496.5000;0.1612;0.4602;
496.8000;0.1595;0.4602;
497.1000;0.1571;0.4507;
497.4000;0.1571;0.4554;
497.7000;0.1571;0.4578;
498.0000;0.1604;0.4721;
498.3000;0.1595;0.4721;
498.6000;0.1620;0.4721;
498.9000;0.1579;0.4650;
499.2000;0.1579;0.4698;
499.5000;0.1587;0.4674;
499.8000;0.1579;0.4769;
500.1000;0.1579;0.4769;
500.4000;0.1530;0.4674;
500.7000;0.1579;0.4698;
501.0000;0.1547;0.4554;
501.3000;0.1579;0.4674;
501.6000;0.1571;0.4626;
501.9000;0.1579;0.4721;
502.2000;0.1563;0.4674;
502.5000;0.1571;0.4674;
502.8000;0.1579;0.4721;
503.1000;0.1563;0.4674;
503.4000;0.1587;0.4650;
503.7000;0.1571;0.4602;
504.0000;0.1571;0.4507;
504.3000;0.1595;0.4459;
504.6000;0.1555;0.4459;
504.9000;0.1579;0.4578;
505.2000;0.1587;0.4650;
505.5000;0.1579;0.4674;
505.8000;0.1579;0.4626;
506.1000;0.1555;0.4554;
506.4000;0.1571;0.4626;
506.7000;0.1571;0.4578;
507.0000;0.1563;0.4602;
507.3000;0.1530;0.4602;
507.6000;0.1571;0.4650;
507.9000;0.1579;0.4650;
508.2000;0.1555;0.4674;
508.5000;0.1587;0.4650;
508.8000;0.1579;0.4602;
509.1000;0.1595;0.4674;
509.4000;0.1620;0.4674;
509.7000;0.1579;0.4459;
510.0000;0.1587;0.4483;
510.3000;0.1571;0.4507;
510.6000;0.1587;0.4531;
510.9000;0.1628;0.4698;
511.2000;0.1595;0.4650;
511.5000;0.1579;0.4626;
511.8000;0.1595;0.4626;
512.1000;0.1563;0.4531;
512.4000;0.1579;0.4602;
512.7000;0.1579;0.4531;
513.0000;0.1579;0.4554;
513.3000;0.1579;0.4531;
513.6000;0.1587;0.4507;
513.9000;0.1555;0.4411;
514.2000;0.1595;0.4507;
514.5000;0.1579;0.4459;
514.8000;0.1604;0.4459;
515.1000;0.1644;0.4554;
515.4000;0.1579;0.4507;
515.7000;0.1595;0.4602;
516.0000;0.1620;0.4698;
516.3000;0.1579;0.4626;
516.6000;0.1579;0.4626;
516.9000;0.1571;0.4650;
517.2000;0.1555;0.4554;
517.5000;0.1718;0.4864;
517.8000;0.1579;0.4626;
518.1000;0.1595;0.4626;
518.4000;0.1555;0.4507;
518.7000;0.1571;0.4578;
519.0000;0.1612;0.4698;
519.3000;0.1595;0.4674;
519.6000;0.1595;0.4745;
519.9000;0.1563;0.4769;
520.2000;0.1636;0.4793;
520.5000;0.1595;0.4698;
520.8000;0.1555;0.4554;
521.1000;0.1587;0.4578;
521.4000;0.1563;0.4435;
521.7000;0.1595;0.4507;
522.0000;0.1620;0.4578;
522.3000;0.1595;0.4459;
522.6000;0.1604;0.4554;
522.9000;0.1595;0.4483;
523.2000;0.1595;0.4459;
523.5000;0.1579;0.4411;
523.8000;0.1514;0.4149;
524.1000;0.1644;0.4459;
524.4000;0.1669;0.4531;
524.7000;0.1579;0.4388;
525.0000;0.1595;0.4411;
525.3000;0.1595;0.4435;
525.6000;0.1587;0.4531;
525.9000;0.1579;0.4554;
526.2000;0.1547;0.4388;
526.5000;0.1555;0.4388;
526.8000;0.1595;0.4435;
527.1000;0.1571;0.4411;
527.4000;0.1555;0.4316;
527.7000;0.1563;0.4388;
528.0000;0.1571;0.4411;
528.3000;0.1563;0.4340;
528.6000;0.1490;0.4244;
528.9000;0.1579;0.4411;
529.2000;0.1604;0.4507;
529.5000;0.1579;0.4531;
529.8000;0.1644;0.4745;
530.1000;0.1555;0.4483;
530.4000;0.1579;0.4507;
530.7000;0.1579;0.4507;
531.0000;0.1571;0.4411;
531.3000;0.1538;0.4244;
531.6000;0.1604;0.4435;
531.9000;0.1563;0.4316;
532.2000;0.1620;0.4578;
532.5000;0.1506;0.4364;
532.8000;0.1612;0.4769;
533.1000;0.1547;0.4626;
533.4000;0.1563;0.4554;
533.7000;0.1563;0.4578;
534.0000;0.1555;0.4650;
534.3000;0.1587;0.4745;
534.6000;0.1579;0.4769;
534.9000;0.1579;0.4721;
535.2000;0.1571;0.4626;
535.5000;0.1587;0.4578;
535.8000;0.1595;0.4554;
536.1000;0.1555;0.4411;
536.4000;0.1595;0.4602;
536.7000;0.1612;0.4721;
537.0000;0.1612;0.4674;
537.3000;0.1595;0.4554;
537.6000;0.1595;0.4554;
537.9000;0.1571;0.4483;
538.2000;0.1571;0.4554;
538.5000;0.1652;0.4769;
538.8000;0.1555;0.4554;
539.1000;0.1571;0.4578;
539.4000;0.1628;0.4769;
539.7000;0.1604;0.4674;
540.0000;0.1571;0.4626;
540.3000;0.1579;0.4698;
540.6000;0.1604;0.4793;
540.9000;0.1563;0.4721;
541.2000;0.1595;0.4793;
541.5000;0.1563;0.4745;
541.8000;0.1587;0.4817;
542.1000;0.1571;0.4769;
542.4000;0.1571;0.4721;
542.7000;0.1587;0.4745;
543.0000;0.1571;0.4745;
543.3000;0.1579;0.4721;
543.6000;0.1571;0.4626;
543.9000;0.1571;0.4602;
544.2000;0.1587;0.4578;
544.5000;0.1595;0.4531;
544.8000;0.1579;0.4531;
545.1000;0.1579;0.4531;
545.4000;0.1669;0.4793;
545.7000;0.1595;0.4626;
546.0000;0.1587;0.4554;
546.3000;0.1587;0.4554;
546.6000;0.1571;0.4602;
546.9000;0.1595;0.4626;
547.2000;0.1498;0.4364;
547.5000;0.1587;0.4626;
547.8000;0.1587;0.4602;
548.1000;0.1628;0.4769;
548.4000;0.1530;0.4531;
548.7000;0.1587;0.4674;
549.0000;0.1579;0.4650;
549.3000;0.1579;0.4626;
549.6000;0.1571;0.4650;
549.9000;0.1620;0.4674;
550.2000;0.1538;0.4459;
550.5000;0.1555;0.4554;
550.8000;0.1571;0.4578;
551.1000;0.1579;0.4602;
551.4000;0.1595;0.4769;
551.7000;0.1571;0.4721;
552.0000;0.1571;0.4626;
552.3000;0.1595;0.4698;
552.6000;0.1587;0.4721;
552.9000;0.1579;0.4674;
553.2000;0.1595;0.4650;
553.5000;0.1571;0.4650;
553.8000;0.1595;0.4674;
554.1000;0.1587;0.4650;
554.4000;0.1579;0.4578;
554.7000;0.1571;0.4483;
555.0000;0.1604;0.4531;
555.3000;0.1595;0.4531;
555.6000;0.1579;0.4435;
555.9000;0.1571;0.4459;
556.2000;0.1587;0.4507;
556.5000;0.1604;0.4578;
556.8000;0.1555;0.4459;
557.1000;0.1563;0.4483;
557.4000;0.1579;0.4459;
557.7000;0.1595;0.4459;
558.0000;0.1595;0.4435;
558.3000;0.1579;0.4411;
558.6000;0.1571;0.4364;
558.9000;0.1563;0.4388;
559.2000;0.1587;0.4435;
559.5000;0.1604;0.4507;
559.8000;0.1587;0.4435;
560.1000;0.1563;0.4459;
560.4000;0.1587;0.4554;
560.7000;0.1604;0.4650;
561.0000;0.1579;0.4483;
561.3000;0.1579;0.4459;
561.6000;0.1555;0.4388;
561.9000;0.1571;0.4388;
562.2000;0.1587;0.4388;
562.5000;0.1579;0.4388;
562.8000;0.1579;0.4459;
563.1000;0.1595;0.4507;
563.4000;0.1587;0.4459;
563.7000;0.1587;0.4483;
564.0000;0.1579;0.4554;
564.3000;0.1571;0.4531;
564.6000;0.1587;0.4578;
564.9000;0.1571;0.4578;
565.2000;0.1595;0.4578;
565.5000;0.1595;0.4554;
565.8000;0.1514;0.4435;
566.1000;0.1595;0.4674;
566.4000;0.1587;0.4626;
566.7000;0.1587;0.4578;
567.0000;0.1579;0.4626;
567.3000;0.1571;0.4602;
567.6000;0.1587;0.4531;
567.9000;0.1579;0.4531;
568.2000;0.1538;0.4459;
568.5000;0.1595;0.4507;
568.8000;0.1571;0.4435;
569.1000;0.1579;0.4483;
569.4000;0.1604;0.4554;
569.7000;0.1571;0.4459;
570.0000;0.1571;0.4435;
570.3000;0.1547;0.4292;
570.6000;0.1579;0.4411;
570.9000;0.1555;0.4340;
571.2000;0.1555;0.4435;
571.5000;0.1538;0.4221;
571.8000;0.1587;0.4340;
572.1000;0.1587;0.4364;
572.4000;0.1579;0.4316;
572.7000;0.1579;0.4292;
573.0000;0.1652;0.4483;
573.3000;0.1636;0.4531;
573.6000;0.1579;0.4268;
573.9000;0.1579;0.4364;
574.2000;0.1579;0.4411;
574.5000;0.1620;0.4578;
574.8000;0.1587;0.4554;
575.1000;0.1579;0.4554;
575.4000;0.1620;0.4650;
575.7000;0.1587;0.4602;
576.0000;0.1579;0.4459;
576.3000;0.1604;0.4459;
576.6000;0.1571;0.4268;
576.9000;0.1587;0.4364;
577.2000;0.1579;0.4340;
577.5000;0.1579;0.4388;
577.8000;0.1530;0.4221;
578.1000;0.1579;0.4388;
578.4000;0.1547;0.4340;
578.7000;0.1579;0.4411;
579.0000;0.1579;0.4364;
579.3000;0.1595;0.4340;
579.6000;0.1579;0.4411;
579.9000;0.1587;0.4388;
580.2000;0.1571;0.4411;
580.5000;0.1595;0.4483;
580.8000;0.1579;0.4364;
581.1000;0.1579;0.4388;
581.4000;0.1587;0.4435;
581.7000;0.1579;0.4459;
582.0000;0.1563;0.4364;
582.3000;0.1595;0.4435;
582.6000;0.1595;0.4435;
582.9000;0.1571;0.4364;
583.2000;0.1587;0.4459;
583.5000;0.1579;0.4459;
583.8000;0.1604;0.4507;
584.1000;0.1579;0.4507;
584.4000;0.1571;0.4578;
584.7000;0.1604;0.4650;
585.0000;0.1555;0.4435;
585.3000;0.1563;0.4435;
585.6000;0.1579;0.4483;
585.9000;0.1612;0.4578;
586.2000;0.1571;0.4578;
586.5000;0.1587;0.4650;
586.8000;0.1579;0.4554;
587.1000;0.1571;0.4531;
587.4000;0.1604;0.4554;
587.7000;0.1587;0.4507;
588.0000;0.1530;0.4292;
588.3000;0.1571;0.4388;
588.6000;0.1612;0.4531;
588.9000;0.1579;0.4388;
589.2000;0.1587;0.4388;
589.5000;0.1563;0.4388;
589.8000;0.1579;0.4388;
590.1000;0.1465;0.4125;
590.4000;0.1595;0.4388;
590.7000;0.1587;0.4435;
591.0000;0.1612;0.4507;
591.3000;0.1595;0.4507;
591.6000;0.1636;0.4650;
591.9000;0.1579;0.4507;
592.2000;0.1579;0.4459;
592.5000;0.1587;0.4435;
592.8000;0.1563;0.4411;
593.1000;0.1579;0.4388;
593.4000;0.1571;0.4459;
593.7000;0.1604;0.4554;
594.0000;0.1555;0.4459;
594.3000;0.1612;0.4578;
594.6000;0.1669;0.4769;
594.9000;0.1579;0.4531;
595.2000;0.1595;0.4578;
595.5000;0.1571;0.4507;
595.8000;0.1595;0.4602;
596.1000;0.1563;0.4483;
596.4000;0.1620;0.4650;
596.7000;0.1579;0.4554;
597.0000;0.1522;0.4388;
597.3000;0.1571;0.4459;
597.6000;0.1595;0.4459;
597.9000;0.1595;0.4483;
598.2000;0.1579;0.4435;
598.5000;0.1636;0.4578;
598.8000;0.1579;0.4483;
599.1000;0.1587;0.4483;
599.4000;0.1587;0.4483;
599.7000;0.1579;0.4411;
600.0000;0.1555;0.4292;
600.3000;0.1530;0.4078;
600.6000;0.1498;0.3982;
600.9000;0.1563;0.4125;
601.2000;0.1571;0.4101;
601.5000;0.1498;0.3744;
601.8000;0.1530;0.3720;
602.1000;0.1579;0.3768;
602.4000;0.1563;0.3648;
602.7000;0.1547;0.3553;
603.0000;0.1547;0.3505;
603.3000;0.1416;0.3028;
603.6000;0.1506;0.3171;
603.9000;0.1538;0.3243;
604.2000;0.1555;0.3267;
604.5000;0.1563;0.3291;
604.8000;0.1530;0.3195;
605.1000;0.1514;0.3148;
605.4000;0.1547;0.3195;
605.7000;0.1538;0.3148;
606.0000;0.1538;0.3148;
606.3000;0.1490;0.3124;
606.6000;0.1522;0.3171;
606.9000;0.1530;0.3171;
607.2000;0.1514;0.3124;
607.5000;0.1522;0.3124;
607.8000;0.1522;0.3076;
608.1000;0.1530;0.3124;
608.4000;0.1530;0.3100;
608.7000;0.1538;0.3076;
609.0000;0.1595;0.3219;
609.3000;0.1538;0.3028;
609.6000;0.1530;0.3100;
609.9000;0.1530;0.3076;
610.2000;0.1522;0.3052;
610.5000;0.1522;0.2957;
610.8000;0.1514;0.2933;
611.1000;0.1514;0.2957;
611.4000;0.1522;0.2909;
611.7000;0.1563;0.3028;
612.0000;0.1465;0.2838;
612.3000;0.1522;0.3005;
612.6000;0.1498;0.2861;
612.9000;0.1522;0.2885;
613.2000;0.1506;0.2909;
613.5000;0.1538;0.2933;
613.8000;0.1490;0.2885;
614.1000;0.1441;0.2790;
614.4000;0.1514;0.2981;
614.7000;0.1530;0.3028;
615.0000;0.1522;0.2957;
615.3000;0.1425;0.2695;
615.6000;0.1514;0.2814;
615.9000;0.1530;0.2909;
616.2000;0.1514;0.2909;
616.5000;0.1514;0.2790;
616.8000;0.1538;0.2933;
617.1000;0.1506;0.2861;
617.4000;0.1555;0.2909;
617.7000;0.1571;0.2981;
618.0000;0.1547;0.3005;
618.3000;0.1498;0.2838;
618.6000;0.1522;0.2838;
618.9000;0.1522;0.2814;
619.2000;0.1506;0.2742;
619.5000;0.1538;0.2957;
619.8000;0.1530;0.2957;
620.1000;0.1530;0.2981;
620.4000;0.1506;0.2933;
620.7000;0.1514;0.3005;
621.0000;0.1530;0.3052;
621.3000;0.1498;0.3005;
621.6000;0.1522;0.3076;
621.9000;0.1449;0.2981;
622.2000;0.1433;0.2838;
622.5000;0.1547;0.3148;
622.8000;0.1571;0.3171;
623.1000;0.1514;0.2909;
623.4000;0.1530;0.2981;
623.7000;0.1416;0.2623;
624.0000;0.1514;0.2909;
624.3000;0.1465;0.2766;
624.6000;0.1595;0.3076;
624.9000;0.1481;0.2838;
625.2000;0.1465;0.2718;
625.5000;0.1490;0.2790;
625.8000;0.1522;0.2933;
626.1000;0.1530;0.2957;
626.4000;0.1498;0.2981;
626.7000;0.1416;0.2742;
627.0000;0.1481;0.2957;
627.3000;0.1514;0.3052;
627.6000;0.1506;0.3124;
627.9000;0.1587;0.3314;
628.2000;0.1522;0.3124;
628.5000;0.1506;0.2981;
628.8000;0.1490;0.2933;
629.1000;0.1530;0.2957;
629.4000;0.1571;0.3052;
629.7000;0.1514;0.2933;
630.0000;0.1514;0.2933;
630.3000;0.1571;0.3076;
630.6000;0.1514;0.2885;
630.9000;0.1530;0.2933;
631.2000;0.1555;0.3028;
631.5000;0.1514;0.2981;
631.8000;0.1514;0.3005;
632.1000;0.1555;0.3124;
632.4000;0.1514;0.2933;
632.7000;0.1522;0.2933;
633.0000;0.1579;0.3028;
633.3000;0.1522;0.2933;
633.6000;0.1514;0.2909;
633.9000;0.1506;0.2838;
634.2000;0.1506;0.2861;
634.5000;0.1530;0.2957;
634.8000;0.1457;0.2861;
635.1000;0.1530;0.2981;
635.4000;0.1530;0.3005;
635.7000;0.1506;0.2981;
636.0000;0.1506;0.3028;
636.3000;0.1506;0.3005;
636.6000;0.1514;0.2933;
636.9000;0.1522;0.2885;
637.2000;0.1514;0.2933;
637.5000;0.1506;0.2981;
637.8000;0.1498;0.2933;
638.1000;0.1530;0.3005;
638.4000;0.1514;0.2981;
638.7000;0.1490;0.2933;
639.0000;0.1538;0.3028;
639.3000;0.1514;0.2909;
639.6000;0.1522;0.2981;
639.9000;0.1498;0.2933;
640.2000;0.1490;0.3052;
640.5000;0.1538;0.3100;
640.8000;0.1498;0.2957;
641.1000;0.1514;0.3005;
641.4000;0.1481;0.2909;
641.7000;0.1498;0.2909;
642.0000;0.1498;0.2861;
642.3000;0.1506;0.2933;
642.6000;0.1506;0.3005;
642.9000;0.1522;0.3100;
643.2000;0.1441;0.2838;
643.5000;0.1498;0.3005;
643.8000;0.1473;0.2933;
644.1000;0.1465;0.2838;
644.4000;0.1506;0.2909;
644.7000;0.1506;0.2957;
645.0000;0.1498;0.2909;
645.3000;0.1498;0.2909;
645.6000;0.1498;0.2814;
645.9000;0.1490;0.2814;
646.2000;0.1571;0.3100;
646.5000;0.1498;0.2885;
646.8000;0.1506;0.2909;
647.1000;0.1522;0.3005;
647.4000;0.1481;0.2861;
647.7000;0.1522;0.2957;
648.0000;0.1522;0.2981;
648.3000;0.1514;0.2885;
648.6000;0.1498;0.2909;
648.9000;0.1563;0.3005;
649.2000;0.1530;0.2885;
649.5000;0.1506;0.2790;
649.8000;0.1449;0.2695;
650.1000;0.1522;0.2957;
650.4000;0.1465;0.2909;
650.7000;0.1506;0.3052;
651.0000;0.1522;0.3028;
651.3000;0.1514;0.2933;
651.6000;0.1490;0.2861;
651.9000;0.1506;0.2909;
652.2000;0.1514;0.3005;
652.5000;0.1506;0.3028;
652.8000;0.1522;0.3171;
653.1000;0.1522;0.3148;
653.4000;0.1530;0.3076;
653.7000;0.1563;0.3171;
654.0000;0.1506;0.2981;
654.3000;0.1506;0.3005;
654.6000;0.1547;0.3148;
654.9000;0.1522;0.3052;
655.2000;0.1498;0.2957;
655.5000;0.1498;0.2838;
655.8000;0.1498;0.2838;
656.1000;0.1547;0.3052;
656.4000;0.1490;0.2933;
656.7000;0.1490;0.2933;
657.0000;0.1506;0.2957;
657.3000;0.1506;0.2885;
657.6000;0.1481;0.2790;
657.9000;0.1498;0.2838;
658.2000;0.1522;0.2885;
658.5000;0.1506;0.2814;
658.8000;0.1498;0.2838;
659.1000;0.1490;0.2766;
659.4000;0.1547;0.2861;
659.7000;0.1506;0.2790;
660.0000;0.1498;0.2766;
660.3000;0.1465;0.2671;
660.6000;0.1490;0.2814;
660.9000;0.1506;0.2790;
661.2000;0.1490;0.2861;
661.5000;0.1498;0.2957;
661.8000;0.1506;0.3028;
662.1000;0.1595;0.3314;
662.4000;0.1514;0.3028;
662.7000;0.1530;0.3005;
663.0000;0.1498;0.2909;
663.3000;0.1457;0.2766;
663.6000;0.1514;0.2885;
663.9000;0.1498;0.2909;
664.2000;0.1425;0.2718;
664.5000;0.1514;0.2885;
664.8000;0.1547;0.2981;
665.1000;0.1530;0.3028;
665.4000;0.1514;0.2981;
665.7000;0.1490;0.2790;
666.0000;0.1490;0.2814;
666.3000;0.1563;0.3052;
666.6000;0.1473;0.2838;
666.9000;0.1416;0.2790;
667.2000;0.1506;0.2981;
667.5000;0.1530;0.3028;
667.8000;0.1498;0.2885;
668.1000;0.1506;0.2957;
668.4000;0.1506;0.2981;
668.7000;0.1490;0.2981;
669.0000;0.1522;0.3076;
669.3000;0.1498;0.3028;
669.6000;0.1490;0.3052;
669.9000;0.1433;0.2909;
670.2000;0.1506;0.3100;
670.5000;0.1433;0.2814;
670.8000;0.1490;0.2933;
671.1000;0.1498;0.3005;
671.4000;0.1506;0.3052;
671.7000;0.1514;0.3100;
672.0000;0.1490;0.3005;
672.3000;0.1498;0.3028;
672.6000;0.1530;0.3148;
672.9000;0.1538;0.3100;
673.2000;0.1506;0.2933;
673.5000;0.1498;0.2838;
673.8000;0.1522;0.2885;
674.1000;0.1522;0.2933;
674.4000;0.1498;0.2838;
674.7000;0.1490;0.2909;
675.0000;0.1481;0.2861;
675.3000;0.1530;0.2909;
675.6000;0.1538;0.2933;
675.9000;0.1498;0.2909;
676.2000;0.1514;0.2933;
676.5000;0.1441;0.2695;
676.8000;0.1506;0.2838;
677.1000;0.1514;0.2814;
677.4000;0.1490;0.2695;
677.7000;0.1514;0.2838;
678.0000;0.1522;0.2933;
678.3000;0.1506;0.2909;
678.6000;0.1563;0.3076;
678.9000;0.1481;0.3028;
679.2000;0.1498;0.3100;
679.5000;0.1498;0.3052;
679.8000;0.1530;0.3100;
680.1000;0.1530;0.3028;
680.4000;0.1506;0.2957;
680.7000;0.1522;0.2957;
681.0000;0.1449;0.2838;
681.3000;0.1473;0.2838;
681.6000;0.1514;0.3028;
681.9000;0.1490;0.3005;
682.2000;0.1498;0.3052;
682.5000;0.1376;0.2718;
682.8000;0.1514;0.3005;
683.1000;0.1498;0.2885;
683.4000;0.1481;0.2814;
683.7000;0.1514;0.2957;
684.0000;0.1506;0.2838;
684.3000;0.1498;0.2766;
684.6000;0.1514;0.2766;
684.9000;0.1498;0.2718;
685.2000;0.1506;0.2742;
685.5000;0.1498;0.2742;
685.8000;0.1506;0.2861;
686.1000;0.1506;0.2885;
686.4000;0.1506;0.2838;
686.7000;0.1490;0.2742;
687.0000;0.1522;0.2766;
687.3000;0.1400;0.2385;
687.6000;0.1595;0.2909;
687.9000;0.1530;0.2766;
688.2000;0.1498;0.2695;
688.5000;0.1595;0.2981;
688.8000;0.1522;0.2838;
689.1000;0.1498;0.2814;
689.4000;0.1498;0.2885;
689.7000;0.1522;0.2981;
690.0000;0.1490;0.2909;
690.3000;0.1538;0.3028;
690.6000;0.1465;0.2909;
690.9000;0.1514;0.2981;
691.2000;0.1481;0.2957;
691.5000;0.1473;0.2885;
691.8000;0.1481;0.2909;
692.1000;0.1522;0.2861;
692.4000;0.1514;0.2790;
692.7000;0.1506;0.2695;
693.0000;0.1522;0.2695;
693.3000;0.1506;0.2647;
693.6000;0.1473;0.2575;
693.9000;0.1457;0.2623;
694.2000;0.1506;0.2838;
694.5000;0.1481;0.2885;
694.8000;0.1522;0.3028;
695.1000;0.1498;0.3005;
695.4000;0.1457;0.2814;
695.7000;0.1481;0.2838;
696.0000;0.1538;0.3028;
696.3000;0.1522;0.3005;
696.6000;0.1506;0.3005;
696.9000;0.1506;0.2885;
697.2000;0.1514;0.2933;
697.5000;0.1563;0.3124;
697.8000;0.1498;0.2909;
698.1000;0.1498;0.2909;
698.4000;0.1604;0.3267;
698.7000;0.1498;0.2957;
699.0000;0.1547;0.3052;
699.3000;0.1498;0.2909;
699.6000;0.1506;0.2861;
699.9000;0.1457;0.2671;
700.2000;0.1490;0.2742;
700.5000;0.1473;0.2695;
700.8000;0.1506;0.2766;
701.1000;0.1538;0.2861;
701.4000;0.1481;0.2695;
701.7000;0.1498;0.2671;
702.0000;0.1506;0.2671;
702.3000;0.1490;0.2718;
702.6000;0.1506;0.2718;
702.9000;0.1465;0.2671;
703.2000;0.1514;0.2766;
703.5000;0.1514;0.2718;
703.8000;0.1506;0.2695;
704.1000;0.1408;0.2528;
704.4000;0.1514;0.2742;
704.7000;0.1506;0.2742;
705.0000;0.1522;0.2766;
705.3000;0.1506;0.2742;
705.6000;0.1498;0.2671;
705.9000;0.1498;0.2671;
706.2000;0.1514;0.2766;
706.5000;0.1498;0.2647;
706.8000;0.1498;0.2695;
707.1000;0.1514;0.2838;
707.4000;0.1498;0.2814;
707.7000;0.1506;0.2933;
708.0000;0.1481;0.2790;
708.3000;0.1506;0.2766;
708.6000;0.1498;0.2790;
708.9000;0.1506;0.2814;
709.2000;0.1498;0.2766;
709.5000;0.1498;0.2742;
709.8000;0.1522;0.2718;
710.1000;0.1530;0.2838;
710.4000;0.1506;0.2814;
710.7000;0.1506;0.2838;
711.0000;0.1490;0.2814;
711.3000;0.1506;0.2814;
711.6000;0.1514;0.2838;
711.9000;0.1514;0.2861;
712.2000;0.1506;0.2838;
712.5000;0.1522;0.2885;
712.8000;0.1522;0.2861;
713.1000;0.1604;0.3100;
713.4000;0.1514;0.2885;
713.7000;0.1514;0.2957;
714.0000;0.1481;0.2933;
714.3000;0.1595;0.3219;
714.6000;0.1457;0.2957;
714.9000;0.1481;0.3005;
715.2000;0.1490;0.2909;
715.5000;0.1498;0.2885;
715.8000;0.1506;0.2838;
716.1000;0.1490;0.2742;
716.4000;0.1514;0.2861;
716.7000;0.1506;0.2861;
717.0000;0.1506;0.2933;
717.3000;0.1481;0.2814;
717.6000;0.1506;0.2861;
717.9000;0.1522;0.2814;
718.2000;0.1490;0.2695;
718.5000;0.1490;0.2742;
718.8000;0.1514;0.2766;
719.1000;0.1506;0.2718;
719.4000;0.1522;0.2742;
719.7000;0.1481;0.2790;
720.0000;0.1522;0.2838;
720.3000;0.1587;0.3028;
720.6000;0.1490;0.2790;
720.9000;0.1481;0.2766;
721.2000;0.1530;0.2838;
721.5000;0.1547;0.2885;
721.8000;0.1555;0.2885;
722.1000;0.1530;0.2766;
722.4000;0.1677;0.3124;
722.7000;0.1579;0.2838;
723.0000;0.1522;0.2671;
723.3000;0.1522;0.2647;
723.6000;0.1498;0.2528;
723.9000;0.1530;0.2671;
724.2000;0.1498;0.2671;
724.5000;0.1522;0.2766;
724.8000;0.1449;0.2623;
725.1000;0.1441;0.2623;
725.4000;0.1506;0.2814;
725.7000;0.1514;0.2957;
726.0000;0.1498;0.2933;
726.3000;0.1473;0.2909;
726.6000;0.1530;0.3052;
726.9000;0.1514;0.2933;
727.2000;0.1547;0.3052;
727.5000;0.1473;0.2909;
727.8000;0.1498;0.2838;
728.1000;0.1441;0.2718;
728.4000;0.1522;0.2933;
728.7000;0.1514;0.2861;
729.0000;0.1506;0.2814;
729.3000;0.1514;0.2885;
729.6000;0.1498;0.2861;
729.9000;0.1522;0.2838;
730.2000;0.1538;0.2885;
730.5000;0.1522;0.2885;
730.8000;0.1514;0.2933;
731.1000;0.1506;0.2861;
731.4000;0.1481;0.2790;
731.7000;0.1522;0.3028;
732.0000;0.1522;0.3100;
732.3000;0.1465;0.2981;
732.6000;0.1498;0.2957;
732.9000;0.1522;0.3028;
733.2000;0.1506;0.2957;
733.5000;0.1506;0.2957;
733.8000;0.1506;0.2909;
734.1000;0.1522;0.2957;
734.4000;0.1490;0.2861;
734.7000;0.1473;0.2814;
735.0000;0.1547;0.3076;
735.3000;0.1506;0.3005;
735.6000;0.1514;0.2885;
735.9000;0.1433;0.2671;
736.2000;0.1620;0.3171;
736.5000;0.1506;0.2885;
736.8000;0.1481;0.2790;
737.1000;0.1498;0.2885;
737.4000;0.1506;0.2957;
737.7000;0.1498;0.3005;
738.0000;0.1506;0.3052;
738.3000;0.1612;0.3362;
738.6000;0.1514;0.3005;
738.9000;0.1506;0.2957;
739.2000;0.1514;0.2981;
739.5000;0.1612;0.3314;
739.8000;0.1490;0.2957;
740.1000;0.1498;0.2981;
740.4000;0.1465;0.2981;
740.7000;0.1514;0.2981;
741.0000;0.1522;0.3005;
741.3000;0.1530;0.3005;
741.6000;0.1514;0.3028;
741.9000;0.1506;0.3100;
742.2000;0.1506;0.3171;
742.5000;0.1530;0.3243;
742.8000;0.1490;0.3124;
743.1000;0.1498;0.3219;
743.4000;0.1473;0.3219;
743.7000;0.1530;0.3314;
744.0000;0.1514;0.3195;
744.3000;0.1490;0.3100;
744.6000;0.1506;0.3100;
744.9000;0.1514;0.3243;
745.2000;0.1571;0.3434;
745.5000;0.1514;0.3267;
745.8000;0.1514;0.3148;
746.1000;0.1441;0.2933;
746.4000;0.1498;0.3052;
746.7000;0.1498;0.2981;
747.0000;0.1343;0.2599;
747.3000;0.1506;0.3052;
747.6000;0.1498;0.2981;
747.9000;0.1481;0.2981;
748.2000;0.1473;0.2981;
748.5000;0.1481;0.3028;
748.8000;0.1522;0.3028;
749.1000;0.1506;0.3028;
749.4000;0.1514;0.3028;
749.7000;0.1490;0.2909;
750.0000;0.1522;0.2957;
750.3000;0.1530;0.2933;
750.6000;0.1498;0.2838;
750.9000;0.1481;0.2861;
751.2000;0.1514;0.2933;
751.5000;0.1522;0.2885;
751.8000;0.1457;0.2718;
752.1000;0.1449;0.2790;
752.4000;0.1595;0.3148;
752.7000;0.1506;0.2885;
753.0000;0.1490;0.2838;
753.3000;0.1473;0.2838;
753.6000;0.1498;0.2861;
753.9000;0.1465;0.2790;
754.2000;0.1457;0.2814;
754.5000;0.1506;0.3028;
754.8000;0.1506;0.3005;
755.1000;0.1498;0.2885;
755.4000;0.1514;0.2861;
755.7000;0.1457;0.2718;
756.0000;0.1530;0.2909;
756.3000;0.1481;0.2790;
756.6000;0.1498;0.2885;
756.9000;0.1595;0.3171;
757.2000;0.1498;0.2981;
757.5000;0.1498;0.3005;
757.8000;0.1506;0.2933;
758.1000;0.1490;0.2909;
758.4000;0.1506;0.3028;
758.7000;0.1522;0.3052;
759.0000;0.1490;0.2933;
759.3000;0.1376;0.2671;
759.6000;0.1506;0.2957;
759.9000;0.1490;0.2790;
760.2000;0.1425;0.2575;
760.5000;0.1473;0.2718;
760.8000;0.1416;0.2551;
761.1000;0.1498;0.2742;
761.4000;0.1514;0.2766;
761.7000;0.1506;0.2790;
762.0000;0.1555;0.2957;
762.3000;0.1465;0.2790;
762.6000;0.1514;0.2885;
762.9000;0.1506;0.2885;
763.2000;0.1481;0.2909;
763.5000;0.1498;0.2981;
763.8000;0.1514;0.2957;
764.1000;0.1498;0.2885;
764.4000;0.1522;0.2885;
764.7000;0.1522;0.2885;
765.0000;0.1506;0.2838;
765.3000;0.1506;0.2766;
765.6000;0.1490;0.2838;
765.9000;0.1400;0.2623;
766.2000;0.1490;0.2838;
766.5000;0.1481;0.2885;
766.8000;0.1514;0.2957;
767.1000;0.1514;0.2885;
767.4000;0.1490;0.2838;
767.7000;0.1481;0.2909;
768.0000;0.1490;0.2957;
768.3000;0.1506;0.2957;
768.6000;0.1530;0.3124;
768.9000;0.1547;0.3219;
769.2000;0.1481;0.3028;
769.5000;0.1498;0.3028;
769.8000;0.1514;0.3148;
770.1000;0.1441;0.2981;
770.4000;0.1514;0.3124;
770.7000;0.1530;0.3219;
771.0000;0.1465;0.3076;
771.3000;0.1514;0.3171;
771.6000;0.1498;0.3148;
771.9000;0.1506;0.3219;
772.2000;0.1481;0.3219;
772.5000;0.1522;0.3314;
772.8000;0.1498;0.3171;
773.1000;0.1522;0.3124;
773.4000;0.1563;0.3267;
773.7000;0.1490;0.3100;
774.0000;0.1506;0.3124;
774.3000;0.1498;0.3052;
774.6000;0.1506;0.3076;
774.9000;0.1490;0.3005;
775.2000;0.1522;0.3028;
775.5000;0.1498;0.2957;
775.8000;0.1522;0.2981;
776.1000;0.1441;0.2814;
776.4000;0.1490;0.2885;
776.7000;0.1579;0.3005;
777.0000;0.1514;0.2861;
777.3000;0.1506;0.2885;
777.6000;0.1498;0.2838;
777.9000;0.1514;0.2861;
778.2000;0.1514;0.2933;
778.5000;0.1522;0.3005;
778.8000;0.1522;0.3076;
779.1000;0.1514;0.3100;
779.4000;0.1490;0.3100;
779.7000;0.1522;0.3148;
780.0000;0.1514;0.3148;
780.3000;0.1490;0.3076;
780.6000;0.1498;0.3028;
780.9000;0.1416;0.2742;
781.2000;0.1530;0.2957;
781.5000;0.1571;0.3005;
781.8000;0.1571;0.3076;
782.1000;0.1522;0.2861;
782.4000;0.1498;0.2861;
782.7000;0.1490;0.2766;
783.0000;0.1530;0.2909;
783.3000;0.1506;0.2814;
783.6000;0.1522;0.2861;
783.9000;0.1563;0.3148;
784.2000;0.1563;0.3219;
784.5000;0.1498;0.2933;
784.8000;0.1473;0.2742;
785.1000;0.1490;0.2814;
785.4000;0.1506;0.2790;
785.7000;0.1473;0.2647;
786.0000;0.1449;0.2480;
786.3000;0.1538;0.2814;
786.6000;0.1612;0.2981;
786.9000;0.1514;0.2742;
787.2000;0.1498;0.2790;
787.5000;0.1530;0.2814;
787.8000;0.1506;0.2766;
788.1000;0.1522;0.2814;
788.4000;0.1498;0.2790;
788.7000;0.1514;0.2838;
789.0000;0.1530;0.2838;
789.3000;0.1490;0.2766;
789.6000;0.1490;0.2814;
789.9000;0.1595;0.3148;
790.2000;0.1490;0.2885;
790.5000;0.1506;0.2933;
790.8000;0.1514;0.2957;
791.1000;0.1490;0.2885;
791.4000;0.1498;0.2909;
791.7000;0.1506;0.2814;
792.0000;0.1506;0.2885;
792.3000;0.1522;0.3076;
792.6000;0.1522;0.3124;
792.9000;0.1498;0.3124;
793.2000;0.1522;0.3171;
793.5000;0.1498;0.3005;
793.8000;0.1481;0.2981;
794.1000;0.1555;0.3076;
794.4000;0.1449;0.2718;
794.7000;0.1473;0.2742;
795.0000;0.1571;0.2957;
795.3000;0.1522;0.2814;
795.6000;0.1522;0.2838;
795.9000;0.1498;0.2742;
796.2000;0.1579;0.2981;
796.5000;0.1522;0.2838;
796.8000;0.1506;0.2861;
797.1000;0.1506;0.2861;
797.4000;0.1514;0.2885;
797.7000;0.1498;0.2861;
798.0000;0.1481;0.2838;
798.3000;0.1506;0.2885;
798.6000;0.1612;0.3124;
798.9000;0.1514;0.2861;
799.2000;0.1522;0.2909;
799.5000;0.1522;0.2957;
799.8000;0.1449;0.2718;
800.1000;0.1506;0.2838;
800.4000;0.1522;0.2885;
800.7000;0.1522;0.2957;
801.0000;0.1522;0.2981;
801.3000;0.1490;0.2957;
801.6000;0.1498;0.2909;
801.9000;0.1490;0.2885;
802.2000;0.1571;0.3005;
802.5000;0.1514;0.2861;
802.8000;0.1530;0.2885;
803.1000;0.1522;0.2885;
803.4000;0.1506;0.2790;
803.7000;0.1514;0.2814;
804.0000;0.1522;0.2814;
804.3000;0.1506;0.2742;
804.6000;0.1530;0.2742;
804.9000;0.1498;0.2671;
805.2000;0.1506;0.2695;
805.5000;0.1506;0.2718;
805.8000;0.1522;0.2838;
806.1000;0.1498;0.2814;
806.4000;0.1547;0.3052;
806.7000;0.1514;0.2981;
807.0000;0.1473;0.3005;
807.3000;0.1490;0.2981;
807.6000;0.1490;0.2957;
807.9000;0.1408;0.2742;
808.2000;0.1506;0.3028;
808.5000;0.1490;0.3005;
808.8000;0.1498;0.3052;
809.1000;0.1530;0.3148;
809.4000;0.1498;0.3148;
809.7000;0.1506;0.3171;
810.0000;0.1490;0.3076;
810.3000;0.1498;0.3005;
810.6000;0.1530;0.3028;
810.9000;0.1498;0.2909;
811.2000;0.1514;0.2957;
811.5000;0.1506;0.2838;
811.8000;0.1498;0.2718;
812.1000;0.1498;0.2718;
812.4000;0.1522;0.2742;
812.7000;0.1498;0.2718;
813.0000;0.1490;0.2742;
813.3000;0.1498;0.2742;
813.6000;0.1498;0.2790;
813.9000;0.1449;0.2718;
814.2000;0.1490;0.2814;
814.5000;0.1522;0.2933;
814.8000;0.1506;0.2933;
815.1000;0.1457;0.2838;
815.4000;0.1514;0.3005;
815.7000;0.1449;0.2861;
816.0000;0.1514;0.3076;
816.3000;0.1522;0.3076;
816.6000;0.1498;0.3052;
816.9000;0.1465;0.2957;
817.2000;0.1522;0.3005;
817.5000;0.1522;0.2909;
817.8000;0.1481;0.2909;
818.1000;0.1457;0.2838;
818.4000;0.1506;0.2885;
818.7000;0.1514;0.2933;
819.0000;0.1620;0.3171;
819.3000;0.1506;0.2814;
819.6000;0.1522;0.2861;
819.9000;0.1490;0.2766;
820.2000;0.1473;0.2766;
820.5000;0.1514;0.2909;
820.8000;0.1498;0.2885;
821.1000;0.1506;0.2885;
821.4000;0.1490;0.2838;
821.7000;0.1522;0.2885;
822.0000;0.1465;0.2742;
822.3000;0.1490;0.2885;
822.6000;0.1481;0.2790;
822.9000;0.1498;0.2814;
823.2000;0.1433;0.2551;
823.5000;0.1514;0.2814;
823.8000;0.1490;0.2814;
824.1000;0.1498;0.2742;
824.4000;0.1490;0.2647;
824.7000;0.1514;0.2742;
825.0000;0.1506;0.2742;
825.3000;0.1514;0.2718;
825.6000;0.1433;0.2528;
825.9000;0.1490;0.2695;
826.2000;0.1514;0.2838;
826.5000;0.1514;0.2885;
826.8000;0.1498;0.2838;
827.1000;0.1498;0.2861;
827.4000;0.1498;0.2885;
827.7000;0.1514;0.2814;
828.0000;0.1506;0.2742;
828.3000;0.1604;0.3028;
828.6000;0.1465;0.2742;
828.9000;0.1457;0.2790;
829.2000;0.1490;0.2909;
829.5000;0.1563;0.3052;
829.8000;0.1490;0.2909;
830.1000;0.1498;0.2933;
830.4000;0.1506;0.2814;
830.7000;0.1506;0.2790;
831.0000;0.1498;0.2766;
831.3000;0.1465;0.2718;
831.6000;0.1522;0.2838;
831.9000;0.1481;0.2838;
832.2000;0.1498;0.2933;
832.5000;0.1506;0.2981;
832.8000;0.1514;0.3028;
833.1000;0.1490;0.2909;
833.4000;0.1506;0.3028;
833.7000;0.1490;0.3005;
834.0000;0.1514;0.2981;
834.3000;0.1514;0.3052;
834.6000;0.1595;0.3243;
834.9000;0.1506;0.3076;
835.2000;0.1473;0.3124;
835.5000;0.1506;0.3243;
835.8000;0.1514;0.3219;
836.1000;0.1498;0.3195;
836.4000;0.1498;0.3148;
836.7000;0.1490;0.3100;
837.0000;0.1538;0.3195;
837.3000;0.1506;0.3100;
837.6000;0.1514;0.3076;
837.9000;0.1506;0.3052;
838.2000;0.1506;0.2933;
838.5000;0.1473;0.2861;
838.8000;0.1514;0.2885;
839.1000;0.1595;0.3171;
839.4000;0.1506;0.2909;
839.7000;0.1465;0.2981;
840.0000;0.1481;0.3076;
840.3000;0.1506;0.3100;
840.6000;0.1522;0.3052;
840.9000;0.1514;0.2957;
841.2000;0.1530;0.2981;
841.5000;0.1506;0.2957;
841.8000;0.1538;0.3076;
842.1000;0.1514;0.3028;
842.4000;0.1498;0.3005;
842.7000;0.1498;0.2981;
843.0000;0.1481;0.2981;
843.3000;0.1514;0.3005;
843.6000;0.1514;0.3028;
843.9000;0.1514;0.2981;
844.2000;0.1384;0.2671;
844.5000;0.1530;0.3052;
844.8000;0.1514;0.2909;
845.1000;0.1530;0.2861;
845.4000;0.1441;0.2647;
845.7000;0.1490;0.2742;
846.0000;0.1481;0.2766;
846.3000;0.1538;0.2861;
846.6000;0.1506;0.2695;
846.9000;0.1514;0.2695;
847.2000;0.1506;0.2695;
847.5000;0.1490;0.2671;
847.8000;0.1498;0.2695;
848.1000;0.1506;0.2718;
848.4000;0.1514;0.2742;
848.7000;0.1490;0.2695;
849.0000;0.1514;0.2718;
849.3000;0.1490;0.2647;
849.6000;0.1498;0.2647;
849.9000;0.1514;0.2647;
850.2000;0.1490;0.2528;
850.5000;0.1506;0.2504;
850.8000;0.1506;0.2528;
851.1000;0.1490;0.2480;
851.4000;0.1400;0.2218;
851.7000;0.1506;0.2551;
852.0000;0.1441;0.2408;
852.3000;0.1498;0.2599;
852.6000;0.1498;0.2623;
852.9000;0.1465;0.2551;
853.2000;0.1547;0.2790;
853.5000;0.1563;0.2814;
853.8000;0.1490;0.2647;
854.1000;0.1530;0.2695;
854.4000;0.1498;0.2528;
854.7000;0.1522;0.2551;
855.0000;0.1473;0.2432;
855.3000;0.1506;0.2528;
855.6000;0.1490;0.2551;
855.9000;0.1481;0.2551;
856.2000;0.1514;0.2695;
856.5000;0.1522;0.2695;
856.8000;0.1498;0.2599;
857.1000;0.1514;0.2671;
857.4000;0.1506;0.2695;
857.7000;0.1514;0.2838;
858.0000;0.1547;0.2909;
858.3000;0.1498;0.2814;
858.6000;0.1506;0.2909;
858.9000;0.1522;0.3005;
859.2000;0.1506;0.3028;
859.5000;0.1604;0.3291;
859.8000;0.1490;0.3005;
860.1000;0.1473;0.2933;
860.4000;0.1473;0.2861;
860.7000;0.1498;0.2814;
861.0000;0.1522;0.2814;
861.3000;0.1522;0.2957;
861.6000;0.1457;0.2742;
861.9000;0.1457;0.2742;
862.2000;0.1498;0.2909;
862.5000;0.1506;0.2885;
862.8000;0.1465;0.2695;
863.1000;0.1506;0.2814;
863.4000;0.1498;0.2814;
863.7000;0.1514;0.2790;
864.0000;0.1506;0.2766;
864.3000;0.1514;0.2742;
864.6000;0.1465;0.2623;
864.9000;0.1514;0.2838;
865.2000;0.1522;0.2981;
865.5000;0.1433;0.2766;
865.8000;0.1498;0.2933;
866.1000;0.1506;0.2861;
866.4000;0.1522;0.2885;
866.7000;0.1506;0.2790;
867.0000;0.1490;0.2695;
867.3000;0.1514;0.2742;
867.6000;0.1522;0.2718;
867.9000;0.1514;0.2695;
868.2000;0.1522;0.2790;
868.5000;0.1498;0.2695;
868.8000;0.1514;0.2742;
869.1000;0.1522;0.2814;
869.4000;0.1449;0.2623;
869.7000;0.1506;0.2814;
870.0000;0.1628;0.3148;
870.3000;0.1506;0.2814;
870.6000;0.1498;0.2718;
870.9000;0.1498;0.2623;
871.2000;0.1506;0.2599;
871.5000;0.1538;0.2647;
871.8000;0.1514;0.2575;
872.1000;0.1498;0.2480;
872.4000;0.1506;0.2575;
872.7000;0.1514;0.2671;
873.0000;0.1498;0.2695;
873.3000;0.1506;0.2671;
873.6000;0.1490;0.2695;
873.9000;0.1514;0.2766;
874.2000;0.1490;0.2671;
874.5000;0.1490;0.2766;
874.8000;0.1490;0.2695;
875.1000;0.1498;0.2742;
875.4000;0.1441;0.2623;
875.7000;0.1506;0.2742;
876.0000;0.1514;0.2718;
876.3000;0.1481;0.2647;
876.6000;0.1481;0.2671;
876.9000;0.1595;0.2861;
877.2000;0.1612;0.2981;
877.5000;0.1490;0.2671;
877.8000;0.1498;0.2647;
878.1000;0.1498;0.2575;
878.4000;0.1457;0.2361;
878.7000;0.1498;0.2504;
879.0000;0.1498;0.2456;
879.3000;0.1498;0.2504;
879.6000;0.1514;0.2504;
879.9000;0.1481;0.2432;
880.2000;0.1514;0.2480;
880.5000;0.1506;0.2575;
880.8000;0.1498;0.2671;
881.1000;0.1481;0.2671;
881.4000;0.1490;0.2742;
881.7000;0.1506;0.2766;
882.0000;0.1587;0.3028;
882.3000;0.1481;0.2695;
882.6000;0.1465;0.2647;
882.9000;0.1506;0.2814;
883.2000;0.1490;0.2838;
883.5000;0.1506;0.2838;
883.8000;0.1490;0.2766;
884.1000;0.1490;0.2766;
884.4000;0.1506;0.2790;
884.7000;0.1490;0.2838;
885.0000;0.1506;0.2838;
885.3000;0.1530;0.2909;
885.6000;0.1514;0.2861;
885.9000;0.1514;0.2861;
886.2000;0.1481;0.2718;
886.5000;0.1498;0.2790;
886.8000;0.1506;0.2861;
887.1000;0.1587;0.3076;
887.4000;0.1506;0.2981;
887.7000;0.1506;0.2861;
888.0000;0.1498;0.2909;
888.3000;0.1481;0.2861;
888.6000;0.1498;0.2909;
888.9000;0.1376;0.2551;
889.2000;0.1514;0.2838;
889.5000;0.1506;0.2742;
889.8000;0.1506;0.2766;
890.1000;0.1514;0.2909;
890.4000;0.1522;0.2861;
890.7000;0.1514;0.2742;
891.0000;0.1522;0.2742;
891.3000;0.1522;0.2814;
891.6000;0.1530;0.2718;
891.9000;0.1506;0.2718;
892.2000;0.1522;0.2861;
892.5000;0.1498;0.2861;
892.8000;0.1490;0.2933;
893.1000;0.1392;0.2528;
893.4000;0.1514;0.2766;
893.7000;0.1498;0.2790;
894.0000;0.1490;0.2861;
894.3000;0.1465;0.2861;
894.6000;0.1498;0.2981;
894.9000;0.1490;0.3076;
895.2000;0.1465;0.3028;
895.5000;0.1506;0.3028;
895.8000;0.1490;0.3052;
896.1000;0.1530;0.3076;
896.4000;0.1490;0.2981;
896.7000;0.1490;0.2909;
897.0000;0.1473;0.2790;
897.3000;0.1530;0.2885;
897.6000;0.1514;0.2933;
897.9000;0.1514;0.2981;
898.2000;0.1514;0.3028;
898.5000;0.1506;0.3100;
898.8000;0.1498;0.3052;
899.1000;0.1481;0.3028;
899.4000;0.1506;0.3100;
899.7000;0.1514;0.3100;
900.0000;0.1490;0.3076;
900.3000;0.1473;0.3100;
900.6000;0.1514;0.3100;
900.9000;0.1506;0.3100;
901.2000;0.1481;0.3028;
901.5000;0.1506;0.3005;
901.8000;0.1514;0.2933;
902.1000;0.1506;0.2933;
902.4000;0.1506;0.2814;
902.7000;0.1506;0.2885;
903.0000;0.1498;0.2885;
903.3000;0.1506;0.3005;
903.6000;0.1506;0.2909;
903.9000;0.1506;0.2909;
904.2000;0.1506;0.2861;
904.5000;0.1498;0.2885;
904.8000;0.1522;0.2957;
905.1000;0.1530;0.3052;
905.4000;0.1498;0.2885;
905.7000;0.1490;0.2838;
906.0000;0.1530;0.2861;
906.3000;0.1498;0.2742;
906.6000;0.1530;0.2838;
906.9000;0.1481;0.2814;
907.2000;0.1506;0.2861;
907.5000;0.1514;0.2885;
907.8000;0.1490;0.2766;
908.1000;0.1530;0.2790;
908.4000;0.1457;0.2528;
908.7000;0.1506;0.2766;
909.0000;0.1538;0.2861;
909.3000;0.1522;0.2933;
909.6000;0.1506;0.2933;
909.9000;0.1498;0.2909;
910.2000;0.1498;0.2814;
910.5000;0.1514;0.2766;
910.8000;0.1473;0.2718;
911.1000;0.1530;0.2933;
911.4000;0.1514;0.2909;
911.7000;0.1538;0.3052;
912.0000;0.1490;0.3076;
912.3000;0.1481;0.3052;
912.6000;0.1514;0.3171;
912.9000;0.1579;0.3291;
913.2000;0.1465;0.3052;
913.5000;0.1514;0.3124;
913.8000;0.1514;0.3171;
914.1000;0.1506;0.3052;
914.4000;0.1498;0.3076;
914.7000;0.1514;0.3100;
915.0000;0.1498;0.3052;
915.3000;0.1490;0.2957;
915.6000;0.1506;0.3076;
915.9000;0.1514;0.3005;
916.2000;0.1465;0.2885;
916.5000;0.1498;0.3005;
916.8000;0.1514;0.2957;
917.1000;0.1514;0.3076;
917.4000;0.1449;0.2838;
917.7000;0.1514;0.2981;
918.0000;0.1506;0.2933;
918.3000;0.1481;0.2957;
918.6000;0.1498;0.2957;
918.9000;0.1490;0.2981;
919.2000;0.1506;0.3005;
919.5000;0.1514;0.3124;
919.8000;0.1514;0.3148;
920.1000;0.1481;0.3124;
920.4000;0.1506;0.3219;
920.7000;0.1506;0.3195;
921.0000;0.1498;0.3148;
921.3000;0.1481;0.3124;
921.6000;0.1481;0.3076;
921.9000;0.1498;0.3076;
922.2000;0.1522;0.3076;
922.5000;0.1506;0.2957;
922.8000;0.1595;0.3195;
923.1000;0.1506;0.2981;
923.4000;0.1465;0.2861;
923.7000;0.1506;0.2933;
924.0000;0.1514;0.2933;
924.3000;0.1498;0.2909;
924.6000;0.1498;0.2957;
924.9000;0.1490;0.2885;
925.2000;0.1498;0.2909;
925.5000;0.1530;0.3005;
925.8000;0.1490;0.3005;
926.1000;0.1449;0.2838;
926.4000;0.1498;0.2957;
926.7000;0.1522;0.2981;
927.0000;0.1498;0.2981;
927.3000;0.1481;0.2861;
927.6000;0.1514;0.2885;
927.9000;0.1465;0.2861;
928.2000;0.1473;0.2814;
928.5000;0.1392;0.2504;
928.8000;0.1498;0.2742;
929.1000;0.1506;0.2742;
929.4000;0.1514;0.2790;
929.7000;0.1522;0.2861;
930.0000;0.1506;0.2885;
930.3000;0.1498;0.2885;
930.6000;0.1530;0.2909;
930.9000;0.1522;0.2861;
931.2000;0.1473;0.2742;
931.5000;0.1481;0.2766;
931.8000;0.1481;0.2766;
932.1000;0.1490;0.2718;
932.4000;0.1498;0.2742;
932.7000;0.1514;0.2766;
933.0000;0.1514;0.2838;
933.3000;0.1522;0.2885;
933.6000;0.1514;0.2885;
933.9000;0.1449;0.2695;
934.2000;0.1490;0.2718;
934.5000;0.1481;0.2647;
934.8000;0.1506;0.2790;
935.1000;0.1514;0.2861;
935.4000;0.1506;0.2909;
935.7000;0.1506;0.2981;
936.0000;0.1498;0.2933;
936.3000;0.1433;0.2718;
936.6000;0.1498;0.2957;
936.9000;0.1514;0.2957;
937.2000;0.1457;0.2766;
937.5000;0.1514;0.2885;
937.8000;0.1481;0.2909;
938.1000;0.1522;0.2981;
938.4000;0.1449;0.2814;
938.7000;0.1506;0.2957;
939.0000;0.1514;0.3005;
939.3000;0.1506;0.3028;
939.6000;0.1498;0.3028;
939.9000;0.1522;0.3076;
940.2000;0.1571;0.3124;
940.5000;0.1530;0.3100;
940.8000;0.1522;0.3171;
941.1000;0.1498;0.3100;
941.4000;0.1506;0.3076;
941.7000;0.1514;0.3076;
942.0000;0.1473;0.2981;
942.3000;0.1514;0.3028;
942.6000;0.1506;0.3052;
942.9000;0.1506;0.3028;
943.2000;0.1498;0.2957;
943.5000;0.1481;0.2885;
943.8000;0.1498;0.2861;
944.1000;0.1506;0.2790;
944.4000;0.1506;0.2838;
944.7000;0.1490;0.2885;
945.0000;0.1522;0.2885;
945.3000;0.1514;0.2885;
945.6000;0.1506;0.2838;
945.9000;0.1490;0.2790;
946.2000;0.1498;0.2861;
946.5000;0.1514;0.2957;
946.8000;0.1498;0.2909;
947.1000;0.1490;0.2861;
947.4000;0.1481;0.2790;
947.7000;0.1498;0.2885;
948.0000;0.1498;0.2933;
948.3000;0.1506;0.2981;
948.6000;0.1538;0.3005;
948.9000;0.1498;0.3005;
949.2000;0.1530;0.3100;
949.5000;0.1506;0.3005;
949.8000;0.1522;0.3028;
950.1000;0.1538;0.3076;
950.4000;0.1522;0.3076;
950.7000;0.1506;0.3005;
951.0000;0.1473;0.2933;
951.3000;0.1514;0.3028;
951.6000;0.1481;0.2933;
951.9000;0.1506;0.3028;
952.2000;0.1465;0.2861;
952.5000;0.1498;0.2838;
952.8000;0.1506;0.2838;
953.1000;0.1506;0.2933;
953.4000;0.1498;0.2957;
953.7000;0.1490;0.2909;
954.0000;0.1506;0.2981;
954.3000;0.1498;0.3052;
954.6000;0.1522;0.3076;
954.9000;0.1498;0.3076;
955.2000;0.1514;0.3076;
955.5000;0.1522;0.3124;
955.8000;0.1481;0.3052;
956.1000;0.1498;0.3005;
956.4000;0.1514;0.3005;
956.7000;0.1514;0.3052;
957.0000;0.1506;0.3076;
957.3000;0.1490;0.3028;
957.6000;0.1522;0.3028;
957.9000;0.1514;0.3124;
958.2000;0.1490;0.2981;
958.5000;0.1506;0.3005;
958.8000;0.1530;0.3100;
959.1000;0.1506;0.3052;
959.4000;0.1498;0.3052;
959.7000;0.1481;0.3028;
960.0000;0.1490;0.3052;
960.3000;0.1441;0.2933;
960.6000;0.1490;0.3005;
960.9000;0.1490;0.2933;
961.2000;0.1506;0.2981;
961.5000;0.1522;0.3028;
961.8000;0.1547;0.3148;
962.1000;0.1506;0.3005;
962.4000;0.1481;0.2933;
962.7000;0.1506;0.2981;
963.0000;0.1506;0.2957;
963.3000;0.1514;0.3052;
963.6000;0.1514;0.3076;
963.9000;0.1522;0.3076;
964.2000;0.1498;0.3005;
964.5000;0.1538;0.3076;
964.8000;0.1490;0.3124;
965.1000;0.1498;0.3100;
965.4000;0.1490;0.2933;
965.7000;0.1514;0.2981;
966.0000;0.1465;0.2814;
966.3000;0.1490;0.2909;
966.6000;0.1530;0.2957;
966.9000;0.1530;0.2957;
967.2000;0.1555;0.3076;
967.5000;0.1465;0.2838;
967.8000;0.1514;0.2909;
968.1000;0.1481;0.2742;
968.4000;0.1522;0.2814;
968.7000;0.1514;0.2885;
969.0000;0.1498;0.2861;
969.3000;0.1595;0.3100;
969.6000;0.1514;0.2885;
969.9000;0.1514;0.2814;
970.2000;0.1506;0.2766;
970.5000;0.1514;0.2790;
970.8000;0.1473;0.2695;
971.1000;0.1465;0.2718;
971.4000;0.1498;0.2766;
971.7000;0.1506;0.2695;
972.0000;0.1530;0.2838;
972.3000;0.1490;0.2790;
972.6000;0.1490;0.2790;
972.9000;0.1490;0.2718;
973.2000;0.1490;0.2742;
973.5000;0.1538;0.2909;
973.8000;0.1514;0.2766;
974.1000;0.1514;0.2790;
974.4000;0.1490;0.2718;
974.7000;0.1506;0.2718;
975.0000;0.1481;0.2575;
975.3000;0.1490;0.2647;
975.6000;0.1514;0.2671;
975.9000;0.1522;0.2742;
976.2000;0.1514;0.2718;
976.5000;0.1506;0.2623;
976.8000;0.1514;0.2575;
977.1000;0.1522;0.2647;
977.4000;0.1498;0.2623;
977.7000;0.1506;0.2599;
978.0000;0.1506;0.2647;
978.3000;0.1506;0.2623;
978.6000;0.1620;0.2957;
978.9000;0.1514;0.2718;
979.2000;0.1481;0.2599;
979.5000;0.1563;0.2861;
979.8000;0.1514;0.2718;
980.1000;0.1538;0.2814;
980.4000;0.1506;0.2814;
980.7000;0.1376;0.2480;
981.0000;0.1490;0.2838;
981.3000;0.1522;0.2838;
981.6000;0.1514;0.2861;
981.9000;0.1481;0.2742;
982.2000;0.1481;0.2814;
982.5000;0.1490;0.2814;
982.8000;0.1530;0.2861;
983.1000;0.1465;0.2861;
983.4000;0.1473;0.2861;
983.7000;0.1530;0.3005;
984.0000;0.1506;0.2981;
984.3000;0.1522;0.3028;
984.6000;0.1473;0.2885;
984.9000;0.1490;0.2933;
985.2000;0.1433;0.2718;
985.5000;0.1498;0.2885;
985.8000;0.1490;0.2861;
986.1000;0.1465;0.2742;
986.4000;0.1498;0.2718;
986.7000;0.1490;0.2647;
987.0000;0.1498;0.2718;
987.3000;0.1481;0.2647;
987.6000;0.1481;0.2671;
987.9000;0.1506;0.2718;
988.2000;0.1571;0.2814;
988.5000;0.1498;0.2575;
988.8000;0.1522;0.2718;
989.1000;0.1498;0.2742;
989.4000;0.1506;0.2838;
989.7000;0.1449;0.2742;
990.0000;0.1465;0.2766;
990.3000;0.1465;0.2718;
990.6000;0.1416;0.2623;
990.9000;0.1506;0.2814;
991.2000;0.1498;0.2766;
991.5000;0.1506;0.2909;
991.8000;0.1441;0.2742;
992.1000;0.1506;0.2933;
992.4000;0.1538;0.3028;
992.7000;0.1514;0.2933;
993.0000;0.1498;0.2814;
993.3000;0.1530;0.2861;
993.6000;0.1522;0.2766;
993.9000;0.1514;0.2766;
994.2000;0.1498;0.2718;
994.5000;0.1506;0.2695;
994.8000;0.1506;0.2742;
995.1000;0.1490;0.2742;
995.4000;0.1514;0.2814;
995.7000;0.1522;0.2814;
996.0000;0.1449;0.2695;
996.3000;0.1473;0.2766;
996.6000;0.1498;0.2933;
996.9000;0.1514;0.2957;
997.2000;0.1514;0.2957;
997.5000;0.1498;0.2933;
997.8000;0.1506;0.2957;
998.1000;0.1490;0.2909;
998.4000;0.1514;0.2933;
998.7000;0.1498;0.2981;
999.0000;0.1498;0.3005;
999.3000;0.1506;0.3028;
999.6000;0.1506;0.3028;
999.9000;0.1498;0.3028;
1000.2000;0.1490;0.3005;
1000.5000;0.1522;0.3005;
1000.8000;0.1514;0.3052;
1001.1000;0.1490;0.2981;
1001.4000;0.1498;0.3052;
1001.7000;0.1506;0.3148;
1002.0000;0.1506;0.3100;
1002.3000;0.1514;0.3076;
1002.6000;0.1490;0.3005;
1002.9000;0.1514;0.3005;
1003.2000;0.1522;0.3005;
1003.5000;0.1498;0.2981;
1003.8000;0.1514;0.2933;
1004.1000;0.1433;0.2718;
1004.4000;0.1506;0.2885;
1004.7000;0.1498;0.2933;
1005.0000;0.1530;0.2981;
1005.3000;0.1514;0.2909;
1005.6000;0.1498;0.2885;
1005.9000;0.1563;0.3005;
1006.2000;0.1538;0.2933;
1006.5000;0.1506;0.2933;
1006.8000;0.1506;0.2861;
1007.1000;0.1392;0.2551;
1007.4000;0.1457;0.2766;
1007.7000;0.1506;0.2885;
1008.0000;0.1563;0.3100;
1008.3000;0.1587;0.3076;
1008.6000;0.1481;0.2909;
1008.9000;0.1498;0.2861;
1009.2000;0.1530;0.2957;
1009.5000;0.1465;0.2909;
1009.8000;0.1490;0.2885;
1010.1000;0.1433;0.2766;
1010.4000;0.1506;0.2981;
1010.7000;0.1530;0.3028;
1011.0000;0.1498;0.3005;
1011.3000;0.1514;0.3028;
1011.6000;0.1481;0.2885;
1011.9000;0.1514;0.3005;
1012.2000;0.1498;0.3005;
1012.5000;0.1473;0.2909;
1012.8000;0.1498;0.3028;
1013.1000;0.1514;0.2981;
1013.4000;0.1522;0.2957;
1013.7000;0.1498;0.2909;
1014.0000;0.1555;0.2981;
1014.3000;0.1498;0.2766;
1014.6000;0.1522;0.2933;
1014.9000;0.1498;0.2838;
1015.2000;0.1498;0.2838;
1015.5000;0.1571;0.2933;
1015.8000;0.1506;0.2742;
1016.1000;0.1522;0.2814;
1016.4000;0.1498;0.2814;
1016.7000;0.1490;0.2814;
1017.0000;0.1514;0.2814;
1017.3000;0.1481;0.2718;
1017.6000;0.1506;0.2838;
1017.9000;0.1506;0.2838;
1018.2000;0.1481;0.2933;
1018.5000;0.1555;0.3195;
1018.8000;0.1522;0.3076;
1019.1000;0.1514;0.3052;
1019.4000;0.1514;0.3100;
1019.7000;0.1506;0.2981;
1020.0000;0.1514;0.3052;
1020.3000;0.1481;0.2981;
1020.6000;0.1506;0.3052;
1020.9000;0.1498;0.3005;
1021.2000;0.1514;0.3052;
1021.5000;0.1522;0.3028;
1021.8000;0.1522;0.2885;
1022.1000;0.1498;0.2838;
1022.4000;0.1506;0.2814;
1022.7000;0.1530;0.2814;
1023.0000;0.1490;0.2790;
1023.3000;0.1490;0.2766;
1023.6000;0.1563;0.2885;
1023.9000;0.1506;0.2790;
1024.2000;0.1498;0.2838;
1024.5000;0.1490;0.2814;
1024.8000;0.1498;0.2885;
1025.1000;0.1498;0.2957;
1025.4000;0.1514;0.3005;
1025.7000;0.1522;0.3005;
1026.0000;0.1465;0.2861;
1026.3000;0.1514;0.3005;
1026.6000;0.1490;0.2933;
1026.9000;0.1506;0.2885;
1027.2000;0.1481;0.2933;
1027.5000;0.1481;0.3005;
1027.8000;0.1506;0.3100;
1028.1000;0.1457;0.2909;
1028.4000;0.1514;0.3076;
1028.7000;0.1498;0.3100;
1029.0000;0.1416;0.2933;
1029.3000;0.1441;0.2933;
1029.6000;0.1506;0.3052;
1029.9000;0.1490;0.2981;
1030.2000;0.1498;0.2909;
1030.5000;0.1498;0.2885;
1030.8000;0.1498;0.2885;
1031.1000;0.1506;0.2838;
1031.4000;0.1555;0.2933;
1031.7000;0.1490;0.2718;
1032.0000;0.1522;0.2766;
1032.3000;0.1490;0.2742;
1032.6000;0.1506;0.2695;
1032.9000;0.1498;0.2671;
1033.2000;0.1522;0.2671;
1033.5000;0.1498;0.2575;
1033.8000;0.1506;0.2647;
1034.1000;0.1506;0.2742;
1034.4000;0.1506;0.2671;
1034.7000;0.1481;0.2766;
1035.0000;0.1490;0.2790;
1035.3000;0.1506;0.2695;
1035.6000;0.1522;0.2814;
1035.9000;0.1498;0.2861;
1036.2000;0.1514;0.2957;
1036.5000;0.1563;0.3028;
1036.8000;0.1538;0.3005;
1037.1000;0.1522;0.2861;
1037.4000;0.1481;0.2766;
1037.7000;0.1506;0.2838;
1038.0000;0.1538;0.2957;
1038.3000;0.1514;0.2933;
1038.6000;0.1498;0.2957;
1038.9000;0.1514;0.2957;
1039.2000;0.1490;0.2957;
1039.5000;0.1465;0.2861;
1039.8000;0.1498;0.2885;
1040.1000;0.1490;0.2909;
1040.4000;0.1433;0.2814;
1040.7000;0.1490;0.2933;
1041.0000;0.1416;0.2647;
1041.3000;0.1457;0.2766;
1041.6000;0.1506;0.2933;
1041.9000;0.1506;0.2981;
1042.2000;0.1441;0.2695;
1042.5000;0.1530;0.2981;
1042.8000;0.1555;0.3100;
1043.1000;0.1506;0.2957;
1043.4000;0.1522;0.2957;
1043.7000;0.1522;0.3028;
1044.0000;0.1514;0.2981;
1044.3000;0.1490;0.2981;
1044.6000;0.1498;0.2885;
1044.9000;0.1522;0.2933;
1045.2000;0.1506;0.2885;
1045.5000;0.1530;0.2933;
1045.8000;0.1506;0.2814;
1046.1000;0.1506;0.2790;
1046.4000;0.1481;0.2695;
1046.7000;0.1473;0.2742;
1047.0000;0.1490;0.2814;
1047.3000;0.1522;0.2861;
1047.6000;0.1433;0.2647;
1047.9000;0.1522;0.2814;
1048.2000;0.1498;0.2766;
1048.5000;0.1530;0.2814;
1048.8000;0.1522;0.2671;
1049.1000;0.1514;0.2671;
1049.4000;0.1522;0.2766;
1049.7000;0.1473;0.2742;
1050.0000;0.1506;0.2790;
1050.3000;0.1498;0.2766;
1050.6000;0.1547;0.2909;
1050.9000;0.1498;0.2766;
1051.2000;0.1506;0.2742;
1051.5000;0.1522;0.2766;
1051.8000;0.1498;0.2718;
1052.1000;0.1498;0.2766;
1052.4000;0.1498;0.2790;
1052.7000;0.1595;0.3124;
1053.0000;0.1449;0.2790;
1053.3000;0.1498;0.2885;
1053.6000;0.1514;0.2957;
1053.9000;0.1490;0.2957;
1054.2000;0.1514;0.3028;
1054.5000;0.1481;0.2909;
1054.8000;0.1506;0.3052;
1055.1000;0.1522;0.3052;
1055.4000;0.1490;0.3052;
1055.7000;0.1490;0.3028;
1056.0000;0.1473;0.3052;
1056.3000;0.1530;0.3219;
1056.6000;0.1498;0.3124;
1056.9000;0.1498;0.3100;
1057.2000;0.1563;0.3171;
1057.5000;0.1514;0.3028;
1057.8000;0.1530;0.3052;
1058.1000;0.1514;0.3076;
1058.4000;0.1530;0.3076;
1058.7000;0.1490;0.2861;
1059.0000;0.1522;0.2981;
1059.3000;0.1514;0.2981;
1059.6000;0.1481;0.2861;
1059.9000;0.1506;0.2861;
1060.2000;0.1522;0.2766;
1060.5000;0.1498;0.2742;
1060.8000;0.1481;0.2671;
1061.1000;0.1457;0.2599;
1061.4000;0.1506;0.2718;
1061.7000;0.1506;0.2623;
1062.0000;0.1522;0.2647;
1062.3000;0.1498;0.2695;
1062.6000;0.1498;0.2742;
1062.9000;0.1506;0.2790;
1063.2000;0.1441;0.2647;
1063.5000;0.1506;0.2957;
1063.8000;0.1498;0.2909;
1064.1000;0.1457;0.2814;
1064.4000;0.1506;0.2814;
1064.7000;0.1522;0.2742;
1065.0000;0.1514;0.2671;
1065.3000;0.1563;0.2838;
1065.6000;0.1473;0.2742;
1065.9000;0.1530;0.2814;
1066.2000;0.1538;0.2909;
1066.5000;0.1522;0.2909;
1066.8000;0.1490;0.2861;
1067.1000;0.1506;0.2981;
1067.4000;0.1522;0.3005;
1067.7000;0.1465;0.2766;
1068.0000;0.1522;0.2933;
1068.3000;0.1522;0.2909;
1068.6000;0.1481;0.2814;
1068.9000;0.1498;0.2861;
1069.2000;0.1522;0.2885;
1069.5000;0.1506;0.2885;
1069.8000;0.1498;0.2909;
1070.1000;0.1490;0.3005;
1070.4000;0.1530;0.3028;
1070.7000;0.1530;0.3028;
1071.0000;0.1506;0.3052;
1071.3000;0.1498;0.3052;
1071.6000;0.1498;0.3100;
1071.9000;0.1498;0.3124;
1072.2000;0.1498;0.3028;
1072.5000;0.1473;0.2957;
1072.8000;0.1490;0.3052;
1073.1000;0.1514;0.2981;
1073.4000;0.1490;0.2981;
1073.7000;0.1498;0.2957;
1074.0000;0.1490;0.3005;
1074.3000;0.1522;0.3028;
1074.6000;0.1498;0.2957;
1074.9000;0.1400;0.2790;
1075.2000;0.1425;0.2957;
1075.5000;0.1514;0.3148;
1075.8000;0.1547;0.3195;
1076.1000;0.1514;0.3005;
1076.4000;0.1506;0.2957;
1076.7000;0.1457;0.2838;
1077.0000;0.1490;0.2885;
1077.3000;0.1498;0.2885;
1077.6000;0.1530;0.2909;
1077.9000;0.1506;0.2861;
1078.2000;0.1481;0.2718;
1078.5000;0.1506;0.2814;
1078.8000;0.1490;0.2790;
1079.1000;0.1490;0.2695;
1079.4000;0.1490;0.2647;
1079.7000;0.1498;0.2647;
1080.0000;0.1522;0.2742;
1080.3000;0.1506;0.2742;
1080.6000;0.1506;0.2885;
1080.9000;0.1506;0.3028;
1081.2000;0.1514;0.3076;
1081.5000;0.1465;0.2957;
1081.8000;0.1498;0.3028;
1082.1000;0.1587;0.3243;
1082.4000;0.1457;0.2885;
1082.7000;0.1449;0.2885;
1083.0000;0.1522;0.3005;
1083.3000;0.1481;0.2933;
1083.6000;0.1490;0.2957;
1083.9000;0.1522;0.3028;
1084.2000;0.1473;0.2957;
1084.5000;0.1506;0.3052;
1084.8000;0.1457;0.2957;
1085.1000;0.1522;0.3076;
1085.4000;0.1506;0.3124;
1085.7000;0.1506;0.3148;
1086.0000;0.1506;0.3124;
1086.3000;0.1506;0.3195;
1086.6000;0.1522;0.3100;
1086.9000;0.1506;0.2981;
1087.2000;0.1547;0.3005;
1087.5000;0.1514;0.2885;
1087.8000;0.1465;0.2909;
1088.1000;0.1490;0.2933;
1088.4000;0.1514;0.3100;
1088.7000;0.1490;0.3005;
1089.0000;0.1555;0.3195;
1089.3000;0.1498;0.2957;
1089.6000;0.1498;0.2981;
1089.9000;0.1498;0.2981;
1090.2000;0.1522;0.2957;
1090.5000;0.1530;0.2957;
1090.8000;0.1490;0.2790;
1091.1000;0.1547;0.2885;
1091.4000;0.1538;0.2933;
1091.7000;0.1514;0.2838;
1092.0000;0.1530;0.2933;
1092.3000;0.1506;0.2909;
1092.6000;0.1514;0.3005;
1092.9000;0.1506;0.2981;
1093.2000;0.1490;0.2957;
1093.5000;0.1506;0.3076;
1093.8000;0.1514;0.3076;
1094.1000;0.1498;0.3005;
1094.4000;0.1506;0.3028;
1094.7000;0.1498;0.3052;
1095.0000;0.1490;0.3005;
1095.3000;0.1522;0.3005;
1095.6000;0.1538;0.3005;
1095.9000;0.1522;0.2909;
1096.2000;0.1498;0.2909;
1096.5000;0.1498;0.2957;
1096.8000;0.1506;0.2981;
1097.1000;0.1571;0.3148;
1097.4000;0.1514;0.2885;
1097.7000;0.1514;0.2790;
1098.0000;0.1522;0.2790;
1098.3000;0.1506;0.2861;
1098.6000;0.1473;0.2814;
1098.9000;0.1514;0.2885;
1099.2000;0.1506;0.2814;
1099.5000;0.1465;0.2766;
1099.8000;0.1538;0.2909;
1100.1000;0.1498;0.2814;
1100.4000;0.1514;0.2838;
1100.7000;0.1490;0.2838;
1101.0000;0.1400;0.2528;
1101.3000;0.1522;0.2814;
1101.6000;0.1457;0.2623;
1101.9000;0.1481;0.2671;
1102.2000;0.1514;0.2742;
1102.5000;0.1522;0.2766;
1102.8000;0.1490;0.2766;
1103.1000;0.1506;0.2838;
1103.4000;0.1506;0.2790;
1103.7000;0.1514;0.2718;
1104.0000;0.1522;0.2695;
1104.3000;0.1547;0.2742;
1104.6000;0.1506;0.2647;
1104.9000;0.1514;0.2647;
1105.2000;0.1522;0.2695;
1105.5000;0.1498;0.2647;
1105.8000;0.1506;0.2814;
1106.1000;0.1490;0.2718;
1106.4000;0.1522;0.2885;
1106.7000;0.1514;0.2790;
1107.0000;0.1506;0.2838;
1107.3000;0.1506;0.2814;
1107.6000;0.1498;0.2814;
1107.9000;0.1498;0.2909;
1108.2000;0.1506;0.2861;
1108.5000;0.1514;0.2885;
1108.8000;0.1506;0.2838;
1109.1000;0.1498;0.2861;
1109.4000;0.1530;0.2885;
1109.7000;0.1514;0.2861;
1110.0000;0.1498;0.2790;
1110.3000;0.1514;0.2814;
1110.6000;0.1514;0.2861;
1110.9000;0.1506;0.2909;
1111.2000;0.1530;0.3005;
1111.5000;0.1481;0.2933;
1111.8000;0.1490;0.2981;
1112.1000;0.1481;0.2981;
1112.4000;0.1490;0.3028;
1112.7000;0.1481;0.2957;
1113.0000;0.1514;0.2933;
1113.3000;0.1506;0.2933;
1113.6000;0.1506;0.2885;
1113.9000;0.1522;0.2981;
1114.2000;0.1506;0.2933;
1114.5000;0.1579;0.3100;
1114.8000;0.1522;0.2909;
1115.1000;0.1506;0.2909;
1115.4000;0.1506;0.2885;
1115.7000;0.1506;0.2885;
1116.0000;0.1506;0.2838;
1116.3000;0.1473;0.2814;
1116.6000;0.1490;0.2861;
1116.9000;0.1506;0.2909;
1117.2000;0.1514;0.2838;
1117.5000;0.1514;0.2742;
1117.8000;0.1376;0.2385;
1118.1000;0.1498;0.2695;
1118.4000;0.1522;0.2790;
1118.7000;0.1506;0.2742;
1119.0000;0.1481;0.2695;
1119.3000;0.1514;0.2790;
1119.6000;0.1514;0.2838;
1119.9000;0.1490;0.2695;
1120.2000;0.1498;0.2623;
1120.5000;0.1498;0.2551;
1120.8000;0.1514;0.2575;
1121.1000;0.1506;0.2528;
1121.4000;0.1506;0.2575;
1121.7000;0.1490;0.2575;
1122.0000;0.1473;0.2504;
1122.3000;0.1522;0.2623;
1122.6000;0.1490;0.2647;
1122.9000;0.1514;0.2671;
1123.2000;0.1506;0.2647;
1123.5000;0.1522;0.2695;
1123.8000;0.1506;0.2575;
1124.1000;0.1612;0.2790;
1124.4000;0.1465;0.2408;
1124.7000;0.1522;0.2551;
1125.0000;0.1538;0.2623;
1125.3000;0.1514;0.2599;
1125.6000;0.1498;0.2695;
1125.9000;0.1506;0.2718;
1126.2000;0.1514;0.2671;
1126.5000;0.1498;0.2599;
1126.8000;0.1498;0.2599;
1127.1000;0.1481;0.2551;
1127.4000;0.1498;0.2551;
1127.7000;0.1522;0.2623;
1128.0000;0.1473;0.2480;
1128.3000;0.1506;0.2647;
1128.6000;0.1506;0.2647;
1128.9000;0.1490;0.2599;
1129.2000;0.1506;0.2695;
1129.5000;0.1506;0.2742;
1129.8000;0.1490;0.2742;
1130.1000;0.1522;0.2790;
1130.4000;0.1384;0.2528;
1130.7000;0.1506;0.2861;
1131.0000;0.1506;0.2838;
1131.3000;0.1514;0.2766;
1131.6000;0.1400;0.2504;
1131.9000;0.1490;0.2742;
1132.2000;0.1506;0.2814;
1132.5000;0.1522;0.2790;
1132.8000;0.1506;0.2766;
1133.1000;0.1514;0.2838;
1133.4000;0.1498;0.2814;
1133.7000;0.1506;0.2814;
1134.0000;0.1506;0.2742;
1134.3000;0.1514;0.2742;
1134.6000;0.1506;0.2790;
1134.9000;0.1514;0.2885;
1135.2000;0.1490;0.2742;
1135.5000;0.1441;0.2647;
1135.8000;0.1530;0.2861;
1136.1000;0.1498;0.2790;
1136.4000;0.1514;0.2861;
1136.7000;0.1506;0.2861;
1137.0000;0.1506;0.2838;
1137.3000;0.1522;0.2957;
1137.6000;0.1514;0.2909;
1137.9000;0.1498;0.2885;
1138.2000;0.1473;0.2790;
1138.5000;0.1465;0.2838;
1138.8000;0.1490;0.2885;
1139.1000;0.1506;0.2766;
1139.4000;0.1490;0.2718;
1139.7000;0.1498;0.2861;
1140.0000;0.1490;0.2790;
1140.3000;0.1506;0.2766;
1140.6000;0.1522;0.2933;
1140.9000;0.1514;0.2790;
1141.2000;0.1522;0.2885;
1141.5000;0.1506;0.2790;
1141.8000;0.1465;0.2671;
1142.1000;0.1498;0.2766;
1142.4000;0.1514;0.2838;
1142.7000;0.1522;0.2838;
1143.0000;0.1506;0.2814;
1143.3000;0.1522;0.2861;
1143.6000;0.1498;0.2885;
1143.9000;0.1522;0.2957;
1144.2000;0.1498;0.2957;
1144.5000;0.1514;0.2981;
1144.8000;0.1506;0.2981;
1145.1000;0.1506;0.2981;
1145.4000;0.1457;0.2790;
1145.7000;0.1506;0.2957;
1146.0000;0.1498;0.2933;
1146.3000;0.1506;0.2981;
1146.6000;0.1538;0.2957;
1146.9000;0.1555;0.2981;
1147.2000;0.1506;0.2861;
1147.5000;0.1530;0.2861;
1147.8000;0.1514;0.2861;
1148.1000;0.1579;0.3028;
1148.4000;0.1481;0.2814;
1148.7000;0.1498;0.2838;
1149.0000;0.1481;0.2838;
1149.3000;0.1514;0.2909;
1149.6000;0.1612;0.3124;
1149.9000;0.1490;0.2814;
1150.2000;0.1522;0.2933;
1150.5000;0.1498;0.2885;
1150.8000;0.1506;0.2957;
1151.1000;0.1481;0.2933;
1151.4000;0.1498;0.2981;
1151.7000;0.1498;0.3005;
1152.0000;0.1514;0.3076;
1152.3000;0.1498;0.3028;
1152.6000;0.1595;0.3314;
1152.9000;0.1498;0.3076;
1153.2000;0.1514;0.3052;
1153.5000;0.1457;0.2861;
1153.8000;0.1506;0.2981;
1154.1000;0.1473;0.2981;
1154.4000;0.1514;0.3028;
1154.7000;0.1498;0.3028;
1155.0000;0.1490;0.3028;
1155.3000;0.1506;0.2933;
1155.6000;0.1498;0.2933;
1155.9000;0.1514;0.2981;
1156.2000;0.1506;0.2957;
1156.5000;0.1514;0.3005;
1156.8000;0.1522;0.3028;
1157.1000;0.1498;0.3052;
1157.4000;0.1449;0.2909;
1157.7000;0.1522;0.3052;
1158.0000;0.1530;0.3005;
1158.3000;0.1522;0.2981;
1158.6000;0.1498;0.2957;
1158.9000;0.1620;0.3314;
1159.2000;0.1522;0.3076;
1159.5000;0.1490;0.2933;
1159.8000;0.1514;0.2861;
1160.1000;0.1514;0.2861;
1160.4000;0.1506;0.2885;
1160.7000;0.1506;0.2838;
1161.0000;0.1514;0.2790;
1161.3000;0.1530;0.2909;
1161.6000;0.1498;0.2861;
1161.9000;0.1522;0.2957;
1162.2000;0.1506;0.3028;
1162.5000;0.1522;0.3100;
1162.8000;0.1481;0.3028;
1163.1000;0.1506;0.2981;
1163.4000;0.1538;0.2933;
1163.7000;0.1506;0.2957;
1164.0000;0.1530;0.3052;
1164.3000;0.1473;0.3005;
1164.6000;0.1506;0.3052;
1164.9000;0.1498;0.3028;
1165.2000;0.1498;0.3052;
1165.5000;0.1595;0.3291;
1165.8000;0.1498;0.3171;
1166.1000;0.1506;0.3195;
1166.4000;0.1506;0.3171;
1166.7000;0.1498;0.3124;
1167.0000;0.1522;0.3100;
1167.3000;0.1506;0.3124;
1167.6000;0.1522;0.3124;
1167.9000;0.1506;0.3005;
1168.2000;0.1481;0.2957;
1168.5000;0.1498;0.2981;
1168.8000;0.1498;0.3028;
1169.1000;0.1490;0.2957;
1169.4000;0.1514;0.3100;
1169.7000;0.1506;0.3124;
1170.0000;0.1490;0.3124;
1170.3000;0.1506;0.3100;
1170.6000;0.1514;0.3124;
1170.9000;0.1465;0.2909;
1171.2000;0.1514;0.3028;
1171.5000;0.1514;0.2957;
1171.8000;0.1514;0.2981;
1172.1000;0.1506;0.3005;
1172.4000;0.1481;0.2933;
1172.7000;0.1514;0.2981;
1173.0000;0.1416;0.2718;
1173.3000;0.1595;0.3076;
1173.6000;0.1514;0.2766;
1173.9000;0.1506;0.2718;
1174.2000;0.1538;0.2861;
1174.5000;0.1522;0.2790;
1174.8000;0.1522;0.2742;
1175.1000;0.1506;0.2742;
1175.4000;0.1490;0.2742;
1175.7000;0.1490;0.2790;
1176.0000;0.1506;0.2838;
1176.3000;0.1522;0.2909;
1176.6000;0.1490;0.2909;
1176.9000;0.1506;0.2909;
1177.2000;0.1530;0.2885;
1177.5000;0.1506;0.2933;
1177.8000;0.1514;0.3028;
1178.1000;0.1490;0.2933;
1178.4000;0.1481;0.2933;
1178.7000;0.1522;0.3076;
1179.0000;0.1506;0.3124;
1179.3000;0.1498;0.3124;
1179.6000;0.1490;0.3124;
1179.9000;0.1547;0.3243;
1180.2000;0.1514;0.3124;
1180.5000;0.1514;0.3100;
1180.8000;0.1563;0.3195;
1181.1000;0.1498;0.3052;
1181.4000;0.1506;0.3028;
1181.7000;0.1465;0.2909;
1182.0000;0.1506;0.3052;
1182.3000;0.1449;0.2790;
1182.6000;0.1490;0.2981;
1182.9000;0.1514;0.3005;
1183.2000;0.1481;0.2957;
1183.5000;0.1498;0.2838;
1183.8000;0.1506;0.2742;
1184.1000;0.1506;0.2742;
1184.4000;0.1506;0.2718;
1184.7000;0.1522;0.2742;
1185.0000;0.1498;0.2718;
1185.3000;0.1498;0.2814;
1185.6000;0.1530;0.2861;
1185.9000;0.1612;0.3005;
1186.2000;0.1506;0.2695;
1186.5000;0.1498;0.2647;
1186.8000;0.1514;0.2766;
1187.1000;0.1522;0.2957;
1187.4000;0.1473;0.2742;
1187.7000;0.1498;0.2861;
1188.0000;0.1514;0.2957;
1188.3000;0.1481;0.2838;
1188.6000;0.1538;0.2957;
1188.9000;0.1506;0.2838;
1189.2000;0.1522;0.2838;
1189.5000;0.1538;0.2885;
1189.8000;0.1498;0.2861;
1190.1000;0.1473;0.2718;
1190.4000;0.1498;0.2885;
1190.7000;0.1506;0.2957;
1191.0000;0.1514;0.2933;
1191.3000;0.1490;0.2838;
1191.6000;0.1449;0.2742;
1191.9000;0.1555;0.3028;
1192.2000;0.1514;0.2981;
1192.5000;0.1669;0.3458;
1192.8000;0.1506;0.3005;
1193.1000;0.1514;0.3005;
1193.4000;0.1490;0.2861;
1193.7000;0.1506;0.2742;
1194.0000;0.1490;0.2790;
1194.3000;0.1490;0.2838;
1194.6000;0.1490;0.2838;
1194.9000;0.1490;0.2885;
1195.2000;0.1400;0.2647;
1195.5000;0.1514;0.2933;
1195.8000;0.1522;0.2885;
1196.1000;0.1506;0.2981;
1196.4000;0.1514;0.2933;
1196.7000;0.1522;0.2814;
1197.0000;0.1579;0.3005;
1197.3000;0.1514;0.2909;
1197.6000;0.1514;0.2861;
1197.9000;0.1514;0.2861;
1198.2000;0.1506;0.2957;
1198.5000;0.1490;0.3005;
1198.8000;0.1506;0.2957;
1199.1000;0.1538;0.3028;
1199.4000;0.1547;0.3076;
1199.7000;0.1506;0.2933;
1200.0000;0.1514;0.2790;
1200.3000;0.1506;0.2766;
1200.6000;0.1506;0.2718;
1200.9000;0.1514;0.2814;
1201.2000;0.1547;0.2861;
1201.5000;0.1506;0.2718;
1201.8000;0.1514;0.2766;
1202.1000;0.1522;0.2838;
1202.4000;0.1571;0.3028;
1202.7000;0.1514;0.2933;
1203.0000;0.1498;0.2838;
1203.3000;0.1506;0.2885;
1203.6000;0.1506;0.2861;
1203.9000;0.1555;0.3052;
1204.2000;0.1498;0.2909;
1204.5000;0.1530;0.3052;
1204.8000;0.1547;0.3171;
1205.1000;0.1514;0.3124;
1205.4000;0.1506;0.3100;
1205.7000;0.1514;0.3028;
1206.0000;0.1506;0.2933;
1206.3000;0.1498;0.2909;
1206.6000;0.1506;0.2838;
1206.9000;0.1506;0.2790;
1207.2000;0.1530;0.2838;
1207.5000;0.1514;0.2838;
1207.8000;0.1506;0.2838;
1208.1000;0.1506;0.2790;
1208.4000;0.1522;0.2790;
1208.7000;0.1522;0.2766;
1209.0000;0.1514;0.2909;
1209.3000;0.1555;0.2981;
1209.6000;0.1530;0.2981;
1209.9000;0.1376;0.2575;
1210.2000;0.1530;0.2933;
1210.5000;0.1481;0.2814;
1210.8000;0.1498;0.2861;
1211.1000;0.1522;0.2909;
1211.4000;0.1514;0.2885;
1211.7000;0.1506;0.2885;
1212.0000;0.1514;0.2981;
1212.3000;0.1530;0.2957;
1212.6000;0.1506;0.2885;
1212.9000;0.1538;0.3028;
1213.2000;0.1587;0.3076;
1213.5000;0.1514;0.2909;
1213.8000;0.1490;0.2933;
1214.1000;0.1522;0.3052;
1214.4000;0.1498;0.2909;
1214.7000;0.1498;0.2885;
1215.0000;0.1530;0.3005;
1215.3000;0.1522;0.2957;
1215.6000;0.1506;0.2885;
1215.9000;0.1490;0.2742;
1216.2000;0.1498;0.2838;
1216.5000;0.1490;0.2933;
1216.8000;0.1490;0.2885;
1217.1000;0.1555;0.3028;
1217.4000;0.1579;0.3148;
1217.7000;0.1514;0.3028;
1218.0000;0.1547;0.3076;
1218.3000;0.1530;0.3171;
1218.6000;0.1441;0.2909;
1218.9000;0.1506;0.3100;
1219.2000;0.1571;0.3267;
1219.5000;0.1449;0.2981;
1219.8000;0.1506;0.3052;
1220.1000;0.1473;0.2957;
1220.4000;0.1481;0.2909;
1220.7000;0.1506;0.2957;
1221.0000;0.1425;0.2718;
1221.3000;0.1530;0.3076;
1221.6000;0.1514;0.2981;
1221.9000;0.1490;0.2909;
1222.2000;0.1522;0.3005;
1222.5000;0.1506;0.2933;
1222.8000;0.1490;0.2861;
1223.1000;0.1498;0.2861;
1223.4000;0.1498;0.2861;
1223.7000;0.1498;0.2838;
1224.0000;0.1498;0.2861;
1224.3000;0.1498;0.2885;
1224.6000;0.1506;0.2861;
1224.9000;0.1498;0.2814;
1225.2000;0.1547;0.2909;
1225.5000;0.1522;0.2909;
1225.8000;0.1506;0.2838;
1226.1000;0.1514;0.2838;
1226.4000;0.1490;0.2742;
1226.7000;0.1498;0.2718;
1227.0000;0.1514;0.2742;
1227.3000;0.1490;0.2790;
1227.6000;0.1498;0.2838;
1227.9000;0.1522;0.2957;
1228.2000;0.1538;0.3076;
1228.5000;0.1506;0.2981;
1228.8000;0.1498;0.3052;
1229.1000;0.1490;0.2981;
1229.4000;0.1514;0.3005;
1229.7000;0.1522;0.2957;
1230.0000;0.1506;0.2981;
1230.3000;0.1490;0.2909;
1230.6000;0.1530;0.2933;
1230.9000;0.1514;0.2909;
1231.2000;0.1514;0.2885;
1231.5000;0.1481;0.2838;
1231.8000;0.1498;0.2861;
1232.1000;0.1473;0.2766;
1232.4000;0.1506;0.2838;
1232.7000;0.1490;0.2885;
1233.0000;0.1522;0.2933;
1233.3000;0.1514;0.2957;
1233.6000;0.1538;0.2957;
1233.9000;0.1538;0.3028;
1234.2000;0.1498;0.2885;
1234.5000;0.1457;0.2885;
1234.8000;0.1514;0.3028;
1235.1000;0.1514;0.3028;
1235.4000;0.1506;0.2957;
1235.7000;0.1652;0.3338;
1236.0000;0.1506;0.2838;
1236.3000;0.1441;0.2623;
1236.6000;0.1498;0.2909;
1236.9000;0.1506;0.2957;
1237.2000;0.1473;0.2838;
1237.5000;0.1490;0.2933;
1237.8000;0.1498;0.3005;
1238.1000;0.1498;0.2981;
1238.4000;0.1628;0.3195;
1238.7000;0.1514;0.2909;
1239.0000;0.1498;0.2909;
1239.3000;0.1522;0.2933;
1239.6000;0.1522;0.2933;
1239.9000;0.1506;0.2957;
1240.2000;0.1498;0.2909;
1240.5000;0.1506;0.2885;
1240.8000;0.1506;0.2981;
1241.1000;0.1506;0.2933;
1241.4000;0.1514;0.2981;
1241.7000;0.1506;0.2981;
1242.0000;0.1481;0.2838;
1242.3000;0.1481;0.2861;
1242.6000;0.1465;0.2814;
1242.9000;0.1481;0.2933;
1243.2000;0.1425;0.2790;
1243.5000;0.1514;0.3005;
1243.8000;0.1498;0.2981;
1244.1000;0.1481;0.2885;
1244.4000;0.1506;0.3028;
1244.7000;0.1498;0.3005;
1245.0000;0.1498;0.3005;
1245.3000;0.1579;0.3148;
1245.6000;0.1514;0.2981;
1245.9000;0.1514;0.3028;
1246.2000;0.1506;0.3052;
1246.5000;0.1506;0.3052;
1246.8000;0.1498;0.3028;
1247.1000;0.1490;0.2981;
1247.4000;0.1522;0.3028;
1247.7000;0.1506;0.3005;
1248.0000;0.1498;0.2981;
1248.3000;0.1522;0.3052;
1248.6000;0.1514;0.3100;
1248.9000;0.1498;0.2981;
1249.2000;0.1506;0.2981;
1249.5000;0.1514;0.2933;
1249.8000;0.1498;0.2838;
1250.1000;0.1490;0.2885;
1250.4000;0.1522;0.2957;
1250.7000;0.1506;0.2957;
1251.0000;0.1441;0.2790;
1251.3000;0.1538;0.2981;
1251.6000;0.1530;0.2909;
1251.9000;0.1514;0.2838;
1252.2000;0.1506;0.2790;
1252.5000;0.1506;0.2766;
1252.8000;0.1473;0.2647;
1253.1000;0.1498;0.2814;
1253.4000;0.1620;0.3171;
1253.7000;0.1530;0.2838;
1254.0000;0.1530;0.2766;
1254.3000;0.1498;0.2671;
1254.6000;0.1506;0.2742;
1254.9000;0.1514;0.2885;
1255.2000;0.1522;0.2933;
1255.5000;0.1506;0.2957;
1255.8000;0.1522;0.3052;
1256.1000;0.1400;0.2671;
1256.4000;0.1506;0.2909;
1256.7000;0.1506;0.2933;
1257.0000;0.1490;0.2933;
1257.3000;0.1481;0.2909;
1257.6000;0.1522;0.2981;
1257.9000;0.1498;0.2981;
1258.2000;0.1506;0.3028;
1258.5000;0.1498;0.2957;
1258.8000;0.1490;0.2790;
1259.1000;0.1530;0.2838;
1259.4000;0.1506;0.2742;
1259.7000;0.1481;0.2718;
1260.0000;0.1530;0.2861;
1260.3000;0.1506;0.2790;
1260.6000;0.1514;0.2814;
1260.9000;0.1514;0.2790;
1261.2000;0.1498;0.2838;
1261.5000;0.1522;0.2909;
1261.8000;0.1522;0.2861;
1262.1000;0.1498;0.2718;
1262.4000;0.1490;0.2695;
1262.7000;0.1514;0.2766;
1263.0000;0.1530;0.2766;
1263.3000;0.1498;0.2718;
1263.6000;0.1514;0.2766;
1263.9000;0.1506;0.2790;
1264.2000;0.1498;0.2718;
1264.5000;0.1514;0.2766;
1264.8000;0.1498;0.2718;
1265.1000;0.1498;0.2814;
1265.4000;0.1595;0.3148;
1265.7000;0.1644;0.3362;
1266.0000;0.1481;0.2909;
1266.3000;0.1514;0.2933;
1266.6000;0.1538;0.3028;
1266.9000;0.1506;0.2933;
1267.2000;0.1490;0.2933;
1267.5000;0.1506;0.3005;
1267.8000;0.1506;0.3028;
1268.1000;0.1490;0.2981;
1268.4000;0.1506;0.2933;
1268.7000;0.1490;0.2861;
1269.0000;0.1506;0.2885;
1269.3000;0.1465;0.2766;
1269.6000;0.1490;0.2838;
1269.9000;0.1498;0.2766;
1270.2000;0.1579;0.2981;
1270.5000;0.1498;0.2766;
1270.8000;0.1498;0.2790;
1271.1000;0.1498;0.2718;
1271.4000;0.1368;0.2361;
1271.7000;0.1514;0.2790;
1272.0000;0.1498;0.2790;
1272.3000;0.1490;0.2742;
1272.6000;0.1498;0.2742;
1272.9000;0.1571;0.2885;
1273.2000;0.1506;0.2718;
1273.5000;0.1498;0.2623;
1273.8000;0.1498;0.2695;
1274.1000;0.1506;0.2671;
1274.4000;0.1376;0.2313;
1274.7000;0.1514;0.2695;
1275.0000;0.1465;0.2528;
1275.3000;0.1522;0.2671;
1275.6000;0.1506;0.2599;
1275.9000;0.1522;0.2671;
1276.2000;0.1506;0.2695;
1276.5000;0.1498;0.2695;
1276.8000;0.1514;0.2718;
1277.1000;0.1481;0.2814;
1277.4000;0.1612;0.3076;
1277.7000;0.1490;0.2766;
1278.0000;0.1506;0.2861;
1278.3000;0.1498;0.2933;
1278.6000;0.1530;0.3005;
1278.9000;0.1538;0.2909;
1279.2000;0.1514;0.2861;
1279.5000;0.1514;0.2766;
1279.8000;0.1514;0.2742;
1280.1000;0.1514;0.2742;
1280.4000;0.1498;0.2790;
1280.7000;0.1522;0.2790;
1281.0000;0.1522;0.2838;
1281.3000;0.1506;0.2671;
1281.6000;0.1498;0.2718;
1281.9000;0.1490;0.2766;
1282.2000;0.1514;0.2838;
1282.5000;0.1506;0.2790;
1282.8000;0.1522;0.2766;
1283.1000;0.1620;0.2909;
1283.4000;0.1514;0.2695;
1283.7000;0.1506;0.2647;
1284.0000;0.1506;0.2647;
1284.3000;0.1522;0.2742;
1284.6000;0.1506;0.2695;
1284.9000;0.1506;0.2742;
1285.2000;0.1490;0.2695;
1285.5000;0.1498;0.2695;
1285.8000;0.1514;0.2671;
1286.1000;0.1498;0.2599;
1286.4000;0.1514;0.2623;
1286.7000;0.1498;0.2671;
1287.0000;0.1612;0.2909;
1287.3000;0.1498;0.2575;
1287.6000;0.1498;0.2551;
1287.9000;0.1538;0.2695;
1288.2000;0.1449;0.2456;
1288.5000;0.1506;0.2671;
1288.8000;0.1530;0.2742;
1289.1000;0.1563;0.2885;
1289.4000;0.1498;0.2695;
1289.7000;0.1506;0.2647;
1290.0000;0.1522;0.2790;
1290.3000;0.1522;0.2814;
1290.6000;0.1530;0.2861;
1290.9000;0.1465;0.2647;
1291.2000;0.1538;0.2838;
1291.5000;0.1547;0.2838;
1291.8000;0.1514;0.2718;
1292.1000;0.1506;0.2718;
1292.4000;0.1587;0.2933;
1292.7000;0.1506;0.2718;
1293.0000;0.1506;0.2790;
1293.3000;0.1498;0.2861;
1293.6000;0.1514;0.2790;
1293.9000;0.1506;0.2790;
1294.2000;0.1579;0.2957;
1294.5000;0.1522;0.2885;
1294.8000;0.1514;0.2861;
1295.1000;0.1506;0.2861;
1295.4000;0.1522;0.2909;
1295.7000;0.1498;0.2861;
1296.0000;0.1530;0.2933;
1296.3000;0.1498;0.2933;
1296.6000;0.1449;0.2766;
1296.9000;0.1514;0.2861;
1297.2000;0.1506;0.2838;
1297.5000;0.1514;0.2838;
1297.8000;0.1498;0.2742;
1298.1000;0.1514;0.2814;
1298.4000;0.1457;0.2671;
1298.7000;0.1514;0.2885;
1299.0000;0.1490;0.2861;
1299.3000;0.1514;0.2861;
1299.6000;0.1571;0.3076;
1299.9000;0.1506;0.2981;
1300.2000;0.1522;0.2981;
1300.5000;0.1506;0.2885;
1300.8000;0.1514;0.2957;
1301.1000;0.1522;0.2909;
1301.4000;0.1506;0.2814;
1301.7000;0.1514;0.2861;
1302.0000;0.1473;0.2766;
1302.3000;0.1522;0.2909;
1302.6000;0.1530;0.3005;
1302.9000;0.1522;0.2957;
1303.2000;0.1481;0.2861;
1303.5000;0.1506;0.2838;
1303.8000;0.1514;0.2861;
1304.1000;0.1506;0.2814;
1304.4000;0.1490;0.2742;
1304.7000;0.1522;0.2790;
1305.0000;0.1498;0.2766;
1305.3000;0.1530;0.2957;
1305.6000;0.1522;0.2838;
1305.9000;0.1506;0.2814;
1306.2000;0.1465;0.2742;
1306.5000;0.1530;0.2933;
1306.8000;0.1595;0.3124;
1307.1000;0.1498;0.2838;
1307.4000;0.1522;0.2861;
1307.7000;0.1506;0.2790;
1308.0000;0.1465;0.2742;
1308.3000;0.1522;0.2861;
1308.6000;0.1498;0.2861;
1308.9000;0.1498;0.2909;
1309.2000;0.1587;0.3124;
1309.5000;0.1514;0.2909;
1309.8000;0.1522;0.2909;
1310.1000;0.1490;0.2885;
1310.4000;0.1522;0.2861;
1310.7000;0.1490;0.2718;
1311.0000;0.1506;0.2790;
1311.3000;0.1490;0.2766;
1311.6000;0.1530;0.2909;
1311.9000;0.1433;0.2695;
1312.2000;0.1506;0.2885;
1312.5000;0.1522;0.2909;
1312.8000;0.1498;0.2838;
1313.1000;0.1506;0.2814;
1313.4000;0.1555;0.3028;
1313.7000;0.1555;0.3028;
1314.0000;0.1498;0.2861;
1314.3000;0.1506;0.2838;
1314.6000;0.1530;0.2814;
1314.9000;0.1490;0.2718;
1315.2000;0.1547;0.2861;
1315.5000;0.1506;0.2790;
1315.8000;0.1522;0.2861;
1316.1000;0.1498;0.2814;
1316.4000;0.1522;0.2957;
1316.7000;0.1506;0.2861;
1317.0000;0.1506;0.2909;
1317.3000;0.1514;0.2861;
1317.6000;0.1481;0.2790;
1317.9000;0.1506;0.2885;
1318.2000;0.1506;0.2885;
1318.5000;0.1514;0.2957;
1318.8000;0.1490;0.2885;
1319.1000;0.1514;0.2909;
1319.4000;0.1498;0.2981;
1319.7000;0.1506;0.3052;
1320.0000;0.1514;0.3124;
1320.3000;0.1498;0.3052;
1320.6000;0.1490;0.3052;
1320.9000;0.1514;0.3100;
1321.2000;0.1498;0.2957;
1321.5000;0.1490;0.3005;
1321.8000;0.1538;0.3028;
1322.1000;0.1490;0.2861;
1322.4000;0.1506;0.2885;
1322.7000;0.1522;0.2957;
1323.0000;0.1490;0.2838;
1323.3000;0.1498;0.2885;
1323.6000;0.1538;0.2933;
1323.9000;0.1481;0.2838;
1324.2000;0.1522;0.2957;
1324.5000;0.1498;0.2909;
1324.8000;0.1522;0.2981;
1325.1000;0.1490;0.2933;
1325.4000;0.1514;0.2957;
1325.7000;0.1473;0.2861;
1326.0000;0.1563;0.3005;
1326.3000;0.1530;0.2909;
1326.6000;0.1514;0.2885;
1326.9000;0.1522;0.2957;
1327.2000;0.1547;0.3052;
1327.5000;0.1547;0.3028;
1327.8000;0.1506;0.2909;
1328.1000;0.1498;0.2885;
1328.4000;0.1490;0.2814;
1328.7000;0.1522;0.2909;
1329.0000;0.1530;0.2933;
1329.3000;0.1506;0.2814;
1329.6000;0.1522;0.2814;
1329.9000;0.1490;0.2766;
1330.2000;0.1587;0.3005;
1330.5000;0.1514;0.2909;
1330.8000;0.1481;0.2814;
1331.1000;0.1514;0.2909;
1331.4000;0.1506;0.2861;
1331.7000;0.1506;0.2909;
1332.0000;0.1506;0.3052;
1332.3000;0.1498;0.2981;
1332.6000;0.1506;0.3052;
1332.9000;0.1522;0.3005;
1333.2000;0.1498;0.2885;
1333.5000;0.1490;0.2838;
1333.8000;0.1522;0.2885;
1334.1000;0.1498;0.2861;
1334.4000;0.1506;0.2909;
1334.7000;0.1490;0.2838;
1335.0000;0.1408;0.2647;
1335.3000;0.1481;0.2885;
1335.6000;0.1498;0.2838;
1335.9000;0.1449;0.2742;
1336.2000;0.1473;0.2861;
1336.5000;0.1490;0.2933;
1336.8000;0.1514;0.2981;
1337.1000;0.1498;0.2885;
1337.4000;0.1490;0.2957;
1337.7000;0.1522;0.3052;
1338.0000;0.1538;0.3100;
1338.3000;0.1587;0.3219;
1338.6000;0.1498;0.3028;
1338.9000;0.1514;0.3052;
1339.2000;0.1465;0.2861;
1339.5000;0.1522;0.2957;
1339.8000;0.1498;0.2861;
1340.1000;0.1530;0.2933;
1340.4000;0.1498;0.2885;
1340.7000;0.1498;0.2838;
1341.0000;0.1514;0.2909;
1341.3000;0.1522;0.2909;
1341.6000;0.1530;0.3028;
1341.9000;0.1514;0.2957;
1342.2000;0.1522;0.2885;
1342.5000;0.1514;0.2885;
1342.8000;0.1530;0.2861;
1343.1000;0.1522;0.2909;
1343.4000;0.1506;0.2885;
1343.7000;0.1514;0.3005;
1344.0000;0.1514;0.3052;
1344.3000;0.1522;0.3100;
1344.6000;0.1506;0.3005;
1344.9000;0.1604;0.3148;
1345.2000;0.1522;0.2909;
1345.5000;0.1506;0.2838;
1345.8000;0.1506;0.2861;
1346.1000;0.1498;0.2885;
1346.4000;0.1498;0.2885;
1346.7000;0.1506;0.2861;
1347.0000;0.1538;0.2885;
1347.3000;0.1498;0.2742;
1347.6000;0.1481;0.2766;
1347.9000;0.1506;0.2766;
1348.2000;0.1514;0.2766;
1348.5000;0.1522;0.2814;
1348.8000;0.1514;0.2861;
1349.1000;0.1490;0.2814;
1349.4000;0.1547;0.2957;
1349.7000;0.1514;0.2885;
1350.0000;0.1547;0.2957;
1350.3000;0.1522;0.2814;
1350.6000;0.1506;0.2861;
1350.9000;0.1506;0.2909;
1351.2000;0.1522;0.2838;
1351.5000;0.1490;0.2814;
1351.8000;0.1514;0.2885;
1352.1000;0.1514;0.2909;
1352.4000;0.1563;0.3028;
1352.7000;0.1425;0.2742;
1353.0000;0.1506;0.2957;
1353.3000;0.1522;0.2861;
1353.6000;0.1506;0.2838;
1353.9000;0.1506;0.2814;
1354.2000;0.1514;0.2885;
1354.5000;0.1530;0.2981;
1354.8000;0.1490;0.2981;
1355.1000;0.1433;0.2742;
1355.4000;0.1514;0.2885;
1355.7000;0.1473;0.2718;
1356.0000;0.1522;0.2957;
1356.3000;0.1514;0.3052;
1356.6000;0.1506;0.3052;
1356.9000;0.1514;0.2981;
1357.2000;0.1514;0.2885;
1357.5000;0.1522;0.2814;
1357.8000;0.1481;0.2742;
1358.1000;0.1506;0.2838;
1358.4000;0.1449;0.2718;
1358.7000;0.1506;0.2957;
1359.0000;0.1441;0.2814;
1359.3000;0.1506;0.2981;
1359.6000;0.1514;0.3028;
1359.9000;0.1490;0.2933;
1360.2000;0.1514;0.2933;
1360.5000;0.1498;0.2861;
1360.8000;0.1506;0.2885;
1361.1000;0.1481;0.2838;
1361.4000;0.1449;0.2718;
1361.7000;0.1506;0.2790;
1362.0000;0.1490;0.2838;
1362.3000;0.1506;0.2861;
1362.6000;0.1506;0.2909;
1362.9000;0.1514;0.2838;
1363.2000;0.1473;0.2814;
1363.5000;0.1514;0.2981;
1363.8000;0.1506;0.3052;
1364.1000;0.1498;0.2981;
1364.4000;0.1490;0.3028;
1364.7000;0.1530;0.3100;
1365.0000;0.1506;0.2957;
1365.3000;0.1384;0.2671;
1365.6000;0.1555;0.3076;
1365.9000;0.1490;0.2933;
1366.2000;0.1506;0.3005;
1366.5000;0.1514;0.3005;
1366.8000;0.1498;0.2909;
1367.1000;0.1506;0.2933;
1367.4000;0.1538;0.3028;
1367.7000;0.1514;0.2957;
1368.0000;0.1506;0.2933;
1368.3000;0.1514;0.2885;
1368.6000;0.1506;0.2909;
1368.9000;0.1530;0.2957;
1369.2000;0.1506;0.2933;
1369.5000;0.1514;0.3028;
1369.8000;0.1514;0.3076;
1370.1000;0.1514;0.2981;
1370.4000;0.1506;0.2885;
1370.7000;0.1522;0.2861;
1371.0000;0.1457;0.2742;
1371.3000;0.1522;0.2885;
1371.6000;0.1506;0.2861;
1371.9000;0.1498;0.2790;
1372.2000;0.1522;0.2909;
1372.5000;0.1498;0.2909;
1372.8000;0.1506;0.2909;
1373.1000;0.1498;0.2909;
1373.4000;0.1490;0.2885;
1373.7000;0.1425;0.2695;
1374.0000;0.1514;0.2933;
1374.3000;0.1465;0.2814;
1374.6000;0.1506;0.2885;
1374.9000;0.1498;0.2814;
1375.2000;0.1490;0.2838;
1375.5000;0.1506;0.2861;
1375.8000;0.1522;0.2861;
1376.1000;0.1538;0.3028;
1376.4000;0.1506;0.2766;
1376.7000;0.1514;0.2766;
1377.0000;0.1530;0.2742;
1377.3000;0.1449;0.2575;
1377.6000;0.1538;0.2814;
1377.9000;0.1514;0.2861;
1378.2000;0.1490;0.2933;
1378.5000;0.1506;0.2981;
1378.8000;0.1514;0.3052;
1379.1000;0.1522;0.3076;
1379.4000;0.1498;0.3052;
1379.7000;0.1538;0.3243;
1380.0000;0.1490;0.3052;
1380.3000;0.1465;0.3005;
1380.6000;0.1433;0.2981;
1380.9000;0.1506;0.3219;
1381.2000;0.1514;0.3148;
1381.5000;0.1441;0.2933;
1381.8000;0.1514;0.3171;
1382.1000;0.1522;0.3100;
1382.4000;0.1522;0.3124;
1382.7000;0.1506;0.3052;
1383.0000;0.1514;0.2909;
1383.3000;0.1441;0.2766;
1383.6000;0.1498;0.2838;
1383.9000;0.1506;0.2766;
1384.2000;0.1498;0.2742;
1384.5000;0.1514;0.2790;
1384.8000;0.1514;0.2838;
1385.1000;0.1490;0.2790;
1385.4000;0.1522;0.2885;
1385.7000;0.1530;0.2885;
1386.0000;0.1481;0.2790;
1386.3000;0.1514;0.2909;
1386.6000;0.1506;0.2838;
1386.9000;0.1506;0.2838;
1387.2000;0.1522;0.2838;
1387.5000;0.1481;0.2814;
1387.8000;0.1490;0.2909;
1388.1000;0.1498;0.2957;
1388.4000;0.1441;0.2814;
1388.7000;0.1514;0.3028;
1389.0000;0.1571;0.3171;
1389.3000;0.1514;0.3005;
1389.6000;0.1498;0.2981;
1389.9000;0.1498;0.2981;
1390.2000;0.1514;0.2957;
1390.5000;0.1498;0.2861;
1390.8000;0.1522;0.2981;
1391.1000;0.1514;0.3028;
1391.4000;0.1514;0.2981;
1391.7000;0.1490;0.2885;
1392.0000;0.1514;0.2933;
1392.3000;0.1473;0.2861;
1392.6000;0.1522;0.3076;
1392.9000;0.1587;0.3291;
1393.2000;0.1522;0.3028;
1393.5000;0.1530;0.3028;
1393.8000;0.1506;0.3005;
1394.1000;0.1416;0.2766;
1394.4000;0.1457;0.2814;
1394.7000;0.1506;0.2933;
1395.0000;0.1490;0.2885;
1395.3000;0.1506;0.2957;
1395.6000;0.1547;0.2981;
1395.9000;0.1498;0.3028;
1396.2000;0.1498;0.2981;
1396.5000;0.1498;0.2933;
1396.8000;0.1481;0.2909;
1397.1000;0.1522;0.2933;
1397.4000;0.1514;0.2861;
1397.7000;0.1490;0.2885;
1398.0000;0.1498;0.2981;
1398.3000;0.1514;0.3076;
1398.6000;0.1522;0.3100;
1398.9000;0.1522;0.3148;
1399.2000;0.1538;0.3195;
1399.5000;0.1522;0.3195;
1399.8000;0.1506;0.3171;
