time/ms;Fluo/V;P700 deltaI/I x10³;
-199.8000;0.1473;0.3863;
-199.5000;0.1514;0.3911;
-199.2000;0.1490;0.3839;
-198.9000;0.1400;0.3672;
-198.6000;0.1465;0.3887;
-198.3000;0.1522;0.4054;
-198.0000;0.1506;0.3982;
-197.7000;0.1514;0.3911;
-197.4000;0.1514;0.3839;
-197.1000;0.1481;0.3720;
-196.8000;0.1530;0.3911;
-196.5000;0.1506;0.3887;
-196.2000;0.1433;0.3648;
-195.9000;0.1514;0.3863;
-195.6000;0.1441;0.3720;
-195.3000;0.1481;0.3815;
-195.0000;0.1490;0.3815;
-194.7000;0.1555;0.3934;
-194.4000;0.1538;0.3911;
-194.1000;0.1547;0.3958;
-193.8000;0.1514;0.4006;
-193.5000;0.1506;0.3934;
-193.2000;0.1506;0.3982;
-192.9000;0.1579;0.4125;
-192.6000;0.1514;0.3839;
-192.3000;0.1384;0.3481;
-192.0000;0.1506;0.3815;
-191.7000;0.1481;0.3863;
-191.4000;0.1514;0.3934;
-191.1000;0.1481;0.3934;
-190.8000;0.1547;0.4078;
-190.5000;0.1522;0.3982;
-190.2000;0.1579;0.4101;
-189.9000;0.1514;0.3911;
-189.6000;0.1498;0.3911;
-189.3000;0.1498;0.3958;
-189.0000;0.1522;0.4006;
-188.7000;0.1457;0.3839;
-188.4000;0.1481;0.3934;
-188.1000;0.1473;0.3887;
-187.8000;0.1481;0.3934;
-187.5000;0.1514;0.4078;
-187.2000;0.1522;0.4078;
-186.9000;0.1473;0.4078;
-186.6000;0.1522;0.4149;
-186.3000;0.1514;0.4101;
-186.0000;0.1498;0.4030;
-185.7000;0.1522;0.4078;
-185.4000;0.1498;0.3958;
-185.1000;0.1506;0.3982;
-184.8000;0.1506;0.3958;
-184.5000;0.1547;0.4030;
-184.2000;0.1498;0.3958;
-183.9000;0.1481;0.4006;
-183.6000;0.1514;0.4006;
-183.3000;0.1530;0.4006;
-183.0000;0.1506;0.3982;
-182.7000;0.1538;0.4006;
-182.4000;0.1498;0.3982;
-182.1000;0.1514;0.4006;
-181.8000;0.1522;0.3982;
-181.5000;0.1465;0.3768;
-181.2000;0.1506;0.3982;
-180.9000;0.1506;0.3958;
-180.6000;0.1530;0.4006;
-180.3000;0.1514;0.4006;
-180.0000;0.1506;0.4030;
-179.7000;0.1490;0.3887;
-179.4000;0.1481;0.3815;
-179.1000;0.1506;0.3839;
-178.8000;0.1522;0.3911;
-178.5000;0.1481;0.3696;
-178.2000;0.1514;0.3911;
-177.9000;0.1498;0.3839;
-177.6000;0.1522;0.3887;
-177.3000;0.1506;0.3839;
-177.0000;0.1498;0.3863;
-176.7000;0.1555;0.4006;
-176.4000;0.1514;0.3911;
-176.1000;0.1490;0.3863;
-175.8000;0.1522;0.3958;
-175.5000;0.1490;0.3863;
-175.2000;0.1457;0.3720;
-174.9000;0.1506;0.3887;
-174.6000;0.1514;0.3839;
-174.3000;0.1514;0.3839;
-174.0000;0.1498;0.3791;
-173.7000;0.1449;0.3648;
-173.4000;0.1473;0.3815;
-173.1000;0.1481;0.3839;
-172.8000;0.1465;0.3839;
-172.5000;0.1465;0.3791;
-172.2000;0.1530;0.3982;
-171.9000;0.1498;0.3982;
-171.6000;0.1498;0.3958;
-171.3000;0.1481;0.3911;
-171.0000;0.1498;0.3911;
-170.7000;0.1481;0.3744;
-170.4000;0.1416;0.3577;
-170.1000;0.1498;0.3815;
-169.8000;0.1490;0.3863;
-169.5000;0.1514;0.3887;
-169.2000;0.1514;0.3887;
-168.9000;0.1498;0.3815;
-168.6000;0.1506;0.3815;
-168.3000;0.1514;0.3887;
-168.0000;0.1522;0.3887;
-167.7000;0.1506;0.3839;
-167.4000;0.1506;0.3911;
-167.1000;0.1473;0.3863;
-166.8000;0.1571;0.4149;
-166.5000;0.1490;0.3887;
-166.2000;0.1514;0.4078;
-165.9000;0.1481;0.4054;
-165.6000;0.1498;0.4054;
-165.3000;0.1490;0.4030;
-165.0000;0.1473;0.3982;
-164.7000;0.1473;0.4054;
-164.4000;0.1522;0.4078;
-164.1000;0.1522;0.4101;
-163.8000;0.1408;0.3863;
-163.5000;0.1506;0.4149;
-163.2000;0.1522;0.4149;
-162.9000;0.1522;0.4149;
-162.6000;0.1481;0.4078;
-162.3000;0.1506;0.4078;
-162.0000;0.1514;0.4078;
-161.7000;0.1514;0.4078;
-161.4000;0.1498;0.4030;
-161.1000;0.1498;0.4030;
-160.8000;0.1506;0.3982;
-160.5000;0.1506;0.4006;
-160.2000;0.1522;0.4101;
-159.9000;0.1506;0.4006;
-159.6000;0.1514;0.4006;
-159.3000;0.1530;0.4078;
-159.0000;0.1514;0.4173;
-158.7000;0.1481;0.4125;
-158.4000;0.1400;0.3839;
-158.1000;0.1498;0.4125;
-157.8000;0.1473;0.4030;
-157.5000;0.1457;0.4006;
-157.2000;0.1530;0.4221;
-156.9000;0.1498;0.4149;
-156.6000;0.1530;0.4173;
-156.3000;0.1473;0.3982;
-156.0000;0.1506;0.4030;
-155.7000;0.1498;0.4006;
-155.4000;0.1514;0.4054;
-155.1000;0.1490;0.3982;
-154.8000;0.1490;0.4078;
-154.5000;0.1498;0.4078;
-154.2000;0.1506;0.4101;
-153.9000;0.1481;0.4101;
-153.6000;0.1498;0.4101;
-153.3000;0.1498;0.4173;
-153.0000;0.1473;0.4173;
-152.7000;0.1506;0.4268;
-152.4000;0.1506;0.4244;
-152.1000;0.1514;0.4149;
-151.8000;0.1522;0.4125;
-151.5000;0.1506;0.4101;
-151.2000;0.1530;0.4173;
-150.9000;0.1481;0.4030;
-150.6000;0.1473;0.3982;
-150.3000;0.1522;0.4054;
-150.0000;0.1433;0.3815;
-149.7000;0.1547;0.4078;
-149.4000;0.1498;0.3911;
-149.1000;0.1498;0.4030;
-148.8000;0.1473;0.3839;
-148.5000;0.1522;0.3887;
-148.2000;0.1514;0.3934;
-147.9000;0.1408;0.3672;
-147.6000;0.1514;0.4054;
-147.3000;0.1506;0.4101;
-147.0000;0.1555;0.4197;
-146.7000;0.1571;0.4316;
-146.4000;0.1555;0.4268;
-146.1000;0.1490;0.4030;
-145.8000;0.1506;0.4054;
-145.5000;0.1506;0.4101;
-145.2000;0.1506;0.4125;
-144.9000;0.1498;0.4101;
-144.6000;0.1538;0.4149;
-144.3000;0.1465;0.3982;
-144.0000;0.1473;0.4006;
-143.7000;0.1506;0.4054;
-143.4000;0.1481;0.4078;
-143.1000;0.1498;0.4078;
-142.8000;0.1514;0.4078;
-142.5000;0.1506;0.4006;
-142.2000;0.1416;0.3839;
-141.9000;0.1506;0.4078;
-141.6000;0.1506;0.4197;
-141.3000;0.1473;0.4101;
-141.0000;0.1392;0.3887;
-140.7000;0.1490;0.4125;
-140.4000;0.1490;0.4030;
-140.1000;0.1392;0.3815;
-139.8000;0.1514;0.4030;
-139.5000;0.1522;0.3958;
-139.2000;0.1514;0.3958;
-138.9000;0.1522;0.3982;
-138.6000;0.1481;0.3911;
-138.3000;0.1514;0.4149;
-138.0000;0.1506;0.4101;
-137.7000;0.1498;0.4101;
-137.4000;0.1514;0.4149;
-137.1000;0.1514;0.4149;
-136.8000;0.1514;0.4197;
-136.5000;0.1538;0.4292;
-136.2000;0.1408;0.3887;
-135.9000;0.1506;0.4125;
-135.6000;0.1457;0.3982;
-135.3000;0.1490;0.4030;
-135.0000;0.1481;0.3911;
-134.7000;0.1514;0.3958;
-134.4000;0.1547;0.4006;
-134.1000;0.1473;0.3815;
-133.8000;0.1522;0.3982;
-133.5000;0.1538;0.4030;
-133.2000;0.1498;0.3863;
-132.9000;0.1490;0.3887;
-132.6000;0.1563;0.4054;
-132.3000;0.1530;0.3911;
-132.0000;0.1481;0.3815;
-131.7000;0.1498;0.3934;
-131.4000;0.1506;0.3911;
-131.1000;0.1498;0.4006;
-130.8000;0.1465;0.3934;
-130.5000;0.1514;0.4054;
-130.2000;0.1506;0.4006;
-129.9000;0.1449;0.3768;
-129.6000;0.1522;0.3958;
-129.3000;0.1522;0.3958;
-129.0000;0.1498;0.3887;
-128.7000;0.1490;0.3887;
-128.4000;0.1498;0.3958;
-128.1000;0.1514;0.4030;
-127.8000;0.1522;0.4101;
-127.5000;0.1522;0.4101;
-127.2000;0.1522;0.4125;
-126.9000;0.1530;0.4149;
-126.6000;0.1449;0.4030;
-126.3000;0.1490;0.4054;
-126.0000;0.1498;0.4030;
-125.7000;0.1514;0.4149;
-125.4000;0.1514;0.4149;
-125.1000;0.1481;0.4078;
-124.8000;0.1473;0.4078;
-124.5000;0.1612;0.4388;
-124.2000;0.1498;0.4101;
-123.9000;0.1506;0.4268;
-123.6000;0.1506;0.4221;
-123.3000;0.1522;0.4364;
-123.0000;0.1506;0.4292;
-122.7000;0.1481;0.4101;
-122.4000;0.1465;0.4149;
-122.1000;0.1547;0.4316;
-121.8000;0.1514;0.4197;
-121.5000;0.1514;0.4197;
-121.2000;0.1514;0.4101;
-120.9000;0.1506;0.4078;
-120.6000;0.1530;0.4125;
-120.3000;0.1473;0.3887;
-120.0000;0.1514;0.3911;
-119.7000;0.1522;0.3958;
-119.4000;0.1490;0.3958;
-119.1000;0.1514;0.4149;
-118.8000;0.1498;0.4149;
-118.5000;0.1481;0.4006;
-118.2000;0.1522;0.4030;
-117.9000;0.1514;0.3958;
-117.6000;0.1514;0.3887;
-117.3000;0.1514;0.3887;
-117.0000;0.1490;0.3934;
-116.7000;0.1514;0.3982;
-116.4000;0.1481;0.3815;
-116.1000;0.1490;0.3911;
-115.8000;0.1490;0.3839;
-115.5000;0.1506;0.3887;
-115.2000;0.1506;0.3911;
-114.9000;0.1490;0.3911;
-114.6000;0.1522;0.3887;
-114.3000;0.1490;0.3791;
-114.0000;0.1473;0.3720;
-113.7000;0.1490;0.3791;
-113.4000;0.1465;0.3839;
-113.1000;0.1530;0.4030;
-112.8000;0.1514;0.3934;
-112.5000;0.1514;0.3934;
-112.2000;0.1514;0.3911;
-111.9000;0.1498;0.3839;
-111.6000;0.1490;0.3791;
-111.3000;0.1506;0.3863;
-111.0000;0.1498;0.3887;
-110.7000;0.1506;0.4006;
-110.4000;0.1433;0.3815;
-110.1000;0.1506;0.3911;
-109.8000;0.1530;0.3982;
-109.5000;0.1498;0.3958;
-109.2000;0.1555;0.4101;
-108.9000;0.1530;0.3982;
-108.6000;0.1490;0.3934;
-108.3000;0.1514;0.4006;
-108.0000;0.1400;0.3744;
-107.7000;0.1506;0.3934;
-107.4000;0.1538;0.3911;
-107.1000;0.1522;0.3911;
-106.8000;0.1498;0.3911;
-106.5000;0.1498;0.3911;
-106.2000;0.1514;0.3982;
-105.9000;0.1457;0.3934;
-105.6000;0.1514;0.4030;
-105.3000;0.1514;0.4125;
-105.0000;0.1514;0.4101;
-104.7000;0.1481;0.4006;
-104.4000;0.1498;0.4006;
-104.1000;0.1490;0.3958;
-103.8000;0.1506;0.3958;
-103.5000;0.1514;0.3958;
-103.2000;0.1547;0.4078;
-102.9000;0.1538;0.4125;
-102.6000;0.1498;0.4078;
-102.3000;0.1498;0.4101;
-102.0000;0.1522;0.4173;
-101.7000;0.1498;0.4221;
-101.4000;0.1587;0.4388;
-101.1000;0.1522;0.4244;
-100.8000;0.1498;0.4101;
-100.5000;0.1506;0.4006;
-100.2000;0.1506;0.3934;
-99.9000;0.1506;0.3911;
-99.6000;0.1498;0.3863;
-99.3000;0.1481;0.3672;
-99.0000;0.1490;0.3672;
-98.7000;0.1538;0.3934;
-98.4000;0.1547;0.3863;
-98.1000;0.1481;0.3744;
-97.8000;0.1481;0.3768;
-97.5000;0.1555;0.3839;
-97.2000;0.1555;0.3863;
-96.9000;0.1571;0.3958;
-96.6000;0.1506;0.3815;
-96.3000;0.1441;0.3696;
-96.0000;0.1506;0.3934;
-95.7000;0.1514;0.3982;
-95.4000;0.1506;0.3958;
-95.1000;0.1457;0.3887;
-94.8000;0.1506;0.3958;
-94.5000;0.1498;0.4006;
-94.2000;0.1506;0.4101;
-93.9000;0.1571;0.4244;
-93.6000;0.1498;0.3982;
-93.3000;0.1514;0.3982;
-93.0000;0.1506;0.4006;
-92.7000;0.1530;0.4101;
-92.4000;0.1490;0.4054;
-92.1000;0.1522;0.4101;
-91.8000;0.1490;0.3958;
-91.5000;0.1506;0.4030;
-91.2000;0.1498;0.4054;
-90.9000;0.1490;0.4054;
-90.6000;0.1522;0.4101;
-90.3000;0.1498;0.4054;
-90.0000;0.1481;0.4054;
-89.7000;0.1514;0.4173;
-89.4000;0.1490;0.4197;
-89.1000;0.1514;0.4149;
-88.8000;0.1563;0.4244;
-88.5000;0.1498;0.4101;
-88.2000;0.1538;0.4244;
-87.9000;0.1595;0.4388;
-87.6000;0.1506;0.4221;
-87.3000;0.1530;0.4173;
-87.0000;0.1522;0.4221;
-86.7000;0.1522;0.4221;
-86.4000;0.1481;0.4149;
-86.1000;0.1514;0.4244;
-85.8000;0.1522;0.4197;
-85.5000;0.1392;0.3863;
-85.2000;0.1522;0.4173;
-84.9000;0.1522;0.4173;
-84.6000;0.1490;0.4149;
-84.3000;0.1506;0.4173;
-84.0000;0.1506;0.4197;
-83.7000;0.1506;0.4244;
-83.4000;0.1514;0.4268;
-83.1000;0.1481;0.4173;
-82.8000;0.1498;0.4244;
-82.5000;0.1620;0.4578;
-82.2000;0.1514;0.4197;
-81.9000;0.1530;0.4244;
-81.6000;0.1514;0.4221;
-81.3000;0.1530;0.4292;
-81.0000;0.1522;0.4197;
-80.7000;0.1368;0.3744;
-80.4000;0.1522;0.4078;
-80.1000;0.1506;0.4054;
-79.8000;0.1490;0.3958;
-79.5000;0.1498;0.4078;
-79.2000;0.1620;0.4388;
-78.9000;0.1514;0.4125;
-78.6000;0.1473;0.3934;
-78.3000;0.1538;0.4054;
-78.0000;0.1506;0.3934;
-77.7000;0.1441;0.3744;
-77.4000;0.1498;0.3958;
-77.1000;0.1490;0.3934;
-76.8000;0.1587;0.4197;
-76.5000;0.1514;0.3958;
-76.2000;0.1547;0.4054;
-75.9000;0.1506;0.4006;
-75.6000;0.1522;0.4101;
-75.3000;0.1490;0.4030;
-75.0000;0.1506;0.4030;
-74.7000;0.1506;0.3982;
-74.4000;0.1498;0.4006;
-74.1000;0.1530;0.4125;
-73.8000;0.1522;0.4078;
-73.5000;0.1481;0.4054;
-73.2000;0.1522;0.4221;
-72.9000;0.1506;0.4197;
-72.6000;0.1490;0.4173;
-72.3000;0.1563;0.4244;
-72.0000;0.1490;0.4101;
-71.7000;0.1498;0.4125;
-71.4000;0.1481;0.4197;
-71.1000;0.1481;0.4173;
-70.8000;0.1522;0.4268;
-70.5000;0.1490;0.4149;
-70.2000;0.1490;0.4149;
-69.9000;0.1498;0.4101;
-69.6000;0.1506;0.4221;
-69.3000;0.1506;0.4244;
-69.0000;0.1522;0.4268;
-68.7000;0.1498;0.4244;
-68.4000;0.1465;0.4125;
-68.1000;0.1506;0.4292;
-67.8000;0.1506;0.4292;
-67.5000;0.1522;0.4316;
-67.2000;0.1408;0.3887;
-66.9000;0.1490;0.4101;
-66.6000;0.1490;0.4125;
-66.3000;0.1522;0.4173;
-66.0000;0.1490;0.4173;
-65.7000;0.1514;0.4292;
-65.4000;0.1587;0.4507;
-65.1000;0.1498;0.4197;
-64.8000;0.1522;0.4268;
-64.5000;0.1514;0.4292;
-64.2000;0.1481;0.4221;
-63.9000;0.1465;0.4125;
-63.6000;0.1514;0.4221;
-63.3000;0.1498;0.4197;
-63.0000;0.1425;0.4054;
-62.7000;0.1498;0.4197;
-62.4000;0.1514;0.4244;
-62.1000;0.1498;0.4197;
-61.8000;0.1506;0.4149;
-61.5000;0.1514;0.4125;
-61.2000;0.1522;0.4197;
-60.9000;0.1498;0.4221;
-60.6000;0.1498;0.4221;
-60.3000;0.1498;0.4173;
-60.0000;0.1530;0.4268;
-59.7000;0.1490;0.4197;
-59.4000;0.1530;0.4316;
-59.1000;0.1481;0.4173;
-58.8000;0.1449;0.4054;
-58.5000;0.1506;0.4125;
-58.2000;0.1506;0.4292;
-57.9000;0.1498;0.4244;
-57.6000;0.1425;0.4078;
-57.3000;0.1506;0.4268;
-57.0000;0.1490;0.4197;
-56.7000;0.1612;0.4411;
-56.4000;0.1506;0.4125;
-56.1000;0.1522;0.4149;
-55.8000;0.1571;0.4221;
-55.5000;0.1416;0.3911;
-55.2000;0.1547;0.4292;
-54.9000;0.1506;0.4268;
-54.6000;0.1506;0.4292;
-54.3000;0.1506;0.4268;
-54.0000;0.1514;0.4316;
-53.7000;0.1490;0.4268;
-53.4000;0.1481;0.4101;
-53.1000;0.1498;0.4197;
-52.8000;0.1522;0.4221;
-52.5000;0.1392;0.3815;
-52.2000;0.1498;0.4030;
-51.9000;0.1506;0.4006;
-51.6000;0.1498;0.4030;
-51.3000;0.1433;0.3911;
-51.0000;0.1547;0.4244;
-50.7000;0.1473;0.4054;
-50.4000;0.1636;0.4388;
-50.1000;0.1498;0.4054;
-49.8000;0.1490;0.4006;
-49.5000;0.1498;0.4030;
-49.2000;0.1490;0.4173;
-48.9000;0.1506;0.4197;
-48.6000;0.1498;0.4101;
-48.3000;0.1604;0.4459;
-48.0000;0.1490;0.4173;
-47.7000;0.1595;0.4388;
-47.4000;0.1514;0.4101;
-47.1000;0.1481;0.4054;
-46.8000;0.1481;0.4149;
-46.5000;0.1522;0.4221;
-46.2000;0.1612;0.4435;
-45.9000;0.1473;0.3958;
-45.6000;0.1490;0.4054;
-45.3000;0.1522;0.4030;
-45.0000;0.1449;0.3958;
-44.7000;0.1522;0.4078;
-44.4000;0.1514;0.4078;
-44.1000;0.1506;0.3982;
-43.8000;0.1514;0.3982;
-43.5000;0.1490;0.3982;
-43.2000;0.1481;0.3887;
-42.9000;0.1490;0.3982;
-42.6000;0.1506;0.4006;
-42.3000;0.1498;0.4054;
-42.0000;0.1498;0.4149;
-41.7000;0.1522;0.4173;
-41.4000;0.1506;0.4125;
-41.1000;0.1473;0.4125;
-40.8000;0.1498;0.4197;
-40.5000;0.1433;0.3982;
-40.2000;0.1433;0.3982;
-39.9000;0.1506;0.4173;
-39.6000;0.1490;0.4006;
-39.3000;0.1579;0.4268;
-39.0000;0.1514;0.4197;
-38.7000;0.1506;0.4125;
-38.4000;0.1465;0.4030;
-38.1000;0.1481;0.4149;
-37.8000;0.1498;0.4149;
-37.5000;0.1530;0.4244;
-37.2000;0.1490;0.4149;
-36.9000;0.1490;0.4149;
-36.6000;0.1514;0.4316;
-36.3000;0.1514;0.4292;
-36.0000;0.1473;0.4221;
-35.7000;0.1506;0.4292;
-35.4000;0.1506;0.4268;
-35.1000;0.1498;0.4244;
-34.8000;0.1506;0.4221;
-34.5000;0.1506;0.4125;
-34.2000;0.1457;0.4030;
-33.9000;0.1498;0.4101;
-33.6000;0.1514;0.4221;
-33.3000;0.1481;0.4125;
-33.0000;0.1571;0.4244;
-32.7000;0.1506;0.4078;
-32.4000;0.1481;0.4030;
-32.1000;0.1449;0.4054;
-31.8000;0.1490;0.4197;
-31.5000;0.1498;0.4197;
-31.2000;0.1473;0.4078;
-30.9000;0.1498;0.4125;
-30.6000;0.1514;0.4125;
-30.3000;0.1498;0.4030;
-30.0000;0.1416;0.3720;
-29.7000;0.1490;0.3982;
-29.4000;0.1449;0.3839;
-29.1000;0.1579;0.4292;
-28.8000;0.1498;0.4173;
-28.5000;0.1514;0.4244;
-28.2000;0.1498;0.4221;
-27.9000;0.1457;0.4149;
-27.6000;0.1530;0.4340;
-27.3000;0.1506;0.4244;
-27.0000;0.1571;0.4435;
-26.7000;0.1481;0.4173;
-26.4000;0.1473;0.4078;
-26.1000;0.1514;0.4101;
-25.8000;0.1490;0.4101;
-25.5000;0.1514;0.4078;
-25.2000;0.1514;0.4101;
-24.9000;0.1522;0.4149;
-24.6000;0.1490;0.4101;
-24.3000;0.1514;0.4221;
-24.0000;0.1481;0.4054;
-23.7000;0.1620;0.4388;
-23.4000;0.1506;0.4173;
-23.1000;0.1490;0.4125;
-22.8000;0.1465;0.4078;
-22.5000;0.1530;0.4197;
-22.2000;0.1522;0.4149;
-21.9000;0.1563;0.4268;
-21.6000;0.1490;0.4030;
-21.3000;0.1506;0.4101;
-21.0000;0.1490;0.3982;
-20.7000;0.1506;0.4030;
-20.4000;0.1506;0.4054;
-20.1000;0.1555;0.4030;
-19.8000;0.1416;0.3744;
-19.5000;0.1498;0.3934;
-19.2000;0.1498;0.3958;
-18.9000;0.1563;0.4054;
-18.6000;0.1498;0.3839;
-18.3000;0.1547;0.3839;
-18.0000;0.1498;0.3791;
-17.7000;0.1490;0.3815;
-17.4000;0.1506;0.3982;
-17.1000;0.1530;0.4006;
-16.8000;0.1457;0.3839;
-16.5000;0.1563;0.4125;
-16.2000;0.1498;0.3982;
-15.9000;0.1498;0.3958;
-15.6000;0.1498;0.3887;
-15.3000;0.1490;0.3958;
-15.0000;0.1498;0.3982;
-14.7000;0.1514;0.3934;
-14.4000;0.1506;0.3863;
-14.1000;0.1498;0.3887;
-13.8000;0.1498;0.3887;
-13.5000;0.1514;0.3982;
-13.2000;0.1506;0.4101;
-12.9000;0.1481;0.4006;
-12.6000;0.1498;0.4078;
-12.3000;0.1498;0.4101;
-12.0000;0.1506;0.4101;
-11.7000;0.1506;0.4101;
-11.4000;0.1547;0.4125;
-11.1000;0.1481;0.3982;
-10.8000;0.1555;0.4197;
-10.5000;0.1490;0.4030;
-10.2000;0.1490;0.4006;
-9.9000;0.1555;0.4221;
-9.6000;0.1481;0.3982;
-9.3000;0.1530;0.4030;
-9.0000;0.1547;0.4101;
-8.7000;0.1498;0.4054;
-8.4000;0.1506;0.4125;
-8.1000;0.1604;0.4435;
-7.8000;0.1522;0.4244;
-7.5000;0.1506;0.4149;
-7.2000;0.1498;0.4125;
-6.9000;0.1530;0.4149;
-6.6000;0.1506;0.4078;
-6.3000;0.1522;0.4125;
-6.0000;0.1579;0.4292;
-5.7000;0.1514;0.4125;
-5.4000;0.1400;0.3934;
-5.1000;0.1514;0.4244;
-4.8000;0.1473;0.4101;
-4.5000;0.1490;0.4125;
-4.2000;0.1457;0.4006;
-3.9000;0.1506;0.4101;
-3.6000;0.1490;0.4078;
-3.3000;0.1498;0.4197;
-3.0000;0.1514;0.4173;
-2.7000;0.1465;0.3958;
-2.4000;0.1514;0.3982;
-2.1000;0.1538;0.3982;
-1.8000;0.1506;0.3934;
-1.5000;0.1506;0.3934;
-1.2000;0.1490;0.3815;
-0.9000;0.1571;0.4030;
-0.6000;0.1514;0.3934;
-0.3000;0.1514;0.3934;
0.0000;0.1514;0.3934;
0.3000;0.1498;0.3934;
0.6000;0.1522;0.4006;
0.9000;0.1530;0.4030;
1.2000;0.1514;0.4197;
1.5000;0.1547;0.4388;
1.8000;0.1563;0.4602;
2.1000;0.1547;0.4602;
2.4000;0.1587;0.4864;
2.7000;0.1579;0.4984;
3.0000;0.1457;0.4864;
3.3000;0.1571;0.5151;
3.6000;0.1628;0.5461;
3.9000;0.1612;0.5413;
4.2000;0.1595;0.5437;
4.5000;0.1587;0.5461;
4.8000;0.1563;0.5365;
5.1000;0.1555;0.5317;
5.4000;0.1604;0.5484;
5.7000;0.1612;0.5389;
6.0000;0.1587;0.5389;
6.3000;0.1571;0.5294;
6.6000;0.1669;0.5580;
6.9000;0.1563;0.5365;
7.2000;0.1587;0.5461;
7.5000;0.1587;0.5580;
7.8000;0.1604;0.5675;
8.1000;0.1604;0.5604;
8.4000;0.1579;0.5604;
8.7000;0.1628;0.5747;
9.0000;0.1612;0.5723;
9.3000;0.1595;0.5604;
9.6000;0.1595;0.5651;
9.9000;0.1595;0.5699;
10.2000;0.1612;0.5675;
10.5000;0.1595;0.5675;
10.8000;0.1595;0.5675;
11.1000;0.1612;0.5627;
11.4000;0.1612;0.5627;
11.7000;0.1587;0.5556;
12.0000;0.1595;0.5556;
12.3000;0.1595;0.5604;
12.6000;0.1555;0.5556;
12.9000;0.1604;0.5723;
13.2000;0.1604;0.5747;
13.5000;0.1612;0.5723;
13.8000;0.1628;0.5842;
14.1000;0.1595;0.5818;
14.4000;0.1701;0.6057;
14.7000;0.1595;0.5747;
15.0000;0.1579;0.5747;
15.3000;0.1620;0.5771;
15.6000;0.1587;0.5699;
15.9000;0.1644;0.5866;
16.2000;0.1595;0.5771;
16.5000;0.1726;0.6057;
16.8000;0.1628;0.5818;
17.1000;0.1587;0.5771;
17.4000;0.1595;0.5747;
17.7000;0.1628;0.5866;
18.0000;0.1547;0.5627;
18.3000;0.1652;0.5842;
18.6000;0.1538;0.5556;
18.9000;0.1587;0.5580;
19.2000;0.1563;0.5532;
19.5000;0.1644;0.5651;
19.8000;0.1604;0.5580;
20.1000;0.1693;0.5842;
20.4000;0.1604;0.5604;
20.7000;0.1636;0.5675;
21.0000;0.1604;0.5580;
21.3000;0.1652;0.5771;
21.6000;0.1604;0.5651;
21.9000;0.1604;0.5627;
22.2000;0.1555;0.5532;
22.5000;0.1595;0.5699;
22.8000;0.1514;0.5556;
23.1000;0.1555;0.5604;
23.4000;0.1587;0.5771;
23.7000;0.1620;0.5842;
24.0000;0.1604;0.5794;
24.3000;0.1628;0.5818;
24.6000;0.1595;0.5651;
24.9000;0.1587;0.5627;
25.2000;0.1628;0.5699;
25.5000;0.1628;0.5723;
25.8000;0.1628;0.5675;
26.1000;0.1628;0.5699;
26.4000;0.1595;0.5651;
26.7000;0.1620;0.5604;
27.0000;0.1620;0.5556;
27.3000;0.1612;0.5508;
27.6000;0.1604;0.5508;
27.9000;0.1604;0.5556;
28.2000;0.1587;0.5556;
28.5000;0.1595;0.5604;
28.8000;0.1538;0.5437;
29.1000;0.1620;0.5747;
29.4000;0.1652;0.5890;
29.7000;0.1628;0.5842;
30.0000;0.1595;0.5723;
30.3000;0.1612;0.5771;
30.6000;0.1612;0.5699;
30.9000;0.1522;0.5437;
31.2000;0.1595;0.5580;
31.5000;0.1595;0.5580;
31.8000;0.1604;0.5604;
32.1000;0.1604;0.5699;
32.4000;0.1620;0.5699;
32.7000;0.1595;0.5580;
33.0000;0.1587;0.5580;
33.3000;0.1595;0.5556;
33.6000;0.1563;0.5580;
33.9000;0.1579;0.5651;
34.2000;0.1595;0.5651;
34.5000;0.1595;0.5699;
34.8000;0.1612;0.5723;
35.1000;0.1612;0.5818;
35.4000;0.1612;0.5794;
35.7000;0.1628;0.5747;
36.0000;0.1604;0.5627;
36.3000;0.1636;0.5771;
36.6000;0.1563;0.5699;
36.9000;0.1620;0.5818;
37.2000;0.1677;0.5961;
37.5000;0.1587;0.5723;
37.8000;0.1604;0.5794;
38.1000;0.1595;0.5771;
38.4000;0.1587;0.5604;
38.7000;0.1628;0.5651;
39.0000;0.1604;0.5627;
39.3000;0.1547;0.5532;
39.6000;0.1555;0.5651;
39.9000;0.1604;0.5866;
40.2000;0.1595;0.5890;
40.5000;0.1669;0.5985;
40.8000;0.1612;0.5961;
41.1000;0.1612;0.5961;
41.4000;0.1595;0.5961;
41.7000;0.1612;0.5890;
42.0000;0.1571;0.5842;
42.3000;0.1547;0.5747;
42.6000;0.1604;0.5890;
42.9000;0.1604;0.5818;
43.2000;0.1604;0.5890;
43.5000;0.1579;0.5818;
43.8000;0.1595;0.5747;
44.1000;0.1652;0.5890;
44.4000;0.1587;0.5699;
44.7000;0.1628;0.5842;
45.0000;0.1612;0.5818;
45.3000;0.1547;0.5699;
45.6000;0.1669;0.5961;
45.9000;0.1612;0.5747;
46.2000;0.1620;0.5723;
46.5000;0.1595;0.5771;
46.8000;0.1612;0.5771;
47.1000;0.1636;0.5842;
47.4000;0.1587;0.5747;
47.7000;0.1587;0.5723;
48.0000;0.1628;0.5842;
48.3000;0.1587;0.5771;
48.6000;0.1612;0.5842;
48.9000;0.1612;0.5890;
49.2000;0.1604;0.5866;
49.5000;0.1579;0.5747;
49.8000;0.1612;0.5794;
50.1000;0.1612;0.5866;
50.4000;0.1612;0.5842;
50.7000;0.1685;0.5985;
51.0000;0.1612;0.5771;
51.3000;0.1620;0.5771;
51.6000;0.1628;0.5794;
51.9000;0.1571;0.5747;
52.2000;0.1620;0.5866;
52.5000;0.1620;0.5890;
52.8000;0.1612;0.5961;
53.1000;0.1677;0.6152;
53.4000;0.1604;0.6009;
53.7000;0.1701;0.6247;
54.0000;0.1595;0.5890;
54.3000;0.1612;0.5890;
54.6000;0.1579;0.5890;
54.9000;0.1579;0.5914;
55.2000;0.1604;0.5937;
55.5000;0.1644;0.6081;
55.8000;0.1604;0.5890;
56.1000;0.1604;0.5723;
56.4000;0.1587;0.5651;
56.7000;0.1612;0.5723;
57.0000;0.1620;0.5627;
57.3000;0.1612;0.5604;
57.6000;0.1595;0.5723;
57.9000;0.1604;0.5794;
58.2000;0.1595;0.5723;
58.5000;0.1604;0.5580;
58.8000;0.1604;0.5627;
59.1000;0.1612;0.5675;
59.4000;0.1604;0.5818;
59.7000;0.1587;0.5747;
60.0000;0.1620;0.5794;
60.3000;0.1612;0.5794;
60.6000;0.1604;0.5723;
60.9000;0.1628;0.5842;
61.2000;0.1555;0.5747;
61.5000;0.1612;0.5842;
61.8000;0.1620;0.5771;
62.1000;0.1612;0.5794;
62.4000;0.1604;0.5771;
62.7000;0.1636;0.5914;
63.0000;0.1620;0.5937;
63.3000;0.1571;0.5747;
63.6000;0.1514;0.5508;
63.9000;0.1604;0.5771;
64.2000;0.1595;0.5771;
64.5000;0.1620;0.5699;
64.8000;0.1612;0.5699;
65.1000;0.1604;0.5675;
65.4000;0.1604;0.5723;
65.7000;0.1604;0.5699;
66.0000;0.1620;0.5723;
66.3000;0.1612;0.5675;
66.6000;0.1595;0.5651;
66.9000;0.1612;0.5747;
67.2000;0.1587;0.5675;
67.5000;0.1628;0.5675;
67.8000;0.1661;0.5794;
68.1000;0.1620;0.5651;
68.4000;0.1604;0.5604;
68.7000;0.1636;0.5651;
69.0000;0.1587;0.5604;
69.3000;0.1636;0.5723;
69.6000;0.1595;0.5580;
69.9000;0.1604;0.5675;
70.2000;0.1579;0.5723;
70.5000;0.1612;0.5723;
70.8000;0.1604;0.5627;
71.1000;0.1620;0.5580;
71.4000;0.1612;0.5556;
71.7000;0.1612;0.5604;
72.0000;0.1620;0.5651;
72.3000;0.1595;0.5604;
72.6000;0.1563;0.5389;
72.9000;0.1604;0.5532;
73.2000;0.1628;0.5651;
73.5000;0.1579;0.5580;
73.8000;0.1612;0.5699;
74.1000;0.1595;0.5675;
74.4000;0.1652;0.5890;
74.7000;0.1669;0.5961;
75.0000;0.1604;0.5818;
75.3000;0.1530;0.5604;
75.6000;0.1612;0.5771;
75.9000;0.1555;0.5508;
76.2000;0.1595;0.5580;
76.5000;0.1652;0.5723;
76.8000;0.1604;0.5627;
77.1000;0.1587;0.5580;
77.4000;0.1547;0.5556;
77.7000;0.1538;0.5556;
78.0000;0.1604;0.5794;
78.3000;0.1685;0.5937;
78.6000;0.1620;0.5771;
78.9000;0.1604;0.5794;
79.2000;0.1612;0.5794;
79.5000;0.1604;0.5771;
79.8000;0.1595;0.5794;
80.1000;0.1620;0.5818;
80.4000;0.1612;0.5818;
80.7000;0.1595;0.5794;
81.0000;0.1587;0.5771;
81.3000;0.1595;0.5771;
81.6000;0.1587;0.5842;
81.9000;0.1595;0.5794;
82.2000;0.1604;0.5818;
82.5000;0.1604;0.5771;
82.8000;0.1612;0.5771;
83.1000;0.1571;0.5723;
83.4000;0.1612;0.5794;
83.7000;0.1612;0.5794;
84.0000;0.1604;0.5794;
84.3000;0.1620;0.5842;
84.6000;0.1579;0.5699;
84.9000;0.1620;0.5842;
85.2000;0.1604;0.5771;
85.5000;0.1604;0.5651;
85.8000;0.1604;0.5651;
86.1000;0.1620;0.5675;
86.4000;0.1579;0.5627;
86.7000;0.1701;0.5985;
87.0000;0.1604;0.5771;
87.3000;0.1595;0.5723;
87.6000;0.1604;0.5699;
87.9000;0.1604;0.5651;
88.2000;0.1644;0.5771;
88.5000;0.1604;0.5651;
88.8000;0.1604;0.5627;
89.1000;0.1604;0.5627;
89.4000;0.1604;0.5651;
89.7000;0.1628;0.5604;
90.0000;0.1595;0.5580;
90.3000;0.1595;0.5627;
90.6000;0.1734;0.5961;
90.9000;0.1612;0.5675;
91.2000;0.1595;0.5699;
91.5000;0.1612;0.5771;
91.8000;0.1604;0.5723;
92.1000;0.1693;0.5866;
92.4000;0.1595;0.5604;
92.7000;0.1595;0.5556;
93.0000;0.1636;0.5580;
93.3000;0.1604;0.5484;
93.6000;0.1644;0.5723;
93.9000;0.1620;0.5651;
94.2000;0.1595;0.5651;
94.5000;0.1604;0.5699;
94.8000;0.1563;0.5604;
95.1000;0.1604;0.5699;
95.4000;0.1604;0.5723;
95.7000;0.1612;0.5723;
96.0000;0.1587;0.5747;
96.3000;0.1604;0.5794;
96.6000;0.1644;0.5866;
96.9000;0.1620;0.5818;
97.2000;0.1595;0.5771;
97.5000;0.1604;0.5723;
97.8000;0.1612;0.5794;
98.1000;0.1636;0.5937;
98.4000;0.1620;0.5842;
98.7000;0.1612;0.5794;
99.0000;0.1538;0.5699;
99.3000;0.1628;0.5937;
99.6000;0.1612;0.5961;
99.9000;0.1587;0.5914;
100.2000;0.1612;0.5937;
100.5000;0.1612;0.5866;
100.8000;0.1620;0.5914;
101.1000;0.1628;0.5914;
101.4000;0.1587;0.5675;
101.7000;0.1604;0.5747;
102.0000;0.1604;0.5675;
102.3000;0.1612;0.5627;
102.6000;0.1693;0.5794;
102.9000;0.1563;0.5437;
103.2000;0.1604;0.5508;
103.5000;0.1595;0.5532;
103.8000;0.1604;0.5580;
104.1000;0.1628;0.5627;
104.4000;0.1628;0.5604;
104.7000;0.1563;0.5532;
105.0000;0.1595;0.5580;
105.3000;0.1595;0.5651;
105.6000;0.1604;0.5771;
105.9000;0.1587;0.5747;
106.2000;0.1595;0.5794;
106.5000;0.1587;0.5842;
106.8000;0.1620;0.5890;
107.1000;0.1595;0.5842;
107.4000;0.1604;0.5747;
107.7000;0.1587;0.5723;
108.0000;0.1506;0.5580;
108.3000;0.1612;0.5818;
108.6000;0.1636;0.5866;
108.9000;0.1571;0.5580;
109.2000;0.1604;0.5651;
109.5000;0.1587;0.5675;
109.8000;0.1604;0.5794;
110.1000;0.1595;0.5818;
110.4000;0.1563;0.5675;
110.7000;0.1587;0.5627;
111.0000;0.1652;0.5890;
111.3000;0.1628;0.5699;
111.6000;0.1644;0.5699;
111.9000;0.1612;0.5556;
112.2000;0.1628;0.5627;
112.5000;0.1595;0.5580;
112.8000;0.1604;0.5627;
113.1000;0.1595;0.5723;
113.4000;0.1620;0.5842;
113.7000;0.1709;0.6104;
114.0000;0.1595;0.5747;
114.3000;0.1604;0.5771;
114.6000;0.1612;0.5842;
114.9000;0.1563;0.5723;
115.2000;0.1669;0.5937;
115.5000;0.1595;0.5747;
115.8000;0.1587;0.5771;
116.1000;0.1595;0.5699;
116.4000;0.1604;0.5699;
116.7000;0.1595;0.5675;
117.0000;0.1604;0.5890;
117.3000;0.1612;0.5842;
117.6000;0.1595;0.5818;
117.9000;0.1620;0.5747;
118.2000;0.1555;0.5604;
118.5000;0.1595;0.5627;
118.8000;0.1612;0.5675;
119.1000;0.1595;0.5627;
119.4000;0.1579;0.5675;
119.7000;0.1612;0.5771;
120.0000;0.1579;0.5794;
120.3000;0.1587;0.5818;
120.6000;0.1587;0.5842;
120.9000;0.1652;0.5937;
121.2000;0.1620;0.5842;
121.5000;0.1587;0.5651;
121.8000;0.1587;0.5699;
122.1000;0.1604;0.5747;
122.4000;0.1587;0.5699;
122.7000;0.1628;0.5794;
123.0000;0.1571;0.5723;
123.3000;0.1604;0.5866;
123.6000;0.1604;0.5866;
123.9000;0.1604;0.5842;
124.2000;0.1595;0.5747;
124.5000;0.1579;0.5675;
124.8000;0.1587;0.5651;
125.1000;0.1595;0.5747;
125.4000;0.1555;0.5699;
125.7000;0.1587;0.5818;
126.0000;0.1595;0.5866;
126.3000;0.1595;0.5723;
126.6000;0.1587;0.5675;
126.9000;0.1555;0.5508;
127.2000;0.1604;0.5604;
127.5000;0.1620;0.5580;
127.8000;0.1604;0.5556;
128.1000;0.1587;0.5556;
128.4000;0.1620;0.5651;
128.7000;0.1612;0.5651;
129.0000;0.1612;0.5651;
129.3000;0.1587;0.5604;
129.6000;0.1579;0.5651;
129.9000;0.1620;0.5675;
130.2000;0.1612;0.5604;
130.5000;0.1587;0.5580;
130.8000;0.1563;0.5604;
131.1000;0.1579;0.5580;
131.4000;0.1612;0.5699;
131.7000;0.1563;0.5604;
132.0000;0.1604;0.5747;
132.3000;0.1547;0.5627;
132.6000;0.1595;0.5747;
132.9000;0.1612;0.5771;
133.2000;0.1563;0.5627;
133.5000;0.1612;0.5771;
133.8000;0.1604;0.5818;
134.1000;0.1604;0.5818;
134.4000;0.1636;0.5985;
134.7000;0.1604;0.5914;
135.0000;0.1587;0.5794;
135.3000;0.1595;0.5818;
135.6000;0.1595;0.5890;
135.9000;0.1612;0.5890;
136.2000;0.1661;0.5961;
136.5000;0.1612;0.5842;
136.8000;0.1595;0.5771;
137.1000;0.1579;0.5699;
137.4000;0.1571;0.5651;
137.7000;0.1628;0.5818;
138.0000;0.1604;0.5771;
138.3000;0.1579;0.5723;
138.6000;0.1530;0.5580;
138.9000;0.1604;0.5794;
139.2000;0.1571;0.5723;
139.5000;0.1612;0.5794;
139.8000;0.1620;0.5818;
140.1000;0.1579;0.5818;
140.4000;0.1587;0.5842;
140.7000;0.1579;0.5866;
141.0000;0.1587;0.5914;
141.3000;0.1538;0.5723;
141.6000;0.1571;0.5794;
141.9000;0.1604;0.5842;
142.2000;0.1604;0.5794;
142.5000;0.1604;0.5771;
142.8000;0.1579;0.5747;
143.1000;0.1587;0.5794;
143.4000;0.1612;0.5818;
143.7000;0.1620;0.5866;
144.0000;0.1604;0.5723;
144.3000;0.1620;0.5794;
144.6000;0.1612;0.5747;
144.9000;0.1595;0.5747;
145.2000;0.1612;0.5723;
145.5000;0.1604;0.5699;
145.8000;0.1620;0.5699;
146.1000;0.1612;0.5675;
146.4000;0.1522;0.5437;
146.7000;0.1547;0.5532;
147.0000;0.1636;0.5675;
147.3000;0.1604;0.5651;
147.6000;0.1595;0.5675;
147.9000;0.1604;0.5699;
148.2000;0.1587;0.5651;
148.5000;0.1571;0.5651;
148.8000;0.1620;0.5747;
149.1000;0.1604;0.5771;
149.4000;0.1620;0.5747;
149.7000;0.1555;0.5627;
150.0000;0.1620;0.5747;
150.3000;0.1587;0.5794;
150.6000;0.1604;0.5890;
150.9000;0.1612;0.5842;
151.2000;0.1587;0.5866;
151.5000;0.1587;0.5771;
151.8000;0.1612;0.5866;
152.1000;0.1604;0.5771;
152.4000;0.1612;0.5747;
152.7000;0.1604;0.5842;
153.0000;0.1595;0.5866;
153.3000;0.1612;0.5842;
153.6000;0.1612;0.5818;
153.9000;0.1579;0.5651;
154.2000;0.1571;0.5627;
154.5000;0.1612;0.5794;
154.8000;0.1604;0.5747;
155.1000;0.1579;0.5794;
155.4000;0.1587;0.5747;
155.7000;0.1587;0.5747;
156.0000;0.1595;0.5794;
156.3000;0.1571;0.5842;
156.6000;0.1620;0.5937;
156.9000;0.1620;0.5842;
157.2000;0.1612;0.5914;
157.5000;0.1579;0.5747;
157.8000;0.1612;0.5818;
158.1000;0.1595;0.5818;
158.4000;0.1612;0.5866;
158.7000;0.1661;0.6033;
159.0000;0.1587;0.5818;
159.3000;0.1595;0.5723;
159.6000;0.1579;0.5747;
159.9000;0.1620;0.5794;
160.2000;0.1571;0.5699;
160.5000;0.1587;0.5675;
160.8000;0.1612;0.5675;
161.1000;0.1612;0.5604;
161.4000;0.1636;0.5699;
161.7000;0.1620;0.5675;
162.0000;0.1595;0.5627;
162.3000;0.1595;0.5723;
162.6000;0.1595;0.5651;
162.9000;0.1628;0.5747;
163.2000;0.1604;0.5604;
163.5000;0.1612;0.5580;
163.8000;0.1538;0.5341;
164.1000;0.1628;0.5604;
164.4000;0.1604;0.5532;
164.7000;0.1473;0.5317;
165.0000;0.1604;0.5651;
165.3000;0.1604;0.5747;
165.6000;0.1604;0.5747;
165.9000;0.1604;0.5771;
166.2000;0.1628;0.5794;
166.5000;0.1595;0.5651;
166.8000;0.1661;0.5866;
167.1000;0.1620;0.5794;
167.4000;0.1587;0.5890;
167.7000;0.1620;0.5890;
168.0000;0.1604;0.5842;
168.3000;0.1579;0.5842;
168.6000;0.1538;0.5699;
168.9000;0.1571;0.5771;
169.2000;0.1604;0.5818;
169.5000;0.1628;0.5866;
169.8000;0.1644;0.5842;
170.1000;0.1604;0.5794;
170.4000;0.1547;0.5675;
170.7000;0.1587;0.5771;
171.0000;0.1628;0.5771;
171.3000;0.1620;0.5794;
171.6000;0.1595;0.5771;
171.9000;0.1620;0.5890;
172.2000;0.1595;0.5866;
172.5000;0.1587;0.5771;
172.8000;0.1636;0.5961;
173.1000;0.1587;0.5771;
173.4000;0.1595;0.5842;
173.7000;0.1612;0.5842;
174.0000;0.1604;0.5794;
174.3000;0.1612;0.5723;
174.6000;0.1604;0.5675;
174.9000;0.1587;0.5699;
175.2000;0.1644;0.5842;
175.5000;0.1612;0.5771;
175.8000;0.1612;0.5771;
176.1000;0.1612;0.5723;
176.4000;0.1595;0.5699;
176.7000;0.1620;0.5771;
177.0000;0.1612;0.5747;
177.3000;0.1604;0.5723;
177.6000;0.1579;0.5651;
177.9000;0.1620;0.5771;
178.2000;0.1612;0.5771;
178.5000;0.1587;0.5675;
178.8000;0.1604;0.5747;
179.1000;0.1579;0.5723;
179.4000;0.1579;0.5747;
179.7000;0.1547;0.5604;
180.0000;0.1612;0.5723;
180.3000;0.1595;0.5699;
180.6000;0.1595;0.5747;
180.9000;0.1604;0.5747;
181.2000;0.1595;0.5723;
181.5000;0.1587;0.5723;
181.8000;0.1538;0.5699;
182.1000;0.1628;0.5914;
182.4000;0.1595;0.5914;
182.7000;0.1604;0.5961;
183.0000;0.1595;0.5985;
183.3000;0.1547;0.5818;
183.6000;0.1742;0.6200;
183.9000;0.1709;0.6081;
184.2000;0.1636;0.5794;
184.5000;0.1604;0.5771;
184.8000;0.1587;0.5675;
185.1000;0.1644;0.5771;
185.4000;0.1595;0.5604;
185.7000;0.1587;0.5627;
186.0000;0.1620;0.5699;
186.3000;0.1595;0.5627;
186.6000;0.1612;0.5675;
186.9000;0.1587;0.5627;
187.2000;0.1604;0.5794;
187.5000;0.1587;0.5699;
187.8000;0.1612;0.5794;
188.1000;0.1555;0.5675;
188.4000;0.1604;0.5723;
188.7000;0.1530;0.5532;
189.0000;0.1612;0.5794;
189.3000;0.1604;0.5699;
189.6000;0.1595;0.5747;
189.9000;0.1595;0.5723;
190.2000;0.1628;0.5794;
190.5000;0.1595;0.5627;
190.8000;0.1595;0.5604;
191.1000;0.1604;0.5580;
191.4000;0.1587;0.5508;
191.7000;0.1604;0.5604;
192.0000;0.1595;0.5604;
192.3000;0.1612;0.5627;
192.6000;0.1563;0.5437;
192.9000;0.1587;0.5556;
193.2000;0.1587;0.5532;
193.5000;0.1604;0.5532;
193.8000;0.1579;0.5484;
194.1000;0.1595;0.5461;
194.4000;0.1612;0.5437;
194.7000;0.1612;0.5508;
195.0000;0.1595;0.5461;
195.3000;0.1604;0.5484;
195.6000;0.1595;0.5484;
195.9000;0.1620;0.5508;
196.2000;0.1579;0.5413;
196.5000;0.1644;0.5651;
196.8000;0.1595;0.5508;
197.1000;0.1612;0.5508;
197.4000;0.1595;0.5461;
197.7000;0.1604;0.5532;
198.0000;0.1571;0.5461;
198.3000;0.1579;0.5461;
198.6000;0.1604;0.5484;
198.9000;0.1587;0.5508;
199.2000;0.1587;0.5556;
199.5000;0.1587;0.5651;
199.8000;0.1595;0.5627;
200.1000;0.1571;0.5532;
200.4000;0.1579;0.5532;
200.7000;0.1587;0.5580;
201.0000;0.1555;0.5532;
201.3000;0.1604;0.5627;
201.6000;0.1587;0.5627;
201.9000;0.1587;0.5651;
202.2000;0.1579;0.5556;
202.5000;0.1579;0.5580;
202.8000;0.1555;0.5532;
203.1000;0.1685;0.5914;
203.4000;0.1604;0.5771;
203.7000;0.1595;0.5699;
204.0000;0.1652;0.5890;
204.3000;0.1604;0.5723;
204.6000;0.1604;0.5699;
204.9000;0.1595;0.5699;
205.2000;0.1595;0.5675;
205.5000;0.1522;0.5461;
205.8000;0.1595;0.5556;
206.1000;0.1669;0.5771;
206.4000;0.1628;0.5627;
206.7000;0.1579;0.5580;
207.0000;0.1595;0.5580;
207.3000;0.1620;0.5532;
207.6000;0.1595;0.5556;
207.9000;0.1604;0.5532;
208.2000;0.1628;0.5627;
208.5000;0.1587;0.5508;
208.8000;0.1604;0.5627;
209.1000;0.1579;0.5627;
209.4000;0.1604;0.5627;
209.7000;0.1481;0.5413;
210.0000;0.1604;0.5866;
210.3000;0.1636;0.5818;
210.6000;0.1587;0.5604;
210.9000;0.1579;0.5675;
211.2000;0.1579;0.5580;
211.5000;0.1595;0.5556;
211.8000;0.1628;0.5556;
212.1000;0.1587;0.5413;
212.4000;0.1587;0.5341;
212.7000;0.1579;0.5389;
213.0000;0.1604;0.5461;
213.3000;0.1579;0.5484;
213.6000;0.1604;0.5556;
213.9000;0.1661;0.5818;
214.2000;0.1587;0.5604;
214.5000;0.1579;0.5651;
214.8000;0.1612;0.5651;
215.1000;0.1612;0.5675;
215.4000;0.1595;0.5699;
215.7000;0.1604;0.5818;
216.0000;0.1595;0.5747;
216.3000;0.1571;0.5818;
216.6000;0.1530;0.5651;
216.9000;0.1661;0.5914;
217.2000;0.1571;0.5842;
217.5000;0.1587;0.5818;
217.8000;0.1579;0.5818;
218.1000;0.1579;0.5675;
218.4000;0.1571;0.5675;
218.7000;0.1571;0.5627;
219.0000;0.1587;0.5651;
219.3000;0.1612;0.5723;
219.6000;0.1587;0.5747;
219.9000;0.1595;0.5842;
220.2000;0.1571;0.5771;
220.5000;0.1490;0.5508;
220.8000;0.1612;0.5794;
221.1000;0.1604;0.5818;
221.4000;0.1595;0.5699;
221.7000;0.1620;0.5771;
222.0000;0.1522;0.5508;
222.3000;0.1587;0.5627;
222.6000;0.1571;0.5556;
222.9000;0.1612;0.5723;
223.2000;0.1595;0.5675;
223.5000;0.1612;0.5723;
223.8000;0.1612;0.5794;
224.1000;0.1522;0.5651;
224.4000;0.1579;0.5747;
224.7000;0.1595;0.5794;
225.0000;0.1587;0.5842;
225.3000;0.1587;0.5914;
225.6000;0.1587;0.5866;
225.9000;0.1595;0.5818;
226.2000;0.1547;0.5627;
226.5000;0.1628;0.5771;
226.8000;0.1587;0.5699;
227.1000;0.1604;0.5747;
227.4000;0.1604;0.5771;
227.7000;0.1758;0.6104;
228.0000;0.1612;0.5699;
228.3000;0.1612;0.5675;
228.6000;0.1604;0.5699;
228.9000;0.1579;0.5580;
229.2000;0.1612;0.5580;
229.5000;0.1612;0.5484;
229.8000;0.1620;0.5508;
230.1000;0.1620;0.5604;
230.4000;0.1604;0.5532;
230.7000;0.1547;0.5389;
231.0000;0.1612;0.5556;
231.3000;0.1636;0.5627;
231.6000;0.1620;0.5675;
231.9000;0.1595;0.5627;
232.2000;0.1587;0.5723;
232.5000;0.1612;0.5747;
232.8000;0.1473;0.5341;
233.1000;0.1604;0.5651;
233.4000;0.1595;0.5627;
233.7000;0.1595;0.5627;
234.0000;0.1579;0.5556;
234.3000;0.1563;0.5508;
234.6000;0.1587;0.5556;
234.9000;0.1555;0.5484;
235.2000;0.1579;0.5627;
235.5000;0.1587;0.5580;
235.8000;0.1530;0.5413;
236.1000;0.1587;0.5508;
236.4000;0.1595;0.5532;
236.7000;0.1587;0.5461;
237.0000;0.1587;0.5508;
237.3000;0.1595;0.5508;
237.6000;0.1604;0.5461;
237.9000;0.1604;0.5437;
238.2000;0.1604;0.5508;
238.5000;0.1579;0.5604;
238.8000;0.1604;0.5723;
239.1000;0.1604;0.5794;
239.4000;0.1595;0.5675;
239.7000;0.1620;0.5747;
240.0000;0.1579;0.5675;
240.3000;0.1595;0.5651;
240.6000;0.1473;0.5341;
240.9000;0.1465;0.5413;
241.2000;0.1579;0.5747;
241.5000;0.1579;0.5723;
241.8000;0.1612;0.5771;
242.1000;0.1555;0.5675;
242.4000;0.1652;0.6009;
242.7000;0.1595;0.5818;
243.0000;0.1595;0.5771;
243.3000;0.1587;0.5723;
243.6000;0.1538;0.5556;
243.9000;0.1595;0.5699;
244.2000;0.1595;0.5747;
244.5000;0.1579;0.5723;
244.8000;0.1595;0.5723;
245.1000;0.1604;0.5723;
245.4000;0.1555;0.5627;
245.7000;0.1595;0.5818;
246.0000;0.1612;0.5818;
246.3000;0.1587;0.5771;
246.6000;0.1604;0.5890;
246.9000;0.1620;0.5914;
247.2000;0.1579;0.5747;
247.5000;0.1587;0.5747;
247.8000;0.1595;0.5747;
248.1000;0.1595;0.5771;
248.4000;0.1595;0.5771;
248.7000;0.1579;0.5747;
249.0000;0.1587;0.5794;
249.3000;0.1636;0.5914;
249.6000;0.1595;0.5771;
249.9000;0.1628;0.5890;
250.2000;0.1661;0.5985;
250.5000;0.1604;0.5866;
250.8000;0.1555;0.5771;
251.1000;0.1571;0.5961;
251.4000;0.1547;0.5914;
251.7000;0.1628;0.6128;
252.0000;0.1587;0.5985;
252.3000;0.1644;0.6104;
252.6000;0.1579;0.5937;
252.9000;0.1587;0.5914;
253.2000;0.1693;0.6152;
253.5000;0.1587;0.5771;
253.8000;0.1555;0.5604;
254.1000;0.1587;0.5675;
254.4000;0.1612;0.5794;
254.7000;0.1563;0.5723;
255.0000;0.1652;0.6057;
255.3000;0.1604;0.5890;
255.6000;0.1612;0.5937;
255.9000;0.1628;0.5914;
256.2000;0.1595;0.5818;
256.5000;0.1587;0.5818;
256.8000;0.1547;0.5747;
257.1000;0.1669;0.6104;
257.4000;0.1604;0.5890;
257.7000;0.1571;0.5818;
258.0000;0.1595;0.5866;
258.3000;0.1514;0.5723;
258.6000;0.1587;0.5961;
258.9000;0.1587;0.5937;
259.2000;0.1555;0.5890;
259.5000;0.1604;0.6033;
259.8000;0.1595;0.5985;
260.1000;0.1555;0.5842;
260.4000;0.1709;0.6128;
260.7000;0.1587;0.5699;
261.0000;0.1571;0.5675;
261.3000;0.1604;0.5651;
261.6000;0.1555;0.5532;
261.9000;0.1604;0.5747;
262.2000;0.1604;0.5747;
262.5000;0.1595;0.5699;
262.8000;0.1595;0.5747;
263.1000;0.1612;0.5723;
263.4000;0.1595;0.5675;
263.7000;0.1595;0.5580;
264.0000;0.1604;0.5556;
264.3000;0.1595;0.5580;
264.6000;0.1604;0.5651;
264.9000;0.1587;0.5723;
265.2000;0.1620;0.5771;
265.5000;0.1587;0.5651;
265.8000;0.1587;0.5580;
266.1000;0.1604;0.5580;
266.4000;0.1604;0.5556;
266.7000;0.1563;0.5484;
267.0000;0.1604;0.5675;
267.3000;0.1628;0.5747;
267.6000;0.1595;0.5651;
267.9000;0.1587;0.5699;
268.2000;0.1620;0.5866;
268.5000;0.1595;0.5794;
268.8000;0.1595;0.5747;
269.1000;0.1604;0.5699;
269.4000;0.1595;0.5604;
269.7000;0.1620;0.5651;
270.0000;0.1604;0.5627;
270.3000;0.1612;0.5627;
270.6000;0.1563;0.5604;
270.9000;0.1595;0.5723;
271.2000;0.1620;0.5818;
271.5000;0.1612;0.5627;
271.8000;0.1595;0.5604;
272.1000;0.1587;0.5651;
272.4000;0.1604;0.5651;
272.7000;0.1604;0.5627;
273.0000;0.1677;0.5890;
273.3000;0.1579;0.5627;
273.6000;0.1595;0.5675;
273.9000;0.1587;0.5675;
274.2000;0.1595;0.5699;
274.5000;0.1579;0.5723;
274.8000;0.1612;0.5890;
275.1000;0.1538;0.5675;
275.4000;0.1587;0.5794;
275.7000;0.1604;0.5794;
276.0000;0.1595;0.5723;
276.3000;0.1604;0.5747;
276.6000;0.1604;0.5794;
276.9000;0.1579;0.5818;
277.2000;0.1595;0.5818;
277.5000;0.1604;0.5771;
277.8000;0.1514;0.5532;
278.1000;0.1587;0.5747;
278.4000;0.1563;0.5723;
278.7000;0.1555;0.5771;
279.0000;0.1595;0.5818;
279.3000;0.1555;0.5675;
279.6000;0.1620;0.5771;
279.9000;0.1604;0.5723;
280.2000;0.1563;0.5580;
280.5000;0.1604;0.5723;
280.8000;0.1628;0.5771;
281.1000;0.1563;0.5604;
281.4000;0.1620;0.5747;
281.7000;0.1628;0.5747;
282.0000;0.1604;0.5747;
282.3000;0.1595;0.5699;
282.6000;0.1604;0.5723;
282.9000;0.1595;0.5723;
283.2000;0.1579;0.5699;
283.5000;0.1595;0.5699;
283.8000;0.1571;0.5675;
284.1000;0.1620;0.5747;
284.4000;0.1604;0.5771;
284.7000;0.1587;0.5866;
285.0000;0.1587;0.5890;
285.3000;0.1595;0.5961;
285.6000;0.1604;0.5985;
285.9000;0.1579;0.5961;
286.2000;0.1604;0.6009;
286.5000;0.1595;0.5985;
286.8000;0.1587;0.5937;
287.1000;0.1587;0.5914;
287.4000;0.1563;0.5794;
287.7000;0.1620;0.5842;
288.0000;0.1604;0.5723;
288.3000;0.1604;0.5794;
288.6000;0.1587;0.5794;
288.9000;0.1587;0.5747;
289.2000;0.1587;0.5771;
289.5000;0.1620;0.5914;
289.8000;0.1538;0.5651;
290.1000;0.1587;0.5699;
290.4000;0.1587;0.5699;
290.7000;0.1595;0.5651;
291.0000;0.1563;0.5580;
291.3000;0.1587;0.5651;
291.6000;0.1604;0.5723;
291.9000;0.1628;0.5771;
292.2000;0.1595;0.5675;
292.5000;0.1587;0.5675;
292.8000;0.1579;0.5651;
293.1000;0.1604;0.5818;
293.4000;0.1579;0.5747;
293.7000;0.1604;0.5866;
294.0000;0.1595;0.5866;
294.3000;0.1595;0.5842;
294.6000;0.1579;0.5818;
294.9000;0.1604;0.5771;
295.2000;0.1571;0.5651;
295.5000;0.1579;0.5651;
295.8000;0.1636;0.5842;
296.1000;0.1628;0.5914;
296.4000;0.1587;0.5794;
296.7000;0.1587;0.5794;
297.0000;0.1571;0.5747;
297.3000;0.1612;0.5794;
297.6000;0.1547;0.5675;
297.9000;0.1604;0.5747;
298.2000;0.1620;0.5699;
298.5000;0.1587;0.5627;
298.8000;0.1587;0.5675;
299.1000;0.1604;0.5794;
299.4000;0.1595;0.5627;
299.7000;0.1571;0.5627;
300.0000;0.1587;0.5771;
300.3000;0.1563;0.5771;
300.6000;0.1563;0.5747;
300.9000;0.1620;0.5842;
301.2000;0.1579;0.5723;
301.5000;0.1628;0.5866;
301.8000;0.1571;0.5651;
302.1000;0.1587;0.5675;
302.4000;0.1604;0.5771;
302.7000;0.1563;0.5604;
303.0000;0.1587;0.5723;
303.3000;0.1604;0.5651;
303.6000;0.1628;0.5723;
303.9000;0.1547;0.5627;
304.2000;0.1555;0.5723;
304.5000;0.1612;0.5842;
304.8000;0.1579;0.5771;
305.1000;0.1571;0.5747;
305.4000;0.1587;0.5794;
305.7000;0.1620;0.5818;
306.0000;0.1595;0.5794;
306.3000;0.1595;0.5890;
306.6000;0.1579;0.5794;
306.9000;0.1571;0.5747;
307.2000;0.1595;0.5818;
307.5000;0.1579;0.5818;
307.8000;0.1604;0.5914;
308.1000;0.1587;0.5818;
308.4000;0.1612;0.5842;
308.7000;0.1587;0.5794;
309.0000;0.1604;0.5723;
309.3000;0.1644;0.5699;
309.6000;0.1563;0.5508;
309.9000;0.1644;0.5747;
310.2000;0.1604;0.5675;
310.5000;0.1587;0.5508;
310.8000;0.1612;0.5484;
311.1000;0.1628;0.5604;
311.4000;0.1604;0.5556;
311.7000;0.1587;0.5461;
312.0000;0.1604;0.5461;
312.3000;0.1587;0.5413;
312.6000;0.1612;0.5484;
312.9000;0.1595;0.5461;
313.2000;0.1595;0.5461;
313.5000;0.1579;0.5389;
313.8000;0.1636;0.5532;
314.1000;0.1587;0.5365;
314.4000;0.1604;0.5365;
314.7000;0.1604;0.5341;
315.0000;0.1604;0.5365;
315.3000;0.1595;0.5484;
315.6000;0.1587;0.5437;
315.9000;0.1612;0.5532;
316.2000;0.1595;0.5508;
316.5000;0.1595;0.5437;
316.8000;0.1571;0.5461;
317.1000;0.1579;0.5508;
317.4000;0.1587;0.5532;
317.7000;0.1579;0.5484;
318.0000;0.1628;0.5675;
318.3000;0.1579;0.5580;
318.6000;0.1571;0.5532;
318.9000;0.1587;0.5627;
319.2000;0.1579;0.5556;
319.5000;0.1595;0.5580;
319.8000;0.1620;0.5675;
320.1000;0.1595;0.5675;
320.4000;0.1579;0.5675;
320.7000;0.1587;0.5699;
321.0000;0.1595;0.5651;
321.3000;0.1604;0.5747;
321.6000;0.1620;0.5723;
321.9000;0.1579;0.5675;
322.2000;0.1587;0.5794;
322.5000;0.1604;0.5866;
322.8000;0.1587;0.5890;
323.1000;0.1587;0.5818;
323.4000;0.1579;0.5699;
323.7000;0.1563;0.5723;
324.0000;0.1661;0.5961;
324.3000;0.1563;0.5627;
324.6000;0.1595;0.5675;
324.9000;0.1587;0.5651;
325.2000;0.1587;0.5627;
325.5000;0.1587;0.5651;
325.8000;0.1612;0.5627;
326.1000;0.1595;0.5508;
326.4000;0.1587;0.5556;
326.7000;0.1587;0.5532;
327.0000;0.1604;0.5651;
327.3000;0.1685;0.5985;
327.6000;0.1587;0.5747;
327.9000;0.1563;0.5723;
328.2000;0.1595;0.5699;
328.5000;0.1595;0.5723;
328.8000;0.1579;0.5747;
329.1000;0.1604;0.5818;
329.4000;0.1587;0.5818;
329.7000;0.1579;0.5866;
330.0000;0.1595;0.5842;
330.3000;0.1595;0.5794;
330.6000;0.1595;0.5794;
330.9000;0.1628;0.5818;
331.2000;0.1587;0.5699;
331.5000;0.1595;0.5651;
331.8000;0.1587;0.5604;
332.1000;0.1612;0.5699;
332.4000;0.1604;0.5627;
332.7000;0.1587;0.5604;
333.0000;0.1604;0.5651;
333.3000;0.1595;0.5675;
333.6000;0.1587;0.5675;
333.9000;0.1595;0.5747;
334.2000;0.1595;0.5723;
334.5000;0.1563;0.5556;
334.8000;0.1595;0.5699;
335.1000;0.1555;0.5604;
335.4000;0.1595;0.5675;
335.7000;0.1652;0.5890;
336.0000;0.1595;0.5747;
336.3000;0.1563;0.5627;
336.6000;0.1571;0.5675;
336.9000;0.1604;0.5818;
337.2000;0.1604;0.5818;
337.5000;0.1587;0.5794;
337.8000;0.1571;0.5747;
338.1000;0.1612;0.5771;
338.4000;0.1538;0.5627;
338.7000;0.1457;0.5413;
339.0000;0.1595;0.5675;
339.3000;0.1587;0.5556;
339.6000;0.1587;0.5604;
339.9000;0.1579;0.5604;
340.2000;0.1612;0.5723;
340.5000;0.1595;0.5675;
340.8000;0.1595;0.5675;
341.1000;0.1604;0.5675;
341.4000;0.1604;0.5747;
341.7000;0.1587;0.5699;
342.0000;0.1571;0.5627;
342.3000;0.1636;0.5818;
342.6000;0.1595;0.5627;
342.9000;0.1587;0.5627;
343.2000;0.1652;0.5842;
343.5000;0.1595;0.5723;
343.8000;0.1587;0.5675;
344.1000;0.1587;0.5651;
344.4000;0.1587;0.5723;
344.7000;0.1579;0.5723;
345.0000;0.1555;0.5627;
345.3000;0.1587;0.5699;
345.6000;0.1579;0.5651;
345.9000;0.1579;0.5675;
346.2000;0.1661;0.5866;
346.5000;0.1595;0.5699;
346.8000;0.1579;0.5699;
347.1000;0.1587;0.5747;
347.4000;0.1595;0.5771;
347.7000;0.1620;0.5842;
348.0000;0.1563;0.5699;
348.3000;0.1587;0.5747;
348.6000;0.1652;0.5866;
348.9000;0.1579;0.5651;
349.2000;0.1579;0.5699;
349.5000;0.1571;0.5627;
349.8000;0.1587;0.5651;
350.1000;0.1587;0.5699;
350.4000;0.1571;0.5627;
350.7000;0.1612;0.5627;
351.0000;0.1579;0.5484;
351.3000;0.1604;0.5532;
351.6000;0.1587;0.5532;
351.9000;0.1636;0.5675;
352.2000;0.1612;0.5580;
352.5000;0.1595;0.5580;
352.8000;0.1595;0.5508;
353.1000;0.1579;0.5389;
353.4000;0.1612;0.5437;
353.7000;0.1595;0.5484;
354.0000;0.1579;0.5413;
354.3000;0.1628;0.5532;
354.6000;0.1595;0.5484;
354.9000;0.1587;0.5508;
355.2000;0.1587;0.5461;
355.5000;0.1587;0.5461;
355.8000;0.1498;0.5317;
356.1000;0.1604;0.5556;
356.4000;0.1604;0.5627;
356.7000;0.1604;0.5699;
357.0000;0.1604;0.5723;
357.3000;0.1587;0.5818;
357.6000;0.1701;0.6104;
357.9000;0.1612;0.5842;
358.2000;0.1579;0.5771;
358.5000;0.1587;0.5699;
358.8000;0.1579;0.5699;
359.1000;0.1579;0.5651;
359.4000;0.1595;0.5651;
359.7000;0.1587;0.5723;
360.0000;0.1612;0.5794;
360.3000;0.1595;0.5699;
360.6000;0.1587;0.5580;
360.9000;0.1595;0.5532;
361.2000;0.1612;0.5532;
361.5000;0.1579;0.5532;
361.8000;0.1595;0.5508;
362.1000;0.1571;0.5461;
362.4000;0.1579;0.5461;
362.7000;0.1522;0.5341;
363.0000;0.1579;0.5604;
363.3000;0.1587;0.5699;
363.6000;0.1595;0.5651;
363.9000;0.1628;0.5818;
364.2000;0.1538;0.5484;
364.5000;0.1571;0.5604;
364.8000;0.1587;0.5627;
365.1000;0.1595;0.5604;
365.4000;0.1595;0.5627;
365.7000;0.1595;0.5627;
366.0000;0.1571;0.5580;
366.3000;0.1612;0.5723;
366.6000;0.1620;0.5747;
366.9000;0.1595;0.5651;
367.2000;0.1595;0.5699;
367.5000;0.1595;0.5651;
367.8000;0.1604;0.5675;
368.1000;0.1595;0.5651;
368.4000;0.1604;0.5699;
368.7000;0.1604;0.5818;
369.0000;0.1604;0.5818;
369.3000;0.1555;0.5580;
369.6000;0.1595;0.5627;
369.9000;0.1571;0.5651;
370.2000;0.1587;0.5556;
370.5000;0.1595;0.5556;
370.8000;0.1579;0.5532;
371.1000;0.1571;0.5508;
371.4000;0.1571;0.5604;
371.7000;0.1587;0.5651;
372.0000;0.1636;0.5699;
372.3000;0.1587;0.5532;
372.6000;0.1571;0.5461;
372.9000;0.1563;0.5532;
373.2000;0.1612;0.5699;
373.5000;0.1595;0.5604;
373.8000;0.1628;0.5794;
374.1000;0.1595;0.5723;
374.4000;0.1579;0.5747;
374.7000;0.1579;0.5771;
375.0000;0.1604;0.5794;
375.3000;0.1604;0.5771;
375.6000;0.1538;0.5580;
375.9000;0.1587;0.5651;
376.2000;0.1595;0.5604;
376.5000;0.1587;0.5651;
376.8000;0.1595;0.5699;
377.1000;0.1579;0.5675;
377.4000;0.1563;0.5604;
377.7000;0.1571;0.5699;
378.0000;0.1636;0.5890;
378.3000;0.1587;0.5794;
378.6000;0.1571;0.5890;
378.9000;0.1538;0.5771;
379.2000;0.1604;0.5914;
379.5000;0.1587;0.5890;
379.8000;0.1652;0.6057;
380.1000;0.1595;0.5842;
380.4000;0.1579;0.5747;
380.7000;0.1579;0.5771;
381.0000;0.1538;0.5675;
381.3000;0.1604;0.5818;
381.6000;0.1538;0.5627;
381.9000;0.1587;0.5771;
382.2000;0.1571;0.5675;
382.5000;0.1612;0.5842;
382.8000;0.1587;0.5794;
383.1000;0.1579;0.5723;
383.4000;0.1604;0.5818;
383.7000;0.1571;0.5771;
384.0000;0.1604;0.5771;
384.3000;0.1587;0.5723;
384.6000;0.1563;0.5675;
384.9000;0.1595;0.5747;
385.2000;0.1587;0.5723;
385.5000;0.1579;0.5675;
385.8000;0.1563;0.5604;
386.1000;0.1587;0.5604;
386.4000;0.1612;0.5675;
386.7000;0.1604;0.5675;
387.0000;0.1595;0.5699;
387.3000;0.1579;0.5699;
387.6000;0.1587;0.5818;
387.9000;0.1571;0.5627;
388.2000;0.1579;0.5604;
388.5000;0.1579;0.5675;
388.8000;0.1579;0.5723;
389.1000;0.1604;0.5771;
389.4000;0.1604;0.5747;
389.7000;0.1612;0.5771;
390.0000;0.1620;0.5675;
390.3000;0.1579;0.5675;
390.6000;0.1595;0.5723;
390.9000;0.1595;0.5675;
391.2000;0.1595;0.5866;
391.5000;0.1555;0.5771;
391.8000;0.1587;0.5794;
392.1000;0.1579;0.5747;
392.4000;0.1579;0.5818;
392.7000;0.1579;0.5818;
393.0000;0.1514;0.5723;
393.3000;0.1571;0.5866;
393.6000;0.1595;0.5890;
393.9000;0.1595;0.5914;
394.2000;0.1604;0.5985;
394.5000;0.1636;0.6081;
394.8000;0.1595;0.5937;
395.1000;0.1669;0.6128;
395.4000;0.1587;0.5890;
395.7000;0.1587;0.5842;
396.0000;0.1587;0.5842;
396.3000;0.1587;0.5866;
396.6000;0.1587;0.5914;
396.9000;0.1579;0.5866;
397.2000;0.1587;0.5866;
397.5000;0.1587;0.5866;
397.8000;0.1579;0.5914;
398.1000;0.1693;0.6271;
398.4000;0.1571;0.6033;
398.7000;0.1604;0.5985;
399.0000;0.1587;0.5842;
399.3000;0.1595;0.5890;
399.6000;0.1587;0.5794;
399.9000;0.1571;0.5842;
400.2000;0.1579;0.5818;
400.5000;0.1579;0.5771;
400.8000;0.1571;0.5627;
401.1000;0.1587;0.5651;
401.4000;0.1587;0.5651;
401.7000;0.1587;0.5675;
402.0000;0.1587;0.5771;
402.3000;0.1587;0.5937;
402.6000;0.1563;0.5771;
402.9000;0.1587;0.5771;
403.2000;0.1620;0.5818;
403.5000;0.1571;0.5675;
403.8000;0.1547;0.5604;
404.1000;0.1595;0.5771;
404.4000;0.1547;0.5627;
404.7000;0.1579;0.5723;
405.0000;0.1595;0.5747;
405.3000;0.1595;0.5771;
405.6000;0.1652;0.5842;
405.9000;0.1628;0.5747;
406.2000;0.1612;0.5651;
406.5000;0.1571;0.5604;
406.8000;0.1595;0.5675;
407.1000;0.1595;0.5651;
407.4000;0.1595;0.5604;
407.7000;0.1595;0.5675;
408.0000;0.1587;0.5675;
408.3000;0.1595;0.5747;
408.6000;0.1579;0.5771;
408.9000;0.1595;0.5794;
409.2000;0.1587;0.5747;
409.5000;0.1579;0.5675;
409.8000;0.1595;0.5699;
410.1000;0.1571;0.5627;
410.4000;0.1579;0.5723;
410.7000;0.1587;0.5747;
411.0000;0.1571;0.5651;
411.3000;0.1587;0.5723;
411.6000;0.1587;0.5699;
411.9000;0.1595;0.5723;
412.2000;0.1677;0.5914;
412.5000;0.1571;0.5675;
412.8000;0.1563;0.5675;
413.1000;0.1604;0.5794;
413.4000;0.1595;0.5842;
413.7000;0.1538;0.5651;
414.0000;0.1636;0.5914;
414.3000;0.1595;0.5842;
414.6000;0.1555;0.5771;
414.9000;0.1604;0.5914;
415.2000;0.1595;0.5866;
415.5000;0.1579;0.5699;
415.8000;0.1604;0.5771;
416.1000;0.1579;0.5699;
416.4000;0.1587;0.5675;
416.7000;0.1587;0.5675;
417.0000;0.1538;0.5604;
417.3000;0.1604;0.5723;
417.6000;0.1587;0.5651;
417.9000;0.1563;0.5699;
418.2000;0.1628;0.5794;
418.5000;0.1579;0.5723;
418.8000;0.1612;0.5818;
419.1000;0.1563;0.5651;
419.4000;0.1604;0.5747;
419.7000;0.1612;0.5651;
420.0000;0.1587;0.5627;
420.3000;0.1604;0.5675;
420.6000;0.1587;0.5580;
420.9000;0.1579;0.5556;
421.2000;0.1612;0.5627;
421.5000;0.1604;0.5580;
421.8000;0.1579;0.5532;
422.1000;0.1547;0.5437;
422.4000;0.1604;0.5580;
422.7000;0.1579;0.5437;
423.0000;0.1571;0.5437;
423.3000;0.1604;0.5532;
423.6000;0.1579;0.5580;
423.9000;0.1587;0.5604;
424.2000;0.1579;0.5461;
424.5000;0.1587;0.5484;
424.8000;0.1595;0.5461;
425.1000;0.1579;0.5461;
425.4000;0.1563;0.5389;
425.7000;0.1571;0.5413;
426.0000;0.1595;0.5484;
426.3000;0.1587;0.5461;
426.6000;0.1587;0.5508;
426.9000;0.1652;0.5771;
427.2000;0.1595;0.5675;
427.5000;0.1587;0.5604;
427.8000;0.1595;0.5651;
428.1000;0.1563;0.5556;
428.4000;0.1612;0.5627;
428.7000;0.1587;0.5580;
429.0000;0.1555;0.5413;
429.3000;0.1604;0.5461;
429.6000;0.1547;0.5365;
429.9000;0.1595;0.5604;
430.2000;0.1595;0.5627;
430.5000;0.1530;0.5484;
430.8000;0.1571;0.5580;
431.1000;0.1604;0.5556;
431.4000;0.1595;0.5508;
431.7000;0.1571;0.5365;
432.0000;0.1587;0.5389;
432.3000;0.1579;0.5389;
432.6000;0.1579;0.5437;
432.9000;0.1563;0.5484;
433.2000;0.1587;0.5604;
433.5000;0.1587;0.5604;
433.8000;0.1595;0.5651;
434.1000;0.1587;0.5604;
434.4000;0.1595;0.5580;
434.7000;0.1595;0.5604;
435.0000;0.1758;0.6057;
435.3000;0.1604;0.5651;
435.6000;0.1579;0.5604;
435.9000;0.1563;0.5580;
436.2000;0.1530;0.5508;
436.5000;0.1563;0.5747;
436.8000;0.1571;0.5794;
437.1000;0.1587;0.5818;
437.4000;0.1579;0.5818;
437.7000;0.1571;0.5675;
438.0000;0.1547;0.5532;
438.3000;0.1587;0.5580;
438.6000;0.1571;0.5508;
438.9000;0.1555;0.5461;
439.2000;0.1595;0.5627;
439.5000;0.1604;0.5651;
439.8000;0.1595;0.5651;
440.1000;0.1587;0.5699;
440.4000;0.1595;0.5675;
440.7000;0.1620;0.5723;
441.0000;0.1563;0.5723;
441.3000;0.1587;0.5747;
441.6000;0.1538;0.5627;
441.9000;0.1595;0.5818;
442.2000;0.1571;0.5651;
442.5000;0.1636;0.5866;
442.8000;0.1587;0.5675;
443.1000;0.1587;0.5651;
443.4000;0.1571;0.5604;
443.7000;0.1604;0.5747;
444.0000;0.1595;0.5651;
444.3000;0.1579;0.5675;
444.6000;0.1612;0.5747;
444.9000;0.1587;0.5651;
445.2000;0.1571;0.5699;
445.5000;0.1612;0.5771;
445.8000;0.1604;0.5794;
446.1000;0.1595;0.5747;
446.4000;0.1595;0.5651;
446.7000;0.1587;0.5604;
447.0000;0.1587;0.5651;
447.3000;0.1563;0.5604;
447.6000;0.1587;0.5747;
447.9000;0.1481;0.5484;
448.2000;0.1595;0.5890;
448.5000;0.1587;0.5747;
448.8000;0.1563;0.5675;
449.1000;0.1587;0.5723;
449.4000;0.1587;0.5723;
449.7000;0.1604;0.5675;
450.0000;0.1563;0.5580;
450.3000;0.1571;0.5651;
450.6000;0.1587;0.5627;
450.9000;0.1677;0.5794;
451.2000;0.1579;0.5580;
451.5000;0.1612;0.5651;
451.8000;0.1604;0.5508;
452.1000;0.1595;0.5580;
452.4000;0.1571;0.5532;
452.7000;0.1563;0.5437;
453.0000;0.1571;0.5532;
453.3000;0.1587;0.5484;
453.6000;0.1669;0.5651;
453.9000;0.1563;0.5341;
454.2000;0.1579;0.5532;
454.5000;0.1636;0.5723;
454.8000;0.1571;0.5484;
455.1000;0.1555;0.5365;
455.4000;0.1563;0.5461;
455.7000;0.1587;0.5556;
456.0000;0.1547;0.5437;
456.3000;0.1579;0.5556;
456.6000;0.1595;0.5627;
456.9000;0.1595;0.5532;
457.2000;0.1595;0.5627;
457.5000;0.1604;0.5627;
457.8000;0.1579;0.5627;
458.1000;0.1571;0.5651;
458.4000;0.1449;0.5341;
458.7000;0.1595;0.5651;
459.0000;0.1563;0.5484;
459.3000;0.1587;0.5556;
459.6000;0.1571;0.5580;
459.9000;0.1595;0.5580;
460.2000;0.1587;0.5580;
460.5000;0.1612;0.5604;
460.8000;0.1587;0.5556;
461.1000;0.1571;0.5484;
461.4000;0.1579;0.5461;
461.7000;0.1636;0.5532;
462.0000;0.1571;0.5365;
462.3000;0.1579;0.5389;
462.6000;0.1563;0.5246;
462.9000;0.1587;0.5270;
463.2000;0.1579;0.5389;
463.5000;0.1587;0.5484;
463.8000;0.1563;0.5437;
464.1000;0.1571;0.5461;
464.4000;0.1604;0.5389;
464.7000;0.1579;0.5413;
465.0000;0.1498;0.5222;
465.3000;0.1587;0.5627;
465.6000;0.1571;0.5532;
465.9000;0.1595;0.5675;
466.2000;0.1587;0.5651;
466.5000;0.1604;0.5771;
466.8000;0.1595;0.5747;
467.1000;0.1530;0.5580;
467.4000;0.1587;0.5651;
467.7000;0.1587;0.5699;
468.0000;0.1555;0.5627;
468.3000;0.1490;0.5437;
468.6000;0.1563;0.5651;
468.9000;0.1579;0.5675;
469.2000;0.1693;0.5961;
469.5000;0.1579;0.5627;
469.8000;0.1595;0.5580;
470.1000;0.1563;0.5556;
470.4000;0.1595;0.5627;
470.7000;0.1587;0.5675;
471.0000;0.1595;0.5747;
471.3000;0.1587;0.5723;
471.6000;0.1579;0.5699;
471.9000;0.1579;0.5818;
472.2000;0.1604;0.5866;
472.5000;0.1587;0.5818;
472.8000;0.1473;0.5532;
473.1000;0.1628;0.5866;
473.4000;0.1595;0.5818;
473.7000;0.1595;0.5842;
474.0000;0.1571;0.5747;
474.3000;0.1604;0.5818;
474.6000;0.1547;0.5699;
474.9000;0.1563;0.5794;
475.2000;0.1579;0.5794;
475.5000;0.1595;0.5890;
475.8000;0.1530;0.5747;
476.1000;0.1579;0.5723;
476.4000;0.1604;0.5675;
476.7000;0.1587;0.5699;
477.0000;0.1652;0.5842;
477.3000;0.1579;0.5699;
477.6000;0.1595;0.5794;
477.9000;0.1595;0.5747;
478.2000;0.1595;0.5651;
478.5000;0.1571;0.5651;
478.8000;0.1595;0.5699;
479.1000;0.1595;0.5675;
479.4000;0.1595;0.5771;
479.7000;0.1563;0.5771;
480.0000;0.1571;0.5842;
480.3000;0.1579;0.5818;
480.6000;0.1587;0.5794;
480.9000;0.1595;0.5842;
481.2000;0.1628;0.5771;
481.5000;0.1595;0.5675;
481.8000;0.1620;0.5627;
482.1000;0.1587;0.5532;
482.4000;0.1538;0.5484;
482.7000;0.1538;0.5484;
483.0000;0.1595;0.5604;
483.3000;0.1587;0.5556;
483.6000;0.1620;0.5627;
483.9000;0.1595;0.5461;
484.2000;0.1612;0.5508;
484.5000;0.1595;0.5461;
484.8000;0.1571;0.5341;
485.1000;0.1506;0.5294;
485.4000;0.1579;0.5556;
485.7000;0.1604;0.5604;
486.0000;0.1595;0.5627;
486.3000;0.1595;0.5627;
486.6000;0.1579;0.5627;
486.9000;0.1604;0.5699;
487.2000;0.1579;0.5604;
487.5000;0.1563;0.5651;
487.8000;0.1579;0.5675;
488.1000;0.1595;0.5747;
488.4000;0.1595;0.5747;
488.7000;0.1595;0.5747;
489.0000;0.1587;0.5747;
489.3000;0.1571;0.5604;
489.6000;0.1612;0.5604;
489.9000;0.1579;0.5651;
490.2000;0.1538;0.5604;
490.5000;0.1595;0.5723;
490.8000;0.1587;0.5723;
491.1000;0.1685;0.5961;
491.4000;0.1579;0.5723;
491.7000;0.1441;0.5389;
492.0000;0.1604;0.5842;
492.3000;0.1587;0.5771;
492.6000;0.1579;0.5794;
492.9000;0.1579;0.5747;
493.2000;0.1571;0.5699;
493.5000;0.1612;0.5771;
493.8000;0.1612;0.5818;
494.1000;0.1579;0.5675;
494.4000;0.1587;0.5699;
494.7000;0.1604;0.5699;
495.0000;0.1612;0.5771;
495.3000;0.1595;0.5794;
495.6000;0.1644;0.5961;
495.9000;0.1587;0.5842;
496.2000;0.1595;0.5818;
496.5000;0.1555;0.5675;
496.8000;0.1595;0.5818;
497.1000;0.1595;0.5890;
497.4000;0.1530;0.5771;
497.7000;0.1595;0.5842;
498.0000;0.1563;0.5794;
498.3000;0.1579;0.5771;
498.6000;0.1579;0.5747;
498.9000;0.1604;0.5842;
499.2000;0.1587;0.5699;
499.5000;0.1514;0.5532;
499.8000;0.1604;0.5675;
500.1000;0.1595;0.5699;
500.4000;0.1481;0.5365;
500.7000;0.1612;0.5675;
501.0000;0.1579;0.5604;
501.3000;0.1612;0.5627;
501.6000;0.1579;0.5580;
501.9000;0.1571;0.5532;
502.2000;0.1563;0.5508;
502.5000;0.1604;0.5675;
502.8000;0.1636;0.5747;
503.1000;0.1604;0.5604;
503.4000;0.1555;0.5604;
503.7000;0.1571;0.5675;
504.0000;0.1612;0.5771;
504.3000;0.1579;0.5818;
504.6000;0.1579;0.5842;
504.9000;0.1595;0.5914;
505.2000;0.1587;0.5937;
505.5000;0.1604;0.5961;
505.8000;0.1571;0.5842;
506.1000;0.1612;0.5937;
506.4000;0.1522;0.5627;
506.7000;0.1612;0.5842;
507.0000;0.1587;0.5794;
507.3000;0.1595;0.5794;
507.6000;0.1604;0.5771;
507.9000;0.1595;0.5771;
508.2000;0.1595;0.5771;
508.5000;0.1604;0.5842;
508.8000;0.1604;0.5794;
509.1000;0.1677;0.5937;
509.4000;0.1587;0.5651;
509.7000;0.1481;0.5341;
510.0000;0.1604;0.5627;
510.3000;0.1595;0.5604;
510.6000;0.1595;0.5580;
510.9000;0.1652;0.5699;
511.2000;0.1579;0.5532;
511.5000;0.1604;0.5651;
511.8000;0.1620;0.5627;
512.1000;0.1579;0.5508;
512.4000;0.1587;0.5437;
512.7000;0.1587;0.5461;
513.0000;0.1604;0.5508;
513.3000;0.1595;0.5461;
513.6000;0.1579;0.5437;
513.9000;0.1587;0.5508;
514.2000;0.1652;0.5651;
514.5000;0.1579;0.5413;
514.8000;0.1587;0.5437;
515.1000;0.1587;0.5580;
515.4000;0.1530;0.5461;
515.7000;0.1726;0.5890;
516.0000;0.1595;0.5580;
516.3000;0.1522;0.5389;
516.6000;0.1604;0.5604;
516.9000;0.1579;0.5604;
517.2000;0.1604;0.5675;
517.5000;0.1587;0.5627;
517.8000;0.1563;0.5556;
518.1000;0.1571;0.5437;
518.4000;0.1604;0.5508;
518.7000;0.1579;0.5508;
519.0000;0.1547;0.5437;
519.3000;0.1604;0.5627;
519.6000;0.1587;0.5604;
519.9000;0.1563;0.5484;
520.2000;0.1595;0.5580;
520.5000;0.1612;0.5580;
520.8000;0.1563;0.5437;
521.1000;0.1587;0.5532;
521.4000;0.1604;0.5604;
521.7000;0.1595;0.5532;
522.0000;0.1571;0.5461;
522.3000;0.1595;0.5580;
522.6000;0.1595;0.5508;
522.9000;0.1571;0.5389;
523.2000;0.1563;0.5294;
523.5000;0.1595;0.5294;
523.8000;0.1579;0.5294;
524.1000;0.1595;0.5365;
524.4000;0.1661;0.5532;
524.7000;0.1604;0.5413;
525.0000;0.1571;0.5389;
525.3000;0.1595;0.5532;
525.6000;0.1587;0.5532;
525.9000;0.1595;0.5604;
526.2000;0.1604;0.5747;
526.5000;0.1595;0.5747;
526.8000;0.1571;0.5604;
527.1000;0.1587;0.5556;
527.4000;0.1604;0.5508;
527.7000;0.1587;0.5461;
528.0000;0.1547;0.5341;
528.3000;0.1620;0.5508;
528.6000;0.1612;0.5484;
528.9000;0.1579;0.5437;
529.2000;0.1612;0.5556;
529.5000;0.1571;0.5461;
529.8000;0.1604;0.5580;
530.1000;0.1620;0.5675;
530.4000;0.1587;0.5675;
530.7000;0.1571;0.5675;
531.0000;0.1538;0.5580;
531.3000;0.1571;0.5675;
531.6000;0.1604;0.5699;
531.9000;0.1571;0.5627;
532.2000;0.1587;0.5723;
532.5000;0.1473;0.5556;
532.8000;0.1579;0.5818;
533.1000;0.1530;0.5604;
533.4000;0.1595;0.5723;
533.7000;0.1620;0.5771;
534.0000;0.1595;0.5794;
534.3000;0.1587;0.5794;
534.6000;0.1563;0.5866;
534.9000;0.1612;0.6009;
535.2000;0.1579;0.5961;
535.5000;0.1636;0.6176;
535.8000;0.1604;0.6009;
536.1000;0.1612;0.5985;
536.4000;0.1604;0.5842;
536.7000;0.1595;0.5771;
537.0000;0.1571;0.5651;
537.3000;0.1595;0.5675;
537.6000;0.1612;0.5771;
537.9000;0.1579;0.5675;
538.2000;0.1571;0.5699;
538.5000;0.1587;0.5699;
538.8000;0.1604;0.5747;
539.1000;0.1628;0.5866;
539.4000;0.1595;0.5794;
539.7000;0.1514;0.5484;
540.0000;0.1587;0.5651;
540.3000;0.1587;0.5651;
540.6000;0.1563;0.5556;
540.9000;0.1547;0.5532;
541.2000;0.1595;0.5675;
541.5000;0.1587;0.5604;
541.8000;0.1514;0.5413;
542.1000;0.1612;0.5651;
542.4000;0.1579;0.5580;
542.7000;0.1579;0.5651;
543.0000;0.1652;0.5794;
543.3000;0.1587;0.5604;
543.6000;0.1555;0.5532;
543.9000;0.1587;0.5818;
544.2000;0.1604;0.5747;
544.5000;0.1595;0.5818;
544.8000;0.1595;0.5818;
545.1000;0.1587;0.5771;
545.4000;0.1579;0.5627;
545.7000;0.1522;0.5461;
546.0000;0.1530;0.5508;
546.3000;0.1579;0.5627;
546.6000;0.1669;0.5842;
546.9000;0.1661;0.5914;
547.2000;0.1579;0.5747;
547.5000;0.1571;0.5723;
547.8000;0.1612;0.5794;
548.1000;0.1604;0.5699;
548.4000;0.1571;0.5651;
548.7000;0.1669;0.5890;
549.0000;0.1530;0.5508;
549.3000;0.1620;0.5699;
549.6000;0.1612;0.5699;
549.9000;0.1669;0.5866;
550.2000;0.1563;0.5651;
550.5000;0.1579;0.5747;
550.8000;0.1579;0.5723;
551.1000;0.1579;0.5675;
551.4000;0.1587;0.5675;
551.7000;0.1595;0.5771;
552.0000;0.1579;0.5771;
552.3000;0.1555;0.5747;
552.6000;0.1587;0.5818;
552.9000;0.1579;0.5675;
553.2000;0.1579;0.5627;
553.5000;0.1579;0.5580;
553.8000;0.1595;0.5627;
554.1000;0.1579;0.5604;
554.4000;0.1530;0.5508;
554.7000;0.1595;0.5723;
555.0000;0.1685;0.5961;
555.3000;0.1579;0.5675;
555.6000;0.1604;0.5604;
555.9000;0.1595;0.5604;
556.2000;0.1612;0.5651;
556.5000;0.1571;0.5580;
556.8000;0.1595;0.5627;
557.1000;0.1604;0.5675;
557.4000;0.1587;0.5675;
557.7000;0.1587;0.5699;
558.0000;0.1579;0.5699;
558.3000;0.1604;0.5747;
558.6000;0.1604;0.5747;
558.9000;0.1587;0.5651;
559.2000;0.1595;0.5604;
559.5000;0.1604;0.5699;
559.8000;0.1612;0.5723;
560.1000;0.1587;0.5627;
560.4000;0.1595;0.5580;
560.7000;0.1595;0.5675;
561.0000;0.1604;0.5675;
561.3000;0.1595;0.5675;
561.6000;0.1612;0.5675;
561.9000;0.1579;0.5675;
562.2000;0.1587;0.5699;
562.5000;0.1571;0.5723;
562.8000;0.1620;0.5890;
563.1000;0.1604;0.5866;
563.4000;0.1563;0.5771;
563.7000;0.1652;0.5914;
564.0000;0.1563;0.5723;
564.3000;0.1579;0.5675;
564.6000;0.1620;0.5675;
564.9000;0.1595;0.5723;
565.2000;0.1571;0.5675;
565.5000;0.1571;0.5651;
565.8000;0.1595;0.5723;
566.1000;0.1604;0.5723;
566.4000;0.1522;0.5580;
566.7000;0.1604;0.5771;
567.0000;0.1538;0.5699;
567.3000;0.1604;0.5771;
567.6000;0.1579;0.5771;
567.9000;0.1595;0.5699;
568.2000;0.1579;0.5627;
568.5000;0.1636;0.5699;
568.8000;0.1595;0.5675;
569.1000;0.1547;0.5556;
569.4000;0.1538;0.5580;
569.7000;0.1595;0.5747;
570.0000;0.1652;0.5985;
570.3000;0.1595;0.5842;
570.6000;0.1620;0.5985;
570.9000;0.1563;0.5890;
571.2000;0.1571;0.5842;
571.5000;0.1595;0.5794;
571.8000;0.1604;0.5818;
572.1000;0.1595;0.5747;
572.4000;0.1571;0.5699;
572.7000;0.1555;0.5675;
573.0000;0.1644;0.5914;
573.3000;0.1579;0.5723;
573.6000;0.1587;0.5794;
573.9000;0.1579;0.5747;
574.2000;0.1636;0.5914;
574.5000;0.1571;0.5794;
574.8000;0.1563;0.5794;
575.1000;0.1612;0.5961;
575.4000;0.1449;0.5580;
575.7000;0.1571;0.5842;
576.0000;0.1587;0.5890;
576.3000;0.1595;0.5842;
576.6000;0.1726;0.6224;
576.9000;0.1579;0.5794;
577.2000;0.1555;0.5842;
577.5000;0.1579;0.5890;
577.8000;0.1604;0.5818;
578.1000;0.1587;0.5651;
578.4000;0.1595;0.5675;
578.7000;0.1538;0.5484;
579.0000;0.1604;0.5627;
579.3000;0.1587;0.5651;
579.6000;0.1587;0.5747;
579.9000;0.1587;0.5818;
580.2000;0.1604;0.5937;
580.5000;0.1579;0.5866;
580.8000;0.1530;0.5651;
581.1000;0.1612;0.5794;
581.4000;0.1587;0.5675;
581.7000;0.1579;0.5627;
582.0000;0.1579;0.5747;
582.3000;0.1661;0.5937;
582.6000;0.1547;0.5651;
582.9000;0.1587;0.5890;
583.2000;0.1595;0.5937;
583.5000;0.1587;0.6009;
583.8000;0.1595;0.6057;
584.1000;0.1587;0.6009;
584.4000;0.1587;0.6009;
584.7000;0.1579;0.5866;
585.0000;0.1547;0.5723;
585.3000;0.1620;0.5771;
585.6000;0.1604;0.5723;
585.9000;0.1579;0.5723;
586.2000;0.1652;0.5914;
586.5000;0.1595;0.5818;
586.8000;0.1587;0.5866;
587.1000;0.1555;0.5794;
587.4000;0.1579;0.5771;
587.7000;0.1595;0.5866;
588.0000;0.1604;0.5961;
588.3000;0.1595;0.5914;
588.6000;0.1595;0.5818;
588.9000;0.1571;0.5723;
589.2000;0.1571;0.5771;
589.5000;0.1571;0.5747;
589.8000;0.1571;0.5747;
590.1000;0.1620;0.5818;
590.4000;0.1563;0.5675;
590.7000;0.1685;0.6104;
591.0000;0.1587;0.5866;
591.3000;0.1563;0.5794;
591.6000;0.1636;0.6009;
591.9000;0.1563;0.5842;
592.2000;0.1595;0.5866;
592.5000;0.1636;0.5937;
592.8000;0.1563;0.5747;
593.1000;0.1579;0.5747;
593.4000;0.1538;0.5627;
593.7000;0.1555;0.5627;
594.0000;0.1652;0.5890;
594.3000;0.1579;0.5699;
594.6000;0.1661;0.5890;
594.9000;0.1571;0.5675;
595.2000;0.1579;0.5699;
595.5000;0.1571;0.5699;
595.8000;0.1514;0.5604;
596.1000;0.1579;0.5842;
596.4000;0.1563;0.5675;
596.7000;0.1587;0.5675;
597.0000;0.1628;0.5818;
597.3000;0.1595;0.5794;
597.6000;0.1571;0.5723;
597.9000;0.1595;0.5723;
598.2000;0.1595;0.5794;
598.5000;0.1595;0.5794;
598.8000;0.1595;0.5842;
599.1000;0.1612;0.5890;
599.4000;0.1563;0.5747;
599.7000;0.1620;0.5842;
600.0000;0.1579;0.5723;
600.3000;0.1571;0.5675;
600.6000;0.1587;0.5627;
600.9000;0.1555;0.5461;
601.2000;0.1490;0.5198;
601.5000;0.1538;0.5270;
601.8000;0.1563;0.5270;
602.1000;0.1563;0.5222;
602.4000;0.1571;0.5079;
602.7000;0.1547;0.4984;
603.0000;0.1555;0.4912;
603.3000;0.1555;0.4864;
603.6000;0.1555;0.4745;
603.9000;0.1538;0.4721;
604.2000;0.1522;0.4650;
604.5000;0.1571;0.4793;
604.8000;0.1538;0.4626;
605.1000;0.1628;0.4841;
605.4000;0.1530;0.4578;
605.7000;0.1538;0.4674;
606.0000;0.1498;0.4674;
606.3000;0.1481;0.4531;
606.6000;0.1514;0.4554;
606.9000;0.1514;0.4554;
607.2000;0.1547;0.4483;
607.5000;0.1514;0.4483;
607.8000;0.1547;0.4507;
608.1000;0.1514;0.4483;
608.4000;0.1530;0.4459;
608.7000;0.1506;0.4411;
609.0000;0.1538;0.4483;
609.3000;0.1514;0.4459;
609.6000;0.1522;0.4483;
609.9000;0.1530;0.4459;
610.2000;0.1514;0.4435;
610.5000;0.1490;0.4435;
610.8000;0.1547;0.4531;
611.1000;0.1538;0.4435;
611.4000;0.1530;0.4459;
611.7000;0.1522;0.4435;
612.0000;0.1506;0.4411;
612.3000;0.1530;0.4459;
612.6000;0.1498;0.4364;
612.9000;0.1433;0.4244;
613.2000;0.1522;0.4483;
613.5000;0.1506;0.4483;
613.8000;0.1481;0.4435;
614.1000;0.1481;0.4411;
614.4000;0.1530;0.4578;
614.7000;0.1490;0.4483;
615.0000;0.1506;0.4578;
615.3000;0.1522;0.4650;
615.6000;0.1498;0.4554;
615.9000;0.1457;0.4531;
616.2000;0.1514;0.4602;
616.5000;0.1473;0.4435;
616.8000;0.1498;0.4507;
617.1000;0.1481;0.4435;
617.4000;0.1490;0.4507;
617.7000;0.1514;0.4578;
618.0000;0.1490;0.4483;
618.3000;0.1490;0.4531;
618.6000;0.1506;0.4626;
618.9000;0.1530;0.4650;
619.2000;0.1498;0.4602;
619.5000;0.1571;0.4793;
619.8000;0.1498;0.4578;
620.1000;0.1490;0.4364;
620.4000;0.1587;0.4650;
620.7000;0.1490;0.4411;
621.0000;0.1506;0.4507;
621.3000;0.1473;0.4459;
621.6000;0.1498;0.4554;
621.9000;0.1514;0.4626;
622.2000;0.1587;0.4769;
622.5000;0.1506;0.4531;
622.8000;0.1522;0.4507;
623.1000;0.1555;0.4650;
623.4000;0.1506;0.4507;
623.7000;0.1490;0.4411;
624.0000;0.1490;0.4364;
624.3000;0.1506;0.4388;
624.6000;0.1481;0.4316;
624.9000;0.1514;0.4388;
625.2000;0.1465;0.4221;
625.5000;0.1506;0.4364;
625.8000;0.1490;0.4292;
626.1000;0.1490;0.4411;
626.4000;0.1506;0.4411;
626.7000;0.1498;0.4388;
627.0000;0.1514;0.4364;
627.3000;0.1490;0.4268;
627.6000;0.1506;0.4364;
627.9000;0.1506;0.4340;
628.2000;0.1481;0.4244;
628.5000;0.1473;0.4316;
628.8000;0.1522;0.4316;
629.1000;0.1555;0.4316;
629.4000;0.1498;0.4221;
629.7000;0.1514;0.4221;
630.0000;0.1498;0.4197;
630.3000;0.1530;0.4292;
630.6000;0.1490;0.4149;
630.9000;0.1473;0.4197;
631.2000;0.1498;0.4244;
631.5000;0.1498;0.4244;
631.8000;0.1498;0.4340;
632.1000;0.1457;0.4268;
632.4000;0.1506;0.4292;
632.7000;0.1481;0.4173;
633.0000;0.1522;0.4340;
633.3000;0.1490;0.4268;
633.6000;0.1473;0.4292;
633.9000;0.1498;0.4435;
634.2000;0.1506;0.4507;
634.5000;0.1490;0.4435;
634.8000;0.1498;0.4364;
635.1000;0.1522;0.4411;
635.4000;0.1481;0.4364;
635.7000;0.1522;0.4388;
636.0000;0.1522;0.4364;
636.3000;0.1498;0.4292;
636.6000;0.1514;0.4340;
636.9000;0.1506;0.4364;
637.2000;0.1522;0.4435;
637.5000;0.1473;0.4292;
637.8000;0.1514;0.4316;
638.1000;0.1425;0.4054;
638.4000;0.1498;0.4292;
638.7000;0.1490;0.4221;
639.0000;0.1473;0.4221;
639.3000;0.1506;0.4244;
639.6000;0.1498;0.4149;
639.9000;0.1498;0.4078;
640.2000;0.1490;0.4173;
640.5000;0.1490;0.4173;
640.8000;0.1465;0.4101;
641.1000;0.1498;0.4149;
641.4000;0.1498;0.4125;
641.7000;0.1506;0.4197;
642.0000;0.1506;0.4340;
642.3000;0.1498;0.4316;
642.6000;0.1481;0.4268;
642.9000;0.1498;0.4364;
643.2000;0.1498;0.4292;
643.5000;0.1490;0.4268;
643.8000;0.1490;0.4364;
644.1000;0.1490;0.4340;
644.4000;0.1522;0.4507;
644.7000;0.1490;0.4483;
645.0000;0.1498;0.4435;
645.3000;0.1481;0.4483;
645.6000;0.1514;0.4483;
645.9000;0.1514;0.4411;
646.2000;0.1473;0.4316;
646.5000;0.1514;0.4388;
646.8000;0.1498;0.4340;
647.1000;0.1481;0.4197;
647.4000;0.1465;0.4101;
647.7000;0.1506;0.4244;
648.0000;0.1425;0.4078;
648.3000;0.1449;0.4197;
648.6000;0.1481;0.4292;
648.9000;0.1465;0.4292;
649.2000;0.1481;0.4316;
649.5000;0.1481;0.4340;
649.8000;0.1530;0.4411;
650.1000;0.1481;0.4340;
650.4000;0.1481;0.4435;
650.7000;0.1490;0.4459;
651.0000;0.1490;0.4531;
651.3000;0.1498;0.4411;
651.6000;0.1506;0.4483;
651.9000;0.1481;0.4364;
652.2000;0.1481;0.4459;
652.5000;0.1522;0.4602;
652.8000;0.1490;0.4459;
653.1000;0.1490;0.4364;
653.4000;0.1514;0.4388;
653.7000;0.1490;0.4316;
654.0000;0.1522;0.4292;
654.3000;0.1481;0.4221;
654.6000;0.1481;0.4221;
654.9000;0.1481;0.4292;
655.2000;0.1481;0.4221;
655.5000;0.1481;0.4268;
655.8000;0.1514;0.4364;
656.1000;0.1473;0.4292;
656.4000;0.1481;0.4221;
656.7000;0.1498;0.4268;
657.0000;0.1498;0.4364;
657.3000;0.1481;0.4340;
657.6000;0.1498;0.4411;
657.9000;0.1473;0.4411;
658.2000;0.1522;0.4531;
658.5000;0.1473;0.4340;
658.8000;0.1506;0.4459;
659.1000;0.1481;0.4340;
659.4000;0.1473;0.4292;
659.7000;0.1490;0.4244;
660.0000;0.1498;0.4244;
660.3000;0.1514;0.4316;
660.6000;0.1481;0.4221;
660.9000;0.1441;0.4125;
661.2000;0.1514;0.4388;
661.5000;0.1514;0.4316;
661.8000;0.1433;0.4054;
662.1000;0.1400;0.3982;
662.4000;0.1506;0.4221;
662.7000;0.1498;0.4221;
663.0000;0.1506;0.4197;
663.3000;0.1490;0.4149;
663.6000;0.1579;0.4292;
663.9000;0.1384;0.3791;
664.2000;0.1490;0.4054;
664.5000;0.1473;0.3934;
664.8000;0.1481;0.3982;
665.1000;0.1433;0.3839;
665.4000;0.1498;0.3982;
665.7000;0.1481;0.3958;
666.0000;0.1481;0.4006;
666.3000;0.1473;0.4006;
666.6000;0.1506;0.4125;
666.9000;0.1498;0.4173;
667.2000;0.1481;0.4101;
667.5000;0.1490;0.4101;
667.8000;0.1506;0.4030;
668.1000;0.1498;0.4101;
668.4000;0.1514;0.4173;
668.7000;0.1661;0.4554;
669.0000;0.1506;0.4125;
669.3000;0.1506;0.4078;
669.6000;0.1433;0.3934;
669.9000;0.1522;0.4125;
670.2000;0.1538;0.4197;
670.5000;0.1514;0.4149;
670.8000;0.1473;0.4101;
671.1000;0.1481;0.4197;
671.4000;0.1473;0.4268;
671.7000;0.1498;0.4316;
672.0000;0.1538;0.4554;
672.3000;0.1481;0.4411;
672.6000;0.1359;0.4101;
672.9000;0.1498;0.4483;
673.2000;0.1506;0.4483;
673.5000;0.1490;0.4340;
673.8000;0.1473;0.4268;
674.1000;0.1514;0.4364;
674.4000;0.1498;0.4340;
674.7000;0.1522;0.4388;
675.0000;0.1506;0.4364;
675.3000;0.1498;0.4268;
675.6000;0.1506;0.4292;
675.9000;0.1522;0.4411;
676.2000;0.1498;0.4340;
676.5000;0.1514;0.4364;
676.8000;0.1481;0.4244;
677.1000;0.1555;0.4316;
677.4000;0.1506;0.4244;
677.7000;0.1457;0.4054;
678.0000;0.1490;0.4149;
678.3000;0.1481;0.4030;
678.6000;0.1579;0.4244;
678.9000;0.1465;0.4030;
679.2000;0.1498;0.4149;
679.5000;0.1498;0.4244;
679.8000;0.1547;0.4388;
680.1000;0.1481;0.4173;
680.4000;0.1514;0.4221;
680.7000;0.1498;0.4197;
681.0000;0.1514;0.4340;
681.3000;0.1481;0.4101;
681.6000;0.1359;0.3887;
681.9000;0.1498;0.4244;
682.2000;0.1514;0.4316;
682.5000;0.1481;0.4244;
682.8000;0.1465;0.4149;
683.1000;0.1498;0.4054;
683.4000;0.1465;0.4030;
683.7000;0.1490;0.4078;
684.0000;0.1490;0.4101;
684.3000;0.1498;0.4054;
684.6000;0.1490;0.4078;
684.9000;0.1498;0.4101;
685.2000;0.1473;0.4030;
685.5000;0.1555;0.4340;
685.8000;0.1514;0.4197;
686.1000;0.1433;0.3911;
686.4000;0.1490;0.4078;
686.7000;0.1490;0.4078;
687.0000;0.1425;0.3887;
687.3000;0.1490;0.4149;
687.6000;0.1498;0.4221;
687.9000;0.1425;0.4030;
688.2000;0.1490;0.4221;
688.5000;0.1612;0.4554;
688.8000;0.1514;0.4411;
689.1000;0.1490;0.4268;
689.4000;0.1490;0.4149;
689.7000;0.1514;0.4173;
690.0000;0.1514;0.4101;
690.3000;0.1514;0.4149;
690.6000;0.1465;0.4006;
690.9000;0.1490;0.4054;
691.2000;0.1457;0.3911;
691.5000;0.1506;0.4030;
691.8000;0.1498;0.3934;
692.1000;0.1473;0.3887;
692.4000;0.1498;0.4054;
692.7000;0.1481;0.4101;
693.0000;0.1473;0.4054;
693.3000;0.1481;0.4101;
693.6000;0.1490;0.4149;
693.9000;0.1481;0.4197;
694.2000;0.1563;0.4459;
694.5000;0.1481;0.4197;
694.8000;0.1473;0.4197;
695.1000;0.1481;0.4197;
695.4000;0.1481;0.4149;
695.7000;0.1498;0.4221;
696.0000;0.1498;0.4197;
696.3000;0.1506;0.4173;
696.6000;0.1473;0.4054;
696.9000;0.1498;0.4054;
697.2000;0.1490;0.4054;
697.5000;0.1514;0.4125;
697.8000;0.1473;0.4054;
698.1000;0.1490;0.4078;
698.4000;0.1481;0.4078;
698.7000;0.1490;0.4078;
699.0000;0.1498;0.4078;
699.3000;0.1441;0.3934;
699.6000;0.1473;0.4149;
699.9000;0.1481;0.4101;
700.2000;0.1384;0.3839;
700.5000;0.1498;0.4149;
700.8000;0.1514;0.4173;
701.1000;0.1481;0.4125;
701.4000;0.1490;0.4125;
701.7000;0.1555;0.4173;
702.0000;0.1408;0.3839;
702.3000;0.1359;0.3696;
702.6000;0.1490;0.3958;
702.9000;0.1530;0.4078;
703.2000;0.1473;0.4006;
703.5000;0.1481;0.4054;
703.8000;0.1425;0.3887;
704.1000;0.1490;0.4030;
704.4000;0.1490;0.4125;
704.7000;0.1368;0.3791;
705.0000;0.1481;0.4078;
705.3000;0.1538;0.4292;
705.6000;0.1514;0.4292;
705.9000;0.1481;0.4244;
706.2000;0.1481;0.4244;
706.5000;0.1465;0.4244;
706.8000;0.1490;0.4340;
707.1000;0.1457;0.4221;
707.4000;0.1465;0.4292;
707.7000;0.1522;0.4388;
708.0000;0.1514;0.4292;
708.3000;0.1514;0.4316;
708.6000;0.1473;0.4221;
708.9000;0.1473;0.4221;
709.2000;0.1498;0.4221;
709.5000;0.1481;0.4197;
709.8000;0.1457;0.4125;
710.1000;0.1465;0.4125;
710.4000;0.1538;0.4411;
710.7000;0.1498;0.4292;
711.0000;0.1473;0.4197;
711.3000;0.1498;0.4244;
711.6000;0.1490;0.4221;
711.9000;0.1514;0.4268;
712.2000;0.1481;0.4149;
712.5000;0.1490;0.4149;
712.8000;0.1490;0.4125;
713.1000;0.1473;0.4054;
713.4000;0.1498;0.4173;
713.7000;0.1490;0.4149;
714.0000;0.1481;0.4101;
714.3000;0.1490;0.4149;
714.6000;0.1514;0.4173;
714.9000;0.1473;0.4125;
715.2000;0.1538;0.4388;
715.5000;0.1498;0.4197;
715.8000;0.1481;0.4221;
716.1000;0.1481;0.4244;
716.4000;0.1457;0.4173;
716.7000;0.1490;0.4268;
717.0000;0.1506;0.4411;
717.3000;0.1506;0.4411;
717.6000;0.1457;0.4244;
717.9000;0.1498;0.4292;
718.2000;0.1368;0.3982;
718.5000;0.1465;0.4149;
718.8000;0.1538;0.4340;
719.1000;0.1490;0.4149;
719.4000;0.1490;0.4221;
719.7000;0.1481;0.4197;
720.0000;0.1473;0.4197;
720.3000;0.1490;0.4197;
720.6000;0.1449;0.4125;
720.9000;0.1587;0.4364;
721.2000;0.1433;0.3934;
721.5000;0.1498;0.4101;
721.8000;0.1555;0.4244;
722.1000;0.1490;0.4125;
722.4000;0.1498;0.4173;
722.7000;0.1490;0.4149;
723.0000;0.1465;0.4006;
723.3000;0.1514;0.4078;
723.6000;0.1465;0.4006;
723.9000;0.1481;0.4006;
724.2000;0.1555;0.4221;
724.5000;0.1506;0.4078;
724.8000;0.1506;0.4125;
725.1000;0.1473;0.4030;
725.4000;0.1490;0.4054;
725.7000;0.1490;0.4078;
726.0000;0.1481;0.3958;
726.3000;0.1522;0.4101;
726.6000;0.1481;0.4006;
726.9000;0.1473;0.3934;
727.2000;0.1433;0.3863;
727.5000;0.1498;0.4054;
727.8000;0.1465;0.4030;
728.1000;0.1498;0.4054;
728.4000;0.1506;0.4149;
728.7000;0.1368;0.3958;
729.0000;0.1555;0.4340;
729.3000;0.1465;0.4125;
729.6000;0.1522;0.4268;
729.9000;0.1490;0.4197;
730.2000;0.1498;0.4197;
730.5000;0.1481;0.4221;
730.8000;0.1490;0.4197;
731.1000;0.1481;0.4173;
731.4000;0.1498;0.4125;
731.7000;0.1506;0.4078;
732.0000;0.1547;0.4221;
732.3000;0.1481;0.4054;
732.6000;0.1465;0.4078;
732.9000;0.1506;0.4125;
733.2000;0.1498;0.4149;
733.5000;0.1490;0.4125;
733.8000;0.1490;0.4125;
734.1000;0.1498;0.3982;
734.4000;0.1498;0.3982;
734.7000;0.1522;0.4101;
735.0000;0.1481;0.4054;
735.3000;0.1506;0.4030;
735.6000;0.1473;0.4054;
735.9000;0.1514;0.4268;
736.2000;0.1490;0.4244;
736.5000;0.1481;0.4197;
736.8000;0.1530;0.4268;
737.1000;0.1465;0.3982;
737.4000;0.1490;0.4149;
737.7000;0.1514;0.4292;
738.0000;0.1498;0.4197;
738.3000;0.1490;0.4221;
738.6000;0.1457;0.4054;
738.9000;0.1506;0.4221;
739.2000;0.1636;0.4554;
739.5000;0.1490;0.4244;
739.8000;0.1506;0.4268;
740.1000;0.1425;0.4030;
740.4000;0.1530;0.4244;
740.7000;0.1490;0.4101;
741.0000;0.1506;0.4197;
741.3000;0.1425;0.4006;
741.6000;0.1490;0.4221;
741.9000;0.1506;0.4292;
742.2000;0.1506;0.4340;
742.5000;0.1498;0.4292;
742.8000;0.1498;0.4292;
743.1000;0.1490;0.4292;
743.4000;0.1490;0.4316;
743.7000;0.1498;0.4292;
744.0000;0.1506;0.4316;
744.3000;0.1498;0.4292;
744.6000;0.1457;0.4101;
744.9000;0.1490;0.4149;
745.2000;0.1498;0.4173;
745.5000;0.1498;0.4268;
745.8000;0.1457;0.4197;
746.1000;0.1490;0.4268;
746.4000;0.1490;0.4221;
746.7000;0.1514;0.4316;
747.0000;0.1498;0.4316;
747.3000;0.1481;0.4268;
747.6000;0.1481;0.4244;
747.9000;0.1514;0.4340;
748.2000;0.1490;0.4244;
748.5000;0.1481;0.4125;
748.8000;0.1449;0.3958;
749.1000;0.1490;0.4054;
749.4000;0.1522;0.4197;
749.7000;0.1481;0.4173;
750.0000;0.1498;0.4149;
750.3000;0.1498;0.4101;
750.6000;0.1490;0.4078;
750.9000;0.1506;0.4125;
751.2000;0.1506;0.4149;
751.5000;0.1498;0.4125;
751.8000;0.1498;0.4101;
752.1000;0.1498;0.4125;
752.4000;0.1490;0.4125;
752.7000;0.1433;0.4101;
753.0000;0.1457;0.4149;
753.3000;0.1490;0.4244;
753.6000;0.1473;0.4173;
753.9000;0.1384;0.3911;
754.2000;0.1481;0.4101;
754.5000;0.1449;0.3982;
754.8000;0.1498;0.3958;
755.1000;0.1506;0.4030;
755.4000;0.1481;0.3982;
755.7000;0.1506;0.4149;
756.0000;0.1490;0.4149;
756.3000;0.1490;0.4221;
756.6000;0.1449;0.4006;
756.9000;0.1522;0.4173;
757.2000;0.1506;0.4125;
757.5000;0.1490;0.4125;
757.8000;0.1490;0.4149;
758.1000;0.1481;0.4173;
758.4000;0.1408;0.3911;
758.7000;0.1506;0.4101;
759.0000;0.1481;0.4101;
759.3000;0.1473;0.4149;
759.6000;0.1473;0.4125;
759.9000;0.1481;0.4125;
760.2000;0.1473;0.4149;
760.5000;0.1481;0.4101;
760.8000;0.1498;0.4197;
761.1000;0.1490;0.4101;
761.4000;0.1514;0.4149;
761.7000;0.1506;0.4101;
762.0000;0.1490;0.4101;
762.3000;0.1473;0.4101;
762.6000;0.1457;0.4054;
762.9000;0.1481;0.4173;
763.2000;0.1498;0.4316;
763.5000;0.1506;0.4316;
763.8000;0.1490;0.4268;
764.1000;0.1465;0.4221;
764.4000;0.1514;0.4388;
764.7000;0.1506;0.4316;
765.0000;0.1506;0.4364;
765.3000;0.1490;0.4244;
765.6000;0.1481;0.4173;
765.9000;0.1457;0.4173;
766.2000;0.1449;0.4149;
766.5000;0.1490;0.4149;
766.8000;0.1530;0.4244;
767.1000;0.1481;0.4173;
767.4000;0.1481;0.4173;
767.7000;0.1514;0.4292;
768.0000;0.1473;0.4173;
768.3000;0.1514;0.4221;
768.6000;0.1498;0.4101;
768.9000;0.1522;0.4197;
769.2000;0.1506;0.4125;
769.5000;0.1490;0.4030;
769.8000;0.1490;0.4054;
770.1000;0.1490;0.4006;
770.4000;0.1473;0.4030;
770.7000;0.1506;0.4125;
771.0000;0.1506;0.4125;
771.3000;0.1490;0.4054;
771.6000;0.1473;0.4006;
771.9000;0.1490;0.4054;
772.2000;0.1481;0.4125;
772.5000;0.1506;0.4221;
772.8000;0.1506;0.4388;
773.1000;0.1481;0.4292;
773.4000;0.1473;0.4435;
773.7000;0.1506;0.4483;
774.0000;0.1498;0.4435;
774.3000;0.1498;0.4459;
774.6000;0.1490;0.4483;
774.9000;0.1506;0.4435;
775.2000;0.1490;0.4364;
775.5000;0.1490;0.4340;
775.8000;0.1514;0.4388;
776.1000;0.1514;0.4411;
776.4000;0.1490;0.4316;
776.7000;0.1514;0.4316;
777.0000;0.1514;0.4388;
777.3000;0.1490;0.4316;
777.6000;0.1481;0.4316;
777.9000;0.1555;0.4411;
778.2000;0.1522;0.4292;
778.5000;0.1400;0.3982;
778.8000;0.1498;0.4173;
779.1000;0.1498;0.4125;
779.4000;0.1481;0.4054;
779.7000;0.1514;0.4197;
780.0000;0.1441;0.4006;
780.3000;0.1506;0.4173;
780.6000;0.1473;0.4221;
780.9000;0.1490;0.4197;
781.2000;0.1473;0.4173;
781.5000;0.1538;0.4268;
781.8000;0.1408;0.3982;
782.1000;0.1514;0.4388;
782.4000;0.1481;0.4268;
782.7000;0.1604;0.4411;
783.0000;0.1490;0.4125;
783.3000;0.1481;0.4125;
783.6000;0.1351;0.3744;
783.9000;0.1457;0.4078;
784.2000;0.1498;0.4173;
784.5000;0.1490;0.4149;
784.8000;0.1481;0.4101;
785.1000;0.1522;0.4173;
785.4000;0.1498;0.4173;
785.7000;0.1490;0.4149;
786.0000;0.1498;0.4197;
786.3000;0.1481;0.4173;
786.6000;0.1473;0.4149;
786.9000;0.1490;0.4340;
787.2000;0.1481;0.4340;
787.5000;0.1481;0.4244;
787.8000;0.1490;0.4244;
788.1000;0.1490;0.4244;
788.4000;0.1490;0.4268;
788.7000;0.1498;0.4340;
789.0000;0.1481;0.4411;
789.3000;0.1441;0.4292;
789.6000;0.1506;0.4388;
789.9000;0.1481;0.4411;
790.2000;0.1481;0.4459;
790.5000;0.1506;0.4435;
790.8000;0.1506;0.4411;
791.1000;0.1514;0.4459;
791.4000;0.1490;0.4364;
791.7000;0.1481;0.4244;
792.0000;0.1498;0.4316;
792.3000;0.1490;0.4340;
792.6000;0.1490;0.4364;
792.9000;0.1473;0.4244;
793.2000;0.1481;0.4268;
793.5000;0.1498;0.4268;
793.8000;0.1595;0.4483;
794.1000;0.1481;0.4125;
794.4000;0.1498;0.4125;
794.7000;0.1481;0.4078;
795.0000;0.1490;0.4054;
795.3000;0.1473;0.4054;
795.6000;0.1473;0.4149;
795.9000;0.1490;0.4221;
796.2000;0.1465;0.4149;
796.5000;0.1490;0.4173;
796.8000;0.1538;0.4411;
797.1000;0.1490;0.4244;
797.4000;0.1506;0.4197;
797.7000;0.1498;0.4268;
798.0000;0.1490;0.4268;
798.3000;0.1490;0.4316;
798.6000;0.1506;0.4388;
798.9000;0.1465;0.4268;
799.2000;0.1481;0.4244;
799.5000;0.1490;0.4292;
799.8000;0.1514;0.4435;
800.1000;0.1457;0.4221;
800.4000;0.1490;0.4292;
800.7000;0.1490;0.4244;
801.0000;0.1490;0.4244;
801.3000;0.1490;0.4316;
801.6000;0.1473;0.4388;
801.9000;0.1514;0.4435;
802.2000;0.1506;0.4340;
802.5000;0.1498;0.4316;
802.8000;0.1604;0.4483;
803.1000;0.1481;0.4149;
803.4000;0.1490;0.4173;
803.7000;0.1498;0.4221;
804.0000;0.1514;0.4292;
804.3000;0.1473;0.4149;
804.6000;0.1506;0.4197;
804.9000;0.1490;0.4173;
805.2000;0.1457;0.4054;
805.5000;0.1465;0.4101;
805.8000;0.1490;0.4125;
806.1000;0.1498;0.4197;
806.4000;0.1498;0.4125;
806.7000;0.1481;0.4125;
807.0000;0.1498;0.4197;
807.3000;0.1490;0.4221;
807.6000;0.1490;0.4244;
807.9000;0.1522;0.4316;
808.2000;0.1473;0.4244;
808.5000;0.1498;0.4292;
808.8000;0.1481;0.4316;
809.1000;0.1506;0.4364;
809.4000;0.1481;0.4316;
809.7000;0.1465;0.4316;
810.0000;0.1506;0.4340;
810.3000;0.1506;0.4364;
810.6000;0.1481;0.4244;
810.9000;0.1433;0.4078;
811.2000;0.1449;0.4125;
811.5000;0.1506;0.4292;
811.8000;0.1490;0.4244;
812.1000;0.1514;0.4268;
812.4000;0.1514;0.4292;
812.7000;0.1498;0.4316;
813.0000;0.1490;0.4197;
813.3000;0.1449;0.4125;
813.6000;0.1498;0.4173;
813.9000;0.1481;0.4125;
814.2000;0.1514;0.4244;
814.5000;0.1498;0.4292;
814.8000;0.1433;0.4101;
815.1000;0.1490;0.4244;
815.4000;0.1481;0.4173;
815.7000;0.1498;0.4125;
816.0000;0.1490;0.4101;
816.3000;0.1506;0.4149;
816.6000;0.1473;0.4221;
816.9000;0.1506;0.4340;
817.2000;0.1481;0.4316;
817.5000;0.1506;0.4316;
817.8000;0.1481;0.4244;
818.1000;0.1441;0.4173;
818.4000;0.1490;0.4388;
818.7000;0.1498;0.4483;
819.0000;0.1555;0.4650;
819.3000;0.1481;0.4435;
819.6000;0.1506;0.4364;
819.9000;0.1457;0.4197;
820.2000;0.1498;0.4268;
820.5000;0.1514;0.4340;
820.8000;0.1498;0.4268;
821.1000;0.1498;0.4316;
821.4000;0.1481;0.4340;
821.7000;0.1506;0.4388;
822.0000;0.1473;0.4292;
822.3000;0.1506;0.4411;
822.6000;0.1547;0.4435;
822.9000;0.1490;0.4340;
823.2000;0.1490;0.4364;
823.5000;0.1481;0.4388;
823.8000;0.1481;0.4364;
824.1000;0.1490;0.4340;
824.4000;0.1473;0.4316;
824.7000;0.1473;0.4292;
825.0000;0.1498;0.4292;
825.3000;0.1473;0.4221;
825.6000;0.1473;0.4078;
825.9000;0.1481;0.4101;
826.2000;0.1441;0.4006;
826.5000;0.1481;0.4125;
826.8000;0.1490;0.4173;
827.1000;0.1473;0.4221;
827.4000;0.1490;0.4197;
827.7000;0.1538;0.4316;
828.0000;0.1514;0.4292;
828.3000;0.1457;0.4197;
828.6000;0.1522;0.4435;
828.9000;0.1498;0.4411;
829.2000;0.1506;0.4388;
829.5000;0.1506;0.4435;
829.8000;0.1514;0.4459;
830.1000;0.1490;0.4340;
830.4000;0.1490;0.4244;
830.7000;0.1457;0.3982;
831.0000;0.1481;0.4006;
831.3000;0.1538;0.4101;
831.6000;0.1604;0.4388;
831.9000;0.1481;0.4054;
832.2000;0.1457;0.4078;
832.5000;0.1490;0.4149;
832.8000;0.1490;0.4221;
833.1000;0.1490;0.4149;
833.4000;0.1579;0.4364;
833.7000;0.1498;0.4149;
834.0000;0.1506;0.4149;
834.3000;0.1506;0.4125;
834.6000;0.1506;0.4149;
834.9000;0.1481;0.4030;
835.2000;0.1555;0.4292;
835.5000;0.1457;0.4030;
835.8000;0.1506;0.4221;
836.1000;0.1522;0.4388;
836.4000;0.1425;0.4101;
836.7000;0.1498;0.4316;
837.0000;0.1433;0.4125;
837.3000;0.1490;0.4244;
837.6000;0.1490;0.4244;
837.9000;0.1481;0.4340;
838.2000;0.1498;0.4411;
838.5000;0.1490;0.4435;
838.8000;0.1506;0.4435;
839.1000;0.1473;0.4292;
839.4000;0.1481;0.4292;
839.7000;0.1522;0.4316;
840.0000;0.1481;0.4244;
840.3000;0.1473;0.4221;
840.6000;0.1433;0.4173;
840.9000;0.1506;0.4388;
841.2000;0.1498;0.4340;
841.5000;0.1490;0.4221;
841.8000;0.1457;0.4197;
842.1000;0.1498;0.4316;
842.4000;0.1490;0.4244;
842.7000;0.1530;0.4316;
843.0000;0.1538;0.4268;
843.3000;0.1490;0.4197;
843.6000;0.1522;0.4340;
843.9000;0.1587;0.4411;
844.2000;0.1481;0.4197;
844.5000;0.1522;0.4173;
844.8000;0.1522;0.4173;
845.1000;0.1506;0.4078;
845.4000;0.1514;0.4197;
845.7000;0.1490;0.4149;
846.0000;0.1506;0.4173;
846.3000;0.1498;0.4006;
846.6000;0.1506;0.4054;
846.9000;0.1481;0.3958;
847.2000;0.1490;0.3934;
847.5000;0.1481;0.3911;
847.8000;0.1498;0.3934;
848.1000;0.1490;0.3887;
848.4000;0.1465;0.3791;
848.7000;0.1481;0.3911;
849.0000;0.1498;0.4030;
849.3000;0.1490;0.4030;
849.6000;0.1481;0.4078;
849.9000;0.1490;0.4054;
850.2000;0.1481;0.4054;
850.5000;0.1498;0.4125;
850.8000;0.1465;0.4054;
851.1000;0.1416;0.3911;
851.4000;0.1465;0.4030;
851.7000;0.1490;0.4101;
852.0000;0.1490;0.4054;
852.3000;0.1506;0.4078;
852.6000;0.1522;0.4173;
852.9000;0.1481;0.4078;
853.2000;0.1481;0.4078;
853.5000;0.1563;0.4268;
853.8000;0.1498;0.4101;
854.1000;0.1498;0.4149;
854.4000;0.1490;0.4125;
854.7000;0.1498;0.4149;
855.0000;0.1514;0.4149;
855.3000;0.1522;0.4221;
855.6000;0.1481;0.4101;
855.9000;0.1506;0.4101;
856.2000;0.1506;0.4197;
856.5000;0.1506;0.4197;
856.8000;0.1514;0.4221;
857.1000;0.1506;0.4197;
857.4000;0.1465;0.4078;
857.7000;0.1530;0.4244;
858.0000;0.1498;0.4221;
858.3000;0.1498;0.4292;
858.6000;0.1376;0.4030;
858.9000;0.1481;0.4316;
859.2000;0.1311;0.3791;
859.5000;0.1481;0.4221;
859.8000;0.1481;0.4268;
860.1000;0.1425;0.4197;
860.4000;0.1506;0.4364;
860.7000;0.1506;0.4411;
861.0000;0.1563;0.4554;
861.3000;0.1490;0.4292;
861.6000;0.1481;0.4244;
861.9000;0.1465;0.4149;
862.2000;0.1522;0.4221;
862.5000;0.1490;0.4149;
862.8000;0.1465;0.4078;
863.1000;0.1498;0.4006;
863.4000;0.1506;0.4054;
863.7000;0.1351;0.3696;
864.0000;0.1465;0.3958;
864.3000;0.1481;0.3982;
864.6000;0.1498;0.4101;
864.9000;0.1498;0.4101;
865.2000;0.1490;0.4054;
865.5000;0.1514;0.4149;
865.8000;0.1506;0.4149;
866.1000;0.1481;0.4101;
866.4000;0.1490;0.4054;
866.7000;0.1490;0.4078;
867.0000;0.1530;0.4244;
867.3000;0.1465;0.4149;
867.6000;0.1473;0.4173;
867.9000;0.1457;0.4125;
868.2000;0.1514;0.4292;
868.5000;0.1498;0.4221;
868.8000;0.1465;0.4221;
869.1000;0.1490;0.4173;
869.4000;0.1514;0.4221;
869.7000;0.1449;0.4078;
870.0000;0.1490;0.4173;
870.3000;0.1490;0.4149;
870.6000;0.1498;0.4244;
870.9000;0.1530;0.4340;
871.2000;0.1457;0.4197;
871.5000;0.1481;0.4221;
871.8000;0.1498;0.4173;
872.1000;0.1604;0.4388;
872.4000;0.1498;0.4149;
872.7000;0.1514;0.4173;
873.0000;0.1506;0.4197;
873.3000;0.1498;0.4101;
873.6000;0.1506;0.4054;
873.9000;0.1473;0.4054;
874.2000;0.1368;0.3768;
874.5000;0.1490;0.4030;
874.8000;0.1498;0.4078;
875.1000;0.1514;0.4078;
875.4000;0.1490;0.4006;
875.7000;0.1457;0.4006;
876.0000;0.1490;0.4125;
876.3000;0.1506;0.4149;
876.6000;0.1498;0.4101;
876.9000;0.1416;0.3863;
877.2000;0.1538;0.4221;
877.5000;0.1481;0.4125;
877.8000;0.1490;0.4197;
878.1000;0.1490;0.4197;
878.4000;0.1498;0.4268;
878.7000;0.1490;0.4125;
879.0000;0.1481;0.4149;
879.3000;0.1481;0.4149;
879.6000;0.1498;0.4197;
879.9000;0.1506;0.4244;
880.2000;0.1555;0.4364;
880.5000;0.1416;0.4006;
880.8000;0.1481;0.4221;
881.1000;0.1490;0.4244;
881.4000;0.1498;0.4244;
881.7000;0.1506;0.4244;
882.0000;0.1490;0.4173;
882.3000;0.1506;0.4221;
882.6000;0.1506;0.4197;
882.9000;0.1481;0.4197;
883.2000;0.1449;0.4078;
883.5000;0.1490;0.4173;
883.8000;0.1490;0.4173;
884.1000;0.1473;0.4125;
884.4000;0.1465;0.4101;
884.7000;0.1465;0.4125;
885.0000;0.1490;0.4173;
885.3000;0.1481;0.4054;
885.6000;0.1490;0.4078;
885.9000;0.1481;0.4054;
886.2000;0.1481;0.4125;
886.5000;0.1506;0.4149;
886.8000;0.1498;0.4078;
887.1000;0.1498;0.4101;
887.4000;0.1506;0.4125;
887.7000;0.1514;0.4173;
888.0000;0.1368;0.3839;
888.3000;0.1498;0.4173;
888.6000;0.1498;0.4221;
888.9000;0.1522;0.4197;
889.2000;0.1490;0.4125;
889.5000;0.1490;0.4149;
889.8000;0.1441;0.4030;
890.1000;0.1506;0.4125;
890.4000;0.1506;0.4078;
890.7000;0.1457;0.3982;
891.0000;0.1473;0.4101;
891.3000;0.1473;0.4078;
891.6000;0.1498;0.4078;
891.9000;0.1481;0.4054;
892.2000;0.1481;0.4054;
892.5000;0.1481;0.4030;
892.8000;0.1514;0.4125;
893.1000;0.1473;0.4006;
893.4000;0.1498;0.3958;
893.7000;0.1506;0.3982;
894.0000;0.1481;0.3934;
894.3000;0.1506;0.3911;
894.6000;0.1490;0.3863;
894.9000;0.1522;0.4006;
895.2000;0.1506;0.4006;
895.5000;0.1522;0.4054;
895.8000;0.1490;0.4006;
896.1000;0.1457;0.3887;
896.4000;0.1498;0.4054;
896.7000;0.1473;0.3982;
897.0000;0.1490;0.4078;
897.3000;0.1473;0.4054;
897.6000;0.1490;0.4149;
897.9000;0.1481;0.4173;
898.2000;0.1498;0.4149;
898.5000;0.1481;0.4030;
898.8000;0.1498;0.4125;
899.1000;0.1555;0.4173;
899.4000;0.1498;0.3982;
899.7000;0.1498;0.3982;
900.0000;0.1481;0.3934;
900.3000;0.1490;0.3982;
900.6000;0.1376;0.3672;
900.9000;0.1498;0.3958;
901.2000;0.1473;0.3887;
901.5000;0.1490;0.3887;
901.8000;0.1506;0.3982;
902.1000;0.1490;0.3934;
902.4000;0.1490;0.3958;
902.7000;0.1465;0.3911;
903.0000;0.1498;0.4006;
903.3000;0.1490;0.3958;
903.6000;0.1490;0.4006;
903.9000;0.1490;0.4078;
904.2000;0.1538;0.4149;
904.5000;0.1522;0.4030;
904.8000;0.1481;0.3982;
905.1000;0.1490;0.3958;
905.4000;0.1490;0.3958;
905.7000;0.1408;0.3744;
906.0000;0.1490;0.4030;
906.3000;0.1473;0.4006;
906.6000;0.1498;0.4054;
906.9000;0.1481;0.4030;
907.2000;0.1506;0.4101;
907.5000;0.1481;0.4006;
907.8000;0.1481;0.4054;
908.1000;0.1465;0.4006;
908.4000;0.1490;0.4125;
908.7000;0.1490;0.4221;
909.0000;0.1490;0.4244;
909.3000;0.1473;0.4244;
909.6000;0.1400;0.4101;
909.9000;0.1490;0.4316;
910.2000;0.1465;0.4244;
910.5000;0.1498;0.4292;
910.8000;0.1522;0.4244;
911.1000;0.1490;0.4149;
911.4000;0.1498;0.4149;
911.7000;0.1506;0.4173;
912.0000;0.1441;0.4078;
912.3000;0.1490;0.4078;
912.6000;0.1465;0.4006;
912.9000;0.1473;0.3958;
913.2000;0.1481;0.4054;
913.5000;0.1481;0.4078;
913.8000;0.1555;0.4388;
914.1000;0.1490;0.4221;
914.4000;0.1481;0.4078;
914.7000;0.1498;0.4054;
915.0000;0.1555;0.4173;
915.3000;0.1481;0.3982;
915.6000;0.1490;0.3934;
915.9000;0.1481;0.3982;
916.2000;0.1530;0.4101;
916.5000;0.1498;0.4030;
916.8000;0.1498;0.4006;
917.1000;0.1498;0.3982;
917.4000;0.1506;0.4078;
917.7000;0.1465;0.4078;
918.0000;0.1473;0.4125;
918.3000;0.1473;0.4101;
918.6000;0.1425;0.4006;
918.9000;0.1359;0.3839;
919.2000;0.1481;0.4149;
919.5000;0.1490;0.4101;
919.8000;0.1498;0.4149;
920.1000;0.1408;0.3934;
920.4000;0.1481;0.4125;
920.7000;0.1481;0.4101;
921.0000;0.1481;0.4125;
921.3000;0.1449;0.4030;
921.6000;0.1490;0.4125;
921.9000;0.1425;0.4006;
922.2000;0.1506;0.4268;
922.5000;0.1498;0.4221;
922.8000;0.1481;0.4221;
923.1000;0.1473;0.4125;
923.4000;0.1481;0.4101;
923.7000;0.1506;0.4173;
924.0000;0.1481;0.4125;
924.3000;0.1490;0.4173;
924.6000;0.1498;0.4125;
924.9000;0.1514;0.4149;
925.2000;0.1490;0.4078;
925.5000;0.1498;0.4054;
925.8000;0.1481;0.3982;
926.1000;0.1498;0.3911;
926.4000;0.1457;0.3839;
926.7000;0.1490;0.4054;
927.0000;0.1538;0.4268;
927.3000;0.1481;0.4197;
927.6000;0.1498;0.4268;
927.9000;0.1490;0.4197;
928.2000;0.1538;0.4316;
928.5000;0.1465;0.4101;
928.8000;0.1506;0.4173;
929.1000;0.1498;0.4149;
929.4000;0.1376;0.3791;
929.7000;0.1530;0.4101;
930.0000;0.1604;0.4292;
930.3000;0.1490;0.3982;
930.6000;0.1490;0.3958;
930.9000;0.1522;0.4006;
931.2000;0.1498;0.3958;
931.5000;0.1498;0.3982;
931.8000;0.1506;0.4006;
932.1000;0.1490;0.4006;
932.4000;0.1498;0.4125;
932.7000;0.1595;0.4364;
933.0000;0.1457;0.3982;
933.3000;0.1481;0.4030;
933.6000;0.1449;0.3911;
933.9000;0.1506;0.4054;
934.2000;0.1498;0.4006;
934.5000;0.1473;0.3839;
934.8000;0.1457;0.3815;
935.1000;0.1498;0.3863;
935.4000;0.1481;0.3815;
935.7000;0.1498;0.3887;
936.0000;0.1425;0.3577;
936.3000;0.1457;0.3648;
936.6000;0.1571;0.4006;
936.9000;0.1490;0.3863;
937.2000;0.1481;0.3791;
937.5000;0.1571;0.4006;
937.8000;0.1498;0.3839;
938.1000;0.1498;0.3887;
938.4000;0.1457;0.3911;
938.7000;0.1506;0.3911;
939.0000;0.1481;0.3887;
939.3000;0.1506;0.3887;
939.6000;0.1457;0.3815;
939.9000;0.1481;0.3958;
940.2000;0.1481;0.3982;
940.5000;0.1490;0.3982;
940.8000;0.1433;0.3791;
941.1000;0.1490;0.3958;
941.4000;0.1498;0.4030;
941.7000;0.1506;0.4101;
942.0000;0.1506;0.4125;
942.3000;0.1522;0.4149;
942.6000;0.1490;0.4101;
942.9000;0.1490;0.4125;
943.2000;0.1514;0.4149;
943.5000;0.1514;0.4101;
943.8000;0.1490;0.4030;
944.1000;0.1441;0.3958;
944.4000;0.1433;0.3863;
944.7000;0.1498;0.3982;
945.0000;0.1481;0.3839;
945.3000;0.1392;0.3601;
945.6000;0.1481;0.3768;
945.9000;0.1481;0.3720;
946.2000;0.1498;0.3720;
946.5000;0.1490;0.3696;
946.8000;0.1506;0.3768;
947.1000;0.1506;0.3839;
947.4000;0.1490;0.3887;
947.7000;0.1490;0.3839;
948.0000;0.1514;0.3815;
948.3000;0.1457;0.3672;
948.6000;0.1498;0.3839;
948.9000;0.1514;0.3934;
949.2000;0.1465;0.3839;
949.5000;0.1498;0.3934;
949.8000;0.1563;0.4125;
950.1000;0.1522;0.4125;
950.4000;0.1465;0.3958;
950.7000;0.1498;0.4030;
951.0000;0.1498;0.4030;
951.3000;0.1481;0.3982;
951.6000;0.1473;0.3958;
951.9000;0.1465;0.3982;
952.2000;0.1416;0.3815;
952.5000;0.1490;0.4078;
952.8000;0.1498;0.4078;
953.1000;0.1514;0.4125;
953.4000;0.1555;0.4244;
953.7000;0.1498;0.4101;
954.0000;0.1514;0.4173;
954.3000;0.1481;0.4125;
954.6000;0.1498;0.4173;
954.9000;0.1490;0.4149;
955.2000;0.1490;0.4125;
955.5000;0.1498;0.4149;
955.8000;0.1498;0.4101;
956.1000;0.1530;0.4054;
956.4000;0.1481;0.4125;
956.7000;0.1490;0.4125;
957.0000;0.1522;0.4173;
957.3000;0.1498;0.4078;
957.6000;0.1490;0.4078;
957.9000;0.1498;0.4125;
958.2000;0.1490;0.4173;
958.5000;0.1506;0.4316;
958.8000;0.1587;0.4459;
959.1000;0.1514;0.4244;
959.4000;0.1490;0.4197;
959.7000;0.1506;0.4292;
960.0000;0.1490;0.4244;
960.3000;0.1490;0.4268;
960.6000;0.1449;0.4173;
960.9000;0.1490;0.4316;
961.2000;0.1522;0.4340;
961.5000;0.1498;0.4221;
961.8000;0.1490;0.4197;
962.1000;0.1481;0.4149;
962.4000;0.1457;0.4030;
962.7000;0.1628;0.4507;
963.0000;0.1490;0.4173;
963.3000;0.1481;0.4197;
963.6000;0.1490;0.4125;
963.9000;0.1506;0.4197;
964.2000;0.1498;0.4197;
964.5000;0.1498;0.4125;
964.8000;0.1506;0.4173;
965.1000;0.1490;0.4030;
965.4000;0.1490;0.4030;
965.7000;0.1490;0.4030;
966.0000;0.1506;0.4101;
966.3000;0.1416;0.3839;
966.6000;0.1473;0.4030;
966.9000;0.1530;0.4149;
967.2000;0.1522;0.3982;
967.5000;0.1473;0.3934;
967.8000;0.1473;0.3934;
968.1000;0.1465;0.4006;
968.4000;0.1490;0.4078;
968.7000;0.1473;0.4030;
969.0000;0.1636;0.4483;
969.3000;0.1506;0.4078;
969.6000;0.1490;0.4030;
969.9000;0.1530;0.4006;
970.2000;0.1506;0.4030;
970.5000;0.1490;0.4006;
970.8000;0.1498;0.4054;
971.1000;0.1465;0.3911;
971.4000;0.1449;0.3934;
971.7000;0.1490;0.4078;
972.0000;0.1506;0.4125;
972.3000;0.1449;0.4006;
972.6000;0.1563;0.4316;
972.9000;0.1563;0.4340;
973.2000;0.1506;0.4149;
973.5000;0.1522;0.4173;
973.8000;0.1408;0.3887;
974.1000;0.1514;0.4197;
974.4000;0.1457;0.3982;
974.7000;0.1449;0.3982;
975.0000;0.1457;0.4054;
975.3000;0.1506;0.4125;
975.6000;0.1490;0.4078;
975.9000;0.1481;0.4078;
976.2000;0.1481;0.4006;
976.5000;0.1498;0.4006;
976.8000;0.1514;0.4078;
977.1000;0.1481;0.4078;
977.4000;0.1465;0.4006;
977.7000;0.1473;0.4054;
978.0000;0.1473;0.4101;
978.3000;0.1490;0.4054;
978.6000;0.1506;0.4125;
978.9000;0.1481;0.3982;
979.2000;0.1506;0.4101;
979.5000;0.1563;0.4292;
979.8000;0.1473;0.4054;
980.1000;0.1498;0.4197;
980.4000;0.1498;0.4221;
980.7000;0.1530;0.4292;
981.0000;0.1490;0.4173;
981.3000;0.1481;0.4149;
981.6000;0.1465;0.4006;
981.9000;0.1514;0.4078;
982.2000;0.1481;0.4030;
982.5000;0.1498;0.4125;
982.8000;0.1425;0.4030;
983.1000;0.1506;0.4173;
983.4000;0.1473;0.4030;
983.7000;0.1481;0.4101;
984.0000;0.1481;0.4078;
984.3000;0.1522;0.4078;
984.6000;0.1481;0.4006;
984.9000;0.1563;0.4197;
985.2000;0.1457;0.3982;
985.5000;0.1490;0.4078;
985.8000;0.1555;0.4316;
986.1000;0.1506;0.4173;
986.4000;0.1490;0.4078;
986.7000;0.1514;0.4197;
987.0000;0.1522;0.4221;
987.3000;0.1457;0.4173;
987.6000;0.1490;0.4197;
987.9000;0.1490;0.4078;
988.2000;0.1506;0.4030;
988.5000;0.1490;0.3911;
988.8000;0.1506;0.3934;
989.1000;0.1498;0.3958;
989.4000;0.1465;0.3791;
989.7000;0.1490;0.3744;
990.0000;0.1457;0.3696;
990.3000;0.1498;0.3768;
990.6000;0.1498;0.3768;
990.9000;0.1530;0.3887;
991.2000;0.1595;0.4078;
991.5000;0.1473;0.3768;
991.8000;0.1473;0.3839;
992.1000;0.1514;0.3982;
992.4000;0.1498;0.3887;
992.7000;0.1490;0.3887;
993.0000;0.1506;0.3911;
993.3000;0.1465;0.3744;
993.6000;0.1490;0.3911;
993.9000;0.1465;0.3911;
994.2000;0.1506;0.3982;
994.5000;0.1473;0.3911;
994.8000;0.1481;0.3911;
995.1000;0.1481;0.4006;
995.4000;0.1498;0.3911;
995.7000;0.1490;0.3887;
996.0000;0.1481;0.3911;
996.3000;0.1465;0.3839;
996.6000;0.1498;0.3958;
996.9000;0.1490;0.4030;
997.2000;0.1498;0.4054;
997.5000;0.1498;0.3982;
997.8000;0.1514;0.4030;
998.1000;0.1490;0.3934;
998.4000;0.1506;0.3958;
998.7000;0.1498;0.3958;
999.0000;0.1506;0.4030;
999.3000;0.1498;0.3958;
999.6000;0.1490;0.3958;
999.9000;0.1498;0.4054;
1000.2000;0.1563;0.4244;
1000.5000;0.1498;0.4101;
1000.8000;0.1490;0.4054;
1001.1000;0.1481;0.4078;
1001.4000;0.1563;0.4292;
1001.7000;0.1498;0.4173;
1002.0000;0.1498;0.4221;
1002.3000;0.1522;0.4268;
1002.6000;0.1514;0.4268;
1002.9000;0.1522;0.4268;
1003.2000;0.1498;0.4125;
1003.5000;0.1498;0.4030;
1003.8000;0.1465;0.3911;
1004.1000;0.1514;0.3958;
1004.4000;0.1481;0.3863;
1004.7000;0.1481;0.3911;
1005.0000;0.1498;0.3958;
1005.3000;0.1506;0.3958;
1005.6000;0.1465;0.3863;
1005.9000;0.1490;0.3887;
1006.2000;0.1498;0.3982;
1006.5000;0.1498;0.3934;
1006.8000;0.1433;0.3696;
1007.1000;0.1490;0.3934;
1007.4000;0.1490;0.3958;
1007.7000;0.1481;0.3887;
1008.0000;0.1587;0.4221;
1008.3000;0.1514;0.4054;
1008.6000;0.1498;0.4006;
1008.9000;0.1571;0.4197;
1009.2000;0.1490;0.3934;
1009.5000;0.1498;0.3982;
1009.8000;0.1498;0.3982;
1010.1000;0.1490;0.3934;
1010.4000;0.1498;0.3887;
1010.7000;0.1481;0.3863;
1011.0000;0.1481;0.3958;
1011.3000;0.1384;0.3744;
1011.6000;0.1498;0.4006;
1011.9000;0.1498;0.4030;
1012.2000;0.1481;0.3982;
1012.5000;0.1481;0.4006;
1012.8000;0.1498;0.4101;
1013.1000;0.1498;0.4054;
1013.4000;0.1490;0.4054;
1013.7000;0.1498;0.4030;
1014.0000;0.1538;0.4078;
1014.3000;0.1465;0.4006;
1014.6000;0.1498;0.4078;
1014.9000;0.1457;0.4054;
1015.2000;0.1457;0.4078;
1015.5000;0.1449;0.3982;
1015.8000;0.1457;0.4030;
1016.1000;0.1416;0.3839;
1016.4000;0.1425;0.3911;
1016.7000;0.1490;0.4078;
1017.0000;0.1498;0.4125;
1017.3000;0.1514;0.4197;
1017.6000;0.1498;0.4197;
1017.9000;0.1498;0.4173;
1018.2000;0.1498;0.4078;
1018.5000;0.1490;0.4006;
1018.8000;0.1506;0.4054;
1019.1000;0.1506;0.4078;
1019.4000;0.1490;0.4101;
1019.7000;0.1481;0.4054;
1020.0000;0.1481;0.4101;
1020.3000;0.1433;0.3934;
1020.6000;0.1490;0.4078;
1020.9000;0.1481;0.4125;
1021.2000;0.1490;0.4125;
1021.5000;0.1506;0.4101;
1021.8000;0.1481;0.4054;
1022.1000;0.1473;0.4054;
1022.4000;0.1490;0.4030;
1022.7000;0.1498;0.4054;
1023.0000;0.1465;0.3911;
1023.3000;0.1425;0.3815;
1023.6000;0.1538;0.4125;
1023.9000;0.1498;0.4078;
1024.2000;0.1481;0.3934;
1024.5000;0.1433;0.3839;
1024.8000;0.1490;0.3982;
1025.1000;0.1490;0.4030;
1025.4000;0.1481;0.4006;
1025.7000;0.1498;0.4078;
1026.0000;0.1490;0.4006;
1026.3000;0.1498;0.3958;
1026.6000;0.1473;0.3958;
1026.9000;0.1587;0.4268;
1027.2000;0.1498;0.4101;
1027.5000;0.1490;0.4101;
1027.8000;0.1473;0.4149;
1028.1000;0.1473;0.4197;
1028.4000;0.1481;0.4173;
1028.7000;0.1473;0.4197;
1029.0000;0.1490;0.4221;
1029.3000;0.1481;0.4101;
1029.6000;0.1498;0.4149;
1029.9000;0.1555;0.4197;
1030.2000;0.1522;0.4101;
1030.5000;0.1498;0.4030;
1030.8000;0.1506;0.4149;
1031.1000;0.1490;0.4125;
1031.4000;0.1514;0.4149;
1031.7000;0.1498;0.4197;
1032.0000;0.1441;0.3982;
1032.3000;0.1498;0.4125;
1032.6000;0.1514;0.4197;
1032.9000;0.1571;0.4411;
1033.2000;0.1481;0.4149;
1033.5000;0.1498;0.4125;
1033.8000;0.1473;0.4101;
1034.1000;0.1490;0.4173;
1034.4000;0.1490;0.4149;
1034.7000;0.1473;0.4101;
1035.0000;0.1490;0.4078;
1035.3000;0.1498;0.4173;
1035.6000;0.1498;0.4244;
1035.9000;0.1522;0.4221;
1036.2000;0.1530;0.4292;
1036.5000;0.1490;0.4221;
1036.8000;0.1490;0.4221;
1037.1000;0.1490;0.4268;
1037.4000;0.1473;0.4197;
1037.7000;0.1473;0.4197;
1038.0000;0.1465;0.4125;
1038.3000;0.1327;0.3720;
1038.6000;0.1473;0.4054;
1038.9000;0.1498;0.4078;
1039.2000;0.1490;0.4054;
1039.5000;0.1530;0.4197;
1039.8000;0.1490;0.4101;
1040.1000;0.1465;0.4173;
1040.4000;0.1490;0.4197;
1040.7000;0.1481;0.4197;
1041.0000;0.1490;0.4173;
1041.3000;0.1490;0.4149;
1041.6000;0.1465;0.4149;
1041.9000;0.1506;0.4244;
1042.2000;0.1481;0.4101;
1042.5000;0.1481;0.4197;
1042.8000;0.1498;0.4244;
1043.1000;0.1522;0.4292;
1043.4000;0.1490;0.4149;
1043.7000;0.1441;0.4030;
1044.0000;0.1425;0.3958;
1044.3000;0.1490;0.4149;
1044.6000;0.1506;0.4101;
1044.9000;0.1465;0.3982;
1045.2000;0.1490;0.3911;
1045.5000;0.1473;0.3911;
1045.8000;0.1490;0.3887;
1046.1000;0.1376;0.3577;
1046.4000;0.1490;0.3887;
1046.7000;0.1514;0.3863;
1047.0000;0.1368;0.3481;
1047.3000;0.1490;0.3839;
1047.6000;0.1506;0.3887;
1047.9000;0.1481;0.3887;
1048.2000;0.1506;0.3887;
1048.5000;0.1449;0.3791;
1048.8000;0.1490;0.3911;
1049.1000;0.1547;0.4054;
1049.4000;0.1506;0.3934;
1049.7000;0.1408;0.3791;
1050.0000;0.1506;0.4006;
1050.3000;0.1490;0.3958;
1050.6000;0.1595;0.4340;
1050.9000;0.1514;0.4149;
1051.2000;0.1498;0.4125;
1051.5000;0.1384;0.3887;
1051.8000;0.1490;0.4101;
1052.1000;0.1498;0.4054;
1052.4000;0.1498;0.4054;
1052.7000;0.1465;0.4030;
1053.0000;0.1498;0.4101;
1053.3000;0.1490;0.4054;
1053.6000;0.1473;0.3982;
1053.9000;0.1538;0.4244;
1054.2000;0.1481;0.4173;
1054.5000;0.1490;0.4197;
1054.8000;0.1498;0.4101;
1055.1000;0.1498;0.4101;
1055.4000;0.1506;0.4125;
1055.7000;0.1498;0.4101;
1056.0000;0.1490;0.4030;
1056.3000;0.1506;0.4054;
1056.6000;0.1481;0.4006;
1056.9000;0.1514;0.4101;
1057.2000;0.1490;0.4125;
1057.5000;0.1514;0.4173;
1057.8000;0.1490;0.3982;
1058.1000;0.1465;0.3887;
1058.4000;0.1506;0.3982;
1058.7000;0.1490;0.3958;
1059.0000;0.1490;0.3934;
1059.3000;0.1425;0.3815;
1059.6000;0.1514;0.4101;
1059.9000;0.1498;0.4125;
1060.2000;0.1498;0.4125;
1060.5000;0.1490;0.4101;
1060.8000;0.1506;0.4101;
1061.1000;0.1530;0.4125;
1061.4000;0.1490;0.3958;
1061.7000;0.1498;0.3982;
1062.0000;0.1506;0.3958;
1062.3000;0.1506;0.3934;
1062.6000;0.1506;0.4006;
1062.9000;0.1490;0.3958;
1063.2000;0.1473;0.3815;
1063.5000;0.1481;0.3815;
1063.8000;0.1481;0.3863;
1064.1000;0.1481;0.4006;
1064.4000;0.1506;0.4006;
1064.7000;0.1522;0.4078;
1065.0000;0.1384;0.3720;
1065.3000;0.1457;0.3982;
1065.6000;0.1481;0.4030;
1065.9000;0.1514;0.4101;
1066.2000;0.1498;0.4006;
1066.5000;0.1490;0.3887;
1066.8000;0.1481;0.3839;
1067.1000;0.1481;0.3815;
1067.4000;0.1465;0.3815;
1067.7000;0.1522;0.3982;
1068.0000;0.1522;0.4054;
1068.3000;0.1441;0.3863;
1068.6000;0.1506;0.4054;
1068.9000;0.1481;0.4125;
1069.2000;0.1481;0.4101;
1069.5000;0.1473;0.4054;
1069.8000;0.1506;0.4173;
1070.1000;0.1441;0.3958;
1070.4000;0.1490;0.4006;
1070.7000;0.1481;0.3934;
1071.0000;0.1547;0.4268;
1071.3000;0.1498;0.4173;
1071.6000;0.1514;0.4197;
1071.9000;0.1481;0.4054;
1072.2000;0.1506;0.4101;
1072.5000;0.1490;0.4054;
1072.8000;0.1490;0.3982;
1073.1000;0.1506;0.4101;
1073.4000;0.1514;0.4197;
1073.7000;0.1522;0.4244;
1074.0000;0.1522;0.4197;
1074.3000;0.1473;0.4149;
1074.6000;0.1514;0.4268;
1074.9000;0.1506;0.4221;
1075.2000;0.1514;0.4268;
1075.5000;0.1473;0.4173;
1075.8000;0.1481;0.4149;
1076.1000;0.1498;0.4125;
1076.4000;0.1490;0.4101;
1076.7000;0.1514;0.4197;
1077.0000;0.1473;0.4125;
1077.3000;0.1498;0.4173;
1077.6000;0.1465;0.4006;
1077.9000;0.1563;0.4268;
1078.2000;0.1506;0.4173;
1078.5000;0.1514;0.4197;
1078.8000;0.1522;0.4244;
1079.1000;0.1465;0.4078;
1079.4000;0.1473;0.4054;
1079.7000;0.1481;0.4078;
1080.0000;0.1481;0.4030;
1080.3000;0.1506;0.4054;
1080.6000;0.1498;0.3958;
1080.9000;0.1490;0.3887;
1081.2000;0.1465;0.3934;
1081.5000;0.1522;0.3958;
1081.8000;0.1514;0.3982;
1082.1000;0.1522;0.4006;
1082.4000;0.1498;0.4006;
1082.7000;0.1498;0.3982;
1083.0000;0.1441;0.3839;
1083.3000;0.1490;0.3958;
1083.6000;0.1514;0.4030;
1083.9000;0.1433;0.3744;
1084.2000;0.1481;0.3958;
1084.5000;0.1449;0.3863;
1084.8000;0.1506;0.4078;
1085.1000;0.1514;0.4030;
1085.4000;0.1547;0.4125;
1085.7000;0.1514;0.4030;
1086.0000;0.1506;0.4030;
1086.3000;0.1506;0.3911;
1086.6000;0.1465;0.3720;
1086.9000;0.1498;0.3744;
1087.2000;0.1514;0.3815;
1087.5000;0.1498;0.3815;
1087.8000;0.1522;0.3934;
1088.1000;0.1481;0.3839;
1088.4000;0.1490;0.3958;
1088.7000;0.1490;0.4078;
1089.0000;0.1604;0.4435;
1089.3000;0.1514;0.4244;
1089.6000;0.1473;0.4125;
1089.9000;0.1449;0.4030;
1090.2000;0.1563;0.4316;
1090.5000;0.1490;0.4197;
1090.8000;0.1506;0.4244;
1091.1000;0.1506;0.4244;
1091.4000;0.1522;0.4268;
1091.7000;0.1473;0.4197;
1092.0000;0.1514;0.4244;
1092.3000;0.1481;0.4197;
1092.6000;0.1490;0.4197;
1092.9000;0.1506;0.4173;
1093.2000;0.1506;0.4149;
1093.5000;0.1490;0.4125;
1093.8000;0.1408;0.3887;
1094.1000;0.1473;0.4054;
1094.4000;0.1506;0.4078;
1094.7000;0.1473;0.4054;
1095.0000;0.1490;0.4173;
1095.3000;0.1457;0.4101;
1095.6000;0.1514;0.4221;
1095.9000;0.1498;0.4173;
1096.2000;0.1473;0.4054;
1096.5000;0.1490;0.4054;
1096.8000;0.1490;0.4006;
1097.1000;0.1498;0.4054;
1097.4000;0.1490;0.4078;
1097.7000;0.1490;0.4054;
1098.0000;0.1473;0.4054;
1098.3000;0.1506;0.4197;
1098.6000;0.1498;0.4221;
1098.9000;0.1433;0.4006;
1099.2000;0.1490;0.4030;
1099.5000;0.1481;0.4030;
1099.8000;0.1425;0.3958;
1100.1000;0.1481;0.4125;
1100.4000;0.1473;0.4125;
1100.7000;0.1490;0.4173;
1101.0000;0.1490;0.4101;
1101.3000;0.1473;0.4125;
1101.6000;0.1490;0.4173;
1101.9000;0.1498;0.4197;
1102.2000;0.1465;0.4054;
1102.5000;0.1490;0.4149;
1102.8000;0.1506;0.4221;
1103.1000;0.1481;0.4101;
1103.4000;0.1481;0.4101;
1103.7000;0.1538;0.4244;
1104.0000;0.1490;0.4101;
1104.3000;0.1473;0.4101;
1104.6000;0.1481;0.4030;
1104.9000;0.1530;0.4173;
1105.2000;0.1506;0.4197;
1105.5000;0.1473;0.4101;
1105.8000;0.1368;0.3672;
1106.1000;0.1457;0.3982;
1106.4000;0.1490;0.4125;
1106.7000;0.1481;0.4054;
1107.0000;0.1490;0.4030;
1107.3000;0.1571;0.4173;
1107.6000;0.1490;0.3982;
1107.9000;0.1425;0.3839;
1108.2000;0.1498;0.4054;
1108.5000;0.1490;0.4030;
1108.8000;0.1514;0.4054;
1109.1000;0.1481;0.3982;
1109.4000;0.1457;0.3934;
1109.7000;0.1465;0.4030;
1110.0000;0.1425;0.3934;
1110.3000;0.1538;0.4149;
1110.6000;0.1481;0.4125;
1110.9000;0.1473;0.4078;
1111.2000;0.1498;0.4078;
1111.5000;0.1498;0.4054;
1111.8000;0.1490;0.4006;
1112.1000;0.1498;0.4125;
1112.4000;0.1481;0.4030;
1112.7000;0.1498;0.3982;
1113.0000;0.1481;0.3982;
1113.3000;0.1612;0.4221;
1113.6000;0.1481;0.3934;
1113.9000;0.1490;0.4006;
1114.2000;0.1473;0.3982;
1114.5000;0.1481;0.3982;
1114.8000;0.1498;0.3911;
1115.1000;0.1490;0.3911;
1115.4000;0.1416;0.3696;
1115.7000;0.1498;0.3887;
1116.0000;0.1473;0.3887;
1116.3000;0.1538;0.4054;
1116.6000;0.1498;0.4006;
1116.9000;0.1490;0.4006;
1117.2000;0.1490;0.4030;
1117.5000;0.1522;0.4101;
1117.8000;0.1498;0.4054;
1118.1000;0.1506;0.4030;
1118.4000;0.1490;0.4006;
1118.7000;0.1490;0.4006;
1119.0000;0.1498;0.4006;
1119.3000;0.1465;0.4006;
1119.6000;0.1522;0.4101;
1119.9000;0.1449;0.4006;
1120.2000;0.1506;0.4101;
1120.5000;0.1498;0.4125;
1120.8000;0.1506;0.4173;
1121.1000;0.1465;0.4125;
1121.4000;0.1481;0.4078;
1121.7000;0.1490;0.4101;
1122.0000;0.1555;0.4221;
1122.3000;0.1490;0.3958;
1122.6000;0.1490;0.3911;
1122.9000;0.1514;0.3982;
1123.2000;0.1490;0.3934;
1123.5000;0.1481;0.3791;
1123.8000;0.1481;0.3911;
1124.1000;0.1522;0.3958;
1124.4000;0.1481;0.3887;
1124.7000;0.1490;0.3887;
1125.0000;0.1506;0.3934;
1125.3000;0.1490;0.3887;
1125.6000;0.1481;0.3887;
1125.9000;0.1490;0.3887;
1126.2000;0.1449;0.3934;
1126.5000;0.1490;0.3958;
1126.8000;0.1498;0.4006;
1127.1000;0.1498;0.4101;
1127.4000;0.1481;0.4078;
1127.7000;0.1481;0.4101;
1128.0000;0.1522;0.4268;
1128.3000;0.1498;0.4149;
1128.6000;0.1555;0.4292;
1128.9000;0.1490;0.4173;
1129.2000;0.1490;0.4101;
1129.5000;0.1506;0.4125;
1129.8000;0.1538;0.4173;
1130.1000;0.1490;0.4030;
1130.4000;0.1514;0.4078;
1130.7000;0.1506;0.4078;
1131.0000;0.1522;0.4149;
1131.3000;0.1490;0.4078;
1131.6000;0.1481;0.4078;
1131.9000;0.1522;0.4149;
1132.2000;0.1506;0.4125;
1132.5000;0.1490;0.4173;
1132.8000;0.1490;0.4101;
1133.1000;0.1498;0.4125;
1133.4000;0.1498;0.4078;
1133.7000;0.1490;0.4101;
1134.0000;0.1498;0.4125;
1134.3000;0.1530;0.4268;
1134.6000;0.1522;0.4221;
1134.9000;0.1514;0.4268;
1135.2000;0.1498;0.4197;
1135.5000;0.1490;0.4149;
1135.8000;0.1490;0.4125;
1136.1000;0.1498;0.4125;
1136.4000;0.1473;0.4030;
1136.7000;0.1441;0.3982;
1137.0000;0.1514;0.4078;
1137.3000;0.1473;0.3911;
1137.6000;0.1473;0.3958;
1137.9000;0.1498;0.4030;
1138.2000;0.1481;0.4030;
1138.5000;0.1481;0.4006;
1138.8000;0.1449;0.3982;
1139.1000;0.1473;0.4101;
1139.4000;0.1441;0.4006;
1139.7000;0.1498;0.4125;
1140.0000;0.1465;0.4101;
1140.3000;0.1490;0.4101;
1140.6000;0.1481;0.4197;
1140.9000;0.1473;0.4149;
1141.2000;0.1506;0.4244;
1141.5000;0.1604;0.4411;
1141.8000;0.1498;0.4078;
1142.1000;0.1506;0.4054;
1142.4000;0.1481;0.4006;
1142.7000;0.1490;0.4030;
1143.0000;0.1498;0.4054;
1143.3000;0.1457;0.4054;
1143.6000;0.1498;0.4078;
1143.9000;0.1547;0.4078;
1144.2000;0.1506;0.3911;
1144.5000;0.1538;0.4078;
1144.8000;0.1498;0.4054;
1145.1000;0.1506;0.4101;
1145.4000;0.1481;0.4054;
1145.7000;0.1498;0.4030;
1146.0000;0.1490;0.3958;
1146.3000;0.1514;0.4006;
1146.6000;0.1506;0.3982;
1146.9000;0.1457;0.3815;
1147.2000;0.1538;0.4030;
1147.5000;0.1400;0.3815;
1147.8000;0.1481;0.4078;
1148.1000;0.1490;0.4078;
1148.4000;0.1481;0.4078;
1148.7000;0.1449;0.4006;
1149.0000;0.1506;0.4173;
1149.3000;0.1522;0.4173;
1149.6000;0.1481;0.4006;
1149.9000;0.1433;0.3887;
1150.2000;0.1498;0.4125;
1150.5000;0.1506;0.4125;
1150.8000;0.1473;0.4030;
1151.1000;0.1490;0.3958;
1151.4000;0.1490;0.3911;
1151.7000;0.1465;0.3982;
1152.0000;0.1490;0.3958;
1152.3000;0.1506;0.3958;
1152.6000;0.1481;0.3982;
1152.9000;0.1506;0.4054;
1153.2000;0.1481;0.4054;
1153.5000;0.1498;0.4078;
1153.8000;0.1514;0.4125;
1154.1000;0.1506;0.4054;
1154.4000;0.1514;0.4054;
1154.7000;0.1498;0.4030;
1155.0000;0.1538;0.4101;
1155.3000;0.1506;0.3958;
1155.6000;0.1498;0.3887;
1155.9000;0.1490;0.3934;
1156.2000;0.1498;0.3887;
1156.5000;0.1514;0.3982;
1156.8000;0.1490;0.3934;
1157.1000;0.1579;0.4078;
1157.4000;0.1490;0.3958;
1157.7000;0.1498;0.4006;
1158.0000;0.1457;0.3982;
1158.3000;0.1498;0.4006;
1158.6000;0.1498;0.4054;
1158.9000;0.1498;0.4030;
1159.2000;0.1481;0.3958;
1159.5000;0.1506;0.4054;
1159.8000;0.1481;0.3958;
1160.1000;0.1490;0.3982;
1160.4000;0.1514;0.4078;
1160.7000;0.1490;0.4006;
1161.0000;0.1506;0.3982;
1161.3000;0.1498;0.3934;
1161.6000;0.1506;0.3934;
1161.9000;0.1498;0.3911;
1162.2000;0.1481;0.3791;
1162.5000;0.1473;0.3791;
1162.8000;0.1514;0.3839;
1163.1000;0.1465;0.3791;
1163.4000;0.1465;0.3744;
1163.7000;0.1449;0.3720;
1164.0000;0.1473;0.3744;
1164.3000;0.1498;0.3863;
1164.6000;0.1506;0.3982;
1164.9000;0.1490;0.4006;
1165.2000;0.1490;0.4054;
1165.5000;0.1498;0.4078;
1165.8000;0.1481;0.4078;
1166.1000;0.1538;0.4101;
1166.4000;0.1490;0.3934;
1166.7000;0.1514;0.3982;
1167.0000;0.1498;0.3934;
1167.3000;0.1506;0.3863;
1167.6000;0.1490;0.3815;
1167.9000;0.1481;0.3815;
1168.2000;0.1514;0.3839;
1168.5000;0.1498;0.3768;
1168.8000;0.1481;0.3744;
1169.1000;0.1490;0.3791;
1169.4000;0.1604;0.4078;
1169.7000;0.1498;0.3863;
1170.0000;0.1441;0.3696;
1170.3000;0.1490;0.3815;
1170.6000;0.1408;0.3672;
1170.9000;0.1441;0.3672;
1171.2000;0.1465;0.3744;
1171.5000;0.1481;0.3815;
1171.8000;0.1408;0.3672;
1172.1000;0.1498;0.4030;
1172.4000;0.1490;0.4078;
1172.7000;0.1465;0.3982;
1173.0000;0.1498;0.4006;
1173.3000;0.1473;0.3982;
1173.6000;0.1498;0.4149;
1173.9000;0.1498;0.4125;
1174.2000;0.1481;0.4054;
1174.5000;0.1481;0.4054;
1174.8000;0.1465;0.3982;
1175.1000;0.1490;0.3958;
1175.4000;0.1490;0.3934;
1175.7000;0.1473;0.3887;
1176.0000;0.1408;0.3648;
1176.3000;0.1490;0.3839;
1176.6000;0.1473;0.3815;
1176.9000;0.1498;0.3863;
1177.2000;0.1498;0.3887;
1177.5000;0.1376;0.3505;
1177.8000;0.1433;0.3791;
1178.1000;0.1604;0.4316;
1178.4000;0.1506;0.4101;
1178.7000;0.1465;0.4006;
1179.0000;0.1481;0.3934;
1179.3000;0.1538;0.4125;
1179.6000;0.1506;0.4006;
1179.9000;0.1490;0.3958;
1180.2000;0.1587;0.4292;
1180.5000;0.1498;0.4101;
1180.8000;0.1506;0.4078;
1181.1000;0.1563;0.4244;
1181.4000;0.1490;0.4078;
1181.7000;0.1490;0.4101;
1182.0000;0.1473;0.4006;
1182.3000;0.1498;0.3958;
1182.6000;0.1408;0.3768;
1182.9000;0.1473;0.3982;
1183.2000;0.1481;0.4030;
1183.5000;0.1506;0.4054;
1183.8000;0.1522;0.4149;
1184.1000;0.1473;0.3958;
1184.4000;0.1498;0.4101;
1184.7000;0.1514;0.4101;
1185.0000;0.1490;0.4078;
1185.3000;0.1490;0.3934;
1185.6000;0.1416;0.3768;
1185.9000;0.1579;0.4054;
1186.2000;0.1498;0.3839;
1186.5000;0.1530;0.3911;
1186.8000;0.1506;0.3863;
1187.1000;0.1506;0.3863;
1187.4000;0.1481;0.3768;
1187.7000;0.1457;0.3672;
1188.0000;0.1522;0.3887;
1188.3000;0.1498;0.3863;
1188.6000;0.1490;0.3863;
1188.9000;0.1473;0.3744;
1189.2000;0.1481;0.3768;
1189.5000;0.1481;0.3696;
1189.8000;0.1481;0.3696;
1190.1000;0.1506;0.3768;
1190.4000;0.1522;0.3815;
1190.7000;0.1490;0.3815;
1191.0000;0.1490;0.3815;
1191.3000;0.1490;0.3839;
1191.6000;0.1538;0.4030;
1191.9000;0.1490;0.3839;
1192.2000;0.1481;0.3791;
1192.5000;0.1506;0.3863;
1192.8000;0.1514;0.3911;
1193.1000;0.1514;0.3863;
1193.4000;0.1514;0.3863;
1193.7000;0.1490;0.3863;
1194.0000;0.1530;0.3911;
1194.3000;0.1481;0.3744;
1194.6000;0.1473;0.3720;
1194.9000;0.1514;0.3815;
1195.2000;0.1481;0.3791;
1195.5000;0.1628;0.4268;
1195.8000;0.1506;0.4030;
1196.1000;0.1481;0.4006;
1196.4000;0.1473;0.3934;
1196.7000;0.1498;0.3911;
1197.0000;0.1449;0.3744;
1197.3000;0.1465;0.3863;
1197.6000;0.1465;0.3911;
1197.9000;0.1514;0.4030;
1198.2000;0.1481;0.3958;
1198.5000;0.1530;0.4006;
1198.8000;0.1481;0.3863;
1199.1000;0.1465;0.3791;
1199.4000;0.1481;0.3887;
1199.7000;0.1481;0.3815;
1200.0000;0.1506;0.3863;
1200.3000;0.1481;0.3768;
1200.6000;0.1522;0.3791;
1200.9000;0.1490;0.3720;
1201.2000;0.1481;0.3791;
1201.5000;0.1490;0.3815;
1201.8000;0.1514;0.3911;
1202.1000;0.1563;0.4101;
1202.4000;0.1473;0.3958;
1202.7000;0.1490;0.4030;
1203.0000;0.1490;0.4054;
1203.3000;0.1425;0.3911;
1203.6000;0.1490;0.4030;
1203.9000;0.1506;0.3911;
1204.2000;0.1498;0.3887;
1204.5000;0.1481;0.3815;
1204.8000;0.1473;0.3791;
1205.1000;0.1506;0.3839;
1205.4000;0.1538;0.3887;
1205.7000;0.1506;0.3815;
1206.0000;0.1506;0.3791;
1206.3000;0.1498;0.3696;
1206.6000;0.1465;0.3553;
1206.9000;0.1506;0.3601;
1207.2000;0.1514;0.3672;
1207.5000;0.1465;0.3672;
1207.8000;0.1481;0.3672;
1208.1000;0.1490;0.3696;
1208.4000;0.1481;0.3672;
1208.7000;0.1457;0.3648;
1209.0000;0.1473;0.3672;
1209.3000;0.1481;0.3768;
1209.6000;0.1473;0.3696;
1209.9000;0.1400;0.3529;
1210.2000;0.1498;0.3815;
1210.5000;0.1449;0.3672;
1210.8000;0.1465;0.3672;
1211.1000;0.1506;0.3768;
1211.4000;0.1481;0.3720;
1211.7000;0.1498;0.3768;
1212.0000;0.1490;0.3815;
1212.3000;0.1490;0.3839;
1212.6000;0.1490;0.3815;
1212.9000;0.1490;0.3720;
1213.2000;0.1490;0.3720;
1213.5000;0.1514;0.3887;
1213.8000;0.1425;0.3696;
1214.1000;0.1481;0.3863;
1214.4000;0.1473;0.3863;
1214.7000;0.1490;0.3934;
1215.0000;0.1481;0.3839;
1215.3000;0.1457;0.3887;
1215.6000;0.1506;0.4054;
1215.9000;0.1490;0.3934;
1216.2000;0.1498;0.4006;
1216.5000;0.1425;0.3839;
1216.8000;0.1498;0.3958;
1217.1000;0.1530;0.3934;
1217.4000;0.1425;0.3601;
1217.7000;0.1481;0.3815;
1218.0000;0.1490;0.3911;
1218.3000;0.1498;0.4006;
1218.6000;0.1506;0.3958;
1218.9000;0.1481;0.3911;
1219.2000;0.1481;0.3887;
1219.5000;0.1473;0.3791;
1219.8000;0.1490;0.3839;
1220.1000;0.1490;0.3887;
1220.4000;0.1481;0.3863;
1220.7000;0.1465;0.3958;
1221.0000;0.1547;0.4173;
1221.3000;0.1506;0.4054;
1221.6000;0.1481;0.3911;
1221.9000;0.1481;0.4006;
1222.2000;0.1506;0.4078;
1222.5000;0.1465;0.3911;
1222.8000;0.1473;0.3958;
1223.1000;0.1457;0.3911;
1223.4000;0.1465;0.3982;
1223.7000;0.1498;0.3911;
1224.0000;0.1522;0.3958;
1224.3000;0.1498;0.3863;
1224.6000;0.1490;0.3839;
1224.9000;0.1506;0.3911;
1225.2000;0.1490;0.3982;
1225.5000;0.1498;0.4006;
1225.8000;0.1490;0.3934;
1226.1000;0.1506;0.3982;
1226.4000;0.1457;0.3887;
1226.7000;0.1481;0.4006;
1227.0000;0.1490;0.4054;
1227.3000;0.1481;0.4078;
1227.6000;0.1498;0.4054;
1227.9000;0.1514;0.4030;
1228.2000;0.1498;0.4030;
1228.5000;0.1490;0.3982;
1228.8000;0.1473;0.3911;
1229.1000;0.1481;0.3911;
1229.4000;0.1481;0.3958;
1229.7000;0.1506;0.4030;
1230.0000;0.1506;0.4078;
1230.3000;0.1498;0.4054;
1230.6000;0.1506;0.4030;
1230.9000;0.1538;0.4078;
1231.2000;0.1538;0.4173;
1231.5000;0.1481;0.3958;
1231.8000;0.1530;0.4030;
1232.1000;0.1498;0.4030;
1232.4000;0.1514;0.4101;
1232.7000;0.1506;0.4101;
1233.0000;0.1498;0.4078;
1233.3000;0.1465;0.3982;
1233.6000;0.1498;0.4030;
1233.9000;0.1514;0.4054;
1234.2000;0.1368;0.3720;
1234.5000;0.1368;0.3791;
1234.8000;0.1571;0.4292;
1235.1000;0.1473;0.4054;
1235.4000;0.1481;0.4030;
1235.7000;0.1522;0.4125;
1236.0000;0.1506;0.4078;
1236.3000;0.1481;0.4030;
1236.6000;0.1498;0.4030;
1236.9000;0.1490;0.4030;
1237.2000;0.1498;0.4125;
1237.5000;0.1490;0.4101;
1237.8000;0.1481;0.4078;
1238.1000;0.1481;0.4054;
1238.4000;0.1490;0.4078;
1238.7000;0.1490;0.4101;
1239.0000;0.1473;0.4078;
1239.3000;0.1498;0.4054;
1239.6000;0.1490;0.4030;
1239.9000;0.1457;0.4101;
1240.2000;0.1433;0.3958;
1240.5000;0.1481;0.4078;
1240.8000;0.1498;0.4197;
1241.1000;0.1368;0.3863;
1241.4000;0.1473;0.4054;
1241.7000;0.1571;0.4316;
1242.0000;0.1498;0.4149;
1242.3000;0.1490;0.4101;
1242.6000;0.1481;0.4078;
1242.9000;0.1498;0.4101;
1243.2000;0.1506;0.4078;
1243.5000;0.1514;0.4078;
1243.8000;0.1490;0.4054;
1244.1000;0.1522;0.4101;
1244.4000;0.1514;0.3982;
1244.7000;0.1490;0.4006;
1245.0000;0.1481;0.3982;
1245.3000;0.1498;0.4006;
1245.6000;0.1481;0.3982;
1245.9000;0.1498;0.4006;
1246.2000;0.1490;0.3982;
1246.5000;0.1490;0.3982;
1246.8000;0.1498;0.4030;
1247.1000;0.1490;0.4006;
1247.4000;0.1465;0.4054;
1247.7000;0.1498;0.4054;
1248.0000;0.1498;0.4006;
1248.3000;0.1481;0.3982;
1248.6000;0.1473;0.3958;
1248.9000;0.1490;0.4078;
1249.2000;0.1571;0.4435;
1249.5000;0.1490;0.4173;
1249.8000;0.1514;0.4197;
1250.1000;0.1498;0.4125;
1250.4000;0.1506;0.4173;
1250.7000;0.1441;0.3911;
1251.0000;0.1506;0.4006;
1251.3000;0.1473;0.3934;
1251.6000;0.1473;0.3958;
1251.9000;0.1506;0.3934;
1252.2000;0.1498;0.4006;
1252.5000;0.1506;0.3934;
1252.8000;0.1498;0.3863;
1253.1000;0.1449;0.3720;
1253.4000;0.1506;0.3887;
1253.7000;0.1457;0.3768;
1254.0000;0.1473;0.3887;
1254.3000;0.1481;0.3887;
1254.6000;0.1457;0.3768;
1254.9000;0.1490;0.3982;
1255.2000;0.1571;0.4197;
1255.5000;0.1490;0.4101;
1255.8000;0.1514;0.4173;
1256.1000;0.1490;0.4078;
1256.4000;0.1514;0.4101;
1256.7000;0.1498;0.4101;
1257.0000;0.1473;0.4030;
1257.3000;0.1481;0.3982;
1257.6000;0.1481;0.4006;
1257.9000;0.1506;0.4078;
1258.2000;0.1465;0.3958;
1258.5000;0.1481;0.4030;
1258.8000;0.1433;0.3839;
1259.1000;0.1490;0.3982;
1259.4000;0.1514;0.4054;
1259.7000;0.1490;0.4101;
1260.0000;0.1473;0.4030;
1260.3000;0.1490;0.4030;
1260.6000;0.1579;0.4197;
1260.9000;0.1547;0.4054;
1261.2000;0.1506;0.3934;
1261.5000;0.1522;0.4078;
1261.8000;0.1457;0.3958;
1262.1000;0.1490;0.4030;
1262.4000;0.1481;0.4054;
1262.7000;0.1498;0.3982;
1263.0000;0.1473;0.3911;
1263.3000;0.1481;0.3911;
1263.6000;0.1514;0.4078;
1263.9000;0.1490;0.4030;
1264.2000;0.1433;0.3863;
1264.5000;0.1481;0.4006;
1264.8000;0.1522;0.4101;
1265.1000;0.1473;0.3958;
1265.4000;0.1490;0.4006;
1265.7000;0.1498;0.4006;
1266.0000;0.1522;0.4197;
1266.3000;0.1498;0.4149;
1266.6000;0.1498;0.4101;
1266.9000;0.1490;0.4006;
1267.2000;0.1441;0.3958;
1267.5000;0.1490;0.4054;
1267.8000;0.1522;0.4101;
1268.1000;0.1506;0.4101;
1268.4000;0.1506;0.4101;
1268.7000;0.1481;0.4078;
1269.0000;0.1481;0.3982;
1269.3000;0.1490;0.3911;
1269.6000;0.1506;0.3934;
1269.9000;0.1563;0.4054;
1270.2000;0.1522;0.3934;
1270.5000;0.1506;0.3958;
1270.8000;0.1490;0.3934;
1271.1000;0.1498;0.3958;
1271.4000;0.1514;0.3911;
1271.7000;0.1506;0.3887;
1272.0000;0.1473;0.3815;
1272.3000;0.1490;0.3839;
1272.6000;0.1490;0.3863;
1272.9000;0.1441;0.3791;
1273.2000;0.1514;0.4030;
1273.5000;0.1514;0.3958;
1273.8000;0.1490;0.3887;
1274.1000;0.1465;0.3958;
1274.4000;0.1498;0.4006;
1274.7000;0.1481;0.3934;
1275.0000;0.1498;0.3934;
1275.3000;0.1473;0.3911;
1275.6000;0.1522;0.4054;
1275.9000;0.1473;0.3982;
1276.2000;0.1522;0.4101;
1276.5000;0.1506;0.4101;
1276.8000;0.1506;0.4030;
1277.1000;0.1547;0.4149;
1277.4000;0.1498;0.4101;
1277.7000;0.1555;0.4197;
1278.0000;0.1530;0.4173;
1278.3000;0.1555;0.4221;
1278.6000;0.1506;0.4125;
1278.9000;0.1547;0.4125;
1279.2000;0.1514;0.4006;
1279.5000;0.1514;0.4030;
1279.8000;0.1449;0.3911;
1280.1000;0.1514;0.4006;
1280.4000;0.1506;0.3958;
1280.7000;0.1506;0.3982;
1281.0000;0.1473;0.3934;
1281.3000;0.1498;0.4006;
1281.6000;0.1522;0.4149;
1281.9000;0.1506;0.4078;
1282.2000;0.1506;0.4101;
1282.5000;0.1490;0.4078;
1282.8000;0.1498;0.3958;
1283.1000;0.1514;0.3958;
1283.4000;0.1506;0.3958;
1283.7000;0.1473;0.3982;
1284.0000;0.1498;0.4149;
1284.3000;0.1506;0.4221;
1284.6000;0.1498;0.4125;
1284.9000;0.1481;0.4030;
1285.2000;0.1498;0.4030;
1285.5000;0.1506;0.3958;
1285.8000;0.1490;0.3911;
1286.1000;0.1490;0.3911;
1286.4000;0.1481;0.3982;
1286.7000;0.1498;0.4006;
1287.0000;0.1457;0.3911;
1287.3000;0.1506;0.4006;
1287.6000;0.1490;0.4030;
1287.9000;0.1490;0.4030;
1288.2000;0.1498;0.4078;
1288.5000;0.1530;0.4125;
1288.8000;0.1481;0.3958;
1289.1000;0.1473;0.3958;
1289.4000;0.1498;0.3982;
1289.7000;0.1490;0.3958;
1290.0000;0.1498;0.3982;
1290.3000;0.1498;0.4054;
1290.6000;0.1506;0.3982;
1290.9000;0.1498;0.4006;
1291.2000;0.1514;0.4125;
1291.5000;0.1465;0.4125;
1291.8000;0.1457;0.4054;
1292.1000;0.1481;0.4030;
1292.4000;0.1490;0.4054;
1292.7000;0.1481;0.4006;
1293.0000;0.1490;0.4054;
1293.3000;0.1498;0.4125;
1293.6000;0.1571;0.4364;
1293.9000;0.1514;0.4149;
1294.2000;0.1481;0.4030;
1294.5000;0.1547;0.4244;
1294.8000;0.1530;0.4173;
1295.1000;0.1433;0.3958;
1295.4000;0.1481;0.3958;
1295.7000;0.1490;0.3958;
1296.0000;0.1506;0.3887;
1296.3000;0.1555;0.4078;
1296.6000;0.1490;0.3839;
1296.9000;0.1481;0.3815;
1297.2000;0.1506;0.3911;
1297.5000;0.1490;0.3911;
1297.8000;0.1514;0.3934;
1298.1000;0.1416;0.3696;
1298.4000;0.1481;0.3744;
1298.7000;0.1481;0.3791;
1299.0000;0.1465;0.3934;
1299.3000;0.1498;0.4006;
1299.6000;0.1538;0.4221;
1299.9000;0.1514;0.4101;
1300.2000;0.1490;0.4030;
1300.5000;0.1514;0.4006;
1300.8000;0.1498;0.3982;
1301.1000;0.1457;0.3863;
1301.4000;0.1392;0.3601;
1301.7000;0.1425;0.3768;
1302.0000;0.1465;0.3839;
1302.3000;0.1481;0.3958;
1302.6000;0.1498;0.3958;
1302.9000;0.1506;0.3934;
1303.2000;0.1506;0.3958;
1303.5000;0.1498;0.3934;
1303.8000;0.1490;0.4006;
1304.1000;0.1490;0.3982;
1304.4000;0.1506;0.4006;
1304.7000;0.1490;0.3958;
1305.0000;0.1498;0.3934;
1305.3000;0.1490;0.3863;
1305.6000;0.1490;0.3839;
1305.9000;0.1481;0.3815;
1306.2000;0.1498;0.3863;
1306.5000;0.1506;0.3911;
1306.8000;0.1473;0.3911;
1307.1000;0.1473;0.3887;
1307.4000;0.1498;0.4006;
1307.7000;0.1465;0.3934;
1308.0000;0.1498;0.3911;
1308.3000;0.1465;0.3720;
1308.6000;0.1465;0.3839;
1308.9000;0.1506;0.3958;
1309.2000;0.1490;0.3934;
1309.5000;0.1465;0.3863;
1309.8000;0.1457;0.3815;
1310.1000;0.1498;0.3911;
1310.4000;0.1498;0.3911;
1310.7000;0.1490;0.3934;
1311.0000;0.1473;0.3934;
1311.3000;0.1481;0.3887;
1311.6000;0.1506;0.3958;
1311.9000;0.1465;0.3887;
1312.2000;0.1473;0.3887;
1312.5000;0.1498;0.3934;
1312.8000;0.1506;0.3958;
1313.1000;0.1506;0.3958;
1313.4000;0.1481;0.3958;
1313.7000;0.1481;0.3934;
1314.0000;0.1498;0.3982;
1314.3000;0.1490;0.4030;
1314.6000;0.1473;0.3982;
1314.9000;0.1514;0.4054;
1315.2000;0.1498;0.3982;
1315.5000;0.1481;0.3982;
1315.8000;0.1506;0.4006;
1316.1000;0.1506;0.3911;
1316.4000;0.1457;0.3791;
1316.7000;0.1490;0.3839;
1317.0000;0.1473;0.3791;
1317.3000;0.1465;0.3815;
1317.6000;0.1506;0.3982;
1317.9000;0.1481;0.4030;
1318.2000;0.1498;0.4173;
1318.5000;0.1522;0.4125;
1318.8000;0.1490;0.4006;
1319.1000;0.1506;0.4078;
1319.4000;0.1522;0.4006;
1319.7000;0.1506;0.3982;
1320.0000;0.1433;0.3839;
1320.3000;0.1530;0.4173;
1320.6000;0.1506;0.4125;
1320.9000;0.1481;0.4030;
1321.2000;0.1490;0.4006;
1321.5000;0.1490;0.3982;
1321.8000;0.1481;0.3887;
1322.1000;0.1473;0.3839;
1322.4000;0.1473;0.3887;
1322.7000;0.1498;0.3934;
1323.0000;0.1457;0.3839;
1323.3000;0.1473;0.3839;
1323.6000;0.1416;0.3696;
1323.9000;0.1506;0.4030;
1324.2000;0.1473;0.3911;
1324.5000;0.1498;0.3911;
1324.8000;0.1506;0.3839;
1325.1000;0.1490;0.3768;
1325.4000;0.1481;0.3791;
1325.7000;0.1498;0.3768;
1326.0000;0.1506;0.3744;
1326.3000;0.1481;0.3672;
1326.6000;0.1490;0.3672;
1326.9000;0.1490;0.3744;
1327.2000;0.1498;0.3863;
1327.5000;0.1547;0.4006;
1327.8000;0.1481;0.3768;
1328.1000;0.1449;0.3720;
1328.4000;0.1498;0.3863;
1328.7000;0.1587;0.4054;
1329.0000;0.1514;0.3911;
1329.3000;0.1547;0.3982;
1329.6000;0.1498;0.3863;
1329.9000;0.1506;0.3863;
1330.2000;0.1498;0.3934;
1330.5000;0.1506;0.4078;
1330.8000;0.1506;0.4054;
1331.1000;0.1498;0.4197;
1331.4000;0.1506;0.4101;
1331.7000;0.1498;0.4101;
1332.0000;0.1547;0.4221;
1332.3000;0.1514;0.4054;
1332.6000;0.1473;0.3958;
1332.9000;0.1449;0.3911;
1333.2000;0.1481;0.3958;
1333.5000;0.1498;0.3958;
1333.8000;0.1457;0.3839;
1334.1000;0.1498;0.3982;
1334.4000;0.1522;0.4054;
1334.7000;0.1514;0.4101;
1335.0000;0.1571;0.4268;
1335.3000;0.1481;0.4054;
1335.6000;0.1490;0.4078;
1335.9000;0.1514;0.4244;
1336.2000;0.1498;0.4244;
1336.5000;0.1490;0.4173;
1336.8000;0.1481;0.4101;
1337.1000;0.1498;0.4125;
1337.4000;0.1506;0.4173;
1337.7000;0.1506;0.4101;
1338.0000;0.1498;0.4173;
1338.3000;0.1490;0.4197;
1338.6000;0.1465;0.4054;
1338.9000;0.1522;0.4173;
1339.2000;0.1481;0.4125;
1339.5000;0.1473;0.4101;
1339.8000;0.1506;0.4221;
1340.1000;0.1416;0.3982;
1340.4000;0.1490;0.4197;
1340.7000;0.1481;0.4340;
1341.0000;0.1498;0.4340;
1341.3000;0.1433;0.4173;
1341.6000;0.1490;0.4292;
1341.9000;0.1481;0.4244;
1342.2000;0.1473;0.4173;
1342.5000;0.1490;0.4149;
1342.8000;0.1498;0.4173;
1343.1000;0.1465;0.4149;
1343.4000;0.1490;0.4125;
1343.7000;0.1481;0.4125;
1344.0000;0.1481;0.4125;
1344.3000;0.1481;0.4149;
1344.6000;0.1416;0.3934;
1344.9000;0.1490;0.4101;
1345.2000;0.1498;0.4221;
1345.5000;0.1522;0.4221;
1345.8000;0.1433;0.3934;
1346.1000;0.1481;0.4101;
1346.4000;0.1506;0.4268;
1346.7000;0.1498;0.4125;
1347.0000;0.1522;0.4078;
1347.3000;0.1498;0.4006;
1347.6000;0.1547;0.4030;
1347.9000;0.1522;0.3982;
1348.2000;0.1538;0.4125;
1348.5000;0.1490;0.4054;
1348.8000;0.1457;0.3958;
1349.1000;0.1530;0.4054;
1349.4000;0.1335;0.3601;
1349.7000;0.1498;0.4054;
1350.0000;0.1481;0.4054;
1350.3000;0.1530;0.4244;
1350.6000;0.1490;0.4054;
1350.9000;0.1465;0.3887;
1351.2000;0.1530;0.4101;
1351.5000;0.1506;0.3982;
1351.8000;0.1530;0.4101;
1352.1000;0.1481;0.4030;
1352.4000;0.1400;0.3815;
1352.7000;0.1498;0.4078;
1353.0000;0.1481;0.4054;
1353.3000;0.1563;0.4173;
1353.6000;0.1490;0.4006;
1353.9000;0.1498;0.4030;
1354.2000;0.1473;0.3863;
1354.5000;0.1506;0.4006;
1354.8000;0.1522;0.4054;
1355.1000;0.1514;0.4006;
1355.4000;0.1490;0.3958;
1355.7000;0.1506;0.4030;
1356.0000;0.1457;0.3911;
1356.3000;0.1522;0.4101;
1356.6000;0.1473;0.4030;
1356.9000;0.1490;0.4125;
1357.2000;0.1490;0.4078;
1357.5000;0.1514;0.4125;
1357.8000;0.1498;0.4101;
1358.1000;0.1433;0.3863;
1358.4000;0.1522;0.4101;
1358.7000;0.1514;0.4149;
1359.0000;0.1506;0.4244;
1359.3000;0.1506;0.4197;
1359.6000;0.1490;0.4197;
1359.9000;0.1490;0.4244;
1360.2000;0.1490;0.4292;
1360.5000;0.1465;0.4054;
1360.8000;0.1498;0.4125;
1361.1000;0.1538;0.4221;
1361.4000;0.1522;0.4173;
1361.7000;0.1481;0.4101;
1362.0000;0.1506;0.4197;
1362.3000;0.1490;0.4101;
1362.6000;0.1490;0.4101;
1362.9000;0.1498;0.4125;
1363.2000;0.1498;0.4125;
1363.5000;0.1465;0.4125;
1363.8000;0.1473;0.4125;
1364.1000;0.1481;0.4125;
1364.4000;0.1514;0.4173;
1364.7000;0.1506;0.4268;
1365.0000;0.1498;0.4292;
1365.3000;0.1522;0.4244;
1365.6000;0.1506;0.4244;
1365.9000;0.1506;0.4197;
1366.2000;0.1465;0.4197;
1366.5000;0.1490;0.4197;
1366.8000;0.1514;0.4221;
1367.1000;0.1441;0.4125;
1367.4000;0.1498;0.4316;
1367.7000;0.1441;0.4101;
1368.0000;0.1506;0.4268;
1368.3000;0.1481;0.4149;
1368.6000;0.1547;0.4340;
1368.9000;0.1449;0.4078;
1369.2000;0.1465;0.4125;
1369.5000;0.1498;0.4244;
1369.8000;0.1506;0.4244;
1370.1000;0.1514;0.4268;
1370.4000;0.1498;0.4221;
1370.7000;0.1368;0.3887;
1371.0000;0.1530;0.4292;
1371.3000;0.1498;0.4268;
1371.6000;0.1547;0.4411;
1371.9000;0.1457;0.4078;
1372.2000;0.1465;0.4030;
1372.5000;0.1522;0.4101;
1372.8000;0.1538;0.4221;
1373.1000;0.1481;0.4149;
1373.4000;0.1498;0.4292;
1373.7000;0.1498;0.4268;
1374.0000;0.1514;0.4244;
1374.3000;0.1490;0.4221;
1374.6000;0.1506;0.4268;
1374.9000;0.1571;0.4483;
1375.2000;0.1506;0.4244;
1375.5000;0.1506;0.4221;
1375.8000;0.1490;0.4173;
1376.1000;0.1522;0.4173;
1376.4000;0.1498;0.4078;
1376.7000;0.1498;0.4006;
1377.0000;0.1481;0.4054;
1377.3000;0.1498;0.4006;
1377.6000;0.1473;0.4030;
1377.9000;0.1490;0.3982;
1378.2000;0.1498;0.4006;
1378.5000;0.1481;0.4030;
1378.8000;0.1481;0.3887;
1379.1000;0.1490;0.3839;
1379.4000;0.1498;0.3863;
1379.7000;0.1425;0.3672;
1380.0000;0.1506;0.3887;
1380.3000;0.1481;0.3839;
1380.6000;0.1481;0.3887;
1380.9000;0.1490;0.3934;
1381.2000;0.1473;0.3839;
1381.5000;0.1498;0.3911;
1381.8000;0.1498;0.3887;
1382.1000;0.1490;0.3768;
1382.4000;0.1481;0.3744;
1382.7000;0.1490;0.3791;
1383.0000;0.1514;0.3887;
1383.3000;0.1506;0.3887;
1383.6000;0.1481;0.3863;
1383.9000;0.1481;0.3887;
1384.2000;0.1481;0.3958;
1384.5000;0.1587;0.4197;
1384.8000;0.1555;0.4054;
1385.1000;0.1498;0.3958;
1385.4000;0.1514;0.4006;
1385.7000;0.1490;0.4006;
1386.0000;0.1506;0.4125;
1386.3000;0.1473;0.4054;
1386.6000;0.1490;0.4054;
1386.9000;0.1457;0.3911;
1387.2000;0.1498;0.4006;
1387.5000;0.1571;0.4173;
1387.8000;0.1490;0.4006;
1388.1000;0.1506;0.4006;
1388.4000;0.1490;0.3982;
1388.7000;0.1481;0.4054;
1389.0000;0.1498;0.4101;
1389.3000;0.1498;0.4054;
1389.6000;0.1498;0.4030;
1389.9000;0.1425;0.3791;
1390.2000;0.1514;0.3982;
1390.5000;0.1465;0.3958;
1390.8000;0.1506;0.4101;
1391.1000;0.1547;0.4173;
1391.4000;0.1563;0.4197;
1391.7000;0.1465;0.3958;
1392.0000;0.1530;0.4244;
1392.3000;0.1473;0.4054;
1392.6000;0.1457;0.4101;
1392.9000;0.1538;0.4268;
1393.2000;0.1490;0.4125;
1393.5000;0.1677;0.4602;
1393.8000;0.1481;0.4006;
1394.1000;0.1522;0.4125;
1394.4000;0.1441;0.3958;
1394.7000;0.1465;0.3982;
1395.0000;0.1481;0.4078;
1395.3000;0.1481;0.4125;
1395.6000;0.1563;0.4316;
1395.9000;0.1506;0.4078;
1396.2000;0.1490;0.4054;
1396.5000;0.1498;0.4078;
1396.8000;0.1522;0.4149;
1397.1000;0.1506;0.4006;
1397.4000;0.1530;0.4054;
1397.7000;0.1530;0.4054;
1398.0000;0.1522;0.4054;
1398.3000;0.1473;0.3934;
1398.6000;0.1481;0.3934;
1398.9000;0.1473;0.3958;
1399.2000;0.1506;0.4030;
1399.5000;0.1498;0.4054;
1399.8000;0.1481;0.4078;
