time/ms;Fluo/V;P700 deltaI/I x10³;
-199.8000;0.3484;0.9612;
-199.5000;0.3476;0.9736;
-199.2000;0.3500;0.9835;
-198.9000;0.3451;0.9686;
-198.6000;0.3468;0.9711;
-198.3000;0.3476;0.9810;
-198.0000;0.3476;0.9711;
-197.7000;0.3484;0.9661;
-197.4000;0.3476;0.9537;
-197.1000;0.3476;0.9512;
-196.8000;0.3492;0.9512;
-196.5000;0.3484;0.9488;
-196.2000;0.3484;0.9488;
-195.9000;0.3508;0.9562;
-195.6000;0.3484;0.9488;
-195.3000;0.3492;0.9537;
-195.0000;0.3460;0.9488;
-194.7000;0.3468;0.9488;
-194.4000;0.3484;0.9587;
-194.1000;0.3484;0.9512;
-193.8000;0.3492;0.9488;
-193.5000;0.3484;0.9413;
-193.2000;0.3460;0.9289;
-192.9000;0.3484;0.9264;
-192.6000;0.3476;0.9338;
-192.3000;0.3533;0.9463;
-192.0000;0.3451;0.9189;
-191.7000;0.3476;0.9314;
-191.4000;0.3468;0.9363;
-191.1000;0.3484;0.9438;
-190.8000;0.3476;0.9488;
-190.5000;0.3394;0.9214;
-190.2000;0.3468;0.9438;
-189.9000;0.3476;0.9463;
-189.6000;0.3468;0.9488;
-189.3000;0.3500;0.9562;
-189.0000;0.3492;0.9512;
-188.7000;0.3484;0.9463;
-188.4000;0.3484;0.9388;
-188.1000;0.3476;0.9314;
-187.8000;0.3468;0.9314;
-187.5000;0.3500;0.9338;
-187.2000;0.3492;0.9314;
-186.9000;0.3476;0.9289;
-186.6000;0.3484;0.9314;
-186.3000;0.3484;0.9239;
-186.0000;0.3500;0.9289;
-185.7000;0.3484;0.9264;
-185.4000;0.3476;0.9214;
-185.1000;0.3500;0.9338;
-184.8000;0.3500;0.9413;
-184.5000;0.3500;0.9562;
-184.2000;0.3508;0.9562;
-183.9000;0.3484;0.9463;
-183.6000;0.3533;0.9612;
-183.3000;0.3451;0.9463;
-183.0000;0.3492;0.9537;
-182.7000;0.3484;0.9488;
-182.4000;0.3492;0.9512;
-182.1000;0.3500;0.9463;
-181.8000;0.3468;0.9413;
-181.5000;0.3484;0.9314;
-181.2000;0.3451;0.9314;
-180.9000;0.3492;0.9463;
-180.6000;0.3476;0.9463;
-180.3000;0.3484;0.9413;
-180.0000;0.3476;0.9388;
-179.7000;0.3476;0.9264;
-179.4000;0.3476;0.9289;
-179.1000;0.3492;0.9264;
-178.8000;0.3492;0.9314;
-178.5000;0.3460;0.9189;
-178.2000;0.3484;0.9239;
-177.9000;0.3500;0.9214;
-177.6000;0.3492;0.9090;
-177.3000;0.3500;0.9115;
-177.0000;0.3443;0.9040;
-176.7000;0.3492;0.9165;
-176.4000;0.3435;0.8991;
-176.1000;0.3476;0.9165;
-175.8000;0.3525;0.9388;
-175.5000;0.3492;0.9239;
-175.2000;0.3468;0.9214;
-174.9000;0.3476;0.9239;
-174.6000;0.3582;0.9438;
-174.3000;0.3508;0.9314;
-174.0000;0.3508;0.9363;
-173.7000;0.3492;0.9289;
-173.4000;0.3508;0.9363;
-173.1000;0.3443;0.9314;
-172.8000;0.3476;0.9363;
-172.5000;0.3492;0.9289;
-172.2000;0.3476;0.9314;
-171.9000;0.3508;0.9413;
-171.6000;0.3451;0.9264;
-171.3000;0.3492;0.9289;
-171.0000;0.3460;0.9189;
-170.7000;0.3468;0.9239;
-170.4000;0.3484;0.9289;
-170.1000;0.3476;0.9388;
-169.8000;0.3484;0.9363;
-169.5000;0.3492;0.9289;
-169.2000;0.3476;0.9264;
-168.9000;0.3492;0.9239;
-168.6000;0.3476;0.9264;
-168.3000;0.3492;0.9264;
-168.0000;0.3484;0.9314;
-167.7000;0.3492;0.9314;
-167.4000;0.3541;0.9537;
-167.1000;0.3500;0.9488;
-166.8000;0.3476;0.9438;
-166.5000;0.3476;0.9363;
-166.2000;0.3492;0.9562;
-165.9000;0.3476;0.9562;
-165.6000;0.3476;0.9488;
-165.3000;0.3516;0.9587;
-165.0000;0.3492;0.9463;
-164.7000;0.3508;0.9512;
-164.4000;0.3451;0.9388;
-164.1000;0.3476;0.9438;
-163.8000;0.3484;0.9463;
-163.5000;0.3484;0.9587;
-163.2000;0.3492;0.9637;
-162.9000;0.3492;0.9562;
-162.6000;0.3533;0.9612;
-162.3000;0.3484;0.9413;
-162.0000;0.3476;0.9388;
-161.7000;0.3492;0.9438;
-161.4000;0.3492;0.9488;
-161.1000;0.3484;0.9413;
-160.8000;0.3427;0.9314;
-160.5000;0.3516;0.9537;
-160.2000;0.3500;0.9488;
-159.9000;0.3476;0.9363;
-159.6000;0.3460;0.9363;
-159.3000;0.3362;0.9140;
-159.0000;0.3460;0.9413;
-158.7000;0.3468;0.9438;
-158.4000;0.3468;0.9413;
-158.1000;0.3468;0.9413;
-157.8000;0.3460;0.9388;
-157.5000;0.3468;0.9314;
-157.2000;0.3484;0.9239;
-156.9000;0.3476;0.9140;
-156.6000;0.3468;0.9189;
-156.3000;0.3476;0.9189;
-156.0000;0.3549;0.9388;
-155.7000;0.3533;0.9388;
-155.4000;0.3468;0.9314;
-155.1000;0.3451;0.9363;
-154.8000;0.3476;0.9537;
-154.5000;0.3484;0.9488;
-154.2000;0.3484;0.9438;
-153.9000;0.3460;0.9413;
-153.6000;0.3516;0.9512;
-153.3000;0.3500;0.9463;
-153.0000;0.3500;0.9413;
-152.7000;0.3492;0.9438;
-152.4000;0.3468;0.9314;
-152.1000;0.3492;0.9314;
-151.8000;0.3492;0.9289;
-151.5000;0.3484;0.9289;
-151.2000;0.3468;0.9314;
-150.9000;0.3516;0.9488;
-150.6000;0.3508;0.9512;
-150.3000;0.3500;0.9512;
-150.0000;0.3476;0.9463;
-149.7000;0.3484;0.9562;
-149.4000;0.3500;0.9537;
-149.1000;0.3492;0.9562;
-148.8000;0.3476;0.9587;
-148.5000;0.3492;0.9686;
-148.2000;0.3516;0.9686;
-147.9000;0.3484;0.9562;
-147.6000;0.3500;0.9562;
-147.3000;0.3468;0.9463;
-147.0000;0.3500;0.9438;
-146.7000;0.3451;0.9314;
-146.4000;0.3533;0.9488;
-146.1000;0.3500;0.9488;
-145.8000;0.3476;0.9562;
-145.5000;0.3476;0.9463;
-145.2000;0.3460;0.9363;
-144.9000;0.3468;0.9363;
-144.6000;0.3484;0.9488;
-144.3000;0.3451;0.9488;
-144.0000;0.3484;0.9661;
-143.7000;0.3460;0.9562;
-143.4000;0.3541;0.9736;
-143.1000;0.3484;0.9587;
-142.8000;0.3484;0.9612;
-142.5000;0.3492;0.9612;
-142.2000;0.3484;0.9661;
-141.9000;0.3492;0.9661;
-141.6000;0.3525;0.9637;
-141.3000;0.3492;0.9612;
-141.0000;0.3484;0.9661;
-140.7000;0.3549;0.9761;
-140.4000;0.3492;0.9786;
-140.1000;0.3484;0.9786;
-139.8000;0.3476;0.9810;
-139.5000;0.3508;0.9885;
-139.2000;0.3500;0.9761;
-138.9000;0.3500;0.9686;
-138.6000;0.3516;0.9686;
-138.3000;0.3484;0.9661;
-138.0000;0.3492;0.9686;
-137.7000;0.3492;0.9711;
-137.4000;0.3468;0.9637;
-137.1000;0.3500;0.9612;
-136.8000;0.3484;0.9537;
-136.5000;0.3492;0.9512;
-136.2000;0.3468;0.9488;
-135.9000;0.3484;0.9562;
-135.6000;0.3484;0.9488;
-135.3000;0.3573;0.9761;
-135.0000;0.3460;0.9537;
-134.7000;0.3451;0.9488;
-134.4000;0.3492;0.9637;
-134.1000;0.3484;0.9637;
-133.8000;0.3460;0.9512;
-133.5000;0.3476;0.9587;
-133.2000;0.3468;0.9587;
-132.9000;0.3476;0.9637;
-132.6000;0.3492;0.9587;
-132.3000;0.3476;0.9612;
-132.0000;0.3500;0.9612;
-131.7000;0.3533;0.9786;
-131.4000;0.3492;0.9612;
-131.1000;0.3492;0.9562;
-130.8000;0.3549;0.9810;
-130.5000;0.3492;0.9612;
-130.2000;0.3500;0.9711;
-129.9000;0.3419;0.9463;
-129.6000;0.3484;0.9612;
-129.3000;0.3476;0.9562;
-129.0000;0.3500;0.9562;
-128.7000;0.3500;0.9463;
-128.4000;0.3484;0.9463;
-128.1000;0.3484;0.9537;
-127.8000;0.3500;0.9463;
-127.5000;0.3500;0.9562;
-127.2000;0.3492;0.9488;
-126.9000;0.3500;0.9587;
-126.6000;0.3484;0.9537;
-126.3000;0.3484;0.9512;
-126.0000;0.3484;0.9463;
-125.7000;0.3508;0.9488;
-125.4000;0.3492;0.9562;
-125.1000;0.3492;0.9587;
-124.8000;0.3492;0.9637;
-124.5000;0.3492;0.9711;
-124.2000;0.3492;0.9686;
-123.9000;0.3484;0.9661;
-123.6000;0.3484;0.9686;
-123.3000;0.3541;0.9711;
-123.0000;0.3484;0.9562;
-122.7000;0.3484;0.9562;
-122.4000;0.3476;0.9562;
-122.1000;0.3468;0.9562;
-121.8000;0.3476;0.9562;
-121.5000;0.3419;0.9363;
-121.2000;0.3435;0.9463;
-120.9000;0.3468;0.9488;
-120.6000;0.3500;0.9488;
-120.3000;0.3476;0.9537;
-120.0000;0.3525;0.9661;
-119.7000;0.3516;0.9637;
-119.4000;0.3484;0.9612;
-119.1000;0.3476;0.9587;
-118.8000;0.3476;0.9562;
-118.5000;0.3500;0.9612;
-118.2000;0.3500;0.9637;
-117.9000;0.3516;0.9686;
-117.6000;0.3468;0.9661;
-117.3000;0.3460;0.9661;
-117.0000;0.3508;0.9761;
-116.7000;0.3435;0.9512;
-116.4000;0.3476;0.9612;
-116.1000;0.3476;0.9488;
-115.8000;0.3468;0.9438;
-115.5000;0.3451;0.9363;
-115.2000;0.3484;0.9413;
-114.9000;0.3484;0.9388;
-114.6000;0.3533;0.9488;
-114.3000;0.3500;0.9388;
-114.0000;0.3492;0.9463;
-113.7000;0.3468;0.9413;
-113.4000;0.3484;0.9388;
-113.1000;0.3492;0.9338;
-112.8000;0.3476;0.9264;
-112.5000;0.3508;0.9388;
-112.2000;0.3484;0.9537;
-111.9000;0.3451;0.9463;
-111.6000;0.3468;0.9438;
-111.3000;0.3468;0.9363;
-111.0000;0.3492;0.9488;
-110.7000;0.3476;0.9438;
-110.4000;0.3484;0.9512;
-110.1000;0.3476;0.9512;
-109.8000;0.3492;0.9562;
-109.5000;0.3508;0.9562;
-109.2000;0.3460;0.9438;
-108.9000;0.3476;0.9512;
-108.6000;0.3476;0.9587;
-108.3000;0.3451;0.9637;
-108.0000;0.3484;0.9761;
-107.7000;0.3500;0.9810;
-107.4000;0.3484;0.9711;
-107.1000;0.3460;0.9562;
-106.8000;0.3492;0.9661;
-106.5000;0.3484;0.9512;
-106.2000;0.3484;0.9438;
-105.9000;0.3468;0.9338;
-105.6000;0.3476;0.9363;
-105.3000;0.3460;0.9363;
-105.0000;0.3468;0.9388;
-104.7000;0.3492;0.9488;
-104.4000;0.3500;0.9512;
-104.1000;0.3492;0.9612;
-103.8000;0.3468;0.9562;
-103.5000;0.3484;0.9661;
-103.2000;0.3451;0.9587;
-102.9000;0.3468;0.9612;
-102.6000;0.3476;0.9686;
-102.3000;0.3484;0.9661;
-102.0000;0.3492;0.9711;
-101.7000;0.3484;0.9637;
-101.4000;0.3492;0.9612;
-101.1000;0.3500;0.9587;
-100.8000;0.3484;0.9488;
-100.5000;0.3476;0.9537;
-100.2000;0.3476;0.9488;
-99.9000;0.3394;0.9363;
-99.6000;0.3468;0.9463;
-99.3000;0.3468;0.9413;
-99.0000;0.3500;0.9512;
-98.7000;0.3525;0.9488;
-98.4000;0.3484;0.9512;
-98.1000;0.3492;0.9488;
-97.8000;0.3476;0.9512;
-97.5000;0.3484;0.9488;
-97.2000;0.3435;0.9413;
-96.9000;0.3460;0.9463;
-96.6000;0.3468;0.9587;
-96.3000;0.3476;0.9711;
-96.0000;0.3468;0.9661;
-95.7000;0.3476;0.9810;
-95.4000;0.3476;0.9786;
-95.1000;0.3525;0.9885;
-94.8000;0.3484;0.9810;
-94.5000;0.3484;0.9637;
-94.2000;0.3435;0.9562;
-93.9000;0.3476;0.9686;
-93.6000;0.3492;0.9711;
-93.3000;0.3500;0.9637;
-93.0000;0.3484;0.9537;
-92.7000;0.3484;0.9512;
-92.4000;0.3492;0.9612;
-92.1000;0.3525;0.9711;
-91.8000;0.3484;0.9661;
-91.5000;0.3476;0.9562;
-91.2000;0.3476;0.9512;
-90.9000;0.3468;0.9463;
-90.6000;0.3468;0.9388;
-90.3000;0.3516;0.9488;
-90.0000;0.3468;0.9314;
-89.7000;0.3476;0.9289;
-89.4000;0.3468;0.9264;
-89.1000;0.3484;0.9363;
-88.8000;0.3476;0.9363;
-88.5000;0.3484;0.9463;
-88.2000;0.3492;0.9537;
-87.9000;0.3468;0.9512;
-87.6000;0.3476;0.9488;
-87.3000;0.3500;0.9537;
-87.0000;0.3484;0.9463;
-86.7000;0.3476;0.9438;
-86.4000;0.3492;0.9438;
-86.1000;0.3484;0.9438;
-85.8000;0.3484;0.9363;
-85.5000;0.3484;0.9413;
-85.2000;0.3492;0.9413;
-84.9000;0.3492;0.9463;
-84.6000;0.3476;0.9388;
-84.3000;0.3484;0.9587;
-84.0000;0.3468;0.9512;
-83.7000;0.3476;0.9413;
-83.4000;0.3492;0.9438;
-83.1000;0.3484;0.9388;
-82.8000;0.3484;0.9388;
-82.5000;0.3468;0.9413;
-82.2000;0.3468;0.9338;
-81.9000;0.3476;0.9314;
-81.6000;0.3468;0.9214;
-81.3000;0.3476;0.9140;
-81.0000;0.3500;0.9239;
-80.7000;0.3484;0.9214;
-80.4000;0.3484;0.9239;
-80.1000;0.3468;0.9239;
-79.8000;0.3484;0.9264;
-79.5000;0.3476;0.9165;
-79.2000;0.3484;0.9214;
-78.9000;0.3492;0.9338;
-78.6000;0.3484;0.9363;
-78.3000;0.3533;0.9512;
-78.0000;0.3492;0.9413;
-77.7000;0.3451;0.9314;
-77.4000;0.3573;0.9686;
-77.1000;0.3484;0.9537;
-76.8000;0.3468;0.9413;
-76.5000;0.3476;0.9488;
-76.2000;0.3468;0.9488;
-75.9000;0.3500;0.9612;
-75.6000;0.3476;0.9587;
-75.3000;0.3516;0.9661;
-75.0000;0.3500;0.9637;
-74.7000;0.3484;0.9587;
-74.4000;0.3386;0.9264;
-74.1000;0.3476;0.9537;
-73.8000;0.3500;0.9661;
-73.5000;0.3484;0.9612;
-73.2000;0.3443;0.9512;
-72.9000;0.3468;0.9537;
-72.6000;0.3476;0.9512;
-72.3000;0.3614;0.9810;
-72.0000;0.3484;0.9463;
-71.7000;0.3468;0.9463;
-71.4000;0.3484;0.9438;
-71.1000;0.3476;0.9388;
-70.8000;0.3508;0.9388;
-70.5000;0.3492;0.9388;
-70.2000;0.3492;0.9463;
-69.9000;0.3492;0.9438;
-69.6000;0.3484;0.9463;
-69.3000;0.3492;0.9562;
-69.0000;0.3484;0.9587;
-68.7000;0.3484;0.9637;
-68.4000;0.3476;0.9612;
-68.1000;0.3508;0.9612;
-67.8000;0.3500;0.9537;
-67.5000;0.3492;0.9488;
-67.2000;0.3492;0.9488;
-66.9000;0.3484;0.9512;
-66.6000;0.3484;0.9463;
-66.3000;0.3476;0.9438;
-66.0000;0.3443;0.9413;
-65.7000;0.3492;0.9488;
-65.4000;0.3516;0.9562;
-65.1000;0.3484;0.9587;
-64.8000;0.3476;0.9438;
-64.5000;0.3476;0.9413;
-64.2000;0.3476;0.9413;
-63.9000;0.3484;0.9438;
-63.6000;0.3468;0.9463;
-63.3000;0.3492;0.9512;
-63.0000;0.3476;0.9562;
-62.7000;0.3476;0.9562;
-62.4000;0.3451;0.9413;
-62.1000;0.3476;0.9537;
-61.8000;0.3476;0.9512;
-61.5000;0.3460;0.9413;
-61.2000;0.3460;0.9388;
-60.9000;0.3484;0.9438;
-60.6000;0.3484;0.9488;
-60.3000;0.3484;0.9463;
-60.0000;0.3484;0.9413;
-59.7000;0.3476;0.9438;
-59.4000;0.3484;0.9512;
-59.1000;0.3500;0.9562;
-58.8000;0.3500;0.9612;
-58.5000;0.3484;0.9612;
-58.2000;0.3484;0.9562;
-57.9000;0.3484;0.9612;
-57.6000;0.3508;0.9661;
-57.3000;0.3492;0.9587;
-57.0000;0.3476;0.9587;
-56.7000;0.3476;0.9488;
-56.4000;0.3516;0.9537;
-56.1000;0.3484;0.9537;
-55.8000;0.3476;0.9488;
-55.5000;0.3492;0.9537;
-55.2000;0.3492;0.9587;
-54.9000;0.3468;0.9562;
-54.6000;0.3476;0.9661;
-54.3000;0.3484;0.9686;
-54.0000;0.3451;0.9537;
-53.7000;0.3492;0.9612;
-53.4000;0.3492;0.9562;
-53.1000;0.3484;0.9438;
-52.8000;0.3484;0.9488;
-52.5000;0.3476;0.9463;
-52.2000;0.3468;0.9438;
-51.9000;0.3508;0.9512;
-51.6000;0.3500;0.9537;
-51.3000;0.3468;0.9363;
-51.0000;0.3468;0.9413;
-50.7000;0.3500;0.9488;
-50.4000;0.3492;0.9388;
-50.1000;0.3484;0.9413;
-49.8000;0.3476;0.9463;
-49.5000;0.3492;0.9488;
-49.2000;0.3484;0.9512;
-48.9000;0.3500;0.9512;
-48.6000;0.3476;0.9438;
-48.3000;0.3484;0.9388;
-48.0000;0.3492;0.9512;
-47.7000;0.3500;0.9488;
-47.4000;0.3476;0.9438;
-47.1000;0.3468;0.9338;
-46.8000;0.3460;0.9264;
-46.5000;0.3492;0.9388;
-46.2000;0.3468;0.9363;
-45.9000;0.3468;0.9363;
-45.6000;0.3468;0.9413;
-45.3000;0.3484;0.9488;
-45.0000;0.3476;0.9438;
-44.7000;0.3394;0.9214;
-44.4000;0.3451;0.9314;
-44.1000;0.3500;0.9438;
-43.8000;0.3500;0.9438;
-43.5000;0.3492;0.9438;
-43.2000;0.3484;0.9413;
-42.9000;0.3484;0.9388;
-42.6000;0.3492;0.9363;
-42.3000;0.3427;0.9239;
-42.0000;0.3476;0.9363;
-41.7000;0.3484;0.9388;
-41.4000;0.3476;0.9314;
-41.1000;0.3468;0.9314;
-40.8000;0.3484;0.9264;
-40.5000;0.3500;0.9388;
-40.2000;0.3476;0.9388;
-39.9000;0.3492;0.9388;
-39.6000;0.3484;0.9363;
-39.3000;0.3492;0.9363;
-39.0000;0.3492;0.9413;
-38.7000;0.3492;0.9438;
-38.4000;0.3492;0.9388;
-38.1000;0.3492;0.9488;
-37.8000;0.3435;0.9338;
-37.5000;0.3500;0.9488;
-37.2000;0.3484;0.9463;
-36.9000;0.3492;0.9438;
-36.6000;0.3476;0.9488;
-36.3000;0.3476;0.9463;
-36.0000;0.3476;0.9488;
-35.7000;0.3508;0.9562;
-35.4000;0.3492;0.9338;
-35.1000;0.3500;0.9363;
-34.8000;0.3525;0.9488;
-34.5000;0.3476;0.9388;
-34.2000;0.3476;0.9438;
-33.9000;0.3451;0.9388;
-33.6000;0.3500;0.9488;
-33.3000;0.3476;0.9463;
-33.0000;0.3508;0.9413;
-32.7000;0.3492;0.9363;
-32.4000;0.3468;0.9338;
-32.1000;0.3484;0.9388;
-31.8000;0.3451;0.9388;
-31.5000;0.3468;0.9438;
-31.2000;0.3476;0.9463;
-30.9000;0.3451;0.9463;
-30.6000;0.3484;0.9463;
-30.3000;0.3468;0.9537;
-30.0000;0.3508;0.9463;
-29.7000;0.3484;0.9388;
-29.4000;0.3468;0.9388;
-29.1000;0.3476;0.9338;
-28.8000;0.3492;0.9488;
-28.5000;0.3484;0.9463;
-28.2000;0.3468;0.9463;
-27.9000;0.3476;0.9463;
-27.6000;0.3484;0.9488;
-27.3000;0.3525;0.9537;
-27.0000;0.3484;0.9463;
-26.7000;0.3419;0.9363;
-26.4000;0.3468;0.9388;
-26.1000;0.3476;0.9413;
-25.8000;0.3484;0.9413;
-25.5000;0.3533;0.9537;
-25.2000;0.3484;0.9413;
-24.9000;0.3533;0.9512;
-24.6000;0.3443;0.9289;
-24.3000;0.3476;0.9338;
-24.0000;0.3492;0.9388;
-23.7000;0.3500;0.9413;
-23.4000;0.3403;0.9239;
-23.1000;0.3484;0.9488;
-22.8000;0.3525;0.9736;
-22.5000;0.3549;0.9835;
-22.2000;0.3476;0.9562;
-21.9000;0.3386;0.9314;
-21.6000;0.3484;0.9488;
-21.3000;0.3460;0.9388;
-21.0000;0.3468;0.9463;
-20.7000;0.3565;0.9661;
-20.4000;0.3443;0.9438;
-20.1000;0.3500;0.9438;
-19.8000;0.3516;0.9537;
-19.5000;0.3492;0.9438;
-19.2000;0.3500;0.9488;
-18.9000;0.3492;0.9463;
-18.6000;0.3500;0.9488;
-18.3000;0.3492;0.9488;
-18.0000;0.3484;0.9463;
-17.7000;0.3468;0.9537;
-17.4000;0.3476;0.9562;
-17.1000;0.3476;0.9512;
-16.8000;0.3460;0.9413;
-16.5000;0.3484;0.9537;
-16.2000;0.3492;0.9562;
-15.9000;0.3460;0.9363;
-15.6000;0.3500;0.9289;
-15.3000;0.3484;0.9264;
-15.0000;0.3468;0.9264;
-14.7000;0.3476;0.9214;
-14.4000;0.3492;0.9388;
-14.1000;0.3492;0.9438;
-13.8000;0.3525;0.9562;
-13.5000;0.3476;0.9438;
-13.2000;0.3492;0.9512;
-12.9000;0.3492;0.9488;
-12.6000;0.3492;0.9463;
-12.3000;0.3484;0.9488;
-12.0000;0.3484;0.9488;
-11.7000;0.3492;0.9438;
-11.4000;0.3492;0.9413;
-11.1000;0.3468;0.9388;
-10.8000;0.3492;0.9413;
-10.5000;0.3468;0.9338;
-10.2000;0.3484;0.9488;
-9.9000;0.3460;0.9537;
-9.6000;0.3525;0.9661;
-9.3000;0.3500;0.9562;
-9.0000;0.3484;0.9562;
-8.7000;0.3484;0.9488;
-8.4000;0.3492;0.9488;
-8.1000;0.3476;0.9438;
-7.8000;0.3476;0.9463;
-7.5000;0.3549;0.9562;
-7.2000;0.3476;0.9413;
-6.9000;0.3484;0.9413;
-6.6000;0.3500;0.9512;
-6.3000;0.3516;0.9537;
-6.0000;0.3468;0.9488;
-5.7000;0.3460;0.9363;
-5.4000;0.3476;0.9363;
-5.1000;0.3460;0.9289;
-4.8000;0.3484;0.9388;
-4.5000;0.3582;0.9736;
-4.2000;0.3476;0.9438;
-3.9000;0.3443;0.9413;
-3.6000;0.3484;0.9438;
-3.3000;0.3508;0.9488;
-3.0000;0.3476;0.9388;
-2.7000;0.3508;0.9363;
-2.4000;0.3492;0.9314;
-2.1000;0.3565;0.9512;
-1.8000;0.3492;0.9314;
-1.5000;0.3468;0.9314;
-1.2000;0.3492;0.9438;
-0.9000;0.3500;0.9463;
-0.6000;0.3476;0.9388;
-0.3000;0.3468;0.9388;
0.0000;0.3468;0.9388;
0.3000;0.3639;0.9587;
0.6000;0.3907;0.9935;
0.9000;0.4054;1.0257;
1.2000;0.4241;1.0655;
1.5000;0.4347;1.0903;
1.8000;0.4428;1.1102;
2.1000;0.4485;1.1276;
2.4000;0.4558;1.1301;
2.7000;0.4599;1.1499;
3.0000;0.4624;1.1524;
3.3000;0.4656;1.1673;
3.6000;0.4729;1.1872;
3.9000;0.4713;1.1897;
4.2000;0.4729;1.1847;
4.5000;0.4737;1.1897;
4.8000;0.4770;1.1921;
5.1000;0.4835;1.2021;
5.4000;0.4835;1.1996;
5.7000;0.4819;1.1971;
6.0000;0.4827;1.2046;
6.3000;0.4827;1.1921;
6.6000;0.4851;1.1946;
6.9000;0.4876;1.1872;
7.2000;0.4892;1.1847;
7.5000;0.4892;1.1946;
7.8000;0.4884;1.1847;
8.1000;0.4900;1.1921;
8.4000;0.4941;1.2046;
8.7000;0.4941;1.1996;
9.0000;0.4957;1.1971;
9.3000;0.4957;1.1921;
9.6000;0.4982;1.1946;
9.9000;0.4990;1.1897;
10.2000;0.4974;1.1847;
10.5000;0.4974;1.1921;
10.8000;0.4990;1.1996;
11.1000;0.5014;1.2195;
11.4000;0.5014;1.2145;
11.7000;0.5039;1.2120;
12.0000;0.5079;1.2145;
12.3000;0.5006;1.1946;
12.6000;0.5071;1.2120;
12.9000;0.5096;1.2120;
13.2000;0.5088;1.2095;
13.5000;0.5088;1.2120;
13.8000;0.5088;1.2095;
14.1000;0.5112;1.2220;
14.4000;0.5112;1.2220;
14.7000;0.5128;1.2269;
15.0000;0.5161;1.2269;
15.3000;0.5128;1.2269;
15.6000;0.5153;1.2294;
15.9000;0.5161;1.2220;
16.2000;0.5177;1.2344;
16.5000;0.5169;1.2269;
16.8000;0.5128;1.2195;
17.1000;0.5177;1.2294;
17.4000;0.5210;1.2369;
17.7000;0.5177;1.2220;
18.0000;0.5153;1.2145;
18.3000;0.5177;1.2195;
18.6000;0.5153;1.2120;
18.9000;0.5226;1.2319;
19.2000;0.5177;1.2170;
19.5000;0.5161;1.2095;
19.8000;0.5234;1.2244;
20.1000;0.5242;1.2220;
20.4000;0.5201;1.1971;
20.7000;0.5210;1.1921;
21.0000;0.5267;1.2071;
21.3000;0.5258;1.1971;
21.6000;0.5291;1.2071;
21.9000;0.5275;1.1921;
22.2000;0.5291;1.1996;
22.5000;0.5283;1.2071;
22.8000;0.5267;1.2046;
23.1000;0.5299;1.2095;
23.4000;0.5307;1.2120;
23.7000;0.5291;1.2095;
24.0000;0.5291;1.2021;
24.3000;0.5275;1.1897;
24.6000;0.5332;1.1946;
24.9000;0.5299;1.1971;
25.2000;0.5307;1.1996;
25.5000;0.5258;1.1921;
25.8000;0.5324;1.2120;
26.1000;0.5324;1.2120;
26.4000;0.5315;1.2095;
26.7000;0.5307;1.2046;
27.0000;0.5324;1.2071;
27.3000;0.5332;1.2046;
27.6000;0.5405;1.2294;
27.9000;0.5348;1.2195;
28.2000;0.5348;1.2269;
28.5000;0.5372;1.2220;
28.8000;0.5340;1.2195;
29.1000;0.5348;1.2170;
29.4000;0.5332;1.2120;
29.7000;0.5364;1.2071;
30.0000;0.5372;1.2095;
30.3000;0.5348;1.2046;
30.6000;0.5356;1.2095;
30.9000;0.5372;1.2145;
31.2000;0.5372;1.2021;
31.5000;0.5372;1.2071;
31.8000;0.5364;1.2095;
32.1000;0.5381;1.2095;
32.4000;0.5364;1.1996;
32.7000;0.5364;1.2046;
33.0000;0.5372;1.2021;
33.3000;0.5454;1.2195;
33.6000;0.5389;1.2071;
33.9000;0.5364;1.2021;
34.2000;0.5381;1.2021;
34.5000;0.5389;1.1971;
34.8000;0.5397;1.1897;
35.1000;0.5397;1.1847;
35.4000;0.5389;1.1723;
35.7000;0.5389;1.1797;
36.0000;0.5462;1.2021;
36.3000;0.5421;1.1971;
36.6000;0.5421;1.1971;
36.9000;0.5462;1.2046;
37.2000;0.5446;1.1921;
37.5000;0.5421;1.1772;
37.8000;0.5413;1.1772;
38.1000;0.5413;1.1847;
38.4000;0.5421;1.1897;
38.7000;0.5421;1.1946;
39.0000;0.5413;1.1847;
39.3000;0.5421;1.1772;
39.6000;0.5421;1.1748;
39.9000;0.5421;1.1748;
40.2000;0.5413;1.1772;
40.5000;0.5438;1.1797;
40.8000;0.5462;1.1872;
41.1000;0.5438;1.1921;
41.4000;0.5446;1.1946;
41.7000;0.5438;1.1897;
42.0000;0.5438;1.1847;
42.3000;0.5397;1.1797;
42.6000;0.5478;1.1897;
42.9000;0.5413;1.1772;
43.2000;0.5454;1.1847;
43.5000;0.5462;1.1872;
43.8000;0.5413;1.1698;
44.1000;0.5446;1.1797;
44.4000;0.5405;1.1772;
44.7000;0.5438;1.1797;
45.0000;0.5495;1.1921;
45.3000;0.5486;1.1897;
45.6000;0.5405;1.1673;
45.9000;0.5470;1.1872;
46.2000;0.5486;1.1946;
46.5000;0.5478;1.2046;
46.8000;0.5478;1.1996;
47.1000;0.5503;1.1946;
47.4000;0.5503;1.1872;
47.7000;0.5495;1.1897;
48.0000;0.5495;1.1872;
48.3000;0.5495;1.1897;
48.6000;0.5527;1.1946;
48.9000;0.5503;1.1872;
49.2000;0.5495;1.1772;
49.5000;0.5503;1.1822;
49.8000;0.5478;1.1797;
50.1000;0.5503;1.1797;
50.4000;0.5495;1.1748;
50.7000;0.5503;1.1822;
51.0000;0.5503;1.1698;
51.3000;0.5519;1.1698;
51.6000;0.5535;1.1748;
51.9000;0.5511;1.1723;
52.2000;0.5503;1.1748;
52.5000;0.5495;1.1822;
52.8000;0.5511;1.1822;
53.1000;0.5519;1.1772;
53.4000;0.5511;1.1748;
53.7000;0.5511;1.1797;
54.0000;0.5519;1.1748;
54.3000;0.5511;1.1748;
54.6000;0.5503;1.1698;
54.9000;0.5527;1.1723;
55.2000;0.5495;1.1698;
55.5000;0.5527;1.1772;
55.8000;0.5527;1.1723;
56.1000;0.5495;1.1623;
56.4000;0.5551;1.1723;
56.7000;0.5560;1.1623;
57.0000;0.5478;1.1524;
57.3000;0.5495;1.1524;
57.6000;0.5560;1.1623;
57.9000;0.5551;1.1648;
58.2000;0.5560;1.1574;
58.5000;0.5584;1.1698;
58.8000;0.5576;1.1772;
59.1000;0.5551;1.1623;
59.4000;0.5543;1.1574;
59.7000;0.5543;1.1623;
60.0000;0.5560;1.1698;
60.3000;0.5560;1.1723;
60.6000;0.5592;1.1772;
60.9000;0.5568;1.1648;
61.2000;0.5584;1.1698;
61.5000;0.5568;1.1673;
61.8000;0.5568;1.1599;
62.1000;0.5584;1.1648;
62.4000;0.5576;1.1698;
62.7000;0.5560;1.1574;
63.0000;0.5568;1.1524;
63.3000;0.5584;1.1623;
63.6000;0.5576;1.1599;
63.9000;0.5592;1.1574;
64.2000;0.5592;1.1574;
64.5000;0.5592;1.1673;
64.8000;0.5592;1.1673;
65.1000;0.5600;1.1648;
65.4000;0.5560;1.1648;
65.7000;0.5527;1.1574;
66.0000;0.5600;1.1673;
66.3000;0.5608;1.1623;
66.6000;0.5600;1.1673;
66.9000;0.5592;1.1623;
67.2000;0.5600;1.1450;
67.5000;0.5608;1.1524;
67.8000;0.5576;1.1375;
68.1000;0.5617;1.1524;
68.4000;0.5625;1.1549;
68.7000;0.5698;1.1847;
69.0000;0.5617;1.1673;
69.3000;0.5617;1.1524;
69.6000;0.5600;1.1450;
69.9000;0.5617;1.1549;
70.2000;0.5625;1.1574;
70.5000;0.5625;1.1648;
70.8000;0.5617;1.1673;
71.1000;0.5608;1.1648;
71.4000;0.5617;1.1648;
71.7000;0.5617;1.1673;
72.0000;0.5625;1.1748;
72.3000;0.5625;1.1723;
72.6000;0.5641;1.1772;
72.9000;0.5641;1.1698;
73.2000;0.5657;1.1723;
73.5000;0.5649;1.1723;
73.8000;0.5633;1.1648;
74.1000;0.5714;1.1797;
74.4000;0.5657;1.1673;
74.7000;0.5633;1.1698;
75.0000;0.5633;1.1673;
75.3000;0.5649;1.1723;
75.6000;0.5641;1.1772;
75.9000;0.5649;1.1723;
76.2000;0.5641;1.1772;
76.5000;0.5649;1.1797;
76.8000;0.5682;1.1822;
77.1000;0.5649;1.1797;
77.4000;0.5657;1.1723;
77.7000;0.5657;1.1673;
78.0000;0.5698;1.1648;
78.3000;0.5682;1.1599;
78.6000;0.5665;1.1574;
78.9000;0.5690;1.1599;
79.2000;0.5674;1.1499;
79.5000;0.5698;1.1574;
79.8000;0.5657;1.1400;
80.1000;0.5674;1.1425;
80.4000;0.5674;1.1474;
80.7000;0.5674;1.1499;
81.0000;0.5657;1.1474;
81.3000;0.5649;1.1474;
81.6000;0.5674;1.1499;
81.9000;0.5625;1.1450;
82.2000;0.5657;1.1499;
82.5000;0.5665;1.1549;
82.8000;0.5682;1.1673;
83.1000;0.5674;1.1648;
83.4000;0.5657;1.1599;
83.7000;0.5674;1.1599;
84.0000;0.5682;1.1474;
84.3000;0.5657;1.1450;
84.6000;0.5665;1.1450;
84.9000;0.5674;1.1325;
85.2000;0.5690;1.1375;
85.5000;0.5674;1.1425;
85.8000;0.5690;1.1450;
86.1000;0.5665;1.1499;
86.4000;0.5690;1.1499;
86.7000;0.5682;1.1574;
87.0000;0.5690;1.1549;
87.3000;0.5682;1.1574;
87.6000;0.5690;1.1574;
87.9000;0.5698;1.1623;
88.2000;0.5698;1.1574;
88.5000;0.5698;1.1574;
88.8000;0.5706;1.1599;
89.1000;0.5674;1.1549;
89.4000;0.5706;1.1623;
89.7000;0.5682;1.1499;
90.0000;0.5682;1.1574;
90.3000;0.5706;1.1599;
90.6000;0.5690;1.1549;
90.9000;0.5698;1.1673;
91.2000;0.5690;1.1574;
91.5000;0.5698;1.1623;
91.8000;0.5739;1.1698;
92.1000;0.5706;1.1648;
92.4000;0.5568;1.1226;
92.7000;0.5731;1.1549;
93.0000;0.5698;1.1499;
93.3000;0.5690;1.1474;
93.6000;0.5731;1.1673;
93.9000;0.5714;1.1623;
94.2000;0.5706;1.1599;
94.5000;0.5706;1.1499;
94.8000;0.5722;1.1524;
95.1000;0.5633;1.1450;
95.4000;0.5690;1.1549;
95.7000;0.5706;1.1574;
96.0000;0.5690;1.1574;
96.3000;0.5706;1.1549;
96.6000;0.5706;1.1549;
96.9000;0.5698;1.1648;
97.2000;0.5682;1.1599;
97.5000;0.5698;1.1648;
97.8000;0.5698;1.1648;
98.1000;0.5714;1.1673;
98.4000;0.5714;1.1723;
98.7000;0.5722;1.1723;
99.0000;0.5706;1.1673;
99.3000;0.5649;1.1499;
99.6000;0.5714;1.1748;
99.9000;0.5739;1.1698;
100.2000;0.5722;1.1648;
100.5000;0.5714;1.1623;
100.8000;0.5714;1.1748;
101.1000;0.5706;1.1673;
101.4000;0.5722;1.1648;
101.7000;0.5706;1.1574;
102.0000;0.5731;1.1549;
102.3000;0.5731;1.1574;
102.6000;0.5714;1.1574;
102.9000;0.5722;1.1524;
103.2000;0.5739;1.1599;
103.5000;0.5722;1.1574;
103.8000;0.5706;1.1574;
104.1000;0.5722;1.1599;
104.4000;0.5690;1.1599;
104.7000;0.5722;1.1648;
105.0000;0.5706;1.1499;
105.3000;0.5722;1.1574;
105.6000;0.5722;1.1648;
105.9000;0.5714;1.1599;
106.2000;0.5731;1.1549;
106.5000;0.5812;1.1872;
106.8000;0.5722;1.1623;
107.1000;0.5779;1.1698;
107.4000;0.5722;1.1549;
107.7000;0.5714;1.1574;
108.0000;0.5714;1.1599;
108.3000;0.5739;1.1623;
108.6000;0.5722;1.1574;
108.9000;0.5731;1.1648;
109.2000;0.5714;1.1599;
109.5000;0.5698;1.1574;
109.8000;0.5706;1.1524;
110.1000;0.5714;1.1549;
110.4000;0.5714;1.1623;
110.7000;0.5722;1.1698;
111.0000;0.5714;1.1648;
111.3000;0.5706;1.1673;
111.6000;0.5682;1.1574;
111.9000;0.5706;1.1648;
112.2000;0.5714;1.1698;
112.5000;0.5706;1.1698;
112.8000;0.5722;1.1673;
113.1000;0.5731;1.1748;
113.4000;0.5682;1.1623;
113.7000;0.5649;1.1524;
114.0000;0.5747;1.1723;
114.3000;0.5706;1.1549;
114.6000;0.5731;1.1574;
114.9000;0.5755;1.1574;
115.2000;0.5731;1.1474;
115.5000;0.5706;1.1375;
115.8000;0.5657;1.1301;
116.1000;0.5779;1.1648;
116.4000;0.5739;1.1549;
116.7000;0.5739;1.1574;
117.0000;0.5722;1.1549;
117.3000;0.5722;1.1499;
117.6000;0.5796;1.1623;
117.9000;0.5731;1.1474;
118.2000;0.5731;1.1474;
118.5000;0.5739;1.1599;
118.8000;0.5747;1.1524;
119.1000;0.5731;1.1450;
119.4000;0.5722;1.1375;
119.7000;0.5706;1.1276;
120.0000;0.5698;1.1276;
120.3000;0.5731;1.1325;
120.6000;0.5714;1.1301;
120.9000;0.5731;1.1400;
121.2000;0.5739;1.1425;
121.5000;0.5779;1.1524;
121.8000;0.5731;1.1400;
122.1000;0.5722;1.1499;
122.4000;0.5739;1.1574;
122.7000;0.5731;1.1474;
123.0000;0.5722;1.1549;
123.3000;0.5763;1.1599;
123.6000;0.5722;1.1474;
123.9000;0.5755;1.1425;
124.2000;0.5722;1.1350;
124.5000;0.5731;1.1400;
124.8000;0.5771;1.1499;
125.1000;0.5739;1.1450;
125.4000;0.5747;1.1499;
125.7000;0.5747;1.1524;
126.0000;0.5714;1.1499;
126.3000;0.5722;1.1524;
126.6000;0.5739;1.1450;
126.9000;0.5747;1.1425;
127.2000;0.5747;1.1425;
127.5000;0.5739;1.1474;
127.8000;0.5722;1.1375;
128.1000;0.5722;1.1425;
128.4000;0.5747;1.1474;
128.7000;0.5731;1.1450;
129.0000;0.5722;1.1425;
129.3000;0.5755;1.1524;
129.6000;0.5722;1.1400;
129.9000;0.5706;1.1450;
130.2000;0.5739;1.1474;
130.5000;0.5722;1.1499;
130.8000;0.5698;1.1375;
131.1000;0.5731;1.1400;
131.4000;0.5747;1.1524;
131.7000;0.5739;1.1474;
132.0000;0.5755;1.1499;
132.3000;0.5739;1.1450;
132.6000;0.5731;1.1425;
132.9000;0.5731;1.1450;
133.2000;0.5698;1.1400;
133.5000;0.5731;1.1425;
133.8000;0.5763;1.1425;
134.1000;0.5747;1.1425;
134.4000;0.5763;1.1549;
134.7000;0.5714;1.1499;
135.0000;0.5722;1.1524;
135.3000;0.5763;1.1673;
135.6000;0.5698;1.1574;
135.9000;0.5731;1.1623;
136.2000;0.5731;1.1499;
136.5000;0.5698;1.1400;
136.8000;0.5722;1.1474;
137.1000;0.5747;1.1574;
137.4000;0.5731;1.1549;
137.7000;0.5828;1.1897;
138.0000;0.5739;1.1599;
138.3000;0.5731;1.1499;
138.6000;0.5788;1.1748;
138.9000;0.5747;1.1524;
139.2000;0.5739;1.1599;
139.5000;0.5722;1.1549;
139.8000;0.5714;1.1499;
140.1000;0.5690;1.1549;
140.4000;0.5731;1.1648;
140.7000;0.5739;1.1599;
141.0000;0.5731;1.1623;
141.3000;0.5739;1.1698;
141.6000;0.5722;1.1623;
141.9000;0.5722;1.1599;
142.2000;0.5731;1.1673;
142.5000;0.5682;1.1499;
142.8000;0.5714;1.1574;
143.1000;0.5722;1.1698;
143.4000;0.5714;1.1673;
143.7000;0.5722;1.1599;
144.0000;0.5722;1.1599;
144.3000;0.5731;1.1549;
144.6000;0.5706;1.1524;
144.9000;0.5698;1.1425;
145.2000;0.5706;1.1425;
145.5000;0.5722;1.1450;
145.8000;0.5731;1.1474;
146.1000;0.5714;1.1524;
146.4000;0.5714;1.1450;
146.7000;0.5714;1.1474;
147.0000;0.5706;1.1549;
147.3000;0.5731;1.1623;
147.6000;0.5714;1.1524;
147.9000;0.5731;1.1549;
148.2000;0.5763;1.1549;
148.5000;0.5739;1.1599;
148.8000;0.5714;1.1450;
149.1000;0.5706;1.1450;
149.4000;0.5690;1.1450;
149.7000;0.5722;1.1450;
150.0000;0.5657;1.1325;
150.3000;0.5706;1.1450;
150.6000;0.5731;1.1524;
150.9000;0.5731;1.1524;
151.2000;0.5714;1.1400;
151.5000;0.5739;1.1474;
151.8000;0.5714;1.1450;
152.1000;0.5722;1.1499;
152.4000;0.5804;1.1748;
152.7000;0.5739;1.1599;
153.0000;0.5739;1.1623;
153.3000;0.5747;1.1623;
153.6000;0.5722;1.1574;
153.9000;0.5731;1.1623;
154.2000;0.5779;1.1748;
154.5000;0.5731;1.1599;
154.8000;0.5698;1.1524;
155.1000;0.5698;1.1574;
155.4000;0.5714;1.1599;
155.7000;0.5722;1.1599;
156.0000;0.5657;1.1474;
156.3000;0.5698;1.1549;
156.6000;0.5722;1.1574;
156.9000;0.5714;1.1623;
157.2000;0.5698;1.1574;
157.5000;0.5690;1.1549;
157.8000;0.5714;1.1623;
158.1000;0.5714;1.1648;
158.4000;0.5706;1.1698;
158.7000;0.5714;1.1648;
159.0000;0.5714;1.1623;
159.3000;0.5706;1.1599;
159.6000;0.5706;1.1599;
159.9000;0.5698;1.1623;
160.2000;0.5714;1.1599;
160.5000;0.5714;1.1673;
160.8000;0.5755;1.1748;
161.1000;0.5714;1.1673;
161.4000;0.5731;1.1748;
161.7000;0.5714;1.1772;
162.0000;0.5739;1.1772;
162.3000;0.5731;1.1772;
162.6000;0.5722;1.1723;
162.9000;0.5706;1.1623;
163.2000;0.5674;1.1499;
163.5000;0.5739;1.1648;
163.8000;0.5698;1.1574;
164.1000;0.5698;1.1599;
164.4000;0.5698;1.1574;
164.7000;0.5690;1.1474;
165.0000;0.5731;1.1648;
165.3000;0.5714;1.1623;
165.6000;0.5771;1.1797;
165.9000;0.5714;1.1648;
166.2000;0.5682;1.1599;
166.5000;0.5698;1.1574;
166.8000;0.5714;1.1599;
167.1000;0.5722;1.1524;
167.4000;0.5714;1.1499;
167.7000;0.5755;1.1574;
168.0000;0.5698;1.1425;
168.3000;0.5714;1.1425;
168.6000;0.5682;1.1350;
168.9000;0.5714;1.1375;
169.2000;0.5706;1.1499;
169.5000;0.5706;1.1574;
169.8000;0.5731;1.1723;
170.1000;0.5690;1.1623;
170.4000;0.5690;1.1574;
170.7000;0.5706;1.1623;
171.0000;0.5682;1.1623;
171.3000;0.5698;1.1698;
171.6000;0.5690;1.1698;
171.9000;0.5698;1.1648;
172.2000;0.5698;1.1673;
172.5000;0.5722;1.1772;
172.8000;0.5690;1.1723;
173.1000;0.5706;1.1723;
173.4000;0.5714;1.1748;
173.7000;0.5714;1.1673;
174.0000;0.5657;1.1574;
174.3000;0.5706;1.1648;
174.6000;0.5682;1.1524;
174.9000;0.5731;1.1648;
175.2000;0.5690;1.1549;
175.5000;0.5698;1.1648;
175.8000;0.5665;1.1574;
176.1000;0.5714;1.1673;
176.4000;0.5706;1.1648;
176.7000;0.5698;1.1623;
177.0000;0.5682;1.1574;
177.3000;0.5714;1.1623;
177.6000;0.5706;1.1673;
177.9000;0.5722;1.1797;
178.2000;0.5690;1.1772;
178.5000;0.5706;1.1748;
178.8000;0.5690;1.1723;
179.1000;0.5698;1.1748;
179.4000;0.5690;1.1723;
179.7000;0.5714;1.1797;
180.0000;0.5804;1.1996;
180.3000;0.5698;1.1623;
180.6000;0.5722;1.1673;
180.9000;0.5690;1.1723;
181.2000;0.5657;1.1748;
181.5000;0.5690;1.1797;
181.8000;0.5706;1.1772;
182.1000;0.5779;1.1971;
182.4000;0.5690;1.1723;
182.7000;0.5674;1.1748;
183.0000;0.5690;1.1748;
183.3000;0.5682;1.1748;
183.6000;0.5739;1.1971;
183.9000;0.5690;1.1797;
184.2000;0.5722;1.1847;
184.5000;0.5796;1.1996;
184.8000;0.5714;1.1797;
185.1000;0.5747;1.1772;
185.4000;0.5698;1.1673;
185.7000;0.5714;1.1648;
186.0000;0.5690;1.1623;
186.3000;0.5722;1.1797;
186.6000;0.5706;1.1772;
186.9000;0.5698;1.1673;
187.2000;0.5682;1.1623;
187.5000;0.5674;1.1599;
187.8000;0.5690;1.1648;
188.1000;0.5682;1.1698;
188.4000;0.5690;1.1822;
188.7000;0.5682;1.1872;
189.0000;0.5722;1.1946;
189.3000;0.5747;1.1946;
189.6000;0.5747;1.1847;
189.9000;0.5698;1.1772;
190.2000;0.5690;1.1673;
190.5000;0.5657;1.1623;
190.8000;0.5682;1.1723;
191.1000;0.5690;1.1673;
191.4000;0.5674;1.1623;
191.7000;0.5722;1.1872;
192.0000;0.5690;1.1723;
192.3000;0.5665;1.1673;
192.6000;0.5682;1.1723;
192.9000;0.5690;1.1698;
193.2000;0.5657;1.1698;
193.5000;0.5674;1.1772;
193.8000;0.5706;1.1723;
194.1000;0.5690;1.1648;
194.4000;0.5698;1.1648;
194.7000;0.5690;1.1599;
195.0000;0.5690;1.1599;
195.3000;0.5690;1.1574;
195.6000;0.5706;1.1524;
195.9000;0.5706;1.1599;
196.2000;0.5682;1.1524;
196.5000;0.5690;1.1524;
196.8000;0.5657;1.1375;
197.1000;0.5682;1.1499;
197.4000;0.5706;1.1574;
197.7000;0.5690;1.1574;
198.0000;0.5690;1.1648;
198.3000;0.5690;1.1673;
198.6000;0.5698;1.1623;
198.9000;0.5690;1.1698;
199.2000;0.5714;1.1599;
199.5000;0.5665;1.1450;
199.8000;0.5731;1.1574;
200.1000;0.5698;1.1549;
200.4000;0.5698;1.1599;
200.7000;0.5682;1.1599;
201.0000;0.5665;1.1574;
201.3000;0.5657;1.1574;
201.6000;0.5706;1.1648;
201.9000;0.5682;1.1599;
202.2000;0.5665;1.1648;
202.5000;0.5674;1.1648;
202.8000;0.5665;1.1623;
203.1000;0.5698;1.1648;
203.4000;0.5633;1.1499;
203.7000;0.5690;1.1599;
204.0000;0.5706;1.1698;
204.3000;0.5641;1.1450;
204.6000;0.5690;1.1549;
204.9000;0.5690;1.1549;
205.2000;0.5608;1.1400;
205.5000;0.5690;1.1574;
205.8000;0.5617;1.1450;
206.1000;0.5698;1.1574;
206.4000;0.5633;1.1375;
206.7000;0.5722;1.1574;
207.0000;0.5747;1.1648;
207.3000;0.5633;1.1350;
207.6000;0.5674;1.1549;
207.9000;0.5682;1.1623;
208.2000;0.5690;1.1648;
208.5000;0.5674;1.1648;
208.8000;0.5641;1.1549;
209.1000;0.5633;1.1499;
209.4000;0.5674;1.1524;
209.7000;0.5657;1.1450;
210.0000;0.5674;1.1499;
210.3000;0.5682;1.1474;
210.6000;0.5665;1.1474;
210.9000;0.5674;1.1549;
211.2000;0.5690;1.1524;
211.5000;0.5649;1.1499;
211.8000;0.5698;1.1599;
212.1000;0.5682;1.1549;
212.4000;0.5674;1.1524;
212.7000;0.5682;1.1499;
213.0000;0.5633;1.1400;
213.3000;0.5690;1.1474;
213.6000;0.5682;1.1474;
213.9000;0.5698;1.1499;
214.2000;0.5674;1.1474;
214.5000;0.5617;1.1350;
214.8000;0.5649;1.1474;
215.1000;0.5674;1.1524;
215.4000;0.5649;1.1474;
215.7000;0.5665;1.1599;
216.0000;0.5665;1.1574;
216.3000;0.5665;1.1574;
216.6000;0.5682;1.1623;
216.9000;0.5665;1.1549;
217.2000;0.5649;1.1499;
217.5000;0.5682;1.1549;
217.8000;0.5682;1.1574;
218.1000;0.5674;1.1474;
218.4000;0.5674;1.1450;
218.7000;0.5682;1.1400;
219.0000;0.5674;1.1375;
219.3000;0.5657;1.1325;
219.6000;0.5665;1.1375;
219.9000;0.5690;1.1400;
220.2000;0.5674;1.1400;
220.5000;0.5706;1.1450;
220.8000;0.5682;1.1375;
221.1000;0.5657;1.1450;
221.4000;0.5657;1.1474;
221.7000;0.5698;1.1648;
222.0000;0.5698;1.1648;
222.3000;0.5690;1.1623;
222.6000;0.5665;1.1549;
222.9000;0.5665;1.1499;
223.2000;0.5665;1.1524;
223.5000;0.5682;1.1499;
223.8000;0.5649;1.1450;
224.1000;0.5649;1.1450;
224.4000;0.5674;1.1425;
224.7000;0.5657;1.1350;
225.0000;0.5714;1.1474;
225.3000;0.5682;1.1549;
225.6000;0.5706;1.1574;
225.9000;0.5674;1.1524;
226.2000;0.5665;1.1549;
226.5000;0.5649;1.1549;
226.8000;0.5641;1.1450;
227.1000;0.5690;1.1549;
227.4000;0.5682;1.1549;
227.7000;0.5674;1.1623;
228.0000;0.5674;1.1748;
228.3000;0.5682;1.1723;
228.6000;0.5665;1.1748;
228.9000;0.5657;1.1748;
229.2000;0.5657;1.1698;
229.5000;0.5641;1.1599;
229.8000;0.5617;1.1450;
230.1000;0.5674;1.1673;
230.4000;0.5600;1.1599;
230.7000;0.5731;1.1921;
231.0000;0.5665;1.1772;
231.3000;0.5665;1.1723;
231.6000;0.5698;1.1723;
231.9000;0.5698;1.1723;
232.2000;0.5674;1.1574;
232.5000;0.5674;1.1524;
232.8000;0.5657;1.1499;
233.1000;0.5649;1.1450;
233.4000;0.5657;1.1350;
233.7000;0.5657;1.1425;
234.0000;0.5649;1.1450;
234.3000;0.5657;1.1524;
234.6000;0.5649;1.1524;
234.9000;0.5657;1.1549;
235.2000;0.5665;1.1574;
235.5000;0.5633;1.1524;
235.8000;0.5625;1.1524;
236.1000;0.5674;1.1524;
236.4000;0.5633;1.1400;
236.7000;0.5657;1.1474;
237.0000;0.5657;1.1450;
237.3000;0.5641;1.1375;
237.6000;0.5641;1.1499;
237.9000;0.5641;1.1499;
238.2000;0.5674;1.1549;
238.5000;0.5682;1.1574;
238.8000;0.5657;1.1499;
239.1000;0.5649;1.1524;
239.4000;0.5657;1.1648;
239.7000;0.5674;1.1698;
240.0000;0.5665;1.1599;
240.3000;0.5674;1.1698;
240.6000;0.5657;1.1698;
240.9000;0.5649;1.1673;
241.2000;0.5633;1.1623;
241.5000;0.5649;1.1648;
241.8000;0.5657;1.1648;
242.1000;0.5665;1.1772;
242.4000;0.5682;1.1772;
242.7000;0.5657;1.1772;
243.0000;0.5633;1.1772;
243.3000;0.5641;1.1822;
243.6000;0.5674;1.1872;
243.9000;0.5665;1.1772;
244.2000;0.5657;1.1698;
244.5000;0.5674;1.1574;
244.8000;0.5608;1.1350;
245.1000;0.5641;1.1474;
245.4000;0.5608;1.1375;
245.7000;0.5657;1.1474;
246.0000;0.5698;1.1673;
246.3000;0.5600;1.1474;
246.6000;0.5649;1.1574;
246.9000;0.5641;1.1574;
247.2000;0.5641;1.1574;
247.5000;0.5633;1.1574;
247.8000;0.5747;1.1847;
248.1000;0.5633;1.1574;
248.4000;0.5657;1.1648;
248.7000;0.5649;1.1673;
249.0000;0.5641;1.1723;
249.3000;0.5657;1.1748;
249.6000;0.5633;1.1698;
249.9000;0.5657;1.1723;
250.2000;0.5641;1.1623;
250.5000;0.5649;1.1648;
250.8000;0.5665;1.1673;
251.1000;0.5657;1.1673;
251.4000;0.5649;1.1648;
251.7000;0.5641;1.1673;
252.0000;0.5625;1.1599;
252.3000;0.5665;1.1698;
252.6000;0.5657;1.1623;
252.9000;0.5665;1.1673;
253.2000;0.5649;1.1599;
253.5000;0.5722;1.1772;
253.8000;0.5608;1.1450;
254.1000;0.5665;1.1648;
254.4000;0.5608;1.1474;
254.7000;0.5641;1.1574;
255.0000;0.5657;1.1623;
255.3000;0.5657;1.1648;
255.6000;0.5608;1.1474;
255.9000;0.5641;1.1474;
256.2000;0.5641;1.1450;
256.5000;0.5674;1.1524;
256.8000;0.5592;1.1350;
257.1000;0.5665;1.1474;
257.4000;0.5665;1.1549;
257.7000;0.5625;1.1450;
258.0000;0.5617;1.1400;
258.3000;0.5641;1.1574;
258.6000;0.5682;1.1673;
258.9000;0.5641;1.1574;
259.2000;0.5633;1.1574;
259.5000;0.5657;1.1599;
259.8000;0.5641;1.1599;
260.1000;0.5633;1.1648;
260.4000;0.5633;1.1524;
260.7000;0.5617;1.1474;
261.0000;0.5641;1.1499;
261.3000;0.5633;1.1599;
261.6000;0.5608;1.1623;
261.9000;0.5641;1.1673;
262.2000;0.5641;1.1673;
262.5000;0.5665;1.1698;
262.8000;0.5617;1.1599;
263.1000;0.5641;1.1673;
263.4000;0.5641;1.1648;
263.7000;0.5665;1.1698;
264.0000;0.5641;1.1748;
264.3000;0.5633;1.1772;
264.6000;0.5633;1.1748;
264.9000;0.5665;1.1698;
265.2000;0.5649;1.1648;
265.5000;0.5617;1.1549;
265.8000;0.5608;1.1623;
266.1000;0.5641;1.1772;
266.4000;0.5633;1.1748;
266.7000;0.5674;1.1797;
267.0000;0.5641;1.1723;
267.3000;0.5657;1.1748;
267.6000;0.5641;1.1772;
267.9000;0.5633;1.1772;
268.2000;0.5649;1.1797;
268.5000;0.5633;1.1748;
268.8000;0.5608;1.1648;
269.1000;0.5633;1.1648;
269.4000;0.5633;1.1698;
269.7000;0.5625;1.1723;
270.0000;0.5617;1.1772;
270.3000;0.5625;1.1822;
270.6000;0.5625;1.1772;
270.9000;0.5608;1.1723;
271.2000;0.5633;1.1698;
271.5000;0.5625;1.1797;
271.8000;0.5633;1.1772;
272.1000;0.5625;1.1723;
272.4000;0.5560;1.1549;
272.7000;0.5625;1.1698;
273.0000;0.5584;1.1474;
273.3000;0.5633;1.1599;
273.6000;0.5633;1.1648;
273.9000;0.5657;1.1698;
274.2000;0.5641;1.1623;
274.5000;0.5633;1.1549;
274.8000;0.5657;1.1599;
275.1000;0.5665;1.1648;
275.4000;0.5682;1.1797;
275.7000;0.5657;1.1772;
276.0000;0.5649;1.1748;
276.3000;0.5641;1.1872;
276.6000;0.5633;1.1897;
276.9000;0.5608;1.1822;
277.2000;0.5641;1.1847;
277.5000;0.5568;1.1648;
277.8000;0.5641;1.1897;
278.1000;0.5625;1.1772;
278.4000;0.5633;1.1872;
278.7000;0.5657;1.1872;
279.0000;0.5625;1.1797;
279.3000;0.5633;1.1723;
279.6000;0.5633;1.1772;
279.9000;0.5633;1.1648;
280.2000;0.5633;1.1648;
280.5000;0.5592;1.1623;
280.8000;0.5633;1.1748;
281.1000;0.5608;1.1748;
281.4000;0.5633;1.1897;
281.7000;0.5560;1.1723;
282.0000;0.5625;1.1897;
282.3000;0.5633;1.1847;
282.6000;0.5665;1.1822;
282.9000;0.5633;1.1748;
283.2000;0.5617;1.1723;
283.5000;0.5633;1.1698;
283.8000;0.5633;1.1698;
284.1000;0.5633;1.1698;
284.4000;0.5633;1.1772;
284.7000;0.5649;1.1797;
285.0000;0.5633;1.1772;
285.3000;0.5625;1.1723;
285.6000;0.5706;1.1897;
285.9000;0.5617;1.1673;
286.2000;0.5617;1.1648;
286.5000;0.5633;1.1723;
286.8000;0.5625;1.1698;
287.1000;0.5592;1.1623;
287.4000;0.5625;1.1772;
287.7000;0.5625;1.1772;
288.0000;0.5543;1.1574;
288.3000;0.5608;1.1698;
288.6000;0.5617;1.1772;
288.9000;0.5625;1.1847;
289.2000;0.5608;1.1847;
289.5000;0.5600;1.1797;
289.8000;0.5625;1.1847;
290.1000;0.5641;1.1872;
290.4000;0.5625;1.1822;
290.7000;0.5633;1.1822;
291.0000;0.5641;1.1797;
291.3000;0.5600;1.1797;
291.6000;0.5617;1.1847;
291.9000;0.5576;1.1822;
292.2000;0.5617;1.1822;
292.5000;0.5600;1.1847;
292.8000;0.5592;1.1872;
293.1000;0.5625;1.2021;
293.4000;0.5617;1.2021;
293.7000;0.5625;1.2120;
294.0000;0.5617;1.2095;
294.3000;0.5625;1.2046;
294.6000;0.5625;1.2021;
294.9000;0.5608;1.2046;
295.2000;0.5633;1.2095;
295.5000;0.5641;1.2120;
295.8000;0.5617;1.2071;
296.1000;0.5600;1.1996;
296.4000;0.5641;1.2071;
296.7000;0.5625;1.1996;
297.0000;0.5625;1.1921;
297.3000;0.5608;1.1847;
297.6000;0.5657;1.1971;
297.9000;0.5633;1.1897;
298.2000;0.5568;1.1673;
298.5000;0.5674;1.1872;
298.8000;0.5617;1.1648;
299.1000;0.5625;1.1673;
299.4000;0.5625;1.1673;
299.7000;0.5617;1.1772;
300.0000;0.5600;1.1797;
300.3000;0.5608;1.1797;
300.6000;0.5608;1.1847;
300.9000;0.5617;1.1897;
301.2000;0.5657;1.2046;
301.5000;0.5608;1.1847;
301.8000;0.5617;1.1897;
302.1000;0.5576;1.1748;
302.4000;0.5625;1.1797;
302.7000;0.5617;1.1698;
303.0000;0.5608;1.1772;
303.3000;0.5608;1.1723;
303.6000;0.5608;1.1698;
303.9000;0.5617;1.1673;
304.2000;0.5617;1.1648;
304.5000;0.5608;1.1599;
304.8000;0.5576;1.1524;
305.1000;0.5617;1.1623;
305.4000;0.5617;1.1623;
305.7000;0.5608;1.1698;
306.0000;0.5608;1.1723;
306.3000;0.5608;1.1698;
306.6000;0.5608;1.1698;
306.9000;0.5617;1.1772;
307.2000;0.5617;1.1673;
307.5000;0.5568;1.1524;
307.8000;0.5617;1.1623;
308.1000;0.5633;1.1673;
308.4000;0.5625;1.1723;
308.7000;0.5625;1.1797;
309.0000;0.5600;1.1723;
309.3000;0.5617;1.1772;
309.6000;0.5665;1.1772;
309.9000;0.5617;1.1648;
310.2000;0.5600;1.1574;
310.5000;0.5617;1.1549;
310.8000;0.5592;1.1549;
311.1000;0.5600;1.1574;
311.4000;0.5608;1.1599;
311.7000;0.5608;1.1623;
312.0000;0.5665;1.1698;
312.3000;0.5625;1.1599;
312.6000;0.5608;1.1673;
312.9000;0.5698;1.1872;
313.2000;0.5641;1.1822;
313.5000;0.5617;1.1822;
313.8000;0.5592;1.1648;
314.1000;0.5600;1.1698;
314.4000;0.5617;1.1723;
314.7000;0.5633;1.1772;
315.0000;0.5584;1.1648;
315.3000;0.5617;1.1748;
315.6000;0.5600;1.1797;
315.9000;0.5592;1.1822;
316.2000;0.5617;1.1797;
316.5000;0.5617;1.1797;
316.8000;0.5608;1.1797;
317.1000;0.5625;1.1897;
317.4000;0.5617;1.1897;
317.7000;0.5617;1.1996;
318.0000;0.5584;1.1996;
318.3000;0.5625;1.2120;
318.6000;0.5617;1.2071;
318.9000;0.5608;1.1946;
319.2000;0.5600;1.1996;
319.5000;0.5649;1.1946;
319.8000;0.5617;1.1971;
320.1000;0.5617;1.1872;
320.4000;0.5600;1.1897;
320.7000;0.5600;1.1921;
321.0000;0.5551;1.1772;
321.3000;0.5592;1.1748;
321.6000;0.5535;1.1524;
321.9000;0.5617;1.1723;
322.2000;0.5584;1.1698;
322.5000;0.5592;1.1599;
322.8000;0.5584;1.1574;
323.1000;0.5617;1.1623;
323.4000;0.5584;1.1673;
323.7000;0.5617;1.1723;
324.0000;0.5617;1.1797;
324.3000;0.5608;1.1847;
324.6000;0.5584;1.1847;
324.9000;0.5608;1.1847;
325.2000;0.5600;1.1723;
325.5000;0.5625;1.1748;
325.8000;0.5608;1.1772;
326.1000;0.5617;1.1822;
326.4000;0.5600;1.1847;
326.7000;0.5576;1.1822;
327.0000;0.5608;1.1772;
327.3000;0.5592;1.1698;
327.6000;0.5633;1.1822;
327.9000;0.5600;1.1748;
328.2000;0.5608;1.1748;
328.5000;0.5568;1.1698;
328.8000;0.5617;1.1822;
329.1000;0.5608;1.1723;
329.4000;0.5617;1.1723;
329.7000;0.5649;1.1797;
330.0000;0.5600;1.1723;
330.3000;0.5617;1.1772;
330.6000;0.5625;1.1822;
330.9000;0.5584;1.1698;
331.2000;0.5625;1.1872;
331.5000;0.5592;1.1847;
331.8000;0.5592;1.1921;
332.1000;0.5584;1.1847;
332.4000;0.5608;1.1847;
332.7000;0.5584;1.1797;
333.0000;0.5584;1.1946;
333.3000;0.5600;1.1946;
333.6000;0.5592;1.1946;
333.9000;0.5600;1.1921;
334.2000;0.5592;1.1872;
334.5000;0.5576;1.1872;
334.8000;0.5608;1.1872;
335.1000;0.5617;1.1872;
335.4000;0.5600;1.1847;
335.7000;0.5600;1.1872;
336.0000;0.5617;1.1772;
336.3000;0.5617;1.1872;
336.6000;0.5625;1.1971;
336.9000;0.5584;1.1971;
337.2000;0.5641;1.2046;
337.5000;0.5608;1.1946;
337.8000;0.5617;1.1897;
338.1000;0.5625;1.1946;
338.4000;0.5527;1.1748;
338.7000;0.5625;1.1897;
339.0000;0.5608;1.1822;
339.3000;0.5600;1.1822;
339.6000;0.5600;1.1847;
339.9000;0.5584;1.1822;
340.2000;0.5592;1.1971;
340.5000;0.5625;1.1971;
340.8000;0.5576;1.1921;
341.1000;0.5617;1.1921;
341.4000;0.5592;1.1921;
341.7000;0.5600;1.1971;
342.0000;0.5600;1.2046;
342.3000;0.5600;1.1996;
342.6000;0.5592;1.1897;
342.9000;0.5576;1.1872;
343.2000;0.5592;1.1946;
343.5000;0.5600;1.1921;
343.8000;0.5608;1.1971;
344.1000;0.5568;1.1772;
344.4000;0.5592;1.1847;
344.7000;0.5600;1.1872;
345.0000;0.5584;1.1772;
345.3000;0.5608;1.1797;
345.6000;0.5608;1.1897;
345.9000;0.5617;1.1921;
346.2000;0.5592;1.1946;
346.5000;0.5600;1.1996;
346.8000;0.5543;1.1847;
347.1000;0.5584;1.1921;
347.4000;0.5576;1.1921;
347.7000;0.5592;1.1971;
348.0000;0.5592;1.2021;
348.3000;0.5576;1.1921;
348.6000;0.5617;1.2071;
348.9000;0.5608;1.2071;
349.2000;0.5584;1.1971;
349.5000;0.5584;1.1872;
349.8000;0.5551;1.1822;
350.1000;0.5600;1.1996;
350.4000;0.5584;1.1897;
350.7000;0.5649;1.2120;
351.0000;0.5584;1.1996;
351.3000;0.5592;1.1996;
351.6000;0.5576;1.1797;
351.9000;0.5584;1.1748;
352.2000;0.5576;1.1797;
352.5000;0.5584;1.1946;
352.8000;0.5600;1.1921;
353.1000;0.5584;1.2021;
353.4000;0.5576;1.1921;
353.7000;0.5592;1.1897;
354.0000;0.5608;1.1946;
354.3000;0.5551;1.1897;
354.6000;0.5584;1.1971;
354.9000;0.5592;1.1971;
355.2000;0.5592;1.2021;
355.5000;0.5617;1.1971;
355.8000;0.5576;1.1971;
356.1000;0.5617;1.2071;
356.4000;0.5617;1.2145;
356.7000;0.5592;1.2120;
357.0000;0.5584;1.2145;
357.3000;0.5592;1.2095;
357.6000;0.5584;1.2071;
357.9000;0.5584;1.2071;
358.2000;0.5592;1.1996;
358.5000;0.5576;1.2021;
358.8000;0.5576;1.2071;
359.1000;0.5608;1.2145;
359.4000;0.5535;1.1996;
359.7000;0.5535;1.1971;
360.0000;0.5592;1.2071;
360.3000;0.5600;1.2095;
360.6000;0.5584;1.1996;
360.9000;0.5584;1.1996;
361.2000;0.5527;1.1772;
361.5000;0.5608;1.1897;
361.8000;0.5576;1.1797;
362.1000;0.5600;1.1822;
362.4000;0.5535;1.1723;
362.7000;0.5592;1.1797;
363.0000;0.5674;1.1996;
363.3000;0.5592;1.1822;
363.6000;0.5584;1.1822;
363.9000;0.5600;1.1822;
364.2000;0.5617;1.1772;
364.5000;0.5592;1.1748;
364.8000;0.5584;1.1797;
365.1000;0.5600;1.1897;
365.4000;0.5592;1.1897;
365.7000;0.5584;1.1897;
366.0000;0.5560;1.1847;
366.3000;0.5617;1.1897;
366.6000;0.5600;1.1847;
366.9000;0.5584;1.1872;
367.2000;0.5568;1.1847;
367.5000;0.5576;1.1872;
367.8000;0.5568;1.1847;
368.1000;0.5576;1.1847;
368.4000;0.5592;1.1897;
368.7000;0.5584;1.1897;
369.0000;0.5608;1.1946;
369.3000;0.5584;1.1847;
369.6000;0.5584;1.1897;
369.9000;0.5576;1.1921;
370.2000;0.5584;1.1921;
370.5000;0.5592;1.1996;
370.8000;0.5576;1.2046;
371.1000;0.5592;1.2120;
371.4000;0.5568;1.2095;
371.7000;0.5592;1.2170;
372.0000;0.5600;1.2095;
372.3000;0.5592;1.2046;
372.6000;0.5535;1.1946;
372.9000;0.5592;1.2046;
373.2000;0.5649;1.2220;
373.5000;0.5600;1.2120;
373.8000;0.5584;1.2145;
374.1000;0.5592;1.2170;
374.4000;0.5592;1.2220;
374.7000;0.5641;1.2294;
375.0000;0.5649;1.2294;
375.3000;0.5560;1.2021;
375.6000;0.5543;1.1946;
375.9000;0.5568;1.1921;
376.2000;0.5568;1.1847;
376.5000;0.5584;1.1996;
376.8000;0.5576;1.2046;
377.1000;0.5560;1.1971;
377.4000;0.5560;1.2021;
377.7000;0.5560;1.1996;
378.0000;0.5592;1.1971;
378.3000;0.5592;1.1946;
378.6000;0.5584;1.1897;
378.9000;0.5576;1.1847;
379.2000;0.5592;1.1996;
379.5000;0.5568;1.1971;
379.8000;0.5600;1.1996;
380.1000;0.5600;1.2071;
380.4000;0.5568;1.2071;
380.7000;0.5625;1.2195;
381.0000;0.5576;1.2145;
381.3000;0.5560;1.2071;
381.6000;0.5576;1.1996;
381.9000;0.5576;1.2071;
382.2000;0.5568;1.2120;
382.5000;0.5592;1.2046;
382.8000;0.5584;1.2021;
383.1000;0.5576;1.2095;
383.4000;0.5592;1.2220;
383.7000;0.5576;1.2195;
384.0000;0.5560;1.2095;
384.3000;0.5584;1.2120;
384.6000;0.5592;1.2095;
384.9000;0.5568;1.2021;
385.2000;0.5584;1.2071;
385.5000;0.5568;1.2145;
385.8000;0.5568;1.2095;
386.1000;0.5584;1.2220;
386.4000;0.5560;1.2220;
386.7000;0.5584;1.2244;
387.0000;0.5576;1.2220;
387.3000;0.5584;1.2120;
387.6000;0.5560;1.2071;
387.9000;0.5568;1.2071;
388.2000;0.5551;1.2120;
388.5000;0.5560;1.2170;
388.8000;0.5584;1.2071;
389.1000;0.5503;1.1822;
389.4000;0.5592;1.2046;
389.7000;0.5592;1.2195;
390.0000;0.5608;1.2195;
390.3000;0.5576;1.2095;
390.6000;0.5584;1.2145;
390.9000;0.5617;1.2319;
391.2000;0.5576;1.2095;
391.5000;0.5568;1.2095;
391.8000;0.5592;1.2071;
392.1000;0.5576;1.2046;
392.4000;0.5560;1.2021;
392.7000;0.5568;1.1996;
393.0000;0.5519;1.1872;
393.3000;0.5576;1.2095;
393.6000;0.5568;1.2071;
393.9000;0.5592;1.2095;
394.2000;0.5592;1.2145;
394.5000;0.5568;1.2120;
394.8000;0.5592;1.2120;
395.1000;0.5584;1.2145;
395.4000;0.5568;1.2145;
395.7000;0.5584;1.2170;
396.0000;0.5576;1.2220;
396.3000;0.5568;1.2269;
396.6000;0.5543;1.2195;
396.9000;0.5568;1.2170;
397.2000;0.5600;1.2195;
397.5000;0.5592;1.2145;
397.8000;0.5576;1.2120;
398.1000;0.5584;1.2244;
398.4000;0.5592;1.2269;
398.7000;0.5641;1.2294;
399.0000;0.5584;1.2145;
399.3000;0.5600;1.2244;
399.6000;0.5592;1.2145;
399.9000;0.5576;1.2046;
400.2000;0.5560;1.1897;
400.5000;0.5568;1.1897;
400.8000;0.5592;1.1971;
401.1000;0.5576;1.1971;
401.4000;0.5519;1.1897;
401.7000;0.5576;1.2120;
402.0000;0.5519;1.2071;
402.3000;0.5584;1.2244;
402.6000;0.5600;1.2244;
402.9000;0.5543;1.2170;
403.2000;0.5568;1.2269;
403.5000;0.5584;1.2344;
403.8000;0.5576;1.2369;
404.1000;0.5568;1.2244;
404.4000;0.5600;1.2319;
404.7000;0.5568;1.2195;
405.0000;0.5568;1.2244;
405.3000;0.5519;1.2145;
405.6000;0.5568;1.2269;
405.9000;0.5576;1.2195;
406.2000;0.5568;1.2294;
406.5000;0.5560;1.2244;
406.8000;0.5560;1.2244;
407.1000;0.5568;1.2269;
407.4000;0.5584;1.2294;
407.7000;0.5568;1.2294;
408.0000;0.5576;1.2220;
408.3000;0.5568;1.2195;
408.6000;0.5568;1.2220;
408.9000;0.5568;1.2244;
409.2000;0.5584;1.2344;
409.5000;0.5568;1.2319;
409.8000;0.5576;1.2344;
410.1000;0.5560;1.2319;
410.4000;0.5560;1.2344;
410.7000;0.5584;1.2344;
411.0000;0.5576;1.2195;
411.3000;0.5568;1.2220;
411.6000;0.5535;1.2095;
411.9000;0.5560;1.2220;
412.2000;0.5560;1.2244;
412.5000;0.5649;1.2418;
412.8000;0.5568;1.2220;
413.1000;0.5560;1.2220;
413.4000;0.5584;1.2145;
413.7000;0.5568;1.2220;
414.0000;0.5568;1.2145;
414.3000;0.5576;1.2145;
414.6000;0.5560;1.2195;
414.9000;0.5576;1.2244;
415.2000;0.5560;1.2145;
415.5000;0.5535;1.2021;
415.8000;0.5576;1.2046;
416.1000;0.5503;1.1897;
416.4000;0.5584;1.2120;
416.7000;0.5576;1.2170;
417.0000;0.5560;1.2120;
417.3000;0.5560;1.2095;
417.6000;0.5543;1.2095;
417.9000;0.5584;1.2170;
418.2000;0.5576;1.2120;
418.5000;0.5568;1.2195;
418.8000;0.5674;1.2443;
419.1000;0.5584;1.2195;
419.4000;0.5568;1.2170;
419.7000;0.5551;1.2269;
420.0000;0.5592;1.2393;
420.3000;0.5576;1.2319;
420.6000;0.5560;1.2294;
420.9000;0.5560;1.2269;
421.2000;0.5576;1.2244;
421.5000;0.5551;1.2145;
421.8000;0.5551;1.2046;
422.1000;0.5551;1.2046;
422.4000;0.5568;1.2071;
422.7000;0.5560;1.1897;
423.0000;0.5551;1.1946;
423.3000;0.5592;1.2071;
423.6000;0.5568;1.2046;
423.9000;0.5560;1.1946;
424.2000;0.5568;1.1996;
424.5000;0.5568;1.2021;
424.8000;0.5543;1.1946;
425.1000;0.5535;1.1996;
425.4000;0.5551;1.2021;
425.7000;0.5560;1.2071;
426.0000;0.5560;1.2170;
426.3000;0.5568;1.2145;
426.6000;0.5511;1.1996;
426.9000;0.5543;1.2046;
427.2000;0.5568;1.2046;
427.5000;0.5641;1.2344;
427.8000;0.5560;1.2195;
428.1000;0.5551;1.2220;
428.4000;0.5592;1.2393;
428.7000;0.5560;1.2319;
429.0000;0.5568;1.2244;
429.3000;0.5543;1.2170;
429.6000;0.5551;1.2195;
429.9000;0.5560;1.2095;
430.2000;0.5568;1.1996;
430.5000;0.5568;1.1996;
430.8000;0.5560;1.1946;
431.1000;0.5625;1.2170;
431.4000;0.5568;1.2095;
431.7000;0.5560;1.2120;
432.0000;0.5560;1.2220;
432.3000;0.5543;1.2170;
432.6000;0.5551;1.2170;
432.9000;0.5560;1.2120;
433.2000;0.5551;1.2071;
433.5000;0.5543;1.2120;
433.8000;0.5568;1.2170;
434.1000;0.5568;1.2095;
434.4000;0.5527;1.1996;
434.7000;0.5535;1.2046;
435.0000;0.5535;1.2071;
435.3000;0.5543;1.2095;
435.6000;0.5568;1.2244;
435.9000;0.5551;1.2195;
436.2000;0.5625;1.2294;
436.5000;0.5560;1.2120;
436.8000;0.5560;1.2220;
437.1000;0.5543;1.2170;
437.4000;0.5560;1.2319;
437.7000;0.5560;1.2244;
438.0000;0.5543;1.2195;
438.3000;0.5560;1.2244;
438.6000;0.5625;1.2518;
438.9000;0.5551;1.2393;
439.2000;0.5568;1.2369;
439.5000;0.5576;1.2344;
439.8000;0.5535;1.2170;
440.1000;0.5568;1.2269;
440.4000;0.5576;1.2220;
440.7000;0.5568;1.2244;
441.0000;0.5551;1.2220;
441.3000;0.5551;1.2220;
441.6000;0.5625;1.2418;
441.9000;0.5576;1.2319;
442.2000;0.5568;1.2220;
442.5000;0.5560;1.2195;
442.8000;0.5551;1.2269;
443.1000;0.5560;1.2170;
443.4000;0.5568;1.2120;
443.7000;0.5543;1.2021;
444.0000;0.5543;1.1996;
444.3000;0.5560;1.1996;
444.6000;0.5576;1.2145;
444.9000;0.5560;1.2120;
445.2000;0.5543;1.2071;
445.5000;0.5560;1.2145;
445.8000;0.5486;1.1946;
446.1000;0.5543;1.2145;
446.4000;0.5560;1.2269;
446.7000;0.5560;1.2319;
447.0000;0.5535;1.2195;
447.3000;0.5560;1.2244;
447.6000;0.5560;1.2220;
447.9000;0.5592;1.2344;
448.2000;0.5568;1.2220;
448.5000;0.5551;1.2170;
448.8000;0.5551;1.2220;
449.1000;0.5551;1.2244;
449.4000;0.5568;1.2145;
449.7000;0.5551;1.2145;
450.0000;0.5543;1.2145;
450.3000;0.5519;1.2046;
450.6000;0.5551;1.2220;
450.9000;0.5551;1.2220;
451.2000;0.5527;1.2145;
451.5000;0.5551;1.2071;
451.8000;0.5568;1.2095;
452.1000;0.5576;1.2195;
452.4000;0.5543;1.2170;
452.7000;0.5543;1.2071;
453.0000;0.5543;1.2071;
453.3000;0.5535;1.2046;
453.6000;0.5535;1.2071;
453.9000;0.5584;1.2319;
454.2000;0.5600;1.2294;
454.5000;0.5592;1.2344;
454.8000;0.5543;1.2170;
455.1000;0.5584;1.2319;
455.4000;0.5543;1.2269;
455.7000;0.5568;1.2369;
456.0000;0.5584;1.2319;
456.3000;0.5527;1.2244;
456.6000;0.5527;1.2220;
456.9000;0.5543;1.2319;
457.2000;0.5568;1.2344;
457.5000;0.5592;1.2344;
457.8000;0.5543;1.2244;
458.1000;0.5560;1.2120;
458.4000;0.5625;1.2418;
458.7000;0.5560;1.2244;
459.0000;0.5551;1.2195;
459.3000;0.5560;1.2170;
459.6000;0.5568;1.2170;
459.9000;0.5568;1.2170;
460.2000;0.5560;1.2095;
460.5000;0.5535;1.2120;
460.8000;0.5535;1.2046;
461.1000;0.5551;1.2046;
461.4000;0.5535;1.1996;
461.7000;0.5543;1.1996;
462.0000;0.5551;1.2046;
462.3000;0.5551;1.2046;
462.6000;0.5543;1.1996;
462.9000;0.5551;1.2145;
463.2000;0.5560;1.2170;
463.5000;0.5551;1.2170;
463.8000;0.5519;1.2170;
464.1000;0.5543;1.2120;
464.4000;0.5560;1.2170;
464.7000;0.5551;1.2195;
465.0000;0.5568;1.2170;
465.3000;0.5560;1.2220;
465.6000;0.5560;1.2170;
465.9000;0.5543;1.2145;
466.2000;0.5543;1.2195;
466.5000;0.5560;1.2220;
466.8000;0.5535;1.2170;
467.1000;0.5560;1.2170;
467.4000;0.5551;1.2220;
467.7000;0.5503;1.2046;
468.0000;0.5551;1.2220;
468.3000;0.5551;1.2195;
468.6000;0.5649;1.2418;
468.9000;0.5592;1.2269;
469.2000;0.5592;1.2393;
469.5000;0.5527;1.2195;
469.8000;0.5568;1.2319;
470.1000;0.5560;1.2319;
470.4000;0.5551;1.2244;
470.7000;0.5551;1.2344;
471.0000;0.5551;1.2319;
471.3000;0.5568;1.2443;
471.6000;0.5511;1.2244;
471.9000;0.5543;1.2369;
472.2000;0.5535;1.2344;
472.5000;0.5519;1.2319;
472.8000;0.5551;1.2393;
473.1000;0.5535;1.2319;
473.4000;0.5527;1.2319;
473.7000;0.5568;1.2269;
474.0000;0.5543;1.2294;
474.3000;0.5560;1.2418;
474.6000;0.5535;1.2418;
474.9000;0.5543;1.2443;
475.2000;0.5568;1.2542;
475.5000;0.5535;1.2443;
475.8000;0.5543;1.2443;
476.1000;0.5551;1.2393;
476.4000;0.5527;1.2369;
476.7000;0.5535;1.2319;
477.0000;0.5551;1.2369;
477.3000;0.5503;1.2220;
477.6000;0.5551;1.2294;
477.9000;0.5551;1.2294;
478.2000;0.5551;1.2220;
478.5000;0.5576;1.2269;
478.8000;0.5543;1.2170;
479.1000;0.5519;1.2021;
479.4000;0.5551;1.2095;
479.7000;0.5535;1.2170;
480.0000;0.5535;1.2220;
480.3000;0.5543;1.2244;
480.6000;0.5527;1.2220;
480.9000;0.5527;1.2220;
481.2000;0.5600;1.2344;
481.5000;0.5535;1.2244;
481.8000;0.5527;1.2220;
482.1000;0.5568;1.2294;
482.4000;0.5576;1.2269;
482.7000;0.5543;1.2195;
483.0000;0.5535;1.2145;
483.3000;0.5543;1.2145;
483.6000;0.5568;1.2220;
483.9000;0.5543;1.2220;
484.2000;0.5551;1.2120;
484.5000;0.5543;1.2145;
484.8000;0.5584;1.2220;
485.1000;0.5551;1.2120;
485.4000;0.5543;1.2220;
485.7000;0.5543;1.2220;
486.0000;0.5560;1.2195;
486.3000;0.5560;1.2220;
486.6000;0.5584;1.2120;
486.9000;0.5535;1.1946;
487.2000;0.5551;1.1872;
487.5000;0.5543;1.1946;
487.8000;0.5527;1.1996;
488.1000;0.5527;1.2046;
488.4000;0.5543;1.2095;
488.7000;0.5543;1.2195;
489.0000;0.5543;1.2269;
489.3000;0.5535;1.2294;
489.6000;0.5527;1.2269;
489.9000;0.5560;1.2269;
490.2000;0.5551;1.2294;
490.5000;0.5560;1.2319;
490.8000;0.5527;1.2220;
491.1000;0.5560;1.2294;
491.4000;0.5551;1.2319;
491.7000;0.5551;1.2269;
492.0000;0.5519;1.2220;
492.3000;0.5560;1.2220;
492.6000;0.5535;1.2220;
492.9000;0.5535;1.2195;
493.2000;0.5543;1.2145;
493.5000;0.5584;1.2294;
493.8000;0.5535;1.2195;
494.1000;0.5551;1.2095;
494.4000;0.5543;1.1996;
494.7000;0.5527;1.1897;
495.0000;0.5543;1.1971;
495.3000;0.5543;1.2046;
495.6000;0.5543;1.1921;
495.9000;0.5551;1.1872;
496.2000;0.5568;1.1921;
496.5000;0.5560;1.1946;
496.8000;0.5527;1.1872;
497.1000;0.5551;1.1897;
497.4000;0.5543;1.1921;
497.7000;0.5551;1.1921;
498.0000;0.5535;1.1971;
498.3000;0.5527;1.2021;
498.6000;0.5543;1.2046;
498.9000;0.5560;1.2145;
499.2000;0.5527;1.2170;
499.5000;0.5535;1.2095;
499.8000;0.5543;1.2170;
500.1000;0.5543;1.2120;
500.4000;0.5543;1.2021;
500.7000;0.5535;1.1996;
501.0000;0.5478;1.1872;
501.3000;0.5495;1.1921;
501.6000;0.5551;1.2095;
501.9000;0.5527;1.2021;
502.2000;0.5543;1.2095;
502.5000;0.5551;1.2071;
502.8000;0.5551;1.2145;
503.1000;0.5511;1.2046;
503.4000;0.5503;1.2046;
503.7000;0.5535;1.2170;
504.0000;0.5551;1.2170;
504.3000;0.5543;1.2195;
504.6000;0.5543;1.2220;
504.9000;0.5551;1.2244;
505.2000;0.5560;1.2195;
505.5000;0.5551;1.2145;
505.8000;0.5519;1.2046;
506.1000;0.5527;1.2071;
506.4000;0.5535;1.2071;
506.7000;0.5551;1.2095;
507.0000;0.5608;1.2220;
507.3000;0.5543;1.2046;
507.6000;0.5535;1.1996;
507.9000;0.5535;1.1996;
508.2000;0.5543;1.1996;
508.5000;0.5519;1.1921;
508.8000;0.5543;1.2071;
509.1000;0.5543;1.2170;
509.4000;0.5511;1.2145;
509.7000;0.5535;1.2120;
510.0000;0.5543;1.2170;
510.3000;0.5543;1.2170;
510.6000;0.5535;1.2071;
510.9000;0.5535;1.1996;
511.2000;0.5519;1.1921;
511.5000;0.5495;1.1772;
511.8000;0.5527;1.1772;
512.1000;0.5543;1.1946;
512.4000;0.5551;1.1971;
512.7000;0.5527;1.1996;
513.0000;0.5543;1.2046;
513.3000;0.5519;1.1946;
513.6000;0.5519;1.1971;
513.9000;0.5543;1.1996;
514.2000;0.5551;1.1946;
514.5000;0.5543;1.1897;
514.8000;0.5543;1.1996;
515.1000;0.5535;1.1946;
515.4000;0.5543;1.2021;
515.7000;0.5527;1.2046;
516.0000;0.5543;1.2120;
516.3000;0.5535;1.2046;
516.6000;0.5543;1.2145;
516.9000;0.5560;1.2170;
517.2000;0.5527;1.2071;
517.5000;0.5560;1.2195;
517.8000;0.5535;1.2071;
518.1000;0.5543;1.2170;
518.4000;0.5527;1.2294;
518.7000;0.5527;1.2294;
519.0000;0.5543;1.2344;
519.3000;0.5535;1.2344;
519.6000;0.5519;1.2369;
519.9000;0.5527;1.2294;
520.2000;0.5519;1.2170;
520.5000;0.5535;1.2220;
520.8000;0.5511;1.2195;
521.1000;0.5503;1.2170;
521.4000;0.5535;1.2195;
521.7000;0.5543;1.2269;
522.0000;0.5551;1.2294;
522.3000;0.5519;1.2244;
522.6000;0.5535;1.2344;
522.9000;0.5519;1.2393;
523.2000;0.5584;1.2567;
523.5000;0.5543;1.2418;
523.8000;0.5527;1.2393;
524.1000;0.5535;1.2369;
524.4000;0.5535;1.2269;
524.7000;0.5511;1.2244;
525.0000;0.5535;1.2244;
525.3000;0.5568;1.2344;
525.6000;0.5527;1.2220;
525.9000;0.5560;1.2294;
526.2000;0.5527;1.2195;
526.5000;0.5495;1.2071;
526.8000;0.5617;1.2369;
527.1000;0.5486;1.2120;
527.4000;0.5511;1.2220;
527.7000;0.5543;1.2244;
528.0000;0.5543;1.2269;
528.3000;0.5592;1.2418;
528.6000;0.5543;1.2319;
528.9000;0.5527;1.2244;
529.2000;0.5527;1.2244;
529.5000;0.5551;1.2319;
529.8000;0.5535;1.2344;
530.1000;0.5543;1.2319;
530.4000;0.5511;1.2220;
530.7000;0.5535;1.2344;
531.0000;0.5535;1.2344;
531.3000;0.5535;1.2319;
531.6000;0.5519;1.2294;
531.9000;0.5543;1.2319;
532.2000;0.5503;1.2319;
532.5000;0.5527;1.2418;
532.8000;0.5519;1.2319;
533.1000;0.5478;1.2145;
533.4000;0.5543;1.2294;
533.7000;0.5470;1.2195;
534.0000;0.5495;1.2220;
534.3000;0.5535;1.2319;
534.6000;0.5576;1.2418;
534.9000;0.5543;1.2393;
535.2000;0.5527;1.2369;
535.5000;0.5551;1.2393;
535.8000;0.5535;1.2344;
536.1000;0.5543;1.2319;
536.4000;0.5543;1.2344;
536.7000;0.5511;1.2195;
537.0000;0.5527;1.2195;
537.3000;0.5511;1.2269;
537.6000;0.5462;1.2071;
537.9000;0.5527;1.2344;
538.2000;0.5519;1.2319;
538.5000;0.5527;1.2319;
538.8000;0.5519;1.2244;
539.1000;0.5543;1.2244;
539.4000;0.5543;1.2319;
539.7000;0.5535;1.2269;
540.0000;0.5535;1.2195;
540.3000;0.5519;1.2170;
540.6000;0.5543;1.2269;
540.9000;0.5543;1.2344;
541.2000;0.5543;1.2319;
541.5000;0.5519;1.2294;
541.8000;0.5511;1.2294;
542.1000;0.5527;1.2344;
542.4000;0.5486;1.2170;
542.7000;0.5519;1.2369;
543.0000;0.5551;1.2443;
543.3000;0.5560;1.2542;
543.6000;0.5527;1.2443;
543.9000;0.5503;1.2369;
544.2000;0.5535;1.2443;
544.5000;0.5543;1.2418;
544.8000;0.5527;1.2393;
545.1000;0.5560;1.2443;
545.4000;0.5527;1.2418;
545.7000;0.5543;1.2418;
546.0000;0.5503;1.2393;
546.3000;0.5543;1.2542;
546.6000;0.5511;1.2493;
546.9000;0.5503;1.2468;
547.2000;0.5511;1.2393;
547.5000;0.5511;1.2344;
547.8000;0.5486;1.2220;
548.1000;0.5462;1.2145;
548.4000;0.5519;1.2244;
548.7000;0.5519;1.2244;
549.0000;0.5527;1.2220;
549.3000;0.5478;1.2195;
549.6000;0.5519;1.2319;
549.9000;0.5535;1.2294;
550.2000;0.5519;1.2319;
550.5000;0.5511;1.2344;
550.8000;0.5535;1.2418;
551.1000;0.5584;1.2468;
551.4000;0.5535;1.2369;
551.7000;0.5535;1.2294;
552.0000;0.5527;1.2244;
552.3000;0.5527;1.2244;
552.6000;0.5511;1.2269;
552.9000;0.5511;1.2220;
553.2000;0.5503;1.2046;
553.5000;0.5543;1.2244;
553.8000;0.5551;1.2170;
554.1000;0.5560;1.2145;
554.4000;0.5503;1.1996;
554.7000;0.5511;1.2046;
555.0000;0.5527;1.2170;
555.3000;0.5527;1.2071;
555.6000;0.5535;1.2120;
555.9000;0.5535;1.2120;
556.2000;0.5527;1.2095;
556.5000;0.5519;1.2021;
556.8000;0.5527;1.2120;
557.1000;0.5535;1.2095;
557.4000;0.5511;1.2021;
557.7000;0.5478;1.1921;
558.0000;0.5527;1.2021;
558.3000;0.5511;1.2021;
558.6000;0.5519;1.2046;
558.9000;0.5527;1.2120;
559.2000;0.5511;1.2046;
559.5000;0.5519;1.2120;
559.8000;0.5535;1.2071;
560.1000;0.5535;1.2095;
560.4000;0.5478;1.1996;
560.7000;0.5495;1.2021;
561.0000;0.5527;1.2021;
561.3000;0.5519;1.2046;
561.6000;0.5535;1.2170;
561.9000;0.5527;1.2145;
562.2000;0.5527;1.2095;
562.5000;0.5535;1.2145;
562.8000;0.5519;1.2145;
563.1000;0.5511;1.2046;
563.4000;0.5519;1.2046;
563.7000;0.5527;1.1971;
564.0000;0.5527;1.1996;
564.3000;0.5527;1.1946;
564.6000;0.5600;1.2170;
564.9000;0.5543;1.2021;
565.2000;0.5535;1.2021;
565.5000;0.5511;1.1946;
565.8000;0.5535;1.2046;
566.1000;0.5551;1.2120;
566.4000;0.5535;1.2095;
566.7000;0.5462;1.1996;
567.0000;0.5503;1.2071;
567.3000;0.5576;1.2195;
567.6000;0.5535;1.2195;
567.9000;0.5527;1.2244;
568.2000;0.5527;1.2269;
568.5000;0.5527;1.2244;
568.8000;0.5511;1.2344;
569.1000;0.5511;1.2294;
569.4000;0.5511;1.2170;
569.7000;0.5543;1.2220;
570.0000;0.5503;1.2145;
570.3000;0.5535;1.2145;
570.6000;0.5519;1.2145;
570.9000;0.5551;1.2244;
571.2000;0.5527;1.2269;
571.5000;0.5535;1.2195;
571.8000;0.5519;1.2220;
572.1000;0.5576;1.2269;
572.4000;0.5543;1.2095;
572.7000;0.5519;1.2095;
573.0000;0.5535;1.2170;
573.3000;0.5641;1.2443;
573.6000;0.5527;1.2120;
573.9000;0.5519;1.1996;
574.2000;0.5470;1.1946;
574.5000;0.5511;1.1996;
574.8000;0.5527;1.1971;
575.1000;0.5551;1.2071;
575.4000;0.5551;1.2095;
575.7000;0.5519;1.2021;
576.0000;0.5527;1.2120;
576.3000;0.5495;1.2095;
576.6000;0.5551;1.2220;
576.9000;0.5543;1.2120;
577.2000;0.5535;1.2071;
577.5000;0.5535;1.2095;
577.8000;0.5527;1.2021;
578.1000;0.5527;1.2071;
578.4000;0.5519;1.2046;
578.7000;0.5527;1.2120;
579.0000;0.5503;1.2046;
579.3000;0.5527;1.2021;
579.6000;0.5511;1.1996;
579.9000;0.5511;1.1971;
580.2000;0.5519;1.2145;
580.5000;0.5503;1.2220;
580.8000;0.5503;1.2145;
581.1000;0.5503;1.2145;
581.4000;0.5511;1.2244;
581.7000;0.5503;1.2244;
582.0000;0.5568;1.2418;
582.3000;0.5503;1.2269;
582.6000;0.5470;1.2220;
582.9000;0.5519;1.2319;
583.2000;0.5503;1.2195;
583.5000;0.5511;1.2120;
583.8000;0.5535;1.2071;
584.1000;0.5535;1.2095;
584.4000;0.5511;1.2095;
584.7000;0.5511;1.2195;
585.0000;0.5519;1.2220;
585.3000;0.5519;1.2170;
585.6000;0.5527;1.2244;
585.9000;0.5519;1.2220;
586.2000;0.5495;1.2145;
586.5000;0.5560;1.2269;
586.8000;0.5519;1.2170;
587.1000;0.5527;1.2220;
587.4000;0.5511;1.2269;
587.7000;0.5568;1.2393;
588.0000;0.5527;1.2195;
588.3000;0.5535;1.2244;
588.6000;0.5551;1.2294;
588.9000;0.5519;1.2220;
589.2000;0.5519;1.2170;
589.5000;0.5519;1.2145;
589.8000;0.5511;1.2170;
590.1000;0.5511;1.2244;
590.4000;0.5519;1.2294;
590.7000;0.5527;1.2269;
591.0000;0.5503;1.2195;
591.3000;0.5519;1.2220;
591.6000;0.5511;1.2269;
591.9000;0.5503;1.2269;
592.2000;0.5470;1.2095;
592.5000;0.5519;1.2244;
592.8000;0.5527;1.2120;
593.1000;0.5527;1.2095;
593.4000;0.5511;1.2046;
593.7000;0.5503;1.2071;
594.0000;0.5511;1.2120;
594.3000;0.5543;1.2220;
594.6000;0.5511;1.2120;
594.9000;0.5495;1.2046;
595.2000;0.5511;1.2046;
595.5000;0.5519;1.2145;
595.8000;0.5511;1.2046;
596.1000;0.5527;1.2145;
596.4000;0.5527;1.2195;
596.7000;0.5535;1.2244;
597.0000;0.5519;1.2244;
597.3000;0.5511;1.2269;
597.6000;0.5486;1.2120;
597.9000;0.5519;1.2145;
598.2000;0.5527;1.2021;
598.5000;0.5527;1.2021;
598.8000;0.5527;1.1971;
599.1000;0.5535;1.2071;
599.4000;0.5527;1.2120;
599.7000;0.5527;1.2195;
600.0000;0.5674;1.2642;
600.3000;0.5527;1.2170;
600.6000;0.5511;1.2021;
600.9000;0.5438;1.1797;
601.2000;0.5340;1.1623;
601.5000;0.5275;1.1450;
601.8000;0.5169;1.1226;
602.1000;0.5063;1.0978;
602.4000;0.4990;1.0754;
602.7000;0.4908;1.0605;
603.0000;0.4843;1.0506;
603.3000;0.4803;1.0357;
603.6000;0.4737;1.0307;
603.9000;0.4672;1.0208;
604.2000;0.4624;1.0133;
604.5000;0.4583;1.0059;
604.8000;0.4542;1.0009;
605.1000;0.4477;1.0009;
605.4000;0.4404;0.9860;
605.7000;0.4444;1.0034;
606.0000;0.4387;0.9910;
606.3000;0.4379;0.9935;
606.6000;0.4314;0.9761;
606.9000;0.4314;0.9761;
607.2000;0.4265;0.9711;
607.5000;0.4274;0.9761;
607.8000;0.4225;0.9637;
608.1000;0.4241;0.9711;
608.4000;0.4249;0.9786;
608.7000;0.4176;0.9661;
609.0000;0.4143;0.9686;
609.3000;0.4151;0.9686;
609.6000;0.4151;0.9786;
609.9000;0.4103;0.9736;
610.2000;0.4094;0.9711;
610.5000;0.4094;0.9810;
610.8000;0.4070;0.9686;
611.1000;0.4054;0.9661;
611.4000;0.4013;0.9512;
611.7000;0.4078;0.9612;
612.0000;0.4021;0.9488;
612.3000;0.3997;0.9338;
612.6000;0.3989;0.9289;
612.9000;0.3980;0.9264;
613.2000;0.3972;0.9264;
613.5000;0.4021;0.9388;
613.8000;0.3972;0.9264;
614.1000;0.3964;0.9314;
614.4000;0.3932;0.9289;
614.7000;0.3940;0.9264;
615.0000;0.3923;0.9289;
615.3000;0.3915;0.9239;
615.6000;0.3915;0.9289;
615.9000;0.3907;0.9239;
616.2000;0.3891;0.9140;
616.5000;0.3883;0.9165;
616.8000;0.3883;0.9115;
617.1000;0.3875;0.9165;
617.4000;0.3858;0.9090;
617.7000;0.3858;0.9065;
618.0000;0.3842;0.9065;
618.3000;0.3867;0.9189;
618.6000;0.3850;0.9189;
618.9000;0.3826;0.9214;
619.2000;0.3826;0.9189;
619.5000;0.3801;0.9065;
619.8000;0.3818;0.9115;
620.1000;0.3818;0.9140;
620.4000;0.3793;0.9115;
620.7000;0.3810;0.9189;
621.0000;0.3801;0.9239;
621.3000;0.3801;0.9189;
621.6000;0.3785;0.9140;
621.9000;0.3785;0.9165;
622.2000;0.3801;0.9189;
622.5000;0.3753;0.9065;
622.8000;0.3777;0.9090;
623.1000;0.3777;0.9239;
623.4000;0.3761;0.9189;
623.7000;0.3761;0.9165;
624.0000;0.3736;0.9016;
624.3000;0.3769;0.9115;
624.6000;0.3761;0.9165;
624.9000;0.3761;0.9239;
625.2000;0.3744;0.9214;
625.5000;0.3744;0.9140;
625.8000;0.3736;0.9214;
626.1000;0.3736;0.9214;
626.4000;0.3744;0.9239;
626.7000;0.3728;0.9239;
627.0000;0.3720;0.9214;
627.3000;0.3712;0.9115;
627.6000;0.3736;0.9189;
627.9000;0.3720;0.9065;
628.2000;0.3704;0.9040;
628.5000;0.3720;0.9065;
628.8000;0.3704;0.8966;
629.1000;0.3704;0.8966;
629.4000;0.3696;0.9016;
629.7000;0.3704;0.9040;
630.0000;0.3704;0.9140;
630.3000;0.3696;0.9239;
630.6000;0.3679;0.9214;
630.9000;0.3655;0.9165;
631.2000;0.3679;0.9115;
631.5000;0.3696;0.9065;
631.8000;0.3671;0.8991;
632.1000;0.3687;0.9016;
632.4000;0.3712;0.9115;
632.7000;0.3671;0.9065;
633.0000;0.3663;0.9016;
633.3000;0.3671;0.9065;
633.6000;0.3671;0.9065;
633.9000;0.3679;0.9090;
634.2000;0.3671;0.9016;
634.5000;0.3679;0.9040;
634.8000;0.3655;0.9065;
635.1000;0.3663;0.9090;
635.4000;0.3630;0.9040;
635.7000;0.3630;0.9140;
636.0000;0.3630;0.9165;
636.3000;0.3704;0.9438;
636.6000;0.3622;0.9214;
636.9000;0.3639;0.9065;
637.2000;0.3647;0.9016;
637.5000;0.3655;0.9016;
637.8000;0.3630;0.9016;
638.1000;0.3622;0.9016;
638.4000;0.3630;0.9115;
638.7000;0.3630;0.9115;
639.0000;0.3630;0.9090;
639.3000;0.3671;0.9239;
639.6000;0.3622;0.9065;
639.9000;0.3622;0.9016;
640.2000;0.3671;0.9165;
640.5000;0.3614;0.9140;
640.8000;0.3598;0.8991;
641.1000;0.3614;0.9040;
641.4000;0.3598;0.9065;
641.7000;0.3606;0.9090;
642.0000;0.3606;0.9065;
642.3000;0.3614;0.9090;
642.6000;0.3630;0.9115;
642.9000;0.3614;0.9140;
643.2000;0.3647;0.9314;
643.5000;0.3565;0.9115;
643.8000;0.3598;0.9214;
644.1000;0.3590;0.9189;
644.4000;0.3557;0.9189;
644.7000;0.3582;0.9214;
645.0000;0.3582;0.9239;
645.3000;0.3573;0.9189;
645.6000;0.3582;0.9214;
645.9000;0.3565;0.9189;
646.2000;0.3573;0.9165;
646.5000;0.3573;0.9165;
646.8000;0.3582;0.9090;
647.1000;0.3557;0.9115;
647.4000;0.3573;0.9140;
647.7000;0.3573;0.9189;
648.0000;0.3549;0.9090;
648.3000;0.3573;0.9090;
648.6000;0.3557;0.9140;
648.9000;0.3582;0.9140;
649.2000;0.3606;0.9189;
649.5000;0.3549;0.9090;
649.8000;0.3565;0.9115;
650.1000;0.3582;0.9140;
650.4000;0.3573;0.9165;
650.7000;0.3468;0.8867;
651.0000;0.3516;0.9115;
651.3000;0.3565;0.9214;
651.6000;0.3614;0.9363;
651.9000;0.3549;0.9189;
652.2000;0.3557;0.9165;
652.5000;0.3541;0.9165;
652.8000;0.3549;0.9165;
653.1000;0.3549;0.9165;
653.4000;0.3533;0.9214;
653.7000;0.3541;0.9264;
654.0000;0.3565;0.9314;
654.3000;0.3533;0.9239;
654.6000;0.3525;0.9264;
654.9000;0.3533;0.9388;
655.2000;0.3525;0.9388;
655.5000;0.3533;0.9413;
655.8000;0.3525;0.9314;
656.1000;0.3492;0.9189;
656.4000;0.3573;0.9264;
656.7000;0.3525;0.9165;
657.0000;0.3525;0.9140;
657.3000;0.3508;0.9165;
657.6000;0.3500;0.9189;
657.9000;0.3508;0.9314;
658.2000;0.3549;0.9438;
658.5000;0.3525;0.9338;
658.8000;0.3508;0.9314;
659.1000;0.3516;0.9314;
659.4000;0.3500;0.9314;
659.7000;0.3484;0.9189;
660.0000;0.3508;0.9239;
660.3000;0.3541;0.9289;
660.6000;0.3525;0.9289;
660.9000;0.3508;0.9214;
661.2000;0.3492;0.9040;
661.5000;0.3516;0.9165;
661.8000;0.3516;0.9065;
662.1000;0.3419;0.8867;
662.4000;0.3492;0.9016;
662.7000;0.3492;0.9016;
663.0000;0.3500;0.9140;
663.3000;0.3468;0.9140;
663.6000;0.3500;0.9264;
663.9000;0.3476;0.9239;
664.2000;0.3516;0.9289;
664.5000;0.3492;0.9189;
664.8000;0.3484;0.9165;
665.1000;0.3500;0.9214;
665.4000;0.3516;0.9314;
665.7000;0.3492;0.9239;
666.0000;0.3492;0.9239;
666.3000;0.3451;0.9040;
666.6000;0.3500;0.9115;
666.9000;0.3508;0.9115;
667.2000;0.3468;0.9140;
667.5000;0.3484;0.9165;
667.8000;0.3484;0.9140;
668.1000;0.3468;0.9016;
668.4000;0.3508;0.9040;
668.7000;0.3484;0.8941;
669.0000;0.3468;0.9040;
669.3000;0.3492;0.9214;
669.6000;0.3484;0.9140;
669.9000;0.3492;0.9115;
670.2000;0.3484;0.9016;
670.5000;0.3492;0.9040;
670.8000;0.3533;0.9065;
671.1000;0.3492;0.9040;
671.4000;0.3492;0.9115;
671.7000;0.3468;0.9140;
672.0000;0.3476;0.9140;
672.3000;0.3476;0.9140;
672.6000;0.3500;0.9090;
672.9000;0.3484;0.9040;
673.2000;0.3476;0.9016;
673.5000;0.3419;0.8891;
673.8000;0.3492;0.8966;
674.1000;0.3484;0.8891;
674.4000;0.3468;0.8916;
674.7000;0.3460;0.8891;
675.0000;0.3492;0.9115;
675.3000;0.3525;0.9189;
675.6000;0.3411;0.9016;
675.9000;0.3460;0.9065;
676.2000;0.3443;0.9115;
676.5000;0.3451;0.9239;
676.8000;0.3549;0.9413;
677.1000;0.3468;0.9165;
677.4000;0.3476;0.9239;
677.7000;0.3460;0.9140;
678.0000;0.3460;0.9090;
678.3000;0.3451;0.9115;
678.6000;0.3476;0.9189;
678.9000;0.3451;0.9115;
679.2000;0.3533;0.9239;
679.5000;0.3468;0.9090;
679.8000;0.3460;0.9090;
680.1000;0.3516;0.9264;
680.4000;0.3468;0.9040;
680.7000;0.3435;0.8891;
681.0000;0.3386;0.8718;
681.3000;0.3451;0.8867;
681.6000;0.3443;0.8941;
681.9000;0.3443;0.8991;
682.2000;0.3508;0.9115;
682.5000;0.3500;0.9115;
682.8000;0.3370;0.8792;
683.1000;0.3435;0.8991;
683.4000;0.3484;0.9140;
683.7000;0.3394;0.9040;
684.0000;0.3435;0.9115;
684.3000;0.3460;0.9214;
684.6000;0.3435;0.9140;
684.9000;0.3403;0.9016;
685.2000;0.3427;0.9090;
685.5000;0.3411;0.9090;
685.8000;0.3411;0.9140;
686.1000;0.3419;0.9165;
686.4000;0.3419;0.9140;
686.7000;0.3427;0.9214;
687.0000;0.3394;0.9115;
687.3000;0.3427;0.9115;
687.6000;0.3419;0.9115;
687.9000;0.3427;0.9165;
688.2000;0.3386;0.9115;
688.5000;0.3419;0.9189;
688.8000;0.3419;0.9189;
689.1000;0.3411;0.9115;
689.4000;0.3427;0.9165;
689.7000;0.3419;0.9090;
690.0000;0.3403;0.9016;
690.3000;0.3411;0.9090;
690.6000;0.3419;0.9140;
690.9000;0.3403;0.9016;
691.2000;0.3394;0.9040;
691.5000;0.3476;0.9214;
691.8000;0.3403;0.9016;
692.1000;0.3435;0.9090;
692.4000;0.3427;0.9016;
692.7000;0.3411;0.9016;
693.0000;0.3419;0.9040;
693.3000;0.3394;0.9090;
693.6000;0.3443;0.9189;
693.9000;0.3411;0.9140;
694.2000;0.3427;0.9140;
694.5000;0.3403;0.9090;
694.8000;0.3403;0.9040;
695.1000;0.3403;0.9040;
695.4000;0.3394;0.8991;
695.7000;0.3411;0.9065;
696.0000;0.3386;0.9016;
696.3000;0.3419;0.9140;
696.6000;0.3419;0.9239;
696.9000;0.3411;0.9165;
697.2000;0.3419;0.9239;
697.5000;0.3435;0.9289;
697.8000;0.3403;0.9214;
698.1000;0.3378;0.9239;
698.4000;0.3386;0.9239;
698.7000;0.3394;0.9289;
699.0000;0.3411;0.9264;
699.3000;0.3411;0.9239;
699.6000;0.3403;0.9140;
699.9000;0.3419;0.9065;
700.2000;0.3435;0.9090;
700.5000;0.3411;0.9016;
700.8000;0.3460;0.9239;
701.1000;0.3403;0.9065;
701.4000;0.3419;0.9115;
701.7000;0.3419;0.9065;
702.0000;0.3386;0.9016;
702.3000;0.3370;0.9065;
702.6000;0.3378;0.9040;
702.9000;0.3394;0.9065;
703.2000;0.3386;0.9040;
703.5000;0.3443;0.9189;
703.8000;0.3386;0.9065;
704.1000;0.3435;0.9090;
704.4000;0.3378;0.8966;
704.7000;0.3411;0.9065;
705.0000;0.3419;0.9165;
705.3000;0.3386;0.9165;
705.6000;0.3427;0.9165;
705.9000;0.3394;0.9065;
706.2000;0.3403;0.8991;
706.5000;0.3484;0.9189;
706.8000;0.3386;0.8991;
707.1000;0.3394;0.8966;
707.4000;0.3419;0.8991;
707.7000;0.3394;0.8991;
708.0000;0.3370;0.8966;
708.3000;0.3386;0.9115;
708.6000;0.3394;0.9189;
708.9000;0.3362;0.9065;
709.2000;0.3386;0.9040;
709.5000;0.3362;0.8966;
709.8000;0.3370;0.9016;
710.1000;0.3386;0.9016;
710.4000;0.3354;0.8966;
710.7000;0.3378;0.9090;
711.0000;0.3378;0.8966;
711.3000;0.3362;0.9016;
711.6000;0.3378;0.9140;
711.9000;0.3370;0.9189;
712.2000;0.3378;0.9065;
712.5000;0.3370;0.9040;
712.8000;0.3378;0.9040;
713.1000;0.3362;0.8966;
713.4000;0.3329;0.8867;
713.7000;0.3394;0.8941;
714.0000;0.3362;0.8867;
714.3000;0.3362;0.8891;
714.6000;0.3378;0.9016;
714.9000;0.3386;0.8991;
715.2000;0.3386;0.9016;
715.5000;0.3370;0.9065;
715.8000;0.3386;0.9189;
716.1000;0.3386;0.9264;
716.4000;0.3386;0.9264;
716.7000;0.3386;0.9214;
717.0000;0.3354;0.9115;
717.3000;0.3386;0.9214;
717.6000;0.3362;0.9189;
717.9000;0.3378;0.9239;
718.2000;0.3354;0.9165;
718.5000;0.3346;0.8991;
718.8000;0.3370;0.9090;
719.1000;0.3297;0.8891;
719.4000;0.3305;0.8891;
719.7000;0.3354;0.9040;
720.0000;0.3370;0.9115;
720.3000;0.3346;0.9165;
720.6000;0.3346;0.9165;
720.9000;0.3354;0.9264;
721.2000;0.3337;0.9239;
721.5000;0.3362;0.9363;
721.8000;0.3362;0.9289;
722.1000;0.3403;0.9338;
722.4000;0.3378;0.9438;
722.7000;0.3313;0.9165;
723.0000;0.3370;0.9289;
723.3000;0.3370;0.9289;
723.6000;0.3378;0.9363;
723.9000;0.3362;0.9264;
724.2000;0.3362;0.9289;
724.5000;0.3386;0.9314;
724.8000;0.3346;0.9090;
725.1000;0.3354;0.9065;
725.4000;0.3362;0.9214;
725.7000;0.3346;0.9140;
726.0000;0.3362;0.9140;
726.3000;0.3329;0.8941;
726.6000;0.3362;0.8891;
726.9000;0.3354;0.8867;
727.2000;0.3354;0.8891;
727.5000;0.3394;0.8941;
727.8000;0.3362;0.8817;
728.1000;0.3370;0.8891;
728.4000;0.3354;0.8916;
728.7000;0.3346;0.8941;
729.0000;0.3354;0.8941;
729.3000;0.3346;0.8941;
729.6000;0.3280;0.8842;
729.9000;0.3346;0.9016;
730.2000;0.3354;0.8941;
730.5000;0.3362;0.8941;
730.8000;0.3354;0.8891;
731.1000;0.3403;0.8991;
731.4000;0.3362;0.8867;
731.7000;0.3362;0.8867;
732.0000;0.3346;0.8891;
732.3000;0.3289;0.8742;
732.6000;0.3346;0.8966;
732.9000;0.3321;0.8916;
733.2000;0.3264;0.8693;
733.5000;0.3346;0.8891;
733.8000;0.3337;0.8916;
734.1000;0.3354;0.8966;
734.4000;0.3346;0.8966;
734.7000;0.3337;0.8916;
735.0000;0.3329;0.8991;
735.3000;0.3362;0.9140;
735.6000;0.3337;0.9165;
735.9000;0.3337;0.9189;
736.2000;0.3337;0.9289;
736.5000;0.3337;0.9388;
736.8000;0.3411;0.9512;
737.1000;0.3346;0.9413;
737.4000;0.3346;0.9438;
737.7000;0.3321;0.9338;
738.0000;0.3346;0.9314;
738.3000;0.3362;0.9413;
738.6000;0.3321;0.9338;
738.9000;0.3354;0.9438;
739.2000;0.3337;0.9413;
739.5000;0.3337;0.9363;
739.8000;0.3321;0.9239;
740.1000;0.3362;0.9239;
740.4000;0.3354;0.9140;
740.7000;0.3346;0.9090;
741.0000;0.3346;0.9090;
741.3000;0.3337;0.9090;
741.6000;0.3354;0.9239;
741.9000;0.3370;0.9264;
742.2000;0.3321;0.9140;
742.5000;0.3329;0.9165;
742.8000;0.3321;0.9115;
743.1000;0.3337;0.9165;
743.4000;0.3362;0.9165;
743.7000;0.3386;0.9239;
744.0000;0.3346;0.9115;
744.3000;0.3354;0.9189;
744.6000;0.3329;0.9165;
744.9000;0.3329;0.9189;
745.2000;0.3329;0.9090;
745.5000;0.3305;0.9065;
745.8000;0.3346;0.9264;
746.1000;0.3329;0.9214;
746.4000;0.3337;0.9189;
746.7000;0.3346;0.9264;
747.0000;0.3346;0.9214;
747.3000;0.3329;0.9214;
747.6000;0.3313;0.9189;
747.9000;0.3321;0.9214;
748.2000;0.3321;0.9165;
748.5000;0.3313;0.9090;
748.8000;0.3313;0.9140;
749.1000;0.3346;0.9214;
749.4000;0.3305;0.9165;
749.7000;0.3329;0.9239;
750.0000;0.3321;0.9214;
750.3000;0.3264;0.9016;
750.6000;0.3321;0.9090;
750.9000;0.3346;0.9090;
751.2000;0.3370;0.9239;
751.5000;0.3346;0.9189;
751.8000;0.3321;0.9264;
752.1000;0.3337;0.9264;
752.4000;0.3297;0.9214;
752.7000;0.3289;0.9214;
753.0000;0.3313;0.9189;
753.3000;0.3321;0.9214;
753.6000;0.3305;0.9214;
753.9000;0.3313;0.9264;
754.2000;0.3329;0.9239;
754.5000;0.3297;0.9165;
754.8000;0.3321;0.9214;
755.1000;0.3313;0.9214;
755.4000;0.3313;0.9189;
755.7000;0.3329;0.9239;
756.0000;0.3313;0.9165;
756.3000;0.3329;0.9165;
756.6000;0.3297;0.9214;
756.9000;0.3297;0.9239;
757.2000;0.3321;0.9165;
757.5000;0.3362;0.9214;
757.8000;0.3305;0.9115;
758.1000;0.3329;0.9189;
758.4000;0.3313;0.9090;
758.7000;0.3321;0.9040;
759.0000;0.3289;0.9016;
759.3000;0.3321;0.9040;
759.6000;0.3305;0.9040;
759.9000;0.3297;0.9090;
760.2000;0.3313;0.9115;
760.5000;0.3329;0.9140;
760.8000;0.3329;0.9189;
761.1000;0.3313;0.9214;
761.4000;0.3305;0.9214;
761.7000;0.3313;0.9239;
762.0000;0.3289;0.9115;
762.3000;0.3305;0.9189;
762.6000;0.3321;0.9165;
762.9000;0.3313;0.9189;
763.2000;0.3321;0.9239;
763.5000;0.3321;0.9264;
763.8000;0.3305;0.9090;
764.1000;0.3321;0.9140;
764.4000;0.3297;0.9115;
764.7000;0.3313;0.9165;
765.0000;0.3297;0.9065;
765.3000;0.3321;0.9090;
765.6000;0.3305;0.9090;
765.9000;0.3329;0.9115;
766.2000;0.3305;0.9165;
766.5000;0.3297;0.9264;
766.8000;0.3313;0.9314;
767.1000;0.3378;0.9463;
767.4000;0.3321;0.9388;
767.7000;0.3280;0.9363;
768.0000;0.3313;0.9562;
768.3000;0.3321;0.9488;
768.6000;0.3321;0.9388;
768.9000;0.3346;0.9438;
769.2000;0.3313;0.9338;
769.5000;0.3321;0.9338;
769.8000;0.3264;0.9314;
770.1000;0.3313;0.9388;
770.4000;0.3289;0.9314;
770.7000;0.3297;0.9338;
771.0000;0.3297;0.9363;
771.3000;0.3321;0.9463;
771.6000;0.3297;0.9438;
771.9000;0.3305;0.9537;
772.2000;0.3313;0.9562;
772.5000;0.3256;0.9438;
772.8000;0.3305;0.9438;
773.1000;0.3289;0.9463;
773.4000;0.3313;0.9488;
773.7000;0.3297;0.9413;
774.0000;0.3313;0.9338;
774.3000;0.3289;0.9314;
774.6000;0.3370;0.9537;
774.9000;0.3264;0.9189;
775.2000;0.3305;0.9264;
775.5000;0.3289;0.9264;
775.8000;0.3297;0.9363;
776.1000;0.3297;0.9363;
776.4000;0.3289;0.9338;
776.7000;0.3329;0.9363;
777.0000;0.3313;0.9413;
777.3000;0.3386;0.9686;
777.6000;0.3297;0.9512;
777.9000;0.3305;0.9637;
778.2000;0.3305;0.9562;
778.5000;0.3329;0.9637;
778.8000;0.3305;0.9637;
779.1000;0.3305;0.9637;
779.4000;0.3305;0.9562;
779.7000;0.3297;0.9438;
780.0000;0.3289;0.9512;
780.3000;0.3272;0.9512;
780.6000;0.3354;0.9612;
780.9000;0.3321;0.9612;
781.2000;0.3297;0.9537;
781.5000;0.3289;0.9463;
781.8000;0.3256;0.9438;
782.1000;0.3289;0.9463;
782.4000;0.3305;0.9537;
782.7000;0.3289;0.9463;
783.0000;0.3240;0.9438;
783.3000;0.3337;0.9612;
783.6000;0.3329;0.9537;
783.9000;0.3297;0.9488;
784.2000;0.3297;0.9438;
784.5000;0.3289;0.9338;
784.8000;0.3289;0.9388;
785.1000;0.3313;0.9463;
785.4000;0.3289;0.9338;
785.7000;0.3297;0.9388;
786.0000;0.3289;0.9413;
786.3000;0.3289;0.9438;
786.6000;0.3313;0.9488;
786.9000;0.3264;0.9388;
787.2000;0.3289;0.9537;
787.5000;0.3272;0.9388;
787.8000;0.3297;0.9463;
788.1000;0.3256;0.9363;
788.4000;0.3289;0.9488;
788.7000;0.3362;0.9562;
789.0000;0.3289;0.9338;
789.3000;0.3297;0.9388;
789.6000;0.3354;0.9537;
789.9000;0.3313;0.9413;
790.2000;0.3305;0.9413;
790.5000;0.3305;0.9338;
790.8000;0.3240;0.9239;
791.1000;0.3321;0.9388;
791.4000;0.3264;0.9239;
791.7000;0.3289;0.9314;
792.0000;0.3264;0.9264;
792.3000;0.3280;0.9363;
792.6000;0.3289;0.9314;
792.9000;0.3280;0.9264;
793.2000;0.3272;0.9189;
793.5000;0.3289;0.9264;
793.8000;0.3297;0.9264;
794.1000;0.3289;0.9289;
794.4000;0.3297;0.9314;
794.7000;0.3297;0.9338;
795.0000;0.3321;0.9413;
795.3000;0.3289;0.9388;
795.6000;0.3337;0.9512;
795.9000;0.3232;0.9214;
796.2000;0.3280;0.9363;
796.5000;0.3272;0.9413;
796.8000;0.3256;0.9438;
797.1000;0.3232;0.9338;
797.4000;0.3289;0.9463;
797.7000;0.3297;0.9488;
798.0000;0.3329;0.9637;
798.3000;0.3297;0.9537;
798.6000;0.3272;0.9463;
798.9000;0.3264;0.9463;
799.2000;0.3248;0.9488;
799.5000;0.3256;0.9463;
799.8000;0.3305;0.9537;
800.1000;0.3297;0.9562;
800.4000;0.3199;0.9264;
800.7000;0.3264;0.9413;
801.0000;0.3305;0.9488;
801.3000;0.3289;0.9438;
801.6000;0.3329;0.9537;
801.9000;0.3354;0.9587;
802.2000;0.3297;0.9438;
802.5000;0.3313;0.9488;
802.8000;0.3297;0.9388;
803.1000;0.3280;0.9388;
803.4000;0.3280;0.9363;
803.7000;0.3289;0.9388;
804.0000;0.3289;0.9363;
804.3000;0.3305;0.9512;
804.6000;0.3297;0.9488;
804.9000;0.3289;0.9488;
805.2000;0.3289;0.9512;
805.5000;0.3321;0.9637;
805.8000;0.3305;0.9637;
806.1000;0.3272;0.9463;
806.4000;0.3280;0.9537;
806.7000;0.3305;0.9562;
807.0000;0.3280;0.9512;
807.3000;0.3280;0.9562;
807.6000;0.3280;0.9537;
807.9000;0.3289;0.9612;
808.2000;0.3289;0.9537;
808.5000;0.3272;0.9537;
808.8000;0.3272;0.9488;
809.1000;0.3297;0.9512;
809.4000;0.3305;0.9612;
809.7000;0.3272;0.9587;
810.0000;0.3280;0.9537;
810.3000;0.3297;0.9537;
810.6000;0.3272;0.9512;
810.9000;0.3272;0.9488;
811.2000;0.3264;0.9463;
811.5000;0.3297;0.9587;
811.8000;0.3289;0.9587;
812.1000;0.3305;0.9587;
812.4000;0.3280;0.9463;
812.7000;0.3272;0.9388;
813.0000;0.3289;0.9463;
813.3000;0.3264;0.9438;
813.6000;0.3313;0.9488;
813.9000;0.3289;0.9314;
814.2000;0.3272;0.9314;
814.5000;0.3280;0.9413;
814.8000;0.3240;0.9338;
815.1000;0.3280;0.9512;
815.4000;0.3289;0.9537;
815.7000;0.3289;0.9413;
816.0000;0.3264;0.9314;
816.3000;0.3297;0.9338;
816.6000;0.3264;0.9239;
816.9000;0.3305;0.9388;
817.2000;0.3240;0.9214;
817.5000;0.3264;0.9214;
817.8000;0.3272;0.9264;
818.1000;0.3289;0.9214;
818.4000;0.3289;0.9189;
818.7000;0.3297;0.9264;
819.0000;0.3289;0.9264;
819.3000;0.3248;0.9065;
819.6000;0.3272;0.9165;
819.9000;0.3272;0.9165;
820.2000;0.3264;0.9214;
820.5000;0.3313;0.9289;
820.8000;0.3289;0.9289;
821.1000;0.3321;0.9363;
821.4000;0.3280;0.9314;
821.7000;0.3321;0.9488;
822.0000;0.3272;0.9512;
822.3000;0.3199;0.9314;
822.6000;0.3280;0.9438;
822.9000;0.3280;0.9463;
823.2000;0.3297;0.9562;
823.5000;0.3264;0.9537;
823.8000;0.3305;0.9637;
824.1000;0.3248;0.9438;
824.4000;0.3329;0.9587;
824.7000;0.3215;0.9314;
825.0000;0.3280;0.9512;
825.3000;0.3297;0.9537;
825.6000;0.3264;0.9463;
825.9000;0.3297;0.9463;
826.2000;0.3280;0.9537;
826.5000;0.3289;0.9562;
826.8000;0.3272;0.9562;
827.1000;0.3264;0.9463;
827.4000;0.3272;0.9314;
827.7000;0.3272;0.9314;
828.0000;0.3272;0.9239;
828.3000;0.3264;0.9165;
828.6000;0.3280;0.9140;
828.9000;0.3256;0.9115;
829.2000;0.3264;0.9239;
829.5000;0.3264;0.9189;
829.8000;0.3280;0.9239;
830.1000;0.3264;0.9165;
830.4000;0.3264;0.9165;
830.7000;0.3280;0.9140;
831.0000;0.3280;0.9140;
831.3000;0.3264;0.9065;
831.6000;0.3289;0.9214;
831.9000;0.3272;0.9289;
832.2000;0.3248;0.9214;
832.5000;0.3264;0.9289;
832.8000;0.3256;0.9363;
833.1000;0.3272;0.9388;
833.4000;0.3272;0.9463;
833.7000;0.3256;0.9438;
834.0000;0.3256;0.9388;
834.3000;0.3272;0.9314;
834.6000;0.3264;0.9264;
834.9000;0.3272;0.9289;
835.2000;0.3272;0.9363;
835.5000;0.3297;0.9413;
835.8000;0.3272;0.9338;
836.1000;0.3313;0.9388;
836.4000;0.3280;0.9314;
836.7000;0.3264;0.9363;
837.0000;0.3272;0.9388;
837.3000;0.3289;0.9438;
837.6000;0.3256;0.9264;
837.9000;0.3264;0.9289;
838.2000;0.3272;0.9338;
838.5000;0.3240;0.9239;
838.8000;0.3264;0.9363;
839.1000;0.3256;0.9388;
839.4000;0.3329;0.9637;
839.7000;0.3370;0.9835;
840.0000;0.3370;0.9885;
840.3000;0.3256;0.9512;
840.6000;0.3297;0.9512;
840.9000;0.3280;0.9413;
841.2000;0.3272;0.9363;
841.5000;0.3256;0.9289;
841.8000;0.3264;0.9314;
842.1000;0.3272;0.9289;
842.4000;0.3272;0.9363;
842.7000;0.3264;0.9338;
843.0000;0.3289;0.9363;
843.3000;0.3264;0.9289;
843.6000;0.3264;0.9214;
843.9000;0.3256;0.9239;
844.2000;0.3264;0.9314;
844.5000;0.3280;0.9363;
844.8000;0.3280;0.9388;
845.1000;0.3305;0.9463;
845.4000;0.3256;0.9363;
845.7000;0.3264;0.9363;
846.0000;0.3272;0.9388;
846.3000;0.3232;0.9289;
846.6000;0.3232;0.9338;
846.9000;0.3280;0.9438;
847.2000;0.3280;0.9438;
847.5000;0.3280;0.9413;
847.8000;0.3280;0.9463;
848.1000;0.3272;0.9438;
848.4000;0.3297;0.9463;
848.7000;0.3280;0.9314;
849.0000;0.3280;0.9388;
849.3000;0.3256;0.9388;
849.6000;0.3264;0.9388;
849.9000;0.3272;0.9488;
850.2000;0.3264;0.9488;
850.5000;0.3264;0.9463;
850.8000;0.3272;0.9488;
851.1000;0.3289;0.9463;
851.4000;0.3264;0.9438;
851.7000;0.3264;0.9363;
852.0000;0.3256;0.9289;
852.3000;0.3337;0.9488;
852.6000;0.3264;0.9338;
852.9000;0.3248;0.9289;
853.2000;0.3272;0.9363;
853.5000;0.3272;0.9314;
853.8000;0.3264;0.9338;
854.1000;0.3264;0.9264;
854.4000;0.3256;0.9314;
854.7000;0.3240;0.9338;
855.0000;0.3272;0.9463;
855.3000;0.3223;0.9388;
855.6000;0.3289;0.9463;
855.9000;0.3256;0.9512;
856.2000;0.3256;0.9512;
856.5000;0.3297;0.9537;
856.8000;0.3272;0.9463;
857.1000;0.3272;0.9463;
857.4000;0.3272;0.9488;
857.7000;0.3264;0.9512;
858.0000;0.3289;0.9587;
858.3000;0.3289;0.9587;
858.6000;0.3289;0.9587;
858.9000;0.3272;0.9587;
859.2000;0.3240;0.9637;
859.5000;0.3256;0.9612;
859.8000;0.3264;0.9686;
860.1000;0.3264;0.9686;
860.4000;0.3264;0.9587;
860.7000;0.3256;0.9512;
861.0000;0.3272;0.9537;
861.3000;0.3264;0.9512;
861.6000;0.3264;0.9637;
861.9000;0.3272;0.9661;
862.2000;0.3264;0.9637;
862.5000;0.3272;0.9463;
862.8000;0.3289;0.9512;
863.1000;0.3264;0.9438;
863.4000;0.3264;0.9413;
863.7000;0.3280;0.9413;
864.0000;0.3248;0.9388;
864.3000;0.3289;0.9488;
864.6000;0.3264;0.9562;
864.9000;0.3264;0.9562;
865.2000;0.3264;0.9562;
865.5000;0.3240;0.9488;
865.8000;0.3240;0.9438;
866.1000;0.3191;0.9388;
866.4000;0.3289;0.9562;
866.7000;0.3248;0.9438;
867.0000;0.3248;0.9363;
867.3000;0.3305;0.9537;
867.6000;0.3264;0.9438;
867.9000;0.3264;0.9413;
868.2000;0.3264;0.9512;
868.5000;0.3329;0.9612;
868.8000;0.3256;0.9512;
869.1000;0.3264;0.9537;
869.4000;0.3264;0.9413;
869.7000;0.3272;0.9388;
870.0000;0.3256;0.9388;
870.3000;0.3215;0.9264;
870.6000;0.3248;0.9338;
870.9000;0.3280;0.9388;
871.2000;0.3264;0.9413;
871.5000;0.3232;0.9363;
871.8000;0.3256;0.9463;
872.1000;0.3272;0.9612;
872.4000;0.3280;0.9612;
872.7000;0.3256;0.9587;
873.0000;0.3264;0.9562;
873.3000;0.3272;0.9587;
873.6000;0.3256;0.9587;
873.9000;0.3256;0.9637;
874.2000;0.3264;0.9637;
874.5000;0.3280;0.9612;
874.8000;0.3248;0.9512;
875.1000;0.3264;0.9587;
875.4000;0.3215;0.9388;
875.7000;0.3240;0.9438;
876.0000;0.3248;0.9388;
876.3000;0.3264;0.9438;
876.6000;0.3256;0.9314;
876.9000;0.3256;0.9314;
877.2000;0.3256;0.9463;
877.5000;0.3223;0.9413;
877.8000;0.3248;0.9488;
878.1000;0.3248;0.9463;
878.4000;0.3232;0.9463;
878.7000;0.3264;0.9512;
879.0000;0.3248;0.9512;
879.3000;0.3272;0.9488;
879.6000;0.3256;0.9438;
879.9000;0.3256;0.9537;
880.2000;0.3280;0.9637;
880.5000;0.3215;0.9463;
880.8000;0.3272;0.9711;
881.1000;0.3256;0.9761;
881.4000;0.3264;0.9711;
881.7000;0.3264;0.9711;
882.0000;0.3264;0.9711;
882.3000;0.3248;0.9686;
882.6000;0.3264;0.9736;
882.9000;0.3272;0.9637;
883.2000;0.3264;0.9612;
883.5000;0.3313;0.9736;
883.8000;0.3272;0.9587;
884.1000;0.3264;0.9463;
884.4000;0.3264;0.9438;
884.7000;0.3248;0.9413;
885.0000;0.3272;0.9587;
885.3000;0.3256;0.9562;
885.6000;0.3346;0.9810;
885.9000;0.3264;0.9537;
886.2000;0.3256;0.9537;
886.5000;0.3240;0.9537;
886.8000;0.3240;0.9612;
887.1000;0.3166;0.9314;
887.4000;0.3240;0.9363;
887.7000;0.3256;0.9388;
888.0000;0.3256;0.9537;
888.3000;0.3272;0.9612;
888.6000;0.3240;0.9488;
888.9000;0.3199;0.9388;
889.2000;0.3240;0.9661;
889.5000;0.3232;0.9637;
889.8000;0.3223;0.9562;
890.1000;0.3183;0.9463;
890.4000;0.3215;0.9512;
890.7000;0.3240;0.9512;
891.0000;0.3232;0.9512;
891.3000;0.3215;0.9438;
891.6000;0.3337;0.9736;
891.9000;0.3256;0.9488;
892.2000;0.3232;0.9413;
892.5000;0.3289;0.9512;
892.8000;0.3248;0.9463;
893.1000;0.3232;0.9463;
893.4000;0.3264;0.9413;
893.7000;0.3289;0.9488;
894.0000;0.3346;0.9637;
894.3000;0.3272;0.9488;
894.6000;0.3240;0.9463;
894.9000;0.3272;0.9562;
895.2000;0.3264;0.9587;
895.5000;0.3232;0.9463;
895.8000;0.3248;0.9438;
896.1000;0.3248;0.9488;
896.4000;0.3297;0.9661;
896.7000;0.3256;0.9637;
897.0000;0.3264;0.9562;
897.3000;0.3264;0.9512;
897.6000;0.3232;0.9488;
897.9000;0.3264;0.9537;
898.2000;0.3264;0.9488;
898.5000;0.3232;0.9363;
898.8000;0.3232;0.9388;
899.1000;0.3256;0.9488;
899.4000;0.3297;0.9537;
899.7000;0.3240;0.9388;
900.0000;0.3248;0.9438;
900.3000;0.3248;0.9488;
900.6000;0.3264;0.9612;
900.9000;0.3240;0.9637;
901.2000;0.3248;0.9711;
901.5000;0.3232;0.9637;
901.8000;0.3256;0.9488;
902.1000;0.3256;0.9438;
902.4000;0.3248;0.9413;
902.7000;0.3256;0.9463;
903.0000;0.3248;0.9413;
903.3000;0.3232;0.9338;
903.6000;0.3232;0.9338;
903.9000;0.3223;0.9338;
904.2000;0.3215;0.9388;
904.5000;0.3240;0.9413;
904.8000;0.3223;0.9413;
905.1000;0.3248;0.9463;
905.4000;0.3232;0.9388;
905.7000;0.3248;0.9463;
906.0000;0.3248;0.9512;
906.3000;0.3240;0.9413;
906.6000;0.3248;0.9438;
906.9000;0.3264;0.9512;
907.2000;0.3264;0.9512;
907.5000;0.3264;0.9537;
907.8000;0.3232;0.9562;
908.1000;0.3272;0.9711;
908.4000;0.3272;0.9711;
908.7000;0.3272;0.9661;
909.0000;0.3232;0.9587;
909.3000;0.3207;0.9537;
909.6000;0.3256;0.9711;
909.9000;0.3248;0.9661;
910.2000;0.3256;0.9612;
910.5000;0.3256;0.9686;
910.8000;0.3256;0.9612;
911.1000;0.3240;0.9612;
911.4000;0.3240;0.9661;
911.7000;0.3240;0.9661;
912.0000;0.3207;0.9562;
912.3000;0.3272;0.9711;
912.6000;0.3280;0.9661;
912.9000;0.3256;0.9562;
913.2000;0.3232;0.9463;
913.5000;0.3232;0.9488;
913.8000;0.3248;0.9488;
914.1000;0.3150;0.9214;
914.4000;0.3256;0.9438;
914.7000;0.3264;0.9612;
915.0000;0.3272;0.9562;
915.3000;0.3223;0.9438;
915.6000;0.3305;0.9637;
915.9000;0.3264;0.9562;
916.2000;0.3248;0.9463;
916.5000;0.3248;0.9413;
916.8000;0.3232;0.9413;
917.1000;0.3183;0.9314;
917.4000;0.3264;0.9512;
917.7000;0.3264;0.9587;
918.0000;0.3223;0.9488;
918.3000;0.3272;0.9612;
918.6000;0.3272;0.9661;
918.9000;0.3256;0.9711;
919.2000;0.3272;0.9736;
919.5000;0.3232;0.9661;
919.8000;0.3264;0.9661;
920.1000;0.3248;0.9612;
920.4000;0.3248;0.9711;
920.7000;0.3264;0.9810;
921.0000;0.3264;0.9910;
921.3000;0.3264;0.9810;
921.6000;0.3264;0.9835;
921.9000;0.3223;0.9761;
922.2000;0.3248;0.9810;
922.5000;0.3256;0.9786;
922.8000;0.3248;0.9761;
923.1000;0.3248;0.9711;
923.4000;0.3256;0.9711;
923.7000;0.3232;0.9612;
924.0000;0.3191;0.9463;
924.3000;0.3248;0.9661;
924.6000;0.3232;0.9537;
924.9000;0.3264;0.9537;
925.2000;0.3232;0.9537;
925.5000;0.3215;0.9488;
925.8000;0.3240;0.9512;
926.1000;0.3240;0.9562;
926.4000;0.3248;0.9612;
926.7000;0.3232;0.9587;
927.0000;0.3232;0.9661;
927.3000;0.3280;0.9786;
927.6000;0.3256;0.9736;
927.9000;0.3248;0.9562;
928.2000;0.3223;0.9413;
928.5000;0.3240;0.9463;
928.8000;0.3256;0.9587;
929.1000;0.3223;0.9587;
929.4000;0.3256;0.9736;
929.7000;0.3240;0.9736;
930.0000;0.3240;0.9761;
930.3000;0.3223;0.9736;
930.6000;0.3240;0.9761;
930.9000;0.3248;0.9711;
931.2000;0.3264;0.9711;
931.5000;0.3240;0.9637;
931.8000;0.3264;0.9786;
932.1000;0.3256;0.9637;
932.4000;0.3256;0.9637;
932.7000;0.3248;0.9711;
933.0000;0.3248;0.9736;
933.3000;0.3248;0.9761;
933.6000;0.3166;0.9562;
933.9000;0.3256;0.9736;
934.2000;0.3240;0.9686;
934.5000;0.3280;0.9736;
934.8000;0.3248;0.9637;
935.1000;0.3280;0.9736;
935.4000;0.3215;0.9512;
935.7000;0.3232;0.9562;
936.0000;0.3240;0.9612;
936.3000;0.3280;0.9711;
936.6000;0.3248;0.9637;
936.9000;0.3183;0.9438;
937.2000;0.3256;0.9612;
937.5000;0.3256;0.9562;
937.8000;0.3215;0.9512;
938.1000;0.3240;0.9612;
938.4000;0.3248;0.9637;
938.7000;0.3256;0.9562;
939.0000;0.3256;0.9537;
939.3000;0.3240;0.9463;
939.6000;0.3232;0.9463;
939.9000;0.3272;0.9562;
940.2000;0.3240;0.9488;
940.5000;0.3240;0.9587;
940.8000;0.3240;0.9612;
941.1000;0.3223;0.9661;
941.4000;0.3240;0.9661;
941.7000;0.3240;0.9711;
942.0000;0.3256;0.9736;
942.3000;0.3248;0.9761;
942.6000;0.3248;0.9810;
942.9000;0.3256;0.9786;
943.2000;0.3232;0.9761;
943.5000;0.3232;0.9736;
943.8000;0.3264;0.9711;
944.1000;0.3272;0.9736;
944.4000;0.3280;0.9736;
944.7000;0.3240;0.9612;
945.0000;0.3256;0.9686;
945.3000;0.3183;0.9463;
945.6000;0.3215;0.9587;
945.9000;0.3248;0.9512;
946.2000;0.3223;0.9438;
946.5000;0.3232;0.9463;
946.8000;0.3256;0.9512;
947.1000;0.3248;0.9512;
947.4000;0.3150;0.9239;
947.7000;0.3248;0.9637;
948.0000;0.3223;0.9562;
948.3000;0.3240;0.9562;
948.6000;0.3223;0.9488;
948.9000;0.3248;0.9562;
949.2000;0.3232;0.9512;
949.5000;0.3248;0.9537;
949.8000;0.3248;0.9562;
950.1000;0.3248;0.9562;
950.4000;0.3256;0.9537;
950.7000;0.3232;0.9463;
951.0000;0.3240;0.9363;
951.3000;0.3264;0.9413;
951.6000;0.3280;0.9562;
951.9000;0.3232;0.9537;
952.2000;0.3232;0.9438;
952.5000;0.3207;0.9413;
952.8000;0.3232;0.9438;
953.1000;0.3232;0.9413;
953.4000;0.3264;0.9463;
953.7000;0.3248;0.9438;
954.0000;0.3248;0.9488;
954.3000;0.3272;0.9488;
954.6000;0.3248;0.9463;
954.9000;0.3240;0.9512;
955.2000;0.3240;0.9587;
955.5000;0.3223;0.9612;
955.8000;0.3240;0.9637;
956.1000;0.3264;0.9686;
956.4000;0.3256;0.9686;
956.7000;0.3248;0.9711;
957.0000;0.3256;0.9686;
957.3000;0.3240;0.9711;
957.6000;0.3264;0.9761;
957.9000;0.3232;0.9612;
958.2000;0.3232;0.9612;
958.5000;0.3223;0.9562;
958.8000;0.3232;0.9512;
959.1000;0.3248;0.9488;
959.4000;0.3191;0.9388;
959.7000;0.3232;0.9512;
960.0000;0.3248;0.9587;
960.3000;0.3240;0.9661;
960.6000;0.3232;0.9661;
960.9000;0.3232;0.9661;
961.2000;0.3240;0.9587;
961.5000;0.3248;0.9562;
961.8000;0.3256;0.9562;
962.1000;0.3248;0.9537;
962.4000;0.3248;0.9562;
962.7000;0.3248;0.9637;
963.0000;0.3240;0.9711;
963.3000;0.3248;0.9562;
963.6000;0.3240;0.9562;
963.9000;0.3232;0.9562;
964.2000;0.3248;0.9562;
964.5000;0.3248;0.9612;
964.8000;0.3223;0.9612;
965.1000;0.3240;0.9537;
965.4000;0.3248;0.9537;
965.7000;0.3248;0.9587;
966.0000;0.3223;0.9661;
966.3000;0.3223;0.9686;
966.6000;0.3240;0.9736;
966.9000;0.3240;0.9761;
967.2000;0.3232;0.9711;
967.5000;0.3215;0.9637;
967.8000;0.3248;0.9736;
968.1000;0.3272;0.9711;
968.4000;0.3248;0.9587;
968.7000;0.3240;0.9562;
969.0000;0.3248;0.9537;
969.3000;0.3264;0.9637;
969.6000;0.3223;0.9512;
969.9000;0.3223;0.9463;
970.2000;0.3240;0.9438;
970.5000;0.3240;0.9488;
970.8000;0.3232;0.9463;
971.1000;0.3248;0.9438;
971.4000;0.3232;0.9438;
971.7000;0.3240;0.9463;
972.0000;0.3232;0.9512;
972.3000;0.3183;0.9388;
972.6000;0.3215;0.9438;
972.9000;0.3240;0.9512;
973.2000;0.3272;0.9612;
973.5000;0.3289;0.9612;
973.8000;0.3248;0.9512;
974.1000;0.3232;0.9587;
974.4000;0.3256;0.9686;
974.7000;0.3223;0.9612;
975.0000;0.3215;0.9612;
975.3000;0.3232;0.9661;
975.6000;0.3248;0.9711;
975.9000;0.3248;0.9612;
976.2000;0.3248;0.9711;
976.5000;0.3264;0.9885;
976.8000;0.3240;0.9711;
977.1000;0.3280;0.9835;
977.4000;0.3223;0.9637;
977.7000;0.3232;0.9612;
978.0000;0.3232;0.9637;
978.3000;0.3240;0.9686;
978.6000;0.3272;0.9661;
978.9000;0.3215;0.9562;
979.2000;0.3223;0.9488;
979.5000;0.3240;0.9512;
979.8000;0.3240;0.9587;
980.1000;0.3305;0.9761;
980.4000;0.3232;0.9488;
980.7000;0.3232;0.9512;
981.0000;0.3232;0.9537;
981.3000;0.3232;0.9488;
981.6000;0.3313;0.9761;
981.9000;0.3248;0.9562;
982.2000;0.3215;0.9612;
982.5000;0.3215;0.9512;
982.8000;0.3223;0.9463;
983.1000;0.3223;0.9463;
983.4000;0.3240;0.9463;
983.7000;0.3223;0.9438;
984.0000;0.3223;0.9488;
984.3000;0.3232;0.9488;
984.6000;0.3232;0.9463;
984.9000;0.3232;0.9512;
985.2000;0.3191;0.9488;
985.5000;0.3240;0.9512;
985.8000;0.3240;0.9512;
986.1000;0.3240;0.9413;
986.4000;0.3232;0.9338;
986.7000;0.3256;0.9463;
987.0000;0.3264;0.9537;
987.3000;0.3264;0.9587;
987.6000;0.3215;0.9562;
987.9000;0.3240;0.9612;
988.2000;0.3280;0.9686;
988.5000;0.3232;0.9612;
988.8000;0.3215;0.9612;
989.1000;0.3240;0.9637;
989.4000;0.3240;0.9612;
989.7000;0.3240;0.9587;
990.0000;0.3232;0.9537;
990.3000;0.3223;0.9537;
990.6000;0.3248;0.9637;
990.9000;0.3215;0.9612;
991.2000;0.3223;0.9587;
991.5000;0.3232;0.9686;
991.8000;0.3240;0.9761;
992.1000;0.3232;0.9711;
992.4000;0.3248;0.9711;
992.7000;0.3240;0.9562;
993.0000;0.3248;0.9562;
993.3000;0.3207;0.9512;
993.6000;0.3232;0.9562;
993.9000;0.3240;0.9587;
994.2000;0.3232;0.9537;
994.5000;0.3223;0.9512;
994.8000;0.3215;0.9463;
995.1000;0.3232;0.9562;
995.4000;0.3240;0.9637;
995.7000;0.3232;0.9637;
996.0000;0.3223;0.9587;
996.3000;0.3240;0.9661;
996.6000;0.3215;0.9661;
996.9000;0.3223;0.9686;
997.2000;0.3232;0.9661;
997.5000;0.3248;0.9637;
997.8000;0.3199;0.9537;
998.1000;0.3223;0.9612;
998.4000;0.3207;0.9562;
998.7000;0.3232;0.9661;
999.0000;0.3215;0.9637;
999.3000;0.3199;0.9488;
999.6000;0.3223;0.9562;
999.9000;0.3264;0.9612;
1000.2000;0.3223;0.9562;
1000.5000;0.3215;0.9537;
1000.8000;0.3248;0.9562;
1001.1000;0.3232;0.9587;
1001.4000;0.3215;0.9612;
1001.7000;0.3223;0.9686;
1002.0000;0.3256;0.9761;
1002.3000;0.3191;0.9612;
1002.6000;0.3232;0.9736;
1002.9000;0.3232;0.9711;
1003.2000;0.3215;0.9661;
1003.5000;0.3223;0.9637;
1003.8000;0.3240;0.9612;
1004.1000;0.3256;0.9637;
1004.4000;0.3207;0.9438;
1004.7000;0.3215;0.9587;
1005.0000;0.3166;0.9463;
1005.3000;0.3232;0.9637;
1005.6000;0.3223;0.9562;
1005.9000;0.3223;0.9537;
1006.2000;0.3232;0.9537;
1006.5000;0.3240;0.9512;
1006.8000;0.3223;0.9512;
1007.1000;0.3240;0.9587;
1007.4000;0.3240;0.9637;
1007.7000;0.3232;0.9612;
1008.0000;0.3232;0.9537;
1008.3000;0.3199;0.9488;
1008.6000;0.3240;0.9537;
1008.9000;0.3199;0.9488;
1009.2000;0.3215;0.9537;
1009.5000;0.3248;0.9562;
1009.8000;0.3215;0.9562;
1010.1000;0.3240;0.9587;
1010.4000;0.3207;0.9488;
1010.7000;0.3223;0.9537;
1011.0000;0.3223;0.9587;
1011.3000;0.3248;0.9587;
1011.6000;0.3232;0.9512;
1011.9000;0.3256;0.9612;
1012.2000;0.3256;0.9637;
1012.5000;0.3256;0.9686;
1012.8000;0.3240;0.9587;
1013.1000;0.3207;0.9512;
1013.4000;0.3264;0.9512;
1013.7000;0.3248;0.9488;
1014.0000;0.3240;0.9463;
1014.3000;0.3232;0.9463;
1014.6000;0.3215;0.9438;
1014.9000;0.3232;0.9413;
1015.2000;0.3232;0.9438;
1015.5000;0.3215;0.9413;
1015.8000;0.3191;0.9289;
1016.1000;0.3256;0.9488;
1016.4000;0.3150;0.9314;
1016.7000;0.3240;0.9587;
1017.0000;0.3223;0.9637;
1017.3000;0.3240;0.9637;
1017.6000;0.3232;0.9562;
1017.9000;0.3232;0.9512;
1018.2000;0.3240;0.9338;
1018.5000;0.3240;0.9338;
1018.8000;0.3240;0.9463;
1019.1000;0.3232;0.9612;
1019.4000;0.3232;0.9488;
1019.7000;0.3232;0.9363;
1020.0000;0.3223;0.9338;
1020.3000;0.3232;0.9289;
1020.6000;0.3223;0.9314;
1020.9000;0.3215;0.9264;
1021.2000;0.3232;0.9289;
1021.5000;0.3256;0.9388;
1021.8000;0.3232;0.9388;
1022.1000;0.3175;0.9239;
1022.4000;0.3240;0.9363;
1022.7000;0.3248;0.9488;
1023.0000;0.3232;0.9438;
1023.3000;0.3215;0.9438;
1023.6000;0.3142;0.9314;
1023.9000;0.3240;0.9587;
1024.2000;0.3223;0.9562;
1024.5000;0.3240;0.9512;
1024.8000;0.3240;0.9488;
1025.1000;0.3264;0.9537;
1025.4000;0.3240;0.9363;
1025.7000;0.3232;0.9314;
1026.0000;0.3248;0.9413;
1026.3000;0.3256;0.9413;
1026.6000;0.3215;0.9363;
1026.9000;0.3207;0.9338;
1027.2000;0.3207;0.9314;
1027.5000;0.3215;0.9289;
1027.8000;0.3232;0.9338;
1028.1000;0.3256;0.9438;
1028.4000;0.3232;0.9413;
1028.7000;0.3223;0.9438;
1029.0000;0.3207;0.9413;
1029.3000;0.3215;0.9488;
1029.6000;0.3215;0.9363;
1029.9000;0.3207;0.9239;
1030.2000;0.3215;0.9363;
1030.5000;0.3215;0.9338;
1030.8000;0.3215;0.9438;
1031.1000;0.3223;0.9388;
1031.4000;0.3232;0.9314;
1031.7000;0.3240;0.9338;
1032.0000;0.3223;0.9314;
1032.3000;0.3232;0.9338;
1032.6000;0.3183;0.9214;
1032.9000;0.3256;0.9488;
1033.2000;0.3215;0.9338;
1033.5000;0.3248;0.9314;
1033.8000;0.3248;0.9264;
1034.1000;0.3248;0.9289;
1034.4000;0.3313;0.9488;
1034.7000;0.3223;0.9314;
1035.0000;0.3215;0.9338;
1035.3000;0.3223;0.9388;
1035.6000;0.3223;0.9438;
1035.9000;0.3223;0.9438;
1036.2000;0.3223;0.9463;
1036.5000;0.3240;0.9463;
1036.8000;0.3248;0.9413;
1037.1000;0.3240;0.9388;
1037.4000;0.3240;0.9363;
1037.7000;0.3240;0.9314;
1038.0000;0.3240;0.9363;
1038.3000;0.3223;0.9363;
1038.6000;0.3232;0.9314;
1038.9000;0.3240;0.9388;
1039.2000;0.3223;0.9388;
1039.5000;0.3223;0.9314;
1039.8000;0.3215;0.9289;
1040.1000;0.3248;0.9338;
1040.4000;0.3240;0.9314;
1040.7000;0.3199;0.9239;
1041.0000;0.3248;0.9363;
1041.3000;0.3215;0.9338;
1041.6000;0.3215;0.9363;
1041.9000;0.3223;0.9338;
1042.2000;0.3223;0.9413;
1042.5000;0.3256;0.9537;
1042.8000;0.3248;0.9612;
1043.1000;0.3248;0.9637;
1043.4000;0.3232;0.9562;
1043.7000;0.3232;0.9488;
1044.0000;0.3240;0.9488;
1044.3000;0.3232;0.9463;
1044.6000;0.3232;0.9463;
1044.9000;0.3223;0.9338;
1045.2000;0.3215;0.9413;
1045.5000;0.3256;0.9562;
1045.8000;0.3248;0.9512;
1046.1000;0.3215;0.9512;
1046.4000;0.3240;0.9463;
1046.7000;0.3240;0.9438;
1047.0000;0.3240;0.9363;
1047.3000;0.3256;0.9438;
1047.6000;0.3215;0.9363;
1047.9000;0.3232;0.9438;
1048.2000;0.3256;0.9488;
1048.5000;0.3232;0.9363;
1048.8000;0.3232;0.9314;
1049.1000;0.3280;0.9388;
1049.4000;0.3223;0.9264;
1049.7000;0.3240;0.9214;
1050.0000;0.3223;0.9090;
1050.3000;0.3240;0.9140;
1050.6000;0.3248;0.9289;
1050.9000;0.3223;0.9289;
1051.2000;0.3289;0.9438;
1051.5000;0.3232;0.9338;
1051.8000;0.3232;0.9438;
1052.1000;0.3240;0.9388;
1052.4000;0.3232;0.9438;
1052.7000;0.3232;0.9488;
1053.0000;0.3232;0.9512;
1053.3000;0.3248;0.9612;
1053.6000;0.3232;0.9562;
1053.9000;0.3150;0.9363;
1054.2000;0.3223;0.9488;
1054.5000;0.3248;0.9488;
1054.8000;0.3215;0.9438;
1055.1000;0.3223;0.9537;
1055.4000;0.3223;0.9612;
1055.7000;0.3232;0.9562;
1056.0000;0.3223;0.9512;
1056.3000;0.3256;0.9537;
1056.6000;0.3232;0.9463;
1056.9000;0.3223;0.9438;
1057.2000;0.3240;0.9413;
1057.5000;0.3232;0.9388;
1057.8000;0.3191;0.9239;
1058.1000;0.3240;0.9363;
1058.4000;0.3223;0.9338;
1058.7000;0.3150;0.9239;
1059.0000;0.3223;0.9413;
1059.3000;0.3191;0.9314;
1059.6000;0.3240;0.9438;
1059.9000;0.3223;0.9388;
1060.2000;0.3207;0.9314;
1060.5000;0.3215;0.9338;
1060.8000;0.3240;0.9488;
1061.1000;0.3223;0.9438;
1061.4000;0.3223;0.9363;
1061.7000;0.3183;0.9338;
1062.0000;0.3215;0.9338;
1062.3000;0.3223;0.9388;
1062.6000;0.3215;0.9438;
1062.9000;0.3232;0.9413;
1063.2000;0.3199;0.9388;
1063.5000;0.3289;0.9736;
1063.8000;0.3215;0.9587;
1064.1000;0.3215;0.9488;
1064.4000;0.3232;0.9537;
1064.7000;0.3264;0.9637;
1065.0000;0.3223;0.9587;
1065.3000;0.3175;0.9438;
1065.6000;0.3232;0.9562;
1065.9000;0.3223;0.9562;
1066.2000;0.3215;0.9438;
1066.5000;0.3142;0.9264;
1066.8000;0.3207;0.9388;
1067.1000;0.3240;0.9388;
1067.4000;0.3280;0.9438;
1067.7000;0.3232;0.9264;
1068.0000;0.3215;0.9214;
1068.3000;0.3240;0.9214;
1068.6000;0.3223;0.9314;
1068.9000;0.3232;0.9314;
1069.2000;0.3232;0.9363;
1069.5000;0.3248;0.9413;
1069.8000;0.3248;0.9438;
1070.1000;0.3232;0.9413;
1070.4000;0.3264;0.9438;
1070.7000;0.3207;0.9388;
1071.0000;0.3207;0.9338;
1071.3000;0.3248;0.9537;
1071.6000;0.3240;0.9388;
1071.9000;0.3240;0.9338;
1072.2000;0.3232;0.9338;
1072.5000;0.3240;0.9314;
1072.8000;0.3215;0.9264;
1073.1000;0.3248;0.9363;
1073.4000;0.3256;0.9363;
1073.7000;0.3232;0.9264;
1074.0000;0.3232;0.9363;
1074.3000;0.3240;0.9413;
1074.6000;0.3232;0.9438;
1074.9000;0.3232;0.9413;
1075.2000;0.3215;0.9314;
1075.5000;0.3232;0.9314;
1075.8000;0.3240;0.9289;
1076.1000;0.3223;0.9388;
1076.4000;0.3223;0.9363;
1076.7000;0.3223;0.9338;
1077.0000;0.3232;0.9488;
1077.3000;0.3280;0.9587;
1077.6000;0.3248;0.9338;
1077.9000;0.3223;0.9314;
1078.2000;0.3240;0.9289;
1078.5000;0.3232;0.9264;
1078.8000;0.3240;0.9289;
1079.1000;0.3232;0.9264;
1079.4000;0.3240;0.9363;
1079.7000;0.3240;0.9363;
1080.0000;0.3248;0.9438;
1080.3000;0.3240;0.9463;
1080.6000;0.3223;0.9438;
1080.9000;0.3215;0.9363;
1081.2000;0.3240;0.9463;
1081.5000;0.3240;0.9488;
1081.8000;0.3223;0.9388;
1082.1000;0.3232;0.9388;
1082.4000;0.3272;0.9463;
1082.7000;0.3207;0.9463;
1083.0000;0.3215;0.9438;
1083.3000;0.3248;0.9537;
1083.6000;0.3240;0.9512;
1083.9000;0.3215;0.9413;
1084.2000;0.3264;0.9537;
1084.5000;0.3215;0.9463;
1084.8000;0.3232;0.9438;
1085.1000;0.3232;0.9413;
1085.4000;0.3207;0.9338;
1085.7000;0.3166;0.9264;
1086.0000;0.3232;0.9413;
1086.3000;0.3248;0.9413;
1086.6000;0.3199;0.9314;
1086.9000;0.3223;0.9363;
1087.2000;0.3207;0.9438;
1087.5000;0.3166;0.9289;
1087.8000;0.3223;0.9488;
1088.1000;0.3199;0.9512;
1088.4000;0.3232;0.9587;
1088.7000;0.3223;0.9562;
1089.0000;0.3256;0.9512;
1089.3000;0.3215;0.9413;
1089.6000;0.3215;0.9463;
1089.9000;0.3215;0.9463;
1090.2000;0.3223;0.9388;
1090.5000;0.3248;0.9537;
1090.8000;0.3215;0.9512;
1091.1000;0.3207;0.9413;
1091.4000;0.3232;0.9438;
1091.7000;0.3215;0.9463;
1092.0000;0.3232;0.9512;
1092.3000;0.3240;0.9562;
1092.6000;0.3215;0.9537;
1092.9000;0.3223;0.9612;
1093.2000;0.3232;0.9587;
1093.5000;0.3223;0.9587;
1093.8000;0.3232;0.9637;
1094.1000;0.3232;0.9686;
1094.4000;0.3223;0.9612;
1094.7000;0.3215;0.9587;
1095.0000;0.3207;0.9637;
1095.3000;0.3232;0.9637;
1095.6000;0.3240;0.9612;
1095.9000;0.3215;0.9488;
1096.2000;0.3223;0.9562;
1096.5000;0.3232;0.9512;
1096.8000;0.3223;0.9463;
1097.1000;0.3248;0.9537;
1097.4000;0.3232;0.9463;
1097.7000;0.3223;0.9388;
1098.0000;0.3232;0.9388;
1098.3000;0.3240;0.9363;
1098.6000;0.3232;0.9363;
1098.9000;0.3248;0.9388;
1099.2000;0.3240;0.9338;
1099.5000;0.3223;0.9289;
1099.8000;0.3232;0.9289;
1100.1000;0.3158;0.9214;
1100.4000;0.3134;0.9115;
1100.7000;0.3232;0.9338;
1101.0000;0.3134;0.9090;
1101.3000;0.3207;0.9338;
1101.6000;0.3223;0.9488;
1101.9000;0.3223;0.9438;
1102.2000;0.3158;0.9338;
1102.5000;0.3248;0.9587;
1102.8000;0.3240;0.9512;
1103.1000;0.3223;0.9512;
1103.4000;0.3223;0.9438;
1103.7000;0.3240;0.9537;
1104.0000;0.3240;0.9512;
1104.3000;0.3240;0.9537;
1104.6000;0.3215;0.9512;
1104.9000;0.3215;0.9562;
1105.2000;0.3223;0.9537;
1105.5000;0.3223;0.9637;
1105.8000;0.3232;0.9637;
1106.1000;0.3232;0.9711;
1106.4000;0.3223;0.9686;
1106.7000;0.3232;0.9612;
1107.0000;0.3207;0.9512;
1107.3000;0.3215;0.9488;
1107.6000;0.3240;0.9537;
1107.9000;0.3240;0.9612;
1108.2000;0.3199;0.9512;
1108.5000;0.3223;0.9512;
1108.8000;0.3191;0.9363;
1109.1000;0.3240;0.9463;
1109.4000;0.3240;0.9537;
1109.7000;0.3223;0.9463;
1110.0000;0.3240;0.9413;
1110.3000;0.3272;0.9463;
1110.6000;0.3248;0.9438;
1110.9000;0.3223;0.9363;
1111.2000;0.3207;0.9289;
1111.5000;0.3289;0.9488;
1111.8000;0.3223;0.9314;
1112.1000;0.3142;0.9140;
1112.4000;0.3166;0.9214;
1112.7000;0.3232;0.9338;
1113.0000;0.3232;0.9338;
1113.3000;0.3232;0.9264;
1113.6000;0.3232;0.9289;
1113.9000;0.3232;0.9264;
1114.2000;0.3223;0.9214;
1114.5000;0.3240;0.9264;
1114.8000;0.3223;0.9264;
1115.1000;0.3248;0.9264;
1115.4000;0.3248;0.9363;
1115.7000;0.3248;0.9338;
1116.0000;0.3207;0.9363;
1116.3000;0.3321;0.9488;
1116.6000;0.3264;0.9314;
1116.9000;0.3223;0.9189;
1117.2000;0.3175;0.9140;
1117.5000;0.3191;0.9090;
1117.8000;0.3240;0.9289;
1118.1000;0.3329;0.9512;
1118.4000;0.3232;0.9289;
1118.7000;0.3223;0.9314;
1119.0000;0.3232;0.9338;
1119.3000;0.3232;0.9338;
1119.6000;0.3248;0.9388;
1119.9000;0.3232;0.9413;
1120.2000;0.3240;0.9488;
1120.5000;0.3232;0.9562;
1120.8000;0.3248;0.9562;
1121.1000;0.3223;0.9512;
1121.4000;0.3215;0.9463;
1121.7000;0.3207;0.9438;
1122.0000;0.3215;0.9438;
1122.3000;0.3223;0.9413;
1122.6000;0.3232;0.9413;
1122.9000;0.3313;0.9661;
1123.2000;0.3223;0.9488;
1123.5000;0.3240;0.9537;
1123.8000;0.3223;0.9512;
1124.1000;0.3248;0.9537;
1124.4000;0.3199;0.9338;
1124.7000;0.3232;0.9463;
1125.0000;0.3232;0.9562;
1125.3000;0.3264;0.9612;
1125.6000;0.3207;0.9388;
1125.9000;0.3232;0.9463;
1126.2000;0.3215;0.9413;
1126.5000;0.3207;0.9488;
1126.8000;0.3175;0.9388;
1127.1000;0.3215;0.9488;
1127.4000;0.3215;0.9512;
1127.7000;0.3215;0.9488;
1128.0000;0.3232;0.9488;
1128.3000;0.3256;0.9463;
1128.6000;0.3240;0.9463;
1128.9000;0.3232;0.9537;
1129.2000;0.3215;0.9488;
1129.5000;0.3232;0.9686;
1129.8000;0.3215;0.9612;
1130.1000;0.3183;0.9488;
1130.4000;0.3223;0.9537;
1130.7000;0.3321;0.9686;
1131.0000;0.3248;0.9537;
1131.3000;0.3232;0.9512;
1131.6000;0.3232;0.9463;
1131.9000;0.3223;0.9388;
1132.2000;0.3223;0.9413;
1132.5000;0.3223;0.9438;
1132.8000;0.3232;0.9413;
1133.1000;0.3240;0.9537;
1133.4000;0.3223;0.9512;
1133.7000;0.3232;0.9512;
1134.0000;0.3191;0.9463;
1134.3000;0.3223;0.9562;
1134.6000;0.3240;0.9661;
1134.9000;0.3232;0.9686;
1135.2000;0.3223;0.9587;
1135.5000;0.3232;0.9612;
1135.8000;0.3223;0.9587;
1136.1000;0.3223;0.9661;
1136.4000;0.3215;0.9612;
1136.7000;0.3158;0.9438;
1137.0000;0.3223;0.9537;
1137.3000;0.3215;0.9463;
1137.6000;0.3223;0.9463;
1137.9000;0.3240;0.9537;
1138.2000;0.3256;0.9463;
1138.5000;0.3248;0.9413;
1138.8000;0.3232;0.9413;
1139.1000;0.3223;0.9438;
1139.4000;0.3232;0.9512;
1139.7000;0.3232;0.9488;
1140.0000;0.3240;0.9463;
1140.3000;0.3232;0.9438;
1140.6000;0.3223;0.9438;
1140.9000;0.3240;0.9537;
1141.2000;0.3313;0.9637;
1141.5000;0.3232;0.9363;
1141.8000;0.3215;0.9512;
1142.1000;0.3199;0.9562;
1142.4000;0.3256;0.9736;
1142.7000;0.3232;0.9637;
1143.0000;0.3223;0.9488;
1143.3000;0.3191;0.9413;
1143.6000;0.3223;0.9438;
1143.9000;0.3264;0.9438;
1144.2000;0.3280;0.9463;
1144.5000;0.3232;0.9264;
1144.8000;0.3232;0.9264;
1145.1000;0.3223;0.9289;
1145.4000;0.3215;0.9289;
1145.7000;0.3248;0.9463;
1146.0000;0.3223;0.9438;
1146.3000;0.3232;0.9587;
1146.6000;0.3223;0.9562;
1146.9000;0.3232;0.9438;
1147.2000;0.3248;0.9463;
1147.5000;0.3232;0.9413;
1147.8000;0.3232;0.9338;
1148.1000;0.3264;0.9338;
1148.4000;0.3248;0.9363;
1148.7000;0.3248;0.9438;
1149.0000;0.3248;0.9413;
1149.3000;0.3240;0.9438;
1149.6000;0.3256;0.9413;
1149.9000;0.3248;0.9338;
1150.2000;0.3232;0.9289;
1150.5000;0.3232;0.9363;
1150.8000;0.3223;0.9363;
1151.1000;0.3223;0.9314;
1151.4000;0.3191;0.9289;
1151.7000;0.3215;0.9338;
1152.0000;0.3232;0.9338;
1152.3000;0.3215;0.9239;
1152.6000;0.3223;0.9314;
1152.9000;0.3232;0.9314;
1153.2000;0.3232;0.9289;
1153.5000;0.3215;0.9189;
1153.8000;0.3240;0.9264;
1154.1000;0.3240;0.9239;
1154.4000;0.3223;0.9239;
1154.7000;0.3232;0.9239;
1155.0000;0.3240;0.9239;
1155.3000;0.3232;0.9189;
1155.6000;0.3223;0.9239;
1155.9000;0.3215;0.9264;
1156.2000;0.3207;0.9239;
1156.5000;0.3223;0.9314;
1156.8000;0.3232;0.9314;
1157.1000;0.3215;0.9363;
1157.4000;0.3215;0.9388;
1157.7000;0.3272;0.9388;
1158.0000;0.3223;0.9239;
1158.3000;0.3215;0.9214;
1158.6000;0.3240;0.9388;
1158.9000;0.3240;0.9413;
1159.2000;0.3256;0.9413;
1159.5000;0.3191;0.9239;
1159.8000;0.3232;0.9338;
1160.1000;0.3240;0.9413;
1160.4000;0.3166;0.9264;
1160.7000;0.3207;0.9438;
1161.0000;0.3232;0.9537;
1161.3000;0.3232;0.9488;
1161.6000;0.3240;0.9512;
1161.9000;0.3240;0.9537;
1162.2000;0.3240;0.9512;
1162.5000;0.3232;0.9587;
1162.8000;0.3240;0.9537;
1163.1000;0.3232;0.9562;
1163.4000;0.3207;0.9537;
1163.7000;0.3240;0.9537;
1164.0000;0.3215;0.9463;
1164.3000;0.3240;0.9637;
1164.6000;0.3232;0.9562;
1164.9000;0.3223;0.9488;
1165.2000;0.3280;0.9637;
1165.5000;0.3223;0.9488;
1165.8000;0.3232;0.9512;
1166.1000;0.3232;0.9512;
1166.4000;0.3215;0.9612;
1166.7000;0.3232;0.9612;
1167.0000;0.3223;0.9537;
1167.3000;0.3199;0.9363;
1167.6000;0.3232;0.9338;
1167.9000;0.3248;0.9338;
1168.2000;0.3240;0.9388;
1168.5000;0.3248;0.9388;
1168.8000;0.3240;0.9413;
1169.1000;0.3240;0.9413;
1169.4000;0.3223;0.9314;
1169.7000;0.3215;0.9338;
1170.0000;0.3223;0.9363;
1170.3000;0.3240;0.9438;
1170.6000;0.3232;0.9388;
1170.9000;0.3240;0.9463;
1171.2000;0.3248;0.9463;
1171.5000;0.3223;0.9289;
1171.8000;0.3232;0.9388;
1172.1000;0.3232;0.9512;
1172.4000;0.3232;0.9438;
1172.7000;0.3240;0.9388;
1173.0000;0.3215;0.9264;
1173.3000;0.3207;0.9363;
1173.6000;0.3232;0.9438;
1173.9000;0.3240;0.9463;
1174.2000;0.3215;0.9413;
1174.5000;0.3199;0.9289;
1174.8000;0.3166;0.9239;
1175.1000;0.3240;0.9587;
1175.4000;0.3223;0.9562;
1175.7000;0.3199;0.9438;
1176.0000;0.3223;0.9413;
1176.3000;0.3215;0.9363;
1176.6000;0.3223;0.9388;
1176.9000;0.3215;0.9388;
1177.2000;0.3232;0.9314;
1177.5000;0.3223;0.9338;
1177.8000;0.3240;0.9338;
1178.1000;0.3256;0.9363;
1178.4000;0.3256;0.9388;
1178.7000;0.3223;0.9438;
1179.0000;0.3215;0.9488;
1179.3000;0.3223;0.9488;
1179.6000;0.3240;0.9488;
1179.9000;0.3207;0.9413;
1180.2000;0.3207;0.9338;
1180.5000;0.3223;0.9314;
1180.8000;0.3215;0.9239;
1181.1000;0.3223;0.9314;
1181.4000;0.3207;0.9239;
1181.7000;0.3223;0.9239;
1182.0000;0.3248;0.9214;
1182.3000;0.3207;0.9115;
1182.6000;0.3223;0.9239;
1182.9000;0.3256;0.9289;
1183.2000;0.3199;0.9165;
1183.5000;0.3272;0.9363;
1183.8000;0.3289;0.9413;
1184.1000;0.3232;0.9363;
1184.4000;0.3232;0.9363;
1184.7000;0.3223;0.9289;
1185.0000;0.3223;0.9314;
1185.3000;0.3256;0.9388;
1185.6000;0.3232;0.9314;
1185.9000;0.3232;0.9314;
1186.2000;0.3223;0.9463;
1186.5000;0.3240;0.9438;
1186.8000;0.3248;0.9413;
1187.1000;0.3183;0.9239;
1187.4000;0.3232;0.9413;
1187.7000;0.3240;0.9413;
1188.0000;0.3248;0.9488;
1188.3000;0.3256;0.9512;
1188.6000;0.3240;0.9488;
1188.9000;0.3240;0.9413;
1189.2000;0.3232;0.9438;
1189.5000;0.3232;0.9363;
1189.8000;0.3175;0.9289;
1190.1000;0.3223;0.9289;
1190.4000;0.3215;0.9264;
1190.7000;0.3232;0.9264;
1191.0000;0.3223;0.9338;
1191.3000;0.3232;0.9438;
1191.6000;0.3232;0.9463;
1191.9000;0.3272;0.9587;
1192.2000;0.3223;0.9463;
1192.5000;0.3223;0.9512;
1192.8000;0.3232;0.9537;
1193.1000;0.3223;0.9512;
1193.4000;0.3232;0.9463;
1193.7000;0.3223;0.9314;
1194.0000;0.3240;0.9289;
1194.3000;0.3207;0.9239;
1194.6000;0.3223;0.9214;
1194.9000;0.3215;0.9140;
1195.2000;0.3150;0.9016;
1195.5000;0.3207;0.9165;
1195.8000;0.3215;0.9239;
1196.1000;0.3207;0.9314;
1196.4000;0.3248;0.9438;
1196.7000;0.3215;0.9438;
1197.0000;0.3215;0.9363;
1197.3000;0.3134;0.9189;
1197.6000;0.3199;0.9363;
1197.9000;0.3223;0.9338;
1198.2000;0.3240;0.9438;
1198.5000;0.3223;0.9289;
1198.8000;0.3223;0.9289;
1199.1000;0.3232;0.9338;
1199.4000;0.3305;0.9463;
1199.7000;0.3240;0.9314;
1200.0000;0.3232;0.9314;
1200.3000;0.3175;0.9090;
1200.6000;0.3232;0.9214;
1200.9000;0.3248;0.9214;
1201.2000;0.3215;0.9239;
1201.5000;0.3240;0.9289;
1201.8000;0.3240;0.9413;
1202.1000;0.3232;0.9512;
1202.4000;0.3223;0.9562;
1202.7000;0.3280;0.9736;
1203.0000;0.3207;0.9562;
1203.3000;0.3248;0.9587;
1203.6000;0.3223;0.9512;
1203.9000;0.3232;0.9512;
1204.2000;0.3215;0.9512;
1204.5000;0.3223;0.9562;
1204.8000;0.3215;0.9512;
1205.1000;0.3232;0.9388;
1205.4000;0.3215;0.9289;
1205.7000;0.3232;0.9363;
1206.0000;0.3232;0.9413;
1206.3000;0.3240;0.9488;
1206.6000;0.3232;0.9388;
1206.9000;0.3223;0.9338;
1207.2000;0.3223;0.9388;
1207.5000;0.3215;0.9338;
1207.8000;0.3215;0.9512;
1208.1000;0.3248;0.9637;
1208.4000;0.3223;0.9612;
1208.7000;0.3207;0.9463;
1209.0000;0.3223;0.9413;
1209.3000;0.3232;0.9388;
1209.6000;0.3223;0.9363;
1209.9000;0.3215;0.9338;
1210.2000;0.3223;0.9264;
1210.5000;0.3223;0.9314;
1210.8000;0.3232;0.9413;
1211.1000;0.3223;0.9438;
1211.4000;0.3215;0.9363;
1211.7000;0.3297;0.9587;
1212.0000;0.3232;0.9438;
1212.3000;0.3240;0.9512;
1212.6000;0.3223;0.9463;
1212.9000;0.3232;0.9438;
1213.2000;0.3248;0.9463;
1213.5000;0.3232;0.9438;
1213.8000;0.3191;0.9363;
1214.1000;0.3223;0.9388;
1214.4000;0.3232;0.9488;
1214.7000;0.3232;0.9562;
1215.0000;0.3215;0.9562;
1215.3000;0.3223;0.9463;
1215.6000;0.3215;0.9413;
1215.9000;0.3232;0.9438;
1216.2000;0.3240;0.9463;
1216.5000;0.3223;0.9388;
1216.8000;0.3232;0.9388;
1217.1000;0.3232;0.9463;
1217.4000;0.3215;0.9413;
1217.7000;0.3232;0.9512;
1218.0000;0.3248;0.9587;
1218.3000;0.3199;0.9463;
1218.6000;0.3223;0.9612;
1218.9000;0.3297;0.9637;
1219.2000;0.3223;0.9488;
1219.5000;0.3256;0.9562;
1219.8000;0.3207;0.9413;
1220.1000;0.3215;0.9388;
1220.4000;0.3215;0.9388;
1220.7000;0.3215;0.9438;
1221.0000;0.3207;0.9314;
1221.3000;0.3240;0.9413;
1221.6000;0.3248;0.9338;
1221.9000;0.3248;0.9363;
1222.2000;0.3256;0.9413;
1222.5000;0.3240;0.9338;
1222.8000;0.3240;0.9388;
1223.1000;0.3256;0.9438;
1223.4000;0.3199;0.9289;
1223.7000;0.3272;0.9463;
1224.0000;0.3232;0.9438;
1224.3000;0.3175;0.9338;
1224.6000;0.3232;0.9488;
1224.9000;0.3248;0.9463;
1225.2000;0.3215;0.9438;
1225.5000;0.3215;0.9463;
1225.8000;0.3215;0.9438;
1226.1000;0.3215;0.9314;
1226.4000;0.3207;0.9264;
1226.7000;0.3223;0.9314;
1227.0000;0.3240;0.9438;
1227.3000;0.3240;0.9388;
1227.6000;0.3248;0.9438;
1227.9000;0.3232;0.9314;
1228.2000;0.3232;0.9289;
1228.5000;0.3256;0.9363;
1228.8000;0.3256;0.9314;
1229.1000;0.3248;0.9214;
1229.4000;0.3232;0.9165;
1229.7000;0.3248;0.9140;
1230.0000;0.3280;0.9314;
1230.3000;0.3223;0.9165;
1230.6000;0.3240;0.9140;
1230.9000;0.3272;0.9289;
1231.2000;0.3223;0.9189;
1231.5000;0.3223;0.9189;
1231.8000;0.3223;0.9165;
1232.1000;0.3223;0.9239;
1232.4000;0.3272;0.9413;
1232.7000;0.3240;0.9388;
1233.0000;0.3142;0.9214;
1233.3000;0.3256;0.9512;
1233.6000;0.3248;0.9463;
1233.9000;0.3248;0.9438;
1234.2000;0.3232;0.9463;
1234.5000;0.3175;0.9289;
1234.8000;0.3232;0.9463;
1235.1000;0.3223;0.9363;
1235.4000;0.3223;0.9388;
1235.7000;0.3232;0.9388;
1236.0000;0.3232;0.9363;
1236.3000;0.3240;0.9388;
1236.6000;0.3232;0.9289;
1236.9000;0.3215;0.9314;
1237.2000;0.3207;0.9314;
1237.5000;0.3272;0.9488;
1237.8000;0.3215;0.9388;
1238.1000;0.3232;0.9314;
1238.4000;0.3223;0.9289;
1238.7000;0.3240;0.9363;
1239.0000;0.3248;0.9338;
1239.3000;0.3329;0.9562;
1239.6000;0.3256;0.9388;
1239.9000;0.3223;0.9314;
1240.2000;0.3256;0.9388;
1240.5000;0.3207;0.9264;
1240.8000;0.3232;0.9264;
1241.1000;0.3248;0.9388;
1241.4000;0.3240;0.9512;
1241.7000;0.3232;0.9488;
1242.0000;0.3166;0.9314;
1242.3000;0.3264;0.9537;
1242.6000;0.3223;0.9363;
1242.9000;0.3297;0.9537;
1243.2000;0.3232;0.9463;
1243.5000;0.3232;0.9488;
1243.8000;0.3248;0.9488;
1244.1000;0.3264;0.9537;
1244.4000;0.3232;0.9463;
1244.7000;0.3215;0.9388;
1245.0000;0.3232;0.9488;
1245.3000;0.3240;0.9438;
1245.6000;0.3232;0.9488;
1245.9000;0.3223;0.9413;
1246.2000;0.3223;0.9463;
1246.5000;0.3199;0.9413;
1246.8000;0.3215;0.9388;
1247.1000;0.3223;0.9388;
1247.4000;0.3240;0.9438;
1247.7000;0.3232;0.9463;
1248.0000;0.3223;0.9438;
1248.3000;0.3223;0.9363;
1248.6000;0.3232;0.9338;
1248.9000;0.3232;0.9338;
1249.2000;0.3240;0.9388;
1249.5000;0.3183;0.9264;
1249.8000;0.3321;0.9637;
1250.1000;0.3240;0.9488;
1250.4000;0.3215;0.9488;
1250.7000;0.3207;0.9488;
1251.0000;0.3166;0.9388;
1251.3000;0.3240;0.9512;
1251.6000;0.3232;0.9587;
1251.9000;0.3223;0.9537;
1252.2000;0.3232;0.9438;
1252.5000;0.3150;0.9338;
1252.8000;0.3215;0.9463;
1253.1000;0.3240;0.9488;
1253.4000;0.3232;0.9388;
1253.7000;0.3191;0.9289;
1254.0000;0.3215;0.9289;
1254.3000;0.3248;0.9438;
1254.6000;0.3215;0.9239;
1254.9000;0.3240;0.9289;
1255.2000;0.3248;0.9289;
1255.5000;0.3256;0.9314;
1255.8000;0.3240;0.9338;
1256.1000;0.3240;0.9338;
1256.4000;0.3191;0.9314;
1256.7000;0.3240;0.9413;
1257.0000;0.3207;0.9264;
1257.3000;0.3248;0.9463;
1257.6000;0.3223;0.9413;
1257.9000;0.3232;0.9438;
1258.2000;0.3272;0.9686;
1258.5000;0.3248;0.9612;
1258.8000;0.3248;0.9686;
1259.1000;0.3248;0.9587;
1259.4000;0.3240;0.9637;
1259.7000;0.3240;0.9612;
1260.0000;0.3248;0.9612;
1260.3000;0.3232;0.9488;
1260.6000;0.3240;0.9463;
1260.9000;0.3215;0.9463;
1261.2000;0.3223;0.9537;
1261.5000;0.3223;0.9562;
1261.8000;0.3240;0.9562;
1262.1000;0.3215;0.9488;
1262.4000;0.3223;0.9463;
1262.7000;0.3313;0.9587;
1263.0000;0.3232;0.9314;
1263.3000;0.3223;0.9165;
1263.6000;0.3232;0.9090;
1263.9000;0.3232;0.9140;
1264.2000;0.3240;0.9289;
1264.5000;0.3223;0.9338;
1264.8000;0.3232;0.9338;
1265.1000;0.3240;0.9338;
1265.4000;0.3223;0.9438;
1265.7000;0.3215;0.9413;
1266.0000;0.3199;0.9289;
1266.3000;0.3199;0.9289;
1266.6000;0.3223;0.9438;
1266.9000;0.3191;0.9413;
1267.2000;0.3215;0.9463;
1267.5000;0.3199;0.9488;
1267.8000;0.3215;0.9463;
1268.1000;0.3223;0.9488;
1268.4000;0.3272;0.9587;
1268.7000;0.3215;0.9463;
1269.0000;0.3240;0.9463;
1269.3000;0.3240;0.9388;
1269.6000;0.3248;0.9363;
1269.9000;0.3215;0.9438;
1270.2000;0.3223;0.9388;
1270.5000;0.3240;0.9314;
1270.8000;0.3272;0.9338;
1271.1000;0.3248;0.9289;
1271.4000;0.3248;0.9363;
1271.7000;0.3264;0.9388;
1272.0000;0.3248;0.9338;
1272.3000;0.3232;0.9363;
1272.6000;0.3183;0.9239;
1272.9000;0.3256;0.9512;
1273.2000;0.3240;0.9388;
1273.5000;0.3175;0.9289;
1273.8000;0.3240;0.9413;
1274.1000;0.3223;0.9388;
1274.4000;0.3280;0.9488;
1274.7000;0.3207;0.9363;
1275.0000;0.3215;0.9314;
1275.3000;0.3305;0.9438;
1275.6000;0.3248;0.9314;
1275.9000;0.3297;0.9463;
1276.2000;0.3223;0.9338;
1276.5000;0.3232;0.9438;
1276.8000;0.3232;0.9438;
1277.1000;0.3207;0.9338;
1277.4000;0.3232;0.9338;
1277.7000;0.3215;0.9239;
1278.0000;0.3240;0.9314;
1278.3000;0.3232;0.9239;
1278.6000;0.3223;0.9140;
1278.9000;0.3223;0.9115;
1279.2000;0.3199;0.8991;
1279.5000;0.3240;0.9165;
1279.8000;0.3223;0.9165;
1280.1000;0.3207;0.9065;
1280.4000;0.3223;0.9090;
1280.7000;0.3215;0.9115;
1281.0000;0.3280;0.9338;
1281.3000;0.3215;0.9239;
1281.6000;0.3223;0.9115;
1281.9000;0.3232;0.9165;
1282.2000;0.3280;0.9314;
1282.5000;0.3240;0.9214;
1282.8000;0.3215;0.9065;
1283.1000;0.3199;0.9040;
1283.4000;0.3215;0.9140;
1283.7000;0.3175;0.9115;
1284.0000;0.3232;0.9314;
1284.3000;0.3223;0.9314;
1284.6000;0.3223;0.9388;
1284.9000;0.3215;0.9338;
1285.2000;0.3199;0.9289;
1285.5000;0.3215;0.9363;
1285.8000;0.3232;0.9363;
1286.1000;0.3215;0.9338;
1286.4000;0.3207;0.9314;
1286.7000;0.3223;0.9314;
1287.0000;0.3232;0.9289;
1287.3000;0.3207;0.9189;
1287.6000;0.3240;0.9239;
1287.9000;0.3240;0.9165;
1288.2000;0.3240;0.9115;
1288.5000;0.3223;0.9090;
1288.8000;0.3223;0.9140;
1289.1000;0.3232;0.9264;
1289.4000;0.3232;0.9314;
1289.7000;0.3240;0.9338;
1290.0000;0.3232;0.9338;
1290.3000;0.3232;0.9214;
1290.6000;0.3223;0.9239;
1290.9000;0.3240;0.9289;
1291.2000;0.3175;0.9016;
1291.5000;0.3207;0.9090;
1291.8000;0.3232;0.9140;
1292.1000;0.3223;0.9115;
1292.4000;0.3223;0.9140;
1292.7000;0.3215;0.9115;
1293.0000;0.3215;0.9115;
1293.3000;0.3223;0.9115;
1293.6000;0.3223;0.9214;
1293.9000;0.3223;0.9214;
1294.2000;0.3232;0.9289;
1294.5000;0.3256;0.9289;
1294.8000;0.3207;0.9165;
1295.1000;0.3232;0.9189;
1295.4000;0.3248;0.9189;
1295.7000;0.3223;0.9189;
1296.0000;0.3240;0.9314;
1296.3000;0.3248;0.9239;
1296.6000;0.3248;0.9264;
1296.9000;0.3215;0.9115;
1297.2000;0.3207;0.9165;
1297.5000;0.3199;0.9140;
1297.8000;0.3240;0.9214;
1298.1000;0.3232;0.9239;
1298.4000;0.3215;0.9115;
1298.7000;0.3280;0.9289;
1299.0000;0.3223;0.9140;
1299.3000;0.3297;0.9363;
1299.6000;0.3289;0.9438;
1299.9000;0.3248;0.9214;
1300.2000;0.3232;0.9239;
1300.5000;0.3207;0.9239;
1300.8000;0.3199;0.9214;
1301.1000;0.3223;0.9289;
1301.4000;0.3223;0.9338;
1301.7000;0.3207;0.9363;
1302.0000;0.3207;0.9338;
1302.3000;0.3240;0.9338;
1302.6000;0.3223;0.9264;
1302.9000;0.3215;0.9239;
1303.2000;0.3215;0.9314;
1303.5000;0.3248;0.9388;
1303.8000;0.3232;0.9338;
1304.1000;0.3232;0.9314;
1304.4000;0.3207;0.9140;
1304.7000;0.3248;0.9289;
1305.0000;0.3240;0.9314;
1305.3000;0.3223;0.9140;
1305.6000;0.3232;0.9189;
1305.9000;0.3215;0.9264;
1306.2000;0.3232;0.9289;
1306.5000;0.3240;0.9363;
1306.8000;0.3215;0.9264;
1307.1000;0.3215;0.9289;
1307.4000;0.3223;0.9314;
1307.7000;0.3215;0.9214;
1308.0000;0.3207;0.9165;
1308.3000;0.3240;0.9165;
1308.6000;0.3240;0.9040;
1308.9000;0.3240;0.9090;
1309.2000;0.3232;0.9140;
1309.5000;0.3207;0.9140;
1309.8000;0.3223;0.9214;
1310.1000;0.3248;0.9314;
1310.4000;0.3232;0.9314;
1310.7000;0.3223;0.9289;
1311.0000;0.3232;0.9314;
1311.3000;0.3232;0.9338;
1311.6000;0.3207;0.9239;
1311.9000;0.3240;0.9289;
1312.2000;0.3232;0.9214;
1312.5000;0.3232;0.9289;
1312.8000;0.3215;0.9289;
1313.1000;0.3215;0.9314;
1313.4000;0.3215;0.9289;
1313.7000;0.3223;0.9239;
1314.0000;0.3223;0.9214;
1314.3000;0.3150;0.9040;
1314.6000;0.3240;0.9289;
1314.9000;0.3232;0.9165;
1315.2000;0.3313;0.9388;
1315.5000;0.3248;0.9239;
1315.8000;0.3223;0.9214;
1316.1000;0.3240;0.9239;
1316.4000;0.3215;0.9165;
1316.7000;0.3183;0.9140;
1317.0000;0.3223;0.9264;
1317.3000;0.3232;0.9289;
1317.6000;0.3240;0.9289;
1317.9000;0.3223;0.9239;
1318.2000;0.3207;0.9189;
1318.5000;0.3248;0.9314;
1318.8000;0.3240;0.9338;
1319.1000;0.3232;0.9388;
1319.4000;0.3248;0.9463;
1319.7000;0.3240;0.9388;
1320.0000;0.3240;0.9363;
1320.3000;0.3248;0.9413;
1320.6000;0.3215;0.9363;
1320.9000;0.3223;0.9264;
1321.2000;0.3232;0.9338;
1321.5000;0.3248;0.9413;
1321.8000;0.3248;0.9413;
1322.1000;0.3215;0.9314;
1322.4000;0.3215;0.9388;
1322.7000;0.3134;0.9289;
1323.0000;0.3256;0.9587;
1323.3000;0.3215;0.9438;
1323.6000;0.3207;0.9363;
1323.9000;0.3223;0.9488;
1324.2000;0.3232;0.9537;
1324.5000;0.3223;0.9463;
1324.8000;0.3215;0.9463;
1325.1000;0.3240;0.9512;
1325.4000;0.3215;0.9463;
1325.7000;0.3223;0.9463;
1326.0000;0.3232;0.9438;
1326.3000;0.3215;0.9363;
1326.6000;0.3215;0.9338;
1326.9000;0.3240;0.9264;
1327.2000;0.3215;0.9140;
1327.5000;0.3232;0.9165;
1327.8000;0.3248;0.9214;
1328.1000;0.3223;0.9165;
1328.4000;0.3215;0.9189;
1328.7000;0.3232;0.9214;
1329.0000;0.3232;0.9214;
1329.3000;0.3232;0.9189;
1329.6000;0.3215;0.9239;
1329.9000;0.3240;0.9363;
1330.2000;0.3215;0.9289;
1330.5000;0.3248;0.9413;
1330.8000;0.3240;0.9338;
1331.1000;0.3223;0.9488;
1331.4000;0.3240;0.9488;
1331.7000;0.3240;0.9438;
1332.0000;0.3223;0.9338;
1332.3000;0.3183;0.9214;
1332.6000;0.3256;0.9413;
1332.9000;0.3223;0.9388;
1333.2000;0.3215;0.9338;
1333.5000;0.3158;0.9189;
1333.8000;0.3207;0.9338;
1334.1000;0.3248;0.9488;
1334.4000;0.3264;0.9512;
1334.7000;0.3223;0.9413;
1335.0000;0.3232;0.9413;
1335.3000;0.3191;0.9363;
1335.6000;0.3232;0.9438;
1335.9000;0.3240;0.9413;
1336.2000;0.3223;0.9363;
1336.5000;0.3272;0.9413;
1336.8000;0.3207;0.9289;
1337.1000;0.3215;0.9289;
1337.4000;0.3240;0.9363;
1337.7000;0.3215;0.9388;
1338.0000;0.3223;0.9537;
1338.3000;0.3215;0.9562;
1338.6000;0.3232;0.9537;
1338.9000;0.3305;0.9711;
1339.2000;0.3240;0.9512;
1339.5000;0.3256;0.9463;
1339.8000;0.3223;0.9264;
1340.1000;0.3248;0.9438;
1340.4000;0.3223;0.9289;
1340.7000;0.3248;0.9413;
1341.0000;0.3215;0.9363;
1341.3000;0.3207;0.9314;
1341.6000;0.3207;0.9264;
1341.9000;0.3215;0.9264;
1342.2000;0.3215;0.9314;
1342.5000;0.3256;0.9363;
1342.8000;0.3240;0.9338;
1343.1000;0.3240;0.9413;
1343.4000;0.3215;0.9338;
1343.7000;0.3215;0.9314;
1344.0000;0.3240;0.9289;
1344.3000;0.3248;0.9239;
1344.6000;0.3240;0.9289;
1344.9000;0.3223;0.9239;
1345.2000;0.3240;0.9165;
1345.5000;0.3264;0.9289;
1345.8000;0.3240;0.9289;
1346.1000;0.3223;0.9214;
1346.4000;0.3223;0.9165;
1346.7000;0.3223;0.9189;
1347.0000;0.3223;0.9239;
1347.3000;0.3223;0.9239;
1347.6000;0.3215;0.9314;
1347.9000;0.3199;0.9264;
1348.2000;0.3232;0.9388;
1348.5000;0.3191;0.9264;
1348.8000;0.3207;0.9314;
1349.1000;0.3215;0.9363;
1349.4000;0.3223;0.9438;
1349.7000;0.3232;0.9463;
1350.0000;0.3232;0.9289;
1350.3000;0.3223;0.9189;
1350.6000;0.3240;0.9189;
1350.9000;0.3240;0.9264;
1351.2000;0.3150;0.9165;
1351.5000;0.3232;0.9314;
1351.8000;0.3232;0.9413;
1352.1000;0.3223;0.9314;
1352.4000;0.3223;0.9189;
1352.7000;0.3199;0.9189;
1353.0000;0.3223;0.9239;
1353.3000;0.3240;0.9239;
1353.6000;0.3256;0.9189;
1353.9000;0.3215;0.9040;
1354.2000;0.3199;0.8966;
1354.5000;0.3248;0.9289;
1354.8000;0.3223;0.9239;
1355.1000;0.3223;0.9214;
1355.4000;0.3232;0.9289;
1355.7000;0.3223;0.9289;
1356.0000;0.3240;0.9264;
1356.3000;0.3215;0.9239;
1356.6000;0.3215;0.9165;
1356.9000;0.3215;0.9189;
1357.2000;0.3215;0.9140;
1357.5000;0.3191;0.9115;
1357.8000;0.3199;0.9090;
1358.1000;0.3232;0.9214;
1358.4000;0.3223;0.9065;
1358.7000;0.3321;0.9388;
1359.0000;0.3232;0.9065;
1359.3000;0.3256;0.9189;
1359.6000;0.3264;0.9314;
1359.9000;0.3223;0.9214;
1360.2000;0.3223;0.9214;
1360.5000;0.3215;0.9214;
1360.8000;0.3232;0.9264;
1361.1000;0.3240;0.9264;
1361.4000;0.3240;0.9239;
1361.7000;0.3232;0.9189;
1362.0000;0.3223;0.9239;
1362.3000;0.3232;0.9239;
1362.6000;0.3215;0.9189;
1362.9000;0.3215;0.9165;
1363.2000;0.3240;0.9338;
1363.5000;0.3215;0.9289;
1363.8000;0.3232;0.9338;
1364.1000;0.3215;0.9239;
1364.4000;0.3207;0.9165;
1364.7000;0.3248;0.9264;
1365.0000;0.3240;0.9264;
1365.3000;0.3240;0.9214;
1365.6000;0.3232;0.9264;
1365.9000;0.3223;0.9338;
1366.2000;0.3199;0.9264;
1366.5000;0.3199;0.9264;
1366.8000;0.3150;0.9115;
1367.1000;0.3232;0.9289;
1367.4000;0.3215;0.9264;
1367.7000;0.3240;0.9314;
1368.0000;0.3215;0.9363;
1368.3000;0.3223;0.9338;
1368.6000;0.3240;0.9363;
1368.9000;0.3183;0.9189;
1369.2000;0.3232;0.9338;
1369.5000;0.3280;0.9512;
1369.8000;0.3264;0.9512;
1370.1000;0.3215;0.9438;
1370.4000;0.3272;0.9661;
1370.7000;0.3215;0.9512;
1371.0000;0.3093;0.9140;
1371.3000;0.3215;0.9463;
1371.6000;0.3256;0.9438;
1371.9000;0.3223;0.9438;
1372.2000;0.3232;0.9438;
1372.5000;0.3232;0.9438;
1372.8000;0.3240;0.9463;
1373.1000;0.3223;0.9413;
1373.4000;0.3223;0.9338;
1373.7000;0.3264;0.9413;
1374.0000;0.3191;0.9214;
1374.3000;0.3232;0.9338;
1374.6000;0.3256;0.9314;
1374.9000;0.3289;0.9413;
1375.2000;0.3240;0.9289;
1375.5000;0.3232;0.9314;
1375.8000;0.3223;0.9289;
1376.1000;0.3240;0.9388;
1376.4000;0.3248;0.9338;
1376.7000;0.3215;0.9189;
1377.0000;0.3240;0.9239;
1377.3000;0.3256;0.9214;
1377.6000;0.3240;0.9140;
1377.9000;0.3232;0.9264;
1378.2000;0.3199;0.9040;
1378.5000;0.3240;0.9189;
1378.8000;0.3232;0.9165;
1379.1000;0.3215;0.9214;
1379.4000;0.3215;0.9239;
1379.7000;0.3248;0.9363;
1380.0000;0.3248;0.9463;
1380.3000;0.3248;0.9338;
1380.6000;0.3232;0.9314;
1380.9000;0.3232;0.9289;
1381.2000;0.3223;0.9239;
1381.5000;0.3240;0.9189;
1381.8000;0.3232;0.9239;
1382.1000;0.3232;0.9289;
1382.4000;0.3175;0.9214;
1382.7000;0.3215;0.9314;
1383.0000;0.3223;0.9314;
1383.3000;0.3248;0.9314;
1383.6000;0.3207;0.9289;
1383.9000;0.3232;0.9214;
1384.2000;0.3232;0.9239;
1384.5000;0.3215;0.9115;
1384.8000;0.3223;0.9264;
1385.1000;0.3223;0.9264;
1385.4000;0.3215;0.9338;
1385.7000;0.3232;0.9363;
1386.0000;0.3232;0.9314;
1386.3000;0.3240;0.9338;
1386.6000;0.3232;0.9363;
1386.9000;0.3223;0.9413;
1387.2000;0.3223;0.9388;
1387.5000;0.3215;0.9388;
1387.8000;0.3207;0.9388;
1388.1000;0.3207;0.9314;
1388.4000;0.3199;0.9264;
1388.7000;0.3223;0.9239;
1389.0000;0.3191;0.9065;
1389.3000;0.3232;0.9214;
1389.6000;0.3223;0.9214;
1389.9000;0.3232;0.9189;
1390.2000;0.3240;0.9239;
1390.5000;0.3264;0.9314;
1390.8000;0.3207;0.9289;
1391.1000;0.3232;0.9463;
1391.4000;0.3232;0.9512;
1391.7000;0.3240;0.9537;
1392.0000;0.3215;0.9562;
1392.3000;0.3232;0.9537;
1392.6000;0.3215;0.9363;
1392.9000;0.3305;0.9488;
1393.2000;0.3232;0.9314;
1393.5000;0.3215;0.9314;
1393.8000;0.3223;0.9438;
1394.1000;0.3232;0.9363;
1394.4000;0.3223;0.9388;
1394.7000;0.3223;0.9338;
1395.0000;0.3232;0.9239;
1395.3000;0.3232;0.9314;
1395.6000;0.3240;0.9314;
1395.9000;0.3223;0.9338;
1396.2000;0.3232;0.9314;
1396.5000;0.3240;0.9388;
1396.8000;0.3232;0.9314;
1397.1000;0.3199;0.9214;
1397.4000;0.3240;0.9314;
1397.7000;0.3240;0.9363;
1398.0000;0.3232;0.9289;
1398.3000;0.3232;0.9363;
1398.6000;0.3232;0.9438;
1398.9000;0.3240;0.9488;
1399.2000;0.3232;0.9537;
1399.5000;0.3199;0.9512;
1399.8000;0.3232;0.9562;
