time/ms;Fluo/V;P700 deltaI/I x10³;
-199.8000;0.8116;0.5187;
-199.5000;0.8132;0.5163;
-199.2000;0.8189;0.5307;
-198.9000;0.8124;0.5091;
-198.6000;0.8124;0.5115;
-198.3000;0.8140;0.5139;
-198.0000;0.8140;0.5139;
-197.7000;0.8140;0.5115;
-197.4000;0.8116;0.5019;
-197.1000;0.8156;0.5139;
-196.8000;0.8173;0.5139;
-196.5000;0.8107;0.5019;
-196.2000;0.8132;0.5091;
-195.9000;0.8197;0.5307;
-195.6000;0.8116;0.5211;
-195.3000;0.8116;0.5187;
-195.0000;0.8116;0.5139;
-194.7000;0.8140;0.5091;
-194.4000;0.8116;0.5067;
-194.1000;0.8132;0.5139;
-193.8000;0.8091;0.5091;
-193.5000;0.8124;0.5139;
-193.2000;0.8107;0.5163;
-192.9000;0.8124;0.5163;
-192.6000;0.8132;0.5187;
-192.3000;0.8132;0.5235;
-192.0000;0.8132;0.5283;
-191.7000;0.8124;0.5355;
-191.4000;0.8132;0.5307;
-191.1000;0.8116;0.5283;
-190.8000;0.8116;0.5211;
-190.5000;0.8116;0.5163;
-190.2000;0.8099;0.5163;
-189.9000;0.8091;0.5139;
-189.6000;0.8091;0.5235;
-189.3000;0.8091;0.5283;
-189.0000;0.8116;0.5283;
-188.7000;0.8091;0.5235;
-188.4000;0.8107;0.5259;
-188.1000;0.8124;0.5259;
-187.8000;0.8083;0.5163;
-187.5000;0.8067;0.5091;
-187.2000;0.8099;0.5211;
-186.9000;0.8116;0.5331;
-186.6000;0.8099;0.5379;
-186.3000;0.8099;0.5355;
-186.0000;0.8116;0.5379;
-185.7000;0.8116;0.5427;
-185.4000;0.8116;0.5403;
-185.1000;0.8107;0.5427;
-184.8000;0.8116;0.5355;
-184.5000;0.8107;0.5355;
-184.2000;0.8083;0.5211;
-183.9000;0.8099;0.5139;
-183.6000;0.8124;0.5235;
-183.3000;0.8140;0.5163;
-183.0000;0.8156;0.5187;
-182.7000;0.8116;0.5139;
-182.4000;0.8132;0.5235;
-182.1000;0.8148;0.5211;
-181.8000;0.8132;0.5187;
-181.5000;0.8124;0.5091;
-181.2000;0.8124;0.5115;
-180.9000;0.8107;0.5091;
-180.6000;0.8075;0.5019;
-180.3000;0.8116;0.5091;
-180.0000;0.8116;0.4971;
-179.7000;0.8107;0.4947;
-179.4000;0.8124;0.5043;
-179.1000;0.8132;0.5091;
-178.8000;0.8116;0.5115;
-178.5000;0.8124;0.5115;
-178.2000;0.8132;0.5091;
-177.9000;0.8132;0.5115;
-177.6000;0.8107;0.4947;
-177.3000;0.8132;0.5067;
-177.0000;0.8116;0.5091;
-176.7000;0.8132;0.5259;
-176.4000;0.8132;0.5163;
-176.1000;0.8116;0.5163;
-175.8000;0.8099;0.5163;
-175.5000;0.8107;0.5211;
-175.2000;0.8107;0.5115;
-174.9000;0.8116;0.5091;
-174.6000;0.8107;0.5163;
-174.3000;0.8099;0.5115;
-174.0000;0.8107;0.5091;
-173.7000;0.8091;0.4995;
-173.4000;0.8116;0.4995;
-173.1000;0.8132;0.4947;
-172.8000;0.8132;0.4995;
-172.5000;0.8124;0.4995;
-172.2000;0.8107;0.4947;
-171.9000;0.8099;0.4947;
-171.6000;0.8132;0.5091;
-171.3000;0.8099;0.5019;
-171.0000;0.8116;0.5019;
-170.7000;0.8107;0.5019;
-170.4000;0.8132;0.4995;
-170.1000;0.8116;0.4827;
-169.8000;0.8107;0.4827;
-169.5000;0.8107;0.4851;
-169.2000;0.8124;0.4851;
-168.9000;0.8107;0.4899;
-168.6000;0.8124;0.4923;
-168.3000;0.8132;0.4923;
-168.0000;0.8140;0.4971;
-167.7000;0.8116;0.4899;
-167.4000;0.8132;0.4971;
-167.1000;0.8116;0.4971;
-166.8000;0.8124;0.4971;
-166.5000;0.8116;0.5019;
-166.2000;0.8107;0.4923;
-165.9000;0.8148;0.4947;
-165.6000;0.8116;0.4875;
-165.3000;0.8124;0.4803;
-165.0000;0.8116;0.4779;
-164.7000;0.8091;0.4731;
-164.4000;0.8099;0.4827;
-164.1000;0.8107;0.4899;
-163.8000;0.8132;0.4899;
-163.5000;0.8116;0.4875;
-163.2000;0.8099;0.4851;
-162.9000;0.8124;0.4779;
-162.6000;0.8124;0.4827;
-162.3000;0.8124;0.4875;
-162.0000;0.8124;0.4923;
-161.7000;0.8132;0.4899;
-161.4000;0.8140;0.4923;
-161.1000;0.8116;0.4851;
-160.8000;0.8091;0.4851;
-160.5000;0.8124;0.4899;
-160.2000;0.8132;0.4947;
-159.9000;0.8099;0.4971;
-159.6000;0.8107;0.5067;
-159.3000;0.8116;0.5091;
-159.0000;0.8116;0.5067;
-158.7000;0.8132;0.5043;
-158.4000;0.8099;0.5067;
-158.1000;0.8107;0.5067;
-157.8000;0.8099;0.5067;
-157.5000;0.8099;0.4995;
-157.2000;0.8099;0.4995;
-156.9000;0.8099;0.5019;
-156.6000;0.8116;0.4995;
-156.3000;0.8116;0.4947;
-156.0000;0.8116;0.4995;
-155.7000;0.8107;0.4995;
-155.4000;0.8107;0.4947;
-155.1000;0.8124;0.4971;
-154.8000;0.8116;0.4995;
-154.5000;0.8107;0.4947;
-154.2000;0.8116;0.4899;
-153.9000;0.8124;0.5019;
-153.6000;0.8124;0.5043;
-153.3000;0.8124;0.5115;
-153.0000;0.8116;0.4995;
-152.7000;0.8140;0.5091;
-152.4000;0.8124;0.5115;
-152.1000;0.8116;0.5139;
-151.8000;0.8116;0.5139;
-151.5000;0.8124;0.5091;
-151.2000;0.8132;0.5187;
-150.9000;0.8124;0.5139;
-150.6000;0.8116;0.5163;
-150.3000;0.8099;0.5067;
-150.0000;0.8124;0.5139;
-149.7000;0.8116;0.5091;
-149.4000;0.8124;0.5067;
-149.1000;0.8140;0.5187;
-148.8000;0.8059;0.5043;
-148.5000;0.8124;0.5139;
-148.2000;0.8124;0.5067;
-147.9000;0.8107;0.5091;
-147.6000;0.8116;0.5115;
-147.3000;0.8124;0.5139;
-147.0000;0.8116;0.5115;
-146.7000;0.8099;0.5139;
-146.4000;0.8116;0.5163;
-146.1000;0.8140;0.5139;
-145.8000;0.8091;0.4971;
-145.5000;0.8116;0.4947;
-145.2000;0.8099;0.4971;
-144.9000;0.8107;0.5067;
-144.6000;0.8107;0.5115;
-144.3000;0.8107;0.5115;
-144.0000;0.8107;0.5091;
-143.7000;0.8124;0.5139;
-143.4000;0.8107;0.5163;
-143.1000;0.8107;0.5115;
-142.8000;0.8124;0.5115;
-142.5000;0.8124;0.5163;
-142.2000;0.8107;0.5211;
-141.9000;0.8107;0.5187;
-141.6000;0.8099;0.5091;
-141.3000;0.8099;0.5091;
-141.0000;0.8116;0.5067;
-140.7000;0.8116;0.5163;
-140.4000;0.8116;0.5139;
-140.1000;0.8132;0.5211;
-139.8000;0.8124;0.5259;
-139.5000;0.8124;0.5259;
-139.2000;0.8050;0.5067;
-138.9000;0.8116;0.5187;
-138.6000;0.8059;0.5043;
-138.3000;0.8124;0.5187;
-138.0000;0.8050;0.4995;
-137.7000;0.8124;0.5187;
-137.4000;0.8140;0.5211;
-137.1000;0.8132;0.5163;
-136.8000;0.8116;0.5067;
-136.5000;0.8116;0.4947;
-136.2000;0.8132;0.5019;
-135.9000;0.8124;0.5019;
-135.6000;0.8124;0.5019;
-135.3000;0.8116;0.5019;
-135.0000;0.8075;0.4923;
-134.7000;0.8124;0.5115;
-134.4000;0.8124;0.5091;
-134.1000;0.8116;0.5091;
-133.8000;0.8124;0.5163;
-133.5000;0.8124;0.5235;
-133.2000;0.8124;0.5259;
-132.9000;0.8132;0.5187;
-132.6000;0.8116;0.5091;
-132.3000;0.8116;0.5091;
-132.0000;0.8132;0.5115;
-131.7000;0.8132;0.5187;
-131.4000;0.8132;0.5163;
-131.1000;0.8148;0.5307;
-130.8000;0.8140;0.5307;
-130.5000;0.8132;0.5211;
-130.2000;0.8116;0.5187;
-129.9000;0.8107;0.5115;
-129.6000;0.8042;0.4899;
-129.3000;0.8116;0.4971;
-129.0000;0.8107;0.4923;
-128.7000;0.8124;0.4995;
-128.4000;0.8107;0.5043;
-128.1000;0.8116;0.5115;
-127.8000;0.8124;0.5115;
-127.5000;0.8107;0.5115;
-127.2000;0.8124;0.5115;
-126.9000;0.8132;0.5091;
-126.6000;0.8148;0.5139;
-126.3000;0.8132;0.5163;
-126.0000;0.8116;0.5091;
-125.7000;0.8148;0.5259;
-125.4000;0.8116;0.5211;
-125.1000;0.8116;0.5283;
-124.8000;0.8091;0.5211;
-124.5000;0.8107;0.5283;
-124.2000;0.8116;0.5307;
-123.9000;0.8140;0.5259;
-123.6000;0.8132;0.5187;
-123.3000;0.8124;0.5163;
-123.0000;0.8107;0.5283;
-122.7000;0.8075;0.5211;
-122.4000;0.8075;0.5067;
-122.1000;0.8107;0.5211;
-121.8000;0.8124;0.5283;
-121.5000;0.8099;0.5163;
-121.2000;0.8099;0.5139;
-120.9000;0.8124;0.5115;
-120.6000;0.8140;0.5235;
-120.3000;0.8107;0.5211;
-120.0000;0.8124;0.5163;
-119.7000;0.8181;0.5331;
-119.4000;0.8116;0.5259;
-119.1000;0.8091;0.5139;
-118.8000;0.8124;0.5139;
-118.5000;0.8116;0.5115;
-118.2000;0.8124;0.5187;
-117.9000;0.8140;0.5211;
-117.6000;0.8140;0.5163;
-117.3000;0.8091;0.4971;
-117.0000;0.8124;0.5067;
-116.7000;0.8116;0.5091;
-116.4000;0.8181;0.5427;
-116.1000;0.8050;0.5043;
-115.8000;0.8075;0.5091;
-115.5000;0.8107;0.5211;
-115.2000;0.8107;0.5187;
-114.9000;0.8091;0.5187;
-114.6000;0.8156;0.5355;
-114.3000;0.8140;0.5187;
-114.0000;0.8132;0.5091;
-113.7000;0.8026;0.4827;
-113.4000;0.8116;0.5067;
-113.1000;0.8107;0.5139;
-112.8000;0.8124;0.5067;
-112.5000;0.8091;0.5115;
-112.2000;0.8107;0.5187;
-111.9000;0.8124;0.5187;
-111.6000;0.8107;0.5187;
-111.3000;0.8148;0.5379;
-111.0000;0.8116;0.5283;
-110.7000;0.8124;0.5283;
-110.4000;0.8132;0.5211;
-110.1000;0.8099;0.5139;
-109.8000;0.8116;0.5163;
-109.5000;0.8116;0.5163;
-109.2000;0.8124;0.5283;
-108.9000;0.8107;0.5283;
-108.6000;0.8116;0.5307;
-108.3000;0.8091;0.5259;
-108.0000;0.8107;0.5235;
-107.7000;0.8116;0.5163;
-107.4000;0.8132;0.5139;
-107.1000;0.8124;0.5187;
-106.8000;0.8132;0.5187;
-106.5000;0.8116;0.5067;
-106.2000;0.8238;0.5355;
-105.9000;0.8124;0.5115;
-105.6000;0.8116;0.5139;
-105.3000;0.8205;0.5307;
-105.0000;0.8124;0.5115;
-104.7000;0.8116;0.5067;
-104.4000;0.8124;0.5043;
-104.1000;0.8124;0.5091;
-103.8000;0.8107;0.5115;
-103.5000;0.8116;0.5043;
-103.2000;0.8140;0.5067;
-102.9000;0.8107;0.4947;
-102.6000;0.8107;0.5019;
-102.3000;0.8132;0.5067;
-102.0000;0.8116;0.5019;
-101.7000;0.8132;0.5067;
-101.4000;0.8099;0.4995;
-101.1000;0.8116;0.5043;
-100.8000;0.8132;0.5067;
-100.5000;0.8091;0.4995;
-100.2000;0.8132;0.5091;
-99.9000;0.8107;0.5043;
-99.6000;0.8083;0.4923;
-99.3000;0.8213;0.5259;
-99.0000;0.8116;0.5019;
-98.7000;0.8156;0.5091;
-98.4000;0.8116;0.5019;
-98.1000;0.8197;0.5211;
-97.8000;0.8099;0.4995;
-97.5000;0.8132;0.5043;
-97.2000;0.8059;0.4755;
-96.9000;0.8124;0.4827;
-96.6000;0.8116;0.4851;
-96.3000;0.8132;0.5019;
-96.0000;0.8099;0.5043;
-95.7000;0.8140;0.5139;
-95.4000;0.8124;0.5115;
-95.1000;0.8116;0.5139;
-94.8000;0.8107;0.5043;
-94.5000;0.8099;0.5067;
-94.2000;0.8116;0.5067;
-93.9000;0.8116;0.5043;
-93.6000;0.8140;0.5043;
-93.3000;0.8140;0.4995;
-93.0000;0.8140;0.5067;
-92.7000;0.8140;0.5091;
-92.4000;0.8132;0.5043;
-92.1000;0.8059;0.4899;
-91.8000;0.8116;0.5067;
-91.5000;0.8124;0.5091;
-91.2000;0.8107;0.5115;
-90.9000;0.8124;0.5115;
-90.6000;0.8116;0.5163;
-90.3000;0.8116;0.5067;
-90.0000;0.8132;0.5163;
-89.7000;0.8116;0.5067;
-89.4000;0.8099;0.5019;
-89.1000;0.8075;0.4923;
-88.8000;0.8116;0.4971;
-88.5000;0.8107;0.4899;
-88.2000;0.8116;0.4875;
-87.9000;0.8107;0.4851;
-87.6000;0.8042;0.4779;
-87.3000;0.8116;0.4899;
-87.0000;0.8050;0.4827;
-86.7000;0.8124;0.5043;
-86.4000;0.8116;0.5019;
-86.1000;0.8107;0.4971;
-85.8000;0.8107;0.4995;
-85.5000;0.8107;0.5043;
-85.2000;0.8116;0.5115;
-84.9000;0.8116;0.5043;
-84.6000;0.8124;0.5091;
-84.3000;0.8124;0.5163;
-84.0000;0.8124;0.5187;
-83.7000;0.8050;0.5019;
-83.4000;0.8107;0.5043;
-83.1000;0.8091;0.4947;
-82.8000;0.8116;0.4923;
-82.5000;0.8116;0.4875;
-82.2000;0.8124;0.4755;
-81.9000;0.8091;0.4683;
-81.6000;0.8099;0.4851;
-81.3000;0.8156;0.4971;
-81.0000;0.8132;0.4875;
-80.7000;0.8124;0.4875;
-80.4000;0.8116;0.4875;
-80.1000;0.8132;0.4971;
-79.8000;0.8148;0.5043;
-79.5000;0.8099;0.4947;
-79.2000;0.8099;0.5019;
-78.9000;0.8124;0.5235;
-78.6000;0.8091;0.5091;
-78.3000;0.8124;0.5139;
-78.0000;0.8116;0.5091;
-77.7000;0.8132;0.5115;
-77.4000;0.8124;0.5091;
-77.1000;0.8107;0.5091;
-76.8000;0.8116;0.5067;
-76.5000;0.8116;0.4971;
-76.2000;0.8132;0.4995;
-75.9000;0.8124;0.4947;
-75.6000;0.8107;0.4875;
-75.3000;0.8156;0.4971;
-75.0000;0.8116;0.4899;
-74.7000;0.8116;0.4899;
-74.4000;0.8107;0.4827;
-74.1000;0.8099;0.4851;
-73.8000;0.8042;0.4659;
-73.5000;0.8107;0.4899;
-73.2000;0.8116;0.5019;
-72.9000;0.8091;0.4947;
-72.6000;0.8099;0.4995;
-72.3000;0.8124;0.5067;
-72.0000;0.8124;0.5019;
-71.7000;0.8124;0.5043;
-71.4000;0.8124;0.5091;
-71.1000;0.8116;0.5043;
-70.8000;0.8116;0.5115;
-70.5000;0.8107;0.5019;
-70.2000;0.8075;0.4947;
-69.9000;0.8116;0.5043;
-69.6000;0.8156;0.5091;
-69.3000;0.8116;0.5043;
-69.0000;0.8107;0.4947;
-68.7000;0.8107;0.4995;
-68.4000;0.8124;0.5019;
-68.1000;0.8148;0.4995;
-67.8000;0.8124;0.4899;
-67.5000;0.8124;0.4875;
-67.2000;0.8124;0.4947;
-66.9000;0.8132;0.4995;
-66.6000;0.8116;0.4923;
-66.3000;0.8116;0.4947;
-66.0000;0.8132;0.4995;
-65.7000;0.8132;0.4971;
-65.4000;0.8116;0.4875;
-65.1000;0.8116;0.4923;
-64.8000;0.8132;0.4947;
-64.5000;0.8116;0.4947;
-64.2000;0.8099;0.4923;
-63.9000;0.8107;0.4923;
-63.6000;0.8107;0.4923;
-63.3000;0.8083;0.4923;
-63.0000;0.8107;0.4947;
-62.7000;0.8099;0.4971;
-62.4000;0.8116;0.5019;
-62.1000;0.8107;0.4923;
-61.8000;0.8124;0.4947;
-61.5000;0.8099;0.4947;
-61.2000;0.8107;0.4899;
-60.9000;0.8116;0.4995;
-60.6000;0.8107;0.4995;
-60.3000;0.8124;0.4971;
-60.0000;0.8116;0.4875;
-59.7000;0.8091;0.4875;
-59.4000;0.8124;0.4899;
-59.1000;0.8099;0.4947;
-58.8000;0.8107;0.5019;
-58.5000;0.8124;0.5043;
-58.2000;0.8124;0.5091;
-57.9000;0.8099;0.5019;
-57.6000;0.8132;0.5115;
-57.3000;0.8116;0.5115;
-57.0000;0.8124;0.5043;
-56.7000;0.8116;0.5043;
-56.4000;0.8107;0.5067;
-56.1000;0.8124;0.5019;
-55.8000;0.8116;0.5019;
-55.5000;0.8132;0.5139;
-55.2000;0.8124;0.5115;
-54.9000;0.8050;0.4923;
-54.6000;0.8132;0.5139;
-54.3000;0.8221;0.5331;
-54.0000;0.8132;0.4995;
-53.7000;0.8132;0.5067;
-53.4000;0.8116;0.5019;
-53.1000;0.8116;0.5115;
-52.8000;0.8116;0.5187;
-52.5000;0.8124;0.5115;
-52.2000;0.8116;0.5139;
-51.9000;0.8156;0.5211;
-51.6000;0.8124;0.5139;
-51.3000;0.8116;0.5115;
-51.0000;0.8116;0.5091;
-50.7000;0.8140;0.5163;
-50.4000;0.8132;0.5187;
-50.1000;0.8140;0.5163;
-49.8000;0.8140;0.5091;
-49.5000;0.8124;0.4971;
-49.2000;0.8124;0.4995;
-48.9000;0.8116;0.4947;
-48.6000;0.8099;0.4923;
-48.3000;0.8116;0.4923;
-48.0000;0.8116;0.4971;
-47.7000;0.8099;0.4923;
-47.4000;0.8099;0.4971;
-47.1000;0.8116;0.4971;
-46.8000;0.8124;0.5019;
-46.5000;0.8124;0.4947;
-46.2000;0.8124;0.4923;
-45.9000;0.8116;0.4923;
-45.6000;0.8124;0.4947;
-45.3000;0.8132;0.4995;
-45.0000;0.8124;0.4899;
-44.7000;0.8148;0.4899;
-44.4000;0.8107;0.4851;
-44.1000;0.8107;0.4899;
-43.8000;0.8107;0.4923;
-43.5000;0.8099;0.5019;
-43.2000;0.8116;0.5067;
-42.9000;0.8124;0.5115;
-42.6000;0.8116;0.5043;
-42.3000;0.8132;0.4995;
-42.0000;0.8107;0.4947;
-41.7000;0.8124;0.5019;
-41.4000;0.8116;0.5019;
-41.1000;0.8116;0.5043;
-40.8000;0.8124;0.5091;
-40.5000;0.8116;0.5163;
-40.2000;0.8050;0.4995;
-39.9000;0.8099;0.5115;
-39.6000;0.8124;0.5091;
-39.3000;0.8124;0.5043;
-39.0000;0.8116;0.5067;
-38.7000;0.8116;0.5019;
-38.4000;0.8107;0.4995;
-38.1000;0.8099;0.5067;
-37.8000;0.8116;0.5043;
-37.5000;0.8099;0.4995;
-37.2000;0.8083;0.5019;
-36.9000;0.8107;0.5115;
-36.6000;0.8116;0.5163;
-36.3000;0.8091;0.5091;
-36.0000;0.8116;0.5139;
-35.7000;0.8107;0.5139;
-35.4000;0.8124;0.5139;
-35.1000;0.8116;0.5115;
-34.8000;0.8099;0.5043;
-34.5000;0.8099;0.5139;
-34.2000;0.8124;0.5139;
-33.9000;0.8091;0.5067;
-33.6000;0.8124;0.5139;
-33.3000;0.8099;0.5067;
-33.0000;0.8124;0.5163;
-32.7000;0.8156;0.5259;
-32.4000;0.8116;0.5139;
-32.1000;0.8107;0.5139;
-31.8000;0.8116;0.5139;
-31.5000;0.8124;0.5091;
-31.2000;0.8116;0.5067;
-30.9000;0.8091;0.4923;
-30.6000;0.8124;0.4995;
-30.3000;0.8132;0.4971;
-30.0000;0.8116;0.4851;
-29.7000;0.8116;0.4779;
-29.4000;0.8059;0.4731;
-29.1000;0.8116;0.4851;
-28.8000;0.8116;0.4899;
-28.5000;0.8107;0.4899;
-28.2000;0.8107;0.4875;
-27.9000;0.8099;0.4779;
-27.6000;0.8116;0.4827;
-27.3000;0.8107;0.4851;
-27.0000;0.8107;0.4899;
-26.7000;0.8116;0.4971;
-26.4000;0.8124;0.5019;
-26.1000;0.8116;0.4995;
-25.8000;0.8124;0.5019;
-25.5000;0.8132;0.5067;
-25.2000;0.8107;0.5019;
-24.9000;0.8213;0.5283;
-24.6000;0.8099;0.4923;
-24.3000;0.8107;0.4995;
-24.0000;0.8107;0.4875;
-23.7000;0.8107;0.4995;
-23.4000;0.8091;0.4995;
-23.1000;0.8099;0.5019;
-22.8000;0.8091;0.4971;
-22.5000;0.8091;0.5043;
-22.2000;0.8164;0.5307;
-21.9000;0.8107;0.5163;
-21.6000;0.8148;0.5211;
-21.3000;0.8083;0.5043;
-21.0000;0.8116;0.5115;
-20.7000;0.8107;0.5091;
-20.4000;0.8140;0.5019;
-20.1000;0.8132;0.5115;
-19.8000;0.8132;0.5091;
-19.5000;0.8124;0.5115;
-19.2000;0.8116;0.5091;
-18.9000;0.8221;0.5259;
-18.6000;0.8221;0.5163;
-18.3000;0.8116;0.4899;
-18.0000;0.8140;0.4899;
-17.7000;0.8132;0.4875;
-17.4000;0.8132;0.4827;
-17.1000;0.8116;0.4827;
-16.8000;0.8116;0.4851;
-16.5000;0.8107;0.4803;
-16.2000;0.8116;0.4875;
-15.9000;0.8124;0.4971;
-15.6000;0.8107;0.4971;
-15.3000;0.8124;0.5067;
-15.0000;0.8124;0.4995;
-14.7000;0.8099;0.4947;
-14.4000;0.8116;0.5067;
-14.1000;0.8107;0.5043;
-13.8000;0.8124;0.5091;
-13.5000;0.8124;0.5115;
-13.2000;0.8116;0.5139;
-12.9000;0.8107;0.5091;
-12.6000;0.8116;0.5139;
-12.3000;0.8099;0.5019;
-12.0000;0.8083;0.4923;
-11.7000;0.8107;0.4995;
-11.4000;0.8116;0.5019;
-11.1000;0.8116;0.4995;
-10.8000;0.8116;0.4995;
-10.5000;0.8107;0.4971;
-10.2000;0.8140;0.5043;
-9.9000;0.8116;0.5019;
-9.6000;0.8132;0.4971;
-9.3000;0.8107;0.4971;
-9.0000;0.8116;0.4995;
-8.7000;0.8132;0.5067;
-8.4000;0.8091;0.5067;
-8.1000;0.8116;0.5139;
-7.8000;0.8107;0.5163;
-7.5000;0.8189;0.5403;
-7.2000;0.8181;0.5451;
-6.9000;0.8099;0.5235;
-6.6000;0.8099;0.5163;
-6.3000;0.8140;0.5211;
-6.0000;0.8116;0.5187;
-5.7000;0.8099;0.5163;
-5.4000;0.8107;0.5163;
-5.1000;0.8099;0.5187;
-4.8000;0.8050;0.5019;
-4.5000;0.8083;0.5163;
-4.2000;0.8099;0.5211;
-3.9000;0.8099;0.5187;
-3.6000;0.8124;0.5187;
-3.3000;0.8107;0.5091;
-3.0000;0.8091;0.5043;
-2.7000;0.8181;0.5163;
-2.4000;0.8124;0.5091;
-2.1000;0.8107;0.5115;
-1.8000;0.8099;0.5091;
-1.5000;0.8164;0.5235;
-1.2000;0.8132;0.5163;
-0.9000;0.8116;0.5211;
-0.6000;0.8099;0.5187;
-0.3000;0.8132;0.5259;
0.0000;0.8132;0.5259;
0.3000;0.8148;0.5139;
0.6000;0.8116;0.5235;
0.9000;0.8189;0.5595;
1.2000;0.8189;0.5739;
1.5000;0.8230;0.6003;
1.8000;0.8230;0.6075;
2.1000;0.8238;0.6291;
2.4000;0.8254;0.6459;
2.7000;0.8400;0.6868;
3.0000;0.8254;0.6604;
3.3000;0.8278;0.6676;
3.6000;0.8262;0.6724;
3.9000;0.8295;0.6748;
4.2000;0.8303;0.6868;
4.5000;0.8319;0.6988;
4.8000;0.8303;0.6964;
5.1000;0.8311;0.7036;
5.4000;0.8335;0.7084;
5.7000;0.8295;0.7012;
6.0000;0.8319;0.7036;
6.3000;0.8335;0.7060;
6.6000;0.8311;0.6964;
6.9000;0.8335;0.7060;
7.2000;0.8319;0.7108;
7.5000;0.8344;0.7180;
7.8000;0.8311;0.7204;
8.1000;0.8360;0.7300;
8.4000;0.8360;0.7252;
8.7000;0.8344;0.7180;
9.0000;0.8368;0.7180;
9.3000;0.8352;0.7156;
9.6000;0.8344;0.7180;
9.9000;0.8335;0.7108;
10.2000;0.8376;0.7156;
10.5000;0.8368;0.7156;
10.8000;0.8368;0.7204;
11.1000;0.8360;0.7156;
11.4000;0.8376;0.7228;
11.7000;0.8376;0.7228;
12.0000;0.8360;0.7204;
12.3000;0.8376;0.7276;
12.6000;0.8449;0.7444;
12.9000;0.8409;0.7348;
13.2000;0.8368;0.7204;
13.5000;0.8400;0.7204;
13.8000;0.8368;0.7204;
14.1000;0.8384;0.7180;
14.4000;0.8392;0.7204;
14.7000;0.8384;0.7204;
15.0000;0.8376;0.7132;
15.3000;0.8392;0.7156;
15.6000;0.8417;0.7180;
15.9000;0.8392;0.7180;
16.2000;0.8392;0.7132;
16.5000;0.8384;0.7060;
16.8000;0.8376;0.7036;
17.1000;0.8392;0.7084;
17.4000;0.8392;0.7132;
17.7000;0.8400;0.7108;
18.0000;0.8417;0.7108;
18.3000;0.8400;0.7180;
18.6000;0.8376;0.7084;
18.9000;0.8409;0.7204;
19.2000;0.8400;0.7228;
19.5000;0.8409;0.7180;
19.8000;0.8417;0.7252;
20.1000;0.8409;0.7252;
20.4000;0.8425;0.7348;
20.7000;0.8417;0.7324;
21.0000;0.8417;0.7276;
21.3000;0.8335;0.6988;
21.6000;0.8400;0.7180;
21.9000;0.8344;0.7036;
22.2000;0.8417;0.7324;
22.5000;0.8425;0.7324;
22.8000;0.8384;0.7132;
23.1000;0.8433;0.7180;
23.4000;0.8400;0.7180;
23.7000;0.8531;0.7420;
24.0000;0.8417;0.7228;
24.3000;0.8335;0.7156;
24.6000;0.8417;0.7396;
24.9000;0.8425;0.7420;
25.2000;0.8417;0.7228;
25.5000;0.8425;0.7180;
25.8000;0.8482;0.7276;
26.1000;0.8417;0.7180;
26.4000;0.8466;0.7228;
26.7000;0.8441;0.7108;
27.0000;0.8409;0.7036;
27.3000;0.8417;0.7036;
27.6000;0.8409;0.7060;
27.9000;0.8441;0.7180;
28.2000;0.8449;0.7156;
28.5000;0.8449;0.7084;
28.8000;0.8425;0.7012;
29.1000;0.8417;0.7060;
29.4000;0.8433;0.6964;
29.7000;0.8425;0.7036;
30.0000;0.8441;0.7156;
30.3000;0.8327;0.6916;
30.6000;0.8384;0.6988;
30.9000;0.8400;0.7036;
31.2000;0.8352;0.6940;
31.5000;0.8409;0.7180;
31.8000;0.8392;0.7084;
32.1000;0.8409;0.7156;
32.4000;0.8433;0.7180;
32.7000;0.8449;0.7276;
33.0000;0.8409;0.7156;
33.3000;0.8441;0.7252;
33.6000;0.8433;0.7180;
33.9000;0.8417;0.7084;
34.2000;0.8417;0.7012;
34.5000;0.8433;0.7036;
34.8000;0.8433;0.7060;
35.1000;0.8425;0.6940;
35.4000;0.8441;0.6940;
35.7000;0.8441;0.6988;
36.0000;0.8457;0.7084;
36.3000;0.8449;0.7108;
36.6000;0.8417;0.7012;
36.9000;0.8433;0.7108;
37.2000;0.8441;0.7132;
37.5000;0.8441;0.7132;
37.8000;0.8449;0.7132;
38.1000;0.8433;0.7036;
38.4000;0.8433;0.6988;
38.7000;0.8441;0.7036;
39.0000;0.8433;0.6988;
39.3000;0.8433;0.7060;
39.6000;0.8433;0.7012;
39.9000;0.8449;0.7132;
40.2000;0.8425;0.7156;
40.5000;0.8417;0.7132;
40.8000;0.8441;0.7204;
41.1000;0.8425;0.7180;
41.4000;0.8417;0.7108;
41.7000;0.8433;0.7084;
42.0000;0.8417;0.7060;
42.3000;0.8433;0.7084;
42.6000;0.8425;0.6988;
42.9000;0.8449;0.7036;
43.2000;0.8425;0.7084;
43.5000;0.8425;0.7060;
43.8000;0.8417;0.6988;
44.1000;0.8417;0.7036;
44.4000;0.8425;0.7108;
44.7000;0.8441;0.7084;
45.0000;0.8441;0.6988;
45.3000;0.8376;0.6868;
45.6000;0.8425;0.6964;
45.9000;0.8433;0.6988;
46.2000;0.8425;0.6988;
46.5000;0.8449;0.6964;
46.8000;0.8425;0.6940;
47.1000;0.8433;0.6916;
47.4000;0.8441;0.6916;
47.7000;0.8425;0.6916;
48.0000;0.8425;0.7012;
48.3000;0.8417;0.7012;
48.6000;0.8433;0.7036;
48.9000;0.8425;0.6988;
49.2000;0.8327;0.6748;
49.5000;0.8441;0.6988;
49.8000;0.8433;0.6940;
50.1000;0.8433;0.6940;
50.4000;0.8457;0.6940;
50.7000;0.8425;0.6964;
51.0000;0.8384;0.6892;
51.3000;0.8400;0.6892;
51.6000;0.8433;0.6916;
51.9000;0.8425;0.6964;
52.2000;0.8433;0.7012;
52.5000;0.8474;0.7060;
52.8000;0.8474;0.7084;
53.1000;0.8441;0.6988;
53.4000;0.8433;0.7012;
53.7000;0.8425;0.7012;
54.0000;0.8441;0.7012;
54.3000;0.8466;0.7060;
54.6000;0.8425;0.7012;
54.9000;0.8449;0.7060;
55.2000;0.8425;0.7060;
55.5000;0.8433;0.7036;
55.8000;0.8490;0.7252;
56.1000;0.8441;0.7060;
56.4000;0.8433;0.7060;
56.7000;0.8425;0.7036;
57.0000;0.8417;0.7156;
57.3000;0.8425;0.7108;
57.6000;0.8425;0.7108;
57.9000;0.8425;0.7012;
58.2000;0.8425;0.6988;
58.5000;0.8441;0.7036;
58.8000;0.8441;0.7012;
59.1000;0.8433;0.7036;
59.4000;0.8433;0.7084;
59.7000;0.8441;0.7108;
60.0000;0.8441;0.7060;
60.3000;0.8441;0.7060;
60.6000;0.8433;0.7012;
60.9000;0.8433;0.6988;
61.2000;0.8449;0.7036;
61.5000;0.8425;0.7060;
61.8000;0.8417;0.7084;
62.1000;0.8433;0.7084;
62.4000;0.8425;0.7108;
62.7000;0.8441;0.7228;
63.0000;0.8433;0.7276;
63.3000;0.8409;0.7156;
63.6000;0.8417;0.7156;
63.9000;0.8425;0.7252;
64.2000;0.8457;0.7252;
64.5000;0.8425;0.7108;
64.8000;0.8425;0.7108;
65.1000;0.8449;0.7204;
65.4000;0.8425;0.7204;
65.7000;0.8400;0.7132;
66.0000;0.8417;0.7084;
66.3000;0.8433;0.7108;
66.6000;0.8441;0.7132;
66.9000;0.8417;0.7132;
67.2000;0.8474;0.7324;
67.5000;0.8400;0.7132;
67.8000;0.8433;0.7204;
68.1000;0.8425;0.7228;
68.4000;0.8425;0.7228;
68.7000;0.8384;0.7108;
69.0000;0.8433;0.7324;
69.3000;0.8417;0.7204;
69.6000;0.8417;0.7204;
69.9000;0.8417;0.7252;
70.2000;0.8409;0.7228;
70.5000;0.8400;0.7228;
70.8000;0.8425;0.7252;
71.1000;0.8409;0.7252;
71.4000;0.8425;0.7276;
71.7000;0.8392;0.7180;
72.0000;0.8425;0.7252;
72.3000;0.8417;0.7228;
72.6000;0.8433;0.7252;
72.9000;0.8433;0.7228;
73.2000;0.8392;0.7156;
73.5000;0.8417;0.7180;
73.8000;0.8400;0.7108;
74.1000;0.8417;0.7132;
74.4000;0.8425;0.7204;
74.7000;0.8433;0.7300;
75.0000;0.8425;0.7372;
75.3000;0.8433;0.7396;
75.6000;0.8433;0.7444;
75.9000;0.8433;0.7324;
76.2000;0.8417;0.7396;
76.5000;0.8392;0.7300;
76.8000;0.8417;0.7420;
77.1000;0.8417;0.7420;
77.4000;0.8425;0.7420;
77.7000;0.8417;0.7444;
78.0000;0.8425;0.7420;
78.3000;0.8417;0.7420;
78.6000;0.8425;0.7396;
78.9000;0.8425;0.7444;
79.2000;0.8433;0.7372;
79.5000;0.8368;0.7204;
79.8000;0.8425;0.7348;
80.1000;0.8425;0.7444;
80.4000;0.8409;0.7444;
80.7000;0.8417;0.7420;
81.0000;0.8417;0.7372;
81.3000;0.8417;0.7324;
81.6000;0.8457;0.7444;
81.9000;0.8417;0.7372;
82.2000;0.8409;0.7324;
82.5000;0.8392;0.7252;
82.8000;0.8425;0.7396;
83.1000;0.8417;0.7420;
83.4000;0.8409;0.7372;
83.7000;0.8409;0.7348;
84.0000;0.8417;0.7468;
84.3000;0.8425;0.7492;
84.6000;0.8425;0.7540;
84.9000;0.8417;0.7492;
85.2000;0.8417;0.7396;
85.5000;0.8441;0.7348;
85.8000;0.8417;0.7252;
86.1000;0.8409;0.7204;
86.4000;0.8425;0.7252;
86.7000;0.8425;0.7276;
87.0000;0.8433;0.7372;
87.3000;0.8400;0.7228;
87.6000;0.8392;0.7252;
87.9000;0.8409;0.7204;
88.2000;0.8409;0.7252;
88.5000;0.8417;0.7276;
88.8000;0.8409;0.7180;
89.1000;0.8400;0.7132;
89.4000;0.8433;0.7132;
89.7000;0.8425;0.7108;
90.0000;0.8425;0.7132;
90.3000;0.8425;0.7132;
90.6000;0.8441;0.7180;
90.9000;0.8425;0.7156;
91.2000;0.8433;0.7180;
91.5000;0.8433;0.7228;
91.8000;0.8441;0.7324;
92.1000;0.8425;0.7300;
92.4000;0.8425;0.7252;
92.7000;0.8409;0.7348;
93.0000;0.8433;0.7396;
93.3000;0.8433;0.7324;
93.6000;0.8400;0.7300;
93.9000;0.8417;0.7324;
94.2000;0.8409;0.7276;
94.5000;0.8417;0.7252;
94.8000;0.8433;0.7252;
95.1000;0.8425;0.7372;
95.4000;0.8425;0.7300;
95.7000;0.8433;0.7276;
96.0000;0.8425;0.7252;
96.3000;0.8425;0.7276;
96.6000;0.8425;0.7300;
96.9000;0.8441;0.7276;
97.2000;0.8417;0.7204;
97.5000;0.8400;0.7228;
97.8000;0.8425;0.7300;
98.1000;0.8425;0.7324;
98.4000;0.8425;0.7372;
98.7000;0.8425;0.7324;
99.0000;0.8417;0.7276;
99.3000;0.8417;0.7276;
99.6000;0.8425;0.7372;
99.9000;0.8425;0.7420;
100.2000;0.8409;0.7420;
100.5000;0.8425;0.7396;
100.8000;0.8433;0.7372;
101.1000;0.8514;0.7492;
101.4000;0.8441;0.7396;
101.7000;0.8417;0.7468;
102.0000;0.8400;0.7420;
102.3000;0.8417;0.7492;
102.6000;0.8425;0.7420;
102.9000;0.8287;0.7252;
103.2000;0.8409;0.7564;
103.5000;0.8433;0.7588;
103.8000;0.8400;0.7588;
104.1000;0.8441;0.7612;
104.4000;0.8425;0.7420;
104.7000;0.8433;0.7516;
105.0000;0.8319;0.7324;
105.3000;0.8425;0.7444;
105.6000;0.8433;0.7468;
105.9000;0.8433;0.7540;
106.2000;0.8425;0.7516;
106.5000;0.8433;0.7492;
106.8000;0.8425;0.7396;
107.1000;0.8457;0.7492;
107.4000;0.8425;0.7372;
107.7000;0.8400;0.7300;
108.0000;0.8417;0.7396;
108.3000;0.8409;0.7420;
108.6000;0.8417;0.7444;
108.9000;0.8409;0.7492;
109.2000;0.8433;0.7516;
109.5000;0.8409;0.7468;
109.8000;0.8425;0.7444;
110.1000;0.8392;0.7468;
110.4000;0.8384;0.7492;
110.7000;0.8400;0.7516;
111.0000;0.8466;0.7660;
111.3000;0.8409;0.7468;
111.6000;0.8400;0.7420;
111.9000;0.8400;0.7468;
112.2000;0.8409;0.7420;
112.5000;0.8425;0.7492;
112.8000;0.8417;0.7588;
113.1000;0.8400;0.7588;
113.4000;0.8400;0.7540;
113.7000;0.8400;0.7468;
114.0000;0.8400;0.7420;
114.3000;0.8514;0.7684;
114.6000;0.8417;0.7420;
114.9000;0.8425;0.7492;
115.2000;0.8425;0.7492;
115.5000;0.8457;0.7612;
115.8000;0.8409;0.7492;
116.1000;0.8344;0.7324;
116.4000;0.8400;0.7444;
116.7000;0.8466;0.7588;
117.0000;0.8392;0.7348;
117.3000;0.8498;0.7708;
117.6000;0.8417;0.7492;
117.9000;0.8392;0.7492;
118.2000;0.8368;0.7396;
118.5000;0.8417;0.7468;
118.8000;0.8400;0.7420;
119.1000;0.8409;0.7468;
119.4000;0.8392;0.7300;
119.7000;0.8400;0.7324;
120.0000;0.8409;0.7276;
120.3000;0.8417;0.7276;
120.6000;0.8425;0.7300;
120.9000;0.8482;0.7468;
121.2000;0.8441;0.7372;
121.5000;0.8457;0.7300;
121.8000;0.8425;0.7132;
122.1000;0.8425;0.7156;
122.4000;0.8425;0.7132;
122.7000;0.8425;0.7156;
123.0000;0.8433;0.7156;
123.3000;0.8400;0.7108;
123.6000;0.8417;0.7156;
123.9000;0.8384;0.7084;
124.2000;0.8392;0.7132;
124.5000;0.8400;0.7204;
124.8000;0.8400;0.7156;
125.1000;0.8392;0.7156;
125.4000;0.8474;0.7420;
125.7000;0.8384;0.7252;
126.0000;0.8417;0.7348;
126.3000;0.8409;0.7324;
126.6000;0.8384;0.7180;
126.9000;0.8400;0.7132;
127.2000;0.8400;0.7180;
127.5000;0.8417;0.7252;
127.8000;0.8417;0.7180;
128.1000;0.8392;0.7108;
128.4000;0.8400;0.7132;
128.7000;0.8409;0.7180;
129.0000;0.8409;0.7156;
129.3000;0.8400;0.7180;
129.6000;0.8400;0.7228;
129.9000;0.8409;0.7156;
130.2000;0.8425;0.7228;
130.5000;0.8417;0.7180;
130.8000;0.8409;0.7108;
131.1000;0.8417;0.7180;
131.4000;0.8417;0.7228;
131.7000;0.8417;0.7276;
132.0000;0.8417;0.7300;
132.3000;0.8417;0.7204;
132.6000;0.8425;0.7228;
132.9000;0.8425;0.7156;
133.2000;0.8417;0.7132;
133.5000;0.8400;0.7060;
133.8000;0.8360;0.6988;
134.1000;0.8400;0.7036;
134.4000;0.8417;0.7156;
134.7000;0.8482;0.7300;
135.0000;0.8392;0.7108;
135.3000;0.8409;0.7204;
135.6000;0.8409;0.7156;
135.9000;0.8384;0.7108;
136.2000;0.8417;0.7108;
136.5000;0.8433;0.7108;
136.8000;0.8425;0.7084;
137.1000;0.8417;0.7132;
137.4000;0.8409;0.7180;
137.7000;0.8425;0.7228;
138.0000;0.8409;0.7252;
138.3000;0.8400;0.7204;
138.6000;0.8400;0.7252;
138.9000;0.8384;0.7108;
139.2000;0.8409;0.7204;
139.5000;0.8392;0.7012;
139.8000;0.8400;0.7060;
140.1000;0.8409;0.6964;
140.4000;0.8425;0.7060;
140.7000;0.8409;0.7060;
141.0000;0.8417;0.7036;
141.3000;0.8400;0.7204;
141.6000;0.8425;0.7300;
141.9000;0.8425;0.7324;
142.2000;0.8384;0.7276;
142.5000;0.8409;0.7372;
142.8000;0.8409;0.7348;
143.1000;0.8409;0.7324;
143.4000;0.8466;0.7420;
143.7000;0.8409;0.7372;
144.0000;0.8384;0.7348;
144.3000;0.8409;0.7420;
144.6000;0.8376;0.7348;
144.9000;0.8417;0.7396;
145.2000;0.8392;0.7276;
145.5000;0.8417;0.7324;
145.8000;0.8417;0.7348;
146.1000;0.8400;0.7300;
146.4000;0.8425;0.7300;
146.7000;0.8409;0.7252;
147.0000;0.8376;0.7132;
147.3000;0.8335;0.7036;
147.6000;0.8400;0.7228;
147.9000;0.8400;0.7228;
148.2000;0.8417;0.7324;
148.5000;0.8392;0.7300;
148.8000;0.8417;0.7324;
149.1000;0.8409;0.7228;
149.4000;0.8376;0.7228;
149.7000;0.8441;0.7324;
150.0000;0.8449;0.7348;
150.3000;0.8400;0.7180;
150.6000;0.8482;0.7324;
150.9000;0.8409;0.7204;
151.2000;0.8392;0.7180;
151.5000;0.8384;0.7228;
151.8000;0.8392;0.7276;
152.1000;0.8409;0.7300;
152.4000;0.8400;0.7252;
152.7000;0.8409;0.7228;
153.0000;0.8425;0.7300;
153.3000;0.8425;0.7324;
153.6000;0.8409;0.7252;
153.9000;0.8376;0.7228;
154.2000;0.8384;0.7204;
154.5000;0.8409;0.7180;
154.8000;0.8392;0.7228;
155.1000;0.8409;0.7204;
155.4000;0.8409;0.7204;
155.7000;0.8441;0.7348;
156.0000;0.8409;0.7252;
156.3000;0.8392;0.7180;
156.6000;0.8409;0.7252;
156.9000;0.8417;0.7276;
157.2000;0.8417;0.7228;
157.5000;0.8425;0.7228;
157.8000;0.8417;0.7228;
158.1000;0.8425;0.7276;
158.4000;0.8400;0.7252;
158.7000;0.8409;0.7300;
159.0000;0.8400;0.7324;
159.3000;0.8409;0.7324;
159.6000;0.8400;0.7324;
159.9000;0.8417;0.7420;
160.2000;0.8409;0.7468;
160.5000;0.8384;0.7396;
160.8000;0.8433;0.7468;
161.1000;0.8417;0.7468;
161.4000;0.8409;0.7492;
161.7000;0.8441;0.7468;
162.0000;0.8417;0.7444;
162.3000;0.8425;0.7468;
162.6000;0.8425;0.7444;
162.9000;0.8409;0.7492;
163.2000;0.8425;0.7492;
163.5000;0.8409;0.7468;
163.8000;0.8392;0.7420;
164.1000;0.8409;0.7396;
164.4000;0.8409;0.7444;
164.7000;0.8409;0.7420;
165.0000;0.8409;0.7444;
165.3000;0.8417;0.7516;
165.6000;0.8409;0.7540;
165.9000;0.8425;0.7564;
166.2000;0.8392;0.7444;
166.5000;0.8400;0.7396;
166.8000;0.8417;0.7468;
167.1000;0.8392;0.7468;
167.4000;0.8425;0.7612;
167.7000;0.8409;0.7612;
168.0000;0.8441;0.7612;
168.3000;0.8392;0.7492;
168.6000;0.8400;0.7396;
168.9000;0.8417;0.7276;
169.2000;0.8392;0.7180;
169.5000;0.8417;0.7228;
169.8000;0.8425;0.7300;
170.1000;0.8400;0.7204;
170.4000;0.8400;0.7252;
170.7000;0.8409;0.7276;
171.0000;0.8400;0.7228;
171.3000;0.8409;0.7228;
171.6000;0.8392;0.7300;
171.9000;0.8409;0.7324;
172.2000;0.8384;0.7276;
172.5000;0.8392;0.7300;
172.8000;0.8400;0.7324;
173.1000;0.8392;0.7348;
173.4000;0.8417;0.7420;
173.7000;0.8400;0.7372;
174.0000;0.8368;0.7228;
174.3000;0.8384;0.7324;
174.6000;0.8409;0.7324;
174.9000;0.8400;0.7276;
175.2000;0.8392;0.7252;
175.5000;0.8392;0.7324;
175.8000;0.8409;0.7372;
176.1000;0.8417;0.7396;
176.4000;0.8433;0.7444;
176.7000;0.8392;0.7420;
177.0000;0.8400;0.7420;
177.3000;0.8409;0.7540;
177.6000;0.8409;0.7516;
177.9000;0.8409;0.7444;
178.2000;0.8433;0.7468;
178.5000;0.8409;0.7396;
178.8000;0.8392;0.7396;
179.1000;0.8441;0.7492;
179.4000;0.8384;0.7372;
179.7000;0.8417;0.7420;
180.0000;0.8400;0.7420;
180.3000;0.8392;0.7348;
180.6000;0.8400;0.7348;
180.9000;0.8400;0.7252;
181.2000;0.8409;0.7276;
181.5000;0.8392;0.7228;
181.8000;0.8400;0.7180;
182.1000;0.8400;0.7084;
182.4000;0.8482;0.7324;
182.7000;0.8409;0.7132;
183.0000;0.8400;0.7180;
183.3000;0.8400;0.7180;
183.6000;0.8400;0.7348;
183.9000;0.8400;0.7300;
184.2000;0.8392;0.7228;
184.5000;0.8392;0.7180;
184.8000;0.8425;0.7228;
185.1000;0.8400;0.7276;
185.4000;0.8392;0.7252;
185.7000;0.8384;0.7204;
186.0000;0.8409;0.7396;
186.3000;0.8392;0.7348;
186.6000;0.8400;0.7276;
186.9000;0.8400;0.7132;
187.2000;0.8400;0.7180;
187.5000;0.8449;0.7300;
187.8000;0.8409;0.7228;
188.1000;0.8400;0.7156;
188.4000;0.8400;0.7060;
188.7000;0.8400;0.7108;
189.0000;0.8319;0.6868;
189.3000;0.8392;0.7108;
189.6000;0.8400;0.7108;
189.9000;0.8392;0.7108;
190.2000;0.8417;0.7084;
190.5000;0.8392;0.7132;
190.8000;0.8425;0.7204;
191.1000;0.8392;0.7156;
191.4000;0.8409;0.7204;
191.7000;0.8457;0.7396;
192.0000;0.8392;0.7180;
192.3000;0.8392;0.7228;
192.6000;0.8409;0.7252;
192.9000;0.8417;0.7300;
193.2000;0.8400;0.7276;
193.5000;0.8400;0.7276;
193.8000;0.8392;0.7276;
194.1000;0.8400;0.7276;
194.4000;0.8392;0.7252;
194.7000;0.8490;0.7540;
195.0000;0.8384;0.7324;
195.3000;0.8400;0.7324;
195.6000;0.8384;0.7204;
195.9000;0.8392;0.7180;
196.2000;0.8400;0.7108;
196.5000;0.8400;0.7036;
196.8000;0.8384;0.6916;
197.1000;0.8376;0.6940;
197.4000;0.8417;0.7060;
197.7000;0.8400;0.6988;
198.0000;0.8400;0.7012;
198.3000;0.8400;0.7036;
198.6000;0.8409;0.7108;
198.9000;0.8400;0.7108;
199.2000;0.8409;0.7108;
199.5000;0.8400;0.7132;
199.8000;0.8409;0.7132;
200.1000;0.8400;0.7156;
200.4000;0.8392;0.7204;
200.7000;0.8417;0.7276;
201.0000;0.8400;0.7228;
201.3000;0.8409;0.7204;
201.6000;0.8417;0.7204;
201.9000;0.8409;0.7276;
202.2000;0.8392;0.7324;
202.5000;0.8400;0.7372;
202.8000;0.8400;0.7372;
203.1000;0.8327;0.7084;
203.4000;0.8384;0.7204;
203.7000;0.8384;0.7228;
204.0000;0.8409;0.7348;
204.3000;0.8441;0.7420;
204.6000;0.8400;0.7372;
204.9000;0.8392;0.7348;
205.2000;0.8376;0.7324;
205.5000;0.8400;0.7300;
205.8000;0.8392;0.7276;
206.1000;0.8392;0.7300;
206.4000;0.8400;0.7204;
206.7000;0.8417;0.7276;
207.0000;0.8392;0.7252;
207.3000;0.8392;0.7204;
207.6000;0.8409;0.7276;
207.9000;0.8409;0.7300;
208.2000;0.8409;0.7252;
208.5000;0.8409;0.7252;
208.8000;0.8417;0.7252;
209.1000;0.8400;0.7300;
209.4000;0.8498;0.7588;
209.7000;0.8392;0.7276;
210.0000;0.8384;0.7300;
210.3000;0.8384;0.7300;
210.6000;0.8384;0.7300;
210.9000;0.8384;0.7300;
211.2000;0.8392;0.7204;
211.5000;0.8392;0.7252;
211.8000;0.8400;0.7300;
212.1000;0.8400;0.7300;
212.4000;0.8384;0.7204;
212.7000;0.8466;0.7420;
213.0000;0.8409;0.7204;
213.3000;0.8409;0.7204;
213.6000;0.8400;0.7204;
213.9000;0.8376;0.7156;
214.2000;0.8392;0.7180;
214.5000;0.8409;0.7228;
214.8000;0.8384;0.7204;
215.1000;0.8384;0.7276;
215.4000;0.8384;0.7252;
215.7000;0.8376;0.7276;
216.0000;0.8409;0.7180;
216.3000;0.8392;0.7060;
216.6000;0.8400;0.7084;
216.9000;0.8400;0.7108;
217.2000;0.8392;0.7132;
217.5000;0.8384;0.7132;
217.8000;0.8392;0.7108;
218.1000;0.8384;0.7108;
218.4000;0.8392;0.7228;
218.7000;0.8409;0.7228;
219.0000;0.8392;0.7204;
219.3000;0.8392;0.7252;
219.6000;0.8417;0.7300;
219.9000;0.8376;0.7252;
220.2000;0.8376;0.7228;
220.5000;0.8384;0.7324;
220.8000;0.8384;0.7348;
221.1000;0.8368;0.7348;
221.4000;0.8376;0.7276;
221.7000;0.8360;0.7204;
222.0000;0.8400;0.7252;
222.3000;0.8409;0.7300;
222.6000;0.8376;0.7324;
222.9000;0.8392;0.7324;
223.2000;0.8392;0.7372;
223.5000;0.8368;0.7252;
223.8000;0.8384;0.7300;
224.1000;0.8441;0.7420;
224.4000;0.8376;0.7252;
224.7000;0.8376;0.7228;
225.0000;0.8376;0.7132;
225.3000;0.8384;0.7204;
225.6000;0.8384;0.7252;
225.9000;0.8400;0.7276;
226.2000;0.8392;0.7228;
226.5000;0.8392;0.7180;
226.8000;0.8400;0.7156;
227.1000;0.8400;0.7228;
227.4000;0.8360;0.7084;
227.7000;0.8409;0.7108;
228.0000;0.8409;0.7156;
228.3000;0.8368;0.7036;
228.6000;0.8409;0.7084;
228.9000;0.8392;0.7156;
229.2000;0.8400;0.7132;
229.5000;0.8392;0.7204;
229.8000;0.8409;0.7204;
230.1000;0.8433;0.7372;
230.4000;0.8400;0.7300;
230.7000;0.8384;0.7252;
231.0000;0.8400;0.7348;
231.3000;0.8392;0.7348;
231.6000;0.8400;0.7276;
231.9000;0.8400;0.7252;
232.2000;0.8409;0.7276;
232.5000;0.8360;0.7132;
232.8000;0.8400;0.7228;
233.1000;0.8400;0.7180;
233.4000;0.8400;0.7132;
233.7000;0.8384;0.7132;
234.0000;0.8392;0.7060;
234.3000;0.8417;0.7084;
234.6000;0.8400;0.7156;
234.9000;0.8425;0.7204;
235.2000;0.8400;0.7204;
235.5000;0.8344;0.7036;
235.8000;0.8327;0.6964;
236.1000;0.8392;0.7084;
236.4000;0.8360;0.7060;
236.7000;0.8392;0.7132;
237.0000;0.8409;0.7084;
237.3000;0.8417;0.7084;
237.6000;0.8417;0.7084;
237.9000;0.8400;0.6964;
238.2000;0.8400;0.6940;
238.5000;0.8449;0.7084;
238.8000;0.8417;0.7036;
239.1000;0.8384;0.6892;
239.4000;0.8384;0.7036;
239.7000;0.8384;0.7084;
240.0000;0.8319;0.6988;
240.3000;0.8392;0.7132;
240.6000;0.8400;0.7132;
240.9000;0.8409;0.7252;
241.2000;0.8344;0.7084;
241.5000;0.8376;0.7204;
241.8000;0.8384;0.7204;
242.1000;0.8384;0.7276;
242.4000;0.8400;0.7300;
242.7000;0.8409;0.7180;
243.0000;0.8384;0.7084;
243.3000;0.8392;0.7204;
243.6000;0.8392;0.7204;
243.9000;0.8400;0.7084;
244.2000;0.8376;0.7036;
244.5000;0.8352;0.7060;
244.8000;0.8384;0.7156;
245.1000;0.8376;0.7156;
245.4000;0.8376;0.7108;
245.7000;0.8392;0.7132;
246.0000;0.8400;0.7204;
246.3000;0.8400;0.7156;
246.6000;0.8392;0.7084;
246.9000;0.8368;0.7060;
247.2000;0.8409;0.7060;
247.5000;0.8384;0.6988;
247.8000;0.8392;0.7012;
248.1000;0.8384;0.7108;
248.4000;0.8400;0.7180;
248.7000;0.8417;0.7108;
249.0000;0.8376;0.7060;
249.3000;0.8392;0.7180;
249.6000;0.8376;0.7108;
249.9000;0.8400;0.7132;
250.2000;0.8368;0.6988;
250.5000;0.8368;0.6940;
250.8000;0.8384;0.7012;
251.1000;0.8400;0.7036;
251.4000;0.8392;0.6916;
251.7000;0.8368;0.6892;
252.0000;0.8368;0.6964;
252.3000;0.8384;0.6940;
252.6000;0.8400;0.6988;
252.9000;0.8376;0.6988;
253.2000;0.8368;0.7036;
253.5000;0.8384;0.7156;
253.8000;0.8400;0.7252;
254.1000;0.8376;0.7204;
254.4000;0.8360;0.7156;
254.7000;0.8376;0.7180;
255.0000;0.8400;0.7156;
255.3000;0.8376;0.7084;
255.6000;0.8392;0.7108;
255.9000;0.8392;0.7132;
256.2000;0.8400;0.7132;
256.5000;0.8376;0.7084;
256.8000;0.8409;0.7108;
257.1000;0.8376;0.7036;
257.4000;0.8384;0.7036;
257.7000;0.8409;0.7156;
258.0000;0.8392;0.7036;
258.3000;0.8384;0.7012;
258.6000;0.8409;0.7060;
258.9000;0.8400;0.7084;
259.2000;0.8417;0.7084;
259.5000;0.8335;0.6916;
259.8000;0.8376;0.7084;
260.1000;0.8400;0.7060;
260.4000;0.8360;0.7012;
260.7000;0.8441;0.7228;
261.0000;0.8417;0.7132;
261.3000;0.8384;0.7012;
261.6000;0.8344;0.6964;
261.9000;0.8368;0.7012;
262.2000;0.8376;0.7108;
262.5000;0.8392;0.7060;
262.8000;0.8425;0.7156;
263.1000;0.8376;0.7108;
263.4000;0.8376;0.7108;
263.7000;0.8392;0.7132;
264.0000;0.8368;0.7108;
264.3000;0.8384;0.7108;
264.6000;0.8376;0.7036;
264.9000;0.8384;0.7060;
265.2000;0.8409;0.7132;
265.5000;0.8384;0.7156;
265.8000;0.8417;0.7276;
266.1000;0.8417;0.7276;
266.4000;0.8400;0.7228;
266.7000;0.8392;0.7132;
267.0000;0.8392;0.7156;
267.3000;0.8392;0.7108;
267.6000;0.8441;0.7324;
267.9000;0.8409;0.7252;
268.2000;0.8392;0.7180;
268.5000;0.8409;0.7204;
268.8000;0.8417;0.7156;
269.1000;0.8392;0.7180;
269.4000;0.8400;0.7252;
269.7000;0.8392;0.7204;
270.0000;0.8409;0.7276;
270.3000;0.8400;0.7276;
270.6000;0.8376;0.7132;
270.9000;0.8400;0.7084;
271.2000;0.8392;0.7084;
271.5000;0.8384;0.7156;
271.8000;0.8392;0.7084;
272.1000;0.8392;0.7060;
272.4000;0.8384;0.7012;
272.7000;0.8384;0.6940;
273.0000;0.8400;0.6916;
273.3000;0.8392;0.6916;
273.6000;0.8368;0.6844;
273.9000;0.8400;0.7012;
274.2000;0.8409;0.7012;
274.5000;0.8384;0.6988;
274.8000;0.8400;0.6964;
275.1000;0.8392;0.7060;
275.4000;0.8392;0.7060;
275.7000;0.8376;0.7084;
276.0000;0.8392;0.7132;
276.3000;0.8384;0.7108;
276.6000;0.8384;0.7108;
276.9000;0.8335;0.6964;
277.2000;0.8376;0.7084;
277.5000;0.8360;0.7036;
277.8000;0.8392;0.7060;
278.1000;0.8376;0.7060;
278.4000;0.8352;0.7060;
278.7000;0.8384;0.7156;
279.0000;0.8368;0.7108;
279.3000;0.8384;0.7132;
279.6000;0.8384;0.7156;
279.9000;0.8400;0.7228;
280.2000;0.8327;0.7036;
280.5000;0.8433;0.7252;
280.8000;0.8384;0.7132;
281.1000;0.8376;0.7156;
281.4000;0.8392;0.7228;
281.7000;0.8384;0.7204;
282.0000;0.8384;0.7276;
282.3000;0.8384;0.7252;
282.6000;0.8384;0.7252;
282.9000;0.8400;0.7300;
283.2000;0.8400;0.7276;
283.5000;0.8352;0.7132;
283.8000;0.8384;0.7204;
284.1000;0.8392;0.7204;
284.4000;0.8384;0.7252;
284.7000;0.8433;0.7444;
285.0000;0.8376;0.7372;
285.3000;0.8352;0.7348;
285.6000;0.8384;0.7372;
285.9000;0.8417;0.7420;
286.2000;0.8368;0.7324;
286.5000;0.8335;0.7300;
286.8000;0.8384;0.7468;
287.1000;0.8368;0.7444;
287.4000;0.8368;0.7420;
287.7000;0.8352;0.7348;
288.0000;0.8384;0.7420;
288.3000;0.8376;0.7444;
288.6000;0.8384;0.7420;
288.9000;0.8392;0.7468;
289.2000;0.8392;0.7396;
289.5000;0.8376;0.7348;
289.8000;0.8392;0.7372;
290.1000;0.8384;0.7300;
290.4000;0.8368;0.7276;
290.7000;0.8376;0.7252;
291.0000;0.8376;0.7228;
291.3000;0.8344;0.7132;
291.6000;0.8376;0.7252;
291.9000;0.8400;0.7276;
292.2000;0.8400;0.7348;
292.5000;0.8384;0.7324;
292.8000;0.8376;0.7324;
293.1000;0.8384;0.7420;
293.4000;0.8384;0.7372;
293.7000;0.8384;0.7228;
294.0000;0.8384;0.7204;
294.3000;0.8384;0.7228;
294.6000;0.8376;0.7228;
294.9000;0.8384;0.7372;
295.2000;0.8376;0.7348;
295.5000;0.8449;0.7492;
295.8000;0.8376;0.7228;
296.1000;0.8384;0.7300;
296.4000;0.8392;0.7372;
296.7000;0.8376;0.7372;
297.0000;0.8392;0.7372;
297.3000;0.8392;0.7324;
297.6000;0.8384;0.7324;
297.9000;0.8368;0.7252;
298.2000;0.8384;0.7300;
298.5000;0.8384;0.7324;
298.8000;0.8392;0.7252;
299.1000;0.8384;0.7276;
299.4000;0.8409;0.7396;
299.7000;0.8360;0.7324;
300.0000;0.8368;0.7372;
300.3000;0.8360;0.7348;
300.6000;0.8392;0.7468;
300.9000;0.8392;0.7588;
301.2000;0.8384;0.7516;
301.5000;0.8433;0.7612;
301.8000;0.8344;0.7372;
302.1000;0.8392;0.7444;
302.4000;0.8368;0.7420;
302.7000;0.8376;0.7444;
303.0000;0.8376;0.7468;
303.3000;0.8392;0.7444;
303.6000;0.8392;0.7492;
303.9000;0.8376;0.7420;
304.2000;0.8376;0.7372;
304.5000;0.8392;0.7324;
304.8000;0.8368;0.7348;
305.1000;0.8368;0.7396;
305.4000;0.8376;0.7372;
305.7000;0.8384;0.7372;
306.0000;0.8278;0.7084;
306.3000;0.8384;0.7324;
306.6000;0.8352;0.7300;
306.9000;0.8368;0.7348;
307.2000;0.8392;0.7348;
307.5000;0.8417;0.7348;
307.8000;0.8384;0.7348;
308.1000;0.8376;0.7276;
308.4000;0.8376;0.7252;
308.7000;0.8376;0.7300;
309.0000;0.8360;0.7276;
309.3000;0.8384;0.7300;
309.6000;0.8384;0.7396;
309.9000;0.8368;0.7324;
310.2000;0.8384;0.7372;
310.5000;0.8384;0.7396;
310.8000;0.8384;0.7420;
311.1000;0.8392;0.7444;
311.4000;0.8376;0.7420;
311.7000;0.8368;0.7372;
312.0000;0.8392;0.7420;
312.3000;0.8376;0.7444;
312.6000;0.8376;0.7372;
312.9000;0.8376;0.7396;
313.2000;0.8352;0.7348;
313.5000;0.8384;0.7396;
313.8000;0.8384;0.7396;
314.1000;0.8384;0.7348;
314.4000;0.8352;0.7276;
314.7000;0.8384;0.7300;
315.0000;0.8400;0.7276;
315.3000;0.8368;0.7228;
315.6000;0.8384;0.7180;
315.9000;0.8376;0.7228;
316.2000;0.8344;0.7252;
316.5000;0.8344;0.7324;
316.8000;0.8384;0.7372;
317.1000;0.8384;0.7348;
317.4000;0.8384;0.7372;
317.7000;0.8384;0.7420;
318.0000;0.8376;0.7492;
318.3000;0.8368;0.7468;
318.6000;0.8392;0.7540;
318.9000;0.8392;0.7492;
319.2000;0.8376;0.7492;
319.5000;0.8352;0.7492;
319.8000;0.8409;0.7612;
320.1000;0.8384;0.7492;
320.4000;0.8384;0.7516;
320.7000;0.8392;0.7492;
321.0000;0.8376;0.7468;
321.3000;0.8392;0.7516;
321.6000;0.8327;0.7396;
321.9000;0.8376;0.7564;
322.2000;0.8392;0.7564;
322.5000;0.8376;0.7588;
322.8000;0.8409;0.7588;
323.1000;0.8400;0.7540;
323.4000;0.8409;0.7468;
323.7000;0.8344;0.7324;
324.0000;0.8400;0.7420;
324.3000;0.8417;0.7468;
324.6000;0.8344;0.7276;
324.9000;0.8392;0.7396;
325.2000;0.8384;0.7396;
325.5000;0.8376;0.7348;
325.8000;0.8384;0.7420;
326.1000;0.8368;0.7468;
326.4000;0.8360;0.7444;
326.7000;0.8368;0.7492;
327.0000;0.8392;0.7516;
327.3000;0.8319;0.7348;
327.6000;0.8352;0.7444;
327.9000;0.8368;0.7468;
328.2000;0.8368;0.7468;
328.5000;0.8376;0.7444;
328.8000;0.8400;0.7420;
329.1000;0.8384;0.7348;
329.4000;0.8376;0.7300;
329.7000;0.8376;0.7348;
330.0000;0.8384;0.7348;
330.3000;0.8368;0.7324;
330.6000;0.8384;0.7324;
330.9000;0.8360;0.7228;
331.2000;0.8384;0.7348;
331.5000;0.8384;0.7420;
331.8000;0.8384;0.7468;
332.1000;0.8360;0.7444;
332.4000;0.8376;0.7540;
332.7000;0.8384;0.7564;
333.0000;0.8384;0.7492;
333.3000;0.8368;0.7324;
333.6000;0.8368;0.7252;
333.9000;0.8376;0.7372;
334.2000;0.8384;0.7396;
334.5000;0.8384;0.7396;
334.8000;0.8392;0.7396;
335.1000;0.8368;0.7228;
335.4000;0.8392;0.7228;
335.7000;0.8376;0.7180;
336.0000;0.8360;0.7228;
336.3000;0.8360;0.7204;
336.6000;0.8368;0.7324;
336.9000;0.8376;0.7324;
337.2000;0.8368;0.7252;
337.5000;0.8352;0.7180;
337.8000;0.8368;0.7276;
338.1000;0.8360;0.7252;
338.4000;0.8376;0.7300;
338.7000;0.8457;0.7444;
339.0000;0.8400;0.7300;
339.3000;0.8400;0.7252;
339.6000;0.8344;0.7084;
339.9000;0.8384;0.7252;
340.2000;0.8400;0.7156;
340.5000;0.8384;0.7156;
340.8000;0.8368;0.7060;
341.1000;0.8360;0.7156;
341.4000;0.8360;0.7156;
341.7000;0.8384;0.7252;
342.0000;0.8360;0.7180;
342.3000;0.8376;0.7228;
342.6000;0.8384;0.7372;
342.9000;0.8384;0.7372;
343.2000;0.8384;0.7324;
343.5000;0.8449;0.7396;
343.8000;0.8376;0.7252;
344.1000;0.8376;0.7228;
344.4000;0.8384;0.7324;
344.7000;0.8384;0.7372;
345.0000;0.8360;0.7396;
345.3000;0.8384;0.7420;
345.6000;0.8376;0.7444;
345.9000;0.8384;0.7420;
346.2000;0.8384;0.7348;
346.5000;0.8368;0.7252;
346.8000;0.8482;0.7468;
347.1000;0.8400;0.7252;
347.4000;0.8376;0.7156;
347.7000;0.8409;0.7348;
348.0000;0.8368;0.7324;
348.3000;0.8400;0.7420;
348.6000;0.8400;0.7324;
348.9000;0.8376;0.7276;
349.2000;0.8384;0.7324;
349.5000;0.8352;0.7372;
349.8000;0.8392;0.7540;
350.1000;0.8295;0.7324;
350.4000;0.8417;0.7636;
350.7000;0.8360;0.7516;
351.0000;0.8384;0.7540;
351.3000;0.8376;0.7588;
351.6000;0.8368;0.7516;
351.9000;0.8352;0.7396;
352.2000;0.8368;0.7468;
352.5000;0.8384;0.7420;
352.8000;0.8376;0.7420;
353.1000;0.8384;0.7396;
353.4000;0.8376;0.7324;
353.7000;0.8376;0.7372;
354.0000;0.8376;0.7396;
354.3000;0.8368;0.7396;
354.6000;0.8368;0.7372;
354.9000;0.8368;0.7420;
355.2000;0.8368;0.7396;
355.5000;0.8376;0.7420;
355.8000;0.8376;0.7516;
356.1000;0.8368;0.7468;
356.4000;0.8352;0.7420;
356.7000;0.8360;0.7492;
357.0000;0.8368;0.7516;
357.3000;0.8368;0.7468;
357.6000;0.8384;0.7396;
357.9000;0.8392;0.7444;
358.2000;0.8368;0.7372;
358.5000;0.8352;0.7372;
358.8000;0.8360;0.7372;
359.1000;0.8360;0.7444;
359.4000;0.8384;0.7468;
359.7000;0.8368;0.7468;
360.0000;0.8433;0.7564;
360.3000;0.8376;0.7372;
360.6000;0.8368;0.7324;
360.9000;0.8376;0.7348;
361.2000;0.8392;0.7276;
361.5000;0.8311;0.7156;
361.8000;0.8368;0.7300;
362.1000;0.8384;0.7396;
362.4000;0.8376;0.7372;
362.7000;0.8482;0.7588;
363.0000;0.8376;0.7324;
363.3000;0.8384;0.7348;
363.6000;0.8376;0.7396;
363.9000;0.8376;0.7396;
364.2000;0.8376;0.7420;
364.5000;0.8400;0.7444;
364.8000;0.8400;0.7420;
365.1000;0.8384;0.7444;
365.4000;0.8384;0.7444;
365.7000;0.8360;0.7540;
366.0000;0.8384;0.7444;
366.3000;0.8360;0.7420;
366.6000;0.8360;0.7372;
366.9000;0.8368;0.7324;
367.2000;0.8376;0.7372;
367.5000;0.8352;0.7372;
367.8000;0.8352;0.7396;
368.1000;0.8376;0.7396;
368.4000;0.8384;0.7348;
368.7000;0.8384;0.7324;
369.0000;0.8368;0.7324;
369.3000;0.8368;0.7348;
369.6000;0.8368;0.7372;
369.9000;0.8392;0.7420;
370.2000;0.8368;0.7420;
370.5000;0.8376;0.7468;
370.8000;0.8352;0.7444;
371.1000;0.8376;0.7540;
371.4000;0.8352;0.7444;
371.7000;0.8360;0.7396;
372.0000;0.8368;0.7444;
372.3000;0.8392;0.7564;
372.6000;0.8360;0.7540;
372.9000;0.8392;0.7588;
373.2000;0.8400;0.7636;
373.5000;0.8384;0.7612;
373.8000;0.8376;0.7612;
374.1000;0.8344;0.7564;
374.4000;0.8360;0.7492;
374.7000;0.8384;0.7492;
375.0000;0.8376;0.7420;
375.3000;0.8368;0.7420;
375.6000;0.8360;0.7348;
375.9000;0.8384;0.7420;
376.2000;0.8360;0.7444;
376.5000;0.8352;0.7516;
376.8000;0.8352;0.7420;
377.1000;0.8368;0.7492;
377.4000;0.8384;0.7492;
377.7000;0.8352;0.7396;
378.0000;0.8376;0.7348;
378.3000;0.8376;0.7348;
378.6000;0.8376;0.7348;
378.9000;0.8327;0.7180;
379.2000;0.8376;0.7396;
379.5000;0.8376;0.7396;
379.8000;0.8392;0.7444;
380.1000;0.8311;0.7252;
380.4000;0.8368;0.7420;
380.7000;0.8425;0.7564;
381.0000;0.8392;0.7516;
381.3000;0.8384;0.7468;
381.6000;0.8376;0.7372;
381.9000;0.8368;0.7252;
382.2000;0.8352;0.7348;
382.5000;0.8368;0.7300;
382.8000;0.8368;0.7276;
383.1000;0.8368;0.7276;
383.4000;0.8368;0.7228;
383.7000;0.8368;0.7132;
384.0000;0.8360;0.7204;
384.3000;0.8344;0.7108;
384.6000;0.8360;0.7276;
384.9000;0.8384;0.7396;
385.2000;0.8376;0.7276;
385.5000;0.8360;0.7228;
385.8000;0.8400;0.7348;
386.1000;0.8392;0.7372;
386.4000;0.8417;0.7372;
386.7000;0.8376;0.7348;
387.0000;0.8376;0.7396;
387.3000;0.8384;0.7492;
387.6000;0.8392;0.7540;
387.9000;0.8352;0.7420;
388.2000;0.8368;0.7396;
388.5000;0.8360;0.7420;
388.8000;0.8368;0.7396;
389.1000;0.8344;0.7348;
389.4000;0.8376;0.7444;
389.7000;0.8360;0.7444;
390.0000;0.8368;0.7372;
390.3000;0.8376;0.7372;
390.6000;0.8376;0.7276;
390.9000;0.8352;0.7252;
391.2000;0.8368;0.7204;
391.5000;0.8360;0.7252;
391.8000;0.8368;0.7300;
392.1000;0.8368;0.7324;
392.4000;0.8368;0.7300;
392.7000;0.8344;0.7300;
393.0000;0.8335;0.7228;
393.3000;0.8352;0.7252;
393.6000;0.8376;0.7276;
393.9000;0.8368;0.7228;
394.2000;0.8376;0.7204;
394.5000;0.8360;0.7204;
394.8000;0.8400;0.7276;
395.1000;0.8368;0.7300;
395.4000;0.8384;0.7372;
395.7000;0.8311;0.7228;
396.0000;0.8352;0.7348;
396.3000;0.8360;0.7444;
396.6000;0.8384;0.7420;
396.9000;0.8384;0.7300;
397.2000;0.8376;0.7228;
397.5000;0.8368;0.7228;
397.8000;0.8376;0.7204;
398.1000;0.8368;0.7180;
398.4000;0.8360;0.7108;
398.7000;0.8368;0.7204;
399.0000;0.8376;0.7276;
399.3000;0.8360;0.7228;
399.6000;0.8344;0.7228;
399.9000;0.8344;0.7132;
400.2000;0.8368;0.7252;
400.5000;0.8457;0.7492;
400.8000;0.8368;0.7228;
401.1000;0.8368;0.7252;
401.4000;0.8384;0.7180;
401.7000;0.8376;0.7252;
402.0000;0.8344;0.7180;
402.3000;0.8368;0.7228;
402.6000;0.8376;0.7300;
402.9000;0.8400;0.7348;
403.2000;0.8352;0.7180;
403.5000;0.8335;0.7156;
403.8000;0.8327;0.7180;
404.1000;0.8409;0.7372;
404.4000;0.8409;0.7396;
404.7000;0.8368;0.7276;
405.0000;0.8384;0.7372;
405.3000;0.8319;0.7252;
405.6000;0.8392;0.7300;
405.9000;0.8368;0.7276;
406.2000;0.8376;0.7252;
406.5000;0.8384;0.7228;
406.8000;0.8352;0.7228;
407.1000;0.8360;0.7108;
407.4000;0.8335;0.7060;
407.7000;0.8368;0.7156;
408.0000;0.8376;0.7156;
408.3000;0.8360;0.7180;
408.6000;0.8352;0.7252;
408.9000;0.8344;0.7204;
409.2000;0.8352;0.7204;
409.5000;0.8344;0.7084;
409.8000;0.8368;0.7108;
410.1000;0.8384;0.7084;
410.4000;0.8425;0.7252;
410.7000;0.8368;0.7036;
411.0000;0.8360;0.7060;
411.3000;0.8376;0.7132;
411.6000;0.8368;0.7156;
411.9000;0.8360;0.7156;
412.2000;0.8360;0.7060;
412.5000;0.8352;0.6988;
412.8000;0.8368;0.7012;
413.1000;0.8384;0.7012;
413.4000;0.8246;0.6700;
413.7000;0.8360;0.6988;
414.0000;0.8368;0.7108;
414.3000;0.8368;0.7180;
414.6000;0.8417;0.7252;
414.9000;0.8392;0.7084;
415.2000;0.8376;0.7012;
415.5000;0.8360;0.6988;
415.8000;0.8344;0.6988;
416.1000;0.8360;0.6916;
416.4000;0.8335;0.6868;
416.7000;0.8384;0.6964;
417.0000;0.8425;0.7036;
417.3000;0.8368;0.6844;
417.6000;0.8360;0.6820;
417.9000;0.8360;0.6700;
418.2000;0.8376;0.6700;
418.5000;0.8376;0.6772;
418.8000;0.8319;0.6700;
419.1000;0.8344;0.6748;
419.4000;0.8376;0.6820;
419.7000;0.8327;0.6604;
420.0000;0.8352;0.6628;
420.3000;0.8352;0.6580;
420.6000;0.8392;0.6676;
420.9000;0.8384;0.6652;
421.2000;0.8360;0.6724;
421.5000;0.8368;0.6796;
421.8000;0.8384;0.6892;
422.1000;0.8368;0.6940;
422.4000;0.8360;0.6964;
422.7000;0.8344;0.6868;
423.0000;0.8360;0.6988;
423.3000;0.8425;0.7228;
423.6000;0.8360;0.7012;
423.9000;0.8319;0.6892;
424.2000;0.8360;0.7036;
424.5000;0.8368;0.6964;
424.8000;0.8376;0.6988;
425.1000;0.8368;0.7036;
425.4000;0.8384;0.7060;
425.7000;0.8368;0.7060;
426.0000;0.8352;0.7036;
426.3000;0.8368;0.7132;
426.6000;0.8368;0.7180;
426.9000;0.8360;0.7180;
427.2000;0.8360;0.7180;
427.5000;0.8352;0.7060;
427.8000;0.8360;0.7084;
428.1000;0.8384;0.7084;
428.4000;0.8360;0.7108;
428.7000;0.8360;0.7180;
429.0000;0.8352;0.7180;
429.3000;0.8360;0.7300;
429.6000;0.8368;0.7228;
429.9000;0.8368;0.7204;
430.2000;0.8368;0.7300;
430.5000;0.8384;0.7300;
430.8000;0.8384;0.7348;
431.1000;0.8376;0.7348;
431.4000;0.8368;0.7324;
431.7000;0.8376;0.7372;
432.0000;0.8368;0.7276;
432.3000;0.8335;0.7300;
432.6000;0.8327;0.7300;
432.9000;0.8327;0.7300;
433.2000;0.8352;0.7348;
433.5000;0.8368;0.7444;
433.8000;0.8352;0.7420;
434.1000;0.8344;0.7396;
434.4000;0.8368;0.7468;
434.7000;0.8384;0.7492;
435.0000;0.8368;0.7420;
435.3000;0.8352;0.7420;
435.6000;0.8360;0.7444;
435.9000;0.8368;0.7420;
436.2000;0.8368;0.7348;
436.5000;0.8344;0.7228;
436.8000;0.8352;0.7300;
437.1000;0.8352;0.7276;
437.4000;0.8360;0.7276;
437.7000;0.8376;0.7348;
438.0000;0.8327;0.7252;
438.3000;0.8344;0.7276;
438.6000;0.8360;0.7324;
438.9000;0.8352;0.7252;
439.2000;0.8352;0.7300;
439.5000;0.8344;0.7348;
439.8000;0.8335;0.7276;
440.1000;0.8344;0.7252;
440.4000;0.8368;0.7372;
440.7000;0.8352;0.7276;
441.0000;0.8400;0.7300;
441.3000;0.8368;0.7204;
441.6000;0.8360;0.7108;
441.9000;0.8392;0.7180;
442.2000;0.8352;0.7156;
442.5000;0.8352;0.7228;
442.8000;0.8352;0.7180;
443.1000;0.8327;0.7108;
443.4000;0.8368;0.7204;
443.7000;0.8352;0.7156;
444.0000;0.8311;0.7132;
444.3000;0.8400;0.7372;
444.6000;0.8360;0.7252;
444.9000;0.8360;0.7204;
445.2000;0.8352;0.7156;
445.5000;0.8352;0.7204;
445.8000;0.8368;0.7180;
446.1000;0.8319;0.7132;
446.4000;0.8360;0.7276;
446.7000;0.8360;0.7396;
447.0000;0.8368;0.7348;
447.3000;0.8376;0.7444;
447.6000;0.8360;0.7348;
447.9000;0.8392;0.7420;
448.2000;0.8352;0.7420;
448.5000;0.8368;0.7348;
448.8000;0.8352;0.7252;
449.1000;0.8392;0.7324;
449.4000;0.8360;0.7252;
449.7000;0.8368;0.7324;
450.0000;0.8295;0.7132;
450.3000;0.8360;0.7348;
450.6000;0.8368;0.7324;
450.9000;0.8360;0.7276;
451.2000;0.8376;0.7252;
451.5000;0.8368;0.7276;
451.8000;0.8376;0.7324;
452.1000;0.8368;0.7348;
452.4000;0.8376;0.7396;
452.7000;0.8360;0.7324;
453.0000;0.8360;0.7324;
453.3000;0.8360;0.7372;
453.6000;0.8344;0.7276;
453.9000;0.8368;0.7348;
454.2000;0.8352;0.7324;
454.5000;0.8344;0.7324;
454.8000;0.8360;0.7372;
455.1000;0.8368;0.7324;
455.4000;0.8368;0.7228;
455.7000;0.8368;0.7180;
456.0000;0.8368;0.7132;
456.3000;0.8360;0.7180;
456.6000;0.8409;0.7252;
456.9000;0.8352;0.7204;
457.2000;0.8360;0.7132;
457.5000;0.8384;0.7204;
457.8000;0.8352;0.7108;
458.1000;0.8319;0.7036;
458.4000;0.8327;0.7132;
458.7000;0.8344;0.7156;
459.0000;0.8352;0.7228;
459.3000;0.8335;0.7252;
459.6000;0.8327;0.7180;
459.9000;0.8368;0.7228;
460.2000;0.8360;0.7228;
460.5000;0.8352;0.7204;
460.8000;0.8376;0.7300;
461.1000;0.8360;0.7252;
461.4000;0.8360;0.7204;
461.7000;0.8368;0.7132;
462.0000;0.8368;0.7060;
462.3000;0.8368;0.7108;
462.6000;0.8368;0.7204;
462.9000;0.8319;0.7132;
463.2000;0.8344;0.7132;
463.5000;0.8352;0.7036;
463.8000;0.8352;0.7108;
464.1000;0.8352;0.7084;
464.4000;0.8319;0.7060;
464.7000;0.8352;0.7084;
465.0000;0.8368;0.7132;
465.3000;0.8360;0.7204;
465.6000;0.8368;0.7276;
465.9000;0.8360;0.7252;
466.2000;0.8344;0.7252;
466.5000;0.8392;0.7372;
466.8000;0.8360;0.7204;
467.1000;0.8335;0.7108;
467.4000;0.8344;0.7132;
467.7000;0.8360;0.7252;
468.0000;0.8417;0.7420;
468.3000;0.8352;0.7228;
468.6000;0.8352;0.7276;
468.9000;0.8335;0.7276;
469.2000;0.8360;0.7228;
469.5000;0.8352;0.7180;
469.8000;0.8352;0.7228;
470.1000;0.8344;0.7252;
470.4000;0.8352;0.7324;
470.7000;0.8352;0.7324;
471.0000;0.8360;0.7444;
471.3000;0.8368;0.7468;
471.6000;0.8360;0.7468;
471.9000;0.8344;0.7420;
472.2000;0.8352;0.7468;
472.5000;0.8360;0.7492;
472.8000;0.8368;0.7612;
473.1000;0.8352;0.7540;
473.4000;0.8344;0.7444;
473.7000;0.8344;0.7420;
474.0000;0.8392;0.7444;
474.3000;0.8352;0.7300;
474.6000;0.8344;0.7252;
474.9000;0.8311;0.7204;
475.2000;0.8360;0.7300;
475.5000;0.8352;0.7252;
475.8000;0.8384;0.7252;
476.1000;0.8425;0.7348;
476.4000;0.8360;0.7276;
476.7000;0.8360;0.7348;
477.0000;0.8360;0.7348;
477.3000;0.8368;0.7300;
477.6000;0.8368;0.7300;
477.9000;0.8376;0.7300;
478.2000;0.8360;0.7252;
478.5000;0.8352;0.7276;
478.8000;0.8352;0.7228;
479.1000;0.8344;0.7156;
479.4000;0.8384;0.7252;
479.7000;0.8352;0.7132;
480.0000;0.8368;0.7180;
480.3000;0.8335;0.7108;
480.6000;0.8352;0.7228;
480.9000;0.8352;0.7204;
481.2000;0.8327;0.7204;
481.5000;0.8344;0.7252;
481.8000;0.8335;0.7252;
482.1000;0.8360;0.7276;
482.4000;0.8360;0.7204;
482.7000;0.8335;0.7108;
483.0000;0.8368;0.7156;
483.3000;0.8376;0.7204;
483.6000;0.8368;0.7252;
483.9000;0.8344;0.7204;
484.2000;0.8360;0.7228;
484.5000;0.8360;0.7204;
484.8000;0.8360;0.7156;
485.1000;0.8344;0.7156;
485.4000;0.8352;0.7252;
485.7000;0.8352;0.7324;
486.0000;0.8352;0.7324;
486.3000;0.8360;0.7396;
486.6000;0.8360;0.7420;
486.9000;0.8376;0.7444;
487.2000;0.8368;0.7492;
487.5000;0.8360;0.7420;
487.8000;0.8319;0.7228;
488.1000;0.8368;0.7396;
488.4000;0.8352;0.7372;
488.7000;0.8344;0.7276;
489.0000;0.8352;0.7276;
489.3000;0.8335;0.7300;
489.6000;0.8344;0.7372;
489.9000;0.8360;0.7468;
490.2000;0.8352;0.7348;
490.5000;0.8360;0.7396;
490.8000;0.8360;0.7420;
491.1000;0.8360;0.7444;
491.4000;0.8303;0.7276;
491.7000;0.8360;0.7444;
492.0000;0.8360;0.7420;
492.3000;0.8417;0.7588;
492.6000;0.8344;0.7444;
492.9000;0.8344;0.7468;
493.2000;0.8368;0.7612;
493.5000;0.8360;0.7564;
493.8000;0.8376;0.7516;
494.1000;0.8335;0.7348;
494.4000;0.8360;0.7396;
494.7000;0.8352;0.7372;
495.0000;0.8392;0.7348;
495.3000;0.8368;0.7180;
495.6000;0.8344;0.7252;
495.9000;0.8319;0.7228;
496.2000;0.8368;0.7252;
496.5000;0.8360;0.7228;
496.8000;0.8352;0.7228;
497.1000;0.8433;0.7420;
497.4000;0.8376;0.7324;
497.7000;0.8360;0.7300;
498.0000;0.8360;0.7228;
498.3000;0.8368;0.7228;
498.6000;0.8368;0.7252;
498.9000;0.8344;0.7204;
499.2000;0.8344;0.7156;
499.5000;0.8295;0.6988;
499.8000;0.8344;0.7180;
500.1000;0.8352;0.7036;
500.4000;0.8319;0.7036;
500.7000;0.8352;0.7156;
501.0000;0.8344;0.7204;
501.3000;0.8352;0.7204;
501.6000;0.8344;0.7204;
501.9000;0.8344;0.7228;
502.2000;0.8360;0.7372;
502.5000;0.8344;0.7420;
502.8000;0.8344;0.7348;
503.1000;0.8352;0.7420;
503.4000;0.8352;0.7372;
503.7000;0.8344;0.7372;
504.0000;0.8352;0.7372;
504.3000;0.8344;0.7372;
504.6000;0.8311;0.7300;
504.9000;0.8352;0.7444;
505.2000;0.8352;0.7420;
505.5000;0.8335;0.7396;
505.8000;0.8392;0.7516;
506.1000;0.8352;0.7444;
506.4000;0.8498;0.7756;
506.7000;0.8352;0.7348;
507.0000;0.8360;0.7420;
507.3000;0.8352;0.7420;
507.6000;0.8303;0.7276;
507.9000;0.8327;0.7300;
508.2000;0.8360;0.7396;
508.5000;0.8344;0.7468;
508.8000;0.8360;0.7516;
509.1000;0.8344;0.7588;
509.4000;0.8335;0.7588;
509.7000;0.8352;0.7540;
510.0000;0.8368;0.7612;
510.3000;0.8360;0.7588;
510.6000;0.8352;0.7588;
510.9000;0.8352;0.7540;
511.2000;0.8352;0.7540;
511.5000;0.8335;0.7468;
511.8000;0.8368;0.7612;
512.1000;0.8327;0.7516;
512.4000;0.8352;0.7516;
512.7000;0.8335;0.7516;
513.0000;0.8335;0.7564;
513.3000;0.8335;0.7516;
513.6000;0.8319;0.7492;
513.9000;0.8344;0.7468;
514.2000;0.8344;0.7540;
514.5000;0.8319;0.7516;
514.8000;0.8335;0.7612;
515.1000;0.8344;0.7564;
515.4000;0.8335;0.7516;
515.7000;0.8335;0.7660;
516.0000;0.8335;0.7684;
516.3000;0.8352;0.7684;
516.6000;0.8335;0.7588;
516.9000;0.8335;0.7636;
517.2000;0.8368;0.7756;
517.5000;0.8327;0.7660;
517.8000;0.8344;0.7732;
518.1000;0.8360;0.7708;
518.4000;0.8352;0.7708;
518.7000;0.8344;0.7660;
519.0000;0.8376;0.7636;
519.3000;0.8360;0.7564;
519.6000;0.8360;0.7684;
519.9000;0.8344;0.7780;
520.2000;0.8352;0.7684;
520.5000;0.8344;0.7660;
520.8000;0.8352;0.7660;
521.1000;0.8352;0.7564;
521.4000;0.8344;0.7588;
521.7000;0.8344;0.7588;
522.0000;0.8335;0.7588;
522.3000;0.8360;0.7636;
522.6000;0.8368;0.7684;
522.9000;0.8344;0.7540;
523.2000;0.8368;0.7516;
523.5000;0.8360;0.7516;
523.8000;0.8335;0.7420;
524.1000;0.8352;0.7444;
524.4000;0.8344;0.7468;
524.7000;0.8352;0.7516;
525.0000;0.8344;0.7516;
525.3000;0.8335;0.7468;
525.6000;0.8344;0.7516;
525.9000;0.8352;0.7564;
526.2000;0.8352;0.7684;
526.5000;0.8352;0.7780;
526.8000;0.8360;0.7732;
527.1000;0.8344;0.7588;
527.4000;0.8352;0.7564;
527.7000;0.8270;0.7420;
528.0000;0.8360;0.7636;
528.3000;0.8335;0.7636;
528.6000;0.8344;0.7612;
528.9000;0.8335;0.7540;
529.2000;0.8335;0.7420;
529.5000;0.8352;0.7468;
529.8000;0.8352;0.7492;
530.1000;0.8344;0.7588;
530.4000;0.8344;0.7660;
530.7000;0.8344;0.7540;
531.0000;0.8344;0.7540;
531.3000;0.8352;0.7420;
531.6000;0.8344;0.7444;
531.9000;0.8352;0.7372;
532.2000;0.8352;0.7372;
532.5000;0.8417;0.7588;
532.8000;0.8360;0.7444;
533.1000;0.8352;0.7444;
533.4000;0.8335;0.7372;
533.7000;0.8327;0.7348;
534.0000;0.8360;0.7516;
534.3000;0.8352;0.7516;
534.6000;0.8409;0.7660;
534.9000;0.8360;0.7564;
535.2000;0.8344;0.7588;
535.5000;0.8352;0.7516;
535.8000;0.8368;0.7564;
536.1000;0.8327;0.7492;
536.4000;0.8327;0.7420;
536.7000;0.8335;0.7492;
537.0000;0.8335;0.7564;
537.3000;0.8335;0.7564;
537.6000;0.8352;0.7564;
537.9000;0.8352;0.7588;
538.2000;0.8344;0.7564;
538.5000;0.8295;0.7444;
538.8000;0.8352;0.7636;
539.1000;0.8352;0.7612;
539.4000;0.8352;0.7612;
539.7000;0.8344;0.7612;
540.0000;0.8360;0.7636;
540.3000;0.8335;0.7636;
540.6000;0.8327;0.7540;
540.9000;0.8311;0.7516;
541.2000;0.8352;0.7564;
541.5000;0.8409;0.7732;
541.8000;0.8360;0.7660;
542.1000;0.8360;0.7564;
542.4000;0.8327;0.7468;
542.7000;0.8352;0.7468;
543.0000;0.8344;0.7396;
543.3000;0.8344;0.7492;
543.6000;0.8352;0.7444;
543.9000;0.8409;0.7540;
544.2000;0.8352;0.7540;
544.5000;0.8327;0.7492;
544.8000;0.8352;0.7516;
545.1000;0.8344;0.7492;
545.4000;0.8352;0.7468;
545.7000;0.8368;0.7492;
546.0000;0.8254;0.7204;
546.3000;0.8360;0.7492;
546.6000;0.8360;0.7516;
546.9000;0.8392;0.7588;
547.2000;0.8352;0.7588;
547.5000;0.8368;0.7636;
547.8000;0.8376;0.7588;
548.1000;0.8360;0.7564;
548.4000;0.8360;0.7636;
548.7000;0.8327;0.7540;
549.0000;0.8278;0.7420;
549.3000;0.8344;0.7588;
549.6000;0.8352;0.7684;
549.9000;0.8335;0.7708;
550.2000;0.8352;0.7732;
550.5000;0.8360;0.7756;
550.8000;0.8287;0.7564;
551.1000;0.8327;0.7636;
551.4000;0.8344;0.7540;
551.7000;0.8335;0.7540;
552.0000;0.8352;0.7612;
552.3000;0.8352;0.7564;
552.6000;0.8327;0.7564;
552.9000;0.8425;0.7852;
553.2000;0.8344;0.7612;
553.5000;0.8311;0.7564;
553.8000;0.8352;0.7588;
554.1000;0.8344;0.7564;
554.4000;0.8352;0.7540;
554.7000;0.8344;0.7492;
555.0000;0.8360;0.7540;
555.3000;0.8335;0.7396;
555.6000;0.8327;0.7348;
555.9000;0.8335;0.7276;
556.2000;0.8344;0.7276;
556.5000;0.8344;0.7324;
556.8000;0.8376;0.7468;
557.1000;0.8344;0.7420;
557.4000;0.8352;0.7420;
557.7000;0.8327;0.7444;
558.0000;0.8352;0.7492;
558.3000;0.8360;0.7516;
558.6000;0.8352;0.7444;
558.9000;0.8352;0.7420;
559.2000;0.8311;0.7300;
559.5000;0.8360;0.7468;
559.8000;0.8344;0.7516;
560.1000;0.8344;0.7492;
560.4000;0.8327;0.7468;
560.7000;0.8319;0.7516;
561.0000;0.8327;0.7492;
561.3000;0.8319;0.7492;
561.6000;0.8335;0.7444;
561.9000;0.8344;0.7468;
562.2000;0.8352;0.7396;
562.5000;0.8352;0.7300;
562.8000;0.8335;0.7372;
563.1000;0.8352;0.7444;
563.4000;0.8344;0.7516;
563.7000;0.8344;0.7540;
564.0000;0.8344;0.7516;
564.3000;0.8417;0.7708;
564.6000;0.8360;0.7516;
564.9000;0.8344;0.7540;
565.2000;0.8327;0.7492;
565.5000;0.8335;0.7588;
565.8000;0.8352;0.7612;
566.1000;0.8287;0.7372;
566.4000;0.8295;0.7468;
566.7000;0.8319;0.7540;
567.0000;0.8344;0.7636;
567.3000;0.8295;0.7444;
567.6000;0.8344;0.7588;
567.9000;0.8319;0.7516;
568.2000;0.8360;0.7588;
568.5000;0.8352;0.7540;
568.8000;0.8344;0.7492;
569.1000;0.8360;0.7516;
569.4000;0.8344;0.7516;
569.7000;0.8352;0.7564;
570.0000;0.8368;0.7516;
570.3000;0.8384;0.7588;
570.6000;0.8352;0.7684;
570.9000;0.8335;0.7564;
571.2000;0.8278;0.7372;
571.5000;0.8335;0.7420;
571.8000;0.8360;0.7444;
572.1000;0.8457;0.7540;
572.4000;0.8344;0.7228;
572.7000;0.8327;0.7228;
573.0000;0.8270;0.7108;
573.3000;0.8327;0.7348;
573.6000;0.8368;0.7420;
573.9000;0.8335;0.7396;
574.2000;0.8311;0.7324;
574.5000;0.8335;0.7420;
574.8000;0.8352;0.7468;
575.1000;0.8344;0.7468;
575.4000;0.8352;0.7468;
575.7000;0.8360;0.7540;
576.0000;0.8441;0.7732;
576.3000;0.8344;0.7468;
576.6000;0.8270;0.7252;
576.9000;0.8352;0.7516;
577.2000;0.8335;0.7588;
577.5000;0.8221;0.7252;
577.8000;0.8319;0.7492;
578.1000;0.8335;0.7492;
578.4000;0.8352;0.7396;
578.7000;0.8344;0.7420;
579.0000;0.8360;0.7420;
579.3000;0.8344;0.7372;
579.6000;0.8441;0.7636;
579.9000;0.8441;0.7612;
580.2000;0.8344;0.7324;
580.5000;0.8335;0.7324;
580.8000;0.8368;0.7396;
581.1000;0.8376;0.7396;
581.4000;0.8352;0.7372;
581.7000;0.8335;0.7372;
582.0000;0.8287;0.7324;
582.3000;0.8352;0.7564;
582.6000;0.8344;0.7564;
582.9000;0.8352;0.7516;
583.2000;0.8352;0.7540;
583.5000;0.8352;0.7564;
583.8000;0.8327;0.7588;
584.1000;0.8344;0.7636;
584.4000;0.8335;0.7564;
584.7000;0.8335;0.7636;
585.0000;0.8335;0.7588;
585.3000;0.8344;0.7588;
585.6000;0.8352;0.7588;
585.9000;0.8319;0.7492;
586.2000;0.8344;0.7516;
586.5000;0.8360;0.7492;
586.8000;0.8319;0.7420;
587.1000;0.8368;0.7564;
587.4000;0.8319;0.7516;
587.7000;0.8352;0.7516;
588.0000;0.8319;0.7420;
588.3000;0.8335;0.7372;
588.6000;0.8352;0.7444;
588.9000;0.8303;0.7468;
589.2000;0.8335;0.7468;
589.5000;0.8335;0.7348;
589.8000;0.8344;0.7396;
590.1000;0.8327;0.7348;
590.4000;0.8352;0.7420;
590.7000;0.8278;0.7156;
591.0000;0.8376;0.7372;
591.3000;0.8319;0.7180;
591.6000;0.8327;0.7300;
591.9000;0.8319;0.7252;
592.2000;0.8319;0.7276;
592.5000;0.8368;0.7420;
592.8000;0.8335;0.7372;
593.1000;0.8344;0.7420;
593.4000;0.8344;0.7444;
593.7000;0.8319;0.7420;
594.0000;0.8376;0.7444;
594.3000;0.8327;0.7348;
594.6000;0.8344;0.7348;
594.9000;0.8360;0.7372;
595.2000;0.8344;0.7324;
595.5000;0.8327;0.7228;
595.8000;0.8335;0.7372;
596.1000;0.8303;0.7300;
596.4000;0.8344;0.7420;
596.7000;0.8433;0.7636;
597.0000;0.8319;0.7348;
597.3000;0.8327;0.7396;
597.6000;0.8311;0.7372;
597.9000;0.8303;0.7300;
598.2000;0.8335;0.7324;
598.5000;0.8327;0.7276;
598.8000;0.8368;0.7396;
599.1000;0.8327;0.7420;
599.4000;0.8344;0.7492;
599.7000;0.8335;0.7540;
600.0000;0.8327;0.7636;
600.3000;0.8335;0.7612;
600.6000;0.8327;0.7444;
600.9000;0.8287;0.7228;
601.2000;0.8254;0.7036;
601.5000;0.8189;0.6844;
601.8000;0.8148;0.6628;
602.1000;0.8067;0.6435;
602.4000;0.7993;0.6267;
602.7000;0.7961;0.6147;
603.0000;0.7896;0.5907;
603.3000;0.7855;0.5859;
603.6000;0.7766;0.5739;
603.9000;0.7741;0.5595;
604.2000;0.7725;0.5451;
604.5000;0.7627;0.5259;
604.8000;0.7578;0.5187;
605.1000;0.7660;0.5451;
605.4000;0.7521;0.5115;
605.7000;0.7481;0.4971;
606.0000;0.7440;0.4899;
606.3000;0.7416;0.4899;
606.6000;0.7399;0.4923;
606.9000;0.7391;0.4971;
607.2000;0.7310;0.4851;
607.5000;0.7269;0.4803;
607.8000;0.7163;0.4514;
608.1000;0.7228;0.4683;
608.4000;0.7179;0.4610;
608.7000;0.7171;0.4538;
609.0000;0.7155;0.4514;
609.3000;0.7204;0.4562;
609.6000;0.7123;0.4442;
609.9000;0.7057;0.4274;
610.2000;0.7041;0.4322;
610.5000;0.7000;0.4274;
610.8000;0.7000;0.4418;
611.1000;0.6976;0.4394;
611.4000;0.6943;0.4418;
611.7000;0.6935;0.4370;
612.0000;0.6903;0.4322;
612.3000;0.6878;0.4250;
612.6000;0.6862;0.4274;
612.9000;0.6854;0.4226;
613.2000;0.6838;0.4202;
613.5000;0.6789;0.4178;
613.8000;0.6797;0.4226;
614.1000;0.6797;0.4274;
614.4000;0.6764;0.4250;
614.7000;0.6716;0.4130;
615.0000;0.6707;0.4058;
615.3000;0.6707;0.4106;
615.6000;0.6699;0.4202;
615.9000;0.6667;0.4154;
616.2000;0.6659;0.4178;
616.5000;0.6650;0.4202;
616.8000;0.6642;0.4274;
617.1000;0.6610;0.4154;
617.4000;0.6610;0.4202;
617.7000;0.6593;0.4130;
618.0000;0.6577;0.4034;
618.3000;0.6561;0.3962;
618.6000;0.6545;0.3890;
618.9000;0.6528;0.3866;
619.2000;0.6528;0.3986;
619.5000;0.6512;0.3938;
619.8000;0.6488;0.3818;
620.1000;0.6471;0.3866;
620.4000;0.6463;0.3842;
620.7000;0.6463;0.3890;
621.0000;0.6455;0.3914;
621.3000;0.6431;0.3962;
621.6000;0.6431;0.3914;
621.9000;0.6431;0.3842;
622.2000;0.6398;0.3794;
622.5000;0.6382;0.3770;
622.8000;0.6374;0.3770;
623.1000;0.6365;0.3818;
623.4000;0.6325;0.3794;
623.7000;0.6357;0.3818;
624.0000;0.6365;0.3842;
624.3000;0.6325;0.3770;
624.6000;0.6333;0.3722;
624.9000;0.6300;0.3770;
625.2000;0.6300;0.3770;
625.5000;0.6260;0.3698;
625.8000;0.6268;0.3818;
626.1000;0.6292;0.3746;
626.4000;0.6252;0.3698;
626.7000;0.6260;0.3770;
627.0000;0.6341;0.4154;
627.3000;0.6211;0.3794;
627.6000;0.6219;0.3794;
627.9000;0.6243;0.3890;
628.2000;0.6154;0.3722;
628.5000;0.6203;0.3770;
628.8000;0.6186;0.3890;
629.1000;0.6178;0.3914;
629.4000;0.6211;0.3914;
629.7000;0.6178;0.3842;
630.0000;0.6162;0.3674;
630.3000;0.6170;0.3626;
630.6000;0.6146;0.3578;
630.9000;0.6154;0.3578;
631.2000;0.6129;0.3578;
631.5000;0.6121;0.3578;
631.8000;0.6129;0.3698;
632.1000;0.6121;0.3650;
632.4000;0.6121;0.3722;
632.7000;0.6178;0.3890;
633.0000;0.6089;0.3770;
633.3000;0.6089;0.3818;
633.6000;0.6097;0.3818;
633.9000;0.6081;0.3722;
634.2000;0.6089;0.3698;
634.5000;0.6064;0.3674;
634.8000;0.6072;0.3578;
635.1000;0.6048;0.3650;
635.4000;0.6032;0.3650;
635.7000;0.6040;0.3650;
636.0000;0.6024;0.3602;
636.3000;0.6032;0.3650;
636.6000;0.6015;0.3626;
636.9000;0.6015;0.3722;
637.2000;0.6015;0.3626;
637.5000;0.5999;0.3578;
637.8000;0.5999;0.3530;
638.1000;0.5991;0.3506;
638.4000;0.5991;0.3602;
638.7000;0.5983;0.3626;
639.0000;0.5975;0.3578;
639.3000;0.5958;0.3554;
639.6000;0.5975;0.3650;
639.9000;0.5967;0.3698;
640.2000;0.5950;0.3650;
640.5000;0.5950;0.3698;
640.8000;0.5942;0.3674;
641.1000;0.5942;0.3650;
641.4000;0.5950;0.3650;
641.7000;0.5918;0.3530;
642.0000;0.5926;0.3602;
642.3000;0.5934;0.3650;
642.6000;0.5934;0.3602;
642.9000;0.5902;0.3602;
643.2000;0.5902;0.3578;
643.5000;0.5910;0.3650;
643.8000;0.5877;0.3578;
644.1000;0.5893;0.3674;
644.4000;0.5885;0.3674;
644.7000;0.5893;0.3722;
645.0000;0.5885;0.3674;
645.3000;0.5885;0.3722;
645.6000;0.5861;0.3674;
645.9000;0.5869;0.3626;
646.2000;0.5877;0.3698;
646.5000;0.5853;0.3650;
646.8000;0.5853;0.3674;
647.1000;0.5828;0.3602;
647.4000;0.5836;0.3674;
647.7000;0.5845;0.3794;
648.0000;0.5836;0.3770;
648.3000;0.5845;0.3842;
648.6000;0.5845;0.3794;
648.9000;0.5812;0.3722;
649.2000;0.5828;0.3818;
649.5000;0.5804;0.3674;
649.8000;0.5820;0.3698;
650.1000;0.5788;0.3650;
650.4000;0.5796;0.3674;
650.7000;0.5796;0.3578;
651.0000;0.5796;0.3650;
651.3000;0.5804;0.3722;
651.6000;0.5812;0.3794;
651.9000;0.5771;0.3626;
652.2000;0.5779;0.3722;
652.5000;0.5796;0.3794;
652.8000;0.5812;0.3914;
653.1000;0.5755;0.3698;
653.4000;0.5902;0.4082;
653.7000;0.5771;0.3866;
654.0000;0.5779;0.3914;
654.3000;0.5779;0.3914;
654.6000;0.5771;0.3890;
654.9000;0.5755;0.3794;
655.2000;0.5763;0.3746;
655.5000;0.5763;0.3746;
655.8000;0.5731;0.3746;
656.1000;0.5731;0.3674;
656.4000;0.5731;0.3722;
656.7000;0.5731;0.3722;
657.0000;0.5731;0.3722;
657.3000;0.5836;0.4082;
657.6000;0.5722;0.3842;
657.9000;0.5714;0.3818;
658.2000;0.5722;0.3746;
658.5000;0.5722;0.3722;
658.8000;0.5731;0.3794;
659.1000;0.5714;0.3818;
659.4000;0.5771;0.3890;
659.7000;0.5698;0.3794;
660.0000;0.5706;0.3818;
660.3000;0.5722;0.3770;
660.6000;0.5731;0.3842;
660.9000;0.5657;0.3626;
661.2000;0.5690;0.3698;
661.5000;0.5682;0.3698;
661.8000;0.5674;0.3698;
662.1000;0.5674;0.3650;
662.4000;0.5665;0.3698;
662.7000;0.5682;0.3746;
663.0000;0.5674;0.3770;
663.3000;0.5657;0.3746;
663.6000;0.5649;0.3770;
663.9000;0.5674;0.3818;
664.2000;0.5633;0.3746;
664.5000;0.5657;0.3746;
664.8000;0.5649;0.3698;
665.1000;0.5674;0.3746;
665.4000;0.5657;0.3746;
665.7000;0.5649;0.3698;
666.0000;0.5633;0.3698;
666.3000;0.5641;0.3674;
666.6000;0.5649;0.3698;
666.9000;0.5625;0.3554;
667.2000;0.5641;0.3650;
667.5000;0.5641;0.3770;
667.8000;0.5633;0.3746;
668.1000;0.5625;0.3770;
668.4000;0.5608;0.3698;
668.7000;0.5551;0.3650;
669.0000;0.5625;0.3866;
669.3000;0.5617;0.3890;
669.6000;0.5600;0.3842;
669.9000;0.5600;0.3794;
670.2000;0.5617;0.3842;
670.5000;0.5657;0.3962;
670.8000;0.5608;0.3866;
671.1000;0.5617;0.3818;
671.4000;0.5608;0.3746;
671.7000;0.5625;0.3818;
672.0000;0.5617;0.3794;
672.3000;0.5592;0.3866;
672.6000;0.5584;0.3818;
672.9000;0.5600;0.3770;
673.2000;0.5608;0.3722;
673.5000;0.5600;0.3722;
673.8000;0.5584;0.3722;
674.1000;0.5592;0.3674;
674.4000;0.5584;0.3722;
674.7000;0.5584;0.3722;
675.0000;0.5576;0.3722;
675.3000;0.5576;0.3770;
675.6000;0.5584;0.3866;
675.9000;0.5584;0.3866;
676.2000;0.5560;0.3746;
676.5000;0.5576;0.3818;
676.8000;0.5584;0.3722;
677.1000;0.5568;0.3722;
677.4000;0.5568;0.3746;
677.7000;0.5568;0.3722;
678.0000;0.5560;0.3698;
678.3000;0.5576;0.3674;
678.6000;0.5560;0.3650;
678.9000;0.5535;0.3650;
679.2000;0.5543;0.3818;
679.5000;0.5527;0.3722;
679.8000;0.5560;0.3674;
680.1000;0.5560;0.3650;
680.4000;0.5535;0.3722;
680.7000;0.5551;0.3842;
681.0000;0.5462;0.3602;
681.3000;0.5576;0.3890;
681.6000;0.5551;0.3794;
681.9000;0.5560;0.3746;
682.2000;0.5535;0.3722;
682.5000;0.5486;0.3626;
682.8000;0.5511;0.3722;
683.1000;0.5511;0.3674;
683.4000;0.5551;0.3842;
683.7000;0.5527;0.3794;
684.0000;0.5560;0.3986;
684.3000;0.5511;0.3914;
684.6000;0.5503;0.3890;
684.9000;0.5527;0.3746;
685.2000;0.5511;0.3722;
685.5000;0.5527;0.3674;
685.8000;0.5519;0.3626;
686.1000;0.5478;0.3626;
686.4000;0.5568;0.3842;
686.7000;0.5519;0.3746;
687.0000;0.5503;0.3674;
687.3000;0.5527;0.3818;
687.6000;0.5503;0.3794;
687.9000;0.5503;0.3770;
688.2000;0.5486;0.3794;
688.5000;0.5495;0.3818;
688.8000;0.5486;0.3866;
689.1000;0.5486;0.3914;
689.4000;0.5495;0.3914;
689.7000;0.5503;0.3962;
690.0000;0.5511;0.3962;
690.3000;0.5495;0.3866;
690.6000;0.5535;0.3842;
690.9000;0.5527;0.3890;
691.2000;0.5478;0.3674;
691.5000;0.5495;0.3698;
691.8000;0.5462;0.3602;
692.1000;0.5470;0.3626;
692.4000;0.5495;0.3746;
692.7000;0.5495;0.3674;
693.0000;0.5381;0.3410;
693.3000;0.5470;0.3698;
693.6000;0.5478;0.3698;
693.9000;0.5446;0.3674;
694.2000;0.5454;0.3722;
694.5000;0.5478;0.3674;
694.8000;0.5470;0.3554;
695.1000;0.5454;0.3554;
695.4000;0.5446;0.3578;
695.7000;0.5446;0.3578;
696.0000;0.5486;0.3506;
696.3000;0.5454;0.3434;
696.6000;0.5446;0.3434;
696.9000;0.5438;0.3506;
697.2000;0.5446;0.3650;
697.5000;0.5454;0.3770;
697.8000;0.5429;0.3674;
698.1000;0.5438;0.3722;
698.4000;0.5454;0.3770;
698.7000;0.5438;0.3698;
699.0000;0.5438;0.3770;
699.3000;0.5438;0.3818;
699.6000;0.5454;0.3818;
699.9000;0.5470;0.3866;
700.2000;0.5429;0.3770;
700.5000;0.5429;0.3818;
700.8000;0.5462;0.3938;
701.1000;0.5446;0.3866;
701.4000;0.5454;0.3914;
701.7000;0.5429;0.3818;
702.0000;0.5446;0.3794;
702.3000;0.5446;0.3770;
702.6000;0.5429;0.3770;
702.9000;0.5413;0.3770;
703.2000;0.5429;0.3794;
703.5000;0.5438;0.3842;
703.8000;0.5413;0.3866;
704.1000;0.5429;0.3770;
704.4000;0.5397;0.3722;
704.7000;0.5438;0.3818;
705.0000;0.5405;0.3866;
705.3000;0.5429;0.4010;
705.6000;0.5421;0.3938;
705.9000;0.5405;0.3914;
706.2000;0.5405;0.3818;
706.5000;0.5397;0.3818;
706.8000;0.5413;0.3962;
707.1000;0.5446;0.4130;
707.4000;0.5413;0.4034;
707.7000;0.5397;0.4058;
708.0000;0.5372;0.3938;
708.3000;0.5397;0.3962;
708.6000;0.5397;0.3866;
708.9000;0.5413;0.3914;
709.2000;0.5389;0.3914;
709.5000;0.5381;0.3818;
709.8000;0.5405;0.3866;
710.1000;0.5389;0.3890;
710.4000;0.5405;0.3842;
710.7000;0.5389;0.3794;
711.0000;0.5413;0.3842;
711.3000;0.5389;0.3794;
711.6000;0.5364;0.3722;
711.9000;0.5389;0.3722;
712.2000;0.5348;0.3698;
712.5000;0.5381;0.3794;
712.8000;0.5372;0.3722;
713.1000;0.5405;0.3722;
713.4000;0.5372;0.3674;
713.7000;0.5364;0.3602;
714.0000;0.5372;0.3626;
714.3000;0.5381;0.3722;
714.6000;0.5389;0.3722;
714.9000;0.5429;0.3746;
715.2000;0.5372;0.3674;
715.5000;0.5381;0.3746;
715.8000;0.5356;0.3698;
716.1000;0.5372;0.3770;
716.4000;0.5372;0.3842;
716.7000;0.5389;0.3866;
717.0000;0.5381;0.3866;
717.3000;0.5405;0.3914;
717.6000;0.5389;0.3914;
717.9000;0.5356;0.3890;
718.2000;0.5364;0.3890;
718.5000;0.5429;0.4082;
718.8000;0.5381;0.3962;
719.1000;0.5372;0.3866;
719.4000;0.5340;0.3794;
719.7000;0.5381;0.3938;
720.0000;0.5356;0.3962;
720.3000;0.5348;0.4034;
720.6000;0.5348;0.4130;
720.9000;0.5340;0.3962;
721.2000;0.5307;0.3818;
721.5000;0.5356;0.3890;
721.8000;0.5348;0.3914;
722.1000;0.5381;0.3986;
722.4000;0.5364;0.3890;
722.7000;0.5446;0.4178;
723.0000;0.5348;0.3818;
723.3000;0.5324;0.3794;
723.6000;0.5397;0.3938;
723.9000;0.5340;0.3842;
724.2000;0.5315;0.3722;
724.5000;0.5356;0.3794;
724.8000;0.5267;0.3650;
725.1000;0.5348;0.3914;
725.4000;0.5332;0.3866;
725.7000;0.5429;0.4202;
726.0000;0.5340;0.4034;
726.3000;0.5324;0.4034;
726.6000;0.5340;0.4010;
726.9000;0.5348;0.4034;
727.2000;0.5340;0.4010;
727.5000;0.5340;0.3914;
727.8000;0.5340;0.3938;
728.1000;0.5340;0.3962;
728.4000;0.5242;0.3722;
728.7000;0.5315;0.3866;
729.0000;0.5340;0.3890;
729.3000;0.5324;0.3770;
729.6000;0.5315;0.3746;
729.9000;0.5324;0.3794;
730.2000;0.5356;0.3890;
730.5000;0.5299;0.3746;
730.8000;0.5324;0.3842;
731.1000;0.5307;0.3866;
731.4000;0.5324;0.3890;
731.7000;0.5332;0.4010;
732.0000;0.5324;0.3890;
732.3000;0.5307;0.3866;
732.6000;0.5340;0.3866;
732.9000;0.5332;0.3818;
733.2000;0.5332;0.3842;
733.5000;0.5258;0.3650;
733.8000;0.5299;0.3818;
734.1000;0.5307;0.3842;
734.4000;0.5324;0.3770;
734.7000;0.5307;0.3794;
735.0000;0.5315;0.3794;
735.3000;0.5332;0.3794;
735.6000;0.5315;0.3914;
735.9000;0.5315;0.3986;
736.2000;0.5315;0.3986;
736.5000;0.5324;0.4058;
736.8000;0.5307;0.4010;
737.1000;0.5324;0.4010;
737.4000;0.5299;0.4034;
737.7000;0.5299;0.4010;
738.0000;0.5307;0.4034;
738.3000;0.5291;0.3986;
738.6000;0.5324;0.4034;
738.9000;0.5258;0.3890;
739.2000;0.5299;0.4058;
739.5000;0.5299;0.4106;
739.8000;0.5307;0.4130;
740.1000;0.5324;0.4130;
740.4000;0.5299;0.4154;
740.7000;0.5332;0.4202;
741.0000;0.5299;0.4130;
741.3000;0.5324;0.4082;
741.6000;0.5356;0.4106;
741.9000;0.5275;0.3890;
742.2000;0.5299;0.3842;
742.5000;0.5299;0.3842;
742.8000;0.5291;0.3842;
743.1000;0.5275;0.3794;
743.4000;0.5291;0.3794;
743.7000;0.5275;0.3818;
744.0000;0.5291;0.3938;
744.3000;0.5307;0.3938;
744.6000;0.5267;0.3890;
744.9000;0.5283;0.3842;
745.2000;0.5291;0.3770;
745.5000;0.5299;0.3866;
745.8000;0.5283;0.3770;
746.1000;0.5299;0.3746;
746.4000;0.5315;0.3770;
746.7000;0.5275;0.3746;
747.0000;0.5283;0.3794;
747.3000;0.5283;0.3746;
747.6000;0.5275;0.3746;
747.9000;0.5291;0.3746;
748.2000;0.5283;0.3722;
748.5000;0.5283;0.3770;
748.8000;0.5283;0.3890;
749.1000;0.5283;0.3842;
749.4000;0.5275;0.3914;
749.7000;0.5307;0.4034;
750.0000;0.5275;0.3962;
750.3000;0.5275;0.3962;
750.6000;0.5291;0.4010;
750.9000;0.5267;0.3938;
751.2000;0.5275;0.3890;
751.5000;0.5275;0.3842;
751.8000;0.5267;0.3770;
752.1000;0.5267;0.3794;
752.4000;0.5258;0.3818;
752.7000;0.5258;0.3770;
753.0000;0.5258;0.3770;
753.3000;0.5267;0.3818;
753.6000;0.5242;0.3842;
753.9000;0.5267;0.3842;
754.2000;0.5275;0.3890;
754.5000;0.5283;0.3986;
754.8000;0.5258;0.4010;
755.1000;0.5283;0.4130;
755.4000;0.5267;0.4010;
755.7000;0.5275;0.4058;
756.0000;0.5258;0.4082;
756.3000;0.5291;0.4082;
756.6000;0.5267;0.4082;
756.9000;0.5275;0.4082;
757.2000;0.5283;0.4010;
757.5000;0.5218;0.3914;
757.8000;0.5275;0.4010;
758.1000;0.5242;0.3962;
758.4000;0.5258;0.3962;
758.7000;0.5250;0.3986;
759.0000;0.5226;0.3842;
759.3000;0.5250;0.3938;
759.6000;0.5258;0.3986;
759.9000;0.5242;0.3890;
760.2000;0.5242;0.3914;
760.5000;0.5267;0.4034;
760.8000;0.5299;0.4082;
761.1000;0.5267;0.4010;
761.4000;0.5242;0.3986;
761.7000;0.5258;0.4058;
762.0000;0.5242;0.3986;
762.3000;0.5258;0.3962;
762.6000;0.5218;0.3962;
762.9000;0.5242;0.4010;
763.2000;0.5242;0.3914;
763.5000;0.5201;0.3986;
763.8000;0.5275;0.4106;
764.1000;0.5242;0.4034;
764.4000;0.5250;0.3962;
764.7000;0.5226;0.3890;
765.0000;0.5258;0.3986;
765.3000;0.5250;0.4034;
765.6000;0.5234;0.3962;
765.9000;0.5258;0.4034;
766.2000;0.5242;0.3962;
766.5000;0.5267;0.4034;
766.8000;0.5210;0.3986;
767.1000;0.5250;0.4202;
767.4000;0.5234;0.4154;
767.7000;0.5267;0.4226;
768.0000;0.5250;0.4178;
768.3000;0.5226;0.4106;
768.6000;0.5226;0.4010;
768.9000;0.5242;0.4034;
769.2000;0.5218;0.4010;
769.5000;0.5226;0.4082;
769.8000;0.5226;0.4034;
770.1000;0.5226;0.3986;
770.4000;0.5218;0.4010;
770.7000;0.5234;0.4082;
771.0000;0.5218;0.4034;
771.3000;0.5226;0.4058;
771.6000;0.5226;0.4082;
771.9000;0.5193;0.4034;
772.2000;0.5234;0.4082;
772.5000;0.5218;0.4106;
772.8000;0.5226;0.4178;
773.1000;0.5226;0.4274;
773.4000;0.5250;0.4250;
773.7000;0.5210;0.4154;
774.0000;0.5226;0.4130;
774.3000;0.5201;0.4034;
774.6000;0.5210;0.4106;
774.9000;0.5234;0.4106;
775.2000;0.5234;0.4034;
775.5000;0.5226;0.4010;
775.8000;0.5218;0.4034;
776.1000;0.5226;0.4034;
776.4000;0.5218;0.4106;
776.7000;0.5218;0.4082;
777.0000;0.5226;0.4058;
777.3000;0.5218;0.4106;
777.6000;0.5218;0.4130;
777.9000;0.5226;0.4058;
778.2000;0.5226;0.4058;
778.5000;0.5250;0.4106;
778.8000;0.5226;0.4058;
779.1000;0.5226;0.4154;
779.4000;0.5201;0.4058;
779.7000;0.5218;0.4082;
780.0000;0.5210;0.4082;
780.3000;0.5210;0.4130;
780.6000;0.5201;0.4202;
780.9000;0.5226;0.4154;
781.2000;0.5226;0.4106;
781.5000;0.5226;0.4130;
781.8000;0.5201;0.4106;
782.1000;0.5234;0.4226;
782.4000;0.5218;0.4202;
782.7000;0.5234;0.4250;
783.0000;0.5201;0.4226;
783.3000;0.5201;0.4298;
783.6000;0.5193;0.4250;
783.9000;0.5218;0.4322;
784.2000;0.5193;0.4226;
784.5000;0.5210;0.4322;
784.8000;0.5193;0.4298;
785.1000;0.5242;0.4370;
785.4000;0.5218;0.4274;
785.7000;0.5250;0.4346;
786.0000;0.5218;0.4226;
786.3000;0.5193;0.4106;
786.6000;0.5218;0.4106;
786.9000;0.5161;0.3842;
787.2000;0.5210;0.3890;
787.5000;0.5210;0.3986;
787.8000;0.5201;0.4034;
788.1000;0.5218;0.3986;
788.4000;0.5193;0.3914;
788.7000;0.5210;0.3962;
789.0000;0.5193;0.3938;
789.3000;0.5136;0.3842;
789.6000;0.5201;0.3914;
789.9000;0.5218;0.3890;
790.2000;0.5210;0.3842;
790.5000;0.5218;0.3818;
790.8000;0.5218;0.3818;
791.1000;0.5218;0.3698;
791.4000;0.5218;0.3698;
791.7000;0.5218;0.3674;
792.0000;0.5218;0.3722;
792.3000;0.5210;0.3818;
792.6000;0.5226;0.3962;
792.9000;0.5218;0.3818;
793.2000;0.5169;0.3746;
793.5000;0.5201;0.3818;
793.8000;0.5193;0.3746;
794.1000;0.5201;0.3698;
794.4000;0.5193;0.3698;
794.7000;0.5210;0.3722;
795.0000;0.5201;0.3698;
795.3000;0.5193;0.3770;
795.6000;0.5177;0.3842;
795.9000;0.5120;0.3722;
796.2000;0.5201;0.3938;
796.5000;0.5201;0.3914;
796.8000;0.5177;0.3914;
797.1000;0.5193;0.3962;
797.4000;0.5201;0.4010;
797.7000;0.5193;0.3986;
798.0000;0.5193;0.3962;
798.3000;0.5185;0.3962;
798.6000;0.5185;0.3986;
798.9000;0.5193;0.3938;
799.2000;0.5185;0.3938;
799.5000;0.5185;0.3938;
799.8000;0.5201;0.3938;
800.1000;0.5218;0.3986;
800.4000;0.5136;0.3770;
800.7000;0.5185;0.3890;
801.0000;0.5193;0.3938;
801.3000;0.5201;0.3938;
801.6000;0.5193;0.3962;
801.9000;0.5185;0.4010;
802.2000;0.5144;0.3986;
802.5000;0.5177;0.4010;
802.8000;0.5210;0.3938;
803.1000;0.5193;0.3866;
803.4000;0.5177;0.3866;
803.7000;0.5177;0.3866;
804.0000;0.5096;0.3722;
804.3000;0.5193;0.3962;
804.6000;0.5193;0.3938;
804.9000;0.5177;0.3866;
805.2000;0.5185;0.3938;
805.5000;0.5079;0.3746;
805.8000;0.5169;0.3962;
806.1000;0.5169;0.3938;
806.4000;0.5185;0.3986;
806.7000;0.5169;0.3914;
807.0000;0.5169;0.4010;
807.3000;0.5185;0.4034;
807.6000;0.5185;0.3938;
807.9000;0.5201;0.3962;
808.2000;0.5177;0.3938;
808.5000;0.5128;0.3866;
808.8000;0.5169;0.4034;
809.1000;0.5185;0.3986;
809.4000;0.5185;0.3986;
809.7000;0.5161;0.3962;
810.0000;0.5169;0.4010;
810.3000;0.5177;0.4106;
810.6000;0.5161;0.4130;
810.9000;0.5161;0.4226;
811.2000;0.5193;0.4322;
811.5000;0.5177;0.4274;
811.8000;0.5177;0.4178;
812.1000;0.5169;0.4274;
812.4000;0.5161;0.4274;
812.7000;0.5177;0.4250;
813.0000;0.5193;0.4202;
813.3000;0.5096;0.3986;
813.6000;0.5088;0.3938;
813.9000;0.5193;0.4178;
814.2000;0.5185;0.4298;
814.5000;0.5161;0.4298;
814.8000;0.5153;0.4274;
815.1000;0.5153;0.4202;
815.4000;0.5169;0.4154;
815.7000;0.5169;0.4106;
816.0000;0.5169;0.4058;
816.3000;0.5161;0.4082;
816.6000;0.5177;0.4154;
816.9000;0.5096;0.3962;
817.2000;0.5136;0.4106;
817.5000;0.5161;0.4178;
817.8000;0.5169;0.4178;
818.1000;0.5185;0.4298;
818.4000;0.5169;0.4178;
818.7000;0.5185;0.4130;
819.0000;0.5161;0.4154;
819.3000;0.5153;0.3962;
819.6000;0.5161;0.4034;
819.9000;0.5177;0.4154;
820.2000;0.5161;0.4106;
820.5000;0.5136;0.4130;
820.8000;0.5153;0.4274;
821.1000;0.5177;0.4154;
821.4000;0.5161;0.4082;
821.7000;0.5161;0.4034;
822.0000;0.5177;0.4010;
822.3000;0.5177;0.4010;
822.6000;0.5226;0.4154;
822.9000;0.5177;0.4106;
823.2000;0.5169;0.4058;
823.5000;0.5185;0.4058;
823.8000;0.5144;0.4034;
824.1000;0.5169;0.4082;
824.4000;0.5177;0.4058;
824.7000;0.5177;0.3962;
825.0000;0.5177;0.3914;
825.3000;0.5169;0.3890;
825.6000;0.5161;0.3890;
825.9000;0.5153;0.4082;
826.2000;0.5169;0.4106;
826.5000;0.5161;0.4034;
826.8000;0.5177;0.4106;
827.1000;0.5234;0.4250;
827.4000;0.5144;0.4034;
827.7000;0.5144;0.4082;
828.0000;0.5177;0.4154;
828.3000;0.5185;0.4226;
828.6000;0.5161;0.4106;
828.9000;0.5153;0.4010;
829.2000;0.5161;0.3986;
829.5000;0.5169;0.4058;
829.8000;0.5161;0.4034;
830.1000;0.5185;0.4010;
830.4000;0.5153;0.3986;
830.7000;0.5161;0.4010;
831.0000;0.5153;0.4058;
831.3000;0.5161;0.4106;
831.6000;0.5128;0.3938;
831.9000;0.5161;0.4010;
832.2000;0.5153;0.3986;
832.5000;0.5169;0.4106;
832.8000;0.5161;0.4058;
833.1000;0.5153;0.3962;
833.4000;0.5153;0.3938;
833.7000;0.5210;0.3986;
834.0000;0.5193;0.3986;
834.3000;0.5153;0.3890;
834.6000;0.5161;0.3962;
834.9000;0.5161;0.4010;
835.2000;0.5161;0.3962;
835.5000;0.5144;0.3938;
835.8000;0.5153;0.3962;
836.1000;0.5153;0.3914;
836.4000;0.5161;0.4058;
836.7000;0.5161;0.4106;
837.0000;0.5136;0.4130;
837.3000;0.5169;0.4202;
837.6000;0.5169;0.4130;
837.9000;0.5161;0.4058;
838.2000;0.5096;0.3938;
838.5000;0.5136;0.4058;
838.8000;0.5153;0.4082;
839.1000;0.5144;0.4106;
839.4000;0.5161;0.4274;
839.7000;0.5161;0.4274;
840.0000;0.5153;0.4250;
840.3000;0.5153;0.4298;
840.6000;0.5144;0.4274;
840.9000;0.5047;0.3986;
841.2000;0.5153;0.4322;
841.5000;0.5144;0.4298;
841.8000;0.5136;0.4274;
842.1000;0.5128;0.4154;
842.4000;0.5177;0.4226;
842.7000;0.5161;0.4154;
843.0000;0.5153;0.4226;
843.3000;0.5136;0.4298;
843.6000;0.5128;0.4298;
843.9000;0.5144;0.4202;
844.2000;0.5144;0.4202;
844.5000;0.5128;0.4154;
844.8000;0.5153;0.4274;
845.1000;0.5128;0.4130;
845.4000;0.5153;0.4274;
845.7000;0.5128;0.4202;
846.0000;0.5144;0.4178;
846.3000;0.5153;0.4226;
846.6000;0.5104;0.4082;
846.9000;0.5136;0.4106;
847.2000;0.5153;0.4130;
847.5000;0.5136;0.4178;
847.8000;0.5153;0.4178;
848.1000;0.5144;0.4202;
848.4000;0.5153;0.4298;
848.7000;0.5144;0.4298;
849.0000;0.5120;0.4298;
849.3000;0.5128;0.4370;
849.6000;0.5128;0.4226;
849.9000;0.5144;0.4202;
850.2000;0.5153;0.4178;
850.5000;0.5169;0.4130;
850.8000;0.5112;0.4034;
851.1000;0.5153;0.4106;
851.4000;0.5153;0.4130;
851.7000;0.5153;0.4034;
852.0000;0.5144;0.4034;
852.3000;0.5153;0.3986;
852.6000;0.5136;0.3890;
852.9000;0.5128;0.3890;
853.2000;0.5128;0.3938;
853.5000;0.5079;0.3890;
853.8000;0.5161;0.4034;
854.1000;0.5128;0.3938;
854.4000;0.5144;0.4010;
854.7000;0.5120;0.3962;
855.0000;0.5104;0.4010;
855.3000;0.5128;0.4082;
855.6000;0.5201;0.4322;
855.9000;0.5071;0.4034;
856.2000;0.5120;0.4082;
856.5000;0.5201;0.4226;
856.8000;0.5120;0.4106;
857.1000;0.5128;0.4034;
857.4000;0.5128;0.3962;
857.7000;0.5112;0.4010;
858.0000;0.5144;0.4010;
858.3000;0.5144;0.3938;
858.6000;0.5128;0.3986;
858.9000;0.5144;0.4034;
859.2000;0.5128;0.3986;
859.5000;0.5128;0.3986;
859.8000;0.5120;0.4058;
860.1000;0.5088;0.4058;
860.4000;0.5136;0.4202;
860.7000;0.5128;0.4202;
861.0000;0.5104;0.4202;
861.3000;0.5144;0.4274;
861.6000;0.5128;0.4202;
861.9000;0.5161;0.4274;
862.2000;0.5136;0.4274;
862.5000;0.5128;0.4346;
862.8000;0.5169;0.4394;
863.1000;0.5136;0.4298;
863.4000;0.5128;0.4274;
863.7000;0.5144;0.4346;
864.0000;0.5153;0.4442;
864.3000;0.5128;0.4514;
864.6000;0.5128;0.4394;
864.9000;0.5120;0.4418;
865.2000;0.5104;0.4394;
865.5000;0.5112;0.4346;
865.8000;0.5112;0.4298;
866.1000;0.5120;0.4322;
866.4000;0.5144;0.4298;
866.7000;0.5136;0.4226;
867.0000;0.5112;0.4226;
867.3000;0.5055;0.4106;
867.6000;0.5112;0.4226;
867.9000;0.5136;0.4226;
868.2000;0.5120;0.4202;
868.5000;0.5120;0.4250;
868.8000;0.5120;0.4250;
869.1000;0.5136;0.4298;
869.4000;0.5120;0.4346;
869.7000;0.5112;0.4346;
870.0000;0.5120;0.4322;
870.3000;0.5096;0.4274;
870.6000;0.5112;0.4394;
870.9000;0.5112;0.4322;
871.2000;0.5128;0.4346;
871.5000;0.5128;0.4250;
871.8000;0.5193;0.4466;
872.1000;0.5128;0.4202;
872.4000;0.5120;0.4202;
872.7000;0.5136;0.4178;
873.0000;0.5136;0.4034;
873.3000;0.5144;0.3986;
873.6000;0.5161;0.4034;
873.9000;0.5096;0.3890;
874.2000;0.5128;0.4034;
874.5000;0.5128;0.4034;
874.8000;0.5104;0.4058;
875.1000;0.5128;0.4202;
875.4000;0.5128;0.4250;
875.7000;0.5128;0.4274;
876.0000;0.5120;0.4298;
876.3000;0.5112;0.4226;
876.6000;0.5128;0.4274;
876.9000;0.5088;0.4154;
877.2000;0.5112;0.4274;
877.5000;0.5112;0.4298;
877.8000;0.5193;0.4466;
878.1000;0.5120;0.4370;
878.4000;0.5112;0.4418;
878.7000;0.5128;0.4346;
879.0000;0.5104;0.4322;
879.3000;0.5112;0.4274;
879.6000;0.5153;0.4370;
879.9000;0.5104;0.4346;
880.2000;0.5128;0.4370;
880.5000;0.5047;0.4106;
880.8000;0.5096;0.4250;
881.1000;0.5112;0.4130;
881.4000;0.5128;0.4178;
881.7000;0.5128;0.4106;
882.0000;0.5112;0.4082;
882.3000;0.5096;0.4034;
882.6000;0.5120;0.4130;
882.9000;0.5096;0.3986;
883.2000;0.5112;0.4082;
883.5000;0.5104;0.4058;
883.8000;0.5104;0.4034;
884.1000;0.5112;0.4082;
884.4000;0.5120;0.4154;
884.7000;0.5112;0.4106;
885.0000;0.5104;0.4106;
885.3000;0.5120;0.4106;
885.6000;0.5120;0.4034;
885.9000;0.5079;0.3986;
886.2000;0.5120;0.4010;
886.5000;0.5128;0.3986;
886.8000;0.5128;0.4010;
887.1000;0.5112;0.4034;
887.4000;0.5193;0.4298;
887.7000;0.5104;0.4082;
888.0000;0.5104;0.4082;
888.3000;0.5112;0.4010;
888.6000;0.5112;0.4058;
888.9000;0.5014;0.3866;
889.2000;0.5104;0.4082;
889.5000;0.5136;0.4130;
889.8000;0.5096;0.4082;
890.1000;0.5104;0.4178;
890.4000;0.5104;0.4154;
890.7000;0.5112;0.4154;
891.0000;0.5128;0.4082;
891.3000;0.5136;0.4082;
891.6000;0.5112;0.4010;
891.9000;0.5112;0.3986;
892.2000;0.5112;0.4010;
892.5000;0.5112;0.4034;
892.8000;0.5096;0.4010;
893.1000;0.5128;0.4082;
893.4000;0.5112;0.4034;
893.7000;0.5112;0.4034;
894.0000;0.5088;0.4010;
894.3000;0.5120;0.4130;
894.6000;0.5161;0.4298;
894.9000;0.5096;0.4154;
895.2000;0.5104;0.4250;
895.5000;0.5153;0.4370;
895.8000;0.5071;0.4130;
896.1000;0.5088;0.4226;
896.4000;0.5096;0.4202;
896.7000;0.5112;0.4274;
897.0000;0.5112;0.4322;
897.3000;0.5104;0.4202;
897.6000;0.5128;0.4178;
897.9000;0.5112;0.4226;
898.2000;0.5185;0.4346;
898.5000;0.5120;0.4250;
898.8000;0.5104;0.4202;
899.1000;0.5161;0.4274;
899.4000;0.5055;0.4034;
899.7000;0.5112;0.4274;
900.0000;0.5088;0.4298;
900.3000;0.5104;0.4250;
900.6000;0.5096;0.4298;
900.9000;0.5128;0.4346;
901.2000;0.5031;0.4130;
901.5000;0.5088;0.4298;
901.8000;0.5088;0.4394;
902.1000;0.5120;0.4514;
902.4000;0.5104;0.4442;
902.7000;0.5088;0.4394;
903.0000;0.5104;0.4490;
903.3000;0.5104;0.4466;
903.6000;0.5096;0.4418;
903.9000;0.5088;0.4442;
904.2000;0.5088;0.4394;
904.5000;0.5096;0.4442;
904.8000;0.5079;0.4394;
905.1000;0.5096;0.4442;
905.4000;0.5104;0.4370;
905.7000;0.5104;0.4346;
906.0000;0.5112;0.4322;
906.3000;0.5088;0.4322;
906.6000;0.5079;0.4322;
906.9000;0.5096;0.4274;
907.2000;0.5104;0.4274;
907.5000;0.5128;0.4298;
907.8000;0.5088;0.4250;
908.1000;0.5104;0.4250;
908.4000;0.5120;0.4298;
908.7000;0.5104;0.4274;
909.0000;0.5104;0.4250;
909.3000;0.5096;0.4178;
909.6000;0.5088;0.4106;
909.9000;0.5079;0.4130;
910.2000;0.5088;0.4178;
910.5000;0.5096;0.4202;
910.8000;0.5079;0.4106;
911.1000;0.5120;0.4202;
911.4000;0.5088;0.4178;
911.7000;0.5079;0.4130;
912.0000;0.5096;0.4202;
912.3000;0.5079;0.4178;
912.6000;0.5096;0.4322;
912.9000;0.5088;0.4322;
913.2000;0.5079;0.4274;
913.5000;0.5088;0.4274;
913.8000;0.5161;0.4322;
914.1000;0.5079;0.4202;
914.4000;0.5079;0.4274;
914.7000;0.5071;0.4322;
915.0000;0.5071;0.4370;
915.3000;0.5104;0.4490;
915.6000;0.5079;0.4442;
915.9000;0.5088;0.4394;
916.2000;0.5079;0.4322;
916.5000;0.5063;0.4322;
916.8000;0.5079;0.4370;
917.1000;0.5079;0.4370;
917.4000;0.5104;0.4370;
917.7000;0.5096;0.4322;
918.0000;0.5096;0.4274;
918.3000;0.5153;0.4442;
918.6000;0.5096;0.4346;
918.9000;0.5088;0.4370;
919.2000;0.5096;0.4322;
919.5000;0.5079;0.4202;
919.8000;0.5104;0.4298;
920.1000;0.5079;0.4178;
920.4000;0.5088;0.4226;
920.7000;0.5079;0.4202;
921.0000;0.5063;0.4178;
921.3000;0.5088;0.4274;
921.6000;0.5071;0.4274;
921.9000;0.5079;0.4250;
922.2000;0.5079;0.4250;
922.5000;0.5063;0.4322;
922.8000;0.5104;0.4322;
923.1000;0.5079;0.4298;
923.4000;0.5071;0.4250;
923.7000;0.5128;0.4418;
924.0000;0.5096;0.4394;
924.3000;0.5079;0.4298;
924.6000;0.5088;0.4226;
924.9000;0.5112;0.4346;
925.2000;0.5096;0.4370;
925.5000;0.5079;0.4274;
925.8000;0.5096;0.4250;
926.1000;0.5088;0.4274;
926.4000;0.5096;0.4298;
926.7000;0.5071;0.4274;
927.0000;0.5079;0.4274;
927.3000;0.5071;0.4346;
927.6000;0.5088;0.4466;
927.9000;0.5079;0.4394;
928.2000;0.5063;0.4346;
928.5000;0.5096;0.4370;
928.8000;0.5088;0.4370;
929.1000;0.5088;0.4370;
929.4000;0.5088;0.4322;
929.7000;0.5088;0.4346;
930.0000;0.5088;0.4418;
930.3000;0.5039;0.4298;
930.6000;0.5088;0.4442;
930.9000;0.5104;0.4442;
931.2000;0.5088;0.4346;
931.5000;0.5104;0.4418;
931.8000;0.5104;0.4394;
932.1000;0.5096;0.4274;
932.4000;0.5120;0.4298;
932.7000;0.5096;0.4298;
933.0000;0.5088;0.4370;
933.3000;0.5047;0.4346;
933.6000;0.5071;0.4418;
933.9000;0.5063;0.4394;
934.2000;0.5112;0.4418;
934.5000;0.5096;0.4394;
934.8000;0.5104;0.4418;
935.1000;0.5079;0.4274;
935.4000;0.5104;0.4346;
935.7000;0.5088;0.4394;
936.0000;0.5112;0.4442;
936.3000;0.5071;0.4418;
936.6000;0.5096;0.4442;
936.9000;0.5088;0.4418;
937.2000;0.5063;0.4274;
937.5000;0.5079;0.4346;
937.8000;0.5112;0.4346;
938.1000;0.5096;0.4346;
938.4000;0.5088;0.4322;
938.7000;0.5104;0.4346;
939.0000;0.5079;0.4226;
939.3000;0.5022;0.4226;
939.6000;0.5088;0.4346;
939.9000;0.5079;0.4322;
940.2000;0.5079;0.4274;
940.5000;0.5063;0.4274;
940.8000;0.5055;0.4250;
941.1000;0.5063;0.4322;
941.4000;0.5063;0.4298;
941.7000;0.5096;0.4322;
942.0000;0.5079;0.4298;
942.3000;0.5071;0.4298;
942.6000;0.5088;0.4274;
942.9000;0.5079;0.4250;
943.2000;0.5096;0.4322;
943.5000;0.5047;0.4322;
943.8000;0.5144;0.4562;
944.1000;0.5088;0.4394;
944.4000;0.5088;0.4442;
944.7000;0.5079;0.4370;
945.0000;0.5055;0.4322;
945.3000;0.5079;0.4418;
945.6000;0.5079;0.4394;
945.9000;0.5063;0.4370;
946.2000;0.5071;0.4274;
946.5000;0.5079;0.4202;
946.8000;0.5063;0.4250;
947.1000;0.5071;0.4226;
947.4000;0.5071;0.4106;
947.7000;0.5096;0.4154;
948.0000;0.5096;0.4154;
948.3000;0.5088;0.4178;
948.6000;0.5006;0.3986;
948.9000;0.5079;0.4298;
949.2000;0.5071;0.4322;
949.5000;0.5071;0.4322;
949.8000;0.5088;0.4394;
950.1000;0.5079;0.4322;
950.4000;0.5144;0.4490;
950.7000;0.5096;0.4418;
951.0000;0.5055;0.4298;
951.3000;0.5055;0.4298;
951.6000;0.5079;0.4346;
951.9000;0.5088;0.4346;
952.2000;0.5088;0.4370;
952.5000;0.5169;0.4586;
952.8000;0.5088;0.4394;
953.1000;0.5088;0.4394;
953.4000;0.5079;0.4322;
953.7000;0.5055;0.4250;
954.0000;0.5063;0.4298;
954.3000;0.5063;0.4274;
954.6000;0.5079;0.4274;
954.9000;0.5031;0.4130;
955.2000;0.5014;0.4034;
955.5000;0.5063;0.4154;
955.8000;0.5063;0.4178;
956.1000;0.5071;0.4226;
956.4000;0.5071;0.4322;
956.7000;0.5079;0.4298;
957.0000;0.5088;0.4298;
957.3000;0.5063;0.4274;
957.6000;0.5063;0.4370;
957.9000;0.5071;0.4394;
958.2000;0.5104;0.4442;
958.5000;0.5088;0.4442;
958.8000;0.5063;0.4418;
959.1000;0.5079;0.4490;
959.4000;0.5079;0.4466;
959.7000;0.5096;0.4514;
960.0000;0.5079;0.4418;
960.3000;0.5088;0.4466;
960.6000;0.5088;0.4538;
960.9000;0.5079;0.4610;
961.2000;0.5055;0.4466;
961.5000;0.5063;0.4490;
961.8000;0.5079;0.4610;
962.1000;0.5063;0.4610;
962.4000;0.5079;0.4586;
962.7000;0.5063;0.4514;
963.0000;0.5071;0.4442;
963.3000;0.5071;0.4418;
963.6000;0.5088;0.4370;
963.9000;0.5079;0.4346;
964.2000;0.5079;0.4346;
964.5000;0.5079;0.4394;
964.8000;0.5047;0.4322;
965.1000;0.5071;0.4418;
965.4000;0.5039;0.4346;
965.7000;0.5055;0.4370;
966.0000;0.5055;0.4514;
966.3000;0.5047;0.4490;
966.6000;0.5128;0.4683;
966.9000;0.5088;0.4634;
967.2000;0.5079;0.4610;
967.5000;0.5088;0.4610;
967.8000;0.5088;0.4514;
968.1000;0.5079;0.4538;
968.4000;0.5088;0.4538;
968.7000;0.5079;0.4490;
969.0000;0.5079;0.4562;
969.3000;0.5079;0.4490;
969.6000;0.5128;0.4634;
969.9000;0.5055;0.4370;
970.2000;0.5079;0.4346;
970.5000;0.5088;0.4298;
970.8000;0.5079;0.4298;
971.1000;0.5071;0.4274;
971.4000;0.5071;0.4250;
971.7000;0.5136;0.4394;
972.0000;0.5063;0.4346;
972.3000;0.5055;0.4346;
972.6000;0.5071;0.4442;
972.9000;0.5055;0.4466;
973.2000;0.5079;0.4394;
973.5000;0.5096;0.4394;
973.8000;0.5063;0.4274;
974.1000;0.5055;0.4274;
974.4000;0.5079;0.4322;
974.7000;0.5055;0.4250;
975.0000;0.5063;0.4346;
975.3000;0.5063;0.4394;
975.6000;0.5112;0.4490;
975.9000;0.5071;0.4442;
976.2000;0.5071;0.4394;
976.5000;0.5055;0.4418;
976.8000;0.5063;0.4370;
977.1000;0.5063;0.4274;
977.4000;0.5079;0.4298;
977.7000;0.5055;0.4250;
978.0000;0.5063;0.4226;
978.3000;0.5055;0.4178;
978.6000;0.5063;0.4130;
978.9000;0.5063;0.4154;
979.2000;0.5063;0.4130;
979.5000;0.5079;0.4202;
979.8000;0.5088;0.4178;
980.1000;0.5055;0.4154;
980.4000;0.5079;0.4202;
980.7000;0.5063;0.4178;
981.0000;0.5104;0.4298;
981.3000;0.5063;0.4202;
981.6000;0.5079;0.4178;
981.9000;0.5071;0.4250;
982.2000;0.5063;0.4202;
982.5000;0.5071;0.4298;
982.8000;0.5063;0.4370;
983.1000;0.5047;0.4298;
983.4000;0.5063;0.4370;
983.7000;0.5063;0.4274;
984.0000;0.5055;0.4298;
984.3000;0.5063;0.4322;
984.6000;0.5071;0.4226;
984.9000;0.5063;0.4154;
985.2000;0.5088;0.4178;
985.5000;0.5079;0.4178;
985.8000;0.5079;0.4106;
986.1000;0.5071;0.4130;
986.4000;0.5055;0.4154;
986.7000;0.5022;0.4178;
987.0000;0.5047;0.4298;
987.3000;0.5112;0.4442;
987.6000;0.5071;0.4298;
987.9000;0.5071;0.4274;
988.2000;0.5063;0.4154;
988.5000;0.5096;0.4274;
988.8000;0.5047;0.4130;
989.1000;0.5047;0.4034;
989.4000;0.5055;0.4106;
989.7000;0.5055;0.4130;
990.0000;0.5071;0.4202;
990.3000;0.5055;0.4226;
990.6000;0.5039;0.4202;
990.9000;0.5071;0.4250;
991.2000;0.5063;0.4274;
991.5000;0.5136;0.4466;
991.8000;0.5063;0.4202;
992.1000;0.5063;0.4058;
992.4000;0.5063;0.4010;
992.7000;0.5063;0.4058;
993.0000;0.5063;0.4178;
993.3000;0.5047;0.4154;
993.6000;0.5144;0.4346;
993.9000;0.5079;0.4202;
994.2000;0.5104;0.4322;
994.5000;0.5063;0.4250;
994.8000;0.5079;0.4322;
995.1000;0.5063;0.4322;
995.4000;0.5088;0.4370;
995.7000;0.5079;0.4370;
996.0000;0.5063;0.4322;
996.3000;0.5063;0.4274;
996.6000;0.5055;0.4178;
996.9000;0.5120;0.4418;
997.2000;0.5079;0.4298;
997.5000;0.5022;0.4202;
997.8000;0.5047;0.4298;
998.1000;0.5063;0.4346;
998.4000;0.5071;0.4298;
998.7000;0.5120;0.4370;
999.0000;0.5079;0.4202;
999.3000;0.5063;0.4226;
999.6000;0.5063;0.4178;
999.9000;0.5071;0.4226;
1000.2000;0.5088;0.4274;
1000.5000;0.5063;0.4178;
1000.8000;0.5055;0.4106;
1001.1000;0.5063;0.4082;
1001.4000;0.5071;0.4202;
1001.7000;0.5047;0.4178;
1002.0000;0.5055;0.4202;
1002.3000;0.5047;0.4202;
1002.6000;0.5055;0.4298;
1002.9000;0.5055;0.4298;
1003.2000;0.5047;0.4154;
1003.5000;0.5047;0.4274;
1003.8000;0.5063;0.4322;
1004.1000;0.5079;0.4274;
1004.4000;0.5071;0.4226;
1004.7000;0.5063;0.4154;
1005.0000;0.5136;0.4274;
1005.3000;0.5096;0.4226;
1005.6000;0.5071;0.4202;
1005.9000;0.5055;0.4250;
1006.2000;0.5047;0.4322;
1006.5000;0.5055;0.4370;
1006.8000;0.5055;0.4418;
1007.1000;0.5055;0.4370;
1007.4000;0.5055;0.4370;
1007.7000;0.5088;0.4442;
1008.0000;0.5063;0.4298;
1008.3000;0.5055;0.4202;
1008.6000;0.5055;0.4298;
1008.9000;0.5063;0.4298;
1009.2000;0.5063;0.4274;
1009.5000;0.5079;0.4250;
1009.8000;0.5055;0.4202;
1010.1000;0.5047;0.4154;
1010.4000;0.5153;0.4490;
1010.7000;0.5071;0.4274;
1011.0000;0.5055;0.4298;
1011.3000;0.5063;0.4370;
1011.6000;0.5096;0.4418;
1011.9000;0.5063;0.4322;
1012.2000;0.5047;0.4322;
1012.5000;0.5047;0.4322;
1012.8000;0.5022;0.4250;
1013.1000;0.5055;0.4250;
1013.4000;0.5063;0.4274;
1013.7000;0.5047;0.4250;
1014.0000;0.5063;0.4250;
1014.3000;0.5055;0.4082;
1014.6000;0.5047;0.4058;
1014.9000;0.5071;0.4178;
1015.2000;0.5055;0.4178;
1015.5000;0.5055;0.4226;
1015.8000;0.5063;0.4250;
1016.1000;0.5047;0.4202;
1016.4000;0.5063;0.4178;
1016.7000;0.5047;0.4130;
1017.0000;0.5063;0.4250;
1017.3000;0.5063;0.4178;
1017.6000;0.5031;0.4130;
1017.9000;0.5071;0.4298;
1018.2000;0.5063;0.4298;
1018.5000;0.5071;0.4322;
1018.8000;0.5063;0.4370;
1019.1000;0.5055;0.4322;
1019.4000;0.5063;0.4346;
1019.7000;0.5055;0.4394;
1020.0000;0.5047;0.4394;
1020.3000;0.5071;0.4346;
1020.6000;0.5071;0.4250;
1020.9000;0.5063;0.4226;
1021.2000;0.5096;0.4298;
1021.5000;0.5071;0.4178;
1021.8000;0.5047;0.4082;
1022.1000;0.5063;0.4034;
1022.4000;0.5063;0.3962;
1022.7000;0.5055;0.3842;
1023.0000;0.5088;0.3938;
1023.3000;0.5071;0.4010;
1023.6000;0.5039;0.4034;
1023.9000;0.5039;0.4154;
1024.2000;0.5039;0.4130;
1024.5000;0.5063;0.4178;
1024.8000;0.5047;0.4178;
1025.1000;0.5055;0.4130;
1025.4000;0.5096;0.4250;
1025.7000;0.5079;0.4226;
1026.0000;0.5112;0.4370;
1026.3000;0.5047;0.4250;
1026.6000;0.5079;0.4178;
1026.9000;0.5063;0.4106;
1027.2000;0.5071;0.4106;
1027.5000;0.5063;0.4082;
1027.8000;0.5031;0.4082;
1028.1000;0.5071;0.4130;
1028.4000;0.5047;0.4106;
1028.7000;0.5047;0.4058;
1029.0000;0.5055;0.4082;
1029.3000;0.5071;0.4106;
1029.6000;0.5071;0.4082;
1029.9000;0.5071;0.4082;
1030.2000;0.5047;0.4202;
1030.5000;0.5039;0.4178;
1030.8000;0.5055;0.4178;
1031.1000;0.5055;0.4154;
1031.4000;0.5063;0.4106;
1031.7000;0.5063;0.4058;
1032.0000;0.5079;0.4082;
1032.3000;0.5063;0.4058;
1032.6000;0.5055;0.4034;
1032.9000;0.5055;0.4082;
1033.2000;0.5039;0.4058;
1033.5000;0.5047;0.4130;
1033.8000;0.5063;0.4154;
1034.1000;0.5063;0.4130;
1034.4000;0.5063;0.4106;
1034.7000;0.5071;0.4154;
1035.0000;0.5047;0.4034;
1035.3000;0.5063;0.4034;
1035.6000;0.5071;0.4058;
1035.9000;0.5063;0.4058;
1036.2000;0.5047;0.4010;
1036.5000;0.5039;0.4034;
1036.8000;0.5039;0.4082;
1037.1000;0.5014;0.4058;
1037.4000;0.5031;0.4130;
1037.7000;0.5039;0.4178;
1038.0000;0.5022;0.4082;
1038.3000;0.5055;0.4034;
1038.6000;0.5055;0.4106;
1038.9000;0.5063;0.4034;
1039.2000;0.5055;0.3962;
1039.5000;0.5055;0.3962;
1039.8000;0.5055;0.3962;
1040.1000;0.5055;0.4058;
1040.4000;0.5063;0.4154;
1040.7000;0.5071;0.4130;
1041.0000;0.5071;0.4058;
1041.3000;0.5071;0.4058;
1041.6000;0.5055;0.4058;
1041.9000;0.5039;0.4130;
1042.2000;0.5071;0.4298;
1042.5000;0.5063;0.4274;
1042.8000;0.5088;0.4370;
1043.1000;0.5047;0.4250;
1043.4000;0.5096;0.4346;
1043.7000;0.5022;0.4226;
1044.0000;0.5039;0.4274;
1044.3000;0.5047;0.4202;
1044.6000;0.5047;0.4178;
1044.9000;0.5079;0.4178;
1045.2000;0.5031;0.4058;
1045.5000;0.5144;0.4490;
1045.8000;0.5055;0.4322;
1046.1000;0.4998;0.4178;
1046.4000;0.5039;0.4274;
1046.7000;0.5031;0.4298;
1047.0000;0.5088;0.4442;
1047.3000;0.5055;0.4346;
1047.6000;0.5047;0.4322;
1047.9000;0.5031;0.4226;
1048.2000;0.5088;0.4322;
1048.5000;0.5039;0.4226;
1048.8000;0.5014;0.4178;
1049.1000;0.5055;0.4322;
1049.4000;0.5063;0.4226;
1049.7000;0.5055;0.4298;
1050.0000;0.5055;0.4394;
1050.3000;0.5055;0.4394;
1050.6000;0.5063;0.4346;
1050.9000;0.4965;0.3986;
1051.2000;0.5055;0.4178;
1051.5000;0.5071;0.4250;
1051.8000;0.5055;0.4202;
1052.1000;0.5039;0.4154;
1052.4000;0.5055;0.4250;
1052.7000;0.5055;0.4250;
1053.0000;0.5047;0.4250;
1053.3000;0.5047;0.4202;
1053.6000;0.5063;0.4250;
1053.9000;0.5006;0.4154;
1054.2000;0.5039;0.4178;
1054.5000;0.5047;0.4250;
1054.8000;0.5055;0.4202;
1055.1000;0.5071;0.4250;
1055.4000;0.4965;0.4034;
1055.7000;0.5071;0.4250;
1056.0000;0.5063;0.4298;
1056.3000;0.5071;0.4274;
1056.6000;0.5039;0.4154;
1056.9000;0.5022;0.4226;
1057.2000;0.5031;0.4322;
1057.5000;0.5047;0.4346;
1057.8000;0.5047;0.4322;
1058.1000;0.5063;0.4226;
1058.4000;0.5047;0.4226;
1058.7000;0.5031;0.4130;
1059.0000;0.5039;0.4106;
1059.3000;0.5047;0.4106;
1059.6000;0.5014;0.4034;
1059.9000;0.5071;0.4154;
1060.2000;0.5063;0.4034;
1060.5000;0.5063;0.3938;
1060.8000;0.5039;0.3962;
1061.1000;0.5047;0.3986;
1061.4000;0.5055;0.4034;
1061.7000;0.5063;0.4034;
1062.0000;0.5055;0.4178;
1062.3000;0.5047;0.4178;
1062.6000;0.5055;0.4226;
1062.9000;0.5047;0.4202;
1063.2000;0.5047;0.4250;
1063.5000;0.5031;0.4274;
1063.8000;0.5014;0.4202;
1064.1000;0.5039;0.4178;
1064.4000;0.5047;0.4178;
1064.7000;0.5031;0.4130;
1065.0000;0.5039;0.4130;
1065.3000;0.5047;0.4154;
1065.6000;0.5031;0.4010;
1065.9000;0.5022;0.4034;
1066.2000;0.5047;0.4058;
1066.5000;0.5055;0.4106;
1066.8000;0.5031;0.4106;
1067.1000;0.5022;0.4058;
1067.4000;0.5022;0.4082;
1067.7000;0.5039;0.4106;
1068.0000;0.5055;0.4154;
1068.3000;0.5055;0.4106;
1068.6000;0.5088;0.4226;
1068.9000;0.5047;0.4130;
1069.2000;0.5071;0.4154;
1069.5000;0.5079;0.4298;
1069.8000;0.5055;0.4298;
1070.1000;0.5071;0.4370;
1070.4000;0.5088;0.4346;
1070.7000;0.5047;0.4298;
1071.0000;0.5063;0.4274;
1071.3000;0.5055;0.4370;
1071.6000;0.5039;0.4442;
1071.9000;0.5031;0.4346;
1072.2000;0.5047;0.4346;
1072.5000;0.5047;0.4274;
1072.8000;0.5055;0.4250;
1073.1000;0.5047;0.4178;
1073.4000;0.5047;0.4298;
1073.7000;0.5047;0.4370;
1074.0000;0.5071;0.4490;
1074.3000;0.5055;0.4466;
1074.6000;0.5039;0.4418;
1074.9000;0.5031;0.4370;
1075.2000;0.5047;0.4466;
1075.5000;0.5022;0.4418;
1075.8000;0.5031;0.4442;
1076.1000;0.5039;0.4490;
1076.4000;0.5039;0.4370;
1076.7000;0.5047;0.4394;
1077.0000;0.5039;0.4322;
1077.3000;0.5039;0.4322;
1077.6000;0.5047;0.4346;
1077.9000;0.5071;0.4442;
1078.2000;0.5006;0.4226;
1078.5000;0.5031;0.4274;
1078.8000;0.5022;0.4250;
1079.1000;0.5039;0.4298;
1079.4000;0.5031;0.4322;
1079.7000;0.5039;0.4346;
1080.0000;0.5039;0.4394;
1080.3000;0.5055;0.4346;
1080.6000;0.5055;0.4274;
1080.9000;0.5047;0.4274;
1081.2000;0.5031;0.4298;
1081.5000;0.5055;0.4322;
1081.8000;0.5047;0.4274;
1082.1000;0.5031;0.4226;
1082.4000;0.5047;0.4274;
1082.7000;0.5047;0.4298;
1083.0000;0.5047;0.4322;
1083.3000;0.5047;0.4322;
1083.6000;0.5039;0.4394;
1083.9000;0.5031;0.4466;
1084.2000;0.5039;0.4562;
1084.5000;0.5079;0.4634;
1084.8000;0.5039;0.4562;
1085.1000;0.5031;0.4466;
1085.4000;0.5031;0.4442;
1085.7000;0.5071;0.4586;
1086.0000;0.5039;0.4418;
1086.3000;0.5031;0.4370;
1086.6000;0.5047;0.4370;
1086.9000;0.5047;0.4394;
1087.2000;0.5039;0.4442;
1087.5000;0.5047;0.4442;
1087.8000;0.4974;0.4274;
1088.1000;0.5039;0.4418;
1088.4000;0.5047;0.4442;
1088.7000;0.5006;0.4346;
1089.0000;0.5039;0.4466;
1089.3000;0.5039;0.4418;
1089.6000;0.5031;0.4298;
1089.9000;0.5039;0.4322;
1090.2000;0.5039;0.4346;
1090.5000;0.5047;0.4394;
1090.8000;0.5047;0.4322;
1091.1000;0.5055;0.4346;
1091.4000;0.5047;0.4370;
1091.7000;0.5047;0.4394;
1092.0000;0.5047;0.4514;
1092.3000;0.5039;0.4514;
1092.6000;0.5088;0.4707;
1092.9000;0.5047;0.4586;
1093.2000;0.4998;0.4466;
1093.5000;0.5014;0.4490;
1093.8000;0.5031;0.4514;
1094.1000;0.5039;0.4538;
1094.4000;0.5047;0.4490;
1094.7000;0.5047;0.4586;
1095.0000;0.5047;0.4610;
1095.3000;0.5039;0.4490;
1095.6000;0.5039;0.4466;
1095.9000;0.5039;0.4490;
1096.2000;0.5055;0.4466;
1096.5000;0.5039;0.4466;
1096.8000;0.5047;0.4466;
1097.1000;0.5039;0.4538;
1097.4000;0.5014;0.4514;
1097.7000;0.5039;0.4586;
1098.0000;0.5022;0.4490;
1098.3000;0.5047;0.4514;
1098.6000;0.5031;0.4490;
1098.9000;0.5031;0.4514;
1099.2000;0.5022;0.4538;
1099.5000;0.5047;0.4562;
1099.8000;0.5039;0.4490;
1100.1000;0.5047;0.4418;
1100.4000;0.5014;0.4298;
1100.7000;0.5039;0.4346;
1101.0000;0.5039;0.4274;
1101.3000;0.5039;0.4250;
1101.6000;0.5031;0.4178;
1101.9000;0.5031;0.4154;
1102.2000;0.4982;0.4010;
1102.5000;0.5031;0.4178;
1102.8000;0.5039;0.4226;
1103.1000;0.5039;0.4202;
1103.4000;0.5047;0.4250;
1103.7000;0.5022;0.4226;
1104.0000;0.5031;0.4274;
1104.3000;0.5031;0.4226;
1104.6000;0.4949;0.3986;
1104.9000;0.5039;0.4202;
1105.2000;0.5031;0.4250;
1105.5000;0.5031;0.4322;
1105.8000;0.5039;0.4298;
1106.1000;0.5047;0.4274;
1106.4000;0.5039;0.4322;
1106.7000;0.5031;0.4370;
1107.0000;0.5063;0.4418;
1107.3000;0.5047;0.4322;
1107.6000;0.5112;0.4466;
1107.9000;0.5022;0.4250;
1108.2000;0.5039;0.4274;
1108.5000;0.5063;0.4298;
1108.8000;0.5055;0.4274;
1109.1000;0.5031;0.4274;
1109.4000;0.4957;0.4130;
1109.7000;0.5039;0.4394;
1110.0000;0.5047;0.4490;
1110.3000;0.5031;0.4418;
1110.6000;0.5039;0.4346;
1110.9000;0.5055;0.4418;
1111.2000;0.5055;0.4370;
1111.5000;0.5047;0.4346;
1111.8000;0.5055;0.4394;
1112.1000;0.5047;0.4322;
1112.4000;0.5079;0.4394;
1112.7000;0.5047;0.4346;
1113.0000;0.5031;0.4202;
1113.3000;0.5039;0.4250;
1113.6000;0.5039;0.4250;
1113.9000;0.5031;0.4202;
1114.2000;0.5055;0.4370;
1114.5000;0.5039;0.4346;
1114.8000;0.5039;0.4490;
1115.1000;0.5022;0.4442;
1115.4000;0.4998;0.4466;
1115.7000;0.5039;0.4538;
1116.0000;0.5039;0.4586;
1116.3000;0.5039;0.4610;
1116.6000;0.5031;0.4538;
1116.9000;0.5031;0.4538;
1117.2000;0.5014;0.4514;
1117.5000;0.5039;0.4562;
1117.8000;0.5055;0.4610;
1118.1000;0.5039;0.4562;
1118.4000;0.5031;0.4466;
1118.7000;0.5014;0.4394;
1119.0000;0.5039;0.4322;
1119.3000;0.5031;0.4226;
1119.6000;0.5022;0.4178;
1119.9000;0.5055;0.4250;
1120.2000;0.5031;0.4250;
1120.5000;0.5039;0.4178;
1120.8000;0.5039;0.4178;
1121.1000;0.5031;0.4082;
1121.4000;0.5153;0.4418;
1121.7000;0.5031;0.4250;
1122.0000;0.5063;0.4370;
1122.3000;0.5063;0.4394;
1122.6000;0.5055;0.4346;
1122.9000;0.4957;0.4130;
1123.2000;0.5039;0.4226;
1123.5000;0.5047;0.4250;
1123.8000;0.5039;0.4130;
1124.1000;0.5039;0.4058;
1124.4000;0.5079;0.4130;
1124.7000;0.5022;0.4034;
1125.0000;0.4990;0.4058;
1125.3000;0.5022;0.4058;
1125.6000;0.5047;0.4058;
1125.9000;0.4998;0.4010;
1126.2000;0.5047;0.4250;
1126.5000;0.5079;0.4346;
1126.8000;0.4965;0.4154;
1127.1000;0.5031;0.4202;
1127.4000;0.5022;0.4226;
1127.7000;0.5022;0.4250;
1128.0000;0.5031;0.4274;
1128.3000;0.5014;0.4154;
1128.6000;0.5031;0.4154;
1128.9000;0.5031;0.4130;
1129.2000;0.5031;0.4178;
1129.5000;0.5022;0.4106;
1129.8000;0.5031;0.4130;
1130.1000;0.5014;0.4226;
1130.4000;0.5031;0.4322;
1130.7000;0.5031;0.4274;
1131.0000;0.5022;0.4298;
1131.3000;0.5031;0.4322;
1131.6000;0.5006;0.4250;
1131.9000;0.5022;0.4322;
1132.2000;0.5022;0.4394;
1132.5000;0.5014;0.4274;
1132.8000;0.5039;0.4298;
1133.1000;0.5031;0.4274;
1133.4000;0.5006;0.4298;
1133.7000;0.5071;0.4346;
1134.0000;0.5031;0.4202;
1134.3000;0.4998;0.4106;
1134.6000;0.5039;0.4274;
1134.9000;0.5031;0.4226;
1135.2000;0.5039;0.4250;
1135.5000;0.5031;0.4322;
1135.8000;0.5031;0.4394;
1136.1000;0.5031;0.4466;
1136.4000;0.5031;0.4442;
1136.7000;0.5039;0.4442;
1137.0000;0.5022;0.4442;
1137.3000;0.5031;0.4538;
1137.6000;0.5039;0.4514;
1137.9000;0.5047;0.4562;
1138.2000;0.5039;0.4562;
1138.5000;0.5006;0.4346;
1138.8000;0.5014;0.4322;
1139.1000;0.5039;0.4346;
1139.4000;0.5006;0.4202;
1139.7000;0.5022;0.4274;
1140.0000;0.5031;0.4394;
1140.3000;0.5031;0.4370;
1140.6000;0.5014;0.4226;
1140.9000;0.5039;0.4274;
1141.2000;0.5039;0.4274;
1141.5000;0.5063;0.4298;
1141.8000;0.5047;0.4322;
1142.1000;0.5039;0.4274;
1142.4000;0.5039;0.4322;
1142.7000;0.5031;0.4322;
1143.0000;0.5031;0.4346;
1143.3000;0.5039;0.4250;
1143.6000;0.5031;0.4250;
1143.9000;0.5039;0.4226;
1144.2000;0.5039;0.4178;
1144.5000;0.5031;0.4178;
1144.8000;0.5022;0.4178;
1145.1000;0.5039;0.4226;
1145.4000;0.5063;0.4322;
1145.7000;0.5031;0.4274;
1146.0000;0.5039;0.4322;
1146.3000;0.5039;0.4370;
1146.6000;0.5047;0.4346;
1146.9000;0.5031;0.4274;
1147.2000;0.5031;0.4202;
1147.5000;0.5031;0.4274;
1147.8000;0.5055;0.4394;
1148.1000;0.5047;0.4418;
1148.4000;0.5047;0.4370;
1148.7000;0.5039;0.4298;
1149.0000;0.5079;0.4370;
1149.3000;0.5031;0.4226;
1149.6000;0.5039;0.4274;
1149.9000;0.5031;0.4274;
1150.2000;0.5039;0.4322;
1150.5000;0.5014;0.4226;
1150.8000;0.5006;0.4202;
1151.1000;0.5022;0.4250;
1151.4000;0.5088;0.4298;
1151.7000;0.5071;0.4250;
1152.0000;0.5031;0.4202;
1152.3000;0.5031;0.4274;
1152.6000;0.5031;0.4346;
1152.9000;0.5031;0.4394;
1153.2000;0.5047;0.4442;
1153.5000;0.5039;0.4346;
1153.8000;0.5022;0.4322;
1154.1000;0.5055;0.4346;
1154.4000;0.5039;0.4370;
1154.7000;0.5014;0.4298;
1155.0000;0.4917;0.4130;
1155.3000;0.5031;0.4394;
1155.6000;0.5047;0.4394;
1155.9000;0.5022;0.4274;
1156.2000;0.5031;0.4322;
1156.5000;0.5014;0.4226;
1156.8000;0.5039;0.4346;
1157.1000;0.5031;0.4274;
1157.4000;0.5047;0.4226;
1157.7000;0.5055;0.4226;
1158.0000;0.5047;0.4250;
1158.3000;0.5039;0.4178;
1158.6000;0.5031;0.4154;
1158.9000;0.5022;0.4130;
1159.2000;0.5014;0.4082;
1159.5000;0.5031;0.4082;
1159.8000;0.5014;0.4082;
1160.1000;0.5031;0.4178;
1160.4000;0.5120;0.4466;
1160.7000;0.5031;0.4274;
1161.0000;0.5022;0.4202;
1161.3000;0.5047;0.4250;
1161.6000;0.5022;0.4226;
1161.9000;0.5047;0.4250;
1162.2000;0.4982;0.4154;
1162.5000;0.5022;0.4226;
1162.8000;0.5031;0.4274;
1163.1000;0.5031;0.4274;
1163.4000;0.4974;0.4178;
1163.7000;0.5031;0.4274;
1164.0000;0.5022;0.4250;
1164.3000;0.5088;0.4394;
1164.6000;0.5039;0.4178;
1164.9000;0.5128;0.4514;
1165.2000;0.5031;0.4202;
1165.5000;0.5022;0.4202;
1165.8000;0.5031;0.4250;
1166.1000;0.5022;0.4346;
1166.4000;0.5022;0.4370;
1166.7000;0.5031;0.4418;
1167.0000;0.5031;0.4394;
1167.3000;0.5031;0.4418;
1167.6000;0.5006;0.4226;
1167.9000;0.5039;0.4370;
1168.2000;0.5031;0.4274;
1168.5000;0.5039;0.4178;
1168.8000;0.5047;0.4178;
1169.1000;0.5039;0.4226;
1169.4000;0.5022;0.4226;
1169.7000;0.5031;0.4322;
1170.0000;0.5006;0.4250;
1170.3000;0.5031;0.4370;
1170.6000;0.5031;0.4394;
1170.9000;0.5039;0.4394;
1171.2000;0.5031;0.4346;
1171.5000;0.5031;0.4346;
1171.8000;0.5022;0.4418;
1172.1000;0.5022;0.4466;
1172.4000;0.5031;0.4514;
1172.7000;0.5006;0.4442;
1173.0000;0.5022;0.4538;
1173.3000;0.5014;0.4490;
1173.6000;0.5031;0.4490;
1173.9000;0.5006;0.4442;
1174.2000;0.5031;0.4418;
1174.5000;0.5014;0.4394;
1174.8000;0.5039;0.4370;
1175.1000;0.4982;0.4154;
1175.4000;0.5104;0.4442;
1175.7000;0.5022;0.4322;
1176.0000;0.5022;0.4322;
1176.3000;0.5022;0.4322;
1176.6000;0.5055;0.4394;
1176.9000;0.5031;0.4298;
1177.2000;0.5031;0.4346;
1177.5000;0.5031;0.4394;
1177.8000;0.5031;0.4274;
1178.1000;0.4990;0.4250;
1178.4000;0.5022;0.4394;
1178.7000;0.5022;0.4370;
1179.0000;0.5039;0.4442;
1179.3000;0.5031;0.4442;
1179.6000;0.5031;0.4466;
1179.9000;0.5039;0.4442;
1180.2000;0.5014;0.4466;
1180.5000;0.5022;0.4490;
1180.8000;0.5022;0.4394;
1181.1000;0.5022;0.4346;
1181.4000;0.5014;0.4298;
1181.7000;0.5014;0.4298;
1182.0000;0.5055;0.4394;
1182.3000;0.5039;0.4346;
1182.6000;0.5031;0.4298;
1182.9000;0.4998;0.4154;
1183.2000;0.4990;0.4106;
1183.5000;0.5022;0.4106;
1183.8000;0.4957;0.3938;
1184.1000;0.5120;0.4394;
1184.4000;0.5031;0.4130;
1184.7000;0.4925;0.3962;
1185.0000;0.5022;0.4154;
1185.3000;0.5022;0.4106;
1185.6000;0.5014;0.4082;
1185.9000;0.5022;0.4130;
1186.2000;0.5031;0.4130;
1186.5000;0.5022;0.4154;
1186.8000;0.5006;0.4106;
1187.1000;0.5022;0.4178;
1187.4000;0.5022;0.4202;
1187.7000;0.5047;0.4250;
1188.0000;0.5031;0.4298;
1188.3000;0.5039;0.4322;
1188.6000;0.4998;0.4202;
1188.9000;0.5039;0.4346;
1189.2000;0.4941;0.4058;
1189.5000;0.5006;0.4298;
1189.8000;0.5022;0.4322;
1190.1000;0.5031;0.4298;
1190.4000;0.5022;0.4178;
1190.7000;0.5039;0.4130;
1191.0000;0.5039;0.4178;
1191.3000;0.5031;0.4130;
1191.6000;0.5047;0.4154;
1191.9000;0.5031;0.4250;
1192.2000;0.5031;0.4394;
1192.5000;0.5006;0.4322;
1192.8000;0.5022;0.4370;
1193.1000;0.5022;0.4322;
1193.4000;0.5039;0.4370;
1193.7000;0.5031;0.4394;
1194.0000;0.5031;0.4418;
1194.3000;0.5022;0.4418;
1194.6000;0.5022;0.4370;
1194.9000;0.5039;0.4370;
1195.2000;0.5031;0.4298;
1195.5000;0.4998;0.4226;
1195.8000;0.5031;0.4322;
1196.1000;0.5031;0.4274;
1196.4000;0.5055;0.4418;
1196.7000;0.5014;0.4298;
1197.0000;0.5039;0.4418;
1197.3000;0.5031;0.4394;
1197.6000;0.5031;0.4322;
1197.9000;0.5039;0.4394;
1198.2000;0.5022;0.4538;
1198.5000;0.5031;0.4538;
1198.8000;0.5031;0.4490;
1199.1000;0.5071;0.4683;
1199.4000;0.4998;0.4538;
1199.7000;0.4982;0.4394;
1200.0000;0.5022;0.4322;
1200.3000;0.5031;0.4346;
1200.6000;0.5112;0.4418;
1200.9000;0.5014;0.4178;
1201.2000;0.5022;0.4130;
1201.5000;0.5039;0.4130;
1201.8000;0.4982;0.4082;
1202.1000;0.5031;0.4274;
1202.4000;0.5022;0.4322;
1202.7000;0.5031;0.4370;
1203.0000;0.5022;0.4274;
1203.3000;0.5022;0.4178;
1203.6000;0.5031;0.4226;
1203.9000;0.5031;0.4154;
1204.2000;0.5031;0.4082;
1204.5000;0.5031;0.4130;
1204.8000;0.5014;0.4226;
1205.1000;0.5031;0.4274;
1205.4000;0.5031;0.4202;
1205.7000;0.5022;0.4106;
1206.0000;0.5022;0.4130;
1206.3000;0.5031;0.4202;
1206.6000;0.5031;0.4250;
1206.9000;0.5022;0.4202;
1207.2000;0.5022;0.4202;
1207.5000;0.5014;0.4130;
1207.8000;0.5031;0.4202;
1208.1000;0.5022;0.4250;
1208.4000;0.5014;0.4202;
1208.7000;0.5055;0.4394;
1209.0000;0.5031;0.4322;
1209.3000;0.5022;0.4250;
1209.6000;0.5022;0.4226;
1209.9000;0.4998;0.4202;
1210.2000;0.5022;0.4250;
1210.5000;0.5022;0.4250;
1210.8000;0.5031;0.4226;
1211.1000;0.5006;0.4202;
1211.4000;0.5022;0.4298;
1211.7000;0.5031;0.4370;
1212.0000;0.5022;0.4298;
1212.3000;0.5022;0.4202;
1212.6000;0.5039;0.4322;
1212.9000;0.5039;0.4346;
1213.2000;0.5128;0.4586;
1213.5000;0.5014;0.4298;
1213.8000;0.5031;0.4418;
1214.1000;0.5039;0.4466;
1214.4000;0.5022;0.4346;
1214.7000;0.5055;0.4394;
1215.0000;0.5014;0.4346;
1215.3000;0.5047;0.4490;
1215.6000;0.5022;0.4394;
1215.9000;0.5014;0.4346;
1216.2000;0.5022;0.4466;
1216.5000;0.5063;0.4610;
1216.8000;0.5022;0.4586;
1217.1000;0.5014;0.4490;
1217.4000;0.5055;0.4514;
1217.7000;0.5047;0.4490;
1218.0000;0.5031;0.4514;
1218.3000;0.5014;0.4514;
1218.6000;0.5031;0.4538;
1218.9000;0.5031;0.4442;
1219.2000;0.5031;0.4466;
1219.5000;0.5063;0.4514;
1219.8000;0.5022;0.4442;
1220.1000;0.5014;0.4394;
1220.4000;0.5014;0.4418;
1220.7000;0.5006;0.4346;
1221.0000;0.4957;0.4202;
1221.3000;0.5014;0.4394;
1221.6000;0.5006;0.4394;
1221.9000;0.5006;0.4394;
1222.2000;0.5031;0.4490;
1222.5000;0.5014;0.4370;
1222.8000;0.4974;0.4322;
1223.1000;0.4941;0.4298;
1223.4000;0.4933;0.4298;
1223.7000;0.4990;0.4418;
1224.0000;0.5022;0.4514;
1224.3000;0.5031;0.4466;
1224.6000;0.5112;0.4610;
1224.9000;0.5022;0.4394;
1225.2000;0.5006;0.4394;
1225.5000;0.5031;0.4418;
1225.8000;0.5079;0.4490;
1226.1000;0.5022;0.4418;
1226.4000;0.5031;0.4418;
1226.7000;0.5006;0.4322;
1227.0000;0.5022;0.4226;
1227.3000;0.5031;0.4250;
1227.6000;0.5022;0.4322;
1227.9000;0.5039;0.4442;
1228.2000;0.5039;0.4418;
1228.5000;0.5031;0.4394;
1228.8000;0.5022;0.4346;
1229.1000;0.5031;0.4466;
1229.4000;0.5022;0.4490;
1229.7000;0.5031;0.4538;
1230.0000;0.5031;0.4586;
1230.3000;0.5006;0.4538;
1230.6000;0.4998;0.4514;
1230.9000;0.4974;0.4370;
1231.2000;0.5006;0.4442;
1231.5000;0.4998;0.4418;
1231.8000;0.5006;0.4322;
1232.1000;0.4941;0.4082;
1232.4000;0.5039;0.4394;
1232.7000;0.5022;0.4322;
1233.0000;0.5039;0.4346;
1233.3000;0.5031;0.4442;
1233.6000;0.5014;0.4466;
1233.9000;0.5022;0.4442;
1234.2000;0.5039;0.4466;
1234.5000;0.5022;0.4442;
1234.8000;0.5022;0.4394;
1235.1000;0.5014;0.4322;
1235.4000;0.5022;0.4322;
1235.7000;0.5022;0.4370;
1236.0000;0.5022;0.4322;
1236.3000;0.5031;0.4346;
1236.6000;0.5031;0.4346;
1236.9000;0.5014;0.4394;
1237.2000;0.5006;0.4370;
1237.5000;0.5006;0.4346;
1237.8000;0.4990;0.4322;
1238.1000;0.5006;0.4394;
1238.4000;0.5014;0.4346;
1238.7000;0.5031;0.4346;
1239.0000;0.5022;0.4418;
1239.3000;0.5039;0.4514;
1239.6000;0.5022;0.4538;
1239.9000;0.5031;0.4538;
1240.2000;0.5014;0.4538;
1240.5000;0.5022;0.4490;
1240.8000;0.5014;0.4490;
1241.1000;0.5031;0.4442;
1241.4000;0.5047;0.4562;
1241.7000;0.5022;0.4418;
1242.0000;0.5022;0.4394;
1242.3000;0.5039;0.4394;
1242.6000;0.5047;0.4466;
1242.9000;0.5039;0.4322;
1243.2000;0.5031;0.4346;
1243.5000;0.5014;0.4442;
1243.8000;0.4957;0.4274;
1244.1000;0.5006;0.4394;
1244.4000;0.4998;0.4346;
1244.7000;0.4998;0.4346;
1245.0000;0.5047;0.4418;
1245.3000;0.5022;0.4346;
1245.6000;0.5006;0.4322;
1245.9000;0.5006;0.4298;
1246.2000;0.5039;0.4322;
1246.5000;0.5006;0.4322;
1246.8000;0.5022;0.4370;
1247.1000;0.5014;0.4322;
1247.4000;0.5022;0.4394;
1247.7000;0.4998;0.4370;
1248.0000;0.5022;0.4466;
1248.3000;0.5031;0.4418;
1248.6000;0.5071;0.4538;
1248.9000;0.5031;0.4370;
1249.2000;0.4998;0.4298;
1249.5000;0.5022;0.4274;
1249.8000;0.5039;0.4226;
1250.1000;0.5006;0.4154;
1250.4000;0.5014;0.4154;
1250.7000;0.5022;0.4226;
1251.0000;0.5022;0.4226;
1251.3000;0.5022;0.4226;
1251.6000;0.5022;0.4154;
1251.9000;0.5014;0.4178;
1252.2000;0.4990;0.4178;
1252.5000;0.5014;0.4250;
1252.8000;0.4957;0.4082;
1253.1000;0.5022;0.4178;
1253.4000;0.5014;0.4274;
1253.7000;0.5031;0.4250;
1254.0000;0.5014;0.4130;
1254.3000;0.4990;0.4154;
1254.6000;0.5006;0.4226;
1254.9000;0.5031;0.4202;
1255.2000;0.5055;0.4226;
1255.5000;0.5014;0.4130;
1255.8000;0.5022;0.4082;
1256.1000;0.4982;0.4034;
1256.4000;0.5014;0.4130;
1256.7000;0.4998;0.4202;
1257.0000;0.5079;0.4466;
1257.3000;0.5014;0.4370;
1257.6000;0.5022;0.4346;
1257.9000;0.5006;0.4274;
1258.2000;0.5031;0.4346;
1258.5000;0.5022;0.4394;
1258.8000;0.5031;0.4418;
1259.1000;0.5014;0.4370;
1259.4000;0.5006;0.4322;
1259.7000;0.5031;0.4394;
1260.0000;0.5031;0.4322;
1260.3000;0.5022;0.4418;
1260.6000;0.5006;0.4346;
1260.9000;0.5022;0.4418;
1261.2000;0.5014;0.4394;
1261.5000;0.5022;0.4418;
1261.8000;0.5031;0.4442;
1262.1000;0.5022;0.4370;
1262.4000;0.5022;0.4322;
1262.7000;0.5006;0.4298;
1263.0000;0.5022;0.4274;
1263.3000;0.5031;0.4346;
1263.6000;0.4990;0.4226;
1263.9000;0.5031;0.4370;
1264.2000;0.5014;0.4370;
1264.5000;0.5022;0.4370;
1264.8000;0.5006;0.4274;
1265.1000;0.5014;0.4298;
1265.4000;0.5031;0.4370;
1265.7000;0.5014;0.4322;
1266.0000;0.4982;0.4202;
1266.3000;0.4998;0.4274;
1266.6000;0.5039;0.4394;
1266.9000;0.4998;0.4346;
1267.2000;0.5022;0.4346;
1267.5000;0.5014;0.4322;
1267.8000;0.5014;0.4250;
1268.1000;0.5014;0.4250;
1268.4000;0.4998;0.4202;
1268.7000;0.5047;0.4370;
1269.0000;0.5031;0.4394;
1269.3000;0.5022;0.4370;
1269.6000;0.4998;0.4274;
1269.9000;0.5014;0.4322;
1270.2000;0.5022;0.4394;
1270.5000;0.5006;0.4370;
1270.8000;0.5022;0.4394;
1271.1000;0.4965;0.4322;
1271.4000;0.5006;0.4490;
1271.7000;0.5006;0.4538;
1272.0000;0.5014;0.4562;
1272.3000;0.5022;0.4586;
1272.6000;0.5014;0.4514;
1272.9000;0.5014;0.4442;
1273.2000;0.5006;0.4394;
1273.5000;0.5055;0.4514;
1273.8000;0.5014;0.4466;
1274.1000;0.5006;0.4442;
1274.4000;0.5022;0.4490;
1274.7000;0.5014;0.4394;
1275.0000;0.5031;0.4442;
1275.3000;0.5022;0.4466;
1275.6000;0.5022;0.4466;
1275.9000;0.5014;0.4442;
1276.2000;0.5014;0.4442;
1276.5000;0.5031;0.4466;
1276.8000;0.5039;0.4466;
1277.1000;0.5022;0.4394;
1277.4000;0.5022;0.4370;
1277.7000;0.5039;0.4418;
1278.0000;0.5031;0.4490;
1278.3000;0.5031;0.4538;
1278.6000;0.5014;0.4562;
1278.9000;0.5014;0.4514;
1279.2000;0.5120;0.4755;
1279.5000;0.5039;0.4538;
1279.8000;0.5063;0.4634;
1280.1000;0.4990;0.4442;
1280.4000;0.5014;0.4490;
1280.7000;0.5031;0.4466;
1281.0000;0.5006;0.4418;
1281.3000;0.5014;0.4466;
1281.6000;0.5031;0.4538;
1281.9000;0.4941;0.4370;
1282.2000;0.5006;0.4610;
1282.5000;0.4998;0.4683;
1282.8000;0.5014;0.4707;
1283.1000;0.5022;0.4755;
1283.4000;0.5006;0.4779;
1283.7000;0.4998;0.4755;
1284.0000;0.4990;0.4610;
1284.3000;0.5022;0.4659;
1284.6000;0.5055;0.4659;
1284.9000;0.4933;0.4346;
1285.2000;0.5006;0.4634;
1285.5000;0.5022;0.4634;
1285.8000;0.5006;0.4586;
1286.1000;0.4998;0.4562;
1286.4000;0.5014;0.4538;
1286.7000;0.5014;0.4514;
1287.0000;0.5079;0.4683;
1287.3000;0.5022;0.4586;
1287.6000;0.5014;0.4610;
1287.9000;0.5014;0.4610;
1288.2000;0.5031;0.4562;
1288.5000;0.5031;0.4538;
1288.8000;0.5031;0.4562;
1289.1000;0.5022;0.4562;
1289.4000;0.5088;0.4779;
1289.7000;0.5006;0.4610;
1290.0000;0.5014;0.4610;
1290.3000;0.4998;0.4586;
1290.6000;0.4998;0.4562;
1290.9000;0.5006;0.4514;
1291.2000;0.5014;0.4490;
1291.5000;0.4998;0.4490;
1291.8000;0.5014;0.4466;
1292.1000;0.5006;0.4514;
1292.4000;0.5006;0.4490;
1292.7000;0.4998;0.4442;
1293.0000;0.5022;0.4394;
1293.3000;0.5014;0.4394;
1293.6000;0.5006;0.4418;
1293.9000;0.5022;0.4490;
1294.2000;0.4990;0.4466;
1294.5000;0.5022;0.4586;
1294.8000;0.5022;0.4610;
1295.1000;0.5031;0.4586;
1295.4000;0.5031;0.4562;
1295.7000;0.5047;0.4586;
1296.0000;0.5014;0.4514;
1296.3000;0.5022;0.4562;
1296.6000;0.5031;0.4562;
1296.9000;0.5022;0.4586;
1297.2000;0.5022;0.4538;
1297.5000;0.4917;0.4322;
1297.8000;0.5014;0.4610;
1298.1000;0.5006;0.4586;
1298.4000;0.5022;0.4610;
1298.7000;0.4957;0.4466;
1299.0000;0.4998;0.4562;
1299.3000;0.5031;0.4659;
1299.6000;0.5022;0.4562;
1299.9000;0.5039;0.4514;
1300.2000;0.5088;0.4634;
1300.5000;0.5014;0.4466;
1300.8000;0.5022;0.4394;
1301.1000;0.5022;0.4442;
1301.4000;0.5022;0.4394;
1301.7000;0.5022;0.4442;
1302.0000;0.4982;0.4250;
1302.3000;0.5022;0.4346;
1302.6000;0.4998;0.4322;
1302.9000;0.5014;0.4370;
1303.2000;0.5039;0.4418;
1303.5000;0.5022;0.4370;
1303.8000;0.5014;0.4298;
1304.1000;0.4990;0.4370;
1304.4000;0.5006;0.4538;
1304.7000;0.5022;0.4586;
1305.0000;0.4982;0.4490;
1305.3000;0.4982;0.4418;
1305.6000;0.5022;0.4466;
1305.9000;0.5022;0.4370;
1306.2000;0.5014;0.4322;
1306.5000;0.5022;0.4298;
1306.8000;0.5014;0.4298;
1307.1000;0.5031;0.4322;
1307.4000;0.5006;0.4298;
1307.7000;0.5063;0.4538;
1308.0000;0.5055;0.4418;
1308.3000;0.5006;0.4298;
1308.6000;0.5022;0.4322;
1308.9000;0.4990;0.4250;
1309.2000;0.5014;0.4418;
1309.5000;0.5014;0.4418;
1309.8000;0.5031;0.4538;
1310.1000;0.5014;0.4394;
1310.4000;0.4998;0.4298;
1310.7000;0.4998;0.4346;
1311.0000;0.5071;0.4562;
1311.3000;0.5014;0.4370;
1311.6000;0.5014;0.4418;
1311.9000;0.4998;0.4322;
1312.2000;0.4998;0.4418;
1312.5000;0.5014;0.4442;
1312.8000;0.5006;0.4394;
1313.1000;0.4998;0.4418;
1313.4000;0.5022;0.4418;
1313.7000;0.5022;0.4394;
1314.0000;0.5031;0.4418;
1314.3000;0.5071;0.4538;
1314.6000;0.4990;0.4346;
1314.9000;0.5006;0.4490;
1315.2000;0.5014;0.4562;
1315.5000;0.5014;0.4538;
1315.8000;0.4998;0.4610;
1316.1000;0.4998;0.4538;
1316.4000;0.4998;0.4490;
1316.7000;0.4949;0.4346;
1317.0000;0.4990;0.4466;
1317.3000;0.5014;0.4538;
1317.6000;0.4900;0.4202;
1317.9000;0.5071;0.4562;
1318.2000;0.5006;0.4418;
1318.5000;0.5006;0.4442;
1318.8000;0.5071;0.4586;
1319.1000;0.5031;0.4442;
1319.4000;0.5014;0.4370;
1319.7000;0.5039;0.4466;
1320.0000;0.4998;0.4466;
1320.3000;0.5031;0.4538;
1320.6000;0.5006;0.4562;
1320.9000;0.5022;0.4562;
1321.2000;0.5014;0.4586;
1321.5000;0.5014;0.4562;
1321.8000;0.5022;0.4586;
1322.1000;0.5022;0.4634;
1322.4000;0.5014;0.4634;
1322.7000;0.5014;0.4562;
1323.0000;0.4998;0.4442;
1323.3000;0.4998;0.4466;
1323.6000;0.5031;0.4466;
1323.9000;0.5022;0.4394;
1324.2000;0.5031;0.4394;
1324.5000;0.5014;0.4370;
1324.8000;0.5031;0.4418;
1325.1000;0.5039;0.4394;
1325.4000;0.5022;0.4346;
1325.7000;0.5006;0.4370;
1326.0000;0.4974;0.4250;
1326.3000;0.5112;0.4610;
1326.6000;0.5014;0.4370;
1326.9000;0.5006;0.4298;
1327.2000;0.5006;0.4250;
1327.5000;0.5006;0.4322;
1327.8000;0.5006;0.4298;
1328.1000;0.5006;0.4274;
1328.4000;0.5014;0.4394;
1328.7000;0.5031;0.4418;
1329.0000;0.5006;0.4370;
1329.3000;0.5022;0.4442;
1329.6000;0.5014;0.4346;
1329.9000;0.5006;0.4346;
1330.2000;0.5031;0.4394;
1330.5000;0.5006;0.4298;
1330.8000;0.5014;0.4274;
1331.1000;0.5014;0.4298;
1331.4000;0.5022;0.4298;
1331.7000;0.5022;0.4202;
1332.0000;0.5006;0.4130;
1332.3000;0.5014;0.4130;
1332.6000;0.4949;0.3938;
1332.9000;0.5022;0.4178;
1333.2000;0.5014;0.4082;
1333.5000;0.5014;0.4130;
1333.8000;0.4998;0.4250;
1334.1000;0.5031;0.4322;
1334.4000;0.4982;0.4226;
1334.7000;0.5022;0.4298;
1335.0000;0.5022;0.4178;
1335.3000;0.4965;0.4106;
1335.6000;0.5006;0.4178;
1335.9000;0.5006;0.4202;
1336.2000;0.5039;0.4322;
1336.5000;0.4990;0.4154;
1336.8000;0.5031;0.4226;
1337.1000;0.5014;0.4226;
1337.4000;0.5014;0.4298;
1337.7000;0.5031;0.4346;
1338.0000;0.5022;0.4322;
1338.3000;0.4998;0.4322;
1338.6000;0.4998;0.4274;
1338.9000;0.5022;0.4442;
1339.2000;0.5022;0.4490;
1339.5000;0.4998;0.4562;
1339.8000;0.5006;0.4514;
1340.1000;0.5022;0.4538;
1340.4000;0.5039;0.4538;
1340.7000;0.4949;0.4370;
1341.0000;0.5006;0.4538;
1341.3000;0.5031;0.4562;
1341.6000;0.5104;0.4683;
1341.9000;0.5014;0.4538;
1342.2000;0.5022;0.4490;
1342.5000;0.4974;0.4346;
1342.8000;0.5006;0.4442;
1343.1000;0.5006;0.4514;
1343.4000;0.5014;0.4466;
1343.7000;0.5022;0.4418;
1344.0000;0.5014;0.4370;
1344.3000;0.5022;0.4370;
1344.6000;0.5022;0.4418;
1344.9000;0.4998;0.4346;
1345.2000;0.5039;0.4442;
1345.5000;0.5031;0.4394;
1345.8000;0.5014;0.4394;
1346.1000;0.5014;0.4322;
1346.4000;0.5039;0.4370;
1346.7000;0.5022;0.4322;
1347.0000;0.5014;0.4322;
1347.3000;0.5006;0.4370;
1347.6000;0.5014;0.4274;
1347.9000;0.5022;0.4322;
1348.2000;0.5039;0.4394;
1348.5000;0.5014;0.4274;
1348.8000;0.5079;0.4466;
1349.1000;0.5031;0.4298;
1349.4000;0.5022;0.4226;
1349.7000;0.4965;0.4106;
1350.0000;0.5022;0.4346;
1350.3000;0.5031;0.4442;
1350.6000;0.4998;0.4298;
1350.9000;0.5014;0.4346;
1351.2000;0.5006;0.4346;
1351.5000;0.5039;0.4418;
1351.8000;0.5022;0.4322;
1352.1000;0.5014;0.4202;
1352.4000;0.5022;0.4082;
1352.7000;0.4982;0.4058;
1353.0000;0.5006;0.4226;
1353.3000;0.5014;0.4274;
1353.6000;0.5014;0.4274;
1353.9000;0.5022;0.4394;
1354.2000;0.5031;0.4346;
1354.5000;0.5047;0.4394;
1354.8000;0.5031;0.4370;
1355.1000;0.5014;0.4346;
1355.4000;0.5022;0.4394;
1355.7000;0.5006;0.4250;
1356.0000;0.5022;0.4322;
1356.3000;0.5006;0.4250;
1356.6000;0.5014;0.4274;
1356.9000;0.5014;0.4274;
1357.2000;0.5014;0.4178;
1357.5000;0.5071;0.4202;
1357.8000;0.4908;0.3842;
1358.1000;0.5014;0.4202;
1358.4000;0.5022;0.4178;
1358.7000;0.5014;0.4202;
1359.0000;0.5022;0.4226;
1359.3000;0.5031;0.4250;
1359.6000;0.5022;0.4322;
1359.9000;0.5031;0.4202;
1360.2000;0.5039;0.4202;
1360.5000;0.5022;0.4154;
1360.8000;0.5031;0.4202;
1361.1000;0.4998;0.4250;
1361.4000;0.4998;0.4202;
1361.7000;0.5022;0.4202;
1362.0000;0.5039;0.4226;
1362.3000;0.5014;0.4130;
1362.6000;0.5006;0.4130;
1362.9000;0.5006;0.4178;
1363.2000;0.4998;0.4154;
1363.5000;0.5006;0.4274;
1363.8000;0.4998;0.4250;
1364.1000;0.5006;0.4250;
1364.4000;0.5014;0.4298;
1364.7000;0.5031;0.4394;
1365.0000;0.5022;0.4394;
1365.3000;0.5014;0.4418;
1365.6000;0.5031;0.4394;
1365.9000;0.5022;0.4394;
1366.2000;0.5006;0.4250;
1366.5000;0.4998;0.4250;
1366.8000;0.5022;0.4250;
1367.1000;0.5014;0.4274;
1367.4000;0.5006;0.4250;
1367.7000;0.4998;0.4250;
1368.0000;0.5031;0.4250;
1368.3000;0.5039;0.4370;
1368.6000;0.5014;0.4226;
1368.9000;0.5039;0.4322;
1369.2000;0.4998;0.4274;
1369.5000;0.5014;0.4370;
1369.8000;0.5014;0.4346;
1370.1000;0.4990;0.4370;
1370.4000;0.4998;0.4466;
1370.7000;0.5022;0.4442;
1371.0000;0.5022;0.4394;
1371.3000;0.4941;0.4130;
1371.6000;0.5022;0.4370;
1371.9000;0.4998;0.4322;
1372.2000;0.5006;0.4322;
1372.5000;0.5031;0.4418;
1372.8000;0.5006;0.4394;
1373.1000;0.5006;0.4442;
1373.4000;0.5014;0.4418;
1373.7000;0.5055;0.4562;
1374.0000;0.5006;0.4538;
1374.3000;0.5014;0.4538;
1374.6000;0.5022;0.4538;
1374.9000;0.5006;0.4514;
1375.2000;0.5006;0.4514;
1375.5000;0.5022;0.4514;
1375.8000;0.4998;0.4442;
1376.1000;0.5031;0.4514;
1376.4000;0.5006;0.4466;
1376.7000;0.5088;0.4586;
1377.0000;0.5022;0.4394;
1377.3000;0.5022;0.4394;
1377.6000;0.5014;0.4442;
1377.9000;0.5014;0.4418;
1378.2000;0.5014;0.4562;
1378.5000;0.4998;0.4514;
1378.8000;0.5022;0.4538;
1379.1000;0.5022;0.4514;
1379.4000;0.5031;0.4442;
1379.7000;0.5031;0.4466;
1380.0000;0.5006;0.4538;
1380.3000;0.5006;0.4610;
1380.6000;0.5006;0.4634;
1380.9000;0.4998;0.4514;
1381.2000;0.5006;0.4538;
1381.5000;0.5022;0.4514;
1381.8000;0.5014;0.4514;
1382.1000;0.5014;0.4418;
1382.4000;0.5031;0.4394;
1382.7000;0.5031;0.4370;
1383.0000;0.5014;0.4298;
1383.3000;0.5014;0.4298;
1383.6000;0.5022;0.4322;
1383.9000;0.4998;0.4322;
1384.2000;0.5022;0.4322;
1384.5000;0.5006;0.4274;
1384.8000;0.4998;0.4250;
1385.1000;0.5014;0.4274;
1385.4000;0.5022;0.4370;
1385.7000;0.4998;0.4346;
1386.0000;0.5031;0.4394;
1386.3000;0.5031;0.4370;
1386.6000;0.5006;0.4418;
1386.9000;0.4990;0.4490;
1387.2000;0.4998;0.4514;
1387.5000;0.5014;0.4538;
1387.8000;0.5071;0.4755;
1388.1000;0.5055;0.4659;
1388.4000;0.5014;0.4442;
1388.7000;0.5006;0.4370;
1389.0000;0.5006;0.4346;
1389.3000;0.5022;0.4298;
1389.6000;0.5014;0.4298;
1389.9000;0.5055;0.4322;
1390.2000;0.5022;0.4250;
1390.5000;0.5006;0.4346;
1390.8000;0.4933;0.4106;
1391.1000;0.5022;0.4298;
1391.4000;0.5022;0.4298;
1391.7000;0.5006;0.4250;
1392.0000;0.4998;0.4250;
1392.3000;0.5014;0.4226;
1392.6000;0.5014;0.4250;
1392.9000;0.5022;0.4322;
1393.2000;0.5022;0.4346;
1393.5000;0.4933;0.4130;
1393.8000;0.5022;0.4370;
1394.1000;0.4957;0.4274;
1394.4000;0.5006;0.4418;
1394.7000;0.5039;0.4490;
1395.0000;0.5014;0.4442;
1395.3000;0.5006;0.4442;
1395.6000;0.5031;0.4442;
1395.9000;0.5022;0.4298;
1396.2000;0.5022;0.4322;
1396.5000;0.5022;0.4298;
1396.8000;0.5014;0.4298;
1397.1000;0.4974;0.4250;
1397.4000;0.5022;0.4322;
1397.7000;0.5022;0.4322;
1398.0000;0.5031;0.4322;
1398.3000;0.5014;0.4274;
1398.6000;0.5022;0.4394;
1398.9000;0.4998;0.4394;
1399.2000;0.5006;0.4370;
1399.5000;0.5014;0.4418;
1399.8000;0.5006;0.4370;
