time/ms;Fluo/V;P700 deltaI/I x10³;
-199.8000;0.8091;0.5835;
-199.5000;0.8083;0.5859;
-199.2000;0.8067;0.5715;
-198.9000;0.8083;0.5763;
-198.6000;0.8091;0.5763;
-198.3000;0.8091;0.5715;
-198.0000;0.8091;0.5787;
-197.7000;0.8091;0.5787;
-197.4000;0.8099;0.5811;
-197.1000;0.8099;0.5787;
-196.8000;0.8075;0.5835;
-196.5000;0.8124;0.6003;
-196.2000;0.8083;0.5835;
-195.9000;0.8091;0.5931;
-195.6000;0.8075;0.5931;
-195.3000;0.8099;0.6027;
-195.0000;0.8010;0.5835;
-194.7000;0.8091;0.6099;
-194.4000;0.8091;0.6075;
-194.1000;0.8091;0.6051;
-193.8000;0.8107;0.6099;
-193.5000;0.8091;0.6051;
-193.2000;0.8099;0.6075;
-192.9000;0.8107;0.6051;
-192.6000;0.8083;0.5979;
-192.3000;0.8099;0.6027;
-192.0000;0.8099;0.5931;
-191.7000;0.8075;0.5907;
-191.4000;0.8091;0.6003;
-191.1000;0.8083;0.6003;
-190.8000;0.8107;0.5883;
-190.5000;0.8099;0.5907;
-190.2000;0.8091;0.5787;
-189.9000;0.8107;0.5763;
-189.6000;0.8132;0.5835;
-189.3000;0.8083;0.5739;
-189.0000;0.8099;0.5859;
-188.7000;0.8107;0.6027;
-188.4000;0.8099;0.6051;
-188.1000;0.8091;0.6051;
-187.8000;0.8091;0.5955;
-187.5000;0.8083;0.5931;
-187.2000;0.8083;0.5955;
-186.9000;0.8099;0.5955;
-186.6000;0.8067;0.5883;
-186.3000;0.8091;0.5907;
-186.0000;0.8099;0.5883;
-185.7000;0.8107;0.6003;
-185.4000;0.8091;0.5979;
-185.1000;0.8091;0.5907;
-184.8000;0.8075;0.5811;
-184.5000;0.8107;0.5787;
-184.2000;0.8107;0.5787;
-183.9000;0.8099;0.5835;
-183.6000;0.8083;0.5787;
-183.3000;0.8091;0.5763;
-183.0000;0.8099;0.5859;
-182.7000;0.8099;0.5859;
-182.4000;0.8091;0.5931;
-182.1000;0.8091;0.5931;
-181.8000;0.8091;0.5883;
-181.5000;0.8099;0.5859;
-181.2000;0.8107;0.5787;
-180.9000;0.8091;0.5715;
-180.6000;0.8107;0.5787;
-180.3000;0.8099;0.5811;
-180.0000;0.8107;0.5859;
-179.7000;0.8099;0.5835;
-179.4000;0.8091;0.5931;
-179.1000;0.8116;0.5979;
-178.8000;0.8148;0.6123;
-178.5000;0.8083;0.5955;
-178.2000;0.8099;0.5907;
-177.9000;0.8091;0.5835;
-177.6000;0.8099;0.5787;
-177.3000;0.8107;0.5883;
-177.0000;0.8091;0.5907;
-176.7000;0.8099;0.5979;
-176.4000;0.8083;0.5979;
-176.1000;0.8107;0.6027;
-175.8000;0.8075;0.6003;
-175.5000;0.8091;0.6003;
-175.2000;0.8107;0.6027;
-174.9000;0.8091;0.5979;
-174.6000;0.8099;0.5931;
-174.3000;0.8116;0.5955;
-174.0000;0.8091;0.5859;
-173.7000;0.8083;0.5955;
-173.4000;0.8091;0.5955;
-173.1000;0.8107;0.5931;
-172.8000;0.8107;0.6027;
-172.5000;0.8091;0.5979;
-172.2000;0.8083;0.5859;
-171.9000;0.8099;0.5907;
-171.6000;0.8107;0.5859;
-171.3000;0.8083;0.5835;
-171.0000;0.8059;0.5739;
-170.7000;0.8107;0.5907;
-170.4000;0.8107;0.5907;
-170.1000;0.8107;0.5907;
-169.8000;0.8091;0.5859;
-169.5000;0.8107;0.5883;
-169.2000;0.8107;0.5883;
-168.9000;0.8091;0.5859;
-168.6000;0.8091;0.5835;
-168.3000;0.8107;0.5859;
-168.0000;0.8091;0.5883;
-167.7000;0.8107;0.5907;
-167.4000;0.8083;0.5763;
-167.1000;0.8075;0.5787;
-166.8000;0.8083;0.5859;
-166.5000;0.8091;0.5835;
-166.2000;0.8107;0.5835;
-165.9000;0.8107;0.5835;
-165.6000;0.8107;0.5907;
-165.3000;0.8091;0.5931;
-165.0000;0.8107;0.5979;
-164.7000;0.8099;0.5955;
-164.4000;0.8075;0.5835;
-164.1000;0.8107;0.5907;
-163.8000;0.8116;0.5883;
-163.5000;0.8107;0.5955;
-163.2000;0.8099;0.5955;
-162.9000;0.8107;0.6075;
-162.6000;0.8075;0.5979;
-162.3000;0.8083;0.6003;
-162.0000;0.8075;0.5931;
-161.7000;0.8091;0.5955;
-161.4000;0.8107;0.5955;
-161.1000;0.8091;0.5931;
-160.8000;0.8083;0.5859;
-160.5000;0.8107;0.5907;
-160.2000;0.8107;0.5907;
-159.9000;0.8091;0.5859;
-159.6000;0.8107;0.5907;
-159.3000;0.8091;0.5859;
-159.0000;0.8091;0.5763;
-158.7000;0.8107;0.5811;
-158.4000;0.8091;0.5811;
-158.1000;0.8083;0.5811;
-157.8000;0.8075;0.5859;
-157.5000;0.8099;0.5811;
-157.2000;0.8099;0.5811;
-156.9000;0.8099;0.5859;
-156.6000;0.8075;0.5811;
-156.3000;0.8034;0.5691;
-156.0000;0.8099;0.5859;
-155.7000;0.8107;0.5883;
-155.4000;0.8173;0.6075;
-155.1000;0.8116;0.5883;
-154.8000;0.8107;0.5835;
-154.5000;0.8099;0.5811;
-154.2000;0.8099;0.5811;
-153.9000;0.8107;0.5883;
-153.6000;0.8099;0.5811;
-153.3000;0.8107;0.5859;
-153.0000;0.8107;0.5859;
-152.7000;0.8091;0.5859;
-152.4000;0.8107;0.5859;
-152.1000;0.8107;0.5811;
-151.8000;0.8067;0.5691;
-151.5000;0.8091;0.5691;
-151.2000;0.8075;0.5715;
-150.9000;0.8075;0.5835;
-150.6000;0.8083;0.5859;
-150.3000;0.8099;0.5883;
-150.0000;0.8091;0.5859;
-149.7000;0.8091;0.5835;
-149.4000;0.8107;0.5883;
-149.1000;0.8042;0.5715;
-148.8000;0.8116;0.5931;
-148.5000;0.8116;0.5907;
-148.2000;0.8132;0.5979;
-147.9000;0.8083;0.5931;
-147.6000;0.8083;0.6003;
-147.3000;0.8034;0.5883;
-147.0000;0.8075;0.5883;
-146.7000;0.8099;0.5979;
-146.4000;0.8116;0.6027;
-146.1000;0.8107;0.5907;
-145.8000;0.8099;0.5931;
-145.5000;0.8091;0.5883;
-145.2000;0.8091;0.5859;
-144.9000;0.8099;0.5883;
-144.6000;0.8116;0.5835;
-144.3000;0.8107;0.5763;
-144.0000;0.8091;0.5763;
-143.7000;0.8107;0.5787;
-143.4000;0.8099;0.5739;
-143.1000;0.8107;0.5763;
-142.8000;0.8107;0.5691;
-142.5000;0.8107;0.5787;
-142.2000;0.8099;0.5787;
-141.9000;0.8091;0.5763;
-141.6000;0.8075;0.5835;
-141.3000;0.8075;0.5763;
-141.0000;0.8124;0.5883;
-140.7000;0.8099;0.5859;
-140.4000;0.8059;0.5835;
-140.1000;0.8059;0.5883;
-139.8000;0.8107;0.6099;
-139.5000;0.8050;0.5907;
-139.2000;0.8099;0.6003;
-138.9000;0.8099;0.6003;
-138.6000;0.8116;0.6075;
-138.3000;0.8099;0.6123;
-138.0000;0.8083;0.5955;
-137.7000;0.8083;0.5955;
-137.4000;0.8083;0.6003;
-137.1000;0.8083;0.5979;
-136.8000;0.8099;0.6027;
-136.5000;0.8075;0.5907;
-136.2000;0.8059;0.5955;
-135.9000;0.8091;0.6027;
-135.6000;0.8099;0.6075;
-135.3000;0.8116;0.5931;
-135.0000;0.8075;0.5883;
-134.7000;0.8091;0.5955;
-134.4000;0.8083;0.5931;
-134.1000;0.8107;0.6075;
-133.8000;0.8107;0.6123;
-133.5000;0.8083;0.6123;
-133.2000;0.8050;0.5979;
-132.9000;0.8091;0.6051;
-132.6000;0.8099;0.6051;
-132.3000;0.8124;0.6219;
-132.0000;0.8091;0.6147;
-131.7000;0.8075;0.6123;
-131.4000;0.8107;0.6123;
-131.1000;0.8107;0.6075;
-130.8000;0.8091;0.6027;
-130.5000;0.8107;0.6051;
-130.2000;0.8091;0.6027;
-129.9000;0.8099;0.6075;
-129.6000;0.8091;0.6147;
-129.3000;0.8091;0.6195;
-129.0000;0.8099;0.6171;
-128.7000;0.8107;0.6267;
-128.4000;0.8116;0.6195;
-128.1000;0.8083;0.6195;
-127.8000;0.8083;0.6267;
-127.5000;0.8083;0.6291;
-127.2000;0.8067;0.6219;
-126.9000;0.8083;0.6243;
-126.6000;0.8091;0.6219;
-126.3000;0.8091;0.6243;
-126.0000;0.8083;0.6147;
-125.7000;0.8067;0.6075;
-125.4000;0.8059;0.5979;
-125.1000;0.8050;0.5931;
-124.8000;0.8099;0.6027;
-124.5000;0.8091;0.6027;
-124.2000;0.8099;0.6123;
-123.9000;0.8099;0.6147;
-123.6000;0.8083;0.6075;
-123.3000;0.8173;0.6267;
-123.0000;0.8099;0.6099;
-122.7000;0.8099;0.6075;
-122.4000;0.8140;0.6219;
-122.1000;0.8091;0.6075;
-121.8000;0.8091;0.6099;
-121.5000;0.8067;0.5955;
-121.2000;0.8091;0.5907;
-120.9000;0.8091;0.5811;
-120.6000;0.8091;0.5787;
-120.3000;0.8107;0.5883;
-120.0000;0.8091;0.5931;
-119.7000;0.8075;0.5931;
-119.4000;0.8107;0.6003;
-119.1000;0.8091;0.6003;
-118.8000;0.8099;0.6003;
-118.5000;0.8083;0.5931;
-118.2000;0.8107;0.5955;
-117.9000;0.8091;0.5835;
-117.6000;0.8083;0.5835;
-117.3000;0.8050;0.5883;
-117.0000;0.8099;0.6099;
-116.7000;0.8116;0.6123;
-116.4000;0.8091;0.6099;
-116.1000;0.8083;0.6051;
-115.8000;0.8091;0.6099;
-115.5000;0.8059;0.6051;
-115.2000;0.8091;0.5979;
-114.9000;0.8075;0.5955;
-114.6000;0.8197;0.6291;
-114.3000;0.8116;0.6051;
-114.0000;0.8107;0.6099;
-113.7000;0.8083;0.5955;
-113.4000;0.8107;0.6075;
-113.1000;0.8067;0.6003;
-112.8000;0.8116;0.6075;
-112.5000;0.8091;0.6099;
-112.2000;0.8083;0.6099;
-111.9000;0.8083;0.6075;
-111.6000;0.8091;0.6099;
-111.3000;0.8091;0.6027;
-111.0000;0.8091;0.5907;
-110.7000;0.8075;0.5955;
-110.4000;0.8067;0.5931;
-110.1000;0.8075;0.5883;
-109.8000;0.8034;0.5835;
-109.5000;0.8075;0.5955;
-109.2000;0.8107;0.5979;
-108.9000;0.8099;0.6003;
-108.6000;0.8075;0.5907;
-108.3000;0.8164;0.6123;
-108.0000;0.8091;0.5931;
-107.7000;0.8099;0.5907;
-107.4000;0.8083;0.5883;
-107.1000;0.8075;0.5907;
-106.8000;0.8091;0.5955;
-106.5000;0.8075;0.5931;
-106.2000;0.8091;0.5979;
-105.9000;0.8124;0.6003;
-105.6000;0.8099;0.5859;
-105.3000;0.8099;0.5787;
-105.0000;0.8099;0.5787;
-104.7000;0.8099;0.5763;
-104.4000;0.8091;0.5787;
-104.1000;0.8107;0.5979;
-103.8000;0.8099;0.5955;
-103.5000;0.8067;0.5931;
-103.2000;0.8075;0.5931;
-102.9000;0.8091;0.5883;
-102.6000;0.8091;0.5811;
-102.3000;0.8075;0.5667;
-102.0000;0.8067;0.5691;
-101.7000;0.8099;0.5835;
-101.4000;0.8091;0.5835;
-101.1000;0.8083;0.5859;
-100.8000;0.8034;0.5763;
-100.5000;0.8083;0.5907;
-100.2000;0.8075;0.5835;
-99.9000;0.8091;0.5835;
-99.6000;0.8067;0.5811;
-99.3000;0.8083;0.5931;
-99.0000;0.8091;0.5979;
-98.7000;0.8091;0.5907;
-98.4000;0.8091;0.5955;
-98.1000;0.8091;0.5883;
-97.8000;0.8091;0.5931;
-97.5000;0.8091;0.5811;
-97.2000;0.8091;0.5835;
-96.9000;0.8083;0.5787;
-96.6000;0.8099;0.5763;
-96.3000;0.8099;0.5739;
-96.0000;0.8091;0.5739;
-95.7000;0.8091;0.5787;
-95.4000;0.8091;0.5691;
-95.1000;0.8083;0.5691;
-94.8000;0.8083;0.5691;
-94.5000;0.8075;0.5667;
-94.2000;0.8083;0.5787;
-93.9000;0.8116;0.5907;
-93.6000;0.8091;0.5883;
-93.3000;0.8099;0.5955;
-93.0000;0.8083;0.5883;
-92.7000;0.8026;0.5763;
-92.4000;0.8091;0.5979;
-92.1000;0.8083;0.5931;
-91.8000;0.8075;0.5931;
-91.5000;0.8164;0.6219;
-91.2000;0.8083;0.5979;
-90.9000;0.8067;0.5955;
-90.6000;0.8124;0.6027;
-90.3000;0.8091;0.5883;
-90.0000;0.8099;0.5859;
-89.7000;0.8083;0.5787;
-89.4000;0.8075;0.5811;
-89.1000;0.8091;0.5883;
-88.8000;0.8099;0.5835;
-88.5000;0.8091;0.5811;
-88.2000;0.8067;0.5787;
-87.9000;0.8099;0.5859;
-87.6000;0.8107;0.5859;
-87.3000;0.8099;0.5883;
-87.0000;0.8075;0.5787;
-86.7000;0.8083;0.5859;
-86.4000;0.8107;0.6003;
-86.1000;0.8107;0.6003;
-85.8000;0.8091;0.5931;
-85.5000;0.8107;0.6027;
-85.2000;0.8075;0.5907;
-84.9000;0.8099;0.5955;
-84.6000;0.8091;0.5859;
-84.3000;0.8083;0.5835;
-84.0000;0.8116;0.5883;
-83.7000;0.8124;0.5859;
-83.4000;0.8099;0.5907;
-83.1000;0.8099;0.5859;
-82.8000;0.8205;0.6123;
-82.5000;0.8107;0.5883;
-82.2000;0.8107;0.5787;
-81.9000;0.8091;0.5811;
-81.6000;0.8107;0.5931;
-81.3000;0.8091;0.5955;
-81.0000;0.8091;0.5907;
-80.7000;0.8091;0.5979;
-80.4000;0.8091;0.5979;
-80.1000;0.8083;0.5955;
-79.8000;0.8091;0.5931;
-79.5000;0.8067;0.5955;
-79.2000;0.8018;0.5883;
-78.9000;0.8083;0.6123;
-78.6000;0.8107;0.6123;
-78.3000;0.8091;0.6027;
-78.0000;0.8091;0.5979;
-77.7000;0.8034;0.5763;
-77.4000;0.8132;0.5955;
-77.1000;0.8091;0.5931;
-76.8000;0.8091;0.5883;
-76.5000;0.8091;0.5883;
-76.2000;0.8091;0.5811;
-75.9000;0.8091;0.5763;
-75.6000;0.8116;0.5835;
-75.3000;0.8091;0.5787;
-75.0000;0.8075;0.5763;
-74.7000;0.8099;0.5835;
-74.4000;0.8091;0.5955;
-74.1000;0.8091;0.5979;
-73.8000;0.8099;0.5883;
-73.5000;0.8156;0.6051;
-73.2000;0.8107;0.5907;
-72.9000;0.8083;0.5883;
-72.6000;0.8091;0.5955;
-72.3000;0.8083;0.5883;
-72.0000;0.8099;0.5907;
-71.7000;0.8107;0.5955;
-71.4000;0.8189;0.6219;
-71.1000;0.8091;0.5955;
-70.8000;0.8083;0.5931;
-70.5000;0.8075;0.5835;
-70.2000;0.8099;0.5835;
-69.9000;0.8083;0.5811;
-69.6000;0.8099;0.5811;
-69.3000;0.8042;0.5667;
-69.0000;0.8075;0.5787;
-68.7000;0.8075;0.5835;
-68.4000;0.8099;0.5955;
-68.1000;0.8099;0.5955;
-67.8000;0.8091;0.5907;
-67.5000;0.8099;0.5979;
-67.2000;0.8083;0.5883;
-66.9000;0.8091;0.5835;
-66.6000;0.8042;0.5715;
-66.3000;0.8067;0.5763;
-66.0000;0.8099;0.5835;
-65.7000;0.8091;0.5835;
-65.4000;0.8059;0.5739;
-65.1000;0.8083;0.5835;
-64.8000;0.8083;0.5835;
-64.5000;0.8091;0.5835;
-64.2000;0.8116;0.5859;
-63.9000;0.8107;0.5835;
-63.6000;0.8083;0.5787;
-63.3000;0.8099;0.5883;
-63.0000;0.8091;0.5907;
-62.7000;0.8091;0.6003;
-62.4000;0.8099;0.6003;
-62.1000;0.8099;0.6003;
-61.8000;0.8099;0.6027;
-61.5000;0.8067;0.5955;
-61.2000;0.8107;0.6075;
-60.9000;0.8083;0.6051;
-60.6000;0.8116;0.6075;
-60.3000;0.8091;0.5979;
-60.0000;0.8107;0.5979;
-59.7000;0.8091;0.5883;
-59.4000;0.8083;0.5883;
-59.1000;0.8091;0.5907;
-58.8000;0.8010;0.5667;
-58.5000;0.8083;0.5739;
-58.2000;0.8107;0.5835;
-57.9000;0.8083;0.5763;
-57.6000;0.8083;0.5835;
-57.3000;0.8075;0.5859;
-57.0000;0.8091;0.5883;
-56.7000;0.8083;0.5979;
-56.4000;0.8083;0.6003;
-56.1000;0.8083;0.6027;
-55.8000;0.8205;0.6363;
-55.5000;0.8099;0.6099;
-55.2000;0.8116;0.6123;
-54.9000;0.8083;0.6003;
-54.6000;0.8083;0.6027;
-54.3000;0.8091;0.5979;
-54.0000;0.8075;0.5979;
-53.7000;0.8075;0.5883;
-53.4000;0.8107;0.5907;
-53.1000;0.8091;0.5859;
-52.8000;0.8075;0.5859;
-52.5000;0.8083;0.5883;
-52.2000;0.8083;0.5931;
-51.9000;0.8091;0.5907;
-51.6000;0.8091;0.5811;
-51.3000;0.8099;0.5883;
-51.0000;0.8083;0.5883;
-50.7000;0.8083;0.5907;
-50.4000;0.8099;0.5931;
-50.1000;0.8075;0.5883;
-49.8000;0.8099;0.5859;
-49.5000;0.8083;0.5883;
-49.2000;0.8042;0.5835;
-48.9000;0.8083;0.5955;
-48.6000;0.8083;0.6003;
-48.3000;0.8091;0.5907;
-48.0000;0.8099;0.5907;
-47.7000;0.8099;0.5883;
-47.4000;0.8099;0.5907;
-47.1000;0.8099;0.6003;
-46.8000;0.8083;0.5979;
-46.5000;0.8091;0.6003;
-46.2000;0.8099;0.6051;
-45.9000;0.8059;0.5979;
-45.6000;0.8083;0.6051;
-45.3000;0.8099;0.6123;
-45.0000;0.8091;0.6099;
-44.7000;0.8091;0.6075;
-44.4000;0.8091;0.6099;
-44.1000;0.8083;0.6003;
-43.8000;0.8124;0.6003;
-43.5000;0.8091;0.5931;
-43.2000;0.8083;0.5955;
-42.9000;0.8099;0.6027;
-42.6000;0.8083;0.5931;
-42.3000;0.8132;0.5955;
-42.0000;0.8091;0.5811;
-41.7000;0.8083;0.5835;
-41.4000;0.8059;0.5715;
-41.1000;0.8091;0.5931;
-40.8000;0.8099;0.6027;
-40.5000;0.8083;0.6003;
-40.2000;0.8034;0.5931;
-39.9000;0.8091;0.5955;
-39.6000;0.8083;0.5859;
-39.3000;0.8091;0.5811;
-39.0000;0.8091;0.5763;
-38.7000;0.8099;0.5835;
-38.4000;0.8091;0.5811;
-38.1000;0.8099;0.5883;
-37.8000;0.8173;0.6123;
-37.5000;0.8083;0.5883;
-37.2000;0.8059;0.5907;
-36.9000;0.8107;0.6003;
-36.6000;0.8116;0.6075;
-36.3000;0.8091;0.6027;
-36.0000;0.8099;0.5979;
-35.7000;0.8091;0.5979;
-35.4000;0.8107;0.5979;
-35.1000;0.8107;0.6027;
-34.8000;0.8067;0.5883;
-34.5000;0.8083;0.5859;
-34.2000;0.8091;0.5835;
-33.9000;0.8099;0.5835;
-33.6000;0.8083;0.5739;
-33.3000;0.8067;0.5739;
-33.0000;0.8116;0.5859;
-32.7000;0.8034;0.5691;
-32.4000;0.8099;0.5955;
-32.1000;0.8099;0.5931;
-31.8000;0.8099;0.6027;
-31.5000;0.8116;0.5979;
-31.2000;0.8083;0.5979;
-30.9000;0.8099;0.6051;
-30.6000;0.8107;0.6027;
-30.3000;0.8099;0.5979;
-30.0000;0.8107;0.5979;
-29.7000;0.8083;0.5979;
-29.4000;0.8091;0.6003;
-29.1000;0.8132;0.6219;
-28.8000;0.8164;0.6387;
-28.5000;0.8083;0.6267;
-28.2000;0.8099;0.6243;
-27.9000;0.8099;0.6195;
-27.6000;0.8099;0.6171;
-27.3000;0.8099;0.6099;
-27.0000;0.8091;0.6051;
-26.7000;0.8099;0.6075;
-26.4000;0.8213;0.6315;
-26.1000;0.8099;0.6099;
-25.8000;0.8099;0.6147;
-25.5000;0.8091;0.6099;
-25.2000;0.8099;0.6003;
-24.9000;0.8099;0.6099;
-24.6000;0.8091;0.5979;
-24.3000;0.8091;0.6003;
-24.0000;0.8099;0.6075;
-23.7000;0.8107;0.6075;
-23.4000;0.8075;0.5979;
-23.1000;0.8075;0.5907;
-22.8000;0.8148;0.6123;
-22.5000;0.8083;0.5883;
-22.2000;0.8075;0.5931;
-21.9000;0.8099;0.5955;
-21.6000;0.8116;0.6075;
-21.3000;0.8148;0.6171;
-21.0000;0.8107;0.6099;
-20.7000;0.8067;0.6099;
-20.4000;0.8083;0.6099;
-20.1000;0.8091;0.6075;
-19.8000;0.8091;0.5955;
-19.5000;0.8083;0.5883;
-19.2000;0.8083;0.5787;
-18.9000;0.8083;0.5787;
-18.6000;0.8099;0.5883;
-18.3000;0.8124;0.5955;
-18.0000;0.8099;0.5883;
-17.7000;0.8091;0.5883;
-17.4000;0.8148;0.6027;
-17.1000;0.8099;0.5883;
-16.8000;0.8099;0.5883;
-16.5000;0.8099;0.5883;
-16.2000;0.8091;0.5907;
-15.9000;0.8107;0.5979;
-15.6000;0.8075;0.6051;
-15.3000;0.8132;0.6123;
-15.0000;0.8091;0.6027;
-14.7000;0.8091;0.6003;
-14.4000;0.8083;0.5931;
-14.1000;0.8075;0.5955;
-13.8000;0.8107;0.5955;
-13.5000;0.8099;0.5907;
-13.2000;0.8099;0.5907;
-12.9000;0.8099;0.5979;
-12.6000;0.8107;0.5955;
-12.3000;0.8099;0.5931;
-12.0000;0.8091;0.5931;
-11.7000;0.8099;0.5979;
-11.4000;0.8099;0.5955;
-11.1000;0.8107;0.5907;
-10.8000;0.8099;0.5931;
-10.5000;0.8083;0.5979;
-10.2000;0.8083;0.5979;
-9.9000;0.8107;0.6075;
-9.6000;0.8091;0.6051;
-9.3000;0.8083;0.6003;
-9.0000;0.8099;0.5979;
-8.7000;0.8091;0.5955;
-8.4000;0.8083;0.5979;
-8.1000;0.8083;0.5931;
-7.8000;0.8140;0.6075;
-7.5000;0.8091;0.6027;
-7.2000;0.8116;0.6027;
-6.9000;0.8099;0.6099;
-6.6000;0.8091;0.5979;
-6.3000;0.8116;0.5955;
-6.0000;0.8099;0.5931;
-5.7000;0.8099;0.6027;
-5.4000;0.8083;0.6003;
-5.1000;0.8091;0.5931;
-4.8000;0.8091;0.5955;
-4.5000;0.8083;0.5859;
-4.2000;0.8083;0.5811;
-3.9000;0.8083;0.5835;
-3.6000;0.8083;0.5883;
-3.3000;0.8124;0.5955;
-3.0000;0.8107;0.5907;
-2.7000;0.8083;0.5931;
-2.4000;0.8099;0.5955;
-2.1000;0.8116;0.5979;
-1.8000;0.8099;0.5955;
-1.5000;0.8091;0.5907;
-1.2000;0.8091;0.6027;
-0.9000;0.8091;0.5979;
-0.6000;0.8091;0.5907;
-0.3000;0.8083;0.5907;
0.0000;0.8083;0.5907;
0.3000;0.8091;0.5907;
0.6000;0.8107;0.6051;
0.9000;0.8116;0.6219;
1.2000;0.8140;0.6435;
1.5000;0.8124;0.6508;
1.8000;0.8140;0.6724;
2.1000;0.8148;0.6988;
2.4000;0.8164;0.7156;
2.7000;0.8164;0.7348;
3.0000;0.8181;0.7444;
3.3000;0.8164;0.7516;
3.6000;0.8173;0.7588;
3.9000;0.8181;0.7636;
4.2000;0.8173;0.7660;
4.5000;0.8164;0.7756;
4.8000;0.8173;0.7804;
5.1000;0.8173;0.7852;
5.4000;0.8181;0.7924;
5.7000;0.8197;0.7972;
6.0000;0.8173;0.7948;
6.3000;0.8181;0.7900;
6.6000;0.8221;0.7996;
6.9000;0.8213;0.8020;
7.2000;0.8197;0.7972;
7.5000;0.8205;0.7972;
7.8000;0.8221;0.7996;
8.1000;0.8230;0.7996;
8.4000;0.8156;0.7876;
8.7000;0.8205;0.8092;
9.0000;0.8213;0.8116;
9.3000;0.8213;0.8116;
9.6000;0.8230;0.8044;
9.9000;0.8205;0.8068;
10.2000;0.8189;0.8044;
10.5000;0.8221;0.8020;
10.8000;0.8189;0.7876;
11.1000;0.8205;0.7852;
11.4000;0.8205;0.7804;
11.7000;0.8230;0.7780;
12.0000;0.8230;0.7780;
12.3000;0.8238;0.7828;
12.6000;0.8197;0.7804;
12.9000;0.8221;0.7804;
13.2000;0.8230;0.7756;
13.5000;0.8238;0.7684;
13.8000;0.8238;0.7708;
14.1000;0.8230;0.7684;
14.4000;0.8287;0.7852;
14.7000;0.8230;0.7636;
15.0000;0.8230;0.7732;
15.3000;0.8246;0.7684;
15.6000;0.8262;0.7780;
15.9000;0.8238;0.7804;
16.2000;0.8230;0.7852;
16.5000;0.8246;0.7996;
16.8000;0.8262;0.8068;
17.1000;0.8246;0.7996;
17.4000;0.8238;0.7876;
17.7000;0.8230;0.7900;
18.0000;0.8254;0.7876;
18.3000;0.8254;0.7900;
18.6000;0.8262;0.7924;
18.9000;0.8254;0.7924;
19.2000;0.8246;0.7948;
19.5000;0.8254;0.7948;
19.8000;0.8262;0.8020;
20.1000;0.8246;0.8044;
20.4000;0.8262;0.8092;
20.7000;0.8246;0.8044;
21.0000;0.8254;0.8020;
21.3000;0.8246;0.7996;
21.6000;0.8230;0.7876;
21.9000;0.8262;0.7972;
22.2000;0.8246;0.7948;
22.5000;0.8238;0.7948;
22.8000;0.8246;0.7972;
23.1000;0.8262;0.7972;
23.4000;0.8262;0.8020;
23.7000;0.8246;0.8044;
24.0000;0.8254;0.7996;
24.3000;0.8254;0.8020;
24.6000;0.8262;0.8092;
24.9000;0.8262;0.8116;
25.2000;0.8254;0.8092;
25.5000;0.8230;0.8068;
25.8000;0.8262;0.8212;
26.1000;0.8230;0.8188;
26.4000;0.8262;0.8212;
26.7000;0.8246;0.8140;
27.0000;0.8270;0.8164;
27.3000;0.8246;0.8164;
27.6000;0.8262;0.8116;
27.9000;0.8254;0.8116;
28.2000;0.8205;0.7996;
28.5000;0.8205;0.7948;
28.8000;0.8246;0.8020;
29.1000;0.8254;0.8164;
29.4000;0.8254;0.8212;
29.7000;0.8246;0.8164;
30.0000;0.8278;0.8212;
30.3000;0.8246;0.8140;
30.6000;0.8246;0.8116;
30.9000;0.8270;0.8164;
31.2000;0.8278;0.8236;
31.5000;0.8262;0.8140;
31.8000;0.8262;0.8140;
32.1000;0.8270;0.8140;
32.4000;0.8327;0.8164;
32.7000;0.8262;0.7996;
33.0000;0.8278;0.7972;
33.3000;0.8173;0.7732;
33.6000;0.8262;0.7972;
33.9000;0.8270;0.7900;
34.2000;0.8254;0.7852;
34.5000;0.8238;0.7900;
34.8000;0.8254;0.8020;
35.1000;0.8262;0.8044;
35.4000;0.8270;0.8068;
35.7000;0.8287;0.7996;
36.0000;0.8262;0.7972;
36.3000;0.8230;0.7852;
36.6000;0.8287;0.7900;
36.9000;0.8254;0.7804;
37.2000;0.8278;0.7876;
37.5000;0.8254;0.7852;
37.8000;0.8270;0.7804;
38.1000;0.8246;0.7732;
38.4000;0.8270;0.7804;
38.7000;0.8278;0.7828;
39.0000;0.8262;0.7732;
39.3000;0.8295;0.7900;
39.6000;0.8238;0.7780;
39.9000;0.8246;0.7804;
40.2000;0.8262;0.7804;
40.5000;0.8278;0.7804;
40.8000;0.8319;0.7876;
41.1000;0.8254;0.7828;
41.4000;0.8221;0.7756;
41.7000;0.8262;0.7900;
42.0000;0.8238;0.7924;
42.3000;0.8287;0.8044;
42.6000;0.8270;0.7972;
42.9000;0.8246;0.7948;
43.2000;0.8254;0.7924;
43.5000;0.8262;0.7924;
43.8000;0.8270;0.7900;
44.1000;0.8319;0.7948;
44.4000;0.8254;0.7756;
44.7000;0.8278;0.7780;
45.0000;0.8262;0.7756;
45.3000;0.8230;0.7756;
45.6000;0.8254;0.7876;
45.9000;0.8221;0.7876;
46.2000;0.8270;0.7924;
46.5000;0.8213;0.7732;
46.8000;0.8270;0.7852;
47.1000;0.8262;0.7948;
47.4000;0.8254;0.7996;
47.7000;0.8197;0.7876;
48.0000;0.8254;0.7996;
48.3000;0.8254;0.7948;
48.6000;0.8246;0.7876;
48.9000;0.8270;0.7876;
49.2000;0.8270;0.7804;
49.5000;0.8254;0.7852;
49.8000;0.8270;0.7948;
50.1000;0.8270;0.8020;
50.4000;0.8278;0.7996;
50.7000;0.8278;0.7924;
51.0000;0.8270;0.7948;
51.3000;0.8287;0.7972;
51.6000;0.8287;0.7972;
51.9000;0.8270;0.7972;
52.2000;0.8270;0.7972;
52.5000;0.8254;0.7900;
52.8000;0.8303;0.7924;
53.1000;0.8287;0.7900;
53.4000;0.8254;0.7852;
53.7000;0.8278;0.7924;
54.0000;0.8287;0.8044;
54.3000;0.8295;0.7996;
54.6000;0.8278;0.7948;
54.9000;0.8295;0.8020;
55.2000;0.8270;0.8044;
55.5000;0.8270;0.7996;
55.8000;0.8246;0.7996;
56.1000;0.8262;0.7996;
56.4000;0.8262;0.8092;
56.7000;0.8262;0.8068;
57.0000;0.8238;0.7948;
57.3000;0.8262;0.7996;
57.6000;0.8262;0.7996;
57.9000;0.8270;0.7996;
58.2000;0.8270;0.7948;
58.5000;0.8278;0.7996;
58.8000;0.8278;0.8140;
59.1000;0.8270;0.8188;
59.4000;0.8262;0.8188;
59.7000;0.8254;0.8188;
60.0000;0.8173;0.7924;
60.3000;0.8262;0.8116;
60.6000;0.8246;0.8116;
60.9000;0.8238;0.8020;
61.2000;0.8238;0.8020;
61.5000;0.8270;0.8068;
61.8000;0.8254;0.8092;
62.1000;0.8189;0.7948;
62.4000;0.8287;0.8116;
62.7000;0.8262;0.8092;
63.0000;0.8262;0.8044;
63.3000;0.8246;0.8020;
63.6000;0.8181;0.7756;
63.9000;0.8278;0.8020;
64.2000;0.8287;0.7996;
64.5000;0.8287;0.8044;
64.8000;0.8368;0.8308;
65.1000;0.8254;0.8020;
65.4000;0.8246;0.7972;
65.7000;0.8254;0.7876;
66.0000;0.8278;0.7924;
66.3000;0.8278;0.7924;
66.6000;0.8270;0.7876;
66.9000;0.8270;0.7924;
67.2000;0.8246;0.7852;
67.5000;0.8254;0.7900;
67.8000;0.8254;0.7924;
68.1000;0.8254;0.7972;
68.4000;0.8246;0.7948;
68.7000;0.8295;0.8116;
69.0000;0.8262;0.8092;
69.3000;0.8246;0.8044;
69.6000;0.8246;0.8068;
69.9000;0.8254;0.8020;
70.2000;0.8254;0.8020;
70.5000;0.8262;0.7972;
70.8000;0.8270;0.8020;
71.1000;0.8262;0.7948;
71.4000;0.8230;0.7948;
71.7000;0.8262;0.8044;
72.0000;0.8270;0.7996;
72.3000;0.8303;0.8140;
72.6000;0.8262;0.8020;
72.9000;0.8270;0.8092;
73.2000;0.8278;0.8164;
73.5000;0.8270;0.8188;
73.8000;0.8246;0.8068;
74.1000;0.8270;0.8068;
74.4000;0.8278;0.7996;
74.7000;0.8270;0.7900;
75.0000;0.8262;0.7900;
75.3000;0.8254;0.7948;
75.6000;0.8254;0.7996;
75.9000;0.8254;0.7900;
76.2000;0.8254;0.7852;
76.5000;0.8254;0.7876;
76.8000;0.8270;0.7924;
77.1000;0.8262;0.7900;
77.4000;0.8254;0.7948;
77.7000;0.8238;0.7852;
78.0000;0.8254;0.7972;
78.3000;0.8287;0.8020;
78.6000;0.8254;0.7948;
78.9000;0.8262;0.7948;
79.2000;0.8270;0.7924;
79.5000;0.8262;0.7852;
79.8000;0.8319;0.7996;
80.1000;0.8213;0.7828;
80.4000;0.8230;0.7900;
80.7000;0.8230;0.7900;
81.0000;0.8254;0.7948;
81.3000;0.8254;0.7972;
81.6000;0.8246;0.7972;
81.9000;0.8262;0.8020;
82.2000;0.8254;0.7996;
82.5000;0.8254;0.8044;
82.8000;0.8246;0.7924;
83.1000;0.8262;0.7972;
83.4000;0.8238;0.7900;
83.7000;0.8254;0.7948;
84.0000;0.8278;0.8020;
84.3000;0.8262;0.8044;
84.6000;0.8270;0.8092;
84.9000;0.8287;0.8236;
85.2000;0.8238;0.8140;
85.5000;0.8254;0.8116;
85.8000;0.8246;0.8068;
86.1000;0.8246;0.8116;
86.4000;0.8246;0.8020;
86.7000;0.8246;0.8020;
87.0000;0.8352;0.8356;
87.3000;0.8246;0.8068;
87.6000;0.8238;0.7900;
87.9000;0.8246;0.7900;
88.2000;0.8262;0.7924;
88.5000;0.8246;0.7900;
88.8000;0.8238;0.7852;
89.1000;0.8230;0.7804;
89.4000;0.8238;0.7828;
89.7000;0.8254;0.7900;
90.0000;0.8246;0.7924;
90.3000;0.8262;0.7876;
90.6000;0.8254;0.7876;
90.9000;0.8238;0.7804;
91.2000;0.8254;0.7804;
91.5000;0.8246;0.7828;
91.8000;0.8246;0.7780;
92.1000;0.8246;0.7828;
92.4000;0.8270;0.7876;
92.7000;0.8238;0.7876;
93.0000;0.8262;0.7876;
93.3000;0.8254;0.7900;
93.6000;0.8246;0.7876;
93.9000;0.8246;0.7900;
94.2000;0.8238;0.7924;
94.5000;0.8189;0.7876;
94.8000;0.8238;0.7948;
95.1000;0.8270;0.8044;
95.4000;0.8246;0.7972;
95.7000;0.8254;0.8068;
96.0000;0.8287;0.8044;
96.3000;0.8246;0.7924;
96.6000;0.8270;0.8140;
96.9000;0.8262;0.8188;
97.2000;0.8262;0.8140;
97.5000;0.8254;0.8092;
97.8000;0.8230;0.8068;
98.1000;0.8246;0.8140;
98.4000;0.8278;0.8188;
98.7000;0.8238;0.8188;
99.0000;0.8254;0.8260;
99.3000;0.8238;0.8212;
99.6000;0.8278;0.8308;
99.9000;0.8254;0.8332;
100.2000;0.8246;0.8284;
100.5000;0.8254;0.8260;
100.8000;0.8262;0.8212;
101.1000;0.8278;0.8212;
101.4000;0.8270;0.8116;
101.7000;0.8254;0.8116;
102.0000;0.8238;0.8116;
102.3000;0.8246;0.8212;
102.6000;0.8262;0.8236;
102.9000;0.8254;0.8164;
103.2000;0.8238;0.8188;
103.5000;0.8238;0.8140;
103.8000;0.8335;0.8284;
104.1000;0.8246;0.8044;
104.4000;0.8238;0.8068;
104.7000;0.8238;0.8068;
105.0000;0.8352;0.8284;
105.3000;0.8205;0.7924;
105.6000;0.8246;0.8068;
105.9000;0.8254;0.8116;
106.2000;0.8238;0.8020;
106.5000;0.8262;0.8044;
106.8000;0.8352;0.8356;
107.1000;0.8246;0.8164;
107.4000;0.8221;0.8020;
107.7000;0.8246;0.8116;
108.0000;0.8254;0.8164;
108.3000;0.8270;0.8164;
108.6000;0.8270;0.8236;
108.9000;0.8254;0.8212;
109.2000;0.8262;0.8212;
109.5000;0.8254;0.8284;
109.8000;0.8319;0.8549;
110.1000;0.8262;0.8260;
110.4000;0.8254;0.8212;
110.7000;0.8238;0.8164;
111.0000;0.8262;0.8188;
111.3000;0.8254;0.8164;
111.6000;0.8262;0.8236;
111.9000;0.8311;0.8308;
112.2000;0.8246;0.8140;
112.5000;0.8262;0.8116;
112.8000;0.8262;0.8068;
113.1000;0.8246;0.8044;
113.4000;0.8254;0.8092;
113.7000;0.8254;0.7996;
114.0000;0.8254;0.7972;
114.3000;0.8254;0.7972;
114.6000;0.8262;0.7924;
114.9000;0.8262;0.7924;
115.2000;0.8262;0.7900;
115.5000;0.8221;0.7804;
115.8000;0.8221;0.7804;
116.1000;0.8238;0.7924;
116.4000;0.8238;0.7996;
116.7000;0.8246;0.8068;
117.0000;0.8230;0.8068;
117.3000;0.8262;0.8116;
117.6000;0.8254;0.8068;
117.9000;0.8238;0.8044;
118.2000;0.8238;0.7996;
118.5000;0.8246;0.7900;
118.8000;0.8254;0.7996;
119.1000;0.8246;0.7996;
119.4000;0.8254;0.7876;
119.7000;0.8221;0.7780;
120.0000;0.8254;0.7900;
120.3000;0.8205;0.7804;
120.6000;0.8246;0.7900;
120.9000;0.8254;0.7948;
121.2000;0.8238;0.7876;
121.5000;0.8238;0.7780;
121.8000;0.8238;0.7852;
122.1000;0.8238;0.7924;
122.4000;0.8295;0.8164;
122.7000;0.8238;0.8044;
123.0000;0.8205;0.8020;
123.3000;0.8254;0.8068;
123.6000;0.8270;0.8188;
123.9000;0.8270;0.8188;
124.2000;0.8254;0.8236;
124.5000;0.8238;0.8188;
124.8000;0.8254;0.8188;
125.1000;0.8262;0.8164;
125.4000;0.8246;0.8188;
125.7000;0.8230;0.8092;
126.0000;0.8238;0.8092;
126.3000;0.8254;0.8116;
126.6000;0.8238;0.8092;
126.9000;0.8230;0.8044;
127.2000;0.8221;0.7948;
127.5000;0.8230;0.7924;
127.8000;0.8246;0.7924;
128.1000;0.8278;0.8020;
128.4000;0.8238;0.7900;
128.7000;0.8254;0.7924;
129.0000;0.8246;0.7948;
129.3000;0.8205;0.7780;
129.6000;0.8262;0.7996;
129.9000;0.8238;0.7948;
130.2000;0.8254;0.8068;
130.5000;0.8254;0.8116;
130.8000;0.8213;0.8044;
131.1000;0.8254;0.8116;
131.4000;0.8246;0.7996;
131.7000;0.8213;0.8020;
132.0000;0.8246;0.8092;
132.3000;0.8376;0.8429;
132.6000;0.8197;0.7996;
132.9000;0.8197;0.7948;
133.2000;0.8197;0.7996;
133.5000;0.8238;0.7996;
133.8000;0.8213;0.7924;
134.1000;0.8262;0.8116;
134.4000;0.8238;0.8068;
134.7000;0.8238;0.7948;
135.0000;0.8230;0.7804;
135.3000;0.8230;0.7876;
135.6000;0.8221;0.7924;
135.9000;0.8238;0.8020;
136.2000;0.8270;0.8092;
136.5000;0.8230;0.8020;
136.8000;0.8246;0.8044;
137.1000;0.8246;0.8068;
137.4000;0.8205;0.7972;
137.7000;0.8238;0.8068;
138.0000;0.8246;0.8020;
138.3000;0.8246;0.8116;
138.6000;0.8254;0.8116;
138.9000;0.8230;0.7996;
139.2000;0.8230;0.7996;
139.5000;0.8246;0.7972;
139.8000;0.8238;0.7876;
140.1000;0.8238;0.7876;
140.4000;0.8230;0.7900;
140.7000;0.8254;0.7924;
141.0000;0.8230;0.7900;
141.3000;0.8238;0.7924;
141.6000;0.8262;0.8020;
141.9000;0.8246;0.8044;
142.2000;0.8246;0.8092;
142.5000;0.8238;0.8092;
142.8000;0.8230;0.8068;
143.1000;0.8230;0.8020;
143.4000;0.8230;0.8020;
143.7000;0.8238;0.7996;
144.0000;0.8140;0.7780;
144.3000;0.8238;0.8044;
144.6000;0.8230;0.8068;
144.9000;0.8238;0.8020;
145.2000;0.8246;0.7972;
145.5000;0.8221;0.7972;
145.8000;0.8278;0.8164;
146.1000;0.8287;0.8044;
146.4000;0.8230;0.7948;
146.7000;0.8221;0.7996;
147.0000;0.8319;0.8188;
147.3000;0.8238;0.7900;
147.6000;0.8213;0.7852;
147.9000;0.8230;0.8020;
148.2000;0.8238;0.7996;
148.5000;0.8238;0.7972;
148.8000;0.8238;0.7876;
149.1000;0.8262;0.7852;
149.4000;0.8246;0.7780;
149.7000;0.8238;0.7780;
150.0000;0.8270;0.7948;
150.3000;0.8270;0.7900;
150.6000;0.8262;0.7924;
150.9000;0.8254;0.7924;
151.2000;0.8238;0.7948;
151.5000;0.8238;0.7972;
151.8000;0.8246;0.8020;
152.1000;0.8221;0.7996;
152.4000;0.8238;0.8020;
152.7000;0.8230;0.7972;
153.0000;0.8230;0.7996;
153.3000;0.8246;0.8092;
153.6000;0.8262;0.8116;
153.9000;0.8238;0.8020;
154.2000;0.8213;0.8068;
154.5000;0.8213;0.8044;
154.8000;0.8262;0.8068;
155.1000;0.8238;0.8020;
155.4000;0.8230;0.8164;
155.7000;0.8278;0.8188;
156.0000;0.8246;0.8116;
156.3000;0.8278;0.8164;
156.6000;0.8181;0.7876;
156.9000;0.8230;0.7900;
157.2000;0.8238;0.7900;
157.5000;0.8230;0.7924;
157.8000;0.8238;0.7924;
158.1000;0.8221;0.7900;
158.4000;0.8246;0.8068;
158.7000;0.8221;0.8020;
159.0000;0.8238;0.8044;
159.3000;0.8230;0.7972;
159.6000;0.8238;0.7996;
159.9000;0.8238;0.7948;
160.2000;0.8230;0.7924;
160.5000;0.8246;0.8044;
160.8000;0.8230;0.8020;
161.1000;0.8238;0.8140;
161.4000;0.8221;0.8020;
161.7000;0.8221;0.7996;
162.0000;0.8238;0.8020;
162.3000;0.8238;0.8044;
162.6000;0.8254;0.8068;
162.9000;0.8213;0.7948;
163.2000;0.8221;0.7996;
163.5000;0.8238;0.8068;
163.8000;0.8238;0.8020;
164.1000;0.8221;0.7924;
164.4000;0.8221;0.7948;
164.7000;0.8230;0.7996;
165.0000;0.8238;0.7996;
165.3000;0.8221;0.7948;
165.6000;0.8221;0.7948;
165.9000;0.8238;0.8020;
166.2000;0.8238;0.7972;
166.5000;0.8238;0.8020;
166.8000;0.8238;0.7996;
167.1000;0.8238;0.8092;
167.4000;0.8246;0.8044;
167.7000;0.8230;0.8020;
168.0000;0.8221;0.8020;
168.3000;0.8238;0.8044;
168.6000;0.8238;0.8068;
168.9000;0.8230;0.8164;
169.2000;0.8238;0.8188;
169.5000;0.8238;0.8164;
169.8000;0.8238;0.8164;
170.1000;0.8230;0.8164;
170.4000;0.8238;0.8140;
170.7000;0.8270;0.8260;
171.0000;0.8246;0.8140;
171.3000;0.8246;0.8116;
171.6000;0.8254;0.7996;
171.9000;0.8213;0.7924;
172.2000;0.8238;0.8020;
172.5000;0.8246;0.8068;
172.8000;0.8344;0.8260;
173.1000;0.8254;0.7924;
173.4000;0.8221;0.7900;
173.7000;0.8238;0.7900;
174.0000;0.8270;0.8044;
174.3000;0.8197;0.7828;
174.6000;0.8238;0.7852;
174.9000;0.8221;0.7852;
175.2000;0.8238;0.7924;
175.5000;0.8230;0.7948;
175.8000;0.8213;0.7996;
176.1000;0.8238;0.8020;
176.4000;0.8254;0.7972;
176.7000;0.8230;0.7996;
177.0000;0.8213;0.8020;
177.3000;0.8295;0.8164;
177.6000;0.8254;0.7972;
177.9000;0.8238;0.7852;
178.2000;0.8221;0.7828;
178.5000;0.8230;0.7804;
178.8000;0.8221;0.7852;
179.1000;0.8238;0.7780;
179.4000;0.8197;0.7756;
179.7000;0.8238;0.7876;
180.0000;0.8238;0.7900;
180.3000;0.8246;0.7876;
180.6000;0.8246;0.7876;
180.9000;0.8238;0.7828;
181.2000;0.8230;0.7780;
181.5000;0.8230;0.7756;
181.8000;0.8246;0.7876;
182.1000;0.8205;0.7828;
182.4000;0.8205;0.7900;
182.7000;0.8246;0.8044;
183.0000;0.8238;0.8020;
183.3000;0.8221;0.7996;
183.6000;0.8221;0.8020;
183.9000;0.8221;0.8020;
184.2000;0.8221;0.8020;
184.5000;0.8213;0.7924;
184.8000;0.8213;0.7972;
185.1000;0.8221;0.7900;
185.4000;0.8270;0.7948;
185.7000;0.8213;0.7900;
186.0000;0.8205;0.7948;
186.3000;0.8246;0.8044;
186.6000;0.8238;0.8068;
186.9000;0.8221;0.7996;
187.2000;0.8213;0.7948;
187.5000;0.8156;0.7708;
187.8000;0.8230;0.7828;
188.1000;0.8230;0.7756;
188.4000;0.8230;0.7780;
188.7000;0.8213;0.7732;
189.0000;0.8221;0.7876;
189.3000;0.8230;0.7924;
189.6000;0.8230;0.7828;
189.9000;0.8238;0.7852;
190.2000;0.8246;0.7972;
190.5000;0.8221;0.7948;
190.8000;0.8230;0.7972;
191.1000;0.8230;0.7876;
191.4000;0.8213;0.7876;
191.7000;0.8254;0.7876;
192.0000;0.8213;0.7708;
192.3000;0.8238;0.7732;
192.6000;0.8230;0.7756;
192.9000;0.8246;0.7756;
193.2000;0.8230;0.7732;
193.5000;0.8221;0.7732;
193.8000;0.8205;0.7756;
194.1000;0.8213;0.7804;
194.4000;0.8303;0.7948;
194.7000;0.8230;0.7804;
195.0000;0.8221;0.7756;
195.3000;0.8221;0.7804;
195.6000;0.8238;0.7828;
195.9000;0.8230;0.7900;
196.2000;0.8221;0.7948;
196.5000;0.8238;0.7972;
196.8000;0.8295;0.8092;
197.1000;0.8221;0.7876;
197.4000;0.8221;0.7900;
197.7000;0.8230;0.7828;
198.0000;0.8221;0.7756;
198.3000;0.8221;0.7828;
198.6000;0.8205;0.7852;
198.9000;0.8230;0.7780;
199.2000;0.8262;0.7900;
199.5000;0.8230;0.7780;
199.8000;0.8230;0.7900;
200.1000;0.8213;0.7948;
200.4000;0.8270;0.7996;
200.7000;0.8213;0.7804;
201.0000;0.8221;0.7828;
201.3000;0.8230;0.7876;
201.6000;0.8238;0.7804;
201.9000;0.8221;0.7708;
202.2000;0.8221;0.7708;
202.5000;0.8205;0.7732;
202.8000;0.8221;0.7780;
203.1000;0.8238;0.7780;
203.4000;0.8230;0.7756;
203.7000;0.8221;0.7660;
204.0000;0.8213;0.7660;
204.3000;0.8230;0.7684;
204.6000;0.8221;0.7684;
204.9000;0.8205;0.7684;
205.2000;0.8221;0.7852;
205.5000;0.8230;0.7876;
205.8000;0.8213;0.7780;
206.1000;0.8213;0.7780;
206.4000;0.8230;0.7804;
206.7000;0.8213;0.7828;
207.0000;0.8221;0.7900;
207.3000;0.8221;0.7924;
207.6000;0.8205;0.7900;
207.9000;0.8213;0.7804;
208.2000;0.8213;0.7852;
208.5000;0.8254;0.7924;
208.8000;0.8238;0.7756;
209.1000;0.8221;0.7684;
209.4000;0.8221;0.7612;
209.7000;0.8230;0.7684;
210.0000;0.8221;0.7684;
210.3000;0.8213;0.7588;
210.6000;0.8181;0.7492;
210.9000;0.8238;0.7636;
211.2000;0.8221;0.7660;
211.5000;0.8230;0.7708;
211.8000;0.8230;0.7756;
212.1000;0.8230;0.7780;
212.4000;0.8197;0.7636;
212.7000;0.8189;0.7516;
213.0000;0.8213;0.7636;
213.3000;0.8230;0.7684;
213.6000;0.8230;0.7636;
213.9000;0.8213;0.7732;
214.2000;0.8221;0.7756;
214.5000;0.8230;0.7780;
214.8000;0.8246;0.7828;
215.1000;0.8205;0.7708;
215.4000;0.8238;0.7708;
215.7000;0.8246;0.7732;
216.0000;0.8230;0.7780;
216.3000;0.8230;0.7684;
216.6000;0.8230;0.7732;
216.9000;0.8221;0.7732;
217.2000;0.8230;0.7780;
217.5000;0.8205;0.7876;
217.8000;0.8230;0.7972;
218.1000;0.8205;0.7852;
218.4000;0.8213;0.7780;
218.7000;0.8254;0.7852;
219.0000;0.8221;0.7804;
219.3000;0.8213;0.7780;
219.6000;0.8230;0.7852;
219.9000;0.8221;0.7780;
220.2000;0.8205;0.7732;
220.5000;0.8230;0.7828;
220.8000;0.8221;0.7780;
221.1000;0.8230;0.7828;
221.4000;0.8238;0.7852;
221.7000;0.8221;0.7876;
222.0000;0.8230;0.7876;
222.3000;0.8221;0.7828;
222.6000;0.8213;0.7804;
222.9000;0.8221;0.7852;
223.2000;0.8303;0.8044;
223.5000;0.8221;0.7924;
223.8000;0.8230;0.7900;
224.1000;0.8221;0.7948;
224.4000;0.8230;0.8020;
224.7000;0.8230;0.8020;
225.0000;0.8230;0.7996;
225.3000;0.8221;0.7924;
225.6000;0.8246;0.8020;
225.9000;0.8262;0.8092;
226.2000;0.8238;0.7996;
226.5000;0.8221;0.7996;
226.8000;0.8213;0.7996;
227.1000;0.8238;0.8020;
227.4000;0.8254;0.8020;
227.7000;0.8230;0.7852;
228.0000;0.8230;0.7780;
228.3000;0.8230;0.7780;
228.6000;0.8140;0.7588;
228.9000;0.8230;0.7852;
229.2000;0.8303;0.8068;
229.5000;0.8213;0.7828;
229.8000;0.8311;0.8044;
230.1000;0.8213;0.7780;
230.4000;0.8230;0.7804;
230.7000;0.8230;0.7780;
231.0000;0.8230;0.7828;
231.3000;0.8221;0.7804;
231.6000;0.8221;0.7804;
231.9000;0.8205;0.7852;
232.2000;0.8230;0.7948;
232.5000;0.8221;0.7972;
232.8000;0.8213;0.8020;
233.1000;0.8221;0.8044;
233.4000;0.8230;0.7972;
233.7000;0.8238;0.7948;
234.0000;0.8197;0.7924;
234.3000;0.8197;0.7924;
234.6000;0.8205;0.7876;
234.9000;0.8230;0.7852;
235.2000;0.8213;0.7948;
235.5000;0.8156;0.7852;
235.8000;0.8205;0.7900;
236.1000;0.8221;0.7972;
236.4000;0.8221;0.7996;
236.7000;0.8213;0.8092;
237.0000;0.8205;0.8164;
237.3000;0.8205;0.8140;
237.6000;0.8221;0.8188;
237.9000;0.8221;0.8212;
238.2000;0.8246;0.8212;
238.5000;0.8205;0.8212;
238.8000;0.8213;0.8236;
239.1000;0.8205;0.8188;
239.4000;0.8205;0.8164;
239.7000;0.8213;0.8140;
240.0000;0.8230;0.8188;
240.3000;0.8189;0.8068;
240.6000;0.8213;0.8092;
240.9000;0.8205;0.8092;
241.2000;0.8213;0.8044;
241.5000;0.8221;0.8068;
241.8000;0.8238;0.8044;
242.1000;0.8213;0.7996;
242.4000;0.8189;0.7948;
242.7000;0.8221;0.7948;
243.0000;0.8213;0.7900;
243.3000;0.8230;0.7924;
243.6000;0.8230;0.7876;
243.9000;0.8221;0.7924;
244.2000;0.8230;0.8020;
244.5000;0.8238;0.8020;
244.8000;0.8205;0.7996;
245.1000;0.8270;0.8164;
245.4000;0.8197;0.7900;
245.7000;0.8197;0.7900;
246.0000;0.8156;0.7876;
246.3000;0.8197;0.8044;
246.6000;0.8230;0.8212;
246.9000;0.8205;0.8068;
247.2000;0.8189;0.8020;
247.5000;0.8197;0.8044;
247.8000;0.8205;0.8140;
248.1000;0.8221;0.8164;
248.4000;0.8230;0.8140;
248.7000;0.8238;0.8188;
249.0000;0.8205;0.8092;
249.3000;0.8221;0.8140;
249.6000;0.8181;0.8164;
249.9000;0.8205;0.8188;
250.2000;0.8189;0.8116;
250.5000;0.8230;0.8140;
250.8000;0.8148;0.7852;
251.1000;0.8221;0.7972;
251.4000;0.8246;0.8044;
251.7000;0.8311;0.8188;
252.0000;0.8197;0.7972;
252.3000;0.8205;0.7996;
252.6000;0.8230;0.7948;
252.9000;0.8221;0.8020;
253.2000;0.8197;0.8020;
253.5000;0.8205;0.8044;
253.8000;0.8295;0.8164;
254.1000;0.8262;0.8092;
254.4000;0.8213;0.7996;
254.7000;0.8213;0.7996;
255.0000;0.8221;0.7972;
255.3000;0.8213;0.7924;
255.6000;0.8213;0.7972;
255.9000;0.8213;0.7972;
256.2000;0.8213;0.8020;
256.5000;0.8238;0.8020;
256.8000;0.8230;0.7948;
257.1000;0.8221;0.7924;
257.4000;0.8221;0.7900;
257.7000;0.8197;0.7804;
258.0000;0.8230;0.7852;
258.3000;0.8213;0.7828;
258.6000;0.8213;0.7852;
258.9000;0.8221;0.7828;
259.2000;0.8221;0.7780;
259.5000;0.8221;0.7780;
259.8000;0.8221;0.7780;
260.1000;0.8213;0.7876;
260.4000;0.8205;0.7900;
260.7000;0.8213;0.7876;
261.0000;0.8205;0.7852;
261.3000;0.8213;0.7852;
261.6000;0.8205;0.7828;
261.9000;0.8213;0.7804;
262.2000;0.8270;0.7948;
262.5000;0.8221;0.7852;
262.8000;0.8213;0.7780;
263.1000;0.8221;0.7852;
263.4000;0.8205;0.7876;
263.7000;0.8213;0.7900;
264.0000;0.8173;0.7804;
264.3000;0.8173;0.7804;
264.6000;0.8213;0.7996;
264.9000;0.8213;0.7948;
265.2000;0.8197;0.7924;
265.5000;0.8205;0.7900;
265.8000;0.8205;0.7996;
266.1000;0.8295;0.8260;
266.4000;0.8116;0.7828;
266.7000;0.8221;0.8116;
267.0000;0.8278;0.8212;
267.3000;0.8238;0.8092;
267.6000;0.8221;0.8044;
267.9000;0.8213;0.8068;
268.2000;0.8205;0.7996;
268.5000;0.8213;0.7924;
268.8000;0.8221;0.7948;
269.1000;0.8189;0.7924;
269.4000;0.8213;0.7924;
269.7000;0.8189;0.7804;
270.0000;0.8197;0.7756;
270.3000;0.8287;0.7972;
270.6000;0.8213;0.7780;
270.9000;0.8197;0.7684;
271.2000;0.8213;0.7780;
271.5000;0.8221;0.7852;
271.8000;0.8213;0.7876;
272.1000;0.8205;0.7876;
272.4000;0.8213;0.7996;
272.7000;0.8270;0.8140;
273.0000;0.8230;0.7972;
273.3000;0.8221;0.7924;
273.6000;0.8213;0.7924;
273.9000;0.8213;0.7948;
274.2000;0.8205;0.7948;
274.5000;0.8205;0.7972;
274.8000;0.8205;0.7972;
275.1000;0.8197;0.7900;
275.4000;0.8213;0.7924;
275.7000;0.8189;0.7852;
276.0000;0.8221;0.7852;
276.3000;0.8238;0.7900;
276.6000;0.8230;0.7972;
276.9000;0.8213;0.7852;
277.2000;0.8221;0.7852;
277.5000;0.8221;0.7948;
277.8000;0.8205;0.8020;
278.1000;0.8221;0.8116;
278.4000;0.8213;0.8092;
278.7000;0.8181;0.8020;
279.0000;0.8205;0.7996;
279.3000;0.8197;0.7948;
279.6000;0.8189;0.8020;
279.9000;0.8197;0.8020;
280.2000;0.8205;0.7972;
280.5000;0.8205;0.7924;
280.8000;0.8189;0.7924;
281.1000;0.8205;0.7972;
281.4000;0.8205;0.7972;
281.7000;0.8213;0.7996;
282.0000;0.8213;0.7972;
282.3000;0.8221;0.7972;
282.6000;0.8221;0.7972;
282.9000;0.8221;0.7972;
283.2000;0.8230;0.8020;
283.5000;0.8230;0.8044;
283.8000;0.8205;0.8116;
284.1000;0.8205;0.8140;
284.4000;0.8213;0.8188;
284.7000;0.8213;0.8116;
285.0000;0.8270;0.8236;
285.3000;0.8181;0.7996;
285.6000;0.8205;0.7972;
285.9000;0.8213;0.7996;
286.2000;0.8221;0.8044;
286.5000;0.8189;0.7972;
286.8000;0.8221;0.7996;
287.1000;0.8230;0.8068;
287.4000;0.8230;0.8020;
287.7000;0.8173;0.7804;
288.0000;0.8205;0.7852;
288.3000;0.8197;0.7852;
288.6000;0.8230;0.7996;
288.9000;0.8230;0.7996;
289.2000;0.8230;0.8068;
289.5000;0.8213;0.8020;
289.8000;0.8213;0.8092;
290.1000;0.8213;0.8092;
290.4000;0.8197;0.8068;
290.7000;0.8311;0.8236;
291.0000;0.8230;0.7972;
291.3000;0.8173;0.7780;
291.6000;0.8221;0.7852;
291.9000;0.8230;0.7804;
292.2000;0.8213;0.7804;
292.5000;0.8221;0.7780;
292.8000;0.8221;0.7876;
293.1000;0.8221;0.7828;
293.4000;0.8254;0.7900;
293.7000;0.8221;0.7828;
294.0000;0.8230;0.7828;
294.3000;0.8197;0.7780;
294.6000;0.8213;0.7876;
294.9000;0.8164;0.7732;
295.2000;0.8213;0.7900;
295.5000;0.8205;0.7924;
295.8000;0.8213;0.7948;
296.1000;0.8189;0.7948;
296.4000;0.8213;0.8068;
296.7000;0.8205;0.8092;
297.0000;0.8205;0.8044;
297.3000;0.8213;0.8044;
297.6000;0.8205;0.8116;
297.9000;0.8213;0.8116;
298.2000;0.8205;0.8092;
298.5000;0.8213;0.8092;
298.8000;0.8213;0.7996;
299.1000;0.8197;0.7972;
299.4000;0.8221;0.8020;
299.7000;0.8221;0.7876;
300.0000;0.8213;0.7852;
300.3000;0.8197;0.7828;
300.6000;0.8213;0.7828;
300.9000;0.8205;0.7900;
301.2000;0.8213;0.7876;
301.5000;0.8221;0.7804;
301.8000;0.8197;0.7828;
302.1000;0.8221;0.7948;
302.4000;0.8205;0.7948;
302.7000;0.8213;0.7972;
303.0000;0.8221;0.7972;
303.3000;0.8197;0.7876;
303.6000;0.8238;0.8020;
303.9000;0.8205;0.7924;
304.2000;0.8213;0.8020;
304.5000;0.8303;0.8236;
304.8000;0.8213;0.8020;
305.1000;0.8197;0.7924;
305.4000;0.8205;0.7876;
305.7000;0.8254;0.8020;
306.0000;0.8197;0.7900;
306.3000;0.8213;0.7924;
306.6000;0.8213;0.7924;
306.9000;0.8205;0.7996;
307.2000;0.8213;0.7996;
307.5000;0.8213;0.7972;
307.8000;0.8197;0.8020;
308.1000;0.8197;0.7996;
308.4000;0.8197;0.7900;
308.7000;0.8213;0.8020;
309.0000;0.8197;0.7996;
309.3000;0.8205;0.7948;
309.6000;0.8181;0.7948;
309.9000;0.8213;0.7996;
310.2000;0.8221;0.7972;
310.5000;0.8213;0.8044;
310.8000;0.8213;0.8140;
311.1000;0.8221;0.8188;
311.4000;0.8230;0.8140;
311.7000;0.8238;0.8140;
312.0000;0.8213;0.8092;
312.3000;0.8197;0.8044;
312.6000;0.8230;0.8188;
312.9000;0.8213;0.8068;
313.2000;0.8213;0.8020;
313.5000;0.8213;0.8020;
313.8000;0.8230;0.8044;
314.1000;0.8197;0.7948;
314.4000;0.8230;0.7948;
314.7000;0.8278;0.8044;
315.0000;0.8205;0.7876;
315.3000;0.8189;0.7804;
315.6000;0.8197;0.7900;
315.9000;0.8197;0.7900;
316.2000;0.8197;0.7924;
316.5000;0.8197;0.7900;
316.8000;0.8205;0.7852;
317.1000;0.8197;0.7756;
317.4000;0.8230;0.7828;
317.7000;0.8197;0.7828;
318.0000;0.8238;0.7924;
318.3000;0.8205;0.7876;
318.6000;0.8230;0.7900;
318.9000;0.8197;0.7900;
319.2000;0.8246;0.7948;
319.5000;0.8221;0.7876;
319.8000;0.8189;0.7804;
320.1000;0.8221;0.7876;
320.4000;0.8197;0.7900;
320.7000;0.8205;0.7876;
321.0000;0.8205;0.7828;
321.3000;0.8205;0.7924;
321.6000;0.8197;0.7924;
321.9000;0.8205;0.7948;
322.2000;0.8221;0.7972;
322.5000;0.8205;0.7876;
322.8000;0.8221;0.7876;
323.1000;0.8213;0.7780;
323.4000;0.8205;0.7828;
323.7000;0.8197;0.7852;
324.0000;0.8205;0.7900;
324.3000;0.8221;0.7900;
324.6000;0.8221;0.7828;
324.9000;0.8197;0.7756;
325.2000;0.8221;0.7780;
325.5000;0.8213;0.7804;
325.8000;0.8246;0.7924;
326.1000;0.8213;0.7852;
326.4000;0.8221;0.7876;
326.7000;0.8230;0.7900;
327.0000;0.8230;0.7972;
327.3000;0.8189;0.7852;
327.6000;0.8238;0.7876;
327.9000;0.8213;0.7852;
328.2000;0.8213;0.7828;
328.5000;0.8181;0.7756;
328.8000;0.8213;0.7780;
329.1000;0.8189;0.7780;
329.4000;0.8205;0.7780;
329.7000;0.8173;0.7684;
330.0000;0.8213;0.7660;
330.3000;0.8221;0.7684;
330.6000;0.8197;0.7732;
330.9000;0.8221;0.7804;
331.2000;0.8189;0.7756;
331.5000;0.8213;0.7852;
331.8000;0.8221;0.7876;
332.1000;0.8205;0.7900;
332.4000;0.8197;0.7948;
332.7000;0.8173;0.7828;
333.0000;0.8246;0.7924;
333.3000;0.8197;0.7780;
333.6000;0.8181;0.7732;
333.9000;0.8205;0.7828;
334.2000;0.8230;0.7900;
334.5000;0.8197;0.7876;
334.8000;0.8197;0.7828;
335.1000;0.8197;0.7828;
335.4000;0.8221;0.7852;
335.7000;0.8213;0.7780;
336.0000;0.8303;0.7996;
336.3000;0.8197;0.7684;
336.6000;0.8197;0.7708;
336.9000;0.8181;0.7732;
337.2000;0.8246;0.7900;
337.5000;0.8189;0.7780;
337.8000;0.8303;0.8068;
338.1000;0.8221;0.7876;
338.4000;0.8205;0.7780;
338.7000;0.8197;0.7780;
339.0000;0.8213;0.7804;
339.3000;0.8213;0.7828;
339.6000;0.8221;0.7852;
339.9000;0.8205;0.7900;
340.2000;0.8156;0.7852;
340.5000;0.8246;0.8092;
340.8000;0.8213;0.8044;
341.1000;0.8189;0.7972;
341.4000;0.8189;0.7828;
341.7000;0.8213;0.7876;
342.0000;0.8197;0.7948;
342.3000;0.8189;0.7828;
342.6000;0.8173;0.7852;
342.9000;0.8205;0.7900;
343.2000;0.8173;0.7828;
343.5000;0.8197;0.7852;
343.8000;0.8205;0.7804;
344.1000;0.8197;0.7756;
344.4000;0.8189;0.7708;
344.7000;0.8189;0.7708;
345.0000;0.8189;0.7708;
345.3000;0.8197;0.7756;
345.6000;0.8213;0.7852;
345.9000;0.8205;0.7828;
346.2000;0.8205;0.7804;
346.5000;0.8303;0.7996;
346.8000;0.8213;0.7708;
347.1000;0.8213;0.7708;
347.4000;0.8197;0.7636;
347.7000;0.8181;0.7612;
348.0000;0.8197;0.7612;
348.3000;0.8221;0.7708;
348.6000;0.8213;0.7756;
348.9000;0.8213;0.7732;
349.2000;0.8213;0.7732;
349.5000;0.8213;0.7732;
349.8000;0.8205;0.7708;
350.1000;0.8189;0.7660;
350.4000;0.8221;0.7828;
350.7000;0.8173;0.7732;
351.0000;0.8197;0.7876;
351.3000;0.8213;0.7924;
351.6000;0.8205;0.7852;
351.9000;0.8205;0.7852;
352.2000;0.8197;0.7804;
352.5000;0.8148;0.7780;
352.8000;0.8181;0.7996;
353.1000;0.8181;0.8020;
353.4000;0.8148;0.8044;
353.7000;0.8189;0.8164;
354.0000;0.8140;0.8020;
354.3000;0.8181;0.8092;
354.6000;0.8181;0.7996;
354.9000;0.8213;0.8020;
355.2000;0.8189;0.7852;
355.5000;0.8189;0.7900;
355.8000;0.8189;0.7948;
356.1000;0.8197;0.7996;
356.4000;0.8205;0.7996;
356.7000;0.8197;0.8044;
357.0000;0.8189;0.8044;
357.3000;0.8197;0.8116;
357.6000;0.8197;0.8044;
357.9000;0.8197;0.8092;
358.2000;0.8189;0.8092;
358.5000;0.8213;0.8140;
358.8000;0.8213;0.8116;
359.1000;0.8205;0.8020;
359.4000;0.8213;0.7972;
359.7000;0.8221;0.7876;
360.0000;0.8213;0.7924;
360.3000;0.8205;0.7972;
360.6000;0.8254;0.8212;
360.9000;0.8238;0.8044;
361.2000;0.8205;0.7996;
361.5000;0.8262;0.7972;
361.8000;0.8189;0.7828;
362.1000;0.8205;0.7804;
362.4000;0.8197;0.7780;
362.7000;0.8189;0.7780;
363.0000;0.8205;0.7924;
363.3000;0.8287;0.8212;
363.6000;0.8181;0.8020;
363.9000;0.8205;0.8020;
364.2000;0.8189;0.7924;
364.5000;0.8205;0.7972;
364.8000;0.8213;0.7972;
365.1000;0.8181;0.7924;
365.4000;0.8197;0.7900;
365.7000;0.8091;0.7612;
366.0000;0.8189;0.7828;
366.3000;0.8181;0.7852;
366.6000;0.8205;0.7924;
366.9000;0.8213;0.8020;
367.2000;0.8213;0.8044;
367.5000;0.8213;0.8116;
367.8000;0.8189;0.8116;
368.1000;0.8197;0.8092;
368.4000;0.8197;0.8164;
368.7000;0.8197;0.8164;
369.0000;0.8197;0.8116;
369.3000;0.8205;0.8140;
369.6000;0.8213;0.8164;
369.9000;0.8230;0.8164;
370.2000;0.8205;0.8020;
370.5000;0.8205;0.7972;
370.8000;0.8205;0.7996;
371.1000;0.8213;0.8020;
371.4000;0.8205;0.8068;
371.7000;0.8213;0.8140;
372.0000;0.8197;0.8116;
372.3000;0.8205;0.8140;
372.6000;0.8189;0.8140;
372.9000;0.8197;0.8164;
373.2000;0.8189;0.8188;
373.5000;0.8189;0.8116;
373.8000;0.8189;0.8164;
374.1000;0.8189;0.8068;
374.4000;0.8173;0.7996;
374.7000;0.8189;0.7972;
375.0000;0.8213;0.7996;
375.3000;0.8189;0.7948;
375.6000;0.8181;0.8020;
375.9000;0.8205;0.7996;
376.2000;0.8213;0.7996;
376.5000;0.8197;0.7948;
376.8000;0.8213;0.7972;
377.1000;0.8213;0.8044;
377.4000;0.8189;0.7924;
377.7000;0.8173;0.7876;
378.0000;0.8197;0.7924;
378.3000;0.8197;0.7948;
378.6000;0.8205;0.7876;
378.9000;0.8197;0.8020;
379.2000;0.8205;0.8020;
379.5000;0.8197;0.8020;
379.8000;0.8221;0.7924;
380.1000;0.8205;0.7804;
380.4000;0.8189;0.7708;
380.7000;0.8197;0.7708;
381.0000;0.8197;0.7756;
381.3000;0.8213;0.7804;
381.6000;0.8181;0.7828;
381.9000;0.8197;0.7828;
382.2000;0.8197;0.7852;
382.5000;0.8197;0.7876;
382.8000;0.8205;0.7924;
383.1000;0.8205;0.7948;
383.4000;0.8181;0.7876;
383.7000;0.8197;0.7828;
384.0000;0.8213;0.7828;
384.3000;0.8197;0.7828;
384.6000;0.8295;0.8068;
384.9000;0.8156;0.7708;
385.2000;0.8221;0.8020;
385.5000;0.8197;0.8044;
385.8000;0.8205;0.8068;
386.1000;0.8238;0.8236;
386.4000;0.8189;0.8068;
386.7000;0.8197;0.8068;
387.0000;0.8189;0.8020;
387.3000;0.8181;0.7996;
387.6000;0.8221;0.8044;
387.9000;0.8189;0.7996;
388.2000;0.8197;0.8020;
388.5000;0.8189;0.7996;
388.8000;0.8189;0.7996;
389.1000;0.8189;0.7924;
389.4000;0.8197;0.7924;
389.7000;0.8181;0.7876;
390.0000;0.8205;0.7924;
390.3000;0.8205;0.7876;
390.6000;0.8132;0.7756;
390.9000;0.8189;0.7948;
391.2000;0.8189;0.7900;
391.5000;0.8197;0.7876;
391.8000;0.8173;0.7780;
392.1000;0.8189;0.7804;
392.4000;0.8181;0.7828;
392.7000;0.8205;0.7924;
393.0000;0.8189;0.7852;
393.3000;0.8197;0.7900;
393.6000;0.8173;0.7804;
393.9000;0.8213;0.7828;
394.2000;0.8205;0.7900;
394.5000;0.8197;0.7876;
394.8000;0.8197;0.7876;
395.1000;0.8197;0.7804;
395.4000;0.8213;0.7900;
395.7000;0.8197;0.7900;
396.0000;0.8213;0.7900;
396.3000;0.8181;0.7852;
396.6000;0.8181;0.7876;
396.9000;0.8197;0.7828;
397.2000;0.8205;0.7876;
397.5000;0.8205;0.7924;
397.8000;0.8205;0.7996;
398.1000;0.8213;0.7972;
398.4000;0.8205;0.7924;
398.7000;0.8205;0.7948;
399.0000;0.8164;0.7804;
399.3000;0.8197;0.7900;
399.6000;0.8213;0.7996;
399.9000;0.8197;0.7972;
400.2000;0.8148;0.7876;
400.5000;0.8164;0.7900;
400.8000;0.8181;0.7876;
401.1000;0.8173;0.7900;
401.4000;0.8189;0.8020;
401.7000;0.8205;0.8068;
402.0000;0.8181;0.7948;
402.3000;0.8221;0.8020;
402.6000;0.8173;0.7876;
402.9000;0.8197;0.7876;
403.2000;0.8181;0.7780;
403.5000;0.8189;0.7780;
403.8000;0.8181;0.7876;
404.1000;0.8205;0.7924;
404.4000;0.8197;0.7900;
404.7000;0.8132;0.7804;
405.0000;0.8189;0.7948;
405.3000;0.8205;0.8044;
405.6000;0.8132;0.7756;
405.9000;0.8197;0.7972;
406.2000;0.8189;0.8068;
406.5000;0.8197;0.8068;
406.8000;0.8156;0.7924;
407.1000;0.8181;0.7972;
407.4000;0.8156;0.7876;
407.7000;0.8181;0.7900;
408.0000;0.8197;0.7948;
408.3000;0.8221;0.7924;
408.6000;0.8197;0.7900;
408.9000;0.8197;0.7948;
409.2000;0.8205;0.7996;
409.5000;0.8205;0.8116;
409.8000;0.8181;0.8044;
410.1000;0.8197;0.8068;
410.4000;0.8124;0.7828;
410.7000;0.8189;0.8020;
411.0000;0.8197;0.8044;
411.3000;0.8181;0.7996;
411.6000;0.8189;0.8044;
411.9000;0.8181;0.7996;
412.2000;0.8148;0.7948;
412.5000;0.8205;0.8092;
412.8000;0.8181;0.7972;
413.1000;0.8181;0.7924;
413.4000;0.8181;0.7948;
413.7000;0.8181;0.8020;
414.0000;0.8189;0.8044;
414.3000;0.8189;0.8068;
414.6000;0.8197;0.8068;
414.9000;0.8205;0.8068;
415.2000;0.8189;0.8020;
415.5000;0.8099;0.7804;
415.8000;0.8197;0.8116;
416.1000;0.8197;0.8044;
416.4000;0.8189;0.8116;
416.7000;0.8197;0.8164;
417.0000;0.8197;0.8212;
417.3000;0.8189;0.8140;
417.6000;0.8230;0.8140;
417.9000;0.8181;0.8044;
418.2000;0.8197;0.8020;
418.5000;0.8197;0.7972;
418.8000;0.8197;0.7996;
419.1000;0.8173;0.7948;
419.4000;0.8197;0.7996;
419.7000;0.8189;0.7924;
420.0000;0.8238;0.7900;
420.3000;0.8197;0.7852;
420.6000;0.8205;0.7948;
420.9000;0.8213;0.7996;
421.2000;0.8205;0.8044;
421.5000;0.8197;0.7948;
421.8000;0.8246;0.8020;
422.1000;0.8189;0.7900;
422.4000;0.8173;0.7924;
422.7000;0.8173;0.7852;
423.0000;0.8148;0.7828;
423.3000;0.8164;0.7900;
423.6000;0.8189;0.8068;
423.9000;0.8181;0.8140;
424.2000;0.8164;0.8140;
424.5000;0.8197;0.8212;
424.8000;0.8213;0.8164;
425.1000;0.8197;0.8140;
425.4000;0.8238;0.8236;
425.7000;0.8189;0.8140;
426.0000;0.8181;0.8236;
426.3000;0.8189;0.8284;
426.6000;0.8181;0.8260;
426.9000;0.8189;0.8381;
427.2000;0.8148;0.8236;
427.5000;0.8173;0.8284;
427.8000;0.8132;0.8164;
428.1000;0.8197;0.8284;
428.4000;0.8173;0.8260;
428.7000;0.8205;0.8236;
429.0000;0.8164;0.8020;
429.3000;0.8189;0.8068;
429.6000;0.8189;0.8068;
429.9000;0.8205;0.8092;
430.2000;0.8205;0.8140;
430.5000;0.8205;0.8140;
430.8000;0.8124;0.7972;
431.1000;0.8181;0.8116;
431.4000;0.8197;0.8044;
431.7000;0.8197;0.8116;
432.0000;0.8254;0.8236;
432.3000;0.8189;0.8116;
432.6000;0.8197;0.8092;
432.9000;0.8173;0.8068;
433.2000;0.8189;0.8116;
433.5000;0.8205;0.8140;
433.8000;0.8205;0.8068;
434.1000;0.8197;0.8020;
434.4000;0.8189;0.8020;
434.7000;0.8205;0.8116;
435.0000;0.8189;0.8092;
435.3000;0.8205;0.8164;
435.6000;0.8181;0.8020;
435.9000;0.8189;0.7948;
436.2000;0.8213;0.8020;
436.5000;0.8189;0.7948;
436.8000;0.8189;0.7972;
437.1000;0.8205;0.7996;
437.4000;0.8205;0.7996;
437.7000;0.8181;0.8044;
438.0000;0.8181;0.8044;
438.3000;0.8164;0.8068;
438.6000;0.8189;0.8092;
438.9000;0.8189;0.8044;
439.2000;0.8205;0.8068;
439.5000;0.8189;0.8068;
439.8000;0.8189;0.8044;
440.1000;0.8189;0.8068;
440.4000;0.8205;0.7972;
440.7000;0.8205;0.7948;
441.0000;0.8197;0.7972;
441.3000;0.8189;0.8020;
441.6000;0.8091;0.7756;
441.9000;0.8181;0.7972;
442.2000;0.8205;0.7996;
442.5000;0.8173;0.7900;
442.8000;0.8238;0.8044;
443.1000;0.8173;0.7972;
443.4000;0.8189;0.7972;
443.7000;0.8164;0.7852;
444.0000;0.8148;0.7972;
444.3000;0.8173;0.7924;
444.6000;0.8205;0.7948;
444.9000;0.8189;0.7948;
445.2000;0.8189;0.7900;
445.5000;0.8173;0.7972;
445.8000;0.8181;0.7972;
446.1000;0.8197;0.7972;
446.4000;0.8181;0.7996;
446.7000;0.8156;0.7972;
447.0000;0.8181;0.8140;
447.3000;0.8197;0.8164;
447.6000;0.8173;0.8092;
447.9000;0.8181;0.8116;
448.2000;0.8230;0.8284;
448.5000;0.8156;0.8020;
448.8000;0.8181;0.7996;
449.1000;0.8287;0.8236;
449.4000;0.8173;0.7948;
449.7000;0.8181;0.7924;
450.0000;0.8213;0.7948;
450.3000;0.8213;0.8140;
450.6000;0.8189;0.8140;
450.9000;0.8189;0.8260;
451.2000;0.8181;0.8188;
451.5000;0.8189;0.8116;
451.8000;0.8189;0.8068;
452.1000;0.8189;0.8092;
452.4000;0.8213;0.8188;
452.7000;0.8197;0.8068;
453.0000;0.8189;0.8116;
453.3000;0.8181;0.8092;
453.6000;0.8164;0.8140;
453.9000;0.8140;0.8068;
454.2000;0.8197;0.8092;
454.5000;0.8173;0.7996;
454.8000;0.8181;0.8020;
455.1000;0.8181;0.8020;
455.4000;0.8205;0.8020;
455.7000;0.8205;0.8116;
456.0000;0.8197;0.8140;
456.3000;0.8189;0.8188;
456.6000;0.8189;0.8212;
456.9000;0.8197;0.8188;
457.2000;0.8189;0.8140;
457.5000;0.8197;0.8116;
457.8000;0.8205;0.8164;
458.1000;0.8205;0.8092;
458.4000;0.8148;0.7996;
458.7000;0.8181;0.7996;
459.0000;0.8197;0.8092;
459.3000;0.8140;0.7996;
459.6000;0.8205;0.8044;
459.9000;0.8173;0.7972;
460.2000;0.8197;0.8068;
460.5000;0.8221;0.8236;
460.8000;0.8181;0.8068;
461.1000;0.8189;0.8092;
461.4000;0.8181;0.8116;
461.7000;0.8197;0.8116;
462.0000;0.8197;0.8068;
462.3000;0.8156;0.7972;
462.6000;0.8189;0.7996;
462.9000;0.8197;0.7996;
463.2000;0.8189;0.8020;
463.5000;0.8181;0.8092;
463.8000;0.8189;0.8092;
464.1000;0.8181;0.8044;
464.4000;0.8181;0.8092;
464.7000;0.8189;0.8140;
465.0000;0.8181;0.8116;
465.3000;0.8189;0.8140;
465.6000;0.8181;0.8188;
465.9000;0.8197;0.8140;
466.2000;0.8173;0.8092;
466.5000;0.8164;0.8044;
466.8000;0.8197;0.8116;
467.1000;0.8181;0.8140;
467.4000;0.8173;0.8020;
467.7000;0.8181;0.8020;
468.0000;0.8197;0.7972;
468.3000;0.8189;0.7900;
468.6000;0.8181;0.7852;
468.9000;0.8173;0.7804;
469.2000;0.8205;0.7996;
469.5000;0.8205;0.7996;
469.8000;0.8189;0.8092;
470.1000;0.8189;0.7996;
470.4000;0.8189;0.8020;
470.7000;0.8173;0.8020;
471.0000;0.8189;0.8068;
471.3000;0.8164;0.8092;
471.6000;0.8173;0.8068;
471.9000;0.8189;0.8116;
472.2000;0.8173;0.8068;
472.5000;0.8173;0.8044;
472.8000;0.8189;0.8044;
473.1000;0.8213;0.8188;
473.4000;0.8091;0.7852;
473.7000;0.8181;0.8020;
474.0000;0.8164;0.8020;
474.3000;0.8099;0.7876;
474.6000;0.8164;0.8068;
474.9000;0.8164;0.8020;
475.2000;0.8189;0.7996;
475.5000;0.8189;0.8020;
475.8000;0.8124;0.7804;
476.1000;0.8181;0.7996;
476.4000;0.8181;0.7972;
476.7000;0.8189;0.7996;
477.0000;0.8197;0.8068;
477.3000;0.8173;0.7996;
477.6000;0.8173;0.8092;
477.9000;0.8181;0.8212;
478.2000;0.8189;0.8212;
478.5000;0.8197;0.8236;
478.8000;0.8156;0.8068;
479.1000;0.8132;0.8020;
479.4000;0.8189;0.8092;
479.7000;0.8181;0.8140;
480.0000;0.8181;0.8164;
480.3000;0.8173;0.8116;
480.6000;0.8181;0.8116;
480.9000;0.8173;0.8092;
481.2000;0.8213;0.8164;
481.5000;0.8173;0.8140;
481.8000;0.8230;0.8212;
482.1000;0.8230;0.8212;
482.4000;0.8173;0.8068;
482.7000;0.8181;0.8044;
483.0000;0.8181;0.7972;
483.3000;0.8197;0.8068;
483.6000;0.8181;0.8044;
483.9000;0.8181;0.8020;
484.2000;0.8164;0.7972;
484.5000;0.8181;0.7996;
484.8000;0.8189;0.7972;
485.1000;0.8189;0.7996;
485.4000;0.8181;0.8020;
485.7000;0.8189;0.8140;
486.0000;0.8189;0.8140;
486.3000;0.8205;0.8164;
486.6000;0.8238;0.8381;
486.9000;0.8173;0.8212;
487.2000;0.8197;0.8260;
487.5000;0.8173;0.8140;
487.8000;0.8156;0.8092;
488.1000;0.8189;0.8092;
488.4000;0.8197;0.8044;
488.7000;0.8181;0.8092;
489.0000;0.8246;0.8236;
489.3000;0.8197;0.8092;
489.6000;0.8189;0.8092;
489.9000;0.8173;0.8092;
490.2000;0.8164;0.8188;
490.5000;0.8173;0.8284;
490.8000;0.8164;0.8188;
491.1000;0.8181;0.8308;
491.4000;0.8181;0.8308;
491.7000;0.8181;0.8260;
492.0000;0.8181;0.8164;
492.3000;0.8189;0.8212;
492.6000;0.8132;0.8044;
492.9000;0.8189;0.8116;
493.2000;0.8181;0.8164;
493.5000;0.8197;0.8260;
493.8000;0.8181;0.8260;
494.1000;0.8189;0.8236;
494.4000;0.8205;0.8260;
494.7000;0.8173;0.8020;
495.0000;0.8197;0.8020;
495.3000;0.8213;0.8020;
495.6000;0.8189;0.8068;
495.9000;0.8181;0.8164;
496.2000;0.8197;0.8140;
496.5000;0.8173;0.8116;
496.8000;0.8181;0.8164;
497.1000;0.8189;0.8236;
497.4000;0.8189;0.8188;
497.7000;0.8173;0.8092;
498.0000;0.8173;0.7948;
498.3000;0.8164;0.7972;
498.6000;0.8173;0.8020;
498.9000;0.8148;0.7876;
499.2000;0.8173;0.7996;
499.5000;0.8238;0.8140;
499.8000;0.8197;0.8068;
500.1000;0.8197;0.8020;
500.4000;0.8189;0.7948;
500.7000;0.8189;0.7996;
501.0000;0.8197;0.8116;
501.3000;0.8173;0.8068;
501.6000;0.8156;0.8140;
501.9000;0.8189;0.8212;
502.2000;0.8164;0.8188;
502.5000;0.8189;0.8260;
502.8000;0.8173;0.8140;
503.1000;0.8189;0.8092;
503.4000;0.8181;0.8068;
503.7000;0.8189;0.8044;
504.0000;0.8181;0.8020;
504.3000;0.8181;0.7948;
504.6000;0.8173;0.7948;
504.9000;0.8189;0.7924;
505.2000;0.8197;0.7900;
505.5000;0.8181;0.7876;
505.8000;0.8148;0.7948;
506.1000;0.8181;0.8068;
506.4000;0.8181;0.8068;
506.7000;0.8181;0.8068;
507.0000;0.8164;0.7996;
507.3000;0.8189;0.8044;
507.6000;0.8173;0.8044;
507.9000;0.8181;0.8068;
508.2000;0.8164;0.8044;
508.5000;0.8164;0.8044;
508.8000;0.8173;0.8068;
509.1000;0.8173;0.7948;
509.4000;0.8164;0.7924;
509.7000;0.8173;0.7924;
510.0000;0.8173;0.7924;
510.3000;0.8189;0.8044;
510.6000;0.8164;0.8020;
510.9000;0.8164;0.8020;
511.2000;0.8173;0.8068;
511.5000;0.8173;0.8116;
511.8000;0.8173;0.8164;
512.1000;0.8173;0.8116;
512.4000;0.8164;0.8020;
512.7000;0.8173;0.7996;
513.0000;0.8181;0.7996;
513.3000;0.8164;0.7948;
513.6000;0.8173;0.8044;
513.9000;0.8164;0.8116;
514.2000;0.8164;0.8140;
514.5000;0.8221;0.8212;
514.8000;0.8173;0.8164;
515.1000;0.8148;0.8044;
515.4000;0.8173;0.8140;
515.7000;0.8164;0.8188;
516.0000;0.8156;0.8212;
516.3000;0.8189;0.8140;
516.6000;0.8197;0.8116;
516.9000;0.8164;0.8044;
517.2000;0.8164;0.8068;
517.5000;0.8164;0.8116;
517.8000;0.8213;0.8188;
518.1000;0.8156;0.8140;
518.4000;0.8173;0.8116;
518.7000;0.8156;0.8068;
519.0000;0.8173;0.8092;
519.3000;0.8173;0.8164;
519.6000;0.8189;0.8260;
519.9000;0.8140;0.8212;
520.2000;0.8173;0.8356;
520.5000;0.8181;0.8308;
520.8000;0.8189;0.8236;
521.1000;0.8173;0.8284;
521.4000;0.8221;0.8453;
521.7000;0.8197;0.8381;
522.0000;0.8173;0.8332;
522.3000;0.8124;0.8212;
522.6000;0.8181;0.8188;
522.9000;0.8278;0.8477;
523.2000;0.8189;0.8236;
523.5000;0.8173;0.8116;
523.8000;0.8205;0.8068;
524.1000;0.8197;0.8092;
524.4000;0.8205;0.8068;
524.7000;0.8164;0.7996;
525.0000;0.8173;0.8092;
525.3000;0.8181;0.8164;
525.6000;0.8173;0.8236;
525.9000;0.8124;0.8140;
526.2000;0.8173;0.8236;
526.5000;0.8181;0.8236;
526.8000;0.8107;0.7996;
527.1000;0.8156;0.8164;
527.4000;0.8173;0.8188;
527.7000;0.8181;0.8164;
528.0000;0.8173;0.8236;
528.3000;0.8181;0.8332;
528.6000;0.8156;0.8236;
528.9000;0.8156;0.8188;
529.2000;0.8173;0.8308;
529.5000;0.8164;0.8356;
529.8000;0.8181;0.8332;
530.1000;0.8181;0.8212;
530.4000;0.8173;0.8164;
530.7000;0.8189;0.8164;
531.0000;0.8189;0.8212;
531.3000;0.8173;0.8236;
531.6000;0.8205;0.8332;
531.9000;0.8189;0.8260;
532.2000;0.8164;0.8236;
532.5000;0.8181;0.8308;
532.8000;0.8173;0.8260;
533.1000;0.8181;0.8236;
533.4000;0.8173;0.8212;
533.7000;0.8181;0.8116;
534.0000;0.8181;0.8140;
534.3000;0.8173;0.8188;
534.6000;0.8181;0.8260;
534.9000;0.8164;0.8188;
535.2000;0.8164;0.8164;
535.5000;0.8189;0.8188;
535.8000;0.8181;0.8236;
536.1000;0.8173;0.8284;
536.4000;0.8173;0.8332;
536.7000;0.8173;0.8260;
537.0000;0.8189;0.8212;
537.3000;0.8181;0.8188;
537.6000;0.8173;0.8212;
537.9000;0.8181;0.8140;
538.2000;0.8189;0.8188;
538.5000;0.8189;0.8332;
538.8000;0.8230;0.8453;
539.1000;0.8173;0.8356;
539.4000;0.8173;0.8308;
539.7000;0.8205;0.8356;
540.0000;0.8164;0.8308;
540.3000;0.8156;0.8308;
540.6000;0.8238;0.8429;
540.9000;0.8164;0.8188;
541.2000;0.8173;0.8188;
541.5000;0.8189;0.8188;
541.8000;0.8181;0.8140;
542.1000;0.8221;0.8236;
542.4000;0.8156;0.8044;
542.7000;0.8156;0.8044;
543.0000;0.8181;0.8140;
543.3000;0.8173;0.8068;
543.6000;0.8181;0.8140;
543.9000;0.8173;0.8140;
544.2000;0.8205;0.8332;
544.5000;0.8189;0.8356;
544.8000;0.8156;0.8332;
545.1000;0.8213;0.8477;
545.4000;0.8164;0.8356;
545.7000;0.8173;0.8429;
546.0000;0.8173;0.8381;
546.3000;0.8189;0.8405;
546.6000;0.8164;0.8477;
546.9000;0.8181;0.8501;
547.2000;0.8173;0.8477;
547.5000;0.8148;0.8332;
547.8000;0.8164;0.8356;
548.1000;0.8164;0.8332;
548.4000;0.8254;0.8477;
548.7000;0.8189;0.8308;
549.0000;0.8173;0.8308;
549.3000;0.8278;0.8501;
549.6000;0.8173;0.8284;
549.9000;0.8181;0.8212;
550.2000;0.8181;0.8212;
550.5000;0.8156;0.8212;
550.8000;0.8156;0.8116;
551.1000;0.8181;0.8140;
551.4000;0.8156;0.8092;
551.7000;0.8164;0.8140;
552.0000;0.8173;0.8044;
552.3000;0.8164;0.8020;
552.6000;0.8156;0.7996;
552.9000;0.8173;0.8092;
553.2000;0.8181;0.8188;
553.5000;0.8164;0.8260;
553.8000;0.8173;0.8212;
554.1000;0.8173;0.8236;
554.4000;0.8213;0.8260;
554.7000;0.8189;0.8236;
555.0000;0.8262;0.8477;
555.3000;0.8164;0.8212;
555.6000;0.8116;0.8092;
555.9000;0.8181;0.8164;
556.2000;0.8197;0.8260;
556.5000;0.8181;0.8164;
556.8000;0.8164;0.8188;
557.1000;0.8173;0.8212;
557.4000;0.8213;0.8284;
557.7000;0.8173;0.8164;
558.0000;0.8148;0.8116;
558.3000;0.8173;0.8020;
558.6000;0.8164;0.8092;
558.9000;0.8181;0.8092;
559.2000;0.8189;0.8116;
559.5000;0.8189;0.8164;
559.8000;0.8181;0.8188;
560.1000;0.8164;0.8116;
560.4000;0.8181;0.8164;
560.7000;0.8140;0.8020;
561.0000;0.8173;0.8068;
561.3000;0.8173;0.8092;
561.6000;0.8156;0.8092;
561.9000;0.8132;0.8092;
562.2000;0.8173;0.8236;
562.5000;0.8140;0.8116;
562.8000;0.8156;0.8116;
563.1000;0.8164;0.8092;
563.4000;0.8173;0.8068;
563.7000;0.8173;0.7996;
564.0000;0.8156;0.7972;
564.3000;0.8164;0.7972;
564.6000;0.8173;0.8044;
564.9000;0.8246;0.8236;
565.2000;0.8173;0.8068;
565.5000;0.8205;0.8068;
565.8000;0.8156;0.8020;
566.1000;0.8164;0.8044;
566.4000;0.8205;0.8212;
566.7000;0.8099;0.7924;
567.0000;0.8181;0.8020;
567.3000;0.8197;0.8092;
567.6000;0.8189;0.8140;
567.9000;0.8181;0.8116;
568.2000;0.8156;0.8140;
568.5000;0.8164;0.8212;
568.8000;0.8181;0.8236;
569.1000;0.8230;0.8356;
569.4000;0.8164;0.8260;
569.7000;0.8164;0.8308;
570.0000;0.8164;0.8332;
570.3000;0.8156;0.8236;
570.6000;0.8189;0.8236;
570.9000;0.8173;0.8212;
571.2000;0.8189;0.8260;
571.5000;0.8181;0.8236;
571.8000;0.8116;0.8164;
572.1000;0.8148;0.8308;
572.4000;0.8156;0.8356;
572.7000;0.8189;0.8525;
573.0000;0.8164;0.8429;
573.3000;0.8197;0.8525;
573.6000;0.8173;0.8453;
573.9000;0.8173;0.8429;
574.2000;0.8197;0.8477;
574.5000;0.8173;0.8405;
574.8000;0.8164;0.8405;
575.1000;0.8148;0.8381;
575.4000;0.8156;0.8332;
575.7000;0.8164;0.8356;
576.0000;0.8164;0.8381;
576.3000;0.8189;0.8501;
576.6000;0.8132;0.8429;
576.9000;0.8156;0.8405;
577.2000;0.8181;0.8453;
577.5000;0.8156;0.8429;
577.8000;0.8173;0.8501;
578.1000;0.8173;0.8573;
578.4000;0.8156;0.8525;
578.7000;0.8173;0.8597;
579.0000;0.8238;0.8717;
579.3000;0.8156;0.8549;
579.6000;0.8148;0.8501;
579.9000;0.8173;0.8549;
580.2000;0.8156;0.8501;
580.5000;0.8148;0.8477;
580.8000;0.8156;0.8405;
581.1000;0.8164;0.8381;
581.4000;0.8156;0.8284;
581.7000;0.8197;0.8525;
582.0000;0.8164;0.8405;
582.3000;0.8164;0.8405;
582.6000;0.8181;0.8501;
582.9000;0.8181;0.8525;
583.2000;0.8156;0.8477;
583.5000;0.8181;0.8381;
583.8000;0.8189;0.8356;
584.1000;0.8189;0.8356;
584.4000;0.8181;0.8356;
584.7000;0.8164;0.8381;
585.0000;0.8164;0.8381;
585.3000;0.8173;0.8356;
585.6000;0.8164;0.8308;
585.9000;0.8156;0.8381;
586.2000;0.8156;0.8405;
586.5000;0.8156;0.8429;
586.8000;0.8164;0.8405;
587.1000;0.8164;0.8381;
587.4000;0.8164;0.8453;
587.7000;0.8181;0.8501;
588.0000;0.8132;0.8429;
588.3000;0.8164;0.8453;
588.6000;0.8156;0.8453;
588.9000;0.8173;0.8381;
589.2000;0.8164;0.8308;
589.5000;0.8164;0.8284;
589.8000;0.8164;0.8212;
590.1000;0.8164;0.8236;
590.4000;0.8173;0.8260;
590.7000;0.8156;0.8236;
591.0000;0.8148;0.8188;
591.3000;0.8173;0.8284;
591.6000;0.8181;0.8356;
591.9000;0.8173;0.8284;
592.2000;0.8173;0.8284;
592.5000;0.8156;0.8260;
592.8000;0.8213;0.8308;
593.1000;0.8181;0.8236;
593.4000;0.8173;0.8212;
593.7000;0.8181;0.8260;
594.0000;0.8181;0.8284;
594.3000;0.8173;0.8308;
594.6000;0.8164;0.8308;
594.9000;0.8140;0.8260;
595.2000;0.8173;0.8332;
595.5000;0.8164;0.8260;
595.8000;0.8107;0.8140;
596.1000;0.8148;0.8212;
596.4000;0.8156;0.8212;
596.7000;0.8181;0.8236;
597.0000;0.8156;0.8188;
597.3000;0.8164;0.8212;
597.6000;0.8156;0.8212;
597.9000;0.8164;0.8188;
598.2000;0.8181;0.8260;
598.5000;0.8164;0.8164;
598.8000;0.8132;0.8044;
599.1000;0.8132;0.8020;
599.4000;0.8164;0.8044;
599.7000;0.8173;0.8044;
600.0000;0.8132;0.7972;
600.3000;0.8132;0.7996;
600.6000;0.8189;0.7972;
600.9000;0.8148;0.7852;
601.2000;0.8091;0.7660;
601.5000;0.8042;0.7444;
601.8000;0.7993;0.7228;
602.1000;0.7928;0.6964;
602.4000;0.7863;0.6628;
602.7000;0.7790;0.6508;
603.0000;0.7741;0.6387;
603.3000;0.7676;0.6195;
603.6000;0.7627;0.6099;
603.9000;0.7586;0.5979;
604.2000;0.7530;0.5859;
604.5000;0.7489;0.5763;
604.8000;0.7448;0.5667;
605.1000;0.7416;0.5523;
605.4000;0.7391;0.5379;
605.7000;0.7342;0.5211;
606.0000;0.7253;0.4995;
606.3000;0.7277;0.5139;
606.6000;0.7220;0.5067;
606.9000;0.7204;0.5067;
607.2000;0.7171;0.4995;
607.5000;0.7139;0.4995;
607.8000;0.7090;0.4947;
608.1000;0.7098;0.5115;
608.4000;0.7049;0.4875;
608.7000;0.7041;0.4899;
609.0000;0.7000;0.4899;
609.3000;0.7000;0.4971;
609.6000;0.6960;0.4779;
609.9000;0.6919;0.4755;
610.2000;0.6976;0.5019;
610.5000;0.6870;0.4779;
610.8000;0.6862;0.4779;
611.1000;0.6781;0.4586;
611.4000;0.6813;0.4779;
611.7000;0.6797;0.4851;
612.0000;0.6789;0.4899;
612.3000;0.6781;0.4947;
612.6000;0.6764;0.4899;
612.9000;0.6740;0.4875;
613.2000;0.6724;0.4851;
613.5000;0.6716;0.4803;
613.8000;0.6707;0.4875;
614.1000;0.6675;0.4827;
614.4000;0.6691;0.4779;
614.7000;0.6545;0.4394;
615.0000;0.6602;0.4610;
615.3000;0.6602;0.4659;
615.6000;0.6561;0.4586;
615.9000;0.6585;0.4659;
616.2000;0.6650;0.4827;
616.5000;0.6479;0.4442;
616.8000;0.6577;0.4659;
617.1000;0.6504;0.4538;
617.4000;0.6520;0.4610;
617.7000;0.6496;0.4514;
618.0000;0.6471;0.4442;
618.3000;0.6422;0.4394;
618.6000;0.6455;0.4586;
618.9000;0.6422;0.4490;
619.2000;0.6398;0.4490;
619.5000;0.6406;0.4538;
619.8000;0.6398;0.4586;
620.1000;0.6390;0.4490;
620.4000;0.6365;0.4466;
620.7000;0.6365;0.4562;
621.0000;0.6349;0.4634;
621.3000;0.6333;0.4634;
621.6000;0.6325;0.4610;
621.9000;0.6333;0.4586;
622.2000;0.6325;0.4514;
622.5000;0.6309;0.4562;
622.8000;0.6276;0.4514;
623.1000;0.6268;0.4490;
623.4000;0.6268;0.4562;
623.7000;0.6276;0.4562;
624.0000;0.6252;0.4514;
624.3000;0.6235;0.4490;
624.6000;0.6292;0.4586;
624.9000;0.6235;0.4562;
625.2000;0.6203;0.4538;
625.5000;0.6203;0.4514;
625.8000;0.6203;0.4514;
626.1000;0.6178;0.4490;
626.4000;0.6186;0.4514;
626.7000;0.6162;0.4394;
627.0000;0.6162;0.4514;
627.3000;0.6162;0.4490;
627.6000;0.6162;0.4466;
627.9000;0.6146;0.4442;
628.2000;0.6154;0.4442;
628.5000;0.6146;0.4514;
628.8000;0.6129;0.4490;
629.1000;0.6097;0.4490;
629.4000;0.6113;0.4514;
629.7000;0.6105;0.4490;
630.0000;0.6097;0.4394;
630.3000;0.6056;0.4346;
630.6000;0.6072;0.4418;
630.9000;0.6064;0.4466;
631.2000;0.6072;0.4610;
631.5000;0.6064;0.4586;
631.8000;0.6040;0.4514;
632.1000;0.6032;0.4490;
632.4000;0.6056;0.4586;
632.7000;0.6048;0.4514;
633.0000;0.6032;0.4514;
633.3000;0.6024;0.4490;
633.6000;0.6015;0.4514;
633.9000;0.6007;0.4514;
634.2000;0.5918;0.4370;
634.5000;0.5999;0.4610;
634.8000;0.5999;0.4562;
635.1000;0.5983;0.4466;
635.4000;0.5983;0.4394;
635.7000;0.5910;0.4178;
636.0000;0.6024;0.4466;
636.3000;0.5967;0.4322;
636.6000;0.5950;0.4322;
636.9000;0.5942;0.4346;
637.2000;0.5877;0.4178;
637.5000;0.5942;0.4418;
637.8000;0.5934;0.4370;
638.1000;0.5918;0.4346;
638.4000;0.5918;0.4274;
638.7000;0.5910;0.4298;
639.0000;0.5934;0.4442;
639.3000;0.5910;0.4442;
639.6000;0.5902;0.4418;
639.9000;0.5902;0.4418;
640.2000;0.5902;0.4418;
640.5000;0.5893;0.4370;
640.8000;0.5885;0.4466;
641.1000;0.5869;0.4490;
641.4000;0.5861;0.4466;
641.7000;0.5877;0.4442;
642.0000;0.5853;0.4298;
642.3000;0.5869;0.4322;
642.6000;0.5885;0.4418;
642.9000;0.5861;0.4418;
643.2000;0.5853;0.4370;
643.5000;0.5845;0.4346;
643.8000;0.5853;0.4322;
644.1000;0.5845;0.4322;
644.4000;0.5836;0.4346;
644.7000;0.5836;0.4322;
645.0000;0.5836;0.4298;
645.3000;0.5836;0.4298;
645.6000;0.5804;0.4202;
645.9000;0.5771;0.4082;
646.2000;0.5820;0.4082;
646.5000;0.5796;0.4106;
646.8000;0.5845;0.4178;
647.1000;0.5804;0.4034;
647.4000;0.5796;0.4154;
647.7000;0.5779;0.4274;
648.0000;0.5779;0.4346;
648.3000;0.5788;0.4370;
648.6000;0.5771;0.4322;
648.9000;0.5779;0.4394;
649.2000;0.5779;0.4418;
649.5000;0.5771;0.4418;
649.8000;0.5771;0.4442;
650.1000;0.5771;0.4490;
650.4000;0.5763;0.4466;
650.7000;0.5771;0.4466;
651.0000;0.5731;0.4346;
651.3000;0.5739;0.4394;
651.6000;0.5731;0.4346;
651.9000;0.5731;0.4298;
652.2000;0.5731;0.4202;
652.5000;0.5731;0.4178;
652.8000;0.5739;0.4226;
653.1000;0.5731;0.4250;
653.4000;0.5739;0.4298;
653.7000;0.5731;0.4370;
654.0000;0.5739;0.4418;
654.3000;0.5722;0.4394;
654.6000;0.5706;0.4466;
654.9000;0.5698;0.4490;
655.2000;0.5706;0.4514;
655.5000;0.5706;0.4466;
655.8000;0.5698;0.4370;
656.1000;0.5698;0.4346;
656.4000;0.5731;0.4418;
656.7000;0.5674;0.4346;
657.0000;0.5771;0.4562;
657.3000;0.5657;0.4274;
657.6000;0.5657;0.4322;
657.9000;0.5674;0.4298;
658.2000;0.5665;0.4346;
658.5000;0.5665;0.4346;
658.8000;0.5690;0.4418;
659.1000;0.5657;0.4418;
659.4000;0.5657;0.4370;
659.7000;0.5641;0.4298;
660.0000;0.5665;0.4322;
660.3000;0.5657;0.4322;
660.6000;0.5649;0.4346;
660.9000;0.5625;0.4322;
661.2000;0.5633;0.4394;
661.5000;0.5649;0.4466;
661.8000;0.5633;0.4466;
662.1000;0.5617;0.4418;
662.4000;0.5641;0.4442;
662.7000;0.5625;0.4418;
663.0000;0.5633;0.4490;
663.3000;0.5608;0.4466;
663.6000;0.5625;0.4562;
663.9000;0.5625;0.4490;
664.2000;0.5617;0.4514;
664.5000;0.5617;0.4418;
664.8000;0.5617;0.4418;
665.1000;0.5617;0.4418;
665.4000;0.5625;0.4490;
665.7000;0.5625;0.4490;
666.0000;0.5608;0.4346;
666.3000;0.5592;0.4298;
666.6000;0.5592;0.4226;
666.9000;0.5584;0.4226;
667.2000;0.5592;0.4250;
667.5000;0.5592;0.4250;
667.8000;0.5592;0.4274;
668.1000;0.5592;0.4250;
668.4000;0.5584;0.4298;
668.7000;0.5592;0.4298;
669.0000;0.5527;0.4250;
669.3000;0.5576;0.4298;
669.6000;0.5584;0.4298;
669.9000;0.5576;0.4322;
670.2000;0.5568;0.4274;
670.5000;0.5592;0.4298;
670.8000;0.5560;0.4250;
671.1000;0.5568;0.4202;
671.4000;0.5511;0.4082;
671.7000;0.5657;0.4466;
672.0000;0.5551;0.4178;
672.3000;0.5535;0.4202;
672.6000;0.5527;0.4274;
672.9000;0.5560;0.4346;
673.2000;0.5551;0.4346;
673.5000;0.5535;0.4322;
673.8000;0.5551;0.4370;
674.1000;0.5568;0.4346;
674.4000;0.5600;0.4442;
674.7000;0.5560;0.4346;
675.0000;0.5551;0.4274;
675.3000;0.5560;0.4322;
675.6000;0.5551;0.4370;
675.9000;0.5560;0.4370;
676.2000;0.5543;0.4298;
676.5000;0.5527;0.4250;
676.8000;0.5527;0.4202;
677.1000;0.5535;0.4106;
677.4000;0.5519;0.4106;
677.7000;0.5519;0.4154;
678.0000;0.5519;0.4154;
678.3000;0.5527;0.4178;
678.6000;0.5527;0.4250;
678.9000;0.5519;0.4250;
679.2000;0.5511;0.4274;
679.5000;0.5511;0.4322;
679.8000;0.5495;0.4322;
680.1000;0.5511;0.4250;
680.4000;0.5503;0.4178;
680.7000;0.5495;0.4202;
681.0000;0.5519;0.4346;
681.3000;0.5511;0.4322;
681.6000;0.5495;0.4322;
681.9000;0.5454;0.4178;
682.2000;0.5495;0.4298;
682.5000;0.5470;0.4346;
682.8000;0.5495;0.4466;
683.1000;0.5438;0.4394;
683.4000;0.5519;0.4538;
683.7000;0.5470;0.4346;
684.0000;0.5478;0.4394;
684.3000;0.5495;0.4442;
684.6000;0.5495;0.4490;
684.9000;0.5503;0.4490;
685.2000;0.5486;0.4394;
685.5000;0.5478;0.4442;
685.8000;0.5478;0.4418;
686.1000;0.5478;0.4418;
686.4000;0.5470;0.4418;
686.7000;0.5470;0.4538;
687.0000;0.5462;0.4634;
687.3000;0.5413;0.4466;
687.6000;0.5454;0.4538;
687.9000;0.5438;0.4514;
688.2000;0.5462;0.4418;
688.5000;0.5446;0.4370;
688.8000;0.5454;0.4346;
689.1000;0.5454;0.4418;
689.4000;0.5470;0.4322;
689.7000;0.5486;0.4370;
690.0000;0.5462;0.4370;
690.3000;0.5446;0.4298;
690.6000;0.5446;0.4370;
690.9000;0.5446;0.4394;
691.2000;0.5454;0.4442;
691.5000;0.5429;0.4394;
691.8000;0.5429;0.4394;
692.1000;0.5446;0.4466;
692.4000;0.5429;0.4466;
692.7000;0.5429;0.4514;
693.0000;0.5421;0.4514;
693.3000;0.5421;0.4490;
693.6000;0.5438;0.4490;
693.9000;0.5389;0.4418;
694.2000;0.5413;0.4490;
694.5000;0.5429;0.4490;
694.8000;0.5429;0.4490;
695.1000;0.5429;0.4538;
695.4000;0.5429;0.4490;
695.7000;0.5413;0.4466;
696.0000;0.5421;0.4538;
696.3000;0.5340;0.4250;
696.6000;0.5421;0.4514;
696.9000;0.5413;0.4586;
697.2000;0.5421;0.4610;
697.5000;0.5413;0.4538;
697.8000;0.5405;0.4490;
698.1000;0.5381;0.4490;
698.4000;0.5413;0.4514;
698.7000;0.5405;0.4514;
699.0000;0.5405;0.4514;
699.3000;0.5397;0.4514;
699.6000;0.5413;0.4586;
699.9000;0.5413;0.4683;
700.2000;0.5405;0.4659;
700.5000;0.5397;0.4731;
700.8000;0.5421;0.4755;
701.1000;0.5413;0.4755;
701.4000;0.5413;0.4755;
701.7000;0.5381;0.4779;
702.0000;0.5381;0.4683;
702.3000;0.5381;0.4634;
702.6000;0.5397;0.4659;
702.9000;0.5389;0.4562;
703.2000;0.5381;0.4610;
703.5000;0.5397;0.4659;
703.8000;0.5356;0.4538;
704.1000;0.5381;0.4562;
704.4000;0.5381;0.4538;
704.7000;0.5381;0.4634;
705.0000;0.5397;0.4755;
705.3000;0.5372;0.4683;
705.6000;0.5389;0.4803;
705.9000;0.5364;0.4779;
706.2000;0.5372;0.4803;
706.5000;0.5364;0.4731;
706.8000;0.5364;0.4562;
707.1000;0.5372;0.4538;
707.4000;0.5348;0.4394;
707.7000;0.5364;0.4466;
708.0000;0.5364;0.4490;
708.3000;0.5356;0.4514;
708.6000;0.5348;0.4562;
708.9000;0.5364;0.4634;
709.2000;0.5356;0.4586;
709.5000;0.5364;0.4659;
709.8000;0.5381;0.4755;
710.1000;0.5364;0.4683;
710.4000;0.5372;0.4634;
710.7000;0.5364;0.4586;
711.0000;0.5356;0.4586;
711.3000;0.5381;0.4610;
711.6000;0.5356;0.4586;
711.9000;0.5348;0.4586;
712.2000;0.5356;0.4610;
712.5000;0.5340;0.4490;
712.8000;0.5356;0.4586;
713.1000;0.5348;0.4586;
713.4000;0.5356;0.4562;
713.7000;0.5348;0.4610;
714.0000;0.5364;0.4634;
714.3000;0.5356;0.4707;
714.6000;0.5340;0.4586;
714.9000;0.5332;0.4610;
715.2000;0.5348;0.4683;
715.5000;0.5348;0.4659;
715.8000;0.5348;0.4683;
716.1000;0.5348;0.4514;
716.4000;0.5348;0.4514;
716.7000;0.5348;0.4562;
717.0000;0.5332;0.4538;
717.3000;0.5307;0.4466;
717.6000;0.5332;0.4562;
717.9000;0.5332;0.4562;
718.2000;0.5332;0.4562;
718.5000;0.5324;0.4490;
718.8000;0.5324;0.4514;
719.1000;0.5348;0.4562;
719.4000;0.5324;0.4586;
719.7000;0.5324;0.4514;
720.0000;0.5348;0.4466;
720.3000;0.5364;0.4442;
720.6000;0.5340;0.4322;
720.9000;0.5324;0.4250;
721.2000;0.5389;0.4418;
721.5000;0.5332;0.4298;
721.8000;0.5332;0.4322;
722.1000;0.5315;0.4418;
722.4000;0.5324;0.4490;
722.7000;0.5307;0.4442;
723.0000;0.5299;0.4514;
723.3000;0.5315;0.4514;
723.6000;0.5275;0.4394;
723.9000;0.5324;0.4466;
724.2000;0.5324;0.4538;
724.5000;0.5299;0.4586;
724.8000;0.5299;0.4634;
725.1000;0.5348;0.4707;
725.4000;0.5307;0.4731;
725.7000;0.5307;0.4803;
726.0000;0.5332;0.4899;
726.3000;0.5307;0.4875;
726.6000;0.5348;0.4971;
726.9000;0.5364;0.5067;
727.2000;0.5332;0.4947;
727.5000;0.5275;0.4803;
727.8000;0.5291;0.4755;
728.1000;0.5210;0.4659;
728.4000;0.5299;0.4947;
728.7000;0.5283;0.4875;
729.0000;0.5283;0.4923;
729.3000;0.5299;0.4875;
729.6000;0.5267;0.4803;
729.9000;0.5299;0.4827;
730.2000;0.5324;0.4899;
730.5000;0.5299;0.4827;
730.8000;0.5307;0.4827;
731.1000;0.5299;0.4803;
731.4000;0.5315;0.4851;
731.7000;0.5307;0.4779;
732.0000;0.5291;0.4707;
732.3000;0.5299;0.4683;
732.6000;0.5283;0.4683;
732.9000;0.5275;0.4755;
733.2000;0.5283;0.4779;
733.5000;0.5267;0.4755;
733.8000;0.5275;0.4707;
734.1000;0.5283;0.4610;
734.4000;0.5299;0.4610;
734.7000;0.5267;0.4514;
735.0000;0.5283;0.4562;
735.3000;0.5283;0.4538;
735.6000;0.5291;0.4659;
735.9000;0.5299;0.4538;
736.2000;0.5275;0.4466;
736.5000;0.5283;0.4538;
736.8000;0.5275;0.4562;
737.1000;0.5283;0.4538;
737.4000;0.5291;0.4562;
737.7000;0.5258;0.4514;
738.0000;0.5267;0.4490;
738.3000;0.5283;0.4442;
738.6000;0.5258;0.4418;
738.9000;0.5283;0.4442;
739.2000;0.5267;0.4442;
739.5000;0.5291;0.4418;
739.8000;0.5275;0.4370;
740.1000;0.5267;0.4346;
740.4000;0.5258;0.4346;
740.7000;0.5275;0.4370;
741.0000;0.5275;0.4394;
741.3000;0.5267;0.4490;
741.6000;0.5250;0.4490;
741.9000;0.5283;0.4586;
742.2000;0.5283;0.4538;
742.5000;0.5258;0.4490;
742.8000;0.5275;0.4562;
743.1000;0.5258;0.4659;
743.4000;0.5315;0.4779;
743.7000;0.5242;0.4538;
744.0000;0.5218;0.4442;
744.3000;0.5258;0.4514;
744.6000;0.5250;0.4562;
744.9000;0.5250;0.4634;
745.2000;0.5210;0.4442;
745.5000;0.5258;0.4586;
745.8000;0.5242;0.4562;
746.1000;0.5258;0.4610;
746.4000;0.5275;0.4659;
746.7000;0.5250;0.4683;
747.0000;0.5250;0.4683;
747.3000;0.5250;0.4659;
747.6000;0.5242;0.4634;
747.9000;0.5250;0.4634;
748.2000;0.5242;0.4659;
748.5000;0.5267;0.4707;
748.8000;0.5250;0.4707;
749.1000;0.5258;0.4683;
749.4000;0.5267;0.4755;
749.7000;0.5267;0.4803;
750.0000;0.5242;0.4731;
750.3000;0.5234;0.4683;
750.6000;0.5226;0.4610;
750.9000;0.5275;0.4659;
751.2000;0.5242;0.4538;
751.5000;0.5340;0.4755;
751.8000;0.5226;0.4394;
752.1000;0.5250;0.4466;
752.4000;0.5242;0.4370;
752.7000;0.5250;0.4394;
753.0000;0.5234;0.4394;
753.3000;0.5234;0.4322;
753.6000;0.5258;0.4466;
753.9000;0.5242;0.4418;
754.2000;0.5250;0.4346;
754.5000;0.5242;0.4322;
754.8000;0.5250;0.4394;
755.1000;0.5218;0.4346;
755.4000;0.5201;0.4322;
755.7000;0.5242;0.4490;
756.0000;0.5226;0.4514;
756.3000;0.5242;0.4562;
756.6000;0.5242;0.4683;
756.9000;0.5242;0.4755;
757.2000;0.5234;0.4731;
757.5000;0.5226;0.4659;
757.8000;0.5226;0.4659;
758.1000;0.5250;0.4683;
758.4000;0.5242;0.4659;
758.7000;0.5161;0.4514;
759.0000;0.5226;0.4755;
759.3000;0.5226;0.4707;
759.6000;0.5250;0.4634;
759.9000;0.5242;0.4659;
760.2000;0.5234;0.4683;
760.5000;0.5234;0.4731;
760.8000;0.5226;0.4731;
761.1000;0.5234;0.4659;
761.4000;0.5226;0.4538;
761.7000;0.5258;0.4634;
762.0000;0.5226;0.4634;
762.3000;0.5234;0.4659;
762.6000;0.5234;0.4610;
762.9000;0.5177;0.4538;
763.2000;0.5218;0.4586;
763.5000;0.5250;0.4586;
763.8000;0.5234;0.4610;
764.1000;0.5218;0.4514;
764.4000;0.5234;0.4538;
764.7000;0.5218;0.4538;
765.0000;0.5153;0.4418;
765.3000;0.5201;0.4514;
765.6000;0.5234;0.4634;
765.9000;0.5218;0.4634;
766.2000;0.5226;0.4683;
766.5000;0.5267;0.4755;
766.8000;0.5201;0.4586;
767.1000;0.5185;0.4586;
767.4000;0.5185;0.4538;
767.7000;0.5193;0.4586;
768.0000;0.5193;0.4562;
768.3000;0.5193;0.4634;
768.6000;0.5201;0.4707;
768.9000;0.5218;0.4731;
769.2000;0.5201;0.4683;
769.5000;0.5226;0.4731;
769.8000;0.5210;0.4755;
770.1000;0.5210;0.4779;
770.4000;0.5210;0.4707;
770.7000;0.5193;0.4707;
771.0000;0.5218;0.4562;
771.3000;0.5218;0.4514;
771.6000;0.5210;0.4683;
771.9000;0.5185;0.4586;
772.2000;0.5210;0.4634;
772.5000;0.5210;0.4610;
772.8000;0.5210;0.4538;
773.1000;0.5193;0.4538;
773.4000;0.5193;0.4586;
773.7000;0.5161;0.4514;
774.0000;0.5185;0.4610;
774.3000;0.5210;0.4586;
774.6000;0.5210;0.4562;
774.9000;0.5218;0.4610;
775.2000;0.5201;0.4538;
775.5000;0.5210;0.4466;
775.8000;0.5201;0.4514;
776.1000;0.5218;0.4490;
776.4000;0.5218;0.4586;
776.7000;0.5218;0.4659;
777.0000;0.5234;0.4634;
777.3000;0.5201;0.4514;
777.6000;0.5193;0.4634;
777.9000;0.5193;0.4538;
778.2000;0.5201;0.4610;
778.5000;0.5201;0.4683;
778.8000;0.5193;0.4755;
779.1000;0.5210;0.4683;
779.4000;0.5283;0.4875;
779.7000;0.5226;0.4779;
780.0000;0.5210;0.4731;
780.3000;0.5201;0.4707;
780.6000;0.5201;0.4755;
780.9000;0.5185;0.4755;
781.2000;0.5201;0.4803;
781.5000;0.5201;0.4731;
781.8000;0.5185;0.4707;
782.1000;0.5177;0.4755;
782.4000;0.5185;0.4779;
782.7000;0.5226;0.4803;
783.0000;0.5177;0.4707;
783.3000;0.5169;0.4683;
783.6000;0.5185;0.4779;
783.9000;0.5218;0.4827;
784.2000;0.5185;0.4659;
784.5000;0.5177;0.4659;
784.8000;0.5177;0.4659;
785.1000;0.5193;0.4659;
785.4000;0.5210;0.4731;
785.7000;0.5128;0.4610;
786.0000;0.5193;0.4755;
786.3000;0.5153;0.4610;
786.6000;0.5193;0.4610;
786.9000;0.5185;0.4562;
787.2000;0.5169;0.4466;
787.5000;0.5153;0.4562;
787.8000;0.5169;0.4562;
788.1000;0.5169;0.4634;
788.4000;0.5169;0.4562;
788.7000;0.5177;0.4538;
789.0000;0.5169;0.4659;
789.3000;0.5177;0.4731;
789.6000;0.5169;0.4683;
789.9000;0.5185;0.4707;
790.2000;0.5185;0.4803;
790.5000;0.5177;0.4755;
790.8000;0.5185;0.4827;
791.1000;0.5226;0.4971;
791.4000;0.5169;0.4875;
791.7000;0.5185;0.4875;
792.0000;0.5185;0.4923;
792.3000;0.5169;0.4899;
792.6000;0.5185;0.4827;
792.9000;0.5185;0.4779;
793.2000;0.5161;0.4827;
793.5000;0.5177;0.4851;
793.8000;0.5185;0.4803;
794.1000;0.5169;0.4755;
794.4000;0.5177;0.4707;
794.7000;0.5169;0.4659;
795.0000;0.5185;0.4755;
795.3000;0.5153;0.4755;
795.6000;0.5177;0.4827;
795.9000;0.5169;0.4851;
796.2000;0.5169;0.4779;
796.5000;0.5185;0.4731;
796.8000;0.5161;0.4707;
797.1000;0.5201;0.4875;
797.4000;0.5153;0.4707;
797.7000;0.5169;0.4731;
798.0000;0.5177;0.4731;
798.3000;0.5161;0.4610;
798.6000;0.5161;0.4610;
798.9000;0.5169;0.4634;
799.2000;0.5185;0.4755;
799.5000;0.5177;0.4803;
799.8000;0.5169;0.4851;
800.1000;0.5153;0.4803;
800.4000;0.5169;0.4899;
800.7000;0.5161;0.4947;
801.0000;0.5153;0.4971;
801.3000;0.5161;0.4923;
801.6000;0.5177;0.4923;
801.9000;0.5161;0.4851;
802.2000;0.5169;0.4827;
802.5000;0.5177;0.4875;
802.8000;0.5161;0.4827;
803.1000;0.5169;0.4851;
803.4000;0.5161;0.4851;
803.7000;0.5153;0.4851;
804.0000;0.5161;0.4923;
804.3000;0.5185;0.5019;
804.6000;0.5161;0.4971;
804.9000;0.5169;0.4995;
805.2000;0.5169;0.4995;
805.5000;0.5112;0.4899;
805.8000;0.5161;0.4947;
806.1000;0.5144;0.4923;
806.4000;0.5144;0.4827;
806.7000;0.5161;0.4899;
807.0000;0.5153;0.4899;
807.3000;0.5210;0.5091;
807.6000;0.5144;0.4947;
807.9000;0.5161;0.4971;
808.2000;0.5161;0.4899;
808.5000;0.5153;0.4851;
808.8000;0.5153;0.4779;
809.1000;0.5161;0.4875;
809.4000;0.5218;0.4923;
809.7000;0.5153;0.4755;
810.0000;0.5177;0.4707;
810.3000;0.5153;0.4634;
810.6000;0.5161;0.4683;
810.9000;0.5153;0.4779;
811.2000;0.5144;0.4851;
811.5000;0.5153;0.4851;
811.8000;0.5169;0.4971;
812.1000;0.5177;0.5019;
812.4000;0.5128;0.4851;
812.7000;0.5128;0.4827;
813.0000;0.5144;0.4899;
813.3000;0.5144;0.4899;
813.6000;0.5153;0.4923;
813.9000;0.5136;0.4899;
814.2000;0.5071;0.4683;
814.5000;0.5153;0.4923;
814.8000;0.5226;0.5115;
815.1000;0.5144;0.5043;
815.4000;0.5144;0.5043;
815.7000;0.5177;0.5043;
816.0000;0.5177;0.5043;
816.3000;0.5136;0.4923;
816.6000;0.5136;0.4851;
816.9000;0.5153;0.4899;
817.2000;0.5153;0.4971;
817.5000;0.5104;0.4827;
817.8000;0.5128;0.4875;
818.1000;0.5144;0.4899;
818.4000;0.5136;0.4875;
818.7000;0.5079;0.4755;
819.0000;0.5161;0.4923;
819.3000;0.5128;0.4779;
819.6000;0.5136;0.4803;
819.9000;0.5136;0.4803;
820.2000;0.5161;0.4827;
820.5000;0.5144;0.4899;
820.8000;0.5144;0.4851;
821.1000;0.5144;0.4851;
821.4000;0.5169;0.4899;
821.7000;0.5144;0.4779;
822.0000;0.5136;0.4707;
822.3000;0.5112;0.4586;
822.6000;0.5144;0.4634;
822.9000;0.5177;0.4731;
823.2000;0.5120;0.4586;
823.5000;0.5128;0.4683;
823.8000;0.5128;0.4779;
824.1000;0.5120;0.4731;
824.4000;0.5104;0.4610;
824.7000;0.5153;0.4731;
825.0000;0.5153;0.4851;
825.3000;0.5144;0.4779;
825.6000;0.5153;0.4731;
825.9000;0.5169;0.4707;
826.2000;0.5136;0.4659;
826.5000;0.5153;0.4731;
826.8000;0.5153;0.4779;
827.1000;0.5153;0.4827;
827.4000;0.5161;0.4899;
827.7000;0.5128;0.4899;
828.0000;0.5128;0.4803;
828.3000;0.5128;0.4779;
828.6000;0.5128;0.4634;
828.9000;0.5136;0.4562;
829.2000;0.5153;0.4634;
829.5000;0.5014;0.4370;
829.8000;0.5079;0.4538;
830.1000;0.5120;0.4610;
830.4000;0.5136;0.4610;
830.7000;0.5120;0.4586;
831.0000;0.5136;0.4707;
831.3000;0.5128;0.4755;
831.6000;0.5112;0.4779;
831.9000;0.5136;0.4779;
832.2000;0.5136;0.4851;
832.5000;0.5136;0.4923;
832.8000;0.5112;0.4899;
833.1000;0.5104;0.4899;
833.4000;0.5144;0.4899;
833.7000;0.5128;0.4923;
834.0000;0.5112;0.4875;
834.3000;0.5112;0.4803;
834.6000;0.5144;0.4899;
834.9000;0.5153;0.4851;
835.2000;0.5128;0.4803;
835.5000;0.5104;0.4827;
835.8000;0.5128;0.4899;
836.1000;0.5120;0.4875;
836.4000;0.5128;0.4947;
836.7000;0.5071;0.4755;
837.0000;0.5112;0.4803;
837.3000;0.5136;0.4779;
837.6000;0.5112;0.4779;
837.9000;0.5104;0.4803;
838.2000;0.5112;0.4755;
838.5000;0.5096;0.4779;
838.8000;0.5112;0.4995;
839.1000;0.5096;0.4947;
839.4000;0.5120;0.5067;
839.7000;0.5104;0.5019;
840.0000;0.5185;0.5283;
840.3000;0.5120;0.5067;
840.6000;0.5104;0.4947;
840.9000;0.5104;0.4899;
841.2000;0.5128;0.4923;
841.5000;0.5136;0.4875;
841.8000;0.5128;0.4899;
842.1000;0.5088;0.4803;
842.4000;0.5128;0.4899;
842.7000;0.5136;0.4875;
843.0000;0.5088;0.4827;
843.3000;0.5128;0.4923;
843.6000;0.5112;0.4971;
843.9000;0.5128;0.4947;
844.2000;0.5104;0.4875;
844.5000;0.5120;0.4875;
844.8000;0.5112;0.4803;
845.1000;0.5112;0.4755;
845.4000;0.5177;0.4875;
845.7000;0.5104;0.4851;
846.0000;0.5104;0.4875;
846.3000;0.5071;0.4827;
846.6000;0.5104;0.5043;
846.9000;0.5136;0.5067;
847.2000;0.5120;0.5043;
847.5000;0.5128;0.4923;
847.8000;0.5120;0.4827;
848.1000;0.5063;0.4755;
848.4000;0.5153;0.5019;
848.7000;0.5112;0.4923;
849.0000;0.5112;0.4899;
849.3000;0.5104;0.4923;
849.6000;0.5112;0.4923;
849.9000;0.5112;0.4947;
850.2000;0.5112;0.4923;
850.5000;0.5153;0.4947;
850.8000;0.5096;0.4779;
851.1000;0.5104;0.4779;
851.4000;0.5096;0.4803;
851.7000;0.5031;0.4610;
852.0000;0.5112;0.4755;
852.3000;0.5055;0.4683;
852.6000;0.5128;0.4899;
852.9000;0.5112;0.4851;
853.2000;0.5120;0.4971;
853.5000;0.5079;0.4995;
853.8000;0.5104;0.5019;
854.1000;0.5104;0.5043;
854.4000;0.5112;0.5091;
854.7000;0.5104;0.4995;
855.0000;0.5153;0.5091;
855.3000;0.5104;0.5019;
855.6000;0.5112;0.5091;
855.9000;0.5112;0.5067;
856.2000;0.5104;0.5043;
856.5000;0.5112;0.5043;
856.8000;0.5096;0.5043;
857.1000;0.5096;0.4947;
857.4000;0.5104;0.5043;
857.7000;0.5096;0.5139;
858.0000;0.5088;0.5139;
858.3000;0.5088;0.5115;
858.6000;0.5088;0.5067;
858.9000;0.5088;0.5043;
859.2000;0.5104;0.4971;
859.5000;0.5120;0.5043;
859.8000;0.5088;0.4971;
860.1000;0.5104;0.4923;
860.4000;0.5104;0.4851;
860.7000;0.5104;0.4875;
861.0000;0.5112;0.4875;
861.3000;0.5112;0.4875;
861.6000;0.5193;0.5211;
861.9000;0.5088;0.5091;
862.2000;0.5088;0.5067;
862.5000;0.5071;0.5019;
862.8000;0.5112;0.5115;
863.1000;0.5071;0.4995;
863.4000;0.5088;0.5067;
863.7000;0.5112;0.5043;
864.0000;0.5112;0.4971;
864.3000;0.5104;0.4899;
864.6000;0.5104;0.4899;
864.9000;0.5096;0.4947;
865.2000;0.5136;0.4995;
865.5000;0.5104;0.4899;
865.8000;0.5104;0.4827;
866.1000;0.5144;0.4899;
866.4000;0.5112;0.4755;
866.7000;0.5120;0.4827;
867.0000;0.5136;0.4899;
867.3000;0.5088;0.4707;
867.6000;0.5112;0.4779;
867.9000;0.5128;0.4779;
868.2000;0.5055;0.4707;
868.5000;0.5104;0.4875;
868.8000;0.5096;0.4803;
869.1000;0.5104;0.4851;
869.4000;0.5112;0.4947;
869.7000;0.5096;0.4803;
870.0000;0.5096;0.4875;
870.3000;0.5112;0.4947;
870.6000;0.5096;0.4947;
870.9000;0.5088;0.4875;
871.2000;0.5079;0.4851;
871.5000;0.5071;0.4851;
871.8000;0.5088;0.4947;
872.1000;0.5079;0.4947;
872.4000;0.5104;0.5019;
872.7000;0.5088;0.4899;
873.0000;0.5088;0.4923;
873.3000;0.5088;0.4923;
873.6000;0.5088;0.4923;
873.9000;0.5071;0.4923;
874.2000;0.5088;0.4971;
874.5000;0.5088;0.4971;
874.8000;0.5088;0.4971;
875.1000;0.5096;0.4947;
875.4000;0.5079;0.4923;
875.7000;0.5104;0.4971;
876.0000;0.5096;0.4947;
876.3000;0.5079;0.4899;
876.6000;0.5088;0.4947;
876.9000;0.5088;0.4923;
877.2000;0.5104;0.4947;
877.5000;0.5096;0.4899;
877.8000;0.5022;0.4707;
878.1000;0.5071;0.4875;
878.4000;0.5104;0.4923;
878.7000;0.5096;0.4875;
879.0000;0.5079;0.4731;
879.3000;0.5088;0.4707;
879.6000;0.5071;0.4779;
879.9000;0.5063;0.4827;
880.2000;0.5088;0.4899;
880.5000;0.5120;0.4947;
880.8000;0.5088;0.4923;
881.1000;0.5079;0.4875;
881.4000;0.5088;0.4875;
881.7000;0.5079;0.4827;
882.0000;0.5112;0.4803;
882.3000;0.5088;0.4755;
882.6000;0.4990;0.4538;
882.9000;0.5063;0.4610;
883.2000;0.5096;0.4634;
883.5000;0.5112;0.4755;
883.8000;0.5104;0.4707;
884.1000;0.5096;0.4683;
884.4000;0.5071;0.4634;
884.7000;0.5079;0.4634;
885.0000;0.5079;0.4634;
885.3000;0.5088;0.4731;
885.6000;0.5088;0.4851;
885.9000;0.5096;0.4779;
886.2000;0.5088;0.4851;
886.5000;0.5096;0.4923;
886.8000;0.5079;0.4875;
887.1000;0.5079;0.4875;
887.4000;0.5096;0.4851;
887.7000;0.5088;0.4827;
888.0000;0.5079;0.4827;
888.3000;0.5096;0.4875;
888.6000;0.5055;0.4683;
888.9000;0.5088;0.4755;
889.2000;0.5096;0.4803;
889.5000;0.5063;0.4803;
889.8000;0.5071;0.4779;
890.1000;0.5079;0.4803;
890.4000;0.5014;0.4683;
890.7000;0.5071;0.4803;
891.0000;0.5079;0.4923;
891.3000;0.5079;0.4947;
891.6000;0.5079;0.4923;
891.9000;0.5071;0.4899;
892.2000;0.5096;0.4923;
892.5000;0.5088;0.4875;
892.8000;0.5096;0.4827;
893.1000;0.5088;0.4851;
893.4000;0.5088;0.4899;
893.7000;0.5071;0.4755;
894.0000;0.5071;0.4851;
894.3000;0.5079;0.4827;
894.6000;0.5063;0.4851;
894.9000;0.5071;0.4803;
895.2000;0.5096;0.4779;
895.5000;0.5055;0.4683;
895.8000;0.5022;0.4610;
896.1000;0.5088;0.4707;
896.4000;0.5104;0.4707;
896.7000;0.5039;0.4610;
897.0000;0.5096;0.4875;
897.3000;0.5063;0.4827;
897.6000;0.5071;0.4827;
897.9000;0.5079;0.4875;
898.2000;0.5079;0.4947;
898.5000;0.5063;0.4899;
898.8000;0.5079;0.4851;
899.1000;0.5071;0.4899;
899.4000;0.5063;0.4923;
899.7000;0.5079;0.4899;
900.0000;0.5161;0.5115;
900.3000;0.5104;0.4899;
900.6000;0.5063;0.4875;
900.9000;0.5071;0.4995;
901.2000;0.5079;0.5043;
901.5000;0.5022;0.4875;
901.8000;0.5071;0.4947;
902.1000;0.5088;0.4923;
902.4000;0.5079;0.4899;
902.7000;0.5079;0.4875;
903.0000;0.5088;0.4875;
903.3000;0.5079;0.4851;
903.6000;0.5079;0.4827;
903.9000;0.5088;0.4827;
904.2000;0.5063;0.4755;
904.5000;0.5063;0.4779;
904.8000;0.5071;0.4779;
905.1000;0.5063;0.4779;
905.4000;0.5079;0.4779;
905.7000;0.5071;0.4779;
906.0000;0.5079;0.4899;
906.3000;0.5079;0.4851;
906.6000;0.5112;0.4995;
906.9000;0.5055;0.4899;
907.2000;0.5088;0.4971;
907.5000;0.5071;0.4899;
907.8000;0.5079;0.4947;
908.1000;0.5063;0.4923;
908.4000;0.5063;0.4923;
908.7000;0.5039;0.4899;
909.0000;0.5063;0.4947;
909.3000;0.5063;0.4971;
909.6000;0.5063;0.4995;
909.9000;0.5055;0.4899;
910.2000;0.5063;0.4995;
910.5000;0.5071;0.5019;
910.8000;0.5055;0.4995;
911.1000;0.5071;0.5067;
911.4000;0.5079;0.5139;
911.7000;0.5088;0.5091;
912.0000;0.5079;0.5067;
912.3000;0.5071;0.5115;
912.6000;0.5071;0.5019;
912.9000;0.5079;0.5019;
913.2000;0.5079;0.4995;
913.5000;0.5071;0.4947;
913.8000;0.5071;0.4851;
914.1000;0.5071;0.4875;
914.4000;0.5047;0.4827;
914.7000;0.5047;0.4851;
915.0000;0.5047;0.4827;
915.3000;0.5071;0.4803;
915.6000;0.5063;0.4731;
915.9000;0.5063;0.4634;
916.2000;0.5079;0.4731;
916.5000;0.5022;0.4634;
916.8000;0.5063;0.4803;
917.1000;0.5063;0.4827;
917.4000;0.5031;0.4779;
917.7000;0.5071;0.4851;
918.0000;0.5055;0.4899;
918.3000;0.5079;0.4995;
918.6000;0.5071;0.4971;
918.9000;0.5096;0.5019;
919.2000;0.5063;0.4899;
919.5000;0.5039;0.4827;
919.8000;0.5136;0.5067;
920.1000;0.5047;0.4947;
920.4000;0.5153;0.5283;
920.7000;0.5063;0.4995;
921.0000;0.5079;0.4923;
921.3000;0.5071;0.4947;
921.6000;0.5071;0.4899;
921.9000;0.5071;0.4947;
922.2000;0.5063;0.4899;
922.5000;0.5079;0.4971;
922.8000;0.5063;0.4971;
923.1000;0.5063;0.5019;
923.4000;0.5096;0.5043;
923.7000;0.5055;0.4971;
924.0000;0.5079;0.5115;
924.3000;0.5063;0.5115;
924.6000;0.5063;0.5115;
924.9000;0.5071;0.5187;
925.2000;0.5063;0.5187;
925.5000;0.5079;0.5163;
925.8000;0.5071;0.4995;
926.1000;0.5055;0.4947;
926.4000;0.5055;0.5019;
926.7000;0.5088;0.5115;
927.0000;0.5079;0.5091;
927.3000;0.5071;0.5043;
927.6000;0.5055;0.5067;
927.9000;0.5063;0.5115;
928.2000;0.5055;0.5067;
928.5000;0.5047;0.5067;
928.8000;0.5047;0.5115;
929.1000;0.5104;0.5211;
929.4000;0.5063;0.5163;
929.7000;0.5079;0.5187;
930.0000;0.5039;0.5115;
930.3000;0.5039;0.5091;
930.6000;0.5031;0.5067;
930.9000;0.5022;0.4995;
931.2000;0.5063;0.5115;
931.5000;0.5039;0.5115;
931.8000;0.5079;0.5187;
932.1000;0.4990;0.4971;
932.4000;0.5039;0.5091;
932.7000;0.5063;0.5091;
933.0000;0.5063;0.5043;
933.3000;0.5063;0.4995;
933.6000;0.5063;0.5043;
933.9000;0.5031;0.5091;
934.2000;0.5071;0.5091;
934.5000;0.5055;0.5139;
934.8000;0.5063;0.5067;
935.1000;0.5063;0.5019;
935.4000;0.5047;0.4995;
935.7000;0.5039;0.4947;
936.0000;0.5014;0.4803;
936.3000;0.5047;0.4875;
936.6000;0.5055;0.4899;
936.9000;0.5047;0.4827;
937.2000;0.5079;0.4971;
937.5000;0.5055;0.4971;
937.8000;0.5071;0.5019;
938.1000;0.5071;0.5019;
938.4000;0.5055;0.5043;
938.7000;0.5039;0.5019;
939.0000;0.5014;0.4923;
939.3000;0.5047;0.5067;
939.6000;0.5088;0.5187;
939.9000;0.5063;0.5139;
940.2000;0.5022;0.4971;
940.5000;0.5088;0.4995;
940.8000;0.5063;0.4875;
941.1000;0.5047;0.4899;
941.4000;0.5063;0.4995;
941.7000;0.4974;0.4779;
942.0000;0.5063;0.5091;
942.3000;0.5022;0.4947;
942.6000;0.5071;0.4971;
942.9000;0.5063;0.5067;
943.2000;0.5071;0.5139;
943.5000;0.5039;0.5091;
943.8000;0.5039;0.5091;
944.1000;0.5039;0.5019;
944.4000;0.5055;0.5139;
944.7000;0.5112;0.5259;
945.0000;0.5063;0.5163;
945.3000;0.5071;0.5163;
945.6000;0.5063;0.5091;
945.9000;0.5022;0.4995;
946.2000;0.5063;0.4995;
946.5000;0.5063;0.5067;
946.8000;0.5055;0.4923;
947.1000;0.5071;0.4947;
947.4000;0.5047;0.4995;
947.7000;0.5055;0.5043;
948.0000;0.5071;0.5067;
948.3000;0.5071;0.5019;
948.6000;0.5063;0.5043;
948.9000;0.5071;0.5163;
949.2000;0.5055;0.5091;
949.5000;0.5063;0.5067;
949.8000;0.5071;0.5139;
950.1000;0.5047;0.5091;
950.4000;0.5047;0.5067;
950.7000;0.5055;0.5091;
951.0000;0.5055;0.5139;
951.3000;0.5055;0.5115;
951.6000;0.4990;0.4971;
951.9000;0.5063;0.5043;
952.2000;0.5014;0.4899;
952.5000;0.5055;0.5019;
952.8000;0.5063;0.4947;
953.1000;0.4974;0.4707;
953.4000;0.5063;0.4947;
953.7000;0.5055;0.4947;
954.0000;0.5047;0.4947;
954.3000;0.5088;0.5019;
954.6000;0.4998;0.4827;
954.9000;0.5047;0.4995;
955.2000;0.5039;0.4899;
955.5000;0.5039;0.4851;
955.8000;0.5031;0.4947;
956.1000;0.5047;0.5019;
956.4000;0.5039;0.4995;
956.7000;0.5055;0.5091;
957.0000;0.5063;0.5067;
957.3000;0.5039;0.5019;
957.6000;0.5039;0.5067;
957.9000;0.5039;0.5091;
958.2000;0.5047;0.5043;
958.5000;0.5047;0.5019;
958.8000;0.5031;0.4971;
959.1000;0.5039;0.4923;
959.4000;0.5047;0.4947;
959.7000;0.5055;0.5043;
960.0000;0.5088;0.5139;
960.3000;0.5031;0.4971;
960.6000;0.5055;0.4971;
960.9000;0.5055;0.5019;
961.2000;0.5063;0.4899;
961.5000;0.5047;0.4755;
961.8000;0.5039;0.4755;
962.1000;0.5071;0.4899;
962.4000;0.5047;0.4899;
962.7000;0.5047;0.4851;
963.0000;0.5096;0.4827;
963.3000;0.5047;0.4755;
963.6000;0.5071;0.4803;
963.9000;0.5039;0.4755;
964.2000;0.5055;0.4875;
964.5000;0.5047;0.4899;
964.8000;0.5047;0.4851;
965.1000;0.5039;0.4755;
965.4000;0.5047;0.4707;
965.7000;0.5031;0.4683;
966.0000;0.5047;0.4659;
966.3000;0.5047;0.4707;
966.6000;0.5039;0.4683;
966.9000;0.5014;0.4610;
967.2000;0.5096;0.4851;
967.5000;0.4982;0.4610;
967.8000;0.5031;0.4683;
968.1000;0.5039;0.4659;
968.4000;0.5014;0.4634;
968.7000;0.5039;0.4659;
969.0000;0.4998;0.4538;
969.3000;0.5104;0.4755;
969.6000;0.5039;0.4610;
969.9000;0.5047;0.4683;
970.2000;0.5063;0.4755;
970.5000;0.5022;0.4731;
970.8000;0.5136;0.4995;
971.1000;0.5063;0.4755;
971.4000;0.5096;0.4899;
971.7000;0.5039;0.4731;
972.0000;0.5039;0.4659;
972.3000;0.5047;0.4707;
972.6000;0.5071;0.4683;
972.9000;0.5039;0.4683;
973.2000;0.5047;0.4707;
973.5000;0.5063;0.4731;
973.8000;0.5047;0.4731;
974.1000;0.5014;0.4707;
974.4000;0.5022;0.4683;
974.7000;0.5063;0.4803;
975.0000;0.5071;0.4827;
975.3000;0.5047;0.4875;
975.6000;0.5144;0.5163;
975.9000;0.5055;0.4899;
976.2000;0.5153;0.5091;
976.5000;0.5055;0.4923;
976.8000;0.5031;0.4827;
977.1000;0.4990;0.4803;
977.4000;0.5039;0.4971;
977.7000;0.5031;0.4875;
978.0000;0.5031;0.4851;
978.3000;0.5022;0.4779;
978.6000;0.5031;0.4707;
978.9000;0.5047;0.4755;
979.2000;0.5063;0.4803;
979.5000;0.5039;0.4683;
979.8000;0.5031;0.4731;
980.1000;0.5031;0.4707;
980.4000;0.5047;0.4707;
980.7000;0.5022;0.4634;
981.0000;0.5031;0.4610;
981.3000;0.5047;0.4586;
981.6000;0.5031;0.4562;
981.9000;0.5022;0.4490;
982.2000;0.5031;0.4418;
982.5000;0.5039;0.4418;
982.8000;0.5055;0.4514;
983.1000;0.5031;0.4514;
983.4000;0.5039;0.4538;
983.7000;0.5055;0.4634;
984.0000;0.5047;0.4634;
984.3000;0.5014;0.4634;
984.6000;0.5039;0.4683;
984.9000;0.4990;0.4586;
985.2000;0.5047;0.4755;
985.5000;0.5055;0.4779;
985.8000;0.5055;0.4827;
986.1000;0.5063;0.4899;
986.4000;0.5031;0.4803;
986.7000;0.5031;0.4827;
987.0000;0.4974;0.4634;
987.3000;0.5014;0.4731;
987.6000;0.4982;0.4634;
987.9000;0.5047;0.4779;
988.2000;0.5031;0.4755;
988.5000;0.5039;0.4755;
988.8000;0.5039;0.4827;
989.1000;0.5031;0.4779;
989.4000;0.5031;0.4827;
989.7000;0.5031;0.4851;
990.0000;0.5014;0.4779;
990.3000;0.5031;0.4827;
990.6000;0.5031;0.4827;
990.9000;0.5014;0.4803;
991.2000;0.5031;0.4827;
991.5000;0.5039;0.4851;
991.8000;0.5047;0.4827;
992.1000;0.5039;0.4779;
992.4000;0.4982;0.4707;
992.7000;0.5022;0.4947;
993.0000;0.5039;0.4923;
993.3000;0.5022;0.4827;
993.6000;0.5022;0.4683;
993.9000;0.4974;0.4610;
994.2000;0.5039;0.4755;
994.5000;0.5022;0.4779;
994.8000;0.4990;0.4683;
995.1000;0.5031;0.4851;
995.4000;0.5031;0.4923;
995.7000;0.5031;0.4875;
996.0000;0.5055;0.4923;
996.3000;0.5014;0.4875;
996.6000;0.4974;0.4731;
996.9000;0.5039;0.4899;
997.2000;0.5014;0.4803;
997.5000;0.5039;0.4803;
997.8000;0.5047;0.4851;
998.1000;0.5014;0.4779;
998.4000;0.5022;0.4755;
998.7000;0.5014;0.4803;
999.0000;0.5071;0.4923;
999.3000;0.5039;0.4827;
999.6000;0.4949;0.4586;
999.9000;0.5039;0.4779;
1000.2000;0.4965;0.4562;
1000.5000;0.4974;0.4490;
1000.8000;0.5031;0.4610;
1001.1000;0.5006;0.4707;
1001.4000;0.5071;0.4875;
1001.7000;0.5022;0.4827;
1002.0000;0.5063;0.4875;
1002.3000;0.5031;0.4851;
1002.6000;0.5014;0.4803;
1002.9000;0.5039;0.4899;
1003.2000;0.5047;0.4827;
1003.5000;0.5031;0.4851;
1003.8000;0.5039;0.4779;
1004.1000;0.5031;0.4707;
1004.4000;0.5039;0.4707;
1004.7000;0.5039;0.4803;
1005.0000;0.5031;0.4803;
1005.3000;0.5047;0.4827;
1005.6000;0.5031;0.4875;
1005.9000;0.5031;0.4923;
1006.2000;0.5055;0.4995;
1006.5000;0.5047;0.4971;
1006.8000;0.5055;0.4971;
1007.1000;0.5039;0.4923;
1007.4000;0.5022;0.4851;
1007.7000;0.5039;0.4947;
1008.0000;0.5039;0.4923;
1008.3000;0.5031;0.4923;
1008.6000;0.5031;0.4971;
1008.9000;0.5047;0.4923;
1009.2000;0.5055;0.4923;
1009.5000;0.5047;0.4899;
1009.8000;0.5022;0.4923;
1010.1000;0.5006;0.4947;
1010.4000;0.5039;0.4995;
1010.7000;0.5039;0.5019;
1011.0000;0.5031;0.4947;
1011.3000;0.5022;0.4947;
1011.6000;0.5006;0.4827;
1011.9000;0.5031;0.4971;
1012.2000;0.5006;0.4827;
1012.5000;0.5006;0.4755;
1012.8000;0.5022;0.4875;
1013.1000;0.5088;0.5019;
1013.4000;0.5006;0.4827;
1013.7000;0.5022;0.4899;
1014.0000;0.5022;0.4995;
1014.3000;0.5047;0.5091;
1014.6000;0.5039;0.5067;
1014.9000;0.5055;0.5235;
1015.2000;0.5031;0.5235;
1015.5000;0.5031;0.5283;
1015.8000;0.5031;0.5211;
1016.1000;0.5039;0.5163;
1016.4000;0.5006;0.5091;
1016.7000;0.5022;0.5115;
1017.0000;0.5022;0.5115;
1017.3000;0.5031;0.5187;
1017.6000;0.5014;0.5115;
1017.9000;0.5088;0.5283;
1018.2000;0.5031;0.5019;
1018.5000;0.5031;0.4995;
1018.8000;0.5055;0.5067;
1019.1000;0.5022;0.5043;
1019.4000;0.5022;0.5019;
1019.7000;0.5055;0.5043;
1020.0000;0.5031;0.4995;
1020.3000;0.5031;0.4947;
1020.6000;0.5039;0.4803;
1020.9000;0.5039;0.4875;
1021.2000;0.5022;0.4707;
1021.5000;0.5014;0.4683;
1021.8000;0.5014;0.4707;
1022.1000;0.5031;0.4803;
1022.4000;0.5047;0.4923;
1022.7000;0.5031;0.4899;
1023.0000;0.5047;0.4947;
1023.3000;0.5096;0.5163;
1023.6000;0.5031;0.4995;
1023.9000;0.5039;0.5091;
1024.2000;0.5031;0.5067;
1024.5000;0.5022;0.5091;
1024.8000;0.5031;0.5115;
1025.1000;0.4974;0.4923;
1025.4000;0.5006;0.4947;
1025.7000;0.5031;0.5067;
1026.0000;0.5022;0.5043;
1026.3000;0.5031;0.4971;
1026.6000;0.5022;0.4971;
1026.9000;0.5022;0.4971;
1027.2000;0.5022;0.4995;
1027.5000;0.5047;0.4995;
1027.8000;0.5039;0.4971;
1028.1000;0.5031;0.5115;
1028.4000;0.5006;0.5067;
1028.7000;0.5014;0.5067;
1029.0000;0.4998;0.5091;
1029.3000;0.5047;0.5211;
1029.6000;0.5047;0.5043;
1029.9000;0.5006;0.4923;
1030.2000;0.5022;0.4923;
1030.5000;0.5031;0.4947;
1030.8000;0.5031;0.4899;
1031.1000;0.5031;0.4971;
1031.4000;0.5014;0.4947;
1031.7000;0.5022;0.4995;
1032.0000;0.5039;0.4971;
1032.3000;0.5039;0.4923;
1032.6000;0.5022;0.4875;
1032.9000;0.5006;0.4827;
1033.2000;0.5039;0.4827;
1033.5000;0.5006;0.4827;
1033.8000;0.5014;0.4875;
1034.1000;0.5006;0.4827;
1034.4000;0.5031;0.4851;
1034.7000;0.5022;0.4827;
1035.0000;0.5039;0.4851;
1035.3000;0.5031;0.4827;
1035.6000;0.5014;0.4731;
1035.9000;0.5022;0.4755;
1036.2000;0.5031;0.4827;
1036.5000;0.5022;0.4923;
1036.8000;0.5006;0.4947;
1037.1000;0.4998;0.4851;
1037.4000;0.5022;0.4923;
1037.7000;0.4998;0.4875;
1038.0000;0.5014;0.4971;
1038.3000;0.4974;0.4923;
1038.6000;0.5022;0.5067;
1038.9000;0.5022;0.5043;
1039.2000;0.5031;0.5043;
1039.5000;0.5022;0.5043;
1039.8000;0.5031;0.5115;
1040.1000;0.5031;0.5043;
1040.4000;0.5022;0.4875;
1040.7000;0.5022;0.4851;
1041.0000;0.5022;0.4875;
1041.3000;0.5022;0.4755;
1041.6000;0.5022;0.4659;
1041.9000;0.5014;0.4610;
1042.2000;0.5022;0.4683;
1042.5000;0.5022;0.4731;
1042.8000;0.5022;0.4779;
1043.1000;0.5006;0.4707;
1043.4000;0.5022;0.4803;
1043.7000;0.5031;0.4875;
1044.0000;0.5022;0.4899;
1044.3000;0.5031;0.4899;
1044.6000;0.5022;0.4947;
1044.9000;0.5022;0.4971;
1045.2000;0.5022;0.4947;
1045.5000;0.5014;0.4923;
1045.8000;0.5014;0.4923;
1046.1000;0.4982;0.4851;
1046.4000;0.5022;0.5115;
1046.7000;0.5039;0.5067;
1047.0000;0.5014;0.4971;
1047.3000;0.5006;0.4923;
1047.6000;0.5022;0.4947;
1047.9000;0.5031;0.4971;
1048.2000;0.5022;0.4923;
1048.5000;0.5022;0.4947;
1048.8000;0.5063;0.5019;
1049.1000;0.5006;0.4875;
1049.4000;0.5039;0.4803;
1049.7000;0.5031;0.4755;
1050.0000;0.5022;0.4803;
1050.3000;0.5039;0.4779;
1050.6000;0.5031;0.4803;
1050.9000;0.5031;0.4875;
1051.2000;0.5031;0.4971;
1051.5000;0.5014;0.5019;
1051.8000;0.5014;0.4947;
1052.1000;0.5006;0.4947;
1052.4000;0.5022;0.4947;
1052.7000;0.5006;0.4947;
1053.0000;0.4998;0.4971;
1053.3000;0.4998;0.5043;
1053.6000;0.5014;0.5019;
1053.9000;0.5014;0.5043;
1054.2000;0.5014;0.5067;
1054.5000;0.5014;0.5139;
1054.8000;0.5031;0.5235;
1055.1000;0.5039;0.5211;
1055.4000;0.5022;0.5187;
1055.7000;0.5022;0.5163;
1056.0000;0.5022;0.5139;
1056.3000;0.5022;0.5067;
1056.6000;0.5014;0.4971;
1056.9000;0.4949;0.4803;
1057.2000;0.5014;0.5019;
1057.5000;0.5022;0.5067;
1057.8000;0.5022;0.4971;
1058.1000;0.5031;0.4827;
1058.4000;0.4990;0.4659;
1058.7000;0.5006;0.4707;
1059.0000;0.5039;0.4707;
1059.3000;0.5006;0.4634;
1059.6000;0.5014;0.4683;
1059.9000;0.5014;0.4779;
1060.2000;0.5031;0.4899;
1060.5000;0.5014;0.4779;
1060.8000;0.5031;0.4875;
1061.1000;0.4998;0.4779;
1061.4000;0.5014;0.4731;
1061.7000;0.5022;0.4731;
1062.0000;0.5006;0.4659;
1062.3000;0.4949;0.4466;
1062.6000;0.5006;0.4634;
1062.9000;0.5022;0.4731;
1063.2000;0.5022;0.4707;
1063.5000;0.5006;0.4731;
1063.8000;0.5022;0.4731;
1064.1000;0.5014;0.4610;
1064.4000;0.5031;0.4586;
1064.7000;0.5006;0.4538;
1065.0000;0.5006;0.4659;
1065.3000;0.5014;0.4634;
1065.6000;0.5006;0.4562;
1065.9000;0.5022;0.4562;
1066.2000;0.5022;0.4562;
1066.5000;0.5022;0.4586;
1066.8000;0.5031;0.4562;
1067.1000;0.5022;0.4466;
1067.4000;0.5006;0.4418;
1067.7000;0.5022;0.4490;
1068.0000;0.5014;0.4562;
1068.3000;0.5006;0.4610;
1068.6000;0.5014;0.4634;
1068.9000;0.5014;0.4683;
1069.2000;0.5031;0.4731;
1069.5000;0.5014;0.4707;
1069.8000;0.5063;0.4779;
1070.1000;0.5022;0.4634;
1070.4000;0.5039;0.4755;
1070.7000;0.5031;0.4683;
1071.0000;0.5014;0.4610;
1071.3000;0.5006;0.4659;
1071.6000;0.4974;0.4586;
1071.9000;0.4941;0.4466;
1072.2000;0.4974;0.4538;
1072.5000;0.5022;0.4707;
1072.8000;0.5014;0.4755;
1073.1000;0.5022;0.4803;
1073.4000;0.4990;0.4707;
1073.7000;0.4998;0.4731;
1074.0000;0.5014;0.4779;
1074.3000;0.5006;0.4827;
1074.6000;0.5055;0.4923;
1074.9000;0.5063;0.4995;
1075.2000;0.5014;0.4995;
1075.5000;0.5014;0.5019;
1075.8000;0.5022;0.4971;
1076.1000;0.5031;0.4995;
1076.4000;0.5022;0.4947;
1076.7000;0.5006;0.4899;
1077.0000;0.5014;0.4851;
1077.3000;0.5006;0.4779;
1077.6000;0.5022;0.4803;
1077.9000;0.5014;0.4851;
1078.2000;0.5031;0.4803;
1078.5000;0.5039;0.4875;
1078.8000;0.5014;0.4899;
1079.1000;0.5055;0.4947;
1079.4000;0.5031;0.4875;
1079.7000;0.5014;0.4851;
1080.0000;0.5014;0.4875;
1080.3000;0.5022;0.4875;
1080.6000;0.5031;0.4899;
1080.9000;0.5006;0.4731;
1081.2000;0.5039;0.4707;
1081.5000;0.5006;0.4731;
1081.8000;0.5031;0.4827;
1082.1000;0.5006;0.4707;
1082.4000;0.4990;0.4707;
1082.7000;0.4998;0.4803;
1083.0000;0.4998;0.4851;
1083.3000;0.5031;0.4947;
1083.6000;0.5022;0.4971;
1083.9000;0.5014;0.4947;
1084.2000;0.5031;0.4995;
1084.5000;0.5144;0.5283;
1084.8000;0.5031;0.4971;
1085.1000;0.5014;0.4995;
1085.4000;0.4974;0.4851;
1085.7000;0.5022;0.4971;
1086.0000;0.5022;0.4875;
1086.3000;0.5022;0.4827;
1086.6000;0.5022;0.4947;
1086.9000;0.5014;0.4947;
1087.2000;0.5006;0.4923;
1087.5000;0.4974;0.4827;
1087.8000;0.4990;0.4923;
1088.1000;0.5006;0.4947;
1088.4000;0.5014;0.4971;
1088.7000;0.5022;0.4923;
1089.0000;0.5006;0.4971;
1089.3000;0.4998;0.4947;
1089.6000;0.5014;0.4995;
1089.9000;0.5022;0.4995;
1090.2000;0.4998;0.4947;
1090.5000;0.5014;0.5043;
1090.8000;0.5022;0.5091;
1091.1000;0.5006;0.5139;
1091.4000;0.4998;0.5043;
1091.7000;0.5006;0.5067;
1092.0000;0.4998;0.5115;
1092.3000;0.5047;0.5211;
1092.6000;0.5022;0.5067;
1092.9000;0.4998;0.5043;
1093.2000;0.5006;0.5091;
1093.5000;0.5022;0.5091;
1093.8000;0.5006;0.4995;
1094.1000;0.4917;0.4755;
1094.4000;0.5006;0.5043;
1094.7000;0.5014;0.4947;
1095.0000;0.5022;0.4995;
1095.3000;0.5014;0.4947;
1095.6000;0.5014;0.4923;
1095.9000;0.5039;0.4971;
1096.2000;0.5022;0.4947;
1096.5000;0.5014;0.4947;
1096.8000;0.5014;0.4971;
1097.1000;0.5006;0.4971;
1097.4000;0.5006;0.4971;
1097.7000;0.4998;0.4947;
1098.0000;0.5014;0.5019;
1098.3000;0.5006;0.4899;
1098.6000;0.5031;0.4923;
1098.9000;0.5039;0.4923;
1099.2000;0.5022;0.4779;
1099.5000;0.4998;0.4779;
1099.8000;0.5039;0.4875;
1100.1000;0.5014;0.4803;
1100.4000;0.5014;0.4779;
1100.7000;0.5006;0.4707;
1101.0000;0.5039;0.4755;
1101.3000;0.4998;0.4707;
1101.6000;0.4990;0.4827;
1101.9000;0.5014;0.4899;
1102.2000;0.5006;0.4899;
1102.5000;0.5039;0.4899;
1102.8000;0.5006;0.4851;
1103.1000;0.5022;0.4779;
1103.4000;0.5022;0.4875;
1103.7000;0.5079;0.5019;
1104.0000;0.5022;0.4875;
1104.3000;0.4990;0.4827;
1104.6000;0.5047;0.4995;
1104.9000;0.4998;0.4875;
1105.2000;0.5006;0.4899;
1105.5000;0.5014;0.4875;
1105.8000;0.5014;0.4923;
1106.1000;0.5006;0.4875;
1106.4000;0.5014;0.4875;
1106.7000;0.4990;0.4851;
1107.0000;0.5014;0.4875;
1107.3000;0.4998;0.4779;
1107.6000;0.5112;0.4995;
1107.9000;0.4998;0.4683;
1108.2000;0.5014;0.4779;
1108.5000;0.5031;0.4851;
1108.8000;0.4974;0.4707;
1109.1000;0.4990;0.4803;
1109.4000;0.5031;0.4875;
1109.7000;0.5006;0.4947;
1110.0000;0.4982;0.4851;
1110.3000;0.4998;0.4827;
1110.6000;0.4908;0.4562;
1110.9000;0.5047;0.4803;
1111.2000;0.5014;0.4755;
1111.5000;0.5014;0.4731;
1111.8000;0.4998;0.4707;
1112.1000;0.5014;0.4755;
1112.4000;0.4998;0.4803;
1112.7000;0.5014;0.4779;
1113.0000;0.4998;0.4851;
1113.3000;0.4998;0.4851;
1113.6000;0.4998;0.4803;
1113.9000;0.5006;0.4947;
1114.2000;0.5006;0.4875;
1114.5000;0.5014;0.4827;
1114.8000;0.5014;0.4947;
1115.1000;0.4998;0.4899;
1115.4000;0.4998;0.4899;
1115.7000;0.5022;0.4995;
1116.0000;0.5006;0.4971;
1116.3000;0.5006;0.4947;
1116.6000;0.4990;0.4899;
1116.9000;0.4998;0.4923;
1117.2000;0.4974;0.4875;
1117.5000;0.4998;0.4875;
1117.8000;0.4998;0.4875;
1118.1000;0.4965;0.4851;
1118.4000;0.4974;0.4971;
1118.7000;0.4990;0.4995;
1119.0000;0.5006;0.5043;
1119.3000;0.4982;0.4923;
1119.6000;0.4990;0.5019;
1119.9000;0.5006;0.5115;
1120.2000;0.4998;0.5019;
1120.5000;0.5014;0.4995;
1120.8000;0.5014;0.4971;
1121.1000;0.4990;0.4971;
1121.4000;0.5006;0.4875;
1121.7000;0.5022;0.4899;
1122.0000;0.5006;0.4875;
1122.3000;0.5006;0.4851;
1122.6000;0.5006;0.4827;
1122.9000;0.5014;0.4803;
1123.2000;0.5014;0.4875;
1123.5000;0.5022;0.4851;
1123.8000;0.5031;0.4947;
1124.1000;0.5014;0.4851;
1124.4000;0.5014;0.4875;
1124.7000;0.4990;0.4755;
1125.0000;0.5022;0.4827;
1125.3000;0.5014;0.4851;
1125.6000;0.5031;0.4827;
1125.9000;0.4998;0.4875;
1126.2000;0.5022;0.4875;
1126.5000;0.5006;0.4827;
1126.8000;0.4876;0.4538;
1127.1000;0.4998;0.4899;
1127.4000;0.4965;0.4851;
1127.7000;0.5022;0.4971;
1128.0000;0.4990;0.4995;
1128.3000;0.5022;0.5019;
1128.6000;0.4990;0.4947;
1128.9000;0.4990;0.4947;
1129.2000;0.5022;0.4971;
1129.5000;0.5031;0.4947;
1129.8000;0.5006;0.4851;
1130.1000;0.5006;0.4923;
1130.4000;0.5006;0.4875;
1130.7000;0.4941;0.4755;
1131.0000;0.5104;0.5139;
1131.3000;0.5022;0.4923;
1131.6000;0.4974;0.4779;
1131.9000;0.5014;0.4923;
1132.2000;0.4998;0.4875;
1132.5000;0.4974;0.4875;
1132.8000;0.4917;0.4707;
1133.1000;0.4990;0.4947;
1133.4000;0.4982;0.4947;
1133.7000;0.5006;0.5043;
1134.0000;0.5006;0.5067;
1134.3000;0.5063;0.5259;
1134.6000;0.5006;0.5139;
1134.9000;0.4998;0.5163;
1135.2000;0.5022;0.5259;
1135.5000;0.5022;0.5283;
1135.8000;0.5022;0.5307;
1136.1000;0.5014;0.5259;
1136.4000;0.5006;0.5211;
1136.7000;0.5022;0.5163;
1137.0000;0.5006;0.5139;
1137.3000;0.5031;0.5163;
1137.6000;0.5031;0.5139;
1137.9000;0.5006;0.5163;
1138.2000;0.4998;0.5091;
1138.5000;0.4998;0.5115;
1138.8000;0.4998;0.5115;
1139.1000;0.5006;0.5091;
1139.4000;0.4990;0.5019;
1139.7000;0.4998;0.4995;
1140.0000;0.4998;0.4971;
1140.3000;0.5006;0.4995;
1140.6000;0.5006;0.5091;
1140.9000;0.5014;0.5139;
1141.2000;0.5006;0.5115;
1141.5000;0.5006;0.5067;
1141.8000;0.5006;0.5091;
1142.1000;0.5006;0.5043;
1142.4000;0.4982;0.5043;
1142.7000;0.4990;0.5091;
1143.0000;0.4990;0.5067;
1143.3000;0.4974;0.5019;
1143.6000;0.5014;0.5115;
1143.9000;0.4998;0.5115;
1144.2000;0.4982;0.5067;
1144.5000;0.5006;0.5139;
1144.8000;0.4990;0.5091;
1145.1000;0.5014;0.5211;
1145.4000;0.5014;0.5187;
1145.7000;0.4990;0.5091;
1146.0000;0.4998;0.5115;
1146.3000;0.5014;0.5115;
1146.6000;0.5022;0.5139;
1146.9000;0.5047;0.5163;
1147.2000;0.5006;0.5019;
1147.5000;0.4998;0.5019;
1147.8000;0.4965;0.4947;
1148.1000;0.4998;0.5091;
1148.4000;0.5014;0.5091;
1148.7000;0.5014;0.4995;
1149.0000;0.4998;0.5019;
1149.3000;0.5006;0.5043;
1149.6000;0.4998;0.4995;
1149.9000;0.4949;0.4803;
1150.2000;0.4998;0.4947;
1150.5000;0.4998;0.4971;
1150.8000;0.5006;0.4995;
1151.1000;0.5006;0.4899;
1151.4000;0.4990;0.4947;
1151.7000;0.5006;0.5019;
1152.0000;0.4982;0.4995;
1152.3000;0.4933;0.4827;
1152.6000;0.4998;0.5091;
1152.9000;0.4965;0.5091;
1153.2000;0.4990;0.5163;
1153.5000;0.4998;0.5163;
1153.8000;0.4990;0.5067;
1154.1000;0.4998;0.5043;
1154.4000;0.4941;0.4923;
1154.7000;0.5014;0.5091;
1155.0000;0.5006;0.5043;
1155.3000;0.4990;0.4995;
1155.6000;0.5014;0.4995;
1155.9000;0.5006;0.4947;
1156.2000;0.4974;0.4875;
1156.5000;0.5047;0.5139;
1156.8000;0.4998;0.5043;
1157.1000;0.5006;0.5091;
1157.4000;0.5006;0.5043;
1157.7000;0.4990;0.5067;
1158.0000;0.4990;0.5019;
1158.3000;0.4998;0.4971;
1158.6000;0.5014;0.4971;
1158.9000;0.4998;0.4971;
1159.2000;0.4998;0.4923;
1159.5000;0.5006;0.4947;
1159.8000;0.5014;0.4971;
1160.1000;0.5006;0.4995;
1160.4000;0.4998;0.5067;
1160.7000;0.4998;0.5091;
1161.0000;0.4998;0.5067;
1161.3000;0.5006;0.5043;
1161.6000;0.5014;0.5019;
1161.9000;0.4998;0.5019;
1162.2000;0.5039;0.5139;
1162.5000;0.5014;0.5115;
1162.8000;0.5022;0.5067;
1163.1000;0.4990;0.5043;
1163.4000;0.4965;0.4971;
1163.7000;0.5006;0.5091;
1164.0000;0.5006;0.4995;
1164.3000;0.4990;0.4971;
1164.6000;0.4974;0.4899;
1164.9000;0.4998;0.4995;
1165.2000;0.4982;0.4995;
1165.5000;0.4998;0.4995;
1165.8000;0.5006;0.4947;
1166.1000;0.4957;0.4851;
1166.4000;0.5006;0.4971;
1166.7000;0.5006;0.4947;
1167.0000;0.4982;0.4851;
1167.3000;0.5014;0.4875;
1167.6000;0.4982;0.4803;
1167.9000;0.5014;0.4827;
1168.2000;0.5006;0.4755;
1168.5000;0.4998;0.4899;
1168.8000;0.4974;0.4803;
1169.1000;0.4998;0.4779;
1169.4000;0.5006;0.4875;
1169.7000;0.5014;0.4923;
1170.0000;0.5022;0.4947;
1170.3000;0.4982;0.4899;
1170.6000;0.5014;0.4899;
1170.9000;0.5006;0.4875;
1171.2000;0.5031;0.4995;
1171.5000;0.5022;0.4923;
1171.8000;0.5014;0.4923;
1172.1000;0.5039;0.5019;
1172.4000;0.5022;0.4899;
1172.7000;0.4957;0.4851;
1173.0000;0.5006;0.4995;
1173.3000;0.4998;0.4971;
1173.6000;0.5006;0.4971;
1173.9000;0.5022;0.4923;
1174.2000;0.4990;0.4875;
1174.5000;0.4974;0.4827;
1174.8000;0.5006;0.4923;
1175.1000;0.4974;0.4947;
1175.4000;0.5039;0.5163;
1175.7000;0.4998;0.5115;
1176.0000;0.4965;0.4995;
1176.3000;0.5006;0.5067;
1176.6000;0.5006;0.5043;
1176.9000;0.5006;0.5091;
1177.2000;0.5006;0.5019;
1177.5000;0.5022;0.5043;
1177.8000;0.5006;0.5067;
1178.1000;0.4990;0.5115;
1178.4000;0.5014;0.5139;
1178.7000;0.5014;0.5139;
1179.0000;0.5006;0.5139;
1179.3000;0.5006;0.5115;
1179.6000;0.4990;0.5091;
1179.9000;0.4982;0.4995;
1180.2000;0.5014;0.5019;
1180.5000;0.4998;0.4971;
1180.8000;0.5014;0.4995;
1181.1000;0.4998;0.5019;
1181.4000;0.4941;0.4875;
1181.7000;0.5006;0.5067;
1182.0000;0.4974;0.5067;
1182.3000;0.4998;0.5091;
1182.6000;0.5006;0.5091;
1182.9000;0.5006;0.5187;
1183.2000;0.4990;0.5043;
1183.5000;0.5006;0.4995;
1183.8000;0.5006;0.5067;
1184.1000;0.4982;0.4899;
1184.4000;0.4982;0.4803;
1184.7000;0.4990;0.4827;
1185.0000;0.5022;0.4971;
1185.3000;0.4990;0.4899;
1185.6000;0.5022;0.4995;
1185.9000;0.4990;0.4923;
1186.2000;0.5006;0.5043;
1186.5000;0.5014;0.5115;
1186.8000;0.5006;0.5115;
1187.1000;0.5022;0.5163;
1187.4000;0.4982;0.5139;
1187.7000;0.4998;0.5211;
1188.0000;0.4998;0.5115;
1188.3000;0.4982;0.5043;
1188.6000;0.5039;0.5139;
1188.9000;0.5006;0.5043;
1189.2000;0.5031;0.5043;
1189.5000;0.5006;0.5067;
1189.8000;0.5022;0.5043;
1190.1000;0.4990;0.4971;
1190.4000;0.4990;0.4971;
1190.7000;0.5006;0.5043;
1191.0000;0.4998;0.5019;
1191.3000;0.5006;0.5091;
1191.6000;0.5006;0.5043;
1191.9000;0.4982;0.4971;
1192.2000;0.4998;0.4995;
1192.5000;0.4998;0.5043;
1192.8000;0.4998;0.5091;
1193.1000;0.4998;0.5091;
1193.4000;0.5014;0.5091;
1193.7000;0.5014;0.5019;
1194.0000;0.4990;0.4947;
1194.3000;0.4965;0.5019;
1194.6000;0.4900;0.4803;
1194.9000;0.4982;0.4995;
1195.2000;0.4998;0.5067;
1195.5000;0.4998;0.5043;
1195.8000;0.5047;0.5163;
1196.1000;0.4982;0.4995;
1196.4000;0.5006;0.5091;
1196.7000;0.5006;0.5091;
1197.0000;0.5006;0.5067;
1197.3000;0.5022;0.4995;
1197.6000;0.4998;0.4923;
1197.9000;0.4990;0.4995;
1198.2000;0.5006;0.5067;
1198.5000;0.4982;0.5043;
1198.8000;0.5006;0.5115;
1199.1000;0.4998;0.5163;
1199.4000;0.4990;0.5115;
1199.7000;0.4990;0.5115;
1200.0000;0.4998;0.5067;
1200.3000;0.4998;0.4923;
1200.6000;0.5006;0.4875;
1200.9000;0.5006;0.4899;
1201.2000;0.4998;0.4827;
1201.5000;0.5022;0.4923;
1201.8000;0.5006;0.4851;
1202.1000;0.5022;0.4827;
1202.4000;0.5014;0.4899;
1202.7000;0.4998;0.4923;
1203.0000;0.4982;0.4923;
1203.3000;0.4917;0.4851;
1203.6000;0.4990;0.5091;
1203.9000;0.4998;0.5091;
1204.2000;0.4998;0.5139;
1204.5000;0.5006;0.5115;
1204.8000;0.5071;0.5259;
1205.1000;0.4998;0.5091;
1205.4000;0.5039;0.5235;
1205.7000;0.4990;0.5115;
1206.0000;0.5039;0.5187;
1206.3000;0.5006;0.5019;
1206.6000;0.5096;0.5283;
1206.9000;0.5014;0.5019;
1207.2000;0.5022;0.5067;
1207.5000;0.5022;0.5139;
1207.8000;0.5014;0.5091;
1208.1000;0.5006;0.5115;
1208.4000;0.5014;0.5067;
1208.7000;0.5014;0.5067;
1209.0000;0.4990;0.5091;
1209.3000;0.4965;0.5115;
1209.6000;0.4998;0.5091;
1209.9000;0.4998;0.5091;
1210.2000;0.4982;0.5043;
1210.5000;0.5014;0.5091;
1210.8000;0.4998;0.5091;
1211.1000;0.4990;0.5019;
1211.4000;0.4982;0.4971;
1211.7000;0.4982;0.4995;
1212.0000;0.4982;0.5091;
1212.3000;0.5006;0.5067;
1212.6000;0.4998;0.5043;
1212.9000;0.4990;0.5115;
1213.2000;0.4990;0.5139;
1213.5000;0.4990;0.5211;
1213.8000;0.4982;0.5235;
1214.1000;0.4990;0.5187;
1214.4000;0.4998;0.5163;
1214.7000;0.5022;0.5211;
1215.0000;0.4990;0.5091;
1215.3000;0.4998;0.4971;
1215.6000;0.4941;0.4803;
1215.9000;0.4998;0.4923;
1216.2000;0.5014;0.4971;
1216.5000;0.5006;0.4995;
1216.8000;0.5006;0.4899;
1217.1000;0.5014;0.4995;
1217.4000;0.4998;0.4971;
1217.7000;0.4998;0.4899;
1218.0000;0.5014;0.4899;
1218.3000;0.5006;0.4947;
1218.6000;0.4990;0.4923;
1218.9000;0.4998;0.4971;
1219.2000;0.5006;0.4971;
1219.5000;0.5014;0.4947;
1219.8000;0.4990;0.4875;
1220.1000;0.4998;0.4875;
1220.4000;0.4982;0.4755;
1220.7000;0.4982;0.4827;
1221.0000;0.4998;0.4851;
1221.3000;0.4998;0.4851;
1221.6000;0.4982;0.4779;
1221.9000;0.4974;0.4731;
1222.2000;0.4998;0.4851;
1222.5000;0.4974;0.4803;
1222.8000;0.5006;0.4851;
1223.1000;0.4990;0.4851;
1223.4000;0.5006;0.4947;
1223.7000;0.4998;0.4971;
1224.0000;0.5031;0.4947;
1224.3000;0.5031;0.5019;
1224.6000;0.4990;0.4899;
1224.9000;0.5014;0.4947;
1225.2000;0.4998;0.4899;
1225.5000;0.4990;0.4899;
1225.8000;0.4974;0.4875;
1226.1000;0.4998;0.4923;
1226.4000;0.5047;0.5019;
1226.7000;0.4990;0.4923;
1227.0000;0.4933;0.4707;
1227.3000;0.5022;0.4875;
1227.6000;0.4998;0.4923;
1227.9000;0.5063;0.5091;
1228.2000;0.4998;0.4875;
1228.5000;0.4974;0.4803;
1228.8000;0.4957;0.4755;
1229.1000;0.4990;0.4875;
1229.4000;0.5063;0.5019;
1229.7000;0.4982;0.4923;
1230.0000;0.4974;0.4947;
1230.3000;0.4982;0.4971;
1230.6000;0.4982;0.4947;
1230.9000;0.4982;0.4971;
1231.2000;0.4990;0.4995;
1231.5000;0.4998;0.5067;
1231.8000;0.4990;0.5115;
1232.1000;0.5006;0.5067;
1232.4000;0.4998;0.4995;
1232.7000;0.4998;0.5019;
1233.0000;0.4982;0.4995;
1233.3000;0.4982;0.5067;
1233.6000;0.5014;0.5139;
1233.9000;0.4990;0.5139;
1234.2000;0.4990;0.5139;
1234.5000;0.4990;0.5067;
1234.8000;0.4998;0.5067;
1235.1000;0.4900;0.4851;
1235.4000;0.4998;0.5067;
1235.7000;0.4998;0.5067;
1236.0000;0.4998;0.5019;
1236.3000;0.5039;0.5163;
1236.6000;0.4990;0.5019;
1236.9000;0.4990;0.4971;
1237.2000;0.5006;0.5043;
1237.5000;0.4982;0.4923;
1237.8000;0.4949;0.4851;
1238.1000;0.4974;0.4995;
1238.4000;0.5014;0.5115;
1238.7000;0.5014;0.5091;
1239.0000;0.4998;0.4995;
1239.3000;0.4982;0.4971;
1239.6000;0.4998;0.4995;
1239.9000;0.4957;0.4899;
1240.2000;0.5006;0.4995;
1240.5000;0.4965;0.5043;
1240.8000;0.5014;0.5187;
1241.1000;0.5006;0.5115;
1241.4000;0.5006;0.5115;
1241.7000;0.5006;0.5091;
1242.0000;0.4998;0.5163;
1242.3000;0.5014;0.5187;
1242.6000;0.4974;0.5115;
1242.9000;0.4957;0.5067;
1243.2000;0.4990;0.5091;
1243.5000;0.5014;0.5139;
1243.8000;0.4998;0.5067;
1244.1000;0.4982;0.4995;
1244.4000;0.4974;0.4971;
1244.7000;0.4990;0.4995;
1245.0000;0.4998;0.4947;
1245.3000;0.4998;0.4971;
1245.6000;0.5006;0.5043;
1245.9000;0.5014;0.5019;
1246.2000;0.4925;0.4779;
1246.5000;0.4998;0.4971;
1246.8000;0.4990;0.5067;
1247.1000;0.4982;0.5067;
1247.4000;0.4974;0.5043;
1247.7000;0.4982;0.5163;
1248.0000;0.4974;0.5115;
1248.3000;0.4974;0.5115;
1248.6000;0.4974;0.5187;
1248.9000;0.5022;0.5307;
1249.2000;0.4982;0.5187;
1249.5000;0.4998;0.5211;
1249.8000;0.4998;0.5115;
1250.1000;0.4990;0.5091;
1250.4000;0.4990;0.5139;
1250.7000;0.4998;0.5067;
1251.0000;0.4990;0.4995;
1251.3000;0.4990;0.5043;
1251.6000;0.4990;0.5091;
1251.9000;0.4974;0.5019;
1252.2000;0.4998;0.5067;
1252.5000;0.5006;0.5091;
1252.8000;0.5006;0.5115;
1253.1000;0.5006;0.5115;
1253.4000;0.4998;0.5115;
1253.7000;0.4990;0.5067;
1254.0000;0.4998;0.5115;
1254.3000;0.5006;0.5139;
1254.6000;0.4998;0.5091;
1254.9000;0.5006;0.5067;
1255.2000;0.5006;0.5019;
1255.5000;0.5014;0.4995;
1255.8000;0.4998;0.4971;
1256.1000;0.5006;0.5043;
1256.4000;0.4998;0.5067;
1256.7000;0.5063;0.5187;
1257.0000;0.4998;0.4947;
1257.3000;0.5022;0.5043;
1257.6000;0.4998;0.4947;
1257.9000;0.4998;0.5043;
1258.2000;0.4998;0.4995;
1258.5000;0.4941;0.4899;
1258.8000;0.5014;0.5091;
1259.1000;0.5006;0.5139;
1259.4000;0.4990;0.5115;
1259.7000;0.4965;0.4971;
1260.0000;0.4998;0.5067;
1260.3000;0.4990;0.5043;
1260.6000;0.4990;0.5019;
1260.9000;0.4998;0.4995;
1261.2000;0.4974;0.4899;
1261.5000;0.4974;0.4971;
1261.8000;0.4998;0.4995;
1262.1000;0.4998;0.5043;
1262.4000;0.4974;0.5115;
1262.7000;0.5006;0.5091;
1263.0000;0.5006;0.5163;
1263.3000;0.4990;0.5139;
1263.6000;0.4982;0.5091;
1263.9000;0.4998;0.5115;
1264.2000;0.5022;0.5115;
1264.5000;0.5006;0.5043;
1264.8000;0.5014;0.5091;
1265.1000;0.4998;0.4995;
1265.4000;0.4990;0.4947;
1265.7000;0.4974;0.4995;
1266.0000;0.5039;0.5115;
1266.3000;0.4982;0.4971;
1266.6000;0.5006;0.5067;
1266.9000;0.4949;0.5043;
1267.2000;0.4974;0.5067;
1267.5000;0.4990;0.5091;
1267.8000;0.4982;0.5019;
1268.1000;0.4908;0.4875;
1268.4000;0.5031;0.5115;
1268.7000;0.4965;0.4947;
1269.0000;0.4990;0.5043;
1269.3000;0.4998;0.5019;
1269.6000;0.4990;0.4995;
1269.9000;0.4990;0.5019;
1270.2000;0.5006;0.5067;
1270.5000;0.5006;0.5067;
1270.8000;0.4990;0.5043;
1271.1000;0.4982;0.5067;
1271.4000;0.5055;0.5187;
1271.7000;0.4998;0.4995;
1272.0000;0.4982;0.4923;
1272.3000;0.5014;0.5115;
1272.6000;0.4982;0.5019;
1272.9000;0.4982;0.4995;
1273.2000;0.5014;0.4995;
1273.5000;0.4998;0.4947;
1273.8000;0.4957;0.4827;
1274.1000;0.4982;0.4851;
1274.4000;0.4982;0.4779;
1274.7000;0.5006;0.4851;
1275.0000;0.4990;0.4899;
1275.3000;0.4990;0.4923;
1275.6000;0.4990;0.4875;
1275.9000;0.4998;0.4947;
1276.2000;0.4990;0.4827;
1276.5000;0.4990;0.4803;
1276.8000;0.5014;0.4899;
1277.1000;0.5014;0.4827;
1277.4000;0.4982;0.4707;
1277.7000;0.4998;0.4683;
1278.0000;0.4998;0.4779;
1278.3000;0.5006;0.4707;
1278.6000;0.4990;0.4707;
1278.9000;0.5006;0.4779;
1279.2000;0.5006;0.4731;
1279.5000;0.5006;0.4827;
1279.8000;0.4998;0.4779;
1280.1000;0.5063;0.4947;
1280.4000;0.4990;0.4659;
1280.7000;0.4974;0.4683;
1281.0000;0.4974;0.4659;
1281.3000;0.4998;0.4731;
1281.6000;0.4990;0.4755;
1281.9000;0.4990;0.4827;
1282.2000;0.5006;0.4827;
1282.5000;0.5022;0.4851;
1282.8000;0.4990;0.4779;
1283.1000;0.4974;0.4779;
1283.4000;0.4974;0.4827;
1283.7000;0.4982;0.4947;
1284.0000;0.4974;0.4947;
1284.3000;0.4998;0.4899;
1284.6000;0.4957;0.4803;
1284.9000;0.4990;0.4875;
1285.2000;0.4998;0.4899;
1285.5000;0.4982;0.4923;
1285.8000;0.4982;0.4899;
1286.1000;0.4957;0.4827;
1286.4000;0.4990;0.4851;
1286.7000;0.5014;0.4875;
1287.0000;0.4990;0.4899;
1287.3000;0.5014;0.4923;
1287.6000;0.4990;0.4827;
1287.9000;0.5022;0.4875;
1288.2000;0.4982;0.4779;
1288.5000;0.4998;0.4827;
1288.8000;0.4982;0.4827;
1289.1000;0.4990;0.4779;
1289.4000;0.4998;0.4803;
1289.7000;0.4990;0.4755;
1290.0000;0.5022;0.4875;
1290.3000;0.4925;0.4610;
1290.6000;0.4982;0.4827;
1290.9000;0.4957;0.4827;
1291.2000;0.4990;0.4899;
1291.5000;0.4965;0.4803;
1291.8000;0.5006;0.4923;
1292.1000;0.4941;0.4755;
1292.4000;0.4990;0.4827;
1292.7000;0.4998;0.4899;
1293.0000;0.4990;0.4827;
1293.3000;0.4957;0.4803;
1293.6000;0.4990;0.4899;
1293.9000;0.5006;0.4875;
1294.2000;0.4990;0.4803;
1294.5000;0.4982;0.4779;
1294.8000;0.4990;0.4851;
1295.1000;0.4982;0.4851;
1295.4000;0.4990;0.4875;
1295.7000;0.4998;0.4971;
1296.0000;0.4990;0.4899;
1296.3000;0.5014;0.4947;
1296.6000;0.4982;0.4851;
1296.9000;0.5055;0.4971;
1297.2000;0.4965;0.4803;
1297.5000;0.4990;0.4875;
1297.8000;0.4974;0.4875;
1298.1000;0.4990;0.4971;
1298.4000;0.4974;0.4995;
1298.7000;0.4998;0.4971;
1299.0000;0.4990;0.4971;
1299.3000;0.4990;0.4851;
1299.6000;0.5006;0.4851;
1299.9000;0.5006;0.4851;
1300.2000;0.4990;0.4851;
1300.5000;0.4982;0.4923;
1300.8000;0.4982;0.4947;
1301.1000;0.4998;0.4995;
1301.4000;0.4998;0.4971;
1301.7000;0.4974;0.4947;
1302.0000;0.4998;0.4899;
1302.3000;0.4998;0.4875;
1302.6000;0.4998;0.4899;
1302.9000;0.4982;0.4899;
1303.2000;0.4990;0.4851;
1303.5000;0.4998;0.4875;
1303.8000;0.4974;0.4851;
1304.1000;0.4990;0.4947;
1304.4000;0.4982;0.4971;
1304.7000;0.4974;0.4971;
1305.0000;0.4982;0.4947;
1305.3000;0.4908;0.4707;
1305.6000;0.5006;0.4923;
1305.9000;0.4998;0.4947;
1306.2000;0.4990;0.4995;
1306.5000;0.4982;0.4971;
1306.8000;0.5006;0.4947;
1307.1000;0.4990;0.4947;
1307.4000;0.5006;0.5019;
1307.7000;0.5006;0.5019;
1308.0000;0.4982;0.4875;
1308.3000;0.4982;0.4779;
1308.6000;0.4998;0.4851;
1308.9000;0.4998;0.4827;
1309.2000;0.4868;0.4586;
1309.5000;0.4998;0.4923;
1309.8000;0.4998;0.4899;
1310.1000;0.4990;0.4899;
1310.4000;0.4982;0.4827;
1310.7000;0.5039;0.5043;
1311.0000;0.4974;0.4851;
1311.3000;0.4990;0.4875;
1311.6000;0.4974;0.4947;
1311.9000;0.4982;0.4971;
1312.2000;0.4990;0.4995;
1312.5000;0.4982;0.4995;
1312.8000;0.4998;0.5043;
1313.1000;0.4998;0.5043;
1313.4000;0.5006;0.5115;
1313.7000;0.4957;0.4995;
1314.0000;0.4982;0.5115;
1314.3000;0.5006;0.5019;
1314.6000;0.4982;0.5019;
1314.9000;0.4990;0.5019;
1315.2000;0.4998;0.4995;
1315.5000;0.4974;0.4899;
1315.8000;0.4998;0.4923;
1316.1000;0.4974;0.4851;
1316.4000;0.4990;0.4947;
1316.7000;0.4998;0.4899;
1317.0000;0.4957;0.4875;
1317.3000;0.4982;0.4899;
1317.6000;0.4998;0.4971;
1317.9000;0.4998;0.4971;
1318.2000;0.4974;0.4923;
1318.5000;0.4990;0.4995;
1318.8000;0.5006;0.5043;
1319.1000;0.4998;0.4971;
1319.4000;0.4998;0.4923;
1319.7000;0.4990;0.4803;
1320.0000;0.4982;0.4755;
1320.3000;0.4998;0.4899;
1320.6000;0.4974;0.4875;
1320.9000;0.4974;0.4779;
1321.2000;0.4982;0.4827;
1321.5000;0.4990;0.4875;
1321.8000;0.5079;0.5067;
1322.1000;0.4998;0.4803;
1322.4000;0.4990;0.4779;
1322.7000;0.4990;0.4803;
1323.0000;0.4990;0.4731;
1323.3000;0.4990;0.4683;
1323.6000;0.4990;0.4755;
1323.9000;0.4990;0.4755;
1324.2000;0.4974;0.4779;
1324.5000;0.4998;0.4827;
1324.8000;0.4990;0.4803;
1325.1000;0.4982;0.4875;
1325.4000;0.4990;0.4923;
1325.7000;0.4974;0.4875;
1326.0000;0.4982;0.4803;
1326.3000;0.4965;0.4755;
1326.6000;0.4982;0.4731;
1326.9000;0.5014;0.4755;
1327.2000;0.4982;0.4731;
1327.5000;0.4990;0.4731;
1327.8000;0.4982;0.4683;
1328.1000;0.4998;0.4827;
1328.4000;0.4990;0.4899;
1328.7000;0.4990;0.5019;
1329.0000;0.5006;0.4995;
1329.3000;0.4974;0.4971;
1329.6000;0.4974;0.5091;
1329.9000;0.4990;0.5139;
1330.2000;0.4998;0.5091;
1330.5000;0.4998;0.4971;
1330.8000;0.4998;0.4875;
1331.1000;0.4982;0.4827;
1331.4000;0.4974;0.4803;
1331.7000;0.4990;0.4755;
1332.0000;0.4990;0.4803;
1332.3000;0.4974;0.4779;
1332.6000;0.4990;0.4899;
1332.9000;0.4998;0.4899;
1333.2000;0.5006;0.4995;
1333.5000;0.5006;0.4899;
1333.8000;0.4974;0.4923;
1334.1000;0.4998;0.4995;
1334.4000;0.4990;0.4947;
1334.7000;0.5006;0.4995;
1335.0000;0.4982;0.5043;
1335.3000;0.4998;0.5019;
1335.6000;0.5006;0.5043;
1335.9000;0.5006;0.5043;
1336.2000;0.4957;0.4923;
1336.5000;0.4990;0.4923;
1336.8000;0.4998;0.5043;
1337.1000;0.4982;0.5019;
1337.4000;0.5022;0.4995;
1337.7000;0.4990;0.4851;
1338.0000;0.4998;0.4923;
1338.3000;0.4998;0.4851;
1338.6000;0.4982;0.4875;
1338.9000;0.4998;0.4899;
1339.2000;0.4998;0.4947;
1339.5000;0.5006;0.5043;
1339.8000;0.5006;0.5091;
1340.1000;0.4974;0.5139;
1340.4000;0.4925;0.5043;
1340.7000;0.4990;0.5187;
1341.0000;0.5006;0.5139;
1341.3000;0.4974;0.5091;
1341.6000;0.4990;0.5211;
1341.9000;0.4965;0.5163;
1342.2000;0.4998;0.5235;
1342.5000;0.4974;0.5139;
1342.8000;0.4965;0.5067;
1343.1000;0.4998;0.5187;
1343.4000;0.4998;0.5091;
1343.7000;0.4957;0.5019;
1344.0000;0.4990;0.5139;
1344.3000;0.4998;0.5139;
1344.6000;0.4982;0.5067;
1344.9000;0.4990;0.5139;
1345.2000;0.4982;0.5019;
1345.5000;0.4990;0.4995;
1345.8000;0.4990;0.5043;
1346.1000;0.4982;0.4995;
1346.4000;0.4998;0.4947;
1346.7000;0.4990;0.4947;
1347.0000;0.4990;0.4995;
1347.3000;0.4990;0.4995;
1347.6000;0.4982;0.4947;
1347.9000;0.5014;0.5043;
1348.2000;0.4998;0.4995;
1348.5000;0.4998;0.5019;
1348.8000;0.4974;0.5019;
1349.1000;0.4990;0.4971;
1349.4000;0.5006;0.4995;
1349.7000;0.4998;0.4923;
1350.0000;0.4982;0.4899;
1350.3000;0.4982;0.4827;
1350.6000;0.4990;0.4779;
1350.9000;0.5006;0.4803;
1351.2000;0.4990;0.4755;
1351.5000;0.4949;0.4659;
1351.8000;0.4990;0.4755;
1352.1000;0.5022;0.4875;
1352.4000;0.4998;0.4899;
1352.7000;0.4949;0.4827;
1353.0000;0.4982;0.4875;
1353.3000;0.5006;0.4923;
1353.6000;0.5006;0.5019;
1353.9000;0.4990;0.4971;
1354.2000;0.5022;0.5187;
1354.5000;0.4990;0.5163;
1354.8000;0.4990;0.5091;
1355.1000;0.4982;0.5067;
1355.4000;0.4990;0.5091;
1355.7000;0.4990;0.5091;
1356.0000;0.4990;0.5091;
1356.3000;0.4982;0.5091;
1356.6000;0.4957;0.4971;
1356.9000;0.4982;0.4923;
1357.2000;0.4982;0.4851;
1357.5000;0.4982;0.4875;
1357.8000;0.4974;0.4851;
1358.1000;0.4982;0.4875;
1358.4000;0.4998;0.4851;
1358.7000;0.4982;0.4851;
1359.0000;0.4990;0.4875;
1359.3000;0.4998;0.4923;
1359.6000;0.4998;0.4971;
1359.9000;0.4998;0.4995;
1360.2000;0.4990;0.5043;
1360.5000;0.4957;0.5043;
1360.8000;0.4990;0.5115;
1361.1000;0.4982;0.5091;
1361.4000;0.4982;0.5091;
1361.7000;0.5014;0.5211;
1362.0000;0.4998;0.5187;
1362.3000;0.5006;0.5211;
1362.6000;0.5022;0.5259;
1362.9000;0.4982;0.5019;
1363.2000;0.4998;0.4995;
1363.5000;0.4990;0.4947;
1363.8000;0.4990;0.4899;
1364.1000;0.4990;0.4947;
1364.4000;0.4998;0.5067;
1364.7000;0.5006;0.5115;
1365.0000;0.4990;0.5115;
1365.3000;0.4982;0.5139;
1365.6000;0.4990;0.5115;
1365.9000;0.4982;0.5115;
1366.2000;0.4982;0.5019;
1366.5000;0.4974;0.5019;
1366.8000;0.4990;0.5043;
1367.1000;0.4982;0.5043;
1367.4000;0.4990;0.5019;
1367.7000;0.4998;0.5043;
1368.0000;0.4990;0.4995;
1368.3000;0.4990;0.5091;
1368.6000;0.4982;0.5067;
1368.9000;0.5006;0.5139;
1369.2000;0.4982;0.5019;
1369.5000;0.4982;0.5115;
1369.8000;0.4990;0.5067;
1370.1000;0.5006;0.5091;
1370.4000;0.4982;0.5067;
1370.7000;0.5022;0.5091;
1371.0000;0.4990;0.5019;
1371.3000;0.5014;0.5019;
1371.6000;0.5014;0.5067;
1371.9000;0.4990;0.4971;
1372.2000;0.4982;0.4947;
1372.5000;0.4982;0.4995;
1372.8000;0.4957;0.4947;
1373.1000;0.4982;0.4923;
1373.4000;0.4990;0.4947;
1373.7000;0.4998;0.4923;
1374.0000;0.4982;0.4899;
1374.3000;0.5022;0.5019;
1374.6000;0.4982;0.5019;
1374.9000;0.4982;0.5019;
1375.2000;0.4998;0.5163;
1375.5000;0.4998;0.5115;
1375.8000;0.4998;0.5019;
1376.1000;0.4957;0.4947;
1376.4000;0.4982;0.4971;
1376.7000;0.4974;0.4923;
1377.0000;0.4982;0.4947;
1377.3000;0.4974;0.4923;
1377.6000;0.4990;0.4923;
1377.9000;0.5006;0.4995;
1378.2000;0.4998;0.4947;
1378.5000;0.4990;0.4971;
1378.8000;0.5006;0.4971;
1379.1000;0.4974;0.4875;
1379.4000;0.5006;0.4875;
1379.7000;0.5014;0.4899;
1380.0000;0.4998;0.4947;
1380.3000;0.5006;0.5067;
1380.6000;0.4990;0.5163;
1380.9000;0.4974;0.5115;
1381.2000;0.4998;0.5187;
1381.5000;0.4998;0.5211;
1381.8000;0.4990;0.5187;
1382.1000;0.4965;0.5115;
1382.4000;0.4998;0.5187;
1382.7000;0.5055;0.5307;
1383.0000;0.5088;0.5379;
1383.3000;0.4965;0.5091;
1383.6000;0.4990;0.5139;
1383.9000;0.4982;0.5259;
1384.2000;0.4974;0.5235;
1384.5000;0.4974;0.5259;
1384.8000;0.4982;0.5235;
1385.1000;0.4998;0.5307;
1385.4000;0.4982;0.5259;
1385.7000;0.4974;0.5259;
1386.0000;0.4990;0.5259;
1386.3000;0.4998;0.5211;
1386.6000;0.4990;0.5163;
1386.9000;0.4990;0.5163;
1387.2000;0.4974;0.5211;
1387.5000;0.4974;0.5211;
1387.8000;0.4998;0.5187;
1388.1000;0.4982;0.5067;
1388.4000;0.4982;0.5043;
1388.7000;0.4982;0.5019;
1389.0000;0.4990;0.5067;
1389.3000;0.4965;0.4995;
1389.6000;0.4998;0.5067;
1389.9000;0.4982;0.4995;
1390.2000;0.4974;0.4971;
1390.5000;0.4974;0.5019;
1390.8000;0.4974;0.5067;
1391.1000;0.4990;0.5067;
1391.4000;0.4974;0.5043;
1391.7000;0.4990;0.5019;
1392.0000;0.4990;0.5067;
1392.3000;0.4990;0.5067;
1392.6000;0.4982;0.5067;
1392.9000;0.4990;0.5019;
1393.2000;0.4990;0.4995;
1393.5000;0.4982;0.5019;
1393.8000;0.4957;0.4899;
1394.1000;0.4974;0.4875;
1394.4000;0.4974;0.4947;
1394.7000;0.4990;0.4995;
1395.0000;0.4990;0.5043;
1395.3000;0.4998;0.5139;
1395.6000;0.4990;0.5115;
1395.9000;0.4974;0.5091;
1396.2000;0.4998;0.5091;
1396.5000;0.4974;0.4995;
1396.8000;0.4982;0.4995;
1397.1000;0.4965;0.4899;
1397.4000;0.5006;0.4971;
1397.7000;0.4998;0.4947;
1398.0000;0.4990;0.4923;
1398.3000;0.5006;0.5019;
1398.6000;0.4998;0.5043;
1398.9000;0.4982;0.4995;
1399.2000;0.4990;0.4971;
1399.5000;0.4998;0.5019;
1399.8000;0.4974;0.4995;
