time/ms;Fluo/V;P700 deltaI/I x10³;
-199.8000;0.6162;0.3050;
-199.5000;0.6186;0.3026;
-199.2000;0.6154;0.2882;
-198.9000;0.6162;0.2834;
-198.6000;0.6162;0.2810;
-198.3000;0.6162;0.2834;
-198.0000;0.6162;0.2882;
-197.7000;0.6154;0.2858;
-197.4000;0.6154;0.2882;
-197.1000;0.6154;0.2834;
-196.8000;0.6170;0.2858;
-196.5000;0.6154;0.2858;
-196.2000;0.6162;0.2906;
-195.9000;0.6146;0.2906;
-195.6000;0.6089;0.2713;
-195.3000;0.6081;0.2665;
-195.0000;0.6146;0.2761;
-194.7000;0.6146;0.2713;
-194.4000;0.6162;0.2713;
-194.1000;0.6162;0.2689;
-193.8000;0.6154;0.2689;
-193.5000;0.6129;0.2521;
-193.2000;0.6170;0.2665;
-192.9000;0.6154;0.2617;
-192.6000;0.6154;0.2641;
-192.3000;0.6146;0.2641;
-192.0000;0.6162;0.2689;
-191.7000;0.6178;0.2858;
-191.4000;0.6162;0.2858;
-191.1000;0.6219;0.3002;
-190.8000;0.6162;0.2906;
-190.5000;0.6170;0.2858;
-190.2000;0.6154;0.2785;
-189.9000;0.6146;0.2810;
-189.6000;0.6178;0.2858;
-189.3000;0.6138;0.2858;
-189.0000;0.6178;0.2906;
-188.7000;0.6129;0.2858;
-188.4000;0.6211;0.3122;
-188.1000;0.6178;0.3002;
-187.8000;0.6170;0.2978;
-187.5000;0.6121;0.2785;
-187.2000;0.6138;0.2810;
-186.9000;0.6138;0.2882;
-186.6000;0.6146;0.2930;
-186.3000;0.6121;0.2834;
-186.0000;0.6146;0.2930;
-185.7000;0.6170;0.2954;
-185.4000;0.6162;0.2930;
-185.1000;0.6146;0.2882;
-184.8000;0.6162;0.2810;
-184.5000;0.6170;0.2761;
-184.2000;0.6138;0.2689;
-183.9000;0.6154;0.2834;
-183.6000;0.6154;0.2810;
-183.3000;0.6170;0.2882;
-183.0000;0.6170;0.2930;
-182.7000;0.6138;0.2810;
-182.4000;0.6146;0.2834;
-182.1000;0.6170;0.2954;
-181.8000;0.6178;0.3002;
-181.5000;0.6162;0.2930;
-181.2000;0.6162;0.2978;
-180.9000;0.6154;0.2954;
-180.6000;0.6170;0.2882;
-180.3000;0.6170;0.2810;
-180.0000;0.6138;0.2689;
-179.7000;0.6154;0.2713;
-179.4000;0.6146;0.2737;
-179.1000;0.6170;0.2834;
-178.8000;0.6162;0.2882;
-178.5000;0.6129;0.2761;
-178.2000;0.6162;0.2882;
-177.9000;0.6186;0.2954;
-177.6000;0.6154;0.2834;
-177.3000;0.6243;0.3026;
-177.0000;0.6154;0.2834;
-176.7000;0.6154;0.2785;
-176.4000;0.6170;0.2737;
-176.1000;0.6138;0.2713;
-175.8000;0.6154;0.2761;
-175.5000;0.6146;0.2761;
-175.2000;0.6146;0.2713;
-174.9000;0.6146;0.2689;
-174.6000;0.6162;0.2665;
-174.3000;0.6121;0.2569;
-174.0000;0.6154;0.2665;
-173.7000;0.6138;0.2689;
-173.4000;0.6227;0.2858;
-173.1000;0.6162;0.2641;
-172.8000;0.6162;0.2689;
-172.5000;0.6154;0.2713;
-172.2000;0.6154;0.2617;
-171.9000;0.6146;0.2617;
-171.6000;0.6138;0.2737;
-171.3000;0.6146;0.2761;
-171.0000;0.6162;0.2810;
-170.7000;0.6154;0.2810;
-170.4000;0.6129;0.2761;
-170.1000;0.6195;0.2810;
-169.8000;0.6162;0.2810;
-169.5000;0.6138;0.2810;
-169.2000;0.6121;0.2737;
-168.9000;0.6146;0.2882;
-168.6000;0.6162;0.2834;
-168.3000;0.6170;0.2906;
-168.0000;0.6138;0.2834;
-167.7000;0.6162;0.2785;
-167.4000;0.6138;0.2785;
-167.1000;0.6146;0.2761;
-166.8000;0.6138;0.2689;
-166.5000;0.6154;0.2761;
-166.2000;0.6154;0.2737;
-165.9000;0.6162;0.2810;
-165.6000;0.6146;0.2713;
-165.3000;0.6154;0.2689;
-165.0000;0.6146;0.2641;
-164.7000;0.6162;0.2761;
-164.4000;0.6146;0.2737;
-164.1000;0.6146;0.2761;
-163.8000;0.6146;0.2737;
-163.5000;0.6138;0.2665;
-163.2000;0.6146;0.2737;
-162.9000;0.6129;0.2834;
-162.6000;0.6129;0.2810;
-162.3000;0.6056;0.2713;
-162.0000;0.6113;0.2954;
-161.7000;0.6146;0.3026;
-161.4000;0.6146;0.3122;
-161.1000;0.6170;0.3122;
-160.8000;0.6138;0.2978;
-160.5000;0.6170;0.2978;
-160.2000;0.6105;0.2785;
-159.9000;0.6121;0.2737;
-159.6000;0.6162;0.2834;
-159.3000;0.6162;0.2810;
-159.0000;0.6195;0.2834;
-158.7000;0.6178;0.2737;
-158.4000;0.6146;0.2737;
-158.1000;0.6146;0.2834;
-157.8000;0.6162;0.2858;
-157.5000;0.6146;0.2906;
-157.2000;0.6178;0.2954;
-156.9000;0.6154;0.2930;
-156.6000;0.6146;0.2954;
-156.3000;0.6146;0.2954;
-156.0000;0.6146;0.2906;
-155.7000;0.6154;0.2858;
-155.4000;0.6138;0.2785;
-155.1000;0.6154;0.2810;
-154.8000;0.6146;0.2737;
-154.5000;0.6154;0.2713;
-154.2000;0.6138;0.2545;
-153.9000;0.6138;0.2521;
-153.6000;0.6105;0.2473;
-153.3000;0.6154;0.2641;
-153.0000;0.6178;0.2665;
-152.7000;0.6162;0.2641;
-152.4000;0.6162;0.2641;
-152.1000;0.6138;0.2593;
-151.8000;0.6154;0.2689;
-151.5000;0.6154;0.2617;
-151.2000;0.6219;0.2737;
-150.9000;0.6154;0.2593;
-150.6000;0.6138;0.2545;
-150.3000;0.6146;0.2617;
-150.0000;0.6146;0.2641;
-149.7000;0.6162;0.2641;
-149.4000;0.6146;0.2569;
-149.1000;0.6064;0.2329;
-148.8000;0.6146;0.2593;
-148.5000;0.6146;0.2569;
-148.2000;0.6154;0.2617;
-147.9000;0.6146;0.2641;
-147.6000;0.6162;0.2665;
-147.3000;0.6162;0.2737;
-147.0000;0.6154;0.2810;
-146.7000;0.6154;0.2810;
-146.4000;0.6146;0.2737;
-146.1000;0.6146;0.2737;
-145.8000;0.6146;0.2737;
-145.5000;0.6121;0.2665;
-145.2000;0.6162;0.2641;
-144.9000;0.6154;0.2617;
-144.6000;0.6146;0.2641;
-144.3000;0.6178;0.2713;
-144.0000;0.6154;0.2665;
-143.7000;0.6146;0.2689;
-143.4000;0.6162;0.2761;
-143.1000;0.6162;0.2665;
-142.8000;0.6154;0.2689;
-142.5000;0.6162;0.2689;
-142.2000;0.6146;0.2641;
-141.9000;0.6170;0.2617;
-141.6000;0.6162;0.2593;
-141.3000;0.6138;0.2593;
-141.0000;0.6146;0.2593;
-140.7000;0.6162;0.2665;
-140.4000;0.6154;0.2617;
-140.1000;0.6138;0.2569;
-139.8000;0.6146;0.2617;
-139.5000;0.6154;0.2569;
-139.2000;0.6154;0.2545;
-138.9000;0.6162;0.2641;
-138.6000;0.6154;0.2617;
-138.3000;0.6138;0.2569;
-138.0000;0.6138;0.2545;
-137.7000;0.6138;0.2497;
-137.4000;0.6154;0.2545;
-137.1000;0.6154;0.2569;
-136.8000;0.6162;0.2641;
-136.5000;0.6154;0.2569;
-136.2000;0.6146;0.2569;
-135.9000;0.6154;0.2689;
-135.6000;0.6170;0.2785;
-135.3000;0.6129;0.2761;
-135.0000;0.6186;0.2906;
-134.7000;0.6170;0.2882;
-134.4000;0.6113;0.2785;
-134.1000;0.6260;0.3170;
-133.8000;0.6154;0.2810;
-133.5000;0.6154;0.2810;
-133.2000;0.6162;0.2810;
-132.9000;0.6154;0.2810;
-132.6000;0.6138;0.2785;
-132.3000;0.6146;0.2810;
-132.0000;0.6162;0.2834;
-131.7000;0.6162;0.2810;
-131.4000;0.6138;0.2689;
-131.1000;0.6154;0.2665;
-130.8000;0.6121;0.2569;
-130.5000;0.6162;0.2641;
-130.2000;0.6170;0.2593;
-129.9000;0.6154;0.2473;
-129.6000;0.6154;0.2401;
-129.3000;0.6146;0.2449;
-129.0000;0.6138;0.2521;
-128.7000;0.6146;0.2545;
-128.4000;0.6146;0.2569;
-128.1000;0.6121;0.2545;
-127.8000;0.6146;0.2737;
-127.5000;0.6203;0.2858;
-127.2000;0.6064;0.2521;
-126.9000;0.6154;0.2810;
-126.6000;0.6081;0.2665;
-126.3000;0.6154;0.2810;
-126.0000;0.6105;0.2713;
-125.7000;0.6162;0.2882;
-125.4000;0.6154;0.2834;
-125.1000;0.6129;0.2737;
-124.8000;0.6154;0.2785;
-124.5000;0.6146;0.2834;
-124.2000;0.6138;0.2834;
-123.9000;0.6138;0.2810;
-123.6000;0.6146;0.2858;
-123.3000;0.6146;0.2954;
-123.0000;0.6154;0.2978;
-122.7000;0.6178;0.3098;
-122.4000;0.6170;0.2978;
-122.1000;0.6146;0.3002;
-121.8000;0.6154;0.2978;
-121.5000;0.6129;0.2930;
-121.2000;0.6154;0.2930;
-120.9000;0.6089;0.2617;
-120.6000;0.6154;0.2713;
-120.3000;0.6162;0.2713;
-120.0000;0.6138;0.2689;
-119.7000;0.6162;0.2810;
-119.4000;0.6146;0.2761;
-119.1000;0.6162;0.2737;
-118.8000;0.6064;0.2497;
-118.5000;0.6146;0.2713;
-118.2000;0.6146;0.2761;
-117.9000;0.6081;0.2593;
-117.6000;0.6211;0.2906;
-117.3000;0.6162;0.2810;
-117.0000;0.6146;0.2737;
-116.7000;0.6138;0.2641;
-116.4000;0.6146;0.2737;
-116.1000;0.6162;0.2761;
-115.8000;0.6146;0.2689;
-115.5000;0.6162;0.2737;
-115.2000;0.6146;0.2689;
-114.9000;0.6162;0.2689;
-114.6000;0.6138;0.2689;
-114.3000;0.6138;0.2641;
-114.0000;0.6154;0.2665;
-113.7000;0.6154;0.2785;
-113.4000;0.6154;0.2737;
-113.1000;0.6146;0.2665;
-112.8000;0.6154;0.2737;
-112.5000;0.6146;0.2761;
-112.2000;0.6146;0.2713;
-111.9000;0.6162;0.2810;
-111.6000;0.6146;0.2761;
-111.3000;0.6162;0.2930;
-111.0000;0.6154;0.2858;
-110.7000;0.6154;0.2834;
-110.4000;0.6146;0.2882;
-110.1000;0.6154;0.2906;
-109.8000;0.6186;0.3050;
-109.5000;0.6154;0.2906;
-109.2000;0.6162;0.2906;
-108.9000;0.6170;0.2858;
-108.6000;0.6186;0.2882;
-108.3000;0.6154;0.2810;
-108.0000;0.6162;0.2834;
-107.7000;0.6146;0.2785;
-107.4000;0.6154;0.2737;
-107.1000;0.6146;0.2713;
-106.8000;0.6162;0.2665;
-106.5000;0.6154;0.2593;
-106.2000;0.6146;0.2473;
-105.9000;0.6138;0.2449;
-105.6000;0.6146;0.2353;
-105.3000;0.6154;0.2377;
-105.0000;0.6162;0.2473;
-104.7000;0.6129;0.2377;
-104.4000;0.6154;0.2521;
-104.1000;0.6170;0.2593;
-103.8000;0.6154;0.2689;
-103.5000;0.6113;0.2617;
-103.2000;0.6146;0.2761;
-102.9000;0.6146;0.2785;
-102.6000;0.6162;0.2761;
-102.3000;0.6154;0.2641;
-102.0000;0.6146;0.2545;
-101.7000;0.6154;0.2569;
-101.4000;0.6154;0.2497;
-101.1000;0.6146;0.2521;
-100.8000;0.6146;0.2545;
-100.5000;0.6146;0.2521;
-100.2000;0.6162;0.2521;
-99.9000;0.6170;0.2569;
-99.6000;0.6146;0.2521;
-99.3000;0.6146;0.2593;
-99.0000;0.6138;0.2641;
-98.7000;0.6146;0.2617;
-98.4000;0.6146;0.2617;
-98.1000;0.6138;0.2665;
-97.8000;0.6129;0.2713;
-97.5000;0.6186;0.2858;
-97.2000;0.6146;0.2737;
-96.9000;0.6146;0.2593;
-96.6000;0.6154;0.2689;
-96.3000;0.6146;0.2641;
-96.0000;0.6162;0.2617;
-95.7000;0.6170;0.2761;
-95.4000;0.6162;0.2785;
-95.1000;0.6154;0.2834;
-94.8000;0.6178;0.2858;
-94.5000;0.6146;0.2665;
-94.2000;0.6154;0.2593;
-93.9000;0.6162;0.2617;
-93.6000;0.6154;0.2545;
-93.3000;0.6154;0.2569;
-93.0000;0.6154;0.2569;
-92.7000;0.6146;0.2593;
-92.4000;0.6146;0.2497;
-92.1000;0.6146;0.2449;
-91.8000;0.6138;0.2401;
-91.5000;0.6146;0.2377;
-91.2000;0.6154;0.2449;
-90.9000;0.6138;0.2377;
-90.6000;0.6138;0.2353;
-90.3000;0.6138;0.2353;
-90.0000;0.6146;0.2497;
-89.7000;0.6154;0.2497;
-89.4000;0.6129;0.2401;
-89.1000;0.6146;0.2449;
-88.8000;0.6138;0.2473;
-88.5000;0.6146;0.2545;
-88.2000;0.6146;0.2641;
-87.9000;0.6154;0.2689;
-87.6000;0.6252;0.2906;
-87.3000;0.6154;0.2689;
-87.0000;0.6162;0.2641;
-86.7000;0.6146;0.2665;
-86.4000;0.6162;0.2785;
-86.1000;0.6170;0.2785;
-85.8000;0.6162;0.2665;
-85.5000;0.6146;0.2521;
-85.2000;0.6113;0.2521;
-84.9000;0.6146;0.2617;
-84.6000;0.6162;0.2617;
-84.3000;0.6129;0.2593;
-84.0000;0.6138;0.2545;
-83.7000;0.6072;0.2401;
-83.4000;0.6138;0.2545;
-83.1000;0.6138;0.2593;
-82.8000;0.6138;0.2665;
-82.5000;0.6162;0.2737;
-82.2000;0.6138;0.2713;
-81.9000;0.6129;0.2641;
-81.6000;0.6138;0.2713;
-81.3000;0.6154;0.2737;
-81.0000;0.6154;0.2713;
-80.7000;0.6162;0.2665;
-80.4000;0.6138;0.2593;
-80.1000;0.6154;0.2593;
-79.8000;0.6138;0.2569;
-79.5000;0.6154;0.2641;
-79.2000;0.6146;0.2593;
-78.9000;0.6170;0.2593;
-78.6000;0.6138;0.2569;
-78.3000;0.6105;0.2425;
-78.0000;0.6138;0.2545;
-77.7000;0.6113;0.2545;
-77.4000;0.6154;0.2641;
-77.1000;0.6154;0.2569;
-76.8000;0.6162;0.2569;
-76.5000;0.6146;0.2593;
-76.2000;0.6089;0.2497;
-75.9000;0.6154;0.2810;
-75.6000;0.6146;0.2834;
-75.3000;0.6154;0.2834;
-75.0000;0.6154;0.2810;
-74.7000;0.6162;0.2810;
-74.4000;0.6138;0.2785;
-74.1000;0.6146;0.2834;
-73.8000;0.6146;0.2882;
-73.5000;0.6146;0.2906;
-73.2000;0.6146;0.3026;
-72.9000;0.6154;0.3074;
-72.6000;0.6138;0.3026;
-72.3000;0.6129;0.3002;
-72.0000;0.6162;0.3002;
-71.7000;0.6146;0.2930;
-71.4000;0.6138;0.2882;
-71.1000;0.6162;0.2858;
-70.8000;0.6129;0.2834;
-70.5000;0.6154;0.2954;
-70.2000;0.6162;0.3170;
-69.9000;0.6138;0.3050;
-69.6000;0.6146;0.2954;
-69.3000;0.6146;0.2834;
-69.0000;0.6138;0.2785;
-68.7000;0.6121;0.2810;
-68.4000;0.6138;0.2834;
-68.1000;0.6146;0.2834;
-67.8000;0.6138;0.2882;
-67.5000;0.6138;0.2882;
-67.2000;0.6170;0.3002;
-66.9000;0.6195;0.3146;
-66.6000;0.6154;0.3050;
-66.3000;0.6146;0.3002;
-66.0000;0.6203;0.3146;
-65.7000;0.6162;0.3026;
-65.4000;0.6154;0.3002;
-65.1000;0.6203;0.3098;
-64.8000;0.6146;0.2930;
-64.5000;0.6138;0.2930;
-64.2000;0.6252;0.3290;
-63.9000;0.6138;0.3122;
-63.6000;0.6138;0.3122;
-63.3000;0.6154;0.3098;
-63.0000;0.6154;0.3074;
-62.7000;0.6138;0.3050;
-62.4000;0.6154;0.3194;
-62.1000;0.6138;0.3122;
-61.8000;0.6154;0.3170;
-61.5000;0.6195;0.3242;
-61.2000;0.6146;0.3098;
-60.9000;0.6146;0.3146;
-60.6000;0.6154;0.3170;
-60.3000;0.6154;0.3122;
-60.0000;0.6154;0.3026;
-59.7000;0.6146;0.2978;
-59.4000;0.6162;0.3026;
-59.1000;0.6162;0.2978;
-58.8000;0.6138;0.2954;
-58.5000;0.6146;0.2930;
-58.2000;0.6154;0.2954;
-57.9000;0.6146;0.2882;
-57.6000;0.6211;0.3098;
-57.3000;0.6146;0.2978;
-57.0000;0.6146;0.3026;
-56.7000;0.6162;0.3074;
-56.4000;0.6105;0.2930;
-56.1000;0.6146;0.3026;
-55.8000;0.6170;0.3026;
-55.5000;0.6178;0.2930;
-55.2000;0.6219;0.2978;
-54.9000;0.6154;0.2810;
-54.6000;0.6154;0.2810;
-54.3000;0.6146;0.2834;
-54.0000;0.6146;0.2858;
-53.7000;0.6138;0.2906;
-53.4000;0.6146;0.3002;
-53.1000;0.6154;0.3002;
-52.8000;0.6154;0.3146;
-52.5000;0.6129;0.3098;
-52.2000;0.6178;0.3170;
-51.9000;0.6138;0.3074;
-51.6000;0.6162;0.3074;
-51.3000;0.6105;0.2882;
-51.0000;0.6162;0.2930;
-50.7000;0.6154;0.2906;
-50.4000;0.6146;0.2810;
-50.1000;0.6211;0.3002;
-49.8000;0.6138;0.2906;
-49.5000;0.6138;0.2882;
-49.2000;0.6138;0.2834;
-48.9000;0.6154;0.2978;
-48.6000;0.6154;0.2858;
-48.3000;0.6154;0.2882;
-48.0000;0.6154;0.2954;
-47.7000;0.6146;0.2834;
-47.4000;0.6154;0.2834;
-47.1000;0.6138;0.2858;
-46.8000;0.6154;0.2978;
-46.5000;0.6138;0.2954;
-46.2000;0.6138;0.2882;
-45.9000;0.6146;0.2834;
-45.6000;0.6170;0.2882;
-45.3000;0.6146;0.2810;
-45.0000;0.6129;0.2882;
-44.7000;0.6138;0.2930;
-44.4000;0.6129;0.2834;
-44.1000;0.6146;0.2834;
-43.8000;0.6162;0.2858;
-43.5000;0.6154;0.2906;
-43.2000;0.6138;0.2858;
-42.9000;0.6146;0.2810;
-42.6000;0.6170;0.2858;
-42.3000;0.6146;0.2810;
-42.0000;0.6154;0.2858;
-41.7000;0.6138;0.2810;
-41.4000;0.6162;0.2882;
-41.1000;0.6162;0.2906;
-40.8000;0.6138;0.2882;
-40.5000;0.6121;0.2810;
-40.2000;0.6154;0.2858;
-39.9000;0.6138;0.2882;
-39.6000;0.6162;0.2930;
-39.3000;0.6138;0.2858;
-39.0000;0.6138;0.2858;
-38.7000;0.6162;0.2834;
-38.4000;0.6138;0.2665;
-38.1000;0.6154;0.2665;
-37.8000;0.6154;0.2665;
-37.5000;0.6186;0.2761;
-37.2000;0.6138;0.2689;
-36.9000;0.6146;0.2665;
-36.6000;0.6170;0.2834;
-36.3000;0.6154;0.2882;
-36.0000;0.6178;0.2906;
-35.7000;0.6146;0.2834;
-35.4000;0.6154;0.2834;
-35.1000;0.6146;0.2906;
-34.8000;0.6138;0.2858;
-34.5000;0.6154;0.2882;
-34.2000;0.6170;0.2930;
-33.9000;0.6146;0.2810;
-33.6000;0.6138;0.2834;
-33.3000;0.6154;0.2713;
-33.0000;0.6105;0.2593;
-32.7000;0.6040;0.2425;
-32.4000;0.6154;0.2689;
-32.1000;0.6129;0.2593;
-31.8000;0.6129;0.2713;
-31.5000;0.6146;0.2834;
-31.2000;0.6162;0.2954;
-30.9000;0.6146;0.2882;
-30.6000;0.6146;0.2930;
-30.3000;0.6146;0.2882;
-30.0000;0.6121;0.2834;
-29.7000;0.6154;0.2882;
-29.4000;0.6138;0.2810;
-29.1000;0.6129;0.2834;
-28.8000;0.6162;0.2906;
-28.5000;0.6138;0.2761;
-28.2000;0.6129;0.2665;
-27.9000;0.6129;0.2737;
-27.6000;0.6138;0.2737;
-27.3000;0.6113;0.2713;
-27.0000;0.6146;0.2785;
-26.7000;0.6146;0.2834;
-26.4000;0.6129;0.2810;
-26.1000;0.6154;0.2810;
-25.8000;0.6154;0.2761;
-25.5000;0.6113;0.2737;
-25.2000;0.6146;0.2882;
-24.9000;0.6162;0.2930;
-24.6000;0.6154;0.2906;
-24.3000;0.6162;0.2978;
-24.0000;0.6162;0.2930;
-23.7000;0.6138;0.2810;
-23.4000;0.6146;0.2810;
-23.1000;0.6138;0.2810;
-22.8000;0.6121;0.2858;
-22.5000;0.6138;0.2858;
-22.2000;0.6138;0.2882;
-21.9000;0.6089;0.2737;
-21.6000;0.6129;0.2978;
-21.3000;0.6138;0.3026;
-21.0000;0.6138;0.3026;
-20.7000;0.6129;0.2954;
-20.4000;0.6138;0.2954;
-20.1000;0.6121;0.2858;
-19.8000;0.6154;0.2978;
-19.5000;0.6154;0.3050;
-19.2000;0.6146;0.3050;
-18.9000;0.6146;0.3026;
-18.6000;0.6146;0.3074;
-18.3000;0.6138;0.3026;
-18.0000;0.6146;0.2954;
-17.7000;0.6162;0.2930;
-17.4000;0.6146;0.2906;
-17.1000;0.6162;0.2882;
-16.8000;0.6162;0.2906;
-16.5000;0.6146;0.2882;
-16.2000;0.6146;0.2954;
-15.9000;0.6138;0.2978;
-15.6000;0.6146;0.3026;
-15.3000;0.6138;0.2954;
-15.0000;0.6146;0.2930;
-14.7000;0.6162;0.2954;
-14.4000;0.6146;0.2834;
-14.1000;0.6146;0.2810;
-13.8000;0.6162;0.2834;
-13.5000;0.6146;0.2785;
-13.2000;0.6154;0.2761;
-12.9000;0.6146;0.2810;
-12.6000;0.6121;0.2834;
-12.3000;0.6154;0.2906;
-12.0000;0.6146;0.2930;
-11.7000;0.6178;0.2954;
-11.4000;0.6146;0.2954;
-11.1000;0.6154;0.2906;
-10.8000;0.6170;0.2954;
-10.5000;0.6121;0.2858;
-10.2000;0.6203;0.2954;
-9.9000;0.6162;0.2834;
-9.6000;0.6162;0.2761;
-9.3000;0.6129;0.2641;
-9.0000;0.6154;0.2737;
-8.7000;0.6121;0.2713;
-8.4000;0.6146;0.2858;
-8.1000;0.6146;0.2930;
-7.8000;0.6129;0.3002;
-7.5000;0.6154;0.3002;
-7.2000;0.6154;0.3026;
-6.9000;0.6154;0.2930;
-6.6000;0.6138;0.2785;
-6.3000;0.6113;0.2737;
-6.0000;0.6154;0.2858;
-5.7000;0.6146;0.2906;
-5.4000;0.6146;0.3002;
-5.1000;0.6138;0.2906;
-4.8000;0.6138;0.2906;
-4.5000;0.6138;0.2882;
-4.2000;0.6138;0.2906;
-3.9000;0.6138;0.2882;
-3.6000;0.6138;0.2858;
-3.3000;0.6129;0.2858;
-3.0000;0.6138;0.2906;
-2.7000;0.6146;0.2785;
-2.4000;0.6146;0.2810;
-2.1000;0.6154;0.2785;
-1.8000;0.6154;0.2713;
-1.5000;0.6146;0.2665;
-1.2000;0.6146;0.2593;
-0.9000;0.6154;0.2617;
-0.6000;0.6146;0.2641;
-0.3000;0.6129;0.2593;
0.0000;0.6129;0.2593;
0.3000;0.6365;0.2737;
0.6000;0.6781;0.3338;
0.9000;0.7041;0.3650;
1.2000;0.7269;0.3938;
1.5000;0.7424;0.4154;
1.8000;0.7586;0.4490;
2.1000;0.7627;0.4562;
2.4000;0.7766;0.4851;
2.7000;0.7855;0.5043;
3.0000;0.7945;0.5163;
3.3000;0.7985;0.5307;
3.6000;0.8075;0.5475;
3.9000;0.8091;0.5499;
4.2000;0.8124;0.5547;
4.5000;0.8197;0.5643;
4.8000;0.8205;0.5667;
5.1000;0.8238;0.5691;
5.4000;0.8287;0.5667;
5.7000;0.8295;0.5619;
6.0000;0.8327;0.5715;
6.3000;0.8352;0.5667;
6.6000;0.8376;0.5643;
6.9000;0.8409;0.5691;
7.2000;0.8433;0.5691;
7.5000;0.8441;0.5667;
7.8000;0.8482;0.5643;
8.1000;0.8498;0.5691;
8.4000;0.8588;0.5811;
8.7000;0.8539;0.5643;
9.0000;0.8563;0.5763;
9.3000;0.8604;0.5883;
9.6000;0.8604;0.5883;
9.9000;0.8637;0.5883;
10.2000;0.8637;0.5835;
10.5000;0.8685;0.5931;
10.8000;0.8685;0.5859;
11.1000;0.8702;0.5835;
11.4000;0.8694;0.5787;
11.7000;0.8718;0.5787;
12.0000;0.8759;0.5931;
12.3000;0.8767;0.5883;
12.6000;0.8775;0.5883;
12.9000;0.8783;0.5979;
13.2000;0.8832;0.5907;
13.5000;0.8824;0.5979;
13.8000;0.8856;0.6051;
14.1000;0.8873;0.6075;
14.4000;0.8881;0.6123;
14.7000;0.8873;0.6075;
15.0000;0.8897;0.6051;
15.3000;0.8897;0.6003;
15.6000;0.8913;0.5907;
15.9000;0.8930;0.5907;
16.2000;0.8938;0.5931;
16.5000;0.8954;0.5955;
16.8000;0.8970;0.5907;
17.1000;0.8978;0.5979;
17.4000;0.8987;0.5979;
17.7000;0.9011;0.6003;
18.0000;0.9003;0.6027;
18.3000;0.9027;0.6051;
18.6000;0.9019;0.6003;
18.9000;0.9035;0.6051;
19.2000;0.9068;0.6027;
19.5000;0.9068;0.5979;
19.8000;0.9084;0.5979;
20.1000;0.9101;0.5979;
20.4000;0.9068;0.5859;
20.7000;0.9068;0.5811;
21.0000;0.9084;0.5811;
21.3000;0.9084;0.5715;
21.6000;0.9092;0.5739;
21.9000;0.9109;0.5859;
22.2000;0.9125;0.5907;
22.5000;0.9125;0.5931;
22.8000;0.9133;0.5883;
23.1000;0.9141;0.5787;
23.4000;0.9141;0.5739;
23.7000;0.9166;0.5787;
24.0000;0.9141;0.5715;
24.3000;0.9174;0.5835;
24.6000;0.9109;0.5691;
24.9000;0.9158;0.5811;
25.2000;0.9174;0.5787;
25.5000;0.9182;0.5859;
25.8000;0.9182;0.5835;
26.1000;0.9206;0.5811;
26.4000;0.9198;0.5883;
26.7000;0.9190;0.5883;
27.0000;0.9198;0.5835;
27.3000;0.9214;0.5859;
27.6000;0.9255;0.5931;
27.9000;0.9214;0.5811;
28.2000;0.9214;0.5883;
28.5000;0.9117;0.5691;
28.8000;0.9214;0.5979;
29.1000;0.9231;0.5931;
29.4000;0.9231;0.5883;
29.7000;0.9255;0.5883;
30.0000;0.9255;0.5859;
30.3000;0.9239;0.5787;
30.6000;0.9239;0.5763;
30.9000;0.9255;0.5787;
31.2000;0.9263;0.5859;
31.5000;0.9247;0.5907;
31.8000;0.9255;0.5955;
32.1000;0.9263;0.5811;
32.4000;0.9263;0.5835;
32.7000;0.9271;0.5835;
33.0000;0.9263;0.5811;
33.3000;0.9271;0.5787;
33.6000;0.9255;0.5811;
33.9000;0.9263;0.5835;
34.2000;0.9263;0.5859;
34.5000;0.9271;0.5811;
34.8000;0.9296;0.5883;
35.1000;0.9288;0.5979;
35.4000;0.9288;0.5931;
35.7000;0.9280;0.5931;
36.0000;0.9296;0.5979;
36.3000;0.9296;0.5907;
36.6000;0.9304;0.5955;
36.9000;0.9288;0.5835;
37.2000;0.9296;0.5859;
37.5000;0.9296;0.5811;
37.8000;0.9304;0.5811;
38.1000;0.9312;0.5763;
38.4000;0.9304;0.5811;
38.7000;0.9304;0.5835;
39.0000;0.9312;0.5883;
39.3000;0.9312;0.5811;
39.6000;0.9296;0.5715;
39.9000;0.9328;0.5715;
40.2000;0.9337;0.5787;
40.5000;0.9320;0.5859;
40.8000;0.9320;0.5859;
41.1000;0.9337;0.5931;
41.4000;0.9328;0.5907;
41.7000;0.9271;0.5859;
42.0000;0.9320;0.5979;
42.3000;0.9328;0.5883;
42.6000;0.9296;0.5811;
42.9000;0.9328;0.5883;
43.2000;0.9312;0.5907;
43.5000;0.9337;0.5931;
43.8000;0.9337;0.5931;
44.1000;0.9337;0.5955;
44.4000;0.9328;0.5931;
44.7000;0.9337;0.6003;
45.0000;0.9353;0.6027;
45.3000;0.9353;0.6123;
45.6000;0.9304;0.6051;
45.9000;0.9320;0.6003;
46.2000;0.9410;0.6147;
46.5000;0.9353;0.6051;
46.8000;0.9345;0.5979;
47.1000;0.9337;0.5931;
47.4000;0.9353;0.5979;
47.7000;0.9328;0.5907;
48.0000;0.9369;0.5859;
48.3000;0.9377;0.5907;
48.6000;0.9377;0.5907;
48.9000;0.9385;0.5979;
49.2000;0.9385;0.5955;
49.5000;0.9369;0.5835;
49.8000;0.9337;0.5883;
50.1000;0.9377;0.5979;
50.4000;0.9369;0.6003;
50.7000;0.9361;0.5931;
51.0000;0.9361;0.6027;
51.3000;0.9377;0.6123;
51.6000;0.9369;0.6195;
51.9000;0.9361;0.6171;
52.2000;0.9369;0.6051;
52.5000;0.9377;0.6075;
52.8000;0.9361;0.5931;
53.1000;0.9369;0.5907;
53.4000;0.9369;0.5907;
53.7000;0.9418;0.6003;
54.0000;0.9385;0.5955;
54.3000;0.9328;0.5763;
54.6000;0.9320;0.5739;
54.9000;0.9410;0.5835;
55.2000;0.9483;0.6003;
55.5000;0.9377;0.5835;
55.8000;0.9385;0.5835;
56.1000;0.9385;0.5811;
56.4000;0.9385;0.5763;
56.7000;0.9385;0.5763;
57.0000;0.9377;0.5787;
57.3000;0.9369;0.5739;
57.6000;0.9377;0.5715;
57.9000;0.9385;0.5715;
58.2000;0.9385;0.5739;
58.5000;0.9402;0.5811;
58.8000;0.9377;0.5763;
59.1000;0.9394;0.5811;
59.4000;0.9385;0.5835;
59.7000;0.9410;0.5859;
60.0000;0.9402;0.5811;
60.3000;0.9385;0.5835;
60.6000;0.9394;0.5859;
60.9000;0.9394;0.5811;
61.2000;0.9394;0.5811;
61.5000;0.9402;0.5811;
61.8000;0.9410;0.5835;
62.1000;0.9385;0.5811;
62.4000;0.9377;0.5835;
62.7000;0.9394;0.5859;
63.0000;0.9377;0.5859;
63.3000;0.9394;0.5811;
63.6000;0.9394;0.5811;
63.9000;0.9410;0.5787;
64.2000;0.9394;0.5739;
64.5000;0.9426;0.5763;
64.8000;0.9402;0.5691;
65.1000;0.9385;0.5715;
65.4000;0.9410;0.5811;
65.7000;0.9410;0.5811;
66.0000;0.9402;0.5787;
66.3000;0.9402;0.5787;
66.6000;0.9475;0.5979;
66.9000;0.9418;0.5739;
67.2000;0.9402;0.5715;
67.5000;0.9369;0.5595;
67.8000;0.9426;0.5739;
68.1000;0.9377;0.5763;
68.4000;0.9402;0.5739;
68.7000;0.9402;0.5739;
69.0000;0.9410;0.5787;
69.3000;0.9410;0.5811;
69.6000;0.9410;0.5859;
69.9000;0.9394;0.5835;
70.2000;0.9394;0.5811;
70.5000;0.9402;0.5883;
70.8000;0.9410;0.5907;
71.1000;0.9410;0.6003;
71.4000;0.9402;0.6051;
71.7000;0.9418;0.5979;
72.0000;0.9410;0.5907;
72.3000;0.9394;0.5931;
72.6000;0.9426;0.6075;
72.9000;0.9402;0.6123;
73.2000;0.9402;0.6171;
73.5000;0.9426;0.6123;
73.8000;0.9402;0.6099;
74.1000;0.9418;0.6099;
74.4000;0.9410;0.6099;
74.7000;0.9418;0.6123;
75.0000;0.9467;0.6123;
75.3000;0.9410;0.5979;
75.6000;0.9410;0.5979;
75.9000;0.9426;0.5955;
76.2000;0.9418;0.5883;
76.5000;0.9410;0.5859;
76.8000;0.9418;0.5811;
77.1000;0.9491;0.6027;
77.4000;0.9410;0.5907;
77.7000;0.9524;0.6171;
78.0000;0.9418;0.5787;
78.3000;0.9426;0.5763;
78.6000;0.9402;0.5787;
78.9000;0.9434;0.5811;
79.2000;0.9451;0.5931;
79.5000;0.9410;0.5859;
79.8000;0.9426;0.5931;
80.1000;0.9410;0.5859;
80.4000;0.9328;0.5643;
80.7000;0.9385;0.5763;
81.0000;0.9418;0.5835;
81.3000;0.9418;0.5835;
81.6000;0.9410;0.5859;
81.9000;0.9434;0.5859;
82.2000;0.9426;0.5835;
82.5000;0.9410;0.5835;
82.8000;0.9402;0.5763;
83.1000;0.9418;0.5715;
83.4000;0.9418;0.5787;
83.7000;0.9418;0.5763;
84.0000;0.9410;0.5691;
84.3000;0.9426;0.5811;
84.6000;0.9434;0.5883;
84.9000;0.9426;0.5835;
85.2000;0.9418;0.5811;
85.5000;0.9418;0.5835;
85.8000;0.9426;0.5955;
86.1000;0.9418;0.5907;
86.4000;0.9426;0.5955;
86.7000;0.9369;0.5931;
87.0000;0.9442;0.6099;
87.3000;0.9442;0.6051;
87.6000;0.9418;0.5979;
87.9000;0.9426;0.5931;
88.2000;0.9418;0.5907;
88.5000;0.9442;0.5859;
88.8000;0.9442;0.5931;
89.1000;0.9418;0.5979;
89.4000;0.9434;0.6123;
89.7000;0.9426;0.6027;
90.0000;0.9426;0.6003;
90.3000;0.9426;0.6051;
90.6000;0.9508;0.6243;
90.9000;0.9434;0.5979;
91.2000;0.9434;0.5931;
91.5000;0.9418;0.5907;
91.8000;0.9418;0.5955;
92.1000;0.9434;0.5931;
92.4000;0.9434;0.5859;
92.7000;0.9426;0.5835;
93.0000;0.9467;0.5907;
93.3000;0.9426;0.5835;
93.6000;0.9426;0.5931;
93.9000;0.9434;0.5907;
94.2000;0.9426;0.5907;
94.5000;0.9426;0.5979;
94.8000;0.9434;0.5979;
95.1000;0.9426;0.6027;
95.4000;0.9426;0.5979;
95.7000;0.9434;0.5979;
96.0000;0.9434;0.6027;
96.3000;0.9442;0.5907;
96.6000;0.9434;0.5883;
96.9000;0.9369;0.5739;
97.2000;0.9426;0.5811;
97.5000;0.9451;0.5763;
97.8000;0.9475;0.5739;
98.1000;0.9540;0.5907;
98.4000;0.9426;0.5619;
98.7000;0.9418;0.5523;
99.0000;0.9426;0.5547;
99.3000;0.9434;0.5619;
99.6000;0.9426;0.5643;
99.9000;0.9434;0.5715;
100.2000;0.9426;0.5715;
100.5000;0.9418;0.5715;
100.8000;0.9426;0.5643;
101.1000;0.9459;0.5667;
101.4000;0.9418;0.5667;
101.7000;0.9451;0.5763;
102.0000;0.9442;0.5763;
102.3000;0.9467;0.5787;
102.6000;0.9442;0.5763;
102.9000;0.9418;0.5715;
103.2000;0.9402;0.5667;
103.5000;0.9410;0.5715;
103.8000;0.9451;0.5883;
104.1000;0.9442;0.5907;
104.4000;0.9410;0.5811;
104.7000;0.9442;0.5979;
105.0000;0.9459;0.6099;
105.3000;0.9442;0.6075;
105.6000;0.9451;0.5979;
105.9000;0.9451;0.5979;
106.2000;0.9442;0.5883;
106.5000;0.9459;0.5835;
106.8000;0.9434;0.5835;
107.1000;0.9451;0.5835;
107.4000;0.9442;0.5835;
107.7000;0.9442;0.5811;
108.0000;0.9434;0.5811;
108.3000;0.9434;0.5763;
108.6000;0.9442;0.5787;
108.9000;0.9426;0.5883;
109.2000;0.9442;0.5907;
109.5000;0.9451;0.5907;
109.8000;0.9459;0.5907;
110.1000;0.9442;0.5835;
110.4000;0.9426;0.5763;
110.7000;0.9451;0.5907;
111.0000;0.9442;0.5835;
111.3000;0.9459;0.5859;
111.6000;0.9442;0.5811;
111.9000;0.9434;0.5835;
112.2000;0.9442;0.5955;
112.5000;0.9442;0.6003;
112.8000;0.9442;0.5859;
113.1000;0.9434;0.5811;
113.4000;0.9442;0.5811;
113.7000;0.9459;0.5835;
114.0000;0.9434;0.5811;
114.3000;0.9451;0.5811;
114.6000;0.9410;0.5763;
114.9000;0.9434;0.5739;
115.2000;0.9434;0.5715;
115.5000;0.9459;0.5667;
115.8000;0.9459;0.5715;
116.1000;0.9434;0.5715;
116.4000;0.9459;0.5835;
116.7000;0.9459;0.5835;
117.0000;0.9451;0.5907;
117.3000;0.9377;0.5739;
117.6000;0.9442;0.5859;
117.9000;0.9434;0.5787;
118.2000;0.9451;0.5835;
118.5000;0.9312;0.5499;
118.8000;0.9451;0.5835;
119.1000;0.9451;0.5811;
119.4000;0.9426;0.5907;
119.7000;0.9418;0.5931;
120.0000;0.9434;0.5979;
120.3000;0.9459;0.5979;
120.6000;0.9426;0.5859;
120.9000;0.9451;0.5931;
121.2000;0.9418;0.5931;
121.5000;0.9434;0.5979;
121.8000;0.9467;0.6075;
122.1000;0.9483;0.6123;
122.4000;0.9451;0.6003;
122.7000;0.9442;0.5931;
123.0000;0.9451;0.5955;
123.3000;0.9434;0.5835;
123.6000;0.9442;0.5811;
123.9000;0.9459;0.5835;
124.2000;0.9426;0.5763;
124.5000;0.9459;0.5739;
124.8000;0.9459;0.5739;
125.1000;0.9459;0.5787;
125.4000;0.9459;0.5811;
125.7000;0.9451;0.5883;
126.0000;0.9451;0.5787;
126.3000;0.9451;0.5787;
126.6000;0.9442;0.5835;
126.9000;0.9442;0.5811;
127.2000;0.9451;0.5787;
127.5000;0.9451;0.5811;
127.8000;0.9442;0.5763;
128.1000;0.9442;0.5787;
128.4000;0.9442;0.5835;
128.7000;0.9451;0.5811;
129.0000;0.9434;0.5811;
129.3000;0.9459;0.5835;
129.6000;0.9467;0.5883;
129.9000;0.9451;0.5883;
130.2000;0.9451;0.5811;
130.5000;0.9451;0.5835;
130.8000;0.9442;0.5763;
131.1000;0.9451;0.5691;
131.4000;0.9442;0.5739;
131.7000;0.9434;0.5715;
132.0000;0.9451;0.5787;
132.3000;0.9434;0.5739;
132.6000;0.9434;0.5715;
132.9000;0.9467;0.5763;
133.2000;0.9451;0.5691;
133.5000;0.9451;0.5667;
133.8000;0.9451;0.5667;
134.1000;0.9442;0.5715;
134.4000;0.9442;0.5715;
134.7000;0.9434;0.5715;
135.0000;0.9442;0.5643;
135.3000;0.9434;0.5643;
135.6000;0.9402;0.5643;
135.9000;0.9442;0.5739;
136.2000;0.9442;0.5763;
136.5000;0.9442;0.5787;
136.8000;0.9451;0.5835;
137.1000;0.9418;0.5667;
137.4000;0.9442;0.5739;
137.7000;0.9426;0.5643;
138.0000;0.9483;0.5811;
138.3000;0.9475;0.5835;
138.6000;0.9459;0.5763;
138.9000;0.9451;0.5787;
139.2000;0.9459;0.5835;
139.5000;0.9459;0.5835;
139.8000;0.9451;0.5811;
140.1000;0.9467;0.5907;
140.4000;0.9459;0.5859;
140.7000;0.9459;0.5811;
141.0000;0.9451;0.5811;
141.3000;0.9451;0.5715;
141.6000;0.9451;0.5691;
141.9000;0.9508;0.5883;
142.2000;0.9451;0.5715;
142.5000;0.9442;0.5763;
142.8000;0.9459;0.5883;
143.1000;0.9451;0.5859;
143.4000;0.9451;0.5763;
143.7000;0.9459;0.5643;
144.0000;0.9426;0.5451;
144.3000;0.9451;0.5547;
144.6000;0.9442;0.5571;
144.9000;0.9402;0.5475;
145.2000;0.9434;0.5643;
145.5000;0.9451;0.5691;
145.8000;0.9459;0.5667;
146.1000;0.9402;0.5643;
146.4000;0.9556;0.6051;
146.7000;0.9459;0.5739;
147.0000;0.9459;0.5763;
147.3000;0.9459;0.5787;
147.6000;0.9467;0.5739;
147.9000;0.9483;0.5763;
148.2000;0.9459;0.5835;
148.5000;0.9451;0.5835;
148.8000;0.9451;0.5739;
149.1000;0.9442;0.5739;
149.4000;0.9442;0.5739;
149.7000;0.9402;0.5667;
150.0000;0.9451;0.5787;
150.3000;0.9442;0.5811;
150.6000;0.9451;0.5739;
150.9000;0.9459;0.5739;
151.2000;0.9467;0.5715;
151.5000;0.9451;0.5643;
151.8000;0.9442;0.5691;
152.1000;0.9442;0.5739;
152.4000;0.9499;0.5931;
152.7000;0.9426;0.5715;
153.0000;0.9451;0.5715;
153.3000;0.9451;0.5739;
153.6000;0.9434;0.5739;
153.9000;0.9434;0.5787;
154.2000;0.9442;0.5811;
154.5000;0.9451;0.5835;
154.8000;0.9410;0.5835;
155.1000;0.9459;0.5979;
155.4000;0.9459;0.5979;
155.7000;0.9451;0.5979;
156.0000;0.9459;0.6027;
156.3000;0.9451;0.5931;
156.6000;0.9459;0.5979;
156.9000;0.9442;0.5931;
157.2000;0.9459;0.5931;
157.5000;0.9418;0.5835;
157.8000;0.9434;0.5859;
158.1000;0.9442;0.5883;
158.4000;0.9442;0.5955;
158.7000;0.9442;0.5859;
159.0000;0.9451;0.5859;
159.3000;0.9451;0.5907;
159.6000;0.9442;0.5931;
159.9000;0.9467;0.5907;
160.2000;0.9467;0.5883;
160.5000;0.9451;0.5907;
160.8000;0.9499;0.5907;
161.1000;0.9475;0.5859;
161.4000;0.9459;0.5787;
161.7000;0.9426;0.5763;
162.0000;0.9451;0.5715;
162.3000;0.9459;0.5667;
162.6000;0.9451;0.5667;
162.9000;0.9467;0.5667;
163.2000;0.9442;0.5619;
163.5000;0.9442;0.5715;
163.8000;0.9418;0.5667;
164.1000;0.9434;0.5691;
164.4000;0.9451;0.5811;
164.7000;0.9451;0.5739;
165.0000;0.9451;0.5763;
165.3000;0.9483;0.5931;
165.6000;0.9442;0.5835;
165.9000;0.9508;0.6003;
166.2000;0.9451;0.5955;
166.5000;0.9451;0.6027;
166.8000;0.9483;0.6123;
167.1000;0.9451;0.5979;
167.4000;0.9459;0.5931;
167.7000;0.9459;0.5907;
168.0000;0.9451;0.5907;
168.3000;0.9434;0.5835;
168.6000;0.9499;0.6027;
168.9000;0.9459;0.5979;
169.2000;0.9442;0.5883;
169.5000;0.9459;0.5979;
169.8000;0.9442;0.5955;
170.1000;0.9442;0.5907;
170.4000;0.9426;0.5835;
170.7000;0.9467;0.5931;
171.0000;0.9451;0.5811;
171.3000;0.9451;0.5835;
171.6000;0.9467;0.5931;
171.9000;0.9451;0.6003;
172.2000;0.9377;0.5763;
172.5000;0.9459;0.6003;
172.8000;0.9499;0.6099;
173.1000;0.9459;0.6051;
173.4000;0.9426;0.6051;
173.7000;0.9442;0.6075;
174.0000;0.9451;0.6003;
174.3000;0.9442;0.6003;
174.6000;0.9467;0.5979;
174.9000;0.9459;0.5835;
175.2000;0.9459;0.5835;
175.5000;0.9459;0.5835;
175.8000;0.9467;0.5859;
176.1000;0.9442;0.5859;
176.4000;0.9459;0.5955;
176.7000;0.9483;0.6075;
177.0000;0.9442;0.6051;
177.3000;0.9451;0.6003;
177.6000;0.9459;0.6027;
177.9000;0.9459;0.6075;
178.2000;0.9467;0.6099;
178.5000;0.9451;0.6075;
178.8000;0.9451;0.6123;
179.1000;0.9442;0.6051;
179.4000;0.9451;0.6099;
179.7000;0.9434;0.6027;
180.0000;0.9451;0.6051;
180.3000;0.9459;0.5955;
180.6000;0.9475;0.6003;
180.9000;0.9459;0.5979;
181.2000;0.9467;0.5907;
181.5000;0.9451;0.5883;
181.8000;0.9483;0.5979;
182.1000;0.9426;0.5955;
182.4000;0.9337;0.5691;
182.7000;0.9459;0.5907;
183.0000;0.9459;0.5931;
183.3000;0.9442;0.5907;
183.6000;0.9451;0.5955;
183.9000;0.9442;0.5883;
184.2000;0.9451;0.5907;
184.5000;0.9467;0.5907;
184.8000;0.9459;0.5907;
185.1000;0.9434;0.5787;
185.4000;0.9459;0.5859;
185.7000;0.9451;0.5859;
186.0000;0.9434;0.5883;
186.3000;0.9451;0.5955;
186.6000;0.9459;0.5931;
186.9000;0.9499;0.6027;
187.2000;0.9442;0.5883;
187.5000;0.9442;0.5931;
187.8000;0.9459;0.5979;
188.1000;0.9442;0.6003;
188.4000;0.9451;0.6003;
188.7000;0.9451;0.6075;
189.0000;0.9451;0.6075;
189.3000;0.9451;0.6099;
189.6000;0.9459;0.6051;
189.9000;0.9434;0.5979;
190.2000;0.9459;0.6099;
190.5000;0.9459;0.6075;
190.8000;0.9451;0.6027;
191.1000;0.9426;0.5907;
191.4000;0.9442;0.5931;
191.7000;0.9451;0.5883;
192.0000;0.9459;0.5883;
192.3000;0.9459;0.5931;
192.6000;0.9451;0.6003;
192.9000;0.9499;0.6171;
193.2000;0.9475;0.6099;
193.5000;0.9459;0.6075;
193.8000;0.9467;0.6123;
194.1000;0.9459;0.6123;
194.4000;0.9459;0.6051;
194.7000;0.9459;0.6027;
195.0000;0.9475;0.6003;
195.3000;0.9459;0.5907;
195.6000;0.9467;0.5859;
195.9000;0.9434;0.5787;
196.2000;0.9377;0.5691;
196.5000;0.9459;0.5931;
196.8000;0.9459;0.6051;
197.1000;0.9467;0.6147;
197.4000;0.9508;0.6243;
197.7000;0.9524;0.6291;
198.0000;0.9475;0.6123;
198.3000;0.9475;0.6123;
198.6000;0.9442;0.6099;
198.9000;0.9442;0.6027;
199.2000;0.9426;0.5907;
199.5000;0.9410;0.5811;
199.8000;0.9418;0.5763;
200.1000;0.9451;0.5955;
200.4000;0.9459;0.6003;
200.7000;0.9467;0.6099;
201.0000;0.9451;0.6051;
201.3000;0.9451;0.6051;
201.6000;0.9426;0.6051;
201.9000;0.9459;0.6075;
202.2000;0.9459;0.6075;
202.5000;0.9394;0.5859;
202.8000;0.9451;0.5979;
203.1000;0.9459;0.6051;
203.4000;0.9459;0.5955;
203.7000;0.9451;0.5859;
204.0000;0.9451;0.5835;
204.3000;0.9459;0.5883;
204.6000;0.9499;0.6003;
204.9000;0.9459;0.5907;
205.2000;0.9459;0.5883;
205.5000;0.9459;0.5955;
205.8000;0.9451;0.5955;
206.1000;0.9459;0.5979;
206.4000;0.9442;0.5907;
206.7000;0.9451;0.5907;
207.0000;0.9459;0.5907;
207.3000;0.9451;0.5859;
207.6000;0.9459;0.5931;
207.9000;0.9442;0.5931;
208.2000;0.9451;0.5955;
208.5000;0.9451;0.5955;
208.8000;0.9451;0.5979;
209.1000;0.9418;0.5907;
209.4000;0.9459;0.5955;
209.7000;0.9459;0.6027;
210.0000;0.9475;0.6003;
210.3000;0.9442;0.5907;
210.6000;0.9459;0.6003;
210.9000;0.9483;0.6147;
211.2000;0.9451;0.6123;
211.5000;0.9426;0.6003;
211.8000;0.9459;0.6099;
212.1000;0.9442;0.5955;
212.4000;0.9434;0.5859;
212.7000;0.9434;0.5835;
213.0000;0.9451;0.5859;
213.3000;0.9451;0.5907;
213.6000;0.9459;0.5907;
213.9000;0.9426;0.5907;
214.2000;0.9451;0.5955;
214.5000;0.9467;0.6003;
214.8000;0.9475;0.6051;
215.1000;0.9467;0.6051;
215.4000;0.9475;0.6099;
215.7000;0.9410;0.5955;
216.0000;0.9459;0.6003;
216.3000;0.9451;0.5883;
216.6000;0.9442;0.5835;
216.9000;0.9296;0.5547;
217.2000;0.9451;0.5883;
217.5000;0.9442;0.5931;
217.8000;0.9451;0.5979;
218.1000;0.9451;0.5955;
218.4000;0.9410;0.5811;
218.7000;0.9459;0.5907;
219.0000;0.9459;0.5883;
219.3000;0.9451;0.5931;
219.6000;0.9451;0.6027;
219.9000;0.9451;0.6051;
220.2000;0.9451;0.6075;
220.5000;0.9451;0.6075;
220.8000;0.9459;0.6075;
221.1000;0.9451;0.6075;
221.4000;0.9459;0.6075;
221.7000;0.9451;0.5979;
222.0000;0.9451;0.6027;
222.3000;0.9459;0.5979;
222.6000;0.9442;0.5979;
222.9000;0.9442;0.6027;
223.2000;0.9459;0.6051;
223.5000;0.9467;0.6003;
223.8000;0.9491;0.6051;
224.1000;0.9459;0.5883;
224.4000;0.9442;0.5931;
224.7000;0.9451;0.6027;
225.0000;0.9459;0.6051;
225.3000;0.9459;0.6075;
225.6000;0.9451;0.6051;
225.9000;0.9451;0.5979;
226.2000;0.9451;0.5931;
226.5000;0.9451;0.5859;
226.8000;0.9442;0.5835;
227.1000;0.9459;0.5835;
227.4000;0.9459;0.5835;
227.7000;0.9434;0.5811;
228.0000;0.9442;0.5859;
228.3000;0.9459;0.5883;
228.6000;0.9451;0.5787;
228.9000;0.9451;0.5691;
229.2000;0.9451;0.5619;
229.5000;0.9442;0.5595;
229.8000;0.9442;0.5715;
230.1000;0.9451;0.5811;
230.4000;0.9451;0.5763;
230.7000;0.9426;0.5739;
231.0000;0.9434;0.5739;
231.3000;0.9451;0.5787;
231.6000;0.9426;0.5763;
231.9000;0.9353;0.5619;
232.2000;0.9426;0.5811;
232.5000;0.9426;0.5859;
232.8000;0.9508;0.6075;
233.1000;0.9516;0.6027;
233.4000;0.9524;0.6099;
233.7000;0.9442;0.5883;
234.0000;0.9451;0.5883;
234.3000;0.9442;0.5811;
234.6000;0.9451;0.5859;
234.9000;0.9442;0.5835;
235.2000;0.9524;0.6003;
235.5000;0.9459;0.5811;
235.8000;0.9532;0.6003;
236.1000;0.9442;0.5811;
236.4000;0.9459;0.5883;
236.7000;0.9451;0.5979;
237.0000;0.9434;0.6003;
237.3000;0.9434;0.5955;
237.6000;0.9459;0.6003;
237.9000;0.9451;0.5883;
238.2000;0.9442;0.5787;
238.5000;0.9434;0.5667;
238.8000;0.9467;0.5763;
239.1000;0.9467;0.5907;
239.4000;0.9451;0.5835;
239.7000;0.9459;0.5883;
240.0000;0.9451;0.5907;
240.3000;0.9442;0.5859;
240.6000;0.9442;0.5835;
240.9000;0.9508;0.6051;
241.2000;0.9467;0.5955;
241.5000;0.9451;0.5955;
241.8000;0.9451;0.6003;
242.1000;0.9434;0.5955;
242.4000;0.9442;0.6051;
242.7000;0.9451;0.6003;
243.0000;0.9442;0.6051;
243.3000;0.9451;0.6051;
243.6000;0.9451;0.6075;
243.9000;0.9459;0.6123;
244.2000;0.9459;0.6099;
244.5000;0.9434;0.6027;
244.8000;0.9459;0.6027;
245.1000;0.9442;0.5979;
245.4000;0.9442;0.6003;
245.7000;0.9459;0.6027;
246.0000;0.9451;0.5931;
246.3000;0.9483;0.5955;
246.6000;0.9451;0.5883;
246.9000;0.9459;0.5907;
247.2000;0.9451;0.5979;
247.5000;0.9451;0.5907;
247.8000;0.9459;0.5907;
248.1000;0.9459;0.5907;
248.4000;0.9451;0.5883;
248.7000;0.9459;0.5907;
249.0000;0.9451;0.5811;
249.3000;0.9459;0.5883;
249.6000;0.9451;0.5907;
249.9000;0.9459;0.5979;
250.2000;0.9451;0.6003;
250.5000;0.9418;0.5931;
250.8000;0.9451;0.6075;
251.1000;0.9451;0.6147;
251.4000;0.9442;0.6195;
251.7000;0.9451;0.6195;
252.0000;0.9451;0.6195;
252.3000;0.9442;0.6147;
252.6000;0.9442;0.6075;
252.9000;0.9459;0.6075;
253.2000;0.9475;0.6075;
253.5000;0.9451;0.5979;
253.8000;0.9508;0.6075;
254.1000;0.9451;0.5907;
254.4000;0.9426;0.5859;
254.7000;0.9442;0.5907;
255.0000;0.9434;0.5811;
255.3000;0.9426;0.5739;
255.6000;0.9434;0.5763;
255.9000;0.9565;0.6123;
256.2000;0.9451;0.5691;
256.5000;0.9434;0.5643;
256.8000;0.9451;0.5715;
257.1000;0.9442;0.5739;
257.4000;0.9442;0.5691;
257.7000;0.9442;0.5763;
258.0000;0.9451;0.5835;
258.3000;0.9451;0.5859;
258.6000;0.9434;0.5907;
258.9000;0.9451;0.5979;
259.2000;0.9451;0.6051;
259.5000;0.9491;0.6147;
259.8000;0.9459;0.6051;
260.1000;0.9451;0.6051;
260.4000;0.9434;0.5979;
260.7000;0.9451;0.6003;
261.0000;0.9475;0.6075;
261.3000;0.9434;0.6051;
261.6000;0.9467;0.6099;
261.9000;0.9451;0.6123;
262.2000;0.9451;0.6051;
262.5000;0.9442;0.5979;
262.8000;0.9451;0.5931;
263.1000;0.9353;0.5667;
263.4000;0.9467;0.6075;
263.7000;0.9459;0.6027;
264.0000;0.9459;0.6051;
264.3000;0.9459;0.6147;
264.6000;0.9467;0.6147;
264.9000;0.9459;0.6195;
265.2000;0.9467;0.6195;
265.5000;0.9451;0.6219;
265.8000;0.9451;0.6243;
266.1000;0.9418;0.6099;
266.4000;0.9442;0.6147;
266.7000;0.9451;0.6171;
267.0000;0.9459;0.6147;
267.3000;0.9451;0.6075;
267.6000;0.9451;0.6051;
267.9000;0.9442;0.6051;
268.2000;0.9451;0.5979;
268.5000;0.9467;0.6003;
268.8000;0.9451;0.5955;
269.1000;0.9467;0.6003;
269.4000;0.9467;0.6075;
269.7000;0.9467;0.6147;
270.0000;0.9467;0.6099;
270.3000;0.9451;0.6123;
270.6000;0.9459;0.6051;
270.9000;0.9451;0.6027;
271.2000;0.9451;0.6051;
271.5000;0.9451;0.6027;
271.8000;0.9467;0.6003;
272.1000;0.9483;0.6123;
272.4000;0.9459;0.6075;
272.7000;0.9467;0.6123;
273.0000;0.9451;0.6075;
273.3000;0.9451;0.6099;
273.6000;0.9434;0.6003;
273.9000;0.9451;0.5955;
274.2000;0.9442;0.5955;
274.5000;0.9467;0.5907;
274.8000;0.9451;0.5883;
275.1000;0.9451;0.5811;
275.4000;0.9434;0.5883;
275.7000;0.9451;0.5883;
276.0000;0.9451;0.5907;
276.3000;0.9442;0.5859;
276.6000;0.9467;0.5787;
276.9000;0.9451;0.5811;
277.2000;0.9451;0.5787;
277.5000;0.9442;0.5787;
277.8000;0.9499;0.5883;
278.1000;0.9475;0.5859;
278.4000;0.9467;0.5883;
278.7000;0.9459;0.5835;
279.0000;0.9451;0.5883;
279.3000;0.9467;0.5835;
279.6000;0.9459;0.5763;
279.9000;0.9442;0.5787;
280.2000;0.9451;0.5811;
280.5000;0.9459;0.5811;
280.8000;0.9426;0.5835;
281.1000;0.9516;0.6051;
281.4000;0.9442;0.5811;
281.7000;0.9459;0.5859;
282.0000;0.9459;0.5907;
282.3000;0.9483;0.5979;
282.6000;0.9451;0.5907;
282.9000;0.9434;0.5931;
283.2000;0.9451;0.5931;
283.5000;0.9467;0.5979;
283.8000;0.9451;0.6075;
284.1000;0.9483;0.6147;
284.4000;0.9467;0.6075;
284.7000;0.9467;0.5979;
285.0000;0.9475;0.6075;
285.3000;0.9442;0.5979;
285.6000;0.9459;0.5931;
285.9000;0.9442;0.5883;
286.2000;0.9418;0.5859;
286.5000;0.9426;0.5931;
286.8000;0.9394;0.5811;
287.1000;0.9434;0.5859;
287.4000;0.9451;0.5811;
287.7000;0.9434;0.5763;
288.0000;0.9451;0.5715;
288.3000;0.9459;0.5763;
288.6000;0.9467;0.5787;
288.9000;0.9442;0.5715;
289.2000;0.9516;0.5811;
289.5000;0.9442;0.5643;
289.8000;0.9467;0.5811;
290.1000;0.9451;0.5739;
290.4000;0.9483;0.5787;
290.7000;0.9516;0.5883;
291.0000;0.9459;0.5763;
291.3000;0.9377;0.5571;
291.6000;0.9451;0.5739;
291.9000;0.9451;0.5787;
292.2000;0.9337;0.5547;
292.5000;0.9442;0.5811;
292.8000;0.9556;0.6075;
293.1000;0.9451;0.5763;
293.4000;0.9459;0.5691;
293.7000;0.9402;0.5595;
294.0000;0.9459;0.5715;
294.3000;0.9377;0.5547;
294.6000;0.9442;0.5643;
294.9000;0.9418;0.5667;
295.2000;0.9451;0.5811;
295.5000;0.9451;0.5763;
295.8000;0.9442;0.5787;
296.1000;0.9434;0.5667;
296.4000;0.9459;0.5715;
296.7000;0.9426;0.5571;
297.0000;0.9418;0.5523;
297.3000;0.9434;0.5595;
297.6000;0.9410;0.5427;
297.9000;0.9442;0.5475;
298.2000;0.9418;0.5427;
298.5000;0.9442;0.5475;
298.8000;0.9442;0.5547;
299.1000;0.9442;0.5547;
299.4000;0.9442;0.5403;
299.7000;0.9426;0.5331;
300.0000;0.9442;0.5427;
300.3000;0.9475;0.5571;
300.6000;0.9434;0.5619;
300.9000;0.9459;0.5643;
301.2000;0.9442;0.5643;
301.5000;0.9410;0.5619;
301.8000;0.9451;0.5619;
302.1000;0.9434;0.5595;
302.4000;0.9442;0.5619;
302.7000;0.9459;0.5643;
303.0000;0.9442;0.5691;
303.3000;0.9426;0.5619;
303.6000;0.9459;0.5691;
303.9000;0.9524;0.5883;
304.2000;0.9467;0.5787;
304.5000;0.9499;0.5859;
304.8000;0.9459;0.5859;
305.1000;0.9475;0.5835;
305.4000;0.9467;0.5859;
305.7000;0.9442;0.5835;
306.0000;0.9434;0.5715;
306.3000;0.9459;0.5763;
306.6000;0.9451;0.5667;
306.9000;0.9434;0.5667;
307.2000;0.9451;0.5643;
307.5000;0.9442;0.5715;
307.8000;0.9426;0.5667;
308.1000;0.9434;0.5715;
308.4000;0.9434;0.5835;
308.7000;0.9369;0.5715;
309.0000;0.9442;0.5859;
309.3000;0.9442;0.5835;
309.6000;0.9491;0.5907;
309.9000;0.9508;0.5907;
310.2000;0.9442;0.5811;
310.5000;0.9442;0.5739;
310.8000;0.9426;0.5691;
311.1000;0.9442;0.5739;
311.4000;0.9426;0.5787;
311.7000;0.9434;0.5739;
312.0000;0.9434;0.5739;
312.3000;0.9434;0.5763;
312.6000;0.9434;0.5811;
312.9000;0.9459;0.5907;
313.2000;0.9451;0.5787;
313.5000;0.9459;0.5811;
313.8000;0.9451;0.5787;
314.1000;0.9451;0.5811;
314.4000;0.9483;0.5907;
314.7000;0.9467;0.5907;
315.0000;0.9451;0.5835;
315.3000;0.9410;0.5739;
315.6000;0.9451;0.5763;
315.9000;0.9442;0.5739;
316.2000;0.9467;0.5811;
316.5000;0.9459;0.5835;
316.8000;0.9451;0.5883;
317.1000;0.9459;0.5955;
317.4000;0.9442;0.5907;
317.7000;0.9426;0.5907;
318.0000;0.9459;0.5931;
318.3000;0.9451;0.5835;
318.6000;0.9410;0.5787;
318.9000;0.9459;0.5955;
319.2000;0.9442;0.6003;
319.5000;0.9434;0.5955;
319.8000;0.9451;0.5931;
320.1000;0.9442;0.5907;
320.4000;0.9451;0.5883;
320.7000;0.9451;0.5835;
321.0000;0.9459;0.5835;
321.3000;0.9451;0.5787;
321.6000;0.9459;0.5787;
321.9000;0.9442;0.5787;
322.2000;0.9442;0.5835;
322.5000;0.9434;0.5835;
322.8000;0.9442;0.5955;
323.1000;0.9426;0.5907;
323.4000;0.9459;0.5883;
323.7000;0.9451;0.5859;
324.0000;0.9442;0.5859;
324.3000;0.9451;0.5859;
324.6000;0.9451;0.5811;
324.9000;0.9459;0.5835;
325.2000;0.9434;0.5787;
325.5000;0.9442;0.5763;
325.8000;0.9451;0.5763;
326.1000;0.9442;0.5619;
326.4000;0.9442;0.5595;
326.7000;0.9459;0.5739;
327.0000;0.9442;0.5763;
327.3000;0.9434;0.5787;
327.6000;0.9459;0.5835;
327.9000;0.9442;0.5859;
328.2000;0.9426;0.5787;
328.5000;0.9442;0.5859;
328.8000;0.9434;0.5859;
329.1000;0.9361;0.5763;
329.4000;0.9442;0.5907;
329.7000;0.9451;0.5859;
330.0000;0.9459;0.5883;
330.3000;0.9418;0.5835;
330.6000;0.9451;0.5955;
330.9000;0.9451;0.5931;
331.2000;0.9451;0.5907;
331.5000;0.9451;0.6003;
331.8000;0.9483;0.6027;
332.1000;0.9442;0.6027;
332.4000;0.9434;0.5907;
332.7000;0.9467;0.5931;
333.0000;0.9434;0.5931;
333.3000;0.9434;0.5955;
333.6000;0.9451;0.5883;
333.9000;0.9459;0.5859;
334.2000;0.9426;0.5763;
334.5000;0.9442;0.5763;
334.8000;0.9442;0.5787;
335.1000;0.9434;0.5859;
335.4000;0.9442;0.5883;
335.7000;0.9451;0.5907;
336.0000;0.9442;0.5979;
336.3000;0.9426;0.5955;
336.6000;0.9434;0.6075;
336.9000;0.9434;0.6051;
337.2000;0.9442;0.6027;
337.5000;0.9442;0.5931;
337.8000;0.9426;0.5859;
338.1000;0.9459;0.5907;
338.4000;0.9442;0.5883;
338.7000;0.9451;0.5955;
339.0000;0.9459;0.5931;
339.3000;0.9442;0.5787;
339.6000;0.9459;0.5763;
339.9000;0.9434;0.5763;
340.2000;0.9451;0.5883;
340.5000;0.9451;0.5883;
340.8000;0.9442;0.5979;
341.1000;0.9434;0.5955;
341.4000;0.9451;0.5955;
341.7000;0.9442;0.5955;
342.0000;0.9442;0.5931;
342.3000;0.9459;0.5931;
342.6000;0.9434;0.5883;
342.9000;0.9426;0.5859;
343.2000;0.9442;0.5907;
343.5000;0.9451;0.5931;
343.8000;0.9434;0.5979;
344.1000;0.9410;0.6003;
344.4000;0.9442;0.6099;
344.7000;0.9451;0.6123;
345.0000;0.9467;0.6075;
345.3000;0.9451;0.6003;
345.6000;0.9467;0.5931;
345.9000;0.9451;0.6003;
346.2000;0.9442;0.6075;
346.5000;0.9459;0.6099;
346.8000;0.9442;0.6123;
347.1000;0.9418;0.6027;
347.4000;0.9442;0.6003;
347.7000;0.9483;0.6075;
348.0000;0.9426;0.5907;
348.3000;0.9442;0.6027;
348.6000;0.9442;0.6027;
348.9000;0.9410;0.5907;
349.2000;0.9467;0.6003;
349.5000;0.9434;0.5955;
349.8000;0.9418;0.5883;
350.1000;0.9451;0.5979;
350.4000;0.9467;0.5955;
350.7000;0.9451;0.5955;
351.0000;0.9483;0.5979;
351.3000;0.9442;0.5763;
351.6000;0.9451;0.5787;
351.9000;0.9459;0.5835;
352.2000;0.9451;0.5835;
352.5000;0.9451;0.5859;
352.8000;0.9442;0.5883;
353.1000;0.9451;0.5859;
353.4000;0.9451;0.5931;
353.7000;0.9467;0.6027;
354.0000;0.9426;0.5883;
354.3000;0.9442;0.5907;
354.6000;0.9442;0.5931;
354.9000;0.9499;0.6051;
355.2000;0.9451;0.5931;
355.5000;0.9369;0.5715;
355.8000;0.9451;0.5907;
356.1000;0.9434;0.5907;
356.4000;0.9442;0.5955;
356.7000;0.9451;0.5907;
357.0000;0.9426;0.5835;
357.3000;0.9442;0.5787;
357.6000;0.9442;0.5739;
357.9000;0.9442;0.5811;
358.2000;0.9442;0.5883;
358.5000;0.9459;0.5955;
358.8000;0.9442;0.5859;
359.1000;0.9442;0.5907;
359.4000;0.9426;0.5787;
359.7000;0.9451;0.5787;
360.0000;0.9451;0.5883;
360.3000;0.9377;0.5715;
360.6000;0.9434;0.5739;
360.9000;0.9442;0.5691;
361.2000;0.9451;0.5739;
361.5000;0.9442;0.5739;
361.8000;0.9451;0.5763;
362.1000;0.9418;0.5715;
362.4000;0.9451;0.5859;
362.7000;0.9451;0.5835;
363.0000;0.9442;0.5811;
363.3000;0.9426;0.5787;
363.6000;0.9426;0.5715;
363.9000;0.9442;0.5787;
364.2000;0.9434;0.5643;
364.5000;0.9442;0.5667;
364.8000;0.9499;0.5859;
365.1000;0.9442;0.5787;
365.4000;0.9451;0.5859;
365.7000;0.9459;0.5883;
366.0000;0.9434;0.5835;
366.3000;0.9459;0.5835;
366.6000;0.9459;0.5907;
366.9000;0.9442;0.5907;
367.2000;0.9451;0.5955;
367.5000;0.9475;0.6027;
367.8000;0.9459;0.5931;
368.1000;0.9442;0.5859;
368.4000;0.9442;0.5907;
368.7000;0.9459;0.5883;
369.0000;0.9516;0.6003;
369.3000;0.9442;0.5907;
369.6000;0.9434;0.5883;
369.9000;0.9434;0.5883;
370.2000;0.9516;0.6051;
370.5000;0.9451;0.5811;
370.8000;0.9442;0.5787;
371.1000;0.9459;0.5835;
371.4000;0.9508;0.5931;
371.7000;0.9459;0.5739;
372.0000;0.9434;0.5667;
372.3000;0.9459;0.5763;
372.6000;0.9442;0.5739;
372.9000;0.9524;0.5931;
373.2000;0.9459;0.5835;
373.5000;0.9434;0.5835;
373.8000;0.9442;0.5835;
374.1000;0.9304;0.5499;
374.4000;0.9451;0.5859;
374.7000;0.9442;0.5787;
375.0000;0.9426;0.5739;
375.3000;0.9508;0.6003;
375.6000;0.9402;0.5883;
375.9000;0.9451;0.5955;
376.2000;0.9402;0.5739;
376.5000;0.9410;0.5763;
376.8000;0.9459;0.5811;
377.1000;0.9434;0.5619;
377.4000;0.9451;0.5763;
377.7000;0.9451;0.5883;
378.0000;0.9442;0.5811;
378.3000;0.9442;0.5787;
378.6000;0.9442;0.5811;
378.9000;0.9451;0.5931;
379.2000;0.9442;0.5931;
379.5000;0.9451;0.6051;
379.8000;0.9434;0.6027;
380.1000;0.9442;0.5955;
380.4000;0.9442;0.5907;
380.7000;0.9434;0.5883;
381.0000;0.9442;0.5835;
381.3000;0.9442;0.5763;
381.6000;0.9434;0.5715;
381.9000;0.9442;0.5739;
382.2000;0.9451;0.5787;
382.5000;0.9459;0.5835;
382.8000;0.9451;0.5835;
383.1000;0.9394;0.5667;
383.4000;0.9426;0.5667;
383.7000;0.9434;0.5667;
384.0000;0.9459;0.5715;
384.3000;0.9442;0.5691;
384.6000;0.9434;0.5691;
384.9000;0.9434;0.5643;
385.2000;0.9442;0.5595;
385.5000;0.9426;0.5595;
385.8000;0.9451;0.5547;
386.1000;0.9451;0.5571;
386.4000;0.9451;0.5571;
386.7000;0.9451;0.5595;
387.0000;0.9442;0.5523;
387.3000;0.9426;0.5499;
387.6000;0.9434;0.5499;
387.9000;0.9459;0.5499;
388.2000;0.9451;0.5571;
388.5000;0.9434;0.5643;
388.8000;0.9434;0.5691;
389.1000;0.9434;0.5739;
389.4000;0.9451;0.5787;
389.7000;0.9459;0.5883;
390.0000;0.9442;0.5859;
390.3000;0.9459;0.5907;
390.6000;0.9442;0.5883;
390.9000;0.9451;0.5907;
391.2000;0.9451;0.6003;
391.5000;0.9426;0.5859;
391.8000;0.9475;0.5931;
392.1000;0.9442;0.5811;
392.4000;0.9459;0.5811;
392.7000;0.9385;0.5667;
393.0000;0.9434;0.5787;
393.3000;0.9434;0.5787;
393.6000;0.9418;0.5595;
393.9000;0.9426;0.5523;
394.2000;0.9418;0.5547;
394.5000;0.9418;0.5499;
394.8000;0.9442;0.5619;
395.1000;0.9418;0.5715;
395.4000;0.9459;0.5787;
395.7000;0.9459;0.5859;
396.0000;0.9556;0.6027;
396.3000;0.9442;0.5763;
396.6000;0.9467;0.5835;
396.9000;0.9451;0.5883;
397.2000;0.9442;0.5835;
397.5000;0.9410;0.5883;
397.8000;0.9459;0.6051;
398.1000;0.9353;0.5835;
398.4000;0.9434;0.6075;
398.7000;0.9459;0.6051;
399.0000;0.9491;0.6195;
399.3000;0.9442;0.6051;
399.6000;0.9426;0.6003;
399.9000;0.9434;0.6027;
400.2000;0.9434;0.5979;
400.5000;0.9377;0.5739;
400.8000;0.9442;0.5835;
401.1000;0.9426;0.5883;
401.4000;0.9451;0.5979;
401.7000;0.9434;0.6027;
402.0000;0.9385;0.5883;
402.3000;0.9442;0.6075;
402.6000;0.9451;0.6027;
402.9000;0.9434;0.6003;
403.2000;0.9459;0.6075;
403.5000;0.9434;0.6099;
403.8000;0.9442;0.6075;
404.1000;0.9410;0.6027;
404.4000;0.9434;0.6051;
404.7000;0.9442;0.6051;
405.0000;0.9434;0.6027;
405.3000;0.9442;0.6051;
405.6000;0.9426;0.5955;
405.9000;0.9451;0.5931;
406.2000;0.9459;0.5955;
406.5000;0.9451;0.5955;
406.8000;0.9434;0.5931;
407.1000;0.9426;0.5979;
407.4000;0.9491;0.6099;
407.7000;0.9426;0.5955;
408.0000;0.9434;0.5907;
408.3000;0.9442;0.5907;
408.6000;0.9451;0.5955;
408.9000;0.9377;0.5859;
409.2000;0.9434;0.6075;
409.5000;0.9442;0.6051;
409.8000;0.9434;0.5955;
410.1000;0.9451;0.6051;
410.4000;0.9442;0.6075;
410.7000;0.9442;0.6003;
411.0000;0.9459;0.5955;
411.3000;0.9459;0.5979;
411.6000;0.9434;0.5835;
411.9000;0.9426;0.5787;
412.2000;0.9442;0.5811;
412.5000;0.9451;0.5763;
412.8000;0.9442;0.5787;
413.1000;0.9434;0.5811;
413.4000;0.9434;0.5811;
413.7000;0.9434;0.5859;
414.0000;0.9434;0.5787;
414.3000;0.9426;0.5715;
414.6000;0.9442;0.5763;
414.9000;0.9426;0.5787;
415.2000;0.9451;0.5955;
415.5000;0.9451;0.5979;
415.8000;0.9451;0.6003;
416.1000;0.9451;0.6027;
416.4000;0.9467;0.5979;
416.7000;0.9451;0.6027;
417.0000;0.9475;0.6051;
417.3000;0.9475;0.5979;
417.6000;0.9499;0.6027;
417.9000;0.9369;0.5739;
418.2000;0.9418;0.5835;
418.5000;0.9426;0.5835;
418.8000;0.9442;0.5835;
419.1000;0.9442;0.5811;
419.4000;0.9434;0.5811;
419.7000;0.9418;0.5763;
420.0000;0.9442;0.5907;
420.3000;0.9459;0.5979;
420.6000;0.9451;0.5979;
420.9000;0.9467;0.6075;
421.2000;0.9548;0.6339;
421.5000;0.9434;0.6027;
421.8000;0.9434;0.6051;
422.1000;0.9451;0.6075;
422.4000;0.9451;0.6075;
422.7000;0.9491;0.6171;
423.0000;0.9345;0.5859;
423.3000;0.9434;0.6099;
423.6000;0.9434;0.6099;
423.9000;0.9434;0.6075;
424.2000;0.9426;0.6195;
424.5000;0.9434;0.6243;
424.8000;0.9442;0.6219;
425.1000;0.9442;0.6171;
425.4000;0.9434;0.6171;
425.7000;0.9467;0.6171;
426.0000;0.9459;0.6123;
426.3000;0.9459;0.6195;
426.6000;0.9459;0.6219;
426.9000;0.9434;0.6123;
427.2000;0.9442;0.6051;
427.5000;0.9491;0.6123;
427.8000;0.9442;0.6003;
428.1000;0.9434;0.6027;
428.4000;0.9442;0.5955;
428.7000;0.9434;0.5907;
429.0000;0.9434;0.5931;
429.3000;0.9434;0.5859;
429.6000;0.9410;0.5859;
429.9000;0.9434;0.5979;
430.2000;0.9410;0.5955;
430.5000;0.9426;0.5979;
430.8000;0.9426;0.5979;
431.1000;0.9451;0.6075;
431.4000;0.9459;0.6123;
431.7000;0.9434;0.6051;
432.0000;0.9459;0.6075;
432.3000;0.9434;0.6051;
432.6000;0.9459;0.6099;
432.9000;0.9442;0.6147;
433.2000;0.9442;0.6099;
433.5000;0.9442;0.6003;
433.8000;0.9442;0.5955;
434.1000;0.9442;0.5907;
434.4000;0.9434;0.5883;
434.7000;0.9410;0.5859;
435.0000;0.9451;0.5907;
435.3000;0.9418;0.5835;
435.6000;0.9442;0.5883;
435.9000;0.9426;0.5811;
436.2000;0.9451;0.5979;
436.5000;0.9442;0.5907;
436.8000;0.9459;0.5955;
437.1000;0.9451;0.6003;
437.4000;0.9451;0.6027;
437.7000;0.9442;0.6003;
438.0000;0.9434;0.5907;
438.3000;0.9434;0.5859;
438.6000;0.9442;0.5931;
438.9000;0.9434;0.5955;
439.2000;0.9434;0.6027;
439.5000;0.9426;0.6027;
439.8000;0.9418;0.5955;
440.1000;0.9434;0.5907;
440.4000;0.9434;0.5931;
440.7000;0.9451;0.5907;
441.0000;0.9442;0.5907;
441.3000;0.9442;0.5979;
441.6000;0.9459;0.5979;
441.9000;0.9459;0.6003;
442.2000;0.9426;0.5907;
442.5000;0.9377;0.5787;
442.8000;0.9451;0.5955;
443.1000;0.9442;0.5955;
443.4000;0.9442;0.6003;
443.7000;0.9491;0.6051;
444.0000;0.9540;0.6123;
444.3000;0.9410;0.5907;
444.6000;0.9426;0.5859;
444.9000;0.9434;0.5883;
445.2000;0.9459;0.5859;
445.5000;0.9451;0.5907;
445.8000;0.9442;0.5931;
446.1000;0.9426;0.5835;
446.4000;0.9434;0.5835;
446.7000;0.9402;0.5763;
447.0000;0.9442;0.5955;
447.3000;0.9451;0.6003;
447.6000;0.9434;0.6027;
447.9000;0.9418;0.5979;
448.2000;0.9434;0.5955;
448.5000;0.9499;0.6147;
448.8000;0.9434;0.5907;
449.1000;0.9451;0.5931;
449.4000;0.9442;0.5883;
449.7000;0.9451;0.5835;
450.0000;0.9442;0.5811;
450.3000;0.9418;0.5787;
450.6000;0.9451;0.5955;
450.9000;0.9426;0.5955;
451.2000;0.9434;0.5955;
451.5000;0.9459;0.5931;
451.8000;0.9451;0.5931;
452.1000;0.9434;0.5907;
452.4000;0.9451;0.5859;
452.7000;0.9418;0.5883;
453.0000;0.9442;0.6027;
453.3000;0.9418;0.5979;
453.6000;0.9426;0.5907;
453.9000;0.9434;0.5907;
454.2000;0.9434;0.5955;
454.5000;0.9442;0.6075;
454.8000;0.9418;0.6003;
455.1000;0.9426;0.6075;
455.4000;0.9434;0.6099;
455.7000;0.9467;0.6195;
456.0000;0.9426;0.6075;
456.3000;0.9442;0.6051;
456.6000;0.9451;0.6027;
456.9000;0.9442;0.6027;
457.2000;0.9451;0.6123;
457.5000;0.9451;0.6171;
457.8000;0.9434;0.6147;
458.1000;0.9451;0.6099;
458.4000;0.9434;0.6123;
458.7000;0.9459;0.6147;
459.0000;0.9442;0.6123;
459.3000;0.9451;0.6123;
459.6000;0.9459;0.6123;
459.9000;0.9556;0.6315;
460.2000;0.9442;0.5979;
460.5000;0.9451;0.6051;
460.8000;0.9451;0.6003;
461.1000;0.9418;0.5907;
461.4000;0.9434;0.5859;
461.7000;0.9442;0.5883;
462.0000;0.9459;0.5883;
462.3000;0.9451;0.5859;
462.6000;0.9442;0.5811;
462.9000;0.9451;0.5883;
463.2000;0.9434;0.5907;
463.5000;0.9418;0.5835;
463.8000;0.9434;0.5931;
464.1000;0.9426;0.5979;
464.4000;0.9434;0.5907;
464.7000;0.9434;0.5883;
465.0000;0.9402;0.5739;
465.3000;0.9434;0.5787;
465.6000;0.9434;0.5739;
465.9000;0.9540;0.6003;
466.2000;0.9426;0.5787;
466.5000;0.9434;0.5763;
466.8000;0.9434;0.5787;
467.1000;0.9410;0.5691;
467.4000;0.9467;0.5883;
467.7000;0.9524;0.6099;
468.0000;0.9361;0.5715;
468.3000;0.9475;0.5955;
468.6000;0.9434;0.5835;
468.9000;0.9418;0.5835;
469.2000;0.9410;0.5787;
469.5000;0.9434;0.5859;
469.8000;0.9442;0.5811;
470.1000;0.9434;0.5835;
470.4000;0.9402;0.5787;
470.7000;0.9532;0.6075;
471.0000;0.9491;0.5955;
471.3000;0.9426;0.5715;
471.6000;0.9434;0.5739;
471.9000;0.9459;0.5787;
472.2000;0.9451;0.5907;
472.5000;0.9442;0.5931;
472.8000;0.9442;0.5979;
473.1000;0.9442;0.5907;
473.4000;0.9442;0.5931;
473.7000;0.9426;0.5859;
474.0000;0.9426;0.5907;
474.3000;0.9434;0.5907;
474.6000;0.9451;0.5931;
474.9000;0.9385;0.5715;
475.2000;0.9418;0.5859;
475.5000;0.9426;0.5883;
475.8000;0.9434;0.5907;
476.1000;0.9442;0.5979;
476.4000;0.9426;0.6027;
476.7000;0.9434;0.6027;
477.0000;0.9442;0.6027;
477.3000;0.9434;0.5931;
477.6000;0.9434;0.5859;
477.9000;0.9426;0.5907;
478.2000;0.9434;0.5931;
478.5000;0.9451;0.5979;
478.8000;0.9410;0.5907;
479.1000;0.9434;0.5931;
479.4000;0.9434;0.5979;
479.7000;0.9418;0.5955;
480.0000;0.9442;0.6027;
480.3000;0.9451;0.5979;
480.6000;0.9434;0.5931;
480.9000;0.9499;0.6003;
481.2000;0.9459;0.5907;
481.5000;0.9418;0.5763;
481.8000;0.9491;0.5883;
482.1000;0.9451;0.5883;
482.4000;0.9483;0.6099;
482.7000;0.9467;0.6051;
483.0000;0.9442;0.6075;
483.3000;0.9442;0.6051;
483.6000;0.9451;0.6003;
483.9000;0.9434;0.5955;
484.2000;0.9434;0.5979;
484.5000;0.9434;0.6003;
484.8000;0.9434;0.5931;
485.1000;0.9442;0.5907;
485.4000;0.9434;0.5859;
485.7000;0.9434;0.5811;
486.0000;0.9434;0.5715;
486.3000;0.9442;0.5859;
486.6000;0.9418;0.5811;
486.9000;0.9442;0.5883;
487.2000;0.9451;0.5907;
487.5000;0.9434;0.5835;
487.8000;0.9426;0.5739;
488.1000;0.9434;0.5763;
488.4000;0.9418;0.5811;
488.7000;0.9483;0.5955;
489.0000;0.9451;0.5835;
489.3000;0.9434;0.5859;
489.6000;0.9426;0.6027;
489.9000;0.9410;0.5955;
490.2000;0.9418;0.6003;
490.5000;0.9426;0.6003;
490.8000;0.9434;0.5931;
491.1000;0.9475;0.6027;
491.4000;0.9442;0.5907;
491.7000;0.9434;0.5907;
492.0000;0.9442;0.5883;
492.3000;0.9451;0.5955;
492.6000;0.9508;0.6123;
492.9000;0.9459;0.5931;
493.2000;0.9459;0.5907;
493.5000;0.9499;0.5979;
493.8000;0.9434;0.5835;
494.1000;0.9459;0.5859;
494.4000;0.9491;0.5979;
494.7000;0.9442;0.5883;
495.0000;0.9434;0.5811;
495.3000;0.9442;0.5859;
495.6000;0.9369;0.5739;
495.9000;0.9459;0.5907;
496.2000;0.9434;0.5931;
496.5000;0.9434;0.5931;
496.8000;0.9418;0.5907;
497.1000;0.9426;0.5883;
497.4000;0.9426;0.5859;
497.7000;0.9426;0.5907;
498.0000;0.9434;0.5979;
498.3000;0.9451;0.5955;
498.6000;0.9434;0.5883;
498.9000;0.9459;0.5907;
499.2000;0.9426;0.5763;
499.5000;0.9426;0.5787;
499.8000;0.9418;0.5739;
500.1000;0.9442;0.5907;
500.4000;0.9434;0.5835;
500.7000;0.9426;0.5715;
501.0000;0.9426;0.5763;
501.3000;0.9434;0.5763;
501.6000;0.9418;0.5691;
501.9000;0.9402;0.5691;
502.2000;0.9410;0.5787;
502.5000;0.9410;0.5787;
502.8000;0.9426;0.5859;
503.1000;0.9410;0.5835;
503.4000;0.9418;0.5931;
503.7000;0.9467;0.5979;
504.0000;0.9426;0.5883;
504.3000;0.9442;0.5859;
504.6000;0.9459;0.5883;
504.9000;0.9442;0.5811;
505.2000;0.9499;0.5883;
505.5000;0.9442;0.5907;
505.8000;0.9418;0.5883;
506.1000;0.9410;0.5979;
506.4000;0.9467;0.6123;
506.7000;0.9402;0.5931;
507.0000;0.9426;0.6099;
507.3000;0.9426;0.6147;
507.6000;0.9410;0.6099;
507.9000;0.9434;0.6123;
508.2000;0.9434;0.6171;
508.5000;0.9434;0.6075;
508.8000;0.9434;0.6099;
509.1000;0.9459;0.6171;
509.4000;0.9418;0.6147;
509.7000;0.9402;0.6099;
510.0000;0.9426;0.6123;
510.3000;0.9442;0.6123;
510.6000;0.9385;0.6003;
510.9000;0.9418;0.6099;
511.2000;0.9426;0.6147;
511.5000;0.9442;0.6171;
511.8000;0.9426;0.6075;
512.1000;0.9418;0.6099;
512.4000;0.9426;0.6075;
512.7000;0.9442;0.6123;
513.0000;0.9442;0.6051;
513.3000;0.9434;0.6003;
513.6000;0.9467;0.6003;
513.9000;0.9442;0.6003;
514.2000;0.9442;0.6075;
514.5000;0.9410;0.6003;
514.8000;0.9426;0.6003;
515.1000;0.9426;0.5955;
515.4000;0.9434;0.6003;
515.7000;0.9426;0.5979;
516.0000;0.9426;0.6027;
516.3000;0.9426;0.6003;
516.6000;0.9410;0.6003;
516.9000;0.9442;0.6051;
517.2000;0.9483;0.6147;
517.5000;0.9442;0.6099;
517.8000;0.9434;0.6075;
518.1000;0.9451;0.6099;
518.4000;0.9475;0.6171;
518.7000;0.9418;0.6027;
519.0000;0.9394;0.5907;
519.3000;0.9442;0.5907;
519.6000;0.9426;0.5835;
519.9000;0.9410;0.5787;
520.2000;0.9442;0.5835;
520.5000;0.9451;0.5859;
520.8000;0.9434;0.5883;
521.1000;0.9353;0.5787;
521.4000;0.9426;0.6051;
521.7000;0.9442;0.6099;
522.0000;0.9442;0.6195;
522.3000;0.9394;0.6075;
522.6000;0.9394;0.6003;
522.9000;0.9459;0.6075;
523.2000;0.9442;0.6051;
523.5000;0.9467;0.6147;
523.8000;0.9426;0.6003;
524.1000;0.9426;0.6051;
524.4000;0.9442;0.6051;
524.7000;0.9434;0.6051;
525.0000;0.9426;0.6003;
525.3000;0.9434;0.6051;
525.6000;0.9451;0.6051;
525.9000;0.9426;0.6075;
526.2000;0.9402;0.5883;
526.5000;0.9434;0.5859;
526.8000;0.9442;0.5835;
527.1000;0.9426;0.5763;
527.4000;0.9467;0.5811;
527.7000;0.9442;0.5763;
528.0000;0.9418;0.5835;
528.3000;0.9426;0.5907;
528.6000;0.9426;0.5931;
528.9000;0.9402;0.5931;
529.2000;0.9434;0.5955;
529.5000;0.9442;0.5907;
529.8000;0.9451;0.5931;
530.1000;0.9426;0.5787;
530.4000;0.9410;0.5667;
530.7000;0.9426;0.5691;
531.0000;0.9426;0.5739;
531.3000;0.9426;0.5715;
531.6000;0.9418;0.5763;
531.9000;0.9410;0.5835;
532.2000;0.9451;0.5931;
532.5000;0.9418;0.5907;
532.8000;0.9434;0.5931;
533.1000;0.9426;0.5931;
533.4000;0.9426;0.5931;
533.7000;0.9426;0.5835;
534.0000;0.9402;0.5715;
534.3000;0.9385;0.5667;
534.6000;0.9410;0.5787;
534.9000;0.9410;0.5835;
535.2000;0.9402;0.5835;
535.5000;0.9369;0.5763;
535.8000;0.9410;0.5811;
536.1000;0.9426;0.5859;
536.4000;0.9426;0.5931;
536.7000;0.9426;0.5955;
537.0000;0.9410;0.5955;
537.3000;0.9442;0.6075;
537.6000;0.9426;0.6075;
537.9000;0.9426;0.6027;
538.2000;0.9426;0.6027;
538.5000;0.9418;0.6027;
538.8000;0.9418;0.5907;
539.1000;0.9434;0.6003;
539.4000;0.9410;0.5979;
539.7000;0.9442;0.6027;
540.0000;0.9418;0.6051;
540.3000;0.9426;0.6003;
540.6000;0.9434;0.6003;
540.9000;0.9426;0.5907;
541.2000;0.9434;0.5907;
541.5000;0.9418;0.5859;
541.8000;0.9418;0.5859;
542.1000;0.9451;0.5931;
542.4000;0.9442;0.6027;
542.7000;0.9418;0.6027;
543.0000;0.9426;0.5931;
543.3000;0.9434;0.5835;
543.6000;0.9451;0.5739;
543.9000;0.9442;0.5787;
544.2000;0.9434;0.5859;
544.5000;0.9418;0.5787;
544.8000;0.9442;0.5811;
545.1000;0.9418;0.5811;
545.4000;0.9418;0.5883;
545.7000;0.9451;0.5907;
546.0000;0.9442;0.5859;
546.3000;0.9459;0.5931;
546.6000;0.9418;0.5763;
546.9000;0.9426;0.5667;
547.2000;0.9442;0.5667;
547.5000;0.9451;0.5715;
547.8000;0.9434;0.5763;
548.1000;0.9426;0.5787;
548.4000;0.9426;0.5787;
548.7000;0.9442;0.5739;
549.0000;0.9442;0.5715;
549.3000;0.9434;0.5787;
549.6000;0.9434;0.5859;
549.9000;0.9451;0.5979;
550.2000;0.9377;0.5787;
550.5000;0.9442;0.5931;
550.8000;0.9434;0.6003;
551.1000;0.9426;0.6075;
551.4000;0.9418;0.6027;
551.7000;0.9394;0.5979;
552.0000;0.9418;0.6003;
552.3000;0.9426;0.5931;
552.6000;0.9442;0.6051;
552.9000;0.9426;0.5955;
553.2000;0.9426;0.5859;
553.5000;0.9442;0.5811;
553.8000;0.9426;0.5739;
554.1000;0.9434;0.5739;
554.4000;0.9410;0.5715;
554.7000;0.9451;0.5787;
555.0000;0.9442;0.5715;
555.3000;0.9434;0.5691;
555.6000;0.9434;0.5763;
555.9000;0.9410;0.5619;
556.2000;0.9475;0.5811;
556.5000;0.9426;0.5691;
556.8000;0.9434;0.5739;
557.1000;0.9451;0.5787;
557.4000;0.9434;0.5811;
557.7000;0.9459;0.5883;
558.0000;0.9377;0.5715;
558.3000;0.9434;0.5907;
558.6000;0.9434;0.5955;
558.9000;0.9434;0.6051;
559.2000;0.9434;0.6003;
559.5000;0.9451;0.6027;
559.8000;0.9385;0.5835;
560.1000;0.9467;0.5979;
560.4000;0.9434;0.5883;
560.7000;0.9377;0.5835;
561.0000;0.9426;0.6027;
561.3000;0.9410;0.5979;
561.6000;0.9442;0.6075;
561.9000;0.9418;0.6051;
562.2000;0.9442;0.6051;
562.5000;0.9410;0.6075;
562.8000;0.9434;0.6099;
563.1000;0.9418;0.6051;
563.4000;0.9418;0.6051;
563.7000;0.9434;0.6075;
564.0000;0.9434;0.5979;
564.3000;0.9410;0.5883;
564.6000;0.9434;0.5955;
564.9000;0.9410;0.5907;
565.2000;0.9442;0.5907;
565.5000;0.9426;0.5907;
565.8000;0.9426;0.5907;
566.1000;0.9328;0.5691;
566.4000;0.9418;0.5955;
566.7000;0.9418;0.5907;
567.0000;0.9418;0.5835;
567.3000;0.9402;0.5811;
567.6000;0.9418;0.5763;
567.9000;0.9434;0.5835;
568.2000;0.9418;0.5859;
568.5000;0.9385;0.5763;
568.8000;0.9426;0.5835;
569.1000;0.9442;0.5883;
569.4000;0.9442;0.5883;
569.7000;0.9451;0.5955;
570.0000;0.9426;0.6051;
570.3000;0.9451;0.6099;
570.6000;0.9451;0.6099;
570.9000;0.9442;0.6051;
571.2000;0.9442;0.6099;
571.5000;0.9434;0.6075;
571.8000;0.9451;0.6075;
572.1000;0.9442;0.6099;
572.4000;0.9459;0.6099;
572.7000;0.9434;0.6027;
573.0000;0.9442;0.6171;
573.3000;0.9434;0.6195;
573.6000;0.9418;0.6099;
573.9000;0.9426;0.6099;
574.2000;0.9459;0.6171;
574.5000;0.9451;0.6099;
574.8000;0.9434;0.6099;
575.1000;0.9451;0.6195;
575.4000;0.9442;0.6171;
575.7000;0.9442;0.6171;
576.0000;0.9451;0.6147;
576.3000;0.9442;0.6123;
576.6000;0.9451;0.6147;
576.9000;0.9508;0.6243;
577.2000;0.9418;0.6051;
577.5000;0.9426;0.6003;
577.8000;0.9434;0.6027;
578.1000;0.9426;0.5955;
578.4000;0.9410;0.5955;
578.7000;0.9451;0.6123;
579.0000;0.9442;0.6147;
579.3000;0.9442;0.6051;
579.6000;0.9434;0.5955;
579.9000;0.9402;0.5787;
580.2000;0.9467;0.5835;
580.5000;0.9451;0.5835;
580.8000;0.9483;0.5907;
581.1000;0.9434;0.5787;
581.4000;0.9442;0.5787;
581.7000;0.9467;0.5907;
582.0000;0.9426;0.5811;
582.3000;0.9475;0.5907;
582.6000;0.9434;0.5859;
582.9000;0.9434;0.5859;
583.2000;0.9418;0.5859;
583.5000;0.9385;0.5811;
583.8000;0.9467;0.6003;
584.1000;0.9540;0.6147;
584.4000;0.9434;0.6003;
584.7000;0.9418;0.6051;
585.0000;0.9442;0.6075;
585.3000;0.9459;0.6147;
585.6000;0.9434;0.6051;
585.9000;0.9410;0.6099;
586.2000;0.9418;0.6003;
586.5000;0.9361;0.5979;
586.8000;0.9410;0.6075;
587.1000;0.9467;0.6195;
587.4000;0.9410;0.6051;
587.7000;0.9410;0.6003;
588.0000;0.9442;0.6051;
588.3000;0.9418;0.6027;
588.6000;0.9410;0.6027;
588.9000;0.9418;0.6051;
589.2000;0.9426;0.6051;
589.5000;0.9410;0.6027;
589.8000;0.9410;0.6051;
590.1000;0.9434;0.6243;
590.4000;0.9410;0.6195;
590.7000;0.9442;0.6195;
591.0000;0.9418;0.6051;
591.3000;0.9418;0.6051;
591.6000;0.9418;0.6075;
591.9000;0.9394;0.6027;
592.2000;0.9426;0.6051;
592.5000;0.9410;0.5907;
592.8000;0.9394;0.5835;
593.1000;0.9402;0.5835;
593.4000;0.9434;0.5979;
593.7000;0.9442;0.5931;
594.0000;0.9418;0.5955;
594.3000;0.9434;0.5979;
594.6000;0.9426;0.5931;
594.9000;0.9410;0.5859;
595.2000;0.9451;0.5859;
595.5000;0.9442;0.5787;
595.8000;0.9442;0.5763;
596.1000;0.9426;0.5763;
596.4000;0.9442;0.5907;
596.7000;0.9459;0.5979;
597.0000;0.9418;0.5883;
597.3000;0.9540;0.6219;
597.6000;0.9418;0.5859;
597.9000;0.9426;0.5907;
598.2000;0.9467;0.6051;
598.5000;0.9426;0.5931;
598.8000;0.9377;0.5907;
599.1000;0.9418;0.6003;
599.4000;0.9345;0.5739;
599.7000;0.9434;0.6003;
600.0000;0.9434;0.6051;
600.3000;0.9361;0.5667;
600.6000;0.9467;0.5739;
600.9000;0.9451;0.5595;
601.2000;0.9402;0.5403;
601.5000;0.9328;0.5115;
601.8000;0.9280;0.4947;
602.1000;0.9239;0.4755;
602.4000;0.9166;0.4610;
602.7000;0.9084;0.4418;
603.0000;0.9052;0.4370;
603.3000;0.9011;0.4322;
603.6000;0.9003;0.4322;
603.9000;0.8889;0.4034;
604.2000;0.8864;0.4034;
604.5000;0.8824;0.3962;
604.8000;0.8775;0.3914;
605.1000;0.8726;0.3818;
605.4000;0.8702;0.3794;
605.7000;0.8653;0.3626;
606.0000;0.8628;0.3602;
606.3000;0.8596;0.3626;
606.6000;0.8563;0.3602;
606.9000;0.8523;0.3506;
607.2000;0.8490;0.3410;
607.5000;0.8474;0.3362;
607.8000;0.8409;0.3218;
608.1000;0.8425;0.3242;
608.4000;0.8384;0.3290;
608.7000;0.8376;0.3194;
609.0000;0.8327;0.3242;
609.3000;0.8295;0.3290;
609.6000;0.8278;0.3362;
609.9000;0.8254;0.3362;
610.2000;0.8246;0.3362;
610.5000;0.8205;0.3314;
610.8000;0.8107;0.3002;
611.1000;0.8173;0.3170;
611.4000;0.8148;0.3146;
611.7000;0.8124;0.3146;
612.0000;0.8107;0.3170;
612.3000;0.8107;0.3146;
612.6000;0.8050;0.3170;
612.9000;0.8034;0.3218;
613.2000;0.8026;0.3194;
613.5000;0.8002;0.3122;
613.8000;0.8002;0.3146;
614.1000;0.7945;0.3170;
614.4000;0.7961;0.3218;
614.7000;0.7953;0.3218;
615.0000;0.7888;0.3098;
615.3000;0.7928;0.3218;
615.6000;0.7880;0.3218;
615.9000;0.7880;0.3218;
616.2000;0.7880;0.3218;
616.5000;0.7831;0.3074;
616.8000;0.7823;0.3074;
617.1000;0.7839;0.3170;
617.4000;0.7798;0.3122;
617.7000;0.7782;0.3050;
618.0000;0.7790;0.3098;
618.3000;0.7757;0.3122;
618.6000;0.7733;0.3074;
618.9000;0.7717;0.3074;
619.2000;0.7717;0.3170;
619.5000;0.7700;0.3098;
619.8000;0.7603;0.2906;
620.1000;0.7676;0.3050;
620.4000;0.7692;0.2978;
620.7000;0.7733;0.3122;
621.0000;0.7668;0.2858;
621.3000;0.7652;0.2785;
621.6000;0.7635;0.2737;
621.9000;0.7611;0.2617;
622.2000;0.7619;0.2617;
622.5000;0.7595;0.2665;
622.8000;0.7562;0.2713;
623.1000;0.7570;0.2761;
623.4000;0.7578;0.2785;
623.7000;0.7554;0.2761;
624.0000;0.7538;0.2785;
624.3000;0.7538;0.2810;
624.6000;0.7530;0.2810;
624.9000;0.7505;0.2713;
625.2000;0.7521;0.2713;
625.5000;0.7530;0.2737;
625.8000;0.7481;0.2665;
626.1000;0.7473;0.2665;
626.4000;0.7448;0.2689;
626.7000;0.7456;0.2713;
627.0000;0.7440;0.2737;
627.3000;0.7416;0.2665;
627.6000;0.7440;0.2785;
627.9000;0.7399;0.2785;
628.2000;0.7407;0.2761;
628.5000;0.7407;0.2737;
628.8000;0.7391;0.2810;
629.1000;0.7383;0.2834;
629.4000;0.7367;0.2858;
629.7000;0.7350;0.2761;
630.0000;0.7359;0.2882;
630.3000;0.7350;0.2834;
630.6000;0.7367;0.2882;
630.9000;0.7277;0.2689;
631.2000;0.7326;0.2834;
631.5000;0.7326;0.2785;
631.8000;0.7302;0.2785;
632.1000;0.7302;0.2810;
632.4000;0.7293;0.2785;
632.7000;0.7277;0.2785;
633.0000;0.7261;0.2737;
633.3000;0.7261;0.2785;
633.6000;0.7261;0.2737;
633.9000;0.7253;0.2761;
634.2000;0.7245;0.2785;
634.5000;0.7220;0.2785;
634.8000;0.7220;0.2810;
635.1000;0.7228;0.2882;
635.4000;0.7188;0.2785;
635.7000;0.7212;0.2882;
636.0000;0.7188;0.2834;
636.3000;0.7204;0.2785;
636.6000;0.7204;0.2785;
636.9000;0.7220;0.2785;
637.2000;0.7188;0.2689;
637.5000;0.7188;0.2689;
637.8000;0.7171;0.2713;
638.1000;0.7171;0.2713;
638.4000;0.7098;0.2545;
638.7000;0.7139;0.2689;
639.0000;0.7163;0.2737;
639.3000;0.7163;0.2713;
639.6000;0.7139;0.2713;
639.9000;0.7188;0.2810;
640.2000;0.7139;0.2713;
640.5000;0.7147;0.2761;
640.8000;0.7106;0.2665;
641.1000;0.7106;0.2689;
641.4000;0.7041;0.2545;
641.7000;0.7098;0.2761;
642.0000;0.6984;0.2545;
642.3000;0.7074;0.2810;
642.6000;0.7098;0.2882;
642.9000;0.7082;0.2858;
643.2000;0.7057;0.2785;
643.5000;0.7041;0.2737;
643.8000;0.7041;0.2810;
644.1000;0.7066;0.2906;
644.4000;0.7041;0.2906;
644.7000;0.7066;0.2954;
645.0000;0.7041;0.2882;
645.3000;0.7041;0.2858;
645.6000;0.7017;0.2810;
645.9000;0.7017;0.2785;
646.2000;0.7114;0.3074;
646.5000;0.7017;0.2834;
646.8000;0.6952;0.2761;
647.1000;0.7009;0.2785;
647.4000;0.6976;0.2689;
647.7000;0.6984;0.2713;
648.0000;0.6984;0.2617;
648.3000;0.6968;0.2641;
648.6000;0.6984;0.2761;
648.9000;0.6968;0.2713;
649.2000;0.6992;0.2810;
649.5000;0.6968;0.2737;
649.8000;0.6968;0.2858;
650.1000;0.6960;0.2930;
650.4000;0.6919;0.2810;
650.7000;0.6960;0.3026;
651.0000;0.6952;0.2930;
651.3000;0.6935;0.2906;
651.6000;0.6935;0.2954;
651.9000;0.6992;0.3098;
652.2000;0.6960;0.3002;
652.5000;0.6927;0.2930;
652.8000;0.6935;0.3050;
653.1000;0.6935;0.2978;
653.4000;0.6903;0.2858;
653.7000;0.6878;0.2810;
654.0000;0.6911;0.2834;
654.3000;0.6903;0.2858;
654.6000;0.6927;0.2858;
654.9000;0.6911;0.2810;
655.2000;0.6960;0.3026;
655.5000;0.6903;0.2978;
655.8000;0.6895;0.2930;
656.1000;0.6805;0.2617;
656.4000;0.6870;0.2858;
656.7000;0.6878;0.2882;
657.0000;0.6935;0.3002;
657.3000;0.6862;0.2906;
657.6000;0.6862;0.2810;
657.9000;0.6854;0.2810;
658.2000;0.6862;0.2834;
658.5000;0.6870;0.2954;
658.8000;0.6952;0.3242;
659.1000;0.6854;0.2954;
659.4000;0.6846;0.2978;
659.7000;0.6821;0.2858;
660.0000;0.6838;0.2858;
660.3000;0.6829;0.2785;
660.6000;0.6829;0.2785;
660.9000;0.6838;0.2834;
661.2000;0.6821;0.2810;
661.5000;0.6821;0.2858;
661.8000;0.6821;0.2954;
662.1000;0.6821;0.2858;
662.4000;0.6797;0.2761;
662.7000;0.6813;0.2785;
663.0000;0.6878;0.2930;
663.3000;0.6797;0.2737;
663.6000;0.6781;0.2665;
663.9000;0.6789;0.2665;
664.2000;0.6789;0.2713;
664.5000;0.6797;0.2834;
664.8000;0.6764;0.2810;
665.1000;0.6781;0.2930;
665.4000;0.6781;0.2954;
665.7000;0.6772;0.3026;
666.0000;0.6772;0.3098;
666.3000;0.6781;0.3026;
666.6000;0.6781;0.2906;
666.9000;0.6732;0.2785;
667.2000;0.6756;0.2785;
667.5000;0.6756;0.2737;
667.8000;0.6748;0.2761;
668.1000;0.6748;0.2713;
668.4000;0.6740;0.2785;
668.7000;0.6716;0.2785;
669.0000;0.6724;0.2906;
669.3000;0.6740;0.2954;
669.6000;0.6781;0.3050;
669.9000;0.6667;0.2785;
670.2000;0.6716;0.2954;
670.5000;0.6772;0.3122;
670.8000;0.6691;0.2882;
671.1000;0.6724;0.3002;
671.4000;0.6732;0.2978;
671.7000;0.6732;0.2930;
672.0000;0.6707;0.2785;
672.3000;0.6724;0.2761;
672.6000;0.6748;0.2834;
672.9000;0.6724;0.2761;
673.2000;0.6707;0.2737;
673.5000;0.6683;0.2689;
673.8000;0.6699;0.2761;
674.1000;0.6707;0.2906;
674.4000;0.6707;0.2954;
674.7000;0.6772;0.3242;
675.0000;0.6683;0.3050;
675.3000;0.6781;0.3218;
675.6000;0.6724;0.3098;
675.9000;0.6642;0.2930;
676.2000;0.6675;0.2930;
676.5000;0.6667;0.2954;
676.8000;0.6610;0.2785;
677.1000;0.6667;0.2978;
677.4000;0.6659;0.2906;
677.7000;0.6707;0.3026;
678.0000;0.6683;0.2978;
678.3000;0.6675;0.2978;
678.6000;0.6667;0.2930;
678.9000;0.6634;0.2785;
679.2000;0.6610;0.2641;
679.5000;0.6642;0.2785;
679.8000;0.6667;0.2834;
680.1000;0.6602;0.2737;
680.4000;0.6667;0.2858;
680.7000;0.6650;0.2858;
681.0000;0.6642;0.2858;
681.3000;0.6659;0.2906;
681.6000;0.6659;0.2930;
681.9000;0.6642;0.2906;
682.2000;0.6634;0.2834;
682.5000;0.6626;0.2834;
682.8000;0.6634;0.2858;
683.1000;0.6610;0.2810;
683.4000;0.6593;0.2737;
683.7000;0.6610;0.2810;
684.0000;0.6553;0.2617;
684.3000;0.6610;0.2737;
684.6000;0.6602;0.2689;
684.9000;0.6569;0.2617;
685.2000;0.6618;0.2737;
685.5000;0.6602;0.2737;
685.8000;0.6618;0.2785;
686.1000;0.6626;0.2834;
686.4000;0.6593;0.2785;
686.7000;0.6610;0.2785;
687.0000;0.6602;0.2858;
687.3000;0.6593;0.2906;
687.6000;0.6577;0.2930;
687.9000;0.6602;0.2858;
688.2000;0.6602;0.2858;
688.5000;0.6602;0.2906;
688.8000;0.6593;0.2930;
689.1000;0.6593;0.2954;
689.4000;0.6520;0.2785;
689.7000;0.6569;0.2978;
690.0000;0.6618;0.3050;
690.3000;0.6577;0.2882;
690.6000;0.6577;0.2785;
690.9000;0.6569;0.2737;
691.2000;0.6602;0.2834;
691.5000;0.6618;0.2954;
691.8000;0.6569;0.2906;
692.1000;0.6561;0.2930;
692.4000;0.6569;0.2906;
692.7000;0.6553;0.2834;
693.0000;0.6545;0.2930;
693.3000;0.6569;0.3026;
693.6000;0.6659;0.3242;
693.9000;0.6561;0.2930;
694.2000;0.6545;0.2906;
694.5000;0.6536;0.2882;
694.8000;0.6536;0.2882;
695.1000;0.6577;0.2930;
695.4000;0.6553;0.2882;
695.7000;0.6561;0.2906;
696.0000;0.6545;0.2882;
696.3000;0.6545;0.2882;
696.6000;0.6561;0.2834;
696.9000;0.6536;0.2810;
697.2000;0.6545;0.2834;
697.5000;0.6536;0.2882;
697.8000;0.6536;0.2906;
698.1000;0.6528;0.2930;
698.4000;0.6520;0.2906;
698.7000;0.6545;0.3002;
699.0000;0.6561;0.2978;
699.3000;0.6512;0.2882;
699.6000;0.6528;0.2858;
699.9000;0.6545;0.2930;
700.2000;0.6553;0.2978;
700.5000;0.6528;0.2978;
700.8000;0.6471;0.2761;
701.1000;0.6528;0.2858;
701.4000;0.6536;0.2930;
701.7000;0.6520;0.2906;
702.0000;0.6496;0.2785;
702.3000;0.6520;0.2810;
702.6000;0.6512;0.2810;
702.9000;0.6553;0.2954;
703.2000;0.6520;0.2906;
703.5000;0.6504;0.2930;
703.8000;0.6496;0.2882;
704.1000;0.6512;0.2858;
704.4000;0.6488;0.2810;
704.7000;0.6488;0.2834;
705.0000;0.6488;0.2858;
705.3000;0.6496;0.2834;
705.6000;0.6512;0.2930;
705.9000;0.6504;0.2906;
706.2000;0.6512;0.2882;
706.5000;0.6504;0.2882;
706.8000;0.6577;0.3002;
707.1000;0.6504;0.2858;
707.4000;0.6488;0.2785;
707.7000;0.6512;0.2761;
708.0000;0.6479;0.2737;
708.3000;0.6471;0.2737;
708.6000;0.6439;0.2641;
708.9000;0.6463;0.2713;
709.2000;0.6488;0.2761;
709.5000;0.6463;0.2713;
709.8000;0.6471;0.2713;
710.1000;0.6536;0.2810;
710.4000;0.6479;0.2689;
710.7000;0.6479;0.2761;
711.0000;0.6488;0.2810;
711.3000;0.6471;0.2737;
711.6000;0.6512;0.2810;
711.9000;0.6471;0.2761;
712.2000;0.6504;0.2834;
712.5000;0.6471;0.2761;
712.8000;0.6431;0.2737;
713.1000;0.6447;0.2689;
713.4000;0.6463;0.2713;
713.7000;0.6414;0.2617;
714.0000;0.6488;0.2882;
714.3000;0.6463;0.2858;
714.6000;0.6471;0.2882;
714.9000;0.6463;0.2906;
715.2000;0.6488;0.2978;
715.5000;0.6455;0.2882;
715.8000;0.6447;0.2810;
716.1000;0.6439;0.2689;
716.4000;0.6439;0.2810;
716.7000;0.6365;0.2545;
717.0000;0.6455;0.2785;
717.3000;0.6455;0.2785;
717.6000;0.6447;0.2761;
717.9000;0.6447;0.2785;
718.2000;0.6422;0.2713;
718.5000;0.6439;0.2713;
718.8000;0.6447;0.2761;
719.1000;0.6455;0.2785;
719.4000;0.6439;0.2858;
719.7000;0.6447;0.2882;
720.0000;0.6431;0.2810;
720.3000;0.6439;0.2834;
720.6000;0.6439;0.2858;
720.9000;0.6439;0.2858;
721.2000;0.6431;0.2737;
721.5000;0.6422;0.2785;
721.8000;0.6488;0.3002;
722.1000;0.6422;0.2858;
722.4000;0.6439;0.2858;
722.7000;0.6431;0.2810;
723.0000;0.6431;0.2810;
723.3000;0.6447;0.2785;
723.6000;0.6447;0.2858;
723.9000;0.6447;0.2930;
724.2000;0.6431;0.3002;
724.5000;0.6422;0.3002;
724.8000;0.6414;0.3002;
725.1000;0.6422;0.3002;
725.4000;0.6414;0.2978;
725.7000;0.6431;0.3050;
726.0000;0.6422;0.3050;
726.3000;0.6431;0.3002;
726.6000;0.6422;0.2978;
726.9000;0.6536;0.3122;
727.2000;0.6431;0.2810;
727.5000;0.6414;0.2785;
727.8000;0.6422;0.2858;
728.1000;0.6439;0.2810;
728.4000;0.6414;0.2834;
728.7000;0.6398;0.2713;
729.0000;0.6406;0.2641;
729.3000;0.6398;0.2737;
729.6000;0.6422;0.2810;
729.9000;0.6463;0.2810;
730.2000;0.6414;0.2713;
730.5000;0.6398;0.2761;
730.8000;0.6414;0.2785;
731.1000;0.6414;0.2785;
731.4000;0.6414;0.2761;
731.7000;0.6398;0.2858;
732.0000;0.6398;0.2858;
732.3000;0.6414;0.2785;
732.6000;0.6398;0.2785;
732.9000;0.6406;0.2954;
733.2000;0.6406;0.2930;
733.5000;0.6422;0.2906;
733.8000;0.6406;0.3002;
734.1000;0.6414;0.3026;
734.4000;0.6398;0.3050;
734.7000;0.6390;0.3074;
735.0000;0.6398;0.3098;
735.3000;0.6431;0.3194;
735.6000;0.6398;0.3050;
735.9000;0.6398;0.3146;
736.2000;0.6390;0.3146;
736.5000;0.6398;0.3122;
736.8000;0.6382;0.3098;
737.1000;0.6398;0.3098;
737.4000;0.6382;0.3074;
737.7000;0.6398;0.3050;
738.0000;0.6374;0.3002;
738.3000;0.6325;0.2906;
738.6000;0.6390;0.2954;
738.9000;0.6406;0.2954;
739.2000;0.6365;0.2978;
739.5000;0.6357;0.2978;
739.8000;0.6374;0.3050;
740.1000;0.6390;0.3122;
740.4000;0.6479;0.3290;
740.7000;0.6382;0.3002;
741.0000;0.6365;0.2978;
741.3000;0.6382;0.2954;
741.6000;0.6382;0.2906;
741.9000;0.6374;0.2858;
742.2000;0.6390;0.2978;
742.5000;0.6390;0.2906;
742.8000;0.6382;0.2882;
743.1000;0.6382;0.2882;
743.4000;0.6398;0.2930;
743.7000;0.6382;0.2858;
744.0000;0.6390;0.2882;
744.3000;0.6374;0.2858;
744.6000;0.6333;0.2810;
744.9000;0.6365;0.2810;
745.2000;0.6365;0.2858;
745.5000;0.6292;0.2713;
745.8000;0.6357;0.2858;
746.1000;0.6357;0.2858;
746.4000;0.6357;0.2930;
746.7000;0.6365;0.2954;
747.0000;0.6349;0.2930;
747.3000;0.6382;0.2978;
747.6000;0.6365;0.2978;
747.9000;0.6422;0.3098;
748.2000;0.6365;0.2834;
748.5000;0.6382;0.2834;
748.8000;0.6357;0.2834;
749.1000;0.6357;0.2882;
749.4000;0.6349;0.2882;
749.7000;0.6341;0.2858;
750.0000;0.6357;0.2930;
750.3000;0.6341;0.2906;
750.6000;0.6341;0.2930;
750.9000;0.6325;0.2834;
751.2000;0.6374;0.2906;
751.5000;0.6349;0.2930;
751.8000;0.6341;0.2882;
752.1000;0.6325;0.2810;
752.4000;0.6349;0.2785;
752.7000;0.6357;0.2761;
753.0000;0.6349;0.2810;
753.3000;0.6341;0.2810;
753.6000;0.6333;0.2834;
753.9000;0.6374;0.2858;
754.2000;0.6357;0.2737;
754.5000;0.6349;0.2713;
754.8000;0.6357;0.2785;
755.1000;0.6268;0.2617;
755.4000;0.6341;0.2810;
755.7000;0.6325;0.2834;
756.0000;0.6325;0.2810;
756.3000;0.6365;0.2882;
756.6000;0.6333;0.2834;
756.9000;0.6300;0.2665;
757.2000;0.6325;0.2689;
757.5000;0.6333;0.2761;
757.8000;0.6349;0.2858;
758.1000;0.6341;0.2882;
758.4000;0.6333;0.2858;
758.7000;0.6325;0.2834;
759.0000;0.6333;0.2858;
759.3000;0.6333;0.2761;
759.6000;0.6341;0.2785;
759.9000;0.6300;0.2617;
760.2000;0.6325;0.2689;
760.5000;0.6333;0.2689;
760.8000;0.6333;0.2641;
761.1000;0.6333;0.2713;
761.4000;0.6333;0.2737;
761.7000;0.6333;0.2737;
762.0000;0.6349;0.2810;
762.3000;0.6325;0.2665;
762.6000;0.6333;0.2713;
762.9000;0.6333;0.2617;
763.2000;0.6333;0.2617;
763.5000;0.6349;0.2737;
763.8000;0.6333;0.2785;
764.1000;0.6333;0.2834;
764.4000;0.6317;0.2810;
764.7000;0.6365;0.2930;
765.0000;0.6309;0.2761;
765.3000;0.6284;0.2713;
765.6000;0.6325;0.2810;
765.9000;0.6292;0.2737;
766.2000;0.6325;0.2737;
766.5000;0.6333;0.2834;
766.8000;0.6325;0.2810;
767.1000;0.6309;0.2834;
767.4000;0.6325;0.2930;
767.7000;0.6325;0.2906;
768.0000;0.6309;0.2834;
768.3000;0.6317;0.2810;
768.6000;0.6309;0.2785;
768.9000;0.6341;0.2906;
769.2000;0.6325;0.2858;
769.5000;0.6292;0.2834;
769.8000;0.6268;0.2761;
770.1000;0.6333;0.2882;
770.4000;0.6325;0.2834;
770.7000;0.6309;0.2834;
771.0000;0.6309;0.2761;
771.3000;0.6317;0.2737;
771.6000;0.6317;0.2689;
771.9000;0.6333;0.2737;
772.2000;0.6317;0.2713;
772.5000;0.6357;0.2785;
772.8000;0.6292;0.2617;
773.1000;0.6349;0.2737;
773.4000;0.6309;0.2665;
773.7000;0.6309;0.2665;
774.0000;0.6284;0.2593;
774.3000;0.6309;0.2641;
774.6000;0.6300;0.2761;
774.9000;0.6309;0.2858;
775.2000;0.6309;0.2834;
775.5000;0.6300;0.2834;
775.8000;0.6300;0.2785;
776.1000;0.6219;0.2569;
776.4000;0.6284;0.2737;
776.7000;0.6300;0.2761;
777.0000;0.6292;0.2641;
777.3000;0.6284;0.2641;
777.6000;0.6309;0.2713;
777.9000;0.6284;0.2713;
778.2000;0.6292;0.2641;
778.5000;0.6276;0.2617;
778.8000;0.6292;0.2665;
779.1000;0.6300;0.2713;
779.4000;0.6317;0.2737;
779.7000;0.6227;0.2521;
780.0000;0.6317;0.2810;
780.3000;0.6284;0.2737;
780.6000;0.6300;0.2761;
780.9000;0.6300;0.2689;
781.2000;0.6276;0.2689;
781.5000;0.6300;0.2785;
781.8000;0.6300;0.2785;
782.1000;0.6284;0.2737;
782.4000;0.6260;0.2737;
782.7000;0.6219;0.2569;
783.0000;0.6317;0.2906;
783.3000;0.6333;0.3002;
783.6000;0.6284;0.2810;
783.9000;0.6268;0.2785;
784.2000;0.6268;0.2834;
784.5000;0.6357;0.3074;
784.8000;0.6276;0.2882;
785.1000;0.6268;0.2882;
785.4000;0.6268;0.2882;
785.7000;0.6284;0.2930;
786.0000;0.6276;0.2858;
786.3000;0.6268;0.2882;
786.6000;0.6243;0.2737;
786.9000;0.6276;0.2882;
787.2000;0.6276;0.2882;
787.5000;0.6268;0.2858;
787.8000;0.6268;0.2882;
788.1000;0.6292;0.2906;
788.4000;0.6317;0.2954;
788.7000;0.6349;0.2954;
789.0000;0.6268;0.2810;
789.3000;0.6292;0.2882;
789.6000;0.6284;0.2834;
789.9000;0.6333;0.2978;
790.2000;0.6276;0.2930;
790.5000;0.6309;0.2978;
790.8000;0.6268;0.2954;
791.1000;0.6276;0.2954;
791.4000;0.6276;0.3026;
791.7000;0.6284;0.2978;
792.0000;0.6317;0.3002;
792.3000;0.6276;0.2930;
792.6000;0.6284;0.2978;
792.9000;0.6317;0.2954;
793.2000;0.6276;0.2906;
793.5000;0.6268;0.2834;
793.8000;0.6284;0.2930;
794.1000;0.6276;0.2930;
794.4000;0.6284;0.2930;
794.7000;0.6292;0.2930;
795.0000;0.6292;0.2954;
795.3000;0.6276;0.2882;
795.6000;0.6284;0.2954;
795.9000;0.6349;0.3170;
796.2000;0.6284;0.2954;
796.5000;0.6252;0.2858;
796.8000;0.6276;0.2882;
797.1000;0.6243;0.2785;
797.4000;0.6252;0.2810;
797.7000;0.6268;0.2810;
798.0000;0.6211;0.2641;
798.3000;0.6268;0.2737;
798.6000;0.6276;0.2713;
798.9000;0.6211;0.2641;
799.2000;0.6260;0.2785;
799.5000;0.6268;0.2834;
799.8000;0.6243;0.2930;
800.1000;0.6252;0.2906;
800.4000;0.6252;0.2930;
800.7000;0.6349;0.3218;
801.0000;0.6292;0.3002;
801.3000;0.6243;0.2858;
801.6000;0.6211;0.2737;
801.9000;0.6260;0.2882;
802.2000;0.6268;0.2930;
802.5000;0.6219;0.2858;
802.8000;0.6260;0.2954;
803.1000;0.6284;0.3026;
803.4000;0.6260;0.2906;
803.7000;0.6260;0.2882;
804.0000;0.6260;0.2954;
804.3000;0.6243;0.2930;
804.6000;0.6243;0.2906;
804.9000;0.6243;0.2858;
805.2000;0.6235;0.2882;
805.5000;0.6235;0.2810;
805.8000;0.6268;0.2882;
806.1000;0.6252;0.2834;
806.4000;0.6227;0.2858;
806.7000;0.6243;0.2834;
807.0000;0.6252;0.2834;
807.3000;0.6260;0.2930;
807.6000;0.6260;0.2858;
807.9000;0.6260;0.2834;
808.2000;0.6243;0.2785;
808.5000;0.6252;0.2761;
808.8000;0.6235;0.2737;
809.1000;0.6243;0.2761;
809.4000;0.6235;0.2810;
809.7000;0.6260;0.2810;
810.0000;0.6252;0.2834;
810.3000;0.6252;0.2858;
810.6000;0.6260;0.2906;
810.9000;0.6260;0.3002;
811.2000;0.6243;0.3050;
811.5000;0.6227;0.3026;
811.8000;0.6227;0.2930;
812.1000;0.6252;0.3002;
812.4000;0.6260;0.3050;
812.7000;0.6252;0.2930;
813.0000;0.6260;0.2834;
813.3000;0.6260;0.2858;
813.6000;0.6252;0.2810;
813.9000;0.6252;0.2834;
814.2000;0.6252;0.2761;
814.5000;0.6235;0.2810;
814.8000;0.6211;0.2737;
815.1000;0.6219;0.2737;
815.4000;0.6227;0.2665;
815.7000;0.6227;0.2737;
816.0000;0.6292;0.2930;
816.3000;0.6235;0.2761;
816.6000;0.6219;0.2665;
816.9000;0.6227;0.2713;
817.2000;0.6252;0.2641;
817.5000;0.6227;0.2617;
817.8000;0.6227;0.2689;
818.1000;0.6252;0.2737;
818.4000;0.6243;0.2761;
818.7000;0.6243;0.2810;
819.0000;0.6252;0.2834;
819.3000;0.6227;0.2810;
819.6000;0.6211;0.2834;
819.9000;0.6227;0.2761;
820.2000;0.6243;0.2785;
820.5000;0.6227;0.2761;
820.8000;0.6235;0.2785;
821.1000;0.6243;0.2810;
821.4000;0.6219;0.2737;
821.7000;0.6243;0.2785;
822.0000;0.6235;0.2713;
822.3000;0.6252;0.2834;
822.6000;0.6252;0.2882;
822.9000;0.6219;0.2785;
823.2000;0.6243;0.2761;
823.5000;0.6235;0.2834;
823.8000;0.6260;0.2930;
824.1000;0.6243;0.2858;
824.4000;0.6260;0.2906;
824.7000;0.6235;0.2785;
825.0000;0.6243;0.2761;
825.3000;0.6235;0.2785;
825.6000;0.6219;0.2737;
825.9000;0.6227;0.2641;
826.2000;0.6235;0.2689;
826.5000;0.6195;0.2569;
826.8000;0.6186;0.2497;
827.1000;0.6219;0.2545;
827.4000;0.6219;0.2569;
827.7000;0.6235;0.2593;
828.0000;0.6219;0.2545;
828.3000;0.6211;0.2449;
828.6000;0.6227;0.2425;
828.9000;0.6235;0.2545;
829.2000;0.6211;0.2593;
829.5000;0.6219;0.2641;
829.8000;0.6162;0.2473;
830.1000;0.6227;0.2641;
830.4000;0.6219;0.2737;
830.7000;0.6227;0.2665;
831.0000;0.6211;0.2569;
831.3000;0.6227;0.2641;
831.6000;0.6219;0.2785;
831.9000;0.6162;0.2641;
832.2000;0.6219;0.2785;
832.5000;0.6211;0.2737;
832.8000;0.6203;0.2737;
833.1000;0.6203;0.2689;
833.4000;0.6203;0.2689;
833.7000;0.6227;0.2810;
834.0000;0.6243;0.2810;
834.3000;0.6235;0.2858;
834.6000;0.6227;0.2858;
834.9000;0.6195;0.2858;
835.2000;0.6227;0.3026;
835.5000;0.6235;0.3050;
835.8000;0.6227;0.3050;
836.1000;0.6235;0.3170;
836.4000;0.6227;0.3170;
836.7000;0.6227;0.3170;
837.0000;0.6227;0.3122;
837.3000;0.6227;0.3074;
837.6000;0.6219;0.3050;
837.9000;0.6227;0.2978;
838.2000;0.6211;0.2882;
838.5000;0.6219;0.2882;
838.8000;0.6211;0.2737;
839.1000;0.6211;0.2689;
839.4000;0.6219;0.2737;
839.7000;0.6211;0.2761;
840.0000;0.6178;0.2713;
840.3000;0.6219;0.2810;
840.6000;0.6211;0.2785;
840.9000;0.6195;0.2761;
841.2000;0.6211;0.2834;
841.5000;0.6219;0.2882;
841.8000;0.6170;0.2713;
842.1000;0.6211;0.2858;
842.4000;0.6203;0.2858;
842.7000;0.6219;0.2810;
843.0000;0.6219;0.2858;
843.3000;0.6178;0.2761;
843.6000;0.6227;0.2906;
843.9000;0.6235;0.3002;
844.2000;0.6219;0.3074;
844.5000;0.6195;0.2954;
844.8000;0.6227;0.3050;
845.1000;0.6211;0.2978;
845.4000;0.6235;0.3122;
845.7000;0.6219;0.3050;
846.0000;0.6227;0.3098;
846.3000;0.6219;0.3026;
846.6000;0.6203;0.2978;
846.9000;0.6227;0.3026;
847.2000;0.6211;0.3026;
847.5000;0.6211;0.3002;
847.8000;0.6203;0.2906;
848.1000;0.6227;0.2930;
848.4000;0.6219;0.2882;
848.7000;0.6211;0.2858;
849.0000;0.6268;0.3074;
849.3000;0.6219;0.2906;
849.6000;0.6195;0.2785;
849.9000;0.6203;0.2810;
850.2000;0.6219;0.2810;
850.5000;0.6235;0.2858;
850.8000;0.6211;0.2785;
851.1000;0.6219;0.2882;
851.4000;0.6219;0.2882;
851.7000;0.6227;0.2882;
852.0000;0.6186;0.2834;
852.3000;0.6178;0.2785;
852.6000;0.6211;0.2834;
852.9000;0.6252;0.2882;
853.2000;0.6227;0.2761;
853.5000;0.6203;0.2689;
853.8000;0.6227;0.2834;
854.1000;0.6203;0.2858;
854.4000;0.6219;0.2882;
854.7000;0.6227;0.2930;
855.0000;0.6195;0.2834;
855.3000;0.6211;0.2882;
855.6000;0.6211;0.2834;
855.9000;0.6211;0.2834;
856.2000;0.6203;0.2834;
856.5000;0.6211;0.2906;
856.8000;0.6203;0.2954;
857.1000;0.6195;0.2858;
857.4000;0.6203;0.2906;
857.7000;0.6203;0.2882;
858.0000;0.6243;0.3002;
858.3000;0.6203;0.2954;
858.6000;0.6252;0.3002;
858.9000;0.6211;0.2954;
859.2000;0.6227;0.2978;
859.5000;0.6235;0.3002;
859.8000;0.6219;0.2906;
860.1000;0.6178;0.2761;
860.4000;0.6203;0.2713;
860.7000;0.6203;0.2641;
861.0000;0.6138;0.2497;
861.3000;0.6195;0.2665;
861.6000;0.6195;0.2761;
861.9000;0.6186;0.2713;
862.2000;0.6203;0.2689;
862.5000;0.6203;0.2737;
862.8000;0.6211;0.2785;
863.1000;0.6195;0.2761;
863.4000;0.6170;0.2737;
863.7000;0.6211;0.2858;
864.0000;0.6186;0.2810;
864.3000;0.6186;0.2834;
864.6000;0.6203;0.2858;
864.9000;0.6138;0.2665;
865.2000;0.6195;0.2810;
865.5000;0.6186;0.2810;
865.8000;0.6211;0.2761;
866.1000;0.6203;0.2737;
866.4000;0.6186;0.2713;
866.7000;0.6186;0.2713;
867.0000;0.6203;0.2737;
867.3000;0.6203;0.2689;
867.6000;0.6203;0.2689;
867.9000;0.6186;0.2761;
868.2000;0.6195;0.2810;
868.5000;0.6195;0.2737;
868.8000;0.6211;0.2882;
869.1000;0.6203;0.2810;
869.4000;0.6211;0.2761;
869.7000;0.6178;0.2713;
870.0000;0.6186;0.2785;
870.3000;0.6195;0.2761;
870.6000;0.6178;0.2665;
870.9000;0.6203;0.2737;
871.2000;0.6186;0.2737;
871.5000;0.6195;0.2882;
871.8000;0.6195;0.2834;
872.1000;0.6195;0.2689;
872.4000;0.6186;0.2713;
872.7000;0.6195;0.2713;
873.0000;0.6170;0.2545;
873.3000;0.6186;0.2593;
873.6000;0.6195;0.2665;
873.9000;0.6195;0.2713;
874.2000;0.6203;0.2785;
874.5000;0.6211;0.2834;
874.8000;0.6186;0.2785;
875.1000;0.6154;0.2713;
875.4000;0.6170;0.2713;
875.7000;0.6211;0.2761;
876.0000;0.6203;0.2689;
876.3000;0.6195;0.2713;
876.6000;0.6170;0.2641;
876.9000;0.6195;0.2641;
877.2000;0.6186;0.2665;
877.5000;0.6195;0.2665;
877.8000;0.6195;0.2665;
878.1000;0.6195;0.2689;
878.4000;0.6186;0.2737;
878.7000;0.6203;0.2785;
879.0000;0.6203;0.2785;
879.3000;0.6178;0.2810;
879.6000;0.6211;0.2858;
879.9000;0.6178;0.2858;
880.2000;0.6186;0.2834;
880.5000;0.6105;0.2689;
880.8000;0.6170;0.2834;
881.1000;0.6170;0.2785;
881.4000;0.6195;0.2810;
881.7000;0.6284;0.3122;
882.0000;0.6203;0.2810;
882.3000;0.6186;0.2785;
882.6000;0.6219;0.2810;
882.9000;0.6211;0.2761;
883.2000;0.6195;0.2785;
883.5000;0.6195;0.2810;
883.8000;0.6211;0.2834;
884.1000;0.6203;0.2834;
884.4000;0.6186;0.2785;
884.7000;0.6211;0.2858;
885.0000;0.6162;0.2761;
885.3000;0.6178;0.2810;
885.6000;0.6178;0.2882;
885.9000;0.6186;0.2954;
886.2000;0.6186;0.2954;
886.5000;0.6170;0.2906;
886.8000;0.6170;0.2858;
887.1000;0.6195;0.2906;
887.4000;0.6203;0.2858;
887.7000;0.6178;0.2858;
888.0000;0.6219;0.2978;
888.3000;0.6186;0.2810;
888.6000;0.6203;0.2785;
888.9000;0.6300;0.3098;
889.2000;0.6146;0.2737;
889.5000;0.6186;0.2810;
889.8000;0.6195;0.2737;
890.1000;0.6195;0.2810;
890.4000;0.6186;0.2858;
890.7000;0.6162;0.2785;
891.0000;0.6227;0.2882;
891.3000;0.6186;0.2834;
891.6000;0.6186;0.2834;
891.9000;0.6170;0.2810;
892.2000;0.6178;0.2761;
892.5000;0.6162;0.2761;
892.8000;0.6146;0.2810;
893.1000;0.6178;0.2882;
893.4000;0.6162;0.2810;
893.7000;0.6195;0.2737;
894.0000;0.6186;0.2761;
894.3000;0.6195;0.2810;
894.6000;0.6178;0.2689;
894.9000;0.6154;0.2593;
895.2000;0.6186;0.2713;
895.5000;0.6170;0.2737;
895.8000;0.6129;0.2761;
896.1000;0.6162;0.2930;
896.4000;0.6186;0.2930;
896.7000;0.6203;0.2906;
897.0000;0.6195;0.2930;
897.3000;0.6186;0.2930;
897.6000;0.6195;0.2954;
897.9000;0.6195;0.2834;
898.2000;0.6195;0.2785;
898.5000;0.6186;0.2785;
898.8000;0.6146;0.2713;
899.1000;0.6178;0.2785;
899.4000;0.6178;0.2785;
899.7000;0.6186;0.2810;
900.0000;0.6203;0.2906;
900.3000;0.6178;0.2882;
900.6000;0.6154;0.2810;
900.9000;0.6195;0.2954;
901.2000;0.6178;0.2954;
901.5000;0.6121;0.2858;
901.8000;0.6178;0.2954;
902.1000;0.6178;0.2954;
902.4000;0.6146;0.2882;
902.7000;0.6170;0.2906;
903.0000;0.6186;0.2882;
903.3000;0.6252;0.2906;
903.6000;0.6162;0.2737;
903.9000;0.6154;0.2785;
904.2000;0.6186;0.2882;
904.5000;0.6211;0.2954;
904.8000;0.6186;0.2882;
905.1000;0.6203;0.2834;
905.4000;0.6186;0.2785;
905.7000;0.6154;0.2761;
906.0000;0.6178;0.2785;
906.3000;0.6178;0.2834;
906.6000;0.6162;0.2858;
906.9000;0.6170;0.2834;
907.2000;0.6162;0.2761;
907.5000;0.6170;0.2761;
907.8000;0.6162;0.2761;
908.1000;0.6162;0.2761;
908.4000;0.6146;0.2737;
908.7000;0.6186;0.2713;
909.0000;0.6178;0.2617;
909.3000;0.6178;0.2689;
909.6000;0.6178;0.2665;
909.9000;0.6243;0.2858;
910.2000;0.6178;0.2785;
910.5000;0.6178;0.2858;
910.8000;0.6195;0.2882;
911.1000;0.6170;0.2810;
911.4000;0.6170;0.2785;
911.7000;0.6195;0.2930;
912.0000;0.6186;0.2858;
912.3000;0.6162;0.2834;
912.6000;0.6186;0.2858;
912.9000;0.6170;0.2858;
913.2000;0.6146;0.2906;
913.5000;0.6162;0.2954;
913.8000;0.6146;0.2930;
914.1000;0.6170;0.2906;
914.4000;0.6203;0.3002;
914.7000;0.6178;0.2954;
915.0000;0.6170;0.2954;
915.3000;0.6170;0.2906;
915.6000;0.6211;0.2810;
915.9000;0.6195;0.2834;
916.2000;0.6162;0.2761;
916.5000;0.6146;0.2617;
916.8000;0.6178;0.2761;
917.1000;0.6178;0.2810;
917.4000;0.6162;0.2810;
917.7000;0.6219;0.2906;
918.0000;0.6178;0.2810;
918.3000;0.6162;0.2785;
918.6000;0.6170;0.2785;
918.9000;0.6162;0.2689;
919.2000;0.6162;0.2737;
919.5000;0.6186;0.2761;
919.8000;0.6162;0.2737;
920.1000;0.6105;0.2617;
920.4000;0.6186;0.2858;
920.7000;0.6186;0.2810;
921.0000;0.6178;0.2834;
921.3000;0.6178;0.2810;
921.6000;0.6154;0.2834;
921.9000;0.6178;0.2954;
922.2000;0.6162;0.2882;
922.5000;0.6170;0.2930;
922.8000;0.6072;0.2617;
923.1000;0.6178;0.2834;
923.4000;0.6162;0.2785;
923.7000;0.6203;0.2906;
924.0000;0.6154;0.2834;
924.3000;0.6186;0.2906;
924.6000;0.6146;0.2810;
924.9000;0.6227;0.3050;
925.2000;0.6178;0.2978;
925.5000;0.6170;0.3026;
925.8000;0.6089;0.2834;
926.1000;0.6178;0.3074;
926.4000;0.6178;0.2978;
926.7000;0.6154;0.2930;
927.0000;0.6170;0.2954;
927.3000;0.6113;0.2834;
927.6000;0.6162;0.2954;
927.9000;0.6178;0.3002;
928.2000;0.6162;0.2882;
928.5000;0.6170;0.2882;
928.8000;0.6146;0.2834;
929.1000;0.6162;0.2882;
929.4000;0.6170;0.2882;
929.7000;0.6178;0.2930;
930.0000;0.6154;0.2882;
930.3000;0.6178;0.2882;
930.6000;0.6170;0.2882;
930.9000;0.6178;0.2906;
931.2000;0.6170;0.2858;
931.5000;0.6170;0.2882;
931.8000;0.6162;0.2834;
932.1000;0.6178;0.2810;
932.4000;0.6146;0.2834;
932.7000;0.6170;0.2810;
933.0000;0.6178;0.2713;
933.3000;0.6154;0.2761;
933.6000;0.6162;0.2761;
933.9000;0.6162;0.2761;
934.2000;0.6154;0.2810;
934.5000;0.6154;0.2906;
934.8000;0.6162;0.2882;
935.1000;0.6178;0.2834;
935.4000;0.6154;0.2930;
935.7000;0.6170;0.3026;
936.0000;0.6121;0.2930;
936.3000;0.6170;0.3002;
936.6000;0.6162;0.2978;
936.9000;0.6146;0.2882;
937.2000;0.6178;0.2930;
937.5000;0.6146;0.2785;
937.8000;0.6129;0.2713;
938.1000;0.6154;0.2665;
938.4000;0.6146;0.2737;
938.7000;0.6162;0.2737;
939.0000;0.6138;0.2713;
939.3000;0.6146;0.2737;
939.6000;0.6162;0.2761;
939.9000;0.6154;0.2689;
940.2000;0.6154;0.2689;
940.5000;0.6154;0.2737;
940.8000;0.6170;0.2785;
941.1000;0.6170;0.2858;
941.4000;0.6211;0.2906;
941.7000;0.6154;0.2810;
942.0000;0.6138;0.2713;
942.3000;0.6146;0.2761;
942.6000;0.6162;0.2882;
942.9000;0.6146;0.2858;
943.2000;0.6146;0.2834;
943.5000;0.6129;0.2785;
943.8000;0.6146;0.2785;
944.1000;0.6154;0.2689;
944.4000;0.6162;0.2834;
944.7000;0.6162;0.2834;
945.0000;0.6178;0.2834;
945.3000;0.6162;0.2761;
945.6000;0.6162;0.2737;
945.9000;0.6170;0.2761;
946.2000;0.6154;0.2810;
946.5000;0.6154;0.2858;
946.8000;0.6170;0.2978;
947.1000;0.6162;0.3026;
947.4000;0.6154;0.2930;
947.7000;0.6146;0.2906;
948.0000;0.6129;0.2882;
948.3000;0.6162;0.2930;
948.6000;0.6154;0.2882;
948.9000;0.6129;0.2761;
949.2000;0.6154;0.2906;
949.5000;0.6154;0.2834;
949.8000;0.6146;0.2858;
950.1000;0.6154;0.2954;
950.4000;0.6162;0.2978;
950.7000;0.6146;0.2882;
951.0000;0.6146;0.2858;
951.3000;0.6146;0.2930;
951.6000;0.6146;0.2906;
951.9000;0.6146;0.2858;
952.2000;0.6154;0.2906;
952.5000;0.6162;0.2930;
952.8000;0.6154;0.2882;
953.1000;0.6154;0.2858;
953.4000;0.6154;0.2906;
953.7000;0.6146;0.2978;
954.0000;0.6162;0.2978;
954.3000;0.6146;0.2954;
954.6000;0.6146;0.2954;
954.9000;0.6162;0.2906;
955.2000;0.6162;0.2930;
955.5000;0.6154;0.2978;
955.8000;0.6146;0.2930;
956.1000;0.6154;0.3026;
956.4000;0.6154;0.3050;
956.7000;0.6162;0.3122;
957.0000;0.6146;0.3002;
957.3000;0.6089;0.2810;
957.6000;0.6154;0.2954;
957.9000;0.6162;0.2978;
958.2000;0.6154;0.2954;
958.5000;0.6146;0.2954;
958.8000;0.6129;0.2882;
959.1000;0.6154;0.2954;
959.4000;0.6138;0.2930;
959.7000;0.6162;0.2978;
960.0000;0.6203;0.3074;
960.3000;0.6146;0.2954;
960.6000;0.6154;0.2978;
960.9000;0.6146;0.3002;
961.2000;0.6154;0.2978;
961.5000;0.6154;0.2930;
961.8000;0.6162;0.2906;
962.1000;0.6146;0.2834;
962.4000;0.6146;0.2882;
962.7000;0.6162;0.2906;
963.0000;0.6097;0.2737;
963.3000;0.6146;0.2858;
963.6000;0.6129;0.2978;
963.9000;0.6170;0.3050;
964.2000;0.6146;0.2930;
964.5000;0.6154;0.2906;
964.8000;0.6162;0.2906;
965.1000;0.6186;0.3050;
965.4000;0.6154;0.2858;
965.7000;0.6170;0.2930;
966.0000;0.6097;0.2785;
966.3000;0.6162;0.2954;
966.6000;0.6154;0.2978;
966.9000;0.6146;0.2978;
967.2000;0.6154;0.3050;
967.5000;0.6097;0.3002;
967.8000;0.6162;0.3098;
968.1000;0.6162;0.3026;
968.4000;0.6146;0.2906;
968.7000;0.6170;0.3002;
969.0000;0.6154;0.2954;
969.3000;0.6138;0.2930;
969.6000;0.6138;0.2954;
969.9000;0.6146;0.2906;
970.2000;0.6154;0.2930;
970.5000;0.6121;0.2906;
970.8000;0.6154;0.3002;
971.1000;0.6138;0.2978;
971.4000;0.6146;0.3002;
971.7000;0.6260;0.3218;
972.0000;0.6154;0.2906;
972.3000;0.6138;0.2834;
972.6000;0.6162;0.2882;
972.9000;0.6162;0.2930;
973.2000;0.6219;0.3122;
973.5000;0.6081;0.2713;
973.8000;0.6170;0.2906;
974.1000;0.6146;0.2810;
974.4000;0.6154;0.2689;
974.7000;0.6113;0.2665;
975.0000;0.6146;0.2713;
975.3000;0.6138;0.2713;
975.6000;0.6203;0.2930;
975.9000;0.6121;0.2689;
976.2000;0.6138;0.2713;
976.5000;0.6170;0.2882;
976.8000;0.6138;0.2906;
977.1000;0.6138;0.2906;
977.4000;0.6129;0.2834;
977.7000;0.6154;0.2930;
978.0000;0.6121;0.2978;
978.3000;0.6129;0.3026;
978.6000;0.6138;0.2906;
978.9000;0.6129;0.2930;
979.2000;0.6154;0.2930;
979.5000;0.6146;0.2978;
979.8000;0.6146;0.3002;
980.1000;0.6154;0.2882;
980.4000;0.6170;0.2954;
980.7000;0.6162;0.2906;
981.0000;0.6129;0.2834;
981.3000;0.6162;0.2785;
981.6000;0.6154;0.2834;
981.9000;0.6170;0.2785;
982.2000;0.6154;0.2810;
982.5000;0.6146;0.2785;
982.8000;0.6186;0.2906;
983.1000;0.6121;0.2834;
983.4000;0.6162;0.2882;
983.7000;0.6129;0.2785;
984.0000;0.6170;0.2906;
984.3000;0.6154;0.2834;
984.6000;0.6170;0.2906;
984.9000;0.6154;0.3002;
985.2000;0.6129;0.2882;
985.5000;0.6146;0.2906;
985.8000;0.6146;0.2906;
986.1000;0.6138;0.2810;
986.4000;0.6129;0.2761;
986.7000;0.6146;0.2761;
987.0000;0.6129;0.2785;
987.3000;0.6056;0.2641;
987.6000;0.6146;0.2858;
987.9000;0.6146;0.2834;
988.2000;0.6129;0.2930;
988.5000;0.6129;0.2906;
988.8000;0.6129;0.2810;
989.1000;0.6129;0.2737;
989.4000;0.6121;0.2761;
989.7000;0.6138;0.2761;
990.0000;0.6097;0.2617;
990.3000;0.6129;0.2737;
990.6000;0.6154;0.2785;
990.9000;0.6178;0.2882;
991.2000;0.6146;0.2785;
991.5000;0.6138;0.2834;
991.8000;0.6138;0.2882;
992.1000;0.6146;0.2906;
992.4000;0.6162;0.3002;
992.7000;0.6154;0.3026;
993.0000;0.6146;0.3002;
993.3000;0.6154;0.2954;
993.6000;0.6154;0.2882;
993.9000;0.6146;0.2810;
994.2000;0.6129;0.2834;
994.5000;0.6162;0.2882;
994.8000;0.6129;0.2785;
995.1000;0.6138;0.2810;
995.4000;0.6146;0.2858;
995.7000;0.6113;0.2737;
996.0000;0.6162;0.2930;
996.3000;0.6154;0.2906;
996.6000;0.6105;0.2761;
996.9000;0.6195;0.2978;
997.2000;0.6129;0.2858;
997.5000;0.6170;0.3002;
997.8000;0.6072;0.2713;
998.1000;0.6129;0.2834;
998.4000;0.6154;0.2954;
998.7000;0.6162;0.2978;
999.0000;0.6138;0.2978;
999.3000;0.6129;0.2834;
999.6000;0.6138;0.2906;
999.9000;0.6170;0.2906;
1000.2000;0.6138;0.2834;
1000.5000;0.6146;0.2882;
1000.8000;0.6146;0.2834;
1001.1000;0.6146;0.2858;
1001.4000;0.6138;0.2834;
1001.7000;0.6146;0.2906;
1002.0000;0.6146;0.2882;
1002.3000;0.6227;0.3098;
1002.6000;0.6138;0.2834;
1002.9000;0.6048;0.2665;
1003.2000;0.6162;0.2906;
1003.5000;0.6138;0.2882;
1003.8000;0.6154;0.2954;
1004.1000;0.6162;0.2930;
1004.4000;0.6097;0.2834;
1004.7000;0.6138;0.2930;
1005.0000;0.6138;0.2930;
1005.3000;0.6146;0.2954;
1005.6000;0.6129;0.2954;
1005.9000;0.6113;0.2858;
1006.2000;0.6154;0.2930;
1006.5000;0.6154;0.2906;
1006.8000;0.6170;0.3002;
1007.1000;0.6129;0.2954;
1007.4000;0.6121;0.2954;
1007.7000;0.6113;0.2858;
1008.0000;0.6105;0.2810;
1008.3000;0.6113;0.2882;
1008.6000;0.6146;0.2906;
1008.9000;0.6129;0.2906;
1009.2000;0.6097;0.2810;
1009.5000;0.6121;0.2978;
1009.8000;0.6121;0.3050;
1010.1000;0.6129;0.3050;
1010.4000;0.6138;0.3002;
1010.7000;0.6113;0.3050;
1011.0000;0.6129;0.3026;
1011.3000;0.6146;0.3122;
1011.6000;0.6154;0.3170;
1011.9000;0.6146;0.3170;
1012.2000;0.6129;0.3266;
1012.5000;0.6129;0.3218;
1012.8000;0.6129;0.3218;
1013.1000;0.6121;0.3146;
1013.4000;0.6040;0.2930;
1013.7000;0.6154;0.3146;
1014.0000;0.6154;0.2954;
1014.3000;0.6121;0.2906;
1014.6000;0.6138;0.2906;
1014.9000;0.6129;0.2810;
1015.2000;0.6146;0.2785;
1015.5000;0.6138;0.2810;
1015.8000;0.6138;0.2954;
1016.1000;0.6170;0.3194;
1016.4000;0.6146;0.3194;
1016.7000;0.6146;0.3194;
1017.0000;0.6129;0.3194;
1017.3000;0.6146;0.3266;
1017.6000;0.6146;0.3290;
1017.9000;0.6129;0.3170;
1018.2000;0.6121;0.3122;
1018.5000;0.6154;0.3146;
1018.8000;0.6138;0.3050;
1019.1000;0.6138;0.3026;
1019.4000;0.6138;0.3050;
1019.7000;0.6146;0.3122;
1020.0000;0.6121;0.3122;
1020.3000;0.6138;0.3146;
1020.6000;0.6138;0.3026;
1020.9000;0.6138;0.3074;
1021.2000;0.6138;0.3074;
1021.5000;0.6146;0.3002;
1021.8000;0.6211;0.3122;
1022.1000;0.6138;0.2954;
1022.4000;0.6129;0.3002;
1022.7000;0.6170;0.3002;
1023.0000;0.6138;0.3002;
1023.3000;0.6121;0.3002;
1023.6000;0.6138;0.3146;
1023.9000;0.6121;0.3242;
1024.2000;0.6121;0.3170;
1024.5000;0.6097;0.3098;
1024.8000;0.6129;0.3218;
1025.1000;0.6129;0.3170;
1025.4000;0.6178;0.3218;
1025.7000;0.6129;0.3122;
1026.0000;0.6170;0.3122;
1026.3000;0.6146;0.3098;
1026.6000;0.6129;0.3098;
1026.9000;0.6146;0.3050;
1027.2000;0.6138;0.3026;
1027.5000;0.6146;0.3002;
1027.8000;0.6129;0.2930;
1028.1000;0.6138;0.2978;
1028.4000;0.6121;0.3026;
1028.7000;0.6129;0.3050;
1029.0000;0.6081;0.2978;
1029.3000;0.6129;0.3122;
1029.6000;0.6129;0.3050;
1029.9000;0.6138;0.3122;
1030.2000;0.6138;0.3074;
1030.5000;0.6146;0.3146;
1030.8000;0.6129;0.3098;
1031.1000;0.6146;0.3170;
1031.4000;0.6121;0.3050;
1031.7000;0.6146;0.3074;
1032.0000;0.6121;0.2978;
1032.3000;0.6121;0.3050;
1032.6000;0.6129;0.3026;
1032.9000;0.6113;0.2954;
1033.2000;0.6138;0.3050;
1033.5000;0.6170;0.3170;
1033.8000;0.6105;0.3098;
1034.1000;0.6113;0.3146;
1034.4000;0.6105;0.3074;
1034.7000;0.6121;0.3170;
1035.0000;0.6178;0.3290;
1035.3000;0.6121;0.3050;
1035.6000;0.6097;0.2978;
1035.9000;0.6121;0.2978;
1036.2000;0.6138;0.3026;
1036.5000;0.6129;0.3002;
1036.8000;0.6138;0.3002;
1037.1000;0.6235;0.3266;
1037.4000;0.6113;0.2954;
1037.7000;0.6146;0.3002;
1038.0000;0.6138;0.2882;
1038.3000;0.6146;0.3002;
1038.6000;0.6129;0.2978;
1038.9000;0.6129;0.2978;
1039.2000;0.6129;0.3050;
1039.5000;0.6129;0.3026;
1039.8000;0.6121;0.3002;
1040.1000;0.6129;0.3002;
1040.4000;0.6146;0.3074;
1040.7000;0.6146;0.3146;
1041.0000;0.6146;0.3074;
1041.3000;0.6121;0.3050;
1041.6000;0.6129;0.3098;
1041.9000;0.6129;0.3002;
1042.2000;0.6138;0.2978;
1042.5000;0.6129;0.3050;
1042.8000;0.6129;0.3074;
1043.1000;0.6129;0.3074;
1043.4000;0.6138;0.2930;
1043.7000;0.6129;0.2834;
1044.0000;0.6121;0.2858;
1044.3000;0.6121;0.2978;
1044.6000;0.6129;0.3026;
1044.9000;0.6138;0.3050;
1045.2000;0.6154;0.3074;
1045.5000;0.6154;0.3218;
1045.8000;0.6203;0.3314;
1046.1000;0.6121;0.3050;
1046.4000;0.6121;0.3002;
1046.7000;0.6146;0.3074;
1047.0000;0.6129;0.3002;
1047.3000;0.6129;0.3074;
1047.6000;0.6138;0.2954;
1047.9000;0.6129;0.2954;
1048.2000;0.6146;0.3026;
1048.5000;0.6121;0.2978;
1048.8000;0.6113;0.3074;
1049.1000;0.6146;0.3122;
1049.4000;0.6121;0.3026;
1049.7000;0.6129;0.3002;
1050.0000;0.6113;0.3026;
1050.3000;0.6146;0.3170;
1050.6000;0.6129;0.3050;
1050.9000;0.6121;0.3050;
1051.2000;0.6138;0.2978;
1051.5000;0.6121;0.2930;
1051.8000;0.6048;0.2810;
1052.1000;0.6129;0.3002;
1052.4000;0.6129;0.3050;
1052.7000;0.6113;0.2978;
1053.0000;0.6138;0.3002;
1053.3000;0.6129;0.2882;
1053.6000;0.6129;0.2906;
1053.9000;0.6129;0.2978;
1054.2000;0.6121;0.3002;
1054.5000;0.6121;0.2954;
1054.8000;0.6064;0.2785;
1055.1000;0.6113;0.2882;
1055.4000;0.6146;0.2954;
1055.7000;0.6138;0.3002;
1056.0000;0.6121;0.2954;
1056.3000;0.6121;0.2978;
1056.6000;0.6162;0.3050;
1056.9000;0.6121;0.2978;
1057.2000;0.6138;0.3074;
1057.5000;0.6129;0.3026;
1057.8000;0.6138;0.3026;
1058.1000;0.6064;0.2689;
1058.4000;0.6129;0.2858;
1058.7000;0.6121;0.2906;
1059.0000;0.6121;0.3002;
1059.3000;0.6121;0.2978;
1059.6000;0.6138;0.3074;
1059.9000;0.6129;0.3026;
1060.2000;0.6113;0.3002;
1060.5000;0.6121;0.3002;
1060.8000;0.6138;0.2954;
1061.1000;0.6121;0.2954;
1061.4000;0.6121;0.3002;
1061.7000;0.6121;0.2930;
1062.0000;0.6138;0.2954;
1062.3000;0.6105;0.2858;
1062.6000;0.6154;0.3002;
1062.9000;0.6113;0.3002;
1063.2000;0.6129;0.3050;
1063.5000;0.6138;0.3170;
1063.8000;0.6129;0.3146;
1064.1000;0.6121;0.3026;
1064.4000;0.6121;0.2978;
1064.7000;0.6105;0.2930;
1065.0000;0.6113;0.2882;
1065.3000;0.6121;0.2930;
1065.6000;0.6129;0.3098;
1065.9000;0.6138;0.3098;
1066.2000;0.6129;0.3074;
1066.5000;0.6121;0.3026;
1066.8000;0.6129;0.3002;
1067.1000;0.6146;0.3002;
1067.4000;0.6129;0.2978;
1067.7000;0.6129;0.2930;
1068.0000;0.6129;0.2978;
1068.3000;0.6138;0.3002;
1068.6000;0.6138;0.3026;
1068.9000;0.6138;0.3026;
1069.2000;0.6121;0.3122;
1069.5000;0.6129;0.3146;
1069.8000;0.6146;0.3146;
1070.1000;0.6138;0.3170;
1070.4000;0.6129;0.3194;
1070.7000;0.6138;0.3290;
1071.0000;0.6121;0.3194;
1071.3000;0.6146;0.3194;
1071.6000;0.6129;0.3266;
1071.9000;0.6138;0.3218;
1072.2000;0.6146;0.3218;
1072.5000;0.6146;0.3146;
1072.8000;0.6113;0.3074;
1073.1000;0.6146;0.3194;
1073.4000;0.6138;0.3218;
1073.7000;0.6129;0.3170;
1074.0000;0.6129;0.3074;
1074.3000;0.6113;0.3122;
1074.6000;0.6121;0.3074;
1074.9000;0.6138;0.3026;
1075.2000;0.6113;0.2978;
1075.5000;0.6113;0.2978;
1075.8000;0.6138;0.3098;
1076.1000;0.6113;0.3026;
1076.4000;0.6129;0.3026;
1076.7000;0.6113;0.3002;
1077.0000;0.6097;0.2882;
1077.3000;0.6129;0.2978;
1077.6000;0.6129;0.3050;
1077.9000;0.6121;0.3074;
1078.2000;0.6113;0.3122;
1078.5000;0.6032;0.3050;
1078.8000;0.6015;0.3002;
1079.1000;0.6113;0.3218;
1079.4000;0.6121;0.3266;
1079.7000;0.6113;0.3242;
1080.0000;0.6113;0.3218;
1080.3000;0.6121;0.3242;
1080.6000;0.6105;0.3146;
1080.9000;0.6113;0.3074;
1081.2000;0.6129;0.3122;
1081.5000;0.6129;0.3098;
1081.8000;0.6129;0.3050;
1082.1000;0.6121;0.2930;
1082.4000;0.6154;0.3026;
1082.7000;0.6138;0.3002;
1083.0000;0.6113;0.3002;
1083.3000;0.6138;0.2978;
1083.6000;0.6121;0.3002;
1083.9000;0.6129;0.3002;
1084.2000;0.6129;0.3050;
1084.5000;0.6129;0.3050;
1084.8000;0.6113;0.3074;
1085.1000;0.6121;0.3050;
1085.4000;0.6105;0.3050;
1085.7000;0.6121;0.3026;
1086.0000;0.6129;0.3050;
1086.3000;0.6129;0.3074;
1086.6000;0.6121;0.2930;
1086.9000;0.6138;0.2930;
1087.2000;0.6129;0.2930;
1087.5000;0.6121;0.3050;
1087.8000;0.6105;0.3050;
1088.1000;0.6113;0.3002;
1088.4000;0.6113;0.3026;
1088.7000;0.6129;0.2978;
1089.0000;0.6113;0.2930;
1089.3000;0.6129;0.3002;
1089.6000;0.6121;0.3098;
1089.9000;0.6162;0.3194;
1090.2000;0.6129;0.3050;
1090.5000;0.6113;0.2906;
1090.8000;0.6121;0.2906;
1091.1000;0.6121;0.2834;
1091.4000;0.6138;0.2882;
1091.7000;0.6048;0.2665;
1092.0000;0.6097;0.2882;
1092.3000;0.6129;0.2882;
1092.6000;0.6105;0.2906;
1092.9000;0.6097;0.2930;
1093.2000;0.6129;0.3098;
1093.5000;0.6121;0.3266;
1093.8000;0.6121;0.3218;
1094.1000;0.6129;0.3194;
1094.4000;0.6129;0.3170;
1094.7000;0.6129;0.3194;
1095.0000;0.6129;0.3242;
1095.3000;0.6048;0.3002;
1095.6000;0.6097;0.3218;
1095.9000;0.6081;0.3098;
1096.2000;0.6113;0.3170;
1096.5000;0.6089;0.3098;
1096.8000;0.6129;0.3122;
1097.1000;0.6113;0.3050;
1097.4000;0.6129;0.3122;
1097.7000;0.6146;0.3170;
1098.0000;0.6129;0.3074;
1098.3000;0.6113;0.3002;
1098.6000;0.6121;0.3002;
1098.9000;0.6138;0.3050;
1099.2000;0.6138;0.2978;
1099.5000;0.6097;0.2834;
1099.8000;0.6113;0.2858;
1100.1000;0.6121;0.2858;
1100.4000;0.6121;0.2882;
1100.7000;0.6089;0.2785;
1101.0000;0.6113;0.2834;
1101.3000;0.6170;0.2978;
1101.6000;0.6121;0.2882;
1101.9000;0.6121;0.2906;
1102.2000;0.6113;0.2930;
1102.5000;0.6129;0.3098;
1102.8000;0.6138;0.3098;
1103.1000;0.6138;0.3074;
1103.4000;0.6121;0.2954;
1103.7000;0.6105;0.2954;
1104.0000;0.6121;0.2954;
1104.3000;0.6129;0.2882;
1104.6000;0.6097;0.2737;
1104.9000;0.6113;0.2737;
1105.2000;0.6121;0.2761;
1105.5000;0.6154;0.2882;
1105.8000;0.6113;0.2834;
1106.1000;0.6113;0.2882;
1106.4000;0.6121;0.3002;
1106.7000;0.6121;0.3002;
1107.0000;0.6138;0.3026;
1107.3000;0.6121;0.3050;
1107.6000;0.6081;0.2930;
1107.9000;0.6138;0.3026;
1108.2000;0.6113;0.3002;
1108.5000;0.6113;0.2978;
1108.8000;0.6121;0.2954;
1109.1000;0.6129;0.2906;
1109.4000;0.6121;0.2858;
1109.7000;0.6138;0.2954;
1110.0000;0.6113;0.2810;
1110.3000;0.6121;0.2834;
1110.6000;0.6072;0.2834;
1110.9000;0.6064;0.2834;
1111.2000;0.6105;0.2882;
1111.5000;0.6121;0.2954;
1111.8000;0.6129;0.2930;
1112.1000;0.6121;0.2978;
1112.4000;0.6129;0.3050;
1112.7000;0.6129;0.3146;
1113.0000;0.6129;0.3074;
1113.3000;0.6121;0.2978;
1113.6000;0.6129;0.2954;
1113.9000;0.6121;0.2930;
1114.2000;0.6129;0.2882;
1114.5000;0.6129;0.2906;
1114.8000;0.6121;0.2930;
1115.1000;0.6113;0.2810;
1115.4000;0.6138;0.2882;
1115.7000;0.6178;0.2954;
1116.0000;0.6113;0.2761;
1116.3000;0.6105;0.2617;
1116.6000;0.6113;0.2737;
1116.9000;0.6121;0.2785;
1117.2000;0.6113;0.2785;
1117.5000;0.6113;0.2737;
1117.8000;0.6121;0.2665;
1118.1000;0.6129;0.2689;
1118.4000;0.6129;0.2665;
1118.7000;0.6113;0.2665;
1119.0000;0.6129;0.2737;
1119.3000;0.6121;0.2785;
1119.6000;0.6121;0.2785;
1119.9000;0.6097;0.2713;
1120.2000;0.6121;0.2737;
1120.5000;0.6113;0.2761;
1120.8000;0.6121;0.2785;
1121.1000;0.6089;0.2665;
1121.4000;0.6105;0.2761;
1121.7000;0.6129;0.2810;
1122.0000;0.6129;0.2858;
1122.3000;0.6121;0.2858;
1122.6000;0.6121;0.2906;
1122.9000;0.6138;0.3050;
1123.2000;0.6129;0.3002;
1123.5000;0.6113;0.2858;
1123.8000;0.6105;0.2834;
1124.1000;0.6121;0.2834;
1124.4000;0.6154;0.2858;
1124.7000;0.6121;0.2737;
1125.0000;0.6113;0.2737;
1125.3000;0.6097;0.2689;
1125.6000;0.6113;0.2713;
1125.9000;0.6121;0.2761;
1126.2000;0.6089;0.2665;
1126.5000;0.6113;0.2641;
1126.8000;0.6097;0.2665;
1127.1000;0.6121;0.2737;
1127.4000;0.6113;0.2689;
1127.7000;0.6113;0.2737;
1128.0000;0.6129;0.2785;
1128.3000;0.6113;0.2737;
1128.6000;0.6129;0.2834;
1128.9000;0.6097;0.2689;
1129.2000;0.6105;0.2641;
1129.5000;0.6105;0.2641;
1129.8000;0.6113;0.2569;
1130.1000;0.6007;0.2377;
1130.4000;0.6089;0.2689;
1130.7000;0.6072;0.2617;
1131.0000;0.6113;0.2761;
1131.3000;0.6113;0.2713;
1131.6000;0.6105;0.2713;
1131.9000;0.6081;0.2665;
1132.2000;0.6113;0.2689;
1132.5000;0.6097;0.2665;
1132.8000;0.6121;0.2761;
1133.1000;0.6113;0.2761;
1133.4000;0.6138;0.2882;
1133.7000;0.6113;0.2954;
1134.0000;0.6105;0.2930;
1134.3000;0.6129;0.2954;
1134.6000;0.6105;0.2930;
1134.9000;0.6121;0.2930;
1135.2000;0.6113;0.2906;
1135.5000;0.6105;0.2906;
1135.8000;0.6129;0.2930;
1136.1000;0.6113;0.2834;
1136.4000;0.6097;0.2737;
1136.7000;0.6097;0.2785;
1137.0000;0.6105;0.2785;
1137.3000;0.6129;0.2858;
1137.6000;0.6081;0.2689;
1137.9000;0.6064;0.2569;
1138.2000;0.6113;0.2593;
1138.5000;0.6121;0.2593;
1138.8000;0.6162;0.2713;
1139.1000;0.6097;0.2545;
1139.4000;0.6105;0.2617;
1139.7000;0.6138;0.2641;
1140.0000;0.6113;0.2617;
1140.3000;0.6121;0.2593;
1140.6000;0.6121;0.2569;
1140.9000;0.6113;0.2569;
1141.2000;0.6121;0.2593;
1141.5000;0.6113;0.2641;
1141.8000;0.6089;0.2569;
1142.1000;0.6105;0.2593;
1142.4000;0.6129;0.2665;
1142.7000;0.6113;0.2737;
1143.0000;0.6129;0.2665;
1143.3000;0.6113;0.2665;
1143.6000;0.6121;0.2713;
1143.9000;0.6121;0.2617;
1144.2000;0.6121;0.2593;
1144.5000;0.6097;0.2617;
1144.8000;0.6129;0.2665;
1145.1000;0.6097;0.2617;
1145.4000;0.6138;0.2785;
1145.7000;0.6113;0.2761;
1146.0000;0.6121;0.2810;
1146.3000;0.6113;0.2810;
1146.6000;0.6129;0.2858;
1146.9000;0.6072;0.2785;
1147.2000;0.6105;0.2810;
1147.5000;0.6105;0.2834;
1147.8000;0.6129;0.2810;
1148.1000;0.6121;0.2785;
1148.4000;0.6121;0.2858;
1148.7000;0.6097;0.2858;
1149.0000;0.6089;0.2882;
1149.3000;0.6081;0.2810;
1149.6000;0.6105;0.2858;
1149.9000;0.6113;0.2906;
1150.2000;0.6105;0.2785;
1150.5000;0.6081;0.2713;
1150.8000;0.6097;0.2713;
1151.1000;0.6105;0.2665;
1151.4000;0.6138;0.2713;
1151.7000;0.6113;0.2665;
1152.0000;0.6089;0.2617;
1152.3000;0.6113;0.2641;
1152.6000;0.6113;0.2689;
1152.9000;0.6081;0.2521;
1153.2000;0.6113;0.2617;
1153.5000;0.6089;0.2641;
1153.8000;0.6121;0.2713;
1154.1000;0.6146;0.2834;
1154.4000;0.6081;0.2665;
1154.7000;0.6097;0.2761;
1155.0000;0.6105;0.2761;
1155.3000;0.6113;0.2906;
1155.6000;0.6105;0.2954;
1155.9000;0.6113;0.2978;
1156.2000;0.6113;0.2954;
1156.5000;0.6121;0.3002;
1156.8000;0.6113;0.2954;
1157.1000;0.6113;0.2930;
1157.4000;0.6089;0.2834;
1157.7000;0.6097;0.2858;
1158.0000;0.6113;0.2882;
1158.3000;0.6121;0.2834;
1158.6000;0.6138;0.2954;
1158.9000;0.6129;0.2978;
1159.2000;0.6121;0.2882;
1159.5000;0.6097;0.2810;
1159.8000;0.6113;0.2761;
1160.1000;0.6121;0.2761;
1160.4000;0.6113;0.2713;
1160.7000;0.6097;0.2713;
1161.0000;0.6113;0.2810;
1161.3000;0.6113;0.2858;
1161.6000;0.6105;0.2954;
1161.9000;0.6195;0.3146;
1162.2000;0.6105;0.2810;
1162.5000;0.6105;0.2761;
1162.8000;0.6154;0.3050;
1163.1000;0.6105;0.2882;
1163.4000;0.6097;0.2858;
1163.7000;0.6097;0.2906;
1164.0000;0.6105;0.3002;
1164.3000;0.6097;0.2882;
1164.6000;0.6097;0.2906;
1164.9000;0.6097;0.2858;
1165.2000;0.6121;0.2858;
1165.5000;0.6105;0.2882;
1165.8000;0.6121;0.2930;
1166.1000;0.6105;0.2930;
1166.4000;0.6121;0.2978;
1166.7000;0.6121;0.2954;
1167.0000;0.6089;0.2882;
1167.3000;0.6081;0.2761;
1167.6000;0.6154;0.3002;
1167.9000;0.6113;0.2834;
1168.2000;0.6129;0.2785;
1168.5000;0.6113;0.2834;
1168.8000;0.6129;0.2882;
1169.1000;0.6105;0.2785;
1169.4000;0.6089;0.2737;
1169.7000;0.6113;0.2737;
1170.0000;0.6097;0.2785;
1170.3000;0.6105;0.2785;
1170.6000;0.6105;0.2906;
1170.9000;0.6121;0.2906;
1171.2000;0.6089;0.2858;
1171.5000;0.6081;0.2906;
1171.8000;0.6097;0.2978;
1172.1000;0.6105;0.2954;
1172.4000;0.6154;0.3146;
1172.7000;0.6097;0.3074;
1173.0000;0.6089;0.3050;
1173.3000;0.6097;0.3098;
1173.6000;0.6195;0.3338;
1173.9000;0.6105;0.2978;
1174.2000;0.6121;0.2978;
1174.5000;0.6129;0.3050;
1174.8000;0.6097;0.3074;
1175.1000;0.6129;0.3146;
1175.4000;0.6113;0.3098;
1175.7000;0.6121;0.3026;
1176.0000;0.6105;0.2954;
1176.3000;0.6113;0.2930;
1176.6000;0.6064;0.2930;
1176.9000;0.6113;0.3098;
1177.2000;0.6105;0.3026;
1177.5000;0.6097;0.3002;
1177.8000;0.6113;0.2954;
1178.1000;0.6162;0.3074;
1178.4000;0.6121;0.3002;
1178.7000;0.6056;0.2858;
1179.0000;0.6113;0.3026;
1179.3000;0.6113;0.3002;
1179.6000;0.6113;0.3002;
1179.9000;0.6097;0.2858;
1180.2000;0.6105;0.2785;
1180.5000;0.6113;0.2713;
1180.8000;0.6113;0.2713;
1181.1000;0.6113;0.2785;
1181.4000;0.6105;0.2810;
1181.7000;0.6097;0.2737;
1182.0000;0.6105;0.2785;
1182.3000;0.6105;0.2785;
1182.6000;0.6105;0.2785;
1182.9000;0.6121;0.2858;
1183.2000;0.6113;0.2906;
1183.5000;0.6129;0.3050;
1183.8000;0.6121;0.3050;
1184.1000;0.6105;0.2978;
1184.4000;0.6089;0.2930;
1184.7000;0.6105;0.2930;
1185.0000;0.6105;0.2978;
1185.3000;0.6113;0.3122;
1185.6000;0.6113;0.3122;
1185.9000;0.6121;0.3170;
1186.2000;0.6097;0.3002;
1186.5000;0.6121;0.2978;
1186.8000;0.6129;0.3098;
1187.1000;0.6105;0.3026;
1187.4000;0.6113;0.3026;
1187.7000;0.6097;0.3074;
1188.0000;0.6089;0.3146;
1188.3000;0.6105;0.3242;
1188.6000;0.6138;0.3314;
1188.9000;0.6089;0.3170;
1189.2000;0.6105;0.3218;
1189.5000;0.6089;0.3194;
1189.8000;0.6113;0.3242;
1190.1000;0.6089;0.3194;
1190.4000;0.6113;0.3266;
1190.7000;0.6105;0.3266;
1191.0000;0.6113;0.3242;
1191.3000;0.6105;0.3170;
1191.6000;0.6105;0.3194;
1191.9000;0.6081;0.3146;
1192.2000;0.6105;0.3194;
1192.5000;0.6105;0.3170;
1192.8000;0.6056;0.3050;
1193.1000;0.6113;0.3194;
1193.4000;0.6105;0.3170;
1193.7000;0.6121;0.3146;
1194.0000;0.6113;0.3050;
1194.3000;0.6113;0.3002;
1194.6000;0.6121;0.3050;
1194.9000;0.6097;0.3050;
1195.2000;0.6089;0.3074;
1195.5000;0.6113;0.3074;
1195.8000;0.6105;0.3002;
1196.1000;0.6113;0.3026;
1196.4000;0.6064;0.2882;
1196.7000;0.6105;0.2954;
1197.0000;0.6105;0.3002;
1197.3000;0.6105;0.3002;
1197.6000;0.6089;0.2930;
1197.9000;0.6105;0.2930;
1198.2000;0.6097;0.2954;
1198.5000;0.6097;0.2954;
1198.8000;0.6105;0.3002;
1199.1000;0.6032;0.2834;
1199.4000;0.6121;0.3098;
1199.7000;0.6105;0.3098;
1200.0000;0.6097;0.3074;
1200.3000;0.6105;0.3002;
1200.6000;0.6072;0.2906;
1200.9000;0.6129;0.3050;
1201.2000;0.6121;0.3002;
1201.5000;0.6097;0.2906;
1201.8000;0.6097;0.2834;
1202.1000;0.6097;0.2930;
1202.4000;0.6097;0.2930;
1202.7000;0.6089;0.2954;
1203.0000;0.6113;0.3002;
1203.3000;0.6097;0.2978;
1203.6000;0.6097;0.2954;
1203.9000;0.6113;0.2882;
1204.2000;0.6081;0.2810;
1204.5000;0.6097;0.2858;
1204.8000;0.6081;0.2761;
1205.1000;0.6121;0.2785;
1205.4000;0.6113;0.2810;
1205.7000;0.6056;0.2785;
1206.0000;0.6105;0.3074;
1206.3000;0.6113;0.3146;
1206.6000;0.6097;0.3194;
1206.9000;0.6081;0.3170;
1207.2000;0.6097;0.3266;
1207.5000;0.6113;0.3290;
1207.8000;0.6056;0.3218;
1208.1000;0.6089;0.3314;
1208.4000;0.6089;0.3314;
1208.7000;0.6105;0.3362;
1209.0000;0.6105;0.3338;
1209.3000;0.6097;0.3170;
1209.6000;0.6105;0.3170;
1209.9000;0.6113;0.3194;
1210.2000;0.6089;0.3146;
1210.5000;0.6105;0.3218;
1210.8000;0.6113;0.3242;
1211.1000;0.6121;0.3314;
1211.4000;0.6105;0.3290;
1211.7000;0.6121;0.3266;
1212.0000;0.6089;0.3218;
1212.3000;0.6097;0.3290;
1212.6000;0.6113;0.3242;
1212.9000;0.6105;0.3170;
1213.2000;0.6113;0.3218;
1213.5000;0.6105;0.3194;
1213.8000;0.6113;0.3194;
1214.1000;0.6113;0.3218;
1214.4000;0.6105;0.3170;
1214.7000;0.6105;0.3194;
1215.0000;0.6113;0.3242;
1215.3000;0.6024;0.3002;
1215.6000;0.6056;0.3146;
1215.9000;0.6097;0.3194;
1216.2000;0.6097;0.3242;
1216.5000;0.6113;0.3266;
1216.8000;0.6105;0.3242;
1217.1000;0.6089;0.3290;
1217.4000;0.6105;0.3338;
1217.7000;0.6072;0.3194;
1218.0000;0.6056;0.3170;
1218.3000;0.6081;0.3194;
1218.6000;0.6113;0.3242;
1218.9000;0.6121;0.3338;
1219.2000;0.6081;0.3194;
1219.5000;0.6089;0.3242;
1219.8000;0.6121;0.3266;
1220.1000;0.6105;0.3122;
1220.4000;0.6113;0.3194;
1220.7000;0.6105;0.3098;
1221.0000;0.6105;0.3122;
1221.3000;0.6105;0.3218;
1221.6000;0.6089;0.3146;
1221.9000;0.6105;0.3194;
1222.2000;0.6081;0.3146;
1222.5000;0.6072;0.3098;
1222.8000;0.6113;0.3218;
1223.1000;0.6138;0.3362;
1223.4000;0.6089;0.3218;
1223.7000;0.6048;0.3074;
1224.0000;0.6113;0.3194;
1224.3000;0.6097;0.3026;
1224.6000;0.6105;0.2978;
1224.9000;0.6113;0.2906;
1225.2000;0.6105;0.2882;
1225.5000;0.6113;0.2906;
1225.8000;0.6105;0.2882;
1226.1000;0.6097;0.2882;
1226.4000;0.6138;0.3098;
1226.7000;0.6105;0.3050;
1227.0000;0.6081;0.3026;
1227.3000;0.6089;0.3098;
1227.6000;0.6113;0.3266;
1227.9000;0.6089;0.3218;
1228.2000;0.6105;0.3242;
1228.5000;0.6097;0.3194;
1228.8000;0.6089;0.3218;
1229.1000;0.6097;0.3146;
1229.4000;0.6113;0.3242;
1229.7000;0.6105;0.3218;
1230.0000;0.6113;0.3194;
1230.3000;0.6113;0.3098;
1230.6000;0.6081;0.3026;
1230.9000;0.6097;0.3098;
1231.2000;0.6089;0.3074;
1231.5000;0.6097;0.3170;
1231.8000;0.6056;0.3026;
1232.1000;0.6081;0.3170;
1232.4000;0.6097;0.3170;
1232.7000;0.6105;0.3266;
1233.0000;0.6097;0.3218;
1233.3000;0.6089;0.3146;
1233.6000;0.6105;0.3194;
1233.9000;0.6097;0.3122;
1234.2000;0.6097;0.3122;
1234.5000;0.6081;0.3146;
1234.8000;0.6097;0.3290;
1235.1000;0.6089;0.3434;
1235.4000;0.6105;0.3386;
1235.7000;0.6097;0.3362;
1236.0000;0.6105;0.3314;
1236.3000;0.6097;0.3362;
1236.6000;0.6097;0.3338;
1236.9000;0.6097;0.3290;
1237.2000;0.6121;0.3314;
1237.5000;0.6097;0.3266;
1237.8000;0.6121;0.3314;
1238.1000;0.6105;0.3266;
1238.4000;0.6121;0.3242;
1238.7000;0.6064;0.3026;
1239.0000;0.6089;0.3122;
1239.3000;0.6105;0.3122;
1239.6000;0.6105;0.3170;
1239.9000;0.6032;0.3002;
1240.2000;0.6129;0.3266;
1240.5000;0.6097;0.3146;
1240.8000;0.6105;0.3146;
1241.1000;0.6081;0.3146;
1241.4000;0.6105;0.3194;
1241.7000;0.6097;0.3266;
1242.0000;0.6072;0.3266;
1242.3000;0.6121;0.3338;
1242.6000;0.6089;0.3266;
1242.9000;0.6097;0.3242;
1243.2000;0.6081;0.3170;
1243.5000;0.6007;0.3050;
1243.8000;0.6089;0.3218;
1244.1000;0.6081;0.3194;
1244.4000;0.6121;0.3338;
1244.7000;0.6089;0.3290;
1245.0000;0.6081;0.3338;
1245.3000;0.6105;0.3362;
1245.6000;0.6138;0.3338;
1245.9000;0.6138;0.3386;
1246.2000;0.6097;0.3338;
1246.5000;0.6072;0.3314;
1246.8000;0.6040;0.3122;
1247.1000;0.6113;0.3242;
1247.4000;0.6040;0.3098;
1247.7000;0.6105;0.3314;
1248.0000;0.6113;0.3290;
1248.3000;0.6121;0.3218;
1248.6000;0.6121;0.3290;
1248.9000;0.6089;0.3266;
1249.2000;0.6113;0.3314;
1249.5000;0.6097;0.3290;
1249.8000;0.6081;0.3266;
1250.1000;0.6089;0.3218;
1250.4000;0.6089;0.3194;
1250.7000;0.6089;0.3170;
1251.0000;0.6089;0.3122;
1251.3000;0.6097;0.3074;
1251.6000;0.6097;0.3146;
1251.9000;0.6105;0.3170;
1252.2000;0.6105;0.3266;
1252.5000;0.6097;0.3194;
1252.8000;0.6097;0.3146;
1253.1000;0.6097;0.3074;
1253.4000;0.6105;0.3122;
1253.7000;0.6089;0.3050;
1254.0000;0.6089;0.3122;
1254.3000;0.6089;0.3026;
1254.6000;0.6097;0.3026;
1254.9000;0.6105;0.3074;
1255.2000;0.6089;0.3074;
1255.5000;0.6105;0.3074;
1255.8000;0.6097;0.3122;
1256.1000;0.6097;0.3146;
1256.4000;0.6097;0.3146;
1256.7000;0.6089;0.3098;
1257.0000;0.6162;0.3386;
1257.3000;0.6081;0.3290;
1257.6000;0.6089;0.3194;
1257.9000;0.6081;0.3242;
1258.2000;0.6146;0.3314;
1258.5000;0.6097;0.3170;
1258.8000;0.6089;0.3122;
1259.1000;0.6097;0.3242;
1259.4000;0.6064;0.3194;
1259.7000;0.6097;0.3242;
1260.0000;0.6105;0.3074;
1260.3000;0.6072;0.3050;
1260.6000;0.6081;0.3050;
1260.9000;0.6105;0.3122;
1261.2000;0.6089;0.3194;
1261.5000;0.6097;0.3218;
1261.8000;0.6138;0.3314;
1262.1000;0.6154;0.3410;
1262.4000;0.6089;0.3122;
1262.7000;0.6072;0.3050;
1263.0000;0.6081;0.3026;
1263.3000;0.6113;0.3146;
1263.6000;0.6097;0.3218;
1263.9000;0.6097;0.3170;
1264.2000;0.6105;0.3146;
1264.5000;0.6081;0.3074;
1264.8000;0.6105;0.3074;
1265.1000;0.6081;0.3098;
1265.4000;0.6138;0.3218;
1265.7000;0.6138;0.3242;
1266.0000;0.6113;0.3194;
1266.3000;0.6113;0.3242;
1266.6000;0.6097;0.3290;
1266.9000;0.6113;0.3362;
1267.2000;0.6097;0.3362;
1267.5000;0.6089;0.3338;
1267.8000;0.6089;0.3386;
1268.1000;0.6064;0.3314;
1268.4000;0.6105;0.3386;
1268.7000;0.6105;0.3314;
1269.0000;0.6097;0.3266;
1269.3000;0.6072;0.3146;
1269.6000;0.6170;0.3458;
1269.9000;0.6089;0.3290;
1270.2000;0.6081;0.3218;
1270.5000;0.6072;0.3170;
1270.8000;0.6121;0.3362;
1271.1000;0.6097;0.3290;
1271.4000;0.6097;0.3242;
1271.7000;0.6097;0.3290;
1272.0000;0.6089;0.3242;
1272.3000;0.6105;0.3266;
1272.6000;0.6089;0.3242;
1272.9000;0.6097;0.3242;
1273.2000;0.6081;0.3170;
1273.5000;0.6089;0.3218;
1273.8000;0.6105;0.3170;
1274.1000;0.6097;0.3050;
1274.4000;0.6105;0.3002;
1274.7000;0.6072;0.3002;
1275.0000;0.6089;0.3098;
1275.3000;0.6097;0.3098;
1275.6000;0.6081;0.3050;
1275.9000;0.6097;0.3074;
1276.2000;0.6113;0.3026;
1276.5000;0.6097;0.3002;
1276.8000;0.6040;0.2930;
1277.1000;0.6089;0.3026;
1277.4000;0.6097;0.3122;
1277.7000;0.6081;0.3122;
1278.0000;0.6097;0.3194;
1278.3000;0.6097;0.3170;
1278.6000;0.6089;0.3170;
1278.9000;0.6089;0.3170;
1279.2000;0.6081;0.3170;
1279.5000;0.6097;0.3194;
1279.8000;0.6097;0.3194;
1280.1000;0.6113;0.3194;
1280.4000;0.6072;0.3050;
1280.7000;0.6081;0.3074;
1281.0000;0.6081;0.3146;
1281.3000;0.6113;0.3194;
1281.6000;0.6056;0.3146;
1281.9000;0.6081;0.3266;
1282.2000;0.6081;0.3218;
1282.5000;0.6089;0.3266;
1282.8000;0.6138;0.3386;
1283.1000;0.6081;0.3314;
1283.4000;0.6089;0.3386;
1283.7000;0.6138;0.3506;
1284.0000;0.6097;0.3386;
1284.3000;0.6081;0.3314;
1284.6000;0.6129;0.3338;
1284.9000;0.6097;0.3266;
1285.2000;0.6089;0.3242;
1285.5000;0.6064;0.3146;
1285.8000;0.6056;0.3098;
1286.1000;0.6097;0.3170;
1286.4000;0.6105;0.3314;
1286.7000;0.6097;0.3338;
1287.0000;0.6081;0.3266;
1287.3000;0.6097;0.3146;
1287.6000;0.6081;0.3002;
1287.9000;0.6105;0.3122;
1288.2000;0.6089;0.3170;
1288.5000;0.6097;0.3266;
1288.8000;0.6072;0.3194;
1289.1000;0.6081;0.3194;
1289.4000;0.6089;0.3194;
1289.7000;0.6121;0.3338;
1290.0000;0.6089;0.3290;
1290.3000;0.6089;0.3290;
1290.6000;0.6097;0.3290;
1290.9000;0.6105;0.3290;
1291.2000;0.6105;0.3242;
1291.5000;0.6121;0.3242;
1291.8000;0.6097;0.3194;
1292.1000;0.6105;0.3098;
1292.4000;0.6097;0.3026;
1292.7000;0.6129;0.3146;
1293.0000;0.6097;0.3026;
1293.3000;0.6081;0.3026;
1293.6000;0.6121;0.3074;
1293.9000;0.6089;0.2858;
1294.2000;0.6097;0.2882;
1294.5000;0.6081;0.3002;
1294.8000;0.6089;0.3098;
1295.1000;0.6097;0.3170;
1295.4000;0.6097;0.3218;
1295.7000;0.6089;0.3242;
1296.0000;0.6089;0.3218;
1296.3000;0.6081;0.3122;
1296.6000;0.6081;0.3146;
1296.9000;0.6072;0.3074;
1297.2000;0.6089;0.3074;
1297.5000;0.6097;0.3074;
1297.8000;0.6121;0.3122;
1298.1000;0.6089;0.3050;
1298.4000;0.6081;0.3074;
1298.7000;0.6081;0.3026;
1299.0000;0.6097;0.3098;
1299.3000;0.6105;0.3122;
1299.6000;0.6081;0.3050;
1299.9000;0.6129;0.3146;
1300.2000;0.6105;0.3026;
1300.5000;0.6113;0.3002;
1300.8000;0.6105;0.3074;
1301.1000;0.6097;0.3098;
1301.4000;0.6081;0.3074;
1301.7000;0.6097;0.3122;
1302.0000;0.6097;0.3074;
1302.3000;0.6081;0.3098;
1302.6000;0.6105;0.3170;
1302.9000;0.6072;0.3098;
1303.2000;0.6089;0.3098;
1303.5000;0.6089;0.3074;
1303.8000;0.6097;0.3050;
1304.1000;0.6154;0.3242;
1304.4000;0.6097;0.3074;
1304.7000;0.6097;0.3074;
1305.0000;0.6081;0.3050;
1305.3000;0.6081;0.3026;
1305.6000;0.6105;0.3026;
1305.9000;0.6097;0.3098;
1306.2000;0.6081;0.3122;
1306.5000;0.6097;0.3146;
1306.8000;0.6113;0.3242;
1307.1000;0.6081;0.3122;
1307.4000;0.6072;0.3122;
1307.7000;0.6089;0.3074;
1308.0000;0.6129;0.3242;
1308.3000;0.6081;0.3098;
1308.6000;0.6072;0.3050;
1308.9000;0.6081;0.3050;
1309.2000;0.6097;0.3074;
1309.5000;0.6097;0.3050;
1309.8000;0.6081;0.3050;
1310.1000;0.6040;0.2954;
1310.4000;0.6113;0.3194;
1310.7000;0.6072;0.3098;
1311.0000;0.6081;0.3074;
1311.3000;0.6089;0.3050;
1311.6000;0.6105;0.3194;
1311.9000;0.6089;0.3146;
1312.2000;0.6105;0.3170;
1312.5000;0.6081;0.3170;
1312.8000;0.6097;0.3170;
1313.1000;0.6081;0.3170;
1313.4000;0.6081;0.3122;
1313.7000;0.6064;0.3122;
1314.0000;0.6081;0.3146;
1314.3000;0.6089;0.3098;
1314.6000;0.6089;0.3026;
1314.9000;0.6089;0.3026;
1315.2000;0.6089;0.3098;
1315.5000;0.6072;0.3026;
1315.8000;0.6129;0.3242;
1316.1000;0.6089;0.3098;
1316.4000;0.6081;0.3026;
1316.7000;0.6032;0.2858;
1317.0000;0.6089;0.2978;
1317.3000;0.6072;0.3002;
1317.6000;0.6089;0.2978;
1317.9000;0.6089;0.3122;
1318.2000;0.6072;0.3074;
1318.5000;0.6081;0.3050;
1318.8000;0.6081;0.3074;
1319.1000;0.6146;0.3266;
1319.4000;0.6097;0.3194;
1319.7000;0.6081;0.3122;
1320.0000;0.6089;0.3026;
1320.3000;0.6089;0.3026;
1320.6000;0.6089;0.3026;
1320.9000;0.6105;0.3170;
1321.2000;0.6097;0.3050;
1321.5000;0.6097;0.3050;
1321.8000;0.6089;0.3002;
1322.1000;0.6097;0.3026;
1322.4000;0.6097;0.3026;
1322.7000;0.6081;0.3002;
1323.0000;0.6089;0.3098;
1323.3000;0.6105;0.3170;
1323.6000;0.6097;0.3098;
1323.9000;0.6032;0.2978;
1324.2000;0.6081;0.3074;
1324.5000;0.6089;0.3194;
1324.8000;0.6089;0.3218;
1325.1000;0.6089;0.3122;
1325.4000;0.6081;0.3026;
1325.7000;0.6097;0.3074;
1326.0000;0.6097;0.3098;
1326.3000;0.6081;0.3098;
1326.6000;0.6089;0.3194;
1326.9000;0.6089;0.3122;
1327.2000;0.6097;0.3074;
1327.5000;0.6097;0.3074;
1327.8000;0.6072;0.3074;
1328.1000;0.6089;0.3122;
1328.4000;0.6089;0.3122;
1328.7000;0.6113;0.3098;
1329.0000;0.6081;0.3050;
1329.3000;0.6072;0.3026;
1329.6000;0.6081;0.3026;
1329.9000;0.6089;0.3050;
1330.2000;0.6081;0.3026;
1330.5000;0.6081;0.3002;
1330.8000;0.6089;0.2954;
1331.1000;0.6081;0.3002;
1331.4000;0.6089;0.3050;
1331.7000;0.6015;0.2954;
1332.0000;0.6081;0.3146;
1332.3000;0.6081;0.3098;
1332.6000;0.6089;0.3122;
1332.9000;0.6081;0.3122;
1333.2000;0.6024;0.2906;
1333.5000;0.6121;0.3242;
1333.8000;0.6089;0.3146;
1334.1000;0.6081;0.3098;
1334.4000;0.6064;0.3098;
1334.7000;0.6097;0.3194;
1335.0000;0.6024;0.2978;
1335.3000;0.6081;0.3146;
1335.6000;0.6081;0.3218;
1335.9000;0.6097;0.3074;
1336.2000;0.6081;0.2954;
1336.5000;0.6113;0.2978;
1336.8000;0.6081;0.3026;
1337.1000;0.6105;0.3098;
1337.4000;0.6186;0.3290;
1337.7000;0.6081;0.3146;
1338.0000;0.6129;0.3218;
1338.3000;0.6089;0.3170;
1338.6000;0.6097;0.3194;
1338.9000;0.6064;0.3122;
1339.2000;0.6089;0.3170;
1339.5000;0.6056;0.3098;
1339.8000;0.6024;0.2954;
1340.1000;0.6146;0.3242;
1340.4000;0.6113;0.3122;
1340.7000;0.6138;0.3242;
1341.0000;0.6146;0.3314;
1341.3000;0.6089;0.3218;
1341.6000;0.6024;0.3026;
1341.9000;0.6097;0.3266;
1342.2000;0.6081;0.3146;
1342.5000;0.6081;0.3146;
1342.8000;0.6138;0.3218;
1343.1000;0.6113;0.3170;
1343.4000;0.6097;0.3146;
1343.7000;0.6113;0.3170;
1344.0000;0.6056;0.2978;
1344.3000;0.6146;0.3242;
1344.6000;0.6081;0.3098;
1344.9000;0.6097;0.3074;
1345.2000;0.6097;0.3026;
1345.5000;0.6081;0.2906;
1345.8000;0.6072;0.2930;
1346.1000;0.6097;0.2978;
1346.4000;0.6097;0.3002;
1346.7000;0.6089;0.2978;
1347.0000;0.6089;0.3002;
1347.3000;0.6097;0.3002;
1347.6000;0.6081;0.2978;
1347.9000;0.6089;0.2978;
1348.2000;0.6064;0.2930;
1348.5000;0.6097;0.3074;
1348.8000;0.6048;0.2954;
1349.1000;0.6097;0.3050;
1349.4000;0.6097;0.3026;
1349.7000;0.6089;0.3026;
1350.0000;0.6089;0.3050;
1350.3000;0.6081;0.3002;
1350.6000;0.6081;0.2978;
1350.9000;0.6064;0.3002;
1351.2000;0.6097;0.3074;
1351.5000;0.6105;0.3074;
1351.8000;0.6089;0.3050;
1352.1000;0.6105;0.3074;
1352.4000;0.6089;0.3026;
1352.7000;0.6105;0.3098;
1353.0000;0.6081;0.3026;
1353.3000;0.6072;0.2978;
1353.6000;0.6081;0.3002;
1353.9000;0.6072;0.2930;
1354.2000;0.6081;0.2930;
1354.5000;0.6064;0.2882;
1354.8000;0.6081;0.2930;
1355.1000;0.6081;0.2810;
1355.4000;0.6064;0.2810;
1355.7000;0.6081;0.2737;
1356.0000;0.6081;0.2785;
1356.3000;0.6089;0.2785;
1356.6000;0.6097;0.2761;
1356.9000;0.6105;0.2761;
1357.2000;0.6072;0.2810;
1357.5000;0.6105;0.2930;
1357.8000;0.6138;0.3026;
1358.1000;0.6072;0.2954;
1358.4000;0.6081;0.3026;
1358.7000;0.6089;0.3098;
1359.0000;0.6089;0.3146;
1359.3000;0.6089;0.3098;
1359.6000;0.6081;0.3170;
1359.9000;0.6097;0.3242;
1360.2000;0.6089;0.3218;
1360.5000;0.6064;0.3122;
1360.8000;0.6040;0.3026;
1361.1000;0.6048;0.3098;
1361.4000;0.6072;0.3146;
1361.7000;0.6105;0.3314;
1362.0000;0.6064;0.3266;
1362.3000;0.6089;0.3290;
1362.6000;0.6089;0.3242;
1362.9000;0.6089;0.3266;
1363.2000;0.6081;0.3290;
1363.5000;0.6056;0.3146;
1363.8000;0.6089;0.3266;
1364.1000;0.6056;0.3170;
1364.4000;0.6081;0.3170;
1364.7000;0.6072;0.3122;
1365.0000;0.6081;0.3098;
1365.3000;0.6089;0.3074;
1365.6000;0.6154;0.3218;
1365.9000;0.6064;0.3026;
1366.2000;0.6097;0.3050;
1366.5000;0.6113;0.3050;
1366.8000;0.6040;0.2954;
1367.1000;0.6097;0.3170;
1367.4000;0.6072;0.3170;
1367.7000;0.6113;0.3146;
1368.0000;0.6105;0.3146;
1368.3000;0.6072;0.3026;
1368.6000;0.6072;0.3050;
1368.9000;0.6081;0.3122;
1369.2000;0.6089;0.3218;
1369.5000;0.6081;0.3194;
1369.8000;0.6072;0.3146;
1370.1000;0.6081;0.3074;
1370.4000;0.6056;0.3026;
1370.7000;0.6089;0.2978;
1371.0000;0.6081;0.2978;
1371.3000;0.6097;0.3122;
1371.6000;0.6056;0.3002;
1371.9000;0.6138;0.3122;
1372.2000;0.6081;0.2978;
1372.5000;0.6072;0.2954;
1372.8000;0.6089;0.2906;
1373.1000;0.6097;0.2906;
1373.4000;0.6097;0.2930;
1373.7000;0.6072;0.2954;
1374.0000;0.6081;0.3002;
1374.3000;0.6072;0.3122;
1374.6000;0.6105;0.3098;
1374.9000;0.6040;0.2906;
1375.2000;0.6056;0.2930;
1375.5000;0.6113;0.3098;
1375.8000;0.6089;0.3002;
1376.1000;0.6081;0.3002;
1376.4000;0.6105;0.2978;
1376.7000;0.6105;0.3026;
1377.0000;0.6121;0.3098;
1377.3000;0.6081;0.3026;
1377.6000;0.6064;0.2978;
1377.9000;0.6186;0.3290;
1378.2000;0.6097;0.3146;
1378.5000;0.6081;0.3050;
1378.8000;0.6081;0.3026;
1379.1000;0.6097;0.3050;
1379.4000;0.6072;0.3002;
1379.7000;0.6129;0.3194;
1380.0000;0.6089;0.3122;
1380.3000;0.6089;0.3170;
1380.6000;0.6113;0.3098;
1380.9000;0.6064;0.2930;
1381.2000;0.6089;0.2978;
1381.5000;0.6097;0.2978;
1381.8000;0.6097;0.3002;
1382.1000;0.6089;0.3002;
1382.4000;0.6097;0.2978;
1382.7000;0.6081;0.2930;
1383.0000;0.6089;0.2930;
1383.3000;0.6105;0.3002;
1383.6000;0.6089;0.3026;
1383.9000;0.6081;0.3074;
1384.2000;0.6072;0.3146;
1384.5000;0.6081;0.3074;
1384.8000;0.6089;0.3122;
1385.1000;0.6072;0.3098;
1385.4000;0.6081;0.3146;
1385.7000;0.6081;0.3170;
1386.0000;0.6081;0.3122;
1386.3000;0.6081;0.3074;
1386.6000;0.6089;0.3074;
1386.9000;0.6097;0.3026;
1387.2000;0.6072;0.2930;
1387.5000;0.6089;0.2954;
1387.8000;0.6089;0.2954;
1388.1000;0.6081;0.3074;
1388.4000;0.6097;0.3074;
1388.7000;0.6089;0.3050;
1389.0000;0.6064;0.3002;
1389.3000;0.6089;0.3050;
1389.6000;0.6081;0.3050;
1389.9000;0.6089;0.3074;
1390.2000;0.6072;0.3194;
1390.5000;0.6072;0.3170;
1390.8000;0.6072;0.3194;
1391.1000;0.6064;0.3122;
1391.4000;0.6089;0.3146;
1391.7000;0.6072;0.3098;
1392.0000;0.6081;0.3122;
1392.3000;0.6097;0.3170;
1392.6000;0.6072;0.3122;
1392.9000;0.6097;0.3194;
1393.2000;0.6064;0.3074;
1393.5000;0.6105;0.3050;
1393.8000;0.6072;0.2954;
1394.1000;0.6072;0.3002;
1394.4000;0.6081;0.3098;
1394.7000;0.6081;0.3074;
1395.0000;0.6081;0.3002;
1395.3000;0.6072;0.3122;
1395.6000;0.6081;0.3146;
1395.9000;0.6072;0.3194;
1396.2000;0.6072;0.3098;
1396.5000;0.6072;0.3098;
1396.8000;0.6081;0.3074;
1397.1000;0.6072;0.3074;
1397.4000;0.6081;0.2978;
1397.7000;0.6081;0.2978;
1398.0000;0.6064;0.3050;
1398.3000;0.6081;0.3002;
1398.6000;0.6081;0.2930;
1398.9000;0.6081;0.3026;
1399.2000;0.6072;0.3002;
1399.5000;0.6072;0.3050;
1399.8000;0.6081;0.3098;
