time/ms;Fluo/V;P700 deltaI/I x10³;
-199.8000;0.8002;0.4466;
-199.5000;0.8075;0.4610;
-199.2000;0.8067;0.4466;
-198.9000;0.8067;0.4514;
-198.6000;0.8083;0.4562;
-198.3000;0.8075;0.4514;
-198.0000;0.8059;0.4490;
-197.7000;0.8067;0.4538;
-197.4000;0.8042;0.4442;
-197.1000;0.8026;0.4466;
-196.8000;0.8050;0.4490;
-196.5000;0.8050;0.4586;
-196.2000;0.8034;0.4442;
-195.9000;0.8034;0.4514;
-195.6000;0.8067;0.4634;
-195.3000;0.8059;0.4659;
-195.0000;0.8042;0.4707;
-194.7000;0.8059;0.4683;
-194.4000;0.8059;0.4659;
-194.1000;0.8050;0.4683;
-193.8000;0.7993;0.4562;
-193.5000;0.8050;0.4707;
-193.2000;0.8067;0.4731;
-192.9000;0.8116;0.4827;
-192.6000;0.8067;0.4634;
-192.3000;0.8099;0.4659;
-192.0000;0.8050;0.4562;
-191.7000;0.8075;0.4683;
-191.4000;0.8059;0.4634;
-191.1000;0.8173;0.4899;
-190.8000;0.8042;0.4634;
-190.5000;0.8059;0.4659;
-190.2000;0.8091;0.4683;
-189.9000;0.8034;0.4586;
-189.6000;0.8059;0.4634;
-189.3000;0.8042;0.4634;
-189.0000;0.8050;0.4610;
-188.7000;0.8083;0.4659;
-188.4000;0.8067;0.4634;
-188.1000;0.8067;0.4634;
-187.8000;0.8067;0.4610;
-187.5000;0.8075;0.4562;
-187.2000;0.8034;0.4490;
-186.9000;0.8059;0.4538;
-186.6000;0.8042;0.4562;
-186.3000;0.8050;0.4634;
-186.0000;0.8059;0.4490;
-185.7000;0.8067;0.4466;
-185.4000;0.8050;0.4418;
-185.1000;0.8059;0.4370;
-184.8000;0.8067;0.4346;
-184.5000;0.8059;0.4298;
-184.2000;0.8050;0.4322;
-183.9000;0.8050;0.4370;
-183.6000;0.8050;0.4442;
-183.3000;0.8059;0.4490;
-183.0000;0.8050;0.4586;
-182.7000;0.8059;0.4610;
-182.4000;0.8042;0.4538;
-182.1000;0.8050;0.4586;
-181.8000;0.7969;0.4346;
-181.5000;0.8050;0.4634;
-181.2000;0.8067;0.4683;
-180.9000;0.8059;0.4659;
-180.6000;0.8026;0.4562;
-180.3000;0.8042;0.4562;
-180.0000;0.8050;0.4538;
-179.7000;0.8059;0.4442;
-179.4000;0.8050;0.4346;
-179.1000;0.8059;0.4370;
-178.8000;0.8067;0.4466;
-178.5000;0.8042;0.4514;
-178.2000;0.8050;0.4586;
-177.9000;0.8042;0.4562;
-177.6000;0.8059;0.4562;
-177.3000;0.8042;0.4538;
-177.0000;0.8148;0.4803;
-176.7000;0.8050;0.4562;
-176.4000;0.8067;0.4634;
-176.1000;0.8067;0.4634;
-175.8000;0.7993;0.4490;
-175.5000;0.8026;0.4610;
-175.2000;0.8034;0.4586;
-174.9000;0.8042;0.4610;
-174.6000;0.8026;0.4538;
-174.3000;0.8059;0.4659;
-174.0000;0.8059;0.4610;
-173.7000;0.8067;0.4634;
-173.4000;0.8059;0.4707;
-173.1000;0.8116;0.4899;
-172.8000;0.8059;0.4803;
-172.5000;0.8067;0.4803;
-172.2000;0.8034;0.4827;
-171.9000;0.8050;0.4827;
-171.6000;0.8010;0.4707;
-171.3000;0.7985;0.4586;
-171.0000;0.8050;0.4731;
-170.7000;0.8075;0.4755;
-170.4000;0.8050;0.4683;
-170.1000;0.8059;0.4634;
-169.8000;0.8042;0.4683;
-169.5000;0.8059;0.4659;
-169.2000;0.8042;0.4707;
-168.9000;0.8059;0.4731;
-168.6000;0.8026;0.4634;
-168.3000;0.8010;0.4538;
-168.0000;0.8026;0.4562;
-167.7000;0.8026;0.4538;
-167.4000;0.8059;0.4707;
-167.1000;0.8124;0.4875;
-166.8000;0.8050;0.4755;
-166.5000;0.8050;0.4707;
-166.2000;0.8002;0.4610;
-165.9000;0.8075;0.4707;
-165.6000;0.8059;0.4731;
-165.3000;0.8050;0.4707;
-165.0000;0.8059;0.4707;
-164.7000;0.8067;0.4755;
-164.4000;0.8067;0.4634;
-164.1000;0.8050;0.4659;
-163.8000;0.8042;0.4634;
-163.5000;0.8083;0.4803;
-163.2000;0.8059;0.4803;
-162.9000;0.8042;0.4779;
-162.6000;0.8059;0.4755;
-162.3000;0.8050;0.4659;
-162.0000;0.8059;0.4683;
-161.7000;0.8050;0.4659;
-161.4000;0.8042;0.4562;
-161.1000;0.8050;0.4538;
-160.8000;0.8042;0.4562;
-160.5000;0.8042;0.4586;
-160.2000;0.8050;0.4586;
-159.9000;0.8026;0.4562;
-159.6000;0.8050;0.4610;
-159.3000;0.8042;0.4634;
-159.0000;0.8042;0.4634;
-158.7000;0.8042;0.4634;
-158.4000;0.8034;0.4586;
-158.1000;0.8050;0.4586;
-157.8000;0.8034;0.4514;
-157.5000;0.8042;0.4610;
-157.2000;0.8059;0.4707;
-156.9000;0.8059;0.4683;
-156.6000;0.8010;0.4538;
-156.3000;0.8050;0.4586;
-156.0000;0.8034;0.4683;
-155.7000;0.8091;0.4827;
-155.4000;0.8050;0.4707;
-155.1000;0.7985;0.4586;
-154.8000;0.8059;0.4827;
-154.5000;0.8083;0.4851;
-154.2000;0.8059;0.4827;
-153.9000;0.8050;0.4899;
-153.6000;0.8034;0.4947;
-153.3000;0.8059;0.5091;
-153.0000;0.8050;0.5067;
-152.7000;0.8059;0.5019;
-152.4000;0.8050;0.4875;
-152.1000;0.8075;0.4803;
-151.8000;0.8067;0.4803;
-151.5000;0.8067;0.4779;
-151.2000;0.8034;0.4755;
-150.9000;0.8050;0.4755;
-150.6000;0.8050;0.4707;
-150.3000;0.8034;0.4586;
-150.0000;0.8034;0.4659;
-149.7000;0.8050;0.4683;
-149.4000;0.8059;0.4779;
-149.1000;0.8034;0.4803;
-148.8000;0.8067;0.4827;
-148.5000;0.8059;0.4827;
-148.2000;0.8018;0.4803;
-147.9000;0.8059;0.4827;
-147.6000;0.8059;0.4779;
-147.3000;0.8059;0.4779;
-147.0000;0.8059;0.4827;
-146.7000;0.8059;0.4827;
-146.4000;0.8059;0.4755;
-146.1000;0.8034;0.4803;
-145.8000;0.8059;0.4851;
-145.5000;0.8059;0.4827;
-145.2000;0.8059;0.4899;
-144.9000;0.8083;0.5019;
-144.6000;0.8034;0.4899;
-144.3000;0.8067;0.4851;
-144.0000;0.8067;0.4875;
-143.7000;0.8042;0.4827;
-143.4000;0.8050;0.4923;
-143.1000;0.7993;0.4779;
-142.8000;0.8059;0.4875;
-142.5000;0.8050;0.4755;
-142.2000;0.8050;0.4707;
-141.9000;0.8050;0.4731;
-141.6000;0.8059;0.4779;
-141.3000;0.8059;0.4779;
-141.0000;0.8099;0.4851;
-140.7000;0.8042;0.4755;
-140.4000;0.8067;0.4803;
-140.1000;0.8050;0.4779;
-139.8000;0.8050;0.4755;
-139.5000;0.8067;0.4875;
-139.2000;0.8067;0.4923;
-138.9000;0.8059;0.4899;
-138.6000;0.8042;0.4827;
-138.3000;0.8042;0.4875;
-138.0000;0.8059;0.4851;
-137.7000;0.8059;0.4803;
-137.4000;0.8002;0.4610;
-137.1000;0.8042;0.4707;
-136.8000;0.8050;0.4875;
-136.5000;0.8059;0.4899;
-136.2000;0.8067;0.4803;
-135.9000;0.8042;0.4707;
-135.6000;0.8042;0.4755;
-135.3000;0.8042;0.4779;
-135.0000;0.8034;0.4851;
-134.7000;0.8042;0.4899;
-134.4000;0.8050;0.4923;
-134.1000;0.8067;0.4947;
-133.8000;0.8059;0.4875;
-133.5000;0.8059;0.4779;
-133.2000;0.8050;0.4803;
-132.9000;0.7985;0.4634;
-132.6000;0.8002;0.4610;
-132.3000;0.8067;0.4659;
-132.0000;0.8050;0.4634;
-131.7000;0.8059;0.4634;
-131.4000;0.8050;0.4683;
-131.1000;0.8083;0.4755;
-130.8000;0.8026;0.4683;
-130.5000;0.8107;0.4899;
-130.2000;0.8034;0.4683;
-129.9000;0.8050;0.4779;
-129.6000;0.8050;0.4827;
-129.3000;0.8050;0.4827;
-129.0000;0.8050;0.4875;
-128.7000;0.8050;0.4803;
-128.4000;0.8059;0.4899;
-128.1000;0.8091;0.4971;
-127.8000;0.8075;0.4995;
-127.5000;0.8050;0.4899;
-127.2000;0.8042;0.4899;
-126.9000;0.8059;0.4899;
-126.6000;0.8034;0.4875;
-126.3000;0.8059;0.4899;
-126.0000;0.8042;0.4851;
-125.7000;0.8050;0.4827;
-125.4000;0.8059;0.4827;
-125.1000;0.8034;0.4803;
-124.8000;0.8034;0.4731;
-124.5000;0.8010;0.4755;
-124.2000;0.8018;0.4731;
-123.9000;0.8034;0.4755;
-123.6000;0.8026;0.4683;
-123.3000;0.8042;0.4755;
-123.0000;0.8034;0.4634;
-122.7000;0.8050;0.4779;
-122.4000;0.8059;0.4827;
-122.1000;0.8034;0.4755;
-121.8000;0.8050;0.4803;
-121.5000;0.8034;0.4803;
-121.2000;0.8059;0.4803;
-120.9000;0.8050;0.4707;
-120.6000;0.8050;0.4731;
-120.3000;0.8059;0.4659;
-120.0000;0.8067;0.4731;
-119.7000;0.8042;0.4683;
-119.4000;0.8034;0.4659;
-119.1000;0.8075;0.4707;
-118.8000;0.8059;0.4755;
-118.5000;0.8067;0.4851;
-118.2000;0.8067;0.4875;
-117.9000;0.8050;0.4827;
-117.6000;0.8059;0.4827;
-117.3000;0.8050;0.4779;
-117.0000;0.8067;0.4803;
-116.7000;0.8067;0.4827;
-116.4000;0.8083;0.4827;
-116.1000;0.8059;0.4755;
-115.8000;0.8059;0.4779;
-115.5000;0.7985;0.4514;
-115.2000;0.8042;0.4683;
-114.9000;0.8050;0.4803;
-114.6000;0.8050;0.4803;
-114.3000;0.8034;0.4827;
-114.0000;0.8067;0.4803;
-113.7000;0.8067;0.4731;
-113.4000;0.8140;0.4971;
-113.1000;0.8042;0.4707;
-112.8000;0.8067;0.4707;
-112.5000;0.8173;0.4971;
-112.2000;0.8067;0.4683;
-111.9000;0.8067;0.4779;
-111.6000;0.8075;0.4707;
-111.3000;0.8042;0.4707;
-111.0000;0.8059;0.4683;
-110.7000;0.8042;0.4634;
-110.4000;0.8050;0.4634;
-110.1000;0.8067;0.4707;
-109.8000;0.8050;0.4707;
-109.5000;0.8050;0.4731;
-109.2000;0.8026;0.4707;
-108.9000;0.8050;0.4803;
-108.6000;0.8099;0.4995;
-108.3000;0.8042;0.4755;
-108.0000;0.8026;0.4731;
-107.7000;0.8050;0.4779;
-107.4000;0.8067;0.4779;
-107.1000;0.8067;0.4803;
-106.8000;0.8075;0.4803;
-106.5000;0.8059;0.4803;
-106.2000;0.8034;0.4827;
-105.9000;0.7945;0.4659;
-105.6000;0.8059;0.5043;
-105.3000;0.8050;0.5019;
-105.0000;0.8116;0.5091;
-104.7000;0.8050;0.4827;
-104.4000;0.8075;0.4875;
-104.1000;0.8050;0.4827;
-103.8000;0.8075;0.4851;
-103.5000;0.8059;0.4923;
-103.2000;0.8059;0.4899;
-102.9000;0.8018;0.4755;
-102.6000;0.8059;0.4779;
-102.3000;0.8124;0.4851;
-102.0000;0.8050;0.4779;
-101.7000;0.8050;0.4779;
-101.4000;0.7993;0.4731;
-101.1000;0.8059;0.4851;
-100.8000;0.8018;0.4851;
-100.5000;0.8026;0.4923;
-100.2000;0.8042;0.4923;
-99.9000;0.8034;0.4899;
-99.6000;0.8026;0.4875;
-99.3000;0.8026;0.4827;
-99.0000;0.8026;0.4827;
-98.7000;0.8042;0.4923;
-98.4000;0.8059;0.4899;
-98.1000;0.8042;0.4803;
-97.8000;0.8059;0.4755;
-97.5000;0.8050;0.4779;
-97.2000;0.8042;0.4779;
-96.9000;0.8034;0.4755;
-96.6000;0.8042;0.4731;
-96.3000;0.8034;0.4683;
-96.0000;0.8042;0.4731;
-95.7000;0.8067;0.4731;
-95.4000;0.8042;0.4659;
-95.1000;0.8042;0.4586;
-94.8000;0.8091;0.4707;
-94.5000;0.8067;0.4731;
-94.2000;0.8050;0.4634;
-93.9000;0.8050;0.4659;
-93.6000;0.8042;0.4610;
-93.3000;0.8059;0.4755;
-93.0000;0.8034;0.4707;
-92.7000;0.8050;0.4755;
-92.4000;0.8067;0.4779;
-92.1000;0.7985;0.4586;
-91.8000;0.8050;0.4755;
-91.5000;0.8059;0.4755;
-91.2000;0.8075;0.4755;
-90.9000;0.7985;0.4562;
-90.6000;0.8067;0.4779;
-90.3000;0.8042;0.4779;
-90.0000;0.8042;0.4755;
-89.7000;0.8034;0.4731;
-89.4000;0.8050;0.4659;
-89.1000;0.8034;0.4659;
-88.8000;0.8099;0.4803;
-88.5000;0.8067;0.4683;
-88.2000;0.8059;0.4659;
-87.9000;0.8059;0.4731;
-87.6000;0.8050;0.4634;
-87.3000;0.8042;0.4659;
-87.0000;0.8059;0.4659;
-86.7000;0.8034;0.4514;
-86.4000;0.8059;0.4490;
-86.1000;0.8059;0.4586;
-85.8000;0.8059;0.4659;
-85.5000;0.8050;0.4610;
-85.2000;0.8050;0.4634;
-84.9000;0.8010;0.4514;
-84.6000;0.8050;0.4610;
-84.3000;0.8059;0.4634;
-84.0000;0.8116;0.4827;
-83.7000;0.8034;0.4683;
-83.4000;0.8059;0.4755;
-83.1000;0.8042;0.4731;
-82.8000;0.8091;0.4851;
-82.5000;0.7945;0.4538;
-82.2000;0.8059;0.4731;
-81.9000;0.8067;0.4779;
-81.6000;0.8059;0.4683;
-81.3000;0.8050;0.4755;
-81.0000;0.8050;0.4683;
-80.7000;0.8067;0.4803;
-80.4000;0.8067;0.4803;
-80.1000;0.8034;0.4755;
-79.8000;0.8059;0.4779;
-79.5000;0.8059;0.4803;
-79.2000;0.8059;0.4779;
-78.9000;0.8050;0.4755;
-78.6000;0.8059;0.4731;
-78.3000;0.8067;0.4827;
-78.0000;0.8067;0.4875;
-77.7000;0.8059;0.4851;
-77.4000;0.8067;0.4875;
-77.1000;0.8059;0.4875;
-76.8000;0.8042;0.4875;
-76.5000;0.8075;0.4851;
-76.2000;0.8059;0.4875;
-75.9000;0.8083;0.4947;
-75.6000;0.8059;0.4923;
-75.3000;0.8059;0.4923;
-75.0000;0.8059;0.4899;
-74.7000;0.8067;0.4875;
-74.4000;0.8059;0.4779;
-74.1000;0.8050;0.4731;
-73.8000;0.8050;0.4779;
-73.5000;0.8050;0.4827;
-73.2000;0.8059;0.4851;
-72.9000;0.8050;0.4923;
-72.6000;0.8050;0.4899;
-72.3000;0.8042;0.4947;
-72.0000;0.8059;0.4995;
-71.7000;0.8075;0.5091;
-71.4000;0.8059;0.5067;
-71.1000;0.8042;0.5043;
-70.8000;0.8059;0.5043;
-70.5000;0.8059;0.5043;
-70.2000;0.8050;0.4947;
-69.9000;0.8018;0.4755;
-69.6000;0.8034;0.4851;
-69.3000;0.8042;0.4803;
-69.0000;0.8059;0.4779;
-68.7000;0.8034;0.4707;
-68.4000;0.8050;0.4731;
-68.1000;0.8042;0.4755;
-67.8000;0.8018;0.4707;
-67.5000;0.8050;0.4755;
-67.2000;0.8059;0.4827;
-66.9000;0.8034;0.4731;
-66.6000;0.8067;0.4851;
-66.3000;0.8050;0.4875;
-66.0000;0.8034;0.4755;
-65.7000;0.8050;0.4851;
-65.4000;0.8042;0.4851;
-65.1000;0.8059;0.4947;
-64.8000;0.8026;0.4947;
-64.5000;0.8050;0.4971;
-64.2000;0.8034;0.4875;
-63.9000;0.8042;0.4851;
-63.6000;0.8026;0.4827;
-63.3000;0.8083;0.4947;
-63.0000;0.8050;0.4875;
-62.7000;0.8018;0.4899;
-62.4000;0.8050;0.4947;
-62.1000;0.8042;0.4875;
-61.8000;0.8067;0.4875;
-61.5000;0.8026;0.4634;
-61.2000;0.8091;0.4875;
-60.9000;0.7953;0.4538;
-60.6000;0.8083;0.4803;
-60.3000;0.8059;0.4731;
-60.0000;0.7969;0.4538;
-59.7000;0.8050;0.4755;
-59.4000;0.8026;0.4755;
-59.1000;0.8034;0.4707;
-58.8000;0.8002;0.4466;
-58.5000;0.8083;0.4610;
-58.2000;0.8050;0.4610;
-57.9000;0.8050;0.4683;
-57.6000;0.8059;0.4634;
-57.3000;0.8050;0.4610;
-57.0000;0.8042;0.4659;
-56.7000;0.8059;0.4779;
-56.4000;0.8148;0.4995;
-56.1000;0.8059;0.4731;
-55.8000;0.8034;0.4707;
-55.5000;0.8059;0.4827;
-55.2000;0.8050;0.4803;
-54.9000;0.8059;0.4755;
-54.6000;0.8034;0.4803;
-54.3000;0.8042;0.4827;
-54.0000;0.8075;0.4923;
-53.7000;0.8059;0.4923;
-53.4000;0.8034;0.4947;
-53.1000;0.8050;0.4995;
-52.8000;0.8067;0.4971;
-52.5000;0.8059;0.4923;
-52.2000;0.8050;0.4995;
-51.9000;0.8059;0.4947;
-51.6000;0.8059;0.4995;
-51.3000;0.8075;0.4995;
-51.0000;0.8050;0.5043;
-50.7000;0.8042;0.5043;
-50.4000;0.8042;0.5067;
-50.1000;0.8075;0.5139;
-49.8000;0.8034;0.5139;
-49.5000;0.8042;0.5187;
-49.2000;0.8042;0.5115;
-48.9000;0.8059;0.5043;
-48.6000;0.8042;0.4971;
-48.3000;0.8075;0.4971;
-48.0000;0.8067;0.4923;
-47.7000;0.8059;0.4947;
-47.4000;0.8059;0.4875;
-47.1000;0.8042;0.4899;
-46.8000;0.8042;0.4971;
-46.5000;0.8034;0.4923;
-46.2000;0.8050;0.5019;
-45.9000;0.8067;0.4947;
-45.6000;0.8050;0.4827;
-45.3000;0.8050;0.4779;
-45.0000;0.8059;0.4779;
-44.7000;0.8059;0.4707;
-44.4000;0.8091;0.4899;
-44.1000;0.8034;0.4923;
-43.8000;0.8042;0.4971;
-43.5000;0.8059;0.5019;
-43.2000;0.8050;0.4947;
-42.9000;0.8034;0.4851;
-42.6000;0.8034;0.4923;
-42.3000;0.8050;0.4923;
-42.0000;0.8059;0.4899;
-41.7000;0.8050;0.4827;
-41.4000;0.8050;0.4803;
-41.1000;0.8083;0.4923;
-40.8000;0.8050;0.4851;
-40.5000;0.8042;0.4851;
-40.2000;0.8067;0.4827;
-39.9000;0.8050;0.4803;
-39.6000;0.8050;0.4803;
-39.3000;0.8067;0.4731;
-39.0000;0.8042;0.4659;
-38.7000;0.8075;0.4707;
-38.4000;0.8059;0.4659;
-38.1000;0.8034;0.4731;
-37.8000;0.8042;0.4731;
-37.5000;0.8050;0.4779;
-37.2000;0.8050;0.4827;
-36.9000;0.8067;0.4923;
-36.6000;0.8067;0.4851;
-36.3000;0.8050;0.4947;
-36.0000;0.8059;0.4995;
-35.7000;0.8034;0.4947;
-35.4000;0.8042;0.4971;
-35.1000;0.8034;0.4971;
-34.8000;0.8034;0.5019;
-34.5000;0.8050;0.5115;
-34.2000;0.8034;0.4995;
-33.9000;0.8042;0.5019;
-33.6000;0.8050;0.5043;
-33.3000;0.8083;0.5019;
-33.0000;0.8050;0.4923;
-32.7000;0.8034;0.4947;
-32.4000;0.8034;0.4923;
-32.1000;0.8042;0.4947;
-31.8000;0.8034;0.4851;
-31.5000;0.8042;0.4899;
-31.2000;0.8010;0.4899;
-30.9000;0.8059;0.5115;
-30.6000;0.8042;0.5187;
-30.3000;0.8042;0.5115;
-30.0000;0.8050;0.5139;
-29.7000;0.8067;0.5163;
-29.4000;0.8059;0.5115;
-29.1000;0.8042;0.5139;
-28.8000;0.8059;0.5091;
-28.5000;0.8067;0.5067;
-28.2000;0.8059;0.5043;
-27.9000;0.8042;0.4971;
-27.6000;0.8075;0.5019;
-27.3000;0.8059;0.4995;
-27.0000;0.8059;0.5067;
-26.7000;0.8067;0.5067;
-26.4000;0.8042;0.5019;
-26.1000;0.8091;0.5259;
-25.8000;0.8075;0.5235;
-25.5000;0.8059;0.5163;
-25.2000;0.8059;0.5115;
-24.9000;0.8059;0.5211;
-24.6000;0.8116;0.5331;
-24.3000;0.8067;0.5235;
-24.0000;0.8059;0.5115;
-23.7000;0.8050;0.5067;
-23.4000;0.8050;0.5091;
-23.1000;0.8059;0.5019;
-22.8000;0.8034;0.4971;
-22.5000;0.8050;0.4971;
-22.2000;0.8050;0.4971;
-21.9000;0.8059;0.4947;
-21.6000;0.8050;0.4875;
-21.3000;0.8010;0.4755;
-21.0000;0.8059;0.4899;
-20.7000;0.8050;0.4899;
-20.4000;0.8091;0.4851;
-20.1000;0.8050;0.4731;
-19.8000;0.8059;0.4683;
-19.5000;0.8067;0.4731;
-19.2000;0.8075;0.4707;
-18.9000;0.8059;0.4659;
-18.6000;0.8050;0.4683;
-18.3000;0.8067;0.4707;
-18.0000;0.8059;0.4707;
-17.7000;0.8059;0.4683;
-17.4000;0.8042;0.4755;
-17.1000;0.8083;0.4851;
-16.8000;0.8059;0.4779;
-16.5000;0.8067;0.4875;
-16.2000;0.8075;0.4803;
-15.9000;0.8067;0.4731;
-15.6000;0.8050;0.4683;
-15.3000;0.8067;0.4779;
-15.0000;0.8050;0.4755;
-14.7000;0.8083;0.4803;
-14.4000;0.8059;0.4779;
-14.1000;0.8059;0.4851;
-13.8000;0.8042;0.4803;
-13.5000;0.7969;0.4683;
-13.2000;0.8067;0.4971;
-12.9000;0.8050;0.5043;
-12.6000;0.8059;0.5043;
-12.3000;0.8042;0.5019;
-12.0000;0.8059;0.5115;
-11.7000;0.8059;0.5139;
-11.4000;0.8067;0.5235;
-11.1000;0.8042;0.5139;
-10.8000;0.8067;0.5163;
-10.5000;0.8067;0.5139;
-10.2000;0.8050;0.5115;
-9.9000;0.8050;0.4995;
-9.6000;0.8059;0.4971;
-9.3000;0.8067;0.5043;
-9.0000;0.8067;0.4947;
-8.7000;0.8034;0.4947;
-8.4000;0.8042;0.4899;
-8.1000;0.8050;0.4923;
-7.8000;0.8050;0.4995;
-7.5000;0.8042;0.5043;
-7.2000;0.8067;0.5067;
-6.9000;0.8059;0.5091;
-6.6000;0.8059;0.5043;
-6.3000;0.8067;0.5091;
-6.0000;0.8034;0.5019;
-5.7000;0.8050;0.5019;
-5.4000;0.8050;0.5043;
-5.1000;0.8050;0.4971;
-4.8000;0.8042;0.4875;
-4.5000;0.8067;0.4899;
-4.2000;0.8059;0.4851;
-3.9000;0.8042;0.4779;
-3.6000;0.8059;0.4827;
-3.3000;0.8026;0.4827;
-3.0000;0.8050;0.4899;
-2.7000;0.8042;0.4971;
-2.4000;0.8034;0.4971;
-2.1000;0.8050;0.5067;
-1.8000;0.8059;0.5115;
-1.5000;0.8050;0.4995;
-1.2000;0.8050;0.4995;
-0.9000;0.8042;0.4971;
-0.6000;0.8042;0.4995;
-0.3000;0.8034;0.4971;
0.0000;0.8034;0.4971;
0.3000;0.8099;0.4827;
0.6000;0.8164;0.5139;
0.9000;0.8197;0.5331;
1.2000;0.8230;0.5451;
1.5000;0.8230;0.5643;
1.8000;0.8278;0.5835;
2.1000;0.8246;0.6003;
2.4000;0.8295;0.6315;
2.7000;0.8319;0.6411;
3.0000;0.8344;0.6508;
3.3000;0.8344;0.6628;
3.6000;0.8376;0.6748;
3.9000;0.8360;0.6796;
4.2000;0.8360;0.6772;
4.5000;0.8376;0.6844;
4.8000;0.8392;0.6940;
5.1000;0.8392;0.6940;
5.4000;0.8400;0.7012;
5.7000;0.8409;0.7036;
6.0000;0.8392;0.7036;
6.3000;0.8400;0.7012;
6.6000;0.8392;0.7036;
6.9000;0.8409;0.6964;
7.2000;0.8409;0.7036;
7.5000;0.8425;0.7012;
7.8000;0.8425;0.7012;
8.1000;0.8441;0.7060;
8.4000;0.8457;0.7132;
8.7000;0.8441;0.7060;
9.0000;0.8441;0.7084;
9.3000;0.8457;0.6988;
9.6000;0.8474;0.6988;
9.9000;0.8490;0.7012;
10.2000;0.8457;0.7060;
10.5000;0.8466;0.7108;
10.8000;0.8474;0.7204;
11.1000;0.8466;0.7156;
11.4000;0.8392;0.7012;
11.7000;0.8482;0.7204;
12.0000;0.8474;0.7108;
12.3000;0.8498;0.7156;
12.6000;0.8482;0.7084;
12.9000;0.8482;0.7012;
13.2000;0.8498;0.6988;
13.5000;0.8506;0.7012;
13.8000;0.8474;0.7036;
14.1000;0.8482;0.7036;
14.4000;0.8514;0.7108;
14.7000;0.8514;0.7180;
15.0000;0.8441;0.6868;
15.3000;0.8506;0.7012;
15.6000;0.8523;0.7036;
15.9000;0.8506;0.7036;
16.2000;0.8523;0.7012;
16.5000;0.8523;0.7036;
16.8000;0.8506;0.6964;
17.1000;0.8523;0.6964;
17.4000;0.8531;0.7036;
17.7000;0.8531;0.7060;
18.0000;0.8514;0.7084;
18.3000;0.8531;0.7036;
18.6000;0.8531;0.7060;
18.9000;0.8523;0.7132;
19.2000;0.8523;0.7132;
19.5000;0.8531;0.7108;
19.8000;0.8531;0.7132;
20.1000;0.8498;0.7036;
20.4000;0.8547;0.7180;
20.7000;0.8547;0.7156;
21.0000;0.8539;0.7084;
21.3000;0.8539;0.7084;
21.6000;0.8539;0.7156;
21.9000;0.8555;0.7252;
22.2000;0.8555;0.7156;
22.5000;0.8571;0.7180;
22.8000;0.8547;0.7060;
23.1000;0.8531;0.6916;
23.4000;0.8531;0.6988;
23.7000;0.8539;0.7036;
24.0000;0.8539;0.7036;
24.3000;0.8531;0.7012;
24.6000;0.8539;0.7036;
24.9000;0.8547;0.7060;
25.2000;0.8555;0.7036;
25.5000;0.8571;0.7012;
25.8000;0.8539;0.6964;
26.1000;0.8547;0.7012;
26.4000;0.8547;0.7060;
26.7000;0.8539;0.6988;
27.0000;0.8547;0.6892;
27.3000;0.8531;0.6844;
27.6000;0.8555;0.6820;
27.9000;0.8580;0.6892;
28.2000;0.8523;0.6796;
28.5000;0.8539;0.7036;
28.8000;0.8563;0.7036;
29.1000;0.8547;0.6964;
29.4000;0.8539;0.6988;
29.7000;0.8571;0.7036;
30.0000;0.8563;0.6988;
30.3000;0.8580;0.7084;
30.6000;0.8555;0.7060;
30.9000;0.8563;0.7084;
31.2000;0.8555;0.7108;
31.5000;0.8555;0.7132;
31.8000;0.8506;0.6988;
32.1000;0.8563;0.7156;
32.4000;0.8547;0.7084;
32.7000;0.8547;0.7060;
33.0000;0.8563;0.6988;
33.3000;0.8628;0.7204;
33.6000;0.8555;0.7060;
33.9000;0.8547;0.7108;
34.2000;0.8539;0.7108;
34.5000;0.8482;0.6940;
34.8000;0.8563;0.7084;
35.1000;0.8571;0.7108;
35.4000;0.8555;0.7084;
35.7000;0.8547;0.7060;
36.0000;0.8555;0.7036;
36.3000;0.8555;0.7012;
36.6000;0.8547;0.6964;
36.9000;0.8571;0.7060;
37.2000;0.8571;0.7012;
37.5000;0.8571;0.6916;
37.8000;0.8563;0.6892;
38.1000;0.8523;0.6772;
38.4000;0.8571;0.6940;
38.7000;0.8539;0.6820;
39.0000;0.8588;0.6940;
39.3000;0.8580;0.6844;
39.6000;0.8547;0.6724;
39.9000;0.8555;0.6772;
40.2000;0.8571;0.6892;
40.5000;0.8580;0.6988;
40.8000;0.8588;0.6988;
41.1000;0.8596;0.7012;
41.4000;0.8596;0.6988;
41.7000;0.8588;0.6964;
42.0000;0.8571;0.6940;
42.3000;0.8563;0.6964;
42.6000;0.8563;0.6964;
42.9000;0.8571;0.7012;
43.2000;0.8539;0.6892;
43.5000;0.8555;0.6892;
43.8000;0.8571;0.6916;
44.1000;0.8563;0.6916;
44.4000;0.8580;0.6988;
44.7000;0.8571;0.6964;
45.0000;0.8571;0.6940;
45.3000;0.8571;0.7012;
45.6000;0.8580;0.6940;
45.9000;0.8539;0.6820;
46.2000;0.8563;0.6988;
46.5000;0.8563;0.7012;
46.8000;0.8563;0.6964;
47.1000;0.8571;0.6940;
47.4000;0.8571;0.6844;
47.7000;0.8555;0.6820;
48.0000;0.8580;0.6868;
48.3000;0.8571;0.6940;
48.6000;0.8555;0.6964;
48.9000;0.8563;0.7036;
49.2000;0.8571;0.7132;
49.5000;0.8563;0.7036;
49.8000;0.8596;0.7156;
50.1000;0.8547;0.7108;
50.4000;0.8571;0.7132;
50.7000;0.8555;0.7084;
51.0000;0.8555;0.7084;
51.3000;0.8563;0.7084;
51.6000;0.8563;0.7204;
51.9000;0.8555;0.7108;
52.2000;0.8571;0.7180;
52.5000;0.8547;0.6988;
52.8000;0.8555;0.7108;
53.1000;0.8563;0.7060;
53.4000;0.8555;0.7036;
53.7000;0.8563;0.7108;
54.0000;0.8555;0.7132;
54.3000;0.8563;0.7084;
54.6000;0.8555;0.7012;
54.9000;0.8547;0.7060;
55.2000;0.8588;0.7084;
55.5000;0.8563;0.6964;
55.8000;0.8555;0.6988;
56.1000;0.8588;0.7060;
56.4000;0.8555;0.7012;
56.7000;0.8596;0.7108;
57.0000;0.8563;0.7108;
57.3000;0.8449;0.6772;
57.6000;0.8563;0.7036;
57.9000;0.8539;0.7012;
58.2000;0.8563;0.7156;
58.5000;0.8563;0.7108;
58.8000;0.8620;0.7300;
59.1000;0.8612;0.7300;
59.4000;0.8555;0.7204;
59.7000;0.8571;0.7156;
60.0000;0.8531;0.7036;
60.3000;0.8555;0.7036;
60.6000;0.8588;0.7084;
60.9000;0.8555;0.7060;
61.2000;0.8571;0.6988;
61.5000;0.8563;0.6964;
61.8000;0.8571;0.6988;
62.1000;0.8563;0.7012;
62.4000;0.8563;0.7012;
62.7000;0.8612;0.7108;
63.0000;0.8563;0.6964;
63.3000;0.8563;0.7084;
63.6000;0.8547;0.7060;
63.9000;0.8555;0.7060;
64.2000;0.8563;0.7132;
64.5000;0.8580;0.7156;
64.8000;0.8580;0.7132;
65.1000;0.8563;0.7060;
65.4000;0.8571;0.7036;
65.7000;0.8563;0.7060;
66.0000;0.8588;0.7132;
66.3000;0.8563;0.7108;
66.6000;0.8571;0.7132;
66.9000;0.8571;0.7084;
67.2000;0.8563;0.6964;
67.5000;0.8563;0.6916;
67.8000;0.8563;0.6916;
68.1000;0.8555;0.6772;
68.4000;0.8555;0.6820;
68.7000;0.8555;0.6892;
69.0000;0.8580;0.6916;
69.3000;0.8588;0.6916;
69.6000;0.8563;0.6868;
69.9000;0.8588;0.6844;
70.2000;0.8571;0.6868;
70.5000;0.8596;0.6892;
70.8000;0.8604;0.6868;
71.1000;0.8596;0.6916;
71.4000;0.8571;0.6940;
71.7000;0.8620;0.7036;
72.0000;0.8555;0.6988;
72.3000;0.8588;0.6988;
72.6000;0.8580;0.6892;
72.9000;0.8571;0.6964;
73.2000;0.8563;0.7012;
73.5000;0.8563;0.6988;
73.8000;0.8547;0.6964;
74.1000;0.8555;0.6988;
74.4000;0.8571;0.6964;
74.7000;0.8580;0.7012;
75.0000;0.8555;0.6940;
75.3000;0.8571;0.6964;
75.6000;0.8571;0.7036;
75.9000;0.8580;0.7036;
76.2000;0.8637;0.7012;
76.5000;0.8571;0.6940;
76.8000;0.8490;0.6676;
77.1000;0.8563;0.6916;
77.4000;0.8571;0.6940;
77.7000;0.8580;0.6940;
78.0000;0.8563;0.6940;
78.3000;0.8555;0.6964;
78.6000;0.8539;0.6940;
78.9000;0.8588;0.7084;
79.2000;0.8588;0.7084;
79.5000;0.8523;0.6868;
79.8000;0.8539;0.6820;
80.1000;0.8580;0.6892;
80.4000;0.8563;0.6892;
80.7000;0.8547;0.6940;
81.0000;0.8555;0.6988;
81.3000;0.8604;0.7036;
81.6000;0.8547;0.6940;
81.9000;0.8547;0.7012;
82.2000;0.8547;0.7036;
82.5000;0.8620;0.7204;
82.8000;0.8563;0.7132;
83.1000;0.8571;0.7084;
83.4000;0.8563;0.7060;
83.7000;0.8580;0.7060;
84.0000;0.8571;0.7060;
84.3000;0.8563;0.6988;
84.6000;0.8571;0.6964;
84.9000;0.8588;0.6988;
85.2000;0.8563;0.7012;
85.5000;0.8563;0.7036;
85.8000;0.8563;0.7084;
86.1000;0.8563;0.7108;
86.4000;0.8571;0.7132;
86.7000;0.8457;0.6892;
87.0000;0.8547;0.7108;
87.3000;0.8514;0.7084;
87.6000;0.8563;0.7108;
87.9000;0.8571;0.7132;
88.2000;0.8571;0.7084;
88.5000;0.8539;0.7012;
88.8000;0.8547;0.7012;
89.1000;0.8563;0.6940;
89.4000;0.8563;0.6964;
89.7000;0.8571;0.7012;
90.0000;0.8580;0.7108;
90.3000;0.8555;0.7060;
90.6000;0.8555;0.7060;
90.9000;0.8555;0.6988;
91.2000;0.8563;0.6940;
91.5000;0.8571;0.7012;
91.8000;0.8563;0.6988;
92.1000;0.8555;0.6988;
92.4000;0.8563;0.7012;
92.7000;0.8555;0.6964;
93.0000;0.8555;0.7012;
93.3000;0.8523;0.6988;
93.6000;0.8563;0.7108;
93.9000;0.8555;0.7012;
94.2000;0.8555;0.6916;
94.5000;0.8604;0.7084;
94.8000;0.8580;0.6940;
95.1000;0.8596;0.7084;
95.4000;0.8571;0.7012;
95.7000;0.8523;0.6796;
96.0000;0.8604;0.7036;
96.3000;0.8531;0.6916;
96.6000;0.8563;0.6964;
96.9000;0.8563;0.6940;
97.2000;0.8555;0.6940;
97.5000;0.8563;0.6916;
97.8000;0.8563;0.6940;
98.1000;0.8563;0.6940;
98.4000;0.8563;0.6988;
98.7000;0.8563;0.6820;
99.0000;0.8571;0.6868;
99.3000;0.8580;0.6868;
99.6000;0.8547;0.6796;
99.9000;0.8588;0.6940;
100.2000;0.8588;0.6916;
100.5000;0.8612;0.7012;
100.8000;0.8547;0.6748;
101.1000;0.8531;0.6724;
101.4000;0.8580;0.6916;
101.7000;0.8588;0.6820;
102.0000;0.8571;0.6820;
102.3000;0.8563;0.6820;
102.6000;0.8555;0.6796;
102.9000;0.8547;0.6916;
103.2000;0.8555;0.6940;
103.5000;0.8466;0.6724;
103.8000;0.8563;0.7012;
104.1000;0.8571;0.7012;
104.4000;0.8563;0.6844;
104.7000;0.8571;0.6892;
105.0000;0.8571;0.6916;
105.3000;0.8571;0.6940;
105.6000;0.8539;0.6844;
105.9000;0.8563;0.6868;
106.2000;0.8571;0.6868;
106.5000;0.8571;0.6844;
106.8000;0.8580;0.6820;
107.1000;0.8620;0.6988;
107.4000;0.8563;0.6916;
107.7000;0.8563;0.6892;
108.0000;0.8555;0.6964;
108.3000;0.8555;0.6964;
108.6000;0.8563;0.7060;
108.9000;0.8571;0.7084;
109.2000;0.8571;0.7060;
109.5000;0.8555;0.7060;
109.8000;0.8547;0.7036;
110.1000;0.8563;0.7084;
110.4000;0.8580;0.7132;
110.7000;0.8555;0.7108;
111.0000;0.8563;0.7012;
111.3000;0.8571;0.6964;
111.6000;0.8571;0.7012;
111.9000;0.8571;0.7132;
112.2000;0.8555;0.7180;
112.5000;0.8555;0.7204;
112.8000;0.8547;0.7204;
113.1000;0.8645;0.7420;
113.4000;0.8547;0.7180;
113.7000;0.8563;0.7204;
114.0000;0.8547;0.7276;
114.3000;0.8547;0.7228;
114.6000;0.8555;0.7204;
114.9000;0.8547;0.7132;
115.2000;0.8571;0.7204;
115.5000;0.8588;0.7228;
115.8000;0.8563;0.7108;
116.1000;0.8563;0.7156;
116.4000;0.8555;0.7108;
116.7000;0.8571;0.7156;
117.0000;0.8555;0.7060;
117.3000;0.8498;0.6820;
117.6000;0.8531;0.6820;
117.9000;0.8563;0.6820;
118.2000;0.8555;0.6772;
118.5000;0.8571;0.6796;
118.8000;0.8539;0.6676;
119.1000;0.8531;0.6652;
119.4000;0.8547;0.6676;
119.7000;0.8539;0.6652;
120.0000;0.8539;0.6700;
120.3000;0.8531;0.6652;
120.6000;0.8539;0.6652;
120.9000;0.8563;0.6748;
121.2000;0.8563;0.6772;
121.5000;0.8433;0.6459;
121.8000;0.8563;0.6868;
122.1000;0.8555;0.6964;
122.4000;0.8555;0.6892;
122.7000;0.8547;0.7084;
123.0000;0.8555;0.7036;
123.3000;0.8555;0.7036;
123.6000;0.8531;0.6940;
123.9000;0.8555;0.6964;
124.2000;0.8563;0.6940;
124.5000;0.8588;0.6916;
124.8000;0.8571;0.6892;
125.1000;0.8563;0.6844;
125.4000;0.8547;0.6772;
125.7000;0.8580;0.6868;
126.0000;0.8571;0.6940;
126.3000;0.8490;0.6772;
126.6000;0.8555;0.6940;
126.9000;0.8571;0.6916;
127.2000;0.8571;0.6796;
127.5000;0.8555;0.6772;
127.8000;0.8547;0.6748;
128.1000;0.8547;0.6820;
128.4000;0.8604;0.6964;
128.7000;0.8547;0.6796;
129.0000;0.8547;0.6796;
129.3000;0.8555;0.6868;
129.6000;0.8547;0.6796;
129.9000;0.8547;0.6796;
130.2000;0.8637;0.6892;
130.5000;0.8539;0.6676;
130.8000;0.8539;0.6652;
131.1000;0.8596;0.6748;
131.4000;0.8555;0.6676;
131.7000;0.8596;0.6868;
132.0000;0.8531;0.6724;
132.3000;0.8571;0.6772;
132.6000;0.8612;0.6940;
132.9000;0.8571;0.6844;
133.2000;0.8555;0.6844;
133.5000;0.8539;0.6724;
133.8000;0.8539;0.6748;
134.1000;0.8555;0.6796;
134.4000;0.8555;0.6772;
134.7000;0.8563;0.6868;
135.0000;0.8482;0.6700;
135.3000;0.8547;0.6868;
135.6000;0.8563;0.6964;
135.9000;0.8563;0.6964;
136.2000;0.8555;0.6916;
136.5000;0.8555;0.6844;
136.8000;0.8547;0.6796;
137.1000;0.8555;0.6868;
137.4000;0.8555;0.6988;
137.7000;0.8555;0.7036;
138.0000;0.8555;0.6916;
138.3000;0.8547;0.6868;
138.6000;0.8531;0.6772;
138.9000;0.8547;0.6772;
139.2000;0.8539;0.6844;
139.5000;0.8547;0.6892;
139.8000;0.8547;0.6868;
140.1000;0.8563;0.6844;
140.4000;0.8531;0.6724;
140.7000;0.8547;0.6700;
141.0000;0.8563;0.6748;
141.3000;0.8563;0.6724;
141.6000;0.8547;0.6676;
141.9000;0.8547;0.6724;
142.2000;0.8555;0.6772;
142.5000;0.8523;0.6700;
142.8000;0.8531;0.6724;
143.1000;0.8547;0.6796;
143.4000;0.8539;0.6868;
143.7000;0.8547;0.6820;
144.0000;0.8547;0.6748;
144.3000;0.8539;0.6820;
144.6000;0.8547;0.6820;
144.9000;0.8547;0.6844;
145.2000;0.8539;0.6700;
145.5000;0.8571;0.6772;
145.8000;0.8547;0.6724;
146.1000;0.8531;0.6748;
146.4000;0.8539;0.6652;
146.7000;0.8547;0.6652;
147.0000;0.8547;0.6604;
147.3000;0.8555;0.6748;
147.6000;0.8563;0.6772;
147.9000;0.8555;0.6844;
148.2000;0.8555;0.6844;
148.5000;0.8539;0.6772;
148.8000;0.8547;0.6796;
149.1000;0.8539;0.6820;
149.4000;0.8547;0.6844;
149.7000;0.8555;0.6844;
150.0000;0.8547;0.6844;
150.3000;0.8588;0.6916;
150.6000;0.8555;0.6964;
150.9000;0.8555;0.6892;
151.2000;0.8637;0.7012;
151.5000;0.8571;0.6772;
151.8000;0.8563;0.6700;
152.1000;0.8563;0.6676;
152.4000;0.8555;0.6604;
152.7000;0.8555;0.6652;
153.0000;0.8555;0.6652;
153.3000;0.8588;0.6604;
153.6000;0.8563;0.6556;
153.9000;0.8547;0.6532;
154.2000;0.8547;0.6508;
154.5000;0.8547;0.6556;
154.8000;0.8563;0.6700;
155.1000;0.8539;0.6676;
155.4000;0.8531;0.6604;
155.7000;0.8523;0.6580;
156.0000;0.8555;0.6604;
156.3000;0.8555;0.6652;
156.6000;0.8482;0.6459;
156.9000;0.8547;0.6628;
157.2000;0.8555;0.6652;
157.5000;0.8547;0.6676;
157.8000;0.8547;0.6700;
158.1000;0.8555;0.6700;
158.4000;0.8547;0.6724;
158.7000;0.8547;0.6772;
159.0000;0.8523;0.6700;
159.3000;0.8539;0.6796;
159.6000;0.8531;0.6796;
159.9000;0.8547;0.6772;
160.2000;0.8547;0.6820;
160.5000;0.8547;0.6748;
160.8000;0.8531;0.6772;
161.1000;0.8531;0.6700;
161.4000;0.8547;0.6700;
161.7000;0.8547;0.6652;
162.0000;0.8539;0.6724;
162.3000;0.8523;0.6700;
162.6000;0.8555;0.6820;
162.9000;0.8563;0.6892;
163.2000;0.8563;0.6916;
163.5000;0.8523;0.6820;
163.8000;0.8539;0.6892;
164.1000;0.8555;0.6868;
164.4000;0.8563;0.6964;
164.7000;0.8539;0.6940;
165.0000;0.8539;0.6916;
165.3000;0.8555;0.6940;
165.6000;0.8555;0.6940;
165.9000;0.8506;0.6796;
166.2000;0.8547;0.6940;
166.5000;0.8555;0.6892;
166.8000;0.8571;0.6940;
167.1000;0.8571;0.6940;
167.4000;0.8547;0.6772;
167.7000;0.8571;0.6916;
168.0000;0.8555;0.6868;
168.3000;0.8563;0.6988;
168.6000;0.8637;0.7228;
168.9000;0.8555;0.6964;
169.2000;0.8555;0.6916;
169.5000;0.8571;0.7036;
169.8000;0.8523;0.6964;
170.1000;0.8645;0.7324;
170.4000;0.8531;0.6892;
170.7000;0.8555;0.6868;
171.0000;0.8547;0.6772;
171.3000;0.8547;0.6892;
171.6000;0.8547;0.6916;
171.9000;0.8539;0.6892;
172.2000;0.8555;0.6916;
172.5000;0.8531;0.6892;
172.8000;0.8555;0.6868;
173.1000;0.8571;0.6796;
173.4000;0.8539;0.6676;
173.7000;0.8514;0.6652;
174.0000;0.8539;0.6676;
174.3000;0.8547;0.6748;
174.6000;0.8531;0.6724;
174.9000;0.8514;0.6700;
175.2000;0.8506;0.6628;
175.5000;0.8547;0.6700;
175.8000;0.8523;0.6700;
176.1000;0.8523;0.6676;
176.4000;0.8514;0.6700;
176.7000;0.8547;0.6844;
177.0000;0.8547;0.6868;
177.3000;0.8547;0.6844;
177.6000;0.8547;0.6916;
177.9000;0.8531;0.6844;
178.2000;0.8555;0.6916;
178.5000;0.8523;0.6844;
178.8000;0.8547;0.6868;
179.1000;0.8555;0.6892;
179.4000;0.8555;0.6964;
179.7000;0.8531;0.6916;
180.0000;0.8531;0.6964;
180.3000;0.8547;0.6988;
180.6000;0.8563;0.7036;
180.9000;0.8539;0.7012;
181.2000;0.8539;0.6988;
181.5000;0.8531;0.6988;
181.8000;0.8531;0.7036;
182.1000;0.8547;0.7036;
182.4000;0.8555;0.7012;
182.7000;0.8555;0.6988;
183.0000;0.8563;0.6988;
183.3000;0.8563;0.6940;
183.6000;0.8547;0.6940;
183.9000;0.8506;0.6844;
184.2000;0.8555;0.7012;
184.5000;0.8531;0.6916;
184.8000;0.8555;0.6916;
185.1000;0.8523;0.6772;
185.4000;0.8547;0.6700;
185.7000;0.8547;0.6700;
186.0000;0.8571;0.6796;
186.3000;0.8539;0.6724;
186.6000;0.8555;0.6700;
186.9000;0.8555;0.6748;
187.2000;0.8555;0.6772;
187.5000;0.8539;0.6772;
187.8000;0.8547;0.6844;
188.1000;0.8531;0.6820;
188.4000;0.8539;0.6964;
188.7000;0.8506;0.6772;
189.0000;0.8531;0.6916;
189.3000;0.8563;0.6940;
189.6000;0.8539;0.6868;
189.9000;0.8506;0.6820;
190.2000;0.8531;0.6820;
190.5000;0.8498;0.6724;
190.8000;0.8531;0.6868;
191.1000;0.8555;0.6844;
191.4000;0.8612;0.7036;
191.7000;0.8449;0.6580;
192.0000;0.8539;0.6820;
192.3000;0.8547;0.6772;
192.6000;0.8588;0.6868;
192.9000;0.8539;0.6724;
193.2000;0.8547;0.6796;
193.5000;0.8506;0.6628;
193.8000;0.8490;0.6580;
194.1000;0.8539;0.6604;
194.4000;0.8547;0.6604;
194.7000;0.8547;0.6604;
195.0000;0.8547;0.6604;
195.3000;0.8523;0.6580;
195.6000;0.8547;0.6628;
195.9000;0.8596;0.6820;
196.2000;0.8531;0.6724;
196.5000;0.8490;0.6532;
196.8000;0.8547;0.6676;
197.1000;0.8514;0.6652;
197.4000;0.8563;0.6772;
197.7000;0.8547;0.6724;
198.0000;0.8539;0.6652;
198.3000;0.8547;0.6676;
198.6000;0.8531;0.6580;
198.9000;0.8547;0.6700;
199.2000;0.8539;0.6748;
199.5000;0.8547;0.6772;
199.8000;0.8547;0.6820;
200.1000;0.8539;0.6748;
200.4000;0.8523;0.6724;
200.7000;0.8547;0.6796;
201.0000;0.8531;0.6796;
201.3000;0.8539;0.6820;
201.6000;0.8531;0.6796;
201.9000;0.8596;0.7084;
202.2000;0.8547;0.6940;
202.5000;0.8539;0.6868;
202.8000;0.8547;0.6892;
203.1000;0.8539;0.6868;
203.4000;0.8563;0.6916;
203.7000;0.8531;0.6892;
204.0000;0.8539;0.6868;
204.3000;0.8539;0.6796;
204.6000;0.8531;0.6820;
204.9000;0.8547;0.6940;
205.2000;0.8531;0.6940;
205.5000;0.8539;0.6964;
205.8000;0.8547;0.6964;
206.1000;0.8555;0.6964;
206.4000;0.8539;0.6940;
206.7000;0.8547;0.6964;
207.0000;0.8547;0.6964;
207.3000;0.8555;0.6940;
207.6000;0.8539;0.6892;
207.9000;0.8539;0.7012;
208.2000;0.8547;0.7012;
208.5000;0.8555;0.7060;
208.8000;0.8547;0.6964;
209.1000;0.8531;0.7036;
209.4000;0.8514;0.6940;
209.7000;0.8547;0.6988;
210.0000;0.8539;0.6892;
210.3000;0.8539;0.6844;
210.6000;0.8563;0.6796;
210.9000;0.8539;0.6820;
211.2000;0.8547;0.6964;
211.5000;0.8539;0.6964;
211.8000;0.8523;0.6988;
212.1000;0.8539;0.7084;
212.4000;0.8506;0.7012;
212.7000;0.8571;0.7012;
213.0000;0.8539;0.6892;
213.3000;0.8498;0.6724;
213.6000;0.8539;0.6892;
213.9000;0.8539;0.6844;
214.2000;0.8523;0.6772;
214.5000;0.8514;0.6700;
214.8000;0.8628;0.7012;
215.1000;0.8531;0.6772;
215.4000;0.8498;0.6628;
215.7000;0.8539;0.6748;
216.0000;0.8539;0.6652;
216.3000;0.8539;0.6604;
216.6000;0.8523;0.6604;
216.9000;0.8539;0.6676;
217.2000;0.8547;0.6676;
217.5000;0.8474;0.6604;
217.8000;0.8547;0.6796;
218.1000;0.8547;0.6748;
218.4000;0.8539;0.6748;
218.7000;0.8547;0.6772;
219.0000;0.8539;0.6748;
219.3000;0.8523;0.6748;
219.6000;0.8531;0.6772;
219.9000;0.8539;0.6748;
220.2000;0.8531;0.6676;
220.5000;0.8531;0.6748;
220.8000;0.8539;0.6748;
221.1000;0.8523;0.6748;
221.4000;0.8547;0.6772;
221.7000;0.8539;0.6772;
222.0000;0.8539;0.6844;
222.3000;0.8547;0.6844;
222.6000;0.8531;0.6796;
222.9000;0.8531;0.6916;
223.2000;0.8547;0.6916;
223.5000;0.8539;0.6988;
223.8000;0.8612;0.7084;
224.1000;0.8547;0.6988;
224.4000;0.8547;0.6988;
224.7000;0.8523;0.6940;
225.0000;0.8531;0.7036;
225.3000;0.8539;0.6988;
225.6000;0.8547;0.6916;
225.9000;0.8514;0.6820;
226.2000;0.8547;0.6916;
226.5000;0.8539;0.6844;
226.8000;0.8547;0.6844;
227.1000;0.8539;0.6724;
227.4000;0.8547;0.6820;
227.7000;0.8531;0.6916;
228.0000;0.8523;0.6916;
228.3000;0.8539;0.6964;
228.6000;0.8531;0.6940;
228.9000;0.8547;0.6988;
229.2000;0.8539;0.7060;
229.5000;0.8523;0.7060;
229.8000;0.8523;0.6988;
230.1000;0.8547;0.7060;
230.4000;0.8531;0.7012;
230.7000;0.8531;0.6964;
231.0000;0.8466;0.6748;
231.3000;0.8539;0.6916;
231.6000;0.8531;0.6916;
231.9000;0.8539;0.6892;
232.2000;0.8523;0.6892;
232.5000;0.8547;0.6892;
232.8000;0.8539;0.6940;
233.1000;0.8539;0.6964;
233.4000;0.8514;0.6892;
233.7000;0.8539;0.6988;
234.0000;0.8547;0.6988;
234.3000;0.8547;0.6940;
234.6000;0.8531;0.6964;
234.9000;0.8539;0.6964;
235.2000;0.8531;0.6916;
235.5000;0.8531;0.6844;
235.8000;0.8523;0.6820;
236.1000;0.8506;0.6772;
236.4000;0.8523;0.6772;
236.7000;0.8539;0.6724;
237.0000;0.8539;0.6700;
237.3000;0.8547;0.6700;
237.6000;0.8555;0.6748;
237.9000;0.8547;0.6772;
238.2000;0.8547;0.6772;
238.5000;0.8547;0.6796;
238.8000;0.8531;0.6772;
239.1000;0.8580;0.6916;
239.4000;0.8539;0.6844;
239.7000;0.8539;0.6844;
240.0000;0.8539;0.6940;
240.3000;0.8523;0.6940;
240.6000;0.8523;0.6940;
240.9000;0.8490;0.6916;
241.2000;0.8523;0.7036;
241.5000;0.8523;0.6988;
241.8000;0.8531;0.7060;
242.1000;0.8531;0.6988;
242.4000;0.8539;0.6964;
242.7000;0.8531;0.7060;
243.0000;0.8539;0.7036;
243.3000;0.8539;0.7084;
243.6000;0.8539;0.7108;
243.9000;0.8531;0.7036;
244.2000;0.8539;0.7060;
244.5000;0.8539;0.7012;
244.8000;0.8531;0.6964;
245.1000;0.8523;0.6988;
245.4000;0.8514;0.6916;
245.7000;0.8539;0.6892;
246.0000;0.8539;0.6844;
246.3000;0.8523;0.6844;
246.6000;0.8547;0.6844;
246.9000;0.8539;0.6796;
247.2000;0.8523;0.6892;
247.5000;0.8506;0.7012;
247.8000;0.8555;0.7060;
248.1000;0.8531;0.6964;
248.4000;0.8539;0.6940;
248.7000;0.8539;0.6940;
249.0000;0.8555;0.7036;
249.3000;0.8547;0.7084;
249.6000;0.8547;0.7060;
249.9000;0.8588;0.7132;
250.2000;0.8555;0.7036;
250.5000;0.8539;0.6964;
250.8000;0.8539;0.6916;
251.1000;0.8506;0.6940;
251.4000;0.8506;0.6940;
251.7000;0.8555;0.6988;
252.0000;0.8539;0.6940;
252.3000;0.8523;0.6796;
252.6000;0.8539;0.6868;
252.9000;0.8547;0.6844;
253.2000;0.8539;0.6772;
253.5000;0.8531;0.6844;
253.8000;0.8498;0.6772;
254.1000;0.8514;0.6772;
254.4000;0.8523;0.6916;
254.7000;0.8539;0.6868;
255.0000;0.8580;0.6940;
255.3000;0.8531;0.6820;
255.6000;0.8523;0.6796;
255.9000;0.8539;0.6868;
256.2000;0.8531;0.6844;
256.5000;0.8539;0.6748;
256.8000;0.8531;0.6796;
257.1000;0.8531;0.6844;
257.4000;0.8523;0.6868;
257.7000;0.8523;0.6796;
258.0000;0.8514;0.6796;
258.3000;0.8531;0.6772;
258.6000;0.8531;0.6844;
258.9000;0.8539;0.6868;
259.2000;0.8555;0.6940;
259.5000;0.8547;0.6868;
259.8000;0.8523;0.6892;
260.1000;0.8523;0.6916;
260.4000;0.8539;0.6892;
260.7000;0.8523;0.6868;
261.0000;0.8523;0.6748;
261.3000;0.8539;0.6796;
261.6000;0.8514;0.6820;
261.9000;0.8539;0.6964;
262.2000;0.8547;0.7060;
262.5000;0.8539;0.6940;
262.8000;0.8571;0.7060;
263.1000;0.8539;0.7012;
263.4000;0.8506;0.6868;
263.7000;0.8523;0.6820;
264.0000;0.8531;0.6772;
264.3000;0.8514;0.6772;
264.6000;0.8539;0.6820;
264.9000;0.8539;0.6916;
265.2000;0.8531;0.6892;
265.5000;0.8555;0.7060;
265.8000;0.8514;0.6988;
266.1000;0.8547;0.6916;
266.4000;0.8514;0.6868;
266.7000;0.8531;0.6916;
267.0000;0.8539;0.6748;
267.3000;0.8547;0.6820;
267.6000;0.8531;0.6868;
267.9000;0.8506;0.6820;
268.2000;0.8539;0.6844;
268.5000;0.8555;0.6940;
268.8000;0.8531;0.6820;
269.1000;0.8539;0.6892;
269.4000;0.8531;0.6916;
269.7000;0.8588;0.7036;
270.0000;0.8547;0.6964;
270.3000;0.8514;0.6868;
270.6000;0.8523;0.6964;
270.9000;0.8523;0.6964;
271.2000;0.8531;0.7012;
271.5000;0.8523;0.6964;
271.8000;0.8523;0.6988;
272.1000;0.8506;0.6940;
272.4000;0.8531;0.6964;
272.7000;0.8523;0.6916;
273.0000;0.8490;0.6844;
273.3000;0.8514;0.6916;
273.6000;0.8531;0.6988;
273.9000;0.8531;0.6964;
274.2000;0.8555;0.7036;
274.5000;0.8539;0.6964;
274.8000;0.8547;0.6964;
275.1000;0.8539;0.6916;
275.4000;0.8514;0.6844;
275.7000;0.8580;0.6964;
276.0000;0.8539;0.6940;
276.3000;0.8555;0.7012;
276.6000;0.8531;0.7012;
276.9000;0.8531;0.6988;
277.2000;0.8523;0.7012;
277.5000;0.8539;0.6892;
277.8000;0.8539;0.6916;
278.1000;0.8523;0.6844;
278.4000;0.8523;0.6844;
278.7000;0.8523;0.6796;
279.0000;0.8506;0.6772;
279.3000;0.8531;0.6748;
279.6000;0.8523;0.6844;
279.9000;0.8523;0.6892;
280.2000;0.8490;0.6748;
280.5000;0.8539;0.6868;
280.8000;0.8555;0.6916;
281.1000;0.8531;0.6988;
281.4000;0.8523;0.6988;
281.7000;0.8523;0.7036;
282.0000;0.8514;0.6988;
282.3000;0.8523;0.7036;
282.6000;0.8563;0.7180;
282.9000;0.8514;0.7012;
283.2000;0.8523;0.6940;
283.5000;0.8514;0.6892;
283.8000;0.8539;0.6916;
284.1000;0.8539;0.6940;
284.4000;0.8523;0.6988;
284.7000;0.8506;0.7012;
285.0000;0.8588;0.7132;
285.3000;0.8417;0.6652;
285.6000;0.8523;0.6916;
285.9000;0.8539;0.6964;
286.2000;0.8531;0.7036;
286.5000;0.8531;0.7036;
286.8000;0.8523;0.6940;
287.1000;0.8514;0.6820;
287.4000;0.8514;0.6700;
287.7000;0.8506;0.6652;
288.0000;0.8531;0.6748;
288.3000;0.8514;0.6820;
288.6000;0.8523;0.6892;
288.9000;0.8433;0.6604;
289.2000;0.8539;0.6820;
289.5000;0.8514;0.6796;
289.8000;0.8523;0.6820;
290.1000;0.8531;0.6748;
290.4000;0.8506;0.6700;
290.7000;0.8523;0.6820;
291.0000;0.8498;0.6868;
291.3000;0.8523;0.7012;
291.6000;0.8539;0.7060;
291.9000;0.8514;0.7036;
292.2000;0.8523;0.7012;
292.5000;0.8514;0.6940;
292.8000;0.8531;0.7036;
293.1000;0.8539;0.7036;
293.4000;0.8531;0.7036;
293.7000;0.8523;0.7084;
294.0000;0.8531;0.7060;
294.3000;0.8531;0.7036;
294.6000;0.8531;0.6988;
294.9000;0.8523;0.7060;
295.2000;0.8539;0.7060;
295.5000;0.8531;0.7084;
295.8000;0.8523;0.7012;
296.1000;0.8523;0.7012;
296.4000;0.8523;0.7084;
296.7000;0.8531;0.7132;
297.0000;0.8523;0.7180;
297.3000;0.8539;0.7156;
297.6000;0.8539;0.7132;
297.9000;0.8539;0.7108;
298.2000;0.8531;0.7084;
298.5000;0.8531;0.7060;
298.8000;0.8523;0.6988;
299.1000;0.8580;0.7108;
299.4000;0.8547;0.6988;
299.7000;0.8490;0.6892;
300.0000;0.8539;0.6964;
300.3000;0.8555;0.6964;
300.6000;0.8531;0.6988;
300.9000;0.8523;0.6964;
301.2000;0.8498;0.6892;
301.5000;0.8514;0.6964;
301.8000;0.8531;0.6916;
302.1000;0.8498;0.6844;
302.4000;0.8506;0.6820;
302.7000;0.8514;0.6772;
303.0000;0.8539;0.6748;
303.3000;0.8514;0.6628;
303.6000;0.8531;0.6772;
303.9000;0.8531;0.6892;
304.2000;0.8523;0.6940;
304.5000;0.8539;0.6964;
304.8000;0.8523;0.6916;
305.1000;0.8531;0.6916;
305.4000;0.8547;0.6868;
305.7000;0.8523;0.6868;
306.0000;0.8523;0.6796;
306.3000;0.8514;0.6820;
306.6000;0.8498;0.6892;
306.9000;0.8523;0.6988;
307.2000;0.8523;0.7036;
307.5000;0.8514;0.7132;
307.8000;0.8539;0.7156;
308.1000;0.8531;0.7180;
308.4000;0.8523;0.7108;
308.7000;0.8523;0.7156;
309.0000;0.8580;0.7276;
309.3000;0.8514;0.7084;
309.6000;0.8531;0.7108;
309.9000;0.8514;0.7084;
310.2000;0.8523;0.7012;
310.5000;0.8449;0.6820;
310.8000;0.8531;0.6940;
311.1000;0.8514;0.6892;
311.4000;0.8490;0.6916;
311.7000;0.8523;0.7036;
312.0000;0.8523;0.7060;
312.3000;0.8506;0.6940;
312.6000;0.8514;0.6916;
312.9000;0.8514;0.6964;
313.2000;0.8506;0.6964;
313.5000;0.8514;0.6964;
313.8000;0.8523;0.7012;
314.1000;0.8531;0.7060;
314.4000;0.8514;0.7036;
314.7000;0.8506;0.7036;
315.0000;0.8523;0.6988;
315.3000;0.8539;0.6988;
315.6000;0.8523;0.6964;
315.9000;0.8523;0.6868;
316.2000;0.8514;0.6916;
316.5000;0.8514;0.6964;
316.8000;0.8506;0.7012;
317.1000;0.8523;0.7060;
317.4000;0.8523;0.7084;
317.7000;0.8514;0.7012;
318.0000;0.8523;0.7060;
318.3000;0.8523;0.7060;
318.6000;0.8506;0.7084;
318.9000;0.8514;0.7108;
319.2000;0.8506;0.7084;
319.5000;0.8531;0.7180;
319.8000;0.8523;0.7132;
320.1000;0.8514;0.7060;
320.4000;0.8531;0.7084;
320.7000;0.8539;0.7084;
321.0000;0.8531;0.7060;
321.3000;0.8514;0.6988;
321.6000;0.8523;0.6940;
321.9000;0.8531;0.6892;
322.2000;0.8498;0.6868;
322.5000;0.8531;0.6988;
322.8000;0.8433;0.6700;
323.1000;0.8417;0.6652;
323.4000;0.8514;0.6892;
323.7000;0.8498;0.6916;
324.0000;0.8531;0.6964;
324.3000;0.8523;0.6916;
324.6000;0.8514;0.6964;
324.9000;0.8523;0.6964;
325.2000;0.8531;0.6964;
325.5000;0.8531;0.6940;
325.8000;0.8539;0.6964;
326.1000;0.8417;0.6652;
326.4000;0.8506;0.6964;
326.7000;0.8539;0.7084;
327.0000;0.8539;0.7180;
327.3000;0.8490;0.7060;
327.6000;0.8523;0.7084;
327.9000;0.8506;0.7012;
328.2000;0.8474;0.6916;
328.5000;0.8514;0.6940;
328.8000;0.8514;0.6940;
329.1000;0.8531;0.7036;
329.4000;0.8514;0.6988;
329.7000;0.8539;0.7036;
330.0000;0.8531;0.7012;
330.3000;0.8506;0.6868;
330.6000;0.8514;0.6916;
330.9000;0.8523;0.6988;
331.2000;0.8506;0.6988;
331.5000;0.8514;0.6892;
331.8000;0.8523;0.6964;
332.1000;0.8466;0.6940;
332.4000;0.8523;0.7084;
332.7000;0.8523;0.7084;
333.0000;0.8523;0.7084;
333.3000;0.8514;0.7036;
333.6000;0.8531;0.7036;
333.9000;0.8514;0.7036;
334.2000;0.8514;0.7180;
334.5000;0.8539;0.7180;
334.8000;0.8539;0.7156;
335.1000;0.8523;0.7132;
335.4000;0.8514;0.7108;
335.7000;0.8506;0.7108;
336.0000;0.8539;0.7132;
336.3000;0.8514;0.7084;
336.6000;0.8498;0.7012;
336.9000;0.8514;0.7012;
337.2000;0.8514;0.7036;
337.5000;0.8514;0.7012;
337.8000;0.8523;0.6988;
338.1000;0.8523;0.6988;
338.4000;0.8531;0.7012;
338.7000;0.8539;0.6964;
339.0000;0.8506;0.6868;
339.3000;0.8531;0.6868;
339.6000;0.8514;0.7012;
339.9000;0.8539;0.7084;
340.2000;0.8514;0.6964;
340.5000;0.8563;0.7084;
340.8000;0.8547;0.6988;
341.1000;0.8506;0.6940;
341.4000;0.8523;0.7012;
341.7000;0.8555;0.7132;
342.0000;0.8514;0.7060;
342.3000;0.8514;0.7108;
342.6000;0.8531;0.7132;
342.9000;0.8490;0.7108;
343.2000;0.8506;0.7108;
343.5000;0.8523;0.7156;
343.8000;0.8555;0.7132;
344.1000;0.8474;0.6988;
344.4000;0.8523;0.7060;
344.7000;0.8588;0.7180;
345.0000;0.8539;0.7084;
345.3000;0.8506;0.6940;
345.6000;0.8498;0.6916;
345.9000;0.8506;0.6964;
346.2000;0.8523;0.7012;
346.5000;0.8506;0.6964;
346.8000;0.8482;0.6964;
347.1000;0.8498;0.6988;
347.4000;0.8514;0.7036;
347.7000;0.8514;0.7108;
348.0000;0.8506;0.7060;
348.3000;0.8482;0.6988;
348.6000;0.8523;0.7180;
348.9000;0.8523;0.7156;
349.2000;0.8514;0.7108;
349.5000;0.8498;0.7156;
349.8000;0.8449;0.6940;
350.1000;0.8506;0.7084;
350.4000;0.8498;0.7084;
350.7000;0.8506;0.7084;
351.0000;0.8547;0.7132;
351.3000;0.8506;0.7084;
351.6000;0.8514;0.7156;
351.9000;0.8498;0.7108;
352.2000;0.8506;0.7132;
352.5000;0.8514;0.7180;
352.8000;0.8498;0.7108;
353.1000;0.8523;0.7132;
353.4000;0.8588;0.7228;
353.7000;0.8514;0.6988;
354.0000;0.8506;0.7060;
354.3000;0.8514;0.7108;
354.6000;0.8531;0.7180;
354.9000;0.8531;0.7180;
355.2000;0.8531;0.7180;
355.5000;0.8531;0.7228;
355.8000;0.8531;0.7204;
356.1000;0.8523;0.7204;
356.4000;0.8523;0.7204;
356.7000;0.8531;0.7156;
357.0000;0.8514;0.7108;
357.3000;0.8523;0.7060;
357.6000;0.8506;0.7012;
357.9000;0.8514;0.7036;
358.2000;0.8506;0.7132;
358.5000;0.8482;0.7108;
358.8000;0.8531;0.7252;
359.1000;0.8531;0.7204;
359.4000;0.8539;0.7156;
359.7000;0.8539;0.7108;
360.0000;0.8523;0.7036;
360.3000;0.8523;0.7060;
360.6000;0.8523;0.6940;
360.9000;0.8539;0.6940;
361.2000;0.8523;0.6724;
361.5000;0.8539;0.6820;
361.8000;0.8514;0.6748;
362.1000;0.8490;0.6676;
362.4000;0.8457;0.6604;
362.7000;0.8498;0.6724;
363.0000;0.8514;0.6748;
363.3000;0.8482;0.6652;
363.6000;0.8498;0.6580;
363.9000;0.8523;0.6724;
364.2000;0.8539;0.6724;
364.5000;0.8531;0.6700;
364.8000;0.8531;0.6844;
365.1000;0.8523;0.6844;
365.4000;0.8523;0.6940;
365.7000;0.8523;0.6868;
366.0000;0.8514;0.6868;
366.3000;0.8523;0.6940;
366.6000;0.8523;0.6940;
366.9000;0.8498;0.6868;
367.2000;0.8531;0.6940;
367.5000;0.8506;0.6916;
367.8000;0.8523;0.7060;
368.1000;0.8514;0.7060;
368.4000;0.8531;0.7204;
368.7000;0.8506;0.7108;
369.0000;0.8523;0.7180;
369.3000;0.8482;0.7084;
369.6000;0.8531;0.7156;
369.9000;0.8523;0.7156;
370.2000;0.8531;0.7204;
370.5000;0.8523;0.7180;
370.8000;0.8571;0.7348;
371.1000;0.8514;0.7228;
371.4000;0.8531;0.7324;
371.7000;0.8523;0.7324;
372.0000;0.8523;0.7300;
372.3000;0.8498;0.7252;
372.6000;0.8506;0.7228;
372.9000;0.8498;0.7228;
373.2000;0.8523;0.7300;
373.5000;0.8506;0.7276;
373.8000;0.8506;0.7228;
374.1000;0.8490;0.7156;
374.4000;0.8514;0.7228;
374.7000;0.8498;0.7156;
375.0000;0.8498;0.7108;
375.3000;0.8514;0.7132;
375.6000;0.8514;0.7012;
375.9000;0.8588;0.7180;
376.2000;0.8523;0.6988;
376.5000;0.8498;0.7012;
376.8000;0.8506;0.7036;
377.1000;0.8514;0.6940;
377.4000;0.8547;0.7108;
377.7000;0.8506;0.7060;
378.0000;0.8563;0.7108;
378.3000;0.8523;0.7036;
378.6000;0.8539;0.7084;
378.9000;0.8506;0.6988;
379.2000;0.8531;0.6964;
379.5000;0.8531;0.7012;
379.8000;0.8514;0.7012;
380.1000;0.8506;0.6988;
380.4000;0.8514;0.7012;
380.7000;0.8539;0.6988;
381.0000;0.8506;0.6892;
381.3000;0.8498;0.6820;
381.6000;0.8506;0.6940;
381.9000;0.8539;0.7132;
382.2000;0.8628;0.7348;
382.5000;0.8498;0.6940;
382.8000;0.8474;0.6916;
383.1000;0.8498;0.6988;
383.4000;0.8506;0.6988;
383.7000;0.8498;0.6988;
384.0000;0.8547;0.7180;
384.3000;0.8523;0.7156;
384.6000;0.8523;0.7156;
384.9000;0.8506;0.7180;
385.2000;0.8506;0.7132;
385.5000;0.8514;0.7132;
385.8000;0.8506;0.7180;
386.1000;0.8506;0.7252;
386.4000;0.8506;0.7204;
386.7000;0.8506;0.7108;
387.0000;0.8514;0.7084;
387.3000;0.8482;0.6988;
387.6000;0.8506;0.7036;
387.9000;0.8498;0.6940;
388.2000;0.8514;0.7060;
388.5000;0.8506;0.7012;
388.8000;0.8490;0.6988;
389.1000;0.8506;0.7036;
389.4000;0.8531;0.7060;
389.7000;0.8514;0.7108;
390.0000;0.8514;0.7084;
390.3000;0.8506;0.7132;
390.6000;0.8506;0.7156;
390.9000;0.8523;0.7204;
391.2000;0.8514;0.7180;
391.5000;0.8531;0.7228;
391.8000;0.8523;0.7204;
392.1000;0.8571;0.7180;
392.4000;0.8514;0.7084;
392.7000;0.8539;0.7132;
393.0000;0.8506;0.7084;
393.3000;0.8523;0.7036;
393.6000;0.8523;0.7132;
393.9000;0.8506;0.7156;
394.2000;0.8514;0.7132;
394.5000;0.8523;0.7108;
394.8000;0.8588;0.7228;
395.1000;0.8563;0.7156;
395.4000;0.8514;0.7084;
395.7000;0.8531;0.7084;
396.0000;0.8514;0.7180;
396.3000;0.8531;0.7180;
396.6000;0.8514;0.7156;
396.9000;0.8539;0.7156;
397.2000;0.8514;0.7108;
397.5000;0.8514;0.7108;
397.8000;0.8506;0.7012;
398.1000;0.8514;0.7060;
398.4000;0.8523;0.7036;
398.7000;0.8457;0.6868;
399.0000;0.8563;0.7060;
399.3000;0.8514;0.6892;
399.6000;0.8539;0.7084;
399.9000;0.8506;0.7036;
400.2000;0.8547;0.7180;
400.5000;0.8506;0.7108;
400.8000;0.8514;0.7060;
401.1000;0.8441;0.6844;
401.4000;0.8523;0.7084;
401.7000;0.8514;0.7132;
402.0000;0.8523;0.7180;
402.3000;0.8514;0.7132;
402.6000;0.8523;0.7180;
402.9000;0.8506;0.7156;
403.2000;0.8580;0.7252;
403.5000;0.8490;0.7060;
403.8000;0.8506;0.7060;
404.1000;0.8514;0.7012;
404.4000;0.8490;0.7012;
404.7000;0.8514;0.7060;
405.0000;0.8498;0.7084;
405.3000;0.8498;0.7108;
405.6000;0.8604;0.7444;
405.9000;0.8523;0.7204;
406.2000;0.8563;0.7276;
406.5000;0.8523;0.7132;
406.8000;0.8514;0.7108;
407.1000;0.8523;0.7108;
407.4000;0.8531;0.7108;
407.7000;0.8514;0.7060;
408.0000;0.8506;0.7036;
408.3000;0.8498;0.6892;
408.6000;0.8506;0.6940;
408.9000;0.8514;0.6988;
409.2000;0.8506;0.7036;
409.5000;0.8506;0.7084;
409.8000;0.8514;0.7108;
410.1000;0.8523;0.7084;
410.4000;0.8490;0.7036;
410.7000;0.8506;0.7132;
411.0000;0.8506;0.7108;
411.3000;0.8498;0.7132;
411.6000;0.8466;0.7132;
411.9000;0.8498;0.7108;
412.2000;0.8498;0.6988;
412.5000;0.8523;0.7036;
412.8000;0.8498;0.6964;
413.1000;0.8506;0.6988;
413.4000;0.8514;0.7012;
413.7000;0.8523;0.7036;
414.0000;0.8506;0.7036;
414.3000;0.8514;0.7012;
414.6000;0.8490;0.7036;
414.9000;0.8523;0.7180;
415.2000;0.8514;0.7228;
415.5000;0.8523;0.7276;
415.8000;0.8555;0.7348;
416.1000;0.8523;0.7300;
416.4000;0.8531;0.7324;
416.7000;0.8531;0.7276;
417.0000;0.8514;0.7204;
417.3000;0.8514;0.7204;
417.6000;0.8531;0.7204;
417.9000;0.8531;0.7156;
418.2000;0.8514;0.7132;
418.5000;0.8514;0.7180;
418.8000;0.8514;0.7156;
419.1000;0.8531;0.7180;
419.4000;0.8523;0.7156;
419.7000;0.8539;0.7108;
420.0000;0.8514;0.7084;
420.3000;0.8506;0.6988;
420.6000;0.8539;0.7132;
420.9000;0.8506;0.7012;
421.2000;0.8506;0.7036;
421.5000;0.8506;0.7060;
421.8000;0.8482;0.6940;
422.1000;0.8506;0.6940;
422.4000;0.8514;0.7012;
422.7000;0.8514;0.7060;
423.0000;0.8498;0.7060;
423.3000;0.8498;0.7036;
423.6000;0.8498;0.7108;
423.9000;0.8523;0.7204;
424.2000;0.8498;0.7228;
424.5000;0.8482;0.7204;
424.8000;0.8506;0.7204;
425.1000;0.8498;0.7276;
425.4000;0.8531;0.7348;
425.7000;0.8514;0.7372;
426.0000;0.8514;0.7324;
426.3000;0.8506;0.7204;
426.6000;0.8514;0.7276;
426.9000;0.8506;0.7156;
427.2000;0.8506;0.7156;
427.5000;0.8466;0.6964;
427.8000;0.8523;0.7084;
428.1000;0.8506;0.7084;
428.4000;0.8523;0.7156;
428.7000;0.8523;0.7108;
429.0000;0.8514;0.7108;
429.3000;0.8506;0.7132;
429.6000;0.8514;0.7156;
429.9000;0.8514;0.7156;
430.2000;0.8514;0.7084;
430.5000;0.8563;0.7156;
430.8000;0.8490;0.7036;
431.1000;0.8523;0.7156;
431.4000;0.8466;0.7084;
431.7000;0.8514;0.7204;
432.0000;0.8506;0.7228;
432.3000;0.8506;0.7228;
432.6000;0.8506;0.7228;
432.9000;0.8506;0.7228;
433.2000;0.8498;0.7324;
433.5000;0.8498;0.7420;
433.8000;0.8514;0.7444;
434.1000;0.8506;0.7348;
434.4000;0.8506;0.7252;
434.7000;0.8523;0.7228;
435.0000;0.8498;0.7156;
435.3000;0.8523;0.7132;
435.6000;0.8498;0.7060;
435.9000;0.8506;0.7036;
436.2000;0.8523;0.7108;
436.5000;0.8531;0.7156;
436.8000;0.8490;0.7060;
437.1000;0.8498;0.7156;
437.4000;0.8523;0.7180;
437.7000;0.8498;0.7132;
438.0000;0.8490;0.7084;
438.3000;0.8514;0.7156;
438.6000;0.8498;0.7084;
438.9000;0.8506;0.7108;
439.2000;0.8498;0.7156;
439.5000;0.8506;0.7228;
439.8000;0.8506;0.7276;
440.1000;0.8498;0.7276;
440.4000;0.8523;0.7300;
440.7000;0.8506;0.7252;
441.0000;0.8506;0.7132;
441.3000;0.8498;0.7036;
441.6000;0.8417;0.6796;
441.9000;0.8506;0.6916;
442.2000;0.8482;0.6772;
442.5000;0.8523;0.6820;
442.8000;0.8506;0.6796;
443.1000;0.8506;0.6916;
443.4000;0.8498;0.6940;
443.7000;0.8523;0.7036;
444.0000;0.8514;0.6988;
444.3000;0.8514;0.7012;
444.6000;0.8514;0.7060;
444.9000;0.8506;0.7060;
445.2000;0.8498;0.7084;
445.5000;0.8490;0.7132;
445.8000;0.8433;0.7012;
446.1000;0.8506;0.7132;
446.4000;0.8514;0.7036;
446.7000;0.8498;0.6988;
447.0000;0.8474;0.6940;
447.3000;0.8417;0.6772;
447.6000;0.8490;0.6964;
447.9000;0.8506;0.7012;
448.2000;0.8506;0.6964;
448.5000;0.8555;0.7060;
448.8000;0.8506;0.6916;
449.1000;0.8506;0.7084;
449.4000;0.8506;0.7108;
449.7000;0.8498;0.7108;
450.0000;0.8498;0.7132;
450.3000;0.8506;0.7180;
450.6000;0.8514;0.7180;
450.9000;0.8498;0.7156;
451.2000;0.8506;0.7108;
451.5000;0.8506;0.6988;
451.8000;0.8523;0.6940;
452.1000;0.8523;0.6940;
452.4000;0.8490;0.6892;
452.7000;0.8498;0.6964;
453.0000;0.8498;0.6916;
453.3000;0.8506;0.7012;
453.6000;0.8490;0.6940;
453.9000;0.8506;0.6940;
454.2000;0.8523;0.7036;
454.5000;0.8555;0.7180;
454.8000;0.8498;0.7084;
455.1000;0.8498;0.7084;
455.4000;0.8571;0.7300;
455.7000;0.8506;0.7156;
456.0000;0.8474;0.7084;
456.3000;0.8490;0.7132;
456.6000;0.8490;0.7132;
456.9000;0.8506;0.7060;
457.2000;0.8506;0.7060;
457.5000;0.8514;0.6964;
457.8000;0.8506;0.7036;
458.1000;0.8514;0.7036;
458.4000;0.8506;0.7036;
458.7000;0.8514;0.7084;
459.0000;0.8498;0.7012;
459.3000;0.8531;0.7108;
459.6000;0.8514;0.7060;
459.9000;0.8514;0.7036;
460.2000;0.8506;0.7036;
460.5000;0.8498;0.7012;
460.8000;0.8514;0.7108;
461.1000;0.8506;0.7084;
461.4000;0.8506;0.6988;
461.7000;0.8514;0.6964;
462.0000;0.8523;0.6964;
462.3000;0.8523;0.6940;
462.6000;0.8523;0.6964;
462.9000;0.8514;0.7036;
463.2000;0.8506;0.7036;
463.5000;0.8523;0.7012;
463.8000;0.8506;0.6964;
464.1000;0.8506;0.6988;
464.4000;0.8498;0.7012;
464.7000;0.8531;0.6988;
465.0000;0.8506;0.6796;
465.3000;0.8498;0.6844;
465.6000;0.8514;0.6916;
465.9000;0.8498;0.6844;
466.2000;0.8498;0.6940;
466.5000;0.8514;0.6964;
466.8000;0.8498;0.6988;
467.1000;0.8506;0.6988;
467.4000;0.8506;0.6940;
467.7000;0.8514;0.6820;
468.0000;0.8466;0.6748;
468.3000;0.8498;0.6820;
468.6000;0.8506;0.6820;
468.9000;0.8506;0.6772;
469.2000;0.8506;0.6772;
469.5000;0.8514;0.6844;
469.8000;0.8514;0.6820;
470.1000;0.8563;0.7060;
470.4000;0.8531;0.6988;
470.7000;0.8506;0.6916;
471.0000;0.8482;0.6820;
471.3000;0.8523;0.6868;
471.6000;0.8498;0.6700;
471.9000;0.8506;0.6724;
472.2000;0.8523;0.6892;
472.5000;0.8498;0.6916;
472.8000;0.8490;0.6748;
473.1000;0.8498;0.6724;
473.4000;0.8482;0.6724;
473.7000;0.8490;0.6700;
474.0000;0.8539;0.6748;
474.3000;0.8482;0.6652;
474.6000;0.8490;0.6700;
474.9000;0.8506;0.6748;
475.2000;0.8514;0.6748;
475.5000;0.8490;0.6772;
475.8000;0.8523;0.6916;
476.1000;0.8498;0.6844;
476.4000;0.8523;0.6796;
476.7000;0.8514;0.6724;
477.0000;0.8539;0.6820;
477.3000;0.8563;0.6844;
477.6000;0.8506;0.6724;
477.9000;0.8514;0.6748;
478.2000;0.8498;0.6652;
478.5000;0.8506;0.6724;
478.8000;0.8531;0.6724;
479.1000;0.8506;0.6676;
479.4000;0.8490;0.6748;
479.7000;0.8498;0.6724;
480.0000;0.8498;0.6700;
480.3000;0.8531;0.6748;
480.6000;0.8506;0.6628;
480.9000;0.8498;0.6700;
481.2000;0.8506;0.6724;
481.5000;0.8514;0.6772;
481.8000;0.8506;0.6748;
482.1000;0.8506;0.6628;
482.4000;0.8498;0.6772;
482.7000;0.8474;0.6748;
483.0000;0.8498;0.6796;
483.3000;0.8490;0.6868;
483.6000;0.8506;0.6796;
483.9000;0.8506;0.6748;
484.2000;0.8474;0.6676;
484.5000;0.8498;0.6676;
484.8000;0.8474;0.6724;
485.1000;0.8498;0.6700;
485.4000;0.8514;0.6700;
485.7000;0.8506;0.6652;
486.0000;0.8490;0.6700;
486.3000;0.8523;0.6772;
486.6000;0.8506;0.6820;
486.9000;0.8490;0.6820;
487.2000;0.8498;0.6892;
487.5000;0.8523;0.6916;
487.8000;0.8514;0.6844;
488.1000;0.8506;0.6772;
488.4000;0.8498;0.6700;
488.7000;0.8506;0.6676;
489.0000;0.8498;0.6700;
489.3000;0.8490;0.6724;
489.6000;0.8506;0.6748;
489.9000;0.8498;0.6796;
490.2000;0.8457;0.6700;
490.5000;0.8490;0.6820;
490.8000;0.8523;0.6964;
491.1000;0.8490;0.6940;
491.4000;0.8514;0.6964;
491.7000;0.8490;0.6892;
492.0000;0.8539;0.6988;
492.3000;0.8490;0.6916;
492.6000;0.8539;0.7036;
492.9000;0.8506;0.6868;
493.2000;0.8457;0.6676;
493.5000;0.8474;0.6556;
493.8000;0.8482;0.6628;
494.1000;0.8539;0.6724;
494.4000;0.8490;0.6676;
494.7000;0.8466;0.6604;
495.0000;0.8506;0.6604;
495.3000;0.8457;0.6508;
495.6000;0.8539;0.6748;
495.9000;0.8466;0.6628;
496.2000;0.8490;0.6676;
496.5000;0.8433;0.6580;
496.8000;0.8514;0.6676;
497.1000;0.8523;0.6628;
497.4000;0.8531;0.6652;
497.7000;0.8539;0.6724;
498.0000;0.8482;0.6652;
498.3000;0.8523;0.6772;
498.6000;0.8506;0.6748;
498.9000;0.8506;0.6700;
499.2000;0.8490;0.6652;
499.5000;0.8506;0.6652;
499.8000;0.8490;0.6652;
500.1000;0.8506;0.6772;
500.4000;0.8498;0.6844;
500.7000;0.8482;0.6820;
501.0000;0.8474;0.6844;
501.3000;0.8514;0.6988;
501.6000;0.8482;0.6868;
501.9000;0.8498;0.6892;
502.2000;0.8514;0.6964;
502.5000;0.8506;0.7036;
502.8000;0.8474;0.6988;
503.1000;0.8498;0.7036;
503.4000;0.8490;0.7036;
503.7000;0.8482;0.6916;
504.0000;0.8498;0.6964;
504.3000;0.8498;0.6964;
504.6000;0.8498;0.6940;
504.9000;0.8482;0.6892;
505.2000;0.8474;0.6916;
505.5000;0.8482;0.6940;
505.8000;0.8490;0.6868;
506.1000;0.8490;0.6724;
506.4000;0.8498;0.6796;
506.7000;0.8596;0.7084;
507.0000;0.8490;0.6916;
507.3000;0.8474;0.6940;
507.6000;0.8498;0.6940;
507.9000;0.8506;0.6964;
508.2000;0.8498;0.7012;
508.5000;0.8498;0.6988;
508.8000;0.8531;0.7036;
509.1000;0.8506;0.7036;
509.4000;0.8474;0.7060;
509.7000;0.8490;0.7084;
510.0000;0.8482;0.6988;
510.3000;0.8498;0.7108;
510.6000;0.8523;0.7132;
510.9000;0.8490;0.7108;
511.2000;0.8596;0.7324;
511.5000;0.8474;0.7036;
511.8000;0.8514;0.7012;
512.1000;0.8498;0.6988;
512.4000;0.8490;0.6868;
512.7000;0.8506;0.6796;
513.0000;0.8506;0.6748;
513.3000;0.8514;0.6676;
513.6000;0.8506;0.6748;
513.9000;0.8498;0.6700;
514.2000;0.8620;0.7012;
514.5000;0.8514;0.6772;
514.8000;0.8498;0.6724;
515.1000;0.8482;0.6628;
515.4000;0.8506;0.6772;
515.7000;0.8498;0.6820;
516.0000;0.8514;0.6964;
516.3000;0.8514;0.6892;
516.6000;0.8506;0.6940;
516.9000;0.8490;0.6988;
517.2000;0.8523;0.7036;
517.5000;0.8514;0.7108;
517.8000;0.8441;0.6940;
518.1000;0.8506;0.7084;
518.4000;0.8466;0.6964;
518.7000;0.8498;0.7036;
519.0000;0.8498;0.6988;
519.3000;0.8506;0.6988;
519.6000;0.8563;0.6988;
519.9000;0.8490;0.6940;
520.2000;0.8498;0.6892;
520.5000;0.8531;0.7060;
520.8000;0.8506;0.6940;
521.1000;0.8498;0.6964;
521.4000;0.8531;0.6988;
521.7000;0.8482;0.6820;
522.0000;0.8506;0.6964;
522.3000;0.8490;0.6940;
522.6000;0.8523;0.7012;
522.9000;0.8490;0.6940;
523.2000;0.8506;0.6916;
523.5000;0.8498;0.6916;
523.8000;0.8498;0.6940;
524.1000;0.8490;0.6940;
524.4000;0.8482;0.6940;
524.7000;0.8555;0.7060;
525.0000;0.8498;0.6892;
525.3000;0.8506;0.7012;
525.6000;0.8482;0.6868;
525.9000;0.8506;0.7012;
526.2000;0.8498;0.7084;
526.5000;0.8482;0.7036;
526.8000;0.8490;0.7036;
527.1000;0.8482;0.6892;
527.4000;0.8482;0.6820;
527.7000;0.8498;0.6844;
528.0000;0.8498;0.6892;
528.3000;0.8498;0.6892;
528.6000;0.8506;0.6940;
528.9000;0.8498;0.6940;
529.2000;0.8482;0.6940;
529.5000;0.8498;0.7036;
529.8000;0.8482;0.7012;
530.1000;0.8490;0.7012;
530.4000;0.8482;0.6964;
530.7000;0.8482;0.6916;
531.0000;0.8498;0.6988;
531.3000;0.8490;0.6964;
531.6000;0.8514;0.6988;
531.9000;0.8490;0.6868;
532.2000;0.8514;0.6916;
532.5000;0.8514;0.6964;
532.8000;0.8498;0.6916;
533.1000;0.8490;0.6892;
533.4000;0.8506;0.6892;
533.7000;0.8482;0.6868;
534.0000;0.8506;0.6940;
534.3000;0.8498;0.7132;
534.6000;0.8531;0.7204;
534.9000;0.8498;0.7084;
535.2000;0.8539;0.7132;
535.5000;0.8482;0.7012;
535.8000;0.8547;0.7180;
536.1000;0.8490;0.6988;
536.4000;0.8482;0.7036;
536.7000;0.8482;0.6988;
537.0000;0.8498;0.6988;
537.3000;0.8466;0.6820;
537.6000;0.8506;0.6916;
537.9000;0.8498;0.6772;
538.2000;0.8506;0.6748;
538.5000;0.8506;0.6724;
538.8000;0.8490;0.6772;
539.1000;0.8490;0.6724;
539.4000;0.8482;0.6748;
539.7000;0.8490;0.6820;
540.0000;0.8482;0.6868;
540.3000;0.8523;0.7012;
540.6000;0.8506;0.6964;
540.9000;0.8498;0.6940;
541.2000;0.8498;0.7108;
541.5000;0.8514;0.7132;
541.8000;0.8474;0.7012;
542.1000;0.8490;0.7036;
542.4000;0.8506;0.7060;
542.7000;0.8531;0.7084;
543.0000;0.8490;0.7012;
543.3000;0.8514;0.7012;
543.6000;0.8523;0.6964;
543.9000;0.8498;0.6844;
544.2000;0.8498;0.6940;
544.5000;0.8498;0.6916;
544.8000;0.8514;0.6940;
545.1000;0.8490;0.7012;
545.4000;0.8547;0.7228;
545.7000;0.8474;0.7012;
546.0000;0.8498;0.7060;
546.3000;0.8506;0.7036;
546.6000;0.8466;0.6964;
546.9000;0.8498;0.7156;
547.2000;0.8490;0.7180;
547.5000;0.8498;0.7132;
547.8000;0.8498;0.7084;
548.1000;0.8498;0.7180;
548.4000;0.8531;0.7204;
548.7000;0.8482;0.7228;
549.0000;0.8490;0.7204;
549.3000;0.8457;0.7084;
549.6000;0.8482;0.7060;
549.9000;0.8466;0.6916;
550.2000;0.8490;0.6964;
550.5000;0.8482;0.6892;
550.8000;0.8474;0.6892;
551.1000;0.8506;0.6988;
551.4000;0.8474;0.6844;
551.7000;0.8498;0.6844;
552.0000;0.8474;0.6700;
552.3000;0.8474;0.6772;
552.6000;0.8482;0.6868;
552.9000;0.8506;0.6916;
553.2000;0.8498;0.6964;
553.5000;0.8498;0.6964;
553.8000;0.8466;0.6796;
554.1000;0.8490;0.6916;
554.4000;0.8482;0.6772;
554.7000;0.8457;0.6748;
555.0000;0.8474;0.6844;
555.3000;0.8523;0.7012;
555.6000;0.8555;0.7084;
555.9000;0.8474;0.6916;
556.2000;0.8490;0.7012;
556.5000;0.8457;0.6964;
556.8000;0.8482;0.6940;
557.1000;0.8498;0.6940;
557.4000;0.8506;0.6916;
557.7000;0.8498;0.6892;
558.0000;0.8498;0.6892;
558.3000;0.8482;0.6796;
558.6000;0.8490;0.6748;
558.9000;0.8498;0.6748;
559.2000;0.8514;0.6748;
559.5000;0.8498;0.6700;
559.8000;0.8466;0.6724;
560.1000;0.8482;0.6916;
560.4000;0.8482;0.6868;
560.7000;0.8482;0.6820;
561.0000;0.8490;0.6796;
561.3000;0.8506;0.6844;
561.6000;0.8490;0.6964;
561.9000;0.8531;0.7132;
562.2000;0.8498;0.6988;
562.5000;0.8514;0.7036;
562.8000;0.8482;0.6988;
563.1000;0.8498;0.6988;
563.4000;0.8449;0.6964;
563.7000;0.8490;0.7036;
564.0000;0.8531;0.7132;
564.3000;0.8498;0.7060;
564.6000;0.8498;0.7060;
564.9000;0.8490;0.7012;
565.2000;0.8482;0.6940;
565.5000;0.8498;0.6916;
565.8000;0.8523;0.7012;
566.1000;0.8482;0.6988;
566.4000;0.8490;0.7060;
566.7000;0.8514;0.7108;
567.0000;0.8482;0.7036;
567.3000;0.8474;0.7036;
567.6000;0.8490;0.7132;
567.9000;0.8490;0.7084;
568.2000;0.8490;0.7060;
568.5000;0.8490;0.7012;
568.8000;0.8506;0.7060;
569.1000;0.8498;0.7060;
569.4000;0.8514;0.7132;
569.7000;0.8490;0.7108;
570.0000;0.8482;0.7156;
570.3000;0.8466;0.7156;
570.6000;0.8514;0.7228;
570.9000;0.8523;0.7324;
571.2000;0.8482;0.7252;
571.5000;0.8498;0.7324;
571.8000;0.8490;0.7420;
572.1000;0.8498;0.7372;
572.4000;0.8498;0.7324;
572.7000;0.8498;0.7300;
573.0000;0.8506;0.7372;
573.3000;0.8474;0.7324;
573.6000;0.8482;0.7228;
573.9000;0.8474;0.7228;
574.2000;0.8498;0.7204;
574.5000;0.8506;0.7228;
574.8000;0.8482;0.7132;
575.1000;0.8498;0.7180;
575.4000;0.8482;0.7132;
575.7000;0.8466;0.6964;
576.0000;0.8482;0.6964;
576.3000;0.8482;0.6964;
576.6000;0.8474;0.7036;
576.9000;0.8498;0.7060;
577.2000;0.8482;0.6988;
577.5000;0.8498;0.7012;
577.8000;0.8482;0.6988;
578.1000;0.8498;0.6964;
578.4000;0.8482;0.6988;
578.7000;0.8531;0.7060;
579.0000;0.8490;0.7084;
579.3000;0.8490;0.7204;
579.6000;0.8466;0.7156;
579.9000;0.8490;0.7132;
580.2000;0.8490;0.7228;
580.5000;0.8474;0.7132;
580.8000;0.8474;0.7156;
581.1000;0.8531;0.7276;
581.4000;0.8482;0.7084;
581.7000;0.8466;0.7060;
582.0000;0.8482;0.7084;
582.3000;0.8466;0.7252;
582.6000;0.8474;0.7252;
582.9000;0.8474;0.7204;
583.2000;0.8474;0.7204;
583.5000;0.8482;0.7204;
583.8000;0.8474;0.7132;
584.1000;0.8490;0.7180;
584.4000;0.8506;0.7228;
584.7000;0.8490;0.7204;
585.0000;0.8482;0.7204;
585.3000;0.8490;0.7204;
585.6000;0.8498;0.7132;
585.9000;0.8498;0.7156;
586.2000;0.8482;0.7060;
586.5000;0.8474;0.6988;
586.8000;0.8490;0.7084;
587.1000;0.8490;0.6988;
587.4000;0.8449;0.6940;
587.7000;0.8490;0.7060;
588.0000;0.8490;0.7012;
588.3000;0.8482;0.6964;
588.6000;0.8482;0.6940;
588.9000;0.8466;0.6988;
589.2000;0.8580;0.7228;
589.5000;0.8482;0.6964;
589.8000;0.8490;0.7060;
590.1000;0.8482;0.7180;
590.4000;0.8457;0.7180;
590.7000;0.8466;0.7132;
591.0000;0.8482;0.7156;
591.3000;0.8474;0.7228;
591.6000;0.8384;0.6892;
591.9000;0.8482;0.7060;
592.2000;0.8474;0.7084;
592.5000;0.8425;0.7012;
592.8000;0.8482;0.7084;
593.1000;0.8539;0.7228;
593.4000;0.8490;0.7036;
593.7000;0.8466;0.6940;
594.0000;0.8466;0.6988;
594.3000;0.8498;0.7060;
594.6000;0.8490;0.7036;
594.9000;0.8490;0.7060;
595.2000;0.8482;0.7084;
595.5000;0.8482;0.7012;
595.8000;0.8498;0.7060;
596.1000;0.8409;0.6796;
596.4000;0.8482;0.7036;
596.7000;0.8482;0.6988;
597.0000;0.8449;0.6844;
597.3000;0.8474;0.6964;
597.6000;0.8474;0.6988;
597.9000;0.8482;0.6988;
598.2000;0.8490;0.7036;
598.5000;0.8506;0.7108;
598.8000;0.8571;0.7276;
599.1000;0.8466;0.6964;
599.4000;0.8498;0.6940;
599.7000;0.8490;0.7012;
600.0000;0.8474;0.6988;
600.3000;0.8506;0.6916;
600.6000;0.8498;0.6748;
600.9000;0.8449;0.6532;
601.2000;0.8417;0.6435;
601.5000;0.8327;0.6147;
601.8000;0.8278;0.6003;
602.1000;0.8230;0.5763;
602.4000;0.8156;0.5619;
602.7000;0.8099;0.5499;
603.0000;0.8034;0.5331;
603.3000;0.7993;0.5259;
603.6000;0.7937;0.5187;
603.9000;0.7855;0.5115;
604.2000;0.7831;0.4947;
604.5000;0.7774;0.4899;
604.8000;0.7774;0.5019;
605.1000;0.7619;0.4659;
605.4000;0.7643;0.4779;
605.7000;0.7611;0.4634;
606.0000;0.7505;0.4370;
606.3000;0.7546;0.4418;
606.6000;0.7497;0.4322;
606.9000;0.7464;0.4226;
607.2000;0.7481;0.4298;
607.5000;0.7399;0.4154;
607.8000;0.7367;0.4130;
608.1000;0.7310;0.4010;
608.4000;0.7293;0.4130;
608.7000;0.7302;0.4178;
609.0000;0.7269;0.4154;
609.3000;0.7236;0.4178;
609.6000;0.7212;0.4130;
609.9000;0.7179;0.4058;
610.2000;0.7155;0.4058;
610.5000;0.7131;0.3986;
610.8000;0.7090;0.4010;
611.1000;0.7147;0.4202;
611.4000;0.7049;0.4058;
611.7000;0.7033;0.3986;
612.0000;0.7000;0.3938;
612.3000;0.6992;0.3866;
612.6000;0.6976;0.3842;
612.9000;0.6976;0.3794;
613.2000;0.6919;0.3746;
613.5000;0.6919;0.3794;
613.8000;0.6903;0.3818;
614.1000;0.6862;0.3746;
614.4000;0.6829;0.3674;
614.7000;0.6838;0.3698;
615.0000;0.6821;0.3674;
615.3000;0.6821;0.3746;
615.6000;0.6789;0.3722;
615.9000;0.6772;0.3674;
616.2000;0.6732;0.3650;
616.5000;0.6724;0.3698;
616.8000;0.6699;0.3626;
617.1000;0.6683;0.3506;
617.4000;0.6691;0.3554;
617.7000;0.6675;0.3602;
618.0000;0.6667;0.3650;
618.3000;0.6642;0.3650;
618.6000;0.6626;0.3626;
618.9000;0.6618;0.3554;
619.2000;0.6593;0.3506;
619.5000;0.6593;0.3530;
619.8000;0.6561;0.3506;
620.1000;0.6577;0.3578;
620.4000;0.6561;0.3578;
620.7000;0.6536;0.3554;
621.0000;0.6504;0.3482;
621.3000;0.6504;0.3410;
621.6000;0.6504;0.3482;
621.9000;0.6488;0.3506;
622.2000;0.6463;0.3458;
622.5000;0.6463;0.3482;
622.8000;0.6447;0.3482;
623.1000;0.6447;0.3482;
623.4000;0.6422;0.3482;
623.7000;0.6431;0.3458;
624.0000;0.6422;0.3482;
624.3000;0.6406;0.3530;
624.6000;0.6390;0.3530;
624.9000;0.6390;0.3674;
625.2000;0.6382;0.3722;
625.5000;0.6349;0.3626;
625.8000;0.6349;0.3746;
626.1000;0.6333;0.3818;
626.4000;0.6333;0.3698;
626.7000;0.6325;0.3578;
627.0000;0.6292;0.3482;
627.3000;0.6284;0.3506;
627.6000;0.6284;0.3578;
627.9000;0.6276;0.3602;
628.2000;0.6268;0.3554;
628.5000;0.6252;0.3482;
628.8000;0.6243;0.3482;
629.1000;0.6243;0.3506;
629.4000;0.6260;0.3626;
629.7000;0.6219;0.3578;
630.0000;0.6227;0.3578;
630.3000;0.6227;0.3626;
630.6000;0.6211;0.3650;
630.9000;0.6203;0.3650;
631.2000;0.6178;0.3530;
631.5000;0.6186;0.3578;
631.8000;0.6186;0.3578;
632.1000;0.6162;0.3506;
632.4000;0.6178;0.3554;
632.7000;0.6162;0.3602;
633.0000;0.6162;0.3530;
633.3000;0.6219;0.3842;
633.6000;0.6129;0.3506;
633.9000;0.6138;0.3554;
634.2000;0.6138;0.3578;
634.5000;0.6138;0.3554;
634.8000;0.6121;0.3554;
635.1000;0.6129;0.3602;
635.4000;0.6162;0.3722;
635.7000;0.6105;0.3626;
636.0000;0.6089;0.3602;
636.3000;0.6154;0.3722;
636.6000;0.6064;0.3482;
636.9000;0.6081;0.3554;
637.2000;0.6072;0.3578;
637.5000;0.6040;0.3506;
637.8000;0.6056;0.3602;
638.1000;0.6032;0.3554;
638.4000;0.6064;0.3530;
638.7000;0.6024;0.3410;
639.0000;0.6048;0.3530;
639.3000;0.6032;0.3386;
639.6000;0.6064;0.3482;
639.9000;0.5999;0.3362;
640.2000;0.6015;0.3386;
640.5000;0.5999;0.3362;
640.8000;0.5991;0.3410;
641.1000;0.5983;0.3386;
641.4000;0.5983;0.3458;
641.7000;0.5975;0.3458;
642.0000;0.5975;0.3434;
642.3000;0.5942;0.3458;
642.6000;0.5958;0.3482;
642.9000;0.5958;0.3482;
643.2000;0.5967;0.3482;
643.5000;0.5942;0.3410;
643.8000;0.5942;0.3482;
644.1000;0.6040;0.3866;
644.4000;0.5950;0.3746;
644.7000;0.5926;0.3698;
645.0000;0.5991;0.3866;
645.3000;0.5893;0.3602;
645.6000;0.5918;0.3674;
645.9000;0.5910;0.3674;
646.2000;0.5853;0.3506;
646.5000;0.5902;0.3554;
646.8000;0.5902;0.3482;
647.1000;0.5902;0.3434;
647.4000;0.5877;0.3410;
647.7000;0.5869;0.3386;
648.0000;0.5836;0.3314;
648.3000;0.5885;0.3410;
648.6000;0.5869;0.3410;
648.9000;0.5958;0.3698;
649.2000;0.5861;0.3482;
649.5000;0.5853;0.3506;
649.8000;0.5877;0.3530;
650.1000;0.5845;0.3530;
650.4000;0.5861;0.3578;
650.7000;0.5828;0.3554;
651.0000;0.5853;0.3650;
651.3000;0.5836;0.3626;
651.6000;0.5845;0.3722;
651.9000;0.5828;0.3674;
652.2000;0.5836;0.3698;
652.5000;0.5812;0.3674;
652.8000;0.5804;0.3746;
653.1000;0.5804;0.3794;
653.4000;0.5812;0.3698;
653.7000;0.5804;0.3626;
654.0000;0.5779;0.3506;
654.3000;0.5796;0.3506;
654.6000;0.5812;0.3554;
654.9000;0.5796;0.3554;
655.2000;0.5779;0.3506;
655.5000;0.5796;0.3482;
655.8000;0.5828;0.3602;
656.1000;0.5779;0.3554;
656.4000;0.5763;0.3530;
656.7000;0.5763;0.3530;
657.0000;0.5788;0.3530;
657.3000;0.5763;0.3482;
657.6000;0.5755;0.3506;
657.9000;0.5739;0.3482;
658.2000;0.5763;0.3554;
658.5000;0.5739;0.3602;
658.8000;0.5763;0.3602;
659.1000;0.5722;0.3554;
659.4000;0.5739;0.3506;
659.7000;0.5747;0.3602;
660.0000;0.5731;0.3650;
660.3000;0.5828;0.3818;
660.6000;0.5731;0.3530;
660.9000;0.5722;0.3554;
661.2000;0.5739;0.3626;
661.5000;0.5690;0.3506;
661.8000;0.5731;0.3554;
662.1000;0.5722;0.3650;
662.4000;0.5698;0.3554;
662.7000;0.5706;0.3602;
663.0000;0.5698;0.3650;
663.3000;0.5731;0.3698;
663.6000;0.5706;0.3650;
663.9000;0.5690;0.3650;
664.2000;0.5698;0.3554;
664.5000;0.5698;0.3554;
664.8000;0.5714;0.3650;
665.1000;0.5698;0.3650;
665.4000;0.5747;0.3722;
665.7000;0.5698;0.3650;
666.0000;0.5682;0.3626;
666.3000;0.5690;0.3578;
666.6000;0.5682;0.3578;
666.9000;0.5674;0.3626;
667.2000;0.5682;0.3626;
667.5000;0.5657;0.3578;
667.8000;0.5665;0.3578;
668.1000;0.5641;0.3458;
668.4000;0.5674;0.3506;
668.7000;0.5665;0.3506;
669.0000;0.5665;0.3506;
669.3000;0.5649;0.3434;
669.6000;0.5641;0.3434;
669.9000;0.5657;0.3386;
670.2000;0.5649;0.3362;
670.5000;0.5625;0.3362;
670.8000;0.5641;0.3410;
671.1000;0.5625;0.3434;
671.4000;0.5608;0.3434;
671.7000;0.5617;0.3458;
672.0000;0.5617;0.3482;
672.3000;0.5649;0.3554;
672.6000;0.5633;0.3530;
672.9000;0.5617;0.3554;
673.2000;0.5633;0.3626;
673.5000;0.5617;0.3530;
673.8000;0.5617;0.3530;
674.1000;0.5625;0.3554;
674.4000;0.5617;0.3554;
674.7000;0.5617;0.3602;
675.0000;0.5608;0.3530;
675.3000;0.5617;0.3530;
675.6000;0.5600;0.3434;
675.9000;0.5674;0.3602;
676.2000;0.5608;0.3362;
676.5000;0.5608;0.3410;
676.8000;0.5592;0.3506;
677.1000;0.5592;0.3554;
677.4000;0.5600;0.3578;
677.7000;0.5592;0.3506;
678.0000;0.5576;0.3530;
678.3000;0.5535;0.3410;
678.6000;0.5568;0.3410;
678.9000;0.5576;0.3410;
679.2000;0.5576;0.3362;
679.5000;0.5568;0.3338;
679.8000;0.5576;0.3386;
680.1000;0.5584;0.3482;
680.4000;0.5576;0.3530;
680.7000;0.5568;0.3554;
681.0000;0.5584;0.3530;
681.3000;0.5560;0.3458;
681.6000;0.5551;0.3410;
681.9000;0.5527;0.3266;
682.2000;0.5560;0.3362;
682.5000;0.5543;0.3362;
682.8000;0.5551;0.3434;
683.1000;0.5535;0.3434;
683.4000;0.5543;0.3458;
683.7000;0.5543;0.3410;
684.0000;0.5535;0.3314;
684.3000;0.5543;0.3266;
684.6000;0.5535;0.3290;
684.9000;0.5560;0.3386;
685.2000;0.5527;0.3242;
685.5000;0.5543;0.3362;
685.8000;0.5543;0.3362;
686.1000;0.5560;0.3482;
686.4000;0.5551;0.3362;
686.7000;0.5543;0.3386;
687.0000;0.5527;0.3410;
687.3000;0.5527;0.3506;
687.6000;0.5551;0.3554;
687.9000;0.5519;0.3362;
688.2000;0.5503;0.3338;
688.5000;0.5527;0.3386;
688.8000;0.5519;0.3506;
689.1000;0.5527;0.3530;
689.4000;0.5519;0.3506;
689.7000;0.5495;0.3530;
690.0000;0.5568;0.3722;
690.3000;0.5511;0.3434;
690.6000;0.5511;0.3314;
690.9000;0.5470;0.3266;
691.2000;0.5503;0.3290;
691.5000;0.5511;0.3290;
691.8000;0.5495;0.3290;
692.1000;0.5503;0.3362;
692.4000;0.5486;0.3386;
692.7000;0.5503;0.3506;
693.0000;0.5519;0.3578;
693.3000;0.5495;0.3458;
693.6000;0.5486;0.3482;
693.9000;0.5478;0.3458;
694.2000;0.5429;0.3242;
694.5000;0.5495;0.3458;
694.8000;0.5421;0.3218;
695.1000;0.5486;0.3386;
695.4000;0.5495;0.3410;
695.7000;0.5478;0.3338;
696.0000;0.5478;0.3434;
696.3000;0.5429;0.3290;
696.6000;0.5486;0.3410;
696.9000;0.5446;0.3290;
697.2000;0.5478;0.3410;
697.5000;0.5470;0.3506;
697.8000;0.5478;0.3506;
698.1000;0.5454;0.3458;
698.4000;0.5462;0.3434;
698.7000;0.5462;0.3434;
699.0000;0.5462;0.3434;
699.3000;0.5421;0.3290;
699.6000;0.5478;0.3554;
699.9000;0.5462;0.3554;
700.2000;0.5470;0.3530;
700.5000;0.5470;0.3506;
700.8000;0.5462;0.3482;
701.1000;0.5454;0.3434;
701.4000;0.5438;0.3362;
701.7000;0.5462;0.3506;
702.0000;0.5470;0.3410;
702.3000;0.5421;0.3218;
702.6000;0.5454;0.3314;
702.9000;0.5438;0.3314;
703.2000;0.5454;0.3338;
703.5000;0.5429;0.3290;
703.8000;0.5429;0.3362;
704.1000;0.5438;0.3362;
704.4000;0.5421;0.3410;
704.7000;0.5454;0.3458;
705.0000;0.5429;0.3410;
705.3000;0.5462;0.3530;
705.6000;0.5389;0.3266;
705.9000;0.5438;0.3410;
706.2000;0.5446;0.3410;
706.5000;0.5438;0.3386;
706.8000;0.5438;0.3434;
707.1000;0.5470;0.3482;
707.4000;0.5551;0.3650;
707.7000;0.5405;0.3314;
708.0000;0.5421;0.3386;
708.3000;0.5429;0.3506;
708.6000;0.5421;0.3434;
708.9000;0.5413;0.3482;
709.2000;0.5429;0.3506;
709.5000;0.5429;0.3554;
709.8000;0.5438;0.3554;
710.1000;0.5421;0.3506;
710.4000;0.5405;0.3482;
710.7000;0.5421;0.3554;
711.0000;0.5446;0.3650;
711.3000;0.5413;0.3578;
711.6000;0.5421;0.3554;
711.9000;0.5429;0.3578;
712.2000;0.5421;0.3554;
712.5000;0.5421;0.3578;
712.8000;0.5413;0.3554;
713.1000;0.5429;0.3626;
713.4000;0.5372;0.3578;
713.7000;0.5332;0.3482;
714.0000;0.5405;0.3650;
714.3000;0.5364;0.3458;
714.6000;0.5413;0.3554;
714.9000;0.5397;0.3506;
715.2000;0.5405;0.3458;
715.5000;0.5405;0.3482;
715.8000;0.5397;0.3482;
716.1000;0.5364;0.3482;
716.4000;0.5381;0.3602;
716.7000;0.5446;0.3722;
717.0000;0.5381;0.3650;
717.3000;0.5397;0.3650;
717.6000;0.5397;0.3698;
717.9000;0.5486;0.3842;
718.2000;0.5446;0.3794;
718.5000;0.5381;0.3698;
718.8000;0.5421;0.3818;
719.1000;0.5405;0.3770;
719.4000;0.5372;0.3674;
719.7000;0.5389;0.3602;
720.0000;0.5364;0.3554;
720.3000;0.5478;0.3842;
720.6000;0.5381;0.3530;
720.9000;0.5421;0.3698;
721.2000;0.5381;0.3554;
721.5000;0.5381;0.3530;
721.8000;0.5389;0.3578;
722.1000;0.5381;0.3530;
722.4000;0.5364;0.3506;
722.7000;0.5397;0.3554;
723.0000;0.5364;0.3530;
723.3000;0.5372;0.3530;
723.6000;0.5364;0.3530;
723.9000;0.5356;0.3530;
724.2000;0.5389;0.3578;
724.5000;0.5381;0.3554;
724.8000;0.5332;0.3458;
725.1000;0.5364;0.3530;
725.4000;0.5397;0.3674;
725.7000;0.5356;0.3458;
726.0000;0.5372;0.3386;
726.3000;0.5348;0.3410;
726.6000;0.5364;0.3434;
726.9000;0.5356;0.3434;
727.2000;0.5381;0.3602;
727.5000;0.5364;0.3530;
727.8000;0.5356;0.3482;
728.1000;0.5348;0.3458;
728.4000;0.5389;0.3626;
728.7000;0.5348;0.3530;
729.0000;0.5340;0.3506;
729.3000;0.5340;0.3602;
729.6000;0.5356;0.3506;
729.9000;0.5356;0.3530;
730.2000;0.5348;0.3554;
730.5000;0.5299;0.3386;
730.8000;0.5340;0.3458;
731.1000;0.5356;0.3386;
731.4000;0.5299;0.3266;
731.7000;0.5356;0.3386;
732.0000;0.5307;0.3242;
732.3000;0.5340;0.3314;
732.6000;0.5397;0.3386;
732.9000;0.5348;0.3338;
733.2000;0.5340;0.3338;
733.5000;0.5356;0.3338;
733.8000;0.5340;0.3386;
734.1000;0.5340;0.3410;
734.4000;0.5332;0.3434;
734.7000;0.5356;0.3410;
735.0000;0.5340;0.3434;
735.3000;0.5348;0.3482;
735.6000;0.5348;0.3458;
735.9000;0.5364;0.3458;
736.2000;0.5340;0.3314;
736.5000;0.5324;0.3146;
736.8000;0.5324;0.3194;
737.1000;0.5299;0.3122;
737.4000;0.5348;0.3218;
737.7000;0.5340;0.3218;
738.0000;0.5267;0.3026;
738.3000;0.5299;0.3170;
738.6000;0.5340;0.3242;
738.9000;0.5324;0.3170;
739.2000;0.5332;0.3242;
739.5000;0.5324;0.3218;
739.8000;0.5429;0.3506;
740.1000;0.5332;0.3338;
740.4000;0.5340;0.3338;
740.7000;0.5315;0.3314;
741.0000;0.5299;0.3362;
741.3000;0.5324;0.3506;
741.6000;0.5332;0.3554;
741.9000;0.5307;0.3434;
742.2000;0.5324;0.3554;
742.5000;0.5332;0.3530;
742.8000;0.5283;0.3386;
743.1000;0.5267;0.3386;
743.4000;0.5324;0.3458;
743.7000;0.5324;0.3386;
744.0000;0.5348;0.3434;
744.3000;0.5307;0.3314;
744.6000;0.5315;0.3386;
744.9000;0.5324;0.3410;
745.2000;0.5315;0.3434;
745.5000;0.5315;0.3506;
745.8000;0.5324;0.3530;
746.1000;0.5364;0.3650;
746.4000;0.5299;0.3530;
746.7000;0.5307;0.3554;
747.0000;0.5324;0.3506;
747.3000;0.5299;0.3482;
747.6000;0.5324;0.3530;
747.9000;0.5275;0.3362;
748.2000;0.5299;0.3410;
748.5000;0.5299;0.3434;
748.8000;0.5299;0.3434;
749.1000;0.5275;0.3482;
749.4000;0.5283;0.3530;
749.7000;0.5275;0.3578;
750.0000;0.5307;0.3602;
750.3000;0.5307;0.3602;
750.6000;0.5283;0.3554;
750.9000;0.5291;0.3530;
751.2000;0.5299;0.3554;
751.5000;0.5275;0.3434;
751.8000;0.5291;0.3482;
752.1000;0.5283;0.3506;
752.4000;0.5250;0.3386;
752.7000;0.5283;0.3434;
753.0000;0.5299;0.3410;
753.3000;0.5275;0.3410;
753.6000;0.5283;0.3458;
753.9000;0.5299;0.3458;
754.2000;0.5307;0.3410;
754.5000;0.5291;0.3434;
754.8000;0.5299;0.3506;
755.1000;0.5291;0.3506;
755.4000;0.5267;0.3458;
755.7000;0.5291;0.3506;
756.0000;0.5291;0.3482;
756.3000;0.5299;0.3482;
756.6000;0.5315;0.3410;
756.9000;0.5275;0.3386;
757.2000;0.5283;0.3386;
757.5000;0.5291;0.3458;
757.8000;0.5267;0.3410;
758.1000;0.5283;0.3434;
758.4000;0.5267;0.3434;
758.7000;0.5283;0.3362;
759.0000;0.5299;0.3362;
759.3000;0.5307;0.3386;
759.6000;0.5267;0.3338;
759.9000;0.5267;0.3386;
760.2000;0.5283;0.3482;
760.5000;0.5283;0.3458;
760.8000;0.5267;0.3362;
761.1000;0.5234;0.3242;
761.4000;0.5315;0.3338;
761.7000;0.5267;0.3266;
762.0000;0.5234;0.3218;
762.3000;0.5258;0.3314;
762.6000;0.5267;0.3362;
762.9000;0.5275;0.3386;
763.2000;0.5267;0.3386;
763.5000;0.5242;0.3314;
763.8000;0.5267;0.3434;
764.1000;0.5291;0.3482;
764.4000;0.5258;0.3290;
764.7000;0.5258;0.3338;
765.0000;0.5267;0.3434;
765.3000;0.5258;0.3386;
765.6000;0.5258;0.3410;
765.9000;0.5267;0.3410;
766.2000;0.5250;0.3362;
766.5000;0.5250;0.3410;
766.8000;0.5258;0.3434;
767.1000;0.5258;0.3506;
767.4000;0.5258;0.3554;
767.7000;0.5250;0.3554;
768.0000;0.5234;0.3506;
768.3000;0.5258;0.3530;
768.6000;0.5267;0.3674;
768.9000;0.5275;0.3650;
769.2000;0.5275;0.3578;
769.5000;0.5250;0.3578;
769.8000;0.5234;0.3482;
770.1000;0.5242;0.3458;
770.4000;0.5258;0.3530;
770.7000;0.5250;0.3578;
771.0000;0.5250;0.3482;
771.3000;0.5275;0.3530;
771.6000;0.5267;0.3482;
771.9000;0.5267;0.3482;
772.2000;0.5242;0.3458;
772.5000;0.5258;0.3506;
772.8000;0.5242;0.3554;
773.1000;0.5242;0.3578;
773.4000;0.5250;0.3578;
773.7000;0.5234;0.3578;
774.0000;0.5242;0.3554;
774.3000;0.5250;0.3578;
774.6000;0.5242;0.3602;
774.9000;0.5242;0.3602;
775.2000;0.5275;0.3698;
775.5000;0.5258;0.3578;
775.8000;0.5242;0.3458;
776.1000;0.5283;0.3530;
776.4000;0.5250;0.3482;
776.7000;0.5299;0.3602;
777.0000;0.5258;0.3530;
777.3000;0.5226;0.3434;
777.6000;0.5234;0.3506;
777.9000;0.5258;0.3650;
778.2000;0.5258;0.3746;
778.5000;0.5242;0.3650;
778.8000;0.5234;0.3650;
779.1000;0.5226;0.3626;
779.4000;0.5250;0.3626;
779.7000;0.5234;0.3674;
780.0000;0.5242;0.3722;
780.3000;0.5234;0.3626;
780.6000;0.5242;0.3650;
780.9000;0.5234;0.3626;
781.2000;0.5242;0.3554;
781.5000;0.5234;0.3578;
781.8000;0.5234;0.3650;
782.1000;0.5234;0.3578;
782.4000;0.5210;0.3506;
782.7000;0.5242;0.3578;
783.0000;0.5258;0.3554;
783.3000;0.5234;0.3626;
783.6000;0.5234;0.3722;
783.9000;0.5226;0.3746;
784.2000;0.5242;0.3770;
784.5000;0.5193;0.3578;
784.8000;0.5226;0.3650;
785.1000;0.5267;0.3818;
785.4000;0.5210;0.3650;
785.7000;0.5226;0.3722;
786.0000;0.5234;0.3746;
786.3000;0.5234;0.3722;
786.6000;0.5234;0.3722;
786.9000;0.5218;0.3674;
787.2000;0.5234;0.3746;
787.5000;0.5210;0.3698;
787.8000;0.5226;0.3818;
788.1000;0.5218;0.3698;
788.4000;0.5226;0.3770;
788.7000;0.5218;0.3794;
789.0000;0.5226;0.3818;
789.3000;0.5210;0.3746;
789.6000;0.5234;0.3794;
789.9000;0.5210;0.3674;
790.2000;0.5226;0.3674;
790.5000;0.5234;0.3722;
790.8000;0.5226;0.3722;
791.1000;0.5234;0.3746;
791.4000;0.5210;0.3794;
791.7000;0.5234;0.3842;
792.0000;0.5242;0.3818;
792.3000;0.5267;0.3842;
792.6000;0.5218;0.3698;
792.9000;0.5210;0.3722;
793.2000;0.5218;0.3674;
793.5000;0.5226;0.3722;
793.8000;0.5226;0.3770;
794.1000;0.5226;0.3866;
794.4000;0.5218;0.3986;
794.7000;0.5234;0.3866;
795.0000;0.5218;0.3794;
795.3000;0.5210;0.3626;
795.6000;0.5226;0.3602;
795.9000;0.5234;0.3650;
796.2000;0.5201;0.3674;
796.5000;0.5226;0.3746;
796.8000;0.5226;0.3770;
797.1000;0.5226;0.3770;
797.4000;0.5283;0.3938;
797.7000;0.5226;0.3770;
798.0000;0.5226;0.3746;
798.3000;0.5234;0.3746;
798.6000;0.5210;0.3674;
798.9000;0.5210;0.3650;
799.2000;0.5201;0.3602;
799.5000;0.5210;0.3602;
799.8000;0.5218;0.3674;
800.1000;0.5201;0.3794;
800.4000;0.5201;0.3818;
800.7000;0.5291;0.4034;
801.0000;0.5201;0.3842;
801.3000;0.5210;0.3818;
801.6000;0.5210;0.3794;
801.9000;0.5201;0.3746;
802.2000;0.5201;0.3794;
802.5000;0.5218;0.3890;
802.8000;0.5210;0.3770;
803.1000;0.5210;0.3794;
803.4000;0.5185;0.3746;
803.7000;0.5250;0.3938;
804.0000;0.5210;0.3794;
804.3000;0.5201;0.3746;
804.6000;0.5218;0.3842;
804.9000;0.5210;0.3818;
805.2000;0.5185;0.3770;
805.5000;0.5185;0.3794;
805.8000;0.5210;0.3842;
806.1000;0.5210;0.3698;
806.4000;0.5193;0.3650;
806.7000;0.5193;0.3698;
807.0000;0.5193;0.3746;
807.3000;0.5153;0.3650;
807.6000;0.5210;0.3746;
807.9000;0.5218;0.3794;
808.2000;0.5210;0.3770;
808.5000;0.5201;0.3746;
808.8000;0.5201;0.3746;
809.1000;0.5185;0.3746;
809.4000;0.5193;0.3818;
809.7000;0.5201;0.3890;
810.0000;0.5242;0.4106;
810.3000;0.5185;0.3866;
810.6000;0.5185;0.3746;
810.9000;0.5185;0.3746;
811.2000;0.5169;0.3722;
811.5000;0.5193;0.3818;
811.8000;0.5210;0.3938;
812.1000;0.5218;0.3986;
812.4000;0.5193;0.3986;
812.7000;0.5201;0.3962;
813.0000;0.5193;0.3914;
813.3000;0.5144;0.3794;
813.6000;0.5193;0.3842;
813.9000;0.5201;0.3866;
814.2000;0.5169;0.3818;
814.5000;0.5193;0.3770;
814.8000;0.5218;0.3938;
815.1000;0.5193;0.3794;
815.4000;0.5177;0.3770;
815.7000;0.5201;0.3842;
816.0000;0.5185;0.3866;
816.3000;0.5201;0.3794;
816.6000;0.5193;0.3746;
816.9000;0.5193;0.3674;
817.2000;0.5177;0.3530;
817.5000;0.5193;0.3554;
817.8000;0.5177;0.3602;
818.1000;0.5112;0.3386;
818.4000;0.5185;0.3530;
818.7000;0.5193;0.3578;
819.0000;0.5185;0.3650;
819.3000;0.5201;0.3698;
819.6000;0.5169;0.3626;
819.9000;0.5185;0.3770;
820.2000;0.5169;0.3746;
820.5000;0.5185;0.3794;
820.8000;0.5169;0.3698;
821.1000;0.5169;0.3698;
821.4000;0.5226;0.3794;
821.7000;0.5185;0.3650;
822.0000;0.5185;0.3602;
822.3000;0.5177;0.3578;
822.6000;0.5169;0.3650;
822.9000;0.5177;0.3698;
823.2000;0.5242;0.3890;
823.5000;0.5128;0.3602;
823.8000;0.5201;0.3794;
824.1000;0.5169;0.3794;
824.4000;0.5136;0.3626;
824.7000;0.5177;0.3746;
825.0000;0.5169;0.3674;
825.3000;0.5185;0.3674;
825.6000;0.5169;0.3578;
825.9000;0.5177;0.3434;
826.2000;0.5161;0.3362;
826.5000;0.5153;0.3386;
826.8000;0.5177;0.3458;
827.1000;0.5169;0.3530;
827.4000;0.5185;0.3602;
827.7000;0.5193;0.3650;
828.0000;0.5169;0.3554;
828.3000;0.5177;0.3554;
828.6000;0.5177;0.3554;
828.9000;0.5185;0.3578;
829.2000;0.5185;0.3506;
829.5000;0.5161;0.3410;
829.8000;0.5185;0.3482;
830.1000;0.5177;0.3530;
830.4000;0.5185;0.3578;
830.7000;0.5193;0.3554;
831.0000;0.5177;0.3602;
831.3000;0.5177;0.3506;
831.6000;0.5201;0.3482;
831.9000;0.5161;0.3362;
832.2000;0.5177;0.3458;
832.5000;0.5169;0.3458;
832.8000;0.5210;0.3482;
833.1000;0.5169;0.3434;
833.4000;0.5169;0.3458;
833.7000;0.5169;0.3434;
834.0000;0.5144;0.3386;
834.3000;0.5177;0.3506;
834.6000;0.5120;0.3362;
834.9000;0.5144;0.3458;
835.2000;0.5128;0.3434;
835.5000;0.5169;0.3530;
835.8000;0.5169;0.3626;
836.1000;0.5177;0.3674;
836.4000;0.5161;0.3650;
836.7000;0.5169;0.3626;
837.0000;0.5218;0.3770;
837.3000;0.5201;0.3746;
837.6000;0.5144;0.3674;
837.9000;0.5104;0.3578;
838.2000;0.5169;0.3674;
838.5000;0.5153;0.3602;
838.8000;0.5169;0.3626;
839.1000;0.5144;0.3602;
839.4000;0.5193;0.3746;
839.7000;0.5169;0.3722;
840.0000;0.5210;0.3698;
840.3000;0.5144;0.3506;
840.6000;0.5161;0.3482;
840.9000;0.5161;0.3386;
841.2000;0.5169;0.3554;
841.5000;0.5169;0.3602;
841.8000;0.5185;0.3626;
842.1000;0.5144;0.3506;
842.4000;0.5161;0.3578;
842.7000;0.5169;0.3602;
843.0000;0.5193;0.3698;
843.3000;0.5193;0.3674;
843.6000;0.5242;0.3842;
843.9000;0.5169;0.3722;
844.2000;0.5193;0.3746;
844.5000;0.5177;0.3650;
844.8000;0.5161;0.3650;
845.1000;0.5136;0.3626;
845.4000;0.5177;0.3698;
845.7000;0.5112;0.3626;
846.0000;0.5161;0.3722;
846.3000;0.5153;0.3674;
846.6000;0.5161;0.3602;
846.9000;0.5169;0.3650;
847.2000;0.5144;0.3554;
847.5000;0.5193;0.3698;
847.8000;0.5161;0.3602;
848.1000;0.5161;0.3722;
848.4000;0.5144;0.3698;
848.7000;0.5153;0.3794;
849.0000;0.5153;0.3722;
849.3000;0.5161;0.3746;
849.6000;0.5161;0.3794;
849.9000;0.5144;0.3722;
850.2000;0.5144;0.3698;
850.5000;0.5185;0.3866;
850.8000;0.5153;0.3890;
851.1000;0.5128;0.3890;
851.4000;0.5120;0.3962;
851.7000;0.5153;0.3986;
852.0000;0.5161;0.4010;
852.3000;0.5169;0.4058;
852.6000;0.5169;0.3962;
852.9000;0.5153;0.3938;
853.2000;0.5201;0.4130;
853.5000;0.5153;0.4082;
853.8000;0.5144;0.4034;
854.1000;0.5136;0.4034;
854.4000;0.5169;0.4106;
854.7000;0.5153;0.4106;
855.0000;0.5201;0.4298;
855.3000;0.5161;0.4082;
855.6000;0.5144;0.4106;
855.9000;0.5153;0.4106;
856.2000;0.5136;0.4082;
856.5000;0.5144;0.4010;
856.8000;0.5153;0.4010;
857.1000;0.5153;0.3938;
857.4000;0.5153;0.3890;
857.7000;0.5234;0.4058;
858.0000;0.5193;0.3938;
858.3000;0.5153;0.3770;
858.6000;0.5169;0.3770;
858.9000;0.5112;0.3674;
859.2000;0.5234;0.4058;
859.5000;0.5169;0.3722;
859.8000;0.5153;0.3722;
860.1000;0.5185;0.3770;
860.4000;0.5161;0.3626;
860.7000;0.5153;0.3674;
861.0000;0.5169;0.3722;
861.3000;0.5144;0.3602;
861.6000;0.5153;0.3602;
861.9000;0.5161;0.3554;
862.2000;0.5193;0.3698;
862.5000;0.5144;0.3602;
862.8000;0.5144;0.3626;
863.1000;0.5104;0.3554;
863.4000;0.5161;0.3866;
863.7000;0.5136;0.3938;
864.0000;0.5136;0.3890;
864.3000;0.5144;0.4010;
864.6000;0.5153;0.4010;
864.9000;0.5136;0.3938;
865.2000;0.5136;0.3866;
865.5000;0.5136;0.3842;
865.8000;0.5250;0.4106;
866.1000;0.5161;0.3770;
866.4000;0.5153;0.3698;
866.7000;0.5136;0.3794;
867.0000;0.5136;0.3890;
867.3000;0.5153;0.3842;
867.6000;0.5144;0.3914;
867.9000;0.5153;0.3866;
868.2000;0.5136;0.3818;
868.5000;0.5169;0.3866;
868.8000;0.5144;0.3866;
869.1000;0.5128;0.3794;
869.4000;0.5144;0.3746;
869.7000;0.5153;0.3746;
870.0000;0.5153;0.3746;
870.3000;0.5144;0.3794;
870.6000;0.5144;0.3722;
870.9000;0.5144;0.3770;
871.2000;0.5128;0.3770;
871.5000;0.5136;0.3794;
871.8000;0.5136;0.3866;
872.1000;0.5144;0.3890;
872.4000;0.5144;0.3866;
872.7000;0.5153;0.3866;
873.0000;0.5153;0.3890;
873.3000;0.5153;0.3842;
873.6000;0.5144;0.3842;
873.9000;0.5136;0.3866;
874.2000;0.5120;0.3842;
874.5000;0.5153;0.3938;
874.8000;0.5136;0.3770;
875.1000;0.5128;0.3746;
875.4000;0.5128;0.3770;
875.7000;0.5136;0.3674;
876.0000;0.5169;0.3746;
876.3000;0.5120;0.3626;
876.6000;0.5136;0.3578;
876.9000;0.5128;0.3578;
877.2000;0.5136;0.3530;
877.5000;0.5136;0.3554;
877.8000;0.5088;0.3506;
878.1000;0.5128;0.3674;
878.4000;0.5136;0.3770;
878.7000;0.5161;0.3770;
879.0000;0.5185;0.3794;
879.3000;0.5185;0.3746;
879.6000;0.5144;0.3626;
879.9000;0.5136;0.3626;
880.2000;0.5112;0.3554;
880.5000;0.5112;0.3602;
880.8000;0.5120;0.3770;
881.1000;0.5128;0.3746;
881.4000;0.5144;0.3746;
881.7000;0.5136;0.3698;
882.0000;0.5112;0.3674;
882.3000;0.5136;0.3746;
882.6000;0.5136;0.3746;
882.9000;0.5153;0.3770;
883.2000;0.5128;0.3746;
883.5000;0.5128;0.3770;
883.8000;0.5136;0.3770;
884.1000;0.5136;0.3794;
884.4000;0.5136;0.3770;
884.7000;0.5136;0.3794;
885.0000;0.5136;0.3794;
885.3000;0.5112;0.3626;
885.6000;0.5120;0.3674;
885.9000;0.5120;0.3674;
886.2000;0.5136;0.3722;
886.5000;0.5120;0.3746;
886.8000;0.5136;0.3770;
887.1000;0.5128;0.3746;
887.4000;0.5120;0.3626;
887.7000;0.5136;0.3698;
888.0000;0.5136;0.3746;
888.3000;0.5112;0.3650;
888.6000;0.5136;0.3602;
888.9000;0.5104;0.3506;
889.2000;0.5136;0.3530;
889.5000;0.5136;0.3530;
889.8000;0.5128;0.3530;
890.1000;0.5112;0.3458;
890.4000;0.5128;0.3554;
890.7000;0.5104;0.3458;
891.0000;0.5128;0.3554;
891.3000;0.5144;0.3650;
891.6000;0.5128;0.3626;
891.9000;0.5136;0.3626;
892.2000;0.5120;0.3674;
892.5000;0.5120;0.3698;
892.8000;0.5112;0.3794;
893.1000;0.5120;0.3794;
893.4000;0.5096;0.3746;
893.7000;0.5063;0.3578;
894.0000;0.5112;0.3674;
894.3000;0.5079;0.3578;
894.6000;0.5104;0.3554;
894.9000;0.5136;0.3722;
895.2000;0.5104;0.3650;
895.5000;0.5128;0.3674;
895.8000;0.5112;0.3626;
896.1000;0.5096;0.3650;
896.4000;0.5112;0.3650;
896.7000;0.5096;0.3554;
897.0000;0.5112;0.3458;
897.3000;0.5088;0.3458;
897.6000;0.5096;0.3530;
897.9000;0.5128;0.3626;
898.2000;0.5112;0.3602;
898.5000;0.5088;0.3554;
898.8000;0.5120;0.3602;
899.1000;0.5096;0.3554;
899.4000;0.5153;0.3626;
899.7000;0.5128;0.3530;
900.0000;0.5120;0.3530;
900.3000;0.5128;0.3674;
900.6000;0.5104;0.3650;
900.9000;0.5112;0.3578;
901.2000;0.5104;0.3554;
901.5000;0.5128;0.3578;
901.8000;0.5136;0.3626;
902.1000;0.5104;0.3554;
902.4000;0.5120;0.3506;
902.7000;0.5120;0.3410;
903.0000;0.5136;0.3458;
903.3000;0.5112;0.3554;
903.6000;0.5128;0.3578;
903.9000;0.5112;0.3482;
904.2000;0.5136;0.3554;
904.5000;0.5104;0.3506;
904.8000;0.5104;0.3482;
905.1000;0.5120;0.3434;
905.4000;0.5136;0.3602;
905.7000;0.5136;0.3650;
906.0000;0.5112;0.3626;
906.3000;0.5088;0.3554;
906.6000;0.5104;0.3626;
906.9000;0.5112;0.3626;
907.2000;0.5096;0.3602;
907.5000;0.5104;0.3626;
907.8000;0.5128;0.3746;
908.1000;0.5153;0.3890;
908.4000;0.5128;0.3770;
908.7000;0.5120;0.3770;
909.0000;0.5112;0.3746;
909.3000;0.5128;0.3746;
909.6000;0.5120;0.3722;
909.9000;0.5120;0.3674;
910.2000;0.5120;0.3722;
910.5000;0.5112;0.3746;
910.8000;0.5112;0.3818;
911.1000;0.5112;0.3794;
911.4000;0.5096;0.3770;
911.7000;0.5088;0.3722;
912.0000;0.5112;0.3746;
912.3000;0.5104;0.3770;
912.6000;0.5120;0.3818;
912.9000;0.5104;0.3890;
913.2000;0.5112;0.3938;
913.5000;0.5112;0.3866;
913.8000;0.5104;0.3866;
914.1000;0.5104;0.3866;
914.4000;0.5120;0.3938;
914.7000;0.5112;0.3914;
915.0000;0.5104;0.3866;
915.3000;0.5128;0.3962;
915.6000;0.5112;0.3914;
915.9000;0.5104;0.4010;
916.2000;0.5112;0.4082;
916.5000;0.5096;0.4034;
916.8000;0.5088;0.4082;
917.1000;0.5120;0.4058;
917.4000;0.5104;0.4010;
917.7000;0.5088;0.3986;
918.0000;0.5096;0.3914;
918.3000;0.5144;0.3938;
918.6000;0.5104;0.3842;
918.9000;0.5112;0.3914;
919.2000;0.5112;0.3962;
919.5000;0.5112;0.4058;
919.8000;0.5096;0.4010;
920.1000;0.5096;0.3986;
920.4000;0.5096;0.3962;
920.7000;0.5104;0.3938;
921.0000;0.5096;0.3866;
921.3000;0.5096;0.3770;
921.6000;0.5088;0.3770;
921.9000;0.5104;0.3842;
922.2000;0.5088;0.3962;
922.5000;0.5096;0.3962;
922.8000;0.5112;0.3986;
923.1000;0.5104;0.3962;
923.4000;0.5112;0.3914;
923.7000;0.5112;0.3842;
924.0000;0.5112;0.3722;
924.3000;0.5071;0.3578;
924.6000;0.5120;0.3722;
924.9000;0.5104;0.3650;
925.2000;0.5128;0.3674;
925.5000;0.5112;0.3674;
925.8000;0.5112;0.3674;
926.1000;0.5112;0.3578;
926.4000;0.5104;0.3626;
926.7000;0.5112;0.3722;
927.0000;0.5112;0.3650;
927.3000;0.5112;0.3722;
927.6000;0.5104;0.3818;
927.9000;0.5088;0.3770;
928.2000;0.5104;0.3866;
928.5000;0.5104;0.3866;
928.8000;0.5104;0.3890;
929.1000;0.5096;0.3962;
929.4000;0.5104;0.4010;
929.7000;0.5104;0.3986;
930.0000;0.5104;0.3938;
930.3000;0.5104;0.3842;
930.6000;0.5096;0.3914;
930.9000;0.5120;0.3890;
931.2000;0.5112;0.3986;
931.5000;0.5104;0.4058;
931.8000;0.5088;0.4082;
932.1000;0.5071;0.4010;
932.4000;0.5104;0.4010;
932.7000;0.5096;0.3962;
933.0000;0.5104;0.3938;
933.3000;0.5104;0.3842;
933.6000;0.5104;0.3890;
933.9000;0.5104;0.3914;
934.2000;0.5104;0.3890;
934.5000;0.5104;0.3890;
934.8000;0.5112;0.3938;
935.1000;0.5096;0.3914;
935.4000;0.5104;0.3986;
935.7000;0.5104;0.3962;
936.0000;0.5112;0.4010;
936.3000;0.5071;0.3890;
936.6000;0.5185;0.4178;
936.9000;0.5031;0.3866;
937.2000;0.5096;0.3962;
937.5000;0.5096;0.3938;
937.8000;0.5096;0.3938;
938.1000;0.5112;0.3914;
938.4000;0.5088;0.3842;
938.7000;0.5096;0.3890;
939.0000;0.5120;0.3890;
939.3000;0.5104;0.3818;
939.6000;0.5112;0.3938;
939.9000;0.5104;0.3914;
940.2000;0.5112;0.3986;
940.5000;0.5096;0.4010;
940.8000;0.5104;0.4034;
941.1000;0.5104;0.3938;
941.4000;0.5161;0.4082;
941.7000;0.5104;0.3986;
942.0000;0.5096;0.4010;
942.3000;0.5112;0.3986;
942.6000;0.5104;0.3962;
942.9000;0.5088;0.3986;
943.2000;0.5112;0.4034;
943.5000;0.5088;0.3938;
943.8000;0.5112;0.3890;
944.1000;0.5079;0.3770;
944.4000;0.5088;0.3818;
944.7000;0.5096;0.3890;
945.0000;0.5104;0.3938;
945.3000;0.5071;0.3842;
945.6000;0.5088;0.3938;
945.9000;0.5088;0.3914;
946.2000;0.5096;0.3890;
946.5000;0.5104;0.3818;
946.8000;0.5104;0.3842;
947.1000;0.5096;0.3866;
947.4000;0.5136;0.3962;
947.7000;0.5055;0.3698;
948.0000;0.5088;0.3674;
948.3000;0.5104;0.3674;
948.6000;0.5088;0.3626;
948.9000;0.5088;0.3650;
949.2000;0.5071;0.3578;
949.5000;0.5144;0.3794;
949.8000;0.5120;0.3722;
950.1000;0.5063;0.3698;
950.4000;0.5088;0.3818;
950.7000;0.5079;0.3818;
951.0000;0.5096;0.3914;
951.3000;0.5104;0.4010;
951.6000;0.5088;0.3938;
951.9000;0.5136;0.4058;
952.2000;0.5071;0.4010;
952.5000;0.5079;0.4058;
952.8000;0.5120;0.4154;
953.1000;0.5096;0.4058;
953.4000;0.5112;0.4058;
953.7000;0.4990;0.3674;
954.0000;0.5088;0.3866;
954.3000;0.5128;0.3986;
954.6000;0.5088;0.3890;
954.9000;0.5104;0.3962;
955.2000;0.5014;0.3770;
955.5000;0.5112;0.3962;
955.8000;0.5096;0.3938;
956.1000;0.5104;0.3914;
956.4000;0.5104;0.3938;
956.7000;0.5071;0.3962;
957.0000;0.5096;0.4010;
957.3000;0.5136;0.4130;
957.6000;0.5104;0.4058;
957.9000;0.5096;0.3962;
958.2000;0.5063;0.3818;
958.5000;0.5096;0.3866;
958.8000;0.5088;0.3866;
959.1000;0.5104;0.3842;
959.4000;0.5096;0.3794;
959.7000;0.5063;0.3770;
960.0000;0.5104;0.3914;
960.3000;0.5112;0.3914;
960.6000;0.5096;0.3842;
960.9000;0.5112;0.3890;
961.2000;0.5088;0.3914;
961.5000;0.5169;0.4202;
961.8000;0.5071;0.3986;
962.1000;0.5096;0.3962;
962.4000;0.5088;0.3890;
962.7000;0.5079;0.3842;
963.0000;0.5144;0.3938;
963.3000;0.5104;0.3722;
963.6000;0.5079;0.3698;
963.9000;0.5153;0.3842;
964.2000;0.5071;0.3698;
964.5000;0.5088;0.3818;
964.8000;0.5104;0.3842;
965.1000;0.5088;0.3794;
965.4000;0.5104;0.3914;
965.7000;0.5104;0.3866;
966.0000;0.5079;0.3770;
966.3000;0.5055;0.3794;
966.6000;0.5047;0.3818;
966.9000;0.5071;0.3794;
967.2000;0.5063;0.3794;
967.5000;0.5079;0.3746;
967.8000;0.5096;0.3794;
968.1000;0.5088;0.3794;
968.4000;0.5104;0.3794;
968.7000;0.5088;0.3842;
969.0000;0.5096;0.3938;
969.3000;0.5071;0.3890;
969.6000;0.5088;0.3938;
969.9000;0.5063;0.3866;
970.2000;0.5088;0.3938;
970.5000;0.5112;0.3962;
970.8000;0.5022;0.3770;
971.1000;0.5088;0.3818;
971.4000;0.5088;0.3794;
971.7000;0.5088;0.3962;
972.0000;0.5096;0.4010;
972.3000;0.5063;0.3914;
972.6000;0.5104;0.3938;
972.9000;0.5104;0.3962;
973.2000;0.5096;0.3890;
973.5000;0.5079;0.3890;
973.8000;0.5031;0.3746;
974.1000;0.5096;0.4010;
974.4000;0.5096;0.4082;
974.7000;0.5071;0.4034;
975.0000;0.5088;0.4034;
975.3000;0.5104;0.4082;
975.6000;0.5104;0.4034;
975.9000;0.5079;0.4082;
976.2000;0.5088;0.3986;
976.5000;0.5104;0.3938;
976.8000;0.5055;0.3842;
977.1000;0.5112;0.3986;
977.4000;0.5071;0.4010;
977.7000;0.5071;0.3986;
978.0000;0.5088;0.3962;
978.3000;0.5096;0.3986;
978.6000;0.5071;0.3890;
978.9000;0.5079;0.3938;
979.2000;0.5088;0.3938;
979.5000;0.5096;0.3986;
979.8000;0.5088;0.3962;
980.1000;0.5079;0.3962;
980.4000;0.5088;0.3962;
980.7000;0.5071;0.3938;
981.0000;0.5071;0.3962;
981.3000;0.5079;0.4010;
981.6000;0.5055;0.3986;
981.9000;0.5079;0.4082;
982.2000;0.5022;0.3938;
982.5000;0.5063;0.4106;
982.8000;0.5088;0.4178;
983.1000;0.5079;0.4106;
983.4000;0.5088;0.4082;
983.7000;0.5071;0.4034;
984.0000;0.5079;0.4058;
984.3000;0.5120;0.4130;
984.6000;0.5079;0.4010;
984.9000;0.5079;0.4010;
985.2000;0.5088;0.4010;
985.5000;0.5112;0.3986;
985.8000;0.5096;0.3962;
986.1000;0.5096;0.3938;
986.4000;0.5071;0.3866;
986.7000;0.5104;0.3938;
987.0000;0.5071;0.3986;
987.3000;0.5063;0.3986;
987.6000;0.4990;0.3866;
987.9000;0.5088;0.4130;
988.2000;0.5055;0.4106;
988.5000;0.5079;0.4178;
988.8000;0.5047;0.4082;
989.1000;0.5071;0.4106;
989.4000;0.5079;0.4130;
989.7000;0.5104;0.4154;
990.0000;0.5039;0.3986;
990.3000;0.5104;0.4154;
990.6000;0.5088;0.4106;
990.9000;0.5079;0.4154;
991.2000;0.5079;0.4178;
991.5000;0.5088;0.4202;
991.8000;0.5128;0.4274;
992.1000;0.5079;0.4130;
992.4000;0.5088;0.4154;
992.7000;0.5096;0.4154;
993.0000;0.5071;0.4106;
993.3000;0.5071;0.4202;
993.6000;0.5079;0.4226;
993.9000;0.5063;0.4178;
994.2000;0.5079;0.4178;
994.5000;0.5071;0.4202;
994.8000;0.4982;0.4010;
995.1000;0.5079;0.4202;
995.4000;0.5185;0.4562;
995.7000;0.5079;0.4226;
996.0000;0.5144;0.4274;
996.3000;0.5088;0.4130;
996.6000;0.5071;0.4130;
996.9000;0.5079;0.4178;
997.2000;0.5071;0.4130;
997.5000;0.5079;0.4058;
997.8000;0.5079;0.4082;
998.1000;0.5096;0.4178;
998.4000;0.5079;0.4130;
998.7000;0.5071;0.4130;
999.0000;0.5071;0.4202;
999.3000;0.5071;0.4226;
999.6000;0.5063;0.4298;
999.9000;0.5063;0.4274;
1000.2000;0.5071;0.4178;
1000.5000;0.5079;0.4178;
1000.8000;0.5079;0.4178;
1001.1000;0.5071;0.4226;
1001.4000;0.5071;0.4130;
1001.7000;0.5071;0.4154;
1002.0000;0.5079;0.4130;
1002.3000;0.5088;0.4058;
1002.6000;0.5055;0.4058;
1002.9000;0.5063;0.4178;
1003.2000;0.5088;0.4202;
1003.5000;0.5071;0.4106;
1003.8000;0.5096;0.4130;
1004.1000;0.5063;0.4082;
1004.4000;0.5063;0.4058;
1004.7000;0.5063;0.4106;
1005.0000;0.5055;0.4058;
1005.3000;0.5071;0.4154;
1005.6000;0.5063;0.4154;
1005.9000;0.5071;0.4082;
1006.2000;0.5079;0.4082;
1006.5000;0.5022;0.3914;
1006.8000;0.5063;0.4034;
1007.1000;0.5047;0.4058;
1007.4000;0.5006;0.3938;
1007.7000;0.5079;0.4130;
1008.0000;0.5063;0.4130;
1008.3000;0.5071;0.4130;
1008.6000;0.5079;0.4202;
1008.9000;0.5088;0.4226;
1009.2000;0.5079;0.4154;
1009.5000;0.5079;0.4106;
1009.8000;0.5112;0.4202;
1010.1000;0.5088;0.4130;
1010.4000;0.5031;0.4010;
1010.7000;0.5079;0.4130;
1011.0000;0.5185;0.4394;
1011.3000;0.5096;0.4178;
1011.6000;0.5079;0.4178;
1011.9000;0.5079;0.4178;
1012.2000;0.5063;0.4226;
1012.5000;0.5071;0.4274;
1012.8000;0.5071;0.4298;
1013.1000;0.5079;0.4370;
1013.4000;0.5079;0.4370;
1013.7000;0.5071;0.4370;
1014.0000;0.5071;0.4322;
1014.3000;0.5144;0.4490;
1014.6000;0.5079;0.4274;
1014.9000;0.5071;0.4274;
1015.2000;0.5079;0.4250;
1015.5000;0.5079;0.4298;
1015.8000;0.5079;0.4370;
1016.1000;0.5047;0.4274;
1016.4000;0.5112;0.4346;
1016.7000;0.5055;0.4178;
1017.0000;0.5063;0.4082;
1017.3000;0.5088;0.4250;
1017.6000;0.5079;0.4226;
1017.9000;0.5071;0.4322;
1018.2000;0.5071;0.4322;
1018.5000;0.5063;0.4370;
1018.8000;0.5071;0.4274;
1019.1000;0.5079;0.4298;
1019.4000;0.5063;0.4322;
1019.7000;0.5063;0.4178;
1020.0000;0.5104;0.4154;
1020.3000;0.5055;0.4058;
1020.6000;0.5079;0.4082;
1020.9000;0.5063;0.4010;
1021.2000;0.5071;0.3986;
1021.5000;0.5079;0.3890;
1021.8000;0.5063;0.3962;
1022.1000;0.5071;0.3938;
1022.4000;0.5079;0.3914;
1022.7000;0.5071;0.3890;
1023.0000;0.5063;0.3890;
1023.3000;0.5047;0.3890;
1023.6000;0.5055;0.3986;
1023.9000;0.5088;0.4106;
1024.2000;0.5096;0.4130;
1024.5000;0.5047;0.3986;
1024.8000;0.5071;0.3986;
1025.1000;0.5055;0.4010;
1025.4000;0.5055;0.4106;
1025.7000;0.5079;0.4082;
1026.0000;0.5063;0.4082;
1026.3000;0.5047;0.4082;
1026.6000;0.5063;0.4154;
1026.9000;0.5071;0.4226;
1027.2000;0.5031;0.4154;
1027.5000;0.5063;0.4202;
1027.8000;0.5063;0.4250;
1028.1000;0.5055;0.4226;
1028.4000;0.5055;0.4202;
1028.7000;0.5063;0.4178;
1029.0000;0.5088;0.4226;
1029.3000;0.5039;0.4202;
1029.6000;0.5055;0.4298;
1029.9000;0.5071;0.4274;
1030.2000;0.5063;0.4250;
1030.5000;0.5071;0.4274;
1030.8000;0.5063;0.4298;
1031.1000;0.5071;0.4370;
1031.4000;0.5055;0.4370;
1031.7000;0.5063;0.4394;
1032.0000;0.5063;0.4418;
1032.3000;0.5079;0.4370;
1032.6000;0.5071;0.4322;
1032.9000;0.5079;0.4370;
1033.2000;0.5047;0.4298;
1033.5000;0.5071;0.4274;
1033.8000;0.5039;0.4178;
1034.1000;0.5079;0.4274;
1034.4000;0.5063;0.4226;
1034.7000;0.5071;0.4250;
1035.0000;0.5063;0.4130;
1035.3000;0.5063;0.4082;
1035.6000;0.5063;0.4106;
1035.9000;0.5039;0.4010;
1036.2000;0.5039;0.4058;
1036.5000;0.5079;0.4082;
1036.8000;0.5079;0.4154;
1037.1000;0.5088;0.4250;
1037.4000;0.5063;0.4202;
1037.7000;0.5071;0.4226;
1038.0000;0.5071;0.4178;
1038.3000;0.5022;0.4082;
1038.6000;0.5055;0.4202;
1038.9000;0.5055;0.4274;
1039.2000;0.5063;0.4322;
1039.5000;0.5088;0.4370;
1039.8000;0.5055;0.4274;
1040.1000;0.5055;0.4226;
1040.4000;0.5071;0.4154;
1040.7000;0.5055;0.4202;
1041.0000;0.5047;0.4082;
1041.3000;0.5071;0.4034;
1041.6000;0.5096;0.4106;
1041.9000;0.5071;0.4106;
1042.2000;0.5071;0.4058;
1042.5000;0.5063;0.4034;
1042.8000;0.5096;0.4154;
1043.1000;0.5063;0.4106;
1043.4000;0.5063;0.4154;
1043.7000;0.5071;0.4082;
1044.0000;0.5047;0.4106;
1044.3000;0.5071;0.4178;
1044.6000;0.5071;0.4130;
1044.9000;0.5079;0.4178;
1045.2000;0.5047;0.4130;
1045.5000;0.5079;0.4154;
1045.8000;0.5079;0.4178;
1046.1000;0.5071;0.4154;
1046.4000;0.4998;0.3914;
1046.7000;0.5071;0.4034;
1047.0000;0.5079;0.4010;
1047.3000;0.5079;0.4106;
1047.6000;0.5047;0.4058;
1047.9000;0.5055;0.4154;
1048.2000;0.5096;0.4202;
1048.5000;0.5071;0.4058;
1048.8000;0.5039;0.4106;
1049.1000;0.5071;0.4226;
1049.4000;0.5055;0.4202;
1049.7000;0.5063;0.4202;
1050.0000;0.5071;0.4154;
1050.3000;0.5128;0.4298;
1050.6000;0.4998;0.4010;
1050.9000;0.5088;0.4274;
1051.2000;0.5096;0.4226;
1051.5000;0.5071;0.4154;
1051.8000;0.5088;0.4178;
1052.1000;0.5071;0.4130;
1052.4000;0.5063;0.4178;
1052.7000;0.5063;0.4274;
1053.0000;0.5088;0.4298;
1053.3000;0.5079;0.4298;
1053.6000;0.5071;0.4298;
1053.9000;0.5071;0.4322;
1054.2000;0.5055;0.4154;
1054.5000;0.5063;0.4130;
1054.8000;0.5071;0.4106;
1055.1000;0.5088;0.4106;
1055.4000;0.5088;0.4154;
1055.7000;0.5063;0.4130;
1056.0000;0.5022;0.4034;
1056.3000;0.5104;0.4250;
1056.6000;0.5079;0.4226;
1056.9000;0.5112;0.4322;
1057.2000;0.5071;0.4226;
1057.5000;0.5055;0.4058;
1057.8000;0.5047;0.4082;
1058.1000;0.5088;0.4130;
1058.4000;0.5144;0.4250;
1058.7000;0.5039;0.4058;
1059.0000;0.5039;0.4058;
1059.3000;0.5039;0.4010;
1059.6000;0.5096;0.4082;
1059.9000;0.5071;0.4130;
1060.2000;0.5055;0.4154;
1060.5000;0.5063;0.4154;
1060.8000;0.5031;0.4106;
1061.1000;0.5063;0.4154;
1061.4000;0.5055;0.4178;
1061.7000;0.5063;0.4178;
1062.0000;0.5071;0.4154;
1062.3000;0.5055;0.4106;
1062.6000;0.5039;0.4130;
1062.9000;0.5055;0.4178;
1063.2000;0.5063;0.4370;
1063.5000;0.4990;0.4178;
1063.8000;0.5047;0.4298;
1064.1000;0.4990;0.4034;
1064.4000;0.5128;0.4346;
1064.7000;0.5039;0.4106;
1065.0000;0.5079;0.4178;
1065.3000;0.5031;0.4130;
1065.6000;0.5096;0.4298;
1065.9000;0.5022;0.4130;
1066.2000;0.5055;0.4226;
1066.5000;0.4998;0.4082;
1066.8000;0.5071;0.4298;
1067.1000;0.5055;0.4346;
1067.4000;0.5079;0.4370;
1067.7000;0.5071;0.4322;
1068.0000;0.5055;0.4346;
1068.3000;0.5039;0.4298;
1068.6000;0.5047;0.4370;
1068.9000;0.5047;0.4322;
1069.2000;0.5022;0.4346;
1069.5000;0.5063;0.4418;
1069.8000;0.5071;0.4442;
1070.1000;0.5112;0.4514;
1070.4000;0.5071;0.4322;
1070.7000;0.5071;0.4298;
1071.0000;0.5079;0.4322;
1071.3000;0.5079;0.4394;
1071.6000;0.5055;0.4298;
1071.9000;0.5039;0.4298;
1072.2000;0.5071;0.4346;
1072.5000;0.5063;0.4322;
1072.8000;0.5047;0.4250;
1073.1000;0.5088;0.4274;
1073.4000;0.5063;0.4226;
1073.7000;0.5063;0.4226;
1074.0000;0.5055;0.4322;
1074.3000;0.5022;0.4130;
1074.6000;0.5063;0.4154;
1074.9000;0.5063;0.4106;
1075.2000;0.5039;0.3986;
1075.5000;0.5039;0.4082;
1075.8000;0.5071;0.4154;
1076.1000;0.5079;0.4178;
1076.4000;0.5063;0.4178;
1076.7000;0.5039;0.4106;
1077.0000;0.5047;0.4082;
1077.3000;0.5063;0.4130;
1077.6000;0.5079;0.4178;
1077.9000;0.5039;0.4082;
1078.2000;0.5055;0.4058;
1078.5000;0.5047;0.4106;
1078.8000;0.5055;0.4130;
1079.1000;0.5144;0.4346;
1079.4000;0.5055;0.4010;
1079.7000;0.5120;0.4274;
1080.0000;0.5079;0.4178;
1080.3000;0.5063;0.4154;
1080.6000;0.5063;0.4106;
1080.9000;0.5071;0.4130;
1081.2000;0.5063;0.4082;
1081.5000;0.5088;0.4106;
1081.8000;0.5063;0.4010;
1082.1000;0.5079;0.4106;
1082.4000;0.5063;0.4154;
1082.7000;0.5079;0.4130;
1083.0000;0.5063;0.4130;
1083.3000;0.5047;0.4082;
1083.6000;0.5071;0.4154;
1083.9000;0.5104;0.4178;
1084.2000;0.5055;0.4082;
1084.5000;0.5063;0.4106;
1084.8000;0.5055;0.4106;
1085.1000;0.5055;0.4178;
1085.4000;0.5039;0.4154;
1085.7000;0.5055;0.4226;
1086.0000;0.5063;0.4346;
1086.3000;0.5063;0.4250;
1086.6000;0.5071;0.4298;
1086.9000;0.5063;0.4274;
1087.2000;0.5071;0.4226;
1087.5000;0.5071;0.4274;
1087.8000;0.5071;0.4154;
1088.1000;0.5055;0.4058;
1088.4000;0.5055;0.4082;
1088.7000;0.5063;0.4106;
1089.0000;0.5055;0.4082;
1089.3000;0.5055;0.4130;
1089.6000;0.5047;0.4130;
1089.9000;0.5047;0.4130;
1090.2000;0.5063;0.4202;
1090.5000;0.5063;0.4226;
1090.8000;0.5055;0.4178;
1091.1000;0.5071;0.4154;
1091.4000;0.5063;0.4202;
1091.7000;0.5063;0.4106;
1092.0000;0.5063;0.4154;
1092.3000;0.5047;0.4154;
1092.6000;0.4998;0.4058;
1092.9000;0.5063;0.4226;
1093.2000;0.5031;0.4154;
1093.5000;0.5055;0.4226;
1093.8000;0.5055;0.4154;
1094.1000;0.5071;0.4178;
1094.4000;0.5047;0.4154;
1094.7000;0.5047;0.4178;
1095.0000;0.5047;0.4250;
1095.3000;0.5031;0.4202;
1095.6000;0.5055;0.4226;
1095.9000;0.5039;0.4178;
1096.2000;0.5047;0.4130;
1096.5000;0.5071;0.4154;
1096.8000;0.5047;0.4178;
1097.1000;0.5063;0.4298;
1097.4000;0.5063;0.4298;
1097.7000;0.5071;0.4274;
1098.0000;0.5079;0.4226;
1098.3000;0.5031;0.4154;
1098.6000;0.5063;0.4250;
1098.9000;0.5063;0.4322;
1099.2000;0.5079;0.4370;
1099.5000;0.5063;0.4346;
1099.8000;0.5055;0.4346;
1100.1000;0.5047;0.4370;
1100.4000;0.5055;0.4370;
1100.7000;0.5063;0.4394;
1101.0000;0.5055;0.4274;
1101.3000;0.5055;0.4226;
1101.6000;0.5055;0.4154;
1101.9000;0.5071;0.4106;
1102.2000;0.5071;0.4010;
1102.5000;0.5055;0.3986;
1102.8000;0.5063;0.4010;
1103.1000;0.5063;0.4034;
1103.4000;0.5047;0.3986;
1103.7000;0.5022;0.4010;
1104.0000;0.5063;0.4106;
1104.3000;0.5022;0.4034;
1104.6000;0.5063;0.4082;
1104.9000;0.5071;0.4106;
1105.2000;0.5055;0.4130;
1105.5000;0.5055;0.4106;
1105.8000;0.5055;0.4106;
1106.1000;0.5063;0.4154;
1106.4000;0.4982;0.3914;
1106.7000;0.5055;0.4106;
1107.0000;0.5047;0.4130;
1107.3000;0.5055;0.4082;
1107.6000;0.5063;0.4130;
1107.9000;0.5055;0.4130;
1108.2000;0.5031;0.4106;
1108.5000;0.5055;0.4202;
1108.8000;0.5088;0.4274;
1109.1000;0.5153;0.4442;
1109.4000;0.5055;0.4202;
1109.7000;0.5120;0.4274;
1110.0000;0.5055;0.4106;
1110.3000;0.5055;0.4130;
1110.6000;0.5063;0.4154;
1110.9000;0.5079;0.4082;
1111.2000;0.5055;0.4106;
1111.5000;0.5063;0.4178;
1111.8000;0.5006;0.4010;
1112.1000;0.5055;0.4106;
1112.4000;0.5071;0.4058;
1112.7000;0.5047;0.4010;
1113.0000;0.5055;0.4058;
1113.3000;0.5031;0.4082;
1113.6000;0.5063;0.4154;
1113.9000;0.5055;0.4154;
1114.2000;0.5047;0.4250;
1114.5000;0.5063;0.4274;
1114.8000;0.5063;0.4226;
1115.1000;0.5063;0.4298;
1115.4000;0.5063;0.4346;
1115.7000;0.5063;0.4394;
1116.0000;0.5063;0.4274;
1116.3000;0.5039;0.4178;
1116.6000;0.5055;0.4274;
1116.9000;0.5055;0.4154;
1117.2000;0.5063;0.4178;
1117.5000;0.5047;0.4154;
1117.8000;0.5055;0.4274;
1118.1000;0.5071;0.4346;
1118.4000;0.5055;0.4274;
1118.7000;0.5047;0.4178;
1119.0000;0.5031;0.4154;
1119.3000;0.5063;0.4274;
1119.6000;0.5063;0.4298;
1119.9000;0.5055;0.4322;
1120.2000;0.5055;0.4250;
1120.5000;0.5071;0.4202;
1120.8000;0.5055;0.4130;
1121.1000;0.5039;0.4082;
1121.4000;0.5047;0.4082;
1121.7000;0.5063;0.4154;
1122.0000;0.5071;0.4202;
1122.3000;0.5055;0.4202;
1122.6000;0.5055;0.4130;
1122.9000;0.5047;0.4082;
1123.2000;0.5055;0.4154;
1123.5000;0.5063;0.4154;
1123.8000;0.5055;0.4058;
1124.1000;0.5055;0.4082;
1124.4000;0.5031;0.4010;
1124.7000;0.5055;0.4154;
1125.0000;0.5071;0.4202;
1125.3000;0.5104;0.4346;
1125.6000;0.5063;0.4178;
1125.9000;0.5104;0.4250;
1126.2000;0.5096;0.4202;
1126.5000;0.5071;0.4106;
1126.8000;0.5063;0.4154;
1127.1000;0.5063;0.4250;
1127.4000;0.5088;0.4298;
1127.7000;0.5047;0.4106;
1128.0000;0.5088;0.4106;
1128.3000;0.5104;0.4106;
1128.6000;0.5055;0.4058;
1128.9000;0.5039;0.4082;
1129.2000;0.5039;0.4058;
1129.5000;0.5047;0.4058;
1129.8000;0.5022;0.4058;
1130.1000;0.5022;0.4034;
1130.4000;0.5047;0.4106;
1130.7000;0.5031;0.4154;
1131.0000;0.5055;0.4274;
1131.3000;0.5047;0.4322;
1131.6000;0.5047;0.4322;
1131.9000;0.5112;0.4514;
1132.2000;0.5063;0.4322;
1132.5000;0.5031;0.4202;
1132.8000;0.5047;0.4106;
1133.1000;0.5063;0.4106;
1133.4000;0.5039;0.3986;
1133.7000;0.5047;0.4010;
1134.0000;0.5047;0.4010;
1134.3000;0.5022;0.4058;
1134.6000;0.5039;0.4130;
1134.9000;0.5047;0.4082;
1135.2000;0.5022;0.4058;
1135.5000;0.5039;0.4082;
1135.8000;0.5055;0.4154;
1136.1000;0.5055;0.4202;
1136.4000;0.5047;0.4178;
1136.7000;0.5055;0.4058;
1137.0000;0.5047;0.4082;
1137.3000;0.5047;0.4178;
1137.6000;0.5063;0.4250;
1137.9000;0.5047;0.4202;
1138.2000;0.5039;0.4274;
1138.5000;0.5047;0.4226;
1138.8000;0.5055;0.4346;
1139.1000;0.5031;0.4370;
1139.4000;0.5039;0.4394;
1139.7000;0.5031;0.4346;
1140.0000;0.5055;0.4298;
1140.3000;0.5022;0.4202;
1140.6000;0.5031;0.4226;
1140.9000;0.5047;0.4322;
1141.2000;0.5104;0.4418;
1141.5000;0.5055;0.4298;
1141.8000;0.5047;0.4346;
1142.1000;0.5047;0.4346;
1142.4000;0.5031;0.4346;
1142.7000;0.5047;0.4298;
1143.0000;0.5071;0.4370;
1143.3000;0.5063;0.4322;
1143.6000;0.5063;0.4346;
1143.9000;0.5047;0.4226;
1144.2000;0.5047;0.4154;
1144.5000;0.5047;0.4202;
1144.8000;0.5047;0.4178;
1145.1000;0.5039;0.4154;
1145.4000;0.5047;0.4202;
1145.7000;0.5047;0.4178;
1146.0000;0.5047;0.4202;
1146.3000;0.5055;0.4250;
1146.6000;0.5031;0.4106;
1146.9000;0.5055;0.4106;
1147.2000;0.5055;0.4178;
1147.5000;0.5047;0.4106;
1147.8000;0.5047;0.4010;
1148.1000;0.5079;0.4082;
1148.4000;0.5055;0.4058;
1148.7000;0.5063;0.4106;
1149.0000;0.5071;0.4106;
1149.3000;0.5079;0.4202;
1149.6000;0.5047;0.4178;
1149.9000;0.5063;0.4298;
1150.2000;0.5047;0.4298;
1150.5000;0.5055;0.4322;
1150.8000;0.5039;0.4226;
1151.1000;0.5055;0.4154;
1151.4000;0.5047;0.4130;
1151.7000;0.5047;0.4106;
1152.0000;0.5039;0.3986;
1152.3000;0.5055;0.3986;
1152.6000;0.5071;0.4058;
1152.9000;0.5063;0.4106;
1153.2000;0.5039;0.4106;
1153.5000;0.5047;0.4106;
1153.8000;0.5039;0.4130;
1154.1000;0.5039;0.4082;
1154.4000;0.5031;0.3962;
1154.7000;0.5047;0.4034;
1155.0000;0.5039;0.4010;
1155.3000;0.5039;0.4058;
1155.6000;0.5055;0.4154;
1155.9000;0.5047;0.4226;
1156.2000;0.5079;0.4394;
1156.5000;0.5047;0.4202;
1156.8000;0.5055;0.4154;
1157.1000;0.4998;0.4058;
1157.4000;0.5055;0.4154;
1157.7000;0.5063;0.4154;
1158.0000;0.5022;0.3986;
1158.3000;0.5039;0.4034;
1158.6000;0.5047;0.3962;
1158.9000;0.5055;0.3962;
1159.2000;0.5055;0.4034;
1159.5000;0.5047;0.4082;
1159.8000;0.5047;0.4178;
1160.1000;0.5047;0.4250;
1160.4000;0.5063;0.4346;
1160.7000;0.5063;0.4274;
1161.0000;0.5047;0.4274;
1161.3000;0.5055;0.4226;
1161.6000;0.5071;0.4226;
1161.9000;0.5039;0.4130;
1162.2000;0.5055;0.4130;
1162.5000;0.5063;0.4178;
1162.8000;0.5063;0.4178;
1163.1000;0.5031;0.3986;
1163.4000;0.5055;0.4058;
1163.7000;0.5071;0.4034;
1164.0000;0.5071;0.4058;
1164.3000;0.5022;0.3890;
1164.6000;0.5055;0.3890;
1164.9000;0.5055;0.3938;
1165.2000;0.5055;0.3938;
1165.5000;0.5063;0.3962;
1165.8000;0.5063;0.3914;
1166.1000;0.5055;0.3818;
1166.4000;0.5063;0.3794;
1166.7000;0.5055;0.3914;
1167.0000;0.5039;0.4034;
1167.3000;0.5079;0.4154;
1167.6000;0.5047;0.4034;
1167.9000;0.5055;0.4178;
1168.2000;0.5039;0.4130;
1168.5000;0.5039;0.4226;
1168.8000;0.5047;0.4154;
1169.1000;0.5055;0.4130;
1169.4000;0.5039;0.4058;
1169.7000;0.5055;0.4082;
1170.0000;0.5055;0.4082;
1170.3000;0.5047;0.4010;
1170.6000;0.5071;0.4034;
1170.9000;0.5031;0.4010;
1171.2000;0.5039;0.4106;
1171.5000;0.5079;0.4250;
1171.8000;0.5063;0.4130;
1172.1000;0.5047;0.4058;
1172.4000;0.5039;0.4034;
1172.7000;0.5063;0.4082;
1173.0000;0.5055;0.4130;
1173.3000;0.5055;0.4178;
1173.6000;0.5039;0.4178;
1173.9000;0.5071;0.4202;
1174.2000;0.5063;0.4226;
1174.5000;0.5055;0.4202;
1174.8000;0.5047;0.4226;
1175.1000;0.5039;0.4154;
1175.4000;0.5047;0.4130;
1175.7000;0.5047;0.4034;
1176.0000;0.5039;0.4058;
1176.3000;0.5039;0.4082;
1176.6000;0.5039;0.3962;
1176.9000;0.5112;0.4154;
1177.2000;0.5039;0.3890;
1177.5000;0.5047;0.3962;
1177.8000;0.5022;0.3842;
1178.1000;0.5055;0.3890;
1178.4000;0.5039;0.3890;
1178.7000;0.4957;0.3746;
1179.0000;0.5014;0.3842;
1179.3000;0.5088;0.3986;
1179.6000;0.5039;0.3914;
1179.9000;0.4990;0.3746;
1180.2000;0.5039;0.3962;
1180.5000;0.5006;0.3938;
1180.8000;0.5014;0.3986;
1181.1000;0.5039;0.4034;
1181.4000;0.5022;0.3986;
1181.7000;0.5039;0.3986;
1182.0000;0.5047;0.4058;
1182.3000;0.5014;0.4010;
1182.6000;0.5096;0.4226;
1182.9000;0.5031;0.3986;
1183.2000;0.5055;0.4082;
1183.5000;0.5047;0.3962;
1183.8000;0.5096;0.4106;
1184.1000;0.5039;0.3962;
1184.4000;0.5047;0.3962;
1184.7000;0.5039;0.3938;
1185.0000;0.5022;0.3938;
1185.3000;0.5047;0.4058;
1185.6000;0.5055;0.4058;
1185.9000;0.5055;0.4106;
1186.2000;0.5039;0.4106;
1186.5000;0.5055;0.4178;
1186.8000;0.5055;0.4226;
1187.1000;0.5063;0.4226;
1187.4000;0.5047;0.4178;
1187.7000;0.5047;0.4130;
1188.0000;0.5055;0.4082;
1188.3000;0.5079;0.4010;
1188.6000;0.5047;0.3962;
1188.9000;0.5039;0.3938;
1189.2000;0.4998;0.3770;
1189.5000;0.5055;0.3962;
1189.8000;0.5039;0.3914;
1190.1000;0.5039;0.3986;
1190.4000;0.5055;0.4058;
1190.7000;0.5039;0.4082;
1191.0000;0.5063;0.4130;
1191.3000;0.5079;0.4250;
1191.6000;0.5047;0.4202;
1191.9000;0.5055;0.4202;
1192.2000;0.5055;0.4226;
1192.5000;0.5006;0.4082;
1192.8000;0.5039;0.4106;
1193.1000;0.5055;0.4130;
1193.4000;0.5063;0.4202;
1193.7000;0.5039;0.4154;
1194.0000;0.5047;0.4226;
1194.3000;0.4957;0.3914;
1194.6000;0.5047;0.4226;
1194.9000;0.5031;0.4226;
1195.2000;0.5031;0.4226;
1195.5000;0.5039;0.4178;
1195.8000;0.5071;0.4250;
1196.1000;0.5039;0.4178;
1196.4000;0.5039;0.4178;
1196.7000;0.5022;0.4130;
1197.0000;0.5047;0.4226;
1197.3000;0.5039;0.4154;
1197.6000;0.5063;0.4154;
1197.9000;0.5031;0.4106;
1198.2000;0.5014;0.4082;
1198.5000;0.5055;0.4154;
1198.8000;0.5055;0.4178;
1199.1000;0.5088;0.4298;
1199.4000;0.5031;0.4154;
1199.7000;0.5104;0.4322;
1200.0000;0.5031;0.4130;
1200.3000;0.5031;0.4250;
1200.6000;0.5039;0.4298;
1200.9000;0.5063;0.4346;
1201.2000;0.5047;0.4274;
1201.5000;0.5047;0.4298;
1201.8000;0.5104;0.4394;
1202.1000;0.5031;0.4154;
1202.4000;0.5047;0.4058;
1202.7000;0.5031;0.4034;
1203.0000;0.5039;0.4082;
1203.3000;0.5031;0.4178;
1203.6000;0.5039;0.4250;
1203.9000;0.5088;0.4394;
1204.2000;0.5031;0.4154;
1204.5000;0.5088;0.4298;
1204.8000;0.5014;0.4082;
1205.1000;0.4965;0.3962;
1205.4000;0.5039;0.4178;
1205.7000;0.5039;0.4178;
1206.0000;0.5031;0.4154;
1206.3000;0.5014;0.4130;
1206.6000;0.5031;0.4178;
1206.9000;0.5039;0.4154;
1207.2000;0.5063;0.4274;
1207.5000;0.5022;0.4250;
1207.8000;0.4957;0.4178;
1208.1000;0.5047;0.4394;
1208.4000;0.5039;0.4250;
1208.7000;0.5063;0.4202;
1209.0000;0.5063;0.4202;
1209.3000;0.5047;0.4154;
1209.6000;0.5047;0.4130;
1209.9000;0.5063;0.4202;
1210.2000;0.5063;0.4226;
1210.5000;0.5031;0.4178;
1210.8000;0.5031;0.4274;
1211.1000;0.5055;0.4298;
1211.4000;0.5039;0.4322;
1211.7000;0.5022;0.4346;
1212.0000;0.5039;0.4322;
1212.3000;0.5047;0.4346;
1212.6000;0.5055;0.4370;
1212.9000;0.5031;0.4274;
1213.2000;0.5031;0.4298;
1213.5000;0.5039;0.4298;
1213.8000;0.5039;0.4202;
1214.1000;0.5031;0.4202;
1214.4000;0.5047;0.4154;
1214.7000;0.5047;0.4178;
1215.0000;0.5055;0.4250;
1215.3000;0.5022;0.4178;
1215.6000;0.5031;0.4178;
1215.9000;0.5022;0.4154;
1216.2000;0.5022;0.4178;
1216.5000;0.5031;0.4250;
1216.8000;0.5031;0.4226;
1217.1000;0.5031;0.4202;
1217.4000;0.5047;0.4298;
1217.7000;0.5039;0.4298;
1218.0000;0.5047;0.4202;
1218.3000;0.5039;0.4202;
1218.6000;0.5039;0.4298;
1218.9000;0.5039;0.4250;
1219.2000;0.5039;0.4178;
1219.5000;0.5039;0.4106;
1219.8000;0.5055;0.4082;
1220.1000;0.5047;0.3986;
1220.4000;0.5063;0.4058;
1220.7000;0.5055;0.4106;
1221.0000;0.5039;0.4058;
1221.3000;0.5031;0.4082;
1221.6000;0.5047;0.4130;
1221.9000;0.5031;0.4130;
1222.2000;0.5063;0.4202;
1222.5000;0.5039;0.4130;
1222.8000;0.5047;0.4154;
1223.1000;0.5055;0.4130;
1223.4000;0.5039;0.4154;
1223.7000;0.5120;0.4298;
1224.0000;0.5047;0.4130;
1224.3000;0.5031;0.4106;
1224.6000;0.5055;0.4130;
1224.9000;0.5031;0.4178;
1225.2000;0.5039;0.4178;
1225.5000;0.5022;0.4154;
1225.8000;0.5063;0.4202;
1226.1000;0.5039;0.4082;
1226.4000;0.5055;0.4178;
1226.7000;0.5039;0.4082;
1227.0000;0.5014;0.4082;
1227.3000;0.5022;0.4106;
1227.6000;0.5039;0.4130;
1227.9000;0.5031;0.4034;
1228.2000;0.5047;0.4058;
1228.5000;0.5039;0.4130;
1228.8000;0.5055;0.4130;
1229.1000;0.5039;0.4154;
1229.4000;0.5014;0.4154;
1229.7000;0.5039;0.4154;
1230.0000;0.5022;0.4154;
1230.3000;0.5039;0.4250;
1230.6000;0.5047;0.4274;
1230.9000;0.5047;0.4202;
1231.2000;0.5031;0.4202;
1231.5000;0.5039;0.4178;
1231.8000;0.5031;0.4130;
1232.1000;0.5039;0.4082;
1232.4000;0.5022;0.3986;
1232.7000;0.5039;0.4058;
1233.0000;0.5055;0.4106;
1233.3000;0.5055;0.4106;
1233.6000;0.5047;0.4034;
1233.9000;0.5039;0.4130;
1234.2000;0.5047;0.4226;
1234.5000;0.5055;0.4298;
1234.8000;0.5055;0.4298;
1235.1000;0.5063;0.4322;
1235.4000;0.5055;0.4322;
1235.7000;0.5031;0.4322;
1236.0000;0.5031;0.4298;
1236.3000;0.4974;0.4130;
1236.6000;0.5031;0.4250;
1236.9000;0.5039;0.4274;
1237.2000;0.4974;0.4058;
1237.5000;0.5031;0.4250;
1237.8000;0.5039;0.4226;
1238.1000;0.5079;0.4250;
1238.4000;0.5031;0.4154;
1238.7000;0.5022;0.4202;
1239.0000;0.5031;0.4154;
1239.3000;0.5047;0.4178;
1239.6000;0.5031;0.4130;
1239.9000;0.5047;0.4202;
1240.2000;0.5088;0.4346;
1240.5000;0.5047;0.4250;
1240.8000;0.5039;0.4178;
1241.1000;0.5055;0.4130;
1241.4000;0.5039;0.4034;
1241.7000;0.5039;0.3986;
1242.0000;0.5039;0.3986;
1242.3000;0.5039;0.3938;
1242.6000;0.5031;0.3890;
1242.9000;0.5047;0.4082;
1243.2000;0.5047;0.4154;
1243.5000;0.5039;0.4082;
1243.8000;0.5031;0.4034;
1244.1000;0.5022;0.4034;
1244.4000;0.5031;0.4010;
1244.7000;0.5022;0.3986;
1245.0000;0.5039;0.3986;
1245.3000;0.5014;0.4010;
1245.6000;0.5063;0.4130;
1245.9000;0.5022;0.4082;
1246.2000;0.5031;0.4034;
1246.5000;0.5039;0.4154;
1246.8000;0.5055;0.4226;
1247.1000;0.5039;0.4250;
1247.4000;0.5039;0.4274;
1247.7000;0.5039;0.4226;
1248.0000;0.5039;0.4226;
1248.3000;0.5022;0.4226;
1248.6000;0.5031;0.4274;
1248.9000;0.5031;0.4322;
1249.2000;0.5031;0.4322;
1249.5000;0.5039;0.4322;
1249.8000;0.5031;0.4322;
1250.1000;0.5014;0.4226;
1250.4000;0.5031;0.4322;
1250.7000;0.5031;0.4322;
1251.0000;0.5031;0.4250;
1251.3000;0.5014;0.4202;
1251.6000;0.5031;0.4250;
1251.9000;0.5022;0.4226;
1252.2000;0.5071;0.4274;
1252.5000;0.5014;0.4106;
1252.8000;0.5022;0.4058;
1253.1000;0.5039;0.4082;
1253.4000;0.5039;0.4034;
1253.7000;0.5039;0.4034;
1254.0000;0.5031;0.4034;
1254.3000;0.5031;0.4034;
1254.6000;0.5055;0.4034;
1254.9000;0.5039;0.4058;
1255.2000;0.5047;0.4106;
1255.5000;0.5055;0.4106;
1255.8000;0.5047;0.4034;
1256.1000;0.5039;0.3914;
1256.4000;0.5047;0.3962;
1256.7000;0.5047;0.4010;
1257.0000;0.5039;0.4058;
1257.3000;0.5128;0.4298;
1257.6000;0.5055;0.4154;
1257.9000;0.5031;0.4082;
1258.2000;0.5055;0.4106;
1258.5000;0.5055;0.4082;
1258.8000;0.5047;0.4130;
1259.1000;0.5039;0.4154;
1259.4000;0.5047;0.4082;
1259.7000;0.5039;0.4082;
1260.0000;0.5031;0.4106;
1260.3000;0.5006;0.4106;
1260.6000;0.5039;0.4250;
1260.9000;0.5047;0.4226;
1261.2000;0.5031;0.4202;
1261.5000;0.5031;0.4202;
1261.8000;0.5031;0.4226;
1262.1000;0.5022;0.4250;
1262.4000;0.5031;0.4250;
1262.7000;0.5039;0.4202;
1263.0000;0.5039;0.4202;
1263.3000;0.5047;0.4226;
1263.6000;0.5039;0.4274;
1263.9000;0.5039;0.4274;
1264.2000;0.5039;0.4250;
1264.5000;0.5055;0.4346;
1264.8000;0.5031;0.4370;
1265.1000;0.5055;0.4370;
1265.4000;0.5022;0.4226;
1265.7000;0.5063;0.4322;
1266.0000;0.5039;0.4298;
1266.3000;0.5022;0.4250;
1266.6000;0.5022;0.4322;
1266.9000;0.5055;0.4370;
1267.2000;0.5031;0.4418;
1267.5000;0.5022;0.4442;
1267.8000;0.4965;0.4202;
1268.1000;0.5022;0.4274;
1268.4000;0.5031;0.4274;
1268.7000;0.5014;0.4322;
1269.0000;0.5031;0.4346;
1269.3000;0.5039;0.4250;
1269.6000;0.5031;0.4178;
1269.9000;0.5047;0.4202;
1270.2000;0.5047;0.4130;
1270.5000;0.5031;0.4058;
1270.8000;0.5031;0.4058;
1271.1000;0.5022;0.4034;
1271.4000;0.5031;0.4130;
1271.7000;0.5047;0.4202;
1272.0000;0.5022;0.4202;
1272.3000;0.5022;0.4202;
1272.6000;0.5006;0.4202;
1272.9000;0.5031;0.4202;
1273.2000;0.5039;0.4226;
1273.5000;0.5039;0.4274;
1273.8000;0.5031;0.4226;
1274.1000;0.5031;0.4298;
1274.4000;0.5039;0.4274;
1274.7000;0.5055;0.4394;
1275.0000;0.5039;0.4274;
1275.3000;0.5039;0.4178;
1275.6000;0.5031;0.4130;
1275.9000;0.5022;0.4178;
1276.2000;0.5039;0.4154;
1276.5000;0.5071;0.4226;
1276.8000;0.5031;0.4178;
1277.1000;0.5022;0.4178;
1277.4000;0.5031;0.4106;
1277.7000;0.5039;0.4106;
1278.0000;0.5039;0.4106;
1278.3000;0.5039;0.4202;
1278.6000;0.5006;0.4130;
1278.9000;0.5031;0.4274;
1279.2000;0.5039;0.4274;
1279.5000;0.5031;0.4226;
1279.8000;0.5047;0.4202;
1280.1000;0.5022;0.4250;
1280.4000;0.5022;0.4250;
1280.7000;0.4949;0.4154;
1281.0000;0.5031;0.4370;
1281.3000;0.5055;0.4394;
1281.6000;0.5039;0.4274;
1281.9000;0.5031;0.4274;
1282.2000;0.5014;0.4298;
1282.5000;0.5047;0.4322;
1282.8000;0.5039;0.4178;
1283.1000;0.4998;0.4130;
1283.4000;0.5022;0.4226;
1283.7000;0.5039;0.4250;
1284.0000;0.5047;0.4226;
1284.3000;0.5031;0.4154;
1284.6000;0.5047;0.4106;
1284.9000;0.5031;0.4010;
1285.2000;0.5063;0.4178;
1285.5000;0.5047;0.4130;
1285.8000;0.5039;0.4034;
1286.1000;0.5031;0.4106;
1286.4000;0.5031;0.4058;
1286.7000;0.5039;0.4130;
1287.0000;0.5014;0.4034;
1287.3000;0.5022;0.4082;
1287.6000;0.5047;0.4106;
1287.9000;0.5055;0.4106;
1288.2000;0.5031;0.4106;
1288.5000;0.5031;0.4178;
1288.8000;0.5047;0.4322;
1289.1000;0.5047;0.4346;
1289.4000;0.5047;0.4274;
1289.7000;0.5039;0.4226;
1290.0000;0.5039;0.4274;
1290.3000;0.5039;0.4322;
1290.6000;0.5022;0.4346;
1290.9000;0.5031;0.4226;
1291.2000;0.5047;0.4250;
1291.5000;0.5031;0.4202;
1291.8000;0.5031;0.4154;
1292.1000;0.5022;0.4154;
1292.4000;0.5031;0.4154;
1292.7000;0.5006;0.4178;
1293.0000;0.5022;0.4250;
1293.3000;0.5022;0.4226;
1293.6000;0.4974;0.4106;
1293.9000;0.5006;0.4226;
1294.2000;0.5071;0.4346;
1294.5000;0.5047;0.4250;
1294.8000;0.5031;0.4274;
1295.1000;0.5063;0.4274;
1295.4000;0.5031;0.4178;
1295.7000;0.4990;0.4106;
1296.0000;0.5022;0.4178;
1296.3000;0.5022;0.4130;
1296.6000;0.5039;0.4178;
1296.9000;0.5031;0.4154;
1297.2000;0.5031;0.4106;
1297.5000;0.5014;0.4082;
1297.8000;0.5128;0.4394;
1298.1000;0.5031;0.4058;
1298.4000;0.5014;0.4058;
1298.7000;0.5022;0.4082;
1299.0000;0.5014;0.4106;
1299.3000;0.5022;0.4010;
1299.6000;0.5039;0.4034;
1299.9000;0.5039;0.4034;
1300.2000;0.5006;0.4034;
1300.5000;0.5031;0.4082;
1300.8000;0.5031;0.4106;
1301.1000;0.5047;0.4082;
1301.4000;0.5039;0.4034;
1301.7000;0.5039;0.3962;
1302.0000;0.4949;0.3842;
1302.3000;0.5039;0.4130;
1302.6000;0.5120;0.4394;
1302.9000;0.5047;0.4106;
1303.2000;0.5039;0.4106;
1303.5000;0.4990;0.4010;
1303.8000;0.5031;0.4130;
1304.1000;0.5047;0.4130;
1304.4000;0.5031;0.4154;
1304.7000;0.5031;0.4202;
1305.0000;0.5039;0.4202;
1305.3000;0.5047;0.4178;
1305.6000;0.5063;0.4226;
1305.9000;0.5031;0.4106;
1306.2000;0.5031;0.4106;
1306.5000;0.5014;0.4034;
1306.8000;0.5063;0.4178;
1307.1000;0.5039;0.4154;
1307.4000;0.5022;0.4082;
1307.7000;0.5022;0.4106;
1308.0000;0.5039;0.4202;
1308.3000;0.5022;0.4178;
1308.6000;0.5039;0.4226;
1308.9000;0.5039;0.4202;
1309.2000;0.5022;0.4106;
1309.5000;0.5022;0.4058;
1309.8000;0.5022;0.3986;
1310.1000;0.5031;0.4034;
1310.4000;0.5031;0.3986;
1310.7000;0.5022;0.3986;
1311.0000;0.5014;0.3938;
1311.3000;0.5031;0.3962;
1311.6000;0.5039;0.4106;
1311.9000;0.4998;0.3986;
1312.2000;0.5006;0.4010;
1312.5000;0.5031;0.4082;
1312.8000;0.5039;0.4178;
1313.1000;0.5031;0.4178;
1313.4000;0.4957;0.4034;
1313.7000;0.5055;0.4298;
1314.0000;0.5006;0.4202;
1314.3000;0.4982;0.4082;
1314.6000;0.5055;0.4298;
1314.9000;0.5031;0.4298;
1315.2000;0.5088;0.4466;
1315.5000;0.5055;0.4274;
1315.8000;0.5022;0.4178;
1316.1000;0.5039;0.4154;
1316.4000;0.5022;0.4154;
1316.7000;0.5039;0.4178;
1317.0000;0.5047;0.4250;
1317.3000;0.5014;0.4202;
1317.6000;0.5022;0.4226;
1317.9000;0.5063;0.4322;
1318.2000;0.5006;0.4130;
1318.5000;0.4982;0.4058;
1318.8000;0.5031;0.4154;
1319.1000;0.5031;0.4274;
1319.4000;0.5031;0.4274;
1319.7000;0.5112;0.4442;
1320.0000;0.5047;0.4418;
1320.3000;0.5014;0.4394;
1320.6000;0.5047;0.4394;
1320.9000;0.5047;0.4346;
1321.2000;0.5022;0.4226;
1321.5000;0.5031;0.4106;
1321.8000;0.5055;0.4154;
1322.1000;0.5055;0.4106;
1322.4000;0.5031;0.4154;
1322.7000;0.5031;0.4202;
1323.0000;0.5031;0.4154;
1323.3000;0.5047;0.4154;
1323.6000;0.5031;0.4010;
1323.9000;0.5039;0.3986;
1324.2000;0.5039;0.4106;
1324.5000;0.5047;0.4106;
1324.8000;0.5071;0.4178;
1325.1000;0.5047;0.4178;
1325.4000;0.5031;0.4226;
1325.7000;0.5063;0.4298;
1326.0000;0.5031;0.4250;
1326.3000;0.5039;0.4250;
1326.6000;0.5022;0.4154;
1326.9000;0.5039;0.4178;
1327.2000;0.5014;0.4130;
1327.5000;0.5031;0.4130;
1327.8000;0.5031;0.4058;
1328.1000;0.5096;0.4226;
1328.4000;0.5047;0.4178;
1328.7000;0.5022;0.4082;
1329.0000;0.5031;0.4202;
1329.3000;0.5063;0.4274;
1329.6000;0.5031;0.4202;
1329.9000;0.5063;0.4202;
1330.2000;0.5006;0.4034;
1330.5000;0.5031;0.4082;
1330.8000;0.5031;0.4106;
1331.1000;0.5031;0.4082;
1331.4000;0.5014;0.4034;
1331.7000;0.5006;0.4082;
1332.0000;0.5014;0.4130;
1332.3000;0.5031;0.4154;
1332.6000;0.5014;0.4010;
1332.9000;0.5047;0.4010;
1333.2000;0.5039;0.3986;
1333.5000;0.5022;0.3842;
1333.8000;0.5039;0.3962;
1334.1000;0.4998;0.3986;
1334.4000;0.5031;0.4082;
1334.7000;0.5014;0.4034;
1335.0000;0.5031;0.4082;
1335.3000;0.5039;0.4130;
1335.6000;0.5031;0.4082;
1335.9000;0.5022;0.4178;
1336.2000;0.5079;0.4322;
1336.5000;0.5039;0.4154;
1336.8000;0.5039;0.4106;
1337.1000;0.5022;0.4082;
1337.4000;0.5031;0.4082;
1337.7000;0.5014;0.4010;
1338.0000;0.5039;0.4034;
1338.3000;0.5022;0.3962;
1338.6000;0.5039;0.4010;
1338.9000;0.5120;0.4226;
1339.2000;0.5031;0.4010;
1339.5000;0.5039;0.4034;
1339.8000;0.5031;0.4130;
1340.1000;0.5006;0.4082;
1340.4000;0.5031;0.4106;
1340.7000;0.5047;0.4178;
1341.0000;0.5022;0.4178;
1341.3000;0.5006;0.4130;
1341.6000;0.5022;0.4082;
1341.9000;0.5022;0.4082;
1342.2000;0.5031;0.4010;
1342.5000;0.5022;0.3938;
1342.8000;0.4965;0.3794;
1343.1000;0.5014;0.3842;
1343.4000;0.5022;0.4010;
1343.7000;0.5022;0.4034;
1344.0000;0.5022;0.4154;
1344.3000;0.5039;0.4226;
1344.6000;0.5014;0.4154;
1344.9000;0.5031;0.4178;
1345.2000;0.5039;0.4226;
1345.5000;0.5063;0.4274;
1345.8000;0.5014;0.4130;
1346.1000;0.5031;0.4202;
1346.4000;0.5031;0.4250;
1346.7000;0.4998;0.4154;
1347.0000;0.5014;0.4154;
1347.3000;0.5022;0.4154;
1347.6000;0.5031;0.4154;
1347.9000;0.5022;0.4058;
1348.2000;0.5014;0.4010;
1348.5000;0.5031;0.4106;
1348.8000;0.5031;0.4154;
1349.1000;0.5031;0.4130;
1349.4000;0.5022;0.4154;
1349.7000;0.5022;0.4250;
1350.0000;0.5031;0.4250;
1350.3000;0.5047;0.4370;
1350.6000;0.5022;0.4298;
1350.9000;0.5031;0.4346;
1351.2000;0.5039;0.4346;
1351.5000;0.5031;0.4346;
1351.8000;0.5022;0.4250;
1352.1000;0.5022;0.4202;
1352.4000;0.5039;0.4298;
1352.7000;0.5022;0.4226;
1353.0000;0.5022;0.4154;
1353.3000;0.5006;0.4154;
1353.6000;0.5006;0.4154;
1353.9000;0.4990;0.4154;
1354.2000;0.5006;0.4130;
1354.5000;0.5079;0.4274;
1354.8000;0.5031;0.4202;
1355.1000;0.5031;0.4106;
1355.4000;0.5031;0.4154;
1355.7000;0.5039;0.4058;
1356.0000;0.5031;0.4034;
1356.3000;0.5047;0.4154;
1356.6000;0.5047;0.4178;
1356.9000;0.5047;0.4154;
1357.2000;0.5039;0.4082;
1357.5000;0.5031;0.4034;
1357.8000;0.5031;0.4034;
1358.1000;0.5031;0.4010;
1358.4000;0.5039;0.4010;
1358.7000;0.5039;0.4058;
1359.0000;0.5079;0.4154;
1359.3000;0.5031;0.4010;
1359.6000;0.5031;0.3962;
1359.9000;0.5079;0.4106;
1360.2000;0.5055;0.4058;
1360.5000;0.5031;0.4010;
1360.8000;0.5039;0.4010;
1361.1000;0.5063;0.4106;
1361.4000;0.5047;0.3986;
1361.7000;0.5039;0.3938;
1362.0000;0.4998;0.3818;
1362.3000;0.5031;0.3842;
1362.6000;0.5031;0.3890;
1362.9000;0.5039;0.3962;
1363.2000;0.5039;0.4034;
1363.5000;0.5063;0.4154;
1363.8000;0.5031;0.4106;
1364.1000;0.5014;0.4058;
1364.4000;0.5022;0.4010;
1364.7000;0.5039;0.3986;
1365.0000;0.5047;0.3986;
1365.3000;0.5039;0.3962;
1365.6000;0.5031;0.3938;
1365.9000;0.5022;0.3938;
1366.2000;0.5031;0.3938;
1366.5000;0.4990;0.3866;
1366.8000;0.5039;0.4106;
1367.1000;0.5022;0.4106;
1367.4000;0.5014;0.4178;
1367.7000;0.5022;0.4154;
1368.0000;0.4982;0.4058;
1368.3000;0.5014;0.4130;
1368.6000;0.5014;0.4178;
1368.9000;0.5039;0.4130;
1369.2000;0.4982;0.3962;
1369.5000;0.5006;0.4010;
1369.8000;0.5022;0.4106;
1370.1000;0.5096;0.4322;
1370.4000;0.5039;0.4226;
1370.7000;0.5031;0.4154;
1371.0000;0.5104;0.4322;
1371.3000;0.5039;0.4082;
1371.6000;0.5047;0.4130;
1371.9000;0.5039;0.4226;
1372.2000;0.5039;0.4178;
1372.5000;0.5022;0.4154;
1372.8000;0.5031;0.4298;
1373.1000;0.5022;0.4298;
1373.4000;0.5014;0.4250;
1373.7000;0.5031;0.4178;
1374.0000;0.5031;0.4250;
1374.3000;0.5014;0.4250;
1374.6000;0.5022;0.4226;
1374.9000;0.5031;0.4202;
1375.2000;0.5079;0.4298;
1375.5000;0.5063;0.4202;
1375.8000;0.5039;0.4178;
1376.1000;0.4982;0.4058;
1376.4000;0.5022;0.4226;
1376.7000;0.5039;0.4178;
1377.0000;0.5071;0.4202;
1377.3000;0.5014;0.4082;
1377.6000;0.5014;0.4106;
1377.9000;0.5039;0.4202;
1378.2000;0.5022;0.4202;
1378.5000;0.5022;0.4202;
1378.8000;0.4990;0.4106;
1379.1000;0.5031;0.4202;
1379.4000;0.5039;0.4202;
1379.7000;0.5022;0.4154;
1380.0000;0.5063;0.4202;
1380.3000;0.5039;0.4082;
1380.6000;0.5039;0.4106;
1380.9000;0.5112;0.4250;
1381.2000;0.5031;0.3938;
1381.5000;0.5022;0.3962;
1381.8000;0.5006;0.3914;
1382.1000;0.5022;0.4034;
1382.4000;0.5031;0.3986;
1382.7000;0.5014;0.3962;
1383.0000;0.5022;0.3938;
1383.3000;0.5031;0.4010;
1383.6000;0.4998;0.3962;
1383.9000;0.4998;0.3914;
1384.2000;0.5022;0.3986;
1384.5000;0.5039;0.4010;
1384.8000;0.5022;0.4058;
1385.1000;0.5014;0.4034;
1385.4000;0.5031;0.4082;
1385.7000;0.5096;0.4274;
1386.0000;0.5047;0.4178;
1386.3000;0.5031;0.4226;
1386.6000;0.5039;0.4250;
1386.9000;0.5031;0.4106;
1387.2000;0.4965;0.3914;
1387.5000;0.5022;0.4034;
1387.8000;0.5031;0.4010;
1388.1000;0.5063;0.4034;
1388.4000;0.5031;0.3986;
1388.7000;0.5031;0.4010;
1389.0000;0.5039;0.4106;
1389.3000;0.5022;0.4082;
1389.6000;0.5039;0.4178;
1389.9000;0.5014;0.4202;
1390.2000;0.5039;0.4274;
1390.5000;0.5039;0.4202;
1390.8000;0.5055;0.4226;
1391.1000;0.4908;0.3914;
1391.4000;0.5039;0.4298;
1391.7000;0.5039;0.4322;
1392.0000;0.5079;0.4370;
1392.3000;0.5039;0.4202;
1392.6000;0.5031;0.4178;
1392.9000;0.5031;0.4178;
1393.2000;0.5006;0.4082;
1393.5000;0.5031;0.4154;
1393.8000;0.5014;0.4154;
1394.1000;0.5055;0.4226;
1394.4000;0.5031;0.4154;
1394.7000;0.5014;0.4082;
1395.0000;0.5039;0.4058;
1395.3000;0.5022;0.4010;
1395.6000;0.5022;0.4034;
1395.9000;0.5031;0.4010;
1396.2000;0.5047;0.4058;
1396.5000;0.5039;0.4010;
1396.8000;0.5022;0.4010;
1397.1000;0.5022;0.4082;
1397.4000;0.5022;0.4130;
1397.7000;0.5031;0.4130;
1398.0000;0.4998;0.4034;
1398.3000;0.5006;0.4058;
1398.6000;0.5031;0.4274;
1398.9000;0.5031;0.4250;
1399.2000;0.5014;0.4178;
1399.5000;0.5022;0.4178;
1399.8000;0.5055;0.4226;
