time/ms;Fluo/V;P700 deltaI/I x10³;
-199.8000;0.4054;1.3860;
-199.5000;0.3948;1.3610;
-199.2000;0.3956;1.3635;
-198.9000;0.3964;1.3710;
-198.6000;0.3972;1.3660;
-198.3000;0.3980;1.3685;
-198.0000;0.3956;1.3610;
-197.7000;0.3972;1.3710;
-197.4000;0.4005;1.3835;
-197.1000;0.3997;1.3860;
-196.8000;0.3972;1.3860;
-196.5000;0.3980;1.3860;
-196.2000;0.3989;1.3885;
-195.9000;0.3997;1.3860;
-195.6000;0.3989;1.3835;
-195.3000;0.3989;1.3810;
-195.0000;0.4005;1.3860;
-194.7000;0.3972;1.3860;
-194.4000;0.3980;1.3860;
-194.1000;0.3964;1.3810;
-193.8000;0.3980;1.3860;
-193.5000;0.3980;1.3810;
-193.2000;0.3940;1.3810;
-192.9000;0.3956;1.3935;
-192.6000;0.4013;1.4085;
-192.3000;0.3997;1.4135;
-192.0000;0.3989;1.4135;
-191.7000;0.3964;1.4135;
-191.4000;0.3989;1.4135;
-191.1000;0.4005;1.4185;
-190.8000;0.3972;1.4035;
-190.5000;0.3980;1.4085;
-190.2000;0.3964;1.4085;
-189.9000;0.3980;1.4160;
-189.6000;0.3980;1.4185;
-189.3000;0.3980;1.4260;
-189.0000;0.3972;1.4210;
-188.7000;0.3997;1.4309;
-188.4000;0.3980;1.4260;
-188.1000;0.4005;1.4309;
-187.8000;0.3989;1.4185;
-187.5000;0.3980;1.4160;
-187.2000;0.3972;1.4160;
-186.9000;0.3972;1.4110;
-186.6000;0.3972;1.4085;
-186.3000;0.4005;1.4135;
-186.0000;0.4005;1.4060;
-185.7000;0.3972;1.4010;
-185.4000;0.3972;1.4010;
-185.1000;0.3980;1.4110;
-184.8000;0.3980;1.4110;
-184.5000;0.3980;1.4110;
-184.2000;0.3972;1.4060;
-183.9000;0.3980;1.4110;
-183.6000;0.4005;1.4210;
-183.3000;0.3940;1.4035;
-183.0000;0.3972;1.4060;
-182.7000;0.4054;1.4235;
-182.4000;0.3972;1.4060;
-182.1000;0.3964;1.4060;
-181.8000;0.3964;1.4085;
-181.5000;0.3997;1.4135;
-181.2000;0.3980;1.4010;
-180.9000;0.3972;1.4010;
-180.6000;0.3972;1.4110;
-180.3000;0.3980;1.4160;
-180.0000;0.3980;1.4085;
-179.7000;0.4021;1.4210;
-179.4000;0.3989;1.4135;
-179.1000;0.3980;1.4060;
-178.8000;0.3956;1.3960;
-178.5000;0.3980;1.4060;
-178.2000;0.3972;1.4110;
-177.9000;0.3972;1.4110;
-177.6000;0.3915;1.3860;
-177.3000;0.3980;1.4035;
-177.0000;0.3989;1.4035;
-176.7000;0.3980;1.3960;
-176.4000;0.3964;1.3960;
-176.1000;0.3972;1.4010;
-175.8000;0.3989;1.4060;
-175.5000;0.3980;1.4035;
-175.2000;0.3980;1.4035;
-174.9000;0.3972;1.4010;
-174.6000;0.3989;1.4110;
-174.3000;0.3989;1.4110;
-174.0000;0.3989;1.4110;
-173.7000;0.3956;1.4035;
-173.4000;0.3972;1.4010;
-173.1000;0.4046;1.4260;
-172.8000;0.4005;1.4060;
-172.5000;0.3956;1.3935;
-172.2000;0.3972;1.3910;
-171.9000;0.3964;1.3910;
-171.6000;0.3997;1.3910;
-171.3000;0.3980;1.3860;
-171.0000;0.3989;1.3785;
-170.7000;0.3972;1.3710;
-170.4000;0.3980;1.3710;
-170.1000;0.3972;1.3610;
-169.8000;0.3932;1.3560;
-169.5000;0.3964;1.3660;
-169.2000;0.3972;1.3660;
-168.9000;0.3972;1.3635;
-168.6000;0.3964;1.3635;
-168.3000;0.3980;1.3760;
-168.0000;0.3997;1.3860;
-167.7000;0.3972;1.3710;
-167.4000;0.3972;1.3685;
-167.1000;0.3980;1.3810;
-166.8000;0.3989;1.3860;
-166.5000;0.3972;1.3860;
-166.2000;0.3972;1.3810;
-165.9000;0.3964;1.3810;
-165.6000;0.3980;1.3835;
-165.3000;0.3980;1.3835;
-165.0000;0.3972;1.3760;
-164.7000;0.3972;1.3785;
-164.4000;0.3964;1.3810;
-164.1000;0.3964;1.3785;
-163.8000;0.3997;1.3735;
-163.5000;0.3956;1.3560;
-163.2000;0.3980;1.3635;
-162.9000;0.3956;1.3610;
-162.6000;0.3989;1.3610;
-162.3000;0.3948;1.3510;
-162.0000;0.3964;1.3535;
-161.7000;0.3989;1.3535;
-161.4000;0.3980;1.3485;
-161.1000;0.3972;1.3535;
-160.8000;0.4013;1.3660;
-160.5000;0.3980;1.3635;
-160.2000;0.3940;1.3510;
-159.9000;0.3956;1.3710;
-159.6000;0.3980;1.3710;
-159.3000;0.3956;1.3635;
-159.0000;0.3972;1.3585;
-158.7000;0.3972;1.3585;
-158.4000;0.3940;1.3560;
-158.1000;0.3923;1.3510;
-157.8000;0.3972;1.3635;
-157.5000;0.3964;1.3710;
-157.2000;0.3972;1.3760;
-156.9000;0.3972;1.3685;
-156.6000;0.3940;1.3535;
-156.3000;0.4013;1.3660;
-156.0000;0.3989;1.3585;
-155.7000;0.3989;1.3660;
-155.4000;0.3980;1.3685;
-155.1000;0.3972;1.3585;
-154.8000;0.3972;1.3610;
-154.5000;0.3980;1.3635;
-154.2000;0.3972;1.3635;
-153.9000;0.3980;1.3685;
-153.6000;0.3980;1.3660;
-153.3000;0.3891;1.3435;
-153.0000;0.3907;1.3585;
-152.7000;0.3972;1.3810;
-152.4000;0.3989;1.3860;
-152.1000;0.3997;1.4010;
-151.8000;0.3956;1.3885;
-151.5000;0.3980;1.4035;
-151.2000;0.3964;1.3910;
-150.9000;0.3989;1.3835;
-150.6000;0.3972;1.3785;
-150.3000;0.3980;1.3835;
-150.0000;0.4021;1.3960;
-149.7000;0.3980;1.3885;
-149.4000;0.3980;1.3860;
-149.1000;0.4078;1.4110;
-148.8000;0.3980;1.3810;
-148.5000;0.3989;1.3810;
-148.2000;0.3980;1.3810;
-147.9000;0.3980;1.3810;
-147.6000;0.3989;1.3760;
-147.3000;0.3980;1.3710;
-147.0000;0.3948;1.3735;
-146.7000;0.3997;1.3860;
-146.4000;0.3989;1.3910;
-146.1000;0.3980;1.3910;
-145.8000;0.4029;1.4035;
-145.5000;0.3997;1.3960;
-145.2000;0.3980;1.3910;
-144.9000;0.3940;1.3810;
-144.6000;0.3964;1.3935;
-144.3000;0.4021;1.4110;
-144.0000;0.3989;1.4060;
-143.7000;0.3980;1.4085;
-143.4000;0.3980;1.4035;
-143.1000;0.3997;1.4110;
-142.8000;0.3980;1.4060;
-142.5000;0.3980;1.3985;
-142.2000;0.3989;1.3960;
-141.9000;0.3980;1.3835;
-141.6000;0.3956;1.3860;
-141.3000;0.3972;1.3860;
-141.0000;0.3956;1.3810;
-140.7000;0.3972;1.3860;
-140.4000;0.3980;1.3860;
-140.1000;0.3989;1.3860;
-139.8000;0.3989;1.3810;
-139.5000;0.3980;1.3760;
-139.2000;0.3980;1.3810;
-138.9000;0.3972;1.3810;
-138.6000;0.3972;1.3910;
-138.3000;0.4013;1.3935;
-138.0000;0.3980;1.3835;
-137.7000;0.3956;1.3835;
-137.4000;0.3964;1.3935;
-137.1000;0.3964;1.3985;
-136.8000;0.3989;1.3985;
-136.5000;0.3972;1.3960;
-136.2000;0.3964;1.3910;
-135.9000;0.3980;1.4010;
-135.6000;0.3956;1.3935;
-135.3000;0.3948;1.3885;
-135.0000;0.3956;1.3935;
-134.7000;0.3964;1.3935;
-134.4000;0.3980;1.3960;
-134.1000;0.3972;1.3985;
-133.8000;0.3972;1.3910;
-133.5000;0.3989;1.3935;
-133.2000;0.3972;1.3910;
-132.9000;0.3997;1.4010;
-132.6000;0.3972;1.4010;
-132.3000;0.3997;1.4085;
-132.0000;0.3964;1.4060;
-131.7000;0.3989;1.4210;
-131.4000;0.3980;1.4185;
-131.1000;0.3964;1.4110;
-130.8000;0.3980;1.4010;
-130.5000;0.3915;1.3910;
-130.2000;0.3940;1.4010;
-129.9000;0.3972;1.4135;
-129.6000;0.3948;1.3985;
-129.3000;0.3997;1.4110;
-129.0000;0.3923;1.3985;
-128.7000;0.3980;1.4110;
-128.4000;0.3989;1.4110;
-128.1000;0.3956;1.4085;
-127.8000;0.3972;1.4185;
-127.5000;0.3964;1.4160;
-127.2000;0.3989;1.4135;
-126.9000;0.3964;1.4135;
-126.6000;0.3972;1.4135;
-126.3000;0.3980;1.4135;
-126.0000;0.3972;1.4185;
-125.7000;0.3997;1.4210;
-125.4000;0.3972;1.4110;
-125.1000;0.3989;1.4085;
-124.8000;0.3989;1.4085;
-124.5000;0.3964;1.4085;
-124.2000;0.3989;1.4085;
-123.9000;0.3980;1.4035;
-123.6000;0.3989;1.4010;
-123.3000;0.3997;1.4010;
-123.0000;0.3956;1.4010;
-122.7000;0.3964;1.4085;
-122.4000;0.3989;1.4210;
-122.1000;0.3980;1.4235;
-121.8000;0.3972;1.4260;
-121.5000;0.3980;1.4160;
-121.2000;0.3980;1.4185;
-120.9000;0.3980;1.4060;
-120.6000;0.3989;1.4035;
-120.3000;0.3972;1.3985;
-120.0000;0.3964;1.3910;
-119.7000;0.4005;1.3910;
-119.4000;0.3989;1.3910;
-119.1000;0.3997;1.3910;
-118.8000;0.4029;1.4110;
-118.5000;0.3997;1.4160;
-118.2000;0.3980;1.4185;
-117.9000;0.3923;1.4035;
-117.6000;0.3980;1.4210;
-117.3000;0.3948;1.4160;
-117.0000;0.3989;1.4210;
-116.7000;0.3972;1.4035;
-116.4000;0.3972;1.3985;
-116.1000;0.3956;1.4010;
-115.8000;0.3980;1.4010;
-115.5000;0.3997;1.4035;
-115.2000;0.3972;1.3960;
-114.9000;0.3980;1.4035;
-114.6000;0.3989;1.4110;
-114.3000;0.3997;1.4085;
-114.0000;0.3989;1.4110;
-113.7000;0.3964;1.4085;
-113.4000;0.3980;1.4110;
-113.1000;0.4005;1.4260;
-112.8000;0.3972;1.4235;
-112.5000;0.3956;1.4135;
-112.2000;0.3989;1.4210;
-111.9000;0.3940;1.4060;
-111.6000;0.3989;1.4235;
-111.3000;0.3956;1.4210;
-111.0000;0.3972;1.4235;
-110.7000;0.3972;1.4210;
-110.4000;0.3972;1.4135;
-110.1000;0.3980;1.4110;
-109.8000;0.3997;1.4160;
-109.5000;0.4005;1.4135;
-109.2000;0.3989;1.4085;
-108.9000;0.3980;1.4035;
-108.6000;0.3964;1.4060;
-108.3000;0.3989;1.4085;
-108.0000;0.3997;1.4060;
-107.7000;0.3989;1.4060;
-107.4000;0.3948;1.3910;
-107.1000;0.3972;1.4010;
-106.8000;0.3989;1.4035;
-106.5000;0.3972;1.4035;
-106.2000;0.3964;1.4060;
-105.9000;0.3956;1.4010;
-105.6000;0.3980;1.4060;
-105.3000;0.3989;1.4010;
-105.0000;0.3972;1.4035;
-104.7000;0.3980;1.4060;
-104.4000;0.3972;1.4110;
-104.1000;0.3972;1.4010;
-103.8000;0.3972;1.4010;
-103.5000;0.3964;1.3935;
-103.2000;0.3956;1.3910;
-102.9000;0.3989;1.4010;
-102.6000;0.3956;1.3885;
-102.3000;0.3980;1.3910;
-102.0000;0.3997;1.4010;
-101.7000;0.3980;1.4010;
-101.4000;0.3972;1.3960;
-101.1000;0.3989;1.3960;
-100.8000;0.4054;1.4085;
-100.5000;0.3997;1.3960;
-100.2000;0.4005;1.4010;
-99.9000;0.3972;1.3935;
-99.6000;0.3989;1.3985;
-99.3000;0.3989;1.3960;
-99.0000;0.3980;1.3985;
-98.7000;0.3989;1.3985;
-98.4000;0.3972;1.3960;
-98.1000;0.3980;1.4085;
-97.8000;0.3980;1.4160;
-97.5000;0.3972;1.4185;
-97.2000;0.3980;1.4085;
-96.9000;0.4029;1.4185;
-96.6000;0.3980;1.4135;
-96.3000;0.4013;1.4160;
-96.0000;0.3915;1.3910;
-95.7000;0.3972;1.4110;
-95.4000;0.3956;1.4085;
-95.1000;0.3980;1.4135;
-94.8000;0.3980;1.4060;
-94.5000;0.4013;1.4060;
-94.2000;0.3989;1.3960;
-93.9000;0.3964;1.3860;
-93.6000;0.3964;1.3860;
-93.3000;0.3980;1.3960;
-93.0000;0.3972;1.3910;
-92.7000;0.3997;1.4010;
-92.4000;0.3989;1.3935;
-92.1000;0.3989;1.3985;
-91.8000;0.3980;1.3985;
-91.5000;0.3989;1.4035;
-91.2000;0.3956;1.3910;
-90.9000;0.3972;1.3985;
-90.6000;0.3972;1.3960;
-90.3000;0.3980;1.3910;
-90.0000;0.3989;1.3860;
-89.7000;0.3989;1.3910;
-89.4000;0.3989;1.3960;
-89.1000;0.3964;1.3860;
-88.8000;0.3972;1.3860;
-88.5000;0.3964;1.3760;
-88.2000;0.3997;1.3860;
-87.9000;0.3972;1.3785;
-87.6000;0.4062;1.4085;
-87.3000;0.3972;1.3860;
-87.0000;0.3980;1.3960;
-86.7000;0.3997;1.3985;
-86.4000;0.3980;1.3935;
-86.1000;0.3964;1.3910;
-85.8000;0.3980;1.3885;
-85.5000;0.3964;1.3785;
-85.2000;0.3972;1.3685;
-84.9000;0.3964;1.3660;
-84.6000;0.3972;1.3710;
-84.3000;0.3980;1.3760;
-84.0000;0.3989;1.3835;
-83.7000;0.3980;1.3835;
-83.4000;0.3972;1.3760;
-83.1000;0.3972;1.3835;
-82.8000;0.3956;1.3835;
-82.5000;0.3989;1.3885;
-82.2000;0.3980;1.3910;
-81.9000;0.3964;1.3760;
-81.6000;0.3980;1.3835;
-81.3000;0.3980;1.3785;
-81.0000;0.3989;1.3860;
-80.7000;0.3915;1.3660;
-80.4000;0.3972;1.3860;
-80.1000;0.3989;1.3860;
-79.8000;0.3940;1.3810;
-79.5000;0.3989;1.3935;
-79.2000;0.3980;1.3910;
-78.9000;0.4013;1.3960;
-78.6000;0.4013;1.3935;
-78.3000;0.3948;1.3760;
-78.0000;0.4062;1.4010;
-77.7000;0.3964;1.3760;
-77.4000;0.3997;1.3860;
-77.1000;0.3964;1.3910;
-76.8000;0.3972;1.3835;
-76.5000;0.3989;1.3935;
-76.2000;0.3972;1.3960;
-75.9000;0.3980;1.3960;
-75.6000;0.3980;1.3885;
-75.3000;0.4005;1.3885;
-75.0000;0.4021;1.3910;
-74.7000;0.3980;1.3760;
-74.4000;0.3980;1.3810;
-74.1000;0.3964;1.3810;
-73.8000;0.3972;1.3810;
-73.5000;0.3940;1.3785;
-73.2000;0.3964;1.3885;
-72.9000;0.3980;1.3935;
-72.6000;0.3972;1.3960;
-72.3000;0.3972;1.3885;
-72.0000;0.3989;1.3935;
-71.7000;0.3997;1.4010;
-71.4000;0.3964;1.3910;
-71.1000;0.3980;1.3885;
-70.8000;0.3972;1.3860;
-70.5000;0.3915;1.3685;
-70.2000;0.3980;1.3835;
-69.9000;0.4046;1.4110;
-69.6000;0.3956;1.3985;
-69.3000;0.3972;1.4060;
-69.0000;0.3964;1.3985;
-68.7000;0.3997;1.4010;
-68.4000;0.3980;1.3960;
-68.1000;0.4029;1.4010;
-67.8000;0.3972;1.3910;
-67.5000;0.3980;1.4035;
-67.2000;0.3980;1.4110;
-66.9000;0.3989;1.4135;
-66.6000;0.3997;1.4185;
-66.3000;0.3989;1.4135;
-66.0000;0.3980;1.4035;
-65.7000;0.3997;1.4085;
-65.4000;0.3980;1.4035;
-65.1000;0.3972;1.4035;
-64.8000;0.3989;1.4010;
-64.5000;0.3980;1.4060;
-64.2000;0.3989;1.4060;
-63.9000;0.3989;1.4085;
-63.6000;0.3980;1.4160;
-63.3000;0.3997;1.4085;
-63.0000;0.3964;1.3985;
-62.7000;0.3989;1.4110;
-62.4000;0.3972;1.4035;
-62.1000;0.4037;1.4185;
-61.8000;0.3972;1.4035;
-61.5000;0.3972;1.3885;
-61.2000;0.3964;1.3910;
-60.9000;0.3972;1.3910;
-60.6000;0.3989;1.3910;
-60.3000;0.3980;1.3910;
-60.0000;0.3980;1.3910;
-59.7000;0.3989;1.3910;
-59.4000;0.3980;1.3860;
-59.1000;0.3932;1.3860;
-58.8000;0.3972;1.3935;
-58.5000;0.3997;1.3985;
-58.2000;0.3980;1.3985;
-57.9000;0.3980;1.3810;
-57.6000;0.3989;1.3860;
-57.3000;0.3989;1.3885;
-57.0000;0.3989;1.3885;
-56.7000;0.3948;1.3760;
-56.4000;0.3964;1.3835;
-56.1000;0.4013;1.3935;
-55.8000;0.3948;1.3760;
-55.5000;0.3972;1.3810;
-55.2000;0.3980;1.3785;
-54.9000;0.3989;1.3760;
-54.6000;0.4005;1.3810;
-54.3000;0.3964;1.3710;
-54.0000;0.3932;1.3660;
-53.7000;0.3964;1.3735;
-53.4000;0.3989;1.3860;
-53.1000;0.4005;1.3935;
-52.8000;0.3964;1.3835;
-52.5000;0.3964;1.3835;
-52.2000;0.3989;1.3860;
-51.9000;0.3989;1.3885;
-51.6000;0.3989;1.3985;
-51.3000;0.3989;1.4060;
-51.0000;0.3980;1.4060;
-50.7000;0.3989;1.4085;
-50.4000;0.4037;1.4235;
-50.1000;0.3972;1.4035;
-49.8000;0.3948;1.4010;
-49.5000;0.3980;1.4060;
-49.2000;0.3972;1.4035;
-48.9000;0.3964;1.3935;
-48.6000;0.3972;1.3910;
-48.3000;0.3980;1.3960;
-48.0000;0.4013;1.4010;
-47.7000;0.3972;1.3935;
-47.4000;0.3980;1.4010;
-47.1000;0.3980;1.4135;
-46.8000;0.4029;1.4285;
-46.5000;0.3956;1.4110;
-46.2000;0.3964;1.4110;
-45.9000;0.3989;1.4235;
-45.6000;0.3980;1.4309;
-45.3000;0.3972;1.4235;
-45.0000;0.3980;1.4160;
-44.7000;0.3972;1.4135;
-44.4000;0.3980;1.4085;
-44.1000;0.3972;1.4110;
-43.8000;0.3972;1.4035;
-43.5000;0.3972;1.4060;
-43.2000;0.3997;1.4060;
-42.9000;0.3948;1.3985;
-42.6000;0.3989;1.4035;
-42.3000;0.3989;1.4010;
-42.0000;0.3989;1.3985;
-41.7000;0.3980;1.4060;
-41.4000;0.3972;1.4110;
-41.1000;0.4013;1.4210;
-40.8000;0.3972;1.4085;
-40.5000;0.3980;1.4135;
-40.2000;0.3948;1.4010;
-39.9000;0.3989;1.4135;
-39.6000;0.3980;1.4160;
-39.3000;0.4062;1.4334;
-39.0000;0.3989;1.4035;
-38.7000;0.3980;1.4085;
-38.4000;0.3972;1.4110;
-38.1000;0.3980;1.4185;
-37.8000;0.3997;1.4235;
-37.5000;0.3980;1.4160;
-37.2000;0.3948;1.4085;
-36.9000;0.3972;1.4135;
-36.6000;0.3980;1.4235;
-36.3000;0.3989;1.4235;
-36.0000;0.3989;1.4260;
-35.7000;0.4037;1.4459;
-35.4000;0.3948;1.4160;
-35.1000;0.3997;1.4285;
-34.8000;0.3997;1.4260;
-34.5000;0.3972;1.4160;
-34.2000;0.3972;1.4160;
-33.9000;0.3972;1.4110;
-33.6000;0.3989;1.4235;
-33.3000;0.3932;1.4135;
-33.0000;0.3980;1.4285;
-32.7000;0.3972;1.4210;
-32.4000;0.3964;1.4210;
-32.1000;0.3972;1.4185;
-31.8000;0.3989;1.4185;
-31.5000;0.3989;1.4135;
-31.2000;0.3989;1.4135;
-30.9000;0.3980;1.4160;
-30.6000;0.3989;1.4160;
-30.3000;0.3989;1.4210;
-30.0000;0.3980;1.4210;
-29.7000;0.3980;1.4160;
-29.4000;0.3980;1.4035;
-29.1000;0.3989;1.4110;
-28.8000;0.3980;1.4110;
-28.5000;0.3964;1.4010;
-28.2000;0.3980;1.4035;
-27.9000;0.3989;1.4085;
-27.6000;0.3989;1.3985;
-27.3000;0.3972;1.4035;
-27.0000;0.3980;1.4035;
-26.7000;0.3948;1.3985;
-26.4000;0.3989;1.4160;
-26.1000;0.3989;1.4160;
-25.8000;0.3972;1.4110;
-25.5000;0.3980;1.4210;
-25.2000;0.4005;1.4260;
-24.9000;0.3932;1.4110;
-24.6000;0.3980;1.4160;
-24.3000;0.4062;1.4359;
-24.0000;0.3980;1.4110;
-23.7000;0.3997;1.4160;
-23.4000;0.3997;1.4085;
-23.1000;0.3989;1.4210;
-22.8000;0.3972;1.4135;
-22.5000;0.3980;1.4085;
-22.2000;0.3980;1.4135;
-21.9000;0.3980;1.4135;
-21.6000;0.3980;1.4110;
-21.3000;0.3989;1.4110;
-21.0000;0.4013;1.4160;
-20.7000;0.3980;1.4060;
-20.4000;0.3980;1.4110;
-20.1000;0.3997;1.4185;
-19.8000;0.3989;1.4135;
-19.5000;0.3980;1.4110;
-19.2000;0.3997;1.4160;
-18.9000;0.3948;1.4035;
-18.6000;0.3989;1.4110;
-18.3000;0.3980;1.4135;
-18.0000;0.3956;1.4060;
-17.7000;0.3972;1.3935;
-17.4000;0.4005;1.3985;
-17.1000;0.3989;1.3810;
-16.8000;0.3989;1.3760;
-16.5000;0.3997;1.3810;
-16.2000;0.3989;1.3910;
-15.9000;0.3980;1.3910;
-15.6000;0.3980;1.3960;
-15.3000;0.4005;1.4085;
-15.0000;0.3980;1.4010;
-14.7000;0.3980;1.4010;
-14.4000;0.4029;1.4160;
-14.1000;0.3980;1.4010;
-13.8000;0.3980;1.3985;
-13.5000;0.3980;1.4010;
-13.2000;0.4029;1.4235;
-12.9000;0.3980;1.4110;
-12.6000;0.3997;1.4060;
-12.3000;0.4046;1.4160;
-12.0000;0.3964;1.3860;
-11.7000;0.3989;1.3935;
-11.4000;0.3980;1.3885;
-11.1000;0.4005;1.4010;
-10.8000;0.3980;1.3935;
-10.5000;0.3972;1.3910;
-10.2000;0.3989;1.3985;
-9.9000;0.3972;1.4035;
-9.6000;0.3932;1.3860;
-9.3000;0.3956;1.3960;
-9.0000;0.3956;1.3960;
-8.7000;0.3964;1.4010;
-8.4000;0.3980;1.4010;
-8.1000;0.3956;1.3885;
-7.8000;0.3972;1.3885;
-7.5000;0.3980;1.3910;
-7.2000;0.3989;1.4010;
-6.9000;0.3972;1.3860;
-6.6000;0.3989;1.3835;
-6.3000;0.3980;1.3810;
-6.0000;0.3989;1.4010;
-5.7000;0.3972;1.3985;
-5.4000;0.3964;1.3960;
-5.1000;0.3972;1.3985;
-4.8000;0.3964;1.4035;
-4.5000;0.3980;1.3985;
-4.2000;0.3964;1.4010;
-3.9000;0.4046;1.4235;
-3.6000;0.3989;1.4035;
-3.3000;0.3940;1.3835;
-3.0000;0.3980;1.3835;
-2.7000;0.3972;1.3885;
-2.4000;0.4037;1.4035;
-2.1000;0.3972;1.3860;
-1.8000;0.3989;1.3860;
-1.5000;0.3989;1.3860;
-1.2000;0.3972;1.3760;
-0.9000;0.3972;1.3785;
-0.6000;0.3980;1.3860;
-0.3000;0.3980;1.3860;
0.0000;0.3980;1.3860;
0.3000;0.4200;1.3735;
0.6000;0.4550;1.4260;
0.9000;0.4794;1.4634;
1.2000;0.5022;1.5009;
1.5000;0.5161;1.5308;
1.8000;0.5324;1.5633;
2.1000;0.5421;1.5858;
2.4000;0.5462;1.5908;
2.7000;0.5560;1.6033;
3.0000;0.5584;1.6083;
3.3000;0.5641;1.6207;
3.6000;0.5690;1.6332;
3.9000;0.5731;1.6457;
4.2000;0.5763;1.6657;
4.5000;0.5788;1.6732;
4.8000;0.5820;1.6807;
5.1000;0.5845;1.6882;
5.4000;0.5869;1.6857;
5.7000;0.5877;1.6882;
6.0000;0.5893;1.6907;
6.3000;0.5918;1.7007;
6.6000;0.5950;1.7057;
6.9000;0.5975;1.7007;
7.2000;0.5983;1.7007;
7.5000;0.5999;1.7032;
7.8000;0.6032;1.7057;
8.1000;0.6064;1.7131;
8.4000;0.6064;1.7081;
8.7000;0.6105;1.7156;
9.0000;0.6097;1.7081;
9.3000;0.6113;1.7106;
9.6000;0.6129;1.7131;
9.9000;0.6178;1.7081;
10.2000;0.6146;1.7007;
10.5000;0.6170;1.6957;
10.8000;0.6195;1.6957;
11.1000;0.6227;1.6957;
11.4000;0.6219;1.6832;
11.7000;0.6243;1.6857;
12.0000;0.6276;1.6882;
12.3000;0.6309;1.6982;
12.6000;0.6292;1.6932;
12.9000;0.6317;1.7007;
13.2000;0.6341;1.6982;
13.5000;0.6341;1.6907;
13.8000;0.6349;1.6907;
14.1000;0.6341;1.6757;
14.4000;0.6390;1.6932;
14.7000;0.6398;1.6957;
15.0000;0.6414;1.6932;
15.3000;0.6431;1.6932;
15.6000;0.6431;1.6857;
15.9000;0.6439;1.6882;
16.2000;0.6455;1.6882;
16.5000;0.6488;1.6882;
16.8000;0.6496;1.6882;
17.1000;0.6512;1.6957;
17.4000;0.6504;1.6882;
17.7000;0.6520;1.6857;
18.0000;0.6528;1.6807;
18.3000;0.6569;1.6882;
18.6000;0.6569;1.6857;
18.9000;0.6569;1.6857;
19.2000;0.6536;1.6682;
19.5000;0.6634;1.6907;
19.8000;0.6593;1.6757;
20.1000;0.6610;1.6682;
20.4000;0.6618;1.6607;
20.7000;0.6618;1.6582;
21.0000;0.6642;1.6707;
21.3000;0.6650;1.6682;
21.6000;0.6659;1.6757;
21.9000;0.6659;1.6682;
22.2000;0.6683;1.6732;
22.5000;0.6683;1.6707;
22.8000;0.6691;1.6732;
23.1000;0.6707;1.6807;
23.4000;0.6724;1.6707;
23.7000;0.6740;1.6707;
24.0000;0.6732;1.6632;
24.3000;0.6748;1.6707;
24.6000;0.6764;1.6657;
24.9000;0.6772;1.6707;
25.2000;0.6772;1.6657;
25.5000;0.6772;1.6557;
25.8000;0.6805;1.6632;
26.1000;0.6781;1.6557;
26.4000;0.6797;1.6557;
26.7000;0.6781;1.6532;
27.0000;0.6805;1.6507;
27.3000;0.6829;1.6432;
27.6000;0.6805;1.6382;
27.9000;0.6764;1.6207;
28.2000;0.6846;1.6482;
28.5000;0.6838;1.6407;
28.8000;0.6838;1.6307;
29.1000;0.6854;1.6332;
29.4000;0.6854;1.6332;
29.7000;0.6854;1.6307;
30.0000;0.6813;1.6157;
30.3000;0.6870;1.6357;
30.6000;0.6878;1.6407;
30.9000;0.6878;1.6457;
31.2000;0.6903;1.6507;
31.5000;0.6895;1.6482;
31.8000;0.6903;1.6457;
32.1000;0.6911;1.6432;
32.4000;0.6919;1.6382;
32.7000;0.6927;1.6407;
33.0000;0.6943;1.6582;
33.3000;0.6927;1.6607;
33.6000;0.6960;1.6707;
33.9000;0.6960;1.6707;
34.2000;0.6943;1.6707;
34.5000;0.6968;1.6807;
34.8000;0.6968;1.6757;
35.1000;0.6968;1.6757;
35.4000;0.6976;1.6682;
35.7000;0.6984;1.6782;
36.0000;0.6968;1.6682;
36.3000;0.6984;1.6582;
36.6000;0.7000;1.6532;
36.9000;0.6968;1.6382;
37.2000;0.6992;1.6382;
37.5000;0.7000;1.6407;
37.8000;0.7000;1.6432;
38.1000;0.7009;1.6532;
38.4000;0.6984;1.6457;
38.7000;0.7033;1.6507;
39.0000;0.7049;1.6432;
39.3000;0.7033;1.6307;
39.6000;0.7033;1.6332;
39.9000;0.7066;1.6307;
40.2000;0.7057;1.6382;
40.5000;0.7033;1.6357;
40.8000;0.7049;1.6332;
41.1000;0.7017;1.6257;
41.4000;0.7057;1.6307;
41.7000;0.7057;1.6432;
42.0000;0.7049;1.6457;
42.3000;0.7098;1.6632;
42.6000;0.7057;1.6532;
42.9000;0.7082;1.6507;
43.2000;0.7106;1.6557;
43.5000;0.7074;1.6507;
43.8000;0.7098;1.6507;
44.1000;0.7106;1.6557;
44.4000;0.7082;1.6457;
44.7000;0.7098;1.6532;
45.0000;0.7057;1.6407;
45.3000;0.7074;1.6457;
45.6000;0.7106;1.6482;
45.9000;0.7098;1.6407;
46.2000;0.7114;1.6307;
46.5000;0.7114;1.6307;
46.8000;0.7114;1.6432;
47.1000;0.7114;1.6382;
47.4000;0.7114;1.6432;
47.7000;0.7139;1.6407;
48.0000;0.7098;1.6257;
48.3000;0.7114;1.6382;
48.6000;0.7139;1.6432;
48.9000;0.7131;1.6407;
49.2000;0.7123;1.6432;
49.5000;0.7147;1.6507;
49.8000;0.7163;1.6507;
50.1000;0.7171;1.6432;
50.4000;0.7163;1.6457;
50.7000;0.7163;1.6332;
51.0000;0.7163;1.6332;
51.3000;0.7163;1.6407;
51.6000;0.7163;1.6332;
51.9000;0.7171;1.6307;
52.2000;0.7171;1.6257;
52.5000;0.7179;1.6282;
52.8000;0.7188;1.6257;
53.1000;0.7196;1.6307;
53.4000;0.7228;1.6357;
53.7000;0.7155;1.6083;
54.0000;0.7139;1.6083;
54.3000;0.7196;1.6282;
54.6000;0.7228;1.6332;
54.9000;0.7204;1.6307;
55.2000;0.7196;1.6282;
55.5000;0.7196;1.6207;
55.8000;0.7220;1.6282;
56.1000;0.7204;1.6257;
56.4000;0.7212;1.6232;
56.7000;0.7212;1.6133;
57.0000;0.7212;1.6033;
57.3000;0.7212;1.5983;
57.6000;0.7212;1.6008;
57.9000;0.7236;1.6058;
58.2000;0.7310;1.6232;
58.5000;0.7220;1.5983;
58.8000;0.7228;1.6033;
59.1000;0.7236;1.6058;
59.4000;0.7245;1.6033;
59.7000;0.7253;1.6058;
60.0000;0.7204;1.5933;
60.3000;0.7236;1.5958;
60.6000;0.7261;1.5958;
60.9000;0.7318;1.6182;
61.2000;0.7236;1.6008;
61.5000;0.7253;1.6108;
61.8000;0.7269;1.6133;
62.1000;0.7261;1.6157;
62.4000;0.7253;1.6157;
62.7000;0.7269;1.6182;
63.0000;0.7277;1.6157;
63.3000;0.7285;1.6207;
63.6000;0.7253;1.6133;
63.9000;0.7253;1.6083;
64.2000;0.7277;1.6207;
64.5000;0.7285;1.6182;
64.8000;0.7293;1.6033;
65.1000;0.7277;1.5983;
65.4000;0.7293;1.6008;
65.7000;0.7285;1.5983;
66.0000;0.7293;1.6033;
66.3000;0.7302;1.6133;
66.6000;0.7310;1.6157;
66.9000;0.7318;1.6157;
67.2000;0.7326;1.6182;
67.5000;0.7302;1.6108;
67.8000;0.7277;1.5983;
68.1000;0.7269;1.5983;
68.4000;0.7326;1.6108;
68.7000;0.7302;1.6058;
69.0000;0.7375;1.6232;
69.3000;0.7318;1.6083;
69.6000;0.7318;1.6033;
69.9000;0.7302;1.5958;
70.2000;0.7310;1.5983;
70.5000;0.7326;1.5958;
70.8000;0.7350;1.5983;
71.1000;0.7326;1.5883;
71.4000;0.7334;1.5808;
71.7000;0.7293;1.5783;
72.0000;0.7318;1.5833;
72.3000;0.7342;1.5933;
72.6000;0.7326;1.5808;
72.9000;0.7310;1.5783;
73.2000;0.7350;1.5908;
73.5000;0.7342;1.5908;
73.8000;0.7375;1.6033;
74.1000;0.7367;1.6033;
74.4000;0.7359;1.6033;
74.7000;0.7359;1.6108;
75.0000;0.7359;1.6083;
75.3000;0.7350;1.6108;
75.6000;0.7359;1.6182;
75.9000;0.7383;1.6232;
76.2000;0.7359;1.6083;
76.5000;0.7367;1.6058;
76.8000;0.7359;1.6033;
77.1000;0.7367;1.6033;
77.4000;0.7375;1.5958;
77.7000;0.7375;1.5758;
78.0000;0.7383;1.5808;
78.3000;0.7375;1.5733;
78.6000;0.7310;1.5583;
78.9000;0.7407;1.5808;
79.2000;0.7391;1.5633;
79.5000;0.7383;1.5733;
79.8000;0.7383;1.5783;
80.1000;0.7399;1.5783;
80.4000;0.7375;1.5708;
80.7000;0.7342;1.5658;
81.0000;0.7399;1.5733;
81.3000;0.7375;1.5708;
81.6000;0.7383;1.5733;
81.9000;0.7391;1.5683;
82.2000;0.7326;1.5533;
82.5000;0.7391;1.5758;
82.8000;0.7375;1.5708;
83.1000;0.7375;1.5683;
83.4000;0.7407;1.5683;
83.7000;0.7391;1.5658;
84.0000;0.7375;1.5633;
84.3000;0.7407;1.5633;
84.6000;0.7407;1.5658;
84.9000;0.7391;1.5658;
85.2000;0.7407;1.5758;
85.5000;0.7391;1.5733;
85.8000;0.7407;1.5758;
86.1000;0.7424;1.5683;
86.4000;0.7416;1.5708;
86.7000;0.7424;1.5733;
87.0000;0.7432;1.5758;
87.3000;0.7440;1.5733;
87.6000;0.7456;1.5833;
87.9000;0.7448;1.5733;
88.2000;0.7424;1.5708;
88.5000;0.7424;1.5733;
88.8000;0.7399;1.5683;
89.1000;0.7424;1.5708;
89.4000;0.7489;1.5808;
89.7000;0.7448;1.5683;
90.0000;0.7448;1.5783;
90.3000;0.7432;1.5783;
90.6000;0.7440;1.5808;
90.9000;0.7464;1.5833;
91.2000;0.7448;1.5758;
91.5000;0.7432;1.5608;
91.8000;0.7456;1.5683;
92.1000;0.7448;1.5708;
92.4000;0.7407;1.5633;
92.7000;0.7456;1.5758;
93.0000;0.7489;1.5833;
93.3000;0.7440;1.5683;
93.6000;0.7448;1.5658;
93.9000;0.7440;1.5708;
94.2000;0.7440;1.5708;
94.5000;0.7464;1.5783;
94.8000;0.7473;1.5733;
95.1000;0.7464;1.5733;
95.4000;0.7456;1.5708;
95.7000;0.7367;1.5533;
96.0000;0.7464;1.5683;
96.3000;0.7481;1.5708;
96.6000;0.7456;1.5658;
96.9000;0.7473;1.5683;
97.2000;0.7473;1.5658;
97.5000;0.7464;1.5583;
97.8000;0.7448;1.5508;
98.1000;0.7464;1.5508;
98.4000;0.7456;1.5608;
98.7000;0.7464;1.5708;
99.0000;0.7440;1.5608;
99.3000;0.7473;1.5633;
99.6000;0.7464;1.5583;
99.9000;0.7481;1.5583;
100.2000;0.7489;1.5583;
100.5000;0.7481;1.5558;
100.8000;0.7481;1.5508;
101.1000;0.7481;1.5483;
101.4000;0.7497;1.5533;
101.7000;0.7489;1.5558;
102.0000;0.7473;1.5533;
102.3000;0.7473;1.5533;
102.6000;0.7489;1.5558;
102.9000;0.7489;1.5583;
103.2000;0.7554;1.5858;
103.5000;0.7464;1.5583;
103.8000;0.7473;1.5608;
104.1000;0.7489;1.5583;
104.4000;0.7481;1.5633;
104.7000;0.7481;1.5683;
105.0000;0.7505;1.5833;
105.3000;0.7481;1.5708;
105.6000;0.7489;1.5783;
105.9000;0.7440;1.5708;
106.2000;0.7489;1.5858;
106.5000;0.7440;1.5708;
106.8000;0.7489;1.5733;
107.1000;0.7489;1.5683;
107.4000;0.7489;1.5608;
107.7000;0.7497;1.5683;
108.0000;0.7497;1.5683;
108.3000;0.7505;1.5658;
108.6000;0.7497;1.5583;
108.9000;0.7505;1.5583;
109.2000;0.7489;1.5608;
109.5000;0.7497;1.5583;
109.8000;0.7497;1.5633;
110.1000;0.7489;1.5683;
110.4000;0.7497;1.5733;
110.7000;0.7497;1.5733;
111.0000;0.7497;1.5733;
111.3000;0.7489;1.5708;
111.6000;0.7505;1.5708;
111.9000;0.7505;1.5658;
112.2000;0.7505;1.5733;
112.5000;0.7497;1.5633;
112.8000;0.7505;1.5608;
113.1000;0.7530;1.5658;
113.4000;0.7473;1.5583;
113.7000;0.7497;1.5558;
114.0000;0.7505;1.5483;
114.3000;0.7513;1.5508;
114.6000;0.7473;1.5408;
114.9000;0.7497;1.5483;
115.2000;0.7505;1.5508;
115.5000;0.7448;1.5433;
115.8000;0.7489;1.5608;
116.1000;0.7497;1.5658;
116.4000;0.7521;1.5733;
116.7000;0.7505;1.5683;
117.0000;0.7505;1.5658;
117.3000;0.7432;1.5433;
117.6000;0.7521;1.5533;
117.9000;0.7521;1.5533;
118.2000;0.7513;1.5483;
118.5000;0.7513;1.5508;
118.8000;0.7521;1.5558;
119.1000;0.7521;1.5508;
119.4000;0.7505;1.5508;
119.7000;0.7513;1.5558;
120.0000;0.7521;1.5583;
120.3000;0.7505;1.5658;
120.6000;0.7513;1.5708;
120.9000;0.7521;1.5733;
121.2000;0.7505;1.5633;
121.5000;0.7513;1.5683;
121.8000;0.7562;1.5808;
122.1000;0.7538;1.5733;
122.4000;0.7546;1.5708;
122.7000;0.7521;1.5633;
123.0000;0.7538;1.5758;
123.3000;0.7530;1.5658;
123.6000;0.7521;1.5683;
123.9000;0.7513;1.5658;
124.2000;0.7513;1.5658;
124.5000;0.7538;1.5633;
124.8000;0.7521;1.5608;
125.1000;0.7513;1.5608;
125.4000;0.7562;1.5733;
125.7000;0.7489;1.5483;
126.0000;0.7570;1.5683;
126.3000;0.7521;1.5633;
126.6000;0.7530;1.5708;
126.9000;0.7538;1.5708;
127.2000;0.7546;1.5733;
127.5000;0.7530;1.5658;
127.8000;0.7521;1.5633;
128.1000;0.7538;1.5633;
128.4000;0.7530;1.5633;
128.7000;0.7505;1.5633;
129.0000;0.7530;1.5683;
129.3000;0.7530;1.5783;
129.6000;0.7513;1.5808;
129.9000;0.7521;1.5808;
130.2000;0.7513;1.5833;
130.5000;0.7530;1.5808;
130.8000;0.7530;1.5683;
131.1000;0.7513;1.5558;
131.4000;0.7521;1.5558;
131.7000;0.7530;1.5633;
132.0000;0.7530;1.5658;
132.3000;0.7530;1.5683;
132.6000;0.7530;1.5608;
132.9000;0.7546;1.5633;
133.2000;0.7530;1.5608;
133.5000;0.7546;1.5733;
133.8000;0.7546;1.5683;
134.1000;0.7538;1.5633;
134.4000;0.7538;1.5683;
134.7000;0.7538;1.5683;
135.0000;0.7489;1.5558;
135.3000;0.7562;1.5708;
135.6000;0.7530;1.5533;
135.9000;0.7521;1.5458;
136.2000;0.7546;1.5508;
136.5000;0.7611;1.5733;
136.8000;0.7546;1.5533;
137.1000;0.7538;1.5508;
137.4000;0.7554;1.5533;
137.7000;0.7521;1.5433;
138.0000;0.7521;1.5533;
138.3000;0.7481;1.5483;
138.6000;0.7513;1.5583;
138.9000;0.7530;1.5633;
139.2000;0.7611;1.5708;
139.5000;0.7530;1.5508;
139.8000;0.7611;1.5733;
140.1000;0.7521;1.5508;
140.4000;0.7530;1.5458;
140.7000;0.7530;1.5433;
141.0000;0.7521;1.5458;
141.3000;0.7562;1.5533;
141.6000;0.7546;1.5433;
141.9000;0.7530;1.5508;
142.2000;0.7538;1.5533;
142.5000;0.7530;1.5508;
142.8000;0.7530;1.5508;
143.1000;0.7538;1.5583;
143.4000;0.7546;1.5583;
143.7000;0.7497;1.5433;
144.0000;0.7521;1.5558;
144.3000;0.7505;1.5483;
144.6000;0.7530;1.5608;
144.9000;0.7497;1.5508;
145.2000;0.7513;1.5558;
145.5000;0.7530;1.5533;
145.8000;0.7546;1.5608;
146.1000;0.7530;1.5583;
146.4000;0.7538;1.5533;
146.7000;0.7538;1.5558;
147.0000;0.7530;1.5533;
147.3000;0.7554;1.5558;
147.6000;0.7530;1.5633;
147.9000;0.7530;1.5683;
148.2000;0.7554;1.5758;
148.5000;0.7562;1.5758;
148.8000;0.7538;1.5683;
149.1000;0.7546;1.5658;
149.4000;0.7538;1.5658;
149.7000;0.7562;1.5758;
150.0000;0.7546;1.5708;
150.3000;0.7521;1.5683;
150.6000;0.7538;1.5708;
150.9000;0.7554;1.5708;
151.2000;0.7521;1.5608;
151.5000;0.7546;1.5633;
151.8000;0.7456;1.5508;
152.1000;0.7538;1.5758;
152.4000;0.7538;1.5683;
152.7000;0.7530;1.5783;
153.0000;0.7538;1.5808;
153.3000;0.7546;1.5883;
153.6000;0.7562;1.5883;
153.9000;0.7530;1.5783;
154.2000;0.7538;1.5683;
154.5000;0.7521;1.5683;
154.8000;0.7521;1.5658;
155.1000;0.7538;1.5633;
155.4000;0.7611;1.5733;
155.7000;0.7530;1.5508;
156.0000;0.7554;1.5658;
156.3000;0.7546;1.5658;
156.6000;0.7538;1.5583;
156.9000;0.7546;1.5608;
157.2000;0.7554;1.5708;
157.5000;0.7497;1.5558;
157.8000;0.7538;1.5708;
158.1000;0.7603;1.5858;
158.4000;0.7546;1.5808;
158.7000;0.7521;1.5783;
159.0000;0.7546;1.5758;
159.3000;0.7546;1.5833;
159.6000;0.7530;1.5833;
159.9000;0.7570;1.5858;
160.2000;0.7554;1.5783;
160.5000;0.7530;1.5783;
160.8000;0.7546;1.5783;
161.1000;0.7554;1.5833;
161.4000;0.7546;1.5833;
161.7000;0.7570;1.5808;
162.0000;0.7546;1.5708;
162.3000;0.7562;1.5683;
162.6000;0.7546;1.5783;
162.9000;0.7578;1.5908;
163.2000;0.7570;1.5808;
163.5000;0.7554;1.5658;
163.8000;0.7546;1.5608;
164.1000;0.7546;1.5633;
164.4000;0.7554;1.5508;
164.7000;0.7521;1.5458;
165.0000;0.7530;1.5483;
165.3000;0.7530;1.5533;
165.6000;0.7546;1.5508;
165.9000;0.7538;1.5533;
166.2000;0.7546;1.5583;
166.5000;0.7538;1.5583;
166.8000;0.7538;1.5533;
167.1000;0.7521;1.5458;
167.4000;0.7546;1.5608;
167.7000;0.7554;1.5633;
168.0000;0.7538;1.5533;
168.3000;0.7546;1.5583;
168.6000;0.7554;1.5583;
168.9000;0.7530;1.5583;
169.2000;0.7546;1.5683;
169.5000;0.7521;1.5633;
169.8000;0.7521;1.5658;
170.1000;0.7546;1.5708;
170.4000;0.7530;1.5708;
170.7000;0.7538;1.5733;
171.0000;0.7521;1.5708;
171.3000;0.7538;1.5683;
171.6000;0.7530;1.5683;
171.9000;0.7546;1.5608;
172.2000;0.7546;1.5608;
172.5000;0.7554;1.5558;
172.8000;0.7578;1.5683;
173.1000;0.7521;1.5633;
173.4000;0.7546;1.5733;
173.7000;0.7570;1.5783;
174.0000;0.7513;1.5658;
174.3000;0.7546;1.5733;
174.6000;0.7513;1.5608;
174.9000;0.7538;1.5583;
175.2000;0.7538;1.5558;
175.5000;0.7554;1.5708;
175.8000;0.7546;1.5733;
176.1000;0.7505;1.5633;
176.4000;0.7521;1.5733;
176.7000;0.7546;1.5783;
177.0000;0.7538;1.5683;
177.3000;0.7530;1.5683;
177.6000;0.7530;1.5633;
177.9000;0.7546;1.5708;
178.2000;0.7538;1.5608;
178.5000;0.7546;1.5558;
178.8000;0.7538;1.5583;
179.1000;0.7538;1.5683;
179.4000;0.7538;1.5633;
179.7000;0.7513;1.5583;
180.0000;0.7521;1.5658;
180.3000;0.7546;1.5758;
180.6000;0.7521;1.5833;
180.9000;0.7530;1.5808;
181.2000;0.7530;1.5858;
181.5000;0.7513;1.5908;
181.8000;0.7530;1.5933;
182.1000;0.7521;1.5883;
182.4000;0.7530;1.5908;
182.7000;0.7570;1.5958;
183.0000;0.7554;1.5858;
183.3000;0.7538;1.5908;
183.6000;0.7538;1.5908;
183.9000;0.7521;1.5883;
184.2000;0.7538;1.5858;
184.5000;0.7538;1.5858;
184.8000;0.7538;1.5858;
185.1000;0.7546;1.5833;
185.4000;0.7554;1.5808;
185.7000;0.7513;1.5683;
186.0000;0.7546;1.5758;
186.3000;0.7546;1.5683;
186.6000;0.7538;1.5708;
186.9000;0.7554;1.5758;
187.2000;0.7530;1.5683;
187.5000;0.7546;1.5783;
187.8000;0.7538;1.5708;
188.1000;0.7538;1.5783;
188.4000;0.7546;1.5808;
188.7000;0.7530;1.5758;
189.0000;0.7538;1.5733;
189.3000;0.7530;1.5658;
189.6000;0.7521;1.5583;
189.9000;0.7521;1.5608;
190.2000;0.7538;1.5683;
190.5000;0.7521;1.5683;
190.8000;0.7546;1.5783;
191.1000;0.7513;1.5658;
191.4000;0.7521;1.5708;
191.7000;0.7497;1.5708;
192.0000;0.7521;1.5783;
192.3000;0.7521;1.5808;
192.6000;0.7505;1.5733;
192.9000;0.7521;1.5858;
193.2000;0.7538;1.5858;
193.5000;0.7530;1.5758;
193.8000;0.7513;1.5708;
194.1000;0.7546;1.5758;
194.4000;0.7497;1.5583;
194.7000;0.7538;1.5758;
195.0000;0.7530;1.5733;
195.3000;0.7530;1.5808;
195.6000;0.7530;1.5758;
195.9000;0.7521;1.5808;
196.2000;0.7521;1.5783;
196.5000;0.7538;1.5708;
196.8000;0.7505;1.5508;
197.1000;0.7538;1.5658;
197.4000;0.7530;1.5658;
197.7000;0.7521;1.5583;
198.0000;0.7521;1.5708;
198.3000;0.7530;1.5808;
198.6000;0.7538;1.5833;
198.9000;0.7505;1.5708;
199.2000;0.7513;1.5733;
199.5000;0.7530;1.5833;
199.8000;0.7530;1.5808;
200.1000;0.7489;1.5783;
200.4000;0.7521;1.5808;
200.7000;0.7538;1.5833;
201.0000;0.7521;1.5833;
201.3000;0.7513;1.5933;
201.6000;0.7513;1.5908;
201.9000;0.7521;1.5908;
202.2000;0.7521;1.5983;
202.5000;0.7521;1.5858;
202.8000;0.7521;1.5833;
203.1000;0.7530;1.5858;
203.4000;0.7530;1.5908;
203.7000;0.7530;1.5908;
204.0000;0.7521;1.5908;
204.3000;0.7546;1.5833;
204.6000;0.7554;1.5858;
204.9000;0.7546;1.5908;
205.2000;0.7530;1.5883;
205.5000;0.7521;1.5908;
205.8000;0.7530;1.5833;
206.1000;0.7530;1.5783;
206.4000;0.7530;1.5758;
206.7000;0.7530;1.5808;
207.0000;0.7530;1.5833;
207.3000;0.7497;1.5758;
207.6000;0.7521;1.5783;
207.9000;0.7513;1.5783;
208.2000;0.7546;1.5808;
208.5000;0.7530;1.5733;
208.8000;0.7538;1.5758;
209.1000;0.7530;1.5683;
209.4000;0.7513;1.5683;
209.7000;0.7562;1.5783;
210.0000;0.7521;1.5808;
210.3000;0.7570;1.5933;
210.6000;0.7513;1.5783;
210.9000;0.7530;1.5733;
211.2000;0.7530;1.5808;
211.5000;0.7513;1.5783;
211.8000;0.7546;1.5883;
212.1000;0.7513;1.5858;
212.4000;0.7513;1.5783;
212.7000;0.7464;1.5758;
213.0000;0.7530;1.5958;
213.3000;0.7521;1.5958;
213.6000;0.7530;1.5958;
213.9000;0.7513;1.5883;
214.2000;0.7505;1.5883;
214.5000;0.7521;1.5933;
214.8000;0.7521;1.6008;
215.1000;0.7530;1.6008;
215.4000;0.7530;1.5983;
215.7000;0.7521;1.5983;
216.0000;0.7497;1.5983;
216.3000;0.7530;1.6108;
216.6000;0.7521;1.6133;
216.9000;0.7530;1.6108;
217.2000;0.7546;1.6108;
217.5000;0.7530;1.6008;
217.8000;0.7530;1.6008;
218.1000;0.7505;1.5908;
218.4000;0.7513;1.5983;
218.7000;0.7530;1.6008;
219.0000;0.7481;1.5858;
219.3000;0.7554;1.5958;
219.6000;0.7505;1.5883;
219.9000;0.7505;1.5933;
220.2000;0.7530;1.5958;
220.5000;0.7521;1.5908;
220.8000;0.7513;1.5908;
221.1000;0.7546;1.5958;
221.4000;0.7497;1.5808;
221.7000;0.7513;1.5883;
222.0000;0.7513;1.5833;
222.3000;0.7513;1.5883;
222.6000;0.7513;1.5933;
222.9000;0.7554;1.6033;
223.2000;0.7505;1.5908;
223.5000;0.7513;1.5908;
223.8000;0.7513;1.6008;
224.1000;0.7513;1.6033;
224.4000;0.7530;1.5983;
224.7000;0.7530;1.5883;
225.0000;0.7521;1.5808;
225.3000;0.7554;1.5858;
225.6000;0.7521;1.5833;
225.9000;0.7505;1.5908;
226.2000;0.7521;1.6008;
226.5000;0.7513;1.5958;
226.8000;0.7513;1.5933;
227.1000;0.7521;1.5858;
227.4000;0.7505;1.5958;
227.7000;0.7497;1.6033;
228.0000;0.7505;1.6033;
228.3000;0.7530;1.6108;
228.6000;0.7513;1.6058;
228.9000;0.7513;1.6058;
229.2000;0.7538;1.5958;
229.5000;0.7513;1.5883;
229.8000;0.7513;1.5883;
230.1000;0.7530;1.5858;
230.4000;0.7513;1.5808;
230.7000;0.7505;1.5808;
231.0000;0.7513;1.5783;
231.3000;0.7505;1.5733;
231.6000;0.7538;1.5783;
231.9000;0.7505;1.5658;
232.2000;0.7521;1.5683;
232.5000;0.7456;1.5433;
232.8000;0.7497;1.5633;
233.1000;0.7521;1.5733;
233.4000;0.7497;1.5833;
233.7000;0.7505;1.5808;
234.0000;0.7546;1.5858;
234.3000;0.7497;1.5858;
234.6000;0.7554;1.6033;
234.9000;0.7554;1.6108;
235.2000;0.7521;1.6033;
235.5000;0.7505;1.6008;
235.8000;0.7448;1.5808;
236.1000;0.7513;1.6008;
236.4000;0.7513;1.6033;
236.7000;0.7521;1.6108;
237.0000;0.7513;1.6083;
237.3000;0.7513;1.6033;
237.6000;0.7521;1.6008;
237.9000;0.7530;1.6058;
238.2000;0.7505;1.6058;
238.5000;0.7521;1.6008;
238.8000;0.7505;1.5958;
239.1000;0.7513;1.5933;
239.4000;0.7505;1.5983;
239.7000;0.7505;1.6033;
240.0000;0.7513;1.6058;
240.3000;0.7521;1.6133;
240.6000;0.7513;1.6083;
240.9000;0.7513;1.6108;
241.2000;0.7505;1.6033;
241.5000;0.7513;1.6008;
241.8000;0.7481;1.5908;
242.1000;0.7489;1.6008;
242.4000;0.7497;1.6008;
242.7000;0.7513;1.6033;
243.0000;0.7521;1.6133;
243.3000;0.7562;1.6207;
243.6000;0.7513;1.6108;
243.9000;0.7473;1.6033;
244.2000;0.7513;1.6133;
244.5000;0.7513;1.6108;
244.8000;0.7505;1.6083;
245.1000;0.7505;1.6108;
245.4000;0.7416;1.5908;
245.7000;0.7521;1.6157;
246.0000;0.7513;1.6108;
246.3000;0.7497;1.5983;
246.6000;0.7505;1.6083;
246.9000;0.7505;1.6033;
247.2000;0.7505;1.6033;
247.5000;0.7505;1.5933;
247.8000;0.7505;1.6008;
248.1000;0.7505;1.6033;
248.4000;0.7505;1.6033;
248.7000;0.7505;1.6033;
249.0000;0.7530;1.6008;
249.3000;0.7513;1.5933;
249.6000;0.7513;1.5883;
249.9000;0.7505;1.5858;
250.2000;0.7505;1.5858;
250.5000;0.7513;1.5933;
250.8000;0.7530;1.5958;
251.1000;0.7521;1.5958;
251.4000;0.7505;1.5883;
251.7000;0.7513;1.5958;
252.0000;0.7505;1.5933;
252.3000;0.7497;1.5883;
252.6000;0.7505;1.5908;
252.9000;0.7513;1.5858;
253.2000;0.7546;1.5958;
253.5000;0.7497;1.5908;
253.8000;0.7513;1.5933;
254.1000;0.7489;1.5883;
254.4000;0.7489;1.5958;
254.7000;0.7513;1.6008;
255.0000;0.7497;1.5908;
255.3000;0.7521;1.5983;
255.6000;0.7497;1.5933;
255.9000;0.7497;1.5908;
256.2000;0.7489;1.5883;
256.5000;0.7505;1.5933;
256.8000;0.7530;1.5958;
257.1000;0.7497;1.5858;
257.4000;0.7497;1.5883;
257.7000;0.7473;1.5808;
258.0000;0.7578;1.6108;
258.3000;0.7505;1.5833;
258.6000;0.7448;1.5708;
258.9000;0.7505;1.5908;
259.2000;0.7497;1.5933;
259.5000;0.7513;1.5958;
259.8000;0.7448;1.5783;
260.1000;0.7489;1.5883;
260.4000;0.7513;1.5908;
260.7000;0.7489;1.5858;
261.0000;0.7448;1.5758;
261.3000;0.7432;1.5733;
261.6000;0.7489;1.5933;
261.9000;0.7489;1.5958;
262.2000;0.7513;1.6008;
262.5000;0.7497;1.5958;
262.8000;0.7440;1.5783;
263.1000;0.7489;1.6033;
263.4000;0.7489;1.5983;
263.7000;0.7497;1.5958;
264.0000;0.7497;1.5883;
264.3000;0.7530;1.6033;
264.6000;0.7530;1.6058;
264.9000;0.7505;1.6058;
265.2000;0.7505;1.6083;
265.5000;0.7497;1.6033;
265.8000;0.7481;1.5933;
266.1000;0.7481;1.5933;
266.4000;0.7489;1.5958;
266.7000;0.7424;1.5883;
267.0000;0.7513;1.6058;
267.3000;0.7489;1.5983;
267.6000;0.7440;1.5833;
267.9000;0.7497;1.5958;
268.2000;0.7497;1.5983;
268.5000;0.7497;1.5958;
268.8000;0.7416;1.5708;
269.1000;0.7489;1.5808;
269.4000;0.7481;1.5758;
269.7000;0.7497;1.5858;
270.0000;0.7497;1.5933;
270.3000;0.7481;1.5883;
270.6000;0.7505;1.5858;
270.9000;0.7554;1.5983;
271.2000;0.7505;1.5808;
271.5000;0.7489;1.5733;
271.8000;0.7489;1.5683;
272.1000;0.7505;1.5783;
272.4000;0.7513;1.5758;
272.7000;0.7481;1.5708;
273.0000;0.7497;1.5783;
273.3000;0.7481;1.5783;
273.6000;0.7481;1.5808;
273.9000;0.7489;1.5908;
274.2000;0.7538;1.6133;
274.5000;0.7481;1.5983;
274.8000;0.7497;1.6008;
275.1000;0.7497;1.6033;
275.4000;0.7473;1.6033;
275.7000;0.7497;1.6083;
276.0000;0.7497;1.6108;
276.3000;0.7489;1.6108;
276.6000;0.7505;1.6182;
276.9000;0.7497;1.6157;
277.2000;0.7489;1.6232;
277.5000;0.7489;1.6108;
277.8000;0.7481;1.6232;
278.1000;0.7497;1.6207;
278.4000;0.7489;1.6207;
278.7000;0.7489;1.6182;
279.0000;0.7473;1.6157;
279.3000;0.7473;1.6108;
279.6000;0.7505;1.6157;
279.9000;0.7481;1.6033;
280.2000;0.7505;1.6058;
280.5000;0.7481;1.5983;
280.8000;0.7505;1.6033;
281.1000;0.7489;1.6083;
281.4000;0.7513;1.6133;
281.7000;0.7473;1.6083;
282.0000;0.7489;1.6133;
282.3000;0.7489;1.6182;
282.6000;0.7489;1.6232;
282.9000;0.7497;1.6257;
283.2000;0.7473;1.6307;
283.5000;0.7489;1.6307;
283.8000;0.7546;1.6357;
284.1000;0.7481;1.6257;
284.4000;0.7481;1.6182;
284.7000;0.7489;1.6157;
285.0000;0.7513;1.6332;
285.3000;0.7481;1.6133;
285.6000;0.7464;1.6008;
285.9000;0.7497;1.6033;
286.2000;0.7513;1.6108;
286.5000;0.7448;1.6058;
286.8000;0.7473;1.6058;
287.1000;0.7481;1.6008;
287.4000;0.7481;1.6033;
287.7000;0.7456;1.6033;
288.0000;0.7464;1.6058;
288.3000;0.7464;1.6033;
288.6000;0.7456;1.6008;
288.9000;0.7489;1.6058;
289.2000;0.7489;1.6083;
289.5000;0.7448;1.6033;
289.8000;0.7464;1.6083;
290.1000;0.7481;1.6083;
290.4000;0.7489;1.6033;
290.7000;0.7481;1.6033;
291.0000;0.7473;1.6083;
291.3000;0.7473;1.6058;
291.6000;0.7481;1.6083;
291.9000;0.7481;1.6033;
292.2000;0.7489;1.6133;
292.5000;0.7489;1.6108;
292.8000;0.7489;1.6033;
293.1000;0.7497;1.6033;
293.4000;0.7489;1.6008;
293.7000;0.7489;1.6008;
294.0000;0.7505;1.6008;
294.3000;0.7464;1.5983;
294.6000;0.7473;1.6058;
294.9000;0.7489;1.6157;
295.2000;0.7562;1.6382;
295.5000;0.7489;1.6232;
295.8000;0.7489;1.6232;
296.1000;0.7481;1.6182;
296.4000;0.7521;1.6207;
296.7000;0.7505;1.6133;
297.0000;0.7489;1.6058;
297.3000;0.7464;1.5983;
297.6000;0.7481;1.6133;
297.9000;0.7481;1.6157;
298.2000;0.7473;1.6157;
298.5000;0.7464;1.6083;
298.8000;0.7481;1.6108;
299.1000;0.7473;1.6108;
299.4000;0.7481;1.6033;
299.7000;0.7456;1.5933;
300.0000;0.7456;1.5933;
300.3000;0.7497;1.6008;
300.6000;0.7497;1.5933;
300.9000;0.7481;1.5833;
301.2000;0.7464;1.5933;
301.5000;0.7497;1.6133;
301.8000;0.7456;1.6008;
302.1000;0.7530;1.6182;
302.4000;0.7497;1.6157;
302.7000;0.7481;1.6108;
303.0000;0.7505;1.6133;
303.3000;0.7481;1.6008;
303.6000;0.7473;1.6058;
303.9000;0.7473;1.6033;
304.2000;0.7481;1.6033;
304.5000;0.7489;1.6008;
304.8000;0.7464;1.6058;
305.1000;0.7473;1.6133;
305.4000;0.7440;1.5958;
305.7000;0.7481;1.6058;
306.0000;0.7473;1.6058;
306.3000;0.7473;1.6108;
306.6000;0.7481;1.6182;
306.9000;0.7489;1.6207;
307.2000;0.7481;1.6232;
307.5000;0.7432;1.6133;
307.8000;0.7489;1.6207;
308.1000;0.7481;1.6257;
308.4000;0.7464;1.6232;
308.7000;0.7481;1.6282;
309.0000;0.7489;1.6257;
309.3000;0.7473;1.6282;
309.6000;0.7473;1.6307;
309.9000;0.7456;1.6282;
310.2000;0.7464;1.6232;
310.5000;0.7481;1.6207;
310.8000;0.7464;1.6182;
311.1000;0.7456;1.6133;
311.4000;0.7489;1.6232;
311.7000;0.7481;1.6182;
312.0000;0.7473;1.6108;
312.3000;0.7481;1.6108;
312.6000;0.7456;1.6108;
312.9000;0.7497;1.6257;
313.2000;0.7473;1.6207;
313.5000;0.7473;1.6182;
313.8000;0.7473;1.6207;
314.1000;0.7464;1.6157;
314.4000;0.7464;1.6108;
314.7000;0.7416;1.5983;
315.0000;0.7497;1.6232;
315.3000;0.7464;1.6232;
315.6000;0.7456;1.6282;
315.9000;0.7473;1.6282;
316.2000;0.7464;1.6207;
316.5000;0.7456;1.6133;
316.8000;0.7473;1.6157;
317.1000;0.7481;1.6083;
317.4000;0.7481;1.6058;
317.7000;0.7473;1.5933;
318.0000;0.7432;1.5833;
318.3000;0.7473;1.6058;
318.6000;0.7456;1.6058;
318.9000;0.7473;1.6083;
319.2000;0.7489;1.6058;
319.5000;0.7489;1.6033;
319.8000;0.7481;1.5958;
320.1000;0.7473;1.5958;
320.4000;0.7464;1.6008;
320.7000;0.7464;1.6008;
321.0000;0.7473;1.6108;
321.3000;0.7497;1.6157;
321.6000;0.7456;1.6108;
321.9000;0.7481;1.6157;
322.2000;0.7464;1.6108;
322.5000;0.7473;1.6083;
322.8000;0.7489;1.6133;
323.1000;0.7473;1.6133;
323.4000;0.7473;1.6133;
323.7000;0.7473;1.6083;
324.0000;0.7481;1.6133;
324.3000;0.7464;1.6157;
324.6000;0.7538;1.6357;
324.9000;0.7464;1.6108;
325.2000;0.7424;1.6008;
325.5000;0.7440;1.6083;
325.8000;0.7456;1.6207;
326.1000;0.7464;1.6257;
326.4000;0.7505;1.6307;
326.7000;0.7473;1.6232;
327.0000;0.7473;1.6133;
327.3000;0.7456;1.6083;
327.6000;0.7424;1.6033;
327.9000;0.7448;1.6008;
328.2000;0.7448;1.5983;
328.5000;0.7473;1.6058;
328.8000;0.7497;1.6108;
329.1000;0.7464;1.6058;
329.4000;0.7424;1.5958;
329.7000;0.7464;1.6133;
330.0000;0.7473;1.6182;
330.3000;0.7513;1.6307;
330.6000;0.7505;1.6282;
330.9000;0.7464;1.6133;
331.2000;0.7513;1.6257;
331.5000;0.7497;1.6207;
331.8000;0.7448;1.6083;
332.1000;0.7489;1.6232;
332.4000;0.7481;1.6207;
332.7000;0.7464;1.6108;
333.0000;0.7497;1.6133;
333.3000;0.7456;1.5983;
333.6000;0.7489;1.5983;
333.9000;0.7521;1.6133;
334.2000;0.7464;1.5933;
334.5000;0.7456;1.5908;
334.8000;0.7521;1.6133;
335.1000;0.7481;1.6033;
335.4000;0.7448;1.6008;
335.7000;0.7448;1.5958;
336.0000;0.7464;1.6008;
336.3000;0.7464;1.5983;
336.6000;0.7448;1.5958;
336.9000;0.7448;1.5958;
337.2000;0.7448;1.5958;
337.5000;0.7456;1.5983;
337.8000;0.7448;1.5933;
338.1000;0.7448;1.5933;
338.4000;0.7456;1.5933;
338.7000;0.7464;1.5908;
339.0000;0.7407;1.5808;
339.3000;0.7464;1.5883;
339.6000;0.7448;1.5758;
339.9000;0.7473;1.5783;
340.2000;0.7464;1.5783;
340.5000;0.7464;1.5783;
340.8000;0.7448;1.5858;
341.1000;0.7456;1.5883;
341.4000;0.7456;1.5833;
341.7000;0.7456;1.5783;
342.0000;0.7448;1.5783;
342.3000;0.7473;1.5833;
342.6000;0.7448;1.5833;
342.9000;0.7464;1.5883;
343.2000;0.7456;1.5983;
343.5000;0.7456;1.6033;
343.8000;0.7473;1.6033;
344.1000;0.7473;1.6083;
344.4000;0.7464;1.6083;
344.7000;0.7448;1.5983;
345.0000;0.7473;1.6033;
345.3000;0.7481;1.6008;
345.6000;0.7464;1.5958;
345.9000;0.7473;1.6083;
346.2000;0.7448;1.6033;
346.5000;0.7448;1.5958;
346.8000;0.7440;1.5958;
347.1000;0.7456;1.6008;
347.4000;0.7464;1.6008;
347.7000;0.7448;1.5983;
348.0000;0.7464;1.6083;
348.3000;0.7464;1.6058;
348.6000;0.7456;1.6058;
348.9000;0.7481;1.6157;
349.2000;0.7456;1.6033;
349.5000;0.7456;1.6108;
349.8000;0.7456;1.6133;
350.1000;0.7456;1.6133;
350.4000;0.7440;1.6108;
350.7000;0.7424;1.6058;
351.0000;0.7448;1.6058;
351.3000;0.7456;1.6083;
351.6000;0.7407;1.5983;
351.9000;0.7456;1.6008;
352.2000;0.7448;1.5983;
352.5000;0.7440;1.5933;
352.8000;0.7473;1.6083;
353.1000;0.7464;1.6008;
353.4000;0.7464;1.5933;
353.7000;0.7473;1.5883;
354.0000;0.7489;1.5858;
354.3000;0.7473;1.5833;
354.6000;0.7456;1.5808;
354.9000;0.7481;1.5833;
355.2000;0.7456;1.5808;
355.5000;0.7456;1.5733;
355.8000;0.7448;1.5808;
356.1000;0.7448;1.5883;
356.4000;0.7424;1.5883;
356.7000;0.7456;1.5958;
357.0000;0.7456;1.5908;
357.3000;0.7424;1.5833;
357.6000;0.7456;1.5933;
357.9000;0.7530;1.6157;
358.2000;0.7456;1.5908;
358.5000;0.7554;1.6232;
358.8000;0.7464;1.6083;
359.1000;0.7448;1.6083;
359.4000;0.7464;1.6083;
359.7000;0.7481;1.5983;
360.0000;0.7432;1.5933;
360.3000;0.7464;1.6008;
360.6000;0.7456;1.5933;
360.9000;0.7473;1.5958;
361.2000;0.7448;1.5933;
361.5000;0.7464;1.5983;
361.8000;0.7473;1.5983;
362.1000;0.7473;1.5958;
362.4000;0.7473;1.6008;
362.7000;0.7464;1.6058;
363.0000;0.7464;1.6058;
363.3000;0.7456;1.6108;
363.6000;0.7456;1.6108;
363.9000;0.7448;1.6157;
364.2000;0.7464;1.6182;
364.5000;0.7464;1.6232;
364.8000;0.7464;1.6282;
365.1000;0.7456;1.6207;
365.4000;0.7473;1.6282;
365.7000;0.7456;1.6207;
366.0000;0.7448;1.6157;
366.3000;0.7481;1.6232;
366.6000;0.7464;1.6157;
366.9000;0.7456;1.6058;
367.2000;0.7456;1.5958;
367.5000;0.7464;1.5933;
367.8000;0.7464;1.5958;
368.1000;0.7464;1.6008;
368.4000;0.7473;1.5983;
368.7000;0.7456;1.5983;
369.0000;0.7464;1.6033;
369.3000;0.7464;1.6008;
369.6000;0.7489;1.6033;
369.9000;0.7448;1.6058;
370.2000;0.7440;1.6008;
370.5000;0.7456;1.6083;
370.8000;0.7448;1.6033;
371.1000;0.7424;1.5933;
371.4000;0.7448;1.6008;
371.7000;0.7456;1.6083;
372.0000;0.7448;1.6133;
372.3000;0.7513;1.6232;
372.6000;0.7456;1.6033;
372.9000;0.7440;1.6033;
373.2000;0.7456;1.6157;
373.5000;0.7473;1.6207;
373.8000;0.7497;1.6182;
374.1000;0.7464;1.5983;
374.4000;0.7481;1.6133;
374.7000;0.7456;1.6182;
375.0000;0.7456;1.6282;
375.3000;0.7464;1.6307;
375.6000;0.7407;1.6157;
375.9000;0.7464;1.6257;
376.2000;0.7473;1.6257;
376.5000;0.7464;1.6207;
376.8000;0.7424;1.6108;
377.1000;0.7456;1.6207;
377.4000;0.7456;1.6133;
377.7000;0.7448;1.6182;
378.0000;0.7473;1.6257;
378.3000;0.7538;1.6457;
378.6000;0.7456;1.6232;
378.9000;0.7407;1.6108;
379.2000;0.7473;1.6232;
379.5000;0.7456;1.6157;
379.8000;0.7456;1.6182;
380.1000;0.7456;1.6182;
380.4000;0.7440;1.6083;
380.7000;0.7456;1.6058;
381.0000;0.7424;1.6083;
381.3000;0.7440;1.6133;
381.6000;0.7448;1.6133;
381.9000;0.7505;1.6357;
382.2000;0.7416;1.6108;
382.5000;0.7424;1.6108;
382.8000;0.7448;1.6108;
383.1000;0.7464;1.6133;
383.4000;0.7448;1.6182;
383.7000;0.7440;1.6207;
384.0000;0.7456;1.6182;
384.3000;0.7432;1.6232;
384.6000;0.7448;1.6232;
384.9000;0.7448;1.6207;
385.2000;0.7424;1.6133;
385.5000;0.7440;1.6157;
385.8000;0.7448;1.6157;
386.1000;0.7448;1.6182;
386.4000;0.7464;1.6182;
386.7000;0.7432;1.6157;
387.0000;0.7440;1.6033;
387.3000;0.7440;1.6108;
387.6000;0.7448;1.6182;
387.9000;0.7432;1.6108;
388.2000;0.7448;1.6133;
388.5000;0.7456;1.6157;
388.8000;0.7440;1.6182;
389.1000;0.7481;1.6257;
389.4000;0.7448;1.6133;
389.7000;0.7456;1.6133;
390.0000;0.7416;1.6008;
390.3000;0.7440;1.6083;
390.6000;0.7440;1.6058;
390.9000;0.7448;1.6058;
391.2000;0.7448;1.5983;
391.5000;0.7473;1.6008;
391.8000;0.7456;1.5933;
392.1000;0.7448;1.5958;
392.4000;0.7448;1.6033;
392.7000;0.7448;1.5958;
393.0000;0.7530;1.6133;
393.3000;0.7440;1.5958;
393.6000;0.7424;1.6033;
393.9000;0.7456;1.6083;
394.2000;0.7440;1.6157;
394.5000;0.7416;1.6182;
394.8000;0.7456;1.6257;
395.1000;0.7448;1.6207;
395.4000;0.7432;1.6157;
395.7000;0.7440;1.6083;
396.0000;0.7448;1.6058;
396.3000;0.7432;1.6033;
396.6000;0.7448;1.6033;
396.9000;0.7432;1.5983;
397.2000;0.7432;1.6083;
397.5000;0.7448;1.6157;
397.8000;0.7424;1.6058;
398.1000;0.7424;1.6083;
398.4000;0.7440;1.6232;
398.7000;0.7481;1.6382;
399.0000;0.7481;1.6307;
399.3000;0.7416;1.6207;
399.6000;0.7448;1.6307;
399.9000;0.7456;1.6332;
400.2000;0.7456;1.6257;
400.5000;0.7440;1.6232;
400.8000;0.7456;1.6207;
401.1000;0.7432;1.6033;
401.4000;0.7473;1.6182;
401.7000;0.7448;1.6108;
402.0000;0.7440;1.6058;
402.3000;0.7424;1.6133;
402.6000;0.7424;1.6108;
402.9000;0.7440;1.6108;
403.2000;0.7432;1.6133;
403.5000;0.7440;1.6182;
403.8000;0.7456;1.6257;
404.1000;0.7448;1.6207;
404.4000;0.7448;1.6257;
404.7000;0.7432;1.6207;
405.0000;0.7456;1.6207;
405.3000;0.7448;1.6307;
405.6000;0.7383;1.6182;
405.9000;0.7464;1.6382;
406.2000;0.7432;1.6282;
406.5000;0.7448;1.6332;
406.8000;0.7432;1.6282;
407.1000;0.7432;1.6257;
407.4000;0.7416;1.6357;
407.7000;0.7432;1.6407;
408.0000;0.7440;1.6307;
408.3000;0.7407;1.6157;
408.6000;0.7432;1.6182;
408.9000;0.7432;1.6207;
409.2000;0.7497;1.6357;
409.5000;0.7440;1.6108;
409.8000;0.7440;1.6133;
410.1000;0.7464;1.6182;
410.4000;0.7448;1.6182;
410.7000;0.7456;1.6133;
411.0000;0.7440;1.5983;
411.3000;0.7432;1.5983;
411.6000;0.7424;1.6033;
411.9000;0.7416;1.6008;
412.2000;0.7440;1.6133;
412.5000;0.7432;1.6108;
412.8000;0.7391;1.6033;
413.1000;0.7448;1.6207;
413.4000;0.7440;1.6182;
413.7000;0.7383;1.6108;
414.0000;0.7432;1.6282;
414.3000;0.7440;1.6282;
414.6000;0.7440;1.6257;
414.9000;0.7424;1.6182;
415.2000;0.7440;1.6207;
415.5000;0.7448;1.6182;
415.8000;0.7424;1.6182;
416.1000;0.7448;1.6207;
416.4000;0.7424;1.6157;
416.7000;0.7432;1.6182;
417.0000;0.7432;1.6108;
417.3000;0.7424;1.6033;
417.6000;0.7432;1.6083;
417.9000;0.7448;1.6157;
418.2000;0.7432;1.6083;
418.5000;0.7432;1.6083;
418.8000;0.7424;1.5983;
419.1000;0.7440;1.6008;
419.4000;0.7440;1.6008;
419.7000;0.7448;1.6083;
420.0000;0.7440;1.5983;
420.3000;0.7432;1.6008;
420.6000;0.7375;1.5883;
420.9000;0.7432;1.6008;
421.2000;0.7440;1.6108;
421.5000;0.7448;1.6182;
421.8000;0.7513;1.6332;
422.1000;0.7432;1.6182;
422.4000;0.7424;1.6182;
422.7000;0.7424;1.6182;
423.0000;0.7432;1.6182;
423.3000;0.7407;1.6157;
423.6000;0.7416;1.6157;
423.9000;0.7375;1.6058;
424.2000;0.7432;1.6083;
424.5000;0.7424;1.6008;
424.8000;0.7464;1.6058;
425.1000;0.7440;1.5958;
425.4000;0.7440;1.6058;
425.7000;0.7432;1.6033;
426.0000;0.7464;1.6108;
426.3000;0.7424;1.6083;
426.6000;0.7416;1.6033;
426.9000;0.7391;1.6008;
427.2000;0.7432;1.6083;
427.5000;0.7416;1.6033;
427.8000;0.7391;1.5958;
428.1000;0.7432;1.6033;
428.4000;0.7432;1.6033;
428.7000;0.7424;1.6033;
429.0000;0.7424;1.6083;
429.3000;0.7432;1.6108;
429.6000;0.7432;1.6033;
429.9000;0.7440;1.6058;
430.2000;0.7424;1.6058;
430.5000;0.7432;1.6008;
430.8000;0.7432;1.6033;
431.1000;0.7424;1.6008;
431.4000;0.7416;1.6033;
431.7000;0.7424;1.6033;
432.0000;0.7456;1.6083;
432.3000;0.7440;1.6133;
432.6000;0.7416;1.6033;
432.9000;0.7473;1.6157;
433.2000;0.7432;1.6108;
433.5000;0.7440;1.6108;
433.8000;0.7424;1.6083;
434.1000;0.7424;1.6033;
434.4000;0.7424;1.6058;
434.7000;0.7440;1.6058;
435.0000;0.7432;1.5958;
435.3000;0.7424;1.5958;
435.6000;0.7432;1.6058;
435.9000;0.7432;1.6033;
436.2000;0.7424;1.5958;
436.5000;0.7424;1.5933;
436.8000;0.7432;1.6008;
437.1000;0.7432;1.6083;
437.4000;0.7424;1.6133;
437.7000;0.7383;1.6083;
438.0000;0.7407;1.6058;
438.3000;0.7416;1.6058;
438.6000;0.7424;1.6182;
438.9000;0.7416;1.6207;
439.2000;0.7416;1.6282;
439.5000;0.7448;1.6307;
439.8000;0.7432;1.6282;
440.1000;0.7424;1.6182;
440.4000;0.7367;1.5958;
440.7000;0.7456;1.6207;
441.0000;0.7440;1.6182;
441.3000;0.7424;1.6083;
441.6000;0.7432;1.6058;
441.9000;0.7432;1.6157;
442.2000;0.7456;1.6157;
442.5000;0.7440;1.6182;
442.8000;0.7432;1.6133;
443.1000;0.7416;1.6133;
443.4000;0.7432;1.6157;
443.7000;0.7424;1.6257;
444.0000;0.7416;1.6282;
444.3000;0.7424;1.6257;
444.6000;0.7407;1.6257;
444.9000;0.7432;1.6232;
445.2000;0.7424;1.6282;
445.5000;0.7432;1.6382;
445.8000;0.7432;1.6357;
446.1000;0.7440;1.6332;
446.4000;0.7505;1.6532;
446.7000;0.7407;1.6282;
447.0000;0.7416;1.6257;
447.3000;0.7424;1.6307;
447.6000;0.7456;1.6357;
447.9000;0.7350;1.6083;
448.2000;0.7391;1.6083;
448.5000;0.7424;1.6058;
448.8000;0.7432;1.6108;
449.1000;0.7416;1.6133;
449.4000;0.7407;1.6133;
449.7000;0.7432;1.6282;
450.0000;0.7489;1.6407;
450.3000;0.7424;1.6207;
450.6000;0.7432;1.6207;
450.9000;0.7424;1.6232;
451.2000;0.7407;1.6133;
451.5000;0.7383;1.6133;
451.8000;0.7440;1.6332;
452.1000;0.7424;1.6357;
452.4000;0.7448;1.6457;
452.7000;0.7424;1.6407;
453.0000;0.7424;1.6407;
453.3000;0.7375;1.6282;
453.6000;0.7407;1.6382;
453.9000;0.7432;1.6507;
454.2000;0.7359;1.6382;
454.5000;0.7432;1.6507;
454.8000;0.7440;1.6582;
455.1000;0.7416;1.6557;
455.4000;0.7407;1.6582;
455.7000;0.7424;1.6607;
456.0000;0.7440;1.6582;
456.3000;0.7432;1.6632;
456.6000;0.7448;1.6632;
456.9000;0.7440;1.6607;
457.2000;0.7432;1.6482;
457.5000;0.7375;1.6332;
457.8000;0.7416;1.6382;
458.1000;0.7391;1.6407;
458.4000;0.7424;1.6507;
458.7000;0.7464;1.6582;
459.0000;0.7407;1.6457;
459.3000;0.7432;1.6507;
459.6000;0.7424;1.6457;
459.9000;0.7416;1.6382;
460.2000;0.7424;1.6382;
460.5000;0.7424;1.6382;
460.8000;0.7407;1.6257;
461.1000;0.7399;1.6307;
461.4000;0.7416;1.6357;
461.7000;0.7456;1.6457;
462.0000;0.7416;1.6357;
462.3000;0.7416;1.6357;
462.6000;0.7424;1.6382;
462.9000;0.7432;1.6407;
463.2000;0.7473;1.6532;
463.5000;0.7407;1.6307;
463.8000;0.7416;1.6332;
464.1000;0.7424;1.6382;
464.4000;0.7399;1.6232;
464.7000;0.7399;1.6232;
465.0000;0.7416;1.6282;
465.3000;0.7424;1.6307;
465.6000;0.7456;1.6382;
465.9000;0.7399;1.6232;
466.2000;0.7440;1.6282;
466.5000;0.7407;1.6257;
466.8000;0.7424;1.6257;
467.1000;0.7416;1.6282;
467.4000;0.7456;1.6432;
467.7000;0.7432;1.6307;
468.0000;0.7432;1.6332;
468.3000;0.7407;1.6332;
468.6000;0.7416;1.6382;
468.9000;0.7424;1.6432;
469.2000;0.7407;1.6282;
469.5000;0.7440;1.6382;
469.8000;0.7391;1.6282;
470.1000;0.7391;1.6357;
470.4000;0.7416;1.6407;
470.7000;0.7399;1.6407;
471.0000;0.7383;1.6432;
471.3000;0.7424;1.6532;
471.6000;0.7432;1.6557;
471.9000;0.7473;1.6632;
472.2000;0.7416;1.6432;
472.5000;0.7416;1.6332;
472.8000;0.7497;1.6457;
473.1000;0.7399;1.6307;
473.4000;0.7375;1.6207;
473.7000;0.7407;1.6257;
474.0000;0.7448;1.6382;
474.3000;0.7391;1.6232;
474.6000;0.7391;1.6257;
474.9000;0.7391;1.6108;
475.2000;0.7399;1.6133;
475.5000;0.7416;1.6157;
475.8000;0.7399;1.6133;
476.1000;0.7407;1.6133;
476.4000;0.7391;1.6133;
476.7000;0.7407;1.6232;
477.0000;0.7416;1.6207;
477.3000;0.7432;1.6182;
477.6000;0.7424;1.6257;
477.9000;0.7416;1.6357;
478.2000;0.7399;1.6282;
478.5000;0.7416;1.6232;
478.8000;0.7424;1.6382;
479.1000;0.7432;1.6357;
479.4000;0.7407;1.6232;
479.7000;0.7416;1.6232;
480.0000;0.7342;1.6207;
480.3000;0.7399;1.6407;
480.6000;0.7399;1.6407;
480.9000;0.7399;1.6357;
481.2000;0.7464;1.6557;
481.5000;0.7424;1.6457;
481.8000;0.7432;1.6357;
482.1000;0.7375;1.6182;
482.4000;0.7407;1.6332;
482.7000;0.7416;1.6282;
483.0000;0.7416;1.6307;
483.3000;0.7407;1.6332;
483.6000;0.7424;1.6307;
483.9000;0.7407;1.6257;
484.2000;0.7416;1.6307;
484.5000;0.7440;1.6307;
484.8000;0.7399;1.6157;
485.1000;0.7416;1.6257;
485.4000;0.7416;1.6382;
485.7000;0.7416;1.6457;
486.0000;0.7424;1.6482;
486.3000;0.7407;1.6432;
486.6000;0.7416;1.6482;
486.9000;0.7416;1.6482;
487.2000;0.7432;1.6332;
487.5000;0.7407;1.6332;
487.8000;0.7416;1.6332;
488.1000;0.7416;1.6357;
488.4000;0.7432;1.6307;
488.7000;0.7399;1.6182;
489.0000;0.7407;1.6182;
489.3000;0.7399;1.6133;
489.6000;0.7416;1.6083;
489.9000;0.7407;1.6058;
490.2000;0.7399;1.6108;
490.5000;0.7416;1.6108;
490.8000;0.7432;1.6232;
491.1000;0.7399;1.6232;
491.4000;0.7391;1.6157;
491.7000;0.7416;1.6157;
492.0000;0.7416;1.6182;
492.3000;0.7432;1.6232;
492.6000;0.7416;1.6182;
492.9000;0.7456;1.6257;
493.2000;0.7424;1.6157;
493.5000;0.7416;1.5983;
493.8000;0.7391;1.6008;
494.1000;0.7521;1.6332;
494.4000;0.7399;1.6182;
494.7000;0.7383;1.6133;
495.0000;0.7407;1.6232;
495.3000;0.7416;1.6157;
495.6000;0.7416;1.6232;
495.9000;0.7432;1.6232;
496.2000;0.7391;1.6157;
496.5000;0.7359;1.6157;
496.8000;0.7440;1.6307;
497.1000;0.7399;1.6282;
497.4000;0.7407;1.6307;
497.7000;0.7407;1.6232;
498.0000;0.7407;1.6133;
498.3000;0.7432;1.6207;
498.6000;0.7407;1.6108;
498.9000;0.7391;1.6058;
499.2000;0.7350;1.5958;
499.5000;0.7399;1.6108;
499.8000;0.7391;1.6157;
500.1000;0.7391;1.6133;
500.4000;0.7399;1.6058;
500.7000;0.7391;1.6083;
501.0000;0.7424;1.6157;
501.3000;0.7432;1.6083;
501.6000;0.7399;1.6008;
501.9000;0.7416;1.6108;
502.2000;0.7416;1.6058;
502.5000;0.7424;1.6033;
502.8000;0.7448;1.6058;
503.1000;0.7399;1.5958;
503.4000;0.7407;1.5933;
503.7000;0.7399;1.6008;
504.0000;0.7334;1.5783;
504.3000;0.7407;1.6108;
504.6000;0.7432;1.6133;
504.9000;0.7440;1.6108;
505.2000;0.7424;1.6083;
505.5000;0.7383;1.5983;
505.8000;0.7399;1.5983;
506.1000;0.7391;1.5883;
506.4000;0.7407;1.5983;
506.7000;0.7391;1.5933;
507.0000;0.7399;1.6033;
507.3000;0.7391;1.6008;
507.6000;0.7399;1.6058;
507.9000;0.7399;1.6008;
508.2000;0.7391;1.6008;
508.5000;0.7399;1.5958;
508.8000;0.7399;1.6008;
509.1000;0.7391;1.5933;
509.4000;0.7391;1.6008;
509.7000;0.7391;1.6058;
510.0000;0.7350;1.5983;
510.3000;0.7407;1.6133;
510.6000;0.7391;1.6058;
510.9000;0.7424;1.6157;
511.2000;0.7399;1.6232;
511.5000;0.7399;1.6357;
511.8000;0.7416;1.6382;
512.1000;0.7375;1.6332;
512.4000;0.7399;1.6382;
512.7000;0.7416;1.6457;
513.0000;0.7399;1.6382;
513.3000;0.7424;1.6457;
513.6000;0.7424;1.6332;
513.9000;0.7416;1.6282;
514.2000;0.7407;1.6207;
514.5000;0.7456;1.6307;
514.8000;0.7367;1.6133;
515.1000;0.7391;1.6133;
515.4000;0.7407;1.6157;
515.7000;0.7456;1.6257;
516.0000;0.7399;1.6207;
516.3000;0.7407;1.6232;
516.6000;0.7399;1.6157;
516.9000;0.7399;1.6207;
517.2000;0.7440;1.6282;
517.5000;0.7456;1.6432;
517.8000;0.7407;1.6282;
518.1000;0.7407;1.6307;
518.4000;0.7391;1.6332;
518.7000;0.7375;1.6407;
519.0000;0.7367;1.6332;
519.3000;0.7391;1.6407;
519.6000;0.7391;1.6407;
519.9000;0.7367;1.6282;
520.2000;0.7424;1.6407;
520.5000;0.7399;1.6382;
520.8000;0.7399;1.6407;
521.1000;0.7318;1.6207;
521.4000;0.7407;1.6407;
521.7000;0.7407;1.6357;
522.0000;0.7407;1.6357;
522.3000;0.7481;1.6682;
522.6000;0.7399;1.6407;
522.9000;0.7424;1.6432;
523.2000;0.7391;1.6382;
523.5000;0.7407;1.6357;
523.8000;0.7399;1.6307;
524.1000;0.7399;1.6307;
524.4000;0.7391;1.6332;
524.7000;0.7399;1.6307;
525.0000;0.7399;1.6307;
525.3000;0.7407;1.6232;
525.6000;0.7399;1.6257;
525.9000;0.7383;1.6232;
526.2000;0.7391;1.6108;
526.5000;0.7407;1.6133;
526.8000;0.7407;1.6232;
527.1000;0.7399;1.6232;
527.4000;0.7416;1.6332;
527.7000;0.7399;1.6282;
528.0000;0.7473;1.6507;
528.3000;0.7407;1.6307;
528.6000;0.7383;1.6257;
528.9000;0.7407;1.6357;
529.2000;0.7399;1.6332;
529.5000;0.7416;1.6382;
529.8000;0.7391;1.6357;
530.1000;0.7416;1.6457;
530.4000;0.7416;1.6432;
530.7000;0.7399;1.6407;
531.0000;0.7399;1.6482;
531.3000;0.7391;1.6432;
531.6000;0.7416;1.6407;
531.9000;0.7416;1.6407;
532.2000;0.7399;1.6407;
532.5000;0.7399;1.6307;
532.8000;0.7399;1.6307;
533.1000;0.7399;1.6307;
533.4000;0.7383;1.6257;
533.7000;0.7416;1.6282;
534.0000;0.7416;1.6332;
534.3000;0.7391;1.6257;
534.6000;0.7407;1.6257;
534.9000;0.7399;1.6282;
535.2000;0.7424;1.6357;
535.5000;0.7350;1.6207;
535.8000;0.7391;1.6382;
536.1000;0.7416;1.6357;
536.4000;0.7416;1.6357;
536.7000;0.7407;1.6332;
537.0000;0.7383;1.6232;
537.3000;0.7407;1.6282;
537.6000;0.7407;1.6282;
537.9000;0.7399;1.6257;
538.2000;0.7407;1.6257;
538.5000;0.7391;1.6332;
538.8000;0.7440;1.6457;
539.1000;0.7399;1.6357;
539.4000;0.7407;1.6357;
539.7000;0.7391;1.6332;
540.0000;0.7375;1.6232;
540.3000;0.7473;1.6532;
540.6000;0.7399;1.6432;
540.9000;0.7375;1.6407;
541.2000;0.7367;1.6407;
541.5000;0.7440;1.6557;
541.8000;0.7407;1.6382;
542.1000;0.7383;1.6332;
542.4000;0.7391;1.6307;
542.7000;0.7391;1.6307;
543.0000;0.7407;1.6332;
543.3000;0.7359;1.6182;
543.6000;0.7407;1.6332;
543.9000;0.7391;1.6307;
544.2000;0.7407;1.6382;
544.5000;0.7383;1.6307;
544.8000;0.7375;1.6307;
545.1000;0.7391;1.6157;
545.4000;0.7391;1.6182;
545.7000;0.7399;1.6207;
546.0000;0.7399;1.6232;
546.3000;0.7391;1.6257;
546.6000;0.7399;1.6282;
546.9000;0.7383;1.6232;
547.2000;0.7407;1.6257;
547.5000;0.7391;1.6207;
547.8000;0.7391;1.6232;
548.1000;0.7391;1.6207;
548.4000;0.7391;1.6232;
548.7000;0.7391;1.6083;
549.0000;0.7391;1.6033;
549.3000;0.7407;1.6058;
549.6000;0.7383;1.6033;
549.9000;0.7416;1.6157;
550.2000;0.7375;1.6108;
550.5000;0.7383;1.6157;
550.8000;0.7391;1.6232;
551.1000;0.7391;1.6257;
551.4000;0.7416;1.6307;
551.7000;0.7399;1.6332;
552.0000;0.7399;1.6232;
552.3000;0.7399;1.6282;
552.6000;0.7399;1.6232;
552.9000;0.7399;1.6357;
553.2000;0.7424;1.6357;
553.5000;0.7383;1.6207;
553.8000;0.7416;1.6157;
554.1000;0.7432;1.6133;
554.4000;0.7375;1.5958;
554.7000;0.7399;1.5983;
555.0000;0.7399;1.6008;
555.3000;0.7375;1.6033;
555.6000;0.7367;1.6008;
555.9000;0.7383;1.6033;
556.2000;0.7391;1.6108;
556.5000;0.7399;1.6157;
556.8000;0.7391;1.6182;
557.1000;0.7399;1.6157;
557.4000;0.7416;1.6157;
557.7000;0.7399;1.6257;
558.0000;0.7383;1.6282;
558.3000;0.7383;1.6282;
558.6000;0.7367;1.6157;
558.9000;0.7383;1.6133;
559.2000;0.7383;1.6157;
559.5000;0.7367;1.6157;
559.8000;0.7367;1.6182;
560.1000;0.7383;1.6232;
560.4000;0.7456;1.6457;
560.7000;0.7375;1.6257;
561.0000;0.7391;1.6282;
561.3000;0.7375;1.6257;
561.6000;0.7383;1.6282;
561.9000;0.7383;1.6307;
562.2000;0.7342;1.6207;
562.5000;0.7375;1.6282;
562.8000;0.7383;1.6407;
563.1000;0.7391;1.6432;
563.4000;0.7367;1.6382;
563.7000;0.7375;1.6357;
564.0000;0.7383;1.6382;
564.3000;0.7383;1.6432;
564.6000;0.7399;1.6457;
564.9000;0.7375;1.6432;
565.2000;0.7399;1.6457;
565.5000;0.7391;1.6432;
565.8000;0.7391;1.6457;
566.1000;0.7407;1.6407;
566.4000;0.7407;1.6482;
566.7000;0.7375;1.6407;
567.0000;0.7383;1.6457;
567.3000;0.7383;1.6457;
567.6000;0.7399;1.6507;
567.9000;0.7375;1.6482;
568.2000;0.7391;1.6507;
568.5000;0.7359;1.6357;
568.8000;0.7432;1.6532;
569.1000;0.7383;1.6407;
569.4000;0.7391;1.6382;
569.7000;0.7391;1.6432;
570.0000;0.7416;1.6432;
570.3000;0.7383;1.6332;
570.6000;0.7383;1.6282;
570.9000;0.7416;1.6382;
571.2000;0.7416;1.6432;
571.5000;0.7407;1.6357;
571.8000;0.7375;1.6282;
572.1000;0.7399;1.6307;
572.4000;0.7375;1.6307;
572.7000;0.7367;1.6282;
573.0000;0.7375;1.6257;
573.3000;0.7375;1.6307;
573.6000;0.7383;1.6407;
573.9000;0.7391;1.6357;
574.2000;0.7391;1.6357;
574.5000;0.7383;1.6307;
574.8000;0.7391;1.6332;
575.1000;0.7399;1.6407;
575.4000;0.7391;1.6357;
575.7000;0.7359;1.6332;
576.0000;0.7383;1.6507;
576.3000;0.7399;1.6557;
576.6000;0.7350;1.6382;
576.9000;0.7375;1.6457;
577.2000;0.7383;1.6457;
577.5000;0.7399;1.6532;
577.8000;0.7383;1.6382;
578.1000;0.7399;1.6407;
578.4000;0.7391;1.6407;
578.7000;0.7383;1.6332;
579.0000;0.7407;1.6307;
579.3000;0.7383;1.6282;
579.6000;0.7391;1.6257;
579.9000;0.7399;1.6232;
580.2000;0.7399;1.6257;
580.5000;0.7391;1.6207;
580.8000;0.7391;1.6182;
581.1000;0.7342;1.6058;
581.4000;0.7416;1.6257;
581.7000;0.7391;1.6207;
582.0000;0.7375;1.6182;
582.3000;0.7383;1.6182;
582.6000;0.7399;1.6257;
582.9000;0.7383;1.6207;
583.2000;0.7367;1.6157;
583.5000;0.7375;1.6157;
583.8000;0.7375;1.6108;
584.1000;0.7407;1.6232;
584.4000;0.7424;1.6257;
584.7000;0.7391;1.6232;
585.0000;0.7399;1.6257;
585.3000;0.7383;1.6332;
585.6000;0.7367;1.6182;
585.9000;0.7399;1.6282;
586.2000;0.7424;1.6207;
586.5000;0.7416;1.6182;
586.8000;0.7391;1.6083;
587.1000;0.7383;1.6058;
587.4000;0.7473;1.6282;
587.7000;0.7391;1.6133;
588.0000;0.7383;1.6157;
588.3000;0.7375;1.6182;
588.6000;0.7375;1.6182;
588.9000;0.7375;1.6232;
589.2000;0.7375;1.6232;
589.5000;0.7391;1.6207;
589.8000;0.7399;1.6232;
590.1000;0.7383;1.6182;
590.4000;0.7407;1.6332;
590.7000;0.7391;1.6332;
591.0000;0.7375;1.6407;
591.3000;0.7383;1.6432;
591.6000;0.7399;1.6407;
591.9000;0.7440;1.6507;
592.2000;0.7367;1.6282;
592.5000;0.7383;1.6407;
592.8000;0.7383;1.6382;
593.1000;0.7399;1.6432;
593.4000;0.7383;1.6432;
593.7000;0.7375;1.6407;
594.0000;0.7448;1.6582;
594.3000;0.7391;1.6482;
594.6000;0.7375;1.6407;
594.9000;0.7473;1.6682;
595.2000;0.7391;1.6432;
595.5000;0.7367;1.6457;
595.8000;0.7407;1.6482;
596.1000;0.7375;1.6357;
596.4000;0.7383;1.6257;
596.7000;0.7391;1.6282;
597.0000;0.7473;1.6482;
597.3000;0.7375;1.6182;
597.6000;0.7375;1.6182;
597.9000;0.7383;1.6257;
598.2000;0.7350;1.6157;
598.5000;0.7375;1.6257;
598.8000;0.7342;1.6282;
599.1000;0.7448;1.6532;
599.4000;0.7375;1.6307;
599.7000;0.7367;1.6282;
600.0000;0.7359;1.6332;
600.3000;0.7391;1.6282;
600.6000;0.7334;1.6182;
600.9000;0.7277;1.6207;
601.2000;0.7188;1.6108;
601.5000;0.7017;1.5783;
601.8000;0.6870;1.5583;
602.1000;0.6772;1.5508;
602.4000;0.6675;1.5383;
602.7000;0.6585;1.5233;
603.0000;0.6488;1.5109;
603.3000;0.6374;1.4959;
603.6000;0.6309;1.4909;
603.9000;0.6235;1.4834;
604.2000;0.6211;1.4934;
604.5000;0.6105;1.4709;
604.8000;0.6032;1.4584;
605.1000;0.5983;1.4534;
605.4000;0.5902;1.4384;
605.7000;0.5877;1.4309;
606.0000;0.5828;1.4235;
606.3000;0.5788;1.4185;
606.6000;0.5739;1.4085;
606.9000;0.5731;1.4085;
607.2000;0.5665;1.3860;
607.5000;0.5625;1.3685;
607.8000;0.5617;1.3660;
608.1000;0.5560;1.3635;
608.4000;0.5511;1.3635;
608.7000;0.5486;1.3685;
609.0000;0.5462;1.3685;
609.3000;0.5429;1.3635;
609.6000;0.5389;1.3735;
609.9000;0.5381;1.3760;
610.2000;0.5372;1.3735;
610.5000;0.5405;1.3910;
610.8000;0.5324;1.3760;
611.1000;0.5283;1.3635;
611.4000;0.5283;1.3635;
611.7000;0.5234;1.3560;
612.0000;0.5201;1.3560;
612.3000;0.5218;1.3660;
612.6000;0.5177;1.3685;
612.9000;0.5177;1.3685;
613.2000;0.5153;1.3635;
613.5000;0.5120;1.3635;
613.8000;0.5112;1.3735;
614.1000;0.5088;1.3610;
614.4000;0.5022;1.3485;
614.7000;0.5063;1.3610;
615.0000;0.5063;1.3610;
615.3000;0.5039;1.3510;
615.6000;0.5022;1.3460;
615.9000;0.4949;1.3236;
616.2000;0.5006;1.3385;
616.5000;0.4990;1.3435;
616.8000;0.4974;1.3361;
617.1000;0.4957;1.3336;
617.4000;0.4892;1.3186;
617.7000;0.4933;1.3385;
618.0000;0.4941;1.3435;
618.3000;0.4925;1.3361;
618.6000;0.4900;1.3336;
618.9000;0.4876;1.3336;
619.2000;0.4892;1.3435;
619.5000;0.4876;1.3435;
619.8000;0.4851;1.3435;
620.1000;0.4835;1.3361;
620.4000;0.4860;1.3385;
620.7000;0.4835;1.3410;
621.0000;0.4827;1.3435;
621.3000;0.4835;1.3535;
621.6000;0.4835;1.3510;
621.9000;0.4843;1.3510;
622.2000;0.4794;1.3410;
622.5000;0.4770;1.3410;
622.8000;0.4737;1.3361;
623.1000;0.4794;1.3460;
623.4000;0.4770;1.3410;
623.7000;0.4737;1.3311;
624.0000;0.4705;1.3286;
624.3000;0.4746;1.3385;
624.6000;0.4762;1.3311;
624.9000;0.4737;1.3261;
625.2000;0.4721;1.3136;
625.5000;0.4713;1.3061;
625.8000;0.4713;1.3186;
626.1000;0.4713;1.3261;
626.4000;0.4721;1.3236;
626.7000;0.4705;1.3136;
627.0000;0.4681;1.3111;
627.3000;0.4705;1.3236;
627.6000;0.4672;1.3186;
627.9000;0.4664;1.3211;
628.2000;0.4681;1.3286;
628.5000;0.4664;1.3261;
628.8000;0.4640;1.3161;
629.1000;0.4656;1.3161;
629.4000;0.4656;1.3186;
629.7000;0.4615;1.3161;
630.0000;0.4640;1.3236;
630.3000;0.4632;1.3186;
630.6000;0.4640;1.3261;
630.9000;0.4624;1.3336;
631.2000;0.4632;1.3336;
631.5000;0.4648;1.3361;
631.8000;0.4607;1.3336;
632.1000;0.4615;1.3286;
632.4000;0.4607;1.3336;
632.7000;0.4550;1.3186;
633.0000;0.4599;1.3410;
633.3000;0.4599;1.3510;
633.6000;0.4542;1.3336;
633.9000;0.4607;1.3485;
634.2000;0.4575;1.3361;
634.5000;0.4591;1.3460;
634.8000;0.4567;1.3286;
635.1000;0.4550;1.3211;
635.4000;0.4567;1.3236;
635.7000;0.4534;1.3261;
636.0000;0.4550;1.3261;
636.3000;0.4575;1.3361;
636.6000;0.4542;1.3286;
636.9000;0.4558;1.3336;
637.2000;0.4518;1.3311;
637.5000;0.4453;1.3061;
637.8000;0.4534;1.3236;
638.1000;0.4526;1.3186;
638.4000;0.4518;1.3161;
638.7000;0.4485;1.3086;
639.0000;0.4493;1.3061;
639.3000;0.4501;1.3061;
639.6000;0.4510;1.3086;
639.9000;0.4485;1.3261;
640.2000;0.4493;1.3336;
640.5000;0.4493;1.3435;
640.8000;0.4469;1.3460;
641.1000;0.4501;1.3435;
641.4000;0.4477;1.3361;
641.7000;0.4477;1.3286;
642.0000;0.4485;1.3236;
642.3000;0.4453;1.3086;
642.6000;0.4461;1.3161;
642.9000;0.4461;1.3236;
643.2000;0.4436;1.3211;
643.5000;0.4461;1.3186;
643.8000;0.4428;1.3111;
644.1000;0.4461;1.3261;
644.4000;0.4436;1.3186;
644.7000;0.4436;1.3261;
645.0000;0.4387;1.3211;
645.3000;0.4436;1.3286;
645.6000;0.4412;1.3236;
645.9000;0.4420;1.3261;
646.2000;0.4436;1.3186;
646.5000;0.4420;1.3086;
646.8000;0.4412;1.3061;
647.1000;0.4396;1.3086;
647.4000;0.4396;1.3111;
647.7000;0.4436;1.3286;
648.0000;0.4387;1.3161;
648.3000;0.4387;1.3211;
648.6000;0.4396;1.3186;
648.9000;0.4371;1.3186;
649.2000;0.4371;1.3236;
649.5000;0.4371;1.3211;
649.8000;0.4379;1.3186;
650.1000;0.4355;1.3186;
650.4000;0.4371;1.3236;
650.7000;0.4371;1.3111;
651.0000;0.4387;1.3136;
651.3000;0.4379;1.3136;
651.6000;0.4379;1.3086;
651.9000;0.4379;1.3086;
652.2000;0.4363;1.3161;
652.5000;0.4363;1.3311;
652.8000;0.4371;1.3336;
653.1000;0.4363;1.3336;
653.4000;0.4330;1.3286;
653.7000;0.4379;1.3385;
654.0000;0.4355;1.3286;
654.3000;0.4330;1.3211;
654.6000;0.4404;1.3336;
654.9000;0.4339;1.3211;
655.2000;0.4339;1.3186;
655.5000;0.4363;1.3286;
655.8000;0.4347;1.3211;
656.1000;0.4322;1.3236;
656.4000;0.4396;1.3485;
656.7000;0.4330;1.3336;
657.0000;0.4322;1.3261;
657.3000;0.4322;1.3261;
657.6000;0.4322;1.3211;
657.9000;0.4330;1.3236;
658.2000;0.4347;1.3261;
658.5000;0.4306;1.3161;
658.8000;0.4314;1.3236;
659.1000;0.4314;1.3261;
659.4000;0.4314;1.3311;
659.7000;0.4241;1.3086;
660.0000;0.4282;1.3211;
660.3000;0.4282;1.3311;
660.6000;0.4298;1.3336;
660.9000;0.4306;1.3336;
661.2000;0.4290;1.3311;
661.5000;0.4274;1.3261;
661.8000;0.4298;1.3385;
662.1000;0.4290;1.3410;
662.4000;0.4233;1.3261;
662.7000;0.4298;1.3410;
663.0000;0.4274;1.3460;
663.3000;0.4282;1.3460;
663.6000;0.4265;1.3460;
663.9000;0.4274;1.3485;
664.2000;0.4257;1.3435;
664.5000;0.4282;1.3410;
664.8000;0.4265;1.3460;
665.1000;0.4274;1.3385;
665.4000;0.4265;1.3410;
665.7000;0.4274;1.3336;
666.0000;0.4257;1.3211;
666.3000;0.4274;1.3186;
666.6000;0.4249;1.3086;
666.9000;0.4257;1.3161;
667.2000;0.4233;1.3261;
667.5000;0.4233;1.3286;
667.8000;0.4241;1.3336;
668.1000;0.4241;1.3385;
668.4000;0.4257;1.3435;
668.7000;0.4241;1.3435;
669.0000;0.4233;1.3361;
669.3000;0.4217;1.3311;
669.6000;0.4257;1.3435;
669.9000;0.4233;1.3261;
670.2000;0.4217;1.3286;
670.5000;0.4225;1.3410;
670.8000;0.4192;1.3385;
671.1000;0.4208;1.3336;
671.4000;0.4217;1.3385;
671.7000;0.4225;1.3435;
672.0000;0.4217;1.3485;
672.3000;0.4217;1.3460;
672.6000;0.4217;1.3435;
672.9000;0.4217;1.3410;
673.2000;0.4208;1.3435;
673.5000;0.4217;1.3460;
673.8000;0.4200;1.3435;
674.1000;0.4200;1.3361;
674.4000;0.4225;1.3460;
674.7000;0.4184;1.3460;
675.0000;0.4192;1.3460;
675.3000;0.4233;1.3535;
675.6000;0.4200;1.3435;
675.9000;0.4200;1.3336;
676.2000;0.4217;1.3311;
676.5000;0.4192;1.3211;
676.8000;0.4200;1.3261;
677.1000;0.4200;1.3311;
677.4000;0.4192;1.3336;
677.7000;0.4192;1.3311;
678.0000;0.4200;1.3336;
678.3000;0.4233;1.3385;
678.6000;0.4200;1.3361;
678.9000;0.4184;1.3286;
679.2000;0.4176;1.3261;
679.5000;0.4192;1.3336;
679.8000;0.4176;1.3261;
680.1000;0.4184;1.3211;
680.4000;0.4151;1.3061;
680.7000;0.4151;1.3136;
681.0000;0.4184;1.3211;
681.3000;0.4168;1.3186;
681.6000;0.4151;1.3111;
681.9000;0.4168;1.3111;
682.2000;0.4168;1.3161;
682.5000;0.4143;1.3136;
682.8000;0.4160;1.3186;
683.1000;0.4103;1.3061;
683.4000;0.4160;1.3261;
683.7000;0.4176;1.3261;
684.0000;0.4151;1.3361;
684.3000;0.4176;1.3435;
684.6000;0.4119;1.3286;
684.9000;0.4151;1.3236;
685.2000;0.4160;1.3336;
685.5000;0.4143;1.3336;
685.8000;0.4119;1.3385;
686.1000;0.4143;1.3385;
686.4000;0.4070;1.3186;
686.7000;0.4143;1.3286;
687.0000;0.4135;1.3311;
687.3000;0.4143;1.3510;
687.6000;0.4143;1.3460;
687.9000;0.4160;1.3485;
688.2000;0.4208;1.3635;
688.5000;0.4135;1.3385;
688.8000;0.4127;1.3286;
689.1000;0.4143;1.3236;
689.4000;0.4143;1.3236;
689.7000;0.4111;1.3111;
690.0000;0.4143;1.3186;
690.3000;0.4127;1.3236;
690.6000;0.4127;1.3336;
690.9000;0.4119;1.3361;
691.2000;0.4143;1.3460;
691.5000;0.4160;1.3485;
691.8000;0.4119;1.3435;
692.1000;0.4127;1.3510;
692.4000;0.4111;1.3560;
692.7000;0.4111;1.3485;
693.0000;0.4103;1.3485;
693.3000;0.4086;1.3410;
693.6000;0.4005;1.3111;
693.9000;0.4094;1.3311;
694.2000;0.4151;1.3485;
694.5000;0.4143;1.3485;
694.8000;0.4086;1.3336;
695.1000;0.4119;1.3311;
695.4000;0.4094;1.3236;
695.7000;0.4094;1.3211;
696.0000;0.4094;1.3261;
696.3000;0.4111;1.3361;
696.6000;0.4103;1.3311;
696.9000;0.4111;1.3286;
697.2000;0.4103;1.3286;
697.5000;0.4119;1.3311;
697.8000;0.4103;1.3286;
698.1000;0.4094;1.3286;
698.4000;0.4119;1.3286;
698.7000;0.4111;1.3211;
699.0000;0.4103;1.3211;
699.3000;0.4086;1.3211;
699.6000;0.4078;1.3236;
699.9000;0.4094;1.3186;
700.2000;0.4094;1.3136;
700.5000;0.4070;1.3036;
700.8000;0.4086;1.3086;
701.1000;0.4086;1.3136;
701.4000;0.4111;1.3136;
701.7000;0.4103;1.3136;
702.0000;0.4086;1.3061;
702.3000;0.4151;1.3286;
702.6000;0.4070;1.3011;
702.9000;0.4086;1.3061;
703.2000;0.4078;1.3186;
703.5000;0.4054;1.3186;
703.8000;0.4062;1.3211;
704.1000;0.4062;1.3311;
704.4000;0.4054;1.3361;
704.7000;0.4103;1.3336;
705.0000;0.4062;1.3161;
705.3000;0.4013;1.3086;
705.6000;0.4062;1.3186;
705.9000;0.4037;1.3061;
706.2000;0.4054;1.3161;
706.5000;0.4070;1.3186;
706.8000;0.4062;1.3161;
707.1000;0.4062;1.3086;
707.4000;0.4062;1.3061;
707.7000;0.4062;1.3086;
708.0000;0.4078;1.3061;
708.3000;0.4062;1.3036;
708.6000;0.4037;1.3011;
708.9000;0.4054;1.3161;
709.2000;0.4054;1.3236;
709.5000;0.4111;1.3336;
709.8000;0.4054;1.3186;
710.1000;0.4054;1.3236;
710.4000;0.4054;1.3236;
710.7000;0.4046;1.3211;
711.0000;0.4046;1.3186;
711.3000;0.4046;1.3111;
711.6000;0.4054;1.3261;
711.9000;0.4046;1.3311;
712.2000;0.4029;1.3236;
712.5000;0.4046;1.3311;
712.8000;0.4037;1.3211;
713.1000;0.4046;1.3111;
713.4000;0.4029;1.3061;
713.7000;0.4037;1.3061;
714.0000;0.4021;1.3011;
714.3000;0.4046;1.3036;
714.6000;0.4005;1.2886;
714.9000;0.4046;1.2986;
715.2000;0.4029;1.2986;
715.5000;0.4054;1.3136;
715.8000;0.4037;1.3061;
716.1000;0.4013;1.3036;
716.4000;0.4029;1.3111;
716.7000;0.4046;1.3061;
717.0000;0.4094;1.3086;
717.3000;0.4062;1.3161;
717.6000;0.4094;1.3261;
717.9000;0.4046;1.3136;
718.2000;0.4037;1.3211;
718.5000;0.4029;1.3211;
718.8000;0.4005;1.3186;
719.1000;0.4029;1.3311;
719.4000;0.4029;1.3361;
719.7000;0.4029;1.3261;
720.0000;0.4005;1.3236;
720.3000;0.4029;1.3311;
720.6000;0.4021;1.3311;
720.9000;0.4013;1.3286;
721.2000;0.4005;1.3186;
721.5000;0.4021;1.3286;
721.8000;0.4046;1.3311;
722.1000;0.4021;1.3385;
722.4000;0.4029;1.3435;
722.7000;0.4037;1.3410;
723.0000;0.4037;1.3410;
723.3000;0.4070;1.3410;
723.6000;0.4013;1.3336;
723.9000;0.4021;1.3385;
724.2000;0.4037;1.3435;
724.5000;0.4005;1.3385;
724.8000;0.4021;1.3385;
725.1000;0.4029;1.3361;
725.4000;0.4046;1.3410;
725.7000;0.4029;1.3410;
726.0000;0.4005;1.3311;
726.3000;0.4005;1.3336;
726.6000;0.4005;1.3361;
726.9000;0.4021;1.3336;
727.2000;0.4005;1.3261;
727.5000;0.4005;1.3211;
727.8000;0.3989;1.3161;
728.1000;0.3972;1.3111;
728.4000;0.4078;1.3410;
728.7000;0.4021;1.3311;
729.0000;0.3980;1.3311;
729.3000;0.4005;1.3410;
729.6000;0.4013;1.3485;
729.9000;0.4005;1.3460;
730.2000;0.3964;1.3385;
730.5000;0.3997;1.3361;
730.8000;0.3980;1.3336;
731.1000;0.4005;1.3286;
731.4000;0.3964;1.3211;
731.7000;0.3989;1.3311;
732.0000;0.3989;1.3385;
732.3000;0.4013;1.3435;
732.6000;0.3980;1.3261;
732.9000;0.3997;1.3361;
733.2000;0.4013;1.3435;
733.5000;0.4005;1.3410;
733.8000;0.4013;1.3385;
734.1000;0.3989;1.3311;
734.4000;0.3989;1.3236;
734.7000;0.3997;1.3211;
735.0000;0.3972;1.2986;
735.3000;0.3980;1.3011;
735.6000;0.3972;1.2936;
735.9000;0.3980;1.2911;
736.2000;0.3980;1.2961;
736.5000;0.3972;1.2886;
736.8000;0.3980;1.2986;
737.1000;0.3997;1.3061;
737.4000;0.3989;1.3036;
737.7000;0.3997;1.3161;
738.0000;0.3972;1.3186;
738.3000;0.3980;1.3161;
738.6000;0.3989;1.3261;
738.9000;0.3980;1.3311;
739.2000;0.3972;1.3236;
739.5000;0.3989;1.3261;
739.8000;0.3980;1.3211;
740.1000;0.3989;1.3186;
740.4000;0.3964;1.3186;
740.7000;0.3956;1.3236;
741.0000;0.3989;1.3385;
741.3000;0.3964;1.3286;
741.6000;0.4005;1.3361;
741.9000;0.3972;1.3336;
742.2000;0.3956;1.3336;
742.5000;0.3964;1.3336;
742.8000;0.3972;1.3361;
743.1000;0.3964;1.3385;
743.4000;0.4005;1.3460;
743.7000;0.3980;1.3385;
744.0000;0.3948;1.3385;
744.3000;0.4005;1.3435;
744.6000;0.3948;1.3311;
744.9000;0.3972;1.3336;
745.2000;0.3989;1.3410;
745.5000;0.3980;1.3336;
745.8000;0.3989;1.3361;
746.1000;0.3948;1.3236;
746.4000;0.3948;1.3161;
746.7000;0.3989;1.3161;
747.0000;0.3940;1.3111;
747.3000;0.3948;1.3136;
747.6000;0.3972;1.3136;
747.9000;0.3940;1.3086;
748.2000;0.3956;1.3136;
748.5000;0.3932;1.3236;
748.8000;0.3940;1.3286;
749.1000;0.3948;1.3361;
749.4000;0.3989;1.3535;
749.7000;0.3964;1.3435;
750.0000;0.3964;1.3485;
750.3000;0.3956;1.3485;
750.6000;0.3948;1.3510;
750.9000;0.3948;1.3585;
751.2000;0.3948;1.3535;
751.5000;0.3940;1.3460;
751.8000;0.3923;1.3435;
752.1000;0.3940;1.3460;
752.4000;0.3948;1.3485;
752.7000;0.3948;1.3460;
753.0000;0.3923;1.3410;
753.3000;0.3932;1.3435;
753.6000;0.3948;1.3410;
753.9000;0.3940;1.3485;
754.2000;0.3948;1.3510;
754.5000;0.3932;1.3460;
754.8000;0.3956;1.3485;
755.1000;0.3923;1.3510;
755.4000;0.3932;1.3585;
755.7000;0.3940;1.3510;
756.0000;0.3940;1.3560;
756.3000;0.3972;1.3735;
756.6000;0.3932;1.3710;
756.9000;0.3940;1.3635;
757.2000;0.3956;1.3585;
757.5000;0.3956;1.3585;
757.8000;0.3940;1.3585;
758.1000;0.3940;1.3610;
758.4000;0.3932;1.3585;
758.7000;0.3948;1.3610;
759.0000;0.3915;1.3585;
759.3000;0.3923;1.3535;
759.6000;0.3891;1.3385;
759.9000;0.3932;1.3460;
760.2000;0.3932;1.3510;
760.5000;0.3940;1.3485;
760.8000;0.3940;1.3485;
761.1000;0.3915;1.3385;
761.4000;0.3932;1.3410;
761.7000;0.3891;1.3361;
762.0000;0.3932;1.3460;
762.3000;0.3915;1.3435;
762.6000;0.3956;1.3535;
762.9000;0.3923;1.3336;
763.2000;0.3915;1.3286;
763.5000;0.3923;1.3261;
763.8000;0.3956;1.3361;
764.1000;0.3932;1.3410;
764.4000;0.3932;1.3410;
764.7000;0.3940;1.3385;
765.0000;0.3923;1.3261;
765.3000;0.3915;1.3286;
765.6000;0.3883;1.3236;
765.9000;0.3915;1.3410;
766.2000;0.3923;1.3311;
766.5000;0.3932;1.3410;
766.8000;0.3915;1.3385;
767.1000;0.3907;1.3261;
767.4000;0.3956;1.3361;
767.7000;0.3923;1.3336;
768.0000;0.3940;1.3410;
768.3000;0.3956;1.3435;
768.6000;0.3915;1.3385;
768.9000;0.3923;1.3385;
769.2000;0.3972;1.3460;
769.5000;0.3923;1.3286;
769.8000;0.3915;1.3286;
770.1000;0.3915;1.3236;
770.4000;0.3915;1.3261;
770.7000;0.3891;1.3261;
771.0000;0.3907;1.3410;
771.3000;0.3923;1.3435;
771.6000;0.3923;1.3485;
771.9000;0.3875;1.3361;
772.2000;0.3907;1.3510;
772.5000;0.3858;1.3485;
772.8000;0.3907;1.3610;
773.1000;0.3923;1.3610;
773.4000;0.3972;1.3760;
773.7000;0.3883;1.3510;
774.0000;0.3915;1.3535;
774.3000;0.3907;1.3560;
774.6000;0.3858;1.3435;
774.9000;0.3899;1.3485;
775.2000;0.3907;1.3460;
775.5000;0.3932;1.3485;
775.8000;0.3915;1.3435;
776.1000;0.3891;1.3311;
776.4000;0.3923;1.3435;
776.7000;0.3891;1.3410;
777.0000;0.3891;1.3385;
777.3000;0.3891;1.3435;
777.6000;0.3899;1.3385;
777.9000;0.3883;1.3311;
778.2000;0.3899;1.3435;
778.5000;0.3891;1.3485;
778.8000;0.3899;1.3585;
779.1000;0.3907;1.3585;
779.4000;0.3826;1.3361;
779.7000;0.3907;1.3535;
780.0000;0.3891;1.3585;
780.3000;0.3891;1.3485;
780.6000;0.3907;1.3510;
780.9000;0.3891;1.3460;
781.2000;0.3891;1.3410;
781.5000;0.3899;1.3336;
781.8000;0.3899;1.3261;
782.1000;0.3867;1.3136;
782.4000;0.3883;1.3211;
782.7000;0.3883;1.3161;
783.0000;0.3891;1.3161;
783.3000;0.3883;1.3061;
783.6000;0.3891;1.3086;
783.9000;0.3899;1.3036;
784.2000;0.3891;1.3011;
784.5000;0.3891;1.3061;
784.8000;0.3883;1.3036;
785.1000;0.3858;1.3036;
785.4000;0.3883;1.3161;
785.7000;0.3891;1.3136;
786.0000;0.3899;1.3211;
786.3000;0.3875;1.3186;
786.6000;0.3899;1.3236;
786.9000;0.3891;1.3161;
787.2000;0.3875;1.3186;
787.5000;0.3875;1.3211;
787.8000;0.3875;1.3261;
788.1000;0.3875;1.3286;
788.4000;0.3875;1.3236;
788.7000;0.3867;1.3261;
789.0000;0.3842;1.3236;
789.3000;0.3810;1.3036;
789.6000;0.3867;1.3211;
789.9000;0.3883;1.3236;
790.2000;0.3891;1.3261;
790.5000;0.3875;1.3236;
790.8000;0.3899;1.3311;
791.1000;0.3891;1.3336;
791.4000;0.3875;1.3261;
791.7000;0.3875;1.3336;
792.0000;0.3883;1.3410;
792.3000;0.3867;1.3361;
792.6000;0.3875;1.3336;
792.9000;0.3883;1.3336;
793.2000;0.3867;1.3336;
793.5000;0.3883;1.3236;
793.8000;0.3867;1.3161;
794.1000;0.3940;1.3311;
794.4000;0.3858;1.3211;
794.7000;0.3875;1.3236;
795.0000;0.3883;1.3211;
795.3000;0.3867;1.3211;
795.6000;0.3899;1.3236;
795.9000;0.3891;1.3236;
796.2000;0.3867;1.3211;
796.5000;0.3875;1.3211;
796.8000;0.3875;1.3261;
797.1000;0.3858;1.3186;
797.4000;0.3867;1.3261;
797.7000;0.3915;1.3435;
798.0000;0.3875;1.3261;
798.3000;0.3761;1.2986;
798.6000;0.3875;1.3311;
798.9000;0.3883;1.3361;
799.2000;0.3875;1.3336;
799.5000;0.3850;1.3211;
799.8000;0.3940;1.3435;
800.1000;0.3858;1.3211;
800.4000;0.3875;1.3211;
800.7000;0.3883;1.3261;
801.0000;0.3875;1.3361;
801.3000;0.3883;1.3336;
801.6000;0.3867;1.3361;
801.9000;0.3850;1.3311;
802.2000;0.3842;1.3261;
802.5000;0.3858;1.3236;
802.8000;0.3858;1.3261;
803.1000;0.3875;1.3311;
803.4000;0.3875;1.3236;
803.7000;0.3867;1.3186;
804.0000;0.3842;1.3036;
804.3000;0.3858;1.3086;
804.6000;0.3875;1.3161;
804.9000;0.3883;1.3161;
805.2000;0.3875;1.3036;
805.5000;0.3875;1.3136;
805.8000;0.3867;1.3111;
806.1000;0.3883;1.3161;
806.4000;0.3867;1.3111;
806.7000;0.3867;1.3136;
807.0000;0.3842;1.3036;
807.3000;0.3858;1.3111;
807.6000;0.3850;1.3086;
807.9000;0.3867;1.3136;
808.2000;0.3801;1.2986;
808.5000;0.3858;1.3161;
808.8000;0.3883;1.3236;
809.1000;0.3867;1.3136;
809.4000;0.3842;1.3211;
809.7000;0.3858;1.3286;
810.0000;0.3867;1.3336;
810.3000;0.3858;1.3410;
810.6000;0.3867;1.3410;
810.9000;0.3842;1.3385;
811.2000;0.3834;1.3286;
811.5000;0.3850;1.3336;
811.8000;0.3842;1.3286;
812.1000;0.3850;1.3385;
812.4000;0.3867;1.3361;
812.7000;0.3850;1.3261;
813.0000;0.3850;1.3286;
813.3000;0.3834;1.3236;
813.6000;0.3826;1.3286;
813.9000;0.3842;1.3311;
814.2000;0.3842;1.3286;
814.5000;0.3867;1.3336;
814.8000;0.3858;1.3261;
815.1000;0.3867;1.3261;
815.4000;0.3883;1.3311;
815.7000;0.3858;1.3261;
816.0000;0.3858;1.3236;
816.3000;0.3907;1.3410;
816.6000;0.3867;1.3361;
816.9000;0.3858;1.3361;
817.2000;0.3867;1.3410;
817.5000;0.3858;1.3410;
817.8000;0.3858;1.3336;
818.1000;0.3858;1.3261;
818.4000;0.3858;1.3236;
818.7000;0.3858;1.3186;
819.0000;0.3842;1.3136;
819.3000;0.3818;1.3036;
819.6000;0.3867;1.3161;
819.9000;0.3858;1.3261;
820.2000;0.3810;1.3161;
820.5000;0.3883;1.3286;
820.8000;0.3875;1.3261;
821.1000;0.3850;1.3261;
821.4000;0.3858;1.3361;
821.7000;0.3850;1.3385;
822.0000;0.3826;1.3410;
822.3000;0.3850;1.3460;
822.6000;0.3834;1.3410;
822.9000;0.3810;1.3286;
823.2000;0.3850;1.3460;
823.5000;0.3785;1.3186;
823.8000;0.3891;1.3460;
824.1000;0.3842;1.3361;
824.4000;0.3826;1.3311;
824.7000;0.3810;1.3336;
825.0000;0.3842;1.3410;
825.3000;0.3875;1.3485;
825.6000;0.3834;1.3385;
825.9000;0.3842;1.3361;
826.2000;0.3834;1.3311;
826.5000;0.3867;1.3361;
826.8000;0.3834;1.3385;
827.1000;0.3818;1.3336;
827.4000;0.3826;1.3435;
827.7000;0.3842;1.3385;
828.0000;0.3867;1.3485;
828.3000;0.3834;1.3460;
828.6000;0.3826;1.3435;
828.9000;0.3842;1.3385;
829.2000;0.3842;1.3435;
829.5000;0.3850;1.3485;
829.8000;0.3834;1.3435;
830.1000;0.3850;1.3410;
830.4000;0.3834;1.3435;
830.7000;0.3850;1.3485;
831.0000;0.3850;1.3485;
831.3000;0.3867;1.3535;
831.6000;0.3858;1.3510;
831.9000;0.3858;1.3460;
832.2000;0.3834;1.3385;
832.5000;0.3834;1.3435;
832.8000;0.3834;1.3485;
833.1000;0.3810;1.3535;
833.4000;0.3826;1.3460;
833.7000;0.3826;1.3410;
834.0000;0.3842;1.3460;
834.3000;0.3801;1.3435;
834.6000;0.3826;1.3485;
834.9000;0.3907;1.3685;
835.2000;0.3818;1.3535;
835.5000;0.3850;1.3585;
835.8000;0.3834;1.3510;
836.1000;0.3793;1.3460;
836.4000;0.3842;1.3610;
836.7000;0.3842;1.3660;
837.0000;0.3810;1.3635;
837.3000;0.3834;1.3635;
837.6000;0.3793;1.3635;
837.9000;0.3842;1.3660;
838.2000;0.3834;1.3635;
838.5000;0.3826;1.3585;
838.8000;0.3842;1.3610;
839.1000;0.3826;1.3585;
839.4000;0.3850;1.3610;
839.7000;0.3834;1.3535;
840.0000;0.3826;1.3460;
840.3000;0.3801;1.3485;
840.6000;0.3818;1.3460;
840.9000;0.3858;1.3585;
841.2000;0.3834;1.3635;
841.5000;0.3842;1.3710;
841.8000;0.3858;1.3710;
842.1000;0.3842;1.3710;
842.4000;0.3744;1.3485;
842.7000;0.3834;1.3660;
843.0000;0.3761;1.3361;
843.3000;0.3842;1.3610;
843.6000;0.3818;1.3560;
843.9000;0.3842;1.3610;
844.2000;0.3818;1.3510;
844.5000;0.3883;1.3735;
844.8000;0.3834;1.3585;
845.1000;0.3818;1.3560;
845.4000;0.3834;1.3610;
845.7000;0.3818;1.3585;
846.0000;0.3850;1.3585;
846.3000;0.3875;1.3585;
846.6000;0.3818;1.3435;
846.9000;0.3850;1.3460;
847.2000;0.3834;1.3410;
847.5000;0.3818;1.3286;
847.8000;0.3826;1.3460;
848.1000;0.3826;1.3510;
848.4000;0.3834;1.3535;
848.7000;0.3818;1.3510;
849.0000;0.3818;1.3535;
849.3000;0.3826;1.3485;
849.6000;0.3834;1.3435;
849.9000;0.3826;1.3410;
850.2000;0.3810;1.3410;
850.5000;0.3818;1.3460;
850.8000;0.3834;1.3435;
851.1000;0.3818;1.3361;
851.4000;0.3818;1.3311;
851.7000;0.3834;1.3236;
852.0000;0.3826;1.3236;
852.3000;0.3834;1.3211;
852.6000;0.3826;1.3261;
852.9000;0.3818;1.3236;
853.2000;0.3842;1.3261;
853.5000;0.3810;1.3261;
853.8000;0.3801;1.3311;
854.1000;0.3785;1.3311;
854.4000;0.3818;1.3485;
854.7000;0.3834;1.3560;
855.0000;0.3842;1.3635;
855.3000;0.3818;1.3560;
855.6000;0.3810;1.3560;
855.9000;0.3850;1.3685;
856.2000;0.3850;1.3685;
856.5000;0.3810;1.3610;
856.8000;0.3801;1.3585;
857.1000;0.3850;1.3660;
857.4000;0.3834;1.3585;
857.7000;0.3777;1.3460;
858.0000;0.3801;1.3460;
858.3000;0.3810;1.3585;
858.6000;0.3810;1.3585;
858.9000;0.3793;1.3510;
859.2000;0.3785;1.3535;
859.5000;0.3801;1.3685;
859.8000;0.3810;1.3735;
860.1000;0.3785;1.3610;
860.4000;0.3801;1.3760;
860.7000;0.3818;1.3810;
861.0000;0.3818;1.3810;
861.3000;0.3801;1.3810;
861.6000;0.3810;1.3760;
861.9000;0.3785;1.3735;
862.2000;0.3842;1.3885;
862.5000;0.3818;1.3710;
862.8000;0.3810;1.3660;
863.1000;0.3818;1.3610;
863.4000;0.3777;1.3510;
863.7000;0.3818;1.3660;
864.0000;0.3810;1.3560;
864.3000;0.3793;1.3610;
864.6000;0.3777;1.3610;
864.9000;0.3834;1.3735;
865.2000;0.3810;1.3685;
865.5000;0.3793;1.3585;
865.8000;0.3810;1.3685;
866.1000;0.3777;1.3585;
866.4000;0.3826;1.3585;
866.7000;0.3818;1.3560;
867.0000;0.3785;1.3460;
867.3000;0.3818;1.3635;
867.6000;0.3793;1.3660;
867.9000;0.3785;1.3635;
868.2000;0.3801;1.3685;
868.5000;0.3793;1.3735;
868.8000;0.3818;1.3735;
869.1000;0.3793;1.3660;
869.4000;0.3801;1.3635;
869.7000;0.3793;1.3560;
870.0000;0.3826;1.3635;
870.3000;0.3801;1.3585;
870.6000;0.3810;1.3610;
870.9000;0.3777;1.3585;
871.2000;0.3793;1.3560;
871.5000;0.3818;1.3685;
871.8000;0.3810;1.3635;
872.1000;0.3834;1.3710;
872.4000;0.3793;1.3585;
872.7000;0.3834;1.3660;
873.0000;0.3793;1.3660;
873.3000;0.3736;1.3361;
873.6000;0.3801;1.3585;
873.9000;0.3826;1.3535;
874.2000;0.3801;1.3485;
874.5000;0.3801;1.3510;
874.8000;0.3785;1.3460;
875.1000;0.3826;1.3560;
875.4000;0.3801;1.3510;
875.7000;0.3801;1.3460;
876.0000;0.3801;1.3510;
876.3000;0.3810;1.3510;
876.6000;0.3793;1.3560;
876.9000;0.3818;1.3585;
877.2000;0.3801;1.3460;
877.5000;0.3744;1.3261;
877.8000;0.3810;1.3485;
878.1000;0.3793;1.3535;
878.4000;0.3793;1.3485;
878.7000;0.3801;1.3560;
879.0000;0.3785;1.3535;
879.3000;0.3801;1.3660;
879.6000;0.3793;1.3660;
879.9000;0.3801;1.3610;
880.2000;0.3793;1.3635;
880.5000;0.3810;1.3635;
880.8000;0.3834;1.3685;
881.1000;0.3834;1.3710;
881.4000;0.3810;1.3710;
881.7000;0.3818;1.3685;
882.0000;0.3810;1.3685;
882.3000;0.3826;1.3685;
882.6000;0.3801;1.3610;
882.9000;0.3826;1.3635;
883.2000;0.3801;1.3535;
883.5000;0.3793;1.3560;
883.8000;0.3810;1.3560;
884.1000;0.3801;1.3610;
884.4000;0.3777;1.3560;
884.7000;0.3810;1.3535;
885.0000;0.3801;1.3560;
885.3000;0.3801;1.3535;
885.6000;0.3801;1.3485;
885.9000;0.3801;1.3510;
886.2000;0.3810;1.3510;
886.5000;0.3810;1.3535;
886.8000;0.3801;1.3585;
887.1000;0.3801;1.3410;
887.4000;0.3793;1.3460;
887.7000;0.3801;1.3410;
888.0000;0.3801;1.3535;
888.3000;0.3801;1.3485;
888.6000;0.3785;1.3510;
888.9000;0.3793;1.3560;
889.2000;0.3818;1.3610;
889.5000;0.3801;1.3560;
889.8000;0.3777;1.3460;
890.1000;0.3793;1.3510;
890.4000;0.3753;1.3361;
890.7000;0.3736;1.3336;
891.0000;0.3793;1.3410;
891.3000;0.3785;1.3410;
891.6000;0.3818;1.3485;
891.9000;0.3801;1.3510;
892.2000;0.3785;1.3585;
892.5000;0.3810;1.3660;
892.8000;0.3785;1.3535;
893.1000;0.3810;1.3585;
893.4000;0.3810;1.3635;
893.7000;0.3801;1.3535;
894.0000;0.3785;1.3535;
894.3000;0.3834;1.3685;
894.6000;0.3785;1.3510;
894.9000;0.3793;1.3560;
895.2000;0.3793;1.3610;
895.5000;0.3793;1.3685;
895.8000;0.3785;1.3685;
896.1000;0.3793;1.3660;
896.4000;0.3801;1.3660;
896.7000;0.3801;1.3635;
897.0000;0.3801;1.3585;
897.3000;0.3801;1.3635;
897.6000;0.3785;1.3685;
897.9000;0.3842;1.3760;
898.2000;0.3793;1.3710;
898.5000;0.3834;1.3760;
898.8000;0.3785;1.3635;
899.1000;0.3793;1.3685;
899.4000;0.3793;1.3635;
899.7000;0.3769;1.3685;
900.0000;0.3777;1.3685;
900.3000;0.3801;1.3760;
900.6000;0.3793;1.3760;
900.9000;0.3785;1.3710;
901.2000;0.3793;1.3760;
901.5000;0.3785;1.3735;
901.8000;0.3818;1.3735;
902.1000;0.3785;1.3635;
902.4000;0.3801;1.3685;
902.7000;0.3753;1.3610;
903.0000;0.3785;1.3710;
903.3000;0.3785;1.3735;
903.6000;0.3736;1.3660;
903.9000;0.3785;1.3785;
904.2000;0.3801;1.3835;
904.5000;0.3785;1.3735;
904.8000;0.3793;1.3760;
905.1000;0.3753;1.3735;
905.4000;0.3753;1.3885;
905.7000;0.3826;1.3960;
906.0000;0.3769;1.3910;
906.3000;0.3761;1.3835;
906.6000;0.3785;1.3835;
906.9000;0.3793;1.3810;
907.2000;0.3785;1.3860;
907.5000;0.3777;1.3835;
907.8000;0.3777;1.3785;
908.1000;0.3785;1.3760;
908.4000;0.3785;1.3735;
908.7000;0.3810;1.3860;
909.0000;0.3777;1.3810;
909.3000;0.3777;1.3810;
909.6000;0.3793;1.3910;
909.9000;0.3761;1.3810;
910.2000;0.3785;1.3760;
910.5000;0.3801;1.3760;
910.8000;0.3793;1.3760;
911.1000;0.3777;1.3785;
911.4000;0.3769;1.3785;
911.7000;0.3777;1.3810;
912.0000;0.3793;1.3910;
912.3000;0.3793;1.3985;
912.6000;0.3785;1.3985;
912.9000;0.3785;1.3935;
913.2000;0.3769;1.4060;
913.5000;0.3761;1.3985;
913.8000;0.3785;1.3985;
914.1000;0.3769;1.3935;
914.4000;0.3785;1.3910;
914.7000;0.3761;1.3885;
915.0000;0.3761;1.3785;
915.3000;0.3769;1.3810;
915.6000;0.3777;1.3860;
915.9000;0.3720;1.3735;
916.2000;0.3769;1.3810;
916.5000;0.3736;1.3710;
916.8000;0.3696;1.3535;
917.1000;0.3801;1.3785;
917.4000;0.3793;1.3885;
917.7000;0.3785;1.3760;
918.0000;0.3761;1.3660;
918.3000;0.3826;1.3760;
918.6000;0.3801;1.3685;
918.9000;0.3777;1.3560;
919.2000;0.3777;1.3485;
919.5000;0.3777;1.3485;
919.8000;0.3777;1.3585;
920.1000;0.3793;1.3635;
920.4000;0.3793;1.3660;
920.7000;0.3785;1.3585;
921.0000;0.3793;1.3535;
921.3000;0.3769;1.3460;
921.6000;0.3793;1.3510;
921.9000;0.3785;1.3485;
922.2000;0.3810;1.3685;
922.5000;0.3777;1.3735;
922.8000;0.3777;1.3710;
923.1000;0.3777;1.3660;
923.4000;0.3785;1.3660;
923.7000;0.3785;1.3610;
924.0000;0.3793;1.3585;
924.3000;0.3867;1.3760;
924.6000;0.3769;1.3535;
924.9000;0.3785;1.3560;
925.2000;0.3777;1.3585;
925.5000;0.3777;1.3535;
925.8000;0.3769;1.3535;
926.1000;0.3769;1.3585;
926.4000;0.3785;1.3635;
926.7000;0.3761;1.3635;
927.0000;0.3769;1.3560;
927.3000;0.3777;1.3510;
927.6000;0.3785;1.3535;
927.9000;0.3785;1.3585;
928.2000;0.3834;1.3710;
928.5000;0.3793;1.3585;
928.8000;0.3801;1.3635;
929.1000;0.3769;1.3585;
929.4000;0.3777;1.3685;
929.7000;0.3744;1.3635;
930.0000;0.3769;1.3685;
930.3000;0.3769;1.3660;
930.6000;0.3777;1.3735;
930.9000;0.3769;1.3760;
931.2000;0.3761;1.3785;
931.5000;0.3777;1.3785;
931.8000;0.3753;1.3785;
932.1000;0.3777;1.3835;
932.4000;0.3777;1.3885;
932.7000;0.3793;1.3885;
933.0000;0.3753;1.3760;
933.3000;0.3769;1.3810;
933.6000;0.3777;1.3760;
933.9000;0.3769;1.3610;
934.2000;0.3793;1.3660;
934.5000;0.3785;1.3585;
934.8000;0.3777;1.3585;
935.1000;0.3777;1.3610;
935.4000;0.3769;1.3610;
935.7000;0.3753;1.3585;
936.0000;0.3761;1.3660;
936.3000;0.3777;1.3685;
936.6000;0.3761;1.3710;
936.9000;0.3744;1.3685;
937.2000;0.3761;1.3760;
937.5000;0.3777;1.3835;
937.8000;0.3842;1.4010;
938.1000;0.3777;1.3760;
938.4000;0.3761;1.3735;
938.7000;0.3753;1.3735;
939.0000;0.3785;1.3935;
939.3000;0.3769;1.3935;
939.6000;0.3744;1.3885;
939.9000;0.3679;1.3735;
940.2000;0.3777;1.3910;
940.5000;0.3777;1.3810;
940.8000;0.3826;1.3910;
941.1000;0.3753;1.3810;
941.4000;0.3785;1.3960;
941.7000;0.3761;1.3860;
942.0000;0.3753;1.3835;
942.3000;0.3761;1.3860;
942.6000;0.3769;1.3860;
942.9000;0.3777;1.3785;
943.2000;0.3761;1.3810;
943.5000;0.3769;1.3935;
943.8000;0.3777;1.3960;
944.1000;0.3777;1.3935;
944.4000;0.3753;1.3860;
944.7000;0.3777;1.3910;
945.0000;0.3777;1.3960;
945.3000;0.3761;1.3810;
945.6000;0.3777;1.3760;
945.9000;0.3785;1.3710;
946.2000;0.3769;1.3760;
946.5000;0.3777;1.3810;
946.8000;0.3769;1.3810;
947.1000;0.3761;1.3860;
947.4000;0.3769;1.3860;
947.7000;0.3761;1.3860;
948.0000;0.3753;1.3760;
948.3000;0.3785;1.3785;
948.6000;0.3769;1.3735;
948.9000;0.3761;1.3685;
949.2000;0.3777;1.3760;
949.5000;0.3777;1.3735;
949.8000;0.3753;1.3685;
950.1000;0.3744;1.3710;
950.4000;0.3785;1.3810;
950.7000;0.3753;1.3685;
951.0000;0.3744;1.3635;
951.3000;0.3761;1.3660;
951.6000;0.3761;1.3685;
951.9000;0.3761;1.3760;
952.2000;0.3744;1.3685;
952.5000;0.3753;1.3710;
952.8000;0.3753;1.3810;
953.1000;0.3769;1.3785;
953.4000;0.3761;1.3835;
953.7000;0.3736;1.3760;
954.0000;0.3777;1.3860;
954.3000;0.3793;1.3860;
954.6000;0.3753;1.3835;
954.9000;0.3761;1.3910;
955.2000;0.3761;1.4010;
955.5000;0.3769;1.3985;
955.8000;0.3793;1.3960;
956.1000;0.3769;1.3910;
956.4000;0.3793;1.3935;
956.7000;0.3785;1.3860;
957.0000;0.3761;1.3785;
957.3000;0.3744;1.3685;
957.6000;0.3753;1.3710;
957.9000;0.3736;1.3785;
958.2000;0.3753;1.3810;
958.5000;0.3753;1.3735;
958.8000;0.3793;1.3810;
959.1000;0.3777;1.3685;
959.4000;0.3834;1.3860;
959.7000;0.3769;1.3810;
960.0000;0.3744;1.3760;
960.3000;0.3753;1.3735;
960.6000;0.3810;1.3860;
960.9000;0.3728;1.3635;
961.2000;0.3769;1.3710;
961.5000;0.3769;1.3660;
961.8000;0.3769;1.3660;
962.1000;0.3769;1.3710;
962.4000;0.3793;1.3810;
962.7000;0.3761;1.3710;
963.0000;0.3736;1.3685;
963.3000;0.3761;1.3810;
963.6000;0.3769;1.3835;
963.9000;0.3728;1.3760;
964.2000;0.3744;1.3785;
964.5000;0.3753;1.3760;
964.8000;0.3761;1.3735;
965.1000;0.3777;1.3760;
965.4000;0.3761;1.3660;
965.7000;0.3753;1.3610;
966.0000;0.3769;1.3610;
966.3000;0.3728;1.3485;
966.6000;0.3753;1.3535;
966.9000;0.3704;1.3435;
967.2000;0.3769;1.3660;
967.5000;0.3753;1.3560;
967.8000;0.3785;1.3585;
968.1000;0.3720;1.3535;
968.4000;0.3777;1.3610;
968.7000;0.3744;1.3535;
969.0000;0.3753;1.3585;
969.3000;0.3777;1.3735;
969.6000;0.3777;1.3710;
969.9000;0.3785;1.3735;
970.2000;0.3753;1.3660;
970.5000;0.3769;1.3685;
970.8000;0.3834;1.3910;
971.1000;0.3720;1.3685;
971.4000;0.3761;1.3835;
971.7000;0.3761;1.3760;
972.0000;0.3769;1.3885;
972.3000;0.3761;1.3910;
972.6000;0.3769;1.3935;
972.9000;0.3769;1.3885;
973.2000;0.3744;1.3935;
973.5000;0.3761;1.4035;
973.8000;0.3753;1.3960;
974.1000;0.3744;1.3860;
974.4000;0.3753;1.3885;
974.7000;0.3744;1.3860;
975.0000;0.3753;1.3785;
975.3000;0.3834;1.3960;
975.6000;0.3761;1.3810;
975.9000;0.3753;1.3710;
976.2000;0.3769;1.3760;
976.5000;0.3769;1.3735;
976.8000;0.3761;1.3760;
977.1000;0.3777;1.3785;
977.4000;0.3744;1.3560;
977.7000;0.3753;1.3510;
978.0000;0.3761;1.3560;
978.3000;0.3761;1.3560;
978.6000;0.3769;1.3585;
978.9000;0.3744;1.3585;
979.2000;0.3801;1.3735;
979.5000;0.3761;1.3735;
979.8000;0.3753;1.3735;
980.1000;0.3769;1.3810;
980.4000;0.3826;1.3960;
980.7000;0.3769;1.3860;
981.0000;0.3761;1.3860;
981.3000;0.3761;1.3885;
981.6000;0.3761;1.3835;
981.9000;0.3720;1.3735;
982.2000;0.3736;1.3735;
982.5000;0.3744;1.3735;
982.8000;0.3753;1.3710;
983.1000;0.3761;1.3710;
983.4000;0.3777;1.3760;
983.7000;0.3769;1.3760;
984.0000;0.3761;1.3810;
984.3000;0.3753;1.3785;
984.6000;0.3744;1.3760;
984.9000;0.3761;1.3860;
985.2000;0.3744;1.3835;
985.5000;0.3753;1.3785;
985.8000;0.3744;1.3810;
986.1000;0.3720;1.3710;
986.4000;0.3761;1.3910;
986.7000;0.3753;1.3810;
987.0000;0.3753;1.3835;
987.3000;0.3761;1.3985;
987.6000;0.3753;1.3910;
987.9000;0.3728;1.3885;
988.2000;0.3744;1.3960;
988.5000;0.3842;1.4185;
988.8000;0.3744;1.3985;
989.1000;0.3712;1.3860;
989.4000;0.3761;1.3860;
989.7000;0.3777;1.3960;
990.0000;0.3753;1.3785;
990.3000;0.3679;1.3635;
990.6000;0.3761;1.3835;
990.9000;0.3744;1.3810;
991.2000;0.3761;1.3835;
991.5000;0.3769;1.3910;
991.8000;0.3761;1.3835;
992.1000;0.3728;1.3685;
992.4000;0.3761;1.3810;
992.7000;0.3769;1.3710;
993.0000;0.3744;1.3610;
993.3000;0.3761;1.3660;
993.6000;0.3744;1.3635;
993.9000;0.3744;1.3735;
994.2000;0.3753;1.3710;
994.5000;0.3744;1.3685;
994.8000;0.3744;1.3760;
995.1000;0.3753;1.3860;
995.4000;0.3761;1.4035;
995.7000;0.3785;1.4035;
996.0000;0.3785;1.4010;
996.3000;0.3753;1.3860;
996.6000;0.3777;1.3860;
996.9000;0.3761;1.3860;
997.2000;0.3753;1.3810;
997.5000;0.3761;1.3835;
997.8000;0.3769;1.3910;
998.1000;0.3744;1.3885;
998.4000;0.3753;1.3860;
998.7000;0.3761;1.3935;
999.0000;0.3753;1.4010;
999.3000;0.3736;1.3910;
999.6000;0.3777;1.3960;
999.9000;0.3769;1.3985;
1000.2000;0.3744;1.3910;
1000.5000;0.3753;1.3860;
1000.8000;0.3744;1.3835;
1001.1000;0.3769;1.3885;
1001.4000;0.3769;1.3810;
1001.7000;0.3777;1.3660;
1002.0000;0.3744;1.3635;
1002.3000;0.3744;1.3710;
1002.6000;0.3761;1.3785;
1002.9000;0.3777;1.3785;
1003.2000;0.3769;1.3760;
1003.5000;0.3769;1.3760;
1003.8000;0.3720;1.3660;
1004.1000;0.3753;1.3760;
1004.4000;0.3777;1.3760;
1004.7000;0.3736;1.3610;
1005.0000;0.3753;1.3635;
1005.3000;0.3769;1.3635;
1005.6000;0.3769;1.3610;
1005.9000;0.3761;1.3660;
1006.2000;0.3761;1.3635;
1006.5000;0.3753;1.3610;
1006.8000;0.3744;1.3585;
1007.1000;0.3753;1.3585;
1007.4000;0.3753;1.3710;
1007.7000;0.3744;1.3785;
1008.0000;0.3744;1.3760;
1008.3000;0.3736;1.3885;
1008.6000;0.3736;1.3835;
1008.9000;0.3728;1.3810;
1009.2000;0.3753;1.3785;
1009.5000;0.3728;1.3685;
1009.8000;0.3712;1.3635;
1010.1000;0.3736;1.3660;
1010.4000;0.3744;1.3685;
1010.7000;0.3753;1.3710;
1011.0000;0.3744;1.3710;
1011.3000;0.3687;1.3610;
1011.6000;0.3753;1.3735;
1011.9000;0.3736;1.3785;
1012.2000;0.3736;1.3760;
1012.5000;0.3753;1.3810;
1012.8000;0.3777;1.3910;
1013.1000;0.3769;1.3885;
1013.4000;0.3712;1.3710;
1013.7000;0.3753;1.3685;
1014.0000;0.3736;1.3635;
1014.3000;0.3744;1.3535;
1014.6000;0.3761;1.3510;
1014.9000;0.3744;1.3485;
1015.2000;0.3753;1.3510;
1015.5000;0.3753;1.3535;
1015.8000;0.3720;1.3460;
1016.1000;0.3712;1.3460;
1016.4000;0.3744;1.3585;
1016.7000;0.3744;1.3585;
1017.0000;0.3761;1.3635;
1017.3000;0.3785;1.3735;
1017.6000;0.3761;1.3685;
1017.9000;0.3736;1.3710;
1018.2000;0.3720;1.3585;
1018.5000;0.3720;1.3585;
1018.8000;0.3744;1.3610;
1019.1000;0.3744;1.3685;
1019.4000;0.3769;1.3710;
1019.7000;0.3736;1.3635;
1020.0000;0.3736;1.3535;
1020.3000;0.3736;1.3535;
1020.6000;0.3761;1.3635;
1020.9000;0.3761;1.3535;
1021.2000;0.3736;1.3435;
1021.5000;0.3744;1.3510;
1021.8000;0.3704;1.3361;
1022.1000;0.3744;1.3485;
1022.4000;0.3736;1.3485;
1022.7000;0.3736;1.3460;
1023.0000;0.3720;1.3435;
1023.3000;0.3728;1.3510;
1023.6000;0.3744;1.3485;
1023.9000;0.3753;1.3560;
1024.2000;0.3736;1.3510;
1024.5000;0.3744;1.3535;
1024.8000;0.3753;1.3485;
1025.1000;0.3744;1.3510;
1025.4000;0.3744;1.3585;
1025.7000;0.3753;1.3535;
1026.0000;0.3777;1.3510;
1026.3000;0.3736;1.3485;
1026.6000;0.3744;1.3385;
1026.9000;0.3744;1.3336;
1027.2000;0.3769;1.3385;
1027.5000;0.3744;1.3361;
1027.8000;0.3736;1.3336;
1028.1000;0.3744;1.3460;
1028.4000;0.3736;1.3485;
1028.7000;0.3736;1.3510;
1029.0000;0.3744;1.3560;
1029.3000;0.3736;1.3460;
1029.6000;0.3736;1.3435;
1029.9000;0.3720;1.3361;
1030.2000;0.3736;1.3385;
1030.5000;0.3736;1.3460;
1030.8000;0.3736;1.3560;
1031.1000;0.3736;1.3635;
1031.4000;0.3720;1.3660;
1031.7000;0.3728;1.3685;
1032.0000;0.3744;1.3635;
1032.3000;0.3712;1.3485;
1032.6000;0.3736;1.3560;
1032.9000;0.3728;1.3385;
1033.2000;0.3720;1.3385;
1033.5000;0.3704;1.3410;
1033.8000;0.3728;1.3460;
1034.1000;0.3704;1.3361;
1034.4000;0.3744;1.3485;
1034.7000;0.3728;1.3460;
1035.0000;0.3736;1.3435;
1035.3000;0.3744;1.3385;
1035.6000;0.3753;1.3336;
1035.9000;0.3744;1.3361;
1036.2000;0.3753;1.3385;
1036.5000;0.3761;1.3361;
1036.8000;0.3744;1.3361;
1037.1000;0.3793;1.3485;
1037.4000;0.3744;1.3460;
1037.7000;0.3736;1.3535;
1038.0000;0.3736;1.3560;
1038.3000;0.3736;1.3560;
1038.6000;0.3744;1.3635;
1038.9000;0.3744;1.3535;
1039.2000;0.3744;1.3460;
1039.5000;0.3728;1.3535;
1039.8000;0.3736;1.3485;
1040.1000;0.3728;1.3435;
1040.4000;0.3736;1.3485;
1040.7000;0.3753;1.3560;
1041.0000;0.3744;1.3510;
1041.3000;0.3761;1.3510;
1041.6000;0.3736;1.3460;
1041.9000;0.3761;1.3435;
1042.2000;0.3761;1.3410;
1042.5000;0.3761;1.3311;
1042.8000;0.3744;1.3435;
1043.1000;0.3736;1.3311;
1043.4000;0.3744;1.3385;
1043.7000;0.3785;1.3610;
1044.0000;0.3744;1.3535;
1044.3000;0.3655;1.3336;
1044.6000;0.3736;1.3585;
1044.9000;0.3736;1.3560;
1045.2000;0.3744;1.3610;
1045.5000;0.3744;1.3585;
1045.8000;0.3736;1.3560;
1046.1000;0.3744;1.3585;
1046.4000;0.3753;1.3585;
1046.7000;0.3736;1.3535;
1047.0000;0.3753;1.3560;
1047.3000;0.3753;1.3635;
1047.6000;0.3753;1.3610;
1047.9000;0.3728;1.3660;
1048.2000;0.3728;1.3685;
1048.5000;0.3744;1.3760;
1048.8000;0.3736;1.3760;
1049.1000;0.3736;1.3635;
1049.4000;0.3736;1.3585;
1049.7000;0.3728;1.3535;
1050.0000;0.3736;1.3635;
1050.3000;0.3720;1.3610;
1050.6000;0.3736;1.3710;
1050.9000;0.3761;1.3835;
1051.2000;0.3769;1.3860;
1051.5000;0.3744;1.3835;
1051.8000;0.3744;1.3785;
1052.1000;0.3736;1.3760;
1052.4000;0.3801;1.3960;
1052.7000;0.3761;1.3835;
1053.0000;0.3736;1.3760;
1053.3000;0.3736;1.3735;
1053.6000;0.3736;1.3685;
1053.9000;0.3712;1.3635;
1054.2000;0.3744;1.3785;
1054.5000;0.3720;1.3785;
1054.8000;0.3671;1.3660;
1055.1000;0.3736;1.3810;
1055.4000;0.3736;1.3785;
1055.7000;0.3736;1.3785;
1056.0000;0.3736;1.3710;
1056.3000;0.3736;1.3810;
1056.6000;0.3736;1.3785;
1056.9000;0.3712;1.3685;
1057.2000;0.3720;1.3685;
1057.5000;0.3736;1.3735;
1057.8000;0.3736;1.3810;
1058.1000;0.3728;1.3785;
1058.4000;0.3728;1.3785;
1058.7000;0.3744;1.3735;
1059.0000;0.3736;1.3760;
1059.3000;0.3728;1.3760;
1059.6000;0.3736;1.3810;
1059.9000;0.3753;1.3810;
1060.2000;0.3761;1.3810;
1060.5000;0.3736;1.3660;
1060.8000;0.3777;1.3760;
1061.1000;0.3744;1.3735;
1061.4000;0.3753;1.3760;
1061.7000;0.3736;1.3660;
1062.0000;0.3736;1.3710;
1062.3000;0.3753;1.3710;
1062.6000;0.3744;1.3660;
1062.9000;0.3728;1.3660;
1063.2000;0.3769;1.3760;
1063.5000;0.3728;1.3710;
1063.8000;0.3712;1.3710;
1064.1000;0.3728;1.3710;
1064.4000;0.3728;1.3710;
1064.7000;0.3736;1.3635;
1065.0000;0.3736;1.3660;
1065.3000;0.3744;1.3610;
1065.6000;0.3736;1.3610;
1065.9000;0.3736;1.3635;
1066.2000;0.3753;1.3660;
1066.5000;0.3728;1.3585;
1066.8000;0.3704;1.3435;
1067.1000;0.3712;1.3460;
1067.4000;0.3744;1.3535;
1067.7000;0.3736;1.3460;
1068.0000;0.3736;1.3435;
1068.3000;0.3744;1.3410;
1068.6000;0.3736;1.3435;
1068.9000;0.3744;1.3560;
1069.2000;0.3818;1.3735;
1069.5000;0.3728;1.3610;
1069.8000;0.3769;1.3760;
1070.1000;0.3647;1.3535;
1070.4000;0.3728;1.3735;
1070.7000;0.3728;1.3810;
1071.0000;0.3728;1.3835;
1071.3000;0.3744;1.3785;
1071.6000;0.3736;1.3710;
1071.9000;0.3728;1.3760;
1072.2000;0.3744;1.3785;
1072.5000;0.3720;1.3760;
1072.8000;0.3720;1.3760;
1073.1000;0.3736;1.3760;
1073.4000;0.3744;1.3710;
1073.7000;0.3736;1.3735;
1074.0000;0.3712;1.3610;
1074.3000;0.3728;1.3660;
1074.6000;0.3736;1.3735;
1074.9000;0.3720;1.3685;
1075.2000;0.3736;1.3635;
1075.5000;0.3663;1.3535;
1075.8000;0.3744;1.3735;
1076.1000;0.3744;1.3760;
1076.4000;0.3818;1.3935;
1076.7000;0.3728;1.3735;
1077.0000;0.3761;1.3735;
1077.3000;0.3761;1.3735;
1077.6000;0.3736;1.3735;
1077.9000;0.3744;1.3685;
1078.2000;0.3761;1.3685;
1078.5000;0.3761;1.3660;
1078.8000;0.3720;1.3535;
1079.1000;0.3728;1.3560;
1079.4000;0.3761;1.3685;
1079.7000;0.3720;1.3635;
1080.0000;0.3720;1.3735;
1080.3000;0.3744;1.3785;
1080.6000;0.3736;1.3785;
1080.9000;0.3720;1.3760;
1081.2000;0.3720;1.3760;
1081.5000;0.3728;1.3710;
1081.8000;0.3736;1.3760;
1082.1000;0.3736;1.3785;
1082.4000;0.3720;1.3635;
1082.7000;0.3736;1.3710;
1083.0000;0.3728;1.3785;
1083.3000;0.3736;1.3710;
1083.6000;0.3736;1.3685;
1083.9000;0.3728;1.3585;
1084.2000;0.3744;1.3560;
1084.5000;0.3753;1.3535;
1084.8000;0.3728;1.3510;
1085.1000;0.3777;1.3685;
1085.4000;0.3720;1.3660;
1085.7000;0.3736;1.3685;
1086.0000;0.3736;1.3685;
1086.3000;0.3728;1.3610;
1086.6000;0.3736;1.3635;
1086.9000;0.3736;1.3585;
1087.2000;0.3728;1.3635;
1087.5000;0.3736;1.3610;
1087.8000;0.3736;1.3610;
1088.1000;0.3769;1.3635;
1088.4000;0.3736;1.3635;
1088.7000;0.3728;1.3635;
1089.0000;0.3720;1.3685;
1089.3000;0.3736;1.3760;
1089.6000;0.3720;1.3785;
1089.9000;0.3793;1.3860;
1090.2000;0.3728;1.3685;
1090.5000;0.3736;1.3685;
1090.8000;0.3736;1.3785;
1091.1000;0.3728;1.3810;
1091.4000;0.3720;1.3810;
1091.7000;0.3712;1.3735;
1092.0000;0.3736;1.3760;
1092.3000;0.3769;1.3885;
1092.6000;0.3712;1.3735;
1092.9000;0.3720;1.3810;
1093.2000;0.3704;1.3735;
1093.5000;0.3728;1.3735;
1093.8000;0.3728;1.3735;
1094.1000;0.3728;1.3735;
1094.4000;0.3720;1.3760;
1094.7000;0.3744;1.3785;
1095.0000;0.3736;1.3735;
1095.3000;0.3736;1.3760;
1095.6000;0.3744;1.3685;
1095.9000;0.3736;1.3685;
1096.2000;0.3720;1.3635;
1096.5000;0.3736;1.3635;
1096.8000;0.3720;1.3635;
1097.1000;0.3744;1.3710;
1097.4000;0.3769;1.3735;
1097.7000;0.3728;1.3610;
1098.0000;0.3704;1.3560;
1098.3000;0.3720;1.3660;
1098.6000;0.3736;1.3610;
1098.9000;0.3736;1.3510;
1099.2000;0.3736;1.3510;
1099.5000;0.3744;1.3610;
1099.8000;0.3736;1.3535;
1100.1000;0.3769;1.3585;
1100.4000;0.3712;1.3460;
1100.7000;0.3679;1.3435;
1101.0000;0.3736;1.3635;
1101.3000;0.3728;1.3610;
1101.6000;0.3744;1.3610;
1101.9000;0.3753;1.3510;
1102.2000;0.3744;1.3585;
1102.5000;0.3736;1.3585;
1102.8000;0.3720;1.3535;
1103.1000;0.3712;1.3535;
1103.4000;0.3753;1.3585;
1103.7000;0.3736;1.3560;
1104.0000;0.3736;1.3510;
1104.3000;0.3728;1.3510;
1104.6000;0.3720;1.3510;
1104.9000;0.3704;1.3535;
1105.2000;0.3720;1.3585;
1105.5000;0.3720;1.3585;
1105.8000;0.3720;1.3585;
1106.1000;0.3744;1.3585;
1106.4000;0.3720;1.3535;
1106.7000;0.3679;1.3460;
1107.0000;0.3728;1.3635;
1107.3000;0.3793;1.3735;
1107.6000;0.3736;1.3535;
1107.9000;0.3728;1.3535;
1108.2000;0.3728;1.3510;
1108.5000;0.3728;1.3435;
1108.8000;0.3728;1.3510;
1109.1000;0.3736;1.3585;
1109.4000;0.3728;1.3610;
1109.7000;0.3736;1.3610;
1110.0000;0.3753;1.3735;
1110.3000;0.3728;1.3760;
1110.6000;0.3728;1.3760;
1110.9000;0.3736;1.3810;
1111.2000;0.3736;1.3860;
1111.5000;0.3720;1.3760;
1111.8000;0.3720;1.3685;
1112.1000;0.3679;1.3660;
1112.4000;0.3712;1.3635;
1112.7000;0.3728;1.3735;
1113.0000;0.3744;1.3685;
1113.3000;0.3655;1.3510;
1113.6000;0.3785;1.3910;
1113.9000;0.3728;1.3835;
1114.2000;0.3728;1.3810;
1114.5000;0.3712;1.3760;
1114.8000;0.3720;1.3785;
1115.1000;0.3655;1.3610;
1115.4000;0.3720;1.3785;
1115.7000;0.3720;1.3785;
1116.0000;0.3712;1.3835;
1116.3000;0.3728;1.3885;
1116.6000;0.3712;1.3835;
1116.9000;0.3720;1.3810;
1117.2000;0.3720;1.3760;
1117.5000;0.3736;1.3760;
1117.8000;0.3687;1.3685;
1118.1000;0.3728;1.3760;
1118.4000;0.3744;1.3835;
1118.7000;0.3728;1.3760;
1119.0000;0.3728;1.3710;
1119.3000;0.3728;1.3685;
1119.6000;0.3728;1.3660;
1119.9000;0.3728;1.3635;
1120.2000;0.3704;1.3560;
1120.5000;0.3736;1.3635;
1120.8000;0.3720;1.3610;
1121.1000;0.3728;1.3635;
1121.4000;0.3696;1.3535;
1121.7000;0.3728;1.3635;
1122.0000;0.3696;1.3535;
1122.3000;0.3753;1.3635;
1122.6000;0.3736;1.3685;
1122.9000;0.3736;1.3685;
1123.2000;0.3818;1.3910;
1123.5000;0.3736;1.3635;
1123.8000;0.3793;1.3835;
1124.1000;0.3744;1.3685;
1124.4000;0.3753;1.3710;
1124.7000;0.3728;1.3710;
1125.0000;0.3736;1.3710;
1125.3000;0.3744;1.3785;
1125.6000;0.3736;1.3785;
1125.9000;0.3720;1.3660;
1126.2000;0.3728;1.3735;
1126.5000;0.3736;1.3810;
1126.8000;0.3728;1.3760;
1127.1000;0.3728;1.3835;
1127.4000;0.3687;1.3760;
1127.7000;0.3720;1.3860;
1128.0000;0.3736;1.3935;
1128.3000;0.3761;1.3910;
1128.6000;0.3736;1.3760;
1128.9000;0.3736;1.3810;
1129.2000;0.3704;1.3710;
1129.5000;0.3696;1.3635;
1129.8000;0.3753;1.3760;
1130.1000;0.3736;1.3710;
1130.4000;0.3761;1.3710;
1130.7000;0.3728;1.3685;
1131.0000;0.3777;1.3760;
1131.3000;0.3761;1.3635;
1131.6000;0.3753;1.3610;
1131.9000;0.3744;1.3585;
1132.2000;0.3728;1.3560;
1132.5000;0.3728;1.3610;
1132.8000;0.3720;1.3585;
1133.1000;0.3728;1.3685;
1133.4000;0.3736;1.3710;
1133.7000;0.3736;1.3685;
1134.0000;0.3793;1.3810;
1134.3000;0.3728;1.3660;
1134.6000;0.3744;1.3685;
1134.9000;0.3728;1.3635;
1135.2000;0.3720;1.3685;
1135.5000;0.3753;1.3685;
1135.8000;0.3753;1.3685;
1136.1000;0.3712;1.3560;
1136.4000;0.3736;1.3585;
1136.7000;0.3736;1.3635;
1137.0000;0.3728;1.3510;
1137.3000;0.3728;1.3435;
1137.6000;0.3728;1.3485;
1137.9000;0.3720;1.3510;
1138.2000;0.3736;1.3535;
1138.5000;0.3728;1.3560;
1138.8000;0.3728;1.3560;
1139.1000;0.3728;1.3535;
1139.4000;0.3720;1.3560;
1139.7000;0.3679;1.3510;
1140.0000;0.3736;1.3710;
1140.3000;0.3720;1.3635;
1140.6000;0.3720;1.3760;
1140.9000;0.3720;1.3785;
1141.2000;0.3728;1.3635;
1141.5000;0.3728;1.3635;
1141.8000;0.3712;1.3560;
1142.1000;0.3671;1.3460;
1142.4000;0.3720;1.3610;
1142.7000;0.3728;1.3585;
1143.0000;0.3736;1.3660;
1143.3000;0.3777;1.3785;
1143.6000;0.3744;1.3710;
1143.9000;0.3728;1.3685;
1144.2000;0.3720;1.3760;
1144.5000;0.3785;1.3835;
1144.8000;0.3720;1.3635;
1145.1000;0.3720;1.3685;
1145.4000;0.3712;1.3660;
1145.7000;0.3736;1.3735;
1146.0000;0.3744;1.3760;
1146.3000;0.3712;1.3635;
1146.6000;0.3728;1.3660;
1146.9000;0.3728;1.3635;
1147.2000;0.3728;1.3635;
1147.5000;0.3728;1.3610;
1147.8000;0.3720;1.3535;
1148.1000;0.3728;1.3585;
1148.4000;0.3761;1.3610;
1148.7000;0.3728;1.3485;
1149.0000;0.3696;1.3385;
1149.3000;0.3728;1.3510;
1149.6000;0.3736;1.3485;
1149.9000;0.3753;1.3635;
1150.2000;0.3736;1.3585;
1150.5000;0.3736;1.3585;
1150.8000;0.3753;1.3535;
1151.1000;0.3769;1.3635;
1151.4000;0.3769;1.3635;
1151.7000;0.3736;1.3635;
1152.0000;0.3728;1.3710;
1152.3000;0.3704;1.3610;
1152.6000;0.3720;1.3685;
1152.9000;0.3712;1.3610;
1153.2000;0.3728;1.3585;
1153.5000;0.3736;1.3635;
1153.8000;0.3744;1.3635;
1154.1000;0.3720;1.3635;
1154.4000;0.3744;1.3610;
1154.7000;0.3744;1.3660;
1155.0000;0.3736;1.3560;
1155.3000;0.3728;1.3585;
1155.6000;0.3728;1.3585;
1155.9000;0.3728;1.3585;
1156.2000;0.3712;1.3485;
1156.5000;0.3728;1.3535;
1156.8000;0.3696;1.3535;
1157.1000;0.3696;1.3585;
1157.4000;0.3736;1.3635;
1157.7000;0.3720;1.3660;
1158.0000;0.3720;1.3685;
1158.3000;0.3720;1.3660;
1158.6000;0.3736;1.3635;
1158.9000;0.3736;1.3660;
1159.2000;0.3736;1.3660;
1159.5000;0.3736;1.3760;
1159.8000;0.3753;1.3785;
1160.1000;0.3728;1.3635;
1160.4000;0.3720;1.3660;
1160.7000;0.3744;1.3610;
1161.0000;0.3728;1.3610;
1161.3000;0.3720;1.3660;
1161.6000;0.3712;1.3685;
1161.9000;0.3728;1.3660;
1162.2000;0.3728;1.3635;
1162.5000;0.3728;1.3635;
1162.8000;0.3712;1.3610;
1163.1000;0.3720;1.3785;
1163.4000;0.3728;1.3735;
1163.7000;0.3728;1.3685;
1164.0000;0.3736;1.3660;
1164.3000;0.3720;1.3610;
1164.6000;0.3704;1.3560;
1164.9000;0.3728;1.3585;
1165.2000;0.3712;1.3485;
1165.5000;0.3720;1.3510;
1165.8000;0.3728;1.3535;
1166.1000;0.3736;1.3535;
1166.4000;0.3696;1.3361;
1166.7000;0.3720;1.3410;
1167.0000;0.3720;1.3485;
1167.3000;0.3712;1.3635;
1167.6000;0.3720;1.3685;
1167.9000;0.3720;1.3735;
1168.2000;0.3712;1.3810;
1168.5000;0.3704;1.3835;
1168.8000;0.3728;1.3910;
1169.1000;0.3736;1.3885;
1169.4000;0.3687;1.3685;
1169.7000;0.3736;1.3710;
1170.0000;0.3736;1.3710;
1170.3000;0.3736;1.3685;
1170.6000;0.3736;1.3610;
1170.9000;0.3728;1.3585;
1171.2000;0.3720;1.3510;
1171.5000;0.3728;1.3560;
1171.8000;0.3753;1.3610;
1172.1000;0.3736;1.3585;
1172.4000;0.3736;1.3510;
1172.7000;0.3744;1.3460;
1173.0000;0.3720;1.3485;
1173.3000;0.3728;1.3510;
1173.6000;0.3736;1.3635;
1173.9000;0.3736;1.3635;
1174.2000;0.3744;1.3610;
1174.5000;0.3728;1.3535;
1174.8000;0.3720;1.3560;
1175.1000;0.3728;1.3660;
1175.4000;0.3736;1.3610;
1175.7000;0.3736;1.3560;
1176.0000;0.3704;1.3560;
1176.3000;0.3728;1.3685;
1176.6000;0.3736;1.3635;
1176.9000;0.3720;1.3635;
1177.2000;0.3744;1.3735;
1177.5000;0.3720;1.3785;
1177.8000;0.3728;1.3635;
1178.1000;0.3712;1.3535;
1178.4000;0.3728;1.3510;
1178.7000;0.3736;1.3560;
1179.0000;0.3728;1.3585;
1179.3000;0.3720;1.3660;
1179.6000;0.3728;1.3610;
1179.9000;0.3728;1.3610;
1180.2000;0.3761;1.3685;
1180.5000;0.3728;1.3685;
1180.8000;0.3744;1.3685;
1181.1000;0.3736;1.3685;
1181.4000;0.3736;1.3635;
1181.7000;0.3728;1.3635;
1182.0000;0.3720;1.3685;
1182.3000;0.3687;1.3635;
1182.6000;0.3728;1.3710;
1182.9000;0.3712;1.3610;
1183.2000;0.3753;1.3685;
1183.5000;0.3720;1.3585;
1183.8000;0.3712;1.3510;
1184.1000;0.3736;1.3560;
1184.4000;0.3728;1.3535;
1184.7000;0.3696;1.3410;
1185.0000;0.3744;1.3485;
1185.3000;0.3679;1.3361;
1185.6000;0.3728;1.3485;
1185.9000;0.3736;1.3485;
1186.2000;0.3761;1.3660;
1186.5000;0.3720;1.3535;
1186.8000;0.3736;1.3535;
1187.1000;0.3736;1.3460;
1187.4000;0.3728;1.3485;
1187.7000;0.3818;1.3760;
1188.0000;0.3736;1.3510;
1188.3000;0.3720;1.3385;
1188.6000;0.3728;1.3385;
1188.9000;0.3728;1.3385;
1189.2000;0.3728;1.3460;
1189.5000;0.3753;1.3610;
1189.8000;0.3704;1.3510;
1190.1000;0.3720;1.3485;
1190.4000;0.3712;1.3460;
1190.7000;0.3728;1.3560;
1191.0000;0.3712;1.3560;
1191.3000;0.3744;1.3685;
1191.6000;0.3728;1.3585;
1191.9000;0.3679;1.3410;
1192.2000;0.3736;1.3610;
1192.5000;0.3728;1.3635;
1192.8000;0.3736;1.3585;
1193.1000;0.3728;1.3535;
1193.4000;0.3761;1.3660;
1193.7000;0.3712;1.3535;
1194.0000;0.3712;1.3585;
1194.3000;0.3687;1.3535;
1194.6000;0.3736;1.3635;
1194.9000;0.3712;1.3585;
1195.2000;0.3736;1.3635;
1195.5000;0.3728;1.3610;
1195.8000;0.3728;1.3610;
1196.1000;0.3720;1.3685;
1196.4000;0.3736;1.3710;
1196.7000;0.3728;1.3635;
1197.0000;0.3761;1.3660;
1197.3000;0.3761;1.3685;
1197.6000;0.3712;1.3610;
1197.9000;0.3728;1.3685;
1198.2000;0.3720;1.3560;
1198.5000;0.3712;1.3660;
1198.8000;0.3720;1.3710;
1199.1000;0.3712;1.3710;
1199.4000;0.3720;1.3685;
1199.7000;0.3712;1.3710;
1200.0000;0.3744;1.3810;
1200.3000;0.3769;1.3885;
1200.6000;0.3728;1.3710;
1200.9000;0.3744;1.3660;
1201.2000;0.3687;1.3535;
1201.5000;0.3818;1.3835;
1201.8000;0.3744;1.3610;
1202.1000;0.3744;1.3535;
1202.4000;0.3793;1.3735;
1202.7000;0.3696;1.3460;
1203.0000;0.3720;1.3585;
1203.3000;0.3720;1.3535;
1203.6000;0.3720;1.3485;
1203.9000;0.3687;1.3385;
1204.2000;0.3712;1.3510;
1204.5000;0.3720;1.3535;
1204.8000;0.3720;1.3510;
1205.1000;0.3687;1.3460;
1205.4000;0.3728;1.3635;
1205.7000;0.3728;1.3660;
1206.0000;0.3720;1.3610;
1206.3000;0.3761;1.3710;
1206.6000;0.3655;1.3435;
1206.9000;0.3720;1.3535;
1207.2000;0.3736;1.3610;
1207.5000;0.3720;1.3535;
1207.8000;0.3744;1.3610;
1208.1000;0.3679;1.3435;
1208.4000;0.3728;1.3610;
1208.7000;0.3720;1.3585;
1209.0000;0.3720;1.3610;
1209.3000;0.3712;1.3610;
1209.6000;0.3720;1.3685;
1209.9000;0.3712;1.3635;
1210.2000;0.3696;1.3510;
1210.5000;0.3720;1.3510;
1210.8000;0.3720;1.3560;
1211.1000;0.3720;1.3535;
1211.4000;0.3728;1.3535;
1211.7000;0.3712;1.3485;
1212.0000;0.3728;1.3635;
1212.3000;0.3728;1.3660;
1212.6000;0.3704;1.3660;
1212.9000;0.3720;1.3760;
1213.2000;0.3720;1.3785;
1213.5000;0.3712;1.3785;
1213.8000;0.3728;1.3835;
1214.1000;0.3728;1.3785;
1214.4000;0.3769;1.3735;
1214.7000;0.3720;1.3485;
1215.0000;0.3704;1.3485;
1215.3000;0.3793;1.3660;
1215.6000;0.3728;1.3435;
1215.9000;0.3728;1.3510;
1216.2000;0.3728;1.3535;
1216.5000;0.3728;1.3535;
1216.8000;0.3736;1.3485;
1217.1000;0.3736;1.3510;
1217.4000;0.3736;1.3560;
1217.7000;0.3712;1.3635;
1218.0000;0.3728;1.3760;
1218.3000;0.3728;1.3810;
1218.6000;0.3720;1.3735;
1218.9000;0.3728;1.3735;
1219.2000;0.3720;1.3660;
1219.5000;0.3728;1.3735;
1219.8000;0.3736;1.3685;
1220.1000;0.3728;1.3735;
1220.4000;0.3753;1.3735;
1220.7000;0.3720;1.3735;
1221.0000;0.3728;1.3735;
1221.3000;0.3793;1.3910;
1221.6000;0.3736;1.3735;
1221.9000;0.3728;1.3785;
1222.2000;0.3744;1.3860;
1222.5000;0.3736;1.3885;
1222.8000;0.3712;1.3935;
1223.1000;0.3704;1.3785;
1223.4000;0.3712;1.3785;
1223.7000;0.3704;1.3660;
1224.0000;0.3704;1.3535;
1224.3000;0.3704;1.3535;
1224.6000;0.3712;1.3485;
1224.9000;0.3728;1.3585;
1225.2000;0.3753;1.3635;
1225.5000;0.3728;1.3585;
1225.8000;0.3720;1.3610;
1226.1000;0.3720;1.3635;
1226.4000;0.3736;1.3785;
1226.7000;0.3720;1.3785;
1227.0000;0.3712;1.3710;
1227.3000;0.3728;1.3735;
1227.6000;0.3728;1.3785;
1227.9000;0.3720;1.3735;
1228.2000;0.3712;1.3735;
1228.5000;0.3728;1.3760;
1228.8000;0.3728;1.3810;
1229.1000;0.3663;1.3635;
1229.4000;0.3712;1.3760;
1229.7000;0.3720;1.3735;
1230.0000;0.3728;1.3685;
1230.3000;0.3712;1.3735;
1230.6000;0.3736;1.3835;
1230.9000;0.3712;1.3785;
1231.2000;0.3728;1.3785;
1231.5000;0.3736;1.3710;
1231.8000;0.3728;1.3660;
1232.1000;0.3744;1.3760;
1232.4000;0.3728;1.3735;
1232.7000;0.3728;1.3710;
1233.0000;0.3720;1.3660;
1233.3000;0.3704;1.3535;
1233.6000;0.3736;1.3585;
1233.9000;0.3736;1.3610;
1234.2000;0.3728;1.3510;
1234.5000;0.3712;1.3485;
1234.8000;0.3720;1.3560;
1235.1000;0.3736;1.3610;
1235.4000;0.3720;1.3510;
1235.7000;0.3720;1.3485;
1236.0000;0.3728;1.3560;
1236.3000;0.3728;1.3485;
1236.6000;0.3728;1.3460;
1236.9000;0.3720;1.3485;
1237.2000;0.3736;1.3535;
1237.5000;0.3744;1.3635;
1237.8000;0.3753;1.3685;
1238.1000;0.3704;1.3560;
1238.4000;0.3696;1.3485;
1238.7000;0.3728;1.3610;
1239.0000;0.3736;1.3635;
1239.3000;0.3712;1.3560;
1239.6000;0.3720;1.3610;
1239.9000;0.3736;1.3610;
1240.2000;0.3736;1.3660;
1240.5000;0.3728;1.3685;
1240.8000;0.3720;1.3685;
1241.1000;0.3704;1.3585;
1241.4000;0.3810;1.3860;
1241.7000;0.3728;1.3710;
1242.0000;0.3736;1.3710;
1242.3000;0.3712;1.3635;
1242.6000;0.3720;1.3635;
1242.9000;0.3736;1.3510;
1243.2000;0.3720;1.3560;
1243.5000;0.3712;1.3460;
1243.8000;0.3728;1.3535;
1244.1000;0.3728;1.3535;
1244.4000;0.3720;1.3535;
1244.7000;0.3720;1.3610;
1245.0000;0.3736;1.3660;
1245.3000;0.3720;1.3635;
1245.6000;0.3744;1.3660;
1245.9000;0.3687;1.3560;
1246.2000;0.3728;1.3760;
1246.5000;0.3728;1.3685;
1246.8000;0.3720;1.3610;
1247.1000;0.3712;1.3510;
1247.4000;0.3679;1.3610;
1247.7000;0.3720;1.3685;
1248.0000;0.3769;1.3960;
1248.3000;0.3736;1.3885;
1248.6000;0.3704;1.3885;
1248.9000;0.3704;1.3810;
1249.2000;0.3736;1.3760;
1249.5000;0.3720;1.3735;
1249.8000;0.3712;1.3685;
1250.1000;0.3687;1.3660;
1250.4000;0.3687;1.3735;
1250.7000;0.3712;1.3785;
1251.0000;0.3712;1.3835;
1251.3000;0.3728;1.3810;
1251.6000;0.3720;1.3785;
1251.9000;0.3744;1.3835;
1252.2000;0.3720;1.3810;
1252.5000;0.3712;1.3785;
1252.8000;0.3753;1.3910;
1253.1000;0.3736;1.3835;
1253.4000;0.3728;1.3885;
1253.7000;0.3720;1.3810;
1254.0000;0.3728;1.3885;
1254.3000;0.3728;1.3885;
1254.6000;0.3744;1.3860;
1254.9000;0.3736;1.3760;
1255.2000;0.3728;1.3610;
1255.5000;0.3728;1.3560;
1255.8000;0.3704;1.3535;
1256.1000;0.3720;1.3635;
1256.4000;0.3728;1.3560;
1256.7000;0.3736;1.3535;
1257.0000;0.3736;1.3585;
1257.3000;0.3736;1.3635;
1257.6000;0.3728;1.3685;
1257.9000;0.3728;1.3710;
1258.2000;0.3720;1.3560;
1258.5000;0.3720;1.3535;
1258.8000;0.3728;1.3510;
1259.1000;0.3720;1.3560;
1259.4000;0.3679;1.3485;
1259.7000;0.3728;1.3635;
1260.0000;0.3720;1.3610;
1260.3000;0.3720;1.3535;
1260.6000;0.3728;1.3535;
1260.9000;0.3728;1.3460;
1261.2000;0.3744;1.3510;
1261.5000;0.3687;1.3361;
1261.8000;0.3720;1.3460;
1262.1000;0.3728;1.3410;
1262.4000;0.3712;1.3410;
1262.7000;0.3728;1.3410;
1263.0000;0.3687;1.3261;
1263.3000;0.3712;1.3311;
1263.6000;0.3712;1.3336;
1263.9000;0.3704;1.3311;
1264.2000;0.3720;1.3385;
1264.5000;0.3728;1.3385;
1264.8000;0.3744;1.3510;
1265.1000;0.3753;1.3610;
1265.4000;0.3736;1.3585;
1265.7000;0.3720;1.3485;
1266.0000;0.3728;1.3510;
1266.3000;0.3704;1.3460;
1266.6000;0.3720;1.3485;
1266.9000;0.3728;1.3410;
1267.2000;0.3736;1.3460;
1267.5000;0.3728;1.3410;
1267.8000;0.3728;1.3485;
1268.1000;0.3769;1.3610;
1268.4000;0.3736;1.3535;
1268.7000;0.3704;1.3435;
1269.0000;0.3744;1.3585;
1269.3000;0.3736;1.3610;
1269.6000;0.3728;1.3585;
1269.9000;0.3712;1.3535;
1270.2000;0.3704;1.3510;
1270.5000;0.3712;1.3535;
1270.8000;0.3696;1.3410;
1271.1000;0.3736;1.3485;
1271.4000;0.3720;1.3435;
1271.7000;0.3720;1.3435;
1272.0000;0.3761;1.3560;
1272.3000;0.3728;1.3535;
1272.6000;0.3744;1.3560;
1272.9000;0.3712;1.3535;
1273.2000;0.3720;1.3560;
1273.5000;0.3728;1.3585;
1273.8000;0.3720;1.3610;
1274.1000;0.3777;1.3785;
1274.4000;0.3736;1.3710;
1274.7000;0.3720;1.3735;
1275.0000;0.3720;1.3685;
1275.3000;0.3744;1.3760;
1275.6000;0.3720;1.3710;
1275.9000;0.3712;1.3760;
1276.2000;0.3712;1.3735;
1276.5000;0.3720;1.3735;
1276.8000;0.3720;1.3660;
1277.1000;0.3687;1.3660;
1277.4000;0.3736;1.3710;
1277.7000;0.3704;1.3710;
1278.0000;0.3720;1.3785;
1278.3000;0.3736;1.3785;
1278.6000;0.3728;1.3835;
1278.9000;0.3728;1.3835;
1279.2000;0.3720;1.3735;
1279.5000;0.3728;1.3785;
1279.8000;0.3753;1.3785;
1280.1000;0.3736;1.3685;
1280.4000;0.3704;1.3610;
1280.7000;0.3712;1.3635;
1281.0000;0.3720;1.3710;
1281.3000;0.3736;1.3710;
1281.6000;0.3712;1.3535;
1281.9000;0.3720;1.3510;
1282.2000;0.3744;1.3585;
1282.5000;0.3736;1.3610;
1282.8000;0.3720;1.3660;
1283.1000;0.3728;1.3635;
1283.4000;0.3728;1.3735;
1283.7000;0.3728;1.3760;
1284.0000;0.3720;1.3760;
1284.3000;0.3753;1.3835;
1284.6000;0.3744;1.3785;
1284.9000;0.3728;1.3660;
1285.2000;0.3769;1.3785;
1285.5000;0.3687;1.3610;
1285.8000;0.3720;1.3685;
1286.1000;0.3744;1.3760;
1286.4000;0.3736;1.3785;
1286.7000;0.3728;1.3685;
1287.0000;0.3744;1.3735;
1287.3000;0.3736;1.3760;
1287.6000;0.3736;1.3785;
1287.9000;0.3720;1.3710;
1288.2000;0.3736;1.3835;
1288.5000;0.3736;1.3885;
1288.8000;0.3728;1.3885;
1289.1000;0.3744;1.3910;
1289.4000;0.3736;1.3810;
1289.7000;0.3753;1.3735;
1290.0000;0.3744;1.3735;
1290.3000;0.3728;1.3635;
1290.6000;0.3720;1.3610;
1290.9000;0.3744;1.3610;
1291.2000;0.3720;1.3635;
1291.5000;0.3736;1.3635;
1291.8000;0.3704;1.3610;
1292.1000;0.3720;1.3635;
1292.4000;0.3736;1.3635;
1292.7000;0.3736;1.3635;
1293.0000;0.3696;1.3510;
1293.3000;0.3736;1.3510;
1293.6000;0.3728;1.3585;
1293.9000;0.3704;1.3560;
1294.2000;0.3736;1.3585;
1294.5000;0.3761;1.3710;
1294.8000;0.3728;1.3735;
1295.1000;0.3728;1.3735;
1295.4000;0.3736;1.3710;
1295.7000;0.3712;1.3685;
1296.0000;0.3777;1.3835;
1296.3000;0.3728;1.3760;
1296.6000;0.3728;1.3785;
1296.9000;0.3696;1.3660;
1297.2000;0.3704;1.3635;
1297.5000;0.3712;1.3685;
1297.8000;0.3720;1.3635;
1298.1000;0.3687;1.3585;
1298.4000;0.3712;1.3685;
1298.7000;0.3728;1.3685;
1299.0000;0.3728;1.3735;
1299.3000;0.3720;1.3735;
1299.6000;0.3728;1.3760;
1299.9000;0.3720;1.3735;
1300.2000;0.3744;1.3810;
1300.5000;0.3720;1.3710;
1300.8000;0.3728;1.3660;
1301.1000;0.3712;1.3635;
1301.4000;0.3712;1.3585;
1301.7000;0.3736;1.3760;
1302.0000;0.3704;1.3610;
1302.3000;0.3712;1.3710;
1302.6000;0.3728;1.3835;
1302.9000;0.3736;1.3835;
1303.2000;0.3744;1.3885;
1303.5000;0.3736;1.3810;
1303.8000;0.3785;1.3935;
1304.1000;0.3696;1.3685;
1304.4000;0.3753;1.3710;
1304.7000;0.3712;1.3660;
1305.0000;0.3736;1.3760;
1305.3000;0.3728;1.3735;
1305.6000;0.3671;1.3485;
1305.9000;0.3720;1.3635;
1306.2000;0.3728;1.3685;
1306.5000;0.3761;1.3735;
1306.8000;0.3720;1.3660;
1307.1000;0.3728;1.3660;
1307.4000;0.3696;1.3635;
1307.7000;0.3712;1.3735;
1308.0000;0.3720;1.3585;
1308.3000;0.3728;1.3585;
1308.6000;0.3679;1.3435;
1308.9000;0.3769;1.3760;
1309.2000;0.3736;1.3710;
1309.5000;0.3720;1.3735;
1309.8000;0.3720;1.3760;
1310.1000;0.3712;1.3835;
1310.4000;0.3704;1.3810;
1310.7000;0.3704;1.3860;
1311.0000;0.3720;1.3810;
1311.3000;0.3769;1.3935;
1311.6000;0.3720;1.3810;
1311.9000;0.3761;1.3835;
1312.2000;0.3728;1.3735;
1312.5000;0.3720;1.3660;
1312.8000;0.3744;1.3660;
1313.1000;0.3736;1.3735;
1313.4000;0.3728;1.3735;
1313.7000;0.3736;1.3660;
1314.0000;0.3753;1.3710;
1314.3000;0.3744;1.3810;
1314.6000;0.3744;1.3760;
1314.9000;0.3736;1.3710;
1315.2000;0.3704;1.3785;
1315.5000;0.3736;1.3885;
1315.8000;0.3744;1.3885;
1316.1000;0.3761;1.3985;
1316.4000;0.3728;1.3785;
1316.7000;0.3728;1.3760;
1317.0000;0.3687;1.3635;
1317.3000;0.3655;1.3560;
1317.6000;0.3712;1.3710;
1317.9000;0.3712;1.3710;
1318.2000;0.3744;1.3810;
1318.5000;0.3696;1.3735;
1318.8000;0.3720;1.3860;
1319.1000;0.3736;1.3835;
1319.4000;0.3736;1.3760;
1319.7000;0.3728;1.3760;
1320.0000;0.3704;1.3760;
1320.3000;0.3704;1.3735;
1320.6000;0.3720;1.3810;
1320.9000;0.3728;1.3835;
1321.2000;0.3704;1.3735;
1321.5000;0.3712;1.3710;
1321.8000;0.3720;1.3635;
1322.1000;0.3679;1.3610;
1322.4000;0.3728;1.3685;
1322.7000;0.3728;1.3760;
1323.0000;0.3728;1.3835;
1323.3000;0.3744;1.3860;
1323.6000;0.3736;1.3810;
1323.9000;0.3704;1.3710;
1324.2000;0.3712;1.3635;
1324.5000;0.3736;1.3610;
1324.8000;0.3744;1.3660;
1325.1000;0.3704;1.3610;
1325.4000;0.3712;1.3735;
1325.7000;0.3720;1.3835;
1326.0000;0.3728;1.3860;
1326.3000;0.3720;1.3810;
1326.6000;0.3712;1.3710;
1326.9000;0.3728;1.3735;
1327.2000;0.3728;1.3760;
1327.5000;0.3720;1.3760;
1327.8000;0.3720;1.3810;
1328.1000;0.3728;1.3885;
1328.4000;0.3736;1.3910;
1328.7000;0.3728;1.3835;
1329.0000;0.3712;1.3810;
1329.3000;0.3720;1.3885;
1329.6000;0.3736;1.4010;
1329.9000;0.3728;1.4035;
1330.2000;0.3720;1.4060;
1330.5000;0.3720;1.4010;
1330.8000;0.3744;1.3935;
1331.1000;0.3728;1.3910;
1331.4000;0.3720;1.3910;
1331.7000;0.3720;1.3860;
1332.0000;0.3687;1.3760;
1332.3000;0.3712;1.3835;
1332.6000;0.3736;1.3860;
1332.9000;0.3720;1.3760;
1333.2000;0.3728;1.3735;
1333.5000;0.3744;1.3760;
1333.8000;0.3712;1.3710;
1334.1000;0.3720;1.3685;
1334.4000;0.3687;1.3635;
1334.7000;0.3720;1.3785;
1335.0000;0.3712;1.3785;
1335.3000;0.3704;1.3760;
1335.6000;0.3728;1.3860;
1335.9000;0.3704;1.3860;
1336.2000;0.3761;1.3985;
1336.5000;0.3736;1.3835;
1336.8000;0.3777;1.3910;
1337.1000;0.3728;1.3710;
1337.4000;0.3728;1.3710;
1337.7000;0.3801;1.4010;
1338.0000;0.3736;1.3885;
1338.3000;0.3712;1.3860;
1338.6000;0.3744;1.3935;
1338.9000;0.3720;1.3885;
1339.2000;0.3712;1.3910;
1339.5000;0.3744;1.3910;
1339.8000;0.3704;1.3760;
1340.1000;0.3728;1.3835;
1340.4000;0.3712;1.3860;
1340.7000;0.3696;1.3860;
1341.0000;0.3728;1.3910;
1341.3000;0.3687;1.3810;
1341.6000;0.3704;1.3835;
1341.9000;0.3736;1.3910;
1342.2000;0.3720;1.3860;
1342.5000;0.3712;1.3885;
1342.8000;0.3679;1.3835;
1343.1000;0.3704;1.3835;
1343.4000;0.3712;1.3835;
1343.7000;0.3720;1.3810;
1344.0000;0.3728;1.3785;
1344.3000;0.3728;1.3785;
1344.6000;0.3736;1.3735;
1344.9000;0.3704;1.3760;
1345.2000;0.3728;1.3885;
1345.5000;0.3736;1.3960;
1345.8000;0.3720;1.3885;
1346.1000;0.3728;1.3960;
1346.4000;0.3720;1.3935;
1346.7000;0.3704;1.3885;
1347.0000;0.3736;1.3935;
1347.3000;0.3736;1.3985;
1347.6000;0.3736;1.3985;
1347.9000;0.3736;1.4010;
1348.2000;0.3720;1.3910;
1348.5000;0.3720;1.3885;
1348.8000;0.3728;1.3960;
1349.1000;0.3761;1.4110;
1349.4000;0.3736;1.3985;
1349.7000;0.3761;1.3960;
1350.0000;0.3720;1.3885;
1350.3000;0.3679;1.3685;
1350.6000;0.3736;1.3885;
1350.9000;0.3728;1.3935;
1351.2000;0.3744;1.3935;
1351.5000;0.3736;1.3960;
1351.8000;0.3728;1.3935;
1352.1000;0.3736;1.4010;
1352.4000;0.3744;1.4035;
1352.7000;0.3744;1.3935;
1353.0000;0.3744;1.3910;
1353.3000;0.3728;1.3910;
1353.6000;0.3728;1.3985;
1353.9000;0.3736;1.4035;
1354.2000;0.3736;1.4135;
1354.5000;0.3736;1.4185;
1354.8000;0.3728;1.4135;
1355.1000;0.3720;1.4060;
1355.4000;0.3744;1.4085;
1355.7000;0.3720;1.3985;
1356.0000;0.3744;1.3960;
1356.3000;0.3753;1.3960;
1356.6000;0.3696;1.3735;
1356.9000;0.3744;1.3860;
1357.2000;0.3704;1.3810;
1357.5000;0.3728;1.3835;
1357.8000;0.3720;1.3910;
1358.1000;0.3704;1.3860;
1358.4000;0.3687;1.3885;
1358.7000;0.3728;1.3960;
1359.0000;0.3720;1.3985;
1359.3000;0.3712;1.4010;
1359.6000;0.3728;1.4010;
1359.9000;0.3720;1.4060;
1360.2000;0.3728;1.4135;
1360.5000;0.3728;1.4085;
1360.8000;0.3728;1.4035;
1361.1000;0.3720;1.3935;
1361.4000;0.3736;1.3985;
1361.7000;0.3720;1.3885;
1362.0000;0.3712;1.3910;
1362.3000;0.3704;1.3885;
1362.6000;0.3720;1.3885;
1362.9000;0.3736;1.3910;
1363.2000;0.3728;1.3760;
1363.5000;0.3712;1.3710;
1363.8000;0.3720;1.3710;
1364.1000;0.3736;1.3760;
1364.4000;0.3728;1.3785;
1364.7000;0.3728;1.3760;
1365.0000;0.3728;1.3735;
1365.3000;0.3736;1.3810;
1365.6000;0.3744;1.3835;
1365.9000;0.3761;1.3910;
1366.2000;0.3736;1.3885;
1366.5000;0.3720;1.3760;
1366.8000;0.3728;1.3885;
1367.1000;0.3712;1.3910;
1367.4000;0.3736;1.3885;
1367.7000;0.3720;1.3860;
1368.0000;0.3728;1.3835;
1368.3000;0.3728;1.3760;
1368.6000;0.3728;1.3760;
1368.9000;0.3712;1.3785;
1369.2000;0.3744;1.3860;
1369.5000;0.3728;1.3785;
1369.8000;0.3744;1.3785;
1370.1000;0.3712;1.3635;
1370.4000;0.3712;1.3585;
1370.7000;0.3736;1.3660;
1371.0000;0.3712;1.3735;
1371.3000;0.3744;1.3785;
1371.6000;0.3736;1.3810;
1371.9000;0.3736;1.3860;
1372.2000;0.3712;1.3810;
1372.5000;0.3720;1.3760;
1372.8000;0.3728;1.3810;
1373.1000;0.3720;1.3860;
1373.4000;0.3720;1.3810;
1373.7000;0.3728;1.3735;
1374.0000;0.3736;1.3835;
1374.3000;0.3728;1.3760;
1374.6000;0.3720;1.3685;
1374.9000;0.3712;1.3635;
1375.2000;0.3712;1.3710;
1375.5000;0.3736;1.3810;
1375.8000;0.3736;1.3860;
1376.1000;0.3704;1.3835;
1376.4000;0.3744;1.3885;
1376.7000;0.3736;1.3835;
1377.0000;0.3728;1.3885;
1377.3000;0.3696;1.3810;
1377.6000;0.3736;1.4010;
1377.9000;0.3736;1.4060;
1378.2000;0.3728;1.4035;
1378.5000;0.3728;1.4060;
1378.8000;0.3728;1.3985;
1379.1000;0.3736;1.3960;
1379.4000;0.3801;1.4185;
1379.7000;0.3736;1.3960;
1380.0000;0.3728;1.3910;
1380.3000;0.3679;1.3760;
1380.6000;0.3753;1.3935;
1380.9000;0.3736;1.3810;
1381.2000;0.3728;1.3685;
1381.5000;0.3712;1.3660;
1381.8000;0.3744;1.3760;
1382.1000;0.3728;1.3760;
1382.4000;0.3728;1.3760;
1382.7000;0.3736;1.3810;
1383.0000;0.3720;1.3810;
1383.3000;0.3736;1.3785;
1383.6000;0.3736;1.3835;
1383.9000;0.3728;1.3935;
1384.2000;0.3728;1.4010;
1384.5000;0.3728;1.4035;
1384.8000;0.3736;1.4060;
1385.1000;0.3728;1.4010;
1385.4000;0.3720;1.3910;
1385.7000;0.3720;1.3910;
1386.0000;0.3728;1.3860;
1386.3000;0.3720;1.3810;
1386.6000;0.3720;1.3710;
1386.9000;0.3736;1.3685;
1387.2000;0.3704;1.3560;
1387.5000;0.3720;1.3535;
1387.8000;0.3720;1.3510;
1388.1000;0.3720;1.3560;
1388.4000;0.3728;1.3585;
1388.7000;0.3720;1.3560;
1389.0000;0.3696;1.3460;
1389.3000;0.3728;1.3585;
1389.6000;0.3728;1.3560;
1389.9000;0.3663;1.3485;
1390.2000;0.3720;1.3635;
1390.5000;0.3736;1.3660;
1390.8000;0.3728;1.3660;
1391.1000;0.3712;1.3710;
1391.4000;0.3720;1.3685;
1391.7000;0.3728;1.3710;
1392.0000;0.3761;1.3760;
1392.3000;0.3744;1.3535;
1392.6000;0.3728;1.3485;
1392.9000;0.3728;1.3535;
1393.2000;0.3728;1.3660;
1393.5000;0.3720;1.3685;
1393.8000;0.3720;1.3685;
1394.1000;0.3728;1.3710;
1394.4000;0.3720;1.3760;
1394.7000;0.3744;1.3785;
1395.0000;0.3744;1.3785;
1395.3000;0.3720;1.3810;
1395.6000;0.3736;1.3760;
1395.9000;0.3753;1.3835;
1396.2000;0.3744;1.3760;
1396.5000;0.3736;1.3635;
1396.8000;0.3728;1.3635;
1397.1000;0.3728;1.3760;
1397.4000;0.3720;1.3710;
1397.7000;0.3736;1.3810;
1398.0000;0.3720;1.3785;
1398.3000;0.3679;1.3660;
1398.6000;0.3761;1.3785;
1398.9000;0.3720;1.3610;
1399.2000;0.3720;1.3585;
1399.5000;0.3720;1.3735;
1399.8000;0.3744;1.3835;
