time/ms;Fluo/V;P700 deltaI/I x10³;
-199.8000;0.6675;1.3192;
-199.5000;0.6667;1.3098;
-199.2000;0.6667;1.3098;
-198.9000;0.6650;1.3168;
-198.6000;0.6659;1.3286;
-198.3000;0.6667;1.3262;
-198.0000;0.6659;1.3215;
-197.7000;0.6626;1.3145;
-197.4000;0.6675;1.3286;
-197.1000;0.6650;1.3286;
-196.8000;0.6667;1.3333;
-196.5000;0.6659;1.3356;
-196.2000;0.6667;1.3356;
-195.9000;0.6650;1.3403;
-195.6000;0.6626;1.3286;
-195.3000;0.6659;1.3309;
-195.0000;0.6659;1.3262;
-194.7000;0.6650;1.3309;
-194.4000;0.6650;1.3262;
-194.1000;0.6659;1.3286;
-193.8000;0.6724;1.3427;
-193.5000;0.6650;1.3286;
-193.2000;0.6634;1.3262;
-192.9000;0.6667;1.3309;
-192.6000;0.6659;1.3333;
-192.3000;0.6634;1.3286;
-192.0000;0.6634;1.3239;
-191.7000;0.6650;1.3239;
-191.4000;0.6650;1.3145;
-191.1000;0.6675;1.3075;
-190.8000;0.6650;1.3028;
-190.5000;0.6634;1.3028;
-190.2000;0.6650;1.3121;
-189.9000;0.6659;1.3215;
-189.6000;0.6650;1.3239;
-189.3000;0.6659;1.3145;
-189.0000;0.6659;1.3168;
-188.7000;0.6675;1.3239;
-188.4000;0.6626;1.3028;
-188.1000;0.6667;1.3215;
-187.8000;0.6683;1.3145;
-187.5000;0.6642;1.3121;
-187.2000;0.6642;1.3192;
-186.9000;0.6650;1.3192;
-186.6000;0.6650;1.3239;
-186.3000;0.6626;1.3215;
-186.0000;0.6650;1.3239;
-185.7000;0.6659;1.3239;
-185.4000;0.6650;1.3215;
-185.1000;0.6642;1.3262;
-184.8000;0.6675;1.3309;
-184.5000;0.6659;1.3380;
-184.2000;0.6642;1.3356;
-183.9000;0.6642;1.3356;
-183.6000;0.6650;1.3333;
-183.3000;0.6650;1.3309;
-183.0000;0.6642;1.3309;
-182.7000;0.6642;1.3262;
-182.4000;0.6667;1.3239;
-182.1000;0.6667;1.3098;
-181.8000;0.6667;1.3075;
-181.5000;0.6667;1.3075;
-181.2000;0.6650;1.2981;
-180.9000;0.6626;1.2934;
-180.6000;0.6650;1.2957;
-180.3000;0.6650;1.2957;
-180.0000;0.6642;1.3051;
-179.7000;0.6650;1.3028;
-179.4000;0.6659;1.3075;
-179.1000;0.6536;1.2769;
-178.8000;0.6650;1.3004;
-178.5000;0.6650;1.2957;
-178.2000;0.6642;1.3028;
-177.9000;0.6659;1.3075;
-177.6000;0.6650;1.3051;
-177.3000;0.6650;1.3051;
-177.0000;0.6650;1.3075;
-176.7000;0.6650;1.3075;
-176.4000;0.6659;1.3075;
-176.1000;0.6659;1.3098;
-175.8000;0.6667;1.3051;
-175.5000;0.6659;1.3145;
-175.2000;0.6642;1.3168;
-174.9000;0.6667;1.3215;
-174.6000;0.6642;1.3239;
-174.3000;0.6659;1.3262;
-174.0000;0.6650;1.3239;
-173.7000;0.6659;1.3215;
-173.4000;0.6659;1.3121;
-173.1000;0.6675;1.3215;
-172.8000;0.6650;1.3121;
-172.5000;0.6650;1.3075;
-172.2000;0.6659;1.3004;
-171.9000;0.6642;1.3075;
-171.6000;0.6650;1.2981;
-171.3000;0.6659;1.2981;
-171.0000;0.6659;1.3028;
-170.7000;0.6642;1.3004;
-170.4000;0.6659;1.3004;
-170.1000;0.6642;1.2981;
-169.8000;0.6650;1.3028;
-169.5000;0.6634;1.3051;
-169.2000;0.6642;1.3051;
-168.9000;0.6642;1.3075;
-168.6000;0.6642;1.3004;
-168.3000;0.6650;1.3051;
-168.0000;0.6772;1.3380;
-167.7000;0.6650;1.3075;
-167.4000;0.6634;1.3075;
-167.1000;0.6650;1.3075;
-166.8000;0.6650;1.3075;
-166.5000;0.6667;1.3028;
-166.2000;0.6659;1.2981;
-165.9000;0.6650;1.3075;
-165.6000;0.6667;1.3098;
-165.3000;0.6659;1.3075;
-165.0000;0.6667;1.3098;
-164.7000;0.6659;1.3051;
-164.4000;0.6667;1.3121;
-164.1000;0.6650;1.3028;
-163.8000;0.6659;1.3051;
-163.5000;0.6650;1.3051;
-163.2000;0.6691;1.3098;
-162.9000;0.6650;1.3051;
-162.6000;0.6659;1.3075;
-162.3000;0.6659;1.3075;
-162.0000;0.6642;1.3075;
-161.7000;0.6659;1.3098;
-161.4000;0.6642;1.3121;
-161.1000;0.6642;1.3075;
-160.8000;0.6650;1.3051;
-160.5000;0.6707;1.3215;
-160.2000;0.6650;1.3098;
-159.9000;0.6650;1.3168;
-159.6000;0.6650;1.3262;
-159.3000;0.6764;1.3403;
-159.0000;0.6650;1.3098;
-158.7000;0.6650;1.3028;
-158.4000;0.6667;1.3028;
-158.1000;0.6634;1.2957;
-157.8000;0.6650;1.2981;
-157.5000;0.6675;1.3028;
-157.2000;0.6650;1.2934;
-156.9000;0.6650;1.2887;
-156.6000;0.6659;1.2934;
-156.3000;0.6675;1.2863;
-156.0000;0.6659;1.2910;
-155.7000;0.6659;1.2887;
-155.4000;0.6650;1.2934;
-155.1000;0.6667;1.3051;
-154.8000;0.6667;1.3121;
-154.5000;0.6634;1.3075;
-154.2000;0.6634;1.3004;
-153.9000;0.6659;1.3028;
-153.6000;0.6659;1.3051;
-153.3000;0.6650;1.3098;
-153.0000;0.6683;1.3192;
-152.7000;0.6650;1.3121;
-152.4000;0.6659;1.3168;
-152.1000;0.6691;1.3262;
-151.8000;0.6683;1.3286;
-151.5000;0.6634;1.3192;
-151.2000;0.6618;1.3192;
-150.9000;0.6650;1.3192;
-150.6000;0.6683;1.3215;
-150.3000;0.6618;1.3121;
-150.0000;0.6642;1.3145;
-149.7000;0.6642;1.3192;
-149.4000;0.6659;1.3239;
-149.1000;0.6634;1.3121;
-148.8000;0.6659;1.3215;
-148.5000;0.6626;1.3121;
-148.2000;0.6650;1.3215;
-147.9000;0.6667;1.3215;
-147.6000;0.6634;1.3121;
-147.3000;0.6659;1.3075;
-147.0000;0.6642;1.2981;
-146.7000;0.6642;1.2957;
-146.4000;0.6642;1.3051;
-146.1000;0.6626;1.3075;
-145.8000;0.6577;1.2910;
-145.5000;0.6650;1.3145;
-145.2000;0.6650;1.3098;
-144.9000;0.6650;1.3121;
-144.6000;0.6667;1.3168;
-144.3000;0.6667;1.3121;
-144.0000;0.6659;1.3098;
-143.7000;0.6650;1.3168;
-143.4000;0.6667;1.3192;
-143.1000;0.6659;1.3192;
-142.8000;0.6659;1.3121;
-142.5000;0.6634;1.3028;
-142.2000;0.6659;1.3028;
-141.9000;0.6667;1.3051;
-141.6000;0.6650;1.3075;
-141.3000;0.6642;1.3121;
-141.0000;0.6650;1.3192;
-140.7000;0.6675;1.3215;
-140.4000;0.6667;1.3215;
-140.1000;0.6659;1.3168;
-139.8000;0.6772;1.3497;
-139.5000;0.6675;1.3239;
-139.2000;0.6667;1.3145;
-138.9000;0.6659;1.3121;
-138.6000;0.6699;1.3168;
-138.3000;0.6667;1.3121;
-138.0000;0.6675;1.3192;
-137.7000;0.6618;1.3051;
-137.4000;0.6650;1.3075;
-137.1000;0.6634;1.3051;
-136.8000;0.6659;1.3098;
-136.5000;0.6691;1.3215;
-136.2000;0.6650;1.3075;
-135.9000;0.6650;1.3075;
-135.6000;0.6650;1.3145;
-135.3000;0.6634;1.3098;
-135.0000;0.6642;1.3121;
-134.7000;0.6667;1.3098;
-134.4000;0.6650;1.3098;
-134.1000;0.6667;1.3098;
-133.8000;0.6650;1.3004;
-133.5000;0.6659;1.2981;
-133.2000;0.6659;1.3028;
-132.9000;0.6740;1.3192;
-132.6000;0.6659;1.3004;
-132.3000;0.6699;1.3145;
-132.0000;0.6659;1.3028;
-131.7000;0.6650;1.3098;
-131.4000;0.6634;1.3098;
-131.1000;0.6642;1.3121;
-130.8000;0.6650;1.3098;
-130.5000;0.6667;1.3028;
-130.2000;0.6650;1.3028;
-129.9000;0.6642;1.3028;
-129.6000;0.6642;1.3098;
-129.3000;0.6642;1.3098;
-129.0000;0.6659;1.3121;
-128.7000;0.6732;1.3262;
-128.4000;0.6659;1.3004;
-128.1000;0.6667;1.3028;
-127.8000;0.6650;1.2957;
-127.5000;0.6650;1.2910;
-127.2000;0.6667;1.2863;
-126.9000;0.6675;1.2910;
-126.6000;0.6659;1.2863;
-126.3000;0.6650;1.2816;
-126.0000;0.6642;1.2863;
-125.7000;0.6626;1.2793;
-125.4000;0.6650;1.2910;
-125.1000;0.6659;1.2934;
-124.8000;0.6667;1.2863;
-124.5000;0.6634;1.2816;
-124.2000;0.6626;1.2863;
-123.9000;0.6659;1.2887;
-123.6000;0.6642;1.2793;
-123.3000;0.6650;1.2863;
-123.0000;0.6659;1.2934;
-122.7000;0.6691;1.3075;
-122.4000;0.6667;1.2981;
-122.1000;0.6650;1.2910;
-121.8000;0.6634;1.2840;
-121.5000;0.6650;1.2863;
-121.2000;0.6659;1.2887;
-120.9000;0.6634;1.2816;
-120.6000;0.6650;1.2840;
-120.3000;0.6650;1.2934;
-120.0000;0.6642;1.3004;
-119.7000;0.6642;1.3098;
-119.4000;0.6642;1.3121;
-119.1000;0.6634;1.3028;
-118.8000;0.6536;1.2793;
-118.5000;0.6642;1.3121;
-118.2000;0.6691;1.3286;
-117.9000;0.6650;1.3145;
-117.6000;0.6659;1.3192;
-117.3000;0.6626;1.3051;
-117.0000;0.6659;1.3098;
-116.7000;0.6659;1.3121;
-116.4000;0.6691;1.3192;
-116.1000;0.6667;1.3215;
-115.8000;0.6618;1.3121;
-115.5000;0.6675;1.3262;
-115.2000;0.6659;1.3215;
-114.9000;0.6659;1.3239;
-114.6000;0.6642;1.3215;
-114.3000;0.6659;1.3168;
-114.0000;0.6642;1.3121;
-113.7000;0.6667;1.3262;
-113.4000;0.6659;1.3239;
-113.1000;0.6667;1.3356;
-112.8000;0.6707;1.3544;
-112.5000;0.6683;1.3450;
-112.2000;0.6650;1.3380;
-111.9000;0.6650;1.3333;
-111.6000;0.6659;1.3286;
-111.3000;0.6659;1.3239;
-111.0000;0.6642;1.3215;
-110.7000;0.6650;1.3192;
-110.4000;0.6602;1.3051;
-110.1000;0.6642;1.3098;
-109.8000;0.6667;1.3145;
-109.5000;0.6650;1.3192;
-109.2000;0.6650;1.3168;
-108.9000;0.6626;1.3098;
-108.6000;0.6650;1.3145;
-108.3000;0.6659;1.3168;
-108.0000;0.6634;1.3145;
-107.7000;0.6675;1.3286;
-107.4000;0.6667;1.3309;
-107.1000;0.6650;1.3333;
-106.8000;0.6667;1.3356;
-106.5000;0.6659;1.3286;
-106.2000;0.6667;1.3215;
-105.9000;0.6683;1.3239;
-105.6000;0.6683;1.3192;
-105.3000;0.6659;1.3145;
-105.0000;0.6650;1.3121;
-104.7000;0.6699;1.3215;
-104.4000;0.6659;1.3051;
-104.1000;0.6675;1.3075;
-103.8000;0.6659;1.3004;
-103.5000;0.6659;1.2934;
-103.2000;0.6634;1.3028;
-102.9000;0.6675;1.3215;
-102.6000;0.6691;1.3215;
-102.3000;0.6667;1.3028;
-102.0000;0.6577;1.2840;
-101.7000;0.6650;1.3004;
-101.4000;0.6667;1.2957;
-101.1000;0.6659;1.2934;
-100.8000;0.6699;1.3121;
-100.5000;0.6667;1.3098;
-100.2000;0.6650;1.2981;
-99.9000;0.6634;1.2910;
-99.6000;0.6634;1.2887;
-99.3000;0.6659;1.3028;
-99.0000;0.6642;1.3051;
-98.7000;0.6650;1.3075;
-98.4000;0.6634;1.3051;
-98.1000;0.6650;1.3075;
-97.8000;0.6618;1.3051;
-97.5000;0.6691;1.3215;
-97.2000;0.6642;1.3145;
-96.9000;0.6659;1.3098;
-96.6000;0.6659;1.3028;
-96.3000;0.6659;1.2981;
-96.0000;0.6642;1.2981;
-95.7000;0.6634;1.2981;
-95.4000;0.6634;1.2981;
-95.1000;0.6650;1.2957;
-94.8000;0.6724;1.3121;
-94.5000;0.6642;1.2887;
-94.2000;0.6691;1.3004;
-93.9000;0.6683;1.3075;
-93.6000;0.6642;1.3004;
-93.3000;0.6707;1.3145;
-93.0000;0.6659;1.3075;
-92.7000;0.6659;1.3145;
-92.4000;0.6707;1.3309;
-92.1000;0.6659;1.3028;
-91.8000;0.6659;1.3028;
-91.5000;0.6659;1.3028;
-91.2000;0.6553;1.2769;
-90.9000;0.6642;1.3051;
-90.6000;0.6659;1.3051;
-90.3000;0.6650;1.3028;
-90.0000;0.6650;1.2887;
-89.7000;0.6642;1.2910;
-89.4000;0.6691;1.3028;
-89.1000;0.6650;1.3004;
-88.8000;0.6626;1.2981;
-88.5000;0.6659;1.3051;
-88.2000;0.6634;1.3098;
-87.9000;0.6626;1.3121;
-87.6000;0.6650;1.3239;
-87.3000;0.6650;1.3239;
-87.0000;0.6634;1.3168;
-86.7000;0.6642;1.3168;
-86.4000;0.6545;1.2910;
-86.1000;0.6659;1.3239;
-85.8000;0.6642;1.3286;
-85.5000;0.6650;1.3333;
-85.2000;0.6667;1.3450;
-84.9000;0.6667;1.3427;
-84.6000;0.6659;1.3356;
-84.3000;0.6642;1.3356;
-84.0000;0.6667;1.3380;
-83.7000;0.6659;1.3333;
-83.4000;0.6634;1.3262;
-83.1000;0.6626;1.3145;
-82.8000;0.6642;1.3168;
-82.5000;0.6650;1.3192;
-82.2000;0.6650;1.3192;
-81.9000;0.6642;1.3051;
-81.6000;0.6642;1.3051;
-81.3000;0.6650;1.3004;
-81.0000;0.6667;1.2910;
-80.7000;0.6659;1.2957;
-80.4000;0.6650;1.3051;
-80.1000;0.6585;1.3004;
-79.8000;0.6667;1.3145;
-79.5000;0.6659;1.3168;
-79.2000;0.6659;1.3168;
-78.9000;0.6659;1.3121;
-78.6000;0.6650;1.3168;
-78.3000;0.6659;1.3215;
-78.0000;0.6659;1.3168;
-77.7000;0.6642;1.3192;
-77.4000;0.6650;1.3239;
-77.1000;0.6642;1.3239;
-76.8000;0.6650;1.3192;
-76.5000;0.6626;1.3215;
-76.2000;0.6650;1.3262;
-75.9000;0.6650;1.3215;
-75.6000;0.6626;1.3145;
-75.3000;0.6650;1.3168;
-75.0000;0.6650;1.3215;
-74.7000;0.6667;1.3333;
-74.4000;0.6642;1.3286;
-74.1000;0.6642;1.3286;
-73.8000;0.6650;1.3403;
-73.5000;0.6626;1.3286;
-73.2000;0.6642;1.3239;
-72.9000;0.6642;1.3309;
-72.6000;0.6642;1.3239;
-72.3000;0.6650;1.3215;
-72.0000;0.6642;1.3168;
-71.7000;0.6618;1.3192;
-71.4000;0.6667;1.3309;
-71.1000;0.6667;1.3309;
-70.8000;0.6659;1.3286;
-70.5000;0.6650;1.3286;
-70.2000;0.6610;1.3215;
-69.9000;0.6659;1.3333;
-69.6000;0.6642;1.3239;
-69.3000;0.6553;1.3028;
-69.0000;0.6650;1.3192;
-68.7000;0.6659;1.3262;
-68.4000;0.6618;1.3098;
-68.1000;0.6659;1.3239;
-67.8000;0.6659;1.3286;
-67.5000;0.6642;1.3262;
-67.2000;0.6659;1.3239;
-66.9000;0.6577;1.3028;
-66.6000;0.6634;1.3215;
-66.3000;0.6642;1.3262;
-66.0000;0.6642;1.3262;
-65.7000;0.6642;1.3215;
-65.4000;0.6634;1.3262;
-65.1000;0.6626;1.3192;
-64.8000;0.6634;1.3215;
-64.5000;0.6699;1.3380;
-64.2000;0.6634;1.3356;
-63.9000;0.6650;1.3356;
-63.6000;0.6650;1.3286;
-63.3000;0.6650;1.3239;
-63.0000;0.6634;1.3215;
-62.7000;0.6659;1.3239;
-62.4000;0.6642;1.3286;
-62.1000;0.6659;1.3192;
-61.8000;0.6716;1.3333;
-61.5000;0.6634;1.3192;
-61.2000;0.6650;1.3239;
-60.9000;0.6642;1.3215;
-60.6000;0.6650;1.3239;
-60.3000;0.6659;1.3309;
-60.0000;0.6659;1.3286;
-59.7000;0.6642;1.3333;
-59.4000;0.6659;1.3403;
-59.1000;0.6667;1.3427;
-58.8000;0.6667;1.3403;
-58.5000;0.6650;1.3262;
-58.2000;0.6634;1.3145;
-57.9000;0.6650;1.3215;
-57.6000;0.6642;1.3145;
-57.3000;0.6642;1.3215;
-57.0000;0.6667;1.3262;
-56.7000;0.6650;1.3215;
-56.4000;0.6650;1.3239;
-56.1000;0.6659;1.3333;
-55.8000;0.6667;1.3333;
-55.5000;0.6675;1.3239;
-55.2000;0.6650;1.3192;
-54.9000;0.6659;1.3168;
-54.6000;0.6650;1.3145;
-54.3000;0.6650;1.3168;
-54.0000;0.6650;1.3145;
-53.7000;0.6642;1.3098;
-53.4000;0.6650;1.3192;
-53.1000;0.6667;1.3192;
-52.8000;0.6659;1.3168;
-52.5000;0.6650;1.3028;
-52.2000;0.6659;1.2957;
-51.9000;0.6659;1.2934;
-51.6000;0.6699;1.3004;
-51.3000;0.6650;1.3028;
-51.0000;0.6667;1.3098;
-50.7000;0.6642;1.3121;
-50.4000;0.6650;1.3145;
-50.1000;0.6650;1.3192;
-49.8000;0.6675;1.3239;
-49.5000;0.6650;1.3121;
-49.2000;0.6642;1.3168;
-48.9000;0.6642;1.3262;
-48.6000;0.6569;1.3028;
-48.3000;0.6650;1.3215;
-48.0000;0.6675;1.3309;
-47.7000;0.6675;1.3356;
-47.4000;0.6659;1.3356;
-47.1000;0.6667;1.3403;
-46.8000;0.6667;1.3380;
-46.5000;0.6667;1.3309;
-46.2000;0.6675;1.3380;
-45.9000;0.6659;1.3380;
-45.6000;0.6659;1.3380;
-45.3000;0.6593;1.3215;
-45.0000;0.6650;1.3356;
-44.7000;0.6626;1.3286;
-44.4000;0.6659;1.3356;
-44.1000;0.6650;1.3356;
-43.8000;0.6659;1.3239;
-43.5000;0.6626;1.3145;
-43.2000;0.6650;1.3192;
-42.9000;0.6667;1.3239;
-42.6000;0.6650;1.3262;
-42.3000;0.6659;1.3262;
-42.0000;0.6659;1.3309;
-41.7000;0.6642;1.3380;
-41.4000;0.6716;1.3567;
-41.1000;0.6650;1.3403;
-40.8000;0.6650;1.3403;
-40.5000;0.6650;1.3356;
-40.2000;0.6642;1.3309;
-39.9000;0.6650;1.3356;
-39.6000;0.6650;1.3497;
-39.3000;0.6716;1.3708;
-39.0000;0.6634;1.3497;
-38.7000;0.6528;1.3239;
-38.4000;0.6683;1.3521;
-38.1000;0.6634;1.3356;
-37.8000;0.6683;1.3427;
-37.5000;0.6659;1.3356;
-37.2000;0.6667;1.3450;
-36.9000;0.6667;1.3403;
-36.6000;0.6642;1.3262;
-36.3000;0.6675;1.3262;
-36.0000;0.6667;1.3239;
-35.7000;0.6650;1.3168;
-35.4000;0.6650;1.3098;
-35.1000;0.6642;1.3004;
-34.8000;0.6667;1.3098;
-34.5000;0.6659;1.3121;
-34.2000;0.6699;1.3121;
-33.9000;0.6650;1.3028;
-33.6000;0.6626;1.3028;
-33.3000;0.6650;1.3121;
-33.0000;0.6626;1.3121;
-32.7000;0.6642;1.3262;
-32.4000;0.6650;1.3380;
-32.1000;0.6659;1.3403;
-31.8000;0.6659;1.3427;
-31.5000;0.6675;1.3544;
-31.2000;0.6667;1.3474;
-30.9000;0.6667;1.3544;
-30.6000;0.6626;1.3474;
-30.3000;0.6659;1.3427;
-30.0000;0.6659;1.3403;
-29.7000;0.6667;1.3262;
-29.4000;0.6667;1.3262;
-29.1000;0.6634;1.3215;
-28.8000;0.6650;1.3239;
-28.5000;0.6650;1.3286;
-28.2000;0.6659;1.3309;
-27.9000;0.6659;1.3262;
-27.6000;0.6650;1.3333;
-27.3000;0.6642;1.3380;
-27.0000;0.6650;1.3403;
-26.7000;0.6659;1.3380;
-26.4000;0.6626;1.3286;
-26.1000;0.6650;1.3262;
-25.8000;0.6675;1.3262;
-25.5000;0.6667;1.3286;
-25.2000;0.6650;1.3262;
-24.9000;0.6650;1.3286;
-24.6000;0.6667;1.3262;
-24.3000;0.6642;1.3262;
-24.0000;0.6650;1.3262;
-23.7000;0.6626;1.3239;
-23.4000;0.6675;1.3333;
-23.1000;0.6650;1.3239;
-22.8000;0.6642;1.3239;
-22.5000;0.6650;1.3215;
-22.2000;0.6667;1.3262;
-21.9000;0.6659;1.3262;
-21.6000;0.6626;1.3239;
-21.3000;0.6642;1.3286;
-21.0000;0.6642;1.3239;
-20.7000;0.6626;1.3192;
-20.4000;0.6667;1.3192;
-20.1000;0.6650;1.3215;
-19.8000;0.6642;1.3286;
-19.5000;0.6675;1.3286;
-19.2000;0.6642;1.3215;
-18.9000;0.6659;1.3168;
-18.6000;0.6650;1.3145;
-18.3000;0.6650;1.3121;
-18.0000;0.6650;1.3145;
-17.7000;0.6650;1.3121;
-17.4000;0.6626;1.3121;
-17.1000;0.6642;1.3168;
-16.8000;0.6650;1.3168;
-16.5000;0.6650;1.3192;
-16.2000;0.6650;1.3262;
-15.9000;0.6650;1.3215;
-15.6000;0.6659;1.3168;
-15.3000;0.6667;1.3121;
-15.0000;0.6593;1.3004;
-14.7000;0.6634;1.3192;
-14.4000;0.6659;1.3239;
-14.1000;0.6667;1.3192;
-13.8000;0.6626;1.3145;
-13.5000;0.6626;1.3262;
-13.2000;0.6642;1.3286;
-12.9000;0.6650;1.3262;
-12.6000;0.6650;1.3286;
-12.3000;0.6634;1.3239;
-12.0000;0.6650;1.3333;
-11.7000;0.6634;1.3262;
-11.4000;0.6650;1.3286;
-11.1000;0.6650;1.3215;
-10.8000;0.6634;1.3239;
-10.5000;0.6650;1.3333;
-10.2000;0.6659;1.3333;
-9.9000;0.6634;1.3262;
-9.6000;0.6642;1.3262;
-9.3000;0.6659;1.3215;
-9.0000;0.6642;1.3121;
-8.7000;0.6610;1.3098;
-8.4000;0.6667;1.3145;
-8.1000;0.6650;1.3168;
-7.8000;0.6659;1.3168;
-7.5000;0.6642;1.3239;
-7.2000;0.6659;1.3333;
-6.9000;0.6634;1.3333;
-6.6000;0.6626;1.3262;
-6.3000;0.6642;1.3403;
-6.0000;0.6634;1.3356;
-5.7000;0.6634;1.3403;
-5.4000;0.6659;1.3497;
-5.1000;0.6642;1.3474;
-4.8000;0.6618;1.3450;
-4.5000;0.6626;1.3450;
-4.2000;0.6650;1.3474;
-3.9000;0.6659;1.3591;
-3.6000;0.6675;1.3614;
-3.3000;0.6650;1.3591;
-3.0000;0.6553;1.3356;
-2.7000;0.6650;1.3638;
-2.4000;0.6659;1.3614;
-2.1000;0.6634;1.3497;
-1.8000;0.6667;1.3614;
-1.5000;0.6642;1.3567;
-1.2000;0.6659;1.3614;
-0.9000;0.6675;1.3614;
-0.6000;0.6618;1.3450;
-0.3000;0.6545;1.3239;
0.0000;0.6545;1.3239;
0.3000;0.6764;1.3567;
0.6000;0.6927;1.3802;
0.9000;0.7114;1.4107;
1.2000;0.7277;1.4366;
1.5000;0.7367;1.4600;
1.8000;0.7464;1.4812;
2.1000;0.7530;1.5093;
2.4000;0.7578;1.5234;
2.7000;0.7749;1.5657;
3.0000;0.7668;1.5398;
3.3000;0.7709;1.5516;
3.6000;0.7741;1.5657;
3.9000;0.7782;1.5727;
4.2000;0.7798;1.5774;
4.5000;0.7823;1.5821;
4.8000;0.7823;1.5821;
5.1000;0.7863;1.5891;
5.4000;0.7888;1.5915;
5.7000;0.7888;1.5938;
6.0000;0.7904;1.5985;
6.3000;0.7977;1.6196;
6.6000;0.7953;1.6150;
6.9000;0.7937;1.6079;
7.2000;0.7985;1.6126;
7.5000;0.7969;1.6056;
7.8000;0.7969;1.6009;
8.1000;0.7977;1.6032;
8.4000;0.7985;1.6103;
8.7000;0.7993;1.6079;
9.0000;0.8002;1.6032;
9.3000;0.7920;1.5844;
9.6000;0.8010;1.6126;
9.9000;0.8018;1.6173;
10.2000;0.8042;1.6150;
10.5000;0.8075;1.6220;
10.8000;0.8042;1.6056;
11.1000;0.8026;1.6009;
11.4000;0.8050;1.6150;
11.7000;0.8067;1.6290;
12.0000;0.8140;1.6408;
12.3000;0.8099;1.6290;
12.6000;0.8083;1.6267;
12.9000;0.8083;1.6267;
13.2000;0.8132;1.6220;
13.5000;0.8083;1.6056;
13.8000;0.8091;1.6009;
14.1000;0.8091;1.6126;
14.4000;0.8124;1.6173;
14.7000;0.8099;1.6079;
15.0000;0.8099;1.6056;
15.3000;0.8116;1.6032;
15.6000;0.8116;1.6103;
15.9000;0.8116;1.6079;
16.2000;0.8099;1.6103;
16.5000;0.8124;1.6126;
16.8000;0.8140;1.6150;
17.1000;0.8181;1.6243;
17.4000;0.8083;1.5938;
17.7000;0.8148;1.5962;
18.0000;0.8107;1.5915;
18.3000;0.8156;1.6032;
18.6000;0.8164;1.6079;
18.9000;0.8140;1.5985;
19.2000;0.8148;1.6032;
19.5000;0.8148;1.6103;
19.8000;0.8173;1.6056;
20.1000;0.8164;1.6079;
20.4000;0.8197;1.6032;
20.7000;0.8189;1.6009;
21.0000;0.8181;1.6032;
21.3000;0.8173;1.6056;
21.6000;0.8140;1.5962;
21.9000;0.8173;1.6032;
22.2000;0.8173;1.5938;
22.5000;0.8189;1.5915;
22.8000;0.8254;1.6126;
23.1000;0.8205;1.6032;
23.4000;0.8189;1.5985;
23.7000;0.8107;1.5704;
24.0000;0.8189;1.5962;
24.3000;0.8189;1.5844;
24.6000;0.8197;1.5962;
24.9000;0.8197;1.6009;
25.2000;0.8197;1.6009;
25.5000;0.8205;1.6032;
25.8000;0.8205;1.5962;
26.1000;0.8262;1.6126;
26.4000;0.8213;1.5868;
26.7000;0.8205;1.5868;
27.0000;0.8221;1.5868;
27.3000;0.8205;1.5774;
27.6000;0.8173;1.5750;
27.9000;0.8197;1.5868;
28.2000;0.8205;1.5750;
28.5000;0.8230;1.5891;
28.8000;0.8230;1.5844;
29.1000;0.8230;1.5915;
29.4000;0.8213;1.5938;
29.7000;0.8238;1.5985;
30.0000;0.8205;1.5891;
30.3000;0.8213;1.5985;
30.6000;0.8197;1.6032;
30.9000;0.8164;1.5962;
31.2000;0.8230;1.6079;
31.5000;0.8221;1.6009;
31.8000;0.8221;1.6009;
32.1000;0.8238;1.5962;
32.4000;0.8221;1.5962;
32.7000;0.8205;1.5962;
33.0000;0.8230;1.5962;
33.3000;0.8221;1.5915;
33.6000;0.8238;1.5891;
33.9000;0.8238;1.5915;
34.2000;0.8238;1.5962;
34.5000;0.8221;1.5868;
34.8000;0.8246;1.5962;
35.1000;0.8270;1.6150;
35.4000;0.8230;1.6056;
35.7000;0.8238;1.6079;
36.0000;0.8246;1.6032;
36.3000;0.8230;1.6056;
36.6000;0.8238;1.5938;
36.9000;0.8230;1.5868;
37.2000;0.8230;1.5844;
37.5000;0.8246;1.5915;
37.8000;0.8230;1.5938;
38.1000;0.8295;1.6103;
38.4000;0.8107;1.5539;
38.7000;0.8230;1.5938;
39.0000;0.8295;1.6126;
39.3000;0.8230;1.5938;
39.6000;0.8246;1.5938;
39.9000;0.8230;1.5891;
40.2000;0.8319;1.6056;
40.5000;0.8213;1.5915;
40.8000;0.8238;1.6009;
41.1000;0.8230;1.5962;
41.4000;0.8246;1.6056;
41.7000;0.8230;1.6126;
42.0000;0.8189;1.6032;
42.3000;0.8246;1.6267;
42.6000;0.8230;1.6126;
42.9000;0.8303;1.6220;
43.2000;0.8230;1.6056;
43.5000;0.8238;1.6173;
43.8000;0.8246;1.6103;
44.1000;0.8189;1.5938;
44.4000;0.8278;1.6196;
44.7000;0.8238;1.6150;
45.0000;0.8238;1.6150;
45.3000;0.8254;1.6173;
45.6000;0.8246;1.6126;
45.9000;0.8238;1.6196;
46.2000;0.8230;1.6196;
46.5000;0.8270;1.6220;
46.8000;0.8238;1.6243;
47.1000;0.8262;1.6243;
47.4000;0.8246;1.6150;
47.7000;0.8189;1.6009;
48.0000;0.8352;1.6431;
48.3000;0.8205;1.6079;
48.6000;0.8221;1.6056;
48.9000;0.8238;1.6032;
49.2000;0.8262;1.5985;
49.5000;0.8213;1.5844;
49.8000;0.8254;1.5868;
50.1000;0.8262;1.5891;
50.4000;0.8254;1.5938;
50.7000;0.8246;1.6032;
51.0000;0.8262;1.6032;
51.3000;0.8254;1.6079;
51.6000;0.8376;1.6408;
51.9000;0.8246;1.6103;
52.2000;0.8238;1.6103;
52.5000;0.8189;1.5915;
52.8000;0.8246;1.6126;
53.1000;0.8254;1.6196;
53.4000;0.8238;1.6196;
53.7000;0.8230;1.6220;
54.0000;0.8238;1.6337;
54.3000;0.8262;1.6314;
54.6000;0.8262;1.6243;
54.9000;0.8238;1.6126;
55.2000;0.8262;1.6126;
55.5000;0.8246;1.6103;
55.8000;0.8254;1.6103;
56.1000;0.8246;1.6103;
56.4000;0.8246;1.6079;
56.7000;0.8262;1.6103;
57.0000;0.8278;1.6196;
57.3000;0.8254;1.6150;
57.6000;0.8246;1.6150;
57.9000;0.8254;1.6173;
58.2000;0.8246;1.6126;
58.5000;0.8262;1.6196;
58.8000;0.8238;1.6243;
59.1000;0.8238;1.6243;
59.4000;0.8392;1.6549;
59.7000;0.8246;1.6220;
60.0000;0.8238;1.6196;
60.3000;0.8295;1.6267;
60.6000;0.8270;1.6103;
60.9000;0.8254;1.6079;
61.2000;0.8270;1.6056;
61.5000;0.8238;1.5891;
61.8000;0.8254;1.5891;
62.1000;0.8270;1.5915;
62.4000;0.8262;1.5915;
62.7000;0.8254;1.5962;
63.0000;0.8254;1.6009;
63.3000;0.8270;1.6079;
63.6000;0.8254;1.6056;
63.9000;0.8254;1.6009;
64.2000;0.8230;1.5915;
64.5000;0.8262;1.6009;
64.8000;0.8262;1.6009;
65.1000;0.8254;1.6079;
65.4000;0.8270;1.6103;
65.7000;0.8262;1.6126;
66.0000;0.8262;1.6126;
66.3000;0.8262;1.6103;
66.6000;0.8262;1.6126;
66.9000;0.8262;1.6220;
67.2000;0.8270;1.6267;
67.5000;0.8262;1.6243;
67.8000;0.8254;1.6150;
68.1000;0.8262;1.6079;
68.4000;0.8262;1.6103;
68.7000;0.8246;1.6032;
69.0000;0.8254;1.5962;
69.3000;0.8230;1.5868;
69.6000;0.8262;1.5985;
69.9000;0.8254;1.6079;
70.2000;0.8262;1.6126;
70.5000;0.8254;1.6173;
70.8000;0.8270;1.6150;
71.1000;0.8287;1.6032;
71.4000;0.8262;1.5962;
71.7000;0.8270;1.6032;
72.0000;0.8254;1.6056;
72.3000;0.8246;1.5962;
72.6000;0.8278;1.6009;
72.9000;0.8254;1.6009;
73.2000;0.8262;1.6079;
73.5000;0.8262;1.6126;
73.8000;0.8270;1.6056;
74.1000;0.8376;1.6361;
74.4000;0.8156;1.5774;
74.7000;0.8254;1.6056;
75.0000;0.8262;1.6103;
75.3000;0.8238;1.6079;
75.6000;0.8270;1.6079;
75.9000;0.8270;1.6056;
76.2000;0.8303;1.6173;
76.5000;0.8164;1.5915;
76.8000;0.8246;1.6150;
77.1000;0.8270;1.6173;
77.4000;0.8270;1.6126;
77.7000;0.8278;1.6056;
78.0000;0.8270;1.5985;
78.3000;0.8262;1.6032;
78.6000;0.8246;1.6056;
78.9000;0.8254;1.6150;
79.2000;0.8254;1.6173;
79.5000;0.8254;1.6126;
79.8000;0.8254;1.6079;
80.1000;0.8270;1.6032;
80.4000;0.8246;1.5985;
80.7000;0.8262;1.5938;
81.0000;0.8246;1.5891;
81.3000;0.8278;1.5985;
81.6000;0.8246;1.5915;
81.9000;0.8254;1.5962;
82.2000;0.8246;1.5938;
82.5000;0.8246;1.5915;
82.8000;0.8254;1.5891;
83.1000;0.8246;1.5891;
83.4000;0.8262;1.5891;
83.7000;0.8262;1.5868;
84.0000;0.8238;1.5868;
84.3000;0.8238;1.5821;
84.6000;0.8246;1.5891;
84.9000;0.8132;1.5586;
85.2000;0.8246;1.6009;
85.5000;0.8213;1.5868;
85.8000;0.8254;1.5985;
86.1000;0.8270;1.6032;
86.4000;0.8246;1.6009;
86.7000;0.8254;1.6056;
87.0000;0.8319;1.6220;
87.3000;0.8238;1.6150;
87.6000;0.8254;1.6361;
87.9000;0.8270;1.6361;
88.2000;0.8254;1.6220;
88.5000;0.8262;1.6196;
88.8000;0.8254;1.6220;
89.1000;0.8270;1.6290;
89.4000;0.8278;1.6267;
89.7000;0.8254;1.6220;
90.0000;0.8238;1.6173;
90.3000;0.8262;1.6243;
90.6000;0.8230;1.6103;
90.9000;0.8254;1.6196;
91.2000;0.8254;1.6150;
91.5000;0.8278;1.6196;
91.8000;0.8262;1.6103;
92.1000;0.8254;1.6056;
92.4000;0.8262;1.6009;
92.7000;0.8238;1.5915;
93.0000;0.8295;1.6032;
93.3000;0.8262;1.5985;
93.6000;0.8254;1.5938;
93.9000;0.8254;1.5938;
94.2000;0.8254;1.5938;
94.5000;0.8254;1.5868;
94.8000;0.8262;1.5891;
95.1000;0.8254;1.5915;
95.4000;0.8254;1.5891;
95.7000;0.8254;1.5915;
96.0000;0.8262;1.5962;
96.3000;0.8246;1.5891;
96.6000;0.8254;1.5962;
96.9000;0.8270;1.5891;
97.2000;0.8254;1.6009;
97.5000;0.8270;1.6079;
97.8000;0.8246;1.5985;
98.1000;0.8262;1.6009;
98.4000;0.8327;1.6196;
98.7000;0.8254;1.5985;
99.0000;0.8262;1.6103;
99.3000;0.8278;1.6150;
99.6000;0.8270;1.6126;
99.9000;0.8254;1.5962;
100.2000;0.8246;1.5938;
100.5000;0.8246;1.6009;
100.8000;0.8270;1.6056;
101.1000;0.8246;1.6032;
101.4000;0.8295;1.6173;
101.7000;0.8262;1.6126;
102.0000;0.8262;1.6079;
102.3000;0.8262;1.6032;
102.6000;0.8327;1.6220;
102.9000;0.8254;1.6009;
103.2000;0.8270;1.6103;
103.5000;0.8270;1.6056;
103.8000;0.8254;1.6079;
104.1000;0.8270;1.6126;
104.4000;0.8278;1.6150;
104.7000;0.8278;1.6103;
105.0000;0.8262;1.6009;
105.3000;0.8238;1.5962;
105.6000;0.8262;1.6032;
105.9000;0.8262;1.6009;
106.2000;0.8254;1.6032;
106.5000;0.8262;1.5962;
106.8000;0.8254;1.5962;
107.1000;0.8238;1.5915;
107.4000;0.8376;1.6267;
107.7000;0.8262;1.5985;
108.0000;0.8254;1.6032;
108.3000;0.8238;1.6032;
108.6000;0.8238;1.6009;
108.9000;0.8246;1.6103;
109.2000;0.8238;1.6079;
109.5000;0.8238;1.6079;
109.8000;0.8254;1.6103;
110.1000;0.8254;1.6079;
110.4000;0.8221;1.6079;
110.7000;0.8246;1.6079;
111.0000;0.8132;1.5821;
111.3000;0.8254;1.6103;
111.6000;0.8262;1.6126;
111.9000;0.8213;1.5962;
112.2000;0.8164;1.5891;
112.5000;0.8246;1.6126;
112.8000;0.8262;1.6173;
113.1000;0.8254;1.6150;
113.4000;0.8254;1.6079;
113.7000;0.8262;1.6103;
114.0000;0.8205;1.5891;
114.3000;0.8254;1.5985;
114.6000;0.8278;1.6032;
114.9000;0.8278;1.6032;
115.2000;0.8262;1.6009;
115.5000;0.8270;1.6009;
115.8000;0.8238;1.5938;
116.1000;0.8270;1.6009;
116.4000;0.8238;1.5985;
116.7000;0.8254;1.6079;
117.0000;0.8270;1.6056;
117.3000;0.8278;1.6056;
117.6000;0.8368;1.6290;
117.9000;0.8270;1.5985;
118.2000;0.8270;1.5915;
118.5000;0.8270;1.5985;
118.8000;0.8221;1.5891;
119.1000;0.8287;1.5938;
119.4000;0.8262;1.5844;
119.7000;0.8254;1.5797;
120.0000;0.8254;1.5844;
120.3000;0.8262;1.5821;
120.6000;0.8262;1.5915;
120.9000;0.8246;1.5962;
121.2000;0.8238;1.5985;
121.5000;0.8246;1.5962;
121.8000;0.8230;1.5985;
122.1000;0.8230;1.5915;
122.4000;0.8238;1.5915;
122.7000;0.8246;1.5938;
123.0000;0.8238;1.5844;
123.3000;0.8246;1.5891;
123.6000;0.8246;1.5797;
123.9000;0.8238;1.5750;
124.2000;0.8254;1.5750;
124.5000;0.8262;1.5797;
124.8000;0.8246;1.5774;
125.1000;0.8213;1.5774;
125.4000;0.8246;1.5868;
125.7000;0.8197;1.5774;
126.0000;0.8278;1.5985;
126.3000;0.8262;1.6032;
126.6000;0.8246;1.5985;
126.9000;0.8262;1.6032;
127.2000;0.8270;1.5985;
127.5000;0.8230;1.5797;
127.8000;0.8270;1.5844;
128.1000;0.8262;1.5774;
128.4000;0.8270;1.5750;
128.7000;0.8238;1.5657;
129.0000;0.8327;1.5962;
129.3000;0.8254;1.5774;
129.6000;0.8254;1.5750;
129.9000;0.8246;1.5750;
130.2000;0.8173;1.5633;
130.5000;0.8270;1.5821;
130.8000;0.8262;1.5797;
131.1000;0.8156;1.5563;
131.4000;0.8262;1.5962;
131.7000;0.8262;1.6009;
132.0000;0.8262;1.6126;
132.3000;0.8311;1.6173;
132.6000;0.8270;1.6032;
132.9000;0.8270;1.6032;
133.2000;0.8319;1.6056;
133.5000;0.8262;1.5938;
133.8000;0.8246;1.6009;
134.1000;0.8221;1.5985;
134.4000;0.8270;1.6103;
134.7000;0.8238;1.5962;
135.0000;0.8205;1.5844;
135.3000;0.8246;1.5962;
135.6000;0.8270;1.6032;
135.9000;0.8238;1.5915;
136.2000;0.8230;1.5868;
136.5000;0.8238;1.5938;
136.8000;0.8254;1.5938;
137.1000;0.8335;1.6103;
137.4000;0.8246;1.5915;
137.7000;0.8238;1.5938;
138.0000;0.8230;1.5938;
138.3000;0.8254;1.6009;
138.6000;0.8270;1.6009;
138.9000;0.8303;1.6009;
139.2000;0.8254;1.5915;
139.5000;0.8270;1.5891;
139.8000;0.8262;1.5868;
140.1000;0.8254;1.5891;
140.4000;0.8262;1.6056;
140.7000;0.8254;1.6103;
141.0000;0.8262;1.6079;
141.3000;0.8270;1.6126;
141.6000;0.8270;1.6150;
141.9000;0.8262;1.6126;
142.2000;0.8254;1.6126;
142.5000;0.8270;1.6126;
142.8000;0.8254;1.5985;
143.1000;0.8262;1.5985;
143.4000;0.8270;1.6009;
143.7000;0.8270;1.6056;
144.0000;0.8254;1.6009;
144.3000;0.8246;1.6103;
144.6000;0.8287;1.6267;
144.9000;0.8270;1.6220;
145.2000;0.8254;1.6196;
145.5000;0.8238;1.6126;
145.8000;0.8270;1.6196;
146.1000;0.8254;1.6173;
146.4000;0.8262;1.6150;
146.7000;0.8254;1.6009;
147.0000;0.8156;1.5774;
147.3000;0.8270;1.6126;
147.6000;0.8278;1.6103;
147.9000;0.8246;1.6056;
148.2000;0.8230;1.6032;
148.5000;0.8262;1.6032;
148.8000;0.8262;1.6103;
149.1000;0.8254;1.6103;
149.4000;0.8246;1.6103;
149.7000;0.8230;1.6079;
150.0000;0.8287;1.6150;
150.3000;0.8246;1.6009;
150.6000;0.8246;1.5962;
150.9000;0.8254;1.5962;
151.2000;0.8254;1.5985;
151.5000;0.8287;1.6079;
151.8000;0.8254;1.6079;
152.1000;0.8230;1.6032;
152.4000;0.8230;1.6079;
152.7000;0.8262;1.6196;
153.0000;0.8238;1.6126;
153.3000;0.8254;1.6150;
153.6000;0.8238;1.6056;
153.9000;0.8238;1.6009;
154.2000;0.8278;1.6056;
154.5000;0.8254;1.5915;
154.8000;0.8262;1.6056;
155.1000;0.8295;1.6196;
155.4000;0.8254;1.6079;
155.7000;0.8230;1.6079;
156.0000;0.8254;1.6173;
156.3000;0.8197;1.5962;
156.6000;0.8262;1.6079;
156.9000;0.8254;1.6079;
157.2000;0.8262;1.6079;
157.5000;0.8278;1.6103;
157.8000;0.8278;1.6079;
158.1000;0.8254;1.6032;
158.4000;0.8254;1.6032;
158.7000;0.8270;1.6056;
159.0000;0.8254;1.5985;
159.3000;0.8254;1.6032;
159.6000;0.8246;1.5938;
159.9000;0.8262;1.5891;
160.2000;0.8270;1.5868;
160.5000;0.8230;1.5704;
160.8000;0.8238;1.5797;
161.1000;0.8197;1.5657;
161.4000;0.8254;1.5915;
161.7000;0.8262;1.5962;
162.0000;0.8238;1.5891;
162.3000;0.8254;1.5938;
162.6000;0.8254;1.5844;
162.9000;0.8270;1.5985;
163.2000;0.8254;1.5962;
163.5000;0.8254;1.5985;
163.8000;0.8254;1.5962;
164.1000;0.8254;1.5985;
164.4000;0.8287;1.6079;
164.7000;0.8254;1.6009;
165.0000;0.8254;1.6032;
165.3000;0.8262;1.6103;
165.6000;0.8344;1.6290;
165.9000;0.8246;1.6103;
166.2000;0.8254;1.6150;
166.5000;0.8254;1.6103;
166.8000;0.8254;1.6079;
167.1000;0.8254;1.6032;
167.4000;0.8221;1.5891;
167.7000;0.8262;1.5938;
168.0000;0.8262;1.5962;
168.3000;0.8238;1.5962;
168.6000;0.8303;1.6079;
168.9000;0.8262;1.6009;
169.2000;0.8262;1.6009;
169.5000;0.8221;1.6056;
169.8000;0.8254;1.6079;
170.1000;0.8230;1.6009;
170.4000;0.8238;1.6079;
170.7000;0.8238;1.5985;
171.0000;0.8246;1.5962;
171.3000;0.8246;1.5915;
171.6000;0.8197;1.5774;
171.9000;0.8254;1.5868;
172.2000;0.8254;1.5868;
172.5000;0.8270;1.6009;
172.8000;0.8246;1.5985;
173.1000;0.8278;1.6103;
173.4000;0.8246;1.6150;
173.7000;0.8246;1.6196;
174.0000;0.8238;1.6220;
174.3000;0.8213;1.6150;
174.6000;0.8262;1.6103;
174.9000;0.8254;1.6056;
175.2000;0.8254;1.6056;
175.5000;0.8238;1.6009;
175.8000;0.8270;1.6009;
176.1000;0.8246;1.5962;
176.4000;0.8287;1.6079;
176.7000;0.8254;1.5985;
177.0000;0.8197;1.5844;
177.3000;0.8246;1.5962;
177.6000;0.8221;1.5891;
177.9000;0.8238;1.5985;
178.2000;0.8230;1.6009;
178.5000;0.8230;1.6009;
178.8000;0.8238;1.6056;
179.1000;0.8238;1.6103;
179.4000;0.8287;1.6220;
179.7000;0.8246;1.6173;
180.0000;0.8254;1.6173;
180.3000;0.8254;1.6196;
180.6000;0.8246;1.6196;
180.9000;0.8254;1.6196;
181.2000;0.8254;1.6150;
181.5000;0.8270;1.6126;
181.8000;0.8254;1.6079;
182.1000;0.8246;1.6079;
182.4000;0.8270;1.6056;
182.7000;0.8246;1.6032;
183.0000;0.8254;1.5938;
183.3000;0.8238;1.5821;
183.6000;0.8262;1.5915;
183.9000;0.8246;1.5962;
184.2000;0.8246;1.6009;
184.5000;0.8238;1.6103;
184.8000;0.8238;1.6056;
185.1000;0.8246;1.6079;
185.4000;0.8254;1.6079;
185.7000;0.8221;1.6009;
186.0000;0.8254;1.6150;
186.3000;0.8262;1.6173;
186.6000;0.8230;1.6056;
186.9000;0.8238;1.6103;
187.2000;0.8254;1.6126;
187.5000;0.8352;1.6196;
187.8000;0.8262;1.6009;
188.1000;0.8230;1.6032;
188.4000;0.8262;1.6056;
188.7000;0.8262;1.6056;
189.0000;0.8254;1.6056;
189.3000;0.8238;1.5962;
189.6000;0.8262;1.6103;
189.9000;0.8262;1.6126;
190.2000;0.8246;1.6056;
190.5000;0.8221;1.6079;
190.8000;0.8262;1.6150;
191.1000;0.8287;1.6126;
191.4000;0.8246;1.5938;
191.7000;0.8238;1.5962;
192.0000;0.8262;1.6032;
192.3000;0.8311;1.6196;
192.6000;0.8287;1.6056;
192.9000;0.8238;1.5938;
193.2000;0.8254;1.6009;
193.5000;0.8238;1.6009;
193.8000;0.8246;1.6056;
194.1000;0.8246;1.6056;
194.4000;0.8238;1.6009;
194.7000;0.8254;1.6009;
195.0000;0.8246;1.5962;
195.3000;0.8230;1.6009;
195.6000;0.8246;1.5915;
195.9000;0.8262;1.5962;
196.2000;0.8246;1.5915;
196.5000;0.8238;1.5891;
196.8000;0.8270;1.5844;
197.1000;0.8246;1.5844;
197.4000;0.8270;1.5915;
197.7000;0.8246;1.5891;
198.0000;0.8246;1.5891;
198.3000;0.8254;1.5844;
198.6000;0.8262;1.5797;
198.9000;0.8278;1.5774;
199.2000;0.8246;1.5821;
199.5000;0.8238;1.5868;
199.8000;0.8238;1.5891;
200.1000;0.8238;1.5891;
200.4000;0.8254;1.5821;
200.7000;0.8230;1.5704;
201.0000;0.8230;1.5750;
201.3000;0.8254;1.5797;
201.6000;0.8230;1.5844;
201.9000;0.8246;1.5868;
202.2000;0.8246;1.5821;
202.5000;0.8221;1.5774;
202.8000;0.8270;1.5868;
203.1000;0.8262;1.5868;
203.4000;0.8262;1.5797;
203.7000;0.8254;1.5727;
204.0000;0.8254;1.5704;
204.3000;0.8335;1.5774;
204.6000;0.8278;1.5563;
204.9000;0.8254;1.5516;
205.2000;0.8254;1.5610;
205.5000;0.8205;1.5563;
205.8000;0.8246;1.5704;
206.1000;0.8238;1.5750;
206.4000;0.8254;1.5727;
206.7000;0.8238;1.5797;
207.0000;0.8246;1.5868;
207.3000;0.8230;1.5868;
207.6000;0.8246;1.5821;
207.9000;0.8246;1.5844;
208.2000;0.8254;1.5891;
208.5000;0.8230;1.5938;
208.8000;0.8246;1.5962;
209.1000;0.8230;1.6009;
209.4000;0.8230;1.6056;
209.7000;0.8254;1.6032;
210.0000;0.8238;1.6009;
210.3000;0.8246;1.5985;
210.6000;0.8230;1.5985;
210.9000;0.8230;1.5985;
211.2000;0.8238;1.5962;
211.5000;0.8319;1.6126;
211.8000;0.8254;1.6032;
212.1000;0.8246;1.5938;
212.4000;0.8238;1.5750;
212.7000;0.8246;1.5821;
213.0000;0.8262;1.5915;
213.3000;0.8246;1.5962;
213.6000;0.8303;1.6220;
213.9000;0.8246;1.6173;
214.2000;0.8238;1.6220;
214.5000;0.8262;1.6196;
214.8000;0.8254;1.6103;
215.1000;0.8246;1.6079;
215.4000;0.8246;1.5985;
215.7000;0.8254;1.6032;
216.0000;0.8246;1.6056;
216.3000;0.8246;1.5962;
216.6000;0.8230;1.5844;
216.9000;0.8246;1.5915;
217.2000;0.8246;1.5868;
217.5000;0.8238;1.5915;
217.8000;0.8246;1.5868;
218.1000;0.8230;1.5704;
218.4000;0.8254;1.5680;
218.7000;0.8254;1.5633;
219.0000;0.8246;1.5727;
219.3000;0.8230;1.5774;
219.6000;0.8246;1.5868;
219.9000;0.8246;1.5891;
220.2000;0.8230;1.5797;
220.5000;0.8254;1.5797;
220.8000;0.8246;1.5680;
221.1000;0.8221;1.5750;
221.4000;0.8221;1.5704;
221.7000;0.8230;1.5797;
222.0000;0.8238;1.5844;
222.3000;0.8246;1.5844;
222.6000;0.8238;1.5750;
222.9000;0.8238;1.5727;
223.2000;0.8246;1.5680;
223.5000;0.8238;1.5704;
223.8000;0.8238;1.5891;
224.1000;0.8238;1.5915;
224.4000;0.8368;1.6220;
224.7000;0.8238;1.5915;
225.0000;0.8221;1.5891;
225.3000;0.8270;1.5985;
225.6000;0.8246;1.5915;
225.9000;0.8230;1.5844;
226.2000;0.8254;1.5797;
226.5000;0.8238;1.5610;
226.8000;0.8278;1.5774;
227.1000;0.8254;1.5704;
227.4000;0.8238;1.5633;
227.7000;0.8238;1.5586;
228.0000;0.8238;1.5563;
228.3000;0.8246;1.5610;
228.6000;0.8262;1.5680;
228.9000;0.8254;1.5727;
229.2000;0.8262;1.5774;
229.5000;0.8221;1.5657;
229.8000;0.8254;1.5774;
230.1000;0.8311;1.5962;
230.4000;0.8262;1.5891;
230.7000;0.8238;1.5868;
231.0000;0.8287;1.5938;
231.3000;0.8254;1.5915;
231.6000;0.8327;1.6126;
231.9000;0.8246;1.5868;
232.2000;0.8189;1.5680;
232.5000;0.8254;1.5891;
232.8000;0.8230;1.5915;
233.1000;0.8230;1.5962;
233.4000;0.8246;1.6032;
233.7000;0.8262;1.6009;
234.0000;0.8254;1.5915;
234.3000;0.8246;1.5938;
234.6000;0.8262;1.6009;
234.9000;0.8246;1.5985;
235.2000;0.8238;1.6103;
235.5000;0.8230;1.5962;
235.8000;0.8230;1.6032;
236.1000;0.8181;1.5985;
236.4000;0.8262;1.6079;
236.7000;0.8246;1.5915;
237.0000;0.8246;1.5915;
237.3000;0.8246;1.5915;
237.6000;0.8270;1.5938;
237.9000;0.8246;1.5915;
238.2000;0.8278;1.5868;
238.5000;0.8230;1.5821;
238.8000;0.8254;1.5868;
239.1000;0.8246;1.5891;
239.4000;0.8270;1.5938;
239.7000;0.8246;1.5891;
240.0000;0.8254;1.5915;
240.3000;0.8254;1.5915;
240.6000;0.8303;1.6032;
240.9000;0.8246;1.5915;
241.2000;0.8254;1.5938;
241.5000;0.8262;1.5985;
241.8000;0.8246;1.5868;
242.1000;0.8254;1.5797;
242.4000;0.8189;1.5680;
242.7000;0.8238;1.5797;
243.0000;0.8262;1.5868;
243.3000;0.8238;1.5797;
243.6000;0.8246;1.5797;
243.9000;0.8230;1.5680;
244.2000;0.8238;1.5633;
244.5000;0.8246;1.5704;
244.8000;0.8238;1.5750;
245.1000;0.8238;1.5727;
245.4000;0.8254;1.5750;
245.7000;0.8238;1.5750;
246.0000;0.8230;1.5750;
246.3000;0.8230;1.5821;
246.6000;0.8230;1.5844;
246.9000;0.8205;1.5774;
247.2000;0.8238;1.5797;
247.5000;0.8230;1.5774;
247.8000;0.8238;1.5750;
248.1000;0.8230;1.5633;
248.4000;0.8254;1.5774;
248.7000;0.8238;1.5680;
249.0000;0.8238;1.5610;
249.3000;0.8254;1.5727;
249.6000;0.8246;1.5774;
249.9000;0.8238;1.5727;
250.2000;0.8254;1.5750;
250.5000;0.8246;1.5750;
250.8000;0.8238;1.5821;
251.1000;0.8246;1.5797;
251.4000;0.8262;1.5868;
251.7000;0.8246;1.5821;
252.0000;0.8246;1.5797;
252.3000;0.8238;1.5750;
252.6000;0.8230;1.5727;
252.9000;0.8262;1.5868;
253.2000;0.8254;1.5868;
253.5000;0.8230;1.5844;
253.8000;0.8230;1.5821;
254.1000;0.8254;1.5962;
254.4000;0.8246;1.5938;
254.7000;0.8230;1.5985;
255.0000;0.8205;1.5844;
255.3000;0.8246;1.5891;
255.6000;0.8246;1.5821;
255.9000;0.8246;1.5750;
256.2000;0.8213;1.5727;
256.5000;0.8238;1.5844;
256.8000;0.8246;1.5891;
257.1000;0.8254;1.5938;
257.4000;0.8254;1.5938;
257.7000;0.8238;1.5938;
258.0000;0.8238;1.5891;
258.3000;0.8246;1.5868;
258.6000;0.8254;1.5891;
258.9000;0.8246;1.5868;
259.2000;0.8278;1.6056;
259.5000;0.8230;1.5915;
259.8000;0.8221;1.5868;
260.1000;0.8254;1.5938;
260.4000;0.8246;1.5891;
260.7000;0.8254;1.5821;
261.0000;0.8254;1.5797;
261.3000;0.8254;1.5821;
261.6000;0.8246;1.5680;
261.9000;0.8270;1.5750;
262.2000;0.8221;1.5680;
262.5000;0.8246;1.5750;
262.8000;0.8246;1.5774;
263.1000;0.8238;1.5821;
263.4000;0.8303;1.5962;
263.7000;0.8262;1.5844;
264.0000;0.8254;1.5797;
264.3000;0.8238;1.5821;
264.6000;0.8246;1.5821;
264.9000;0.8230;1.5844;
265.2000;0.8221;1.5891;
265.5000;0.8181;1.5774;
265.8000;0.8230;1.5868;
266.1000;0.8230;1.5915;
266.4000;0.8230;1.5844;
266.7000;0.8238;1.5844;
267.0000;0.8254;1.5868;
267.3000;0.8254;1.5891;
267.6000;0.8311;1.6032;
267.9000;0.8246;1.5868;
268.2000;0.8238;1.5844;
268.5000;0.8246;1.5868;
268.8000;0.8246;1.5938;
269.1000;0.8254;1.5915;
269.4000;0.8311;1.5962;
269.7000;0.8238;1.5704;
270.0000;0.8246;1.5727;
270.3000;0.8319;1.5915;
270.6000;0.8230;1.5774;
270.9000;0.8246;1.5868;
271.2000;0.8246;1.5891;
271.5000;0.8246;1.5891;
271.8000;0.8262;1.5868;
272.1000;0.8254;1.5704;
272.4000;0.8197;1.5586;
272.7000;0.8230;1.5657;
273.0000;0.8303;1.5844;
273.3000;0.8213;1.5633;
273.6000;0.8254;1.5774;
273.9000;0.8254;1.5797;
274.2000;0.8246;1.5797;
274.5000;0.8262;1.5821;
274.8000;0.8254;1.5774;
275.1000;0.8205;1.5657;
275.4000;0.8238;1.5704;
275.7000;0.8246;1.5750;
276.0000;0.8246;1.5797;
276.3000;0.8238;1.5868;
276.6000;0.8230;1.5844;
276.9000;0.8116;1.5633;
277.2000;0.8270;1.6126;
277.5000;0.8262;1.6150;
277.8000;0.8246;1.6032;
278.1000;0.8238;1.6009;
278.4000;0.8238;1.6009;
278.7000;0.8327;1.6103;
279.0000;0.8319;1.6032;
279.3000;0.8254;1.5891;
279.6000;0.8197;1.5774;
279.9000;0.8238;1.5821;
280.2000;0.8132;1.5539;
280.5000;0.8230;1.5774;
280.8000;0.8295;1.5868;
281.1000;0.8238;1.5610;
281.4000;0.8221;1.5539;
281.7000;0.8238;1.5516;
282.0000;0.8238;1.5516;
282.3000;0.8230;1.5492;
282.6000;0.8230;1.5563;
282.9000;0.8238;1.5633;
283.2000;0.8230;1.5610;
283.5000;0.8238;1.5539;
283.8000;0.8230;1.5563;
284.1000;0.8254;1.5680;
284.4000;0.8262;1.5704;
284.7000;0.8230;1.5610;
285.0000;0.8230;1.5539;
285.3000;0.8197;1.5492;
285.6000;0.8132;1.5351;
285.9000;0.8238;1.5586;
286.2000;0.8221;1.5610;
286.5000;0.8246;1.5586;
286.8000;0.8246;1.5610;
287.1000;0.8230;1.5586;
287.4000;0.8221;1.5680;
287.7000;0.8262;1.5704;
288.0000;0.8221;1.5610;
288.3000;0.8262;1.5797;
288.6000;0.8278;1.5868;
288.9000;0.8254;1.5704;
289.2000;0.8262;1.5680;
289.5000;0.8246;1.5704;
289.8000;0.8287;1.5727;
290.1000;0.8173;1.5492;
290.4000;0.8213;1.5539;
290.7000;0.8238;1.5610;
291.0000;0.8173;1.5469;
291.3000;0.8246;1.5680;
291.6000;0.8230;1.5539;
291.9000;0.8246;1.5610;
292.2000;0.8230;1.5563;
292.5000;0.8238;1.5680;
292.8000;0.8230;1.5704;
293.1000;0.8230;1.5727;
293.4000;0.8205;1.5610;
293.7000;0.8238;1.5657;
294.0000;0.8254;1.5727;
294.3000;0.8230;1.5610;
294.6000;0.8238;1.5563;
294.9000;0.8221;1.5492;
295.2000;0.8246;1.5657;
295.5000;0.8246;1.5680;
295.8000;0.8230;1.5610;
296.1000;0.8230;1.5704;
296.4000;0.8230;1.5774;
296.7000;0.8238;1.5844;
297.0000;0.8230;1.5821;
297.3000;0.8221;1.5633;
297.6000;0.8230;1.5563;
297.9000;0.8213;1.5516;
298.2000;0.8246;1.5657;
298.5000;0.8335;1.5962;
298.8000;0.8246;1.5633;
299.1000;0.8230;1.5633;
299.4000;0.8230;1.5680;
299.7000;0.8230;1.5727;
300.0000;0.8221;1.5750;
300.3000;0.8221;1.5704;
300.6000;0.8254;1.5750;
300.9000;0.8246;1.5727;
301.2000;0.8246;1.5704;
301.5000;0.8230;1.5704;
301.8000;0.8230;1.5774;
302.1000;0.8230;1.5750;
302.4000;0.8238;1.5844;
302.7000;0.8238;1.5844;
303.0000;0.8238;1.5774;
303.3000;0.8246;1.5774;
303.6000;0.8189;1.5633;
303.9000;0.8230;1.5797;
304.2000;0.8230;1.5750;
304.5000;0.8221;1.5774;
304.8000;0.8221;1.5797;
305.1000;0.8238;1.5704;
305.4000;0.8230;1.5680;
305.7000;0.8205;1.5727;
306.0000;0.8246;1.5891;
306.3000;0.8221;1.5844;
306.6000;0.8221;1.5797;
306.9000;0.8230;1.5821;
307.2000;0.8230;1.5797;
307.5000;0.8230;1.5844;
307.8000;0.8238;1.5868;
308.1000;0.8246;1.5868;
308.4000;0.8254;1.5844;
308.7000;0.8221;1.5797;
309.0000;0.8238;1.5727;
309.3000;0.8230;1.5704;
309.6000;0.8213;1.5727;
309.9000;0.8238;1.5680;
310.2000;0.8238;1.5704;
310.5000;0.8246;1.5774;
310.8000;0.8238;1.5797;
311.1000;0.8262;1.5891;
311.4000;0.8238;1.5821;
311.7000;0.8254;1.5938;
312.0000;0.8254;1.6032;
312.3000;0.8164;1.5891;
312.6000;0.8238;1.5985;
312.9000;0.8238;1.5938;
313.2000;0.8230;1.5962;
313.5000;0.8238;1.6032;
313.8000;0.8238;1.5962;
314.1000;0.8230;1.5962;
314.4000;0.8213;1.5891;
314.7000;0.8230;1.5938;
315.0000;0.8238;1.5915;
315.3000;0.8230;1.5962;
315.6000;0.8221;1.5915;
315.9000;0.8238;1.5844;
316.2000;0.8246;1.5962;
316.5000;0.8238;1.5891;
316.8000;0.8238;1.5844;
317.1000;0.8221;1.5868;
317.4000;0.8205;1.5938;
317.7000;0.8246;1.6032;
318.0000;0.8262;1.5985;
318.3000;0.8238;1.5962;
318.6000;0.8238;1.5938;
318.9000;0.8238;1.5915;
319.2000;0.8230;1.5868;
319.5000;0.8213;1.5868;
319.8000;0.8221;1.5868;
320.1000;0.8221;1.5868;
320.4000;0.8278;1.6056;
320.7000;0.8230;1.5962;
321.0000;0.8230;1.5868;
321.3000;0.8189;1.5821;
321.6000;0.8238;1.5938;
321.9000;0.8238;1.5938;
322.2000;0.8238;1.5868;
322.5000;0.8221;1.5844;
322.8000;0.8246;1.5821;
323.1000;0.8230;1.5844;
323.4000;0.8230;1.5750;
323.7000;0.8238;1.5774;
324.0000;0.8238;1.5821;
324.3000;0.8238;1.5797;
324.6000;0.8246;1.5891;
324.9000;0.8230;1.5821;
325.2000;0.8230;1.5797;
325.5000;0.8213;1.5633;
325.8000;0.8238;1.5774;
326.1000;0.8230;1.5821;
326.4000;0.8238;1.5821;
326.7000;0.8246;1.5891;
327.0000;0.8213;1.5915;
327.3000;0.8230;1.5962;
327.6000;0.8221;1.5891;
327.9000;0.8238;1.5891;
328.2000;0.8238;1.5938;
328.5000;0.8238;1.5985;
328.8000;0.8221;1.6032;
329.1000;0.8238;1.6056;
329.4000;0.8213;1.5938;
329.7000;0.8221;1.5938;
330.0000;0.8213;1.6009;
330.3000;0.8221;1.6009;
330.6000;0.8287;1.6126;
330.9000;0.8221;1.6032;
331.2000;0.8221;1.6032;
331.5000;0.8230;1.5938;
331.8000;0.8238;1.5891;
332.1000;0.8246;1.5915;
332.4000;0.8221;1.5868;
332.7000;0.8221;1.5891;
333.0000;0.8344;1.6196;
333.3000;0.8246;1.5915;
333.6000;0.8238;1.5891;
333.9000;0.8230;1.5962;
334.2000;0.8230;1.5962;
334.5000;0.8221;1.5891;
334.8000;0.8221;1.5844;
335.1000;0.8213;1.5915;
335.4000;0.8230;1.5915;
335.7000;0.8230;1.5844;
336.0000;0.8116;1.5563;
336.3000;0.8221;1.5774;
336.6000;0.8221;1.5821;
336.9000;0.8221;1.5844;
337.2000;0.8213;1.5891;
337.5000;0.8213;1.5962;
337.8000;0.8238;1.6056;
338.1000;0.8295;1.6173;
338.4000;0.8230;1.6126;
338.7000;0.8213;1.6056;
339.0000;0.8230;1.6056;
339.3000;0.8238;1.6056;
339.6000;0.8246;1.6103;
339.9000;0.8230;1.6103;
340.2000;0.8230;1.5985;
340.5000;0.8238;1.5938;
340.8000;0.8205;1.5821;
341.1000;0.8230;1.5821;
341.4000;0.8197;1.5704;
341.7000;0.8230;1.5727;
342.0000;0.8230;1.5750;
342.3000;0.8189;1.5680;
342.6000;0.8230;1.5797;
342.9000;0.8213;1.5821;
343.2000;0.8230;1.5868;
343.5000;0.8278;1.5938;
343.8000;0.8230;1.5797;
344.1000;0.8205;1.5680;
344.4000;0.8230;1.5704;
344.7000;0.8230;1.5774;
345.0000;0.8230;1.5844;
345.3000;0.8221;1.5821;
345.6000;0.8230;1.5938;
345.9000;0.8246;1.5891;
346.2000;0.8238;1.5868;
346.5000;0.8230;1.5797;
346.8000;0.8197;1.5633;
347.1000;0.8221;1.5657;
347.4000;0.8230;1.5704;
347.7000;0.8238;1.5704;
348.0000;0.8246;1.5821;
348.3000;0.8221;1.5797;
348.6000;0.8221;1.5797;
348.9000;0.8246;1.5868;
349.2000;0.8221;1.5868;
349.5000;0.8246;1.5938;
349.8000;0.8238;1.5985;
350.1000;0.8213;1.5985;
350.4000;0.8246;1.6009;
350.7000;0.8221;1.6032;
351.0000;0.8319;1.6267;
351.3000;0.8238;1.6103;
351.6000;0.8303;1.6267;
351.9000;0.8221;1.6103;
352.2000;0.8221;1.6056;
352.5000;0.8230;1.6126;
352.8000;0.8230;1.6196;
353.1000;0.8230;1.6173;
353.4000;0.8221;1.6173;
353.7000;0.8213;1.6196;
354.0000;0.8221;1.6243;
354.3000;0.8213;1.6173;
354.6000;0.8205;1.6079;
354.9000;0.8221;1.6103;
355.2000;0.8213;1.6126;
355.5000;0.8221;1.6173;
355.8000;0.8230;1.6103;
356.1000;0.8221;1.6079;
356.4000;0.8246;1.6103;
356.7000;0.8230;1.6009;
357.0000;0.8213;1.5985;
357.3000;0.8238;1.6056;
357.6000;0.8197;1.5985;
357.9000;0.8221;1.6079;
358.2000;0.8173;1.5938;
358.5000;0.8335;1.6314;
358.8000;0.8221;1.6032;
359.1000;0.8189;1.6056;
359.4000;0.8156;1.6009;
359.7000;0.8132;1.5891;
360.0000;0.8270;1.6314;
360.3000;0.8238;1.6220;
360.6000;0.8197;1.6103;
360.9000;0.8213;1.6196;
361.2000;0.8189;1.6173;
361.5000;0.8205;1.6267;
361.8000;0.8221;1.6361;
362.1000;0.8230;1.6267;
362.4000;0.8278;1.6431;
362.7000;0.8238;1.6267;
363.0000;0.8221;1.6220;
363.3000;0.8238;1.6267;
363.6000;0.8213;1.6150;
363.9000;0.8197;1.6103;
364.2000;0.8221;1.6126;
364.5000;0.8221;1.6126;
364.8000;0.8205;1.5938;
365.1000;0.8197;1.5938;
365.4000;0.8221;1.5868;
365.7000;0.8230;1.5868;
366.0000;0.8230;1.5891;
366.3000;0.8254;1.6009;
366.6000;0.8221;1.5985;
366.9000;0.8368;1.6290;
367.2000;0.8221;1.5938;
367.5000;0.8181;1.5797;
367.8000;0.8221;1.5962;
368.1000;0.8213;1.5962;
368.4000;0.8230;1.6032;
368.7000;0.8213;1.5962;
369.0000;0.8213;1.5868;
369.3000;0.8221;1.6009;
369.6000;0.8254;1.6009;
369.9000;0.8230;1.6009;
370.2000;0.8221;1.6056;
370.5000;0.8221;1.6103;
370.8000;0.8246;1.6103;
371.1000;0.8246;1.6173;
371.4000;0.8246;1.6150;
371.7000;0.8262;1.6126;
372.0000;0.8221;1.6032;
372.3000;0.8230;1.6173;
372.6000;0.8189;1.6079;
372.9000;0.8230;1.6103;
373.2000;0.8238;1.6196;
373.5000;0.8230;1.6173;
373.8000;0.8311;1.6361;
374.1000;0.8221;1.6079;
374.4000;0.8213;1.6009;
374.7000;0.8327;1.6267;
375.0000;0.8221;1.6032;
375.3000;0.8213;1.6056;
375.6000;0.8344;1.6314;
375.9000;0.8238;1.6056;
376.2000;0.8230;1.6009;
376.5000;0.8189;1.5938;
376.8000;0.8230;1.6056;
377.1000;0.8254;1.6150;
377.4000;0.8319;1.6243;
377.7000;0.8221;1.6056;
378.0000;0.8205;1.6009;
378.3000;0.8230;1.6126;
378.6000;0.8238;1.6173;
378.9000;0.8221;1.6126;
379.2000;0.8221;1.6056;
379.5000;0.8205;1.5962;
379.8000;0.8230;1.6032;
380.1000;0.8205;1.6032;
380.4000;0.8221;1.6056;
380.7000;0.8246;1.6126;
381.0000;0.8319;1.6290;
381.3000;0.8246;1.6173;
381.6000;0.8230;1.6150;
381.9000;0.8221;1.6079;
382.2000;0.8197;1.5962;
382.5000;0.8270;1.6032;
382.8000;0.8230;1.5891;
383.1000;0.8173;1.5727;
383.4000;0.8132;1.5704;
383.7000;0.8238;1.6079;
384.0000;0.8238;1.6196;
384.3000;0.8221;1.6103;
384.6000;0.8213;1.6126;
384.9000;0.8238;1.6126;
385.2000;0.8254;1.6150;
385.5000;0.8311;1.6290;
385.8000;0.8238;1.6103;
386.1000;0.8213;1.6126;
386.4000;0.8221;1.6150;
386.7000;0.8230;1.6126;
387.0000;0.8230;1.6009;
387.3000;0.8238;1.6079;
387.6000;0.8213;1.6173;
387.9000;0.8213;1.6196;
388.2000;0.8221;1.6267;
388.5000;0.8213;1.6337;
388.8000;0.8221;1.6314;
389.1000;0.8238;1.6220;
389.4000;0.8221;1.6103;
389.7000;0.8238;1.6103;
390.0000;0.8238;1.6079;
390.3000;0.8213;1.6009;
390.6000;0.8221;1.6079;
390.9000;0.8221;1.6079;
391.2000;0.8230;1.6079;
391.5000;0.8278;1.6173;
391.8000;0.8221;1.6103;
392.1000;0.8230;1.6173;
392.4000;0.8197;1.6032;
392.7000;0.8238;1.6196;
393.0000;0.8246;1.6103;
393.3000;0.8230;1.6079;
393.6000;0.8230;1.6103;
393.9000;0.8238;1.6032;
394.2000;0.8197;1.5938;
394.5000;0.8230;1.6079;
394.8000;0.8213;1.6103;
395.1000;0.8230;1.6150;
395.4000;0.8221;1.6173;
395.7000;0.8246;1.6150;
396.0000;0.8205;1.6056;
396.3000;0.8238;1.6056;
396.6000;0.8221;1.5938;
396.9000;0.8221;1.5797;
397.2000;0.8221;1.5844;
397.5000;0.8230;1.5844;
397.8000;0.8262;1.5915;
398.1000;0.8221;1.5915;
398.4000;0.8221;1.5962;
398.7000;0.8205;1.6079;
399.0000;0.8213;1.6056;
399.3000;0.8205;1.6056;
399.6000;0.8270;1.6173;
399.9000;0.8221;1.5985;
400.2000;0.8213;1.5938;
400.5000;0.8335;1.6361;
400.8000;0.8246;1.6103;
401.1000;0.8197;1.5962;
401.4000;0.8262;1.6056;
401.7000;0.8213;1.5938;
402.0000;0.8221;1.5938;
402.3000;0.8213;1.6009;
402.6000;0.8213;1.6009;
402.9000;0.8205;1.5962;
403.2000;0.8213;1.6032;
403.5000;0.8189;1.6032;
403.8000;0.8221;1.6079;
404.1000;0.8246;1.6150;
404.4000;0.8230;1.6126;
404.7000;0.8230;1.6103;
405.0000;0.8238;1.6079;
405.3000;0.8230;1.6009;
405.6000;0.8221;1.6126;
405.9000;0.8230;1.6056;
406.2000;0.8213;1.6056;
406.5000;0.8221;1.6056;
406.8000;0.8221;1.5962;
407.1000;0.8197;1.5915;
407.4000;0.8181;1.5868;
407.7000;0.8205;1.6032;
408.0000;0.8213;1.6056;
408.3000;0.8230;1.6126;
408.6000;0.8189;1.6009;
408.9000;0.8221;1.6056;
409.2000;0.8344;1.6361;
409.5000;0.8230;1.6103;
409.8000;0.8221;1.6032;
410.1000;0.8221;1.6032;
410.4000;0.8230;1.6150;
410.7000;0.8238;1.6126;
411.0000;0.8221;1.6079;
411.3000;0.8221;1.6103;
411.6000;0.8197;1.6032;
411.9000;0.8205;1.6032;
412.2000;0.8230;1.6126;
412.5000;0.8205;1.6032;
412.8000;0.8213;1.6079;
413.1000;0.8213;1.6126;
413.4000;0.8213;1.6009;
413.7000;0.8246;1.6032;
414.0000;0.8221;1.6009;
414.3000;0.8181;1.5962;
414.6000;0.8230;1.6079;
414.9000;0.8221;1.6056;
415.2000;0.8213;1.6079;
415.5000;0.8213;1.6032;
415.8000;0.8213;1.6079;
416.1000;0.8205;1.6079;
416.4000;0.8205;1.6126;
416.7000;0.8205;1.6150;
417.0000;0.8213;1.6173;
417.3000;0.8164;1.5962;
417.6000;0.8205;1.6009;
417.9000;0.8205;1.5985;
418.2000;0.8197;1.5985;
418.5000;0.8213;1.6032;
418.8000;0.8221;1.6079;
419.1000;0.8221;1.6220;
419.4000;0.8221;1.6196;
419.7000;0.8238;1.6196;
420.0000;0.8221;1.6173;
420.3000;0.8270;1.6290;
420.6000;0.8230;1.6173;
420.9000;0.8238;1.6243;
421.2000;0.8238;1.6220;
421.5000;0.8238;1.6220;
421.8000;0.8205;1.6126;
422.1000;0.8246;1.6314;
422.4000;0.8116;1.6079;
422.7000;0.8205;1.6290;
423.0000;0.8197;1.6267;
423.3000;0.8148;1.6173;
423.6000;0.8156;1.6220;
423.9000;0.8205;1.6290;
424.2000;0.8213;1.6267;
424.5000;0.8238;1.6290;
424.8000;0.8230;1.6267;
425.1000;0.8270;1.6431;
425.4000;0.8124;1.6056;
425.7000;0.8230;1.6337;
426.0000;0.8230;1.6290;
426.3000;0.8246;1.6243;
426.6000;0.8221;1.6220;
426.9000;0.8213;1.6173;
427.2000;0.8230;1.6173;
427.5000;0.8230;1.6196;
427.8000;0.8213;1.6196;
428.1000;0.8221;1.6220;
428.4000;0.8205;1.6220;
428.7000;0.8205;1.6243;
429.0000;0.8221;1.6290;
429.3000;0.8230;1.6267;
429.6000;0.8205;1.6173;
429.9000;0.8230;1.6173;
430.2000;0.8221;1.6103;
430.5000;0.8213;1.6103;
430.8000;0.8213;1.6126;
431.1000;0.8230;1.6196;
431.4000;0.8221;1.6079;
431.7000;0.8221;1.6032;
432.0000;0.8205;1.6009;
432.3000;0.8230;1.6009;
432.6000;0.8213;1.6032;
432.9000;0.8181;1.6056;
433.2000;0.8213;1.6079;
433.5000;0.8205;1.6056;
433.8000;0.8230;1.6079;
434.1000;0.8213;1.6173;
434.4000;0.8197;1.6150;
434.7000;0.8205;1.6150;
435.0000;0.8213;1.6196;
435.3000;0.8221;1.6243;
435.6000;0.8221;1.6220;
435.9000;0.8221;1.6220;
436.2000;0.8230;1.6243;
436.5000;0.8221;1.6243;
436.8000;0.8230;1.6243;
437.1000;0.8230;1.6173;
437.4000;0.8189;1.6196;
437.7000;0.8230;1.6267;
438.0000;0.8213;1.6243;
438.3000;0.8221;1.6314;
438.6000;0.8197;1.6243;
438.9000;0.8213;1.6361;
439.2000;0.8213;1.6267;
439.5000;0.8205;1.6243;
439.8000;0.8221;1.6150;
440.1000;0.8213;1.6196;
440.4000;0.8205;1.6243;
440.7000;0.8230;1.6337;
441.0000;0.8221;1.6337;
441.3000;0.8205;1.6408;
441.6000;0.8213;1.6408;
441.9000;0.8221;1.6408;
442.2000;0.8181;1.6290;
442.5000;0.8213;1.6384;
442.8000;0.8213;1.6455;
443.1000;0.8205;1.6384;
443.4000;0.8221;1.6408;
443.7000;0.8221;1.6384;
444.0000;0.8319;1.6619;
444.3000;0.8213;1.6384;
444.6000;0.8254;1.6431;
444.9000;0.8213;1.6243;
445.2000;0.8221;1.6196;
445.5000;0.8221;1.6126;
445.8000;0.8189;1.6079;
446.1000;0.8181;1.6079;
446.4000;0.8221;1.6173;
446.7000;0.8230;1.6220;
447.0000;0.8221;1.6267;
447.3000;0.8197;1.6173;
447.6000;0.8262;1.6267;
447.9000;0.8221;1.6103;
448.2000;0.8205;1.6079;
448.5000;0.8221;1.6150;
448.8000;0.8205;1.6196;
449.1000;0.8173;1.6173;
449.4000;0.8213;1.6267;
449.7000;0.8213;1.6267;
450.0000;0.8221;1.6243;
450.3000;0.8221;1.6290;
450.6000;0.8238;1.6337;
450.9000;0.8230;1.6267;
451.2000;0.8230;1.6290;
451.5000;0.8213;1.6337;
451.8000;0.8213;1.6455;
452.1000;0.8213;1.6525;
452.4000;0.8221;1.6408;
452.7000;0.8213;1.6384;
453.0000;0.8230;1.6478;
453.3000;0.8221;1.6384;
453.6000;0.8140;1.6150;
453.9000;0.8221;1.6314;
454.2000;0.8295;1.6478;
454.5000;0.8205;1.6361;
454.8000;0.8205;1.6408;
455.1000;0.8213;1.6455;
455.4000;0.8213;1.6384;
455.7000;0.8230;1.6361;
456.0000;0.8303;1.6502;
456.3000;0.8213;1.6220;
456.6000;0.8213;1.6173;
456.9000;0.8205;1.6103;
457.2000;0.8344;1.6361;
457.5000;0.8213;1.6079;
457.8000;0.8197;1.6009;
458.1000;0.8213;1.6079;
458.4000;0.8213;1.6032;
458.7000;0.8221;1.6103;
459.0000;0.8189;1.6103;
459.3000;0.8181;1.6126;
459.6000;0.8213;1.6220;
459.9000;0.8213;1.6173;
460.2000;0.8230;1.6243;
460.5000;0.8189;1.6173;
460.8000;0.8213;1.6243;
461.1000;0.8213;1.6243;
461.4000;0.8213;1.6267;
461.7000;0.8205;1.6196;
462.0000;0.8221;1.6220;
462.3000;0.8287;1.6337;
462.6000;0.8213;1.6173;
462.9000;0.8254;1.6290;
463.2000;0.8205;1.6196;
463.5000;0.8221;1.6220;
463.8000;0.8213;1.6243;
464.1000;0.8205;1.6243;
464.4000;0.8221;1.6408;
464.7000;0.8230;1.6478;
465.0000;0.8230;1.6502;
465.3000;0.8221;1.6502;
465.6000;0.8213;1.6455;
465.9000;0.8164;1.6337;
466.2000;0.8221;1.6384;
466.5000;0.8230;1.6384;
466.8000;0.8213;1.6290;
467.1000;0.8189;1.6173;
467.4000;0.8213;1.6196;
467.7000;0.8270;1.6337;
468.0000;0.8230;1.6196;
468.3000;0.8205;1.6103;
468.6000;0.8221;1.6150;
468.9000;0.8230;1.6126;
469.2000;0.8197;1.5962;
469.5000;0.8238;1.6032;
469.8000;0.8173;1.5962;
470.1000;0.8205;1.6126;
470.4000;0.8221;1.6103;
470.7000;0.8205;1.6056;
471.0000;0.8221;1.6056;
471.3000;0.8156;1.5938;
471.6000;0.8221;1.6009;
471.9000;0.8205;1.5915;
472.2000;0.8197;1.5868;
472.5000;0.8213;1.5891;
472.8000;0.8221;1.5868;
473.1000;0.8189;1.5891;
473.4000;0.8213;1.6009;
473.7000;0.8197;1.6056;
474.0000;0.8213;1.6126;
474.3000;0.8205;1.6103;
474.6000;0.8173;1.6009;
474.9000;0.8173;1.5985;
475.2000;0.8238;1.6196;
475.5000;0.8246;1.6196;
475.8000;0.8205;1.6032;
476.1000;0.8230;1.5962;
476.4000;0.8238;1.6009;
476.7000;0.8189;1.5915;
477.0000;0.8213;1.6009;
477.3000;0.8189;1.5844;
477.6000;0.8213;1.5891;
477.9000;0.8213;1.5868;
478.2000;0.8189;1.5797;
478.5000;0.8156;1.5797;
478.8000;0.8221;1.5915;
479.1000;0.8287;1.6126;
479.4000;0.8213;1.5962;
479.7000;0.8205;1.6032;
480.0000;0.8213;1.6079;
480.3000;0.8230;1.6173;
480.6000;0.8197;1.6079;
480.9000;0.8189;1.6103;
481.2000;0.8173;1.5985;
481.5000;0.8181;1.5938;
481.8000;0.8221;1.6079;
482.1000;0.8213;1.6032;
482.4000;0.8197;1.5938;
482.7000;0.8197;1.5868;
483.0000;0.8238;1.5915;
483.3000;0.8213;1.5915;
483.6000;0.8197;1.5938;
483.9000;0.8213;1.6032;
484.2000;0.8221;1.6103;
484.5000;0.8181;1.6103;
484.8000;0.8197;1.6056;
485.1000;0.8230;1.6032;
485.4000;0.8221;1.6079;
485.7000;0.8213;1.6079;
486.0000;0.8221;1.6126;
486.3000;0.8197;1.6150;
486.6000;0.8213;1.6126;
486.9000;0.8205;1.6032;
487.2000;0.8221;1.5962;
487.5000;0.8189;1.5891;
487.8000;0.8189;1.5750;
488.1000;0.8189;1.5680;
488.4000;0.8205;1.5797;
488.7000;0.8205;1.5750;
489.0000;0.8181;1.5657;
489.3000;0.8197;1.5797;
489.6000;0.8230;1.5797;
489.9000;0.8221;1.5704;
490.2000;0.8213;1.5821;
490.5000;0.8213;1.5797;
490.8000;0.8221;1.5774;
491.1000;0.8189;1.5750;
491.4000;0.8189;1.5844;
491.7000;0.8205;1.5868;
492.0000;0.8197;1.5844;
492.3000;0.8205;1.5868;
492.6000;0.8148;1.5750;
492.9000;0.8173;1.5891;
493.2000;0.8173;1.5868;
493.5000;0.8189;1.5915;
493.8000;0.8173;1.5891;
494.1000;0.8311;1.6220;
494.4000;0.8189;1.5868;
494.7000;0.8213;1.5844;
495.0000;0.8173;1.5680;
495.3000;0.8189;1.5727;
495.6000;0.8230;1.5797;
495.9000;0.8270;1.5891;
496.2000;0.8197;1.5774;
496.5000;0.8181;1.5797;
496.8000;0.8205;1.5844;
497.1000;0.8246;1.6056;
497.4000;0.8173;1.5844;
497.7000;0.8205;1.5915;
498.0000;0.8173;1.5774;
498.3000;0.8278;1.6009;
498.6000;0.8173;1.5797;
498.9000;0.8213;1.5891;
499.2000;0.8181;1.5915;
499.5000;0.8221;1.5985;
499.8000;0.8205;1.5891;
500.1000;0.8197;1.5891;
500.4000;0.8107;1.5610;
500.7000;0.8197;1.5750;
501.0000;0.8213;1.5680;
501.3000;0.8173;1.5704;
501.6000;0.8197;1.5727;
501.9000;0.8189;1.5774;
502.2000;0.8156;1.5797;
502.5000;0.8213;1.5985;
502.8000;0.8213;1.6009;
503.1000;0.8270;1.6126;
503.4000;0.8213;1.6009;
503.7000;0.8230;1.6009;
504.0000;0.8181;1.5938;
504.3000;0.8205;1.6056;
504.6000;0.8205;1.5985;
504.9000;0.8205;1.5985;
505.2000;0.8189;1.5938;
505.5000;0.8189;1.5985;
505.8000;0.8197;1.5868;
506.1000;0.8189;1.5704;
506.4000;0.8189;1.5727;
506.7000;0.8189;1.5774;
507.0000;0.8189;1.5727;
507.3000;0.8197;1.5821;
507.6000;0.8213;1.5891;
507.9000;0.8213;1.5868;
508.2000;0.8213;1.5750;
508.5000;0.8213;1.5821;
508.8000;0.8213;1.5891;
509.1000;0.8213;1.5915;
509.4000;0.8189;1.5938;
509.7000;0.8197;1.5985;
510.0000;0.8189;1.6009;
510.3000;0.8197;1.6032;
510.6000;0.8205;1.6126;
510.9000;0.8205;1.6056;
511.2000;0.8205;1.5938;
511.5000;0.8164;1.5915;
511.8000;0.8197;1.6009;
512.1000;0.8189;1.5985;
512.4000;0.8205;1.5915;
512.7000;0.8213;1.5938;
513.0000;0.8181;1.5844;
513.3000;0.8189;1.5985;
513.6000;0.8189;1.6009;
513.9000;0.8173;1.5985;
514.2000;0.8230;1.6103;
514.5000;0.8164;1.5985;
514.8000;0.8116;1.5868;
515.1000;0.8189;1.6009;
515.4000;0.8319;1.6290;
515.7000;0.8164;1.5844;
516.0000;0.8221;1.5985;
516.3000;0.8213;1.5962;
516.6000;0.8148;1.5821;
516.9000;0.8197;1.5985;
517.2000;0.8164;1.5915;
517.5000;0.8173;1.5938;
517.8000;0.8213;1.5938;
518.1000;0.8181;1.5797;
518.4000;0.8197;1.5797;
518.7000;0.8221;1.5938;
519.0000;0.8221;1.5868;
519.3000;0.8205;1.5868;
519.6000;0.8197;1.5750;
519.9000;0.8205;1.5821;
520.2000;0.8197;1.5915;
520.5000;0.8213;1.5985;
520.8000;0.8205;1.6009;
521.1000;0.8189;1.5891;
521.4000;0.8205;1.5821;
521.7000;0.8205;1.5844;
522.0000;0.8221;1.5915;
522.3000;0.8197;1.5962;
522.6000;0.8197;1.5962;
522.9000;0.8197;1.6056;
523.2000;0.8221;1.6056;
523.5000;0.8213;1.6079;
523.8000;0.8197;1.5938;
524.1000;0.8205;1.5868;
524.4000;0.8221;1.5750;
524.7000;0.8221;1.5797;
525.0000;0.8213;1.5774;
525.3000;0.8197;1.5821;
525.6000;0.8213;1.5938;
525.9000;0.8205;1.5962;
526.2000;0.8205;1.5915;
526.5000;0.8189;1.5868;
526.8000;0.8205;1.5891;
527.1000;0.8221;1.6056;
527.4000;0.8197;1.6056;
527.7000;0.8189;1.6009;
528.0000;0.8189;1.6126;
528.3000;0.8213;1.6196;
528.6000;0.8213;1.6079;
528.9000;0.8197;1.5962;
529.2000;0.8181;1.5915;
529.5000;0.8230;1.6056;
529.8000;0.8197;1.6056;
530.1000;0.8205;1.6103;
530.4000;0.8189;1.6079;
530.7000;0.8189;1.6103;
531.0000;0.8205;1.6056;
531.3000;0.8156;1.5915;
531.6000;0.8197;1.6032;
531.9000;0.8189;1.6126;
532.2000;0.8197;1.5985;
532.5000;0.8181;1.5938;
532.8000;0.8173;1.5915;
533.1000;0.8189;1.5962;
533.4000;0.8238;1.6056;
533.7000;0.8205;1.6032;
534.0000;0.8213;1.6126;
534.3000;0.8197;1.6079;
534.6000;0.8213;1.6056;
534.9000;0.8205;1.5962;
535.2000;0.8189;1.5891;
535.5000;0.8262;1.6009;
535.8000;0.8189;1.5844;
536.1000;0.8205;1.5844;
536.4000;0.8221;1.5891;
536.7000;0.8173;1.5868;
537.0000;0.8205;1.5891;
537.3000;0.8189;1.5891;
537.6000;0.8197;1.5891;
537.9000;0.8197;1.5844;
538.2000;0.8181;1.5704;
538.5000;0.8230;1.5797;
538.8000;0.8197;1.5774;
539.1000;0.8189;1.5821;
539.4000;0.8205;1.5891;
539.7000;0.8213;1.5891;
540.0000;0.8213;1.6032;
540.3000;0.8230;1.6126;
540.6000;0.8221;1.6150;
540.9000;0.8246;1.6267;
541.2000;0.8205;1.6056;
541.5000;0.8197;1.6056;
541.8000;0.8197;1.6079;
542.1000;0.8173;1.5962;
542.4000;0.8197;1.5962;
542.7000;0.8197;1.6009;
543.0000;0.8189;1.5985;
543.3000;0.8189;1.5938;
543.6000;0.8189;1.5891;
543.9000;0.8189;1.5821;
544.2000;0.8205;1.5844;
544.5000;0.8181;1.5821;
544.8000;0.8189;1.5821;
545.1000;0.8173;1.5774;
545.4000;0.8189;1.5821;
545.7000;0.8181;1.5844;
546.0000;0.8189;1.5868;
546.3000;0.8181;1.5938;
546.6000;0.8197;1.5891;
546.9000;0.8181;1.5727;
547.2000;0.8189;1.5727;
547.5000;0.8205;1.5680;
547.8000;0.8197;1.5797;
548.1000;0.8156;1.5657;
548.4000;0.8205;1.5821;
548.7000;0.8189;1.5844;
549.0000;0.8189;1.5868;
549.3000;0.8262;1.6079;
549.6000;0.8181;1.5938;
549.9000;0.8197;1.6079;
550.2000;0.8221;1.6032;
550.5000;0.8205;1.5985;
550.8000;0.8205;1.5985;
551.1000;0.8197;1.5962;
551.4000;0.8230;1.5985;
551.7000;0.8205;1.5938;
552.0000;0.8205;1.5938;
552.3000;0.8205;1.5868;
552.6000;0.8213;1.5915;
552.9000;0.8205;1.5915;
553.2000;0.8181;1.5962;
553.5000;0.8189;1.6032;
553.8000;0.8197;1.6126;
554.1000;0.8205;1.6056;
554.4000;0.8335;1.6384;
554.7000;0.8181;1.6009;
555.0000;0.8164;1.5985;
555.3000;0.8148;1.5915;
555.6000;0.8205;1.6126;
555.9000;0.8181;1.6079;
556.2000;0.8189;1.6126;
556.5000;0.8083;1.5962;
556.8000;0.8205;1.6196;
557.1000;0.8205;1.6196;
557.4000;0.8213;1.6290;
557.7000;0.8205;1.6150;
558.0000;0.8213;1.6173;
558.3000;0.8197;1.6126;
558.6000;0.8181;1.6126;
558.9000;0.8189;1.6196;
559.2000;0.8181;1.6243;
559.5000;0.8205;1.6290;
559.8000;0.8173;1.6267;
560.1000;0.8164;1.6267;
560.4000;0.8173;1.6290;
560.7000;0.8173;1.6290;
561.0000;0.8173;1.6290;
561.3000;0.8197;1.6243;
561.6000;0.8189;1.6314;
561.9000;0.8197;1.6290;
562.2000;0.8205;1.6196;
562.5000;0.8197;1.6126;
562.8000;0.8189;1.6103;
563.1000;0.8148;1.6103;
563.4000;0.8189;1.6243;
563.7000;0.8189;1.6220;
564.0000;0.8197;1.6150;
564.3000;0.8189;1.6150;
564.6000;0.8189;1.6173;
564.9000;0.8189;1.6267;
565.2000;0.8156;1.6126;
565.5000;0.8197;1.6196;
565.8000;0.8197;1.6267;
566.1000;0.8327;1.6596;
566.4000;0.8181;1.6220;
566.7000;0.8197;1.6314;
567.0000;0.8197;1.6337;
567.3000;0.8181;1.6314;
567.6000;0.8205;1.6290;
567.9000;0.8197;1.6337;
568.2000;0.8181;1.6408;
568.5000;0.8197;1.6431;
568.8000;0.8197;1.6314;
569.1000;0.8189;1.6361;
569.4000;0.8213;1.6431;
569.7000;0.8189;1.6267;
570.0000;0.8156;1.6079;
570.3000;0.8197;1.6150;
570.6000;0.8181;1.6173;
570.9000;0.8189;1.6267;
571.2000;0.8197;1.6243;
571.5000;0.8181;1.6150;
571.8000;0.8189;1.6243;
572.1000;0.8189;1.6196;
572.4000;0.8205;1.6243;
572.7000;0.8197;1.6173;
573.0000;0.8197;1.6243;
573.3000;0.8213;1.6361;
573.6000;0.8246;1.6408;
573.9000;0.8213;1.6314;
574.2000;0.8205;1.6314;
574.5000;0.8197;1.6243;
574.8000;0.8221;1.6314;
575.1000;0.8205;1.6220;
575.4000;0.8205;1.6337;
575.7000;0.8189;1.6220;
576.0000;0.8197;1.6196;
576.3000;0.8189;1.6196;
576.6000;0.8181;1.6150;
576.9000;0.8164;1.6173;
577.2000;0.8189;1.6220;
577.5000;0.8197;1.6267;
577.8000;0.8173;1.6243;
578.1000;0.8197;1.6314;
578.4000;0.8173;1.6243;
578.7000;0.8148;1.6126;
579.0000;0.8205;1.6243;
579.3000;0.8189;1.6196;
579.6000;0.8189;1.6220;
579.9000;0.8189;1.6243;
580.2000;0.8197;1.6150;
580.5000;0.8132;1.6126;
580.8000;0.8189;1.6173;
581.1000;0.8197;1.6150;
581.4000;0.8197;1.6150;
581.7000;0.8173;1.6103;
582.0000;0.8205;1.6196;
582.3000;0.8213;1.6267;
582.6000;0.8189;1.6243;
582.9000;0.8205;1.6243;
583.2000;0.8197;1.6220;
583.5000;0.8205;1.6173;
583.8000;0.8287;1.6384;
584.1000;0.8197;1.6126;
584.4000;0.8189;1.6126;
584.7000;0.8189;1.6079;
585.0000;0.8156;1.6009;
585.3000;0.8197;1.6150;
585.6000;0.8189;1.6126;
585.9000;0.8197;1.6126;
586.2000;0.8246;1.6314;
586.5000;0.8189;1.6150;
586.8000;0.8181;1.5962;
587.1000;0.8181;1.5938;
587.4000;0.8213;1.6126;
587.7000;0.8205;1.6126;
588.0000;0.8197;1.6150;
588.3000;0.8197;1.6196;
588.6000;0.8181;1.6150;
588.9000;0.8213;1.6267;
589.2000;0.8197;1.6220;
589.5000;0.8205;1.6220;
589.8000;0.8213;1.6243;
590.1000;0.8213;1.6173;
590.4000;0.8213;1.6173;
590.7000;0.8189;1.6056;
591.0000;0.8189;1.6056;
591.3000;0.8181;1.6079;
591.6000;0.8189;1.6173;
591.9000;0.8189;1.6079;
592.2000;0.8213;1.6103;
592.5000;0.8189;1.6056;
592.8000;0.8173;1.6056;
593.1000;0.8221;1.6150;
593.4000;0.8197;1.6173;
593.7000;0.8173;1.6173;
594.0000;0.8107;1.6009;
594.3000;0.8230;1.6314;
594.6000;0.8181;1.6173;
594.9000;0.8164;1.6103;
595.2000;0.8189;1.6173;
595.5000;0.8189;1.6220;
595.8000;0.8221;1.6314;
596.1000;0.8164;1.6126;
596.4000;0.8173;1.6126;
596.7000;0.8197;1.6126;
597.0000;0.8189;1.6103;
597.3000;0.8124;1.5891;
597.6000;0.8181;1.5985;
597.9000;0.8181;1.5985;
598.2000;0.8173;1.6009;
598.5000;0.8164;1.5938;
598.8000;0.8189;1.6009;
599.1000;0.8189;1.6009;
599.4000;0.8205;1.6126;
599.7000;0.8205;1.6126;
600.0000;0.8189;1.6220;
600.3000;0.8181;1.6150;
600.6000;0.8197;1.6079;
600.9000;0.8156;1.5868;
601.2000;0.8116;1.5680;
601.5000;0.8083;1.5516;
601.8000;0.8034;1.5328;
602.1000;0.7945;1.5070;
602.4000;0.7896;1.4929;
602.7000;0.7839;1.4741;
603.0000;0.7790;1.4553;
603.3000;0.7749;1.4413;
603.6000;0.7692;1.4342;
603.9000;0.7660;1.4272;
604.2000;0.7603;1.4178;
604.5000;0.7538;1.4107;
604.8000;0.7521;1.4013;
605.1000;0.7473;1.3943;
605.4000;0.7554;1.4154;
605.7000;0.7416;1.3896;
606.0000;0.7350;1.3755;
606.3000;0.7326;1.3661;
606.6000;0.7285;1.3614;
606.9000;0.7236;1.3567;
607.2000;0.7196;1.3544;
607.5000;0.7163;1.3403;
607.8000;0.7123;1.3309;
608.1000;0.7114;1.3380;
608.4000;0.7049;1.3239;
608.7000;0.7066;1.3262;
609.0000;0.7033;1.3168;
609.3000;0.7000;1.3145;
609.6000;0.6960;1.3121;
609.9000;0.6935;1.3168;
610.2000;0.6927;1.3168;
610.5000;0.6919;1.3239;
610.8000;0.6878;1.3145;
611.1000;0.6797;1.3075;
611.4000;0.6821;1.3239;
611.7000;0.6797;1.3215;
612.0000;0.6772;1.3239;
612.3000;0.6756;1.3286;
612.6000;0.6732;1.3215;
612.9000;0.6724;1.3192;
613.2000;0.6659;1.3121;
613.5000;0.6659;1.3239;
613.8000;0.6683;1.3333;
614.1000;0.6602;1.3168;
614.4000;0.6585;1.3192;
614.7000;0.6585;1.3168;
615.0000;0.6528;1.3004;
615.3000;0.6528;1.3075;
615.6000;0.6520;1.3098;
615.9000;0.6496;1.3098;
616.2000;0.6545;1.3309;
616.5000;0.6463;1.3262;
616.8000;0.6447;1.3286;
617.1000;0.6439;1.3286;
617.4000;0.6414;1.3192;
617.7000;0.6406;1.3192;
618.0000;0.6390;1.3215;
618.3000;0.6406;1.3215;
618.6000;0.6341;1.3028;
618.9000;0.6325;1.2981;
619.2000;0.6300;1.2981;
619.5000;0.6284;1.2910;
619.8000;0.6276;1.2957;
620.1000;0.6268;1.3028;
620.4000;0.6309;1.3215;
620.7000;0.6211;1.3004;
621.0000;0.6227;1.2957;
621.3000;0.6211;1.2934;
621.6000;0.6211;1.2887;
621.9000;0.6186;1.2910;
622.2000;0.6162;1.2887;
622.5000;0.6170;1.2863;
622.8000;0.6129;1.2793;
623.1000;0.6121;1.2816;
623.4000;0.6105;1.2840;
623.7000;0.6097;1.2910;
624.0000;0.6072;1.2910;
624.3000;0.6048;1.2793;
624.6000;0.6056;1.2816;
624.9000;0.6064;1.2840;
625.2000;0.6040;1.2840;
625.5000;0.6032;1.2816;
625.8000;0.6032;1.2840;
626.1000;0.6007;1.2722;
626.4000;0.5983;1.2675;
626.7000;0.5983;1.2769;
627.0000;0.5991;1.2793;
627.3000;0.5942;1.2699;
627.6000;0.5967;1.2863;
627.9000;0.5958;1.2746;
628.2000;0.5926;1.2699;
628.5000;0.5902;1.2699;
628.8000;0.5910;1.2605;
629.1000;0.5869;1.2629;
629.4000;0.5885;1.2793;
629.7000;0.5869;1.2746;
630.0000;0.5861;1.2722;
630.3000;0.5869;1.2816;
630.6000;0.5861;1.2746;
630.9000;0.5836;1.2652;
631.2000;0.5739;1.2441;
631.5000;0.5828;1.2629;
631.8000;0.5812;1.2582;
632.1000;0.5845;1.2699;
632.4000;0.5788;1.2582;
632.7000;0.5804;1.2699;
633.0000;0.5788;1.2722;
633.3000;0.5771;1.2722;
633.6000;0.5763;1.2746;
633.9000;0.5755;1.2699;
634.2000;0.5714;1.2511;
634.5000;0.5706;1.2417;
634.8000;0.5706;1.2464;
635.1000;0.5714;1.2488;
635.4000;0.5633;1.2323;
635.7000;0.5714;1.2558;
636.0000;0.5674;1.2417;
636.3000;0.5698;1.2464;
636.6000;0.5722;1.2511;
636.9000;0.5682;1.2441;
637.2000;0.5674;1.2417;
637.5000;0.5674;1.2370;
637.8000;0.5674;1.2347;
638.1000;0.5674;1.2417;
638.4000;0.5665;1.2417;
638.7000;0.5633;1.2441;
639.0000;0.5641;1.2535;
639.3000;0.5592;1.2417;
639.6000;0.5608;1.2511;
639.9000;0.5608;1.2629;
640.2000;0.5600;1.2558;
640.5000;0.5584;1.2558;
640.8000;0.5592;1.2582;
641.1000;0.5576;1.2605;
641.4000;0.5584;1.2652;
641.7000;0.5568;1.2629;
642.0000;0.5568;1.2605;
642.3000;0.5551;1.2652;
642.6000;0.5568;1.2558;
642.9000;0.5535;1.2652;
643.2000;0.5649;1.2840;
643.5000;0.5543;1.2675;
643.8000;0.5527;1.2699;
644.1000;0.5527;1.2605;
644.4000;0.5511;1.2582;
644.7000;0.5511;1.2488;
645.0000;0.5495;1.2464;
645.3000;0.5495;1.2464;
645.6000;0.5551;1.2605;
645.9000;0.5486;1.2535;
646.2000;0.5495;1.2488;
646.5000;0.5478;1.2394;
646.8000;0.5478;1.2394;
647.1000;0.5470;1.2370;
647.4000;0.5470;1.2323;
647.7000;0.5429;1.2253;
648.0000;0.5462;1.2464;
648.3000;0.5511;1.2629;
648.6000;0.5446;1.2464;
648.9000;0.5446;1.2535;
649.2000;0.5446;1.2558;
649.5000;0.5446;1.2582;
649.8000;0.5454;1.2558;
650.1000;0.5438;1.2558;
650.4000;0.5405;1.2464;
650.7000;0.5413;1.2417;
651.0000;0.5405;1.2417;
651.3000;0.5372;1.2370;
651.6000;0.5397;1.2511;
651.9000;0.5397;1.2464;
652.2000;0.5405;1.2441;
652.5000;0.5381;1.2464;
652.8000;0.5389;1.2464;
653.1000;0.5495;1.2722;
653.4000;0.5421;1.2605;
653.7000;0.5389;1.2535;
654.0000;0.5397;1.2511;
654.3000;0.5381;1.2464;
654.6000;0.5372;1.2511;
654.9000;0.5372;1.2464;
655.2000;0.5356;1.2464;
655.5000;0.5372;1.2488;
655.8000;0.5364;1.2558;
656.1000;0.5381;1.2652;
656.4000;0.5356;1.2511;
656.7000;0.5356;1.2394;
657.0000;0.5364;1.2441;
657.3000;0.5356;1.2511;
657.6000;0.5332;1.2629;
657.9000;0.5299;1.2582;
658.2000;0.5332;1.2675;
658.5000;0.5340;1.2675;
658.8000;0.5356;1.2699;
659.1000;0.5348;1.2746;
659.4000;0.5340;1.2722;
659.7000;0.5307;1.2629;
660.0000;0.5307;1.2582;
660.3000;0.5315;1.2582;
660.6000;0.5299;1.2582;
660.9000;0.5307;1.2699;
661.2000;0.5291;1.2652;
661.5000;0.5299;1.2535;
661.8000;0.5234;1.2394;
662.1000;0.5291;1.2558;
662.4000;0.5299;1.2535;
662.7000;0.5324;1.2535;
663.0000;0.5275;1.2441;
663.3000;0.5291;1.2535;
663.6000;0.5283;1.2535;
663.9000;0.5267;1.2488;
664.2000;0.5340;1.2652;
664.5000;0.5234;1.2441;
664.8000;0.5267;1.2488;
665.1000;0.5258;1.2464;
665.4000;0.5250;1.2464;
665.7000;0.5258;1.2464;
666.0000;0.5250;1.2441;
666.3000;0.5250;1.2417;
666.6000;0.5234;1.2441;
666.9000;0.5242;1.2441;
667.2000;0.5234;1.2417;
667.5000;0.5193;1.2347;
667.8000;0.5226;1.2464;
668.1000;0.5242;1.2558;
668.4000;0.5226;1.2582;
668.7000;0.5218;1.2558;
669.0000;0.5226;1.2629;
669.3000;0.5226;1.2582;
669.6000;0.5210;1.2558;
669.9000;0.5226;1.2605;
670.2000;0.5226;1.2558;
670.5000;0.5201;1.2558;
670.8000;0.5201;1.2582;
671.1000;0.5201;1.2629;
671.4000;0.5144;1.2629;
671.7000;0.5201;1.2699;
672.0000;0.5210;1.2746;
672.3000;0.5226;1.2722;
672.6000;0.5177;1.2558;
672.9000;0.5201;1.2582;
673.2000;0.5210;1.2605;
673.5000;0.5201;1.2629;
673.8000;0.5177;1.2605;
674.1000;0.5161;1.2558;
674.4000;0.5201;1.2722;
674.7000;0.5177;1.2582;
675.0000;0.5185;1.2558;
675.3000;0.5226;1.2746;
675.6000;0.5185;1.2652;
675.9000;0.5161;1.2652;
676.2000;0.5161;1.2629;
676.5000;0.5177;1.2699;
676.8000;0.5177;1.2793;
677.1000;0.5161;1.2769;
677.4000;0.5136;1.2652;
677.7000;0.5177;1.2675;
678.0000;0.5161;1.2675;
678.3000;0.5177;1.2722;
678.6000;0.5144;1.2652;
678.9000;0.5144;1.2675;
679.2000;0.5161;1.2722;
679.5000;0.5161;1.2699;
679.8000;0.5144;1.2535;
680.1000;0.5144;1.2605;
680.4000;0.5169;1.2722;
680.7000;0.5144;1.2675;
681.0000;0.5153;1.2675;
681.3000;0.5144;1.2605;
681.6000;0.5136;1.2535;
681.9000;0.5144;1.2652;
682.2000;0.5153;1.2582;
682.5000;0.5136;1.2511;
682.8000;0.5120;1.2464;
683.1000;0.5153;1.2511;
683.4000;0.5120;1.2511;
683.7000;0.5112;1.2464;
684.0000;0.5112;1.2511;
684.3000;0.5128;1.2511;
684.6000;0.5120;1.2629;
684.9000;0.5144;1.2746;
685.2000;0.5031;1.2441;
685.5000;0.5104;1.2629;
685.8000;0.5112;1.2699;
686.1000;0.5144;1.2769;
686.4000;0.5112;1.2699;
686.7000;0.5120;1.2675;
687.0000;0.5055;1.2488;
687.3000;0.5120;1.2675;
687.6000;0.5096;1.2605;
687.9000;0.5104;1.2629;
688.2000;0.5112;1.2605;
688.5000;0.5104;1.2558;
688.8000;0.5088;1.2511;
689.1000;0.5071;1.2488;
689.4000;0.5104;1.2535;
689.7000;0.5120;1.2558;
690.0000;0.5079;1.2488;
690.3000;0.5153;1.2769;
690.6000;0.5088;1.2629;
690.9000;0.5096;1.2652;
691.2000;0.5177;1.2863;
691.5000;0.5096;1.2652;
691.8000;0.5079;1.2652;
692.1000;0.5096;1.2746;
692.4000;0.5079;1.2793;
692.7000;0.5088;1.2722;
693.0000;0.5079;1.2699;
693.3000;0.5088;1.2605;
693.6000;0.5088;1.2558;
693.9000;0.5088;1.2652;
694.2000;0.5088;1.2722;
694.5000;0.5079;1.2746;
694.8000;0.5071;1.2699;
695.1000;0.5071;1.2699;
695.4000;0.5055;1.2605;
695.7000;0.5071;1.2652;
696.0000;0.5071;1.2652;
696.3000;0.5047;1.2582;
696.6000;0.5096;1.2558;
696.9000;0.5071;1.2582;
697.2000;0.5031;1.2511;
697.5000;0.5079;1.2629;
697.8000;0.5071;1.2558;
698.1000;0.5055;1.2488;
698.4000;0.5055;1.2558;
698.7000;0.5063;1.2675;
699.0000;0.5079;1.2722;
699.3000;0.5055;1.2535;
699.6000;0.5055;1.2582;
699.9000;0.5063;1.2629;
700.2000;0.5096;1.2746;
700.5000;0.5047;1.2675;
700.8000;0.5047;1.2652;
701.1000;0.5063;1.2629;
701.4000;0.4925;1.2276;
701.7000;0.5039;1.2582;
702.0000;0.5006;1.2605;
702.3000;0.5055;1.2722;
702.6000;0.5047;1.2488;
702.9000;0.5055;1.2558;
703.2000;0.5055;1.2699;
703.5000;0.5055;1.2699;
703.8000;0.5014;1.2699;
704.1000;0.5055;1.2722;
704.4000;0.5031;1.2675;
704.7000;0.5031;1.2675;
705.0000;0.5047;1.2629;
705.3000;0.5047;1.2582;
705.6000;0.5055;1.2699;
705.9000;0.5047;1.2722;
706.2000;0.5047;1.2652;
706.5000;0.5022;1.2652;
706.8000;0.5047;1.2652;
707.1000;0.4998;1.2558;
707.4000;0.5161;1.2981;
707.7000;0.5055;1.2675;
708.0000;0.5006;1.2558;
708.3000;0.5014;1.2582;
708.6000;0.5031;1.2675;
708.9000;0.5039;1.2746;
709.2000;0.5031;1.2816;
709.5000;0.5039;1.2793;
709.8000;0.5022;1.2816;
710.1000;0.5031;1.2816;
710.4000;0.5039;1.2699;
710.7000;0.5014;1.2722;
711.0000;0.4925;1.2535;
711.3000;0.5014;1.2652;
711.6000;0.5022;1.2722;
711.9000;0.5120;1.2934;
712.2000;0.5031;1.2722;
712.5000;0.5039;1.2675;
712.8000;0.5031;1.2629;
713.1000;0.5014;1.2675;
713.4000;0.5006;1.2675;
713.7000;0.4998;1.2582;
714.0000;0.5014;1.2558;
714.3000;0.5047;1.2722;
714.6000;0.5006;1.2582;
714.9000;0.5014;1.2558;
715.2000;0.5014;1.2582;
715.5000;0.5014;1.2629;
715.8000;0.5014;1.2652;
716.1000;0.5014;1.2722;
716.4000;0.5022;1.2746;
716.7000;0.5014;1.2746;
717.0000;0.5031;1.2722;
717.3000;0.5014;1.2629;
717.6000;0.4998;1.2582;
717.9000;0.5031;1.2675;
718.2000;0.5014;1.2629;
718.5000;0.4990;1.2652;
718.8000;0.5022;1.2675;
719.1000;0.5022;1.2675;
719.4000;0.5006;1.2675;
719.7000;0.4974;1.2511;
720.0000;0.4990;1.2652;
720.3000;0.4990;1.2605;
720.6000;0.5006;1.2722;
720.9000;0.4998;1.2793;
721.2000;0.4965;1.2840;
721.5000;0.4990;1.2887;
721.8000;0.4998;1.2793;
722.1000;0.5006;1.2722;
722.4000;0.4974;1.2675;
722.7000;0.5096;1.3051;
723.0000;0.4982;1.2816;
723.3000;0.4998;1.2769;
723.6000;0.4990;1.2652;
723.9000;0.4974;1.2675;
724.2000;0.4974;1.2699;
724.5000;0.5006;1.2793;
724.8000;0.4982;1.2793;
725.1000;0.4998;1.2699;
725.4000;0.4998;1.2769;
725.7000;0.4998;1.2793;
726.0000;0.4949;1.2652;
726.3000;0.4982;1.2746;
726.6000;0.4957;1.2769;
726.9000;0.4998;1.2722;
727.2000;0.4998;1.2652;
727.5000;0.5071;1.2840;
727.8000;0.4982;1.2582;
728.1000;0.4982;1.2582;
728.4000;0.5039;1.2746;
728.7000;0.4990;1.2675;
729.0000;0.4917;1.2394;
729.3000;0.5006;1.2629;
729.6000;0.4990;1.2675;
729.9000;0.4982;1.2722;
730.2000;0.5006;1.2746;
730.5000;0.5031;1.2863;
730.8000;0.4998;1.2793;
731.1000;0.4998;1.2816;
731.4000;0.4982;1.2793;
731.7000;0.4990;1.2722;
732.0000;0.5006;1.2840;
732.3000;0.4990;1.2793;
732.6000;0.4965;1.2863;
732.9000;0.4974;1.2840;
733.2000;0.4957;1.2746;
733.5000;0.4982;1.2840;
733.8000;0.4974;1.2769;
734.1000;0.4990;1.2746;
734.4000;0.4982;1.2699;
734.7000;0.4998;1.2887;
735.0000;0.4990;1.2934;
735.3000;0.4965;1.2863;
735.6000;0.4974;1.2816;
735.9000;0.4982;1.2793;
736.2000;0.4982;1.2863;
736.5000;0.4998;1.2769;
736.8000;0.4974;1.2746;
737.1000;0.4974;1.2746;
737.4000;0.4982;1.2722;
737.7000;0.4965;1.2652;
738.0000;0.4974;1.2629;
738.3000;0.4982;1.2652;
738.6000;0.4982;1.2675;
738.9000;0.4974;1.2675;
739.2000;0.4974;1.2629;
739.5000;0.4965;1.2582;
739.8000;0.4965;1.2535;
740.1000;0.4974;1.2582;
740.4000;0.4982;1.2558;
740.7000;0.4974;1.2535;
741.0000;0.4998;1.2535;
741.3000;0.4974;1.2582;
741.6000;0.4974;1.2629;
741.9000;0.4982;1.2582;
742.2000;0.4974;1.2582;
742.5000;0.4925;1.2535;
742.8000;0.4982;1.2746;
743.1000;0.4974;1.2699;
743.4000;0.4974;1.2605;
743.7000;0.4974;1.2652;
744.0000;0.4957;1.2699;
744.3000;0.4965;1.2605;
744.6000;0.4957;1.2558;
744.9000;0.4974;1.2535;
745.2000;0.4974;1.2605;
745.5000;0.4957;1.2582;
745.8000;0.4884;1.2370;
746.1000;0.4965;1.2582;
746.4000;0.4949;1.2535;
746.7000;0.4965;1.2652;
747.0000;0.4957;1.2629;
747.3000;0.4949;1.2558;
747.6000;0.4965;1.2582;
747.9000;0.4965;1.2629;
748.2000;0.4949;1.2558;
748.5000;0.4957;1.2488;
748.8000;0.4949;1.2464;
749.1000;0.4957;1.2441;
749.4000;0.4949;1.2370;
749.7000;0.4933;1.2300;
750.0000;0.4884;1.2206;
750.3000;0.4949;1.2230;
750.6000;0.4941;1.2253;
750.9000;0.4949;1.2370;
751.2000;0.5022;1.2652;
751.5000;0.4957;1.2511;
751.8000;0.4965;1.2394;
752.1000;0.4925;1.2276;
752.4000;0.4957;1.2300;
752.7000;0.4965;1.2300;
753.0000;0.4949;1.2347;
753.3000;0.4917;1.2276;
753.6000;0.5031;1.2535;
753.9000;0.4974;1.2464;
754.2000;0.4957;1.2441;
754.5000;0.4957;1.2535;
754.8000;0.4925;1.2488;
755.1000;0.4925;1.2464;
755.4000;0.4941;1.2582;
755.7000;0.4974;1.2652;
756.0000;0.4957;1.2652;
756.3000;0.4957;1.2675;
756.6000;0.4949;1.2605;
756.9000;0.4949;1.2558;
757.2000;0.4974;1.2535;
757.5000;0.4941;1.2441;
757.8000;0.4957;1.2441;
758.1000;0.4957;1.2464;
758.4000;0.4990;1.2605;
758.7000;0.4957;1.2605;
759.0000;0.4949;1.2699;
759.3000;0.4949;1.2699;
759.6000;0.4957;1.2675;
759.9000;0.4933;1.2605;
760.2000;0.4933;1.2629;
760.5000;0.4925;1.2582;
760.8000;0.4949;1.2652;
761.1000;0.4941;1.2675;
761.4000;0.4941;1.2629;
761.7000;0.4949;1.2582;
762.0000;0.4957;1.2582;
762.3000;0.4941;1.2535;
762.6000;0.4941;1.2417;
762.9000;0.4949;1.2417;
763.2000;0.4949;1.2394;
763.5000;0.4941;1.2347;
763.8000;0.4949;1.2300;
764.1000;0.4949;1.2323;
764.4000;0.4957;1.2347;
764.7000;0.4941;1.2417;
765.0000;0.4974;1.2464;
765.3000;0.4933;1.2394;
765.6000;0.4949;1.2558;
765.9000;0.4957;1.2535;
766.2000;0.4949;1.2511;
766.5000;0.5104;1.2910;
766.8000;0.4949;1.2464;
767.1000;0.4957;1.2488;
767.4000;0.4941;1.2464;
767.7000;0.4998;1.2582;
768.0000;0.4949;1.2323;
768.3000;0.4949;1.2323;
768.6000;0.4965;1.2347;
768.9000;0.4941;1.2394;
769.2000;0.4925;1.2441;
769.5000;0.4908;1.2347;
769.8000;0.4949;1.2323;
770.1000;0.4957;1.2347;
770.4000;0.4941;1.2417;
770.7000;0.4860;1.2300;
771.0000;0.4933;1.2511;
771.3000;0.4957;1.2558;
771.6000;0.4957;1.2535;
771.9000;0.4941;1.2488;
772.2000;0.4949;1.2535;
772.5000;0.4949;1.2652;
772.8000;0.4949;1.2652;
773.1000;0.4925;1.2582;
773.4000;0.5006;1.2699;
773.7000;0.5055;1.2816;
774.0000;0.4941;1.2535;
774.3000;0.4933;1.2511;
774.6000;0.4949;1.2464;
774.9000;0.5047;1.2840;
775.2000;0.4933;1.2605;
775.5000;0.4925;1.2558;
775.8000;0.5006;1.2722;
776.1000;0.4941;1.2535;
776.4000;0.4933;1.2441;
776.7000;0.4965;1.2488;
777.0000;0.4974;1.2558;
777.3000;0.4917;1.2417;
777.6000;0.4933;1.2417;
777.9000;0.4925;1.2347;
778.2000;0.4925;1.2347;
778.5000;0.4933;1.2441;
778.8000;0.4933;1.2488;
779.1000;0.4949;1.2511;
779.4000;0.4933;1.2511;
779.7000;0.4949;1.2605;
780.0000;0.4941;1.2629;
780.3000;0.4965;1.2675;
780.6000;0.4941;1.2558;
780.9000;0.4941;1.2558;
781.2000;0.4941;1.2535;
781.5000;0.4933;1.2558;
781.8000;0.4925;1.2582;
782.1000;0.4933;1.2582;
782.4000;0.4933;1.2652;
782.7000;0.4933;1.2675;
783.0000;0.4933;1.2675;
783.3000;0.4925;1.2675;
783.6000;0.4933;1.2722;
783.9000;0.4933;1.2722;
784.2000;0.4917;1.2558;
784.5000;0.4941;1.2535;
784.8000;0.4925;1.2511;
785.1000;0.4941;1.2511;
785.4000;0.4941;1.2511;
785.7000;0.4933;1.2535;
786.0000;0.4900;1.2488;
786.3000;0.4917;1.2558;
786.6000;0.4925;1.2558;
786.9000;0.4917;1.2582;
787.2000;0.4925;1.2605;
787.5000;0.4908;1.2605;
787.8000;0.4925;1.2722;
788.1000;0.4933;1.2699;
788.4000;0.4908;1.2582;
788.7000;0.4917;1.2652;
789.0000;0.4933;1.2629;
789.3000;0.4925;1.2605;
789.6000;0.4925;1.2629;
789.9000;0.4965;1.2722;
790.2000;0.4925;1.2699;
790.5000;0.4998;1.2887;
790.8000;0.4941;1.2746;
791.1000;0.4933;1.2793;
791.4000;0.4917;1.2722;
791.7000;0.4908;1.2675;
792.0000;0.4949;1.2746;
792.3000;0.4925;1.2722;
792.6000;0.4908;1.2675;
792.9000;0.4949;1.2887;
793.2000;0.4925;1.2793;
793.5000;0.4982;1.2910;
793.8000;0.4917;1.2746;
794.1000;0.4917;1.2722;
794.4000;0.4917;1.2769;
794.7000;0.4933;1.2816;
795.0000;0.4925;1.2769;
795.3000;0.4933;1.2769;
795.6000;0.4949;1.2816;
795.9000;0.4925;1.2793;
796.2000;0.4908;1.2722;
796.5000;0.4941;1.2910;
796.8000;0.5014;1.3098;
797.1000;0.4917;1.2863;
797.4000;0.4925;1.2769;
797.7000;0.4917;1.2652;
798.0000;0.4941;1.2722;
798.3000;0.4990;1.2910;
798.6000;0.4917;1.2675;
798.9000;0.4925;1.2769;
799.2000;0.4949;1.2840;
799.5000;0.4917;1.2793;
799.8000;0.4917;1.2722;
800.1000;0.4925;1.2793;
800.4000;0.4949;1.2793;
800.7000;0.4925;1.2840;
801.0000;0.4933;1.2887;
801.3000;0.4933;1.2910;
801.6000;0.4892;1.2793;
801.9000;0.4933;1.2910;
802.2000;0.4941;1.2887;
802.5000;0.4908;1.2816;
802.8000;0.4908;1.2887;
803.1000;0.4990;1.3075;
803.4000;0.4917;1.2887;
803.7000;0.4900;1.2934;
804.0000;0.4908;1.2840;
804.3000;0.4900;1.2863;
804.6000;0.4900;1.2793;
804.9000;0.4908;1.2840;
805.2000;0.5014;1.3121;
805.5000;0.4884;1.2793;
805.8000;0.4925;1.2910;
806.1000;0.4876;1.2793;
806.4000;0.4925;1.2981;
806.7000;0.4933;1.3075;
807.0000;0.4925;1.3121;
807.3000;0.4933;1.3098;
807.6000;0.4908;1.3051;
807.9000;0.4917;1.3028;
808.2000;0.4827;1.2816;
808.5000;0.4925;1.3028;
808.8000;0.4892;1.2934;
809.1000;0.4892;1.2887;
809.4000;0.4917;1.2957;
809.7000;0.4917;1.2910;
810.0000;0.4925;1.2887;
810.3000;0.4917;1.2793;
810.6000;0.4900;1.2793;
810.9000;0.4925;1.2769;
811.2000;0.4917;1.2746;
811.5000;0.4892;1.2582;
811.8000;0.4917;1.2675;
812.1000;0.4933;1.2746;
812.4000;0.4925;1.2722;
812.7000;0.4884;1.2605;
813.0000;0.4925;1.2675;
813.3000;0.4933;1.2746;
813.6000;0.4949;1.2699;
813.9000;0.4982;1.2746;
814.2000;0.4908;1.2629;
814.5000;0.4917;1.2675;
814.8000;0.4908;1.2699;
815.1000;0.4900;1.2746;
815.4000;0.4900;1.2769;
815.7000;0.4974;1.2934;
816.0000;0.4917;1.2840;
816.3000;0.4884;1.2769;
816.6000;0.4925;1.2840;
816.9000;0.4900;1.2746;
817.2000;0.4876;1.2605;
817.5000;0.4933;1.2675;
817.8000;0.4925;1.2699;
818.1000;0.4908;1.2675;
818.4000;0.4908;1.2629;
818.7000;0.4941;1.2652;
819.0000;0.4892;1.2629;
819.3000;0.4892;1.2652;
819.6000;0.4908;1.2675;
819.9000;0.4917;1.2699;
820.2000;0.4851;1.2582;
820.5000;0.4933;1.2816;
820.8000;0.4949;1.2910;
821.1000;0.4908;1.2863;
821.4000;0.4900;1.2910;
821.7000;0.4884;1.2934;
822.0000;0.4925;1.3028;
822.3000;0.4941;1.3121;
822.6000;0.4917;1.3075;
822.9000;0.4925;1.3075;
823.2000;0.4900;1.2957;
823.5000;0.4827;1.2675;
823.8000;0.4917;1.2863;
824.1000;0.4917;1.2910;
824.4000;0.4949;1.2957;
824.7000;0.4917;1.2910;
825.0000;0.4900;1.3028;
825.3000;0.4860;1.2910;
825.6000;0.4941;1.3098;
825.9000;0.4917;1.3075;
826.2000;0.4892;1.3075;
826.5000;0.4933;1.3168;
826.8000;0.4908;1.3098;
827.1000;0.4949;1.3168;
827.4000;0.4892;1.3004;
827.7000;0.4917;1.2957;
828.0000;0.4892;1.2887;
828.3000;0.4908;1.2934;
828.6000;0.4900;1.2957;
828.9000;0.4908;1.2981;
829.2000;0.4892;1.2887;
829.5000;0.4892;1.2934;
829.8000;0.4925;1.2957;
830.1000;0.4892;1.2981;
830.4000;0.4908;1.3051;
830.7000;0.4876;1.2957;
831.0000;0.4917;1.2957;
831.3000;0.4908;1.2957;
831.6000;0.4900;1.2981;
831.9000;0.4892;1.2863;
832.2000;0.4892;1.2769;
832.5000;0.4917;1.2863;
832.8000;0.4908;1.2910;
833.1000;0.4900;1.2981;
833.4000;0.4900;1.3075;
833.7000;0.4908;1.3051;
834.0000;0.4965;1.3075;
834.3000;0.4908;1.3028;
834.6000;0.4925;1.2981;
834.9000;0.4892;1.2910;
835.2000;0.4908;1.2934;
835.5000;0.4925;1.3028;
835.8000;0.4982;1.3145;
836.1000;0.4884;1.2910;
836.4000;0.4876;1.2816;
836.7000;0.4917;1.2816;
837.0000;0.4925;1.2910;
837.3000;0.4941;1.2840;
837.6000;0.4917;1.2816;
837.9000;0.4917;1.2887;
838.2000;0.4925;1.2981;
838.5000;0.4900;1.2887;
838.8000;0.4827;1.2675;
839.1000;0.4884;1.2769;
839.4000;0.4990;1.3098;
839.7000;0.4917;1.2910;
840.0000;0.4884;1.2840;
840.3000;0.4908;1.2887;
840.6000;0.4925;1.2910;
840.9000;0.4941;1.2934;
841.2000;0.4982;1.3121;
841.5000;0.4892;1.2957;
841.8000;0.4908;1.3051;
842.1000;0.4949;1.3098;
842.4000;0.4908;1.3075;
842.7000;0.4917;1.3098;
843.0000;0.4917;1.3051;
843.3000;0.4900;1.2981;
843.6000;0.4925;1.2934;
843.9000;0.4900;1.2840;
844.2000;0.4908;1.2863;
844.5000;0.4900;1.2863;
844.8000;0.4876;1.2769;
845.1000;0.4917;1.2863;
845.4000;0.4917;1.2840;
845.7000;0.4811;1.2511;
846.0000;0.4900;1.2793;
846.3000;0.4917;1.2769;
846.6000;0.4941;1.2957;
846.9000;0.4917;1.2910;
847.2000;0.4925;1.2957;
847.5000;0.4835;1.2769;
847.8000;0.4908;1.2910;
848.1000;0.4917;1.2934;
848.4000;0.4892;1.2816;
848.7000;0.4900;1.2863;
849.0000;0.4892;1.2769;
849.3000;0.4892;1.2769;
849.6000;0.4908;1.2675;
849.9000;0.4892;1.2769;
850.2000;0.4908;1.2863;
850.5000;0.4908;1.2840;
850.8000;0.4900;1.2793;
851.1000;0.4900;1.2746;
851.4000;0.4917;1.2722;
851.7000;0.4892;1.2699;
852.0000;0.4892;1.2816;
852.3000;0.4900;1.2863;
852.6000;0.4917;1.2887;
852.9000;0.4892;1.3028;
853.2000;0.4892;1.2981;
853.5000;0.4925;1.3004;
853.8000;0.4908;1.2981;
854.1000;0.4908;1.3098;
854.4000;0.4892;1.3075;
854.7000;0.4868;1.3168;
855.0000;0.4892;1.3192;
855.3000;0.4892;1.3168;
855.6000;0.4900;1.3098;
855.9000;0.4884;1.3075;
856.2000;0.4900;1.3051;
856.5000;0.4908;1.3051;
856.8000;0.4900;1.3028;
857.1000;0.4892;1.2981;
857.4000;0.4892;1.3004;
857.7000;0.4900;1.3004;
858.0000;0.4908;1.3075;
858.3000;0.4876;1.2934;
858.6000;0.4917;1.3098;
858.9000;0.4949;1.3192;
859.2000;0.4908;1.3051;
859.5000;0.4892;1.2934;
859.8000;0.4908;1.2816;
860.1000;0.4884;1.2816;
860.4000;0.4908;1.2863;
860.7000;0.4876;1.2746;
861.0000;0.4900;1.2793;
861.3000;0.4900;1.2769;
861.6000;0.4892;1.2840;
861.9000;0.4908;1.2887;
862.2000;0.4900;1.2863;
862.5000;0.4892;1.2887;
862.8000;0.4908;1.2957;
863.1000;0.4900;1.2910;
863.4000;0.4851;1.2769;
863.7000;0.4900;1.2863;
864.0000;0.4965;1.2981;
864.3000;0.4884;1.2722;
864.6000;0.4917;1.2746;
864.9000;0.4925;1.2816;
865.2000;0.4908;1.2840;
865.5000;0.4908;1.2816;
865.8000;0.4892;1.2793;
866.1000;0.4835;1.2675;
866.4000;0.4917;1.2887;
866.7000;0.4900;1.2840;
867.0000;0.4949;1.3028;
867.3000;0.4892;1.2863;
867.6000;0.4908;1.2840;
867.9000;0.4917;1.2840;
868.2000;0.4892;1.2769;
868.5000;0.4884;1.2652;
868.8000;0.4884;1.2675;
869.1000;0.4917;1.2769;
869.4000;0.4900;1.2769;
869.7000;0.4892;1.2722;
870.0000;0.4892;1.2793;
870.3000;0.4892;1.2840;
870.6000;0.4892;1.2816;
870.9000;0.4892;1.2816;
871.2000;0.4908;1.2863;
871.5000;0.4917;1.2887;
871.8000;0.4892;1.2910;
872.1000;0.4900;1.2934;
872.4000;0.4908;1.2957;
872.7000;0.4892;1.2934;
873.0000;0.4908;1.2934;
873.3000;0.4819;1.2675;
873.6000;0.4900;1.2887;
873.9000;0.4892;1.2934;
874.2000;0.4900;1.2957;
874.5000;0.4908;1.3075;
874.8000;0.4892;1.3028;
875.1000;0.4892;1.2840;
875.4000;0.4908;1.2816;
875.7000;0.4762;1.2300;
876.0000;0.4900;1.2652;
876.3000;0.4884;1.2605;
876.6000;0.4908;1.2699;
876.9000;0.4908;1.2746;
877.2000;0.4908;1.2699;
877.5000;0.4908;1.2746;
877.8000;0.4908;1.2746;
878.1000;0.4917;1.2793;
878.4000;0.4925;1.2863;
878.7000;0.4982;1.2910;
879.0000;0.4908;1.2769;
879.3000;0.4925;1.2981;
879.6000;0.4876;1.2840;
879.9000;0.4900;1.2957;
880.2000;0.4908;1.2981;
880.5000;0.4884;1.2887;
880.8000;0.4908;1.2910;
881.1000;0.4876;1.2793;
881.4000;0.4900;1.2816;
881.7000;0.4892;1.2840;
882.0000;0.4892;1.2769;
882.3000;0.4917;1.2793;
882.6000;0.4884;1.2746;
882.9000;0.4900;1.2769;
883.2000;0.4908;1.2816;
883.5000;0.4884;1.2722;
883.8000;0.4892;1.2769;
884.1000;0.4900;1.2746;
884.4000;0.4819;1.2535;
884.7000;0.4884;1.2746;
885.0000;0.4884;1.2793;
885.3000;0.4892;1.2793;
885.6000;0.4908;1.2769;
885.9000;0.4908;1.2699;
886.2000;0.4900;1.2582;
886.5000;0.4900;1.2652;
886.8000;0.4917;1.2722;
887.1000;0.4908;1.2746;
887.4000;0.4925;1.2840;
887.7000;0.4900;1.2816;
888.0000;0.4884;1.2746;
888.3000;0.4908;1.2699;
888.6000;0.4925;1.2722;
888.9000;0.4908;1.2722;
889.2000;0.4900;1.2652;
889.5000;0.4884;1.2629;
889.8000;0.4908;1.2652;
890.1000;0.4892;1.2699;
890.4000;0.4884;1.2746;
890.7000;0.4884;1.2746;
891.0000;0.4917;1.2769;
891.3000;0.4884;1.2699;
891.6000;0.4884;1.2699;
891.9000;0.4900;1.2769;
892.2000;0.4917;1.2816;
892.5000;0.4908;1.2863;
892.8000;0.4884;1.2816;
893.1000;0.4900;1.2746;
893.4000;0.4925;1.2793;
893.7000;0.4908;1.2793;
894.0000;0.4908;1.2840;
894.3000;0.4900;1.2863;
894.6000;0.4900;1.2816;
894.9000;0.4925;1.2840;
895.2000;0.5006;1.2981;
895.5000;0.4892;1.2816;
895.8000;0.4900;1.2840;
896.1000;0.4908;1.2887;
896.4000;0.4900;1.2840;
896.7000;0.4900;1.2816;
897.0000;0.4900;1.2793;
897.3000;0.4876;1.2746;
897.6000;0.4900;1.2793;
897.9000;0.4917;1.2793;
898.2000;0.4876;1.2699;
898.5000;0.4900;1.2699;
898.8000;0.4908;1.2722;
899.1000;0.4892;1.2746;
899.4000;0.4900;1.2769;
899.7000;0.4892;1.2699;
900.0000;0.4908;1.2722;
900.3000;0.4925;1.2746;
900.6000;0.4892;1.2558;
900.9000;0.4917;1.2675;
901.2000;0.4892;1.2652;
901.5000;0.4908;1.2746;
901.8000;0.4884;1.2699;
902.1000;0.4876;1.2652;
902.4000;0.4900;1.2652;
902.7000;0.4900;1.2675;
903.0000;0.4908;1.2769;
903.3000;0.4884;1.2769;
903.6000;0.4900;1.2887;
903.9000;0.4965;1.3075;
904.2000;0.4884;1.2863;
904.5000;0.4900;1.2887;
904.8000;0.4892;1.2816;
905.1000;0.4908;1.2793;
905.4000;0.4803;1.2535;
905.7000;0.4900;1.2746;
906.0000;0.4868;1.2675;
906.3000;0.4892;1.2582;
906.6000;0.4925;1.2605;
906.9000;0.4884;1.2535;
907.2000;0.4892;1.2582;
907.5000;0.4884;1.2582;
907.8000;0.4884;1.2652;
908.1000;0.4892;1.2746;
908.4000;0.4892;1.2722;
908.7000;0.4892;1.2675;
909.0000;0.4900;1.2629;
909.3000;0.4900;1.2582;
909.6000;0.4876;1.2675;
909.9000;0.4884;1.2722;
910.2000;0.4900;1.2722;
910.5000;0.4876;1.2629;
910.8000;0.4900;1.2746;
911.1000;0.4892;1.2769;
911.4000;0.4900;1.2863;
911.7000;0.4892;1.2863;
912.0000;0.4892;1.2863;
912.3000;0.4876;1.2769;
912.6000;0.4892;1.2769;
912.9000;0.4884;1.2699;
913.2000;0.4884;1.2746;
913.5000;0.4884;1.2769;
913.8000;0.4900;1.2793;
914.1000;0.4835;1.2793;
914.4000;0.4884;1.2887;
914.7000;0.4892;1.2887;
915.0000;0.4892;1.2957;
915.3000;0.4884;1.2910;
915.6000;0.4900;1.2957;
915.9000;0.4860;1.2816;
916.2000;0.4876;1.2863;
916.5000;0.4876;1.2863;
916.8000;0.4876;1.2840;
917.1000;0.4876;1.2840;
917.4000;0.4876;1.2887;
917.7000;0.4884;1.2840;
918.0000;0.4900;1.2840;
918.3000;0.4998;1.3098;
918.6000;0.4876;1.2793;
918.9000;0.4892;1.2840;
919.2000;0.4900;1.2769;
919.5000;0.4908;1.2769;
919.8000;0.4925;1.2863;
920.1000;0.4900;1.2722;
920.4000;0.4900;1.2675;
920.7000;0.4884;1.2558;
921.0000;0.4900;1.2558;
921.3000;0.4900;1.2582;
921.6000;0.4884;1.2582;
921.9000;0.4908;1.2675;
922.2000;0.4908;1.2652;
922.5000;0.4884;1.2558;
922.8000;0.4876;1.2535;
923.1000;0.4900;1.2605;
923.4000;0.4941;1.2769;
923.7000;0.4917;1.2722;
924.0000;0.4884;1.2582;
924.3000;0.4884;1.2558;
924.6000;0.5014;1.2793;
924.9000;0.4917;1.2488;
925.2000;0.4908;1.2488;
925.5000;0.4884;1.2441;
925.8000;0.4892;1.2464;
926.1000;0.4917;1.2582;
926.4000;0.4998;1.2863;
926.7000;0.4884;1.2511;
927.0000;0.4860;1.2441;
927.3000;0.4900;1.2558;
927.6000;0.4892;1.2488;
927.9000;0.4900;1.2535;
928.2000;0.4884;1.2558;
928.5000;0.4884;1.2582;
928.8000;0.4803;1.2394;
929.1000;0.4900;1.2699;
929.4000;0.4933;1.2722;
929.7000;0.4900;1.2699;
930.0000;0.4892;1.2605;
930.3000;0.4876;1.2629;
930.6000;0.4843;1.2582;
930.9000;0.4868;1.2582;
931.2000;0.4892;1.2675;
931.5000;0.4998;1.3051;
931.8000;0.4884;1.2746;
932.1000;0.4884;1.2746;
932.4000;0.4892;1.2699;
932.7000;0.4949;1.2887;
933.0000;0.4908;1.2840;
933.3000;0.4884;1.2793;
933.6000;0.4884;1.2793;
933.9000;0.4900;1.2887;
934.2000;0.4868;1.2816;
934.5000;0.4884;1.2887;
934.8000;0.4868;1.2910;
935.1000;0.4884;1.3004;
935.4000;0.4892;1.2981;
935.7000;0.4884;1.2887;
936.0000;0.4892;1.2957;
936.3000;0.4892;1.2957;
936.6000;0.4900;1.2887;
936.9000;0.4884;1.2910;
937.2000;0.4892;1.2910;
937.5000;0.4965;1.3004;
937.8000;0.4900;1.2793;
938.1000;0.4908;1.2816;
938.4000;0.4900;1.2887;
938.7000;0.4900;1.2887;
939.0000;0.4884;1.2769;
939.3000;0.4884;1.2746;
939.6000;0.4884;1.2722;
939.9000;0.4900;1.2699;
940.2000;0.4892;1.2793;
940.5000;0.4876;1.2863;
940.8000;0.4892;1.2887;
941.1000;0.4892;1.2863;
941.4000;0.4900;1.2863;
941.7000;0.4900;1.2840;
942.0000;0.4957;1.3004;
942.3000;0.4900;1.2910;
942.6000;0.4917;1.2863;
942.9000;0.4917;1.2816;
943.2000;0.4876;1.2746;
943.5000;0.4892;1.2793;
943.8000;0.4957;1.2957;
944.1000;0.4900;1.2840;
944.4000;0.4884;1.2769;
944.7000;0.4917;1.2816;
945.0000;0.4900;1.2863;
945.3000;0.4876;1.2840;
945.6000;0.4884;1.2793;
945.9000;0.4900;1.2816;
946.2000;0.4868;1.2793;
946.5000;0.4860;1.2793;
946.8000;0.4892;1.2910;
947.1000;0.4900;1.2981;
947.4000;0.4908;1.2934;
947.7000;0.4908;1.2934;
948.0000;0.4884;1.2863;
948.3000;0.4884;1.2863;
948.6000;0.4892;1.2910;
948.9000;0.4868;1.2816;
949.2000;0.4892;1.2840;
949.5000;0.4892;1.2863;
949.8000;0.4908;1.2840;
950.1000;0.4884;1.2722;
950.4000;0.4794;1.2347;
950.7000;0.4900;1.2582;
951.0000;0.4884;1.2605;
951.3000;0.4868;1.2652;
951.6000;0.4884;1.2699;
951.9000;0.4884;1.2746;
952.2000;0.4892;1.2793;
952.5000;0.4908;1.2840;
952.8000;0.4884;1.2699;
953.1000;0.4884;1.2816;
953.4000;0.4860;1.2769;
953.7000;0.4908;1.2863;
954.0000;0.4941;1.2934;
954.3000;0.4892;1.2699;
954.6000;0.4884;1.2722;
954.9000;0.4794;1.2511;
955.2000;0.4884;1.2675;
955.5000;0.4803;1.2558;
955.8000;0.4925;1.2769;
956.1000;0.4884;1.2722;
956.4000;0.4794;1.2464;
956.7000;0.4884;1.2699;
957.0000;0.4892;1.2722;
957.3000;0.4884;1.2675;
957.6000;0.4860;1.2629;
957.9000;0.4925;1.2722;
958.2000;0.4868;1.2675;
958.5000;0.4933;1.2840;
958.8000;0.4900;1.2769;
959.1000;0.4908;1.2769;
959.4000;0.4884;1.2769;
959.7000;0.4892;1.2746;
960.0000;0.4908;1.2793;
960.3000;0.4892;1.2699;
960.6000;0.4908;1.2675;
960.9000;0.4892;1.2629;
961.2000;0.4908;1.2511;
961.5000;0.4917;1.2629;
961.8000;0.4900;1.2558;
962.1000;0.4900;1.2558;
962.4000;0.4900;1.2675;
962.7000;0.4892;1.2605;
963.0000;0.4900;1.2652;
963.3000;0.4900;1.2582;
963.6000;0.4900;1.2629;
963.9000;0.4892;1.2558;
964.2000;0.4892;1.2582;
964.5000;0.4900;1.2605;
964.8000;0.4941;1.2699;
965.1000;0.4900;1.2605;
965.4000;0.4876;1.2652;
965.7000;0.4892;1.2793;
966.0000;0.4908;1.2840;
966.3000;0.4908;1.2887;
966.6000;0.4892;1.2816;
966.9000;0.4868;1.2769;
967.2000;0.4884;1.2793;
967.5000;0.4900;1.2887;
967.8000;0.4900;1.2863;
968.1000;0.4884;1.2793;
968.4000;0.4892;1.2816;
968.7000;0.4917;1.2793;
969.0000;0.4892;1.2746;
969.3000;0.4900;1.2793;
969.6000;0.4835;1.2535;
969.9000;0.4892;1.2652;
970.2000;0.4892;1.2722;
970.5000;0.4892;1.2675;
970.8000;0.4900;1.2793;
971.1000;0.4900;1.2840;
971.4000;0.4843;1.2675;
971.7000;0.4884;1.2840;
972.0000;0.4876;1.2887;
972.3000;0.4835;1.2746;
972.6000;0.4957;1.3028;
972.9000;0.4892;1.2934;
973.2000;0.4884;1.2863;
973.5000;0.4819;1.2699;
973.8000;0.4908;1.2934;
974.1000;0.4892;1.2910;
974.4000;0.4908;1.2816;
974.7000;0.4900;1.2887;
975.0000;0.4884;1.2910;
975.3000;0.4908;1.2934;
975.6000;0.4884;1.2887;
975.9000;0.4876;1.2887;
976.2000;0.4908;1.2816;
976.5000;0.4868;1.2769;
976.8000;0.4892;1.2887;
977.1000;0.4892;1.2887;
977.4000;0.4892;1.2887;
977.7000;0.4884;1.2840;
978.0000;0.4900;1.2910;
978.3000;0.4892;1.2910;
978.6000;0.4876;1.2934;
978.9000;0.4908;1.2981;
979.2000;0.4892;1.2840;
979.5000;0.4941;1.3051;
979.8000;0.4933;1.2957;
980.1000;0.4917;1.2910;
980.4000;0.4794;1.2675;
980.7000;0.4892;1.2957;
981.0000;0.4884;1.2910;
981.3000;0.4884;1.2863;
981.6000;0.4892;1.2910;
981.9000;0.4868;1.2910;
982.2000;0.4876;1.2793;
982.5000;0.4892;1.2769;
982.8000;0.4892;1.2887;
983.1000;0.4884;1.2769;
983.4000;0.4892;1.2816;
983.7000;0.4892;1.2769;
984.0000;0.4892;1.2769;
984.3000;0.4900;1.2746;
984.6000;0.4892;1.2746;
984.9000;0.4892;1.2746;
985.2000;0.4900;1.2746;
985.5000;0.4884;1.2746;
985.8000;0.4868;1.2675;
986.1000;0.4876;1.2675;
986.4000;0.4900;1.2699;
986.7000;0.4892;1.2699;
987.0000;0.4884;1.2722;
987.3000;0.4884;1.2816;
987.6000;0.4876;1.2746;
987.9000;0.4876;1.2746;
988.2000;0.4868;1.2722;
988.5000;0.4868;1.2816;
988.8000;0.4884;1.2816;
989.1000;0.4900;1.2934;
989.4000;0.4868;1.2793;
989.7000;0.4868;1.2722;
990.0000;0.4900;1.2699;
990.3000;0.4892;1.2793;
990.6000;0.4876;1.2863;
990.9000;0.4892;1.2981;
991.2000;0.4884;1.2793;
991.5000;0.4925;1.2699;
991.8000;0.4900;1.2675;
992.1000;0.4917;1.2746;
992.4000;0.4925;1.2675;
992.7000;0.4884;1.2558;
993.0000;0.4860;1.2464;
993.3000;0.4892;1.2535;
993.6000;0.4957;1.2722;
993.9000;0.4876;1.2582;
994.2000;0.5006;1.2863;
994.5000;0.4892;1.2582;
994.8000;0.4868;1.2511;
995.1000;0.4876;1.2605;
995.4000;0.4892;1.2722;
995.7000;0.4876;1.2675;
996.0000;0.4917;1.2675;
996.3000;0.4884;1.2605;
996.6000;0.4884;1.2582;
996.9000;0.4965;1.2863;
997.2000;0.4876;1.2722;
997.5000;0.4900;1.2746;
997.8000;0.4876;1.2722;
998.1000;0.4884;1.2746;
998.4000;0.4892;1.2793;
998.7000;0.4884;1.2793;
999.0000;0.4851;1.2746;
999.3000;0.4860;1.2863;
999.6000;0.4884;1.2887;
999.9000;0.4892;1.2934;
1000.2000;0.4876;1.2887;
1000.5000;0.4884;1.2910;
1000.8000;0.4900;1.2934;
1001.1000;0.4884;1.2887;
1001.4000;0.4884;1.2887;
1001.7000;0.4884;1.3028;
1002.0000;0.4900;1.2981;
1002.3000;0.4900;1.2910;
1002.6000;0.4884;1.2816;
1002.9000;0.4900;1.2910;
1003.2000;0.4892;1.2910;
1003.5000;0.4908;1.3004;
1003.8000;0.4876;1.2957;
1004.1000;0.4868;1.2887;
1004.4000;0.4884;1.2863;
1004.7000;0.4941;1.2934;
1005.0000;0.4892;1.2840;
1005.3000;0.4884;1.2816;
1005.6000;0.4900;1.2769;
1005.9000;0.4908;1.2699;
1006.2000;0.4851;1.2582;
1006.5000;0.4884;1.2699;
1006.8000;0.4884;1.2746;
1007.1000;0.4884;1.2746;
1007.4000;0.4900;1.2699;
1007.7000;0.4860;1.2722;
1008.0000;0.4876;1.2746;
1008.3000;0.4884;1.2793;
1008.6000;0.4892;1.2816;
1008.9000;0.4876;1.2769;
1009.2000;0.4876;1.2722;
1009.5000;0.4884;1.2629;
1009.8000;0.4892;1.2582;
1010.1000;0.4892;1.2652;
1010.4000;0.4876;1.2675;
1010.7000;0.4803;1.2605;
1011.0000;0.4851;1.2769;
1011.3000;0.4908;1.2793;
1011.6000;0.4884;1.2675;
1011.9000;0.4868;1.2675;
1012.2000;0.4884;1.2746;
1012.5000;0.4892;1.2769;
1012.8000;0.4900;1.2793;
1013.1000;0.4803;1.2535;
1013.4000;0.4884;1.2722;
1013.7000;0.4884;1.2769;
1014.0000;0.4884;1.2816;
1014.3000;0.4900;1.2863;
1014.6000;0.4884;1.2746;
1014.9000;0.4925;1.2769;
1015.2000;0.4884;1.2722;
1015.5000;0.4876;1.2675;
1015.8000;0.4876;1.2652;
1016.1000;0.4892;1.2652;
1016.4000;0.4876;1.2652;
1016.7000;0.4884;1.2699;
1017.0000;0.4892;1.2769;
1017.3000;0.4884;1.2816;
1017.6000;0.4884;1.2863;
1017.9000;0.4860;1.2746;
1018.2000;0.4908;1.2793;
1018.5000;0.4900;1.2816;
1018.8000;0.4900;1.2934;
1019.1000;0.4884;1.2840;
1019.4000;0.4754;1.2441;
1019.7000;0.4876;1.2699;
1020.0000;0.4917;1.2863;
1020.3000;0.5006;1.3192;
1020.6000;0.4884;1.2816;
1020.9000;0.4835;1.2629;
1021.2000;0.4892;1.2722;
1021.5000;0.4917;1.2722;
1021.8000;0.4811;1.2488;
1022.1000;0.4892;1.2746;
1022.4000;0.4925;1.2840;
1022.7000;0.4892;1.2769;
1023.0000;0.4884;1.2652;
1023.3000;0.4876;1.2511;
1023.6000;0.4884;1.2511;
1023.9000;0.4908;1.2582;
1024.2000;0.4868;1.2511;
1024.5000;0.4884;1.2511;
1024.8000;0.4884;1.2511;
1025.1000;0.4884;1.2582;
1025.4000;0.4892;1.2582;
1025.7000;0.4900;1.2675;
1026.0000;0.4876;1.2629;
1026.3000;0.4876;1.2675;
1026.6000;0.5006;1.3004;
1026.9000;0.4884;1.2746;
1027.2000;0.4884;1.2863;
1027.5000;0.4884;1.2981;
1027.8000;0.4884;1.3004;
1028.1000;0.4900;1.3028;
1028.4000;0.4868;1.2887;
1028.7000;0.4900;1.2981;
1029.0000;0.4900;1.3004;
1029.3000;0.4892;1.2981;
1029.6000;0.4868;1.2863;
1029.9000;0.4884;1.2910;
1030.2000;0.4819;1.2675;
1030.5000;0.4892;1.2887;
1030.8000;0.4900;1.2910;
1031.1000;0.4892;1.2863;
1031.4000;0.4876;1.2769;
1031.7000;0.4892;1.2863;
1032.0000;0.4860;1.2769;
1032.3000;0.4884;1.2863;
1032.6000;0.4876;1.2746;
1032.9000;0.4884;1.2699;
1033.2000;0.4892;1.2746;
1033.5000;0.4949;1.2863;
1033.8000;0.4868;1.2722;
1034.1000;0.4892;1.2699;
1034.4000;0.4876;1.2722;
1034.7000;0.4884;1.2793;
1035.0000;0.4876;1.2746;
1035.3000;0.4884;1.2840;
1035.6000;0.4908;1.2793;
1035.9000;0.4876;1.2746;
1036.2000;0.4876;1.2675;
1036.5000;0.4892;1.2722;
1036.8000;0.4900;1.2769;
1037.1000;0.4892;1.2722;
1037.4000;0.4876;1.2629;
1037.7000;0.4860;1.2488;
1038.0000;0.4876;1.2558;
1038.3000;0.4868;1.2535;
1038.6000;0.4876;1.2582;
1038.9000;0.4876;1.2629;
1039.2000;0.4868;1.2605;
1039.5000;0.4876;1.2722;
1039.8000;0.4900;1.2675;
1040.1000;0.4868;1.2605;
1040.4000;0.4884;1.2629;
1040.7000;0.4908;1.2675;
1041.0000;0.4900;1.2605;
1041.3000;0.4892;1.2511;
1041.6000;0.4884;1.2417;
1041.9000;0.4843;1.2370;
1042.2000;0.4892;1.2441;
1042.5000;0.4868;1.2323;
1042.8000;0.4868;1.2394;
1043.1000;0.4868;1.2417;
1043.4000;0.4876;1.2394;
1043.7000;0.4892;1.2417;
1044.0000;0.4876;1.2370;
1044.3000;0.4868;1.2347;
1044.6000;0.4892;1.2511;
1044.9000;0.4892;1.2582;
1045.2000;0.4917;1.2699;
1045.5000;0.4884;1.2652;
1045.8000;0.4892;1.2675;
1046.1000;0.4876;1.2629;
1046.4000;0.4876;1.2652;
1046.7000;0.4868;1.2558;
1047.0000;0.4892;1.2629;
1047.3000;0.4892;1.2605;
1047.6000;0.4884;1.2535;
1047.9000;0.4860;1.2347;
1048.2000;0.4884;1.2464;
1048.5000;0.4876;1.2441;
1048.8000;0.4917;1.2464;
1049.1000;0.4925;1.2464;
1049.4000;0.4884;1.2488;
1049.7000;0.4860;1.2464;
1050.0000;0.4884;1.2629;
1050.3000;0.4900;1.2652;
1050.6000;0.4794;1.2323;
1050.9000;0.4892;1.2652;
1051.2000;0.4892;1.2652;
1051.5000;0.4835;1.2558;
1051.8000;0.4884;1.2746;
1052.1000;0.4892;1.2746;
1052.4000;0.4892;1.2746;
1052.7000;0.4900;1.2675;
1053.0000;0.4868;1.2605;
1053.3000;0.4892;1.2652;
1053.6000;0.4811;1.2323;
1053.9000;0.4908;1.2605;
1054.2000;0.4884;1.2558;
1054.5000;0.4884;1.2558;
1054.8000;0.4892;1.2652;
1055.1000;0.4892;1.2629;
1055.4000;0.4884;1.2699;
1055.7000;0.4884;1.2816;
1056.0000;0.4892;1.2887;
1056.3000;0.4892;1.2863;
1056.6000;0.4876;1.2840;
1056.9000;0.4884;1.2863;
1057.2000;0.4884;1.2816;
1057.5000;0.4892;1.2816;
1057.8000;0.4876;1.2769;
1058.1000;0.4892;1.2746;
1058.4000;0.4884;1.2722;
1058.7000;0.4884;1.2652;
1059.0000;0.4892;1.2652;
1059.3000;0.4868;1.2652;
1059.6000;0.4868;1.2769;
1059.9000;0.4892;1.2816;
1060.2000;0.4884;1.2863;
1060.5000;0.4876;1.2793;
1060.8000;0.4884;1.2816;
1061.1000;0.4900;1.2816;
1061.4000;0.4892;1.2746;
1061.7000;0.4892;1.2675;
1062.0000;0.4884;1.2652;
1062.3000;0.4892;1.2629;
1062.6000;0.4908;1.2582;
1062.9000;0.4892;1.2535;
1063.2000;0.4876;1.2511;
1063.5000;0.4868;1.2535;
1063.8000;0.4900;1.2652;
1064.1000;0.4884;1.2605;
1064.4000;0.4868;1.2535;
1064.7000;0.4884;1.2558;
1065.0000;0.4892;1.2605;
1065.3000;0.4892;1.2675;
1065.6000;0.4892;1.2629;
1065.9000;0.4860;1.2488;
1066.2000;0.4884;1.2582;
1066.5000;0.4876;1.2582;
1066.8000;0.4884;1.2699;
1067.1000;0.4917;1.2746;
1067.4000;0.4892;1.2675;
1067.7000;0.4892;1.2652;
1068.0000;0.4908;1.2699;
1068.3000;0.4851;1.2535;
1068.6000;0.4884;1.2652;
1068.9000;0.4957;1.2675;
1069.2000;0.4908;1.2558;
1069.5000;0.4876;1.2535;
1069.8000;0.4819;1.2417;
1070.1000;0.4876;1.2558;
1070.4000;0.4884;1.2652;
1070.7000;0.4868;1.2675;
1071.0000;0.4949;1.2793;
1071.3000;0.4876;1.2722;
1071.6000;0.4876;1.2722;
1071.9000;0.4957;1.2863;
1072.2000;0.4892;1.2722;
1072.5000;0.4819;1.2535;
1072.8000;0.4900;1.2863;
1073.1000;0.4860;1.2769;
1073.4000;0.4908;1.2887;
1073.7000;0.4876;1.2793;
1074.0000;0.4794;1.2558;
1074.3000;0.4786;1.2629;
1074.6000;0.4884;1.2863;
1074.9000;0.4860;1.2816;
1075.2000;0.4908;1.2863;
1075.5000;0.4892;1.2769;
1075.8000;0.4868;1.2722;
1076.1000;0.4835;1.2629;
1076.4000;0.4917;1.2793;
1076.7000;0.4876;1.2746;
1077.0000;0.4876;1.2769;
1077.3000;0.4892;1.2840;
1077.6000;0.4884;1.2816;
1077.9000;0.4876;1.2863;
1078.2000;0.4884;1.2863;
1078.5000;0.4892;1.2816;
1078.8000;0.4884;1.2793;
1079.1000;0.4941;1.2816;
1079.4000;0.4892;1.2652;
1079.7000;0.4876;1.2629;
1080.0000;0.4876;1.2605;
1080.3000;0.4860;1.2582;
1080.6000;0.4884;1.2652;
1080.9000;0.4868;1.2558;
1081.2000;0.4892;1.2675;
1081.5000;0.4884;1.2652;
1081.8000;0.4892;1.2675;
1082.1000;0.4917;1.2699;
1082.4000;0.4908;1.2652;
1082.7000;0.4917;1.2605;
1083.0000;0.4876;1.2558;
1083.3000;0.4900;1.2746;
1083.6000;0.4900;1.2746;
1083.9000;0.4892;1.2675;
1084.2000;0.4876;1.2652;
1084.5000;0.4876;1.2722;
1084.8000;0.4876;1.2722;
1085.1000;0.4868;1.2746;
1085.4000;0.4868;1.2722;
1085.7000;0.4868;1.2746;
1086.0000;0.4876;1.2746;
1086.3000;0.4868;1.2722;
1086.6000;0.4868;1.2582;
1086.9000;0.4884;1.2605;
1087.2000;0.4876;1.2511;
1087.5000;0.4876;1.2558;
1087.8000;0.4868;1.2535;
1088.1000;0.4908;1.2558;
1088.4000;0.4917;1.2558;
1088.7000;0.4876;1.2511;
1089.0000;0.4884;1.2535;
1089.3000;0.4860;1.2511;
1089.6000;0.4900;1.2605;
1089.9000;0.4892;1.2652;
1090.2000;0.4933;1.2699;
1090.5000;0.4908;1.2652;
1090.8000;0.4876;1.2535;
1091.1000;0.4892;1.2511;
1091.4000;0.4868;1.2441;
1091.7000;0.4884;1.2394;
1092.0000;0.4851;1.2300;
1092.3000;0.4884;1.2441;
1092.6000;0.4876;1.2535;
1092.9000;0.4892;1.2488;
1093.2000;0.4860;1.2488;
1093.5000;0.4868;1.2488;
1093.8000;0.4868;1.2558;
1094.1000;0.4892;1.2652;
1094.4000;0.4868;1.2558;
1094.7000;0.4876;1.2605;
1095.0000;0.4876;1.2675;
1095.3000;0.4884;1.2722;
1095.6000;0.4876;1.2722;
1095.9000;0.4876;1.2699;
1096.2000;0.4892;1.2605;
1096.5000;0.4860;1.2605;
1096.8000;0.4892;1.2605;
1097.1000;0.4860;1.2441;
1097.4000;0.4908;1.2511;
1097.7000;0.4917;1.2629;
1098.0000;0.4884;1.2652;
1098.3000;0.4868;1.2652;
1098.6000;0.4876;1.2675;
1098.9000;0.4884;1.2722;
1099.2000;0.4900;1.2699;
1099.5000;0.4900;1.2746;
1099.8000;0.4884;1.2652;
1100.1000;0.4876;1.2629;
1100.4000;0.4860;1.2511;
1100.7000;0.4884;1.2558;
1101.0000;0.4876;1.2535;
1101.3000;0.5014;1.2934;
1101.6000;0.4884;1.2535;
1101.9000;0.4908;1.2464;
1102.2000;0.4876;1.2394;
1102.5000;0.4892;1.2488;
1102.8000;0.4892;1.2488;
1103.1000;0.4884;1.2464;
1103.4000;0.4884;1.2441;
1103.7000;0.4868;1.2347;
1104.0000;0.4876;1.2394;
1104.3000;0.4835;1.2276;
1104.6000;0.4868;1.2394;
1104.9000;0.4892;1.2417;
1105.2000;0.4884;1.2441;
1105.5000;0.4892;1.2370;
1105.8000;0.4892;1.2276;
1106.1000;0.4876;1.2230;
1106.4000;0.4900;1.2347;
1106.7000;0.4876;1.2347;
1107.0000;0.4868;1.2253;
1107.3000;0.4868;1.2230;
1107.6000;0.4860;1.2230;
1107.9000;0.4892;1.2276;
1108.2000;0.4884;1.2253;
1108.5000;0.4876;1.2230;
1108.8000;0.4868;1.2253;
1109.1000;0.4884;1.2230;
1109.4000;0.4941;1.2230;
1109.7000;0.4876;1.2136;
1110.0000;0.4892;1.2183;
1110.3000;0.4892;1.2323;
1110.6000;0.4908;1.2370;
1110.9000;0.4884;1.2394;
1111.2000;0.4819;1.2276;
1111.5000;0.4876;1.2511;
1111.8000;0.4876;1.2511;
1112.1000;0.4892;1.2488;
1112.4000;0.4884;1.2394;
1112.7000;0.4892;1.2347;
1113.0000;0.4860;1.2323;
1113.3000;0.4917;1.2417;
1113.6000;0.4876;1.2347;
1113.9000;0.4868;1.2300;
1114.2000;0.4892;1.2417;
1114.5000;0.4843;1.2323;
1114.8000;0.4892;1.2464;
1115.1000;0.4884;1.2441;
1115.4000;0.4892;1.2394;
1115.7000;0.4876;1.2323;
1116.0000;0.4860;1.2276;
1116.3000;0.4892;1.2370;
1116.6000;0.4876;1.2300;
1116.9000;0.4868;1.2253;
1117.2000;0.4892;1.2253;
1117.5000;0.4884;1.2230;
1117.8000;0.4876;1.2159;
1118.1000;0.4884;1.2159;
1118.4000;0.4876;1.2159;
1118.7000;0.4876;1.2230;
1119.0000;0.4876;1.2206;
1119.3000;0.4884;1.2183;
1119.6000;0.4876;1.2276;
1119.9000;0.4876;1.2276;
1120.2000;0.4892;1.2253;
1120.5000;0.4884;1.2136;
1120.8000;0.4892;1.2300;
1121.1000;0.4868;1.2276;
1121.4000;0.4876;1.2230;
1121.7000;0.4884;1.2276;
1122.0000;0.4908;1.2276;
1122.3000;0.4908;1.2394;
1122.6000;0.4925;1.2535;
1122.9000;0.4876;1.2394;
1123.2000;0.4884;1.2370;
1123.5000;0.4884;1.2394;
1123.8000;0.4892;1.2347;
1124.1000;0.4884;1.2323;
1124.4000;0.4860;1.2347;
1124.7000;0.4778;1.2159;
1125.0000;0.4884;1.2558;
1125.3000;0.4860;1.2535;
1125.6000;0.4860;1.2488;
1125.9000;0.4900;1.2488;
1126.2000;0.4868;1.2394;
1126.5000;0.4892;1.2464;
1126.8000;0.4876;1.2511;
1127.1000;0.4876;1.2535;
1127.4000;0.4900;1.2511;
1127.7000;0.4876;1.2511;
1128.0000;0.4868;1.2629;
1128.3000;0.4860;1.2558;
1128.6000;0.4884;1.2675;
1128.9000;0.4860;1.2582;
1129.2000;0.4876;1.2652;
1129.5000;0.4868;1.2652;
1129.8000;0.4876;1.2629;
1130.1000;0.4876;1.2652;
1130.4000;0.4868;1.2535;
1130.7000;0.4868;1.2511;
1131.0000;0.4876;1.2652;
1131.3000;0.4892;1.2722;
1131.6000;0.4892;1.2746;
1131.9000;0.4908;1.2793;
1132.2000;0.4876;1.2793;
1132.5000;0.4884;1.2746;
1132.8000;0.4884;1.2746;
1133.1000;0.4892;1.2769;
1133.4000;0.4917;1.2910;
1133.7000;0.4925;1.2910;
1134.0000;0.4892;1.2816;
1134.3000;0.4892;1.2793;
1134.6000;0.4884;1.2675;
1134.9000;0.4819;1.2535;
1135.2000;0.4892;1.2769;
1135.5000;0.4868;1.2675;
1135.8000;0.4900;1.2746;
1136.1000;0.4884;1.2629;
1136.4000;0.4868;1.2511;
1136.7000;0.5014;1.2981;
1137.0000;0.4876;1.2582;
1137.3000;0.4884;1.2605;
1137.6000;0.4884;1.2605;
1137.9000;0.4819;1.2417;
1138.2000;0.4892;1.2652;
1138.5000;0.4851;1.2652;
1138.8000;0.4811;1.2441;
1139.1000;0.4851;1.2511;
1139.4000;0.4876;1.2652;
1139.7000;0.4884;1.2722;
1140.0000;0.4900;1.2793;
1140.3000;0.4876;1.2699;
1140.6000;0.4884;1.2722;
1140.9000;0.4900;1.2746;
1141.2000;0.4884;1.2629;
1141.5000;0.4884;1.2652;
1141.8000;0.4884;1.2652;
1142.1000;0.4892;1.2699;
1142.4000;0.4868;1.2675;
1142.7000;0.4876;1.2699;
1143.0000;0.4876;1.2675;
1143.3000;0.4892;1.2793;
1143.6000;0.4892;1.2793;
1143.9000;0.4900;1.2699;
1144.2000;0.4892;1.2675;
1144.5000;0.4884;1.2699;
1144.8000;0.4884;1.2699;
1145.1000;0.4884;1.2722;
1145.4000;0.4876;1.2675;
1145.7000;0.4851;1.2675;
1146.0000;0.4884;1.2605;
1146.3000;0.4876;1.2558;
1146.6000;0.4892;1.2511;
1146.9000;0.4900;1.2488;
1147.2000;0.4860;1.2441;
1147.5000;0.4876;1.2535;
1147.8000;0.4892;1.2675;
1148.1000;0.4884;1.2558;
1148.4000;0.4876;1.2558;
1148.7000;0.4900;1.2605;
1149.0000;0.4884;1.2488;
1149.3000;0.4860;1.2488;
1149.6000;0.4949;1.2769;
1149.9000;0.4900;1.2558;
1150.2000;0.4803;1.2300;
1150.5000;0.4900;1.2535;
1150.8000;0.4892;1.2370;
1151.1000;0.4843;1.2230;
1151.4000;0.4868;1.2323;
1151.7000;0.4868;1.2394;
1152.0000;0.4876;1.2394;
1152.3000;0.4860;1.2464;
1152.6000;0.4868;1.2488;
1152.9000;0.4892;1.2535;
1153.2000;0.4884;1.2488;
1153.5000;0.4900;1.2558;
1153.8000;0.4884;1.2535;
1154.1000;0.4876;1.2488;
1154.4000;0.4892;1.2605;
1154.7000;0.4884;1.2558;
1155.0000;0.4876;1.2464;
1155.3000;0.4892;1.2464;
1155.6000;0.4868;1.2488;
1155.9000;0.4908;1.2605;
1156.2000;0.4876;1.2370;
1156.5000;0.4876;1.2370;
1156.8000;0.4900;1.2511;
1157.1000;0.4884;1.2488;
1157.4000;0.4876;1.2488;
1157.7000;0.4884;1.2558;
1158.0000;0.4892;1.2582;
1158.3000;0.4892;1.2558;
1158.6000;0.4892;1.2558;
1158.9000;0.4892;1.2535;
1159.2000;0.4884;1.2370;
1159.5000;0.4900;1.2417;
1159.8000;0.4876;1.2347;
1160.1000;0.4900;1.2370;
1160.4000;0.4819;1.2253;
1160.7000;0.4884;1.2464;
1161.0000;0.4876;1.2464;
1161.3000;0.4876;1.2511;
1161.6000;0.4843;1.2394;
1161.9000;0.4933;1.2558;
1162.2000;0.4876;1.2535;
1162.5000;0.4884;1.2558;
1162.8000;0.4827;1.2394;
1163.1000;0.4876;1.2558;
1163.4000;0.4892;1.2582;
1163.7000;0.4884;1.2582;
1164.0000;0.4851;1.2488;
1164.3000;0.4892;1.2582;
1164.6000;0.4884;1.2652;
1164.9000;0.4868;1.2652;
1165.2000;0.4835;1.2511;
1165.5000;0.4884;1.2699;
1165.8000;0.4925;1.2816;
1166.1000;0.4900;1.2746;
1166.4000;0.4949;1.2863;
1166.7000;0.4876;1.2582;
1167.0000;0.4868;1.2558;
1167.3000;0.4851;1.2417;
1167.6000;0.4851;1.2370;
1167.9000;0.4868;1.2488;
1168.2000;0.4892;1.2558;
1168.5000;0.4925;1.2652;
1168.8000;0.4892;1.2558;
1169.1000;0.4868;1.2582;
1169.4000;0.4860;1.2535;
1169.7000;0.4892;1.2535;
1170.0000;0.4941;1.2746;
1170.3000;0.4892;1.2582;
1170.6000;0.4884;1.2511;
1170.9000;0.4876;1.2488;
1171.2000;0.4900;1.2582;
1171.5000;0.4892;1.2629;
1171.8000;0.4908;1.2629;
1172.1000;0.4868;1.2511;
1172.4000;0.4884;1.2558;
1172.7000;0.4884;1.2652;
1173.0000;0.4876;1.2535;
1173.3000;0.4884;1.2511;
1173.6000;0.4876;1.2511;
1173.9000;0.4892;1.2535;
1174.2000;0.4900;1.2582;
1174.5000;0.4876;1.2582;
1174.8000;0.4892;1.2699;
1175.1000;0.4900;1.2722;
1175.4000;0.4892;1.2722;
1175.7000;0.4908;1.2746;
1176.0000;0.4892;1.2722;
1176.3000;0.4908;1.2699;
1176.6000;0.4884;1.2629;
1176.9000;0.4876;1.2558;
1177.2000;0.4876;1.2488;
1177.5000;0.4884;1.2605;
1177.8000;0.4917;1.2722;
1178.1000;0.4884;1.2605;
1178.4000;0.4876;1.2511;
1178.7000;0.4884;1.2582;
1179.0000;0.4876;1.2699;
1179.3000;0.4868;1.2722;
1179.6000;0.4933;1.2863;
1179.9000;0.4892;1.2769;
1180.2000;0.4884;1.2746;
1180.5000;0.4876;1.2699;
1180.8000;0.4884;1.2629;
1181.1000;0.4876;1.2699;
1181.4000;0.4900;1.2722;
1181.7000;0.4868;1.2605;
1182.0000;0.4835;1.2370;
1182.3000;0.4876;1.2535;
1182.6000;0.4876;1.2629;
1182.9000;0.4884;1.2699;
1183.2000;0.4868;1.2629;
1183.5000;0.4876;1.2629;
1183.8000;0.4868;1.2582;
1184.1000;0.4884;1.2558;
1184.4000;0.4786;1.2370;
1184.7000;0.4900;1.2605;
1185.0000;0.4876;1.2558;
1185.3000;0.4884;1.2558;
1185.6000;0.4884;1.2535;
1185.9000;0.4900;1.2558;
1186.2000;0.4892;1.2558;
1186.5000;0.4876;1.2558;
1186.8000;0.4876;1.2511;
1187.1000;0.4884;1.2582;
1187.4000;0.4868;1.2558;
1187.7000;0.4876;1.2511;
1188.0000;0.4884;1.2535;
1188.3000;0.4900;1.2488;
1188.6000;0.4892;1.2394;
1188.9000;0.4876;1.2488;
1189.2000;0.4876;1.2464;
1189.5000;0.4876;1.2488;
1189.8000;0.4868;1.2464;
1190.1000;0.4884;1.2535;
1190.4000;0.4908;1.2652;
1190.7000;0.4876;1.2605;
1191.0000;0.4884;1.2582;
1191.3000;0.4851;1.2464;
1191.6000;0.4876;1.2652;
1191.9000;0.4884;1.2699;
1192.2000;0.4884;1.2605;
1192.5000;0.4860;1.2464;
1192.8000;0.4860;1.2488;
1193.1000;0.4933;1.2629;
1193.4000;0.4876;1.2511;
1193.7000;0.4843;1.2441;
1194.0000;0.4876;1.2535;
1194.3000;0.4868;1.2558;
1194.6000;0.4851;1.2535;
1194.9000;0.4860;1.2558;
1195.2000;0.4908;1.2652;
1195.5000;0.4876;1.2629;
1195.8000;0.4884;1.2675;
1196.1000;0.4868;1.2582;
1196.4000;0.4917;1.2629;
1196.7000;0.4892;1.2535;
1197.0000;0.4908;1.2629;
1197.3000;0.4892;1.2675;
1197.6000;0.4851;1.2652;
1197.9000;0.4892;1.2746;
1198.2000;0.4998;1.3098;
1198.5000;0.4892;1.2769;
1198.8000;0.4892;1.2675;
1199.1000;0.4884;1.2535;
1199.4000;0.4884;1.2558;
1199.7000;0.4876;1.2511;
1200.0000;0.4851;1.2441;
1200.3000;0.4819;1.2370;
1200.6000;0.4884;1.2558;
1200.9000;0.4884;1.2629;
1201.2000;0.4884;1.2605;
1201.5000;0.4884;1.2582;
1201.8000;0.4908;1.2816;
1202.1000;0.4884;1.2722;
1202.4000;0.4884;1.2699;
1202.7000;0.4876;1.2675;
1203.0000;0.4868;1.2535;
1203.3000;0.4884;1.2535;
1203.6000;0.4892;1.2652;
1203.9000;0.4892;1.2675;
1204.2000;0.4892;1.2746;
1204.5000;0.4876;1.2605;
1204.8000;0.4908;1.2629;
1205.1000;0.4835;1.2417;
1205.4000;0.4876;1.2511;
1205.7000;0.4884;1.2417;
1206.0000;0.4868;1.2511;
1206.3000;0.4900;1.2652;
1206.6000;0.4900;1.2746;
1206.9000;0.4860;1.2769;
1207.2000;0.4851;1.2722;
1207.5000;0.4957;1.2840;
1207.8000;0.4884;1.2722;
1208.1000;0.4892;1.2629;
1208.4000;0.4697;1.2089;
1208.7000;0.4892;1.2699;
1209.0000;0.4876;1.2699;
1209.3000;0.4990;1.2816;
1209.6000;0.4860;1.2441;
1209.9000;0.4835;1.2417;
1210.2000;0.4908;1.2558;
1210.5000;0.4892;1.2511;
1210.8000;0.4868;1.2535;
1211.1000;0.4884;1.2699;
1211.4000;0.4868;1.2605;
1211.7000;0.4884;1.2582;
1212.0000;0.4876;1.2629;
1212.3000;0.4868;1.2605;
1212.6000;0.4876;1.2652;
1212.9000;0.4786;1.2511;
1213.2000;0.4900;1.2675;
1213.5000;0.4876;1.2699;
1213.8000;0.4892;1.2675;
1214.1000;0.4876;1.2652;
1214.4000;0.4884;1.2629;
1214.7000;0.4876;1.2652;
1215.0000;0.4868;1.2605;
1215.3000;0.4884;1.2605;
1215.6000;0.4860;1.2558;
1215.9000;0.4884;1.2629;
1216.2000;0.4876;1.2675;
1216.5000;0.4876;1.2675;
1216.8000;0.4868;1.2722;
1217.1000;0.4884;1.2722;
1217.4000;0.4851;1.2582;
1217.7000;0.4884;1.2675;
1218.0000;0.4851;1.2605;
1218.3000;0.4892;1.2675;
1218.6000;0.4884;1.2699;
1218.9000;0.4884;1.2746;
1219.2000;0.4876;1.2699;
1219.5000;0.4876;1.2699;
1219.8000;0.4892;1.2699;
1220.1000;0.4892;1.2699;
1220.4000;0.4868;1.2558;
1220.7000;0.4884;1.2558;
1221.0000;0.4860;1.2488;
1221.3000;0.4876;1.2558;
1221.6000;0.4884;1.2558;
1221.9000;0.4884;1.2511;
1222.2000;0.4933;1.2746;
1222.5000;0.4876;1.2652;
1222.8000;0.4876;1.2652;
1223.1000;0.4851;1.2582;
1223.4000;0.4892;1.2722;
1223.7000;0.4876;1.2769;
1224.0000;0.4884;1.2816;
1224.3000;0.4884;1.2816;
1224.6000;0.4892;1.2816;
1224.9000;0.4868;1.2746;
1225.2000;0.4884;1.2699;
1225.5000;0.4868;1.2675;
1225.8000;0.4843;1.2605;
1226.1000;0.4876;1.2652;
1226.4000;0.4868;1.2699;
1226.7000;0.4868;1.2675;
1227.0000;0.4860;1.2722;
1227.3000;0.4876;1.2746;
1227.6000;0.4876;1.2769;
1227.9000;0.4868;1.2793;
1228.2000;0.4876;1.2793;
1228.5000;0.4892;1.2840;
1228.8000;0.4925;1.2957;
1229.1000;0.4892;1.2863;
1229.4000;0.4900;1.2887;
1229.7000;0.4876;1.2863;
1230.0000;0.4884;1.2769;
1230.3000;0.4884;1.2746;
1230.6000;0.4982;1.3004;
1230.9000;0.4884;1.2769;
1231.2000;0.4949;1.2863;
1231.5000;0.4762;1.2323;
1231.8000;0.4819;1.2488;
1232.1000;0.4786;1.2394;
1232.4000;0.4794;1.2441;
1232.7000;0.4868;1.2629;
1233.0000;0.4917;1.2722;
1233.3000;0.4925;1.2629;
1233.6000;0.4884;1.2417;
1233.9000;0.4860;1.2488;
1234.2000;0.4876;1.2558;
1234.5000;0.4851;1.2511;
1234.8000;0.4884;1.2582;
1235.1000;0.4884;1.2582;
1235.4000;0.4868;1.2535;
1235.7000;0.4884;1.2558;
1236.0000;0.4892;1.2535;
1236.3000;0.4843;1.2417;
1236.6000;0.4876;1.2511;
1236.9000;0.4884;1.2488;
1237.2000;0.4900;1.2511;
1237.5000;0.4827;1.2417;
1237.8000;0.4884;1.2582;
1238.1000;0.4884;1.2511;
1238.4000;0.4876;1.2535;
1238.7000;0.4868;1.2464;
1239.0000;0.4868;1.2464;
1239.3000;0.4876;1.2511;
1239.6000;0.4860;1.2488;
1239.9000;0.4892;1.2511;
1240.2000;0.4892;1.2417;
1240.5000;0.4925;1.2488;
1240.8000;0.4925;1.2535;
1241.1000;0.4868;1.2394;
1241.4000;0.4892;1.2464;
1241.7000;0.4884;1.2441;
1242.0000;0.4868;1.2417;
1242.3000;0.4868;1.2347;
1242.6000;0.4876;1.2300;
1242.9000;0.4884;1.2370;
1243.2000;0.4892;1.2464;
1243.5000;0.4884;1.2417;
1243.8000;0.4851;1.2347;
1244.1000;0.4974;1.2699;
1244.4000;0.4876;1.2441;
1244.7000;0.4835;1.2323;
1245.0000;0.4876;1.2394;
1245.3000;0.4868;1.2417;
1245.6000;0.4876;1.2323;
1245.9000;0.4876;1.2347;
1246.2000;0.4876;1.2300;
1246.5000;0.4900;1.2323;
1246.8000;0.4949;1.2558;
1247.1000;0.4786;1.2136;
1247.4000;0.4892;1.2394;
1247.7000;0.4876;1.2323;
1248.0000;0.4868;1.2347;
1248.3000;0.4851;1.2394;
1248.6000;0.4876;1.2464;
1248.9000;0.4876;1.2535;
1249.2000;0.4876;1.2558;
1249.5000;0.4860;1.2441;
1249.8000;0.4933;1.2605;
1250.1000;0.4884;1.2488;
1250.4000;0.4884;1.2488;
1250.7000;0.4892;1.2582;
1251.0000;0.4884;1.2582;
1251.3000;0.4908;1.2582;
1251.6000;0.4876;1.2535;
1251.9000;0.4892;1.2582;
1252.2000;0.4892;1.2629;
1252.5000;0.4892;1.2675;
1252.8000;0.4892;1.2629;
1253.1000;0.4876;1.2629;
1253.4000;0.4876;1.2535;
1253.7000;0.4868;1.2535;
1254.0000;0.4868;1.2629;
1254.3000;0.4884;1.2746;
1254.6000;0.4851;1.2793;
1254.9000;0.4851;1.2652;
1255.2000;0.4868;1.2769;
1255.5000;0.4811;1.2558;
1255.8000;0.4794;1.2511;
1256.1000;0.4868;1.2793;
1256.4000;0.4884;1.2722;
1256.7000;0.4884;1.2769;
1257.0000;0.4876;1.2840;
1257.3000;0.4876;1.2840;
1257.6000;0.4908;1.2769;
1257.9000;0.4860;1.2722;
1258.2000;0.4876;1.2722;
1258.5000;0.4876;1.2746;
1258.8000;0.4860;1.2722;
1259.1000;0.4876;1.2769;
1259.4000;0.4868;1.2769;
1259.7000;0.4868;1.2840;
1260.0000;0.4876;1.2746;
1260.3000;0.4876;1.2746;
1260.6000;0.4892;1.2769;
1260.9000;0.4868;1.2675;
1261.2000;0.4860;1.2675;
1261.5000;0.4892;1.2675;
1261.8000;0.4908;1.2746;
1262.1000;0.4868;1.2699;
1262.4000;0.4892;1.2769;
1262.7000;0.4900;1.2746;
1263.0000;0.4884;1.2605;
1263.3000;0.4876;1.2558;
1263.6000;0.4819;1.2441;
1263.9000;0.4868;1.2558;
1264.2000;0.4892;1.2675;
1264.5000;0.4876;1.2652;
1264.8000;0.4860;1.2511;
1265.1000;0.4884;1.2535;
1265.4000;0.4876;1.2629;
1265.7000;0.4884;1.2746;
1266.0000;0.4876;1.2722;
1266.3000;0.4892;1.2769;
1266.6000;0.4876;1.2769;
1266.9000;0.4892;1.2675;
1267.2000;0.4892;1.2582;
1267.5000;0.4884;1.2582;
1267.8000;0.4884;1.2605;
1268.1000;0.4982;1.2910;
1268.4000;0.4876;1.2652;
1268.7000;0.4876;1.2652;
1269.0000;0.4884;1.2699;
1269.3000;0.4851;1.2652;
1269.6000;0.4900;1.2699;
1269.9000;0.4868;1.2699;
1270.2000;0.4941;1.2793;
1270.5000;0.4868;1.2675;
1270.8000;0.4868;1.2699;
1271.1000;0.4843;1.2652;
1271.4000;0.4860;1.2535;
1271.7000;0.4892;1.2582;
1272.0000;0.4892;1.2558;
1272.3000;0.4884;1.2511;
1272.6000;0.4860;1.2464;
1272.9000;0.4876;1.2582;
1273.2000;0.4868;1.2582;
1273.5000;0.4851;1.2535;
1273.8000;0.4884;1.2558;
1274.1000;0.4876;1.2488;
1274.4000;0.4884;1.2582;
1274.7000;0.4884;1.2605;
1275.0000;0.4884;1.2582;
1275.3000;0.4900;1.2558;
1275.6000;0.4892;1.2535;
1275.9000;0.4884;1.2629;
1276.2000;0.4851;1.2629;
1276.5000;0.4843;1.2582;
1276.8000;0.4876;1.2675;
1277.1000;0.4868;1.2699;
1277.4000;0.4884;1.2699;
1277.7000;0.4851;1.2605;
1278.0000;0.4851;1.2582;
1278.3000;0.4941;1.2699;
1278.6000;0.4925;1.2629;
1278.9000;0.4884;1.2605;
1279.2000;0.4892;1.2629;
1279.5000;0.4876;1.2652;
1279.8000;0.4860;1.2605;
1280.1000;0.4884;1.2652;
1280.4000;0.4860;1.2605;
1280.7000;0.4876;1.2582;
1281.0000;0.4900;1.2605;
1281.3000;0.4851;1.2488;
1281.6000;0.4884;1.2488;
1281.9000;0.4900;1.2511;
1282.2000;0.4884;1.2417;
1282.5000;0.4884;1.2441;
1282.8000;0.4933;1.2605;
1283.1000;0.4884;1.2558;
1283.4000;0.4876;1.2511;
1283.7000;0.4860;1.2511;
1284.0000;0.4860;1.2464;
1284.3000;0.4884;1.2511;
1284.6000;0.4884;1.2558;
1284.9000;0.4876;1.2535;
1285.2000;0.4860;1.2582;
1285.5000;0.4868;1.2605;
1285.8000;0.4884;1.2629;
1286.1000;0.4892;1.2629;
1286.4000;0.4876;1.2582;
1286.7000;0.4884;1.2558;
1287.0000;0.4860;1.2558;
1287.3000;0.4884;1.2629;
1287.6000;0.4925;1.2652;
1287.9000;0.4900;1.2605;
1288.2000;0.4884;1.2629;
1288.5000;0.4884;1.2582;
1288.8000;0.4884;1.2535;
1289.1000;0.4868;1.2488;
1289.4000;0.4860;1.2417;
1289.7000;0.4900;1.2582;
1290.0000;0.4876;1.2488;
1290.3000;0.4868;1.2347;
1290.6000;0.4892;1.2441;
1290.9000;0.4957;1.2675;
1291.2000;0.4917;1.2629;
1291.5000;0.4876;1.2675;
1291.8000;0.4868;1.2699;
1292.1000;0.4835;1.2535;
1292.4000;0.4843;1.2582;
1292.7000;0.4900;1.2793;
1293.0000;0.4876;1.2722;
1293.3000;0.4884;1.2746;
1293.6000;0.4892;1.2769;
1293.9000;0.4884;1.2840;
1294.2000;0.4860;1.2746;
1294.5000;0.4933;1.2887;
1294.8000;0.4884;1.2746;
1295.1000;0.4876;1.2816;
1295.4000;0.4868;1.2722;
1295.7000;0.4876;1.2629;
1296.0000;0.4884;1.2605;
1296.3000;0.4876;1.2652;
1296.6000;0.4868;1.2605;
1296.9000;0.4868;1.2558;
1297.2000;0.4917;1.2605;
1297.5000;0.4876;1.2629;
1297.8000;0.4884;1.2722;
1298.1000;0.4892;1.2793;
1298.4000;0.4876;1.2675;
1298.7000;0.4876;1.2652;
1299.0000;0.4884;1.2652;
1299.3000;0.4900;1.2769;
1299.6000;0.4917;1.2722;
1299.9000;0.4884;1.2652;
1300.2000;0.4884;1.2675;
1300.5000;0.4884;1.2746;
1300.8000;0.4892;1.2746;
1301.1000;0.4884;1.2699;
1301.4000;0.4884;1.2652;
1301.7000;0.4868;1.2605;
1302.0000;0.4884;1.2582;
1302.3000;0.4949;1.2746;
1302.6000;0.4884;1.2629;
1302.9000;0.4835;1.2558;
1303.2000;0.4811;1.2488;
1303.5000;0.4892;1.2699;
1303.8000;0.4868;1.2746;
1304.1000;0.4941;1.2840;
1304.4000;0.4900;1.2722;
1304.7000;0.4868;1.2652;
1305.0000;0.4892;1.2652;
1305.3000;0.4876;1.2652;
1305.6000;0.4892;1.2699;
1305.9000;0.4884;1.2535;
1306.2000;0.4860;1.2417;
1306.5000;0.4876;1.2488;
1306.8000;0.4876;1.2511;
1307.1000;0.4892;1.2558;
1307.4000;0.4884;1.2535;
1307.7000;0.4884;1.2511;
1308.0000;0.4876;1.2558;
1308.3000;0.4868;1.2464;
1308.6000;0.4860;1.2464;
1308.9000;0.4868;1.2464;
1309.2000;0.4868;1.2511;
1309.5000;0.4974;1.2816;
1309.8000;0.4868;1.2582;
1310.1000;0.4876;1.2629;
1310.4000;0.4868;1.2652;
1310.7000;0.4884;1.2746;
1311.0000;0.4900;1.2793;
1311.3000;0.4884;1.2769;
1311.6000;0.4884;1.2793;
1311.9000;0.4876;1.2793;
1312.2000;0.4884;1.2793;
1312.5000;0.4868;1.2699;
1312.8000;0.4949;1.2863;
1313.1000;0.4876;1.2675;
1313.4000;0.4884;1.2675;
1313.7000;0.4868;1.2605;
1314.0000;0.4876;1.2699;
1314.3000;0.4892;1.2722;
1314.6000;0.4900;1.2652;
1314.9000;0.4892;1.2699;
1315.2000;0.4868;1.2699;
1315.5000;0.4876;1.2675;
1315.8000;0.4876;1.2652;
1316.1000;0.4860;1.2629;
1316.4000;0.4876;1.2699;
1316.7000;0.4860;1.2722;
1317.0000;0.4884;1.2793;
1317.3000;0.4876;1.2675;
1317.6000;0.4884;1.2652;
1317.9000;0.4884;1.2652;
1318.2000;0.4876;1.2699;
1318.5000;0.4900;1.2675;
1318.8000;0.4868;1.2605;
1319.1000;0.4876;1.2582;
1319.4000;0.4876;1.2699;
1319.7000;0.4868;1.2652;
1320.0000;0.4868;1.2535;
1320.3000;0.4851;1.2441;
1320.6000;0.4876;1.2464;
1320.9000;0.4843;1.2441;
1321.2000;0.4851;1.2558;
1321.5000;0.4876;1.2699;
1321.8000;0.4884;1.2722;
1322.1000;0.4884;1.2746;
1322.4000;0.4917;1.2746;
1322.7000;0.4892;1.2652;
1323.0000;0.4884;1.2722;
1323.3000;0.4965;1.2910;
1323.6000;0.4900;1.2699;
1323.9000;0.4949;1.2746;
1324.2000;0.4827;1.2394;
1324.5000;0.4941;1.2793;
1324.8000;0.4884;1.2652;
1325.1000;0.4876;1.2558;
1325.4000;0.4941;1.2746;
1325.7000;0.4884;1.2675;
1326.0000;0.4843;1.2582;
1326.3000;0.4819;1.2488;
1326.6000;0.4803;1.2464;
1326.9000;0.4876;1.2746;
1327.2000;0.4876;1.2840;
1327.5000;0.4892;1.2816;
1327.8000;0.4876;1.2675;
1328.1000;0.4900;1.2699;
1328.4000;0.4876;1.2722;
1328.7000;0.4876;1.2722;
1329.0000;0.4876;1.2769;
1329.3000;0.4876;1.2699;
1329.6000;0.4868;1.2675;
1329.9000;0.4876;1.2675;
1330.2000;0.4868;1.2652;
1330.5000;0.4868;1.2582;
1330.8000;0.4860;1.2652;
1331.1000;0.4892;1.2699;
1331.4000;0.4868;1.2675;
1331.7000;0.4843;1.2605;
1332.0000;0.4876;1.2675;
1332.3000;0.4868;1.2558;
1332.6000;0.4884;1.2558;
1332.9000;0.4884;1.2464;
1333.2000;0.4892;1.2535;
1333.5000;0.4868;1.2629;
1333.8000;0.4884;1.2629;
1334.1000;0.4884;1.2722;
1334.4000;0.4892;1.2840;
1334.7000;0.4941;1.2957;
1335.0000;0.4884;1.2840;
1335.3000;0.4876;1.2769;
1335.6000;0.4917;1.2863;
1335.9000;0.4868;1.2769;
1336.2000;0.4876;1.2675;
1336.5000;0.4884;1.2605;
1336.8000;0.4884;1.2535;
1337.1000;0.4908;1.2582;
1337.4000;0.4876;1.2511;
1337.7000;0.4803;1.2276;
1338.0000;0.4860;1.2535;
1338.3000;0.4892;1.2675;
1338.6000;0.4884;1.2652;
1338.9000;0.4892;1.2652;
1339.2000;0.4892;1.2722;
1339.5000;0.4811;1.2535;
1339.8000;0.4884;1.2769;
1340.1000;0.4900;1.2816;
1340.4000;0.4876;1.2746;
1340.7000;0.4860;1.2629;
1341.0000;0.4868;1.2675;
1341.3000;0.4843;1.2535;
1341.6000;0.4917;1.2675;
1341.9000;0.4884;1.2629;
1342.2000;0.4786;1.2417;
1342.5000;0.4933;1.2769;
1342.8000;0.4884;1.2558;
1343.1000;0.4876;1.2605;
1343.4000;0.4876;1.2558;
1343.7000;0.4876;1.2605;
1344.0000;0.4876;1.2582;
1344.3000;0.4884;1.2652;
1344.6000;0.4884;1.2652;
1344.9000;0.4908;1.2675;
1345.2000;0.4884;1.2535;
1345.5000;0.4876;1.2464;
1345.8000;0.4876;1.2370;
1346.1000;0.4876;1.2464;
1346.4000;0.4835;1.2394;
1346.7000;0.4811;1.2323;
1347.0000;0.4876;1.2511;
1347.3000;0.4860;1.2511;
1347.6000;0.4884;1.2652;
1347.9000;0.4876;1.2629;
1348.2000;0.4884;1.2582;
1348.5000;0.4876;1.2582;
1348.8000;0.4868;1.2464;
1349.1000;0.4892;1.2535;
1349.4000;0.4868;1.2558;
1349.7000;0.4876;1.2675;
1350.0000;0.4811;1.2511;
1350.3000;0.4884;1.2746;
1350.6000;0.4892;1.2699;
1350.9000;0.4884;1.2675;
1351.2000;0.4860;1.2535;
1351.5000;0.4860;1.2535;
1351.8000;0.4876;1.2605;
1352.1000;0.4868;1.2629;
1352.4000;0.4868;1.2582;
1352.7000;0.4851;1.2511;
1353.0000;0.4884;1.2488;
1353.3000;0.4876;1.2417;
1353.6000;0.4876;1.2464;
1353.9000;0.4876;1.2394;
1354.2000;0.4860;1.2394;
1354.5000;0.4868;1.2464;
1354.8000;0.4876;1.2488;
1355.1000;0.4876;1.2441;
1355.4000;0.4851;1.2370;
1355.7000;0.4876;1.2417;
1356.0000;0.4884;1.2464;
1356.3000;0.4876;1.2535;
1356.6000;0.4876;1.2464;
1356.9000;0.4892;1.2370;
1357.2000;0.4876;1.2276;
1357.5000;0.4876;1.2253;
1357.8000;0.4868;1.2112;
1358.1000;0.4868;1.2159;
1358.4000;0.4884;1.2159;
1358.7000;0.4868;1.2159;
1359.0000;0.4835;1.2042;
1359.3000;0.4876;1.2159;
1359.6000;0.4884;1.2159;
1359.9000;0.4884;1.2136;
1360.2000;0.4884;1.2136;
1360.5000;0.4884;1.2136;
1360.8000;0.4884;1.2183;
1361.1000;0.4908;1.2300;
1361.4000;0.4876;1.2300;
1361.7000;0.4949;1.2488;
1362.0000;0.4786;1.2112;
1362.3000;0.4900;1.2441;
1362.6000;0.4851;1.2230;
1362.9000;0.4860;1.2300;
1363.2000;0.4900;1.2417;
1363.5000;0.4860;1.2323;
1363.8000;0.4851;1.2370;
1364.1000;0.4811;1.2159;
1364.4000;0.4868;1.2347;
1364.7000;0.4884;1.2370;
1365.0000;0.4892;1.2300;
1365.3000;0.4860;1.2230;
1365.6000;0.4811;1.2159;
1365.9000;0.4892;1.2370;
1366.2000;0.4908;1.2394;
1366.5000;0.4892;1.2323;
1366.8000;0.4884;1.2394;
1367.1000;0.4884;1.2464;
1367.4000;0.4868;1.2558;
1367.7000;0.4868;1.2605;
1368.0000;0.4868;1.2605;
1368.3000;0.4884;1.2675;
1368.6000;0.4868;1.2605;
1368.9000;0.4884;1.2558;
1369.2000;0.4851;1.2582;
1369.5000;0.4876;1.2605;
1369.8000;0.4827;1.2441;
1370.1000;0.4876;1.2535;
1370.4000;0.4819;1.2441;
1370.7000;0.4860;1.2535;
1371.0000;0.4892;1.2511;
1371.3000;0.4876;1.2417;
1371.6000;0.4843;1.2323;
1371.9000;0.4851;1.2276;
1372.2000;0.4876;1.2276;
1372.5000;0.4917;1.2323;
1372.8000;0.4876;1.2230;
1373.1000;0.4868;1.2159;
1373.4000;0.4884;1.2159;
1373.7000;0.4892;1.2183;
1374.0000;0.4884;1.2253;
1374.3000;0.4876;1.2206;
1374.6000;0.4900;1.2253;
1374.9000;0.4884;1.2253;
1375.2000;0.4892;1.2230;
1375.5000;0.4876;1.2159;
1375.8000;0.4884;1.2230;
1376.1000;0.4884;1.2253;
1376.4000;0.4876;1.2276;
1376.7000;0.4868;1.2370;
1377.0000;0.4868;1.2370;
1377.3000;0.4860;1.2441;
1377.6000;0.4876;1.2417;
1377.9000;0.4876;1.2441;
1378.2000;0.4868;1.2394;
1378.5000;0.4876;1.2464;
1378.8000;0.4835;1.2394;
1379.1000;0.4892;1.2394;
1379.4000;0.4876;1.2417;
1379.7000;0.4884;1.2394;
1380.0000;0.4876;1.2370;
1380.3000;0.4876;1.2323;
1380.6000;0.4868;1.2347;
1380.9000;0.4876;1.2417;
1381.2000;0.4892;1.2394;
1381.5000;0.4884;1.2464;
1381.8000;0.4876;1.2417;
1382.1000;0.4884;1.2394;
1382.4000;0.4892;1.2488;
1382.7000;0.4884;1.2464;
1383.0000;0.4811;1.2183;
1383.3000;0.4884;1.2394;
1383.6000;0.4868;1.2394;
1383.9000;0.4908;1.2417;
1384.2000;0.4851;1.2276;
1384.5000;0.4884;1.2347;
1384.8000;0.4876;1.2206;
1385.1000;0.4892;1.2230;
1385.4000;0.4892;1.2159;
1385.7000;0.4876;1.2159;
1386.0000;0.4876;1.2253;
1386.3000;0.4868;1.2112;
1386.6000;0.4876;1.2206;
1386.9000;0.4876;1.2253;
1387.2000;0.4876;1.2230;
1387.5000;0.4876;1.2230;
1387.8000;0.4876;1.2276;
1388.1000;0.4860;1.2276;
1388.4000;0.4876;1.2323;
1388.7000;0.4884;1.2300;
1389.0000;0.4876;1.2230;
1389.3000;0.4860;1.2206;
1389.6000;0.4900;1.2300;
1389.9000;0.4876;1.2276;
1390.2000;0.4860;1.2230;
1390.5000;0.4884;1.2370;
1390.8000;0.4884;1.2464;
1391.1000;0.4876;1.2441;
1391.4000;0.4884;1.2441;
1391.7000;0.4892;1.2370;
1392.0000;0.4900;1.2370;
1392.3000;0.4892;1.2417;
1392.6000;0.4876;1.2370;
1392.9000;0.4884;1.2323;
1393.2000;0.4892;1.2253;
1393.5000;0.4860;1.2183;
1393.8000;0.4876;1.2253;
1394.1000;0.4851;1.2159;
1394.4000;0.4884;1.2206;
1394.7000;0.4892;1.2253;
1395.0000;0.4819;1.2065;
1395.3000;0.4851;1.2136;
1395.6000;0.4884;1.2183;
1395.9000;0.4900;1.2230;
1396.2000;0.4925;1.2159;
1396.5000;0.4876;1.2065;
1396.8000;0.4843;1.2018;
1397.1000;0.4884;1.2159;
1397.4000;0.4876;1.2136;
1397.7000;0.4908;1.2159;
1398.0000;0.4884;1.2159;
1398.3000;0.4884;1.2136;
1398.6000;0.4851;1.2089;
1398.9000;0.4925;1.2276;
1399.2000;0.4860;1.2136;
1399.5000;0.4876;1.2136;
1399.8000;0.4851;1.2159;
