time/ms;Fluo/V;P700 deltaI/I x10³;
-199.8000;0.5120;-3.3621;
-199.5000;0.5096;-3.3671;
-199.2000;0.5120;-3.3547;
-198.9000;0.5128;-3.3547;
-198.6000;0.5144;-3.3472;
-198.3000;0.5136;-3.3522;
-198.0000;0.5112;-3.3646;
-197.7000;0.5136;-3.3671;
-197.4000;0.5128;-3.3721;
-197.1000;0.5136;-3.3671;
-196.8000;0.5112;-3.3671;
-196.5000;0.5177;-3.3621;
-196.2000;0.5136;-3.3746;
-195.9000;0.5128;-3.3796;
-195.6000;0.5226;-3.3522;
-195.3000;0.5128;-3.3796;
-195.0000;0.5096;-3.3895;
-194.7000;0.5153;-3.3820;
-194.4000;0.5153;-3.3771;
-194.1000;0.5144;-3.3696;
-193.8000;0.5153;-3.3646;
-193.5000;0.5120;-3.3671;
-193.2000;0.5128;-3.3621;
-192.9000;0.5128;-3.3547;
-192.6000;0.5169;-3.3422;
-192.3000;0.5120;-3.3497;
-192.0000;0.5144;-3.3447;
-191.7000;0.5136;-3.3472;
-191.4000;0.5128;-3.3497;
-191.1000;0.5144;-3.3572;
-190.8000;0.5136;-3.3472;
-190.5000;0.5112;-3.3522;
-190.2000;0.5136;-3.3497;
-189.9000;0.5112;-3.3671;
-189.6000;0.5096;-3.3796;
-189.3000;0.5096;-3.3671;
-189.0000;0.5104;-3.3621;
-188.7000;0.5096;-3.3671;
-188.4000;0.5169;-3.3447;
-188.1000;0.5153;-3.3472;
-187.8000;0.5128;-3.3597;
-187.5000;0.5079;-3.3746;
-187.2000;0.5128;-3.3597;
-186.9000;0.5136;-3.3572;
-186.6000;0.5104;-3.3621;
-186.3000;0.5128;-3.3597;
-186.0000;0.5071;-3.3721;
-185.7000;0.5112;-3.3646;
-185.4000;0.5144;-3.3671;
-185.1000;0.5185;-3.3522;
-184.8000;0.5120;-3.3621;
-184.5000;0.5250;-3.3323;
-184.2000;0.5112;-3.3621;
-183.9000;0.5136;-3.3522;
-183.6000;0.5120;-3.3547;
-183.3000;0.5128;-3.3547;
-183.0000;0.5104;-3.3572;
-182.7000;0.5120;-3.3547;
-182.4000;0.5136;-3.3572;
-182.1000;0.5128;-3.3522;
-181.8000;0.5128;-3.3646;
-181.5000;0.5120;-3.3597;
-181.2000;0.5153;-3.3547;
-180.9000;0.5136;-3.3621;
-180.6000;0.5144;-3.3621;
-180.3000;0.5136;-3.3547;
-180.0000;0.5144;-3.3497;
-179.7000;0.5144;-3.3497;
-179.4000;0.5120;-3.3621;
-179.1000;0.5144;-3.3621;
-178.8000;0.5136;-3.3621;
-178.5000;0.5136;-3.3572;
-178.2000;0.5153;-3.3597;
-177.9000;0.5120;-3.3547;
-177.6000;0.5112;-3.3522;
-177.3000;0.5120;-3.3472;
-177.0000;0.5144;-3.3323;
-176.7000;0.5169;-3.3174;
-176.4000;0.5120;-3.3298;
-176.1000;0.5120;-3.3398;
-175.8000;0.5120;-3.3447;
-175.5000;0.5120;-3.3522;
-175.2000;0.5120;-3.3621;
-174.9000;0.5144;-3.3547;
-174.6000;0.5104;-3.3621;
-174.3000;0.5128;-3.3572;
-174.0000;0.5144;-3.3547;
-173.7000;0.5144;-3.3472;
-173.4000;0.5144;-3.3373;
-173.1000;0.5136;-3.3373;
-172.8000;0.5120;-3.3447;
-172.5000;0.5104;-3.3398;
-172.2000;0.5112;-3.3348;
-171.9000;0.5128;-3.3348;
-171.6000;0.5055;-3.3572;
-171.3000;0.5128;-3.3373;
-171.0000;0.5120;-3.3472;
-170.7000;0.5128;-3.3447;
-170.4000;0.5104;-3.3597;
-170.1000;0.5136;-3.3621;
-169.8000;0.5120;-3.3646;
-169.5000;0.5120;-3.3671;
-169.2000;0.5136;-3.3671;
-168.9000;0.5153;-3.3597;
-168.6000;0.5177;-3.3547;
-168.3000;0.5144;-3.3522;
-168.0000;0.5104;-3.3572;
-167.7000;0.5104;-3.3522;
-167.4000;0.5120;-3.3522;
-167.1000;0.5120;-3.3472;
-166.8000;0.5104;-3.3422;
-166.5000;0.5120;-3.3373;
-166.2000;0.5112;-3.3422;
-165.9000;0.5136;-3.3273;
-165.6000;0.5079;-3.3447;
-165.3000;0.5112;-3.3323;
-165.0000;0.5112;-3.3298;
-164.7000;0.5104;-3.3248;
-164.4000;0.5169;-3.3174;
-164.1000;0.5079;-3.3373;
-163.8000;0.5136;-3.3373;
-163.5000;0.5136;-3.3447;
-163.2000;0.5104;-3.3522;
-162.9000;0.5144;-3.3323;
-162.6000;0.5144;-3.3398;
-162.3000;0.5120;-3.3547;
-162.0000;0.5112;-3.3497;
-161.7000;0.5136;-3.3447;
-161.4000;0.5120;-3.3472;
-161.1000;0.5120;-3.3497;
-160.8000;0.5136;-3.3572;
-160.5000;0.5136;-3.3572;
-160.2000;0.5136;-3.3547;
-159.9000;0.5096;-3.3597;
-159.6000;0.5112;-3.3547;
-159.3000;0.5128;-3.3572;
-159.0000;0.5153;-3.3497;
-158.7000;0.5120;-3.3522;
-158.4000;0.5120;-3.3621;
-158.1000;0.5144;-3.3646;
-157.8000;0.5144;-3.3621;
-157.5000;0.5201;-3.3597;
-157.2000;0.5144;-3.3696;
-156.9000;0.5120;-3.3621;
-156.6000;0.5104;-3.3671;
-156.3000;0.5144;-3.3472;
-156.0000;0.5136;-3.3472;
-155.7000;0.5120;-3.3547;
-155.4000;0.5047;-3.3721;
-155.1000;0.5104;-3.3522;
-154.8000;0.5177;-3.3373;
-154.5000;0.5128;-3.3422;
-154.2000;0.5096;-3.3497;
-153.9000;0.5112;-3.3447;
-153.6000;0.5144;-3.3373;
-153.3000;0.5112;-3.3398;
-153.0000;0.5128;-3.3422;
-152.7000;0.5136;-3.3497;
-152.4000;0.5136;-3.3572;
-152.1000;0.5136;-3.3597;
-151.8000;0.5136;-3.3547;
-151.5000;0.5153;-3.3447;
-151.2000;0.5136;-3.3398;
-150.9000;0.5136;-3.3373;
-150.6000;0.5144;-3.3447;
-150.3000;0.5136;-3.3422;
-150.0000;0.5193;-3.3248;
-149.7000;0.5128;-3.3447;
-149.4000;0.5128;-3.3497;
-149.1000;0.5104;-3.3597;
-148.8000;0.5112;-3.3621;
-148.5000;0.5120;-3.3547;
-148.2000;0.5120;-3.3572;
-147.9000;0.5120;-3.3597;
-147.6000;0.5136;-3.3522;
-147.3000;0.5112;-3.3621;
-147.0000;0.5136;-3.3522;
-146.7000;0.5120;-3.3522;
-146.4000;0.5120;-3.3547;
-146.1000;0.5128;-3.3522;
-145.8000;0.5136;-3.3597;
-145.5000;0.5153;-3.3547;
-145.2000;0.5128;-3.3671;
-144.9000;0.5128;-3.3746;
-144.6000;0.5153;-3.3746;
-144.3000;0.5136;-3.3796;
-144.0000;0.5104;-3.3870;
-143.7000;0.5112;-3.3895;
-143.4000;0.5128;-3.3895;
-143.1000;0.5275;-3.3497;
-142.8000;0.5144;-3.3746;
-142.5000;0.5112;-3.3771;
-142.2000;0.5128;-3.3796;
-141.9000;0.5136;-3.3820;
-141.6000;0.5161;-3.3820;
-141.3000;0.5104;-3.3870;
-141.0000;0.5120;-3.3796;
-140.7000;0.5022;-3.3870;
-140.4000;0.5120;-3.3746;
-140.1000;0.5120;-3.3820;
-139.8000;0.5128;-3.3671;
-139.5000;0.5210;-3.3572;
-139.2000;0.5104;-3.3945;
-138.9000;0.5136;-3.3820;
-138.6000;0.5128;-3.3895;
-138.3000;0.5120;-3.3970;
-138.0000;0.5112;-3.3945;
-137.7000;0.5120;-3.3895;
-137.4000;0.5120;-3.3845;
-137.1000;0.5120;-3.3721;
-136.8000;0.5128;-3.3721;
-136.5000;0.5128;-3.3646;
-136.2000;0.5120;-3.3721;
-135.9000;0.5128;-3.3671;
-135.6000;0.5136;-3.3621;
-135.3000;0.5128;-3.3721;
-135.0000;0.5120;-3.3771;
-134.7000;0.5128;-3.3746;
-134.4000;0.5120;-3.3721;
-134.1000;0.5136;-3.3646;
-133.8000;0.5136;-3.3696;
-133.5000;0.5128;-3.3746;
-133.2000;0.5120;-3.3721;
-132.9000;0.5104;-3.3696;
-132.6000;0.5128;-3.3572;
-132.3000;0.5136;-3.3522;
-132.0000;0.5120;-3.3597;
-131.7000;0.5136;-3.3572;
-131.4000;0.5112;-3.3621;
-131.1000;0.5120;-3.3696;
-130.8000;0.5136;-3.3646;
-130.5000;0.5128;-3.3646;
-130.2000;0.5120;-3.3621;
-129.9000;0.5120;-3.3497;
-129.6000;0.5136;-3.3621;
-129.3000;0.5120;-3.3646;
-129.0000;0.5120;-3.3572;
-128.7000;0.5128;-3.3621;
-128.4000;0.5128;-3.3646;
-128.1000;0.5144;-3.3547;
-127.8000;0.5169;-3.3447;
-127.5000;0.5120;-3.3621;
-127.2000;0.5144;-3.3597;
-126.9000;0.5104;-3.3696;
-126.6000;0.5112;-3.3721;
-126.3000;0.5128;-3.3646;
-126.0000;0.5153;-3.3597;
-125.7000;0.5104;-3.3746;
-125.4000;0.5128;-3.3671;
-125.1000;0.5128;-3.3696;
-124.8000;0.5104;-3.3771;
-124.5000;0.5120;-3.3796;
-124.2000;0.5112;-3.3820;
-123.9000;0.5136;-3.3621;
-123.6000;0.5226;-3.3398;
-123.3000;0.5112;-3.3796;
-123.0000;0.5128;-3.3746;
-122.7000;0.5136;-3.3771;
-122.4000;0.5128;-3.3870;
-122.1000;0.5120;-3.3920;
-121.8000;0.5144;-3.3895;
-121.5000;0.5120;-3.3920;
-121.2000;0.5120;-3.3796;
-120.9000;0.5136;-3.3771;
-120.6000;0.5144;-3.3696;
-120.3000;0.5112;-3.3721;
-120.0000;0.5136;-3.3746;
-119.7000;0.5120;-3.3820;
-119.4000;0.5161;-3.3646;
-119.1000;0.5153;-3.3696;
-118.8000;0.5112;-3.3746;
-118.5000;0.5120;-3.3597;
-118.2000;0.5128;-3.3547;
-117.9000;0.5144;-3.3572;
-117.6000;0.5161;-3.3497;
-117.3000;0.5120;-3.3572;
-117.0000;0.5153;-3.3447;
-116.7000;0.5112;-3.3547;
-116.4000;0.5136;-3.3547;
-116.1000;0.5136;-3.3597;
-115.8000;0.5136;-3.3422;
-115.5000;0.5193;-3.3348;
-115.2000;0.5144;-3.3447;
-114.9000;0.5136;-3.3472;
-114.6000;0.5128;-3.3597;
-114.3000;0.5136;-3.3621;
-114.0000;0.5104;-3.3621;
-113.7000;0.5112;-3.3597;
-113.4000;0.5120;-3.3671;
-113.1000;0.5136;-3.3597;
-112.8000;0.5112;-3.3671;
-112.5000;0.5112;-3.3646;
-112.2000;0.5136;-3.3597;
-111.9000;0.5128;-3.3547;
-111.6000;0.5112;-3.3522;
-111.3000;0.5136;-3.3522;
-111.0000;0.5169;-3.3472;
-110.7000;0.5104;-3.3696;
-110.4000;0.5128;-3.3621;
-110.1000;0.5112;-3.3721;
-109.8000;0.5104;-3.3796;
-109.5000;0.5104;-3.3721;
-109.2000;0.5112;-3.3621;
-108.9000;0.5104;-3.3696;
-108.6000;0.5112;-3.3721;
-108.3000;0.5120;-3.3721;
-108.0000;0.5136;-3.3696;
-107.7000;0.5120;-3.3746;
-107.4000;0.5136;-3.3746;
-107.1000;0.5136;-3.3796;
-106.8000;0.5153;-3.3746;
-106.5000;0.5120;-3.3845;
-106.2000;0.5136;-3.3845;
-105.9000;0.5128;-3.3845;
-105.6000;0.5136;-3.3820;
-105.3000;0.5144;-3.3721;
-105.0000;0.5104;-3.3746;
-104.7000;0.5136;-3.3671;
-104.4000;0.5112;-3.3696;
-104.1000;0.5136;-3.3671;
-103.8000;0.5185;-3.3572;
-103.5000;0.5128;-3.3771;
-103.2000;0.5112;-3.3870;
-102.9000;0.5128;-3.3845;
-102.6000;0.5128;-3.3771;
-102.3000;0.5136;-3.3597;
-102.0000;0.5128;-3.3522;
-101.7000;0.5112;-3.3497;
-101.4000;0.5120;-3.3447;
-101.1000;0.5128;-3.3472;
-100.8000;0.5047;-3.3646;
-100.5000;0.5096;-3.3621;
-100.2000;0.5128;-3.3572;
-99.9000;0.5063;-3.3721;
-99.6000;0.5136;-3.3497;
-99.3000;0.5120;-3.3547;
-99.0000;0.5128;-3.3547;
-98.7000;0.5120;-3.3621;
-98.4000;0.5144;-3.3547;
-98.1000;0.5128;-3.3597;
-97.8000;0.5120;-3.3646;
-97.5000;0.5120;-3.3597;
-97.2000;0.5128;-3.3522;
-96.9000;0.5120;-3.3497;
-96.6000;0.5128;-3.3472;
-96.3000;0.5128;-3.3447;
-96.0000;0.5177;-3.3248;
-95.7000;0.5104;-3.3323;
-95.4000;0.5120;-3.3298;
-95.1000;0.5136;-3.3323;
-94.8000;0.5136;-3.3398;
-94.5000;0.5136;-3.3398;
-94.2000;0.5120;-3.3422;
-93.9000;0.5112;-3.3447;
-93.6000;0.5120;-3.3422;
-93.3000;0.5161;-3.3422;
-93.0000;0.5136;-3.3422;
-92.7000;0.5120;-3.3447;
-92.4000;0.5128;-3.3398;
-92.1000;0.5161;-3.3298;
-91.8000;0.5039;-3.3547;
-91.5000;0.5128;-3.3373;
-91.2000;0.5112;-3.3447;
-90.9000;0.5128;-3.3447;
-90.6000;0.5120;-3.3472;
-90.3000;0.5120;-3.3472;
-90.0000;0.5112;-3.3472;
-89.7000;0.5161;-3.3273;
-89.4000;0.5120;-3.3398;
-89.1000;0.5144;-3.3348;
-88.8000;0.5120;-3.3398;
-88.5000;0.5120;-3.3323;
-88.2000;0.5153;-3.3199;
-87.9000;0.5120;-3.3273;
-87.6000;0.5136;-3.3199;
-87.3000;0.5120;-3.3298;
-87.0000;0.5120;-3.3323;
-86.7000;0.5136;-3.3323;
-86.4000;0.5136;-3.3323;
-86.1000;0.5128;-3.3298;
-85.8000;0.5071;-3.3323;
-85.5000;0.5112;-3.3199;
-85.2000;0.5153;-3.3149;
-84.9000;0.5112;-3.3348;
-84.6000;0.5120;-3.3472;
-84.3000;0.5136;-3.3422;
-84.0000;0.5136;-3.3497;
-83.7000;0.5128;-3.3547;
-83.4000;0.5128;-3.3497;
-83.1000;0.5128;-3.3447;
-82.8000;0.5112;-3.3472;
-82.5000;0.5120;-3.3472;
-82.2000;0.5112;-3.3398;
-81.9000;0.5112;-3.3447;
-81.6000;0.5128;-3.3447;
-81.3000;0.5136;-3.3472;
-81.0000;0.5120;-3.3422;
-80.7000;0.5104;-3.3497;
-80.4000;0.5112;-3.3422;
-80.1000;0.5144;-3.3373;
-79.8000;0.5136;-3.3422;
-79.5000;0.5136;-3.3398;
-79.2000;0.5128;-3.3298;
-78.9000;0.5112;-3.3199;
-78.6000;0.5104;-3.3199;
-78.3000;0.5096;-3.3323;
-78.0000;0.5112;-3.3447;
-77.7000;0.5120;-3.3497;
-77.4000;0.5120;-3.3472;
-77.1000;0.5104;-3.3547;
-76.8000;0.5161;-3.3398;
-76.5000;0.5120;-3.3422;
-76.2000;0.5136;-3.3422;
-75.9000;0.5112;-3.3547;
-75.6000;0.5128;-3.3572;
-75.3000;0.5120;-3.3572;
-75.0000;0.5128;-3.3547;
-74.7000;0.5144;-3.3547;
-74.4000;0.5096;-3.3721;
-74.1000;0.5120;-3.3696;
-73.8000;0.5136;-3.3621;
-73.5000;0.5088;-3.3696;
-73.2000;0.5112;-3.3671;
-72.9000;0.5128;-3.3696;
-72.6000;0.5104;-3.3696;
-72.3000;0.5120;-3.3671;
-72.0000;0.5136;-3.3746;
-71.7000;0.5104;-3.3870;
-71.4000;0.5112;-3.3671;
-71.1000;0.5063;-3.3696;
-70.8000;0.5112;-3.3547;
-70.5000;0.5104;-3.3547;
-70.2000;0.5136;-3.3422;
-69.9000;0.5088;-3.3572;
-69.6000;0.5169;-3.3398;
-69.3000;0.5120;-3.3522;
-69.0000;0.5112;-3.3522;
-68.7000;0.5144;-3.3472;
-68.4000;0.5120;-3.3447;
-68.1000;0.5104;-3.3447;
-67.8000;0.5104;-3.3497;
-67.5000;0.5120;-3.3547;
-67.2000;0.5104;-3.3671;
-66.9000;0.5047;-3.3746;
-66.6000;0.5104;-3.3621;
-66.3000;0.5112;-3.3522;
-66.0000;0.5088;-3.3597;
-65.7000;0.5120;-3.3447;
-65.4000;0.5136;-3.3447;
-65.1000;0.5226;-3.3224;
-64.8000;0.5144;-3.3398;
-64.5000;0.5128;-3.3422;
-64.2000;0.5161;-3.3348;
-63.9000;0.5169;-3.3373;
-63.6000;0.5120;-3.3447;
-63.3000;0.5120;-3.3447;
-63.0000;0.5136;-3.3447;
-62.7000;0.5104;-3.3547;
-62.4000;0.5112;-3.3522;
-62.1000;0.5120;-3.3522;
-61.8000;0.5144;-3.3472;
-61.5000;0.5128;-3.3422;
-61.2000;0.5112;-3.3547;
-60.9000;0.5071;-3.3597;
-60.6000;0.5120;-3.3472;
-60.3000;0.5120;-3.3398;
-60.0000;0.5120;-3.3447;
-59.7000;0.5104;-3.3522;
-59.4000;0.5120;-3.3398;
-59.1000;0.5136;-3.3373;
-58.8000;0.5128;-3.3398;
-58.5000;0.5120;-3.3472;
-58.2000;0.5120;-3.3472;
-57.9000;0.5112;-3.3547;
-57.6000;0.5120;-3.3472;
-57.3000;0.5136;-3.3398;
-57.0000;0.5112;-3.3422;
-56.7000;0.5128;-3.3273;
-56.4000;0.5112;-3.3398;
-56.1000;0.5104;-3.3472;
-55.8000;0.5120;-3.3422;
-55.5000;0.5112;-3.3348;
-55.2000;0.5120;-3.3398;
-54.9000;0.5128;-3.3298;
-54.6000;0.5120;-3.3273;
-54.3000;0.5120;-3.3273;
-54.0000;0.5088;-3.3398;
-53.7000;0.5128;-3.3373;
-53.4000;0.5104;-3.3422;
-53.1000;0.5120;-3.3323;
-52.8000;0.5136;-3.3248;
-52.5000;0.5136;-3.3174;
-52.2000;0.5128;-3.3124;
-51.9000;0.5104;-3.3273;
-51.6000;0.5144;-3.3174;
-51.3000;0.5144;-3.3174;
-51.0000;0.5128;-3.3248;
-50.7000;0.5104;-3.3348;
-50.4000;0.5079;-3.3373;
-50.1000;0.5128;-3.3224;
-49.8000;0.5112;-3.3298;
-49.5000;0.5128;-3.3348;
-49.2000;0.5120;-3.3348;
-48.9000;0.5120;-3.3398;
-48.6000;0.5096;-3.3398;
-48.3000;0.5120;-3.3373;
-48.0000;0.5128;-3.3373;
-47.7000;0.5136;-3.3348;
-47.4000;0.5112;-3.3323;
-47.1000;0.5112;-3.3373;
-46.8000;0.5120;-3.3447;
-46.5000;0.5120;-3.3398;
-46.2000;0.5120;-3.3348;
-45.9000;0.5120;-3.3298;
-45.6000;0.5014;-3.3547;
-45.3000;0.5047;-3.3472;
-45.0000;0.5128;-3.3298;
-44.7000;0.5136;-3.3298;
-44.4000;0.5104;-3.3323;
-44.1000;0.5104;-3.3298;
-43.8000;0.5104;-3.3273;
-43.5000;0.5128;-3.3248;
-43.2000;0.5128;-3.3273;
-42.9000;0.5136;-3.3248;
-42.6000;0.5120;-3.3323;
-42.3000;0.5120;-3.3348;
-42.0000;0.5112;-3.3323;
-41.7000;0.5120;-3.3323;
-41.4000;0.5136;-3.3398;
-41.1000;0.5136;-3.3398;
-40.8000;0.5177;-3.3298;
-40.5000;0.5144;-3.3323;
-40.2000;0.5128;-3.3373;
-39.9000;0.5177;-3.3248;
-39.6000;0.5136;-3.3373;
-39.3000;0.5144;-3.3398;
-39.0000;0.5128;-3.3447;
-38.7000;0.5144;-3.3398;
-38.4000;0.5153;-3.3348;
-38.1000;0.5144;-3.3373;
-37.8000;0.5055;-3.3572;
-37.5000;0.5128;-3.3398;
-37.2000;0.5144;-3.3373;
-36.9000;0.5104;-3.3497;
-36.6000;0.5104;-3.3447;
-36.3000;0.5112;-3.3398;
-36.0000;0.5096;-3.3447;
-35.7000;0.5136;-3.3323;
-35.4000;0.5120;-3.3373;
-35.1000;0.5096;-3.3348;
-34.8000;0.5128;-3.3273;
-34.5000;0.5136;-3.3298;
-34.2000;0.5128;-3.3298;
-33.9000;0.5120;-3.3348;
-33.6000;0.5128;-3.3298;
-33.3000;0.5104;-3.3348;
-33.0000;0.5120;-3.3273;
-32.7000;0.5104;-3.3273;
-32.4000;0.5112;-3.3248;
-32.1000;0.5120;-3.3348;
-31.8000;0.5144;-3.3248;
-31.5000;0.5079;-3.3398;
-31.2000;0.5128;-3.3248;
-30.9000;0.5104;-3.3199;
-30.6000;0.5128;-3.3199;
-30.3000;0.5120;-3.3174;
-30.0000;0.5161;-3.3049;
-29.7000;0.5128;-3.3248;
-29.4000;0.5128;-3.3348;
-29.1000;0.5063;-3.3522;
-28.8000;0.5128;-3.3373;
-28.5000;0.5120;-3.3373;
-28.2000;0.5112;-3.3447;
-27.9000;0.5104;-3.3497;
-27.6000;0.5128;-3.3348;
-27.3000;0.5120;-3.3398;
-27.0000;0.5136;-3.3398;
-26.7000;0.5153;-3.3398;
-26.4000;0.5079;-3.3572;
-26.1000;0.5128;-3.3422;
-25.8000;0.5112;-3.3398;
-25.5000;0.5153;-3.3273;
-25.2000;0.5128;-3.3323;
-24.9000;0.5112;-3.3422;
-24.6000;0.5193;-3.3224;
-24.3000;0.5144;-3.3348;
-24.0000;0.5104;-3.3348;
-23.7000;0.5104;-3.3323;
-23.4000;0.5128;-3.3248;
-23.1000;0.5120;-3.3298;
-22.8000;0.5112;-3.3323;
-22.5000;0.5128;-3.3298;
-22.2000;0.5136;-3.3248;
-21.9000;0.5120;-3.3348;
-21.6000;0.5096;-3.3398;
-21.3000;0.5177;-3.3149;
-21.0000;0.5128;-3.3298;
-20.7000;0.5055;-3.3497;
-20.4000;0.5120;-3.3298;
-20.1000;0.5071;-3.3348;
-19.8000;0.5128;-3.3248;
-19.5000;0.5120;-3.3273;
-19.2000;0.5104;-3.3398;
-18.9000;0.5112;-3.3273;
-18.6000;0.5088;-3.3273;
-18.3000;0.5120;-3.3224;
-18.0000;0.5120;-3.3248;
-17.7000;0.5153;-3.3273;
-17.4000;0.5128;-3.3273;
-17.1000;0.5112;-3.3422;
-16.8000;0.5153;-3.3447;
-16.5000;0.5144;-3.3398;
-16.2000;0.5161;-3.3447;
-15.9000;0.5226;-3.3348;
-15.6000;0.5112;-3.3671;
-15.3000;0.5128;-3.3671;
-15.0000;0.5153;-3.3497;
-14.7000;0.5136;-3.3547;
-14.4000;0.5104;-3.3572;
-14.1000;0.5128;-3.3497;
-13.8000;0.5169;-3.3373;
-13.5000;0.5144;-3.3572;
-13.2000;0.5136;-3.3547;
-12.9000;0.5144;-3.3522;
-12.6000;0.5128;-3.3572;
-12.3000;0.5136;-3.3572;
-12.0000;0.5128;-3.3497;
-11.7000;0.5120;-3.3497;
-11.4000;0.5112;-3.3497;
-11.1000;0.5112;-3.3547;
-10.8000;0.5088;-3.3646;
-10.5000;0.5120;-3.3522;
-10.2000;0.5104;-3.3422;
-9.9000;0.5128;-3.3398;
-9.6000;0.5128;-3.3447;
-9.3000;0.5144;-3.3422;
-9.0000;0.5096;-3.3422;
-8.7000;0.5128;-3.3323;
-8.4000;0.5169;-3.3273;
-8.1000;0.5136;-3.3398;
-7.8000;0.5153;-3.3398;
-7.5000;0.5128;-3.3497;
-7.2000;0.5104;-3.3522;
-6.9000;0.5120;-3.3447;
-6.6000;0.5128;-3.3497;
-6.3000;0.5136;-3.3497;
-6.0000;0.5128;-3.3472;
-5.7000;0.5185;-3.3273;
-5.4000;0.5193;-3.3323;
-5.1000;0.5144;-3.3497;
-4.8000;0.5177;-3.3422;
-4.5000;0.5120;-3.3522;
-4.2000;0.5136;-3.3447;
-3.9000;0.5120;-3.3522;
-3.6000;0.5128;-3.3522;
-3.3000;0.5096;-3.3547;
-3.0000;0.5096;-3.3597;
-2.7000;0.5136;-3.3522;
-2.4000;0.5096;-3.3597;
-2.1000;0.5128;-3.3447;
-1.8000;0.5144;-3.3398;
-1.5000;0.5161;-3.3398;
-1.2000;0.5128;-3.3373;
-0.9000;0.5120;-3.3398;
-0.6000;0.5136;-3.3572;
-0.3000;0.5153;-3.3572;
0.0000;0.5153;-3.3572;
0.3000;0.5356;-3.3547;
0.6000;0.5682;-3.3199;
0.9000;0.5958;-3.2801;
1.2000;0.6121;-3.2577;
1.5000;0.6300;-3.2303;
1.8000;0.6439;-3.2080;
2.1000;0.6528;-3.2005;
2.4000;0.6667;-3.1831;
2.7000;0.6740;-3.1756;
3.0000;0.6781;-3.1707;
3.3000;0.6846;-3.1632;
3.6000;0.6927;-3.1433;
3.9000;0.6968;-3.1309;
4.2000;0.7000;-3.1209;
4.5000;0.7074;-3.1110;
4.8000;0.7114;-3.1085;
5.1000;0.7139;-3.0961;
5.4000;0.7155;-3.0886;
5.7000;0.7171;-3.0911;
6.0000;0.7228;-3.0811;
6.3000;0.7236;-3.0861;
6.6000;0.7261;-3.0811;
6.9000;0.7302;-3.0811;
7.2000;0.7310;-3.0836;
7.5000;0.7326;-3.0762;
7.8000;0.7334;-3.0712;
8.1000;0.7334;-3.0762;
8.4000;0.7367;-3.0762;
8.7000;0.7367;-3.0786;
9.0000;0.7383;-3.0836;
9.3000;0.7407;-3.0886;
9.6000;0.7399;-3.0911;
9.9000;0.7440;-3.0786;
10.2000;0.7448;-3.0911;
10.5000;0.7448;-3.1010;
10.8000;0.7448;-3.1010;
11.1000;0.7481;-3.0985;
11.4000;0.7505;-3.0936;
11.7000;0.7481;-3.0985;
12.0000;0.7464;-3.1060;
12.3000;0.7530;-3.0936;
12.6000;0.7538;-3.0911;
12.9000;0.7530;-3.0961;
13.2000;0.7546;-3.0911;
13.5000;0.7546;-3.0861;
13.8000;0.7554;-3.0786;
14.1000;0.7570;-3.0836;
14.4000;0.7505;-3.1035;
14.7000;0.7578;-3.0811;
15.0000;0.7586;-3.0762;
15.3000;0.7595;-3.0811;
15.6000;0.7611;-3.0786;
15.9000;0.7619;-3.0737;
16.2000;0.7554;-3.0911;
16.5000;0.7627;-3.0762;
16.8000;0.7611;-3.0786;
17.1000;0.7635;-3.0737;
17.4000;0.7570;-3.0886;
17.7000;0.7627;-3.0762;
18.0000;0.7643;-3.0737;
18.3000;0.7611;-3.0762;
18.6000;0.7643;-3.0712;
18.9000;0.7652;-3.0662;
19.2000;0.7676;-3.0563;
19.5000;0.7676;-3.0538;
19.8000;0.7676;-3.0637;
20.1000;0.7668;-3.0637;
20.4000;0.7692;-3.0712;
20.7000;0.7676;-3.0886;
21.0000;0.7684;-3.0911;
21.3000;0.7692;-3.0811;
21.6000;0.7684;-3.0861;
21.9000;0.7700;-3.0786;
22.2000;0.7700;-3.0836;
22.5000;0.7709;-3.0936;
22.8000;0.7725;-3.0961;
23.1000;0.7741;-3.0985;
23.4000;0.7725;-3.0936;
23.7000;0.7717;-3.0985;
24.0000;0.7733;-3.1010;
24.3000;0.7733;-3.0886;
24.6000;0.7709;-3.0936;
24.9000;0.7733;-3.0861;
25.2000;0.7725;-3.0861;
25.5000;0.7741;-3.0861;
25.8000;0.7733;-3.0886;
26.1000;0.7717;-3.0811;
26.4000;0.7741;-3.0836;
26.7000;0.7700;-3.0936;
27.0000;0.7749;-3.0861;
27.3000;0.7733;-3.0911;
27.6000;0.7741;-3.0786;
27.9000;0.7700;-3.0936;
28.2000;0.7782;-3.0786;
28.5000;0.7766;-3.0911;
28.8000;0.7766;-3.0786;
29.1000;0.7766;-3.0886;
29.4000;0.7749;-3.0886;
29.7000;0.7766;-3.0811;
30.0000;0.7774;-3.0811;
30.3000;0.7766;-3.0712;
30.6000;0.7790;-3.0687;
30.9000;0.7782;-3.0687;
31.2000;0.7757;-3.0836;
31.5000;0.7774;-3.0712;
31.8000;0.7782;-3.0737;
32.1000;0.7806;-3.0637;
32.4000;0.7798;-3.0588;
32.7000;0.7806;-3.0513;
33.0000;0.7774;-3.0712;
33.3000;0.7823;-3.0662;
33.6000;0.7823;-3.0588;
33.9000;0.7798;-3.0612;
34.2000;0.7790;-3.0612;
34.5000;0.7798;-3.0612;
34.8000;0.7798;-3.0563;
35.1000;0.7790;-3.0612;
35.4000;0.7798;-3.0762;
35.7000;0.7806;-3.0786;
36.0000;0.7806;-3.0762;
36.3000;0.7798;-3.0762;
36.6000;0.7814;-3.0687;
36.9000;0.7790;-3.0737;
37.2000;0.7790;-3.0762;
37.5000;0.7823;-3.0637;
37.8000;0.7814;-3.0662;
38.1000;0.7790;-3.0687;
38.4000;0.7798;-3.0687;
38.7000;0.7823;-3.0687;
39.0000;0.7831;-3.0712;
39.3000;0.7774;-3.0836;
39.6000;0.7814;-3.0762;
39.9000;0.7823;-3.0737;
40.2000;0.7880;-3.0612;
40.5000;0.7814;-3.0861;
40.8000;0.7814;-3.0786;
41.1000;0.7831;-3.0712;
41.4000;0.7749;-3.0911;
41.7000;0.7823;-3.0712;
42.0000;0.7839;-3.0737;
42.3000;0.7839;-3.0786;
42.6000;0.7855;-3.0662;
42.9000;0.7839;-3.0687;
43.2000;0.7823;-3.0762;
43.5000;0.7831;-3.0762;
43.8000;0.7831;-3.0836;
44.1000;0.7839;-3.0737;
44.4000;0.7814;-3.0861;
44.7000;0.7806;-3.0836;
45.0000;0.7855;-3.0712;
45.3000;0.7839;-3.0737;
45.6000;0.7847;-3.0811;
45.9000;0.7814;-3.0911;
46.2000;0.7839;-3.0836;
46.5000;0.7920;-3.0612;
46.8000;0.7855;-3.0762;
47.1000;0.7847;-3.0712;
47.4000;0.7847;-3.0712;
47.7000;0.7847;-3.0762;
48.0000;0.7871;-3.0762;
48.3000;0.7847;-3.0712;
48.6000;0.7904;-3.0513;
48.9000;0.7831;-3.0612;
49.2000;0.7847;-3.0563;
49.5000;0.7798;-3.0588;
49.8000;0.7839;-3.0588;
50.1000;0.7757;-3.0911;
50.4000;0.7863;-3.0662;
50.7000;0.7855;-3.0786;
51.0000;0.7839;-3.0811;
51.3000;0.7839;-3.0836;
51.6000;0.7855;-3.0811;
51.9000;0.7888;-3.0811;
52.2000;0.7896;-3.0712;
52.5000;0.7839;-3.0911;
52.8000;0.7855;-3.0861;
53.1000;0.7790;-3.0985;
53.4000;0.7880;-3.0836;
53.7000;0.7863;-3.0786;
54.0000;0.7871;-3.0762;
54.3000;0.7920;-3.0612;
54.6000;0.7855;-3.0786;
54.9000;0.7920;-3.0612;
55.2000;0.7855;-3.0687;
55.5000;0.7847;-3.0612;
55.8000;0.7896;-3.0463;
56.1000;0.7871;-3.0463;
56.4000;0.7871;-3.0463;
56.7000;0.7863;-3.0513;
57.0000;0.7896;-3.0513;
57.3000;0.7863;-3.0513;
57.6000;0.7871;-3.0563;
57.9000;0.7880;-3.0637;
58.2000;0.7871;-3.0637;
58.5000;0.7888;-3.0538;
58.8000;0.7863;-3.0662;
59.1000;0.7847;-3.0762;
59.4000;0.7855;-3.0762;
59.7000;0.7880;-3.0588;
60.0000;0.7880;-3.0588;
60.3000;0.7896;-3.0563;
60.6000;0.7871;-3.0563;
60.9000;0.7847;-3.0563;
61.2000;0.7839;-3.0612;
61.5000;0.7790;-3.0786;
61.8000;0.7855;-3.0538;
62.1000;0.7855;-3.0488;
62.4000;0.7871;-3.0488;
62.7000;0.7847;-3.0513;
63.0000;0.7871;-3.0588;
63.3000;0.7871;-3.0588;
63.6000;0.7839;-3.0662;
63.9000;0.7993;-3.0389;
64.2000;0.7863;-3.0662;
64.5000;0.7863;-3.0637;
64.8000;0.7880;-3.0662;
65.1000;0.7880;-3.0712;
65.4000;0.7863;-3.0811;
65.7000;0.7896;-3.0811;
66.0000;0.7855;-3.0836;
66.3000;0.7888;-3.0811;
66.6000;0.7896;-3.0786;
66.9000;0.7880;-3.0861;
67.2000;0.7896;-3.0861;
67.5000;0.7904;-3.0861;
67.8000;0.7896;-3.0861;
68.1000;0.7896;-3.0961;
68.4000;0.7855;-3.1010;
68.7000;0.7880;-3.0861;
69.0000;0.7888;-3.0786;
69.3000;0.7888;-3.0762;
69.6000;0.7847;-3.1010;
69.9000;0.7855;-3.1035;
70.2000;0.7888;-3.0911;
70.5000;0.7912;-3.0811;
70.8000;0.7888;-3.0911;
71.1000;0.7880;-3.0886;
71.4000;0.7831;-3.0861;
71.7000;0.7871;-3.0786;
72.0000;0.7888;-3.0762;
72.3000;0.7782;-3.0961;
72.6000;0.7888;-3.0687;
72.9000;0.7896;-3.0662;
73.2000;0.7888;-3.0662;
73.5000;0.7928;-3.0563;
73.8000;0.7896;-3.0662;
74.1000;0.7888;-3.0662;
74.4000;0.7880;-3.0687;
74.7000;0.7888;-3.0737;
75.0000;0.7871;-3.0712;
75.3000;0.7896;-3.0662;
75.6000;0.7888;-3.0712;
75.9000;0.7888;-3.0737;
76.2000;0.7896;-3.0712;
76.5000;0.7888;-3.0687;
76.8000;0.7896;-3.0687;
77.1000;0.7896;-3.0687;
77.4000;0.7880;-3.0737;
77.7000;0.7880;-3.0712;
78.0000;0.7880;-3.0737;
78.3000;0.7896;-3.0811;
78.6000;0.7904;-3.0786;
78.9000;0.7855;-3.0836;
79.2000;0.7904;-3.0737;
79.5000;0.7912;-3.0712;
79.8000;0.7896;-3.0687;
80.1000;0.7896;-3.0563;
80.4000;0.7904;-3.0563;
80.7000;0.7904;-3.0637;
81.0000;0.7896;-3.0687;
81.3000;0.7863;-3.0836;
81.6000;0.7896;-3.0762;
81.9000;0.7896;-3.0886;
82.2000;0.7896;-3.0861;
82.5000;0.7855;-3.0861;
82.8000;0.7912;-3.0786;
83.1000;0.7880;-3.0811;
83.4000;0.7863;-3.0886;
83.7000;0.7871;-3.0911;
84.0000;0.7888;-3.0886;
84.3000;0.7871;-3.0836;
84.6000;0.7888;-3.0836;
84.9000;0.7896;-3.0811;
85.2000;0.7888;-3.0836;
85.5000;0.7880;-3.0936;
85.8000;0.7896;-3.0886;
86.1000;0.7904;-3.0836;
86.4000;0.7912;-3.0762;
86.7000;0.7888;-3.0836;
87.0000;0.7896;-3.0861;
87.3000;0.7871;-3.0886;
87.6000;0.7896;-3.0762;
87.9000;0.7880;-3.0811;
88.2000;0.7896;-3.0786;
88.5000;0.7912;-3.0712;
88.8000;0.7896;-3.0637;
89.1000;0.7896;-3.0687;
89.4000;0.7912;-3.0612;
89.7000;0.7904;-3.0563;
90.0000;0.7896;-3.0637;
90.3000;0.7880;-3.0836;
90.6000;0.7896;-3.0687;
90.9000;0.7863;-3.0762;
91.2000;0.7904;-3.0662;
91.5000;0.7896;-3.0786;
91.8000;0.7880;-3.0811;
92.1000;0.7912;-3.0737;
92.4000;0.7896;-3.0737;
92.7000;0.7888;-3.0662;
93.0000;0.7888;-3.0737;
93.3000;0.7896;-3.0662;
93.6000;0.7928;-3.0563;
93.9000;0.7880;-3.0612;
94.2000;0.7896;-3.0538;
94.5000;0.7847;-3.0637;
94.8000;0.7880;-3.0513;
95.1000;0.7880;-3.0538;
95.4000;0.7855;-3.0563;
95.7000;0.7814;-3.0687;
96.0000;0.7855;-3.0687;
96.3000;0.7871;-3.0637;
96.6000;0.7896;-3.0637;
96.9000;0.7880;-3.0712;
97.2000;0.7912;-3.0612;
97.5000;0.7888;-3.0712;
97.8000;0.7928;-3.0563;
98.1000;0.7888;-3.0687;
98.4000;0.7871;-3.0662;
98.7000;0.7896;-3.0538;
99.0000;0.7888;-3.0513;
99.3000;0.7896;-3.0488;
99.6000;0.7871;-3.0588;
99.9000;0.7896;-3.0612;
100.2000;0.7871;-3.0712;
100.5000;0.7904;-3.0737;
100.8000;0.7896;-3.0786;
101.1000;0.7888;-3.0737;
101.4000;0.7888;-3.0786;
101.7000;0.7871;-3.0786;
102.0000;0.7896;-3.0662;
102.3000;0.7888;-3.0662;
102.6000;0.7896;-3.0563;
102.9000;0.7896;-3.0563;
103.2000;0.7888;-3.0588;
103.5000;0.7880;-3.0588;
103.8000;0.7912;-3.0513;
104.1000;0.7896;-3.0563;
104.4000;0.7904;-3.0563;
104.7000;0.7904;-3.0563;
105.0000;0.7904;-3.0538;
105.3000;0.7888;-3.0687;
105.6000;0.7904;-3.0637;
105.9000;0.7871;-3.0737;
106.2000;0.7888;-3.0762;
106.5000;0.7896;-3.0737;
106.8000;0.7888;-3.0762;
107.1000;0.7888;-3.0811;
107.4000;0.7855;-3.0961;
107.7000;0.7871;-3.0985;
108.0000;0.7880;-3.0985;
108.3000;0.7880;-3.0961;
108.6000;0.7880;-3.0961;
108.9000;0.7798;-3.1184;
109.2000;0.7904;-3.0985;
109.5000;0.7912;-3.0811;
109.8000;0.7904;-3.0737;
110.1000;0.7871;-3.0811;
110.4000;0.7880;-3.0836;
110.7000;0.7888;-3.0737;
111.0000;0.7896;-3.0662;
111.3000;0.7806;-3.0961;
111.6000;0.7871;-3.0786;
111.9000;0.7896;-3.0762;
112.2000;0.7896;-3.0811;
112.5000;0.7896;-3.0861;
112.8000;0.7896;-3.0911;
113.1000;0.7888;-3.0936;
113.4000;0.7855;-3.1085;
113.7000;0.7888;-3.0936;
114.0000;0.7855;-3.0961;
114.3000;0.7880;-3.0861;
114.6000;0.7896;-3.0886;
114.9000;0.7896;-3.0861;
115.2000;0.7912;-3.0811;
115.5000;0.7871;-3.0861;
115.8000;0.7896;-3.0762;
116.1000;0.8034;-3.0413;
116.4000;0.7888;-3.0786;
116.7000;0.7888;-3.0811;
117.0000;0.7953;-3.0612;
117.3000;0.7888;-3.0687;
117.6000;0.7839;-3.0911;
117.9000;0.7912;-3.0712;
118.2000;0.7880;-3.0811;
118.5000;0.7896;-3.0687;
118.8000;0.7888;-3.0612;
119.1000;0.7871;-3.0563;
119.4000;0.7888;-3.0538;
119.7000;0.7920;-3.0438;
120.0000;0.7880;-3.0488;
120.3000;0.7871;-3.0538;
120.6000;0.7937;-3.0438;
120.9000;0.7847;-3.0662;
121.2000;0.7912;-3.0488;
121.5000;0.7855;-3.0612;
121.8000;0.7880;-3.0588;
122.1000;0.7871;-3.0538;
122.4000;0.7871;-3.0588;
122.7000;0.7888;-3.0687;
123.0000;0.7888;-3.0762;
123.3000;0.7888;-3.0687;
123.6000;0.7896;-3.0612;
123.9000;0.7904;-3.0662;
124.2000;0.7896;-3.0737;
124.5000;0.7896;-3.0811;
124.8000;0.7896;-3.0886;
125.1000;0.7904;-3.0861;
125.4000;0.7920;-3.0786;
125.7000;0.7888;-3.0811;
126.0000;0.7880;-3.0786;
126.3000;0.7896;-3.0737;
126.6000;0.7904;-3.0637;
126.9000;0.7896;-3.0612;
127.2000;0.7855;-3.0662;
127.5000;0.7896;-3.0563;
127.8000;0.7896;-3.0538;
128.1000;0.7896;-3.0513;
128.4000;0.7896;-3.0488;
128.7000;0.7863;-3.0588;
129.0000;0.7896;-3.0538;
129.3000;0.7904;-3.0538;
129.6000;0.7904;-3.0588;
129.9000;0.7888;-3.0662;
130.2000;0.7912;-3.0612;
130.5000;0.7863;-3.0687;
130.8000;0.7888;-3.0662;
131.1000;0.7896;-3.0662;
131.4000;0.7863;-3.0612;
131.7000;0.7888;-3.0588;
132.0000;0.7896;-3.0538;
132.3000;0.7896;-3.0637;
132.6000;0.7904;-3.0687;
132.9000;0.7896;-3.0687;
133.2000;0.7896;-3.0662;
133.5000;0.7896;-3.0637;
133.8000;0.7904;-3.0612;
134.1000;0.7896;-3.0662;
134.4000;0.7896;-3.0588;
134.7000;0.7904;-3.0513;
135.0000;0.7920;-3.0463;
135.3000;0.7896;-3.0513;
135.6000;0.7896;-3.0563;
135.9000;0.7904;-3.0588;
136.2000;0.7945;-3.0513;
136.5000;0.7888;-3.0737;
136.8000;0.7904;-3.0588;
137.1000;0.7896;-3.0662;
137.4000;0.7871;-3.0712;
137.7000;0.7880;-3.0687;
138.0000;0.7888;-3.0712;
138.3000;0.7896;-3.0786;
138.6000;0.7888;-3.0712;
138.9000;0.7880;-3.0662;
139.2000;0.7912;-3.0563;
139.5000;0.7888;-3.0612;
139.8000;0.7839;-3.0737;
140.1000;0.7880;-3.0662;
140.4000;0.7871;-3.0687;
140.7000;0.7839;-3.0762;
141.0000;0.7928;-3.0463;
141.3000;0.7888;-3.0563;
141.6000;0.7871;-3.0662;
141.9000;0.7953;-3.0538;
142.2000;0.7904;-3.0662;
142.5000;0.7904;-3.0612;
142.8000;0.7880;-3.0737;
143.1000;0.7896;-3.0712;
143.4000;0.7871;-3.0762;
143.7000;0.7888;-3.0712;
144.0000;0.7912;-3.0637;
144.3000;0.7896;-3.0588;
144.6000;0.7888;-3.0637;
144.9000;0.7888;-3.0612;
145.2000;0.7945;-3.0438;
145.5000;0.7888;-3.0538;
145.8000;0.7896;-3.0563;
146.1000;0.7920;-3.0588;
146.4000;0.7896;-3.0612;
146.7000;0.7912;-3.0588;
147.0000;0.7896;-3.0538;
147.3000;0.7888;-3.0612;
147.6000;0.7896;-3.0637;
147.9000;0.7888;-3.0712;
148.2000;0.7896;-3.0762;
148.5000;0.7888;-3.0786;
148.8000;0.7896;-3.0762;
149.1000;0.7896;-3.0762;
149.4000;0.7912;-3.0762;
149.7000;0.7880;-3.0811;
150.0000;0.7896;-3.0811;
150.3000;0.7904;-3.0762;
150.6000;0.7920;-3.0762;
150.9000;0.7904;-3.0786;
151.2000;0.8018;-3.0513;
151.5000;0.7912;-3.0786;
151.8000;0.7896;-3.0811;
152.1000;0.7904;-3.0762;
152.4000;0.7896;-3.0762;
152.7000;0.7920;-3.0712;
153.0000;0.7880;-3.0836;
153.3000;0.7888;-3.0836;
153.6000;0.7896;-3.0762;
153.9000;0.7912;-3.0662;
154.2000;0.7912;-3.0612;
154.5000;0.7904;-3.0612;
154.8000;0.7888;-3.0588;
155.1000;0.7888;-3.0588;
155.4000;0.7904;-3.0563;
155.7000;0.7896;-3.0662;
156.0000;0.7839;-3.0836;
156.3000;0.7904;-3.0662;
156.6000;0.7904;-3.0612;
156.9000;0.7888;-3.0662;
157.2000;0.7920;-3.0563;
157.5000;0.7896;-3.0612;
157.8000;0.7920;-3.0488;
158.1000;0.7912;-3.0513;
158.4000;0.7896;-3.0612;
158.7000;0.7871;-3.0612;
159.0000;0.7896;-3.0588;
159.3000;0.7904;-3.0588;
159.6000;0.7904;-3.0488;
159.9000;0.7904;-3.0538;
160.2000;0.7912;-3.0438;
160.5000;0.7880;-3.0538;
160.8000;0.7912;-3.0463;
161.1000;0.7912;-3.0563;
161.4000;0.7888;-3.0612;
161.7000;0.7896;-3.0563;
162.0000;0.7912;-3.0463;
162.3000;0.7880;-3.0563;
162.6000;0.7896;-3.0588;
162.9000;0.7896;-3.0588;
163.2000;0.7920;-3.0637;
163.5000;0.7920;-3.0588;
163.8000;0.7896;-3.0637;
164.1000;0.7920;-3.0612;
164.4000;0.7880;-3.0712;
164.7000;0.7896;-3.0612;
165.0000;0.7937;-3.0488;
165.3000;0.7920;-3.0588;
165.6000;0.7920;-3.0637;
165.9000;0.7904;-3.0637;
166.2000;0.7896;-3.0662;
166.5000;0.7831;-3.0886;
166.8000;0.7920;-3.0737;
167.1000;0.7880;-3.0836;
167.4000;0.7961;-3.0662;
167.7000;0.7855;-3.0936;
168.0000;0.7937;-3.0762;
168.3000;0.7904;-3.0737;
168.6000;0.7855;-3.0811;
168.9000;0.7880;-3.0687;
169.2000;0.7880;-3.0588;
169.5000;0.7888;-3.0662;
169.8000;0.7880;-3.0687;
170.1000;0.7888;-3.0737;
170.4000;0.7888;-3.0786;
170.7000;0.7896;-3.0861;
171.0000;0.7904;-3.0836;
171.3000;0.7977;-3.0687;
171.6000;0.7888;-3.0886;
171.9000;0.7798;-3.1060;
172.2000;0.7928;-3.0811;
172.5000;0.7896;-3.0861;
172.8000;0.7888;-3.0836;
173.1000;0.7904;-3.0762;
173.4000;0.7888;-3.0811;
173.7000;0.7880;-3.0936;
174.0000;0.7888;-3.0861;
174.3000;0.7896;-3.0861;
174.6000;0.7977;-3.0637;
174.9000;0.7888;-3.0861;
175.2000;0.7912;-3.0687;
175.5000;0.7896;-3.0762;
175.8000;0.7953;-3.0662;
176.1000;0.7904;-3.0836;
176.4000;0.7880;-3.0961;
176.7000;0.7888;-3.0861;
177.0000;0.7888;-3.0762;
177.3000;0.7888;-3.0762;
177.6000;0.7888;-3.0687;
177.9000;0.7880;-3.0687;
178.2000;0.7880;-3.0687;
178.5000;0.7855;-3.0712;
178.8000;0.7888;-3.0588;
179.1000;0.7880;-3.0538;
179.4000;0.7888;-3.0538;
179.7000;0.7888;-3.0637;
180.0000;0.7888;-3.0637;
180.3000;0.7904;-3.0563;
180.6000;0.7896;-3.0637;
180.9000;0.7880;-3.0737;
181.2000;0.7880;-3.0762;
181.5000;0.7880;-3.0762;
181.8000;0.7896;-3.0737;
182.1000;0.7904;-3.0712;
182.4000;0.7977;-3.0588;
182.7000;0.7945;-3.0612;
183.0000;0.7888;-3.0687;
183.3000;0.7863;-3.0836;
183.6000;0.7880;-3.0762;
183.9000;0.7912;-3.0712;
184.2000;0.7912;-3.0687;
184.5000;0.7871;-3.0762;
184.8000;0.7888;-3.0737;
185.1000;0.7880;-3.0786;
185.4000;0.7904;-3.0786;
185.7000;0.7904;-3.0712;
186.0000;0.7880;-3.0662;
186.3000;0.7880;-3.0637;
186.6000;0.7945;-3.0413;
186.9000;0.7904;-3.0463;
187.2000;0.7904;-3.0438;
187.5000;0.7920;-3.0413;
187.8000;0.7880;-3.0513;
188.1000;0.7904;-3.0364;
188.4000;0.7945;-3.0413;
188.7000;0.7953;-3.0438;
189.0000;0.7912;-3.0612;
189.3000;0.7896;-3.0563;
189.6000;0.7904;-3.0563;
189.9000;0.7904;-3.0588;
190.2000;0.7871;-3.0712;
190.5000;0.7880;-3.0737;
190.8000;0.7871;-3.0811;
191.1000;0.7896;-3.0762;
191.4000;0.7871;-3.0811;
191.7000;0.7896;-3.0737;
192.0000;0.7896;-3.0712;
192.3000;0.7912;-3.0637;
192.6000;0.7904;-3.0637;
192.9000;0.7888;-3.0687;
193.2000;0.7896;-3.0612;
193.5000;0.7896;-3.0612;
193.8000;0.7888;-3.0563;
194.1000;0.7904;-3.0563;
194.4000;0.7896;-3.0513;
194.7000;0.7814;-3.0737;
195.0000;0.7904;-3.0538;
195.3000;0.7896;-3.0563;
195.6000;0.7896;-3.0687;
195.9000;0.7880;-3.0762;
196.2000;0.7871;-3.0886;
196.5000;0.7896;-3.0886;
196.8000;0.7888;-3.0861;
197.1000;0.7896;-3.0811;
197.4000;0.7912;-3.0712;
197.7000;0.7888;-3.0861;
198.0000;0.7880;-3.0861;
198.3000;0.7904;-3.0861;
198.6000;0.7928;-3.0737;
198.9000;0.7847;-3.0961;
199.2000;0.7904;-3.0811;
199.5000;0.7896;-3.0786;
199.8000;0.7912;-3.0737;
200.1000;0.7888;-3.0762;
200.4000;0.7880;-3.0836;
200.7000;0.7896;-3.0886;
201.0000;0.7953;-3.0687;
201.3000;0.7888;-3.0811;
201.6000;0.7904;-3.0662;
201.9000;0.7920;-3.0662;
202.2000;0.7880;-3.0687;
202.5000;0.7896;-3.0687;
202.8000;0.7888;-3.0737;
203.1000;0.7896;-3.0712;
203.4000;0.7880;-3.0712;
203.7000;0.7896;-3.0637;
204.0000;0.7855;-3.0737;
204.3000;0.7920;-3.0637;
204.6000;0.7904;-3.0712;
204.9000;0.7896;-3.0687;
205.2000;0.7888;-3.0687;
205.5000;0.7912;-3.0662;
205.8000;0.7888;-3.0612;
206.1000;0.7888;-3.0662;
206.4000;0.7977;-3.0513;
206.7000;0.7904;-3.0712;
207.0000;0.7904;-3.0687;
207.3000;0.7912;-3.0588;
207.6000;0.7928;-3.0588;
207.9000;0.7920;-3.0662;
208.2000;0.7912;-3.0612;
208.5000;0.7880;-3.0737;
208.8000;0.7912;-3.0687;
209.1000;0.7912;-3.0637;
209.4000;0.7847;-3.0811;
209.7000;0.7896;-3.0786;
210.0000;0.7863;-3.0985;
210.3000;0.7912;-3.0886;
210.6000;0.7896;-3.0961;
210.9000;0.7880;-3.0985;
211.2000;0.7896;-3.0836;
211.5000;0.7880;-3.0762;
211.8000;0.7896;-3.0662;
212.1000;0.7904;-3.0712;
212.4000;0.7896;-3.0836;
212.7000;0.7888;-3.0786;
213.0000;0.7904;-3.0662;
213.3000;0.7896;-3.0538;
213.6000;0.7888;-3.0563;
213.9000;0.7896;-3.0563;
214.2000;0.7904;-3.0488;
214.5000;0.7863;-3.0687;
214.8000;0.7888;-3.0513;
215.1000;0.7871;-3.0588;
215.4000;0.7896;-3.0612;
215.7000;0.7904;-3.0563;
216.0000;0.7904;-3.0588;
216.3000;0.7904;-3.0737;
216.6000;0.7912;-3.0737;
216.9000;0.7912;-3.0662;
217.2000;0.7904;-3.0712;
217.5000;0.7896;-3.0662;
217.8000;0.7904;-3.0712;
218.1000;0.7904;-3.0662;
218.4000;0.7912;-3.0588;
218.7000;0.7847;-3.0712;
219.0000;0.7888;-3.0612;
219.3000;0.7863;-3.0563;
219.6000;0.7888;-3.0538;
219.9000;0.7904;-3.0463;
220.2000;0.7880;-3.0563;
220.5000;0.7888;-3.0588;
220.8000;0.7896;-3.0662;
221.1000;0.7888;-3.0712;
221.4000;0.7896;-3.0612;
221.7000;0.7880;-3.0662;
222.0000;0.7896;-3.0488;
222.3000;0.7863;-3.0513;
222.6000;0.7896;-3.0488;
222.9000;0.7863;-3.0612;
223.2000;0.7888;-3.0687;
223.5000;0.7904;-3.0637;
223.8000;0.7896;-3.0712;
224.1000;0.7896;-3.0786;
224.4000;0.7888;-3.0687;
224.7000;0.7888;-3.0637;
225.0000;0.7904;-3.0612;
225.3000;0.7896;-3.0662;
225.6000;0.7888;-3.0737;
225.9000;0.7880;-3.0687;
226.2000;0.7896;-3.0662;
226.5000;0.7896;-3.0662;
226.8000;0.7871;-3.0662;
227.1000;0.7904;-3.0712;
227.4000;0.7969;-3.0612;
227.7000;0.7896;-3.0811;
228.0000;0.7798;-3.0985;
228.3000;0.7928;-3.0637;
228.6000;0.7912;-3.0712;
228.9000;0.7896;-3.0737;
229.2000;0.7904;-3.0588;
229.5000;0.7863;-3.0687;
229.8000;0.7871;-3.0687;
230.1000;0.7904;-3.0637;
230.4000;0.7871;-3.0762;
230.7000;0.7880;-3.0737;
231.0000;0.7880;-3.0737;
231.3000;0.7896;-3.0762;
231.6000;0.7888;-3.0861;
231.9000;0.7888;-3.0811;
232.2000;0.7871;-3.0886;
232.5000;0.7880;-3.0886;
232.8000;0.7888;-3.0911;
233.1000;0.7896;-3.0811;
233.4000;0.7880;-3.0712;
233.7000;0.7871;-3.0737;
234.0000;0.7896;-3.0563;
234.3000;0.7888;-3.0662;
234.6000;0.7888;-3.0687;
234.9000;0.7904;-3.0637;
235.2000;0.7896;-3.0563;
235.5000;0.7912;-3.0563;
235.8000;0.7880;-3.0612;
236.1000;0.7880;-3.0612;
236.4000;0.7896;-3.0637;
236.7000;0.7888;-3.0687;
237.0000;0.7855;-3.0762;
237.3000;0.7863;-3.0737;
237.6000;0.7863;-3.0662;
237.9000;0.7863;-3.0662;
238.2000;0.7880;-3.0588;
238.5000;0.7880;-3.0563;
238.8000;0.7880;-3.0588;
239.1000;0.7880;-3.0662;
239.4000;0.7888;-3.0513;
239.7000;0.7888;-3.0612;
240.0000;0.7904;-3.0637;
240.3000;0.7904;-3.0612;
240.6000;0.7896;-3.0538;
240.9000;0.7880;-3.0538;
241.2000;0.7953;-3.0389;
241.5000;0.7871;-3.0538;
241.8000;0.7888;-3.0513;
242.1000;0.7888;-3.0438;
242.4000;0.7871;-3.0588;
242.7000;0.7928;-3.0389;
243.0000;0.7880;-3.0538;
243.3000;0.7953;-3.0488;
243.6000;0.7871;-3.0662;
243.9000;0.7888;-3.0612;
244.2000;0.7888;-3.0662;
244.5000;0.7888;-3.0612;
244.8000;0.7880;-3.0612;
245.1000;0.7904;-3.0538;
245.4000;0.7888;-3.0538;
245.7000;0.7904;-3.0513;
246.0000;0.7896;-3.0513;
246.3000;0.7961;-3.0438;
246.6000;0.7888;-3.0612;
246.9000;0.7888;-3.0588;
247.2000;0.7880;-3.0588;
247.5000;0.7880;-3.0637;
247.8000;0.7888;-3.0662;
248.1000;0.7912;-3.0612;
248.4000;0.7888;-3.0662;
248.7000;0.7888;-3.0637;
249.0000;0.7863;-3.0762;
249.3000;0.7953;-3.0488;
249.6000;0.7920;-3.0588;
249.9000;0.7888;-3.0712;
250.2000;0.7896;-3.0612;
250.5000;0.7912;-3.0612;
250.8000;0.7888;-3.0662;
251.1000;0.7904;-3.0737;
251.4000;0.7863;-3.0811;
251.7000;0.7896;-3.0737;
252.0000;0.7904;-3.0588;
252.3000;0.7904;-3.0637;
252.6000;0.7904;-3.0612;
252.9000;0.7888;-3.0662;
253.2000;0.7912;-3.0737;
253.5000;0.7888;-3.0786;
253.8000;0.7888;-3.0861;
254.1000;0.7871;-3.0886;
254.4000;0.7888;-3.0811;
254.7000;0.7880;-3.0737;
255.0000;0.7774;-3.0936;
255.3000;0.7871;-3.0737;
255.6000;0.7880;-3.0687;
255.9000;0.7888;-3.0612;
256.2000;0.7912;-3.0588;
256.5000;0.7871;-3.0687;
256.8000;0.7880;-3.0712;
257.1000;0.7896;-3.0712;
257.4000;0.7920;-3.0687;
257.7000;0.7888;-3.0737;
258.0000;0.7896;-3.0762;
258.3000;0.7871;-3.0712;
258.6000;0.7888;-3.0612;
258.9000;0.7896;-3.0488;
259.2000;0.7896;-3.0513;
259.5000;0.7831;-3.0662;
259.8000;0.7888;-3.0538;
260.1000;0.7888;-3.0413;
260.4000;0.7888;-3.0488;
260.7000;0.7888;-3.0488;
261.0000;0.7888;-3.0513;
261.3000;0.7888;-3.0538;
261.6000;0.7880;-3.0538;
261.9000;0.7888;-3.0563;
262.2000;0.7888;-3.0513;
262.5000;0.7888;-3.0488;
262.8000;0.7888;-3.0438;
263.1000;0.7896;-3.0389;
263.4000;0.7888;-3.0413;
263.7000;0.7888;-3.0438;
264.0000;0.7904;-3.0463;
264.3000;0.7888;-3.0538;
264.6000;0.7871;-3.0637;
264.9000;0.7888;-3.0662;
265.2000;0.7847;-3.0712;
265.5000;0.7912;-3.0588;
265.8000;0.7863;-3.0662;
266.1000;0.7871;-3.0687;
266.4000;0.7880;-3.0612;
266.7000;0.7904;-3.0612;
267.0000;0.7880;-3.0712;
267.3000;0.7888;-3.0662;
267.6000;0.7896;-3.0662;
267.9000;0.7904;-3.0612;
268.2000;0.7871;-3.0662;
268.5000;0.7904;-3.0563;
268.8000;0.7871;-3.0588;
269.1000;0.7888;-3.0538;
269.4000;0.7896;-3.0588;
269.7000;0.7896;-3.0588;
270.0000;0.7896;-3.0563;
270.3000;0.7888;-3.0588;
270.6000;0.7912;-3.0637;
270.9000;0.7888;-3.0637;
271.2000;0.7863;-3.0637;
271.5000;0.7888;-3.0687;
271.8000;0.7806;-3.0886;
272.1000;0.7880;-3.0712;
272.4000;0.7888;-3.0637;
272.7000;0.7823;-3.0836;
273.0000;0.7871;-3.0662;
273.3000;0.7888;-3.0662;
273.6000;0.7888;-3.0662;
273.9000;0.7888;-3.0662;
274.2000;0.7880;-3.0712;
274.5000;0.7880;-3.0762;
274.8000;0.7880;-3.0786;
275.1000;0.7863;-3.0762;
275.4000;0.7863;-3.0836;
275.7000;0.7880;-3.0861;
276.0000;0.7880;-3.0737;
276.3000;0.7880;-3.0811;
276.6000;0.7871;-3.0861;
276.9000;0.7896;-3.0786;
277.2000;0.7888;-3.0861;
277.5000;0.7904;-3.0737;
277.8000;0.7904;-3.0712;
278.1000;0.7863;-3.0762;
278.4000;0.7993;-3.0488;
278.7000;0.7880;-3.0786;
279.0000;0.7945;-3.0612;
279.3000;0.7904;-3.0762;
279.6000;0.7904;-3.0811;
279.9000;0.7871;-3.0961;
280.2000;0.7912;-3.0811;
280.5000;0.7904;-3.0811;
280.8000;0.7896;-3.0811;
281.1000;0.7912;-3.0762;
281.4000;0.7904;-3.0861;
281.7000;0.7888;-3.0886;
282.0000;0.7985;-3.0612;
282.3000;0.7888;-3.0786;
282.6000;0.7871;-3.0737;
282.9000;0.7888;-3.0662;
283.2000;0.7888;-3.0712;
283.5000;0.7896;-3.0712;
283.8000;0.7904;-3.0687;
284.1000;0.8018;-3.0438;
284.4000;0.7880;-3.0662;
284.7000;0.7855;-3.0737;
285.0000;0.7888;-3.0737;
285.3000;0.7888;-3.0737;
285.6000;0.7831;-3.0886;
285.9000;0.7888;-3.0811;
286.2000;0.7888;-3.0786;
286.5000;0.7888;-3.0762;
286.8000;0.7855;-3.0811;
287.1000;0.7863;-3.0737;
287.4000;0.7896;-3.0687;
287.7000;0.7888;-3.0662;
288.0000;0.7896;-3.0637;
288.3000;0.7855;-3.0687;
288.6000;0.7896;-3.0662;
288.9000;0.7896;-3.0687;
289.2000;0.8002;-3.0463;
289.5000;0.7896;-3.0687;
289.8000;0.7880;-3.0637;
290.1000;0.7823;-3.0762;
290.4000;0.7888;-3.0588;
290.7000;0.7880;-3.0612;
291.0000;0.7896;-3.0637;
291.3000;0.7888;-3.0612;
291.6000;0.7888;-3.0662;
291.9000;0.7888;-3.0612;
292.2000;0.7871;-3.0712;
292.5000;0.7888;-3.0662;
292.8000;0.7904;-3.0637;
293.1000;0.7937;-3.0438;
293.4000;0.7904;-3.0588;
293.7000;0.7896;-3.0637;
294.0000;0.7896;-3.0712;
294.3000;0.7896;-3.0712;
294.6000;0.7912;-3.0762;
294.9000;0.7880;-3.0811;
295.2000;0.7871;-3.0762;
295.5000;0.7880;-3.0836;
295.8000;0.7880;-3.0762;
296.1000;0.7880;-3.0836;
296.4000;0.7871;-3.0836;
296.7000;0.7904;-3.0662;
297.0000;0.7863;-3.0737;
297.3000;0.7888;-3.0737;
297.6000;0.7888;-3.0762;
297.9000;0.7871;-3.0886;
298.2000;0.7855;-3.0836;
298.5000;0.7896;-3.0786;
298.8000;0.7823;-3.0961;
299.1000;0.7880;-3.0762;
299.4000;0.7855;-3.0737;
299.7000;0.7920;-3.0588;
300.0000;0.7904;-3.0637;
300.3000;0.7961;-3.0538;
300.6000;0.7888;-3.0762;
300.9000;0.7896;-3.0662;
301.2000;0.7888;-3.0588;
301.5000;0.7896;-3.0612;
301.8000;0.7904;-3.0563;
302.1000;0.7863;-3.0662;
302.4000;0.7896;-3.0712;
302.7000;0.7888;-3.0637;
303.0000;0.7904;-3.0588;
303.3000;0.7912;-3.0588;
303.6000;0.7904;-3.0513;
303.9000;0.7912;-3.0612;
304.2000;0.7896;-3.0762;
304.5000;0.7896;-3.0811;
304.8000;0.7904;-3.0662;
305.1000;0.7888;-3.0612;
305.4000;0.7888;-3.0588;
305.7000;0.7880;-3.0563;
306.0000;0.7985;-3.0314;
306.3000;0.7896;-3.0513;
306.6000;0.7880;-3.0637;
306.9000;0.7904;-3.0612;
307.2000;0.7896;-3.0637;
307.5000;0.7896;-3.0712;
307.8000;0.7880;-3.0687;
308.1000;0.7912;-3.0687;
308.4000;0.7896;-3.0687;
308.7000;0.7904;-3.0662;
309.0000;0.7880;-3.0662;
309.3000;0.7896;-3.0637;
309.6000;0.7904;-3.0712;
309.9000;0.7888;-3.0712;
310.2000;0.7896;-3.0662;
310.5000;0.7888;-3.0687;
310.8000;0.7888;-3.0662;
311.1000;0.7888;-3.0712;
311.4000;0.7888;-3.0662;
311.7000;0.7888;-3.0637;
312.0000;0.7896;-3.0687;
312.3000;0.7871;-3.0811;
312.6000;0.7871;-3.0861;
312.9000;0.7880;-3.0762;
313.2000;0.7888;-3.0737;
313.5000;0.7896;-3.0762;
313.8000;0.7896;-3.0662;
314.1000;0.7888;-3.0737;
314.4000;0.7863;-3.0811;
314.7000;0.7880;-3.0786;
315.0000;0.7896;-3.0762;
315.3000;0.7880;-3.0861;
315.6000;0.7880;-3.0836;
315.9000;0.7904;-3.0811;
316.2000;0.7904;-3.0861;
316.5000;0.7806;-3.1209;
316.8000;0.7904;-3.0961;
317.1000;0.7904;-3.0861;
317.4000;0.7920;-3.0712;
317.7000;0.7896;-3.0712;
318.0000;0.7896;-3.0588;
318.3000;0.7896;-3.0538;
318.6000;0.7871;-3.0588;
318.9000;0.7880;-3.0563;
319.2000;0.7904;-3.0513;
319.5000;0.7855;-3.0712;
319.8000;0.7912;-3.0588;
320.1000;0.7888;-3.0712;
320.4000;0.7863;-3.0662;
320.7000;0.7871;-3.0637;
321.0000;0.7904;-3.0637;
321.3000;0.7855;-3.0811;
321.6000;0.7896;-3.0762;
321.9000;0.7871;-3.0836;
322.2000;0.7904;-3.0662;
322.5000;0.7847;-3.0786;
322.8000;0.7880;-3.0563;
323.1000;0.7896;-3.0513;
323.4000;0.7912;-3.0488;
323.7000;0.7831;-3.0687;
324.0000;0.7880;-3.0563;
324.3000;0.7831;-3.0662;
324.6000;0.7920;-3.0513;
324.9000;0.7790;-3.0836;
325.2000;0.7888;-3.0637;
325.5000;0.7888;-3.0687;
325.8000;0.7904;-3.0662;
326.1000;0.7888;-3.0612;
326.4000;0.7888;-3.0662;
326.7000;0.7904;-3.0637;
327.0000;0.7880;-3.0712;
327.3000;0.7888;-3.0687;
327.6000;0.7888;-3.0712;
327.9000;0.7888;-3.0662;
328.2000;0.7904;-3.0712;
328.5000;0.7896;-3.0737;
328.8000;0.7888;-3.0786;
329.1000;0.7888;-3.0762;
329.4000;0.7896;-3.0712;
329.7000;0.7945;-3.0463;
330.0000;0.7896;-3.0563;
330.3000;0.7888;-3.0637;
330.6000;0.7798;-3.0861;
330.9000;0.7880;-3.0438;
331.2000;0.7871;-3.0463;
331.5000;0.7888;-3.0438;
331.8000;0.7896;-3.0413;
332.1000;0.7806;-3.0687;
332.4000;0.7896;-3.0463;
332.7000;0.7896;-3.0339;
333.0000;0.7904;-3.0389;
333.3000;0.7888;-3.0513;
333.6000;0.7880;-3.0563;
333.9000;0.7888;-3.0588;
334.2000;0.7880;-3.0662;
334.5000;0.7904;-3.0712;
334.8000;0.7904;-3.0687;
335.1000;0.7896;-3.0712;
335.4000;0.7880;-3.0811;
335.7000;0.7880;-3.0762;
336.0000;0.7896;-3.0712;
336.3000;0.7880;-3.0786;
336.6000;0.7912;-3.0737;
336.9000;0.7871;-3.0762;
337.2000;0.7912;-3.0712;
337.5000;0.7888;-3.0762;
337.8000;0.7888;-3.0811;
338.1000;0.7928;-3.0836;
338.4000;0.7880;-3.0861;
338.7000;0.7880;-3.0911;
339.0000;0.7888;-3.0861;
339.3000;0.7904;-3.0737;
339.6000;0.7880;-3.0762;
339.9000;0.7912;-3.0637;
340.2000;0.7888;-3.0637;
340.5000;0.7871;-3.0737;
340.8000;0.7880;-3.0762;
341.1000;0.7920;-3.0662;
341.4000;0.7896;-3.0737;
341.7000;0.7888;-3.0737;
342.0000;0.7871;-3.0786;
342.3000;0.7904;-3.0712;
342.6000;0.7880;-3.0762;
342.9000;0.7880;-3.0811;
343.2000;0.7888;-3.0836;
343.5000;0.7880;-3.0836;
343.8000;0.7880;-3.0836;
344.1000;0.7904;-3.0886;
344.4000;0.7888;-3.0861;
344.7000;0.7904;-3.0811;
345.0000;0.7904;-3.0836;
345.3000;0.7896;-3.0786;
345.6000;0.7871;-3.0811;
345.9000;0.7814;-3.1035;
346.2000;0.7904;-3.0836;
346.5000;0.7896;-3.0836;
346.8000;0.7896;-3.0786;
347.1000;0.7896;-3.0786;
347.4000;0.7896;-3.0762;
347.7000;0.7888;-3.0861;
348.0000;0.7896;-3.0911;
348.3000;0.7896;-3.0886;
348.6000;0.7888;-3.0886;
348.9000;0.7855;-3.1035;
349.2000;0.7896;-3.0961;
349.5000;0.7831;-3.1184;
349.8000;0.7880;-3.1060;
350.1000;0.7871;-3.1035;
350.4000;0.7871;-3.0936;
350.7000;0.7888;-3.0961;
351.0000;0.7863;-3.1035;
351.3000;0.7896;-3.0911;
351.6000;0.7912;-3.0836;
351.9000;0.7896;-3.0911;
352.2000;0.7871;-3.0961;
352.5000;0.7888;-3.0936;
352.8000;0.7888;-3.0985;
353.1000;0.7904;-3.0936;
353.4000;0.7871;-3.0936;
353.7000;0.7888;-3.0886;
354.0000;0.7888;-3.0886;
354.3000;0.7912;-3.0886;
354.6000;0.7888;-3.0936;
354.9000;0.7880;-3.1010;
355.2000;0.7871;-3.0961;
355.5000;0.7839;-3.0985;
355.8000;0.7814;-3.0985;
356.1000;0.7888;-3.0861;
356.4000;0.7904;-3.0961;
356.7000;0.7888;-3.0985;
357.0000;0.7904;-3.0886;
357.3000;0.7904;-3.0836;
357.6000;0.7896;-3.0836;
357.9000;0.7912;-3.0786;
358.2000;0.7888;-3.0811;
358.5000;0.7888;-3.0886;
358.8000;0.7888;-3.0911;
359.1000;0.7896;-3.0961;
359.4000;0.7863;-3.1010;
359.7000;0.7880;-3.0936;
360.0000;0.7896;-3.0985;
360.3000;0.7871;-3.1035;
360.6000;0.7888;-3.1010;
360.9000;0.7953;-3.0836;
361.2000;0.7888;-3.0936;
361.5000;0.7888;-3.0911;
361.8000;0.7871;-3.0985;
362.1000;0.7912;-3.1035;
362.4000;0.7912;-3.1060;
362.7000;0.7888;-3.1135;
363.0000;0.7888;-3.1184;
363.3000;0.7863;-3.1184;
363.6000;0.7904;-3.0936;
363.9000;0.7871;-3.0961;
364.2000;0.7871;-3.0936;
364.5000;0.7880;-3.0985;
364.8000;0.7896;-3.1060;
365.1000;0.7912;-3.1135;
365.4000;0.7871;-3.1135;
365.7000;0.7880;-3.1135;
366.0000;0.7912;-3.1135;
366.3000;0.7888;-3.1209;
366.6000;0.7880;-3.1309;
366.9000;0.7880;-3.1234;
367.2000;0.7871;-3.1234;
367.5000;0.7880;-3.1259;
367.8000;0.7928;-3.1135;
368.1000;0.7880;-3.1209;
368.4000;0.7880;-3.1085;
368.7000;0.7888;-3.1035;
369.0000;0.7871;-3.1160;
369.3000;0.7888;-3.1160;
369.6000;0.7880;-3.1060;
369.9000;0.7880;-3.0961;
370.2000;0.7863;-3.0961;
370.5000;0.7904;-3.0836;
370.8000;0.7871;-3.0961;
371.1000;0.7880;-3.0911;
371.4000;0.7880;-3.0911;
371.7000;0.7880;-3.0936;
372.0000;0.7888;-3.0911;
372.3000;0.7888;-3.0911;
372.6000;0.7888;-3.0936;
372.9000;0.7863;-3.1010;
373.2000;0.7847;-3.0936;
373.5000;0.7912;-3.0786;
373.8000;0.7880;-3.0936;
374.1000;0.7896;-3.0911;
374.4000;0.7888;-3.0811;
374.7000;0.7888;-3.0836;
375.0000;0.7912;-3.0836;
375.3000;0.7904;-3.0936;
375.6000;0.7880;-3.0985;
375.9000;0.7847;-3.1010;
376.2000;0.7904;-3.0762;
376.5000;0.7888;-3.0861;
376.8000;0.7855;-3.0911;
377.1000;0.7880;-3.0786;
377.4000;0.7863;-3.0786;
377.7000;0.7920;-3.0712;
378.0000;0.7880;-3.0811;
378.3000;0.7863;-3.0836;
378.6000;0.7937;-3.0712;
378.9000;0.7880;-3.0811;
379.2000;0.7880;-3.0712;
379.5000;0.7823;-3.0936;
379.8000;0.7847;-3.0911;
380.1000;0.7888;-3.0911;
380.4000;0.7888;-3.0911;
380.7000;0.7880;-3.0961;
381.0000;0.7888;-3.0985;
381.3000;0.7880;-3.0985;
381.6000;0.7961;-3.0936;
381.9000;0.7888;-3.1135;
382.2000;0.7888;-3.1110;
382.5000;0.7863;-3.1085;
382.8000;0.7912;-3.0961;
383.1000;0.7880;-3.1010;
383.4000;0.7831;-3.1135;
383.7000;0.7896;-3.1135;
384.0000;0.7896;-3.1160;
384.3000;0.7896;-3.1135;
384.6000;0.7880;-3.1184;
384.9000;0.7896;-3.1160;
385.2000;0.7896;-3.1160;
385.5000;0.7912;-3.1110;
385.8000;0.7896;-3.1085;
386.1000;0.7896;-3.1085;
386.4000;0.7888;-3.0985;
386.7000;0.7888;-3.0985;
387.0000;0.7904;-3.0961;
387.3000;0.7888;-3.0985;
387.6000;0.7863;-3.1010;
387.9000;0.7863;-3.1010;
388.2000;0.7896;-3.0985;
388.5000;0.7904;-3.0985;
388.8000;0.7871;-3.1085;
389.1000;0.7888;-3.1010;
389.4000;0.7855;-3.1160;
389.7000;0.7863;-3.1184;
390.0000;0.7888;-3.1060;
390.3000;0.7871;-3.1085;
390.6000;0.7880;-3.1085;
390.9000;0.7904;-3.1035;
391.2000;0.7904;-3.0985;
391.5000;0.7888;-3.0961;
391.8000;0.7871;-3.1010;
392.1000;0.7888;-3.0985;
392.4000;0.7814;-3.1135;
392.7000;0.7896;-3.0911;
393.0000;0.7855;-3.1085;
393.3000;0.7880;-3.1035;
393.6000;0.7871;-3.1085;
393.9000;0.7896;-3.1060;
394.2000;0.7814;-3.1209;
394.5000;0.7863;-3.1035;
394.8000;0.7863;-3.1010;
395.1000;0.7863;-3.0961;
395.4000;0.7757;-3.1110;
395.7000;0.7863;-3.0886;
396.0000;0.7863;-3.0836;
396.3000;0.7871;-3.0861;
396.6000;0.7912;-3.0786;
396.9000;0.7863;-3.0836;
397.2000;0.7888;-3.0811;
397.5000;0.7880;-3.0786;
397.8000;0.7880;-3.0737;
398.1000;0.7880;-3.0762;
398.4000;0.7880;-3.0762;
398.7000;0.7839;-3.0861;
399.0000;0.7806;-3.0961;
399.3000;0.7888;-3.0811;
399.6000;0.7888;-3.0911;
399.9000;0.7863;-3.0936;
400.2000;0.7880;-3.0936;
400.5000;0.7888;-3.0961;
400.8000;0.7880;-3.0911;
401.1000;0.7863;-3.0886;
401.4000;0.7888;-3.0811;
401.7000;0.7823;-3.1010;
402.0000;0.7888;-3.0786;
402.3000;0.7888;-3.0762;
402.6000;0.7896;-3.0762;
402.9000;0.7863;-3.0861;
403.2000;0.7880;-3.0762;
403.5000;0.7896;-3.0712;
403.8000;0.7896;-3.0811;
404.1000;0.7871;-3.0811;
404.4000;0.7888;-3.0762;
404.7000;0.7871;-3.0737;
405.0000;0.7896;-3.0687;
405.3000;0.7888;-3.0687;
405.6000;0.7896;-3.0588;
405.9000;0.7880;-3.0687;
406.2000;0.7880;-3.0687;
406.5000;0.7880;-3.0737;
406.8000;0.7888;-3.0687;
407.1000;0.7888;-3.0687;
407.4000;0.7888;-3.0786;
407.7000;0.7904;-3.0712;
408.0000;0.7880;-3.0762;
408.3000;0.7855;-3.0886;
408.6000;0.7896;-3.0786;
408.9000;0.7904;-3.0811;
409.2000;0.7912;-3.0811;
409.5000;0.7896;-3.0836;
409.8000;0.7888;-3.0762;
410.1000;0.7880;-3.0687;
410.4000;0.7896;-3.0662;
410.7000;0.7888;-3.0687;
411.0000;0.7888;-3.0687;
411.3000;0.7871;-3.0762;
411.6000;0.7880;-3.0762;
411.9000;0.7888;-3.0786;
412.2000;0.7871;-3.0836;
412.5000;0.7871;-3.0886;
412.8000;0.7888;-3.0786;
413.1000;0.7855;-3.0836;
413.4000;0.7953;-3.0612;
413.7000;0.7871;-3.0811;
414.0000;0.7871;-3.0861;
414.3000;0.7847;-3.0911;
414.6000;0.7880;-3.0811;
414.9000;0.7831;-3.0886;
415.2000;0.7823;-3.0961;
415.5000;0.7871;-3.0861;
415.8000;0.7823;-3.1035;
416.1000;0.7888;-3.0886;
416.4000;0.7993;-3.0612;
416.7000;0.7871;-3.0811;
417.0000;0.7904;-3.0737;
417.3000;0.7871;-3.0737;
417.6000;0.7888;-3.0662;
417.9000;0.7839;-3.0737;
418.2000;0.7847;-3.0737;
418.5000;0.7831;-3.0737;
418.8000;0.7871;-3.0637;
419.1000;0.7888;-3.0637;
419.4000;0.7823;-3.0762;
419.7000;0.7863;-3.0662;
420.0000;0.7880;-3.0612;
420.3000;0.7888;-3.0588;
420.6000;0.7888;-3.0588;
420.9000;0.7871;-3.0662;
421.2000;0.7912;-3.0563;
421.5000;0.7871;-3.0612;
421.8000;0.7871;-3.0662;
422.1000;0.7896;-3.0637;
422.4000;0.7888;-3.0637;
422.7000;0.7871;-3.0737;
423.0000;0.7912;-3.0811;
423.3000;0.7871;-3.0911;
423.6000;0.7880;-3.0811;
423.9000;0.7871;-3.0786;
424.2000;0.7871;-3.0762;
424.5000;0.7880;-3.0811;
424.8000;0.7871;-3.0687;
425.1000;0.7888;-3.0662;
425.4000;0.7863;-3.0687;
425.7000;0.7880;-3.0737;
426.0000;0.7863;-3.0811;
426.3000;0.7880;-3.0836;
426.6000;0.7855;-3.0936;
426.9000;0.7847;-3.1010;
427.2000;0.7855;-3.0985;
427.5000;0.7871;-3.0936;
427.8000;0.7912;-3.0737;
428.1000;0.7863;-3.0762;
428.4000;0.7863;-3.0712;
428.7000;0.7863;-3.0737;
429.0000;0.7863;-3.0687;
429.3000;0.7863;-3.0687;
429.6000;0.7855;-3.0861;
429.9000;0.7880;-3.0786;
430.2000;0.7880;-3.0886;
430.5000;0.7888;-3.0861;
430.8000;0.7871;-3.0936;
431.1000;0.7880;-3.0961;
431.4000;0.7871;-3.1010;
431.7000;0.7880;-3.1010;
432.0000;0.7880;-3.0886;
432.3000;0.7945;-3.0687;
432.6000;0.7871;-3.0861;
432.9000;0.7871;-3.0911;
433.2000;0.7896;-3.0786;
433.5000;0.7888;-3.0786;
433.8000;0.7888;-3.0737;
434.1000;0.7888;-3.0737;
434.4000;0.7880;-3.0811;
434.7000;0.7896;-3.0811;
435.0000;0.7888;-3.0936;
435.3000;0.7871;-3.0985;
435.6000;0.7855;-3.0985;
435.9000;0.7904;-3.0886;
436.2000;0.7855;-3.0936;
436.5000;0.7888;-3.0886;
436.8000;0.7904;-3.0886;
437.1000;0.7798;-3.1110;
437.4000;0.7880;-3.0961;
437.7000;0.7855;-3.0961;
438.0000;0.7896;-3.0886;
438.3000;0.7880;-3.0811;
438.6000;0.7871;-3.0762;
438.9000;0.7871;-3.0811;
439.2000;0.7888;-3.0762;
439.5000;0.7871;-3.0786;
439.8000;0.7888;-3.0712;
440.1000;0.7904;-3.0637;
440.4000;0.7977;-3.0488;
440.7000;0.7888;-3.0762;
441.0000;0.7855;-3.0936;
441.3000;0.7863;-3.0886;
441.6000;0.7863;-3.1010;
441.9000;0.7937;-3.0861;
442.2000;0.7880;-3.1035;
442.5000;0.7839;-3.1184;
442.8000;0.7888;-3.0961;
443.1000;0.7871;-3.0961;
443.4000;0.7880;-3.0861;
443.7000;0.7863;-3.0886;
444.0000;0.7863;-3.0936;
444.3000;0.7880;-3.0985;
444.6000;0.7839;-3.1085;
444.9000;0.7855;-3.1060;
445.2000;0.7871;-3.0985;
445.5000;0.7871;-3.0936;
445.8000;0.7863;-3.0936;
446.1000;0.7871;-3.0985;
446.4000;0.7863;-3.1010;
446.7000;0.7871;-3.0886;
447.0000;0.7871;-3.0886;
447.3000;0.7888;-3.0886;
447.6000;0.7880;-3.0886;
447.9000;0.7863;-3.0936;
448.2000;0.7863;-3.1010;
448.5000;0.7896;-3.0886;
448.8000;0.7880;-3.0911;
449.1000;0.7863;-3.0961;
449.4000;0.7855;-3.0961;
449.7000;0.7880;-3.0786;
450.0000;0.7888;-3.0712;
450.3000;0.7871;-3.0786;
450.6000;0.7896;-3.0811;
450.9000;0.7880;-3.0762;
451.2000;0.7888;-3.0737;
451.5000;0.7863;-3.0861;
451.8000;0.7871;-3.0861;
452.1000;0.7888;-3.0737;
452.4000;0.7863;-3.0786;
452.7000;0.7880;-3.0811;
453.0000;0.7847;-3.0861;
453.3000;0.7855;-3.0861;
453.6000;0.7880;-3.0786;
453.9000;0.7871;-3.0811;
454.2000;0.7847;-3.0861;
454.5000;0.7855;-3.0886;
454.8000;0.7888;-3.0786;
455.1000;0.7945;-3.0712;
455.4000;0.7888;-3.0811;
455.7000;0.7888;-3.0836;
456.0000;0.7871;-3.0836;
456.3000;0.7863;-3.0886;
456.6000;0.7871;-3.0886;
456.9000;0.7880;-3.0836;
457.2000;0.7871;-3.0811;
457.5000;0.7896;-3.0687;
457.8000;0.7880;-3.0737;
458.1000;0.7855;-3.0762;
458.4000;0.7814;-3.0961;
458.7000;0.7863;-3.0861;
459.0000;0.7888;-3.0786;
459.3000;0.7888;-3.0737;
459.6000;0.7871;-3.0786;
459.9000;0.7880;-3.0836;
460.2000;0.7896;-3.0836;
460.5000;0.7912;-3.0886;
460.8000;0.7888;-3.0936;
461.1000;0.7904;-3.0911;
461.4000;0.7863;-3.0936;
461.7000;0.7896;-3.0836;
462.0000;0.7880;-3.0936;
462.3000;0.7880;-3.0861;
462.6000;0.7871;-3.0861;
462.9000;0.7896;-3.0861;
463.2000;0.7904;-3.0911;
463.5000;0.7896;-3.0811;
463.8000;0.7871;-3.0811;
464.1000;0.7863;-3.0836;
464.4000;0.7863;-3.0786;
464.7000;0.7847;-3.0811;
465.0000;0.7880;-3.0811;
465.3000;0.7880;-3.0886;
465.6000;0.7855;-3.0936;
465.9000;0.7888;-3.0911;
466.2000;0.7871;-3.0936;
466.5000;0.7855;-3.0911;
466.8000;0.7855;-3.0836;
467.1000;0.7904;-3.0786;
467.4000;0.7839;-3.0961;
467.7000;0.7847;-3.0861;
468.0000;0.7871;-3.0811;
468.3000;0.7880;-3.0811;
468.6000;0.7888;-3.0811;
468.9000;0.8002;-3.0488;
469.2000;0.7888;-3.0737;
469.5000;0.7888;-3.0786;
469.8000;0.7871;-3.0886;
470.1000;0.7871;-3.0886;
470.4000;0.7863;-3.0861;
470.7000;0.7888;-3.0786;
471.0000;0.7888;-3.0737;
471.3000;0.7880;-3.0737;
471.6000;0.7888;-3.0762;
471.9000;0.7863;-3.0911;
472.2000;0.7880;-3.0861;
472.5000;0.7839;-3.0985;
472.8000;0.7896;-3.0786;
473.1000;0.7790;-3.0985;
473.4000;0.7896;-3.0662;
473.7000;0.7871;-3.0786;
474.0000;0.7904;-3.0762;
474.3000;0.7871;-3.0786;
474.6000;0.7928;-3.0786;
474.9000;0.7888;-3.0836;
475.2000;0.7888;-3.0811;
475.5000;0.7880;-3.0737;
475.8000;0.7863;-3.0737;
476.1000;0.7896;-3.0762;
476.4000;0.7863;-3.0762;
476.7000;0.7863;-3.0737;
477.0000;0.7863;-3.0687;
477.3000;0.7880;-3.0662;
477.6000;0.7847;-3.0712;
477.9000;0.7790;-3.0886;
478.2000;0.7888;-3.0637;
478.5000;0.7912;-3.0612;
478.8000;0.7871;-3.0786;
479.1000;0.7880;-3.0712;
479.4000;0.7920;-3.0662;
479.7000;0.7880;-3.0662;
480.0000;0.7896;-3.0687;
480.3000;0.7880;-3.0687;
480.6000;0.7871;-3.0737;
480.9000;0.7871;-3.0762;
481.2000;0.7880;-3.0687;
481.5000;0.7871;-3.0737;
481.8000;0.7985;-3.0563;
482.1000;0.7928;-3.0737;
482.4000;0.7888;-3.0861;
482.7000;0.7880;-3.0811;
483.0000;0.7871;-3.0886;
483.3000;0.7871;-3.0886;
483.6000;0.7863;-3.0861;
483.9000;0.7880;-3.0911;
484.2000;0.7871;-3.0936;
484.5000;0.7871;-3.0911;
484.8000;0.7871;-3.0911;
485.1000;0.7855;-3.0886;
485.4000;0.7880;-3.0786;
485.7000;0.7847;-3.0762;
486.0000;0.7839;-3.0786;
486.3000;0.7871;-3.0737;
486.6000;0.7871;-3.0762;
486.9000;0.7871;-3.0861;
487.2000;0.7880;-3.0936;
487.5000;0.7896;-3.1010;
487.8000;0.7871;-3.1135;
488.1000;0.7839;-3.1259;
488.4000;0.7814;-3.1259;
488.7000;0.7871;-3.1135;
489.0000;0.7839;-3.1160;
489.3000;0.7855;-3.1110;
489.6000;0.7880;-3.0985;
489.9000;0.7855;-3.0936;
490.2000;0.7880;-3.0861;
490.5000;0.7871;-3.0836;
490.8000;0.7847;-3.0961;
491.1000;0.7855;-3.1035;
491.4000;0.7880;-3.0961;
491.7000;0.7880;-3.0961;
492.0000;0.7863;-3.0861;
492.3000;0.7871;-3.0786;
492.6000;0.7847;-3.0886;
492.9000;0.7863;-3.0861;
493.2000;0.7880;-3.0811;
493.5000;0.7904;-3.0886;
493.8000;0.7880;-3.0985;
494.1000;0.7855;-3.1060;
494.4000;0.7871;-3.1035;
494.7000;0.7888;-3.0936;
495.0000;0.7880;-3.0886;
495.3000;0.7863;-3.0961;
495.6000;0.7839;-3.1085;
495.9000;0.7880;-3.1035;
496.2000;0.7863;-3.0911;
496.5000;0.7823;-3.1010;
496.8000;0.7880;-3.0811;
497.1000;0.7863;-3.0936;
497.4000;0.7863;-3.1010;
497.7000;0.7880;-3.0911;
498.0000;0.7871;-3.0886;
498.3000;0.7871;-3.0886;
498.6000;0.7863;-3.0936;
498.9000;0.7871;-3.0861;
499.2000;0.7888;-3.1060;
499.5000;0.7880;-3.1110;
499.8000;0.7806;-3.1209;
500.1000;0.7871;-3.1060;
500.4000;0.7871;-3.1060;
500.7000;0.7880;-3.0985;
501.0000;0.7871;-3.0886;
501.3000;0.7871;-3.0936;
501.6000;0.7863;-3.0961;
501.9000;0.7880;-3.0961;
502.2000;0.7880;-3.0911;
502.5000;0.7888;-3.0886;
502.8000;0.7847;-3.0985;
503.1000;0.7871;-3.0936;
503.4000;0.7831;-3.0911;
503.7000;0.7880;-3.0861;
504.0000;0.7839;-3.0911;
504.3000;0.7863;-3.0786;
504.6000;0.7880;-3.0836;
504.9000;0.7782;-3.1110;
505.2000;0.7839;-3.1035;
505.5000;0.7863;-3.1135;
505.8000;0.7855;-3.1085;
506.1000;0.7945;-3.0911;
506.4000;0.7839;-3.1085;
506.7000;0.7880;-3.1135;
507.0000;0.7863;-3.1060;
507.3000;0.7888;-3.0911;
507.6000;0.7880;-3.0961;
507.9000;0.7896;-3.0886;
508.2000;0.7863;-3.0961;
508.5000;0.7863;-3.1035;
508.8000;0.7871;-3.0961;
509.1000;0.7863;-3.0961;
509.4000;0.7863;-3.0985;
509.7000;0.7896;-3.0961;
510.0000;0.7904;-3.0861;
510.3000;0.7847;-3.1010;
510.6000;0.7904;-3.0911;
510.9000;0.7896;-3.1010;
511.2000;0.7880;-3.1060;
511.5000;0.7806;-3.1209;
511.8000;0.7831;-3.1085;
512.1000;0.7871;-3.0911;
512.4000;0.7766;-3.1184;
512.7000;0.7945;-3.0786;
513.0000;0.7863;-3.0961;
513.3000;0.7847;-3.1010;
513.6000;0.7871;-3.1010;
513.9000;0.7880;-3.0911;
514.2000;0.7896;-3.0936;
514.5000;0.7871;-3.0961;
514.8000;0.7863;-3.0936;
515.1000;0.7904;-3.0762;
515.4000;0.7880;-3.0762;
515.7000;0.7888;-3.0737;
516.0000;0.7823;-3.0961;
516.3000;0.7871;-3.0836;
516.6000;0.7855;-3.0961;
516.9000;0.7871;-3.0911;
517.2000;0.7920;-3.0786;
517.5000;0.7888;-3.0911;
517.8000;0.7871;-3.0886;
518.1000;0.7888;-3.0836;
518.4000;0.7871;-3.0886;
518.7000;0.7871;-3.0911;
519.0000;0.7904;-3.0886;
519.3000;0.7880;-3.1010;
519.6000;0.7871;-3.1010;
519.9000;0.7855;-3.0985;
520.2000;0.7814;-3.1010;
520.5000;0.7871;-3.0961;
520.8000;0.7880;-3.0886;
521.1000;0.7871;-3.0911;
521.4000;0.7880;-3.0911;
521.7000;0.7896;-3.0861;
522.0000;0.7896;-3.0786;
522.3000;0.7855;-3.0985;
522.6000;0.7863;-3.0961;
522.9000;0.7896;-3.0836;
523.2000;0.7904;-3.0861;
523.5000;0.7888;-3.0936;
523.8000;0.7855;-3.1060;
524.1000;0.7847;-3.1135;
524.4000;0.7855;-3.1085;
524.7000;0.7888;-3.1060;
525.0000;0.7863;-3.1035;
525.3000;0.7855;-3.0911;
525.6000;0.7871;-3.0786;
525.9000;0.7880;-3.0737;
526.2000;0.7920;-3.0662;
526.5000;0.7839;-3.0961;
526.8000;0.7871;-3.0911;
527.1000;0.7871;-3.0936;
527.4000;0.7847;-3.0985;
527.7000;0.7855;-3.0985;
528.0000;0.7855;-3.1060;
528.3000;0.7888;-3.0936;
528.6000;0.7928;-3.0936;
528.9000;0.7847;-3.1160;
529.2000;0.7806;-3.1234;
529.5000;0.7855;-3.1060;
529.8000;0.7847;-3.1010;
530.1000;0.7863;-3.0936;
530.4000;0.7823;-3.1085;
530.7000;0.7855;-3.0911;
531.0000;0.7880;-3.0836;
531.3000;0.7896;-3.0811;
531.6000;0.7863;-3.0786;
531.9000;0.7863;-3.0811;
532.2000;0.7888;-3.0836;
532.5000;0.7880;-3.0936;
532.8000;0.7855;-3.0886;
533.1000;0.7855;-3.0961;
533.4000;0.7888;-3.0911;
533.7000;0.7888;-3.0961;
534.0000;0.7904;-3.0886;
534.3000;0.7880;-3.0961;
534.6000;0.7880;-3.0961;
534.9000;0.7888;-3.0911;
535.2000;0.7880;-3.0911;
535.5000;0.7814;-3.1085;
535.8000;0.7847;-3.0985;
536.1000;0.7855;-3.0886;
536.4000;0.7839;-3.0936;
536.7000;0.7831;-3.0961;
537.0000;0.7855;-3.0985;
537.3000;0.7863;-3.1010;
537.6000;0.7888;-3.0961;
537.9000;0.7904;-3.0985;
538.2000;0.7880;-3.0961;
538.5000;0.7888;-3.0961;
538.8000;0.7880;-3.0936;
539.1000;0.7855;-3.1010;
539.4000;0.7863;-3.1035;
539.7000;0.7863;-3.1060;
540.0000;0.7855;-3.1035;
540.3000;0.7863;-3.0936;
540.6000;0.7855;-3.0886;
540.9000;0.7863;-3.0861;
541.2000;0.7855;-3.0737;
541.5000;0.7880;-3.0662;
541.8000;0.7896;-3.0662;
542.1000;0.7896;-3.0637;
542.4000;0.7880;-3.0762;
542.7000;0.7871;-3.0762;
543.0000;0.7871;-3.0737;
543.3000;0.7855;-3.0762;
543.6000;0.7880;-3.0637;
543.9000;0.7871;-3.0612;
544.2000;0.7880;-3.0662;
544.5000;0.7880;-3.0712;
544.8000;0.7888;-3.0662;
545.1000;0.7888;-3.0637;
545.4000;0.7863;-3.0786;
545.7000;0.7888;-3.0762;
546.0000;0.7880;-3.0811;
546.3000;0.7888;-3.0737;
546.6000;0.7888;-3.0737;
546.9000;0.7871;-3.0811;
547.2000;0.7871;-3.0712;
547.5000;0.7871;-3.0737;
547.8000;0.7863;-3.0687;
548.1000;0.7847;-3.0687;
548.4000;0.7896;-3.0712;
548.7000;0.7839;-3.0886;
549.0000;0.7863;-3.0811;
549.3000;0.7863;-3.0762;
549.6000;0.7888;-3.0712;
549.9000;0.7888;-3.0662;
550.2000;0.7863;-3.0662;
550.5000;0.7863;-3.0588;
550.8000;0.7871;-3.0662;
551.1000;0.7863;-3.0637;
551.4000;0.7806;-3.0811;
551.7000;0.7871;-3.0612;
552.0000;0.7871;-3.0637;
552.3000;0.7774;-3.0961;
552.6000;0.7871;-3.0737;
552.9000;0.7871;-3.0886;
553.2000;0.7871;-3.0886;
553.5000;0.7880;-3.0911;
553.8000;0.7863;-3.0886;
554.1000;0.7880;-3.0886;
554.4000;0.7847;-3.0936;
554.7000;0.7888;-3.0811;
555.0000;0.7880;-3.0786;
555.3000;0.7871;-3.0762;
555.6000;0.7863;-3.0762;
555.9000;0.7888;-3.0637;
556.2000;0.7896;-3.0612;
556.5000;0.7863;-3.0687;
556.8000;0.7855;-3.0687;
557.1000;0.7880;-3.0712;
557.4000;0.7863;-3.0811;
557.7000;0.7871;-3.0786;
558.0000;0.7863;-3.0762;
558.3000;0.7863;-3.0786;
558.6000;0.7880;-3.0786;
558.9000;0.7855;-3.0886;
559.2000;0.7871;-3.0911;
559.5000;0.7863;-3.0836;
559.8000;0.7798;-3.1060;
560.1000;0.7855;-3.0911;
560.4000;0.7855;-3.0911;
560.7000;0.7855;-3.0836;
561.0000;0.7839;-3.0836;
561.3000;0.7880;-3.0712;
561.6000;0.7855;-3.0737;
561.9000;0.7855;-3.0737;
562.2000;0.7888;-3.0712;
562.5000;0.7871;-3.0762;
562.8000;0.7871;-3.0712;
563.1000;0.7928;-3.0513;
563.4000;0.7855;-3.0687;
563.7000;0.7847;-3.0662;
564.0000;0.7839;-3.0712;
564.3000;0.7871;-3.0712;
564.6000;0.7888;-3.0637;
564.9000;0.7839;-3.0737;
565.2000;0.7871;-3.0662;
565.5000;0.7863;-3.0662;
565.8000;0.7855;-3.0762;
566.1000;0.7790;-3.0861;
566.4000;0.7880;-3.0662;
566.7000;0.7847;-3.0762;
567.0000;0.7847;-3.0762;
567.3000;0.7863;-3.0737;
567.6000;0.7855;-3.0811;
567.9000;0.7871;-3.0712;
568.2000;0.7928;-3.0612;
568.5000;0.7839;-3.0811;
568.8000;0.7880;-3.0762;
569.1000;0.7880;-3.0762;
569.4000;0.7847;-3.0836;
569.7000;0.7863;-3.0687;
570.0000;0.7863;-3.0687;
570.3000;0.7863;-3.0687;
570.6000;0.7880;-3.0786;
570.9000;0.7847;-3.0886;
571.2000;0.7855;-3.0786;
571.5000;0.7855;-3.0762;
571.8000;0.7855;-3.0811;
572.1000;0.7823;-3.0836;
572.4000;0.7855;-3.0762;
572.7000;0.7888;-3.0712;
573.0000;0.7863;-3.0762;
573.3000;0.7880;-3.0737;
573.6000;0.7871;-3.0811;
573.9000;0.7871;-3.0737;
574.2000;0.7831;-3.0911;
574.5000;0.7863;-3.0836;
574.8000;0.7847;-3.0886;
575.1000;0.7847;-3.0861;
575.4000;0.7871;-3.0786;
575.7000;0.7814;-3.0961;
576.0000;0.7863;-3.0886;
576.3000;0.7871;-3.0985;
576.6000;0.7855;-3.0985;
576.9000;0.7920;-3.0861;
577.2000;0.7888;-3.0985;
577.5000;0.7863;-3.1060;
577.8000;0.7871;-3.1060;
578.1000;0.7847;-3.1160;
578.4000;0.7871;-3.1060;
578.7000;0.7863;-3.1135;
579.0000;0.7863;-3.1035;
579.3000;0.7871;-3.1010;
579.6000;0.7880;-3.1010;
579.9000;0.7871;-3.0911;
580.2000;0.7855;-3.0886;
580.5000;0.7839;-3.0936;
580.8000;0.7928;-3.0836;
581.1000;0.7863;-3.1010;
581.4000;0.7831;-3.1060;
581.7000;0.7855;-3.1035;
582.0000;0.7839;-3.1010;
582.3000;0.7871;-3.0836;
582.6000;0.7855;-3.0811;
582.9000;0.7863;-3.0911;
583.2000;0.7871;-3.0936;
583.5000;0.7880;-3.0911;
583.8000;0.7880;-3.0911;
584.1000;0.7896;-3.0836;
584.4000;0.7863;-3.0911;
584.7000;0.7871;-3.0861;
585.0000;0.7855;-3.0961;
585.3000;0.7871;-3.0936;
585.6000;0.7880;-3.0936;
585.9000;0.7871;-3.0961;
586.2000;0.7880;-3.0886;
586.5000;0.7871;-3.0861;
586.8000;0.7863;-3.0936;
587.1000;0.7880;-3.0836;
587.4000;0.7871;-3.0762;
587.7000;0.7880;-3.0687;
588.0000;0.7871;-3.0737;
588.3000;0.7871;-3.0811;
588.6000;0.7896;-3.0712;
588.9000;0.7855;-3.0687;
589.2000;0.7863;-3.0612;
589.5000;0.7847;-3.0637;
589.8000;0.7855;-3.0662;
590.1000;0.7880;-3.0612;
590.4000;0.7871;-3.0588;
590.7000;0.7855;-3.0563;
591.0000;0.7839;-3.0563;
591.3000;0.7863;-3.0538;
591.6000;0.7880;-3.0588;
591.9000;0.7871;-3.0588;
592.2000;0.7774;-3.0786;
592.5000;0.7912;-3.0563;
592.8000;0.7871;-3.0662;
593.1000;0.7823;-3.0762;
593.4000;0.7855;-3.0687;
593.7000;0.7831;-3.0662;
594.0000;0.7863;-3.0563;
594.3000;0.7855;-3.0588;
594.6000;0.7871;-3.0538;
594.9000;0.7839;-3.0612;
595.2000;0.7847;-3.0612;
595.5000;0.7847;-3.0637;
595.8000;0.7847;-3.0687;
596.1000;0.7855;-3.0786;
596.4000;0.7871;-3.0836;
596.7000;0.7863;-3.0786;
597.0000;0.7839;-3.0861;
597.3000;0.7863;-3.0886;
597.6000;0.7847;-3.0861;
597.9000;0.7855;-3.0886;
598.2000;0.7855;-3.0961;
598.5000;0.7863;-3.0936;
598.8000;0.7863;-3.0936;
599.1000;0.7855;-3.0911;
599.4000;0.7839;-3.0861;
599.7000;0.7855;-3.0762;
600.0000;0.7855;-3.0786;
600.3000;0.7961;-3.0737;
600.6000;0.7880;-3.1010;
600.9000;0.7855;-3.1035;
601.2000;0.7766;-3.1234;
601.5000;0.7839;-3.1085;
601.8000;0.7741;-3.1358;
602.1000;0.7676;-3.1557;
602.4000;0.7652;-3.1657;
602.7000;0.7611;-3.1881;
603.0000;0.7546;-3.2104;
603.3000;0.7521;-3.2154;
603.6000;0.7497;-3.2154;
603.9000;0.7432;-3.2254;
604.2000;0.7407;-3.2279;
604.5000;0.7375;-3.2378;
604.8000;0.7310;-3.2428;
605.1000;0.7318;-3.2428;
605.4000;0.7261;-3.2478;
605.7000;0.7228;-3.2602;
606.0000;0.7188;-3.2726;
606.3000;0.7163;-3.2776;
606.6000;0.7163;-3.2801;
606.9000;0.7114;-3.2851;
607.2000;0.7082;-3.2875;
607.5000;0.7049;-3.2925;
607.8000;0.7041;-3.2900;
608.1000;0.7000;-3.3000;
608.4000;0.6976;-3.3000;
608.7000;0.6960;-3.3025;
609.0000;0.6935;-3.3049;
609.3000;0.6895;-3.3074;
609.6000;0.6886;-3.3049;
609.9000;0.6854;-3.3074;
610.2000;0.6821;-3.3074;
610.5000;0.6813;-3.3049;
610.8000;0.6797;-3.3049;
611.1000;0.6764;-3.3000;
611.4000;0.6772;-3.3000;
611.7000;0.6740;-3.3049;
612.0000;0.6691;-3.3199;
612.3000;0.6724;-3.3099;
612.6000;0.6707;-3.3224;
612.9000;0.6707;-3.3273;
613.2000;0.6667;-3.3447;
613.5000;0.6691;-3.3348;
613.8000;0.6732;-3.3224;
614.1000;0.6610;-3.3472;
614.4000;0.6593;-3.3422;
614.7000;0.6602;-3.3298;
615.0000;0.6618;-3.3099;
615.3000;0.6545;-3.3224;
615.6000;0.6569;-3.3248;
615.9000;0.6528;-3.3248;
616.2000;0.6512;-3.3248;
616.5000;0.6488;-3.3224;
616.8000;0.6512;-3.3124;
617.1000;0.6471;-3.3174;
617.4000;0.6471;-3.3174;
617.7000;0.6447;-3.3248;
618.0000;0.6414;-3.3298;
618.3000;0.6439;-3.3174;
618.6000;0.6422;-3.3224;
618.9000;0.6382;-3.3149;
619.2000;0.6365;-3.3099;
619.5000;0.6357;-3.3000;
619.8000;0.6357;-3.3000;
620.1000;0.6357;-3.3049;
620.4000;0.6309;-3.3174;
620.7000;0.6325;-3.3248;
621.0000;0.6292;-3.3298;
621.3000;0.6300;-3.3199;
621.6000;0.6276;-3.3248;
621.9000;0.6243;-3.3323;
622.2000;0.6227;-3.3422;
622.5000;0.6235;-3.3373;
622.8000;0.6235;-3.3323;
623.1000;0.6211;-3.3348;
623.4000;0.6203;-3.3398;
623.7000;0.6195;-3.3447;
624.0000;0.6211;-3.3373;
624.3000;0.6186;-3.3398;
624.6000;0.6186;-3.3472;
624.9000;0.6162;-3.3572;
625.2000;0.6146;-3.3547;
625.5000;0.6195;-3.3447;
625.8000;0.6154;-3.3522;
626.1000;0.6129;-3.3597;
626.4000;0.6129;-3.3522;
626.7000;0.6121;-3.3497;
627.0000;0.6113;-3.3522;
627.3000;0.6081;-3.3497;
627.6000;0.6072;-3.3522;
627.9000;0.6081;-3.3497;
628.2000;0.6072;-3.3522;
628.5000;0.6056;-3.3497;
628.8000;0.6089;-3.3348;
629.1000;0.6064;-3.3373;
629.4000;0.6048;-3.3422;
629.7000;0.6015;-3.3572;
630.0000;0.6007;-3.3497;
630.3000;0.6015;-3.3497;
630.6000;0.5885;-3.3671;
630.9000;0.5999;-3.3447;
631.2000;0.5983;-3.3522;
631.5000;0.5958;-3.3472;
631.8000;0.5958;-3.3447;
632.1000;0.5958;-3.3422;
632.4000;0.5950;-3.3323;
632.7000;0.5950;-3.3323;
633.0000;0.5942;-3.3447;
633.3000;0.5934;-3.3447;
633.6000;0.5926;-3.3422;
633.9000;0.6015;-3.3224;
634.2000;0.5885;-3.3522;
634.5000;0.5902;-3.3497;
634.8000;0.5885;-3.3597;
635.1000;0.5812;-3.3696;
635.4000;0.5861;-3.3621;
635.7000;0.5853;-3.3671;
636.0000;0.5910;-3.3572;
636.3000;0.5869;-3.3621;
636.6000;0.5812;-3.3621;
636.9000;0.5869;-3.3497;
637.2000;0.5845;-3.3522;
637.5000;0.5828;-3.3497;
637.8000;0.5836;-3.3447;
638.1000;0.5845;-3.3472;
638.4000;0.5820;-3.3522;
638.7000;0.5828;-3.3572;
639.0000;0.5820;-3.3547;
639.3000;0.5828;-3.3522;
639.6000;0.5804;-3.3522;
639.9000;0.5788;-3.3497;
640.2000;0.5779;-3.3597;
640.5000;0.5722;-3.3696;
640.8000;0.5763;-3.3671;
641.1000;0.5747;-3.3671;
641.4000;0.5763;-3.3621;
641.7000;0.5739;-3.3597;
642.0000;0.5722;-3.3597;
642.3000;0.5739;-3.3621;
642.6000;0.5763;-3.3646;
642.9000;0.5739;-3.3597;
643.2000;0.5771;-3.3497;
643.5000;0.5739;-3.3373;
643.8000;0.5739;-3.3447;
644.1000;0.5739;-3.3522;
644.4000;0.5714;-3.3646;
644.7000;0.5714;-3.3646;
645.0000;0.5714;-3.3522;
645.3000;0.5690;-3.3572;
645.6000;0.5739;-3.3422;
645.9000;0.5682;-3.3597;
646.2000;0.5649;-3.3671;
646.5000;0.5682;-3.3597;
646.8000;0.5665;-3.3671;
647.1000;0.5690;-3.3646;
647.4000;0.5682;-3.3522;
647.7000;0.5665;-3.3597;
648.0000;0.5657;-3.3621;
648.3000;0.5665;-3.3646;
648.6000;0.5657;-3.3547;
648.9000;0.5674;-3.3497;
649.2000;0.5576;-3.3771;
649.5000;0.5641;-3.3572;
649.8000;0.5617;-3.3522;
650.1000;0.5641;-3.3497;
650.4000;0.5625;-3.3547;
650.7000;0.5608;-3.3597;
651.0000;0.5608;-3.3572;
651.3000;0.5600;-3.3447;
651.6000;0.5641;-3.3323;
651.9000;0.5608;-3.3298;
652.2000;0.5608;-3.3323;
652.5000;0.5608;-3.3422;
652.8000;0.5592;-3.3447;
653.1000;0.5576;-3.3398;
653.4000;0.5576;-3.3373;
653.7000;0.5600;-3.3273;
654.0000;0.5576;-3.3348;
654.3000;0.5568;-3.3348;
654.6000;0.5584;-3.3298;
654.9000;0.5560;-3.3298;
655.2000;0.5551;-3.3298;
655.5000;0.5568;-3.3398;
655.8000;0.5560;-3.3348;
656.1000;0.5543;-3.3273;
656.4000;0.5617;-3.3124;
656.7000;0.5551;-3.3248;
657.0000;0.5535;-3.3323;
657.3000;0.5527;-3.3348;
657.6000;0.5511;-3.3298;
657.9000;0.5511;-3.3398;
658.2000;0.5535;-3.3398;
658.5000;0.5535;-3.3348;
658.8000;0.5527;-3.3348;
659.1000;0.5543;-3.3298;
659.4000;0.5511;-3.3273;
659.7000;0.5511;-3.3124;
660.0000;0.5486;-3.3248;
660.3000;0.5495;-3.3298;
660.6000;0.5519;-3.3174;
660.9000;0.5495;-3.3199;
661.2000;0.5511;-3.3224;
661.5000;0.5462;-3.3323;
661.8000;0.5446;-3.3348;
662.1000;0.5495;-3.3248;
662.4000;0.5421;-3.3447;
662.7000;0.5470;-3.3348;
663.0000;0.5478;-3.3273;
663.3000;0.5470;-3.3273;
663.6000;0.5470;-3.3348;
663.9000;0.5470;-3.3373;
664.2000;0.5454;-3.3447;
664.5000;0.5486;-3.3323;
664.8000;0.5462;-3.3373;
665.1000;0.5446;-3.3398;
665.4000;0.5495;-3.3298;
665.7000;0.5470;-3.3298;
666.0000;0.5446;-3.3373;
666.3000;0.5478;-3.3199;
666.6000;0.5486;-3.3174;
666.9000;0.5446;-3.3298;
667.2000;0.5405;-3.3398;
667.5000;0.5397;-3.3547;
667.8000;0.5429;-3.3447;
668.1000;0.5397;-3.3497;
668.4000;0.5429;-3.3348;
668.7000;0.5421;-3.3398;
669.0000;0.5429;-3.3422;
669.3000;0.5454;-3.3373;
669.6000;0.5429;-3.3497;
669.9000;0.5429;-3.3572;
670.2000;0.5364;-3.3646;
670.5000;0.5389;-3.3621;
670.8000;0.5405;-3.3671;
671.1000;0.5429;-3.3646;
671.4000;0.5413;-3.3746;
671.7000;0.5421;-3.3671;
672.0000;0.5397;-3.3696;
672.3000;0.5405;-3.3721;
672.6000;0.5397;-3.3746;
672.9000;0.5389;-3.3721;
673.2000;0.5389;-3.3597;
673.5000;0.5389;-3.3547;
673.8000;0.5405;-3.3472;
674.1000;0.5405;-3.3522;
674.4000;0.5389;-3.3572;
674.7000;0.5389;-3.3572;
675.0000;0.5381;-3.3621;
675.3000;0.5397;-3.3572;
675.6000;0.5397;-3.3572;
675.9000;0.5405;-3.3597;
676.2000;0.5389;-3.3696;
676.5000;0.5356;-3.3796;
676.8000;0.5364;-3.3771;
677.1000;0.5364;-3.3771;
677.4000;0.5364;-3.3671;
677.7000;0.5356;-3.3671;
678.0000;0.5381;-3.3597;
678.3000;0.5372;-3.3671;
678.6000;0.5381;-3.3646;
678.9000;0.5397;-3.3621;
679.2000;0.5372;-3.3671;
679.5000;0.5356;-3.3746;
679.8000;0.5364;-3.3746;
680.1000;0.5372;-3.3646;
680.4000;0.5429;-3.3522;
680.7000;0.5348;-3.3721;
681.0000;0.5364;-3.3646;
681.3000;0.5389;-3.3547;
681.6000;0.5356;-3.3597;
681.9000;0.5332;-3.3547;
682.2000;0.5324;-3.3522;
682.5000;0.5348;-3.3497;
682.8000;0.5340;-3.3497;
683.1000;0.5332;-3.3373;
683.4000;0.5324;-3.3373;
683.7000;0.5348;-3.3348;
684.0000;0.5299;-3.3472;
684.3000;0.5315;-3.3497;
684.6000;0.5315;-3.3547;
684.9000;0.5324;-3.3572;
685.2000;0.5332;-3.3646;
685.5000;0.5315;-3.3597;
685.8000;0.5324;-3.3447;
686.1000;0.5324;-3.3422;
686.4000;0.5348;-3.3348;
686.7000;0.5340;-3.3422;
687.0000;0.5324;-3.3472;
687.3000;0.5315;-3.3597;
687.6000;0.5307;-3.3646;
687.9000;0.5324;-3.3572;
688.2000;0.5332;-3.3597;
688.5000;0.5315;-3.3671;
688.8000;0.5324;-3.3646;
689.1000;0.5307;-3.3572;
689.4000;0.5324;-3.3547;
689.7000;0.5307;-3.3597;
690.0000;0.5299;-3.3621;
690.3000;0.5283;-3.3597;
690.6000;0.5332;-3.3398;
690.9000;0.5275;-3.3547;
691.2000;0.5307;-3.3472;
691.5000;0.5283;-3.3572;
691.8000;0.5315;-3.3572;
692.1000;0.5291;-3.3621;
692.4000;0.5291;-3.3646;
692.7000;0.5283;-3.3646;
693.0000;0.5381;-3.3447;
693.3000;0.5275;-3.3696;
693.6000;0.5299;-3.3671;
693.9000;0.5275;-3.3721;
694.2000;0.5283;-3.3721;
694.5000;0.5258;-3.3796;
694.8000;0.5283;-3.3597;
695.1000;0.5250;-3.3646;
695.4000;0.5283;-3.3547;
695.7000;0.5291;-3.3497;
696.0000;0.5315;-3.3398;
696.3000;0.5267;-3.3422;
696.6000;0.5291;-3.3398;
696.9000;0.5315;-3.3422;
697.2000;0.5267;-3.3547;
697.5000;0.5275;-3.3522;
697.8000;0.5258;-3.3547;
698.1000;0.5258;-3.3646;
698.4000;0.5283;-3.3621;
698.7000;0.5275;-3.3597;
699.0000;0.5275;-3.3696;
699.3000;0.5275;-3.3721;
699.6000;0.5267;-3.3796;
699.9000;0.5267;-3.3721;
700.2000;0.5267;-3.3721;
700.5000;0.5242;-3.3820;
700.8000;0.5258;-3.3820;
701.1000;0.5275;-3.3771;
701.4000;0.5267;-3.3721;
701.7000;0.5226;-3.3845;
702.0000;0.5218;-3.3845;
702.3000;0.5267;-3.3771;
702.6000;0.5258;-3.3771;
702.9000;0.5226;-3.3820;
703.2000;0.5258;-3.3696;
703.5000;0.5250;-3.3696;
703.8000;0.5242;-3.3721;
704.1000;0.5267;-3.3671;
704.4000;0.5250;-3.3746;
704.7000;0.5234;-3.3746;
705.0000;0.5250;-3.3621;
705.3000;0.5250;-3.3597;
705.6000;0.5242;-3.3597;
705.9000;0.5234;-3.3621;
706.2000;0.5234;-3.3522;
706.5000;0.5258;-3.3472;
706.8000;0.5242;-3.3472;
707.1000;0.5234;-3.3522;
707.4000;0.5291;-3.3398;
707.7000;0.5242;-3.3522;
708.0000;0.5267;-3.3472;
708.3000;0.5242;-3.3522;
708.6000;0.5234;-3.3497;
708.9000;0.5234;-3.3547;
709.2000;0.5242;-3.3373;
709.5000;0.5226;-3.3373;
709.8000;0.5234;-3.3348;
710.1000;0.5226;-3.3323;
710.4000;0.5258;-3.3248;
710.7000;0.5258;-3.3273;
711.0000;0.5226;-3.3323;
711.3000;0.5234;-3.3298;
711.6000;0.5201;-3.3373;
711.9000;0.5226;-3.3298;
712.2000;0.5218;-3.3323;
712.5000;0.5218;-3.3373;
712.8000;0.5242;-3.3422;
713.1000;0.5258;-3.3472;
713.4000;0.5226;-3.3572;
713.7000;0.5234;-3.3572;
714.0000;0.5226;-3.3621;
714.3000;0.5226;-3.3547;
714.6000;0.5234;-3.3597;
714.9000;0.5218;-3.3646;
715.2000;0.5218;-3.3621;
715.5000;0.5226;-3.3597;
715.8000;0.5226;-3.3572;
716.1000;0.5218;-3.3597;
716.4000;0.5234;-3.3472;
716.7000;0.5242;-3.3472;
717.0000;0.5258;-3.3472;
717.3000;0.5242;-3.3547;
717.6000;0.5210;-3.3621;
717.9000;0.5210;-3.3646;
718.2000;0.5226;-3.3572;
718.5000;0.5226;-3.3572;
718.8000;0.5177;-3.3646;
719.1000;0.5218;-3.3472;
719.4000;0.5218;-3.3472;
719.7000;0.5226;-3.3348;
720.0000;0.5201;-3.3348;
720.3000;0.5185;-3.3373;
720.6000;0.5210;-3.3323;
720.9000;0.5218;-3.3373;
721.2000;0.5201;-3.3447;
721.5000;0.5193;-3.3497;
721.8000;0.5193;-3.3522;
722.1000;0.5177;-3.3472;
722.4000;0.5226;-3.3398;
722.7000;0.5210;-3.3422;
723.0000;0.5201;-3.3497;
723.3000;0.5218;-3.3472;
723.6000;0.5210;-3.3522;
723.9000;0.5210;-3.3547;
724.2000;0.5193;-3.3621;
724.5000;0.5185;-3.3696;
724.8000;0.5234;-3.3597;
725.1000;0.5218;-3.3771;
725.4000;0.5210;-3.3895;
725.7000;0.5226;-3.3771;
726.0000;0.5210;-3.3721;
726.3000;0.5201;-3.3721;
726.6000;0.5283;-3.3547;
726.9000;0.5153;-3.3870;
727.2000;0.5185;-3.3771;
727.5000;0.5169;-3.3771;
727.8000;0.5185;-3.3796;
728.1000;0.5153;-3.3771;
728.4000;0.5177;-3.3721;
728.7000;0.5210;-3.3746;
729.0000;0.5210;-3.3746;
729.3000;0.5193;-3.3796;
729.6000;0.5185;-3.3796;
729.9000;0.5201;-3.3721;
730.2000;0.5185;-3.3746;
730.5000;0.5169;-3.3796;
730.8000;0.5201;-3.3696;
731.1000;0.5242;-3.3696;
731.4000;0.5120;-3.4019;
731.7000;0.5201;-3.3945;
732.0000;0.5177;-3.3920;
732.3000;0.5169;-3.3920;
732.6000;0.5193;-3.3820;
732.9000;0.5193;-3.3796;
733.2000;0.5193;-3.3796;
733.5000;0.5169;-3.3845;
733.8000;0.5169;-3.3820;
734.1000;0.5242;-3.3597;
734.4000;0.5177;-3.3721;
734.7000;0.5161;-3.3721;
735.0000;0.5161;-3.3597;
735.3000;0.5177;-3.3621;
735.6000;0.5185;-3.3696;
735.9000;0.5185;-3.3696;
736.2000;0.5169;-3.3721;
736.5000;0.5193;-3.3696;
736.8000;0.5193;-3.3671;
737.1000;0.5169;-3.3621;
737.4000;0.5169;-3.3721;
737.7000;0.5201;-3.3547;
738.0000;0.5193;-3.3398;
738.3000;0.5169;-3.3447;
738.6000;0.5177;-3.3522;
738.9000;0.5177;-3.3547;
739.2000;0.5185;-3.3522;
739.5000;0.5153;-3.3721;
739.8000;0.5185;-3.3820;
740.1000;0.5169;-3.3870;
740.4000;0.5055;-3.4094;
740.7000;0.5169;-3.3796;
741.0000;0.5161;-3.3870;
741.3000;0.5193;-3.3845;
741.6000;0.5153;-3.3895;
741.9000;0.5169;-3.3895;
742.2000;0.5153;-3.3994;
742.5000;0.5136;-3.4069;
742.8000;0.5242;-3.3796;
743.1000;0.5169;-3.4019;
743.4000;0.5177;-3.4044;
743.7000;0.5169;-3.4044;
744.0000;0.5169;-3.3920;
744.3000;0.5144;-3.3945;
744.6000;0.5144;-3.3870;
744.9000;0.5177;-3.3721;
745.2000;0.5161;-3.3696;
745.5000;0.5169;-3.3696;
745.8000;0.5169;-3.3671;
746.1000;0.5161;-3.3746;
746.4000;0.5128;-3.3870;
746.7000;0.5153;-3.3796;
747.0000;0.5128;-3.3870;
747.3000;0.5169;-3.3746;
747.6000;0.5177;-3.3746;
747.9000;0.5161;-3.3820;
748.2000;0.5169;-3.3746;
748.5000;0.5169;-3.3721;
748.8000;0.5169;-3.3721;
749.1000;0.5161;-3.3746;
749.4000;0.5185;-3.3746;
749.7000;0.5177;-3.3820;
750.0000;0.5169;-3.3845;
750.3000;0.5185;-3.3646;
750.6000;0.5153;-3.3771;
750.9000;0.5169;-3.3796;
751.2000;0.5153;-3.3845;
751.5000;0.5161;-3.3920;
751.8000;0.5161;-3.3845;
752.1000;0.5153;-3.3870;
752.4000;0.5161;-3.3870;
752.7000;0.5161;-3.3870;
753.0000;0.5161;-3.3920;
753.3000;0.5153;-3.3820;
753.6000;0.5144;-3.3945;
753.9000;0.5128;-3.3945;
754.2000;0.5153;-3.3970;
754.5000;0.5144;-3.3920;
754.8000;0.5161;-3.3895;
755.1000;0.5144;-3.3895;
755.4000;0.5120;-3.4019;
755.7000;0.5112;-3.3994;
756.0000;0.5153;-3.3945;
756.3000;0.5128;-3.3994;
756.6000;0.5161;-3.3945;
756.9000;0.5153;-3.3870;
757.2000;0.5177;-3.3796;
757.5000;0.5144;-3.3820;
757.8000;0.5161;-3.3870;
758.1000;0.5153;-3.3920;
758.4000;0.5161;-3.3920;
758.7000;0.5177;-3.3945;
759.0000;0.5153;-3.4019;
759.3000;0.5177;-3.3994;
759.6000;0.5144;-3.4119;
759.9000;0.5144;-3.4094;
760.2000;0.5144;-3.4044;
760.5000;0.5136;-3.4069;
760.8000;0.5153;-3.4094;
761.1000;0.5120;-3.4069;
761.4000;0.5153;-3.3994;
761.7000;0.5161;-3.4019;
762.0000;0.5169;-3.3970;
762.3000;0.5112;-3.4069;
762.6000;0.5128;-3.3970;
762.9000;0.5153;-3.3895;
763.2000;0.5185;-3.3870;
763.5000;0.5136;-3.3945;
763.8000;0.5144;-3.3970;
764.1000;0.5096;-3.4094;
764.4000;0.5242;-3.3721;
764.7000;0.5136;-3.3920;
765.0000;0.5144;-3.3845;
765.3000;0.5193;-3.3721;
765.6000;0.5144;-3.3970;
765.9000;0.5144;-3.3994;
766.2000;0.5153;-3.3895;
766.5000;0.5161;-3.3870;
766.8000;0.5153;-3.3845;
767.1000;0.5128;-3.3870;
767.4000;0.5136;-3.3820;
767.7000;0.5153;-3.3870;
768.0000;0.5153;-3.3870;
768.3000;0.5136;-3.3970;
768.6000;0.5144;-3.3870;
768.9000;0.5177;-3.3796;
769.2000;0.5120;-3.3970;
769.5000;0.5144;-3.3945;
769.8000;0.5144;-3.4019;
770.1000;0.5153;-3.4019;
770.4000;0.5161;-3.4019;
770.7000;0.5144;-3.4019;
771.0000;0.5144;-3.4069;
771.3000;0.5144;-3.4019;
771.6000;0.5120;-3.4119;
771.9000;0.5153;-3.3945;
772.2000;0.5144;-3.3920;
772.5000;0.5161;-3.3870;
772.8000;0.5161;-3.3845;
773.1000;0.5242;-3.3597;
773.4000;0.5144;-3.3796;
773.7000;0.5169;-3.3646;
774.0000;0.5120;-3.3796;
774.3000;0.5136;-3.3746;
774.6000;0.5144;-3.3696;
774.9000;0.5128;-3.3696;
775.2000;0.5136;-3.3696;
775.5000;0.5112;-3.3671;
775.8000;0.5144;-3.3597;
776.1000;0.5153;-3.3547;
776.4000;0.5136;-3.3646;
776.7000;0.5169;-3.3572;
777.0000;0.5144;-3.3597;
777.3000;0.5144;-3.3522;
777.6000;0.5153;-3.3572;
777.9000;0.5193;-3.3597;
778.2000;0.5144;-3.3796;
778.5000;0.5136;-3.3721;
778.8000;0.5136;-3.3696;
779.1000;0.5112;-3.3646;
779.4000;0.5112;-3.3621;
779.7000;0.5201;-3.3373;
780.0000;0.5161;-3.3597;
780.3000;0.5120;-3.3646;
780.6000;0.5120;-3.3671;
780.9000;0.5153;-3.3646;
781.2000;0.5193;-3.3522;
781.5000;0.5128;-3.3597;
781.8000;0.5128;-3.3621;
782.1000;0.5144;-3.3497;
782.4000;0.5153;-3.3522;
782.7000;0.5144;-3.3572;
783.0000;0.5136;-3.3646;
783.3000;0.5144;-3.3597;
783.6000;0.5161;-3.3497;
783.9000;0.5169;-3.3497;
784.2000;0.5120;-3.3621;
784.5000;0.5210;-3.3447;
784.8000;0.5128;-3.3597;
785.1000;0.5144;-3.3547;
785.4000;0.5144;-3.3597;
785.7000;0.5226;-3.3422;
786.0000;0.5153;-3.3646;
786.3000;0.5161;-3.3597;
786.6000;0.5153;-3.3497;
786.9000;0.5120;-3.3547;
787.2000;0.5104;-3.3671;
787.5000;0.5153;-3.3547;
787.8000;0.5128;-3.3597;
788.1000;0.5096;-3.3721;
788.4000;0.5128;-3.3696;
788.7000;0.5128;-3.3721;
789.0000;0.5185;-3.3547;
789.3000;0.5088;-3.3870;
789.6000;0.5153;-3.3721;
789.9000;0.5144;-3.3746;
790.2000;0.5144;-3.3820;
790.5000;0.5144;-3.3696;
790.8000;0.5120;-3.3696;
791.1000;0.5144;-3.3746;
791.4000;0.5153;-3.3721;
791.7000;0.5144;-3.3771;
792.0000;0.5120;-3.3845;
792.3000;0.5128;-3.3796;
792.6000;0.5136;-3.3696;
792.9000;0.5161;-3.3572;
793.2000;0.5144;-3.3572;
793.5000;0.5120;-3.3597;
793.8000;0.5112;-3.3671;
794.1000;0.5128;-3.3472;
794.4000;0.5136;-3.3472;
794.7000;0.5120;-3.3472;
795.0000;0.5144;-3.3447;
795.3000;0.5112;-3.3621;
795.6000;0.5136;-3.3522;
795.9000;0.5136;-3.3472;
796.2000;0.5120;-3.3547;
796.5000;0.5128;-3.3572;
796.8000;0.5144;-3.3522;
797.1000;0.5161;-3.3547;
797.4000;0.5120;-3.3646;
797.7000;0.5128;-3.3621;
798.0000;0.5112;-3.3746;
798.3000;0.5112;-3.3746;
798.6000;0.5104;-3.3845;
798.9000;0.5128;-3.3746;
799.2000;0.5112;-3.3845;
799.5000;0.5104;-3.3796;
799.8000;0.5112;-3.3796;
800.1000;0.5088;-3.3820;
800.4000;0.5120;-3.3771;
800.7000;0.5112;-3.3721;
801.0000;0.5112;-3.3746;
801.3000;0.5104;-3.3721;
801.6000;0.5144;-3.3671;
801.9000;0.5193;-3.3572;
802.2000;0.5096;-3.3820;
802.5000;0.5112;-3.3771;
802.8000;0.5104;-3.3796;
803.1000;0.5088;-3.3796;
803.4000;0.5104;-3.3696;
803.7000;0.5112;-3.3696;
804.0000;0.5031;-3.3870;
804.3000;0.5120;-3.3621;
804.6000;0.5144;-3.3572;
804.9000;0.5128;-3.3497;
805.2000;0.5120;-3.3646;
805.5000;0.5120;-3.3721;
805.8000;0.5136;-3.3696;
806.1000;0.5144;-3.3721;
806.4000;0.5136;-3.3721;
806.7000;0.5136;-3.3746;
807.0000;0.5136;-3.3746;
807.3000;0.5153;-3.3696;
807.6000;0.5136;-3.3646;
807.9000;0.5136;-3.3597;
808.2000;0.5136;-3.3621;
808.5000;0.5112;-3.3771;
808.8000;0.5144;-3.3721;
809.1000;0.5128;-3.3721;
809.4000;0.5112;-3.3820;
809.7000;0.5153;-3.3696;
810.0000;0.5144;-3.3597;
810.3000;0.5112;-3.3646;
810.6000;0.5128;-3.3671;
810.9000;0.5128;-3.3696;
811.2000;0.5144;-3.3621;
811.5000;0.5128;-3.3621;
811.8000;0.5120;-3.3646;
812.1000;0.5128;-3.3621;
812.4000;0.5128;-3.3621;
812.7000;0.5136;-3.3696;
813.0000;0.5144;-3.3696;
813.3000;0.5128;-3.3671;
813.6000;0.5120;-3.3671;
813.9000;0.5128;-3.3621;
814.2000;0.5104;-3.3746;
814.5000;0.5104;-3.3621;
814.8000;0.5144;-3.3497;
815.1000;0.5153;-3.3472;
815.4000;0.5144;-3.3472;
815.7000;0.5055;-3.3621;
816.0000;0.5112;-3.3497;
816.3000;0.5144;-3.3422;
816.6000;0.5096;-3.3572;
816.9000;0.5144;-3.3422;
817.2000;0.5120;-3.3472;
817.5000;0.5055;-3.3621;
817.8000;0.5128;-3.3472;
818.1000;0.5104;-3.3621;
818.4000;0.5047;-3.3796;
818.7000;0.5104;-3.3597;
819.0000;0.5120;-3.3597;
819.3000;0.5144;-3.3547;
819.6000;0.5136;-3.3572;
819.9000;0.5096;-3.3771;
820.2000;0.5128;-3.3696;
820.5000;0.5128;-3.3646;
820.8000;0.5096;-3.3646;
821.1000;0.5120;-3.3671;
821.4000;0.5144;-3.3597;
821.7000;0.5112;-3.3597;
822.0000;0.5161;-3.3621;
822.3000;0.5120;-3.3746;
822.6000;0.5104;-3.3796;
822.9000;0.5128;-3.3746;
823.2000;0.5120;-3.3796;
823.5000;0.5136;-3.3746;
823.8000;0.5112;-3.3820;
824.1000;0.5096;-3.3746;
824.4000;0.5120;-3.3746;
824.7000;0.5104;-3.3771;
825.0000;0.5104;-3.3646;
825.3000;0.5144;-3.3572;
825.6000;0.5128;-3.3547;
825.9000;0.5128;-3.3621;
826.2000;0.5088;-3.3621;
826.5000;0.5120;-3.3572;
826.8000;0.5112;-3.3671;
827.1000;0.5112;-3.3621;
827.4000;0.5104;-3.3646;
827.7000;0.5112;-3.3621;
828.0000;0.5128;-3.3547;
828.3000;0.5112;-3.3621;
828.6000;0.5112;-3.3597;
828.9000;0.5112;-3.3671;
829.2000;0.5112;-3.3696;
829.5000;0.5136;-3.3522;
829.8000;0.5144;-3.3497;
830.1000;0.5136;-3.3522;
830.4000;0.5144;-3.3547;
830.7000;0.5128;-3.3597;
831.0000;0.5136;-3.3621;
831.3000;0.5128;-3.3621;
831.6000;0.5144;-3.3547;
831.9000;0.5144;-3.3572;
832.2000;0.5128;-3.3522;
832.5000;0.5128;-3.3497;
832.8000;0.5136;-3.3472;
833.1000;0.5112;-3.3497;
833.4000;0.5144;-3.3422;
833.7000;0.5120;-3.3447;
834.0000;0.5161;-3.3398;
834.3000;0.5096;-3.3621;
834.6000;0.5128;-3.3572;
834.9000;0.5112;-3.3572;
835.2000;0.5128;-3.3547;
835.5000;0.5120;-3.3621;
835.8000;0.5104;-3.3796;
836.1000;0.5144;-3.3696;
836.4000;0.5104;-3.3796;
836.7000;0.5096;-3.3820;
837.0000;0.5128;-3.3796;
837.3000;0.5120;-3.3721;
837.6000;0.5063;-3.3796;
837.9000;0.5112;-3.3547;
838.2000;0.5096;-3.3472;
838.5000;0.5144;-3.3348;
838.8000;0.5128;-3.3348;
839.1000;0.5088;-3.3422;
839.4000;0.5153;-3.3373;
839.7000;0.5104;-3.3522;
840.0000;0.5104;-3.3547;
840.3000;0.5120;-3.3572;
840.6000;0.5079;-3.3746;
840.9000;0.5112;-3.3597;
841.2000;0.5104;-3.3572;
841.5000;0.5120;-3.3572;
841.8000;0.5120;-3.3547;
842.1000;0.5128;-3.3597;
842.4000;0.5022;-3.3920;
842.7000;0.5112;-3.3671;
843.0000;0.5112;-3.3721;
843.3000;0.5128;-3.3621;
843.6000;0.5096;-3.3621;
843.9000;0.5128;-3.3572;
844.2000;0.5096;-3.3597;
844.5000;0.5120;-3.3572;
844.8000;0.5120;-3.3547;
845.1000;0.5112;-3.3472;
845.4000;0.5120;-3.3572;
845.7000;0.5112;-3.3497;
846.0000;0.5120;-3.3472;
846.3000;0.5136;-3.3422;
846.6000;0.5120;-3.3472;
846.9000;0.5104;-3.3597;
847.2000;0.5104;-3.3646;
847.5000;0.5112;-3.3572;
847.8000;0.5128;-3.3547;
848.1000;0.5153;-3.3547;
848.4000;0.5120;-3.3597;
848.7000;0.5112;-3.3696;
849.0000;0.5112;-3.3746;
849.3000;0.5104;-3.3796;
849.6000;0.5096;-3.3845;
849.9000;0.5104;-3.3845;
850.2000;0.5079;-3.3870;
850.5000;0.5096;-3.3845;
850.8000;0.5120;-3.3721;
851.1000;0.5128;-3.3671;
851.4000;0.5144;-3.3646;
851.7000;0.5128;-3.3597;
852.0000;0.5128;-3.3696;
852.3000;0.5104;-3.3721;
852.6000;0.5104;-3.3746;
852.9000;0.5104;-3.3746;
853.2000;0.5096;-3.3696;
853.5000;0.5104;-3.3597;
853.8000;0.5096;-3.3597;
854.1000;0.5104;-3.3621;
854.4000;0.5161;-3.3422;
854.7000;0.5063;-3.3646;
855.0000;0.5096;-3.3671;
855.3000;0.5136;-3.3597;
855.6000;0.5136;-3.3572;
855.9000;0.5104;-3.3621;
856.2000;0.5120;-3.3646;
856.5000;0.5120;-3.3547;
856.8000;0.5120;-3.3497;
857.1000;0.5128;-3.3472;
857.4000;0.5112;-3.3547;
857.7000;0.5120;-3.3646;
858.0000;0.5161;-3.3597;
858.3000;0.5079;-3.3696;
858.6000;0.5120;-3.3597;
858.9000;0.5047;-3.3746;
859.2000;0.5128;-3.3472;
859.5000;0.5218;-3.3298;
859.8000;0.5063;-3.3646;
860.1000;0.5079;-3.3572;
860.4000;0.5185;-3.3348;
860.7000;0.5104;-3.3572;
861.0000;0.5120;-3.3572;
861.3000;0.5120;-3.3646;
861.6000;0.5153;-3.3646;
861.9000;0.5104;-3.3671;
862.2000;0.5088;-3.3721;
862.5000;0.5096;-3.3721;
862.8000;0.5128;-3.3721;
863.1000;0.5120;-3.3646;
863.4000;0.5112;-3.3621;
863.7000;0.5063;-3.3746;
864.0000;0.5128;-3.3547;
864.3000;0.5128;-3.3547;
864.6000;0.5128;-3.3497;
864.9000;0.5128;-3.3472;
865.2000;0.5120;-3.3547;
865.5000;0.5096;-3.3497;
865.8000;0.5104;-3.3472;
866.1000;0.5112;-3.3522;
866.4000;0.5128;-3.3597;
866.7000;0.5120;-3.3597;
867.0000;0.5112;-3.3646;
867.3000;0.5128;-3.3547;
867.6000;0.5120;-3.3547;
867.9000;0.5104;-3.3597;
868.2000;0.5104;-3.3646;
868.5000;0.5112;-3.3696;
868.8000;0.5136;-3.3646;
869.1000;0.5112;-3.3721;
869.4000;0.5112;-3.3671;
869.7000;0.5128;-3.3572;
870.0000;0.5136;-3.3472;
870.3000;0.5120;-3.3447;
870.6000;0.5096;-3.3497;
870.9000;0.5104;-3.3497;
871.2000;0.5088;-3.3646;
871.5000;0.5096;-3.3621;
871.8000;0.5104;-3.3547;
872.1000;0.5136;-3.3472;
872.4000;0.5120;-3.3547;
872.7000;0.5112;-3.3522;
873.0000;0.5079;-3.3373;
873.3000;0.5088;-3.3398;
873.6000;0.5104;-3.3373;
873.9000;0.5120;-3.3348;
874.2000;0.5088;-3.3447;
874.5000;0.5128;-3.3373;
874.8000;0.5120;-3.3373;
875.1000;0.5128;-3.3398;
875.4000;0.5120;-3.3447;
875.7000;0.5104;-3.3497;
876.0000;0.5128;-3.3447;
876.3000;0.5136;-3.3373;
876.6000;0.5136;-3.3447;
876.9000;0.5104;-3.3472;
877.2000;0.5096;-3.3547;
877.5000;0.5096;-3.3572;
877.8000;0.5128;-3.3547;
878.1000;0.5104;-3.3497;
878.4000;0.5112;-3.3373;
878.7000;0.5096;-3.3422;
879.0000;0.5128;-3.3447;
879.3000;0.5096;-3.3422;
879.6000;0.5128;-3.3398;
879.9000;0.5136;-3.3373;
880.2000;0.5177;-3.3323;
880.5000;0.5128;-3.3422;
880.8000;0.5112;-3.3398;
881.1000;0.5161;-3.3273;
881.4000;0.5088;-3.3472;
881.7000;0.5120;-3.3422;
882.0000;0.5112;-3.3497;
882.3000;0.5096;-3.3522;
882.6000;0.5104;-3.3422;
882.9000;0.5128;-3.3422;
883.2000;0.5128;-3.3422;
883.5000;0.5153;-3.3398;
883.8000;0.5104;-3.3547;
884.1000;0.5071;-3.3621;
884.4000;0.5096;-3.3696;
884.7000;0.5112;-3.3646;
885.0000;0.5112;-3.3671;
885.3000;0.5096;-3.3721;
885.6000;0.5104;-3.3646;
885.9000;0.5096;-3.3671;
886.2000;0.5112;-3.3646;
886.5000;0.5104;-3.3671;
886.8000;0.5112;-3.3721;
887.1000;0.5088;-3.3771;
887.4000;0.5112;-3.3597;
887.7000;0.5104;-3.3472;
888.0000;0.5120;-3.3522;
888.3000;0.5120;-3.3497;
888.6000;0.5112;-3.3422;
888.9000;0.5096;-3.3398;
889.2000;0.5120;-3.3373;
889.5000;0.5144;-3.3348;
889.8000;0.5120;-3.3398;
890.1000;0.5088;-3.3447;
890.4000;0.5120;-3.3373;
890.7000;0.5136;-3.3323;
891.0000;0.5104;-3.3422;
891.3000;0.5120;-3.3497;
891.6000;0.5112;-3.3422;
891.9000;0.5104;-3.3422;
892.2000;0.5128;-3.3348;
892.5000;0.5120;-3.3298;
892.8000;0.5096;-3.3422;
893.1000;0.5047;-3.3646;
893.4000;0.5112;-3.3472;
893.7000;0.5112;-3.3422;
894.0000;0.5063;-3.3572;
894.3000;0.5112;-3.3373;
894.6000;0.5104;-3.3447;
894.9000;0.5120;-3.3522;
895.2000;0.5088;-3.3646;
895.5000;0.5096;-3.3597;
895.8000;0.5128;-3.3572;
896.1000;0.5128;-3.3472;
896.4000;0.5096;-3.3572;
896.7000;0.5096;-3.3597;
897.0000;0.5104;-3.3597;
897.3000;0.5071;-3.3646;
897.6000;0.5088;-3.3547;
897.9000;0.5096;-3.3547;
898.2000;0.5128;-3.3472;
898.5000;0.5112;-3.3597;
898.8000;0.5096;-3.3597;
899.1000;0.5112;-3.3572;
899.4000;0.5112;-3.3522;
899.7000;0.5096;-3.3547;
900.0000;0.5128;-3.3472;
900.3000;0.5088;-3.3646;
900.6000;0.5112;-3.3597;
900.9000;0.5112;-3.3522;
901.2000;0.5120;-3.3572;
901.5000;0.5112;-3.3547;
901.8000;0.5120;-3.3621;
902.1000;0.5104;-3.3696;
902.4000;0.5112;-3.3721;
902.7000;0.5120;-3.3621;
903.0000;0.5096;-3.3621;
903.3000;0.5112;-3.3646;
903.6000;0.5120;-3.3522;
903.9000;0.5128;-3.3497;
904.2000;0.5128;-3.3572;
904.5000;0.5120;-3.3497;
904.8000;0.5104;-3.3572;
905.1000;0.5128;-3.3522;
905.4000;0.5136;-3.3522;
905.7000;0.5120;-3.3621;
906.0000;0.5063;-3.3721;
906.3000;0.5088;-3.3696;
906.6000;0.5112;-3.3572;
906.9000;0.5112;-3.3572;
907.2000;0.5079;-3.3646;
907.5000;0.5096;-3.3597;
907.8000;0.5104;-3.3522;
908.1000;0.5104;-3.3621;
908.4000;0.5088;-3.3646;
908.7000;0.5104;-3.3721;
909.0000;0.5079;-3.3721;
909.3000;0.5128;-3.3646;
909.6000;0.5112;-3.3646;
909.9000;0.5112;-3.3696;
910.2000;0.5136;-3.3646;
910.5000;0.5120;-3.3746;
910.8000;0.5104;-3.3771;
911.1000;0.5096;-3.3721;
911.4000;0.5128;-3.3597;
911.7000;0.5112;-3.3646;
912.0000;0.5120;-3.3597;
912.3000;0.5112;-3.3597;
912.6000;0.5120;-3.3597;
912.9000;0.5096;-3.3671;
913.2000;0.5112;-3.3671;
913.5000;0.5144;-3.3646;
913.8000;0.5112;-3.3746;
914.1000;0.5120;-3.3671;
914.4000;0.5177;-3.3497;
914.7000;0.5112;-3.3621;
915.0000;0.5128;-3.3621;
915.3000;0.5112;-3.3721;
915.6000;0.5112;-3.3646;
915.9000;0.5136;-3.3621;
916.2000;0.5120;-3.3621;
916.5000;0.5088;-3.3646;
916.8000;0.5104;-3.3572;
917.1000;0.5104;-3.3597;
917.4000;0.5153;-3.3422;
917.7000;0.5120;-3.3547;
918.0000;0.5128;-3.3522;
918.3000;0.5210;-3.3373;
918.6000;0.5112;-3.3621;
918.9000;0.5144;-3.3621;
919.2000;0.5079;-3.3771;
919.5000;0.5112;-3.3796;
919.8000;0.5112;-3.3796;
920.1000;0.5128;-3.3696;
920.4000;0.5104;-3.3671;
920.7000;0.5104;-3.3621;
921.0000;0.5104;-3.3621;
921.3000;0.5112;-3.3497;
921.6000;0.5112;-3.3398;
921.9000;0.5096;-3.3398;
922.2000;0.5112;-3.3422;
922.5000;0.5104;-3.3447;
922.8000;0.5120;-3.3522;
923.1000;0.5112;-3.3597;
923.4000;0.5120;-3.3572;
923.7000;0.5128;-3.3621;
924.0000;0.5112;-3.3721;
924.3000;0.5112;-3.3721;
924.6000;0.5120;-3.3696;
924.9000;0.5120;-3.3671;
925.2000;0.5120;-3.3621;
925.5000;0.5193;-3.3398;
925.8000;0.5096;-3.3572;
926.1000;0.5104;-3.3572;
926.4000;0.5104;-3.3597;
926.7000;0.5112;-3.3621;
927.0000;0.5112;-3.3597;
927.3000;0.5104;-3.3646;
927.6000;0.5128;-3.3621;
927.9000;0.5120;-3.3621;
928.2000;0.5096;-3.3671;
928.5000;0.5096;-3.3671;
928.8000;0.5144;-3.3497;
929.1000;0.5112;-3.3572;
929.4000;0.5104;-3.3572;
929.7000;0.5104;-3.3547;
930.0000;0.5185;-3.3323;
930.3000;0.5112;-3.3497;
930.6000;0.5104;-3.3447;
930.9000;0.5079;-3.3497;
931.2000;0.5112;-3.3398;
931.5000;0.5104;-3.3323;
931.8000;0.5096;-3.3398;
932.1000;0.5096;-3.3447;
932.4000;0.5096;-3.3522;
932.7000;0.5112;-3.3572;
933.0000;0.5079;-3.3646;
933.3000;0.5104;-3.3497;
933.6000;0.5088;-3.3597;
933.9000;0.5096;-3.3597;
934.2000;0.5112;-3.3621;
934.5000;0.5128;-3.3472;
934.8000;0.5112;-3.3447;
935.1000;0.5136;-3.3373;
935.4000;0.5128;-3.3398;
935.7000;0.5136;-3.3447;
936.0000;0.5128;-3.3572;
936.3000;0.5120;-3.3522;
936.6000;0.5161;-3.3373;
936.9000;0.5120;-3.3447;
937.2000;0.5128;-3.3422;
937.5000;0.5112;-3.3472;
937.8000;0.5112;-3.3422;
938.1000;0.5120;-3.3447;
938.4000;0.5096;-3.3447;
938.7000;0.5104;-3.3422;
939.0000;0.5112;-3.3373;
939.3000;0.5128;-3.3323;
939.6000;0.5096;-3.3398;
939.9000;0.5104;-3.3398;
940.2000;0.5079;-3.3472;
940.5000;0.5120;-3.3373;
940.8000;0.5128;-3.3323;
941.1000;0.5128;-3.3323;
941.4000;0.5104;-3.3472;
941.7000;0.5112;-3.3447;
942.0000;0.5079;-3.3621;
942.3000;0.5144;-3.3472;
942.6000;0.5112;-3.3522;
942.9000;0.5112;-3.3522;
943.2000;0.5112;-3.3497;
943.5000;0.5120;-3.3597;
943.8000;0.5104;-3.3671;
944.1000;0.5096;-3.3721;
944.4000;0.5104;-3.3646;
944.7000;0.5136;-3.3621;
945.0000;0.5112;-3.3671;
945.3000;0.5104;-3.3646;
945.6000;0.5112;-3.3597;
945.9000;0.5104;-3.3522;
946.2000;0.5071;-3.3522;
946.5000;0.5112;-3.3447;
946.8000;0.5112;-3.3472;
947.1000;0.5128;-3.3398;
947.4000;0.5112;-3.3422;
947.7000;0.5128;-3.3373;
948.0000;0.5088;-3.3497;
948.3000;0.5112;-3.3547;
948.6000;0.5120;-3.3696;
948.9000;0.5096;-3.3721;
949.2000;0.5144;-3.3646;
949.5000;0.5104;-3.3796;
949.8000;0.5088;-3.3671;
950.1000;0.5120;-3.3572;
950.4000;0.5120;-3.3522;
950.7000;0.5079;-3.3621;
951.0000;0.5161;-3.3398;
951.3000;0.5120;-3.3472;
951.6000;0.5185;-3.3323;
951.9000;0.5144;-3.3547;
952.2000;0.5096;-3.3621;
952.5000;0.5088;-3.3621;
952.8000;0.5104;-3.3646;
953.1000;0.5079;-3.3721;
953.4000;0.5120;-3.3696;
953.7000;0.5128;-3.3671;
954.0000;0.5112;-3.3621;
954.3000;0.5063;-3.3696;
954.6000;0.5104;-3.3646;
954.9000;0.5104;-3.3572;
955.2000;0.5104;-3.3497;
955.5000;0.5104;-3.3522;
955.8000;0.5079;-3.3572;
956.1000;0.5120;-3.3422;
956.4000;0.5112;-3.3621;
956.7000;0.5104;-3.3671;
957.0000;0.5104;-3.3796;
957.3000;0.5104;-3.3845;
957.6000;0.5096;-3.3796;
957.9000;0.5096;-3.3721;
958.2000;0.5088;-3.3671;
958.5000;0.5120;-3.3597;
958.8000;0.5120;-3.3547;
959.1000;0.5144;-3.3547;
959.4000;0.5112;-3.3547;
959.7000;0.5112;-3.3497;
960.0000;0.5120;-3.3522;
960.3000;0.5104;-3.3547;
960.6000;0.5120;-3.3522;
960.9000;0.5153;-3.3447;
961.2000;0.5104;-3.3497;
961.5000;0.5104;-3.3422;
961.8000;0.5104;-3.3398;
962.1000;0.5104;-3.3422;
962.4000;0.5104;-3.3522;
962.7000;0.5104;-3.3547;
963.0000;0.5104;-3.3597;
963.3000;0.5096;-3.3522;
963.6000;0.5096;-3.3522;
963.9000;0.5112;-3.3522;
964.2000;0.5128;-3.3398;
964.5000;0.5096;-3.3522;
964.8000;0.5104;-3.3497;
965.1000;0.5104;-3.3497;
965.4000;0.5120;-3.3497;
965.7000;0.5112;-3.3522;
966.0000;0.5031;-3.3796;
966.3000;0.5112;-3.3671;
966.6000;0.5120;-3.3696;
966.9000;0.5112;-3.3646;
967.2000;0.5104;-3.3696;
967.5000;0.5096;-3.3746;
967.8000;0.5088;-3.3721;
968.1000;0.5104;-3.3671;
968.4000;0.5104;-3.3621;
968.7000;0.5096;-3.3671;
969.0000;0.5112;-3.3547;
969.3000;0.5120;-3.3572;
969.6000;0.5104;-3.3522;
969.9000;0.5120;-3.3547;
970.2000;0.5104;-3.3547;
970.5000;0.5120;-3.3398;
970.8000;0.5104;-3.3398;
971.1000;0.5096;-3.3472;
971.4000;0.5104;-3.3547;
971.7000;0.5088;-3.3572;
972.0000;0.5112;-3.3547;
972.3000;0.5096;-3.3671;
972.6000;0.5104;-3.3646;
972.9000;0.5104;-3.3646;
973.2000;0.5104;-3.3597;
973.5000;0.5104;-3.3572;
973.8000;0.5088;-3.3572;
974.1000;0.5112;-3.3621;
974.4000;0.5063;-3.3746;
974.7000;0.5104;-3.3621;
975.0000;0.5096;-3.3646;
975.3000;0.5112;-3.3696;
975.6000;0.5104;-3.3696;
975.9000;0.5104;-3.3671;
976.2000;0.5096;-3.3646;
976.5000;0.5063;-3.3671;
976.8000;0.5096;-3.3646;
977.1000;0.5088;-3.3671;
977.4000;0.5153;-3.3572;
977.7000;0.5104;-3.3646;
978.0000;0.5161;-3.3422;
978.3000;0.5128;-3.3447;
978.6000;0.5112;-3.3522;
978.9000;0.5096;-3.3572;
979.2000;0.5104;-3.3597;
979.5000;0.5096;-3.3671;
979.8000;0.5104;-3.3671;
980.1000;0.5104;-3.3597;
980.4000;0.5088;-3.3621;
980.7000;0.5096;-3.3621;
981.0000;0.5104;-3.3572;
981.3000;0.5120;-3.3621;
981.6000;0.5144;-3.3572;
981.9000;0.5096;-3.3671;
982.2000;0.5112;-3.3721;
982.5000;0.5104;-3.3746;
982.8000;0.5112;-3.3646;
983.1000;0.5136;-3.3671;
983.4000;0.5096;-3.3721;
983.7000;0.5120;-3.3671;
984.0000;0.5120;-3.3646;
984.3000;0.5088;-3.3721;
984.6000;0.5104;-3.3671;
984.9000;0.5079;-3.3671;
985.2000;0.5112;-3.3547;
985.5000;0.5096;-3.3671;
985.8000;0.5112;-3.3671;
986.1000;0.5096;-3.3696;
986.4000;0.5120;-3.3671;
986.7000;0.5112;-3.3547;
987.0000;0.5128;-3.3373;
987.3000;0.5071;-3.3522;
987.6000;0.5096;-3.3497;
987.9000;0.5112;-3.3398;
988.2000;0.5096;-3.3447;
988.5000;0.5104;-3.3472;
988.8000;0.5104;-3.3447;
989.1000;0.5096;-3.3572;
989.4000;0.5055;-3.3771;
989.7000;0.5104;-3.3572;
990.0000;0.5218;-3.3323;
990.3000;0.5055;-3.3671;
990.6000;0.5088;-3.3646;
990.9000;0.5104;-3.3597;
991.2000;0.5153;-3.3547;
991.5000;0.5120;-3.3671;
991.8000;0.5112;-3.3671;
992.1000;0.5096;-3.3796;
992.4000;0.5120;-3.3796;
992.7000;0.5104;-3.3721;
993.0000;0.5071;-3.3796;
993.3000;0.5144;-3.3771;
993.6000;0.5071;-3.3895;
993.9000;0.5096;-3.3746;
994.2000;0.5128;-3.3671;
994.5000;0.5096;-3.3721;
994.8000;0.5112;-3.3771;
995.1000;0.5112;-3.3671;
995.4000;0.5112;-3.3671;
995.7000;0.5104;-3.3696;
996.0000;0.5112;-3.3746;
996.3000;0.5120;-3.3771;
996.6000;0.5096;-3.3820;
996.9000;0.5096;-3.3870;
997.2000;0.5096;-3.3870;
997.5000;0.5104;-3.3845;
997.8000;0.5088;-3.3895;
998.1000;0.5112;-3.3870;
998.4000;0.5153;-3.3845;
998.7000;0.5112;-3.3994;
999.0000;0.5112;-3.3895;
999.3000;0.5112;-3.3746;
999.6000;0.5112;-3.3696;
999.9000;0.5120;-3.3721;
1000.2000;0.5112;-3.3671;
1000.5000;0.5120;-3.3696;
1000.8000;0.5104;-3.3696;
1001.1000;0.5112;-3.3746;
1001.4000;0.5112;-3.3746;
1001.7000;0.5120;-3.3746;
1002.0000;0.5104;-3.3721;
1002.3000;0.5120;-3.3696;
1002.6000;0.5096;-3.3696;
1002.9000;0.5088;-3.3746;
1003.2000;0.5104;-3.3696;
1003.5000;0.5104;-3.3696;
1003.8000;0.5104;-3.3721;
1004.1000;0.5112;-3.3646;
1004.4000;0.5104;-3.3547;
1004.7000;0.5112;-3.3621;
1005.0000;0.5144;-3.3522;
1005.3000;0.5112;-3.3597;
1005.6000;0.5128;-3.3597;
1005.9000;0.5112;-3.3646;
1006.2000;0.5112;-3.3696;
1006.5000;0.5112;-3.3746;
1006.8000;0.5104;-3.3771;
1007.1000;0.5153;-3.3597;
1007.4000;0.5112;-3.3621;
1007.7000;0.5104;-3.3671;
1008.0000;0.5120;-3.3746;
1008.3000;0.5096;-3.3746;
1008.6000;0.5112;-3.3721;
1008.9000;0.5153;-3.3597;
1009.2000;0.5096;-3.3572;
1009.5000;0.5079;-3.3621;
1009.8000;0.5096;-3.3572;
1010.1000;0.5136;-3.3472;
1010.4000;0.5120;-3.3522;
1010.7000;0.5088;-3.3646;
1011.0000;0.5096;-3.3522;
1011.3000;0.5096;-3.3497;
1011.6000;0.5104;-3.3472;
1011.9000;0.5096;-3.3398;
1012.2000;0.5112;-3.3298;
1012.5000;0.5104;-3.3323;
1012.8000;0.5153;-3.3248;
1013.1000;0.5112;-3.3398;
1013.4000;0.5112;-3.3472;
1013.7000;0.5096;-3.3472;
1014.0000;0.5210;-3.3224;
1014.3000;0.5120;-3.3422;
1014.6000;0.5104;-3.3398;
1014.9000;0.5128;-3.3373;
1015.2000;0.5096;-3.3472;
1015.5000;0.5112;-3.3398;
1015.8000;0.5104;-3.3373;
1016.1000;0.5120;-3.3422;
1016.4000;0.5144;-3.3373;
1016.7000;0.5136;-3.3522;
1017.0000;0.5136;-3.3522;
1017.3000;0.5153;-3.3447;
1017.6000;0.5136;-3.3497;
1017.9000;0.5120;-3.3497;
1018.2000;0.5104;-3.3572;
1018.5000;0.5120;-3.3572;
1018.8000;0.5120;-3.3671;
1019.1000;0.5120;-3.3621;
1019.4000;0.5104;-3.3721;
1019.7000;0.5120;-3.3671;
1020.0000;0.5104;-3.3621;
1020.3000;0.5096;-3.3671;
1020.6000;0.5144;-3.3472;
1020.9000;0.5096;-3.3621;
1021.2000;0.5120;-3.3621;
1021.5000;0.5104;-3.3671;
1021.8000;0.5136;-3.3621;
1022.1000;0.5128;-3.3547;
1022.4000;0.5153;-3.3522;
1022.7000;0.5104;-3.3671;
1023.0000;0.5120;-3.3621;
1023.3000;0.5112;-3.3547;
1023.6000;0.5079;-3.3522;
1023.9000;0.5104;-3.3547;
1024.2000;0.5112;-3.3547;
1024.5000;0.5096;-3.3522;
1024.8000;0.5104;-3.3497;
1025.1000;0.5088;-3.3621;
1025.4000;0.5104;-3.3547;
1025.7000;0.5112;-3.3522;
1026.0000;0.5104;-3.3572;
1026.3000;0.5104;-3.3621;
1026.6000;0.5144;-3.3547;
1026.9000;0.5120;-3.3522;
1027.2000;0.5096;-3.3572;
1027.5000;0.5096;-3.3572;
1027.8000;0.5104;-3.3547;
1028.1000;0.5112;-3.3472;
1028.4000;0.5136;-3.3472;
1028.7000;0.5104;-3.3522;
1029.0000;0.5144;-3.3398;
1029.3000;0.5104;-3.3472;
1029.6000;0.5088;-3.3497;
1029.9000;0.5079;-3.3447;
1030.2000;0.5088;-3.3547;
1030.5000;0.5104;-3.3646;
1030.8000;0.5120;-3.3572;
1031.1000;0.5112;-3.3597;
1031.4000;0.5112;-3.3547;
1031.7000;0.5112;-3.3597;
1032.0000;0.5096;-3.3597;
1032.3000;0.5112;-3.3497;
1032.6000;0.5104;-3.3621;
1032.9000;0.5088;-3.3746;
1033.2000;0.5120;-3.3671;
1033.5000;0.5104;-3.3696;
1033.8000;0.5088;-3.3721;
1034.1000;0.5104;-3.3721;
1034.4000;0.5088;-3.3646;
1034.7000;0.5104;-3.3646;
1035.0000;0.5112;-3.3671;
1035.3000;0.5120;-3.3621;
1035.6000;0.5079;-3.3696;
1035.9000;0.5088;-3.3671;
1036.2000;0.5104;-3.3621;
1036.5000;0.5088;-3.3621;
1036.8000;0.5096;-3.3646;
1037.1000;0.5096;-3.3597;
1037.4000;0.5104;-3.3522;
1037.7000;0.5144;-3.3422;
1038.0000;0.5096;-3.3547;
1038.3000;0.5104;-3.3522;
1038.6000;0.5112;-3.3373;
1038.9000;0.5096;-3.3398;
1039.2000;0.5120;-3.3447;
1039.5000;0.5104;-3.3522;
1039.8000;0.5112;-3.3522;
1040.1000;0.5128;-3.3497;
1040.4000;0.5120;-3.3522;
1040.7000;0.5112;-3.3497;
1041.0000;0.5088;-3.3447;
1041.3000;0.5039;-3.3497;
1041.6000;0.5096;-3.3323;
1041.9000;0.5096;-3.3323;
1042.2000;0.5079;-3.3323;
1042.5000;0.5063;-3.3373;
1042.8000;0.5112;-3.3273;
1043.1000;0.5112;-3.3323;
1043.4000;0.5112;-3.3273;
1043.7000;0.5104;-3.3248;
1044.0000;0.5096;-3.3323;
1044.3000;0.5104;-3.3323;
1044.6000;0.5071;-3.3447;
1044.9000;0.5096;-3.3447;
1045.2000;0.5096;-3.3522;
1045.5000;0.5104;-3.3497;
1045.8000;0.5096;-3.3422;
1046.1000;0.5104;-3.3373;
1046.4000;0.5088;-3.3422;
1046.7000;0.5112;-3.3398;
1047.0000;0.5120;-3.3348;
1047.3000;0.5055;-3.3422;
1047.6000;0.5112;-3.3273;
1047.9000;0.5112;-3.3348;
1048.2000;0.5096;-3.3447;
1048.5000;0.5063;-3.3621;
1048.8000;0.5071;-3.3572;
1049.1000;0.5088;-3.3547;
1049.4000;0.5079;-3.3572;
1049.7000;0.5079;-3.3497;
1050.0000;0.5088;-3.3422;
1050.3000;0.5096;-3.3398;
1050.6000;0.5096;-3.3348;
1050.9000;0.5104;-3.3373;
1051.2000;0.5112;-3.3323;
1051.5000;0.5096;-3.3323;
1051.8000;0.5088;-3.3273;
1052.1000;0.5096;-3.3273;
1052.4000;0.5112;-3.3323;
1052.7000;0.5112;-3.3348;
1053.0000;0.5104;-3.3373;
1053.3000;0.5120;-3.3373;
1053.6000;0.5096;-3.3398;
1053.9000;0.5112;-3.3373;
1054.2000;0.5104;-3.3422;
1054.5000;0.5104;-3.3472;
1054.8000;0.5104;-3.3621;
1055.1000;0.5104;-3.3621;
1055.4000;0.5112;-3.3572;
1055.7000;0.5096;-3.3497;
1056.0000;0.5104;-3.3373;
1056.3000;0.5104;-3.3398;
1056.6000;0.5104;-3.3298;
1056.9000;0.5047;-3.3472;
1057.2000;0.5112;-3.3273;
1057.5000;0.5088;-3.3298;
1057.8000;0.5055;-3.3398;
1058.1000;0.5104;-3.3199;
1058.4000;0.5104;-3.3174;
1058.7000;0.5104;-3.3174;
1059.0000;0.5088;-3.3298;
1059.3000;0.5104;-3.3348;
1059.6000;0.5096;-3.3422;
1059.9000;0.5104;-3.3422;
1060.2000;0.5185;-3.3174;
1060.5000;0.5096;-3.3398;
1060.8000;0.5088;-3.3422;
1061.1000;0.5104;-3.3447;
1061.4000;0.5104;-3.3472;
1061.7000;0.5104;-3.3447;
1062.0000;0.5112;-3.3447;
1062.3000;0.5112;-3.3472;
1062.6000;0.5096;-3.3572;
1062.9000;0.5112;-3.3472;
1063.2000;0.5112;-3.3348;
1063.5000;0.5088;-3.3422;
1063.8000;0.5112;-3.3422;
1064.1000;0.5096;-3.3547;
1064.4000;0.5120;-3.3422;
1064.7000;0.5096;-3.3422;
1065.0000;0.5112;-3.3422;
1065.3000;0.5104;-3.3447;
1065.6000;0.5128;-3.3447;
1065.9000;0.5104;-3.3621;
1066.2000;0.5112;-3.3597;
1066.5000;0.5136;-3.3572;
1066.8000;0.5112;-3.3572;
1067.1000;0.5120;-3.3696;
1067.4000;0.5161;-3.3621;
1067.7000;0.5136;-3.3646;
1068.0000;0.5120;-3.3671;
1068.3000;0.5096;-3.3646;
1068.6000;0.5104;-3.3497;
1068.9000;0.5112;-3.3472;
1069.2000;0.5104;-3.3472;
1069.5000;0.5169;-3.3273;
1069.8000;0.5120;-3.3273;
1070.1000;0.5104;-3.3323;
1070.4000;0.5088;-3.3373;
1070.7000;0.5096;-3.3373;
1071.0000;0.5079;-3.3348;
1071.3000;0.5079;-3.3348;
1071.6000;0.5096;-3.3248;
1071.9000;0.5063;-3.3298;
1072.2000;0.5079;-3.3273;
1072.5000;0.5096;-3.3298;
1072.8000;0.5104;-3.3422;
1073.1000;0.5096;-3.3472;
1073.4000;0.5079;-3.3522;
1073.7000;0.5088;-3.3547;
1074.0000;0.5112;-3.3497;
1074.3000;0.5104;-3.3422;
1074.6000;0.5088;-3.3472;
1074.9000;0.5088;-3.3373;
1075.2000;0.5079;-3.3447;
1075.5000;0.5120;-3.3447;
1075.8000;0.5128;-3.3422;
1076.1000;0.5096;-3.3522;
1076.4000;0.5079;-3.3522;
1076.7000;0.5120;-3.3422;
1077.0000;0.5104;-3.3472;
1077.3000;0.5153;-3.3398;
1077.6000;0.5120;-3.3547;
1077.9000;0.5112;-3.3572;
1078.2000;0.5096;-3.3597;
1078.5000;0.5104;-3.3597;
1078.8000;0.5112;-3.3646;
1079.1000;0.5088;-3.3572;
1079.4000;0.5088;-3.3621;
1079.7000;0.5096;-3.3597;
1080.0000;0.5088;-3.3621;
1080.3000;0.5104;-3.3597;
1080.6000;0.5055;-3.3671;
1080.9000;0.5022;-3.3696;
1081.2000;0.5079;-3.3472;
1081.5000;0.5104;-3.3447;
1081.8000;0.5120;-3.3422;
1082.1000;0.5120;-3.3323;
1082.4000;0.5104;-3.3323;
1082.7000;0.5112;-3.3298;
1083.0000;0.5120;-3.3248;
1083.3000;0.5071;-3.3422;
1083.6000;0.5079;-3.3373;
1083.9000;0.5088;-3.3348;
1084.2000;0.5088;-3.3323;
1084.5000;0.5088;-3.3348;
1084.8000;0.5112;-3.3348;
1085.1000;0.5112;-3.3348;
1085.4000;0.5120;-3.3373;
1085.7000;0.5112;-3.3323;
1086.0000;0.5128;-3.3398;
1086.3000;0.5104;-3.3422;
1086.6000;0.5169;-3.3398;
1086.9000;0.5112;-3.3572;
1087.2000;0.5144;-3.3572;
1087.5000;0.5112;-3.3621;
1087.8000;0.5096;-3.3597;
1088.1000;0.5104;-3.3547;
1088.4000;0.5104;-3.3547;
1088.7000;0.5112;-3.3447;
1089.0000;0.5104;-3.3547;
1089.3000;0.5096;-3.3597;
1089.6000;0.5136;-3.3398;
1089.9000;0.5104;-3.3447;
1090.2000;0.5112;-3.3472;
1090.5000;0.5079;-3.3597;
1090.8000;0.5096;-3.3547;
1091.1000;0.5088;-3.3597;
1091.4000;0.5112;-3.3547;
1091.7000;0.5096;-3.3547;
1092.0000;0.5104;-3.3522;
1092.3000;0.5120;-3.3522;
1092.6000;0.5112;-3.3522;
1092.9000;0.5104;-3.3547;
1093.2000;0.5088;-3.3547;
1093.5000;0.5079;-3.3522;
1093.8000;0.5128;-3.3298;
1094.1000;0.5112;-3.3323;
1094.4000;0.5169;-3.3248;
1094.7000;0.5079;-3.3472;
1095.0000;0.5104;-3.3472;
1095.3000;0.5104;-3.3497;
1095.6000;0.5104;-3.3522;
1095.9000;0.5096;-3.3522;
1096.2000;0.5104;-3.3597;
1096.5000;0.5112;-3.3522;
1096.8000;0.5104;-3.3572;
1097.1000;0.5079;-3.3646;
1097.4000;0.5096;-3.3572;
1097.7000;0.5120;-3.3497;
1098.0000;0.5128;-3.3497;
1098.3000;0.5136;-3.3398;
1098.6000;0.5120;-3.3398;
1098.9000;0.5112;-3.3447;
1099.2000;0.5071;-3.3572;
1099.5000;0.5096;-3.3522;
1099.8000;0.5104;-3.3497;
1100.1000;0.5120;-3.3522;
1100.4000;0.5096;-3.3572;
1100.7000;0.5112;-3.3522;
1101.0000;0.5104;-3.3497;
1101.3000;0.5079;-3.3447;
1101.6000;0.5071;-3.3472;
1101.9000;0.5120;-3.3348;
1102.2000;0.5144;-3.3273;
1102.5000;0.5079;-3.3348;
1102.8000;0.5096;-3.3373;
1103.1000;0.5161;-3.3099;
1103.4000;0.5112;-3.3273;
1103.7000;0.5096;-3.3373;
1104.0000;0.5112;-3.3398;
1104.3000;0.5096;-3.3422;
1104.6000;0.5096;-3.3472;
1104.9000;0.5014;-3.3771;
1105.2000;0.5096;-3.3497;
1105.5000;0.5071;-3.3497;
1105.8000;0.5120;-3.3298;
1106.1000;0.5063;-3.3373;
1106.4000;0.5079;-3.3273;
1106.7000;0.5079;-3.3273;
1107.0000;0.5120;-3.3224;
1107.3000;0.5079;-3.3348;
1107.6000;0.5104;-3.3248;
1107.9000;0.5104;-3.3298;
1108.2000;0.5161;-3.3199;
1108.5000;0.5112;-3.3323;
1108.8000;0.5112;-3.3348;
1109.1000;0.5079;-3.3497;
1109.4000;0.5104;-3.3348;
1109.7000;0.5112;-3.3398;
1110.0000;0.5096;-3.3497;
1110.3000;0.5096;-3.3472;
1110.6000;0.5104;-3.3373;
1110.9000;0.5112;-3.3323;
1111.2000;0.5104;-3.3398;
1111.5000;0.5112;-3.3398;
1111.8000;0.5096;-3.3447;
1112.1000;0.5104;-3.3547;
1112.4000;0.5104;-3.3547;
1112.7000;0.5096;-3.3472;
1113.0000;0.5153;-3.3224;
1113.3000;0.4990;-3.3621;
1113.6000;0.5096;-3.3422;
1113.9000;0.5079;-3.3497;
1114.2000;0.5096;-3.3472;
1114.5000;0.5071;-3.3447;
1114.8000;0.5088;-3.3422;
1115.1000;0.5079;-3.3472;
1115.4000;0.5096;-3.3447;
1115.7000;0.5120;-3.3522;
1116.0000;0.5120;-3.3447;
1116.3000;0.5112;-3.3472;
1116.6000;0.5128;-3.3497;
1116.9000;0.5112;-3.3522;
1117.2000;0.5039;-3.3746;
1117.5000;0.5096;-3.3572;
1117.8000;0.5104;-3.3621;
1118.1000;0.5079;-3.3696;
1118.4000;0.5144;-3.3547;
1118.7000;0.5096;-3.3721;
1119.0000;0.5055;-3.3796;
1119.3000;0.5104;-3.3597;
1119.6000;0.5104;-3.3646;
1119.9000;0.5104;-3.3621;
1120.2000;0.5088;-3.3621;
1120.5000;0.5104;-3.3597;
1120.8000;0.5144;-3.3522;
1121.1000;0.5104;-3.3572;
1121.4000;0.5088;-3.3572;
1121.7000;0.5055;-3.3597;
1122.0000;0.5104;-3.3621;
1122.3000;0.5104;-3.3547;
1122.6000;0.5128;-3.3497;
1122.9000;0.5104;-3.3497;
1123.2000;0.5096;-3.3572;
1123.5000;0.5096;-3.3696;
1123.8000;0.5096;-3.3646;
1124.1000;0.5193;-3.3398;
1124.4000;0.5079;-3.3572;
1124.7000;0.5096;-3.3472;
1125.0000;0.5088;-3.3422;
1125.3000;0.5088;-3.3447;
1125.6000;0.5120;-3.3373;
1125.9000;0.5079;-3.3422;
1126.2000;0.5120;-3.3422;
1126.5000;0.5112;-3.3472;
1126.8000;0.5112;-3.3422;
1127.1000;0.5079;-3.3522;
1127.4000;0.5104;-3.3547;
1127.7000;0.5096;-3.3472;
1128.0000;0.5104;-3.3472;
1128.3000;0.5104;-3.3522;
1128.6000;0.5120;-3.3422;
1128.9000;0.5104;-3.3398;
1129.2000;0.5079;-3.3472;
1129.5000;0.5112;-3.3398;
1129.8000;0.5104;-3.3447;
1130.1000;0.5088;-3.3422;
1130.4000;0.5079;-3.3348;
1130.7000;0.5088;-3.3348;
1131.0000;0.5096;-3.3323;
1131.3000;0.5104;-3.3422;
1131.6000;0.5120;-3.3398;
1131.9000;0.5088;-3.3497;
1132.2000;0.5104;-3.3472;
1132.5000;0.5112;-3.3422;
1132.8000;0.5104;-3.3422;
1133.1000;0.5063;-3.3597;
1133.4000;0.5096;-3.3497;
1133.7000;0.5104;-3.3547;
1134.0000;0.5079;-3.3572;
1134.3000;0.5088;-3.3621;
1134.6000;0.5112;-3.3621;
1134.9000;0.5104;-3.3696;
1135.2000;0.5096;-3.3572;
1135.5000;0.5104;-3.3522;
1135.8000;0.5104;-3.3472;
1136.1000;0.5104;-3.3497;
1136.4000;0.5104;-3.3497;
1136.7000;0.5120;-3.3398;
1137.0000;0.5128;-3.3323;
1137.3000;0.5136;-3.3373;
1137.6000;0.5104;-3.3348;
1137.9000;0.5088;-3.3422;
1138.2000;0.5120;-3.3447;
1138.5000;0.5112;-3.3398;
1138.8000;0.5120;-3.3323;
1139.1000;0.5096;-3.3422;
1139.4000;0.5193;-3.3174;
1139.7000;0.5112;-3.3447;
1140.0000;0.5096;-3.3323;
1140.3000;0.5112;-3.3348;
1140.6000;0.5104;-3.3398;
1140.9000;0.5136;-3.3348;
1141.2000;0.5104;-3.3398;
1141.5000;0.5104;-3.3447;
1141.8000;0.5014;-3.3721;
1142.1000;0.5104;-3.3447;
1142.4000;0.5104;-3.3422;
1142.7000;0.5088;-3.3497;
1143.0000;0.5071;-3.3597;
1143.3000;0.5096;-3.3646;
1143.6000;0.5104;-3.3572;
1143.9000;0.5112;-3.3522;
1144.2000;0.5112;-3.3547;
1144.5000;0.5088;-3.3597;
1144.8000;0.5104;-3.3597;
1145.1000;0.5104;-3.3621;
1145.4000;0.5144;-3.3547;
1145.7000;0.5112;-3.3547;
1146.0000;0.5120;-3.3497;
1146.3000;0.5104;-3.3597;
1146.6000;0.5112;-3.3621;
1146.9000;0.5079;-3.3597;
1147.2000;0.5128;-3.3398;
1147.5000;0.5104;-3.3472;
1147.8000;0.5096;-3.3547;
1148.1000;0.5104;-3.3597;
1148.4000;0.5104;-3.3572;
1148.7000;0.5104;-3.3597;
1149.0000;0.5096;-3.3572;
1149.3000;0.5120;-3.3646;
1149.6000;0.5120;-3.3646;
1149.9000;0.5104;-3.3621;
1150.2000;0.5104;-3.3621;
1150.5000;0.5104;-3.3746;
1150.8000;0.5104;-3.3746;
1151.1000;0.5120;-3.3646;
1151.4000;0.5096;-3.3696;
1151.7000;0.5104;-3.3646;
1152.0000;0.5079;-3.3646;
1152.3000;0.5112;-3.3572;
1152.6000;0.5104;-3.3621;
1152.9000;0.5112;-3.3597;
1153.2000;0.5112;-3.3572;
1153.5000;0.5096;-3.3597;
1153.8000;0.5088;-3.3671;
1154.1000;0.5022;-3.3796;
1154.4000;0.5079;-3.3621;
1154.7000;0.5079;-3.3597;
1155.0000;0.5161;-3.3398;
1155.3000;0.5112;-3.3597;
1155.6000;0.5063;-3.3696;
1155.9000;0.5096;-3.3572;
1156.2000;0.5104;-3.3472;
1156.5000;0.5096;-3.3447;
1156.8000;0.5112;-3.3447;
1157.1000;0.5096;-3.3497;
1157.4000;0.5104;-3.3522;
1157.7000;0.5104;-3.3497;
1158.0000;0.5120;-3.3497;
1158.3000;0.5104;-3.3497;
1158.6000;0.5088;-3.3572;
1158.9000;0.5104;-3.3497;
1159.2000;0.5112;-3.3547;
1159.5000;0.5112;-3.3547;
1159.8000;0.5104;-3.3522;
1160.1000;0.5104;-3.3547;
1160.4000;0.5104;-3.3547;
1160.7000;0.5153;-3.3398;
1161.0000;0.5079;-3.3547;
1161.3000;0.5055;-3.3472;
1161.6000;0.5112;-3.3348;
1161.9000;0.5128;-3.3248;
1162.2000;0.5104;-3.3373;
1162.5000;0.5120;-3.3273;
1162.8000;0.5088;-3.3422;
1163.1000;0.5104;-3.3373;
1163.4000;0.5063;-3.3447;
1163.7000;0.5088;-3.3472;
1164.0000;0.5096;-3.3547;
1164.3000;0.5104;-3.3497;
1164.6000;0.5096;-3.3497;
1164.9000;0.5096;-3.3472;
1165.2000;0.5096;-3.3472;
1165.5000;0.5096;-3.3522;
1165.8000;0.5088;-3.3522;
1166.1000;0.5079;-3.3597;
1166.4000;0.5055;-3.3796;
1166.7000;0.5096;-3.3671;
1167.0000;0.5055;-3.3522;
1167.3000;0.5104;-3.3422;
1167.6000;0.5096;-3.3522;
1167.9000;0.5088;-3.3422;
1168.2000;0.5120;-3.3348;
1168.5000;0.5144;-3.3248;
1168.8000;0.5047;-3.3572;
1169.1000;0.5079;-3.3547;
1169.4000;0.5120;-3.3472;
1169.7000;0.5112;-3.3398;
1170.0000;0.5112;-3.3422;
1170.3000;0.5096;-3.3422;
1170.6000;0.5096;-3.3373;
1170.9000;0.5112;-3.3373;
1171.2000;0.5112;-3.3572;
1171.5000;0.5104;-3.3572;
1171.8000;0.5096;-3.3597;
1172.1000;0.5104;-3.3621;
1172.4000;0.5096;-3.3597;
1172.7000;0.5104;-3.3547;
1173.0000;0.5112;-3.3522;
1173.3000;0.5079;-3.3572;
1173.6000;0.5104;-3.3547;
1173.9000;0.5104;-3.3522;
1174.2000;0.5112;-3.3522;
1174.5000;0.5079;-3.3547;
1174.8000;0.5136;-3.3373;
1175.1000;0.5104;-3.3497;
1175.4000;0.5112;-3.3522;
1175.7000;0.5088;-3.3572;
1176.0000;0.5096;-3.3572;
1176.3000;0.5104;-3.3497;
1176.6000;0.5096;-3.3497;
1176.9000;0.5088;-3.3497;
1177.2000;0.5096;-3.3422;
1177.5000;0.5096;-3.3422;
1177.8000;0.5112;-3.3398;
1178.1000;0.5104;-3.3373;
1178.4000;0.5088;-3.3323;
1178.7000;0.5104;-3.3323;
1179.0000;0.5104;-3.3323;
1179.3000;0.5031;-3.3497;
1179.6000;0.5104;-3.3373;
1179.9000;0.5104;-3.3298;
1180.2000;0.5079;-3.3323;
1180.5000;0.5112;-3.3273;
1180.8000;0.5120;-3.3224;
1181.1000;0.5144;-3.3199;
1181.4000;0.5071;-3.3398;
1181.7000;0.5096;-3.3373;
1182.0000;0.5096;-3.3373;
1182.3000;0.5079;-3.3472;
1182.6000;0.5096;-3.3447;
1182.9000;0.5096;-3.3422;
1183.2000;0.5088;-3.3447;
1183.5000;0.5177;-3.3224;
1183.8000;0.5096;-3.3398;
1184.1000;0.5112;-3.3373;
1184.4000;0.5079;-3.3373;
1184.7000;0.5088;-3.3422;
1185.0000;0.5071;-3.3497;
1185.3000;0.5136;-3.3373;
1185.6000;0.5088;-3.3447;
1185.9000;0.5104;-3.3373;
1186.2000;0.5088;-3.3422;
1186.5000;0.5128;-3.3348;
1186.8000;0.5112;-3.3422;
1187.1000;0.5104;-3.3472;
1187.4000;0.5128;-3.3323;
1187.7000;0.5104;-3.3422;
1188.0000;0.5079;-3.3447;
1188.3000;0.5096;-3.3373;
1188.6000;0.5088;-3.3398;
1188.9000;0.5088;-3.3373;
1189.2000;0.5096;-3.3398;
1189.5000;0.5112;-3.3348;
1189.8000;0.5047;-3.3447;
1190.1000;0.5088;-3.3422;
1190.4000;0.5088;-3.3373;
1190.7000;0.5120;-3.3348;
1191.0000;0.5079;-3.3348;
1191.3000;0.5096;-3.3373;
1191.6000;0.5088;-3.3422;
1191.9000;0.5088;-3.3447;
1192.2000;0.5104;-3.3447;
1192.5000;0.5096;-3.3447;
1192.8000;0.5104;-3.3398;
1193.1000;0.5120;-3.3348;
1193.4000;0.5079;-3.3398;
1193.7000;0.5112;-3.3373;
1194.0000;0.5096;-3.3422;
1194.3000;0.5144;-3.3348;
1194.6000;0.5128;-3.3447;
1194.9000;0.5096;-3.3572;
1195.2000;0.5088;-3.3497;
1195.5000;0.5161;-3.3398;
1195.8000;0.5104;-3.3522;
1196.1000;0.5112;-3.3447;
1196.4000;0.5088;-3.3572;
1196.7000;0.5031;-3.3796;
1197.0000;0.5063;-3.3746;
1197.3000;0.5096;-3.3721;
1197.6000;0.5104;-3.3671;
1197.9000;0.5104;-3.3621;
1198.2000;0.5112;-3.3497;
1198.5000;0.5022;-3.3820;
1198.8000;0.5104;-3.3621;
1199.1000;0.5120;-3.3621;
1199.4000;0.5120;-3.3671;
1199.7000;0.5120;-3.3646;
1200.0000;0.5112;-3.3497;
1200.3000;0.5144;-3.3348;
1200.6000;0.5088;-3.3398;
1200.9000;0.5177;-3.3174;
1201.2000;0.5079;-3.3447;
1201.5000;0.5096;-3.3373;
1201.8000;0.5096;-3.3422;
1202.1000;0.5153;-3.3298;
1202.4000;0.5120;-3.3298;
1202.7000;0.5112;-3.3323;
1203.0000;0.5104;-3.3298;
1203.3000;0.5071;-3.3323;
1203.6000;0.5006;-3.3497;
1203.9000;0.5096;-3.3373;
1204.2000;0.5120;-3.3298;
1204.5000;0.5079;-3.3398;
1204.8000;0.5104;-3.3273;
1205.1000;0.5071;-3.3348;
1205.4000;0.5136;-3.3174;
1205.7000;0.5088;-3.3273;
1206.0000;0.5112;-3.3298;
1206.3000;0.5096;-3.3348;
1206.6000;0.5104;-3.3323;
1206.9000;0.5096;-3.3398;
1207.2000;0.5096;-3.3398;
1207.5000;0.5096;-3.3373;
1207.8000;0.5120;-3.3323;
1208.1000;0.5088;-3.3447;
1208.4000;0.5088;-3.3422;
1208.7000;0.5079;-3.3373;
1209.0000;0.5088;-3.3323;
1209.3000;0.5088;-3.3348;
1209.6000;0.5096;-3.3447;
1209.9000;0.5104;-3.3447;
1210.2000;0.5096;-3.3497;
1210.5000;0.5112;-3.3547;
1210.8000;0.5088;-3.3522;
1211.1000;0.5104;-3.3497;
1211.4000;0.5112;-3.3447;
1211.7000;0.5096;-3.3348;
1212.0000;0.5112;-3.3224;
1212.3000;0.5088;-3.3174;
1212.6000;0.5071;-3.3248;
1212.9000;0.5153;-3.3000;
1213.2000;0.5112;-3.3025;
1213.5000;0.5153;-3.3000;
1213.8000;0.5120;-3.3074;
1214.1000;0.5128;-3.3149;
1214.4000;0.5104;-3.3149;
1214.7000;0.5128;-3.3149;
1215.0000;0.5096;-3.3174;
1215.3000;0.5112;-3.3149;
1215.6000;0.5055;-3.3298;
1215.9000;0.5079;-3.3298;
1216.2000;0.5088;-3.3224;
1216.5000;0.5120;-3.3124;
1216.8000;0.5096;-3.3174;
1217.1000;0.5096;-3.3124;
1217.4000;0.5096;-3.3174;
1217.7000;0.5161;-3.3099;
1218.0000;0.5112;-3.3199;
1218.3000;0.5096;-3.3273;
1218.6000;0.5063;-3.3422;
1218.9000;0.5096;-3.3373;
1219.2000;0.5120;-3.3174;
1219.5000;0.5136;-3.3149;
1219.8000;0.5088;-3.3348;
1220.1000;0.5104;-3.3348;
1220.4000;0.5104;-3.3373;
1220.7000;0.5120;-3.3273;
1221.0000;0.4982;-3.3547;
1221.3000;0.5136;-3.3174;
1221.6000;0.5104;-3.3224;
1221.9000;0.5120;-3.3149;
1222.2000;0.5063;-3.3298;
1222.5000;0.5104;-3.3224;
1222.8000;0.5096;-3.3174;
1223.1000;0.5047;-3.3273;
1223.4000;0.5088;-3.3199;
1223.7000;0.5063;-3.3273;
1224.0000;0.5096;-3.3174;
1224.3000;0.5096;-3.3124;
1224.6000;0.5088;-3.3149;
1224.9000;0.5088;-3.3174;
1225.2000;0.5112;-3.3174;
1225.5000;0.5096;-3.3224;
1225.8000;0.5104;-3.3248;
1226.1000;0.5185;-3.3000;
1226.4000;0.5088;-3.3298;
1226.7000;0.5088;-3.3199;
1227.0000;0.5063;-3.3273;
1227.3000;0.5071;-3.3248;
1227.6000;0.5104;-3.3224;
1227.9000;0.5096;-3.3248;
1228.2000;0.5177;-3.2975;
1228.5000;0.5071;-3.3248;
1228.8000;0.5104;-3.3199;
1229.1000;0.5079;-3.3224;
1229.4000;0.5096;-3.3298;
1229.7000;0.5112;-3.3323;
1230.0000;0.5096;-3.3398;
1230.3000;0.5104;-3.3348;
1230.6000;0.5079;-3.3447;
1230.9000;0.5096;-3.3373;
1231.2000;0.5104;-3.3323;
1231.5000;0.5096;-3.3323;
1231.8000;0.5112;-3.3323;
1232.1000;0.5104;-3.3348;
1232.4000;0.5112;-3.3273;
1232.7000;0.5112;-3.3224;
1233.0000;0.5144;-3.3124;
1233.3000;0.5088;-3.3273;
1233.6000;0.5096;-3.3323;
1233.9000;0.5096;-3.3298;
1234.2000;0.5088;-3.3348;
1234.5000;0.5071;-3.3398;
1234.8000;0.5104;-3.3348;
1235.1000;0.5079;-3.3323;
1235.4000;0.5096;-3.3373;
1235.7000;0.5088;-3.3348;
1236.0000;0.5047;-3.3323;
1236.3000;0.5104;-3.3149;
1236.6000;0.5104;-3.3099;
1236.9000;0.5096;-3.3099;
1237.2000;0.5096;-3.3099;
1237.5000;0.5096;-3.3149;
1237.8000;0.5096;-3.3348;
1238.1000;0.5104;-3.3323;
1238.4000;0.5104;-3.3149;
1238.7000;0.5096;-3.3149;
1239.0000;0.5104;-3.3224;
1239.3000;0.5120;-3.3298;
1239.6000;0.5055;-3.3447;
1239.9000;0.5071;-3.3348;
1240.2000;0.5096;-3.3273;
1240.5000;0.5161;-3.2975;
1240.8000;0.5088;-3.3199;
1241.1000;0.5096;-3.3248;
1241.4000;0.5055;-3.3273;
1241.7000;0.5079;-3.3199;
1242.0000;0.5096;-3.3273;
1242.3000;0.5088;-3.3248;
1242.6000;0.5096;-3.3224;
1242.9000;0.5112;-3.3199;
1243.2000;0.5071;-3.3273;
1243.5000;0.5096;-3.3199;
1243.8000;0.5096;-3.3248;
1244.1000;0.5104;-3.3124;
1244.4000;0.5096;-3.3199;
1244.7000;0.5096;-3.3224;
1245.0000;0.5128;-3.3149;
1245.3000;0.5088;-3.3174;
1245.6000;0.5112;-3.3174;
1245.9000;0.5096;-3.3248;
1246.2000;0.5104;-3.3273;
1246.5000;0.5079;-3.3323;
1246.8000;0.5128;-3.3273;
1247.1000;0.5144;-3.3199;
1247.4000;0.5088;-3.3447;
1247.7000;0.5079;-3.3447;
1248.0000;0.5079;-3.3422;
1248.3000;0.5104;-3.3398;
1248.6000;0.5071;-3.3472;
1248.9000;0.5079;-3.3422;
1249.2000;0.5104;-3.3348;
1249.5000;0.5120;-3.3348;
1249.8000;0.5112;-3.3422;
1250.1000;0.5104;-3.3447;
1250.4000;0.5112;-3.3323;
1250.7000;0.5071;-3.3472;
1251.0000;0.5079;-3.3298;
1251.3000;0.5022;-3.3398;
1251.6000;0.5071;-3.3323;
1251.9000;0.5096;-3.3373;
1252.2000;0.5104;-3.3422;
1252.5000;0.5022;-3.3696;
1252.8000;0.5096;-3.3447;
1253.1000;0.5096;-3.3398;
1253.4000;0.5104;-3.3373;
1253.7000;0.5104;-3.3348;
1254.0000;0.5088;-3.3298;
1254.3000;0.5088;-3.3323;
1254.6000;0.5079;-3.3472;
1254.9000;0.5104;-3.3398;
1255.2000;0.5096;-3.3348;
1255.5000;0.5112;-3.3323;
1255.8000;0.5112;-3.3422;
1256.1000;0.5104;-3.3323;
1256.4000;0.5128;-3.3248;
1256.7000;0.5120;-3.3224;
1257.0000;0.5096;-3.3298;
1257.3000;0.5104;-3.3273;
1257.6000;0.5112;-3.3273;
1257.9000;0.5088;-3.3224;
1258.2000;0.5104;-3.3199;
1258.5000;0.5144;-3.3049;
1258.8000;0.5112;-3.3149;
1259.1000;0.5088;-3.3273;
1259.4000;0.5079;-3.3224;
1259.7000;0.5063;-3.3323;
1260.0000;0.5104;-3.3149;
1260.3000;0.5047;-3.3273;
1260.6000;0.5096;-3.3149;
1260.9000;0.5112;-3.3149;
1261.2000;0.5112;-3.3224;
1261.5000;0.5104;-3.3273;
1261.8000;0.5144;-3.3124;
1262.1000;0.5128;-3.3124;
1262.4000;0.5096;-3.3149;
1262.7000;0.5096;-3.3149;
1263.0000;0.5104;-3.3224;
1263.3000;0.5088;-3.3248;
1263.6000;0.5120;-3.3348;
1263.9000;0.5112;-3.3422;
1264.2000;0.5088;-3.3447;
1264.5000;0.5079;-3.3472;
1264.8000;0.5104;-3.3298;
1265.1000;0.5104;-3.3248;
1265.4000;0.5096;-3.3248;
1265.7000;0.5104;-3.3298;
1266.0000;0.5088;-3.3273;
1266.3000;0.5096;-3.3273;
1266.6000;0.5112;-3.3298;
1266.9000;0.5096;-3.3373;
1267.2000;0.5071;-3.3472;
1267.5000;0.5112;-3.3398;
1267.8000;0.5104;-3.3497;
1268.1000;0.5071;-3.3497;
1268.4000;0.5096;-3.3472;
1268.7000;0.5120;-3.3422;
1269.0000;0.5112;-3.3348;
1269.3000;0.5088;-3.3422;
1269.6000;0.5096;-3.3472;
1269.9000;0.5088;-3.3522;
1270.2000;0.5096;-3.3597;
1270.5000;0.5096;-3.3547;
1270.8000;0.5096;-3.3547;
1271.1000;0.5112;-3.3497;
1271.4000;0.5128;-3.3373;
1271.7000;0.5096;-3.3472;
1272.0000;0.5096;-3.3497;
1272.3000;0.5112;-3.3422;
1272.6000;0.5104;-3.3348;
1272.9000;0.5096;-3.3447;
1273.2000;0.5096;-3.3547;
1273.5000;0.5120;-3.3497;
1273.8000;0.5112;-3.3472;
1274.1000;0.5104;-3.3547;
1274.4000;0.5063;-3.3771;
1274.7000;0.5096;-3.3746;
1275.0000;0.5112;-3.3671;
1275.3000;0.5096;-3.3646;
1275.6000;0.5063;-3.3646;
1275.9000;0.5120;-3.3497;
1276.2000;0.5096;-3.3522;
1276.5000;0.5104;-3.3447;
1276.8000;0.5104;-3.3323;
1277.1000;0.5104;-3.3273;
1277.4000;0.5088;-3.3323;
1277.7000;0.5096;-3.3323;
1278.0000;0.5088;-3.3298;
1278.3000;0.5096;-3.3273;
1278.6000;0.5096;-3.3248;
1278.9000;0.5112;-3.3224;
1279.2000;0.5096;-3.3199;
1279.5000;0.5112;-3.3199;
1279.8000;0.5128;-3.3199;
1280.1000;0.5088;-3.3348;
1280.4000;0.5096;-3.3373;
1280.7000;0.5104;-3.3323;
1281.0000;0.5120;-3.3373;
1281.3000;0.5104;-3.3398;
1281.6000;0.5088;-3.3472;
1281.9000;0.5088;-3.3522;
1282.2000;0.5088;-3.3522;
1282.5000;0.5104;-3.3497;
1282.8000;0.5088;-3.3447;
1283.1000;0.5088;-3.3472;
1283.4000;0.5104;-3.3522;
1283.7000;0.5088;-3.3572;
1284.0000;0.5071;-3.3646;
1284.3000;0.5079;-3.3646;
1284.6000;0.5096;-3.3547;
1284.9000;0.5096;-3.3522;
1285.2000;0.5104;-3.3422;
1285.5000;0.5112;-3.3323;
1285.8000;0.5112;-3.3373;
1286.1000;0.5088;-3.3398;
1286.4000;0.5088;-3.3472;
1286.7000;0.5096;-3.3398;
1287.0000;0.5136;-3.3298;
1287.3000;0.5177;-3.3224;
1287.6000;0.5031;-3.3547;
1287.9000;0.5112;-3.3323;
1288.2000;0.5128;-3.3273;
1288.5000;0.5088;-3.3373;
1288.8000;0.5088;-3.3348;
1289.1000;0.5088;-3.3373;
1289.4000;0.5104;-3.3398;
1289.7000;0.5104;-3.3472;
1290.0000;0.5104;-3.3398;
1290.3000;0.5039;-3.3497;
1290.6000;0.5104;-3.3323;
1290.9000;0.5096;-3.3323;
1291.2000;0.5136;-3.3298;
1291.5000;0.5104;-3.3373;
1291.8000;0.5104;-3.3373;
1292.1000;0.5079;-3.3373;
1292.4000;0.5096;-3.3348;
1292.7000;0.5096;-3.3373;
1293.0000;0.5104;-3.3348;
1293.3000;0.5120;-3.3373;
1293.6000;0.5063;-3.3447;
1293.9000;0.5153;-3.3248;
1294.2000;0.5104;-3.3398;
1294.5000;0.5104;-3.3422;
1294.8000;0.5096;-3.3323;
1295.1000;0.5104;-3.3348;
1295.4000;0.5112;-3.3348;
1295.7000;0.5088;-3.3248;
1296.0000;0.5096;-3.3248;
1296.3000;0.5153;-3.3074;
1296.6000;0.5088;-3.3174;
1296.9000;0.5096;-3.3248;
1297.2000;0.5096;-3.3248;
1297.5000;0.5112;-3.3124;
1297.8000;0.5088;-3.3199;
1298.1000;0.5088;-3.3149;
1298.4000;0.5088;-3.3124;
1298.7000;0.5079;-3.3174;
1299.0000;0.5112;-3.3124;
1299.3000;0.5104;-3.3149;
1299.6000;0.5169;-3.3099;
1299.9000;0.5096;-3.3348;
1300.2000;0.5096;-3.3298;
1300.5000;0.5096;-3.3348;
1300.8000;0.5096;-3.3398;
1301.1000;0.5096;-3.3472;
1301.4000;0.5088;-3.3472;
1301.7000;0.5088;-3.3398;
1302.0000;0.5096;-3.3248;
1302.3000;0.5071;-3.3298;
1302.6000;0.5071;-3.3323;
1302.9000;0.5096;-3.3273;
1303.2000;0.5104;-3.3199;
1303.5000;0.5088;-3.3224;
1303.8000;0.5104;-3.3248;
1304.1000;0.5088;-3.3298;
1304.4000;0.5136;-3.3124;
1304.7000;0.5079;-3.3174;
1305.0000;0.5120;-3.2975;
1305.3000;0.5096;-3.3000;
1305.6000;0.5096;-3.3000;
1305.9000;0.5104;-3.3099;
1306.2000;0.5104;-3.3149;
1306.5000;0.5136;-3.3099;
1306.8000;0.5088;-3.3248;
1307.1000;0.5088;-3.3298;
1307.4000;0.5079;-3.3422;
1307.7000;0.5112;-3.3298;
1308.0000;0.5144;-3.3248;
1308.3000;0.5096;-3.3422;
1308.6000;0.5144;-3.3224;
1308.9000;0.5088;-3.3298;
1309.2000;0.5014;-3.3398;
1309.5000;0.5112;-3.3273;
1309.8000;0.5104;-3.3298;
1310.1000;0.5079;-3.3348;
1310.4000;0.5104;-3.3273;
1310.7000;0.5096;-3.3298;
1311.0000;0.5071;-3.3298;
1311.3000;0.5096;-3.3273;
1311.6000;0.5096;-3.3298;
1311.9000;0.5088;-3.3323;
1312.2000;0.5112;-3.3348;
1312.5000;0.5071;-3.3447;
1312.8000;0.5096;-3.3373;
1313.1000;0.5104;-3.3373;
1313.4000;0.5088;-3.3348;
1313.7000;0.5063;-3.3398;
1314.0000;0.5088;-3.3373;
1314.3000;0.5079;-3.3348;
1314.6000;0.5079;-3.3348;
1314.9000;0.5096;-3.3323;
1315.2000;0.5112;-3.3348;
1315.5000;0.5088;-3.3373;
1315.8000;0.5112;-3.3273;
1316.1000;0.5096;-3.3224;
1316.4000;0.5071;-3.3273;
1316.7000;0.5096;-3.3199;
1317.0000;0.5112;-3.3124;
1317.3000;0.5112;-3.3099;
1317.6000;0.5096;-3.3149;
1317.9000;0.5104;-3.3224;
1318.2000;0.5096;-3.3273;
1318.5000;0.5104;-3.3199;
1318.8000;0.5120;-3.3174;
1319.1000;0.5104;-3.3248;
1319.4000;0.5096;-3.3273;
1319.7000;0.5096;-3.3273;
1320.0000;0.5120;-3.3224;
1320.3000;0.5201;-3.3049;
1320.6000;0.5104;-3.3248;
1320.9000;0.5063;-3.3248;
1321.2000;0.5088;-3.3149;
1321.5000;0.5096;-3.3149;
1321.8000;0.5104;-3.3174;
1322.1000;0.5104;-3.3099;
1322.4000;0.5088;-3.3149;
1322.7000;0.5104;-3.3149;
1323.0000;0.5088;-3.3174;
1323.3000;0.5096;-3.3149;
1323.6000;0.5185;-3.2950;
1323.9000;0.5104;-3.3174;
1324.2000;0.5104;-3.3124;
1324.5000;0.5071;-3.3323;
1324.8000;0.5096;-3.3273;
1325.1000;0.5104;-3.3149;
1325.4000;0.5112;-3.3099;
1325.7000;0.5088;-3.3248;
1326.0000;0.5096;-3.3199;
1326.3000;0.5112;-3.3124;
1326.6000;0.5136;-3.3099;
1326.9000;0.5096;-3.3273;
1327.2000;0.5112;-3.3273;
1327.5000;0.5104;-3.3224;
1327.8000;0.5096;-3.3298;
1328.1000;0.5112;-3.3174;
1328.4000;0.5055;-3.3422;
1328.7000;0.5079;-3.3273;
1329.0000;0.5055;-3.3298;
1329.3000;0.5112;-3.3124;
1329.6000;0.5096;-3.3149;
1329.9000;0.5104;-3.3174;
1330.2000;0.5112;-3.3124;
1330.5000;0.5104;-3.3124;
1330.8000;0.5096;-3.3199;
1331.1000;0.5104;-3.3273;
1331.4000;0.5104;-3.3224;
1331.7000;0.5104;-3.3323;
1332.0000;0.5120;-3.3398;
1332.3000;0.5104;-3.3373;
1332.6000;0.5104;-3.3447;
1332.9000;0.5112;-3.3348;
1333.2000;0.5112;-3.3398;
1333.5000;0.5079;-3.3522;
1333.8000;0.5079;-3.3422;
1334.1000;0.5120;-3.3348;
1334.4000;0.5120;-3.3373;
1334.7000;0.5096;-3.3373;
1335.0000;0.5063;-3.3472;
1335.3000;0.5022;-3.3621;
1335.6000;0.5104;-3.3472;
1335.9000;0.5088;-3.3522;
1336.2000;0.5104;-3.3522;
1336.5000;0.5096;-3.3547;
1336.8000;0.5096;-3.3522;
1337.1000;0.5088;-3.3472;
1337.4000;0.5096;-3.3447;
1337.7000;0.5096;-3.3497;
1338.0000;0.5104;-3.3522;
1338.3000;0.5112;-3.3522;
1338.6000;0.5104;-3.3522;
1338.9000;0.5088;-3.3547;
1339.2000;0.5096;-3.3572;
1339.5000;0.5112;-3.3447;
1339.8000;0.5096;-3.3373;
1340.1000;0.5112;-3.3348;
1340.4000;0.5079;-3.3298;
1340.7000;0.5079;-3.3298;
1341.0000;0.5112;-3.3224;
1341.3000;0.5104;-3.3199;
1341.6000;0.5088;-3.3149;
1341.9000;0.5096;-3.3149;
1342.2000;0.5112;-3.3099;
1342.5000;0.5079;-3.3373;
1342.8000;0.5079;-3.3422;
1343.1000;0.5096;-3.3373;
1343.4000;0.5104;-3.3348;
1343.7000;0.5112;-3.3323;
1344.0000;0.5096;-3.3422;
1344.3000;0.5039;-3.3522;
1344.6000;0.5104;-3.3348;
1344.9000;0.5104;-3.3422;
1345.2000;0.5104;-3.3447;
1345.5000;0.5096;-3.3422;
1345.8000;0.5096;-3.3422;
1346.1000;0.5096;-3.3348;
1346.4000;0.5112;-3.3248;
1346.7000;0.5071;-3.3373;
1347.0000;0.5104;-3.3323;
1347.3000;0.5136;-3.3323;
1347.6000;0.5096;-3.3373;
1347.9000;0.5104;-3.3398;
1348.2000;0.5096;-3.3447;
1348.5000;0.5096;-3.3422;
1348.8000;0.5079;-3.3447;
1349.1000;0.5112;-3.3398;
1349.4000;0.5120;-3.3348;
1349.7000;0.5071;-3.3398;
1350.0000;0.5112;-3.3373;
1350.3000;0.5088;-3.3398;
1350.6000;0.5096;-3.3373;
1350.9000;0.5088;-3.3422;
1351.2000;0.5112;-3.3447;
1351.5000;0.5096;-3.3497;
1351.8000;0.5039;-3.3547;
1352.1000;0.5096;-3.3323;
1352.4000;0.5096;-3.3298;
1352.7000;0.5104;-3.3224;
1353.0000;0.5104;-3.3248;
1353.3000;0.5096;-3.3323;
1353.6000;0.5079;-3.3323;
1353.9000;0.5104;-3.3224;
1354.2000;0.5112;-3.3248;
1354.5000;0.5088;-3.3348;
1354.8000;0.5096;-3.3422;
1355.1000;0.5079;-3.3497;
1355.4000;0.5096;-3.3422;
1355.7000;0.5096;-3.3522;
1356.0000;0.5112;-3.3472;
1356.3000;0.5071;-3.3547;
1356.6000;0.5047;-3.3696;
1356.9000;0.5112;-3.3597;
1357.2000;0.5071;-3.3771;
1357.5000;0.5063;-3.3820;
1357.8000;0.5096;-3.3796;
1358.1000;0.5088;-3.3696;
1358.4000;0.5079;-3.3721;
1358.7000;0.4982;-3.3895;
1359.0000;0.5079;-3.3547;
1359.3000;0.5136;-3.3348;
1359.6000;0.5096;-3.3373;
1359.9000;0.5088;-3.3398;
1360.2000;0.5022;-3.3572;
1360.5000;0.5096;-3.3348;
1360.8000;0.5096;-3.3323;
1361.1000;0.5088;-3.3373;
1361.4000;0.5104;-3.3273;
1361.7000;0.5088;-3.3298;
1362.0000;0.5104;-3.3199;
1362.3000;0.5153;-3.3199;
1362.6000;0.5096;-3.3348;
1362.9000;0.5104;-3.3298;
1363.2000;0.5096;-3.3273;
1363.5000;0.5104;-3.3174;
1363.8000;0.5096;-3.3174;
1364.1000;0.5079;-3.3248;
1364.4000;0.5096;-3.3248;
1364.7000;0.5088;-3.3248;
1365.0000;0.5088;-3.3199;
1365.3000;0.5120;-3.3074;
1365.6000;0.5079;-3.3248;
1365.9000;0.5088;-3.3323;
1366.2000;0.5104;-3.3273;
1366.5000;0.5096;-3.3199;
1366.8000;0.5104;-3.3149;
1367.1000;0.5079;-3.3199;
1367.4000;0.5120;-3.3099;
1367.7000;0.5104;-3.3248;
1368.0000;0.5096;-3.3273;
1368.3000;0.5071;-3.3298;
1368.6000;0.5096;-3.3248;
1368.9000;0.5079;-3.3298;
1369.2000;0.5104;-3.3224;
1369.5000;0.5088;-3.3248;
1369.8000;0.5104;-3.3248;
1370.1000;0.5104;-3.3298;
1370.4000;0.5096;-3.3298;
1370.7000;0.5096;-3.3373;
1371.0000;0.5088;-3.3398;
1371.3000;0.5120;-3.3398;
1371.6000;0.5177;-3.3248;
1371.9000;0.5096;-3.3447;
1372.2000;0.5112;-3.3323;
1372.5000;0.5071;-3.3472;
1372.8000;0.5104;-3.3472;
1373.1000;0.5104;-3.3472;
1373.4000;0.5112;-3.3497;
1373.7000;0.5088;-3.3497;
1374.0000;0.5071;-3.3472;
1374.3000;0.5104;-3.3422;
1374.6000;0.5088;-3.3497;
1374.9000;0.5096;-3.3522;
1375.2000;0.5104;-3.3497;
1375.5000;0.5088;-3.3522;
1375.8000;0.5104;-3.3497;
1376.1000;0.5112;-3.3373;
1376.4000;0.5104;-3.3323;
1376.7000;0.5071;-3.3348;
1377.0000;0.5088;-3.3373;
1377.3000;0.5096;-3.3398;
1377.6000;0.5096;-3.3373;
1377.9000;0.5055;-3.3547;
1378.2000;0.5063;-3.3497;
1378.5000;0.5079;-3.3348;
1378.8000;0.5104;-3.3298;
1379.1000;0.5096;-3.3224;
1379.4000;0.5079;-3.3248;
1379.7000;0.5096;-3.3224;
1380.0000;0.5104;-3.3174;
1380.3000;0.5088;-3.3199;
1380.6000;0.5120;-3.3099;
1380.9000;0.5079;-3.3174;
1381.2000;0.5112;-3.3248;
1381.5000;0.5088;-3.3398;
1381.8000;0.5055;-3.3422;
1382.1000;0.4998;-3.3572;
1382.4000;0.5096;-3.3323;
1382.7000;0.5112;-3.3373;
1383.0000;0.5144;-3.3224;
1383.3000;0.5063;-3.3373;
1383.6000;0.5104;-3.3199;
1383.9000;0.5096;-3.3273;
1384.2000;0.5112;-3.3248;
1384.5000;0.5104;-3.3273;
1384.8000;0.5104;-3.3248;
1385.1000;0.5031;-3.3447;
1385.4000;0.5055;-3.3373;
1385.7000;0.5096;-3.3248;
1386.0000;0.5088;-3.3224;
1386.3000;0.5079;-3.3323;
1386.6000;0.5079;-3.3422;
1386.9000;0.5088;-3.3373;
1387.2000;0.5079;-3.3373;
1387.5000;0.5104;-3.3323;
1387.8000;0.5136;-3.3273;
1388.1000;0.5104;-3.3398;
1388.4000;0.5104;-3.3398;
1388.7000;0.5088;-3.3447;
1389.0000;0.5096;-3.3447;
1389.3000;0.5104;-3.3522;
1389.6000;0.5096;-3.3472;
1389.9000;0.5088;-3.3472;
1390.2000;0.5088;-3.3447;
1390.5000;0.5136;-3.3273;
1390.8000;0.5088;-3.3373;
1391.1000;0.5218;-3.3149;
1391.4000;0.5079;-3.3522;
1391.7000;0.5079;-3.3621;
1392.0000;0.5169;-3.3497;
1392.3000;0.5128;-3.3572;
1392.6000;0.5128;-3.3572;
1392.9000;0.5088;-3.3646;
1393.2000;0.5088;-3.3621;
1393.5000;0.5104;-3.3572;
1393.8000;0.5096;-3.3597;
1394.1000;0.5079;-3.3597;
1394.4000;0.5088;-3.3572;
1394.7000;0.5096;-3.3497;
1395.0000;0.5088;-3.3398;
1395.3000;0.5088;-3.3472;
1395.6000;0.5079;-3.3373;
1395.9000;0.5104;-3.3273;
1396.2000;0.5088;-3.3348;
1396.5000;0.5088;-3.3398;
1396.8000;0.5071;-3.3497;
1397.1000;0.5071;-3.3422;
1397.4000;0.5112;-3.3373;
1397.7000;0.5063;-3.3472;
1398.0000;0.5161;-3.3248;
1398.3000;0.5079;-3.3472;
1398.6000;0.5071;-3.3373;
1398.9000;0.5088;-3.3323;
1399.2000;0.5071;-3.3323;
1399.5000;0.5079;-3.3273;
1399.8000;0.5096;-3.3298;
