time/ms;Fluo/V;P700 deltaI/I x10³;
-199.8000;0.4713;-3.4094;
-199.5000;0.4672;-3.4218;
-199.2000;0.4681;-3.4169;
-198.9000;0.4664;-3.4119;
-198.6000;0.4672;-3.4119;
-198.3000;0.4681;-3.4069;
-198.0000;0.4689;-3.4019;
-197.7000;0.4672;-3.4019;
-197.4000;0.4705;-3.3895;
-197.1000;0.4705;-3.3870;
-196.8000;0.4689;-3.3945;
-196.5000;0.4705;-3.3970;
-196.2000;0.4721;-3.3970;
-195.9000;0.4689;-3.3994;
-195.6000;0.4689;-3.3994;
-195.3000;0.4664;-3.4044;
-195.0000;0.4689;-3.3945;
-194.7000;0.4705;-3.3895;
-194.4000;0.4697;-3.3870;
-194.1000;0.4803;-3.3621;
-193.8000;0.4689;-3.3845;
-193.5000;0.4705;-3.3870;
-193.2000;0.4705;-3.3771;
-192.9000;0.4713;-3.3746;
-192.6000;0.4697;-3.3771;
-192.3000;0.4705;-3.3696;
-192.0000;0.4713;-3.3646;
-191.7000;0.4713;-3.3621;
-191.4000;0.4713;-3.3621;
-191.1000;0.4713;-3.3597;
-190.8000;0.4672;-3.3721;
-190.5000;0.4746;-3.3497;
-190.2000;0.4697;-3.3721;
-189.9000;0.4689;-3.3771;
-189.6000;0.4705;-3.3671;
-189.3000;0.4778;-3.3447;
-189.0000;0.4689;-3.3671;
-188.7000;0.4697;-3.3646;
-188.4000;0.4705;-3.3621;
-188.1000;0.4721;-3.3646;
-187.8000;0.4705;-3.3721;
-187.5000;0.4689;-3.3771;
-187.2000;0.4705;-3.3696;
-186.9000;0.4721;-3.3696;
-186.6000;0.4713;-3.3771;
-186.3000;0.4705;-3.3771;
-186.0000;0.4713;-3.3796;
-185.7000;0.4713;-3.3771;
-185.4000;0.4713;-3.3746;
-185.1000;0.4721;-3.3696;
-184.8000;0.4681;-3.3796;
-184.5000;0.4721;-3.3746;
-184.2000;0.4713;-3.3721;
-183.9000;0.4705;-3.3771;
-183.6000;0.4705;-3.3796;
-183.3000;0.4721;-3.3721;
-183.0000;0.4737;-3.3771;
-182.7000;0.4737;-3.3746;
-182.4000;0.4729;-3.3796;
-182.1000;0.4737;-3.3796;
-181.8000;0.4672;-3.4019;
-181.5000;0.4721;-3.3895;
-181.2000;0.4729;-3.3895;
-180.9000;0.4729;-3.3845;
-180.6000;0.4729;-3.3721;
-180.3000;0.4737;-3.3721;
-180.0000;0.4721;-3.3696;
-179.7000;0.4737;-3.3721;
-179.4000;0.4729;-3.3696;
-179.1000;0.4729;-3.3721;
-178.8000;0.4729;-3.3746;
-178.5000;0.4713;-3.3870;
-178.2000;0.4754;-3.3820;
-177.9000;0.4729;-3.4019;
-177.6000;0.4729;-3.4119;
-177.3000;0.4721;-3.4144;
-177.0000;0.4721;-3.4144;
-176.7000;0.4729;-3.4169;
-176.4000;0.4729;-3.4268;
-176.1000;0.4713;-3.4293;
-175.8000;0.4729;-3.4193;
-175.5000;0.4721;-3.4119;
-175.2000;0.4737;-3.4044;
-174.9000;0.4721;-3.4094;
-174.6000;0.4729;-3.4069;
-174.3000;0.4721;-3.4044;
-174.0000;0.4754;-3.4044;
-173.7000;0.4754;-3.4094;
-173.4000;0.4729;-3.4069;
-173.1000;0.4737;-3.4094;
-172.8000;0.4746;-3.4019;
-172.5000;0.4729;-3.4019;
-172.2000;0.4786;-3.3870;
-171.9000;0.4746;-3.3970;
-171.6000;0.4754;-3.3845;
-171.3000;0.4713;-3.3945;
-171.0000;0.4754;-3.3920;
-170.7000;0.4713;-3.3970;
-170.4000;0.4746;-3.3895;
-170.1000;0.4729;-3.3895;
-169.8000;0.4746;-3.3895;
-169.5000;0.4729;-3.3920;
-169.2000;0.4729;-3.3771;
-168.9000;0.4737;-3.3796;
-168.6000;0.4713;-3.3845;
-168.3000;0.4746;-3.3820;
-168.0000;0.4754;-3.3771;
-167.7000;0.4713;-3.3945;
-167.4000;0.4762;-3.3771;
-167.1000;0.4713;-3.3970;
-166.8000;0.4754;-3.3920;
-166.5000;0.4770;-3.3920;
-166.2000;0.4762;-3.3895;
-165.9000;0.4762;-3.3870;
-165.6000;0.4754;-3.3895;
-165.3000;0.4746;-3.3920;
-165.0000;0.4851;-3.3771;
-164.7000;0.4737;-3.4069;
-164.4000;0.4762;-3.3994;
-164.1000;0.4754;-3.3994;
-163.8000;0.4746;-3.4019;
-163.5000;0.4754;-3.4019;
-163.2000;0.4737;-3.4019;
-162.9000;0.4737;-3.4044;
-162.6000;0.4794;-3.3870;
-162.3000;0.4754;-3.3895;
-162.0000;0.4754;-3.3895;
-161.7000;0.4746;-3.3920;
-161.4000;0.4762;-3.3895;
-161.1000;0.4762;-3.3895;
-160.8000;0.4746;-3.3845;
-160.5000;0.4770;-3.3920;
-160.2000;0.4754;-3.3970;
-159.9000;0.4713;-3.4019;
-159.6000;0.4811;-3.3771;
-159.3000;0.4746;-3.3945;
-159.0000;0.4762;-3.3895;
-158.7000;0.4762;-3.3945;
-158.4000;0.4729;-3.4044;
-158.1000;0.4746;-3.3945;
-157.8000;0.4746;-3.3994;
-157.5000;0.4746;-3.3994;
-157.2000;0.4737;-3.4019;
-156.9000;0.4762;-3.3920;
-156.6000;0.4770;-3.3895;
-156.3000;0.4713;-3.3994;
-156.0000;0.4754;-3.3870;
-155.7000;0.4762;-3.3746;
-155.4000;0.4770;-3.3796;
-155.1000;0.4713;-3.3945;
-154.8000;0.4746;-3.3870;
-154.5000;0.4770;-3.3746;
-154.2000;0.4770;-3.3820;
-153.9000;0.4754;-3.3771;
-153.6000;0.4737;-3.3870;
-153.3000;0.4762;-3.3895;
-153.0000;0.4770;-3.3870;
-152.7000;0.4770;-3.3820;
-152.4000;0.4746;-3.3796;
-152.1000;0.4762;-3.3820;
-151.8000;0.4754;-3.3820;
-151.5000;0.4860;-3.3472;
-151.2000;0.4737;-3.3895;
-150.9000;0.4754;-3.3994;
-150.6000;0.4754;-3.4019;
-150.3000;0.4803;-3.3945;
-150.0000;0.4762;-3.4094;
-149.7000;0.4762;-3.4094;
-149.4000;0.4770;-3.4044;
-149.1000;0.4729;-3.4144;
-148.8000;0.4746;-3.4144;
-148.5000;0.4754;-3.4119;
-148.2000;0.4762;-3.4193;
-147.9000;0.4754;-3.4169;
-147.6000;0.4770;-3.4019;
-147.3000;0.4754;-3.4069;
-147.0000;0.4746;-3.4069;
-146.7000;0.4746;-3.3970;
-146.4000;0.4762;-3.3895;
-146.1000;0.4770;-3.3920;
-145.8000;0.4746;-3.3920;
-145.5000;0.4770;-3.3870;
-145.2000;0.4754;-3.3945;
-144.9000;0.4778;-3.3920;
-144.6000;0.4746;-3.3920;
-144.3000;0.4762;-3.3870;
-144.0000;0.4746;-3.3945;
-143.7000;0.4746;-3.3970;
-143.4000;0.4762;-3.3945;
-143.1000;0.4746;-3.4019;
-142.8000;0.4754;-3.4019;
-142.5000;0.4770;-3.4094;
-142.2000;0.4762;-3.4019;
-141.9000;0.4770;-3.4019;
-141.6000;0.4803;-3.3895;
-141.3000;0.4729;-3.4144;
-141.0000;0.4770;-3.4069;
-140.7000;0.4762;-3.4069;
-140.4000;0.4778;-3.4019;
-140.1000;0.4778;-3.3920;
-139.8000;0.4770;-3.3845;
-139.5000;0.4746;-3.3920;
-139.2000;0.4786;-3.3796;
-138.9000;0.4778;-3.3870;
-138.6000;0.4786;-3.3945;
-138.3000;0.4762;-3.4044;
-138.0000;0.4754;-3.4094;
-137.7000;0.4770;-3.4119;
-137.4000;0.4778;-3.4069;
-137.1000;0.4794;-3.4044;
-136.8000;0.4778;-3.4044;
-136.5000;0.4778;-3.4044;
-136.2000;0.4770;-3.4119;
-135.9000;0.4762;-3.4094;
-135.6000;0.4868;-3.3845;
-135.3000;0.4778;-3.4069;
-135.0000;0.4762;-3.4119;
-134.7000;0.4729;-3.4169;
-134.4000;0.4721;-3.4218;
-134.1000;0.4803;-3.4019;
-133.8000;0.4770;-3.4144;
-133.5000;0.4876;-3.3820;
-133.2000;0.4794;-3.3920;
-132.9000;0.4754;-3.3945;
-132.6000;0.4827;-3.3796;
-132.3000;0.4770;-3.3970;
-132.0000;0.4770;-3.3994;
-131.7000;0.4770;-3.4019;
-131.4000;0.4786;-3.4044;
-131.1000;0.4762;-3.4019;
-130.8000;0.4786;-3.3994;
-130.5000;0.4778;-3.4044;
-130.2000;0.4770;-3.4144;
-129.9000;0.4778;-3.4218;
-129.6000;0.4835;-3.4019;
-129.3000;0.4778;-3.4094;
-129.0000;0.4835;-3.4019;
-128.7000;0.4794;-3.4069;
-128.4000;0.4786;-3.4044;
-128.1000;0.4827;-3.3945;
-127.8000;0.4803;-3.3870;
-127.5000;0.4786;-3.3920;
-127.2000;0.4827;-3.3945;
-126.9000;0.4794;-3.3945;
-126.6000;0.4778;-3.3920;
-126.3000;0.4778;-3.3994;
-126.0000;0.4778;-3.3945;
-125.7000;0.4794;-3.3895;
-125.4000;0.4778;-3.3870;
-125.1000;0.4746;-3.3945;
-124.8000;0.4786;-3.3920;
-124.5000;0.4778;-3.3945;
-124.2000;0.4778;-3.4044;
-123.9000;0.4778;-3.4044;
-123.6000;0.4786;-3.3970;
-123.3000;0.4786;-3.3970;
-123.0000;0.4770;-3.3994;
-122.7000;0.4778;-3.4069;
-122.4000;0.4770;-3.4119;
-122.1000;0.4786;-3.4069;
-121.8000;0.4729;-3.4119;
-121.5000;0.4786;-3.3920;
-121.2000;0.4778;-3.3945;
-120.9000;0.4778;-3.3945;
-120.6000;0.4737;-3.4119;
-120.3000;0.4778;-3.3970;
-120.0000;0.4794;-3.4019;
-119.7000;0.4819;-3.3945;
-119.4000;0.4786;-3.4094;
-119.1000;0.4803;-3.4069;
-118.8000;0.4770;-3.4019;
-118.5000;0.4811;-3.3895;
-118.2000;0.4778;-3.3994;
-117.9000;0.4762;-3.4094;
-117.6000;0.4786;-3.4069;
-117.3000;0.4794;-3.3970;
-117.0000;0.4778;-3.3994;
-116.7000;0.4672;-3.4193;
-116.4000;0.4786;-3.3970;
-116.1000;0.4778;-3.4169;
-115.8000;0.4721;-3.4318;
-115.5000;0.4746;-3.4218;
-115.2000;0.4778;-3.4044;
-114.9000;0.4786;-3.4044;
-114.6000;0.4778;-3.4019;
-114.3000;0.4778;-3.4069;
-114.0000;0.4794;-3.4069;
-113.7000;0.4794;-3.4094;
-113.4000;0.4778;-3.4119;
-113.1000;0.4762;-3.4119;
-112.8000;0.4803;-3.4019;
-112.5000;0.4778;-3.4094;
-112.2000;0.4786;-3.3945;
-111.9000;0.4786;-3.3920;
-111.6000;0.4794;-3.3895;
-111.3000;0.4762;-3.4019;
-111.0000;0.4803;-3.3945;
-110.7000;0.4778;-3.4044;
-110.4000;0.4786;-3.4044;
-110.1000;0.4819;-3.3945;
-109.8000;0.4794;-3.3994;
-109.5000;0.4786;-3.3920;
-109.2000;0.4794;-3.3895;
-108.9000;0.4794;-3.3920;
-108.6000;0.4778;-3.4019;
-108.3000;0.4786;-3.3994;
-108.0000;0.4786;-3.3994;
-107.7000;0.4778;-3.3970;
-107.4000;0.4794;-3.3920;
-107.1000;0.4729;-3.4069;
-106.8000;0.4786;-3.3945;
-106.5000;0.4835;-3.3870;
-106.2000;0.4778;-3.3994;
-105.9000;0.4794;-3.3945;
-105.6000;0.4786;-3.3920;
-105.3000;0.4786;-3.3895;
-105.0000;0.4794;-3.3870;
-104.7000;0.4811;-3.3796;
-104.4000;0.4819;-3.3796;
-104.1000;0.4819;-3.3845;
-103.8000;0.4794;-3.3970;
-103.5000;0.4803;-3.3895;
-103.2000;0.4843;-3.3845;
-102.9000;0.4819;-3.3970;
-102.6000;0.4811;-3.3994;
-102.3000;0.4803;-3.3920;
-102.0000;0.4794;-3.3920;
-101.7000;0.4803;-3.3895;
-101.4000;0.4794;-3.3970;
-101.1000;0.4794;-3.3945;
-100.8000;0.4811;-3.3970;
-100.5000;0.4827;-3.3820;
-100.2000;0.4794;-3.3895;
-99.9000;0.4835;-3.3746;
-99.6000;0.4811;-3.3895;
-99.3000;0.4811;-3.3820;
-99.0000;0.4803;-3.3746;
-98.7000;0.4827;-3.3721;
-98.4000;0.4794;-3.3796;
-98.1000;0.4794;-3.3771;
-97.8000;0.4729;-3.3970;
-97.5000;0.4786;-3.3845;
-97.2000;0.4803;-3.3820;
-96.9000;0.4868;-3.3621;
-96.6000;0.4778;-3.3771;
-96.3000;0.4778;-3.3920;
-96.0000;0.4794;-3.3970;
-95.7000;0.4811;-3.4019;
-95.4000;0.4811;-3.3994;
-95.1000;0.4778;-3.4119;
-94.8000;0.4794;-3.4119;
-94.5000;0.4835;-3.4069;
-94.2000;0.4794;-3.4193;
-93.9000;0.4803;-3.4218;
-93.6000;0.4835;-3.4044;
-93.3000;0.4778;-3.4218;
-93.0000;0.4803;-3.4169;
-92.7000;0.4819;-3.4218;
-92.4000;0.4803;-3.4193;
-92.1000;0.4803;-3.4193;
-91.8000;0.4819;-3.4193;
-91.5000;0.4803;-3.4193;
-91.2000;0.4811;-3.4218;
-90.9000;0.4811;-3.4218;
-90.6000;0.4803;-3.4169;
-90.3000;0.4811;-3.4169;
-90.0000;0.4819;-3.4144;
-89.7000;0.4811;-3.4218;
-89.4000;0.4811;-3.4193;
-89.1000;0.4803;-3.4094;
-88.8000;0.4811;-3.4193;
-88.5000;0.4786;-3.4218;
-88.2000;0.4770;-3.4318;
-87.9000;0.4811;-3.4293;
-87.6000;0.4827;-3.4169;
-87.3000;0.4819;-3.4193;
-87.0000;0.4803;-3.4169;
-86.7000;0.4827;-3.4094;
-86.4000;0.4811;-3.4069;
-86.1000;0.4827;-3.4019;
-85.8000;0.4811;-3.3970;
-85.5000;0.4811;-3.3895;
-85.2000;0.4778;-3.3870;
-84.9000;0.4819;-3.3771;
-84.6000;0.4811;-3.3771;
-84.3000;0.4803;-3.3820;
-84.0000;0.4811;-3.3895;
-83.7000;0.4811;-3.3895;
-83.4000;0.4819;-3.3870;
-83.1000;0.4794;-3.3920;
-82.8000;0.4811;-3.3994;
-82.5000;0.4811;-3.4193;
-82.2000;0.4729;-3.4467;
-81.9000;0.4819;-3.4268;
-81.6000;0.4794;-3.4318;
-81.3000;0.4819;-3.4243;
-81.0000;0.4868;-3.4169;
-80.7000;0.4819;-3.4193;
-80.4000;0.4835;-3.4119;
-80.1000;0.4819;-3.4193;
-79.8000;0.4754;-3.4343;
-79.5000;0.4803;-3.4069;
-79.2000;0.4794;-3.4119;
-78.9000;0.4819;-3.4019;
-78.6000;0.4827;-3.4044;
-78.3000;0.4803;-3.4069;
-78.0000;0.4811;-3.4044;
-77.7000;0.4819;-3.3895;
-77.4000;0.4819;-3.3920;
-77.1000;0.4835;-3.3845;
-76.8000;0.4811;-3.3796;
-76.5000;0.4811;-3.3796;
-76.2000;0.4811;-3.3845;
-75.9000;0.4811;-3.3796;
-75.6000;0.4835;-3.3746;
-75.3000;0.4892;-3.3472;
-75.0000;0.4835;-3.3646;
-74.7000;0.4819;-3.3671;
-74.4000;0.4803;-3.3796;
-74.1000;0.4811;-3.3895;
-73.8000;0.4819;-3.3845;
-73.5000;0.4851;-3.3771;
-73.2000;0.4827;-3.3820;
-72.9000;0.4803;-3.3820;
-72.6000;0.4794;-3.3920;
-72.3000;0.4819;-3.3845;
-72.0000;0.4819;-3.3845;
-71.7000;0.4811;-3.3970;
-71.4000;0.4835;-3.3920;
-71.1000;0.4827;-3.3870;
-70.8000;0.4794;-3.3845;
-70.5000;0.4819;-3.3845;
-70.2000;0.4827;-3.3895;
-69.9000;0.4794;-3.4019;
-69.6000;0.4803;-3.4019;
-69.3000;0.4876;-3.3895;
-69.0000;0.4770;-3.4169;
-68.7000;0.4819;-3.3994;
-68.4000;0.4811;-3.3970;
-68.1000;0.4851;-3.3845;
-67.8000;0.4868;-3.3820;
-67.5000;0.4868;-3.3820;
-67.2000;0.4827;-3.3970;
-66.9000;0.4835;-3.3970;
-66.6000;0.4835;-3.3970;
-66.3000;0.4827;-3.4044;
-66.0000;0.4843;-3.3994;
-65.7000;0.4860;-3.3870;
-65.4000;0.4827;-3.3945;
-65.1000;0.4827;-3.3920;
-64.8000;0.4827;-3.3970;
-64.5000;0.4819;-3.3920;
-64.2000;0.4827;-3.3895;
-63.9000;0.4827;-3.3870;
-63.6000;0.4827;-3.3870;
-63.3000;0.4819;-3.3746;
-63.0000;0.4827;-3.3646;
-62.7000;0.4835;-3.3621;
-62.4000;0.4835;-3.3671;
-62.1000;0.4827;-3.3696;
-61.8000;0.4819;-3.3771;
-61.5000;0.4819;-3.3820;
-61.2000;0.4860;-3.3696;
-60.9000;0.4827;-3.3721;
-60.6000;0.4819;-3.3820;
-60.3000;0.4843;-3.3671;
-60.0000;0.4835;-3.3721;
-59.7000;0.4835;-3.3671;
-59.4000;0.4851;-3.3671;
-59.1000;0.4835;-3.3696;
-58.8000;0.4843;-3.3721;
-58.5000;0.4827;-3.3746;
-58.2000;0.4827;-3.3696;
-57.9000;0.4827;-3.3721;
-57.6000;0.4835;-3.3771;
-57.3000;0.4843;-3.3820;
-57.0000;0.4868;-3.3746;
-56.7000;0.4843;-3.3746;
-56.4000;0.4851;-3.3845;
-56.1000;0.4843;-3.3870;
-55.8000;0.4843;-3.3895;
-55.5000;0.4827;-3.3945;
-55.2000;0.4851;-3.3845;
-54.9000;0.4827;-3.3870;
-54.6000;0.4835;-3.3970;
-54.3000;0.4819;-3.3994;
-54.0000;0.4835;-3.3920;
-53.7000;0.4811;-3.3945;
-53.4000;0.4843;-3.3870;
-53.1000;0.4908;-3.3746;
-52.8000;0.4851;-3.3895;
-52.5000;0.4860;-3.3870;
-52.2000;0.4851;-3.3920;
-51.9000;0.4868;-3.3895;
-51.6000;0.4851;-3.3920;
-51.3000;0.4827;-3.3994;
-51.0000;0.4868;-3.3920;
-50.7000;0.4843;-3.4069;
-50.4000;0.4843;-3.4044;
-50.1000;0.4835;-3.4019;
-49.8000;0.4843;-3.3970;
-49.5000;0.4868;-3.3945;
-49.2000;0.4851;-3.3920;
-48.9000;0.4835;-3.3945;
-48.6000;0.4835;-3.3994;
-48.3000;0.4843;-3.4044;
-48.0000;0.4835;-3.4119;
-47.7000;0.4819;-3.4169;
-47.4000;0.4851;-3.4119;
-47.1000;0.4851;-3.4094;
-46.8000;0.4851;-3.4144;
-46.5000;0.4794;-3.4268;
-46.2000;0.4827;-3.4119;
-45.9000;0.4827;-3.4044;
-45.6000;0.4851;-3.3895;
-45.3000;0.4851;-3.3870;
-45.0000;0.4851;-3.3870;
-44.7000;0.4851;-3.3870;
-44.4000;0.4843;-3.3920;
-44.1000;0.4860;-3.3845;
-43.8000;0.4835;-3.3870;
-43.5000;0.4819;-3.3771;
-43.2000;0.4851;-3.3721;
-42.9000;0.4843;-3.3895;
-42.6000;0.4827;-3.3945;
-42.3000;0.4860;-3.3895;
-42.0000;0.4851;-3.3895;
-41.7000;0.4851;-3.3895;
-41.4000;0.4843;-3.3920;
-41.1000;0.4851;-3.3870;
-40.8000;0.4843;-3.3870;
-40.5000;0.4851;-3.3820;
-40.2000;0.4851;-3.3771;
-39.9000;0.4843;-3.3870;
-39.6000;0.4843;-3.3845;
-39.3000;0.4860;-3.3820;
-39.0000;0.4860;-3.3845;
-38.7000;0.4827;-3.3970;
-38.4000;0.4851;-3.3870;
-38.1000;0.4843;-3.3845;
-37.8000;0.4794;-3.3920;
-37.5000;0.4827;-3.3895;
-37.2000;0.4835;-3.3945;
-36.9000;0.4835;-3.3920;
-36.6000;0.4843;-3.3970;
-36.3000;0.4827;-3.3994;
-36.0000;0.4851;-3.3970;
-35.7000;0.4851;-3.3994;
-35.4000;0.4794;-3.4144;
-35.1000;0.4860;-3.3895;
-34.8000;0.4851;-3.3945;
-34.5000;0.4860;-3.3920;
-34.2000;0.4843;-3.3895;
-33.9000;0.4860;-3.3895;
-33.6000;0.4860;-3.3870;
-33.3000;0.4851;-3.3895;
-33.0000;0.4843;-3.3945;
-32.7000;0.4843;-3.3994;
-32.4000;0.4860;-3.4019;
-32.1000;0.4868;-3.4069;
-31.8000;0.4843;-3.4069;
-31.5000;0.4868;-3.3920;
-31.2000;0.4868;-3.3970;
-30.9000;0.4860;-3.3994;
-30.6000;0.4786;-3.4218;
-30.3000;0.4835;-3.4094;
-30.0000;0.4868;-3.4019;
-29.7000;0.4868;-3.3945;
-29.4000;0.4851;-3.3845;
-29.1000;0.4876;-3.3820;
-28.8000;0.4876;-3.3895;
-28.5000;0.4868;-3.3845;
-28.2000;0.4843;-3.3920;
-27.9000;0.4876;-3.3895;
-27.6000;0.4876;-3.3920;
-27.3000;0.4884;-3.3970;
-27.0000;0.4884;-3.3920;
-26.7000;0.4892;-3.3945;
-26.4000;0.4851;-3.3920;
-26.1000;0.4876;-3.3820;
-25.8000;0.4884;-3.3895;
-25.5000;0.4876;-3.3870;
-25.2000;0.4851;-3.3945;
-24.9000;0.4876;-3.3945;
-24.6000;0.4892;-3.3970;
-24.3000;0.4876;-3.4069;
-24.0000;0.4851;-3.4094;
-23.7000;0.4860;-3.3970;
-23.4000;0.4876;-3.3895;
-23.1000;0.4876;-3.3895;
-22.8000;0.4876;-3.3895;
-22.5000;0.4884;-3.3920;
-22.2000;0.4884;-3.3994;
-21.9000;0.4884;-3.4044;
-21.6000;0.4884;-3.4069;
-21.3000;0.4827;-3.4293;
-21.0000;0.4876;-3.4119;
-20.7000;0.4892;-3.4094;
-20.4000;0.4876;-3.4169;
-20.1000;0.4876;-3.4119;
-19.8000;0.4860;-3.4193;
-19.5000;0.4884;-3.4169;
-19.2000;0.4868;-3.4169;
-18.9000;0.4884;-3.4119;
-18.6000;0.4860;-3.4169;
-18.3000;0.4868;-3.4094;
-18.0000;0.4884;-3.3994;
-17.7000;0.4876;-3.4069;
-17.4000;0.4884;-3.4144;
-17.1000;0.4884;-3.4144;
-16.8000;0.4884;-3.4019;
-16.5000;0.4876;-3.4019;
-16.2000;0.4876;-3.3970;
-15.9000;0.4908;-3.3970;
-15.6000;0.4884;-3.4019;
-15.3000;0.4868;-3.4094;
-15.0000;0.4892;-3.3994;
-14.7000;0.4860;-3.4094;
-14.4000;0.4860;-3.4019;
-14.1000;0.4851;-3.4069;
-13.8000;0.4868;-3.4019;
-13.5000;0.4884;-3.3970;
-13.2000;0.4933;-3.3820;
-12.9000;0.4884;-3.4019;
-12.6000;0.4925;-3.3920;
-12.3000;0.4917;-3.4019;
-12.0000;0.4884;-3.4069;
-11.7000;0.4892;-3.4069;
-11.4000;0.4957;-3.3970;
-11.1000;0.4892;-3.4193;
-10.8000;0.4892;-3.4119;
-10.5000;0.4900;-3.4169;
-10.2000;0.4876;-3.4243;
-9.9000;0.4900;-3.4193;
-9.6000;0.4876;-3.4144;
-9.3000;0.4884;-3.4044;
-9.0000;0.4884;-3.4044;
-8.7000;0.4884;-3.4169;
-8.4000;0.4892;-3.4243;
-8.1000;0.4876;-3.4218;
-7.8000;0.4860;-3.4243;
-7.5000;0.4876;-3.4243;
-7.2000;0.4917;-3.4094;
-6.9000;0.4876;-3.4293;
-6.6000;0.4876;-3.4218;
-6.3000;0.4811;-3.4343;
-6.0000;0.4876;-3.4218;
-5.7000;0.4892;-3.4193;
-5.4000;0.4908;-3.4193;
-5.1000;0.4900;-3.4293;
-4.8000;0.4884;-3.4218;
-4.5000;0.4892;-3.4193;
-4.2000;0.4892;-3.4169;
-3.9000;0.4900;-3.4169;
-3.6000;0.4884;-3.4193;
-3.3000;0.4884;-3.4243;
-3.0000;0.4884;-3.4318;
-2.7000;0.4900;-3.4318;
-2.4000;0.4884;-3.4268;
-2.1000;0.4900;-3.4169;
-1.8000;0.4884;-3.4193;
-1.5000;0.4892;-3.4243;
-1.2000;0.4892;-3.4218;
-0.9000;0.4900;-3.4144;
-0.6000;0.4908;-3.4268;
-0.3000;0.4908;-3.4318;
0.0000;0.4908;-3.4318;
0.3000;0.5088;-3.4343;
0.6000;0.5527;-3.3970;
0.9000;0.5796;-3.3671;
1.2000;0.6024;-3.3348;
1.5000;0.6186;-3.3149;
1.8000;0.6374;-3.2900;
2.1000;0.6488;-3.2627;
2.4000;0.6593;-3.2527;
2.7000;0.6691;-3.2378;
3.0000;0.6756;-3.2229;
3.3000;0.6821;-3.2080;
3.6000;0.6854;-3.2055;
3.9000;0.6943;-3.1930;
4.2000;0.6984;-3.1930;
4.5000;0.7000;-3.1930;
4.8000;0.7033;-3.1906;
5.1000;0.7082;-3.1881;
5.4000;0.7123;-3.1781;
5.7000;0.7131;-3.1806;
6.0000;0.7163;-3.1682;
6.3000;0.7188;-3.1607;
6.6000;0.7318;-3.1334;
6.9000;0.7228;-3.1632;
7.2000;0.7253;-3.1607;
7.5000;0.7253;-3.1557;
7.8000;0.7277;-3.1508;
8.1000;0.7293;-3.1632;
8.4000;0.7326;-3.1533;
8.7000;0.7326;-3.1607;
9.0000;0.7326;-3.1582;
9.3000;0.7375;-3.1483;
9.6000;0.7375;-3.1557;
9.9000;0.7334;-3.1682;
10.2000;0.7383;-3.1657;
10.5000;0.7432;-3.1582;
10.8000;0.7432;-3.1632;
11.1000;0.7424;-3.1707;
11.4000;0.7440;-3.1682;
11.7000;0.7456;-3.1731;
12.0000;0.7464;-3.1657;
12.3000;0.7505;-3.1582;
12.6000;0.7407;-3.1881;
12.9000;0.7473;-3.1781;
13.2000;0.7489;-3.1731;
13.5000;0.7497;-3.1632;
13.8000;0.7489;-3.1707;
14.1000;0.7505;-3.1756;
14.4000;0.7530;-3.1632;
14.7000;0.7521;-3.1657;
15.0000;0.7513;-3.1632;
15.3000;0.7505;-3.1657;
15.6000;0.7538;-3.1557;
15.9000;0.7570;-3.1433;
16.2000;0.7562;-3.1383;
16.5000;0.7570;-3.1433;
16.8000;0.7554;-3.1533;
17.1000;0.7595;-3.1458;
17.4000;0.7570;-3.1508;
17.7000;0.7586;-3.1483;
18.0000;0.7595;-3.1557;
18.3000;0.7603;-3.1508;
18.6000;0.7603;-3.1582;
18.9000;0.7595;-3.1557;
19.2000;0.7611;-3.1557;
19.5000;0.7611;-3.1483;
19.8000;0.7619;-3.1483;
20.1000;0.7635;-3.1458;
20.4000;0.7619;-3.1508;
20.7000;0.7627;-3.1483;
21.0000;0.7627;-3.1433;
21.3000;0.7627;-3.1408;
21.6000;0.7635;-3.1408;
21.9000;0.7611;-3.1458;
22.2000;0.7635;-3.1383;
22.5000;0.7643;-3.1358;
22.8000;0.7635;-3.1383;
23.1000;0.7684;-3.1309;
23.4000;0.7717;-3.1334;
23.7000;0.7676;-3.1358;
24.0000;0.7660;-3.1334;
24.3000;0.7709;-3.1160;
24.6000;0.7635;-3.1383;
24.9000;0.7676;-3.1383;
25.2000;0.7717;-3.1259;
25.5000;0.7684;-3.1309;
25.8000;0.7684;-3.1408;
26.1000;0.7692;-3.1408;
26.4000;0.7692;-3.1557;
26.7000;0.7700;-3.1607;
27.0000;0.7692;-3.1731;
27.3000;0.7692;-3.1707;
27.6000;0.7692;-3.1731;
27.9000;0.7709;-3.1682;
28.2000;0.7676;-3.1707;
28.5000;0.7717;-3.1582;
28.8000;0.7700;-3.1682;
29.1000;0.7725;-3.1632;
29.4000;0.7725;-3.1707;
29.7000;0.7725;-3.1657;
30.0000;0.7733;-3.1632;
30.3000;0.7733;-3.1607;
30.6000;0.7717;-3.1607;
30.9000;0.7725;-3.1657;
31.2000;0.7757;-3.1508;
31.5000;0.7733;-3.1533;
31.8000;0.7749;-3.1433;
32.1000;0.7725;-3.1408;
32.4000;0.7749;-3.1358;
32.7000;0.7757;-3.1433;
33.0000;0.7741;-3.1458;
33.3000;0.7741;-3.1533;
33.6000;0.7749;-3.1557;
33.9000;0.7749;-3.1533;
34.2000;0.7741;-3.1533;
34.5000;0.7749;-3.1508;
34.8000;0.7790;-3.1458;
35.1000;0.7725;-3.1682;
35.4000;0.7741;-3.1607;
35.7000;0.7749;-3.1607;
36.0000;0.7749;-3.1557;
36.3000;0.7757;-3.1557;
36.6000;0.7798;-3.1458;
36.9000;0.7757;-3.1607;
37.2000;0.7749;-3.1607;
37.5000;0.7749;-3.1508;
37.8000;0.7733;-3.1632;
38.1000;0.7757;-3.1508;
38.4000;0.7774;-3.1458;
38.7000;0.7749;-3.1557;
39.0000;0.7757;-3.1557;
39.3000;0.7782;-3.1533;
39.6000;0.7774;-3.1582;
39.9000;0.7757;-3.1533;
40.2000;0.7774;-3.1533;
40.5000;0.7782;-3.1557;
40.8000;0.7831;-3.1383;
41.1000;0.7790;-3.1483;
41.4000;0.7790;-3.1508;
41.7000;0.7733;-3.1508;
42.0000;0.7806;-3.1358;
42.3000;0.7790;-3.1433;
42.6000;0.7798;-3.1483;
42.9000;0.7757;-3.1533;
43.2000;0.7782;-3.1582;
43.5000;0.7790;-3.1533;
43.8000;0.7757;-3.1607;
44.1000;0.7757;-3.1607;
44.4000;0.7782;-3.1582;
44.7000;0.7766;-3.1557;
45.0000;0.7766;-3.1632;
45.3000;0.7790;-3.1533;
45.6000;0.7782;-3.1458;
45.9000;0.7798;-3.1458;
46.2000;0.7790;-3.1458;
46.5000;0.7782;-3.1582;
46.8000;0.7806;-3.1508;
47.1000;0.7806;-3.1533;
47.4000;0.7798;-3.1533;
47.7000;0.7782;-3.1582;
48.0000;0.7782;-3.1607;
48.3000;0.7798;-3.1483;
48.6000;0.7790;-3.1533;
48.9000;0.7814;-3.1358;
49.2000;0.7806;-3.1408;
49.5000;0.7863;-3.1309;
49.8000;0.7806;-3.1433;
50.1000;0.7814;-3.1458;
50.4000;0.7798;-3.1508;
50.7000;0.7798;-3.1533;
51.0000;0.7814;-3.1557;
51.3000;0.7806;-3.1508;
51.6000;0.7782;-3.1657;
51.9000;0.7814;-3.1533;
52.2000;0.7798;-3.1632;
52.5000;0.7806;-3.1632;
52.8000;0.7823;-3.1657;
53.1000;0.7806;-3.1731;
53.4000;0.7806;-3.1756;
53.7000;0.7814;-3.1781;
54.0000;0.7814;-3.1856;
54.3000;0.7806;-3.1831;
54.6000;0.7823;-3.1856;
54.9000;0.7814;-3.1831;
55.2000;0.7823;-3.1856;
55.5000;0.7823;-3.1856;
55.8000;0.7782;-3.1980;
56.1000;0.7814;-3.1856;
56.4000;0.7839;-3.1707;
56.7000;0.7831;-3.1731;
57.0000;0.7823;-3.1682;
57.3000;0.7823;-3.1582;
57.6000;0.7823;-3.1533;
57.9000;0.7823;-3.1607;
58.2000;0.7888;-3.1508;
58.5000;0.7831;-3.1731;
58.8000;0.7823;-3.1831;
59.1000;0.7847;-3.1831;
59.4000;0.7814;-3.1906;
59.7000;0.7831;-3.1781;
60.0000;0.7855;-3.1781;
60.3000;0.7839;-3.1781;
60.6000;0.7823;-3.1881;
60.9000;0.7847;-3.1756;
61.2000;0.7831;-3.1856;
61.5000;0.7823;-3.1906;
61.8000;0.7839;-3.1831;
62.1000;0.7823;-3.1881;
62.4000;0.7757;-3.2104;
62.7000;0.7847;-3.1731;
63.0000;0.7839;-3.1756;
63.3000;0.7863;-3.1781;
63.6000;0.7798;-3.1930;
63.9000;0.7814;-3.1881;
64.2000;0.7766;-3.2030;
64.5000;0.7831;-3.1930;
64.8000;0.7814;-3.1806;
65.1000;0.7823;-3.1806;
65.4000;0.7904;-3.1657;
65.7000;0.7847;-3.1906;
66.0000;0.7839;-3.1906;
66.3000;0.7823;-3.2030;
66.6000;0.7831;-3.1980;
66.9000;0.7831;-3.1906;
67.2000;0.7831;-3.1881;
67.5000;0.7798;-3.1955;
67.8000;0.7831;-3.1906;
68.1000;0.7839;-3.1806;
68.4000;0.7814;-3.1756;
68.7000;0.7831;-3.1731;
69.0000;0.7814;-3.1806;
69.3000;0.7823;-3.1806;
69.6000;0.7855;-3.1707;
69.9000;0.7831;-3.1781;
70.2000;0.7839;-3.1856;
70.5000;0.7839;-3.1806;
70.8000;0.7855;-3.1806;
71.1000;0.7888;-3.1781;
71.4000;0.7847;-3.1831;
71.7000;0.7798;-3.2030;
72.0000;0.7847;-3.1930;
72.3000;0.7855;-3.1930;
72.6000;0.7831;-3.1930;
72.9000;0.7855;-3.1906;
73.2000;0.7839;-3.1980;
73.5000;0.7937;-3.1756;
73.8000;0.7839;-3.2055;
74.1000;0.7847;-3.2080;
74.4000;0.7863;-3.2055;
74.7000;0.7863;-3.2005;
75.0000;0.7831;-3.2005;
75.3000;0.7831;-3.2030;
75.6000;0.7855;-3.1781;
75.9000;0.7839;-3.1806;
76.2000;0.7839;-3.1881;
76.5000;0.7839;-3.1955;
76.8000;0.7863;-3.1856;
77.1000;0.7839;-3.1781;
77.4000;0.7863;-3.1731;
77.7000;0.7831;-3.1731;
78.0000;0.7823;-3.1731;
78.3000;0.7847;-3.1657;
78.6000;0.7871;-3.1657;
78.9000;0.7855;-3.1731;
79.2000;0.7847;-3.1781;
79.5000;0.7855;-3.1831;
79.8000;0.7823;-3.1930;
80.1000;0.7823;-3.1930;
80.4000;0.7831;-3.1881;
80.7000;0.7782;-3.2030;
81.0000;0.7871;-3.1781;
81.3000;0.7847;-3.1856;
81.6000;0.7855;-3.1881;
81.9000;0.7831;-3.1955;
82.2000;0.7863;-3.1831;
82.5000;0.7863;-3.1781;
82.8000;0.7806;-3.1881;
83.1000;0.7847;-3.1806;
83.4000;0.7855;-3.1781;
83.7000;0.7871;-3.1781;
84.0000;0.7847;-3.1881;
84.3000;0.7855;-3.1806;
84.6000;0.7831;-3.1881;
84.9000;0.7831;-3.1980;
85.2000;0.7855;-3.1906;
85.5000;0.7855;-3.1906;
85.8000;0.7863;-3.1930;
86.1000;0.7871;-3.1955;
86.4000;0.7871;-3.1980;
86.7000;0.7839;-3.2030;
87.0000;0.7863;-3.1906;
87.3000;0.7855;-3.1906;
87.6000;0.7823;-3.2005;
87.9000;0.7871;-3.1980;
88.2000;0.7880;-3.1930;
88.5000;0.7863;-3.2030;
88.8000;0.7847;-3.2030;
89.1000;0.7945;-3.1756;
89.4000;0.7945;-3.1781;
89.7000;0.7871;-3.1930;
90.0000;0.7871;-3.1881;
90.3000;0.7871;-3.1881;
90.6000;0.7863;-3.1980;
90.9000;0.7863;-3.1955;
91.2000;0.7863;-3.1955;
91.5000;0.7863;-3.1980;
91.8000;0.7871;-3.1930;
92.1000;0.7855;-3.1881;
92.4000;0.7831;-3.1930;
92.7000;0.7847;-3.1831;
93.0000;0.7871;-3.1707;
93.3000;0.7863;-3.1731;
93.6000;0.7847;-3.1806;
93.9000;0.7871;-3.1781;
94.2000;0.7855;-3.1881;
94.5000;0.7863;-3.1831;
94.8000;0.7855;-3.1781;
95.1000;0.7896;-3.1806;
95.4000;0.7888;-3.1781;
95.7000;0.7928;-3.1731;
96.0000;0.7888;-3.1881;
96.3000;0.7928;-3.1831;
96.6000;0.7888;-3.1881;
96.9000;0.7871;-3.1881;
97.2000;0.7880;-3.1856;
97.5000;0.7888;-3.1806;
97.8000;0.7880;-3.1831;
98.1000;0.7888;-3.1881;
98.4000;0.7880;-3.1881;
98.7000;0.7880;-3.1881;
99.0000;0.7888;-3.1906;
99.3000;0.7880;-3.1930;
99.6000;0.7871;-3.1906;
99.9000;0.7863;-3.1856;
100.2000;0.7953;-3.1582;
100.5000;0.7871;-3.1756;
100.8000;0.7855;-3.1731;
101.1000;0.7888;-3.1607;
101.4000;0.7847;-3.1657;
101.7000;0.7937;-3.1483;
102.0000;0.7896;-3.1632;
102.3000;0.7871;-3.1781;
102.6000;0.7880;-3.1781;
102.9000;0.7839;-3.1955;
103.2000;0.7871;-3.1980;
103.5000;0.7880;-3.1881;
103.8000;0.7871;-3.1881;
104.1000;0.7863;-3.1906;
104.4000;0.7855;-3.2030;
104.7000;0.7880;-3.2055;
105.0000;0.7920;-3.1930;
105.3000;0.7863;-3.2055;
105.6000;0.7880;-3.2030;
105.9000;0.7896;-3.1906;
106.2000;0.7880;-3.1856;
106.5000;0.7880;-3.1831;
106.8000;0.7863;-3.1881;
107.1000;0.7871;-3.1856;
107.4000;0.7880;-3.1831;
107.7000;0.7871;-3.1980;
108.0000;0.7904;-3.1856;
108.3000;0.7888;-3.1881;
108.6000;0.7888;-3.1781;
108.9000;0.7896;-3.1831;
109.2000;0.7847;-3.1955;
109.5000;0.7863;-3.1930;
109.8000;0.7888;-3.1806;
110.1000;0.7888;-3.1906;
110.4000;0.7888;-3.1906;
110.7000;0.7888;-3.1856;
111.0000;0.7880;-3.1881;
111.3000;0.7896;-3.1831;
111.6000;0.7904;-3.1781;
111.9000;0.7888;-3.1781;
112.2000;0.7749;-3.2104;
112.5000;0.7855;-3.1806;
112.8000;0.7904;-3.1657;
113.1000;0.7920;-3.1533;
113.4000;0.7888;-3.1582;
113.7000;0.7896;-3.1582;
114.0000;0.7896;-3.1607;
114.3000;0.7880;-3.1682;
114.6000;0.7945;-3.1533;
114.9000;0.7880;-3.1707;
115.2000;0.7863;-3.1781;
115.5000;0.7888;-3.1806;
115.8000;0.7863;-3.1831;
116.1000;0.7863;-3.1831;
116.4000;0.7888;-3.1831;
116.7000;0.7896;-3.1781;
117.0000;0.7871;-3.1682;
117.3000;0.7863;-3.1731;
117.6000;0.7896;-3.1682;
117.9000;0.7896;-3.1731;
118.2000;0.7888;-3.1806;
118.5000;0.7945;-3.1632;
118.8000;0.7888;-3.1731;
119.1000;0.7888;-3.1731;
119.4000;0.7888;-3.1682;
119.7000;0.7814;-3.1806;
120.0000;0.7871;-3.1806;
120.3000;0.7945;-3.1557;
120.6000;0.7896;-3.1707;
120.9000;0.7888;-3.1731;
121.2000;0.7880;-3.1756;
121.5000;0.7896;-3.1731;
121.8000;0.7888;-3.1756;
122.1000;0.7814;-3.1930;
122.4000;0.7888;-3.1731;
122.7000;0.7863;-3.1731;
123.0000;0.7920;-3.1632;
123.3000;0.7896;-3.1632;
123.6000;0.7888;-3.1657;
123.9000;0.7880;-3.1707;
124.2000;0.7888;-3.1731;
124.5000;0.7977;-3.1632;
124.8000;0.7912;-3.1831;
125.1000;0.7953;-3.1657;
125.4000;0.7888;-3.1756;
125.7000;0.7888;-3.1657;
126.0000;0.7871;-3.1632;
126.3000;0.7871;-3.1582;
126.6000;0.7888;-3.1483;
126.9000;0.7871;-3.1582;
127.2000;0.7896;-3.1508;
127.5000;0.7871;-3.1557;
127.8000;0.7871;-3.1483;
128.1000;0.7888;-3.1533;
128.4000;0.7880;-3.1557;
128.7000;0.7880;-3.1458;
129.0000;0.7888;-3.1433;
129.3000;0.7880;-3.1533;
129.6000;0.7888;-3.1508;
129.9000;0.7896;-3.1508;
130.2000;0.7904;-3.1557;
130.5000;0.7863;-3.1582;
130.8000;0.7896;-3.1458;
131.1000;0.7888;-3.1458;
131.4000;0.7896;-3.1433;
131.7000;0.7896;-3.1483;
132.0000;0.7896;-3.1483;
132.3000;0.7888;-3.1458;
132.6000;0.7855;-3.1508;
132.9000;0.7855;-3.1533;
133.2000;0.7880;-3.1483;
133.5000;0.7896;-3.1433;
133.8000;0.7888;-3.1483;
134.1000;0.7896;-3.1508;
134.4000;0.7888;-3.1557;
134.7000;0.7863;-3.1781;
135.0000;0.7912;-3.1557;
135.3000;0.7888;-3.1582;
135.6000;0.7888;-3.1607;
135.9000;0.7896;-3.1533;
136.2000;0.7847;-3.1682;
136.5000;0.7880;-3.1707;
136.8000;0.7904;-3.1607;
137.1000;0.7896;-3.1707;
137.4000;0.7912;-3.1682;
137.7000;0.7912;-3.1632;
138.0000;0.7888;-3.1756;
138.3000;0.7896;-3.1731;
138.6000;0.7920;-3.1607;
138.9000;0.7912;-3.1607;
139.2000;0.7888;-3.1707;
139.5000;0.7863;-3.1831;
139.8000;0.7896;-3.1831;
140.1000;0.7896;-3.1781;
140.4000;0.7920;-3.1657;
140.7000;0.7880;-3.1707;
141.0000;0.7888;-3.1682;
141.3000;0.7880;-3.1657;
141.6000;0.7888;-3.1557;
141.9000;0.7896;-3.1632;
142.2000;0.7904;-3.1707;
142.5000;0.7863;-3.1881;
142.8000;0.7896;-3.1731;
143.1000;0.7904;-3.1781;
143.4000;0.7863;-3.1881;
143.7000;0.7896;-3.1756;
144.0000;0.7904;-3.1707;
144.3000;0.7896;-3.1657;
144.6000;0.7888;-3.1607;
144.9000;0.7863;-3.1682;
145.2000;0.7880;-3.1632;
145.5000;0.7904;-3.1657;
145.8000;0.7896;-3.1731;
146.1000;0.7863;-3.1881;
146.4000;0.7937;-3.1707;
146.7000;0.7888;-3.1806;
147.0000;0.7912;-3.1731;
147.3000;0.7888;-3.1731;
147.6000;0.7888;-3.1781;
147.9000;0.7888;-3.1707;
148.2000;0.7896;-3.1707;
148.5000;0.7888;-3.1657;
148.8000;0.7888;-3.1657;
149.1000;0.7896;-3.1557;
149.4000;0.7904;-3.1557;
149.7000;0.7880;-3.1632;
150.0000;0.7896;-3.1682;
150.3000;0.7896;-3.1707;
150.6000;0.7888;-3.1707;
150.9000;0.7871;-3.1781;
151.2000;0.7880;-3.1781;
151.5000;0.7880;-3.1806;
151.8000;0.7904;-3.1856;
152.1000;0.7888;-3.1881;
152.4000;0.7928;-3.1657;
152.7000;0.7961;-3.1582;
153.0000;0.7912;-3.1731;
153.3000;0.7912;-3.1756;
153.6000;0.7920;-3.1731;
153.9000;0.7888;-3.1856;
154.2000;0.7896;-3.1831;
154.5000;0.7896;-3.1781;
154.8000;0.7896;-3.1657;
155.1000;0.7888;-3.1657;
155.4000;0.7880;-3.1657;
155.7000;0.7904;-3.1607;
156.0000;0.7888;-3.1607;
156.3000;0.7871;-3.1707;
156.6000;0.7871;-3.1756;
156.9000;0.7896;-3.1781;
157.2000;0.7896;-3.1731;
157.5000;0.7896;-3.1756;
157.8000;0.7945;-3.1682;
158.1000;0.7904;-3.1831;
158.4000;0.7904;-3.1781;
158.7000;0.7871;-3.1881;
159.0000;0.7896;-3.1781;
159.3000;0.7871;-3.1856;
159.6000;0.7961;-3.1607;
159.9000;0.7896;-3.1731;
160.2000;0.7896;-3.1682;
160.5000;0.7928;-3.1707;
160.8000;0.7880;-3.1806;
161.1000;0.7912;-3.1707;
161.4000;0.7896;-3.1731;
161.7000;0.7912;-3.1657;
162.0000;0.7888;-3.1657;
162.3000;0.7904;-3.1557;
162.6000;0.7888;-3.1533;
162.9000;0.7888;-3.1533;
163.2000;0.7888;-3.1533;
163.5000;0.7896;-3.1508;
163.8000;0.7904;-3.1508;
164.1000;0.7904;-3.1483;
164.4000;0.7904;-3.1508;
164.7000;0.7912;-3.1483;
165.0000;0.7912;-3.1582;
165.3000;0.8067;-3.1184;
165.6000;0.7920;-3.1533;
165.9000;0.7904;-3.1508;
166.2000;0.7896;-3.1458;
166.5000;0.7912;-3.1433;
166.8000;0.7904;-3.1483;
167.1000;0.7904;-3.1483;
167.4000;0.7904;-3.1557;
167.7000;0.7896;-3.1632;
168.0000;0.7904;-3.1632;
168.3000;0.7896;-3.1731;
168.6000;0.7896;-3.1806;
168.9000;0.7888;-3.1781;
169.2000;0.7904;-3.1756;
169.5000;0.7896;-3.1731;
169.8000;0.7912;-3.1806;
170.1000;0.7880;-3.1930;
170.4000;0.7904;-3.1756;
170.7000;0.7912;-3.1856;
171.0000;0.7904;-3.1930;
171.3000;0.7912;-3.1980;
171.6000;0.7888;-3.2055;
171.9000;0.7912;-3.1930;
172.2000;0.7920;-3.1906;
172.5000;0.7904;-3.2005;
172.8000;0.7904;-3.2030;
173.1000;0.7904;-3.2005;
173.4000;0.7880;-3.2030;
173.7000;0.7896;-3.1930;
174.0000;0.7896;-3.1930;
174.3000;0.7904;-3.2005;
174.6000;0.7953;-3.1906;
174.9000;0.7912;-3.1980;
175.2000;0.7904;-3.1955;
175.5000;0.7912;-3.1930;
175.8000;0.7969;-3.1756;
176.1000;0.7920;-3.1806;
176.4000;0.7888;-3.1806;
176.7000;0.7920;-3.1707;
177.0000;0.7937;-3.1657;
177.3000;0.7896;-3.1756;
177.6000;0.7912;-3.1756;
177.9000;0.7920;-3.1707;
178.2000;0.7920;-3.1657;
178.5000;0.7896;-3.1632;
178.8000;0.7888;-3.1682;
179.1000;0.7904;-3.1632;
179.4000;0.7896;-3.1707;
179.7000;0.7937;-3.1557;
180.0000;0.7896;-3.1707;
180.3000;0.7888;-3.1707;
180.6000;0.7912;-3.1682;
180.9000;0.7920;-3.1707;
181.2000;0.7904;-3.1657;
181.5000;0.7953;-3.1533;
181.8000;0.7904;-3.1632;
182.1000;0.7920;-3.1632;
182.4000;0.7912;-3.1632;
182.7000;0.7912;-3.1607;
183.0000;0.7904;-3.1533;
183.3000;0.7920;-3.1483;
183.6000;0.7928;-3.1483;
183.9000;0.7904;-3.1508;
184.2000;0.7871;-3.1582;
184.5000;0.7904;-3.1557;
184.8000;0.7896;-3.1557;
185.1000;0.7888;-3.1682;
185.4000;0.7904;-3.1607;
185.7000;0.7896;-3.1533;
186.0000;0.7920;-3.1508;
186.3000;0.7928;-3.1483;
186.6000;0.8010;-3.1259;
186.9000;0.7888;-3.1607;
187.2000;0.7896;-3.1682;
187.5000;0.7896;-3.1657;
187.8000;0.7912;-3.1607;
188.1000;0.7912;-3.1657;
188.4000;0.7920;-3.1707;
188.7000;0.7920;-3.1657;
189.0000;0.7920;-3.1607;
189.3000;0.7928;-3.1557;
189.6000;0.7896;-3.1682;
189.9000;0.7920;-3.1632;
190.2000;0.7912;-3.1707;
190.5000;0.7904;-3.1632;
190.8000;0.7904;-3.1533;
191.1000;0.7912;-3.1458;
191.4000;0.7896;-3.1508;
191.7000;0.7888;-3.1582;
192.0000;0.7888;-3.1483;
192.3000;0.7896;-3.1557;
192.6000;0.7896;-3.1557;
192.9000;0.7880;-3.1582;
193.2000;0.7904;-3.1533;
193.5000;0.7896;-3.1458;
193.8000;0.7920;-3.1483;
194.1000;0.7912;-3.1458;
194.4000;0.7904;-3.1483;
194.7000;0.7904;-3.1483;
195.0000;0.7896;-3.1557;
195.3000;0.7912;-3.1483;
195.6000;0.7904;-3.1458;
195.9000;0.7896;-3.1533;
196.2000;0.7904;-3.1533;
196.5000;0.7920;-3.1533;
196.8000;0.7863;-3.1557;
197.1000;0.7912;-3.1408;
197.4000;0.7896;-3.1408;
197.7000;0.7888;-3.1383;
198.0000;0.7961;-3.1160;
198.3000;0.7888;-3.1383;
198.6000;0.7888;-3.1433;
198.9000;0.7945;-3.1284;
199.2000;0.7904;-3.1508;
199.5000;0.7912;-3.1483;
199.8000;0.7920;-3.1508;
200.1000;0.7928;-3.1508;
200.4000;0.7912;-3.1632;
200.7000;0.7912;-3.1557;
201.0000;0.7993;-3.1358;
201.3000;0.7912;-3.1582;
201.6000;0.7912;-3.1632;
201.9000;0.8026;-3.1334;
202.2000;0.7888;-3.1632;
202.5000;0.7896;-3.1607;
202.8000;0.7928;-3.1557;
203.1000;0.7912;-3.1582;
203.4000;0.7888;-3.1632;
203.7000;0.7920;-3.1707;
204.0000;0.7904;-3.1831;
204.3000;0.7912;-3.1906;
204.6000;0.7896;-3.1930;
204.9000;0.7896;-3.1955;
205.2000;0.7904;-3.1955;
205.5000;0.7912;-3.2005;
205.8000;0.7912;-3.1980;
206.1000;0.7920;-3.1955;
206.4000;0.7920;-3.1955;
206.7000;0.7896;-3.2030;
207.0000;0.7896;-3.2005;
207.3000;0.7888;-3.1955;
207.6000;0.7888;-3.1980;
207.9000;0.7904;-3.1980;
208.2000;0.7945;-3.1881;
208.5000;0.7937;-3.1881;
208.8000;0.7904;-3.1881;
209.1000;0.7863;-3.1831;
209.4000;0.7904;-3.1707;
209.7000;0.7904;-3.1682;
210.0000;0.7896;-3.1731;
210.3000;0.7920;-3.1707;
210.6000;0.7928;-3.1682;
210.9000;0.7920;-3.1682;
211.2000;0.7880;-3.1806;
211.5000;0.7961;-3.1607;
211.8000;0.7904;-3.1707;
212.1000;0.7912;-3.1682;
212.4000;0.7928;-3.1657;
212.7000;0.7912;-3.1682;
213.0000;0.7896;-3.1682;
213.3000;0.7953;-3.1458;
213.6000;0.7855;-3.1657;
213.9000;0.7880;-3.1607;
214.2000;0.7920;-3.1582;
214.5000;0.7798;-3.1930;
214.8000;0.7904;-3.1632;
215.1000;0.7928;-3.1632;
215.4000;0.7904;-3.1657;
215.7000;0.7912;-3.1657;
216.0000;0.7904;-3.1707;
216.3000;0.7863;-3.1856;
216.6000;0.7831;-3.1881;
216.9000;0.7912;-3.1707;
217.2000;0.7904;-3.1707;
217.5000;0.7904;-3.1756;
217.8000;0.7912;-3.1707;
218.1000;0.7904;-3.1707;
218.4000;0.7896;-3.1682;
218.7000;0.7928;-3.1533;
219.0000;0.7904;-3.1557;
219.3000;0.7912;-3.1632;
219.6000;0.7896;-3.1682;
219.9000;0.7920;-3.1657;
220.2000;0.7912;-3.1682;
220.5000;0.7920;-3.1682;
220.8000;0.7904;-3.1657;
221.1000;0.7904;-3.1607;
221.4000;0.7912;-3.1533;
221.7000;0.7920;-3.1483;
222.0000;0.7880;-3.1557;
222.3000;0.7904;-3.1582;
222.6000;0.7920;-3.1607;
222.9000;0.7928;-3.1632;
223.2000;0.7855;-3.1781;
223.5000;0.7904;-3.1707;
223.8000;0.7912;-3.1682;
224.1000;0.7912;-3.1707;
224.4000;0.7928;-3.1781;
224.7000;0.7928;-3.1781;
225.0000;0.7871;-3.1831;
225.3000;0.7928;-3.1682;
225.6000;0.7912;-3.1657;
225.9000;0.7945;-3.1582;
226.2000;0.7904;-3.1632;
226.5000;0.7896;-3.1582;
226.8000;0.7912;-3.1607;
227.1000;0.7904;-3.1632;
227.4000;0.7855;-3.1657;
227.7000;0.8026;-3.1259;
228.0000;0.7912;-3.1657;
228.3000;0.7920;-3.1831;
228.6000;0.7912;-3.1806;
228.9000;0.7904;-3.1831;
229.2000;0.7945;-3.1731;
229.5000;0.7912;-3.1831;
229.8000;0.7896;-3.1781;
230.1000;0.7912;-3.1806;
230.4000;0.7953;-3.1607;
230.7000;0.7912;-3.1707;
231.0000;0.7904;-3.1707;
231.3000;0.7912;-3.1657;
231.6000;0.7912;-3.1682;
231.9000;0.7904;-3.1682;
232.2000;0.7904;-3.1707;
232.5000;0.7823;-3.1831;
232.8000;0.7896;-3.1707;
233.1000;0.7937;-3.1657;
233.4000;0.7937;-3.1657;
233.7000;0.7888;-3.1731;
234.0000;0.7888;-3.1682;
234.3000;0.7904;-3.1756;
234.6000;0.7823;-3.1980;
234.9000;0.7896;-3.1781;
235.2000;0.7896;-3.1781;
235.5000;0.7912;-3.1781;
235.8000;0.7912;-3.1806;
236.1000;0.7904;-3.1756;
236.4000;0.7896;-3.1781;
236.7000;0.7839;-3.1881;
237.0000;0.7904;-3.1632;
237.3000;0.7855;-3.1707;
237.6000;0.7847;-3.1806;
237.9000;0.7904;-3.1707;
238.2000;0.7904;-3.1707;
238.5000;0.7904;-3.1756;
238.8000;0.7920;-3.1756;
239.1000;0.7904;-3.1756;
239.4000;0.7896;-3.1707;
239.7000;0.7904;-3.1682;
240.0000;0.7920;-3.1582;
240.3000;0.7912;-3.1657;
240.6000;0.7961;-3.1557;
240.9000;0.7896;-3.1707;
241.2000;0.7937;-3.1632;
241.5000;0.7904;-3.1707;
241.8000;0.7904;-3.1707;
242.1000;0.7928;-3.1582;
242.4000;0.7896;-3.1682;
242.7000;0.7896;-3.1632;
243.0000;0.7896;-3.1607;
243.3000;0.7904;-3.1657;
243.6000;0.7896;-3.1756;
243.9000;0.7896;-3.1831;
244.2000;0.7904;-3.1831;
244.5000;0.7896;-3.1906;
244.8000;0.7912;-3.1906;
245.1000;0.7896;-3.1906;
245.4000;0.7928;-3.1781;
245.7000;0.7920;-3.1707;
246.0000;0.7912;-3.1657;
246.3000;0.7920;-3.1607;
246.6000;0.7904;-3.1632;
246.9000;0.7896;-3.1682;
247.2000;0.7896;-3.1781;
247.5000;0.7912;-3.1731;
247.8000;0.7904;-3.1756;
248.1000;0.7888;-3.1856;
248.4000;0.7904;-3.1856;
248.7000;0.7904;-3.1806;
249.0000;0.7888;-3.1831;
249.3000;0.7888;-3.1831;
249.6000;0.7880;-3.1881;
249.9000;0.7920;-3.1707;
250.2000;0.7904;-3.1781;
250.5000;0.7896;-3.1781;
250.8000;0.7904;-3.1707;
251.1000;0.7912;-3.1657;
251.4000;0.8010;-3.1483;
251.7000;0.7912;-3.1682;
252.0000;0.7896;-3.1632;
252.3000;0.7945;-3.1533;
252.6000;0.7920;-3.1582;
252.9000;0.7912;-3.1682;
253.2000;0.7928;-3.1682;
253.5000;0.7928;-3.1707;
253.8000;0.7904;-3.1731;
254.1000;0.7920;-3.1657;
254.4000;0.7904;-3.1657;
254.7000;0.7912;-3.1657;
255.0000;0.7904;-3.1657;
255.3000;0.7904;-3.1657;
255.6000;0.7896;-3.1657;
255.9000;0.7888;-3.1607;
256.2000;0.7871;-3.1458;
256.5000;0.7904;-3.1383;
256.8000;0.7912;-3.1334;
257.1000;0.7904;-3.1483;
257.4000;0.7896;-3.1458;
257.7000;0.7888;-3.1408;
258.0000;0.7904;-3.1383;
258.3000;0.7920;-3.1309;
258.6000;0.7920;-3.1284;
258.9000;0.7912;-3.1334;
259.2000;0.7904;-3.1483;
259.5000;0.7920;-3.1458;
259.8000;0.7904;-3.1408;
260.1000;0.7912;-3.1508;
260.4000;0.7904;-3.1433;
260.7000;0.7896;-3.1433;
261.0000;0.7912;-3.1458;
261.3000;0.7912;-3.1508;
261.6000;0.7912;-3.1458;
261.9000;0.7912;-3.1458;
262.2000;0.7912;-3.1433;
262.5000;0.7888;-3.1458;
262.8000;0.7904;-3.1458;
263.1000;0.7920;-3.1508;
263.4000;0.7912;-3.1533;
263.7000;0.7920;-3.1533;
264.0000;0.7912;-3.1557;
264.3000;0.7896;-3.1533;
264.6000;0.7937;-3.1383;
264.9000;0.7912;-3.1383;
265.2000;0.7920;-3.1433;
265.5000;0.7912;-3.1383;
265.8000;0.7920;-3.1508;
266.1000;0.7904;-3.1607;
266.4000;0.7904;-3.1607;
266.7000;0.7888;-3.1557;
267.0000;0.7912;-3.1458;
267.3000;0.7912;-3.1408;
267.6000;0.7920;-3.1433;
267.9000;0.7896;-3.1533;
268.2000;0.7904;-3.1533;
268.5000;0.7920;-3.1483;
268.8000;0.7896;-3.1483;
269.1000;0.7904;-3.1358;
269.4000;0.7904;-3.1458;
269.7000;0.7904;-3.1408;
270.0000;0.7896;-3.1334;
270.3000;0.7912;-3.1309;
270.6000;0.7920;-3.1234;
270.9000;0.7920;-3.1358;
271.2000;0.7912;-3.1309;
271.5000;0.7896;-3.1358;
271.8000;0.7904;-3.1408;
272.1000;0.7904;-3.1458;
272.4000;0.7896;-3.1433;
272.7000;0.7904;-3.1408;
273.0000;0.7904;-3.1483;
273.3000;0.7863;-3.1557;
273.6000;0.7896;-3.1483;
273.9000;0.7904;-3.1383;
274.2000;0.7912;-3.1309;
274.5000;0.7953;-3.1259;
274.8000;0.7928;-3.1234;
275.1000;0.7928;-3.1334;
275.4000;0.7928;-3.1383;
275.7000;0.7928;-3.1458;
276.0000;0.7928;-3.1458;
276.3000;0.7937;-3.1383;
276.6000;0.7896;-3.1433;
276.9000;0.7904;-3.1433;
277.2000;0.7920;-3.1433;
277.5000;0.7912;-3.1483;
277.8000;0.7904;-3.1632;
278.1000;0.7904;-3.1582;
278.4000;0.7920;-3.1582;
278.7000;0.7888;-3.1632;
279.0000;0.7912;-3.1582;
279.3000;0.7904;-3.1508;
279.6000;0.7896;-3.1458;
279.9000;0.7904;-3.1483;
280.2000;0.7904;-3.1383;
280.5000;0.7896;-3.1408;
280.8000;0.7896;-3.1458;
281.1000;0.7896;-3.1483;
281.4000;0.7912;-3.1408;
281.7000;0.7920;-3.1284;
282.0000;0.7896;-3.1358;
282.3000;0.7904;-3.1408;
282.6000;0.7904;-3.1458;
282.9000;0.7904;-3.1483;
283.2000;0.7880;-3.1508;
283.5000;0.7896;-3.1533;
283.8000;0.7888;-3.1557;
284.1000;0.7888;-3.1508;
284.4000;0.7896;-3.1582;
284.7000;0.7912;-3.1632;
285.0000;0.7896;-3.1582;
285.3000;0.7912;-3.1557;
285.6000;0.7961;-3.1408;
285.9000;0.7904;-3.1533;
286.2000;0.7912;-3.1533;
286.5000;0.7896;-3.1483;
286.8000;0.7912;-3.1383;
287.1000;0.7904;-3.1408;
287.4000;0.7871;-3.1508;
287.7000;0.7904;-3.1383;
288.0000;0.7904;-3.1358;
288.3000;0.7904;-3.1408;
288.6000;0.7920;-3.1433;
288.9000;0.7904;-3.1483;
289.2000;0.7904;-3.1557;
289.5000;0.7904;-3.1582;
289.8000;0.7871;-3.1657;
290.1000;0.7920;-3.1483;
290.4000;0.7920;-3.1533;
290.7000;0.7928;-3.1557;
291.0000;0.7904;-3.1557;
291.3000;0.7904;-3.1483;
291.6000;0.7871;-3.1632;
291.9000;0.7904;-3.1533;
292.2000;0.7912;-3.1533;
292.5000;0.7888;-3.1533;
292.8000;0.7880;-3.1582;
293.1000;0.7904;-3.1632;
293.4000;0.7912;-3.1632;
293.7000;0.7896;-3.1682;
294.0000;0.7896;-3.1731;
294.3000;0.7904;-3.1806;
294.6000;0.7904;-3.1806;
294.9000;0.7896;-3.1707;
295.2000;0.7888;-3.1781;
295.5000;0.7896;-3.1756;
295.8000;0.7896;-3.1657;
296.1000;0.7928;-3.1607;
296.4000;0.7896;-3.1707;
296.7000;0.7847;-3.1856;
297.0000;0.7888;-3.1756;
297.3000;0.7904;-3.1557;
297.6000;0.7896;-3.1607;
297.9000;0.7896;-3.1607;
298.2000;0.7888;-3.1632;
298.5000;0.7904;-3.1607;
298.8000;0.7904;-3.1632;
299.1000;0.7896;-3.1582;
299.4000;0.7945;-3.1533;
299.7000;0.7912;-3.1682;
300.0000;0.7904;-3.1707;
300.3000;0.7896;-3.1682;
300.6000;0.7928;-3.1632;
300.9000;0.7904;-3.1707;
301.2000;0.7912;-3.1731;
301.5000;0.7904;-3.1781;
301.8000;0.7904;-3.1756;
302.1000;0.7888;-3.1756;
302.4000;0.7896;-3.1682;
302.7000;0.7896;-3.1632;
303.0000;0.7896;-3.1632;
303.3000;0.7888;-3.1582;
303.6000;0.7896;-3.1557;
303.9000;0.7904;-3.1533;
304.2000;0.7945;-3.1408;
304.5000;0.7904;-3.1582;
304.8000;0.7912;-3.1557;
305.1000;0.7871;-3.1582;
305.4000;0.7904;-3.1557;
305.7000;0.7904;-3.1557;
306.0000;0.7896;-3.1582;
306.3000;0.7904;-3.1557;
306.6000;0.7896;-3.1582;
306.9000;0.7904;-3.1582;
307.2000;0.7896;-3.1557;
307.5000;0.7953;-3.1458;
307.8000;0.7896;-3.1657;
308.1000;0.7896;-3.1707;
308.4000;0.7904;-3.1657;
308.7000;0.7888;-3.1582;
309.0000;0.7896;-3.1533;
309.3000;0.7880;-3.1582;
309.6000;0.7904;-3.1533;
309.9000;0.7904;-3.1533;
310.2000;0.7814;-3.1731;
310.5000;0.7912;-3.1483;
310.8000;0.7880;-3.1607;
311.1000;0.7888;-3.1707;
311.4000;0.7896;-3.1682;
311.7000;0.7896;-3.1582;
312.0000;0.7904;-3.1508;
312.3000;0.7888;-3.1483;
312.6000;0.7888;-3.1508;
312.9000;0.7888;-3.1508;
313.2000;0.7912;-3.1433;
313.5000;0.7896;-3.1408;
313.8000;0.7888;-3.1358;
314.1000;0.7831;-3.1508;
314.4000;0.7896;-3.1433;
314.7000;0.7880;-3.1508;
315.0000;0.7782;-3.1756;
315.3000;0.8010;-3.1209;
315.6000;0.7831;-3.1682;
315.9000;0.7912;-3.1533;
316.2000;0.7896;-3.1557;
316.5000;0.7912;-3.1582;
316.8000;0.7880;-3.1557;
317.1000;0.7896;-3.1657;
317.4000;0.7904;-3.1508;
317.7000;0.7912;-3.1508;
318.0000;0.7912;-3.1483;
318.3000;0.7904;-3.1433;
318.6000;0.7888;-3.1433;
318.9000;0.7888;-3.1458;
319.2000;0.7945;-3.1284;
319.5000;0.7904;-3.1433;
319.8000;0.7912;-3.1433;
320.1000;0.7904;-3.1508;
320.4000;0.7896;-3.1533;
320.7000;0.7888;-3.1508;
321.0000;0.7912;-3.1433;
321.3000;0.7912;-3.1408;
321.6000;0.7912;-3.1433;
321.9000;0.7904;-3.1483;
322.2000;0.7904;-3.1483;
322.5000;0.7855;-3.1731;
322.8000;0.7904;-3.1657;
323.1000;0.7888;-3.1731;
323.4000;0.7871;-3.1682;
323.7000;0.7920;-3.1557;
324.0000;0.7896;-3.1657;
324.3000;0.7896;-3.1632;
324.6000;0.7953;-3.1383;
324.9000;0.7912;-3.1483;
325.2000;0.7839;-3.1682;
325.5000;0.7904;-3.1508;
325.8000;0.7896;-3.1533;
326.1000;0.7904;-3.1557;
326.4000;0.7896;-3.1533;
326.7000;0.7896;-3.1483;
327.0000;0.7896;-3.1533;
327.3000;0.7904;-3.1483;
327.6000;0.7904;-3.1483;
327.9000;0.7928;-3.1383;
328.2000;0.7912;-3.1483;
328.5000;0.7953;-3.1309;
328.8000;0.7912;-3.1309;
329.1000;0.7904;-3.1358;
329.4000;0.7896;-3.1383;
329.7000;0.7904;-3.1358;
330.0000;0.7904;-3.1334;
330.3000;0.7904;-3.1334;
330.6000;0.7937;-3.1259;
330.9000;0.7904;-3.1408;
331.2000;0.7904;-3.1433;
331.5000;0.7904;-3.1483;
331.8000;0.7896;-3.1408;
332.1000;0.7904;-3.1458;
332.4000;0.7904;-3.1508;
332.7000;0.7904;-3.1458;
333.0000;0.7814;-3.1632;
333.3000;0.7896;-3.1458;
333.6000;0.7896;-3.1433;
333.9000;0.7928;-3.1408;
334.2000;0.7920;-3.1383;
334.5000;0.7904;-3.1508;
334.8000;0.7888;-3.1508;
335.1000;0.7896;-3.1433;
335.4000;0.7904;-3.1433;
335.7000;0.7928;-3.1458;
336.0000;0.7904;-3.1483;
336.3000;0.7896;-3.1557;
336.6000;0.7904;-3.1533;
336.9000;0.7896;-3.1582;
337.2000;0.7904;-3.1607;
337.5000;0.7912;-3.1607;
337.8000;0.7904;-3.1657;
338.1000;0.7977;-3.1383;
338.4000;0.7912;-3.1458;
338.7000;0.7904;-3.1483;
339.0000;0.7912;-3.1557;
339.3000;0.7920;-3.1607;
339.6000;0.7896;-3.1657;
339.9000;0.7904;-3.1682;
340.2000;0.7863;-3.1731;
340.5000;0.7904;-3.1582;
340.8000;0.7871;-3.1508;
341.1000;0.7945;-3.1184;
341.4000;0.7880;-3.1334;
341.7000;0.7912;-3.1259;
342.0000;0.8026;-3.1010;
342.3000;0.7912;-3.1284;
342.6000;0.7920;-3.1259;
342.9000;0.7912;-3.1259;
343.2000;0.7904;-3.1284;
343.5000;0.7904;-3.1284;
343.8000;0.7888;-3.1334;
344.1000;0.7904;-3.1358;
344.4000;0.7896;-3.1334;
344.7000;0.7904;-3.1358;
345.0000;0.7888;-3.1458;
345.3000;0.7945;-3.1334;
345.6000;0.7977;-3.1209;
345.9000;0.7896;-3.1383;
346.2000;0.7928;-3.1234;
346.5000;0.7912;-3.1234;
346.8000;0.7920;-3.1184;
347.1000;0.7928;-3.1209;
347.4000;0.7937;-3.1035;
347.7000;0.7977;-3.1035;
348.0000;0.7904;-3.1234;
348.3000;0.7888;-3.1358;
348.6000;0.7896;-3.1309;
348.9000;0.7896;-3.1358;
349.2000;0.7912;-3.1383;
349.5000;0.7912;-3.1408;
349.8000;0.7912;-3.1334;
350.1000;0.7904;-3.1408;
350.4000;0.7896;-3.1483;
350.7000;0.7896;-3.1483;
351.0000;0.7961;-3.1408;
351.3000;0.7912;-3.1483;
351.6000;0.7904;-3.1508;
351.9000;0.7912;-3.1458;
352.2000;0.7904;-3.1533;
352.5000;0.7928;-3.1433;
352.8000;0.7904;-3.1458;
353.1000;0.7912;-3.1483;
353.4000;0.7896;-3.1483;
353.7000;0.7871;-3.1533;
354.0000;0.7912;-3.1483;
354.3000;0.7896;-3.1508;
354.6000;0.7896;-3.1408;
354.9000;0.7904;-3.1334;
355.2000;0.7912;-3.1284;
355.5000;0.7993;-3.1060;
355.8000;0.7888;-3.1358;
356.1000;0.7912;-3.1383;
356.4000;0.7896;-3.1334;
356.7000;0.7888;-3.1334;
357.0000;0.7871;-3.1408;
357.3000;0.7880;-3.1383;
357.6000;0.7920;-3.1358;
357.9000;0.7888;-3.1533;
358.2000;0.7888;-3.1483;
358.5000;0.7896;-3.1508;
358.8000;0.7896;-3.1508;
359.1000;0.7880;-3.1533;
359.4000;0.7896;-3.1508;
359.7000;0.7888;-3.1557;
360.0000;0.7904;-3.1533;
360.3000;0.7871;-3.1557;
360.6000;0.7863;-3.1657;
360.9000;0.7912;-3.1582;
361.2000;0.7969;-3.1408;
361.5000;0.7928;-3.1508;
361.8000;0.7904;-3.1582;
362.1000;0.7888;-3.1557;
362.4000;0.7896;-3.1533;
362.7000;0.7880;-3.1607;
363.0000;0.7912;-3.1433;
363.3000;0.7863;-3.1433;
363.6000;0.7912;-3.1358;
363.9000;0.7896;-3.1383;
364.2000;0.7904;-3.1383;
364.5000;0.7888;-3.1433;
364.8000;0.7920;-3.1309;
365.1000;0.7888;-3.1358;
365.4000;0.7896;-3.1383;
365.7000;0.7896;-3.1458;
366.0000;0.7888;-3.1383;
366.3000;0.7904;-3.1284;
366.6000;0.7912;-3.1358;
366.9000;0.7928;-3.1309;
367.2000;0.7888;-3.1383;
367.5000;0.7937;-3.1259;
367.8000;0.7896;-3.1358;
368.1000;0.7888;-3.1408;
368.4000;0.7896;-3.1358;
368.7000;0.7896;-3.1358;
369.0000;0.7896;-3.1358;
369.3000;0.7896;-3.1533;
369.6000;0.7969;-3.1483;
369.9000;0.7831;-3.1856;
370.2000;0.7855;-3.1806;
370.5000;0.7928;-3.1533;
370.8000;0.7896;-3.1533;
371.1000;0.7904;-3.1458;
371.4000;0.7912;-3.1358;
371.7000;0.8002;-3.1184;
372.0000;0.7896;-3.1458;
372.3000;0.7912;-3.1458;
372.6000;0.7912;-3.1533;
372.9000;0.7896;-3.1731;
373.2000;0.7945;-3.1632;
373.5000;0.7912;-3.1657;
373.8000;0.7888;-3.1657;
374.1000;0.7920;-3.1533;
374.4000;0.7912;-3.1557;
374.7000;0.7920;-3.1483;
375.0000;0.7928;-3.1408;
375.3000;0.7904;-3.1483;
375.6000;0.7904;-3.1408;
375.9000;0.7912;-3.1408;
376.2000;0.7928;-3.1408;
376.5000;0.7896;-3.1458;
376.8000;0.7888;-3.1433;
377.1000;0.7904;-3.1458;
377.4000;0.7904;-3.1458;
377.7000;0.7896;-3.1508;
378.0000;0.7880;-3.1533;
378.3000;0.7888;-3.1433;
378.6000;0.7896;-3.1383;
378.9000;0.7896;-3.1358;
379.2000;0.7896;-3.1309;
379.5000;0.7888;-3.1259;
379.8000;0.7904;-3.1309;
380.1000;0.7888;-3.1284;
380.4000;0.7888;-3.1259;
380.7000;0.7896;-3.1234;
381.0000;0.7904;-3.1184;
381.3000;0.7896;-3.1209;
381.6000;0.7896;-3.1309;
381.9000;0.7904;-3.1408;
382.2000;0.7888;-3.1433;
382.5000;0.7912;-3.1458;
382.8000;0.7920;-3.1433;
383.1000;0.7896;-3.1458;
383.4000;0.7912;-3.1408;
383.7000;0.7920;-3.1309;
384.0000;0.7904;-3.1334;
384.3000;0.7888;-3.1284;
384.6000;0.7904;-3.1259;
384.9000;0.7912;-3.1309;
385.2000;0.7912;-3.1309;
385.5000;0.7912;-3.1284;
385.8000;0.7985;-3.1085;
386.1000;0.7920;-3.1284;
386.4000;0.7928;-3.1209;
386.7000;0.7928;-3.1209;
387.0000;0.7912;-3.1259;
387.3000;0.7920;-3.1234;
387.6000;0.7896;-3.1284;
387.9000;0.7896;-3.1309;
388.2000;0.7904;-3.1284;
388.5000;0.7880;-3.1334;
388.8000;0.7912;-3.1358;
389.1000;0.7904;-3.1358;
389.4000;0.7904;-3.1284;
389.7000;0.7888;-3.1334;
390.0000;0.7904;-3.1259;
390.3000;0.7912;-3.1309;
390.6000;0.7896;-3.1284;
390.9000;0.7871;-3.1334;
391.2000;0.7880;-3.1309;
391.5000;0.7904;-3.1259;
391.8000;0.7904;-3.1234;
392.1000;0.7904;-3.1184;
392.4000;0.7896;-3.1160;
392.7000;0.7904;-3.1234;
393.0000;0.7904;-3.1309;
393.3000;0.7977;-3.1085;
393.6000;0.7855;-3.1383;
393.9000;0.7904;-3.1160;
394.2000;0.7912;-3.1184;
394.5000;0.7904;-3.1184;
394.8000;0.7904;-3.1259;
395.1000;0.7912;-3.1209;
395.4000;0.7961;-3.1110;
395.7000;0.7904;-3.1234;
396.0000;0.7896;-3.1209;
396.3000;0.7880;-3.1160;
396.6000;0.7896;-3.1110;
396.9000;0.7904;-3.1160;
397.2000;0.7896;-3.1209;
397.5000;0.7904;-3.1259;
397.8000;0.7928;-3.1259;
398.1000;0.7888;-3.1309;
398.4000;0.7928;-3.1358;
398.7000;0.7928;-3.1259;
399.0000;0.7969;-3.1110;
399.3000;0.7904;-3.1334;
399.6000;0.7912;-3.1284;
399.9000;0.7896;-3.1334;
400.2000;0.7880;-3.1408;
400.5000;0.7912;-3.1284;
400.8000;0.7896;-3.1284;
401.1000;0.7904;-3.1284;
401.4000;0.7888;-3.1284;
401.7000;0.7896;-3.1259;
402.0000;0.7896;-3.1209;
402.3000;0.7896;-3.1234;
402.6000;0.7880;-3.1309;
402.9000;0.7880;-3.1309;
403.2000;0.7912;-3.1259;
403.5000;0.7888;-3.1358;
403.8000;0.7904;-3.1358;
404.1000;0.7904;-3.1383;
404.4000;0.7896;-3.1358;
404.7000;0.7904;-3.1284;
405.0000;0.7912;-3.1259;
405.3000;0.7888;-3.1334;
405.6000;0.7896;-3.1309;
405.9000;0.7823;-3.1508;
406.2000;0.7904;-3.1334;
406.5000;0.7937;-3.1259;
406.8000;0.7888;-3.1458;
407.1000;0.7896;-3.1433;
407.4000;0.7880;-3.1383;
407.7000;0.7831;-3.1383;
408.0000;0.7904;-3.1309;
408.3000;0.7912;-3.1309;
408.6000;0.7920;-3.1309;
408.9000;0.7896;-3.1458;
409.2000;0.7904;-3.1433;
409.5000;0.7904;-3.1458;
409.8000;0.7839;-3.1657;
410.1000;0.7904;-3.1408;
410.4000;0.7896;-3.1408;
410.7000;0.7912;-3.1358;
411.0000;0.7904;-3.1358;
411.3000;0.7888;-3.1383;
411.6000;0.7920;-3.1234;
411.9000;0.7863;-3.1383;
412.2000;0.7896;-3.1309;
412.5000;0.7855;-3.1309;
412.8000;0.7904;-3.1259;
413.1000;0.7937;-3.1184;
413.4000;0.7896;-3.1259;
413.7000;0.7904;-3.1259;
414.0000;0.7904;-3.1209;
414.3000;0.7896;-3.1234;
414.6000;0.7896;-3.1259;
414.9000;0.7904;-3.1284;
415.2000;0.7912;-3.1184;
415.5000;0.7904;-3.1135;
415.8000;0.7896;-3.1135;
416.1000;0.7896;-3.1085;
416.4000;0.7920;-3.1010;
416.7000;0.7904;-3.0985;
417.0000;0.7880;-3.1035;
417.3000;0.7888;-3.0985;
417.6000;0.7896;-3.1035;
417.9000;0.7920;-3.1010;
418.2000;0.7904;-3.1060;
418.5000;0.7912;-3.0985;
418.8000;0.7912;-3.0961;
419.1000;0.7912;-3.1035;
419.4000;0.7912;-3.1035;
419.7000;0.7904;-3.1085;
420.0000;0.7888;-3.1160;
420.3000;0.7912;-3.1184;
420.6000;0.7912;-3.1209;
420.9000;0.7896;-3.1209;
421.2000;0.7896;-3.1184;
421.5000;0.7904;-3.1234;
421.8000;0.7904;-3.1184;
422.1000;0.7912;-3.1209;
422.4000;0.7904;-3.1284;
422.7000;0.7888;-3.1433;
423.0000;0.7904;-3.1433;
423.3000;0.7888;-3.1408;
423.6000;0.7904;-3.1408;
423.9000;0.7904;-3.1458;
424.2000;0.7937;-3.1408;
424.5000;0.7904;-3.1433;
424.8000;0.7880;-3.1483;
425.1000;0.7888;-3.1408;
425.4000;0.7904;-3.1358;
425.7000;0.7871;-3.1433;
426.0000;0.7880;-3.1508;
426.3000;0.7888;-3.1508;
426.6000;0.7888;-3.1433;
426.9000;0.7880;-3.1358;
427.2000;0.7912;-3.1284;
427.5000;0.7904;-3.1383;
427.8000;0.7896;-3.1408;
428.1000;0.7896;-3.1334;
428.4000;0.7896;-3.1309;
428.7000;0.7904;-3.1334;
429.0000;0.7904;-3.1358;
429.3000;0.7928;-3.1284;
429.6000;0.7896;-3.1358;
429.9000;0.7904;-3.1358;
430.2000;0.7896;-3.1408;
430.5000;0.7896;-3.1433;
430.8000;0.7920;-3.1284;
431.1000;0.7888;-3.1358;
431.4000;0.7888;-3.1334;
431.7000;0.7904;-3.1383;
432.0000;0.7904;-3.1358;
432.3000;0.7920;-3.1309;
432.6000;0.7912;-3.1259;
432.9000;0.7880;-3.1259;
433.2000;0.7896;-3.1184;
433.5000;0.7904;-3.1234;
433.8000;0.7904;-3.1309;
434.1000;0.7904;-3.1334;
434.4000;0.7888;-3.1358;
434.7000;0.7920;-3.1284;
435.0000;0.7888;-3.1383;
435.3000;0.7904;-3.1334;
435.6000;0.7888;-3.1309;
435.9000;0.7896;-3.1259;
436.2000;0.7953;-3.1085;
436.5000;0.7896;-3.1259;
436.8000;0.7871;-3.1334;
437.1000;0.7896;-3.1358;
437.4000;0.7928;-3.1383;
437.7000;0.7896;-3.1383;
438.0000;0.7880;-3.1334;
438.3000;0.7896;-3.1408;
438.6000;0.7896;-3.1358;
438.9000;0.7928;-3.1433;
439.2000;0.7896;-3.1483;
439.5000;0.7904;-3.1408;
439.8000;0.7904;-3.1358;
440.1000;0.7896;-3.1483;
440.4000;0.7888;-3.1483;
440.7000;0.7904;-3.1408;
441.0000;0.7863;-3.1358;
441.3000;0.7896;-3.1234;
441.6000;0.7855;-3.1383;
441.9000;0.7904;-3.1209;
442.2000;0.7888;-3.1309;
442.5000;0.7888;-3.1309;
442.8000;0.7896;-3.1209;
443.1000;0.7904;-3.1259;
443.4000;0.7888;-3.1234;
443.7000;0.7928;-3.1234;
444.0000;0.7888;-3.1284;
444.3000;0.7945;-3.1135;
444.6000;0.7839;-3.1458;
444.9000;0.7945;-3.1209;
445.2000;0.7920;-3.1234;
445.5000;0.7912;-3.1110;
445.8000;0.7920;-3.1160;
446.1000;0.7896;-3.1160;
446.4000;0.7920;-3.1035;
446.7000;0.7912;-3.1035;
447.0000;0.7904;-3.1110;
447.3000;0.7888;-3.1060;
447.6000;0.7953;-3.0836;
447.9000;0.7896;-3.0911;
448.2000;0.7912;-3.0861;
448.5000;0.7904;-3.0811;
448.8000;0.7904;-3.0811;
449.1000;0.7880;-3.0936;
449.4000;0.7896;-3.0961;
449.7000;0.7896;-3.1035;
450.0000;0.7896;-3.1010;
450.3000;0.7912;-3.1010;
450.6000;0.7880;-3.1035;
450.9000;0.7904;-3.1010;
451.2000;0.7888;-3.1060;
451.5000;0.7888;-3.1135;
451.8000;0.7904;-3.1184;
452.1000;0.7896;-3.1259;
452.4000;0.7888;-3.1209;
452.7000;0.7880;-3.1234;
453.0000;0.7904;-3.1110;
453.3000;0.7904;-3.1135;
453.6000;0.7888;-3.1259;
453.9000;0.7904;-3.1284;
454.2000;0.7920;-3.1334;
454.5000;0.7920;-3.1259;
454.8000;0.7896;-3.1309;
455.1000;0.7888;-3.1259;
455.4000;0.7888;-3.1184;
455.7000;0.7904;-3.1085;
456.0000;0.7904;-3.1085;
456.3000;0.7888;-3.1110;
456.6000;0.7937;-3.1085;
456.9000;0.7888;-3.1135;
457.2000;0.7904;-3.1060;
457.5000;0.7896;-3.1110;
457.8000;0.7896;-3.1160;
458.1000;0.7904;-3.1184;
458.4000;0.7912;-3.1184;
458.7000;0.7896;-3.1209;
459.0000;0.7888;-3.1110;
459.3000;0.7880;-3.1135;
459.6000;0.7912;-3.1060;
459.9000;0.7888;-3.1184;
460.2000;0.7863;-3.1184;
460.5000;0.7871;-3.1085;
460.8000;0.7904;-3.1010;
461.1000;0.7904;-3.1010;
461.4000;0.7928;-3.0886;
461.7000;0.7912;-3.1085;
462.0000;0.7904;-3.1085;
462.3000;0.7904;-3.1085;
462.6000;0.7904;-3.1060;
462.9000;0.7937;-3.0961;
463.2000;0.7863;-3.1184;
463.5000;0.7937;-3.0961;
463.8000;0.7855;-3.1135;
464.1000;0.7880;-3.1160;
464.4000;0.7896;-3.1110;
464.7000;0.7888;-3.1209;
465.0000;0.7880;-3.1309;
465.3000;0.7896;-3.1284;
465.6000;0.7888;-3.1309;
465.9000;0.7888;-3.1334;
466.2000;0.7831;-3.1483;
466.5000;0.7871;-3.1458;
466.8000;0.7888;-3.1309;
467.1000;0.7904;-3.1383;
467.4000;0.7904;-3.1483;
467.7000;0.7896;-3.1433;
468.0000;0.7904;-3.1309;
468.3000;0.7863;-3.1309;
468.6000;0.7823;-3.1358;
468.9000;0.7912;-3.1209;
469.2000;0.7888;-3.1209;
469.5000;0.7904;-3.1184;
469.8000;0.7904;-3.1110;
470.1000;0.7888;-3.1209;
470.4000;0.7888;-3.1160;
470.7000;0.7888;-3.1184;
471.0000;0.7880;-3.1234;
471.3000;0.7888;-3.1184;
471.6000;0.7871;-3.1160;
471.9000;0.7904;-3.1135;
472.2000;0.7888;-3.1160;
472.5000;0.7855;-3.1259;
472.8000;0.7896;-3.1234;
473.1000;0.7904;-3.1309;
473.4000;0.7880;-3.1284;
473.7000;0.7888;-3.1284;
474.0000;0.7904;-3.1284;
474.3000;0.7912;-3.1309;
474.6000;0.7888;-3.1383;
474.9000;0.7888;-3.1309;
475.2000;0.7904;-3.1209;
475.5000;0.7912;-3.1060;
475.8000;0.7904;-3.1209;
476.1000;0.7912;-3.1259;
476.4000;0.7904;-3.1458;
476.7000;0.7896;-3.1433;
477.0000;0.7920;-3.1383;
477.3000;0.7904;-3.1433;
477.6000;0.7912;-3.1334;
477.9000;0.7920;-3.1358;
478.2000;0.7920;-3.1284;
478.5000;0.7961;-3.1110;
478.8000;0.7888;-3.1234;
479.1000;0.7904;-3.1184;
479.4000;0.7823;-3.1334;
479.7000;0.7904;-3.1135;
480.0000;0.7896;-3.1135;
480.3000;0.7912;-3.1234;
480.6000;0.7912;-3.1284;
480.9000;0.7912;-3.1334;
481.2000;0.7880;-3.1358;
481.5000;0.7888;-3.1358;
481.8000;0.7904;-3.1408;
482.1000;0.7945;-3.1284;
482.4000;0.7904;-3.1309;
482.7000;0.7880;-3.1383;
483.0000;0.7912;-3.1334;
483.3000;0.7928;-3.1309;
483.6000;0.7896;-3.1408;
483.9000;0.7896;-3.1358;
484.2000;0.7888;-3.1408;
484.5000;0.7969;-3.1234;
484.8000;0.7937;-3.1309;
485.1000;0.7888;-3.1383;
485.4000;0.7880;-3.1433;
485.7000;0.7920;-3.1334;
486.0000;0.7928;-3.1358;
486.3000;0.7904;-3.1334;
486.6000;0.7904;-3.1284;
486.9000;0.7888;-3.1383;
487.2000;0.7920;-3.1284;
487.5000;0.7937;-3.1234;
487.8000;0.7888;-3.1358;
488.1000;0.7904;-3.1284;
488.4000;0.7888;-3.1334;
488.7000;0.7888;-3.1284;
489.0000;0.7888;-3.1284;
489.3000;0.7920;-3.1284;
489.6000;0.7912;-3.1309;
489.9000;0.7896;-3.1358;
490.2000;0.7888;-3.1334;
490.5000;0.7904;-3.1284;
490.8000;0.7880;-3.1334;
491.1000;0.7920;-3.1234;
491.4000;0.7871;-3.1334;
491.7000;0.7896;-3.1358;
492.0000;0.7912;-3.1358;
492.3000;0.7904;-3.1383;
492.6000;0.7904;-3.1259;
492.9000;0.7896;-3.1309;
493.2000;0.7896;-3.1334;
493.5000;0.7871;-3.1358;
493.8000;0.7904;-3.1358;
494.1000;0.7904;-3.1334;
494.4000;0.7904;-3.1234;
494.7000;0.7896;-3.1334;
495.0000;0.7904;-3.1209;
495.3000;0.7904;-3.1135;
495.6000;0.7937;-3.0985;
495.9000;0.7896;-3.1135;
496.2000;0.7912;-3.0985;
496.5000;0.7888;-3.1060;
496.8000;0.7912;-3.1035;
497.1000;0.7912;-3.1060;
497.4000;0.7920;-3.1110;
497.7000;0.7806;-3.1408;
498.0000;0.7912;-3.1209;
498.3000;0.7920;-3.1234;
498.6000;0.7912;-3.1259;
498.9000;0.7920;-3.1184;
499.2000;0.7912;-3.1234;
499.5000;0.7928;-3.1234;
499.8000;0.8018;-3.1110;
500.1000;0.7904;-3.1383;
500.4000;0.7904;-3.1408;
500.7000;0.7896;-3.1483;
501.0000;0.7880;-3.1508;
501.3000;0.7920;-3.1309;
501.6000;0.7880;-3.1334;
501.9000;0.7888;-3.1259;
502.2000;0.7904;-3.1209;
502.5000;0.7904;-3.1234;
502.8000;0.7896;-3.1284;
503.1000;0.7937;-3.1234;
503.4000;0.7945;-3.1135;
503.7000;0.7945;-3.1110;
504.0000;0.7904;-3.1160;
504.3000;0.7937;-3.1035;
504.6000;0.7896;-3.1110;
504.9000;0.7904;-3.1184;
505.2000;0.7920;-3.1209;
505.5000;0.7920;-3.1234;
505.8000;0.7912;-3.1259;
506.1000;0.7912;-3.1209;
506.4000;0.7904;-3.1184;
506.7000;0.7912;-3.1209;
507.0000;0.7912;-3.1234;
507.3000;0.7896;-3.1234;
507.6000;0.7904;-3.1110;
507.9000;0.7912;-3.1110;
508.2000;0.7912;-3.1135;
508.5000;0.7904;-3.1259;
508.8000;0.7896;-3.1259;
509.1000;0.7871;-3.1383;
509.4000;0.7904;-3.1334;
509.7000;0.7904;-3.1334;
510.0000;0.7888;-3.1309;
510.3000;0.7888;-3.1358;
510.6000;0.7904;-3.1209;
510.9000;0.7896;-3.1209;
511.2000;0.7896;-3.1135;
511.5000;0.7920;-3.1035;
511.8000;0.7896;-3.1184;
512.1000;0.7896;-3.1085;
512.4000;0.7904;-3.1085;
512.7000;0.7904;-3.1060;
513.0000;0.7896;-3.1010;
513.3000;0.7896;-3.1035;
513.6000;0.7904;-3.1060;
513.9000;0.7904;-3.0985;
514.2000;0.7888;-3.1010;
514.5000;0.7888;-3.1110;
514.8000;0.7928;-3.0961;
515.1000;0.7896;-3.1035;
515.4000;0.7904;-3.1035;
515.7000;0.7904;-3.1085;
516.0000;0.7904;-3.1085;
516.3000;0.7920;-3.1010;
516.6000;0.7831;-3.1209;
516.9000;0.7888;-3.1035;
517.2000;0.7912;-3.0911;
517.5000;0.7928;-3.0911;
517.8000;0.7896;-3.1035;
518.1000;0.7904;-3.1259;
518.4000;0.7912;-3.1259;
518.7000;0.7912;-3.1259;
519.0000;0.7904;-3.1334;
519.3000;0.7904;-3.1284;
519.6000;0.7904;-3.1234;
519.9000;0.7912;-3.1184;
520.2000;0.7896;-3.1358;
520.5000;0.7904;-3.1383;
520.8000;0.7904;-3.1334;
521.1000;0.7920;-3.1309;
521.4000;0.7928;-3.1309;
521.7000;0.7847;-3.1582;
522.0000;0.7912;-3.1483;
522.3000;0.7920;-3.1433;
522.6000;0.7969;-3.1309;
522.9000;0.7904;-3.1483;
523.2000;0.7912;-3.1483;
523.5000;0.7912;-3.1408;
523.8000;0.7904;-3.1358;
524.1000;0.7888;-3.1433;
524.4000;0.7888;-3.1408;
524.7000;0.7888;-3.1383;
525.0000;0.7896;-3.1259;
525.3000;0.7904;-3.1284;
525.6000;0.7888;-3.1309;
525.9000;0.7896;-3.1184;
526.2000;0.7880;-3.1234;
526.5000;0.7904;-3.1160;
526.8000;0.7912;-3.1234;
527.1000;0.7912;-3.1184;
527.4000;0.7839;-3.1433;
527.7000;0.7928;-3.1234;
528.0000;0.7937;-3.1259;
528.3000;0.7928;-3.1334;
528.6000;0.7937;-3.1334;
528.9000;0.7928;-3.1358;
529.2000;0.7928;-3.1284;
529.5000;0.7928;-3.1334;
529.8000;0.7904;-3.1358;
530.1000;0.7896;-3.1358;
530.4000;0.7904;-3.1408;
530.7000;0.7888;-3.1383;
531.0000;0.7888;-3.1334;
531.3000;0.7904;-3.1358;
531.6000;0.7912;-3.1358;
531.9000;0.7912;-3.1334;
532.2000;0.7904;-3.1284;
532.5000;0.7920;-3.1259;
532.8000;0.7839;-3.1458;
533.1000;0.7912;-3.1309;
533.4000;0.7904;-3.1334;
533.7000;0.7871;-3.1458;
534.0000;0.7888;-3.1334;
534.3000;0.7904;-3.1334;
534.6000;0.7896;-3.1408;
534.9000;0.7896;-3.1334;
535.2000;0.7888;-3.1383;
535.5000;0.7871;-3.1383;
535.8000;0.7880;-3.1383;
536.1000;0.7896;-3.1408;
536.4000;0.7920;-3.1433;
536.7000;0.7953;-3.1259;
537.0000;0.7912;-3.1284;
537.3000;0.7888;-3.1334;
537.6000;0.7896;-3.1358;
537.9000;0.7904;-3.1334;
538.2000;0.7871;-3.1458;
538.5000;0.7912;-3.1284;
538.8000;0.7896;-3.1334;
539.1000;0.7904;-3.1284;
539.4000;0.7904;-3.1259;
539.7000;0.7920;-3.1309;
540.0000;0.7928;-3.1259;
540.3000;0.7806;-3.1582;
540.6000;0.7904;-3.1383;
540.9000;0.7904;-3.1458;
541.2000;0.7896;-3.1433;
541.5000;0.7888;-3.1408;
541.8000;0.7904;-3.1383;
542.1000;0.7904;-3.1408;
542.4000;0.7920;-3.1408;
542.7000;0.7888;-3.1433;
543.0000;0.7928;-3.1358;
543.3000;0.7904;-3.1358;
543.6000;0.7904;-3.1458;
543.9000;0.7896;-3.1582;
544.2000;0.7880;-3.1557;
544.5000;0.7912;-3.1458;
544.8000;0.7920;-3.1383;
545.1000;0.7904;-3.1483;
545.4000;0.7920;-3.1458;
545.7000;0.7912;-3.1557;
546.0000;0.7912;-3.1533;
546.3000;0.7920;-3.1433;
546.6000;0.7912;-3.1508;
546.9000;0.7896;-3.1508;
547.2000;0.7896;-3.1433;
547.5000;0.7904;-3.1383;
547.8000;0.7888;-3.1408;
548.1000;0.7888;-3.1408;
548.4000;0.7912;-3.1284;
548.7000;0.7896;-3.1184;
549.0000;0.7888;-3.1135;
549.3000;0.7945;-3.1085;
549.6000;0.7888;-3.1259;
549.9000;0.7896;-3.1234;
550.2000;0.7912;-3.1209;
550.5000;0.7920;-3.1259;
550.8000;0.7896;-3.1334;
551.1000;0.7912;-3.1259;
551.4000;0.7904;-3.1234;
551.7000;0.7912;-3.1309;
552.0000;0.7912;-3.1408;
552.3000;0.7985;-3.1234;
552.6000;0.7912;-3.1334;
552.9000;0.7904;-3.1284;
553.2000;0.7920;-3.1209;
553.5000;0.7904;-3.1160;
553.8000;0.7888;-3.1234;
554.1000;0.7920;-3.1259;
554.4000;0.7920;-3.1209;
554.7000;0.7888;-3.1309;
555.0000;0.7977;-3.1010;
555.3000;0.7839;-3.1334;
555.6000;0.7888;-3.1209;
555.9000;0.7896;-3.1085;
556.2000;0.7904;-3.1160;
556.5000;0.7896;-3.1259;
556.8000;0.7928;-3.1209;
557.1000;0.7896;-3.1209;
557.4000;0.7904;-3.1160;
557.7000;0.7839;-3.1234;
558.0000;0.7896;-3.1135;
558.3000;0.7888;-3.1135;
558.6000;0.7953;-3.1085;
558.9000;0.7888;-3.1284;
559.2000;0.7969;-3.1135;
559.5000;0.7831;-3.1483;
559.8000;0.7977;-3.1085;
560.1000;0.7896;-3.1259;
560.4000;0.7896;-3.1284;
560.7000;0.7920;-3.1209;
561.0000;0.7912;-3.1309;
561.3000;0.7896;-3.1334;
561.6000;0.7896;-3.1334;
561.9000;0.7912;-3.1309;
562.2000;0.7912;-3.1284;
562.5000;0.7920;-3.1259;
562.8000;0.7912;-3.1383;
563.1000;0.7847;-3.1557;
563.4000;0.7920;-3.1408;
563.7000;0.7863;-3.1508;
564.0000;0.7896;-3.1334;
564.3000;0.7896;-3.1408;
564.6000;0.7928;-3.1358;
564.9000;0.7896;-3.1508;
565.2000;0.7928;-3.1383;
565.5000;0.7888;-3.1483;
565.8000;0.7896;-3.1408;
566.1000;0.7912;-3.1309;
566.4000;0.7904;-3.1334;
566.7000;0.7888;-3.1334;
567.0000;0.7912;-3.1209;
567.3000;0.7896;-3.1234;
567.6000;0.7888;-3.1284;
567.9000;0.7904;-3.1259;
568.2000;0.7912;-3.1110;
568.5000;0.7920;-3.1135;
568.8000;0.7912;-3.1184;
569.1000;0.7904;-3.1284;
569.4000;0.7896;-3.1309;
569.7000;0.7880;-3.1209;
570.0000;0.7904;-3.1209;
570.3000;0.7904;-3.1234;
570.6000;0.7896;-3.1284;
570.9000;0.7904;-3.1259;
571.2000;0.7888;-3.1184;
571.5000;0.7928;-3.1135;
571.8000;0.7912;-3.1234;
572.1000;0.7896;-3.1284;
572.4000;0.7904;-3.1259;
572.7000;0.7912;-3.1259;
573.0000;0.7904;-3.1309;
573.3000;0.7847;-3.1433;
573.6000;0.7896;-3.1259;
573.9000;0.7896;-3.1160;
574.2000;0.7896;-3.1259;
574.5000;0.7880;-3.1458;
574.8000;0.7904;-3.1483;
575.1000;0.7912;-3.1433;
575.4000;0.7863;-3.1508;
575.7000;0.7896;-3.1433;
576.0000;0.7912;-3.1334;
576.3000;0.7904;-3.1358;
576.6000;0.7904;-3.1309;
576.9000;0.7888;-3.1309;
577.2000;0.7880;-3.1184;
577.5000;0.7912;-3.1085;
577.8000;0.7871;-3.1284;
578.1000;0.7847;-3.1334;
578.4000;0.7888;-3.1309;
578.7000;0.7928;-3.1259;
579.0000;0.7896;-3.1309;
579.3000;0.7928;-3.1209;
579.6000;0.7920;-3.1234;
579.9000;0.7920;-3.1160;
580.2000;0.7985;-3.0985;
580.5000;0.7888;-3.1184;
580.8000;0.7928;-3.1085;
581.1000;0.7871;-3.1284;
581.4000;0.7928;-3.1209;
581.7000;0.7920;-3.1184;
582.0000;0.7888;-3.1309;
582.3000;0.7945;-3.1110;
582.6000;0.7953;-3.0985;
582.9000;0.7871;-3.1209;
583.2000;0.7904;-3.1110;
583.5000;0.7904;-3.1135;
583.8000;0.7896;-3.1234;
584.1000;0.7904;-3.1259;
584.4000;0.7888;-3.1334;
584.7000;0.7888;-3.1309;
585.0000;0.7896;-3.1334;
585.3000;0.7888;-3.1284;
585.6000;0.7888;-3.1309;
585.9000;0.7912;-3.1309;
586.2000;0.7904;-3.1259;
586.5000;0.7912;-3.1259;
586.8000;0.7912;-3.1234;
587.1000;0.7904;-3.1284;
587.4000;0.7896;-3.1284;
587.7000;0.7904;-3.1259;
588.0000;0.7896;-3.1309;
588.3000;0.7904;-3.1309;
588.6000;0.7904;-3.1309;
588.9000;0.7912;-3.1259;
589.2000;0.7912;-3.1234;
589.5000;0.7847;-3.1408;
589.8000;0.7904;-3.1234;
590.1000;0.7880;-3.1284;
590.4000;0.7904;-3.1284;
590.7000;0.7896;-3.1408;
591.0000;0.7912;-3.1358;
591.3000;0.7912;-3.1408;
591.6000;0.7896;-3.1557;
591.9000;0.7920;-3.1557;
592.2000;0.7904;-3.1582;
592.5000;0.7839;-3.1707;
592.8000;0.7871;-3.1707;
593.1000;0.7912;-3.1508;
593.4000;0.7912;-3.1458;
593.7000;0.8018;-3.1135;
594.0000;0.7904;-3.1334;
594.3000;0.7912;-3.1259;
594.6000;0.7904;-3.1284;
594.9000;0.7896;-3.1284;
595.2000;0.7904;-3.1334;
595.5000;0.7920;-3.1284;
595.8000;0.7896;-3.1383;
596.1000;0.7977;-3.1160;
596.4000;0.7888;-3.1458;
596.7000;0.7912;-3.1358;
597.0000;0.7920;-3.1284;
597.3000;0.7920;-3.1309;
597.6000;0.7920;-3.1383;
597.9000;0.7912;-3.1433;
598.2000;0.7904;-3.1458;
598.5000;0.7928;-3.1358;
598.8000;0.7904;-3.1483;
599.1000;0.7904;-3.1433;
599.4000;0.7912;-3.1334;
599.7000;0.7839;-3.1508;
600.0000;0.7888;-3.1259;
600.3000;0.7888;-3.1334;
600.6000;0.7888;-3.1408;
600.9000;0.7888;-3.1582;
601.2000;0.7823;-3.1756;
601.5000;0.7774;-3.1906;
601.8000;0.7741;-3.1906;
602.1000;0.7725;-3.1906;
602.4000;0.7611;-3.2154;
602.7000;0.7562;-3.2279;
603.0000;0.7497;-3.2428;
603.3000;0.7448;-3.2577;
603.6000;0.7424;-3.2577;
603.9000;0.7367;-3.2602;
604.2000;0.7318;-3.2701;
604.5000;0.7367;-3.2552;
604.8000;0.7220;-3.2851;
605.1000;0.7179;-3.2900;
605.4000;0.7204;-3.2701;
605.7000;0.7114;-3.2875;
606.0000;0.7074;-3.2975;
606.3000;0.7082;-3.2900;
606.6000;0.7057;-3.2925;
606.9000;0.6976;-3.3099;
607.2000;0.6960;-3.3074;
607.5000;0.6935;-3.3124;
607.8000;0.6903;-3.3248;
608.1000;0.6870;-3.3323;
608.4000;0.6781;-3.3472;
608.7000;0.6813;-3.3348;
609.0000;0.6813;-3.3323;
609.3000;0.6764;-3.3348;
609.6000;0.6740;-3.3422;
609.9000;0.6724;-3.3398;
610.2000;0.6707;-3.3373;
610.5000;0.6707;-3.3373;
610.8000;0.6642;-3.3373;
611.1000;0.6634;-3.3323;
611.4000;0.6610;-3.3373;
611.7000;0.6593;-3.3472;
612.0000;0.6545;-3.3497;
612.3000;0.6528;-3.3572;
612.6000;0.6512;-3.3572;
612.9000;0.6488;-3.3522;
613.2000;0.6471;-3.3522;
613.5000;0.6463;-3.3497;
613.8000;0.6463;-3.3497;
614.1000;0.6414;-3.3547;
614.4000;0.6406;-3.3547;
614.7000;0.6390;-3.3621;
615.0000;0.6349;-3.3497;
615.3000;0.6341;-3.3472;
615.6000;0.6227;-3.3696;
615.9000;0.6333;-3.3472;
616.2000;0.6333;-3.3472;
616.5000;0.6284;-3.3497;
616.8000;0.6292;-3.3472;
617.1000;0.6252;-3.3547;
617.4000;0.6235;-3.3621;
617.7000;0.6252;-3.3646;
618.0000;0.6211;-3.3721;
618.3000;0.6186;-3.3771;
618.6000;0.6186;-3.3671;
618.9000;0.6178;-3.3646;
619.2000;0.6162;-3.3696;
619.5000;0.6154;-3.3771;
619.8000;0.6113;-3.3820;
620.1000;0.6113;-3.3721;
620.4000;0.6113;-3.3621;
620.7000;0.6113;-3.3522;
621.0000;0.6105;-3.3472;
621.3000;0.6113;-3.3497;
621.6000;0.6056;-3.3671;
621.9000;0.6072;-3.3646;
622.2000;0.6048;-3.3696;
622.5000;0.6032;-3.3671;
622.8000;0.6024;-3.3646;
623.1000;0.6007;-3.3646;
623.4000;0.5999;-3.3621;
623.7000;0.5958;-3.3621;
624.0000;0.5942;-3.3646;
624.3000;0.5950;-3.3572;
624.6000;0.5950;-3.3572;
624.9000;0.5934;-3.3646;
625.2000;0.5934;-3.3547;
625.5000;0.5926;-3.3497;
625.8000;0.5910;-3.3547;
626.1000;0.5910;-3.3522;
626.4000;0.5877;-3.3547;
626.7000;0.5869;-3.3522;
627.0000;0.5877;-3.3522;
627.3000;0.5861;-3.3597;
627.6000;0.5820;-3.3646;
627.9000;0.5845;-3.3597;
628.2000;0.5836;-3.3522;
628.5000;0.5820;-3.3547;
628.8000;0.5812;-3.3572;
629.1000;0.5804;-3.3621;
629.4000;0.5804;-3.3621;
629.7000;0.5812;-3.3597;
630.0000;0.5804;-3.3671;
630.3000;0.5763;-3.3721;
630.6000;0.5763;-3.3746;
630.9000;0.5763;-3.3796;
631.2000;0.5755;-3.3796;
631.5000;0.5755;-3.3796;
631.8000;0.5731;-3.3721;
632.1000;0.5739;-3.3721;
632.4000;0.5714;-3.3721;
632.7000;0.5714;-3.3721;
633.0000;0.5722;-3.3746;
633.3000;0.5706;-3.3820;
633.6000;0.5714;-3.3895;
633.9000;0.5690;-3.3945;
634.2000;0.5682;-3.3895;
634.5000;0.5657;-3.3870;
634.8000;0.5665;-3.3970;
635.1000;0.5657;-3.3970;
635.4000;0.5649;-3.3994;
635.7000;0.5625;-3.3970;
636.0000;0.5641;-3.3920;
636.3000;0.5641;-3.3796;
636.6000;0.5608;-3.3820;
636.9000;0.5625;-3.3721;
637.2000;0.5600;-3.3547;
637.5000;0.5600;-3.3621;
637.8000;0.5592;-3.3671;
638.1000;0.5584;-3.3721;
638.4000;0.5584;-3.3721;
638.7000;0.5657;-3.3621;
639.0000;0.5576;-3.3845;
639.3000;0.5568;-3.3895;
639.6000;0.5576;-3.3845;
639.9000;0.5568;-3.3796;
640.2000;0.5551;-3.3646;
640.5000;0.5535;-3.3746;
640.8000;0.5543;-3.3771;
641.1000;0.5535;-3.3721;
641.4000;0.5543;-3.3796;
641.7000;0.5519;-3.3820;
642.0000;0.5535;-3.3895;
642.3000;0.5535;-3.3746;
642.6000;0.5511;-3.3621;
642.9000;0.5519;-3.3522;
643.2000;0.5495;-3.3671;
643.5000;0.5519;-3.3671;
643.8000;0.5519;-3.3547;
644.1000;0.5495;-3.3522;
644.4000;0.5478;-3.3597;
644.7000;0.5486;-3.3597;
645.0000;0.5478;-3.3671;
645.3000;0.5438;-3.3721;
645.6000;0.5478;-3.3646;
645.9000;0.5462;-3.3671;
646.2000;0.5462;-3.3671;
646.5000;0.5470;-3.3696;
646.8000;0.5462;-3.3646;
647.1000;0.5438;-3.3671;
647.4000;0.5470;-3.3497;
647.7000;0.5519;-3.3348;
648.0000;0.5429;-3.3497;
648.3000;0.5438;-3.3497;
648.6000;0.5421;-3.3422;
648.9000;0.5413;-3.3572;
649.2000;0.5421;-3.3547;
649.5000;0.5421;-3.3597;
649.8000;0.5405;-3.3621;
650.1000;0.5405;-3.3597;
650.4000;0.5389;-3.3572;
650.7000;0.5405;-3.3597;
651.0000;0.5405;-3.3771;
651.3000;0.5389;-3.3820;
651.6000;0.5389;-3.3796;
651.9000;0.5405;-3.3721;
652.2000;0.5397;-3.3671;
652.5000;0.5364;-3.3621;
652.8000;0.5372;-3.3547;
653.1000;0.5372;-3.3597;
653.4000;0.5356;-3.3621;
653.7000;0.5348;-3.3721;
654.0000;0.5356;-3.3820;
654.3000;0.5356;-3.3895;
654.6000;0.5454;-3.3572;
654.9000;0.5356;-3.3820;
655.2000;0.5356;-3.3721;
655.5000;0.5348;-3.3746;
655.8000;0.5364;-3.3746;
656.1000;0.5397;-3.3696;
656.4000;0.5356;-3.3771;
656.7000;0.5356;-3.3696;
657.0000;0.5340;-3.3820;
657.3000;0.5348;-3.3820;
657.6000;0.5364;-3.3721;
657.9000;0.5315;-3.3721;
658.2000;0.5307;-3.3796;
658.5000;0.5315;-3.3895;
658.8000;0.5324;-3.3771;
659.1000;0.5299;-3.3820;
659.4000;0.5291;-3.3771;
659.7000;0.5315;-3.3845;
660.0000;0.5299;-3.3870;
660.3000;0.5299;-3.3895;
660.6000;0.5283;-3.3895;
660.9000;0.5291;-3.3845;
661.2000;0.5283;-3.3870;
661.5000;0.5291;-3.3721;
661.8000;0.5267;-3.3721;
662.1000;0.5267;-3.3796;
662.4000;0.5283;-3.3771;
662.7000;0.5210;-3.4044;
663.0000;0.5267;-3.3870;
663.3000;0.5267;-3.3796;
663.6000;0.5275;-3.3671;
663.9000;0.5267;-3.3696;
664.2000;0.5250;-3.3845;
664.5000;0.5210;-3.3945;
664.8000;0.5242;-3.3771;
665.1000;0.5242;-3.3696;
665.4000;0.5275;-3.3721;
665.7000;0.5258;-3.3721;
666.0000;0.5234;-3.3721;
666.3000;0.5258;-3.3721;
666.6000;0.5250;-3.3721;
666.9000;0.5250;-3.3721;
667.2000;0.5250;-3.3721;
667.5000;0.5267;-3.3646;
667.8000;0.5242;-3.3721;
668.1000;0.5250;-3.3721;
668.4000;0.5226;-3.3721;
668.7000;0.5242;-3.3746;
669.0000;0.5234;-3.3820;
669.3000;0.5226;-3.3870;
669.6000;0.5210;-3.3895;
669.9000;0.5234;-3.3895;
670.2000;0.5226;-3.3895;
670.5000;0.5210;-3.3820;
670.8000;0.5226;-3.3895;
671.1000;0.5201;-3.3920;
671.4000;0.5210;-3.3895;
671.7000;0.5210;-3.3796;
672.0000;0.5218;-3.3721;
672.3000;0.5210;-3.3696;
672.6000;0.5226;-3.3621;
672.9000;0.5218;-3.3597;
673.2000;0.5161;-3.3696;
673.5000;0.5193;-3.3621;
673.8000;0.5201;-3.3522;
674.1000;0.5242;-3.3323;
674.4000;0.5210;-3.3522;
674.7000;0.5185;-3.3621;
675.0000;0.5193;-3.3597;
675.3000;0.5177;-3.3621;
675.6000;0.5161;-3.3721;
675.9000;0.5177;-3.3646;
676.2000;0.5144;-3.3671;
676.5000;0.5161;-3.3671;
676.8000;0.5177;-3.3646;
677.1000;0.5177;-3.3771;
677.4000;0.5169;-3.3721;
677.7000;0.5161;-3.3820;
678.0000;0.5169;-3.3771;
678.3000;0.5161;-3.3796;
678.6000;0.5169;-3.3721;
678.9000;0.5185;-3.3671;
679.2000;0.5177;-3.3646;
679.5000;0.5161;-3.3597;
679.8000;0.5169;-3.3572;
680.1000;0.5169;-3.3572;
680.4000;0.5096;-3.3696;
680.7000;0.5169;-3.3522;
681.0000;0.5185;-3.3398;
681.3000;0.5177;-3.3373;
681.6000;0.5161;-3.3472;
681.9000;0.5161;-3.3472;
682.2000;0.5153;-3.3497;
682.5000;0.5153;-3.3422;
682.8000;0.5161;-3.3398;
683.1000;0.5153;-3.3472;
683.4000;0.5144;-3.3472;
683.7000;0.5218;-3.3323;
684.0000;0.5153;-3.3398;
684.3000;0.5136;-3.3398;
684.6000;0.5153;-3.3298;
684.9000;0.5144;-3.3323;
685.2000;0.5136;-3.3298;
685.5000;0.5136;-3.3273;
685.8000;0.5104;-3.3273;
686.1000;0.5144;-3.3248;
686.4000;0.5177;-3.3149;
686.7000;0.5185;-3.3149;
687.0000;0.5112;-3.3348;
687.3000;0.5136;-3.3323;
687.6000;0.5120;-3.3348;
687.9000;0.5128;-3.3323;
688.2000;0.5185;-3.3174;
688.5000;0.5136;-3.3373;
688.8000;0.5112;-3.3422;
689.1000;0.5120;-3.3298;
689.4000;0.5112;-3.3373;
689.7000;0.5096;-3.3323;
690.0000;0.5120;-3.3149;
690.3000;0.5128;-3.3273;
690.6000;0.5128;-3.3472;
690.9000;0.5136;-3.3472;
691.2000;0.5128;-3.3472;
691.5000;0.5193;-3.3323;
691.8000;0.5120;-3.3597;
692.1000;0.5104;-3.3721;
692.4000;0.5104;-3.3646;
692.7000;0.5096;-3.3646;
693.0000;0.5128;-3.3522;
693.3000;0.5120;-3.3472;
693.6000;0.5112;-3.3572;
693.9000;0.5112;-3.3572;
694.2000;0.5112;-3.3597;
694.5000;0.5104;-3.3597;
694.8000;0.5104;-3.3671;
695.1000;0.5128;-3.3671;
695.4000;0.5112;-3.3696;
695.7000;0.5096;-3.3746;
696.0000;0.5112;-3.3671;
696.3000;0.5071;-3.3820;
696.6000;0.5088;-3.3820;
696.9000;0.4998;-3.4044;
697.2000;0.5112;-3.3796;
697.5000;0.5071;-3.3696;
697.8000;0.5096;-3.3696;
698.1000;0.5088;-3.3696;
698.4000;0.5079;-3.3671;
698.7000;0.5071;-3.3721;
699.0000;0.5104;-3.3671;
699.3000;0.5079;-3.3696;
699.6000;0.5088;-3.3721;
699.9000;0.5071;-3.3845;
700.2000;0.5071;-3.3895;
700.5000;0.5088;-3.3796;
700.8000;0.5071;-3.3870;
701.1000;0.5079;-3.3845;
701.4000;0.5177;-3.3447;
701.7000;0.5088;-3.3721;
702.0000;0.5071;-3.3746;
702.3000;0.5079;-3.3671;
702.6000;0.5096;-3.3572;
702.9000;0.5088;-3.3621;
703.2000;0.5088;-3.3646;
703.5000;0.5079;-3.3721;
703.8000;0.5088;-3.3646;
704.1000;0.5104;-3.3621;
704.4000;0.5071;-3.3696;
704.7000;0.5055;-3.3796;
705.0000;0.5079;-3.3721;
705.3000;0.5088;-3.3771;
705.6000;0.5088;-3.3721;
705.9000;0.5088;-3.3671;
706.2000;0.5071;-3.3597;
706.5000;0.5071;-3.3696;
706.8000;0.5055;-3.3796;
707.1000;0.5096;-3.3845;
707.4000;0.5055;-3.3920;
707.7000;0.5071;-3.3820;
708.0000;0.5071;-3.3671;
708.3000;0.5088;-3.3646;
708.6000;0.5055;-3.3721;
708.9000;0.5071;-3.3845;
709.2000;0.5079;-3.3796;
709.5000;0.5096;-3.3746;
709.8000;0.4974;-3.3994;
710.1000;0.5071;-3.3646;
710.4000;0.5088;-3.3721;
710.7000;0.5096;-3.3721;
711.0000;0.5055;-3.3796;
711.3000;0.5063;-3.3696;
711.6000;0.5039;-3.3771;
711.9000;0.5055;-3.3771;
712.2000;0.5014;-3.3895;
712.5000;0.5063;-3.3820;
712.8000;0.5055;-3.3870;
713.1000;0.5047;-3.3870;
713.4000;0.5047;-3.3820;
713.7000;0.5071;-3.3746;
714.0000;0.5055;-3.3696;
714.3000;0.4974;-3.3870;
714.6000;0.5055;-3.3696;
714.9000;0.5055;-3.3721;
715.2000;0.4990;-3.3820;
715.5000;0.5071;-3.3547;
715.8000;0.5120;-3.3522;
716.1000;0.5071;-3.3597;
716.4000;0.5047;-3.3572;
716.7000;0.5088;-3.3472;
717.0000;0.5063;-3.3497;
717.3000;0.5047;-3.3497;
717.6000;0.5031;-3.3547;
717.9000;0.5047;-3.3522;
718.2000;0.5055;-3.3547;
718.5000;0.5063;-3.3398;
718.8000;0.5096;-3.3398;
719.1000;0.5047;-3.3497;
719.4000;0.5047;-3.3422;
719.7000;0.5055;-3.3373;
720.0000;0.5055;-3.3447;
720.3000;0.5120;-3.3348;
720.6000;0.5047;-3.3547;
720.9000;0.5014;-3.3671;
721.2000;0.5047;-3.3621;
721.5000;0.5031;-3.3597;
721.8000;0.4925;-3.3845;
722.1000;0.5039;-3.3547;
722.4000;0.5063;-3.3597;
722.7000;0.5039;-3.3646;
723.0000;0.5031;-3.3696;
723.3000;0.5088;-3.3497;
723.6000;0.4974;-3.3746;
723.9000;0.5022;-3.3671;
724.2000;0.5031;-3.3597;
724.5000;0.5006;-3.3597;
724.8000;0.5047;-3.3547;
725.1000;0.5014;-3.3572;
725.4000;0.5031;-3.3497;
725.7000;0.5055;-3.3522;
726.0000;0.5039;-3.3597;
726.3000;0.5047;-3.3671;
726.6000;0.5022;-3.3771;
726.9000;0.5039;-3.3671;
727.2000;0.5022;-3.3696;
727.5000;0.5031;-3.3671;
727.8000;0.5047;-3.3621;
728.1000;0.5022;-3.3746;
728.4000;0.4933;-3.3895;
728.7000;0.5039;-3.3646;
729.0000;0.5039;-3.3621;
729.3000;0.5047;-3.3497;
729.6000;0.5039;-3.3572;
729.9000;0.5039;-3.3597;
730.2000;0.5031;-3.3547;
730.5000;0.5022;-3.3497;
730.8000;0.5022;-3.3572;
731.1000;0.5039;-3.3572;
731.4000;0.5039;-3.3572;
731.7000;0.5031;-3.3696;
732.0000;0.5047;-3.3597;
732.3000;0.5096;-3.3572;
732.6000;0.5006;-3.3771;
732.9000;0.5022;-3.3746;
733.2000;0.5047;-3.3746;
733.5000;0.5039;-3.3721;
733.8000;0.5014;-3.3845;
734.1000;0.5022;-3.3796;
734.4000;0.5022;-3.3721;
734.7000;0.5022;-3.3746;
735.0000;0.5022;-3.3771;
735.3000;0.5039;-3.3696;
735.6000;0.5031;-3.3671;
735.9000;0.4982;-3.3696;
736.2000;0.5022;-3.3646;
736.5000;0.5014;-3.3597;
736.8000;0.5022;-3.3597;
737.1000;0.5031;-3.3696;
737.4000;0.4990;-3.3820;
737.7000;0.5022;-3.3771;
738.0000;0.4998;-3.3845;
738.3000;0.4998;-3.3845;
738.6000;0.5063;-3.3721;
738.9000;0.5014;-3.3796;
739.2000;0.5014;-3.3746;
739.5000;0.5006;-3.3845;
739.8000;0.4982;-3.3994;
740.1000;0.5014;-3.3920;
740.4000;0.5014;-3.3970;
740.7000;0.5022;-3.4019;
741.0000;0.5031;-3.3970;
741.3000;0.4982;-3.4069;
741.6000;0.5022;-3.3845;
741.9000;0.4957;-3.3895;
742.2000;0.5014;-3.3820;
742.5000;0.5031;-3.3771;
742.8000;0.5063;-3.3671;
743.1000;0.5031;-3.3671;
743.4000;0.5022;-3.3696;
743.7000;0.5022;-3.3721;
744.0000;0.4965;-3.3820;
744.3000;0.5014;-3.3696;
744.6000;0.5014;-3.3671;
744.9000;0.5022;-3.3746;
745.2000;0.5022;-3.3820;
745.5000;0.5014;-3.3820;
745.8000;0.4974;-3.3870;
746.1000;0.5022;-3.3746;
746.4000;0.4974;-3.3721;
746.7000;0.5006;-3.3621;
747.0000;0.5071;-3.3572;
747.3000;0.5014;-3.3746;
747.6000;0.4998;-3.3746;
747.9000;0.5006;-3.3696;
748.2000;0.4998;-3.3671;
748.5000;0.5006;-3.3746;
748.8000;0.5014;-3.3646;
749.1000;0.5022;-3.3671;
749.4000;0.4998;-3.3671;
749.7000;0.5022;-3.3721;
750.0000;0.5031;-3.3721;
750.3000;0.5031;-3.3696;
750.6000;0.4990;-3.3771;
750.9000;0.5022;-3.3646;
751.2000;0.5031;-3.3721;
751.5000;0.5014;-3.3746;
751.8000;0.5022;-3.3721;
752.1000;0.5022;-3.3671;
752.4000;0.4965;-3.3746;
752.7000;0.5006;-3.3597;
753.0000;0.5031;-3.3547;
753.3000;0.5014;-3.3646;
753.6000;0.5006;-3.3721;
753.9000;0.5006;-3.3746;
754.2000;0.5014;-3.3646;
754.5000;0.5063;-3.3547;
754.8000;0.5022;-3.3696;
755.1000;0.5022;-3.3671;
755.4000;0.5006;-3.3696;
755.7000;0.5006;-3.3746;
756.0000;0.5014;-3.3621;
756.3000;0.4965;-3.3696;
756.6000;0.5006;-3.3572;
756.9000;0.5006;-3.3547;
757.2000;0.4998;-3.3597;
757.5000;0.4982;-3.3721;
757.8000;0.4990;-3.3746;
758.1000;0.5006;-3.3646;
758.4000;0.4982;-3.3721;
758.7000;0.4990;-3.3721;
759.0000;0.4998;-3.3721;
759.3000;0.4990;-3.3746;
759.6000;0.4982;-3.3870;
759.9000;0.4998;-3.3796;
760.2000;0.4990;-3.3721;
760.5000;0.5006;-3.3597;
760.8000;0.5006;-3.3572;
761.1000;0.4990;-3.3572;
761.4000;0.5039;-3.3597;
761.7000;0.5014;-3.3646;
762.0000;0.5006;-3.3746;
762.3000;0.5022;-3.3820;
762.6000;0.5006;-3.3721;
762.9000;0.5006;-3.3796;
763.2000;0.5031;-3.3746;
763.5000;0.5022;-3.3671;
763.8000;0.4998;-3.3671;
764.1000;0.4990;-3.3771;
764.4000;0.5006;-3.3746;
764.7000;0.4998;-3.3746;
765.0000;0.5014;-3.3671;
765.3000;0.4941;-3.3870;
765.6000;0.4998;-3.3721;
765.9000;0.5022;-3.3621;
766.2000;0.5031;-3.3522;
766.5000;0.4990;-3.3597;
766.8000;0.4982;-3.3696;
767.1000;0.5006;-3.3746;
767.4000;0.5014;-3.3746;
767.7000;0.4990;-3.3796;
768.0000;0.4990;-3.3721;
768.3000;0.5014;-3.3597;
768.6000;0.4982;-3.3621;
768.9000;0.4917;-3.3746;
769.2000;0.5055;-3.3447;
769.5000;0.5031;-3.3398;
769.8000;0.5006;-3.3422;
770.1000;0.5096;-3.3199;
770.4000;0.5014;-3.3472;
770.7000;0.4982;-3.3547;
771.0000;0.5006;-3.3497;
771.3000;0.4998;-3.3547;
771.6000;0.4982;-3.3646;
771.9000;0.5014;-3.3497;
772.2000;0.5006;-3.3522;
772.5000;0.4998;-3.3621;
772.8000;0.4998;-3.3671;
773.1000;0.5006;-3.3497;
773.4000;0.4990;-3.3497;
773.7000;0.4998;-3.3472;
774.0000;0.4949;-3.3671;
774.3000;0.4982;-3.3696;
774.6000;0.5006;-3.3621;
774.9000;0.5014;-3.3497;
775.2000;0.4990;-3.3472;
775.5000;0.4998;-3.3447;
775.8000;0.4982;-3.3497;
776.1000;0.4990;-3.3522;
776.4000;0.5063;-3.3373;
776.7000;0.5006;-3.3547;
777.0000;0.5104;-3.3373;
777.3000;0.4990;-3.3547;
777.6000;0.5047;-3.3398;
777.9000;0.5031;-3.3422;
778.2000;0.5014;-3.3497;
778.5000;0.4990;-3.3621;
778.8000;0.5006;-3.3621;
779.1000;0.5006;-3.3646;
779.4000;0.4998;-3.3721;
779.7000;0.5014;-3.3721;
780.0000;0.5006;-3.3771;
780.3000;0.5006;-3.3671;
780.6000;0.5006;-3.3547;
780.9000;0.4998;-3.3572;
781.2000;0.4990;-3.3597;
781.5000;0.4998;-3.3572;
781.8000;0.4982;-3.3696;
782.1000;0.4982;-3.3621;
782.4000;0.4990;-3.3597;
782.7000;0.4990;-3.3621;
783.0000;0.4998;-3.3646;
783.3000;0.4990;-3.3597;
783.6000;0.4982;-3.3671;
783.9000;0.5006;-3.3671;
784.2000;0.5022;-3.3671;
784.5000;0.5022;-3.3721;
784.8000;0.5006;-3.3796;
785.1000;0.5006;-3.3870;
785.4000;0.4990;-3.3945;
785.7000;0.4990;-3.3895;
786.0000;0.5014;-3.3820;
786.3000;0.4965;-3.3845;
786.6000;0.5014;-3.3646;
786.9000;0.4990;-3.3746;
787.2000;0.5014;-3.3671;
787.5000;0.4965;-3.3771;
787.8000;0.4990;-3.3721;
788.1000;0.4998;-3.3746;
788.4000;0.4957;-3.3820;
788.7000;0.4974;-3.3820;
789.0000;0.4974;-3.3820;
789.3000;0.4990;-3.3771;
789.6000;0.5014;-3.3771;
789.9000;0.4990;-3.3870;
790.2000;0.5022;-3.3895;
790.5000;0.4998;-3.3895;
790.8000;0.5014;-3.3920;
791.1000;0.4982;-3.3994;
791.4000;0.5014;-3.3920;
791.7000;0.4998;-3.3845;
792.0000;0.4990;-3.3895;
792.3000;0.5006;-3.3870;
792.6000;0.4982;-3.3870;
792.9000;0.4982;-3.3945;
793.2000;0.5096;-3.3696;
793.5000;0.5014;-3.3845;
793.8000;0.4998;-3.3920;
794.1000;0.5031;-3.3746;
794.4000;0.4990;-3.3920;
794.7000;0.5006;-3.3796;
795.0000;0.4998;-3.3771;
795.3000;0.4998;-3.3771;
795.6000;0.5006;-3.3870;
795.9000;0.4982;-3.3994;
796.2000;0.4998;-3.3945;
796.5000;0.4990;-3.3845;
796.8000;0.4998;-3.3895;
797.1000;0.4982;-3.3870;
797.4000;0.5071;-3.3671;
797.7000;0.4982;-3.3796;
798.0000;0.5022;-3.3746;
798.3000;0.4990;-3.3771;
798.6000;0.4990;-3.3870;
798.9000;0.4982;-3.3820;
799.2000;0.4990;-3.3845;
799.5000;0.5014;-3.3820;
799.8000;0.5022;-3.3820;
800.1000;0.5014;-3.3895;
800.4000;0.4998;-3.3945;
800.7000;0.4998;-3.3845;
801.0000;0.5006;-3.3845;
801.3000;0.4998;-3.3746;
801.6000;0.5006;-3.3671;
801.9000;0.4990;-3.3696;
802.2000;0.4990;-3.3746;
802.5000;0.5014;-3.3572;
802.8000;0.4982;-3.3771;
803.1000;0.4990;-3.3771;
803.4000;0.4974;-3.3796;
803.7000;0.5014;-3.3721;
804.0000;0.4990;-3.3771;
804.3000;0.5047;-3.3646;
804.6000;0.5014;-3.3696;
804.9000;0.5031;-3.3572;
805.2000;0.4965;-3.3746;
805.5000;0.5014;-3.3597;
805.8000;0.4974;-3.3696;
806.1000;0.4982;-3.3721;
806.4000;0.5039;-3.3497;
806.7000;0.5014;-3.3572;
807.0000;0.4982;-3.3597;
807.3000;0.4900;-3.3845;
807.6000;0.4982;-3.3671;
807.9000;0.5014;-3.3522;
808.2000;0.5014;-3.3597;
808.5000;0.4998;-3.3696;
808.8000;0.4990;-3.3597;
809.1000;0.4990;-3.3522;
809.4000;0.4990;-3.3597;
809.7000;0.4965;-3.3597;
810.0000;0.4998;-3.3472;
810.3000;0.5006;-3.3447;
810.6000;0.4917;-3.3696;
810.9000;0.4974;-3.3572;
811.2000;0.4990;-3.3497;
811.5000;0.4990;-3.3472;
811.8000;0.4965;-3.3572;
812.1000;0.4990;-3.3497;
812.4000;0.4990;-3.3572;
812.7000;0.4998;-3.3497;
813.0000;0.4990;-3.3572;
813.3000;0.4965;-3.3646;
813.6000;0.4990;-3.3621;
813.9000;0.4998;-3.3646;
814.2000;0.5006;-3.3621;
814.5000;0.4998;-3.3621;
814.8000;0.5006;-3.3621;
815.1000;0.4998;-3.3671;
815.4000;0.4949;-3.3820;
815.7000;0.4982;-3.3696;
816.0000;0.4990;-3.3721;
816.3000;0.5047;-3.3646;
816.6000;0.4990;-3.3845;
816.9000;0.4982;-3.3845;
817.2000;0.4965;-3.3845;
817.5000;0.4990;-3.3771;
817.8000;0.4990;-3.3796;
818.1000;0.4998;-3.3721;
818.4000;0.4998;-3.3671;
818.7000;0.4998;-3.3671;
819.0000;0.5006;-3.3671;
819.3000;0.4990;-3.3671;
819.6000;0.5014;-3.3621;
819.9000;0.4998;-3.3621;
820.2000;0.4990;-3.3696;
820.5000;0.4982;-3.3796;
820.8000;0.4990;-3.3820;
821.1000;0.4974;-3.3796;
821.4000;0.4974;-3.3746;
821.7000;0.4990;-3.3597;
822.0000;0.4982;-3.3646;
822.3000;0.5014;-3.3646;
822.6000;0.4982;-3.3696;
822.9000;0.4998;-3.3671;
823.2000;0.5006;-3.3646;
823.5000;0.5006;-3.3696;
823.8000;0.5022;-3.3696;
824.1000;0.4998;-3.3721;
824.4000;0.4982;-3.3721;
824.7000;0.5006;-3.3696;
825.0000;0.4990;-3.3721;
825.3000;0.4974;-3.3696;
825.6000;0.4990;-3.3771;
825.9000;0.4982;-3.3696;
826.2000;0.4998;-3.3621;
826.5000;0.4974;-3.3646;
826.8000;0.4965;-3.3696;
827.1000;0.4990;-3.3547;
827.4000;0.4974;-3.3547;
827.7000;0.5079;-3.3373;
828.0000;0.4990;-3.3597;
828.3000;0.4965;-3.3746;
828.6000;0.5039;-3.3597;
828.9000;0.4982;-3.3746;
829.2000;0.4965;-3.3771;
829.5000;0.4990;-3.3746;
829.8000;0.4990;-3.3646;
830.1000;0.5006;-3.3671;
830.4000;0.4998;-3.3696;
830.7000;0.5014;-3.3646;
831.0000;0.4990;-3.3696;
831.3000;0.4998;-3.3696;
831.6000;0.4965;-3.3746;
831.9000;0.4982;-3.3621;
832.2000;0.4998;-3.3746;
832.5000;0.4990;-3.3771;
832.8000;0.5006;-3.3746;
833.1000;0.4974;-3.3771;
833.4000;0.5071;-3.3547;
833.7000;0.4982;-3.3920;
834.0000;0.5096;-3.3621;
834.3000;0.4990;-3.3845;
834.6000;0.4957;-3.3796;
834.9000;0.4998;-3.3696;
835.2000;0.4982;-3.3671;
835.5000;0.4990;-3.3671;
835.8000;0.4990;-3.3820;
836.1000;0.4974;-3.3920;
836.4000;0.5022;-3.3771;
836.7000;0.4990;-3.3796;
837.0000;0.4982;-3.3771;
837.3000;0.4982;-3.3721;
837.6000;0.4990;-3.3796;
837.9000;0.4998;-3.3796;
838.2000;0.4974;-3.3820;
838.5000;0.4982;-3.3820;
838.8000;0.4982;-3.3746;
839.1000;0.4998;-3.3721;
839.4000;0.4982;-3.3721;
839.7000;0.4990;-3.3671;
840.0000;0.4974;-3.3696;
840.3000;0.4965;-3.3621;
840.6000;0.4990;-3.3522;
840.9000;0.4957;-3.3597;
841.2000;0.4982;-3.3572;
841.5000;0.4974;-3.3621;
841.8000;0.4998;-3.3522;
842.1000;0.4998;-3.3547;
842.4000;0.4917;-3.3820;
842.7000;0.4990;-3.3671;
843.0000;0.5014;-3.3646;
843.3000;0.5006;-3.3621;
843.6000;0.4998;-3.3646;
843.9000;0.5022;-3.3522;
844.2000;0.5006;-3.3522;
844.5000;0.5031;-3.3522;
844.8000;0.5006;-3.3572;
845.1000;0.4990;-3.3572;
845.4000;0.5006;-3.3522;
845.7000;0.5022;-3.3422;
846.0000;0.5014;-3.3472;
846.3000;0.4998;-3.3572;
846.6000;0.5014;-3.3572;
846.9000;0.4974;-3.3696;
847.2000;0.4982;-3.3771;
847.5000;0.5006;-3.3696;
847.8000;0.5079;-3.3497;
848.1000;0.4998;-3.3597;
848.4000;0.4990;-3.3621;
848.7000;0.4990;-3.3621;
849.0000;0.4998;-3.3671;
849.3000;0.5006;-3.3646;
849.6000;0.4990;-3.3671;
849.9000;0.4982;-3.3696;
850.2000;0.4990;-3.3820;
850.5000;0.4900;-3.3994;
850.8000;0.4998;-3.3820;
851.1000;0.4998;-3.3796;
851.4000;0.4990;-3.3845;
851.7000;0.4982;-3.3895;
852.0000;0.4974;-3.3895;
852.3000;0.4965;-3.3771;
852.6000;0.4982;-3.3646;
852.9000;0.4949;-3.3721;
853.2000;0.5006;-3.3621;
853.5000;0.4982;-3.3572;
853.8000;0.4974;-3.3597;
854.1000;0.4990;-3.3646;
854.4000;0.5014;-3.3547;
854.7000;0.4982;-3.3597;
855.0000;0.5006;-3.3597;
855.3000;0.4982;-3.3671;
855.6000;0.4982;-3.3621;
855.9000;0.4990;-3.3572;
856.2000;0.4998;-3.3547;
856.5000;0.4965;-3.3646;
856.8000;0.4965;-3.3696;
857.1000;0.4982;-3.3696;
857.4000;0.4957;-3.3820;
857.7000;0.4982;-3.3746;
858.0000;0.4974;-3.3621;
858.3000;0.4974;-3.3597;
858.6000;0.4990;-3.3522;
858.9000;0.4982;-3.3547;
859.2000;0.4974;-3.3646;
859.5000;0.5006;-3.3447;
859.8000;0.4998;-3.3472;
860.1000;0.4925;-3.3621;
860.4000;0.4974;-3.3547;
860.7000;0.5031;-3.3497;
861.0000;0.4990;-3.3572;
861.3000;0.4990;-3.3597;
861.6000;0.4965;-3.3572;
861.9000;0.4982;-3.3472;
862.2000;0.4990;-3.3547;
862.5000;0.5031;-3.3497;
862.8000;0.4998;-3.3572;
863.1000;0.4998;-3.3621;
863.4000;0.4982;-3.3671;
863.7000;0.4990;-3.3547;
864.0000;0.4990;-3.3522;
864.3000;0.4990;-3.3522;
864.6000;0.4990;-3.3597;
864.9000;0.4990;-3.3547;
865.2000;0.4990;-3.3522;
865.5000;0.4982;-3.3597;
865.8000;0.4982;-3.3597;
866.1000;0.4998;-3.3621;
866.4000;0.4957;-3.3696;
866.7000;0.5014;-3.3671;
867.0000;0.4998;-3.3771;
867.3000;0.4998;-3.3771;
867.6000;0.5071;-3.3547;
867.9000;0.4998;-3.3820;
868.2000;0.4974;-3.3820;
868.5000;0.4974;-3.3870;
868.8000;0.4974;-3.3796;
869.1000;0.4982;-3.3746;
869.4000;0.4990;-3.3646;
869.7000;0.4965;-3.3646;
870.0000;0.4998;-3.3646;
870.3000;0.4982;-3.3646;
870.6000;0.4998;-3.3497;
870.9000;0.4982;-3.3522;
871.2000;0.5014;-3.3447;
871.5000;0.4998;-3.3522;
871.8000;0.4990;-3.3472;
872.1000;0.5031;-3.3398;
872.4000;0.4974;-3.3497;
872.7000;0.4998;-3.3472;
873.0000;0.4998;-3.3547;
873.3000;0.4998;-3.3547;
873.6000;0.4990;-3.3522;
873.9000;0.5006;-3.3522;
874.2000;0.4974;-3.3621;
874.5000;0.5006;-3.3547;
874.8000;0.5031;-3.3497;
875.1000;0.4974;-3.3646;
875.4000;0.4974;-3.3671;
875.7000;0.4990;-3.3696;
876.0000;0.4990;-3.3572;
876.3000;0.4990;-3.3572;
876.6000;0.4990;-3.3522;
876.9000;0.5006;-3.3522;
877.2000;0.5006;-3.3522;
877.5000;0.4998;-3.3547;
877.8000;0.5006;-3.3522;
878.1000;0.4982;-3.3597;
878.4000;0.5022;-3.3497;
878.7000;0.4998;-3.3472;
879.0000;0.4957;-3.3572;
879.3000;0.4982;-3.3547;
879.6000;0.4998;-3.3472;
879.9000;0.4990;-3.3572;
880.2000;0.4982;-3.3572;
880.5000;0.4974;-3.3522;
880.8000;0.4982;-3.3422;
881.1000;0.5014;-3.3398;
881.4000;0.5006;-3.3422;
881.7000;0.4990;-3.3422;
882.0000;0.5047;-3.3373;
882.3000;0.5006;-3.3447;
882.6000;0.5006;-3.3422;
882.9000;0.5022;-3.3373;
883.2000;0.4990;-3.3348;
883.5000;0.5006;-3.3472;
883.8000;0.4982;-3.3597;
884.1000;0.4974;-3.3646;
884.4000;0.4998;-3.3597;
884.7000;0.4998;-3.3597;
885.0000;0.4998;-3.3646;
885.3000;0.5096;-3.3472;
885.6000;0.4965;-3.3746;
885.9000;0.4998;-3.3597;
886.2000;0.5047;-3.3497;
886.5000;0.4982;-3.3597;
886.8000;0.4974;-3.3572;
887.1000;0.5047;-3.3323;
887.4000;0.5022;-3.3323;
887.7000;0.4965;-3.3398;
888.0000;0.4998;-3.3348;
888.3000;0.5006;-3.3298;
888.6000;0.4998;-3.3224;
888.9000;0.5006;-3.3273;
889.2000;0.4998;-3.3398;
889.5000;0.4974;-3.3447;
889.8000;0.5014;-3.3373;
890.1000;0.4982;-3.3572;
890.4000;0.5022;-3.3472;
890.7000;0.4990;-3.3497;
891.0000;0.4990;-3.3572;
891.3000;0.4990;-3.3572;
891.6000;0.4990;-3.3597;
891.9000;0.4982;-3.3621;
892.2000;0.4990;-3.3597;
892.5000;0.4990;-3.3572;
892.8000;0.4998;-3.3522;
893.1000;0.4990;-3.3547;
893.4000;0.4998;-3.3497;
893.7000;0.4998;-3.3547;
894.0000;0.4998;-3.3572;
894.3000;0.4998;-3.3572;
894.6000;0.5014;-3.3572;
894.9000;0.4990;-3.3597;
895.2000;0.5006;-3.3572;
895.5000;0.4998;-3.3621;
895.8000;0.5014;-3.3696;
896.1000;0.5014;-3.3721;
896.4000;0.4990;-3.3796;
896.7000;0.4990;-3.3721;
897.0000;0.4974;-3.3771;
897.3000;0.4982;-3.3671;
897.6000;0.4982;-3.3671;
897.9000;0.4990;-3.3597;
898.2000;0.4974;-3.3696;
898.5000;0.4982;-3.3696;
898.8000;0.4965;-3.3796;
899.1000;0.4965;-3.3771;
899.4000;0.4990;-3.3746;
899.7000;0.4974;-3.3771;
900.0000;0.4982;-3.3721;
900.3000;0.5014;-3.3621;
900.6000;0.4990;-3.3771;
900.9000;0.4990;-3.3796;
901.2000;0.4998;-3.3746;
901.5000;0.4990;-3.3746;
901.8000;0.4990;-3.3671;
902.1000;0.4965;-3.3696;
902.4000;0.4982;-3.3646;
902.7000;0.4998;-3.3597;
903.0000;0.4998;-3.3671;
903.3000;0.4990;-3.3671;
903.6000;0.4941;-3.3820;
903.9000;0.4990;-3.3597;
904.2000;0.4990;-3.3646;
904.5000;0.4990;-3.3572;
904.8000;0.4974;-3.3547;
905.1000;0.4982;-3.3597;
905.4000;0.4974;-3.3621;
905.7000;0.4917;-3.3895;
906.0000;0.4982;-3.3721;
906.3000;0.4998;-3.3746;
906.6000;0.5079;-3.3597;
906.9000;0.4990;-3.3870;
907.2000;0.4965;-3.3895;
907.5000;0.5055;-3.3646;
907.8000;0.5006;-3.3721;
908.1000;0.4998;-3.3646;
908.4000;0.4998;-3.3646;
908.7000;0.5014;-3.3522;
909.0000;0.4957;-3.3646;
909.3000;0.5006;-3.3547;
909.6000;0.4982;-3.3597;
909.9000;0.5006;-3.3621;
910.2000;0.5022;-3.3597;
910.5000;0.4990;-3.3572;
910.8000;0.4998;-3.3497;
911.1000;0.4974;-3.3646;
911.4000;0.5006;-3.3522;
911.7000;0.4982;-3.3547;
912.0000;0.5014;-3.3497;
912.3000;0.5006;-3.3522;
912.6000;0.4998;-3.3621;
912.9000;0.4998;-3.3646;
913.2000;0.4957;-3.3696;
913.5000;0.5088;-3.3398;
913.8000;0.4998;-3.3671;
914.1000;0.5006;-3.3646;
914.4000;0.4998;-3.3621;
914.7000;0.5006;-3.3497;
915.0000;0.5006;-3.3447;
915.3000;0.4998;-3.3472;
915.6000;0.4998;-3.3398;
915.9000;0.4965;-3.3472;
916.2000;0.4998;-3.3497;
916.5000;0.5006;-3.3497;
916.8000;0.4974;-3.3572;
917.1000;0.4990;-3.3597;
917.4000;0.4982;-3.3597;
917.7000;0.4990;-3.3547;
918.0000;0.4990;-3.3497;
918.3000;0.4982;-3.3472;
918.6000;0.4974;-3.3447;
918.9000;0.5063;-3.3248;
919.2000;0.5006;-3.3422;
919.5000;0.4974;-3.3572;
919.8000;0.4998;-3.3597;
920.1000;0.4998;-3.3597;
920.4000;0.4998;-3.3497;
920.7000;0.4982;-3.3447;
921.0000;0.4982;-3.3497;
921.3000;0.4990;-3.3522;
921.6000;0.5063;-3.3323;
921.9000;0.4982;-3.3646;
922.2000;0.4957;-3.3721;
922.5000;0.4965;-3.3721;
922.8000;0.5006;-3.3572;
923.1000;0.5006;-3.3522;
923.4000;0.4990;-3.3497;
923.7000;0.4982;-3.3447;
924.0000;0.4990;-3.3547;
924.3000;0.5088;-3.3398;
924.6000;0.4974;-3.3746;
924.9000;0.4998;-3.3671;
925.2000;0.4982;-3.3696;
925.5000;0.4998;-3.3721;
925.8000;0.4982;-3.3671;
926.1000;0.4925;-3.3721;
926.4000;0.4965;-3.3646;
926.7000;0.4982;-3.3572;
927.0000;0.4990;-3.3522;
927.3000;0.5063;-3.3398;
927.6000;0.5006;-3.3572;
927.9000;0.4990;-3.3597;
928.2000;0.4990;-3.3572;
928.5000;0.4982;-3.3621;
928.8000;0.4982;-3.3597;
929.1000;0.4982;-3.3522;
929.4000;0.4982;-3.3572;
929.7000;0.4957;-3.3671;
930.0000;0.4990;-3.3497;
930.3000;0.5006;-3.3497;
930.6000;0.5014;-3.3472;
930.9000;0.4990;-3.3572;
931.2000;0.4990;-3.3671;
931.5000;0.4982;-3.3646;
931.8000;0.4998;-3.3646;
932.1000;0.4990;-3.3621;
932.4000;0.4998;-3.3547;
932.7000;0.4998;-3.3547;
933.0000;0.4965;-3.3597;
933.3000;0.4998;-3.3572;
933.6000;0.4982;-3.3572;
933.9000;0.4990;-3.3572;
934.2000;0.4998;-3.3572;
934.5000;0.4998;-3.3597;
934.8000;0.4998;-3.3621;
935.1000;0.4998;-3.3572;
935.4000;0.5022;-3.3572;
935.7000;0.5031;-3.3646;
936.0000;0.4990;-3.3671;
936.3000;0.5006;-3.3621;
936.6000;0.4998;-3.3671;
936.9000;0.5022;-3.3671;
937.2000;0.5022;-3.3671;
937.5000;0.4998;-3.3696;
937.8000;0.4998;-3.3671;
938.1000;0.4998;-3.3721;
938.4000;0.4990;-3.3721;
938.7000;0.4998;-3.3646;
939.0000;0.5014;-3.3671;
939.3000;0.4974;-3.3746;
939.6000;0.4982;-3.3696;
939.9000;0.5014;-3.3721;
940.2000;0.4998;-3.3671;
940.5000;0.4990;-3.3646;
940.8000;0.4974;-3.3696;
941.1000;0.5006;-3.3597;
941.4000;0.4982;-3.3621;
941.7000;0.5006;-3.3597;
942.0000;0.4990;-3.3671;
942.3000;0.5006;-3.3621;
942.6000;0.5047;-3.3398;
942.9000;0.5112;-3.3248;
943.2000;0.5039;-3.3422;
943.5000;0.5031;-3.3497;
943.8000;0.5006;-3.3547;
944.1000;0.4990;-3.3547;
944.4000;0.5031;-3.3447;
944.7000;0.4998;-3.3547;
945.0000;0.5039;-3.3447;
945.3000;0.4982;-3.3671;
945.6000;0.4974;-3.3671;
945.9000;0.4998;-3.3671;
946.2000;0.4982;-3.3746;
946.5000;0.5006;-3.3671;
946.8000;0.4990;-3.3696;
947.1000;0.4990;-3.3746;
947.4000;0.4990;-3.3820;
947.7000;0.4998;-3.3771;
948.0000;0.5022;-3.3746;
948.3000;0.5014;-3.3746;
948.6000;0.4998;-3.3646;
948.9000;0.5014;-3.3572;
949.2000;0.5014;-3.3472;
949.5000;0.4982;-3.3597;
949.8000;0.4998;-3.3547;
950.1000;0.4957;-3.3621;
950.4000;0.4949;-3.3721;
950.7000;0.4998;-3.3696;
951.0000;0.4974;-3.3746;
951.3000;0.4925;-3.3920;
951.6000;0.4990;-3.3696;
951.9000;0.4982;-3.3721;
952.2000;0.4998;-3.3671;
952.5000;0.4998;-3.3646;
952.8000;0.4990;-3.3621;
953.1000;0.5006;-3.3597;
953.4000;0.5006;-3.3646;
953.7000;0.5039;-3.3572;
954.0000;0.5006;-3.3696;
954.3000;0.5006;-3.3671;
954.6000;0.4990;-3.3746;
954.9000;0.4990;-3.3845;
955.2000;0.5006;-3.3771;
955.5000;0.4982;-3.3895;
955.8000;0.4990;-3.3845;
956.1000;0.4998;-3.3870;
956.4000;0.4998;-3.3845;
956.7000;0.4990;-3.3895;
957.0000;0.4998;-3.3920;
957.3000;0.4990;-3.3920;
957.6000;0.4965;-3.3970;
957.9000;0.5022;-3.3796;
958.2000;0.4998;-3.3820;
958.5000;0.5006;-3.3746;
958.8000;0.4957;-3.3845;
959.1000;0.5014;-3.3646;
959.4000;0.4998;-3.3721;
959.7000;0.5014;-3.3621;
960.0000;0.4990;-3.3572;
960.3000;0.4982;-3.3671;
960.6000;0.4990;-3.3671;
960.9000;0.5022;-3.3597;
961.2000;0.5014;-3.3572;
961.5000;0.5006;-3.3547;
961.8000;0.4990;-3.3671;
962.1000;0.5022;-3.3671;
962.4000;0.5014;-3.3671;
962.7000;0.4990;-3.3746;
963.0000;0.4998;-3.3721;
963.3000;0.5006;-3.3671;
963.6000;0.5014;-3.3671;
963.9000;0.4990;-3.3671;
964.2000;0.4949;-3.3820;
964.5000;0.4990;-3.3646;
964.8000;0.5022;-3.3621;
965.1000;0.5006;-3.3547;
965.4000;0.5006;-3.3522;
965.7000;0.4957;-3.3696;
966.0000;0.5047;-3.3547;
966.3000;0.4982;-3.3721;
966.6000;0.5104;-3.3472;
966.9000;0.5014;-3.3771;
967.2000;0.4990;-3.3820;
967.5000;0.4998;-3.3646;
967.8000;0.4982;-3.3671;
968.1000;0.4965;-3.3696;
968.4000;0.4965;-3.3721;
968.7000;0.4998;-3.3721;
969.0000;0.4974;-3.3845;
969.3000;0.4998;-3.3746;
969.6000;0.4990;-3.3696;
969.9000;0.5014;-3.3721;
970.2000;0.4998;-3.3820;
970.5000;0.4998;-3.3771;
970.8000;0.5104;-3.3497;
971.1000;0.4998;-3.3696;
971.4000;0.4990;-3.3721;
971.7000;0.4998;-3.3572;
972.0000;0.4941;-3.3646;
972.3000;0.5006;-3.3572;
972.6000;0.4998;-3.3597;
972.9000;0.5014;-3.3572;
973.2000;0.5006;-3.3547;
973.5000;0.4990;-3.3522;
973.8000;0.5031;-3.3447;
974.1000;0.4990;-3.3447;
974.4000;0.5031;-3.3472;
974.7000;0.4965;-3.3646;
975.0000;0.4949;-3.3721;
975.3000;0.5006;-3.3621;
975.6000;0.5006;-3.3597;
975.9000;0.5104;-3.3447;
976.2000;0.5006;-3.3746;
976.5000;0.4982;-3.3771;
976.8000;0.4998;-3.3671;
977.1000;0.4990;-3.3696;
977.4000;0.5006;-3.3621;
977.7000;0.5014;-3.3597;
978.0000;0.4933;-3.3746;
978.3000;0.4998;-3.3522;
978.6000;0.5006;-3.3572;
978.9000;0.4990;-3.3671;
979.2000;0.5014;-3.3597;
979.5000;0.5014;-3.3547;
979.8000;0.4990;-3.3597;
980.1000;0.4990;-3.3597;
980.4000;0.4990;-3.3597;
980.7000;0.5006;-3.3547;
981.0000;0.5014;-3.3497;
981.3000;0.5006;-3.3646;
981.6000;0.4998;-3.3671;
981.9000;0.5031;-3.3646;
982.2000;0.4998;-3.3721;
982.5000;0.5014;-3.3820;
982.8000;0.4998;-3.3820;
983.1000;0.4982;-3.3845;
983.4000;0.4990;-3.3796;
983.7000;0.4998;-3.3820;
984.0000;0.5039;-3.3820;
984.3000;0.5006;-3.3895;
984.6000;0.4965;-3.4019;
984.9000;0.4990;-3.3945;
985.2000;0.4974;-3.3895;
985.5000;0.4990;-3.3870;
985.8000;0.5006;-3.3671;
986.1000;0.4990;-3.3746;
986.4000;0.4998;-3.3771;
986.7000;0.5006;-3.3796;
987.0000;0.4982;-3.3746;
987.3000;0.4982;-3.3646;
987.6000;0.4982;-3.3671;
987.9000;0.5014;-3.3597;
988.2000;0.4998;-3.3621;
988.5000;0.4998;-3.3696;
988.8000;0.4998;-3.3646;
989.1000;0.5006;-3.3547;
989.4000;0.4998;-3.3547;
989.7000;0.5031;-3.3422;
990.0000;0.5006;-3.3472;
990.3000;0.4990;-3.3572;
990.6000;0.4998;-3.3597;
990.9000;0.5006;-3.3646;
991.2000;0.4998;-3.3646;
991.5000;0.4982;-3.3721;
991.8000;0.5006;-3.3696;
992.1000;0.4998;-3.3746;
992.4000;0.4998;-3.3721;
992.7000;0.4998;-3.3721;
993.0000;0.5014;-3.3696;
993.3000;0.5014;-3.3746;
993.6000;0.5031;-3.3621;
993.9000;0.5014;-3.3671;
994.2000;0.5055;-3.3597;
994.5000;0.5006;-3.3721;
994.8000;0.5014;-3.3597;
995.1000;0.5014;-3.3547;
995.4000;0.4982;-3.3547;
995.7000;0.4990;-3.3472;
996.0000;0.5006;-3.3447;
996.3000;0.5055;-3.3447;
996.6000;0.4974;-3.3646;
996.9000;0.5022;-3.3597;
997.2000;0.5014;-3.3671;
997.5000;0.5006;-3.3671;
997.8000;0.5014;-3.3597;
998.1000;0.5022;-3.3572;
998.4000;0.5014;-3.3572;
998.7000;0.4998;-3.3597;
999.0000;0.5014;-3.3522;
999.3000;0.5014;-3.3547;
999.6000;0.4998;-3.3646;
999.9000;0.4982;-3.3597;
1000.2000;0.4998;-3.3621;
1000.5000;0.4982;-3.3696;
1000.8000;0.5006;-3.3721;
1001.1000;0.5006;-3.3746;
1001.4000;0.4990;-3.3820;
1001.7000;0.5006;-3.3696;
1002.0000;0.5014;-3.3671;
1002.3000;0.5006;-3.3646;
1002.6000;0.4998;-3.3646;
1002.9000;0.4933;-3.3746;
1003.2000;0.4998;-3.3696;
1003.5000;0.4998;-3.3597;
1003.8000;0.5031;-3.3572;
1004.1000;0.5022;-3.3621;
1004.4000;0.4990;-3.3671;
1004.7000;0.5006;-3.3597;
1005.0000;0.4998;-3.3597;
1005.3000;0.4998;-3.3646;
1005.6000;0.5014;-3.3572;
1005.9000;0.5079;-3.3497;
1006.2000;0.4990;-3.3721;
1006.5000;0.5031;-3.3547;
1006.8000;0.4998;-3.3646;
1007.1000;0.4957;-3.3796;
1007.4000;0.5006;-3.3621;
1007.7000;0.5006;-3.3646;
1008.0000;0.5031;-3.3696;
1008.3000;0.4990;-3.3820;
1008.6000;0.5006;-3.3796;
1008.9000;0.5006;-3.3721;
1009.2000;0.5006;-3.3746;
1009.5000;0.5071;-3.3621;
1009.8000;0.4998;-3.3696;
1010.1000;0.4974;-3.3771;
1010.4000;0.4990;-3.3721;
1010.7000;0.4982;-3.3746;
1011.0000;0.4933;-3.3845;
1011.3000;0.4982;-3.3796;
1011.6000;0.5006;-3.3572;
1011.9000;0.5014;-3.3497;
1012.2000;0.5031;-3.3422;
1012.5000;0.4900;-3.3771;
1012.8000;0.4990;-3.3522;
1013.1000;0.4998;-3.3348;
1013.4000;0.5006;-3.3422;
1013.7000;0.4990;-3.3497;
1014.0000;0.5006;-3.3422;
1014.3000;0.4998;-3.3522;
1014.6000;0.5014;-3.3522;
1014.9000;0.5079;-3.3497;
1015.2000;0.5006;-3.3721;
1015.5000;0.5006;-3.3796;
1015.8000;0.5006;-3.3845;
1016.1000;0.5014;-3.3870;
1016.4000;0.4998;-3.3771;
1016.7000;0.4998;-3.3621;
1017.0000;0.5031;-3.3497;
1017.3000;0.5022;-3.3597;
1017.6000;0.5006;-3.3696;
1017.9000;0.5014;-3.3671;
1018.2000;0.5047;-3.3522;
1018.5000;0.5014;-3.3597;
1018.8000;0.4941;-3.3696;
1019.1000;0.4998;-3.3572;
1019.4000;0.5006;-3.3447;
1019.7000;0.5006;-3.3422;
1020.0000;0.4990;-3.3422;
1020.3000;0.5047;-3.3273;
1020.6000;0.5006;-3.3398;
1020.9000;0.4908;-3.3646;
1021.2000;0.4990;-3.3497;
1021.5000;0.4949;-3.3621;
1021.8000;0.4998;-3.3621;
1022.1000;0.4998;-3.3646;
1022.4000;0.5006;-3.3621;
1022.7000;0.4998;-3.3646;
1023.0000;0.4998;-3.3671;
1023.3000;0.5014;-3.3696;
1023.6000;0.5014;-3.3696;
1023.9000;0.4998;-3.3746;
1024.2000;0.5006;-3.3696;
1024.5000;0.5006;-3.3696;
1024.8000;0.5006;-3.3621;
1025.1000;0.4998;-3.3696;
1025.4000;0.5006;-3.3671;
1025.7000;0.4982;-3.3796;
1026.0000;0.4982;-3.3746;
1026.3000;0.4998;-3.3671;
1026.6000;0.4998;-3.3721;
1026.9000;0.4990;-3.3746;
1027.2000;0.4982;-3.3746;
1027.5000;0.4998;-3.3746;
1027.8000;0.4982;-3.3721;
1028.1000;0.4998;-3.3646;
1028.4000;0.4990;-3.3696;
1028.7000;0.5006;-3.3547;
1029.0000;0.4998;-3.3522;
1029.3000;0.5006;-3.3472;
1029.6000;0.5006;-3.3572;
1029.9000;0.4998;-3.3522;
1030.2000;0.4998;-3.3522;
1030.5000;0.4949;-3.3696;
1030.8000;0.4998;-3.3572;
1031.1000;0.4998;-3.3572;
1031.4000;0.5006;-3.3621;
1031.7000;0.5014;-3.3671;
1032.0000;0.5006;-3.3746;
1032.3000;0.4982;-3.3870;
1032.6000;0.5014;-3.3796;
1032.9000;0.5047;-3.3572;
1033.2000;0.4998;-3.3671;
1033.5000;0.5006;-3.3721;
1033.8000;0.4998;-3.3721;
1034.1000;0.5006;-3.3696;
1034.4000;0.4998;-3.3696;
1034.7000;0.4998;-3.3696;
1035.0000;0.4998;-3.3646;
1035.3000;0.5006;-3.3597;
1035.6000;0.4990;-3.3621;
1035.9000;0.4998;-3.3646;
1036.2000;0.5022;-3.3621;
1036.5000;0.5039;-3.3572;
1036.8000;0.5014;-3.3646;
1037.1000;0.4990;-3.3671;
1037.4000;0.4998;-3.3597;
1037.7000;0.4933;-3.3820;
1038.0000;0.4925;-3.3845;
1038.3000;0.4998;-3.3621;
1038.6000;0.4982;-3.3621;
1038.9000;0.4990;-3.3646;
1039.2000;0.4998;-3.3621;
1039.5000;0.4876;-3.3970;
1039.8000;0.4998;-3.3671;
1040.1000;0.5014;-3.3621;
1040.4000;0.5022;-3.3621;
1040.7000;0.5014;-3.3696;
1041.0000;0.4982;-3.3845;
1041.3000;0.5006;-3.3721;
1041.6000;0.5014;-3.3671;
1041.9000;0.4957;-3.3845;
1042.2000;0.5031;-3.3646;
1042.5000;0.5006;-3.3671;
1042.8000;0.4990;-3.3696;
1043.1000;0.4998;-3.3746;
1043.4000;0.4998;-3.3746;
1043.7000;0.4990;-3.3746;
1044.0000;0.4998;-3.3746;
1044.3000;0.5014;-3.3671;
1044.6000;0.4998;-3.3621;
1044.9000;0.5006;-3.3621;
1045.2000;0.4998;-3.3696;
1045.5000;0.5022;-3.3621;
1045.8000;0.4990;-3.3746;
1046.1000;0.4998;-3.3771;
1046.4000;0.4974;-3.3796;
1046.7000;0.4998;-3.3671;
1047.0000;0.5006;-3.3646;
1047.3000;0.4998;-3.3696;
1047.6000;0.5014;-3.3746;
1047.9000;0.5006;-3.3746;
1048.2000;0.4990;-3.3870;
1048.5000;0.5039;-3.3771;
1048.8000;0.4982;-3.3920;
1049.1000;0.4998;-3.3845;
1049.4000;0.4982;-3.3845;
1049.7000;0.4990;-3.3870;
1050.0000;0.4998;-3.3870;
1050.3000;0.5006;-3.3895;
1050.6000;0.4990;-3.3920;
1050.9000;0.5006;-3.3945;
1051.2000;0.4990;-3.3970;
1051.5000;0.4998;-3.3945;
1051.8000;0.5014;-3.3870;
1052.1000;0.5014;-3.3895;
1052.4000;0.5022;-3.3721;
1052.7000;0.5006;-3.3820;
1053.0000;0.4957;-3.3970;
1053.3000;0.5031;-3.3820;
1053.6000;0.5031;-3.3845;
1053.9000;0.5006;-3.3845;
1054.2000;0.5031;-3.3945;
1054.5000;0.5022;-3.3920;
1054.8000;0.5014;-3.3945;
1055.1000;0.5039;-3.3945;
1055.4000;0.5006;-3.3970;
1055.7000;0.5006;-3.4044;
1056.0000;0.4998;-3.3994;
1056.3000;0.5014;-3.3771;
1056.6000;0.4957;-3.3870;
1056.9000;0.4998;-3.3845;
1057.2000;0.5006;-3.3820;
1057.5000;0.5006;-3.3820;
1057.8000;0.5014;-3.3845;
1058.1000;0.4990;-3.3945;
1058.4000;0.5022;-3.3920;
1058.7000;0.5022;-3.3820;
1059.0000;0.5014;-3.3820;
1059.3000;0.5022;-3.3796;
1059.6000;0.5022;-3.3870;
1059.9000;0.5014;-3.3970;
1060.2000;0.5006;-3.3970;
1060.5000;0.5031;-3.3920;
1060.8000;0.5006;-3.3970;
1061.1000;0.4982;-3.4019;
1061.4000;0.5014;-3.3945;
1061.7000;0.5022;-3.3895;
1062.0000;0.5022;-3.3796;
1062.3000;0.5014;-3.3870;
1062.6000;0.4998;-3.3945;
1062.9000;0.5006;-3.3895;
1063.2000;0.5022;-3.3820;
1063.5000;0.5006;-3.3796;
1063.8000;0.4998;-3.3796;
1064.1000;0.5014;-3.3721;
1064.4000;0.5006;-3.3696;
1064.7000;0.5039;-3.3597;
1065.0000;0.5031;-3.3597;
1065.3000;0.5014;-3.3572;
1065.6000;0.5031;-3.3572;
1065.9000;0.5006;-3.3572;
1066.2000;0.5055;-3.3472;
1066.5000;0.5014;-3.3597;
1066.8000;0.5014;-3.3597;
1067.1000;0.5014;-3.3497;
1067.4000;0.5039;-3.3497;
1067.7000;0.4990;-3.3621;
1068.0000;0.4990;-3.3671;
1068.3000;0.4998;-3.3696;
1068.6000;0.5031;-3.3621;
1068.9000;0.4998;-3.3547;
1069.2000;0.4990;-3.3572;
1069.5000;0.5047;-3.3447;
1069.8000;0.5006;-3.3621;
1070.1000;0.4998;-3.3646;
1070.4000;0.5006;-3.3597;
1070.7000;0.4998;-3.3621;
1071.0000;0.5022;-3.3621;
1071.3000;0.4990;-3.3845;
1071.6000;0.4998;-3.3820;
1071.9000;0.5022;-3.3771;
1072.2000;0.5014;-3.3746;
1072.5000;0.5006;-3.3696;
1072.8000;0.4998;-3.3646;
1073.1000;0.5022;-3.3522;
1073.4000;0.5006;-3.3572;
1073.7000;0.4990;-3.3671;
1074.0000;0.5006;-3.3671;
1074.3000;0.5022;-3.3646;
1074.6000;0.5022;-3.3721;
1074.9000;0.5014;-3.3721;
1075.2000;0.5006;-3.3671;
1075.5000;0.4990;-3.3796;
1075.8000;0.5014;-3.3746;
1076.1000;0.5006;-3.3845;
1076.4000;0.5039;-3.3771;
1076.7000;0.5006;-3.3796;
1077.0000;0.5006;-3.3671;
1077.3000;0.5022;-3.3646;
1077.6000;0.5088;-3.3373;
1077.9000;0.4998;-3.3597;
1078.2000;0.5014;-3.3447;
1078.5000;0.5039;-3.3422;
1078.8000;0.4949;-3.3646;
1079.1000;0.4998;-3.3522;
1079.4000;0.5006;-3.3472;
1079.7000;0.5014;-3.3547;
1080.0000;0.5022;-3.3547;
1080.3000;0.4998;-3.3547;
1080.6000;0.5071;-3.3323;
1080.9000;0.5022;-3.3497;
1081.2000;0.5031;-3.3497;
1081.5000;0.5006;-3.3597;
1081.8000;0.5104;-3.3373;
1082.1000;0.4998;-3.3646;
1082.4000;0.5014;-3.3621;
1082.7000;0.5022;-3.3572;
1083.0000;0.5006;-3.3696;
1083.3000;0.4990;-3.3746;
1083.6000;0.5022;-3.3746;
1083.9000;0.5014;-3.3746;
1084.2000;0.5022;-3.3671;
1084.5000;0.5006;-3.3721;
1084.8000;0.5014;-3.3621;
1085.1000;0.5022;-3.3646;
1085.4000;0.5014;-3.3597;
1085.7000;0.4925;-3.3721;
1086.0000;0.5022;-3.3497;
1086.3000;0.5014;-3.3547;
1086.6000;0.5014;-3.3597;
1086.9000;0.5071;-3.3373;
1087.2000;0.5031;-3.3522;
1087.5000;0.5014;-3.3597;
1087.8000;0.5022;-3.3497;
1088.1000;0.4998;-3.3597;
1088.4000;0.5031;-3.3522;
1088.7000;0.5022;-3.3522;
1089.0000;0.5014;-3.3422;
1089.3000;0.5063;-3.3348;
1089.6000;0.5014;-3.3422;
1089.9000;0.5006;-3.3497;
1090.2000;0.4982;-3.3621;
1090.5000;0.5006;-3.3522;
1090.8000;0.5022;-3.3522;
1091.1000;0.4998;-3.3572;
1091.4000;0.5006;-3.3497;
1091.7000;0.5014;-3.3422;
1092.0000;0.5063;-3.3298;
1092.3000;0.4990;-3.3522;
1092.6000;0.4990;-3.3522;
1092.9000;0.5022;-3.3497;
1093.2000;0.5014;-3.3547;
1093.5000;0.5014;-3.3646;
1093.8000;0.5006;-3.3671;
1094.1000;0.5047;-3.3597;
1094.4000;0.5014;-3.3646;
1094.7000;0.5014;-3.3621;
1095.0000;0.4998;-3.3721;
1095.3000;0.4990;-3.3796;
1095.6000;0.5022;-3.3721;
1095.9000;0.4998;-3.3796;
1096.2000;0.5022;-3.3721;
1096.5000;0.5014;-3.3721;
1096.8000;0.4998;-3.3746;
1097.1000;0.4998;-3.3621;
1097.4000;0.4998;-3.3671;
1097.7000;0.5006;-3.3646;
1098.0000;0.4990;-3.3646;
1098.3000;0.5014;-3.3671;
1098.6000;0.5031;-3.3671;
1098.9000;0.5006;-3.3746;
1099.2000;0.5022;-3.3721;
1099.5000;0.4982;-3.3845;
1099.8000;0.5047;-3.3796;
1100.1000;0.5006;-3.3895;
1100.4000;0.5022;-3.3796;
1100.7000;0.5006;-3.3771;
1101.0000;0.5039;-3.3696;
1101.3000;0.5022;-3.3771;
1101.6000;0.5022;-3.3671;
1101.9000;0.5006;-3.3646;
1102.2000;0.5006;-3.3597;
1102.5000;0.5022;-3.3522;
1102.8000;0.4949;-3.3671;
1103.1000;0.4908;-3.3771;
1103.4000;0.5014;-3.3572;
1103.7000;0.5006;-3.3597;
1104.0000;0.4998;-3.3646;
1104.3000;0.4990;-3.3671;
1104.6000;0.5079;-3.3373;
1104.9000;0.5022;-3.3572;
1105.2000;0.5031;-3.3646;
1105.5000;0.5022;-3.3721;
1105.8000;0.5055;-3.3597;
1106.1000;0.5039;-3.3721;
1106.4000;0.5031;-3.3796;
1106.7000;0.5014;-3.3820;
1107.0000;0.5031;-3.3796;
1107.3000;0.5022;-3.3845;
1107.6000;0.5022;-3.3845;
1107.9000;0.4974;-3.3945;
1108.2000;0.5014;-3.3820;
1108.5000;0.5031;-3.3696;
1108.8000;0.5031;-3.3572;
1109.1000;0.5006;-3.3621;
1109.4000;0.4998;-3.3621;
1109.7000;0.5014;-3.3671;
1110.0000;0.5006;-3.3696;
1110.3000;0.5014;-3.3746;
1110.6000;0.5014;-3.3671;
1110.9000;0.5006;-3.3721;
1111.2000;0.5055;-3.3572;
1111.5000;0.5022;-3.3621;
1111.8000;0.5006;-3.3646;
1112.1000;0.5022;-3.3597;
1112.4000;0.5088;-3.3422;
1112.7000;0.5022;-3.3671;
1113.0000;0.4998;-3.3646;
1113.3000;0.4998;-3.3597;
1113.6000;0.5022;-3.3522;
1113.9000;0.4917;-3.3870;
1114.2000;0.5006;-3.3597;
1114.5000;0.5014;-3.3497;
1114.8000;0.5014;-3.3547;
1115.1000;0.5063;-3.3422;
1115.4000;0.4965;-3.3597;
1115.7000;0.5014;-3.3497;
1116.0000;0.5031;-3.3522;
1116.3000;0.5022;-3.3597;
1116.6000;0.5014;-3.3671;
1116.9000;0.5014;-3.3646;
1117.2000;0.4990;-3.3696;
1117.5000;0.4933;-3.3945;
1117.8000;0.5031;-3.3721;
1118.1000;0.5031;-3.3646;
1118.4000;0.5014;-3.3597;
1118.7000;0.5014;-3.3547;
1119.0000;0.5071;-3.3522;
1119.3000;0.5022;-3.3646;
1119.6000;0.5022;-3.3721;
1119.9000;0.4941;-3.3945;
1120.2000;0.5014;-3.3746;
1120.5000;0.4998;-3.3845;
1120.8000;0.5022;-3.3820;
1121.1000;0.5014;-3.3845;
1121.4000;0.5014;-3.3796;
1121.7000;0.5022;-3.3721;
1122.0000;0.5014;-3.3796;
1122.3000;0.5031;-3.3671;
1122.6000;0.5006;-3.3671;
1122.9000;0.5031;-3.3621;
1123.2000;0.5022;-3.3621;
1123.5000;0.4982;-3.3746;
1123.8000;0.5014;-3.3696;
1124.1000;0.5014;-3.3746;
1124.4000;0.5022;-3.3721;
1124.7000;0.5014;-3.3721;
1125.0000;0.4998;-3.3671;
1125.3000;0.5022;-3.3646;
1125.6000;0.5014;-3.3547;
1125.9000;0.4884;-3.3771;
1126.2000;0.4998;-3.3572;
1126.5000;0.5088;-3.3323;
1126.8000;0.5079;-3.3323;
1127.1000;0.4982;-3.3572;
1127.4000;0.5022;-3.3547;
1127.7000;0.5006;-3.3522;
1128.0000;0.5014;-3.3522;
1128.3000;0.5022;-3.3572;
1128.6000;0.4982;-3.3671;
1128.9000;0.5047;-3.3472;
1129.2000;0.5006;-3.3522;
1129.5000;0.5014;-3.3497;
1129.8000;0.5014;-3.3547;
1130.1000;0.4998;-3.3621;
1130.4000;0.5006;-3.3621;
1130.7000;0.4990;-3.3572;
1131.0000;0.5006;-3.3497;
1131.3000;0.5014;-3.3522;
1131.6000;0.5014;-3.3472;
1131.9000;0.5022;-3.3497;
1132.2000;0.5006;-3.3621;
1132.5000;0.5006;-3.3646;
1132.8000;0.5039;-3.3671;
1133.1000;0.5022;-3.3721;
1133.4000;0.5014;-3.3870;
1133.7000;0.5031;-3.3820;
1134.0000;0.5014;-3.3870;
1134.3000;0.4998;-3.3870;
1134.6000;0.5104;-3.3671;
1134.9000;0.5022;-3.3920;
1135.2000;0.5022;-3.3920;
1135.5000;0.4998;-3.3920;
1135.8000;0.4998;-3.3895;
1136.1000;0.5022;-3.3746;
1136.4000;0.5006;-3.3746;
1136.7000;0.4998;-3.3771;
1137.0000;0.5022;-3.3646;
1137.3000;0.5022;-3.3597;
1137.6000;0.5014;-3.3597;
1137.9000;0.5014;-3.3621;
1138.2000;0.5022;-3.3671;
1138.5000;0.5006;-3.3771;
1138.8000;0.5022;-3.3696;
1139.1000;0.5006;-3.3696;
1139.4000;0.4990;-3.3597;
1139.7000;0.5006;-3.3597;
1140.0000;0.5063;-3.3447;
1140.3000;0.5031;-3.3522;
1140.6000;0.4998;-3.3522;
1140.9000;0.4998;-3.3522;
1141.2000;0.4998;-3.3497;
1141.5000;0.5022;-3.3422;
1141.8000;0.5014;-3.3472;
1142.1000;0.5006;-3.3547;
1142.4000;0.4998;-3.3547;
1142.7000;0.5014;-3.3398;
1143.0000;0.5014;-3.3422;
1143.3000;0.4998;-3.3472;
1143.6000;0.4990;-3.3597;
1143.9000;0.5039;-3.3547;
1144.2000;0.5031;-3.3597;
1144.5000;0.5022;-3.3671;
1144.8000;0.5022;-3.3696;
1145.1000;0.5022;-3.3721;
1145.4000;0.5022;-3.3696;
1145.7000;0.5039;-3.3696;
1146.0000;0.5022;-3.3721;
1146.3000;0.5063;-3.3621;
1146.6000;0.5022;-3.3845;
1146.9000;0.5047;-3.3746;
1147.2000;0.5014;-3.3721;
1147.5000;0.5079;-3.3497;
1147.8000;0.4965;-3.3771;
1148.1000;0.5014;-3.3746;
1148.4000;0.5055;-3.3721;
1148.7000;0.5031;-3.3870;
1149.0000;0.5031;-3.3820;
1149.3000;0.5014;-3.3746;
1149.6000;0.5031;-3.3721;
1149.9000;0.5022;-3.3696;
1150.2000;0.5022;-3.3771;
1150.5000;0.5031;-3.3721;
1150.8000;0.5031;-3.3696;
1151.1000;0.5022;-3.3646;
1151.4000;0.5006;-3.3721;
1151.7000;0.5014;-3.3771;
1152.0000;0.5014;-3.3721;
1152.3000;0.5006;-3.3696;
1152.6000;0.5022;-3.3696;
1152.9000;0.5031;-3.3721;
1153.2000;0.5022;-3.3721;
1153.5000;0.5022;-3.3746;
1153.8000;0.5047;-3.3696;
1154.1000;0.5039;-3.3721;
1154.4000;0.5014;-3.3771;
1154.7000;0.5088;-3.3547;
1155.0000;0.4982;-3.3820;
1155.3000;0.4998;-3.3721;
1155.6000;0.4974;-3.3771;
1155.9000;0.4982;-3.3621;
1156.2000;0.4998;-3.3646;
1156.5000;0.5014;-3.3621;
1156.8000;0.4925;-3.3895;
1157.1000;0.5031;-3.3597;
1157.4000;0.5006;-3.3646;
1157.7000;0.4982;-3.3746;
1158.0000;0.5014;-3.3621;
1158.3000;0.5031;-3.3547;
1158.6000;0.5096;-3.3398;
1158.9000;0.5031;-3.3522;
1159.2000;0.5031;-3.3572;
1159.5000;0.5022;-3.3522;
1159.8000;0.5039;-3.3547;
1160.1000;0.4998;-3.3646;
1160.4000;0.5014;-3.3597;
1160.7000;0.5031;-3.3671;
1161.0000;0.5039;-3.3671;
1161.3000;0.5031;-3.3721;
1161.6000;0.5014;-3.3721;
1161.9000;0.5014;-3.3696;
1162.2000;0.4998;-3.3746;
1162.5000;0.5022;-3.3721;
1162.8000;0.5014;-3.3671;
1163.1000;0.5014;-3.3696;
1163.4000;0.5014;-3.3646;
1163.7000;0.5055;-3.3696;
1164.0000;0.5031;-3.3696;
1164.3000;0.5022;-3.3746;
1164.6000;0.5031;-3.3721;
1164.9000;0.5031;-3.3721;
1165.2000;0.5031;-3.3696;
1165.5000;0.5006;-3.3771;
1165.8000;0.5006;-3.3771;
1166.1000;0.5022;-3.3721;
1166.4000;0.5079;-3.3572;
1166.7000;0.5031;-3.3796;
1167.0000;0.5014;-3.3771;
1167.3000;0.5006;-3.3696;
1167.6000;0.5031;-3.3671;
1167.9000;0.5031;-3.3696;
1168.2000;0.5022;-3.3696;
1168.5000;0.5022;-3.3796;
1168.8000;0.5031;-3.3796;
1169.1000;0.5031;-3.3796;
1169.4000;0.5063;-3.3671;
1169.7000;0.5022;-3.3796;
1170.0000;0.5022;-3.3796;
1170.3000;0.5031;-3.3845;
1170.6000;0.5079;-3.3746;
1170.9000;0.5031;-3.3820;
1171.2000;0.5031;-3.3771;
1171.5000;0.5022;-3.3771;
1171.8000;0.5047;-3.3796;
1172.1000;0.5031;-3.3820;
1172.4000;0.5031;-3.3771;
1172.7000;0.5022;-3.3721;
1173.0000;0.5022;-3.3820;
1173.3000;0.4949;-3.3920;
1173.6000;0.5071;-3.3597;
1173.9000;0.5031;-3.3696;
1174.2000;0.5014;-3.3746;
1174.5000;0.5031;-3.3646;
1174.8000;0.5031;-3.3646;
1175.1000;0.5022;-3.3646;
1175.4000;0.5039;-3.3597;
1175.7000;0.5039;-3.3572;
1176.0000;0.5071;-3.3522;
1176.3000;0.5006;-3.3646;
1176.6000;0.5022;-3.3547;
1176.9000;0.5022;-3.3597;
1177.2000;0.5014;-3.3696;
1177.5000;0.5031;-3.3696;
1177.8000;0.5022;-3.3646;
1178.1000;0.5063;-3.3547;
1178.4000;0.5006;-3.3621;
1178.7000;0.5063;-3.3422;
1179.0000;0.5006;-3.3497;
1179.3000;0.5006;-3.3572;
1179.6000;0.5031;-3.3572;
1179.9000;0.5022;-3.3572;
1180.2000;0.5022;-3.3597;
1180.5000;0.5022;-3.3597;
1180.8000;0.5055;-3.3646;
1181.1000;0.5079;-3.3572;
1181.4000;0.5022;-3.3696;
1181.7000;0.5031;-3.3621;
1182.0000;0.5014;-3.3671;
1182.3000;0.5006;-3.3746;
1182.6000;0.5006;-3.3721;
1182.9000;0.5031;-3.3597;
1183.2000;0.5014;-3.3721;
1183.5000;0.5055;-3.3646;
1183.8000;0.5014;-3.3746;
1184.1000;0.5014;-3.3746;
1184.4000;0.5031;-3.3746;
1184.7000;0.5022;-3.3671;
1185.0000;0.5031;-3.3646;
1185.3000;0.5039;-3.3646;
1185.6000;0.5031;-3.3597;
1185.9000;0.5039;-3.3572;
1186.2000;0.5022;-3.3671;
1186.5000;0.5022;-3.3696;
1186.8000;0.5039;-3.3671;
1187.1000;0.5039;-3.3696;
1187.4000;0.5031;-3.3721;
1187.7000;0.5006;-3.3771;
1188.0000;0.5031;-3.3796;
1188.3000;0.5039;-3.3746;
1188.6000;0.5079;-3.3671;
1188.9000;0.5031;-3.3671;
1189.2000;0.5022;-3.3746;
1189.5000;0.5022;-3.3621;
1189.8000;0.5079;-3.3547;
1190.1000;0.5039;-3.3671;
1190.4000;0.5006;-3.3721;
1190.7000;0.5022;-3.3696;
1191.0000;0.5031;-3.3572;
1191.3000;0.5031;-3.3621;
1191.6000;0.5031;-3.3671;
1191.9000;0.5031;-3.3572;
1192.2000;0.5014;-3.3597;
1192.5000;0.4982;-3.3547;
1192.8000;0.5039;-3.3472;
1193.1000;0.5055;-3.3373;
1193.4000;0.5063;-3.3398;
1193.7000;0.5022;-3.3447;
1194.0000;0.5047;-3.3447;
1194.3000;0.5047;-3.3497;
1194.6000;0.5022;-3.3522;
1194.9000;0.5031;-3.3472;
1195.2000;0.5039;-3.3522;
1195.5000;0.5039;-3.3572;
1195.8000;0.4974;-3.3746;
1196.1000;0.5022;-3.3646;
1196.4000;0.5088;-3.3522;
1196.7000;0.5039;-3.3621;
1197.0000;0.5022;-3.3646;
1197.3000;0.4941;-3.3845;
1197.6000;0.5022;-3.3597;
1197.9000;0.5071;-3.3547;
1198.2000;0.5022;-3.3621;
1198.5000;0.5022;-3.3597;
1198.8000;0.5031;-3.3472;
1199.1000;0.5031;-3.3597;
1199.4000;0.5039;-3.3497;
1199.7000;0.5031;-3.3522;
1200.0000;0.5014;-3.3572;
1200.3000;0.5063;-3.3422;
1200.6000;0.4998;-3.3597;
1200.9000;0.5031;-3.3497;
1201.2000;0.5022;-3.3497;
1201.5000;0.5031;-3.3597;
1201.8000;0.5022;-3.3671;
1202.1000;0.5022;-3.3597;
1202.4000;0.5022;-3.3621;
1202.7000;0.5014;-3.3572;
1203.0000;0.5022;-3.3572;
1203.3000;0.5022;-3.3572;
1203.6000;0.5022;-3.3547;
1203.9000;0.5039;-3.3572;
1204.2000;0.5022;-3.3522;
1204.5000;0.5031;-3.3497;
1204.8000;0.5022;-3.3547;
1205.1000;0.5014;-3.3497;
1205.4000;0.5031;-3.3472;
1205.7000;0.5039;-3.3472;
1206.0000;0.5014;-3.3547;
1206.3000;0.5014;-3.3547;
1206.6000;0.5031;-3.3522;
1206.9000;0.5031;-3.3646;
1207.2000;0.5039;-3.3597;
1207.5000;0.5039;-3.3522;
1207.8000;0.5022;-3.3597;
1208.1000;0.5031;-3.3646;
1208.4000;0.4982;-3.3721;
1208.7000;0.5022;-3.3621;
1209.0000;0.5006;-3.3572;
1209.3000;0.4990;-3.3621;
1209.6000;0.5006;-3.3522;
1209.9000;0.5031;-3.3447;
1210.2000;0.4982;-3.3646;
1210.5000;0.5039;-3.3522;
1210.8000;0.5022;-3.3671;
1211.1000;0.5006;-3.3820;
1211.4000;0.5006;-3.3820;
1211.7000;0.5047;-3.3721;
1212.0000;0.5039;-3.3746;
1212.3000;0.5039;-3.3646;
1212.6000;0.4998;-3.3771;
1212.9000;0.5031;-3.3671;
1213.2000;0.5022;-3.3671;
1213.5000;0.5014;-3.3696;
1213.8000;0.5047;-3.3621;
1214.1000;0.5022;-3.3621;
1214.4000;0.5014;-3.3696;
1214.7000;0.5014;-3.3721;
1215.0000;0.5022;-3.3696;
1215.3000;0.5031;-3.3696;
1215.6000;0.5031;-3.3646;
1215.9000;0.5022;-3.3621;
1216.2000;0.5039;-3.3572;
1216.5000;0.5031;-3.3646;
1216.8000;0.5088;-3.3522;
1217.1000;0.5022;-3.3671;
1217.4000;0.5022;-3.3671;
1217.7000;0.5031;-3.3746;
1218.0000;0.5031;-3.3696;
1218.3000;0.5006;-3.3746;
1218.6000;0.5055;-3.3646;
1218.9000;0.5022;-3.3671;
1219.2000;0.5014;-3.3671;
1219.5000;0.5022;-3.3721;
1219.8000;0.5071;-3.3572;
1220.1000;0.5031;-3.3646;
1220.4000;0.5031;-3.3696;
1220.7000;0.5031;-3.3696;
1221.0000;0.4998;-3.3845;
1221.3000;0.5047;-3.3771;
1221.6000;0.5055;-3.3746;
1221.9000;0.5055;-3.3746;
1222.2000;0.5022;-3.3696;
1222.5000;0.5031;-3.3597;
1222.8000;0.5055;-3.3422;
1223.1000;0.5031;-3.3547;
1223.4000;0.5031;-3.3671;
1223.7000;0.5039;-3.3547;
1224.0000;0.5031;-3.3522;
1224.3000;0.5047;-3.3547;
1224.6000;0.5022;-3.3597;
1224.9000;0.5047;-3.3547;
1225.2000;0.5055;-3.3497;
1225.5000;0.5022;-3.3572;
1225.8000;0.5022;-3.3522;
1226.1000;0.5014;-3.3497;
1226.4000;0.5031;-3.3472;
1226.7000;0.5022;-3.3398;
1227.0000;0.5039;-3.3422;
1227.3000;0.5014;-3.3472;
1227.6000;0.5088;-3.3298;
1227.9000;0.5039;-3.3323;
1228.2000;0.4965;-3.3547;
1228.5000;0.5088;-3.3199;
1228.8000;0.5047;-3.3224;
1229.1000;0.5031;-3.3248;
1229.4000;0.5031;-3.3248;
1229.7000;0.5014;-3.3273;
1230.0000;0.5031;-3.3199;
1230.3000;0.5031;-3.3273;
1230.6000;0.5039;-3.3323;
1230.9000;0.4949;-3.3646;
1231.2000;0.5022;-3.3522;
1231.5000;0.5014;-3.3572;
1231.8000;0.5047;-3.3547;
1232.1000;0.5022;-3.3572;
1232.4000;0.5039;-3.3572;
1232.7000;0.5014;-3.3746;
1233.0000;0.5022;-3.3746;
1233.3000;0.5022;-3.3771;
1233.6000;0.5014;-3.3721;
1233.9000;0.5022;-3.3671;
1234.2000;0.5014;-3.3721;
1234.5000;0.5022;-3.3721;
1234.8000;0.5047;-3.3771;
1235.1000;0.5022;-3.3820;
1235.4000;0.5014;-3.3796;
1235.7000;0.5014;-3.3771;
1236.0000;0.5031;-3.3646;
1236.3000;0.5022;-3.3671;
1236.6000;0.5039;-3.3646;
1236.9000;0.5006;-3.3746;
1237.2000;0.5031;-3.3671;
1237.5000;0.5022;-3.3646;
1237.8000;0.5022;-3.3522;
1238.1000;0.5022;-3.3472;
1238.4000;0.5039;-3.3472;
1238.7000;0.5047;-3.3572;
1239.0000;0.5039;-3.3572;
1239.3000;0.5039;-3.3621;
1239.6000;0.5039;-3.3572;
1239.9000;0.5096;-3.3398;
1240.2000;0.5039;-3.3497;
1240.5000;0.5022;-3.3646;
1240.8000;0.5031;-3.3597;
1241.1000;0.5039;-3.3597;
1241.4000;0.5031;-3.3646;
1241.7000;0.5022;-3.3671;
1242.0000;0.5022;-3.3746;
1242.3000;0.5047;-3.3746;
1242.6000;0.5039;-3.3696;
1242.9000;0.5039;-3.3671;
1243.2000;0.5031;-3.3671;
1243.5000;0.5039;-3.3671;
1243.8000;0.5096;-3.3597;
1244.1000;0.5014;-3.3820;
1244.4000;0.5022;-3.3746;
1244.7000;0.5039;-3.3721;
1245.0000;0.5031;-3.3845;
1245.3000;0.5039;-3.3820;
1245.6000;0.5022;-3.3845;
1245.9000;0.5079;-3.3671;
1246.2000;0.5039;-3.3696;
1246.5000;0.5031;-3.3671;
1246.8000;0.5039;-3.3721;
1247.1000;0.5063;-3.3572;
1247.4000;0.5055;-3.3696;
1247.7000;0.5031;-3.3796;
1248.0000;0.5031;-3.3820;
1248.3000;0.4982;-3.3945;
1248.6000;0.5022;-3.3870;
1248.9000;0.5039;-3.3845;
1249.2000;0.5039;-3.3845;
1249.5000;0.5031;-3.3820;
1249.8000;0.5047;-3.3771;
1250.1000;0.5031;-3.3771;
1250.4000;0.5031;-3.3771;
1250.7000;0.4982;-3.3895;
1251.0000;0.5063;-3.3621;
1251.3000;0.5055;-3.3646;
1251.6000;0.5071;-3.3646;
1251.9000;0.5039;-3.3771;
1252.2000;0.5079;-3.3746;
1252.5000;0.5055;-3.3771;
1252.8000;0.5047;-3.3746;
1253.1000;0.5039;-3.3721;
1253.4000;0.5031;-3.3696;
1253.7000;0.5031;-3.3621;
1254.0000;0.4990;-3.3671;
1254.3000;0.5022;-3.3597;
1254.6000;0.5022;-3.3572;
1254.9000;0.5014;-3.3547;
1255.2000;0.5071;-3.3472;
1255.5000;0.5047;-3.3497;
1255.8000;0.5039;-3.3547;
1256.1000;0.5031;-3.3646;
1256.4000;0.5055;-3.3646;
1256.7000;0.5104;-3.3422;
1257.0000;0.5022;-3.3646;
1257.3000;0.5096;-3.3422;
1257.6000;0.5039;-3.3646;
1257.9000;0.5031;-3.3646;
1258.2000;0.5047;-3.3572;
1258.5000;0.4957;-3.3796;
1258.8000;0.5022;-3.3671;
1259.1000;0.5047;-3.3696;
1259.4000;0.5014;-3.3671;
1259.7000;0.5014;-3.3671;
1260.0000;0.5022;-3.3671;
1260.3000;0.5022;-3.3746;
1260.6000;0.5022;-3.3671;
1260.9000;0.5039;-3.3646;
1261.2000;0.4998;-3.3597;
1261.5000;0.5071;-3.3547;
1261.8000;0.5022;-3.3646;
1262.1000;0.5022;-3.3572;
1262.4000;0.5014;-3.3646;
1262.7000;0.5031;-3.3572;
1263.0000;0.5047;-3.3547;
1263.3000;0.5022;-3.3597;
1263.6000;0.5022;-3.3597;
1263.9000;0.5031;-3.3597;
1264.2000;0.5039;-3.3522;
1264.5000;0.5047;-3.3497;
1264.8000;0.5022;-3.3447;
1265.1000;0.5071;-3.3373;
1265.4000;0.4974;-3.3572;
1265.7000;0.5022;-3.3472;
1266.0000;0.5022;-3.3497;
1266.3000;0.5022;-3.3472;
1266.6000;0.5022;-3.3422;
1266.9000;0.5031;-3.3398;
1267.2000;0.5031;-3.3472;
1267.5000;0.5031;-3.3522;
1267.8000;0.4965;-3.3746;
1268.1000;0.5022;-3.3597;
1268.4000;0.5014;-3.3547;
1268.7000;0.5039;-3.3547;
1269.0000;0.5047;-3.3597;
1269.3000;0.5031;-3.3671;
1269.6000;0.5063;-3.3547;
1269.9000;0.5031;-3.3572;
1270.2000;0.5031;-3.3597;
1270.5000;0.5039;-3.3572;
1270.8000;0.4990;-3.3621;
1271.1000;0.5031;-3.3522;
1271.4000;0.5022;-3.3646;
1271.7000;0.5039;-3.3572;
1272.0000;0.5039;-3.3621;
1272.3000;0.5031;-3.3572;
1272.6000;0.5022;-3.3671;
1272.9000;0.5039;-3.3621;
1273.2000;0.5022;-3.3547;
1273.5000;0.5063;-3.3472;
1273.8000;0.5031;-3.3522;
1274.1000;0.5047;-3.3447;
1274.4000;0.5039;-3.3398;
1274.7000;0.5055;-3.3273;
1275.0000;0.5063;-3.3373;
1275.3000;0.5047;-3.3348;
1275.6000;0.5039;-3.3398;
1275.9000;0.5047;-3.3373;
1276.2000;0.5039;-3.3398;
1276.5000;0.5063;-3.3323;
1276.8000;0.5047;-3.3447;
1277.1000;0.5047;-3.3472;
1277.4000;0.5047;-3.3572;
1277.7000;0.5031;-3.3646;
1278.0000;0.5006;-3.3696;
1278.3000;0.5022;-3.3621;
1278.6000;0.5039;-3.3522;
1278.9000;0.5055;-3.3447;
1279.2000;0.5047;-3.3522;
1279.5000;0.5031;-3.3621;
1279.8000;0.5047;-3.3621;
1280.1000;0.5047;-3.3646;
1280.4000;0.5014;-3.3597;
1280.7000;0.5039;-3.3472;
1281.0000;0.5047;-3.3447;
1281.3000;0.4990;-3.3646;
1281.6000;0.5039;-3.3547;
1281.9000;0.5031;-3.3572;
1282.2000;0.5014;-3.3646;
1282.5000;0.5071;-3.3547;
1282.8000;0.5047;-3.3646;
1283.1000;0.5006;-3.3671;
1283.4000;0.5031;-3.3621;
1283.7000;0.5031;-3.3746;
1284.0000;0.5031;-3.3820;
1284.3000;0.5039;-3.3820;
1284.6000;0.5039;-3.3820;
1284.9000;0.5047;-3.3845;
1285.2000;0.5031;-3.3771;
1285.5000;0.5047;-3.3597;
1285.8000;0.5031;-3.3646;
1286.1000;0.5014;-3.3621;
1286.4000;0.5031;-3.3522;
1286.7000;0.5047;-3.3398;
1287.0000;0.5047;-3.3398;
1287.3000;0.5014;-3.3373;
1287.6000;0.5047;-3.3273;
1287.9000;0.5006;-3.3348;
1288.2000;0.5047;-3.3273;
1288.5000;0.5031;-3.3398;
1288.8000;0.5022;-3.3422;
1289.1000;0.5022;-3.3398;
1289.4000;0.4982;-3.3621;
1289.7000;0.5039;-3.3447;
1290.0000;0.5022;-3.3547;
1290.3000;0.5039;-3.3472;
1290.6000;0.5071;-3.3522;
1290.9000;0.5047;-3.3547;
1291.2000;0.5014;-3.3522;
1291.5000;0.4941;-3.3646;
1291.8000;0.5055;-3.3447;
1292.1000;0.5047;-3.3373;
1292.4000;0.5047;-3.3323;
1292.7000;0.5047;-3.3398;
1293.0000;0.5039;-3.3497;
1293.3000;0.5047;-3.3597;
1293.6000;0.5031;-3.3572;
1293.9000;0.5039;-3.3547;
1294.2000;0.5063;-3.3522;
1294.5000;0.5063;-3.3447;
1294.8000;0.5022;-3.3447;
1295.1000;0.5047;-3.3373;
1295.4000;0.5031;-3.3373;
1295.7000;0.5047;-3.3298;
1296.0000;0.5022;-3.3323;
1296.3000;0.5031;-3.3323;
1296.6000;0.5039;-3.3348;
1296.9000;0.5055;-3.3348;
1297.2000;0.5031;-3.3422;
1297.5000;0.5047;-3.3422;
1297.8000;0.5047;-3.3373;
1298.1000;0.5031;-3.3572;
1298.4000;0.5047;-3.3522;
1298.7000;0.5031;-3.3547;
1299.0000;0.5096;-3.3472;
1299.3000;0.5031;-3.3597;
1299.6000;0.5039;-3.3522;
1299.9000;0.5039;-3.3422;
1300.2000;0.5088;-3.3273;
1300.5000;0.5022;-3.3348;
1300.8000;0.5031;-3.3373;
1301.1000;0.5006;-3.3373;
1301.4000;0.5031;-3.3398;
1301.7000;0.5014;-3.3472;
1302.0000;0.4957;-3.3696;
1302.3000;0.5055;-3.3497;
1302.6000;0.5047;-3.3572;
1302.9000;0.5039;-3.3522;
1303.2000;0.5031;-3.3547;
1303.5000;0.5039;-3.3472;
1303.8000;0.5031;-3.3522;
1304.1000;0.5055;-3.3497;
1304.4000;0.5047;-3.3597;
1304.7000;0.5031;-3.3646;
1305.0000;0.5063;-3.3597;
1305.3000;0.5120;-3.3398;
1305.6000;0.5039;-3.3547;
1305.9000;0.5039;-3.3547;
1306.2000;0.5039;-3.3522;
1306.5000;0.5022;-3.3572;
1306.8000;0.5079;-3.3472;
1307.1000;0.5031;-3.3572;
1307.4000;0.5022;-3.3572;
1307.7000;0.5047;-3.3497;
1308.0000;0.5031;-3.3472;
1308.3000;0.5031;-3.3447;
1308.6000;0.4957;-3.3646;
1308.9000;0.5031;-3.3472;
1309.2000;0.5055;-3.3422;
1309.5000;0.5022;-3.3547;
1309.8000;0.5039;-3.3472;
1310.1000;0.5055;-3.3472;
1310.4000;0.5039;-3.3447;
1310.7000;0.5055;-3.3398;
1311.0000;0.4998;-3.3472;
1311.3000;0.5047;-3.3373;
1311.6000;0.5031;-3.3497;
1311.9000;0.5022;-3.3522;
1312.2000;0.4998;-3.3621;
1312.5000;0.5039;-3.3547;
1312.8000;0.5014;-3.3621;
1313.1000;0.5014;-3.3597;
1313.4000;0.5031;-3.3547;
1313.7000;0.5055;-3.3572;
1314.0000;0.5022;-3.3547;
1314.3000;0.5014;-3.3572;
1314.6000;0.5047;-3.3472;
1314.9000;0.5031;-3.3422;
1315.2000;0.5039;-3.3398;
1315.5000;0.5104;-3.3224;
1315.8000;0.5055;-3.3248;
1316.1000;0.5039;-3.3298;
1316.4000;0.5055;-3.3273;
1316.7000;0.5031;-3.3298;
1317.0000;0.5031;-3.3248;
1317.3000;0.5055;-3.3224;
1317.6000;0.5031;-3.3273;
1317.9000;0.5055;-3.3273;
1318.2000;0.5039;-3.3323;
1318.5000;0.5039;-3.3422;
1318.8000;0.5039;-3.3447;
1319.1000;0.5055;-3.3398;
1319.4000;0.5039;-3.3472;
1319.7000;0.5047;-3.3497;
1320.0000;0.5047;-3.3497;
1320.3000;0.5014;-3.3597;
1320.6000;0.5039;-3.3621;
1320.9000;0.5071;-3.3547;
1321.2000;0.5039;-3.3572;
1321.5000;0.5031;-3.3597;
1321.8000;0.5063;-3.3547;
1322.1000;0.5055;-3.3522;
1322.4000;0.5022;-3.3597;
1322.7000;0.5039;-3.3646;
1323.0000;0.5039;-3.3597;
1323.3000;0.5031;-3.3646;
1323.6000;0.5063;-3.3696;
1323.9000;0.4998;-3.3895;
1324.2000;0.5039;-3.3845;
1324.5000;0.5039;-3.3746;
1324.8000;0.5031;-3.3845;
1325.1000;0.5039;-3.3796;
1325.4000;0.5014;-3.3820;
1325.7000;0.5047;-3.3696;
1326.0000;0.5031;-3.3671;
1326.3000;0.5055;-3.3597;
1326.6000;0.5039;-3.3597;
1326.9000;0.5039;-3.3621;
1327.2000;0.5063;-3.3597;
1327.5000;0.5006;-3.3671;
1327.8000;0.5055;-3.3572;
1328.1000;0.5031;-3.3696;
1328.4000;0.5079;-3.3621;
1328.7000;0.5063;-3.3696;
1329.0000;0.5079;-3.3746;
1329.3000;0.5104;-3.3597;
1329.6000;0.5039;-3.3696;
1329.9000;0.5031;-3.3746;
1330.2000;0.5022;-3.3721;
1330.5000;0.5031;-3.3771;
1330.8000;0.5014;-3.3771;
1331.1000;0.5047;-3.3721;
1331.4000;0.5047;-3.3820;
1331.7000;0.5039;-3.3895;
1332.0000;0.5047;-3.3845;
1332.3000;0.5031;-3.3870;
1332.6000;0.5039;-3.3721;
1332.9000;0.5031;-3.3721;
1333.2000;0.5063;-3.3721;
1333.5000;0.5063;-3.3696;
1333.8000;0.5014;-3.3771;
1334.1000;0.5079;-3.3597;
1334.4000;0.5055;-3.3696;
1334.7000;0.5047;-3.3671;
1335.0000;0.5039;-3.3696;
1335.3000;0.5047;-3.3671;
1335.6000;0.5031;-3.3771;
1335.9000;0.5031;-3.3796;
1336.2000;0.5047;-3.3696;
1336.5000;0.5031;-3.3796;
1336.8000;0.5031;-3.3746;
1337.1000;0.5022;-3.3746;
1337.4000;0.5047;-3.3646;
1337.7000;0.5055;-3.3522;
1338.0000;0.5039;-3.3621;
1338.3000;0.5039;-3.3696;
1338.6000;0.5047;-3.3696;
1338.9000;0.5031;-3.3696;
1339.2000;0.5039;-3.3646;
1339.5000;0.5047;-3.3597;
1339.8000;0.5039;-3.3572;
1340.1000;0.5039;-3.3522;
1340.4000;0.5055;-3.3547;
1340.7000;0.5031;-3.3646;
1341.0000;0.5039;-3.3572;
1341.3000;0.5055;-3.3522;
1341.6000;0.5039;-3.3572;
1341.9000;0.5055;-3.3497;
1342.2000;0.5063;-3.3572;
1342.5000;0.5031;-3.3597;
1342.8000;0.5022;-3.3721;
1343.1000;0.5055;-3.3646;
1343.4000;0.5071;-3.3671;
1343.7000;0.5047;-3.3621;
1344.0000;0.5047;-3.3547;
1344.3000;0.5071;-3.3497;
1344.6000;0.5063;-3.3572;
1344.9000;0.5055;-3.3572;
1345.2000;0.5055;-3.3597;
1345.5000;0.5047;-3.3547;
1345.8000;0.5088;-3.3472;
1346.1000;0.5039;-3.3597;
1346.4000;0.5031;-3.3721;
1346.7000;0.5047;-3.3671;
1347.0000;0.5039;-3.3671;
1347.3000;0.5047;-3.3671;
1347.6000;0.5047;-3.3746;
1347.9000;0.5031;-3.3721;
1348.2000;0.4998;-3.3721;
1348.5000;0.5047;-3.3621;
1348.8000;0.5047;-3.3721;
1349.1000;0.5071;-3.3597;
1349.4000;0.5031;-3.3671;
1349.7000;0.5055;-3.3572;
1350.0000;0.5039;-3.3497;
1350.3000;0.5039;-3.3597;
1350.6000;0.5055;-3.3671;
1350.9000;0.5047;-3.3746;
1351.2000;0.5022;-3.3771;
1351.5000;0.5055;-3.3597;
1351.8000;0.5055;-3.3597;
1352.1000;0.5071;-3.3472;
1352.4000;0.5014;-3.3671;
1352.7000;0.5055;-3.3721;
1353.0000;0.5047;-3.3771;
1353.3000;0.5014;-3.3870;
1353.6000;0.5055;-3.3820;
1353.9000;0.5047;-3.3746;
1354.2000;0.5071;-3.3696;
1354.5000;0.5047;-3.3646;
1354.8000;0.5063;-3.3621;
1355.1000;0.5047;-3.3621;
1355.4000;0.5055;-3.3597;
1355.7000;0.5055;-3.3572;
1356.0000;0.5063;-3.3522;
1356.3000;0.5055;-3.3597;
1356.6000;0.5071;-3.3671;
1356.9000;0.5039;-3.3646;
1357.2000;0.5047;-3.3597;
1357.5000;0.5055;-3.3597;
1357.8000;0.5039;-3.3621;
1358.1000;0.5063;-3.3547;
1358.4000;0.5031;-3.3696;
1358.7000;0.5055;-3.3696;
1359.0000;0.5039;-3.3671;
1359.3000;0.5031;-3.3597;
1359.6000;0.4990;-3.3746;
1359.9000;0.5055;-3.3522;
1360.2000;0.5022;-3.3547;
1360.5000;0.5047;-3.3472;
1360.8000;0.5047;-3.3422;
1361.1000;0.5047;-3.3422;
1361.4000;0.5039;-3.3422;
1361.7000;0.5063;-3.3398;
1362.0000;0.5031;-3.3497;
1362.3000;0.5047;-3.3298;
1362.6000;0.5071;-3.3298;
1362.9000;0.5063;-3.3323;
1363.2000;0.5039;-3.3373;
1363.5000;0.5031;-3.3398;
1363.8000;0.5039;-3.3522;
1364.1000;0.5063;-3.3447;
1364.4000;0.4982;-3.3572;
1364.7000;0.5047;-3.3348;
1365.0000;0.5136;-3.3199;
1365.3000;0.5055;-3.3348;
1365.6000;0.5063;-3.3398;
1365.9000;0.5039;-3.3522;
1366.2000;0.5047;-3.3422;
1366.5000;0.5055;-3.3547;
1366.8000;0.5047;-3.3547;
1367.1000;0.5039;-3.3572;
1367.4000;0.5047;-3.3597;
1367.7000;0.5063;-3.3671;
1368.0000;0.5047;-3.3621;
1368.3000;0.5039;-3.3597;
1368.6000;0.5047;-3.3472;
1368.9000;0.5047;-3.3447;
1369.2000;0.5031;-3.3497;
1369.5000;0.5047;-3.3497;
1369.8000;0.5047;-3.3522;
1370.1000;0.5047;-3.3547;
1370.4000;0.5079;-3.3422;
1370.7000;0.5055;-3.3572;
1371.0000;0.5055;-3.3572;
1371.3000;0.5039;-3.3646;
1371.6000;0.5047;-3.3746;
1371.9000;0.5022;-3.3796;
1372.2000;0.5063;-3.3721;
1372.5000;0.5047;-3.3820;
1372.8000;0.5039;-3.3796;
1373.1000;0.5071;-3.3721;
1373.4000;0.5055;-3.3696;
1373.7000;0.5128;-3.3497;
1374.0000;0.5055;-3.3696;
1374.3000;0.5055;-3.3746;
1374.6000;0.5031;-3.3696;
1374.9000;0.5055;-3.3621;
1375.2000;0.5039;-3.3721;
1375.5000;0.5022;-3.3671;
1375.8000;0.5047;-3.3547;
1376.1000;0.5063;-3.3522;
1376.4000;0.5055;-3.3621;
1376.7000;0.5071;-3.3472;
1377.0000;0.5063;-3.3472;
1377.3000;0.5055;-3.3422;
1377.6000;0.5055;-3.3497;
1377.9000;0.5047;-3.3497;
1378.2000;0.5112;-3.3273;
1378.5000;0.5047;-3.3398;
1378.8000;0.5047;-3.3497;
1379.1000;0.5055;-3.3398;
1379.4000;0.5128;-3.3224;
1379.7000;0.5079;-3.3298;
1380.0000;0.5039;-3.3472;
1380.3000;0.5047;-3.3497;
1380.6000;0.5055;-3.3522;
1380.9000;0.5071;-3.3373;
1381.2000;0.5055;-3.3398;
1381.5000;0.5039;-3.3373;
1381.8000;0.5031;-3.3422;
1382.1000;0.5039;-3.3497;
1382.4000;0.5031;-3.3472;
1382.7000;0.5039;-3.3398;
1383.0000;0.5039;-3.3497;
1383.3000;0.5039;-3.3621;
1383.6000;0.5047;-3.3671;
1383.9000;0.5039;-3.3671;
1384.2000;0.5031;-3.3746;
1384.5000;0.5055;-3.3646;
1384.8000;0.5055;-3.3671;
1385.1000;0.5055;-3.3621;
1385.4000;0.5055;-3.3621;
1385.7000;0.5047;-3.3572;
1386.0000;0.5055;-3.3547;
1386.3000;0.5047;-3.3547;
1386.6000;0.5039;-3.3621;
1386.9000;0.5063;-3.3597;
1387.2000;0.5063;-3.3547;
1387.5000;0.5063;-3.3547;
1387.8000;0.5031;-3.3547;
1388.1000;0.5055;-3.3472;
1388.4000;0.5055;-3.3472;
1388.7000;0.4974;-3.3696;
1389.0000;0.5047;-3.3472;
1389.3000;0.5055;-3.3497;
1389.6000;0.5079;-3.3447;
1389.9000;0.5047;-3.3497;
1390.2000;0.5039;-3.3497;
1390.5000;0.5047;-3.3472;
1390.8000;0.5039;-3.3422;
1391.1000;0.5055;-3.3497;
1391.4000;0.5071;-3.3497;
1391.7000;0.5055;-3.3472;
1392.0000;0.5039;-3.3547;
1392.3000;0.5055;-3.3522;
1392.6000;0.5055;-3.3497;
1392.9000;0.5039;-3.3547;
1393.2000;0.5055;-3.3646;
1393.5000;0.5055;-3.3646;
1393.8000;0.4974;-3.3721;
1394.1000;0.5047;-3.3522;
1394.4000;0.5063;-3.3422;
1394.7000;0.5047;-3.3472;
1395.0000;0.5063;-3.3398;
1395.3000;0.5071;-3.3398;
1395.6000;0.5063;-3.3522;
1395.9000;0.5071;-3.3497;
1396.2000;0.5047;-3.3597;
1396.5000;0.5079;-3.3472;
1396.8000;0.5079;-3.3522;
1397.1000;0.5055;-3.3572;
1397.4000;0.5055;-3.3621;
1397.7000;0.5055;-3.3572;
1398.0000;0.5071;-3.3547;
1398.3000;0.5055;-3.3621;
1398.6000;0.5128;-3.3472;
1398.9000;0.5047;-3.3621;
1399.2000;0.5063;-3.3572;
1399.5000;0.5055;-3.3572;
1399.8000;0.5047;-3.3597;
