time/ms;Fluo/V;P700 deltaI/I x10³;
-199.8000;0.4510;0.9656;
-199.5000;0.4542;0.9656;
-199.2000;0.4526;0.9610;
-198.9000;0.4510;0.9610;
-198.6000;0.4518;0.9726;
-198.3000;0.4542;0.9820;
-198.0000;0.4485;0.9703;
-197.7000;0.4518;0.9796;
-197.4000;0.4526;0.9843;
-197.1000;0.4550;0.9866;
-196.8000;0.4518;0.9796;
-196.5000;0.4510;0.9866;
-196.2000;0.4518;0.9913;
-195.9000;0.4501;1.0006;
-195.6000;0.4485;0.9960;
-195.3000;0.4526;1.0030;
-195.0000;0.4469;0.9890;
-194.7000;0.4485;0.9820;
-194.4000;0.4501;0.9843;
-194.1000;0.4542;0.9960;
-193.8000;0.4510;0.9890;
-193.5000;0.4567;0.9983;
-193.2000;0.4575;1.0006;
-192.9000;0.4534;0.9913;
-192.6000;0.4550;0.9913;
-192.3000;0.4510;0.9796;
-192.0000;0.4534;0.9820;
-191.7000;0.4453;0.9586;
-191.4000;0.4542;0.9656;
-191.1000;0.4518;0.9540;
-190.8000;0.4534;0.9633;
-190.5000;0.4518;0.9703;
-190.2000;0.4558;0.9750;
-189.9000;0.4534;0.9703;
-189.6000;0.4510;0.9703;
-189.3000;0.4534;0.9680;
-189.0000;0.4526;0.9633;
-188.7000;0.4534;0.9656;
-188.4000;0.4542;0.9796;
-188.1000;0.4550;0.9843;
-187.8000;0.4542;0.9866;
-187.5000;0.4542;0.9960;
-187.2000;0.4510;0.9913;
-186.9000;0.4518;1.0006;
-186.6000;0.4526;1.0100;
-186.3000;0.4510;0.9936;
-186.0000;0.4510;0.9843;
-185.7000;0.4607;1.0053;
-185.4000;0.4518;0.9843;
-185.1000;0.4526;0.9866;
-184.8000;0.4501;0.9820;
-184.5000;0.4510;0.9773;
-184.2000;0.4518;0.9796;
-183.9000;0.4550;0.9866;
-183.6000;0.4542;0.9843;
-183.3000;0.4575;0.9866;
-183.0000;0.4526;0.9773;
-182.7000;0.4550;0.9820;
-182.4000;0.4526;0.9796;
-182.1000;0.4567;0.9890;
-181.8000;0.4526;0.9843;
-181.5000;0.4542;0.9936;
-181.2000;0.4518;0.9936;
-180.9000;0.4510;0.9866;
-180.6000;0.4542;0.9913;
-180.3000;0.4534;0.9843;
-180.0000;0.4518;0.9796;
-179.7000;0.4526;0.9843;
-179.4000;0.4510;0.9820;
-179.1000;0.4526;0.9820;
-178.8000;0.4534;0.9820;
-178.5000;0.4526;0.9796;
-178.2000;0.4518;0.9796;
-177.9000;0.4542;0.9890;
-177.6000;0.4550;0.9960;
-177.3000;0.4534;0.9936;
-177.0000;0.4534;0.9890;
-176.7000;0.4534;0.9866;
-176.4000;0.4526;0.9936;
-176.1000;0.4542;0.9866;
-175.8000;0.4518;0.9843;
-175.5000;0.4518;0.9843;
-175.2000;0.4542;0.9843;
-174.9000;0.4518;0.9866;
-174.6000;0.4526;0.9866;
-174.3000;0.4510;0.9773;
-174.0000;0.4542;0.9773;
-173.7000;0.4542;0.9820;
-173.4000;0.4534;0.9820;
-173.1000;0.4542;0.9796;
-172.8000;0.4501;0.9726;
-172.5000;0.4542;0.9866;
-172.2000;0.4510;0.9843;
-171.9000;0.4591;1.0030;
-171.6000;0.4526;0.9890;
-171.3000;0.4510;0.9773;
-171.0000;0.4550;0.9726;
-170.7000;0.4534;0.9586;
-170.4000;0.4526;0.9680;
-170.1000;0.4510;0.9563;
-169.8000;0.4550;0.9610;
-169.5000;0.4510;0.9516;
-169.2000;0.4518;0.9470;
-168.9000;0.4534;0.9400;
-168.6000;0.4567;0.9516;
-168.3000;0.4558;0.9563;
-168.0000;0.4534;0.9493;
-167.7000;0.4518;0.9493;
-167.4000;0.4558;0.9703;
-167.1000;0.4510;0.9610;
-166.8000;0.4493;0.9633;
-166.5000;0.4583;0.9796;
-166.2000;0.4542;0.9703;
-165.9000;0.4526;0.9563;
-165.6000;0.4518;0.9447;
-165.3000;0.4526;0.9516;
-165.0000;0.4542;0.9516;
-164.7000;0.4510;0.9516;
-164.4000;0.4510;0.9516;
-164.1000;0.4510;0.9586;
-163.8000;0.4510;0.9610;
-163.5000;0.4493;0.9586;
-163.2000;0.4534;0.9586;
-162.9000;0.4510;0.9540;
-162.6000;0.4518;0.9610;
-162.3000;0.4526;0.9540;
-162.0000;0.4534;0.9470;
-161.7000;0.4526;0.9377;
-161.4000;0.4518;0.9493;
-161.1000;0.4550;0.9516;
-160.8000;0.4534;0.9400;
-160.5000;0.4518;0.9353;
-160.2000;0.4518;0.9377;
-159.9000;0.4518;0.9400;
-159.6000;0.4501;0.9423;
-159.3000;0.4542;0.9516;
-159.0000;0.4518;0.9493;
-158.7000;0.4518;0.9610;
-158.4000;0.4534;0.9610;
-158.1000;0.4542;0.9586;
-157.8000;0.4518;0.9516;
-157.5000;0.4518;0.9516;
-157.2000;0.4510;0.9470;
-156.9000;0.4542;0.9656;
-156.6000;0.4510;0.9703;
-156.3000;0.4510;0.9680;
-156.0000;0.4550;0.9726;
-155.7000;0.4501;0.9656;
-155.4000;0.4469;0.9447;
-155.1000;0.4518;0.9633;
-154.8000;0.4510;0.9563;
-154.5000;0.4510;0.9586;
-154.2000;0.4526;0.9586;
-153.9000;0.4599;0.9820;
-153.6000;0.4510;0.9633;
-153.3000;0.4485;0.9656;
-153.0000;0.4534;0.9773;
-152.7000;0.4518;0.9680;
-152.4000;0.4526;0.9703;
-152.1000;0.4526;0.9680;
-151.8000;0.4534;0.9680;
-151.5000;0.4542;0.9703;
-151.2000;0.4518;0.9726;
-150.9000;0.4526;0.9726;
-150.6000;0.4542;0.9773;
-150.3000;0.4510;0.9610;
-150.0000;0.4518;0.9563;
-149.7000;0.4526;0.9656;
-149.4000;0.4534;0.9610;
-149.1000;0.4534;0.9610;
-148.8000;0.4510;0.9540;
-148.5000;0.4542;0.9563;
-148.2000;0.4518;0.9540;
-147.9000;0.4534;0.9563;
-147.6000;0.4469;0.9493;
-147.3000;0.4477;0.9610;
-147.0000;0.4526;0.9773;
-146.7000;0.4534;0.9750;
-146.4000;0.4526;0.9750;
-146.1000;0.4526;0.9750;
-145.8000;0.4493;0.9773;
-145.5000;0.4526;0.9936;
-145.2000;0.4510;0.9820;
-144.9000;0.4518;0.9843;
-144.6000;0.4526;0.9866;
-144.3000;0.4518;0.9796;
-144.0000;0.4518;0.9750;
-143.7000;0.4591;0.9913;
-143.4000;0.4542;0.9773;
-143.1000;0.4542;0.9796;
-142.8000;0.4526;0.9726;
-142.5000;0.4501;0.9726;
-142.2000;0.4501;0.9750;
-141.9000;0.4526;0.9750;
-141.6000;0.4510;0.9633;
-141.3000;0.4485;0.9540;
-141.0000;0.4518;0.9656;
-140.7000;0.4518;0.9750;
-140.4000;0.4526;0.9796;
-140.1000;0.4510;0.9656;
-139.8000;0.4534;0.9656;
-139.5000;0.4526;0.9656;
-139.2000;0.4485;0.9563;
-138.9000;0.4518;0.9680;
-138.6000;0.4510;0.9680;
-138.3000;0.4534;0.9796;
-138.0000;0.4518;0.9750;
-137.7000;0.4518;0.9703;
-137.4000;0.4534;0.9750;
-137.1000;0.4510;0.9726;
-136.8000;0.4534;0.9656;
-136.5000;0.4453;0.9493;
-136.2000;0.4526;0.9680;
-135.9000;0.4534;0.9726;
-135.6000;0.4583;0.9913;
-135.3000;0.4534;0.9750;
-135.0000;0.4526;0.9726;
-134.7000;0.4534;0.9773;
-134.4000;0.4501;0.9680;
-134.1000;0.4526;0.9726;
-133.8000;0.4518;0.9633;
-133.5000;0.4526;0.9563;
-133.2000;0.4534;0.9633;
-132.9000;0.4542;0.9703;
-132.6000;0.4518;0.9633;
-132.3000;0.4510;0.9703;
-132.0000;0.4510;0.9726;
-131.7000;0.4534;0.9820;
-131.4000;0.4461;0.9656;
-131.1000;0.4526;0.9820;
-130.8000;0.4526;0.9866;
-130.5000;0.4510;0.9820;
-130.2000;0.4526;0.9866;
-129.9000;0.4510;0.9750;
-129.6000;0.4526;0.9680;
-129.3000;0.4518;0.9773;
-129.0000;0.4501;0.9750;
-128.7000;0.4542;0.9983;
-128.4000;0.4526;0.9890;
-128.1000;0.4510;0.9936;
-127.8000;0.4534;1.0006;
-127.5000;0.4542;1.0030;
-127.2000;0.4542;1.0076;
-126.9000;0.4550;1.0076;
-126.6000;0.4550;1.0053;
-126.3000;0.4518;0.9960;
-126.0000;0.4575;1.0053;
-125.7000;0.4510;0.9866;
-125.4000;0.4534;0.9866;
-125.1000;0.4534;0.9890;
-124.8000;0.4526;0.9983;
-124.5000;0.4558;1.0100;
-124.2000;0.4518;0.9890;
-123.9000;0.4518;0.9866;
-123.6000;0.4534;0.9890;
-123.3000;0.4501;0.9820;
-123.0000;0.4526;0.9796;
-122.7000;0.4526;0.9820;
-122.4000;0.4542;0.9866;
-122.1000;0.4534;0.9843;
-121.8000;0.4534;0.9820;
-121.5000;0.4550;0.9866;
-121.2000;0.4542;0.9773;
-120.9000;0.4526;0.9843;
-120.6000;0.4542;0.9843;
-120.3000;0.4534;0.9726;
-120.0000;0.4558;0.9750;
-119.7000;0.4558;0.9680;
-119.4000;0.4526;0.9633;
-119.1000;0.4510;0.9633;
-118.8000;0.4518;0.9680;
-118.5000;0.4542;0.9703;
-118.2000;0.4501;0.9633;
-117.9000;0.4526;0.9703;
-117.6000;0.4542;0.9820;
-117.3000;0.4501;0.9726;
-117.0000;0.4526;0.9796;
-116.7000;0.4534;0.9726;
-116.4000;0.4534;0.9680;
-116.1000;0.4526;0.9773;
-115.8000;0.4526;0.9773;
-115.5000;0.4558;0.9866;
-115.2000;0.4526;0.9820;
-114.9000;0.4542;0.9890;
-114.6000;0.4558;0.9960;
-114.3000;0.4534;0.9960;
-114.0000;0.4550;0.9936;
-113.7000;0.4493;0.9796;
-113.4000;0.4518;0.9936;
-113.1000;0.4526;0.9983;
-112.8000;0.4518;0.9890;
-112.5000;0.4526;0.9960;
-112.2000;0.4518;0.9936;
-111.9000;0.4501;0.9843;
-111.6000;0.4534;0.9796;
-111.3000;0.4526;0.9773;
-111.0000;0.4599;0.9960;
-110.7000;0.4510;0.9773;
-110.4000;0.4575;0.9890;
-110.1000;0.4534;0.9773;
-109.8000;0.4583;0.9890;
-109.5000;0.4518;0.9796;
-109.2000;0.4615;1.0100;
-108.9000;0.4526;0.9936;
-108.6000;0.4518;0.9913;
-108.3000;0.4518;0.9936;
-108.0000;0.4518;0.9866;
-107.7000;0.4510;0.9796;
-107.4000;0.4526;0.9866;
-107.1000;0.4518;0.9960;
-106.8000;0.4526;0.9960;
-106.5000;0.4526;1.0006;
-106.2000;0.4534;0.9983;
-105.9000;0.4534;0.9960;
-105.6000;0.4526;0.9983;
-105.3000;0.4534;1.0030;
-105.0000;0.4518;1.0123;
-104.7000;0.4534;1.0053;
-104.4000;0.4485;0.9960;
-104.1000;0.4526;1.0076;
-103.8000;0.4518;0.9983;
-103.5000;0.4534;0.9960;
-103.2000;0.4510;0.9936;
-102.9000;0.4510;0.9960;
-102.6000;0.4526;0.9960;
-102.3000;0.4550;1.0030;
-102.0000;0.4567;1.0053;
-101.7000;0.4526;0.9890;
-101.4000;0.4534;0.9843;
-101.1000;0.4518;0.9890;
-100.8000;0.4542;0.9866;
-100.5000;0.4526;0.9820;
-100.2000;0.4526;0.9866;
-99.9000;0.4542;0.9936;
-99.6000;0.4501;0.9866;
-99.3000;0.4534;0.9843;
-99.0000;0.4534;0.9796;
-98.7000;0.4542;0.9866;
-98.4000;0.4526;0.9796;
-98.1000;0.4526;0.9820;
-97.8000;0.4518;0.9796;
-97.5000;0.4493;0.9750;
-97.2000;0.4534;0.9913;
-96.9000;0.4526;0.9983;
-96.6000;0.4526;1.0006;
-96.3000;0.4534;0.9913;
-96.0000;0.4542;0.9960;
-95.7000;0.4526;0.9890;
-95.4000;0.4550;0.9820;
-95.1000;0.4518;0.9726;
-94.8000;0.4534;0.9936;
-94.5000;0.4534;0.9843;
-94.2000;0.4526;0.9843;
-93.9000;0.4501;0.9820;
-93.6000;0.4534;0.9936;
-93.3000;0.4542;0.9983;
-93.0000;0.4510;0.9983;
-92.7000;0.4518;0.9983;
-92.4000;0.4518;0.9983;
-92.1000;0.4542;0.9983;
-91.8000;0.4493;1.0006;
-91.5000;0.4501;1.0030;
-91.2000;0.4510;0.9960;
-90.9000;0.4526;0.9936;
-90.6000;0.4526;0.9936;
-90.3000;0.4493;0.9796;
-90.0000;0.4477;0.9726;
-89.7000;0.4526;0.9890;
-89.4000;0.4501;0.9890;
-89.1000;0.4501;0.9796;
-88.8000;0.4518;0.9890;
-88.5000;0.4518;0.9960;
-88.2000;0.4526;0.9983;
-87.9000;0.4510;0.9960;
-87.6000;0.4518;1.0100;
-87.3000;0.4510;1.0030;
-87.0000;0.4558;1.0100;
-86.7000;0.4518;0.9960;
-86.4000;0.4518;0.9913;
-86.1000;0.4526;0.9913;
-85.8000;0.4575;1.0006;
-85.5000;0.4526;0.9820;
-85.2000;0.4526;0.9796;
-84.9000;0.4526;0.9656;
-84.6000;0.4518;0.9726;
-84.3000;0.4518;0.9820;
-84.0000;0.4518;0.9843;
-83.7000;0.4501;0.9843;
-83.4000;0.4501;0.9843;
-83.1000;0.4501;0.9796;
-82.8000;0.4518;0.9913;
-82.5000;0.4558;0.9983;
-82.2000;0.4526;0.9890;
-81.9000;0.4518;0.9796;
-81.6000;0.4510;0.9703;
-81.3000;0.4534;0.9726;
-81.0000;0.4526;0.9610;
-80.7000;0.4493;0.9563;
-80.4000;0.4526;0.9540;
-80.1000;0.4501;0.9586;
-79.8000;0.4526;0.9633;
-79.5000;0.4526;0.9726;
-79.2000;0.4591;0.9890;
-78.9000;0.4632;1.0006;
-78.6000;0.4493;0.9656;
-78.3000;0.4534;0.9703;
-78.0000;0.4542;0.9796;
-77.7000;0.4534;0.9890;
-77.4000;0.4510;0.9866;
-77.1000;0.4542;0.9960;
-76.8000;0.4534;0.9890;
-76.5000;0.4542;0.9866;
-76.2000;0.4518;0.9796;
-75.9000;0.4534;0.9656;
-75.6000;0.4558;0.9680;
-75.3000;0.4526;0.9540;
-75.0000;0.4526;0.9540;
-74.7000;0.4542;0.9586;
-74.4000;0.4518;0.9563;
-74.1000;0.4542;0.9680;
-73.8000;0.4534;0.9773;
-73.5000;0.4510;0.9703;
-73.2000;0.4518;0.9750;
-72.9000;0.4510;0.9750;
-72.6000;0.4510;0.9750;
-72.3000;0.4518;0.9703;
-72.0000;0.4518;0.9750;
-71.7000;0.4510;0.9726;
-71.4000;0.4404;0.9400;
-71.1000;0.4518;0.9773;
-70.8000;0.4526;0.9750;
-70.5000;0.4526;0.9773;
-70.2000;0.4534;0.9866;
-69.9000;0.4526;0.9843;
-69.6000;0.4526;0.9796;
-69.3000;0.4477;0.9656;
-69.0000;0.4526;0.9866;
-68.7000;0.4575;1.0006;
-68.4000;0.4510;0.9750;
-68.1000;0.4526;0.9726;
-67.8000;0.4518;0.9773;
-67.5000;0.4542;0.9703;
-67.2000;0.4510;0.9586;
-66.9000;0.4526;0.9633;
-66.6000;0.4526;0.9726;
-66.3000;0.4518;0.9726;
-66.0000;0.4534;0.9726;
-65.7000;0.4534;0.9726;
-65.4000;0.4518;0.9726;
-65.1000;0.4550;0.9866;
-64.8000;0.4534;0.9866;
-64.5000;0.4550;0.9890;
-64.2000;0.4534;0.9820;
-63.9000;0.4542;0.9796;
-63.6000;0.4518;0.9703;
-63.3000;0.4477;0.9586;
-63.0000;0.4558;0.9843;
-62.7000;0.4526;0.9750;
-62.4000;0.4526;0.9866;
-62.1000;0.4526;0.9820;
-61.8000;0.4501;0.9773;
-61.5000;0.4575;1.0053;
-61.2000;0.4461;0.9913;
-60.9000;0.4485;0.9936;
-60.6000;0.4510;0.9983;
-60.3000;0.4534;0.9960;
-60.0000;0.4510;0.9890;
-59.7000;0.4518;0.9960;
-59.4000;0.4526;0.9913;
-59.1000;0.4469;0.9890;
-58.8000;0.4534;1.0030;
-58.5000;0.4518;0.9890;
-58.2000;0.4518;0.9820;
-57.9000;0.4558;0.9820;
-57.6000;0.4526;0.9750;
-57.3000;0.4510;0.9656;
-57.0000;0.4493;0.9563;
-56.7000;0.4534;0.9586;
-56.4000;0.4534;0.9703;
-56.1000;0.4534;0.9703;
-55.8000;0.4518;0.9610;
-55.5000;0.4510;0.9586;
-55.2000;0.4558;0.9726;
-54.9000;0.4534;0.9633;
-54.6000;0.4534;0.9726;
-54.3000;0.4518;0.9726;
-54.0000;0.4534;0.9773;
-53.7000;0.4526;0.9680;
-53.4000;0.4558;0.9703;
-53.1000;0.4510;0.9586;
-52.8000;0.4542;0.9726;
-52.5000;0.4526;0.9680;
-52.2000;0.4526;0.9820;
-51.9000;0.4526;0.9773;
-51.6000;0.4510;0.9820;
-51.3000;0.4558;0.9843;
-51.0000;0.4518;0.9726;
-50.7000;0.4518;0.9656;
-50.4000;0.4526;0.9796;
-50.1000;0.4550;0.9796;
-49.8000;0.4542;0.9820;
-49.5000;0.4534;0.9890;
-49.2000;0.4526;0.9890;
-48.9000;0.4526;0.9820;
-48.6000;0.4542;0.9843;
-48.3000;0.4599;1.0006;
-48.0000;0.4534;0.9773;
-47.7000;0.4550;0.9843;
-47.4000;0.4558;0.9936;
-47.1000;0.4534;0.9913;
-46.8000;0.4518;0.9843;
-46.5000;0.4550;0.9796;
-46.2000;0.4510;0.9633;
-45.9000;0.4526;0.9610;
-45.6000;0.4526;0.9680;
-45.3000;0.4558;0.9656;
-45.0000;0.4583;0.9773;
-44.7000;0.4534;0.9680;
-44.4000;0.4542;0.9726;
-44.1000;0.4542;0.9843;
-43.8000;0.4534;0.9796;
-43.5000;0.4558;0.9820;
-43.2000;0.4534;0.9820;
-42.9000;0.4518;0.9820;
-42.6000;0.4510;0.9820;
-42.3000;0.4550;0.9866;
-42.0000;0.4534;0.9843;
-41.7000;0.4518;0.9750;
-41.4000;0.4510;0.9726;
-41.1000;0.4558;0.9820;
-40.8000;0.4550;0.9866;
-40.5000;0.4518;0.9843;
-40.2000;0.4542;0.9843;
-39.9000;0.4526;0.9913;
-39.6000;0.4477;0.9726;
-39.3000;0.4567;1.0006;
-39.0000;0.4542;0.9913;
-38.7000;0.4526;0.9843;
-38.4000;0.4534;0.9913;
-38.1000;0.4510;0.9866;
-37.8000;0.4534;0.9796;
-37.5000;0.4542;0.9843;
-37.2000;0.4444;0.9703;
-36.9000;0.4526;0.9750;
-36.6000;0.4534;0.9796;
-36.3000;0.4558;0.9866;
-36.0000;0.4493;0.9610;
-35.7000;0.4501;0.9656;
-35.4000;0.4518;0.9726;
-35.1000;0.4542;0.9773;
-34.8000;0.4518;0.9680;
-34.5000;0.4518;0.9656;
-34.2000;0.4518;0.9656;
-33.9000;0.4518;0.9750;
-33.6000;0.4526;0.9680;
-33.3000;0.4534;0.9726;
-33.0000;0.4518;0.9750;
-32.7000;0.4526;0.9773;
-32.4000;0.4526;0.9726;
-32.1000;0.4510;0.9680;
-31.8000;0.4510;0.9796;
-31.5000;0.4518;0.9773;
-31.2000;0.4518;0.9703;
-30.9000;0.4526;0.9680;
-30.6000;0.4477;0.9516;
-30.3000;0.4526;0.9633;
-30.0000;0.4534;0.9633;
-29.7000;0.4542;0.9750;
-29.4000;0.4534;0.9820;
-29.1000;0.4510;0.9726;
-28.8000;0.4428;0.9470;
-28.5000;0.4534;0.9656;
-28.2000;0.4550;0.9656;
-27.9000;0.4550;0.9656;
-27.6000;0.4542;0.9610;
-27.3000;0.4518;0.9586;
-27.0000;0.4542;0.9610;
-26.7000;0.4534;0.9610;
-26.4000;0.4518;0.9540;
-26.1000;0.4510;0.9586;
-25.8000;0.4501;0.9563;
-25.5000;0.4526;0.9610;
-25.2000;0.4534;0.9656;
-24.9000;0.4526;0.9680;
-24.6000;0.4510;0.9703;
-24.3000;0.4526;0.9843;
-24.0000;0.4518;0.9890;
-23.7000;0.4518;0.9936;
-23.4000;0.4534;0.9983;
-23.1000;0.4550;0.9983;
-22.8000;0.4526;0.9890;
-22.5000;0.4493;0.9866;
-22.2000;0.4542;0.9960;
-21.9000;0.4526;0.9913;
-21.6000;0.4534;0.9983;
-21.3000;0.4493;0.9866;
-21.0000;0.4510;0.9936;
-20.7000;0.4493;0.9936;
-20.4000;0.4534;1.0146;
-20.1000;0.4493;1.0076;
-19.8000;0.4501;1.0053;
-19.5000;0.4534;1.0100;
-19.2000;0.4526;1.0030;
-18.9000;0.4518;1.0006;
-18.6000;0.4477;0.9866;
-18.3000;0.4510;1.0006;
-18.0000;0.4518;1.0030;
-17.7000;0.4510;0.9960;
-17.4000;0.4518;0.9983;
-17.1000;0.4510;0.9890;
-16.8000;0.4542;0.9936;
-16.5000;0.4534;0.9820;
-16.2000;0.4534;0.9773;
-15.9000;0.4510;0.9750;
-15.6000;0.4534;0.9820;
-15.3000;0.4526;0.9796;
-15.0000;0.4485;0.9656;
-14.7000;0.4518;0.9726;
-14.4000;0.4469;0.9610;
-14.1000;0.4526;0.9866;
-13.8000;0.4518;0.9936;
-13.5000;0.4526;0.9866;
-13.2000;0.4518;0.9866;
-12.9000;0.4526;0.9796;
-12.6000;0.4518;0.9750;
-12.3000;0.4510;0.9773;
-12.0000;0.4461;0.9656;
-11.7000;0.4485;0.9633;
-11.4000;0.4518;0.9726;
-11.1000;0.4534;0.9726;
-10.8000;0.4485;0.9680;
-10.5000;0.4510;0.9703;
-10.2000;0.4534;0.9773;
-9.9000;0.4510;0.9680;
-9.6000;0.4501;0.9680;
-9.3000;0.4526;0.9726;
-9.0000;0.4526;0.9773;
-8.7000;0.4534;0.9796;
-8.4000;0.4534;0.9866;
-8.1000;0.4518;0.9890;
-7.8000;0.4518;0.9866;
-7.5000;0.4493;0.9750;
-7.2000;0.4526;0.9796;
-6.9000;0.4428;0.9563;
-6.6000;0.4681;1.0193;
-6.3000;0.4518;0.9750;
-6.0000;0.4526;0.9773;
-5.7000;0.4518;0.9750;
-5.4000;0.4526;0.9820;
-5.1000;0.4542;0.9820;
-4.8000;0.4477;0.9610;
-4.5000;0.4518;0.9703;
-4.2000;0.4575;0.9820;
-3.9000;0.4518;0.9820;
-3.6000;0.4542;0.9890;
-3.3000;0.4518;0.9750;
-3.0000;0.4510;0.9820;
-2.7000;0.4534;0.9913;
-2.4000;0.4518;0.9796;
-2.1000;0.4526;0.9750;
-1.8000;0.4550;0.9796;
-1.5000;0.4567;0.9866;
-1.2000;0.4567;0.9843;
-0.9000;0.4518;0.9726;
-0.6000;0.4526;0.9750;
-0.3000;0.4518;0.9796;
0.0000;0.4518;0.9796;
0.3000;0.4461;0.9890;
0.6000;0.4485;0.9866;
0.9000;0.4469;0.9890;
1.2000;0.4469;1.0006;
1.5000;0.4469;1.0170;
1.8000;0.4485;1.0263;
2.1000;0.4477;1.0263;
2.4000;0.4469;1.0310;
2.7000;0.4477;1.0380;
3.0000;0.4461;1.0496;
3.3000;0.4469;1.0636;
3.6000;0.4469;1.0683;
3.9000;0.4485;1.0799;
4.2000;0.4453;1.0753;
4.5000;0.4461;1.0869;
4.8000;0.4469;1.0963;
5.1000;0.4453;1.0869;
5.4000;0.4518;1.0939;
5.7000;0.4428;1.0939;
6.0000;0.4444;1.0939;
6.3000;0.4469;1.1033;
6.6000;0.4461;1.1009;
6.9000;0.4501;1.1173;
7.2000;0.4469;1.1173;
7.5000;0.4461;1.1196;
7.8000;0.4485;1.1149;
8.1000;0.4469;1.1126;
8.4000;0.4469;1.1149;
8.7000;0.4371;1.0846;
9.0000;0.4493;1.1149;
9.3000;0.4428;1.0963;
9.6000;0.4477;1.1103;
9.9000;0.4461;1.1173;
10.2000;0.4510;1.1196;
10.5000;0.4453;1.0986;
10.8000;0.4469;1.1009;
11.1000;0.4453;1.0986;
11.4000;0.4485;1.0986;
11.7000;0.4469;1.0916;
12.0000;0.4493;1.0963;
12.3000;0.4534;1.1009;
12.6000;0.4518;1.1009;
12.9000;0.4501;1.1103;
13.2000;0.4485;1.1126;
13.5000;0.4493;1.1149;
13.8000;0.4493;1.1149;
14.1000;0.4493;1.1056;
14.4000;0.4493;1.1079;
14.7000;0.4436;1.0893;
15.0000;0.4501;1.0963;
15.3000;0.4526;1.0916;
15.6000;0.4493;1.0869;
15.9000;0.4477;1.0799;
16.2000;0.4510;1.0939;
16.5000;0.4518;1.0869;
16.8000;0.4510;1.0823;
17.1000;0.4501;1.0799;
17.4000;0.4558;1.0986;
17.7000;0.4461;1.0846;
18.0000;0.4518;1.0963;
18.3000;0.4526;1.0986;
18.6000;0.4469;1.0916;
18.9000;0.4518;1.0893;
19.2000;0.4501;1.0776;
19.5000;0.4469;1.0683;
19.8000;0.4469;1.0753;
20.1000;0.4501;1.0939;
20.4000;0.4510;1.0986;
20.7000;0.4501;1.1009;
21.0000;0.4493;1.0986;
21.3000;0.4575;1.1056;
21.6000;0.4518;1.0939;
21.9000;0.4526;1.0846;
22.2000;0.4501;1.0823;
22.5000;0.4436;1.0659;
22.8000;0.4534;1.0963;
23.1000;0.4518;1.0986;
23.4000;0.4518;1.0986;
23.7000;0.4493;1.0986;
24.0000;0.4510;1.0986;
24.3000;0.4501;1.0963;
24.6000;0.4526;1.0986;
24.9000;0.4510;1.0963;
25.2000;0.4501;1.0986;
25.5000;0.4526;1.1056;
25.8000;0.4510;1.1103;
26.1000;0.4526;1.1173;
26.4000;0.4518;1.1219;
26.7000;0.4534;1.1126;
27.0000;0.4518;1.1056;
27.3000;0.4534;1.1126;
27.6000;0.4477;1.0986;
27.9000;0.4518;1.0963;
28.2000;0.4599;1.1056;
28.5000;0.4526;1.0823;
28.8000;0.4510;1.0823;
29.1000;0.4542;1.0916;
29.4000;0.4526;1.0893;
29.7000;0.4518;1.0916;
30.0000;0.4599;1.1149;
30.3000;0.4518;1.0939;
30.6000;0.4534;1.0963;
30.9000;0.4444;1.0799;
31.2000;0.4518;1.0963;
31.5000;0.4518;1.1056;
31.8000;0.4550;1.1126;
32.1000;0.4526;1.1079;
32.4000;0.4542;1.1103;
32.7000;0.4526;1.0986;
33.0000;0.4518;1.1126;
33.3000;0.4534;1.1173;
33.6000;0.4493;1.1033;
33.9000;0.4526;1.1033;
34.2000;0.4526;1.1033;
34.5000;0.4558;1.1056;
34.8000;0.4542;1.0986;
35.1000;0.4518;1.0986;
35.4000;0.4526;1.1079;
35.7000;0.4558;1.1056;
36.0000;0.4526;1.0963;
36.3000;0.4518;1.0939;
36.6000;0.4542;1.0939;
36.9000;0.4542;1.0729;
37.2000;0.4534;1.0729;
37.5000;0.4501;1.0683;
37.8000;0.4526;1.0823;
38.1000;0.4583;1.1009;
38.4000;0.4550;1.0869;
38.7000;0.4518;1.0776;
39.0000;0.4591;1.0963;
39.3000;0.4567;1.0939;
39.6000;0.4550;1.0963;
39.9000;0.4526;1.0939;
40.2000;0.4510;1.0869;
40.5000;0.4575;1.1079;
40.8000;0.4469;1.0846;
41.1000;0.4526;1.0986;
41.4000;0.4542;1.0986;
41.7000;0.4518;1.1033;
42.0000;0.4542;1.1056;
42.3000;0.4518;1.0963;
42.6000;0.4558;1.1149;
42.9000;0.4615;1.1289;
43.2000;0.4558;1.1033;
43.5000;0.4615;1.1196;
43.8000;0.4461;1.0729;
44.1000;0.4518;1.0706;
44.4000;0.4542;1.0729;
44.7000;0.4567;1.0846;
45.0000;0.4534;1.0799;
45.3000;0.4518;1.0706;
45.6000;0.4526;1.0776;
45.9000;0.4534;1.0823;
46.2000;0.4542;1.0869;
46.5000;0.4526;1.0869;
46.8000;0.4542;1.0869;
47.1000;0.4542;1.0869;
47.4000;0.4542;1.0823;
47.7000;0.4567;1.0846;
48.0000;0.4542;1.0939;
48.3000;0.4558;1.1009;
48.6000;0.4550;1.1033;
48.9000;0.4542;1.0986;
49.2000;0.4550;1.0893;
49.5000;0.4567;1.0869;
49.8000;0.4534;1.0799;
50.1000;0.4510;1.0636;
50.4000;0.4493;1.0589;
50.7000;0.4542;1.0823;
51.0000;0.4542;1.0776;
51.3000;0.4575;1.0799;
51.6000;0.4542;1.0636;
51.9000;0.4550;1.0589;
52.2000;0.4534;1.0566;
52.5000;0.4542;1.0636;
52.8000;0.4526;1.0683;
53.1000;0.4534;1.0659;
53.4000;0.4550;1.0729;
53.7000;0.4477;1.0589;
54.0000;0.4534;1.0753;
54.3000;0.4526;1.0869;
54.6000;0.4518;1.0869;
54.9000;0.4567;1.0986;
55.2000;0.4558;1.0893;
55.5000;0.4518;1.0893;
55.8000;0.4542;1.0986;
56.1000;0.4542;1.1009;
56.4000;0.4542;1.1009;
56.7000;0.4436;1.0753;
57.0000;0.4550;1.0986;
57.3000;0.4526;1.0916;
57.6000;0.4672;1.1219;
57.9000;0.4558;1.0986;
58.2000;0.4550;1.0916;
58.5000;0.4567;1.0939;
58.8000;0.4526;1.0939;
59.1000;0.4558;1.1033;
59.4000;0.4542;1.0916;
59.7000;0.4558;1.0939;
60.0000;0.4550;1.0893;
60.3000;0.4534;1.0846;
60.6000;0.4526;1.0799;
60.9000;0.4518;1.0706;
61.2000;0.4567;1.0729;
61.5000;0.4550;1.0776;
61.8000;0.4542;1.0893;
62.1000;0.4550;1.0916;
62.4000;0.4599;1.1056;
62.7000;0.4526;1.0823;
63.0000;0.4526;1.0869;
63.3000;0.4558;1.0893;
63.6000;0.4542;1.0963;
63.9000;0.4526;1.0846;
64.2000;0.4583;1.1009;
64.5000;0.4542;1.1103;
64.8000;0.4550;1.1103;
65.1000;0.4542;1.1126;
65.4000;0.4542;1.1173;
65.7000;0.4542;1.1173;
66.0000;0.4542;1.1056;
66.3000;0.4534;1.1009;
66.6000;0.4542;1.1009;
66.9000;0.4542;1.0963;
67.2000;0.4542;1.1033;
67.5000;0.4550;1.1079;
67.8000;0.4550;1.1103;
68.1000;0.4558;1.1126;
68.4000;0.4542;1.1103;
68.7000;0.4567;1.1079;
69.0000;0.4575;1.1126;
69.3000;0.4558;1.1009;
69.6000;0.4542;1.1033;
69.9000;0.4558;1.1009;
70.2000;0.4542;1.0963;
70.5000;0.4558;1.0916;
70.8000;0.4526;1.0869;
71.1000;0.4558;1.0963;
71.4000;0.4567;1.1056;
71.7000;0.4542;1.0963;
72.0000;0.4542;1.0869;
72.3000;0.4567;1.0869;
72.6000;0.4575;1.0916;
72.9000;0.4575;1.0939;
73.2000;0.4550;1.0916;
73.5000;0.4558;1.0963;
73.8000;0.4542;1.0939;
74.1000;0.4558;1.0939;
74.4000;0.4550;1.0939;
74.7000;0.4583;1.1009;
75.0000;0.4558;1.1009;
75.3000;0.4591;1.1033;
75.6000;0.4567;1.1056;
75.9000;0.4558;1.0963;
76.2000;0.4558;1.0963;
76.5000;0.4526;1.0893;
76.8000;0.4542;1.0823;
77.1000;0.4558;1.0893;
77.4000;0.4485;1.0753;
77.7000;0.4518;1.0753;
78.0000;0.4567;1.0916;
78.3000;0.4550;1.0916;
78.6000;0.4518;1.0846;
78.9000;0.4550;1.0963;
79.2000;0.4534;1.0986;
79.5000;0.4550;1.0963;
79.8000;0.4501;1.0986;
80.1000;0.4558;1.1126;
80.4000;0.4510;1.0986;
80.7000;0.4624;1.1173;
81.0000;0.4567;1.0916;
81.3000;0.4550;1.0939;
81.6000;0.4558;1.0986;
81.9000;0.4526;1.0823;
82.2000;0.4534;1.0846;
82.5000;0.4632;1.1103;
82.8000;0.4550;1.0823;
83.1000;0.4534;1.0753;
83.4000;0.4542;1.0753;
83.7000;0.4444;1.0473;
84.0000;0.4583;1.0823;
84.3000;0.4550;1.0869;
84.6000;0.4558;1.0916;
84.9000;0.4550;1.0799;
85.2000;0.4550;1.0893;
85.5000;0.4501;1.0706;
85.8000;0.4558;1.0776;
86.1000;0.4558;1.0729;
86.4000;0.4567;1.0589;
86.7000;0.4550;1.0613;
87.0000;0.4542;1.0729;
87.3000;0.4550;1.0776;
87.6000;0.4518;1.0659;
87.9000;0.4558;1.0636;
88.2000;0.4550;1.0636;
88.5000;0.4567;1.0683;
88.8000;0.4558;1.0683;
89.1000;0.4558;1.0823;
89.4000;0.4534;1.0869;
89.7000;0.4558;1.0916;
90.0000;0.4542;1.0869;
90.3000;0.4567;1.0869;
90.6000;0.4550;1.0869;
90.9000;0.4558;1.0939;
91.2000;0.4624;1.1149;
91.5000;0.4534;1.0986;
91.8000;0.4567;1.0963;
92.1000;0.4558;1.0846;
92.4000;0.4550;1.0729;
92.7000;0.4550;1.0683;
93.0000;0.4542;1.0776;
93.3000;0.4542;1.0753;
93.6000;0.4567;1.0846;
93.9000;0.4567;1.0729;
94.2000;0.4550;1.0706;
94.5000;0.4567;1.0799;
94.8000;0.4550;1.0799;
95.1000;0.4550;1.0776;
95.4000;0.4558;1.0753;
95.7000;0.4567;1.0729;
96.0000;0.4526;1.0683;
96.3000;0.4567;1.0753;
96.6000;0.4550;1.0729;
96.9000;0.4567;1.0846;
97.2000;0.4550;1.0893;
97.5000;0.4567;1.0869;
97.8000;0.4526;1.0799;
98.1000;0.4550;1.0916;
98.4000;0.4567;1.0916;
98.7000;0.4591;1.0939;
99.0000;0.4534;1.0823;
99.3000;0.4526;1.0893;
99.6000;0.4485;1.0776;
99.9000;0.4534;1.0869;
100.2000;0.4558;1.0893;
100.5000;0.4567;1.0846;
100.8000;0.4558;1.0823;
101.1000;0.4567;1.0939;
101.4000;0.4567;1.0939;
101.7000;0.4526;1.0846;
102.0000;0.4518;1.0753;
102.3000;0.4567;1.0846;
102.6000;0.4550;1.0823;
102.9000;0.4550;1.0869;
103.2000;0.4550;1.0963;
103.5000;0.4534;1.0916;
103.8000;0.4550;1.0869;
104.1000;0.4542;1.0823;
104.4000;0.4526;1.0823;
104.7000;0.4567;1.0916;
105.0000;0.4550;1.0939;
105.3000;0.4575;1.0963;
105.6000;0.4526;1.0799;
105.9000;0.4550;1.0799;
106.2000;0.4558;1.0869;
106.5000;0.4550;1.0846;
106.8000;0.4542;1.0916;
107.1000;0.4542;1.0916;
107.4000;0.4526;1.0939;
107.7000;0.4526;1.0776;
108.0000;0.4567;1.0776;
108.3000;0.4534;1.0776;
108.6000;0.4624;1.1009;
108.9000;0.4550;1.0846;
109.2000;0.4534;1.0916;
109.5000;0.4477;1.0753;
109.8000;0.4542;1.0986;
110.1000;0.4591;1.1103;
110.4000;0.4526;1.0893;
110.7000;0.4575;1.0986;
111.0000;0.4575;1.0963;
111.3000;0.4542;1.0916;
111.6000;0.4510;1.0846;
111.9000;0.4501;1.0823;
112.2000;0.4542;1.0916;
112.5000;0.4542;1.0893;
112.8000;0.4534;1.0846;
113.1000;0.4542;1.0776;
113.4000;0.4534;1.0869;
113.7000;0.4567;1.0963;
114.0000;0.4428;1.0589;
114.3000;0.4542;1.0823;
114.6000;0.4567;1.0846;
114.9000;0.4567;1.0893;
115.2000;0.4542;1.0846;
115.5000;0.4534;1.0916;
115.8000;0.4526;1.0869;
116.1000;0.4558;1.0916;
116.4000;0.4558;1.0963;
116.7000;0.4550;1.0869;
117.0000;0.4526;1.0916;
117.3000;0.4550;1.0963;
117.6000;0.4542;1.0823;
117.9000;0.4542;1.0916;
118.2000;0.4526;1.0869;
118.5000;0.4550;1.0986;
118.8000;0.4550;1.0986;
119.1000;0.4550;1.0939;
119.4000;0.4550;1.0893;
119.7000;0.4567;1.0963;
120.0000;0.4534;1.0986;
120.3000;0.4550;1.1079;
120.6000;0.4558;1.1103;
120.9000;0.4567;1.1103;
121.2000;0.4567;1.1103;
121.5000;0.4534;1.0986;
121.8000;0.4575;1.1009;
122.1000;0.4583;1.0963;
122.4000;0.4558;1.0893;
122.7000;0.4567;1.0916;
123.0000;0.4550;1.0776;
123.3000;0.4518;1.0753;
123.6000;0.4558;1.0869;
123.9000;0.4558;1.0893;
124.2000;0.4550;1.0939;
124.5000;0.4567;1.1033;
124.8000;0.4477;1.0869;
125.1000;0.4558;1.1009;
125.4000;0.4534;1.0916;
125.7000;0.4518;1.0799;
126.0000;0.4501;1.0706;
126.3000;0.4558;1.0846;
126.6000;0.4550;1.0846;
126.9000;0.4607;1.0939;
127.2000;0.4542;1.0776;
127.5000;0.4591;1.0916;
127.8000;0.4567;1.0916;
128.1000;0.4550;1.0846;
128.4000;0.4567;1.0916;
128.7000;0.4550;1.0846;
129.0000;0.4542;1.0823;
129.3000;0.4558;1.0823;
129.6000;0.4575;1.0846;
129.9000;0.4583;1.0846;
130.2000;0.4599;1.0893;
130.5000;0.4567;1.0706;
130.8000;0.4575;1.0683;
131.1000;0.4558;1.0659;
131.4000;0.4542;1.0636;
131.7000;0.4550;1.0729;
132.0000;0.4550;1.0729;
132.3000;0.4534;1.0846;
132.6000;0.4575;1.0846;
132.9000;0.4477;1.0543;
133.2000;0.4550;1.0706;
133.5000;0.4526;1.0543;
133.8000;0.4461;1.0380;
134.1000;0.4558;1.0683;
134.4000;0.4558;1.0729;
134.7000;0.4428;1.0449;
135.0000;0.4550;1.0683;
135.3000;0.4542;1.0659;
135.6000;0.4526;1.0613;
135.9000;0.4542;1.0706;
136.2000;0.4534;1.0753;
136.5000;0.4575;1.0939;
136.8000;0.4567;1.0963;
137.1000;0.4550;1.0893;
137.4000;0.4599;1.1033;
137.7000;0.4550;1.0823;
138.0000;0.4550;1.0823;
138.3000;0.4599;1.0893;
138.6000;0.4550;1.0729;
138.9000;0.4550;1.0753;
139.2000;0.4542;1.0776;
139.5000;0.4558;1.0893;
139.8000;0.4550;1.0963;
140.1000;0.4542;1.0939;
140.4000;0.4599;1.1103;
140.7000;0.4526;1.0963;
141.0000;0.4550;1.0939;
141.3000;0.4550;1.0823;
141.6000;0.4501;1.0683;
141.9000;0.4526;1.0683;
142.2000;0.4575;1.0799;
142.5000;0.4550;1.0753;
142.8000;0.4534;1.0799;
143.1000;0.4550;1.0893;
143.4000;0.4550;1.0823;
143.7000;0.4591;1.0893;
144.0000;0.4567;1.0799;
144.3000;0.4461;1.0613;
144.6000;0.4558;1.0916;
144.9000;0.4550;1.0869;
145.2000;0.4583;1.0893;
145.5000;0.4567;1.0846;
145.8000;0.4591;1.1009;
146.1000;0.4542;1.0753;
146.4000;0.4510;1.0659;
146.7000;0.4550;1.0916;
147.0000;0.4583;1.1009;
147.3000;0.4542;1.0963;
147.6000;0.4534;1.0869;
147.9000;0.4558;1.0893;
148.2000;0.4493;1.0566;
148.5000;0.4550;1.0753;
148.8000;0.4534;1.0799;
149.1000;0.4567;1.1033;
149.4000;0.4526;1.1009;
149.7000;0.4477;1.0846;
150.0000;0.4526;1.0939;
150.3000;0.4550;1.0963;
150.6000;0.4534;1.0939;
150.9000;0.4550;1.0963;
151.2000;0.4640;1.1219;
151.5000;0.4567;1.1009;
151.8000;0.4550;1.0963;
152.1000;0.4558;1.0893;
152.4000;0.4550;1.0916;
152.7000;0.4567;1.1009;
153.0000;0.4542;1.1009;
153.3000;0.4550;1.1009;
153.6000;0.4534;1.1103;
153.9000;0.4493;1.1149;
154.2000;0.4575;1.1266;
154.5000;0.4550;1.1126;
154.8000;0.4542;1.1103;
155.1000;0.4526;1.1056;
155.4000;0.4534;1.0986;
155.7000;0.4550;1.0939;
156.0000;0.4526;1.0869;
156.3000;0.4567;1.0893;
156.6000;0.4591;1.0916;
156.9000;0.4501;1.0659;
157.2000;0.4567;1.0706;
157.5000;0.4567;1.0729;
157.8000;0.4518;1.0636;
158.1000;0.4558;1.0729;
158.4000;0.4550;1.0729;
158.7000;0.4583;1.0869;
159.0000;0.4534;1.0706;
159.3000;0.4542;1.0729;
159.6000;0.4542;1.0776;
159.9000;0.4558;1.0776;
160.2000;0.4591;1.0963;
160.5000;0.4558;1.0939;
160.8000;0.4567;1.0986;
161.1000;0.4550;1.0939;
161.4000;0.4534;1.0939;
161.7000;0.4542;1.0986;
162.0000;0.4550;1.1033;
162.3000;0.4558;1.1033;
162.6000;0.4542;1.0939;
162.9000;0.4534;1.0916;
163.2000;0.4558;1.0893;
163.5000;0.4550;1.0869;
163.8000;0.4534;1.0799;
164.1000;0.4510;1.0659;
164.4000;0.4550;1.0776;
164.7000;0.4526;1.0753;
165.0000;0.4567;1.0846;
165.3000;0.4518;1.0683;
165.6000;0.4444;1.0519;
165.9000;0.4558;1.0869;
166.2000;0.4583;1.0963;
166.5000;0.4656;1.1103;
166.8000;0.4550;1.0799;
167.1000;0.4542;1.0799;
167.4000;0.4542;1.0869;
167.7000;0.4542;1.0893;
168.0000;0.4542;1.0893;
168.3000;0.4534;1.0869;
168.6000;0.4558;1.0916;
168.9000;0.4534;1.0869;
169.2000;0.4583;1.0916;
169.5000;0.4534;1.0916;
169.8000;0.4567;1.0963;
170.1000;0.4599;1.0939;
170.4000;0.4518;1.0846;
170.7000;0.4534;1.0823;
171.0000;0.4526;1.0846;
171.3000;0.4558;1.0893;
171.6000;0.4526;1.0799;
171.9000;0.4575;1.1009;
172.2000;0.4550;1.0916;
172.5000;0.4526;1.0893;
172.8000;0.4534;1.0869;
173.1000;0.4567;1.0869;
173.4000;0.4534;1.0799;
173.7000;0.4550;1.0869;
174.0000;0.4534;1.0753;
174.3000;0.4526;1.0729;
174.6000;0.4534;1.0799;
174.9000;0.4615;1.0916;
175.2000;0.4575;1.0683;
175.5000;0.4493;1.0543;
175.8000;0.4526;1.0683;
176.1000;0.4542;1.0776;
176.4000;0.4510;1.0659;
176.7000;0.4558;1.0753;
177.0000;0.4510;1.0753;
177.3000;0.4526;1.0753;
177.6000;0.4542;1.0893;
177.9000;0.4534;1.0893;
178.2000;0.4575;1.0939;
178.5000;0.4534;1.0776;
178.8000;0.4542;1.0753;
179.1000;0.4534;1.0683;
179.4000;0.4526;1.0706;
179.7000;0.4526;1.0823;
180.0000;0.4534;1.0916;
180.3000;0.4550;1.0939;
180.6000;0.4550;1.0986;
180.9000;0.4518;1.0916;
181.2000;0.4558;1.0916;
181.5000;0.4542;1.0753;
181.8000;0.4550;1.0706;
182.1000;0.4526;1.0683;
182.4000;0.4534;1.0683;
182.7000;0.4550;1.0799;
183.0000;0.4542;1.0776;
183.3000;0.4542;1.0776;
183.6000;0.4542;1.0799;
183.9000;0.4542;1.0846;
184.2000;0.4542;1.0846;
184.5000;0.4526;1.0729;
184.8000;0.4558;1.0799;
185.1000;0.4558;1.0799;
185.4000;0.4542;1.0683;
185.7000;0.4518;1.0589;
186.0000;0.4558;1.0706;
186.3000;0.4558;1.0846;
186.6000;0.4526;1.0683;
186.9000;0.4542;1.0869;
187.2000;0.4558;1.0916;
187.5000;0.4567;1.0916;
187.8000;0.4558;1.1033;
188.1000;0.4550;1.1126;
188.4000;0.4558;1.1079;
188.7000;0.4599;1.1312;
189.0000;0.4575;1.1219;
189.3000;0.4550;1.1149;
189.6000;0.4526;1.1033;
189.9000;0.4550;1.1126;
190.2000;0.4558;1.1079;
190.5000;0.4550;1.0986;
190.8000;0.4518;1.0893;
191.1000;0.4558;1.1079;
191.4000;0.4567;1.1056;
191.7000;0.4550;1.1103;
192.0000;0.4550;1.0986;
192.3000;0.4542;1.1009;
192.6000;0.4558;1.1033;
192.9000;0.4526;1.0869;
193.2000;0.4550;1.0963;
193.5000;0.4542;1.1033;
193.8000;0.4542;1.0939;
194.1000;0.4550;1.0916;
194.4000;0.4534;1.0846;
194.7000;0.4485;1.0729;
195.0000;0.4567;1.0963;
195.3000;0.4550;1.0963;
195.6000;0.4567;1.0939;
195.9000;0.4542;1.0823;
196.2000;0.4469;1.0613;
196.5000;0.4550;1.0869;
196.8000;0.4526;1.0753;
197.1000;0.4558;1.0776;
197.4000;0.4501;1.0683;
197.7000;0.4558;1.0776;
198.0000;0.4493;1.0613;
198.3000;0.4542;1.0729;
198.6000;0.4518;1.0683;
198.9000;0.4534;1.0683;
199.2000;0.4534;1.0683;
199.5000;0.4542;1.0659;
199.8000;0.4485;1.0636;
200.1000;0.4518;1.0753;
200.4000;0.4542;1.0823;
200.7000;0.4534;1.0846;
201.0000;0.4526;1.0846;
201.3000;0.4526;1.0823;
201.6000;0.4542;1.0846;
201.9000;0.4477;1.0776;
202.2000;0.4591;1.1056;
202.5000;0.4558;1.0963;
202.8000;0.4558;1.0963;
203.1000;0.4518;1.0869;
203.4000;0.4526;1.0846;
203.7000;0.4526;1.0893;
204.0000;0.4542;1.0916;
204.3000;0.4534;1.0916;
204.6000;0.4583;1.0939;
204.9000;0.4501;1.0823;
205.2000;0.4558;1.1033;
205.5000;0.4510;1.0963;
205.8000;0.4534;1.1009;
206.1000;0.4526;1.1033;
206.4000;0.4510;1.0963;
206.7000;0.4542;1.1079;
207.0000;0.4542;1.1079;
207.3000;0.4534;1.0986;
207.6000;0.4534;1.1033;
207.9000;0.4550;1.0986;
208.2000;0.4534;1.0939;
208.5000;0.4534;1.0986;
208.8000;0.4534;1.0986;
209.1000;0.4534;1.0916;
209.4000;0.4542;1.0939;
209.7000;0.4550;1.1009;
210.0000;0.4534;1.1079;
210.3000;0.4534;1.1103;
210.6000;0.4534;1.1079;
210.9000;0.4542;1.1079;
211.2000;0.4550;1.1149;
211.5000;0.4558;1.1173;
211.8000;0.4648;1.1429;
212.1000;0.4558;1.1289;
212.4000;0.4558;1.1219;
212.7000;0.4526;1.1079;
213.0000;0.4542;1.1079;
213.3000;0.4567;1.1033;
213.6000;0.4542;1.1009;
213.9000;0.4542;1.0963;
214.2000;0.4567;1.1033;
214.5000;0.4550;1.1079;
214.8000;0.4567;1.1173;
215.1000;0.4542;1.1149;
215.4000;0.4534;1.1079;
215.7000;0.4558;1.1126;
216.0000;0.4534;1.0986;
216.3000;0.4550;1.0986;
216.6000;0.4567;1.0939;
216.9000;0.4534;1.0799;
217.2000;0.4558;1.0939;
217.5000;0.4542;1.0963;
217.8000;0.4542;1.0986;
218.1000;0.4542;1.1056;
218.4000;0.4534;1.1009;
218.7000;0.4542;1.0963;
219.0000;0.4526;1.0986;
219.3000;0.4591;1.1126;
219.6000;0.4518;1.0916;
219.9000;0.4575;1.1033;
220.2000;0.4469;1.0729;
220.5000;0.4518;1.0916;
220.8000;0.4599;1.1149;
221.1000;0.4542;1.1033;
221.4000;0.4534;1.0939;
221.7000;0.4526;1.0823;
222.0000;0.4550;1.0869;
222.3000;0.4534;1.0869;
222.6000;0.4526;1.0869;
222.9000;0.4542;1.0869;
223.2000;0.4550;1.0916;
223.5000;0.4550;1.0939;
223.8000;0.4534;1.1009;
224.1000;0.4534;1.0916;
224.4000;0.4607;1.1173;
224.7000;0.4558;1.1009;
225.0000;0.4567;1.1033;
225.3000;0.4518;1.0916;
225.6000;0.4534;1.0963;
225.9000;0.4542;1.1009;
226.2000;0.4550;1.1056;
226.5000;0.4526;1.0963;
226.8000;0.4485;1.0893;
227.1000;0.4542;1.1079;
227.4000;0.4542;1.1033;
227.7000;0.4558;1.0986;
228.0000;0.4485;1.0753;
228.3000;0.4567;1.0986;
228.6000;0.4558;1.0939;
228.9000;0.4542;1.0893;
229.2000;0.4534;1.0846;
229.5000;0.4542;1.0916;
229.8000;0.4550;1.1009;
230.1000;0.4542;1.1033;
230.4000;0.4534;1.1033;
230.7000;0.4534;1.1009;
231.0000;0.4542;1.1056;
231.3000;0.4534;1.1126;
231.6000;0.4534;1.1103;
231.9000;0.4542;1.1103;
232.2000;0.4542;1.1126;
232.5000;0.4558;1.0986;
232.8000;0.4558;1.1009;
233.1000;0.4550;1.0963;
233.4000;0.4542;1.1009;
233.7000;0.4534;1.1126;
234.0000;0.4558;1.1126;
234.3000;0.4550;1.1009;
234.6000;0.4542;1.1126;
234.9000;0.4501;1.1009;
235.2000;0.4534;1.1056;
235.5000;0.4534;1.1149;
235.8000;0.4550;1.1266;
236.1000;0.4526;1.1219;
236.4000;0.4534;1.1243;
236.7000;0.4534;1.1149;
237.0000;0.4534;1.1079;
237.3000;0.4518;1.1033;
237.6000;0.4526;1.1056;
237.9000;0.4526;1.0986;
238.2000;0.4550;1.1033;
238.5000;0.4542;1.0986;
238.8000;0.4526;1.0916;
239.1000;0.4550;1.0916;
239.4000;0.4542;1.0869;
239.7000;0.4542;1.0939;
240.0000;0.4550;1.1056;
240.3000;0.4526;1.1079;
240.6000;0.4550;1.1033;
240.9000;0.4567;1.1056;
241.2000;0.4550;1.0986;
241.5000;0.4550;1.1079;
241.8000;0.4534;1.1126;
242.1000;0.4510;1.1056;
242.4000;0.4534;1.1103;
242.7000;0.4534;1.1033;
243.0000;0.4550;1.1103;
243.3000;0.4567;1.1126;
243.6000;0.4534;1.1033;
243.9000;0.4526;1.1009;
244.2000;0.4550;1.1033;
244.5000;0.4550;1.1056;
244.8000;0.4656;1.1336;
245.1000;0.4567;1.1173;
245.4000;0.4567;1.1243;
245.7000;0.4542;1.1149;
246.0000;0.4558;1.1196;
246.3000;0.4575;1.1173;
246.6000;0.4542;1.1056;
246.9000;0.4550;1.1079;
247.2000;0.4510;1.0986;
247.5000;0.4615;1.1289;
247.8000;0.4542;1.1056;
248.1000;0.4510;1.0939;
248.4000;0.4485;1.0869;
248.7000;0.4526;1.1009;
249.0000;0.4615;1.1103;
249.3000;0.4575;1.1079;
249.6000;0.4558;1.0986;
249.9000;0.4558;1.0916;
250.2000;0.4550;1.0916;
250.5000;0.4550;1.0869;
250.8000;0.4534;1.0939;
251.1000;0.4510;1.0869;
251.4000;0.4526;1.0939;
251.7000;0.4518;1.0963;
252.0000;0.4526;1.0963;
252.3000;0.4510;1.0986;
252.6000;0.4550;1.1056;
252.9000;0.4526;1.0963;
253.2000;0.4518;1.0893;
253.5000;0.4518;1.0893;
253.8000;0.4542;1.0939;
254.1000;0.4526;1.0963;
254.4000;0.4534;1.1009;
254.7000;0.4542;1.1033;
255.0000;0.4526;1.1033;
255.3000;0.4567;1.1103;
255.6000;0.4542;1.1079;
255.9000;0.4534;1.1033;
256.2000;0.4542;1.1009;
256.5000;0.4526;1.1009;
256.8000;0.4567;1.1103;
257.1000;0.4542;1.1056;
257.4000;0.4542;1.1056;
257.7000;0.4542;1.0963;
258.0000;0.4534;1.0869;
258.3000;0.4542;1.0916;
258.6000;0.4518;1.0823;
258.9000;0.4493;1.0636;
259.2000;0.4534;1.0706;
259.5000;0.4542;1.0706;
259.8000;0.4510;1.0659;
260.1000;0.4542;1.0729;
260.4000;0.4550;1.0799;
260.7000;0.4534;1.0846;
261.0000;0.4526;1.0869;
261.3000;0.4518;1.0869;
261.6000;0.4534;1.0916;
261.9000;0.4510;1.0869;
262.2000;0.4510;1.0776;
262.5000;0.4518;1.0916;
262.8000;0.4526;1.0846;
263.1000;0.4583;1.0939;
263.4000;0.4518;1.0776;
263.7000;0.4526;1.0799;
264.0000;0.4542;1.0823;
264.3000;0.4534;1.0799;
264.6000;0.4567;1.0846;
264.9000;0.4558;1.0869;
265.2000;0.4493;1.0823;
265.5000;0.4567;1.0893;
265.8000;0.4526;1.0823;
266.1000;0.4534;1.0916;
266.4000;0.4510;1.0869;
266.7000;0.4461;1.0893;
267.0000;0.4477;1.0893;
267.3000;0.4534;1.1033;
267.6000;0.4534;1.1103;
267.9000;0.4534;1.1009;
268.2000;0.4550;1.1009;
268.5000;0.4542;1.0939;
268.8000;0.4550;1.0916;
269.1000;0.4526;1.0916;
269.4000;0.4591;1.1056;
269.7000;0.4550;1.0986;
270.0000;0.4526;1.0916;
270.3000;0.4518;1.0916;
270.6000;0.4542;1.0939;
270.9000;0.4534;1.0939;
271.2000;0.4526;1.0776;
271.5000;0.4534;1.0893;
271.8000;0.4567;1.0916;
272.1000;0.4518;1.0799;
272.4000;0.4656;1.1196;
272.7000;0.4534;1.0916;
273.0000;0.4567;1.0963;
273.3000;0.4526;1.0916;
273.6000;0.4485;1.0799;
273.9000;0.4534;1.0939;
274.2000;0.4599;1.1009;
274.5000;0.4518;1.0823;
274.8000;0.4518;1.0799;
275.1000;0.4550;1.0869;
275.4000;0.4534;1.0939;
275.7000;0.4542;1.1103;
276.0000;0.4534;1.1173;
276.3000;0.4534;1.1196;
276.6000;0.4510;1.1149;
276.9000;0.4542;1.1173;
277.2000;0.4599;1.1289;
277.5000;0.4518;1.1149;
277.8000;0.4518;1.1196;
278.1000;0.4518;1.1173;
278.4000;0.4542;1.1243;
278.7000;0.4591;1.1312;
279.0000;0.4550;1.1126;
279.3000;0.4542;1.1126;
279.6000;0.4526;1.1103;
279.9000;0.4526;1.1033;
280.2000;0.4518;1.0986;
280.5000;0.4542;1.1009;
280.8000;0.4477;1.0869;
281.1000;0.4510;1.0986;
281.4000;0.4534;1.1056;
281.7000;0.4526;1.1009;
282.0000;0.4534;1.1079;
282.3000;0.4526;1.1009;
282.6000;0.4534;1.0986;
282.9000;0.4510;1.0893;
283.2000;0.4510;1.0916;
283.5000;0.4534;1.1009;
283.8000;0.4550;1.1009;
284.1000;0.4534;1.0939;
284.4000;0.4534;1.0963;
284.7000;0.4542;1.1009;
285.0000;0.4534;1.0939;
285.3000;0.4558;1.1009;
285.6000;0.4542;1.0986;
285.9000;0.4510;1.0846;
286.2000;0.4567;1.1009;
286.5000;0.4534;1.0893;
286.8000;0.4518;1.0893;
287.1000;0.4550;1.0939;
287.4000;0.4575;1.1056;
287.7000;0.4542;1.0963;
288.0000;0.4526;1.1009;
288.3000;0.4510;1.1033;
288.6000;0.4615;1.1336;
288.9000;0.4526;1.1103;
289.2000;0.4558;1.1126;
289.5000;0.4558;1.1126;
289.8000;0.4599;1.1359;
290.1000;0.4510;1.1079;
290.4000;0.4526;1.1056;
290.7000;0.4591;1.1219;
291.0000;0.4518;1.0939;
291.3000;0.4510;1.0986;
291.6000;0.4534;1.1009;
291.9000;0.4542;1.1056;
292.2000;0.4542;1.1033;
292.5000;0.4542;1.1056;
292.8000;0.4542;1.1079;
293.1000;0.4518;1.0939;
293.4000;0.4591;1.1009;
293.7000;0.4567;1.0963;
294.0000;0.4526;1.0916;
294.3000;0.4469;1.0799;
294.6000;0.4542;1.1056;
294.9000;0.4526;1.1009;
295.2000;0.4534;1.1079;
295.5000;0.4567;1.1266;
295.8000;0.4542;1.1219;
296.1000;0.4534;1.1219;
296.4000;0.4550;1.1243;
296.7000;0.4534;1.1266;
297.0000;0.4542;1.1219;
297.3000;0.4542;1.1079;
297.6000;0.4542;1.0986;
297.9000;0.4461;1.0823;
298.2000;0.4542;1.0986;
298.5000;0.4542;1.1103;
298.8000;0.4558;1.1126;
299.1000;0.4607;1.1243;
299.4000;0.4526;1.0986;
299.7000;0.4534;1.1033;
300.0000;0.4501;1.0869;
300.3000;0.4550;1.0846;
300.6000;0.4534;1.0823;
300.9000;0.4542;1.0869;
301.2000;0.4542;1.0869;
301.5000;0.4534;1.0986;
301.8000;0.4534;1.0986;
302.1000;0.4542;1.1056;
302.4000;0.4534;1.1033;
302.7000;0.4558;1.1009;
303.0000;0.4542;1.1009;
303.3000;0.4526;1.0963;
303.6000;0.4510;1.0939;
303.9000;0.4542;1.0939;
304.2000;0.4534;1.0893;
304.5000;0.4558;1.0986;
304.8000;0.4567;1.1103;
305.1000;0.4542;1.1103;
305.4000;0.4526;1.1079;
305.7000;0.4542;1.1033;
306.0000;0.4550;1.0986;
306.3000;0.4518;1.0963;
306.6000;0.4550;1.1009;
306.9000;0.4542;1.0986;
307.2000;0.4526;1.0939;
307.5000;0.4534;1.0939;
307.8000;0.4542;1.1079;
308.1000;0.4542;1.1033;
308.4000;0.4534;1.0986;
308.7000;0.4526;1.0986;
309.0000;0.4542;1.0916;
309.3000;0.4526;1.0939;
309.6000;0.4518;1.1079;
309.9000;0.4526;1.1149;
310.2000;0.4550;1.1196;
310.5000;0.4518;1.1219;
310.8000;0.4615;1.1429;
311.1000;0.4518;1.1196;
311.4000;0.4534;1.1219;
311.7000;0.4534;1.1149;
312.0000;0.4632;1.1382;
312.3000;0.4542;1.1103;
312.6000;0.4526;1.1103;
312.9000;0.4477;1.1009;
313.2000;0.4534;1.1056;
313.5000;0.4526;1.1079;
313.8000;0.4461;1.0916;
314.1000;0.4567;1.1079;
314.4000;0.4550;1.0986;
314.7000;0.4583;1.1126;
315.0000;0.4534;1.1103;
315.3000;0.4542;1.1103;
315.6000;0.4591;1.1196;
315.9000;0.4526;1.0986;
316.2000;0.4542;1.1009;
316.5000;0.4550;1.1056;
316.8000;0.4526;1.0986;
317.1000;0.4550;1.1009;
317.4000;0.4510;1.0916;
317.7000;0.4534;1.1009;
318.0000;0.4526;1.0939;
318.3000;0.4453;1.0659;
318.6000;0.4534;1.0776;
318.9000;0.4575;1.0869;
319.2000;0.4542;1.0776;
319.5000;0.4534;1.0799;
319.8000;0.4526;1.0799;
320.1000;0.4526;1.0799;
320.4000;0.4640;1.1079;
320.7000;0.4558;1.0963;
321.0000;0.4575;1.1009;
321.3000;0.4526;1.0916;
321.6000;0.4526;1.0916;
321.9000;0.4583;1.1056;
322.2000;0.4542;1.0916;
322.5000;0.4485;1.0823;
322.8000;0.4558;1.0986;
323.1000;0.4567;1.1033;
323.4000;0.4518;1.1009;
323.7000;0.4534;1.0986;
324.0000;0.4534;1.0939;
324.3000;0.4526;1.0986;
324.6000;0.4567;1.1173;
324.9000;0.4542;1.1126;
325.2000;0.4542;1.1196;
325.5000;0.4542;1.1173;
325.8000;0.4542;1.1126;
326.1000;0.4526;1.1056;
326.4000;0.4526;1.1009;
326.7000;0.4444;1.0846;
327.0000;0.4558;1.0986;
327.3000;0.4542;1.0939;
327.6000;0.4542;1.0963;
327.9000;0.4526;1.1103;
328.2000;0.4558;1.1149;
328.5000;0.4591;1.1289;
328.8000;0.4534;1.1173;
329.1000;0.4534;1.1196;
329.4000;0.4550;1.1266;
329.7000;0.4558;1.1289;
330.0000;0.4518;1.1126;
330.3000;0.4526;1.1126;
330.6000;0.4542;1.1079;
330.9000;0.4518;1.0963;
331.2000;0.4534;1.0939;
331.5000;0.4567;1.1079;
331.8000;0.4550;1.1079;
332.1000;0.4558;1.1009;
332.4000;0.4542;1.0939;
332.7000;0.4526;1.0916;
333.0000;0.4518;1.0729;
333.3000;0.4558;1.0893;
333.6000;0.4534;1.0893;
333.9000;0.4534;1.0776;
334.2000;0.4526;1.0799;
334.5000;0.4510;1.0823;
334.8000;0.4526;1.0753;
335.1000;0.4518;1.0799;
335.4000;0.4534;1.0916;
335.7000;0.4534;1.1033;
336.0000;0.4550;1.1009;
336.3000;0.4526;1.0963;
336.6000;0.4526;1.1009;
336.9000;0.4567;1.1079;
337.2000;0.4550;1.1009;
337.5000;0.4526;1.1079;
337.8000;0.4542;1.1126;
338.1000;0.4526;1.1056;
338.4000;0.4534;1.1033;
338.7000;0.4534;1.1079;
339.0000;0.4518;1.0963;
339.3000;0.4558;1.1009;
339.6000;0.4542;1.0963;
339.9000;0.4534;1.1009;
340.2000;0.4518;1.1009;
340.5000;0.4534;1.1079;
340.8000;0.4534;1.1033;
341.1000;0.4542;1.1126;
341.4000;0.4534;1.1009;
341.7000;0.4534;1.0986;
342.0000;0.4534;1.0939;
342.3000;0.4436;1.0636;
342.6000;0.4493;1.0706;
342.9000;0.4534;1.0823;
343.2000;0.4542;1.0893;
343.5000;0.4567;1.0869;
343.8000;0.4526;1.0823;
344.1000;0.4526;1.0823;
344.4000;0.4493;1.0683;
344.7000;0.4493;1.0729;
345.0000;0.4510;1.0799;
345.3000;0.4534;1.0799;
345.6000;0.4632;1.1033;
345.9000;0.4510;1.0683;
346.2000;0.4558;1.0846;
346.5000;0.4550;1.0893;
346.8000;0.4526;1.0963;
347.1000;0.4550;1.1079;
347.4000;0.4542;1.1009;
347.7000;0.4534;1.0939;
348.0000;0.4542;1.0893;
348.3000;0.4558;1.0939;
348.6000;0.4567;1.1033;
348.9000;0.4542;1.0916;
349.2000;0.4542;1.0846;
349.5000;0.4526;1.0869;
349.8000;0.4542;1.0963;
350.1000;0.4558;1.0986;
350.4000;0.4542;1.0916;
350.7000;0.4583;1.0986;
351.0000;0.4518;1.0893;
351.3000;0.4526;1.0799;
351.6000;0.4550;1.0776;
351.9000;0.4550;1.0823;
352.2000;0.4550;1.0753;
352.5000;0.4550;1.0776;
352.8000;0.4550;1.0823;
353.1000;0.4534;1.0706;
353.4000;0.4542;1.0753;
353.7000;0.4542;1.0799;
354.0000;0.4510;1.0706;
354.3000;0.4518;1.0753;
354.6000;0.4550;1.0753;
354.9000;0.4542;1.0729;
355.2000;0.4607;1.1056;
355.5000;0.4493;1.0799;
355.8000;0.4518;1.0823;
356.1000;0.4591;1.1056;
356.4000;0.4534;1.0963;
356.7000;0.4550;1.0916;
357.0000;0.4526;1.0846;
357.3000;0.4526;1.0776;
357.6000;0.4542;1.0799;
357.9000;0.4542;1.0893;
358.2000;0.4575;1.0939;
358.5000;0.4567;1.0939;
358.8000;0.4575;1.1103;
359.1000;0.4542;1.1126;
359.4000;0.4575;1.1219;
359.7000;0.4534;1.1149;
360.0000;0.4526;1.1009;
360.3000;0.4542;1.1033;
360.6000;0.4583;1.1126;
360.9000;0.4550;1.1079;
361.2000;0.4493;1.0916;
361.5000;0.4526;1.0893;
361.8000;0.4526;1.0893;
362.1000;0.4477;1.0753;
362.4000;0.4550;1.0823;
362.7000;0.4526;1.0729;
363.0000;0.4534;1.0753;
363.3000;0.4526;1.0846;
363.6000;0.4550;1.0986;
363.9000;0.4534;1.0986;
364.2000;0.4550;1.1009;
364.5000;0.4542;1.1079;
364.8000;0.4534;1.0986;
365.1000;0.4534;1.0986;
365.4000;0.4591;1.1243;
365.7000;0.4518;1.0939;
366.0000;0.4518;1.1033;
366.3000;0.4526;1.1009;
366.6000;0.4567;1.1009;
366.9000;0.4534;1.1033;
367.2000;0.4526;1.0939;
367.5000;0.4534;1.0986;
367.8000;0.4567;1.1056;
368.1000;0.4591;1.1103;
368.4000;0.4444;1.0823;
368.7000;0.4526;1.0986;
369.0000;0.4518;1.0963;
369.3000;0.4518;1.0986;
369.6000;0.4501;1.1009;
369.9000;0.4510;1.1009;
370.2000;0.4518;1.1056;
370.5000;0.4518;1.1033;
370.8000;0.4518;1.0986;
371.1000;0.4485;1.0916;
371.4000;0.4534;1.0963;
371.7000;0.4510;1.0869;
372.0000;0.4534;1.1033;
372.3000;0.4615;1.1243;
372.6000;0.4510;1.0963;
372.9000;0.4501;1.0869;
373.2000;0.4518;1.0869;
373.5000;0.4534;1.0939;
373.8000;0.4550;1.0986;
374.1000;0.4542;1.0963;
374.4000;0.4534;1.0939;
374.7000;0.4567;1.0986;
375.0000;0.4534;1.0939;
375.3000;0.4534;1.0963;
375.6000;0.4518;1.0963;
375.9000;0.4534;1.0963;
376.2000;0.4542;1.0963;
376.5000;0.4518;1.0893;
376.8000;0.4501;1.0893;
377.1000;0.4542;1.1056;
377.4000;0.4510;1.1009;
377.7000;0.4534;1.0986;
378.0000;0.4648;1.1289;
378.3000;0.4493;1.0823;
378.6000;0.4526;1.0986;
378.9000;0.4542;1.1056;
379.2000;0.4526;1.1126;
379.5000;0.4493;1.1079;
379.8000;0.4591;1.1149;
380.1000;0.4469;1.0916;
380.4000;0.4526;1.1033;
380.7000;0.4493;1.0893;
381.0000;0.4510;1.0939;
381.3000;0.4567;1.1079;
381.6000;0.4510;1.0939;
381.9000;0.4534;1.0963;
382.2000;0.4461;1.0799;
382.5000;0.4518;1.0963;
382.8000;0.4501;1.0893;
383.1000;0.4542;1.0869;
383.4000;0.4534;1.0823;
383.7000;0.4518;1.0916;
384.0000;0.4534;1.0963;
384.3000;0.4648;1.1196;
384.6000;0.4526;1.0893;
384.9000;0.4558;1.0986;
385.2000;0.4534;1.0939;
385.5000;0.4510;1.0916;
385.8000;0.4567;1.1009;
386.1000;0.4477;1.0659;
386.4000;0.4501;1.0706;
386.7000;0.4518;1.0706;
387.0000;0.4526;1.0683;
387.3000;0.4526;1.0683;
387.6000;0.4493;1.0636;
387.9000;0.4518;1.0706;
388.2000;0.4526;1.0846;
388.5000;0.4526;1.0869;
388.8000;0.4510;1.0939;
389.1000;0.4493;1.0916;
389.4000;0.4526;1.1009;
389.7000;0.4510;1.0939;
390.0000;0.4526;1.0846;
390.3000;0.4534;1.0776;
390.6000;0.4534;1.0869;
390.9000;0.4526;1.0823;
391.2000;0.4542;1.0753;
391.5000;0.4526;1.0706;
391.8000;0.4526;1.0683;
392.1000;0.4558;1.0799;
392.4000;0.4542;1.0753;
392.7000;0.4558;1.0823;
393.0000;0.4542;1.0799;
393.3000;0.4534;1.0823;
393.6000;0.4542;1.0823;
393.9000;0.4518;1.0776;
394.2000;0.4518;1.0869;
394.5000;0.4526;1.0799;
394.8000;0.4526;1.0799;
395.1000;0.4510;1.0799;
395.4000;0.4510;1.0753;
395.7000;0.4518;1.0823;
396.0000;0.4518;1.0823;
396.3000;0.4534;1.0916;
396.6000;0.4558;1.0963;
396.9000;0.4542;1.0939;
397.2000;0.4534;1.0986;
397.5000;0.4526;1.1033;
397.8000;0.4534;1.0986;
398.1000;0.4518;1.0893;
398.4000;0.4526;1.0869;
398.7000;0.4501;1.0963;
399.0000;0.4510;1.1033;
399.3000;0.4534;1.1103;
399.6000;0.4534;1.1103;
399.9000;0.4534;1.1126;
400.2000;0.4501;1.1126;
400.5000;0.4550;1.1289;
400.8000;0.4534;1.1219;
401.1000;0.4542;1.1149;
401.4000;0.4518;1.1126;
401.7000;0.4501;1.1033;
402.0000;0.4526;1.1126;
402.3000;0.4526;1.1149;
402.6000;0.4518;1.1056;
402.9000;0.4518;1.1056;
403.2000;0.4542;1.1103;
403.5000;0.4550;1.1126;
403.8000;0.4518;1.1126;
404.1000;0.4493;1.1056;
404.4000;0.4542;1.1103;
404.7000;0.4526;1.0986;
405.0000;0.4526;1.1033;
405.3000;0.4534;1.1126;
405.6000;0.4575;1.1149;
405.9000;0.4542;1.1056;
406.2000;0.4477;1.0939;
406.5000;0.4550;1.1126;
406.8000;0.4493;1.0986;
407.1000;0.4542;1.1009;
407.4000;0.4534;1.0963;
407.7000;0.4526;1.0963;
408.0000;0.4534;1.0939;
408.3000;0.4518;1.0939;
408.6000;0.4575;1.1126;
408.9000;0.4518;1.0963;
409.2000;0.4510;1.0963;
409.5000;0.4567;1.1126;
409.8000;0.4534;1.1009;
410.1000;0.4526;1.0916;
410.4000;0.4542;1.0963;
410.7000;0.4526;1.0939;
411.0000;0.4542;1.0893;
411.3000;0.4542;1.0893;
411.6000;0.4534;1.0893;
411.9000;0.4518;1.0846;
412.2000;0.4558;1.0986;
412.5000;0.4534;1.0916;
412.8000;0.4526;1.0869;
413.1000;0.4518;1.0823;
413.4000;0.4469;1.0729;
413.7000;0.4534;1.0846;
414.0000;0.4501;1.0776;
414.3000;0.4542;1.0939;
414.6000;0.4542;1.0939;
414.9000;0.4534;1.0869;
415.2000;0.4534;1.0939;
415.5000;0.4599;1.1009;
415.8000;0.4526;1.0799;
416.1000;0.4534;1.0753;
416.4000;0.4542;1.0753;
416.7000;0.4534;1.0776;
417.0000;0.4534;1.0893;
417.3000;0.4534;1.0939;
417.6000;0.4542;1.0939;
417.9000;0.4534;1.0939;
418.2000;0.4542;1.0893;
418.5000;0.4550;1.1009;
418.8000;0.4567;1.1103;
419.1000;0.4534;1.1033;
419.4000;0.4526;1.1009;
419.7000;0.4526;1.0963;
420.0000;0.4550;1.0963;
420.3000;0.4526;1.0869;
420.6000;0.4542;1.0823;
420.9000;0.4444;1.0519;
421.2000;0.4534;1.0729;
421.5000;0.4477;1.0799;
421.8000;0.4510;1.0963;
422.1000;0.4510;1.0963;
422.4000;0.4526;1.0939;
422.7000;0.4575;1.1126;
423.0000;0.4510;1.0963;
423.3000;0.4526;1.0963;
423.6000;0.4493;1.0893;
423.9000;0.4501;1.0939;
424.2000;0.4526;1.1056;
424.5000;0.4542;1.1033;
424.8000;0.4534;1.1009;
425.1000;0.4542;1.1056;
425.4000;0.4526;1.0963;
425.7000;0.4583;1.1009;
426.0000;0.4501;1.0776;
426.3000;0.4534;1.0916;
426.6000;0.4534;1.0799;
426.9000;0.4567;1.0869;
427.2000;0.4501;1.0776;
427.5000;0.4518;1.0823;
427.8000;0.4510;1.0799;
428.1000;0.4518;1.0729;
428.4000;0.4542;1.0753;
428.7000;0.4534;1.0683;
429.0000;0.4534;1.0823;
429.3000;0.4526;1.0846;
429.6000;0.4534;1.0846;
429.9000;0.4518;1.0893;
430.2000;0.4493;1.0776;
430.5000;0.4501;1.0799;
430.8000;0.4469;1.0683;
431.1000;0.4526;1.0706;
431.4000;0.4518;1.0706;
431.7000;0.4534;1.0799;
432.0000;0.4510;1.0823;
432.3000;0.4526;1.0799;
432.6000;0.4526;1.0869;
432.9000;0.4542;1.0799;
433.2000;0.4510;1.0659;
433.5000;0.4640;1.1033;
433.8000;0.4510;1.0659;
434.1000;0.4534;1.0636;
434.4000;0.4558;1.0659;
434.7000;0.4518;1.0636;
435.0000;0.4526;1.0706;
435.3000;0.4534;1.0636;
435.6000;0.4526;1.0589;
435.9000;0.4534;1.0566;
436.2000;0.4526;1.0519;
436.5000;0.4583;1.0729;
436.8000;0.4534;1.0683;
437.1000;0.4526;1.0823;
437.4000;0.4558;1.0939;
437.7000;0.4534;1.0893;
438.0000;0.4534;1.0846;
438.3000;0.4518;1.0846;
438.6000;0.4542;1.0893;
438.9000;0.4534;1.0799;
439.2000;0.4534;1.0799;
439.5000;0.4485;1.0659;
439.8000;0.4526;1.0799;
440.1000;0.4526;1.0776;
440.4000;0.4534;1.0729;
440.7000;0.4526;1.0706;
441.0000;0.4534;1.0659;
441.3000;0.4518;1.0613;
441.6000;0.4567;1.0799;
441.9000;0.4542;1.0659;
442.2000;0.4632;1.0939;
442.5000;0.4534;1.0659;
442.8000;0.4567;1.0706;
443.1000;0.4526;1.0729;
443.4000;0.4558;1.0799;
443.7000;0.4526;1.0706;
444.0000;0.4518;1.0799;
444.3000;0.4542;1.0823;
444.6000;0.4542;1.0916;
444.9000;0.4477;1.0706;
445.2000;0.4526;1.0729;
445.5000;0.4542;1.0776;
445.8000;0.4518;1.0846;
446.1000;0.4534;1.0869;
446.4000;0.4526;1.0916;
446.7000;0.4444;1.0776;
447.0000;0.4648;1.1289;
447.3000;0.4526;1.0916;
447.6000;0.4542;1.0916;
447.9000;0.4567;1.0986;
448.2000;0.4518;1.0846;
448.5000;0.4510;1.0893;
448.8000;0.4518;1.0986;
449.1000;0.4510;1.0963;
449.4000;0.4510;1.0963;
449.7000;0.4526;1.1009;
450.0000;0.4518;1.0939;
450.3000;0.4526;1.0893;
450.6000;0.4534;1.0846;
450.9000;0.4518;1.0753;
451.2000;0.4542;1.0753;
451.5000;0.4534;1.0706;
451.8000;0.4518;1.0706;
452.1000;0.4510;1.0753;
452.4000;0.4526;1.0683;
452.7000;0.4526;1.0613;
453.0000;0.4542;1.0543;
453.3000;0.4493;1.0449;
453.6000;0.4534;1.0613;
453.9000;0.4534;1.0613;
454.2000;0.4534;1.0566;
454.5000;0.4567;1.0659;
454.8000;0.4550;1.0706;
455.1000;0.4534;1.0636;
455.4000;0.4534;1.0729;
455.7000;0.4615;1.1009;
456.0000;0.4607;1.1103;
456.3000;0.4396;1.0473;
456.6000;0.4526;1.0706;
456.9000;0.4518;1.0776;
457.2000;0.4526;1.0939;
457.5000;0.4534;1.0939;
457.8000;0.4518;1.0846;
458.1000;0.4599;1.0986;
458.4000;0.4485;1.0613;
458.7000;0.4534;1.0823;
459.0000;0.4550;1.0869;
459.3000;0.4526;1.0869;
459.6000;0.4501;1.0916;
459.9000;0.4526;1.1009;
460.2000;0.4501;1.0939;
460.5000;0.4534;1.0939;
460.8000;0.4534;1.0846;
461.1000;0.4526;1.0869;
461.4000;0.4542;1.0939;
461.7000;0.4534;1.0986;
462.0000;0.4558;1.1056;
462.3000;0.4518;1.1033;
462.6000;0.4493;1.1009;
462.9000;0.4567;1.1126;
463.2000;0.4526;1.1103;
463.5000;0.4518;1.1079;
463.8000;0.4526;1.1079;
464.1000;0.4518;1.0986;
464.4000;0.4518;1.1009;
464.7000;0.4550;1.1126;
465.0000;0.4510;1.0986;
465.3000;0.4501;1.0939;
465.6000;0.4477;1.0963;
465.9000;0.4526;1.0963;
466.2000;0.4493;1.0893;
466.5000;0.4510;1.0939;
466.8000;0.4493;1.0846;
467.1000;0.4526;1.0916;
467.4000;0.4534;1.0986;
467.7000;0.4550;1.1009;
468.0000;0.4493;1.0893;
468.3000;0.4518;1.1033;
468.6000;0.4534;1.1009;
468.9000;0.4526;1.1056;
469.2000;0.4518;1.0963;
469.5000;0.4518;1.0893;
469.8000;0.4542;1.0963;
470.1000;0.4518;1.0986;
470.4000;0.4550;1.1056;
470.7000;0.4428;1.0846;
471.0000;0.4632;1.1359;
471.3000;0.4493;1.1009;
471.6000;0.4534;1.1056;
471.9000;0.4526;1.1009;
472.2000;0.4518;1.0963;
472.5000;0.4510;1.0939;
472.8000;0.4510;1.0916;
473.1000;0.4510;1.0869;
473.4000;0.4526;1.0823;
473.7000;0.4518;1.0846;
474.0000;0.4518;1.0846;
474.3000;0.4542;1.0939;
474.6000;0.4493;1.0799;
474.9000;0.4534;1.0799;
475.2000;0.4534;1.0986;
475.5000;0.4510;1.0893;
475.8000;0.4477;1.0846;
476.1000;0.4518;1.0869;
476.4000;0.4469;1.0799;
476.7000;0.4510;1.0893;
477.0000;0.4469;1.0799;
477.3000;0.4485;1.0823;
477.6000;0.4428;1.0706;
477.9000;0.4501;1.0846;
478.2000;0.4501;1.0776;
478.5000;0.4534;1.0916;
478.8000;0.4485;1.0776;
479.1000;0.4510;1.0846;
479.4000;0.4534;1.1009;
479.7000;0.4453;1.0799;
480.0000;0.4534;1.0963;
480.3000;0.4501;1.0846;
480.6000;0.4526;1.0916;
480.9000;0.4550;1.1079;
481.2000;0.4542;1.1033;
481.5000;0.4501;1.0963;
481.8000;0.4510;1.1033;
482.1000;0.4526;1.1056;
482.4000;0.4412;1.0706;
482.7000;0.4526;1.1056;
483.0000;0.4518;1.1056;
483.3000;0.4501;1.1033;
483.6000;0.4510;1.0963;
483.9000;0.4534;1.0939;
484.2000;0.4510;1.0823;
484.5000;0.4518;1.0846;
484.8000;0.4518;1.0916;
485.1000;0.4518;1.0963;
485.4000;0.4510;1.0963;
485.7000;0.4526;1.0963;
486.0000;0.4526;1.0986;
486.3000;0.4534;1.1009;
486.6000;0.4526;1.0986;
486.9000;0.4526;1.1009;
487.2000;0.4510;1.0963;
487.5000;0.4526;1.0986;
487.8000;0.4526;1.1009;
488.1000;0.4510;1.0986;
488.4000;0.4493;1.0916;
488.7000;0.4518;1.1009;
489.0000;0.4501;1.1009;
489.3000;0.4510;1.0963;
489.6000;0.4526;1.0963;
489.9000;0.4501;1.0846;
490.2000;0.4526;1.0893;
490.5000;0.4534;1.0939;
490.8000;0.4526;1.0939;
491.1000;0.4510;1.0823;
491.4000;0.4526;1.0986;
491.7000;0.4526;1.0963;
492.0000;0.4518;1.0963;
492.3000;0.4518;1.0986;
492.6000;0.4501;1.0893;
492.9000;0.4469;1.0776;
493.2000;0.4510;1.0869;
493.5000;0.4501;1.0823;
493.8000;0.4526;1.0869;
494.1000;0.4510;1.0869;
494.4000;0.4510;1.0869;
494.7000;0.4615;1.1219;
495.0000;0.4485;1.0799;
495.3000;0.4501;1.0776;
495.6000;0.4534;1.0823;
495.9000;0.4542;1.0846;
496.2000;0.4518;1.0846;
496.5000;0.4510;1.0799;
496.8000;0.4550;1.0916;
497.1000;0.4526;1.0823;
497.4000;0.4518;1.0776;
497.7000;0.4485;1.0753;
498.0000;0.4526;1.0963;
498.3000;0.4518;1.0939;
498.6000;0.4501;1.0823;
498.9000;0.4542;1.0916;
499.2000;0.4518;1.0799;
499.5000;0.4510;1.0939;
499.8000;0.4542;1.0986;
500.1000;0.4510;1.0893;
500.4000;0.4518;1.0916;
500.7000;0.4485;1.0753;
501.0000;0.4526;1.0893;
501.3000;0.4526;1.0916;
501.6000;0.4485;1.0916;
501.9000;0.4518;1.1103;
502.2000;0.4607;1.1312;
502.5000;0.4485;1.0986;
502.8000;0.4550;1.1056;
503.1000;0.4534;1.1103;
503.4000;0.4518;1.1149;
503.7000;0.4518;1.1103;
504.0000;0.4510;1.1126;
504.3000;0.4469;1.1009;
504.6000;0.4542;1.1196;
504.9000;0.4501;1.1103;
505.2000;0.4518;1.1033;
505.5000;0.4526;1.0939;
505.8000;0.4550;1.0893;
506.1000;0.4550;1.0869;
506.4000;0.4567;1.0963;
506.7000;0.4526;1.0893;
507.0000;0.4518;1.0893;
507.3000;0.4550;1.1009;
507.6000;0.4510;1.0939;
507.9000;0.4534;1.1009;
508.2000;0.4534;1.1056;
508.5000;0.4510;1.0963;
508.8000;0.4518;1.1056;
509.1000;0.4510;1.1056;
509.4000;0.4518;1.1126;
509.7000;0.4526;1.1149;
510.0000;0.4558;1.1173;
510.3000;0.4534;1.1103;
510.6000;0.4510;1.1056;
510.9000;0.4526;1.1149;
511.2000;0.4477;1.1126;
511.5000;0.4518;1.1289;
511.8000;0.4534;1.1289;
512.1000;0.4526;1.1103;
512.4000;0.4526;1.1126;
512.7000;0.4501;1.1126;
513.0000;0.4510;1.1056;
513.3000;0.4526;1.1056;
513.6000;0.4510;1.1103;
513.9000;0.4526;1.1126;
514.2000;0.4501;1.1079;
514.5000;0.4526;1.1173;
514.8000;0.4453;1.0986;
515.1000;0.4526;1.1173;
515.4000;0.4510;1.1173;
515.7000;0.4518;1.1149;
516.0000;0.4526;1.1149;
516.3000;0.4518;1.1103;
516.6000;0.4591;1.1289;
516.9000;0.4518;1.1103;
517.2000;0.4542;1.1033;
517.5000;0.4493;1.0916;
517.8000;0.4518;1.1033;
518.1000;0.4534;1.1009;
518.4000;0.4542;1.1079;
518.7000;0.4542;1.1079;
519.0000;0.4510;1.1009;
519.3000;0.4526;1.1103;
519.6000;0.4493;1.1009;
519.9000;0.4510;1.1033;
520.2000;0.4526;1.1103;
520.5000;0.4493;1.1056;
520.8000;0.4518;1.1079;
521.1000;0.4518;1.1103;
521.4000;0.4526;1.1103;
521.7000;0.4518;1.1149;
522.0000;0.4534;1.1173;
522.3000;0.4510;1.1033;
522.6000;0.4501;1.0986;
522.9000;0.4469;1.0939;
523.2000;0.4518;1.1126;
523.5000;0.4542;1.1196;
523.8000;0.4518;1.1126;
524.1000;0.4510;1.1103;
524.4000;0.4542;1.1173;
524.7000;0.4518;1.1243;
525.0000;0.4526;1.1219;
525.3000;0.4510;1.1196;
525.6000;0.4501;1.1149;
525.9000;0.4558;1.1289;
526.2000;0.4526;1.1243;
526.5000;0.4477;1.1126;
526.8000;0.4510;1.1126;
527.1000;0.4518;1.1196;
527.4000;0.4575;1.1336;
527.7000;0.4518;1.1126;
528.0000;0.4518;1.1126;
528.3000;0.4534;1.1196;
528.6000;0.4526;1.1149;
528.9000;0.4518;1.1056;
529.2000;0.4510;1.1033;
529.5000;0.4567;1.1173;
529.8000;0.4510;1.1056;
530.1000;0.4518;1.1033;
530.4000;0.4444;1.0846;
530.7000;0.4493;1.1009;
531.0000;0.4485;1.1103;
531.3000;0.4510;1.1173;
531.6000;0.4542;1.1196;
531.9000;0.4542;1.1266;
532.2000;0.4648;1.1546;
532.5000;0.4518;1.1196;
532.8000;0.4501;1.1126;
533.1000;0.4518;1.1196;
533.4000;0.4501;1.1173;
533.7000;0.4518;1.1149;
534.0000;0.4518;1.1033;
534.3000;0.4493;1.1033;
534.6000;0.4501;1.1033;
534.9000;0.4550;1.1056;
535.2000;0.4518;1.0986;
535.5000;0.4518;1.0916;
535.8000;0.4510;1.0893;
536.1000;0.4518;1.0893;
536.4000;0.4526;1.0986;
536.7000;0.4477;1.0893;
537.0000;0.4518;1.0846;
537.3000;0.4461;1.0683;
537.6000;0.4518;1.0939;
537.9000;0.4542;1.0963;
538.2000;0.4461;1.0869;
538.5000;0.4518;1.1056;
538.8000;0.4518;1.0986;
539.1000;0.4477;1.0869;
539.4000;0.4526;1.1009;
539.7000;0.4558;1.1056;
540.0000;0.4526;1.1126;
540.3000;0.4493;1.1033;
540.6000;0.4477;1.1033;
540.9000;0.4501;1.1056;
541.2000;0.4461;1.0986;
541.5000;0.4518;1.1149;
541.8000;0.4575;1.1243;
542.1000;0.4526;1.1103;
542.4000;0.4518;1.1079;
542.7000;0.4518;1.1149;
543.0000;0.4534;1.1266;
543.3000;0.4518;1.1243;
543.6000;0.4526;1.1289;
543.9000;0.4518;1.1243;
544.2000;0.4526;1.1219;
544.5000;0.4510;1.1149;
544.8000;0.4518;1.1196;
545.1000;0.4518;1.1173;
545.4000;0.4510;1.1196;
545.7000;0.4510;1.1196;
546.0000;0.4518;1.1196;
546.3000;0.4510;1.1196;
546.6000;0.4526;1.1173;
546.9000;0.4485;1.1103;
547.2000;0.4526;1.1289;
547.5000;0.4510;1.1266;
547.8000;0.4526;1.1336;
548.1000;0.4542;1.1266;
548.4000;0.4526;1.1289;
548.7000;0.4501;1.1219;
549.0000;0.4518;1.1196;
549.3000;0.4526;1.1126;
549.6000;0.4485;1.1056;
549.9000;0.4526;1.1196;
550.2000;0.4526;1.1243;
550.5000;0.4575;1.1382;
550.8000;0.4510;1.1173;
551.1000;0.4501;1.1079;
551.4000;0.4526;1.1126;
551.7000;0.4518;1.1173;
552.0000;0.4501;1.1149;
552.3000;0.4501;1.1103;
552.6000;0.4510;1.1079;
552.9000;0.4542;1.1079;
553.2000;0.4493;1.0986;
553.5000;0.4558;1.1126;
553.8000;0.4518;1.0939;
554.1000;0.4518;1.0986;
554.4000;0.4453;1.0846;
554.7000;0.4518;1.0986;
555.0000;0.4501;1.1079;
555.3000;0.4526;1.1079;
555.6000;0.4534;1.1149;
555.9000;0.4534;1.1173;
556.2000;0.4485;1.1173;
556.5000;0.4526;1.1219;
556.8000;0.4534;1.1266;
557.1000;0.4518;1.1219;
557.4000;0.4526;1.1219;
557.7000;0.4575;1.1382;
558.0000;0.4550;1.1196;
558.3000;0.4534;1.1033;
558.6000;0.4518;1.0986;
558.9000;0.4542;1.1079;
559.2000;0.4518;1.1103;
559.5000;0.4518;1.1149;
559.8000;0.4518;1.1126;
560.1000;0.4518;1.1079;
560.4000;0.4510;1.1149;
560.7000;0.4510;1.1079;
561.0000;0.4501;1.1056;
561.3000;0.4534;1.1103;
561.6000;0.4518;1.1103;
561.9000;0.4518;1.1126;
562.2000;0.4493;1.1033;
562.5000;0.4518;1.1126;
562.8000;0.4550;1.1289;
563.1000;0.4534;1.1266;
563.4000;0.4518;1.1336;
563.7000;0.4518;1.1266;
564.0000;0.4501;1.1266;
564.3000;0.4534;1.1382;
564.6000;0.4526;1.1429;
564.9000;0.4518;1.1476;
565.2000;0.4534;1.1616;
565.5000;0.4501;1.1499;
565.8000;0.4518;1.1452;
566.1000;0.4518;1.1452;
566.4000;0.4493;1.1359;
566.7000;0.4510;1.1429;
567.0000;0.4534;1.1382;
567.3000;0.4510;1.1312;
567.6000;0.4501;1.1243;
567.9000;0.4526;1.1312;
568.2000;0.4518;1.1219;
568.5000;0.4510;1.1173;
568.8000;0.4550;1.1289;
569.1000;0.4510;1.1312;
569.4000;0.4526;1.1289;
569.7000;0.4526;1.1219;
570.0000;0.4542;1.1336;
570.3000;0.4534;1.1312;
570.6000;0.4518;1.1149;
570.9000;0.4510;1.1103;
571.2000;0.4501;1.1126;
571.5000;0.4550;1.1126;
571.8000;0.4518;1.1056;
572.1000;0.4477;1.1009;
572.4000;0.4493;1.1079;
572.7000;0.4534;1.1149;
573.0000;0.4518;1.1079;
573.3000;0.4583;1.1196;
573.6000;0.4534;1.1033;
573.9000;0.4501;1.0963;
574.2000;0.4518;1.1009;
574.5000;0.4518;1.0963;
574.8000;0.4518;1.0916;
575.1000;0.4526;1.0846;
575.4000;0.4518;1.0846;
575.7000;0.4518;1.0799;
576.0000;0.4534;1.0939;
576.3000;0.4591;1.1243;
576.6000;0.4583;1.1079;
576.9000;0.4510;1.0963;
577.2000;0.4583;1.1033;
577.5000;0.4485;1.0846;
577.8000;0.4518;1.0916;
578.1000;0.4526;1.0963;
578.4000;0.4550;1.0986;
578.7000;0.4510;1.0963;
579.0000;0.4526;1.1009;
579.3000;0.4510;1.0986;
579.6000;0.4518;1.1033;
579.9000;0.4518;1.1009;
580.2000;0.4518;1.0963;
580.5000;0.4518;1.0916;
580.8000;0.4518;1.0986;
581.1000;0.4510;1.0893;
581.4000;0.4518;1.0823;
581.7000;0.4526;1.0823;
582.0000;0.4469;1.0799;
582.3000;0.4518;1.0963;
582.6000;0.4510;1.0986;
582.9000;0.4493;1.1056;
583.2000;0.4493;1.0986;
583.5000;0.4485;1.0869;
583.8000;0.4510;1.0986;
584.1000;0.4518;1.0893;
584.4000;0.4518;1.0939;
584.7000;0.4534;1.0869;
585.0000;0.4534;1.0916;
585.3000;0.4534;1.0893;
585.6000;0.4510;1.0846;
585.9000;0.4510;1.0893;
586.2000;0.4518;1.0893;
586.5000;0.4526;1.0869;
586.8000;0.4526;1.0846;
587.1000;0.4510;1.0869;
587.4000;0.4526;1.1033;
587.7000;0.4518;1.1056;
588.0000;0.4510;1.0986;
588.3000;0.4518;1.1009;
588.6000;0.4510;1.1079;
588.9000;0.4485;1.1079;
589.2000;0.4510;1.1243;
589.5000;0.4493;1.1126;
589.8000;0.4510;1.1126;
590.1000;0.4518;1.1079;
590.4000;0.4518;1.1056;
590.7000;0.4493;1.1033;
591.0000;0.4510;1.1079;
591.3000;0.4534;1.1009;
591.6000;0.4493;1.0916;
591.9000;0.4477;1.0846;
592.2000;0.4510;1.0939;
592.5000;0.4510;1.0963;
592.8000;0.4558;1.1079;
593.1000;0.4510;1.0986;
593.4000;0.4526;1.1079;
593.7000;0.4518;1.1103;
594.0000;0.4599;1.1336;
594.3000;0.4510;1.1126;
594.6000;0.4510;1.1056;
594.9000;0.4526;1.1079;
595.2000;0.4510;1.1009;
595.5000;0.4493;1.0939;
595.8000;0.4501;1.0986;
596.1000;0.4583;1.1173;
596.4000;0.4510;1.1009;
596.7000;0.4518;1.0986;
597.0000;0.4510;1.0986;
597.3000;0.4510;1.1009;
597.6000;0.4510;1.1009;
597.9000;0.4542;1.1079;
598.2000;0.4518;1.1009;
598.5000;0.4510;1.1079;
598.8000;0.4518;1.1033;
599.1000;0.4493;1.1009;
599.4000;0.4615;1.1266;
599.7000;0.4501;1.0823;
600.0000;0.4526;1.0846;
600.3000;0.4526;1.0683;
600.6000;0.4558;1.0683;
600.9000;0.4558;1.0659;
601.2000;0.4558;1.0706;
601.5000;0.4534;1.0589;
601.8000;0.4550;1.0519;
602.1000;0.4493;1.0310;
602.4000;0.4453;1.0193;
602.7000;0.4477;1.0310;
603.0000;0.4428;1.0100;
603.3000;0.4428;1.0076;
603.6000;0.4420;1.0006;
603.9000;0.4379;0.9866;
604.2000;0.4379;0.9633;
604.5000;0.4379;0.9540;
604.8000;0.4322;0.9493;
605.1000;0.4330;0.9586;
605.4000;0.4290;0.9586;
605.7000;0.4282;0.9516;
606.0000;0.4233;0.9423;
606.3000;0.4249;0.9447;
606.6000;0.4265;0.9540;
606.9000;0.4160;0.9353;
607.2000;0.4208;0.9563;
607.5000;0.4168;0.9447;
607.8000;0.4184;0.9447;
608.1000;0.4176;0.9516;
608.4000;0.4168;0.9423;
608.7000;0.4249;0.9703;
609.0000;0.4127;0.9423;
609.3000;0.4119;0.9377;
609.6000;0.4135;0.9423;
609.9000;0.4143;0.9493;
610.2000;0.4094;0.9330;
610.5000;0.3989;0.9143;
610.8000;0.4078;0.9353;
611.1000;0.3997;0.9283;
611.4000;0.4037;0.9377;
611.7000;0.4054;0.9470;
612.0000;0.4062;0.9563;
612.3000;0.4029;0.9423;
612.6000;0.4086;0.9423;
612.9000;0.4054;0.9237;
613.2000;0.4021;0.9307;
613.5000;0.4013;0.9423;
613.8000;0.4046;0.9470;
614.1000;0.3972;0.9283;
614.4000;0.4029;0.9423;
614.7000;0.3964;0.9377;
615.0000;0.3891;0.9213;
615.3000;0.3940;0.9330;
615.6000;0.3932;0.9330;
615.9000;0.3972;0.9377;
616.2000;0.3923;0.9213;
616.5000;0.3932;0.9260;
616.8000;0.3980;0.9353;
617.1000;0.3907;0.9237;
617.4000;0.3915;0.9237;
617.7000;0.3907;0.9190;
618.0000;0.3980;0.9377;
618.3000;0.3907;0.9213;
618.6000;0.3883;0.9120;
618.9000;0.3867;0.9097;
619.2000;0.3899;0.9097;
619.5000;0.3891;0.9237;
619.8000;0.3834;0.9237;
620.1000;0.3842;0.9190;
620.4000;0.3850;0.9213;
620.7000;0.3842;0.9120;
621.0000;0.3858;0.9073;
621.3000;0.3826;0.9003;
621.6000;0.3818;0.9003;
621.9000;0.3818;0.9167;
622.2000;0.3801;0.9167;
622.5000;0.3801;0.9237;
622.8000;0.3850;0.9307;
623.1000;0.3785;0.9167;
623.4000;0.3793;0.9190;
623.7000;0.3777;0.9143;
624.0000;0.3736;0.9097;
624.3000;0.3777;0.9260;
624.6000;0.3826;0.9377;
624.9000;0.3761;0.9190;
625.2000;0.3744;0.9073;
625.5000;0.3753;0.9167;
625.8000;0.3696;0.9050;
626.1000;0.3753;0.9307;
626.4000;0.3736;0.9377;
626.7000;0.3753;0.9353;
627.0000;0.3720;0.9260;
627.3000;0.3728;0.9213;
627.6000;0.3736;0.9167;
627.9000;0.3687;0.9120;
628.2000;0.3712;0.9213;
628.5000;0.3679;0.9143;
628.8000;0.3696;0.9143;
629.1000;0.3712;0.9213;
629.4000;0.3704;0.9353;
629.7000;0.3728;0.9516;
630.0000;0.3712;0.9447;
630.3000;0.3720;0.9493;
630.6000;0.3712;0.9423;
630.9000;0.3679;0.9330;
631.2000;0.3663;0.9283;
631.5000;0.3696;0.9377;
631.8000;0.3663;0.9353;
632.1000;0.3663;0.9330;
632.4000;0.3639;0.9283;
632.7000;0.3533;0.9097;
633.0000;0.3614;0.9377;
633.3000;0.3639;0.9470;
633.6000;0.3647;0.9447;
633.9000;0.3630;0.9307;
634.2000;0.3630;0.9283;
634.5000;0.3582;0.9097;
634.8000;0.3622;0.9260;
635.1000;0.3622;0.9330;
635.4000;0.3655;0.9423;
635.7000;0.3614;0.9260;
636.0000;0.3606;0.9260;
636.3000;0.3598;0.9190;
636.6000;0.3590;0.9167;
636.9000;0.3614;0.9097;
637.2000;0.3598;0.8933;
637.5000;0.3606;0.9027;
637.8000;0.3606;0.9027;
638.1000;0.3590;0.9097;
638.4000;0.3598;0.9143;
638.7000;0.3582;0.9097;
639.0000;0.3598;0.9097;
639.3000;0.3590;0.9120;
639.6000;0.3582;0.9190;
639.9000;0.3606;0.9213;
640.2000;0.3573;0.9143;
640.5000;0.3582;0.9143;
640.8000;0.3565;0.9120;
641.1000;0.3598;0.9167;
641.4000;0.3525;0.9003;
641.7000;0.3549;0.8980;
642.0000;0.3573;0.8957;
642.3000;0.3565;0.8980;
642.6000;0.3582;0.9097;
642.9000;0.3573;0.9073;
643.2000;0.3557;0.9050;
643.5000;0.3549;0.9120;
643.8000;0.3516;0.9027;
644.1000;0.3525;0.9097;
644.4000;0.3573;0.9260;
644.7000;0.3500;0.9143;
645.0000;0.3533;0.9167;
645.3000;0.3525;0.9167;
645.6000;0.3557;0.9213;
645.9000;0.3549;0.9213;
646.2000;0.3508;0.9097;
646.5000;0.3582;0.9283;
646.8000;0.3516;0.9097;
647.1000;0.3500;0.9073;
647.4000;0.3533;0.9050;
647.7000;0.3525;0.9050;
648.0000;0.3500;0.9073;
648.3000;0.3476;0.9073;
648.6000;0.3476;0.9050;
648.9000;0.3500;0.9003;
649.2000;0.3484;0.8980;
649.5000;0.3484;0.8933;
649.8000;0.3435;0.8770;
650.1000;0.3525;0.9050;
650.4000;0.3370;0.8723;
650.7000;0.3476;0.8980;
651.0000;0.3476;0.8957;
651.3000;0.3476;0.9050;
651.6000;0.3378;0.8817;
651.9000;0.3484;0.8933;
652.2000;0.3460;0.8863;
652.5000;0.3460;0.8793;
652.8000;0.3460;0.8770;
653.1000;0.3468;0.8840;
653.4000;0.3451;0.8817;
653.7000;0.3386;0.8793;
654.0000;0.3443;0.8933;
654.3000;0.3337;0.8793;
654.6000;0.3427;0.9027;
654.9000;0.3451;0.9003;
655.2000;0.3435;0.8980;
655.5000;0.3435;0.9003;
655.8000;0.3443;0.9143;
656.1000;0.3460;0.9120;
656.4000;0.3435;0.9050;
656.7000;0.3451;0.9143;
657.0000;0.3443;0.9143;
657.3000;0.3427;0.9050;
657.6000;0.3419;0.9143;
657.9000;0.3427;0.9143;
658.2000;0.3435;0.9190;
658.5000;0.3500;0.9237;
658.8000;0.3484;0.9190;
659.1000;0.3427;0.9050;
659.4000;0.3411;0.9027;
659.7000;0.3427;0.9073;
660.0000;0.3411;0.9027;
660.3000;0.3435;0.9003;
660.6000;0.3403;0.9050;
660.9000;0.3427;0.9120;
661.2000;0.3394;0.9003;
661.5000;0.3386;0.8980;
661.8000;0.3427;0.9027;
662.1000;0.3394;0.8957;
662.4000;0.3394;0.8933;
662.7000;0.3386;0.9003;
663.0000;0.3337;0.8910;
663.3000;0.3362;0.8980;
663.6000;0.3403;0.9003;
663.9000;0.3386;0.9027;
664.2000;0.3403;0.9003;
664.5000;0.3346;0.8933;
664.8000;0.3378;0.8910;
665.1000;0.3386;0.8980;
665.4000;0.3370;0.8957;
665.7000;0.3386;0.9027;
666.0000;0.3362;0.9003;
666.3000;0.3354;0.9027;
666.6000;0.3378;0.9167;
666.9000;0.3370;0.9073;
667.2000;0.3321;0.8957;
667.5000;0.3354;0.9027;
667.8000;0.3370;0.9167;
668.1000;0.3354;0.9190;
668.4000;0.3435;0.9307;
668.7000;0.3354;0.9237;
669.0000;0.3370;0.9330;
669.3000;0.3419;0.9493;
669.6000;0.3362;0.9330;
669.9000;0.3354;0.9283;
670.2000;0.3337;0.9213;
670.5000;0.3215;0.8887;
670.8000;0.3346;0.9213;
671.1000;0.3346;0.9050;
671.4000;0.3386;0.9120;
671.7000;0.3370;0.9143;
672.0000;0.3346;0.8980;
672.3000;0.3346;0.8957;
672.6000;0.3337;0.8863;
672.9000;0.3362;0.8887;
673.2000;0.3337;0.8770;
673.5000;0.3272;0.8723;
673.8000;0.3321;0.8840;
674.1000;0.3337;0.8840;
674.4000;0.3329;0.8980;
674.7000;0.3297;0.8840;
675.0000;0.3329;0.8910;
675.3000;0.3337;0.9003;
675.6000;0.3337;0.8980;
675.9000;0.3329;0.9073;
676.2000;0.3313;0.9120;
676.5000;0.3321;0.9073;
676.8000;0.3313;0.9003;
677.1000;0.3321;0.8957;
677.4000;0.3321;0.8910;
677.7000;0.3346;0.8863;
678.0000;0.3354;0.8910;
678.3000;0.3329;0.8887;
678.6000;0.3289;0.8863;
678.9000;0.3305;0.8887;
679.2000;0.3305;0.8933;
679.5000;0.3305;0.9003;
679.8000;0.3337;0.9050;
680.1000;0.3297;0.9003;
680.4000;0.3297;0.9027;
680.7000;0.3297;0.8980;
681.0000;0.3443;0.9213;
681.3000;0.3313;0.8887;
681.6000;0.3289;0.8910;
681.9000;0.3370;0.9097;
682.2000;0.3313;0.8910;
682.5000;0.3280;0.8747;
682.8000;0.3313;0.8817;
683.1000;0.3289;0.8840;
683.4000;0.3280;0.8817;
683.7000;0.3280;0.8840;
684.0000;0.3289;0.8770;
684.3000;0.3289;0.8653;
684.6000;0.3297;0.8653;
684.9000;0.3232;0.8607;
685.2000;0.3280;0.8653;
685.5000;0.3272;0.8560;
685.8000;0.3264;0.8560;
686.1000;0.3297;0.8630;
686.4000;0.3313;0.8700;
686.7000;0.3264;0.8700;
687.0000;0.3305;0.8840;
687.3000;0.3289;0.8863;
687.6000;0.3272;0.8863;
687.9000;0.3215;0.8700;
688.2000;0.3272;0.8723;
688.5000;0.3289;0.8840;
688.8000;0.3280;0.8817;
689.1000;0.3321;0.8933;
689.4000;0.3297;0.9003;
689.7000;0.3232;0.8910;
690.0000;0.3232;0.8933;
690.3000;0.3264;0.9027;
690.6000;0.3232;0.9073;
690.9000;0.3264;0.9143;
691.2000;0.3264;0.9213;
691.5000;0.3215;0.9050;
691.8000;0.3199;0.8840;
692.1000;0.3272;0.9050;
692.4000;0.3215;0.8910;
692.7000;0.3248;0.9097;
693.0000;0.3264;0.9143;
693.3000;0.3191;0.8933;
693.6000;0.3264;0.9167;
693.9000;0.3264;0.9190;
694.2000;0.3264;0.9190;
694.5000;0.3280;0.9190;
694.8000;0.3264;0.9143;
695.1000;0.3248;0.9097;
695.4000;0.3256;0.9120;
695.7000;0.3223;0.9190;
696.0000;0.3240;0.9190;
696.3000;0.3240;0.9120;
696.6000;0.3240;0.9167;
696.9000;0.3248;0.9190;
697.2000;0.3248;0.9260;
697.5000;0.3305;0.9353;
697.8000;0.3240;0.9190;
698.1000;0.3240;0.9143;
698.4000;0.3240;0.9120;
698.7000;0.3240;0.9167;
699.0000;0.3240;0.9237;
699.3000;0.3223;0.9120;
699.6000;0.3272;0.9213;
699.9000;0.3166;0.8933;
700.2000;0.3256;0.9167;
700.5000;0.3223;0.9003;
700.8000;0.3207;0.9027;
701.1000;0.3256;0.9143;
701.4000;0.3240;0.9073;
701.7000;0.3175;0.8910;
702.0000;0.3272;0.9073;
702.3000;0.3240;0.8980;
702.6000;0.3232;0.9027;
702.9000;0.3166;0.8817;
703.2000;0.3223;0.8933;
703.5000;0.3223;0.8980;
703.8000;0.3207;0.9027;
704.1000;0.3232;0.9097;
704.4000;0.3207;0.9050;
704.7000;0.3183;0.8933;
705.0000;0.3240;0.9097;
705.3000;0.3215;0.9073;
705.6000;0.3215;0.9167;
705.9000;0.3215;0.9143;
706.2000;0.3232;0.9120;
706.5000;0.3207;0.8980;
706.8000;0.3240;0.9050;
707.1000;0.3207;0.9167;
707.4000;0.3240;0.9353;
707.7000;0.3126;0.9050;
708.0000;0.3223;0.9260;
708.3000;0.3207;0.9283;
708.6000;0.3207;0.9213;
708.9000;0.3215;0.9283;
709.2000;0.3248;0.9377;
709.5000;0.3215;0.9400;
709.8000;0.3175;0.9237;
710.1000;0.3215;0.9423;
710.4000;0.3175;0.9283;
710.7000;0.3215;0.9423;
711.0000;0.3232;0.9353;
711.3000;0.3191;0.9260;
711.6000;0.3223;0.9260;
711.9000;0.3207;0.9190;
712.2000;0.3207;0.9143;
712.5000;0.3223;0.9050;
712.8000;0.3215;0.9027;
713.1000;0.3207;0.9050;
713.4000;0.3207;0.9027;
713.7000;0.3223;0.9027;
714.0000;0.3207;0.8980;
714.3000;0.3207;0.8980;
714.6000;0.3215;0.8980;
714.9000;0.3223;0.8980;
715.2000;0.3183;0.8980;
715.5000;0.3150;0.8887;
715.8000;0.3101;0.8840;
716.1000;0.3199;0.9073;
716.4000;0.3248;0.9143;
716.7000;0.3207;0.9097;
717.0000;0.3183;0.9097;
717.3000;0.3191;0.9120;
717.6000;0.3175;0.9050;
717.9000;0.3199;0.9190;
718.2000;0.3199;0.9167;
718.5000;0.3207;0.9260;
718.8000;0.3191;0.9213;
719.1000;0.3207;0.9167;
719.4000;0.3191;0.9143;
719.7000;0.3191;0.9167;
720.0000;0.3199;0.9260;
720.3000;0.3215;0.9260;
720.6000;0.3215;0.9260;
720.9000;0.3215;0.9237;
721.2000;0.3215;0.9237;
721.5000;0.3207;0.9237;
721.8000;0.3175;0.9167;
722.1000;0.3183;0.9213;
722.4000;0.3199;0.9213;
722.7000;0.3223;0.9237;
723.0000;0.3207;0.9190;
723.3000;0.3191;0.9120;
723.6000;0.3297;0.9283;
723.9000;0.3175;0.8957;
724.2000;0.3183;0.9097;
724.5000;0.3166;0.9003;
724.8000;0.3183;0.8980;
725.1000;0.3175;0.9003;
725.4000;0.3199;0.9097;
725.7000;0.3207;0.9120;
726.0000;0.3199;0.9143;
726.3000;0.3223;0.9213;
726.6000;0.3232;0.9190;
726.9000;0.3191;0.9050;
727.2000;0.3166;0.9050;
727.5000;0.3166;0.9073;
727.8000;0.3183;0.9167;
728.1000;0.3223;0.9213;
728.4000;0.3191;0.9213;
728.7000;0.3215;0.9330;
729.0000;0.3142;0.9190;
729.3000;0.3166;0.9237;
729.6000;0.3191;0.9307;
729.9000;0.3175;0.9237;
730.2000;0.3150;0.9213;
730.5000;0.3183;0.9143;
730.8000;0.3191;0.9190;
731.1000;0.3150;0.9120;
731.4000;0.3175;0.9097;
731.7000;0.3240;0.9283;
732.0000;0.3175;0.9167;
732.3000;0.3158;0.9167;
732.6000;0.3158;0.9167;
732.9000;0.3175;0.9190;
733.2000;0.3150;0.9073;
733.5000;0.3150;0.9050;
733.8000;0.3150;0.9003;
734.1000;0.3158;0.9003;
734.4000;0.3150;0.9003;
734.7000;0.3158;0.8910;
735.0000;0.3175;0.8910;
735.3000;0.3166;0.8980;
735.6000;0.3150;0.9003;
735.9000;0.3134;0.9003;
736.2000;0.3215;0.9167;
736.5000;0.3158;0.9050;
736.8000;0.3150;0.8980;
737.1000;0.3158;0.9073;
737.4000;0.3101;0.8957;
737.7000;0.3142;0.9027;
738.0000;0.3158;0.9120;
738.3000;0.3240;0.9423;
738.6000;0.3175;0.9190;
738.9000;0.3101;0.9027;
739.2000;0.3166;0.9213;
739.5000;0.3109;0.9143;
739.8000;0.3191;0.9260;
740.1000;0.3142;0.9073;
740.4000;0.3142;0.9003;
740.7000;0.3175;0.9097;
741.0000;0.3134;0.8910;
741.3000;0.3142;0.8863;
741.6000;0.3109;0.8747;
741.9000;0.3158;0.8887;
742.2000;0.3158;0.8817;
742.5000;0.3142;0.8817;
742.8000;0.3142;0.8817;
743.1000;0.3101;0.8677;
743.4000;0.3134;0.8793;
743.7000;0.3134;0.8793;
744.0000;0.3134;0.8747;
744.3000;0.3126;0.8817;
744.6000;0.3166;0.8793;
744.9000;0.3166;0.8677;
745.2000;0.3134;0.8653;
745.5000;0.3126;0.8653;
745.8000;0.3150;0.8700;
746.1000;0.3126;0.8653;
746.4000;0.3150;0.8723;
746.7000;0.3166;0.8747;
747.0000;0.3142;0.8770;
747.3000;0.3183;0.8840;
747.6000;0.3012;0.8420;
747.9000;0.3142;0.8863;
748.2000;0.3150;0.8887;
748.5000;0.3134;0.8887;
748.8000;0.3118;0.8910;
749.1000;0.3134;0.8887;
749.4000;0.3126;0.8933;
749.7000;0.3158;0.9097;
750.0000;0.3134;0.9097;
750.3000;0.3150;0.9143;
750.6000;0.3085;0.9003;
750.9000;0.3109;0.8957;
751.2000;0.3150;0.9027;
751.5000;0.3109;0.8957;
751.8000;0.3109;0.9050;
752.1000;0.3126;0.9027;
752.4000;0.3142;0.9097;
752.7000;0.3142;0.9097;
753.0000;0.3150;0.9073;
753.3000;0.3150;0.9073;
753.6000;0.3142;0.9050;
753.9000;0.3126;0.9050;
754.2000;0.3126;0.9003;
754.5000;0.3126;0.8980;
754.8000;0.3142;0.9050;
755.1000;0.3142;0.9027;
755.4000;0.3126;0.8980;
755.7000;0.3134;0.9050;
756.0000;0.3126;0.9167;
756.3000;0.3118;0.9120;
756.6000;0.3158;0.9213;
756.9000;0.3134;0.9190;
757.2000;0.3134;0.9213;
757.5000;0.3118;0.9190;
757.8000;0.3142;0.9260;
758.1000;0.3109;0.9167;
758.4000;0.3109;0.9097;
758.7000;0.3109;0.9143;
759.0000;0.3118;0.9120;
759.3000;0.3118;0.9097;
759.6000;0.3142;0.9073;
759.9000;0.3077;0.9050;
760.2000;0.3101;0.9143;
760.5000;0.3077;0.9027;
760.8000;0.3134;0.9003;
761.1000;0.3150;0.9027;
761.4000;0.3077;0.8817;
761.7000;0.3134;0.8957;
762.0000;0.3118;0.8933;
762.3000;0.3118;0.9003;
762.6000;0.3126;0.9027;
762.9000;0.3118;0.9003;
763.2000;0.3134;0.8933;
763.5000;0.3126;0.8910;
763.8000;0.3207;0.9097;
764.1000;0.3126;0.9027;
764.4000;0.3093;0.8957;
764.7000;0.3126;0.8980;
765.0000;0.3134;0.8910;
765.3000;0.3109;0.8863;
765.6000;0.3085;0.8747;
765.9000;0.3093;0.8887;
766.2000;0.3126;0.8980;
766.5000;0.3101;0.8887;
766.8000;0.3061;0.8817;
767.1000;0.3109;0.8933;
767.4000;0.3085;0.8887;
767.7000;0.3126;0.8910;
768.0000;0.3101;0.8793;
768.3000;0.3101;0.8793;
768.6000;0.3101;0.8863;
768.9000;0.3142;0.8887;
769.2000;0.3118;0.8840;
769.5000;0.3101;0.8840;
769.8000;0.3142;0.8933;
770.1000;0.3109;0.8910;
770.4000;0.3126;0.8957;
770.7000;0.3126;0.8910;
771.0000;0.3101;0.8957;
771.3000;0.3109;0.8887;
771.6000;0.3101;0.8887;
771.9000;0.3077;0.8933;
772.2000;0.3109;0.8980;
772.5000;0.3093;0.9050;
772.8000;0.3109;0.9097;
773.1000;0.3101;0.9143;
773.4000;0.3085;0.9097;
773.7000;0.3101;0.9050;
774.0000;0.3093;0.9003;
774.3000;0.3101;0.9027;
774.6000;0.3126;0.9073;
774.9000;0.3118;0.9003;
775.2000;0.3118;0.9097;
775.5000;0.3101;0.9097;
775.8000;0.3109;0.9097;
776.1000;0.3093;0.9050;
776.4000;0.3118;0.9097;
776.7000;0.3118;0.9120;
777.0000;0.3077;0.9050;
777.3000;0.3101;0.9073;
777.6000;0.3093;0.9003;
777.9000;0.3093;0.9003;
778.2000;0.3101;0.9027;
778.5000;0.3109;0.9120;
778.8000;0.3134;0.9213;
779.1000;0.3109;0.9260;
779.4000;0.3126;0.9353;
779.7000;0.3093;0.9283;
780.0000;0.3044;0.9167;
780.3000;0.3093;0.9260;
780.6000;0.3069;0.9237;
780.9000;0.3158;0.9470;
781.2000;0.3093;0.9237;
781.5000;0.3118;0.9283;
781.8000;0.3028;0.9097;
782.1000;0.3077;0.9190;
782.4000;0.3069;0.9237;
782.7000;0.3093;0.9190;
783.0000;0.3191;0.9447;
783.3000;0.3126;0.9237;
783.6000;0.3069;0.9120;
783.9000;0.3126;0.9213;
784.2000;0.3101;0.9143;
784.5000;0.3085;0.9097;
784.8000;0.3118;0.9190;
785.1000;0.3093;0.9167;
785.4000;0.3044;0.9073;
785.7000;0.3093;0.9237;
786.0000;0.3085;0.9190;
786.3000;0.3077;0.9167;
786.6000;0.3093;0.9260;
786.9000;0.3158;0.9330;
787.2000;0.3085;0.9167;
787.5000;0.3085;0.9167;
787.8000;0.3093;0.9167;
788.1000;0.3085;0.9073;
788.4000;0.3093;0.8980;
788.7000;0.3053;0.8770;
789.0000;0.3085;0.8840;
789.3000;0.3101;0.8840;
789.6000;0.2971;0.8607;
789.9000;0.3061;0.8793;
790.2000;0.3085;0.8863;
790.5000;0.3077;0.8933;
790.8000;0.3158;0.9120;
791.1000;0.3069;0.8910;
791.4000;0.3077;0.8840;
791.7000;0.3077;0.8910;
792.0000;0.3069;0.8863;
792.3000;0.3077;0.8747;
792.6000;0.3085;0.8793;
792.9000;0.3069;0.8747;
793.2000;0.3069;0.8723;
793.5000;0.3077;0.8770;
793.8000;0.3061;0.8653;
794.1000;0.3158;0.8957;
794.4000;0.3093;0.8817;
794.7000;0.3069;0.8840;
795.0000;0.3069;0.8840;
795.3000;0.3077;0.8980;
795.6000;0.3101;0.9097;
795.9000;0.3069;0.9003;
796.2000;0.3085;0.9073;
796.5000;0.3085;0.9073;
796.8000;0.3101;0.9120;
797.1000;0.3061;0.8957;
797.4000;0.3044;0.8840;
797.7000;0.3126;0.9120;
798.0000;0.3053;0.8980;
798.3000;0.3109;0.9097;
798.6000;0.3069;0.9073;
798.9000;0.3053;0.9097;
799.2000;0.3093;0.9143;
799.5000;0.3053;0.9050;
799.8000;0.3077;0.9120;
800.1000;0.3077;0.9050;
800.4000;0.3061;0.8980;
800.7000;0.3093;0.9027;
801.0000;0.3028;0.8980;
801.3000;0.3085;0.9143;
801.6000;0.3061;0.9050;
801.9000;0.3109;0.9143;
802.2000;0.3093;0.9167;
802.5000;0.3053;0.8980;
802.8000;0.3069;0.8863;
803.1000;0.3069;0.8957;
803.4000;0.3069;0.9120;
803.7000;0.3085;0.9143;
804.0000;0.3069;0.9073;
804.3000;0.3093;0.9167;
804.6000;0.3093;0.9190;
804.9000;0.2996;0.8840;
805.2000;0.3093;0.9050;
805.5000;0.3085;0.8980;
805.8000;0.3093;0.9027;
806.1000;0.3069;0.8887;
806.4000;0.3077;0.8933;
806.7000;0.3069;0.9027;
807.0000;0.3118;0.9190;
807.3000;0.3077;0.9050;
807.6000;0.3061;0.9027;
807.9000;0.3061;0.9097;
808.2000;0.3085;0.9190;
808.5000;0.3053;0.9167;
808.8000;0.3069;0.9237;
809.1000;0.3069;0.9120;
809.4000;0.3077;0.9050;
809.7000;0.3061;0.9027;
810.0000;0.3069;0.8933;
810.3000;0.3053;0.8910;
810.6000;0.3085;0.8980;
810.9000;0.3126;0.9050;
811.2000;0.3069;0.8933;
811.5000;0.3053;0.8863;
811.8000;0.3044;0.8840;
812.1000;0.3061;0.8933;
812.4000;0.3085;0.9003;
812.7000;0.3061;0.8980;
813.0000;0.3061;0.8980;
813.3000;0.3069;0.8910;
813.6000;0.3085;0.8770;
813.9000;0.3077;0.8677;
814.2000;0.3085;0.8677;
814.5000;0.3077;0.8584;
814.8000;0.3093;0.8653;
815.1000;0.3069;0.8700;
815.4000;0.3036;0.8700;
815.7000;0.3044;0.8700;
816.0000;0.3077;0.8747;
816.3000;0.3053;0.8653;
816.6000;0.3093;0.8770;
816.9000;0.3101;0.8770;
817.2000;0.3069;0.8770;
817.5000;0.3053;0.8653;
817.8000;0.3069;0.8677;
818.1000;0.3077;0.8700;
818.4000;0.3085;0.8700;
818.7000;0.3118;0.8910;
819.0000;0.3044;0.8817;
819.3000;0.3053;0.8747;
819.6000;0.3093;0.8817;
819.9000;0.3069;0.8840;
820.2000;0.3028;0.8747;
820.5000;0.3077;0.8910;
820.8000;0.2963;0.8653;
821.1000;0.3085;0.8887;
821.4000;0.3020;0.8863;
821.7000;0.3069;0.9027;
822.0000;0.3036;0.8933;
822.3000;0.3061;0.9003;
822.6000;0.3093;0.9073;
822.9000;0.3077;0.8933;
823.2000;0.3053;0.8817;
823.5000;0.3044;0.8793;
823.8000;0.3036;0.8817;
824.1000;0.3093;0.8910;
824.4000;0.3044;0.8723;
824.7000;0.3069;0.8747;
825.0000;0.3069;0.8770;
825.3000;0.3053;0.8723;
825.6000;0.3069;0.8770;
825.9000;0.3101;0.8840;
826.2000;0.2996;0.8630;
826.5000;0.3044;0.8723;
826.8000;0.3053;0.8723;
827.1000;0.3044;0.8723;
827.4000;0.3053;0.8793;
827.7000;0.3053;0.8700;
828.0000;0.3036;0.8584;
828.3000;0.3044;0.8630;
828.6000;0.3053;0.8584;
828.9000;0.3053;0.8630;
829.2000;0.3036;0.8584;
829.5000;0.3061;0.8607;
829.8000;0.3061;0.8630;
830.1000;0.3061;0.8723;
830.4000;0.3053;0.8677;
830.7000;0.3061;0.8723;
831.0000;0.3061;0.8700;
831.3000;0.3061;0.8770;
831.6000;0.3044;0.8747;
831.9000;0.3053;0.8840;
832.2000;0.3061;0.8863;
832.5000;0.3036;0.8747;
832.8000;0.3044;0.8770;
833.1000;0.3036;0.8770;
833.4000;0.3053;0.8770;
833.7000;0.3044;0.8793;
834.0000;0.3036;0.8723;
834.3000;0.3044;0.8793;
834.6000;0.3036;0.8817;
834.9000;0.3044;0.8747;
835.2000;0.3061;0.8910;
835.5000;0.3053;0.8887;
835.8000;0.3036;0.8817;
836.1000;0.3077;0.8887;
836.4000;0.3044;0.8840;
836.7000;0.3036;0.8887;
837.0000;0.3044;0.8887;
837.3000;0.3053;0.8957;
837.6000;0.3085;0.9050;
837.9000;0.3061;0.9003;
838.2000;0.3053;0.8957;
838.5000;0.3012;0.8863;
838.8000;0.3061;0.8957;
839.1000;0.3053;0.8980;
839.4000;0.3028;0.8933;
839.7000;0.3020;0.8933;
840.0000;0.3085;0.9003;
840.3000;0.3069;0.9003;
840.6000;0.3085;0.9073;
840.9000;0.3061;0.9003;
841.2000;0.3053;0.8957;
841.5000;0.3004;0.8817;
841.8000;0.3053;0.8863;
842.1000;0.3044;0.8817;
842.4000;0.3044;0.8840;
842.7000;0.3036;0.8817;
843.0000;0.3036;0.8770;
843.3000;0.3020;0.8747;
843.6000;0.3061;0.8887;
843.9000;0.3036;0.8723;
844.2000;0.3061;0.8770;
844.5000;0.3004;0.8653;
844.8000;0.3020;0.8653;
845.1000;0.3036;0.8653;
845.4000;0.3061;0.8700;
845.7000;0.3053;0.8817;
846.0000;0.3036;0.8933;
846.3000;0.3028;0.8957;
846.6000;0.3012;0.8887;
846.9000;0.3036;0.8863;
847.2000;0.3036;0.8863;
847.5000;0.3044;0.8887;
847.8000;0.3061;0.8863;
848.1000;0.3036;0.8817;
848.4000;0.3061;0.8933;
848.7000;0.3044;0.9003;
849.0000;0.3044;0.8980;
849.3000;0.3044;0.8980;
849.6000;0.3061;0.8980;
849.9000;0.3053;0.8957;
850.2000;0.3036;0.8910;
850.5000;0.3053;0.8980;
850.8000;0.3061;0.8887;
851.1000;0.3053;0.8910;
851.4000;0.3053;0.8863;
851.7000;0.3077;0.8840;
852.0000;0.3036;0.8653;
852.3000;0.3028;0.8723;
852.6000;0.3012;0.8653;
852.9000;0.2955;0.8560;
853.2000;0.3028;0.8700;
853.5000;0.3020;0.8677;
853.8000;0.3053;0.8723;
854.1000;0.3028;0.8723;
854.4000;0.3044;0.8747;
854.7000;0.3028;0.8677;
855.0000;0.3036;0.8723;
855.3000;0.3028;0.8677;
855.6000;0.3053;0.8653;
855.9000;0.3053;0.8700;
856.2000;0.3028;0.8723;
856.5000;0.3028;0.8653;
856.8000;0.3036;0.8700;
857.1000;0.3020;0.8723;
857.4000;0.3012;0.8723;
857.7000;0.3020;0.8793;
858.0000;0.3044;0.8863;
858.3000;0.3044;0.8793;
858.6000;0.2987;0.8700;
858.9000;0.3053;0.8910;
859.2000;0.3053;0.9003;
859.5000;0.3061;0.8980;
859.8000;0.3061;0.8980;
860.1000;0.3036;0.8817;
860.4000;0.3061;0.8817;
860.7000;0.3004;0.8793;
861.0000;0.3053;0.8887;
861.3000;0.3044;0.8863;
861.6000;0.3053;0.8933;
861.9000;0.3044;0.8910;
862.2000;0.3044;0.8980;
862.5000;0.3061;0.8863;
862.8000;0.3061;0.8770;
863.1000;0.3053;0.8770;
863.4000;0.2996;0.8723;
863.7000;0.3028;0.8770;
864.0000;0.3036;0.8723;
864.3000;0.3036;0.8840;
864.6000;0.3053;0.8887;
864.9000;0.3012;0.8747;
865.2000;0.3020;0.8817;
865.5000;0.3044;0.8887;
865.8000;0.3053;0.8887;
866.1000;0.3036;0.8863;
866.4000;0.3028;0.8840;
866.7000;0.2996;0.8817;
867.0000;0.3044;0.8933;
867.3000;0.3044;0.8957;
867.6000;0.3044;0.8933;
867.9000;0.3053;0.8887;
868.2000;0.3044;0.8980;
868.5000;0.3028;0.9003;
868.8000;0.3036;0.9003;
869.1000;0.3036;0.9073;
869.4000;0.3004;0.9027;
869.7000;0.3028;0.9050;
870.0000;0.3028;0.9073;
870.3000;0.3036;0.9097;
870.6000;0.3028;0.9027;
870.9000;0.3053;0.8980;
871.2000;0.3028;0.8863;
871.5000;0.3044;0.8887;
871.8000;0.3061;0.8840;
872.1000;0.3044;0.8933;
872.4000;0.3028;0.8910;
872.7000;0.3036;0.8910;
873.0000;0.3044;0.8887;
873.3000;0.3069;0.8887;
873.6000;0.3069;0.8887;
873.9000;0.3036;0.8863;
874.2000;0.3036;0.8840;
874.5000;0.3036;0.8840;
874.8000;0.3085;0.9003;
875.1000;0.3044;0.8980;
875.4000;0.3028;0.8887;
875.7000;0.3044;0.8933;
876.0000;0.3061;0.8793;
876.3000;0.3036;0.8723;
876.6000;0.3036;0.8723;
876.9000;0.3044;0.8793;
877.2000;0.3053;0.8793;
877.5000;0.3012;0.8723;
877.8000;0.3012;0.8677;
878.1000;0.3028;0.8677;
878.4000;0.3020;0.8677;
878.7000;0.3004;0.8747;
879.0000;0.3020;0.8817;
879.3000;0.3012;0.8840;
879.6000;0.3028;0.8980;
879.9000;0.2955;0.8793;
880.2000;0.3028;0.8887;
880.5000;0.3020;0.8840;
880.8000;0.3036;0.8817;
881.1000;0.3036;0.8840;
881.4000;0.2971;0.8677;
881.7000;0.3028;0.8817;
882.0000;0.3053;0.8933;
882.3000;0.3053;0.9027;
882.6000;0.3036;0.9003;
882.9000;0.3012;0.8933;
883.2000;0.3012;0.9003;
883.5000;0.3020;0.9073;
883.8000;0.3036;0.9073;
884.1000;0.3028;0.8980;
884.4000;0.3012;0.8910;
884.7000;0.3020;0.8933;
885.0000;0.3028;0.8910;
885.3000;0.3028;0.8933;
885.6000;0.3061;0.9027;
885.9000;0.3028;0.8933;
886.2000;0.3044;0.9003;
886.5000;0.3020;0.9027;
886.8000;0.3036;0.9097;
887.1000;0.3036;0.9073;
887.4000;0.3044;0.9167;
887.7000;0.3044;0.9143;
888.0000;0.3044;0.9213;
888.3000;0.3036;0.9167;
888.6000;0.3036;0.9213;
888.9000;0.3036;0.9213;
889.2000;0.3012;0.9097;
889.5000;0.3036;0.9120;
889.8000;0.3036;0.9097;
890.1000;0.3012;0.9097;
890.4000;0.3028;0.9073;
890.7000;0.3012;0.9073;
891.0000;0.3020;0.9050;
891.3000;0.3044;0.9003;
891.6000;0.3028;0.8910;
891.9000;0.3036;0.9027;
892.2000;0.3044;0.9167;
892.5000;0.3028;0.9307;
892.8000;0.3012;0.9167;
893.1000;0.3020;0.9097;
893.4000;0.2979;0.8933;
893.7000;0.3028;0.9073;
894.0000;0.3044;0.9190;
894.3000;0.3028;0.9097;
894.6000;0.3028;0.9120;
894.9000;0.3004;0.9143;
895.2000;0.3028;0.9120;
895.5000;0.3012;0.9190;
895.8000;0.3020;0.9167;
896.1000;0.3020;0.9237;
896.4000;0.3028;0.9190;
896.7000;0.3044;0.9167;
897.0000;0.3036;0.9213;
897.3000;0.3036;0.9120;
897.6000;0.3036;0.9050;
897.9000;0.3053;0.9167;
898.2000;0.3028;0.9073;
898.5000;0.3036;0.9120;
898.8000;0.3069;0.9167;
899.1000;0.3036;0.9050;
899.4000;0.3028;0.9073;
899.7000;0.3036;0.9120;
900.0000;0.3004;0.9073;
900.3000;0.3020;0.9143;
900.6000;0.3044;0.9167;
900.9000;0.3101;0.9190;
901.2000;0.3020;0.8980;
901.5000;0.3004;0.8980;
901.8000;0.3053;0.9213;
902.1000;0.3012;0.9143;
902.4000;0.3020;0.9190;
902.7000;0.3036;0.9190;
903.0000;0.3028;0.9120;
903.3000;0.3036;0.9120;
903.6000;0.3036;0.9097;
903.9000;0.3036;0.9050;
904.2000;0.3036;0.9003;
904.5000;0.2987;0.8933;
904.8000;0.3020;0.8863;
905.1000;0.3044;0.8863;
905.4000;0.3004;0.8910;
905.7000;0.3069;0.9050;
906.0000;0.2971;0.8770;
906.3000;0.3028;0.8957;
906.6000;0.3036;0.9097;
906.9000;0.3036;0.9073;
907.2000;0.3053;0.9190;
907.5000;0.3044;0.9213;
907.8000;0.3012;0.9143;
908.1000;0.3012;0.9120;
908.4000;0.3028;0.9120;
908.7000;0.3012;0.9073;
909.0000;0.3028;0.9190;
909.3000;0.3020;0.9260;
909.6000;0.3020;0.9307;
909.9000;0.3150;0.9656;
910.2000;0.3036;0.9377;
910.5000;0.3020;0.9307;
910.8000;0.3036;0.9283;
911.1000;0.3028;0.9237;
911.4000;0.3012;0.9190;
911.7000;0.3036;0.9213;
912.0000;0.3044;0.9237;
912.3000;0.3028;0.9190;
912.6000;0.3020;0.9167;
912.9000;0.3020;0.9213;
913.2000;0.3126;0.9447;
913.5000;0.3028;0.9237;
913.8000;0.3020;0.9143;
914.1000;0.3020;0.9073;
914.4000;0.3012;0.9050;
914.7000;0.2987;0.9003;
915.0000;0.3020;0.9003;
915.3000;0.3012;0.9027;
915.6000;0.3020;0.9050;
915.9000;0.2979;0.8887;
916.2000;0.2971;0.8793;
916.5000;0.3012;0.8957;
916.8000;0.3020;0.9003;
917.1000;0.3004;0.8863;
917.4000;0.3020;0.8910;
917.7000;0.3028;0.9003;
918.0000;0.3012;0.9003;
918.3000;0.3044;0.9027;
918.6000;0.3036;0.9050;
918.9000;0.3044;0.9213;
919.2000;0.3036;0.9190;
919.5000;0.3020;0.9120;
919.8000;0.3004;0.9073;
920.1000;0.3028;0.9050;
920.4000;0.3036;0.9097;
920.7000;0.3028;0.9073;
921.0000;0.3020;0.9073;
921.3000;0.3020;0.9097;
921.6000;0.3028;0.9027;
921.9000;0.3020;0.9003;
922.2000;0.3036;0.9027;
922.5000;0.3012;0.8840;
922.8000;0.3020;0.8840;
923.1000;0.3020;0.8863;
923.4000;0.3044;0.8910;
923.7000;0.3020;0.8817;
924.0000;0.3044;0.8933;
924.3000;0.3069;0.8887;
924.6000;0.3028;0.8910;
924.9000;0.3044;0.8957;
925.2000;0.3028;0.8887;
925.5000;0.3069;0.8980;
925.8000;0.3053;0.8793;
926.1000;0.3012;0.8747;
926.4000;0.3020;0.8887;
926.7000;0.3020;0.8910;
927.0000;0.3020;0.8910;
927.3000;0.3028;0.9003;
927.6000;0.2996;0.8957;
927.9000;0.3004;0.9050;
928.2000;0.2971;0.8957;
928.5000;0.3028;0.9097;
928.8000;0.2996;0.9050;
929.1000;0.3044;0.9050;
929.4000;0.3020;0.9003;
929.7000;0.3044;0.9073;
930.0000;0.2987;0.8933;
930.3000;0.2996;0.8910;
930.6000;0.3069;0.9073;
930.9000;0.3012;0.9003;
931.2000;0.3028;0.9050;
931.5000;0.2979;0.8957;
931.8000;0.3126;0.9377;
932.1000;0.3004;0.9073;
932.4000;0.3053;0.9143;
932.7000;0.3028;0.9097;
933.0000;0.3004;0.8957;
933.3000;0.3053;0.9027;
933.6000;0.3028;0.9050;
933.9000;0.3053;0.9213;
934.2000;0.3020;0.9167;
934.5000;0.3028;0.9120;
934.8000;0.3093;0.9283;
935.1000;0.3028;0.9143;
935.4000;0.3028;0.9120;
935.7000;0.3004;0.8980;
936.0000;0.3004;0.8933;
936.3000;0.3028;0.8980;
936.6000;0.3028;0.9027;
936.9000;0.3093;0.9213;
937.2000;0.3044;0.9120;
937.5000;0.3036;0.9073;
937.8000;0.3028;0.9097;
938.1000;0.2914;0.8840;
938.4000;0.3012;0.9167;
938.7000;0.2955;0.8980;
939.0000;0.3004;0.8980;
939.3000;0.3061;0.9050;
939.6000;0.3036;0.9003;
939.9000;0.3044;0.9050;
940.2000;0.3004;0.8957;
940.5000;0.3036;0.8957;
940.8000;0.3020;0.8863;
941.1000;0.3020;0.8840;
941.4000;0.3020;0.8887;
941.7000;0.3012;0.8887;
942.0000;0.3020;0.8887;
942.3000;0.3028;0.9003;
942.6000;0.3012;0.8933;
942.9000;0.3028;0.8933;
943.2000;0.2971;0.8887;
943.5000;0.3004;0.8933;
943.8000;0.3004;0.8887;
944.1000;0.3020;0.8863;
944.4000;0.2996;0.8817;
944.7000;0.3028;0.8957;
945.0000;0.3028;0.8980;
945.3000;0.3020;0.8910;
945.6000;0.2987;0.8793;
945.9000;0.3053;0.8910;
946.2000;0.3028;0.8933;
946.5000;0.3093;0.9167;
946.8000;0.3028;0.8980;
947.1000;0.3036;0.9097;
947.4000;0.3142;0.9353;
947.7000;0.3004;0.9003;
948.0000;0.3028;0.9027;
948.3000;0.3036;0.8980;
948.6000;0.3044;0.9073;
948.9000;0.2955;0.8887;
949.2000;0.3036;0.9027;
949.5000;0.3142;0.9377;
949.8000;0.3004;0.9050;
950.1000;0.3012;0.9073;
950.4000;0.2987;0.9050;
950.7000;0.3004;0.8980;
951.0000;0.2987;0.8980;
951.3000;0.3012;0.9003;
951.6000;0.3020;0.9050;
951.9000;0.3020;0.9050;
952.2000;0.3012;0.9003;
952.5000;0.3069;0.9073;
952.8000;0.3028;0.8957;
953.1000;0.3061;0.9073;
953.4000;0.3012;0.8887;
953.7000;0.2996;0.8863;
954.0000;0.3012;0.8910;
954.3000;0.3020;0.8933;
954.6000;0.2906;0.8723;
954.9000;0.3020;0.9027;
955.2000;0.3020;0.9073;
955.5000;0.3044;0.9120;
955.8000;0.3012;0.9027;
956.1000;0.3028;0.8957;
956.4000;0.3036;0.8933;
956.7000;0.3004;0.8887;
957.0000;0.3020;0.8933;
957.3000;0.3020;0.9003;
957.6000;0.3020;0.9143;
957.9000;0.2996;0.9120;
958.2000;0.3012;0.9073;
958.5000;0.3012;0.9050;
958.8000;0.3012;0.9050;
959.1000;0.3012;0.9050;
959.4000;0.2979;0.9097;
959.7000;0.3044;0.9307;
960.0000;0.2996;0.9143;
960.3000;0.3012;0.9097;
960.6000;0.3012;0.9097;
960.9000;0.3028;0.9120;
961.2000;0.3012;0.9167;
961.5000;0.3020;0.9167;
961.8000;0.2987;0.9120;
962.1000;0.3012;0.9097;
962.4000;0.3004;0.9143;
962.7000;0.3077;0.9353;
963.0000;0.3004;0.9167;
963.3000;0.2979;0.9050;
963.6000;0.3028;0.9097;
963.9000;0.3012;0.9050;
964.2000;0.3020;0.9097;
964.5000;0.2996;0.9097;
964.8000;0.3012;0.9050;
965.1000;0.3069;0.9143;
965.4000;0.3036;0.9003;
965.7000;0.3020;0.8957;
966.0000;0.3012;0.8957;
966.3000;0.3028;0.9003;
966.6000;0.2987;0.8863;
966.9000;0.3036;0.8980;
967.2000;0.3020;0.9003;
967.5000;0.3020;0.9027;
967.8000;0.3028;0.9073;
968.1000;0.3036;0.9190;
968.4000;0.3012;0.9120;
968.7000;0.3028;0.9167;
969.0000;0.3028;0.9167;
969.3000;0.3012;0.9027;
969.6000;0.3044;0.9190;
969.9000;0.3004;0.9120;
970.2000;0.3020;0.9143;
970.5000;0.3028;0.9120;
970.8000;0.3012;0.9097;
971.1000;0.3004;0.9143;
971.4000;0.2979;0.9143;
971.7000;0.3012;0.9283;
972.0000;0.3077;0.9423;
972.3000;0.2955;0.9190;
972.6000;0.2987;0.9353;
972.9000;0.3044;0.9470;
973.2000;0.3012;0.9447;
973.5000;0.3036;0.9493;
973.8000;0.3069;0.9470;
974.1000;0.3012;0.9283;
974.4000;0.2906;0.9050;
974.7000;0.3012;0.9213;
975.0000;0.3004;0.9097;
975.3000;0.3028;0.9143;
975.6000;0.3044;0.9237;
975.9000;0.2987;0.9050;
976.2000;0.2996;0.9027;
976.5000;0.3020;0.9097;
976.8000;0.3028;0.9120;
977.1000;0.3012;0.9097;
977.4000;0.2930;0.8910;
977.7000;0.3028;0.9213;
978.0000;0.3028;0.9213;
978.3000;0.3028;0.9167;
978.6000;0.3044;0.9190;
978.9000;0.3036;0.9120;
979.2000;0.3028;0.9097;
979.5000;0.3028;0.9003;
979.8000;0.3012;0.8980;
980.1000;0.3028;0.9120;
980.4000;0.3020;0.9213;
980.7000;0.3020;0.9260;
981.0000;0.3020;0.9213;
981.3000;0.3012;0.9167;
981.6000;0.3036;0.9143;
981.9000;0.3036;0.9167;
982.2000;0.2939;0.8863;
982.5000;0.2987;0.9027;
982.8000;0.3028;0.9073;
983.1000;0.2996;0.8980;
983.4000;0.3028;0.9003;
983.7000;0.3020;0.8863;
984.0000;0.3004;0.8840;
984.3000;0.3004;0.8817;
984.6000;0.3004;0.8887;
984.9000;0.3028;0.8933;
985.2000;0.3020;0.8980;
985.5000;0.3020;0.9050;
985.8000;0.3036;0.9073;
986.1000;0.3004;0.9003;
986.4000;0.3004;0.8957;
986.7000;0.3020;0.8980;
987.0000;0.3036;0.8980;
987.3000;0.2979;0.8793;
987.6000;0.3012;0.8887;
987.9000;0.2996;0.8863;
988.2000;0.3004;0.8863;
988.5000;0.3004;0.8887;
988.8000;0.2987;0.9003;
989.1000;0.2996;0.8957;
989.4000;0.3012;0.8957;
989.7000;0.2971;0.8770;
990.0000;0.3004;0.8793;
990.3000;0.3012;0.8887;
990.6000;0.3069;0.9050;
990.9000;0.3028;0.8980;
991.2000;0.3020;0.9050;
991.5000;0.3004;0.9050;
991.8000;0.3020;0.9190;
992.1000;0.3012;0.9120;
992.4000;0.3036;0.9027;
992.7000;0.3036;0.8980;
993.0000;0.3004;0.8840;
993.3000;0.3004;0.8817;
993.6000;0.3028;0.8840;
993.9000;0.2996;0.8700;
994.2000;0.3004;0.8677;
994.5000;0.2930;0.8700;
994.8000;0.2996;0.8887;
995.1000;0.3004;0.8933;
995.4000;0.3012;0.8957;
995.7000;0.3053;0.9027;
996.0000;0.2996;0.8910;
996.3000;0.3036;0.8957;
996.6000;0.2979;0.8910;
996.9000;0.3012;0.9003;
997.2000;0.3012;0.8910;
997.5000;0.2979;0.8840;
997.8000;0.3004;0.8957;
998.1000;0.3020;0.8980;
998.4000;0.3053;0.9003;
998.7000;0.3012;0.8840;
999.0000;0.3053;0.8957;
999.3000;0.3020;0.8840;
999.6000;0.2996;0.8793;
999.9000;0.3020;0.8863;
1000.2000;0.2996;0.8957;
1000.5000;0.3012;0.9050;
1000.8000;0.2987;0.9003;
1001.1000;0.3012;0.9097;
1001.4000;0.3012;0.9073;
1001.7000;0.3069;0.9260;
1002.0000;0.3012;0.9050;
1002.3000;0.2996;0.9027;
1002.6000;0.3020;0.9050;
1002.9000;0.3012;0.8980;
1003.2000;0.3004;0.8933;
1003.5000;0.2971;0.8817;
1003.8000;0.3020;0.8933;
1004.1000;0.2996;0.8840;
1004.4000;0.2987;0.8817;
1004.7000;0.2996;0.8793;
1005.0000;0.3012;0.8840;
1005.3000;0.2996;0.8723;
1005.6000;0.2996;0.8723;
1005.9000;0.3012;0.8793;
1006.2000;0.3020;0.8840;
1006.5000;0.3028;0.8933;
1006.8000;0.2939;0.8677;
1007.1000;0.3020;0.8887;
1007.4000;0.3004;0.8863;
1007.7000;0.3020;0.8840;
1008.0000;0.3012;0.8910;
1008.3000;0.2930;0.8793;
1008.6000;0.2996;0.8933;
1008.9000;0.2979;0.8887;
1009.2000;0.3020;0.8910;
1009.5000;0.3004;0.8887;
1009.8000;0.2987;0.8863;
1010.1000;0.3020;0.8980;
1010.4000;0.3044;0.9003;
1010.7000;0.3012;0.8863;
1011.0000;0.3004;0.8887;
1011.3000;0.3028;0.8933;
1011.6000;0.3012;0.8840;
1011.9000;0.3036;0.8980;
1012.2000;0.2996;0.8863;
1012.5000;0.3012;0.8910;
1012.8000;0.3004;0.8980;
1013.1000;0.2971;0.8793;
1013.4000;0.3004;0.8957;
1013.7000;0.3004;0.9027;
1014.0000;0.2955;0.8933;
1014.3000;0.3012;0.9097;
1014.6000;0.3028;0.9120;
1014.9000;0.3020;0.9027;
1015.2000;0.3028;0.8957;
1015.5000;0.3036;0.8933;
1015.8000;0.2987;0.8887;
1016.1000;0.3020;0.8933;
1016.4000;0.3012;0.8863;
1016.7000;0.3020;0.8887;
1017.0000;0.3004;0.8910;
1017.3000;0.2979;0.8863;
1017.6000;0.3028;0.8910;
1017.9000;0.3012;0.8863;
1018.2000;0.3012;0.8957;
1018.5000;0.2987;0.8980;
1018.8000;0.2987;0.8980;
1019.1000;0.2979;0.8863;
1019.4000;0.3020;0.8817;
1019.7000;0.2947;0.8653;
1020.0000;0.2996;0.8770;
1020.3000;0.3012;0.8863;
1020.6000;0.3004;0.8957;
1020.9000;0.2914;0.8700;
1021.2000;0.2996;0.8933;
1021.5000;0.2971;0.8957;
1021.8000;0.3028;0.9027;
1022.1000;0.3004;0.8980;
1022.4000;0.3012;0.9073;
1022.7000;0.3020;0.9073;
1023.0000;0.3077;0.9120;
1023.3000;0.2996;0.8980;
1023.6000;0.3012;0.8887;
1023.9000;0.2996;0.8747;
1024.2000;0.3012;0.8863;
1024.5000;0.3012;0.8957;
1024.8000;0.3020;0.8980;
1025.1000;0.3012;0.8980;
1025.4000;0.3004;0.9027;
1025.7000;0.3077;0.9143;
1026.0000;0.3012;0.9003;
1026.3000;0.2987;0.8957;
1026.6000;0.3012;0.9050;
1026.9000;0.2987;0.9027;
1027.2000;0.3004;0.9073;
1027.5000;0.3020;0.9097;
1027.8000;0.3012;0.9097;
1028.1000;0.3004;0.9167;
1028.4000;0.2996;0.9097;
1028.7000;0.3004;0.9073;
1029.0000;0.3036;0.9213;
1029.3000;0.3020;0.9167;
1029.6000;0.3004;0.9167;
1029.9000;0.3004;0.9143;
1030.2000;0.3077;0.9213;
1030.5000;0.3020;0.9073;
1030.8000;0.3020;0.9097;
1031.1000;0.3012;0.9027;
1031.4000;0.3004;0.9073;
1031.7000;0.3044;0.9097;
1032.0000;0.3004;0.9050;
1032.3000;0.3036;0.9073;
1032.6000;0.3004;0.9050;
1032.9000;0.2996;0.9050;
1033.2000;0.2987;0.9097;
1033.5000;0.2996;0.9027;
1033.8000;0.3012;0.8980;
1034.1000;0.3004;0.8980;
1034.4000;0.3004;0.8980;
1034.7000;0.3004;0.8933;
1035.0000;0.2979;0.8980;
1035.3000;0.3028;0.9167;
1035.6000;0.2979;0.9120;
1035.9000;0.2996;0.9190;
1036.2000;0.2996;0.9190;
1036.5000;0.2996;0.9143;
1036.8000;0.3004;0.9190;
1037.1000;0.3020;0.9260;
1037.4000;0.3012;0.9213;
1037.7000;0.3004;0.9213;
1038.0000;0.3020;0.9260;
1038.3000;0.3012;0.9190;
1038.6000;0.2987;0.9073;
1038.9000;0.2979;0.9097;
1039.2000;0.3004;0.9120;
1039.5000;0.3061;0.9237;
1039.8000;0.3012;0.9073;
1040.1000;0.3028;0.9143;
1040.4000;0.3020;0.9143;
1040.7000;0.3053;0.9260;
1041.0000;0.3044;0.9260;
1041.3000;0.3004;0.9143;
1041.6000;0.2996;0.9097;
1041.9000;0.2987;0.8980;
1042.2000;0.2987;0.8887;
1042.5000;0.3020;0.9003;
1042.8000;0.2996;0.8910;
1043.1000;0.2979;0.8933;
1043.4000;0.3004;0.9167;
1043.7000;0.3061;0.9237;
1044.0000;0.3004;0.9143;
1044.3000;0.3012;0.9237;
1044.6000;0.3004;0.9237;
1044.9000;0.2987;0.9213;
1045.2000;0.3020;0.9190;
1045.5000;0.3004;0.9283;
1045.8000;0.3061;0.9377;
1046.1000;0.3020;0.9213;
1046.4000;0.2947;0.9027;
1046.7000;0.3101;0.9423;
1047.0000;0.3020;0.9237;
1047.3000;0.3020;0.9237;
1047.6000;0.2947;0.8957;
1047.9000;0.3004;0.8957;
1048.2000;0.3036;0.8933;
1048.5000;0.3118;0.9190;
1048.8000;0.2996;0.8910;
1049.1000;0.3004;0.8910;
1049.4000;0.3004;0.8887;
1049.7000;0.3004;0.8910;
1050.0000;0.2979;0.8887;
1050.3000;0.3020;0.8863;
1050.6000;0.3012;0.8840;
1050.9000;0.3020;0.8910;
1051.2000;0.3020;0.8910;
1051.5000;0.2987;0.8863;
1051.8000;0.3118;0.9143;
1052.1000;0.3020;0.8887;
1052.4000;0.3020;0.9027;
1052.7000;0.2996;0.9073;
1053.0000;0.2996;0.9120;
1053.3000;0.2979;0.8980;
1053.6000;0.3012;0.8957;
1053.9000;0.3044;0.8980;
1054.2000;0.2996;0.8840;
1054.5000;0.3004;0.8817;
1054.8000;0.3085;0.9027;
1055.1000;0.3004;0.8863;
1055.4000;0.3012;0.8817;
1055.7000;0.3012;0.8957;
1056.0000;0.2955;0.8793;
1056.3000;0.3020;0.8980;
1056.6000;0.2987;0.9050;
1056.9000;0.3020;0.9167;
1057.2000;0.3012;0.9237;
1057.5000;0.2996;0.9190;
1057.8000;0.3012;0.9167;
1058.1000;0.2996;0.9120;
1058.4000;0.3012;0.9143;
1058.7000;0.2987;0.9027;
1059.0000;0.2930;0.8840;
1059.3000;0.3004;0.8910;
1059.6000;0.3020;0.9167;
1059.9000;0.3012;0.9190;
1060.2000;0.3004;0.9143;
1060.5000;0.3004;0.8957;
1060.8000;0.2979;0.8933;
1061.1000;0.3004;0.9027;
1061.4000;0.3004;0.9027;
1061.7000;0.2996;0.8980;
1062.0000;0.3036;0.9120;
1062.3000;0.3012;0.9073;
1062.6000;0.2996;0.8980;
1062.9000;0.3028;0.9073;
1063.2000;0.3012;0.8957;
1063.5000;0.2987;0.8933;
1063.8000;0.2947;0.8817;
1064.1000;0.3012;0.8980;
1064.4000;0.3028;0.9027;
1064.7000;0.3028;0.9027;
1065.0000;0.3101;0.9213;
1065.3000;0.3077;0.9167;
1065.6000;0.2987;0.9003;
1065.9000;0.2996;0.9003;
1066.2000;0.3012;0.9073;
1066.5000;0.2979;0.9073;
1066.8000;0.3012;0.9167;
1067.1000;0.3012;0.9190;
1067.4000;0.3085;0.9377;
1067.7000;0.3020;0.9190;
1068.0000;0.3012;0.9120;
1068.3000;0.2987;0.9027;
1068.6000;0.2987;0.8887;
1068.9000;0.3004;0.9027;
1069.2000;0.2996;0.8980;
1069.5000;0.3101;0.9260;
1069.8000;0.2971;0.9003;
1070.1000;0.3028;0.9120;
1070.4000;0.2906;0.8817;
1070.7000;0.2987;0.9003;
1071.0000;0.2996;0.9050;
1071.3000;0.3012;0.9213;
1071.6000;0.3053;0.9213;
1071.9000;0.2987;0.9097;
1072.2000;0.2996;0.9260;
1072.5000;0.3101;0.9470;
1072.8000;0.3004;0.9190;
1073.1000;0.3012;0.9073;
1073.4000;0.2979;0.9073;
1073.7000;0.3020;0.9120;
1074.0000;0.3012;0.9120;
1074.3000;0.2979;0.9050;
1074.6000;0.3020;0.9167;
1074.9000;0.2996;0.9260;
1075.2000;0.3004;0.9330;
1075.5000;0.3077;0.9516;
1075.8000;0.3028;0.9307;
1076.1000;0.3012;0.9167;
1076.4000;0.2987;0.9120;
1076.7000;0.3028;0.9190;
1077.0000;0.3012;0.9143;
1077.3000;0.3069;0.9260;
1077.6000;0.3020;0.9213;
1077.9000;0.3004;0.9307;
1078.2000;0.3012;0.9260;
1078.5000;0.3020;0.9307;
1078.8000;0.2996;0.9190;
1079.1000;0.2971;0.9073;
1079.4000;0.2996;0.9143;
1079.7000;0.2979;0.9073;
1080.0000;0.3020;0.9143;
1080.3000;0.3012;0.9213;
1080.6000;0.2996;0.9073;
1080.9000;0.2987;0.8980;
1081.2000;0.3020;0.9073;
1081.5000;0.3044;0.9190;
1081.8000;0.3028;0.9213;
1082.1000;0.3036;0.9213;
1082.4000;0.3020;0.9283;
1082.7000;0.3077;0.9423;
1083.0000;0.3012;0.9353;
1083.3000;0.3020;0.9353;
1083.6000;0.2996;0.9260;
1083.9000;0.3004;0.9237;
1084.2000;0.3012;0.9260;
1084.5000;0.3036;0.9447;
1084.8000;0.3004;0.9307;
1085.1000;0.2963;0.9167;
1085.4000;0.2979;0.9237;
1085.7000;0.3004;0.9213;
1086.0000;0.2930;0.8980;
1086.3000;0.3004;0.9073;
1086.6000;0.2971;0.8957;
1086.9000;0.3012;0.9073;
1087.2000;0.3004;0.9073;
1087.5000;0.3004;0.9027;
1087.8000;0.2996;0.9050;
1088.1000;0.3069;0.9213;
1088.4000;0.2979;0.9027;
1088.7000;0.3012;0.9050;
1089.0000;0.3004;0.9073;
1089.3000;0.3053;0.9167;
1089.6000;0.2996;0.8980;
1089.9000;0.2996;0.9073;
1090.2000;0.3020;0.9143;
1090.5000;0.3053;0.9143;
1090.8000;0.2971;0.9003;
1091.1000;0.2996;0.9050;
1091.4000;0.2987;0.9050;
1091.7000;0.3004;0.9167;
1092.0000;0.3012;0.9213;
1092.3000;0.3004;0.9143;
1092.6000;0.3118;0.9400;
1092.9000;0.3012;0.9190;
1093.2000;0.3020;0.9167;
1093.5000;0.2996;0.8980;
1093.8000;0.3004;0.9050;
1094.1000;0.3012;0.8910;
1094.4000;0.3004;0.8817;
1094.7000;0.3020;0.8817;
1095.0000;0.2930;0.8653;
1095.3000;0.3028;0.8957;
1095.6000;0.2996;0.8933;
1095.9000;0.3004;0.8933;
1096.2000;0.3012;0.8910;
1096.5000;0.2996;0.8933;
1096.8000;0.3028;0.9120;
1097.1000;0.3028;0.9097;
1097.4000;0.3004;0.9073;
1097.7000;0.3004;0.9143;
1098.0000;0.3012;0.9213;
1098.3000;0.3012;0.9213;
1098.6000;0.2979;0.9143;
1098.9000;0.3004;0.9190;
1099.2000;0.2996;0.9120;
1099.5000;0.2996;0.9097;
1099.8000;0.3004;0.9143;
1100.1000;0.2971;0.9073;
1100.4000;0.2971;0.9050;
1100.7000;0.3004;0.9050;
1101.0000;0.2987;0.9003;
1101.3000;0.2963;0.9003;
1101.6000;0.2987;0.8980;
1101.9000;0.3020;0.9143;
1102.2000;0.2996;0.9097;
1102.5000;0.3004;0.9027;
1102.8000;0.3004;0.9050;
1103.1000;0.3004;0.9073;
1103.4000;0.3020;0.9167;
1103.7000;0.3012;0.9190;
1104.0000;0.3004;0.9190;
1104.3000;0.2979;0.9073;
1104.6000;0.2987;0.9073;
1104.9000;0.3004;0.9120;
1105.2000;0.2996;0.9097;
1105.5000;0.3012;0.9097;
1105.8000;0.2987;0.9120;
1106.1000;0.2996;0.9120;
1106.4000;0.3004;0.9073;
1106.7000;0.3004;0.9003;
1107.0000;0.3004;0.9073;
1107.3000;0.3012;0.9237;
1107.6000;0.2955;0.9050;
1107.9000;0.3004;0.9143;
1108.2000;0.2996;0.9190;
1108.5000;0.3044;0.9260;
1108.8000;0.3012;0.9190;
1109.1000;0.3012;0.9097;
1109.4000;0.2996;0.9027;
1109.7000;0.3004;0.9027;
1110.0000;0.2996;0.9027;
1110.3000;0.3004;0.9027;
1110.6000;0.3028;0.9120;
1110.9000;0.3012;0.9143;
1111.2000;0.2987;0.9167;
1111.5000;0.2996;0.9213;
1111.8000;0.3044;0.9377;
1112.1000;0.2996;0.9213;
1112.4000;0.2996;0.9190;
1112.7000;0.2979;0.9167;
1113.0000;0.3004;0.9237;
1113.3000;0.3012;0.9307;
1113.6000;0.3004;0.9237;
1113.9000;0.3012;0.9237;
1114.2000;0.2996;0.9143;
1114.5000;0.3004;0.9120;
1114.8000;0.3004;0.9120;
1115.1000;0.2996;0.9120;
1115.4000;0.2987;0.9167;
1115.7000;0.2996;0.9120;
1116.0000;0.2947;0.9027;
1116.3000;0.2971;0.9073;
1116.6000;0.3020;0.9167;
1116.9000;0.3012;0.9190;
1117.2000;0.2996;0.9143;
1117.5000;0.3004;0.9097;
1117.8000;0.3012;0.9120;
1118.1000;0.2963;0.9003;
1118.4000;0.3012;0.9097;
1118.7000;0.3028;0.9237;
1119.0000;0.3012;0.9097;
1119.3000;0.3004;0.9167;
1119.6000;0.3028;0.9213;
1119.9000;0.2979;0.9143;
1120.2000;0.2987;0.9213;
1120.5000;0.2979;0.9143;
1120.8000;0.3020;0.9143;
1121.1000;0.3101;0.9353;
1121.4000;0.3004;0.9143;
1121.7000;0.3004;0.9097;
1122.0000;0.3004;0.9097;
1122.3000;0.2996;0.9097;
1122.6000;0.2996;0.9073;
1122.9000;0.3012;0.9050;
1123.2000;0.2996;0.9097;
1123.5000;0.3020;0.9167;
1123.8000;0.3069;0.9330;
1124.1000;0.2987;0.9143;
1124.4000;0.3004;0.9167;
1124.7000;0.2996;0.9073;
1125.0000;0.3020;0.9120;
1125.3000;0.2996;0.9050;
1125.6000;0.2955;0.9027;
1125.9000;0.2987;0.8980;
1126.2000;0.3012;0.9050;
1126.5000;0.3004;0.9003;
1126.8000;0.3061;0.9097;
1127.1000;0.3044;0.9097;
1127.4000;0.2987;0.8980;
1127.7000;0.2996;0.9027;
1128.0000;0.2906;0.8863;
1128.3000;0.3012;0.9167;
1128.6000;0.3044;0.9283;
1128.9000;0.3012;0.9307;
1129.2000;0.3012;0.9167;
1129.5000;0.2996;0.9097;
1129.8000;0.3004;0.9237;
1130.1000;0.2987;0.9097;
1130.4000;0.3004;0.9097;
1130.7000;0.3044;0.9167;
1131.0000;0.2987;0.9050;
1131.3000;0.2996;0.9050;
1131.6000;0.3020;0.9027;
1131.9000;0.3012;0.9073;
1132.2000;0.3020;0.9190;
1132.5000;0.3077;0.9307;
1132.8000;0.2996;0.9120;
1133.1000;0.2987;0.9167;
1133.4000;0.3012;0.9260;
1133.7000;0.3020;0.9237;
1134.0000;0.3020;0.9120;
1134.3000;0.3012;0.9237;
1134.6000;0.2987;0.9143;
1134.9000;0.2987;0.9073;
1135.2000;0.3004;0.9050;
1135.5000;0.3012;0.9027;
1135.8000;0.3004;0.9027;
1136.1000;0.2996;0.8933;
1136.4000;0.3012;0.9027;
1136.7000;0.2987;0.9027;
1137.0000;0.2996;0.9003;
1137.3000;0.3020;0.9120;
1137.6000;0.3012;0.9237;
1137.9000;0.3036;0.9307;
1138.2000;0.2996;0.9143;
1138.5000;0.3004;0.9143;
1138.8000;0.3028;0.9143;
1139.1000;0.3004;0.9073;
1139.4000;0.3004;0.9003;
1139.7000;0.2996;0.8910;
1140.0000;0.2996;0.8933;
1140.3000;0.2996;0.9073;
1140.6000;0.3012;0.9213;
1140.9000;0.2996;0.9143;
1141.2000;0.2979;0.9167;
1141.5000;0.3004;0.9307;
1141.8000;0.3012;0.9330;
1142.1000;0.2996;0.9400;
1142.4000;0.3004;0.9423;
1142.7000;0.3004;0.9493;
1143.0000;0.2955;0.9353;
1143.3000;0.3012;0.9353;
1143.6000;0.3004;0.9213;
1143.9000;0.3020;0.9330;
1144.2000;0.3012;0.9237;
1144.5000;0.2979;0.9190;
1144.8000;0.2930;0.9143;
1145.1000;0.3012;0.9237;
1145.4000;0.3004;0.9143;
1145.7000;0.2996;0.9073;
1146.0000;0.3028;0.9073;
1146.3000;0.2996;0.9097;
1146.6000;0.3020;0.9167;
1146.9000;0.3004;0.9260;
1147.2000;0.2987;0.9237;
1147.5000;0.2996;0.9190;
1147.8000;0.3020;0.9400;
1148.1000;0.3036;0.9447;
1148.4000;0.2987;0.9283;
1148.7000;0.2963;0.9143;
1149.0000;0.3004;0.9190;
1149.3000;0.3020;0.9260;
1149.6000;0.2996;0.9190;
1149.9000;0.2987;0.9120;
1150.2000;0.2947;0.9050;
1150.5000;0.3012;0.9213;
1150.8000;0.3020;0.9120;
1151.1000;0.2996;0.9027;
1151.4000;0.2987;0.9027;
1151.7000;0.2971;0.8910;
1152.0000;0.2987;0.9003;
1152.3000;0.2979;0.9003;
1152.6000;0.3004;0.9073;
1152.9000;0.3004;0.9237;
1153.2000;0.3012;0.9260;
1153.5000;0.2987;0.9143;
1153.8000;0.3004;0.9143;
1154.1000;0.3012;0.9213;
1154.4000;0.2996;0.9237;
1154.7000;0.2996;0.9190;
1155.0000;0.2971;0.9143;
1155.3000;0.3012;0.9260;
1155.6000;0.2996;0.9260;
1155.9000;0.2996;0.9283;
1156.2000;0.2987;0.9260;
1156.5000;0.3036;0.9307;
1156.8000;0.3020;0.9283;
1157.1000;0.2906;0.8957;
1157.4000;0.2987;0.9050;
1157.7000;0.3012;0.9143;
1158.0000;0.3061;0.9213;
1158.3000;0.3004;0.9120;
1158.6000;0.3004;0.9027;
1158.9000;0.2987;0.9073;
1159.2000;0.3004;0.9097;
1159.5000;0.2971;0.9003;
1159.8000;0.3004;0.9097;
1160.1000;0.2979;0.9027;
1160.4000;0.3004;0.9050;
1160.7000;0.2996;0.9120;
1161.0000;0.2996;0.9237;
1161.3000;0.2914;0.9003;
1161.6000;0.2987;0.9143;
1161.9000;0.2996;0.9213;
1162.2000;0.2987;0.9143;
1162.5000;0.2996;0.9073;
1162.8000;0.2939;0.8933;
1163.1000;0.3020;0.9027;
1163.4000;0.3004;0.9097;
1163.7000;0.3004;0.9073;
1164.0000;0.2996;0.9097;
1164.3000;0.2996;0.9143;
1164.6000;0.2987;0.9050;
1164.9000;0.3069;0.9330;
1165.2000;0.3004;0.9190;
1165.5000;0.2987;0.9097;
1165.8000;0.2996;0.9190;
1166.1000;0.2987;0.9167;
1166.4000;0.2996;0.9143;
1166.7000;0.2987;0.9213;
1167.0000;0.3012;0.9260;
1167.3000;0.3004;0.9237;
1167.6000;0.2930;0.9027;
1167.9000;0.3020;0.9143;
1168.2000;0.3028;0.9190;
1168.5000;0.2996;0.9167;
1168.8000;0.3028;0.9283;
1169.1000;0.3004;0.9307;
1169.4000;0.2979;0.9213;
1169.7000;0.2996;0.9237;
1170.0000;0.3012;0.9260;
1170.3000;0.2979;0.9190;
1170.6000;0.3004;0.9330;
1170.9000;0.3020;0.9400;
1171.2000;0.3028;0.9330;
1171.5000;0.2996;0.9307;
1171.8000;0.2996;0.9377;
1172.1000;0.3012;0.9447;
1172.4000;0.3004;0.9400;
1172.7000;0.3012;0.9423;
1173.0000;0.2987;0.9353;
1173.3000;0.2987;0.9260;
1173.6000;0.3004;0.9237;
1173.9000;0.2987;0.9237;
1174.2000;0.3044;0.9516;
1174.5000;0.2979;0.9260;
1174.8000;0.3012;0.9377;
1175.1000;0.3020;0.9330;
1175.4000;0.3077;0.9516;
1175.7000;0.3020;0.9377;
1176.0000;0.3004;0.9307;
1176.3000;0.3020;0.9423;
1176.6000;0.2979;0.9400;
1176.9000;0.3028;0.9447;
1177.2000;0.2987;0.9330;
1177.5000;0.2987;0.9400;
1177.8000;0.3020;0.9423;
1178.1000;0.3028;0.9470;
1178.4000;0.3044;0.9447;
1178.7000;0.3004;0.9283;
1179.0000;0.2947;0.9237;
1179.3000;0.2963;0.9283;
1179.6000;0.3028;0.9330;
1179.9000;0.2987;0.9237;
1180.2000;0.3020;0.9353;
1180.5000;0.2996;0.9260;
1180.8000;0.3012;0.9237;
1181.1000;0.3069;0.9353;
1181.4000;0.3036;0.9237;
1181.7000;0.3020;0.9213;
1182.0000;0.3004;0.9190;
1182.3000;0.3028;0.9167;
1182.6000;0.2979;0.9143;
1182.9000;0.3028;0.9330;
1183.2000;0.3004;0.9283;
1183.5000;0.3061;0.9353;
1183.8000;0.3012;0.9073;
1184.1000;0.2963;0.9027;
1184.4000;0.2996;0.9213;
1184.7000;0.3020;0.9400;
1185.0000;0.3004;0.9330;
1185.3000;0.2996;0.9330;
1185.6000;0.3061;0.9423;
1185.9000;0.3020;0.9330;
1186.2000;0.3004;0.9237;
1186.5000;0.3028;0.9307;
1186.8000;0.3012;0.9353;
1187.1000;0.2963;0.9237;
1187.4000;0.2996;0.9330;
1187.7000;0.2898;0.8980;
1188.0000;0.2979;0.9190;
1188.3000;0.2996;0.9237;
1188.6000;0.2930;0.9120;
1188.9000;0.2987;0.9213;
1189.2000;0.2996;0.9190;
1189.5000;0.3020;0.9237;
1189.8000;0.2996;0.9237;
1190.1000;0.2987;0.9237;
1190.4000;0.2987;0.9213;
1190.7000;0.2996;0.9260;
1191.0000;0.3012;0.9283;
1191.3000;0.3004;0.9330;
1191.6000;0.2996;0.9307;
1191.9000;0.2979;0.9260;
1192.2000;0.2987;0.9167;
1192.5000;0.3004;0.9143;
1192.8000;0.2987;0.9190;
1193.1000;0.2971;0.9167;
1193.4000;0.3004;0.9260;
1193.7000;0.3012;0.9213;
1194.0000;0.2987;0.9190;
1194.3000;0.2963;0.9190;
1194.6000;0.2979;0.9167;
1194.9000;0.2987;0.9167;
1195.2000;0.3020;0.9330;
1195.5000;0.2979;0.9213;
1195.8000;0.2979;0.9143;
1196.1000;0.2987;0.9260;
1196.4000;0.3020;0.9353;
1196.7000;0.2996;0.9400;
1197.0000;0.2996;0.9470;
1197.3000;0.2955;0.9423;
1197.6000;0.2996;0.9493;
1197.9000;0.2979;0.9330;
1198.2000;0.2996;0.9400;
1198.5000;0.3004;0.9423;
1198.8000;0.2987;0.9377;
1199.1000;0.3004;0.9377;
1199.4000;0.2955;0.9283;
1199.7000;0.3012;0.9283;
1200.0000;0.2979;0.9143;
1200.3000;0.2996;0.9237;
1200.6000;0.3004;0.9353;
1200.9000;0.3020;0.9353;
1201.2000;0.3012;0.9307;
1201.5000;0.3004;0.9307;
1201.8000;0.3012;0.9237;
1202.1000;0.3012;0.9190;
1202.4000;0.2979;0.9260;
1202.7000;0.2890;0.9027;
1203.0000;0.2996;0.9213;
1203.3000;0.2979;0.9073;
1203.6000;0.2979;0.8980;
1203.9000;0.2996;0.9050;
1204.2000;0.3004;0.9213;
1204.5000;0.2979;0.9283;
1204.8000;0.2971;0.9167;
1205.1000;0.2979;0.9097;
1205.4000;0.2979;0.9167;
1205.7000;0.3004;0.9190;
1206.0000;0.2971;0.9120;
1206.3000;0.2987;0.9260;
1206.6000;0.3036;0.9400;
1206.9000;0.3004;0.9307;
1207.2000;0.2987;0.9260;
1207.5000;0.2987;0.9260;
1207.8000;0.3004;0.9353;
1208.1000;0.3004;0.9353;
1208.4000;0.2987;0.9353;
1208.7000;0.2987;0.9353;
1209.0000;0.2996;0.9423;
1209.3000;0.3012;0.9610;
1209.6000;0.3004;0.9680;
1209.9000;0.3004;0.9610;
1210.2000;0.3004;0.9586;
1210.5000;0.3004;0.9563;
1210.8000;0.3004;0.9516;
1211.1000;0.3004;0.9470;
1211.4000;0.3012;0.9470;
1211.7000;0.2987;0.9400;
1212.0000;0.2971;0.9330;
1212.3000;0.3004;0.9400;
1212.6000;0.2996;0.9400;
1212.9000;0.3012;0.9470;
1213.2000;0.3004;0.9493;
1213.5000;0.2987;0.9423;
1213.8000;0.3012;0.9400;
1214.1000;0.2979;0.9330;
1214.4000;0.2996;0.9353;
1214.7000;0.2996;0.9353;
1215.0000;0.3012;0.9330;
1215.3000;0.3012;0.9283;
1215.6000;0.2979;0.9237;
1215.9000;0.3012;0.9283;
1216.2000;0.3020;0.9190;
1216.5000;0.2996;0.9283;
1216.8000;0.3004;0.9307;
1217.1000;0.3004;0.9400;
1217.4000;0.2987;0.9470;
1217.7000;0.3004;0.9470;
1218.0000;0.2979;0.9330;
1218.3000;0.2979;0.9283;
1218.6000;0.2963;0.9260;
1218.9000;0.3004;0.9330;
1219.2000;0.2987;0.9283;
1219.5000;0.2987;0.9423;
1219.8000;0.3004;0.9447;
1220.1000;0.2987;0.9470;
1220.4000;0.3028;0.9610;
1220.7000;0.3020;0.9516;
1221.0000;0.3044;0.9493;
1221.3000;0.2996;0.9470;
1221.6000;0.3028;0.9493;
1221.9000;0.3004;0.9447;
1222.2000;0.3004;0.9470;
1222.5000;0.3012;0.9470;
1222.8000;0.2979;0.9400;
1223.1000;0.2987;0.9423;
1223.4000;0.3012;0.9470;
1223.7000;0.2963;0.9330;
1224.0000;0.2987;0.9330;
1224.3000;0.2987;0.9377;
1224.6000;0.2987;0.9260;
1224.9000;0.3004;0.9307;
1225.2000;0.3012;0.9283;
1225.5000;0.2987;0.9260;
1225.8000;0.3012;0.9353;
1226.1000;0.3012;0.9330;
1226.4000;0.2979;0.9353;
1226.7000;0.2987;0.9330;
1227.0000;0.2996;0.9307;
1227.3000;0.2979;0.9213;
1227.6000;0.2963;0.9190;
1227.9000;0.2987;0.9237;
1228.2000;0.2987;0.9213;
1228.5000;0.2996;0.9190;
1228.8000;0.2987;0.9097;
1229.1000;0.2987;0.9097;
1229.4000;0.3004;0.9167;
1229.7000;0.3012;0.9260;
1230.0000;0.3012;0.9167;
1230.3000;0.3004;0.9283;
1230.6000;0.2987;0.9283;
1230.9000;0.3012;0.9423;
1231.2000;0.2979;0.9260;
1231.5000;0.2996;0.9307;
1231.8000;0.3020;0.9377;
1232.1000;0.2979;0.9353;
1232.4000;0.2987;0.9353;
1232.7000;0.3004;0.9353;
1233.0000;0.2987;0.9283;
1233.3000;0.3028;0.9353;
1233.6000;0.3004;0.9283;
1233.9000;0.2987;0.9260;
1234.2000;0.2996;0.9330;
1234.5000;0.2996;0.9330;
1234.8000;0.2939;0.9120;
1235.1000;0.2996;0.9283;
1235.4000;0.2987;0.9213;
1235.7000;0.2939;0.9143;
1236.0000;0.3020;0.9353;
1236.3000;0.3012;0.9237;
1236.6000;0.2996;0.9073;
1236.9000;0.3004;0.9050;
1237.2000;0.3020;0.9120;
1237.5000;0.3012;0.9097;
1237.8000;0.3004;0.9167;
1238.1000;0.2979;0.9097;
1238.4000;0.3012;0.9143;
1238.7000;0.3004;0.9143;
1239.0000;0.2979;0.9120;
1239.3000;0.2971;0.9143;
1239.6000;0.2963;0.9027;
1239.9000;0.3004;0.9050;
1240.2000;0.2996;0.9073;
1240.5000;0.2996;0.9097;
1240.8000;0.2987;0.9097;
1241.1000;0.3012;0.9143;
1241.4000;0.3028;0.9143;
1241.7000;0.2979;0.9003;
1242.0000;0.3012;0.9073;
1242.3000;0.3036;0.9143;
1242.6000;0.3036;0.9120;
1242.9000;0.3020;0.9190;
1243.2000;0.3012;0.9027;
1243.5000;0.3020;0.9120;
1243.8000;0.3004;0.9213;
1244.1000;0.2996;0.9190;
1244.4000;0.2996;0.9260;
1244.7000;0.2996;0.9307;
1245.0000;0.3012;0.9330;
1245.3000;0.3020;0.9353;
1245.6000;0.2979;0.9260;
1245.9000;0.2979;0.9213;
1246.2000;0.3012;0.9213;
1246.5000;0.3012;0.9260;
1246.8000;0.3004;0.9307;
1247.1000;0.3012;0.9260;
1247.4000;0.2955;0.9167;
1247.7000;0.2882;0.8957;
1248.0000;0.2979;0.9143;
1248.3000;0.2987;0.9120;
1248.6000;0.2987;0.9143;
1248.9000;0.3093;0.9307;
1249.2000;0.3020;0.9167;
1249.5000;0.2890;0.8887;
1249.8000;0.3012;0.9143;
1250.1000;0.2996;0.9213;
1250.4000;0.3004;0.9330;
1250.7000;0.3028;0.9237;
1251.0000;0.3085;0.9330;
1251.3000;0.2939;0.8887;
1251.6000;0.2955;0.8887;
1251.9000;0.2996;0.9097;
1252.2000;0.3004;0.9143;
1252.5000;0.3012;0.9167;
1252.8000;0.3004;0.9073;
1253.1000;0.2979;0.9003;
1253.4000;0.2979;0.9073;
1253.7000;0.2979;0.9027;
1254.0000;0.2971;0.9003;
1254.3000;0.2996;0.9120;
1254.6000;0.2987;0.9097;
1254.9000;0.2996;0.9143;
1255.2000;0.2996;0.9073;
1255.5000;0.2996;0.9027;
1255.8000;0.2996;0.8957;
1256.1000;0.2922;0.8770;
1256.4000;0.3028;0.9027;
1256.7000;0.3020;0.9050;
1257.0000;0.3012;0.9027;
1257.3000;0.3012;0.9097;
1257.6000;0.2987;0.9073;
1257.9000;0.3085;0.9260;
1258.2000;0.2947;0.8910;
1258.5000;0.3004;0.9097;
1258.8000;0.3004;0.9027;
1259.1000;0.3004;0.9097;
1259.4000;0.3004;0.9050;
1259.7000;0.3020;0.9097;
1260.0000;0.3004;0.9050;
1260.3000;0.2979;0.9050;
1260.6000;0.2996;0.9097;
1260.9000;0.3012;0.9143;
1261.2000;0.2996;0.9097;
1261.5000;0.3020;0.9143;
1261.8000;0.3004;0.9097;
1262.1000;0.3012;0.9190;
1262.4000;0.2979;0.9120;
1262.7000;0.3004;0.9143;
1263.0000;0.3004;0.9167;
1263.3000;0.3004;0.9237;
1263.6000;0.3004;0.9190;
1263.9000;0.3004;0.9237;
1264.2000;0.3004;0.9190;
1264.5000;0.3004;0.9213;
1264.8000;0.2996;0.9213;
1265.1000;0.3061;0.9330;
1265.4000;0.2996;0.9073;
1265.7000;0.3020;0.9120;
1266.0000;0.2955;0.8980;
1266.3000;0.3004;0.9097;
1266.6000;0.3012;0.9213;
1266.9000;0.2987;0.9190;
1267.2000;0.2947;0.9050;
1267.5000;0.3004;0.9120;
1267.8000;0.3012;0.9213;
1268.1000;0.3012;0.9213;
1268.4000;0.2996;0.9213;
1268.7000;0.2996;0.9143;
1269.0000;0.3004;0.9143;
1269.3000;0.3012;0.9143;
1269.6000;0.3004;0.9143;
1269.9000;0.2987;0.9167;
1270.2000;0.2996;0.9260;
1270.5000;0.3004;0.9260;
1270.8000;0.3012;0.9353;
1271.1000;0.2987;0.9190;
1271.4000;0.2996;0.9167;
1271.7000;0.2987;0.9190;
1272.0000;0.3012;0.9283;
1272.3000;0.2996;0.9400;
1272.6000;0.2979;0.9353;
1272.9000;0.3004;0.9353;
1273.2000;0.2996;0.9330;
1273.5000;0.3012;0.9237;
1273.8000;0.2963;0.9027;
1274.1000;0.2987;0.9097;
1274.4000;0.3004;0.9167;
1274.7000;0.3044;0.9213;
1275.0000;0.2979;0.9167;
1275.3000;0.3044;0.9260;
1275.6000;0.2987;0.9167;
1275.9000;0.2987;0.9167;
1276.2000;0.2987;0.9190;
1276.5000;0.2979;0.9050;
1276.8000;0.3053;0.9237;
1277.1000;0.3004;0.9213;
1277.4000;0.2963;0.9143;
1277.7000;0.2996;0.9237;
1278.0000;0.3028;0.9283;
1278.3000;0.3012;0.9213;
1278.6000;0.2971;0.9120;
1278.9000;0.2996;0.9143;
1279.2000;0.2947;0.9027;
1279.5000;0.3004;0.9073;
1279.8000;0.3012;0.9050;
1280.1000;0.2979;0.9073;
1280.4000;0.2996;0.9027;
1280.7000;0.2963;0.9027;
1281.0000;0.2996;0.9073;
1281.3000;0.2996;0.9097;
1281.6000;0.2996;0.9073;
1281.9000;0.3077;0.9237;
1282.2000;0.3012;0.9120;
1282.5000;0.3004;0.9073;
1282.8000;0.3012;0.9097;
1283.1000;0.3020;0.9143;
1283.4000;0.3012;0.9050;
1283.7000;0.2963;0.8957;
1284.0000;0.3036;0.9120;
1284.3000;0.3004;0.9003;
1284.6000;0.2996;0.8957;
1284.9000;0.2996;0.8933;
1285.2000;0.2996;0.8887;
1285.5000;0.2979;0.9003;
1285.8000;0.3004;0.9143;
1286.1000;0.2996;0.9167;
1286.4000;0.2987;0.9237;
1286.7000;0.2963;0.9237;
1287.0000;0.3004;0.9283;
1287.3000;0.3012;0.9330;
1287.6000;0.2996;0.9237;
1287.9000;0.3004;0.9260;
1288.2000;0.3012;0.9307;
1288.5000;0.2971;0.9237;
1288.8000;0.2979;0.9283;
1289.1000;0.2987;0.9237;
1289.4000;0.3012;0.9260;
1289.7000;0.3020;0.9307;
1290.0000;0.3004;0.9190;
1290.3000;0.3004;0.9143;
1290.6000;0.2996;0.9097;
1290.9000;0.3101;0.9330;
1291.2000;0.2987;0.9073;
1291.5000;0.2996;0.9073;
1291.8000;0.2996;0.9050;
1292.1000;0.3004;0.9073;
1292.4000;0.3004;0.9143;
1292.7000;0.3012;0.9190;
1293.0000;0.2987;0.9190;
1293.3000;0.3012;0.9283;
1293.6000;0.3012;0.9400;
1293.9000;0.3004;0.9423;
1294.2000;0.2996;0.9377;
1294.5000;0.3028;0.9423;
1294.8000;0.2996;0.9423;
1295.1000;0.3004;0.9400;
1295.4000;0.3004;0.9423;
1295.7000;0.3004;0.9540;
1296.0000;0.2996;0.9540;
1296.3000;0.2971;0.9447;
1296.6000;0.2939;0.9307;
1296.9000;0.2971;0.9307;
1297.2000;0.2987;0.9260;
1297.5000;0.3028;0.9330;
1297.8000;0.2979;0.9283;
1298.1000;0.3004;0.9307;
1298.4000;0.2996;0.9400;
1298.7000;0.2987;0.9400;
1299.0000;0.2898;0.9190;
1299.3000;0.3004;0.9470;
1299.6000;0.3036;0.9516;
1299.9000;0.3004;0.9423;
1300.2000;0.2996;0.9307;
1300.5000;0.3012;0.9237;
1300.8000;0.2963;0.9213;
1301.1000;0.3004;0.9283;
1301.4000;0.3004;0.9260;
1301.7000;0.2987;0.9237;
1302.0000;0.2979;0.9283;
1302.3000;0.2996;0.9283;
1302.6000;0.3028;0.9447;
1302.9000;0.2996;0.9377;
1303.2000;0.2987;0.9260;
1303.5000;0.2996;0.9260;
1303.8000;0.2987;0.9190;
1304.1000;0.3004;0.9120;
1304.4000;0.2971;0.9050;
1304.7000;0.2979;0.9050;
1305.0000;0.2996;0.9143;
1305.3000;0.2979;0.9143;
1305.6000;0.2996;0.9260;
1305.9000;0.2963;0.9167;
1306.2000;0.3004;0.9213;
1306.5000;0.2987;0.9260;
1306.8000;0.2996;0.9307;
1307.1000;0.2987;0.9237;
1307.4000;0.2996;0.9213;
1307.7000;0.2987;0.9167;
1308.0000;0.2979;0.9097;
1308.3000;0.2996;0.9167;
1308.6000;0.3020;0.9143;
1308.9000;0.2987;0.9050;
1309.2000;0.2979;0.9073;
1309.5000;0.3012;0.9190;
1309.8000;0.2979;0.9097;
1310.1000;0.2996;0.9120;
1310.4000;0.2963;0.8980;
1310.7000;0.3004;0.9097;
1311.0000;0.2979;0.8957;
1311.3000;0.2996;0.9073;
1311.6000;0.2971;0.9003;
1311.9000;0.3004;0.9027;
1312.2000;0.2987;0.8980;
1312.5000;0.3004;0.9073;
1312.8000;0.3004;0.9050;
1313.1000;0.2930;0.8980;
1313.4000;0.2963;0.9097;
1313.7000;0.3004;0.9097;
1314.0000;0.3012;0.9190;
1314.3000;0.3085;0.9423;
1314.6000;0.2979;0.9097;
1314.9000;0.2987;0.9097;
1315.2000;0.3004;0.9120;
1315.5000;0.2963;0.9073;
1315.8000;0.2987;0.9143;
1316.1000;0.2979;0.9143;
1316.4000;0.2979;0.9213;
1316.7000;0.2996;0.9213;
1317.0000;0.3004;0.9213;
1317.3000;0.3004;0.9190;
1317.6000;0.3020;0.9213;
1317.9000;0.3020;0.9143;
1318.2000;0.3036;0.9143;
1318.5000;0.2971;0.8980;
1318.8000;0.2987;0.9097;
1319.1000;0.3004;0.9120;
1319.4000;0.3004;0.9120;
1319.7000;0.2996;0.9120;
1320.0000;0.2930;0.8957;
1320.3000;0.2979;0.9073;
1320.6000;0.2979;0.9003;
1320.9000;0.2971;0.9027;
1321.2000;0.2979;0.8933;
1321.5000;0.3093;0.9237;
1321.8000;0.2996;0.9003;
1322.1000;0.3053;0.9120;
1322.4000;0.2987;0.9050;
1322.7000;0.2963;0.9003;
1323.0000;0.2996;0.9050;
1323.3000;0.3004;0.9050;
1323.6000;0.2971;0.9073;
1323.9000;0.3004;0.9143;
1324.2000;0.3020;0.9120;
1324.5000;0.3004;0.9073;
1324.8000;0.2979;0.9120;
1325.1000;0.3020;0.9120;
1325.4000;0.2996;0.9027;
1325.7000;0.3012;0.9097;
1326.0000;0.3004;0.9120;
1326.3000;0.3036;0.9213;
1326.6000;0.2979;0.9050;
1326.9000;0.2996;0.9190;
1327.2000;0.2987;0.9237;
1327.5000;0.2996;0.9237;
1327.8000;0.2947;0.9027;
1328.1000;0.2971;0.9073;
1328.4000;0.2979;0.9027;
1328.7000;0.2987;0.9027;
1329.0000;0.3020;0.9050;
1329.3000;0.3004;0.8980;
1329.6000;0.3012;0.9027;
1329.9000;0.2996;0.9003;
1330.2000;0.2979;0.9073;
1330.5000;0.3012;0.9027;
1330.8000;0.2987;0.9027;
1331.1000;0.3004;0.9143;
1331.4000;0.2987;0.9097;
1331.7000;0.2996;0.9073;
1332.0000;0.2996;0.9003;
1332.3000;0.2987;0.9027;
1332.6000;0.2996;0.9050;
1332.9000;0.2987;0.9097;
1333.2000;0.2979;0.9027;
1333.5000;0.3004;0.8933;
1333.8000;0.3012;0.8933;
1334.1000;0.3020;0.9003;
1334.4000;0.2996;0.8933;
1334.7000;0.3004;0.9027;
1335.0000;0.2987;0.9073;
1335.3000;0.2987;0.9050;
1335.6000;0.2963;0.8957;
1335.9000;0.2987;0.9027;
1336.2000;0.2996;0.9027;
1336.5000;0.3020;0.9003;
1336.8000;0.2996;0.8957;
1337.1000;0.3020;0.9003;
1337.4000;0.2947;0.8887;
1337.7000;0.2979;0.8980;
1338.0000;0.2996;0.9050;
1338.3000;0.3004;0.9027;
1338.6000;0.2987;0.9027;
1338.9000;0.2996;0.9003;
1339.2000;0.2996;0.9027;
1339.5000;0.3012;0.9027;
1339.8000;0.2996;0.8980;
1340.1000;0.2996;0.9097;
1340.4000;0.2987;0.9120;
1340.7000;0.3004;0.9143;
1341.0000;0.3004;0.9027;
1341.3000;0.2963;0.8910;
1341.6000;0.3028;0.9027;
1341.9000;0.2987;0.8933;
1342.2000;0.3036;0.9050;
1342.5000;0.2996;0.9143;
1342.8000;0.3004;0.9167;
1343.1000;0.2987;0.9120;
1343.4000;0.2971;0.9073;
1343.7000;0.2987;0.9050;
1344.0000;0.3044;0.9167;
1344.3000;0.3004;0.9120;
1344.6000;0.2987;0.9120;
1344.9000;0.2979;0.9027;
1345.2000;0.3004;0.9097;
1345.5000;0.2996;0.9050;
1345.8000;0.2996;0.9097;
1346.1000;0.2979;0.9050;
1346.4000;0.2996;0.9190;
1346.7000;0.2979;0.9260;
1347.0000;0.2987;0.9353;
1347.3000;0.2971;0.9400;
1347.6000;0.3012;0.9377;
1347.9000;0.2971;0.9330;
1348.2000;0.2996;0.9377;
1348.5000;0.3004;0.9400;
1348.8000;0.2979;0.9377;
1349.1000;0.2971;0.9353;
1349.4000;0.2979;0.9330;
1349.7000;0.3004;0.9400;
1350.0000;0.2979;0.9353;
1350.3000;0.2971;0.9283;
1350.6000;0.2979;0.9307;
1350.9000;0.3004;0.9213;
1351.2000;0.3004;0.9190;
1351.5000;0.2996;0.9190;
1351.8000;0.2987;0.9213;
1352.1000;0.2987;0.9237;
1352.4000;0.2996;0.9213;
1352.7000;0.3061;0.9213;
1353.0000;0.2971;0.9073;
1353.3000;0.3004;0.9167;
1353.6000;0.3012;0.9237;
1353.9000;0.2947;0.8957;
1354.2000;0.2996;0.9073;
1354.5000;0.3004;0.9097;
1354.8000;0.2996;0.9143;
1355.1000;0.3004;0.9167;
1355.4000;0.3004;0.9190;
1355.7000;0.3044;0.9213;
1356.0000;0.3004;0.9027;
1356.3000;0.2963;0.9027;
1356.6000;0.2979;0.9073;
1356.9000;0.2987;0.8980;
1357.2000;0.2987;0.8887;
1357.5000;0.2987;0.8980;
1357.8000;0.3004;0.9003;
1358.1000;0.2987;0.8980;
1358.4000;0.2987;0.8910;
1358.7000;0.3012;0.8933;
1359.0000;0.3028;0.8957;
1359.3000;0.2979;0.8933;
1359.6000;0.2955;0.8840;
1359.9000;0.2963;0.8887;
1360.2000;0.2979;0.9050;
1360.5000;0.2987;0.9073;
1360.8000;0.3044;0.9190;
1361.1000;0.3004;0.9120;
1361.4000;0.2971;0.8980;
1361.7000;0.2971;0.8980;
1362.0000;0.3004;0.9003;
1362.3000;0.2979;0.8910;
1362.6000;0.3012;0.9073;
1362.9000;0.2996;0.9027;
1363.2000;0.2996;0.8957;
1363.5000;0.2996;0.8933;
1363.8000;0.2971;0.8957;
1364.1000;0.2996;0.9050;
1364.4000;0.2979;0.9027;
1364.7000;0.3004;0.9003;
1365.0000;0.3004;0.9073;
1365.3000;0.2996;0.9027;
1365.6000;0.3004;0.8957;
1365.9000;0.3020;0.8980;
1366.2000;0.3012;0.8887;
1366.5000;0.2996;0.8817;
1366.8000;0.2898;0.8653;
1367.1000;0.2987;0.8910;
1367.4000;0.2955;0.8910;
1367.7000;0.2987;0.9097;
1368.0000;0.2996;0.9120;
1368.3000;0.2971;0.8887;
1368.6000;0.2971;0.8910;
1368.9000;0.3004;0.9027;
1369.2000;0.2996;0.9050;
1369.5000;0.2971;0.9003;
1369.8000;0.3012;0.9120;
1370.1000;0.2979;0.9120;
1370.4000;0.3109;0.9423;
1370.7000;0.2996;0.9143;
1371.0000;0.2987;0.9073;
1371.3000;0.2987;0.9050;
1371.6000;0.3020;0.9190;
1371.9000;0.2979;0.9027;
1372.2000;0.2996;0.9003;
1372.5000;0.2979;0.8980;
1372.8000;0.2955;0.8933;
1373.1000;0.2971;0.9003;
1373.4000;0.2971;0.9073;
1373.7000;0.2955;0.9073;
1374.0000;0.3004;0.9143;
1374.3000;0.3004;0.9190;
1374.6000;0.2996;0.9167;
1374.9000;0.3085;0.9353;
1375.2000;0.3004;0.9097;
1375.5000;0.3012;0.9097;
1375.8000;0.2987;0.9003;
1376.1000;0.3004;0.9097;
1376.4000;0.2987;0.9167;
1376.7000;0.3036;0.9237;
1377.0000;0.2996;0.9120;
1377.3000;0.3012;0.9190;
1377.6000;0.3020;0.9283;
1377.9000;0.3020;0.9190;
1378.2000;0.3004;0.9120;
1378.5000;0.2987;0.9120;
1378.8000;0.3020;0.9283;
1379.1000;0.3004;0.9237;
1379.4000;0.2987;0.9120;
1379.7000;0.3061;0.9260;
1380.0000;0.2996;0.9143;
1380.3000;0.3028;0.9260;
1380.6000;0.3004;0.9307;
1380.9000;0.3109;0.9423;
1381.2000;0.2996;0.9097;
1381.5000;0.3012;0.9120;
1381.8000;0.2963;0.9073;
1382.1000;0.3004;0.9073;
1382.4000;0.2979;0.9003;
1382.7000;0.2996;0.9050;
1383.0000;0.2987;0.9073;
1383.3000;0.2987;0.9120;
1383.6000;0.3004;0.9167;
1383.9000;0.2971;0.9097;
1384.2000;0.3004;0.9167;
1384.5000;0.2987;0.9213;
1384.8000;0.2939;0.8980;
1385.1000;0.2996;0.9120;
1385.4000;0.3004;0.9167;
1385.7000;0.2996;0.9237;
1386.0000;0.3036;0.9307;
1386.3000;0.2987;0.9167;
1386.6000;0.2987;0.9167;
1386.9000;0.2987;0.9097;
1387.2000;0.3036;0.9120;
1387.5000;0.2987;0.9027;
1387.8000;0.3036;0.9120;
1388.1000;0.2979;0.8980;
1388.4000;0.2987;0.9073;
1388.7000;0.3012;0.9167;
1389.0000;0.2987;0.9143;
1389.3000;0.2987;0.9120;
1389.6000;0.2996;0.9190;
1389.9000;0.3012;0.9330;
1390.2000;0.2996;0.9307;
1390.5000;0.2971;0.9167;
1390.8000;0.3012;0.9167;
1391.1000;0.3012;0.9143;
1391.4000;0.3044;0.9260;
1391.7000;0.3028;0.9307;
1392.0000;0.3044;0.9353;
1392.3000;0.2971;0.9190;
1392.6000;0.3012;0.9260;
1392.9000;0.2996;0.9213;
1393.2000;0.3012;0.9143;
1393.5000;0.3101;0.9400;
1393.8000;0.2930;0.9003;
1394.1000;0.3036;0.9190;
1394.4000;0.3061;0.9167;
1394.7000;0.2971;0.9050;
1395.0000;0.2996;0.9167;
1395.3000;0.3004;0.9167;
1395.6000;0.3012;0.9213;
1395.9000;0.3020;0.9167;
1396.2000;0.3028;0.9167;
1396.5000;0.3012;0.9143;
1396.8000;0.3012;0.9050;
1397.1000;0.3028;0.9073;
1397.4000;0.2996;0.9050;
1397.7000;0.2996;0.9050;
1398.0000;0.3020;0.9050;
1398.3000;0.3069;0.9073;
1398.6000;0.2987;0.8887;
1398.9000;0.2971;0.8910;
1399.2000;0.3004;0.8980;
1399.5000;0.3004;0.8957;
1399.8000;0.2971;0.8793;
