time/ms;Fluo/V;P700 deltaI/I x10³;
-199.8000;0.5576;1.2347;
-199.5000;0.5568;1.2347;
-199.2000;0.5527;1.2323;
-198.9000;0.5560;1.2464;
-198.6000;0.5543;1.2370;
-198.3000;0.5576;1.2276;
-198.0000;0.5584;1.2206;
-197.7000;0.5600;1.2230;
-197.4000;0.5568;1.2159;
-197.1000;0.5576;1.2159;
-196.8000;0.5551;1.2112;
-196.5000;0.5576;1.2112;
-196.2000;0.5584;1.2159;
-195.9000;0.5576;1.2183;
-195.6000;0.5584;1.2276;
-195.3000;0.5576;1.2253;
-195.0000;0.5568;1.2230;
-194.7000;0.5560;1.2230;
-194.4000;0.5600;1.2253;
-194.1000;0.5560;1.2276;
-193.8000;0.5560;1.2300;
-193.5000;0.5568;1.2323;
-193.2000;0.5576;1.2370;
-192.9000;0.5576;1.2394;
-192.6000;0.5576;1.2464;
-192.3000;0.5560;1.2464;
-192.0000;0.5568;1.2535;
-191.7000;0.5584;1.2558;
-191.4000;0.5576;1.2605;
-191.1000;0.5576;1.2652;
-190.8000;0.5576;1.2652;
-190.5000;0.5551;1.2558;
-190.2000;0.5511;1.2394;
-189.9000;0.5576;1.2582;
-189.6000;0.5633;1.2722;
-189.3000;0.5535;1.2488;
-189.0000;0.5568;1.2558;
-188.7000;0.5576;1.2582;
-188.4000;0.5584;1.2605;
-188.1000;0.5527;1.2511;
-187.8000;0.5568;1.2675;
-187.5000;0.5568;1.2652;
-187.2000;0.5560;1.2652;
-186.9000;0.5535;1.2582;
-186.6000;0.5568;1.2652;
-186.3000;0.5576;1.2652;
-186.0000;0.5576;1.2558;
-185.7000;0.5568;1.2535;
-185.4000;0.5519;1.2464;
-185.1000;0.5551;1.2511;
-184.8000;0.5560;1.2488;
-184.5000;0.5576;1.2511;
-184.2000;0.5592;1.2535;
-183.9000;0.5560;1.2511;
-183.6000;0.5551;1.2464;
-183.3000;0.5576;1.2558;
-183.0000;0.5568;1.2558;
-182.7000;0.5592;1.2652;
-182.4000;0.5560;1.2558;
-182.1000;0.5560;1.2605;
-181.8000;0.5584;1.2699;
-181.5000;0.5551;1.2582;
-181.2000;0.5576;1.2558;
-180.9000;0.5625;1.2675;
-180.6000;0.5568;1.2605;
-180.3000;0.5576;1.2652;
-180.0000;0.5568;1.2629;
-179.7000;0.5568;1.2652;
-179.4000;0.5551;1.2558;
-179.1000;0.5584;1.2629;
-178.8000;0.5592;1.2675;
-178.5000;0.5551;1.2652;
-178.2000;0.5560;1.2699;
-177.9000;0.5600;1.2722;
-177.6000;0.5576;1.2699;
-177.3000;0.5568;1.2629;
-177.0000;0.5551;1.2535;
-176.7000;0.5560;1.2535;
-176.4000;0.5560;1.2629;
-176.1000;0.5560;1.2582;
-175.8000;0.5551;1.2535;
-175.5000;0.5592;1.2629;
-175.2000;0.5584;1.2558;
-174.9000;0.5584;1.2582;
-174.6000;0.5576;1.2652;
-174.3000;0.5584;1.2675;
-174.0000;0.5576;1.2535;
-173.7000;0.5568;1.2582;
-173.4000;0.5486;1.2441;
-173.1000;0.5568;1.2699;
-172.8000;0.5576;1.2699;
-172.5000;0.5576;1.2675;
-172.2000;0.5584;1.2582;
-171.9000;0.5551;1.2488;
-171.6000;0.5486;1.2323;
-171.3000;0.5665;1.2769;
-171.0000;0.5560;1.2511;
-170.7000;0.5698;1.2910;
-170.4000;0.5600;1.2722;
-170.1000;0.5592;1.2722;
-169.8000;0.5511;1.2441;
-169.5000;0.5560;1.2582;
-169.2000;0.5527;1.2464;
-168.9000;0.5584;1.2558;
-168.6000;0.5543;1.2582;
-168.3000;0.5600;1.2793;
-168.0000;0.5551;1.2652;
-167.7000;0.5584;1.2722;
-167.4000;0.5584;1.2699;
-167.1000;0.5568;1.2629;
-166.8000;0.5543;1.2629;
-166.5000;0.5576;1.2629;
-166.2000;0.5584;1.2629;
-165.9000;0.5576;1.2629;
-165.6000;0.5560;1.2582;
-165.3000;0.5608;1.2605;
-165.0000;0.5576;1.2511;
-164.7000;0.5560;1.2464;
-164.4000;0.5560;1.2488;
-164.1000;0.5560;1.2394;
-163.8000;0.5584;1.2370;
-163.5000;0.5576;1.2441;
-163.2000;0.5560;1.2441;
-162.9000;0.5543;1.2417;
-162.6000;0.5592;1.2535;
-162.3000;0.5576;1.2511;
-162.0000;0.5568;1.2558;
-161.7000;0.5576;1.2605;
-161.4000;0.5560;1.2511;
-161.1000;0.5568;1.2535;
-160.8000;0.5576;1.2652;
-160.5000;0.5560;1.2629;
-160.2000;0.5576;1.2605;
-159.9000;0.5584;1.2629;
-159.6000;0.5568;1.2675;
-159.3000;0.5560;1.2629;
-159.0000;0.5568;1.2652;
-158.7000;0.5568;1.2511;
-158.4000;0.5576;1.2511;
-158.1000;0.5535;1.2394;
-157.8000;0.5576;1.2535;
-157.5000;0.5576;1.2605;
-157.2000;0.5584;1.2675;
-156.9000;0.5568;1.2582;
-156.6000;0.5592;1.2675;
-156.3000;0.5576;1.2558;
-156.0000;0.5543;1.2488;
-155.7000;0.5584;1.2558;
-155.4000;0.5551;1.2464;
-155.1000;0.5568;1.2511;
-154.8000;0.5682;1.2746;
-154.5000;0.5568;1.2394;
-154.2000;0.5568;1.2464;
-153.9000;0.5543;1.2347;
-153.6000;0.5584;1.2511;
-153.3000;0.5568;1.2464;
-153.0000;0.5568;1.2464;
-152.7000;0.5568;1.2417;
-152.4000;0.5617;1.2558;
-152.1000;0.5560;1.2464;
-151.8000;0.5592;1.2464;
-151.5000;0.5535;1.2394;
-151.2000;0.5560;1.2511;
-150.9000;0.5584;1.2582;
-150.6000;0.5576;1.2582;
-150.3000;0.5568;1.2629;
-150.0000;0.5560;1.2535;
-149.7000;0.5560;1.2535;
-149.4000;0.5584;1.2582;
-149.1000;0.5584;1.2605;
-148.8000;0.5568;1.2511;
-148.5000;0.5576;1.2582;
-148.2000;0.5551;1.2605;
-147.9000;0.5592;1.2699;
-147.6000;0.5576;1.2722;
-147.3000;0.5478;1.2488;
-147.0000;0.5592;1.2816;
-146.7000;0.5576;1.2722;
-146.4000;0.5568;1.2746;
-146.1000;0.5568;1.2769;
-145.8000;0.5584;1.2722;
-145.5000;0.5592;1.2699;
-145.2000;0.5576;1.2605;
-144.9000;0.5682;1.2793;
-144.6000;0.5560;1.2417;
-144.3000;0.5576;1.2582;
-144.0000;0.5600;1.2652;
-143.7000;0.5560;1.2558;
-143.4000;0.5600;1.2605;
-143.1000;0.5633;1.2652;
-142.8000;0.5576;1.2582;
-142.5000;0.5584;1.2582;
-142.2000;0.5576;1.2652;
-141.9000;0.5584;1.2629;
-141.6000;0.5584;1.2675;
-141.3000;0.5560;1.2605;
-141.0000;0.5560;1.2558;
-140.7000;0.5560;1.2558;
-140.4000;0.5568;1.2558;
-140.1000;0.5560;1.2558;
-139.8000;0.5592;1.2675;
-139.5000;0.5568;1.2629;
-139.2000;0.5568;1.2605;
-138.9000;0.5568;1.2629;
-138.6000;0.5543;1.2652;
-138.3000;0.5592;1.2816;
-138.0000;0.5511;1.2558;
-137.7000;0.5584;1.2722;
-137.4000;0.5568;1.2722;
-137.1000;0.5568;1.2699;
-136.8000;0.5584;1.2746;
-136.5000;0.5584;1.2746;
-136.2000;0.5584;1.2722;
-135.9000;0.5600;1.2722;
-135.6000;0.5519;1.2535;
-135.3000;0.5584;1.2652;
-135.0000;0.5576;1.2629;
-134.7000;0.5568;1.2605;
-134.4000;0.5551;1.2511;
-134.1000;0.5551;1.2582;
-133.8000;0.5568;1.2535;
-133.5000;0.5560;1.2488;
-133.2000;0.5657;1.2793;
-132.9000;0.5584;1.2558;
-132.6000;0.5568;1.2582;
-132.3000;0.5576;1.2558;
-132.0000;0.5698;1.2957;
-131.7000;0.5600;1.2629;
-131.4000;0.5576;1.2464;
-131.1000;0.5641;1.2582;
-130.8000;0.5576;1.2417;
-130.5000;0.5584;1.2488;
-130.2000;0.5608;1.2605;
-129.9000;0.5608;1.2629;
-129.6000;0.5560;1.2511;
-129.3000;0.5568;1.2605;
-129.0000;0.5584;1.2746;
-128.7000;0.5519;1.2582;
-128.4000;0.5568;1.2675;
-128.1000;0.5560;1.2675;
-127.8000;0.5551;1.2629;
-127.5000;0.5551;1.2582;
-127.2000;0.5584;1.2675;
-126.9000;0.5568;1.2629;
-126.6000;0.5584;1.2629;
-126.3000;0.5551;1.2535;
-126.0000;0.5576;1.2488;
-125.7000;0.5576;1.2370;
-125.4000;0.5576;1.2323;
-125.1000;0.5592;1.2464;
-124.8000;0.5584;1.2441;
-124.5000;0.5560;1.2511;
-124.2000;0.5568;1.2511;
-123.9000;0.5560;1.2535;
-123.6000;0.5568;1.2488;
-123.3000;0.5641;1.2699;
-123.0000;0.5543;1.2488;
-122.7000;0.5576;1.2535;
-122.4000;0.5535;1.2535;
-122.1000;0.5584;1.2699;
-121.8000;0.5576;1.2652;
-121.5000;0.5584;1.2558;
-121.2000;0.5568;1.2629;
-120.9000;0.5576;1.2699;
-120.6000;0.5576;1.2746;
-120.3000;0.5568;1.2699;
-120.0000;0.5576;1.2652;
-119.7000;0.5576;1.2699;
-119.4000;0.5560;1.2722;
-119.1000;0.5551;1.2605;
-118.8000;0.5551;1.2652;
-118.5000;0.5560;1.2699;
-118.2000;0.5551;1.2746;
-117.9000;0.5560;1.2699;
-117.6000;0.5576;1.2722;
-117.3000;0.5495;1.2464;
-117.0000;0.5551;1.2582;
-116.7000;0.5560;1.2464;
-116.4000;0.5560;1.2488;
-116.1000;0.5576;1.2370;
-115.8000;0.5568;1.2394;
-115.5000;0.5568;1.2347;
-115.2000;0.5527;1.2276;
-114.9000;0.5576;1.2441;
-114.6000;0.5543;1.2464;
-114.3000;0.5560;1.2535;
-114.0000;0.5560;1.2629;
-113.7000;0.5633;1.2816;
-113.4000;0.5551;1.2675;
-113.1000;0.5560;1.2699;
-112.8000;0.5560;1.2629;
-112.5000;0.5568;1.2605;
-112.2000;0.5568;1.2488;
-111.9000;0.5576;1.2558;
-111.6000;0.5560;1.2535;
-111.3000;0.5560;1.2582;
-111.0000;0.5535;1.2605;
-110.7000;0.5608;1.2699;
-110.4000;0.5576;1.2722;
-110.1000;0.5568;1.2652;
-109.8000;0.5568;1.2605;
-109.5000;0.5592;1.2699;
-109.2000;0.5608;1.2816;
-108.9000;0.5568;1.2699;
-108.6000;0.5576;1.2652;
-108.3000;0.5560;1.2722;
-108.0000;0.5560;1.2769;
-107.7000;0.5551;1.2675;
-107.4000;0.5551;1.2629;
-107.1000;0.5511;1.2511;
-106.8000;0.5576;1.2699;
-106.5000;0.5592;1.2722;
-106.2000;0.5584;1.2746;
-105.9000;0.5560;1.2699;
-105.6000;0.5576;1.2793;
-105.3000;0.5649;1.2887;
-105.0000;0.5576;1.2675;
-104.7000;0.5560;1.2722;
-104.4000;0.5551;1.2746;
-104.1000;0.5568;1.2793;
-103.8000;0.5568;1.2769;
-103.5000;0.5617;1.2934;
-103.2000;0.5576;1.2722;
-102.9000;0.5592;1.2816;
-102.6000;0.5584;1.2769;
-102.3000;0.5543;1.2652;
-102.0000;0.5633;1.2746;
-101.7000;0.5560;1.2488;
-101.4000;0.5568;1.2488;
-101.1000;0.5568;1.2511;
-100.8000;0.5600;1.2488;
-100.5000;0.5625;1.2558;
-100.2000;0.5592;1.2511;
-99.9000;0.5576;1.2441;
-99.6000;0.5568;1.2582;
-99.3000;0.5584;1.2652;
-99.0000;0.5592;1.2675;
-98.7000;0.5560;1.2605;
-98.4000;0.5568;1.2535;
-98.1000;0.5584;1.2629;
-97.8000;0.5592;1.2511;
-97.5000;0.5576;1.2464;
-97.2000;0.5568;1.2535;
-96.9000;0.5584;1.2558;
-96.6000;0.5527;1.2511;
-96.3000;0.5551;1.2558;
-96.0000;0.5543;1.2629;
-95.7000;0.5560;1.2605;
-95.4000;0.5560;1.2558;
-95.1000;0.5560;1.2535;
-94.8000;0.5576;1.2488;
-94.5000;0.5560;1.2511;
-94.2000;0.5568;1.2464;
-93.9000;0.5584;1.2582;
-93.6000;0.5584;1.2511;
-93.3000;0.5576;1.2558;
-93.0000;0.5568;1.2511;
-92.7000;0.5576;1.2535;
-92.4000;0.5576;1.2535;
-92.1000;0.5519;1.2323;
-91.8000;0.5576;1.2464;
-91.5000;0.5568;1.2441;
-91.2000;0.5511;1.2253;
-90.9000;0.5568;1.2417;
-90.6000;0.5543;1.2464;
-90.3000;0.5617;1.2582;
-90.0000;0.5495;1.2206;
-89.7000;0.5576;1.2488;
-89.4000;0.5568;1.2464;
-89.1000;0.5560;1.2417;
-88.8000;0.5592;1.2511;
-88.5000;0.5576;1.2511;
-88.2000;0.5584;1.2652;
-87.9000;0.5584;1.2652;
-87.6000;0.5576;1.2558;
-87.3000;0.5600;1.2652;
-87.0000;0.5576;1.2629;
-86.7000;0.5551;1.2582;
-86.4000;0.5560;1.2629;
-86.1000;0.5576;1.2699;
-85.8000;0.5560;1.2652;
-85.5000;0.5568;1.2699;
-85.2000;0.5584;1.2699;
-84.9000;0.5568;1.2722;
-84.6000;0.5568;1.2722;
-84.3000;0.5568;1.2605;
-84.0000;0.5568;1.2582;
-83.7000;0.5576;1.2629;
-83.4000;0.5576;1.2629;
-83.1000;0.5576;1.2535;
-82.8000;0.5535;1.2417;
-82.5000;0.5486;1.2276;
-82.2000;0.5584;1.2535;
-81.9000;0.5584;1.2535;
-81.6000;0.5527;1.2464;
-81.3000;0.5560;1.2535;
-81.0000;0.5576;1.2629;
-80.7000;0.5576;1.2511;
-80.4000;0.5568;1.2511;
-80.1000;0.5568;1.2511;
-79.8000;0.5535;1.2370;
-79.5000;0.5584;1.2488;
-79.2000;0.5527;1.2300;
-78.9000;0.5576;1.2370;
-78.6000;0.5576;1.2417;
-78.3000;0.5584;1.2370;
-78.0000;0.5576;1.2394;
-77.7000;0.5568;1.2347;
-77.4000;0.5535;1.2323;
-77.1000;0.5560;1.2464;
-76.8000;0.5633;1.2675;
-76.5000;0.5551;1.2441;
-76.2000;0.5568;1.2441;
-75.9000;0.5560;1.2370;
-75.6000;0.5568;1.2347;
-75.3000;0.5584;1.2417;
-75.0000;0.5576;1.2558;
-74.7000;0.5584;1.2605;
-74.4000;0.5535;1.2441;
-74.1000;0.5576;1.2488;
-73.8000;0.5584;1.2511;
-73.5000;0.5592;1.2582;
-73.2000;0.5568;1.2629;
-72.9000;0.5551;1.2558;
-72.6000;0.5560;1.2535;
-72.3000;0.5568;1.2511;
-72.0000;0.5592;1.2488;
-71.7000;0.5568;1.2417;
-71.4000;0.5560;1.2441;
-71.1000;0.5584;1.2441;
-70.8000;0.5568;1.2511;
-70.5000;0.5649;1.2699;
-70.2000;0.5576;1.2558;
-69.9000;0.5560;1.2629;
-69.6000;0.5519;1.2605;
-69.3000;0.5633;1.2863;
-69.0000;0.5568;1.2793;
-68.7000;0.5560;1.2746;
-68.4000;0.5584;1.2699;
-68.1000;0.5600;1.2722;
-67.8000;0.5641;1.2840;
-67.5000;0.5527;1.2675;
-67.2000;0.5584;1.2746;
-66.9000;0.5584;1.2675;
-66.6000;0.5600;1.2793;
-66.3000;0.5568;1.2769;
-66.0000;0.5576;1.2769;
-65.7000;0.5584;1.2722;
-65.4000;0.5551;1.2582;
-65.1000;0.5584;1.2629;
-64.8000;0.5584;1.2699;
-64.5000;0.5551;1.2582;
-64.2000;0.5584;1.2675;
-63.9000;0.5568;1.2699;
-63.6000;0.5568;1.2722;
-63.3000;0.5560;1.2746;
-63.0000;0.5576;1.2746;
-62.7000;0.5560;1.2629;
-62.4000;0.5560;1.2605;
-62.1000;0.5560;1.2558;
-61.8000;0.5560;1.2558;
-61.5000;0.5576;1.2582;
-61.2000;0.5560;1.2605;
-60.9000;0.5576;1.2675;
-60.6000;0.5576;1.2769;
-60.3000;0.5584;1.2840;
-60.0000;0.5568;1.2863;
-59.7000;0.5568;1.2769;
-59.4000;0.5592;1.2699;
-59.1000;0.5576;1.2605;
-58.8000;0.5584;1.2605;
-58.5000;0.5608;1.2675;
-58.2000;0.5576;1.2699;
-57.9000;0.5576;1.2722;
-57.6000;0.5551;1.2699;
-57.3000;0.5560;1.2699;
-57.0000;0.5568;1.2652;
-56.7000;0.5600;1.2629;
-56.4000;0.5584;1.2582;
-56.1000;0.5592;1.2582;
-55.8000;0.5576;1.2558;
-55.5000;0.5576;1.2535;
-55.2000;0.5543;1.2535;
-54.9000;0.5568;1.2652;
-54.6000;0.5584;1.2605;
-54.3000;0.5592;1.2535;
-54.0000;0.5576;1.2535;
-53.7000;0.5584;1.2558;
-53.4000;0.5519;1.2347;
-53.1000;0.5584;1.2488;
-52.8000;0.5576;1.2394;
-52.5000;0.5576;1.2464;
-52.2000;0.5454;1.2183;
-51.9000;0.5576;1.2558;
-51.6000;0.5568;1.2629;
-51.3000;0.5592;1.2699;
-51.0000;0.5584;1.2629;
-50.7000;0.5478;1.2347;
-50.4000;0.5576;1.2652;
-50.1000;0.5584;1.2699;
-49.8000;0.5560;1.2699;
-49.5000;0.5584;1.2629;
-49.2000;0.5568;1.2652;
-48.9000;0.5576;1.2699;
-48.6000;0.5576;1.2675;
-48.3000;0.5584;1.2746;
-48.0000;0.5641;1.2934;
-47.7000;0.5576;1.2793;
-47.4000;0.5568;1.2816;
-47.1000;0.5543;1.2746;
-46.8000;0.5551;1.2769;
-46.5000;0.5576;1.2793;
-46.2000;0.5568;1.2769;
-45.9000;0.5560;1.2699;
-45.6000;0.5576;1.2675;
-45.3000;0.5568;1.2699;
-45.0000;0.5584;1.2769;
-44.7000;0.5568;1.2816;
-44.4000;0.5568;1.2722;
-44.1000;0.5584;1.2652;
-43.8000;0.5568;1.2675;
-43.5000;0.5576;1.2699;
-43.2000;0.5551;1.2605;
-42.9000;0.5535;1.2558;
-42.6000;0.5511;1.2605;
-42.3000;0.5568;1.2699;
-42.0000;0.5560;1.2535;
-41.7000;0.5568;1.2511;
-41.4000;0.5560;1.2394;
-41.1000;0.5584;1.2511;
-40.8000;0.5576;1.2370;
-40.5000;0.5600;1.2511;
-40.2000;0.5576;1.2464;
-39.9000;0.5576;1.2488;
-39.6000;0.5584;1.2511;
-39.3000;0.5568;1.2511;
-39.0000;0.5625;1.2746;
-38.7000;0.5568;1.2722;
-38.4000;0.5576;1.2746;
-38.1000;0.5568;1.2722;
-37.8000;0.5592;1.2675;
-37.5000;0.5560;1.2675;
-37.2000;0.5560;1.2652;
-36.9000;0.5576;1.2769;
-36.6000;0.5584;1.2746;
-36.3000;0.5551;1.2629;
-36.0000;0.5568;1.2605;
-35.7000;0.5568;1.2558;
-35.4000;0.5543;1.2441;
-35.1000;0.5551;1.2488;
-34.8000;0.5568;1.2558;
-34.5000;0.5519;1.2394;
-34.2000;0.5584;1.2558;
-33.9000;0.5527;1.2464;
-33.6000;0.5584;1.2675;
-33.3000;0.5560;1.2558;
-33.0000;0.5576;1.2605;
-32.7000;0.5568;1.2582;
-32.4000;0.5576;1.2535;
-32.1000;0.5560;1.2511;
-31.8000;0.5576;1.2582;
-31.5000;0.5576;1.2535;
-31.2000;0.5600;1.2605;
-30.9000;0.5584;1.2558;
-30.6000;0.5584;1.2511;
-30.3000;0.5576;1.2488;
-30.0000;0.5576;1.2511;
-29.7000;0.5576;1.2441;
-29.4000;0.5576;1.2394;
-29.1000;0.5576;1.2511;
-28.8000;0.5568;1.2488;
-28.5000;0.5576;1.2511;
-28.2000;0.5568;1.2511;
-27.9000;0.5568;1.2488;
-27.6000;0.5535;1.2323;
-27.3000;0.5568;1.2347;
-27.0000;0.5584;1.2370;
-26.7000;0.5551;1.2276;
-26.4000;0.5551;1.2347;
-26.1000;0.5576;1.2441;
-25.8000;0.5560;1.2464;
-25.5000;0.5568;1.2558;
-25.2000;0.5560;1.2605;
-24.9000;0.5543;1.2605;
-24.6000;0.5543;1.2699;
-24.3000;0.5568;1.2793;
-24.0000;0.5519;1.2582;
-23.7000;0.5576;1.2699;
-23.4000;0.5560;1.2582;
-23.1000;0.5568;1.2558;
-22.8000;0.5600;1.2558;
-22.5000;0.5576;1.2488;
-22.2000;0.5568;1.2511;
-21.9000;0.5560;1.2370;
-21.6000;0.5608;1.2511;
-21.3000;0.5657;1.2582;
-21.0000;0.5584;1.2394;
-20.7000;0.5576;1.2370;
-20.4000;0.5584;1.2464;
-20.1000;0.5617;1.2582;
-19.8000;0.5568;1.2511;
-19.5000;0.5560;1.2511;
-19.2000;0.5568;1.2488;
-18.9000;0.5560;1.2629;
-18.6000;0.5560;1.2675;
-18.3000;0.5551;1.2582;
-18.0000;0.5576;1.2511;
-17.7000;0.5592;1.2558;
-17.4000;0.5576;1.2558;
-17.1000;0.5568;1.2605;
-16.8000;0.5608;1.2769;
-16.5000;0.5568;1.2652;
-16.2000;0.5576;1.2746;
-15.9000;0.5584;1.2769;
-15.6000;0.5551;1.2769;
-15.3000;0.5584;1.2769;
-15.0000;0.5584;1.2769;
-14.7000;0.5551;1.2699;
-14.4000;0.5551;1.2629;
-14.1000;0.5568;1.2699;
-13.8000;0.5576;1.2629;
-13.5000;0.5576;1.2558;
-13.2000;0.5568;1.2441;
-12.9000;0.5560;1.2417;
-12.6000;0.5576;1.2441;
-12.3000;0.5576;1.2464;
-12.0000;0.5576;1.2511;
-11.7000;0.5560;1.2535;
-11.4000;0.5576;1.2582;
-11.1000;0.5576;1.2535;
-10.8000;0.5560;1.2535;
-10.5000;0.5551;1.2511;
-10.2000;0.5568;1.2582;
-9.9000;0.5568;1.2558;
-9.6000;0.5576;1.2582;
-9.3000;0.5576;1.2629;
-9.0000;0.5568;1.2535;
-8.7000;0.5592;1.2652;
-8.4000;0.5560;1.2629;
-8.1000;0.5560;1.2605;
-7.8000;0.5584;1.2582;
-7.5000;0.5568;1.2511;
-7.2000;0.5641;1.2746;
-6.9000;0.5576;1.2558;
-6.6000;0.5551;1.2488;
-6.3000;0.5568;1.2488;
-6.0000;0.5576;1.2535;
-5.7000;0.5576;1.2464;
-5.4000;0.5584;1.2558;
-5.1000;0.5665;1.2746;
-4.8000;0.5576;1.2629;
-4.5000;0.5568;1.2582;
-4.2000;0.5625;1.2629;
-3.9000;0.5560;1.2417;
-3.6000;0.5568;1.2441;
-3.3000;0.5560;1.2488;
-3.0000;0.5560;1.2394;
-2.7000;0.5568;1.2347;
-2.4000;0.5568;1.2417;
-2.1000;0.5584;1.2511;
-1.8000;0.5568;1.2535;
-1.5000;0.5568;1.2488;
-1.2000;0.5584;1.2535;
-0.9000;0.5576;1.2582;
-0.6000;0.5576;1.2605;
-0.3000;0.5592;1.2605;
0.0000;0.5592;1.2605;
0.3000;0.5869;1.2746;
0.6000;0.6227;1.3028;
0.9000;0.6561;1.3380;
1.2000;0.6805;1.3708;
1.5000;0.7017;1.4154;
1.8000;0.7212;1.4553;
2.1000;0.7293;1.4694;
2.4000;0.7432;1.4882;
2.7000;0.7489;1.4859;
3.0000;0.7660;1.5140;
3.3000;0.7725;1.5164;
3.6000;0.7790;1.5281;
3.9000;0.7855;1.5351;
4.2000;0.7904;1.5398;
4.5000;0.7977;1.5516;
4.8000;0.7993;1.5492;
5.1000;0.8026;1.5492;
5.4000;0.8091;1.5633;
5.7000;0.8116;1.5727;
6.0000;0.8156;1.5774;
6.3000;0.8156;1.5704;
6.6000;0.8213;1.5750;
6.9000;0.8221;1.5797;
7.2000;0.8230;1.5797;
7.5000;0.8287;1.5868;
7.8000;0.8303;1.5844;
8.1000;0.8335;1.5868;
8.4000;0.8327;1.5821;
8.7000;0.8352;1.5774;
9.0000;0.8384;1.5704;
9.3000;0.8409;1.5750;
9.6000;0.8417;1.5680;
9.9000;0.8441;1.5750;
10.2000;0.8409;1.5610;
10.5000;0.8425;1.5680;
10.8000;0.8466;1.5797;
11.1000;0.8482;1.5774;
11.4000;0.8506;1.5727;
11.7000;0.8498;1.5633;
12.0000;0.8514;1.5704;
12.3000;0.8523;1.5821;
12.6000;0.8539;1.5891;
12.9000;0.8547;1.5797;
13.2000;0.8596;1.5821;
13.5000;0.8628;1.5891;
13.8000;0.8563;1.5774;
14.1000;0.8596;1.5844;
14.4000;0.8588;1.5821;
14.7000;0.8596;1.5891;
15.0000;0.8596;1.5868;
15.3000;0.8620;1.5915;
15.6000;0.8628;1.5938;
15.9000;0.8612;1.5868;
16.2000;0.8645;1.5938;
16.5000;0.8637;1.6032;
16.8000;0.8694;1.6103;
17.1000;0.8694;1.6056;
17.4000;0.8677;1.6056;
17.7000;0.8653;1.5962;
18.0000;0.8620;1.5821;
18.3000;0.8799;1.6196;
18.6000;0.8694;1.5938;
18.9000;0.8702;1.5915;
19.2000;0.8718;1.5868;
19.5000;0.8726;1.5915;
19.8000;0.8734;1.5915;
20.1000;0.8661;1.5797;
20.4000;0.8718;1.5915;
20.7000;0.8718;1.5891;
21.0000;0.8742;1.5962;
21.3000;0.8710;1.5844;
21.6000;0.8734;1.5797;
21.9000;0.8734;1.5704;
22.2000;0.8751;1.5704;
22.5000;0.8751;1.5657;
22.8000;0.8759;1.5657;
23.1000;0.8807;1.5727;
23.4000;0.8742;1.5563;
23.7000;0.8807;1.5774;
24.0000;0.8783;1.5797;
24.3000;0.8783;1.5868;
24.6000;0.8791;1.5891;
24.9000;0.8783;1.5868;
25.2000;0.8767;1.5891;
25.5000;0.8783;1.5891;
25.8000;0.8791;1.5915;
26.1000;0.8799;1.5891;
26.4000;0.8807;1.5962;
26.7000;0.8799;1.6032;
27.0000;0.8807;1.5891;
27.3000;0.8799;1.5821;
27.6000;0.8791;1.5844;
27.9000;0.8816;1.5868;
28.2000;0.8824;1.5938;
28.5000;0.8807;1.5938;
28.8000;0.8832;1.5915;
29.1000;0.8824;1.5821;
29.4000;0.8840;1.5844;
29.7000;0.8856;1.6009;
30.0000;0.8856;1.6056;
30.3000;0.8816;1.6056;
30.6000;0.8848;1.6150;
30.9000;0.8824;1.5891;
31.2000;0.8816;1.5774;
31.5000;0.8905;1.5938;
31.8000;0.8832;1.5797;
32.1000;0.8921;1.5962;
32.4000;0.8856;1.5797;
32.7000;0.8856;1.5891;
33.0000;0.8864;1.5915;
33.3000;0.8864;1.5868;
33.6000;0.8856;1.5797;
33.9000;0.8856;1.5680;
34.2000;0.8881;1.5797;
34.5000;0.8864;1.5633;
34.8000;0.8864;1.5657;
35.1000;0.8873;1.5633;
35.4000;0.8848;1.5680;
35.7000;0.8873;1.5704;
36.0000;0.8881;1.5750;
36.3000;0.8832;1.5633;
36.6000;0.8864;1.5727;
36.9000;0.8881;1.5774;
37.2000;0.8889;1.5774;
37.5000;0.8913;1.5844;
37.8000;0.8897;1.5774;
38.1000;0.8881;1.5680;
38.4000;0.8881;1.5704;
38.7000;0.8864;1.5727;
39.0000;0.8889;1.5750;
39.3000;0.8897;1.5797;
39.6000;0.8913;1.5750;
39.9000;0.8824;1.5492;
40.2000;0.8921;1.5704;
40.5000;0.8905;1.5727;
40.8000;0.8873;1.5774;
41.1000;0.8881;1.5797;
41.4000;0.8889;1.5868;
41.7000;0.8889;1.5844;
42.0000;0.8889;1.5868;
42.3000;0.8897;1.5868;
42.6000;0.9011;1.5985;
42.9000;0.8913;1.5821;
43.2000;0.8930;1.5797;
43.5000;0.8930;1.5821;
43.8000;0.8921;1.5868;
44.1000;0.8921;1.5868;
44.4000;0.8970;1.6032;
44.7000;0.8946;1.6009;
45.0000;0.8913;1.5915;
45.3000;0.8913;1.5962;
45.6000;0.8905;1.5962;
45.9000;0.8905;1.5962;
46.2000;0.8921;1.5938;
46.5000;0.8913;1.5962;
46.8000;0.8913;1.5915;
47.1000;0.8978;1.6056;
47.4000;0.8905;1.5962;
47.7000;0.8921;1.5938;
48.0000;0.8938;1.6009;
48.3000;0.8946;1.6079;
48.6000;0.8921;1.6079;
48.9000;0.8962;1.6079;
49.2000;0.8930;1.5938;
49.5000;0.8946;1.5938;
49.8000;0.8930;1.5891;
50.1000;0.8930;1.5797;
50.4000;0.8938;1.5821;
50.7000;0.8921;1.5727;
51.0000;0.8930;1.5750;
51.3000;0.8962;1.5821;
51.6000;0.8954;1.5844;
51.9000;0.8946;1.5891;
52.2000;0.8946;1.5915;
52.5000;0.8938;1.5868;
52.8000;0.8946;1.5891;
53.1000;0.8921;1.5821;
53.4000;0.8954;1.5868;
53.7000;0.8938;1.5868;
54.0000;0.8946;1.5844;
54.3000;0.8954;1.5891;
54.6000;0.8970;1.5891;
54.9000;0.8962;1.5868;
55.2000;0.8954;1.5844;
55.5000;0.8938;1.5774;
55.8000;0.8954;1.5774;
56.1000;0.8938;1.5680;
56.4000;0.8954;1.5774;
56.7000;0.8921;1.5704;
57.0000;0.8913;1.5704;
57.3000;0.8913;1.5727;
57.6000;0.8913;1.5727;
57.9000;0.8938;1.5774;
58.2000;0.8905;1.5633;
58.5000;0.8954;1.5750;
58.8000;0.8946;1.5704;
59.1000;0.8905;1.5633;
59.4000;0.8946;1.5657;
59.7000;0.8946;1.5727;
60.0000;0.8962;1.5774;
60.3000;0.8938;1.5774;
60.6000;0.8938;1.5750;
60.9000;0.8946;1.5821;
61.2000;0.8938;1.5750;
61.5000;0.8921;1.5680;
61.8000;0.8938;1.5610;
62.1000;0.8978;1.5704;
62.4000;0.9117;1.6009;
62.7000;0.9011;1.5844;
63.0000;0.8954;1.5680;
63.3000;0.8946;1.5680;
63.6000;0.9003;1.5774;
63.9000;0.8962;1.5633;
64.2000;0.8978;1.5633;
64.5000;0.8978;1.5586;
64.8000;0.9011;1.5797;
65.1000;0.8970;1.5586;
65.4000;0.8954;1.5586;
65.7000;0.8962;1.5657;
66.0000;0.8954;1.5704;
66.3000;0.8987;1.5750;
66.6000;0.9092;1.5938;
66.9000;0.8970;1.5633;
67.2000;0.8987;1.5610;
67.5000;0.8970;1.5586;
67.8000;0.8970;1.5610;
68.1000;0.8970;1.5633;
68.4000;0.8954;1.5586;
68.7000;0.8978;1.5610;
69.0000;0.8970;1.5750;
69.3000;0.8962;1.5774;
69.6000;0.8962;1.5797;
69.9000;0.8978;1.5750;
70.2000;0.9011;1.5844;
70.5000;0.8954;1.5727;
70.8000;0.8962;1.5821;
71.1000;0.8921;1.5774;
71.4000;0.8970;1.5915;
71.7000;0.8978;1.5915;
72.0000;0.8962;1.5844;
72.3000;0.8995;1.5821;
72.6000;0.8978;1.5891;
72.9000;0.8987;1.5868;
73.2000;0.8987;1.5844;
73.5000;0.8962;1.5891;
73.8000;0.8970;1.5915;
74.1000;0.8978;1.5891;
74.4000;0.8864;1.5610;
74.7000;0.8987;1.5844;
75.0000;0.8978;1.5868;
75.3000;0.9003;1.5891;
75.6000;0.8978;1.5774;
75.9000;0.8970;1.5657;
76.2000;0.8962;1.5680;
76.5000;0.8995;1.5727;
76.8000;0.8995;1.5586;
77.1000;0.8987;1.5586;
77.4000;0.9011;1.5657;
77.7000;0.8995;1.5633;
78.0000;0.9011;1.5704;
78.3000;0.8970;1.5633;
78.6000;0.8978;1.5610;
78.9000;0.8987;1.5586;
79.2000;0.8987;1.5633;
79.5000;0.9003;1.5657;
79.8000;0.8995;1.5633;
80.1000;0.8987;1.5516;
80.4000;0.9003;1.5633;
80.7000;0.8995;1.5563;
81.0000;0.8978;1.5445;
81.3000;0.8978;1.5445;
81.6000;0.8897;1.5211;
81.9000;0.8970;1.5375;
82.2000;0.8962;1.5445;
82.5000;0.8995;1.5516;
82.8000;0.8987;1.5445;
83.1000;0.8962;1.5469;
83.4000;0.8954;1.5469;
83.7000;0.8930;1.5445;
84.0000;0.8987;1.5516;
84.3000;0.8962;1.5492;
84.6000;0.8921;1.5328;
84.9000;0.8978;1.5422;
85.2000;0.8970;1.5445;
85.5000;0.8987;1.5516;
85.8000;0.8946;1.5351;
86.1000;0.9068;1.5657;
86.4000;0.8970;1.5445;
86.7000;0.8987;1.5539;
87.0000;0.9060;1.5797;
87.3000;0.8987;1.5727;
87.6000;0.8995;1.5750;
87.9000;0.9003;1.5750;
88.2000;0.9011;1.5821;
88.5000;0.8987;1.5821;
88.8000;0.8954;1.5774;
89.1000;0.8995;1.5844;
89.4000;0.8987;1.5891;
89.7000;0.9044;1.5985;
90.0000;0.8995;1.5868;
90.3000;0.8987;1.5868;
90.6000;0.9011;1.5891;
90.9000;0.9019;1.5915;
91.2000;0.8995;1.5797;
91.5000;0.8987;1.5797;
91.8000;0.8978;1.5727;
92.1000;0.8995;1.5704;
92.4000;0.8995;1.5610;
92.7000;0.8970;1.5539;
93.0000;0.8962;1.5586;
93.3000;0.9011;1.5704;
93.6000;0.8987;1.5633;
93.9000;0.8987;1.5750;
94.2000;0.8970;1.5610;
94.5000;0.8987;1.5680;
94.8000;0.9027;1.5774;
95.1000;0.8930;1.5680;
95.4000;0.8978;1.5844;
95.7000;0.9003;1.5891;
96.0000;0.9003;1.5844;
96.3000;0.9003;1.5844;
96.6000;0.9003;1.5774;
96.9000;0.9019;1.5797;
97.2000;0.8987;1.5727;
97.5000;0.8978;1.5610;
97.8000;0.9003;1.5633;
98.1000;0.9035;1.5750;
98.4000;0.9011;1.5586;
98.7000;0.8995;1.5539;
99.0000;0.8995;1.5539;
99.3000;0.8987;1.5469;
99.6000;0.8970;1.5445;
99.9000;0.8987;1.5492;
100.2000;0.8954;1.5445;
100.5000;0.8995;1.5539;
100.8000;0.8970;1.5492;
101.1000;0.9027;1.5680;
101.4000;0.8978;1.5445;
101.7000;0.8987;1.5351;
102.0000;0.8970;1.5445;
102.3000;0.8978;1.5563;
102.6000;0.9003;1.5704;
102.9000;0.8987;1.5657;
103.2000;0.8889;1.5398;
103.5000;0.9003;1.5704;
103.8000;0.8995;1.5680;
104.1000;0.8995;1.5680;
104.4000;0.8987;1.5633;
104.7000;0.9003;1.5633;
105.0000;0.8995;1.5657;
105.3000;0.8978;1.5586;
105.6000;0.8978;1.5563;
105.9000;0.8970;1.5586;
106.2000;0.9003;1.5704;
106.5000;0.8995;1.5657;
106.8000;0.8987;1.5750;
107.1000;0.8970;1.5633;
107.4000;0.8978;1.5727;
107.7000;0.9003;1.5821;
108.0000;0.9011;1.5844;
108.3000;0.9003;1.5750;
108.6000;0.9003;1.5704;
108.9000;0.9003;1.5727;
109.2000;0.9084;1.6009;
109.5000;0.9003;1.5727;
109.8000;0.8995;1.5727;
110.1000;0.9019;1.5704;
110.4000;0.8995;1.5586;
110.7000;0.8970;1.5563;
111.0000;0.9035;1.5727;
111.3000;0.8995;1.5539;
111.6000;0.9019;1.5657;
111.9000;0.9011;1.5727;
112.2000;0.9003;1.5727;
112.5000;0.9003;1.5750;
112.8000;0.9011;1.5844;
113.1000;0.9003;1.5774;
113.4000;0.8995;1.5657;
113.7000;0.9003;1.5727;
114.0000;0.9019;1.5915;
114.3000;0.9003;1.5844;
114.6000;0.8995;1.5750;
114.9000;0.9011;1.5797;
115.2000;0.9003;1.5868;
115.5000;0.8995;1.5891;
115.8000;0.9027;1.5938;
116.1000;0.9003;1.5774;
116.4000;0.8962;1.5633;
116.7000;0.9019;1.5774;
117.0000;0.9003;1.5821;
117.3000;0.9011;1.5844;
117.6000;0.8995;1.5750;
117.9000;0.9011;1.5797;
118.2000;0.8978;1.5727;
118.5000;0.8987;1.5821;
118.8000;0.8913;1.5704;
119.1000;0.9052;1.6032;
119.4000;0.9003;1.5985;
119.7000;0.8970;1.5985;
120.0000;0.8995;1.6032;
120.3000;0.8962;1.5962;
120.6000;0.9019;1.6009;
120.9000;0.9019;1.5938;
121.2000;0.8987;1.5797;
121.5000;0.8987;1.5774;
121.8000;0.9003;1.5750;
122.1000;0.8978;1.5680;
122.4000;0.8987;1.5774;
122.7000;0.8995;1.5821;
123.0000;0.8978;1.5727;
123.3000;0.9003;1.5844;
123.6000;0.8995;1.5797;
123.9000;0.8970;1.5727;
124.2000;0.8987;1.5868;
124.5000;0.9003;1.5844;
124.8000;0.8987;1.5797;
125.1000;0.8987;1.5797;
125.4000;0.9011;1.5915;
125.7000;0.8995;1.5938;
126.0000;0.8995;1.5962;
126.3000;0.8987;1.5868;
126.6000;0.8987;1.5844;
126.9000;0.9003;1.5868;
127.2000;0.8995;1.5797;
127.5000;0.8995;1.5797;
127.8000;0.8995;1.5821;
128.1000;0.9019;1.5844;
128.4000;0.9003;1.5797;
128.7000;0.9011;1.5821;
129.0000;0.9003;1.5891;
129.3000;0.8987;1.5844;
129.6000;0.8978;1.5844;
129.9000;0.8995;1.5821;
130.2000;0.9011;1.5844;
130.5000;0.8987;1.5868;
130.8000;0.9003;1.6032;
131.1000;0.9003;1.5985;
131.4000;0.9003;1.6056;
131.7000;0.9003;1.6103;
132.0000;0.8995;1.6009;
132.3000;0.8995;1.5985;
132.6000;0.9035;1.6056;
132.9000;0.8962;1.5868;
133.2000;0.8995;1.5868;
133.5000;0.8987;1.5891;
133.8000;0.8987;1.5868;
134.1000;0.9003;1.5915;
134.4000;0.8995;1.5868;
134.7000;0.8938;1.5680;
135.0000;0.9019;1.5821;
135.3000;0.9003;1.5797;
135.6000;0.9035;1.5938;
135.9000;0.9011;1.5938;
136.2000;0.8995;1.5938;
136.5000;0.9003;1.5962;
136.8000;0.8995;1.5938;
137.1000;0.8995;1.5868;
137.4000;0.9011;1.5891;
137.7000;0.9003;1.5844;
138.0000;0.9003;1.5821;
138.3000;0.8995;1.5797;
138.6000;0.9011;1.5797;
138.9000;0.9003;1.5727;
139.2000;0.8995;1.5797;
139.5000;0.9011;1.5868;
139.8000;0.8995;1.5962;
140.1000;0.9019;1.5938;
140.4000;0.8987;1.5774;
140.7000;0.8987;1.5727;
141.0000;0.9011;1.5704;
141.3000;0.9019;1.5797;
141.6000;0.8995;1.5727;
141.9000;0.9003;1.5704;
142.2000;0.9011;1.5727;
142.5000;0.8970;1.5727;
142.8000;0.8987;1.5797;
143.1000;0.8987;1.5844;
143.4000;0.8995;1.5868;
143.7000;0.8987;1.5915;
144.0000;0.8987;1.5704;
144.3000;0.8995;1.5727;
144.6000;0.8970;1.5704;
144.9000;0.9019;1.5774;
145.2000;0.8978;1.5657;
145.5000;0.8987;1.5680;
145.8000;0.9003;1.5891;
146.1000;0.9011;1.5938;
146.4000;0.9003;1.5938;
146.7000;0.9035;1.6009;
147.0000;0.8987;1.5891;
147.3000;0.9011;1.5891;
147.6000;0.9011;1.5868;
147.9000;0.9019;1.5844;
148.2000;0.8995;1.5821;
148.5000;0.8995;1.5891;
148.8000;0.9011;1.5844;
149.1000;0.9011;1.5821;
149.4000;0.8946;1.5657;
149.7000;0.8995;1.5797;
150.0000;0.9003;1.5821;
150.3000;0.9011;1.5844;
150.6000;0.9011;1.5750;
150.9000;0.8995;1.5727;
151.2000;0.9003;1.5704;
151.5000;0.9011;1.5844;
151.8000;0.9003;1.5868;
152.1000;0.9003;1.5868;
152.4000;0.9003;1.5915;
152.7000;0.9011;1.5868;
153.0000;0.8995;1.5774;
153.3000;0.8987;1.5774;
153.6000;0.8938;1.5610;
153.9000;0.8995;1.5704;
154.2000;0.8954;1.5586;
154.5000;0.8995;1.5633;
154.8000;0.8987;1.5586;
155.1000;0.8987;1.5586;
155.4000;0.9019;1.5680;
155.7000;0.9011;1.5704;
156.0000;0.8995;1.5586;
156.3000;0.8995;1.5633;
156.6000;0.9003;1.5610;
156.9000;0.9011;1.5610;
157.2000;0.9003;1.5633;
157.5000;0.8987;1.5516;
157.8000;0.8995;1.5563;
158.1000;0.9003;1.5610;
158.4000;0.8987;1.5563;
158.7000;0.8962;1.5516;
159.0000;0.8978;1.5539;
159.3000;0.8995;1.5539;
159.6000;0.9003;1.5539;
159.9000;0.9019;1.5539;
160.2000;0.8978;1.5351;
160.5000;0.8987;1.5539;
160.8000;0.9003;1.5633;
161.1000;0.8987;1.5657;
161.4000;0.8987;1.5704;
161.7000;0.9003;1.5610;
162.0000;0.8962;1.5586;
162.3000;0.9035;1.5891;
162.6000;0.9011;1.5797;
162.9000;0.9003;1.5750;
163.2000;0.9011;1.5868;
163.5000;0.9027;1.5868;
163.8000;0.9003;1.5774;
164.1000;0.9011;1.5821;
164.4000;0.8987;1.5821;
164.7000;0.8995;1.5821;
165.0000;0.8978;1.5750;
165.3000;0.9003;1.5797;
165.6000;0.8970;1.5704;
165.9000;0.8978;1.5727;
166.2000;0.9003;1.5844;
166.5000;0.8962;1.5680;
166.8000;0.8987;1.5704;
167.1000;0.8995;1.5704;
167.4000;0.8995;1.5727;
167.7000;0.9003;1.5821;
168.0000;0.8995;1.5868;
168.3000;0.9003;1.5985;
168.6000;0.9003;1.6009;
168.9000;0.8995;1.5938;
169.2000;0.8995;1.5891;
169.5000;0.9076;1.6032;
169.8000;0.8987;1.5821;
170.1000;0.9003;1.5774;
170.4000;0.8970;1.5797;
170.7000;0.9003;1.5844;
171.0000;0.8978;1.5727;
171.3000;0.9003;1.5750;
171.6000;0.8987;1.5586;
171.9000;0.9019;1.5633;
172.2000;0.9027;1.5586;
172.5000;0.9019;1.5633;
172.8000;0.9011;1.5633;
173.1000;0.8930;1.5445;
173.4000;0.9044;1.5868;
173.7000;0.9027;1.5915;
174.0000;0.8995;1.5868;
174.3000;0.8995;1.5891;
174.6000;0.9019;1.5844;
174.9000;0.9011;1.5727;
175.2000;0.9060;1.5774;
175.5000;0.9003;1.5610;
175.8000;0.8978;1.5657;
176.1000;0.9003;1.5868;
176.4000;0.9011;1.5844;
176.7000;0.8938;1.5727;
177.0000;0.8970;1.5750;
177.3000;0.9003;1.5844;
177.6000;0.9003;1.5774;
177.9000;0.8995;1.5750;
178.2000;0.8987;1.5821;
178.5000;0.8946;1.5727;
178.8000;0.8970;1.5797;
179.1000;0.9019;1.5891;
179.4000;0.8995;1.5750;
179.7000;0.9035;1.5750;
180.0000;0.9003;1.5516;
180.3000;0.8995;1.5516;
180.6000;0.8995;1.5610;
180.9000;0.9003;1.5821;
181.2000;0.8978;1.5868;
181.5000;0.9003;1.5868;
181.8000;0.9019;1.5962;
182.1000;0.8987;1.5915;
182.4000;0.8995;1.5938;
182.7000;0.8978;1.5915;
183.0000;0.8995;1.6009;
183.3000;0.8995;1.5985;
183.6000;0.8987;1.5938;
183.9000;0.9019;1.6009;
184.2000;0.8987;1.5821;
184.5000;0.8995;1.5750;
184.8000;0.9003;1.5727;
185.1000;0.9011;1.5868;
185.4000;0.8987;1.5891;
185.7000;0.9003;1.5891;
186.0000;0.9003;1.5915;
186.3000;0.9027;1.5844;
186.6000;0.9027;1.5774;
186.9000;0.9044;1.5797;
187.2000;0.9068;1.5821;
187.5000;0.9011;1.5821;
187.8000;0.8995;1.5821;
188.1000;0.8995;1.5750;
188.4000;0.9019;1.5797;
188.7000;0.8995;1.5821;
189.0000;0.8987;1.5868;
189.3000;0.8995;1.5962;
189.6000;0.9011;1.5985;
189.9000;0.8995;1.5938;
190.2000;0.9003;1.5985;
190.5000;0.9003;1.5962;
190.8000;0.8978;1.5868;
191.1000;0.8995;1.5774;
191.4000;0.8946;1.5844;
191.7000;0.9003;1.6009;
192.0000;0.8987;1.5891;
192.3000;0.8978;1.5750;
192.6000;0.8995;1.5704;
192.9000;0.8987;1.5727;
193.2000;0.8995;1.5797;
193.5000;0.9133;1.6103;
193.8000;0.8954;1.5704;
194.1000;0.9003;1.5797;
194.4000;0.8978;1.5704;
194.7000;0.8995;1.5633;
195.0000;0.9003;1.5657;
195.3000;0.8897;1.5351;
195.6000;0.9003;1.5539;
195.9000;0.9003;1.5539;
196.2000;0.9003;1.5563;
196.5000;0.8987;1.5610;
196.8000;0.9027;1.5657;
197.1000;0.9044;1.5657;
197.4000;0.9011;1.5586;
197.7000;0.9019;1.5704;
198.0000;0.9019;1.5750;
198.3000;0.8995;1.5657;
198.6000;0.9019;1.5727;
198.9000;0.8995;1.5680;
199.2000;0.8995;1.5797;
199.5000;0.8987;1.5821;
199.8000;0.8995;1.5891;
200.1000;0.8995;1.5821;
200.4000;0.8995;1.5844;
200.7000;0.8995;1.5915;
201.0000;0.9003;1.5891;
201.3000;0.8987;1.5774;
201.6000;0.9003;1.5774;
201.9000;0.9060;1.5985;
202.2000;0.9092;1.6009;
202.5000;0.9011;1.5750;
202.8000;0.9003;1.5633;
203.1000;0.9003;1.5633;
203.4000;0.9011;1.5704;
203.7000;0.8987;1.5704;
204.0000;0.8995;1.5633;
204.3000;0.8987;1.5704;
204.6000;0.9011;1.5774;
204.9000;0.9011;1.5844;
205.2000;0.9011;1.5797;
205.5000;0.8995;1.5868;
205.8000;0.8995;1.5868;
206.1000;0.8987;1.5774;
206.4000;0.9011;1.5797;
206.7000;0.8946;1.5563;
207.0000;0.9011;1.5657;
207.3000;0.9019;1.5750;
207.6000;0.9011;1.5750;
207.9000;0.9011;1.5821;
208.2000;0.8970;1.5704;
208.5000;0.9019;1.5774;
208.8000;0.9019;1.5750;
209.1000;0.8978;1.5680;
209.4000;0.8987;1.5657;
209.7000;0.9003;1.5727;
210.0000;0.8995;1.5750;
210.3000;0.8995;1.5774;
210.6000;0.8987;1.5797;
210.9000;0.8978;1.5680;
211.2000;0.9019;1.5680;
211.5000;0.8978;1.5610;
211.8000;0.8962;1.5657;
212.1000;0.9027;1.5821;
212.4000;0.8946;1.5539;
212.7000;0.8913;1.5445;
213.0000;0.9003;1.5610;
213.3000;0.8995;1.5586;
213.6000;0.9011;1.5610;
213.9000;0.8987;1.5563;
214.2000;0.9003;1.5539;
214.5000;0.8938;1.5398;
214.8000;0.8881;1.5304;
215.1000;0.9003;1.5610;
215.4000;0.8921;1.5422;
215.7000;0.9003;1.5727;
216.0000;0.9003;1.5797;
216.3000;0.9027;1.5727;
216.6000;0.9060;1.5821;
216.9000;0.8987;1.5657;
217.2000;0.9019;1.5704;
217.5000;0.8987;1.5563;
217.8000;0.8954;1.5469;
218.1000;0.8995;1.5539;
218.4000;0.9011;1.5704;
218.7000;0.9011;1.5704;
219.0000;0.9011;1.5680;
219.3000;0.9019;1.5727;
219.6000;0.9003;1.5704;
219.9000;0.9011;1.5704;
220.2000;0.9092;1.5938;
220.5000;0.9003;1.5844;
220.8000;0.8978;1.5774;
221.1000;0.9011;1.5891;
221.4000;0.9035;1.5915;
221.7000;0.8995;1.5821;
222.0000;0.8987;1.5821;
222.3000;0.8995;1.5868;
222.6000;0.9019;1.5868;
222.9000;0.9011;1.5844;
223.2000;0.8987;1.5844;
223.5000;0.8995;1.5821;
223.8000;0.8987;1.5704;
224.1000;0.9003;1.5657;
224.4000;0.8995;1.5680;
224.7000;0.8938;1.5563;
225.0000;0.9011;1.5657;
225.3000;0.9011;1.5657;
225.6000;0.9011;1.5633;
225.9000;0.8987;1.5610;
226.2000;0.8987;1.5704;
226.5000;0.8987;1.5727;
226.8000;0.9003;1.5727;
227.1000;0.9019;1.5774;
227.4000;0.9019;1.5750;
227.7000;0.9003;1.5633;
228.0000;0.9035;1.5610;
228.3000;0.9011;1.5539;
228.6000;0.8995;1.5586;
228.9000;0.8970;1.5492;
229.2000;0.8913;1.5398;
229.5000;0.9003;1.5610;
229.8000;0.9019;1.5750;
230.1000;0.9003;1.5633;
230.4000;0.9019;1.5704;
230.7000;0.8995;1.5680;
231.0000;0.8954;1.5610;
231.3000;0.8995;1.5750;
231.6000;0.8987;1.5539;
231.9000;0.8987;1.5516;
232.2000;0.8987;1.5539;
232.5000;0.8995;1.5539;
232.8000;0.9011;1.5586;
233.1000;0.9003;1.5563;
233.4000;0.8978;1.5539;
233.7000;0.8913;1.5445;
234.0000;0.8995;1.5539;
234.3000;0.9011;1.5516;
234.6000;0.8987;1.5445;
234.9000;0.8987;1.5445;
235.2000;0.8962;1.5469;
235.5000;0.9044;1.5704;
235.8000;0.9060;1.5727;
236.1000;0.8970;1.5469;
236.4000;0.8995;1.5469;
236.7000;0.8954;1.5328;
237.0000;0.9060;1.5516;
237.3000;0.8978;1.5351;
237.6000;0.8995;1.5351;
237.9000;0.8970;1.5398;
238.2000;0.8995;1.5492;
238.5000;0.9003;1.5492;
238.8000;0.9019;1.5563;
239.1000;0.8978;1.5422;
239.4000;0.9076;1.5633;
239.7000;0.8962;1.5375;
240.0000;0.9003;1.5469;
240.3000;0.9003;1.5422;
240.6000;0.9011;1.5492;
240.9000;0.9003;1.5539;
241.2000;0.9011;1.5516;
241.5000;0.8995;1.5445;
241.8000;0.8987;1.5492;
242.1000;0.8995;1.5469;
242.4000;0.8978;1.5398;
242.7000;0.9003;1.5492;
243.0000;0.8995;1.5539;
243.3000;0.9003;1.5657;
243.6000;0.9011;1.5586;
243.9000;0.8995;1.5539;
244.2000;0.9003;1.5563;
244.5000;0.9003;1.5610;
244.8000;0.9003;1.5657;
245.1000;0.9011;1.5774;
245.4000;0.9011;1.5774;
245.7000;0.9003;1.5797;
246.0000;0.8995;1.5844;
246.3000;0.8987;1.5704;
246.6000;0.8995;1.5633;
246.9000;0.9011;1.5750;
247.2000;0.8987;1.5727;
247.5000;0.8978;1.5680;
247.8000;0.8995;1.5657;
248.1000;0.9003;1.5727;
248.4000;0.9003;1.5680;
248.7000;0.8962;1.5563;
249.0000;0.8995;1.5633;
249.3000;0.8978;1.5586;
249.6000;0.9003;1.5610;
249.9000;0.9019;1.5704;
250.2000;0.8970;1.5680;
250.5000;0.8978;1.5680;
250.8000;0.8987;1.5750;
251.1000;0.9068;1.5985;
251.4000;0.8987;1.5750;
251.7000;0.9003;1.5821;
252.0000;0.9003;1.5797;
252.3000;0.9011;1.5797;
252.6000;0.9011;1.5821;
252.9000;0.8978;1.5774;
253.2000;0.8995;1.5750;
253.5000;0.8978;1.5657;
253.8000;0.9003;1.5704;
254.1000;0.8930;1.5586;
254.4000;0.8987;1.5633;
254.7000;0.8995;1.5680;
255.0000;0.8995;1.5727;
255.3000;0.9019;1.5704;
255.6000;0.8987;1.5633;
255.9000;0.9003;1.5704;
256.2000;0.9027;1.5774;
256.5000;0.9003;1.5821;
256.8000;0.8987;1.5844;
257.1000;0.9003;1.5891;
257.4000;0.8995;1.5938;
257.7000;0.9035;1.6009;
258.0000;0.8930;1.5657;
258.3000;0.8987;1.5821;
258.6000;0.8995;1.5821;
258.9000;0.9035;1.5868;
259.2000;0.9003;1.5844;
259.5000;0.9003;1.5915;
259.8000;0.9003;1.5891;
260.1000;0.9011;1.5774;
260.4000;0.9003;1.5610;
260.7000;0.9003;1.5680;
261.0000;0.9011;1.5774;
261.3000;0.8995;1.5750;
261.6000;0.8995;1.5680;
261.9000;0.8978;1.5586;
262.2000;0.8995;1.5680;
262.5000;0.9003;1.5610;
262.8000;0.8987;1.5657;
263.1000;0.8978;1.5750;
263.4000;0.8954;1.5680;
263.7000;0.8987;1.5727;
264.0000;0.9003;1.5797;
264.3000;0.8995;1.5774;
264.6000;0.8995;1.5657;
264.9000;0.8987;1.5704;
265.2000;0.9003;1.5797;
265.5000;0.8995;1.5797;
265.8000;0.8978;1.5797;
266.1000;0.9027;1.5891;
266.4000;0.8987;1.5797;
266.7000;0.9011;1.5774;
267.0000;0.9027;1.5727;
267.3000;0.9011;1.5750;
267.6000;0.9003;1.5797;
267.9000;0.9019;1.5797;
268.2000;0.9011;1.5727;
268.5000;0.9003;1.5750;
268.8000;0.9011;1.5844;
269.1000;0.9011;1.5868;
269.4000;0.9003;1.5750;
269.7000;0.9101;1.6009;
270.0000;0.9003;1.5797;
270.3000;0.9019;1.5868;
270.6000;0.9019;1.5962;
270.9000;0.9003;1.5821;
271.2000;0.9003;1.5891;
271.5000;0.9003;1.5962;
271.8000;0.9003;1.6032;
272.1000;0.9011;1.6103;
272.4000;0.8995;1.6103;
272.7000;0.8921;1.5962;
273.0000;0.8987;1.6032;
273.3000;0.8987;1.6009;
273.6000;0.8987;1.5985;
273.9000;0.9027;1.6009;
274.2000;0.9019;1.5962;
274.5000;0.8970;1.5844;
274.8000;0.9035;1.5985;
275.1000;0.8995;1.5844;
275.4000;0.8995;1.5868;
275.7000;0.8970;1.5891;
276.0000;0.8978;1.5891;
276.3000;0.8987;1.5868;
276.6000;0.9003;1.5962;
276.9000;0.8962;1.5750;
277.2000;0.8995;1.5821;
277.5000;0.8987;1.5821;
277.8000;0.8995;1.5891;
278.1000;0.8995;1.5774;
278.4000;0.9003;1.5844;
278.7000;0.8978;1.5727;
279.0000;0.8987;1.5774;
279.3000;0.8995;1.5891;
279.6000;0.8995;1.5938;
279.9000;0.8978;1.5868;
280.2000;0.8978;1.5891;
280.5000;0.8987;1.5891;
280.8000;0.8995;1.5891;
281.1000;0.8995;1.5985;
281.4000;0.8987;1.5985;
281.7000;0.8987;1.5938;
282.0000;0.9003;1.5962;
282.3000;0.8995;1.6032;
282.6000;0.8962;1.5938;
282.9000;0.8995;1.5985;
283.2000;0.9003;1.6079;
283.5000;0.8978;1.5962;
283.8000;0.8978;1.5844;
284.1000;0.8987;1.5797;
284.4000;0.8954;1.5704;
284.7000;0.8995;1.5774;
285.0000;0.9003;1.5821;
285.3000;0.8987;1.5797;
285.6000;0.9003;1.5821;
285.9000;0.9003;1.5727;
286.2000;0.8995;1.5657;
286.5000;0.8987;1.5704;
286.8000;0.9003;1.5750;
287.1000;0.9003;1.5633;
287.4000;0.8987;1.5492;
287.7000;0.9003;1.5398;
288.0000;0.8978;1.5328;
288.3000;0.9011;1.5351;
288.6000;0.9003;1.5398;
288.9000;0.8995;1.5422;
289.2000;0.8987;1.5469;
289.5000;0.8987;1.5492;
289.8000;0.8995;1.5469;
290.1000;0.9003;1.5539;
290.4000;0.8995;1.5469;
290.7000;0.9003;1.5469;
291.0000;0.8913;1.5258;
291.3000;0.9003;1.5398;
291.6000;0.9003;1.5492;
291.9000;0.9003;1.5422;
292.2000;0.8995;1.5445;
292.5000;0.8995;1.5516;
292.8000;0.8987;1.5539;
293.1000;0.9011;1.5633;
293.4000;0.9011;1.5727;
293.7000;0.9003;1.5821;
294.0000;0.9003;1.5821;
294.3000;0.8970;1.5844;
294.6000;0.8987;1.5844;
294.9000;0.8995;1.5844;
295.2000;0.8938;1.5657;
295.5000;0.9035;1.5915;
295.8000;0.9011;1.5704;
296.1000;0.8995;1.5774;
296.4000;0.8987;1.5868;
296.7000;0.8987;1.5868;
297.0000;0.8978;1.5797;
297.3000;0.8889;1.5492;
297.6000;0.9003;1.5657;
297.9000;0.9019;1.5633;
298.2000;0.8978;1.5492;
298.5000;0.9003;1.5563;
298.8000;0.9019;1.5704;
299.1000;0.8978;1.5610;
299.4000;0.9003;1.5704;
299.7000;0.8995;1.5633;
300.0000;0.9003;1.5704;
300.3000;0.8954;1.5610;
300.6000;0.8978;1.5727;
300.9000;0.8995;1.5750;
301.2000;0.9011;1.5704;
301.5000;0.9011;1.5774;
301.8000;0.9027;1.5750;
302.1000;0.9011;1.5750;
302.4000;0.8987;1.5774;
302.7000;0.8995;1.5727;
303.0000;0.8995;1.5727;
303.3000;0.8987;1.5704;
303.6000;0.8995;1.5680;
303.9000;0.8995;1.5727;
304.2000;0.9011;1.5727;
304.5000;0.8987;1.5633;
304.8000;0.8987;1.5633;
305.1000;0.9003;1.5586;
305.4000;0.9011;1.5610;
305.7000;0.8995;1.5633;
306.0000;0.8995;1.5657;
306.3000;0.9011;1.5680;
306.6000;0.8995;1.5704;
306.9000;0.8995;1.5797;
307.2000;0.8978;1.5774;
307.5000;0.8954;1.5657;
307.8000;0.8995;1.5704;
308.1000;0.8970;1.5657;
308.4000;0.8978;1.5727;
308.7000;0.8978;1.5727;
309.0000;0.8897;1.5422;
309.3000;0.8970;1.5610;
309.6000;0.8978;1.5610;
309.9000;0.8978;1.5516;
310.2000;0.8978;1.5657;
310.5000;0.8995;1.5750;
310.8000;0.8978;1.5727;
311.1000;0.8987;1.5774;
311.4000;0.8954;1.5633;
311.7000;0.8978;1.5633;
312.0000;0.8987;1.5750;
312.3000;0.8995;1.5774;
312.6000;0.8987;1.5750;
312.9000;0.8995;1.5750;
313.2000;0.8978;1.5657;
313.5000;0.9035;1.5797;
313.8000;0.9019;1.5774;
314.1000;0.9003;1.5821;
314.4000;0.8995;1.5774;
314.7000;0.8995;1.5797;
315.0000;0.8995;1.5774;
315.3000;0.8930;1.5586;
315.6000;0.8995;1.5657;
315.9000;0.9011;1.5657;
316.2000;0.8978;1.5727;
316.5000;0.9003;1.5868;
316.8000;0.8995;1.5891;
317.1000;0.9011;1.5985;
317.4000;0.9003;1.5868;
317.7000;0.8987;1.5891;
318.0000;0.8995;1.5868;
318.3000;0.8995;1.5868;
318.6000;0.8970;1.5844;
318.9000;0.8970;1.5915;
319.2000;0.8987;1.5938;
319.5000;0.9019;1.5985;
319.8000;0.8987;1.5868;
320.1000;0.8978;1.5868;
320.4000;0.8987;1.5891;
320.7000;0.9011;1.5891;
321.0000;0.8995;1.5891;
321.3000;0.8987;1.5868;
321.6000;0.8995;1.5868;
321.9000;0.8987;1.5774;
322.2000;0.8987;1.5844;
322.5000;0.8978;1.5821;
322.8000;0.8970;1.5821;
323.1000;0.8970;1.5750;
323.4000;0.8987;1.5844;
323.7000;0.8987;1.5821;
324.0000;0.8987;1.5750;
324.3000;0.8987;1.5750;
324.6000;0.9068;1.6056;
324.9000;0.8962;1.5750;
325.2000;0.9011;1.5844;
325.5000;0.8995;1.5868;
325.8000;0.9044;1.5891;
326.1000;0.8987;1.5727;
326.4000;0.9003;1.5680;
326.7000;0.9003;1.5563;
327.0000;0.8987;1.5539;
327.3000;0.9003;1.5610;
327.6000;0.8987;1.5586;
327.9000;0.8978;1.5539;
328.2000;0.8995;1.5633;
328.5000;0.8995;1.5633;
328.8000;0.8987;1.5563;
329.1000;0.8995;1.5586;
329.4000;0.8995;1.5750;
329.7000;0.8970;1.5797;
330.0000;0.9003;1.5915;
330.3000;0.8930;1.5750;
330.6000;0.8987;1.5868;
330.9000;0.8987;1.5891;
331.2000;0.9068;1.6032;
331.5000;0.8921;1.5633;
331.8000;0.8995;1.5821;
332.1000;0.8946;1.5704;
332.4000;0.8938;1.5680;
332.7000;0.8995;1.5704;
333.0000;0.8962;1.5680;
333.3000;0.8995;1.5797;
333.6000;0.8987;1.5844;
333.9000;0.8995;1.5844;
334.2000;0.8970;1.5750;
334.5000;0.8970;1.5750;
334.8000;0.8978;1.5821;
335.1000;0.8987;1.5774;
335.4000;0.8978;1.5657;
335.7000;0.8987;1.5657;
336.0000;0.8987;1.5633;
336.3000;0.8995;1.5774;
336.6000;0.9019;1.5821;
336.9000;0.8995;1.5750;
337.2000;0.8978;1.5821;
337.5000;0.8987;1.5821;
337.8000;0.8995;1.5797;
338.1000;0.8987;1.5844;
338.4000;0.8995;1.5797;
338.7000;0.8930;1.5633;
339.0000;0.9003;1.5750;
339.3000;0.9003;1.5727;
339.6000;0.9003;1.5821;
339.9000;0.8995;1.5657;
340.2000;0.8995;1.5586;
340.5000;0.8987;1.5563;
340.8000;0.8987;1.5657;
341.1000;0.8978;1.5680;
341.4000;0.8995;1.5797;
341.7000;0.8897;1.5422;
342.0000;0.8987;1.5633;
342.3000;0.9019;1.5868;
342.6000;0.8987;1.5915;
342.9000;0.8995;1.5938;
343.2000;0.8978;1.5868;
343.5000;0.8930;1.5704;
343.8000;0.8987;1.5938;
344.1000;0.8970;1.5938;
344.4000;0.9011;1.6032;
344.7000;0.8995;1.5962;
345.0000;0.9133;1.6196;
345.3000;0.8954;1.5750;
345.6000;0.8962;1.5797;
345.9000;0.9003;1.5868;
346.2000;0.8970;1.5844;
346.5000;0.8987;1.5891;
346.8000;0.9052;1.6126;
347.1000;0.8995;1.5962;
347.4000;0.9003;1.5985;
347.7000;0.8995;1.6056;
348.0000;0.8987;1.6009;
348.3000;0.9052;1.6056;
348.6000;0.9003;1.5868;
348.9000;0.8987;1.5774;
349.2000;0.8995;1.5844;
349.5000;0.8987;1.5868;
349.8000;0.9027;1.5938;
350.1000;0.8995;1.5750;
350.4000;0.8970;1.5727;
350.7000;0.9003;1.5774;
351.0000;0.8995;1.5680;
351.3000;0.8995;1.5750;
351.6000;0.9011;1.5774;
351.9000;0.9011;1.5774;
352.2000;0.8995;1.5821;
352.5000;0.8995;1.5797;
352.8000;0.8987;1.5915;
353.1000;0.8995;1.5868;
353.4000;0.9003;1.5868;
353.7000;0.9003;1.5938;
354.0000;0.9003;1.5844;
354.3000;0.9035;1.5868;
354.6000;0.8970;1.5750;
354.9000;0.8987;1.5797;
355.2000;0.8987;1.5750;
355.5000;0.8987;1.5750;
355.8000;0.8987;1.5821;
356.1000;0.9027;1.5868;
356.4000;0.8978;1.5657;
356.7000;0.9003;1.5727;
357.0000;0.9011;1.5844;
357.3000;0.8978;1.5844;
357.6000;0.8995;1.5844;
357.9000;0.8978;1.5797;
358.2000;0.8978;1.5844;
358.5000;0.8987;1.5821;
358.8000;0.8978;1.5774;
359.1000;0.8987;1.5774;
359.4000;0.9003;1.5750;
359.7000;0.8995;1.5657;
360.0000;0.8995;1.5680;
360.3000;0.8995;1.5774;
360.6000;0.9003;1.5704;
360.9000;0.9003;1.5727;
361.2000;0.8987;1.5680;
361.5000;0.8978;1.5727;
361.8000;0.8978;1.5821;
362.1000;0.9076;1.5938;
362.4000;0.9003;1.5774;
362.7000;0.9011;1.5774;
363.0000;0.8970;1.5657;
363.3000;0.8995;1.5657;
363.6000;0.9019;1.5704;
363.9000;0.9003;1.5657;
364.2000;0.8978;1.5610;
364.5000;0.8987;1.5657;
364.8000;0.8962;1.5657;
365.1000;0.8962;1.5704;
365.4000;0.8970;1.5750;
365.7000;0.8987;1.5844;
366.0000;0.8987;1.5750;
366.3000;0.8995;1.5680;
366.6000;0.8987;1.5680;
366.9000;0.8962;1.5657;
367.2000;0.8987;1.5704;
367.5000;0.8970;1.5774;
367.8000;0.8954;1.5797;
368.1000;0.8995;1.5844;
368.4000;0.8995;1.5868;
368.7000;0.8938;1.5680;
369.0000;0.8962;1.5704;
369.3000;0.8987;1.5797;
369.6000;0.8970;1.5797;
369.9000;0.8987;1.5821;
370.2000;0.8995;1.5844;
370.5000;0.8995;1.5680;
370.8000;0.9027;1.5868;
371.1000;0.8987;1.5797;
371.4000;0.8987;1.5704;
371.7000;0.8954;1.5704;
372.0000;0.8987;1.5727;
372.3000;0.8978;1.5774;
372.6000;0.8987;1.5915;
372.9000;0.8987;1.5891;
373.2000;0.8995;1.5844;
373.5000;0.8970;1.5750;
373.8000;0.9035;1.5844;
374.1000;0.9003;1.5657;
374.4000;0.8995;1.5844;
374.7000;0.8995;1.5844;
375.0000;0.9019;1.5915;
375.3000;0.9011;1.5915;
375.6000;0.8987;1.5844;
375.9000;0.9003;1.5868;
376.2000;0.9003;1.5844;
376.5000;0.9011;1.5844;
376.8000;0.8995;1.5915;
377.1000;0.8978;1.5915;
377.4000;0.8970;1.5797;
377.7000;0.9003;1.5774;
378.0000;0.9003;1.5750;
378.3000;0.8970;1.5774;
378.6000;0.8995;1.5915;
378.9000;0.9011;1.6009;
379.2000;0.9003;1.6009;
379.5000;0.8987;1.5985;
379.8000;0.9003;1.6103;
380.1000;0.9003;1.6126;
380.4000;0.9003;1.6032;
380.7000;0.8995;1.5962;
381.0000;0.8987;1.5915;
381.3000;0.8995;1.6009;
381.6000;0.8978;1.5915;
381.9000;0.9060;1.6032;
382.2000;0.8978;1.5821;
382.5000;0.8987;1.5868;
382.8000;0.9003;1.5938;
383.1000;0.8978;1.6009;
383.4000;0.8970;1.6032;
383.7000;0.8962;1.5962;
384.0000;0.8987;1.5985;
384.3000;0.8978;1.5962;
384.6000;0.8987;1.5891;
384.9000;0.8995;1.5797;
385.2000;0.8995;1.5868;
385.5000;0.9003;1.5821;
385.8000;0.8987;1.5797;
386.1000;0.8970;1.5797;
386.4000;0.8995;1.5821;
386.7000;0.8938;1.5657;
387.0000;0.8995;1.5821;
387.3000;0.8987;1.5821;
387.6000;0.8946;1.5657;
387.9000;0.8995;1.5750;
388.2000;0.8987;1.5774;
388.5000;0.8970;1.5821;
388.8000;0.8995;1.5868;
389.1000;0.8978;1.5844;
389.4000;0.8987;1.5844;
389.7000;0.8978;1.5868;
390.0000;0.8962;1.5797;
390.3000;0.8995;1.5868;
390.6000;0.8970;1.5750;
390.9000;0.8970;1.5633;
391.2000;0.8995;1.5774;
391.5000;0.8995;1.5844;
391.8000;0.8962;1.5821;
392.1000;0.8987;1.5891;
392.4000;0.8978;1.5821;
392.7000;0.9003;1.5797;
393.0000;0.8995;1.5797;
393.3000;0.8978;1.5727;
393.6000;0.8987;1.5704;
393.9000;0.8978;1.5633;
394.2000;0.8987;1.5704;
394.5000;0.8987;1.5750;
394.8000;0.8873;1.5445;
395.1000;0.8978;1.5727;
395.4000;0.8970;1.5704;
395.7000;0.9019;1.5797;
396.0000;0.9011;1.5704;
396.3000;0.8987;1.5704;
396.6000;0.8987;1.5727;
396.9000;0.9003;1.5680;
397.2000;0.9003;1.5657;
397.5000;0.8995;1.5680;
397.8000;0.8987;1.5633;
398.1000;0.9011;1.5774;
398.4000;0.8995;1.5727;
398.7000;0.8995;1.5774;
399.0000;0.8978;1.5821;
399.3000;0.8987;1.5821;
399.6000;0.8978;1.5750;
399.9000;0.8987;1.5774;
400.2000;0.8946;1.5750;
400.5000;0.8938;1.5704;
400.8000;0.8995;1.5868;
401.1000;0.9060;1.6009;
401.4000;0.8970;1.5821;
401.7000;0.8978;1.5844;
402.0000;0.8978;1.5797;
402.3000;0.8987;1.5797;
402.6000;0.8962;1.5750;
402.9000;0.8978;1.5727;
403.2000;0.8987;1.5844;
403.5000;0.9068;1.5985;
403.8000;0.9003;1.5774;
404.1000;0.8978;1.5797;
404.4000;0.9052;1.6032;
404.7000;0.8995;1.5891;
405.0000;0.8995;1.5868;
405.3000;0.8978;1.5868;
405.6000;0.8987;1.5868;
405.9000;0.8938;1.5704;
406.2000;0.8987;1.5938;
406.5000;0.8978;1.5962;
406.8000;0.8987;1.5985;
407.1000;0.9035;1.6032;
407.4000;0.8995;1.5962;
407.7000;0.8946;1.5868;
408.0000;0.8978;1.5844;
408.3000;0.8978;1.5774;
408.6000;0.8987;1.5797;
408.9000;0.8905;1.5633;
409.2000;0.8978;1.5821;
409.5000;0.8970;1.5821;
409.8000;0.8987;1.5821;
410.1000;0.8987;1.5774;
410.4000;0.8995;1.5680;
410.7000;0.8962;1.5633;
411.0000;0.8832;1.5422;
411.3000;0.8987;1.5750;
411.6000;0.8987;1.5704;
411.9000;0.8962;1.5633;
412.2000;0.8995;1.5704;
412.5000;0.8987;1.5704;
412.8000;0.9011;1.5821;
413.1000;0.8978;1.5915;
413.4000;0.8987;1.6009;
413.7000;0.8946;1.5938;
414.0000;0.8970;1.6032;
414.3000;0.9003;1.5962;
414.6000;0.8978;1.5915;
414.9000;0.8987;1.5938;
415.2000;0.9003;1.5915;
415.5000;0.8978;1.5891;
415.8000;0.8978;1.5797;
416.1000;0.8978;1.5727;
416.4000;0.8995;1.5727;
416.7000;0.8970;1.5727;
417.0000;0.8987;1.5868;
417.3000;0.9027;1.5985;
417.6000;0.8995;1.5938;
417.9000;0.8987;1.5962;
418.2000;0.8987;1.6079;
418.5000;0.8987;1.5938;
418.8000;0.8987;1.5868;
419.1000;0.8905;1.5727;
419.4000;0.8897;1.5704;
419.7000;0.9003;1.5985;
420.0000;0.9003;1.5962;
420.3000;0.8970;1.5915;
420.6000;0.8970;1.5844;
420.9000;0.8970;1.5821;
421.2000;0.8978;1.5704;
421.5000;0.8987;1.5750;
421.8000;0.8978;1.5797;
422.1000;0.8978;1.5774;
422.4000;0.8978;1.5727;
422.7000;0.8987;1.5633;
423.0000;0.9019;1.5657;
423.3000;0.8995;1.5680;
423.6000;0.8978;1.5774;
423.9000;0.9101;1.6126;
424.2000;0.8987;1.5797;
424.5000;0.8995;1.5797;
424.8000;0.8962;1.5868;
425.1000;0.9133;1.6243;
425.4000;0.8987;1.5868;
425.7000;0.8970;1.5868;
426.0000;0.8954;1.5821;
426.3000;0.8864;1.5633;
426.6000;0.9035;1.6032;
426.9000;0.8987;1.5868;
427.2000;0.8978;1.5868;
427.5000;0.8938;1.5844;
427.8000;0.8978;1.5868;
428.1000;0.8987;1.5821;
428.4000;0.8962;1.5844;
428.7000;0.8995;1.6009;
429.0000;0.8995;1.6056;
429.3000;0.8995;1.6009;
429.6000;0.8987;1.5962;
429.9000;0.8995;1.5891;
430.2000;0.8970;1.5821;
430.5000;0.8978;1.5891;
430.8000;0.8962;1.5797;
431.1000;0.8954;1.5797;
431.4000;0.8987;1.5844;
431.7000;0.8978;1.5774;
432.0000;0.8987;1.5704;
432.3000;0.8970;1.5563;
432.6000;0.8995;1.5586;
432.9000;0.8970;1.5563;
433.2000;0.9068;1.5821;
433.5000;0.8987;1.5657;
433.8000;0.8978;1.5704;
434.1000;0.8987;1.5750;
434.4000;0.9011;1.5750;
434.7000;0.8987;1.5844;
435.0000;0.8978;1.5797;
435.3000;0.8987;1.5750;
435.6000;0.9003;1.5821;
435.9000;0.9060;1.5915;
436.2000;0.9109;1.6009;
436.5000;0.8962;1.5610;
436.8000;0.8987;1.5750;
437.1000;0.8962;1.5704;
437.4000;0.8970;1.5657;
437.7000;0.9044;1.5891;
438.0000;0.9011;1.5774;
438.3000;0.8905;1.5469;
438.6000;0.8995;1.5797;
438.9000;0.8987;1.5750;
439.2000;0.8978;1.5704;
439.5000;0.8987;1.5774;
439.8000;0.9011;1.5844;
440.1000;0.8978;1.5750;
440.4000;0.9003;1.5797;
440.7000;0.8905;1.5563;
441.0000;0.8978;1.5680;
441.3000;0.8978;1.5657;
441.6000;0.8978;1.5633;
441.9000;0.8987;1.5610;
442.2000;0.8995;1.5657;
442.5000;0.8995;1.5633;
442.8000;0.9092;1.5915;
443.1000;0.8987;1.5657;
443.4000;0.8995;1.5680;
443.7000;0.8995;1.5727;
444.0000;0.9027;1.5891;
444.3000;0.9003;1.5821;
444.6000;0.8995;1.5774;
444.9000;0.8995;1.5750;
445.2000;0.8995;1.5868;
445.5000;0.8987;1.5891;
445.8000;0.9060;1.6126;
446.1000;0.8995;1.5915;
446.4000;0.8970;1.5915;
446.7000;0.8987;1.5985;
447.0000;0.8954;1.5891;
447.3000;0.8995;1.5891;
447.6000;0.9019;1.5891;
447.9000;0.8987;1.5868;
448.2000;0.8978;1.5844;
448.5000;0.8978;1.5915;
448.8000;0.8987;1.5938;
449.1000;0.8946;1.5844;
449.4000;0.8946;1.5680;
449.7000;0.8987;1.5704;
450.0000;0.8978;1.5704;
450.3000;0.8946;1.5586;
450.6000;0.8921;1.5680;
450.9000;0.8970;1.5821;
451.2000;0.8970;1.5797;
451.5000;0.8970;1.5774;
451.8000;0.8970;1.5774;
452.1000;0.8962;1.5704;
452.4000;0.8970;1.5774;
452.7000;0.8987;1.5891;
453.0000;0.8995;1.5891;
453.3000;0.8970;1.5915;
453.6000;0.9011;1.5985;
453.9000;0.8970;1.5844;
454.2000;0.8987;1.5891;
454.5000;0.8970;1.5821;
454.8000;0.8978;1.5844;
455.1000;0.8970;1.5915;
455.4000;0.8978;1.5962;
455.7000;0.8913;1.5774;
456.0000;0.8987;1.5938;
456.3000;0.8962;1.5844;
456.6000;0.8987;1.5868;
456.9000;0.8970;1.5774;
457.2000;0.8938;1.5633;
457.5000;0.8946;1.5633;
457.8000;0.8995;1.5774;
458.1000;0.9068;1.5938;
458.4000;0.8987;1.5704;
458.7000;0.8946;1.5633;
459.0000;0.8995;1.5704;
459.3000;0.8954;1.5610;
459.6000;0.8970;1.5680;
459.9000;0.8978;1.5704;
460.2000;0.8978;1.5657;
460.5000;0.8978;1.5704;
460.8000;0.8962;1.5680;
461.1000;0.8954;1.5727;
461.4000;0.8978;1.5750;
461.7000;0.8970;1.5727;
462.0000;0.8987;1.5750;
462.3000;0.9003;1.5774;
462.6000;0.8987;1.5774;
462.9000;0.8970;1.5797;
463.2000;0.8987;1.5750;
463.5000;0.9003;1.5774;
463.8000;0.9125;1.6079;
464.1000;0.8987;1.5774;
464.4000;0.8970;1.5680;
464.7000;0.9035;1.5821;
465.0000;0.8930;1.5586;
465.3000;0.8946;1.5539;
465.6000;0.8970;1.5657;
465.9000;0.8987;1.5657;
466.2000;0.8970;1.5610;
466.5000;0.8970;1.5633;
466.8000;0.9011;1.5774;
467.1000;0.8970;1.5750;
467.4000;0.8995;1.5821;
467.7000;0.8987;1.5844;
468.0000;0.8987;1.5891;
468.3000;0.8995;1.5844;
468.6000;0.8970;1.5797;
468.9000;0.8987;1.5774;
469.2000;0.8987;1.5750;
469.5000;0.8987;1.5750;
469.8000;0.8938;1.5610;
470.1000;0.8978;1.5704;
470.4000;0.9003;1.5727;
470.7000;0.8978;1.5633;
471.0000;0.9035;1.5680;
471.3000;0.8987;1.5586;
471.6000;0.8970;1.5657;
471.9000;0.8987;1.5727;
472.2000;0.8970;1.5657;
472.5000;0.8978;1.5727;
472.8000;0.9003;1.5750;
473.1000;0.9011;1.5750;
473.4000;0.9003;1.5821;
473.7000;0.9003;1.5915;
474.0000;0.9027;1.5962;
474.3000;0.8995;1.5844;
474.6000;0.8978;1.5844;
474.9000;0.8978;1.5844;
475.2000;0.8978;1.5821;
475.5000;0.8962;1.5821;
475.8000;0.8978;1.5844;
476.1000;0.8995;1.5844;
476.4000;0.8987;1.5868;
476.7000;0.8987;1.5985;
477.0000;0.8995;1.6032;
477.3000;0.8970;1.5915;
477.6000;0.9003;1.5985;
477.9000;0.8970;1.5891;
478.2000;0.8954;1.5868;
478.5000;0.8978;1.5868;
478.8000;0.8970;1.5821;
479.1000;0.8962;1.5868;
479.4000;0.8987;1.5938;
479.7000;0.8978;1.5821;
480.0000;0.8970;1.5821;
480.3000;0.8970;1.5774;
480.6000;0.8962;1.5680;
480.9000;0.8962;1.5704;
481.2000;0.8995;1.5704;
481.5000;0.8970;1.5704;
481.8000;0.8954;1.5657;
482.1000;0.8962;1.5750;
482.4000;0.8962;1.5704;
482.7000;0.8987;1.5657;
483.0000;0.8978;1.5610;
483.3000;0.9003;1.5657;
483.6000;0.8970;1.5610;
483.9000;0.8978;1.5633;
484.2000;0.8978;1.5539;
484.5000;0.8930;1.5422;
484.8000;0.8970;1.5563;
485.1000;0.8978;1.5657;
485.4000;0.8970;1.5680;
485.7000;0.8978;1.5704;
486.0000;0.8954;1.5586;
486.3000;0.8978;1.5633;
486.6000;0.8946;1.5633;
486.9000;0.8970;1.5727;
487.2000;0.8962;1.5774;
487.5000;0.8962;1.5633;
487.8000;0.9035;1.5915;
488.1000;0.8970;1.5797;
488.4000;0.8978;1.5750;
488.7000;0.8995;1.5774;
489.0000;0.8995;1.5844;
489.3000;0.8962;1.5750;
489.6000;0.8970;1.5727;
489.9000;0.8987;1.5844;
490.2000;0.8970;1.5797;
490.5000;0.8987;1.5774;
490.8000;0.8962;1.5704;
491.1000;0.8987;1.5680;
491.4000;0.8978;1.5586;
491.7000;0.8978;1.5516;
492.0000;0.8978;1.5492;
492.3000;0.8962;1.5445;
492.6000;0.8970;1.5563;
492.9000;0.8962;1.5586;
493.2000;0.8970;1.5539;
493.5000;0.8987;1.5610;
493.8000;0.8978;1.5657;
494.1000;0.8978;1.5704;
494.4000;0.8962;1.5797;
494.7000;0.8970;1.5797;
495.0000;0.8987;1.5750;
495.3000;0.8987;1.5844;
495.6000;0.8978;1.5868;
495.9000;0.8962;1.5915;
496.2000;0.8978;1.6009;
496.5000;0.8978;1.5938;
496.8000;0.8970;1.5868;
497.1000;0.8962;1.5797;
497.4000;0.8970;1.5727;
497.7000;0.8954;1.5610;
498.0000;0.8987;1.5704;
498.3000;0.8970;1.5727;
498.6000;0.8978;1.5774;
498.9000;0.8962;1.5750;
499.2000;0.8987;1.5844;
499.5000;0.8970;1.5844;
499.8000;0.8970;1.5891;
500.1000;0.8978;1.5962;
500.4000;0.8987;1.5962;
500.7000;0.8970;1.5844;
501.0000;0.8987;1.5868;
501.3000;0.8970;1.5821;
501.6000;0.8962;1.5727;
501.9000;0.8978;1.5774;
502.2000;0.8987;1.5797;
502.5000;0.8978;1.5750;
502.8000;0.8954;1.5727;
503.1000;0.8987;1.5680;
503.4000;0.8962;1.5633;
503.7000;0.8962;1.5563;
504.0000;0.8970;1.5657;
504.3000;0.8970;1.5704;
504.6000;0.8978;1.5727;
504.9000;0.8962;1.5750;
505.2000;0.8987;1.5774;
505.5000;0.8978;1.5868;
505.8000;0.8995;1.6009;
506.1000;0.8970;1.5868;
506.4000;0.8978;1.5868;
506.7000;0.8954;1.5891;
507.0000;0.8962;1.5891;
507.3000;0.8970;1.5844;
507.6000;0.9003;1.5891;
507.9000;0.8970;1.5727;
508.2000;0.8970;1.5727;
508.5000;0.8921;1.5563;
508.8000;0.8962;1.5633;
509.1000;0.8978;1.5680;
509.4000;0.8962;1.5610;
509.7000;0.8978;1.5657;
510.0000;0.8970;1.5633;
510.3000;0.8987;1.5633;
510.6000;0.8987;1.5610;
510.9000;0.8970;1.5539;
511.2000;0.8962;1.5586;
511.5000;0.8987;1.5727;
511.8000;0.8962;1.5727;
512.1000;0.8954;1.5633;
512.4000;0.8970;1.5704;
512.7000;0.8970;1.5727;
513.0000;0.9052;1.5915;
513.3000;0.8970;1.5657;
513.6000;0.8962;1.5563;
513.9000;0.8978;1.5539;
514.2000;0.8962;1.5516;
514.5000;0.8978;1.5516;
514.8000;0.8962;1.5539;
515.1000;0.8970;1.5610;
515.4000;0.8970;1.5610;
515.7000;0.8978;1.5657;
516.0000;0.8978;1.5704;
516.3000;0.8970;1.5680;
516.6000;0.8978;1.5610;
516.9000;0.8978;1.5563;
517.2000;0.8987;1.5680;
517.5000;0.8987;1.5633;
517.8000;0.8978;1.5657;
518.1000;0.8978;1.5633;
518.4000;0.9060;1.5821;
518.7000;0.8978;1.5633;
519.0000;0.8978;1.5610;
519.3000;0.8954;1.5492;
519.6000;0.8897;1.5328;
519.9000;0.8970;1.5633;
520.2000;0.8954;1.5704;
520.5000;0.9019;1.5891;
520.8000;0.8962;1.5797;
521.1000;0.8970;1.5797;
521.4000;0.8987;1.5821;
521.7000;0.8978;1.5750;
522.0000;0.8970;1.5797;
522.3000;0.8978;1.5774;
522.6000;0.8987;1.5868;
522.9000;0.8987;1.5868;
523.2000;0.8978;1.5821;
523.5000;0.8987;1.5750;
523.8000;0.8987;1.5680;
524.1000;0.8987;1.5657;
524.4000;0.8962;1.5586;
524.7000;0.8970;1.5657;
525.0000;0.8970;1.5610;
525.3000;0.9027;1.5797;
525.6000;0.8946;1.5586;
525.9000;0.8946;1.5633;
526.2000;0.8970;1.5704;
526.5000;0.8978;1.5727;
526.8000;0.8889;1.5445;
527.1000;0.8978;1.5680;
527.4000;0.8987;1.5680;
527.7000;0.8970;1.5563;
528.0000;0.8995;1.5680;
528.3000;0.8970;1.5680;
528.6000;0.8995;1.5750;
528.9000;0.9019;1.5891;
529.2000;0.8987;1.5868;
529.5000;0.8970;1.5868;
529.8000;0.8905;1.5727;
530.1000;0.8987;1.5821;
530.4000;0.8962;1.5844;
530.7000;0.8962;1.5915;
531.0000;0.8946;1.5797;
531.3000;0.8995;1.5844;
531.6000;0.8978;1.5750;
531.9000;0.8962;1.5657;
532.2000;0.8970;1.5657;
532.5000;0.8987;1.5680;
532.8000;0.8987;1.5657;
533.1000;0.8954;1.5563;
533.4000;0.8970;1.5657;
533.7000;0.8962;1.5633;
534.0000;0.8978;1.5727;
534.3000;0.9003;1.5774;
534.6000;0.8970;1.5727;
534.9000;0.9060;1.5868;
535.2000;0.8970;1.5704;
535.5000;0.8962;1.5539;
535.8000;0.8962;1.5586;
536.1000;0.8962;1.5657;
536.4000;0.8962;1.5657;
536.7000;0.8995;1.5727;
537.0000;0.8913;1.5445;
537.3000;0.8970;1.5704;
537.6000;0.8978;1.5727;
537.9000;0.8970;1.5727;
538.2000;0.8995;1.5774;
538.5000;0.8987;1.5821;
538.8000;0.8995;1.5891;
539.1000;0.8995;1.5868;
539.4000;0.8978;1.5868;
539.7000;0.8995;1.5891;
540.0000;0.8987;1.5844;
540.3000;0.8970;1.5844;
540.6000;0.8970;1.5844;
540.9000;0.8978;1.5821;
541.2000;0.8946;1.5774;
541.5000;0.8962;1.5868;
541.8000;0.8970;1.5868;
542.1000;0.8938;1.5868;
542.4000;0.8995;1.5962;
542.7000;0.8970;1.5962;
543.0000;0.8987;1.5915;
543.3000;0.8987;1.5868;
543.6000;0.8987;1.5868;
543.9000;0.8970;1.5774;
544.2000;0.8970;1.5774;
544.5000;0.9027;1.5891;
544.8000;0.8987;1.5797;
545.1000;0.8946;1.5727;
545.4000;0.8864;1.5422;
545.7000;0.8978;1.5610;
546.0000;0.8938;1.5586;
546.3000;0.8978;1.5680;
546.6000;0.8946;1.5610;
546.9000;0.8970;1.5844;
547.2000;0.8978;1.5915;
547.5000;0.8970;1.5962;
547.8000;0.8962;1.6009;
548.1000;0.8970;1.6032;
548.4000;0.8978;1.5985;
548.7000;0.8970;1.5868;
549.0000;0.8962;1.5750;
549.3000;0.8921;1.5586;
549.6000;0.8995;1.5821;
549.9000;0.9052;1.6009;
550.2000;0.8978;1.5750;
550.5000;0.8962;1.5821;
550.8000;0.8978;1.5821;
551.1000;0.9027;1.5891;
551.4000;0.8978;1.5704;
551.7000;0.8978;1.5633;
552.0000;0.8987;1.5586;
552.3000;0.8978;1.5633;
552.6000;0.8970;1.5586;
552.9000;0.8978;1.5610;
553.2000;0.9035;1.5727;
553.5000;0.8978;1.5563;
553.8000;0.9011;1.5680;
554.1000;0.8946;1.5563;
554.4000;0.8946;1.5563;
554.7000;0.8978;1.5586;
555.0000;0.8970;1.5516;
555.3000;0.8978;1.5563;
555.6000;0.8987;1.5657;
555.9000;0.8978;1.5563;
556.2000;0.8987;1.5492;
556.5000;0.8873;1.5304;
556.8000;0.8954;1.5516;
557.1000;0.8921;1.5351;
557.4000;0.8995;1.5633;
557.7000;0.8987;1.5680;
558.0000;0.8962;1.5657;
558.3000;0.8978;1.5633;
558.6000;0.8987;1.5657;
558.9000;0.8962;1.5633;
559.2000;0.8938;1.5539;
559.5000;0.8978;1.5586;
559.8000;0.8921;1.5469;
560.1000;0.8978;1.5516;
560.4000;0.8978;1.5539;
560.7000;0.9019;1.5633;
561.0000;0.9011;1.5610;
561.3000;0.8978;1.5563;
561.6000;0.8987;1.5586;
561.9000;0.9084;1.5938;
562.2000;0.8978;1.5680;
562.5000;0.8970;1.5469;
562.8000;0.8987;1.5492;
563.1000;0.8970;1.5492;
563.4000;0.8962;1.5445;
563.7000;0.8970;1.5469;
564.0000;0.8978;1.5398;
564.3000;0.8938;1.5281;
564.6000;0.8978;1.5375;
564.9000;0.8970;1.5398;
565.2000;0.8938;1.5375;
565.5000;0.8978;1.5563;
565.8000;0.8962;1.5539;
566.1000;0.9019;1.5633;
566.4000;0.8987;1.5563;
566.7000;0.8938;1.5586;
567.0000;0.8954;1.5704;
567.3000;0.8987;1.5821;
567.6000;0.8978;1.5797;
567.9000;0.8970;1.5774;
568.2000;0.8970;1.5821;
568.5000;0.8962;1.5797;
568.8000;0.8978;1.5727;
569.1000;0.8978;1.5727;
569.4000;0.8889;1.5586;
569.7000;0.8978;1.5797;
570.0000;0.8978;1.5750;
570.3000;0.9027;1.5797;
570.6000;0.8970;1.5704;
570.9000;0.8954;1.5633;
571.2000;0.8970;1.5680;
571.5000;0.8954;1.5750;
571.8000;0.8962;1.5774;
572.1000;0.8954;1.5704;
572.4000;0.8954;1.5657;
572.7000;0.9027;1.5844;
573.0000;0.8954;1.5657;
573.3000;0.8978;1.5704;
573.6000;0.8946;1.5586;
573.9000;0.8978;1.5657;
574.2000;0.8946;1.5516;
574.5000;0.8946;1.5492;
574.8000;0.8954;1.5586;
575.1000;0.8946;1.5586;
575.4000;0.8962;1.5633;
575.7000;0.8987;1.5610;
576.0000;0.8962;1.5610;
576.3000;0.8987;1.5750;
576.6000;0.8938;1.5727;
576.9000;0.9003;1.5821;
577.2000;0.8913;1.5657;
577.5000;0.8970;1.5774;
577.8000;0.8954;1.5633;
578.1000;0.8962;1.5680;
578.4000;0.8938;1.5680;
578.7000;0.8946;1.5797;
579.0000;0.8970;1.5797;
579.3000;0.8978;1.5797;
579.6000;0.8930;1.5727;
579.9000;0.8897;1.5657;
580.2000;0.8946;1.5657;
580.5000;0.8954;1.5680;
580.8000;0.8954;1.5657;
581.1000;0.8946;1.5633;
581.4000;0.8962;1.5633;
581.7000;0.8962;1.5680;
582.0000;0.8970;1.5704;
582.3000;0.9011;1.5821;
582.6000;0.8921;1.5704;
582.9000;0.8987;1.5938;
583.2000;0.8995;1.5962;
583.5000;0.8978;1.5938;
583.8000;0.8962;1.5844;
584.1000;0.8962;1.5915;
584.4000;0.8962;1.5938;
584.7000;0.8978;1.5985;
585.0000;0.8954;1.5915;
585.3000;0.8946;1.5915;
585.6000;0.8962;1.5891;
585.9000;0.9003;1.6032;
586.2000;0.9068;1.6150;
586.5000;0.8946;1.5915;
586.8000;0.8978;1.5938;
587.1000;0.8954;1.5844;
587.4000;0.8962;1.5774;
587.7000;0.8970;1.5774;
588.0000;0.8987;1.5821;
588.3000;0.8962;1.5797;
588.6000;0.8954;1.5844;
588.9000;0.8954;1.5868;
589.2000;0.8970;1.5915;
589.5000;0.8954;1.5868;
589.8000;0.8954;1.5844;
590.1000;0.8921;1.5821;
590.4000;0.8970;1.5938;
590.7000;0.8954;1.6009;
591.0000;0.8954;1.5915;
591.3000;0.8946;1.5868;
591.6000;0.8962;1.5962;
591.9000;0.8954;1.5891;
592.2000;0.8954;1.5938;
592.5000;0.8954;1.5891;
592.8000;0.8962;1.5938;
593.1000;0.8962;1.5938;
593.4000;0.9011;1.6032;
593.7000;0.8962;1.5915;
594.0000;0.8954;1.5891;
594.3000;0.8954;1.5915;
594.6000;0.8970;1.5962;
594.9000;0.8962;1.5915;
595.2000;0.8970;1.5962;
595.5000;0.8962;1.5891;
595.8000;0.8954;1.5891;
596.1000;0.8978;1.5938;
596.4000;0.8970;1.5891;
596.7000;0.8962;1.5915;
597.0000;0.8987;1.5985;
597.3000;0.8962;1.5985;
597.6000;0.8978;1.6056;
597.9000;0.8978;1.6032;
598.2000;0.8978;1.6079;
598.5000;0.8978;1.6103;
598.8000;0.8970;1.6196;
599.1000;0.8978;1.6220;
599.4000;0.8946;1.6103;
599.7000;0.8954;1.6103;
600.0000;0.8946;1.6126;
600.3000;0.8978;1.5985;
600.6000;0.9044;1.5962;
600.9000;0.8978;1.5633;
601.2000;0.8946;1.5492;
601.5000;0.8889;1.5234;
601.8000;0.8921;1.5140;
602.1000;0.8783;1.4812;
602.4000;0.8734;1.4647;
602.7000;0.8677;1.4577;
603.0000;0.8620;1.4483;
603.3000;0.8539;1.4295;
603.6000;0.8514;1.4225;
603.9000;0.8441;1.4107;
604.2000;0.8409;1.3967;
604.5000;0.8400;1.3967;
604.8000;0.8319;1.3826;
605.1000;0.8287;1.3849;
605.4000;0.8238;1.3685;
605.7000;0.8221;1.3685;
606.0000;0.8181;1.3661;
606.3000;0.8140;1.3661;
606.6000;0.8124;1.3661;
606.9000;0.8083;1.3567;
607.2000;0.8018;1.3427;
607.5000;0.8010;1.3427;
607.8000;0.7896;1.3168;
608.1000;0.7814;1.2957;
608.4000;0.7928;1.3215;
608.7000;0.7912;1.3309;
609.0000;0.7871;1.3309;
609.3000;0.7839;1.3309;
609.6000;0.7823;1.3309;
609.9000;0.7806;1.3333;
610.2000;0.7774;1.3309;
610.5000;0.7741;1.3262;
610.8000;0.7709;1.3121;
611.1000;0.7676;1.3121;
611.4000;0.7790;1.3450;
611.7000;0.7643;1.3121;
612.0000;0.7586;1.3075;
612.3000;0.7586;1.3121;
612.6000;0.7578;1.3145;
612.9000;0.7562;1.3121;
613.2000;0.7530;1.3145;
613.5000;0.7505;1.3192;
613.8000;0.7497;1.3262;
614.1000;0.7473;1.3145;
614.4000;0.7546;1.3356;
614.7000;0.7440;1.3145;
615.0000;0.7416;1.3098;
615.3000;0.7391;1.3121;
615.6000;0.7391;1.3121;
615.9000;0.7383;1.3168;
616.2000;0.7342;1.3145;
616.5000;0.7220;1.2934;
616.8000;0.7285;1.3121;
617.1000;0.7302;1.3145;
617.4000;0.7277;1.3075;
617.7000;0.7245;1.3051;
618.0000;0.7245;1.3004;
618.3000;0.7285;1.3098;
618.6000;0.7236;1.3075;
618.9000;0.7212;1.3145;
619.2000;0.7188;1.3168;
619.5000;0.7171;1.3192;
619.8000;0.7163;1.3215;
620.1000;0.7261;1.3403;
620.4000;0.7139;1.3098;
620.7000;0.7123;1.3121;
621.0000;0.7082;1.3098;
621.3000;0.7090;1.3098;
621.6000;0.7074;1.3075;
621.9000;0.7017;1.2934;
622.2000;0.7033;1.2981;
622.5000;0.7017;1.3004;
622.8000;0.7009;1.2981;
623.1000;0.7017;1.2957;
623.4000;0.6976;1.2887;
623.7000;0.6960;1.2863;
624.0000;0.6968;1.2863;
624.3000;0.6943;1.2793;
624.6000;0.6927;1.2769;
624.9000;0.6927;1.2934;
625.2000;0.6919;1.2957;
625.5000;0.6895;1.3051;
625.8000;0.6911;1.2981;
626.1000;0.6878;1.2910;
626.4000;0.6862;1.2887;
626.7000;0.6886;1.3098;
627.0000;0.6870;1.2957;
627.3000;0.6829;1.2887;
627.6000;0.6854;1.2957;
627.9000;0.6797;1.2957;
628.2000;0.6797;1.2934;
628.5000;0.6797;1.3004;
628.8000;0.6772;1.2887;
629.1000;0.6764;1.2793;
629.4000;0.6781;1.2863;
629.7000;0.6756;1.2722;
630.0000;0.6756;1.2605;
630.3000;0.6781;1.2652;
630.6000;0.6724;1.2441;
630.9000;0.6716;1.2417;
631.2000;0.6691;1.2488;
631.5000;0.6691;1.2558;
631.8000;0.6789;1.2887;
632.1000;0.6683;1.2746;
632.4000;0.6675;1.2816;
632.7000;0.6650;1.2863;
633.0000;0.6650;1.2863;
633.3000;0.6642;1.2887;
633.6000;0.6626;1.2887;
633.9000;0.6618;1.2957;
634.2000;0.6602;1.2887;
634.5000;0.6618;1.2863;
634.8000;0.6602;1.2722;
635.1000;0.6577;1.2675;
635.4000;0.6471;1.2417;
635.7000;0.6577;1.2675;
636.0000;0.6561;1.2652;
636.3000;0.6569;1.2675;
636.6000;0.6553;1.2652;
636.9000;0.6553;1.2675;
637.2000;0.6561;1.2675;
637.5000;0.6536;1.2652;
637.8000;0.6618;1.2863;
638.1000;0.6496;1.2558;
638.4000;0.6569;1.2769;
638.7000;0.6504;1.2605;
639.0000;0.6471;1.2488;
639.3000;0.6463;1.2582;
639.6000;0.6479;1.2675;
639.9000;0.6471;1.2652;
640.2000;0.6431;1.2605;
640.5000;0.6431;1.2675;
640.8000;0.6431;1.2675;
641.1000;0.6374;1.2605;
641.4000;0.6471;1.2957;
641.7000;0.6414;1.2934;
642.0000;0.6406;1.2863;
642.3000;0.6406;1.2887;
642.6000;0.6398;1.2816;
642.9000;0.6439;1.2934;
643.2000;0.6398;1.2840;
643.5000;0.6382;1.2722;
643.8000;0.6382;1.2699;
644.1000;0.6390;1.2746;
644.4000;0.6374;1.2746;
644.7000;0.6357;1.2793;
645.0000;0.6309;1.2629;
645.3000;0.6357;1.2793;
645.6000;0.6341;1.2746;
645.9000;0.6317;1.2675;
646.2000;0.6341;1.2793;
646.5000;0.6341;1.2840;
646.8000;0.6325;1.2840;
647.1000;0.6317;1.2863;
647.4000;0.6309;1.2840;
647.7000;0.6317;1.2769;
648.0000;0.6292;1.2769;
648.3000;0.6276;1.2699;
648.6000;0.6284;1.2746;
648.9000;0.6276;1.2746;
649.2000;0.6276;1.2793;
649.5000;0.6260;1.2840;
649.8000;0.6252;1.2910;
650.1000;0.6252;1.2934;
650.4000;0.6252;1.2863;
650.7000;0.6243;1.2769;
651.0000;0.6138;1.2417;
651.3000;0.6243;1.2722;
651.6000;0.6227;1.2699;
651.9000;0.6284;1.2910;
652.2000;0.6227;1.2793;
652.5000;0.6219;1.2769;
652.8000;0.6260;1.2887;
653.1000;0.6195;1.2722;
653.4000;0.6203;1.2793;
653.7000;0.6203;1.2793;
654.0000;0.6203;1.2699;
654.3000;0.6211;1.2793;
654.6000;0.6178;1.2769;
654.9000;0.6203;1.2793;
655.2000;0.6186;1.2816;
655.5000;0.6178;1.2769;
655.8000;0.6203;1.2722;
656.1000;0.6146;1.2699;
656.4000;0.6154;1.2722;
656.7000;0.6154;1.2699;
657.0000;0.6146;1.2652;
657.3000;0.6129;1.2722;
657.6000;0.6154;1.2816;
657.9000;0.6146;1.2957;
658.2000;0.6129;1.2934;
658.5000;0.6105;1.2863;
658.8000;0.6105;1.2816;
659.1000;0.6146;1.2910;
659.4000;0.6138;1.2793;
659.7000;0.6113;1.2769;
660.0000;0.6113;1.2746;
660.3000;0.6089;1.2722;
660.6000;0.6113;1.2769;
660.9000;0.6121;1.2793;
661.2000;0.6015;1.2605;
661.5000;0.6089;1.2746;
661.8000;0.6072;1.2722;
662.1000;0.6048;1.2699;
662.4000;0.6081;1.2722;
662.7000;0.6097;1.2746;
663.0000;0.6032;1.2652;
663.3000;0.6056;1.2746;
663.6000;0.6056;1.2699;
663.9000;0.6064;1.2746;
664.2000;0.6048;1.2722;
664.5000;0.6056;1.2675;
664.8000;0.6048;1.2699;
665.1000;0.6032;1.2699;
665.4000;0.6056;1.2746;
665.7000;0.6040;1.2699;
666.0000;0.6032;1.2722;
666.3000;0.6032;1.2675;
666.6000;0.6024;1.2675;
666.9000;0.6024;1.2746;
667.2000;0.6072;1.2957;
667.5000;0.6040;1.2863;
667.8000;0.6032;1.2793;
668.1000;0.6032;1.2863;
668.4000;0.5934;1.2652;
668.7000;0.6024;1.2910;
669.0000;0.6048;1.2863;
669.3000;0.6129;1.3051;
669.6000;0.6015;1.2793;
669.9000;0.6032;1.2793;
670.2000;0.6007;1.2840;
670.5000;0.6007;1.2722;
670.8000;0.5999;1.2699;
671.1000;0.5991;1.2699;
671.4000;0.5991;1.2605;
671.7000;0.5975;1.2582;
672.0000;0.5983;1.2605;
672.3000;0.5942;1.2582;
672.6000;0.5975;1.2558;
672.9000;0.5967;1.2582;
673.2000;0.5958;1.2558;
673.5000;0.5958;1.2605;
673.8000;0.5975;1.2652;
674.1000;0.5893;1.2535;
674.4000;0.5950;1.2629;
674.7000;0.5942;1.2558;
675.0000;0.5918;1.2511;
675.3000;0.5958;1.2722;
675.6000;0.5950;1.2675;
675.9000;0.5950;1.2699;
676.2000;0.5934;1.2652;
676.5000;0.5950;1.2629;
676.8000;0.5934;1.2699;
677.1000;0.5950;1.2793;
677.4000;0.5942;1.2746;
677.7000;0.5918;1.2652;
678.0000;0.5942;1.2722;
678.3000;0.5926;1.2675;
678.6000;0.5902;1.2675;
678.9000;0.5910;1.2629;
679.2000;0.5918;1.2675;
679.5000;0.5893;1.2652;
679.8000;0.5934;1.2722;
680.1000;0.5902;1.2699;
680.4000;0.5926;1.2769;
680.7000;0.5918;1.2816;
681.0000;0.5893;1.2699;
681.3000;0.5910;1.2699;
681.6000;0.5910;1.2722;
681.9000;0.5910;1.2699;
682.2000;0.5918;1.2699;
682.5000;0.5885;1.2675;
682.8000;0.5902;1.2675;
683.1000;0.5918;1.2629;
683.4000;0.5877;1.2558;
683.7000;0.5893;1.2629;
684.0000;0.5885;1.2582;
684.3000;0.5885;1.2652;
684.6000;0.5877;1.2699;
684.9000;0.5877;1.2629;
685.2000;0.5885;1.2605;
685.5000;0.5877;1.2558;
685.8000;0.5861;1.2488;
686.1000;0.5877;1.2511;
686.4000;0.5877;1.2535;
686.7000;0.5861;1.2464;
687.0000;0.5869;1.2535;
687.3000;0.5861;1.2441;
687.6000;0.5861;1.2464;
687.9000;0.5861;1.2488;
688.2000;0.5853;1.2488;
688.5000;0.5845;1.2417;
688.8000;0.5845;1.2464;
689.1000;0.5861;1.2511;
689.4000;0.5853;1.2511;
689.7000;0.5836;1.2511;
690.0000;0.5845;1.2629;
690.3000;0.5845;1.2605;
690.6000;0.5934;1.2793;
690.9000;0.5877;1.2629;
691.2000;0.5885;1.2675;
691.5000;0.5845;1.2582;
691.8000;0.5820;1.2464;
692.1000;0.5828;1.2464;
692.4000;0.5845;1.2535;
692.7000;0.5836;1.2558;
693.0000;0.5836;1.2605;
693.3000;0.5820;1.2629;
693.6000;0.5796;1.2605;
693.9000;0.5845;1.2746;
694.2000;0.5820;1.2629;
694.5000;0.5836;1.2582;
694.8000;0.5812;1.2464;
695.1000;0.5828;1.2535;
695.4000;0.5828;1.2535;
695.7000;0.5804;1.2441;
696.0000;0.5804;1.2511;
696.3000;0.5820;1.2511;
696.6000;0.5771;1.2464;
696.9000;0.5812;1.2582;
697.2000;0.5788;1.2558;
697.5000;0.5796;1.2652;
697.8000;0.5796;1.2675;
698.1000;0.5820;1.2816;
698.4000;0.5796;1.2769;
698.7000;0.5877;1.2981;
699.0000;0.5788;1.2863;
699.3000;0.5796;1.2981;
699.6000;0.5804;1.2934;
699.9000;0.5788;1.3028;
700.2000;0.5796;1.3051;
700.5000;0.5812;1.3075;
700.8000;0.5820;1.3051;
701.1000;0.5796;1.3004;
701.4000;0.5771;1.2957;
701.7000;0.5796;1.2934;
702.0000;0.5796;1.2910;
702.3000;0.5804;1.2910;
702.6000;0.5771;1.2816;
702.9000;0.5779;1.2840;
703.2000;0.5779;1.2793;
703.5000;0.5788;1.2769;
703.8000;0.5763;1.2722;
704.1000;0.5771;1.2746;
704.4000;0.5788;1.2793;
704.7000;0.5779;1.2863;
705.0000;0.5771;1.2887;
705.3000;0.5763;1.2816;
705.6000;0.5755;1.2769;
705.9000;0.5771;1.2840;
706.2000;0.5722;1.2722;
706.5000;0.5731;1.2722;
706.8000;0.5771;1.2769;
707.1000;0.5771;1.2769;
707.4000;0.5763;1.2746;
707.7000;0.5755;1.2722;
708.0000;0.5763;1.2769;
708.3000;0.5747;1.2746;
708.6000;0.5714;1.2746;
708.9000;0.5747;1.2887;
709.2000;0.5755;1.2934;
709.5000;0.5763;1.2910;
709.8000;0.5731;1.2981;
710.1000;0.5739;1.3028;
710.4000;0.5804;1.3098;
710.7000;0.5747;1.2981;
711.0000;0.5722;1.3075;
711.3000;0.5722;1.3028;
711.6000;0.5714;1.3028;
711.9000;0.5755;1.3051;
712.2000;0.5706;1.2981;
712.5000;0.5722;1.3051;
712.8000;0.5747;1.3051;
713.1000;0.5763;1.3098;
713.4000;0.5788;1.3098;
713.7000;0.5747;1.3028;
714.0000;0.5796;1.3121;
714.3000;0.5755;1.3098;
714.6000;0.5747;1.3051;
714.9000;0.5739;1.3004;
715.2000;0.5682;1.2863;
715.5000;0.5731;1.2934;
715.8000;0.5722;1.2910;
716.1000;0.5755;1.2934;
716.4000;0.5796;1.3028;
716.7000;0.5828;1.3075;
717.0000;0.5731;1.2887;
717.3000;0.5722;1.2910;
717.6000;0.5739;1.2863;
717.9000;0.5731;1.2840;
718.2000;0.5722;1.2816;
718.5000;0.5739;1.2934;
718.8000;0.5731;1.2910;
719.1000;0.5698;1.2793;
719.4000;0.5706;1.2793;
719.7000;0.5820;1.3075;
720.0000;0.5755;1.2957;
720.3000;0.5698;1.2887;
720.6000;0.5722;1.2863;
720.9000;0.5690;1.2769;
721.2000;0.5690;1.2816;
721.5000;0.5698;1.2910;
721.8000;0.5698;1.2863;
722.1000;0.5722;1.2793;
722.4000;0.5722;1.2816;
722.7000;0.5714;1.2840;
723.0000;0.5706;1.2910;
723.3000;0.5698;1.2887;
723.6000;0.5731;1.2934;
723.9000;0.5714;1.2863;
724.2000;0.5633;1.2652;
724.5000;0.5698;1.2793;
724.8000;0.5698;1.2793;
725.1000;0.5706;1.2816;
725.4000;0.5706;1.2769;
725.7000;0.5714;1.2769;
726.0000;0.5828;1.3192;
726.3000;0.5674;1.2840;
726.6000;0.5690;1.2863;
726.9000;0.5690;1.2816;
727.2000;0.5698;1.2793;
727.5000;0.5690;1.2793;
727.8000;0.5714;1.2934;
728.1000;0.5690;1.2863;
728.4000;0.5698;1.2887;
728.7000;0.5690;1.2887;
729.0000;0.5690;1.2957;
729.3000;0.5698;1.3004;
729.6000;0.5698;1.2910;
729.9000;0.5698;1.2981;
730.2000;0.5722;1.3051;
730.5000;0.5747;1.3121;
730.8000;0.5690;1.2957;
731.1000;0.5690;1.2957;
731.4000;0.5804;1.3239;
731.7000;0.5665;1.2957;
732.0000;0.5690;1.3028;
732.3000;0.5674;1.3004;
732.6000;0.5714;1.3028;
732.9000;0.5682;1.2934;
733.2000;0.5698;1.2910;
733.5000;0.5690;1.2910;
733.8000;0.5796;1.3168;
734.1000;0.5698;1.2934;
734.4000;0.5698;1.3098;
734.7000;0.5690;1.3075;
735.0000;0.5682;1.3121;
735.3000;0.5690;1.3262;
735.6000;0.5698;1.3309;
735.9000;0.5682;1.3215;
736.2000;0.5665;1.3286;
736.5000;0.5682;1.3333;
736.8000;0.5739;1.3427;
737.1000;0.5706;1.3239;
737.4000;0.5682;1.3121;
737.7000;0.5690;1.3145;
738.0000;0.5706;1.3192;
738.3000;0.5649;1.3004;
738.6000;0.5674;1.2981;
738.9000;0.5722;1.3028;
739.2000;0.5698;1.3004;
739.5000;0.5674;1.2981;
739.8000;0.5633;1.2816;
740.1000;0.5674;1.2981;
740.4000;0.5674;1.3004;
740.7000;0.5682;1.3051;
741.0000;0.5674;1.3004;
741.3000;0.5665;1.2910;
741.6000;0.5665;1.2910;
741.9000;0.5674;1.2934;
742.2000;0.5665;1.2981;
742.5000;0.5674;1.2957;
742.8000;0.5665;1.2957;
743.1000;0.5665;1.2910;
743.4000;0.5657;1.3004;
743.7000;0.5633;1.2957;
744.0000;0.5649;1.3075;
744.3000;0.5560;1.2863;
744.6000;0.5674;1.3098;
744.9000;0.5698;1.3215;
745.2000;0.5690;1.3051;
745.5000;0.5682;1.2981;
745.8000;0.5657;1.2910;
746.1000;0.5649;1.2863;
746.4000;0.5649;1.2910;
746.7000;0.5657;1.2934;
747.0000;0.5665;1.2957;
747.3000;0.5657;1.2957;
747.6000;0.5649;1.2863;
747.9000;0.5657;1.2746;
748.2000;0.5649;1.2652;
748.5000;0.5641;1.2605;
748.8000;0.5633;1.2582;
749.1000;0.5633;1.2629;
749.4000;0.5641;1.2722;
749.7000;0.5657;1.2863;
750.0000;0.5665;1.2910;
750.3000;0.5657;1.2816;
750.6000;0.5641;1.2816;
750.9000;0.5714;1.3075;
751.2000;0.5665;1.2887;
751.5000;0.5665;1.2957;
751.8000;0.5665;1.2910;
752.1000;0.5641;1.2816;
752.4000;0.5665;1.2887;
752.7000;0.5641;1.2863;
753.0000;0.5657;1.2934;
753.3000;0.5657;1.2934;
753.6000;0.5633;1.2934;
753.9000;0.5617;1.2840;
754.2000;0.5641;1.2887;
754.5000;0.5641;1.2934;
754.8000;0.5641;1.2910;
755.1000;0.5641;1.2934;
755.4000;0.5665;1.2934;
755.7000;0.5649;1.2981;
756.0000;0.5706;1.2981;
756.3000;0.5641;1.2840;
756.6000;0.5608;1.2746;
756.9000;0.5641;1.2910;
757.2000;0.5649;1.2887;
757.5000;0.5657;1.2934;
757.8000;0.5641;1.2957;
758.1000;0.5641;1.2934;
758.4000;0.5690;1.3098;
758.7000;0.5641;1.2934;
759.0000;0.5641;1.3028;
759.3000;0.5649;1.3028;
759.6000;0.5568;1.2887;
759.9000;0.5649;1.3098;
760.2000;0.5649;1.3098;
760.5000;0.5633;1.3028;
760.8000;0.5649;1.3004;
761.1000;0.5649;1.2957;
761.4000;0.5706;1.3098;
761.7000;0.5641;1.2910;
762.0000;0.5641;1.2910;
762.3000;0.5600;1.2863;
762.6000;0.5625;1.2863;
762.9000;0.5584;1.2675;
763.2000;0.5625;1.2722;
763.5000;0.5625;1.2769;
763.8000;0.5633;1.2769;
764.1000;0.5625;1.2722;
764.4000;0.5633;1.2699;
764.7000;0.5608;1.2605;
765.0000;0.5641;1.2746;
765.3000;0.5641;1.2793;
765.6000;0.5641;1.2816;
765.9000;0.5665;1.2769;
766.2000;0.5625;1.2535;
766.5000;0.5617;1.2605;
766.8000;0.5608;1.2629;
767.1000;0.5641;1.2746;
767.4000;0.5617;1.2699;
767.7000;0.5633;1.2746;
768.0000;0.5633;1.2769;
768.3000;0.5633;1.2863;
768.6000;0.5641;1.2910;
768.9000;0.5608;1.2816;
769.2000;0.5625;1.2910;
769.5000;0.5617;1.2887;
769.8000;0.5633;1.3004;
770.1000;0.5633;1.3145;
770.4000;0.5633;1.3098;
770.7000;0.5600;1.3075;
771.0000;0.5625;1.3075;
771.3000;0.5625;1.2934;
771.6000;0.5633;1.3004;
771.9000;0.5641;1.3028;
772.2000;0.5649;1.3051;
772.5000;0.5641;1.2957;
772.8000;0.5633;1.2840;
773.1000;0.5641;1.2793;
773.4000;0.5641;1.2769;
773.7000;0.5633;1.2746;
774.0000;0.5641;1.2769;
774.3000;0.5608;1.2722;
774.6000;0.5625;1.2722;
774.9000;0.5625;1.2722;
775.2000;0.5649;1.2793;
775.5000;0.5633;1.2699;
775.8000;0.5617;1.2675;
776.1000;0.5649;1.2746;
776.4000;0.5633;1.2629;
776.7000;0.5633;1.2582;
777.0000;0.5633;1.2675;
777.3000;0.5617;1.2793;
777.6000;0.5625;1.2863;
777.9000;0.5682;1.2957;
778.2000;0.5682;1.2981;
778.5000;0.5600;1.2816;
778.8000;0.5608;1.2793;
779.1000;0.5519;1.2511;
779.4000;0.5617;1.2699;
779.7000;0.5617;1.2675;
780.0000;0.5600;1.2652;
780.3000;0.5608;1.2793;
780.6000;0.5584;1.2746;
780.9000;0.5657;1.2934;
781.2000;0.5608;1.2863;
781.5000;0.5600;1.2887;
781.8000;0.5617;1.3004;
782.1000;0.5617;1.2887;
782.4000;0.5608;1.2840;
782.7000;0.5600;1.2863;
783.0000;0.5600;1.2910;
783.3000;0.5608;1.2934;
783.6000;0.5608;1.3028;
783.9000;0.5617;1.3028;
784.2000;0.5608;1.2981;
784.5000;0.5617;1.2934;
784.8000;0.5665;1.3051;
785.1000;0.5625;1.2957;
785.4000;0.5592;1.2957;
785.7000;0.5608;1.3004;
786.0000;0.5576;1.2863;
786.3000;0.5617;1.2863;
786.6000;0.5617;1.2840;
786.9000;0.5584;1.2840;
787.2000;0.5600;1.2746;
787.5000;0.5625;1.2769;
787.8000;0.5608;1.2816;
788.1000;0.5584;1.2863;
788.4000;0.5625;1.2910;
788.7000;0.5714;1.3121;
789.0000;0.5600;1.2981;
789.3000;0.5633;1.3004;
789.6000;0.5617;1.2957;
789.9000;0.5625;1.2863;
790.2000;0.5600;1.2769;
790.5000;0.5600;1.2722;
790.8000;0.5608;1.2769;
791.1000;0.5633;1.2840;
791.4000;0.5608;1.2793;
791.7000;0.5633;1.2910;
792.0000;0.5592;1.2793;
792.3000;0.5608;1.2863;
792.6000;0.5625;1.2957;
792.9000;0.5617;1.2887;
793.2000;0.5617;1.2863;
793.5000;0.5600;1.2793;
793.8000;0.5600;1.2722;
794.1000;0.5568;1.2675;
794.4000;0.5608;1.2746;
794.7000;0.5617;1.2769;
795.0000;0.5617;1.2722;
795.3000;0.5608;1.2816;
795.6000;0.5584;1.2769;
795.9000;0.5617;1.2840;
796.2000;0.5617;1.2934;
796.5000;0.5600;1.2910;
796.8000;0.5600;1.2934;
797.1000;0.5617;1.2957;
797.4000;0.5592;1.2934;
797.7000;0.5568;1.2840;
798.0000;0.5600;1.2863;
798.3000;0.5584;1.2816;
798.6000;0.5608;1.2816;
798.9000;0.5608;1.2769;
799.2000;0.5608;1.2746;
799.5000;0.5608;1.2699;
799.8000;0.5608;1.2629;
800.1000;0.5608;1.2675;
800.4000;0.5608;1.2699;
800.7000;0.5592;1.2675;
801.0000;0.5600;1.2652;
801.3000;0.5592;1.2675;
801.6000;0.5625;1.2746;
801.9000;0.5592;1.2699;
802.2000;0.5592;1.2746;
802.5000;0.5576;1.2652;
802.8000;0.5576;1.2675;
803.1000;0.5625;1.2769;
803.4000;0.5592;1.2699;
803.7000;0.5600;1.2722;
804.0000;0.5560;1.2558;
804.3000;0.5584;1.2675;
804.6000;0.5568;1.2675;
804.9000;0.5600;1.2722;
805.2000;0.5600;1.2746;
805.5000;0.5608;1.2793;
805.8000;0.5495;1.2488;
806.1000;0.5592;1.2816;
806.4000;0.5608;1.2887;
806.7000;0.5657;1.3051;
807.0000;0.5584;1.2887;
807.3000;0.5608;1.2957;
807.6000;0.5600;1.3004;
807.9000;0.5608;1.2934;
808.2000;0.5600;1.2769;
808.5000;0.5584;1.2769;
808.8000;0.5608;1.2840;
809.1000;0.5584;1.2840;
809.4000;0.5600;1.2840;
809.7000;0.5560;1.2840;
810.0000;0.5649;1.3051;
810.3000;0.5592;1.2934;
810.6000;0.5592;1.2934;
810.9000;0.5617;1.2981;
811.2000;0.5495;1.2699;
811.5000;0.5568;1.2840;
811.8000;0.5592;1.2863;
812.1000;0.5608;1.2934;
812.4000;0.5584;1.2910;
812.7000;0.5560;1.2863;
813.0000;0.5584;1.3051;
813.3000;0.5568;1.2934;
813.6000;0.5584;1.2934;
813.9000;0.5592;1.2887;
814.2000;0.5584;1.2887;
814.5000;0.5600;1.2887;
814.8000;0.5608;1.2934;
815.1000;0.5592;1.2910;
815.4000;0.5617;1.2887;
815.7000;0.5608;1.2793;
816.0000;0.5592;1.2746;
816.3000;0.5600;1.2840;
816.6000;0.5608;1.2793;
816.9000;0.5608;1.2816;
817.2000;0.5600;1.2769;
817.5000;0.5617;1.2793;
817.8000;0.5584;1.2699;
818.1000;0.5584;1.2675;
818.4000;0.5592;1.2652;
818.7000;0.5584;1.2558;
819.0000;0.5568;1.2558;
819.3000;0.5584;1.2675;
819.6000;0.5576;1.2746;
819.9000;0.5584;1.2769;
820.2000;0.5584;1.2793;
820.5000;0.5592;1.2863;
820.8000;0.5584;1.2816;
821.1000;0.5592;1.2793;
821.4000;0.5584;1.2746;
821.7000;0.5568;1.2722;
822.0000;0.5592;1.2863;
822.3000;0.5592;1.2863;
822.6000;0.5584;1.2887;
822.9000;0.5584;1.2840;
823.2000;0.5592;1.2840;
823.5000;0.5584;1.2863;
823.8000;0.5568;1.2840;
824.1000;0.5600;1.2887;
824.4000;0.5584;1.2746;
824.7000;0.5576;1.2699;
825.0000;0.5576;1.2699;
825.3000;0.5576;1.2722;
825.6000;0.5584;1.2746;
825.9000;0.5617;1.2840;
826.2000;0.5551;1.2652;
826.5000;0.5568;1.2699;
826.8000;0.5584;1.2769;
827.1000;0.5600;1.2840;
827.4000;0.5478;1.2605;
827.7000;0.5584;1.2746;
828.0000;0.5600;1.2722;
828.3000;0.5592;1.2722;
828.6000;0.5568;1.2746;
828.9000;0.5592;1.2816;
829.2000;0.5592;1.2816;
829.5000;0.5592;1.2769;
829.8000;0.5600;1.2769;
830.1000;0.5576;1.2675;
830.4000;0.5584;1.2746;
830.7000;0.5576;1.2699;
831.0000;0.5617;1.2816;
831.3000;0.5584;1.2722;
831.6000;0.5714;1.2957;
831.9000;0.5608;1.2793;
832.2000;0.5608;1.2840;
832.5000;0.5592;1.2816;
832.8000;0.5600;1.2793;
833.1000;0.5600;1.2793;
833.4000;0.5592;1.2746;
833.7000;0.5641;1.2816;
834.0000;0.5584;1.2699;
834.3000;0.5576;1.2722;
834.6000;0.5592;1.2769;
834.9000;0.5576;1.2675;
835.2000;0.5511;1.2535;
835.5000;0.5592;1.2793;
835.8000;0.5649;1.3028;
836.1000;0.5584;1.2887;
836.4000;0.5551;1.2816;
836.7000;0.5568;1.2746;
837.0000;0.5576;1.2629;
837.3000;0.5576;1.2675;
837.6000;0.5600;1.2699;
837.9000;0.5543;1.2629;
838.2000;0.5584;1.2722;
838.5000;0.5584;1.2699;
838.8000;0.5584;1.2699;
839.1000;0.5600;1.2746;
839.4000;0.5584;1.2722;
839.7000;0.5576;1.2840;
840.0000;0.5576;1.2910;
840.3000;0.5576;1.2934;
840.6000;0.5568;1.2769;
840.9000;0.5576;1.2816;
841.2000;0.5551;1.2840;
841.5000;0.5568;1.2840;
841.8000;0.5576;1.2887;
842.1000;0.5576;1.2910;
842.4000;0.5584;1.2981;
842.7000;0.5584;1.3075;
843.0000;0.5576;1.2981;
843.3000;0.5560;1.2910;
843.6000;0.5592;1.2910;
843.9000;0.5560;1.2793;
844.2000;0.5584;1.2863;
844.5000;0.5584;1.2910;
844.8000;0.5576;1.2863;
845.1000;0.5576;1.2816;
845.4000;0.5576;1.2887;
845.7000;0.5568;1.2816;
846.0000;0.5674;1.3004;
846.3000;0.5584;1.2746;
846.6000;0.5600;1.2840;
846.9000;0.5568;1.2840;
847.2000;0.5584;1.2840;
847.5000;0.5584;1.2887;
847.8000;0.5592;1.2840;
848.1000;0.5576;1.2793;
848.4000;0.5560;1.2722;
848.7000;0.5584;1.2816;
849.0000;0.5608;1.2863;
849.3000;0.5592;1.2863;
849.6000;0.5617;1.2910;
849.9000;0.5568;1.2887;
850.2000;0.5584;1.2816;
850.5000;0.5649;1.2887;
850.8000;0.5551;1.2699;
851.1000;0.5568;1.2793;
851.4000;0.5454;1.2511;
851.7000;0.5649;1.3004;
852.0000;0.5584;1.2887;
852.3000;0.5551;1.2793;
852.6000;0.5641;1.3098;
852.9000;0.5592;1.2981;
853.2000;0.5592;1.2887;
853.5000;0.5576;1.2840;
853.8000;0.5657;1.3028;
854.1000;0.5495;1.2746;
854.4000;0.5584;1.2934;
854.7000;0.5592;1.2910;
855.0000;0.5592;1.2887;
855.3000;0.5584;1.2934;
855.6000;0.5584;1.2981;
855.9000;0.5535;1.2863;
856.2000;0.5584;1.2981;
856.5000;0.5568;1.3075;
856.8000;0.5617;1.3145;
857.1000;0.5568;1.2934;
857.4000;0.5576;1.2981;
857.7000;0.5600;1.3075;
858.0000;0.5568;1.2981;
858.3000;0.5568;1.3075;
858.6000;0.5576;1.3004;
858.9000;0.5584;1.3051;
859.2000;0.5584;1.3075;
859.5000;0.5568;1.2957;
859.8000;0.5551;1.2934;
860.1000;0.5584;1.2910;
860.4000;0.5625;1.2887;
860.7000;0.5576;1.2816;
861.0000;0.5592;1.2769;
861.3000;0.5584;1.2816;
861.6000;0.5478;1.2535;
861.9000;0.5560;1.2746;
862.2000;0.5576;1.2699;
862.5000;0.5576;1.2769;
862.8000;0.5568;1.2793;
863.1000;0.5576;1.2840;
863.4000;0.5584;1.2934;
863.7000;0.5576;1.2957;
864.0000;0.5576;1.2957;
864.3000;0.5592;1.3075;
864.6000;0.5592;1.3145;
864.9000;0.5576;1.3051;
865.2000;0.5486;1.2840;
865.5000;0.5584;1.3028;
865.8000;0.5584;1.3145;
866.1000;0.5560;1.3145;
866.4000;0.5576;1.3192;
866.7000;0.5576;1.3192;
867.0000;0.5649;1.3262;
867.3000;0.5551;1.2887;
867.6000;0.5592;1.2934;
867.9000;0.5560;1.2887;
868.2000;0.5568;1.2910;
868.5000;0.5592;1.2934;
868.8000;0.5568;1.2934;
869.1000;0.5560;1.3004;
869.4000;0.5568;1.2957;
869.7000;0.5568;1.2910;
870.0000;0.5551;1.2793;
870.3000;0.5584;1.2816;
870.6000;0.5560;1.2746;
870.9000;0.5576;1.2887;
871.2000;0.5592;1.2934;
871.5000;0.5568;1.2910;
871.8000;0.5592;1.2910;
872.1000;0.5600;1.3028;
872.4000;0.5592;1.2887;
872.7000;0.5568;1.2840;
873.0000;0.5576;1.2840;
873.3000;0.5584;1.2793;
873.6000;0.5592;1.2840;
873.9000;0.5576;1.2863;
874.2000;0.5576;1.2887;
874.5000;0.5495;1.2629;
874.8000;0.5584;1.2981;
875.1000;0.5584;1.3051;
875.4000;0.5576;1.3004;
875.7000;0.5568;1.3028;
876.0000;0.5568;1.3028;
876.3000;0.5592;1.3051;
876.6000;0.5584;1.3004;
876.9000;0.5576;1.2863;
877.2000;0.5568;1.2769;
877.5000;0.5584;1.2769;
877.8000;0.5584;1.2746;
878.1000;0.5584;1.2769;
878.4000;0.5576;1.2699;
878.7000;0.5576;1.2629;
879.0000;0.5584;1.2699;
879.3000;0.5592;1.2793;
879.6000;0.5560;1.2722;
879.9000;0.5617;1.2910;
880.2000;0.5576;1.2863;
880.5000;0.5560;1.2840;
880.8000;0.5568;1.2816;
881.1000;0.5584;1.2887;
881.4000;0.5560;1.2746;
881.7000;0.5584;1.2840;
882.0000;0.5568;1.2840;
882.3000;0.5478;1.2699;
882.6000;0.5576;1.2934;
882.9000;0.5568;1.2957;
883.2000;0.5560;1.3004;
883.5000;0.5617;1.3075;
883.8000;0.5568;1.2934;
884.1000;0.5560;1.2981;
884.4000;0.5576;1.2934;
884.7000;0.5560;1.2887;
885.0000;0.5568;1.2863;
885.3000;0.5568;1.2840;
885.6000;0.5592;1.2863;
885.9000;0.5462;1.2605;
886.2000;0.5600;1.2934;
886.5000;0.5519;1.2746;
886.8000;0.5568;1.2957;
887.1000;0.5584;1.3004;
887.4000;0.5576;1.2981;
887.7000;0.5576;1.3004;
888.0000;0.5551;1.3028;
888.3000;0.5600;1.3239;
888.6000;0.5560;1.3098;
888.9000;0.5592;1.3121;
889.2000;0.5592;1.3098;
889.5000;0.5560;1.3051;
889.8000;0.5584;1.3145;
890.1000;0.5568;1.3051;
890.4000;0.5551;1.2957;
890.7000;0.5584;1.3004;
891.0000;0.5568;1.2957;
891.3000;0.5560;1.2910;
891.6000;0.5568;1.2910;
891.9000;0.5576;1.2957;
892.2000;0.5576;1.3051;
892.5000;0.5576;1.3004;
892.8000;0.5584;1.3004;
893.1000;0.5568;1.3004;
893.4000;0.5576;1.2981;
893.7000;0.5584;1.2934;
894.0000;0.5584;1.2910;
894.3000;0.5584;1.2887;
894.6000;0.5560;1.2887;
894.9000;0.5560;1.2887;
895.2000;0.5568;1.2934;
895.5000;0.5560;1.2887;
895.8000;0.5543;1.2887;
896.1000;0.5543;1.2910;
896.4000;0.5568;1.2887;
896.7000;0.5551;1.2769;
897.0000;0.5682;1.3098;
897.3000;0.5560;1.2746;
897.6000;0.5511;1.2629;
897.9000;0.5568;1.2793;
898.2000;0.5535;1.2699;
898.5000;0.5584;1.2769;
898.8000;0.5568;1.2675;
899.1000;0.5470;1.2441;
899.4000;0.5600;1.2793;
899.7000;0.5568;1.2699;
900.0000;0.5576;1.2605;
900.3000;0.5543;1.2511;
900.6000;0.5576;1.2652;
900.9000;0.5568;1.2582;
901.2000;0.5568;1.2629;
901.5000;0.5576;1.2675;
901.8000;0.5560;1.2629;
902.1000;0.5576;1.2722;
902.4000;0.5568;1.2863;
902.7000;0.5625;1.2981;
903.0000;0.5568;1.2863;
903.3000;0.5527;1.2840;
903.6000;0.5560;1.2981;
903.9000;0.5470;1.2746;
904.2000;0.5560;1.2981;
904.5000;0.5568;1.3098;
904.8000;0.5625;1.3215;
905.1000;0.5568;1.3145;
905.4000;0.5665;1.3403;
905.7000;0.5527;1.3121;
906.0000;0.5543;1.3168;
906.3000;0.5698;1.3497;
906.6000;0.5568;1.3192;
906.9000;0.5576;1.3098;
907.2000;0.5568;1.3051;
907.5000;0.5592;1.3098;
907.8000;0.5568;1.2957;
908.1000;0.5568;1.3028;
908.4000;0.5568;1.2957;
908.7000;0.5551;1.2910;
909.0000;0.5551;1.2863;
909.3000;0.5584;1.2934;
909.6000;0.5560;1.2957;
909.9000;0.5584;1.2981;
910.2000;0.5551;1.2910;
910.5000;0.5576;1.2981;
910.8000;0.5568;1.2957;
911.1000;0.5576;1.2934;
911.4000;0.5551;1.3004;
911.7000;0.5617;1.3098;
912.0000;0.5560;1.2934;
912.3000;0.5576;1.2934;
912.6000;0.5568;1.2934;
912.9000;0.5592;1.3004;
913.2000;0.5527;1.2793;
913.5000;0.5568;1.2934;
913.8000;0.5584;1.3028;
914.1000;0.5584;1.3004;
914.4000;0.5568;1.3051;
914.7000;0.5576;1.3098;
915.0000;0.5576;1.3215;
915.3000;0.5527;1.3145;
915.6000;0.5560;1.3168;
915.9000;0.5568;1.3075;
916.2000;0.5576;1.3051;
916.5000;0.5568;1.3028;
916.8000;0.5560;1.3051;
917.1000;0.5551;1.2957;
917.4000;0.5584;1.3004;
917.7000;0.5576;1.2910;
918.0000;0.5568;1.2910;
918.3000;0.5576;1.2957;
918.6000;0.5584;1.3028;
918.9000;0.5551;1.2887;
919.2000;0.5584;1.2934;
919.5000;0.5617;1.2981;
919.8000;0.5560;1.2887;
920.1000;0.5584;1.2840;
920.4000;0.5568;1.2793;
920.7000;0.5576;1.2746;
921.0000;0.5584;1.2769;
921.3000;0.5592;1.2769;
921.6000;0.5576;1.2699;
921.9000;0.5560;1.2652;
922.2000;0.5576;1.2652;
922.5000;0.5568;1.2605;
922.8000;0.5633;1.2699;
923.1000;0.5527;1.2511;
923.4000;0.5543;1.2652;
923.7000;0.5527;1.2769;
924.0000;0.5625;1.3051;
924.3000;0.5560;1.3028;
924.6000;0.5576;1.3098;
924.9000;0.5560;1.3028;
925.2000;0.5527;1.2957;
925.5000;0.5568;1.3051;
925.8000;0.5568;1.3028;
926.1000;0.5560;1.3075;
926.4000;0.5568;1.3192;
926.7000;0.5568;1.3168;
927.0000;0.5560;1.3145;
927.3000;0.5551;1.3075;
927.6000;0.5568;1.3051;
927.9000;0.5551;1.2981;
928.2000;0.5568;1.3028;
928.5000;0.5560;1.2957;
928.8000;0.5519;1.2863;
929.1000;0.5568;1.2957;
929.4000;0.5551;1.2910;
929.7000;0.5551;1.2863;
930.0000;0.5568;1.2887;
930.3000;0.5625;1.3051;
930.6000;0.5568;1.2769;
930.9000;0.5641;1.2887;
931.2000;0.5560;1.2722;
931.5000;0.5576;1.2699;
931.8000;0.5576;1.2722;
932.1000;0.5551;1.2793;
932.4000;0.5560;1.2840;
932.7000;0.5576;1.2887;
933.0000;0.5551;1.2793;
933.3000;0.5576;1.2840;
933.6000;0.5560;1.2793;
933.9000;0.5560;1.2887;
934.2000;0.5568;1.2981;
934.5000;0.5576;1.3028;
934.8000;0.5568;1.2957;
935.1000;0.5568;1.2934;
935.4000;0.5568;1.2934;
935.7000;0.5560;1.2910;
936.0000;0.5462;1.2699;
936.3000;0.5551;1.2840;
936.6000;0.5576;1.2863;
936.9000;0.5568;1.2840;
937.2000;0.5576;1.2957;
937.5000;0.5543;1.2863;
937.8000;0.5560;1.2934;
938.1000;0.5568;1.2957;
938.4000;0.5568;1.2887;
938.7000;0.5535;1.2722;
939.0000;0.5543;1.2769;
939.3000;0.5560;1.2863;
939.6000;0.5560;1.2816;
939.9000;0.5560;1.2863;
940.2000;0.5543;1.2840;
940.5000;0.5551;1.2957;
940.8000;0.5584;1.2981;
941.1000;0.5535;1.2840;
941.4000;0.5592;1.2910;
941.7000;0.5584;1.2840;
942.0000;0.5584;1.2840;
942.3000;0.5560;1.2816;
942.6000;0.5551;1.2816;
942.9000;0.5576;1.2793;
943.2000;0.5495;1.2722;
943.5000;0.5584;1.2957;
943.8000;0.5543;1.2793;
944.1000;0.5543;1.2746;
944.4000;0.5543;1.2722;
944.7000;0.5560;1.2793;
945.0000;0.5576;1.2887;
945.3000;0.5641;1.3075;
945.6000;0.5568;1.2981;
945.9000;0.5576;1.2934;
946.2000;0.5568;1.2840;
946.5000;0.5543;1.2793;
946.8000;0.5568;1.2793;
947.1000;0.5584;1.2816;
947.4000;0.5576;1.2722;
947.7000;0.5543;1.2629;
948.0000;0.5568;1.2605;
948.3000;0.5568;1.2558;
948.6000;0.5576;1.2675;
948.9000;0.5584;1.2769;
949.2000;0.5568;1.2699;
949.5000;0.5568;1.2722;
949.8000;0.5568;1.2699;
950.1000;0.5568;1.2746;
950.4000;0.5568;1.2793;
950.7000;0.5535;1.2793;
951.0000;0.5576;1.2934;
951.3000;0.5560;1.2863;
951.6000;0.5551;1.2746;
951.9000;0.5568;1.2816;
952.2000;0.5560;1.2793;
952.5000;0.5560;1.2769;
952.8000;0.5478;1.2558;
953.1000;0.5551;1.2816;
953.4000;0.5543;1.2793;
953.7000;0.5576;1.2793;
954.0000;0.5551;1.2746;
954.3000;0.5543;1.2746;
954.6000;0.5551;1.2769;
954.9000;0.5551;1.2769;
955.2000;0.5543;1.2769;
955.5000;0.5560;1.2840;
955.8000;0.5560;1.2793;
956.1000;0.5560;1.2793;
956.4000;0.5592;1.2863;
956.7000;0.5551;1.2816;
957.0000;0.5551;1.2793;
957.3000;0.5560;1.2746;
957.6000;0.5584;1.2793;
957.9000;0.5551;1.2722;
958.2000;0.5568;1.2816;
958.5000;0.5568;1.2746;
958.8000;0.5576;1.2816;
959.1000;0.5568;1.2793;
959.4000;0.5560;1.2769;
959.7000;0.5560;1.2816;
960.0000;0.5551;1.2840;
960.3000;0.5551;1.2887;
960.6000;0.5568;1.2981;
960.9000;0.5560;1.2863;
961.2000;0.5551;1.2793;
961.5000;0.5568;1.2746;
961.8000;0.5576;1.2840;
962.1000;0.5560;1.2840;
962.4000;0.5543;1.2816;
962.7000;0.5551;1.2816;
963.0000;0.5568;1.2887;
963.3000;0.5560;1.2910;
963.6000;0.5568;1.2957;
963.9000;0.5560;1.2934;
964.2000;0.5576;1.2934;
964.5000;0.5551;1.2863;
964.8000;0.5535;1.2793;
965.1000;0.5543;1.2840;
965.4000;0.5543;1.2769;
965.7000;0.5560;1.2746;
966.0000;0.5543;1.2675;
966.3000;0.5576;1.2699;
966.6000;0.5527;1.2699;
966.9000;0.5560;1.2793;
967.2000;0.5543;1.2793;
967.5000;0.5511;1.2699;
967.8000;0.5568;1.2910;
968.1000;0.5560;1.2910;
968.4000;0.5519;1.2887;
968.7000;0.5560;1.2981;
969.0000;0.5551;1.2957;
969.3000;0.5592;1.2981;
969.6000;0.5551;1.2840;
969.9000;0.5543;1.2816;
970.2000;0.5584;1.2816;
970.5000;0.5560;1.2793;
970.8000;0.5568;1.2957;
971.1000;0.5560;1.2934;
971.4000;0.5641;1.3075;
971.7000;0.5462;1.2675;
972.0000;0.5560;1.2863;
972.3000;0.5543;1.2887;
972.6000;0.5568;1.2957;
972.9000;0.5560;1.2957;
973.2000;0.5560;1.3051;
973.5000;0.5617;1.3192;
973.8000;0.5495;1.2934;
974.1000;0.5551;1.3028;
974.4000;0.5560;1.3004;
974.7000;0.5551;1.2981;
975.0000;0.5551;1.2910;
975.3000;0.5438;1.2652;
975.6000;0.5576;1.2957;
975.9000;0.5560;1.2840;
976.2000;0.5560;1.2840;
976.5000;0.5551;1.2816;
976.8000;0.5625;1.3028;
977.1000;0.5568;1.2910;
977.4000;0.5535;1.2816;
977.7000;0.5568;1.2887;
978.0000;0.5584;1.2863;
978.3000;0.5576;1.2934;
978.6000;0.5560;1.2934;
978.9000;0.5543;1.2887;
979.2000;0.5584;1.2934;
979.5000;0.5568;1.2981;
979.8000;0.5568;1.3004;
980.1000;0.5576;1.3028;
980.4000;0.5576;1.3004;
980.7000;0.5560;1.2887;
981.0000;0.5568;1.2769;
981.3000;0.5551;1.2699;
981.6000;0.5560;1.2699;
981.9000;0.5551;1.2675;
982.2000;0.5568;1.2675;
982.5000;0.5560;1.2769;
982.8000;0.5584;1.2793;
983.1000;0.5568;1.2793;
983.4000;0.5584;1.2863;
983.7000;0.5568;1.2840;
984.0000;0.5568;1.2840;
984.3000;0.5560;1.2793;
984.6000;0.5592;1.2910;
984.9000;0.5560;1.2910;
985.2000;0.5560;1.2887;
985.5000;0.5568;1.2957;
985.8000;0.5576;1.2934;
986.1000;0.5568;1.2887;
986.4000;0.5560;1.2887;
986.7000;0.5560;1.2769;
987.0000;0.5568;1.2816;
987.3000;0.5576;1.2934;
987.6000;0.5576;1.2957;
987.9000;0.5560;1.2910;
988.2000;0.5576;1.2910;
988.5000;0.5560;1.2793;
988.8000;0.5543;1.2769;
989.1000;0.5568;1.2722;
989.4000;0.5568;1.2722;
989.7000;0.5551;1.2746;
990.0000;0.5568;1.2722;
990.3000;0.5560;1.2746;
990.6000;0.5568;1.2722;
990.9000;0.5551;1.2769;
991.2000;0.5576;1.2769;
991.5000;0.5592;1.2746;
991.8000;0.5527;1.2582;
992.1000;0.5560;1.2699;
992.4000;0.5617;1.2887;
992.7000;0.5576;1.2816;
993.0000;0.5576;1.2863;
993.3000;0.5551;1.2840;
993.6000;0.5568;1.2816;
993.9000;0.5568;1.2840;
994.2000;0.5551;1.2840;
994.5000;0.5560;1.2793;
994.8000;0.5551;1.2769;
995.1000;0.5560;1.2816;
995.4000;0.5560;1.2769;
995.7000;0.5560;1.2816;
996.0000;0.5543;1.2910;
996.3000;0.5551;1.2957;
996.6000;0.5543;1.2910;
996.9000;0.5560;1.2887;
997.2000;0.5568;1.2934;
997.5000;0.5560;1.2910;
997.8000;0.5568;1.2910;
998.1000;0.5617;1.3145;
998.4000;0.5551;1.2910;
998.7000;0.5543;1.2840;
999.0000;0.5560;1.2957;
999.3000;0.5551;1.2863;
999.6000;0.5568;1.2816;
999.9000;0.5584;1.2934;
1000.2000;0.5568;1.2887;
1000.5000;0.5576;1.2863;
1000.8000;0.5535;1.2769;
1001.1000;0.5560;1.2793;
1001.4000;0.5576;1.2840;
1001.7000;0.5592;1.2840;
1002.0000;0.5478;1.2511;
1002.3000;0.5568;1.2746;
1002.6000;0.5568;1.2746;
1002.9000;0.5519;1.2582;
1003.2000;0.5551;1.2629;
1003.5000;0.5560;1.2652;
1003.8000;0.5535;1.2582;
1004.1000;0.5551;1.2629;
1004.4000;0.5551;1.2605;
1004.7000;0.5543;1.2675;
1005.0000;0.5560;1.2652;
1005.3000;0.5584;1.2722;
1005.6000;0.5551;1.2722;
1005.9000;0.5543;1.2629;
1006.2000;0.5568;1.2699;
1006.5000;0.5551;1.2722;
1006.8000;0.5617;1.2887;
1007.1000;0.5543;1.2675;
1007.4000;0.5568;1.2675;
1007.7000;0.5551;1.2675;
1008.0000;0.5535;1.2629;
1008.3000;0.5543;1.2746;
1008.6000;0.5551;1.2746;
1008.9000;0.5568;1.2769;
1009.2000;0.5543;1.2675;
1009.5000;0.5551;1.2722;
1009.8000;0.5543;1.2816;
1010.1000;0.5543;1.2840;
1010.4000;0.5560;1.2816;
1010.7000;0.5551;1.2746;
1011.0000;0.5592;1.3004;
1011.3000;0.5551;1.2863;
1011.6000;0.5568;1.2816;
1011.9000;0.5560;1.2887;
1012.2000;0.5511;1.2722;
1012.5000;0.5560;1.2699;
1012.8000;0.5576;1.2769;
1013.1000;0.5576;1.2746;
1013.4000;0.5568;1.2699;
1013.7000;0.5568;1.2629;
1014.0000;0.5560;1.2675;
1014.3000;0.5560;1.2699;
1014.6000;0.5543;1.2722;
1014.9000;0.5535;1.2652;
1015.2000;0.5617;1.2863;
1015.5000;0.5551;1.2746;
1015.8000;0.5584;1.2793;
1016.1000;0.5551;1.2746;
1016.4000;0.5551;1.2722;
1016.7000;0.5568;1.2746;
1017.0000;0.5560;1.2769;
1017.3000;0.5576;1.2910;
1017.6000;0.5560;1.2863;
1017.9000;0.5543;1.2793;
1018.2000;0.5608;1.2957;
1018.5000;0.5576;1.2887;
1018.8000;0.5568;1.2746;
1019.1000;0.5519;1.2582;
1019.4000;0.5592;1.2769;
1019.7000;0.5568;1.2746;
1020.0000;0.5560;1.2746;
1020.3000;0.5551;1.2840;
1020.6000;0.5543;1.2769;
1020.9000;0.5535;1.2746;
1021.2000;0.5551;1.2816;
1021.5000;0.5535;1.2769;
1021.8000;0.5568;1.2722;
1022.1000;0.5576;1.2675;
1022.4000;0.5503;1.2441;
1022.7000;0.5519;1.2464;
1023.0000;0.5560;1.2558;
1023.3000;0.5584;1.2605;
1023.6000;0.5560;1.2558;
1023.9000;0.5535;1.2441;
1024.2000;0.5608;1.2441;
1024.5000;0.5568;1.2323;
1024.8000;0.5576;1.2347;
1025.1000;0.5576;1.2417;
1025.4000;0.5560;1.2464;
1025.7000;0.5519;1.2441;
1026.0000;0.5576;1.2558;
1026.3000;0.5560;1.2488;
1026.6000;0.5551;1.2558;
1026.9000;0.5535;1.2488;
1027.2000;0.5568;1.2511;
1027.5000;0.5568;1.2605;
1027.8000;0.5576;1.2652;
1028.1000;0.5551;1.2582;
1028.4000;0.5560;1.2629;
1028.7000;0.5568;1.2652;
1029.0000;0.5543;1.2582;
1029.3000;0.5568;1.2558;
1029.6000;0.5551;1.2558;
1029.9000;0.5486;1.2464;
1030.2000;0.5551;1.2629;
1030.5000;0.5535;1.2605;
1030.8000;0.5584;1.2605;
1031.1000;0.5535;1.2441;
1031.4000;0.5551;1.2511;
1031.7000;0.5543;1.2511;
1032.0000;0.5560;1.2535;
1032.3000;0.5560;1.2605;
1032.6000;0.5535;1.2652;
1032.9000;0.5551;1.2652;
1033.2000;0.5568;1.2675;
1033.5000;0.5568;1.2699;
1033.8000;0.5560;1.2675;
1034.1000;0.5568;1.2722;
1034.4000;0.5551;1.2746;
1034.7000;0.5568;1.2769;
1035.0000;0.5560;1.2793;
1035.3000;0.5560;1.2793;
1035.6000;0.5527;1.2769;
1035.9000;0.5543;1.2793;
1036.2000;0.5576;1.2863;
1036.5000;0.5527;1.2769;
1036.8000;0.5551;1.2769;
1037.1000;0.5568;1.2793;
1037.4000;0.5576;1.2769;
1037.7000;0.5551;1.2722;
1038.0000;0.5551;1.2816;
1038.3000;0.5568;1.2722;
1038.6000;0.5503;1.2558;
1038.9000;0.5568;1.2675;
1039.2000;0.5568;1.2675;
1039.5000;0.5486;1.2464;
1039.8000;0.5543;1.2675;
1040.1000;0.5584;1.2722;
1040.4000;0.5551;1.2629;
1040.7000;0.5568;1.2722;
1041.0000;0.5519;1.2652;
1041.3000;0.5560;1.2699;
1041.6000;0.5584;1.2816;
1041.9000;0.5535;1.2746;
1042.2000;0.5560;1.2816;
1042.5000;0.5535;1.2863;
1042.8000;0.5560;1.2816;
1043.1000;0.5551;1.2652;
1043.4000;0.5568;1.2699;
1043.7000;0.5551;1.2582;
1044.0000;0.5600;1.2699;
1044.3000;0.5551;1.2605;
1044.6000;0.5560;1.2582;
1044.9000;0.5519;1.2464;
1045.2000;0.5625;1.2840;
1045.5000;0.5560;1.2582;
1045.8000;0.5486;1.2441;
1046.1000;0.5560;1.2629;
1046.4000;0.5551;1.2629;
1046.7000;0.5568;1.2675;
1047.0000;0.5560;1.2722;
1047.3000;0.5560;1.2699;
1047.6000;0.5560;1.2675;
1047.9000;0.5576;1.2699;
1048.2000;0.5560;1.2722;
1048.5000;0.5543;1.2675;
1048.8000;0.5543;1.2722;
1049.1000;0.5568;1.2746;
1049.4000;0.5568;1.2793;
1049.7000;0.5560;1.2769;
1050.0000;0.5551;1.2863;
1050.3000;0.5551;1.2816;
1050.6000;0.5568;1.2863;
1050.9000;0.5568;1.2863;
1051.2000;0.5551;1.2816;
1051.5000;0.5551;1.2840;
1051.8000;0.5551;1.2769;
1052.1000;0.5551;1.2722;
1052.4000;0.5527;1.2582;
1052.7000;0.5551;1.2629;
1053.0000;0.5527;1.2511;
1053.3000;0.5543;1.2464;
1053.6000;0.5543;1.2488;
1053.9000;0.5551;1.2488;
1054.2000;0.5543;1.2488;
1054.5000;0.5551;1.2417;
1054.8000;0.5543;1.2511;
1055.1000;0.5560;1.2652;
1055.4000;0.5568;1.2699;
1055.7000;0.5543;1.2605;
1056.0000;0.5413;1.2253;
1056.3000;0.5560;1.2511;
1056.6000;0.5551;1.2441;
1056.9000;0.5568;1.2464;
1057.2000;0.5543;1.2535;
1057.5000;0.5551;1.2582;
1057.8000;0.5535;1.2582;
1058.1000;0.5560;1.2652;
1058.4000;0.5560;1.2488;
1058.7000;0.5560;1.2488;
1059.0000;0.5438;1.2159;
1059.3000;0.5551;1.2464;
1059.6000;0.5560;1.2535;
1059.9000;0.5470;1.2300;
1060.2000;0.5495;1.2347;
1060.5000;0.5543;1.2511;
1060.8000;0.5568;1.2535;
1061.1000;0.5535;1.2394;
1061.4000;0.5568;1.2558;
1061.7000;0.5576;1.2558;
1062.0000;0.5560;1.2417;
1062.3000;0.5560;1.2441;
1062.6000;0.5503;1.2276;
1062.9000;0.5543;1.2323;
1063.2000;0.5568;1.2417;
1063.5000;0.5649;1.2652;
1063.8000;0.5551;1.2535;
1064.1000;0.5560;1.2605;
1064.4000;0.5617;1.2793;
1064.7000;0.5560;1.2722;
1065.0000;0.5568;1.2769;
1065.3000;0.5551;1.2746;
1065.6000;0.5551;1.2722;
1065.9000;0.5568;1.2675;
1066.2000;0.5576;1.2699;
1066.5000;0.5568;1.2675;
1066.8000;0.5551;1.2629;
1067.1000;0.5551;1.2722;
1067.4000;0.5584;1.2816;
1067.7000;0.5551;1.2722;
1068.0000;0.5674;1.3121;
1068.3000;0.5543;1.2769;
1068.6000;0.5568;1.2722;
1068.9000;0.5576;1.2675;
1069.2000;0.5535;1.2652;
1069.5000;0.5551;1.2675;
1069.8000;0.5543;1.2675;
1070.1000;0.5551;1.2769;
1070.4000;0.5519;1.2699;
1070.7000;0.5568;1.2840;
1071.0000;0.5560;1.2840;
1071.3000;0.5560;1.2793;
1071.6000;0.5568;1.2887;
1071.9000;0.5560;1.2816;
1072.2000;0.5551;1.2816;
1072.5000;0.5551;1.2887;
1072.8000;0.5543;1.2746;
1073.1000;0.5543;1.2675;
1073.4000;0.5543;1.2793;
1073.7000;0.5543;1.2793;
1074.0000;0.5527;1.2699;
1074.3000;0.5543;1.2699;
1074.6000;0.5568;1.2746;
1074.9000;0.5600;1.2746;
1075.2000;0.5560;1.2722;
1075.5000;0.5551;1.2769;
1075.8000;0.5543;1.2722;
1076.1000;0.5568;1.2769;
1076.4000;0.5568;1.2746;
1076.7000;0.5551;1.2675;
1077.0000;0.5543;1.2605;
1077.3000;0.5543;1.2511;
1077.6000;0.5560;1.2558;
1077.9000;0.5543;1.2488;
1078.2000;0.5568;1.2535;
1078.5000;0.5657;1.2722;
1078.8000;0.5478;1.2323;
1079.1000;0.5551;1.2629;
1079.4000;0.5568;1.2652;
1079.7000;0.5511;1.2488;
1080.0000;0.5551;1.2488;
1080.3000;0.5560;1.2535;
1080.6000;0.5543;1.2370;
1080.9000;0.5551;1.2323;
1081.2000;0.5551;1.2511;
1081.5000;0.5560;1.2488;
1081.8000;0.5551;1.2464;
1082.1000;0.5551;1.2558;
1082.4000;0.5568;1.2629;
1082.7000;0.5576;1.2675;
1083.0000;0.5543;1.2629;
1083.3000;0.5568;1.2699;
1083.6000;0.5543;1.2699;
1083.9000;0.5551;1.2746;
1084.2000;0.5535;1.2699;
1084.5000;0.5560;1.2746;
1084.8000;0.5560;1.2722;
1085.1000;0.5551;1.2675;
1085.4000;0.5535;1.2652;
1085.7000;0.5568;1.2699;
1086.0000;0.5543;1.2629;
1086.3000;0.5568;1.2605;
1086.6000;0.5568;1.2652;
1086.9000;0.5535;1.2558;
1087.2000;0.5576;1.2629;
1087.5000;0.5576;1.2629;
1087.8000;0.5592;1.2746;
1088.1000;0.5560;1.2675;
1088.4000;0.5560;1.2605;
1088.7000;0.5568;1.2629;
1089.0000;0.5600;1.2699;
1089.3000;0.5551;1.2605;
1089.6000;0.5551;1.2629;
1089.9000;0.5551;1.2769;
1090.2000;0.5560;1.2816;
1090.5000;0.5560;1.2746;
1090.8000;0.5535;1.2675;
1091.1000;0.5584;1.2699;
1091.4000;0.5551;1.2675;
1091.7000;0.5551;1.2629;
1092.0000;0.5462;1.2417;
1092.3000;0.5551;1.2769;
1092.6000;0.5560;1.2840;
1092.9000;0.5551;1.2887;
1093.2000;0.5551;1.2863;
1093.5000;0.5560;1.2910;
1093.8000;0.5551;1.2934;
1094.1000;0.5519;1.2769;
1094.4000;0.5576;1.2863;
1094.7000;0.5568;1.2816;
1095.0000;0.5535;1.2652;
1095.3000;0.5551;1.2675;
1095.6000;0.5576;1.2769;
1095.9000;0.5551;1.2769;
1096.2000;0.5551;1.2793;
1096.5000;0.5551;1.2863;
1096.8000;0.5551;1.2793;
1097.1000;0.5560;1.2769;
1097.4000;0.5446;1.2511;
1097.7000;0.5527;1.2675;
1098.0000;0.5535;1.2582;
1098.3000;0.5551;1.2535;
1098.6000;0.5560;1.2488;
1098.9000;0.5551;1.2558;
1099.2000;0.5527;1.2605;
1099.5000;0.5560;1.2675;
1099.8000;0.5560;1.2699;
1100.1000;0.5527;1.2629;
1100.4000;0.5535;1.2582;
1100.7000;0.5527;1.2511;
1101.0000;0.5535;1.2511;
1101.3000;0.5543;1.2488;
1101.6000;0.5543;1.2394;
1101.9000;0.5551;1.2370;
1102.2000;0.5527;1.2441;
1102.5000;0.5584;1.2558;
1102.8000;0.5543;1.2417;
1103.1000;0.5568;1.2511;
1103.4000;0.5560;1.2582;
1103.7000;0.5560;1.2629;
1104.0000;0.5551;1.2652;
1104.3000;0.5543;1.2629;
1104.6000;0.5551;1.2675;
1104.9000;0.5560;1.2769;
1105.2000;0.5551;1.2746;
1105.5000;0.5543;1.2746;
1105.8000;0.5543;1.2699;
1106.1000;0.5551;1.2675;
1106.4000;0.5543;1.2722;
1106.7000;0.5543;1.2769;
1107.0000;0.5503;1.2582;
1107.3000;0.5495;1.2417;
1107.6000;0.5527;1.2675;
1107.9000;0.5543;1.2652;
1108.2000;0.5576;1.2699;
1108.5000;0.5543;1.2629;
1108.8000;0.5543;1.2652;
1109.1000;0.5560;1.2675;
1109.4000;0.5543;1.2652;
1109.7000;0.5551;1.2582;
1110.0000;0.5519;1.2605;
1110.3000;0.5543;1.2605;
1110.6000;0.5551;1.2722;
1110.9000;0.5519;1.2722;
1111.2000;0.5560;1.2816;
1111.5000;0.5543;1.2699;
1111.8000;0.5560;1.2652;
1112.1000;0.5568;1.2699;
1112.4000;0.5568;1.2769;
1112.7000;0.5527;1.2675;
1113.0000;0.5568;1.2769;
1113.3000;0.5584;1.2769;
1113.6000;0.5551;1.2722;
1113.9000;0.5560;1.2652;
1114.2000;0.5584;1.2699;
1114.5000;0.5560;1.2605;
1114.8000;0.5527;1.2511;
1115.1000;0.5568;1.2652;
1115.4000;0.5560;1.2699;
1115.7000;0.5543;1.2746;
1116.0000;0.5560;1.2793;
1116.3000;0.5543;1.2746;
1116.6000;0.5568;1.2840;
1116.9000;0.5584;1.2699;
1117.2000;0.5462;1.2276;
1117.5000;0.5551;1.2582;
1117.8000;0.5551;1.2699;
1118.1000;0.5551;1.2722;
1118.4000;0.5535;1.2699;
1118.7000;0.5543;1.2769;
1119.0000;0.5560;1.2722;
1119.3000;0.5543;1.2675;
1119.6000;0.5543;1.2793;
1119.9000;0.5576;1.2840;
1120.2000;0.5560;1.2840;
1120.5000;0.5560;1.2887;
1120.8000;0.5576;1.2910;
1121.1000;0.5535;1.2769;
1121.4000;0.5535;1.2793;
1121.7000;0.5576;1.2887;
1122.0000;0.5519;1.2816;
1122.3000;0.5551;1.2793;
1122.6000;0.5551;1.2793;
1122.9000;0.5495;1.2629;
1123.2000;0.5535;1.2746;
1123.5000;0.5551;1.2769;
1123.8000;0.5486;1.2699;
1124.1000;0.5495;1.2793;
1124.4000;0.5551;1.2863;
1124.7000;0.5560;1.2887;
1125.0000;0.5503;1.2652;
1125.3000;0.5551;1.2816;
1125.6000;0.5560;1.2793;
1125.9000;0.5503;1.2652;
1126.2000;0.5551;1.2863;
1126.5000;0.5568;1.2910;
1126.8000;0.5568;1.2887;
1127.1000;0.5551;1.2934;
1127.4000;0.5560;1.2934;
1127.7000;0.5551;1.2910;
1128.0000;0.5543;1.2816;
1128.3000;0.5519;1.2746;
1128.6000;0.5543;1.2793;
1128.9000;0.5551;1.2816;
1129.2000;0.5560;1.2793;
1129.5000;0.5576;1.2793;
1129.8000;0.5568;1.2793;
1130.1000;0.5551;1.2816;
1130.4000;0.5551;1.2746;
1130.7000;0.5568;1.2699;
1131.0000;0.5568;1.2746;
1131.3000;0.5543;1.2769;
1131.6000;0.5560;1.2957;
1131.9000;0.5551;1.2910;
1132.2000;0.5543;1.2887;
1132.5000;0.5543;1.2863;
1132.8000;0.5535;1.2793;
1133.1000;0.5503;1.2605;
1133.4000;0.5543;1.2769;
1133.7000;0.5543;1.2793;
1134.0000;0.5543;1.2746;
1134.3000;0.5617;1.2910;
1134.6000;0.5543;1.2746;
1134.9000;0.5551;1.2699;
1135.2000;0.5625;1.2840;
1135.5000;0.5543;1.2558;
1135.8000;0.5600;1.2629;
1136.1000;0.5560;1.2605;
1136.4000;0.5535;1.2582;
1136.7000;0.5454;1.2441;
1137.0000;0.5543;1.2652;
1137.3000;0.5470;1.2370;
1137.6000;0.5560;1.2675;
1137.9000;0.5551;1.2675;
1138.2000;0.5560;1.2675;
1138.5000;0.5527;1.2652;
1138.8000;0.5543;1.2699;
1139.1000;0.5551;1.2722;
1139.4000;0.5560;1.2652;
1139.7000;0.5560;1.2675;
1140.0000;0.5576;1.2675;
1140.3000;0.5560;1.2652;
1140.6000;0.5551;1.2652;
1140.9000;0.5560;1.2605;
1141.2000;0.5576;1.2629;
1141.5000;0.5551;1.2558;
1141.8000;0.5568;1.2652;
1142.1000;0.5543;1.2769;
1142.4000;0.5560;1.2793;
1142.7000;0.5560;1.2910;
1143.0000;0.5560;1.2957;
1143.3000;0.5560;1.2816;
1143.6000;0.5576;1.2769;
1143.9000;0.5551;1.2746;
1144.2000;0.5543;1.2816;
1144.5000;0.5551;1.2863;
1144.8000;0.5551;1.2840;
1145.1000;0.5543;1.2769;
1145.4000;0.5560;1.2746;
1145.7000;0.5543;1.2769;
1146.0000;0.5560;1.2769;
1146.3000;0.5560;1.2793;
1146.6000;0.5543;1.2769;
1146.9000;0.5543;1.2840;
1147.2000;0.5543;1.2887;
1147.5000;0.5543;1.2769;
1147.8000;0.5551;1.2793;
1148.1000;0.5584;1.2863;
1148.4000;0.5551;1.2746;
1148.7000;0.5576;1.2746;
1149.0000;0.5511;1.2558;
1149.3000;0.5543;1.2629;
1149.6000;0.5543;1.2629;
1149.9000;0.5519;1.2582;
1150.2000;0.5527;1.2699;
1150.5000;0.5576;1.2816;
1150.8000;0.5551;1.2769;
1151.1000;0.5560;1.2793;
1151.4000;0.5543;1.2840;
1151.7000;0.5543;1.2863;
1152.0000;0.5543;1.2887;
1152.3000;0.5560;1.2957;
1152.6000;0.5478;1.2816;
1152.9000;0.5560;1.3098;
1153.2000;0.5568;1.3004;
1153.5000;0.5560;1.2957;
1153.8000;0.5560;1.2957;
1154.1000;0.5535;1.2840;
1154.4000;0.5454;1.2488;
1154.7000;0.5551;1.2746;
1155.0000;0.5568;1.2793;
1155.3000;0.5576;1.2793;
1155.6000;0.5511;1.2722;
1155.9000;0.5543;1.2840;
1156.2000;0.5543;1.2769;
1156.5000;0.5462;1.2511;
1156.8000;0.5543;1.2722;
1157.1000;0.5535;1.2746;
1157.4000;0.5543;1.2699;
1157.7000;0.5568;1.2722;
1158.0000;0.5543;1.2746;
1158.3000;0.5535;1.2746;
1158.6000;0.5551;1.2816;
1158.9000;0.5560;1.2863;
1159.2000;0.5641;1.2981;
1159.5000;0.5560;1.2863;
1159.8000;0.5543;1.2887;
1160.1000;0.5551;1.2910;
1160.4000;0.5527;1.2863;
1160.7000;0.5560;1.3004;
1161.0000;0.5551;1.2957;
1161.3000;0.5551;1.3004;
1161.6000;0.5560;1.3004;
1161.9000;0.5535;1.2934;
1162.2000;0.5511;1.2816;
1162.5000;0.5560;1.2887;
1162.8000;0.5551;1.2887;
1163.1000;0.5543;1.2934;
1163.4000;0.5568;1.3051;
1163.7000;0.5519;1.2934;
1164.0000;0.5560;1.2934;
1164.3000;0.5560;1.2840;
1164.6000;0.5551;1.2746;
1164.9000;0.5543;1.2722;
1165.2000;0.5535;1.2746;
1165.5000;0.5600;1.2910;
1165.8000;0.5551;1.2816;
1166.1000;0.5560;1.2840;
1166.4000;0.5421;1.2464;
1166.7000;0.5560;1.2746;
1167.0000;0.5535;1.2746;
1167.3000;0.5551;1.2816;
1167.6000;0.5527;1.2816;
1167.9000;0.5584;1.2934;
1168.2000;0.5519;1.2769;
1168.5000;0.5519;1.2840;
1168.8000;0.5535;1.2863;
1169.1000;0.5560;1.2934;
1169.4000;0.5535;1.2863;
1169.7000;0.5535;1.2910;
1170.0000;0.5535;1.2910;
1170.3000;0.5560;1.2934;
1170.6000;0.5600;1.3028;
1170.9000;0.5584;1.2934;
1171.2000;0.5519;1.2652;
1171.5000;0.5543;1.2652;
1171.8000;0.5551;1.2652;
1172.1000;0.5543;1.2605;
1172.4000;0.5543;1.2605;
1172.7000;0.5535;1.2535;
1173.0000;0.5519;1.2558;
1173.3000;0.5568;1.2605;
1173.6000;0.5551;1.2605;
1173.9000;0.5543;1.2652;
1174.2000;0.5543;1.2582;
1174.5000;0.5560;1.2605;
1174.8000;0.5560;1.2511;
1175.1000;0.5576;1.2605;
1175.4000;0.5584;1.2582;
1175.7000;0.5568;1.2605;
1176.0000;0.5560;1.2629;
1176.3000;0.5568;1.2629;
1176.6000;0.5519;1.2488;
1176.9000;0.5568;1.2629;
1177.2000;0.5600;1.2746;
1177.5000;0.5560;1.2629;
1177.8000;0.5551;1.2652;
1178.1000;0.5551;1.2558;
1178.4000;0.5519;1.2488;
1178.7000;0.5560;1.2511;
1179.0000;0.5519;1.2417;
1179.3000;0.5617;1.2629;
1179.6000;0.5584;1.2582;
1179.9000;0.5682;1.2887;
1180.2000;0.5543;1.2558;
1180.5000;0.5462;1.2441;
1180.8000;0.5551;1.2722;
1181.1000;0.5551;1.2793;
1181.4000;0.5551;1.2769;
1181.7000;0.5617;1.2863;
1182.0000;0.5560;1.2722;
1182.3000;0.5592;1.2816;
1182.6000;0.5560;1.2652;
1182.9000;0.5527;1.2652;
1183.2000;0.5551;1.2699;
1183.5000;0.5568;1.2605;
1183.8000;0.5543;1.2488;
1184.1000;0.5551;1.2511;
1184.4000;0.5551;1.2511;
1184.7000;0.5543;1.2582;
1185.0000;0.5543;1.2558;
1185.3000;0.5592;1.2675;
1185.6000;0.5551;1.2675;
1185.9000;0.5568;1.2746;
1186.2000;0.5551;1.2699;
1186.5000;0.5551;1.2722;
1186.8000;0.5551;1.2793;
1187.1000;0.5568;1.2769;
1187.4000;0.5527;1.2652;
1187.7000;0.5551;1.2675;
1188.0000;0.5535;1.2582;
1188.3000;0.5543;1.2605;
1188.6000;0.5551;1.2652;
1188.9000;0.5543;1.2675;
1189.2000;0.5527;1.2605;
1189.5000;0.5543;1.2629;
1189.8000;0.5551;1.2558;
1190.1000;0.5560;1.2558;
1190.4000;0.5519;1.2511;
1190.7000;0.5535;1.2629;
1191.0000;0.5551;1.2699;
1191.3000;0.5551;1.2699;
1191.6000;0.5527;1.2582;
1191.9000;0.5543;1.2605;
1192.2000;0.5560;1.2769;
1192.5000;0.5543;1.2722;
1192.8000;0.5551;1.2722;
1193.1000;0.5535;1.2605;
1193.4000;0.5568;1.2629;
1193.7000;0.5527;1.2511;
1194.0000;0.5560;1.2535;
1194.3000;0.5543;1.2464;
1194.6000;0.5503;1.2417;
1194.9000;0.5535;1.2441;
1195.2000;0.5535;1.2441;
1195.5000;0.5543;1.2488;
1195.8000;0.5535;1.2511;
1196.1000;0.5551;1.2511;
1196.4000;0.5568;1.2699;
1196.7000;0.5584;1.2793;
1197.0000;0.5551;1.2722;
1197.3000;0.5543;1.2699;
1197.6000;0.5543;1.2699;
1197.9000;0.5665;1.3028;
1198.2000;0.5519;1.2582;
1198.5000;0.5551;1.2629;
1198.8000;0.5551;1.2675;
1199.1000;0.5535;1.2558;
1199.4000;0.5543;1.2652;
1199.7000;0.5551;1.2652;
1200.0000;0.5551;1.2746;
1200.3000;0.5543;1.2816;
1200.6000;0.5551;1.2769;
1200.9000;0.5560;1.2769;
1201.2000;0.5665;1.3051;
1201.5000;0.5576;1.2793;
1201.8000;0.5551;1.2746;
1202.1000;0.5576;1.2816;
1202.4000;0.5568;1.2769;
1202.7000;0.5560;1.2722;
1203.0000;0.5568;1.2769;
1203.3000;0.5519;1.2699;
1203.6000;0.5568;1.2769;
1203.9000;0.5535;1.2699;
1204.2000;0.5527;1.2722;
1204.5000;0.5551;1.2840;
1204.8000;0.5543;1.2746;
1205.1000;0.5535;1.2746;
1205.4000;0.5592;1.2863;
1205.7000;0.5551;1.2840;
1206.0000;0.5519;1.2816;
1206.3000;0.5576;1.2910;
1206.6000;0.5560;1.2863;
1206.9000;0.5568;1.2887;
1207.2000;0.5560;1.2957;
1207.5000;0.5551;1.2934;
1207.8000;0.5543;1.2887;
1208.1000;0.5560;1.2863;
1208.4000;0.5535;1.2769;
1208.7000;0.5560;1.2793;
1209.0000;0.5608;1.2887;
1209.3000;0.5560;1.2769;
1209.6000;0.5551;1.2746;
1209.9000;0.5527;1.2629;
1210.2000;0.5576;1.2816;
1210.5000;0.5551;1.2793;
1210.8000;0.5535;1.2793;
1211.1000;0.5551;1.2746;
1211.4000;0.5511;1.2558;
1211.7000;0.5551;1.2699;
1212.0000;0.5551;1.2722;
1212.3000;0.5625;1.2887;
1212.6000;0.5551;1.2722;
1212.9000;0.5568;1.2816;
1213.2000;0.5617;1.2910;
1213.5000;0.5535;1.2699;
1213.8000;0.5551;1.2699;
1214.1000;0.5560;1.2746;
1214.4000;0.5568;1.2769;
1214.7000;0.5551;1.2746;
1215.0000;0.5543;1.2722;
1215.3000;0.5551;1.2699;
1215.6000;0.5535;1.2699;
1215.9000;0.5584;1.2816;
1216.2000;0.5543;1.2699;
1216.5000;0.5527;1.2722;
1216.8000;0.5560;1.2699;
1217.1000;0.5543;1.2793;
1217.4000;0.5560;1.2722;
1217.7000;0.5486;1.2511;
1218.0000;0.5543;1.2840;
1218.3000;0.5551;1.2816;
1218.6000;0.5551;1.2722;
1218.9000;0.5551;1.2605;
1219.2000;0.5551;1.2652;
1219.5000;0.5551;1.2652;
1219.8000;0.5568;1.2746;
1220.1000;0.5535;1.2699;
1220.4000;0.5543;1.2769;
1220.7000;0.5551;1.2769;
1221.0000;0.5543;1.2769;
1221.3000;0.5543;1.2699;
1221.6000;0.5543;1.2722;
1221.9000;0.5551;1.2746;
1222.2000;0.5551;1.2769;
1222.5000;0.5568;1.2887;
1222.8000;0.5560;1.2957;
1223.1000;0.5568;1.3004;
1223.4000;0.5560;1.2934;
1223.7000;0.5551;1.2840;
1224.0000;0.5551;1.2816;
1224.3000;0.5551;1.2769;
1224.6000;0.5543;1.2793;
1224.9000;0.5543;1.2816;
1225.2000;0.5592;1.3004;
1225.5000;0.5535;1.2910;
1225.8000;0.5543;1.2910;
1226.1000;0.5543;1.2887;
1226.4000;0.5535;1.2910;
1226.7000;0.5527;1.2910;
1227.0000;0.5543;1.2863;
1227.3000;0.5568;1.2910;
1227.6000;0.5551;1.2910;
1227.9000;0.5576;1.2910;
1228.2000;0.5551;1.2887;
1228.5000;0.5560;1.2863;
1228.8000;0.5568;1.2887;
1229.1000;0.5551;1.2840;
1229.4000;0.5535;1.2793;
1229.7000;0.5551;1.2769;
1230.0000;0.5551;1.2793;
1230.3000;0.5568;1.2769;
1230.6000;0.5535;1.2722;
1230.9000;0.5527;1.2675;
1231.2000;0.5560;1.2746;
1231.5000;0.5560;1.2793;
1231.8000;0.5478;1.2558;
1232.1000;0.5551;1.2699;
1232.4000;0.5551;1.2746;
1232.7000;0.5551;1.2699;
1233.0000;0.5527;1.2558;
1233.3000;0.5527;1.2535;
1233.6000;0.5551;1.2675;
1233.9000;0.5535;1.2652;
1234.2000;0.5543;1.2816;
1234.5000;0.5543;1.2793;
1234.8000;0.5543;1.2769;
1235.1000;0.5560;1.2746;
1235.4000;0.5657;1.2934;
1235.7000;0.5560;1.2699;
1236.0000;0.5551;1.2675;
1236.3000;0.5560;1.2722;
1236.6000;0.5543;1.2746;
1236.9000;0.5551;1.2746;
1237.2000;0.5535;1.2769;
1237.5000;0.5543;1.2769;
1237.8000;0.5551;1.2793;
1238.1000;0.5527;1.2746;
1238.4000;0.5543;1.2840;
1238.7000;0.5551;1.2816;
1239.0000;0.5560;1.2887;
1239.3000;0.5543;1.2840;
1239.6000;0.5584;1.2816;
1239.9000;0.5535;1.2699;
1240.2000;0.5543;1.2746;
1240.5000;0.5503;1.2652;
1240.8000;0.5527;1.2746;
1241.1000;0.5495;1.2675;
1241.4000;0.5543;1.2722;
1241.7000;0.5584;1.2863;
1242.0000;0.5551;1.2699;
1242.3000;0.5543;1.2652;
1242.6000;0.5527;1.2605;
1242.9000;0.5560;1.2793;
1243.2000;0.5413;1.2535;
1243.5000;0.5486;1.2816;
1243.8000;0.5576;1.2981;
1244.1000;0.5551;1.2887;
1244.4000;0.5551;1.2934;
1244.7000;0.5543;1.2910;
1245.0000;0.5543;1.2816;
1245.3000;0.5568;1.2863;
1245.6000;0.5576;1.2863;
1245.9000;0.5551;1.2816;
1246.2000;0.5543;1.2769;
1246.5000;0.5543;1.2722;
1246.8000;0.5560;1.2793;
1247.1000;0.5584;1.2793;
1247.4000;0.5551;1.2675;
1247.7000;0.5560;1.2769;
1248.0000;0.5486;1.2582;
1248.3000;0.5560;1.2746;
1248.6000;0.5535;1.2722;
1248.9000;0.5551;1.2769;
1249.2000;0.5511;1.2722;
1249.5000;0.5543;1.2816;
1249.8000;0.5543;1.2769;
1250.1000;0.5543;1.2746;
1250.4000;0.5560;1.2746;
1250.7000;0.5551;1.2840;
1251.0000;0.5527;1.2699;
1251.3000;0.5617;1.2934;
1251.6000;0.5551;1.2793;
1251.9000;0.5551;1.2793;
1252.2000;0.5568;1.2769;
1252.5000;0.5543;1.2675;
1252.8000;0.5551;1.2722;
1253.1000;0.5560;1.2629;
1253.4000;0.5568;1.2675;
1253.7000;0.5560;1.2722;
1254.0000;0.5511;1.2629;
1254.3000;0.5551;1.2722;
1254.6000;0.5470;1.2582;
1254.9000;0.5535;1.2699;
1255.2000;0.5511;1.2605;
1255.5000;0.5551;1.2699;
1255.8000;0.5543;1.2699;
1256.1000;0.5584;1.2793;
1256.4000;0.5560;1.2769;
1256.7000;0.5486;1.2535;
1257.0000;0.5495;1.2605;
1257.3000;0.5551;1.2793;
1257.6000;0.5543;1.2816;
1257.9000;0.5551;1.2769;
1258.2000;0.5543;1.2652;
1258.5000;0.5527;1.2558;
1258.8000;0.5511;1.2441;
1259.1000;0.5527;1.2511;
1259.4000;0.5519;1.2535;
1259.7000;0.5543;1.2629;
1260.0000;0.5543;1.2605;
1260.3000;0.5527;1.2605;
1260.6000;0.5543;1.2629;
1260.9000;0.5551;1.2675;
1261.2000;0.5543;1.2699;
1261.5000;0.5551;1.2840;
1261.8000;0.5543;1.2793;
1262.1000;0.5560;1.2746;
1262.4000;0.5551;1.2699;
1262.7000;0.5551;1.2675;
1263.0000;0.5535;1.2629;
1263.3000;0.5560;1.2675;
1263.6000;0.5535;1.2699;
1263.9000;0.5519;1.2652;
1264.2000;0.5527;1.2605;
1264.5000;0.5551;1.2699;
1264.8000;0.5551;1.2699;
1265.1000;0.5551;1.2629;
1265.4000;0.5535;1.2511;
1265.7000;0.5551;1.2511;
1266.0000;0.5543;1.2417;
1266.3000;0.5560;1.2441;
1266.6000;0.5551;1.2488;
1266.9000;0.5576;1.2582;
1267.2000;0.5543;1.2582;
1267.5000;0.5576;1.2652;
1267.8000;0.5560;1.2605;
1268.1000;0.5527;1.2488;
1268.4000;0.5535;1.2535;
1268.7000;0.5568;1.2699;
1269.0000;0.5543;1.2722;
1269.3000;0.5551;1.2722;
1269.6000;0.5560;1.2816;
1269.9000;0.5543;1.2816;
1270.2000;0.5551;1.2793;
1270.5000;0.5551;1.2746;
1270.8000;0.5592;1.2863;
1271.1000;0.5551;1.2816;
1271.4000;0.5543;1.2887;
1271.7000;0.5551;1.2863;
1272.0000;0.5560;1.2887;
1272.3000;0.5576;1.3028;
1272.6000;0.5682;1.3333;
1272.9000;0.5560;1.3028;
1273.2000;0.5560;1.3004;
1273.5000;0.5551;1.2957;
1273.8000;0.5551;1.2934;
1274.1000;0.5560;1.3004;
1274.4000;0.5535;1.2957;
1274.7000;0.5543;1.2910;
1275.0000;0.5543;1.2863;
1275.3000;0.5568;1.2816;
1275.6000;0.5551;1.2699;
1275.9000;0.5560;1.2652;
1276.2000;0.5551;1.2629;
1276.5000;0.5551;1.2769;
1276.8000;0.5576;1.2816;
1277.1000;0.5551;1.2816;
1277.4000;0.5617;1.3004;
1277.7000;0.5543;1.2793;
1278.0000;0.5576;1.2769;
1278.3000;0.5551;1.2746;
1278.6000;0.5576;1.2816;
1278.9000;0.5535;1.2793;
1279.2000;0.5543;1.2793;
1279.5000;0.5535;1.2675;
1279.8000;0.5503;1.2582;
1280.1000;0.5551;1.2699;
1280.4000;0.5519;1.2582;
1280.7000;0.5543;1.2675;
1281.0000;0.5535;1.2699;
1281.3000;0.5543;1.2675;
1281.6000;0.5527;1.2699;
1281.9000;0.5543;1.2675;
1282.2000;0.5560;1.2652;
1282.5000;0.5576;1.2769;
1282.8000;0.5535;1.2722;
1283.1000;0.5568;1.2722;
1283.4000;0.5543;1.2629;
1283.7000;0.5560;1.2511;
1284.0000;0.5551;1.2488;
1284.3000;0.5551;1.2488;
1284.6000;0.5551;1.2535;
1284.9000;0.5551;1.2629;
1285.2000;0.5551;1.2746;
1285.5000;0.5560;1.2769;
1285.8000;0.5519;1.2722;
1286.1000;0.5543;1.2769;
1286.4000;0.5535;1.2722;
1286.7000;0.5527;1.2675;
1287.0000;0.5543;1.2675;
1287.3000;0.5527;1.2558;
1287.6000;0.5543;1.2652;
1287.9000;0.5560;1.2629;
1288.2000;0.5511;1.2535;
1288.5000;0.5560;1.2605;
1288.8000;0.5551;1.2675;
1289.1000;0.5470;1.2488;
1289.4000;0.5568;1.2652;
1289.7000;0.5503;1.2417;
1290.0000;0.5560;1.2699;
1290.3000;0.5560;1.2675;
1290.6000;0.5600;1.2746;
1290.9000;0.5543;1.2605;
1291.2000;0.5551;1.2629;
1291.5000;0.5543;1.2605;
1291.8000;0.5551;1.2629;
1292.1000;0.5551;1.2652;
1292.4000;0.5551;1.2746;
1292.7000;0.5535;1.2840;
1293.0000;0.5551;1.2840;
1293.3000;0.5519;1.2793;
1293.6000;0.5568;1.2840;
1293.9000;0.5551;1.2793;
1294.2000;0.5543;1.2769;
1294.5000;0.5560;1.2793;
1294.8000;0.5543;1.2840;
1295.1000;0.5535;1.2793;
1295.4000;0.5543;1.2840;
1295.7000;0.5600;1.2981;
1296.0000;0.5543;1.2746;
1296.3000;0.5600;1.2816;
1296.6000;0.5535;1.2652;
1296.9000;0.5535;1.2722;
1297.2000;0.5543;1.2699;
1297.5000;0.5551;1.2746;
1297.8000;0.5503;1.2699;
1298.1000;0.5543;1.2793;
1298.4000;0.5535;1.2863;
1298.7000;0.5543;1.2746;
1299.0000;0.5527;1.2722;
1299.3000;0.5543;1.2746;
1299.6000;0.5543;1.2699;
1299.9000;0.5551;1.2675;
1300.2000;0.5568;1.2558;
1300.5000;0.5649;1.2769;
1300.8000;0.5560;1.2582;
1301.1000;0.5560;1.2605;
1301.4000;0.5486;1.2441;
1301.7000;0.5551;1.2582;
1302.0000;0.5543;1.2535;
1302.3000;0.5560;1.2652;
1302.6000;0.5560;1.2675;
1302.9000;0.5551;1.2675;
1303.2000;0.5543;1.2675;
1303.5000;0.5551;1.2652;
1303.8000;0.5543;1.2746;
1304.1000;0.5535;1.2652;
1304.4000;0.5551;1.2675;
1304.7000;0.5551;1.2652;
1305.0000;0.5560;1.2722;
1305.3000;0.5560;1.2699;
1305.6000;0.5535;1.2605;
1305.9000;0.5551;1.2629;
1306.2000;0.5560;1.2722;
1306.5000;0.5543;1.2652;
1306.8000;0.5543;1.2675;
1307.1000;0.5560;1.2675;
1307.4000;0.5551;1.2629;
1307.7000;0.5535;1.2652;
1308.0000;0.5519;1.2582;
1308.3000;0.5535;1.2722;
1308.6000;0.5543;1.2699;
1308.9000;0.5551;1.2769;
1309.2000;0.5551;1.2793;
1309.5000;0.5535;1.2699;
1309.8000;0.5527;1.2722;
1310.1000;0.5560;1.2746;
1310.4000;0.5519;1.2675;
1310.7000;0.5543;1.2675;
1311.0000;0.5551;1.2699;
1311.3000;0.5560;1.2675;
1311.6000;0.5551;1.2582;
1311.9000;0.5519;1.2558;
1312.2000;0.5543;1.2629;
1312.5000;0.5568;1.2793;
1312.8000;0.5551;1.2699;
1313.1000;0.5535;1.2675;
1313.4000;0.5503;1.2605;
1313.7000;0.5543;1.2769;
1314.0000;0.5576;1.2816;
1314.3000;0.5543;1.2746;
1314.6000;0.5584;1.2863;
1314.9000;0.5551;1.2793;
1315.2000;0.5527;1.2769;
1315.5000;0.5551;1.2746;
1315.8000;0.5551;1.2746;
1316.1000;0.5535;1.2699;
1316.4000;0.5568;1.2699;
1316.7000;0.5543;1.2629;
1317.0000;0.5543;1.2652;
1317.3000;0.5543;1.2652;
1317.6000;0.5462;1.2370;
1317.9000;0.5551;1.2629;
1318.2000;0.5535;1.2605;
1318.5000;0.5551;1.2675;
1318.8000;0.5543;1.2605;
1319.1000;0.5535;1.2511;
1319.4000;0.5535;1.2511;
1319.7000;0.5535;1.2464;
1320.0000;0.5527;1.2582;
1320.3000;0.5535;1.2675;
1320.6000;0.5535;1.2675;
1320.9000;0.5576;1.2863;
1321.2000;0.5551;1.2840;
1321.5000;0.5543;1.2793;
1321.8000;0.5535;1.2652;
1322.1000;0.5584;1.2746;
1322.4000;0.5543;1.2605;
1322.7000;0.5543;1.2558;
1323.0000;0.5551;1.2605;
1323.3000;0.5535;1.2675;
1323.6000;0.5511;1.2582;
1323.9000;0.5560;1.2652;
1324.2000;0.5551;1.2605;
1324.5000;0.5551;1.2629;
1324.8000;0.5543;1.2675;
1325.1000;0.5543;1.2675;
1325.4000;0.5543;1.2652;
1325.7000;0.5551;1.2699;
1326.0000;0.5535;1.2652;
1326.3000;0.5543;1.2582;
1326.6000;0.5568;1.2535;
1326.9000;0.5543;1.2582;
1327.2000;0.5625;1.2816;
1327.5000;0.5551;1.2582;
1327.8000;0.5535;1.2558;
1328.1000;0.5560;1.2652;
1328.4000;0.5519;1.2511;
1328.7000;0.5551;1.2605;
1329.0000;0.5543;1.2605;
1329.3000;0.5527;1.2699;
1329.6000;0.5560;1.2722;
1329.9000;0.5543;1.2699;
1330.2000;0.5543;1.2652;
1330.5000;0.5551;1.2652;
1330.8000;0.5543;1.2558;
1331.1000;0.5543;1.2488;
1331.4000;0.5535;1.2535;
1331.7000;0.5511;1.2558;
1332.0000;0.5535;1.2675;
1332.3000;0.5535;1.2652;
1332.6000;0.5551;1.2652;
1332.9000;0.5535;1.2699;
1333.2000;0.5551;1.2793;
1333.5000;0.5519;1.2793;
1333.8000;0.5560;1.2863;
1334.1000;0.5551;1.2816;
1334.4000;0.5543;1.2746;
1334.7000;0.5551;1.2769;
1335.0000;0.5535;1.2863;
1335.3000;0.5551;1.2863;
1335.6000;0.5470;1.2652;
1335.9000;0.5543;1.2816;
1336.2000;0.5560;1.2887;
1336.5000;0.5527;1.2816;
1336.8000;0.5551;1.2840;
1337.1000;0.5543;1.2863;
1337.4000;0.5543;1.2816;
1337.7000;0.5527;1.2816;
1338.0000;0.5543;1.2863;
1338.3000;0.5551;1.2910;
1338.6000;0.5576;1.2887;
1338.9000;0.5535;1.2769;
1339.2000;0.5551;1.2793;
1339.5000;0.5543;1.2746;
1339.8000;0.5560;1.2816;
1340.1000;0.5568;1.2934;
1340.4000;0.5543;1.2887;
1340.7000;0.5551;1.2981;
1341.0000;0.5551;1.2910;
1341.3000;0.5535;1.2769;
1341.6000;0.5527;1.2816;
1341.9000;0.5470;1.2722;
1342.2000;0.5551;1.3028;
1342.5000;0.5543;1.2981;
1342.8000;0.5535;1.2887;
1343.1000;0.5543;1.2887;
1343.4000;0.5551;1.2910;
1343.7000;0.5551;1.2910;
1344.0000;0.5535;1.2816;
1344.3000;0.5608;1.3051;
1344.6000;0.5551;1.2887;
1344.9000;0.5535;1.2840;
1345.2000;0.5543;1.2863;
1345.5000;0.5535;1.2840;
1345.8000;0.5535;1.2840;
1346.1000;0.5527;1.2840;
1346.4000;0.5543;1.2934;
1346.7000;0.5503;1.2722;
1347.0000;0.5543;1.2840;
1347.3000;0.5535;1.2840;
1347.6000;0.5535;1.2863;
1347.9000;0.5535;1.2769;
1348.2000;0.5535;1.2793;
1348.5000;0.5535;1.2793;
1348.8000;0.5535;1.2793;
1349.1000;0.5551;1.2769;
1349.4000;0.5503;1.2629;
1349.7000;0.5551;1.2887;
1350.0000;0.5543;1.2863;
1350.3000;0.5543;1.2863;
1350.6000;0.5543;1.2793;
1350.9000;0.5454;1.2629;
1351.2000;0.5535;1.2887;
1351.5000;0.5543;1.2910;
1351.8000;0.5592;1.2934;
1352.1000;0.5535;1.2793;
1352.4000;0.5543;1.2840;
1352.7000;0.5560;1.2910;
1353.0000;0.5600;1.2934;
1353.3000;0.5511;1.2652;
1353.6000;0.5543;1.2793;
1353.9000;0.5551;1.2887;
1354.2000;0.5584;1.2887;
1354.5000;0.5551;1.2746;
1354.8000;0.5519;1.2722;
1355.1000;0.5551;1.2840;
1355.4000;0.5543;1.2793;
1355.7000;0.5503;1.2675;
1356.0000;0.5543;1.2722;
1356.3000;0.5551;1.2840;
1356.6000;0.5608;1.2934;
1356.9000;0.5527;1.2793;
1357.2000;0.5535;1.2793;
1357.5000;0.5560;1.2910;
1357.8000;0.5551;1.2863;
1358.1000;0.5527;1.2746;
1358.4000;0.5543;1.2816;
1358.7000;0.5543;1.2816;
1359.0000;0.5682;1.3215;
1359.3000;0.5535;1.2863;
1359.6000;0.5478;1.2722;
1359.9000;0.5551;1.2957;
1360.2000;0.5568;1.2934;
1360.5000;0.5543;1.2910;
1360.8000;0.5543;1.2910;
1361.1000;0.5543;1.2910;
1361.4000;0.5535;1.2840;
1361.7000;0.5543;1.2863;
1362.0000;0.5527;1.2840;
1362.3000;0.5543;1.2887;
1362.6000;0.5543;1.2840;
1362.9000;0.5543;1.2793;
1363.2000;0.5527;1.2769;
1363.5000;0.5543;1.2746;
1363.8000;0.5551;1.2746;
1364.1000;0.5551;1.2722;
1364.4000;0.5551;1.2769;
1364.7000;0.5568;1.2840;
1365.0000;0.5560;1.2887;
1365.3000;0.5543;1.2934;
1365.6000;0.5560;1.3004;
1365.9000;0.5519;1.2981;
1366.2000;0.5551;1.2957;
1366.5000;0.5543;1.2981;
1366.8000;0.5568;1.3051;
1367.1000;0.5568;1.3051;
1367.4000;0.5535;1.3004;
1367.7000;0.5543;1.3004;
1368.0000;0.5560;1.3075;
1368.3000;0.5535;1.3098;
1368.6000;0.5535;1.3051;
1368.9000;0.5535;1.2981;
1369.2000;0.5543;1.2957;
1369.5000;0.5543;1.2957;
1369.8000;0.5519;1.2934;
1370.1000;0.5543;1.2887;
1370.4000;0.5543;1.3004;
1370.7000;0.5551;1.3051;
1371.0000;0.5543;1.2981;
1371.3000;0.5543;1.3028;
1371.6000;0.5535;1.3028;
1371.9000;0.5560;1.3098;
1372.2000;0.5535;1.3075;
1372.5000;0.5519;1.2981;
1372.8000;0.5551;1.3004;
1373.1000;0.5535;1.3004;
1373.4000;0.5535;1.2934;
1373.7000;0.5535;1.2981;
1374.0000;0.5511;1.2887;
1374.3000;0.5535;1.2981;
1374.6000;0.5543;1.3051;
1374.9000;0.5543;1.3004;
1375.2000;0.5543;1.2957;
1375.5000;0.5527;1.2934;
1375.8000;0.5519;1.2840;
1376.1000;0.5560;1.2840;
1376.4000;0.5535;1.2816;
1376.7000;0.5551;1.2863;
1377.0000;0.5535;1.2887;
1377.3000;0.5551;1.2910;
1377.6000;0.5551;1.2910;
1377.9000;0.5511;1.2793;
1378.2000;0.5543;1.3051;
1378.5000;0.5543;1.3051;
1378.8000;0.5519;1.3051;
1379.1000;0.5543;1.3051;
1379.4000;0.5543;1.3075;
1379.7000;0.5543;1.3028;
1380.0000;0.5551;1.3004;
1380.3000;0.5543;1.2981;
1380.6000;0.5527;1.3004;
1380.9000;0.5535;1.3028;
1381.2000;0.5608;1.3192;
1381.5000;0.5527;1.2887;
1381.8000;0.5551;1.2957;
1382.1000;0.5527;1.3004;
1382.4000;0.5543;1.3004;
1382.7000;0.5519;1.2910;
1383.0000;0.5560;1.2934;
1383.3000;0.5543;1.2910;
1383.6000;0.5543;1.2910;
1383.9000;0.5551;1.2957;
1384.2000;0.5608;1.3192;
1384.5000;0.5535;1.3051;
1384.8000;0.5551;1.3075;
1385.1000;0.5495;1.2887;
1385.4000;0.5551;1.2934;
1385.7000;0.5543;1.2957;
1386.0000;0.5551;1.2981;
1386.3000;0.5551;1.2957;
1386.6000;0.5560;1.3004;
1386.9000;0.5543;1.3028;
1387.2000;0.5551;1.3075;
1387.5000;0.5551;1.3051;
1387.8000;0.5551;1.3028;
1388.1000;0.5543;1.2957;
1388.4000;0.5543;1.2887;
1388.7000;0.5543;1.2887;
1389.0000;0.5551;1.2910;
1389.3000;0.5519;1.2887;
1389.6000;0.5551;1.2887;
1389.9000;0.5503;1.2722;
1390.2000;0.5519;1.2840;
1390.5000;0.5535;1.2816;
1390.8000;0.5543;1.2746;
1391.1000;0.5519;1.2746;
1391.4000;0.5608;1.3004;
1391.7000;0.5535;1.2887;
1392.0000;0.5527;1.2816;
1392.3000;0.5527;1.2840;
1392.6000;0.5543;1.2910;
1392.9000;0.5560;1.2981;
1393.2000;0.5551;1.2957;
1393.5000;0.5592;1.3098;
1393.8000;0.5551;1.3098;
1394.1000;0.5560;1.3051;
1394.4000;0.5535;1.2934;
1394.7000;0.5527;1.2957;
1395.0000;0.5503;1.2816;
1395.3000;0.5535;1.2840;
1395.6000;0.5527;1.2840;
1395.9000;0.5527;1.2840;
1396.2000;0.5519;1.2887;
1396.5000;0.5535;1.2910;
1396.8000;0.5527;1.2863;
1397.1000;0.5535;1.2934;
1397.4000;0.5503;1.2863;
1397.7000;0.5543;1.2957;
1398.0000;0.5560;1.3028;
1398.3000;0.5543;1.2934;
1398.6000;0.5535;1.2816;
1398.9000;0.5535;1.2769;
1399.2000;0.5543;1.2769;
1399.5000;0.5543;1.2722;
1399.8000;0.5543;1.2722;
