time/ms;Fluo/V;P700 deltaI/I x10³;
-199.8000;0.6048;1.2840;
-199.5000;0.6056;1.2793;
-199.2000;0.6032;1.2699;
-198.9000;0.6056;1.2699;
-198.6000;0.6048;1.2699;
-198.3000;0.6024;1.2699;
-198.0000;0.6032;1.2722;
-197.7000;0.6032;1.2746;
-197.4000;0.6056;1.2887;
-197.1000;0.6072;1.2910;
-196.8000;0.6089;1.2910;
-196.5000;0.5975;1.2675;
-196.2000;0.6040;1.2793;
-195.9000;0.6040;1.2816;
-195.6000;0.6040;1.2769;
-195.3000;0.6032;1.2769;
-195.0000;0.6048;1.2887;
-194.7000;0.6032;1.2816;
-194.4000;0.6056;1.2863;
-194.1000;0.6040;1.2769;
-193.8000;0.6048;1.2722;
-193.5000;0.6040;1.2746;
-193.2000;0.6007;1.2629;
-192.9000;0.6040;1.2675;
-192.6000;0.6040;1.2675;
-192.3000;0.6040;1.2699;
-192.0000;0.6040;1.2699;
-191.7000;0.6024;1.2652;
-191.4000;0.6032;1.2629;
-191.1000;0.6015;1.2535;
-190.8000;0.6024;1.2558;
-190.5000;0.6048;1.2582;
-190.2000;0.6032;1.2582;
-189.9000;0.6048;1.2652;
-189.6000;0.6048;1.2582;
-189.3000;0.6032;1.2535;
-189.0000;0.6032;1.2605;
-188.7000;0.6048;1.2605;
-188.4000;0.6040;1.2675;
-188.1000;0.6040;1.2675;
-187.8000;0.6015;1.2582;
-187.5000;0.6032;1.2511;
-187.2000;0.6015;1.2535;
-186.9000;0.6040;1.2605;
-186.6000;0.6032;1.2605;
-186.3000;0.5934;1.2347;
-186.0000;0.6048;1.2558;
-185.7000;0.6024;1.2558;
-185.4000;0.6081;1.2699;
-185.1000;0.5967;1.2441;
-184.8000;0.6048;1.2558;
-184.5000;0.6032;1.2464;
-184.2000;0.6081;1.2629;
-183.9000;0.6040;1.2511;
-183.6000;0.6048;1.2582;
-183.3000;0.6032;1.2488;
-183.0000;0.6032;1.2488;
-182.7000;0.6048;1.2441;
-182.4000;0.6024;1.2488;
-182.1000;0.6048;1.2535;
-181.8000;0.6040;1.2511;
-181.5000;0.6032;1.2488;
-181.2000;0.6024;1.2441;
-180.9000;0.6040;1.2464;
-180.6000;0.6040;1.2441;
-180.3000;0.6024;1.2370;
-180.0000;0.6040;1.2370;
-179.7000;0.6032;1.2394;
-179.4000;0.6015;1.2417;
-179.1000;0.6048;1.2488;
-178.8000;0.6032;1.2464;
-178.5000;0.6040;1.2511;
-178.2000;0.6048;1.2535;
-177.9000;0.6040;1.2558;
-177.6000;0.6040;1.2582;
-177.3000;0.6032;1.2464;
-177.0000;0.6064;1.2535;
-176.7000;0.6048;1.2488;
-176.4000;0.6015;1.2370;
-176.1000;0.6048;1.2511;
-175.8000;0.6024;1.2582;
-175.5000;0.6032;1.2629;
-175.2000;0.6048;1.2675;
-174.9000;0.6024;1.2605;
-174.6000;0.6024;1.2629;
-174.3000;0.6032;1.2652;
-174.0000;0.6032;1.2605;
-173.7000;0.6040;1.2605;
-173.4000;0.6040;1.2558;
-173.1000;0.6056;1.2582;
-172.8000;0.6064;1.2558;
-172.5000;0.6040;1.2582;
-172.2000;0.5967;1.2276;
-171.9000;0.6024;1.2464;
-171.6000;0.6048;1.2488;
-171.3000;0.6032;1.2441;
-171.0000;0.6040;1.2417;
-170.7000;0.6040;1.2417;
-170.4000;0.6040;1.2511;
-170.1000;0.6040;1.2488;
-169.8000;0.6024;1.2441;
-169.5000;0.6040;1.2488;
-169.2000;0.6032;1.2488;
-168.9000;0.6048;1.2464;
-168.6000;0.6048;1.2535;
-168.3000;0.6032;1.2535;
-168.0000;0.6032;1.2535;
-167.7000;0.6048;1.2629;
-167.4000;0.6072;1.2675;
-167.1000;0.6040;1.2675;
-166.8000;0.5999;1.2535;
-166.5000;0.6113;1.2816;
-166.2000;0.6032;1.2605;
-165.9000;0.6024;1.2582;
-165.6000;0.6032;1.2558;
-165.3000;0.6040;1.2488;
-165.0000;0.6056;1.2582;
-164.7000;0.6040;1.2629;
-164.4000;0.6040;1.2652;
-164.1000;0.6040;1.2699;
-163.8000;0.6064;1.2675;
-163.5000;0.6032;1.2629;
-163.2000;0.6015;1.2582;
-162.9000;0.6032;1.2582;
-162.6000;0.6040;1.2652;
-162.3000;0.6032;1.2558;
-162.0000;0.6040;1.2488;
-161.7000;0.6040;1.2488;
-161.4000;0.6015;1.2347;
-161.1000;0.5999;1.2253;
-160.8000;0.6007;1.2230;
-160.5000;0.6024;1.2323;
-160.2000;0.6064;1.2464;
-159.9000;0.6015;1.2464;
-159.6000;0.6024;1.2582;
-159.3000;0.6015;1.2629;
-159.0000;0.6064;1.2793;
-158.7000;0.6024;1.2793;
-158.4000;0.6081;1.2981;
-158.1000;0.6048;1.2887;
-157.8000;0.6056;1.2863;
-157.5000;0.6105;1.2957;
-157.2000;0.6105;1.2934;
-156.9000;0.6024;1.2722;
-156.6000;0.6032;1.2793;
-156.3000;0.6024;1.2722;
-156.0000;0.6040;1.2816;
-155.7000;0.6032;1.2769;
-155.4000;0.6064;1.2746;
-155.1000;0.6032;1.2629;
-154.8000;0.6048;1.2582;
-154.5000;0.6056;1.2675;
-154.2000;0.6056;1.2652;
-153.9000;0.6056;1.2746;
-153.6000;0.6048;1.2769;
-153.3000;0.6040;1.2793;
-153.0000;0.6032;1.2887;
-152.7000;0.6040;1.2769;
-152.4000;0.6105;1.2910;
-152.1000;0.6015;1.2699;
-151.8000;0.6024;1.2746;
-151.5000;0.6024;1.2699;
-151.2000;0.6032;1.2629;
-150.9000;0.6056;1.2605;
-150.6000;0.6048;1.2675;
-150.3000;0.6015;1.2675;
-150.0000;0.6048;1.2746;
-149.7000;0.6040;1.2722;
-149.4000;0.6048;1.2746;
-149.1000;0.6032;1.2722;
-148.8000;0.6024;1.2746;
-148.5000;0.6024;1.2746;
-148.2000;0.6040;1.2840;
-147.9000;0.6048;1.2863;
-147.6000;0.6032;1.2887;
-147.3000;0.6064;1.2957;
-147.0000;0.6040;1.2957;
-146.7000;0.6032;1.2887;
-146.4000;0.6015;1.2863;
-146.1000;0.6040;1.2887;
-145.8000;0.6064;1.2910;
-145.5000;0.6040;1.2746;
-145.2000;0.6048;1.2699;
-144.9000;0.6024;1.2699;
-144.6000;0.6064;1.2746;
-144.3000;0.6048;1.2746;
-144.0000;0.6048;1.2699;
-143.7000;0.6024;1.2699;
-143.4000;0.6032;1.2840;
-143.1000;0.6040;1.2887;
-142.8000;0.6072;1.3004;
-142.5000;0.6024;1.3004;
-142.2000;0.6048;1.3098;
-141.9000;0.6064;1.3145;
-141.6000;0.6024;1.3028;
-141.3000;0.6032;1.3028;
-141.0000;0.6040;1.2957;
-140.7000;0.6040;1.2957;
-140.4000;0.6015;1.2863;
-140.1000;0.6024;1.2910;
-139.8000;0.6089;1.3075;
-139.5000;0.6048;1.2981;
-139.2000;0.6032;1.2910;
-138.9000;0.6040;1.2863;
-138.6000;0.6032;1.2863;
-138.3000;0.6040;1.2863;
-138.0000;0.6056;1.2910;
-137.7000;0.6040;1.2910;
-137.4000;0.6040;1.2981;
-137.1000;0.6040;1.3051;
-136.8000;0.6015;1.2957;
-136.5000;0.6024;1.2957;
-136.2000;0.6032;1.2957;
-135.9000;0.6007;1.2910;
-135.6000;0.6048;1.2957;
-135.3000;0.6048;1.2981;
-135.0000;0.6064;1.3075;
-134.7000;0.6040;1.3075;
-134.4000;0.6032;1.3051;
-134.1000;0.6056;1.2981;
-133.8000;0.6040;1.2840;
-133.5000;0.6040;1.2793;
-133.2000;0.6040;1.2769;
-132.9000;0.6048;1.2722;
-132.6000;0.6040;1.2769;
-132.3000;0.6048;1.2863;
-132.0000;0.6048;1.2840;
-131.7000;0.6056;1.2934;
-131.4000;0.6154;1.3262;
-131.1000;0.6032;1.2957;
-130.8000;0.6032;1.2934;
-130.5000;0.6064;1.3051;
-130.2000;0.6064;1.3051;
-129.9000;0.6032;1.3051;
-129.6000;0.6015;1.2981;
-129.3000;0.6048;1.3028;
-129.0000;0.6072;1.3098;
-128.7000;0.6048;1.3051;
-128.4000;0.6048;1.3051;
-128.1000;0.6048;1.3028;
-127.8000;0.6040;1.3075;
-127.5000;0.6040;1.3098;
-127.2000;0.6032;1.3004;
-126.9000;0.5999;1.2793;
-126.6000;0.6048;1.2934;
-126.3000;0.6007;1.2840;
-126.0000;0.6007;1.2793;
-125.7000;0.6040;1.2863;
-125.4000;0.5942;1.2722;
-125.1000;0.6048;1.2957;
-124.8000;0.6040;1.2910;
-124.5000;0.6048;1.3004;
-124.2000;0.5983;1.2769;
-123.9000;0.6056;1.2981;
-123.6000;0.6032;1.2957;
-123.3000;0.6032;1.2910;
-123.0000;0.6032;1.3004;
-122.7000;0.6007;1.2981;
-122.4000;0.6015;1.3028;
-122.1000;0.6007;1.2934;
-121.8000;0.6032;1.2934;
-121.5000;0.6024;1.2910;
-121.2000;0.6040;1.3028;
-120.9000;0.6048;1.3168;
-120.6000;0.6024;1.3098;
-120.3000;0.6024;1.3051;
-120.0000;0.6040;1.2981;
-119.7000;0.6040;1.3028;
-119.4000;0.6024;1.2934;
-119.1000;0.6040;1.3028;
-118.8000;0.6072;1.3121;
-118.5000;0.6064;1.3051;
-118.2000;0.6064;1.2981;
-117.9000;0.5942;1.2746;
-117.6000;0.6024;1.3004;
-117.3000;0.6040;1.2910;
-117.0000;0.6129;1.3098;
-116.7000;0.6032;1.2863;
-116.4000;0.6015;1.2816;
-116.1000;0.6032;1.2840;
-115.8000;0.6032;1.2887;
-115.5000;0.6048;1.2981;
-115.2000;0.6040;1.3004;
-114.9000;0.6024;1.3028;
-114.6000;0.6048;1.3098;
-114.3000;0.6056;1.3121;
-114.0000;0.6032;1.3051;
-113.7000;0.6040;1.3004;
-113.4000;0.6048;1.2957;
-113.1000;0.6040;1.2934;
-112.8000;0.6032;1.2957;
-112.5000;0.6064;1.3051;
-112.2000;0.6048;1.3004;
-111.9000;0.6048;1.3028;
-111.6000;0.6007;1.2957;
-111.3000;0.6024;1.2910;
-111.0000;0.6048;1.2981;
-110.7000;0.6056;1.2840;
-110.4000;0.6024;1.2793;
-110.1000;0.6015;1.2793;
-109.8000;0.6040;1.2816;
-109.5000;0.6056;1.2910;
-109.2000;0.6072;1.2910;
-108.9000;0.6032;1.2793;
-108.6000;0.6048;1.2746;
-108.3000;0.6024;1.2699;
-108.0000;0.6032;1.2699;
-107.7000;0.6024;1.2652;
-107.4000;0.6040;1.2746;
-107.1000;0.6024;1.2722;
-106.8000;0.6032;1.2722;
-106.5000;0.6024;1.2722;
-106.2000;0.6040;1.2793;
-105.9000;0.6032;1.2887;
-105.6000;0.6024;1.2957;
-105.3000;0.6032;1.2840;
-105.0000;0.6024;1.2699;
-104.7000;0.6048;1.2699;
-104.4000;0.6064;1.2863;
-104.1000;0.6040;1.2746;
-103.8000;0.6032;1.2793;
-103.5000;0.6048;1.2863;
-103.2000;0.6048;1.2863;
-102.9000;0.6040;1.2769;
-102.6000;0.6064;1.2793;
-102.3000;0.6007;1.2652;
-102.0000;0.5942;1.2511;
-101.7000;0.6040;1.2722;
-101.4000;0.6105;1.2957;
-101.1000;0.6032;1.2699;
-100.8000;0.6032;1.2793;
-100.5000;0.6048;1.2957;
-100.2000;0.6015;1.2910;
-99.9000;0.6024;1.2863;
-99.6000;0.6032;1.2746;
-99.3000;0.6056;1.2769;
-99.0000;0.5975;1.2558;
-98.7000;0.6024;1.2699;
-98.4000;0.6032;1.2769;
-98.1000;0.6032;1.2863;
-97.8000;0.6024;1.3004;
-97.5000;0.6032;1.3051;
-97.2000;0.6024;1.2910;
-96.9000;0.6072;1.2934;
-96.6000;0.6040;1.2887;
-96.3000;0.6048;1.2816;
-96.0000;0.6032;1.2722;
-95.7000;0.6032;1.2699;
-95.4000;0.6032;1.2769;
-95.1000;0.6024;1.2675;
-94.8000;0.6032;1.2699;
-94.5000;0.6024;1.2722;
-94.2000;0.6024;1.2746;
-93.9000;0.6032;1.2863;
-93.6000;0.6048;1.2840;
-93.3000;0.6048;1.2840;
-93.0000;0.6048;1.2863;
-92.7000;0.6048;1.2887;
-92.4000;0.6032;1.2957;
-92.1000;0.6048;1.2910;
-91.8000;0.6056;1.2957;
-91.5000;0.6032;1.2887;
-91.2000;0.6032;1.2957;
-90.9000;0.6056;1.2981;
-90.6000;0.6032;1.2910;
-90.3000;0.6048;1.2957;
-90.0000;0.6056;1.2910;
-89.7000;0.6032;1.2910;
-89.4000;0.6007;1.2957;
-89.1000;0.6024;1.3004;
-88.8000;0.6040;1.3051;
-88.5000;0.6024;1.3004;
-88.2000;0.6007;1.2910;
-87.9000;0.6032;1.3075;
-87.6000;0.6024;1.3028;
-87.3000;0.6072;1.3051;
-87.0000;0.6040;1.3028;
-86.7000;0.6040;1.3051;
-86.4000;0.6048;1.2957;
-86.1000;0.6032;1.2887;
-85.8000;0.6040;1.2840;
-85.5000;0.6048;1.2769;
-85.2000;0.6024;1.2699;
-84.9000;0.6032;1.2769;
-84.6000;0.6032;1.2769;
-84.3000;0.5942;1.2511;
-84.0000;0.6024;1.2769;
-83.7000;0.6040;1.2769;
-83.4000;0.6015;1.2699;
-83.1000;0.5893;1.2417;
-82.8000;0.6032;1.2746;
-82.5000;0.6032;1.2746;
-82.2000;0.6032;1.2793;
-81.9000;0.6024;1.2816;
-81.6000;0.6040;1.2816;
-81.3000;0.5967;1.2558;
-81.0000;0.6032;1.2769;
-80.7000;0.6048;1.2769;
-80.4000;0.6072;1.2887;
-80.1000;0.6007;1.2793;
-79.8000;0.6048;1.2816;
-79.5000;0.6024;1.2769;
-79.2000;0.6032;1.2769;
-78.9000;0.6056;1.2910;
-78.6000;0.6040;1.2981;
-78.3000;0.6024;1.2957;
-78.0000;0.6024;1.2957;
-77.7000;0.6024;1.2863;
-77.4000;0.6072;1.2887;
-77.1000;0.6072;1.2910;
-76.8000;0.6081;1.2934;
-76.5000;0.6040;1.2816;
-76.2000;0.6040;1.2863;
-75.9000;0.6048;1.2910;
-75.6000;0.6048;1.2863;
-75.3000;0.6032;1.2887;
-75.0000;0.6048;1.2934;
-74.7000;0.6040;1.2910;
-74.4000;0.6072;1.2934;
-74.1000;0.6032;1.2863;
-73.8000;0.6162;1.3239;
-73.5000;0.6032;1.2981;
-73.2000;0.6032;1.3004;
-72.9000;0.6024;1.2957;
-72.6000;0.6015;1.2910;
-72.3000;0.6040;1.2957;
-72.0000;0.6048;1.2981;
-71.7000;0.6024;1.2934;
-71.4000;0.6048;1.2981;
-71.1000;0.6064;1.3051;
-70.8000;0.6048;1.3028;
-70.5000;0.6032;1.3004;
-70.2000;0.6024;1.2887;
-69.9000;0.6048;1.2769;
-69.6000;0.6072;1.2910;
-69.3000;0.6040;1.2840;
-69.0000;0.6048;1.2887;
-68.7000;0.6032;1.2887;
-68.4000;0.5950;1.2605;
-68.1000;0.6032;1.2863;
-67.8000;0.6032;1.2934;
-67.5000;0.6040;1.2934;
-67.2000;0.6032;1.2840;
-66.9000;0.6048;1.2910;
-66.6000;0.6015;1.2863;
-66.3000;0.6040;1.2887;
-66.0000;0.6072;1.2981;
-65.7000;0.6048;1.2957;
-65.4000;0.6048;1.3004;
-65.1000;0.5975;1.2840;
-64.8000;0.6048;1.3121;
-64.5000;0.6040;1.3192;
-64.2000;0.5991;1.3098;
-63.9000;0.5958;1.3051;
-63.6000;0.6024;1.3075;
-63.3000;0.6032;1.3075;
-63.0000;0.6015;1.2934;
-62.7000;0.6032;1.2934;
-62.4000;0.6015;1.2957;
-62.1000;0.6024;1.2887;
-61.8000;0.6032;1.2887;
-61.5000;0.6032;1.2746;
-61.2000;0.6072;1.2746;
-60.9000;0.6040;1.2746;
-60.6000;0.6032;1.2769;
-60.3000;0.6024;1.2746;
-60.0000;0.6040;1.2840;
-59.7000;0.6040;1.2769;
-59.4000;0.6040;1.2840;
-59.1000;0.6097;1.3028;
-58.8000;0.6048;1.2981;
-58.5000;0.6040;1.2934;
-58.2000;0.6040;1.2957;
-57.9000;0.6032;1.2981;
-57.6000;0.5999;1.2887;
-57.3000;0.6040;1.2957;
-57.0000;0.6048;1.3004;
-56.7000;0.6056;1.2981;
-56.4000;0.6032;1.2793;
-56.1000;0.6072;1.2816;
-55.8000;0.6007;1.2582;
-55.5000;0.6056;1.2746;
-55.2000;0.6024;1.2722;
-54.9000;0.6032;1.2840;
-54.6000;0.6024;1.2887;
-54.3000;0.6056;1.2816;
-54.0000;0.6072;1.2722;
-53.7000;0.6032;1.2675;
-53.4000;0.6113;1.2887;
-53.1000;0.6032;1.2675;
-52.8000;0.6048;1.2793;
-52.5000;0.6040;1.2769;
-52.2000;0.6015;1.2793;
-51.9000;0.6032;1.2863;
-51.6000;0.6048;1.3051;
-51.3000;0.6032;1.2981;
-51.0000;0.6024;1.2910;
-50.7000;0.6024;1.2957;
-50.4000;0.6015;1.2887;
-50.1000;0.6024;1.2863;
-49.8000;0.6015;1.2840;
-49.5000;0.6007;1.2793;
-49.2000;0.6032;1.2863;
-48.9000;0.6040;1.2840;
-48.6000;0.6040;1.2840;
-48.3000;0.6048;1.2863;
-48.0000;0.6064;1.2957;
-47.7000;0.6064;1.2910;
-47.4000;0.6040;1.2863;
-47.1000;0.6048;1.2934;
-46.8000;0.6015;1.2887;
-46.5000;0.6072;1.3004;
-46.2000;0.6015;1.2863;
-45.9000;0.6040;1.2816;
-45.6000;0.5999;1.2699;
-45.3000;0.6056;1.2840;
-45.0000;0.6024;1.2816;
-44.7000;0.6032;1.2840;
-44.4000;0.6048;1.2816;
-44.1000;0.6056;1.2816;
-43.8000;0.6072;1.2840;
-43.5000;0.6040;1.2863;
-43.2000;0.6015;1.2722;
-42.9000;0.6032;1.2746;
-42.6000;0.6056;1.2793;
-42.3000;0.6040;1.2840;
-42.0000;0.6040;1.2769;
-41.7000;0.6024;1.2769;
-41.4000;0.6032;1.2840;
-41.1000;0.5999;1.2699;
-40.8000;0.6040;1.2816;
-40.5000;0.6048;1.2840;
-40.2000;0.6040;1.2816;
-39.9000;0.6072;1.2957;
-39.6000;0.6048;1.2910;
-39.3000;0.6024;1.2699;
-39.0000;0.6015;1.2652;
-38.7000;0.6024;1.2675;
-38.4000;0.6032;1.2699;
-38.1000;0.6056;1.2769;
-37.8000;0.6056;1.2699;
-37.5000;0.6040;1.2769;
-37.2000;0.6024;1.2887;
-36.9000;0.5983;1.2793;
-36.6000;0.6007;1.2722;
-36.3000;0.6024;1.2769;
-36.0000;0.6032;1.2699;
-35.7000;0.6048;1.2793;
-35.4000;0.5926;1.2488;
-35.1000;0.6024;1.2652;
-34.8000;0.6105;1.2910;
-34.5000;0.6040;1.2793;
-34.2000;0.5999;1.2722;
-33.9000;0.6040;1.2863;
-33.6000;0.6040;1.2840;
-33.3000;0.6024;1.2722;
-33.0000;0.5999;1.2675;
-32.7000;0.6024;1.2675;
-32.4000;0.6040;1.2675;
-32.1000;0.6048;1.2793;
-31.8000;0.5983;1.2629;
-31.5000;0.6024;1.2675;
-31.2000;0.6007;1.2535;
-30.9000;0.6113;1.2793;
-30.6000;0.6040;1.2605;
-30.3000;0.6048;1.2699;
-30.0000;0.6015;1.2675;
-29.7000;0.6040;1.2699;
-29.4000;0.6040;1.2722;
-29.1000;0.6040;1.2675;
-28.8000;0.6048;1.2769;
-28.5000;0.6015;1.2675;
-28.2000;0.6032;1.2699;
-27.9000;0.6024;1.2722;
-27.6000;0.6032;1.2675;
-27.3000;0.6097;1.2746;
-27.0000;0.6048;1.2605;
-26.7000;0.6032;1.2582;
-26.4000;0.6007;1.2558;
-26.1000;0.6056;1.2675;
-25.8000;0.6040;1.2652;
-25.5000;0.6032;1.2699;
-25.2000;0.6048;1.2769;
-24.9000;0.6032;1.2746;
-24.6000;0.6040;1.2793;
-24.3000;0.6032;1.2840;
-24.0000;0.6032;1.2793;
-23.7000;0.6048;1.2769;
-23.4000;0.6040;1.2746;
-23.1000;0.6040;1.2722;
-22.8000;0.6040;1.2699;
-22.5000;0.6032;1.2722;
-22.2000;0.6040;1.2769;
-21.9000;0.6015;1.2675;
-21.6000;0.6032;1.2746;
-21.3000;0.6048;1.2793;
-21.0000;0.6032;1.2722;
-20.7000;0.6048;1.2699;
-20.4000;0.6048;1.2722;
-20.1000;0.6024;1.2675;
-19.8000;0.6024;1.2769;
-19.5000;0.6048;1.2910;
-19.2000;0.6048;1.2910;
-18.9000;0.6048;1.2957;
-18.6000;0.6015;1.2816;
-18.3000;0.6089;1.2957;
-18.0000;0.6024;1.2840;
-17.7000;0.6032;1.2816;
-17.4000;0.6040;1.2816;
-17.1000;0.6032;1.2840;
-16.8000;0.6056;1.2910;
-16.5000;0.6040;1.2957;
-16.2000;0.6056;1.2934;
-15.9000;0.6040;1.3004;
-15.6000;0.6056;1.3028;
-15.3000;0.6040;1.3028;
-15.0000;0.6056;1.3028;
-14.7000;0.6032;1.2934;
-14.4000;0.6032;1.2863;
-14.1000;0.6040;1.2816;
-13.8000;0.5999;1.2699;
-13.5000;0.5999;1.2769;
-13.2000;0.6024;1.2840;
-12.9000;0.6040;1.2887;
-12.6000;0.6007;1.2699;
-12.3000;0.6032;1.2746;
-12.0000;0.6015;1.2652;
-11.7000;0.6040;1.2699;
-11.4000;0.6032;1.2793;
-11.1000;0.6048;1.2722;
-10.8000;0.6032;1.2652;
-10.5000;0.6040;1.2652;
-10.2000;0.6048;1.2652;
-9.9000;0.6056;1.2699;
-9.6000;0.6040;1.2629;
-9.3000;0.6007;1.2558;
-9.0000;0.6040;1.2605;
-8.7000;0.6040;1.2629;
-8.4000;0.6056;1.2652;
-8.1000;0.6072;1.2722;
-7.8000;0.6032;1.2558;
-7.5000;0.6056;1.2605;
-7.2000;0.6072;1.2629;
-6.9000;0.6032;1.2535;
-6.6000;0.6032;1.2558;
-6.3000;0.6040;1.2582;
-6.0000;0.6089;1.2722;
-5.7000;0.6032;1.2675;
-5.4000;0.6040;1.2746;
-5.1000;0.6146;1.3098;
-4.8000;0.6040;1.2910;
-4.5000;0.6024;1.2863;
-4.2000;0.6015;1.2746;
-3.9000;0.6007;1.2793;
-3.6000;0.6032;1.2769;
-3.3000;0.5983;1.2582;
-3.0000;0.6032;1.2699;
-2.7000;0.6048;1.2746;
-2.4000;0.6032;1.2769;
-2.1000;0.6048;1.2769;
-1.8000;0.6024;1.2722;
-1.5000;0.6056;1.2746;
-1.2000;0.6056;1.2816;
-0.9000;0.6032;1.2769;
-0.6000;0.6032;1.2863;
-0.3000;0.6032;1.2887;
0.0000;0.6032;1.2887;
0.3000;0.6178;1.3075;
0.6000;0.6479;1.3403;
0.9000;0.6699;1.3685;
1.2000;0.6903;1.4013;
1.5000;0.7057;1.4389;
1.8000;0.7163;1.4577;
2.1000;0.7277;1.4929;
2.4000;0.7350;1.5070;
2.7000;0.7432;1.5187;
3.0000;0.7497;1.5281;
3.3000;0.7554;1.5398;
3.6000;0.7570;1.5445;
3.9000;0.7652;1.5563;
4.2000;0.7684;1.5680;
4.5000;0.7839;1.5985;
4.8000;0.7741;1.5750;
5.1000;0.7790;1.5727;
5.4000;0.7806;1.5821;
5.7000;0.7823;1.5844;
6.0000;0.7814;1.5704;
6.3000;0.7871;1.5868;
6.6000;0.7888;1.5891;
6.9000;0.7912;1.5938;
7.2000;0.7920;1.5962;
7.5000;0.7945;1.5985;
7.8000;0.7953;1.6009;
8.1000;0.7953;1.5938;
8.4000;0.7961;1.5985;
8.7000;0.7961;1.5985;
9.0000;0.7985;1.5962;
9.3000;0.8010;1.5962;
9.6000;0.8042;1.5985;
9.9000;0.8018;1.5938;
10.2000;0.8034;1.5938;
10.5000;0.8002;1.5680;
10.8000;0.8050;1.5821;
11.1000;0.8067;1.5797;
11.4000;0.8083;1.5844;
11.7000;0.8099;1.5962;
12.0000;0.8075;1.5868;
12.3000;0.8075;1.5891;
12.6000;0.8099;1.5844;
12.9000;0.8099;1.5821;
13.2000;0.8107;1.5938;
13.5000;0.8107;1.5821;
13.8000;0.8107;1.5891;
14.1000;0.8124;1.5844;
14.4000;0.8107;1.5868;
14.7000;0.8140;1.5915;
15.0000;0.8132;1.5868;
15.3000;0.8156;1.5844;
15.6000;0.8173;1.5891;
15.9000;0.8181;1.5891;
16.2000;0.8164;1.5844;
16.5000;0.8189;1.5774;
16.8000;0.8197;1.5868;
17.1000;0.8205;1.5868;
17.4000;0.8205;1.5844;
17.7000;0.8189;1.5774;
18.0000;0.8189;1.5868;
18.3000;0.8197;1.5915;
18.6000;0.8213;1.5962;
18.9000;0.8230;1.6079;
19.2000;0.8205;1.6103;
19.5000;0.8221;1.6126;
19.8000;0.8221;1.6032;
20.1000;0.8230;1.6056;
20.4000;0.8099;1.5774;
20.7000;0.8246;1.6056;
21.0000;0.8213;1.6009;
21.3000;0.8230;1.6056;
21.6000;0.8246;1.6056;
21.9000;0.8246;1.6103;
22.2000;0.8238;1.6079;
22.5000;0.8246;1.6103;
22.8000;0.8238;1.6126;
23.1000;0.8254;1.6032;
23.4000;0.8238;1.5938;
23.7000;0.8254;1.5868;
24.0000;0.8254;1.5868;
24.3000;0.8246;1.5868;
24.6000;0.8270;1.5938;
24.9000;0.8238;1.5891;
25.2000;0.8238;1.5797;
25.5000;0.8270;1.5915;
25.8000;0.8262;1.5985;
26.1000;0.8278;1.6103;
26.4000;0.8230;1.5915;
26.7000;0.8278;1.5915;
27.0000;0.8295;1.5868;
27.3000;0.8295;1.5868;
27.6000;0.8278;1.5868;
27.9000;0.8295;1.5797;
28.2000;0.8295;1.5821;
28.5000;0.8303;1.5891;
28.8000;0.8303;1.5891;
29.1000;0.8303;1.5844;
29.4000;0.8287;1.5821;
29.7000;0.8311;1.5774;
30.0000;0.8287;1.5774;
30.3000;0.8287;1.5774;
30.6000;0.8303;1.5844;
30.9000;0.8246;1.5750;
31.2000;0.8295;1.5821;
31.5000;0.8303;1.5891;
31.8000;0.8278;1.5868;
32.1000;0.8303;1.5891;
32.4000;0.8311;1.5821;
32.7000;0.8295;1.5797;
33.0000;0.8295;1.5797;
33.3000;0.8335;1.5774;
33.6000;0.8319;1.5704;
33.9000;0.8319;1.5610;
34.2000;0.8319;1.5680;
34.5000;0.8352;1.5727;
34.8000;0.8327;1.5657;
35.1000;0.8335;1.5657;
35.4000;0.8335;1.5586;
35.7000;0.8311;1.5610;
36.0000;0.8319;1.5633;
36.3000;0.8335;1.5704;
36.6000;0.8319;1.5704;
36.9000;0.8319;1.5680;
37.2000;0.8327;1.5704;
37.5000;0.8335;1.5680;
37.8000;0.8335;1.5633;
38.1000;0.8335;1.5633;
38.4000;0.8360;1.5750;
38.7000;0.8335;1.5727;
39.0000;0.8400;1.5938;
39.3000;0.8327;1.5774;
39.6000;0.8327;1.5727;
39.9000;0.8335;1.5680;
40.2000;0.8335;1.5727;
40.5000;0.8352;1.5774;
40.8000;0.8335;1.5774;
41.1000;0.8344;1.5774;
41.4000;0.8335;1.5750;
41.7000;0.8344;1.5797;
42.0000;0.8327;1.5844;
42.3000;0.8335;1.5938;
42.6000;0.8327;1.5891;
42.9000;0.8335;1.5821;
43.2000;0.8335;1.5750;
43.5000;0.8344;1.5680;
43.8000;0.8352;1.5657;
44.1000;0.8376;1.5680;
44.4000;0.8352;1.5563;
44.7000;0.8352;1.5563;
45.0000;0.8344;1.5657;
45.3000;0.8360;1.5704;
45.6000;0.8303;1.5563;
45.9000;0.8400;1.5797;
46.2000;0.8344;1.5563;
46.5000;0.8384;1.5657;
46.8000;0.8360;1.5657;
47.1000;0.8352;1.5657;
47.4000;0.8360;1.5657;
47.7000;0.8344;1.5657;
48.0000;0.8344;1.5680;
48.3000;0.8311;1.5563;
48.6000;0.8368;1.5610;
48.9000;0.8392;1.5680;
49.2000;0.8392;1.5610;
49.5000;0.8327;1.5516;
49.8000;0.8352;1.5657;
50.1000;0.8376;1.5774;
50.4000;0.8368;1.5821;
50.7000;0.8352;1.5797;
51.0000;0.8360;1.5797;
51.3000;0.8360;1.5844;
51.6000;0.8352;1.5868;
51.9000;0.8368;1.5915;
52.2000;0.8360;1.5868;
52.5000;0.8352;1.5915;
52.8000;0.8360;1.5915;
53.1000;0.8368;1.5962;
53.4000;0.8360;1.5962;
53.7000;0.8335;1.5891;
54.0000;0.8360;1.5868;
54.3000;0.8368;1.5915;
54.6000;0.8319;1.5727;
54.9000;0.8384;1.5938;
55.2000;0.8368;1.5938;
55.5000;0.8376;1.5938;
55.8000;0.8368;1.5891;
56.1000;0.8360;1.5891;
56.4000;0.8352;1.5821;
56.7000;0.8433;1.5938;
57.0000;0.8360;1.5774;
57.3000;0.8368;1.5868;
57.6000;0.8344;1.5891;
57.9000;0.8352;1.5868;
58.2000;0.8368;1.5938;
58.5000;0.8360;1.5844;
58.8000;0.8376;1.5844;
59.1000;0.8360;1.5844;
59.4000;0.8368;1.5844;
59.7000;0.8368;1.5774;
60.0000;0.8360;1.5727;
60.3000;0.8360;1.5821;
60.6000;0.8368;1.5915;
60.9000;0.8360;1.5938;
61.2000;0.8344;1.5938;
61.5000;0.8384;1.5962;
61.8000;0.8392;1.6056;
62.1000;0.8360;1.5985;
62.4000;0.8360;1.5985;
62.7000;0.8368;1.5962;
63.0000;0.8360;1.5821;
63.3000;0.8384;1.5821;
63.6000;0.8384;1.5774;
63.9000;0.8360;1.5680;
64.2000;0.8360;1.5750;
64.5000;0.8384;1.5868;
64.8000;0.8417;1.5915;
65.1000;0.8392;1.5891;
65.4000;0.8360;1.5844;
65.7000;0.8384;1.5868;
66.0000;0.8368;1.5891;
66.3000;0.8376;1.5868;
66.6000;0.8384;1.5844;
66.9000;0.8368;1.5750;
67.2000;0.8327;1.5657;
67.5000;0.8368;1.5797;
67.8000;0.8352;1.5610;
68.1000;0.8376;1.5586;
68.4000;0.8376;1.5633;
68.7000;0.8376;1.5657;
69.0000;0.8384;1.5657;
69.3000;0.8433;1.5915;
69.6000;0.8376;1.5821;
69.9000;0.8392;1.5821;
70.2000;0.8352;1.5750;
70.5000;0.8417;1.5915;
70.8000;0.8400;1.5915;
71.1000;0.8392;1.5938;
71.4000;0.8344;1.5915;
71.7000;0.8376;1.5891;
72.0000;0.8376;1.5915;
72.3000;0.8384;1.5868;
72.6000;0.8360;1.5774;
72.9000;0.8392;1.5797;
73.2000;0.8425;1.5750;
73.5000;0.8384;1.5610;
73.8000;0.8392;1.5586;
74.1000;0.8392;1.5680;
74.4000;0.8368;1.5680;
74.7000;0.8400;1.5750;
75.0000;0.8376;1.5657;
75.3000;0.8376;1.5680;
75.6000;0.8376;1.5586;
75.9000;0.8376;1.5563;
76.2000;0.8368;1.5586;
76.5000;0.8376;1.5610;
76.8000;0.8376;1.5563;
77.1000;0.8392;1.5563;
77.4000;0.8400;1.5657;
77.7000;0.8392;1.5657;
78.0000;0.8425;1.5750;
78.3000;0.8376;1.5657;
78.6000;0.8376;1.5750;
78.9000;0.8400;1.5844;
79.2000;0.8425;1.5985;
79.5000;0.8376;1.6009;
79.8000;0.8384;1.5962;
80.1000;0.8441;1.6032;
80.4000;0.8449;1.6009;
80.7000;0.8384;1.5868;
81.0000;0.8368;1.5844;
81.3000;0.8384;1.5891;
81.6000;0.8344;1.5750;
81.9000;0.8400;1.5915;
82.2000;0.8368;1.5844;
82.5000;0.8384;1.5915;
82.8000;0.8368;1.5868;
83.1000;0.8368;1.5868;
83.4000;0.8368;1.5821;
83.7000;0.8376;1.5774;
84.0000;0.8392;1.5774;
84.3000;0.8368;1.5774;
84.6000;0.8392;1.5891;
84.9000;0.8368;1.5868;
85.2000;0.8368;1.5774;
85.5000;0.8384;1.5680;
85.8000;0.8400;1.5750;
86.1000;0.8376;1.5750;
86.4000;0.8392;1.5821;
86.7000;0.8441;1.5891;
87.0000;0.8376;1.5704;
87.3000;0.8384;1.5727;
87.6000;0.8376;1.5633;
87.9000;0.8392;1.5586;
88.2000;0.8368;1.5469;
88.5000;0.8376;1.5563;
88.8000;0.8352;1.5492;
89.1000;0.8400;1.5586;
89.4000;0.8368;1.5586;
89.7000;0.8376;1.5633;
90.0000;0.8368;1.5610;
90.3000;0.8384;1.5704;
90.6000;0.8376;1.5704;
90.9000;0.8376;1.5750;
91.2000;0.8368;1.5750;
91.5000;0.8360;1.5750;
91.8000;0.8384;1.5821;
92.1000;0.8376;1.5727;
92.4000;0.8376;1.5657;
92.7000;0.8384;1.5704;
93.0000;0.8400;1.5657;
93.3000;0.8449;1.5797;
93.6000;0.8376;1.5680;
93.9000;0.8384;1.5797;
94.2000;0.8335;1.5704;
94.5000;0.8368;1.5704;
94.8000;0.8376;1.5774;
95.1000;0.8360;1.5821;
95.4000;0.8368;1.5868;
95.7000;0.8384;1.5868;
96.0000;0.8368;1.5915;
96.3000;0.8360;1.5915;
96.6000;0.8376;1.5938;
96.9000;0.8384;1.6056;
97.2000;0.8376;1.6009;
97.5000;0.8384;1.6009;
97.8000;0.8400;1.6032;
98.1000;0.8400;1.6056;
98.4000;0.8384;1.5985;
98.7000;0.8384;1.5985;
99.0000;0.8376;1.6079;
99.3000;0.8392;1.6150;
99.6000;0.8392;1.6150;
99.9000;0.8392;1.6056;
100.2000;0.8384;1.6009;
100.5000;0.8482;1.6196;
100.8000;0.8392;1.6032;
101.1000;0.8392;1.6056;
101.4000;0.8384;1.6150;
101.7000;0.8384;1.6056;
102.0000;0.8392;1.6056;
102.3000;0.8376;1.5985;
102.6000;0.8384;1.5844;
102.9000;0.8368;1.5821;
103.2000;0.8409;1.5868;
103.5000;0.8400;1.5868;
103.8000;0.8384;1.5750;
104.1000;0.8335;1.5657;
104.4000;0.8392;1.5868;
104.7000;0.8392;1.5915;
105.0000;0.8392;1.5868;
105.3000;0.8384;1.5797;
105.6000;0.8360;1.5704;
105.9000;0.8409;1.5915;
106.2000;0.8392;1.5868;
106.5000;0.8360;1.5868;
106.8000;0.8352;1.5797;
107.1000;0.8384;1.5821;
107.4000;0.8376;1.5891;
107.7000;0.8466;1.6079;
108.0000;0.8368;1.5868;
108.3000;0.8384;1.6032;
108.6000;0.8392;1.6056;
108.9000;0.8384;1.5985;
109.2000;0.8376;1.5962;
109.5000;0.8392;1.5962;
109.8000;0.8360;1.5821;
110.1000;0.8400;1.5844;
110.4000;0.8360;1.5750;
110.7000;0.8392;1.5844;
111.0000;0.8319;1.5680;
111.3000;0.8384;1.5868;
111.6000;0.8335;1.5797;
111.9000;0.8360;1.5844;
112.2000;0.8441;1.6032;
112.5000;0.8376;1.5891;
112.8000;0.8376;1.5868;
113.1000;0.8449;1.6009;
113.4000;0.8376;1.5962;
113.7000;0.8368;1.5915;
114.0000;0.8400;1.5938;
114.3000;0.8400;1.5962;
114.6000;0.8384;1.5891;
114.9000;0.8368;1.5844;
115.2000;0.8384;1.5891;
115.5000;0.8392;1.5915;
115.8000;0.8376;1.5797;
116.1000;0.8392;1.5727;
116.4000;0.8392;1.5704;
116.7000;0.8384;1.5657;
117.0000;0.8376;1.5704;
117.3000;0.8384;1.5727;
117.6000;0.8384;1.5868;
117.9000;0.8392;1.5938;
118.2000;0.8376;1.5891;
118.5000;0.8392;1.5868;
118.8000;0.8384;1.5868;
119.1000;0.8400;1.5891;
119.4000;0.8376;1.5821;
119.7000;0.8384;1.5891;
120.0000;0.8409;1.6009;
120.3000;0.8392;1.5962;
120.6000;0.8376;1.5938;
120.9000;0.8368;1.5821;
121.2000;0.8400;1.5868;
121.5000;0.8400;1.5821;
121.8000;0.8368;1.5586;
122.1000;0.8376;1.5633;
122.4000;0.8368;1.5727;
122.7000;0.8392;1.5704;
123.0000;0.8360;1.5704;
123.3000;0.8360;1.5633;
123.6000;0.8352;1.5680;
123.9000;0.8368;1.5774;
124.2000;0.8344;1.5704;
124.5000;0.8400;1.5868;
124.8000;0.8409;1.5938;
125.1000;0.8400;1.5868;
125.4000;0.8335;1.5680;
125.7000;0.8400;1.5891;
126.0000;0.8368;1.5891;
126.3000;0.8368;1.5891;
126.6000;0.8384;1.5915;
126.9000;0.8384;1.5821;
127.2000;0.8392;1.5774;
127.5000;0.8368;1.5704;
127.8000;0.8392;1.5657;
128.1000;0.8400;1.5680;
128.4000;0.8392;1.5704;
128.7000;0.8384;1.5727;
129.0000;0.8384;1.5727;
129.3000;0.8384;1.5750;
129.6000;0.8384;1.5774;
129.9000;0.8400;1.5844;
130.2000;0.8376;1.5774;
130.5000;0.8384;1.5680;
130.8000;0.8384;1.5750;
131.1000;0.8368;1.5704;
131.4000;0.8392;1.5797;
131.7000;0.8400;1.5797;
132.0000;0.8392;1.5797;
132.3000;0.8376;1.5774;
132.6000;0.8384;1.5774;
132.9000;0.8400;1.5891;
133.2000;0.8376;1.5915;
133.5000;0.8376;1.5797;
133.8000;0.8376;1.5962;
134.1000;0.8368;1.6009;
134.4000;0.8392;1.5962;
134.7000;0.8376;1.5915;
135.0000;0.8392;1.5891;
135.3000;0.8392;1.5844;
135.6000;0.8392;1.5891;
135.9000;0.8376;1.5844;
136.2000;0.8376;1.5915;
136.5000;0.8384;1.5962;
136.8000;0.8384;1.5985;
137.1000;0.8384;1.5985;
137.4000;0.8384;1.5962;
137.7000;0.8360;1.5891;
138.0000;0.8376;1.6056;
138.3000;0.8376;1.6079;
138.6000;0.8368;1.6079;
138.9000;0.8368;1.6056;
139.2000;0.8384;1.6079;
139.5000;0.8384;1.6103;
139.8000;0.8384;1.6056;
140.1000;0.8384;1.6079;
140.4000;0.8376;1.6079;
140.7000;0.8392;1.5985;
141.0000;0.8400;1.5915;
141.3000;0.8376;1.5891;
141.6000;0.8360;1.5821;
141.9000;0.8392;1.5938;
142.2000;0.8384;1.5891;
142.5000;0.8466;1.6150;
142.8000;0.8400;1.5915;
143.1000;0.8376;1.5891;
143.4000;0.8327;1.5774;
143.7000;0.8384;1.5797;
144.0000;0.8384;1.5821;
144.3000;0.8368;1.5797;
144.6000;0.8433;1.5962;
144.9000;0.8441;1.6009;
145.2000;0.8376;1.5750;
145.5000;0.8376;1.5774;
145.8000;0.8392;1.5821;
146.1000;0.8392;1.5821;
146.4000;0.8376;1.5844;
146.7000;0.8344;1.5868;
147.0000;0.8392;1.6009;
147.3000;0.8368;1.6009;
147.6000;0.8392;1.6056;
147.9000;0.8384;1.5985;
148.2000;0.8376;1.6032;
148.5000;0.8392;1.6032;
148.8000;0.8368;1.5962;
149.1000;0.8368;1.5915;
149.4000;0.8360;1.5915;
149.7000;0.8335;1.5868;
150.0000;0.8392;1.5985;
150.3000;0.8376;1.6056;
150.6000;0.8368;1.6056;
150.9000;0.8376;1.6103;
151.2000;0.8400;1.6173;
151.5000;0.8400;1.6103;
151.8000;0.8384;1.6009;
152.1000;0.8392;1.6032;
152.4000;0.8392;1.5985;
152.7000;0.8376;1.6056;
153.0000;0.8368;1.6056;
153.3000;0.8392;1.6079;
153.6000;0.8376;1.6126;
153.9000;0.8384;1.6150;
154.2000;0.8368;1.6103;
154.5000;0.8392;1.6126;
154.8000;0.8376;1.6009;
155.1000;0.8392;1.5985;
155.4000;0.8384;1.5938;
155.7000;0.8409;1.5938;
156.0000;0.8368;1.5915;
156.3000;0.8392;1.5962;
156.6000;0.8384;1.5985;
156.9000;0.8376;1.5962;
157.2000;0.8368;1.5915;
157.5000;0.8368;1.5962;
157.8000;0.8384;1.5915;
158.1000;0.8384;1.5868;
158.4000;0.8392;1.5962;
158.7000;0.8376;1.5962;
159.0000;0.8392;1.6103;
159.3000;0.8368;1.5985;
159.6000;0.8360;1.5915;
159.9000;0.8384;1.5938;
160.2000;0.8360;1.5868;
160.5000;0.8376;1.5844;
160.8000;0.8368;1.5797;
161.1000;0.8376;1.5727;
161.4000;0.8368;1.5727;
161.7000;0.8392;1.5821;
162.0000;0.8376;1.5797;
162.3000;0.8376;1.5891;
162.6000;0.8376;1.5915;
162.9000;0.8384;1.5915;
163.2000;0.8384;1.5891;
163.5000;0.8303;1.5750;
163.8000;0.8376;1.6056;
164.1000;0.8384;1.6056;
164.4000;0.8360;1.6056;
164.7000;0.8376;1.6056;
165.0000;0.8441;1.6126;
165.3000;0.8384;1.5985;
165.6000;0.8352;1.5797;
165.9000;0.8392;1.5962;
166.2000;0.8376;1.5985;
166.5000;0.8376;1.5962;
166.8000;0.8384;1.5962;
167.1000;0.8368;1.5915;
167.4000;0.8376;1.5844;
167.7000;0.8384;1.5891;
168.0000;0.8400;1.5868;
168.3000;0.8384;1.5915;
168.6000;0.8376;1.5938;
168.9000;0.8392;1.5938;
169.2000;0.8400;1.6079;
169.5000;0.8376;1.5938;
169.8000;0.8392;1.6079;
170.1000;0.8352;1.5962;
170.4000;0.8384;1.6056;
170.7000;0.8360;1.6032;
171.0000;0.8392;1.6079;
171.3000;0.8384;1.6056;
171.6000;0.8376;1.5985;
171.9000;0.8384;1.6056;
172.2000;0.8384;1.6056;
172.5000;0.8352;1.5938;
172.8000;0.8400;1.6009;
173.1000;0.8384;1.5891;
173.4000;0.8392;1.5868;
173.7000;0.8425;1.5962;
174.0000;0.8384;1.5844;
174.3000;0.8384;1.5868;
174.6000;0.8360;1.5797;
174.9000;0.8368;1.5750;
175.2000;0.8376;1.5821;
175.5000;0.8384;1.5938;
175.8000;0.8368;1.5985;
176.1000;0.8376;1.6032;
176.4000;0.8384;1.6009;
176.7000;0.8376;1.5985;
177.0000;0.8392;1.6056;
177.3000;0.8368;1.5985;
177.6000;0.8376;1.5985;
177.9000;0.8384;1.6009;
178.2000;0.8392;1.6079;
178.5000;0.8384;1.6056;
178.8000;0.8384;1.6009;
179.1000;0.8376;1.5985;
179.4000;0.8384;1.6056;
179.7000;0.8392;1.6056;
180.0000;0.8376;1.6032;
180.3000;0.8392;1.5938;
180.6000;0.8384;1.5915;
180.9000;0.8392;1.5891;
181.2000;0.8384;1.5891;
181.5000;0.8360;1.5915;
181.8000;0.8360;1.5938;
182.1000;0.8376;1.6009;
182.4000;0.8384;1.5938;
182.7000;0.8376;1.5962;
183.0000;0.8384;1.6009;
183.3000;0.8400;1.6126;
183.6000;0.8368;1.6150;
183.9000;0.8384;1.6150;
184.2000;0.8457;1.6243;
184.5000;0.8376;1.6009;
184.8000;0.8384;1.5938;
185.1000;0.8466;1.6173;
185.4000;0.8368;1.6032;
185.7000;0.8376;1.6032;
186.0000;0.8368;1.5962;
186.3000;0.8409;1.5962;
186.6000;0.8360;1.5821;
186.9000;0.8368;1.5797;
187.2000;0.8295;1.5633;
187.5000;0.8425;1.5962;
187.8000;0.8376;1.5821;
188.1000;0.8514;1.6079;
188.4000;0.8368;1.5774;
188.7000;0.8441;1.5938;
189.0000;0.8417;1.5821;
189.3000;0.8368;1.5727;
189.6000;0.8360;1.5797;
189.9000;0.8392;1.5868;
190.2000;0.8466;1.6009;
190.5000;0.8433;1.5797;
190.8000;0.8368;1.5633;
191.1000;0.8360;1.5610;
191.4000;0.8376;1.5610;
191.7000;0.8368;1.5586;
192.0000;0.8368;1.5539;
192.3000;0.8368;1.5563;
192.6000;0.8376;1.5586;
192.9000;0.8368;1.5586;
193.2000;0.8368;1.5657;
193.5000;0.8376;1.5727;
193.8000;0.8384;1.5750;
194.1000;0.8376;1.5891;
194.4000;0.8368;1.5821;
194.7000;0.8384;1.5844;
195.0000;0.8384;1.5844;
195.3000;0.8417;1.5962;
195.6000;0.8360;1.5844;
195.9000;0.8327;1.5727;
196.2000;0.8392;1.5891;
196.5000;0.8400;1.5891;
196.8000;0.8368;1.5774;
197.1000;0.8384;1.5821;
197.4000;0.8392;1.5868;
197.7000;0.8287;1.5610;
198.0000;0.8392;1.5915;
198.3000;0.8376;1.5821;
198.6000;0.8368;1.5821;
198.9000;0.8392;1.5985;
199.2000;0.8376;1.6056;
199.5000;0.8392;1.6032;
199.8000;0.8376;1.6009;
200.1000;0.8384;1.6009;
200.4000;0.8376;1.6079;
200.7000;0.8400;1.6150;
201.0000;0.8376;1.6126;
201.3000;0.8376;1.6103;
201.6000;0.8392;1.6103;
201.9000;0.8376;1.6032;
202.2000;0.8368;1.6079;
202.5000;0.8384;1.6009;
202.8000;0.8376;1.5985;
203.1000;0.8384;1.5985;
203.4000;0.8368;1.5915;
203.7000;0.8360;1.5915;
204.0000;0.8344;1.5868;
204.3000;0.8352;1.5868;
204.6000;0.8360;1.5774;
204.9000;0.8368;1.5844;
205.2000;0.8384;1.5915;
205.5000;0.8384;1.5868;
205.8000;0.8368;1.5844;
206.1000;0.8384;1.5774;
206.4000;0.8400;1.5727;
206.7000;0.8368;1.5727;
207.0000;0.8384;1.5797;
207.3000;0.8384;1.5704;
207.6000;0.8376;1.5750;
207.9000;0.8360;1.5704;
208.2000;0.8360;1.5844;
208.5000;0.8360;1.5868;
208.8000;0.8360;1.5891;
209.1000;0.8400;1.5962;
209.4000;0.8376;1.5915;
209.7000;0.8368;1.5915;
210.0000;0.8352;1.5868;
210.3000;0.8376;1.5868;
210.6000;0.8400;1.5844;
210.9000;0.8392;1.5797;
211.2000;0.8384;1.5727;
211.5000;0.8376;1.5680;
211.8000;0.8400;1.5750;
212.1000;0.8433;1.5774;
212.4000;0.8384;1.5774;
212.7000;0.8376;1.5750;
213.0000;0.8409;1.5938;
213.3000;0.8384;1.5938;
213.6000;0.8376;1.5868;
213.9000;0.8360;1.5797;
214.2000;0.8327;1.5727;
214.5000;0.8368;1.5774;
214.8000;0.8270;1.5563;
215.1000;0.8368;1.5633;
215.4000;0.8360;1.5586;
215.7000;0.8384;1.5657;
216.0000;0.8384;1.5633;
216.3000;0.8376;1.5610;
216.6000;0.8360;1.5563;
216.9000;0.8384;1.5704;
217.2000;0.8303;1.5516;
217.5000;0.8376;1.5750;
217.8000;0.8327;1.5610;
218.1000;0.8376;1.5680;
218.4000;0.8368;1.5727;
218.7000;0.8384;1.5797;
219.0000;0.8376;1.5797;
219.3000;0.8376;1.5797;
219.6000;0.8384;1.5891;
219.9000;0.8376;1.5891;
220.2000;0.8384;1.5844;
220.5000;0.8376;1.5797;
220.8000;0.8368;1.5821;
221.1000;0.8384;1.5891;
221.4000;0.8392;1.5915;
221.7000;0.8319;1.5727;
222.0000;0.8384;1.5891;
222.3000;0.8384;1.5938;
222.6000;0.8327;1.5750;
222.9000;0.8376;1.5915;
223.2000;0.8384;1.5962;
223.5000;0.8392;1.5891;
223.8000;0.8376;1.5915;
224.1000;0.8392;1.5962;
224.4000;0.8392;1.5962;
224.7000;0.8376;1.5915;
225.0000;0.8368;1.5868;
225.3000;0.8368;1.5774;
225.6000;0.8384;1.5821;
225.9000;0.8376;1.5727;
226.2000;0.8376;1.5657;
226.5000;0.8417;1.5704;
226.8000;0.8384;1.5610;
227.1000;0.8384;1.5727;
227.4000;0.8384;1.5821;
227.7000;0.8392;1.5821;
228.0000;0.8335;1.5797;
228.3000;0.8384;1.5915;
228.6000;0.8392;1.5774;
228.9000;0.8384;1.5797;
229.2000;0.8376;1.5774;
229.5000;0.8384;1.5868;
229.8000;0.8376;1.5844;
230.1000;0.8376;1.5844;
230.4000;0.8360;1.5868;
230.7000;0.8352;1.5915;
231.0000;0.8417;1.6150;
231.3000;0.8392;1.6079;
231.6000;0.8384;1.6103;
231.9000;0.8384;1.6103;
232.2000;0.8384;1.6103;
232.5000;0.8376;1.6196;
232.8000;0.8384;1.6173;
233.1000;0.8384;1.6150;
233.4000;0.8376;1.6150;
233.7000;0.8400;1.6243;
234.0000;0.8376;1.6220;
234.3000;0.8368;1.6173;
234.6000;0.8368;1.6079;
234.9000;0.8360;1.6056;
235.2000;0.8376;1.6032;
235.5000;0.8417;1.6103;
235.8000;0.8360;1.5985;
236.1000;0.8360;1.5891;
236.4000;0.8376;1.5891;
236.7000;0.8368;1.5985;
237.0000;0.8335;1.5962;
237.3000;0.8384;1.6009;
237.6000;0.8376;1.5962;
237.9000;0.8376;1.5915;
238.2000;0.8376;1.5891;
238.5000;0.8392;1.5915;
238.8000;0.8352;1.5868;
239.1000;0.8384;1.5938;
239.4000;0.8376;1.6056;
239.7000;0.8352;1.5915;
240.0000;0.8376;1.6009;
240.3000;0.8352;1.6032;
240.6000;0.8384;1.6056;
240.9000;0.8384;1.6079;
241.2000;0.8384;1.6056;
241.5000;0.8376;1.6056;
241.8000;0.8376;1.5962;
242.1000;0.8376;1.5962;
242.4000;0.8376;1.5915;
242.7000;0.8360;1.5915;
243.0000;0.8392;1.5891;
243.3000;0.8376;1.5891;
243.6000;0.8360;1.5915;
243.9000;0.8368;1.5962;
244.2000;0.8457;1.6196;
244.5000;0.8376;1.6009;
244.8000;0.8368;1.5962;
245.1000;0.8392;1.5962;
245.4000;0.8384;1.6056;
245.7000;0.8352;1.5962;
246.0000;0.8376;1.6009;
246.3000;0.8376;1.5891;
246.6000;0.8384;1.5891;
246.9000;0.8368;1.5797;
247.2000;0.8384;1.5868;
247.5000;0.8368;1.5868;
247.8000;0.8376;1.5891;
248.1000;0.8368;1.5938;
248.4000;0.8384;1.6032;
248.7000;0.8376;1.6032;
249.0000;0.8376;1.6032;
249.3000;0.8376;1.6056;
249.6000;0.8384;1.6056;
249.9000;0.8360;1.5938;
250.2000;0.8392;1.5915;
250.5000;0.8384;1.5915;
250.8000;0.8376;1.5891;
251.1000;0.8368;1.5821;
251.4000;0.8360;1.5821;
251.7000;0.8392;1.5868;
252.0000;0.8376;1.5680;
252.3000;0.8384;1.5704;
252.6000;0.8368;1.5704;
252.9000;0.8368;1.5750;
253.2000;0.8384;1.5774;
253.5000;0.8360;1.5774;
253.8000;0.8319;1.5563;
254.1000;0.8376;1.5750;
254.4000;0.8368;1.5774;
254.7000;0.8368;1.5868;
255.0000;0.8384;1.5891;
255.3000;0.8376;1.5938;
255.6000;0.8376;1.5868;
255.9000;0.8368;1.5704;
256.2000;0.8368;1.5680;
256.5000;0.8368;1.5610;
256.8000;0.8360;1.5563;
257.1000;0.8376;1.5563;
257.4000;0.8335;1.5492;
257.7000;0.8352;1.5516;
258.0000;0.8376;1.5633;
258.3000;0.8368;1.5680;
258.6000;0.8384;1.5704;
258.9000;0.8425;1.5868;
259.2000;0.8344;1.5704;
259.5000;0.8376;1.5821;
259.8000;0.8360;1.5797;
260.1000;0.8360;1.5797;
260.4000;0.8376;1.5844;
260.7000;0.8376;1.5868;
261.0000;0.8384;1.5891;
261.3000;0.8376;1.5985;
261.6000;0.8384;1.6056;
261.9000;0.8376;1.6079;
262.2000;0.8376;1.6103;
262.5000;0.8376;1.6150;
262.8000;0.8327;1.6009;
263.1000;0.8352;1.6079;
263.4000;0.8392;1.6056;
263.7000;0.8262;1.5797;
264.0000;0.8368;1.6126;
264.3000;0.8376;1.6150;
264.6000;0.8368;1.6126;
264.9000;0.8376;1.6126;
265.2000;0.8384;1.6126;
265.5000;0.8368;1.6056;
265.8000;0.8449;1.6126;
266.1000;0.8376;1.5985;
266.4000;0.8319;1.5844;
266.7000;0.8344;1.5985;
267.0000;0.8368;1.6009;
267.3000;0.8368;1.6056;
267.6000;0.8376;1.6126;
267.9000;0.8319;1.5938;
268.2000;0.8376;1.5962;
268.5000;0.8392;1.5891;
268.8000;0.8352;1.5774;
269.1000;0.8368;1.5844;
269.4000;0.8384;1.5774;
269.7000;0.8376;1.5657;
270.0000;0.8368;1.5657;
270.3000;0.8360;1.5680;
270.6000;0.8344;1.5657;
270.9000;0.8368;1.5774;
271.2000;0.8376;1.5750;
271.5000;0.8376;1.5821;
271.8000;0.8384;1.5797;
272.1000;0.8368;1.5821;
272.4000;0.8376;1.5868;
272.7000;0.8376;1.5962;
273.0000;0.8368;1.6103;
273.3000;0.8376;1.6032;
273.6000;0.8376;1.5985;
273.9000;0.8360;1.6009;
274.2000;0.8360;1.5962;
274.5000;0.8352;1.5962;
274.8000;0.8352;1.5962;
275.1000;0.8360;1.6009;
275.4000;0.8360;1.5915;
275.7000;0.8360;1.5821;
276.0000;0.8368;1.5844;
276.3000;0.8392;1.5797;
276.6000;0.8400;1.5750;
276.9000;0.8392;1.5750;
277.2000;0.8384;1.5774;
277.5000;0.8368;1.5750;
277.8000;0.8384;1.5774;
278.1000;0.8376;1.5750;
278.4000;0.8368;1.5657;
278.7000;0.8384;1.5680;
279.0000;0.8376;1.5633;
279.3000;0.8368;1.5727;
279.6000;0.8368;1.5750;
279.9000;0.8352;1.5633;
280.2000;0.8368;1.5680;
280.5000;0.8368;1.5821;
280.8000;0.8360;1.5774;
281.1000;0.8360;1.5821;
281.4000;0.8352;1.5844;
281.7000;0.8392;1.6009;
282.0000;0.8384;1.6056;
282.3000;0.8376;1.6009;
282.6000;0.8376;1.6009;
282.9000;0.8409;1.6150;
283.2000;0.8392;1.6103;
283.5000;0.8384;1.6009;
283.8000;0.8368;1.5891;
284.1000;0.8384;1.5962;
284.4000;0.8376;1.5915;
284.7000;0.8319;1.5797;
285.0000;0.8368;1.5868;
285.3000;0.8392;1.5985;
285.6000;0.8417;1.6103;
285.9000;0.8344;1.5891;
286.2000;0.8360;1.5938;
286.5000;0.8368;1.5844;
286.8000;0.8368;1.5844;
287.1000;0.8360;1.5821;
287.4000;0.8376;1.5797;
287.7000;0.8352;1.5704;
288.0000;0.8376;1.5750;
288.3000;0.8392;1.5821;
288.6000;0.8376;1.5774;
288.9000;0.8360;1.5797;
289.2000;0.8400;1.5915;
289.5000;0.8384;1.5844;
289.8000;0.8368;1.5821;
290.1000;0.8368;1.5797;
290.4000;0.8409;1.5915;
290.7000;0.8376;1.5891;
291.0000;0.8368;1.5868;
291.3000;0.8352;1.5821;
291.6000;0.8368;1.5915;
291.9000;0.8360;1.5962;
292.2000;0.8352;1.5891;
292.5000;0.8425;1.6009;
292.8000;0.8376;1.5891;
293.1000;0.8360;1.5844;
293.4000;0.8384;1.5821;
293.7000;0.8368;1.5891;
294.0000;0.8319;1.5821;
294.3000;0.8376;1.5844;
294.6000;0.8376;1.5891;
294.9000;0.8368;1.5797;
295.2000;0.8360;1.5657;
295.5000;0.8425;1.5915;
295.8000;0.8376;1.5774;
296.1000;0.8474;1.6103;
296.4000;0.8344;1.5774;
296.7000;0.8360;1.5797;
297.0000;0.8392;1.5821;
297.3000;0.8368;1.5750;
297.6000;0.8376;1.5774;
297.9000;0.8490;1.6009;
298.2000;0.8376;1.5704;
298.5000;0.8368;1.5657;
298.8000;0.8352;1.5657;
299.1000;0.8368;1.5704;
299.4000;0.8368;1.5680;
299.7000;0.8360;1.5704;
300.0000;0.8376;1.5633;
300.3000;0.8384;1.5610;
300.6000;0.8368;1.5563;
300.9000;0.8352;1.5563;
301.2000;0.8400;1.5657;
301.5000;0.8352;1.5610;
301.8000;0.8360;1.5610;
302.1000;0.8376;1.5727;
302.4000;0.8376;1.5774;
302.7000;0.8384;1.5821;
303.0000;0.8368;1.5750;
303.3000;0.8360;1.5774;
303.6000;0.8368;1.5727;
303.9000;0.8368;1.5750;
304.2000;0.8376;1.5821;
304.5000;0.8360;1.5844;
304.8000;0.8360;1.5844;
305.1000;0.8392;1.5938;
305.4000;0.8376;1.5938;
305.7000;0.8344;1.5774;
306.0000;0.8425;1.5985;
306.3000;0.8368;1.5915;
306.6000;0.8368;1.5891;
306.9000;0.8425;1.5985;
307.2000;0.8441;1.6079;
307.5000;0.8368;1.5891;
307.8000;0.8360;1.5774;
308.1000;0.8344;1.5727;
308.4000;0.8368;1.5727;
308.7000;0.8376;1.5750;
309.0000;0.8368;1.5727;
309.3000;0.8376;1.5633;
309.6000;0.8368;1.5586;
309.9000;0.8376;1.5586;
310.2000;0.8384;1.5516;
310.5000;0.8360;1.5492;
310.8000;0.8368;1.5563;
311.1000;0.8376;1.5633;
311.4000;0.8352;1.5633;
311.7000;0.8311;1.5375;
312.0000;0.8352;1.5563;
312.3000;0.8384;1.5586;
312.6000;0.8360;1.5633;
312.9000;0.8384;1.5727;
313.2000;0.8360;1.5633;
313.5000;0.8360;1.5586;
313.8000;0.8303;1.5539;
314.1000;0.8352;1.5516;
314.4000;0.8254;1.5351;
314.7000;0.8376;1.5704;
315.0000;0.8376;1.5727;
315.3000;0.8368;1.5680;
315.6000;0.8335;1.5586;
315.9000;0.8360;1.5633;
316.2000;0.8360;1.5704;
316.5000;0.8327;1.5727;
316.8000;0.8368;1.5821;
317.1000;0.8344;1.5704;
317.4000;0.8368;1.5774;
317.7000;0.8482;1.6126;
318.0000;0.8376;1.5915;
318.3000;0.8360;1.5891;
318.6000;0.8384;1.5938;
318.9000;0.8376;1.5868;
319.2000;0.8360;1.5844;
319.5000;0.8230;1.5610;
319.8000;0.8335;1.5868;
320.1000;0.8352;1.5844;
320.4000;0.8352;1.5891;
320.7000;0.8368;1.5868;
321.0000;0.8344;1.5868;
321.3000;0.8360;1.5891;
321.6000;0.8384;1.5938;
321.9000;0.8360;1.5985;
322.2000;0.8352;1.6009;
322.5000;0.8352;1.5985;
322.8000;0.8352;1.5985;
323.1000;0.8352;1.6032;
323.4000;0.8368;1.6032;
323.7000;0.8360;1.5891;
324.0000;0.8360;1.5844;
324.3000;0.8368;1.5821;
324.6000;0.8352;1.5727;
324.9000;0.8368;1.5774;
325.2000;0.8368;1.5750;
325.5000;0.8376;1.5774;
325.8000;0.8376;1.5774;
326.1000;0.8400;1.5774;
326.4000;0.8376;1.5750;
326.7000;0.8376;1.5797;
327.0000;0.8368;1.5750;
327.3000;0.8368;1.5821;
327.6000;0.8376;1.5750;
327.9000;0.8384;1.5727;
328.2000;0.8384;1.5821;
328.5000;0.8376;1.5891;
328.8000;0.8384;1.5750;
329.1000;0.8376;1.5821;
329.4000;0.8376;1.5821;
329.7000;0.8360;1.5750;
330.0000;0.8392;1.5844;
330.3000;0.8360;1.5821;
330.6000;0.8376;1.5704;
330.9000;0.8417;1.5797;
331.2000;0.8319;1.5610;
331.5000;0.8360;1.5727;
331.8000;0.8335;1.5657;
332.1000;0.8392;1.5657;
332.4000;0.8335;1.5633;
332.7000;0.8360;1.5680;
333.0000;0.8335;1.5727;
333.3000;0.8368;1.5868;
333.6000;0.8360;1.5821;
333.9000;0.8368;1.5821;
334.2000;0.8295;1.5610;
334.5000;0.8384;1.5844;
334.8000;0.8352;1.5750;
335.1000;0.8360;1.5774;
335.4000;0.8360;1.5774;
335.7000;0.8344;1.5657;
336.0000;0.8376;1.5704;
336.3000;0.8376;1.5704;
336.6000;0.8352;1.5586;
336.9000;0.8368;1.5633;
337.2000;0.8376;1.5704;
337.5000;0.8376;1.5844;
337.8000;0.8344;1.5821;
338.1000;0.8327;1.5727;
338.4000;0.8384;1.5821;
338.7000;0.8384;1.5915;
339.0000;0.8376;1.5891;
339.3000;0.8319;1.5774;
339.6000;0.8360;1.5915;
339.9000;0.8352;1.5844;
340.2000;0.8360;1.5868;
340.5000;0.8344;1.5915;
340.8000;0.8360;1.5985;
341.1000;0.8360;1.5962;
341.4000;0.8376;1.5938;
341.7000;0.8360;1.5915;
342.0000;0.8368;1.5962;
342.3000;0.8360;1.5915;
342.6000;0.8384;1.5868;
342.9000;0.8360;1.5774;
343.2000;0.8360;1.5750;
343.5000;0.8360;1.5774;
343.8000;0.8360;1.5680;
344.1000;0.8376;1.5727;
344.4000;0.8360;1.5586;
344.7000;0.8376;1.5633;
345.0000;0.8335;1.5563;
345.3000;0.8352;1.5539;
345.6000;0.8352;1.5633;
345.9000;0.8384;1.5727;
346.2000;0.8376;1.5844;
346.5000;0.8335;1.5680;
346.8000;0.8368;1.5680;
347.1000;0.8344;1.5633;
347.4000;0.8360;1.5750;
347.7000;0.8368;1.5844;
348.0000;0.8368;1.5891;
348.3000;0.8409;1.6009;
348.6000;0.8376;1.6032;
348.9000;0.8376;1.5938;
349.2000;0.8352;1.5938;
349.5000;0.8360;1.5985;
349.8000;0.8360;1.5985;
350.1000;0.8368;1.6009;
350.4000;0.8368;1.5915;
350.7000;0.8360;1.5844;
351.0000;0.8368;1.5821;
351.3000;0.8368;1.5821;
351.6000;0.8352;1.5774;
351.9000;0.8352;1.5750;
352.2000;0.8368;1.5821;
352.5000;0.8376;1.5774;
352.8000;0.8327;1.5657;
353.1000;0.8400;1.5727;
353.4000;0.8327;1.5492;
353.7000;0.8384;1.5633;
354.0000;0.8376;1.5610;
354.3000;0.8262;1.5281;
354.6000;0.8360;1.5445;
354.9000;0.8376;1.5516;
355.2000;0.8368;1.5516;
355.5000;0.8335;1.5445;
355.8000;0.8344;1.5610;
356.1000;0.8360;1.5704;
356.4000;0.8344;1.5680;
356.7000;0.8352;1.5727;
357.0000;0.8352;1.5774;
357.3000;0.8319;1.5657;
357.6000;0.8376;1.5797;
357.9000;0.8409;1.5868;
358.2000;0.8344;1.5727;
358.5000;0.8360;1.5797;
358.8000;0.8417;1.5962;
359.1000;0.8360;1.5727;
359.4000;0.8360;1.5704;
359.7000;0.8352;1.5680;
360.0000;0.8400;1.5750;
360.3000;0.8368;1.5704;
360.6000;0.8360;1.5774;
360.9000;0.8360;1.5657;
361.2000;0.8360;1.5657;
361.5000;0.8368;1.5750;
361.8000;0.8262;1.5492;
362.1000;0.8368;1.5680;
362.4000;0.8352;1.5610;
362.7000;0.8360;1.5680;
363.0000;0.8352;1.5680;
363.3000;0.8368;1.5633;
363.6000;0.8360;1.5680;
363.9000;0.8352;1.5727;
364.2000;0.8360;1.5727;
364.5000;0.8376;1.5750;
364.8000;0.8352;1.5774;
365.1000;0.8368;1.5657;
365.4000;0.8384;1.5657;
365.7000;0.8376;1.5633;
366.0000;0.8352;1.5586;
366.3000;0.8344;1.5492;
366.6000;0.8352;1.5586;
366.9000;0.8368;1.5727;
367.2000;0.8344;1.5633;
367.5000;0.8344;1.5610;
367.8000;0.8368;1.5704;
368.1000;0.8392;1.5727;
368.4000;0.8368;1.5680;
368.7000;0.8344;1.5563;
369.0000;0.8368;1.5633;
369.3000;0.8368;1.5610;
369.6000;0.8376;1.5657;
369.9000;0.8368;1.5704;
370.2000;0.8368;1.5774;
370.5000;0.8376;1.5868;
370.8000;0.8352;1.5774;
371.1000;0.8360;1.5774;
371.4000;0.8344;1.5704;
371.7000;0.8327;1.5610;
372.0000;0.8360;1.5657;
372.3000;0.8352;1.5727;
372.6000;0.8352;1.5586;
372.9000;0.8360;1.5633;
373.2000;0.8376;1.5610;
373.5000;0.8360;1.5586;
373.8000;0.8360;1.5586;
374.1000;0.8360;1.5516;
374.4000;0.8360;1.5492;
374.7000;0.8384;1.5492;
375.0000;0.8278;1.5258;
375.3000;0.8368;1.5586;
375.6000;0.8392;1.5680;
375.9000;0.8360;1.5657;
376.2000;0.8352;1.5680;
376.5000;0.8409;1.5797;
376.8000;0.8368;1.5657;
377.1000;0.8368;1.5610;
377.4000;0.8360;1.5610;
377.7000;0.8344;1.5610;
378.0000;0.8352;1.5680;
378.3000;0.8482;1.6009;
378.6000;0.8400;1.5821;
378.9000;0.8352;1.5797;
379.2000;0.8352;1.5821;
379.5000;0.8360;1.5821;
379.8000;0.8327;1.5774;
380.1000;0.8278;1.5610;
380.4000;0.8360;1.5797;
380.7000;0.8344;1.5844;
381.0000;0.8360;1.5868;
381.3000;0.8352;1.5821;
381.6000;0.8352;1.5891;
381.9000;0.8360;1.6009;
382.2000;0.8368;1.5915;
382.5000;0.8360;1.5915;
382.8000;0.8376;1.5821;
383.1000;0.8352;1.5844;
383.4000;0.8352;1.5797;
383.7000;0.8344;1.5680;
384.0000;0.8335;1.5586;
384.3000;0.8344;1.5610;
384.6000;0.8352;1.5657;
384.9000;0.8352;1.5680;
385.2000;0.8352;1.5704;
385.5000;0.8368;1.5774;
385.8000;0.8376;1.5750;
386.1000;0.8352;1.5680;
386.4000;0.8368;1.5727;
386.7000;0.8368;1.5610;
387.0000;0.8360;1.5610;
387.3000;0.8368;1.5586;
387.6000;0.8376;1.5610;
387.9000;0.8368;1.5516;
388.2000;0.8352;1.5469;
388.5000;0.8352;1.5492;
388.8000;0.8392;1.5563;
389.1000;0.8360;1.5516;
389.4000;0.8335;1.5422;
389.7000;0.8352;1.5445;
390.0000;0.8360;1.5422;
390.3000;0.8392;1.5492;
390.6000;0.8384;1.5469;
390.9000;0.8360;1.5422;
391.2000;0.8352;1.5422;
391.5000;0.8360;1.5492;
391.8000;0.8344;1.5375;
392.1000;0.8352;1.5328;
392.4000;0.8360;1.5398;
392.7000;0.8344;1.5422;
393.0000;0.8352;1.5539;
393.3000;0.8352;1.5610;
393.6000;0.8344;1.5680;
393.9000;0.8335;1.5586;
394.2000;0.8344;1.5516;
394.5000;0.8360;1.5563;
394.8000;0.8352;1.5422;
395.1000;0.8360;1.5469;
395.4000;0.8368;1.5563;
395.7000;0.8368;1.5563;
396.0000;0.8360;1.5633;
396.3000;0.8368;1.5633;
396.6000;0.8368;1.5610;
396.9000;0.8360;1.5516;
397.2000;0.8368;1.5586;
397.5000;0.8360;1.5704;
397.8000;0.8360;1.5774;
398.1000;0.8376;1.5821;
398.4000;0.8368;1.5750;
398.7000;0.8376;1.5727;
399.0000;0.8376;1.5750;
399.3000;0.8352;1.5586;
399.6000;0.8352;1.5563;
399.9000;0.8384;1.5797;
400.2000;0.8376;1.5797;
400.5000;0.8303;1.5539;
400.8000;0.8352;1.5563;
401.1000;0.8360;1.5563;
401.4000;0.8335;1.5610;
401.7000;0.8384;1.5844;
402.0000;0.8368;1.5774;
402.3000;0.8392;1.5821;
402.6000;0.8376;1.5868;
402.9000;0.8360;1.5774;
403.2000;0.8368;1.5680;
403.5000;0.8409;1.5821;
403.8000;0.8360;1.5750;
404.1000;0.8360;1.5704;
404.4000;0.8360;1.5680;
404.7000;0.8360;1.5633;
405.0000;0.8352;1.5680;
405.3000;0.8303;1.5563;
405.6000;0.8376;1.5704;
405.9000;0.8344;1.5680;
406.2000;0.8335;1.5797;
406.5000;0.8376;1.5868;
406.8000;0.8295;1.5680;
407.1000;0.8384;1.5915;
407.4000;0.8344;1.5797;
407.7000;0.8352;1.5868;
408.0000;0.8327;1.5797;
408.3000;0.8360;1.5891;
408.6000;0.8352;1.5868;
408.9000;0.8352;1.5891;
409.2000;0.8303;1.5774;
409.5000;0.8376;1.5891;
409.8000;0.8278;1.5727;
410.1000;0.8376;1.5962;
410.4000;0.8352;1.5962;
410.7000;0.8392;1.6032;
411.0000;0.8376;1.6056;
411.3000;0.8352;1.5938;
411.6000;0.8327;1.5844;
411.9000;0.8531;1.6290;
412.2000;0.8368;1.5891;
412.5000;0.8360;1.5891;
412.8000;0.8352;1.5915;
413.1000;0.8270;1.5704;
413.4000;0.8360;1.5891;
413.7000;0.8287;1.5727;
414.0000;0.8254;1.5704;
414.3000;0.8327;1.5844;
414.6000;0.8376;1.5915;
414.9000;0.8368;1.5750;
415.2000;0.8360;1.5750;
415.5000;0.8352;1.5657;
415.8000;0.8360;1.5680;
416.1000;0.8246;1.5469;
416.4000;0.8344;1.5680;
416.7000;0.8352;1.5797;
417.0000;0.8344;1.5868;
417.3000;0.8360;1.5915;
417.6000;0.8360;1.5915;
417.9000;0.8344;1.5938;
418.2000;0.8352;1.5844;
418.5000;0.8368;1.5938;
418.8000;0.8352;1.5844;
419.1000;0.8368;1.5844;
419.4000;0.8352;1.6032;
419.7000;0.8376;1.6056;
420.0000;0.8360;1.5985;
420.3000;0.8327;1.5938;
420.6000;0.8335;1.5868;
420.9000;0.8319;1.5868;
421.2000;0.8344;1.5985;
421.5000;0.8344;1.6032;
421.8000;0.8360;1.6056;
422.1000;0.8368;1.5985;
422.4000;0.8368;1.5938;
422.7000;0.8344;1.5821;
423.0000;0.8344;1.5797;
423.3000;0.8376;1.5821;
423.6000;0.8368;1.5750;
423.9000;0.8335;1.5704;
424.2000;0.8352;1.5821;
424.5000;0.8327;1.5704;
424.8000;0.8352;1.5774;
425.1000;0.8352;1.5774;
425.4000;0.8270;1.5563;
425.7000;0.8319;1.5704;
426.0000;0.8352;1.5774;
426.3000;0.8352;1.5774;
426.6000;0.8319;1.5727;
426.9000;0.8360;1.5868;
427.2000;0.8344;1.5915;
427.5000;0.8352;1.5985;
427.8000;0.8352;1.5938;
428.1000;0.8360;1.5938;
428.4000;0.8352;1.5821;
428.7000;0.8352;1.5844;
429.0000;0.8360;1.5962;
429.3000;0.8344;1.5915;
429.6000;0.8344;1.5891;
429.9000;0.8376;1.5938;
430.2000;0.8360;1.5938;
430.5000;0.8368;1.5985;
430.8000;0.8425;1.6173;
431.1000;0.8425;1.6150;
431.4000;0.8368;1.6009;
431.7000;0.8295;1.5962;
432.0000;0.8384;1.6150;
432.3000;0.8287;1.5985;
432.6000;0.8360;1.6103;
432.9000;0.8360;1.6103;
433.2000;0.8287;1.5868;
433.5000;0.8360;1.6032;
433.8000;0.8352;1.5962;
434.1000;0.8360;1.5938;
434.4000;0.8360;1.5868;
434.7000;0.8344;1.5868;
435.0000;0.8352;1.5915;
435.3000;0.8352;1.5891;
435.6000;0.8344;1.5821;
435.9000;0.8344;1.5891;
436.2000;0.8360;1.5868;
436.5000;0.8344;1.5774;
436.8000;0.8344;1.5774;
437.1000;0.8506;1.6337;
437.4000;0.8344;1.5844;
437.7000;0.8303;1.5727;
438.0000;0.8360;1.5821;
438.3000;0.8368;1.5727;
438.6000;0.8335;1.5610;
438.9000;0.8360;1.5610;
439.2000;0.8352;1.5680;
439.5000;0.8360;1.5868;
439.8000;0.8335;1.5915;
440.1000;0.8360;1.6056;
440.4000;0.8368;1.6103;
440.7000;0.8335;1.5962;
441.0000;0.8368;1.5985;
441.3000;0.8368;1.5938;
441.6000;0.8344;1.5985;
441.9000;0.8352;1.5962;
442.2000;0.8352;1.5962;
442.5000;0.8352;1.5915;
442.8000;0.8352;1.5891;
443.1000;0.8384;1.5962;
443.4000;0.8344;1.5704;
443.7000;0.8344;1.5680;
444.0000;0.8384;1.5750;
444.3000;0.8360;1.5844;
444.6000;0.8352;1.5844;
444.9000;0.8360;1.5915;
445.2000;0.8352;1.5938;
445.5000;0.8335;1.5868;
445.8000;0.8352;1.5962;
446.1000;0.8335;1.5915;
446.4000;0.8384;1.6009;
446.7000;0.8335;1.5938;
447.0000;0.8335;1.5938;
447.3000;0.8335;1.5962;
447.6000;0.8335;1.6032;
447.9000;0.8352;1.6079;
448.2000;0.8368;1.6056;
448.5000;0.8352;1.5962;
448.8000;0.8335;1.5891;
449.1000;0.8400;1.6079;
449.4000;0.8352;1.5844;
449.7000;0.8352;1.5891;
450.0000;0.8344;1.5821;
450.3000;0.8352;1.5868;
450.6000;0.8400;1.6150;
450.9000;0.8352;1.6009;
451.2000;0.8344;1.5962;
451.5000;0.8344;1.5891;
451.8000;0.8319;1.5844;
452.1000;0.8360;1.5962;
452.4000;0.8352;1.5985;
452.7000;0.8352;1.6032;
453.0000;0.8335;1.5985;
453.3000;0.8335;1.5985;
453.6000;0.8433;1.6196;
453.9000;0.8335;1.5844;
454.2000;0.8449;1.6103;
454.5000;0.8335;1.5868;
454.8000;0.8417;1.6079;
455.1000;0.8311;1.5774;
455.4000;0.8335;1.5915;
455.7000;0.8360;1.5938;
456.0000;0.8352;1.5915;
456.3000;0.8327;1.5962;
456.6000;0.8457;1.6290;
456.9000;0.8360;1.6056;
457.2000;0.8335;1.5915;
457.5000;0.8360;1.5915;
457.8000;0.8335;1.5844;
458.1000;0.8344;1.5821;
458.4000;0.8344;1.5868;
458.7000;0.8344;1.5938;
459.0000;0.8335;1.5915;
459.3000;0.8335;1.5915;
459.6000;0.8352;1.6032;
459.9000;0.8360;1.5891;
460.2000;0.8344;1.5844;
460.5000;0.8344;1.5868;
460.8000;0.8335;1.5891;
461.1000;0.8335;1.5891;
461.4000;0.8344;1.5891;
461.7000;0.8352;1.5891;
462.0000;0.8344;1.5915;
462.3000;0.8352;1.5844;
462.6000;0.8352;1.5868;
462.9000;0.8409;1.5938;
463.2000;0.8352;1.5797;
463.5000;0.8360;1.5727;
463.8000;0.8360;1.5704;
464.1000;0.8352;1.5680;
464.4000;0.8344;1.5633;
464.7000;0.8360;1.5633;
465.0000;0.8376;1.5704;
465.3000;0.8335;1.5610;
465.6000;0.8335;1.5704;
465.9000;0.8344;1.5727;
466.2000;0.8360;1.5821;
466.5000;0.8368;1.5915;
466.8000;0.8360;1.5868;
467.1000;0.8335;1.5891;
467.4000;0.8360;1.5938;
467.7000;0.8344;1.5962;
468.0000;0.8319;1.5915;
468.3000;0.8344;1.6009;
468.6000;0.8344;1.6056;
468.9000;0.8368;1.6056;
469.2000;0.8360;1.5962;
469.5000;0.8319;1.5750;
469.8000;0.8360;1.5797;
470.1000;0.8360;1.5704;
470.4000;0.8344;1.5704;
470.7000;0.8352;1.5797;
471.0000;0.8344;1.5704;
471.3000;0.8287;1.5610;
471.6000;0.8311;1.5657;
471.9000;0.8344;1.5704;
472.2000;0.8311;1.5633;
472.5000;0.8344;1.5821;
472.8000;0.8344;1.5821;
473.1000;0.8360;1.5844;
473.4000;0.8360;1.5727;
473.7000;0.8344;1.5750;
474.0000;0.8344;1.5797;
474.3000;0.8368;1.5797;
474.6000;0.8311;1.5680;
474.9000;0.8344;1.5797;
475.2000;0.8335;1.5821;
475.5000;0.8295;1.5680;
475.8000;0.8344;1.5797;
476.1000;0.8319;1.5797;
476.4000;0.8295;1.5821;
476.7000;0.8327;1.5891;
477.0000;0.8335;1.5915;
477.3000;0.8327;1.5844;
477.6000;0.8360;1.5985;
477.9000;0.8344;1.5915;
478.2000;0.8352;1.5891;
478.5000;0.8352;1.5868;
478.8000;0.8352;1.5868;
479.1000;0.8352;1.5844;
479.4000;0.8352;1.5868;
479.7000;0.8352;1.5868;
480.0000;0.8335;1.5868;
480.3000;0.8409;1.6009;
480.6000;0.8360;1.5915;
480.9000;0.8335;1.5915;
481.2000;0.8246;1.5750;
481.5000;0.8360;1.6032;
481.8000;0.8335;1.6079;
482.1000;0.8344;1.6079;
482.4000;0.8352;1.6126;
482.7000;0.8344;1.6126;
483.0000;0.8368;1.6196;
483.3000;0.8327;1.6056;
483.6000;0.8344;1.6079;
483.9000;0.8335;1.5915;
484.2000;0.8376;1.6056;
484.5000;0.8344;1.6103;
484.8000;0.8335;1.6079;
485.1000;0.8352;1.6032;
485.4000;0.8352;1.6009;
485.7000;0.8335;1.6009;
486.0000;0.8360;1.6056;
486.3000;0.8335;1.5962;
486.6000;0.8344;1.5985;
486.9000;0.8335;1.5985;
487.2000;0.8335;1.5915;
487.5000;0.8327;1.5915;
487.8000;0.8335;1.5962;
488.1000;0.8327;1.5915;
488.4000;0.8344;1.5891;
488.7000;0.8352;1.5868;
489.0000;0.8344;1.5962;
489.3000;0.8352;1.5915;
489.6000;0.8360;1.5891;
489.9000;0.8352;1.5821;
490.2000;0.8360;1.5750;
490.5000;0.8360;1.5821;
490.8000;0.8335;1.5891;
491.1000;0.8344;1.6009;
491.4000;0.8352;1.6032;
491.7000;0.8335;1.6079;
492.0000;0.8344;1.6056;
492.3000;0.8295;1.5915;
492.6000;0.8352;1.5985;
492.9000;0.8327;1.5915;
493.2000;0.8360;1.5938;
493.5000;0.8360;1.5962;
493.8000;0.8335;1.5962;
494.1000;0.8335;1.5938;
494.4000;0.8352;1.5868;
494.7000;0.8360;1.5938;
495.0000;0.8352;1.5962;
495.3000;0.8344;1.5962;
495.6000;0.8352;1.6056;
495.9000;0.8352;1.6079;
496.2000;0.8344;1.6173;
496.5000;0.8335;1.6220;
496.8000;0.8344;1.6173;
497.1000;0.8482;1.6455;
497.4000;0.8392;1.6196;
497.7000;0.8417;1.6150;
498.0000;0.8352;1.5962;
498.3000;0.8344;1.5915;
498.6000;0.8344;1.5844;
498.9000;0.8335;1.5821;
499.2000;0.8335;1.5797;
499.5000;0.8360;1.5797;
499.8000;0.8417;1.5938;
500.1000;0.8368;1.5844;
500.4000;0.8368;1.5797;
500.7000;0.8327;1.5704;
501.0000;0.8360;1.5868;
501.3000;0.8344;1.5844;
501.6000;0.8352;1.5891;
501.9000;0.8335;1.5962;
502.2000;0.8352;1.6009;
502.5000;0.8352;1.6032;
502.8000;0.8344;1.5938;
503.1000;0.8360;1.5891;
503.4000;0.8335;1.5704;
503.7000;0.8335;1.5704;
504.0000;0.8319;1.5704;
504.3000;0.8344;1.5727;
504.6000;0.8360;1.5680;
504.9000;0.8360;1.5657;
505.2000;0.8368;1.5774;
505.5000;0.8352;1.5704;
505.8000;0.8352;1.5774;
506.1000;0.8344;1.5821;
506.4000;0.8327;1.5797;
506.7000;0.8352;1.5797;
507.0000;0.8319;1.5680;
507.3000;0.8335;1.5657;
507.6000;0.8352;1.5727;
507.9000;0.8344;1.5633;
508.2000;0.8327;1.5704;
508.5000;0.8344;1.5844;
508.8000;0.8335;1.5915;
509.1000;0.8335;1.6009;
509.4000;0.8327;1.5985;
509.7000;0.8335;1.5962;
510.0000;0.8352;1.5891;
510.3000;0.8368;1.5891;
510.6000;0.8352;1.5821;
510.9000;0.8238;1.5563;
511.2000;0.8368;1.5821;
511.5000;0.8360;1.5797;
511.8000;0.8360;1.5774;
512.1000;0.8352;1.5704;
512.4000;0.8352;1.5633;
512.7000;0.8352;1.5657;
513.0000;0.8344;1.5657;
513.3000;0.8335;1.5633;
513.6000;0.8335;1.5610;
513.9000;0.8335;1.5563;
514.2000;0.8335;1.5610;
514.5000;0.8327;1.5633;
514.8000;0.8319;1.5680;
515.1000;0.8303;1.5750;
515.4000;0.8344;1.5891;
515.7000;0.8344;1.5891;
516.0000;0.8344;1.5868;
516.3000;0.8344;1.5821;
516.6000;0.8335;1.5774;
516.9000;0.8335;1.5750;
517.2000;0.8335;1.5704;
517.5000;0.8327;1.5704;
517.8000;0.8327;1.5821;
518.1000;0.8335;1.5821;
518.4000;0.8319;1.5750;
518.7000;0.8319;1.5844;
519.0000;0.8335;1.5891;
519.3000;0.8295;1.5821;
519.6000;0.8327;1.5891;
519.9000;0.8344;1.5868;
520.2000;0.8311;1.5868;
520.5000;0.8352;1.6009;
520.8000;0.8392;1.6150;
521.1000;0.8319;1.5868;
521.4000;0.8344;1.5915;
521.7000;0.8344;1.5938;
522.0000;0.8376;1.5962;
522.3000;0.8360;1.5962;
522.6000;0.8352;1.6009;
522.9000;0.8344;1.6056;
523.2000;0.8319;1.5985;
523.5000;0.8352;1.5938;
523.8000;0.8344;1.5915;
524.1000;0.8352;1.5985;
524.4000;0.8335;1.5915;
524.7000;0.8344;1.5868;
525.0000;0.8344;1.5821;
525.3000;0.8335;1.5821;
525.6000;0.8368;1.5750;
525.9000;0.8335;1.5610;
526.2000;0.8352;1.5680;
526.5000;0.8344;1.5750;
526.8000;0.8352;1.5704;
527.1000;0.8344;1.5727;
527.4000;0.8417;1.5891;
527.7000;0.8327;1.5680;
528.0000;0.8344;1.5727;
528.3000;0.8335;1.5633;
528.6000;0.8344;1.5633;
528.9000;0.8352;1.5586;
529.2000;0.8344;1.5539;
529.5000;0.8344;1.5633;
529.8000;0.8335;1.5657;
530.1000;0.8352;1.5727;
530.4000;0.8327;1.5704;
530.7000;0.8327;1.5680;
531.0000;0.8368;1.5868;
531.3000;0.8344;1.5704;
531.6000;0.8335;1.5704;
531.9000;0.8205;1.5375;
532.2000;0.8327;1.5750;
532.5000;0.8327;1.5750;
532.8000;0.8319;1.5774;
533.1000;0.8360;1.5915;
533.4000;0.8352;1.5891;
533.7000;0.8368;1.5938;
534.0000;0.8295;1.5797;
534.3000;0.8344;1.5868;
534.6000;0.8344;1.5821;
534.9000;0.8344;1.5821;
535.2000;0.8311;1.5727;
535.5000;0.8344;1.5774;
535.8000;0.8327;1.5610;
536.1000;0.8344;1.5610;
536.4000;0.8319;1.5610;
536.7000;0.8449;1.5985;
537.0000;0.8335;1.5915;
537.3000;0.8360;1.6079;
537.6000;0.8360;1.6032;
537.9000;0.8327;1.5985;
538.2000;0.8344;1.6009;
538.5000;0.8352;1.6056;
538.8000;0.8344;1.6056;
539.1000;0.8335;1.6032;
539.4000;0.8360;1.6056;
539.7000;0.8335;1.5915;
540.0000;0.8344;1.5938;
540.3000;0.8344;1.5938;
540.6000;0.8335;1.5962;
540.9000;0.8392;1.6173;
541.2000;0.8368;1.6103;
541.5000;0.8303;1.5844;
541.8000;0.8344;1.5985;
542.1000;0.8352;1.5962;
542.4000;0.8335;1.5962;
542.7000;0.8344;1.6056;
543.0000;0.8335;1.6103;
543.3000;0.8295;1.5938;
543.6000;0.8360;1.5985;
543.9000;0.8368;1.5985;
544.2000;0.8344;1.5915;
544.5000;0.8319;1.5915;
544.8000;0.8352;1.6009;
545.1000;0.8352;1.5938;
545.4000;0.8295;1.5868;
545.7000;0.8360;1.6009;
546.0000;0.8335;1.5985;
546.3000;0.8457;1.6243;
546.6000;0.8352;1.5915;
546.9000;0.8327;1.5915;
547.2000;0.8352;1.5985;
547.5000;0.8327;1.5985;
547.8000;0.8230;1.5774;
548.1000;0.8344;1.6056;
548.4000;0.8327;1.6056;
548.7000;0.8344;1.6009;
549.0000;0.8270;1.5750;
549.3000;0.8335;1.5915;
549.6000;0.8344;1.5938;
549.9000;0.8344;1.6032;
550.2000;0.8457;1.6337;
550.5000;0.8335;1.6032;
550.8000;0.8319;1.6032;
551.1000;0.8319;1.6056;
551.4000;0.8327;1.6103;
551.7000;0.8344;1.6126;
552.0000;0.8295;1.5985;
552.3000;0.8335;1.6032;
552.6000;0.8319;1.5985;
552.9000;0.8311;1.6056;
553.2000;0.8311;1.6032;
553.5000;0.8311;1.5938;
553.8000;0.8319;1.5938;
554.1000;0.8319;1.5821;
554.4000;0.8344;1.5844;
554.7000;0.8295;1.5821;
555.0000;0.8335;1.5938;
555.3000;0.8344;1.5962;
555.6000;0.8335;1.5985;
555.9000;0.8335;1.5962;
556.2000;0.8352;1.6056;
556.5000;0.8368;1.6056;
556.8000;0.8344;1.5985;
557.1000;0.8319;1.5985;
557.4000;0.8335;1.5938;
557.7000;0.8344;1.5938;
558.0000;0.8327;1.5962;
558.3000;0.8344;1.6056;
558.6000;0.8335;1.6056;
558.9000;0.8303;1.5915;
559.2000;0.8344;1.6009;
559.5000;0.8335;1.6079;
559.8000;0.8352;1.6103;
560.1000;0.8319;1.6173;
560.4000;0.8344;1.6150;
560.7000;0.8352;1.6150;
561.0000;0.8311;1.6056;
561.3000;0.8319;1.6079;
561.6000;0.8335;1.6079;
561.9000;0.8344;1.6150;
562.2000;0.8303;1.6032;
562.5000;0.8352;1.6032;
562.8000;0.8335;1.5985;
563.1000;0.8327;1.5938;
563.4000;0.8311;1.5797;
563.7000;0.8335;1.5891;
564.0000;0.8319;1.5915;
564.3000;0.8335;1.5915;
564.6000;0.8287;1.5821;
564.9000;0.8327;1.5962;
565.2000;0.8319;1.5891;
565.5000;0.8238;1.5704;
565.8000;0.8360;1.6009;
566.1000;0.8327;1.5868;
566.4000;0.8344;1.5938;
566.7000;0.8335;1.5938;
567.0000;0.8311;1.5891;
567.3000;0.8344;1.6056;
567.6000;0.8425;1.6337;
567.9000;0.8344;1.6103;
568.2000;0.8360;1.6103;
568.5000;0.8335;1.6009;
568.8000;0.8319;1.5938;
569.1000;0.8335;1.6056;
569.4000;0.8449;1.6384;
569.7000;0.8335;1.6079;
570.0000;0.8327;1.6056;
570.3000;0.8303;1.5915;
570.6000;0.8230;1.5657;
570.9000;0.8319;1.5868;
571.2000;0.8335;1.5915;
571.5000;0.8335;1.5962;
571.8000;0.8384;1.6009;
572.1000;0.8392;1.6056;
572.4000;0.8327;1.5962;
572.7000;0.8327;1.5938;
573.0000;0.8344;1.5938;
573.3000;0.8327;1.5844;
573.6000;0.8327;1.5750;
573.9000;0.8327;1.5704;
574.2000;0.8344;1.5774;
574.5000;0.8335;1.5750;
574.8000;0.8335;1.5633;
575.1000;0.8352;1.5727;
575.4000;0.8327;1.5727;
575.7000;0.8335;1.5750;
576.0000;0.8344;1.5727;
576.3000;0.8344;1.5750;
576.6000;0.8409;1.5985;
576.9000;0.8319;1.5797;
577.2000;0.8344;1.5868;
577.5000;0.8319;1.5821;
577.8000;0.8311;1.5821;
578.1000;0.8327;1.5774;
578.4000;0.8344;1.5844;
578.7000;0.8327;1.5821;
579.0000;0.8344;1.5821;
579.3000;0.8327;1.5868;
579.6000;0.8311;1.5868;
579.9000;0.8352;1.5915;
580.2000;0.8335;1.5821;
580.5000;0.8327;1.5821;
580.8000;0.8352;1.5868;
581.1000;0.8344;1.5891;
581.4000;0.8335;1.5868;
581.7000;0.8319;1.5915;
582.0000;0.8327;1.5962;
582.3000;0.8360;1.6079;
582.6000;0.8360;1.5985;
582.9000;0.8327;1.5891;
583.2000;0.8335;1.5891;
583.5000;0.8335;1.5868;
583.8000;0.8319;1.5797;
584.1000;0.8319;1.5844;
584.4000;0.8303;1.5915;
584.7000;0.8311;1.5915;
585.0000;0.8319;1.5938;
585.3000;0.8335;1.5985;
585.6000;0.8327;1.5962;
585.9000;0.8303;1.5868;
586.2000;0.8254;1.5704;
586.5000;0.8344;1.5797;
586.8000;0.8344;1.5821;
587.1000;0.8311;1.5774;
587.4000;0.8303;1.5704;
587.7000;0.8327;1.5774;
588.0000;0.8311;1.5727;
588.3000;0.8327;1.5727;
588.6000;0.8344;1.5797;
588.9000;0.8327;1.5774;
589.2000;0.8327;1.5750;
589.5000;0.8352;1.5844;
589.8000;0.8335;1.5821;
590.1000;0.8295;1.5774;
590.4000;0.8335;1.5938;
590.7000;0.8319;1.5891;
591.0000;0.8376;1.5962;
591.3000;0.8270;1.5680;
591.6000;0.8303;1.5704;
591.9000;0.8327;1.5797;
592.2000;0.8287;1.5563;
592.5000;0.8335;1.5657;
592.8000;0.8327;1.5657;
593.1000;0.8335;1.5610;
593.4000;0.8335;1.5727;
593.7000;0.8221;1.5351;
594.0000;0.8319;1.5680;
594.3000;0.8335;1.5657;
594.6000;0.8335;1.5680;
594.9000;0.8327;1.5657;
595.2000;0.8327;1.5657;
595.5000;0.8335;1.5633;
595.8000;0.8213;1.5375;
596.1000;0.8311;1.5633;
596.4000;0.8335;1.5704;
596.7000;0.8352;1.5750;
597.0000;0.8327;1.5680;
597.3000;0.8433;1.5962;
597.6000;0.8319;1.5704;
597.9000;0.8319;1.5797;
598.2000;0.8327;1.5797;
598.5000;0.8319;1.5821;
598.8000;0.8311;1.5868;
599.1000;0.8327;1.5915;
599.4000;0.8311;1.5915;
599.7000;0.8319;1.5962;
600.0000;0.8311;1.5938;
600.3000;0.8319;1.5774;
600.6000;0.8319;1.5680;
600.9000;0.8295;1.5516;
601.2000;0.8270;1.5469;
601.5000;0.8221;1.5258;
601.8000;0.8205;1.5093;
602.1000;0.8140;1.4905;
602.4000;0.8042;1.4624;
602.7000;0.7993;1.4506;
603.0000;0.7961;1.4389;
603.3000;0.7920;1.4248;
603.6000;0.7839;1.4131;
603.9000;0.7814;1.4107;
604.2000;0.7757;1.4037;
604.5000;0.7717;1.3967;
604.8000;0.7627;1.3943;
605.1000;0.7619;1.3896;
605.4000;0.7578;1.3779;
605.7000;0.7513;1.3544;
606.0000;0.7497;1.3474;
606.3000;0.7448;1.3450;
606.6000;0.7416;1.3521;
606.9000;0.7391;1.3544;
607.2000;0.7359;1.3450;
607.5000;0.7334;1.3380;
607.8000;0.7293;1.3333;
608.1000;0.7188;1.3121;
608.4000;0.7220;1.3333;
608.7000;0.7196;1.3309;
609.0000;0.7179;1.3333;
609.3000;0.7155;1.3309;
609.6000;0.7114;1.3239;
609.9000;0.7082;1.3286;
610.2000;0.7066;1.3286;
610.5000;0.7033;1.3239;
610.8000;0.7009;1.3215;
611.1000;0.6968;1.3098;
611.4000;0.6952;1.3051;
611.7000;0.6927;1.3051;
612.0000;0.6919;1.2934;
612.3000;0.6895;1.2934;
612.6000;0.6846;1.2910;
612.9000;0.6870;1.3004;
613.2000;0.6764;1.2746;
613.5000;0.6838;1.2981;
613.8000;0.6789;1.2910;
614.1000;0.6756;1.2934;
614.4000;0.6756;1.2957;
614.7000;0.6707;1.2887;
615.0000;0.6716;1.2957;
615.3000;0.6650;1.2863;
615.6000;0.6642;1.2816;
615.9000;0.6650;1.2863;
616.2000;0.6626;1.2863;
616.5000;0.6610;1.2887;
616.8000;0.6593;1.2840;
617.1000;0.6553;1.2722;
617.4000;0.6528;1.2652;
617.7000;0.6536;1.2722;
618.0000;0.6496;1.2699;
618.3000;0.6463;1.2675;
618.6000;0.6406;1.2582;
618.9000;0.6365;1.2511;
619.2000;0.6447;1.2793;
619.5000;0.6439;1.2769;
619.8000;0.6431;1.2816;
620.1000;0.6414;1.2816;
620.4000;0.6439;1.2840;
620.7000;0.6382;1.2722;
621.0000;0.6357;1.2699;
621.3000;0.6325;1.2675;
621.6000;0.6333;1.2769;
621.9000;0.6309;1.2722;
622.2000;0.6357;1.2816;
622.5000;0.6284;1.2582;
622.8000;0.6268;1.2605;
623.1000;0.6276;1.2652;
623.4000;0.6252;1.2675;
623.7000;0.6235;1.2629;
624.0000;0.6219;1.2629;
624.3000;0.6186;1.2629;
624.6000;0.6203;1.2675;
624.9000;0.6056;1.2441;
625.2000;0.6162;1.2699;
625.5000;0.6154;1.2605;
625.8000;0.6138;1.2558;
626.1000;0.6146;1.2511;
626.4000;0.6138;1.2558;
626.7000;0.6121;1.2511;
627.0000;0.6105;1.2417;
627.3000;0.6097;1.2464;
627.6000;0.6089;1.2464;
627.9000;0.6056;1.2417;
628.2000;0.6056;1.2394;
628.5000;0.6048;1.2441;
628.8000;0.5967;1.2300;
629.1000;0.6024;1.2535;
629.4000;0.5999;1.2511;
629.7000;0.5999;1.2488;
630.0000;0.6007;1.2558;
630.3000;0.5999;1.2675;
630.6000;0.5975;1.2675;
630.9000;0.5991;1.2699;
631.2000;0.5950;1.2652;
631.5000;0.5942;1.2722;
631.8000;0.5942;1.2722;
632.1000;0.5926;1.2652;
632.4000;0.5918;1.2605;
632.7000;0.5902;1.2558;
633.0000;0.5893;1.2629;
633.3000;0.5910;1.2722;
633.6000;0.5885;1.2699;
633.9000;0.5796;1.2511;
634.2000;0.5877;1.2699;
634.5000;0.5877;1.2582;
634.8000;0.5845;1.2535;
635.1000;0.5861;1.2558;
635.4000;0.5861;1.2488;
635.7000;0.5845;1.2488;
636.0000;0.5836;1.2558;
636.3000;0.5771;1.2558;
636.6000;0.5812;1.2629;
636.9000;0.5796;1.2605;
637.2000;0.5812;1.2652;
637.5000;0.5796;1.2652;
637.8000;0.5796;1.2629;
638.1000;0.5779;1.2605;
638.4000;0.5828;1.2722;
638.7000;0.5763;1.2582;
639.0000;0.5763;1.2535;
639.3000;0.5739;1.2535;
639.6000;0.5722;1.2464;
639.9000;0.5731;1.2464;
640.2000;0.5739;1.2488;
640.5000;0.5747;1.2558;
640.8000;0.5722;1.2511;
641.1000;0.5714;1.2535;
641.4000;0.5706;1.2582;
641.7000;0.5698;1.2675;
642.0000;0.5771;1.2722;
642.3000;0.5674;1.2394;
642.6000;0.5649;1.2441;
642.9000;0.5665;1.2464;
643.2000;0.5665;1.2605;
643.5000;0.5641;1.2558;
643.8000;0.5625;1.2511;
644.1000;0.5641;1.2558;
644.4000;0.5543;1.2347;
644.7000;0.5625;1.2558;
645.0000;0.5625;1.2488;
645.3000;0.5625;1.2417;
645.6000;0.5633;1.2464;
645.9000;0.5617;1.2558;
646.2000;0.5592;1.2535;
646.5000;0.5600;1.2488;
646.8000;0.5608;1.2488;
647.1000;0.5592;1.2417;
647.4000;0.5592;1.2417;
647.7000;0.5584;1.2394;
648.0000;0.5560;1.2347;
648.3000;0.5568;1.2394;
648.6000;0.5560;1.2535;
648.9000;0.5568;1.2535;
649.2000;0.5519;1.2394;
649.5000;0.5551;1.2535;
649.8000;0.5560;1.2535;
650.1000;0.5543;1.2441;
650.4000;0.5551;1.2464;
650.7000;0.5592;1.2629;
651.0000;0.5617;1.2605;
651.3000;0.5543;1.2464;
651.6000;0.5535;1.2441;
651.9000;0.5511;1.2394;
652.2000;0.5527;1.2488;
652.5000;0.5495;1.2417;
652.8000;0.5527;1.2370;
653.1000;0.5511;1.2347;
653.4000;0.5511;1.2300;
653.7000;0.5511;1.2300;
654.0000;0.5503;1.2253;
654.3000;0.5486;1.2276;
654.6000;0.5470;1.2394;
654.9000;0.5543;1.2605;
655.2000;0.5478;1.2464;
655.5000;0.5470;1.2511;
655.8000;0.5462;1.2488;
656.1000;0.5462;1.2488;
656.4000;0.5462;1.2394;
656.7000;0.5429;1.2347;
657.0000;0.5438;1.2394;
657.3000;0.5486;1.2582;
657.6000;0.5454;1.2488;
657.9000;0.5438;1.2488;
658.2000;0.5446;1.2535;
658.5000;0.5389;1.2394;
658.8000;0.5438;1.2511;
659.1000;0.5470;1.2629;
659.4000;0.5421;1.2488;
659.7000;0.5454;1.2488;
660.0000;0.5429;1.2370;
660.3000;0.5446;1.2441;
660.6000;0.5413;1.2370;
660.9000;0.5421;1.2347;
661.2000;0.5299;1.1995;
661.5000;0.5397;1.2206;
661.8000;0.5405;1.2276;
662.1000;0.5405;1.2300;
662.4000;0.5381;1.2323;
662.7000;0.5397;1.2347;
663.0000;0.5429;1.2417;
663.3000;0.5372;1.2276;
663.6000;0.5405;1.2347;
663.9000;0.5381;1.2253;
664.2000;0.5405;1.2370;
664.5000;0.5389;1.2347;
664.8000;0.5381;1.2347;
665.1000;0.5421;1.2582;
665.4000;0.5356;1.2488;
665.7000;0.5356;1.2464;
666.0000;0.5340;1.2347;
666.3000;0.5348;1.2323;
666.6000;0.5348;1.2300;
666.9000;0.5340;1.2370;
667.2000;0.5307;1.2253;
667.5000;0.5364;1.2394;
667.8000;0.5315;1.2183;
668.1000;0.5340;1.2253;
668.4000;0.5340;1.2206;
668.7000;0.5340;1.2276;
669.0000;0.5332;1.2323;
669.3000;0.5332;1.2370;
669.6000;0.5340;1.2276;
669.9000;0.5324;1.2276;
670.2000;0.5340;1.2347;
670.5000;0.5332;1.2230;
670.8000;0.5242;1.2065;
671.1000;0.5324;1.2253;
671.4000;0.5315;1.2300;
671.7000;0.5307;1.2323;
672.0000;0.5332;1.2464;
672.3000;0.5315;1.2394;
672.6000;0.5315;1.2417;
672.9000;0.5332;1.2441;
673.2000;0.5307;1.2441;
673.5000;0.5283;1.2394;
673.8000;0.5291;1.2394;
674.1000;0.5315;1.2582;
674.4000;0.5299;1.2511;
674.7000;0.5291;1.2605;
675.0000;0.5291;1.2652;
675.3000;0.5283;1.2535;
675.6000;0.5250;1.2511;
675.9000;0.5283;1.2699;
676.2000;0.5299;1.2699;
676.5000;0.5299;1.2558;
676.8000;0.5250;1.2582;
677.1000;0.5267;1.2629;
677.4000;0.5283;1.2652;
677.7000;0.5275;1.2675;
678.0000;0.5250;1.2675;
678.3000;0.5242;1.2652;
678.6000;0.5234;1.2558;
678.9000;0.5275;1.2535;
679.2000;0.5258;1.2417;
679.5000;0.5275;1.2488;
679.8000;0.5258;1.2488;
680.1000;0.5258;1.2417;
680.4000;0.5250;1.2417;
680.7000;0.5250;1.2441;
681.0000;0.5242;1.2535;
681.3000;0.5226;1.2488;
681.6000;0.5291;1.2629;
681.9000;0.5242;1.2582;
682.2000;0.5250;1.2605;
682.5000;0.5210;1.2488;
682.8000;0.5234;1.2488;
683.1000;0.5193;1.2323;
683.4000;0.5234;1.2417;
683.7000;0.5218;1.2417;
684.0000;0.5275;1.2652;
684.3000;0.5210;1.2417;
684.6000;0.5242;1.2535;
684.9000;0.5161;1.2253;
685.2000;0.5226;1.2488;
685.5000;0.5210;1.2535;
685.8000;0.5218;1.2582;
686.1000;0.5226;1.2535;
686.4000;0.5218;1.2535;
686.7000;0.5185;1.2394;
687.0000;0.5210;1.2488;
687.3000;0.5193;1.2417;
687.6000;0.5210;1.2464;
687.9000;0.5210;1.2441;
688.2000;0.5210;1.2441;
688.5000;0.5210;1.2488;
688.8000;0.5201;1.2535;
689.1000;0.5201;1.2511;
689.4000;0.5161;1.2370;
689.7000;0.5193;1.2488;
690.0000;0.5201;1.2535;
690.3000;0.5177;1.2464;
690.6000;0.5218;1.2582;
690.9000;0.5218;1.2511;
691.2000;0.5193;1.2441;
691.5000;0.5201;1.2464;
691.8000;0.5201;1.2417;
692.1000;0.5161;1.2417;
692.4000;0.5185;1.2605;
692.7000;0.5226;1.2722;
693.0000;0.5185;1.2652;
693.3000;0.5185;1.2652;
693.6000;0.5177;1.2629;
693.9000;0.5177;1.2582;
694.2000;0.5177;1.2511;
694.5000;0.5193;1.2582;
694.8000;0.5177;1.2441;
695.1000;0.5201;1.2488;
695.4000;0.5193;1.2511;
695.7000;0.5201;1.2558;
696.0000;0.5169;1.2511;
696.3000;0.5193;1.2582;
696.6000;0.5185;1.2535;
696.9000;0.5185;1.2535;
697.2000;0.5177;1.2605;
697.5000;0.5136;1.2652;
697.8000;0.5153;1.2652;
698.1000;0.5177;1.2746;
698.4000;0.5185;1.2675;
698.7000;0.5128;1.2464;
699.0000;0.5112;1.2347;
699.3000;0.5136;1.2417;
699.6000;0.5153;1.2535;
699.9000;0.5169;1.2511;
700.2000;0.5153;1.2441;
700.5000;0.5169;1.2535;
700.8000;0.5153;1.2558;
701.1000;0.5161;1.2488;
701.4000;0.5153;1.2535;
701.7000;0.5153;1.2582;
702.0000;0.5161;1.2652;
702.3000;0.5161;1.2675;
702.6000;0.5136;1.2582;
702.9000;0.5161;1.2652;
703.2000;0.5161;1.2722;
703.5000;0.5153;1.2675;
703.8000;0.5144;1.2652;
704.1000;0.5169;1.2699;
704.4000;0.5144;1.2769;
704.7000;0.5128;1.2675;
705.0000;0.5161;1.2675;
705.3000;0.5153;1.2652;
705.6000;0.5161;1.2699;
705.9000;0.5144;1.2699;
706.2000;0.5144;1.2699;
706.5000;0.5088;1.2558;
706.8000;0.5120;1.2722;
707.1000;0.5128;1.2746;
707.4000;0.5120;1.2746;
707.7000;0.5153;1.2769;
708.0000;0.5120;1.2605;
708.3000;0.5185;1.2722;
708.6000;0.5128;1.2558;
708.9000;0.5136;1.2605;
709.2000;0.5136;1.2675;
709.5000;0.5128;1.2558;
709.8000;0.5128;1.2582;
710.1000;0.5120;1.2558;
710.4000;0.5079;1.2464;
710.7000;0.5128;1.2488;
711.0000;0.5128;1.2464;
711.3000;0.5210;1.2722;
711.6000;0.5120;1.2535;
711.9000;0.5128;1.2582;
712.2000;0.5112;1.2488;
712.5000;0.5128;1.2605;
712.8000;0.5104;1.2605;
713.1000;0.5136;1.2582;
713.4000;0.5120;1.2417;
713.7000;0.5104;1.2300;
714.0000;0.5120;1.2370;
714.3000;0.5088;1.2347;
714.6000;0.5120;1.2464;
714.9000;0.5112;1.2394;
715.2000;0.5014;1.2230;
715.5000;0.5104;1.2464;
715.8000;0.5120;1.2535;
716.1000;0.5112;1.2605;
716.4000;0.5096;1.2535;
716.7000;0.5096;1.2629;
717.0000;0.5112;1.2629;
717.3000;0.5096;1.2582;
717.6000;0.5104;1.2652;
717.9000;0.5112;1.2605;
718.2000;0.5112;1.2558;
718.5000;0.5096;1.2558;
718.8000;0.5112;1.2511;
719.1000;0.5096;1.2394;
719.4000;0.5096;1.2370;
719.7000;0.5096;1.2347;
720.0000;0.5120;1.2394;
720.3000;0.5104;1.2370;
720.6000;0.5088;1.2370;
720.9000;0.5088;1.2417;
721.2000;0.5112;1.2535;
721.5000;0.5112;1.2511;
721.8000;0.5104;1.2441;
722.1000;0.5088;1.2394;
722.4000;0.5120;1.2441;
722.7000;0.5120;1.2488;
723.0000;0.5096;1.2464;
723.3000;0.5104;1.2488;
723.6000;0.5096;1.2558;
723.9000;0.5088;1.2582;
724.2000;0.5088;1.2488;
724.5000;0.5088;1.2535;
724.8000;0.5088;1.2582;
725.1000;0.5128;1.2746;
725.4000;0.5096;1.2605;
725.7000;0.5096;1.2652;
726.0000;0.5120;1.2793;
726.3000;0.5088;1.2675;
726.6000;0.5071;1.2652;
726.9000;0.5088;1.2699;
727.2000;0.5096;1.2769;
727.5000;0.5063;1.2629;
727.8000;0.5088;1.2699;
728.1000;0.5096;1.2793;
728.4000;0.5088;1.2840;
728.7000;0.5071;1.2793;
729.0000;0.5079;1.2793;
729.3000;0.5088;1.2675;
729.6000;0.5079;1.2652;
729.9000;0.5088;1.2652;
730.2000;0.5096;1.2652;
730.5000;0.5096;1.2675;
730.8000;0.5112;1.2746;
731.1000;0.5088;1.2722;
731.4000;0.5079;1.2699;
731.7000;0.5071;1.2629;
732.0000;0.5071;1.2582;
732.3000;0.5096;1.2699;
732.6000;0.5088;1.2769;
732.9000;0.5088;1.2722;
733.2000;0.5096;1.2769;
733.5000;0.5088;1.2816;
733.8000;0.5039;1.2722;
734.1000;0.5063;1.2793;
734.4000;0.5096;1.2816;
734.7000;0.5088;1.2722;
735.0000;0.5088;1.2816;
735.3000;0.5071;1.2722;
735.6000;0.5047;1.2605;
735.9000;0.5088;1.2699;
736.2000;0.5014;1.2558;
736.5000;0.5063;1.2675;
736.8000;0.5055;1.2558;
737.1000;0.5071;1.2652;
737.4000;0.5055;1.2629;
737.7000;0.5112;1.2793;
738.0000;0.5071;1.2558;
738.3000;0.5047;1.2629;
738.6000;0.5055;1.2652;
738.9000;0.5063;1.2699;
739.2000;0.5055;1.2675;
739.5000;0.5079;1.2699;
739.8000;0.5063;1.2699;
740.1000;0.5071;1.2652;
740.4000;0.5047;1.2535;
740.7000;0.5055;1.2582;
741.0000;0.5071;1.2675;
741.3000;0.5063;1.2722;
741.6000;0.5047;1.2722;
741.9000;0.5055;1.2675;
742.2000;0.5022;1.2629;
742.5000;0.5063;1.2699;
742.8000;0.5031;1.2629;
743.1000;0.5063;1.2722;
743.4000;0.5071;1.2722;
743.7000;0.5039;1.2582;
744.0000;0.5055;1.2558;
744.3000;0.5063;1.2582;
744.6000;0.5079;1.2605;
744.9000;0.5063;1.2629;
745.2000;0.5063;1.2746;
745.5000;0.5079;1.2840;
745.8000;0.5022;1.2722;
746.1000;0.5039;1.2816;
746.4000;0.5063;1.2816;
746.7000;0.5031;1.2675;
747.0000;0.4990;1.2582;
747.3000;0.5047;1.2722;
747.6000;0.5071;1.2769;
747.9000;0.5039;1.2722;
748.2000;0.5055;1.2793;
748.5000;0.5079;1.2840;
748.8000;0.5055;1.2816;
749.1000;0.5055;1.2769;
749.4000;0.5055;1.2699;
749.7000;0.5031;1.2699;
750.0000;0.5055;1.2746;
750.3000;0.5071;1.2793;
750.6000;0.5047;1.2699;
750.9000;0.5047;1.2675;
751.2000;0.5063;1.2746;
751.5000;0.5071;1.2769;
751.8000;0.5055;1.2699;
752.1000;0.5031;1.2605;
752.4000;0.5063;1.2675;
752.7000;0.5014;1.2535;
753.0000;0.5079;1.2629;
753.3000;0.5063;1.2511;
753.6000;0.5039;1.2558;
753.9000;0.5120;1.2746;
754.2000;0.5055;1.2558;
754.5000;0.5055;1.2558;
754.8000;0.5022;1.2441;
755.1000;0.5096;1.2605;
755.4000;0.5047;1.2464;
755.7000;0.5047;1.2535;
756.0000;0.5047;1.2464;
756.3000;0.5079;1.2558;
756.6000;0.5047;1.2511;
756.9000;0.5096;1.2652;
757.2000;0.5022;1.2605;
757.5000;0.5031;1.2582;
757.8000;0.5039;1.2582;
758.1000;0.5047;1.2652;
758.4000;0.5039;1.2675;
758.7000;0.5047;1.2699;
759.0000;0.4925;1.2394;
759.3000;0.5071;1.2722;
759.6000;0.5031;1.2605;
759.9000;0.5153;1.2793;
760.2000;0.5055;1.2535;
760.5000;0.5047;1.2488;
760.8000;0.5039;1.2511;
761.1000;0.5022;1.2464;
761.4000;0.5047;1.2558;
761.7000;0.5039;1.2629;
762.0000;0.5063;1.2675;
762.3000;0.5047;1.2722;
762.6000;0.5039;1.2722;
762.9000;0.5031;1.2746;
763.2000;0.5039;1.2793;
763.5000;0.5039;1.2722;
763.8000;0.5031;1.2675;
764.1000;0.5039;1.2746;
764.4000;0.5047;1.2722;
764.7000;0.5031;1.2746;
765.0000;0.5031;1.2629;
765.3000;0.5031;1.2511;
765.6000;0.5031;1.2535;
765.9000;0.5063;1.2558;
766.2000;0.5014;1.2441;
766.5000;0.5039;1.2488;
766.8000;0.5063;1.2558;
767.1000;0.5047;1.2511;
767.4000;0.5039;1.2535;
767.7000;0.5047;1.2441;
768.0000;0.5047;1.2394;
768.3000;0.5055;1.2535;
768.6000;0.5039;1.2464;
768.9000;0.5039;1.2535;
769.2000;0.5031;1.2488;
769.5000;0.5022;1.2558;
769.8000;0.5039;1.2535;
770.1000;0.5014;1.2417;
770.4000;0.5022;1.2464;
770.7000;0.5031;1.2488;
771.0000;0.5014;1.2488;
771.3000;0.5047;1.2558;
771.6000;0.5022;1.2511;
771.9000;0.5022;1.2535;
772.2000;0.5055;1.2605;
772.5000;0.5006;1.2441;
772.8000;0.5022;1.2488;
773.1000;0.5014;1.2488;
773.4000;0.5031;1.2488;
773.7000;0.5055;1.2511;
774.0000;0.5022;1.2370;
774.3000;0.4990;1.2300;
774.6000;0.5022;1.2300;
774.9000;0.4998;1.2112;
775.2000;0.5047;1.2323;
775.5000;0.5039;1.2370;
775.8000;0.5022;1.2394;
776.1000;0.5031;1.2441;
776.4000;0.5031;1.2535;
776.7000;0.5047;1.2652;
777.0000;0.5006;1.2605;
777.3000;0.5063;1.2722;
777.6000;0.5014;1.2699;
777.9000;0.4949;1.2582;
778.2000;0.4957;1.2652;
778.5000;0.5063;1.2816;
778.8000;0.4965;1.2535;
779.1000;0.5039;1.2558;
779.4000;0.5047;1.2558;
779.7000;0.5039;1.2558;
780.0000;0.5039;1.2511;
780.3000;0.5022;1.2417;
780.6000;0.5039;1.2394;
780.9000;0.5063;1.2464;
781.2000;0.5096;1.2558;
781.5000;0.4990;1.2323;
781.8000;0.5039;1.2441;
782.1000;0.5014;1.2535;
782.4000;0.5039;1.2558;
782.7000;0.5055;1.2652;
783.0000;0.5022;1.2535;
783.3000;0.4982;1.2441;
783.6000;0.5039;1.2605;
783.9000;0.5047;1.2629;
784.2000;0.5022;1.2488;
784.5000;0.5014;1.2511;
784.8000;0.5022;1.2605;
785.1000;0.5039;1.2629;
785.4000;0.4982;1.2441;
785.7000;0.5014;1.2511;
786.0000;0.5006;1.2464;
786.3000;0.5031;1.2535;
786.6000;0.5031;1.2605;
786.9000;0.5047;1.2675;
787.2000;0.4990;1.2558;
787.5000;0.5022;1.2582;
787.8000;0.4998;1.2511;
788.1000;0.5014;1.2535;
788.4000;0.5096;1.2746;
788.7000;0.5022;1.2582;
789.0000;0.5031;1.2675;
789.3000;0.5022;1.2722;
789.6000;0.5014;1.2629;
789.9000;0.5014;1.2675;
790.2000;0.5022;1.2722;
790.5000;0.4990;1.2675;
790.8000;0.5022;1.2629;
791.1000;0.4998;1.2558;
791.4000;0.5039;1.2558;
791.7000;0.5022;1.2582;
792.0000;0.5031;1.2605;
792.3000;0.5014;1.2488;
792.6000;0.5014;1.2464;
792.9000;0.5022;1.2558;
793.2000;0.4982;1.2511;
793.5000;0.5039;1.2629;
793.8000;0.5022;1.2605;
794.1000;0.5039;1.2511;
794.4000;0.5022;1.2488;
794.7000;0.5022;1.2511;
795.0000;0.5031;1.2652;
795.3000;0.5022;1.2605;
795.6000;0.5014;1.2558;
795.9000;0.4998;1.2464;
796.2000;0.5006;1.2535;
796.5000;0.5006;1.2511;
796.8000;0.5031;1.2558;
797.1000;0.4998;1.2511;
797.4000;0.5014;1.2535;
797.7000;0.5031;1.2582;
798.0000;0.4998;1.2535;
798.3000;0.4998;1.2464;
798.6000;0.4990;1.2488;
798.9000;0.5014;1.2558;
799.2000;0.5022;1.2535;
799.5000;0.5031;1.2605;
799.8000;0.5014;1.2558;
800.1000;0.4982;1.2417;
800.4000;0.5047;1.2582;
800.7000;0.5014;1.2488;
801.0000;0.5006;1.2441;
801.3000;0.5063;1.2488;
801.6000;0.5022;1.2464;
801.9000;0.4998;1.2370;
802.2000;0.5031;1.2464;
802.5000;0.5055;1.2675;
802.8000;0.4998;1.2582;
803.1000;0.4998;1.2535;
803.4000;0.5039;1.2535;
803.7000;0.5014;1.2394;
804.0000;0.5022;1.2347;
804.3000;0.4965;1.2159;
804.6000;0.5039;1.2300;
804.9000;0.5006;1.2253;
805.2000;0.4990;1.2253;
805.5000;0.5079;1.2488;
805.8000;0.5047;1.2464;
806.1000;0.5031;1.2394;
806.4000;0.5006;1.2253;
806.7000;0.4998;1.2183;
807.0000;0.5014;1.2159;
807.3000;0.5022;1.2300;
807.6000;0.4990;1.2276;
807.9000;0.5022;1.2417;
808.2000;0.5006;1.2417;
808.5000;0.4998;1.2417;
808.8000;0.5063;1.2629;
809.1000;0.5014;1.2629;
809.4000;0.5022;1.2652;
809.7000;0.5088;1.2863;
810.0000;0.5039;1.2699;
810.3000;0.5022;1.2675;
810.6000;0.5022;1.2605;
810.9000;0.4990;1.2558;
811.2000;0.5006;1.2605;
811.5000;0.5006;1.2582;
811.8000;0.5014;1.2558;
812.1000;0.5031;1.2582;
812.4000;0.5014;1.2535;
812.7000;0.5022;1.2511;
813.0000;0.5006;1.2535;
813.3000;0.5014;1.2535;
813.6000;0.5014;1.2629;
813.9000;0.5022;1.2629;
814.2000;0.5039;1.2605;
814.5000;0.4998;1.2511;
814.8000;0.5031;1.2605;
815.1000;0.4982;1.2370;
815.4000;0.5039;1.2582;
815.7000;0.5022;1.2629;
816.0000;0.5006;1.2605;
816.3000;0.5031;1.2629;
816.6000;0.5006;1.2605;
816.9000;0.5014;1.2605;
817.2000;0.4933;1.2394;
817.5000;0.4990;1.2558;
817.8000;0.5022;1.2652;
818.1000;0.4998;1.2558;
818.4000;0.5014;1.2535;
818.7000;0.5014;1.2558;
819.0000;0.5031;1.2629;
819.3000;0.5022;1.2605;
819.6000;0.5022;1.2675;
819.9000;0.5022;1.2535;
820.2000;0.5022;1.2535;
820.5000;0.5006;1.2488;
820.8000;0.5006;1.2488;
821.1000;0.5071;1.2675;
821.4000;0.5014;1.2652;
821.7000;0.5006;1.2558;
822.0000;0.4990;1.2511;
822.3000;0.4982;1.2464;
822.6000;0.5022;1.2582;
822.9000;0.5006;1.2629;
823.2000;0.4990;1.2535;
823.5000;0.4998;1.2535;
823.8000;0.5120;1.2769;
824.1000;0.5039;1.2605;
824.4000;0.4990;1.2558;
824.7000;0.4982;1.2582;
825.0000;0.5014;1.2605;
825.3000;0.5006;1.2582;
825.6000;0.4982;1.2582;
825.9000;0.5006;1.2605;
826.2000;0.4998;1.2535;
826.5000;0.5022;1.2605;
826.8000;0.4998;1.2652;
827.1000;0.5006;1.2722;
827.4000;0.4908;1.2488;
827.7000;0.5006;1.2722;
828.0000;0.5022;1.2722;
828.3000;0.5006;1.2652;
828.6000;0.4990;1.2558;
828.9000;0.4990;1.2582;
829.2000;0.5039;1.2675;
829.5000;0.4998;1.2511;
829.8000;0.4998;1.2417;
830.1000;0.5022;1.2394;
830.4000;0.5014;1.2370;
830.7000;0.5014;1.2441;
831.0000;0.5006;1.2511;
831.3000;0.4974;1.2394;
831.6000;0.5022;1.2511;
831.9000;0.5014;1.2464;
832.2000;0.5014;1.2464;
832.5000;0.5006;1.2464;
832.8000;0.5006;1.2511;
833.1000;0.5006;1.2511;
833.4000;0.4998;1.2511;
833.7000;0.4998;1.2535;
834.0000;0.5014;1.2535;
834.3000;0.5014;1.2488;
834.6000;0.4990;1.2464;
834.9000;0.4998;1.2464;
835.2000;0.5014;1.2535;
835.5000;0.5006;1.2535;
835.8000;0.5006;1.2488;
836.1000;0.4990;1.2488;
836.4000;0.5014;1.2511;
836.7000;0.5014;1.2511;
837.0000;0.5006;1.2558;
837.3000;0.4990;1.2511;
837.6000;0.4990;1.2464;
837.9000;0.5006;1.2535;
838.2000;0.5022;1.2652;
838.5000;0.4965;1.2417;
838.8000;0.5022;1.2535;
839.1000;0.4998;1.2582;
839.4000;0.5047;1.2582;
839.7000;0.4998;1.2511;
840.0000;0.4998;1.2511;
840.3000;0.4998;1.2464;
840.6000;0.4965;1.2488;
840.9000;0.4998;1.2629;
841.2000;0.4998;1.2511;
841.5000;0.4974;1.2535;
841.8000;0.5014;1.2652;
842.1000;0.5006;1.2769;
842.4000;0.4982;1.2605;
842.7000;0.5022;1.2605;
843.0000;0.4998;1.2699;
843.3000;0.4998;1.2769;
843.6000;0.5006;1.2722;
843.9000;0.4998;1.2652;
844.2000;0.5014;1.2699;
844.5000;0.5014;1.2699;
844.8000;0.4990;1.2535;
845.1000;0.4998;1.2535;
845.4000;0.4990;1.2488;
845.7000;0.5006;1.2464;
846.0000;0.5014;1.2441;
846.3000;0.4998;1.2464;
846.6000;0.4990;1.2488;
846.9000;0.5014;1.2582;
847.2000;0.5031;1.2652;
847.5000;0.4990;1.2558;
847.8000;0.4998;1.2441;
848.1000;0.4990;1.2394;
848.4000;0.4998;1.2370;
848.7000;0.4990;1.2370;
849.0000;0.4990;1.2464;
849.3000;0.4990;1.2582;
849.6000;0.5079;1.2722;
849.9000;0.5006;1.2535;
850.2000;0.4974;1.2488;
850.5000;0.4998;1.2558;
850.8000;0.4998;1.2605;
851.1000;0.5006;1.2558;
851.4000;0.5006;1.2488;
851.7000;0.5006;1.2488;
852.0000;0.5006;1.2535;
852.3000;0.5022;1.2652;
852.6000;0.4990;1.2582;
852.9000;0.5006;1.2511;
853.2000;0.5006;1.2464;
853.5000;0.5006;1.2511;
853.8000;0.4998;1.2394;
854.1000;0.4998;1.2441;
854.4000;0.5006;1.2582;
854.7000;0.5006;1.2535;
855.0000;0.4990;1.2488;
855.3000;0.5039;1.2629;
855.6000;0.4998;1.2558;
855.9000;0.4998;1.2605;
856.2000;0.4990;1.2605;
856.5000;0.5006;1.2675;
856.8000;0.4990;1.2629;
857.1000;0.5006;1.2535;
857.4000;0.4949;1.2370;
857.7000;0.5022;1.2535;
858.0000;0.4998;1.2488;
858.3000;0.4998;1.2488;
858.6000;0.4998;1.2511;
858.9000;0.5006;1.2535;
859.2000;0.5006;1.2535;
859.5000;0.4990;1.2464;
859.8000;0.5022;1.2464;
860.1000;0.4982;1.2417;
860.4000;0.4990;1.2323;
860.7000;0.4998;1.2370;
861.0000;0.4998;1.2300;
861.3000;0.4998;1.2323;
861.6000;0.5006;1.2300;
861.9000;0.4998;1.2323;
862.2000;0.4998;1.2417;
862.5000;0.4974;1.2394;
862.8000;0.4925;1.2276;
863.1000;0.4998;1.2511;
863.4000;0.4998;1.2511;
863.7000;0.4990;1.2370;
864.0000;0.5006;1.2347;
864.3000;0.5006;1.2370;
864.6000;0.4965;1.2253;
864.9000;0.4998;1.2276;
865.2000;0.4982;1.2347;
865.5000;0.5006;1.2276;
865.8000;0.4990;1.2230;
866.1000;0.4990;1.2276;
866.4000;0.5006;1.2394;
866.7000;0.4998;1.2347;
867.0000;0.4990;1.2347;
867.3000;0.4982;1.2464;
867.6000;0.5006;1.2558;
867.9000;0.4990;1.2605;
868.2000;0.4998;1.2675;
868.5000;0.4990;1.2652;
868.8000;0.4925;1.2441;
869.1000;0.5006;1.2558;
869.4000;0.4998;1.2511;
869.7000;0.4990;1.2535;
870.0000;0.4998;1.2511;
870.3000;0.5022;1.2558;
870.6000;0.4998;1.2488;
870.9000;0.5014;1.2558;
871.2000;0.4990;1.2558;
871.5000;0.5014;1.2582;
871.8000;0.5022;1.2582;
872.1000;0.4990;1.2535;
872.4000;0.4974;1.2417;
872.7000;0.4982;1.2394;
873.0000;0.4998;1.2417;
873.3000;0.5006;1.2511;
873.6000;0.5022;1.2605;
873.9000;0.5006;1.2511;
874.2000;0.4982;1.2394;
874.5000;0.4982;1.2441;
874.8000;0.4990;1.2464;
875.1000;0.5022;1.2488;
875.4000;0.4990;1.2394;
875.7000;0.5022;1.2441;
876.0000;0.5047;1.2488;
876.3000;0.4998;1.2276;
876.6000;0.4990;1.2347;
876.9000;0.4990;1.2417;
877.2000;0.4974;1.2300;
877.5000;0.4982;1.2394;
877.8000;0.4982;1.2370;
878.1000;0.5006;1.2370;
878.4000;0.4982;1.2276;
878.7000;0.4998;1.2394;
879.0000;0.5088;1.2722;
879.3000;0.5039;1.2535;
879.6000;0.5031;1.2370;
879.9000;0.4925;1.2253;
880.2000;0.4990;1.2464;
880.5000;0.5006;1.2535;
880.8000;0.4998;1.2488;
881.1000;0.4990;1.2511;
881.4000;0.4982;1.2511;
881.7000;0.5006;1.2652;
882.0000;0.5014;1.2652;
882.3000;0.4998;1.2675;
882.6000;0.4990;1.2675;
882.9000;0.4982;1.2652;
883.2000;0.5014;1.2746;
883.5000;0.5006;1.2722;
883.8000;0.5006;1.2629;
884.1000;0.4957;1.2488;
884.4000;0.5006;1.2629;
884.7000;0.5006;1.2675;
885.0000;0.4998;1.2652;
885.3000;0.5022;1.2722;
885.6000;0.4974;1.2605;
885.9000;0.4998;1.2699;
886.2000;0.4998;1.2629;
886.5000;0.5006;1.2605;
886.8000;0.4998;1.2558;
887.1000;0.5014;1.2605;
887.4000;0.4998;1.2582;
887.7000;0.4998;1.2464;
888.0000;0.5096;1.2722;
888.3000;0.4998;1.2441;
888.6000;0.4949;1.2347;
888.9000;0.5014;1.2464;
889.2000;0.5014;1.2417;
889.5000;0.5006;1.2370;
889.8000;0.4998;1.2347;
890.1000;0.4998;1.2394;
890.4000;0.4982;1.2347;
890.7000;0.5055;1.2464;
891.0000;0.4998;1.2370;
891.3000;0.4998;1.2417;
891.6000;0.5006;1.2394;
891.9000;0.5022;1.2488;
892.2000;0.5014;1.2441;
892.5000;0.4998;1.2417;
892.8000;0.4998;1.2394;
893.1000;0.4990;1.2464;
893.4000;0.4982;1.2535;
893.7000;0.4998;1.2535;
894.0000;0.4982;1.2347;
894.3000;0.4982;1.2347;
894.6000;0.4998;1.2441;
894.9000;0.4998;1.2535;
895.2000;0.4892;1.2347;
895.5000;0.4982;1.2605;
895.8000;0.5006;1.2675;
896.1000;0.4998;1.2652;
896.4000;0.4982;1.2629;
896.7000;0.4990;1.2582;
897.0000;0.5006;1.2605;
897.3000;0.4933;1.2370;
897.6000;0.5006;1.2535;
897.9000;0.4974;1.2464;
898.2000;0.4982;1.2511;
898.5000;0.4900;1.2276;
898.8000;0.4917;1.2417;
899.1000;0.4998;1.2699;
899.4000;0.4974;1.2675;
899.7000;0.4998;1.2699;
900.0000;0.4933;1.2582;
900.3000;0.4990;1.2722;
900.6000;0.4974;1.2629;
900.9000;0.4982;1.2675;
901.2000;0.4998;1.2699;
901.5000;0.4974;1.2699;
901.8000;0.4949;1.2582;
902.1000;0.4982;1.2558;
902.4000;0.4982;1.2488;
902.7000;0.5047;1.2582;
903.0000;0.4998;1.2464;
903.3000;0.4998;1.2629;
903.6000;0.4990;1.2652;
903.9000;0.4990;1.2629;
904.2000;0.4998;1.2675;
904.5000;0.4990;1.2699;
904.8000;0.4957;1.2605;
905.1000;0.4990;1.2699;
905.4000;0.4990;1.2675;
905.7000;0.4982;1.2675;
906.0000;0.4990;1.2675;
906.3000;0.4982;1.2605;
906.6000;0.4998;1.2699;
906.9000;0.4982;1.2675;
907.2000;0.5014;1.2675;
907.5000;0.5031;1.2675;
907.8000;0.5006;1.2652;
908.1000;0.5055;1.2722;
908.4000;0.5006;1.2675;
908.7000;0.4998;1.2793;
909.0000;0.5022;1.2840;
909.3000;0.4982;1.2699;
909.6000;0.4933;1.2535;
909.9000;0.4908;1.2394;
910.2000;0.4990;1.2488;
910.5000;0.5014;1.2699;
910.8000;0.4982;1.2535;
911.1000;0.4974;1.2488;
911.4000;0.4998;1.2582;
911.7000;0.4876;1.2370;
912.0000;0.4998;1.2652;
912.3000;0.4982;1.2558;
912.6000;0.4974;1.2535;
912.9000;0.4982;1.2558;
913.2000;0.5006;1.2511;
913.5000;0.4982;1.2464;
913.8000;0.4982;1.2441;
914.1000;0.4982;1.2535;
914.4000;0.5006;1.2652;
914.7000;0.4990;1.2582;
915.0000;0.4990;1.2511;
915.3000;0.4990;1.2488;
915.6000;0.4990;1.2464;
915.9000;0.4990;1.2535;
916.2000;0.5006;1.2605;
916.5000;0.4982;1.2582;
916.8000;0.4990;1.2558;
917.1000;0.4990;1.2488;
917.4000;0.4998;1.2535;
917.7000;0.4998;1.2605;
918.0000;0.4998;1.2652;
918.3000;0.4965;1.2582;
918.6000;0.5006;1.2488;
918.9000;0.5014;1.2417;
919.2000;0.4982;1.2323;
919.5000;0.5006;1.2347;
919.8000;0.5014;1.2253;
920.1000;0.4998;1.2183;
920.4000;0.4957;1.2065;
920.7000;0.4908;1.1971;
921.0000;0.4990;1.2089;
921.3000;0.4982;1.2159;
921.6000;0.4990;1.2253;
921.9000;0.5031;1.2417;
922.2000;0.4990;1.2394;
922.5000;0.4917;1.2300;
922.8000;0.4990;1.2511;
923.1000;0.5006;1.2582;
923.4000;0.5014;1.2558;
923.7000;0.4982;1.2582;
924.0000;0.4998;1.2652;
924.3000;0.5063;1.2934;
924.6000;0.4982;1.2699;
924.9000;0.4998;1.2675;
925.2000;0.4965;1.2582;
925.5000;0.4990;1.2722;
925.8000;0.4990;1.2793;
926.1000;0.4998;1.2840;
926.4000;0.4982;1.2816;
926.7000;0.4982;1.2816;
927.0000;0.4990;1.2816;
927.3000;0.4982;1.2793;
927.6000;0.4974;1.2816;
927.9000;0.4957;1.2793;
928.2000;0.5006;1.2863;
928.5000;0.4998;1.2793;
928.8000;0.4990;1.2722;
929.1000;0.4990;1.2699;
929.4000;0.4974;1.2535;
929.7000;0.4998;1.2629;
930.0000;0.4982;1.2675;
930.3000;0.4998;1.2722;
930.6000;0.4982;1.2699;
930.9000;0.4982;1.2722;
931.2000;0.4998;1.2675;
931.5000;0.5014;1.2582;
931.8000;0.4990;1.2535;
932.1000;0.4998;1.2629;
932.4000;0.4990;1.2675;
932.7000;0.4965;1.2558;
933.0000;0.4965;1.2629;
933.3000;0.4990;1.2629;
933.6000;0.5006;1.2675;
933.9000;0.4982;1.2652;
934.2000;0.4990;1.2699;
934.5000;0.4998;1.2699;
934.8000;0.4990;1.2605;
935.1000;0.5096;1.2816;
935.4000;0.4990;1.2629;
935.7000;0.4990;1.2605;
936.0000;0.4990;1.2675;
936.3000;0.4990;1.2675;
936.6000;0.4982;1.2722;
936.9000;0.4990;1.2769;
937.2000;0.4990;1.2769;
937.5000;0.4998;1.2746;
937.8000;0.4982;1.2675;
938.1000;0.4982;1.2699;
938.4000;0.4974;1.2793;
938.7000;0.5006;1.2769;
939.0000;0.4990;1.2793;
939.3000;0.4974;1.2675;
939.6000;0.5006;1.2675;
939.9000;0.4974;1.2582;
940.2000;0.4990;1.2699;
940.5000;0.4982;1.2769;
940.8000;0.4998;1.2769;
941.1000;0.4982;1.2558;
941.4000;0.4998;1.2582;
941.7000;0.4990;1.2535;
942.0000;0.4965;1.2511;
942.3000;0.4982;1.2535;
942.6000;0.4990;1.2558;
942.9000;0.4990;1.2582;
943.2000;0.4974;1.2464;
943.5000;0.4990;1.2558;
943.8000;0.4998;1.2629;
944.1000;0.4982;1.2582;
944.4000;0.4982;1.2629;
944.7000;0.4982;1.2629;
945.0000;0.4998;1.2675;
945.3000;0.4998;1.2699;
945.6000;0.4982;1.2652;
945.9000;0.4998;1.2652;
946.2000;0.4998;1.2652;
946.5000;0.4990;1.2699;
946.8000;0.4957;1.2675;
947.1000;0.4982;1.2675;
947.4000;0.4965;1.2629;
947.7000;0.5006;1.2722;
948.0000;0.4998;1.2746;
948.3000;0.5014;1.2816;
948.6000;0.4990;1.2746;
948.9000;0.4990;1.2746;
949.2000;0.5014;1.2863;
949.5000;0.4990;1.2699;
949.8000;0.4990;1.2605;
950.1000;0.5006;1.2605;
950.4000;0.5055;1.2652;
950.7000;0.5006;1.2488;
951.0000;0.5006;1.2488;
951.3000;0.4998;1.2464;
951.6000;0.5022;1.2558;
951.9000;0.4990;1.2488;
952.2000;0.4965;1.2370;
952.5000;0.4998;1.2370;
952.8000;0.4990;1.2323;
953.1000;0.4998;1.2394;
953.4000;0.5039;1.2558;
953.7000;0.4990;1.2441;
954.0000;0.4974;1.2441;
954.3000;0.4990;1.2511;
954.6000;0.4990;1.2629;
954.9000;0.4974;1.2488;
955.2000;0.4982;1.2417;
955.5000;0.4998;1.2535;
955.8000;0.4990;1.2511;
956.1000;0.4998;1.2605;
956.4000;0.4990;1.2582;
956.7000;0.4965;1.2511;
957.0000;0.4998;1.2605;
957.3000;0.4998;1.2629;
957.6000;0.5014;1.2652;
957.9000;0.4998;1.2605;
958.2000;0.4957;1.2464;
958.5000;0.4982;1.2511;
958.8000;0.4998;1.2535;
959.1000;0.5014;1.2605;
959.4000;0.4965;1.2629;
959.7000;0.4876;1.2394;
960.0000;0.4982;1.2605;
960.3000;0.5014;1.2722;
960.6000;0.5006;1.2652;
960.9000;0.4990;1.2675;
961.2000;0.4990;1.2652;
961.5000;0.4990;1.2582;
961.8000;0.4974;1.2558;
962.1000;0.4990;1.2605;
962.4000;0.4974;1.2488;
962.7000;0.4974;1.2464;
963.0000;0.4998;1.2582;
963.3000;0.4998;1.2582;
963.6000;0.4974;1.2558;
963.9000;0.4974;1.2535;
964.2000;0.4982;1.2558;
964.5000;0.4990;1.2558;
964.8000;0.4965;1.2582;
965.1000;0.4974;1.2605;
965.4000;0.4974;1.2535;
965.7000;0.4990;1.2675;
966.0000;0.5006;1.2699;
966.3000;0.4982;1.2629;
966.6000;0.4998;1.2605;
966.9000;0.4982;1.2629;
967.2000;0.4990;1.2582;
967.5000;0.4998;1.2605;
967.8000;0.4974;1.2605;
968.1000;0.5006;1.2629;
968.4000;0.4982;1.2558;
968.7000;0.4982;1.2652;
969.0000;0.4965;1.2652;
969.3000;0.5006;1.2699;
969.6000;0.4982;1.2535;
969.9000;0.4990;1.2441;
970.2000;0.5014;1.2535;
970.5000;0.4982;1.2535;
970.8000;0.4974;1.2511;
971.1000;0.4982;1.2464;
971.4000;0.4965;1.2488;
971.7000;0.4965;1.2464;
972.0000;0.4998;1.2464;
972.3000;0.5006;1.2488;
972.6000;0.4982;1.2511;
972.9000;0.4982;1.2535;
973.2000;0.5047;1.2675;
973.5000;0.4998;1.2558;
973.8000;0.4990;1.2511;
974.1000;0.4965;1.2441;
974.4000;0.4925;1.2394;
974.7000;0.5039;1.2722;
975.0000;0.5055;1.2769;
975.3000;0.4990;1.2582;
975.6000;0.4974;1.2488;
975.9000;0.4974;1.2464;
976.2000;0.4982;1.2699;
976.5000;0.4982;1.2722;
976.8000;0.4990;1.2699;
977.1000;0.5014;1.2722;
977.4000;0.4990;1.2675;
977.7000;0.4982;1.2535;
978.0000;0.4974;1.2511;
978.3000;0.5006;1.2722;
978.6000;0.5006;1.2699;
978.9000;0.4998;1.2675;
979.2000;0.5039;1.2769;
979.5000;0.4998;1.2629;
979.8000;0.4998;1.2699;
980.1000;0.4998;1.2746;
980.4000;0.4982;1.2675;
980.7000;0.5006;1.2722;
981.0000;0.5014;1.2769;
981.3000;0.4965;1.2558;
981.6000;0.4990;1.2605;
981.9000;0.4925;1.2488;
982.2000;0.4982;1.2605;
982.5000;0.4990;1.2558;
982.8000;0.4998;1.2605;
983.1000;0.4998;1.2582;
983.4000;0.4974;1.2511;
983.7000;0.5055;1.2699;
984.0000;0.4982;1.2675;
984.3000;0.4990;1.2675;
984.6000;0.4998;1.2605;
984.9000;0.4965;1.2605;
985.2000;0.4884;1.2323;
985.5000;0.4998;1.2511;
985.8000;0.4876;1.2276;
986.1000;0.4990;1.2511;
986.4000;0.4982;1.2488;
986.7000;0.4974;1.2511;
987.0000;0.4974;1.2488;
987.3000;0.4974;1.2535;
987.6000;0.4974;1.2511;
987.9000;0.4990;1.2488;
988.2000;0.4965;1.2394;
988.5000;0.4982;1.2488;
988.8000;0.4974;1.2511;
989.1000;0.4990;1.2558;
989.4000;0.5022;1.2629;
989.7000;0.4990;1.2605;
990.0000;0.5022;1.2652;
990.3000;0.5063;1.2863;
990.6000;0.5014;1.2629;
990.9000;0.4998;1.2535;
991.2000;0.5055;1.2675;
991.5000;0.5071;1.2652;
991.8000;0.5112;1.2746;
992.1000;0.4998;1.2441;
992.4000;0.4917;1.2253;
992.7000;0.4990;1.2347;
993.0000;0.4974;1.2370;
993.3000;0.4965;1.2347;
993.6000;0.4998;1.2417;
993.9000;0.4990;1.2441;
994.2000;0.4998;1.2558;
994.5000;0.4990;1.2652;
994.8000;0.4990;1.2605;
995.1000;0.4982;1.2652;
995.4000;0.4974;1.2675;
995.7000;0.4998;1.2675;
996.0000;0.4957;1.2511;
996.3000;0.4974;1.2558;
996.6000;0.4982;1.2511;
996.9000;0.4965;1.2464;
997.2000;0.4982;1.2441;
997.5000;0.4974;1.2417;
997.8000;0.4974;1.2535;
998.1000;0.4998;1.2746;
998.4000;0.4974;1.2746;
998.7000;0.4957;1.2722;
999.0000;0.4990;1.2722;
999.3000;0.5006;1.2746;
999.6000;0.5006;1.2699;
999.9000;0.4990;1.2629;
1000.2000;0.4990;1.2652;
1000.5000;0.5006;1.2722;
1000.8000;0.4998;1.2629;
1001.1000;0.4990;1.2535;
1001.4000;0.4974;1.2535;
1001.7000;0.4990;1.2652;
1002.0000;0.4957;1.2629;
1002.3000;0.4974;1.2675;
1002.6000;0.4982;1.2675;
1002.9000;0.4982;1.2558;
1003.2000;0.4982;1.2441;
1003.5000;0.5014;1.2511;
1003.8000;0.5088;1.2769;
1004.1000;0.4998;1.2535;
1004.4000;0.4998;1.2629;
1004.7000;0.4974;1.2582;
1005.0000;0.4974;1.2535;
1005.3000;0.4982;1.2605;
1005.6000;0.4982;1.2652;
1005.9000;0.4982;1.2558;
1006.2000;0.4990;1.2558;
1006.5000;0.4982;1.2629;
1006.8000;0.4974;1.2629;
1007.1000;0.5031;1.2863;
1007.4000;0.5006;1.2722;
1007.7000;0.4957;1.2558;
1008.0000;0.4982;1.2629;
1008.3000;0.4957;1.2582;
1008.6000;0.4957;1.2535;
1008.9000;0.4982;1.2511;
1009.2000;0.4957;1.2394;
1009.5000;0.4990;1.2558;
1009.8000;0.4990;1.2558;
1010.1000;0.4990;1.2511;
1010.4000;0.4990;1.2535;
1010.7000;0.4990;1.2605;
1011.0000;0.4990;1.2558;
1011.3000;0.4990;1.2558;
1011.6000;0.4965;1.2488;
1011.9000;0.4982;1.2511;
1012.2000;0.4941;1.2417;
1012.5000;0.4990;1.2464;
1012.8000;0.4982;1.2300;
1013.1000;0.4982;1.2276;
1013.4000;0.4957;1.2159;
1013.7000;0.5022;1.2276;
1014.0000;0.4974;1.2183;
1014.3000;0.5039;1.2370;
1014.6000;0.4982;1.2206;
1014.9000;0.4998;1.2159;
1015.2000;0.4990;1.2183;
1015.5000;0.5047;1.2300;
1015.8000;0.5014;1.2230;
1016.1000;0.4982;1.2206;
1016.4000;0.4982;1.2159;
1016.7000;0.4949;1.2206;
1017.0000;0.4982;1.2347;
1017.3000;0.4982;1.2347;
1017.6000;0.4982;1.2394;
1017.9000;0.4974;1.2347;
1018.2000;0.4990;1.2370;
1018.5000;0.5047;1.2488;
1018.8000;0.4982;1.2230;
1019.1000;0.4998;1.2276;
1019.4000;0.4974;1.2253;
1019.7000;0.4982;1.2300;
1020.0000;0.4949;1.2276;
1020.3000;0.5006;1.2488;
1020.6000;0.4990;1.2464;
1020.9000;0.4998;1.2511;
1021.2000;0.4974;1.2394;
1021.5000;0.4974;1.2253;
1021.8000;0.4974;1.2136;
1022.1000;0.4917;1.1877;
1022.4000;0.4982;1.2112;
1022.7000;0.4990;1.2136;
1023.0000;0.4998;1.2276;
1023.3000;0.5055;1.2488;
1023.6000;0.4982;1.2370;
1023.9000;0.4982;1.2370;
1024.2000;0.4974;1.2464;
1024.5000;0.4974;1.2464;
1024.8000;0.4998;1.2582;
1025.1000;0.4982;1.2511;
1025.4000;0.4974;1.2464;
1025.7000;0.4974;1.2488;
1026.0000;0.4990;1.2535;
1026.3000;0.4982;1.2417;
1026.6000;0.5006;1.2464;
1026.9000;0.4965;1.2347;
1027.2000;0.4998;1.2535;
1027.5000;0.4990;1.2488;
1027.8000;0.4957;1.2417;
1028.1000;0.4998;1.2558;
1028.4000;0.4982;1.2535;
1028.7000;0.4990;1.2582;
1029.0000;0.4990;1.2629;
1029.3000;0.4974;1.2511;
1029.6000;0.4965;1.2582;
1029.9000;0.5112;1.2934;
1030.2000;0.4965;1.2535;
1030.5000;0.4998;1.2582;
1030.8000;0.4990;1.2582;
1031.1000;0.4982;1.2535;
1031.4000;0.4982;1.2535;
1031.7000;0.4974;1.2370;
1032.0000;0.4990;1.2347;
1032.3000;0.4974;1.2230;
1032.6000;0.4982;1.2347;
1032.9000;0.4998;1.2511;
1033.2000;0.5031;1.2605;
1033.5000;0.4965;1.2488;
1033.8000;0.4982;1.2558;
1034.1000;0.4982;1.2582;
1034.4000;0.4982;1.2558;
1034.7000;0.4990;1.2535;
1035.0000;0.4965;1.2488;
1035.3000;0.5006;1.2558;
1035.6000;0.4982;1.2535;
1035.9000;0.4990;1.2582;
1036.2000;0.4949;1.2441;
1036.5000;0.4974;1.2535;
1036.8000;0.4974;1.2558;
1037.1000;0.4982;1.2722;
1037.4000;0.4974;1.2722;
1037.7000;0.4990;1.2793;
1038.0000;0.5006;1.2769;
1038.3000;0.4974;1.2722;
1038.6000;0.4974;1.2769;
1038.9000;0.5006;1.2769;
1039.2000;0.4974;1.2675;
1039.5000;0.4990;1.2699;
1039.8000;0.4982;1.2629;
1040.1000;0.4982;1.2605;
1040.4000;0.4998;1.2605;
1040.7000;0.4982;1.2582;
1041.0000;0.4990;1.2629;
1041.3000;0.5014;1.2629;
1041.6000;0.5006;1.2488;
1041.9000;0.4982;1.2488;
1042.2000;0.4998;1.2558;
1042.5000;0.4982;1.2441;
1042.8000;0.4990;1.2511;
1043.1000;0.4990;1.2535;
1043.4000;0.5088;1.2699;
1043.7000;0.4990;1.2488;
1044.0000;0.4990;1.2535;
1044.3000;0.4990;1.2464;
1044.6000;0.4982;1.2394;
1044.9000;0.4974;1.2370;
1045.2000;0.5006;1.2511;
1045.5000;0.5014;1.2558;
1045.8000;0.4982;1.2488;
1046.1000;0.4974;1.2488;
1046.4000;0.4998;1.2488;
1046.7000;0.4982;1.2464;
1047.0000;0.4974;1.2230;
1047.3000;0.4990;1.2206;
1047.6000;0.4990;1.2136;
1047.9000;0.4982;1.2042;
1048.2000;0.4982;1.2089;
1048.5000;0.4990;1.2183;
1048.8000;0.4965;1.2253;
1049.1000;0.4990;1.2394;
1049.4000;0.4974;1.2417;
1049.7000;0.4982;1.2558;
1050.0000;0.4949;1.2535;
1050.3000;0.4982;1.2511;
1050.6000;0.4982;1.2488;
1050.9000;0.4982;1.2511;
1051.2000;0.5014;1.2582;
1051.5000;0.4990;1.2511;
1051.8000;0.4933;1.2394;
1052.1000;0.4917;1.2370;
1052.4000;0.4982;1.2605;
1052.7000;0.4982;1.2558;
1053.0000;0.4982;1.2605;
1053.3000;0.4974;1.2582;
1053.6000;0.4974;1.2511;
1053.9000;0.4990;1.2535;
1054.2000;0.5014;1.2652;
1054.5000;0.4965;1.2488;
1054.8000;0.4982;1.2558;
1055.1000;0.4998;1.2558;
1055.4000;0.4998;1.2464;
1055.7000;0.4990;1.2464;
1056.0000;0.4982;1.2417;
1056.3000;0.4982;1.2464;
1056.6000;0.4892;1.2253;
1056.9000;0.4974;1.2488;
1057.2000;0.4965;1.2535;
1057.5000;0.4990;1.2558;
1057.8000;0.4990;1.2535;
1058.1000;0.4998;1.2511;
1058.4000;0.4982;1.2488;
1058.7000;0.4941;1.2347;
1059.0000;0.4982;1.2394;
1059.3000;0.4982;1.2488;
1059.6000;0.4998;1.2558;
1059.9000;0.4990;1.2535;
1060.2000;0.4974;1.2535;
1060.5000;0.5006;1.2675;
1060.8000;0.4990;1.2582;
1061.1000;0.4982;1.2605;
1061.4000;0.4990;1.2605;
1061.7000;0.4990;1.2652;
1062.0000;0.4982;1.2605;
1062.3000;0.4982;1.2558;
1062.6000;0.4982;1.2629;
1062.9000;0.4974;1.2605;
1063.2000;0.4974;1.2488;
1063.5000;0.4965;1.2558;
1063.8000;0.4982;1.2511;
1064.1000;0.4974;1.2464;
1064.4000;0.4990;1.2535;
1064.7000;0.4982;1.2535;
1065.0000;0.4982;1.2488;
1065.3000;0.4998;1.2464;
1065.6000;0.4990;1.2488;
1065.9000;0.4957;1.2511;
1066.2000;0.4917;1.2370;
1066.5000;0.4982;1.2582;
1066.8000;0.4974;1.2511;
1067.1000;0.5031;1.2558;
1067.4000;0.5014;1.2488;
1067.7000;0.4974;1.2323;
1068.0000;0.4982;1.2370;
1068.3000;0.4957;1.2276;
1068.6000;0.4982;1.2230;
1068.9000;0.4990;1.2206;
1069.2000;0.4990;1.2159;
1069.5000;0.4982;1.2206;
1069.8000;0.4974;1.2183;
1070.1000;0.4982;1.2159;
1070.4000;0.5047;1.2394;
1070.7000;0.4982;1.2276;
1071.0000;0.4982;1.2183;
1071.3000;0.4957;1.2112;
1071.6000;0.4990;1.2230;
1071.9000;0.4998;1.2230;
1072.2000;0.4982;1.2300;
1072.5000;0.4965;1.2253;
1072.8000;0.4957;1.2300;
1073.1000;0.4990;1.2370;
1073.4000;0.4982;1.2394;
1073.7000;0.4974;1.2347;
1074.0000;0.4965;1.2276;
1074.3000;0.4982;1.2300;
1074.6000;0.4990;1.2276;
1074.9000;0.4982;1.2253;
1075.2000;0.4974;1.2159;
1075.5000;0.4965;1.2253;
1075.8000;0.4990;1.2276;
1076.1000;0.4974;1.2206;
1076.4000;0.4982;1.2253;
1076.7000;0.4974;1.2253;
1077.0000;0.4941;1.2230;
1077.3000;0.4982;1.2417;
1077.6000;0.4982;1.2464;
1077.9000;0.4974;1.2535;
1078.2000;0.4965;1.2511;
1078.5000;0.4982;1.2488;
1078.8000;0.4965;1.2441;
1079.1000;0.4965;1.2441;
1079.4000;0.4974;1.2347;
1079.7000;0.4965;1.2276;
1080.0000;0.4998;1.2323;
1080.3000;0.4990;1.2300;
1080.6000;0.4974;1.2206;
1080.9000;0.4990;1.2276;
1081.2000;0.4965;1.2230;
1081.5000;0.4925;1.2206;
1081.8000;0.4974;1.2417;
1082.1000;0.4965;1.2441;
1082.4000;0.4990;1.2370;
1082.7000;0.4974;1.2276;
1083.0000;0.4982;1.2276;
1083.3000;0.4957;1.2112;
1083.6000;0.4990;1.2183;
1083.9000;0.4974;1.2159;
1084.2000;0.5022;1.2323;
1084.5000;0.4974;1.2253;
1084.8000;0.4990;1.2253;
1085.1000;0.4990;1.2300;
1085.4000;0.4974;1.2253;
1085.7000;0.4965;1.2276;
1086.0000;0.4990;1.2347;
1086.3000;0.4982;1.2206;
1086.6000;0.4990;1.2183;
1086.9000;0.4982;1.2206;
1087.2000;0.4974;1.2253;
1087.5000;0.4982;1.2253;
1087.8000;0.4974;1.2089;
1088.1000;0.4974;1.2206;
1088.4000;0.4982;1.2230;
1088.7000;0.4974;1.2253;
1089.0000;0.4982;1.2183;
1089.3000;0.4974;1.2159;
1089.6000;0.4974;1.2159;
1089.9000;0.4933;1.2042;
1090.2000;0.4941;1.1971;
1090.5000;0.4957;1.2018;
1090.8000;0.4965;1.2065;
1091.1000;0.4957;1.2018;
1091.4000;0.4998;1.2159;
1091.7000;0.4998;1.2112;
1092.0000;0.5022;1.2206;
1092.3000;0.4998;1.2230;
1092.6000;0.4982;1.2253;
1092.9000;0.4982;1.2183;
1093.2000;0.4982;1.2089;
1093.5000;0.4982;1.2136;
1093.8000;0.4990;1.2206;
1094.1000;0.4990;1.2276;
1094.4000;0.4965;1.2253;
1094.7000;0.4949;1.2206;
1095.0000;0.4990;1.2230;
1095.3000;0.4990;1.2206;
1095.6000;0.4998;1.2300;
1095.9000;0.4908;1.2159;
1096.2000;0.4982;1.2370;
1096.5000;0.4974;1.2441;
1096.8000;0.4982;1.2464;
1097.1000;0.4982;1.2582;
1097.4000;0.4990;1.2605;
1097.7000;0.4990;1.2605;
1098.0000;0.5006;1.2605;
1098.3000;0.4990;1.2417;
1098.6000;0.4982;1.2276;
1098.9000;0.4965;1.2253;
1099.2000;0.4974;1.2276;
1099.5000;0.4957;1.2394;
1099.8000;0.4990;1.2441;
1100.1000;0.4990;1.2417;
1100.4000;0.4982;1.2464;
1100.7000;0.4974;1.2441;
1101.0000;0.4998;1.2535;
1101.3000;0.4982;1.2464;
1101.6000;0.4982;1.2441;
1101.9000;0.5063;1.2488;
1102.2000;0.4965;1.2276;
1102.5000;0.4982;1.2253;
1102.8000;0.4982;1.2206;
1103.1000;0.4982;1.2276;
1103.4000;0.4982;1.2370;
1103.7000;0.5039;1.2582;
1104.0000;0.4998;1.2394;
1104.3000;0.4957;1.2370;
1104.6000;0.4982;1.2347;
1104.9000;0.4982;1.2347;
1105.2000;0.4965;1.2183;
1105.5000;0.4974;1.2183;
1105.8000;0.5071;1.2488;
1106.1000;0.4941;1.2230;
1106.4000;0.4982;1.2300;
1106.7000;0.4982;1.2300;
1107.0000;0.4998;1.2323;
1107.3000;0.4843;1.1995;
1107.6000;0.4982;1.2394;
1107.9000;0.4982;1.2394;
1108.2000;0.4982;1.2347;
1108.5000;0.4990;1.2300;
1108.8000;0.4974;1.2230;
1109.1000;0.4982;1.2253;
1109.4000;0.4957;1.2112;
1109.7000;0.4982;1.2183;
1110.0000;0.4990;1.2136;
1110.3000;0.4917;1.2018;
1110.6000;0.4982;1.2183;
1110.9000;0.4990;1.2183;
1111.2000;0.4974;1.2136;
1111.5000;0.5006;1.2253;
1111.8000;0.4974;1.2136;
1112.1000;0.4982;1.2042;
1112.4000;0.4933;1.1948;
1112.7000;0.4965;1.1995;
1113.0000;0.4925;1.1901;
1113.3000;0.4990;1.2018;
1113.6000;0.4974;1.1948;
1113.9000;0.4965;1.1948;
1114.2000;0.4974;1.1995;
1114.5000;0.4974;1.1971;
1114.8000;0.4965;1.1924;
1115.1000;0.4965;1.1948;
1115.4000;0.4917;1.1830;
1115.7000;0.4974;1.2018;
1116.0000;0.4982;1.2065;
1116.3000;0.4982;1.1995;
1116.6000;0.4998;1.1995;
1116.9000;0.4982;1.1971;
1117.2000;0.4982;1.2042;
1117.5000;0.4974;1.1995;
1117.8000;0.4965;1.2065;
1118.1000;0.4974;1.2112;
1118.4000;0.4974;1.2159;
1118.7000;0.4982;1.2230;
1119.0000;0.4990;1.2159;
1119.3000;0.4990;1.2136;
1119.6000;0.4974;1.2089;
1119.9000;0.4949;1.2042;
1120.2000;0.4998;1.2089;
1120.5000;0.4974;1.2112;
1120.8000;0.4982;1.2112;
1121.1000;0.4965;1.2136;
1121.4000;0.4965;1.2159;
1121.7000;0.4957;1.2112;
1122.0000;0.4917;1.2089;
1122.3000;0.4974;1.2159;
1122.6000;0.4957;1.2018;
1122.9000;0.4974;1.2065;
1123.2000;0.4957;1.1995;
1123.5000;0.4949;1.1971;
1123.8000;0.4860;1.1854;
1124.1000;0.4933;1.2018;
1124.4000;0.4957;1.2112;
1124.7000;0.4974;1.2183;
1125.0000;0.5031;1.2394;
1125.3000;0.4982;1.2417;
1125.6000;0.4974;1.2441;
1125.9000;0.4941;1.2347;
1126.2000;0.4982;1.2417;
1126.5000;0.4982;1.2417;
1126.8000;0.4965;1.2300;
1127.1000;0.4990;1.2323;
1127.4000;0.4974;1.2323;
1127.7000;0.4957;1.2230;
1128.0000;0.4982;1.2300;
1128.3000;0.4990;1.2300;
1128.6000;0.4982;1.2323;
1128.9000;0.4982;1.2370;
1129.2000;0.4990;1.2394;
1129.5000;0.4974;1.2370;
1129.8000;0.4974;1.2370;
1130.1000;0.4974;1.2488;
1130.4000;0.4957;1.2441;
1130.7000;0.4982;1.2441;
1131.0000;0.4974;1.2394;
1131.3000;0.4990;1.2370;
1131.6000;0.4941;1.2276;
1131.9000;0.4998;1.2300;
1132.2000;0.4965;1.2253;
1132.5000;0.4925;1.2206;
1132.8000;0.5047;1.2464;
1133.1000;0.4982;1.2253;
1133.4000;0.4990;1.2253;
1133.7000;0.4949;1.2112;
1134.0000;0.4982;1.2253;
1134.3000;0.4925;1.2065;
1134.6000;0.4982;1.2089;
1134.9000;0.4974;1.1995;
1135.2000;0.4974;1.2065;
1135.5000;0.5031;1.2230;
1135.8000;0.4974;1.2112;
1136.1000;0.4965;1.2112;
1136.4000;0.4982;1.2230;
1136.7000;0.4990;1.2183;
1137.0000;0.4982;1.2206;
1137.3000;0.5006;1.2206;
1137.6000;0.4982;1.2206;
1137.9000;0.4982;1.2300;
1138.2000;0.4965;1.2276;
1138.5000;0.4990;1.2323;
1138.8000;0.4965;1.2323;
1139.1000;0.4990;1.2417;
1139.4000;0.4974;1.2488;
1139.7000;0.4974;1.2558;
1140.0000;0.4982;1.2605;
1140.3000;0.4990;1.2629;
1140.6000;0.4982;1.2558;
1140.9000;0.4990;1.2558;
1141.2000;0.4982;1.2535;
1141.5000;0.4990;1.2511;
1141.8000;0.4998;1.2464;
1142.1000;0.4990;1.2511;
1142.4000;0.4965;1.2511;
1142.7000;0.4990;1.2558;
1143.0000;0.5047;1.2675;
1143.3000;0.4974;1.2535;
1143.6000;0.4965;1.2558;
1143.9000;0.4965;1.2535;
1144.2000;0.4974;1.2605;
1144.5000;0.4974;1.2629;
1144.8000;0.4982;1.2605;
1145.1000;0.4990;1.2746;
1145.4000;0.4974;1.2699;
1145.7000;0.4990;1.2722;
1146.0000;0.5014;1.2816;
1146.3000;0.4990;1.2699;
1146.6000;0.4965;1.2699;
1146.9000;0.4941;1.2675;
1147.2000;0.4990;1.2722;
1147.5000;0.4982;1.2769;
1147.8000;0.4965;1.2793;
1148.1000;0.4974;1.2675;
1148.4000;0.4974;1.2629;
1148.7000;0.4892;1.2417;
1149.0000;0.5006;1.2699;
1149.3000;0.4982;1.2558;
1149.6000;0.4982;1.2464;
1149.9000;0.4990;1.2535;
1150.2000;0.4982;1.2535;
1150.5000;0.4974;1.2652;
1150.8000;0.4982;1.2605;
1151.1000;0.4982;1.2511;
1151.4000;0.4982;1.2511;
1151.7000;0.5006;1.2511;
1152.0000;0.4990;1.2441;
1152.3000;0.4949;1.2323;
1152.6000;0.4990;1.2488;
1152.9000;0.4982;1.2488;
1153.2000;0.4982;1.2558;
1153.5000;0.4990;1.2629;
1153.8000;0.4957;1.2558;
1154.1000;0.4974;1.2558;
1154.4000;0.4990;1.2699;
1154.7000;0.4974;1.2722;
1155.0000;0.4974;1.2675;
1155.3000;0.4965;1.2605;
1155.6000;0.4990;1.2605;
1155.9000;0.4990;1.2582;
1156.2000;0.4965;1.2535;
1156.5000;0.4982;1.2629;
1156.8000;0.4982;1.2675;
1157.1000;0.4982;1.2746;
1157.4000;0.4974;1.2652;
1157.7000;0.4974;1.2675;
1158.0000;0.4982;1.2605;
1158.3000;0.4974;1.2582;
1158.6000;0.4949;1.2582;
1158.9000;0.4998;1.2699;
1159.2000;0.4965;1.2699;
1159.5000;0.4982;1.2699;
1159.8000;0.4974;1.2675;
1160.1000;0.4933;1.2511;
1160.4000;0.4949;1.2605;
1160.7000;0.4974;1.2582;
1161.0000;0.4974;1.2582;
1161.3000;0.4965;1.2558;
1161.6000;0.4965;1.2652;
1161.9000;0.4965;1.2605;
1162.2000;0.4974;1.2558;
1162.5000;0.4982;1.2605;
1162.8000;0.4957;1.2511;
1163.1000;0.4974;1.2629;
1163.4000;0.4949;1.2629;
1163.7000;0.4974;1.2582;
1164.0000;0.5014;1.2629;
1164.3000;0.4990;1.2582;
1164.6000;0.4982;1.2488;
1164.9000;0.5039;1.2605;
1165.2000;0.4982;1.2394;
1165.5000;0.4965;1.2441;
1165.8000;0.4990;1.2605;
1166.1000;0.5006;1.2675;
1166.4000;0.4974;1.2652;
1166.7000;0.4957;1.2629;
1167.0000;0.4933;1.2488;
1167.3000;0.4974;1.2605;
1167.6000;0.4965;1.2629;
1167.9000;0.4965;1.2629;
1168.2000;0.4982;1.2629;
1168.5000;0.4982;1.2699;
1168.8000;0.4974;1.2629;
1169.1000;0.4965;1.2629;
1169.4000;0.4965;1.2582;
1169.7000;0.5047;1.2675;
1170.0000;0.5022;1.2722;
1170.3000;0.4990;1.2652;
1170.6000;0.4957;1.2582;
1170.9000;0.4982;1.2629;
1171.2000;0.4982;1.2535;
1171.5000;0.4990;1.2558;
1171.8000;0.4965;1.2511;
1172.1000;0.4957;1.2652;
1172.4000;0.4982;1.2675;
1172.7000;0.4941;1.2629;
1173.0000;0.4933;1.2605;
1173.3000;0.4965;1.2699;
1173.6000;0.4982;1.2675;
1173.9000;0.4982;1.2746;
1174.2000;0.4982;1.2793;
1174.5000;0.4982;1.2722;
1174.8000;0.4990;1.2746;
1175.1000;0.5006;1.2840;
1175.4000;0.4974;1.2675;
1175.7000;0.4982;1.2746;
1176.0000;0.4974;1.2722;
1176.3000;0.4990;1.2769;
1176.6000;0.4974;1.2629;
1176.9000;0.4982;1.2605;
1177.2000;0.4982;1.2629;
1177.5000;0.4982;1.2675;
1177.8000;0.4982;1.2746;
1178.1000;0.4965;1.2699;
1178.4000;0.4974;1.2722;
1178.7000;0.4974;1.2675;
1179.0000;0.4974;1.2699;
1179.3000;0.4974;1.2769;
1179.6000;0.4974;1.2769;
1179.9000;0.4982;1.2816;
1180.2000;0.5047;1.2910;
1180.5000;0.4998;1.2793;
1180.8000;0.4974;1.2722;
1181.1000;0.4974;1.2769;
1181.4000;0.4982;1.2793;
1181.7000;0.4974;1.2769;
1182.0000;0.4957;1.2722;
1182.3000;0.4957;1.2652;
1182.6000;0.4990;1.2675;
1182.9000;0.4982;1.2629;
1183.2000;0.5014;1.2746;
1183.5000;0.4974;1.2558;
1183.8000;0.4941;1.2535;
1184.1000;0.4982;1.2582;
1184.4000;0.4982;1.2488;
1184.7000;0.4982;1.2464;
1185.0000;0.4990;1.2558;
1185.3000;0.4982;1.2488;
1185.6000;0.4957;1.2441;
1185.9000;0.4990;1.2511;
1186.2000;0.4982;1.2441;
1186.5000;0.4982;1.2488;
1186.8000;0.4998;1.2582;
1187.1000;0.4990;1.2558;
1187.4000;0.4982;1.2558;
1187.7000;0.4990;1.2558;
1188.0000;0.4974;1.2535;
1188.3000;0.4974;1.2488;
1188.6000;0.4982;1.2488;
1188.9000;0.4990;1.2629;
1189.2000;0.4974;1.2558;
1189.5000;0.4998;1.2582;
1189.8000;0.4990;1.2605;
1190.1000;0.4990;1.2629;
1190.4000;0.4998;1.2652;
1190.7000;0.4990;1.2629;
1191.0000;0.4998;1.2769;
1191.3000;0.4974;1.2629;
1191.6000;0.4974;1.2699;
1191.9000;0.4982;1.2722;
1192.2000;0.4990;1.2675;
1192.5000;0.4974;1.2629;
1192.8000;0.4990;1.2605;
1193.1000;0.4998;1.2652;
1193.4000;0.4990;1.2675;
1193.7000;0.4965;1.2535;
1194.0000;0.4998;1.2582;
1194.3000;0.5006;1.2605;
1194.6000;0.4990;1.2675;
1194.9000;0.4957;1.2629;
1195.2000;0.4998;1.2699;
1195.5000;0.4982;1.2675;
1195.8000;0.4990;1.2629;
1196.1000;0.4965;1.2558;
1196.4000;0.4990;1.2699;
1196.7000;0.4990;1.2746;
1197.0000;0.4990;1.2746;
1197.3000;0.4965;1.2746;
1197.6000;0.4974;1.2699;
1197.9000;0.4974;1.2769;
1198.2000;0.4982;1.2746;
1198.5000;0.4982;1.2769;
1198.8000;0.4982;1.2769;
1199.1000;0.4876;1.2488;
1199.4000;0.4974;1.2722;
1199.7000;0.4998;1.2652;
1200.0000;0.4998;1.2722;
1200.3000;0.4957;1.2605;
1200.6000;0.4990;1.2699;
1200.9000;0.4982;1.2769;
1201.2000;0.4957;1.2746;
1201.5000;0.4974;1.2722;
1201.8000;0.4974;1.2722;
1202.1000;0.4974;1.2722;
1202.4000;0.4974;1.2746;
1202.7000;0.4965;1.2699;
1203.0000;0.4974;1.2722;
1203.3000;0.4982;1.2675;
1203.6000;0.4982;1.2582;
1203.9000;0.4965;1.2582;
1204.2000;0.4974;1.2652;
1204.5000;0.4974;1.2675;
1204.8000;0.4982;1.2793;
1205.1000;0.4974;1.2816;
1205.4000;0.4974;1.2816;
1205.7000;0.4974;1.2746;
1206.0000;0.4974;1.2840;
1206.3000;0.5006;1.2722;
1206.6000;0.4982;1.2722;
1206.9000;0.5047;1.2887;
1207.2000;0.4982;1.2699;
1207.5000;0.4990;1.2675;
1207.8000;0.4974;1.2675;
1208.1000;0.4990;1.2746;
1208.4000;0.4957;1.2699;
1208.7000;0.4974;1.2722;
1209.0000;0.4982;1.2769;
1209.3000;0.4990;1.2863;
1209.6000;0.4974;1.2863;
1209.9000;0.4965;1.2840;
1210.2000;0.4965;1.2769;
1210.5000;0.4965;1.2746;
1210.8000;0.4974;1.2746;
1211.1000;0.4949;1.2558;
1211.4000;0.4982;1.2699;
1211.7000;0.4982;1.2675;
1212.0000;0.4900;1.2441;
1212.3000;0.4982;1.2793;
1212.6000;0.4982;1.2887;
1212.9000;0.4868;1.2582;
1213.2000;0.4957;1.2746;
1213.5000;0.4974;1.2746;
1213.8000;0.4974;1.2769;
1214.1000;0.4965;1.2722;
1214.4000;0.4982;1.2746;
1214.7000;0.4998;1.2863;
1215.0000;0.4974;1.2746;
1215.3000;0.4957;1.2675;
1215.6000;0.4949;1.2722;
1215.9000;0.4965;1.2722;
1216.2000;0.4990;1.2722;
1216.5000;0.4982;1.2675;
1216.8000;0.4957;1.2652;
1217.1000;0.4990;1.2652;
1217.4000;0.4974;1.2558;
1217.7000;0.4982;1.2652;
1218.0000;0.4851;1.2276;
1218.3000;0.4982;1.2629;
1218.6000;0.4974;1.2675;
1218.9000;0.5006;1.2746;
1219.2000;0.4949;1.2582;
1219.5000;0.4974;1.2605;
1219.8000;0.4965;1.2675;
1220.1000;0.4982;1.2722;
1220.4000;0.4974;1.2675;
1220.7000;0.4965;1.2699;
1221.0000;0.4965;1.2699;
1221.3000;0.4982;1.2699;
1221.6000;0.5031;1.2769;
1221.9000;0.4965;1.2582;
1222.2000;0.4965;1.2582;
1222.5000;0.4982;1.2675;
1222.8000;0.4982;1.2629;
1223.1000;0.4974;1.2652;
1223.4000;0.4974;1.2605;
1223.7000;0.4990;1.2675;
1224.0000;0.4982;1.2652;
1224.3000;0.4957;1.2535;
1224.6000;0.4982;1.2558;
1224.9000;0.4974;1.2629;
1225.2000;0.4965;1.2629;
1225.5000;0.4965;1.2652;
1225.8000;0.4851;1.2323;
1226.1000;0.4965;1.2558;
1226.4000;0.4982;1.2675;
1226.7000;0.4982;1.2675;
1227.0000;0.4974;1.2582;
1227.3000;0.4965;1.2535;
1227.6000;0.4982;1.2488;
1227.9000;0.4974;1.2464;
1228.2000;0.4974;1.2441;
1228.5000;0.4974;1.2464;
1228.8000;0.4982;1.2558;
1229.1000;0.4982;1.2605;
1229.4000;0.4990;1.2582;
1229.7000;0.4941;1.2417;
1230.0000;0.4982;1.2511;
1230.3000;0.5006;1.2605;
1230.6000;0.4998;1.2605;
1230.9000;0.4982;1.2511;
1231.2000;0.4990;1.2488;
1231.5000;0.5022;1.2605;
1231.8000;0.4965;1.2488;
1232.1000;0.4998;1.2629;
1232.4000;0.4982;1.2582;
1232.7000;0.4965;1.2629;
1233.0000;0.4982;1.2582;
1233.3000;0.4990;1.2582;
1233.6000;0.4965;1.2535;
1233.9000;0.5055;1.2722;
1234.2000;0.4990;1.2652;
1234.5000;0.4982;1.2605;
1234.8000;0.4974;1.2511;
1235.1000;0.4982;1.2535;
1235.4000;0.4974;1.2582;
1235.7000;0.4982;1.2558;
1236.0000;0.4998;1.2511;
1236.3000;0.4982;1.2605;
1236.6000;0.4982;1.2558;
1236.9000;0.5063;1.2746;
1237.2000;0.4965;1.2464;
1237.5000;0.4933;1.2417;
1237.8000;0.4965;1.2511;
1238.1000;0.4974;1.2605;
1238.4000;0.4982;1.2558;
1238.7000;0.5039;1.2675;
1239.0000;0.4982;1.2535;
1239.3000;0.4990;1.2582;
1239.6000;0.4982;1.2629;
1239.9000;0.4982;1.2816;
1240.2000;0.4957;1.2793;
1240.5000;0.4949;1.2722;
1240.8000;0.5006;1.2816;
1241.1000;0.4965;1.2675;
1241.4000;0.4974;1.2675;
1241.7000;0.5039;1.2793;
1242.0000;0.4982;1.2558;
1242.3000;0.4982;1.2535;
1242.6000;0.4982;1.2488;
1242.9000;0.4974;1.2464;
1243.2000;0.4982;1.2535;
1243.5000;0.5006;1.2629;
1243.8000;0.5014;1.2675;
1244.1000;0.4990;1.2582;
1244.4000;0.4990;1.2629;
1244.7000;0.4884;1.2370;
1245.0000;0.4998;1.2629;
1245.3000;0.4982;1.2605;
1245.6000;0.4982;1.2629;
1245.9000;0.5006;1.2746;
1246.2000;0.4990;1.2746;
1246.5000;0.4990;1.2629;
1246.8000;0.4974;1.2582;
1247.1000;0.4908;1.2511;
1247.4000;0.4957;1.2675;
1247.7000;0.4974;1.2746;
1248.0000;0.4957;1.2675;
1248.3000;0.4982;1.2675;
1248.6000;0.4974;1.2675;
1248.9000;0.4974;1.2769;
1249.2000;0.4974;1.2722;
1249.5000;0.4965;1.2675;
1249.8000;0.4974;1.2675;
1250.1000;0.4990;1.2675;
1250.4000;0.4982;1.2535;
1250.7000;0.4990;1.2535;
1251.0000;0.4998;1.2464;
1251.3000;0.4990;1.2441;
1251.6000;0.4957;1.2417;
1251.9000;0.4965;1.2370;
1252.2000;0.4974;1.2441;
1252.5000;0.4965;1.2417;
1252.8000;0.4965;1.2464;
1253.1000;0.5022;1.2629;
1253.4000;0.4957;1.2511;
1253.7000;0.4998;1.2652;
1254.0000;0.4982;1.2629;
1254.3000;0.5006;1.2582;
1254.6000;0.4990;1.2558;
1254.9000;0.4990;1.2558;
1255.2000;0.5104;1.2863;
1255.5000;0.4982;1.2582;
1255.8000;0.4982;1.2652;
1256.1000;0.4974;1.2722;
1256.4000;0.4998;1.2746;
1256.7000;0.4957;1.2652;
1257.0000;0.4957;1.2722;
1257.3000;0.4965;1.2652;
1257.6000;0.4990;1.2675;
1257.9000;0.4957;1.2582;
1258.2000;0.4957;1.2675;
1258.5000;0.4974;1.2769;
1258.8000;0.4982;1.2816;
1259.1000;0.4974;1.2746;
1259.4000;0.4974;1.2722;
1259.7000;0.4998;1.2699;
1260.0000;0.4998;1.2675;
1260.3000;0.4998;1.2629;
1260.6000;0.4974;1.2558;
1260.9000;0.4965;1.2511;
1261.2000;0.4982;1.2441;
1261.5000;0.4982;1.2417;
1261.8000;0.4957;1.2323;
1262.1000;0.4965;1.2323;
1262.4000;0.4982;1.2464;
1262.7000;0.4974;1.2394;
1263.0000;0.4949;1.2370;
1263.3000;0.4974;1.2441;
1263.6000;0.4982;1.2394;
1263.9000;0.4974;1.2347;
1264.2000;0.4965;1.2347;
1264.5000;0.4974;1.2370;
1264.8000;0.4974;1.2394;
1265.1000;0.4990;1.2464;
1265.4000;0.4974;1.2417;
1265.7000;0.4974;1.2394;
1266.0000;0.4965;1.2300;
1266.3000;0.4990;1.2370;
1266.6000;0.4998;1.2300;
1266.9000;0.4965;1.2230;
1267.2000;0.4990;1.2276;
1267.5000;0.4982;1.2276;
1267.8000;0.4990;1.2323;
1268.1000;0.4998;1.2370;
1268.4000;0.4974;1.2347;
1268.7000;0.4974;1.2417;
1269.0000;0.4974;1.2370;
1269.3000;0.4990;1.2417;
1269.6000;0.4982;1.2417;
1269.9000;0.4974;1.2464;
1270.2000;0.4965;1.2441;
1270.5000;0.4982;1.2488;
1270.8000;0.4990;1.2417;
1271.1000;0.4982;1.2464;
1271.4000;0.4965;1.2441;
1271.7000;0.4974;1.2488;
1272.0000;0.4965;1.2417;
1272.3000;0.5022;1.2488;
1272.6000;0.4949;1.2347;
1272.9000;0.4965;1.2464;
1273.2000;0.4998;1.2629;
1273.5000;0.4851;1.2276;
1273.8000;0.4982;1.2535;
1274.1000;0.4965;1.2488;
1274.4000;0.4982;1.2535;
1274.7000;0.4974;1.2582;
1275.0000;0.4965;1.2675;
1275.3000;0.4974;1.2675;
1275.6000;0.4965;1.2699;
1275.9000;0.4974;1.2652;
1276.2000;0.4974;1.2675;
1276.5000;0.4965;1.2488;
1276.8000;0.4957;1.2464;
1277.1000;0.4982;1.2535;
1277.4000;0.4990;1.2605;
1277.7000;0.4974;1.2605;
1278.0000;0.4965;1.2535;
1278.3000;0.5006;1.2558;
1278.6000;0.4941;1.2464;
1278.9000;0.4998;1.2605;
1279.2000;0.4982;1.2582;
1279.5000;0.4982;1.2582;
1279.8000;0.4990;1.2629;
1280.1000;0.5014;1.2675;
1280.4000;0.4908;1.2488;
1280.7000;0.4974;1.2605;
1281.0000;0.5006;1.2605;
1281.3000;0.4949;1.2394;
1281.6000;0.4965;1.2417;
1281.9000;0.4998;1.2441;
1282.2000;0.4998;1.2464;
1282.5000;0.4982;1.2417;
1282.8000;0.4998;1.2417;
1283.1000;0.4974;1.2394;
1283.4000;0.4974;1.2347;
1283.7000;0.4990;1.2347;
1284.0000;0.4982;1.2417;
1284.3000;0.4974;1.2394;
1284.6000;0.4974;1.2323;
1284.9000;0.4982;1.2347;
1285.2000;0.4990;1.2323;
1285.5000;0.4892;1.2112;
1285.8000;0.4974;1.2323;
1286.1000;0.4998;1.2441;
1286.4000;0.4990;1.2394;
1286.7000;0.4982;1.2276;
1287.0000;0.4965;1.2230;
1287.3000;0.4998;1.2323;
1287.6000;0.4974;1.2253;
1287.9000;0.4974;1.2300;
1288.2000;0.4965;1.2300;
1288.5000;0.4982;1.2323;
1288.8000;0.4998;1.2276;
1289.1000;0.4965;1.2159;
1289.4000;0.4957;1.2136;
1289.7000;0.4974;1.2159;
1290.0000;0.4957;1.2183;
1290.3000;0.4965;1.2323;
1290.6000;0.4965;1.2253;
1290.9000;0.4974;1.2276;
1291.2000;0.4974;1.2323;
1291.5000;0.4974;1.2347;
1291.8000;0.5031;1.2441;
1292.1000;0.4965;1.2370;
1292.4000;0.5014;1.2488;
1292.7000;0.4949;1.2441;
1293.0000;0.5006;1.2652;
1293.3000;0.4974;1.2675;
1293.6000;0.5014;1.2769;
1293.9000;0.4957;1.2535;
1294.2000;0.4900;1.2441;
1294.5000;0.4974;1.2629;
1294.8000;0.4974;1.2535;
1295.1000;0.4949;1.2417;
1295.4000;0.4957;1.2464;
1295.7000;0.4982;1.2464;
1296.0000;0.4974;1.2441;
1296.3000;0.4982;1.2511;
1296.6000;0.4974;1.2417;
1296.9000;0.4965;1.2441;
1297.2000;0.4965;1.2417;
1297.5000;0.4990;1.2464;
1297.8000;0.4982;1.2417;
1298.1000;0.4965;1.2417;
1298.4000;0.4957;1.2464;
1298.7000;0.4998;1.2535;
1299.0000;0.4982;1.2558;
1299.3000;0.4974;1.2629;
1299.6000;0.4974;1.2675;
1299.9000;0.4990;1.2746;
1300.2000;0.4990;1.2722;
1300.5000;0.4974;1.2769;
1300.8000;0.4998;1.2840;
1301.1000;0.4965;1.2746;
1301.4000;0.4990;1.2840;
1301.7000;0.4982;1.2863;
1302.0000;0.4990;1.2863;
1302.3000;0.5014;1.2840;
1302.6000;0.4949;1.2629;
1302.9000;0.4982;1.2746;
1303.2000;0.4990;1.2769;
1303.5000;0.4974;1.2675;
1303.8000;0.4957;1.2629;
1304.1000;0.4982;1.2675;
1304.4000;0.4990;1.2840;
1304.7000;0.4990;1.2863;
1305.0000;0.4998;1.2863;
1305.3000;0.4990;1.2816;
1305.6000;0.4998;1.2793;
1305.9000;0.4982;1.2746;
1306.2000;0.4982;1.2699;
1306.5000;0.4974;1.2629;
1306.8000;0.4982;1.2629;
1307.1000;0.4974;1.2629;
1307.4000;0.4965;1.2605;
1307.7000;0.5039;1.2816;
1308.0000;0.4982;1.2675;
1308.3000;0.4974;1.2675;
1308.6000;0.4974;1.2722;
1308.9000;0.4974;1.2722;
1309.2000;0.4990;1.2746;
1309.5000;0.4974;1.2746;
1309.8000;0.4982;1.2699;
1310.1000;0.4982;1.2699;
1310.4000;0.4982;1.2582;
1310.7000;0.4982;1.2629;
1311.0000;0.4892;1.2511;
1311.3000;0.4974;1.2652;
1311.6000;0.4982;1.2675;
1311.9000;0.4974;1.2605;
1312.2000;0.4982;1.2652;
1312.5000;0.4974;1.2652;
1312.8000;0.4965;1.2582;
1313.1000;0.4949;1.2535;
1313.4000;0.4974;1.2629;
1313.7000;0.4949;1.2582;
1314.0000;0.4965;1.2605;
1314.3000;0.4990;1.2722;
1314.6000;0.4982;1.2675;
1314.9000;0.4982;1.2629;
1315.2000;0.4965;1.2558;
1315.5000;0.4974;1.2511;
1315.8000;0.4990;1.2582;
1316.1000;0.4974;1.2511;
1316.4000;0.4949;1.2488;
1316.7000;0.4982;1.2464;
1317.0000;0.4982;1.2511;
1317.3000;0.4974;1.2464;
1317.6000;0.4974;1.2511;
1317.9000;0.4982;1.2488;
1318.2000;0.4957;1.2347;
1318.5000;0.4982;1.2370;
1318.8000;0.4982;1.2370;
1319.1000;0.4990;1.2441;
1319.4000;0.4982;1.2394;
1319.7000;0.4982;1.2464;
1320.0000;0.4990;1.2511;
1320.3000;0.5096;1.2793;
1320.6000;0.4974;1.2394;
1320.9000;0.4982;1.2464;
1321.2000;0.4974;1.2417;
1321.5000;0.4974;1.2488;
1321.8000;0.4965;1.2488;
1322.1000;0.4974;1.2558;
1322.4000;0.4965;1.2558;
1322.7000;0.4982;1.2558;
1323.0000;0.4982;1.2629;
1323.3000;0.4974;1.2582;
1323.6000;0.4965;1.2558;
1323.9000;0.4990;1.2582;
1324.2000;0.4974;1.2558;
1324.5000;0.4982;1.2605;
1324.8000;0.4965;1.2558;
1325.1000;0.4965;1.2675;
1325.4000;0.4982;1.2746;
1325.7000;0.4974;1.2769;
1326.0000;0.4974;1.2793;
1326.3000;0.4974;1.2746;
1326.6000;0.4957;1.2582;
1326.9000;0.4917;1.2605;
1327.2000;0.4974;1.2722;
1327.5000;0.4965;1.2652;
1327.8000;0.4974;1.2652;
1328.1000;0.4974;1.2605;
1328.4000;0.4957;1.2558;
1328.7000;0.4974;1.2605;
1329.0000;0.4965;1.2675;
1329.3000;0.4965;1.2629;
1329.6000;0.4974;1.2652;
1329.9000;0.4982;1.2605;
1330.2000;0.4974;1.2652;
1330.5000;0.4965;1.2605;
1330.8000;0.4949;1.2582;
1331.1000;0.4957;1.2535;
1331.4000;0.4982;1.2652;
1331.7000;0.4982;1.2675;
1332.0000;0.4998;1.2675;
1332.3000;0.4982;1.2629;
1332.6000;0.4982;1.2699;
1332.9000;0.4892;1.2417;
1333.2000;0.4982;1.2675;
1333.5000;0.4982;1.2699;
1333.8000;0.4982;1.2605;
1334.1000;0.4974;1.2511;
1334.4000;0.4974;1.2511;
1334.7000;0.4941;1.2417;
1335.0000;0.4965;1.2558;
1335.3000;0.4990;1.2629;
1335.6000;0.5006;1.2629;
1335.9000;0.4974;1.2535;
1336.2000;0.4982;1.2582;
1336.5000;0.4933;1.2464;
1336.8000;0.4965;1.2558;
1337.1000;0.4974;1.2582;
1337.4000;0.4965;1.2558;
1337.7000;0.4974;1.2582;
1338.0000;0.4974;1.2582;
1338.3000;0.4957;1.2605;
1338.6000;0.4982;1.2582;
1338.9000;0.4982;1.2535;
1339.2000;0.4949;1.2441;
1339.5000;0.4965;1.2535;
1339.8000;0.4949;1.2464;
1340.1000;0.4965;1.2417;
1340.4000;0.4925;1.2230;
1340.7000;0.4974;1.2323;
1341.0000;0.4974;1.2347;
1341.3000;0.4990;1.2323;
1341.6000;0.4982;1.2417;
1341.9000;0.4860;1.2183;
1342.2000;0.4974;1.2394;
1342.5000;0.4990;1.2488;
1342.8000;0.5022;1.2582;
1343.1000;0.4965;1.2394;
1343.4000;0.5022;1.2582;
1343.7000;0.5006;1.2558;
1344.0000;0.4990;1.2511;
1344.3000;0.4982;1.2488;
1344.6000;0.4990;1.2441;
1344.9000;0.4933;1.2300;
1345.2000;0.5031;1.2511;
1345.5000;0.4974;1.2323;
1345.8000;0.4990;1.2394;
1346.1000;0.4974;1.2394;
1346.4000;0.4982;1.2464;
1346.7000;0.4974;1.2535;
1347.0000;0.4982;1.2488;
1347.3000;0.4957;1.2370;
1347.6000;0.4982;1.2394;
1347.9000;0.4974;1.2394;
1348.2000;0.4982;1.2394;
1348.5000;0.4982;1.2488;
1348.8000;0.4974;1.2605;
1349.1000;0.4974;1.2699;
1349.4000;0.4974;1.2699;
1349.7000;0.4974;1.2746;
1350.0000;0.4957;1.2652;
1350.3000;0.4974;1.2675;
1350.6000;0.4990;1.2582;
1350.9000;0.4876;1.2347;
1351.2000;0.4868;1.2323;
1351.5000;0.4965;1.2511;
1351.8000;0.4982;1.2511;
1352.1000;0.4990;1.2629;
1352.4000;0.4974;1.2652;
1352.7000;0.4965;1.2629;
1353.0000;0.5039;1.2793;
1353.3000;0.4941;1.2488;
1353.6000;0.4974;1.2464;
1353.9000;0.4998;1.2511;
1354.2000;0.4974;1.2441;
1354.5000;0.4982;1.2488;
1354.8000;0.4982;1.2558;
1355.1000;0.4982;1.2558;
1355.4000;0.4957;1.2582;
1355.7000;0.4982;1.2511;
1356.0000;0.4974;1.2464;
1356.3000;0.4982;1.2394;
1356.6000;0.4974;1.2441;
1356.9000;0.4990;1.2488;
1357.2000;0.4990;1.2629;
1357.5000;0.4957;1.2652;
1357.8000;0.4974;1.2675;
1358.1000;0.4990;1.2652;
1358.4000;0.4998;1.2699;
1358.7000;0.4990;1.2582;
1359.0000;0.4990;1.2605;
1359.3000;0.4990;1.2629;
1359.6000;0.4982;1.2675;
1359.9000;0.4982;1.2629;
1360.2000;0.4990;1.2582;
1360.5000;0.4957;1.2511;
1360.8000;0.4949;1.2558;
1361.1000;0.4974;1.2722;
1361.4000;0.4982;1.2746;
1361.7000;0.5022;1.2746;
1362.0000;0.4974;1.2652;
1362.3000;0.4998;1.2675;
1362.6000;0.4990;1.2582;
1362.9000;0.4982;1.2652;
1363.2000;0.5006;1.2699;
1363.5000;0.4917;1.2535;
1363.8000;0.4957;1.2605;
1364.1000;0.4965;1.2675;
1364.4000;0.4908;1.2511;
1364.7000;0.4949;1.2629;
1365.0000;0.4982;1.2675;
1365.3000;0.4974;1.2652;
1365.6000;0.4982;1.2582;
1365.9000;0.4949;1.2535;
1366.2000;0.4957;1.2629;
1366.5000;0.4965;1.2605;
1366.8000;0.4974;1.2605;
1367.1000;0.4990;1.2629;
1367.4000;0.4990;1.2652;
1367.7000;0.4998;1.2535;
1368.0000;0.4949;1.2535;
1368.3000;0.4957;1.2558;
1368.6000;0.4982;1.2558;
1368.9000;0.4892;1.2300;
1369.2000;0.4925;1.2417;
1369.5000;0.4965;1.2441;
1369.8000;0.4982;1.2441;
1370.1000;0.4990;1.2558;
1370.4000;0.4965;1.2488;
1370.7000;0.4827;1.2230;
1371.0000;0.4974;1.2511;
1371.3000;0.4982;1.2558;
1371.6000;0.4998;1.2582;
1371.9000;0.5071;1.2746;
1372.2000;0.4908;1.2323;
1372.5000;0.5031;1.2629;
1372.8000;0.4998;1.2652;
1373.1000;0.4974;1.2417;
1373.4000;0.4982;1.2464;
1373.7000;0.4974;1.2417;
1374.0000;0.4941;1.2347;
1374.3000;0.4998;1.2558;
1374.6000;0.4965;1.2488;
1374.9000;0.4941;1.2464;
1375.2000;0.5079;1.2816;
1375.5000;0.4982;1.2535;
1375.8000;0.4957;1.2464;
1376.1000;0.4974;1.2605;
1376.4000;0.4982;1.2535;
1376.7000;0.4941;1.2370;
1377.0000;0.4982;1.2582;
1377.3000;0.4965;1.2605;
1377.6000;0.4957;1.2605;
1377.9000;0.4974;1.2722;
1378.2000;0.4974;1.2722;
1378.5000;0.4941;1.2582;
1378.8000;0.4982;1.2675;
1379.1000;0.4974;1.2582;
1379.4000;0.4965;1.2605;
1379.7000;0.4965;1.2652;
1380.0000;0.4957;1.2699;
1380.3000;0.4974;1.2675;
1380.6000;0.4965;1.2582;
1380.9000;0.4957;1.2605;
1381.2000;0.4974;1.2652;
1381.5000;0.4974;1.2629;
1381.8000;0.4949;1.2675;
1382.1000;0.4974;1.2652;
1382.4000;0.4965;1.2699;
1382.7000;0.4957;1.2722;
1383.0000;0.4982;1.2793;
1383.3000;0.4957;1.2722;
1383.6000;0.4957;1.2722;
1383.9000;0.4957;1.2699;
1384.2000;0.4949;1.2652;
1384.5000;0.4974;1.2652;
1384.8000;0.4957;1.2793;
1385.1000;0.4982;1.2746;
1385.4000;0.4974;1.2840;
1385.7000;0.4974;1.2887;
1386.0000;0.4965;1.2793;
1386.3000;0.4982;1.2746;
1386.6000;0.4974;1.2746;
1386.9000;0.4998;1.2722;
1387.2000;0.4965;1.2629;
1387.5000;0.4974;1.2629;
1387.8000;0.4974;1.2629;
1388.1000;0.4990;1.2652;
1388.4000;0.4982;1.2629;
1388.7000;0.4974;1.2629;
1389.0000;0.4974;1.2488;
1389.3000;0.4990;1.2535;
1389.6000;0.4982;1.2535;
1389.9000;0.4965;1.2535;
1390.2000;0.4974;1.2535;
1390.5000;0.4990;1.2558;
1390.8000;0.4990;1.2582;
1391.1000;0.4974;1.2535;
1391.4000;0.4982;1.2488;
1391.7000;0.4982;1.2464;
1392.0000;0.4998;1.2464;
1392.3000;0.4998;1.2488;
1392.6000;0.4965;1.2441;
1392.9000;0.4965;1.2441;
1393.2000;0.4982;1.2558;
1393.5000;0.4974;1.2558;
1393.8000;0.4974;1.2488;
1394.1000;0.4965;1.2441;
1394.4000;0.4957;1.2417;
1394.7000;0.4974;1.2511;
1395.0000;0.4974;1.2605;
1395.3000;0.4974;1.2605;
1395.6000;0.4974;1.2535;
1395.9000;0.4965;1.2558;
1396.2000;0.4957;1.2464;
1396.5000;0.4974;1.2535;
1396.8000;0.4974;1.2535;
1397.1000;0.4974;1.2488;
1397.4000;0.4965;1.2464;
1397.7000;0.4990;1.2535;
1398.0000;0.4974;1.2464;
1398.3000;0.4982;1.2417;
1398.6000;0.4982;1.2370;
1398.9000;0.4965;1.2253;
1399.2000;0.4990;1.2394;
1399.5000;0.4990;1.2535;
1399.8000;0.4982;1.2605;
