time/ms;Fluo/V;P700 deltaI/I x10³;
-199.8000;0.7123;1.5211;
-199.5000;0.7139;1.5304;
-199.2000;0.7147;1.5304;
-198.9000;0.7147;1.5258;
-198.6000;0.7155;1.5328;
-198.3000;0.7131;1.5304;
-198.0000;0.7114;1.5328;
-197.7000;0.7139;1.5469;
-197.4000;0.7131;1.5422;
-197.1000;0.7131;1.5492;
-196.8000;0.7114;1.5445;
-196.5000;0.7139;1.5445;
-196.2000;0.7155;1.5539;
-195.9000;0.7155;1.5563;
-195.6000;0.7139;1.5516;
-195.3000;0.7188;1.5610;
-195.0000;0.7139;1.5469;
-194.7000;0.7147;1.5398;
-194.4000;0.7139;1.5445;
-194.1000;0.7123;1.5375;
-193.8000;0.7147;1.5539;
-193.5000;0.7147;1.5516;
-193.2000;0.7139;1.5539;
-192.9000;0.7114;1.5469;
-192.6000;0.7131;1.5469;
-192.3000;0.7147;1.5469;
-192.0000;0.7155;1.5492;
-191.7000;0.7131;1.5422;
-191.4000;0.7147;1.5422;
-191.1000;0.7147;1.5422;
-190.8000;0.7155;1.5375;
-190.5000;0.7139;1.5328;
-190.2000;0.7147;1.5304;
-189.9000;0.7131;1.5211;
-189.6000;0.7147;1.5281;
-189.3000;0.7147;1.5304;
-189.0000;0.7131;1.5328;
-188.7000;0.7131;1.5375;
-188.4000;0.7155;1.5469;
-188.1000;0.7147;1.5492;
-187.8000;0.7139;1.5422;
-187.5000;0.7131;1.5328;
-187.2000;0.7147;1.5351;
-186.9000;0.7131;1.5398;
-186.6000;0.7139;1.5445;
-186.3000;0.7123;1.5422;
-186.0000;0.7123;1.5258;
-185.7000;0.7147;1.5304;
-185.4000;0.7163;1.5328;
-185.1000;0.7155;1.5281;
-184.8000;0.7139;1.5234;
-184.5000;0.7155;1.5351;
-184.2000;0.7163;1.5328;
-183.9000;0.7155;1.5164;
-183.6000;0.7147;1.5093;
-183.3000;0.7114;1.5070;
-183.0000;0.7147;1.5164;
-182.7000;0.7147;1.5117;
-182.4000;0.7139;1.4976;
-182.1000;0.7147;1.4952;
-181.8000;0.7147;1.4952;
-181.5000;0.7147;1.4929;
-181.2000;0.7139;1.4905;
-180.9000;0.7155;1.4952;
-180.6000;0.7155;1.5046;
-180.3000;0.7155;1.5093;
-180.0000;0.7155;1.5140;
-179.7000;0.7147;1.5093;
-179.4000;0.7139;1.5211;
-179.1000;0.7147;1.5187;
-178.8000;0.7147;1.5211;
-178.5000;0.7139;1.5281;
-178.2000;0.7147;1.5281;
-177.9000;0.7139;1.5328;
-177.6000;0.7131;1.5375;
-177.3000;0.7147;1.5516;
-177.0000;0.7131;1.5539;
-176.7000;0.7139;1.5586;
-176.4000;0.7139;1.5539;
-176.1000;0.7147;1.5445;
-175.8000;0.7155;1.5516;
-175.5000;0.7147;1.5469;
-175.2000;0.7155;1.5469;
-174.9000;0.7147;1.5375;
-174.6000;0.7147;1.5351;
-174.3000;0.7163;1.5328;
-174.0000;0.7171;1.5351;
-173.7000;0.7147;1.5328;
-173.4000;0.7155;1.5351;
-173.1000;0.7139;1.5398;
-172.8000;0.7155;1.5422;
-172.5000;0.7131;1.5351;
-172.2000;0.7114;1.5304;
-171.9000;0.7114;1.5304;
-171.6000;0.7131;1.5351;
-171.3000;0.7139;1.5281;
-171.0000;0.7098;1.5164;
-170.7000;0.7139;1.5187;
-170.4000;0.7147;1.5234;
-170.1000;0.7147;1.5164;
-169.8000;0.7139;1.5140;
-169.5000;0.7139;1.5234;
-169.2000;0.7131;1.5211;
-168.9000;0.7147;1.5328;
-168.6000;0.7155;1.5422;
-168.3000;0.7123;1.5281;
-168.0000;0.7139;1.5234;
-167.7000;0.7131;1.5281;
-167.4000;0.7147;1.5258;
-167.1000;0.7163;1.5304;
-166.8000;0.7155;1.5375;
-166.5000;0.7147;1.5375;
-166.2000;0.7147;1.5445;
-165.9000;0.7147;1.5375;
-165.6000;0.7123;1.5398;
-165.3000;0.7131;1.5469;
-165.0000;0.7131;1.5492;
-164.7000;0.7147;1.5445;
-164.4000;0.7147;1.5492;
-164.1000;0.7155;1.5516;
-163.8000;0.7147;1.5492;
-163.5000;0.7155;1.5445;
-163.2000;0.7139;1.5445;
-162.9000;0.7139;1.5445;
-162.6000;0.7139;1.5328;
-162.3000;0.7147;1.5281;
-162.0000;0.7131;1.5187;
-161.7000;0.7131;1.5234;
-161.4000;0.7131;1.5328;
-161.1000;0.7139;1.5304;
-160.8000;0.7123;1.5281;
-160.5000;0.7131;1.5398;
-160.2000;0.7131;1.5445;
-159.9000;0.7147;1.5492;
-159.6000;0.7139;1.5375;
-159.3000;0.7131;1.5304;
-159.0000;0.7236;1.5539;
-158.7000;0.7163;1.5351;
-158.4000;0.7155;1.5281;
-158.1000;0.7139;1.5258;
-157.8000;0.7123;1.5164;
-157.5000;0.7155;1.5281;
-157.2000;0.7147;1.5328;
-156.9000;0.7139;1.5328;
-156.6000;0.7147;1.5351;
-156.3000;0.7155;1.5422;
-156.0000;0.7147;1.5375;
-155.7000;0.7033;1.5117;
-155.4000;0.7245;1.5633;
-155.1000;0.7131;1.5351;
-154.8000;0.7147;1.5375;
-154.5000;0.7114;1.5234;
-154.2000;0.7131;1.5258;
-153.9000;0.7147;1.5234;
-153.6000;0.7114;1.5187;
-153.3000;0.7147;1.5328;
-153.0000;0.7114;1.5281;
-152.7000;0.7131;1.5422;
-152.4000;0.7147;1.5539;
-152.1000;0.7212;1.5657;
-151.8000;0.7155;1.5422;
-151.5000;0.7147;1.5375;
-151.2000;0.7139;1.5445;
-150.9000;0.7147;1.5351;
-150.6000;0.7139;1.5328;
-150.3000;0.7131;1.5304;
-150.0000;0.7147;1.5375;
-149.7000;0.7212;1.5563;
-149.4000;0.7131;1.5375;
-149.1000;0.7147;1.5469;
-148.8000;0.7131;1.5445;
-148.5000;0.7147;1.5492;
-148.2000;0.7139;1.5563;
-147.9000;0.7098;1.5398;
-147.6000;0.7131;1.5586;
-147.3000;0.7155;1.5610;
-147.0000;0.7163;1.5610;
-146.7000;0.7139;1.5516;
-146.4000;0.7147;1.5516;
-146.1000;0.7147;1.5516;
-145.8000;0.7163;1.5539;
-145.5000;0.7188;1.5610;
-145.2000;0.7139;1.5516;
-144.9000;0.7147;1.5469;
-144.6000;0.7163;1.5586;
-144.3000;0.7155;1.5563;
-144.0000;0.7139;1.5516;
-143.7000;0.7123;1.5398;
-143.4000;0.7155;1.5445;
-143.1000;0.7179;1.5586;
-142.8000;0.7114;1.5422;
-142.5000;0.7155;1.5492;
-142.2000;0.7163;1.5492;
-141.9000;0.7171;1.5351;
-141.6000;0.7163;1.5304;
-141.3000;0.7155;1.5445;
-141.0000;0.7147;1.5492;
-140.7000;0.7147;1.5516;
-140.4000;0.7147;1.5563;
-140.1000;0.7131;1.5398;
-139.8000;0.7236;1.5586;
-139.5000;0.7147;1.5398;
-139.2000;0.7139;1.5445;
-138.9000;0.7123;1.5351;
-138.6000;0.7139;1.5398;
-138.3000;0.7155;1.5422;
-138.0000;0.7220;1.5563;
-137.7000;0.7147;1.5328;
-137.4000;0.7139;1.5422;
-137.1000;0.7131;1.5445;
-136.8000;0.7171;1.5492;
-136.5000;0.7139;1.5445;
-136.2000;0.7114;1.5445;
-135.9000;0.7131;1.5492;
-135.6000;0.7131;1.5539;
-135.3000;0.7155;1.5469;
-135.0000;0.7123;1.5375;
-134.7000;0.7131;1.5469;
-134.4000;0.7147;1.5586;
-134.1000;0.7139;1.5610;
-133.8000;0.7131;1.5586;
-133.5000;0.7139;1.5633;
-133.2000;0.7131;1.5610;
-132.9000;0.7147;1.5610;
-132.6000;0.7147;1.5563;
-132.3000;0.7123;1.5398;
-132.0000;0.7139;1.5445;
-131.7000;0.7147;1.5516;
-131.4000;0.7147;1.5586;
-131.1000;0.7139;1.5680;
-130.8000;0.7114;1.5563;
-130.5000;0.7147;1.5563;
-130.2000;0.7147;1.5539;
-129.9000;0.7139;1.5492;
-129.6000;0.7131;1.5398;
-129.3000;0.7155;1.5375;
-129.0000;0.7131;1.5328;
-128.7000;0.7139;1.5351;
-128.4000;0.7147;1.5445;
-128.1000;0.7123;1.5445;
-127.8000;0.7155;1.5492;
-127.5000;0.7131;1.5398;
-127.2000;0.7131;1.5351;
-126.9000;0.7139;1.5398;
-126.6000;0.7147;1.5375;
-126.3000;0.7147;1.5469;
-126.0000;0.7114;1.5281;
-125.7000;0.7123;1.5281;
-125.4000;0.7147;1.5351;
-125.1000;0.7171;1.5328;
-124.8000;0.7155;1.5234;
-124.5000;0.7098;1.5093;
-124.2000;0.7114;1.5140;
-123.9000;0.7131;1.5187;
-123.6000;0.7123;1.5281;
-123.3000;0.7131;1.5351;
-123.0000;0.7131;1.5375;
-122.7000;0.7147;1.5422;
-122.4000;0.7131;1.5445;
-122.1000;0.7114;1.5304;
-121.8000;0.7139;1.5304;
-121.5000;0.7147;1.5304;
-121.2000;0.7139;1.5328;
-120.9000;0.7123;1.5351;
-120.6000;0.7114;1.5351;
-120.3000;0.7106;1.5375;
-120.0000;0.7163;1.5492;
-119.7000;0.7106;1.5422;
-119.4000;0.7155;1.5539;
-119.1000;0.7139;1.5422;
-118.8000;0.7049;1.5164;
-118.5000;0.7131;1.5469;
-118.2000;0.7147;1.5469;
-117.9000;0.7123;1.5492;
-117.6000;0.7123;1.5469;
-117.3000;0.7131;1.5398;
-117.0000;0.7147;1.5422;
-116.7000;0.7155;1.5492;
-116.4000;0.7147;1.5469;
-116.1000;0.7155;1.5516;
-115.8000;0.7147;1.5516;
-115.5000;0.7114;1.5422;
-115.2000;0.7147;1.5539;
-114.9000;0.7147;1.5563;
-114.6000;0.7147;1.5445;
-114.3000;0.7139;1.5375;
-114.0000;0.7147;1.5351;
-113.7000;0.7155;1.5351;
-113.4000;0.7131;1.5211;
-113.1000;0.7106;1.5187;
-112.8000;0.7139;1.5281;
-112.5000;0.7147;1.5351;
-112.2000;0.7139;1.5375;
-111.9000;0.7131;1.5351;
-111.6000;0.7139;1.5398;
-111.3000;0.7188;1.5586;
-111.0000;0.7106;1.5398;
-110.7000;0.7131;1.5633;
-110.4000;0.7147;1.5610;
-110.1000;0.7139;1.5610;
-109.8000;0.7155;1.5680;
-109.5000;0.7139;1.5633;
-109.2000;0.7057;1.5422;
-108.9000;0.7139;1.5539;
-108.6000;0.7090;1.5398;
-108.3000;0.7147;1.5422;
-108.0000;0.7147;1.5445;
-107.7000;0.7196;1.5492;
-107.4000;0.7114;1.5304;
-107.1000;0.7131;1.5351;
-106.8000;0.7147;1.5351;
-106.5000;0.7131;1.5351;
-106.2000;0.7188;1.5516;
-105.9000;0.7196;1.5469;
-105.6000;0.7147;1.5422;
-105.3000;0.7155;1.5422;
-105.0000;0.7147;1.5351;
-104.7000;0.7139;1.5281;
-104.4000;0.7147;1.5281;
-104.1000;0.7155;1.5422;
-103.8000;0.7114;1.5281;
-103.5000;0.7147;1.5328;
-103.2000;0.7147;1.5375;
-102.9000;0.7139;1.5281;
-102.6000;0.7139;1.5351;
-102.3000;0.7041;1.5070;
-102.0000;0.7123;1.5258;
-101.7000;0.7139;1.5234;
-101.4000;0.7139;1.5187;
-101.1000;0.7131;1.5234;
-100.8000;0.7147;1.5258;
-100.5000;0.7139;1.5187;
-100.2000;0.7139;1.5211;
-99.9000;0.7147;1.5258;
-99.6000;0.7147;1.5328;
-99.3000;0.7179;1.5422;
-99.0000;0.7147;1.5351;
-98.7000;0.7131;1.5328;
-98.4000;0.7131;1.5304;
-98.1000;0.7147;1.5281;
-97.8000;0.7139;1.5234;
-97.5000;0.7147;1.5211;
-97.2000;0.7155;1.5258;
-96.9000;0.7147;1.5328;
-96.6000;0.7139;1.5351;
-96.3000;0.7123;1.5304;
-96.0000;0.7147;1.5375;
-95.7000;0.7163;1.5351;
-95.4000;0.7171;1.5398;
-95.1000;0.7163;1.5375;
-94.8000;0.7139;1.5351;
-94.5000;0.7147;1.5469;
-94.2000;0.7139;1.5516;
-93.9000;0.7147;1.5492;
-93.6000;0.7131;1.5469;
-93.3000;0.7147;1.5445;
-93.0000;0.7139;1.5445;
-92.7000;0.7147;1.5445;
-92.4000;0.7139;1.5351;
-92.1000;0.7139;1.5398;
-91.8000;0.7147;1.5281;
-91.5000;0.7163;1.5351;
-91.2000;0.7139;1.5281;
-90.9000;0.7131;1.5211;
-90.6000;0.7179;1.5328;
-90.3000;0.7131;1.5281;
-90.0000;0.7139;1.5328;
-89.7000;0.7131;1.5328;
-89.4000;0.7131;1.5304;
-89.1000;0.7155;1.5422;
-88.8000;0.7131;1.5445;
-88.5000;0.7139;1.5516;
-88.2000;0.7147;1.5610;
-87.9000;0.7123;1.5586;
-87.6000;0.7163;1.5610;
-87.3000;0.7139;1.5492;
-87.0000;0.7253;1.5750;
-86.7000;0.7139;1.5328;
-86.4000;0.7147;1.5328;
-86.1000;0.7155;1.5375;
-85.8000;0.7098;1.5234;
-85.5000;0.7131;1.5281;
-85.2000;0.7147;1.5328;
-84.9000;0.7139;1.5328;
-84.6000;0.7123;1.5234;
-84.3000;0.7123;1.5164;
-84.0000;0.7139;1.5258;
-83.7000;0.7163;1.5351;
-83.4000;0.7139;1.5328;
-83.1000;0.7139;1.5398;
-82.8000;0.7155;1.5422;
-82.5000;0.7147;1.5351;
-82.2000;0.7196;1.5375;
-81.9000;0.7147;1.5375;
-81.6000;0.7139;1.5281;
-81.3000;0.7139;1.5258;
-81.0000;0.7155;1.5328;
-80.7000;0.7147;1.5211;
-80.4000;0.7131;1.5187;
-80.1000;0.7212;1.5375;
-79.8000;0.7147;1.5234;
-79.5000;0.7171;1.5328;
-79.2000;0.7196;1.5469;
-78.9000;0.7131;1.5351;
-78.6000;0.7131;1.5351;
-78.3000;0.7204;1.5516;
-78.0000;0.7147;1.5375;
-77.7000;0.7139;1.5375;
-77.4000;0.7171;1.5492;
-77.1000;0.7179;1.5492;
-76.8000;0.7147;1.5398;
-76.5000;0.7147;1.5422;
-76.2000;0.7139;1.5445;
-75.9000;0.7188;1.5586;
-75.6000;0.7106;1.5328;
-75.3000;0.7106;1.5281;
-75.0000;0.7155;1.5328;
-74.7000;0.7155;1.5351;
-74.4000;0.7139;1.5328;
-74.1000;0.7139;1.5351;
-73.8000;0.7155;1.5375;
-73.5000;0.7139;1.5328;
-73.2000;0.7139;1.5351;
-72.9000;0.7131;1.5375;
-72.6000;0.7155;1.5492;
-72.3000;0.7114;1.5422;
-72.0000;0.7139;1.5375;
-71.7000;0.7123;1.5328;
-71.4000;0.7131;1.5304;
-71.1000;0.7139;1.5281;
-70.8000;0.7131;1.5281;
-70.5000;0.7139;1.5304;
-70.2000;0.7139;1.5398;
-69.9000;0.7139;1.5492;
-69.6000;0.7131;1.5398;
-69.3000;0.7131;1.5375;
-69.0000;0.7114;1.5351;
-68.7000;0.7139;1.5375;
-68.4000;0.7123;1.5328;
-68.1000;0.7147;1.5422;
-67.8000;0.7131;1.5422;
-67.5000;0.7139;1.5492;
-67.2000;0.7131;1.5586;
-66.9000;0.7147;1.5563;
-66.6000;0.7139;1.5539;
-66.3000;0.7131;1.5469;
-66.0000;0.7139;1.5492;
-65.7000;0.7155;1.5516;
-65.4000;0.7147;1.5422;
-65.1000;0.7131;1.5351;
-64.8000;0.7147;1.5445;
-64.5000;0.7155;1.5492;
-64.2000;0.7204;1.5633;
-63.9000;0.7155;1.5586;
-63.6000;0.7057;1.5328;
-63.3000;0.7139;1.5469;
-63.0000;0.7139;1.5422;
-62.7000;0.7163;1.5539;
-62.4000;0.7106;1.5516;
-62.1000;0.7074;1.5351;
-61.8000;0.7163;1.5516;
-61.5000;0.7163;1.5445;
-61.2000;0.7114;1.5398;
-60.9000;0.7131;1.5422;
-60.6000;0.7155;1.5351;
-60.3000;0.7123;1.5281;
-60.0000;0.7139;1.5351;
-59.7000;0.7147;1.5375;
-59.4000;0.7155;1.5351;
-59.1000;0.7155;1.5398;
-58.8000;0.7139;1.5492;
-58.5000;0.7131;1.5492;
-58.2000;0.7025;1.5187;
-57.9000;0.7123;1.5539;
-57.6000;0.7163;1.5633;
-57.3000;0.7139;1.5586;
-57.0000;0.7147;1.5539;
-56.7000;0.7204;1.5539;
-56.4000;0.7171;1.5516;
-56.1000;0.7139;1.5469;
-55.8000;0.7114;1.5375;
-55.5000;0.7179;1.5469;
-55.2000;0.7147;1.5492;
-54.9000;0.7123;1.5469;
-54.6000;0.7179;1.5539;
-54.3000;0.7139;1.5398;
-54.0000;0.7147;1.5492;
-53.7000;0.7131;1.5422;
-53.4000;0.7139;1.5375;
-53.1000;0.7123;1.5351;
-52.8000;0.7147;1.5422;
-52.5000;0.7131;1.5328;
-52.2000;0.7139;1.5258;
-51.9000;0.7139;1.5258;
-51.6000;0.7131;1.5304;
-51.3000;0.7139;1.5351;
-51.0000;0.7139;1.5328;
-50.7000;0.7139;1.5328;
-50.4000;0.7139;1.5328;
-50.1000;0.7147;1.5398;
-49.8000;0.7147;1.5398;
-49.5000;0.7139;1.5351;
-49.2000;0.7131;1.5351;
-48.9000;0.7057;1.5211;
-48.6000;0.7131;1.5445;
-48.3000;0.7123;1.5469;
-48.0000;0.7139;1.5516;
-47.7000;0.7114;1.5445;
-47.4000;0.7139;1.5492;
-47.1000;0.7131;1.5469;
-46.8000;0.7147;1.5539;
-46.5000;0.7106;1.5445;
-46.2000;0.7147;1.5539;
-45.9000;0.7082;1.5398;
-45.6000;0.7253;1.5844;
-45.3000;0.7098;1.5516;
-45.0000;0.7163;1.5633;
-44.7000;0.7155;1.5586;
-44.4000;0.7147;1.5633;
-44.1000;0.7139;1.5680;
-43.8000;0.7139;1.5610;
-43.5000;0.7147;1.5539;
-43.2000;0.7123;1.5469;
-42.9000;0.7139;1.5539;
-42.6000;0.7123;1.5469;
-42.3000;0.7147;1.5492;
-42.0000;0.7106;1.5445;
-41.7000;0.7139;1.5516;
-41.4000;0.7139;1.5586;
-41.1000;0.7147;1.5563;
-40.8000;0.7147;1.5516;
-40.5000;0.7147;1.5492;
-40.2000;0.7074;1.5328;
-39.9000;0.7155;1.5586;
-39.6000;0.7155;1.5492;
-39.3000;0.7139;1.5422;
-39.0000;0.7147;1.5469;
-38.7000;0.7123;1.5422;
-38.4000;0.7131;1.5469;
-38.1000;0.7139;1.5492;
-37.8000;0.7163;1.5422;
-37.5000;0.7123;1.5211;
-37.2000;0.7131;1.5281;
-36.9000;0.7131;1.5375;
-36.6000;0.7114;1.5328;
-36.3000;0.7147;1.5422;
-36.0000;0.7261;1.5610;
-35.7000;0.7139;1.5328;
-35.4000;0.7139;1.5281;
-35.1000;0.7131;1.5281;
-34.8000;0.7147;1.5351;
-34.5000;0.7114;1.5351;
-34.2000;0.7139;1.5351;
-33.9000;0.7139;1.5328;
-33.6000;0.7025;1.5117;
-33.3000;0.7147;1.5469;
-33.0000;0.7066;1.5258;
-32.7000;0.7139;1.5492;
-32.4000;0.7147;1.5516;
-32.1000;0.7155;1.5422;
-31.8000;0.7139;1.5281;
-31.5000;0.7139;1.5258;
-31.2000;0.7139;1.5281;
-30.9000;0.7147;1.5375;
-30.6000;0.7179;1.5492;
-30.3000;0.7139;1.5492;
-30.0000;0.7131;1.5469;
-29.7000;0.7155;1.5469;
-29.4000;0.7147;1.5445;
-29.1000;0.7155;1.5422;
-28.8000;0.7147;1.5469;
-28.5000;0.7253;1.5727;
-28.2000;0.7171;1.5516;
-27.9000;0.7131;1.5422;
-27.6000;0.7082;1.5211;
-27.3000;0.7131;1.5304;
-27.0000;0.7147;1.5375;
-26.7000;0.7147;1.5375;
-26.4000;0.7179;1.5469;
-26.1000;0.7139;1.5398;
-25.8000;0.7139;1.5422;
-25.5000;0.7147;1.5469;
-25.2000;0.7131;1.5445;
-24.9000;0.7123;1.5375;
-24.6000;0.7139;1.5351;
-24.3000;0.7139;1.5281;
-24.0000;0.7155;1.5304;
-23.7000;0.7131;1.5304;
-23.4000;0.7114;1.5187;
-23.1000;0.7147;1.5258;
-22.8000;0.7131;1.5234;
-22.5000;0.7123;1.5258;
-22.2000;0.7147;1.5328;
-21.9000;0.7123;1.5211;
-21.6000;0.7147;1.5328;
-21.3000;0.7139;1.5375;
-21.0000;0.7123;1.5375;
-20.7000;0.7114;1.5351;
-20.4000;0.7123;1.5375;
-20.1000;0.7106;1.5328;
-19.8000;0.7106;1.5304;
-19.5000;0.7123;1.5375;
-19.2000;0.7139;1.5422;
-18.9000;0.7131;1.5328;
-18.6000;0.7123;1.5234;
-18.3000;0.7131;1.5234;
-18.0000;0.7106;1.5187;
-17.7000;0.7131;1.5187;
-17.4000;0.7139;1.5187;
-17.1000;0.7131;1.5140;
-16.8000;0.7123;1.5093;
-16.5000;0.7139;1.5117;
-16.2000;0.7155;1.5093;
-15.9000;0.7131;1.5093;
-15.6000;0.7123;1.5117;
-15.3000;0.7131;1.5140;
-15.0000;0.7123;1.5093;
-14.7000;0.7123;1.5093;
-14.4000;0.7139;1.5093;
-14.1000;0.7147;1.5070;
-13.8000;0.7147;1.5046;
-13.5000;0.7009;1.4765;
-13.2000;0.7277;1.5539;
-12.9000;0.7131;1.5093;
-12.6000;0.7066;1.4859;
-12.3000;0.7131;1.5117;
-12.0000;0.7147;1.5164;
-11.7000;0.7155;1.5140;
-11.4000;0.7131;1.5023;
-11.1000;0.7139;1.5093;
-10.8000;0.7163;1.5187;
-10.5000;0.7131;1.5328;
-10.2000;0.7155;1.5304;
-9.9000;0.7131;1.5281;
-9.6000;0.7131;1.5304;
-9.3000;0.7131;1.5328;
-9.0000;0.7139;1.5258;
-8.7000;0.7155;1.5281;
-8.4000;0.7123;1.5281;
-8.1000;0.7139;1.5211;
-7.8000;0.7228;1.5516;
-7.5000;0.7155;1.5304;
-7.2000;0.7131;1.5328;
-6.9000;0.7131;1.5351;
-6.6000;0.7163;1.5398;
-6.3000;0.7074;1.5211;
-6.0000;0.7131;1.5258;
-5.7000;0.7139;1.5351;
-5.4000;0.7155;1.5304;
-5.1000;0.7139;1.5328;
-4.8000;0.7236;1.5539;
-4.5000;0.7147;1.5304;
-4.2000;0.7123;1.5164;
-3.9000;0.7131;1.5164;
-3.6000;0.7163;1.5234;
-3.3000;0.7131;1.5211;
-3.0000;0.7131;1.5187;
-2.7000;0.7139;1.5258;
-2.4000;0.7139;1.5281;
-2.1000;0.7123;1.5328;
-1.8000;0.7139;1.5398;
-1.5000;0.7147;1.5304;
-1.2000;0.7131;1.5211;
-0.9000;0.7196;1.5375;
-0.6000;0.7131;1.5211;
-0.3000;0.7131;1.5211;
0.0000;0.7131;1.5211;
0.3000;0.7196;1.5211;
0.6000;0.7139;1.5281;
0.9000;0.7220;1.5633;
1.2000;0.7155;1.5633;
1.5000;0.7236;1.6079;
1.8000;0.7253;1.6384;
2.1000;0.7236;1.6455;
2.4000;0.7318;1.6807;
2.7000;0.7277;1.6760;
3.0000;0.7285;1.6877;
3.3000;0.7293;1.7042;
3.6000;0.7302;1.7135;
3.9000;0.7293;1.7182;
4.2000;0.7310;1.7229;
4.5000;0.7318;1.7276;
4.8000;0.7342;1.7370;
5.1000;0.7310;1.7300;
5.4000;0.7326;1.7394;
5.7000;0.7302;1.7323;
6.0000;0.7302;1.7347;
6.3000;0.7318;1.7464;
6.6000;0.7318;1.7441;
6.9000;0.7253;1.7253;
7.2000;0.7277;1.7323;
7.5000;0.7318;1.7464;
7.8000;0.7399;1.7605;
8.1000;0.7326;1.7464;
8.4000;0.7236;1.7300;
8.7000;0.7318;1.7464;
9.0000;0.7342;1.7511;
9.3000;0.7359;1.7605;
9.6000;0.7350;1.7441;
9.9000;0.7334;1.7441;
10.2000;0.7399;1.7581;
10.5000;0.7350;1.7300;
10.8000;0.7342;1.7206;
11.1000;0.7326;1.7182;
11.4000;0.7334;1.7182;
11.7000;0.7350;1.7182;
12.0000;0.7342;1.7112;
12.3000;0.7342;1.7088;
12.6000;0.7334;1.7042;
12.9000;0.7342;1.7042;
13.2000;0.7334;1.7042;
13.5000;0.7326;1.7018;
13.8000;0.7326;1.7018;
14.1000;0.7350;1.7018;
14.4000;0.7383;1.7159;
14.7000;0.7285;1.6948;
15.0000;0.7342;1.7088;
15.3000;0.7350;1.7112;
15.6000;0.7350;1.7159;
15.9000;0.7293;1.7042;
16.2000;0.7318;1.7065;
16.5000;0.7310;1.7018;
16.8000;0.7285;1.6995;
17.1000;0.7342;1.7159;
17.4000;0.7367;1.7206;
17.7000;0.7342;1.7135;
18.0000;0.7359;1.7135;
18.3000;0.7334;1.7182;
18.6000;0.7342;1.7206;
18.9000;0.7350;1.7229;
19.2000;0.7359;1.7253;
19.5000;0.7375;1.7347;
19.8000;0.7350;1.7253;
20.1000;0.7359;1.7253;
20.4000;0.7318;1.7182;
20.7000;0.7326;1.7159;
21.0000;0.7359;1.7182;
21.3000;0.7334;1.7135;
21.6000;0.7359;1.7159;
21.9000;0.7367;1.7088;
22.2000;0.7367;1.7042;
22.5000;0.7334;1.6971;
22.8000;0.7342;1.7018;
23.1000;0.7375;1.7065;
23.4000;0.7342;1.6948;
23.7000;0.7359;1.7088;
24.0000;0.7359;1.7229;
24.3000;0.7375;1.7229;
24.6000;0.7375;1.7229;
24.9000;0.7359;1.7135;
25.2000;0.7359;1.7182;
25.5000;0.7359;1.7229;
25.8000;0.7367;1.7206;
26.1000;0.7359;1.7135;
26.4000;0.7375;1.7159;
26.7000;0.7367;1.7182;
27.0000;0.7359;1.7088;
27.3000;0.7269;1.6901;
27.6000;0.7367;1.7206;
27.9000;0.7350;1.7182;
28.2000;0.7334;1.7088;
28.5000;0.7367;1.7229;
28.8000;0.7367;1.7229;
29.1000;0.7367;1.7253;
29.4000;0.7399;1.7370;
29.7000;0.7367;1.7323;
30.0000;0.7375;1.7417;
30.3000;0.7375;1.7417;
30.6000;0.7367;1.7394;
30.9000;0.7367;1.7441;
31.2000;0.7342;1.7417;
31.5000;0.7375;1.7581;
31.8000;0.7350;1.7628;
32.1000;0.7367;1.7581;
32.4000;0.7424;1.7628;
32.7000;0.7367;1.7441;
33.0000;0.7342;1.7347;
33.3000;0.7350;1.7441;
33.6000;0.7359;1.7441;
33.9000;0.7350;1.7511;
34.2000;0.7359;1.7464;
34.5000;0.7350;1.7441;
34.8000;0.7375;1.7534;
35.1000;0.7318;1.7370;
35.4000;0.7326;1.7323;
35.7000;0.7350;1.7370;
36.0000;0.7383;1.7511;
36.3000;0.7334;1.7370;
36.6000;0.7375;1.7487;
36.9000;0.7375;1.7487;
37.2000;0.7391;1.7534;
37.5000;0.7318;1.7370;
37.8000;0.7375;1.7534;
38.1000;0.7359;1.7441;
38.4000;0.7367;1.7441;
38.7000;0.7432;1.7605;
39.0000;0.7359;1.7417;
39.3000;0.7302;1.7323;
39.6000;0.7367;1.7464;
39.9000;0.7375;1.7511;
40.2000;0.7359;1.7464;
40.5000;0.7375;1.7628;
40.8000;0.7342;1.7558;
41.1000;0.7375;1.7675;
41.4000;0.7367;1.7628;
41.7000;0.7367;1.7605;
42.0000;0.7383;1.7534;
42.3000;0.7367;1.7417;
42.6000;0.7367;1.7394;
42.9000;0.7367;1.7394;
43.2000;0.7375;1.7487;
43.5000;0.7375;1.7511;
43.8000;0.7359;1.7441;
44.1000;0.7359;1.7487;
44.4000;0.7350;1.7417;
44.7000;0.7359;1.7441;
45.0000;0.7367;1.7487;
45.3000;0.7391;1.7464;
45.6000;0.7359;1.7417;
45.9000;0.7359;1.7487;
46.2000;0.7391;1.7605;
46.5000;0.7367;1.7628;
46.8000;0.7375;1.7558;
47.1000;0.7375;1.7605;
47.4000;0.7359;1.7511;
47.7000;0.7350;1.7558;
48.0000;0.7383;1.7558;
48.3000;0.7375;1.7487;
48.6000;0.7367;1.7534;
48.9000;0.7383;1.7511;
49.2000;0.7367;1.7441;
49.5000;0.7359;1.7323;
49.8000;0.7342;1.7253;
50.1000;0.7359;1.7300;
50.4000;0.7375;1.7276;
50.7000;0.7375;1.7276;
51.0000;0.7359;1.7206;
51.3000;0.7367;1.7300;
51.6000;0.7367;1.7323;
51.9000;0.7383;1.7370;
52.2000;0.7334;1.7394;
52.5000;0.7367;1.7394;
52.8000;0.7359;1.7323;
53.1000;0.7383;1.7394;
53.4000;0.7375;1.7323;
53.7000;0.7375;1.7276;
54.0000;0.7326;1.7182;
54.3000;0.7375;1.7276;
54.6000;0.7367;1.7253;
54.9000;0.7359;1.7206;
55.2000;0.7424;1.7370;
55.5000;0.7367;1.7276;
55.8000;0.7359;1.7276;
56.1000;0.7383;1.7347;
56.4000;0.7350;1.7276;
56.7000;0.7359;1.7347;
57.0000;0.7359;1.7370;
57.3000;0.7359;1.7417;
57.6000;0.7350;1.7417;
57.9000;0.7367;1.7417;
58.2000;0.7367;1.7347;
58.5000;0.7383;1.7300;
58.8000;0.7350;1.7182;
59.1000;0.7334;1.7135;
59.4000;0.7334;1.7159;
59.7000;0.7350;1.7276;
60.0000;0.7367;1.7417;
60.3000;0.7350;1.7347;
60.6000;0.7375;1.7417;
60.9000;0.7367;1.7370;
61.2000;0.7359;1.7394;
61.5000;0.7359;1.7394;
61.8000;0.7383;1.7370;
62.1000;0.7359;1.7347;
62.4000;0.7350;1.7370;
62.7000;0.7367;1.7347;
63.0000;0.7359;1.7300;
63.3000;0.7375;1.7253;
63.6000;0.7359;1.7276;
63.9000;0.7359;1.7276;
64.2000;0.7367;1.7347;
64.5000;0.7359;1.7441;
64.8000;0.7375;1.7487;
65.1000;0.7359;1.7511;
65.4000;0.7342;1.7558;
65.7000;0.7350;1.7581;
66.0000;0.7359;1.7628;
66.3000;0.7342;1.7534;
66.6000;0.7350;1.7558;
66.9000;0.7375;1.7652;
67.2000;0.7285;1.7487;
67.5000;0.7342;1.7722;
67.8000;0.7359;1.7699;
68.1000;0.7350;1.7558;
68.4000;0.7359;1.7511;
68.7000;0.7367;1.7464;
69.0000;0.7350;1.7417;
69.3000;0.7367;1.7464;
69.6000;0.7375;1.7534;
69.9000;0.7350;1.7511;
70.2000;0.7350;1.7534;
70.5000;0.7359;1.7558;
70.8000;0.7350;1.7652;
71.1000;0.7375;1.7675;
71.4000;0.7350;1.7581;
71.7000;0.7359;1.7558;
72.0000;0.7367;1.7534;
72.3000;0.7359;1.7511;
72.6000;0.7367;1.7511;
72.9000;0.7359;1.7417;
73.2000;0.7359;1.7417;
73.5000;0.7318;1.7323;
73.8000;0.7383;1.7441;
74.1000;0.7350;1.7417;
74.4000;0.7334;1.7347;
74.7000;0.7375;1.7417;
75.0000;0.7375;1.7370;
75.3000;0.7359;1.7347;
75.6000;0.7367;1.7300;
75.9000;0.7342;1.7370;
76.2000;0.7350;1.7370;
76.5000;0.7350;1.7394;
76.8000;0.7432;1.7581;
77.1000;0.7342;1.7347;
77.4000;0.7359;1.7441;
77.7000;0.7359;1.7417;
78.0000;0.7375;1.7394;
78.3000;0.7375;1.7323;
78.6000;0.7359;1.7300;
78.9000;0.7367;1.7229;
79.2000;0.7350;1.7182;
79.5000;0.7334;1.7182;
79.8000;0.7359;1.7300;
80.1000;0.7367;1.7347;
80.4000;0.7359;1.7417;
80.7000;0.7359;1.7394;
81.0000;0.7359;1.7347;
81.3000;0.7350;1.7417;
81.6000;0.7399;1.7487;
81.9000;0.7359;1.7464;
82.2000;0.7350;1.7417;
82.5000;0.7350;1.7417;
82.8000;0.7350;1.7370;
83.1000;0.7350;1.7323;
83.4000;0.7350;1.7417;
83.7000;0.7367;1.7464;
84.0000;0.7359;1.7487;
84.3000;0.7359;1.7441;
84.6000;0.7375;1.7464;
84.9000;0.7350;1.7441;
85.2000;0.7383;1.7534;
85.5000;0.7375;1.7511;
85.8000;0.7367;1.7511;
86.1000;0.7367;1.7487;
86.4000;0.7399;1.7581;
86.7000;0.7367;1.7511;
87.0000;0.7359;1.7534;
87.3000;0.7342;1.7464;
87.6000;0.7359;1.7581;
87.9000;0.7359;1.7605;
88.2000;0.7350;1.7652;
88.5000;0.7432;1.7933;
88.8000;0.7334;1.7699;
89.1000;0.7342;1.7699;
89.4000;0.7342;1.7675;
89.7000;0.7334;1.7652;
90.0000;0.7326;1.7558;
90.3000;0.7367;1.7605;
90.6000;0.7350;1.7605;
90.9000;0.7350;1.7652;
91.2000;0.7342;1.7628;
91.5000;0.7359;1.7652;
91.8000;0.7359;1.7605;
92.1000;0.7342;1.7534;
92.4000;0.7350;1.7487;
92.7000;0.7359;1.7511;
93.0000;0.7367;1.7534;
93.3000;0.7342;1.7394;
93.6000;0.7359;1.7394;
93.9000;0.7342;1.7323;
94.2000;0.7359;1.7370;
94.5000;0.7342;1.7347;
94.8000;0.7359;1.7276;
95.1000;0.7375;1.7323;
95.4000;0.7367;1.7417;
95.7000;0.7383;1.7417;
96.0000;0.7350;1.7464;
96.3000;0.7350;1.7511;
96.6000;0.7350;1.7511;
96.9000;0.7375;1.7652;
97.2000;0.7334;1.7558;
97.5000;0.7334;1.7534;
97.8000;0.7350;1.7534;
98.1000;0.7359;1.7605;
98.4000;0.7342;1.7511;
98.7000;0.7342;1.7441;
99.0000;0.7342;1.7370;
99.3000;0.7359;1.7347;
99.6000;0.7350;1.7394;
99.9000;0.7334;1.7394;
100.2000;0.7342;1.7464;
100.5000;0.7359;1.7464;
100.8000;0.7350;1.7417;
101.1000;0.7350;1.7534;
101.4000;0.7342;1.7487;
101.7000;0.7350;1.7487;
102.0000;0.7359;1.7511;
102.3000;0.7342;1.7581;
102.6000;0.7302;1.7605;
102.9000;0.7310;1.7511;
103.2000;0.7342;1.7534;
103.5000;0.7350;1.7487;
103.8000;0.7342;1.7487;
104.1000;0.7293;1.7417;
104.4000;0.7359;1.7605;
104.7000;0.7350;1.7628;
105.0000;0.7359;1.7699;
105.3000;0.7293;1.7581;
105.6000;0.7342;1.7722;
105.9000;0.7359;1.7722;
106.2000;0.7350;1.7769;
106.5000;0.7350;1.7699;
106.8000;0.7342;1.7675;
107.1000;0.7350;1.7605;
107.4000;0.7334;1.7534;
107.7000;0.7359;1.7464;
108.0000;0.7350;1.7464;
108.3000;0.7359;1.7417;
108.6000;0.7318;1.7347;
108.9000;0.7334;1.7441;
109.2000;0.7334;1.7464;
109.5000;0.7350;1.7441;
109.8000;0.7342;1.7417;
110.1000;0.7334;1.7300;
110.4000;0.7269;1.7229;
110.7000;0.7359;1.7417;
111.0000;0.7350;1.7441;
111.3000;0.7334;1.7417;
111.6000;0.7342;1.7394;
111.9000;0.7342;1.7323;
112.2000;0.7359;1.7347;
112.5000;0.7375;1.7441;
112.8000;0.7359;1.7370;
113.1000;0.7334;1.7370;
113.4000;0.7302;1.7229;
113.7000;0.7342;1.7347;
114.0000;0.7350;1.7417;
114.3000;0.7342;1.7394;
114.6000;0.7342;1.7323;
114.9000;0.7342;1.7323;
115.2000;0.7350;1.7323;
115.5000;0.7310;1.7300;
115.8000;0.7334;1.7370;
116.1000;0.7359;1.7464;
116.4000;0.7342;1.7464;
116.7000;0.7342;1.7487;
117.0000;0.7334;1.7487;
117.3000;0.7318;1.7417;
117.6000;0.7359;1.7581;
117.9000;0.7350;1.7511;
118.2000;0.7350;1.7464;
118.5000;0.7359;1.7487;
118.8000;0.7359;1.7534;
119.1000;0.7367;1.7628;
119.4000;0.7359;1.7699;
119.7000;0.7342;1.7652;
120.0000;0.7342;1.7534;
120.3000;0.7342;1.7605;
120.6000;0.7326;1.7464;
120.9000;0.7342;1.7441;
121.2000;0.7350;1.7394;
121.5000;0.7375;1.7511;
121.8000;0.7342;1.7464;
122.1000;0.7383;1.7534;
122.4000;0.7350;1.7464;
122.7000;0.7367;1.7534;
123.0000;0.7342;1.7558;
123.3000;0.7342;1.7534;
123.6000;0.7350;1.7511;
123.9000;0.7359;1.7581;
124.2000;0.7407;1.7699;
124.5000;0.7383;1.7675;
124.8000;0.7375;1.7652;
125.1000;0.7334;1.7581;
125.4000;0.7375;1.7558;
125.7000;0.7350;1.7441;
126.0000;0.7334;1.7300;
126.3000;0.7383;1.7441;
126.6000;0.7391;1.7347;
126.9000;0.7334;1.7206;
127.2000;0.7326;1.7253;
127.5000;0.7399;1.7441;
127.8000;0.7399;1.7417;
128.1000;0.7350;1.7229;
128.4000;0.7342;1.7206;
128.7000;0.7367;1.7347;
129.0000;0.7350;1.7300;
129.3000;0.7359;1.7347;
129.6000;0.7293;1.7135;
129.9000;0.7342;1.7229;
130.2000;0.7342;1.7253;
130.5000;0.7334;1.7253;
130.8000;0.7334;1.7276;
131.1000;0.7399;1.7487;
131.4000;0.7269;1.7159;
131.7000;0.7334;1.7347;
132.0000;0.7350;1.7464;
132.3000;0.7334;1.7511;
132.6000;0.7407;1.7746;
132.9000;0.7334;1.7464;
133.2000;0.7326;1.7394;
133.5000;0.7326;1.7323;
133.8000;0.7334;1.7300;
134.1000;0.7350;1.7300;
134.4000;0.7212;1.6948;
134.7000;0.7367;1.7323;
135.0000;0.7342;1.7323;
135.3000;0.7342;1.7253;
135.6000;0.7350;1.7253;
135.9000;0.7342;1.7276;
136.2000;0.7342;1.7347;
136.5000;0.7359;1.7417;
136.8000;0.7334;1.7394;
137.1000;0.7334;1.7347;
137.4000;0.7342;1.7323;
137.7000;0.7334;1.7276;
138.0000;0.7350;1.7347;
138.3000;0.7253;1.7065;
138.6000;0.7334;1.7276;
138.9000;0.7318;1.7276;
139.2000;0.7326;1.7347;
139.5000;0.7342;1.7347;
139.8000;0.7334;1.7276;
140.1000;0.7326;1.7229;
140.4000;0.7310;1.7182;
140.7000;0.7334;1.7323;
141.0000;0.7350;1.7323;
141.3000;0.7334;1.7229;
141.6000;0.7342;1.7347;
141.9000;0.7342;1.7370;
142.2000;0.7342;1.7370;
142.5000;0.7310;1.7253;
142.8000;0.7342;1.7394;
143.1000;0.7367;1.7441;
143.4000;0.7350;1.7394;
143.7000;0.7334;1.7323;
144.0000;0.7318;1.7323;
144.3000;0.7350;1.7394;
144.6000;0.7334;1.7347;
144.9000;0.7342;1.7370;
145.2000;0.7350;1.7347;
145.5000;0.7302;1.7159;
145.8000;0.7448;1.7487;
146.1000;0.7342;1.7229;
146.4000;0.7367;1.7182;
146.7000;0.7302;1.7065;
147.0000;0.7326;1.7112;
147.3000;0.7350;1.7253;
147.6000;0.7326;1.7323;
147.9000;0.7318;1.7276;
148.2000;0.7334;1.7347;
148.5000;0.7302;1.7135;
148.8000;0.7350;1.7323;
149.1000;0.7318;1.7253;
149.4000;0.7350;1.7253;
149.7000;0.7334;1.7276;
150.0000;0.7383;1.7394;
150.3000;0.7391;1.7347;
150.6000;0.7302;1.7088;
150.9000;0.7383;1.7253;
151.2000;0.7350;1.7253;
151.5000;0.7350;1.7253;
151.8000;0.7391;1.7323;
152.1000;0.7367;1.7182;
152.4000;0.7367;1.7182;
152.7000;0.7342;1.7135;
153.0000;0.7342;1.7112;
153.3000;0.7342;1.7159;
153.6000;0.7326;1.7088;
153.9000;0.7302;1.7112;
154.2000;0.7342;1.7182;
154.5000;0.7334;1.7159;
154.8000;0.7326;1.7229;
155.1000;0.7318;1.7206;
155.4000;0.7326;1.7206;
155.7000;0.7334;1.7253;
156.0000;0.7350;1.7323;
156.3000;0.7350;1.7347;
156.6000;0.7334;1.7347;
156.9000;0.7334;1.7276;
157.2000;0.7342;1.7347;
157.5000;0.7318;1.7394;
157.8000;0.7334;1.7323;
158.1000;0.7326;1.7182;
158.4000;0.7310;1.7112;
158.7000;0.7326;1.7135;
159.0000;0.7318;1.7229;
159.3000;0.7310;1.7206;
159.6000;0.7326;1.7253;
159.9000;0.7334;1.7182;
160.2000;0.7334;1.7206;
160.5000;0.7342;1.7300;
160.8000;0.7326;1.7253;
161.1000;0.7334;1.7323;
161.4000;0.7342;1.7253;
161.7000;0.7342;1.7276;
162.0000;0.7350;1.7394;
162.3000;0.7334;1.7347;
162.6000;0.7342;1.7394;
162.9000;0.7334;1.7347;
163.2000;0.7334;1.7370;
163.5000;0.7326;1.7347;
163.8000;0.7342;1.7323;
164.1000;0.7326;1.7300;
164.4000;0.7318;1.7300;
164.7000;0.7326;1.7323;
165.0000;0.7342;1.7300;
165.3000;0.7334;1.7370;
165.6000;0.7350;1.7347;
165.9000;0.7342;1.7253;
166.2000;0.7302;1.7229;
166.5000;0.7342;1.7206;
166.8000;0.7342;1.7253;
167.1000;0.7326;1.7300;
167.4000;0.7367;1.7441;
167.7000;0.7334;1.7441;
168.0000;0.7350;1.7487;
168.3000;0.7342;1.7417;
168.6000;0.7342;1.7370;
168.9000;0.7318;1.7347;
169.2000;0.7334;1.7370;
169.5000;0.7293;1.7323;
169.8000;0.7326;1.7323;
170.1000;0.7318;1.7300;
170.4000;0.7212;1.7135;
170.7000;0.7334;1.7394;
171.0000;0.7277;1.7159;
171.3000;0.7350;1.7370;
171.6000;0.7326;1.7182;
171.9000;0.7302;1.7088;
172.2000;0.7310;1.7159;
172.5000;0.7334;1.7347;
172.8000;0.7334;1.7347;
173.1000;0.7326;1.7347;
173.4000;0.7285;1.7229;
173.7000;0.7334;1.7417;
174.0000;0.7326;1.7441;
174.3000;0.7318;1.7370;
174.6000;0.7359;1.7370;
174.9000;0.7342;1.7417;
175.2000;0.7350;1.7347;
175.5000;0.7342;1.7276;
175.8000;0.7350;1.7276;
176.1000;0.7334;1.7300;
176.4000;0.7326;1.7323;
176.7000;0.7318;1.7370;
177.0000;0.7350;1.7417;
177.3000;0.7342;1.7347;
177.6000;0.7342;1.7323;
177.9000;0.7342;1.7370;
178.2000;0.7342;1.7417;
178.5000;0.7326;1.7417;
178.8000;0.7342;1.7370;
179.1000;0.7342;1.7394;
179.4000;0.7334;1.7394;
179.7000;0.7326;1.7394;
180.0000;0.7334;1.7464;
180.3000;0.7334;1.7511;
180.6000;0.7334;1.7511;
180.9000;0.7334;1.7534;
181.2000;0.7326;1.7534;
181.5000;0.7326;1.7441;
181.8000;0.7350;1.7534;
182.1000;0.7334;1.7464;
182.4000;0.7326;1.7464;
182.7000;0.7342;1.7511;
183.0000;0.7342;1.7487;
183.3000;0.7310;1.7394;
183.6000;0.7318;1.7300;
183.9000;0.7334;1.7276;
184.2000;0.7326;1.7276;
184.5000;0.7334;1.7253;
184.8000;0.7342;1.7276;
185.1000;0.7350;1.7370;
185.4000;0.7334;1.7229;
185.7000;0.7342;1.7323;
186.0000;0.7334;1.7300;
186.3000;0.7326;1.7347;
186.6000;0.7302;1.7300;
186.9000;0.7326;1.7323;
187.2000;0.7334;1.7370;
187.5000;0.7432;1.7534;
187.8000;0.7318;1.7323;
188.1000;0.7334;1.7370;
188.4000;0.7350;1.7417;
188.7000;0.7326;1.7370;
189.0000;0.7342;1.7417;
189.3000;0.7310;1.7394;
189.6000;0.7342;1.7464;
189.9000;0.7342;1.7441;
190.2000;0.7350;1.7347;
190.5000;0.7456;1.7699;
190.8000;0.7326;1.7581;
191.1000;0.7334;1.7628;
191.4000;0.7334;1.7558;
191.7000;0.7326;1.7558;
192.0000;0.7326;1.7511;
192.3000;0.7342;1.7558;
192.6000;0.7334;1.7581;
192.9000;0.7326;1.7511;
193.2000;0.7334;1.7534;
193.5000;0.7342;1.7534;
193.8000;0.7399;1.7652;
194.1000;0.7326;1.7511;
194.4000;0.7326;1.7511;
194.7000;0.7302;1.7417;
195.0000;0.7253;1.7276;
195.3000;0.7334;1.7487;
195.6000;0.7326;1.7464;
195.9000;0.7285;1.7370;
196.2000;0.7318;1.7487;
196.5000;0.7326;1.7487;
196.8000;0.7326;1.7464;
197.1000;0.7448;1.7652;
197.4000;0.7334;1.7417;
197.7000;0.7326;1.7441;
198.0000;0.7310;1.7417;
198.3000;0.7326;1.7511;
198.6000;0.7310;1.7394;
198.9000;0.7318;1.7347;
199.2000;0.7318;1.7347;
199.5000;0.7334;1.7300;
199.8000;0.7342;1.7347;
200.1000;0.7326;1.7394;
200.4000;0.7334;1.7487;
200.7000;0.7326;1.7511;
201.0000;0.7326;1.7534;
201.3000;0.7342;1.7534;
201.6000;0.7342;1.7581;
201.9000;0.7326;1.7511;
202.2000;0.7318;1.7534;
202.5000;0.7342;1.7652;
202.8000;0.7334;1.7628;
203.1000;0.7342;1.7605;
203.4000;0.7334;1.7581;
203.7000;0.7318;1.7581;
204.0000;0.7342;1.7558;
204.3000;0.7318;1.7487;
204.6000;0.7318;1.7441;
204.9000;0.7310;1.7394;
205.2000;0.7342;1.7441;
205.5000;0.7326;1.7417;
205.8000;0.7334;1.7417;
206.1000;0.7310;1.7394;
206.4000;0.7334;1.7487;
206.7000;0.7342;1.7534;
207.0000;0.7318;1.7464;
207.3000;0.7326;1.7605;
207.6000;0.7326;1.7534;
207.9000;0.7302;1.7441;
208.2000;0.7326;1.7464;
208.5000;0.7318;1.7487;
208.8000;0.7310;1.7370;
209.1000;0.7342;1.7417;
209.4000;0.7375;1.7487;
209.7000;0.7326;1.7417;
210.0000;0.7310;1.7441;
210.3000;0.7334;1.7511;
210.6000;0.7326;1.7581;
210.9000;0.7318;1.7558;
211.2000;0.7334;1.7652;
211.5000;0.7293;1.7628;
211.8000;0.7310;1.7652;
212.1000;0.7318;1.7699;
212.4000;0.7293;1.7699;
212.7000;0.7277;1.7652;
213.0000;0.7310;1.7816;
213.3000;0.7318;1.7793;
213.6000;0.7293;1.7746;
213.9000;0.7342;1.7793;
214.2000;0.7318;1.7722;
214.5000;0.7326;1.7746;
214.8000;0.7310;1.7652;
215.1000;0.7302;1.7628;
215.4000;0.7302;1.7652;
215.7000;0.7334;1.7746;
216.0000;0.7326;1.7628;
216.3000;0.7261;1.7441;
216.6000;0.7334;1.7605;
216.9000;0.7326;1.7487;
217.2000;0.7277;1.7347;
217.5000;0.7326;1.7511;
217.8000;0.7310;1.7464;
218.1000;0.7391;1.7746;
218.4000;0.7359;1.7605;
218.7000;0.7310;1.7511;
219.0000;0.7326;1.7464;
219.3000;0.7407;1.7581;
219.6000;0.7318;1.7323;
219.9000;0.7310;1.7347;
220.2000;0.7334;1.7441;
220.5000;0.7302;1.7417;
220.8000;0.7277;1.7534;
221.1000;0.7359;1.7675;
221.4000;0.7318;1.7511;
221.7000;0.7318;1.7511;
222.0000;0.7318;1.7605;
222.3000;0.7326;1.7675;
222.6000;0.7334;1.7746;
222.9000;0.7302;1.7581;
223.2000;0.7326;1.7652;
223.5000;0.7326;1.7628;
223.8000;0.7310;1.7558;
224.1000;0.7318;1.7558;
224.4000;0.7334;1.7581;
224.7000;0.7318;1.7534;
225.0000;0.7326;1.7511;
225.3000;0.7326;1.7534;
225.6000;0.7440;1.7746;
225.9000;0.7334;1.7487;
226.2000;0.7326;1.7534;
226.5000;0.7375;1.7652;
226.8000;0.7302;1.7628;
227.1000;0.7334;1.7652;
227.4000;0.7334;1.7652;
227.7000;0.7326;1.7558;
228.0000;0.7318;1.7605;
228.3000;0.7326;1.7605;
228.6000;0.7293;1.7558;
228.9000;0.7334;1.7675;
229.2000;0.7334;1.7628;
229.5000;0.7350;1.7722;
229.8000;0.7350;1.7699;
230.1000;0.7326;1.7534;
230.4000;0.7310;1.7511;
230.7000;0.7310;1.7487;
231.0000;0.7334;1.7487;
231.3000;0.7326;1.7487;
231.6000;0.7367;1.7581;
231.9000;0.7318;1.7558;
232.2000;0.7310;1.7534;
232.5000;0.7302;1.7487;
232.8000;0.7302;1.7487;
233.1000;0.7326;1.7558;
233.4000;0.7318;1.7487;
233.7000;0.7310;1.7511;
234.0000;0.7326;1.7534;
234.3000;0.7302;1.7511;
234.6000;0.7326;1.7581;
234.9000;0.7318;1.7511;
235.2000;0.7326;1.7558;
235.5000;0.7342;1.7558;
235.8000;0.7302;1.7394;
236.1000;0.7310;1.7417;
236.4000;0.7334;1.7487;
236.7000;0.7342;1.7652;
237.0000;0.7334;1.7558;
237.3000;0.7383;1.7628;
237.6000;0.7318;1.7487;
237.9000;0.7334;1.7464;
238.2000;0.7326;1.7487;
238.5000;0.7318;1.7464;
238.8000;0.7334;1.7534;
239.1000;0.7334;1.7487;
239.4000;0.7310;1.7534;
239.7000;0.7302;1.7464;
240.0000;0.7334;1.7464;
240.3000;0.7310;1.7487;
240.6000;0.7302;1.7394;
240.9000;0.7302;1.7417;
241.2000;0.7310;1.7464;
241.5000;0.7334;1.7511;
241.8000;0.7342;1.7511;
242.1000;0.7318;1.7511;
242.4000;0.7334;1.7558;
242.7000;0.7334;1.7581;
243.0000;0.7318;1.7534;
243.3000;0.7350;1.7487;
243.6000;0.7342;1.7534;
243.9000;0.7326;1.7417;
244.2000;0.7293;1.7394;
244.5000;0.7318;1.7487;
244.8000;0.7391;1.7746;
245.1000;0.7326;1.7511;
245.4000;0.7383;1.7628;
245.7000;0.7310;1.7441;
246.0000;0.7318;1.7511;
246.3000;0.7326;1.7534;
246.6000;0.7318;1.7534;
246.9000;0.7318;1.7534;
247.2000;0.7310;1.7534;
247.5000;0.7302;1.7558;
247.8000;0.7310;1.7534;
248.1000;0.7326;1.7511;
248.4000;0.7326;1.7534;
248.7000;0.7293;1.7441;
249.0000;0.7326;1.7534;
249.3000;0.7334;1.7534;
249.6000;0.7318;1.7394;
249.9000;0.7302;1.7394;
250.2000;0.7334;1.7441;
250.5000;0.7261;1.7370;
250.8000;0.7326;1.7605;
251.1000;0.7310;1.7581;
251.4000;0.7318;1.7628;
251.7000;0.7310;1.7605;
252.0000;0.7302;1.7675;
252.3000;0.7293;1.7605;
252.6000;0.7293;1.7628;
252.9000;0.7310;1.7605;
253.2000;0.7310;1.7558;
253.5000;0.7302;1.7558;
253.8000;0.7318;1.7534;
254.1000;0.7326;1.7558;
254.4000;0.7302;1.7581;
254.7000;0.7302;1.7534;
255.0000;0.7318;1.7511;
255.3000;0.7293;1.7464;
255.6000;0.7326;1.7558;
255.9000;0.7310;1.7487;
256.2000;0.7310;1.7511;
256.5000;0.7269;1.7487;
256.8000;0.7318;1.7675;
257.1000;0.7302;1.7699;
257.4000;0.7310;1.7722;
257.7000;0.7302;1.7699;
258.0000;0.7424;1.8027;
258.3000;0.7285;1.7722;
258.6000;0.7310;1.7699;
258.9000;0.7310;1.7605;
259.2000;0.7302;1.7534;
259.5000;0.7310;1.7511;
259.8000;0.7334;1.7487;
260.1000;0.7310;1.7370;
260.4000;0.7334;1.7534;
260.7000;0.7375;1.7675;
261.0000;0.7310;1.7511;
261.3000;0.7285;1.7441;
261.6000;0.7375;1.7605;
261.9000;0.7334;1.7487;
262.2000;0.7342;1.7558;
262.5000;0.7302;1.7558;
262.8000;0.7285;1.7511;
263.1000;0.7302;1.7487;
263.4000;0.7302;1.7487;
263.7000;0.7318;1.7511;
264.0000;0.7310;1.7347;
264.3000;0.7293;1.7370;
264.6000;0.7285;1.7347;
264.9000;0.7293;1.7323;
265.2000;0.7293;1.7347;
265.5000;0.7302;1.7394;
265.8000;0.7310;1.7511;
266.1000;0.7318;1.7558;
266.4000;0.7367;1.7699;
266.7000;0.7261;1.7417;
267.0000;0.7293;1.7417;
267.3000;0.7293;1.7394;
267.6000;0.7196;1.7159;
267.9000;0.7285;1.7370;
268.2000;0.7293;1.7417;
268.5000;0.7432;1.7722;
268.8000;0.7293;1.7370;
269.1000;0.7310;1.7417;
269.4000;0.7326;1.7441;
269.7000;0.7375;1.7534;
270.0000;0.7318;1.7394;
270.3000;0.7310;1.7417;
270.6000;0.7326;1.7441;
270.9000;0.7318;1.7441;
271.2000;0.7310;1.7417;
271.5000;0.7302;1.7417;
271.8000;0.7293;1.7464;
272.1000;0.7342;1.7558;
272.4000;0.7236;1.7370;
272.7000;0.7310;1.7558;
273.0000;0.7302;1.7558;
273.3000;0.7310;1.7699;
273.6000;0.7310;1.7746;
273.9000;0.7310;1.7581;
274.2000;0.7326;1.7605;
274.5000;0.7293;1.7558;
274.8000;0.7293;1.7628;
275.1000;0.7310;1.7675;
275.4000;0.7310;1.7675;
275.7000;0.7326;1.7652;
276.0000;0.7302;1.7675;
276.3000;0.7342;1.7699;
276.6000;0.7359;1.7769;
276.9000;0.7293;1.7534;
277.2000;0.7277;1.7511;
277.5000;0.7302;1.7511;
277.8000;0.7302;1.7441;
278.1000;0.7277;1.7464;
278.4000;0.7302;1.7558;
278.7000;0.7302;1.7558;
279.0000;0.7293;1.7441;
279.3000;0.7326;1.7464;
279.6000;0.7302;1.7370;
279.9000;0.7293;1.7370;
280.2000;0.7318;1.7417;
280.5000;0.7342;1.7487;
280.8000;0.7293;1.7441;
281.1000;0.7310;1.7394;
281.4000;0.7318;1.7347;
281.7000;0.7277;1.7253;
282.0000;0.7302;1.7370;
282.3000;0.7310;1.7370;
282.6000;0.7310;1.7370;
282.9000;0.7342;1.7511;
283.2000;0.7302;1.7417;
283.5000;0.7326;1.7534;
283.8000;0.7277;1.7441;
284.1000;0.7318;1.7417;
284.4000;0.7310;1.7441;
284.7000;0.7391;1.7652;
285.0000;0.7302;1.7558;
285.3000;0.7310;1.7605;
285.6000;0.7261;1.7558;
285.9000;0.7302;1.7605;
286.2000;0.7310;1.7581;
286.5000;0.7334;1.7628;
286.8000;0.7302;1.7581;
287.1000;0.7302;1.7652;
287.4000;0.7302;1.7628;
287.7000;0.7302;1.7628;
288.0000;0.7326;1.7534;
288.3000;0.7310;1.7511;
288.6000;0.7293;1.7441;
288.9000;0.7285;1.7417;
289.2000;0.7302;1.7417;
289.5000;0.7318;1.7464;
289.8000;0.7318;1.7370;
290.1000;0.7334;1.7487;
290.4000;0.7302;1.7581;
290.7000;0.7269;1.7534;
291.0000;0.7277;1.7534;
291.3000;0.7285;1.7605;
291.6000;0.7277;1.7581;
291.9000;0.7310;1.7699;
292.2000;0.7310;1.7769;
292.5000;0.7359;1.7863;
292.8000;0.7318;1.7675;
293.1000;0.7310;1.7628;
293.4000;0.7318;1.7652;
293.7000;0.7310;1.7628;
294.0000;0.7277;1.7605;
294.3000;0.7269;1.7581;
294.6000;0.7293;1.7675;
294.9000;0.7293;1.7675;
295.2000;0.7302;1.7652;
295.5000;0.7334;1.7746;
295.8000;0.7310;1.7722;
296.1000;0.7302;1.7699;
296.4000;0.7277;1.7628;
296.7000;0.7318;1.7699;
297.0000;0.7310;1.7628;
297.3000;0.7293;1.7675;
297.6000;0.7318;1.7675;
297.9000;0.7302;1.7652;
298.2000;0.7318;1.7605;
298.5000;0.7302;1.7534;
298.8000;0.7293;1.7534;
299.1000;0.7302;1.7581;
299.4000;0.7293;1.7511;
299.7000;0.7302;1.7534;
300.0000;0.7293;1.7605;
300.3000;0.7293;1.7605;
300.6000;0.7285;1.7558;
300.9000;0.7285;1.7581;
301.2000;0.7302;1.7699;
301.5000;0.7293;1.7746;
301.8000;0.7302;1.7793;
302.1000;0.7310;1.7793;
302.4000;0.7310;1.7816;
302.7000;0.7302;1.7816;
303.0000;0.7293;1.7840;
303.3000;0.7302;1.7933;
303.6000;0.7302;1.7863;
303.9000;0.7277;1.7816;
304.2000;0.7293;1.7816;
304.5000;0.7318;1.7887;
304.8000;0.7359;1.7887;
305.1000;0.7302;1.7722;
305.4000;0.7302;1.7722;
305.7000;0.7318;1.7793;
306.0000;0.7310;1.7722;
306.3000;0.7318;1.7722;
306.6000;0.7277;1.7558;
306.9000;0.7310;1.7605;
307.2000;0.7302;1.7675;
307.5000;0.7269;1.7581;
307.8000;0.7302;1.7581;
308.1000;0.7293;1.7628;
308.4000;0.7302;1.7699;
308.7000;0.7269;1.7534;
309.0000;0.7285;1.7534;
309.3000;0.7302;1.7581;
309.6000;0.7326;1.7652;
309.9000;0.7318;1.7675;
310.2000;0.7302;1.7534;
310.5000;0.7293;1.7487;
310.8000;0.7293;1.7534;
311.1000;0.7285;1.7605;
311.4000;0.7302;1.7605;
311.7000;0.7261;1.7511;
312.0000;0.7293;1.7581;
312.3000;0.7302;1.7581;
312.6000;0.7293;1.7534;
312.9000;0.7293;1.7511;
313.2000;0.7310;1.7511;
313.5000;0.7285;1.7464;
313.8000;0.7310;1.7487;
314.1000;0.7293;1.7464;
314.4000;0.7277;1.7464;
314.7000;0.7293;1.7417;
315.0000;0.7302;1.7487;
315.3000;0.7310;1.7558;
315.6000;0.7285;1.7534;
315.9000;0.7269;1.7441;
316.2000;0.7302;1.7511;
316.5000;0.7318;1.7558;
316.8000;0.7310;1.7534;
317.1000;0.7302;1.7558;
317.4000;0.7293;1.7534;
317.7000;0.7302;1.7511;
318.0000;0.7310;1.7675;
318.3000;0.7310;1.7746;
318.6000;0.7310;1.7746;
318.9000;0.7302;1.7675;
319.2000;0.7302;1.7652;
319.5000;0.7293;1.7628;
319.8000;0.7293;1.7605;
320.1000;0.7310;1.7581;
320.4000;0.7302;1.7417;
320.7000;0.7318;1.7464;
321.0000;0.7302;1.7370;
321.3000;0.7293;1.7417;
321.6000;0.7285;1.7417;
321.9000;0.7277;1.7441;
322.2000;0.7310;1.7441;
322.5000;0.7236;1.7370;
322.8000;0.7302;1.7487;
323.1000;0.7310;1.7511;
323.4000;0.7310;1.7394;
323.7000;0.7285;1.7370;
324.0000;0.7302;1.7394;
324.3000;0.7318;1.7441;
324.6000;0.7302;1.7417;
324.9000;0.7302;1.7394;
325.2000;0.7293;1.7370;
325.5000;0.7326;1.7464;
325.8000;0.7285;1.7370;
326.1000;0.7293;1.7464;
326.4000;0.7293;1.7558;
326.7000;0.7334;1.7699;
327.0000;0.7277;1.7699;
327.3000;0.7285;1.7746;
327.6000;0.7302;1.7746;
327.9000;0.7310;1.7746;
328.2000;0.7277;1.7722;
328.5000;0.7302;1.7675;
328.8000;0.7334;1.7746;
329.1000;0.7302;1.7605;
329.4000;0.7310;1.7605;
329.7000;0.7310;1.7534;
330.0000;0.7293;1.7511;
330.3000;0.7302;1.7558;
330.6000;0.7261;1.7581;
330.9000;0.7302;1.7699;
331.2000;0.7302;1.7769;
331.5000;0.7285;1.7722;
331.8000;0.7293;1.7746;
332.1000;0.7302;1.7675;
332.4000;0.7277;1.7652;
332.7000;0.7302;1.7722;
333.0000;0.7310;1.7699;
333.3000;0.7293;1.7722;
333.6000;0.7302;1.7675;
333.9000;0.7350;1.7746;
334.2000;0.7334;1.7746;
334.5000;0.7318;1.7675;
334.8000;0.7318;1.7746;
335.1000;0.7302;1.7628;
335.4000;0.7318;1.7699;
335.7000;0.7310;1.7652;
336.0000;0.7302;1.7699;
336.3000;0.7196;1.7347;
336.6000;0.7285;1.7628;
336.9000;0.7204;1.7370;
337.2000;0.7310;1.7628;
337.5000;0.7277;1.7487;
337.8000;0.7326;1.7558;
338.1000;0.7293;1.7558;
338.4000;0.7188;1.7464;
338.7000;0.7285;1.7628;
339.0000;0.7285;1.7581;
339.3000;0.7269;1.7652;
339.6000;0.7285;1.7628;
339.9000;0.7302;1.7746;
340.2000;0.7269;1.7699;
340.5000;0.7277;1.7746;
340.8000;0.7293;1.7840;
341.1000;0.7293;1.7910;
341.4000;0.7318;1.7957;
341.7000;0.7302;1.7887;
342.0000;0.7285;1.7863;
342.3000;0.7261;1.7769;
342.6000;0.7277;1.7699;
342.9000;0.7269;1.7675;
343.2000;0.7318;1.7722;
343.5000;0.7350;1.7769;
343.8000;0.7285;1.7581;
344.1000;0.7212;1.7253;
344.4000;0.7334;1.7675;
344.7000;0.7310;1.7581;
345.0000;0.7310;1.7605;
345.3000;0.7293;1.7511;
345.6000;0.7302;1.7581;
345.9000;0.7293;1.7511;
346.2000;0.7310;1.7464;
346.5000;0.7293;1.7464;
346.8000;0.7285;1.7417;
347.1000;0.7285;1.7370;
347.4000;0.7302;1.7464;
347.7000;0.7302;1.7441;
348.0000;0.7285;1.7276;
348.3000;0.7302;1.7347;
348.6000;0.7293;1.7347;
348.9000;0.7302;1.7347;
349.2000;0.7285;1.7347;
349.5000;0.7350;1.7628;
349.8000;0.7285;1.7534;
350.1000;0.7302;1.7511;
350.4000;0.7293;1.7487;
350.7000;0.7285;1.7558;
351.0000;0.7302;1.7652;
351.3000;0.7302;1.7652;
351.6000;0.7269;1.7511;
351.9000;0.7285;1.7394;
352.2000;0.7302;1.7347;
352.5000;0.7293;1.7370;
352.8000;0.7220;1.7159;
353.1000;0.7285;1.7441;
353.4000;0.7293;1.7323;
353.7000;0.7285;1.7370;
354.0000;0.7310;1.7511;
354.3000;0.7285;1.7487;
354.6000;0.7285;1.7487;
354.9000;0.7310;1.7558;
355.2000;0.7310;1.7464;
355.5000;0.7285;1.7394;
355.8000;0.7277;1.7441;
356.1000;0.7302;1.7464;
356.4000;0.7318;1.7441;
356.7000;0.7277;1.7464;
357.0000;0.7293;1.7441;
357.3000;0.7285;1.7370;
357.6000;0.7302;1.7464;
357.9000;0.7310;1.7487;
358.2000;0.7293;1.7464;
358.5000;0.7293;1.7394;
358.8000;0.7277;1.7300;
359.1000;0.7293;1.7394;
359.4000;0.7269;1.7394;
359.7000;0.7350;1.7534;
360.0000;0.7310;1.7394;
360.3000;0.7236;1.7370;
360.6000;0.7383;1.7746;
360.9000;0.7285;1.7581;
361.2000;0.7285;1.7605;
361.5000;0.7285;1.7675;
361.8000;0.7277;1.7628;
362.1000;0.7302;1.7581;
362.4000;0.7277;1.7534;
362.7000;0.7171;1.7229;
363.0000;0.7326;1.7534;
363.3000;0.7318;1.7581;
363.6000;0.7326;1.7605;
363.9000;0.7293;1.7605;
364.2000;0.7261;1.7534;
364.5000;0.7285;1.7605;
364.8000;0.7293;1.7511;
365.1000;0.7277;1.7464;
365.4000;0.7302;1.7558;
365.7000;0.7302;1.7511;
366.0000;0.7277;1.7487;
366.3000;0.7293;1.7511;
366.6000;0.7318;1.7464;
366.9000;0.7285;1.7394;
367.2000;0.7253;1.7323;
367.5000;0.7261;1.7300;
367.8000;0.7277;1.7276;
368.1000;0.7326;1.7253;
368.4000;0.7302;1.7206;
368.7000;0.7269;1.7206;
369.0000;0.7285;1.7253;
369.3000;0.7285;1.7323;
369.6000;0.7285;1.7417;
369.9000;0.7285;1.7441;
370.2000;0.7179;1.7206;
370.5000;0.7285;1.7534;
370.8000;0.7302;1.7605;
371.1000;0.7261;1.7464;
371.4000;0.7245;1.7487;
371.7000;0.7285;1.7487;
372.0000;0.7285;1.7441;
372.3000;0.7285;1.7487;
372.6000;0.7269;1.7511;
372.9000;0.7293;1.7464;
373.2000;0.7302;1.7464;
373.5000;0.7302;1.7394;
373.8000;0.7285;1.7347;
374.1000;0.7277;1.7394;
374.4000;0.7285;1.7464;
374.7000;0.7261;1.7370;
375.0000;0.7261;1.7464;
375.3000;0.7293;1.7441;
375.6000;0.7293;1.7370;
375.9000;0.7277;1.7323;
376.2000;0.7367;1.7558;
376.5000;0.7285;1.7347;
376.8000;0.7245;1.7253;
377.1000;0.7293;1.7370;
377.4000;0.7261;1.7370;
377.7000;0.7269;1.7417;
378.0000;0.7285;1.7558;
378.3000;0.7277;1.7534;
378.6000;0.7179;1.7206;
378.9000;0.7269;1.7441;
379.2000;0.7302;1.7417;
379.5000;0.7277;1.7300;
379.8000;0.7285;1.7323;
380.1000;0.7285;1.7417;
380.4000;0.7342;1.7652;
380.7000;0.7285;1.7464;
381.0000;0.7302;1.7534;
381.3000;0.7302;1.7558;
381.6000;0.7285;1.7534;
381.9000;0.7293;1.7605;
382.2000;0.7285;1.7464;
382.5000;0.7277;1.7394;
382.8000;0.7261;1.7323;
383.1000;0.7293;1.7370;
383.4000;0.7391;1.7675;
383.7000;0.7285;1.7464;
384.0000;0.7293;1.7534;
384.3000;0.7285;1.7511;
384.6000;0.7277;1.7534;
384.9000;0.7196;1.7370;
385.2000;0.7285;1.7511;
385.5000;0.7277;1.7511;
385.8000;0.7253;1.7511;
386.1000;0.7253;1.7464;
386.4000;0.7293;1.7464;
386.7000;0.7253;1.7347;
387.0000;0.7391;1.7628;
387.3000;0.7253;1.7370;
387.6000;0.7350;1.7581;
387.9000;0.7269;1.7417;
388.2000;0.7293;1.7487;
388.5000;0.7277;1.7534;
388.8000;0.7285;1.7511;
389.1000;0.7285;1.7487;
389.4000;0.7245;1.7441;
389.7000;0.7293;1.7534;
390.0000;0.7293;1.7417;
390.3000;0.7293;1.7464;
390.6000;0.7293;1.7581;
390.9000;0.7285;1.7581;
391.2000;0.7293;1.7605;
391.5000;0.7277;1.7652;
391.8000;0.7269;1.7699;
392.1000;0.7269;1.7675;
392.4000;0.7269;1.7628;
392.7000;0.7261;1.7605;
393.0000;0.7261;1.7534;
393.3000;0.7261;1.7511;
393.6000;0.7277;1.7511;
393.9000;0.7293;1.7605;
394.2000;0.7277;1.7652;
394.5000;0.7285;1.7628;
394.8000;0.7285;1.7675;
395.1000;0.7285;1.7628;
395.4000;0.7285;1.7628;
395.7000;0.7293;1.7605;
396.0000;0.7293;1.7652;
396.3000;0.7277;1.7534;
396.6000;0.7261;1.7487;
396.9000;0.7285;1.7534;
397.2000;0.7285;1.7511;
397.5000;0.7285;1.7511;
397.8000;0.7293;1.7534;
398.1000;0.7245;1.7347;
398.4000;0.7277;1.7417;
398.7000;0.7310;1.7441;
399.0000;0.7236;1.7370;
399.3000;0.7285;1.7605;
399.6000;0.7285;1.7558;
399.9000;0.7285;1.7464;
400.2000;0.7228;1.7300;
400.5000;0.7350;1.7581;
400.8000;0.7293;1.7464;
401.1000;0.7285;1.7441;
401.4000;0.7261;1.7464;
401.7000;0.7269;1.7441;
402.0000;0.7277;1.7487;
402.3000;0.7253;1.7464;
402.6000;0.7253;1.7417;
402.9000;0.7253;1.7464;
403.2000;0.7285;1.7511;
403.5000;0.7334;1.7581;
403.8000;0.7269;1.7441;
404.1000;0.7302;1.7487;
404.4000;0.7204;1.7370;
404.7000;0.7269;1.7605;
405.0000;0.7285;1.7652;
405.3000;0.7171;1.7417;
405.6000;0.7302;1.7605;
405.9000;0.7269;1.7581;
406.2000;0.7277;1.7558;
406.5000;0.7277;1.7487;
406.8000;0.7293;1.7581;
407.1000;0.7293;1.7558;
407.4000;0.7285;1.7511;
407.7000;0.7261;1.7464;
408.0000;0.7293;1.7464;
408.3000;0.7285;1.7464;
408.6000;0.7277;1.7441;
408.9000;0.7212;1.7253;
409.2000;0.7269;1.7347;
409.5000;0.7245;1.7394;
409.8000;0.7269;1.7534;
410.1000;0.7261;1.7511;
410.4000;0.7269;1.7394;
410.7000;0.7277;1.7323;
411.0000;0.7277;1.7347;
411.3000;0.7277;1.7300;
411.6000;0.7261;1.7229;
411.9000;0.7269;1.7300;
412.2000;0.7277;1.7417;
412.5000;0.7293;1.7464;
412.8000;0.7269;1.7417;
413.1000;0.7277;1.7487;
413.4000;0.7350;1.7722;
413.7000;0.7269;1.7511;
414.0000;0.7261;1.7417;
414.3000;0.7253;1.7417;
414.6000;0.7253;1.7441;
414.9000;0.7277;1.7511;
415.2000;0.7277;1.7534;
415.5000;0.7285;1.7558;
415.8000;0.7302;1.7558;
416.1000;0.7285;1.7558;
416.4000;0.7326;1.7675;
416.7000;0.7269;1.7605;
417.0000;0.7269;1.7699;
417.3000;0.7285;1.7652;
417.6000;0.7204;1.7370;
417.9000;0.7245;1.7417;
418.2000;0.7269;1.7441;
418.5000;0.7293;1.7464;
418.8000;0.7285;1.7441;
419.1000;0.7269;1.7394;
419.4000;0.7261;1.7487;
419.7000;0.7285;1.7628;
420.0000;0.7261;1.7581;
420.3000;0.7245;1.7581;
420.6000;0.7269;1.7699;
420.9000;0.7285;1.7675;
421.2000;0.7277;1.7605;
421.5000;0.7261;1.7605;
421.8000;0.7269;1.7534;
422.1000;0.7245;1.7417;
422.4000;0.7277;1.7487;
422.7000;0.7261;1.7441;
423.0000;0.7245;1.7464;
423.3000;0.7302;1.7581;
423.6000;0.7285;1.7581;
423.9000;0.7212;1.7464;
424.2000;0.7277;1.7581;
424.5000;0.7261;1.7581;
424.8000;0.7179;1.7394;
425.1000;0.7269;1.7628;
425.4000;0.7253;1.7581;
425.7000;0.7269;1.7605;
426.0000;0.7261;1.7675;
426.3000;0.7269;1.7652;
426.6000;0.7261;1.7558;
426.9000;0.7269;1.7558;
427.2000;0.7350;1.7722;
427.5000;0.7293;1.7675;
427.8000;0.7293;1.7746;
428.1000;0.7277;1.7699;
428.4000;0.7277;1.7628;
428.7000;0.7285;1.7558;
429.0000;0.7293;1.7605;
429.3000;0.7269;1.7605;
429.6000;0.7277;1.7722;
429.9000;0.7277;1.7722;
430.2000;0.7277;1.7722;
430.5000;0.7245;1.7769;
430.8000;0.7204;1.7605;
431.1000;0.7261;1.7722;
431.4000;0.7269;1.7628;
431.7000;0.7269;1.7534;
432.0000;0.7269;1.7441;
432.3000;0.7269;1.7417;
432.6000;0.7285;1.7464;
432.9000;0.7277;1.7511;
433.2000;0.7269;1.7394;
433.5000;0.7302;1.7464;
433.8000;0.7277;1.7441;
434.1000;0.7285;1.7394;
434.4000;0.7269;1.7347;
434.7000;0.7253;1.7370;
435.0000;0.7277;1.7558;
435.3000;0.7277;1.7652;
435.6000;0.7269;1.7628;
435.9000;0.7261;1.7605;
436.2000;0.7261;1.7605;
436.5000;0.7261;1.7464;
436.8000;0.7261;1.7417;
437.1000;0.7261;1.7394;
437.4000;0.7261;1.7347;
437.7000;0.7269;1.7347;
438.0000;0.7285;1.7300;
438.3000;0.7269;1.7253;
438.6000;0.7236;1.7300;
438.9000;0.7269;1.7347;
439.2000;0.7285;1.7441;
439.5000;0.7318;1.7628;
439.8000;0.7253;1.7487;
440.1000;0.7277;1.7558;
440.4000;0.7228;1.7370;
440.7000;0.7261;1.7441;
441.0000;0.7277;1.7511;
441.3000;0.7261;1.7558;
441.6000;0.7310;1.7699;
441.9000;0.7285;1.7605;
442.2000;0.7261;1.7558;
442.5000;0.7261;1.7511;
442.8000;0.7277;1.7487;
443.1000;0.7277;1.7487;
443.4000;0.7261;1.7464;
443.7000;0.7269;1.7511;
444.0000;0.7277;1.7487;
444.3000;0.7269;1.7464;
444.6000;0.7269;1.7417;
444.9000;0.7269;1.7441;
445.2000;0.7261;1.7558;
445.5000;0.7245;1.7511;
445.8000;0.7285;1.7581;
446.1000;0.7245;1.7417;
446.4000;0.7269;1.7347;
446.7000;0.7277;1.7441;
447.0000;0.7285;1.7605;
447.3000;0.7253;1.7558;
447.6000;0.7261;1.7558;
447.9000;0.7212;1.7441;
448.2000;0.7261;1.7511;
448.5000;0.7253;1.7511;
448.8000;0.7261;1.7581;
449.1000;0.7253;1.7581;
449.4000;0.7245;1.7534;
449.7000;0.7253;1.7534;
450.0000;0.7236;1.7370;
450.3000;0.7220;1.7394;
450.6000;0.7261;1.7417;
450.9000;0.7277;1.7370;
451.2000;0.7261;1.7370;
451.5000;0.7277;1.7417;
451.8000;0.7285;1.7534;
452.1000;0.7277;1.7487;
452.4000;0.7245;1.7394;
452.7000;0.7261;1.7417;
453.0000;0.7277;1.7464;
453.3000;0.7293;1.7441;
453.6000;0.7285;1.7487;
453.9000;0.7269;1.7441;
454.2000;0.7399;1.7699;
454.5000;0.7391;1.7840;
454.8000;0.7204;1.7300;
455.1000;0.7293;1.7487;
455.4000;0.7277;1.7417;
455.7000;0.7277;1.7394;
456.0000;0.7236;1.7417;
456.3000;0.7277;1.7511;
456.6000;0.7236;1.7441;
456.9000;0.7293;1.7511;
457.2000;0.7269;1.7441;
457.5000;0.7261;1.7441;
457.8000;0.7220;1.7347;
458.1000;0.7253;1.7441;
458.4000;0.7253;1.7534;
458.7000;0.7261;1.7534;
459.0000;0.7334;1.7699;
459.3000;0.7269;1.7534;
459.6000;0.7269;1.7534;
459.9000;0.7261;1.7511;
460.2000;0.7253;1.7511;
460.5000;0.7261;1.7581;
460.8000;0.7277;1.7675;
461.1000;0.7269;1.7675;
461.4000;0.7261;1.7628;
461.7000;0.7261;1.7558;
462.0000;0.7261;1.7534;
462.3000;0.7261;1.7487;
462.6000;0.7253;1.7464;
462.9000;0.7261;1.7441;
463.2000;0.7269;1.7417;
463.5000;0.7269;1.7441;
463.8000;0.7261;1.7487;
464.1000;0.7269;1.7464;
464.4000;0.7253;1.7394;
464.7000;0.7261;1.7394;
465.0000;0.7236;1.7323;
465.3000;0.7269;1.7323;
465.6000;0.7253;1.7276;
465.9000;0.7277;1.7417;
466.2000;0.7261;1.7370;
466.5000;0.7269;1.7276;
466.8000;0.7253;1.7229;
467.1000;0.7253;1.7229;
467.4000;0.7269;1.7300;
467.7000;0.7277;1.7323;
468.0000;0.7261;1.7276;
468.3000;0.7269;1.7370;
468.6000;0.7285;1.7441;
468.9000;0.7253;1.7487;
469.2000;0.7245;1.7417;
469.5000;0.7269;1.7394;
469.8000;0.7367;1.7675;
470.1000;0.7253;1.7511;
470.4000;0.7253;1.7558;
470.7000;0.7293;1.7675;
471.0000;0.7261;1.7581;
471.3000;0.7245;1.7511;
471.6000;0.7212;1.7394;
471.9000;0.7220;1.7347;
472.2000;0.7253;1.7417;
472.5000;0.7245;1.7417;
472.8000;0.7269;1.7417;
473.1000;0.7285;1.7511;
473.4000;0.7253;1.7441;
473.7000;0.7350;1.7534;
474.0000;0.7285;1.7347;
474.3000;0.7302;1.7300;
474.6000;0.7253;1.7206;
474.9000;0.7269;1.7347;
475.2000;0.7188;1.7182;
475.5000;0.7269;1.7370;
475.8000;0.7261;1.7347;
476.1000;0.7261;1.7394;
476.4000;0.7293;1.7487;
476.7000;0.7269;1.7441;
477.0000;0.7302;1.7487;
477.3000;0.7269;1.7417;
477.6000;0.7261;1.7511;
477.9000;0.7293;1.7558;
478.2000;0.7261;1.7534;
478.5000;0.7277;1.7675;
478.8000;0.7253;1.7652;
479.1000;0.7285;1.7652;
479.4000;0.7285;1.7628;
479.7000;0.7253;1.7605;
480.0000;0.7261;1.7581;
480.3000;0.7220;1.7487;
480.6000;0.7269;1.7699;
480.9000;0.7204;1.7558;
481.2000;0.7302;1.7816;
481.5000;0.7261;1.7675;
481.8000;0.7342;1.7793;
482.1000;0.7261;1.7652;
482.4000;0.7253;1.7652;
482.7000;0.7269;1.7699;
483.0000;0.7269;1.7699;
483.3000;0.7253;1.7605;
483.6000;0.7245;1.7605;
483.9000;0.7220;1.7487;
484.2000;0.7261;1.7558;
484.5000;0.7236;1.7511;
484.8000;0.7245;1.7534;
485.1000;0.7196;1.7394;
485.4000;0.7261;1.7534;
485.7000;0.7261;1.7464;
486.0000;0.7261;1.7534;
486.3000;0.7245;1.7464;
486.6000;0.7253;1.7441;
486.9000;0.7269;1.7511;
487.2000;0.7245;1.7511;
487.5000;0.7204;1.7441;
487.8000;0.7253;1.7558;
488.1000;0.7261;1.7558;
488.4000;0.7245;1.7558;
488.7000;0.7253;1.7511;
489.0000;0.7277;1.7487;
489.3000;0.7261;1.7464;
489.6000;0.7253;1.7511;
489.9000;0.7253;1.7464;
490.2000;0.7253;1.7464;
490.5000;0.7261;1.7487;
490.8000;0.7261;1.7464;
491.1000;0.7269;1.7511;
491.4000;0.7261;1.7581;
491.7000;0.7253;1.7605;
492.0000;0.7269;1.7675;
492.3000;0.7245;1.7581;
492.6000;0.7253;1.7652;
492.9000;0.7245;1.7746;
493.2000;0.7253;1.7746;
493.5000;0.7277;1.7746;
493.8000;0.7334;1.7863;
494.1000;0.7228;1.7605;
494.4000;0.7261;1.7581;
494.7000;0.7261;1.7511;
495.0000;0.7245;1.7441;
495.3000;0.7245;1.7370;
495.6000;0.7277;1.7511;
495.9000;0.7147;1.7300;
496.2000;0.7293;1.7699;
496.5000;0.7220;1.7558;
496.8000;0.7220;1.7534;
497.1000;0.7285;1.7652;
497.4000;0.7261;1.7511;
497.7000;0.7163;1.7300;
498.0000;0.7261;1.7581;
498.3000;0.7277;1.7628;
498.6000;0.7269;1.7628;
498.9000;0.7277;1.7652;
499.2000;0.7277;1.7605;
499.5000;0.7269;1.7581;
499.8000;0.7269;1.7581;
500.1000;0.7269;1.7628;
500.4000;0.7253;1.7511;
500.7000;0.7253;1.7534;
501.0000;0.7245;1.7534;
501.3000;0.7261;1.7605;
501.6000;0.7245;1.7581;
501.9000;0.7269;1.7581;
502.2000;0.7318;1.7722;
502.5000;0.7269;1.7605;
502.8000;0.7253;1.7581;
503.1000;0.7310;1.7628;
503.4000;0.7245;1.7628;
503.7000;0.7261;1.7699;
504.0000;0.7277;1.7699;
504.3000;0.7334;1.7840;
504.6000;0.7261;1.7675;
504.9000;0.7261;1.7605;
505.2000;0.7261;1.7581;
505.5000;0.7245;1.7534;
505.8000;0.7269;1.7581;
506.1000;0.7277;1.7652;
506.4000;0.7261;1.7511;
506.7000;0.7253;1.7441;
507.0000;0.7253;1.7417;
507.3000;0.7293;1.7534;
507.6000;0.7293;1.7628;
507.9000;0.7253;1.7675;
508.2000;0.7236;1.7699;
508.5000;0.7285;1.7769;
508.8000;0.7269;1.7746;
509.1000;0.7253;1.7652;
509.4000;0.7269;1.7652;
509.7000;0.7245;1.7581;
510.0000;0.7261;1.7581;
510.3000;0.7269;1.7558;
510.6000;0.7277;1.7534;
510.9000;0.7236;1.7558;
511.2000;0.7253;1.7581;
511.5000;0.7253;1.7628;
511.8000;0.7302;1.7769;
512.1000;0.7220;1.7605;
512.4000;0.7228;1.7652;
512.7000;0.7196;1.7558;
513.0000;0.7236;1.7605;
513.3000;0.7236;1.7699;
513.6000;0.7334;1.7957;
513.9000;0.7269;1.7793;
514.2000;0.7253;1.7652;
514.5000;0.7277;1.7581;
514.8000;0.7245;1.7464;
515.1000;0.7261;1.7581;
515.4000;0.7253;1.7534;
515.7000;0.7220;1.7464;
516.0000;0.7261;1.7511;
516.3000;0.7261;1.7511;
516.6000;0.7253;1.7441;
516.9000;0.7285;1.7511;
517.2000;0.7269;1.7487;
517.5000;0.7293;1.7605;
517.8000;0.7285;1.7511;
518.1000;0.7302;1.7581;
518.4000;0.7261;1.7511;
518.7000;0.7261;1.7605;
519.0000;0.7277;1.7581;
519.3000;0.7253;1.7534;
519.6000;0.7139;1.7206;
519.9000;0.7253;1.7487;
520.2000;0.7253;1.7487;
520.5000;0.7318;1.7722;
520.8000;0.7261;1.7534;
521.1000;0.7245;1.7558;
521.4000;0.7171;1.7370;
521.7000;0.7293;1.7652;
522.0000;0.7236;1.7581;
522.3000;0.7302;1.7722;
522.6000;0.7245;1.7558;
522.9000;0.7261;1.7534;
523.2000;0.7261;1.7464;
523.5000;0.7269;1.7417;
523.8000;0.7253;1.7394;
524.1000;0.7253;1.7417;
524.4000;0.7261;1.7441;
524.7000;0.7253;1.7370;
525.0000;0.7245;1.7394;
525.3000;0.7236;1.7534;
525.6000;0.7253;1.7511;
525.9000;0.7245;1.7605;
526.2000;0.7236;1.7652;
526.5000;0.7269;1.7722;
526.8000;0.7236;1.7628;
527.1000;0.7228;1.7699;
527.4000;0.7245;1.7628;
527.7000;0.7245;1.7558;
528.0000;0.7269;1.7675;
528.3000;0.7253;1.7699;
528.6000;0.7253;1.7793;
528.9000;0.7236;1.7675;
529.2000;0.7269;1.7746;
529.5000;0.7228;1.7675;
529.8000;0.7245;1.7769;
530.1000;0.7261;1.7746;
530.4000;0.7261;1.7769;
530.7000;0.7228;1.7746;
531.0000;0.7261;1.7816;
531.3000;0.7253;1.7793;
531.6000;0.7350;1.7933;
531.9000;0.7269;1.7675;
532.2000;0.7269;1.7605;
532.5000;0.7253;1.7628;
532.8000;0.7228;1.7581;
533.1000;0.7245;1.7675;
533.4000;0.7261;1.7628;
533.7000;0.7277;1.7722;
534.0000;0.7236;1.7699;
534.3000;0.7245;1.7699;
534.6000;0.7236;1.7746;
534.9000;0.7253;1.7699;
535.2000;0.7253;1.7746;
535.5000;0.7220;1.7699;
535.8000;0.7245;1.7699;
536.1000;0.7245;1.7652;
536.4000;0.7220;1.7699;
536.7000;0.7253;1.7722;
537.0000;0.7245;1.7652;
537.3000;0.7269;1.7699;
537.6000;0.7228;1.7628;
537.9000;0.7350;1.7957;
538.2000;0.7236;1.7652;
538.5000;0.7245;1.7699;
538.8000;0.7253;1.7699;
539.1000;0.7220;1.7675;
539.4000;0.7228;1.7722;
539.7000;0.7236;1.7722;
540.0000;0.7236;1.7605;
540.3000;0.7236;1.7628;
540.6000;0.7277;1.7769;
540.9000;0.7293;1.7746;
541.2000;0.7261;1.7652;
541.5000;0.7269;1.7605;
541.8000;0.7253;1.7605;
542.1000;0.7253;1.7652;
542.4000;0.7236;1.7699;
542.7000;0.7253;1.7769;
543.0000;0.7245;1.7746;
543.3000;0.7261;1.7840;
543.6000;0.7285;1.7887;
543.9000;0.7261;1.7840;
544.2000;0.7245;1.7933;
544.5000;0.7253;1.7887;
544.8000;0.7245;1.7910;
545.1000;0.7236;1.7933;
545.4000;0.7293;1.8004;
545.7000;0.7236;1.7887;
546.0000;0.7245;1.7863;
546.3000;0.7318;1.8051;
546.6000;0.7253;1.7840;
546.9000;0.7196;1.7699;
547.2000;0.7245;1.7769;
547.5000;0.7261;1.7746;
547.8000;0.7261;1.7746;
548.1000;0.7220;1.7628;
548.4000;0.7220;1.7722;
548.7000;0.7269;1.7840;
549.0000;0.7236;1.7887;
549.3000;0.7245;1.7933;
549.6000;0.7245;1.7980;
549.9000;0.7236;1.7863;
550.2000;0.7212;1.7746;
550.5000;0.7220;1.7769;
550.8000;0.7245;1.7675;
551.1000;0.7253;1.7722;
551.4000;0.7228;1.7699;
551.7000;0.7253;1.7769;
552.0000;0.7236;1.7769;
552.3000;0.7236;1.7746;
552.6000;0.7236;1.7746;
552.9000;0.7245;1.7746;
553.2000;0.7253;1.7793;
553.5000;0.7269;1.7769;
553.8000;0.7236;1.7605;
554.1000;0.7253;1.7652;
554.4000;0.7228;1.7534;
554.7000;0.7228;1.7487;
555.0000;0.7236;1.7558;
555.3000;0.7236;1.7558;
555.6000;0.7277;1.7652;
555.9000;0.7220;1.7558;
556.2000;0.7253;1.7722;
556.5000;0.7277;1.7746;
556.8000;0.7245;1.7699;
557.1000;0.7245;1.7675;
557.4000;0.7253;1.7675;
557.7000;0.7245;1.7699;
558.0000;0.7236;1.7699;
558.3000;0.7236;1.7652;
558.6000;0.7293;1.7746;
558.9000;0.7236;1.7534;
559.2000;0.7253;1.7605;
559.5000;0.7212;1.7487;
559.8000;0.7245;1.7699;
560.1000;0.7236;1.7769;
560.4000;0.7228;1.7816;
560.7000;0.7245;1.7816;
561.0000;0.7220;1.7652;
561.3000;0.7261;1.7840;
561.6000;0.7261;1.7769;
561.9000;0.7131;1.7417;
562.2000;0.7245;1.7675;
562.5000;0.7253;1.7628;
562.8000;0.7220;1.7511;
563.1000;0.7261;1.7534;
563.4000;0.7245;1.7534;
563.7000;0.7236;1.7605;
564.0000;0.7245;1.7628;
564.3000;0.7245;1.7628;
564.6000;0.7253;1.7628;
564.9000;0.7416;1.8051;
565.2000;0.7253;1.7675;
565.5000;0.7236;1.7628;
565.8000;0.7269;1.7699;
566.1000;0.7245;1.7558;
566.4000;0.7228;1.7558;
566.7000;0.7123;1.7229;
567.0000;0.7261;1.7487;
567.3000;0.7245;1.7511;
567.6000;0.7212;1.7441;
567.9000;0.7261;1.7769;
568.2000;0.7253;1.7699;
568.5000;0.7236;1.7699;
568.8000;0.7245;1.7675;
569.1000;0.7245;1.7652;
569.4000;0.7253;1.7605;
569.7000;0.7220;1.7558;
570.0000;0.7228;1.7605;
570.3000;0.7245;1.7558;
570.6000;0.7220;1.7511;
570.9000;0.7245;1.7464;
571.2000;0.7236;1.7394;
571.5000;0.7228;1.7394;
571.8000;0.7245;1.7511;
572.1000;0.7253;1.7534;
572.4000;0.7041;1.7112;
572.7000;0.7220;1.7511;
573.0000;0.7245;1.7558;
573.3000;0.7171;1.7487;
573.6000;0.7245;1.7581;
573.9000;0.7261;1.7628;
574.2000;0.7236;1.7581;
574.5000;0.7245;1.7628;
574.8000;0.7245;1.7699;
575.1000;0.7228;1.7699;
575.4000;0.7228;1.7652;
575.7000;0.7261;1.7722;
576.0000;0.7269;1.7652;
576.3000;0.7293;1.7722;
576.6000;0.7236;1.7628;
576.9000;0.7261;1.7605;
577.2000;0.7253;1.7605;
577.5000;0.7171;1.7417;
577.8000;0.7367;1.7793;
578.1000;0.7253;1.7534;
578.4000;0.7253;1.7558;
578.7000;0.7253;1.7605;
579.0000;0.7228;1.7534;
579.3000;0.7220;1.7558;
579.6000;0.7245;1.7558;
579.9000;0.7245;1.7487;
580.2000;0.7236;1.7417;
580.5000;0.7228;1.7394;
580.8000;0.7236;1.7441;
581.1000;0.7293;1.7511;
581.4000;0.7236;1.7417;
581.7000;0.7220;1.7370;
582.0000;0.7228;1.7417;
582.3000;0.7228;1.7394;
582.6000;0.7228;1.7370;
582.9000;0.7196;1.7300;
583.2000;0.7220;1.7417;
583.5000;0.7220;1.7394;
583.8000;0.7269;1.7581;
584.1000;0.7253;1.7581;
584.4000;0.7228;1.7534;
584.7000;0.7245;1.7558;
585.0000;0.7253;1.7652;
585.3000;0.7228;1.7605;
585.6000;0.7196;1.7534;
585.9000;0.7236;1.7699;
586.2000;0.7212;1.7628;
586.5000;0.7196;1.7511;
586.8000;0.7228;1.7441;
587.1000;0.7253;1.7534;
587.4000;0.7236;1.7441;
587.7000;0.7245;1.7511;
588.0000;0.7245;1.7441;
588.3000;0.7212;1.7347;
588.6000;0.7310;1.7605;
588.9000;0.7228;1.7417;
589.2000;0.7245;1.7417;
589.5000;0.7196;1.7323;
589.8000;0.7245;1.7417;
590.1000;0.7245;1.7511;
590.4000;0.7236;1.7441;
590.7000;0.7228;1.7323;
591.0000;0.7228;1.7347;
591.3000;0.7236;1.7323;
591.6000;0.7236;1.7347;
591.9000;0.7236;1.7370;
592.2000;0.7236;1.7417;
592.5000;0.7228;1.7394;
592.8000;0.7253;1.7581;
593.1000;0.7212;1.7511;
593.4000;0.7236;1.7558;
593.7000;0.7212;1.7605;
594.0000;0.7261;1.7722;
594.3000;0.7212;1.7558;
594.6000;0.7196;1.7511;
594.9000;0.7228;1.7558;
595.2000;0.7245;1.7534;
595.5000;0.7236;1.7534;
595.8000;0.7228;1.7464;
596.1000;0.7220;1.7417;
596.4000;0.7220;1.7370;
596.7000;0.7245;1.7370;
597.0000;0.7236;1.7370;
597.3000;0.7228;1.7276;
597.6000;0.7236;1.7229;
597.9000;0.7228;1.7206;
598.2000;0.7220;1.7206;
598.5000;0.7261;1.7347;
598.8000;0.7188;1.7229;
599.1000;0.7220;1.7347;
599.4000;0.7245;1.7347;
599.7000;0.7236;1.7323;
600.0000;0.7147;1.7065;
600.3000;0.7253;1.7229;
600.6000;0.7245;1.7159;
600.9000;0.7188;1.6948;
601.2000;0.7171;1.6830;
601.5000;0.7114;1.6713;
601.8000;0.7074;1.6596;
602.1000;0.7000;1.6455;
602.4000;0.6968;1.6290;
602.7000;0.6895;1.6126;
603.0000;0.6862;1.5915;
603.3000;0.6805;1.5657;
603.6000;0.6740;1.5445;
603.9000;0.6781;1.5516;
604.2000;0.6659;1.5164;
604.5000;0.6642;1.5070;
604.8000;0.6642;1.5070;
605.1000;0.6569;1.4882;
605.4000;0.6504;1.4741;
605.7000;0.6488;1.4765;
606.0000;0.6447;1.4577;
606.3000;0.6406;1.4624;
606.6000;0.6398;1.4694;
606.9000;0.6374;1.4647;
607.2000;0.6341;1.4647;
607.5000;0.6300;1.4600;
607.8000;0.6284;1.4577;
608.1000;0.6252;1.4459;
608.4000;0.6219;1.4413;
608.7000;0.6203;1.4413;
609.0000;0.6162;1.4389;
609.3000;0.6162;1.4389;
609.6000;0.6195;1.4506;
609.9000;0.6113;1.4366;
610.2000;0.6064;1.4366;
610.5000;0.6024;1.4225;
610.8000;0.6048;1.4319;
611.1000;0.5975;1.4131;
611.4000;0.5983;1.4178;
611.7000;0.6040;1.4366;
612.0000;0.5893;1.4013;
612.3000;0.5918;1.4107;
612.6000;0.5958;1.4154;
612.9000;0.5926;1.4107;
613.2000;0.5853;1.4037;
613.5000;0.5836;1.4084;
613.8000;0.5820;1.4013;
614.1000;0.5796;1.4037;
614.4000;0.5771;1.4013;
614.7000;0.5763;1.4037;
615.0000;0.5771;1.4037;
615.3000;0.5755;1.4013;
615.6000;0.5714;1.3967;
615.9000;0.5649;1.3849;
616.2000;0.5739;1.4060;
616.5000;0.5674;1.3943;
616.8000;0.5657;1.4037;
617.1000;0.5641;1.4107;
617.4000;0.5641;1.4107;
617.7000;0.5576;1.3990;
618.0000;0.5600;1.4037;
618.3000;0.5576;1.4037;
618.6000;0.5576;1.4107;
618.9000;0.5535;1.4060;
619.2000;0.5568;1.4084;
619.5000;0.5535;1.4037;
619.8000;0.5551;1.4060;
620.1000;0.5503;1.4037;
620.4000;0.5470;1.3990;
620.7000;0.5486;1.4060;
621.0000;0.5486;1.4084;
621.3000;0.5470;1.4037;
621.6000;0.5446;1.4037;
621.9000;0.5454;1.3990;
622.2000;0.5421;1.3967;
622.5000;0.5429;1.4037;
622.8000;0.5405;1.4037;
623.1000;0.5275;1.3685;
623.4000;0.5389;1.4013;
623.7000;0.5381;1.3990;
624.0000;0.5364;1.4060;
624.3000;0.5364;1.4037;
624.6000;0.5364;1.4037;
624.9000;0.5340;1.3967;
625.2000;0.5332;1.3896;
625.5000;0.5332;1.3943;
625.8000;0.5397;1.4131;
626.1000;0.5307;1.3920;
626.4000;0.5283;1.3896;
626.7000;0.5250;1.3826;
627.0000;0.5242;1.3826;
627.3000;0.5267;1.3802;
627.6000;0.5267;1.3873;
627.9000;0.5258;1.3896;
628.2000;0.5234;1.3873;
628.5000;0.5226;1.3873;
628.8000;0.5242;1.3943;
629.1000;0.5201;1.3826;
629.4000;0.5275;1.4107;
629.7000;0.5210;1.3990;
630.0000;0.5201;1.3873;
630.3000;0.5193;1.3779;
630.6000;0.5120;1.3614;
630.9000;0.5144;1.3732;
631.2000;0.5153;1.3802;
631.5000;0.5112;1.3685;
631.8000;0.5161;1.3779;
632.1000;0.5112;1.3685;
632.4000;0.5136;1.3802;
632.7000;0.5112;1.3826;
633.0000;0.5185;1.3967;
633.3000;0.5112;1.3873;
633.6000;0.5071;1.3661;
633.9000;0.5112;1.3873;
634.2000;0.5096;1.3873;
634.5000;0.5088;1.3849;
634.8000;0.5096;1.3826;
635.1000;0.5071;1.3779;
635.4000;0.5079;1.3732;
635.7000;0.5071;1.3661;
636.0000;0.5071;1.3708;
636.3000;0.5047;1.3779;
636.6000;0.5014;1.3802;
636.9000;0.5047;1.3873;
637.2000;0.5014;1.3826;
637.5000;0.5014;1.3802;
637.8000;0.5022;1.3826;
638.1000;0.4990;1.3755;
638.4000;0.5006;1.3802;
638.7000;0.5063;1.3967;
639.0000;0.5006;1.3826;
639.3000;0.4925;1.3567;
639.6000;0.5022;1.3896;
639.9000;0.4974;1.3849;
640.2000;0.4998;1.3967;
640.5000;0.4982;1.3873;
640.8000;0.4990;1.3779;
641.1000;0.4965;1.3732;
641.4000;0.5039;1.3920;
641.7000;0.4957;1.3755;
642.0000;0.4917;1.3638;
642.3000;0.5006;1.3826;
642.6000;0.4941;1.3779;
642.9000;0.4941;1.3802;
643.2000;0.4917;1.3638;
643.5000;0.4990;1.3732;
643.8000;0.4933;1.3591;
644.1000;0.4933;1.3638;
644.4000;0.4925;1.3685;
644.7000;0.4908;1.3661;
645.0000;0.4900;1.3638;
645.3000;0.4908;1.3685;
645.6000;0.4900;1.3732;
645.9000;0.4900;1.3755;
646.2000;0.4892;1.3779;
646.5000;0.4819;1.3591;
646.8000;0.4965;1.4060;
647.1000;0.4860;1.3802;
647.4000;0.4884;1.3873;
647.7000;0.4851;1.3896;
648.0000;0.4876;1.3990;
648.3000;0.4876;1.3849;
648.6000;0.4860;1.3826;
648.9000;0.4851;1.3873;
649.2000;0.4843;1.3849;
649.5000;0.4900;1.3943;
649.8000;0.4851;1.3732;
650.1000;0.4835;1.3732;
650.4000;0.4868;1.3802;
650.7000;0.4860;1.3779;
651.0000;0.4827;1.3638;
651.3000;0.4860;1.3708;
651.6000;0.4876;1.3708;
651.9000;0.4843;1.3638;
652.2000;0.4811;1.3567;
652.5000;0.4851;1.3685;
652.8000;0.4819;1.3708;
653.1000;0.4819;1.3661;
653.4000;0.4835;1.3685;
653.7000;0.4811;1.3755;
654.0000;0.4803;1.3779;
654.3000;0.4811;1.3708;
654.6000;0.4860;1.3849;
654.9000;0.4794;1.3708;
655.2000;0.4811;1.3826;
655.5000;0.4803;1.3826;
655.8000;0.4827;1.3896;
656.1000;0.4794;1.3779;
656.4000;0.4794;1.3685;
656.7000;0.4762;1.3685;
657.0000;0.4803;1.3826;
657.3000;0.4794;1.3708;
657.6000;0.4770;1.3638;
657.9000;0.4754;1.3638;
658.2000;0.4778;1.3638;
658.5000;0.4794;1.3638;
658.8000;0.4746;1.3497;
659.1000;0.4770;1.3450;
659.4000;0.4762;1.3474;
659.7000;0.4770;1.3497;
660.0000;0.4778;1.3474;
660.3000;0.4762;1.3427;
660.6000;0.4746;1.3450;
660.9000;0.4770;1.3450;
661.2000;0.4705;1.3309;
661.5000;0.4754;1.3567;
661.8000;0.4746;1.3544;
662.1000;0.4762;1.3497;
662.4000;0.4737;1.3380;
662.7000;0.4737;1.3380;
663.0000;0.4705;1.3356;
663.3000;0.4713;1.3450;
663.6000;0.4729;1.3567;
663.9000;0.4729;1.3638;
664.2000;0.4746;1.3638;
664.5000;0.4721;1.3614;
664.8000;0.4729;1.3638;
665.1000;0.4721;1.3544;
665.4000;0.4721;1.3521;
665.7000;0.4697;1.3497;
666.0000;0.4721;1.3614;
666.3000;0.4778;1.3779;
666.6000;0.4721;1.3755;
666.9000;0.4705;1.3732;
667.2000;0.4721;1.3849;
667.5000;0.4746;1.3967;
667.8000;0.4713;1.3896;
668.1000;0.4664;1.3779;
668.4000;0.4689;1.3849;
668.7000;0.4697;1.3802;
669.0000;0.4705;1.3849;
669.3000;0.4689;1.3896;
669.6000;0.4681;1.3873;
669.9000;0.4681;1.3873;
670.2000;0.4689;1.3849;
670.5000;0.4689;1.3849;
670.8000;0.4689;1.3849;
671.1000;0.4697;1.3943;
671.4000;0.4705;1.3896;
671.7000;0.4705;1.3920;
672.0000;0.4681;1.3849;
672.3000;0.4697;1.3873;
672.6000;0.4664;1.3779;
672.9000;0.4689;1.3755;
673.2000;0.4681;1.3732;
673.5000;0.4664;1.3732;
673.8000;0.4656;1.3826;
674.1000;0.4632;1.3661;
674.4000;0.4599;1.3521;
674.7000;0.4656;1.3638;
675.0000;0.4648;1.3732;
675.3000;0.4664;1.3708;
675.6000;0.4632;1.3591;
675.9000;0.4640;1.3567;
676.2000;0.4656;1.3638;
676.5000;0.4640;1.3544;
676.8000;0.4656;1.3614;
677.1000;0.4656;1.3638;
677.4000;0.4648;1.3567;
677.7000;0.4656;1.3614;
678.0000;0.4664;1.3614;
678.3000;0.4656;1.3591;
678.6000;0.4648;1.3591;
678.9000;0.4664;1.3591;
679.2000;0.4664;1.3614;
679.5000;0.4648;1.3567;
679.8000;0.4648;1.3544;
680.1000;0.4648;1.3567;
680.4000;0.4648;1.3638;
680.7000;0.4656;1.3661;
681.0000;0.4583;1.3474;
681.3000;0.4648;1.3685;
681.6000;0.4656;1.3685;
681.9000;0.4648;1.3685;
682.2000;0.4648;1.3638;
682.5000;0.4632;1.3591;
682.8000;0.4705;1.3802;
683.1000;0.4640;1.3732;
683.4000;0.4624;1.3708;
683.7000;0.4632;1.3802;
684.0000;0.4640;1.3849;
684.3000;0.4656;1.3896;
684.6000;0.4632;1.3708;
684.9000;0.4607;1.3638;
685.2000;0.4648;1.3708;
685.5000;0.4607;1.3638;
685.8000;0.4632;1.3661;
686.1000;0.4632;1.3685;
686.4000;0.4615;1.3661;
686.7000;0.4615;1.3614;
687.0000;0.4607;1.3591;
687.3000;0.4542;1.3427;
687.6000;0.4607;1.3638;
687.9000;0.4624;1.3755;
688.2000;0.4615;1.3732;
688.5000;0.4615;1.3685;
688.8000;0.4591;1.3661;
689.1000;0.4607;1.3685;
689.4000;0.4607;1.3638;
689.7000;0.4607;1.3732;
690.0000;0.4607;1.3732;
690.3000;0.4575;1.3755;
690.6000;0.4607;1.3732;
690.9000;0.4599;1.3638;
691.2000;0.4583;1.3567;
691.5000;0.4607;1.3708;
691.8000;0.4607;1.3826;
692.1000;0.4615;1.3896;
692.4000;0.4591;1.3779;
692.7000;0.4599;1.3802;
693.0000;0.4599;1.3873;
693.3000;0.4615;1.3896;
693.6000;0.4599;1.3779;
693.9000;0.4607;1.3802;
694.2000;0.4599;1.3802;
694.5000;0.4583;1.3685;
694.8000;0.4599;1.3873;
695.1000;0.4583;1.3873;
695.4000;0.4575;1.3896;
695.7000;0.4599;1.3967;
696.0000;0.4575;1.3873;
696.3000;0.4599;1.3896;
696.6000;0.4591;1.3779;
696.9000;0.4591;1.3708;
697.2000;0.4591;1.3708;
697.5000;0.4567;1.3732;
697.8000;0.4599;1.3873;
698.1000;0.4575;1.3943;
698.4000;0.4591;1.3920;
698.7000;0.4591;1.3826;
699.0000;0.4575;1.3732;
699.3000;0.4583;1.3708;
699.6000;0.4599;1.3779;
699.9000;0.4591;1.3873;
700.2000;0.4591;1.3920;
700.5000;0.4583;1.3873;
700.8000;0.4583;1.3826;
701.1000;0.4591;1.3896;
701.4000;0.4583;1.3920;
701.7000;0.4615;1.4013;
702.0000;0.4550;1.3943;
702.3000;0.4583;1.3990;
702.6000;0.4575;1.3896;
702.9000;0.4583;1.3849;
703.2000;0.4575;1.3802;
703.5000;0.4599;1.3826;
703.8000;0.4607;1.3802;
704.1000;0.4567;1.3755;
704.4000;0.4575;1.3685;
704.7000;0.4599;1.3685;
705.0000;0.4567;1.3685;
705.3000;0.4575;1.3732;
705.6000;0.4583;1.3755;
705.9000;0.4583;1.3779;
706.2000;0.4591;1.3920;
706.5000;0.4591;1.3849;
706.8000;0.4599;1.3920;
707.1000;0.4558;1.3826;
707.4000;0.4558;1.3755;
707.7000;0.4607;1.3849;
708.0000;0.4575;1.3661;
708.3000;0.4558;1.3708;
708.6000;0.4501;1.3567;
708.9000;0.4567;1.3708;
709.2000;0.4624;1.3826;
709.5000;0.4567;1.3685;
709.8000;0.4567;1.3661;
710.1000;0.4664;1.3990;
710.4000;0.4583;1.3779;
710.7000;0.4591;1.3638;
711.0000;0.4567;1.3591;
711.3000;0.4493;1.3309;
711.6000;0.4567;1.3497;
711.9000;0.4567;1.3403;
712.2000;0.4550;1.3380;
712.5000;0.4558;1.3356;
712.8000;0.4558;1.3380;
713.1000;0.4567;1.3403;
713.4000;0.4558;1.3497;
713.7000;0.4567;1.3544;
714.0000;0.4550;1.3544;
714.3000;0.4485;1.3309;
714.6000;0.4567;1.3544;
714.9000;0.4575;1.3614;
715.2000;0.4567;1.3708;
715.5000;0.4575;1.3732;
715.8000;0.4567;1.3708;
716.1000;0.4558;1.3685;
716.4000;0.4567;1.3755;
716.7000;0.4567;1.3732;
717.0000;0.4526;1.3661;
717.3000;0.4542;1.3661;
717.6000;0.4550;1.3614;
717.9000;0.4534;1.3661;
718.2000;0.4534;1.3708;
718.5000;0.4534;1.3685;
718.8000;0.4550;1.3732;
719.1000;0.4542;1.3685;
719.4000;0.4542;1.3614;
719.7000;0.4583;1.3661;
720.0000;0.4558;1.3614;
720.3000;0.4550;1.3661;
720.6000;0.4575;1.3732;
720.9000;0.4558;1.3779;
721.2000;0.4534;1.3802;
721.5000;0.4550;1.3849;
721.8000;0.4558;1.3849;
722.1000;0.4526;1.3732;
722.4000;0.4567;1.3826;
722.7000;0.4493;1.3544;
723.0000;0.4526;1.3544;
723.3000;0.4550;1.3591;
723.6000;0.4428;1.3262;
723.9000;0.4534;1.3567;
724.2000;0.4518;1.3591;
724.5000;0.4550;1.3685;
724.8000;0.4542;1.3638;
725.1000;0.4534;1.3708;
725.4000;0.4567;1.3873;
725.7000;0.4583;1.4037;
726.0000;0.4534;1.3873;
726.3000;0.4542;1.3779;
726.6000;0.4542;1.3708;
726.9000;0.4542;1.3708;
727.2000;0.4542;1.3685;
727.5000;0.4526;1.3708;
727.8000;0.4493;1.3708;
728.1000;0.4534;1.3779;
728.4000;0.4550;1.3732;
728.7000;0.4550;1.3732;
729.0000;0.4534;1.3614;
729.3000;0.4526;1.3638;
729.6000;0.4518;1.3474;
729.9000;0.4510;1.3497;
730.2000;0.4518;1.3521;
730.5000;0.4493;1.3403;
730.8000;0.4542;1.3567;
731.1000;0.4534;1.3614;
731.4000;0.4518;1.3497;
731.7000;0.4501;1.3427;
732.0000;0.4518;1.3544;
732.3000;0.4518;1.3638;
732.6000;0.4534;1.3685;
732.9000;0.4518;1.3685;
733.2000;0.4526;1.3708;
733.5000;0.4526;1.3685;
733.8000;0.4526;1.3567;
734.1000;0.4501;1.3544;
734.4000;0.4510;1.3474;
734.7000;0.4510;1.3450;
735.0000;0.4534;1.3474;
735.3000;0.4428;1.3168;
735.6000;0.4534;1.3521;
735.9000;0.4542;1.3567;
736.2000;0.4526;1.3591;
736.5000;0.4534;1.3661;
736.8000;0.4542;1.3685;
737.1000;0.4542;1.3755;
737.4000;0.4542;1.3732;
737.7000;0.4534;1.3755;
738.0000;0.4542;1.3873;
738.3000;0.4542;1.3873;
738.6000;0.4501;1.3849;
738.9000;0.4534;1.3826;
739.2000;0.4501;1.3755;
739.5000;0.4526;1.3755;
739.8000;0.4518;1.3755;
740.1000;0.4526;1.3873;
740.4000;0.4526;1.3779;
740.7000;0.4501;1.3685;
741.0000;0.4526;1.3802;
741.3000;0.4510;1.3896;
741.6000;0.4518;1.3873;
741.9000;0.4510;1.3826;
742.2000;0.4510;1.3826;
742.5000;0.4518;1.3779;
742.8000;0.4501;1.3849;
743.1000;0.4510;1.3873;
743.4000;0.4526;1.3802;
743.7000;0.4485;1.3755;
744.0000;0.4510;1.3708;
744.3000;0.4501;1.3638;
744.6000;0.4510;1.3661;
744.9000;0.4526;1.3661;
745.2000;0.4518;1.3755;
745.5000;0.4510;1.3826;
745.8000;0.4493;1.3826;
746.1000;0.4510;1.3779;
746.4000;0.4501;1.3685;
746.7000;0.4510;1.3708;
747.0000;0.4518;1.3685;
747.3000;0.4518;1.3732;
747.6000;0.4599;1.3920;
747.9000;0.4518;1.3708;
748.2000;0.4510;1.3661;
748.5000;0.4518;1.3638;
748.8000;0.4518;1.3567;
749.1000;0.4510;1.3638;
749.4000;0.4510;1.3685;
749.7000;0.4534;1.3779;
750.0000;0.4485;1.3732;
750.3000;0.4510;1.3638;
750.6000;0.4477;1.3474;
750.9000;0.4485;1.3497;
751.2000;0.4501;1.3567;
751.5000;0.4510;1.3661;
751.8000;0.4526;1.3826;
752.1000;0.4485;1.3755;
752.4000;0.4493;1.3779;
752.7000;0.4583;1.4084;
753.0000;0.4534;1.4037;
753.3000;0.4542;1.3920;
753.6000;0.4485;1.3779;
753.9000;0.4510;1.3779;
754.2000;0.4510;1.3802;
754.5000;0.4493;1.3732;
754.8000;0.4518;1.3802;
755.1000;0.4501;1.3779;
755.4000;0.4510;1.3920;
755.7000;0.4477;1.3802;
756.0000;0.4461;1.3802;
756.3000;0.4501;1.3779;
756.6000;0.4518;1.3826;
756.9000;0.4493;1.3755;
757.2000;0.4567;1.3967;
757.5000;0.4493;1.3732;
757.8000;0.4493;1.3802;
758.1000;0.4510;1.3802;
758.4000;0.4501;1.3802;
758.7000;0.4485;1.3732;
759.0000;0.4501;1.3779;
759.3000;0.4501;1.3826;
759.6000;0.4485;1.3779;
759.9000;0.4485;1.3779;
760.2000;0.4477;1.3802;
760.5000;0.4493;1.3779;
760.8000;0.4493;1.3802;
761.1000;0.4510;1.3849;
761.4000;0.4501;1.3779;
761.7000;0.4493;1.3802;
762.0000;0.4493;1.3802;
762.3000;0.4493;1.3826;
762.6000;0.4485;1.3873;
762.9000;0.4485;1.3896;
763.2000;0.4493;1.3826;
763.5000;0.4461;1.3708;
763.8000;0.4436;1.3661;
764.1000;0.4501;1.3802;
764.4000;0.4493;1.3802;
764.7000;0.4526;1.3849;
765.0000;0.4477;1.3826;
765.3000;0.4387;1.3567;
765.6000;0.4501;1.3802;
765.9000;0.4501;1.3802;
766.2000;0.4493;1.3802;
766.5000;0.4510;1.3873;
766.8000;0.4469;1.3779;
767.1000;0.4501;1.3826;
767.4000;0.4493;1.3779;
767.7000;0.4558;1.3943;
768.0000;0.4485;1.3755;
768.3000;0.4493;1.3685;
768.6000;0.4412;1.3380;
768.9000;0.4501;1.3614;
769.2000;0.4485;1.3614;
769.5000;0.4485;1.3685;
769.8000;0.4501;1.3779;
770.1000;0.4510;1.3873;
770.4000;0.4412;1.3614;
770.7000;0.4469;1.3802;
771.0000;0.4461;1.3732;
771.3000;0.4510;1.3802;
771.6000;0.4461;1.3661;
771.9000;0.4534;1.3896;
772.2000;0.4558;1.3920;
772.5000;0.4477;1.3685;
772.8000;0.4453;1.3567;
773.1000;0.4477;1.3685;
773.4000;0.4485;1.3802;
773.7000;0.4485;1.3685;
774.0000;0.4469;1.3591;
774.3000;0.4485;1.3708;
774.6000;0.4477;1.3708;
774.9000;0.4501;1.3732;
775.2000;0.4485;1.3661;
775.5000;0.4493;1.3661;
775.8000;0.4534;1.3802;
776.1000;0.4501;1.3708;
776.4000;0.4493;1.3732;
776.7000;0.4493;1.3732;
777.0000;0.4510;1.3732;
777.3000;0.4534;1.3826;
777.6000;0.4510;1.3661;
777.9000;0.4493;1.3591;
778.2000;0.4518;1.3638;
778.5000;0.4501;1.3567;
778.8000;0.4461;1.3567;
779.1000;0.4477;1.3544;
779.4000;0.4477;1.3591;
779.7000;0.4534;1.3802;
780.0000;0.4485;1.3755;
780.3000;0.4485;1.3708;
780.6000;0.4485;1.3732;
780.9000;0.4485;1.3755;
781.2000;0.4493;1.3802;
781.5000;0.4477;1.3779;
781.8000;0.4493;1.3685;
782.1000;0.4477;1.3708;
782.4000;0.4477;1.3802;
782.7000;0.4485;1.3826;
783.0000;0.4477;1.3826;
783.3000;0.4453;1.3755;
783.6000;0.4477;1.3873;
783.9000;0.4477;1.3849;
784.2000;0.4493;1.3990;
784.5000;0.4485;1.3943;
784.8000;0.4501;1.3920;
785.1000;0.4469;1.3826;
785.4000;0.4477;1.3802;
785.7000;0.4477;1.3802;
786.0000;0.4477;1.3802;
786.3000;0.4379;1.3567;
786.6000;0.4485;1.3755;
786.9000;0.4485;1.3661;
787.2000;0.4526;1.3802;
787.5000;0.4510;1.3708;
787.8000;0.4493;1.3685;
788.1000;0.4469;1.3779;
788.4000;0.4485;1.3802;
788.7000;0.4477;1.3826;
789.0000;0.4485;1.3873;
789.3000;0.4493;1.3849;
789.6000;0.4485;1.3779;
789.9000;0.4485;1.3755;
790.2000;0.4493;1.3779;
790.5000;0.4485;1.3849;
790.8000;0.4477;1.3849;
791.1000;0.4477;1.3826;
791.4000;0.4469;1.3873;
791.7000;0.4493;1.3943;
792.0000;0.4469;1.3943;
792.3000;0.4485;1.3943;
792.6000;0.4485;1.3943;
792.9000;0.4477;1.3849;
793.2000;0.4469;1.3826;
793.5000;0.4461;1.3802;
793.8000;0.4428;1.3661;
794.1000;0.4461;1.3755;
794.4000;0.4444;1.3779;
794.7000;0.4461;1.3755;
795.0000;0.4469;1.3779;
795.3000;0.4477;1.3826;
795.6000;0.4477;1.3896;
795.9000;0.4493;1.3849;
796.2000;0.4485;1.3896;
796.5000;0.4477;1.3943;
796.8000;0.4493;1.3967;
797.1000;0.4461;1.3967;
797.4000;0.4469;1.3990;
797.7000;0.4493;1.3920;
798.0000;0.4493;1.3920;
798.3000;0.4469;1.3967;
798.6000;0.4493;1.3967;
798.9000;0.4469;1.3849;
799.2000;0.4485;1.3920;
799.5000;0.4469;1.3896;
799.8000;0.4575;1.4131;
800.1000;0.4477;1.3873;
800.4000;0.4469;1.3849;
800.7000;0.4461;1.3755;
801.0000;0.4493;1.3779;
801.3000;0.4453;1.3614;
801.6000;0.4469;1.3661;
801.9000;0.4453;1.3638;
802.2000;0.4469;1.3638;
802.5000;0.4461;1.3638;
802.8000;0.4477;1.3779;
803.1000;0.4493;1.3826;
803.4000;0.4444;1.3638;
803.7000;0.4461;1.3779;
804.0000;0.4469;1.3779;
804.3000;0.4469;1.3849;
804.6000;0.4469;1.3779;
804.9000;0.4469;1.3873;
805.2000;0.4493;1.3849;
805.5000;0.4485;1.3849;
805.8000;0.4477;1.3755;
806.1000;0.4461;1.3708;
806.4000;0.4428;1.3521;
806.7000;0.4542;1.3873;
807.0000;0.4428;1.3591;
807.3000;0.4444;1.3661;
807.6000;0.4469;1.3755;
807.9000;0.4485;1.3708;
808.2000;0.4493;1.3779;
808.5000;0.4485;1.3732;
808.8000;0.4493;1.3802;
809.1000;0.4387;1.3497;
809.4000;0.4493;1.3732;
809.7000;0.4477;1.3708;
810.0000;0.4453;1.3802;
810.3000;0.4428;1.3779;
810.6000;0.4461;1.3920;
810.9000;0.4493;1.3967;
811.2000;0.4461;1.3849;
811.5000;0.4477;1.3826;
811.8000;0.4477;1.3779;
812.1000;0.4485;1.3826;
812.4000;0.4510;1.3967;
812.7000;0.4477;1.3990;
813.0000;0.4493;1.4084;
813.3000;0.4477;1.4107;
813.6000;0.4493;1.4013;
813.9000;0.4469;1.4060;
814.2000;0.4444;1.4013;
814.5000;0.4469;1.3990;
814.8000;0.4485;1.4013;
815.1000;0.4493;1.4037;
815.4000;0.4444;1.3849;
815.7000;0.4526;1.4013;
816.0000;0.4485;1.3967;
816.3000;0.4485;1.4013;
816.6000;0.4396;1.3779;
816.9000;0.4453;1.3920;
817.2000;0.4453;1.3990;
817.5000;0.4461;1.3967;
817.8000;0.4534;1.4225;
818.1000;0.4461;1.4037;
818.4000;0.4477;1.4084;
818.7000;0.4485;1.4084;
819.0000;0.4444;1.4013;
819.3000;0.4477;1.3967;
819.6000;0.4436;1.3967;
819.9000;0.4469;1.4013;
820.2000;0.4477;1.3943;
820.5000;0.4453;1.3849;
820.8000;0.4469;1.3896;
821.1000;0.4469;1.3920;
821.4000;0.4453;1.3873;
821.7000;0.4461;1.3873;
822.0000;0.4453;1.3755;
822.3000;0.4461;1.3755;
822.6000;0.4469;1.3779;
822.9000;0.4477;1.3779;
823.2000;0.4453;1.3755;
823.5000;0.4461;1.3826;
823.8000;0.4493;1.3920;
824.1000;0.4444;1.3802;
824.4000;0.4477;1.3802;
824.7000;0.4461;1.3661;
825.0000;0.4387;1.3450;
825.3000;0.4461;1.3638;
825.6000;0.4453;1.3661;
825.9000;0.4444;1.3661;
826.2000;0.4469;1.3732;
826.5000;0.4477;1.3755;
826.8000;0.4444;1.3755;
827.1000;0.4461;1.3708;
827.4000;0.4444;1.3732;
827.7000;0.4453;1.3732;
828.0000;0.4461;1.3755;
828.3000;0.4453;1.3732;
828.6000;0.4444;1.3755;
828.9000;0.4453;1.3779;
829.2000;0.4477;1.3755;
829.5000;0.4477;1.3779;
829.8000;0.4461;1.3708;
830.1000;0.4477;1.3685;
830.4000;0.4477;1.3732;
830.7000;0.4469;1.3779;
831.0000;0.4444;1.3755;
831.3000;0.4510;1.3802;
831.6000;0.4469;1.3708;
831.9000;0.4453;1.3708;
832.2000;0.4453;1.3755;
832.5000;0.4469;1.3920;
832.8000;0.4477;1.3920;
833.1000;0.4461;1.3943;
833.4000;0.4485;1.4013;
833.7000;0.4493;1.4107;
834.0000;0.4461;1.3943;
834.3000;0.4436;1.3802;
834.6000;0.4436;1.3802;
834.9000;0.4444;1.3755;
835.2000;0.4477;1.3802;
835.5000;0.4477;1.3779;
835.8000;0.4436;1.3685;
836.1000;0.4469;1.3826;
836.4000;0.4469;1.3779;
836.7000;0.4469;1.3661;
837.0000;0.4444;1.3591;
837.3000;0.4469;1.3544;
837.6000;0.4444;1.3544;
837.9000;0.4485;1.3638;
838.2000;0.4461;1.3591;
838.5000;0.4453;1.3591;
838.8000;0.4396;1.3450;
839.1000;0.4485;1.3591;
839.4000;0.4469;1.3497;
839.7000;0.4453;1.3521;
840.0000;0.4461;1.3638;
840.3000;0.4501;1.3873;
840.6000;0.4412;1.3567;
840.9000;0.4469;1.3614;
841.2000;0.4469;1.3544;
841.5000;0.4428;1.3497;
841.8000;0.4453;1.3567;
842.1000;0.4453;1.3614;
842.4000;0.4461;1.3661;
842.7000;0.4444;1.3567;
843.0000;0.4461;1.3567;
843.3000;0.4461;1.3614;
843.6000;0.4461;1.3614;
843.9000;0.4477;1.3755;
844.2000;0.4461;1.3826;
844.5000;0.4485;1.3896;
844.8000;0.4477;1.3896;
845.1000;0.4469;1.3873;
845.4000;0.4461;1.3943;
845.7000;0.4461;1.3802;
846.0000;0.4477;1.3755;
846.3000;0.4477;1.3708;
846.6000;0.4453;1.3685;
846.9000;0.4469;1.3755;
847.2000;0.4453;1.3685;
847.5000;0.4469;1.3638;
847.8000;0.4428;1.3614;
848.1000;0.4428;1.3732;
848.4000;0.4461;1.3779;
848.7000;0.4461;1.3826;
849.0000;0.4453;1.3802;
849.3000;0.4477;1.3920;
849.6000;0.4444;1.3849;
849.9000;0.4453;1.3802;
850.2000;0.4461;1.3826;
850.5000;0.4453;1.3802;
850.8000;0.4469;1.3779;
851.1000;0.4477;1.3873;
851.4000;0.4453;1.3873;
851.7000;0.4469;1.3920;
852.0000;0.4469;1.3873;
852.3000;0.4477;1.3943;
852.6000;0.4444;1.3802;
852.9000;0.4428;1.3779;
853.2000;0.4461;1.3779;
853.5000;0.4469;1.3708;
853.8000;0.4412;1.3591;
854.1000;0.4461;1.3732;
854.4000;0.4469;1.3849;
854.7000;0.4396;1.3755;
855.0000;0.4477;1.3967;
855.3000;0.4534;1.4131;
855.6000;0.4469;1.3920;
855.9000;0.4485;1.3896;
856.2000;0.4477;1.3802;
856.5000;0.4428;1.3732;
856.8000;0.4436;1.3732;
857.1000;0.4461;1.3779;
857.4000;0.4477;1.3732;
857.7000;0.4461;1.3802;
858.0000;0.4444;1.3685;
858.3000;0.4583;1.3967;
858.6000;0.4469;1.3661;
858.9000;0.4444;1.3708;
859.2000;0.4453;1.3638;
859.5000;0.4453;1.3661;
859.8000;0.4453;1.3614;
860.1000;0.4461;1.3708;
860.4000;0.4453;1.3708;
860.7000;0.4485;1.3779;
861.0000;0.4453;1.3755;
861.3000;0.4469;1.3779;
861.6000;0.4453;1.3826;
861.9000;0.4453;1.3849;
862.2000;0.4461;1.3990;
862.5000;0.4534;1.4084;
862.8000;0.4461;1.3849;
863.1000;0.4510;1.4013;
863.4000;0.4453;1.3779;
863.7000;0.4461;1.3802;
864.0000;0.4461;1.3826;
864.3000;0.4453;1.3661;
864.6000;0.4501;1.3779;
864.9000;0.4485;1.3685;
865.2000;0.4461;1.3567;
865.5000;0.4461;1.3614;
865.8000;0.4461;1.3567;
866.1000;0.4461;1.3591;
866.4000;0.4493;1.3614;
866.7000;0.4453;1.3544;
867.0000;0.4453;1.3497;
867.3000;0.4477;1.3638;
867.6000;0.4485;1.3779;
867.9000;0.4469;1.3708;
868.2000;0.4477;1.3685;
868.5000;0.4453;1.3661;
868.8000;0.4461;1.3732;
869.1000;0.4453;1.3779;
869.4000;0.4461;1.3896;
869.7000;0.4453;1.3849;
870.0000;0.4469;1.3849;
870.3000;0.4453;1.3896;
870.6000;0.4453;1.3920;
870.9000;0.4461;1.3967;
871.2000;0.4444;1.3967;
871.5000;0.4477;1.4084;
871.8000;0.4477;1.4013;
872.1000;0.4469;1.3943;
872.4000;0.4453;1.3990;
872.7000;0.4453;1.4060;
873.0000;0.4477;1.4154;
873.3000;0.4477;1.4178;
873.6000;0.4453;1.4107;
873.9000;0.4485;1.4084;
874.2000;0.4477;1.4084;
874.5000;0.4436;1.3990;
874.8000;0.4436;1.3990;
875.1000;0.4461;1.4060;
875.4000;0.4461;1.4037;
875.7000;0.4444;1.3967;
876.0000;0.4477;1.3943;
876.3000;0.4412;1.3708;
876.6000;0.4477;1.3802;
876.9000;0.4461;1.3826;
877.2000;0.4363;1.3591;
877.5000;0.4461;1.3873;
877.8000;0.4469;1.3873;
878.1000;0.4485;1.3826;
878.4000;0.4493;1.3896;
878.7000;0.4469;1.3802;
879.0000;0.4461;1.3732;
879.3000;0.4379;1.3497;
879.6000;0.4436;1.3708;
879.9000;0.4461;1.3779;
880.2000;0.4453;1.3755;
880.5000;0.4428;1.3708;
880.8000;0.4461;1.3732;
881.1000;0.4453;1.3732;
881.4000;0.4461;1.3873;
881.7000;0.4469;1.3896;
882.0000;0.4453;1.3826;
882.3000;0.4453;1.3826;
882.6000;0.4461;1.3920;
882.9000;0.4461;1.3943;
883.2000;0.4477;1.4013;
883.5000;0.4453;1.3967;
883.8000;0.4469;1.4060;
884.1000;0.4453;1.4084;
884.4000;0.4461;1.4084;
884.7000;0.4461;1.3943;
885.0000;0.4461;1.3802;
885.3000;0.4485;1.3896;
885.6000;0.4436;1.3826;
885.9000;0.4436;1.3849;
886.2000;0.4428;1.3802;
886.5000;0.4453;1.3849;
886.8000;0.4461;1.3779;
887.1000;0.4461;1.3779;
887.4000;0.4453;1.3755;
887.7000;0.4436;1.3685;
888.0000;0.4461;1.3732;
888.3000;0.4420;1.3661;
888.6000;0.4396;1.3591;
888.9000;0.4436;1.3661;
889.2000;0.4428;1.3614;
889.5000;0.4469;1.3685;
889.8000;0.4453;1.3638;
890.1000;0.4412;1.3497;
890.4000;0.4444;1.3638;
890.7000;0.4453;1.3755;
891.0000;0.4453;1.3755;
891.3000;0.4420;1.3779;
891.6000;0.4436;1.3708;
891.9000;0.4444;1.3661;
892.2000;0.4444;1.3732;
892.5000;0.4469;1.3708;
892.8000;0.4436;1.3685;
893.1000;0.4444;1.3732;
893.4000;0.4461;1.3661;
893.7000;0.4461;1.3661;
894.0000;0.4428;1.3755;
894.3000;0.4453;1.3849;
894.6000;0.4461;1.3943;
894.9000;0.4444;1.3967;
895.2000;0.4436;1.3920;
895.5000;0.4444;1.3943;
895.8000;0.4428;1.3849;
896.1000;0.4461;1.3873;
896.4000;0.4436;1.3826;
896.7000;0.4387;1.3638;
897.0000;0.4444;1.3802;
897.3000;0.4428;1.3826;
897.6000;0.4453;1.3802;
897.9000;0.4485;1.3896;
898.2000;0.4461;1.3849;
898.5000;0.4436;1.3732;
898.8000;0.4461;1.3755;
899.1000;0.4444;1.3755;
899.4000;0.4444;1.3849;
899.7000;0.4404;1.3779;
900.0000;0.4469;1.3920;
900.3000;0.4461;1.3896;
900.6000;0.4469;1.3826;
900.9000;0.4444;1.3779;
901.2000;0.4461;1.3896;
901.5000;0.4461;1.3943;
901.8000;0.4501;1.4084;
902.1000;0.4444;1.3990;
902.4000;0.4453;1.3896;
902.7000;0.4436;1.3896;
903.0000;0.4436;1.3826;
903.3000;0.4453;1.3873;
903.6000;0.4461;1.3849;
903.9000;0.4444;1.3802;
904.2000;0.4436;1.3732;
904.5000;0.4330;1.3450;
904.8000;0.4461;1.3732;
905.1000;0.4453;1.3685;
905.4000;0.4444;1.3779;
905.7000;0.4453;1.3755;
906.0000;0.4461;1.3779;
906.3000;0.4461;1.3826;
906.6000;0.4444;1.3873;
906.9000;0.4444;1.3849;
907.2000;0.4444;1.3826;
907.5000;0.4461;1.3967;
907.8000;0.4453;1.3943;
908.1000;0.4453;1.3920;
908.4000;0.4444;1.3943;
908.7000;0.4453;1.3920;
909.0000;0.4444;1.3920;
909.3000;0.4444;1.3920;
909.6000;0.4387;1.3779;
909.9000;0.4453;1.3990;
910.2000;0.4453;1.4037;
910.5000;0.4453;1.4013;
910.8000;0.4453;1.4037;
911.1000;0.4444;1.3990;
911.4000;0.4453;1.3920;
911.7000;0.4444;1.3873;
912.0000;0.4436;1.3873;
912.3000;0.4461;1.3967;
912.6000;0.4428;1.3896;
912.9000;0.4453;1.3873;
913.2000;0.4453;1.3967;
913.5000;0.4453;1.4013;
913.8000;0.4453;1.4107;
914.1000;0.4469;1.4178;
914.4000;0.4436;1.4084;
914.7000;0.4444;1.3990;
915.0000;0.4453;1.4013;
915.3000;0.4469;1.4060;
915.6000;0.4453;1.4107;
915.9000;0.4534;1.4225;
916.2000;0.4453;1.3990;
916.5000;0.4477;1.3967;
916.8000;0.4461;1.3826;
917.1000;0.4453;1.3826;
917.4000;0.4453;1.3849;
917.7000;0.4485;1.3920;
918.0000;0.4453;1.3849;
918.3000;0.4453;1.3755;
918.6000;0.4453;1.3732;
918.9000;0.4453;1.3849;
919.2000;0.4453;1.3849;
919.5000;0.4461;1.3873;
919.8000;0.4469;1.3873;
920.1000;0.4453;1.3732;
920.4000;0.4461;1.3826;
920.7000;0.4453;1.3802;
921.0000;0.4444;1.3802;
921.3000;0.4428;1.3779;
921.6000;0.4444;1.3685;
921.9000;0.4477;1.3708;
922.2000;0.4453;1.3661;
922.5000;0.4444;1.3755;
922.8000;0.4453;1.3802;
923.1000;0.4436;1.3779;
923.4000;0.4461;1.3732;
923.7000;0.4428;1.3779;
924.0000;0.4396;1.3732;
924.3000;0.4461;1.3849;
924.6000;0.4461;1.3755;
924.9000;0.4444;1.3685;
925.2000;0.4428;1.3779;
925.5000;0.4420;1.3849;
925.8000;0.4461;1.4013;
926.1000;0.4428;1.3920;
926.4000;0.4461;1.3920;
926.7000;0.4453;1.3849;
927.0000;0.4436;1.3920;
927.3000;0.4404;1.3802;
927.6000;0.4453;1.3967;
927.9000;0.4461;1.4013;
928.2000;0.4461;1.3990;
928.5000;0.4453;1.3990;
928.8000;0.4510;1.4084;
929.1000;0.4461;1.3990;
929.4000;0.4453;1.3990;
929.7000;0.4412;1.3920;
930.0000;0.4444;1.4084;
930.3000;0.4436;1.4084;
930.6000;0.4444;1.4107;
930.9000;0.4453;1.4084;
931.2000;0.4436;1.4107;
931.5000;0.4461;1.4178;
931.8000;0.4453;1.4107;
932.1000;0.4485;1.4225;
932.4000;0.4485;1.4272;
932.7000;0.4444;1.4154;
933.0000;0.4469;1.4154;
933.3000;0.4469;1.4084;
933.6000;0.4436;1.4060;
933.9000;0.4436;1.4013;
934.2000;0.4444;1.3943;
934.5000;0.4444;1.3896;
934.8000;0.4396;1.3732;
935.1000;0.4453;1.3802;
935.4000;0.4436;1.3708;
935.7000;0.4501;1.3802;
936.0000;0.4493;1.3755;
936.3000;0.4339;1.3450;
936.6000;0.4461;1.3685;
936.9000;0.4453;1.3708;
937.2000;0.4444;1.3661;
937.5000;0.4477;1.3802;
937.8000;0.4444;1.3685;
938.1000;0.4444;1.3614;
938.4000;0.4461;1.3732;
938.7000;0.4453;1.3685;
939.0000;0.4379;1.3497;
939.3000;0.4428;1.3732;
939.6000;0.4453;1.3802;
939.9000;0.4412;1.3732;
940.2000;0.4453;1.3849;
940.5000;0.4428;1.3779;
940.8000;0.4444;1.3896;
941.1000;0.4453;1.3920;
941.4000;0.4453;1.3920;
941.7000;0.4453;1.3920;
942.0000;0.4453;1.3896;
942.3000;0.4444;1.3802;
942.6000;0.4461;1.3802;
942.9000;0.4461;1.3708;
943.2000;0.4453;1.3732;
943.5000;0.4453;1.3755;
943.8000;0.4469;1.3755;
944.1000;0.4453;1.3732;
944.4000;0.4461;1.3708;
944.7000;0.4436;1.3755;
945.0000;0.4444;1.3826;
945.3000;0.4379;1.3614;
945.6000;0.4453;1.3802;
945.9000;0.4461;1.3802;
946.2000;0.4436;1.3849;
946.5000;0.4444;1.3826;
946.8000;0.4444;1.3873;
947.1000;0.4436;1.3920;
947.4000;0.4444;1.3990;
947.7000;0.4558;1.4272;
948.0000;0.4453;1.3967;
948.3000;0.4436;1.3943;
948.6000;0.4428;1.3990;
948.9000;0.4404;1.3943;
949.2000;0.4453;1.4037;
949.5000;0.4436;1.4037;
949.8000;0.4453;1.3967;
950.1000;0.4444;1.3943;
950.4000;0.4436;1.3873;
950.7000;0.4461;1.3967;
951.0000;0.4436;1.3826;
951.3000;0.4436;1.3779;
951.6000;0.4461;1.3802;
951.9000;0.4436;1.3779;
952.2000;0.4444;1.3755;
952.5000;0.4436;1.3638;
952.8000;0.4444;1.3661;
953.1000;0.4436;1.3661;
953.4000;0.4379;1.3521;
953.7000;0.4493;1.3802;
954.0000;0.4436;1.3732;
954.3000;0.4469;1.3779;
954.6000;0.4453;1.3732;
954.9000;0.4477;1.3755;
955.2000;0.4461;1.3755;
955.5000;0.4444;1.3685;
955.8000;0.4444;1.3661;
956.1000;0.4453;1.3614;
956.4000;0.4501;1.3661;
956.7000;0.4567;1.3896;
957.0000;0.4453;1.3685;
957.3000;0.4444;1.3708;
957.6000;0.4420;1.3685;
957.9000;0.4444;1.3755;
958.2000;0.4444;1.3802;
958.5000;0.4510;1.4037;
958.8000;0.4461;1.3943;
959.1000;0.4420;1.3849;
959.4000;0.4428;1.3896;
959.7000;0.4453;1.3990;
960.0000;0.4420;1.3920;
960.3000;0.4420;1.3873;
960.6000;0.4412;1.3873;
960.9000;0.4428;1.3943;
961.2000;0.4428;1.3990;
961.5000;0.4436;1.3896;
961.8000;0.4453;1.3967;
962.1000;0.4453;1.3967;
962.4000;0.4436;1.3873;
962.7000;0.4461;1.3873;
963.0000;0.4461;1.3873;
963.3000;0.4444;1.3896;
963.6000;0.4436;1.3849;
963.9000;0.4453;1.3873;
964.2000;0.4444;1.3849;
964.5000;0.4453;1.3849;
964.8000;0.4453;1.3755;
965.1000;0.4461;1.3685;
965.4000;0.4469;1.3708;
965.7000;0.4444;1.3661;
966.0000;0.4453;1.3708;
966.3000;0.4444;1.3755;
966.6000;0.4444;1.3732;
966.9000;0.4453;1.3779;
967.2000;0.4461;1.3849;
967.5000;0.4436;1.3755;
967.8000;0.4420;1.3614;
968.1000;0.4453;1.3685;
968.4000;0.4453;1.3638;
968.7000;0.4428;1.3638;
969.0000;0.4396;1.3638;
969.3000;0.4347;1.3474;
969.6000;0.4428;1.3708;
969.9000;0.4461;1.3708;
970.2000;0.4436;1.3708;
970.5000;0.4444;1.3779;
970.8000;0.4436;1.3826;
971.1000;0.4428;1.3802;
971.4000;0.4428;1.3849;
971.7000;0.4428;1.3873;
972.0000;0.4444;1.3943;
972.3000;0.4412;1.3943;
972.6000;0.4436;1.3990;
972.9000;0.4485;1.4107;
973.2000;0.4436;1.4037;
973.5000;0.4444;1.4084;
973.8000;0.4420;1.3943;
974.1000;0.4436;1.3896;
974.4000;0.4477;1.4107;
974.7000;0.4436;1.4037;
975.0000;0.4436;1.4060;
975.3000;0.4428;1.4060;
975.6000;0.4436;1.3967;
975.9000;0.4444;1.3920;
976.2000;0.4453;1.3943;
976.5000;0.4436;1.3826;
976.8000;0.4567;1.4107;
977.1000;0.4436;1.3755;
977.4000;0.4461;1.3826;
977.7000;0.4436;1.3708;
978.0000;0.4444;1.3661;
978.3000;0.4453;1.3732;
978.6000;0.4461;1.3826;
978.9000;0.4436;1.3732;
979.2000;0.4428;1.3732;
979.5000;0.4436;1.3755;
979.8000;0.4485;1.3849;
980.1000;0.4379;1.3638;
980.4000;0.4428;1.3779;
980.7000;0.4428;1.3685;
981.0000;0.4428;1.3708;
981.3000;0.4444;1.3732;
981.6000;0.4339;1.3544;
981.9000;0.4444;1.3802;
982.2000;0.4461;1.3849;
982.5000;0.4453;1.3920;
982.8000;0.4444;1.3920;
983.1000;0.4379;1.3779;
983.4000;0.4436;1.3896;
983.7000;0.4404;1.3779;
984.0000;0.4453;1.3873;
984.3000;0.4436;1.3826;
984.6000;0.4428;1.3802;
984.9000;0.4420;1.3755;
985.2000;0.4444;1.3849;
985.5000;0.4436;1.3826;
985.8000;0.4428;1.3802;
986.1000;0.4436;1.3896;
986.4000;0.4444;1.3826;
986.7000;0.4461;1.3826;
987.0000;0.4444;1.3779;
987.3000;0.4453;1.3779;
987.6000;0.4461;1.3779;
987.9000;0.4444;1.3732;
988.2000;0.4444;1.3708;
988.5000;0.4453;1.3732;
988.8000;0.4444;1.3779;
989.1000;0.4485;1.3943;
989.4000;0.4477;1.3826;
989.7000;0.4436;1.3779;
990.0000;0.4444;1.3779;
990.3000;0.4420;1.3802;
990.6000;0.4453;1.3873;
990.9000;0.4412;1.3779;
991.2000;0.4444;1.3779;
991.5000;0.4453;1.3732;
991.8000;0.4453;1.3802;
992.1000;0.4420;1.3802;
992.4000;0.4444;1.3732;
992.7000;0.4453;1.3755;
993.0000;0.4436;1.3732;
993.3000;0.4542;1.4060;
993.6000;0.4444;1.3802;
993.9000;0.4444;1.3826;
994.2000;0.4469;1.3943;
994.5000;0.4453;1.3873;
994.8000;0.4428;1.3826;
995.1000;0.4436;1.3849;
995.4000;0.4420;1.3708;
995.7000;0.4477;1.3849;
996.0000;0.4428;1.3779;
996.3000;0.4444;1.3708;
996.6000;0.4461;1.3685;
996.9000;0.4428;1.3638;
997.2000;0.4420;1.3661;
997.5000;0.4420;1.3661;
997.8000;0.4420;1.3708;
998.1000;0.4428;1.3638;
998.4000;0.4379;1.3474;
998.7000;0.4444;1.3567;
999.0000;0.4453;1.3638;
999.3000;0.4428;1.3567;
999.6000;0.4436;1.3521;
999.9000;0.4444;1.3497;
1000.2000;0.4436;1.3544;
1000.5000;0.4444;1.3521;
1000.8000;0.4453;1.3544;
1001.1000;0.4428;1.3567;
1001.4000;0.4444;1.3567;
1001.7000;0.4412;1.3497;
1002.0000;0.4444;1.3521;
1002.3000;0.4453;1.3521;
1002.6000;0.4444;1.3427;
1002.9000;0.4444;1.3380;
1003.2000;0.4461;1.3403;
1003.5000;0.4436;1.3403;
1003.8000;0.4420;1.3356;
1004.1000;0.4469;1.3497;
1004.4000;0.4453;1.3474;
1004.7000;0.4371;1.3403;
1005.0000;0.4453;1.3661;
1005.3000;0.4428;1.3685;
1005.6000;0.4428;1.3732;
1005.9000;0.4444;1.3779;
1006.2000;0.4428;1.3873;
1006.5000;0.4420;1.3802;
1006.8000;0.4436;1.3849;
1007.1000;0.4420;1.3920;
1007.4000;0.4436;1.3873;
1007.7000;0.4420;1.3826;
1008.0000;0.4428;1.3849;
1008.3000;0.4412;1.3826;
1008.6000;0.4428;1.3873;
1008.9000;0.4404;1.3755;
1009.2000;0.4412;1.3732;
1009.5000;0.4444;1.3873;
1009.8000;0.4444;1.3873;
1010.1000;0.4412;1.3849;
1010.4000;0.4428;1.3732;
1010.7000;0.4436;1.3708;
1011.0000;0.4477;1.3802;
1011.3000;0.4453;1.3732;
1011.6000;0.4444;1.3826;
1011.9000;0.4436;1.3708;
1012.2000;0.4453;1.3685;
1012.5000;0.4453;1.3661;
1012.8000;0.4428;1.3567;
1013.1000;0.4428;1.3567;
1013.4000;0.4404;1.3521;
1013.7000;0.4436;1.3638;
1014.0000;0.4436;1.3661;
1014.3000;0.4428;1.3661;
1014.6000;0.4453;1.3638;
1014.9000;0.4444;1.3591;
1015.2000;0.4453;1.3661;
1015.5000;0.4428;1.3591;
1015.8000;0.4436;1.3638;
1016.1000;0.4428;1.3661;
1016.4000;0.4453;1.3708;
1016.7000;0.4420;1.3614;
1017.0000;0.4404;1.3497;
1017.3000;0.4412;1.3567;
1017.6000;0.4444;1.3661;
1017.9000;0.4436;1.3732;
1018.2000;0.4444;1.3685;
1018.5000;0.4436;1.3614;
1018.8000;0.4436;1.3638;
1019.1000;0.4436;1.3614;
1019.4000;0.4453;1.3779;
1019.7000;0.4436;1.3732;
1020.0000;0.4436;1.3661;
1020.3000;0.4444;1.3708;
1020.6000;0.4436;1.3614;
1020.9000;0.4444;1.3497;
1021.2000;0.4444;1.3497;
1021.5000;0.4444;1.3591;
1021.8000;0.4428;1.3638;
1022.1000;0.4436;1.3661;
1022.4000;0.4436;1.3685;
1022.7000;0.4461;1.3732;
1023.0000;0.4444;1.3708;
1023.3000;0.4485;1.3849;
1023.6000;0.4453;1.3779;
1023.9000;0.4469;1.3732;
1024.2000;0.4436;1.3661;
1024.5000;0.4461;1.3708;
1024.8000;0.4387;1.3567;
1025.1000;0.4444;1.3614;
1025.4000;0.4453;1.3708;
1025.7000;0.4461;1.3732;
1026.0000;0.4436;1.3614;
1026.3000;0.4436;1.3521;
1026.6000;0.4461;1.3614;
1026.9000;0.4428;1.3661;
1027.2000;0.4444;1.3708;
1027.5000;0.4436;1.3708;
1027.8000;0.4428;1.3732;
1028.1000;0.4436;1.3849;
1028.4000;0.4461;1.3920;
1028.7000;0.4436;1.3873;
1029.0000;0.4444;1.3896;
1029.3000;0.4461;1.3849;
1029.6000;0.4428;1.3732;
1029.9000;0.4469;1.3802;
1030.2000;0.4453;1.3685;
1030.5000;0.4469;1.3708;
1030.8000;0.4444;1.3591;
1031.1000;0.4453;1.3661;
1031.4000;0.4461;1.3685;
1031.7000;0.4387;1.3380;
1032.0000;0.4550;1.3896;
1032.3000;0.4493;1.3755;
1032.6000;0.4436;1.3638;
1032.9000;0.4436;1.3732;
1033.2000;0.4436;1.3755;
1033.5000;0.4444;1.3732;
1033.8000;0.4469;1.3755;
1034.1000;0.4510;1.3849;
1034.4000;0.4461;1.3732;
1034.7000;0.4428;1.3661;
1035.0000;0.4428;1.3732;
1035.3000;0.4444;1.3638;
1035.6000;0.4444;1.3567;
1035.9000;0.4453;1.3638;
1036.2000;0.4436;1.3638;
1036.5000;0.4436;1.3708;
1036.8000;0.4444;1.3708;
1037.1000;0.4436;1.3685;
1037.4000;0.4453;1.3755;
1037.7000;0.4444;1.3755;
1038.0000;0.4453;1.3732;
1038.3000;0.4444;1.3732;
1038.6000;0.4436;1.3638;
1038.9000;0.4428;1.3661;
1039.2000;0.4444;1.3708;
1039.5000;0.4453;1.3661;
1039.8000;0.4420;1.3544;
1040.1000;0.4420;1.3614;
1040.4000;0.4436;1.3685;
1040.7000;0.4453;1.3708;
1041.0000;0.4444;1.3708;
1041.3000;0.4412;1.3685;
1041.6000;0.4444;1.3755;
1041.9000;0.4444;1.3826;
1042.2000;0.4436;1.3826;
1042.5000;0.4428;1.3849;
1042.8000;0.4428;1.3873;
1043.1000;0.4444;1.3849;
1043.4000;0.4485;1.4013;
1043.7000;0.4444;1.3826;
1044.0000;0.4428;1.3732;
1044.3000;0.4444;1.3802;
1044.6000;0.4436;1.3755;
1044.9000;0.4428;1.3708;
1045.2000;0.4436;1.3802;
1045.5000;0.4436;1.3873;
1045.8000;0.4444;1.3873;
1046.1000;0.4428;1.3873;
1046.4000;0.4444;1.3826;
1046.7000;0.4355;1.3544;
1047.0000;0.4420;1.3732;
1047.3000;0.4444;1.3802;
1047.6000;0.4436;1.3779;
1047.9000;0.4444;1.3732;
1048.2000;0.4453;1.3755;
1048.5000;0.4453;1.3708;
1048.8000;0.4436;1.3474;
1049.1000;0.4444;1.3521;
1049.4000;0.4404;1.3497;
1049.7000;0.4436;1.3567;
1050.0000;0.4428;1.3591;
1050.3000;0.4420;1.3567;
1050.6000;0.4404;1.3614;
1050.9000;0.4428;1.3685;
1051.2000;0.4379;1.3614;
1051.5000;0.4371;1.3614;
1051.8000;0.4420;1.3708;
1052.1000;0.4436;1.3826;
1052.4000;0.4387;1.3708;
1052.7000;0.4387;1.3708;
1053.0000;0.4396;1.3779;
1053.3000;0.4453;1.3920;
1053.6000;0.4469;1.4013;
1053.9000;0.4371;1.3755;
1054.2000;0.4428;1.3849;
1054.5000;0.4436;1.3849;
1054.8000;0.4469;1.3896;
1055.1000;0.4436;1.3802;
1055.4000;0.4404;1.3708;
1055.7000;0.4412;1.3755;
1056.0000;0.4461;1.3896;
1056.3000;0.4444;1.3802;
1056.6000;0.4428;1.3685;
1056.9000;0.4436;1.3779;
1057.2000;0.4444;1.3802;
1057.5000;0.4453;1.3755;
1057.8000;0.4420;1.3732;
1058.1000;0.4420;1.3779;
1058.4000;0.4436;1.3802;
1058.7000;0.4444;1.3755;
1059.0000;0.4436;1.3732;
1059.3000;0.4461;1.3779;
1059.6000;0.4453;1.3755;
1059.9000;0.4444;1.3708;
1060.2000;0.4444;1.3779;
1060.5000;0.4428;1.3755;
1060.8000;0.4461;1.3779;
1061.1000;0.4453;1.3732;
1061.4000;0.4461;1.3732;
1061.7000;0.4444;1.3685;
1062.0000;0.4436;1.3732;
1062.3000;0.4436;1.3755;
1062.6000;0.4461;1.3732;
1062.9000;0.4436;1.3638;
1063.2000;0.4444;1.3661;
1063.5000;0.4436;1.3661;
1063.8000;0.4436;1.3685;
1064.1000;0.4436;1.3685;
1064.4000;0.4469;1.3755;
1064.7000;0.4428;1.3708;
1065.0000;0.4420;1.3732;
1065.3000;0.4436;1.3779;
1065.6000;0.4436;1.3779;
1065.9000;0.4444;1.3708;
1066.2000;0.4444;1.3755;
1066.5000;0.4583;1.4060;
1066.8000;0.4420;1.3638;
1067.1000;0.4444;1.3661;
1067.4000;0.4518;1.3849;
1067.7000;0.4461;1.3638;
1068.0000;0.4436;1.3521;
1068.3000;0.4453;1.3567;
1068.6000;0.4444;1.3427;
1068.9000;0.4444;1.3450;
1069.2000;0.4436;1.3521;
1069.5000;0.4453;1.3638;
1069.8000;0.4428;1.3685;
1070.1000;0.4453;1.3732;
1070.4000;0.4379;1.3544;
1070.7000;0.4428;1.3638;
1071.0000;0.4428;1.3685;
1071.3000;0.4428;1.3779;
1071.6000;0.4420;1.3732;
1071.9000;0.4404;1.3638;
1072.2000;0.4428;1.3708;
1072.5000;0.4428;1.3685;
1072.8000;0.4444;1.3661;
1073.1000;0.4444;1.3638;
1073.4000;0.4436;1.3614;
1073.7000;0.4453;1.3732;
1074.0000;0.4444;1.3614;
1074.3000;0.4485;1.3708;
1074.6000;0.4420;1.3591;
1074.9000;0.4428;1.3567;
1075.2000;0.4453;1.3544;
1075.5000;0.4444;1.3474;
1075.8000;0.4453;1.3521;
1076.1000;0.4428;1.3497;
1076.4000;0.4436;1.3544;
1076.7000;0.4477;1.3638;
1077.0000;0.4420;1.3497;
1077.3000;0.4420;1.3591;
1077.6000;0.4461;1.3755;
1077.9000;0.4444;1.3779;
1078.2000;0.4444;1.3708;
1078.5000;0.4485;1.3873;
1078.8000;0.4428;1.3779;
1079.1000;0.4428;1.3732;
1079.4000;0.4453;1.3779;
1079.7000;0.4444;1.3661;
1080.0000;0.4428;1.3544;
1080.3000;0.4428;1.3591;
1080.6000;0.4461;1.3591;
1080.9000;0.4436;1.3544;
1081.2000;0.4428;1.3567;
1081.5000;0.4461;1.3661;
1081.8000;0.4436;1.3638;
1082.1000;0.4428;1.3685;
1082.4000;0.4444;1.3708;
1082.7000;0.4436;1.3661;
1083.0000;0.4453;1.3638;
1083.3000;0.4444;1.3638;
1083.6000;0.4453;1.3732;
1083.9000;0.4428;1.3614;
1084.2000;0.4444;1.3591;
1084.5000;0.4428;1.3567;
1084.8000;0.4444;1.3591;
1085.1000;0.4444;1.3591;
1085.4000;0.4420;1.3474;
1085.7000;0.4453;1.3591;
1086.0000;0.4485;1.3661;
1086.3000;0.4461;1.3614;
1086.6000;0.4420;1.3521;
1086.9000;0.4444;1.3567;
1087.2000;0.4567;1.3873;
1087.5000;0.4428;1.3591;
1087.8000;0.4444;1.3614;
1088.1000;0.4436;1.3614;
1088.4000;0.4444;1.3638;
1088.7000;0.4436;1.3638;
1089.0000;0.4428;1.3614;
1089.3000;0.4420;1.3638;
1089.6000;0.4420;1.3685;
1089.9000;0.4330;1.3403;
1090.2000;0.4322;1.3474;
1090.5000;0.4469;1.3873;
1090.8000;0.4428;1.3802;
1091.1000;0.4453;1.3826;
1091.4000;0.4428;1.3755;
1091.7000;0.4436;1.3779;
1092.0000;0.4453;1.3826;
1092.3000;0.4453;1.3826;
1092.6000;0.4420;1.3661;
1092.9000;0.4428;1.3708;
1093.2000;0.4428;1.3732;
1093.5000;0.4428;1.3755;
1093.8000;0.4444;1.3755;
1094.1000;0.4428;1.3732;
1094.4000;0.4436;1.3638;
1094.7000;0.4453;1.3779;
1095.0000;0.4444;1.3708;
1095.3000;0.4444;1.3685;
1095.6000;0.4444;1.3661;
1095.9000;0.4444;1.3685;
1096.2000;0.4461;1.3779;
1096.5000;0.4436;1.3849;
1096.8000;0.4444;1.3896;
1097.1000;0.4444;1.3849;
1097.4000;0.4493;1.3943;
1097.7000;0.4453;1.3849;
1098.0000;0.4436;1.3849;
1098.3000;0.4444;1.3849;
1098.6000;0.4420;1.3779;
1098.9000;0.4436;1.3896;
1099.2000;0.4428;1.3849;
1099.5000;0.4436;1.3920;
1099.8000;0.4412;1.3873;
1100.1000;0.4444;1.4037;
1100.4000;0.4436;1.3967;
1100.7000;0.4428;1.3873;
1101.0000;0.4428;1.3849;
1101.3000;0.4436;1.3943;
1101.6000;0.4428;1.3896;
1101.9000;0.4412;1.3802;
1102.2000;0.4444;1.3779;
1102.5000;0.4420;1.3708;
1102.8000;0.4436;1.3779;
1103.1000;0.4420;1.3779;
1103.4000;0.4428;1.3802;
1103.7000;0.4436;1.3802;
1104.0000;0.4428;1.3826;
1104.3000;0.4436;1.3873;
1104.6000;0.4436;1.3896;
1104.9000;0.4444;1.3967;
1105.2000;0.4477;1.4037;
1105.5000;0.4436;1.3873;
1105.8000;0.4428;1.3802;
1106.1000;0.4436;1.3943;
1106.4000;0.4444;1.3943;
1106.7000;0.4428;1.3896;
1107.0000;0.4428;1.3943;
1107.3000;0.4436;1.3967;
1107.6000;0.4436;1.3873;
1107.9000;0.4420;1.3826;
1108.2000;0.4436;1.3849;
1108.5000;0.4420;1.3732;
1108.8000;0.4436;1.3896;
1109.1000;0.4428;1.3943;
1109.4000;0.4420;1.3920;
1109.7000;0.4420;1.3755;
1110.0000;0.4428;1.3779;
1110.3000;0.4444;1.3779;
1110.6000;0.4428;1.3802;
1110.9000;0.4436;1.3896;
1111.2000;0.4428;1.3896;
1111.5000;0.4420;1.4013;
1111.8000;0.4436;1.4013;
1112.1000;0.4436;1.4037;
1112.4000;0.4420;1.3896;
1112.7000;0.4428;1.3920;
1113.0000;0.4436;1.3826;
1113.3000;0.4453;1.3779;
1113.6000;0.4420;1.3732;
1113.9000;0.4412;1.3685;
1114.2000;0.4428;1.3708;
1114.5000;0.4428;1.3779;
1114.8000;0.4404;1.3755;
1115.1000;0.4428;1.3826;
1115.4000;0.4428;1.3849;
1115.7000;0.4436;1.3802;
1116.0000;0.4444;1.3755;
1116.3000;0.4510;1.3873;
1116.6000;0.4436;1.3732;
1116.9000;0.4436;1.3755;
1117.2000;0.4444;1.3732;
1117.5000;0.4550;1.4084;
1117.8000;0.4412;1.3755;
1118.1000;0.4444;1.3849;
1118.4000;0.4444;1.3779;
1118.7000;0.4428;1.3732;
1119.0000;0.4428;1.3755;
1119.3000;0.4428;1.3732;
1119.6000;0.4444;1.3755;
1119.9000;0.4436;1.3779;
1120.2000;0.4420;1.3779;
1120.5000;0.4428;1.3802;
1120.8000;0.4444;1.3732;
1121.1000;0.4428;1.3755;
1121.4000;0.4404;1.3802;
1121.7000;0.4436;1.3943;
1122.0000;0.4444;1.4013;
1122.3000;0.4444;1.4084;
1122.6000;0.4428;1.4037;
1122.9000;0.4436;1.3990;
1123.2000;0.4453;1.4013;
1123.5000;0.4436;1.3896;
1123.8000;0.4436;1.3873;
1124.1000;0.4412;1.3802;
1124.4000;0.4436;1.3826;
1124.7000;0.4518;1.4037;
1125.0000;0.4420;1.3708;
1125.3000;0.4420;1.3685;
1125.6000;0.4436;1.3708;
1125.9000;0.4444;1.3732;
1126.2000;0.4420;1.3685;
1126.5000;0.4428;1.3755;
1126.8000;0.4518;1.4037;
1127.1000;0.4436;1.3779;
1127.4000;0.4428;1.3685;
1127.7000;0.4420;1.3661;
1128.0000;0.4542;1.3990;
1128.3000;0.4453;1.3802;
1128.6000;0.4444;1.3708;
1128.9000;0.4444;1.3661;
1129.2000;0.4501;1.3873;
1129.5000;0.4444;1.3685;
1129.8000;0.4412;1.3521;
1130.1000;0.4420;1.3567;
1130.4000;0.4420;1.3614;
1130.7000;0.4428;1.3567;
1131.0000;0.4428;1.3661;
1131.3000;0.4428;1.3755;
1131.6000;0.4436;1.3826;
1131.9000;0.4436;1.3896;
1132.2000;0.4453;1.3896;
1132.5000;0.4453;1.3873;
1132.8000;0.4436;1.3826;
1133.1000;0.4444;1.3873;
1133.4000;0.4444;1.3826;
1133.7000;0.4436;1.3755;
1134.0000;0.4436;1.3755;
1134.3000;0.4453;1.3779;
1134.6000;0.4444;1.3849;
1134.9000;0.4461;1.3849;
1135.2000;0.4404;1.3591;
1135.5000;0.4493;1.3708;
1135.8000;0.4428;1.3521;
1136.1000;0.4444;1.3544;
1136.4000;0.4428;1.3521;
1136.7000;0.4453;1.3708;
1137.0000;0.4428;1.3755;
1137.3000;0.4420;1.3685;
1137.6000;0.4428;1.3732;
1137.9000;0.4436;1.3755;
1138.2000;0.4420;1.3802;
1138.5000;0.4461;1.3896;
1138.8000;0.4453;1.3826;
1139.1000;0.4428;1.3708;
1139.4000;0.4444;1.3661;
1139.7000;0.4412;1.3591;
1140.0000;0.4453;1.3638;
1140.3000;0.4436;1.3591;
1140.6000;0.4428;1.3614;
1140.9000;0.4436;1.3614;
1141.2000;0.4428;1.3661;
1141.5000;0.4428;1.3661;
1141.8000;0.4420;1.3661;
1142.1000;0.4412;1.3661;
1142.4000;0.4412;1.3638;
1142.7000;0.4428;1.3638;
1143.0000;0.4412;1.3638;
1143.3000;0.4428;1.3685;
1143.6000;0.4444;1.3732;
1143.9000;0.4444;1.3779;
1144.2000;0.4436;1.3708;
1144.5000;0.4428;1.3614;
1144.8000;0.4461;1.3638;
1145.1000;0.4461;1.3614;
1145.4000;0.4428;1.3567;
1145.7000;0.4412;1.3567;
1146.0000;0.4396;1.3521;
1146.3000;0.4444;1.3708;
1146.6000;0.4428;1.3614;
1146.9000;0.4306;1.3168;
1147.2000;0.4412;1.3450;
1147.5000;0.4420;1.3474;
1147.8000;0.4461;1.3638;
1148.1000;0.4322;1.3262;
1148.4000;0.4420;1.3521;
1148.7000;0.4453;1.3661;
1149.0000;0.4469;1.3661;
1149.3000;0.4412;1.3567;
1149.6000;0.4428;1.3567;
1149.9000;0.4412;1.3497;
1150.2000;0.4444;1.3661;
1150.5000;0.4436;1.3685;
1150.8000;0.4444;1.3638;
1151.1000;0.4444;1.3708;
1151.4000;0.4428;1.3732;
1151.7000;0.4404;1.3685;
1152.0000;0.4501;1.3967;
1152.3000;0.4420;1.3755;
1152.6000;0.4461;1.3826;
1152.9000;0.4412;1.3732;
1153.2000;0.4428;1.3708;
1153.5000;0.4444;1.3732;
1153.8000;0.4436;1.3638;
1154.1000;0.4436;1.3638;
1154.4000;0.4453;1.3638;
1154.7000;0.4436;1.3521;
1155.0000;0.4444;1.3614;
1155.3000;0.4453;1.3685;
1155.6000;0.4436;1.3661;
1155.9000;0.4542;1.4013;
1156.2000;0.4428;1.3708;
1156.5000;0.4436;1.3708;
1156.8000;0.4428;1.3661;
1157.1000;0.4428;1.3661;
1157.4000;0.4436;1.3614;
1157.7000;0.4412;1.3614;
1158.0000;0.4428;1.3661;
1158.3000;0.4420;1.3708;
1158.6000;0.4436;1.3779;
1158.9000;0.4436;1.3708;
1159.2000;0.4428;1.3802;
1159.5000;0.4436;1.3802;
1159.8000;0.4412;1.3732;
1160.1000;0.4444;1.3802;
1160.4000;0.4436;1.3802;
1160.7000;0.4420;1.3802;
1161.0000;0.4444;1.3779;
1161.3000;0.4453;1.3779;
1161.6000;0.4444;1.3708;
1161.9000;0.4444;1.3661;
1162.2000;0.4428;1.3638;
1162.5000;0.4404;1.3544;
1162.8000;0.4444;1.3591;
1163.1000;0.4436;1.3591;
1163.4000;0.4444;1.3591;
1163.7000;0.4453;1.3685;
1164.0000;0.4420;1.3544;
1164.3000;0.4436;1.3521;
1164.6000;0.4444;1.3661;
1164.9000;0.4444;1.3614;
1165.2000;0.4436;1.3661;
1165.5000;0.4436;1.3661;
1165.8000;0.4420;1.3638;
1166.1000;0.4444;1.3661;
1166.4000;0.4420;1.3685;
1166.7000;0.4444;1.3755;
1167.0000;0.4436;1.3779;
1167.3000;0.4420;1.3732;
1167.6000;0.4444;1.3779;
1167.9000;0.4420;1.3685;
1168.2000;0.4420;1.3638;
1168.5000;0.4428;1.3614;
1168.8000;0.4412;1.3544;
1169.1000;0.4412;1.3474;
1169.4000;0.4436;1.3474;
1169.7000;0.4428;1.3521;
1170.0000;0.4387;1.3497;
1170.3000;0.4412;1.3614;
1170.6000;0.4485;1.3943;
1170.9000;0.4428;1.3826;
1171.2000;0.4387;1.3685;
1171.5000;0.4436;1.3849;
1171.8000;0.4396;1.3755;
1172.1000;0.4444;1.3873;
1172.4000;0.4420;1.3826;
1172.7000;0.4428;1.3849;
1173.0000;0.4428;1.3802;
1173.3000;0.4412;1.3849;
1173.6000;0.4428;1.3873;
1173.9000;0.4404;1.3779;
1174.2000;0.4428;1.3779;
1174.5000;0.4396;1.3732;
1174.8000;0.4420;1.3755;
1175.1000;0.4461;1.3826;
1175.4000;0.4461;1.3849;
1175.7000;0.4412;1.3732;
1176.0000;0.4412;1.3638;
1176.3000;0.4436;1.3732;
1176.6000;0.4436;1.3708;
1176.9000;0.4436;1.3802;
1177.2000;0.4444;1.3826;
1177.5000;0.4444;1.3873;
1177.8000;0.4420;1.3826;
1178.1000;0.4444;1.3943;
1178.4000;0.4444;1.3967;
1178.7000;0.4436;1.3920;
1179.0000;0.4412;1.3826;
1179.3000;0.4453;1.3920;
1179.6000;0.4436;1.3896;
1179.9000;0.4436;1.3826;
1180.2000;0.4436;1.3779;
1180.5000;0.4436;1.3755;
1180.8000;0.4436;1.3661;
1181.1000;0.4420;1.3638;
1181.4000;0.4436;1.3661;
1181.7000;0.4444;1.3638;
1182.0000;0.4436;1.3661;
1182.3000;0.4444;1.3638;
1182.6000;0.4444;1.3732;
1182.9000;0.4444;1.3732;
1183.2000;0.4444;1.3779;
1183.5000;0.4485;1.3943;
1183.8000;0.4461;1.3826;
1184.1000;0.4428;1.3802;
1184.4000;0.4436;1.3849;
1184.7000;0.4444;1.3826;
1185.0000;0.4428;1.3732;
1185.3000;0.4444;1.3708;
1185.6000;0.4412;1.3591;
1185.9000;0.4396;1.3544;
1186.2000;0.4428;1.3685;
1186.5000;0.4615;1.4248;
1186.8000;0.4428;1.3708;
1187.1000;0.4420;1.3732;
1187.4000;0.4428;1.3779;
1187.7000;0.4453;1.3802;
1188.0000;0.4444;1.3802;
1188.3000;0.4428;1.3779;
1188.6000;0.4453;1.3873;
1188.9000;0.4444;1.3732;
1189.2000;0.4444;1.3802;
1189.5000;0.4493;1.3990;
1189.8000;0.4404;1.3779;
1190.1000;0.4412;1.3755;
1190.4000;0.4436;1.3779;
1190.7000;0.4404;1.3802;
1191.0000;0.4428;1.3826;
1191.3000;0.4428;1.3873;
1191.6000;0.4493;1.3967;
1191.9000;0.4436;1.3873;
1192.2000;0.4412;1.3896;
1192.5000;0.4428;1.3802;
1192.8000;0.4444;1.3849;
1193.1000;0.4453;1.3826;
1193.4000;0.4428;1.3896;
1193.7000;0.4420;1.3943;
1194.0000;0.4436;1.3967;
1194.3000;0.4420;1.3826;
1194.6000;0.4542;1.4131;
1194.9000;0.4420;1.3826;
1195.2000;0.4436;1.3755;
1195.5000;0.4428;1.3685;
1195.8000;0.4444;1.3755;
1196.1000;0.4420;1.3849;
1196.4000;0.4412;1.3920;
1196.7000;0.4420;1.3920;
1197.0000;0.4428;1.3920;
1197.3000;0.4379;1.3802;
1197.6000;0.4444;1.3873;
1197.9000;0.4444;1.3849;
1198.2000;0.4453;1.3943;
1198.5000;0.4444;1.3873;
1198.8000;0.4444;1.3943;
1199.1000;0.4436;1.3967;
1199.4000;0.4404;1.3896;
1199.7000;0.4444;1.4013;
1200.0000;0.4444;1.3896;
1200.3000;0.4428;1.3920;
1200.6000;0.4436;1.3920;
1200.9000;0.4453;1.3920;
1201.2000;0.4444;1.3896;
1201.5000;0.4428;1.3826;
1201.8000;0.4444;1.3849;
1202.1000;0.4428;1.3849;
1202.4000;0.4420;1.3802;
1202.7000;0.4412;1.3779;
1203.0000;0.4428;1.3802;
1203.3000;0.4428;1.3685;
1203.6000;0.4436;1.3661;
1203.9000;0.4428;1.3661;
1204.2000;0.4396;1.3544;
1204.5000;0.4420;1.3544;
1204.8000;0.4428;1.3614;
1205.1000;0.4428;1.3638;
1205.4000;0.4428;1.3685;
1205.7000;0.4436;1.3873;
1206.0000;0.4420;1.3802;
1206.3000;0.4387;1.3708;
1206.6000;0.4379;1.3638;
1206.9000;0.4469;1.3849;
1207.2000;0.4436;1.3873;
1207.5000;0.4404;1.3708;
1207.8000;0.4420;1.3849;
1208.1000;0.4404;1.3802;
1208.4000;0.4420;1.3873;
1208.7000;0.4444;1.3943;
1209.0000;0.4436;1.3896;
1209.3000;0.4436;1.3943;
1209.6000;0.4412;1.3826;
1209.9000;0.4469;1.3873;
1210.2000;0.4428;1.3826;
1210.5000;0.4379;1.3708;
1210.8000;0.4436;1.3873;
1211.1000;0.4444;1.3849;
1211.4000;0.4420;1.3873;
1211.7000;0.4428;1.3873;
1212.0000;0.4420;1.3755;
1212.3000;0.4428;1.3708;
1212.6000;0.4412;1.3661;
1212.9000;0.4428;1.3708;
1213.2000;0.4436;1.3779;
1213.5000;0.4444;1.3826;
1213.8000;0.4444;1.3826;
1214.1000;0.4461;1.3802;
1214.4000;0.4420;1.3826;
1214.7000;0.4444;1.3920;
1215.0000;0.4461;1.4037;
1215.3000;0.4420;1.3990;
1215.6000;0.4436;1.3990;
1215.9000;0.4436;1.3943;
1216.2000;0.4436;1.3849;
1216.5000;0.4420;1.3873;
1216.8000;0.4444;1.3920;
1217.1000;0.4420;1.3896;
1217.4000;0.4444;1.3826;
1217.7000;0.4444;1.3873;
1218.0000;0.4428;1.3802;
1218.3000;0.4436;1.3849;
1218.6000;0.4436;1.3967;
1218.9000;0.4428;1.3943;
1219.2000;0.4428;1.3849;
1219.5000;0.4444;1.3802;
1219.8000;0.4436;1.3802;
1220.1000;0.4428;1.3802;
1220.4000;0.4428;1.3708;
1220.7000;0.4436;1.3685;
1221.0000;0.4428;1.3779;
1221.3000;0.4420;1.3802;
1221.6000;0.4444;1.3802;
1221.9000;0.4436;1.3826;
1222.2000;0.4420;1.3755;
1222.5000;0.4404;1.3779;
1222.8000;0.4428;1.3779;
1223.1000;0.4428;1.3802;
1223.4000;0.4436;1.3826;
1223.7000;0.4453;1.3779;
1224.0000;0.4436;1.3802;
1224.3000;0.4444;1.3826;
1224.6000;0.4387;1.3732;
1224.9000;0.4436;1.3873;
1225.2000;0.4436;1.3896;
1225.5000;0.4436;1.3779;
1225.8000;0.4428;1.3779;
1226.1000;0.4436;1.3779;
1226.4000;0.4428;1.3826;
1226.7000;0.4444;1.3896;
1227.0000;0.4428;1.3802;
1227.3000;0.4412;1.3802;
1227.6000;0.4420;1.3826;
1227.9000;0.4428;1.3849;
1228.2000;0.4412;1.3755;
1228.5000;0.4428;1.3755;
1228.8000;0.4444;1.3826;
1229.1000;0.4444;1.3802;
1229.4000;0.4428;1.3732;
1229.7000;0.4420;1.3779;
1230.0000;0.4436;1.3779;
1230.3000;0.4379;1.3755;
1230.6000;0.4436;1.3990;
1230.9000;0.4404;1.3920;
1231.2000;0.4436;1.3967;
1231.5000;0.4436;1.3990;
1231.8000;0.4444;1.3967;
1232.1000;0.4412;1.3849;
1232.4000;0.4485;1.4060;
1232.7000;0.4436;1.4013;
1233.0000;0.4436;1.4037;
1233.3000;0.4412;1.3990;
1233.6000;0.4412;1.3943;
1233.9000;0.4420;1.3967;
1234.2000;0.4428;1.3990;
1234.5000;0.4453;1.4178;
1234.8000;0.4412;1.4107;
1235.1000;0.4412;1.4154;
1235.4000;0.4428;1.4154;
1235.7000;0.4436;1.4131;
1236.0000;0.4444;1.4131;
1236.3000;0.4436;1.4201;
1236.6000;0.4444;1.4272;
1236.9000;0.4518;1.4553;
1237.2000;0.4444;1.4248;
1237.5000;0.4412;1.4084;
1237.8000;0.4428;1.4107;
1238.1000;0.4444;1.4107;
1238.4000;0.4444;1.4084;
1238.7000;0.4436;1.4037;
1239.0000;0.4428;1.3943;
1239.3000;0.4436;1.3990;
1239.6000;0.4428;1.3990;
1239.9000;0.4412;1.4013;
1240.2000;0.4404;1.3943;
1240.5000;0.4428;1.4037;
1240.8000;0.4453;1.4107;
1241.1000;0.4477;1.4272;
1241.4000;0.4428;1.4084;
1241.7000;0.4436;1.4060;
1242.0000;0.4453;1.3990;
1242.3000;0.4461;1.3990;
1242.6000;0.4453;1.3920;
1242.9000;0.4428;1.3826;
1243.2000;0.4314;1.3614;
1243.5000;0.4428;1.3943;
1243.8000;0.4469;1.4084;
1244.1000;0.4428;1.4013;
1244.4000;0.4420;1.4037;
1244.7000;0.4436;1.4084;
1245.0000;0.4428;1.4037;
1245.3000;0.4420;1.4013;
1245.6000;0.4404;1.3896;
1245.9000;0.4428;1.3967;
1246.2000;0.4428;1.3943;
1246.5000;0.4412;1.3896;
1246.8000;0.4379;1.3849;
1247.1000;0.4428;1.4037;
1247.4000;0.4453;1.4131;
1247.7000;0.4420;1.4084;
1248.0000;0.4420;1.4131;
1248.3000;0.4444;1.4131;
1248.6000;0.4444;1.4037;
1248.9000;0.4363;1.3896;
1249.2000;0.4420;1.4013;
1249.5000;0.4428;1.3990;
1249.8000;0.4428;1.4060;
1250.1000;0.4420;1.4131;
1250.4000;0.4420;1.4107;
1250.7000;0.4420;1.4037;
1251.0000;0.4436;1.4060;
1251.3000;0.4396;1.3943;
1251.6000;0.4404;1.4060;
1251.9000;0.4436;1.4131;
1252.2000;0.4428;1.4084;
1252.5000;0.4404;1.3990;
1252.8000;0.4428;1.4060;
1253.1000;0.4485;1.4248;
1253.4000;0.4404;1.3990;
1253.7000;0.4428;1.4060;
1254.0000;0.4444;1.4060;
1254.3000;0.4412;1.3990;
1254.6000;0.4420;1.4084;
1254.9000;0.4412;1.4013;
1255.2000;0.4436;1.4013;
1255.5000;0.4420;1.3943;
1255.8000;0.4412;1.3873;
1256.1000;0.4436;1.3896;
1256.4000;0.4420;1.3896;
1256.7000;0.4453;1.4013;
1257.0000;0.4420;1.3896;
1257.3000;0.4444;1.3943;
1257.6000;0.4453;1.3967;
1257.9000;0.4420;1.4013;
1258.2000;0.4412;1.4037;
1258.5000;0.4436;1.4107;
1258.8000;0.4493;1.4272;
1259.1000;0.4436;1.4154;
1259.4000;0.4436;1.4107;
1259.7000;0.4428;1.4154;
1260.0000;0.4436;1.4201;
1260.3000;0.4428;1.4178;
1260.6000;0.4436;1.4084;
1260.9000;0.4436;1.3990;
1261.2000;0.4436;1.3943;
1261.5000;0.4404;1.3826;
1261.8000;0.4420;1.3826;
1262.1000;0.4453;1.3873;
1262.4000;0.4428;1.3896;
1262.7000;0.4436;1.3967;
1263.0000;0.4436;1.3920;
1263.3000;0.4363;1.3779;
1263.6000;0.4412;1.3990;
1263.9000;0.4436;1.4037;
1264.2000;0.4453;1.3943;
1264.5000;0.4436;1.3849;
1264.8000;0.4436;1.3896;
1265.1000;0.4412;1.3967;
1265.4000;0.4428;1.4013;
1265.7000;0.4428;1.4037;
1266.0000;0.4420;1.4060;
1266.3000;0.4412;1.4037;
1266.6000;0.4428;1.3990;
1266.9000;0.4428;1.3967;
1267.2000;0.4379;1.3849;
1267.5000;0.4428;1.4013;
1267.8000;0.4428;1.4013;
1268.1000;0.4420;1.3967;
1268.4000;0.4420;1.4013;
1268.7000;0.4428;1.3990;
1269.0000;0.4436;1.4060;
1269.3000;0.4436;1.4037;
1269.6000;0.4428;1.3990;
1269.9000;0.4444;1.3967;
1270.2000;0.4428;1.3990;
1270.5000;0.4444;1.3967;
1270.8000;0.4387;1.3849;
1271.1000;0.4412;1.3779;
1271.4000;0.4412;1.3826;
1271.7000;0.4444;1.3849;
1272.0000;0.4550;1.4154;
1272.3000;0.4420;1.3920;
1272.6000;0.4428;1.3943;
1272.9000;0.4371;1.3802;
1273.2000;0.4412;1.3873;
1273.5000;0.4420;1.3920;
1273.8000;0.4379;1.3849;
1274.1000;0.4428;1.4013;
1274.4000;0.4444;1.4013;
1274.7000;0.4428;1.4107;
1275.0000;0.4420;1.3990;
1275.3000;0.4444;1.4037;
1275.6000;0.4444;1.4084;
1275.9000;0.4436;1.4037;
1276.2000;0.4412;1.3896;
1276.5000;0.4428;1.3896;
1276.8000;0.4412;1.3967;
1277.1000;0.4412;1.3896;
1277.4000;0.4501;1.4084;
1277.7000;0.4420;1.3943;
1278.0000;0.4379;1.3802;
1278.3000;0.4322;1.3614;
1278.6000;0.4518;1.4131;
1278.9000;0.4510;1.4131;
1279.2000;0.4428;1.3896;
1279.5000;0.4428;1.3967;
1279.8000;0.4436;1.4131;
1280.1000;0.4428;1.4178;
1280.4000;0.4461;1.4248;
1280.7000;0.4436;1.4154;
1281.0000;0.4420;1.4178;
1281.3000;0.4461;1.4201;
1281.6000;0.4420;1.4178;
1281.9000;0.4444;1.4225;
1282.2000;0.4436;1.4178;
1282.5000;0.4428;1.4178;
1282.8000;0.4436;1.4154;
1283.1000;0.4436;1.4201;
1283.4000;0.4444;1.4131;
1283.7000;0.4428;1.4037;
1284.0000;0.4436;1.3967;
1284.3000;0.4420;1.4013;
1284.6000;0.4444;1.4131;
1284.9000;0.4428;1.4037;
1285.2000;0.4428;1.3967;
1285.5000;0.4501;1.4178;
1285.8000;0.4428;1.4037;
1286.1000;0.4428;1.4060;
1286.4000;0.4412;1.4154;
1286.7000;0.4420;1.4178;
1287.0000;0.4453;1.4225;
1287.3000;0.4477;1.4295;
1287.6000;0.4453;1.4225;
1287.9000;0.4444;1.4225;
1288.2000;0.4444;1.4248;
1288.5000;0.4412;1.4178;
1288.8000;0.4453;1.4201;
1289.1000;0.4404;1.4037;
1289.4000;0.4444;1.4107;
1289.7000;0.4420;1.3990;
1290.0000;0.4428;1.4060;
1290.3000;0.4420;1.4013;
1290.6000;0.4436;1.4107;
1290.9000;0.4428;1.4084;
1291.2000;0.4444;1.4037;
1291.5000;0.4436;1.4037;
1291.8000;0.4501;1.4225;
1292.1000;0.4428;1.3967;
1292.4000;0.4444;1.3896;
1292.7000;0.4428;1.3826;
1293.0000;0.4420;1.3779;
1293.3000;0.4444;1.3873;
1293.6000;0.4550;1.4178;
1293.9000;0.4412;1.3920;
1294.2000;0.4420;1.3990;
1294.5000;0.4412;1.3990;
1294.8000;0.4412;1.3920;
1295.1000;0.4420;1.3896;
1295.4000;0.4428;1.3873;
1295.7000;0.4412;1.3802;
1296.0000;0.4404;1.3708;
1296.3000;0.4420;1.3849;
1296.6000;0.4436;1.3920;
1296.9000;0.4379;1.3638;
1297.2000;0.4485;1.3943;
1297.5000;0.4436;1.3943;
1297.8000;0.4453;1.4037;
1298.1000;0.4428;1.3967;
1298.4000;0.4420;1.3943;
1298.7000;0.4428;1.3873;
1299.0000;0.4420;1.3873;
1299.3000;0.4444;1.3826;
1299.6000;0.4404;1.3755;
1299.9000;0.4420;1.3802;
1300.2000;0.4444;1.3873;
1300.5000;0.4396;1.3849;
1300.8000;0.4412;1.3802;
1301.1000;0.4444;1.3920;
1301.4000;0.4444;1.3896;
1301.7000;0.4501;1.4107;
1302.0000;0.4412;1.3967;
1302.3000;0.4412;1.3920;
1302.6000;0.4436;1.3990;
1302.9000;0.4412;1.3920;
1303.2000;0.4396;1.3967;
1303.5000;0.4469;1.4107;
1303.8000;0.4436;1.3990;
1304.1000;0.4436;1.3967;
1304.4000;0.4339;1.3755;
1304.7000;0.4412;1.3943;
1305.0000;0.4428;1.3990;
1305.3000;0.4477;1.4084;
1305.6000;0.4412;1.3967;
1305.9000;0.4428;1.3967;
1306.2000;0.4420;1.4013;
1306.5000;0.4396;1.3943;
1306.8000;0.4444;1.3943;
1307.1000;0.4534;1.4225;
1307.4000;0.4428;1.3873;
1307.7000;0.4436;1.3896;
1308.0000;0.4444;1.3896;
1308.3000;0.4420;1.3896;
1308.6000;0.4453;1.3826;
1308.9000;0.4412;1.3708;
1309.2000;0.4412;1.3732;
1309.5000;0.4420;1.3802;
1309.8000;0.4420;1.3802;
1310.1000;0.4436;1.3802;
1310.4000;0.4428;1.3849;
1310.7000;0.4436;1.3802;
1311.0000;0.4420;1.3802;
1311.3000;0.4436;1.3849;
1311.6000;0.4444;1.3943;
1311.9000;0.4444;1.3967;
1312.2000;0.4428;1.3920;
1312.5000;0.4428;1.3920;
1312.8000;0.4420;1.3967;
1313.1000;0.4436;1.4037;
1313.4000;0.4428;1.3967;
1313.7000;0.4436;1.3896;
1314.0000;0.4428;1.3826;
1314.3000;0.4444;1.3685;
1314.6000;0.4396;1.3614;
1314.9000;0.4412;1.3755;
1315.2000;0.4412;1.3873;
1315.5000;0.4436;1.3920;
1315.8000;0.4428;1.3896;
1316.1000;0.4420;1.3967;
1316.4000;0.4428;1.4037;
1316.7000;0.4428;1.3990;
1317.0000;0.4428;1.3873;
1317.3000;0.4444;1.3873;
1317.6000;0.4436;1.3849;
1317.9000;0.4412;1.3755;
1318.2000;0.4444;1.3849;
1318.5000;0.4485;1.4013;
1318.8000;0.4420;1.3826;
1319.1000;0.4428;1.3896;
1319.4000;0.4428;1.3920;
1319.7000;0.4444;1.3896;
1320.0000;0.4420;1.3802;
1320.3000;0.4453;1.3873;
1320.6000;0.4428;1.3802;
1320.9000;0.4420;1.3802;
1321.2000;0.4412;1.3849;
1321.5000;0.4428;1.3826;
1321.8000;0.4469;1.3873;
1322.1000;0.4436;1.3849;
1322.4000;0.4436;1.3779;
1322.7000;0.4436;1.3755;
1323.0000;0.4420;1.3873;
1323.3000;0.4461;1.4037;
1323.6000;0.4428;1.3943;
1323.9000;0.4379;1.3755;
1324.2000;0.4510;1.4107;
1324.5000;0.4444;1.3967;
1324.8000;0.4436;1.3920;
1325.1000;0.4420;1.3896;
1325.4000;0.4444;1.3943;
1325.7000;0.4436;1.4013;
1326.0000;0.4444;1.3990;
1326.3000;0.4436;1.3967;
1326.6000;0.4379;1.3802;
1326.9000;0.4477;1.4060;
1327.2000;0.4412;1.3849;
1327.5000;0.4420;1.3943;
1327.8000;0.4412;1.3990;
1328.1000;0.4436;1.4037;
1328.4000;0.4379;1.3873;
1328.7000;0.4412;1.3990;
1329.0000;0.4428;1.4037;
1329.3000;0.4444;1.4084;
1329.6000;0.4485;1.4107;
1329.9000;0.4436;1.3896;
1330.2000;0.4420;1.3849;
1330.5000;0.4428;1.3896;
1330.8000;0.4404;1.3826;
1331.1000;0.4444;1.3873;
1331.4000;0.4436;1.3873;
1331.7000;0.4404;1.3826;
1332.0000;0.4428;1.3896;
1332.3000;0.4436;1.3967;
1332.6000;0.4420;1.4013;
1332.9000;0.4412;1.4060;
1333.2000;0.4420;1.4037;
1333.5000;0.4420;1.4037;
1333.8000;0.4412;1.4013;
1334.1000;0.4420;1.4060;
1334.4000;0.4412;1.4037;
1334.7000;0.4428;1.3967;
1335.0000;0.4461;1.4013;
1335.3000;0.4404;1.3849;
1335.6000;0.4420;1.3802;
1335.9000;0.4420;1.3779;
1336.2000;0.4436;1.3826;
1336.5000;0.4428;1.3802;
1336.8000;0.4428;1.3826;
1337.1000;0.4444;1.3896;
1337.4000;0.4428;1.3896;
1337.7000;0.4420;1.3802;
1338.0000;0.4428;1.3732;
1338.3000;0.4436;1.3779;
1338.6000;0.4444;1.3802;
1338.9000;0.4436;1.3873;
1339.2000;0.4420;1.3779;
1339.5000;0.4428;1.3826;
1339.8000;0.4444;1.3802;
1340.1000;0.4428;1.3755;
1340.4000;0.4412;1.3732;
1340.7000;0.4428;1.3732;
1341.0000;0.4428;1.3708;
1341.3000;0.4420;1.3708;
1341.6000;0.4436;1.3849;
1341.9000;0.4404;1.3802;
1342.2000;0.4412;1.3896;
1342.5000;0.4428;1.4013;
1342.8000;0.4420;1.3943;
1343.1000;0.4412;1.3826;
1343.4000;0.4420;1.3920;
1343.7000;0.4420;1.3943;
1344.0000;0.4436;1.3849;
1344.3000;0.4436;1.3826;
1344.6000;0.4420;1.3708;
1344.9000;0.4428;1.3779;
1345.2000;0.4436;1.3849;
1345.5000;0.4428;1.3849;
1345.8000;0.4379;1.3638;
1346.1000;0.4428;1.3732;
1346.4000;0.4485;1.3849;
1346.7000;0.4436;1.3802;
1347.0000;0.4420;1.3826;
1347.3000;0.4428;1.3920;
1347.6000;0.4428;1.3967;
1347.9000;0.4453;1.4037;
1348.2000;0.4420;1.4013;
1348.5000;0.4412;1.3990;
1348.8000;0.4493;1.4178;
1349.1000;0.4420;1.4013;
1349.4000;0.4436;1.4084;
1349.7000;0.4453;1.3990;
1350.0000;0.4412;1.3896;
1350.3000;0.4428;1.3990;
1350.6000;0.4444;1.3967;
1350.9000;0.4485;1.4084;
1351.2000;0.4436;1.4037;
1351.5000;0.4428;1.3943;
1351.8000;0.4428;1.3920;
1352.1000;0.4412;1.3873;
1352.4000;0.4404;1.3826;
1352.7000;0.4444;1.3943;
1353.0000;0.4404;1.3873;
1353.3000;0.4412;1.3990;
1353.6000;0.4469;1.4107;
1353.9000;0.4428;1.4013;
1354.2000;0.4436;1.3990;
1354.5000;0.4412;1.3920;
1354.8000;0.4428;1.3896;
1355.1000;0.4428;1.3967;
1355.4000;0.4428;1.3920;
1355.7000;0.4444;1.3943;
1356.0000;0.4428;1.3896;
1356.3000;0.4461;1.3896;
1356.6000;0.4428;1.3802;
1356.9000;0.4428;1.3779;
1357.2000;0.4428;1.3826;
1357.5000;0.4444;1.3849;
1357.8000;0.4412;1.3826;
1358.1000;0.4420;1.3896;
1358.4000;0.4412;1.3920;
1358.7000;0.4412;1.3920;
1359.0000;0.4428;1.3896;
1359.3000;0.4461;1.4037;
1359.6000;0.4420;1.3920;
1359.9000;0.4412;1.4013;
1360.2000;0.4420;1.4013;
1360.5000;0.4444;1.4013;
1360.8000;0.4428;1.4084;
1361.1000;0.4428;1.4060;
1361.4000;0.4428;1.4060;
1361.7000;0.4436;1.4154;
1362.0000;0.4444;1.4131;
1362.3000;0.4453;1.4107;
1362.6000;0.4436;1.4060;
1362.9000;0.4428;1.4107;
1363.2000;0.4436;1.4131;
1363.5000;0.4453;1.4201;
1363.8000;0.4428;1.4060;
1364.1000;0.4436;1.4084;
1364.4000;0.4387;1.3920;
1364.7000;0.4493;1.4107;
1365.0000;0.4428;1.3920;
1365.3000;0.4428;1.3896;
1365.6000;0.4444;1.3849;
1365.9000;0.4444;1.3802;
1366.2000;0.4444;1.3802;
1366.5000;0.4436;1.3755;
1366.8000;0.4493;1.3920;
1367.1000;0.4444;1.3708;
1367.4000;0.4444;1.3614;
1367.7000;0.4436;1.3685;
1368.0000;0.4404;1.3591;
1368.3000;0.4428;1.3661;
1368.6000;0.4404;1.3661;
1368.9000;0.4420;1.3732;
1369.2000;0.4379;1.3591;
1369.5000;0.4428;1.3732;
1369.8000;0.4436;1.3779;
1370.1000;0.4428;1.3708;
1370.4000;0.4396;1.3661;
1370.7000;0.4428;1.3849;
1371.0000;0.4428;1.3896;
1371.3000;0.4428;1.3873;
1371.6000;0.4436;1.3779;
1371.9000;0.4396;1.3638;
1372.2000;0.4428;1.3732;
1372.5000;0.4428;1.3755;
1372.8000;0.4444;1.3779;
1373.1000;0.4420;1.3732;
1373.4000;0.4436;1.3826;
1373.7000;0.4436;1.3826;
1374.0000;0.4412;1.3732;
1374.3000;0.4412;1.3708;
1374.6000;0.4453;1.3826;
1374.9000;0.4420;1.3873;
1375.2000;0.4436;1.3990;
1375.5000;0.4420;1.3873;
1375.8000;0.4436;1.3896;
1376.1000;0.4444;1.3826;
1376.4000;0.4444;1.3826;
1376.7000;0.4550;1.4178;
1377.0000;0.4404;1.3779;
1377.3000;0.4493;1.4013;
1377.6000;0.4436;1.3873;
1377.9000;0.4404;1.3849;
1378.2000;0.4436;1.3873;
1378.5000;0.4428;1.3873;
1378.8000;0.4436;1.3873;
1379.1000;0.4436;1.3873;
1379.4000;0.4412;1.3802;
1379.7000;0.4412;1.3896;
1380.0000;0.4420;1.3990;
1380.3000;0.4420;1.3943;
1380.6000;0.4412;1.3967;
1380.9000;0.4453;1.3990;
1381.2000;0.4436;1.3873;
1381.5000;0.4420;1.3826;
1381.8000;0.4420;1.3873;
1382.1000;0.4420;1.3826;
1382.4000;0.4412;1.3873;
1382.7000;0.4428;1.3943;
1383.0000;0.4436;1.3943;
1383.3000;0.4396;1.3849;
1383.6000;0.4436;1.4060;
1383.9000;0.4428;1.4060;
1384.2000;0.4436;1.4060;
1384.5000;0.4436;1.4084;
1384.8000;0.4420;1.4084;
1385.1000;0.4436;1.4084;
1385.4000;0.4453;1.4037;
1385.7000;0.4420;1.3896;
1386.0000;0.4428;1.3849;
1386.3000;0.4420;1.3802;
1386.6000;0.4428;1.3849;
1386.9000;0.4436;1.3849;
1387.2000;0.4379;1.3708;
1387.5000;0.4436;1.3920;
1387.8000;0.4347;1.3685;
1388.1000;0.4420;1.3896;
1388.4000;0.4428;1.3967;
1388.7000;0.4493;1.4060;
1389.0000;0.4412;1.3826;
1389.3000;0.4420;1.3826;
1389.6000;0.4428;1.3920;
1389.9000;0.4436;1.3896;
1390.2000;0.4444;1.3967;
1390.5000;0.4339;1.3661;
1390.8000;0.4339;1.3614;
1391.1000;0.4420;1.3896;
1391.4000;0.4412;1.3849;
1391.7000;0.4436;1.3849;
1392.0000;0.4485;1.3896;
1392.3000;0.4485;1.3943;
1392.6000;0.4412;1.3826;
1392.9000;0.4469;1.3967;
1393.2000;0.4461;1.3849;
1393.5000;0.4404;1.3685;
1393.8000;0.4404;1.3614;
1394.1000;0.4453;1.3732;
1394.4000;0.4420;1.3661;
1394.7000;0.4444;1.3685;
1395.0000;0.4428;1.3638;
1395.3000;0.4412;1.3685;
1395.6000;0.4436;1.3779;
1395.9000;0.4436;1.3661;
1396.2000;0.4420;1.3567;
1396.5000;0.4436;1.3474;
1396.8000;0.4453;1.3380;
1397.1000;0.4420;1.3380;
1397.4000;0.4428;1.3427;
1397.7000;0.4436;1.3497;
1398.0000;0.4412;1.3497;
1398.3000;0.4412;1.3474;
1398.6000;0.4404;1.3450;
1398.9000;0.4420;1.3521;
1399.2000;0.4444;1.3567;
1399.5000;0.4444;1.3661;
1399.8000;0.4428;1.3661;
