time/ms;Fluo/V;P700 deltaI/I x10³;
-199.8000;0.7066;1.4037;
-199.5000;0.6960;1.3826;
-199.2000;0.7049;1.4060;
-198.9000;0.7188;1.4413;
-198.6000;0.7057;1.4060;
-198.3000;0.7066;1.4060;
-198.0000;0.7041;1.3990;
-197.7000;0.7057;1.4013;
-197.4000;0.7057;1.3896;
-197.1000;0.7049;1.3849;
-196.8000;0.7049;1.3896;
-196.5000;0.7066;1.3990;
-196.2000;0.7066;1.3990;
-195.9000;0.7041;1.4060;
-195.6000;0.7090;1.4154;
-195.3000;0.7057;1.4131;
-195.0000;0.7074;1.4178;
-194.7000;0.7066;1.4178;
-194.4000;0.7066;1.4131;
-194.1000;0.7082;1.4107;
-193.8000;0.7049;1.4107;
-193.5000;0.7074;1.4178;
-193.2000;0.6960;1.3802;
-192.9000;0.7082;1.4084;
-192.6000;0.7066;1.4060;
-192.3000;0.7074;1.4060;
-192.0000;0.7098;1.4084;
-191.7000;0.7114;1.4084;
-191.4000;0.7049;1.3920;
-191.1000;0.7066;1.4013;
-190.8000;0.7123;1.4060;
-190.5000;0.6960;1.3755;
-190.2000;0.7074;1.3990;
-189.9000;0.7041;1.3967;
-189.6000;0.7057;1.3990;
-189.3000;0.6976;1.3779;
-189.0000;0.7049;1.3990;
-188.7000;0.7066;1.4084;
-188.4000;0.7155;1.4319;
-188.1000;0.7041;1.4037;
-187.8000;0.7041;1.4060;
-187.5000;0.7114;1.4225;
-187.2000;0.7049;1.4084;
-186.9000;0.7049;1.4037;
-186.6000;0.7074;1.4037;
-186.3000;0.7066;1.4060;
-186.0000;0.7082;1.4060;
-185.7000;0.7074;1.4060;
-185.4000;0.7074;1.4013;
-185.1000;0.6968;1.3779;
-184.8000;0.7074;1.4084;
-184.5000;0.7049;1.4013;
-184.2000;0.7082;1.3943;
-183.9000;0.7057;1.3826;
-183.6000;0.7057;1.3802;
-183.3000;0.7049;1.3779;
-183.0000;0.7049;1.3779;
-182.7000;0.7049;1.3802;
-182.4000;0.7041;1.3755;
-182.1000;0.7057;1.3755;
-181.8000;0.7106;1.3896;
-181.5000;0.7066;1.3849;
-181.2000;0.7074;1.3849;
-180.9000;0.7074;1.3826;
-180.6000;0.7090;1.3920;
-180.3000;0.7066;1.3896;
-180.0000;0.7041;1.3826;
-179.7000;0.7057;1.3802;
-179.4000;0.7074;1.3849;
-179.1000;0.7114;1.4060;
-178.8000;0.7066;1.4037;
-178.5000;0.7066;1.3920;
-178.2000;0.7098;1.4037;
-177.9000;0.7057;1.3990;
-177.6000;0.7066;1.4060;
-177.3000;0.7090;1.4131;
-177.0000;0.7074;1.4131;
-176.7000;0.7033;1.4107;
-176.4000;0.7057;1.4178;
-176.1000;0.7066;1.4225;
-175.8000;0.7123;1.4342;
-175.5000;0.7066;1.4225;
-175.2000;0.7090;1.4178;
-174.9000;0.7082;1.4178;
-174.6000;0.7041;1.4013;
-174.3000;0.7057;1.4013;
-174.0000;0.7066;1.3967;
-173.7000;0.7017;1.3873;
-173.4000;0.7025;1.3873;
-173.1000;0.7090;1.3943;
-172.8000;0.7057;1.3779;
-172.5000;0.7066;1.3779;
-172.2000;0.7098;1.3920;
-171.9000;0.7033;1.3826;
-171.6000;0.7041;1.3849;
-171.3000;0.7082;1.4037;
-171.0000;0.7123;1.4107;
-170.7000;0.7090;1.3990;
-170.4000;0.7041;1.3802;
-170.1000;0.7057;1.3849;
-169.8000;0.7123;1.4060;
-169.5000;0.7074;1.3990;
-169.2000;0.7049;1.4037;
-168.9000;0.7074;1.4084;
-168.6000;0.7098;1.4131;
-168.3000;0.7057;1.4013;
-168.0000;0.7049;1.4013;
-167.7000;0.7057;1.4084;
-167.4000;0.7066;1.4107;
-167.1000;0.7057;1.4037;
-166.8000;0.7025;1.4013;
-166.5000;0.7041;1.4060;
-166.2000;0.7049;1.4084;
-165.9000;0.7090;1.4201;
-165.6000;0.7049;1.4107;
-165.3000;0.7057;1.4084;
-165.0000;0.7057;1.4154;
-164.7000;0.7066;1.4084;
-164.4000;0.7090;1.4131;
-164.1000;0.7057;1.3920;
-163.8000;0.7066;1.3873;
-163.5000;0.7131;1.4060;
-163.2000;0.7074;1.3943;
-162.9000;0.7066;1.3943;
-162.6000;0.7074;1.3967;
-162.3000;0.7074;1.3967;
-162.0000;0.7033;1.3849;
-161.7000;0.7049;1.3873;
-161.4000;0.7049;1.3849;
-161.1000;0.7066;1.3873;
-160.8000;0.7049;1.3826;
-160.5000;0.7057;1.3802;
-160.2000;0.7049;1.3779;
-159.9000;0.7049;1.3755;
-159.6000;0.7066;1.3826;
-159.3000;0.7066;1.3755;
-159.0000;0.7066;1.3708;
-158.7000;0.7057;1.3708;
-158.4000;0.7049;1.3708;
-158.1000;0.7049;1.3755;
-157.8000;0.7090;1.3802;
-157.5000;0.7057;1.3732;
-157.2000;0.7057;1.3802;
-156.9000;0.7074;1.3826;
-156.6000;0.7074;1.3826;
-156.3000;0.7033;1.3849;
-156.0000;0.6960;1.3732;
-155.7000;0.7066;1.3943;
-155.4000;0.7057;1.3920;
-155.1000;0.7057;1.3896;
-154.8000;0.7057;1.3896;
-154.5000;0.7057;1.3943;
-154.2000;0.7066;1.3943;
-153.9000;0.7066;1.3967;
-153.6000;0.6952;1.3732;
-153.3000;0.7074;1.3896;
-153.0000;0.7163;1.4013;
-152.7000;0.7066;1.3802;
-152.4000;0.7057;1.3755;
-152.1000;0.7057;1.3732;
-151.8000;0.7082;1.3849;
-151.5000;0.7049;1.3849;
-151.2000;0.7049;1.3826;
-150.9000;0.7057;1.3873;
-150.6000;0.7057;1.3896;
-150.3000;0.7049;1.3802;
-150.0000;0.7066;1.3779;
-149.7000;0.7057;1.3755;
-149.4000;0.7098;1.3943;
-149.1000;0.7074;1.3849;
-148.8000;0.7066;1.3849;
-148.5000;0.7049;1.3779;
-148.2000;0.7074;1.3849;
-147.9000;0.7074;1.3873;
-147.6000;0.7082;1.3896;
-147.3000;0.7025;1.3826;
-147.0000;0.7090;1.4013;
-146.7000;0.7066;1.3920;
-146.4000;0.7074;1.3802;
-146.1000;0.7123;1.3826;
-145.8000;0.7049;1.3732;
-145.5000;0.7057;1.3755;
-145.2000;0.7025;1.3732;
-144.9000;0.7049;1.3732;
-144.6000;0.7049;1.3779;
-144.3000;0.7074;1.3779;
-144.0000;0.7066;1.3779;
-143.7000;0.7057;1.3755;
-143.4000;0.7057;1.3802;
-143.1000;0.7066;1.3920;
-142.8000;0.7066;1.3896;
-142.5000;0.7082;1.3943;
-142.2000;0.7098;1.3990;
-141.9000;0.7074;1.3826;
-141.6000;0.7090;1.3873;
-141.3000;0.7090;1.3920;
-141.0000;0.7074;1.3896;
-140.7000;0.7049;1.3849;
-140.4000;0.7074;1.3920;
-140.1000;0.7066;1.4013;
-139.8000;0.7082;1.4013;
-139.5000;0.7057;1.3943;
-139.2000;0.7057;1.3920;
-138.9000;0.7098;1.3967;
-138.6000;0.7074;1.3990;
-138.3000;0.7057;1.3967;
-138.0000;0.7074;1.4013;
-137.7000;0.7074;1.4037;
-137.4000;0.7123;1.4107;
-137.1000;0.7074;1.4037;
-136.8000;0.7066;1.3990;
-136.5000;0.7074;1.4037;
-136.2000;0.7074;1.4084;
-135.9000;0.7106;1.4084;
-135.6000;0.7041;1.3849;
-135.3000;0.7041;1.3802;
-135.0000;0.7049;1.3802;
-134.7000;0.7074;1.3826;
-134.4000;0.7057;1.3779;
-134.1000;0.7057;1.3779;
-133.8000;0.7066;1.3826;
-133.5000;0.7090;1.3990;
-133.2000;0.7082;1.3920;
-132.9000;0.7057;1.3920;
-132.6000;0.7066;1.3967;
-132.3000;0.7090;1.4013;
-132.0000;0.7057;1.4037;
-131.7000;0.7057;1.4084;
-131.4000;0.7017;1.4013;
-131.1000;0.7074;1.4154;
-130.8000;0.7066;1.4131;
-130.5000;0.7057;1.4060;
-130.2000;0.7163;1.4413;
-129.9000;0.7057;1.4107;
-129.6000;0.7000;1.4013;
-129.3000;0.7066;1.4178;
-129.0000;0.7041;1.4037;
-128.7000;0.7066;1.3990;
-128.4000;0.7082;1.4037;
-128.1000;0.7049;1.3990;
-127.8000;0.7057;1.3967;
-127.5000;0.7057;1.4037;
-127.2000;0.7082;1.3990;
-126.9000;0.7066;1.3967;
-126.6000;0.7057;1.4037;
-126.3000;0.7066;1.4037;
-126.0000;0.7074;1.4060;
-125.7000;0.7057;1.4013;
-125.4000;0.7057;1.3943;
-125.1000;0.7041;1.3896;
-124.8000;0.7049;1.3873;
-124.5000;0.7082;1.3943;
-124.2000;0.7066;1.3990;
-123.9000;0.7049;1.3990;
-123.6000;0.7041;1.3873;
-123.3000;0.6984;1.3685;
-123.0000;0.7057;1.3896;
-122.7000;0.7057;1.3826;
-122.4000;0.7066;1.3802;
-122.1000;0.7139;1.4013;
-121.8000;0.7057;1.3873;
-121.5000;0.7049;1.3826;
-121.2000;0.7057;1.3920;
-120.9000;0.7066;1.3920;
-120.6000;0.7057;1.3896;
-120.3000;0.7066;1.3873;
-120.0000;0.7082;1.3943;
-119.7000;0.7057;1.3943;
-119.4000;0.7041;1.3802;
-119.1000;0.7066;1.3873;
-118.8000;0.7049;1.3873;
-118.5000;0.7066;1.3920;
-118.2000;0.7066;1.3967;
-117.9000;0.7066;1.4013;
-117.6000;0.7057;1.3943;
-117.3000;0.7057;1.3896;
-117.0000;0.6935;1.3614;
-116.7000;0.7057;1.3943;
-116.4000;0.7074;1.3990;
-116.1000;0.7066;1.4037;
-115.8000;0.6992;1.3826;
-115.5000;0.7066;1.4037;
-115.2000;0.7066;1.3990;
-114.9000;0.7074;1.4037;
-114.6000;0.7066;1.4013;
-114.3000;0.7074;1.4060;
-114.0000;0.7057;1.4013;
-113.7000;0.7066;1.4013;
-113.4000;0.7041;1.3849;
-113.1000;0.7049;1.3920;
-112.8000;0.7066;1.3990;
-112.5000;0.7074;1.4013;
-112.2000;0.7066;1.3943;
-111.9000;0.7074;1.3990;
-111.6000;0.7074;1.4037;
-111.3000;0.7049;1.4131;
-111.0000;0.7049;1.4084;
-110.7000;0.7057;1.4107;
-110.4000;0.7057;1.4178;
-110.1000;0.7082;1.4178;
-109.8000;0.7057;1.4084;
-109.5000;0.7057;1.4037;
-109.2000;0.7082;1.4060;
-108.9000;0.7066;1.3990;
-108.6000;0.7057;1.3967;
-108.3000;0.7082;1.4037;
-108.0000;0.7066;1.4037;
-107.7000;0.7049;1.3967;
-107.4000;0.6984;1.3849;
-107.1000;0.7082;1.3990;
-106.8000;0.7074;1.3920;
-106.5000;0.7049;1.3896;
-106.2000;0.7033;1.3873;
-105.9000;0.7041;1.3896;
-105.6000;0.7074;1.4037;
-105.3000;0.7066;1.4060;
-105.0000;0.7066;1.4060;
-104.7000;0.7066;1.4107;
-104.4000;0.7049;1.3967;
-104.1000;0.7074;1.4060;
-103.8000;0.7066;1.4107;
-103.5000;0.7057;1.4131;
-103.2000;0.7066;1.4131;
-102.9000;0.7106;1.4178;
-102.6000;0.7066;1.4178;
-102.3000;0.7049;1.4154;
-102.0000;0.7066;1.4272;
-101.7000;0.7057;1.4248;
-101.4000;0.7041;1.4084;
-101.1000;0.7066;1.4154;
-100.8000;0.7057;1.4107;
-100.5000;0.7033;1.4013;
-100.2000;0.7098;1.4084;
-99.9000;0.7082;1.3943;
-99.6000;0.7057;1.3849;
-99.3000;0.7057;1.3920;
-99.0000;0.7057;1.4013;
-98.7000;0.7057;1.4060;
-98.4000;0.7049;1.4037;
-98.1000;0.7066;1.4084;
-97.8000;0.7074;1.4131;
-97.5000;0.7033;1.4013;
-97.2000;0.7057;1.4037;
-96.9000;0.7049;1.3990;
-96.6000;0.7066;1.4060;
-96.3000;0.7066;1.4084;
-96.0000;0.7074;1.4107;
-95.7000;0.7057;1.4107;
-95.4000;0.7057;1.4037;
-95.1000;0.7049;1.3990;
-94.8000;0.7074;1.4013;
-94.5000;0.7057;1.3967;
-94.2000;0.7049;1.3920;
-93.9000;0.7074;1.3990;
-93.6000;0.7066;1.3990;
-93.3000;0.7066;1.3990;
-93.0000;0.7074;1.3990;
-92.7000;0.7033;1.3920;
-92.4000;0.7082;1.3990;
-92.1000;0.7049;1.3990;
-91.8000;0.7057;1.4013;
-91.5000;0.7057;1.4060;
-91.2000;0.7057;1.4084;
-90.9000;0.7049;1.4131;
-90.6000;0.7057;1.4154;
-90.3000;0.7049;1.4107;
-90.0000;0.7041;1.3990;
-89.7000;0.7057;1.4037;
-89.4000;0.7049;1.3920;
-89.1000;0.7049;1.3943;
-88.8000;0.7057;1.3943;
-88.5000;0.7017;1.3896;
-88.2000;0.7049;1.3896;
-87.9000;0.7163;1.4131;
-87.6000;0.7057;1.3826;
-87.3000;0.7057;1.3873;
-87.0000;0.7057;1.3849;
-86.7000;0.7057;1.3873;
-86.4000;0.7049;1.3826;
-86.1000;0.7033;1.3779;
-85.8000;0.7074;1.3943;
-85.5000;0.7049;1.3990;
-85.2000;0.7041;1.4013;
-84.9000;0.7066;1.4013;
-84.6000;0.7074;1.4037;
-84.3000;0.7098;1.4037;
-84.0000;0.7106;1.4107;
-83.7000;0.7066;1.3920;
-83.4000;0.7082;1.3967;
-83.1000;0.7082;1.3920;
-82.8000;0.7082;1.3849;
-82.5000;0.7057;1.3779;
-82.2000;0.7017;1.3685;
-81.9000;0.7057;1.3826;
-81.6000;0.7066;1.3849;
-81.3000;0.7066;1.3920;
-81.0000;0.7098;1.3967;
-80.7000;0.7057;1.3849;
-80.4000;0.7049;1.3873;
-80.1000;0.7074;1.3896;
-79.8000;0.7041;1.3802;
-79.5000;0.7057;1.3826;
-79.2000;0.7057;1.3826;
-78.9000;0.7057;1.3873;
-78.6000;0.7041;1.3873;
-78.3000;0.7066;1.3943;
-78.0000;0.7090;1.3967;
-77.7000;0.7066;1.3896;
-77.4000;0.7049;1.3943;
-77.1000;0.7066;1.4013;
-76.8000;0.7041;1.3967;
-76.5000;0.7057;1.4037;
-76.2000;0.7041;1.4037;
-75.9000;0.7066;1.4107;
-75.6000;0.7057;1.4060;
-75.3000;0.7049;1.4013;
-75.0000;0.7066;1.3896;
-74.7000;0.7074;1.3802;
-74.4000;0.7098;1.3896;
-74.1000;0.7049;1.3849;
-73.8000;0.7049;1.3826;
-73.5000;0.7057;1.3920;
-73.2000;0.7066;1.4013;
-72.9000;0.7114;1.4154;
-72.6000;0.7000;1.3708;
-72.3000;0.7057;1.3943;
-72.0000;0.7049;1.3943;
-71.7000;0.7025;1.3849;
-71.4000;0.7066;1.3967;
-71.1000;0.7049;1.3873;
-70.8000;0.7049;1.3943;
-70.5000;0.7074;1.4013;
-70.2000;0.7057;1.3990;
-69.9000;0.7066;1.3967;
-69.6000;0.7041;1.3896;
-69.3000;0.7066;1.3967;
-69.0000;0.7074;1.4013;
-68.7000;0.7082;1.4037;
-68.4000;0.7041;1.3896;
-68.1000;0.7074;1.3990;
-67.8000;0.7090;1.3967;
-67.5000;0.7074;1.3920;
-67.2000;0.7066;1.3943;
-66.9000;0.7033;1.3826;
-66.6000;0.7082;1.3943;
-66.3000;0.7106;1.3920;
-66.0000;0.7074;1.3873;
-65.7000;0.7074;1.3873;
-65.4000;0.7057;1.3943;
-65.1000;0.7066;1.3943;
-64.8000;0.7057;1.3967;
-64.5000;0.7057;1.3990;
-64.2000;0.7057;1.4013;
-63.9000;0.7017;1.3873;
-63.6000;0.7049;1.3849;
-63.3000;0.7041;1.3826;
-63.0000;0.7114;1.4013;
-62.7000;0.7106;1.4084;
-62.4000;0.7033;1.3826;
-62.1000;0.7066;1.3920;
-61.8000;0.7049;1.3849;
-61.5000;0.7057;1.3802;
-61.2000;0.7049;1.3849;
-60.9000;0.7025;1.3802;
-60.6000;0.7066;1.3896;
-60.3000;0.7131;1.4060;
-60.0000;0.7074;1.3990;
-59.7000;0.7057;1.4037;
-59.4000;0.7066;1.3990;
-59.1000;0.7057;1.3990;
-58.8000;0.7057;1.3990;
-58.5000;0.7041;1.4037;
-58.2000;0.7033;1.3967;
-57.9000;0.7074;1.4037;
-57.6000;0.7066;1.4107;
-57.3000;0.7066;1.4013;
-57.0000;0.7049;1.4013;
-56.7000;0.7057;1.4060;
-56.4000;0.7074;1.4013;
-56.1000;0.7090;1.3943;
-55.8000;0.7057;1.3873;
-55.5000;0.7066;1.3873;
-55.2000;0.7066;1.3896;
-54.9000;0.7090;1.3967;
-54.6000;0.7066;1.3943;
-54.3000;0.7074;1.3826;
-54.0000;0.7049;1.3849;
-53.7000;0.7082;1.3896;
-53.4000;0.7082;1.3873;
-53.1000;0.7049;1.3943;
-52.8000;0.7057;1.3873;
-52.5000;0.7066;1.3873;
-52.2000;0.6976;1.3614;
-51.9000;0.7057;1.3802;
-51.6000;0.7025;1.3802;
-51.3000;0.7123;1.4060;
-51.0000;0.7090;1.3990;
-50.7000;0.7082;1.4037;
-50.4000;0.7066;1.4013;
-50.1000;0.7090;1.4154;
-49.8000;0.7057;1.3967;
-49.5000;0.7057;1.3896;
-49.2000;0.7106;1.3967;
-48.9000;0.7025;1.3802;
-48.6000;0.7066;1.3896;
-48.3000;0.7082;1.3943;
-48.0000;0.7066;1.3849;
-47.7000;0.7041;1.3849;
-47.4000;0.7066;1.3873;
-47.1000;0.7066;1.3920;
-46.8000;0.7057;1.3849;
-46.5000;0.7074;1.3826;
-46.2000;0.7082;1.3896;
-45.9000;0.7074;1.3920;
-45.6000;0.7066;1.3967;
-45.3000;0.7057;1.3943;
-45.0000;0.7090;1.4037;
-44.7000;0.7074;1.4037;
-44.4000;0.7049;1.3943;
-44.1000;0.7074;1.3967;
-43.8000;0.7049;1.3896;
-43.5000;0.7090;1.3849;
-43.2000;0.7074;1.3826;
-42.9000;0.7057;1.3755;
-42.6000;0.7057;1.3732;
-42.3000;0.7066;1.3755;
-42.0000;0.7090;1.3802;
-41.7000;0.7074;1.3802;
-41.4000;0.7049;1.3826;
-41.1000;0.7074;1.3896;
-40.8000;0.7066;1.3873;
-40.5000;0.7057;1.3873;
-40.2000;0.7057;1.3849;
-39.9000;0.7066;1.3732;
-39.6000;0.7074;1.3826;
-39.3000;0.7057;1.3802;
-39.0000;0.7066;1.3920;
-38.7000;0.7066;1.3990;
-38.4000;0.7057;1.4037;
-38.1000;0.7049;1.4060;
-37.8000;0.7139;1.4319;
-37.5000;0.7057;1.4060;
-37.2000;0.7033;1.3920;
-36.9000;0.7049;1.3920;
-36.6000;0.7049;1.3967;
-36.3000;0.7049;1.3990;
-36.0000;0.7057;1.3943;
-35.7000;0.7066;1.3943;
-35.4000;0.7017;1.3826;
-35.1000;0.7066;1.3920;
-34.8000;0.7066;1.3873;
-34.5000;0.7049;1.3873;
-34.2000;0.7066;1.3920;
-33.9000;0.7090;1.3920;
-33.6000;0.7066;1.3849;
-33.3000;0.7066;1.3802;
-33.0000;0.7082;1.3779;
-32.7000;0.7066;1.3685;
-32.4000;0.7033;1.3661;
-32.1000;0.7074;1.3826;
-31.8000;0.7082;1.3967;
-31.5000;0.7066;1.3967;
-31.2000;0.7049;1.3943;
-30.9000;0.7074;1.3990;
-30.6000;0.7049;1.3849;
-30.3000;0.7041;1.3779;
-30.0000;0.7066;1.3802;
-29.7000;0.7057;1.3873;
-29.4000;0.7066;1.3896;
-29.1000;0.7074;1.3920;
-28.8000;0.7074;1.3920;
-28.5000;0.7057;1.3802;
-28.2000;0.7106;1.3779;
-27.9000;0.7074;1.3779;
-27.6000;0.7098;1.3849;
-27.3000;0.6976;1.3614;
-27.0000;0.7049;1.3849;
-26.7000;0.7057;1.3849;
-26.4000;0.7074;1.3779;
-26.1000;0.7041;1.3661;
-25.8000;0.7049;1.3826;
-25.5000;0.7049;1.3826;
-25.2000;0.7041;1.3849;
-24.9000;0.7009;1.3849;
-24.6000;0.7090;1.3990;
-24.3000;0.7074;1.3920;
-24.0000;0.7057;1.3920;
-23.7000;0.7082;1.4037;
-23.4000;0.7033;1.3990;
-23.1000;0.7033;1.4037;
-22.8000;0.7057;1.4107;
-22.5000;0.7057;1.4060;
-22.2000;0.7066;1.4037;
-21.9000;0.7066;1.4013;
-21.6000;0.7196;1.4295;
-21.3000;0.7066;1.3849;
-21.0000;0.7057;1.3802;
-20.7000;0.7033;1.3779;
-20.4000;0.7066;1.3849;
-20.1000;0.7066;1.3873;
-19.8000;0.7066;1.3873;
-19.5000;0.7057;1.3849;
-19.2000;0.7066;1.3920;
-18.9000;0.7066;1.3896;
-18.6000;0.7090;1.3849;
-18.3000;0.7057;1.3826;
-18.0000;0.7033;1.3755;
-17.7000;0.7066;1.3873;
-17.4000;0.6976;1.3638;
-17.1000;0.7066;1.3896;
-16.8000;0.7057;1.3873;
-16.5000;0.7147;1.4084;
-16.2000;0.7074;1.3920;
-15.9000;0.7041;1.3849;
-15.6000;0.7066;1.3943;
-15.3000;0.7074;1.3967;
-15.0000;0.7041;1.3943;
-14.7000;0.7041;1.3896;
-14.4000;0.6952;1.3614;
-14.1000;0.7000;1.3661;
-13.8000;0.7090;1.3967;
-13.5000;0.7057;1.3873;
-13.2000;0.7066;1.3873;
-12.9000;0.7057;1.3943;
-12.6000;0.7057;1.4037;
-12.3000;0.7057;1.3990;
-12.0000;0.7066;1.4037;
-11.7000;0.7057;1.4013;
-11.4000;0.7066;1.4060;
-11.1000;0.7106;1.4201;
-10.8000;0.7057;1.4084;
-10.5000;0.7074;1.4037;
-10.2000;0.7147;1.4154;
-9.9000;0.7049;1.3943;
-9.6000;0.7074;1.3990;
-9.3000;0.7009;1.3896;
-9.0000;0.7017;1.3896;
-8.7000;0.7057;1.3896;
-8.4000;0.7074;1.3849;
-8.1000;0.7082;1.3896;
-7.8000;0.7057;1.3896;
-7.5000;0.7074;1.3943;
-7.2000;0.7074;1.3943;
-6.9000;0.7057;1.3967;
-6.6000;0.7057;1.4037;
-6.3000;0.7074;1.4037;
-6.0000;0.7057;1.4013;
-5.7000;0.7098;1.4037;
-5.4000;0.7090;1.4037;
-5.1000;0.7057;1.4013;
-4.8000;0.7066;1.4013;
-4.5000;0.7057;1.3967;
-4.2000;0.7057;1.3943;
-3.9000;0.6935;1.3685;
-3.6000;0.7033;1.3967;
-3.3000;0.7041;1.3967;
-3.0000;0.7057;1.4060;
-2.7000;0.7057;1.4107;
-2.4000;0.7057;1.4084;
-2.1000;0.7131;1.4248;
-1.8000;0.7066;1.3967;
-1.5000;0.7057;1.3943;
-1.2000;0.7033;1.3967;
-0.9000;0.7074;1.4037;
-0.6000;0.7049;1.4037;
-0.3000;0.7033;1.4013;
0.0000;0.7033;1.4013;
0.3000;0.7131;1.4131;
0.6000;0.7245;1.4319;
0.9000;0.7318;1.4530;
1.2000;0.7521;1.5070;
1.5000;0.7440;1.4999;
1.8000;0.7505;1.5211;
2.1000;0.7530;1.5304;
2.4000;0.7570;1.5469;
2.7000;0.7603;1.5539;
3.0000;0.7725;1.5938;
3.3000;0.7652;1.5797;
3.6000;0.7684;1.5891;
3.9000;0.7692;1.5915;
4.2000;0.7709;1.5891;
4.5000;0.7692;1.5962;
4.8000;0.7717;1.6103;
5.1000;0.7798;1.6220;
5.4000;0.7757;1.6126;
5.7000;0.7757;1.6079;
6.0000;0.7774;1.6103;
6.3000;0.7757;1.6103;
6.6000;0.7774;1.6173;
6.9000;0.7774;1.6150;
7.2000;0.7798;1.6150;
7.5000;0.7798;1.6126;
7.8000;0.7798;1.6243;
8.1000;0.7806;1.6361;
8.4000;0.7831;1.6361;
8.7000;0.7790;1.6314;
9.0000;0.7814;1.6361;
9.3000;0.7839;1.6431;
9.6000;0.7839;1.6408;
9.9000;0.7880;1.6408;
10.2000;0.7839;1.6361;
10.5000;0.7823;1.6455;
10.8000;0.7855;1.6572;
11.1000;0.7806;1.6455;
11.4000;0.7847;1.6384;
11.7000;0.7774;1.6220;
12.0000;0.7863;1.6361;
12.3000;0.7863;1.6267;
12.6000;0.7904;1.6290;
12.9000;0.7953;1.6384;
13.2000;0.7880;1.6243;
13.5000;0.7880;1.6337;
13.8000;0.7888;1.6337;
14.1000;0.7880;1.6361;
14.4000;0.7880;1.6384;
14.7000;0.7888;1.6408;
15.0000;0.7855;1.6267;
15.3000;0.7888;1.6337;
15.6000;0.7880;1.6337;
15.9000;0.7945;1.6455;
16.2000;0.7904;1.6361;
16.5000;0.7896;1.6431;
16.8000;0.7888;1.6314;
17.1000;0.7912;1.6431;
17.4000;0.7871;1.6361;
17.7000;0.7888;1.6384;
18.0000;0.7880;1.6361;
18.3000;0.7888;1.6408;
18.6000;0.7888;1.6478;
18.9000;0.7912;1.6549;
19.2000;0.7904;1.6525;
19.5000;0.7896;1.6525;
19.8000;0.7912;1.6455;
20.1000;0.7888;1.6361;
20.4000;0.7969;1.6525;
20.7000;0.7920;1.6314;
21.0000;0.7937;1.6290;
21.3000;0.7945;1.6361;
21.6000;0.7904;1.6361;
21.9000;0.7920;1.6314;
22.2000;0.7928;1.6314;
22.5000;0.7928;1.6290;
22.8000;0.7928;1.6314;
23.1000;0.7839;1.6103;
23.4000;0.7912;1.6361;
23.7000;0.7928;1.6431;
24.0000;0.7928;1.6243;
24.3000;0.7937;1.6243;
24.6000;0.7912;1.6290;
24.9000;0.7945;1.6408;
25.2000;0.7937;1.6314;
25.5000;0.7937;1.6290;
25.8000;0.7945;1.6314;
26.1000;0.7928;1.6290;
26.4000;0.7945;1.6408;
26.7000;0.7920;1.6314;
27.0000;0.7904;1.6314;
27.3000;0.7937;1.6314;
27.6000;0.7945;1.6220;
27.9000;0.7945;1.6220;
28.2000;0.7912;1.6243;
28.5000;0.7928;1.6337;
28.8000;0.7945;1.6337;
29.1000;0.7937;1.6408;
29.4000;0.7953;1.6478;
29.7000;0.7953;1.6431;
30.0000;0.7937;1.6431;
30.3000;0.7953;1.6478;
30.6000;0.7880;1.6361;
30.9000;0.7945;1.6596;
31.2000;0.7953;1.6619;
31.5000;0.7969;1.6666;
31.8000;0.7920;1.6478;
32.1000;0.7937;1.6455;
32.4000;0.7945;1.6431;
32.7000;0.7961;1.6572;
33.0000;0.7993;1.6572;
33.3000;0.7896;1.6337;
33.6000;0.8075;1.6713;
33.9000;0.7888;1.6337;
34.2000;0.7937;1.6384;
34.5000;0.7945;1.6361;
34.8000;0.7928;1.6337;
35.1000;0.7871;1.6173;
35.4000;0.7961;1.6337;
35.7000;0.7831;1.6056;
36.0000;0.8034;1.6572;
36.3000;0.7945;1.6314;
36.6000;0.7928;1.6290;
36.9000;0.7953;1.6408;
37.2000;0.7945;1.6525;
37.5000;0.7945;1.6572;
37.8000;0.7937;1.6502;
38.1000;0.7945;1.6455;
38.4000;0.7953;1.6478;
38.7000;0.7969;1.6572;
39.0000;0.7953;1.6549;
39.3000;0.7945;1.6525;
39.6000;0.7945;1.6455;
39.9000;0.7945;1.6478;
40.2000;0.7945;1.6408;
40.5000;0.7928;1.6267;
40.8000;0.7969;1.6431;
41.1000;0.7969;1.6361;
41.4000;0.7969;1.6384;
41.7000;0.7961;1.6408;
42.0000;0.8002;1.6502;
42.3000;0.7953;1.6337;
42.6000;0.7969;1.6408;
42.9000;0.7953;1.6478;
43.2000;0.7977;1.6478;
43.5000;0.7945;1.6384;
43.8000;0.7945;1.6361;
44.1000;0.7961;1.6384;
44.4000;0.7985;1.6478;
44.7000;0.7961;1.6384;
45.0000;0.7953;1.6337;
45.3000;0.7985;1.6267;
45.6000;0.8075;1.6455;
45.9000;0.7953;1.6173;
46.2000;0.7961;1.6150;
46.5000;0.7961;1.6173;
46.8000;0.7961;1.6079;
47.1000;0.7969;1.6079;
47.4000;0.7993;1.6150;
47.7000;0.7961;1.6126;
48.0000;0.7961;1.6126;
48.3000;0.7839;1.5844;
48.6000;0.7945;1.6173;
48.9000;0.7961;1.6196;
49.2000;0.8042;1.6384;
49.5000;0.7969;1.6290;
49.8000;0.7953;1.6243;
50.1000;0.7977;1.6337;
50.4000;0.7945;1.6337;
50.7000;0.7945;1.6220;
51.0000;0.7953;1.6243;
51.3000;0.7945;1.6103;
51.6000;0.7945;1.6126;
51.9000;0.7961;1.5985;
52.2000;0.7961;1.5868;
52.5000;0.7928;1.5774;
52.8000;0.7953;1.5844;
53.1000;0.7977;1.5891;
53.4000;0.7969;1.5915;
53.7000;0.8002;1.6079;
54.0000;0.7945;1.6056;
54.3000;0.7953;1.6150;
54.6000;0.7961;1.6196;
54.9000;0.7961;1.6220;
55.2000;0.7953;1.6220;
55.5000;0.7953;1.6173;
55.8000;0.7977;1.6243;
56.1000;0.7945;1.6243;
56.4000;0.7928;1.6173;
56.7000;0.7945;1.6220;
57.0000;0.7953;1.6196;
57.3000;0.7953;1.6243;
57.6000;0.7928;1.6196;
57.9000;0.7937;1.6267;
58.2000;0.7912;1.6314;
58.5000;0.7961;1.6384;
58.8000;0.7953;1.6314;
59.1000;0.7937;1.6267;
59.4000;0.7961;1.6361;
59.7000;0.7945;1.6455;
60.0000;0.7945;1.6455;
60.3000;0.7953;1.6502;
60.6000;0.7945;1.6431;
60.9000;0.7961;1.6455;
61.2000;0.7961;1.6455;
61.5000;0.7953;1.6525;
61.8000;0.7969;1.6549;
62.1000;0.7961;1.6478;
62.4000;0.7969;1.6478;
62.7000;0.7993;1.6572;
63.0000;0.7969;1.6572;
63.3000;0.7953;1.6572;
63.6000;0.7945;1.6525;
63.9000;0.7953;1.6525;
64.2000;0.7953;1.6384;
64.5000;0.7961;1.6384;
64.8000;0.7888;1.6173;
65.1000;0.7985;1.6361;
65.4000;0.7993;1.6384;
65.7000;0.7912;1.6150;
66.0000;0.7880;1.6126;
66.3000;0.7953;1.6337;
66.6000;0.7920;1.6337;
66.9000;0.7945;1.6478;
67.2000;0.7937;1.6455;
67.5000;0.7953;1.6525;
67.8000;0.7871;1.6337;
68.1000;0.7928;1.6572;
68.4000;0.7920;1.6384;
68.7000;0.7937;1.6408;
69.0000;0.7953;1.6408;
69.3000;0.7961;1.6337;
69.6000;0.7953;1.6361;
69.9000;0.7961;1.6361;
70.2000;0.8026;1.6502;
70.5000;0.7961;1.6290;
70.8000;0.7945;1.6267;
71.1000;0.7945;1.6196;
71.4000;0.7928;1.6220;
71.7000;0.7961;1.6314;
72.0000;0.7937;1.6408;
72.3000;0.7912;1.6337;
72.6000;0.7969;1.6502;
72.9000;0.7961;1.6455;
73.2000;0.7961;1.6384;
73.5000;0.7969;1.6337;
73.8000;0.7977;1.6408;
74.1000;0.7961;1.6384;
74.4000;0.7961;1.6314;
74.7000;0.8002;1.6455;
75.0000;0.7953;1.6267;
75.3000;0.7977;1.6384;
75.6000;0.7985;1.6408;
75.9000;0.7953;1.6455;
76.2000;0.7993;1.6502;
76.5000;0.7945;1.6361;
76.8000;0.7953;1.6337;
77.1000;0.7945;1.6267;
77.4000;0.7904;1.6220;
77.7000;0.7961;1.6337;
78.0000;0.7945;1.6314;
78.3000;0.7961;1.6314;
78.6000;0.7937;1.6267;
78.9000;0.7945;1.6220;
79.2000;0.7945;1.6220;
79.5000;0.7953;1.6314;
79.8000;0.7953;1.6361;
80.1000;0.7961;1.6337;
80.4000;0.7961;1.6361;
80.7000;0.7945;1.6361;
81.0000;0.7953;1.6408;
81.3000;0.7937;1.6361;
81.6000;0.7961;1.6408;
81.9000;0.7953;1.6431;
82.2000;0.7969;1.6455;
82.5000;0.7953;1.6455;
82.8000;0.7871;1.6267;
83.1000;0.7945;1.6384;
83.4000;0.7945;1.6361;
83.7000;0.7953;1.6384;
84.0000;0.7920;1.6361;
84.3000;0.7961;1.6431;
84.6000;0.7945;1.6478;
84.9000;0.7928;1.6408;
85.2000;0.7953;1.6408;
85.5000;0.7961;1.6478;
85.8000;0.7969;1.6384;
86.1000;0.7953;1.6337;
86.4000;0.7961;1.6361;
86.7000;0.7969;1.6314;
87.0000;0.7961;1.6314;
87.3000;0.7961;1.6337;
87.6000;0.7937;1.6337;
87.9000;0.7977;1.6408;
88.2000;0.7945;1.6408;
88.5000;0.7937;1.6455;
88.8000;0.7985;1.6525;
89.1000;0.7928;1.6455;
89.4000;0.7945;1.6455;
89.7000;0.7904;1.6361;
90.0000;0.8026;1.6619;
90.3000;0.7953;1.6502;
90.6000;0.7945;1.6525;
90.9000;0.7896;1.6408;
91.2000;0.7920;1.6525;
91.5000;0.7953;1.6596;
91.8000;0.7912;1.6478;
92.1000;0.8018;1.6736;
92.4000;0.7945;1.6549;
92.7000;0.7961;1.6596;
93.0000;0.7945;1.6408;
93.3000;0.7945;1.6431;
93.6000;0.7945;1.6478;
93.9000;0.7953;1.6502;
94.2000;0.7937;1.6478;
94.5000;0.7904;1.6478;
94.8000;0.7953;1.6455;
95.1000;0.7953;1.6478;
95.4000;0.7937;1.6478;
95.7000;0.7953;1.6478;
96.0000;0.7961;1.6455;
96.3000;0.7945;1.6408;
96.6000;0.7945;1.6431;
96.9000;0.7977;1.6478;
97.2000;0.7961;1.6361;
97.5000;0.7961;1.6267;
97.8000;0.7945;1.6267;
98.1000;0.7953;1.6290;
98.4000;0.7945;1.6314;
98.7000;0.7969;1.6384;
99.0000;0.7961;1.6384;
99.3000;0.7953;1.6314;
99.6000;0.7961;1.6290;
99.9000;0.7937;1.6290;
100.2000;0.7945;1.6431;
100.5000;0.7961;1.6572;
100.8000;0.7920;1.6502;
101.1000;0.7945;1.6502;
101.4000;0.7937;1.6478;
101.7000;0.7945;1.6525;
102.0000;0.7937;1.6478;
102.3000;0.7953;1.6431;
102.6000;0.7912;1.6314;
102.9000;0.7953;1.6455;
103.2000;0.7945;1.6525;
103.5000;0.7961;1.6572;
103.8000;0.7904;1.6478;
104.1000;0.7953;1.6713;
104.4000;0.7953;1.6689;
104.7000;0.7977;1.6830;
105.0000;0.7953;1.6736;
105.3000;0.7937;1.6689;
105.6000;0.7953;1.6642;
105.9000;0.7993;1.6713;
106.2000;0.7945;1.6572;
106.5000;0.7961;1.6596;
106.8000;0.7937;1.6572;
107.1000;0.7961;1.6619;
107.4000;0.7969;1.6689;
107.7000;0.7985;1.6783;
108.0000;0.7937;1.6596;
108.3000;0.7969;1.6596;
108.6000;0.7977;1.6596;
108.9000;0.7961;1.6478;
109.2000;0.7969;1.6549;
109.5000;0.7945;1.6549;
109.8000;0.7969;1.6642;
110.1000;0.7953;1.6689;
110.4000;0.7928;1.6642;
110.7000;0.7912;1.6549;
111.0000;0.7945;1.6666;
111.3000;0.7953;1.6596;
111.6000;0.7961;1.6642;
111.9000;0.7961;1.6619;
112.2000;0.7961;1.6572;
112.5000;0.7937;1.6431;
112.8000;0.7961;1.6502;
113.1000;0.7953;1.6549;
113.4000;0.7945;1.6549;
113.7000;0.7937;1.6549;
114.0000;0.7937;1.6478;
114.3000;0.7961;1.6431;
114.6000;0.7928;1.6431;
114.9000;0.7928;1.6572;
115.2000;0.7953;1.6619;
115.5000;0.7961;1.6596;
115.8000;0.7945;1.6455;
116.1000;0.7920;1.6408;
116.4000;0.7912;1.6431;
116.7000;0.7969;1.6549;
117.0000;0.7945;1.6431;
117.3000;0.7945;1.6384;
117.6000;0.7953;1.6337;
117.9000;0.7953;1.6384;
118.2000;0.7961;1.6431;
118.5000;0.7871;1.6290;
118.8000;0.7945;1.6455;
119.1000;0.7953;1.6502;
119.4000;0.7953;1.6384;
119.7000;0.7953;1.6361;
120.0000;0.7969;1.6478;
120.3000;0.7961;1.6549;
120.6000;0.7945;1.6572;
120.9000;0.7961;1.6642;
121.2000;0.7953;1.6596;
121.5000;0.7945;1.6525;
121.8000;0.7920;1.6455;
122.1000;0.7953;1.6525;
122.4000;0.7937;1.6549;
122.7000;0.7912;1.6525;
123.0000;0.7920;1.6408;
123.3000;0.7928;1.6549;
123.6000;0.7937;1.6549;
123.9000;0.7961;1.6549;
124.2000;0.7945;1.6502;
124.5000;0.7945;1.6431;
124.8000;0.7912;1.6384;
125.1000;0.7937;1.6431;
125.4000;0.7937;1.6408;
125.7000;0.7937;1.6431;
126.0000;0.7904;1.6408;
126.3000;0.7937;1.6549;
126.6000;0.7937;1.6642;
126.9000;0.7937;1.6642;
127.2000;0.7945;1.6572;
127.5000;0.7945;1.6525;
127.8000;0.7945;1.6549;
128.1000;0.7945;1.6619;
128.4000;0.7945;1.6572;
128.7000;0.7953;1.6549;
129.0000;0.7896;1.6431;
129.3000;0.7953;1.6502;
129.6000;0.7945;1.6478;
129.9000;0.7961;1.6408;
130.2000;0.7945;1.6384;
130.5000;0.7937;1.6337;
130.8000;0.7953;1.6361;
131.1000;0.7937;1.6361;
131.4000;0.7937;1.6408;
131.7000;0.7920;1.6290;
132.0000;0.7937;1.6431;
132.3000;0.7961;1.6525;
132.6000;0.7945;1.6502;
132.9000;0.7953;1.6549;
133.2000;0.7945;1.6666;
133.5000;0.7953;1.6666;
133.8000;0.7977;1.6760;
134.1000;0.7961;1.6830;
134.4000;0.7937;1.6760;
134.7000;0.7937;1.6807;
135.0000;0.7937;1.6877;
135.3000;0.7953;1.6948;
135.6000;0.7937;1.6924;
135.9000;0.7945;1.6971;
136.2000;0.7961;1.6948;
136.5000;0.7985;1.6924;
136.8000;0.7945;1.6854;
137.1000;0.7937;1.6830;
137.4000;0.7969;1.6971;
137.7000;0.7937;1.6783;
138.0000;0.7937;1.6642;
138.3000;0.7945;1.6619;
138.6000;0.7937;1.6619;
138.9000;0.7871;1.6431;
139.2000;0.7953;1.6596;
139.5000;0.7920;1.6502;
139.8000;0.7937;1.6549;
140.1000;0.7953;1.6642;
140.4000;0.7937;1.6596;
140.7000;0.7953;1.6572;
141.0000;0.7937;1.6549;
141.3000;0.7953;1.6549;
141.6000;0.7945;1.6596;
141.9000;0.7928;1.6642;
142.2000;0.7945;1.6525;
142.5000;0.7912;1.6431;
142.8000;0.7937;1.6525;
143.1000;0.7945;1.6619;
143.4000;0.7937;1.6642;
143.7000;0.7961;1.6713;
144.0000;0.7945;1.6689;
144.3000;0.7937;1.6666;
144.6000;0.7937;1.6642;
144.9000;0.7945;1.6642;
145.2000;0.7953;1.6642;
145.5000;0.7953;1.6572;
145.8000;0.7880;1.6384;
146.1000;0.7953;1.6525;
146.4000;0.7945;1.6502;
146.7000;0.7937;1.6478;
147.0000;0.7928;1.6431;
147.3000;0.7920;1.6572;
147.6000;0.7896;1.6431;
147.9000;0.7928;1.6455;
148.2000;0.7937;1.6408;
148.5000;0.7977;1.6502;
148.8000;0.7937;1.6478;
149.1000;0.7953;1.6525;
149.4000;0.7945;1.6478;
149.7000;0.7928;1.6478;
150.0000;0.7961;1.6502;
150.3000;0.7945;1.6455;
150.6000;0.7920;1.6408;
150.9000;0.7920;1.6502;
151.2000;0.7928;1.6478;
151.5000;0.7945;1.6408;
151.8000;0.7937;1.6408;
152.1000;0.7961;1.6478;
152.4000;0.7937;1.6431;
152.7000;0.7928;1.6525;
153.0000;0.7937;1.6572;
153.3000;0.7928;1.6572;
153.6000;0.7937;1.6596;
153.9000;0.7945;1.6619;
154.2000;0.7928;1.6478;
154.5000;0.7937;1.6431;
154.8000;0.7945;1.6502;
155.1000;0.7880;1.6337;
155.4000;0.7937;1.6361;
155.7000;0.7945;1.6314;
156.0000;0.7937;1.6314;
156.3000;0.7928;1.6337;
156.6000;0.7945;1.6337;
156.9000;0.7945;1.6337;
157.2000;0.7928;1.6408;
157.5000;0.7945;1.6361;
157.8000;0.7937;1.6361;
158.1000;0.7945;1.6408;
158.4000;0.7953;1.6408;
158.7000;0.7945;1.6314;
159.0000;0.7945;1.6337;
159.3000;0.8002;1.6572;
159.6000;0.7928;1.6384;
159.9000;0.7928;1.6361;
160.2000;0.7920;1.6408;
160.5000;0.7961;1.6572;
160.8000;0.7953;1.6502;
161.1000;0.7945;1.6478;
161.4000;0.7920;1.6502;
161.7000;0.7920;1.6549;
162.0000;0.7928;1.6525;
162.3000;0.7928;1.6478;
162.6000;0.7928;1.6455;
162.9000;0.7920;1.6408;
163.2000;0.7945;1.6478;
163.5000;0.8018;1.6736;
163.8000;0.7912;1.6431;
164.1000;0.7871;1.6314;
164.4000;0.7937;1.6502;
164.7000;0.7920;1.6572;
165.0000;0.7937;1.6525;
165.3000;0.7928;1.6455;
165.6000;0.7945;1.6549;
165.9000;0.7937;1.6502;
166.2000;0.8010;1.6666;
166.5000;0.8018;1.6642;
166.8000;0.7928;1.6408;
167.1000;0.7871;1.6267;
167.4000;0.7928;1.6455;
167.7000;0.7937;1.6431;
168.0000;0.7937;1.6337;
168.3000;0.7945;1.6337;
168.6000;0.7928;1.6290;
168.9000;0.7928;1.6337;
169.2000;0.8002;1.6572;
169.5000;0.7937;1.6408;
169.8000;0.7945;1.6408;
170.1000;0.7945;1.6455;
170.4000;0.7928;1.6455;
170.7000;0.7953;1.6502;
171.0000;0.7953;1.6455;
171.3000;0.7953;1.6572;
171.6000;0.7937;1.6478;
171.9000;0.7945;1.6525;
172.2000;0.7945;1.6525;
172.5000;0.7912;1.6431;
172.8000;0.7953;1.6549;
173.1000;0.7928;1.6431;
173.4000;0.7928;1.6478;
173.7000;0.7961;1.6596;
174.0000;0.7937;1.6572;
174.3000;0.7912;1.6572;
174.6000;0.7928;1.6525;
174.9000;0.7920;1.6549;
175.2000;0.7912;1.6502;
175.5000;0.7912;1.6525;
175.8000;0.7912;1.6478;
176.1000;0.7945;1.6455;
176.4000;0.7928;1.6408;
176.7000;0.7945;1.6384;
177.0000;0.7937;1.6408;
177.3000;0.7937;1.6384;
177.6000;0.7896;1.6337;
177.9000;0.7937;1.6455;
178.2000;0.7928;1.6408;
178.5000;0.7937;1.6314;
178.8000;0.7863;1.6103;
179.1000;0.7945;1.6361;
179.4000;0.7945;1.6384;
179.7000;0.7928;1.6455;
180.0000;0.7937;1.6478;
180.3000;0.7904;1.6408;
180.6000;0.7953;1.6596;
180.9000;0.7928;1.6408;
181.2000;0.7977;1.6549;
181.5000;0.7945;1.6455;
181.8000;0.7928;1.6361;
182.1000;0.7937;1.6337;
182.4000;0.7937;1.6267;
182.7000;0.7937;1.6220;
183.0000;0.7961;1.6361;
183.3000;0.7928;1.6314;
183.6000;0.7871;1.6173;
183.9000;0.7928;1.6408;
184.2000;0.7937;1.6431;
184.5000;0.7937;1.6408;
184.8000;0.7945;1.6361;
185.1000;0.7945;1.6408;
185.4000;0.7969;1.6502;
185.7000;0.7953;1.6431;
186.0000;0.7912;1.6361;
186.3000;0.7945;1.6431;
186.6000;0.7928;1.6431;
186.9000;0.7928;1.6408;
187.2000;0.7985;1.6502;
187.5000;0.7937;1.6408;
187.8000;0.7937;1.6408;
188.1000;0.7904;1.6384;
188.4000;0.7928;1.6431;
188.7000;0.7945;1.6431;
189.0000;0.7961;1.6384;
189.3000;0.7945;1.6478;
189.6000;0.7945;1.6431;
189.9000;0.7928;1.6431;
190.2000;0.7928;1.6384;
190.5000;0.7937;1.6408;
190.8000;0.7937;1.6408;
191.1000;0.7928;1.6314;
191.4000;0.7937;1.6337;
191.7000;0.7928;1.6384;
192.0000;0.7937;1.6478;
192.3000;0.7888;1.6384;
192.6000;0.7928;1.6572;
192.9000;0.7928;1.6572;
193.2000;0.7937;1.6525;
193.5000;0.7945;1.6572;
193.8000;0.7937;1.6666;
194.1000;0.7888;1.6596;
194.4000;0.7928;1.6760;
194.7000;0.7880;1.6596;
195.0000;0.7920;1.6736;
195.3000;0.7912;1.6807;
195.6000;0.7920;1.6877;
195.9000;0.7928;1.6877;
196.2000;0.7928;1.6877;
196.5000;0.7904;1.6854;
196.8000;0.7928;1.6877;
197.1000;0.7937;1.6760;
197.4000;0.7920;1.6666;
197.7000;0.7880;1.6525;
198.0000;0.7880;1.6502;
198.3000;0.7937;1.6736;
198.6000;0.7937;1.6760;
198.9000;0.7912;1.6713;
199.2000;0.7937;1.6807;
199.5000;0.7920;1.6713;
199.8000;0.7904;1.6689;
200.1000;0.7937;1.6713;
200.4000;0.7937;1.6760;
200.7000;0.8018;1.7018;
201.0000;0.7806;1.6455;
201.3000;0.7920;1.6736;
201.6000;0.7937;1.6830;
201.9000;0.7920;1.6807;
202.2000;0.7937;1.6807;
202.5000;0.7928;1.6854;
202.8000;0.7871;1.6666;
203.1000;0.8042;1.7159;
203.4000;0.7912;1.6807;
203.7000;0.7920;1.6736;
204.0000;0.7920;1.6783;
204.3000;0.7912;1.6807;
204.6000;0.7945;1.6807;
204.9000;0.7912;1.6713;
205.2000;0.7912;1.6713;
205.5000;0.7985;1.6901;
205.8000;0.7937;1.6783;
206.1000;0.7928;1.6830;
206.4000;0.7920;1.6830;
206.7000;0.7937;1.6807;
207.0000;0.7937;1.6830;
207.3000;0.7937;1.6760;
207.6000;0.7920;1.6666;
207.9000;0.7928;1.6736;
208.2000;0.7920;1.6807;
208.5000;0.7920;1.6830;
208.8000;0.7928;1.6830;
209.1000;0.7920;1.6760;
209.4000;0.7937;1.6830;
209.7000;0.7920;1.6760;
210.0000;0.7920;1.6689;
210.3000;0.7937;1.6736;
210.6000;0.7928;1.6760;
210.9000;0.7928;1.6713;
211.2000;0.7945;1.6807;
211.5000;0.7937;1.6807;
211.8000;0.7945;1.6736;
212.1000;0.7945;1.6689;
212.4000;0.7928;1.6736;
212.7000;0.7920;1.6760;
213.0000;0.7937;1.6830;
213.3000;0.7937;1.6830;
213.6000;0.7945;1.6807;
213.9000;0.7945;1.6736;
214.2000;0.7937;1.6713;
214.5000;0.7985;1.6877;
214.8000;0.7904;1.6713;
215.1000;0.7945;1.6736;
215.4000;0.7937;1.6830;
215.7000;0.7814;1.6478;
216.0000;0.7945;1.6713;
216.3000;0.7937;1.6666;
216.6000;0.7928;1.6713;
216.9000;0.7937;1.6736;
217.2000;0.7920;1.6596;
217.5000;0.7928;1.6525;
217.8000;0.7920;1.6455;
218.1000;0.7928;1.6431;
218.4000;0.7937;1.6478;
218.7000;0.7969;1.6642;
219.0000;0.7912;1.6502;
219.3000;0.7920;1.6596;
219.6000;0.7823;1.6408;
219.9000;0.7920;1.6642;
220.2000;0.7928;1.6666;
220.5000;0.7904;1.6666;
220.8000;0.7928;1.6713;
221.1000;0.7912;1.6760;
221.4000;0.7928;1.6807;
221.7000;0.7961;1.6877;
222.0000;0.7863;1.6642;
222.3000;0.7928;1.6736;
222.6000;0.7977;1.6854;
222.9000;0.7928;1.6830;
223.2000;0.7928;1.6760;
223.5000;0.7937;1.6760;
223.8000;0.7814;1.6431;
224.1000;0.7928;1.6666;
224.4000;0.7920;1.6596;
224.7000;0.8042;1.6877;
225.0000;0.7937;1.6736;
225.3000;0.7928;1.6830;
225.6000;0.7977;1.6948;
225.9000;0.7912;1.6854;
226.2000;0.7880;1.6760;
226.5000;0.7920;1.6854;
226.8000;0.7928;1.6854;
227.1000;0.7871;1.6736;
227.4000;0.7920;1.6830;
227.7000;0.7912;1.6760;
228.0000;0.7928;1.6783;
228.3000;0.7920;1.6783;
228.6000;0.7920;1.6830;
228.9000;0.7912;1.6783;
229.2000;0.7937;1.6924;
229.5000;0.7928;1.6901;
229.8000;0.7912;1.6807;
230.1000;0.7928;1.6783;
230.4000;0.7977;1.6924;
230.7000;0.7920;1.6783;
231.0000;0.7920;1.6760;
231.3000;0.7920;1.6807;
231.6000;0.7953;1.6830;
231.9000;0.7920;1.6783;
232.2000;0.7945;1.6877;
232.5000;0.8034;1.7088;
232.8000;0.7937;1.6807;
233.1000;0.7920;1.6736;
233.4000;0.7920;1.6736;
233.7000;0.7912;1.6807;
234.0000;0.7953;1.6924;
234.3000;0.7888;1.6713;
234.6000;0.7912;1.6689;
234.9000;0.7945;1.6783;
235.2000;0.7953;1.6807;
235.5000;0.7945;1.6713;
235.8000;0.7945;1.6760;
236.1000;0.7937;1.6642;
236.4000;0.8059;1.6901;
236.7000;0.7928;1.6642;
237.0000;0.7953;1.6642;
237.3000;0.7928;1.6596;
237.6000;0.7928;1.6689;
237.9000;0.7920;1.6713;
238.2000;0.7928;1.6830;
238.5000;0.7945;1.6901;
238.8000;0.7945;1.6948;
239.1000;0.7937;1.6901;
239.4000;0.7920;1.6807;
239.7000;0.7912;1.6783;
240.0000;0.7920;1.6760;
240.3000;0.7920;1.6783;
240.6000;0.7928;1.6760;
240.9000;0.7928;1.6736;
241.2000;0.7904;1.6736;
241.5000;0.7937;1.6713;
241.8000;0.7912;1.6642;
242.1000;0.7937;1.6760;
242.4000;0.7928;1.6713;
242.7000;0.7928;1.6736;
243.0000;0.7920;1.6736;
243.3000;0.7937;1.6783;
243.6000;0.7888;1.6619;
243.9000;0.7847;1.6455;
244.2000;0.7928;1.6666;
244.5000;0.8026;1.6877;
244.8000;0.7904;1.6549;
245.1000;0.7920;1.6596;
245.4000;0.7904;1.6572;
245.7000;0.7953;1.6783;
246.0000;0.7912;1.6689;
246.3000;0.7928;1.6760;
246.6000;0.7896;1.6666;
246.9000;0.7937;1.6642;
247.2000;0.7904;1.6642;
247.5000;0.7928;1.6689;
247.8000;0.7920;1.6689;
248.1000;0.7920;1.6642;
248.4000;0.7928;1.6642;
248.7000;0.7937;1.6642;
249.0000;0.7904;1.6502;
249.3000;0.7920;1.6549;
249.6000;0.7937;1.6502;
249.9000;0.7937;1.6478;
250.2000;0.7920;1.6572;
250.5000;0.7920;1.6642;
250.8000;0.7920;1.6596;
251.1000;0.7928;1.6596;
251.4000;0.7920;1.6549;
251.7000;0.7920;1.6455;
252.0000;0.7880;1.6384;
252.3000;0.7928;1.6431;
252.6000;0.7928;1.6431;
252.9000;0.7928;1.6408;
253.2000;0.7928;1.6525;
253.5000;0.7912;1.6502;
253.8000;0.7928;1.6525;
254.1000;0.7920;1.6478;
254.4000;0.7920;1.6431;
254.7000;0.7928;1.6478;
255.0000;0.7937;1.6408;
255.3000;0.7920;1.6337;
255.6000;0.7920;1.6384;
255.9000;0.7928;1.6431;
256.2000;0.7920;1.6478;
256.5000;0.7985;1.6713;
256.8000;0.7920;1.6502;
257.1000;0.7912;1.6525;
257.4000;0.7912;1.6502;
257.7000;0.7920;1.6455;
258.0000;0.7912;1.6478;
258.3000;0.7880;1.6525;
258.6000;0.7912;1.6572;
258.9000;0.7920;1.6478;
259.2000;0.7928;1.6384;
259.5000;0.7912;1.6384;
259.8000;0.7985;1.6525;
260.1000;0.7945;1.6455;
260.4000;0.7912;1.6478;
260.7000;0.7937;1.6549;
261.0000;0.7937;1.6525;
261.3000;0.7920;1.6502;
261.6000;0.7928;1.6525;
261.9000;0.7904;1.6549;
262.2000;0.7920;1.6572;
262.5000;0.7912;1.6502;
262.8000;0.7863;1.6431;
263.1000;0.7912;1.6408;
263.4000;0.7920;1.6455;
263.7000;0.7896;1.6502;
264.0000;0.8026;1.6971;
264.3000;0.7920;1.6666;
264.6000;0.7920;1.6619;
264.9000;0.7928;1.6549;
265.2000;0.7920;1.6455;
265.5000;0.7928;1.6431;
265.8000;0.7928;1.6572;
266.1000;0.7937;1.6619;
266.4000;0.7937;1.6666;
266.7000;0.7863;1.6455;
267.0000;0.7880;1.6431;
267.3000;0.7904;1.6502;
267.6000;0.7920;1.6549;
267.9000;0.7920;1.6572;
268.2000;0.7904;1.6455;
268.5000;0.7953;1.6431;
268.8000;0.7912;1.6384;
269.1000;0.7928;1.6478;
269.4000;0.7880;1.6314;
269.7000;0.7920;1.6455;
270.0000;0.7912;1.6502;
270.3000;0.7896;1.6502;
270.6000;0.7920;1.6525;
270.9000;0.7937;1.6596;
271.2000;0.7912;1.6455;
271.5000;0.7920;1.6455;
271.8000;0.7928;1.6478;
272.1000;0.7920;1.6525;
272.4000;0.7912;1.6478;
272.7000;0.7920;1.6455;
273.0000;0.7920;1.6478;
273.3000;0.7920;1.6478;
273.6000;0.7920;1.6502;
273.9000;0.7945;1.6478;
274.2000;0.7831;1.6220;
274.5000;0.7920;1.6502;
274.8000;0.7896;1.6525;
275.1000;0.7928;1.6596;
275.4000;0.7928;1.6642;
275.7000;0.7912;1.6502;
276.0000;0.7912;1.6455;
276.3000;0.7920;1.6502;
276.6000;0.7920;1.6455;
276.9000;0.7937;1.6596;
277.2000;0.7928;1.6572;
277.5000;0.7839;1.6290;
277.8000;0.7912;1.6455;
278.1000;0.7880;1.6431;
278.4000;0.7937;1.6596;
278.7000;0.7912;1.6502;
279.0000;0.7912;1.6502;
279.3000;0.7871;1.6525;
279.6000;0.7928;1.6619;
279.9000;0.7904;1.6642;
280.2000;0.7912;1.6549;
280.5000;0.7920;1.6478;
280.8000;0.7920;1.6431;
281.1000;0.7863;1.6267;
281.4000;0.7920;1.6361;
281.7000;0.7928;1.6290;
282.0000;0.7896;1.6267;
282.3000;0.7920;1.6361;
282.6000;0.7912;1.6361;
282.9000;0.7920;1.6455;
283.2000;0.7920;1.6384;
283.5000;0.7912;1.6361;
283.8000;0.7928;1.6384;
284.1000;0.7871;1.6290;
284.4000;0.7928;1.6478;
284.7000;0.7937;1.6572;
285.0000;0.7904;1.6502;
285.3000;0.7961;1.6596;
285.6000;0.7928;1.6455;
285.9000;0.7961;1.6525;
286.2000;0.7912;1.6431;
286.5000;0.7920;1.6431;
286.8000;0.7896;1.6290;
287.1000;0.7904;1.6337;
287.4000;0.7937;1.6337;
287.7000;0.7912;1.6384;
288.0000;0.7904;1.6408;
288.3000;0.8026;1.6689;
288.6000;0.7928;1.6502;
288.9000;0.7912;1.6502;
289.2000;0.7912;1.6525;
289.5000;0.7904;1.6502;
289.8000;0.7920;1.6525;
290.1000;0.7863;1.6361;
290.4000;0.7912;1.6478;
290.7000;0.7912;1.6549;
291.0000;0.7912;1.6642;
291.3000;0.7896;1.6455;
291.6000;0.7912;1.6384;
291.9000;0.7912;1.6314;
292.2000;0.7912;1.6314;
292.5000;0.7920;1.6337;
292.8000;0.7863;1.6196;
293.1000;0.7912;1.6361;
293.4000;0.7912;1.6455;
293.7000;0.7920;1.6502;
294.0000;0.7928;1.6455;
294.3000;0.7912;1.6431;
294.6000;0.7937;1.6502;
294.9000;0.7920;1.6502;
295.2000;0.7863;1.6337;
295.5000;0.7920;1.6455;
295.8000;0.7814;1.6173;
296.1000;0.7920;1.6384;
296.4000;0.7863;1.6196;
296.7000;0.7920;1.6196;
297.0000;0.7920;1.6243;
297.3000;0.7928;1.6314;
297.6000;0.7928;1.6431;
297.9000;0.7928;1.6431;
298.2000;0.7920;1.6478;
298.5000;0.7920;1.6478;
298.8000;0.7912;1.6478;
299.1000;0.7904;1.6408;
299.4000;0.7920;1.6478;
299.7000;0.7896;1.6290;
300.0000;0.7920;1.6290;
300.3000;0.7920;1.6337;
300.6000;0.7855;1.6196;
300.9000;0.7920;1.6361;
301.2000;0.7920;1.6502;
301.5000;0.7904;1.6549;
301.8000;0.7920;1.6572;
302.1000;0.7912;1.6619;
302.4000;0.7920;1.6642;
302.7000;0.7937;1.6642;
303.0000;0.7912;1.6572;
303.3000;0.7871;1.6549;
303.6000;0.7896;1.6549;
303.9000;0.7888;1.6502;
304.2000;0.7920;1.6478;
304.5000;0.7912;1.6502;
304.8000;0.7928;1.6525;
305.1000;0.7896;1.6549;
305.4000;0.7912;1.6502;
305.7000;0.7880;1.6525;
306.0000;0.7904;1.6596;
306.3000;0.7904;1.6549;
306.6000;0.7880;1.6455;
306.9000;0.7920;1.6525;
307.2000;0.7912;1.6549;
307.5000;0.7920;1.6525;
307.8000;0.7928;1.6525;
308.1000;0.7855;1.6384;
308.4000;0.7912;1.6549;
308.7000;0.7863;1.6337;
309.0000;0.7912;1.6455;
309.3000;0.7904;1.6525;
309.6000;0.7912;1.6549;
309.9000;0.7912;1.6619;
310.2000;0.7961;1.6713;
310.5000;0.7896;1.6572;
310.8000;0.7945;1.6689;
311.1000;0.7904;1.6572;
311.4000;0.7920;1.6549;
311.7000;0.7912;1.6642;
312.0000;0.7928;1.6596;
312.3000;0.7912;1.6572;
312.6000;0.7912;1.6478;
312.9000;0.7928;1.6408;
313.2000;0.7928;1.6431;
313.5000;0.7937;1.6572;
313.8000;0.7920;1.6431;
314.1000;0.7920;1.6525;
314.4000;0.7928;1.6549;
314.7000;0.7920;1.6549;
315.0000;0.7912;1.6619;
315.3000;0.7928;1.6596;
315.6000;0.7953;1.6689;
315.9000;0.7969;1.6713;
316.2000;0.7904;1.6596;
316.5000;0.8026;1.6901;
316.8000;0.7814;1.6314;
317.1000;0.7920;1.6619;
317.4000;0.7912;1.6666;
317.7000;0.7928;1.6713;
318.0000;0.7855;1.6525;
318.3000;0.7904;1.6666;
318.6000;0.7888;1.6689;
318.9000;0.7904;1.6666;
319.2000;0.7912;1.6713;
319.5000;0.7912;1.6760;
319.8000;0.7904;1.6713;
320.1000;0.7912;1.6783;
320.4000;0.7928;1.6783;
320.7000;0.7920;1.6807;
321.0000;0.7904;1.6783;
321.3000;0.7904;1.6713;
321.6000;0.7904;1.6713;
321.9000;0.7904;1.6642;
322.2000;0.7937;1.6713;
322.5000;0.7920;1.6736;
322.8000;0.7912;1.6689;
323.1000;0.7912;1.6666;
323.4000;0.7937;1.6760;
323.7000;0.7912;1.6713;
324.0000;0.7904;1.6713;
324.3000;0.7912;1.6736;
324.6000;0.7904;1.6713;
324.9000;0.7920;1.6760;
325.2000;0.7969;1.6830;
325.5000;0.7896;1.6713;
325.8000;0.7912;1.6783;
326.1000;0.7920;1.6783;
326.4000;0.7904;1.6760;
326.7000;0.7912;1.6807;
327.0000;0.7912;1.6760;
327.3000;0.7920;1.6760;
327.6000;0.7904;1.6783;
327.9000;0.7912;1.6760;
328.2000;0.7904;1.6689;
328.5000;0.7928;1.6713;
328.8000;0.7920;1.6666;
329.1000;0.7969;1.6807;
329.4000;0.7888;1.6642;
329.7000;0.7904;1.6760;
330.0000;0.7871;1.6642;
330.3000;0.7896;1.6666;
330.6000;0.7961;1.6736;
330.9000;0.7961;1.6713;
331.2000;0.7904;1.6596;
331.5000;0.7896;1.6619;
331.8000;0.7888;1.6525;
332.1000;0.7904;1.6549;
332.4000;0.7896;1.6478;
332.7000;0.7880;1.6502;
333.0000;0.7888;1.6572;
333.3000;0.7904;1.6642;
333.6000;0.7912;1.6666;
333.9000;0.7904;1.6619;
334.2000;0.7904;1.6549;
334.5000;0.7896;1.6549;
334.8000;0.7904;1.6619;
335.1000;0.7888;1.6736;
335.4000;0.7912;1.6736;
335.7000;0.7871;1.6619;
336.0000;0.7904;1.6713;
336.3000;0.7937;1.6783;
336.6000;0.7912;1.6736;
336.9000;0.7880;1.6596;
337.2000;0.7912;1.6549;
337.5000;0.7912;1.6525;
337.8000;0.7937;1.6572;
338.1000;0.7888;1.6478;
338.4000;0.7912;1.6455;
338.7000;0.7912;1.6572;
339.0000;0.7912;1.6596;
339.3000;0.7920;1.6502;
339.6000;0.7912;1.6431;
339.9000;0.7888;1.6337;
340.2000;0.7912;1.6361;
340.5000;0.7920;1.6431;
340.8000;0.7961;1.6666;
341.1000;0.7912;1.6689;
341.4000;0.7937;1.6760;
341.7000;0.7920;1.6689;
342.0000;0.7937;1.6760;
342.3000;0.7904;1.6642;
342.6000;0.7904;1.6666;
342.9000;0.7888;1.6760;
343.2000;0.7888;1.6713;
343.5000;0.7912;1.6713;
343.8000;0.7912;1.6807;
344.1000;0.7896;1.6760;
344.4000;0.7896;1.6807;
344.7000;0.7871;1.6807;
345.0000;0.7904;1.6854;
345.3000;0.7896;1.6877;
345.6000;0.7912;1.6948;
345.9000;0.7920;1.6901;
346.2000;0.7912;1.6854;
346.5000;0.7928;1.6830;
346.8000;0.7920;1.6760;
347.1000;0.7912;1.6736;
347.4000;0.7920;1.6736;
347.7000;0.7953;1.6807;
348.0000;0.7928;1.6642;
348.3000;0.7863;1.6478;
348.6000;0.8010;1.6736;
348.9000;0.7912;1.6502;
349.2000;0.7904;1.6431;
349.5000;0.7904;1.6337;
349.8000;0.7904;1.6337;
350.1000;0.7904;1.6384;
350.4000;0.7985;1.6596;
350.7000;0.7896;1.6337;
351.0000;0.7904;1.6384;
351.3000;0.7904;1.6431;
351.6000;0.8042;1.6830;
351.9000;0.7912;1.6549;
352.2000;0.7904;1.6478;
352.5000;0.7871;1.6337;
352.8000;0.7904;1.6384;
353.1000;0.7904;1.6525;
353.4000;0.7912;1.6525;
353.7000;0.7855;1.6502;
354.0000;0.7888;1.6689;
354.3000;0.7904;1.6713;
354.6000;0.7904;1.6689;
354.9000;0.7863;1.6666;
355.2000;0.7871;1.6713;
355.5000;0.7912;1.6783;
355.8000;0.7912;1.6783;
356.1000;0.7904;1.6807;
356.4000;0.7896;1.6783;
356.7000;0.7871;1.6666;
357.0000;0.7912;1.6760;
357.3000;0.7888;1.6760;
357.6000;0.7888;1.6713;
357.9000;0.7912;1.6689;
358.2000;0.7896;1.6596;
358.5000;0.7888;1.6549;
358.8000;0.7904;1.6502;
359.1000;0.7912;1.6455;
359.4000;0.7904;1.6408;
359.7000;0.7912;1.6384;
360.0000;0.7912;1.6361;
360.3000;0.7904;1.6314;
360.6000;0.7937;1.6455;
360.9000;0.7928;1.6384;
361.2000;0.7888;1.6337;
361.5000;0.7912;1.6408;
361.8000;0.7896;1.6455;
362.1000;0.7912;1.6455;
362.4000;0.7920;1.6455;
362.7000;0.7896;1.6384;
363.0000;0.7912;1.6455;
363.3000;0.7896;1.6478;
363.6000;0.7969;1.6666;
363.9000;0.7847;1.6361;
364.2000;0.7912;1.6502;
364.5000;0.7896;1.6525;
364.8000;0.7912;1.6478;
365.1000;0.7896;1.6408;
365.4000;0.7904;1.6478;
365.7000;0.7920;1.6431;
366.0000;0.7904;1.6478;
366.3000;0.7896;1.6478;
366.6000;0.7896;1.6502;
366.9000;0.7880;1.6502;
367.2000;0.7912;1.6689;
367.5000;0.7904;1.6736;
367.8000;0.7904;1.6760;
368.1000;0.7888;1.6666;
368.4000;0.7912;1.6642;
368.7000;0.7904;1.6619;
369.0000;0.7912;1.6525;
369.3000;0.7920;1.6502;
369.6000;0.7920;1.6431;
369.9000;0.7912;1.6408;
370.2000;0.7912;1.6408;
370.5000;0.7912;1.6455;
370.8000;0.7904;1.6549;
371.1000;0.7904;1.6666;
371.4000;0.7969;1.6854;
371.7000;0.7896;1.6642;
372.0000;0.7904;1.6619;
372.3000;0.7912;1.6736;
372.6000;0.7904;1.6713;
372.9000;0.7904;1.6736;
373.2000;0.7896;1.6713;
373.5000;0.7945;1.6783;
373.8000;0.7904;1.6689;
374.1000;0.7912;1.6689;
374.4000;0.7896;1.6619;
374.7000;0.7904;1.6642;
375.0000;0.7920;1.6760;
375.3000;0.7904;1.6713;
375.6000;0.7904;1.6666;
375.9000;0.7904;1.6689;
376.2000;0.7880;1.6689;
376.5000;0.7912;1.6760;
376.8000;0.7880;1.6689;
377.1000;0.7871;1.6760;
377.4000;0.7904;1.6760;
377.7000;0.7928;1.6689;
378.0000;0.7888;1.6525;
378.3000;0.7880;1.6455;
378.6000;0.7920;1.6549;
378.9000;0.7969;1.6596;
379.2000;0.7880;1.6455;
379.5000;0.7904;1.6572;
379.8000;0.7896;1.6619;
380.1000;0.7928;1.6666;
380.4000;0.7912;1.6596;
380.7000;0.7896;1.6549;
381.0000;0.7896;1.6478;
381.3000;0.7920;1.6549;
381.6000;0.7904;1.6525;
381.9000;0.7896;1.6525;
382.2000;0.7888;1.6478;
382.5000;0.7904;1.6502;
382.8000;0.7912;1.6572;
383.1000;0.7904;1.6549;
383.4000;0.7888;1.6689;
383.7000;0.7904;1.6689;
384.0000;0.7912;1.6736;
384.3000;0.7912;1.6760;
384.6000;0.7904;1.6760;
384.9000;0.7863;1.6619;
385.2000;0.7928;1.6760;
385.5000;0.7904;1.6736;
385.8000;0.7896;1.6666;
386.1000;0.7985;1.6807;
386.4000;0.7896;1.6478;
386.7000;0.7904;1.6596;
387.0000;0.7912;1.6596;
387.3000;0.7896;1.6596;
387.6000;0.7904;1.6619;
387.9000;0.7904;1.6619;
388.2000;0.7888;1.6666;
388.5000;0.7888;1.6760;
388.8000;0.7888;1.6713;
389.1000;0.7880;1.6619;
389.4000;0.7896;1.6760;
389.7000;0.7880;1.6713;
390.0000;0.7920;1.6830;
390.3000;0.7888;1.6713;
390.6000;0.7888;1.6736;
390.9000;0.7912;1.6642;
391.2000;0.7977;1.6760;
391.5000;0.7904;1.6642;
391.8000;0.7912;1.6736;
392.1000;0.7871;1.6736;
392.4000;0.7896;1.6760;
392.7000;0.7880;1.6736;
393.0000;0.7823;1.6549;
393.3000;0.7896;1.6713;
393.6000;0.7871;1.6596;
393.9000;0.7928;1.6642;
394.2000;0.7928;1.6642;
394.5000;0.7912;1.6619;
394.8000;0.7904;1.6549;
395.1000;0.7880;1.6572;
395.4000;0.7888;1.6713;
395.7000;0.7937;1.6807;
396.0000;0.7928;1.6807;
396.3000;0.7904;1.6736;
396.6000;0.7904;1.6713;
396.9000;0.7912;1.6736;
397.2000;0.7904;1.6689;
397.5000;0.7782;1.6408;
397.8000;0.7912;1.6642;
398.1000;0.7904;1.6619;
398.4000;0.7896;1.6642;
398.7000;0.7896;1.6689;
399.0000;0.7896;1.6666;
399.3000;0.7904;1.6666;
399.6000;0.7904;1.6619;
399.9000;0.7912;1.6549;
400.2000;0.7904;1.6525;
400.5000;0.7904;1.6431;
400.8000;0.7904;1.6431;
401.1000;0.7912;1.6478;
401.4000;0.7904;1.6431;
401.7000;0.7896;1.6314;
402.0000;0.7896;1.6267;
402.3000;0.7904;1.6196;
402.6000;0.7896;1.6290;
402.9000;0.7896;1.6431;
403.2000;0.7880;1.6455;
403.5000;0.7904;1.6502;
403.8000;0.7896;1.6525;
404.1000;0.7888;1.6549;
404.4000;0.7912;1.6572;
404.7000;0.7945;1.6689;
405.0000;0.7896;1.6619;
405.3000;0.7896;1.6666;
405.6000;0.7920;1.6689;
405.9000;0.7920;1.6736;
406.2000;0.7896;1.6596;
406.5000;0.7937;1.6572;
406.8000;0.7888;1.6408;
407.1000;0.7863;1.6314;
407.4000;0.7904;1.6455;
407.7000;0.7888;1.6431;
408.0000;0.7896;1.6431;
408.3000;0.7904;1.6408;
408.6000;0.7880;1.6455;
408.9000;0.7896;1.6455;
409.2000;0.7855;1.6431;
409.5000;0.7896;1.6502;
409.8000;0.7912;1.6525;
410.1000;0.7855;1.6408;
410.4000;0.7896;1.6408;
410.7000;0.7863;1.6431;
411.0000;0.7937;1.6525;
411.3000;0.7896;1.6502;
411.6000;0.7741;1.6173;
411.9000;0.7880;1.6478;
412.2000;0.7937;1.6666;
412.5000;0.7888;1.6549;
412.8000;0.7896;1.6502;
413.1000;0.7806;1.6267;
413.4000;0.7888;1.6455;
413.7000;0.7896;1.6431;
414.0000;0.7904;1.6502;
414.3000;0.7880;1.6455;
414.6000;0.7904;1.6478;
414.9000;0.7880;1.6455;
415.2000;0.7953;1.6502;
415.5000;0.7880;1.6337;
415.8000;0.7888;1.6431;
416.1000;0.7880;1.6478;
416.4000;0.7896;1.6549;
416.7000;0.7880;1.6455;
417.0000;0.7896;1.6502;
417.3000;0.7904;1.6525;
417.6000;0.7904;1.6572;
417.9000;0.7896;1.6549;
418.2000;0.7920;1.6713;
418.5000;0.7896;1.6689;
418.8000;0.7904;1.6713;
419.1000;0.7945;1.6760;
419.4000;0.7896;1.6619;
419.7000;0.7896;1.6572;
420.0000;0.7896;1.6478;
420.3000;0.7896;1.6408;
420.6000;0.7888;1.6408;
420.9000;0.7888;1.6431;
421.2000;0.7888;1.6478;
421.5000;0.7904;1.6384;
421.8000;0.7871;1.6290;
422.1000;0.7880;1.6361;
422.4000;0.7855;1.6361;
422.7000;0.7904;1.6502;
423.0000;0.7880;1.6478;
423.3000;0.7880;1.6455;
423.6000;0.7888;1.6431;
423.9000;0.7880;1.6314;
424.2000;0.7920;1.6478;
424.5000;0.7863;1.6384;
424.8000;0.7855;1.6361;
425.1000;0.7896;1.6455;
425.4000;0.7888;1.6478;
425.7000;0.7888;1.6478;
426.0000;0.7904;1.6478;
426.3000;0.7888;1.6525;
426.6000;0.7888;1.6525;
426.9000;0.7904;1.6525;
427.2000;0.7888;1.6478;
427.5000;0.7888;1.6525;
427.8000;0.7904;1.6596;
428.1000;0.7888;1.6619;
428.4000;0.7920;1.6689;
428.7000;0.7839;1.6502;
429.0000;0.7912;1.6596;
429.3000;0.7920;1.6666;
429.6000;0.7863;1.6431;
429.9000;0.7912;1.6502;
430.2000;0.7871;1.6455;
430.5000;0.7798;1.6314;
430.8000;0.7896;1.6619;
431.1000;0.7863;1.6549;
431.4000;0.7888;1.6572;
431.7000;0.7928;1.6736;
432.0000;0.7896;1.6666;
432.3000;0.7896;1.6689;
432.6000;0.7831;1.6502;
432.9000;0.7912;1.6760;
433.2000;0.7871;1.6666;
433.5000;0.7912;1.6807;
433.8000;0.7896;1.6783;
434.1000;0.7937;1.6877;
434.4000;0.7888;1.6760;
434.7000;0.7888;1.6807;
435.0000;0.7863;1.6666;
435.3000;0.7880;1.6736;
435.6000;0.7871;1.6689;
435.9000;0.7863;1.6689;
436.2000;0.7871;1.6619;
436.5000;0.7888;1.6549;
436.8000;0.7823;1.6384;
437.1000;0.7904;1.6572;
437.4000;0.7871;1.6502;
437.7000;0.7863;1.6455;
438.0000;0.7896;1.6478;
438.3000;0.7896;1.6455;
438.6000;0.7896;1.6596;
438.9000;0.7871;1.6549;
439.2000;0.7912;1.6619;
439.5000;0.7912;1.6666;
439.8000;0.7928;1.6619;
440.1000;0.7904;1.6549;
440.4000;0.7896;1.6502;
440.7000;0.7896;1.6525;
441.0000;0.7912;1.6549;
441.3000;0.7896;1.6525;
441.6000;0.7847;1.6361;
441.9000;0.7888;1.6455;
442.2000;0.7880;1.6455;
442.5000;0.7880;1.6525;
442.8000;0.7880;1.6549;
443.1000;0.7888;1.6525;
443.4000;0.7880;1.6572;
443.7000;0.7896;1.6549;
444.0000;0.7806;1.6220;
444.3000;0.7896;1.6431;
444.6000;0.7888;1.6478;
444.9000;0.7912;1.6666;
445.2000;0.7888;1.6549;
445.5000;0.7888;1.6502;
445.8000;0.7888;1.6502;
446.1000;0.7871;1.6408;
446.4000;0.7888;1.6478;
446.7000;0.7912;1.6572;
447.0000;0.7961;1.6689;
447.3000;0.7888;1.6619;
447.6000;0.7896;1.6525;
447.9000;0.7888;1.6549;
448.2000;0.7920;1.6689;
448.5000;0.7896;1.6666;
448.8000;0.7896;1.6596;
449.1000;0.7896;1.6525;
449.4000;0.7945;1.6619;
449.7000;0.7912;1.6572;
450.0000;0.7904;1.6525;
450.3000;0.7880;1.6525;
450.6000;0.7863;1.6384;
450.9000;0.7880;1.6478;
451.2000;0.7896;1.6572;
451.5000;0.7896;1.6572;
451.8000;0.7888;1.6525;
452.1000;0.7871;1.6525;
452.4000;0.7896;1.6549;
452.7000;0.7871;1.6478;
453.0000;0.7863;1.6455;
453.3000;0.7888;1.6619;
453.6000;0.7896;1.6713;
453.9000;0.7912;1.6642;
454.2000;0.7888;1.6525;
454.5000;0.7896;1.6478;
454.8000;0.7904;1.6478;
455.1000;0.7904;1.6455;
455.4000;0.7904;1.6478;
455.7000;0.7904;1.6431;
456.0000;0.7888;1.6408;
456.3000;0.7863;1.6431;
456.6000;0.7863;1.6431;
456.9000;0.7888;1.6455;
457.2000;0.7880;1.6478;
457.5000;0.7880;1.6408;
457.8000;0.7880;1.6384;
458.1000;0.7888;1.6408;
458.4000;0.7880;1.6337;
458.7000;0.7888;1.6455;
459.0000;0.7896;1.6502;
459.3000;0.7888;1.6384;
459.6000;0.7880;1.6502;
459.9000;0.7896;1.6502;
460.2000;0.7904;1.6502;
460.5000;0.7880;1.6384;
460.8000;0.7896;1.6455;
461.1000;0.7880;1.6525;
461.4000;0.7888;1.6549;
461.7000;0.7904;1.6502;
462.0000;0.7888;1.6502;
462.3000;0.7871;1.6549;
462.6000;0.7888;1.6572;
462.9000;0.7896;1.6596;
463.2000;0.7888;1.6502;
463.5000;0.7888;1.6478;
463.8000;0.7880;1.6431;
464.1000;0.7888;1.6431;
464.4000;0.7888;1.6455;
464.7000;0.7896;1.6431;
465.0000;0.7888;1.6361;
465.3000;0.7871;1.6361;
465.6000;0.7928;1.6525;
465.9000;0.7880;1.6408;
466.2000;0.7888;1.6384;
466.5000;0.7904;1.6455;
466.8000;0.7880;1.6455;
467.1000;0.7880;1.6478;
467.4000;0.7806;1.6337;
467.7000;0.7863;1.6455;
468.0000;0.7880;1.6502;
468.3000;0.7880;1.6572;
468.6000;0.7880;1.6572;
468.9000;0.7880;1.6572;
469.2000;0.7904;1.6596;
469.5000;0.7880;1.6549;
469.8000;0.7880;1.6572;
470.1000;0.7888;1.6713;
470.4000;0.7888;1.6807;
470.7000;0.7880;1.6807;
471.0000;0.7880;1.6760;
471.3000;0.7855;1.6713;
471.6000;0.7896;1.6666;
471.9000;0.7880;1.6666;
472.2000;0.7888;1.6713;
472.5000;0.7880;1.6713;
472.8000;0.7871;1.6642;
473.1000;0.7888;1.6713;
473.4000;0.7880;1.6596;
473.7000;0.7969;1.6760;
474.0000;0.7888;1.6619;
474.3000;0.7880;1.6736;
474.6000;0.7888;1.6736;
474.9000;0.7839;1.6642;
475.2000;0.7871;1.6783;
475.5000;0.7896;1.6807;
475.8000;0.7880;1.6713;
476.1000;0.7888;1.6666;
476.4000;0.7880;1.6689;
476.7000;0.7871;1.6689;
477.0000;0.7888;1.6642;
477.3000;0.7871;1.6619;
477.6000;0.7880;1.6549;
477.9000;0.7871;1.6478;
478.2000;0.7880;1.6502;
478.5000;0.7888;1.6502;
478.8000;0.7888;1.6502;
479.1000;0.7880;1.6478;
479.4000;0.7896;1.6408;
479.7000;0.7880;1.6478;
480.0000;0.7888;1.6502;
480.3000;0.7871;1.6384;
480.6000;0.7896;1.6361;
480.9000;0.7888;1.6384;
481.2000;0.7888;1.6478;
481.5000;0.7880;1.6525;
481.8000;0.7896;1.6384;
482.1000;0.7896;1.6478;
482.4000;0.7904;1.6337;
482.7000;0.7888;1.6220;
483.0000;0.7855;1.6173;
483.3000;0.7888;1.6267;
483.6000;0.7880;1.6243;
483.9000;0.7871;1.6290;
484.2000;0.7871;1.6290;
484.5000;0.7880;1.6243;
484.8000;0.7863;1.6314;
485.1000;0.7880;1.6408;
485.4000;0.7839;1.6314;
485.7000;0.7871;1.6431;
486.0000;0.7871;1.6431;
486.3000;0.7871;1.6361;
486.6000;0.7880;1.6478;
486.9000;0.7871;1.6455;
487.2000;0.7880;1.6455;
487.5000;0.7904;1.6502;
487.8000;0.7888;1.6502;
488.1000;0.7863;1.6596;
488.4000;0.7871;1.6549;
488.7000;0.7888;1.6502;
489.0000;0.7871;1.6478;
489.3000;0.7871;1.6502;
489.6000;0.7871;1.6431;
489.9000;0.7871;1.6408;
490.2000;0.7880;1.6384;
490.5000;0.7863;1.6361;
490.8000;0.7880;1.6431;
491.1000;0.7888;1.6455;
491.4000;0.7912;1.6572;
491.7000;0.7888;1.6549;
492.0000;0.7880;1.6525;
492.3000;0.7888;1.6549;
492.6000;0.7888;1.6549;
492.9000;0.7871;1.6502;
493.2000;0.7880;1.6431;
493.5000;0.7871;1.6455;
493.8000;0.7888;1.6478;
494.1000;0.7880;1.6361;
494.4000;0.7863;1.6408;
494.7000;0.7880;1.6384;
495.0000;0.7880;1.6384;
495.3000;0.7888;1.6384;
495.6000;0.7871;1.6337;
495.9000;0.7871;1.6384;
496.2000;0.7880;1.6478;
496.5000;0.7888;1.6619;
496.8000;0.7880;1.6596;
497.1000;0.7880;1.6572;
497.4000;0.7880;1.6572;
497.7000;0.7896;1.6572;
498.0000;0.7888;1.6596;
498.3000;0.7871;1.6572;
498.6000;0.7880;1.6549;
498.9000;0.7806;1.6431;
499.2000;0.7912;1.6713;
499.5000;0.7871;1.6642;
499.8000;0.7871;1.6596;
500.1000;0.7945;1.6783;
500.4000;0.7880;1.6666;
500.7000;0.7880;1.6736;
501.0000;0.7863;1.6666;
501.3000;0.7880;1.6666;
501.6000;0.7880;1.6689;
501.9000;0.7847;1.6596;
502.2000;0.7888;1.6619;
502.5000;0.7993;1.6995;
502.8000;0.7888;1.6713;
503.1000;0.7896;1.6713;
503.4000;0.7871;1.6596;
503.7000;0.7871;1.6596;
504.0000;0.7896;1.6689;
504.3000;0.7888;1.6713;
504.6000;0.7880;1.6689;
504.9000;0.7847;1.6619;
505.2000;0.7871;1.6549;
505.5000;0.7888;1.6478;
505.8000;0.7863;1.6502;
506.1000;0.7871;1.6502;
506.4000;0.7871;1.6525;
506.7000;0.7774;1.6384;
507.0000;0.7880;1.6666;
507.3000;0.7855;1.6619;
507.6000;0.7863;1.6619;
507.9000;0.7871;1.6572;
508.2000;0.7863;1.6549;
508.5000;0.7863;1.6619;
508.8000;0.7847;1.6525;
509.1000;0.7977;1.6760;
509.4000;0.7888;1.6572;
509.7000;0.7888;1.6596;
510.0000;0.7847;1.6478;
510.3000;0.7888;1.6502;
510.6000;0.7888;1.6478;
510.9000;0.7847;1.6361;
511.2000;0.7863;1.6431;
511.5000;0.7855;1.6408;
511.8000;0.7863;1.6431;
512.1000;0.7953;1.6666;
512.4000;0.7839;1.6431;
512.7000;0.7871;1.6502;
513.0000;0.7806;1.6361;
513.3000;0.7871;1.6572;
513.6000;0.7904;1.6572;
513.9000;0.7831;1.6455;
514.2000;0.7863;1.6619;
514.5000;0.7880;1.6596;
514.8000;0.7880;1.6549;
515.1000;0.7945;1.6783;
515.4000;0.7880;1.6549;
515.7000;0.7871;1.6642;
516.0000;0.7863;1.6642;
516.3000;0.7880;1.6642;
516.6000;0.7863;1.6596;
516.9000;0.7880;1.6502;
517.2000;0.7880;1.6572;
517.5000;0.7888;1.6549;
517.8000;0.7880;1.6525;
518.1000;0.7871;1.6455;
518.4000;0.7896;1.6572;
518.7000;0.7871;1.6619;
519.0000;0.7847;1.6619;
519.3000;0.7847;1.6596;
519.6000;0.7888;1.6736;
519.9000;0.7937;1.6854;
520.2000;0.7806;1.6549;
520.5000;0.7880;1.6689;
520.8000;0.7888;1.6619;
521.1000;0.7871;1.6502;
521.4000;0.7847;1.6455;
521.7000;0.7880;1.6596;
522.0000;0.7839;1.6502;
522.3000;0.7888;1.6525;
522.6000;0.7953;1.6713;
522.9000;0.7839;1.6455;
523.2000;0.7888;1.6549;
523.5000;0.7871;1.6572;
523.8000;0.7863;1.6596;
524.1000;0.7888;1.6642;
524.4000;0.7896;1.6689;
524.7000;0.7937;1.6760;
525.0000;0.7863;1.6596;
525.3000;0.7888;1.6596;
525.6000;0.7774;1.6384;
525.9000;0.7871;1.6666;
526.2000;0.7871;1.6689;
526.5000;0.7871;1.6596;
526.8000;0.7847;1.6478;
527.1000;0.7847;1.6408;
527.4000;0.7871;1.6431;
527.7000;0.7863;1.6384;
528.0000;0.7871;1.6361;
528.3000;0.7871;1.6337;
528.6000;0.7912;1.6502;
528.9000;0.7855;1.6361;
529.2000;0.7880;1.6478;
529.5000;0.7855;1.6455;
529.8000;0.7871;1.6502;
530.1000;0.7888;1.6502;
530.4000;0.7871;1.6408;
530.7000;0.7863;1.6431;
531.0000;0.7896;1.6408;
531.3000;0.7863;1.6384;
531.6000;0.7871;1.6384;
531.9000;0.7880;1.6337;
532.2000;0.7871;1.6361;
532.5000;0.7871;1.6361;
532.8000;0.7863;1.6290;
533.1000;0.7823;1.6196;
533.4000;0.7863;1.6314;
533.7000;0.7871;1.6290;
534.0000;0.7880;1.6337;
534.3000;0.7871;1.6361;
534.6000;0.7871;1.6455;
534.9000;0.7863;1.6502;
535.2000;0.7855;1.6525;
535.5000;0.7863;1.6525;
535.8000;0.7855;1.6478;
536.1000;0.7888;1.6619;
536.4000;0.7880;1.6619;
536.7000;0.7871;1.6642;
537.0000;0.7847;1.6619;
537.3000;0.7871;1.6713;
537.6000;0.7888;1.6736;
537.9000;0.7888;1.6830;
538.2000;0.7871;1.6830;
538.5000;0.7880;1.6854;
538.8000;0.7880;1.6807;
539.1000;0.7855;1.6807;
539.4000;0.7880;1.6760;
539.7000;0.7831;1.6642;
540.0000;0.7896;1.6854;
540.3000;0.7863;1.6760;
540.6000;0.7839;1.6713;
540.9000;0.7863;1.6760;
541.2000;0.7888;1.6736;
541.5000;0.7863;1.6783;
541.8000;0.7798;1.6666;
542.1000;0.7863;1.6736;
542.4000;0.7863;1.6713;
542.7000;0.7871;1.6760;
543.0000;0.7888;1.6877;
543.3000;0.7863;1.6854;
543.6000;0.7855;1.6736;
543.9000;0.7896;1.6854;
544.2000;0.7928;1.6971;
544.5000;0.7888;1.6830;
544.8000;0.7847;1.6736;
545.1000;0.7880;1.6760;
545.4000;0.7863;1.6830;
545.7000;0.7871;1.6830;
546.0000;0.7888;1.6901;
546.3000;0.7912;1.6971;
546.6000;0.7888;1.6854;
546.9000;0.7888;1.6713;
547.2000;0.7798;1.6455;
547.5000;0.7863;1.6549;
547.8000;0.7871;1.6596;
548.1000;0.7888;1.6713;
548.4000;0.7863;1.6642;
548.7000;0.7888;1.6713;
549.0000;0.7871;1.6760;
549.3000;0.7880;1.6783;
549.6000;0.7871;1.6783;
549.9000;0.7831;1.6666;
550.2000;0.7855;1.6736;
550.5000;0.7871;1.6760;
550.8000;0.7871;1.6736;
551.1000;0.7855;1.6713;
551.4000;0.7863;1.6689;
551.7000;0.7871;1.6596;
552.0000;0.7904;1.6689;
552.3000;0.7888;1.6619;
552.6000;0.7871;1.6596;
552.9000;0.7880;1.6619;
553.2000;0.7880;1.6736;
553.5000;0.7937;1.6877;
553.8000;0.7847;1.6572;
554.1000;0.7880;1.6713;
554.4000;0.7880;1.6713;
554.7000;0.7855;1.6619;
555.0000;0.7863;1.6549;
555.3000;0.7871;1.6572;
555.6000;0.7863;1.6596;
555.9000;0.7839;1.6455;
556.2000;0.7847;1.6478;
556.5000;0.7847;1.6478;
556.8000;0.7871;1.6408;
557.1000;0.7847;1.6384;
557.4000;0.7880;1.6408;
557.7000;0.7888;1.6478;
558.0000;0.7871;1.6455;
558.3000;0.7871;1.6525;
558.6000;0.7880;1.6596;
558.9000;0.7839;1.6549;
559.2000;0.7863;1.6549;
559.5000;0.7814;1.6455;
559.8000;0.7863;1.6666;
560.1000;0.7855;1.6689;
560.4000;0.7880;1.6713;
560.7000;0.7855;1.6666;
561.0000;0.7847;1.6689;
561.3000;0.7888;1.6854;
561.6000;0.7888;1.6830;
561.9000;0.7847;1.6642;
562.2000;0.7855;1.6689;
562.5000;0.7855;1.6689;
562.8000;0.7855;1.6642;
563.1000;0.7863;1.6596;
563.4000;0.7880;1.6596;
563.7000;0.7847;1.6549;
564.0000;0.7871;1.6596;
564.3000;0.7855;1.6642;
564.6000;0.7945;1.6783;
564.9000;0.7871;1.6642;
565.2000;0.7782;1.6455;
565.5000;0.7847;1.6619;
565.8000;0.7863;1.6619;
566.1000;0.7880;1.6666;
566.4000;0.7863;1.6689;
566.7000;0.7855;1.6642;
567.0000;0.7863;1.6689;
567.3000;0.7855;1.6736;
567.6000;0.7863;1.6760;
567.9000;0.7798;1.6619;
568.2000;0.7880;1.6854;
568.5000;0.7863;1.6877;
568.8000;0.7806;1.6854;
569.1000;0.7847;1.6901;
569.4000;0.7920;1.7088;
569.7000;0.7855;1.6807;
570.0000;0.7871;1.6783;
570.3000;0.7831;1.6666;
570.6000;0.7863;1.6830;
570.9000;0.7863;1.6830;
571.2000;0.7871;1.6830;
571.5000;0.7855;1.6736;
571.8000;0.7871;1.6736;
572.1000;0.7880;1.6713;
572.4000;0.7855;1.6666;
572.7000;0.7871;1.6642;
573.0000;0.7847;1.6572;
573.3000;0.7863;1.6525;
573.6000;0.7847;1.6525;
573.9000;0.7880;1.6619;
574.2000;0.7871;1.6666;
574.5000;0.7863;1.6619;
574.8000;0.7863;1.6713;
575.1000;0.7863;1.6736;
575.4000;0.7863;1.6666;
575.7000;0.7871;1.6689;
576.0000;0.7863;1.6689;
576.3000;0.7863;1.6736;
576.6000;0.7871;1.6736;
576.9000;0.7847;1.6713;
577.2000;0.7855;1.6689;
577.5000;0.7863;1.6642;
577.8000;0.7880;1.6736;
578.1000;0.7855;1.6783;
578.4000;0.7855;1.6736;
578.7000;0.7855;1.6666;
579.0000;0.7863;1.6689;
579.3000;0.7871;1.6783;
579.6000;0.7880;1.6783;
579.9000;0.7863;1.6713;
580.2000;0.7871;1.6713;
580.5000;0.7888;1.6713;
580.8000;0.7855;1.6572;
581.1000;0.7904;1.6642;
581.4000;0.7871;1.6478;
581.7000;0.7871;1.6431;
582.0000;0.7855;1.6408;
582.3000;0.7888;1.6502;
582.6000;0.7847;1.6431;
582.9000;0.7855;1.6478;
583.2000;0.7855;1.6572;
583.5000;0.7855;1.6572;
583.8000;0.7839;1.6478;
584.1000;0.7863;1.6572;
584.4000;0.7977;1.6807;
584.7000;0.7863;1.6525;
585.0000;0.7863;1.6525;
585.3000;0.7863;1.6549;
585.6000;0.7904;1.6666;
585.9000;0.7847;1.6525;
586.2000;0.7839;1.6549;
586.5000;0.7855;1.6478;
586.8000;0.7855;1.6337;
587.1000;0.7863;1.6361;
587.4000;0.7806;1.6196;
587.7000;0.7880;1.6361;
588.0000;0.7863;1.6361;
588.3000;0.7839;1.6267;
588.6000;0.7888;1.6314;
588.9000;0.7855;1.6032;
589.2000;0.7863;1.6126;
589.5000;0.7863;1.6150;
589.8000;0.7839;1.6103;
590.1000;0.7847;1.6079;
590.4000;0.7855;1.6056;
590.7000;0.7888;1.6196;
591.0000;0.7880;1.6196;
591.3000;0.7855;1.6243;
591.6000;0.7871;1.6361;
591.9000;0.7782;1.6173;
592.2000;0.7847;1.6314;
592.5000;0.7863;1.6337;
592.8000;0.7847;1.6290;
593.1000;0.7863;1.6290;
593.4000;0.7969;1.6666;
593.7000;0.7863;1.6431;
594.0000;0.7790;1.6196;
594.3000;0.7855;1.6314;
594.6000;0.7790;1.6243;
594.9000;0.7847;1.6478;
595.2000;0.7831;1.6431;
595.5000;0.7839;1.6455;
595.8000;0.7880;1.6431;
596.1000;0.7863;1.6478;
596.4000;0.7871;1.6549;
596.7000;0.7871;1.6572;
597.0000;0.7880;1.6572;
597.3000;0.7880;1.6502;
597.6000;0.7855;1.6478;
597.9000;0.7855;1.6525;
598.2000;0.7863;1.6549;
598.5000;0.7863;1.6478;
598.8000;0.7871;1.6549;
599.1000;0.7855;1.6525;
599.4000;0.7863;1.6572;
599.7000;0.7855;1.6525;
600.0000;0.7855;1.6502;
600.3000;0.7871;1.6455;
600.6000;0.7863;1.6408;
600.9000;0.7847;1.6220;
601.2000;0.7814;1.5962;
601.5000;0.7749;1.5680;
601.8000;0.7692;1.5492;
602.1000;0.7627;1.5328;
602.4000;0.7586;1.5304;
602.7000;0.7521;1.5140;
603.0000;0.7473;1.5093;
603.3000;0.7432;1.4882;
603.6000;0.7375;1.4741;
603.9000;0.7326;1.4577;
604.2000;0.7253;1.4436;
604.5000;0.7204;1.4413;
604.8000;0.7171;1.4389;
605.1000;0.7147;1.4342;
605.4000;0.7106;1.4272;
605.7000;0.7066;1.4178;
606.0000;0.7017;1.4060;
606.3000;0.7000;1.3967;
606.6000;0.6952;1.3849;
606.9000;0.6911;1.3755;
607.2000;0.6886;1.3708;
607.5000;0.6854;1.3732;
607.8000;0.6829;1.3732;
608.1000;0.6789;1.3661;
608.4000;0.6772;1.3802;
608.7000;0.6740;1.3849;
609.0000;0.6716;1.3849;
609.3000;0.6683;1.3661;
609.6000;0.6675;1.3732;
609.9000;0.6650;1.3614;
610.2000;0.6602;1.3544;
610.5000;0.6569;1.3521;
610.8000;0.6536;1.3450;
611.1000;0.6496;1.3380;
611.4000;0.6512;1.3544;
611.7000;0.6488;1.3380;
612.0000;0.6455;1.3356;
612.3000;0.6455;1.3380;
612.6000;0.6447;1.3309;
612.9000;0.6422;1.3356;
613.2000;0.6390;1.3356;
613.5000;0.6365;1.3380;
613.8000;0.6349;1.3380;
614.1000;0.6317;1.3403;
614.4000;0.6260;1.3239;
614.7000;0.6178;1.3075;
615.0000;0.6252;1.3262;
615.3000;0.6235;1.3333;
615.6000;0.6219;1.3309;
615.9000;0.6146;1.3145;
616.2000;0.6178;1.3286;
616.5000;0.6162;1.3309;
616.8000;0.6138;1.3356;
617.1000;0.6113;1.3356;
617.4000;0.6097;1.3333;
617.7000;0.6105;1.3309;
618.0000;0.6089;1.3262;
618.3000;0.6072;1.3215;
618.6000;0.6040;1.3145;
618.9000;0.6146;1.3380;
619.2000;0.6024;1.3168;
619.5000;0.5999;1.3215;
619.8000;0.5991;1.3145;
620.1000;0.5958;1.3145;
620.4000;0.5967;1.3215;
620.7000;0.5893;1.3121;
621.0000;0.5934;1.3075;
621.3000;0.5918;1.3028;
621.6000;0.5804;1.2793;
621.9000;0.5877;1.3028;
622.2000;0.5885;1.3028;
622.5000;0.5861;1.3075;
622.8000;0.5853;1.3075;
623.1000;0.5845;1.3028;
623.4000;0.5820;1.3051;
623.7000;0.5828;1.3051;
624.0000;0.5796;1.3051;
624.3000;0.5804;1.3215;
624.6000;0.5796;1.3192;
624.9000;0.5763;1.3075;
625.2000;0.5771;1.3121;
625.5000;0.5747;1.3075;
625.8000;0.5731;1.3098;
626.1000;0.5714;1.3121;
626.4000;0.5731;1.3168;
626.7000;0.5731;1.3286;
627.0000;0.5714;1.3215;
627.3000;0.5682;1.3145;
627.6000;0.5690;1.3121;
627.9000;0.5674;1.3004;
628.2000;0.5665;1.3028;
628.5000;0.5657;1.3075;
628.8000;0.5649;1.2981;
629.1000;0.5682;1.3145;
629.4000;0.5625;1.3051;
629.7000;0.5608;1.3004;
630.0000;0.5584;1.2981;
630.3000;0.5592;1.3004;
630.6000;0.5617;1.3004;
630.9000;0.5551;1.2981;
631.2000;0.5551;1.3028;
631.5000;0.5551;1.3121;
631.8000;0.5551;1.3192;
632.1000;0.5665;1.3521;
632.4000;0.5527;1.3192;
632.7000;0.5535;1.3215;
633.0000;0.5462;1.3004;
633.3000;0.5503;1.3075;
633.6000;0.5462;1.3004;
633.9000;0.5462;1.2981;
634.2000;0.5511;1.3075;
634.5000;0.5470;1.2934;
634.8000;0.5486;1.3028;
635.1000;0.5478;1.3051;
635.4000;0.5470;1.3028;
635.7000;0.5462;1.3028;
636.0000;0.5454;1.2957;
636.3000;0.5454;1.2957;
636.6000;0.5413;1.2863;
636.9000;0.5438;1.2816;
637.2000;0.5421;1.2793;
637.5000;0.5421;1.2840;
637.8000;0.5413;1.2840;
638.1000;0.5397;1.2957;
638.4000;0.5389;1.2957;
638.7000;0.5397;1.2957;
639.0000;0.5381;1.2934;
639.3000;0.5364;1.3004;
639.6000;0.5381;1.2957;
639.9000;0.5364;1.2816;
640.2000;0.5332;1.2769;
640.5000;0.5324;1.2722;
640.8000;0.5348;1.2746;
641.1000;0.5340;1.2816;
641.4000;0.5429;1.2981;
641.7000;0.5389;1.2957;
642.0000;0.5332;1.2863;
642.3000;0.5356;1.2957;
642.6000;0.5340;1.2910;
642.9000;0.5267;1.2840;
643.2000;0.5283;1.2840;
643.5000;0.5307;1.2934;
643.8000;0.5291;1.2863;
644.1000;0.5291;1.2840;
644.4000;0.5299;1.2816;
644.7000;0.5324;1.2934;
645.0000;0.5283;1.2887;
645.3000;0.5267;1.2863;
645.6000;0.5275;1.2816;
645.9000;0.5250;1.2816;
646.2000;0.5307;1.2910;
646.5000;0.5242;1.2769;
646.8000;0.5234;1.2746;
647.1000;0.5234;1.2722;
647.4000;0.5234;1.2722;
647.7000;0.5226;1.2629;
648.0000;0.5218;1.2605;
648.3000;0.5218;1.2629;
648.6000;0.5234;1.2722;
648.9000;0.5218;1.2816;
649.2000;0.5210;1.2840;
649.5000;0.5201;1.2840;
649.8000;0.5193;1.2793;
650.1000;0.5185;1.2746;
650.4000;0.5210;1.2769;
650.7000;0.5185;1.2675;
651.0000;0.5210;1.2746;
651.3000;0.5201;1.2629;
651.6000;0.5193;1.2746;
651.9000;0.5250;1.2934;
652.2000;0.5185;1.2816;
652.5000;0.5161;1.2769;
652.8000;0.5161;1.2746;
653.1000;0.5161;1.2746;
653.4000;0.5128;1.2652;
653.7000;0.5153;1.2652;
654.0000;0.5161;1.2746;
654.3000;0.5136;1.2722;
654.6000;0.5153;1.2746;
654.9000;0.5128;1.2746;
655.2000;0.5144;1.2769;
655.5000;0.5136;1.2675;
655.8000;0.5136;1.2605;
656.1000;0.5226;1.2887;
656.4000;0.5088;1.2582;
656.7000;0.5120;1.2746;
657.0000;0.5136;1.2793;
657.3000;0.5112;1.2793;
657.6000;0.5104;1.2863;
657.9000;0.5112;1.2816;
658.2000;0.5104;1.2722;
658.5000;0.5088;1.2605;
658.8000;0.5096;1.2652;
659.1000;0.5096;1.2582;
659.4000;0.5096;1.2675;
659.7000;0.5079;1.2605;
660.0000;0.5088;1.2558;
660.3000;0.5096;1.2652;
660.6000;0.5136;1.2675;
660.9000;0.5096;1.2464;
661.2000;0.5088;1.2511;
661.5000;0.5055;1.2582;
661.8000;0.5071;1.2722;
662.1000;0.5071;1.2769;
662.4000;0.5071;1.2769;
662.7000;0.5079;1.2652;
663.0000;0.5055;1.2511;
663.3000;0.5055;1.2535;
663.6000;0.5047;1.2535;
663.9000;0.5006;1.2488;
664.2000;0.5039;1.2629;
664.5000;0.5022;1.2652;
664.8000;0.5039;1.2582;
665.1000;0.4998;1.2582;
665.4000;0.5055;1.2793;
665.7000;0.5047;1.2863;
666.0000;0.5039;1.2863;
666.3000;0.5039;1.2840;
666.6000;0.5047;1.2887;
666.9000;0.5120;1.3075;
667.2000;0.5022;1.2840;
667.5000;0.5055;1.2910;
667.8000;0.5031;1.2816;
668.1000;0.5014;1.2840;
668.4000;0.5014;1.2816;
668.7000;0.5014;1.2722;
669.0000;0.4998;1.2722;
669.3000;0.5022;1.2793;
669.6000;0.5006;1.2934;
669.9000;0.4990;1.2887;
670.2000;0.4998;1.2934;
670.5000;0.5006;1.2957;
670.8000;0.4982;1.2863;
671.1000;0.4990;1.2840;
671.4000;0.5006;1.2840;
671.7000;0.4998;1.2840;
672.0000;0.4974;1.2863;
672.3000;0.5014;1.2863;
672.6000;0.4982;1.2769;
672.9000;0.4974;1.2793;
673.2000;0.4982;1.2887;
673.5000;0.4990;1.2840;
673.8000;0.4965;1.2769;
674.1000;0.4974;1.2840;
674.4000;0.4974;1.2863;
674.7000;0.4949;1.2793;
675.0000;0.4965;1.2840;
675.3000;0.4974;1.2793;
675.6000;0.4957;1.2793;
675.9000;0.4949;1.2840;
676.2000;0.4965;1.2793;
676.5000;0.4965;1.2746;
676.8000;0.4974;1.2816;
677.1000;0.4990;1.2910;
677.4000;0.4925;1.2769;
677.7000;0.4957;1.2910;
678.0000;0.4957;1.2981;
678.3000;0.4957;1.2934;
678.6000;0.4957;1.2934;
678.9000;0.4957;1.2934;
679.2000;0.4908;1.2981;
679.5000;0.4868;1.2769;
679.8000;0.4925;1.2981;
680.1000;0.4949;1.3098;
680.4000;0.4860;1.2793;
680.7000;0.4965;1.3075;
681.0000;0.4933;1.2910;
681.3000;0.4941;1.2887;
681.6000;0.4933;1.2816;
681.9000;0.4941;1.2863;
682.2000;0.4957;1.2793;
682.5000;0.4941;1.2769;
682.8000;0.4917;1.2699;
683.1000;0.4908;1.2840;
683.4000;0.4933;1.2863;
683.7000;0.4860;1.2769;
684.0000;0.4908;1.2840;
684.3000;0.4933;1.2863;
684.6000;0.4941;1.2863;
684.9000;0.4933;1.2840;
685.2000;0.4892;1.2722;
685.5000;0.4917;1.2746;
685.8000;0.4917;1.2699;
686.1000;0.4917;1.2699;
686.4000;0.4884;1.2535;
686.7000;0.4900;1.2558;
687.0000;0.4876;1.2441;
687.3000;0.4908;1.2629;
687.6000;0.4892;1.2535;
687.9000;0.4892;1.2558;
688.2000;0.4900;1.2629;
688.5000;0.4917;1.2652;
688.8000;0.4941;1.2722;
689.1000;0.4908;1.2629;
689.4000;0.4892;1.2558;
689.7000;0.4900;1.2605;
690.0000;0.4900;1.2722;
690.3000;0.4900;1.2722;
690.6000;0.4892;1.2675;
690.9000;0.4868;1.2722;
691.2000;0.4884;1.2769;
691.5000;0.4884;1.2722;
691.8000;0.4884;1.2722;
692.1000;0.4884;1.2746;
692.4000;0.4884;1.2722;
692.7000;0.4892;1.2746;
693.0000;0.4876;1.2722;
693.3000;0.4876;1.2769;
693.6000;0.4876;1.2840;
693.9000;0.4900;1.2887;
694.2000;0.4884;1.2934;
694.5000;0.4892;1.2887;
694.8000;0.4876;1.2840;
695.1000;0.4884;1.2793;
695.4000;0.4868;1.2793;
695.7000;0.4868;1.2793;
696.0000;0.4868;1.2769;
696.3000;0.4868;1.2840;
696.6000;0.4876;1.2769;
696.9000;0.4876;1.2793;
697.2000;0.4860;1.2746;
697.5000;0.4868;1.2675;
697.8000;0.4884;1.2652;
698.1000;0.4860;1.2699;
698.4000;0.4876;1.2816;
698.7000;0.4868;1.2863;
699.0000;0.4892;1.2910;
699.3000;0.4876;1.2934;
699.6000;0.4860;1.2887;
699.9000;0.4868;1.2863;
700.2000;0.4827;1.2793;
700.5000;0.4860;1.2840;
700.8000;0.4860;1.2769;
701.1000;0.4860;1.2793;
701.4000;0.4876;1.2840;
701.7000;0.4860;1.2722;
702.0000;0.4860;1.2793;
702.3000;0.4851;1.2793;
702.6000;0.4843;1.2887;
702.9000;0.4868;1.2934;
703.2000;0.4835;1.2934;
703.5000;0.4778;1.2793;
703.8000;0.4827;1.2934;
704.1000;0.4835;1.2934;
704.4000;0.4843;1.2887;
704.7000;0.4811;1.2816;
705.0000;0.4860;1.2957;
705.3000;0.4835;1.2957;
705.6000;0.4803;1.2816;
705.9000;0.4860;1.2910;
706.2000;0.4860;1.2934;
706.5000;0.4819;1.2863;
706.8000;0.4827;1.2816;
707.1000;0.4786;1.2675;
707.4000;0.4843;1.2816;
707.7000;0.4835;1.2910;
708.0000;0.4835;1.2910;
708.3000;0.4827;1.2863;
708.6000;0.4827;1.2934;
708.9000;0.4827;1.2981;
709.2000;0.4762;1.2746;
709.5000;0.4827;1.2910;
709.8000;0.4770;1.2699;
710.1000;0.4843;1.2910;
710.4000;0.4770;1.2769;
710.7000;0.4851;1.2910;
711.0000;0.4843;1.2816;
711.3000;0.4803;1.2816;
711.6000;0.4835;1.2840;
711.9000;0.4835;1.2887;
712.2000;0.4835;1.2887;
712.5000;0.4827;1.2840;
712.8000;0.4843;1.2793;
713.1000;0.4827;1.2793;
713.4000;0.4835;1.2840;
713.7000;0.4827;1.2840;
714.0000;0.4811;1.2840;
714.3000;0.4835;1.2910;
714.6000;0.4827;1.2887;
714.9000;0.4827;1.2910;
715.2000;0.4827;1.2957;
715.5000;0.4811;1.2934;
715.8000;0.4851;1.3004;
716.1000;0.4794;1.2816;
716.4000;0.4827;1.2887;
716.7000;0.4819;1.2934;
717.0000;0.4827;1.2934;
717.3000;0.4819;1.2981;
717.6000;0.4819;1.2981;
717.9000;0.4778;1.2981;
718.2000;0.4794;1.2957;
718.5000;0.4819;1.2981;
718.8000;0.4827;1.3028;
719.1000;0.4803;1.2934;
719.4000;0.4811;1.2981;
719.7000;0.4794;1.2981;
720.0000;0.4803;1.2910;
720.3000;0.4811;1.2863;
720.6000;0.4811;1.2910;
720.9000;0.4933;1.3215;
721.2000;0.4819;1.2910;
721.5000;0.4794;1.2957;
721.8000;0.4803;1.3075;
722.1000;0.4811;1.3098;
722.4000;0.4811;1.2981;
722.7000;0.4811;1.2981;
723.0000;0.4786;1.2816;
723.3000;0.4786;1.2816;
723.6000;0.4794;1.2863;
723.9000;0.4803;1.2887;
724.2000;0.4819;1.2934;
724.5000;0.4778;1.2887;
724.8000;0.4827;1.3051;
725.1000;0.4786;1.2981;
725.4000;0.4786;1.3004;
725.7000;0.4786;1.2934;
726.0000;0.4794;1.2887;
726.3000;0.4794;1.2816;
726.6000;0.4843;1.2934;
726.9000;0.4794;1.2840;
727.2000;0.4794;1.2816;
727.5000;0.4794;1.2816;
727.8000;0.4794;1.2816;
728.1000;0.4803;1.2816;
728.4000;0.4778;1.2793;
728.7000;0.4794;1.2769;
729.0000;0.4794;1.2816;
729.3000;0.4729;1.2558;
729.6000;0.4803;1.2816;
729.9000;0.4794;1.2793;
730.2000;0.4762;1.2769;
730.5000;0.4770;1.2793;
730.8000;0.4803;1.2840;
731.1000;0.4803;1.2793;
731.4000;0.4811;1.2840;
731.7000;0.4803;1.2769;
732.0000;0.4794;1.2816;
732.3000;0.4851;1.2934;
732.6000;0.4803;1.2863;
732.9000;0.4827;1.2910;
733.2000;0.4794;1.2863;
733.5000;0.4803;1.2934;
733.8000;0.4803;1.2957;
734.1000;0.4786;1.2957;
734.4000;0.4770;1.2957;
734.7000;0.4794;1.2934;
735.0000;0.4827;1.2981;
735.3000;0.4786;1.2910;
735.6000;0.4803;1.2863;
735.9000;0.4778;1.2863;
736.2000;0.4778;1.2957;
736.5000;0.4835;1.3028;
736.8000;0.4786;1.2887;
737.1000;0.4835;1.3028;
737.4000;0.4794;1.3004;
737.7000;0.4917;1.3309;
738.0000;0.4770;1.2981;
738.3000;0.4786;1.3004;
738.6000;0.4827;1.3121;
738.9000;0.4754;1.2957;
739.2000;0.4778;1.2981;
739.5000;0.4835;1.3192;
739.8000;0.4664;1.2675;
740.1000;0.4697;1.2699;
740.4000;0.4778;1.2887;
740.7000;0.4794;1.2840;
741.0000;0.4746;1.2675;
741.3000;0.4778;1.2722;
741.6000;0.4794;1.2769;
741.9000;0.4778;1.2816;
742.2000;0.4786;1.2769;
742.5000;0.4786;1.2793;
742.8000;0.4778;1.2769;
743.1000;0.4803;1.2887;
743.4000;0.4786;1.2887;
743.7000;0.4762;1.2887;
744.0000;0.4786;1.2981;
744.3000;0.4770;1.2887;
744.6000;0.4778;1.2934;
744.9000;0.4778;1.2863;
745.2000;0.4770;1.2840;
745.5000;0.4770;1.2887;
745.8000;0.4786;1.2934;
746.1000;0.4762;1.2934;
746.4000;0.4770;1.3004;
746.7000;0.4762;1.3004;
747.0000;0.4778;1.2981;
747.3000;0.4762;1.2957;
747.6000;0.4762;1.2910;
747.9000;0.4770;1.2934;
748.2000;0.4778;1.2910;
748.5000;0.4762;1.2934;
748.8000;0.4762;1.2887;
749.1000;0.4778;1.2934;
749.4000;0.4754;1.2793;
749.7000;0.4786;1.2957;
750.0000;0.4770;1.2981;
750.3000;0.4681;1.2793;
750.6000;0.4794;1.2981;
750.9000;0.4786;1.3004;
751.2000;0.4762;1.2887;
751.5000;0.4746;1.2863;
751.8000;0.4786;1.2957;
752.1000;0.4770;1.2957;
752.4000;0.4681;1.2722;
752.7000;0.4770;1.2934;
753.0000;0.4770;1.2910;
753.3000;0.4770;1.2934;
753.6000;0.4770;1.2887;
753.9000;0.4770;1.2887;
754.2000;0.4746;1.2887;
754.5000;0.4778;1.3004;
754.8000;0.4778;1.3028;
755.1000;0.4737;1.2863;
755.4000;0.4754;1.2910;
755.7000;0.4778;1.2910;
756.0000;0.4697;1.2629;
756.3000;0.4746;1.2840;
756.6000;0.4778;1.2981;
756.9000;0.4811;1.3028;
757.2000;0.4746;1.2887;
757.5000;0.4754;1.2934;
757.8000;0.4746;1.2981;
758.1000;0.4754;1.3004;
758.4000;0.4762;1.2957;
758.7000;0.4754;1.2863;
759.0000;0.4778;1.2910;
759.3000;0.4754;1.2793;
759.6000;0.4762;1.2769;
759.9000;0.4754;1.2840;
760.2000;0.4786;1.2957;
760.5000;0.4754;1.2887;
760.8000;0.4770;1.2934;
761.1000;0.4762;1.2934;
761.4000;0.4746;1.2957;
761.7000;0.4754;1.3004;
762.0000;0.4705;1.2910;
762.3000;0.4746;1.3098;
762.6000;0.4754;1.3075;
762.9000;0.4713;1.3004;
763.2000;0.4770;1.3145;
763.5000;0.4786;1.3145;
763.8000;0.4762;1.3145;
764.1000;0.4762;1.3192;
764.4000;0.4770;1.3121;
764.7000;0.4803;1.3192;
765.0000;0.4786;1.3145;
765.3000;0.4770;1.3051;
765.6000;0.4762;1.3075;
765.9000;0.4754;1.2981;
766.2000;0.4762;1.2934;
766.5000;0.4762;1.2981;
766.8000;0.4754;1.2910;
767.1000;0.4754;1.2840;
767.4000;0.4754;1.2887;
767.7000;0.4762;1.2981;
768.0000;0.4762;1.2934;
768.3000;0.4770;1.3028;
768.6000;0.4762;1.3098;
768.9000;0.4762;1.3075;
769.2000;0.4762;1.3051;
769.5000;0.4754;1.3004;
769.8000;0.4737;1.3028;
770.1000;0.4729;1.3075;
770.4000;0.4746;1.3075;
770.7000;0.4746;1.3121;
771.0000;0.4705;1.3004;
771.3000;0.4762;1.3098;
771.6000;0.4762;1.2981;
771.9000;0.4754;1.2957;
772.2000;0.4762;1.2934;
772.5000;0.4762;1.2863;
772.8000;0.4754;1.2840;
773.1000;0.4754;1.2816;
773.4000;0.4705;1.2769;
773.7000;0.4754;1.2934;
774.0000;0.4746;1.2910;
774.3000;0.4803;1.3028;
774.6000;0.4746;1.2957;
774.9000;0.4762;1.2934;
775.2000;0.4746;1.2957;
775.5000;0.4746;1.3051;
775.8000;0.4746;1.3028;
776.1000;0.4754;1.3145;
776.4000;0.4835;1.3309;
776.7000;0.4770;1.3028;
777.0000;0.4746;1.3051;
777.3000;0.4827;1.3239;
777.6000;0.4746;1.3098;
777.9000;0.4754;1.3028;
778.2000;0.4729;1.2863;
778.5000;0.4746;1.2957;
778.8000;0.4762;1.3051;
779.1000;0.4746;1.3145;
779.4000;0.4729;1.3075;
779.7000;0.4754;1.3028;
780.0000;0.4794;1.3098;
780.3000;0.4803;1.3145;
780.6000;0.4754;1.3028;
780.9000;0.4737;1.2934;
781.2000;0.4624;1.2652;
781.5000;0.4746;1.2981;
781.8000;0.4762;1.3098;
782.1000;0.4721;1.3051;
782.4000;0.4778;1.3168;
782.7000;0.4737;1.3051;
783.0000;0.4851;1.3356;
783.3000;0.4746;1.3004;
783.6000;0.4729;1.3051;
783.9000;0.4737;1.3145;
784.2000;0.4729;1.2981;
784.5000;0.4754;1.2910;
784.8000;0.4746;1.2934;
785.1000;0.4721;1.2934;
785.4000;0.4762;1.2981;
785.7000;0.4754;1.2981;
786.0000;0.4729;1.3028;
786.3000;0.4746;1.3098;
786.6000;0.4746;1.3051;
786.9000;0.4754;1.3121;
787.2000;0.4770;1.3168;
787.5000;0.4746;1.3145;
787.8000;0.4746;1.3215;
788.1000;0.4746;1.3262;
788.4000;0.4746;1.3192;
788.7000;0.4737;1.3121;
789.0000;0.4746;1.3075;
789.3000;0.4746;1.3051;
789.6000;0.4737;1.2934;
789.9000;0.4737;1.2981;
790.2000;0.4713;1.2840;
790.5000;0.4729;1.2910;
790.8000;0.4770;1.3004;
791.1000;0.4721;1.2863;
791.4000;0.4729;1.2957;
791.7000;0.4746;1.3004;
792.0000;0.4737;1.2957;
792.3000;0.4762;1.2863;
792.6000;0.4737;1.2887;
792.9000;0.4737;1.2887;
793.2000;0.4746;1.2863;
793.5000;0.4737;1.2840;
793.8000;0.4729;1.2746;
794.1000;0.4713;1.2769;
794.4000;0.4746;1.2816;
794.7000;0.4737;1.2816;
795.0000;0.4689;1.2675;
795.3000;0.4713;1.2816;
795.6000;0.4794;1.3028;
795.9000;0.4746;1.3028;
796.2000;0.4754;1.3004;
796.5000;0.4729;1.2981;
796.8000;0.4713;1.2957;
797.1000;0.4746;1.3051;
797.4000;0.4762;1.3075;
797.7000;0.4729;1.3028;
798.0000;0.4729;1.2981;
798.3000;0.4705;1.2863;
798.6000;0.4746;1.2957;
798.9000;0.4721;1.2887;
799.2000;0.4746;1.2934;
799.5000;0.4729;1.2934;
799.8000;0.4754;1.3004;
800.1000;0.4729;1.2910;
800.4000;0.4664;1.2746;
800.7000;0.4746;1.3004;
801.0000;0.4746;1.3004;
801.3000;0.4746;1.3145;
801.6000;0.4729;1.3215;
801.9000;0.4737;1.3098;
802.2000;0.4762;1.3098;
802.5000;0.4721;1.3098;
802.8000;0.4713;1.3028;
803.1000;0.4737;1.3075;
803.4000;0.4737;1.3098;
803.7000;0.4762;1.3168;
804.0000;0.4729;1.3051;
804.3000;0.4729;1.3004;
804.6000;0.4746;1.2957;
804.9000;0.4713;1.2816;
805.2000;0.4729;1.2910;
805.5000;0.4721;1.2887;
805.8000;0.4746;1.2957;
806.1000;0.4746;1.3028;
806.4000;0.4737;1.3075;
806.7000;0.4737;1.3098;
807.0000;0.4713;1.3051;
807.3000;0.4746;1.3028;
807.6000;0.4746;1.3004;
807.9000;0.4737;1.2910;
808.2000;0.4713;1.2840;
808.5000;0.4721;1.2816;
808.8000;0.4721;1.2910;
809.1000;0.4721;1.2981;
809.4000;0.4729;1.2934;
809.7000;0.4721;1.2957;
810.0000;0.4737;1.3075;
810.3000;0.4729;1.3028;
810.6000;0.4737;1.3051;
810.9000;0.4721;1.2957;
811.2000;0.4729;1.3028;
811.5000;0.4729;1.3004;
811.8000;0.4746;1.3028;
812.1000;0.4705;1.2910;
812.4000;0.4713;1.2957;
812.7000;0.4746;1.2981;
813.0000;0.4729;1.2934;
813.3000;0.4746;1.2981;
813.6000;0.4737;1.2910;
813.9000;0.4746;1.2934;
814.2000;0.4737;1.2910;
814.5000;0.4721;1.2910;
814.8000;0.4729;1.2887;
815.1000;0.4737;1.2840;
815.4000;0.4721;1.2769;
815.7000;0.4721;1.2769;
816.0000;0.4729;1.2793;
816.3000;0.4729;1.2863;
816.6000;0.4729;1.2910;
816.9000;0.4721;1.2887;
817.2000;0.4729;1.2957;
817.5000;0.4737;1.2957;
817.8000;0.4713;1.2840;
818.1000;0.4770;1.2910;
818.4000;0.4697;1.2816;
818.7000;0.4721;1.2863;
819.0000;0.4737;1.2934;
819.3000;0.4746;1.2934;
819.6000;0.4697;1.2887;
819.9000;0.4721;1.2887;
820.2000;0.4729;1.2887;
820.5000;0.4721;1.2816;
820.8000;0.4721;1.2793;
821.1000;0.4689;1.2769;
821.4000;0.4689;1.2746;
821.7000;0.4713;1.2887;
822.0000;0.4705;1.2863;
822.3000;0.4681;1.2699;
822.6000;0.4794;1.3051;
822.9000;0.4737;1.2887;
823.2000;0.4729;1.2934;
823.5000;0.4729;1.2910;
823.8000;0.4713;1.2840;
824.1000;0.4721;1.2816;
824.4000;0.4843;1.3028;
824.7000;0.4648;1.2605;
825.0000;0.4729;1.2910;
825.3000;0.4737;1.2910;
825.6000;0.4737;1.2910;
825.9000;0.4737;1.2981;
826.2000;0.4713;1.2910;
826.5000;0.4721;1.2910;
826.8000;0.4713;1.2910;
827.1000;0.4721;1.2863;
827.4000;0.4721;1.2887;
827.7000;0.4689;1.2887;
828.0000;0.4721;1.3028;
828.3000;0.4705;1.2981;
828.6000;0.4721;1.3028;
828.9000;0.4705;1.2910;
829.2000;0.4737;1.2981;
829.5000;0.4729;1.3004;
829.8000;0.4721;1.3028;
830.1000;0.4729;1.3028;
830.4000;0.4762;1.3168;
830.7000;0.4737;1.3098;
831.0000;0.4721;1.3075;
831.3000;0.4705;1.2981;
831.6000;0.4721;1.2981;
831.9000;0.4713;1.2957;
832.2000;0.4721;1.3004;
832.5000;0.4713;1.2957;
832.8000;0.4697;1.2957;
833.1000;0.4729;1.3075;
833.4000;0.4737;1.3168;
833.7000;0.4705;1.3145;
834.0000;0.4754;1.3239;
834.3000;0.4737;1.3239;
834.6000;0.4737;1.3168;
834.9000;0.4737;1.3145;
835.2000;0.4721;1.3098;
835.5000;0.4713;1.3075;
835.8000;0.4754;1.3215;
836.1000;0.4737;1.3168;
836.4000;0.4697;1.3168;
836.7000;0.4721;1.3262;
837.0000;0.4835;1.3497;
837.3000;0.4729;1.3309;
837.6000;0.4721;1.3168;
837.9000;0.4737;1.3145;
838.2000;0.4721;1.3051;
838.5000;0.4754;1.2981;
838.8000;0.4721;1.2910;
839.1000;0.4729;1.2934;
839.4000;0.4746;1.3028;
839.7000;0.4746;1.3098;
840.0000;0.4729;1.3145;
840.3000;0.4721;1.3051;
840.6000;0.4713;1.2957;
840.9000;0.4737;1.2981;
841.2000;0.4729;1.3051;
841.5000;0.4705;1.3028;
841.8000;0.4713;1.3075;
842.1000;0.4746;1.3145;
842.4000;0.4713;1.3168;
842.7000;0.4705;1.3121;
843.0000;0.4705;1.3121;
843.3000;0.4721;1.3145;
843.6000;0.4713;1.3051;
843.9000;0.4713;1.2981;
844.2000;0.4754;1.3145;
844.5000;0.4713;1.3098;
844.8000;0.4713;1.3121;
845.1000;0.4770;1.3215;
845.4000;0.4786;1.3168;
845.7000;0.4721;1.3028;
846.0000;0.4721;1.3098;
846.3000;0.4697;1.3004;
846.6000;0.4689;1.2981;
846.9000;0.4697;1.2957;
847.2000;0.4729;1.3004;
847.5000;0.4721;1.3028;
847.8000;0.4656;1.2746;
848.1000;0.4713;1.2816;
848.4000;0.4697;1.2910;
848.7000;0.4721;1.2957;
849.0000;0.4721;1.2957;
849.3000;0.4721;1.2887;
849.6000;0.4721;1.2863;
849.9000;0.4737;1.2910;
850.2000;0.4721;1.2840;
850.5000;0.4794;1.3098;
850.8000;0.4737;1.2934;
851.1000;0.4729;1.2957;
851.4000;0.4689;1.2934;
851.7000;0.4737;1.3121;
852.0000;0.4713;1.3004;
852.3000;0.4705;1.2934;
852.6000;0.4729;1.2934;
852.9000;0.4713;1.2934;
853.2000;0.4754;1.3098;
853.5000;0.4705;1.2887;
853.8000;0.4721;1.2887;
854.1000;0.4705;1.2910;
854.4000;0.4721;1.2934;
854.7000;0.4705;1.2981;
855.0000;0.4705;1.3004;
855.3000;0.4705;1.3004;
855.6000;0.4713;1.2957;
855.9000;0.4681;1.2887;
856.2000;0.4713;1.3004;
856.5000;0.4721;1.3004;
856.8000;0.4689;1.2934;
857.1000;0.4786;1.3192;
857.4000;0.4713;1.3075;
857.7000;0.4705;1.3121;
858.0000;0.4640;1.2863;
858.3000;0.4705;1.3121;
858.6000;0.4713;1.3121;
858.9000;0.4713;1.3145;
859.2000;0.4713;1.3028;
859.5000;0.4705;1.3004;
859.8000;0.4705;1.2981;
860.1000;0.4697;1.2957;
860.4000;0.4697;1.2934;
860.7000;0.4697;1.2934;
861.0000;0.4697;1.2981;
861.3000;0.4729;1.3098;
861.6000;0.4713;1.3098;
861.9000;0.4721;1.3028;
862.2000;0.4705;1.2981;
862.5000;0.4721;1.3028;
862.8000;0.4721;1.3028;
863.1000;0.4705;1.3004;
863.4000;0.4721;1.3004;
863.7000;0.4713;1.2981;
864.0000;0.4713;1.3051;
864.3000;0.4713;1.3098;
864.6000;0.4721;1.3075;
864.9000;0.4721;1.3098;
865.2000;0.4713;1.2981;
865.5000;0.4729;1.2957;
865.8000;0.4713;1.2957;
866.1000;0.4721;1.2934;
866.4000;0.4729;1.3075;
866.7000;0.4713;1.3098;
867.0000;0.4721;1.3098;
867.3000;0.4729;1.3051;
867.6000;0.4721;1.3121;
867.9000;0.4770;1.3215;
868.2000;0.4770;1.3192;
868.5000;0.4705;1.3051;
868.8000;0.4737;1.3192;
869.1000;0.4705;1.3145;
869.4000;0.4705;1.3168;
869.7000;0.4697;1.3075;
870.0000;0.4713;1.3051;
870.3000;0.4721;1.3051;
870.6000;0.4713;1.3028;
870.9000;0.4721;1.3051;
871.2000;0.4729;1.3051;
871.5000;0.4770;1.3121;
871.8000;0.4632;1.2675;
872.1000;0.4721;1.2957;
872.4000;0.4721;1.2957;
872.7000;0.4681;1.2816;
873.0000;0.4721;1.2910;
873.3000;0.4786;1.3121;
873.6000;0.4737;1.2981;
873.9000;0.4729;1.3028;
874.2000;0.4729;1.3075;
874.5000;0.4721;1.3145;
874.8000;0.4697;1.2957;
875.1000;0.4713;1.3004;
875.4000;0.4713;1.3098;
875.7000;0.4705;1.3121;
876.0000;0.4729;1.3028;
876.3000;0.4697;1.3004;
876.6000;0.4713;1.3051;
876.9000;0.4713;1.3075;
877.2000;0.4729;1.3145;
877.5000;0.4721;1.3098;
877.8000;0.4737;1.3051;
878.1000;0.4721;1.3028;
878.4000;0.4729;1.3028;
878.7000;0.4705;1.3028;
879.0000;0.4721;1.2981;
879.3000;0.4721;1.2910;
879.6000;0.4713;1.2863;
879.9000;0.4713;1.2863;
880.2000;0.4713;1.2887;
880.5000;0.4713;1.2863;
880.8000;0.4713;1.2816;
881.1000;0.4681;1.2722;
881.4000;0.4697;1.2699;
881.7000;0.4697;1.2652;
882.0000;0.4729;1.2816;
882.3000;0.4705;1.2793;
882.6000;0.4721;1.2793;
882.9000;0.4721;1.2910;
883.2000;0.4713;1.2887;
883.5000;0.4697;1.2981;
883.8000;0.4721;1.3051;
884.1000;0.4664;1.2887;
884.4000;0.4721;1.3028;
884.7000;0.4721;1.2957;
885.0000;0.4770;1.3004;
885.3000;0.4721;1.2793;
885.6000;0.4713;1.2793;
885.9000;0.4721;1.2793;
886.2000;0.4713;1.2887;
886.5000;0.4705;1.2840;
886.8000;0.4705;1.2910;
887.1000;0.4705;1.2910;
887.4000;0.4697;1.2840;
887.7000;0.4705;1.2910;
888.0000;0.4705;1.2981;
888.3000;0.4721;1.3098;
888.6000;0.4697;1.3004;
888.9000;0.4713;1.3075;
889.2000;0.4705;1.2934;
889.5000;0.4672;1.2769;
889.8000;0.4721;1.2910;
890.1000;0.4819;1.3192;
890.4000;0.4713;1.3004;
890.7000;0.4697;1.2887;
891.0000;0.4713;1.2840;
891.3000;0.4729;1.3051;
891.6000;0.4640;1.2957;
891.9000;0.4689;1.3051;
892.2000;0.4705;1.3051;
892.5000;0.4713;1.3075;
892.8000;0.4689;1.3098;
893.1000;0.4681;1.3028;
893.4000;0.4632;1.2910;
893.7000;0.4762;1.3215;
894.0000;0.4713;1.3028;
894.3000;0.4705;1.2887;
894.6000;0.4713;1.2793;
894.9000;0.4713;1.2793;
895.2000;0.4664;1.2652;
895.5000;0.4721;1.2746;
895.8000;0.4697;1.2699;
896.1000;0.4705;1.2675;
896.4000;0.4681;1.2558;
896.7000;0.4721;1.2769;
897.0000;0.4705;1.2793;
897.3000;0.4705;1.2887;
897.6000;0.4770;1.3051;
897.9000;0.4762;1.3004;
898.2000;0.4729;1.2863;
898.5000;0.4713;1.2863;
898.8000;0.4721;1.2934;
899.1000;0.4705;1.2957;
899.4000;0.4721;1.2957;
899.7000;0.4705;1.2887;
900.0000;0.4713;1.2934;
900.3000;0.4721;1.2957;
900.6000;0.4721;1.3028;
900.9000;0.4713;1.2934;
901.2000;0.4778;1.3028;
901.5000;0.4729;1.2816;
901.8000;0.4729;1.2840;
902.1000;0.4705;1.2816;
902.4000;0.4713;1.2793;
902.7000;0.4705;1.2769;
903.0000;0.4672;1.2722;
903.3000;0.4737;1.2863;
903.6000;0.4697;1.2769;
903.9000;0.4705;1.2769;
904.2000;0.4729;1.2769;
904.5000;0.4705;1.2793;
904.8000;0.4705;1.2722;
905.1000;0.4721;1.2816;
905.4000;0.4705;1.2769;
905.7000;0.4713;1.2816;
906.0000;0.4713;1.2863;
906.3000;0.4705;1.2769;
906.6000;0.4721;1.2863;
906.9000;0.4729;1.2863;
907.2000;0.4705;1.2863;
907.5000;0.4697;1.2816;
907.8000;0.4705;1.2910;
908.1000;0.4729;1.2910;
908.4000;0.4737;1.2934;
908.7000;0.4615;1.2629;
909.0000;0.4681;1.2910;
909.3000;0.4713;1.3004;
909.6000;0.4713;1.2981;
909.9000;0.4713;1.2934;
910.2000;0.4729;1.2957;
910.5000;0.4713;1.2957;
910.8000;0.4713;1.2981;
911.1000;0.4721;1.3004;
911.4000;0.4729;1.2981;
911.7000;0.4721;1.3004;
912.0000;0.4713;1.3051;
912.3000;0.4681;1.2863;
912.6000;0.4721;1.3028;
912.9000;0.4697;1.2981;
913.2000;0.4737;1.2981;
913.5000;0.4713;1.2957;
913.8000;0.4721;1.2910;
914.1000;0.4697;1.2863;
914.4000;0.4689;1.2746;
914.7000;0.4713;1.2840;
915.0000;0.4689;1.2863;
915.3000;0.4689;1.2840;
915.6000;0.4729;1.2910;
915.9000;0.4713;1.2910;
916.2000;0.4705;1.2934;
916.5000;0.4843;1.3262;
916.8000;0.4689;1.2816;
917.1000;0.4729;1.2863;
917.4000;0.4713;1.2840;
917.7000;0.4689;1.2816;
918.0000;0.4697;1.2699;
918.3000;0.4770;1.2887;
918.6000;0.4705;1.2699;
918.9000;0.4705;1.2793;
919.2000;0.4689;1.2793;
919.5000;0.4689;1.2934;
919.8000;0.4713;1.2981;
920.1000;0.4697;1.2981;
920.4000;0.4697;1.3051;
920.7000;0.4697;1.3028;
921.0000;0.4713;1.3028;
921.3000;0.4705;1.2981;
921.6000;0.4697;1.2981;
921.9000;0.4705;1.2957;
922.2000;0.4713;1.2957;
922.5000;0.4697;1.2910;
922.8000;0.4721;1.2910;
923.1000;0.4697;1.2934;
923.4000;0.4689;1.2934;
923.7000;0.4713;1.3028;
924.0000;0.4705;1.3098;
924.3000;0.4689;1.3028;
924.6000;0.4664;1.2957;
924.9000;0.4689;1.2981;
925.2000;0.4697;1.3028;
925.5000;0.4713;1.3051;
925.8000;0.4697;1.2981;
926.1000;0.4689;1.2910;
926.4000;0.4721;1.2934;
926.7000;0.4713;1.2840;
927.0000;0.4721;1.2887;
927.3000;0.4705;1.2910;
927.6000;0.4713;1.2957;
927.9000;0.4721;1.3004;
928.2000;0.4729;1.3051;
928.5000;0.4746;1.3215;
928.8000;0.4697;1.3098;
929.1000;0.4713;1.3168;
929.4000;0.4713;1.3145;
929.7000;0.4697;1.3098;
930.0000;0.4705;1.3075;
930.3000;0.4705;1.2981;
930.6000;0.4697;1.3028;
930.9000;0.4672;1.2887;
931.2000;0.4713;1.2981;
931.5000;0.4705;1.2957;
931.8000;0.4697;1.3004;
932.1000;0.4713;1.2981;
932.4000;0.4713;1.2957;
932.7000;0.4737;1.2981;
933.0000;0.4713;1.2863;
933.3000;0.4697;1.2769;
933.6000;0.4713;1.2675;
933.9000;0.4713;1.2699;
934.2000;0.4697;1.2582;
934.5000;0.4681;1.2511;
934.8000;0.4697;1.2605;
935.1000;0.4697;1.2558;
935.4000;0.4689;1.2511;
935.7000;0.4689;1.2535;
936.0000;0.4681;1.2629;
936.3000;0.4697;1.2652;
936.6000;0.4713;1.2746;
936.9000;0.4705;1.2793;
937.2000;0.4705;1.2816;
937.5000;0.4721;1.2863;
937.8000;0.4705;1.2887;
938.1000;0.4689;1.2816;
938.4000;0.4705;1.2816;
938.7000;0.4697;1.2840;
939.0000;0.4705;1.2910;
939.3000;0.4713;1.3004;
939.6000;0.4681;1.2910;
939.9000;0.4689;1.2840;
940.2000;0.4689;1.2769;
940.5000;0.4705;1.2863;
940.8000;0.4697;1.2769;
941.1000;0.4681;1.2769;
941.4000;0.4681;1.2793;
941.7000;0.4672;1.2816;
942.0000;0.4697;1.2910;
942.3000;0.4713;1.2957;
942.6000;0.4713;1.2957;
942.9000;0.4713;1.3075;
943.2000;0.4705;1.2934;
943.5000;0.4713;1.2934;
943.8000;0.4705;1.2910;
944.1000;0.4721;1.3004;
944.4000;0.4681;1.2957;
944.7000;0.4697;1.2934;
945.0000;0.4705;1.2887;
945.3000;0.4672;1.2769;
945.6000;0.4689;1.2746;
945.9000;0.4689;1.2793;
946.2000;0.4689;1.2816;
946.5000;0.4697;1.2793;
946.8000;0.4713;1.2816;
947.1000;0.4729;1.2840;
947.4000;0.4689;1.2793;
947.7000;0.4681;1.2769;
948.0000;0.4705;1.2863;
948.3000;0.4705;1.2816;
948.6000;0.4689;1.2699;
948.9000;0.4737;1.2793;
949.2000;0.4713;1.2652;
949.5000;0.4721;1.2840;
949.8000;0.4705;1.2934;
950.1000;0.4681;1.2934;
950.4000;0.4705;1.2887;
950.7000;0.4697;1.2863;
951.0000;0.4697;1.2934;
951.3000;0.4705;1.2863;
951.6000;0.4705;1.2816;
951.9000;0.4705;1.2840;
952.2000;0.4737;1.2957;
952.5000;0.4713;1.2910;
952.8000;0.4689;1.2840;
953.1000;0.4721;1.3004;
953.4000;0.4729;1.3028;
953.7000;0.4689;1.2910;
954.0000;0.4656;1.2816;
954.3000;0.4689;1.2957;
954.6000;0.4770;1.3239;
954.9000;0.4689;1.3028;
955.2000;0.4705;1.3028;
955.5000;0.4697;1.2910;
955.8000;0.4681;1.2863;
956.1000;0.4705;1.3028;
956.4000;0.4689;1.2981;
956.7000;0.4729;1.2981;
957.0000;0.4713;1.2910;
957.3000;0.4705;1.2934;
957.6000;0.4721;1.2934;
957.9000;0.4721;1.2863;
958.2000;0.4729;1.2840;
958.5000;0.4729;1.2746;
958.8000;0.4656;1.2605;
959.1000;0.4705;1.2746;
959.4000;0.4729;1.2816;
959.7000;0.4729;1.2887;
960.0000;0.4705;1.2957;
960.3000;0.4721;1.2887;
960.6000;0.4721;1.2840;
960.9000;0.4729;1.2840;
961.2000;0.4729;1.2887;
961.5000;0.4681;1.2816;
961.8000;0.4689;1.2934;
962.1000;0.4697;1.2934;
962.4000;0.4697;1.2887;
962.7000;0.4705;1.2910;
963.0000;0.4697;1.2863;
963.3000;0.4729;1.3004;
963.6000;0.4729;1.2957;
963.9000;0.4713;1.2981;
964.2000;0.4681;1.3004;
964.5000;0.4713;1.3168;
964.8000;0.4672;1.3004;
965.1000;0.4689;1.3028;
965.4000;0.4689;1.3004;
965.7000;0.4697;1.3051;
966.0000;0.4697;1.3028;
966.3000;0.4697;1.3098;
966.6000;0.4689;1.3075;
966.9000;0.4689;1.3239;
967.2000;0.4664;1.3098;
967.5000;0.4713;1.3333;
967.8000;0.4705;1.3239;
968.1000;0.4713;1.3145;
968.4000;0.4697;1.3051;
968.7000;0.4721;1.3028;
969.0000;0.4713;1.2934;
969.3000;0.4705;1.2887;
969.6000;0.4713;1.2887;
969.9000;0.4705;1.2840;
970.2000;0.4729;1.2934;
970.5000;0.4713;1.2957;
970.8000;0.4705;1.2910;
971.1000;0.4721;1.2840;
971.4000;0.4729;1.2793;
971.7000;0.4713;1.2863;
972.0000;0.4713;1.2910;
972.3000;0.4705;1.2981;
972.6000;0.4713;1.3051;
972.9000;0.4591;1.2605;
973.2000;0.4689;1.2816;
973.5000;0.4697;1.2840;
973.8000;0.4754;1.3004;
974.1000;0.4697;1.2910;
974.4000;0.4697;1.2981;
974.7000;0.4689;1.2957;
975.0000;0.4697;1.2981;
975.3000;0.4705;1.3004;
975.6000;0.4705;1.3004;
975.9000;0.4713;1.3075;
976.2000;0.4681;1.3004;
976.5000;0.4713;1.3121;
976.8000;0.4697;1.3121;
977.1000;0.4664;1.3028;
977.4000;0.4681;1.3004;
977.7000;0.4729;1.3168;
978.0000;0.4697;1.3028;
978.3000;0.4697;1.2957;
978.6000;0.4681;1.3028;
978.9000;0.4689;1.3168;
979.2000;0.4713;1.3239;
979.5000;0.4697;1.3145;
979.8000;0.4681;1.3239;
980.1000;0.4705;1.3356;
980.4000;0.4689;1.3262;
980.7000;0.4746;1.3403;
981.0000;0.4697;1.3309;
981.3000;0.4713;1.3309;
981.6000;0.4705;1.3286;
981.9000;0.4697;1.3380;
982.2000;0.4697;1.3262;
982.5000;0.4697;1.3215;
982.8000;0.4721;1.3286;
983.1000;0.4664;1.3215;
983.4000;0.4689;1.3192;
983.7000;0.4705;1.3098;
984.0000;0.4705;1.3098;
984.3000;0.4729;1.3309;
984.6000;0.4689;1.3215;
984.9000;0.4640;1.3028;
985.2000;0.4713;1.3215;
985.5000;0.4729;1.3239;
985.8000;0.4681;1.3028;
986.1000;0.4672;1.2981;
986.4000;0.4689;1.3004;
986.7000;0.4697;1.3098;
987.0000;0.4721;1.3121;
987.3000;0.4705;1.3075;
987.6000;0.4672;1.2934;
987.9000;0.4754;1.3121;
988.2000;0.4721;1.3051;
988.5000;0.4713;1.3004;
988.8000;0.4713;1.2981;
989.1000;0.4762;1.3145;
989.4000;0.4713;1.3051;
989.7000;0.4672;1.3028;
990.0000;0.4689;1.3075;
990.3000;0.4697;1.3121;
990.6000;0.4697;1.3121;
990.9000;0.4697;1.3098;
991.2000;0.4697;1.3028;
991.5000;0.4705;1.3075;
991.8000;0.4689;1.3121;
992.1000;0.4697;1.3145;
992.4000;0.4672;1.3051;
992.7000;0.4770;1.3239;
993.0000;0.4705;1.2981;
993.3000;0.4713;1.2934;
993.6000;0.4705;1.2887;
993.9000;0.4705;1.2910;
994.2000;0.4689;1.2863;
994.5000;0.4697;1.2910;
994.8000;0.4705;1.2934;
995.1000;0.4697;1.2981;
995.4000;0.4705;1.2981;
995.7000;0.4729;1.3028;
996.0000;0.4713;1.3028;
996.3000;0.4705;1.3028;
996.6000;0.4697;1.2981;
996.9000;0.4681;1.3051;
997.2000;0.4697;1.3121;
997.5000;0.4697;1.3239;
997.8000;0.4697;1.3239;
998.1000;0.4697;1.3215;
998.4000;0.4705;1.3192;
998.7000;0.4664;1.3051;
999.0000;0.4681;1.2957;
999.3000;0.4713;1.2887;
999.6000;0.4737;1.2957;
999.9000;0.4697;1.2910;
1000.2000;0.4737;1.2981;
1000.5000;0.4697;1.2887;
1000.8000;0.4697;1.2887;
1001.1000;0.4786;1.3075;
1001.4000;0.4705;1.2887;
1001.7000;0.4697;1.2887;
1002.0000;0.4705;1.2887;
1002.3000;0.4697;1.2863;
1002.6000;0.4705;1.2887;
1002.9000;0.4697;1.2981;
1003.2000;0.4721;1.3028;
1003.5000;0.4713;1.3098;
1003.8000;0.4721;1.3051;
1004.1000;0.4697;1.3028;
1004.4000;0.4697;1.3051;
1004.7000;0.4705;1.3051;
1005.0000;0.4721;1.3098;
1005.3000;0.4672;1.3028;
1005.6000;0.4762;1.3262;
1005.9000;0.4713;1.3075;
1006.2000;0.4705;1.3121;
1006.5000;0.4689;1.3098;
1006.8000;0.4705;1.3075;
1007.1000;0.4713;1.3051;
1007.4000;0.4786;1.3215;
1007.7000;0.4737;1.3028;
1008.0000;0.4713;1.2910;
1008.3000;0.4721;1.2863;
1008.6000;0.4705;1.2910;
1008.9000;0.4640;1.2675;
1009.2000;0.4713;1.2887;
1009.5000;0.4794;1.3145;
1009.8000;0.4697;1.3028;
1010.1000;0.4794;1.3215;
1010.4000;0.4681;1.3075;
1010.7000;0.4697;1.3145;
1011.0000;0.4729;1.3333;
1011.3000;0.4656;1.3168;
1011.6000;0.4681;1.3215;
1011.9000;0.4697;1.3192;
1012.2000;0.4689;1.3098;
1012.5000;0.4697;1.3098;
1012.8000;0.4713;1.3098;
1013.1000;0.4697;1.3028;
1013.4000;0.4754;1.3098;
1013.7000;0.4762;1.3051;
1014.0000;0.4721;1.2957;
1014.3000;0.4713;1.2957;
1014.6000;0.4689;1.2957;
1014.9000;0.4689;1.2957;
1015.2000;0.4754;1.3168;
1015.5000;0.4721;1.3051;
1015.8000;0.4705;1.2981;
1016.1000;0.4689;1.2934;
1016.4000;0.4705;1.2957;
1016.7000;0.4689;1.2957;
1017.0000;0.4705;1.2981;
1017.3000;0.4681;1.2981;
1017.6000;0.4729;1.3098;
1017.9000;0.4705;1.3075;
1018.2000;0.4705;1.3028;
1018.5000;0.4705;1.2981;
1018.8000;0.4664;1.2910;
1019.1000;0.4705;1.2957;
1019.4000;0.4697;1.2957;
1019.7000;0.4689;1.2981;
1020.0000;0.4705;1.3121;
1020.3000;0.4689;1.3051;
1020.6000;0.4689;1.3051;
1020.9000;0.4689;1.3075;
1021.2000;0.4689;1.3098;
1021.5000;0.4697;1.3121;
1021.8000;0.4681;1.3028;
1022.1000;0.4689;1.2910;
1022.4000;0.4705;1.2910;
1022.7000;0.4681;1.2934;
1023.0000;0.4689;1.2957;
1023.3000;0.4713;1.2934;
1023.6000;0.4672;1.2863;
1023.9000;0.4697;1.2863;
1024.2000;0.4713;1.2957;
1024.5000;0.4705;1.2957;
1024.8000;0.4713;1.2910;
1025.1000;0.4705;1.2887;
1025.4000;0.4705;1.2863;
1025.7000;0.4705;1.2887;
1026.0000;0.4697;1.2934;
1026.3000;0.4697;1.2934;
1026.6000;0.4697;1.3004;
1026.9000;0.4681;1.3028;
1027.2000;0.4632;1.2910;
1027.5000;0.4689;1.2981;
1027.8000;0.4705;1.3004;
1028.1000;0.4697;1.2934;
1028.4000;0.4729;1.2957;
1028.7000;0.4705;1.2910;
1029.0000;0.4689;1.2863;
1029.3000;0.4689;1.2910;
1029.6000;0.4705;1.3098;
1029.9000;0.4697;1.3098;
1030.2000;0.4697;1.3098;
1030.5000;0.4705;1.3145;
1030.8000;0.4713;1.3098;
1031.1000;0.4705;1.3028;
1031.4000;0.4689;1.2934;
1031.7000;0.4721;1.2957;
1032.0000;0.4713;1.2981;
1032.3000;0.4632;1.2793;
1032.6000;0.4656;1.2863;
1032.9000;0.4656;1.2934;
1033.2000;0.4721;1.3121;
1033.5000;0.4705;1.3028;
1033.8000;0.4713;1.3028;
1034.1000;0.4697;1.3028;
1034.4000;0.4672;1.3004;
1034.7000;0.4697;1.3075;
1035.0000;0.4713;1.3121;
1035.3000;0.4697;1.3075;
1035.6000;0.4689;1.3028;
1035.9000;0.4721;1.3051;
1036.2000;0.4721;1.2957;
1036.5000;0.4697;1.2981;
1036.8000;0.4721;1.3028;
1037.1000;0.4713;1.2981;
1037.4000;0.4746;1.3075;
1037.7000;0.4697;1.3051;
1038.0000;0.4697;1.3145;
1038.3000;0.4713;1.3145;
1038.6000;0.4713;1.3145;
1038.9000;0.4697;1.3098;
1039.2000;0.4697;1.3192;
1039.5000;0.4705;1.3239;
1039.8000;0.4705;1.3168;
1040.1000;0.4697;1.3075;
1040.4000;0.4721;1.2957;
1040.7000;0.4697;1.2816;
1041.0000;0.4721;1.2863;
1041.3000;0.4599;1.2629;
1041.6000;0.4705;1.2934;
1041.9000;0.4705;1.2887;
1042.2000;0.4705;1.2840;
1042.5000;0.4713;1.2934;
1042.8000;0.4689;1.2887;
1043.1000;0.4672;1.2840;
1043.4000;0.4689;1.2887;
1043.7000;0.4681;1.2887;
1044.0000;0.4697;1.2934;
1044.3000;0.4672;1.3028;
1044.6000;0.4697;1.3028;
1044.9000;0.4681;1.2957;
1045.2000;0.4672;1.2793;
1045.5000;0.4681;1.2746;
1045.8000;0.4689;1.2746;
1046.1000;0.4681;1.2793;
1046.4000;0.4697;1.2863;
1046.7000;0.4689;1.2910;
1047.0000;0.4681;1.2957;
1047.3000;0.4672;1.2957;
1047.6000;0.4697;1.3075;
1047.9000;0.4689;1.3075;
1048.2000;0.4689;1.3028;
1048.5000;0.4697;1.3028;
1048.8000;0.4713;1.2981;
1049.1000;0.4713;1.2934;
1049.4000;0.4697;1.2887;
1049.7000;0.4713;1.2863;
1050.0000;0.4721;1.2887;
1050.3000;0.4705;1.2816;
1050.6000;0.4705;1.2910;
1050.9000;0.4705;1.2910;
1051.2000;0.4681;1.2887;
1051.5000;0.4713;1.2934;
1051.8000;0.4697;1.2910;
1052.1000;0.4689;1.2816;
1052.4000;0.4697;1.2816;
1052.7000;0.4689;1.2769;
1053.0000;0.4689;1.2816;
1053.3000;0.4689;1.2910;
1053.6000;0.4664;1.2910;
1053.9000;0.4681;1.3004;
1054.2000;0.4713;1.3028;
1054.5000;0.4705;1.2934;
1054.8000;0.4705;1.2957;
1055.1000;0.4697;1.2957;
1055.4000;0.4689;1.2957;
1055.7000;0.4705;1.3028;
1056.0000;0.4681;1.2934;
1056.3000;0.4664;1.2863;
1056.6000;0.4689;1.2957;
1056.9000;0.4664;1.2863;
1057.2000;0.4705;1.2981;
1057.5000;0.4737;1.3004;
1057.8000;0.4705;1.3051;
1058.1000;0.4681;1.3121;
1058.4000;0.4697;1.3168;
1058.7000;0.4681;1.2981;
1059.0000;0.4697;1.3004;
1059.3000;0.4746;1.3168;
1059.6000;0.4672;1.3051;
1059.9000;0.4689;1.3075;
1060.2000;0.4697;1.3075;
1060.5000;0.4672;1.2910;
1060.8000;0.4689;1.2934;
1061.1000;0.4681;1.2887;
1061.4000;0.4664;1.2816;
1061.7000;0.4697;1.2934;
1062.0000;0.4697;1.2934;
1062.3000;0.4713;1.2910;
1062.6000;0.4689;1.2887;
1062.9000;0.4721;1.2957;
1063.2000;0.4705;1.2910;
1063.5000;0.4681;1.2863;
1063.8000;0.4689;1.2934;
1064.1000;0.4689;1.2934;
1064.4000;0.4599;1.2605;
1064.7000;0.4697;1.2840;
1065.0000;0.4681;1.2863;
1065.3000;0.4681;1.2863;
1065.6000;0.4713;1.2910;
1065.9000;0.4689;1.2910;
1066.2000;0.4664;1.2840;
1066.5000;0.4713;1.3028;
1066.8000;0.4697;1.2934;
1067.1000;0.4705;1.2934;
1067.4000;0.4664;1.2769;
1067.7000;0.4811;1.3121;
1068.0000;0.4697;1.2863;
1068.3000;0.4697;1.2934;
1068.6000;0.4713;1.3028;
1068.9000;0.4681;1.2957;
1069.2000;0.4689;1.3028;
1069.5000;0.4705;1.2957;
1069.8000;0.4705;1.3004;
1070.1000;0.4689;1.2887;
1070.4000;0.4705;1.2840;
1070.7000;0.4705;1.2887;
1071.0000;0.4762;1.3098;
1071.3000;0.4681;1.3028;
1071.6000;0.4689;1.2957;
1071.9000;0.4721;1.3121;
1072.2000;0.4681;1.3075;
1072.5000;0.4697;1.3028;
1072.8000;0.4689;1.2934;
1073.1000;0.4705;1.2957;
1073.4000;0.4713;1.2957;
1073.7000;0.4721;1.3004;
1074.0000;0.4681;1.2910;
1074.3000;0.4713;1.3051;
1074.6000;0.4689;1.2981;
1074.9000;0.4689;1.2981;
1075.2000;0.4681;1.2957;
1075.5000;0.4689;1.3028;
1075.8000;0.4697;1.2981;
1076.1000;0.4672;1.2981;
1076.4000;0.4697;1.3028;
1076.7000;0.4672;1.2910;
1077.0000;0.4705;1.2934;
1077.3000;0.4689;1.3004;
1077.6000;0.4689;1.2957;
1077.9000;0.4656;1.2957;
1078.2000;0.4721;1.3028;
1078.5000;0.4705;1.3075;
1078.8000;0.4721;1.3262;
1079.1000;0.4681;1.3051;
1079.4000;0.4697;1.3075;
1079.7000;0.4697;1.3121;
1080.0000;0.4689;1.3098;
1080.3000;0.4689;1.2981;
1080.6000;0.4697;1.3028;
1080.9000;0.4697;1.3075;
1081.2000;0.4664;1.2957;
1081.5000;0.4681;1.2957;
1081.8000;0.4681;1.2981;
1082.1000;0.4689;1.2981;
1082.4000;0.4705;1.2910;
1082.7000;0.4697;1.2863;
1083.0000;0.4721;1.2863;
1083.3000;0.4615;1.2629;
1083.6000;0.4705;1.2816;
1083.9000;0.4713;1.2840;
1084.2000;0.4681;1.2840;
1084.5000;0.4689;1.2910;
1084.8000;0.4721;1.3004;
1085.1000;0.4705;1.2981;
1085.4000;0.4729;1.3004;
1085.7000;0.4762;1.3098;
1086.0000;0.4672;1.2840;
1086.3000;0.4705;1.2934;
1086.6000;0.4705;1.3004;
1086.9000;0.4681;1.3028;
1087.2000;0.4705;1.3075;
1087.5000;0.4713;1.3121;
1087.8000;0.4697;1.3028;
1088.1000;0.4689;1.2981;
1088.4000;0.4705;1.2934;
1088.7000;0.4689;1.2863;
1089.0000;0.4713;1.2887;
1089.3000;0.4697;1.2887;
1089.6000;0.4697;1.2934;
1089.9000;0.4705;1.2981;
1090.2000;0.4713;1.3004;
1090.5000;0.4697;1.2981;
1090.8000;0.4689;1.2934;
1091.1000;0.4697;1.2863;
1091.4000;0.4705;1.2840;
1091.7000;0.4689;1.2863;
1092.0000;0.4705;1.2816;
1092.3000;0.4705;1.2887;
1092.6000;0.4697;1.2816;
1092.9000;0.4705;1.2863;
1093.2000;0.4681;1.2816;
1093.5000;0.4721;1.3004;
1093.8000;0.4697;1.2957;
1094.1000;0.4713;1.2957;
1094.4000;0.4681;1.2910;
1094.7000;0.4632;1.2793;
1095.0000;0.4729;1.3004;
1095.3000;0.4672;1.2910;
1095.6000;0.4689;1.2981;
1095.9000;0.4689;1.3028;
1096.2000;0.4697;1.3051;
1096.5000;0.4713;1.3098;
1096.8000;0.4729;1.3192;
1097.1000;0.4681;1.3028;
1097.4000;0.4689;1.3028;
1097.7000;0.4705;1.3051;
1098.0000;0.4697;1.2887;
1098.3000;0.4681;1.2863;
1098.6000;0.4632;1.2722;
1098.9000;0.4664;1.2816;
1099.2000;0.4689;1.2840;
1099.5000;0.4697;1.2910;
1099.8000;0.4689;1.2910;
1100.1000;0.4713;1.2910;
1100.4000;0.4697;1.2816;
1100.7000;0.4697;1.2816;
1101.0000;0.4697;1.2887;
1101.3000;0.4697;1.2981;
1101.6000;0.4689;1.3051;
1101.9000;0.4689;1.3098;
1102.2000;0.4762;1.3215;
1102.5000;0.4689;1.3098;
1102.8000;0.4681;1.3075;
1103.1000;0.4689;1.3051;
1103.4000;0.4672;1.2981;
1103.7000;0.4705;1.3004;
1104.0000;0.4819;1.3427;
1104.3000;0.4794;1.3333;
1104.6000;0.4729;1.3145;
1104.9000;0.4689;1.2957;
1105.2000;0.4664;1.2957;
1105.5000;0.4599;1.2652;
1105.8000;0.4737;1.3028;
1106.1000;0.4689;1.2816;
1106.4000;0.4705;1.2816;
1106.7000;0.4705;1.2887;
1107.0000;0.4648;1.2722;
1107.3000;0.4697;1.2840;
1107.6000;0.4681;1.2863;
1107.9000;0.4713;1.2934;
1108.2000;0.4713;1.2816;
1108.5000;0.4713;1.2769;
1108.8000;0.4672;1.2746;
1109.1000;0.4705;1.2934;
1109.4000;0.4705;1.2957;
1109.7000;0.4705;1.2840;
1110.0000;0.4689;1.2746;
1110.3000;0.4681;1.2816;
1110.6000;0.4705;1.2816;
1110.9000;0.4705;1.2863;
1111.2000;0.4697;1.2863;
1111.5000;0.4697;1.2957;
1111.8000;0.4672;1.2910;
1112.1000;0.4689;1.2887;
1112.4000;0.4697;1.2934;
1112.7000;0.4689;1.2934;
1113.0000;0.4705;1.3004;
1113.3000;0.4705;1.3051;
1113.6000;0.4705;1.3075;
1113.9000;0.4672;1.3004;
1114.2000;0.4689;1.3051;
1114.5000;0.4689;1.2981;
1114.8000;0.4697;1.2981;
1115.1000;0.4697;1.2840;
1115.4000;0.4689;1.2887;
1115.7000;0.4681;1.2910;
1116.0000;0.4681;1.2887;
1116.3000;0.4681;1.2840;
1116.6000;0.4754;1.3051;
1116.9000;0.4705;1.2863;
1117.2000;0.4697;1.2840;
1117.5000;0.4746;1.3051;
1117.8000;0.4705;1.2910;
1118.1000;0.4632;1.2722;
1118.4000;0.4681;1.2863;
1118.7000;0.4697;1.2863;
1119.0000;0.4672;1.2863;
1119.3000;0.4681;1.2887;
1119.6000;0.4640;1.2746;
1119.9000;0.4697;1.2910;
1120.2000;0.4689;1.2887;
1120.5000;0.4607;1.2629;
1120.8000;0.4705;1.2957;
1121.1000;0.4697;1.2957;
1121.4000;0.4697;1.2981;
1121.7000;0.4705;1.3098;
1122.0000;0.4705;1.3075;
1122.3000;0.4705;1.3075;
1122.6000;0.4664;1.3075;
1122.9000;0.4689;1.3051;
1123.2000;0.4672;1.2957;
1123.5000;0.4689;1.3004;
1123.8000;0.4705;1.2981;
1124.1000;0.4615;1.2675;
1124.4000;0.4681;1.2910;
1124.7000;0.4697;1.2981;
1125.0000;0.4681;1.2934;
1125.3000;0.4681;1.2887;
1125.6000;0.4681;1.2934;
1125.9000;0.4664;1.2840;
1126.2000;0.4697;1.2863;
1126.5000;0.4705;1.2816;
1126.8000;0.4697;1.2816;
1127.1000;0.4689;1.2793;
1127.4000;0.4705;1.2840;
1127.7000;0.4697;1.2793;
1128.0000;0.4664;1.2746;
1128.3000;0.4746;1.3051;
1128.6000;0.4705;1.2957;
1128.9000;0.4705;1.2957;
1129.2000;0.4689;1.2863;
1129.5000;0.4648;1.2722;
1129.8000;0.4681;1.2816;
1130.1000;0.4697;1.2863;
1130.4000;0.4648;1.2722;
1130.7000;0.4681;1.2816;
1131.0000;0.4672;1.2840;
1131.3000;0.4697;1.2981;
1131.6000;0.4689;1.3004;
1131.9000;0.4681;1.3028;
1132.2000;0.4689;1.3028;
1132.5000;0.4697;1.3051;
1132.8000;0.4689;1.3028;
1133.1000;0.4705;1.3075;
1133.4000;0.4624;1.2840;
1133.7000;0.4697;1.3004;
1134.0000;0.4697;1.2934;
1134.3000;0.4689;1.2840;
1134.6000;0.4705;1.2887;
1134.9000;0.4705;1.2910;
1135.2000;0.4705;1.2863;
1135.5000;0.4705;1.2840;
1135.8000;0.4697;1.2887;
1136.1000;0.4713;1.2863;
1136.4000;0.4778;1.3075;
1136.7000;0.4697;1.2910;
1137.0000;0.4672;1.2840;
1137.3000;0.4672;1.2863;
1137.6000;0.4672;1.2863;
1137.9000;0.4681;1.2934;
1138.2000;0.4697;1.2981;
1138.5000;0.4705;1.3004;
1138.8000;0.4697;1.2910;
1139.1000;0.4697;1.2934;
1139.4000;0.4681;1.2887;
1139.7000;0.4681;1.2934;
1140.0000;0.4705;1.3028;
1140.3000;0.4697;1.2957;
1140.6000;0.4681;1.2887;
1140.9000;0.4729;1.2934;
1141.2000;0.4697;1.2769;
1141.5000;0.4689;1.2816;
1141.8000;0.4681;1.2934;
1142.1000;0.4591;1.2652;
1142.4000;0.4705;1.2957;
1142.7000;0.4713;1.2957;
1143.0000;0.4656;1.2863;
1143.3000;0.4729;1.3028;
1143.6000;0.4672;1.2887;
1143.9000;0.4705;1.2910;
1144.2000;0.4705;1.2863;
1144.5000;0.4713;1.2863;
1144.8000;0.4705;1.2910;
1145.1000;0.4689;1.2957;
1145.4000;0.4697;1.3004;
1145.7000;0.4713;1.3028;
1146.0000;0.4681;1.2910;
1146.3000;0.4681;1.2910;
1146.6000;0.4689;1.2957;
1146.9000;0.4689;1.2934;
1147.2000;0.4705;1.2957;
1147.5000;0.4705;1.2887;
1147.8000;0.4705;1.2863;
1148.1000;0.4705;1.2863;
1148.4000;0.4697;1.2863;
1148.7000;0.4705;1.2769;
1149.0000;0.4656;1.2722;
1149.3000;0.4689;1.2793;
1149.6000;0.4705;1.2746;
1149.9000;0.4664;1.2605;
1150.2000;0.4632;1.2535;
1150.5000;0.4737;1.2699;
1150.8000;0.4827;1.2981;
1151.1000;0.4697;1.2675;
1151.4000;0.4672;1.2629;
1151.7000;0.4689;1.2746;
1152.0000;0.4697;1.2816;
1152.3000;0.4664;1.2816;
1152.6000;0.4689;1.2957;
1152.9000;0.4689;1.3004;
1153.2000;0.4689;1.3028;
1153.5000;0.4705;1.3098;
1153.8000;0.4681;1.3051;
1154.1000;0.4672;1.2934;
1154.4000;0.4697;1.3098;
1154.7000;0.4713;1.3075;
1155.0000;0.4681;1.3004;
1155.3000;0.4672;1.2981;
1155.6000;0.4689;1.3051;
1155.9000;0.4689;1.3098;
1156.2000;0.4689;1.3121;
1156.5000;0.4689;1.3004;
1156.8000;0.4697;1.2981;
1157.1000;0.4705;1.3004;
1157.4000;0.4705;1.2981;
1157.7000;0.4697;1.2934;
1158.0000;0.4689;1.3051;
1158.3000;0.4746;1.3192;
1158.6000;0.4705;1.2957;
1158.9000;0.4762;1.3145;
1159.2000;0.4632;1.2887;
1159.5000;0.4689;1.3075;
1159.8000;0.4705;1.3098;
1160.1000;0.4689;1.2981;
1160.4000;0.4689;1.2981;
1160.7000;0.4664;1.3028;
1161.0000;0.4689;1.2934;
1161.3000;0.4681;1.2887;
1161.6000;0.4656;1.2910;
1161.9000;0.4697;1.2957;
1162.2000;0.4648;1.2934;
1162.5000;0.4705;1.3051;
1162.8000;0.4697;1.2957;
1163.1000;0.4689;1.3004;
1163.4000;0.4689;1.2981;
1163.7000;0.4681;1.3004;
1164.0000;0.4746;1.3121;
1164.3000;0.4721;1.3004;
1164.6000;0.4681;1.2887;
1164.9000;0.4697;1.2981;
1165.2000;0.4803;1.3239;
1165.5000;0.4672;1.2957;
1165.8000;0.4681;1.2981;
1166.1000;0.4681;1.3145;
1166.4000;0.4624;1.3004;
1166.7000;0.4591;1.2934;
1167.0000;0.4681;1.3121;
1167.3000;0.4705;1.3098;
1167.6000;0.4729;1.3168;
1167.9000;0.4689;1.3051;
1168.2000;0.4737;1.3121;
1168.5000;0.4705;1.3004;
1168.8000;0.4689;1.3028;
1169.1000;0.4697;1.3028;
1169.4000;0.4681;1.3004;
1169.7000;0.4697;1.3098;
1170.0000;0.4689;1.3168;
1170.3000;0.4697;1.3262;
1170.6000;0.4827;1.3591;
1170.9000;0.4672;1.3192;
1171.2000;0.4713;1.3262;
1171.5000;0.4705;1.3192;
1171.8000;0.4705;1.3239;
1172.1000;0.4697;1.3192;
1172.4000;0.4697;1.3168;
1172.7000;0.4697;1.3098;
1173.0000;0.4705;1.3075;
1173.3000;0.4681;1.3028;
1173.6000;0.4697;1.3028;
1173.9000;0.4697;1.3004;
1174.2000;0.4697;1.2981;
1174.5000;0.4689;1.2957;
1174.8000;0.4697;1.3004;
1175.1000;0.4705;1.3028;
1175.4000;0.4729;1.3121;
1175.7000;0.4672;1.3028;
1176.0000;0.4681;1.3028;
1176.3000;0.4681;1.2981;
1176.6000;0.4697;1.2981;
1176.9000;0.4689;1.2934;
1177.2000;0.4689;1.3028;
1177.5000;0.4689;1.3098;
1177.8000;0.4681;1.3051;
1178.1000;0.4681;1.3004;
1178.4000;0.4681;1.2934;
1178.7000;0.4656;1.2863;
1179.0000;0.4689;1.2910;
1179.3000;0.4656;1.2910;
1179.6000;0.4672;1.2981;
1179.9000;0.4697;1.3004;
1180.2000;0.4689;1.3051;
1180.5000;0.4705;1.3051;
1180.8000;0.4689;1.2957;
1181.1000;0.4689;1.3004;
1181.4000;0.4697;1.3004;
1181.7000;0.4632;1.2887;
1182.0000;0.4681;1.2981;
1182.3000;0.4689;1.2957;
1182.6000;0.4681;1.3004;
1182.9000;0.4697;1.3004;
1183.2000;0.4721;1.3028;
1183.5000;0.4697;1.3004;
1183.8000;0.4697;1.3004;
1184.1000;0.4689;1.2957;
1184.4000;0.4697;1.2957;
1184.7000;0.4705;1.3028;
1185.0000;0.4681;1.2887;
1185.3000;0.4689;1.3004;
1185.6000;0.4697;1.3051;
1185.9000;0.4705;1.3004;
1186.2000;0.4689;1.2981;
1186.5000;0.4689;1.2981;
1186.8000;0.4697;1.3051;
1187.1000;0.4689;1.3075;
1187.4000;0.4697;1.3004;
1187.7000;0.4697;1.3028;
1188.0000;0.4713;1.3051;
1188.3000;0.4697;1.3004;
1188.6000;0.4689;1.3004;
1188.9000;0.4697;1.2981;
1189.2000;0.4681;1.2934;
1189.5000;0.4697;1.2957;
1189.8000;0.4681;1.2981;
1190.1000;0.4656;1.3028;
1190.4000;0.4656;1.3028;
1190.7000;0.4681;1.3121;
1191.0000;0.4713;1.3239;
1191.3000;0.4689;1.3192;
1191.6000;0.4705;1.3215;
1191.9000;0.4672;1.3121;
1192.2000;0.4697;1.3192;
1192.5000;0.4689;1.3145;
1192.8000;0.4705;1.3192;
1193.1000;0.4681;1.3051;
1193.4000;0.4713;1.3051;
1193.7000;0.4705;1.2981;
1194.0000;0.4697;1.3004;
1194.3000;0.4705;1.3004;
1194.6000;0.4689;1.2957;
1194.9000;0.4803;1.3286;
1195.2000;0.4681;1.3051;
1195.5000;0.4681;1.3075;
1195.8000;0.4689;1.3121;
1196.1000;0.4648;1.2910;
1196.4000;0.4681;1.3004;
1196.7000;0.4689;1.2981;
1197.0000;0.4681;1.3028;
1197.3000;0.4697;1.3075;
1197.6000;0.4697;1.3215;
1197.9000;0.4705;1.3286;
1198.2000;0.4672;1.3239;
1198.5000;0.4705;1.3192;
1198.8000;0.4705;1.3215;
1199.1000;0.4672;1.3145;
1199.4000;0.4681;1.3098;
1199.7000;0.4689;1.3004;
1200.0000;0.4672;1.3028;
1200.3000;0.4689;1.3028;
1200.6000;0.4689;1.3075;
1200.9000;0.4656;1.3075;
1201.2000;0.4656;1.3121;
1201.5000;0.4664;1.3192;
1201.8000;0.4648;1.3168;
1202.1000;0.4672;1.3262;
1202.4000;0.4681;1.3286;
1202.7000;0.4705;1.3333;
1203.0000;0.4713;1.3286;
1203.3000;0.4689;1.3286;
1203.6000;0.4713;1.3403;
1203.9000;0.4689;1.3380;
1204.2000;0.4689;1.3168;
1204.5000;0.4713;1.3239;
1204.8000;0.4689;1.3215;
1205.1000;0.4705;1.3215;
1205.4000;0.4640;1.3075;
1205.7000;0.4664;1.3168;
1206.0000;0.4697;1.3239;
1206.3000;0.4697;1.3145;
1206.6000;0.4689;1.3168;
1206.9000;0.4632;1.3028;
1207.2000;0.4681;1.3145;
1207.5000;0.4689;1.3215;
1207.8000;0.4640;1.3098;
1208.1000;0.4697;1.3239;
1208.4000;0.4697;1.3239;
1208.7000;0.4681;1.3262;
1209.0000;0.4713;1.3192;
1209.3000;0.4672;1.3121;
1209.6000;0.4689;1.3121;
1209.9000;0.4681;1.3192;
1210.2000;0.4697;1.3145;
1210.5000;0.4689;1.3098;
1210.8000;0.4689;1.3121;
1211.1000;0.4672;1.3145;
1211.4000;0.4689;1.3121;
1211.7000;0.4697;1.3121;
1212.0000;0.4794;1.3403;
1212.3000;0.4697;1.3075;
1212.6000;0.4672;1.3028;
1212.9000;0.4697;1.3098;
1213.2000;0.4664;1.3098;
1213.5000;0.4648;1.3075;
1213.8000;0.4697;1.3145;
1214.1000;0.4705;1.3145;
1214.4000;0.4705;1.3051;
1214.7000;0.4656;1.2981;
1215.0000;0.4697;1.3168;
1215.3000;0.4697;1.3145;
1215.6000;0.4681;1.3075;
1215.9000;0.4689;1.3098;
1216.2000;0.4713;1.3098;
1216.5000;0.4713;1.3075;
1216.8000;0.4599;1.2910;
1217.1000;0.4689;1.3168;
1217.4000;0.4697;1.3098;
1217.7000;0.4697;1.3051;
1218.0000;0.4705;1.3145;
1218.3000;0.4689;1.3121;
1218.6000;0.4689;1.3075;
1218.9000;0.4689;1.3098;
1219.2000;0.4713;1.3121;
1219.5000;0.4681;1.3098;
1219.8000;0.4640;1.2957;
1220.1000;0.4681;1.3098;
1220.4000;0.4721;1.3145;
1220.7000;0.4746;1.3145;
1221.0000;0.4697;1.3075;
1221.3000;0.4697;1.3098;
1221.6000;0.4689;1.3098;
1221.9000;0.4689;1.3145;
1222.2000;0.4713;1.3239;
1222.5000;0.4697;1.3121;
1222.8000;0.4689;1.3028;
1223.1000;0.4672;1.3028;
1223.4000;0.4672;1.3004;
1223.7000;0.4681;1.2957;
1224.0000;0.4681;1.2863;
1224.3000;0.4567;1.2629;
1224.6000;0.4681;1.2981;
1224.9000;0.4681;1.3121;
1225.2000;0.4681;1.3098;
1225.5000;0.4689;1.3145;
1225.8000;0.4705;1.3145;
1226.1000;0.4697;1.3075;
1226.4000;0.4697;1.3051;
1226.7000;0.4689;1.3098;
1227.0000;0.4689;1.3145;
1227.3000;0.4681;1.3028;
1227.6000;0.4705;1.3075;
1227.9000;0.4672;1.2981;
1228.2000;0.4689;1.3028;
1228.5000;0.4697;1.3028;
1228.8000;0.4672;1.2957;
1229.1000;0.4697;1.2957;
1229.4000;0.4721;1.3028;
1229.7000;0.4697;1.2934;
1230.0000;0.4697;1.2887;
1230.3000;0.4689;1.2910;
1230.6000;0.4697;1.2934;
1230.9000;0.4762;1.3051;
1231.2000;0.4607;1.2675;
1231.5000;0.4697;1.2910;
1231.8000;0.4697;1.3028;
1232.1000;0.4705;1.3004;
1232.4000;0.4689;1.2934;
1232.7000;0.4648;1.2863;
1233.0000;0.4697;1.2957;
1233.3000;0.4689;1.3051;
1233.6000;0.4689;1.3098;
1233.9000;0.4713;1.3239;
1234.2000;0.4697;1.3168;
1234.5000;0.4599;1.2887;
1234.8000;0.4689;1.3168;
1235.1000;0.4689;1.3075;
1235.4000;0.4697;1.3121;
1235.7000;0.4705;1.3145;
1236.0000;0.4681;1.3075;
1236.3000;0.4681;1.3145;
1236.6000;0.4689;1.3168;
1236.9000;0.4697;1.3145;
1237.2000;0.4615;1.2910;
1237.5000;0.4778;1.3333;
1237.8000;0.4575;1.2840;
1238.1000;0.4689;1.3004;
1238.4000;0.4689;1.2981;
1238.7000;0.4737;1.3098;
1239.0000;0.4689;1.3004;
1239.3000;0.4697;1.2957;
1239.6000;0.4697;1.2957;
1239.9000;0.4689;1.2957;
1240.2000;0.4713;1.2863;
1240.5000;0.4697;1.2840;
1240.8000;0.4705;1.2910;
1241.1000;0.4697;1.3004;
1241.4000;0.4697;1.2957;
1241.7000;0.4607;1.2746;
1242.0000;0.4697;1.2887;
1242.3000;0.4705;1.2887;
1242.6000;0.4705;1.3004;
1242.9000;0.4754;1.3215;
1243.2000;0.4681;1.3098;
1243.5000;0.4689;1.3121;
1243.8000;0.4689;1.3192;
1244.1000;0.4697;1.3215;
1244.4000;0.4664;1.3121;
1244.7000;0.4681;1.3145;
1245.0000;0.4689;1.3098;
1245.3000;0.4689;1.3098;
1245.6000;0.4672;1.3075;
1245.9000;0.4672;1.3168;
1246.2000;0.4672;1.3168;
1246.5000;0.4672;1.3168;
1246.8000;0.4664;1.3075;
1247.1000;0.4705;1.3145;
1247.4000;0.4697;1.3121;
1247.7000;0.4697;1.3098;
1248.0000;0.4689;1.3168;
1248.3000;0.4697;1.3239;
1248.6000;0.4697;1.3121;
1248.9000;0.4705;1.3168;
1249.2000;0.4697;1.3121;
1249.5000;0.4664;1.3004;
1249.8000;0.4697;1.3121;
1250.1000;0.4746;1.3286;
1250.4000;0.4697;1.3145;
1250.7000;0.4689;1.3098;
1251.0000;0.4681;1.3168;
1251.3000;0.4681;1.3239;
1251.6000;0.4672;1.3262;
1251.9000;0.4754;1.3450;
1252.2000;0.4697;1.3262;
1252.5000;0.4681;1.3215;
1252.8000;0.4697;1.3215;
1253.1000;0.4786;1.3380;
1253.4000;0.4705;1.3051;
1253.7000;0.4713;1.3075;
1254.0000;0.4689;1.3075;
1254.3000;0.4721;1.3145;
1254.6000;0.4681;1.2957;
1254.9000;0.4689;1.2910;
1255.2000;0.4689;1.2957;
1255.5000;0.4697;1.2981;
1255.8000;0.4689;1.3004;
1256.1000;0.4697;1.3051;
1256.4000;0.4689;1.3051;
1256.7000;0.4697;1.3028;
1257.0000;0.4664;1.3028;
1257.3000;0.4656;1.3004;
1257.6000;0.4681;1.3004;
1257.9000;0.4664;1.2981;
1258.2000;0.4656;1.2934;
1258.5000;0.4672;1.3004;
1258.8000;0.4656;1.2863;
1259.1000;0.4664;1.3004;
1259.4000;0.4689;1.3075;
1259.7000;0.4697;1.3051;
1260.0000;0.4656;1.2957;
1260.3000;0.4689;1.3028;
1260.6000;0.4681;1.2981;
1260.9000;0.4640;1.2840;
1261.2000;0.4681;1.2957;
1261.5000;0.4689;1.2981;
1261.8000;0.4770;1.3215;
1262.1000;0.4689;1.3145;
1262.4000;0.4689;1.3075;
1262.7000;0.4697;1.3051;
1263.0000;0.4729;1.3262;
1263.3000;0.4697;1.3098;
1263.6000;0.4672;1.2934;
1263.9000;0.4664;1.2981;
1264.2000;0.4697;1.3028;
1264.5000;0.4689;1.3028;
1264.8000;0.4697;1.3004;
1265.1000;0.4689;1.3075;
1265.4000;0.4681;1.3051;
1265.7000;0.4672;1.3098;
1266.0000;0.4681;1.3075;
1266.3000;0.4689;1.3051;
1266.6000;0.4705;1.3121;
1266.9000;0.4689;1.3075;
1267.2000;0.4689;1.3051;
1267.5000;0.4705;1.3098;
1267.8000;0.4681;1.3075;
1268.1000;0.4689;1.3028;
1268.4000;0.4681;1.3051;
1268.7000;0.4689;1.3168;
1269.0000;0.4697;1.3121;
1269.3000;0.4689;1.3075;
1269.6000;0.4770;1.3145;
1269.9000;0.4697;1.2957;
1270.2000;0.4681;1.2934;
1270.5000;0.4681;1.3098;
1270.8000;0.4705;1.3145;
1271.1000;0.4664;1.3075;
1271.4000;0.4689;1.3239;
1271.7000;0.4681;1.3333;
1272.0000;0.4713;1.3450;
1272.3000;0.4689;1.3333;
1272.6000;0.4689;1.3427;
1272.9000;0.4697;1.3356;
1273.2000;0.4664;1.3168;
1273.5000;0.4681;1.3192;
1273.8000;0.4681;1.3051;
1274.1000;0.4746;1.3192;
1274.4000;0.4689;1.3145;
1274.7000;0.4697;1.3121;
1275.0000;0.4721;1.3192;
1275.3000;0.4713;1.3239;
1275.6000;0.4689;1.3098;
1275.9000;0.4697;1.3098;
1276.2000;0.4664;1.2887;
1276.5000;0.4656;1.2887;
1276.8000;0.4607;1.2675;
1277.1000;0.4697;1.2887;
1277.4000;0.4681;1.2840;
1277.7000;0.4681;1.2793;
1278.0000;0.4697;1.2887;
1278.3000;0.4689;1.2816;
1278.6000;0.4689;1.2840;
1278.9000;0.4689;1.2910;
1279.2000;0.4681;1.3028;
1279.5000;0.4705;1.3098;
1279.8000;0.4681;1.3098;
1280.1000;0.4705;1.3239;
1280.4000;0.4697;1.3262;
1280.7000;0.4713;1.3262;
1281.0000;0.4689;1.3262;
1281.3000;0.4664;1.3239;
1281.6000;0.4599;1.3075;
1281.9000;0.4664;1.3121;
1282.2000;0.4672;1.3168;
1282.5000;0.4681;1.3192;
1282.8000;0.4681;1.3098;
1283.1000;0.4697;1.3098;
1283.4000;0.4697;1.3121;
1283.7000;0.4721;1.3098;
1284.0000;0.4672;1.3028;
1284.3000;0.4664;1.3004;
1284.6000;0.4689;1.3051;
1284.9000;0.4754;1.3215;
1285.2000;0.4697;1.2934;
1285.5000;0.4681;1.2887;
1285.8000;0.4672;1.2957;
1286.1000;0.4681;1.3028;
1286.4000;0.4689;1.3098;
1286.7000;0.4697;1.3098;
1287.0000;0.4615;1.2887;
1287.3000;0.4672;1.3098;
1287.6000;0.4697;1.3121;
1287.9000;0.4689;1.3028;
1288.2000;0.4681;1.3028;
1288.5000;0.4681;1.3004;
1288.8000;0.4681;1.3004;
1289.1000;0.4697;1.3051;
1289.4000;0.4697;1.2981;
1289.7000;0.4672;1.2981;
1290.0000;0.4697;1.3028;
1290.3000;0.4697;1.2981;
1290.6000;0.4681;1.2957;
1290.9000;0.4689;1.2957;
1291.2000;0.4705;1.3004;
1291.5000;0.4705;1.3004;
1291.8000;0.4672;1.2981;
1292.1000;0.4681;1.3098;
1292.4000;0.4697;1.3121;
1292.7000;0.4705;1.3168;
1293.0000;0.4697;1.3121;
1293.3000;0.4672;1.3075;
1293.6000;0.4681;1.3075;
1293.9000;0.4681;1.3121;
1294.2000;0.4705;1.3215;
1294.5000;0.4672;1.3121;
1294.8000;0.4681;1.3192;
1295.1000;0.4656;1.3098;
1295.4000;0.4672;1.3028;
1295.7000;0.4681;1.3075;
1296.0000;0.4713;1.3075;
1296.3000;0.4672;1.3098;
1296.6000;0.4697;1.3192;
1296.9000;0.4664;1.3168;
1297.2000;0.4721;1.3215;
1297.5000;0.4689;1.3121;
1297.8000;0.4681;1.3145;
1298.1000;0.4664;1.3145;
1298.4000;0.4672;1.3215;
1298.7000;0.4689;1.3239;
1299.0000;0.4697;1.3192;
1299.3000;0.4729;1.3262;
1299.6000;0.4681;1.3098;
1299.9000;0.4672;1.3028;
1300.2000;0.4648;1.2981;
1300.5000;0.4697;1.3098;
1300.8000;0.4689;1.3051;
1301.1000;0.4681;1.3075;
1301.4000;0.4697;1.3121;
1301.7000;0.4729;1.3215;
1302.0000;0.4697;1.3262;
1302.3000;0.4672;1.3192;
1302.6000;0.4672;1.3239;
1302.9000;0.4681;1.3192;
1303.2000;0.4681;1.3121;
1303.5000;0.4681;1.3028;
1303.8000;0.4681;1.3004;
1304.1000;0.4689;1.3098;
1304.4000;0.4689;1.3121;
1304.7000;0.4689;1.3192;
1305.0000;0.4681;1.3121;
1305.3000;0.4672;1.3121;
1305.6000;0.4689;1.3121;
1305.9000;0.4697;1.3051;
1306.2000;0.4689;1.3051;
1306.5000;0.4689;1.3098;
1306.8000;0.4721;1.3121;
1307.1000;0.4705;1.3098;
1307.4000;0.4689;1.3051;
1307.7000;0.4697;1.2957;
1308.0000;0.4697;1.2934;
1308.3000;0.4689;1.3004;
1308.6000;0.4689;1.2957;
1308.9000;0.4681;1.2934;
1309.2000;0.4664;1.2910;
1309.5000;0.4697;1.3028;
1309.8000;0.4803;1.3333;
1310.1000;0.4705;1.3004;
1310.4000;0.4681;1.2887;
1310.7000;0.4689;1.2910;
1311.0000;0.4689;1.2957;
1311.3000;0.4681;1.2957;
1311.6000;0.4672;1.3051;
1311.9000;0.4681;1.3145;
1312.2000;0.4689;1.3145;
1312.5000;0.4689;1.3192;
1312.8000;0.4689;1.3098;
1313.1000;0.4689;1.3121;
1313.4000;0.4705;1.2981;
1313.7000;0.4737;1.3121;
1314.0000;0.4705;1.3004;
1314.3000;0.4729;1.3098;
1314.6000;0.4697;1.3028;
1314.9000;0.4689;1.3051;
1315.2000;0.4689;1.3028;
1315.5000;0.4672;1.2957;
1315.8000;0.4672;1.2957;
1316.1000;0.4681;1.2934;
1316.4000;0.4689;1.3028;
1316.7000;0.4762;1.3262;
1317.0000;0.4689;1.3168;
1317.3000;0.4697;1.3145;
1317.6000;0.4689;1.3145;
1317.9000;0.4697;1.3098;
1318.2000;0.4689;1.3121;
1318.5000;0.4705;1.3121;
1318.8000;0.4697;1.3075;
1319.1000;0.4697;1.3028;
1319.4000;0.4681;1.3028;
1319.7000;0.4754;1.3121;
1320.0000;0.4681;1.2793;
1320.3000;0.4681;1.2722;
1320.6000;0.4681;1.2699;
1320.9000;0.4705;1.2887;
1321.2000;0.4672;1.2840;
1321.5000;0.4672;1.2910;
1321.8000;0.4689;1.2934;
1322.1000;0.4681;1.3004;
1322.4000;0.4713;1.3098;
1322.7000;0.4697;1.3098;
1323.0000;0.4697;1.3028;
1323.3000;0.4689;1.2934;
1323.6000;0.4681;1.2840;
1323.9000;0.4697;1.2910;
1324.2000;0.4697;1.2887;
1324.5000;0.4697;1.2840;
1324.8000;0.4697;1.2840;
1325.1000;0.4705;1.2887;
1325.4000;0.4705;1.2887;
1325.7000;0.4681;1.2887;
1326.0000;0.4689;1.2863;
1326.3000;0.4681;1.2840;
1326.6000;0.4681;1.2840;
1326.9000;0.4737;1.3004;
1327.2000;0.4672;1.2769;
1327.5000;0.4689;1.2746;
1327.8000;0.4664;1.2652;
1328.1000;0.4689;1.2675;
1328.4000;0.4689;1.2605;
1328.7000;0.4689;1.2746;
1329.0000;0.4689;1.2746;
1329.3000;0.4681;1.2699;
1329.6000;0.4672;1.2652;
1329.9000;0.4656;1.2675;
1330.2000;0.4689;1.2816;
1330.5000;0.4689;1.2699;
1330.8000;0.4681;1.2722;
1331.1000;0.4811;1.3145;
1331.4000;0.4697;1.2793;
1331.7000;0.4681;1.2722;
1332.0000;0.4640;1.2629;
1332.3000;0.4664;1.2722;
1332.6000;0.4681;1.2769;
1332.9000;0.4697;1.2840;
1333.2000;0.4672;1.2840;
1333.5000;0.4672;1.2863;
1333.8000;0.4640;1.2793;
1334.1000;0.4689;1.2934;
1334.4000;0.4705;1.3004;
1334.7000;0.4697;1.3075;
1335.0000;0.4632;1.2816;
1335.3000;0.4689;1.2981;
1335.6000;0.4705;1.3004;
1335.9000;0.4697;1.3075;
1336.2000;0.4656;1.3051;
1336.5000;0.4681;1.3145;
1336.8000;0.4681;1.3121;
1337.1000;0.4697;1.3098;
1337.4000;0.4664;1.3028;
1337.7000;0.4689;1.3098;
1338.0000;0.4705;1.3121;
1338.3000;0.4672;1.2981;
1338.6000;0.4689;1.2981;
1338.9000;0.4689;1.2934;
1339.2000;0.4689;1.3004;
1339.5000;0.4640;1.2863;
1339.8000;0.4697;1.2957;
1340.1000;0.4672;1.2863;
1340.4000;0.4721;1.3028;
1340.7000;0.4689;1.3028;
1341.0000;0.4697;1.3121;
1341.3000;0.4689;1.3168;
1341.6000;0.4681;1.3145;
1341.9000;0.4689;1.3215;
1342.2000;0.4681;1.3075;
1342.5000;0.4664;1.2981;
1342.8000;0.4672;1.3004;
1343.1000;0.4705;1.3051;
1343.4000;0.4689;1.3145;
1343.7000;0.4697;1.3121;
1344.0000;0.4689;1.3192;
1344.3000;0.4681;1.3215;
1344.6000;0.4689;1.3262;
1344.9000;0.4681;1.3262;
1345.2000;0.4689;1.3192;
1345.5000;0.4697;1.3168;
1345.8000;0.4713;1.3215;
1346.1000;0.4705;1.3168;
1346.4000;0.4681;1.3145;
1346.7000;0.4689;1.3192;
1347.0000;0.4681;1.3215;
1347.3000;0.4713;1.3192;
1347.6000;0.4689;1.3168;
1347.9000;0.4705;1.3192;
1348.2000;0.4681;1.3192;
1348.5000;0.4697;1.3145;
1348.8000;0.4672;1.3004;
1349.1000;0.4697;1.3051;
1349.4000;0.4681;1.3098;
1349.7000;0.4648;1.3028;
1350.0000;0.4664;1.3098;
1350.3000;0.4697;1.3145;
1350.6000;0.4689;1.3168;
1350.9000;0.4697;1.3262;
1351.2000;0.4705;1.3286;
1351.5000;0.4681;1.3262;
1351.8000;0.4672;1.3192;
1352.1000;0.4729;1.3309;
1352.4000;0.4664;1.3098;
1352.7000;0.4672;1.3098;
1353.0000;0.4697;1.3121;
1353.3000;0.4689;1.3192;
1353.6000;0.4681;1.3239;
1353.9000;0.4729;1.3450;
1354.2000;0.4689;1.3380;
1354.5000;0.4689;1.3380;
1354.8000;0.4697;1.3356;
1355.1000;0.4664;1.3286;
1355.4000;0.4689;1.3286;
1355.7000;0.4583;1.2957;
1356.0000;0.4697;1.3239;
1356.3000;0.4713;1.3333;
1356.6000;0.4697;1.3333;
1356.9000;0.4681;1.3239;
1357.2000;0.4656;1.3168;
1357.5000;0.4697;1.3239;
1357.8000;0.4697;1.3239;
1358.1000;0.4689;1.3192;
1358.4000;0.4672;1.3192;
1358.7000;0.4778;1.3427;
1359.0000;0.4737;1.3239;
1359.3000;0.4672;1.3075;
1359.6000;0.4681;1.3075;
1359.9000;0.4681;1.3004;
1360.2000;0.4697;1.3004;
1360.5000;0.4681;1.3028;
1360.8000;0.4705;1.3121;
1361.1000;0.4689;1.3192;
1361.4000;0.4705;1.3239;
1361.7000;0.4689;1.3215;
1362.0000;0.4705;1.3262;
1362.3000;0.4672;1.3192;
1362.6000;0.4689;1.3215;
1362.9000;0.4697;1.3192;
1363.2000;0.4705;1.3098;
1363.5000;0.4697;1.3098;
1363.8000;0.4583;1.2793;
1364.1000;0.4689;1.3028;
1364.4000;0.4648;1.2957;
1364.7000;0.4640;1.3004;
1365.0000;0.4681;1.3121;
1365.3000;0.4705;1.3286;
1365.6000;0.4681;1.3239;
1365.9000;0.4681;1.3286;
1366.2000;0.4689;1.3309;
1366.5000;0.4697;1.3286;
1366.8000;0.4689;1.3262;
1367.1000;0.4672;1.3215;
1367.4000;0.4681;1.3192;
1367.7000;0.4689;1.3145;
1368.0000;0.4664;1.3028;
1368.3000;0.4615;1.2840;
1368.6000;0.4737;1.3168;
1368.9000;0.4664;1.3028;
1369.2000;0.4713;1.3333;
1369.5000;0.4672;1.3309;
1369.8000;0.4672;1.3262;
1370.1000;0.4648;1.3121;
1370.4000;0.4689;1.3215;
1370.7000;0.4681;1.3121;
1371.0000;0.4664;1.3145;
1371.3000;0.4656;1.3098;
1371.6000;0.4697;1.3192;
1371.9000;0.4681;1.3145;
1372.2000;0.4681;1.3145;
1372.5000;0.4697;1.3192;
1372.8000;0.4697;1.3192;
1373.1000;0.4697;1.3145;
1373.4000;0.4672;1.3098;
1373.7000;0.4672;1.3121;
1374.0000;0.4689;1.3121;
1374.3000;0.4705;1.3239;
1374.6000;0.4713;1.3262;
1374.9000;0.4689;1.3215;
1375.2000;0.4681;1.3239;
1375.5000;0.4697;1.3215;
1375.8000;0.4697;1.3239;
1376.1000;0.4672;1.3192;
1376.4000;0.4664;1.3098;
1376.7000;0.4697;1.3121;
1377.0000;0.4664;1.2981;
1377.3000;0.4672;1.3075;
1377.6000;0.4672;1.3168;
1377.9000;0.4697;1.3239;
1378.2000;0.4648;1.3075;
1378.5000;0.4681;1.3215;
1378.8000;0.4697;1.3215;
1379.1000;0.4672;1.3168;
1379.4000;0.4672;1.3168;
1379.7000;0.4664;1.3075;
1380.0000;0.4689;1.3075;
1380.3000;0.4689;1.3145;
1380.6000;0.4672;1.3121;
1380.9000;0.4697;1.3075;
1381.2000;0.4681;1.3028;
1381.5000;0.4689;1.3075;
1381.8000;0.4705;1.3075;
1382.1000;0.4713;1.3075;
1382.4000;0.4681;1.3004;
1382.7000;0.4681;1.2981;
1383.0000;0.4697;1.3098;
1383.3000;0.4672;1.3075;
1383.6000;0.4705;1.3098;
1383.9000;0.4689;1.3098;
1384.2000;0.4770;1.3427;
1384.5000;0.4672;1.3215;
1384.8000;0.4697;1.3262;
1385.1000;0.4632;1.3051;
1385.4000;0.4697;1.3286;
1385.7000;0.4648;1.3145;
1386.0000;0.4713;1.3215;
1386.3000;0.4746;1.3239;
1386.6000;0.4689;1.3004;
1386.9000;0.4689;1.2981;
1387.2000;0.4705;1.2934;
1387.5000;0.4689;1.2816;
1387.8000;0.4681;1.2722;
1388.1000;0.4713;1.2769;
1388.4000;0.4713;1.2816;
1388.7000;0.4721;1.2863;
1389.0000;0.4697;1.2816;
1389.3000;0.4689;1.2863;
1389.6000;0.4624;1.2793;
1389.9000;0.4664;1.2934;
1390.2000;0.4689;1.3028;
1390.5000;0.4689;1.2910;
1390.8000;0.4697;1.2863;
1391.1000;0.4681;1.2840;
1391.4000;0.4689;1.2934;
1391.7000;0.4672;1.2910;
1392.0000;0.4737;1.3028;
1392.3000;0.4697;1.2887;
1392.6000;0.4681;1.2887;
1392.9000;0.4705;1.2910;
1393.2000;0.4705;1.2887;
1393.5000;0.4672;1.2887;
1393.8000;0.4689;1.3051;
1394.1000;0.4689;1.3051;
1394.4000;0.4689;1.3051;
1394.7000;0.4689;1.3004;
1395.0000;0.4681;1.3004;
1395.3000;0.4689;1.2957;
1395.6000;0.4786;1.3262;
1395.9000;0.4737;1.3028;
1396.2000;0.4672;1.2910;
1396.5000;0.4583;1.2629;
1396.8000;0.4656;1.2887;
1397.1000;0.4681;1.2957;
1397.4000;0.4689;1.2957;
1397.7000;0.4681;1.2957;
1398.0000;0.4721;1.3075;
1398.3000;0.4681;1.2981;
1398.6000;0.4664;1.3075;
1398.9000;0.4681;1.3192;
1399.2000;0.4689;1.3098;
1399.5000;0.4672;1.2934;
1399.8000;0.4697;1.2910;
