time/ms;Fluo/V;P700 deltaI/I x10³;
-199.8000;0.6960;1.5704;
-199.5000;0.6984;1.5750;
-199.2000;0.7000;1.5750;
-198.9000;0.6984;1.5657;
-198.6000;0.6943;1.5539;
-198.3000;0.6984;1.5586;
-198.0000;0.6976;1.5680;
-197.7000;0.6992;1.5750;
-197.4000;0.6984;1.5750;
-197.1000;0.6992;1.5821;
-196.8000;0.6984;1.5915;
-196.5000;0.6952;1.5821;
-196.2000;0.6960;1.5750;
-195.9000;0.6984;1.5704;
-195.6000;0.6911;1.5516;
-195.3000;0.7000;1.5797;
-195.0000;0.6984;1.5750;
-194.7000;0.6984;1.5844;
-194.4000;0.6984;1.5844;
-194.1000;0.6968;1.5704;
-193.8000;0.7009;1.5891;
-193.5000;0.6976;1.5844;
-193.2000;0.6968;1.5774;
-192.9000;0.6976;1.5610;
-192.6000;0.7123;1.5938;
-192.3000;0.6984;1.5657;
-192.0000;0.6992;1.5657;
-191.7000;0.6984;1.5633;
-191.4000;0.6984;1.5727;
-191.1000;0.6992;1.5750;
-190.8000;0.6968;1.5750;
-190.5000;0.6886;1.5539;
-190.2000;0.6943;1.5704;
-189.9000;0.6976;1.5821;
-189.6000;0.6992;1.5821;
-189.3000;0.6984;1.5797;
-189.0000;0.6895;1.5586;
-188.7000;0.6968;1.5868;
-188.4000;0.7009;1.5915;
-188.1000;0.6927;1.5821;
-187.8000;0.6968;1.5938;
-187.5000;0.6960;1.5962;
-187.2000;0.7000;1.6032;
-186.9000;0.7000;1.5915;
-186.6000;0.6984;1.5868;
-186.3000;0.6968;1.5797;
-186.0000;0.6960;1.5774;
-185.7000;0.6984;1.5868;
-185.4000;0.6992;1.5844;
-185.1000;0.6960;1.5774;
-184.8000;0.6911;1.5492;
-184.5000;0.6968;1.5539;
-184.2000;0.6984;1.5539;
-183.9000;0.6960;1.5492;
-183.6000;0.7000;1.5704;
-183.3000;0.6968;1.5750;
-183.0000;0.6943;1.5750;
-182.7000;0.6952;1.5774;
-182.4000;0.6968;1.5797;
-182.1000;0.6960;1.5868;
-181.8000;0.6984;1.5938;
-181.5000;0.6984;1.5915;
-181.2000;0.7009;1.6056;
-180.9000;0.7000;1.6056;
-180.6000;0.6952;1.5915;
-180.3000;0.6968;1.5915;
-180.0000;0.6976;1.5891;
-179.7000;0.6952;1.5868;
-179.4000;0.6976;1.5891;
-179.1000;0.6968;1.5938;
-178.8000;0.6968;1.5938;
-178.5000;0.6976;1.5868;
-178.2000;0.6952;1.5797;
-177.9000;0.6976;1.5844;
-177.6000;0.6976;1.5915;
-177.3000;0.6976;1.5985;
-177.0000;0.6992;1.5962;
-176.7000;0.7017;1.6079;
-176.4000;0.6968;1.5891;
-176.1000;0.6968;1.5868;
-175.8000;0.7000;1.5985;
-175.5000;0.6984;1.5915;
-175.2000;0.7000;1.6056;
-174.9000;0.6960;1.6009;
-174.6000;0.6992;1.6150;
-174.3000;0.6976;1.6032;
-174.0000;0.7000;1.6220;
-173.7000;0.6960;1.6150;
-173.4000;0.6968;1.6079;
-173.1000;0.6960;1.6079;
-172.8000;0.6968;1.6032;
-172.5000;0.6976;1.6009;
-172.2000;0.6943;1.5915;
-171.9000;0.6895;1.5797;
-171.6000;0.6992;1.6079;
-171.3000;0.6984;1.6103;
-171.0000;0.6992;1.6056;
-170.7000;0.7017;1.6009;
-170.4000;0.6919;1.5797;
-170.1000;0.6976;1.5938;
-169.8000;0.6968;1.5891;
-169.5000;0.6984;1.5915;
-169.2000;0.6992;1.5844;
-168.9000;0.6984;1.5821;
-168.6000;0.6976;1.5821;
-168.3000;0.6984;1.5821;
-168.0000;0.6976;1.5868;
-167.7000;0.6984;1.5821;
-167.4000;0.7000;1.5774;
-167.1000;0.6976;1.5657;
-166.8000;0.6976;1.5586;
-166.5000;0.6968;1.5516;
-166.2000;0.6976;1.5563;
-165.9000;0.6984;1.5539;
-165.6000;0.6984;1.5539;
-165.3000;0.7009;1.5610;
-165.0000;0.6968;1.5516;
-164.7000;0.6992;1.5563;
-164.4000;0.6992;1.5563;
-164.1000;0.6960;1.5492;
-163.8000;0.7033;1.5797;
-163.5000;0.6992;1.5633;
-163.2000;0.6976;1.5610;
-162.9000;0.6984;1.5680;
-162.6000;0.7000;1.5774;
-162.3000;0.7025;1.5774;
-162.0000;0.6984;1.5727;
-161.7000;0.6943;1.5657;
-161.4000;0.6960;1.5727;
-161.1000;0.6992;1.5915;
-160.8000;0.6992;1.5774;
-160.5000;0.6992;1.5704;
-160.2000;0.7025;1.5797;
-159.9000;0.7000;1.5821;
-159.6000;0.6992;1.5774;
-159.3000;0.6992;1.5797;
-159.0000;0.6976;1.5750;
-158.7000;0.7000;1.5844;
-158.4000;0.6984;1.5868;
-158.1000;0.7098;1.6173;
-157.8000;0.6960;1.5797;
-157.5000;0.6919;1.5680;
-157.2000;0.6984;1.5821;
-156.9000;0.6976;1.5821;
-156.6000;0.6984;1.5797;
-156.3000;0.6976;1.5774;
-156.0000;0.6992;1.5727;
-155.7000;0.6976;1.5657;
-155.4000;0.7000;1.5727;
-155.1000;0.6984;1.5657;
-154.8000;0.7000;1.5680;
-154.5000;0.6976;1.5704;
-154.2000;0.6960;1.5680;
-153.9000;0.6992;1.5727;
-153.6000;0.7000;1.5821;
-153.3000;0.6984;1.5774;
-153.0000;0.6968;1.5704;
-152.7000;0.6960;1.5704;
-152.4000;0.6911;1.5539;
-152.1000;0.6927;1.5704;
-151.8000;0.6976;1.5821;
-151.5000;0.7009;1.5962;
-151.2000;0.6960;1.5891;
-150.9000;0.6984;1.5985;
-150.6000;0.6992;1.5962;
-150.3000;0.6984;1.5938;
-150.0000;0.6870;1.5680;
-149.7000;0.6992;1.6009;
-149.4000;0.6984;1.5962;
-149.1000;0.7041;1.6103;
-148.8000;0.6984;1.5915;
-148.5000;0.6992;1.5938;
-148.2000;0.6976;1.5915;
-147.9000;0.6968;1.5962;
-147.6000;0.6984;1.5938;
-147.3000;0.6976;1.5868;
-147.0000;0.7000;1.5891;
-146.7000;0.6992;1.5891;
-146.4000;0.6984;1.5868;
-146.1000;0.6968;1.5821;
-145.8000;0.6984;1.5750;
-145.5000;0.6984;1.5727;
-145.2000;0.6984;1.5610;
-144.9000;0.6976;1.5610;
-144.6000;0.6976;1.5750;
-144.3000;0.6976;1.5704;
-144.0000;0.6984;1.5657;
-143.7000;0.6976;1.5657;
-143.4000;0.6984;1.5657;
-143.1000;0.6992;1.5586;
-142.8000;0.6984;1.5657;
-142.5000;0.6984;1.5657;
-142.2000;0.6992;1.5727;
-141.9000;0.6895;1.5492;
-141.6000;0.7000;1.5844;
-141.3000;0.6935;1.5680;
-141.0000;0.6976;1.5750;
-140.7000;0.6984;1.5844;
-140.4000;0.7009;1.5985;
-140.1000;0.6968;1.5821;
-139.8000;0.7009;1.5844;
-139.5000;0.7017;1.5938;
-139.2000;0.6976;1.5891;
-138.9000;0.6976;1.5915;
-138.6000;0.6935;1.5844;
-138.3000;0.7000;1.6056;
-138.0000;0.6984;1.5985;
-137.7000;0.6976;1.6032;
-137.4000;0.7041;1.6196;
-137.1000;0.6992;1.6126;
-136.8000;0.6976;1.6032;
-136.5000;0.6903;1.5774;
-136.2000;0.6968;1.5891;
-135.9000;0.6943;1.5774;
-135.6000;0.7000;1.5891;
-135.3000;0.6992;1.5844;
-135.0000;0.6984;1.5727;
-134.7000;0.6903;1.5563;
-134.4000;0.6960;1.5774;
-134.1000;0.6862;1.5516;
-133.8000;0.6968;1.5704;
-133.5000;0.6854;1.5469;
-133.2000;0.6992;1.5750;
-132.9000;0.7009;1.5891;
-132.6000;0.7033;1.6009;
-132.3000;0.6968;1.5868;
-132.0000;0.7000;1.5938;
-131.7000;0.6968;1.5797;
-131.4000;0.6976;1.5774;
-131.1000;0.6976;1.5680;
-130.8000;0.6976;1.5750;
-130.5000;0.7017;1.5821;
-130.2000;0.6992;1.5750;
-129.9000;0.7000;1.5774;
-129.6000;0.7009;1.5774;
-129.3000;0.6992;1.5727;
-129.0000;0.7009;1.5774;
-128.7000;0.7009;1.5797;
-128.4000;0.6960;1.5610;
-128.1000;0.6960;1.5633;
-127.8000;0.7009;1.5727;
-127.5000;0.6976;1.5727;
-127.2000;0.6984;1.5657;
-126.9000;0.6878;1.5351;
-126.6000;0.6976;1.5727;
-126.3000;0.6878;1.5469;
-126.0000;0.6886;1.5469;
-125.7000;0.6984;1.5774;
-125.4000;0.6976;1.5821;
-125.1000;0.6927;1.5657;
-124.8000;0.6992;1.5844;
-124.5000;0.6976;1.5797;
-124.2000;0.6984;1.5750;
-123.9000;0.6976;1.5680;
-123.6000;0.6992;1.5610;
-123.3000;0.6976;1.5610;
-123.0000;0.6976;1.5680;
-122.7000;0.6984;1.5704;
-122.4000;0.6984;1.5891;
-122.1000;0.6992;1.5915;
-121.8000;0.6992;1.5844;
-121.5000;0.6976;1.5844;
-121.2000;0.6968;1.5844;
-120.9000;0.6984;1.5891;
-120.6000;0.6968;1.5915;
-120.3000;0.6976;1.5915;
-120.0000;0.6984;1.5915;
-119.7000;0.7000;1.5844;
-119.4000;0.7009;1.5797;
-119.1000;0.6960;1.5680;
-118.8000;0.7025;1.5868;
-118.5000;0.6960;1.5704;
-118.2000;0.6984;1.5868;
-117.9000;0.6976;1.5774;
-117.6000;0.6968;1.5633;
-117.3000;0.7009;1.5704;
-117.0000;0.6984;1.5657;
-116.7000;0.6984;1.5563;
-116.4000;0.6911;1.5469;
-116.1000;0.7000;1.5704;
-115.8000;0.6903;1.5492;
-115.5000;0.6992;1.5750;
-115.2000;0.6943;1.5610;
-114.9000;0.7000;1.5821;
-114.6000;0.7049;1.5915;
-114.3000;0.6952;1.5750;
-114.0000;0.6968;1.5797;
-113.7000;0.6968;1.5844;
-113.4000;0.6968;1.5797;
-113.1000;0.6968;1.5704;
-112.8000;0.6976;1.5657;
-112.5000;0.6984;1.5680;
-112.2000;0.7000;1.5727;
-111.9000;0.6976;1.5704;
-111.6000;0.7000;1.5821;
-111.3000;0.6984;1.5821;
-111.0000;0.6952;1.5797;
-110.7000;0.6992;1.5821;
-110.4000;0.7000;1.5727;
-110.1000;0.7000;1.5774;
-109.8000;0.6992;1.5750;
-109.5000;0.6976;1.5704;
-109.2000;0.6968;1.5704;
-108.9000;0.6960;1.5797;
-108.6000;0.6968;1.5774;
-108.3000;0.6976;1.5797;
-108.0000;0.6976;1.5821;
-107.7000;0.6976;1.5868;
-107.4000;0.6992;1.5938;
-107.1000;0.6984;1.5915;
-106.8000;0.6984;1.5962;
-106.5000;0.6992;1.5844;
-106.2000;0.6984;1.5821;
-105.9000;0.6943;1.5704;
-105.6000;0.6976;1.5680;
-105.3000;0.6976;1.5633;
-105.0000;0.7000;1.5586;
-104.7000;0.6903;1.5351;
-104.4000;0.6976;1.5445;
-104.1000;0.7033;1.5610;
-103.8000;0.6862;1.5211;
-103.5000;0.6992;1.5445;
-103.2000;0.6976;1.5539;
-102.9000;0.6992;1.5586;
-102.6000;0.6952;1.5539;
-102.3000;0.6943;1.5516;
-102.0000;0.6935;1.5516;
-101.7000;0.6943;1.5492;
-101.4000;0.6960;1.5539;
-101.1000;0.6976;1.5586;
-100.8000;0.6984;1.5633;
-100.5000;0.6976;1.5704;
-100.2000;0.6984;1.5750;
-99.9000;0.6984;1.5704;
-99.6000;0.6984;1.5704;
-99.3000;0.7000;1.5633;
-99.0000;0.6984;1.5633;
-98.7000;0.6960;1.5563;
-98.4000;0.6984;1.5539;
-98.1000;0.6960;1.5633;
-97.8000;0.6992;1.5727;
-97.5000;0.6992;1.5797;
-97.2000;0.6960;1.5586;
-96.9000;0.6968;1.5586;
-96.6000;0.6976;1.5610;
-96.3000;0.6976;1.5563;
-96.0000;0.6968;1.5539;
-95.7000;0.6952;1.5469;
-95.4000;0.6992;1.5469;
-95.1000;0.6992;1.5586;
-94.8000;0.6984;1.5563;
-94.5000;0.6984;1.5610;
-94.2000;0.6992;1.5586;
-93.9000;0.6976;1.5610;
-93.6000;0.6960;1.5633;
-93.3000;0.6984;1.5797;
-93.0000;0.6992;1.5844;
-92.7000;0.6976;1.5868;
-92.4000;0.6984;1.5821;
-92.1000;0.6976;1.5844;
-91.8000;0.6960;1.5774;
-91.5000;0.6984;1.5821;
-91.2000;0.6976;1.5727;
-90.9000;0.6984;1.5633;
-90.6000;0.7009;1.5704;
-90.3000;0.7025;1.5891;
-90.0000;0.6984;1.5774;
-89.7000;0.6927;1.5563;
-89.4000;0.6968;1.5750;
-89.1000;0.6968;1.5657;
-88.8000;0.6968;1.5633;
-88.5000;0.6968;1.5633;
-88.2000;0.6952;1.5586;
-87.9000;0.6960;1.5633;
-87.6000;0.6943;1.5586;
-87.3000;0.6976;1.5563;
-87.0000;0.6960;1.5516;
-86.7000;0.6976;1.5539;
-86.4000;0.6984;1.5633;
-86.1000;0.6984;1.5680;
-85.8000;0.6984;1.5727;
-85.5000;0.6992;1.5727;
-85.2000;0.7009;1.5750;
-84.9000;0.6984;1.5704;
-84.6000;0.6976;1.5797;
-84.3000;0.6960;1.5821;
-84.0000;0.6984;1.5891;
-83.7000;0.7000;1.5915;
-83.4000;0.6992;1.5985;
-83.1000;0.6976;1.5962;
-82.8000;0.7009;1.6032;
-82.5000;0.6984;1.5938;
-82.2000;0.6911;1.5704;
-81.9000;0.6984;1.5797;
-81.6000;0.6895;1.5563;
-81.3000;0.6992;1.5868;
-81.0000;0.6960;1.5727;
-80.7000;0.6992;1.5844;
-80.4000;0.6984;1.5844;
-80.1000;0.6984;1.5844;
-79.8000;0.6976;1.5821;
-79.5000;0.6968;1.5891;
-79.2000;0.6960;1.5891;
-78.9000;0.6984;1.5962;
-78.6000;0.7000;1.5985;
-78.3000;0.6976;1.5821;
-78.0000;0.6960;1.5821;
-77.7000;0.6960;1.5821;
-77.4000;0.6992;1.5821;
-77.1000;0.6992;1.5797;
-76.8000;0.6976;1.5633;
-76.5000;0.6976;1.5563;
-76.2000;0.6984;1.5657;
-75.9000;0.6984;1.5704;
-75.6000;0.6984;1.5586;
-75.3000;0.6984;1.5586;
-75.0000;0.6984;1.5586;
-74.7000;0.7017;1.5704;
-74.4000;0.6992;1.5633;
-74.1000;0.6984;1.5586;
-73.8000;0.7000;1.5586;
-73.5000;0.7000;1.5657;
-73.2000;0.6984;1.5563;
-72.9000;0.6984;1.5539;
-72.6000;0.6984;1.5586;
-72.3000;0.7009;1.5586;
-72.0000;0.6984;1.5563;
-71.7000;0.6976;1.5633;
-71.4000;0.6968;1.5633;
-71.1000;0.6976;1.5680;
-70.8000;0.7000;1.5704;
-70.5000;0.6968;1.5586;
-70.2000;0.6935;1.5539;
-69.9000;0.6968;1.5704;
-69.6000;0.6984;1.5868;
-69.3000;0.6935;1.5821;
-69.0000;0.6976;1.5985;
-68.7000;0.6976;1.5915;
-68.4000;0.6968;1.5868;
-68.1000;0.6952;1.5891;
-67.8000;0.6976;1.5985;
-67.5000;0.6976;1.6032;
-67.2000;0.6960;1.5985;
-66.9000;0.6976;1.5985;
-66.6000;0.6984;1.6009;
-66.3000;0.6984;1.5985;
-66.0000;0.6968;1.5891;
-65.7000;0.7000;1.5915;
-65.4000;0.7000;1.5891;
-65.1000;0.6984;1.5774;
-64.8000;0.7041;1.5844;
-64.5000;0.7000;1.5657;
-64.2000;0.6862;1.5422;
-63.9000;0.6976;1.5727;
-63.6000;0.7098;1.6103;
-63.3000;0.6992;1.5891;
-63.0000;0.6878;1.5680;
-62.7000;0.6984;1.5915;
-62.4000;0.6960;1.5844;
-62.1000;0.6968;1.5891;
-61.8000;0.6976;1.5868;
-61.5000;0.6976;1.5774;
-61.2000;0.6968;1.5750;
-60.9000;0.6976;1.5797;
-60.6000;0.7000;1.5985;
-60.3000;0.7000;1.5915;
-60.0000;0.6968;1.5774;
-59.7000;0.6984;1.5821;
-59.4000;0.6992;1.5891;
-59.1000;0.6984;1.5844;
-58.8000;0.6984;1.5774;
-58.5000;0.6984;1.5727;
-58.2000;0.6984;1.5821;
-57.9000;0.6976;1.5797;
-57.6000;0.6976;1.5844;
-57.3000;0.6984;1.5891;
-57.0000;0.7049;1.6079;
-56.7000;0.6984;1.5868;
-56.4000;0.6976;1.5821;
-56.1000;0.6992;1.5915;
-55.8000;0.6976;1.5891;
-55.5000;0.6984;1.5915;
-55.2000;0.7041;1.6079;
-54.9000;0.6984;1.5821;
-54.6000;0.6968;1.5821;
-54.3000;0.6984;1.5821;
-54.0000;0.6976;1.5774;
-53.7000;0.6976;1.5680;
-53.4000;0.6992;1.5633;
-53.1000;0.6992;1.5586;
-52.8000;0.7000;1.5657;
-52.5000;0.7049;1.5774;
-52.2000;0.6984;1.5563;
-51.9000;0.6984;1.5586;
-51.6000;0.7000;1.5680;
-51.3000;0.6984;1.5586;
-51.0000;0.6992;1.5610;
-50.7000;0.6976;1.5563;
-50.4000;0.6992;1.5492;
-50.1000;0.6976;1.5445;
-49.8000;0.6976;1.5563;
-49.5000;0.6976;1.5586;
-49.2000;0.6919;1.5539;
-48.9000;0.6976;1.5727;
-48.6000;0.6984;1.5727;
-48.3000;0.6960;1.5680;
-48.0000;0.6976;1.5750;
-47.7000;0.6992;1.5868;
-47.4000;0.6984;1.5774;
-47.1000;0.6976;1.5727;
-46.8000;0.6976;1.5680;
-46.5000;0.7009;1.5750;
-46.2000;0.6968;1.5586;
-45.9000;0.7025;1.5704;
-45.6000;0.6992;1.5680;
-45.3000;0.6984;1.5704;
-45.0000;0.7000;1.5657;
-44.7000;0.6927;1.5539;
-44.4000;0.6895;1.5492;
-44.1000;0.6984;1.5680;
-43.8000;0.7000;1.5704;
-43.5000;0.6984;1.5704;
-43.2000;0.6992;1.5727;
-42.9000;0.6976;1.5727;
-42.6000;0.6984;1.5750;
-42.3000;0.6984;1.5704;
-42.0000;0.6984;1.5704;
-41.7000;0.6984;1.5680;
-41.4000;0.6984;1.5727;
-41.1000;0.6992;1.5704;
-40.8000;0.6992;1.5704;
-40.5000;0.6976;1.5633;
-40.2000;0.6976;1.5633;
-39.9000;0.7009;1.5657;
-39.6000;0.6976;1.5586;
-39.3000;0.6976;1.5563;
-39.0000;0.7049;1.5704;
-38.7000;0.6984;1.5586;
-38.4000;0.6976;1.5610;
-38.1000;0.6968;1.5727;
-37.8000;0.6960;1.5821;
-37.5000;0.6984;1.5821;
-37.2000;0.6976;1.5797;
-36.9000;0.6976;1.5727;
-36.6000;0.6976;1.5891;
-36.3000;0.6968;1.5727;
-36.0000;0.6976;1.5727;
-35.7000;0.6984;1.5704;
-35.4000;0.6992;1.5774;
-35.1000;0.7009;1.5821;
-34.8000;0.6943;1.5633;
-34.5000;0.6984;1.5797;
-34.2000;0.6976;1.5774;
-33.9000;0.6984;1.5704;
-33.6000;0.6976;1.5610;
-33.3000;0.6976;1.5563;
-33.0000;0.6960;1.5469;
-32.7000;0.6952;1.5492;
-32.4000;0.7000;1.5586;
-32.1000;0.7033;1.5750;
-31.8000;0.6984;1.5633;
-31.5000;0.6992;1.5704;
-31.2000;0.6976;1.5797;
-30.9000;0.7033;1.5797;
-30.6000;0.6992;1.5610;
-30.3000;0.7009;1.5704;
-30.0000;0.6976;1.5750;
-29.7000;0.6984;1.5821;
-29.4000;0.6976;1.5727;
-29.1000;0.7009;1.5821;
-28.8000;0.6968;1.5727;
-28.5000;0.6984;1.5750;
-28.2000;0.7000;1.5774;
-27.9000;0.6968;1.5680;
-27.6000;0.6952;1.5657;
-27.3000;0.6968;1.5727;
-27.0000;0.6960;1.5750;
-26.7000;0.6976;1.5774;
-26.4000;0.6976;1.5821;
-26.1000;0.6992;1.5821;
-25.8000;0.6984;1.5750;
-25.5000;0.7009;1.5750;
-25.2000;0.6992;1.5680;
-24.9000;0.7000;1.5704;
-24.6000;0.7009;1.5797;
-24.3000;0.6984;1.5821;
-24.0000;0.6992;1.5821;
-23.7000;0.6992;1.5797;
-23.4000;0.6976;1.5727;
-23.1000;0.7000;1.5704;
-22.8000;0.6952;1.5563;
-22.5000;0.6992;1.5586;
-22.2000;0.6984;1.5516;
-21.9000;0.6968;1.5563;
-21.6000;0.7025;1.5680;
-21.3000;0.6984;1.5586;
-21.0000;0.6976;1.5563;
-20.7000;0.6968;1.5516;
-20.4000;0.6968;1.5539;
-20.1000;0.6976;1.5539;
-19.8000;0.6976;1.5539;
-19.5000;0.6968;1.5539;
-19.2000;0.6976;1.5586;
-18.9000;0.6968;1.5539;
-18.6000;0.6952;1.5563;
-18.3000;0.6984;1.5680;
-18.0000;0.6976;1.5727;
-17.7000;0.6976;1.5704;
-17.4000;0.6976;1.5797;
-17.1000;0.6968;1.5774;
-16.8000;0.6992;1.5797;
-16.5000;0.6976;1.5797;
-16.2000;0.6960;1.5797;
-15.9000;0.6976;1.5844;
-15.6000;0.7009;1.5891;
-15.3000;0.6976;1.5891;
-15.0000;0.7057;1.6032;
-14.7000;0.6976;1.5844;
-14.4000;0.6968;1.5774;
-14.1000;0.6992;1.5868;
-13.8000;0.6984;1.5868;
-13.5000;0.6903;1.5680;
-13.2000;0.7033;1.6103;
-12.9000;0.6968;1.5938;
-12.6000;0.6968;1.5891;
-12.3000;0.6960;1.5750;
-12.0000;0.6952;1.5680;
-11.7000;0.6984;1.5821;
-11.4000;0.6976;1.5774;
-11.1000;0.6992;1.5750;
-10.8000;0.6960;1.5633;
-10.5000;0.6976;1.5586;
-10.2000;0.6984;1.5586;
-9.9000;0.7000;1.5680;
-9.6000;0.7049;1.5891;
-9.3000;0.6992;1.5797;
-9.0000;0.6984;1.5727;
-8.7000;0.6968;1.5680;
-8.4000;0.6968;1.5704;
-8.1000;0.6968;1.5727;
-7.8000;0.6984;1.5633;
-7.5000;0.6984;1.5586;
-7.2000;0.6976;1.5586;
-6.9000;0.6976;1.5657;
-6.6000;0.6960;1.5610;
-6.3000;0.6976;1.5657;
-6.0000;0.6968;1.5657;
-5.7000;0.6984;1.5680;
-5.4000;0.6968;1.5657;
-5.1000;0.6984;1.5774;
-4.8000;0.6968;1.5727;
-4.5000;0.6976;1.5750;
-4.2000;0.6992;1.5750;
-3.9000;0.6984;1.5680;
-3.6000;0.6976;1.5563;
-3.3000;0.6968;1.5610;
-3.0000;0.6968;1.5657;
-2.7000;0.6976;1.5657;
-2.4000;0.6976;1.5704;
-2.1000;0.6984;1.5797;
-1.8000;0.6976;1.5821;
-1.5000;0.6976;1.5774;
-1.2000;0.6952;1.5704;
-0.9000;0.6992;1.5750;
-0.6000;0.6992;1.5821;
-0.3000;0.6862;1.5492;
0.0000;0.6862;1.5492;
0.3000;0.7017;1.5844;
0.6000;0.7009;1.5985;
0.9000;0.7082;1.6337;
1.2000;0.7025;1.6384;
1.5000;0.7049;1.6619;
1.8000;0.7098;1.6807;
2.1000;0.7049;1.6901;
2.4000;0.7066;1.7065;
2.7000;0.7057;1.7159;
3.0000;0.7163;1.7417;
3.3000;0.7017;1.7159;
3.6000;0.7066;1.7347;
3.9000;0.7066;1.7347;
4.2000;0.7066;1.7370;
4.5000;0.7041;1.7394;
4.8000;0.7179;1.7722;
5.1000;0.7074;1.7534;
5.4000;0.7082;1.7534;
5.7000;0.7074;1.7605;
6.0000;0.7074;1.7675;
6.3000;0.7123;1.7793;
6.6000;0.7082;1.7675;
6.9000;0.7098;1.7675;
7.2000;0.7106;1.7675;
7.5000;0.7041;1.7605;
7.8000;0.7009;1.7464;
8.1000;0.7090;1.7675;
8.4000;0.7098;1.7769;
8.7000;0.7082;1.7769;
9.0000;0.7106;1.7675;
9.3000;0.7098;1.7628;
9.6000;0.7082;1.7558;
9.9000;0.7090;1.7441;
10.2000;0.7106;1.7487;
10.5000;0.7106;1.7487;
10.8000;0.7098;1.7464;
11.1000;0.7082;1.7464;
11.4000;0.7098;1.7511;
11.7000;0.7090;1.7487;
12.0000;0.7106;1.7558;
12.3000;0.7106;1.7628;
12.6000;0.7114;1.7628;
12.9000;0.7098;1.7675;
13.2000;0.7114;1.7675;
13.5000;0.7106;1.7581;
13.8000;0.7163;1.7722;
14.1000;0.7106;1.7581;
14.4000;0.7098;1.7652;
14.7000;0.7123;1.7769;
15.0000;0.7082;1.7675;
15.3000;0.7090;1.7699;
15.6000;0.7025;1.7487;
15.9000;0.7114;1.7746;
16.2000;0.7082;1.7652;
16.5000;0.7090;1.7675;
16.8000;0.7082;1.7652;
17.1000;0.7082;1.7628;
17.4000;0.7098;1.7675;
17.7000;0.7090;1.7628;
18.0000;0.7106;1.7746;
18.3000;0.7074;1.7628;
18.6000;0.7106;1.7793;
18.9000;0.7090;1.7816;
19.2000;0.7106;1.7769;
19.5000;0.7106;1.7769;
19.8000;0.7082;1.7675;
20.1000;0.7098;1.7699;
20.4000;0.7131;1.7746;
20.7000;0.7106;1.7746;
21.0000;0.7098;1.7769;
21.3000;0.7123;1.7793;
21.6000;0.7114;1.7769;
21.9000;0.7106;1.7605;
22.2000;0.7106;1.7628;
22.5000;0.7098;1.7534;
22.8000;0.7098;1.7534;
23.1000;0.7131;1.7628;
23.4000;0.7114;1.7534;
23.7000;0.7114;1.7581;
24.0000;0.7114;1.7605;
24.3000;0.7131;1.7652;
24.6000;0.7114;1.7534;
24.9000;0.7090;1.7417;
25.2000;0.7106;1.7558;
25.5000;0.7106;1.7652;
25.8000;0.7106;1.7652;
26.1000;0.7106;1.7699;
26.4000;0.7098;1.7746;
26.7000;0.7098;1.7699;
27.0000;0.7179;1.7840;
27.3000;0.7090;1.7675;
27.6000;0.7098;1.7746;
27.9000;0.7114;1.7769;
28.2000;0.7114;1.7816;
28.5000;0.7114;1.7863;
28.8000;0.7131;1.7863;
29.1000;0.7082;1.7769;
29.4000;0.7123;1.7816;
29.7000;0.7114;1.7769;
30.0000;0.7082;1.7722;
30.3000;0.7106;1.7722;
30.6000;0.7106;1.7652;
30.9000;0.7041;1.7464;
31.2000;0.7106;1.7464;
31.5000;0.7114;1.7464;
31.8000;0.7098;1.7370;
32.1000;0.7114;1.7464;
32.4000;0.7074;1.7370;
32.7000;0.7114;1.7394;
33.0000;0.7106;1.7370;
33.3000;0.7098;1.7323;
33.6000;0.7123;1.7417;
33.9000;0.7139;1.7394;
34.2000;0.7114;1.7323;
34.5000;0.7106;1.7300;
34.8000;0.7098;1.7370;
35.1000;0.7147;1.7511;
35.4000;0.7106;1.7464;
35.7000;0.7114;1.7558;
36.0000;0.7123;1.7652;
36.3000;0.7114;1.7628;
36.6000;0.7114;1.7652;
36.9000;0.7106;1.7699;
37.2000;0.7123;1.7793;
37.5000;0.7114;1.7863;
37.8000;0.7090;1.7722;
38.1000;0.7123;1.7699;
38.4000;0.7114;1.7605;
38.7000;0.7131;1.7675;
39.0000;0.7114;1.7652;
39.3000;0.7106;1.7699;
39.6000;0.7131;1.7722;
39.9000;0.7106;1.7628;
40.2000;0.7098;1.7605;
40.5000;0.7114;1.7675;
40.8000;0.7090;1.7652;
41.1000;0.7106;1.7652;
41.4000;0.7114;1.7699;
41.7000;0.7114;1.7675;
42.0000;0.7106;1.7699;
42.3000;0.7106;1.7699;
42.6000;0.7114;1.7652;
42.9000;0.7114;1.7746;
43.2000;0.7098;1.7605;
43.5000;0.7106;1.7675;
43.8000;0.7114;1.7699;
44.1000;0.7066;1.7558;
44.4000;0.7114;1.7746;
44.7000;0.7106;1.7769;
45.0000;0.7155;1.7840;
45.3000;0.7098;1.7652;
45.6000;0.7114;1.7840;
45.9000;0.7106;1.7887;
46.2000;0.7114;1.7933;
46.5000;0.7131;1.8004;
46.8000;0.7106;1.7957;
47.1000;0.7123;1.8074;
47.4000;0.7155;1.8145;
47.7000;0.7114;1.8004;
48.0000;0.7155;1.7980;
48.3000;0.7106;1.7840;
48.6000;0.7131;1.7887;
48.9000;0.7082;1.7652;
49.2000;0.7098;1.7793;
49.5000;0.7114;1.7793;
49.8000;0.7131;1.7840;
50.1000;0.7106;1.7840;
50.4000;0.7131;1.7933;
50.7000;0.7114;1.7816;
51.0000;0.7123;1.7863;
51.3000;0.7147;1.7980;
51.6000;0.7114;1.7887;
51.9000;0.7082;1.7816;
52.2000;0.7106;1.7910;
52.5000;0.7123;1.7887;
52.8000;0.7098;1.7933;
53.1000;0.7106;1.7910;
53.4000;0.7114;1.7863;
53.7000;0.7106;1.7887;
54.0000;0.7131;1.7980;
54.3000;0.7106;1.7910;
54.6000;0.7098;1.7863;
54.9000;0.7106;1.7910;
55.2000;0.7123;1.8004;
55.5000;0.7114;1.7933;
55.8000;0.7098;1.7933;
56.1000;0.7155;1.8027;
56.4000;0.7106;1.7910;
56.7000;0.7114;1.7863;
57.0000;0.7074;1.7675;
57.3000;0.7106;1.7769;
57.6000;0.7090;1.7722;
57.9000;0.7123;1.7722;
58.2000;0.7114;1.7699;
58.5000;0.7106;1.7675;
58.8000;0.7106;1.7652;
59.1000;0.7114;1.7581;
59.4000;0.7106;1.7558;
59.7000;0.7123;1.7534;
60.0000;0.7106;1.7534;
60.3000;0.7106;1.7511;
60.6000;0.7123;1.7652;
60.9000;0.7131;1.7628;
61.2000;0.7123;1.7628;
61.5000;0.7098;1.7441;
61.8000;0.7123;1.7605;
62.1000;0.7106;1.7675;
62.4000;0.7123;1.7675;
62.7000;0.7082;1.7628;
63.0000;0.7074;1.7652;
63.3000;0.7098;1.7675;
63.6000;0.7074;1.7746;
63.9000;0.7090;1.7722;
64.2000;0.7098;1.7746;
64.5000;0.7106;1.7769;
64.8000;0.7098;1.7699;
65.1000;0.7098;1.7652;
65.4000;0.7123;1.7793;
65.7000;0.7114;1.7793;
66.0000;0.7114;1.7769;
66.3000;0.7114;1.7816;
66.6000;0.7114;1.7816;
66.9000;0.7114;1.7769;
67.2000;0.7106;1.7746;
67.5000;0.7131;1.7769;
67.8000;0.7106;1.7769;
68.1000;0.7082;1.7605;
68.4000;0.7017;1.7417;
68.7000;0.7114;1.7652;
69.0000;0.7106;1.7652;
69.3000;0.7074;1.7581;
69.6000;0.7114;1.7675;
69.9000;0.7155;1.7769;
70.2000;0.7082;1.7628;
70.5000;0.7131;1.7699;
70.8000;0.7114;1.7628;
71.1000;0.7131;1.7675;
71.4000;0.7155;1.7840;
71.7000;0.7114;1.7628;
72.0000;0.7131;1.7675;
72.3000;0.7114;1.7628;
72.6000;0.7106;1.7793;
72.9000;0.7147;1.7840;
73.2000;0.7123;1.7793;
73.5000;0.7131;1.7769;
73.8000;0.7131;1.7816;
74.1000;0.7114;1.7769;
74.4000;0.7131;1.7746;
74.7000;0.7114;1.7793;
75.0000;0.7131;1.7887;
75.3000;0.7123;1.7863;
75.6000;0.7082;1.7840;
75.9000;0.7163;1.7980;
76.2000;0.7123;1.7933;
76.5000;0.7098;1.7863;
76.8000;0.7098;1.7863;
77.1000;0.7114;1.7887;
77.4000;0.7106;1.7887;
77.7000;0.7123;1.7910;
78.0000;0.7106;1.7863;
78.3000;0.7106;1.7816;
78.6000;0.7114;1.7793;
78.9000;0.7033;1.7581;
79.2000;0.7106;1.7699;
79.5000;0.7188;1.7910;
79.8000;0.7082;1.7769;
80.1000;0.7106;1.7863;
80.4000;0.7090;1.7769;
80.7000;0.7098;1.7769;
81.0000;0.7082;1.7675;
81.3000;0.7114;1.7652;
81.6000;0.7106;1.7675;
81.9000;0.7082;1.7581;
82.2000;0.7090;1.7652;
82.5000;0.7090;1.7534;
82.8000;0.7131;1.7558;
83.1000;0.7106;1.7581;
83.4000;0.7082;1.7511;
83.7000;0.7017;1.7370;
84.0000;0.7114;1.7581;
84.3000;0.7123;1.7558;
84.6000;0.7041;1.7370;
84.9000;0.7090;1.7511;
85.2000;0.7131;1.7534;
85.5000;0.7098;1.7534;
85.8000;0.7066;1.7487;
86.1000;0.7090;1.7534;
86.4000;0.7098;1.7558;
86.7000;0.7106;1.7511;
87.0000;0.7082;1.7511;
87.3000;0.7106;1.7511;
87.6000;0.7090;1.7441;
87.9000;0.7114;1.7441;
88.2000;0.7106;1.7464;
88.5000;0.7106;1.7441;
88.8000;0.7098;1.7464;
89.1000;0.7106;1.7581;
89.4000;0.7106;1.7534;
89.7000;0.7114;1.7534;
90.0000;0.7106;1.7581;
90.3000;0.7098;1.7464;
90.6000;0.7123;1.7534;
90.9000;0.7066;1.7417;
91.2000;0.7082;1.7487;
91.5000;0.7090;1.7534;
91.8000;0.7090;1.7628;
92.1000;0.7106;1.7652;
92.4000;0.7066;1.7652;
92.7000;0.7098;1.7746;
93.0000;0.7098;1.7816;
93.3000;0.7106;1.7957;
93.6000;0.7123;1.8004;
93.9000;0.7106;1.7980;
94.2000;0.7106;1.7980;
94.5000;0.7114;1.8004;
94.8000;0.7057;1.7793;
95.1000;0.7106;1.7933;
95.4000;0.7106;1.7957;
95.7000;0.7082;1.7980;
96.0000;0.7106;1.7887;
96.3000;0.7098;1.7863;
96.6000;0.7074;1.7722;
96.9000;0.7123;1.7887;
97.2000;0.7082;1.7910;
97.5000;0.7098;1.7957;
97.8000;0.7082;1.7793;
98.1000;0.7106;1.7933;
98.4000;0.7106;1.7863;
98.7000;0.7106;1.7793;
99.0000;0.7123;1.7863;
99.3000;0.7074;1.7769;
99.6000;0.7098;1.7793;
99.9000;0.6984;1.7487;
100.2000;0.7106;1.7746;
100.5000;0.7114;1.7840;
100.8000;0.7106;1.7863;
101.1000;0.7090;1.7863;
101.4000;0.7090;1.7769;
101.7000;0.7114;1.7840;
102.0000;0.7114;1.7816;
102.3000;0.7131;1.7887;
102.6000;0.7066;1.7722;
102.9000;0.7066;1.7699;
103.2000;0.7066;1.7652;
103.5000;0.7049;1.7534;
103.8000;0.7090;1.7675;
104.1000;0.7074;1.7746;
104.4000;0.7074;1.7746;
104.7000;0.7090;1.7816;
105.0000;0.7106;1.7793;
105.3000;0.7090;1.7722;
105.6000;0.7066;1.7699;
105.9000;0.7090;1.7699;
106.2000;0.7131;1.7816;
106.5000;0.7090;1.7746;
106.8000;0.7090;1.7793;
107.1000;0.7106;1.7769;
107.4000;0.7106;1.7746;
107.7000;0.7074;1.7746;
108.0000;0.7082;1.7722;
108.3000;0.7098;1.7769;
108.6000;0.7090;1.7793;
108.9000;0.7082;1.7746;
109.2000;0.7090;1.7652;
109.5000;0.7090;1.7581;
109.8000;0.7098;1.7605;
110.1000;0.7106;1.7605;
110.4000;0.7082;1.7699;
110.7000;0.7106;1.7816;
111.0000;0.7098;1.7793;
111.3000;0.7090;1.7769;
111.6000;0.7139;1.7863;
111.9000;0.7098;1.7746;
112.2000;0.7090;1.7722;
112.5000;0.7098;1.7675;
112.8000;0.7082;1.7675;
113.1000;0.7131;1.7816;
113.4000;0.7082;1.7769;
113.7000;0.7098;1.7840;
114.0000;0.7082;1.7793;
114.3000;0.7098;1.7816;
114.6000;0.7082;1.7816;
114.9000;0.7106;1.7816;
115.2000;0.7098;1.7746;
115.5000;0.7090;1.7699;
115.8000;0.7090;1.7699;
116.1000;0.7098;1.7699;
116.4000;0.7123;1.7722;
116.7000;0.7082;1.7605;
117.0000;0.7074;1.7628;
117.3000;0.7163;1.7863;
117.6000;0.7123;1.7699;
117.9000;0.7090;1.7652;
118.2000;0.7114;1.7769;
118.5000;0.7090;1.7793;
118.8000;0.7123;1.7816;
119.1000;0.7106;1.7769;
119.4000;0.7090;1.7840;
119.7000;0.7074;1.7816;
120.0000;0.7106;1.7887;
120.3000;0.7106;1.7863;
120.6000;0.7098;1.7863;
120.9000;0.7123;1.8051;
121.2000;0.7114;1.8027;
121.5000;0.7123;1.8051;
121.8000;0.7074;1.7933;
122.1000;0.7098;1.7933;
122.4000;0.7098;1.7957;
122.7000;0.7114;1.7957;
123.0000;0.7082;1.7863;
123.3000;0.7082;1.7863;
123.6000;0.7090;1.7933;
123.9000;0.7082;1.7863;
124.2000;0.7066;1.7722;
124.5000;0.7057;1.7675;
124.8000;0.7066;1.7699;
125.1000;0.7098;1.7793;
125.4000;0.7139;1.7816;
125.7000;0.7082;1.7793;
126.0000;0.6968;1.7605;
126.3000;0.7114;1.8004;
126.6000;0.7114;1.7980;
126.9000;0.7098;1.7887;
127.2000;0.7098;1.7910;
127.5000;0.7090;1.7887;
127.8000;0.7106;1.7840;
128.1000;0.7082;1.7887;
128.4000;0.7082;1.7863;
128.7000;0.7082;1.7793;
129.0000;0.7106;1.7863;
129.3000;0.7106;1.7816;
129.6000;0.7082;1.7840;
129.9000;0.7082;1.7980;
130.2000;0.7090;1.7980;
130.5000;0.7074;1.7957;
130.8000;0.7114;1.8004;
131.1000;0.7082;1.7910;
131.4000;0.7082;1.7933;
131.7000;0.7082;1.7980;
132.0000;0.7090;1.8004;
132.3000;0.7074;1.7980;
132.6000;0.7066;1.7863;
132.9000;0.7090;1.7933;
133.2000;0.7131;1.8098;
133.5000;0.7082;1.7933;
133.8000;0.7082;1.7863;
134.1000;0.7106;1.7910;
134.4000;0.7090;1.8027;
134.7000;0.7098;1.8051;
135.0000;0.7074;1.8027;
135.3000;0.7074;1.8074;
135.6000;0.7090;1.8074;
135.9000;0.7090;1.8051;
136.2000;0.7066;1.7933;
136.5000;0.7082;1.7863;
136.8000;0.7066;1.7746;
137.1000;0.7082;1.7746;
137.4000;0.7106;1.7887;
137.7000;0.7098;1.7769;
138.0000;0.7082;1.7722;
138.3000;0.7090;1.7769;
138.6000;0.7090;1.7816;
138.9000;0.7082;1.7863;
139.2000;0.7106;1.7887;
139.5000;0.7098;1.7816;
139.8000;0.7082;1.7652;
140.1000;0.7090;1.7769;
140.4000;0.7090;1.7746;
140.7000;0.7082;1.7840;
141.0000;0.7074;1.7863;
141.3000;0.7041;1.7840;
141.6000;0.7090;1.7887;
141.9000;0.7090;1.7910;
142.2000;0.7106;1.7957;
142.5000;0.7098;1.7980;
142.8000;0.7090;1.8004;
143.1000;0.7106;1.8027;
143.4000;0.7066;1.7957;
143.7000;0.7131;1.8121;
144.0000;0.7082;1.7980;
144.3000;0.7090;1.8027;
144.6000;0.7106;1.8004;
144.9000;0.7066;1.7910;
145.2000;0.7098;1.8004;
145.5000;0.7090;1.8004;
145.8000;0.7090;1.7957;
146.1000;0.7098;1.7957;
146.4000;0.7066;1.7910;
146.7000;0.7082;1.7887;
147.0000;0.7090;1.7933;
147.3000;0.7074;1.7933;
147.6000;0.7082;1.7910;
147.9000;0.7106;1.7980;
148.2000;0.7082;1.7980;
148.5000;0.7041;1.7816;
148.8000;0.7090;1.7957;
149.1000;0.7098;1.8074;
149.4000;0.7123;1.8074;
149.7000;0.7106;1.8004;
150.0000;0.7090;1.8027;
150.3000;0.7082;1.7933;
150.6000;0.7106;1.7980;
150.9000;0.7123;1.8074;
151.2000;0.7082;1.7933;
151.5000;0.7090;1.7910;
151.8000;0.7082;1.7933;
152.1000;0.7082;1.7933;
152.4000;0.7090;1.7933;
152.7000;0.7098;1.7887;
153.0000;0.7082;1.7816;
153.3000;0.7106;1.7910;
153.6000;0.7098;1.7887;
153.9000;0.7106;1.7840;
154.2000;0.7082;1.7863;
154.5000;0.7098;1.7910;
154.8000;0.6992;1.7746;
155.1000;0.7098;1.8004;
155.4000;0.7098;1.8004;
155.7000;0.7009;1.7675;
156.0000;0.7074;1.7840;
156.3000;0.7074;1.7793;
156.6000;0.7123;1.7933;
156.9000;0.7155;1.8027;
157.2000;0.7082;1.7887;
157.5000;0.7074;1.7816;
157.8000;0.7074;1.7887;
158.1000;0.7204;1.8262;
158.4000;0.7090;1.8027;
158.7000;0.7082;1.8098;
159.0000;0.7098;1.8145;
159.3000;0.7082;1.8121;
159.6000;0.7082;1.8074;
159.9000;0.7196;1.8333;
160.2000;0.7106;1.8074;
160.5000;0.7098;1.8051;
160.8000;0.7090;1.8004;
161.1000;0.7074;1.7910;
161.4000;0.7074;1.8004;
161.7000;0.7082;1.8027;
162.0000;0.7082;1.7957;
162.3000;0.7074;1.7933;
162.6000;0.7074;1.7933;
162.9000;0.7049;1.7840;
163.2000;0.7074;1.7887;
163.5000;0.7114;1.7887;
163.8000;0.7082;1.7863;
164.1000;0.7106;1.7910;
164.4000;0.7066;1.7840;
164.7000;0.7106;1.7933;
165.0000;0.7106;1.7887;
165.3000;0.7057;1.7793;
165.6000;0.7009;1.7558;
165.9000;0.7090;1.7722;
166.2000;0.7074;1.7722;
166.5000;0.7074;1.7675;
166.8000;0.7074;1.7816;
167.1000;0.7057;1.7816;
167.4000;0.7131;1.7980;
167.7000;0.7090;1.7840;
168.0000;0.7074;1.7816;
168.3000;0.7082;1.7887;
168.6000;0.7082;1.7910;
168.9000;0.7082;1.7840;
169.2000;0.7090;1.7863;
169.5000;0.7066;1.7863;
169.8000;0.7171;1.8215;
170.1000;0.6976;1.7699;
170.4000;0.7074;1.8074;
170.7000;0.7090;1.8121;
171.0000;0.7139;1.8215;
171.3000;0.7041;1.8027;
171.6000;0.7098;1.8098;
171.9000;0.7098;1.8145;
172.2000;0.7082;1.8027;
172.5000;0.7074;1.8051;
172.8000;0.7090;1.8121;
173.1000;0.7082;1.8004;
173.4000;0.7066;1.7887;
173.7000;0.7066;1.7863;
174.0000;0.7082;1.7980;
174.3000;0.7098;1.8051;
174.6000;0.7098;1.8004;
174.9000;0.7082;1.7957;
175.2000;0.7090;1.7957;
175.5000;0.7090;1.7933;
175.8000;0.7090;1.7887;
176.1000;0.7066;1.7840;
176.4000;0.7066;1.7840;
176.7000;0.7074;1.7887;
177.0000;0.7074;1.7957;
177.3000;0.7066;1.8027;
177.6000;0.7082;1.8027;
177.9000;0.7090;1.8004;
178.2000;0.7082;1.8027;
178.5000;0.7082;1.8004;
178.8000;0.7074;1.8004;
179.1000;0.7074;1.7933;
179.4000;0.7082;1.7887;
179.7000;0.7025;1.7746;
180.0000;0.7098;1.7957;
180.3000;0.7082;1.7933;
180.6000;0.7082;1.7887;
180.9000;0.7123;1.7980;
181.2000;0.7074;1.7910;
181.5000;0.7066;1.7980;
181.8000;0.7147;1.8145;
182.1000;0.7106;1.8051;
182.4000;0.7082;1.7933;
182.7000;0.7017;1.7816;
183.0000;0.7057;1.7910;
183.3000;0.7098;1.7980;
183.6000;0.7082;1.7957;
183.9000;0.7098;1.7957;
184.2000;0.6984;1.7675;
184.5000;0.7057;1.7840;
184.8000;0.7066;1.7887;
185.1000;0.7066;1.7816;
185.4000;0.7082;1.7863;
185.7000;0.7074;1.7887;
186.0000;0.7041;1.7699;
186.3000;0.7090;1.7675;
186.6000;0.7082;1.7699;
186.9000;0.7082;1.7746;
187.2000;0.7074;1.7816;
187.5000;0.7082;1.7816;
187.8000;0.7074;1.7840;
188.1000;0.7074;1.7840;
188.4000;0.7114;1.7980;
188.7000;0.7074;1.7957;
189.0000;0.7082;1.7957;
189.3000;0.7074;1.7933;
189.6000;0.7049;1.7840;
189.9000;0.7090;1.7910;
190.2000;0.7090;1.7910;
190.5000;0.7090;1.7769;
190.8000;0.7163;1.7980;
191.1000;0.7066;1.7722;
191.4000;0.7066;1.7675;
191.7000;0.7082;1.7746;
192.0000;0.7082;1.7746;
192.3000;0.7000;1.7534;
192.6000;0.7082;1.7722;
192.9000;0.7017;1.7464;
193.2000;0.7074;1.7675;
193.5000;0.7074;1.7722;
193.8000;0.7106;1.7840;
194.1000;0.7057;1.7699;
194.4000;0.7074;1.7793;
194.7000;0.7082;1.7746;
195.0000;0.7025;1.7652;
195.3000;0.7114;1.7910;
195.6000;0.7066;1.7816;
195.9000;0.7098;1.7840;
196.2000;0.7090;1.7863;
196.5000;0.7090;1.7769;
196.8000;0.7082;1.7769;
197.1000;0.7041;1.7652;
197.4000;0.7090;1.7699;
197.7000;0.7082;1.7628;
198.0000;0.7090;1.7675;
198.3000;0.7098;1.7675;
198.6000;0.7066;1.7558;
198.9000;0.7082;1.7534;
199.2000;0.7082;1.7464;
199.5000;0.7090;1.7417;
199.8000;0.7057;1.7464;
200.1000;0.7066;1.7605;
200.4000;0.7066;1.7558;
200.7000;0.7066;1.7652;
201.0000;0.7074;1.7675;
201.3000;0.7066;1.7722;
201.6000;0.7066;1.7675;
201.9000;0.7066;1.7605;
202.2000;0.7074;1.7534;
202.5000;0.7090;1.7628;
202.8000;0.7090;1.7581;
203.1000;0.7066;1.7558;
203.4000;0.7066;1.7605;
203.7000;0.7066;1.7675;
204.0000;0.7082;1.7793;
204.3000;0.7074;1.7746;
204.6000;0.7009;1.7581;
204.9000;0.7066;1.7652;
205.2000;0.7074;1.7769;
205.5000;0.7074;1.7746;
205.8000;0.7074;1.7675;
206.1000;0.7025;1.7581;
206.4000;0.7066;1.7722;
206.7000;0.7049;1.7722;
207.0000;0.7057;1.7793;
207.3000;0.7074;1.7863;
207.6000;0.7074;1.7840;
207.9000;0.7057;1.7699;
208.2000;0.7049;1.7675;
208.5000;0.7066;1.7769;
208.8000;0.7090;1.7793;
209.1000;0.7066;1.7793;
209.4000;0.7049;1.7722;
209.7000;0.7074;1.7816;
210.0000;0.7074;1.7863;
210.3000;0.7090;1.7933;
210.6000;0.7082;1.7957;
210.9000;0.7057;1.7887;
211.2000;0.7049;1.7863;
211.5000;0.7066;1.7863;
211.8000;0.7066;1.7863;
212.1000;0.7066;1.7863;
212.4000;0.7057;1.7793;
212.7000;0.7057;1.7699;
213.0000;0.7057;1.7699;
213.3000;0.7066;1.7793;
213.6000;0.7057;1.7746;
213.9000;0.7041;1.7675;
214.2000;0.7066;1.7675;
214.5000;0.7074;1.7722;
214.8000;0.7066;1.7746;
215.1000;0.7049;1.7652;
215.4000;0.7139;1.7910;
215.7000;0.7082;1.7722;
216.0000;0.7057;1.7605;
216.3000;0.7074;1.7558;
216.6000;0.7066;1.7628;
216.9000;0.7066;1.7746;
217.2000;0.7090;1.7769;
217.5000;0.6976;1.7558;
217.8000;0.7049;1.7722;
218.1000;0.7033;1.7722;
218.4000;0.7057;1.7793;
218.7000;0.7074;1.7816;
219.0000;0.7057;1.7887;
219.3000;0.7057;1.7887;
219.6000;0.7057;1.7793;
219.9000;0.7074;1.7769;
220.2000;0.7049;1.7746;
220.5000;0.7066;1.7793;
220.8000;0.7066;1.7769;
221.1000;0.7074;1.7699;
221.4000;0.7066;1.7699;
221.7000;0.7057;1.7652;
222.0000;0.7057;1.7605;
222.3000;0.7074;1.7511;
222.6000;0.7057;1.7511;
222.9000;0.7041;1.7511;
223.2000;0.7098;1.7628;
223.5000;0.7106;1.7746;
223.8000;0.7049;1.7652;
224.1000;0.7066;1.7675;
224.4000;0.7049;1.7769;
224.7000;0.7066;1.7816;
225.0000;0.7057;1.7746;
225.3000;0.7082;1.7769;
225.6000;0.7074;1.7793;
225.9000;0.7074;1.7746;
226.2000;0.7049;1.7746;
226.5000;0.7057;1.7769;
226.8000;0.7017;1.7699;
227.1000;0.7074;1.7910;
227.4000;0.7057;1.7910;
227.7000;0.7049;1.7980;
228.0000;0.7049;1.7957;
228.3000;0.7049;1.7980;
228.6000;0.7066;1.7957;
228.9000;0.7074;1.7933;
229.2000;0.6960;1.7652;
229.5000;0.7082;1.7980;
229.8000;0.7082;1.7933;
230.1000;0.7066;1.7863;
230.4000;0.7074;1.7957;
230.7000;0.7131;1.8121;
231.0000;0.7082;1.7980;
231.3000;0.7066;1.7933;
231.6000;0.7049;1.7887;
231.9000;0.7074;1.7840;
232.2000;0.6960;1.7511;
232.5000;0.7066;1.7840;
232.8000;0.7066;1.7863;
233.1000;0.7049;1.7910;
233.4000;0.7057;1.7887;
233.7000;0.7066;1.7933;
234.0000;0.7066;1.8027;
234.3000;0.7049;1.7957;
234.6000;0.7074;1.8051;
234.9000;0.7074;1.8121;
235.2000;0.7033;1.8074;
235.5000;0.7057;1.8098;
235.8000;0.7066;1.8145;
236.1000;0.7057;1.8027;
236.4000;0.7074;1.8051;
236.7000;0.7066;1.8004;
237.0000;0.7082;1.8098;
237.3000;0.7082;1.8192;
237.6000;0.7057;1.8121;
237.9000;0.7074;1.8051;
238.2000;0.7041;1.7933;
238.5000;0.7049;1.7980;
238.8000;0.7057;1.7957;
239.1000;0.7066;1.7980;
239.4000;0.7171;1.8168;
239.7000;0.7057;1.7793;
240.0000;0.7082;1.7863;
240.3000;0.7049;1.7793;
240.6000;0.7074;1.7863;
240.9000;0.6976;1.7722;
241.2000;0.7066;1.7910;
241.5000;0.7066;1.7957;
241.8000;0.7057;1.7910;
242.1000;0.7066;1.7980;
242.4000;0.7082;1.8027;
242.7000;0.7098;1.7957;
243.0000;0.7074;1.7957;
243.3000;0.7082;1.7957;
243.6000;0.7057;1.7887;
243.9000;0.7123;1.8074;
244.2000;0.7025;1.7887;
244.5000;0.7057;1.7980;
244.8000;0.7057;1.7980;
245.1000;0.7066;1.7910;
245.4000;0.7049;1.7840;
245.7000;0.7066;1.7793;
246.0000;0.7066;1.7840;
246.3000;0.7082;1.7910;
246.6000;0.7082;1.8004;
246.9000;0.7082;1.8004;
247.2000;0.7057;1.7887;
247.5000;0.7082;1.8004;
247.8000;0.7082;1.8121;
248.1000;0.7066;1.8051;
248.4000;0.7106;1.8168;
248.7000;0.7074;1.8074;
249.0000;0.7049;1.8074;
249.3000;0.7074;1.8027;
249.6000;0.7025;1.7863;
249.9000;0.7057;1.8004;
250.2000;0.7057;1.8098;
250.5000;0.7066;1.8145;
250.8000;0.7057;1.8074;
251.1000;0.7082;1.8074;
251.4000;0.7066;1.8121;
251.7000;0.7074;1.8145;
252.0000;0.7049;1.8051;
252.3000;0.7057;1.8121;
252.6000;0.7057;1.8168;
252.9000;0.7074;1.8215;
253.2000;0.7074;1.8215;
253.5000;0.7066;1.8145;
253.8000;0.7057;1.8074;
254.1000;0.7057;1.8074;
254.4000;0.7066;1.8121;
254.7000;0.7049;1.8027;
255.0000;0.7057;1.8004;
255.3000;0.7025;1.7863;
255.6000;0.7057;1.8004;
255.9000;0.7057;1.8027;
256.2000;0.7057;1.8121;
256.5000;0.7049;1.8168;
256.8000;0.7066;1.8168;
257.1000;0.7066;1.8215;
257.4000;0.7033;1.8098;
257.7000;0.7057;1.8192;
258.0000;0.7066;1.8239;
258.3000;0.7057;1.8168;
258.6000;0.7066;1.8145;
258.9000;0.7090;1.8215;
259.2000;0.7049;1.8074;
259.5000;0.7066;1.8074;
259.8000;0.7066;1.8051;
260.1000;0.7066;1.8004;
260.4000;0.7057;1.7980;
260.7000;0.7049;1.7933;
261.0000;0.7041;1.7840;
261.3000;0.7057;1.7957;
261.6000;0.7057;1.7933;
261.9000;0.7057;1.7933;
262.2000;0.7049;1.7887;
262.5000;0.7066;1.7887;
262.8000;0.7041;1.7840;
263.1000;0.7049;1.7933;
263.4000;0.7066;1.8004;
263.7000;0.7057;1.7957;
264.0000;0.7041;1.7863;
264.3000;0.7090;1.7957;
264.6000;0.7082;1.7957;
264.9000;0.7049;1.7980;
265.2000;0.7049;1.7980;
265.5000;0.7066;1.8074;
265.8000;0.7057;1.8168;
266.1000;0.7049;1.8098;
266.4000;0.7057;1.8074;
266.7000;0.7033;1.8004;
267.0000;0.7049;1.7957;
267.3000;0.7057;1.8004;
267.6000;0.7033;1.7910;
267.9000;0.7041;1.7887;
268.2000;0.7066;1.7957;
268.5000;0.7057;1.7957;
268.8000;0.7082;1.7980;
269.1000;0.7074;1.7980;
269.4000;0.7057;1.7980;
269.7000;0.7049;1.8027;
270.0000;0.7082;1.8074;
270.3000;0.7041;1.7957;
270.6000;0.7041;1.7933;
270.9000;0.7033;1.7793;
271.2000;0.7025;1.7746;
271.5000;0.7049;1.7746;
271.8000;0.7033;1.7863;
272.1000;0.7057;1.7887;
272.4000;0.7041;1.7840;
272.7000;0.7057;1.7910;
273.0000;0.7049;1.7816;
273.3000;0.7057;1.7816;
273.6000;0.7049;1.7957;
273.9000;0.7041;1.7933;
274.2000;0.7049;1.7863;
274.5000;0.7033;1.7887;
274.8000;0.7033;1.7933;
275.1000;0.7057;1.8027;
275.4000;0.7066;1.8121;
275.7000;0.7033;1.8145;
276.0000;0.7041;1.8215;
276.3000;0.7074;1.8286;
276.6000;0.7009;1.8027;
276.9000;0.7041;1.8027;
277.2000;0.7017;1.7980;
277.5000;0.7049;1.7957;
277.8000;0.7057;1.7980;
278.1000;0.7017;1.7957;
278.4000;0.7049;1.8027;
278.7000;0.7082;1.8027;
279.0000;0.7057;1.7980;
279.3000;0.7066;1.7980;
279.6000;0.7041;1.7957;
279.9000;0.7049;1.7980;
280.2000;0.7114;1.8051;
280.5000;0.7049;1.7887;
280.8000;0.7057;1.7887;
281.1000;0.7049;1.7910;
281.4000;0.7082;1.8027;
281.7000;0.7066;1.7980;
282.0000;0.7033;1.7910;
282.3000;0.7066;1.7933;
282.6000;0.7074;1.7910;
282.9000;0.7057;1.7887;
283.2000;0.7009;1.7769;
283.5000;0.7041;1.7816;
283.8000;0.7049;1.7910;
284.1000;0.7057;1.8027;
284.4000;0.7057;1.8074;
284.7000;0.7082;1.8121;
285.0000;0.7057;1.7957;
285.3000;0.7066;1.7863;
285.6000;0.7049;1.7816;
285.9000;0.7049;1.7793;
286.2000;0.7049;1.7793;
286.5000;0.7049;1.7746;
286.8000;0.7057;1.7722;
287.1000;0.7057;1.7605;
287.4000;0.7147;1.7816;
287.7000;0.7049;1.7605;
288.0000;0.7049;1.7699;
288.3000;0.6992;1.7558;
288.6000;0.7041;1.7746;
288.9000;0.7049;1.7840;
289.2000;0.7057;1.7863;
289.5000;0.7057;1.7769;
289.8000;0.7041;1.7816;
290.1000;0.7057;1.7840;
290.4000;0.7057;1.7863;
290.7000;0.7049;1.7933;
291.0000;0.7049;1.7863;
291.3000;0.7057;1.7887;
291.6000;0.7057;1.7863;
291.9000;0.7041;1.7793;
292.2000;0.7066;1.7769;
292.5000;0.7066;1.7840;
292.8000;0.7049;1.7933;
293.1000;0.7057;1.8027;
293.4000;0.7049;1.7980;
293.7000;0.7033;1.7910;
294.0000;0.7057;1.7910;
294.3000;0.7066;1.7957;
294.6000;0.7057;1.8004;
294.9000;0.7041;1.7887;
295.2000;0.7049;1.7933;
295.5000;0.7066;1.7957;
295.8000;0.7066;1.7980;
296.1000;0.7049;1.8027;
296.4000;0.7041;1.8074;
296.7000;0.7049;1.8074;
297.0000;0.7049;1.8098;
297.3000;0.7041;1.8051;
297.6000;0.7033;1.7933;
297.9000;0.7057;1.7887;
298.2000;0.7049;1.7887;
298.5000;0.7033;1.7863;
298.8000;0.6952;1.7628;
299.1000;0.7025;1.7840;
299.4000;0.7041;1.7816;
299.7000;0.7049;1.7933;
300.0000;0.7033;1.7933;
300.3000;0.7057;1.7957;
300.6000;0.7066;1.8004;
300.9000;0.7057;1.7957;
301.2000;0.7041;1.7910;
301.5000;0.7057;1.7910;
301.8000;0.7049;1.7863;
302.1000;0.7066;1.7887;
302.4000;0.7049;1.7816;
302.7000;0.7049;1.7793;
303.0000;0.7041;1.7863;
303.3000;0.7049;1.7980;
303.6000;0.7049;1.7957;
303.9000;0.7057;1.8074;
304.2000;0.7041;1.7980;
304.5000;0.7033;1.7957;
304.8000;0.7049;1.7933;
305.1000;0.7049;1.7910;
305.4000;0.7033;1.7863;
305.7000;0.7041;1.7863;
306.0000;0.7074;1.7887;
306.3000;0.7049;1.7769;
306.6000;0.7049;1.7675;
306.9000;0.7049;1.7628;
307.2000;0.7041;1.7628;
307.5000;0.7057;1.7652;
307.8000;0.7049;1.7581;
308.1000;0.7041;1.7581;
308.4000;0.7033;1.7652;
308.7000;0.7033;1.7746;
309.0000;0.7025;1.7652;
309.3000;0.7049;1.7699;
309.6000;0.7033;1.7769;
309.9000;0.6960;1.7628;
310.2000;0.7041;1.7793;
310.5000;0.7009;1.7722;
310.8000;0.7049;1.7746;
311.1000;0.7049;1.7652;
311.4000;0.7033;1.7652;
311.7000;0.7025;1.7746;
312.0000;0.7057;1.7746;
312.3000;0.7090;1.7816;
312.6000;0.7041;1.7699;
312.9000;0.7082;1.7746;
313.2000;0.7033;1.7722;
313.5000;0.7131;1.7887;
313.8000;0.7041;1.7769;
314.1000;0.6992;1.7628;
314.4000;0.7009;1.7746;
314.7000;0.7041;1.7699;
315.0000;0.7114;1.7887;
315.3000;0.7106;1.7863;
315.6000;0.7057;1.7793;
315.9000;0.7041;1.7675;
316.2000;0.7049;1.7722;
316.5000;0.7057;1.7769;
316.8000;0.7066;1.7816;
317.1000;0.7033;1.7793;
317.4000;0.7049;1.7863;
317.7000;0.7041;1.7840;
318.0000;0.7049;1.7769;
318.3000;0.7057;1.7793;
318.6000;0.7049;1.7746;
318.9000;0.7049;1.7746;
319.2000;0.7041;1.7699;
319.5000;0.7025;1.7746;
319.8000;0.7041;1.7793;
320.1000;0.7033;1.7769;
320.4000;0.7041;1.7816;
320.7000;0.7041;1.7769;
321.0000;0.7017;1.7699;
321.3000;0.7041;1.7793;
321.6000;0.7041;1.7769;
321.9000;0.7025;1.7746;
322.2000;0.7017;1.7722;
322.5000;0.7049;1.7863;
322.8000;0.7025;1.7887;
323.1000;0.7057;1.7957;
323.4000;0.7041;1.7933;
323.7000;0.7033;1.7933;
324.0000;0.7057;1.7863;
324.3000;0.7041;1.7793;
324.6000;0.7049;1.7746;
324.9000;0.7017;1.7769;
325.2000;0.7025;1.7863;
325.5000;0.7033;1.7887;
325.8000;0.7017;1.7840;
326.1000;0.7041;1.7863;
326.4000;0.7049;1.7840;
326.7000;0.7049;1.7699;
327.0000;0.7049;1.7652;
327.3000;0.7025;1.7675;
327.6000;0.7025;1.7699;
327.9000;0.7033;1.7746;
328.2000;0.7041;1.7816;
328.5000;0.7041;1.7816;
328.8000;0.7041;1.7746;
329.1000;0.7033;1.7816;
329.4000;0.7098;1.7933;
329.7000;0.7009;1.7769;
330.0000;0.7049;1.7933;
330.3000;0.7025;1.7980;
330.6000;0.7049;1.8145;
330.9000;0.7041;1.8027;
331.2000;0.7033;1.7887;
331.5000;0.7049;1.7887;
331.8000;0.7041;1.7863;
332.1000;0.7049;1.7793;
332.4000;0.7041;1.7816;
332.7000;0.7041;1.7933;
333.0000;0.7041;1.8004;
333.3000;0.7041;1.7933;
333.6000;0.7033;1.7933;
333.9000;0.7049;1.7910;
334.2000;0.7033;1.7910;
334.5000;0.6968;1.7722;
334.8000;0.7033;1.7840;
335.1000;0.7049;1.7863;
335.4000;0.7041;1.7840;
335.7000;0.7041;1.7887;
336.0000;0.7049;1.7957;
336.3000;0.7017;1.7863;
336.6000;0.7025;1.7910;
336.9000;0.7025;1.7910;
337.2000;0.7033;1.7933;
337.5000;0.7017;1.7980;
337.8000;0.6976;1.7910;
338.1000;0.7025;1.8121;
338.4000;0.7033;1.8121;
338.7000;0.7033;1.8027;
339.0000;0.7041;1.7980;
339.3000;0.7041;1.7980;
339.6000;0.7049;1.7933;
339.9000;0.7041;1.7816;
340.2000;0.7025;1.7746;
340.5000;0.7041;1.7840;
340.8000;0.7041;1.7887;
341.1000;0.7025;1.7816;
341.4000;0.7033;1.7816;
341.7000;0.7017;1.7769;
342.0000;0.7033;1.7746;
342.3000;0.7000;1.7628;
342.6000;0.7009;1.7769;
342.9000;0.7009;1.7793;
343.2000;0.7009;1.7816;
343.5000;0.7033;1.7840;
343.8000;0.7066;1.7933;
344.1000;0.7025;1.7840;
344.4000;0.7033;1.7793;
344.7000;0.7057;1.7816;
345.0000;0.7025;1.7816;
345.3000;0.7025;1.7793;
345.6000;0.7033;1.7769;
345.9000;0.7033;1.7793;
346.2000;0.7025;1.7769;
346.5000;0.7041;1.7746;
346.8000;0.7033;1.7722;
347.1000;0.7033;1.7722;
347.4000;0.7041;1.7840;
347.7000;0.7049;1.7863;
348.0000;0.7025;1.7769;
348.3000;0.7033;1.7746;
348.6000;0.7017;1.7675;
348.9000;0.7041;1.7769;
349.2000;0.6976;1.7675;
349.5000;0.7049;1.7840;
349.8000;0.7041;1.7769;
350.1000;0.7025;1.7746;
350.4000;0.7017;1.7675;
350.7000;0.7041;1.7793;
351.0000;0.7025;1.7769;
351.3000;0.7033;1.7793;
351.6000;0.7033;1.7722;
351.9000;0.7033;1.7675;
352.2000;0.7041;1.7722;
352.5000;0.7025;1.7675;
352.8000;0.7033;1.7675;
353.1000;0.7033;1.7652;
353.4000;0.6927;1.7347;
353.7000;0.7049;1.7605;
354.0000;0.7025;1.7558;
354.3000;0.7017;1.7558;
354.6000;0.7041;1.7605;
354.9000;0.7057;1.7652;
355.2000;0.7049;1.7605;
355.5000;0.7041;1.7605;
355.8000;0.7041;1.7581;
356.1000;0.7057;1.7675;
356.4000;0.7049;1.7722;
356.7000;0.6952;1.7605;
357.0000;0.7041;1.7816;
357.3000;0.7017;1.7769;
357.6000;0.7049;1.7933;
357.9000;0.7025;1.7863;
358.2000;0.7000;1.7840;
358.5000;0.7025;1.7840;
358.8000;0.7033;1.7793;
359.1000;0.7057;1.7816;
359.4000;0.7033;1.7840;
359.7000;0.7041;1.7980;
360.0000;0.7041;1.8027;
360.3000;0.7025;1.8051;
360.6000;0.7033;1.8051;
360.9000;0.7139;1.8333;
361.2000;0.7033;1.8027;
361.5000;0.7049;1.8051;
361.8000;0.7033;1.8027;
362.1000;0.7017;1.8004;
362.4000;0.7017;1.8098;
362.7000;0.7025;1.8098;
363.0000;0.7033;1.8027;
363.3000;0.7025;1.8004;
363.6000;0.7025;1.7980;
363.9000;0.7057;1.7957;
364.2000;0.7049;1.7887;
364.5000;0.7025;1.7887;
364.8000;0.7025;1.7933;
365.1000;0.7033;1.7910;
365.4000;0.7074;1.7863;
365.7000;0.7049;1.7793;
366.0000;0.7025;1.7769;
366.3000;0.7057;1.7887;
366.6000;0.7041;1.7957;
366.9000;0.7049;1.7980;
367.2000;0.6984;1.7863;
367.5000;0.7033;1.7957;
367.8000;0.7041;1.8051;
368.1000;0.7033;1.8051;
368.4000;0.7009;1.8004;
368.7000;0.7017;1.7933;
369.0000;0.7041;1.8004;
369.3000;0.7041;1.8004;
369.6000;0.6935;1.7699;
369.9000;0.7033;1.8004;
370.2000;0.7033;1.8051;
370.5000;0.7033;1.8051;
370.8000;0.7033;1.8051;
371.1000;0.7017;1.7980;
371.4000;0.7033;1.7957;
371.7000;0.7041;1.8027;
372.0000;0.7025;1.7980;
372.3000;0.7025;1.7910;
372.6000;0.7017;1.7840;
372.9000;0.7082;1.8074;
373.2000;0.7033;1.7980;
373.5000;0.7017;1.7957;
373.8000;0.7025;1.8051;
374.1000;0.7025;1.8121;
374.4000;0.7066;1.8239;
374.7000;0.7025;1.8145;
375.0000;0.6992;1.8098;
375.3000;0.7041;1.8168;
375.6000;0.7033;1.8145;
375.9000;0.7049;1.8098;
376.2000;0.7049;1.8027;
376.5000;0.6927;1.7675;
376.8000;0.7025;1.7910;
377.1000;0.7025;1.7957;
377.4000;0.7025;1.7887;
377.7000;0.7025;1.7887;
378.0000;0.7009;1.7816;
378.3000;0.7025;1.7863;
378.6000;0.7017;1.7887;
378.9000;0.7017;1.7933;
379.2000;0.7025;1.8027;
379.5000;0.7033;1.8121;
379.8000;0.7017;1.7980;
380.1000;0.7017;1.8027;
380.4000;0.7025;1.8027;
380.7000;0.7025;1.8051;
381.0000;0.7025;1.8004;
381.3000;0.7009;1.7957;
381.6000;0.7017;1.8027;
381.9000;0.7033;1.8004;
382.2000;0.7033;1.7980;
382.5000;0.7025;1.7957;
382.8000;0.7025;1.7957;
383.1000;0.7025;1.8051;
383.4000;0.7139;1.8403;
383.7000;0.7009;1.7980;
384.0000;0.7041;1.8098;
384.3000;0.7025;1.8004;
384.6000;0.7033;1.8004;
384.9000;0.7025;1.7933;
385.2000;0.7009;1.7933;
385.5000;0.7009;1.7957;
385.8000;0.7041;1.8027;
386.1000;0.7017;1.8004;
386.4000;0.7017;1.8051;
386.7000;0.7041;1.8027;
387.0000;0.7041;1.8098;
387.3000;0.7033;1.8051;
387.6000;0.7041;1.8027;
387.9000;0.7009;1.7910;
388.2000;0.7066;1.8004;
388.5000;0.7025;1.8004;
388.8000;0.7033;1.8074;
389.1000;0.7025;1.8074;
389.4000;0.7025;1.8121;
389.7000;0.7033;1.8027;
390.0000;0.7000;1.7840;
390.3000;0.7025;1.7910;
390.6000;0.7025;1.7769;
390.9000;0.7041;1.7840;
391.2000;0.7000;1.7722;
391.5000;0.7009;1.7816;
391.8000;0.6984;1.7746;
392.1000;0.7017;1.7840;
392.4000;0.7017;1.7957;
392.7000;0.7017;1.8027;
393.0000;0.7000;1.8027;
393.3000;0.7025;1.8074;
393.6000;0.7009;1.8051;
393.9000;0.7041;1.8027;
394.2000;0.7025;1.8051;
394.5000;0.7000;1.8004;
394.8000;0.7066;1.8121;
395.1000;0.7033;1.8027;
395.4000;0.7041;1.7957;
395.7000;0.7025;1.7910;
396.0000;0.7033;1.7910;
396.3000;0.7033;1.7887;
396.6000;0.7033;1.7933;
396.9000;0.7017;1.7840;
397.2000;0.7009;1.7816;
397.5000;0.7025;1.7840;
397.8000;0.7025;1.7746;
398.1000;0.7025;1.7746;
398.4000;0.6968;1.7534;
398.7000;0.7025;1.7628;
399.0000;0.7041;1.7558;
399.3000;0.7017;1.7605;
399.6000;0.7017;1.7581;
399.9000;0.7041;1.7628;
400.2000;0.6976;1.7534;
400.5000;0.7009;1.7675;
400.8000;0.7000;1.7652;
401.1000;0.7000;1.7699;
401.4000;0.7009;1.7769;
401.7000;0.7025;1.7863;
402.0000;0.7009;1.7699;
402.3000;0.7025;1.7816;
402.6000;0.7025;1.7816;
402.9000;0.7025;1.7863;
403.2000;0.7049;1.7887;
403.5000;0.7025;1.7887;
403.8000;0.7025;1.7887;
404.1000;0.7033;1.7933;
404.4000;0.7033;1.7933;
404.7000;0.7033;1.7957;
405.0000;0.7033;1.7980;
405.3000;0.7090;1.8098;
405.6000;0.7025;1.7933;
405.9000;0.7025;1.7910;
406.2000;0.7025;1.7933;
406.5000;0.7106;1.8098;
406.8000;0.7017;1.7910;
407.1000;0.7025;1.7863;
407.4000;0.7017;1.7840;
407.7000;0.7033;1.7887;
408.0000;0.6992;1.7793;
408.3000;0.7074;1.7957;
408.6000;0.7025;1.7910;
408.9000;0.7033;1.7910;
409.2000;0.7041;1.7933;
409.5000;0.7057;1.7910;
409.8000;0.7033;1.7910;
410.1000;0.7041;1.7957;
410.4000;0.7033;1.7863;
410.7000;0.7041;1.7863;
411.0000;0.7041;1.7816;
411.3000;0.7009;1.7816;
411.6000;0.7033;1.7980;
411.9000;0.7025;1.8004;
412.2000;0.7009;1.7980;
412.5000;0.6992;1.7933;
412.8000;0.7009;1.7933;
413.1000;0.7066;1.8004;
413.4000;0.7025;1.7863;
413.7000;0.7025;1.7816;
414.0000;0.7009;1.7840;
414.3000;0.7057;1.7957;
414.6000;0.7025;1.7840;
414.9000;0.7017;1.7863;
415.2000;0.7017;1.7887;
415.5000;0.7017;1.7910;
415.8000;0.7025;1.7863;
416.1000;0.7017;1.7887;
416.4000;0.7033;1.7957;
416.7000;0.7033;1.7793;
417.0000;0.7025;1.7746;
417.3000;0.7009;1.7793;
417.6000;0.7033;1.7769;
417.9000;0.7017;1.7769;
418.2000;0.6992;1.7840;
418.5000;0.6984;1.7793;
418.8000;0.7017;1.7840;
419.1000;0.7057;1.7957;
419.4000;0.7025;1.7910;
419.7000;0.7033;1.7887;
420.0000;0.7017;1.7793;
420.3000;0.7025;1.7887;
420.6000;0.7017;1.7816;
420.9000;0.7041;1.7816;
421.2000;0.7041;1.7816;
421.5000;0.7033;1.7840;
421.8000;0.7009;1.7863;
422.1000;0.7033;1.8027;
422.4000;0.7009;1.7887;
422.7000;0.7009;1.7887;
423.0000;0.7017;1.7910;
423.3000;0.7025;1.7957;
423.6000;0.7033;1.8027;
423.9000;0.7033;1.8145;
424.2000;0.7017;1.8004;
424.5000;0.7000;1.7980;
424.8000;0.7033;1.8004;
425.1000;0.7009;1.7957;
425.4000;0.7025;1.7980;
425.7000;0.6960;1.7793;
426.0000;0.7025;1.7910;
426.3000;0.7025;1.7910;
426.6000;0.7017;1.7863;
426.9000;0.6927;1.7675;
427.2000;0.6984;1.7840;
427.5000;0.7017;1.7980;
427.8000;0.6992;1.8004;
428.1000;0.7009;1.7980;
428.4000;0.6984;1.8004;
428.7000;0.7025;1.8074;
429.0000;0.7025;1.8051;
429.3000;0.7000;1.7957;
429.6000;0.7025;1.8027;
429.9000;0.7025;1.7933;
430.2000;0.7000;1.7887;
430.5000;0.7041;1.7957;
430.8000;0.7009;1.7863;
431.1000;0.7009;1.7793;
431.4000;0.7033;1.7863;
431.7000;0.7017;1.7863;
432.0000;0.7033;1.7910;
432.3000;0.7049;1.8051;
432.6000;0.7033;1.7933;
432.9000;0.7025;1.8004;
433.2000;0.7033;1.7957;
433.5000;0.7025;1.7957;
433.8000;0.7041;1.7980;
434.1000;0.7082;1.8121;
434.4000;0.7009;1.7957;
434.7000;0.7009;1.7933;
435.0000;0.7041;1.8004;
435.3000;0.7025;1.8027;
435.6000;0.7017;1.8074;
435.9000;0.7000;1.8051;
436.2000;0.7017;1.8145;
436.5000;0.7017;1.8121;
436.8000;0.7000;1.8051;
437.1000;0.7009;1.8051;
437.4000;0.7017;1.8004;
437.7000;0.7009;1.7980;
438.0000;0.7009;1.7957;
438.3000;0.7009;1.7887;
438.6000;0.7025;1.7957;
438.9000;0.7009;1.8027;
439.2000;0.7009;1.7980;
439.5000;0.7009;1.7933;
439.8000;0.7017;1.7980;
440.1000;0.7033;1.8051;
440.4000;0.7033;1.8004;
440.7000;0.7074;1.8145;
441.0000;0.7033;1.8004;
441.3000;0.7017;1.7957;
441.6000;0.7017;1.7957;
441.9000;0.7025;1.7980;
442.2000;0.7017;1.8027;
442.5000;0.7041;1.8098;
442.8000;0.7009;1.8004;
443.1000;0.7017;1.8027;
443.4000;0.7033;1.7957;
443.7000;0.7017;1.7957;
444.0000;0.7000;1.7887;
444.3000;0.7000;1.7980;
444.6000;0.7009;1.8074;
444.9000;0.6992;1.8027;
445.2000;0.7009;1.8168;
445.5000;0.7017;1.8168;
445.8000;0.7017;1.8192;
446.1000;0.7000;1.8192;
446.4000;0.6984;1.8215;
446.7000;0.6976;1.8262;
447.0000;0.7017;1.8286;
447.3000;0.7017;1.8192;
447.6000;0.7009;1.8098;
447.9000;0.7009;1.8121;
448.2000;0.7025;1.8215;
448.5000;0.7017;1.8145;
448.8000;0.7049;1.8098;
449.1000;0.7017;1.8051;
449.4000;0.7000;1.7933;
449.7000;0.7131;1.8286;
450.0000;0.7025;1.8027;
450.3000;0.7025;1.7933;
450.6000;0.7025;1.7863;
450.9000;0.7009;1.7793;
451.2000;0.6960;1.7699;
451.5000;0.7009;1.7793;
451.8000;0.7000;1.7840;
452.1000;0.7025;1.7793;
452.4000;0.7000;1.7793;
452.7000;0.7033;1.7816;
453.0000;0.7033;1.7910;
453.3000;0.7057;1.8004;
453.6000;0.7017;1.7840;
453.9000;0.6992;1.7840;
454.2000;0.7000;1.7910;
454.5000;0.7009;1.7980;
454.8000;0.6968;1.7816;
455.1000;0.7017;1.7957;
455.4000;0.7009;1.8004;
455.7000;0.7009;1.8051;
456.0000;0.7017;1.8051;
456.3000;0.6992;1.8004;
456.6000;0.7009;1.8074;
456.9000;0.6992;1.7980;
457.2000;0.7025;1.8074;
457.5000;0.7000;1.8121;
457.8000;0.7025;1.8121;
458.1000;0.7025;1.8121;
458.4000;0.7017;1.8168;
458.7000;0.6992;1.8168;
459.0000;0.7009;1.8121;
459.3000;0.7009;1.8051;
459.6000;0.7025;1.8051;
459.9000;0.7009;1.8051;
460.2000;0.7000;1.8004;
460.5000;0.7009;1.7957;
460.8000;0.7114;1.8168;
461.1000;0.6984;1.7863;
461.4000;0.7000;1.7957;
461.7000;0.6984;1.7957;
462.0000;0.7009;1.7980;
462.3000;0.7009;1.7910;
462.6000;0.7000;1.7840;
462.9000;0.6984;1.7793;
463.2000;0.7017;1.7840;
463.5000;0.7009;1.7863;
463.8000;0.7009;1.7957;
464.1000;0.6984;1.7887;
464.4000;0.7000;1.7887;
464.7000;0.7000;1.7910;
465.0000;0.7000;1.7887;
465.3000;0.6976;1.7840;
465.6000;0.6984;1.7816;
465.9000;0.6992;1.7887;
466.2000;0.7000;1.7910;
466.5000;0.7017;1.7840;
466.8000;0.7000;1.7840;
467.1000;0.7057;1.8004;
467.4000;0.7017;1.7957;
467.7000;0.7000;1.7957;
468.0000;0.6976;1.7933;
468.3000;0.7017;1.8004;
468.6000;0.7017;1.8004;
468.9000;0.7025;1.7957;
469.2000;0.7009;1.7933;
469.5000;0.7009;1.7910;
469.8000;0.7017;1.8027;
470.1000;0.7000;1.8051;
470.4000;0.6952;1.7887;
470.7000;0.6984;1.8051;
471.0000;0.7000;1.8051;
471.3000;0.7000;1.8027;
471.6000;0.7057;1.8145;
471.9000;0.6992;1.7957;
472.2000;0.7017;1.8051;
472.5000;0.7009;1.8027;
472.8000;0.7017;1.8027;
473.1000;0.6976;1.7887;
473.4000;0.7009;1.7840;
473.7000;0.7025;1.7840;
474.0000;0.7017;1.7816;
474.3000;0.7009;1.7816;
474.6000;0.7017;1.7840;
474.9000;0.6992;1.7699;
475.2000;0.7017;1.7816;
475.5000;0.7000;1.7793;
475.8000;0.7000;1.7910;
476.1000;0.6984;1.7933;
476.4000;0.7017;1.8145;
476.7000;0.7017;1.8145;
477.0000;0.7009;1.8027;
477.3000;0.7017;1.8121;
477.6000;0.7017;1.8121;
477.9000;0.7009;1.8051;
478.2000;0.7000;1.7910;
478.5000;0.7017;1.7910;
478.8000;0.7025;1.7980;
479.1000;0.7025;1.8074;
479.4000;0.6992;1.8121;
479.7000;0.7009;1.8145;
480.0000;0.7009;1.8168;
480.3000;0.7025;1.8192;
480.6000;0.6984;1.8121;
480.9000;0.7009;1.7980;
481.2000;0.7009;1.7933;
481.5000;0.7017;1.7887;
481.8000;0.7033;1.7887;
482.1000;0.7000;1.7793;
482.4000;0.7009;1.7769;
482.7000;0.7009;1.7793;
483.0000;0.7033;1.7863;
483.3000;0.6968;1.7769;
483.6000;0.7000;1.7816;
483.9000;0.7009;1.7933;
484.2000;0.7009;1.7863;
484.5000;0.7000;1.7863;
484.8000;0.7017;1.7816;
485.1000;0.7066;1.7933;
485.4000;0.7041;1.7933;
485.7000;0.7041;1.8004;
486.0000;0.7057;1.8074;
486.3000;0.7017;1.8004;
486.6000;0.7009;1.7957;
486.9000;0.7017;1.7887;
487.2000;0.6992;1.7769;
487.5000;0.7009;1.7887;
487.8000;0.7017;1.7910;
488.1000;0.7000;1.7863;
488.4000;0.7000;1.7863;
488.7000;0.6992;1.7840;
489.0000;0.7000;1.7910;
489.3000;0.6992;1.7957;
489.6000;0.7009;1.8004;
489.9000;0.7009;1.7910;
490.2000;0.7000;1.7957;
490.5000;0.7017;1.8004;
490.8000;0.7009;1.8004;
491.1000;0.7009;1.7933;
491.4000;0.6992;1.7816;
491.7000;0.6976;1.7793;
492.0000;0.6976;1.7722;
492.3000;0.6968;1.7746;
492.6000;0.6992;1.7793;
492.9000;0.7000;1.7816;
493.2000;0.7000;1.7957;
493.5000;0.7000;1.7910;
493.8000;0.6992;1.7840;
494.1000;0.7017;1.7887;
494.4000;0.6952;1.7863;
494.7000;0.7000;1.8027;
495.0000;0.7000;1.8004;
495.3000;0.7017;1.8051;
495.6000;0.7041;1.8098;
495.9000;0.7017;1.8027;
496.2000;0.7017;1.7980;
496.5000;0.7000;1.7957;
496.8000;0.7009;1.7957;
497.1000;0.7017;1.7957;
497.4000;0.6992;1.7910;
497.7000;0.7009;1.7957;
498.0000;0.6992;1.7840;
498.3000;0.7025;1.7887;
498.6000;0.7009;1.7957;
498.9000;0.7057;1.8051;
499.2000;0.6992;1.7933;
499.5000;0.7009;1.7910;
499.8000;0.7017;1.7910;
500.1000;0.6984;1.7816;
500.4000;0.7009;1.7957;
500.7000;0.7000;1.8004;
501.0000;0.7017;1.8051;
501.3000;0.7000;1.8004;
501.6000;0.7009;1.8051;
501.9000;0.7090;1.8286;
502.2000;0.7025;1.8098;
502.5000;0.6992;1.7980;
502.8000;0.7017;1.8098;
503.1000;0.7033;1.8098;
503.4000;0.7000;1.8074;
503.7000;0.6992;1.8098;
504.0000;0.7033;1.8215;
504.3000;0.6992;1.8074;
504.6000;0.6992;1.8051;
504.9000;0.7123;1.8309;
505.2000;0.7009;1.7980;
505.5000;0.7009;1.7957;
505.8000;0.7017;1.7980;
506.1000;0.6984;1.7910;
506.4000;0.7000;1.7980;
506.7000;0.6976;1.7933;
507.0000;0.6976;1.7933;
507.3000;0.7017;1.8051;
507.6000;0.7000;1.7980;
507.9000;0.6992;1.7980;
508.2000;0.7066;1.8098;
508.5000;0.7000;1.7980;
508.8000;0.7025;1.7980;
509.1000;0.7033;1.8004;
509.4000;0.6992;1.8027;
509.7000;0.6903;1.7840;
510.0000;0.7009;1.8027;
510.3000;0.6952;1.7887;
510.6000;0.6976;1.7933;
510.9000;0.7009;1.8004;
511.2000;0.7000;1.7957;
511.5000;0.6984;1.7957;
511.8000;0.7000;1.8004;
512.1000;0.7009;1.7980;
512.4000;0.7000;1.7980;
512.7000;0.7009;1.7980;
513.0000;0.6984;1.8051;
513.3000;0.6984;1.8027;
513.6000;0.7000;1.8098;
513.9000;0.7000;1.8027;
514.2000;0.7000;1.7957;
514.5000;0.6976;1.7863;
514.8000;0.7000;1.7887;
515.1000;0.7009;1.7793;
515.4000;0.6992;1.7722;
515.7000;0.6992;1.7793;
516.0000;0.7009;1.7933;
516.3000;0.7000;1.7910;
516.6000;0.7000;1.7816;
516.9000;0.7000;1.7840;
517.2000;0.6968;1.7816;
517.5000;0.7000;1.7840;
517.8000;0.7000;1.7793;
518.1000;0.6919;1.7605;
518.4000;0.7000;1.7863;
518.7000;0.7009;1.7933;
519.0000;0.6968;1.7887;
519.3000;0.7009;1.8074;
519.6000;0.7009;1.8004;
519.9000;0.6992;1.7957;
520.2000;0.7017;1.8004;
520.5000;0.7009;1.7933;
520.8000;0.6992;1.7980;
521.1000;0.6976;1.7887;
521.4000;0.6992;1.7793;
521.7000;0.7017;1.7816;
522.0000;0.7009;1.7746;
522.3000;0.6960;1.7675;
522.6000;0.6984;1.7769;
522.9000;0.7017;1.7840;
523.2000;0.7000;1.7816;
523.5000;0.7017;1.7840;
523.8000;0.7074;1.8027;
524.1000;0.6992;1.7933;
524.4000;0.7009;1.7980;
524.7000;0.6984;1.7980;
525.0000;0.6992;1.8051;
525.3000;0.6927;1.7793;
525.6000;0.7009;1.7980;
525.9000;0.7000;1.7980;
526.2000;0.7000;1.7933;
526.5000;0.6992;1.7910;
526.8000;0.6984;1.7957;
527.1000;0.6992;1.7910;
527.4000;0.7017;1.8004;
527.7000;0.6992;1.8051;
528.0000;0.6992;1.8051;
528.3000;0.6984;1.8098;
528.6000;0.6984;1.8145;
528.9000;0.7057;1.8239;
529.2000;0.7090;1.8262;
529.5000;0.7017;1.8051;
529.8000;0.7000;1.8145;
530.1000;0.6992;1.8192;
530.4000;0.7000;1.8145;
530.7000;0.7000;1.8074;
531.0000;0.6976;1.7980;
531.3000;0.6976;1.7933;
531.6000;0.6976;1.7933;
531.9000;0.6976;1.7933;
532.2000;0.6984;1.7863;
532.5000;0.7000;1.7840;
532.8000;0.7017;1.7980;
533.1000;0.6984;1.7957;
533.4000;0.7000;1.7957;
533.7000;0.6984;1.7980;
534.0000;0.7000;1.8027;
534.3000;0.7057;1.8333;
534.6000;0.6943;1.8098;
534.9000;0.6992;1.8192;
535.2000;0.6984;1.8192;
535.5000;0.7000;1.8121;
535.8000;0.6992;1.8004;
536.1000;0.7009;1.8098;
536.4000;0.6984;1.8098;
536.7000;0.7074;1.8262;
537.0000;0.7009;1.8121;
537.3000;0.7009;1.8121;
537.6000;0.6984;1.8027;
537.9000;0.6992;1.8074;
538.2000;0.7009;1.8098;
538.5000;0.7106;1.8262;
538.8000;0.6984;1.7887;
539.1000;0.6984;1.7957;
539.4000;0.7000;1.8004;
539.7000;0.7009;1.7980;
540.0000;0.7009;1.8027;
540.3000;0.6992;1.7910;
540.6000;0.6935;1.7840;
540.9000;0.6992;1.7887;
541.2000;0.6952;1.7840;
541.5000;0.7049;1.8098;
541.8000;0.7009;1.7933;
542.1000;0.6992;1.7933;
542.4000;0.6984;1.7933;
542.7000;0.6984;1.7933;
543.0000;0.7000;1.7910;
543.3000;0.6976;1.7816;
543.6000;0.7041;1.7957;
543.9000;0.7000;1.7816;
544.2000;0.7009;1.7863;
544.5000;0.7017;1.7957;
544.8000;0.7000;1.7887;
545.1000;0.6992;1.7910;
545.4000;0.6976;1.7957;
545.7000;0.6992;1.7980;
546.0000;0.6992;1.8004;
546.3000;0.6976;1.7980;
546.6000;0.6960;1.7957;
546.9000;0.6968;1.8027;
547.2000;0.6984;1.8145;
547.5000;0.6992;1.8192;
547.8000;0.6919;1.7933;
548.1000;0.6984;1.8051;
548.4000;0.6976;1.8074;
548.7000;0.7009;1.8121;
549.0000;0.6984;1.8145;
549.3000;0.6968;1.8074;
549.6000;0.6984;1.8027;
549.9000;0.6992;1.8051;
550.2000;0.7000;1.8004;
550.5000;0.7049;1.8051;
550.8000;0.6992;1.7887;
551.1000;0.7009;1.7933;
551.4000;0.7009;1.8004;
551.7000;0.6984;1.7933;
552.0000;0.6984;1.7957;
552.3000;0.6976;1.8004;
552.6000;0.7000;1.8051;
552.9000;0.6992;1.8027;
553.2000;0.6992;1.8004;
553.5000;0.7000;1.8027;
553.8000;0.7009;1.8121;
554.1000;0.6992;1.8074;
554.4000;0.6984;1.8074;
554.7000;0.7009;1.8074;
555.0000;0.7000;1.7933;
555.3000;0.6984;1.7957;
555.6000;0.6984;1.7933;
555.9000;0.6968;1.7910;
556.2000;0.6992;1.7933;
556.5000;0.7009;1.7957;
556.8000;0.7000;1.7957;
557.1000;0.6960;1.7863;
557.4000;0.6984;1.7980;
557.7000;0.7009;1.8004;
558.0000;0.7000;1.7910;
558.3000;0.7000;1.7863;
558.6000;0.7009;1.7816;
558.9000;0.6992;1.7793;
559.2000;0.7041;1.7933;
559.5000;0.7000;1.7910;
559.8000;0.6968;1.7887;
560.1000;0.6976;1.7840;
560.4000;0.6984;1.7887;
560.7000;0.6984;1.7910;
561.0000;0.6992;1.7910;
561.3000;0.6992;1.7863;
561.6000;0.7009;1.7957;
561.9000;0.6992;1.7933;
562.2000;0.7066;1.7910;
562.5000;0.6976;1.7769;
562.8000;0.7017;1.7816;
563.1000;0.7000;1.7863;
563.4000;0.7000;1.7910;
563.7000;0.7017;1.8074;
564.0000;0.7009;1.8027;
564.3000;0.6911;1.7722;
564.6000;0.6968;1.7910;
564.9000;0.7000;1.7980;
565.2000;0.7009;1.7980;
565.5000;0.6992;1.7957;
565.8000;0.6992;1.7980;
566.1000;0.6976;1.8098;
566.4000;0.6976;1.8004;
566.7000;0.7057;1.8309;
567.0000;0.6992;1.8168;
567.3000;0.6960;1.8121;
567.6000;0.6952;1.8098;
567.9000;0.6976;1.8074;
568.2000;0.6984;1.8121;
568.5000;0.6960;1.8098;
568.8000;0.6976;1.8145;
569.1000;0.6992;1.8051;
569.4000;0.7009;1.8004;
569.7000;0.6976;1.7957;
570.0000;0.6960;1.7957;
570.3000;0.6992;1.8027;
570.6000;0.6968;1.8074;
570.9000;0.6984;1.8145;
571.2000;0.6992;1.8168;
571.5000;0.6984;1.8145;
571.8000;0.6976;1.8145;
572.1000;0.6992;1.8145;
572.4000;0.6976;1.8239;
572.7000;0.6960;1.8215;
573.0000;0.6976;1.8239;
573.3000;0.6984;1.8262;
573.6000;0.6968;1.8286;
573.9000;0.6992;1.8309;
574.2000;0.6976;1.8286;
574.5000;0.7000;1.8262;
574.8000;0.6984;1.8121;
575.1000;0.6984;1.8074;
575.4000;0.6984;1.8121;
575.7000;0.6992;1.8168;
576.0000;0.6984;1.8145;
576.3000;0.6992;1.8262;
576.6000;0.6968;1.8262;
576.9000;0.6984;1.8262;
577.2000;0.7000;1.8262;
577.5000;0.6976;1.8192;
577.8000;0.6952;1.8145;
578.1000;0.6952;1.8239;
578.4000;0.7009;1.8379;
578.7000;0.6984;1.8356;
579.0000;0.6960;1.8215;
579.3000;0.6968;1.8168;
579.6000;0.7009;1.8239;
579.9000;0.6984;1.8145;
580.2000;0.6976;1.8168;
580.5000;0.6984;1.8168;
580.8000;0.6984;1.8121;
581.1000;0.7066;1.8309;
581.4000;0.6960;1.8051;
581.7000;0.6984;1.8027;
582.0000;0.6976;1.8074;
582.3000;0.6992;1.8168;
582.6000;0.6992;1.8192;
582.9000;0.6976;1.8051;
583.2000;0.7009;1.8168;
583.5000;0.6984;1.8215;
583.8000;0.6992;1.8239;
584.1000;0.6984;1.8239;
584.4000;0.6984;1.8145;
584.7000;0.6976;1.8051;
585.0000;0.6960;1.8027;
585.3000;0.7009;1.8027;
585.6000;0.6960;1.7910;
585.9000;0.6976;1.8027;
586.2000;0.6976;1.8027;
586.5000;0.7033;1.8168;
586.8000;0.6976;1.8004;
587.1000;0.6952;1.7887;
587.4000;0.6984;1.7957;
587.7000;0.6960;1.7887;
588.0000;0.6976;1.7980;
588.3000;0.6976;1.8004;
588.6000;0.6862;1.7628;
588.9000;0.6984;1.7910;
589.2000;0.7017;1.7980;
589.5000;0.6984;1.7910;
589.8000;0.6984;1.8027;
590.1000;0.6984;1.8145;
590.4000;0.6984;1.8074;
590.7000;0.6976;1.8145;
591.0000;0.6992;1.8239;
591.3000;0.6984;1.8168;
591.6000;0.6976;1.8168;
591.9000;0.6968;1.8121;
592.2000;0.6976;1.8121;
592.5000;0.6984;1.8168;
592.8000;0.6968;1.8145;
593.1000;0.6976;1.8121;
593.4000;0.6984;1.8145;
593.7000;0.7000;1.8121;
594.0000;0.6984;1.8121;
594.3000;0.6984;1.8004;
594.6000;0.6960;1.8027;
594.9000;0.6976;1.8027;
595.2000;0.6960;1.8074;
595.5000;0.6976;1.8168;
595.8000;0.6984;1.8168;
596.1000;0.6935;1.8074;
596.4000;0.6968;1.8121;
596.7000;0.6976;1.8168;
597.0000;0.6935;1.7957;
597.3000;0.6968;1.8051;
597.6000;0.6992;1.8051;
597.9000;0.6968;1.8027;
598.2000;0.6992;1.8051;
598.5000;0.6976;1.8004;
598.8000;0.6984;1.8027;
599.1000;0.6992;1.8051;
599.4000;0.6976;1.7957;
599.7000;0.6984;1.7933;
600.0000;0.6984;1.8004;
600.3000;0.6976;1.7840;
600.6000;0.7009;1.7699;
600.9000;0.6952;1.7417;
601.2000;0.6903;1.7300;
601.5000;0.6870;1.7253;
601.8000;0.6805;1.7112;
602.1000;0.6789;1.7065;
602.4000;0.6716;1.6713;
602.7000;0.6667;1.6502;
603.0000;0.6618;1.6431;
603.3000;0.6577;1.6290;
603.6000;0.6528;1.6103;
603.9000;0.6479;1.5891;
604.2000;0.6471;1.5844;
604.5000;0.6414;1.5750;
604.8000;0.6365;1.5680;
605.1000;0.6365;1.5704;
605.4000;0.6300;1.5633;
605.7000;0.6227;1.5398;
606.0000;0.6227;1.5492;
606.3000;0.6203;1.5398;
606.6000;0.6170;1.5328;
606.9000;0.6121;1.5211;
607.2000;0.6097;1.5140;
607.5000;0.6081;1.5140;
607.8000;0.6072;1.5117;
608.1000;0.6032;1.5093;
608.4000;0.6015;1.5070;
608.7000;0.5958;1.4976;
609.0000;0.5967;1.5046;
609.3000;0.5950;1.4999;
609.6000;0.5918;1.4929;
609.9000;0.5902;1.4929;
610.2000;0.5836;1.4905;
610.5000;0.5869;1.4976;
610.8000;0.5796;1.4812;
611.1000;0.5820;1.4812;
611.4000;0.5804;1.4835;
611.7000;0.5763;1.4741;
612.0000;0.5747;1.4741;
612.3000;0.5731;1.4765;
612.6000;0.5706;1.4694;
612.9000;0.5682;1.4647;
613.2000;0.5690;1.4694;
613.5000;0.5633;1.4577;
613.8000;0.5633;1.4647;
614.1000;0.5625;1.4671;
614.4000;0.5617;1.4671;
614.7000;0.5592;1.4624;
615.0000;0.5568;1.4506;
615.3000;0.5568;1.4553;
615.6000;0.5543;1.4530;
615.9000;0.5527;1.4600;
616.2000;0.5495;1.4600;
616.5000;0.5486;1.4647;
616.8000;0.5470;1.4647;
617.1000;0.5478;1.4671;
617.4000;0.5462;1.4577;
617.7000;0.5413;1.4483;
618.0000;0.5429;1.4319;
618.3000;0.5413;1.4272;
618.6000;0.5389;1.4272;
618.9000;0.5397;1.4319;
619.2000;0.5389;1.4295;
619.5000;0.5372;1.4272;
619.8000;0.5364;1.4272;
620.1000;0.5348;1.4295;
620.4000;0.5348;1.4154;
620.7000;0.5340;1.4131;
621.0000;0.5324;1.4225;
621.3000;0.5291;1.4154;
621.6000;0.5299;1.4248;
621.9000;0.5299;1.4225;
622.2000;0.5291;1.4225;
622.5000;0.5258;1.4178;
622.8000;0.5250;1.4154;
623.1000;0.5307;1.4272;
623.4000;0.5234;1.4201;
623.7000;0.5218;1.4248;
624.0000;0.5210;1.4272;
624.3000;0.5201;1.4225;
624.6000;0.5201;1.4178;
624.9000;0.5177;1.4131;
625.2000;0.5169;1.4037;
625.5000;0.5161;1.4037;
625.8000;0.5161;1.4060;
626.1000;0.5136;1.4037;
626.4000;0.5120;1.3967;
626.7000;0.5128;1.3990;
627.0000;0.5120;1.4060;
627.3000;0.5088;1.4060;
627.6000;0.5120;1.4107;
627.9000;0.5120;1.4201;
628.2000;0.5079;1.4131;
628.5000;0.5079;1.4107;
628.8000;0.5031;1.4060;
629.1000;0.5063;1.4131;
629.4000;0.5047;1.4225;
629.7000;0.5071;1.4295;
630.0000;0.5055;1.4225;
630.3000;0.5031;1.4107;
630.6000;0.5047;1.4154;
630.9000;0.5079;1.4272;
631.2000;0.5014;1.4131;
631.5000;0.5014;1.4107;
631.8000;0.5014;1.4107;
632.1000;0.5006;1.4107;
632.4000;0.5022;1.4178;
632.7000;0.4990;1.4107;
633.0000;0.4965;1.4060;
633.3000;0.4974;1.4060;
633.6000;0.4974;1.3990;
633.9000;0.4974;1.4037;
634.2000;0.4974;1.4060;
634.5000;0.4957;1.4084;
634.8000;0.4974;1.4248;
635.1000;0.4957;1.4248;
635.4000;0.4949;1.4295;
635.7000;0.4941;1.4319;
636.0000;0.4941;1.4248;
636.3000;0.4925;1.4225;
636.6000;0.4917;1.4225;
636.9000;0.4908;1.4201;
637.2000;0.4908;1.4201;
637.5000;0.4917;1.4178;
637.8000;0.4908;1.4201;
638.1000;0.4884;1.4178;
638.4000;0.4884;1.4107;
638.7000;0.4908;1.4201;
639.0000;0.4876;1.4131;
639.3000;0.4868;1.4107;
639.6000;0.4868;1.4037;
639.9000;0.4876;1.4013;
640.2000;0.4868;1.4013;
640.5000;0.4843;1.3990;
640.8000;0.4843;1.3943;
641.1000;0.4851;1.3990;
641.4000;0.4851;1.4013;
641.7000;0.4811;1.3920;
642.0000;0.4892;1.4201;
642.3000;0.4827;1.4131;
642.6000;0.4811;1.4154;
642.9000;0.4819;1.4178;
643.2000;0.4819;1.4131;
643.5000;0.4811;1.4107;
643.8000;0.4819;1.4131;
644.1000;0.4884;1.4272;
644.4000;0.4794;1.4084;
644.7000;0.4786;1.4037;
645.0000;0.4811;1.4013;
645.3000;0.4770;1.3873;
645.6000;0.4786;1.3967;
645.9000;0.4770;1.4013;
646.2000;0.4786;1.4107;
646.5000;0.4786;1.4084;
646.8000;0.4762;1.4037;
647.1000;0.4762;1.4013;
647.4000;0.4770;1.3943;
647.7000;0.4770;1.3967;
648.0000;0.4794;1.4131;
648.3000;0.4746;1.4107;
648.6000;0.4737;1.4107;
648.9000;0.4803;1.4342;
649.2000;0.4754;1.4178;
649.5000;0.4713;1.4178;
649.8000;0.4672;1.3990;
650.1000;0.4729;1.4131;
650.4000;0.4737;1.4107;
650.7000;0.4737;1.4131;
651.0000;0.4713;1.4060;
651.3000;0.4746;1.4201;
651.6000;0.4689;1.4013;
651.9000;0.4615;1.3896;
652.2000;0.4721;1.4107;
652.5000;0.4583;1.3779;
652.8000;0.4705;1.4084;
653.1000;0.4713;1.4060;
653.4000;0.4697;1.3990;
653.7000;0.4705;1.3967;
654.0000;0.4697;1.3943;
654.3000;0.4689;1.3849;
654.6000;0.4713;1.3943;
654.9000;0.4656;1.3802;
655.2000;0.4689;1.3967;
655.5000;0.4681;1.3990;
655.8000;0.4664;1.4013;
656.1000;0.4681;1.4037;
656.4000;0.4640;1.3967;
656.7000;0.4672;1.4013;
657.0000;0.4656;1.3967;
657.3000;0.4705;1.4154;
657.6000;0.4664;1.4107;
657.9000;0.4624;1.4037;
658.2000;0.4697;1.4272;
658.5000;0.4729;1.4201;
658.8000;0.4656;1.3967;
659.1000;0.4705;1.4107;
659.4000;0.4672;1.3990;
659.7000;0.4648;1.3920;
660.0000;0.4656;1.3990;
660.3000;0.4640;1.3967;
660.6000;0.4640;1.3990;
660.9000;0.4640;1.3943;
661.2000;0.4640;1.3873;
661.5000;0.4640;1.3849;
661.8000;0.4689;1.3990;
662.1000;0.4648;1.3896;
662.4000;0.4632;1.3896;
662.7000;0.4624;1.3967;
663.0000;0.4550;1.3732;
663.3000;0.4624;1.3967;
663.6000;0.4640;1.4107;
663.9000;0.4624;1.4084;
664.2000;0.4615;1.4060;
664.5000;0.4615;1.4060;
664.8000;0.4632;1.4084;
665.1000;0.4599;1.3990;
665.4000;0.4607;1.3943;
665.7000;0.4615;1.3990;
666.0000;0.4632;1.4013;
666.3000;0.4632;1.3990;
666.6000;0.4624;1.4013;
666.9000;0.4615;1.4060;
667.2000;0.4607;1.4107;
667.5000;0.4599;1.4131;
667.8000;0.4607;1.4178;
668.1000;0.4615;1.4178;
668.4000;0.4607;1.4131;
668.7000;0.4607;1.4178;
669.0000;0.4583;1.4178;
669.3000;0.4599;1.4248;
669.6000;0.4591;1.4178;
669.9000;0.4607;1.4272;
670.2000;0.4615;1.4248;
670.5000;0.4599;1.4178;
670.8000;0.4493;1.3943;
671.1000;0.4607;1.4225;
671.4000;0.4599;1.4131;
671.7000;0.4607;1.4107;
672.0000;0.4575;1.4013;
672.3000;0.4558;1.3990;
672.6000;0.4550;1.3967;
672.9000;0.4591;1.4013;
673.2000;0.4518;1.3826;
673.5000;0.4591;1.4154;
673.8000;0.4575;1.4178;
674.1000;0.4567;1.4225;
674.4000;0.4501;1.4060;
674.7000;0.4567;1.4201;
675.0000;0.4567;1.4201;
675.3000;0.4575;1.4225;
675.6000;0.4485;1.3943;
675.9000;0.4567;1.4319;
676.2000;0.4469;1.4060;
676.5000;0.4567;1.4248;
676.8000;0.4550;1.4178;
677.1000;0.4558;1.4154;
677.4000;0.4558;1.4248;
677.7000;0.4567;1.4342;
678.0000;0.4558;1.4413;
678.3000;0.4542;1.4366;
678.6000;0.4550;1.4342;
678.9000;0.4567;1.4319;
679.2000;0.4615;1.4436;
679.5000;0.4567;1.4201;
679.8000;0.4567;1.4248;
680.1000;0.4542;1.4225;
680.4000;0.4501;1.4037;
680.7000;0.4550;1.4154;
681.0000;0.4550;1.4201;
681.3000;0.4583;1.4272;
681.6000;0.4518;1.4154;
681.9000;0.4550;1.4248;
682.2000;0.4542;1.4295;
682.5000;0.4534;1.4366;
682.8000;0.4485;1.4319;
683.1000;0.4550;1.4483;
683.4000;0.4510;1.4366;
683.7000;0.4615;1.4577;
684.0000;0.4550;1.4413;
684.3000;0.4550;1.4389;
684.6000;0.4510;1.4272;
684.9000;0.4558;1.4319;
685.2000;0.4534;1.4389;
685.5000;0.4542;1.4389;
685.8000;0.4542;1.4366;
686.1000;0.4550;1.4389;
686.4000;0.4526;1.4342;
686.7000;0.4518;1.4272;
687.0000;0.4510;1.4225;
687.3000;0.4518;1.4107;
687.6000;0.4501;1.4107;
687.9000;0.4501;1.4084;
688.2000;0.4518;1.4131;
688.5000;0.4518;1.4225;
688.8000;0.4510;1.4248;
689.1000;0.4510;1.4201;
689.4000;0.4518;1.4131;
689.7000;0.4518;1.4225;
690.0000;0.4510;1.4201;
690.3000;0.4485;1.4060;
690.6000;0.4526;1.4154;
690.9000;0.4591;1.4366;
691.2000;0.4510;1.4154;
691.5000;0.4526;1.4225;
691.8000;0.4518;1.4178;
692.1000;0.4542;1.4201;
692.4000;0.4526;1.4037;
692.7000;0.4493;1.4060;
693.0000;0.4510;1.4178;
693.3000;0.4526;1.4201;
693.6000;0.4518;1.4366;
693.9000;0.4501;1.4366;
694.2000;0.4518;1.4366;
694.5000;0.4526;1.4248;
694.8000;0.4501;1.4295;
695.1000;0.4501;1.4295;
695.4000;0.4501;1.4272;
695.7000;0.4493;1.4319;
696.0000;0.4542;1.4483;
696.3000;0.4469;1.4248;
696.6000;0.4493;1.4389;
696.9000;0.4469;1.4366;
697.2000;0.4493;1.4413;
697.5000;0.4526;1.4506;
697.8000;0.4485;1.4366;
698.1000;0.4599;1.4671;
698.4000;0.4428;1.4225;
698.7000;0.4542;1.4506;
699.0000;0.4477;1.4436;
699.3000;0.4518;1.4553;
699.6000;0.4477;1.4413;
699.9000;0.4501;1.4413;
700.2000;0.4485;1.4295;
700.5000;0.4510;1.4201;
700.8000;0.4493;1.4131;
701.1000;0.4485;1.4060;
701.4000;0.4453;1.4037;
701.7000;0.4477;1.4084;
702.0000;0.4477;1.4084;
702.3000;0.4477;1.4201;
702.6000;0.4501;1.4178;
702.9000;0.4477;1.4107;
703.2000;0.4485;1.4201;
703.5000;0.4485;1.4248;
703.8000;0.4485;1.4225;
704.1000;0.4469;1.4201;
704.4000;0.4477;1.4201;
704.7000;0.4477;1.4178;
705.0000;0.4461;1.4225;
705.3000;0.4477;1.4248;
705.6000;0.4461;1.4248;
705.9000;0.4453;1.4201;
706.2000;0.4436;1.4013;
706.5000;0.4453;1.4060;
706.8000;0.4461;1.4107;
707.1000;0.4469;1.4201;
707.4000;0.4477;1.4248;
707.7000;0.4477;1.4248;
708.0000;0.4469;1.4272;
708.3000;0.4461;1.4248;
708.6000;0.4485;1.4272;
708.9000;0.4501;1.4295;
709.2000;0.4461;1.4107;
709.5000;0.4469;1.4107;
709.8000;0.4477;1.4178;
710.1000;0.4469;1.4178;
710.4000;0.4469;1.4107;
710.7000;0.4461;1.4131;
711.0000;0.4461;1.4107;
711.3000;0.4453;1.4037;
711.6000;0.4461;1.4037;
711.9000;0.4510;1.4225;
712.2000;0.4461;1.4107;
712.5000;0.4461;1.4084;
712.8000;0.4453;1.4060;
713.1000;0.4510;1.4225;
713.4000;0.4453;1.4037;
713.7000;0.4469;1.4107;
714.0000;0.4453;1.4060;
714.3000;0.4461;1.4013;
714.6000;0.4436;1.4013;
714.9000;0.4436;1.4037;
715.2000;0.4453;1.4037;
715.5000;0.4453;1.4107;
715.8000;0.4444;1.4084;
716.1000;0.4428;1.4178;
716.4000;0.4444;1.4178;
716.7000;0.4461;1.4201;
717.0000;0.4477;1.4084;
717.3000;0.4428;1.4060;
717.6000;0.4444;1.4084;
717.9000;0.4404;1.4013;
718.2000;0.4428;1.4013;
718.5000;0.4444;1.4131;
718.8000;0.4444;1.4131;
719.1000;0.4501;1.4342;
719.4000;0.4436;1.4248;
719.7000;0.4444;1.4178;
720.0000;0.4461;1.4225;
720.3000;0.4436;1.4084;
720.6000;0.4436;1.4178;
720.9000;0.4444;1.4201;
721.2000;0.4444;1.4272;
721.5000;0.4453;1.4154;
721.8000;0.4444;1.4154;
722.1000;0.4404;1.4060;
722.4000;0.4453;1.4060;
722.7000;0.4461;1.4084;
723.0000;0.4461;1.4131;
723.3000;0.4412;1.4013;
723.6000;0.4412;1.3967;
723.9000;0.4453;1.4107;
724.2000;0.4453;1.4107;
724.5000;0.4453;1.4084;
724.8000;0.4436;1.4154;
725.1000;0.4436;1.4248;
725.4000;0.4444;1.4319;
725.7000;0.4428;1.4295;
726.0000;0.4444;1.4272;
726.3000;0.4428;1.4201;
726.6000;0.4444;1.4225;
726.9000;0.4444;1.4295;
727.2000;0.4428;1.4295;
727.5000;0.4436;1.4201;
727.8000;0.4436;1.4201;
728.1000;0.4436;1.4154;
728.4000;0.4436;1.4178;
728.7000;0.4444;1.4248;
729.0000;0.4436;1.4225;
729.3000;0.4436;1.4248;
729.6000;0.4436;1.4248;
729.9000;0.4428;1.4225;
730.2000;0.4444;1.4225;
730.5000;0.4461;1.4225;
730.8000;0.4428;1.4225;
731.1000;0.4420;1.4248;
731.4000;0.4461;1.4295;
731.7000;0.4428;1.4248;
732.0000;0.4420;1.4178;
732.3000;0.4436;1.4084;
732.6000;0.4420;1.4154;
732.9000;0.4404;1.4225;
733.2000;0.4420;1.4248;
733.5000;0.4412;1.4154;
733.8000;0.4444;1.4178;
734.1000;0.4453;1.4272;
734.4000;0.4420;1.4201;
734.7000;0.4444;1.4295;
735.0000;0.4412;1.4201;
735.3000;0.4412;1.4178;
735.6000;0.4428;1.4248;
735.9000;0.4436;1.4272;
736.2000;0.4453;1.4389;
736.5000;0.4428;1.4366;
736.8000;0.4428;1.4295;
737.1000;0.4436;1.4295;
737.4000;0.4436;1.4225;
737.7000;0.4428;1.4178;
738.0000;0.4461;1.4272;
738.3000;0.4436;1.4201;
738.6000;0.4444;1.4201;
738.9000;0.4412;1.4248;
739.2000;0.4404;1.4154;
739.5000;0.4436;1.4319;
739.8000;0.4436;1.4342;
740.1000;0.4420;1.4272;
740.4000;0.4428;1.4342;
740.7000;0.4412;1.4248;
741.0000;0.4436;1.4272;
741.3000;0.4404;1.4201;
741.6000;0.4412;1.4201;
741.9000;0.4420;1.4248;
742.2000;0.4428;1.4154;
742.5000;0.4412;1.4131;
742.8000;0.4412;1.4131;
743.1000;0.4420;1.4201;
743.4000;0.4396;1.4178;
743.7000;0.4412;1.4272;
744.0000;0.4428;1.4436;
744.3000;0.4420;1.4342;
744.6000;0.4428;1.4272;
744.9000;0.4444;1.4295;
745.2000;0.4428;1.4248;
745.5000;0.4420;1.4295;
745.8000;0.4428;1.4248;
746.1000;0.4420;1.4201;
746.4000;0.4428;1.4178;
746.7000;0.4379;1.4084;
747.0000;0.4404;1.4295;
747.3000;0.4469;1.4459;
747.6000;0.4412;1.4389;
747.9000;0.4404;1.4295;
748.2000;0.4412;1.4272;
748.5000;0.4428;1.4295;
748.8000;0.4428;1.4342;
749.1000;0.4379;1.4178;
749.4000;0.4412;1.4107;
749.7000;0.4379;1.4013;
750.0000;0.4428;1.4178;
750.3000;0.4420;1.4154;
750.6000;0.4420;1.4272;
750.9000;0.4428;1.4248;
751.2000;0.4420;1.4225;
751.5000;0.4428;1.4201;
751.8000;0.4314;1.3896;
752.1000;0.4412;1.4154;
752.4000;0.4396;1.4084;
752.7000;0.4412;1.4131;
753.0000;0.4428;1.4272;
753.3000;0.4412;1.4225;
753.6000;0.4404;1.4342;
753.9000;0.4404;1.4413;
754.2000;0.4420;1.4413;
754.5000;0.4404;1.4413;
754.8000;0.4412;1.4366;
755.1000;0.4453;1.4413;
755.4000;0.4534;1.4694;
755.7000;0.4404;1.4295;
756.0000;0.4436;1.4366;
756.3000;0.4412;1.4319;
756.6000;0.4420;1.4272;
756.9000;0.4420;1.4272;
757.2000;0.4404;1.4248;
757.5000;0.4412;1.4248;
757.8000;0.4436;1.4295;
758.1000;0.4404;1.4319;
758.4000;0.4387;1.4272;
758.7000;0.4404;1.4319;
759.0000;0.4387;1.4225;
759.3000;0.4404;1.4201;
759.6000;0.4396;1.4178;
759.9000;0.4404;1.4248;
760.2000;0.4428;1.4272;
760.5000;0.4412;1.4248;
760.8000;0.4412;1.4201;
761.1000;0.4298;1.4013;
761.4000;0.4420;1.4295;
761.7000;0.4412;1.4248;
762.0000;0.4444;1.4366;
762.3000;0.4396;1.4342;
762.6000;0.4420;1.4389;
762.9000;0.4396;1.4342;
763.2000;0.4412;1.4366;
763.5000;0.4404;1.4366;
763.8000;0.4412;1.4319;
764.1000;0.4404;1.4366;
764.4000;0.4420;1.4272;
764.7000;0.4412;1.4319;
765.0000;0.4404;1.4319;
765.3000;0.4396;1.4295;
765.6000;0.4404;1.4248;
765.9000;0.4412;1.4154;
766.2000;0.4412;1.4225;
766.5000;0.4461;1.4366;
766.8000;0.4396;1.4178;
767.1000;0.4387;1.4201;
767.4000;0.4387;1.4201;
767.7000;0.4396;1.4272;
768.0000;0.4412;1.4342;
768.3000;0.4379;1.4225;
768.6000;0.4444;1.4389;
768.9000;0.4453;1.4436;
769.2000;0.4444;1.4413;
769.5000;0.4371;1.4131;
769.8000;0.4387;1.4154;
770.1000;0.4461;1.4295;
770.4000;0.4322;1.3943;
770.7000;0.4412;1.4107;
771.0000;0.4363;1.3967;
771.3000;0.4428;1.4037;
771.6000;0.4387;1.3896;
771.9000;0.4371;1.3920;
772.2000;0.4387;1.3990;
772.5000;0.4404;1.4060;
772.8000;0.4387;1.4107;
773.1000;0.4404;1.4225;
773.4000;0.4412;1.4295;
773.7000;0.4396;1.4225;
774.0000;0.4396;1.4107;
774.3000;0.4355;1.3849;
774.6000;0.4404;1.4013;
774.9000;0.4420;1.4084;
775.2000;0.4404;1.4013;
775.5000;0.4412;1.4131;
775.8000;0.4387;1.4084;
776.1000;0.4404;1.4154;
776.4000;0.4355;1.4037;
776.7000;0.4396;1.4178;
777.0000;0.4420;1.4225;
777.3000;0.4412;1.4178;
777.6000;0.4477;1.4319;
777.9000;0.4379;1.4131;
778.2000;0.4404;1.4107;
778.5000;0.4420;1.4178;
778.8000;0.4379;1.4154;
779.1000;0.4387;1.4201;
779.4000;0.4420;1.4178;
779.7000;0.4404;1.4013;
780.0000;0.4396;1.3896;
780.3000;0.4396;1.3873;
780.6000;0.4387;1.3967;
780.9000;0.4396;1.4013;
781.2000;0.4412;1.3967;
781.5000;0.4396;1.3943;
781.8000;0.4396;1.3990;
782.1000;0.4396;1.4037;
782.4000;0.4387;1.4013;
782.7000;0.4387;1.4084;
783.0000;0.4379;1.4084;
783.3000;0.4396;1.4154;
783.6000;0.4396;1.4084;
783.9000;0.4396;1.4037;
784.2000;0.4387;1.3943;
784.5000;0.4387;1.3920;
784.8000;0.4371;1.3920;
785.1000;0.4396;1.3990;
785.4000;0.4412;1.4037;
785.7000;0.4396;1.4037;
786.0000;0.4396;1.4107;
786.3000;0.4404;1.4225;
786.6000;0.4396;1.4225;
786.9000;0.4387;1.4178;
787.2000;0.4412;1.4295;
787.5000;0.4404;1.4248;
787.8000;0.4387;1.4225;
788.1000;0.4387;1.4178;
788.4000;0.4404;1.4248;
788.7000;0.4387;1.4225;
789.0000;0.4371;1.4154;
789.3000;0.4412;1.4248;
789.6000;0.4379;1.4178;
789.9000;0.4379;1.4131;
790.2000;0.4396;1.4201;
790.5000;0.4428;1.4295;
790.8000;0.4379;1.4084;
791.1000;0.4404;1.4178;
791.4000;0.4396;1.4154;
791.7000;0.4379;1.4154;
792.0000;0.4379;1.4201;
792.3000;0.4339;1.4131;
792.6000;0.4428;1.4342;
792.9000;0.4347;1.4178;
793.2000;0.4404;1.4272;
793.5000;0.4404;1.4107;
793.8000;0.4396;1.4107;
794.1000;0.4493;1.4342;
794.4000;0.4404;1.4013;
794.7000;0.4404;1.4013;
795.0000;0.4396;1.4037;
795.3000;0.4379;1.4013;
795.6000;0.4396;1.4131;
795.9000;0.4387;1.4154;
796.2000;0.4404;1.4107;
796.5000;0.4387;1.3943;
796.8000;0.4371;1.3967;
797.1000;0.4371;1.4037;
797.4000;0.4387;1.4084;
797.7000;0.4396;1.4060;
798.0000;0.4387;1.3990;
798.3000;0.4387;1.4037;
798.6000;0.4379;1.4131;
798.9000;0.4387;1.4060;
799.2000;0.4371;1.3990;
799.5000;0.4379;1.3967;
799.8000;0.4387;1.4013;
800.1000;0.4379;1.3920;
800.4000;0.4355;1.3826;
800.7000;0.4330;1.3826;
801.0000;0.4379;1.3920;
801.3000;0.4379;1.3920;
801.6000;0.4396;1.3967;
801.9000;0.4363;1.3943;
802.2000;0.4379;1.4037;
802.5000;0.4387;1.4037;
802.8000;0.4387;1.4037;
803.1000;0.4387;1.4107;
803.4000;0.4314;1.4013;
803.7000;0.4371;1.4248;
804.0000;0.4404;1.4319;
804.3000;0.4379;1.4248;
804.6000;0.4379;1.4225;
804.9000;0.4379;1.4248;
805.2000;0.4387;1.4201;
805.5000;0.4379;1.4319;
805.8000;0.4396;1.4413;
806.1000;0.4379;1.4272;
806.4000;0.4371;1.4272;
806.7000;0.4387;1.4248;
807.0000;0.4379;1.4366;
807.3000;0.4387;1.4342;
807.6000;0.4355;1.4248;
807.9000;0.4379;1.4342;
808.2000;0.4379;1.4295;
808.5000;0.4379;1.4295;
808.8000;0.4347;1.4272;
809.1000;0.4404;1.4413;
809.4000;0.4396;1.4319;
809.7000;0.4387;1.4272;
810.0000;0.4371;1.4248;
810.3000;0.4379;1.4201;
810.6000;0.4387;1.4178;
810.9000;0.4379;1.4131;
811.2000;0.4330;1.4084;
811.5000;0.4379;1.4178;
811.8000;0.4396;1.4225;
812.1000;0.4387;1.4248;
812.4000;0.4363;1.4154;
812.7000;0.4379;1.4178;
813.0000;0.4404;1.4201;
813.3000;0.4371;1.4107;
813.6000;0.4379;1.4060;
813.9000;0.4363;1.4131;
814.2000;0.4420;1.4413;
814.5000;0.4379;1.4366;
814.8000;0.4387;1.4295;
815.1000;0.4387;1.4201;
815.4000;0.4404;1.4319;
815.7000;0.4355;1.4248;
816.0000;0.4396;1.4295;
816.3000;0.4387;1.4272;
816.6000;0.4371;1.4201;
816.9000;0.4404;1.4248;
817.2000;0.4404;1.4248;
817.5000;0.4436;1.4201;
817.8000;0.4420;1.4131;
818.1000;0.4396;1.3990;
818.4000;0.4379;1.3967;
818.7000;0.4363;1.3943;
819.0000;0.4371;1.4037;
819.3000;0.4387;1.4107;
819.6000;0.4387;1.4154;
819.9000;0.4396;1.4178;
820.2000;0.4379;1.4154;
820.5000;0.4379;1.4131;
820.8000;0.4379;1.4107;
821.1000;0.4379;1.4084;
821.4000;0.4387;1.4060;
821.7000;0.4371;1.4013;
822.0000;0.4379;1.3967;
822.3000;0.4387;1.4013;
822.6000;0.4371;1.4013;
822.9000;0.4379;1.4013;
823.2000;0.4387;1.4037;
823.5000;0.4387;1.4037;
823.8000;0.4347;1.3920;
824.1000;0.4379;1.4107;
824.4000;0.4355;1.4060;
824.7000;0.4387;1.4154;
825.0000;0.4322;1.3990;
825.3000;0.4371;1.4225;
825.6000;0.4387;1.4272;
825.9000;0.4436;1.4459;
826.2000;0.4387;1.4342;
826.5000;0.4387;1.4295;
826.8000;0.4371;1.4248;
827.1000;0.4387;1.4342;
827.4000;0.4404;1.4389;
827.7000;0.4322;1.4131;
828.0000;0.4379;1.4201;
828.3000;0.4379;1.4131;
828.6000;0.4379;1.4201;
828.9000;0.4379;1.4295;
829.2000;0.4355;1.4295;
829.5000;0.4363;1.4272;
829.8000;0.4379;1.4342;
830.1000;0.4387;1.4366;
830.4000;0.4387;1.4389;
830.7000;0.4371;1.4342;
831.0000;0.4387;1.4342;
831.3000;0.4387;1.4295;
831.6000;0.4371;1.4272;
831.9000;0.4371;1.4201;
832.2000;0.4363;1.4201;
832.5000;0.4379;1.4154;
832.8000;0.4371;1.4131;
833.1000;0.4347;1.4084;
833.4000;0.4371;1.4131;
833.7000;0.4387;1.4107;
834.0000;0.4371;1.4060;
834.3000;0.4379;1.4178;
834.6000;0.4371;1.4107;
834.9000;0.4379;1.4107;
835.2000;0.4363;1.4107;
835.5000;0.4379;1.4201;
835.8000;0.4387;1.4178;
836.1000;0.4379;1.4060;
836.4000;0.4453;1.4272;
836.7000;0.4387;1.4107;
837.0000;0.4371;1.4084;
837.3000;0.4396;1.4037;
837.6000;0.4387;1.4131;
837.9000;0.4355;1.4084;
838.2000;0.4322;1.3943;
838.5000;0.4371;1.3990;
838.8000;0.4387;1.4013;
839.1000;0.4379;1.3943;
839.4000;0.4428;1.4201;
839.7000;0.4371;1.4060;
840.0000;0.4363;1.4131;
840.3000;0.4371;1.4131;
840.6000;0.4363;1.4154;
840.9000;0.4371;1.4131;
841.2000;0.4371;1.4037;
841.5000;0.4387;1.4037;
841.8000;0.4396;1.4060;
842.1000;0.4363;1.3896;
842.4000;0.4379;1.3967;
842.7000;0.4379;1.4060;
843.0000;0.4387;1.4084;
843.3000;0.4387;1.4037;
843.6000;0.4371;1.3943;
843.9000;0.4363;1.3967;
844.2000;0.4379;1.4013;
844.5000;0.4371;1.4013;
844.8000;0.4355;1.3967;
845.1000;0.4355;1.3990;
845.4000;0.4379;1.3943;
845.7000;0.4371;1.3943;
846.0000;0.4371;1.4013;
846.3000;0.4387;1.4084;
846.6000;0.4371;1.3990;
846.9000;0.4371;1.3967;
847.2000;0.4339;1.3873;
847.5000;0.4379;1.3943;
847.8000;0.4371;1.3990;
848.1000;0.4379;1.4060;
848.4000;0.4379;1.3943;
848.7000;0.4371;1.4013;
849.0000;0.4379;1.4060;
849.3000;0.4379;1.4154;
849.6000;0.4371;1.4107;
849.9000;0.4363;1.4060;
850.2000;0.4363;1.3943;
850.5000;0.4371;1.3943;
850.8000;0.4428;1.4107;
851.1000;0.4379;1.3967;
851.4000;0.4347;1.3849;
851.7000;0.4363;1.3943;
852.0000;0.4371;1.3990;
852.3000;0.4355;1.3896;
852.6000;0.4363;1.3920;
852.9000;0.4371;1.3920;
853.2000;0.4387;1.3967;
853.5000;0.4379;1.3943;
853.8000;0.4363;1.3943;
854.1000;0.4355;1.3920;
854.4000;0.4379;1.3990;
854.7000;0.4371;1.3990;
855.0000;0.4363;1.3943;
855.3000;0.4371;1.3896;
855.6000;0.4371;1.3943;
855.9000;0.4363;1.3943;
856.2000;0.4371;1.3920;
856.5000;0.4355;1.3826;
856.8000;0.4371;1.3802;
857.1000;0.4379;1.3849;
857.4000;0.4355;1.3849;
857.7000;0.4371;1.3920;
858.0000;0.4371;1.3943;
858.3000;0.4387;1.4037;
858.6000;0.4396;1.4178;
858.9000;0.4387;1.4178;
859.2000;0.4379;1.4131;
859.5000;0.4379;1.4154;
859.8000;0.4363;1.4225;
860.1000;0.4371;1.4225;
860.4000;0.4355;1.4201;
860.7000;0.4339;1.4107;
861.0000;0.4347;1.4178;
861.3000;0.4330;1.4154;
861.6000;0.4355;1.4248;
861.9000;0.4298;1.4037;
862.2000;0.4363;1.4225;
862.5000;0.4387;1.4178;
862.8000;0.4371;1.4107;
863.1000;0.4387;1.4248;
863.4000;0.4355;1.4154;
863.7000;0.4379;1.4178;
864.0000;0.4371;1.4060;
864.3000;0.4379;1.4131;
864.6000;0.4387;1.4201;
864.9000;0.4379;1.4178;
865.2000;0.4347;1.4037;
865.5000;0.4379;1.4084;
865.8000;0.4371;1.4060;
866.1000;0.4379;1.4060;
866.4000;0.4371;1.3990;
866.7000;0.4363;1.3920;
867.0000;0.4379;1.3990;
867.3000;0.4477;1.4272;
867.6000;0.4355;1.4013;
867.9000;0.4371;1.4037;
868.2000;0.4412;1.4154;
868.5000;0.4347;1.4013;
868.8000;0.4363;1.4037;
869.1000;0.4363;1.4037;
869.4000;0.4355;1.4037;
869.7000;0.4371;1.3990;
870.0000;0.4379;1.4037;
870.3000;0.4404;1.4060;
870.6000;0.4363;1.3920;
870.9000;0.4379;1.3943;
871.2000;0.4347;1.3920;
871.5000;0.4387;1.4131;
871.8000;0.4371;1.4107;
872.1000;0.4371;1.4060;
872.4000;0.4363;1.3967;
872.7000;0.4355;1.4013;
873.0000;0.4436;1.4178;
873.3000;0.4363;1.3990;
873.6000;0.4355;1.4013;
873.9000;0.4371;1.4013;
874.2000;0.4339;1.4084;
874.5000;0.4347;1.4131;
874.8000;0.4355;1.4178;
875.1000;0.4371;1.4154;
875.4000;0.4363;1.4037;
875.7000;0.4420;1.4248;
876.0000;0.4355;1.4013;
876.3000;0.4371;1.4013;
876.6000;0.4363;1.3990;
876.9000;0.4363;1.3967;
877.2000;0.4363;1.3943;
877.5000;0.4379;1.3967;
877.8000;0.4371;1.4013;
878.1000;0.4306;1.3849;
878.4000;0.4330;1.3896;
878.7000;0.4355;1.3943;
879.0000;0.4371;1.4013;
879.3000;0.4347;1.3896;
879.6000;0.4363;1.3873;
879.9000;0.4387;1.4037;
880.2000;0.4387;1.4013;
880.5000;0.4371;1.4013;
880.8000;0.4387;1.4131;
881.1000;0.4363;1.4154;
881.4000;0.4363;1.4107;
881.7000;0.4363;1.4107;
882.0000;0.4469;1.4436;
882.3000;0.4371;1.4131;
882.6000;0.4379;1.4037;
882.9000;0.4379;1.3967;
883.2000;0.4379;1.4013;
883.5000;0.4396;1.4013;
883.8000;0.4355;1.3943;
884.1000;0.4347;1.3967;
884.4000;0.4355;1.4037;
884.7000;0.4363;1.4060;
885.0000;0.4363;1.4131;
885.3000;0.4355;1.4131;
885.6000;0.4371;1.4107;
885.9000;0.4347;1.4107;
886.2000;0.4347;1.4154;
886.5000;0.4371;1.4107;
886.8000;0.4355;1.4013;
887.1000;0.4363;1.4037;
887.4000;0.4379;1.3967;
887.7000;0.4379;1.4013;
888.0000;0.4363;1.3943;
888.3000;0.4371;1.4060;
888.6000;0.4363;1.3990;
888.9000;0.4355;1.3990;
889.2000;0.4404;1.4178;
889.5000;0.4339;1.4037;
889.8000;0.4363;1.4084;
890.1000;0.4371;1.4131;
890.4000;0.4363;1.4084;
890.7000;0.4363;1.4084;
891.0000;0.4404;1.4225;
891.3000;0.4355;1.4060;
891.6000;0.4379;1.4131;
891.9000;0.4379;1.4154;
892.2000;0.4363;1.4107;
892.5000;0.4355;1.4131;
892.8000;0.4371;1.4178;
893.1000;0.4371;1.4084;
893.4000;0.4412;1.4131;
893.7000;0.4379;1.4084;
894.0000;0.4371;1.4178;
894.3000;0.4322;1.4201;
894.6000;0.4363;1.4248;
894.9000;0.4314;1.4060;
895.2000;0.4371;1.4178;
895.5000;0.4347;1.4107;
895.8000;0.4363;1.4201;
896.1000;0.4355;1.4131;
896.4000;0.4339;1.4060;
896.7000;0.4379;1.4248;
897.0000;0.4371;1.4295;
897.3000;0.4363;1.4295;
897.6000;0.4371;1.4225;
897.9000;0.4387;1.4295;
898.2000;0.4371;1.4295;
898.5000;0.4355;1.4201;
898.8000;0.4371;1.4178;
899.1000;0.4363;1.4201;
899.4000;0.4347;1.4178;
899.7000;0.4363;1.4272;
900.0000;0.4347;1.4201;
900.3000;0.4355;1.4225;
900.6000;0.4347;1.4225;
900.9000;0.4420;1.4295;
901.2000;0.4290;1.3896;
901.5000;0.4355;1.4037;
901.8000;0.4355;1.3990;
902.1000;0.4241;1.3661;
902.4000;0.4371;1.4013;
902.7000;0.4363;1.3943;
903.0000;0.4371;1.3967;
903.3000;0.4371;1.4037;
903.6000;0.4339;1.3990;
903.9000;0.4339;1.3943;
904.2000;0.4339;1.3896;
904.5000;0.4355;1.3873;
904.8000;0.4339;1.3920;
905.1000;0.4379;1.3990;
905.4000;0.4371;1.4013;
905.7000;0.4363;1.4060;
906.0000;0.4355;1.3990;
906.3000;0.4379;1.4060;
906.6000;0.4379;1.4037;
906.9000;0.4363;1.4013;
907.2000;0.4363;1.3990;
907.5000;0.4387;1.4107;
907.8000;0.4363;1.4060;
908.1000;0.4387;1.4084;
908.4000;0.4404;1.4084;
908.7000;0.4371;1.4060;
909.0000;0.4363;1.4013;
909.3000;0.4420;1.4178;
909.6000;0.4363;1.3967;
909.9000;0.4363;1.4013;
910.2000;0.4363;1.4013;
910.5000;0.4306;1.3826;
910.8000;0.4387;1.3943;
911.1000;0.4363;1.3943;
911.4000;0.4371;1.3873;
911.7000;0.4396;1.3896;
912.0000;0.4306;1.3732;
912.3000;0.4387;1.3943;
912.6000;0.4330;1.3849;
912.9000;0.4363;1.3967;
913.2000;0.4363;1.4037;
913.5000;0.4363;1.4013;
913.8000;0.4355;1.4013;
914.1000;0.4371;1.4084;
914.4000;0.4420;1.4248;
914.7000;0.4355;1.4178;
915.0000;0.4339;1.4178;
915.3000;0.4355;1.4272;
915.6000;0.4322;1.4201;
915.9000;0.4363;1.4295;
916.2000;0.4387;1.4366;
916.5000;0.4322;1.4248;
916.8000;0.4371;1.4389;
917.1000;0.4347;1.4319;
917.4000;0.4363;1.4272;
917.7000;0.4371;1.4272;
918.0000;0.4355;1.4201;
918.3000;0.4379;1.4107;
918.6000;0.4363;1.4178;
918.9000;0.4379;1.4295;
919.2000;0.4363;1.4342;
919.5000;0.4355;1.4248;
919.8000;0.4330;1.4178;
920.1000;0.4347;1.4178;
920.4000;0.4355;1.4107;
920.7000;0.4347;1.4131;
921.0000;0.4363;1.4178;
921.3000;0.4355;1.4201;
921.6000;0.4355;1.4178;
921.9000;0.4363;1.4225;
922.2000;0.4355;1.4131;
922.5000;0.4339;1.4084;
922.8000;0.4363;1.4178;
923.1000;0.4363;1.4154;
923.4000;0.4371;1.4084;
923.7000;0.4355;1.4154;
924.0000;0.4355;1.4107;
924.3000;0.4379;1.4201;
924.6000;0.4404;1.4225;
924.9000;0.4355;1.4178;
925.2000;0.4355;1.4201;
925.5000;0.4355;1.4201;
925.8000;0.4387;1.4248;
926.1000;0.4290;1.4013;
926.4000;0.4330;1.4154;
926.7000;0.4322;1.4154;
927.0000;0.4355;1.4154;
927.3000;0.4347;1.4107;
927.6000;0.4363;1.4154;
927.9000;0.4363;1.4178;
928.2000;0.4363;1.4225;
928.5000;0.4371;1.4178;
928.8000;0.4355;1.4154;
929.1000;0.4347;1.4107;
929.4000;0.4379;1.4178;
929.7000;0.4347;1.4201;
930.0000;0.4363;1.4272;
930.3000;0.4371;1.4154;
930.6000;0.4355;1.4107;
930.9000;0.4363;1.4060;
931.2000;0.4355;1.3990;
931.5000;0.4339;1.3920;
931.8000;0.4355;1.3967;
932.1000;0.4355;1.4013;
932.4000;0.4347;1.3967;
932.7000;0.4306;1.3826;
933.0000;0.4339;1.3943;
933.3000;0.4404;1.4107;
933.6000;0.4282;1.3896;
933.9000;0.4371;1.4107;
934.2000;0.4347;1.4060;
934.5000;0.4355;1.4131;
934.8000;0.4355;1.4131;
935.1000;0.4363;1.4107;
935.4000;0.4363;1.4201;
935.7000;0.4396;1.4272;
936.0000;0.4355;1.4154;
936.3000;0.4347;1.4154;
936.6000;0.4298;1.4037;
936.9000;0.4339;1.4178;
937.2000;0.4347;1.4201;
937.5000;0.4371;1.4178;
937.8000;0.4404;1.4248;
938.1000;0.4355;1.4131;
938.4000;0.4371;1.4272;
938.7000;0.4355;1.4225;
939.0000;0.4355;1.4272;
939.3000;0.4371;1.4366;
939.6000;0.4339;1.4225;
939.9000;0.4436;1.4366;
940.2000;0.4371;1.4178;
940.5000;0.4371;1.4131;
940.8000;0.4371;1.4248;
941.1000;0.4363;1.4248;
941.4000;0.4371;1.4248;
941.7000;0.4347;1.4248;
942.0000;0.4379;1.4342;
942.3000;0.4363;1.4366;
942.6000;0.4363;1.4319;
942.9000;0.4371;1.4295;
943.2000;0.4379;1.4248;
943.5000;0.4355;1.4107;
943.8000;0.4363;1.4060;
944.1000;0.4355;1.4037;
944.4000;0.4379;1.4178;
944.7000;0.4371;1.4154;
945.0000;0.4355;1.4225;
945.3000;0.4363;1.4201;
945.6000;0.4371;1.4201;
945.9000;0.4371;1.4178;
946.2000;0.4379;1.4225;
946.5000;0.4379;1.4248;
946.8000;0.4371;1.4225;
947.1000;0.4363;1.4201;
947.4000;0.4355;1.4178;
947.7000;0.4339;1.4060;
948.0000;0.4330;1.3990;
948.3000;0.4347;1.4131;
948.6000;0.4363;1.4272;
948.9000;0.4363;1.4225;
949.2000;0.4363;1.4295;
949.5000;0.4371;1.4319;
949.8000;0.4355;1.4248;
950.1000;0.4379;1.4319;
950.4000;0.4355;1.4178;
950.7000;0.4347;1.4131;
951.0000;0.4363;1.4178;
951.3000;0.4371;1.4154;
951.6000;0.4355;1.4037;
951.9000;0.4363;1.4084;
952.2000;0.4371;1.4107;
952.5000;0.4363;1.4107;
952.8000;0.4322;1.3920;
953.1000;0.4371;1.4037;
953.4000;0.4339;1.4084;
953.7000;0.4363;1.4154;
954.0000;0.4355;1.4084;
954.3000;0.4339;1.4131;
954.6000;0.4339;1.4131;
954.9000;0.4339;1.4201;
955.2000;0.4355;1.4248;
955.5000;0.4363;1.4342;
955.8000;0.4355;1.4272;
956.1000;0.4363;1.4319;
956.4000;0.4347;1.4225;
956.7000;0.4347;1.4225;
957.0000;0.4444;1.4530;
957.3000;0.4347;1.4201;
957.6000;0.4282;1.3920;
957.9000;0.4314;1.3896;
958.2000;0.4347;1.3943;
958.5000;0.4355;1.3920;
958.8000;0.4355;1.3967;
959.1000;0.4363;1.3943;
959.4000;0.4330;1.3849;
959.7000;0.4298;1.3802;
960.0000;0.4347;1.3920;
960.3000;0.4355;1.4037;
960.6000;0.4355;1.3967;
960.9000;0.4347;1.3943;
961.2000;0.4339;1.3873;
961.5000;0.4363;1.3826;
961.8000;0.4355;1.3920;
962.1000;0.4347;1.3849;
962.4000;0.4387;1.3943;
962.7000;0.4347;1.3849;
963.0000;0.4363;1.3943;
963.3000;0.4363;1.3943;
963.6000;0.4404;1.3990;
963.9000;0.4347;1.3802;
964.2000;0.4339;1.3802;
964.5000;0.4298;1.3708;
964.8000;0.4347;1.3873;
965.1000;0.4347;1.3896;
965.4000;0.4322;1.3943;
965.7000;0.4363;1.4131;
966.0000;0.4355;1.4107;
966.3000;0.4347;1.4107;
966.6000;0.4428;1.4225;
966.9000;0.4477;1.4530;
967.2000;0.4355;1.4154;
967.5000;0.4355;1.4107;
967.8000;0.4379;1.4060;
968.1000;0.4347;1.3990;
968.4000;0.4355;1.3990;
968.7000;0.4355;1.3920;
969.0000;0.4396;1.4084;
969.3000;0.4371;1.3967;
969.6000;0.4355;1.3990;
969.9000;0.4355;1.3943;
970.2000;0.4339;1.3849;
970.5000;0.4420;1.4060;
970.8000;0.4371;1.3990;
971.1000;0.4330;1.3920;
971.4000;0.4363;1.4013;
971.7000;0.4363;1.4131;
972.0000;0.4379;1.4201;
972.3000;0.4347;1.4248;
972.6000;0.4339;1.4178;
972.9000;0.4363;1.4248;
973.2000;0.4355;1.4295;
973.5000;0.4355;1.4225;
973.8000;0.4339;1.4154;
974.1000;0.4363;1.4178;
974.4000;0.4363;1.4131;
974.7000;0.4347;1.4060;
975.0000;0.4330;1.3967;
975.3000;0.4339;1.4037;
975.6000;0.4355;1.4107;
975.9000;0.4347;1.4060;
976.2000;0.4347;1.4107;
976.5000;0.4330;1.4060;
976.8000;0.4347;1.4107;
977.1000;0.4379;1.4131;
977.4000;0.4306;1.4013;
977.7000;0.4355;1.4131;
978.0000;0.4363;1.4084;
978.3000;0.4355;1.3990;
978.6000;0.4355;1.4013;
978.9000;0.4347;1.3943;
979.2000;0.4371;1.3943;
979.5000;0.4355;1.3967;
979.8000;0.4355;1.3967;
980.1000;0.4355;1.3990;
980.4000;0.4330;1.3920;
980.7000;0.4347;1.3967;
981.0000;0.4355;1.4037;
981.3000;0.4387;1.4084;
981.6000;0.4347;1.4013;
981.9000;0.4412;1.4154;
982.2000;0.4347;1.4084;
982.5000;0.4355;1.4131;
982.8000;0.4371;1.4131;
983.1000;0.4371;1.4154;
983.4000;0.4371;1.4107;
983.7000;0.4330;1.4037;
984.0000;0.4363;1.4107;
984.3000;0.4355;1.4131;
984.6000;0.4355;1.4107;
984.9000;0.4330;1.4037;
985.2000;0.4330;1.4178;
985.5000;0.4339;1.4248;
985.8000;0.4371;1.4366;
986.1000;0.4355;1.4319;
986.4000;0.4371;1.4272;
986.7000;0.4347;1.4131;
987.0000;0.4355;1.4107;
987.3000;0.4371;1.4107;
987.6000;0.4396;1.4084;
987.9000;0.4355;1.4107;
988.2000;0.4355;1.4131;
988.5000;0.4306;1.4060;
988.8000;0.4347;1.4131;
989.1000;0.4363;1.4107;
989.4000;0.4355;1.4060;
989.7000;0.4371;1.4060;
990.0000;0.4363;1.4084;
990.3000;0.4355;1.4131;
990.6000;0.4355;1.4178;
990.9000;0.4412;1.4413;
991.2000;0.4363;1.4319;
991.5000;0.4355;1.4295;
991.8000;0.4347;1.4248;
992.1000;0.4461;1.4483;
992.4000;0.4339;1.4178;
992.7000;0.4355;1.4154;
993.0000;0.4355;1.4178;
993.3000;0.4330;1.4131;
993.6000;0.4355;1.4154;
993.9000;0.4347;1.4154;
994.2000;0.4371;1.4131;
994.5000;0.4339;1.4060;
994.8000;0.4355;1.4107;
995.1000;0.4371;1.4084;
995.4000;0.4379;1.4060;
995.7000;0.4347;1.3920;
996.0000;0.4265;1.3779;
996.3000;0.4355;1.3967;
996.6000;0.4339;1.3990;
996.9000;0.4339;1.3967;
997.2000;0.4339;1.3990;
997.5000;0.4355;1.4037;
997.8000;0.4339;1.3943;
998.1000;0.4339;1.3967;
998.4000;0.4339;1.4013;
998.7000;0.4347;1.4060;
999.0000;0.4274;1.4013;
999.3000;0.4322;1.4201;
999.6000;0.4347;1.4225;
999.9000;0.4363;1.4225;
1000.2000;0.4347;1.4201;
1000.5000;0.4363;1.4084;
1000.8000;0.4339;1.4107;
1001.1000;0.4322;1.4060;
1001.4000;0.4347;1.4084;
1001.7000;0.4347;1.4060;
1002.0000;0.4330;1.4060;
1002.3000;0.4510;1.4483;
1002.6000;0.4371;1.4154;
1002.9000;0.4379;1.4131;
1003.2000;0.4347;1.4037;
1003.5000;0.4347;1.3967;
1003.8000;0.4363;1.3990;
1004.1000;0.4363;1.4013;
1004.4000;0.4347;1.3990;
1004.7000;0.4420;1.4201;
1005.0000;0.4339;1.3920;
1005.3000;0.4404;1.4013;
1005.6000;0.4355;1.3943;
1005.9000;0.4347;1.3920;
1006.2000;0.4347;1.3943;
1006.5000;0.4347;1.4037;
1006.8000;0.4314;1.4060;
1007.1000;0.4306;1.4107;
1007.4000;0.4347;1.4154;
1007.7000;0.4330;1.4131;
1008.0000;0.4412;1.4272;
1008.3000;0.4355;1.4178;
1008.6000;0.4339;1.4225;
1008.9000;0.4371;1.4201;
1009.2000;0.4363;1.4178;
1009.5000;0.4371;1.4178;
1009.8000;0.4330;1.4201;
1010.1000;0.4290;1.4060;
1010.4000;0.4379;1.4178;
1010.7000;0.4347;1.4060;
1011.0000;0.4355;1.4013;
1011.3000;0.4363;1.4013;
1011.6000;0.4363;1.3943;
1011.9000;0.4330;1.3943;
1012.2000;0.4330;1.3873;
1012.5000;0.4330;1.3849;
1012.8000;0.4347;1.3967;
1013.1000;0.4347;1.3920;
1013.4000;0.4330;1.3990;
1013.7000;0.4371;1.4178;
1014.0000;0.4330;1.4154;
1014.3000;0.4363;1.4154;
1014.6000;0.4363;1.4084;
1014.9000;0.4363;1.4107;
1015.2000;0.4339;1.4013;
1015.5000;0.4363;1.4131;
1015.8000;0.4371;1.4107;
1016.1000;0.4347;1.4060;
1016.4000;0.4363;1.4037;
1016.7000;0.4420;1.4178;
1017.0000;0.4428;1.4248;
1017.3000;0.4363;1.4037;
1017.6000;0.4379;1.4131;
1017.9000;0.4355;1.4107;
1018.2000;0.4339;1.4084;
1018.5000;0.4355;1.4060;
1018.8000;0.4363;1.4037;
1019.1000;0.4322;1.3943;
1019.4000;0.4363;1.3943;
1019.7000;0.4347;1.3920;
1020.0000;0.4363;1.3990;
1020.3000;0.4330;1.3990;
1020.6000;0.4330;1.3990;
1020.9000;0.4347;1.4154;
1021.2000;0.4347;1.4154;
1021.5000;0.4363;1.4154;
1021.8000;0.4322;1.4084;
1022.1000;0.4347;1.4201;
1022.4000;0.4363;1.4225;
1022.7000;0.4330;1.4225;
1023.0000;0.4298;1.4131;
1023.3000;0.4257;1.4084;
1023.6000;0.4339;1.4225;
1023.9000;0.4322;1.4178;
1024.2000;0.4363;1.4154;
1024.5000;0.4274;1.3990;
1024.8000;0.4396;1.4413;
1025.1000;0.4339;1.4225;
1025.4000;0.4363;1.4225;
1025.7000;0.4355;1.4131;
1026.0000;0.4363;1.4178;
1026.3000;0.4322;1.4084;
1026.6000;0.4355;1.4225;
1026.9000;0.4379;1.4319;
1027.2000;0.4371;1.4272;
1027.5000;0.4396;1.4366;
1027.8000;0.4339;1.4201;
1028.1000;0.4461;1.4483;
1028.4000;0.4363;1.4201;
1028.7000;0.4363;1.4295;
1029.0000;0.4347;1.4178;
1029.3000;0.4314;1.4154;
1029.6000;0.4363;1.4225;
1029.9000;0.4363;1.4295;
1030.2000;0.4355;1.4295;
1030.5000;0.4330;1.4342;
1030.8000;0.4347;1.4319;
1031.1000;0.4347;1.4295;
1031.4000;0.4314;1.4107;
1031.7000;0.4339;1.4131;
1032.0000;0.4355;1.4154;
1032.3000;0.4355;1.4107;
1032.6000;0.4371;1.4154;
1032.9000;0.4355;1.4201;
1033.2000;0.4339;1.4225;
1033.5000;0.4355;1.4272;
1033.8000;0.4355;1.4201;
1034.1000;0.4347;1.4107;
1034.4000;0.4339;1.4084;
1034.7000;0.4347;1.4107;
1035.0000;0.4347;1.4084;
1035.3000;0.4363;1.4060;
1035.6000;0.4379;1.4201;
1035.9000;0.4298;1.4037;
1036.2000;0.4339;1.4131;
1036.5000;0.4371;1.4178;
1036.8000;0.4339;1.4084;
1037.1000;0.4347;1.4060;
1037.4000;0.4371;1.4084;
1037.7000;0.4306;1.3943;
1038.0000;0.4347;1.4178;
1038.3000;0.4371;1.4319;
1038.6000;0.4339;1.4342;
1038.9000;0.4355;1.4295;
1039.2000;0.4330;1.4225;
1039.5000;0.4347;1.4201;
1039.8000;0.4339;1.4131;
1040.1000;0.4396;1.4201;
1040.4000;0.4355;1.4060;
1040.7000;0.4396;1.4131;
1041.0000;0.4347;1.3943;
1041.3000;0.4355;1.4013;
1041.6000;0.4412;1.4178;
1041.9000;0.4355;1.4013;
1042.2000;0.4290;1.3849;
1042.5000;0.4355;1.3967;
1042.8000;0.4330;1.3873;
1043.1000;0.4339;1.3990;
1043.4000;0.4330;1.4013;
1043.7000;0.4347;1.4107;
1044.0000;0.4412;1.4225;
1044.3000;0.4347;1.4084;
1044.6000;0.4347;1.4060;
1044.9000;0.4330;1.4060;
1045.2000;0.4355;1.4107;
1045.5000;0.4347;1.4131;
1045.8000;0.4347;1.4107;
1046.1000;0.4330;1.4060;
1046.4000;0.4322;1.4084;
1046.7000;0.4355;1.4037;
1047.0000;0.4330;1.3943;
1047.3000;0.4355;1.4084;
1047.6000;0.4347;1.4013;
1047.9000;0.4355;1.4013;
1048.2000;0.4355;1.3967;
1048.5000;0.4347;1.3967;
1048.8000;0.4347;1.3943;
1049.1000;0.4379;1.4013;
1049.4000;0.4355;1.3967;
1049.7000;0.4371;1.3943;
1050.0000;0.4355;1.3943;
1050.3000;0.4371;1.4013;
1050.6000;0.4339;1.3990;
1050.9000;0.4363;1.4131;
1051.2000;0.4339;1.4131;
1051.5000;0.4330;1.4131;
1051.8000;0.4347;1.4131;
1052.1000;0.4371;1.4295;
1052.4000;0.4339;1.4319;
1052.7000;0.4355;1.4366;
1053.0000;0.4363;1.4319;
1053.3000;0.4363;1.4295;
1053.6000;0.4314;1.4154;
1053.9000;0.4330;1.4131;
1054.2000;0.4330;1.4201;
1054.5000;0.4355;1.4248;
1054.8000;0.4363;1.4154;
1055.1000;0.4347;1.4201;
1055.4000;0.4330;1.4131;
1055.7000;0.4355;1.4248;
1056.0000;0.4339;1.4272;
1056.3000;0.4347;1.4248;
1056.6000;0.4330;1.4178;
1056.9000;0.4363;1.4131;
1057.2000;0.4371;1.4107;
1057.5000;0.4436;1.4295;
1057.8000;0.4314;1.3943;
1058.1000;0.4363;1.4037;
1058.4000;0.4355;1.4084;
1058.7000;0.4339;1.4060;
1059.0000;0.4355;1.4131;
1059.3000;0.4339;1.4154;
1059.6000;0.4387;1.4342;
1059.9000;0.4322;1.4154;
1060.2000;0.4363;1.4319;
1060.5000;0.4363;1.4342;
1060.8000;0.4355;1.4366;
1061.1000;0.4371;1.4389;
1061.4000;0.4339;1.4295;
1061.7000;0.4314;1.4225;
1062.0000;0.4339;1.4248;
1062.3000;0.4330;1.4272;
1062.6000;0.4387;1.4436;
1062.9000;0.4347;1.4225;
1063.2000;0.4339;1.4225;
1063.5000;0.4339;1.4248;
1063.8000;0.4355;1.4342;
1064.1000;0.4330;1.4319;
1064.4000;0.4347;1.4366;
1064.7000;0.4355;1.4319;
1065.0000;0.4355;1.4319;
1065.3000;0.4339;1.4225;
1065.6000;0.4339;1.4295;
1065.9000;0.4355;1.4342;
1066.2000;0.4217;1.4037;
1066.5000;0.4330;1.4342;
1066.8000;0.4355;1.4436;
1067.1000;0.4347;1.4366;
1067.4000;0.4363;1.4366;
1067.7000;0.4257;1.4131;
1068.0000;0.4306;1.4295;
1068.3000;0.4241;1.4107;
1068.6000;0.4330;1.4295;
1068.9000;0.4347;1.4248;
1069.2000;0.4298;1.4131;
1069.5000;0.4347;1.4248;
1069.8000;0.4339;1.4248;
1070.1000;0.4355;1.4295;
1070.4000;0.4363;1.4225;
1070.7000;0.4347;1.4225;
1071.0000;0.4339;1.4272;
1071.3000;0.4355;1.4366;
1071.6000;0.4347;1.4295;
1071.9000;0.4339;1.4248;
1072.2000;0.4330;1.4154;
1072.5000;0.4363;1.4272;
1072.8000;0.4355;1.4319;
1073.1000;0.4322;1.4342;
1073.4000;0.4290;1.4225;
1073.7000;0.4347;1.4319;
1074.0000;0.4339;1.4319;
1074.3000;0.4387;1.4436;
1074.6000;0.4339;1.4319;
1074.9000;0.4363;1.4225;
1075.2000;0.4363;1.4178;
1075.5000;0.4355;1.4107;
1075.8000;0.4355;1.4060;
1076.1000;0.4363;1.4037;
1076.4000;0.4330;1.4037;
1076.7000;0.4339;1.4131;
1077.0000;0.4363;1.4154;
1077.3000;0.4322;1.4060;
1077.6000;0.4355;1.4084;
1077.9000;0.4322;1.3967;
1078.2000;0.4347;1.4131;
1078.5000;0.4330;1.4060;
1078.8000;0.4363;1.4131;
1079.1000;0.4330;1.4107;
1079.4000;0.4347;1.4084;
1079.7000;0.4330;1.4013;
1080.0000;0.4396;1.4178;
1080.3000;0.4379;1.4107;
1080.6000;0.4347;1.4154;
1080.9000;0.4371;1.4272;
1081.2000;0.4347;1.4154;
1081.5000;0.4330;1.4084;
1081.8000;0.4355;1.4178;
1082.1000;0.4314;1.4084;
1082.4000;0.4257;1.3873;
1082.7000;0.4339;1.3990;
1083.0000;0.4347;1.4107;
1083.3000;0.4339;1.4060;
1083.6000;0.4363;1.4154;
1083.9000;0.4420;1.4248;
1084.2000;0.4330;1.4013;
1084.5000;0.4387;1.4178;
1084.8000;0.4371;1.4225;
1085.1000;0.4347;1.4319;
1085.4000;0.4363;1.4342;
1085.7000;0.4330;1.4295;
1086.0000;0.4363;1.4389;
1086.3000;0.4371;1.4483;
1086.6000;0.4347;1.4459;
1086.9000;0.4371;1.4459;
1087.2000;0.4347;1.4413;
1087.5000;0.4298;1.4248;
1087.8000;0.4371;1.4366;
1088.1000;0.4274;1.4131;
1088.4000;0.4355;1.4389;
1088.7000;0.4339;1.4436;
1089.0000;0.4444;1.4647;
1089.3000;0.4339;1.4319;
1089.6000;0.4339;1.4295;
1089.9000;0.4339;1.4295;
1090.2000;0.4298;1.4248;
1090.5000;0.4298;1.4272;
1090.8000;0.4355;1.4342;
1091.1000;0.4347;1.4342;
1091.4000;0.4339;1.4319;
1091.7000;0.4339;1.4295;
1092.0000;0.4339;1.4295;
1092.3000;0.4322;1.4342;
1092.6000;0.4330;1.4319;
1092.9000;0.4355;1.4366;
1093.2000;0.4330;1.4272;
1093.5000;0.4347;1.4225;
1093.8000;0.4339;1.4248;
1094.1000;0.4339;1.4248;
1094.4000;0.4347;1.4272;
1094.7000;0.4347;1.4201;
1095.0000;0.4387;1.4366;
1095.3000;0.4339;1.4272;
1095.6000;0.4355;1.4389;
1095.9000;0.4363;1.4459;
1096.2000;0.4347;1.4342;
1096.5000;0.4339;1.4319;
1096.8000;0.4339;1.4366;
1097.1000;0.4290;1.4319;
1097.4000;0.4290;1.4248;
1097.7000;0.4339;1.4342;
1098.0000;0.4347;1.4295;
1098.3000;0.4339;1.4295;
1098.6000;0.4339;1.4248;
1098.9000;0.4330;1.4178;
1099.2000;0.4306;1.4178;
1099.5000;0.4379;1.4413;
1099.8000;0.4347;1.4319;
1100.1000;0.4355;1.4342;
1100.4000;0.4355;1.4342;
1100.7000;0.4330;1.4342;
1101.0000;0.4371;1.4366;
1101.3000;0.4355;1.4248;
1101.6000;0.4404;1.4342;
1101.9000;0.4371;1.4295;
1102.2000;0.4355;1.4389;
1102.5000;0.4257;1.4295;
1102.8000;0.4379;1.4624;
1103.1000;0.4314;1.4413;
1103.4000;0.4347;1.4459;
1103.7000;0.4355;1.4506;
1104.0000;0.4371;1.4553;
1104.3000;0.4347;1.4459;
1104.6000;0.4330;1.4413;
1104.9000;0.4249;1.4201;
1105.2000;0.4355;1.4366;
1105.5000;0.4355;1.4436;
1105.8000;0.4339;1.4413;
1106.1000;0.4339;1.4436;
1106.4000;0.4339;1.4413;
1106.7000;0.4322;1.4389;
1107.0000;0.4339;1.4459;
1107.3000;0.4339;1.4366;
1107.6000;0.4355;1.4319;
1107.9000;0.4355;1.4366;
1108.2000;0.4363;1.4342;
1108.5000;0.4363;1.4389;
1108.8000;0.4371;1.4389;
1109.1000;0.4322;1.4319;
1109.4000;0.4330;1.4342;
1109.7000;0.4355;1.4413;
1110.0000;0.4355;1.4389;
1110.3000;0.4363;1.4413;
1110.6000;0.4330;1.4295;
1110.9000;0.4339;1.4248;
1111.2000;0.4339;1.4201;
1111.5000;0.4355;1.4272;
1111.8000;0.4355;1.4319;
1112.1000;0.4477;1.4694;
1112.4000;0.4436;1.4530;
1112.7000;0.4371;1.4366;
1113.0000;0.4306;1.4272;
1113.3000;0.4339;1.4413;
1113.6000;0.4330;1.4389;
1113.9000;0.4363;1.4553;
1114.2000;0.4363;1.4553;
1114.5000;0.4355;1.4506;
1114.8000;0.4298;1.4506;
1115.1000;0.4444;1.4812;
1115.4000;0.4347;1.4624;
1115.7000;0.4355;1.4577;
1116.0000;0.4330;1.4530;
1116.3000;0.4347;1.4506;
1116.6000;0.4322;1.4459;
1116.9000;0.4355;1.4483;
1117.2000;0.4347;1.4366;
1117.5000;0.4363;1.4413;
1117.8000;0.4347;1.4342;
1118.1000;0.4330;1.4295;
1118.4000;0.4347;1.4342;
1118.7000;0.4339;1.4272;
1119.0000;0.4339;1.4295;
1119.3000;0.4363;1.4342;
1119.6000;0.4241;1.4060;
1119.9000;0.4396;1.4483;
1120.2000;0.4339;1.4389;
1120.5000;0.4314;1.4436;
1120.8000;0.4339;1.4483;
1121.1000;0.4290;1.4436;
1121.4000;0.4306;1.4553;
1121.7000;0.4339;1.4600;
1122.0000;0.4347;1.4530;
1122.3000;0.4339;1.4459;
1122.6000;0.4339;1.4483;
1122.9000;0.4371;1.4647;
1123.2000;0.4298;1.4389;
1123.5000;0.4453;1.4741;
1123.8000;0.4355;1.4413;
1124.1000;0.4355;1.4413;
1124.4000;0.4322;1.4342;
1124.7000;0.4355;1.4413;
1125.0000;0.4339;1.4342;
1125.3000;0.4355;1.4389;
1125.6000;0.4339;1.4389;
1125.9000;0.4339;1.4366;
1126.2000;0.4330;1.4389;
1126.5000;0.4347;1.4319;
1126.8000;0.4347;1.4436;
1127.1000;0.4330;1.4413;
1127.4000;0.4347;1.4413;
1127.7000;0.4339;1.4436;
1128.0000;0.4363;1.4459;
1128.3000;0.4347;1.4413;
1128.6000;0.4339;1.4413;
1128.9000;0.4330;1.4530;
1129.2000;0.4330;1.4577;
1129.5000;0.4355;1.4600;
1129.8000;0.4355;1.4553;
1130.1000;0.4339;1.4506;
1130.4000;0.4347;1.4366;
1130.7000;0.4347;1.4248;
1131.0000;0.4347;1.4272;
1131.3000;0.4339;1.4178;
1131.6000;0.4347;1.4178;
1131.9000;0.4347;1.4060;
1132.2000;0.4363;1.3967;
1132.5000;0.4330;1.3685;
1132.8000;0.4322;1.3661;
1133.1000;0.4355;1.3826;
1133.4000;0.4355;1.3779;
1133.7000;0.4347;1.3873;
1134.0000;0.4330;1.3873;
1134.3000;0.4339;1.3896;
1134.6000;0.4371;1.3990;
1134.9000;0.4371;1.4060;
1135.2000;0.4347;1.4037;
1135.5000;0.4339;1.4178;
1135.8000;0.4355;1.4225;
1136.1000;0.4371;1.4248;
1136.4000;0.4330;1.4084;
1136.7000;0.4339;1.4131;
1137.0000;0.4355;1.4178;
1137.3000;0.4355;1.4060;
1137.6000;0.4330;1.4013;
1137.9000;0.4355;1.3967;
1138.2000;0.4274;1.3849;
1138.5000;0.4363;1.4013;
1138.8000;0.4330;1.3967;
1139.1000;0.4347;1.4060;
1139.4000;0.4347;1.3990;
1139.7000;0.4347;1.4060;
1140.0000;0.4363;1.4131;
1140.3000;0.4330;1.4084;
1140.6000;0.4339;1.4154;
1140.9000;0.4347;1.4248;
1141.2000;0.4347;1.4319;
1141.5000;0.4330;1.4272;
1141.8000;0.4371;1.4389;
1142.1000;0.4355;1.4272;
1142.4000;0.4453;1.4647;
1142.7000;0.4322;1.4389;
1143.0000;0.4347;1.4459;
1143.3000;0.4330;1.4342;
1143.6000;0.4290;1.4154;
1143.9000;0.4355;1.4342;
1144.2000;0.4339;1.4342;
1144.5000;0.4306;1.4201;
1144.8000;0.4396;1.4436;
1145.1000;0.4339;1.4319;
1145.4000;0.4347;1.4248;
1145.7000;0.4339;1.4248;
1146.0000;0.4347;1.4225;
1146.3000;0.4347;1.4225;
1146.6000;0.4363;1.4201;
1146.9000;0.4282;1.3967;
1147.2000;0.4371;1.4201;
1147.5000;0.4339;1.4154;
1147.8000;0.4298;1.4037;
1148.1000;0.4339;1.4084;
1148.4000;0.4347;1.4201;
1148.7000;0.4355;1.4225;
1149.0000;0.4339;1.4225;
1149.3000;0.4339;1.4201;
1149.6000;0.4330;1.4178;
1149.9000;0.4363;1.4201;
1150.2000;0.4330;1.4248;
1150.5000;0.4347;1.4178;
1150.8000;0.4347;1.4225;
1151.1000;0.4363;1.4319;
1151.4000;0.4339;1.4225;
1151.7000;0.4347;1.4201;
1152.0000;0.4347;1.4225;
1152.3000;0.4330;1.4225;
1152.6000;0.4290;1.4037;
1152.9000;0.4339;1.4107;
1153.2000;0.4355;1.4084;
1153.5000;0.4355;1.4201;
1153.8000;0.4355;1.4178;
1154.1000;0.4363;1.4131;
1154.4000;0.4355;1.4060;
1154.7000;0.4322;1.4084;
1155.0000;0.4444;1.4459;
1155.3000;0.4347;1.4225;
1155.6000;0.4339;1.4201;
1155.9000;0.4322;1.4154;
1156.2000;0.4347;1.4154;
1156.5000;0.4363;1.4201;
1156.8000;0.4330;1.4131;
1157.1000;0.4355;1.4131;
1157.4000;0.4330;1.4084;
1157.7000;0.4371;1.4060;
1158.0000;0.4355;1.4107;
1158.3000;0.4355;1.4107;
1158.6000;0.4347;1.4131;
1158.9000;0.4339;1.4178;
1159.2000;0.4355;1.4084;
1159.5000;0.4330;1.4060;
1159.8000;0.4339;1.4131;
1160.1000;0.4355;1.4178;
1160.4000;0.4330;1.4225;
1160.7000;0.4339;1.4248;
1161.0000;0.4339;1.4295;
1161.3000;0.4339;1.4178;
1161.6000;0.4355;1.4107;
1161.9000;0.4330;1.4037;
1162.2000;0.4396;1.4201;
1162.5000;0.4330;1.4060;
1162.8000;0.4339;1.4084;
1163.1000;0.4330;1.4131;
1163.4000;0.4339;1.4107;
1163.7000;0.4347;1.4060;
1164.0000;0.4347;1.4107;
1164.3000;0.4322;1.4060;
1164.6000;0.4355;1.4107;
1164.9000;0.4330;1.4154;
1165.2000;0.4347;1.4154;
1165.5000;0.4330;1.4131;
1165.8000;0.4363;1.4248;
1166.1000;0.4347;1.4225;
1166.4000;0.4339;1.4178;
1166.7000;0.4355;1.4201;
1167.0000;0.4363;1.4225;
1167.3000;0.4347;1.4201;
1167.6000;0.4355;1.4225;
1167.9000;0.4363;1.4272;
1168.2000;0.4347;1.4272;
1168.5000;0.4347;1.4295;
1168.8000;0.4355;1.4319;
1169.1000;0.4322;1.4342;
1169.4000;0.4330;1.4319;
1169.7000;0.4314;1.4342;
1170.0000;0.4298;1.4389;
1170.3000;0.4355;1.4624;
1170.6000;0.4339;1.4530;
1170.9000;0.4330;1.4530;
1171.2000;0.4339;1.4577;
1171.5000;0.4339;1.4506;
1171.8000;0.4363;1.4389;
1172.1000;0.4379;1.4295;
1172.4000;0.4355;1.4248;
1172.7000;0.4322;1.4178;
1173.0000;0.4347;1.4248;
1173.3000;0.4355;1.4295;
1173.6000;0.4330;1.4178;
1173.9000;0.4314;1.4131;
1174.2000;0.4347;1.4201;
1174.5000;0.4355;1.4225;
1174.8000;0.4347;1.4201;
1175.1000;0.4355;1.4201;
1175.4000;0.4347;1.4178;
1175.7000;0.4322;1.4060;
1176.0000;0.4339;1.4154;
1176.3000;0.4347;1.4248;
1176.6000;0.4241;1.3990;
1176.9000;0.4404;1.4389;
1177.2000;0.4363;1.4178;
1177.5000;0.4469;1.4459;
1177.8000;0.4330;1.4178;
1178.1000;0.4306;1.4225;
1178.4000;0.4363;1.4319;
1178.7000;0.4330;1.4295;
1179.0000;0.4330;1.4272;
1179.3000;0.4339;1.4272;
1179.6000;0.4339;1.4272;
1179.9000;0.4355;1.4366;
1180.2000;0.4347;1.4413;
1180.5000;0.4339;1.4389;
1180.8000;0.4339;1.4366;
1181.1000;0.4314;1.4366;
1181.4000;0.4339;1.4483;
1181.7000;0.4322;1.4483;
1182.0000;0.4322;1.4459;
1182.3000;0.4330;1.4506;
1182.6000;0.4339;1.4530;
1182.9000;0.4208;1.4084;
1183.2000;0.4347;1.4342;
1183.5000;0.4347;1.4295;
1183.8000;0.4347;1.4342;
1184.1000;0.4363;1.4319;
1184.4000;0.4347;1.4225;
1184.7000;0.4355;1.4248;
1185.0000;0.4339;1.4107;
1185.3000;0.4339;1.4131;
1185.6000;0.4347;1.4154;
1185.9000;0.4322;1.4107;
1186.2000;0.4330;1.4084;
1186.5000;0.4314;1.4131;
1186.8000;0.4330;1.4201;
1187.1000;0.4339;1.4295;
1187.4000;0.4208;1.4037;
1187.7000;0.4347;1.4295;
1188.0000;0.4339;1.4225;
1188.3000;0.4339;1.4225;
1188.6000;0.4355;1.4319;
1188.9000;0.4330;1.4248;
1189.2000;0.4330;1.4225;
1189.5000;0.4347;1.4225;
1189.8000;0.4330;1.4201;
1190.1000;0.4355;1.4201;
1190.4000;0.4330;1.4201;
1190.7000;0.4371;1.4366;
1191.0000;0.4339;1.4342;
1191.3000;0.4355;1.4225;
1191.6000;0.4347;1.4272;
1191.9000;0.4379;1.4248;
1192.2000;0.4347;1.4201;
1192.5000;0.4339;1.4248;
1192.8000;0.4355;1.4413;
1193.1000;0.4306;1.4225;
1193.4000;0.4339;1.4295;
1193.7000;0.4387;1.4483;
1194.0000;0.4339;1.4342;
1194.3000;0.4339;1.4366;
1194.6000;0.4347;1.4319;
1194.9000;0.4355;1.4319;
1195.2000;0.4233;1.4107;
1195.5000;0.4265;1.4107;
1195.8000;0.4330;1.4295;
1196.1000;0.4363;1.4459;
1196.4000;0.4339;1.4342;
1196.7000;0.4339;1.4248;
1197.0000;0.4314;1.4107;
1197.3000;0.4339;1.4178;
1197.6000;0.4347;1.4201;
1197.9000;0.4363;1.4272;
1198.2000;0.4330;1.4248;
1198.5000;0.4330;1.4248;
1198.8000;0.4339;1.4248;
1199.1000;0.4339;1.4201;
1199.4000;0.4363;1.4342;
1199.7000;0.4355;1.4342;
1200.0000;0.4290;1.4248;
1200.3000;0.4347;1.4366;
1200.6000;0.4290;1.4201;
1200.9000;0.4298;1.4295;
1201.2000;0.4355;1.4530;
1201.5000;0.4355;1.4389;
1201.8000;0.4339;1.4389;
1202.1000;0.4330;1.4389;
1202.4000;0.4339;1.4436;
1202.7000;0.4330;1.4436;
1203.0000;0.4322;1.4366;
1203.3000;0.4330;1.4319;
1203.6000;0.4339;1.4389;
1203.9000;0.4363;1.4483;
1204.2000;0.4363;1.4506;
1204.5000;0.4241;1.4178;
1204.8000;0.4330;1.4319;
1205.1000;0.4339;1.4295;
1205.4000;0.4363;1.4342;
1205.7000;0.4330;1.4366;
1206.0000;0.4330;1.4389;
1206.3000;0.4339;1.4436;
1206.6000;0.4339;1.4389;
1206.9000;0.4330;1.4389;
1207.2000;0.4339;1.4342;
1207.5000;0.4330;1.4342;
1207.8000;0.4330;1.4413;
1208.1000;0.4306;1.4319;
1208.4000;0.4298;1.4201;
1208.7000;0.4355;1.4295;
1209.0000;0.4355;1.4295;
1209.3000;0.4355;1.4248;
1209.6000;0.4330;1.4154;
1209.9000;0.4339;1.4201;
1210.2000;0.4347;1.4225;
1210.5000;0.4339;1.4248;
1210.8000;0.4339;1.4248;
1211.1000;0.4363;1.4225;
1211.4000;0.4355;1.4178;
1211.7000;0.4355;1.4225;
1212.0000;0.4436;1.4483;
1212.3000;0.4322;1.4248;
1212.6000;0.4314;1.4272;
1212.9000;0.4347;1.4272;
1213.2000;0.4396;1.4413;
1213.5000;0.4322;1.4248;
1213.8000;0.4339;1.4319;
1214.1000;0.4396;1.4366;
1214.4000;0.4339;1.4248;
1214.7000;0.4330;1.4272;
1215.0000;0.4322;1.4248;
1215.3000;0.4339;1.4178;
1215.6000;0.4355;1.4131;
1215.9000;0.4363;1.4154;
1216.2000;0.4306;1.4060;
1216.5000;0.4330;1.4154;
1216.8000;0.4355;1.4225;
1217.1000;0.4339;1.4131;
1217.4000;0.4330;1.4084;
1217.7000;0.4355;1.4154;
1218.0000;0.4347;1.4084;
1218.3000;0.4347;1.4178;
1218.6000;0.4347;1.4248;
1218.9000;0.4412;1.4436;
1219.2000;0.4306;1.4154;
1219.5000;0.4306;1.4178;
1219.8000;0.4404;1.4483;
1220.1000;0.4330;1.4295;
1220.4000;0.4330;1.4295;
1220.7000;0.4330;1.4319;
1221.0000;0.4322;1.4366;
1221.3000;0.4363;1.4483;
1221.6000;0.4314;1.4342;
1221.9000;0.4330;1.4319;
1222.2000;0.4371;1.4295;
1222.5000;0.4363;1.4319;
1222.8000;0.4339;1.4272;
1223.1000;0.4347;1.4201;
1223.4000;0.4339;1.4201;
1223.7000;0.4363;1.4201;
1224.0000;0.4355;1.4060;
1224.3000;0.4347;1.4107;
1224.6000;0.4387;1.4248;
1224.9000;0.4330;1.4131;
1225.2000;0.4347;1.4131;
1225.5000;0.4355;1.4131;
1225.8000;0.4322;1.4131;
1226.1000;0.4339;1.4225;
1226.4000;0.4322;1.4225;
1226.7000;0.4355;1.4342;
1227.0000;0.4322;1.4272;
1227.3000;0.4339;1.4319;
1227.6000;0.4330;1.4272;
1227.9000;0.4347;1.4366;
1228.2000;0.4330;1.4342;
1228.5000;0.4330;1.4319;
1228.8000;0.4363;1.4413;
1229.1000;0.4322;1.4272;
1229.4000;0.4347;1.4225;
1229.7000;0.4322;1.4178;
1230.0000;0.4339;1.4295;
1230.3000;0.4339;1.4342;
1230.6000;0.4347;1.4366;
1230.9000;0.4322;1.4319;
1231.2000;0.4396;1.4459;
1231.5000;0.4347;1.4272;
1231.8000;0.4314;1.4178;
1232.1000;0.4420;1.4530;
1232.4000;0.4339;1.4248;
1232.7000;0.4322;1.4201;
1233.0000;0.4347;1.4248;
1233.3000;0.4347;1.4295;
1233.6000;0.4355;1.4295;
1233.9000;0.4322;1.4201;
1234.2000;0.4322;1.4225;
1234.5000;0.4339;1.4272;
1234.8000;0.4322;1.4319;
1235.1000;0.4330;1.4389;
1235.4000;0.4314;1.4295;
1235.7000;0.4314;1.4248;
1236.0000;0.4314;1.4272;
1236.3000;0.4314;1.4295;
1236.6000;0.4339;1.4389;
1236.9000;0.4355;1.4483;
1237.2000;0.4314;1.4436;
1237.5000;0.4347;1.4530;
1237.8000;0.4347;1.4577;
1238.1000;0.4347;1.4506;
1238.4000;0.4347;1.4553;
1238.7000;0.4339;1.4506;
1239.0000;0.4355;1.4530;
1239.3000;0.4371;1.4600;
1239.6000;0.4339;1.4553;
1239.9000;0.4330;1.4413;
1240.2000;0.4339;1.4389;
1240.5000;0.4314;1.4295;
1240.8000;0.4330;1.4225;
1241.1000;0.4396;1.4366;
1241.4000;0.4339;1.4272;
1241.7000;0.4339;1.4295;
1242.0000;0.4339;1.4366;
1242.3000;0.4347;1.4459;
1242.6000;0.4339;1.4436;
1242.9000;0.4339;1.4436;
1243.2000;0.4339;1.4413;
1243.5000;0.4339;1.4436;
1243.8000;0.4298;1.4366;
1244.1000;0.4347;1.4413;
1244.4000;0.4339;1.4225;
1244.7000;0.4330;1.4178;
1245.0000;0.4347;1.4272;
1245.3000;0.4355;1.4342;
1245.6000;0.4355;1.4319;
1245.9000;0.4330;1.4272;
1246.2000;0.4330;1.4295;
1246.5000;0.4404;1.4553;
1246.8000;0.4355;1.4413;
1247.1000;0.4330;1.4413;
1247.4000;0.4314;1.4248;
1247.7000;0.4330;1.4413;
1248.0000;0.4339;1.4436;
1248.3000;0.4379;1.4577;
1248.6000;0.4404;1.4671;
1248.9000;0.4339;1.4436;
1249.2000;0.4339;1.4436;
1249.5000;0.4322;1.4436;
1249.8000;0.4322;1.4436;
1250.1000;0.4330;1.4436;
1250.4000;0.4322;1.4459;
1250.7000;0.4347;1.4483;
1251.0000;0.4322;1.4413;
1251.3000;0.4322;1.4342;
1251.6000;0.4339;1.4506;
1251.9000;0.4347;1.4506;
1252.2000;0.4322;1.4342;
1252.5000;0.4339;1.4413;
1252.8000;0.4339;1.4366;
1253.1000;0.4282;1.4201;
1253.4000;0.4339;1.4459;
1253.7000;0.4330;1.4436;
1254.0000;0.4322;1.4389;
1254.3000;0.4241;1.4131;
1254.6000;0.4347;1.4366;
1254.9000;0.4355;1.4342;
1255.2000;0.4314;1.4131;
1255.5000;0.4379;1.4272;
1255.8000;0.4371;1.4272;
1256.1000;0.4322;1.4154;
1256.4000;0.4339;1.4178;
1256.7000;0.4339;1.4225;
1257.0000;0.4347;1.4272;
1257.3000;0.4339;1.4248;
1257.6000;0.4330;1.4201;
1257.9000;0.4379;1.4366;
1258.2000;0.4355;1.4272;
1258.5000;0.4355;1.4319;
1258.8000;0.4322;1.4248;
1259.1000;0.4265;1.4084;
1259.4000;0.4339;1.4225;
1259.7000;0.4347;1.4201;
1260.0000;0.4330;1.4201;
1260.3000;0.4322;1.4225;
1260.6000;0.4322;1.4272;
1260.9000;0.4355;1.4389;
1261.2000;0.4355;1.4436;
1261.5000;0.4322;1.4436;
1261.8000;0.4347;1.4389;
1262.1000;0.4363;1.4319;
1262.4000;0.4355;1.4319;
1262.7000;0.4330;1.4248;
1263.0000;0.4314;1.4248;
1263.3000;0.4314;1.4248;
1263.6000;0.4355;1.4483;
1263.9000;0.4347;1.4553;
1264.2000;0.4347;1.4577;
1264.5000;0.4339;1.4459;
1264.8000;0.4436;1.4694;
1265.1000;0.4339;1.4389;
1265.4000;0.4347;1.4272;
1265.7000;0.4330;1.4178;
1266.0000;0.4339;1.4248;
1266.3000;0.4355;1.4295;
1266.6000;0.4347;1.4319;
1266.9000;0.4339;1.4272;
1267.2000;0.4330;1.4272;
1267.5000;0.4330;1.4201;
1267.8000;0.4298;1.4178;
1268.1000;0.4330;1.4225;
1268.4000;0.4322;1.4342;
1268.7000;0.4330;1.4366;
1269.0000;0.4282;1.4342;
1269.3000;0.4330;1.4389;
1269.6000;0.4339;1.4459;
1269.9000;0.4241;1.4201;
1270.2000;0.4339;1.4413;
1270.5000;0.4347;1.4436;
1270.8000;0.4339;1.4483;
1271.1000;0.4347;1.4413;
1271.4000;0.4298;1.4342;
1271.7000;0.4330;1.4483;
1272.0000;0.4371;1.4436;
1272.3000;0.4339;1.4459;
1272.6000;0.4330;1.4483;
1272.9000;0.4322;1.4577;
1273.2000;0.4322;1.4577;
1273.5000;0.4363;1.4647;
1273.8000;0.4330;1.4553;
1274.1000;0.4330;1.4506;
1274.4000;0.4330;1.4647;
1274.7000;0.4322;1.4577;
1275.0000;0.4355;1.4600;
1275.3000;0.4322;1.4577;
1275.6000;0.4347;1.4600;
1275.9000;0.4347;1.4506;
1276.2000;0.4265;1.4295;
1276.5000;0.4339;1.4483;
1276.8000;0.4355;1.4553;
1277.1000;0.4363;1.4483;
1277.4000;0.4306;1.4366;
1277.7000;0.4298;1.4319;
1278.0000;0.4347;1.4366;
1278.3000;0.4379;1.4506;
1278.6000;0.4314;1.4389;
1278.9000;0.4330;1.4483;
1279.2000;0.4339;1.4553;
1279.5000;0.4330;1.4506;
1279.8000;0.4322;1.4413;
1280.1000;0.4347;1.4366;
1280.4000;0.4379;1.4530;
1280.7000;0.4339;1.4483;
1281.0000;0.4314;1.4436;
1281.3000;0.4347;1.4506;
1281.6000;0.4347;1.4577;
1281.9000;0.4355;1.4530;
1282.2000;0.4355;1.4553;
1282.5000;0.4347;1.4671;
1282.8000;0.4347;1.4671;
1283.1000;0.4355;1.4694;
1283.4000;0.4339;1.4718;
1283.7000;0.4339;1.4671;
1284.0000;0.4339;1.4506;
1284.3000;0.4347;1.4506;
1284.6000;0.4322;1.4436;
1284.9000;0.4347;1.4506;
1285.2000;0.4330;1.4483;
1285.5000;0.4355;1.4553;
1285.8000;0.4355;1.4530;
1286.1000;0.4314;1.4483;
1286.4000;0.4330;1.4459;
1286.7000;0.4363;1.4553;
1287.0000;0.4461;1.4812;
1287.3000;0.4355;1.4530;
1287.6000;0.4355;1.4553;
1287.9000;0.4363;1.4577;
1288.2000;0.4355;1.4506;
1288.5000;0.4355;1.4436;
1288.8000;0.4322;1.4342;
1289.1000;0.4322;1.4366;
1289.4000;0.4347;1.4506;
1289.7000;0.4314;1.4389;
1290.0000;0.4339;1.4436;
1290.3000;0.4339;1.4389;
1290.6000;0.4322;1.4272;
1290.9000;0.4428;1.4577;
1291.2000;0.4363;1.4413;
1291.5000;0.4363;1.4459;
1291.8000;0.4355;1.4366;
1292.1000;0.4330;1.4413;
1292.4000;0.4314;1.4342;
1292.7000;0.4347;1.4295;
1293.0000;0.4396;1.4506;
1293.3000;0.4347;1.4413;
1293.6000;0.4339;1.4459;
1293.9000;0.4225;1.4248;
1294.2000;0.4347;1.4506;
1294.5000;0.4225;1.4201;
1294.8000;0.4322;1.4366;
1295.1000;0.4322;1.4295;
1295.4000;0.4355;1.4319;
1295.7000;0.4290;1.4201;
1296.0000;0.4330;1.4295;
1296.3000;0.4339;1.4272;
1296.6000;0.4282;1.4295;
1296.9000;0.4453;1.4694;
1297.2000;0.4347;1.4506;
1297.5000;0.4347;1.4530;
1297.8000;0.4347;1.4530;
1298.1000;0.4347;1.4577;
1298.4000;0.4355;1.4600;
1298.7000;0.4379;1.4741;
1299.0000;0.4363;1.4718;
1299.3000;0.4355;1.4577;
1299.6000;0.4363;1.4530;
1299.9000;0.4330;1.4436;
1300.2000;0.4314;1.4342;
1300.5000;0.4339;1.4389;
1300.8000;0.4347;1.4413;
1301.1000;0.4339;1.4366;
1301.4000;0.4290;1.4201;
1301.7000;0.4355;1.4319;
1302.0000;0.4339;1.4295;
1302.3000;0.4339;1.4319;
1302.6000;0.4322;1.4201;
1302.9000;0.4355;1.4272;
1303.2000;0.4339;1.4201;
1303.5000;0.4314;1.4154;
1303.8000;0.4355;1.4248;
1304.1000;0.4322;1.4178;
1304.4000;0.4306;1.4107;
1304.7000;0.4339;1.4272;
1305.0000;0.4347;1.4342;
1305.3000;0.4339;1.4248;
1305.6000;0.4330;1.4272;
1305.9000;0.4347;1.4319;
1306.2000;0.4339;1.4319;
1306.5000;0.4339;1.4295;
1306.8000;0.4347;1.4342;
1307.1000;0.4330;1.4366;
1307.4000;0.4347;1.4413;
1307.7000;0.4330;1.4413;
1308.0000;0.4347;1.4459;
1308.3000;0.4347;1.4553;
1308.6000;0.4347;1.4506;
1308.9000;0.4330;1.4459;
1309.2000;0.4330;1.4366;
1309.5000;0.4339;1.4413;
1309.8000;0.4347;1.4436;
1310.1000;0.4347;1.4366;
1310.4000;0.4314;1.4295;
1310.7000;0.4330;1.4295;
1311.0000;0.4347;1.4201;
1311.3000;0.4330;1.4178;
1311.6000;0.4330;1.4131;
1311.9000;0.4339;1.4201;
1312.2000;0.4339;1.4225;
1312.5000;0.4339;1.4154;
1312.8000;0.4371;1.4201;
1313.1000;0.4339;1.4248;
1313.4000;0.4347;1.4248;
1313.7000;0.4363;1.4225;
1314.0000;0.4404;1.4530;
1314.3000;0.4347;1.4413;
1314.6000;0.4330;1.4342;
1314.9000;0.4339;1.4436;
1315.2000;0.4347;1.4389;
1315.5000;0.4347;1.4389;
1315.8000;0.4322;1.4225;
1316.1000;0.4477;1.4624;
1316.4000;0.4355;1.4295;
1316.7000;0.4387;1.4342;
1317.0000;0.4339;1.4225;
1317.3000;0.4322;1.4295;
1317.6000;0.4339;1.4319;
1317.9000;0.4347;1.4295;
1318.2000;0.4347;1.4295;
1318.5000;0.4347;1.4272;
1318.8000;0.4339;1.4295;
1319.1000;0.4347;1.4295;
1319.4000;0.4257;1.4084;
1319.7000;0.4347;1.4295;
1320.0000;0.4355;1.4366;
1320.3000;0.4355;1.4389;
1320.6000;0.4322;1.4342;
1320.9000;0.4347;1.4319;
1321.2000;0.4330;1.4389;
1321.5000;0.4339;1.4319;
1321.8000;0.4330;1.4295;
1322.1000;0.4339;1.4295;
1322.4000;0.4322;1.4201;
1322.7000;0.4339;1.4319;
1323.0000;0.4330;1.4201;
1323.3000;0.4330;1.4084;
1323.6000;0.4322;1.4131;
1323.9000;0.4322;1.4084;
1324.2000;0.4379;1.4248;
1324.5000;0.4347;1.4131;
1324.8000;0.4339;1.4201;
1325.1000;0.4371;1.4295;
1325.4000;0.4412;1.4459;
1325.7000;0.4347;1.4389;
1326.0000;0.4355;1.4413;
1326.3000;0.4347;1.4389;
1326.6000;0.4339;1.4366;
1326.9000;0.4339;1.4295;
1327.2000;0.4396;1.4483;
1327.5000;0.4355;1.4366;
1327.8000;0.4330;1.4436;
1328.1000;0.4347;1.4459;
1328.4000;0.4322;1.4506;
1328.7000;0.4322;1.4506;
1329.0000;0.4314;1.4436;
1329.3000;0.4322;1.4389;
1329.6000;0.4330;1.4436;
1329.9000;0.4322;1.4319;
1330.2000;0.4322;1.4295;
1330.5000;0.4322;1.4225;
1330.8000;0.4330;1.4201;
1331.1000;0.4314;1.4107;
1331.4000;0.4314;1.4060;
1331.7000;0.4387;1.4272;
1332.0000;0.4347;1.4084;
1332.3000;0.4363;1.4201;
1332.6000;0.4322;1.4107;
1332.9000;0.4347;1.4225;
1333.2000;0.4330;1.4225;
1333.5000;0.4339;1.4201;
1333.8000;0.4339;1.4272;
1334.1000;0.4322;1.4178;
1334.4000;0.4339;1.4178;
1334.7000;0.4396;1.4413;
1335.0000;0.4339;1.4225;
1335.3000;0.4330;1.4154;
1335.6000;0.4347;1.4178;
1335.9000;0.4330;1.4131;
1336.2000;0.4330;1.4225;
1336.5000;0.4322;1.4154;
1336.8000;0.4330;1.4084;
1337.1000;0.4347;1.4131;
1337.4000;0.4371;1.4107;
1337.7000;0.4330;1.4107;
1338.0000;0.4314;1.4107;
1338.3000;0.4347;1.4178;
1338.6000;0.4274;1.4013;
1338.9000;0.4322;1.4154;
1339.2000;0.4339;1.4248;
1339.5000;0.4322;1.4295;
1339.8000;0.4347;1.4389;
1340.1000;0.4330;1.4366;
1340.4000;0.4330;1.4389;
1340.7000;0.4347;1.4436;
1341.0000;0.4339;1.4436;
1341.3000;0.4330;1.4459;
1341.6000;0.4339;1.4459;
1341.9000;0.4396;1.4577;
1342.2000;0.4339;1.4506;
1342.5000;0.4322;1.4436;
1342.8000;0.4330;1.4459;
1343.1000;0.4355;1.4413;
1343.4000;0.4225;1.4013;
1343.7000;0.4339;1.4295;
1344.0000;0.4314;1.4178;
1344.3000;0.4314;1.4154;
1344.6000;0.4330;1.4131;
1344.9000;0.4339;1.4154;
1345.2000;0.4339;1.4154;
1345.5000;0.4322;1.4037;
1345.8000;0.4322;1.4060;
1346.1000;0.4339;1.4107;
1346.4000;0.4339;1.4037;
1346.7000;0.4314;1.3990;
1347.0000;0.4314;1.4013;
1347.3000;0.4322;1.4131;
1347.6000;0.4339;1.4201;
1347.9000;0.4339;1.4201;
1348.2000;0.4330;1.4107;
1348.5000;0.4339;1.4060;
1348.8000;0.4347;1.4131;
1349.1000;0.4225;1.3802;
1349.4000;0.4322;1.4107;
1349.7000;0.4339;1.4060;
1350.0000;0.4306;1.3990;
1350.3000;0.4314;1.4013;
1350.6000;0.4339;1.4084;
1350.9000;0.4322;1.4107;
1351.2000;0.4363;1.4225;
1351.5000;0.4322;1.4131;
1351.8000;0.4330;1.4060;
1352.1000;0.4339;1.4107;
1352.4000;0.4355;1.4154;
1352.7000;0.4330;1.4107;
1353.0000;0.4339;1.4178;
1353.3000;0.4322;1.4225;
1353.6000;0.4339;1.4248;
1353.9000;0.4339;1.4201;
1354.2000;0.4330;1.4154;
1354.5000;0.4274;1.3943;
1354.8000;0.4330;1.4131;
1355.1000;0.4339;1.4178;
1355.4000;0.4322;1.4154;
1355.7000;0.4330;1.4178;
1356.0000;0.4330;1.4225;
1356.3000;0.4347;1.4225;
1356.6000;0.4355;1.4366;
1356.9000;0.4339;1.4342;
1357.2000;0.4322;1.4248;
1357.5000;0.4404;1.4413;
1357.8000;0.4339;1.4225;
1358.1000;0.4339;1.4295;
1358.4000;0.4314;1.4272;
1358.7000;0.4347;1.4413;
1359.0000;0.4347;1.4342;
1359.3000;0.4355;1.4272;
1359.6000;0.4330;1.4154;
1359.9000;0.4363;1.4107;
1360.2000;0.4330;1.4178;
1360.5000;0.4314;1.4154;
1360.8000;0.4290;1.4013;
1361.1000;0.4347;1.4084;
1361.4000;0.4339;1.4107;
1361.7000;0.4347;1.4154;
1362.0000;0.4371;1.4154;
1362.3000;0.4257;1.3849;
1362.6000;0.4355;1.4154;
1362.9000;0.4330;1.4178;
1363.2000;0.4282;1.4037;
1363.5000;0.4322;1.4060;
1363.8000;0.4339;1.4154;
1364.1000;0.4339;1.4131;
1364.4000;0.4404;1.4225;
1364.7000;0.4330;1.4131;
1365.0000;0.4339;1.4201;
1365.3000;0.4330;1.4060;
1365.6000;0.4404;1.4178;
1365.9000;0.4241;1.3708;
1366.2000;0.4306;1.3967;
1366.5000;0.4298;1.3967;
1366.8000;0.4339;1.4131;
1367.1000;0.4363;1.4295;
1367.4000;0.4322;1.4248;
1367.7000;0.4347;1.4366;
1368.0000;0.4330;1.4295;
1368.3000;0.4330;1.4295;
1368.6000;0.4322;1.4342;
1368.9000;0.4322;1.4342;
1369.2000;0.4347;1.4319;
1369.5000;0.4282;1.4131;
1369.8000;0.4453;1.4506;
1370.1000;0.4347;1.4201;
1370.4000;0.4436;1.4506;
1370.7000;0.4339;1.4272;
1371.0000;0.4314;1.4225;
1371.3000;0.4314;1.4295;
1371.6000;0.4322;1.4272;
1371.9000;0.4314;1.4295;
1372.2000;0.4339;1.4342;
1372.5000;0.4330;1.4342;
1372.8000;0.4347;1.4389;
1373.1000;0.4371;1.4413;
1373.4000;0.4347;1.4248;
1373.7000;0.4330;1.4272;
1374.0000;0.4330;1.4225;
1374.3000;0.4339;1.4295;
1374.6000;0.4339;1.4342;
1374.9000;0.4330;1.4413;
1375.2000;0.4404;1.4506;
1375.5000;0.4339;1.4319;
1375.8000;0.4322;1.4248;
1376.1000;0.4322;1.4201;
1376.4000;0.4339;1.4319;
1376.7000;0.4306;1.4225;
1377.0000;0.4330;1.4201;
1377.3000;0.4330;1.4178;
1377.6000;0.4330;1.4201;
1377.9000;0.4322;1.4131;
1378.2000;0.4330;1.4178;
1378.5000;0.4379;1.4295;
1378.8000;0.4347;1.4272;
1379.1000;0.4339;1.4178;
1379.4000;0.4339;1.4248;
1379.7000;0.4330;1.4131;
1380.0000;0.4322;1.4084;
1380.3000;0.4314;1.3990;
1380.6000;0.4322;1.4084;
1380.9000;0.4322;1.4060;
1381.2000;0.4347;1.4131;
1381.5000;0.4404;1.4225;
1381.8000;0.4347;1.4107;
1382.1000;0.4355;1.4178;
1382.4000;0.4330;1.4107;
1382.7000;0.4339;1.4201;
1383.0000;0.4330;1.4272;
1383.3000;0.4339;1.4342;
1383.6000;0.4347;1.4295;
1383.9000;0.4322;1.4131;
1384.2000;0.4339;1.4248;
1384.5000;0.4330;1.4272;
1384.8000;0.4322;1.4366;
1385.1000;0.4282;1.4319;
1385.4000;0.4330;1.4436;
1385.7000;0.4322;1.4389;
1386.0000;0.4355;1.4436;
1386.3000;0.4347;1.4366;
1386.6000;0.4314;1.4389;
1386.9000;0.4330;1.4389;
1387.2000;0.4355;1.4483;
1387.5000;0.4379;1.4553;
1387.8000;0.4330;1.4413;
1388.1000;0.4265;1.4272;
1388.4000;0.4306;1.4342;
1388.7000;0.4339;1.4459;
1389.0000;0.4265;1.4201;
1389.3000;0.4330;1.4225;
1389.6000;0.4322;1.4178;
1389.9000;0.4355;1.4295;
1390.2000;0.4330;1.4225;
1390.5000;0.4339;1.4178;
1390.8000;0.4379;1.4225;
1391.1000;0.4314;1.4037;
1391.4000;0.4322;1.4131;
1391.7000;0.4322;1.4084;
1392.0000;0.4339;1.4154;
1392.3000;0.4355;1.4107;
1392.6000;0.4330;1.4013;
1392.9000;0.4330;1.4037;
1393.2000;0.4339;1.4131;
1393.5000;0.4330;1.4154;
1393.8000;0.4330;1.4013;
1394.1000;0.4363;1.4107;
1394.4000;0.4339;1.4037;
1394.7000;0.4355;1.4084;
1395.0000;0.4347;1.4131;
1395.3000;0.4322;1.4178;
1395.6000;0.4339;1.4107;
1395.9000;0.4330;1.4013;
1396.2000;0.4363;1.4131;
1396.5000;0.4330;1.4037;
1396.8000;0.4363;1.4131;
1397.1000;0.4355;1.4084;
1397.4000;0.4339;1.4107;
1397.7000;0.4274;1.4084;
1398.0000;0.4314;1.4225;
1398.3000;0.4330;1.4201;
1398.6000;0.4330;1.4225;
1398.9000;0.4322;1.4201;
1399.2000;0.4330;1.4131;
1399.5000;0.4339;1.4154;
1399.8000;0.4322;1.4225;
