time/ms;Fluo/V;P700 deltaI/I x10³;
-199.8000;0.7212;1.4506;
-199.5000;0.7220;1.4413;
-199.2000;0.7204;1.4225;
-198.9000;0.7204;1.4319;
-198.6000;0.7350;1.4741;
-198.3000;0.7220;1.4483;
-198.0000;0.7204;1.4389;
-197.7000;0.7228;1.4436;
-197.4000;0.7253;1.4624;
-197.1000;0.7220;1.4600;
-196.8000;0.7212;1.4553;
-196.5000;0.7228;1.4553;
-196.2000;0.7236;1.4600;
-195.9000;0.7228;1.4530;
-195.6000;0.7236;1.4506;
-195.3000;0.7269;1.4506;
-195.0000;0.7220;1.4389;
-194.7000;0.7245;1.4436;
-194.4000;0.7220;1.4366;
-194.1000;0.7228;1.4413;
-193.8000;0.7236;1.4436;
-193.5000;0.7204;1.4295;
-193.2000;0.7285;1.4553;
-192.9000;0.7212;1.4342;
-192.6000;0.7220;1.4319;
-192.3000;0.7228;1.4342;
-192.0000;0.7228;1.4366;
-191.7000;0.7228;1.4366;
-191.4000;0.7163;1.4225;
-191.1000;0.7228;1.4413;
-190.8000;0.7253;1.4436;
-190.5000;0.7236;1.4342;
-190.2000;0.7228;1.4459;
-189.9000;0.7245;1.4483;
-189.6000;0.7228;1.4506;
-189.3000;0.7245;1.4506;
-189.0000;0.7204;1.4413;
-188.7000;0.7228;1.4389;
-188.4000;0.7212;1.4389;
-188.1000;0.7269;1.4530;
-187.8000;0.7204;1.4413;
-187.5000;0.7220;1.4389;
-187.2000;0.7236;1.4436;
-186.9000;0.7228;1.4319;
-186.6000;0.7228;1.4295;
-186.3000;0.7236;1.4366;
-186.0000;0.7236;1.4436;
-185.7000;0.7245;1.4530;
-185.4000;0.7228;1.4506;
-185.1000;0.7236;1.4459;
-184.8000;0.7236;1.4389;
-184.5000;0.7236;1.4389;
-184.2000;0.7245;1.4413;
-183.9000;0.7261;1.4530;
-183.6000;0.7220;1.4530;
-183.3000;0.7228;1.4530;
-183.0000;0.7204;1.4413;
-182.7000;0.7188;1.4295;
-182.4000;0.7220;1.4366;
-182.1000;0.7236;1.4459;
-181.8000;0.7220;1.4413;
-181.5000;0.7220;1.4436;
-181.2000;0.7236;1.4459;
-180.9000;0.7236;1.4506;
-180.6000;0.7236;1.4577;
-180.3000;0.7236;1.4506;
-180.0000;0.7245;1.4506;
-179.7000;0.7131;1.4295;
-179.4000;0.7253;1.4530;
-179.1000;0.7236;1.4506;
-178.8000;0.7220;1.4459;
-178.5000;0.7236;1.4483;
-178.2000;0.7228;1.4413;
-177.9000;0.7375;1.4718;
-177.6000;0.7228;1.4366;
-177.3000;0.7220;1.4295;
-177.0000;0.7236;1.4319;
-176.7000;0.7261;1.4483;
-176.4000;0.7220;1.4436;
-176.1000;0.7212;1.4459;
-175.8000;0.7269;1.4600;
-175.5000;0.7220;1.4577;
-175.2000;0.7236;1.4577;
-174.9000;0.7228;1.4600;
-174.6000;0.7253;1.4577;
-174.3000;0.7228;1.4577;
-174.0000;0.7245;1.4671;
-173.7000;0.7220;1.4577;
-173.4000;0.7220;1.4647;
-173.1000;0.7220;1.4647;
-172.8000;0.7334;1.4835;
-172.5000;0.7212;1.4577;
-172.2000;0.7220;1.4577;
-171.9000;0.7212;1.4530;
-171.6000;0.7236;1.4577;
-171.3000;0.7212;1.4459;
-171.0000;0.7228;1.4413;
-170.7000;0.7228;1.4366;
-170.4000;0.7204;1.4366;
-170.1000;0.7236;1.4413;
-169.8000;0.7212;1.4389;
-169.5000;0.7212;1.4389;
-169.2000;0.7228;1.4483;
-168.9000;0.7228;1.4506;
-168.6000;0.7220;1.4530;
-168.3000;0.7236;1.4483;
-168.0000;0.7261;1.4506;
-167.7000;0.7236;1.4366;
-167.4000;0.7220;1.4295;
-167.1000;0.7212;1.4248;
-166.8000;0.7228;1.4366;
-166.5000;0.7261;1.4483;
-166.2000;0.7204;1.4413;
-165.9000;0.7253;1.4530;
-165.6000;0.7228;1.4553;
-165.3000;0.7228;1.4553;
-165.0000;0.7245;1.4506;
-164.7000;0.7228;1.4436;
-164.4000;0.7220;1.4483;
-164.1000;0.7236;1.4577;
-163.8000;0.7236;1.4647;
-163.5000;0.7228;1.4647;
-163.2000;0.7139;1.4389;
-162.9000;0.7220;1.4600;
-162.6000;0.7228;1.4600;
-162.3000;0.7188;1.4506;
-162.0000;0.7228;1.4600;
-161.7000;0.7228;1.4577;
-161.4000;0.7228;1.4600;
-161.1000;0.7139;1.4342;
-160.8000;0.7245;1.4577;
-160.5000;0.7220;1.4506;
-160.2000;0.7155;1.4413;
-159.9000;0.7220;1.4600;
-159.6000;0.7228;1.4647;
-159.3000;0.7212;1.4624;
-159.0000;0.7228;1.4694;
-158.7000;0.7228;1.4647;
-158.4000;0.7228;1.4624;
-158.1000;0.7236;1.4530;
-157.8000;0.7196;1.4413;
-157.5000;0.7228;1.4436;
-157.2000;0.7236;1.4506;
-156.9000;0.7204;1.4413;
-156.6000;0.7212;1.4483;
-156.3000;0.7228;1.4413;
-156.0000;0.7228;1.4319;
-155.7000;0.7236;1.4389;
-155.4000;0.7220;1.4436;
-155.1000;0.7220;1.4436;
-154.8000;0.7212;1.4389;
-154.5000;0.7228;1.4366;
-154.2000;0.7236;1.4319;
-153.9000;0.7236;1.4295;
-153.6000;0.7228;1.4225;
-153.3000;0.7220;1.4295;
-153.0000;0.7236;1.4366;
-152.7000;0.7228;1.4342;
-152.4000;0.7236;1.4389;
-152.1000;0.7253;1.4459;
-151.8000;0.7236;1.4483;
-151.5000;0.7220;1.4530;
-151.2000;0.7245;1.4553;
-150.9000;0.7212;1.4413;
-150.6000;0.7285;1.4671;
-150.3000;0.7228;1.4506;
-150.0000;0.7228;1.4436;
-149.7000;0.7228;1.4413;
-149.4000;0.7228;1.4389;
-149.1000;0.7228;1.4342;
-148.8000;0.7236;1.4342;
-148.5000;0.7228;1.4413;
-148.2000;0.7236;1.4459;
-147.9000;0.7220;1.4436;
-147.6000;0.7220;1.4413;
-147.3000;0.7228;1.4436;
-147.0000;0.7220;1.4459;
-146.7000;0.7196;1.4413;
-146.4000;0.7212;1.4553;
-146.1000;0.7212;1.4483;
-145.8000;0.7220;1.4483;
-145.5000;0.7228;1.4436;
-145.2000;0.7245;1.4459;
-144.9000;0.7228;1.4389;
-144.6000;0.7236;1.4389;
-144.3000;0.7228;1.4366;
-144.0000;0.7245;1.4342;
-143.7000;0.7220;1.4319;
-143.4000;0.7245;1.4295;
-143.1000;0.7220;1.4319;
-142.8000;0.7228;1.4366;
-142.5000;0.7236;1.4342;
-142.2000;0.7228;1.4295;
-141.9000;0.7171;1.4225;
-141.6000;0.7236;1.4389;
-141.3000;0.7212;1.4342;
-141.0000;0.7220;1.4413;
-140.7000;0.7212;1.4342;
-140.4000;0.7236;1.4483;
-140.1000;0.7293;1.4624;
-139.8000;0.7228;1.4553;
-139.5000;0.7228;1.4553;
-139.2000;0.7212;1.4459;
-138.9000;0.7228;1.4530;
-138.6000;0.7228;1.4577;
-138.3000;0.7228;1.4600;
-138.0000;0.7220;1.4577;
-137.7000;0.7228;1.4530;
-137.4000;0.7188;1.4413;
-137.1000;0.7220;1.4483;
-136.8000;0.7236;1.4413;
-136.5000;0.7228;1.4436;
-136.2000;0.7220;1.4413;
-135.9000;0.7245;1.4436;
-135.6000;0.7228;1.4413;
-135.3000;0.7220;1.4436;
-135.0000;0.7228;1.4459;
-134.7000;0.7204;1.4413;
-134.4000;0.7228;1.4506;
-134.1000;0.7228;1.4553;
-133.8000;0.7245;1.4671;
-133.5000;0.7285;1.4765;
-133.2000;0.7212;1.4600;
-132.9000;0.7228;1.4624;
-132.6000;0.7220;1.4694;
-132.3000;0.7212;1.4718;
-132.0000;0.7228;1.4788;
-131.7000;0.7245;1.4741;
-131.4000;0.7228;1.4741;
-131.1000;0.7236;1.4741;
-130.8000;0.7245;1.4765;
-130.5000;0.7228;1.4718;
-130.2000;0.7236;1.4741;
-129.9000;0.7228;1.4600;
-129.6000;0.7228;1.4483;
-129.3000;0.7220;1.4342;
-129.0000;0.7236;1.4389;
-128.7000;0.7253;1.4459;
-128.4000;0.7293;1.4647;
-128.1000;0.7204;1.4530;
-127.8000;0.7236;1.4553;
-127.5000;0.7228;1.4530;
-127.2000;0.7318;1.4788;
-126.9000;0.7228;1.4600;
-126.6000;0.7236;1.4647;
-126.3000;0.7228;1.4647;
-126.0000;0.7228;1.4624;
-125.7000;0.7285;1.4741;
-125.4000;0.7155;1.4436;
-125.1000;0.7245;1.4600;
-124.8000;0.7228;1.4600;
-124.5000;0.7220;1.4553;
-124.2000;0.7277;1.4765;
-123.9000;0.7236;1.4577;
-123.6000;0.7220;1.4506;
-123.3000;0.7220;1.4506;
-123.0000;0.7114;1.4342;
-122.7000;0.7212;1.4600;
-122.4000;0.7196;1.4483;
-122.1000;0.7228;1.4577;
-121.8000;0.7293;1.4694;
-121.5000;0.7228;1.4483;
-121.2000;0.7228;1.4459;
-120.9000;0.7236;1.4506;
-120.6000;0.7236;1.4506;
-120.3000;0.7236;1.4577;
-120.0000;0.7236;1.4577;
-119.7000;0.7245;1.4671;
-119.4000;0.7236;1.4577;
-119.1000;0.7253;1.4624;
-118.8000;0.7245;1.4647;
-118.5000;0.7236;1.4647;
-118.2000;0.7204;1.4553;
-117.9000;0.7220;1.4577;
-117.6000;0.7236;1.4577;
-117.3000;0.7228;1.4483;
-117.0000;0.7220;1.4413;
-116.7000;0.7220;1.4459;
-116.4000;0.7212;1.4413;
-116.1000;0.7220;1.4413;
-115.8000;0.7245;1.4413;
-115.5000;0.7220;1.4295;
-115.2000;0.7236;1.4389;
-114.9000;0.7228;1.4436;
-114.6000;0.7245;1.4600;
-114.3000;0.7220;1.4577;
-114.0000;0.7220;1.4577;
-113.7000;0.7245;1.4671;
-113.4000;0.7236;1.4671;
-113.1000;0.7188;1.4553;
-112.8000;0.7228;1.4600;
-112.5000;0.7220;1.4600;
-112.2000;0.7236;1.4600;
-111.9000;0.7236;1.4506;
-111.6000;0.7245;1.4553;
-111.3000;0.7228;1.4577;
-111.0000;0.7236;1.4553;
-110.7000;0.7220;1.4553;
-110.4000;0.7171;1.4436;
-110.1000;0.7220;1.4553;
-109.8000;0.7245;1.4577;
-109.5000;0.7245;1.4600;
-109.2000;0.7236;1.4600;
-108.9000;0.7212;1.4483;
-108.6000;0.7220;1.4530;
-108.3000;0.7236;1.4553;
-108.0000;0.7220;1.4506;
-107.7000;0.7220;1.4553;
-107.4000;0.7318;1.4812;
-107.1000;0.7220;1.4624;
-106.8000;0.7212;1.4577;
-106.5000;0.7228;1.4530;
-106.2000;0.7220;1.4506;
-105.9000;0.7220;1.4436;
-105.6000;0.7245;1.4506;
-105.3000;0.7236;1.4530;
-105.0000;0.7228;1.4577;
-104.7000;0.7139;1.4389;
-104.4000;0.7204;1.4577;
-104.1000;0.7236;1.4553;
-103.8000;0.7261;1.4530;
-103.5000;0.7212;1.4342;
-103.2000;0.7236;1.4366;
-102.9000;0.7204;1.4272;
-102.6000;0.7212;1.4342;
-102.3000;0.7245;1.4342;
-102.0000;0.7228;1.4342;
-101.7000;0.7269;1.4459;
-101.4000;0.7261;1.4506;
-101.1000;0.7212;1.4342;
-100.8000;0.7236;1.4248;
-100.5000;0.7261;1.4272;
-100.2000;0.7212;1.4154;
-99.9000;0.7220;1.4295;
-99.6000;0.7228;1.4342;
-99.3000;0.7236;1.4436;
-99.0000;0.7171;1.4225;
-98.7000;0.7245;1.4319;
-98.4000;0.7236;1.4248;
-98.1000;0.7236;1.4272;
-97.8000;0.7212;1.4154;
-97.5000;0.7228;1.4295;
-97.2000;0.7220;1.4366;
-96.9000;0.7204;1.4272;
-96.6000;0.7236;1.4272;
-96.3000;0.7245;1.4366;
-96.0000;0.7228;1.4413;
-95.7000;0.7261;1.4459;
-95.4000;0.7228;1.4459;
-95.1000;0.7245;1.4483;
-94.8000;0.7236;1.4577;
-94.5000;0.7245;1.4530;
-94.2000;0.7147;1.4178;
-93.9000;0.7261;1.4506;
-93.6000;0.7220;1.4413;
-93.3000;0.7212;1.4366;
-93.0000;0.7212;1.4413;
-92.7000;0.7236;1.4553;
-92.4000;0.7245;1.4530;
-92.1000;0.7228;1.4483;
-91.8000;0.7245;1.4530;
-91.5000;0.7236;1.4530;
-91.2000;0.7220;1.4413;
-90.9000;0.7212;1.4342;
-90.6000;0.7228;1.4366;
-90.3000;0.7220;1.4389;
-90.0000;0.7245;1.4506;
-89.7000;0.7228;1.4506;
-89.4000;0.7334;1.4812;
-89.1000;0.7220;1.4600;
-88.8000;0.7236;1.4718;
-88.5000;0.7236;1.4741;
-88.2000;0.7236;1.4812;
-87.9000;0.7171;1.4577;
-87.6000;0.7245;1.4812;
-87.3000;0.7220;1.4812;
-87.0000;0.7228;1.4882;
-86.7000;0.7212;1.4882;
-86.4000;0.7236;1.4905;
-86.1000;0.7228;1.4788;
-85.8000;0.7220;1.4694;
-85.5000;0.7228;1.4788;
-85.2000;0.7204;1.4718;
-84.9000;0.7236;1.4741;
-84.6000;0.7212;1.4671;
-84.3000;0.7228;1.4694;
-84.0000;0.7220;1.4788;
-83.7000;0.7245;1.4788;
-83.4000;0.7228;1.4694;
-83.1000;0.7245;1.4694;
-82.8000;0.7253;1.4694;
-82.5000;0.7342;1.4929;
-82.2000;0.7236;1.4718;
-81.9000;0.7326;1.4976;
-81.6000;0.7245;1.4718;
-81.3000;0.7236;1.4600;
-81.0000;0.7245;1.4600;
-80.7000;0.7220;1.4506;
-80.4000;0.7228;1.4483;
-80.1000;0.7212;1.4459;
-79.8000;0.7253;1.4671;
-79.5000;0.7220;1.4530;
-79.2000;0.7236;1.4624;
-78.9000;0.7220;1.4577;
-78.6000;0.7245;1.4600;
-78.3000;0.7236;1.4553;
-78.0000;0.7196;1.4530;
-77.7000;0.7228;1.4671;
-77.4000;0.7245;1.4718;
-77.1000;0.7228;1.4624;
-76.8000;0.7220;1.4530;
-76.5000;0.7220;1.4530;
-76.2000;0.7204;1.4483;
-75.9000;0.7228;1.4577;
-75.6000;0.7147;1.4389;
-75.3000;0.7212;1.4577;
-75.0000;0.7212;1.4694;
-74.7000;0.7114;1.4413;
-74.4000;0.7204;1.4600;
-74.1000;0.7220;1.4600;
-73.8000;0.7204;1.4483;
-73.5000;0.7220;1.4506;
-73.2000;0.7220;1.4553;
-72.9000;0.7147;1.4319;
-72.6000;0.7220;1.4506;
-72.3000;0.7204;1.4459;
-72.0000;0.7163;1.4413;
-71.7000;0.7204;1.4483;
-71.4000;0.7228;1.4624;
-71.1000;0.7245;1.4671;
-70.8000;0.7261;1.4718;
-70.5000;0.7236;1.4647;
-70.2000;0.7155;1.4366;
-69.9000;0.7253;1.4577;
-69.6000;0.7228;1.4671;
-69.3000;0.7220;1.4694;
-69.0000;0.7212;1.4788;
-68.7000;0.7236;1.4835;
-68.4000;0.7228;1.4765;
-68.1000;0.7196;1.4647;
-67.8000;0.7220;1.4741;
-67.5000;0.7212;1.4694;
-67.2000;0.7171;1.4553;
-66.9000;0.7269;1.4694;
-66.6000;0.7220;1.4600;
-66.3000;0.7236;1.4624;
-66.0000;0.7220;1.4647;
-65.7000;0.7228;1.4694;
-65.4000;0.7236;1.4718;
-65.1000;0.7236;1.4671;
-64.8000;0.7236;1.4671;
-64.5000;0.7245;1.4600;
-64.2000;0.7245;1.4577;
-63.9000;0.7236;1.4600;
-63.6000;0.7228;1.4624;
-63.3000;0.7220;1.4577;
-63.0000;0.7236;1.4765;
-62.7000;0.7228;1.4788;
-62.4000;0.7220;1.4765;
-62.1000;0.7245;1.4835;
-61.8000;0.7236;1.4741;
-61.5000;0.7228;1.4718;
-61.2000;0.7228;1.4694;
-60.9000;0.7236;1.4671;
-60.6000;0.7293;1.4812;
-60.3000;0.7228;1.4718;
-60.0000;0.7220;1.4624;
-59.7000;0.7228;1.4671;
-59.4000;0.7236;1.4741;
-59.1000;0.7220;1.4647;
-58.8000;0.7236;1.4647;
-58.5000;0.7277;1.4765;
-58.2000;0.7220;1.4647;
-57.9000;0.7245;1.4694;
-57.6000;0.7236;1.4647;
-57.3000;0.7245;1.4718;
-57.0000;0.7236;1.4671;
-56.7000;0.7236;1.4600;
-56.4000;0.7228;1.4577;
-56.1000;0.7228;1.4553;
-55.8000;0.7236;1.4647;
-55.5000;0.7204;1.4553;
-55.2000;0.7228;1.4671;
-54.9000;0.7253;1.4788;
-54.6000;0.7236;1.4788;
-54.3000;0.7204;1.4694;
-54.0000;0.7236;1.4812;
-53.7000;0.7228;1.4718;
-53.4000;0.7228;1.4741;
-53.1000;0.7228;1.4765;
-52.8000;0.7236;1.4765;
-52.5000;0.7245;1.4741;
-52.2000;0.7220;1.4718;
-51.9000;0.7245;1.4812;
-51.6000;0.7220;1.4694;
-51.3000;0.7228;1.4694;
-51.0000;0.7285;1.4788;
-50.7000;0.7236;1.4647;
-50.4000;0.7236;1.4765;
-50.1000;0.7228;1.4765;
-49.8000;0.7228;1.4788;
-49.5000;0.7204;1.4694;
-49.2000;0.7220;1.4788;
-48.9000;0.7261;1.4929;
-48.6000;0.7212;1.4718;
-48.3000;0.7228;1.4765;
-48.0000;0.7204;1.4671;
-47.7000;0.7277;1.4835;
-47.4000;0.7228;1.4694;
-47.1000;0.7228;1.4741;
-46.8000;0.7236;1.4741;
-46.5000;0.7245;1.4718;
-46.2000;0.7220;1.4718;
-45.9000;0.7220;1.4741;
-45.6000;0.7228;1.4765;
-45.3000;0.7236;1.4741;
-45.0000;0.7228;1.4812;
-44.7000;0.7228;1.4741;
-44.4000;0.7236;1.4671;
-44.1000;0.7228;1.4718;
-43.8000;0.7245;1.4835;
-43.5000;0.7236;1.4859;
-43.2000;0.7131;1.4553;
-42.9000;0.7220;1.4694;
-42.6000;0.7245;1.4718;
-42.3000;0.7220;1.4694;
-42.0000;0.7204;1.4765;
-41.7000;0.7212;1.4859;
-41.4000;0.7220;1.4952;
-41.1000;0.7293;1.5070;
-40.8000;0.7236;1.4882;
-40.5000;0.7212;1.4718;
-40.2000;0.7220;1.4647;
-39.9000;0.7228;1.4600;
-39.6000;0.7228;1.4671;
-39.3000;0.7228;1.4671;
-39.0000;0.7236;1.4718;
-38.7000;0.7245;1.4741;
-38.4000;0.7228;1.4671;
-38.1000;0.7245;1.4694;
-37.8000;0.7253;1.4741;
-37.5000;0.7253;1.4718;
-37.2000;0.7236;1.4694;
-36.9000;0.7228;1.4718;
-36.6000;0.7212;1.4718;
-36.3000;0.7228;1.4741;
-36.0000;0.7220;1.4671;
-35.7000;0.7236;1.4812;
-35.4000;0.7220;1.4812;
-35.1000;0.7228;1.4741;
-34.8000;0.7228;1.4718;
-34.5000;0.7220;1.4624;
-34.2000;0.7228;1.4647;
-33.9000;0.7245;1.4600;
-33.6000;0.7245;1.4624;
-33.3000;0.7228;1.4600;
-33.0000;0.7220;1.4577;
-32.7000;0.7228;1.4600;
-32.4000;0.7228;1.4647;
-32.1000;0.7236;1.4624;
-31.8000;0.7228;1.4600;
-31.5000;0.7220;1.4600;
-31.2000;0.7188;1.4436;
-30.9000;0.7212;1.4483;
-30.6000;0.7212;1.4413;
-30.3000;0.7228;1.4553;
-30.0000;0.7212;1.4600;
-29.7000;0.7171;1.4553;
-29.4000;0.7334;1.5023;
-29.1000;0.7220;1.4718;
-28.8000;0.7204;1.4694;
-28.5000;0.7342;1.4999;
-28.2000;0.7220;1.4718;
-27.9000;0.7236;1.4671;
-27.6000;0.7228;1.4553;
-27.3000;0.7245;1.4600;
-27.0000;0.7277;1.4765;
-26.7000;0.7228;1.4671;
-26.4000;0.7212;1.4647;
-26.1000;0.7220;1.4577;
-25.8000;0.7236;1.4553;
-25.5000;0.7245;1.4647;
-25.2000;0.7236;1.4741;
-24.9000;0.7261;1.4835;
-24.6000;0.7236;1.4812;
-24.3000;0.7236;1.4694;
-24.0000;0.7188;1.4577;
-23.7000;0.7245;1.4741;
-23.4000;0.7220;1.4694;
-23.1000;0.7228;1.4741;
-22.8000;0.7236;1.4671;
-22.5000;0.7220;1.4647;
-22.2000;0.7228;1.4741;
-21.9000;0.7220;1.4694;
-21.6000;0.7220;1.4647;
-21.3000;0.7204;1.4647;
-21.0000;0.7212;1.4671;
-20.7000;0.7245;1.4788;
-20.4000;0.7220;1.4694;
-20.1000;0.7212;1.4671;
-19.8000;0.7220;1.4647;
-19.5000;0.7236;1.4694;
-19.2000;0.7212;1.4694;
-18.9000;0.7269;1.4835;
-18.6000;0.7269;1.4859;
-18.3000;0.7220;1.4788;
-18.0000;0.7236;1.4765;
-17.7000;0.7302;1.4882;
-17.4000;0.7236;1.4718;
-17.1000;0.7228;1.4694;
-16.8000;0.7245;1.4647;
-16.5000;0.7236;1.4577;
-16.2000;0.7236;1.4553;
-15.9000;0.7228;1.4694;
-15.6000;0.7220;1.4600;
-15.3000;0.7220;1.4624;
-15.0000;0.7236;1.4671;
-14.7000;0.7236;1.4718;
-14.4000;0.7293;1.4999;
-14.1000;0.7228;1.4765;
-13.8000;0.7236;1.4671;
-13.5000;0.7228;1.4694;
-13.2000;0.7228;1.4741;
-12.9000;0.7253;1.4765;
-12.6000;0.7326;1.5046;
-12.3000;0.7236;1.4718;
-12.0000;0.7228;1.4600;
-11.7000;0.7245;1.4647;
-11.4000;0.7253;1.4741;
-11.1000;0.7228;1.4624;
-10.8000;0.7269;1.4741;
-10.5000;0.7245;1.4647;
-10.2000;0.7236;1.4647;
-9.9000;0.7220;1.4694;
-9.6000;0.7236;1.4718;
-9.3000;0.7220;1.4741;
-9.0000;0.7245;1.4788;
-8.7000;0.7236;1.4835;
-8.4000;0.7253;1.4835;
-8.1000;0.7220;1.4812;
-7.8000;0.7253;1.4859;
-7.5000;0.7228;1.4788;
-7.2000;0.7228;1.4765;
-6.9000;0.7293;1.4835;
-6.6000;0.7310;1.4905;
-6.3000;0.7220;1.4694;
-6.0000;0.7245;1.4718;
-5.7000;0.7236;1.4671;
-5.4000;0.7204;1.4671;
-5.1000;0.7334;1.4999;
-4.8000;0.7228;1.4624;
-4.5000;0.7228;1.4600;
-4.2000;0.7236;1.4694;
-3.9000;0.7228;1.4624;
-3.6000;0.7277;1.4765;
-3.3000;0.7220;1.4694;
-3.0000;0.7155;1.4600;
-2.7000;0.7236;1.4788;
-2.4000;0.7245;1.4741;
-2.1000;0.7236;1.4788;
-1.8000;0.7220;1.4671;
-1.5000;0.7245;1.4694;
-1.2000;0.7253;1.4694;
-0.9000;0.7196;1.4577;
-0.6000;0.7228;1.4694;
-0.3000;0.7228;1.4718;
0.0000;0.7228;1.4718;
0.3000;0.7261;1.4741;
0.6000;0.7302;1.4952;
0.9000;0.7350;1.5234;
1.2000;0.7359;1.5469;
1.5000;0.7383;1.5727;
1.8000;0.7399;1.5938;
2.1000;0.7432;1.6150;
2.4000;0.7416;1.6173;
2.7000;0.7464;1.6384;
3.0000;0.7456;1.6596;
3.3000;0.7473;1.6689;
3.6000;0.7481;1.6760;
3.9000;0.7505;1.6736;
4.2000;0.7448;1.6642;
4.5000;0.7481;1.6736;
4.8000;0.7473;1.6760;
5.1000;0.7497;1.6830;
5.4000;0.7432;1.6596;
5.7000;0.7497;1.6807;
6.0000;0.7505;1.6924;
6.3000;0.7521;1.6901;
6.6000;0.7521;1.6807;
6.9000;0.7538;1.6854;
7.2000;0.7530;1.6830;
7.5000;0.7521;1.6854;
7.8000;0.7554;1.6901;
8.1000;0.7530;1.6807;
8.4000;0.7530;1.6760;
8.7000;0.7530;1.6783;
9.0000;0.7570;1.6854;
9.3000;0.7546;1.6830;
9.6000;0.7489;1.6736;
9.9000;0.7530;1.6901;
10.2000;0.7538;1.6807;
10.5000;0.7570;1.6901;
10.8000;0.7554;1.6830;
11.1000;0.7554;1.6830;
11.4000;0.7546;1.6807;
11.7000;0.7570;1.6807;
12.0000;0.7546;1.6760;
12.3000;0.7562;1.6736;
12.6000;0.7554;1.6713;
12.9000;0.7554;1.6619;
13.2000;0.7562;1.6642;
13.5000;0.7538;1.6619;
13.8000;0.7554;1.6689;
14.1000;0.7562;1.6783;
14.4000;0.7562;1.6783;
14.7000;0.7497;1.6666;
15.0000;0.7554;1.6948;
15.3000;0.7570;1.6995;
15.6000;0.7578;1.7088;
15.9000;0.7635;1.7112;
16.2000;0.7570;1.6877;
16.5000;0.7611;1.7042;
16.8000;0.7595;1.6924;
17.1000;0.7570;1.6783;
17.4000;0.7546;1.6783;
17.7000;0.7578;1.6783;
18.0000;0.7554;1.6713;
18.3000;0.7578;1.6830;
18.6000;0.7570;1.6901;
18.9000;0.7481;1.6736;
19.2000;0.7570;1.7018;
19.5000;0.7611;1.7088;
19.8000;0.7562;1.7042;
20.1000;0.7578;1.7042;
20.4000;0.7611;1.7135;
20.7000;0.7595;1.7088;
21.0000;0.7570;1.6971;
21.3000;0.7586;1.7042;
21.6000;0.7578;1.6995;
21.9000;0.7586;1.6948;
22.2000;0.7595;1.6948;
22.5000;0.7586;1.6948;
22.8000;0.7578;1.6877;
23.1000;0.7595;1.6901;
23.4000;0.7586;1.6901;
23.7000;0.7570;1.6830;
24.0000;0.7578;1.6830;
24.3000;0.7562;1.6830;
24.6000;0.7570;1.6854;
24.9000;0.7546;1.6854;
25.2000;0.7570;1.6877;
25.5000;0.7603;1.6971;
25.8000;0.7586;1.6995;
26.1000;0.7578;1.6971;
26.4000;0.7562;1.6830;
26.7000;0.7586;1.6830;
27.0000;0.7586;1.6830;
27.3000;0.7586;1.6854;
27.6000;0.7578;1.6877;
27.9000;0.7578;1.6854;
28.2000;0.7521;1.6666;
28.5000;0.7603;1.6854;
28.8000;0.7586;1.6924;
29.1000;0.7570;1.6948;
29.4000;0.7578;1.6971;
29.7000;0.7603;1.7135;
30.0000;0.7586;1.7088;
30.3000;0.7554;1.6995;
30.6000;0.7586;1.7112;
30.9000;0.7586;1.7135;
31.2000;0.7595;1.7042;
31.5000;0.7505;1.6807;
31.8000;0.7578;1.7018;
32.1000;0.7603;1.7042;
32.4000;0.7635;1.7065;
32.7000;0.7595;1.7065;
33.0000;0.7595;1.7135;
33.3000;0.7619;1.7182;
33.6000;0.7578;1.7159;
33.9000;0.7586;1.7135;
34.2000;0.7595;1.7065;
34.5000;0.7603;1.7088;
34.8000;0.7586;1.6971;
35.1000;0.7578;1.6924;
35.4000;0.7603;1.7042;
35.7000;0.7586;1.6995;
36.0000;0.7603;1.7112;
36.3000;0.7603;1.7088;
36.6000;0.7562;1.6948;
36.9000;0.7611;1.6948;
37.2000;0.7603;1.6948;
37.5000;0.7570;1.6901;
37.8000;0.7595;1.6901;
38.1000;0.7538;1.6736;
38.4000;0.7578;1.6807;
38.7000;0.7595;1.6854;
39.0000;0.7619;1.6924;
39.3000;0.7586;1.6854;
39.6000;0.7424;1.6478;
39.9000;0.7562;1.6830;
40.2000;0.7586;1.6877;
40.5000;0.7586;1.6783;
40.8000;0.7595;1.6807;
41.1000;0.7603;1.6783;
41.4000;0.7586;1.6783;
41.7000;0.7595;1.6807;
42.0000;0.7578;1.6830;
42.3000;0.7595;1.6854;
42.6000;0.7595;1.6971;
42.9000;0.7611;1.6995;
43.2000;0.7595;1.6948;
43.5000;0.7611;1.6948;
43.8000;0.7603;1.6948;
44.1000;0.7668;1.7088;
44.4000;0.7570;1.6854;
44.7000;0.7586;1.6971;
45.0000;0.7603;1.6995;
45.3000;0.7660;1.7088;
45.6000;0.7578;1.6901;
45.9000;0.7578;1.6854;
46.2000;0.7603;1.6971;
46.5000;0.7586;1.6901;
46.8000;0.7611;1.6948;
47.1000;0.7611;1.6995;
47.4000;0.7627;1.7018;
47.7000;0.7562;1.6901;
48.0000;0.7562;1.6877;
48.3000;0.7586;1.6924;
48.6000;0.7603;1.6995;
48.9000;0.7530;1.6830;
49.2000;0.7595;1.6971;
49.5000;0.7603;1.6948;
49.8000;0.7570;1.6877;
50.1000;0.7538;1.6783;
50.4000;0.7578;1.6877;
50.7000;0.7497;1.6642;
51.0000;0.7595;1.6948;
51.3000;0.7570;1.6854;
51.6000;0.7586;1.6854;
51.9000;0.7570;1.6760;
52.2000;0.7660;1.6971;
52.5000;0.7603;1.6877;
52.8000;0.7611;1.6901;
53.1000;0.7595;1.6924;
53.4000;0.7603;1.6971;
53.7000;0.7586;1.6924;
54.0000;0.7578;1.6901;
54.3000;0.7603;1.6901;
54.6000;0.7603;1.6830;
54.9000;0.7603;1.6807;
55.2000;0.7595;1.6783;
55.5000;0.7603;1.6807;
55.8000;0.7611;1.6830;
56.1000;0.7603;1.6854;
56.4000;0.7578;1.6760;
56.7000;0.7595;1.6760;
57.0000;0.7603;1.6760;
57.3000;0.7586;1.6736;
57.6000;0.7586;1.6666;
57.9000;0.7595;1.6713;
58.2000;0.7611;1.6760;
58.5000;0.7603;1.6807;
58.8000;0.7603;1.6783;
59.1000;0.7595;1.6736;
59.4000;0.7473;1.6549;
59.7000;0.7611;1.6830;
60.0000;0.7595;1.6736;
60.3000;0.7554;1.6689;
60.6000;0.7586;1.6807;
60.9000;0.7586;1.6783;
61.2000;0.7595;1.6713;
61.5000;0.7586;1.6713;
61.8000;0.7595;1.6736;
62.1000;0.7578;1.6760;
62.4000;0.7578;1.6807;
62.7000;0.7611;1.6924;
63.0000;0.7570;1.6830;
63.3000;0.7595;1.6877;
63.6000;0.7538;1.6713;
63.9000;0.7546;1.6830;
64.2000;0.7611;1.6948;
64.5000;0.7578;1.6948;
64.8000;0.7595;1.7088;
65.1000;0.7570;1.7018;
65.4000;0.7595;1.7065;
65.7000;0.7586;1.7042;
66.0000;0.7603;1.7042;
66.3000;0.7595;1.7018;
66.6000;0.7603;1.6948;
66.9000;0.7643;1.7065;
67.2000;0.7586;1.6924;
67.5000;0.7570;1.6948;
67.8000;0.7586;1.6971;
68.1000;0.7505;1.6783;
68.4000;0.7603;1.6995;
68.7000;0.7562;1.6877;
69.0000;0.7586;1.6854;
69.3000;0.7595;1.6877;
69.6000;0.7595;1.6924;
69.9000;0.7578;1.6830;
70.2000;0.7586;1.6830;
70.5000;0.7570;1.6901;
70.8000;0.7595;1.6971;
71.1000;0.7595;1.6995;
71.4000;0.7530;1.6901;
71.7000;0.7578;1.6995;
72.0000;0.7578;1.6971;
72.3000;0.7586;1.6971;
72.6000;0.7586;1.6877;
72.9000;0.7684;1.7065;
73.2000;0.7586;1.6830;
73.5000;0.7505;1.6666;
73.8000;0.7603;1.6901;
74.1000;0.7595;1.6995;
74.4000;0.7570;1.6830;
74.7000;0.7603;1.6948;
75.0000;0.7595;1.6854;
75.3000;0.7595;1.6854;
75.6000;0.7611;1.6877;
75.9000;0.7554;1.6807;
76.2000;0.7570;1.6760;
76.5000;0.7595;1.6854;
76.8000;0.7586;1.6807;
77.1000;0.7578;1.6807;
77.4000;0.7578;1.6924;
77.7000;0.7578;1.6948;
78.0000;0.7562;1.6971;
78.3000;0.7578;1.6924;
78.6000;0.7554;1.6854;
78.9000;0.7619;1.6924;
79.2000;0.7562;1.6807;
79.5000;0.7578;1.6830;
79.8000;0.7603;1.6854;
80.1000;0.7595;1.6830;
80.4000;0.7521;1.6713;
80.7000;0.7578;1.6877;
81.0000;0.7578;1.6924;
81.3000;0.7538;1.6901;
81.6000;0.7586;1.6901;
81.9000;0.7595;1.6877;
82.2000;0.7643;1.7018;
82.5000;0.7586;1.6924;
82.8000;0.7635;1.7018;
83.1000;0.7578;1.6877;
83.4000;0.7546;1.6783;
83.7000;0.7578;1.6901;
84.0000;0.7619;1.6948;
84.3000;0.7586;1.6924;
84.6000;0.7521;1.6689;
84.9000;0.7570;1.6901;
85.2000;0.7603;1.6948;
85.5000;0.7595;1.6971;
85.8000;0.7578;1.6995;
86.1000;0.7586;1.6995;
86.4000;0.7578;1.6995;
86.7000;0.7578;1.6971;
87.0000;0.7595;1.6971;
87.3000;0.7570;1.6901;
87.6000;0.7586;1.7018;
87.9000;0.7578;1.7135;
88.2000;0.7586;1.7088;
88.5000;0.7570;1.7018;
88.8000;0.7595;1.7042;
89.1000;0.7603;1.7065;
89.4000;0.7586;1.7065;
89.7000;0.7578;1.6995;
90.0000;0.7570;1.7042;
90.3000;0.7578;1.6995;
90.6000;0.7570;1.7135;
90.9000;0.7643;1.7417;
91.2000;0.7595;1.7182;
91.5000;0.7603;1.7065;
91.8000;0.7586;1.6971;
92.1000;0.7554;1.6830;
92.4000;0.7586;1.6830;
92.7000;0.7595;1.6783;
93.0000;0.7603;1.6807;
93.3000;0.7595;1.6924;
93.6000;0.7578;1.6948;
93.9000;0.7570;1.6854;
94.2000;0.7554;1.6877;
94.5000;0.7562;1.6783;
94.8000;0.7554;1.6689;
95.1000;0.7586;1.6760;
95.4000;0.7578;1.6783;
95.7000;0.7586;1.6807;
96.0000;0.7595;1.6760;
96.3000;0.7570;1.6830;
96.6000;0.7586;1.6948;
96.9000;0.7586;1.6971;
97.2000;0.7562;1.6901;
97.5000;0.7586;1.6877;
97.8000;0.7586;1.6971;
98.1000;0.7546;1.6948;
98.4000;0.7619;1.6995;
98.7000;0.7562;1.6854;
99.0000;0.7627;1.7065;
99.3000;0.7586;1.6948;
99.6000;0.7586;1.7065;
99.9000;0.7562;1.6995;
100.2000;0.7570;1.6948;
100.5000;0.7562;1.6948;
100.8000;0.7595;1.7112;
101.1000;0.7562;1.7042;
101.4000;0.7586;1.7065;
101.7000;0.7578;1.7018;
102.0000;0.7603;1.7042;
102.3000;0.7578;1.7088;
102.6000;0.7595;1.7065;
102.9000;0.7595;1.7088;
103.2000;0.7595;1.7088;
103.5000;0.7570;1.7065;
103.8000;0.7603;1.7042;
104.1000;0.7578;1.7018;
104.4000;0.7554;1.6901;
104.7000;0.7586;1.6901;
105.0000;0.7562;1.6971;
105.3000;0.7562;1.7018;
105.6000;0.7570;1.6995;
105.9000;0.7578;1.6948;
106.2000;0.7586;1.6877;
106.5000;0.7578;1.6901;
106.8000;0.7586;1.6901;
107.1000;0.7586;1.6924;
107.4000;0.7578;1.6948;
107.7000;0.7521;1.6807;
108.0000;0.7578;1.6995;
108.3000;0.7595;1.6948;
108.6000;0.7530;1.6783;
108.9000;0.7562;1.6971;
109.2000;0.7595;1.6995;
109.5000;0.7595;1.7018;
109.8000;0.7554;1.6995;
110.1000;0.7562;1.7088;
110.4000;0.7562;1.7018;
110.7000;0.7432;1.6713;
111.0000;0.7578;1.7065;
111.3000;0.7546;1.6995;
111.6000;0.7619;1.7135;
111.9000;0.7570;1.7206;
112.2000;0.7652;1.7441;
112.5000;0.7448;1.6854;
112.8000;0.7530;1.7042;
113.1000;0.7562;1.7112;
113.4000;0.7562;1.7159;
113.7000;0.7570;1.7088;
114.0000;0.7570;1.7088;
114.3000;0.7562;1.7135;
114.6000;0.7570;1.7206;
114.9000;0.7611;1.7347;
115.2000;0.7570;1.7347;
115.5000;0.7570;1.7370;
115.8000;0.7562;1.7323;
116.1000;0.7578;1.7276;
116.4000;0.7578;1.7206;
116.7000;0.7570;1.7135;
117.0000;0.7586;1.7088;
117.3000;0.7578;1.7159;
117.6000;0.7578;1.7206;
117.9000;0.7586;1.7182;
118.2000;0.7570;1.6971;
118.5000;0.7578;1.6924;
118.8000;0.7595;1.6924;
119.1000;0.7578;1.6854;
119.4000;0.7595;1.6877;
119.7000;0.7562;1.6807;
120.0000;0.7578;1.6877;
120.3000;0.7586;1.6877;
120.6000;0.7578;1.6924;
120.9000;0.7578;1.6995;
121.2000;0.7586;1.6971;
121.5000;0.7554;1.6948;
121.8000;0.7570;1.6948;
122.1000;0.7570;1.6971;
122.4000;0.7603;1.7042;
122.7000;0.7578;1.6995;
123.0000;0.7497;1.6736;
123.3000;0.7562;1.6924;
123.6000;0.7562;1.6901;
123.9000;0.7578;1.6854;
124.2000;0.7578;1.6854;
124.5000;0.7578;1.6854;
124.8000;0.7570;1.6877;
125.1000;0.7578;1.6924;
125.4000;0.7489;1.6783;
125.7000;0.7570;1.7042;
126.0000;0.7562;1.6995;
126.3000;0.7570;1.6924;
126.6000;0.7586;1.6901;
126.9000;0.7586;1.6971;
127.2000;0.7562;1.6995;
127.5000;0.7586;1.7018;
127.8000;0.7586;1.7018;
128.1000;0.7570;1.6924;
128.4000;0.7570;1.7018;
128.7000;0.7562;1.7065;
129.0000;0.7578;1.7065;
129.3000;0.7595;1.7018;
129.6000;0.7578;1.7042;
129.9000;0.7578;1.7018;
130.2000;0.7586;1.7018;
130.5000;0.7578;1.7042;
130.8000;0.7611;1.7065;
131.1000;0.7578;1.6948;
131.4000;0.7570;1.7018;
131.7000;0.7635;1.7159;
132.0000;0.7586;1.7088;
132.3000;0.7530;1.7042;
132.6000;0.7603;1.7229;
132.9000;0.7570;1.7018;
133.2000;0.7586;1.7042;
133.5000;0.7554;1.6995;
133.8000;0.7562;1.7088;
134.1000;0.7570;1.7112;
134.4000;0.7586;1.7206;
134.7000;0.7562;1.7112;
135.0000;0.7619;1.7088;
135.3000;0.7660;1.7135;
135.6000;0.7578;1.6971;
135.9000;0.7570;1.6877;
136.2000;0.7570;1.6854;
136.5000;0.7546;1.6760;
136.8000;0.7578;1.6924;
137.1000;0.7562;1.6877;
137.4000;0.7586;1.6924;
137.7000;0.7603;1.6924;
138.0000;0.7562;1.6830;
138.3000;0.7578;1.6901;
138.6000;0.7578;1.6901;
138.9000;0.7562;1.6877;
139.2000;0.7570;1.6830;
139.5000;0.7546;1.6854;
139.8000;0.7578;1.7065;
140.1000;0.7578;1.7018;
140.4000;0.7578;1.7018;
140.7000;0.7595;1.7159;
141.0000;0.7578;1.7088;
141.3000;0.7578;1.7088;
141.6000;0.7538;1.6877;
141.9000;0.7570;1.6995;
142.2000;0.7578;1.6971;
142.5000;0.7554;1.7018;
142.8000;0.7586;1.7065;
143.1000;0.7562;1.7065;
143.4000;0.7554;1.6995;
143.7000;0.7570;1.6971;
144.0000;0.7562;1.7018;
144.3000;0.7570;1.7018;
144.6000;0.7586;1.7042;
144.9000;0.7578;1.7042;
145.2000;0.7554;1.6948;
145.5000;0.7570;1.7018;
145.8000;0.7586;1.7112;
146.1000;0.7562;1.7042;
146.4000;0.7570;1.6995;
146.7000;0.7570;1.6995;
147.0000;0.7586;1.7042;
147.3000;0.7586;1.6995;
147.6000;0.7570;1.6971;
147.9000;0.7554;1.6971;
148.2000;0.7562;1.6971;
148.5000;0.7554;1.7088;
148.8000;0.7554;1.6995;
149.1000;0.7554;1.6995;
149.4000;0.7562;1.7065;
149.7000;0.7562;1.7018;
150.0000;0.7570;1.6995;
150.3000;0.7570;1.7042;
150.6000;0.7546;1.6995;
150.9000;0.7578;1.6971;
151.2000;0.7570;1.7018;
151.5000;0.7570;1.7018;
151.8000;0.7554;1.6924;
152.1000;0.7570;1.6948;
152.4000;0.7586;1.7018;
152.7000;0.7570;1.6971;
153.0000;0.7554;1.7042;
153.3000;0.7586;1.7229;
153.6000;0.7562;1.7229;
153.9000;0.7570;1.7182;
154.2000;0.7570;1.7182;
154.5000;0.7546;1.7206;
154.8000;0.7562;1.7229;
155.1000;0.7578;1.7182;
155.4000;0.7578;1.7182;
155.7000;0.7570;1.7159;
156.0000;0.7570;1.7135;
156.3000;0.7586;1.7229;
156.6000;0.7497;1.6924;
156.9000;0.7595;1.7206;
157.2000;0.7570;1.7159;
157.5000;0.7586;1.7182;
157.8000;0.7586;1.7159;
158.1000;0.7570;1.7088;
158.4000;0.7570;1.7135;
158.7000;0.7562;1.7159;
159.0000;0.7578;1.7229;
159.3000;0.7627;1.7300;
159.6000;0.7570;1.7135;
159.9000;0.7570;1.7065;
160.2000;0.7570;1.7042;
160.5000;0.7578;1.7018;
160.8000;0.7578;1.7065;
161.1000;0.7570;1.7088;
161.4000;0.7570;1.7065;
161.7000;0.7570;1.7042;
162.0000;0.7578;1.7065;
162.3000;0.7570;1.7182;
162.6000;0.7538;1.7112;
162.9000;0.7562;1.7065;
163.2000;0.7538;1.7042;
163.5000;0.7570;1.7135;
163.8000;0.7578;1.7206;
164.1000;0.7554;1.7206;
164.4000;0.7562;1.7206;
164.7000;0.7554;1.7206;
165.0000;0.7570;1.7300;
165.3000;0.7578;1.7300;
165.6000;0.7554;1.7229;
165.9000;0.7562;1.7276;
166.2000;0.7562;1.7276;
166.5000;0.7578;1.7300;
166.8000;0.7570;1.7276;
167.1000;0.7554;1.7323;
167.4000;0.7546;1.7347;
167.7000;0.7570;1.7370;
168.0000;0.7562;1.7323;
168.3000;0.7562;1.7276;
168.6000;0.7570;1.7323;
168.9000;0.7546;1.7323;
169.2000;0.7586;1.7347;
169.5000;0.7554;1.7253;
169.8000;0.7635;1.7323;
170.1000;0.7562;1.7112;
170.4000;0.7562;1.7065;
170.7000;0.7578;1.7135;
171.0000;0.7554;1.7018;
171.3000;0.7546;1.6971;
171.6000;0.7546;1.7018;
171.9000;0.7562;1.7112;
172.2000;0.7554;1.7112;
172.5000;0.7538;1.7042;
172.8000;0.7562;1.7182;
173.1000;0.7652;1.7276;
173.4000;0.7570;1.7018;
173.7000;0.7554;1.7042;
174.0000;0.7578;1.7112;
174.3000;0.7562;1.7018;
174.6000;0.7562;1.7018;
174.9000;0.7546;1.7088;
175.2000;0.7546;1.7088;
175.5000;0.7546;1.7018;
175.8000;0.7562;1.6995;
176.1000;0.7570;1.6995;
176.4000;0.7562;1.6948;
176.7000;0.7562;1.6971;
177.0000;0.7570;1.7042;
177.3000;0.7570;1.6948;
177.6000;0.7554;1.6948;
177.9000;0.7554;1.6995;
178.2000;0.7570;1.6995;
178.5000;0.7578;1.7159;
178.8000;0.7554;1.7229;
179.1000;0.7554;1.7300;
179.4000;0.7627;1.7417;
179.7000;0.7570;1.7253;
180.0000;0.7586;1.7276;
180.3000;0.7554;1.7229;
180.6000;0.7554;1.7206;
180.9000;0.7546;1.7135;
181.2000;0.7554;1.7065;
181.5000;0.7570;1.7065;
181.8000;0.7554;1.6901;
182.1000;0.7562;1.6854;
182.4000;0.7554;1.6783;
182.7000;0.7562;1.6830;
183.0000;0.7570;1.6830;
183.3000;0.7570;1.6830;
183.6000;0.7586;1.6783;
183.9000;0.7546;1.6783;
184.2000;0.7562;1.6924;
184.5000;0.7595;1.7065;
184.8000;0.7578;1.6971;
185.1000;0.7407;1.6549;
185.4000;0.7595;1.7065;
185.7000;0.7562;1.7065;
186.0000;0.7554;1.7182;
186.3000;0.7586;1.7276;
186.6000;0.7562;1.7135;
186.9000;0.7562;1.7088;
187.2000;0.7578;1.7112;
187.5000;0.7635;1.7323;
187.8000;0.7562;1.7065;
188.1000;0.7554;1.7042;
188.4000;0.7578;1.7135;
188.7000;0.7578;1.7135;
189.0000;0.7570;1.7135;
189.3000;0.7570;1.7088;
189.6000;0.7562;1.7135;
189.9000;0.7562;1.7042;
190.2000;0.7562;1.7112;
190.5000;0.7570;1.7088;
190.8000;0.7554;1.6971;
191.1000;0.7570;1.6971;
191.4000;0.7570;1.6901;
191.7000;0.7562;1.7018;
192.0000;0.7554;1.6995;
192.3000;0.7595;1.7065;
192.6000;0.7546;1.6924;
192.9000;0.7586;1.6948;
193.2000;0.7554;1.6854;
193.5000;0.7554;1.6901;
193.8000;0.7546;1.6854;
194.1000;0.7619;1.6971;
194.4000;0.7562;1.6807;
194.7000;0.7570;1.6901;
195.0000;0.7586;1.6971;
195.3000;0.7570;1.6948;
195.6000;0.7538;1.6948;
195.9000;0.7538;1.6995;
196.2000;0.7570;1.7018;
196.5000;0.7578;1.7018;
196.8000;0.7619;1.7018;
197.1000;0.7554;1.6901;
197.4000;0.7570;1.6995;
197.7000;0.7530;1.6971;
198.0000;0.7554;1.7088;
198.3000;0.7562;1.7042;
198.6000;0.7554;1.7018;
198.9000;0.7538;1.7042;
199.2000;0.7554;1.7112;
199.5000;0.7554;1.7182;
199.8000;0.7562;1.7159;
200.1000;0.7562;1.7135;
200.4000;0.7554;1.7042;
200.7000;0.7578;1.7065;
201.0000;0.7546;1.6995;
201.3000;0.7554;1.6948;
201.6000;0.7562;1.6948;
201.9000;0.7546;1.6924;
202.2000;0.7546;1.6901;
202.5000;0.7530;1.6901;
202.8000;0.7668;1.7088;
203.1000;0.7546;1.6783;
203.4000;0.7570;1.6854;
203.7000;0.7562;1.6783;
204.0000;0.7546;1.6713;
204.3000;0.7546;1.6666;
204.6000;0.7619;1.6830;
204.9000;0.7546;1.6666;
205.2000;0.7562;1.6642;
205.5000;0.7546;1.6666;
205.8000;0.7586;1.6924;
206.1000;0.7554;1.6901;
206.4000;0.7562;1.6924;
206.7000;0.7464;1.6760;
207.0000;0.7538;1.6948;
207.3000;0.7538;1.6995;
207.6000;0.7538;1.6948;
207.9000;0.7464;1.6807;
208.2000;0.7554;1.6971;
208.5000;0.7619;1.7112;
208.8000;0.7554;1.7018;
209.1000;0.7611;1.7159;
209.4000;0.7595;1.7135;
209.7000;0.7546;1.6971;
210.0000;0.7578;1.7065;
210.3000;0.7595;1.7135;
210.6000;0.7554;1.6995;
210.9000;0.7554;1.7135;
211.2000;0.7562;1.7206;
211.5000;0.7530;1.7088;
211.8000;0.7562;1.7276;
212.1000;0.7570;1.7300;
212.4000;0.7570;1.7229;
212.7000;0.7570;1.7182;
213.0000;0.7562;1.7206;
213.3000;0.7554;1.7229;
213.6000;0.7578;1.7300;
213.9000;0.7643;1.7323;
214.2000;0.7546;1.7135;
214.5000;0.7554;1.7159;
214.8000;0.7546;1.7135;
215.1000;0.7554;1.7112;
215.4000;0.7554;1.7065;
215.7000;0.7570;1.7065;
216.0000;0.7538;1.7088;
216.3000;0.7546;1.7159;
216.6000;0.7562;1.7112;
216.9000;0.7513;1.7065;
217.2000;0.7570;1.7182;
217.5000;0.7562;1.7112;
217.8000;0.7578;1.7135;
218.1000;0.7676;1.7417;
218.4000;0.7562;1.7065;
218.7000;0.7562;1.7042;
219.0000;0.7521;1.6995;
219.3000;0.7546;1.7182;
219.6000;0.7538;1.7135;
219.9000;0.7538;1.7088;
220.2000;0.7546;1.6995;
220.5000;0.7611;1.7088;
220.8000;0.7586;1.7065;
221.1000;0.7538;1.6924;
221.4000;0.7513;1.6854;
221.7000;0.7489;1.6783;
222.0000;0.7530;1.6948;
222.3000;0.7546;1.7065;
222.6000;0.7530;1.7042;
222.9000;0.7521;1.7065;
223.2000;0.7538;1.7018;
223.5000;0.7546;1.6971;
223.8000;0.7546;1.6995;
224.1000;0.7538;1.6924;
224.4000;0.7546;1.7088;
224.7000;0.7521;1.7065;
225.0000;0.7538;1.7112;
225.3000;0.7619;1.7206;
225.6000;0.7570;1.6995;
225.9000;0.7586;1.7042;
226.2000;0.7562;1.6995;
226.5000;0.7554;1.7018;
226.8000;0.7530;1.6971;
227.1000;0.7546;1.6948;
227.4000;0.7554;1.6924;
227.7000;0.7611;1.7065;
228.0000;0.7546;1.6995;
228.3000;0.7595;1.7065;
228.6000;0.7546;1.6924;
228.9000;0.7554;1.6995;
229.2000;0.7538;1.6995;
229.5000;0.7586;1.7065;
229.8000;0.7578;1.7065;
230.1000;0.7546;1.7088;
230.4000;0.7538;1.7042;
230.7000;0.7521;1.7018;
231.0000;0.7562;1.7206;
231.3000;0.7668;1.7370;
231.6000;0.7546;1.7135;
231.9000;0.7546;1.7042;
232.2000;0.7570;1.7065;
232.5000;0.7538;1.7042;
232.8000;0.7546;1.7182;
233.1000;0.7570;1.7253;
233.4000;0.7546;1.7206;
233.7000;0.7562;1.7182;
234.0000;0.7456;1.6901;
234.3000;0.7432;1.6854;
234.6000;0.7546;1.7065;
234.9000;0.7538;1.7018;
235.2000;0.7554;1.7065;
235.5000;0.7546;1.7018;
235.8000;0.7530;1.7018;
236.1000;0.7538;1.7042;
236.4000;0.7530;1.6901;
236.7000;0.7554;1.7088;
237.0000;0.7546;1.7065;
237.3000;0.7562;1.7229;
237.6000;0.7554;1.7065;
237.9000;0.7538;1.7088;
238.2000;0.7554;1.7065;
238.5000;0.7546;1.6971;
238.8000;0.7570;1.7112;
239.1000;0.7521;1.7018;
239.4000;0.7578;1.7065;
239.7000;0.7521;1.6948;
240.0000;0.7570;1.7088;
240.3000;0.7570;1.6924;
240.6000;0.7538;1.6783;
240.9000;0.7562;1.6854;
241.2000;0.7521;1.6760;
241.5000;0.7562;1.6948;
241.8000;0.7489;1.6877;
242.1000;0.7562;1.6948;
242.4000;0.7554;1.6995;
242.7000;0.7546;1.6924;
243.0000;0.7489;1.6830;
243.3000;0.7546;1.7135;
243.6000;0.7562;1.7206;
243.9000;0.7473;1.7018;
244.2000;0.7530;1.7042;
244.5000;0.7538;1.6995;
244.8000;0.7611;1.7206;
245.1000;0.7530;1.7112;
245.4000;0.7521;1.7065;
245.7000;0.7538;1.7088;
246.0000;0.7521;1.7065;
246.3000;0.7546;1.7206;
246.6000;0.7554;1.7229;
246.9000;0.7554;1.7206;
247.2000;0.7546;1.7135;
247.5000;0.7554;1.7135;
247.8000;0.7530;1.7159;
248.1000;0.7530;1.7182;
248.4000;0.7530;1.7229;
248.7000;0.7521;1.7253;
249.0000;0.7546;1.7347;
249.3000;0.7570;1.7323;
249.6000;0.7578;1.7323;
249.9000;0.7554;1.7253;
250.2000;0.7538;1.7206;
250.5000;0.7546;1.7206;
250.8000;0.7546;1.7159;
251.1000;0.7530;1.7159;
251.4000;0.7530;1.7182;
251.7000;0.7578;1.7182;
252.0000;0.7554;1.7135;
252.3000;0.7554;1.7159;
252.6000;0.7554;1.7112;
252.9000;0.7530;1.7112;
253.2000;0.7546;1.7206;
253.5000;0.7530;1.7229;
253.8000;0.7521;1.7182;
254.1000;0.7546;1.7159;
254.4000;0.7521;1.7112;
254.7000;0.7546;1.7135;
255.0000;0.7530;1.7065;
255.3000;0.7530;1.7112;
255.6000;0.7562;1.7206;
255.9000;0.7432;1.6830;
256.2000;0.7505;1.6948;
256.5000;0.7489;1.6901;
256.8000;0.7538;1.7065;
257.1000;0.7538;1.7088;
257.4000;0.7554;1.7088;
257.7000;0.7538;1.6995;
258.0000;0.7538;1.6971;
258.3000;0.7554;1.7065;
258.6000;0.7554;1.7135;
258.9000;0.7530;1.7065;
259.2000;0.7546;1.7042;
259.5000;0.7530;1.6995;
259.8000;0.7538;1.7159;
260.1000;0.7521;1.7135;
260.4000;0.7546;1.7206;
260.7000;0.7562;1.7229;
261.0000;0.7562;1.7229;
261.3000;0.7530;1.7159;
261.6000;0.7546;1.7159;
261.9000;0.7554;1.7182;
262.2000;0.7546;1.7135;
262.5000;0.7521;1.7042;
262.8000;0.7562;1.7112;
263.1000;0.7546;1.7065;
263.4000;0.7538;1.7112;
263.7000;0.7578;1.7135;
264.0000;0.7521;1.7088;
264.3000;0.7562;1.7112;
264.6000;0.7538;1.7088;
264.9000;0.7538;1.6995;
265.2000;0.7578;1.7065;
265.5000;0.7538;1.6924;
265.8000;0.7546;1.6948;
266.1000;0.7538;1.6924;
266.4000;0.7538;1.6901;
266.7000;0.7407;1.6478;
267.0000;0.7489;1.6736;
267.3000;0.7546;1.6948;
267.6000;0.7530;1.6971;
267.9000;0.7530;1.7042;
268.2000;0.7473;1.7018;
268.5000;0.7513;1.7112;
268.8000;0.7546;1.7182;
269.1000;0.7538;1.7112;
269.4000;0.7521;1.7088;
269.7000;0.7521;1.7112;
270.0000;0.7546;1.7065;
270.3000;0.7538;1.7088;
270.6000;0.7538;1.7042;
270.9000;0.7538;1.7112;
271.2000;0.7538;1.7042;
271.5000;0.7530;1.7018;
271.8000;0.7538;1.7135;
272.1000;0.7538;1.7135;
272.4000;0.7530;1.7135;
272.7000;0.7538;1.7065;
273.0000;0.7546;1.7112;
273.3000;0.7538;1.7088;
273.6000;0.7530;1.7112;
273.9000;0.7521;1.7042;
274.2000;0.7546;1.7088;
274.5000;0.7530;1.6971;
274.8000;0.7546;1.7088;
275.1000;0.7538;1.7042;
275.4000;0.7538;1.6948;
275.7000;0.7554;1.6901;
276.0000;0.7546;1.6877;
276.3000;0.7521;1.6736;
276.6000;0.7530;1.6760;
276.9000;0.7530;1.6830;
277.2000;0.7432;1.6502;
277.5000;0.7530;1.6854;
277.8000;0.7521;1.6854;
278.1000;0.7521;1.6971;
278.4000;0.7538;1.6971;
278.7000;0.7538;1.7042;
279.0000;0.7521;1.7088;
279.3000;0.7538;1.7159;
279.6000;0.7578;1.7323;
279.9000;0.7595;1.7300;
280.2000;0.7546;1.7112;
280.5000;0.7546;1.7018;
280.8000;0.7530;1.6995;
281.1000;0.7562;1.7065;
281.4000;0.7546;1.7088;
281.7000;0.7530;1.7088;
282.0000;0.7546;1.7065;
282.3000;0.7505;1.6971;
282.6000;0.7497;1.6948;
282.9000;0.7554;1.7088;
283.2000;0.7530;1.7088;
283.5000;0.7578;1.7088;
283.8000;0.7530;1.6995;
284.1000;0.7489;1.6877;
284.4000;0.7546;1.6948;
284.7000;0.7505;1.6924;
285.0000;0.7530;1.7018;
285.3000;0.7538;1.7135;
285.6000;0.7530;1.7042;
285.9000;0.7530;1.7112;
286.2000;0.7497;1.6995;
286.5000;0.7554;1.7088;
286.8000;0.7530;1.6971;
287.1000;0.7521;1.6995;
287.4000;0.7530;1.6924;
287.7000;0.7530;1.6924;
288.0000;0.7530;1.7065;
288.3000;0.7546;1.7088;
288.6000;0.7530;1.7159;
288.9000;0.7546;1.7135;
289.2000;0.7562;1.7159;
289.5000;0.7538;1.7088;
289.8000;0.7546;1.7182;
290.1000;0.7530;1.7065;
290.4000;0.7538;1.7088;
290.7000;0.7521;1.7018;
291.0000;0.7521;1.6901;
291.3000;0.7562;1.6948;
291.6000;0.7538;1.6877;
291.9000;0.7513;1.6854;
292.2000;0.7530;1.6924;
292.5000;0.7530;1.6924;
292.8000;0.7538;1.7018;
293.1000;0.7530;1.7088;
293.4000;0.7546;1.7065;
293.7000;0.7546;1.6995;
294.0000;0.7513;1.6995;
294.3000;0.7562;1.7182;
294.6000;0.7538;1.7159;
294.9000;0.7521;1.7112;
295.2000;0.7521;1.7229;
295.5000;0.7513;1.7159;
295.8000;0.7538;1.7112;
296.1000;0.7570;1.7182;
296.4000;0.7530;1.6971;
296.7000;0.7521;1.7018;
297.0000;0.7538;1.7112;
297.3000;0.7562;1.7088;
297.6000;0.7554;1.7018;
297.9000;0.7538;1.6948;
298.2000;0.7538;1.6948;
298.5000;0.7546;1.6995;
298.8000;0.7538;1.6948;
299.1000;0.7554;1.6971;
299.4000;0.7546;1.6924;
299.7000;0.7521;1.6924;
300.0000;0.7505;1.6924;
300.3000;0.7530;1.7018;
300.6000;0.7521;1.6995;
300.9000;0.7530;1.7018;
301.2000;0.7521;1.6901;
301.5000;0.7530;1.6901;
301.8000;0.7554;1.6901;
302.1000;0.7546;1.6854;
302.4000;0.7530;1.6830;
302.7000;0.7530;1.6901;
303.0000;0.7546;1.6924;
303.3000;0.7513;1.6854;
303.6000;0.7530;1.6901;
303.9000;0.7538;1.6830;
304.2000;0.7546;1.6924;
304.5000;0.7546;1.6948;
304.8000;0.7546;1.6971;
305.1000;0.7513;1.6924;
305.4000;0.7562;1.7088;
305.7000;0.7546;1.7042;
306.0000;0.7546;1.7112;
306.3000;0.7513;1.7088;
306.6000;0.7530;1.7088;
306.9000;0.7538;1.7112;
307.2000;0.7530;1.7135;
307.5000;0.7554;1.7182;
307.8000;0.7538;1.7065;
308.1000;0.7578;1.7182;
308.4000;0.7513;1.6995;
308.7000;0.7530;1.7088;
309.0000;0.7530;1.7088;
309.3000;0.7530;1.7042;
309.6000;0.7554;1.7182;
309.9000;0.7554;1.7159;
310.2000;0.7570;1.7159;
310.5000;0.7538;1.7088;
310.8000;0.7546;1.7065;
311.1000;0.7538;1.7135;
311.4000;0.7521;1.7159;
311.7000;0.7521;1.7135;
312.0000;0.7513;1.7112;
312.3000;0.7521;1.7112;
312.6000;0.7530;1.7112;
312.9000;0.7521;1.7018;
313.2000;0.7497;1.7018;
313.5000;0.7538;1.6995;
313.8000;0.7505;1.6924;
314.1000;0.7595;1.7182;
314.4000;0.7538;1.7042;
314.7000;0.7554;1.7159;
315.0000;0.7546;1.7159;
315.3000;0.7497;1.7042;
315.6000;0.7513;1.7065;
315.9000;0.7521;1.7065;
316.2000;0.7554;1.7253;
316.5000;0.7546;1.7206;
316.8000;0.7521;1.7182;
317.1000;0.7521;1.7088;
317.4000;0.7530;1.7112;
317.7000;0.7530;1.7112;
318.0000;0.7530;1.7065;
318.3000;0.7554;1.7088;
318.6000;0.7643;1.7276;
318.9000;0.7554;1.7065;
319.2000;0.7546;1.7042;
319.5000;0.7538;1.7065;
319.8000;0.7530;1.7018;
320.1000;0.7546;1.7135;
320.4000;0.7521;1.7135;
320.7000;0.7505;1.7182;
321.0000;0.7497;1.7042;
321.3000;0.7538;1.7065;
321.6000;0.7538;1.7065;
321.9000;0.7530;1.7135;
322.2000;0.7521;1.7112;
322.5000;0.7652;1.7417;
322.8000;0.7497;1.7065;
323.1000;0.7521;1.7042;
323.4000;0.7530;1.7018;
323.7000;0.7521;1.6995;
324.0000;0.7546;1.7018;
324.3000;0.7521;1.7018;
324.6000;0.7530;1.7112;
324.9000;0.7521;1.7206;
325.2000;0.7530;1.7229;
325.5000;0.7464;1.7042;
325.8000;0.7513;1.7182;
326.1000;0.7546;1.7088;
326.4000;0.7530;1.6995;
326.7000;0.7538;1.6971;
327.0000;0.7538;1.6971;
327.3000;0.7530;1.7018;
327.6000;0.7473;1.6854;
327.9000;0.7530;1.6995;
328.2000;0.7513;1.7088;
328.5000;0.7416;1.6807;
328.8000;0.7530;1.7065;
329.1000;0.7538;1.6948;
329.4000;0.7521;1.6995;
329.7000;0.7530;1.7065;
330.0000;0.7521;1.7042;
330.3000;0.7603;1.7253;
330.6000;0.7448;1.6854;
330.9000;0.7530;1.7159;
331.2000;0.7530;1.7159;
331.5000;0.7546;1.7112;
331.8000;0.7530;1.6995;
332.1000;0.7530;1.7018;
332.4000;0.7513;1.7018;
332.7000;0.7530;1.7112;
333.0000;0.7497;1.7042;
333.3000;0.7530;1.7112;
333.6000;0.7521;1.7182;
333.9000;0.7521;1.7206;
334.2000;0.7530;1.7229;
334.5000;0.7521;1.7229;
334.8000;0.7521;1.7300;
335.1000;0.7586;1.7370;
335.4000;0.7530;1.7159;
335.7000;0.7538;1.7206;
336.0000;0.7489;1.6995;
336.3000;0.7521;1.7065;
336.6000;0.7538;1.7042;
336.9000;0.7554;1.7112;
337.2000;0.7448;1.6901;
337.5000;0.7538;1.7088;
337.8000;0.7513;1.6995;
338.1000;0.7448;1.6854;
338.4000;0.7530;1.7018;
338.7000;0.7546;1.7112;
339.0000;0.7513;1.6995;
339.3000;0.7513;1.6948;
339.6000;0.7505;1.6854;
339.9000;0.7530;1.6854;
340.2000;0.7538;1.6924;
340.5000;0.7521;1.6948;
340.8000;0.7530;1.7042;
341.1000;0.7538;1.7135;
341.4000;0.7505;1.7018;
341.7000;0.7538;1.7112;
342.0000;0.7513;1.7018;
342.3000;0.7521;1.7065;
342.6000;0.7562;1.7159;
342.9000;0.7513;1.7018;
343.2000;0.7399;1.6783;
343.5000;0.7530;1.7182;
343.8000;0.7473;1.6971;
344.1000;0.7530;1.7112;
344.4000;0.7464;1.6971;
344.7000;0.7562;1.7276;
345.0000;0.7505;1.7042;
345.3000;0.7546;1.7182;
345.6000;0.7513;1.7206;
345.9000;0.7521;1.7253;
346.2000;0.7538;1.7323;
346.5000;0.7554;1.7464;
346.8000;0.7489;1.7229;
347.1000;0.7521;1.7229;
347.4000;0.7530;1.7206;
347.7000;0.7530;1.7182;
348.0000;0.7570;1.7206;
348.3000;0.7538;1.7042;
348.6000;0.7546;1.7112;
348.9000;0.7481;1.6948;
349.2000;0.7513;1.6924;
349.5000;0.7538;1.6924;
349.8000;0.7530;1.6924;
350.1000;0.7521;1.6924;
350.4000;0.7530;1.6901;
350.7000;0.7513;1.6854;
351.0000;0.7464;1.6807;
351.3000;0.7530;1.6901;
351.6000;0.7546;1.6948;
351.9000;0.7505;1.6948;
352.2000;0.7521;1.6995;
352.5000;0.7538;1.7182;
352.8000;0.7530;1.7229;
353.1000;0.7546;1.7229;
353.4000;0.7538;1.7229;
353.7000;0.7538;1.7206;
354.0000;0.7538;1.7135;
354.3000;0.7635;1.7323;
354.6000;0.7521;1.6971;
354.9000;0.7530;1.7065;
355.2000;0.7513;1.7042;
355.5000;0.7513;1.7065;
355.8000;0.7513;1.7088;
356.1000;0.7505;1.7042;
356.4000;0.7521;1.7112;
356.7000;0.7505;1.6948;
357.0000;0.7530;1.6948;
357.3000;0.7530;1.6924;
357.6000;0.7521;1.6901;
357.9000;0.7513;1.6948;
358.2000;0.7521;1.7065;
358.5000;0.7521;1.7088;
358.8000;0.7530;1.7065;
359.1000;0.7538;1.7088;
359.4000;0.7530;1.7135;
359.7000;0.7546;1.7159;
360.0000;0.7530;1.7042;
360.3000;0.7586;1.6971;
360.6000;0.7513;1.6783;
360.9000;0.7521;1.6760;
361.2000;0.7554;1.6924;
361.5000;0.7530;1.6877;
361.8000;0.7489;1.6689;
362.1000;0.7521;1.6783;
362.4000;0.7505;1.6830;
362.7000;0.7530;1.6948;
363.0000;0.7530;1.6901;
363.3000;0.7530;1.6854;
363.6000;0.7538;1.7018;
363.9000;0.7521;1.6924;
364.2000;0.7513;1.6877;
364.5000;0.7603;1.7182;
364.8000;0.7505;1.6901;
365.1000;0.7521;1.6924;
365.4000;0.7521;1.6924;
365.7000;0.7521;1.6995;
366.0000;0.7546;1.7018;
366.3000;0.7530;1.6948;
366.6000;0.7538;1.6995;
366.9000;0.7521;1.6854;
367.2000;0.7513;1.6807;
367.5000;0.7530;1.6830;
367.8000;0.7513;1.6713;
368.1000;0.7505;1.6666;
368.4000;0.7521;1.6642;
368.7000;0.7530;1.6619;
369.0000;0.7554;1.6854;
369.3000;0.7652;1.7182;
369.6000;0.7562;1.7088;
369.9000;0.7521;1.7065;
370.2000;0.7489;1.6948;
370.5000;0.7513;1.6971;
370.8000;0.7530;1.7042;
371.1000;0.7521;1.6995;
371.4000;0.7619;1.7206;
371.7000;0.7530;1.6854;
372.0000;0.7456;1.6619;
372.3000;0.7521;1.6783;
372.6000;0.7505;1.6807;
372.9000;0.7513;1.6854;
373.2000;0.7521;1.6901;
373.5000;0.7513;1.6901;
373.8000;0.7497;1.6877;
374.1000;0.7505;1.6877;
374.4000;0.7570;1.6924;
374.7000;0.7538;1.6783;
375.0000;0.7570;1.6877;
375.3000;0.7554;1.6807;
375.6000;0.7538;1.6854;
375.9000;0.7481;1.6713;
376.2000;0.7513;1.6807;
376.5000;0.7416;1.6549;
376.8000;0.7521;1.6736;
377.1000;0.7513;1.6830;
377.4000;0.7407;1.6572;
377.7000;0.7521;1.6854;
378.0000;0.7530;1.6854;
378.3000;0.7538;1.6854;
378.6000;0.7489;1.6783;
378.9000;0.7505;1.6807;
379.2000;0.7513;1.6830;
379.5000;0.7546;1.6854;
379.8000;0.7513;1.6807;
380.1000;0.7521;1.6877;
380.4000;0.7521;1.6924;
380.7000;0.7538;1.6995;
381.0000;0.7521;1.6971;
381.3000;0.7521;1.6948;
381.6000;0.7513;1.6901;
381.9000;0.7513;1.6948;
382.2000;0.7521;1.7018;
382.5000;0.7521;1.7018;
382.8000;0.7619;1.7182;
383.1000;0.7505;1.6901;
383.4000;0.7562;1.6971;
383.7000;0.7538;1.6948;
384.0000;0.7546;1.6924;
384.3000;0.7538;1.6971;
384.6000;0.7513;1.6901;
384.9000;0.7530;1.6924;
385.2000;0.7521;1.6901;
385.5000;0.7530;1.6948;
385.8000;0.7562;1.7042;
386.1000;0.7521;1.7018;
386.4000;0.7586;1.7182;
386.7000;0.7505;1.7065;
387.0000;0.7505;1.7042;
387.3000;0.7513;1.6971;
387.6000;0.7521;1.6948;
387.9000;0.7513;1.6901;
388.2000;0.7521;1.6971;
388.5000;0.7521;1.7042;
388.8000;0.7530;1.7018;
389.1000;0.7505;1.6901;
389.4000;0.7497;1.6901;
389.7000;0.7570;1.7065;
390.0000;0.7513;1.6971;
390.3000;0.7521;1.7042;
390.6000;0.7505;1.7088;
390.9000;0.7513;1.7112;
391.2000;0.7521;1.7135;
391.5000;0.7521;1.7112;
391.8000;0.7513;1.7018;
392.1000;0.7489;1.6924;
392.4000;0.7530;1.6948;
392.7000;0.7554;1.6971;
393.0000;0.7513;1.6924;
393.3000;0.7595;1.7065;
393.6000;0.7521;1.7018;
393.9000;0.7464;1.6971;
394.2000;0.7546;1.7135;
394.5000;0.7505;1.7065;
394.8000;0.7497;1.6995;
395.1000;0.7538;1.7135;
395.4000;0.7513;1.7018;
395.7000;0.7513;1.7018;
396.0000;0.7513;1.6995;
396.3000;0.7530;1.6995;
396.6000;0.7521;1.6924;
396.9000;0.7481;1.6877;
397.2000;0.7497;1.6854;
397.5000;0.7538;1.6924;
397.8000;0.7521;1.6854;
398.1000;0.7497;1.6877;
398.4000;0.7603;1.7253;
398.7000;0.7530;1.7088;
399.0000;0.7481;1.6971;
399.3000;0.7513;1.7042;
399.6000;0.7505;1.6971;
399.9000;0.7481;1.6901;
400.2000;0.7505;1.6901;
400.5000;0.7497;1.6901;
400.8000;0.7497;1.6877;
401.1000;0.7505;1.6948;
401.4000;0.7489;1.6830;
401.7000;0.7497;1.6830;
402.0000;0.7497;1.6854;
402.3000;0.7481;1.6760;
402.6000;0.7513;1.6807;
402.9000;0.7497;1.6783;
403.2000;0.7505;1.6760;
403.5000;0.7481;1.6736;
403.8000;0.7505;1.6807;
404.1000;0.7530;1.6783;
404.4000;0.7513;1.6830;
404.7000;0.7521;1.6877;
405.0000;0.7497;1.6901;
405.3000;0.7513;1.6830;
405.6000;0.7513;1.6901;
405.9000;0.7513;1.6948;
406.2000;0.7530;1.6854;
406.5000;0.7521;1.6901;
406.8000;0.7530;1.6830;
407.1000;0.7505;1.6736;
407.4000;0.7505;1.6760;
407.7000;0.7497;1.6783;
408.0000;0.7521;1.6783;
408.3000;0.7505;1.6760;
408.6000;0.7489;1.6713;
408.9000;0.7456;1.6736;
409.2000;0.7505;1.6924;
409.5000;0.7521;1.6924;
409.8000;0.7505;1.6854;
410.1000;0.7570;1.6948;
410.4000;0.7562;1.7018;
410.7000;0.7530;1.7042;
411.0000;0.7497;1.6948;
411.3000;0.7497;1.6995;
411.6000;0.7513;1.7159;
411.9000;0.7513;1.7088;
412.2000;0.7497;1.7065;
412.5000;0.7521;1.7065;
412.8000;0.7505;1.7088;
413.1000;0.7513;1.7042;
413.4000;0.7513;1.6971;
413.7000;0.7521;1.6995;
414.0000;0.7530;1.6995;
414.3000;0.7497;1.6995;
414.6000;0.7481;1.7042;
414.9000;0.7513;1.7042;
415.2000;0.7497;1.6995;
415.5000;0.7530;1.6971;
415.8000;0.7481;1.6877;
416.1000;0.7513;1.6901;
416.4000;0.7521;1.6924;
416.7000;0.7530;1.7112;
417.0000;0.7530;1.7159;
417.3000;0.7513;1.7042;
417.6000;0.7481;1.6854;
417.9000;0.7489;1.6854;
418.2000;0.7505;1.6901;
418.5000;0.7489;1.6854;
418.8000;0.7513;1.6854;
419.1000;0.7391;1.6502;
419.4000;0.7497;1.6713;
419.7000;0.7473;1.6619;
420.0000;0.7513;1.6783;
420.3000;0.7554;1.6807;
420.6000;0.7513;1.6760;
420.9000;0.7464;1.6666;
421.2000;0.7513;1.6736;
421.5000;0.7505;1.6666;
421.8000;0.7505;1.6666;
422.1000;0.7505;1.6760;
422.4000;0.7513;1.6760;
422.7000;0.7513;1.6877;
423.0000;0.7481;1.6877;
423.3000;0.7505;1.6877;
423.6000;0.7505;1.6854;
423.9000;0.7497;1.6830;
424.2000;0.7473;1.6713;
424.5000;0.7521;1.6877;
424.8000;0.7521;1.6901;
425.1000;0.7464;1.6830;
425.4000;0.7513;1.6948;
425.7000;0.7530;1.6948;
426.0000;0.7530;1.7018;
426.3000;0.7513;1.7065;
426.6000;0.7513;1.7112;
426.9000;0.7505;1.7112;
427.2000;0.7530;1.7135;
427.5000;0.7586;1.7229;
427.8000;0.7513;1.7042;
428.1000;0.7521;1.7112;
428.4000;0.7530;1.7042;
428.7000;0.7530;1.6971;
429.0000;0.7530;1.7018;
429.3000;0.7521;1.6995;
429.6000;0.7513;1.6901;
429.9000;0.7513;1.6948;
430.2000;0.7521;1.6995;
430.5000;0.7505;1.7018;
430.8000;0.7513;1.6995;
431.1000;0.7513;1.6971;
431.4000;0.7497;1.6924;
431.7000;0.7497;1.6901;
432.0000;0.7464;1.6807;
432.3000;0.7505;1.6901;
432.6000;0.7513;1.6901;
432.9000;0.7513;1.6924;
433.2000;0.7513;1.6901;
433.5000;0.7489;1.6830;
433.8000;0.7513;1.6901;
434.1000;0.7521;1.6924;
434.4000;0.7513;1.6807;
434.7000;0.7505;1.6830;
435.0000;0.7505;1.6901;
435.3000;0.7481;1.6877;
435.6000;0.7489;1.7042;
435.9000;0.7481;1.6971;
436.2000;0.7505;1.6924;
436.5000;0.7505;1.6901;
436.8000;0.7497;1.6877;
437.1000;0.7489;1.6807;
437.4000;0.7505;1.6877;
437.7000;0.7497;1.6995;
438.0000;0.7497;1.6854;
438.3000;0.7497;1.6901;
438.6000;0.7505;1.6807;
438.9000;0.7473;1.6689;
439.2000;0.7489;1.6760;
439.5000;0.7464;1.6760;
439.8000;0.7570;1.6948;
440.1000;0.7513;1.6807;
440.4000;0.7562;1.6948;
440.7000;0.7497;1.6830;
441.0000;0.7497;1.6830;
441.3000;0.7513;1.6877;
441.6000;0.7521;1.6995;
441.9000;0.7505;1.6948;
442.2000;0.7497;1.6854;
442.5000;0.7473;1.6760;
442.8000;0.7513;1.6901;
443.1000;0.7513;1.6901;
443.4000;0.7505;1.6948;
443.7000;0.7513;1.7018;
444.0000;0.7473;1.6830;
444.3000;0.7513;1.6971;
444.6000;0.7505;1.6948;
444.9000;0.7473;1.6877;
445.2000;0.7497;1.6924;
445.5000;0.7481;1.6760;
445.8000;0.7513;1.6736;
446.1000;0.7635;1.7065;
446.4000;0.7416;1.6478;
446.7000;0.7497;1.6736;
447.0000;0.7497;1.6760;
447.3000;0.7497;1.6736;
447.6000;0.7473;1.6736;
447.9000;0.7521;1.6971;
448.2000;0.7505;1.6971;
448.5000;0.7497;1.6901;
448.8000;0.7513;1.6901;
449.1000;0.7497;1.6971;
449.4000;0.7521;1.7042;
449.7000;0.7505;1.6995;
450.0000;0.7505;1.6995;
450.3000;0.7497;1.6971;
450.6000;0.7521;1.7065;
450.9000;0.7521;1.7042;
451.2000;0.7497;1.6924;
451.5000;0.7513;1.6995;
451.8000;0.7513;1.6995;
452.1000;0.7481;1.6877;
452.4000;0.7505;1.6948;
452.7000;0.7464;1.6901;
453.0000;0.7513;1.6924;
453.3000;0.7497;1.6924;
453.6000;0.7497;1.6995;
453.9000;0.7497;1.7018;
454.2000;0.7497;1.7018;
454.5000;0.7489;1.7065;
454.8000;0.7473;1.6971;
455.1000;0.7521;1.7088;
455.4000;0.7505;1.7135;
455.7000;0.7497;1.7088;
456.0000;0.7497;1.7018;
456.3000;0.7505;1.6948;
456.6000;0.7464;1.6877;
456.9000;0.7464;1.6830;
457.2000;0.7481;1.6924;
457.5000;0.7513;1.7065;
457.8000;0.7473;1.6948;
458.1000;0.7521;1.7018;
458.4000;0.7489;1.6924;
458.7000;0.7505;1.6971;
459.0000;0.7497;1.6854;
459.3000;0.7473;1.6807;
459.6000;0.7505;1.6948;
459.9000;0.7513;1.7042;
460.2000;0.7505;1.7088;
460.5000;0.7497;1.7088;
460.8000;0.7530;1.7159;
461.1000;0.7513;1.7159;
461.4000;0.7513;1.7112;
461.7000;0.7489;1.7018;
462.0000;0.7505;1.7018;
462.3000;0.7513;1.7018;
462.6000;0.7513;1.6924;
462.9000;0.7497;1.6877;
463.2000;0.7505;1.7018;
463.5000;0.7538;1.7112;
463.8000;0.7497;1.7112;
464.1000;0.7538;1.7253;
464.4000;0.7497;1.7135;
464.7000;0.7407;1.6901;
465.0000;0.7513;1.7112;
465.3000;0.7513;1.7042;
465.6000;0.7513;1.7042;
465.9000;0.7505;1.7088;
466.2000;0.7473;1.6995;
466.5000;0.7586;1.7253;
466.8000;0.7505;1.7018;
467.1000;0.7497;1.7042;
467.4000;0.7505;1.7065;
467.7000;0.7513;1.6995;
468.0000;0.7416;1.6689;
468.3000;0.7513;1.6877;
468.6000;0.7505;1.6924;
468.9000;0.7505;1.6971;
469.2000;0.7513;1.6924;
469.5000;0.7562;1.7088;
469.8000;0.7497;1.6948;
470.1000;0.7562;1.7112;
470.4000;0.7530;1.7088;
470.7000;0.7497;1.7112;
471.0000;0.7505;1.7112;
471.3000;0.7586;1.7300;
471.6000;0.7497;1.7042;
471.9000;0.7505;1.6971;
472.2000;0.7497;1.6924;
472.5000;0.7505;1.7018;
472.8000;0.7513;1.7018;
473.1000;0.7489;1.6971;
473.4000;0.7497;1.7018;
473.7000;0.7513;1.7042;
474.0000;0.7489;1.6995;
474.3000;0.7489;1.6971;
474.6000;0.7473;1.6971;
474.9000;0.7489;1.6995;
475.2000;0.7513;1.7042;
475.5000;0.7473;1.7065;
475.8000;0.7505;1.7065;
476.1000;0.7489;1.6901;
476.4000;0.7513;1.6995;
476.7000;0.7521;1.7042;
477.0000;0.7513;1.6971;
477.3000;0.7513;1.6995;
477.6000;0.7497;1.6995;
477.9000;0.7481;1.6971;
478.2000;0.7521;1.7135;
478.5000;0.7538;1.7182;
478.8000;0.7456;1.7042;
479.1000;0.7497;1.7112;
479.4000;0.7489;1.7135;
479.7000;0.7554;1.7159;
480.0000;0.7481;1.6948;
480.3000;0.7521;1.7112;
480.6000;0.7481;1.7042;
480.9000;0.7497;1.7088;
481.2000;0.7497;1.7112;
481.5000;0.7497;1.7135;
481.8000;0.7505;1.7135;
482.1000;0.7513;1.7065;
482.4000;0.7530;1.7065;
482.7000;0.7513;1.7018;
483.0000;0.7521;1.6948;
483.3000;0.7513;1.6971;
483.6000;0.7497;1.6971;
483.9000;0.7489;1.6995;
484.2000;0.7489;1.7018;
484.5000;0.7497;1.7065;
484.8000;0.7497;1.7088;
485.1000;0.7489;1.6924;
485.4000;0.7473;1.6854;
485.7000;0.7464;1.6877;
486.0000;0.7489;1.7018;
486.3000;0.7481;1.7018;
486.6000;0.7521;1.7112;
486.9000;0.7505;1.7018;
487.2000;0.7497;1.7065;
487.5000;0.7521;1.7229;
487.8000;0.7497;1.7276;
488.1000;0.7497;1.7394;
488.4000;0.7489;1.7417;
488.7000;0.7489;1.7394;
489.0000;0.7635;1.7816;
489.3000;0.7505;1.7417;
489.6000;0.7513;1.7441;
489.9000;0.7497;1.7276;
490.2000;0.7505;1.7206;
490.5000;0.7497;1.7206;
490.8000;0.7505;1.7253;
491.1000;0.7473;1.7042;
491.4000;0.7497;1.6995;
491.7000;0.7481;1.6971;
492.0000;0.7513;1.7042;
492.3000;0.7603;1.7276;
492.6000;0.7489;1.6924;
492.9000;0.7497;1.6948;
493.2000;0.7530;1.7088;
493.5000;0.7481;1.7018;
493.8000;0.7562;1.7253;
494.1000;0.7521;1.7229;
494.4000;0.7464;1.7112;
494.7000;0.7489;1.7088;
495.0000;0.7489;1.7088;
495.3000;0.7489;1.7042;
495.6000;0.7497;1.6995;
495.9000;0.7497;1.6995;
496.2000;0.7489;1.6830;
496.5000;0.7497;1.6783;
496.8000;0.7513;1.6854;
497.1000;0.7489;1.6830;
497.4000;0.7497;1.6783;
497.7000;0.7497;1.6830;
498.0000;0.7456;1.6713;
498.3000;0.7505;1.6807;
498.6000;0.7489;1.6854;
498.9000;0.7481;1.6854;
499.2000;0.7489;1.6901;
499.5000;0.7489;1.6877;
499.8000;0.7497;1.6948;
500.1000;0.7489;1.6971;
500.4000;0.7489;1.7018;
500.7000;0.7481;1.6971;
501.0000;0.7505;1.6995;
501.3000;0.7481;1.6924;
501.6000;0.7489;1.6948;
501.9000;0.7505;1.7112;
502.2000;0.7481;1.7159;
502.5000;0.7489;1.7135;
502.8000;0.7464;1.7135;
503.1000;0.7513;1.7182;
503.4000;0.7464;1.7135;
503.7000;0.7554;1.7300;
504.0000;0.7424;1.7112;
504.3000;0.7464;1.7206;
504.6000;0.7473;1.7206;
504.9000;0.7489;1.7135;
505.2000;0.7562;1.7229;
505.5000;0.7464;1.6948;
505.8000;0.7481;1.6995;
506.1000;0.7505;1.7159;
506.4000;0.7497;1.7135;
506.7000;0.7489;1.7159;
507.0000;0.7473;1.7088;
507.3000;0.7432;1.7018;
507.6000;0.7497;1.7229;
507.9000;0.7505;1.7182;
508.2000;0.7473;1.7088;
508.5000;0.7586;1.7394;
508.8000;0.7497;1.7229;
509.1000;0.7489;1.7206;
509.4000;0.7448;1.7159;
509.7000;0.7497;1.7276;
510.0000;0.7489;1.7206;
510.3000;0.7464;1.7182;
510.6000;0.7464;1.7229;
510.9000;0.7497;1.7253;
511.2000;0.7489;1.7229;
511.5000;0.7489;1.7323;
511.8000;0.7473;1.7276;
512.1000;0.7407;1.7112;
512.4000;0.7481;1.7253;
512.7000;0.7497;1.7206;
513.0000;0.7497;1.7253;
513.3000;0.7473;1.7182;
513.6000;0.7473;1.7159;
513.9000;0.7513;1.7206;
514.2000;0.7489;1.7135;
514.5000;0.7505;1.7229;
514.8000;0.7586;1.7511;
515.1000;0.7407;1.7135;
515.4000;0.7489;1.7347;
515.7000;0.7497;1.7394;
516.0000;0.7448;1.7253;
516.3000;0.7489;1.7229;
516.6000;0.7481;1.7159;
516.9000;0.7481;1.7159;
517.2000;0.7464;1.7159;
517.5000;0.7448;1.7135;
517.8000;0.7464;1.7253;
518.1000;0.7416;1.7065;
518.4000;0.7473;1.7206;
518.7000;0.7464;1.7276;
519.0000;0.7481;1.7206;
519.3000;0.7489;1.7135;
519.6000;0.7473;1.7088;
519.9000;0.7497;1.7159;
520.2000;0.7481;1.7276;
520.5000;0.7481;1.7300;
520.8000;0.7489;1.7300;
521.1000;0.7481;1.7300;
521.4000;0.7497;1.7206;
521.7000;0.7505;1.7159;
522.0000;0.7481;1.7042;
522.3000;0.7497;1.6995;
522.6000;0.7489;1.7018;
522.9000;0.7497;1.6995;
523.2000;0.7473;1.6995;
523.5000;0.7497;1.7159;
523.8000;0.7497;1.7135;
524.1000;0.7505;1.7206;
524.4000;0.7489;1.7112;
524.7000;0.7611;1.7464;
525.0000;0.7473;1.7159;
525.3000;0.7497;1.7276;
525.6000;0.7497;1.7276;
525.9000;0.7456;1.7182;
526.2000;0.7595;1.7464;
526.5000;0.7505;1.7229;
526.8000;0.7497;1.7159;
527.1000;0.7464;1.7065;
527.4000;0.7473;1.7159;
527.7000;0.7473;1.7088;
528.0000;0.7489;1.7112;
528.3000;0.7473;1.7065;
528.6000;0.7473;1.7088;
528.9000;0.7473;1.7065;
529.2000;0.7399;1.6877;
529.5000;0.7489;1.7135;
529.8000;0.7473;1.7042;
530.1000;0.7473;1.7018;
530.4000;0.7481;1.7042;
530.7000;0.7489;1.7088;
531.0000;0.7513;1.7112;
531.3000;0.7505;1.7112;
531.6000;0.7489;1.7088;
531.9000;0.7481;1.7088;
532.2000;0.7505;1.6971;
532.5000;0.7489;1.6901;
532.8000;0.7489;1.6924;
533.1000;0.7505;1.6948;
533.4000;0.7456;1.6877;
533.7000;0.7481;1.6971;
534.0000;0.7570;1.7253;
534.3000;0.7489;1.7135;
534.6000;0.7538;1.7253;
534.9000;0.7521;1.7300;
535.2000;0.7473;1.7182;
535.5000;0.7383;1.6995;
535.8000;0.7513;1.7253;
536.1000;0.7473;1.7065;
536.4000;0.7473;1.7018;
536.7000;0.7546;1.7112;
537.0000;0.7513;1.7042;
537.3000;0.7497;1.6971;
537.6000;0.7359;1.6713;
537.9000;0.7489;1.7042;
538.2000;0.7473;1.7018;
538.5000;0.7562;1.7253;
538.8000;0.7473;1.7018;
539.1000;0.7440;1.6924;
539.4000;0.7489;1.6948;
539.7000;0.7497;1.7018;
540.0000;0.7505;1.7088;
540.3000;0.7481;1.7018;
540.6000;0.7489;1.7018;
540.9000;0.7473;1.6948;
541.2000;0.7497;1.6948;
541.5000;0.7505;1.6995;
541.8000;0.7513;1.7088;
542.1000;0.7448;1.6971;
542.4000;0.7489;1.7018;
542.7000;0.7489;1.6995;
543.0000;0.7489;1.6995;
543.3000;0.7505;1.6924;
543.6000;0.7489;1.6854;
543.9000;0.7481;1.6901;
544.2000;0.7489;1.6877;
544.5000;0.7481;1.6854;
544.8000;0.7489;1.6877;
545.1000;0.7489;1.6760;
545.4000;0.7611;1.7088;
545.7000;0.7464;1.6760;
546.0000;0.7489;1.6830;
546.3000;0.7489;1.6924;
546.6000;0.7473;1.6877;
546.9000;0.7473;1.6924;
547.2000;0.7464;1.6971;
547.5000;0.7489;1.6971;
547.8000;0.7473;1.7042;
548.1000;0.7481;1.7018;
548.4000;0.7497;1.7042;
548.7000;0.7497;1.7088;
549.0000;0.7473;1.7065;
549.3000;0.7481;1.7065;
549.6000;0.7481;1.7065;
549.9000;0.7481;1.7018;
550.2000;0.7456;1.6995;
550.5000;0.7481;1.7042;
550.8000;0.7424;1.6948;
551.1000;0.7505;1.7182;
551.4000;0.7481;1.7135;
551.7000;0.7481;1.7018;
552.0000;0.7505;1.7018;
552.3000;0.7464;1.7042;
552.6000;0.7497;1.7042;
552.9000;0.7481;1.7135;
553.2000;0.7464;1.7159;
553.5000;0.7513;1.7253;
553.8000;0.7489;1.7229;
554.1000;0.7448;1.7088;
554.4000;0.7497;1.7182;
554.7000;0.7497;1.7112;
555.0000;0.7497;1.7088;
555.3000;0.7497;1.6971;
555.6000;0.7473;1.6924;
555.9000;0.7473;1.6971;
556.2000;0.7497;1.6995;
556.5000;0.7407;1.6783;
556.8000;0.7456;1.6924;
557.1000;0.7489;1.6995;
557.4000;0.7473;1.7018;
557.7000;0.7505;1.7229;
558.0000;0.7489;1.7135;
558.3000;0.7481;1.7112;
558.6000;0.7513;1.7135;
558.9000;0.7481;1.7018;
559.2000;0.7464;1.6877;
559.5000;0.7440;1.6783;
559.8000;0.7464;1.6948;
560.1000;0.7489;1.6995;
560.4000;0.7489;1.7042;
560.7000;0.7521;1.7135;
561.0000;0.7464;1.6948;
561.3000;0.7424;1.6854;
561.6000;0.7473;1.6995;
561.9000;0.7424;1.6924;
562.2000;0.7481;1.6971;
562.5000;0.7464;1.6971;
562.8000;0.7464;1.7018;
563.1000;0.7521;1.7253;
563.4000;0.7456;1.7088;
563.7000;0.7497;1.7159;
564.0000;0.7505;1.7229;
564.3000;0.7464;1.7112;
564.6000;0.7481;1.7159;
564.9000;0.7464;1.7206;
565.2000;0.7464;1.7206;
565.5000;0.7399;1.7088;
565.8000;0.7481;1.7229;
566.1000;0.7464;1.7159;
566.4000;0.7448;1.7088;
566.7000;0.7456;1.7088;
567.0000;0.7464;1.7088;
567.3000;0.7464;1.7042;
567.6000;0.7456;1.6924;
567.9000;0.7481;1.6830;
568.2000;0.7481;1.6924;
568.5000;0.7481;1.6995;
568.8000;0.7464;1.6971;
569.1000;0.7481;1.6995;
569.4000;0.7489;1.7018;
569.7000;0.7505;1.7042;
570.0000;0.7481;1.7018;
570.3000;0.7489;1.7018;
570.6000;0.7481;1.6995;
570.9000;0.7489;1.6924;
571.2000;0.7489;1.6877;
571.5000;0.7456;1.6901;
571.8000;0.7464;1.7018;
572.1000;0.7432;1.6971;
572.4000;0.7464;1.6995;
572.7000;0.7448;1.7018;
573.0000;0.7473;1.7088;
573.3000;0.7464;1.7112;
573.6000;0.7473;1.7182;
573.9000;0.7456;1.7042;
574.2000;0.7456;1.7018;
574.5000;0.7481;1.7112;
574.8000;0.7481;1.7159;
575.1000;0.7456;1.7159;
575.4000;0.7489;1.7253;
575.7000;0.7456;1.7159;
576.0000;0.7473;1.7229;
576.3000;0.7481;1.7253;
576.6000;0.7464;1.7182;
576.9000;0.7473;1.7065;
577.2000;0.7497;1.7088;
577.5000;0.7481;1.7088;
577.8000;0.7456;1.7065;
578.1000;0.7481;1.7088;
578.4000;0.7489;1.7112;
578.7000;0.7481;1.7112;
579.0000;0.7489;1.7088;
579.3000;0.7530;1.7182;
579.6000;0.7505;1.7088;
579.9000;0.7481;1.7018;
580.2000;0.7481;1.6971;
580.5000;0.7489;1.7018;
580.8000;0.7505;1.7159;
581.1000;0.7481;1.7112;
581.4000;0.7578;1.7323;
581.7000;0.7473;1.7018;
582.0000;0.7521;1.7229;
582.3000;0.7497;1.7135;
582.6000;0.7464;1.7088;
582.9000;0.7464;1.7159;
583.2000;0.7473;1.7112;
583.5000;0.7497;1.7206;
583.8000;0.7448;1.7065;
584.1000;0.7464;1.7088;
584.4000;0.7464;1.7135;
584.7000;0.7481;1.7112;
585.0000;0.7456;1.6971;
585.3000;0.7464;1.7018;
585.6000;0.7530;1.7088;
585.9000;0.7432;1.6901;
586.2000;0.7489;1.6971;
586.5000;0.7391;1.6807;
586.8000;0.7456;1.6995;
587.1000;0.7481;1.7088;
587.4000;0.7481;1.7088;
587.7000;0.7489;1.7135;
588.0000;0.7473;1.7112;
588.3000;0.7440;1.7042;
588.6000;0.7473;1.7088;
588.9000;0.7538;1.7253;
589.2000;0.7464;1.7088;
589.5000;0.7432;1.6948;
589.8000;0.7424;1.6971;
590.1000;0.7448;1.7065;
590.4000;0.7521;1.7300;
590.7000;0.7456;1.7065;
591.0000;0.7464;1.7065;
591.3000;0.7473;1.7159;
591.6000;0.7481;1.7159;
591.9000;0.7464;1.7112;
592.2000;0.7464;1.7159;
592.5000;0.7481;1.7206;
592.8000;0.7464;1.7182;
593.1000;0.7473;1.7065;
593.4000;0.7473;1.7088;
593.7000;0.7448;1.6924;
594.0000;0.7489;1.6901;
594.3000;0.7473;1.6877;
594.6000;0.7464;1.6924;
594.9000;0.7448;1.6948;
595.2000;0.7456;1.6971;
595.5000;0.7464;1.7042;
595.8000;0.7464;1.6995;
596.1000;0.7464;1.7065;
596.4000;0.7456;1.7159;
596.7000;0.7432;1.7088;
597.0000;0.7464;1.7159;
597.3000;0.7513;1.7229;
597.6000;0.7473;1.7042;
597.9000;0.7448;1.6995;
598.2000;0.7464;1.6971;
598.5000;0.7448;1.7042;
598.8000;0.7456;1.7065;
599.1000;0.7440;1.7018;
599.4000;0.7456;1.7112;
599.7000;0.7456;1.7065;
600.0000;0.7464;1.7042;
600.3000;0.7505;1.7088;
600.6000;0.7481;1.6924;
600.9000;0.7440;1.6689;
601.2000;0.7416;1.6596;
601.5000;0.7350;1.6408;
601.8000;0.7310;1.6196;
602.1000;0.7261;1.5985;
602.4000;0.7196;1.5797;
602.7000;0.7139;1.5610;
603.0000;0.7098;1.5469;
603.3000;0.6943;1.5093;
603.6000;0.6976;1.5258;
603.9000;0.6943;1.5187;
604.2000;0.6903;1.5023;
604.5000;0.6854;1.4976;
604.8000;0.6829;1.4835;
605.1000;0.6756;1.4718;
605.4000;0.6707;1.4694;
605.7000;0.6691;1.4671;
606.0000;0.6772;1.4882;
606.3000;0.6626;1.4530;
606.6000;0.6602;1.4506;
606.9000;0.6610;1.4530;
607.2000;0.6528;1.4413;
607.5000;0.6504;1.4483;
607.8000;0.6536;1.4577;
608.1000;0.6455;1.4413;
608.4000;0.6439;1.4342;
608.7000;0.6382;1.4272;
609.0000;0.6479;1.4553;
609.3000;0.6333;1.4225;
609.6000;0.6309;1.4248;
609.9000;0.6284;1.4319;
610.2000;0.6260;1.4178;
610.5000;0.6235;1.4107;
610.8000;0.6211;1.4084;
611.1000;0.6162;1.3967;
611.4000;0.6170;1.3920;
611.7000;0.6154;1.3920;
612.0000;0.6138;1.3802;
612.3000;0.6105;1.3708;
612.6000;0.5975;1.3427;
612.9000;0.6056;1.3685;
613.2000;0.6056;1.3779;
613.5000;0.6032;1.3661;
613.8000;0.6007;1.3708;
614.1000;0.5999;1.3755;
614.4000;0.6007;1.3779;
614.7000;0.5958;1.3638;
615.0000;0.5942;1.3544;
615.3000;0.5926;1.3567;
615.6000;0.5893;1.3497;
615.9000;0.5893;1.3521;
616.2000;0.5877;1.3474;
616.5000;0.5853;1.3567;
616.8000;0.5836;1.3567;
617.1000;0.5820;1.3614;
617.4000;0.5796;1.3544;
617.7000;0.5788;1.3544;
618.0000;0.5771;1.3450;
618.3000;0.5771;1.3497;
618.6000;0.5731;1.3521;
618.9000;0.5706;1.3567;
619.2000;0.5690;1.3567;
619.5000;0.5698;1.3638;
619.8000;0.5698;1.3614;
620.1000;0.5665;1.3450;
620.4000;0.5657;1.3450;
620.7000;0.5649;1.3427;
621.0000;0.5690;1.3544;
621.3000;0.5739;1.3567;
621.6000;0.5617;1.3403;
621.9000;0.5608;1.3497;
622.2000;0.5592;1.3544;
622.5000;0.5584;1.3474;
622.8000;0.5560;1.3450;
623.1000;0.5560;1.3403;
623.4000;0.5551;1.3380;
623.7000;0.5527;1.3333;
624.0000;0.5535;1.3380;
624.3000;0.5503;1.3309;
624.6000;0.5519;1.3380;
624.9000;0.5527;1.3333;
625.2000;0.5486;1.3333;
625.5000;0.5470;1.3309;
625.8000;0.5535;1.3474;
626.1000;0.5454;1.3286;
626.4000;0.5454;1.3333;
626.7000;0.5421;1.3333;
627.0000;0.5413;1.3333;
627.3000;0.5421;1.3309;
627.6000;0.5421;1.3333;
627.9000;0.5405;1.3403;
628.2000;0.5381;1.3427;
628.5000;0.5454;1.3614;
628.8000;0.5372;1.3474;
629.1000;0.5364;1.3474;
629.4000;0.5348;1.3427;
629.7000;0.5340;1.3262;
630.0000;0.5356;1.3380;
630.3000;0.5332;1.3333;
630.6000;0.5315;1.3356;
630.9000;0.5324;1.3356;
631.2000;0.5283;1.3356;
631.5000;0.5340;1.3567;
631.8000;0.5307;1.3450;
632.1000;0.5267;1.3356;
632.4000;0.5299;1.3450;
632.7000;0.5267;1.3380;
633.0000;0.5283;1.3450;
633.3000;0.5258;1.3450;
633.6000;0.5242;1.3474;
633.9000;0.5242;1.3474;
634.2000;0.5234;1.3380;
634.5000;0.5226;1.3286;
634.8000;0.5226;1.3309;
635.1000;0.5218;1.3356;
635.4000;0.5169;1.3239;
635.7000;0.5210;1.3380;
636.0000;0.5218;1.3427;
636.3000;0.5210;1.3521;
636.6000;0.5185;1.3474;
636.9000;0.5177;1.3497;
637.2000;0.5153;1.3356;
637.5000;0.5185;1.3427;
637.8000;0.5112;1.3239;
638.1000;0.5161;1.3427;
638.4000;0.5136;1.3356;
638.7000;0.5144;1.3427;
639.0000;0.5153;1.3427;
639.3000;0.5128;1.3286;
639.6000;0.5136;1.3309;
639.9000;0.5112;1.3309;
640.2000;0.5079;1.3145;
640.5000;0.5112;1.3239;
640.8000;0.5104;1.3168;
641.1000;0.5112;1.3192;
641.4000;0.5112;1.3262;
641.7000;0.5088;1.3333;
642.0000;0.5161;1.3474;
642.3000;0.5088;1.3286;
642.6000;0.5063;1.3215;
642.9000;0.5096;1.3215;
643.2000;0.5063;1.3262;
643.5000;0.5039;1.3215;
643.8000;0.5031;1.3145;
644.1000;0.5063;1.3215;
644.4000;0.5039;1.3075;
644.7000;0.5088;1.3215;
645.0000;0.5031;1.3121;
645.3000;0.5014;1.3098;
645.6000;0.5039;1.3145;
645.9000;0.5031;1.3121;
646.2000;0.4990;1.3098;
646.5000;0.5006;1.3121;
646.8000;0.5014;1.3121;
647.1000;0.5014;1.3192;
647.4000;0.4982;1.3239;
647.7000;0.4990;1.3262;
648.0000;0.5014;1.3286;
648.3000;0.4998;1.3286;
648.6000;0.4974;1.3262;
648.9000;0.4990;1.3333;
649.2000;0.4998;1.3309;
649.5000;0.4990;1.3380;
649.8000;0.4974;1.3333;
650.1000;0.4990;1.3286;
650.4000;0.4965;1.3309;
650.7000;0.4990;1.3309;
651.0000;0.4941;1.3192;
651.3000;0.4982;1.3403;
651.6000;0.4933;1.3309;
651.9000;0.4957;1.3380;
652.2000;0.4957;1.3427;
652.5000;0.5014;1.3567;
652.8000;0.4941;1.3333;
653.1000;0.4941;1.3309;
653.4000;0.4998;1.3450;
653.7000;0.4892;1.3239;
654.0000;0.4925;1.3262;
654.3000;0.4892;1.3145;
654.6000;0.5014;1.3521;
654.9000;0.4908;1.3262;
655.2000;0.4884;1.3309;
655.5000;0.4908;1.3356;
655.8000;0.4900;1.3286;
656.1000;0.4900;1.3286;
656.4000;0.4900;1.3309;
656.7000;0.4900;1.3309;
657.0000;0.4900;1.3286;
657.3000;0.4884;1.3262;
657.6000;0.4884;1.3239;
657.9000;0.4876;1.3262;
658.2000;0.4884;1.3309;
658.5000;0.4884;1.3333;
658.8000;0.4860;1.3286;
659.1000;0.4868;1.3286;
659.4000;0.4884;1.3286;
659.7000;0.4884;1.3333;
660.0000;0.4851;1.3239;
660.3000;0.4868;1.3333;
660.6000;0.4965;1.3685;
660.9000;0.4851;1.3403;
661.2000;0.4908;1.3544;
661.5000;0.4860;1.3356;
661.8000;0.4851;1.3380;
662.1000;0.4860;1.3333;
662.4000;0.4843;1.3262;
662.7000;0.4843;1.3333;
663.0000;0.4851;1.3427;
663.3000;0.4835;1.3403;
663.6000;0.4851;1.3309;
663.9000;0.4819;1.3262;
664.2000;0.4843;1.3309;
664.5000;0.4819;1.3239;
664.8000;0.4843;1.3309;
665.1000;0.4843;1.3309;
665.4000;0.4835;1.3286;
665.7000;0.4843;1.3286;
666.0000;0.4819;1.3309;
666.3000;0.4819;1.3215;
666.6000;0.4819;1.3168;
666.9000;0.4827;1.3215;
667.2000;0.4827;1.3309;
667.5000;0.4835;1.3262;
667.8000;0.4892;1.3450;
668.1000;0.4819;1.3239;
668.4000;0.4811;1.3262;
668.7000;0.4811;1.3333;
669.0000;0.4811;1.3403;
669.3000;0.4794;1.3427;
669.6000;0.4811;1.3450;
669.9000;0.4794;1.3403;
670.2000;0.4803;1.3427;
670.5000;0.4794;1.3427;
670.8000;0.4786;1.3380;
671.1000;0.4786;1.3403;
671.4000;0.4794;1.3356;
671.7000;0.4778;1.3333;
672.0000;0.4786;1.3403;
672.3000;0.4778;1.3356;
672.6000;0.4786;1.3403;
672.9000;0.4786;1.3403;
673.2000;0.4778;1.3380;
673.5000;0.4689;1.3239;
673.8000;0.4778;1.3521;
674.1000;0.4794;1.3497;
674.4000;0.4713;1.3286;
674.7000;0.4762;1.3309;
675.0000;0.4746;1.3286;
675.3000;0.4754;1.3474;
675.6000;0.4803;1.3614;
675.9000;0.4762;1.3450;
676.2000;0.4762;1.3474;
676.5000;0.4762;1.3403;
676.8000;0.4762;1.3380;
677.1000;0.4778;1.3403;
677.4000;0.4770;1.3380;
677.7000;0.4754;1.3262;
678.0000;0.4762;1.3239;
678.3000;0.4754;1.3239;
678.6000;0.4746;1.3333;
678.9000;0.4737;1.3380;
679.2000;0.4746;1.3427;
679.5000;0.4770;1.3356;
679.8000;0.4746;1.3286;
680.1000;0.4754;1.3262;
680.4000;0.4729;1.3262;
680.7000;0.4729;1.3333;
681.0000;0.4729;1.3262;
681.3000;0.4737;1.3333;
681.6000;0.4754;1.3333;
681.9000;0.4754;1.3262;
682.2000;0.4713;1.3239;
682.5000;0.4729;1.3239;
682.8000;0.4729;1.3215;
683.1000;0.4737;1.3098;
683.4000;0.4762;1.3192;
683.7000;0.4721;1.3215;
684.0000;0.4729;1.3286;
684.3000;0.4729;1.3192;
684.6000;0.4721;1.3239;
684.9000;0.4713;1.3239;
685.2000;0.4713;1.3121;
685.5000;0.4729;1.3121;
685.8000;0.4721;1.3145;
686.1000;0.4705;1.3028;
686.4000;0.4697;1.3028;
686.7000;0.4705;1.3028;
687.0000;0.4713;1.2934;
687.3000;0.4721;1.2934;
687.6000;0.4729;1.3004;
687.9000;0.4713;1.2957;
688.2000;0.4721;1.3028;
688.5000;0.4713;1.3121;
688.8000;0.4705;1.3075;
689.1000;0.4689;1.3028;
689.4000;0.4705;1.3098;
689.7000;0.4689;1.3075;
690.0000;0.4689;1.3075;
690.3000;0.4689;1.3075;
690.6000;0.4689;1.3051;
690.9000;0.4697;1.3051;
691.2000;0.4672;1.3051;
691.5000;0.4664;1.3145;
691.8000;0.4689;1.3356;
692.1000;0.4811;1.3732;
692.4000;0.4689;1.3333;
692.7000;0.4681;1.3309;
693.0000;0.4681;1.3286;
693.3000;0.4705;1.3215;
693.6000;0.4681;1.3192;
693.9000;0.4778;1.3427;
694.2000;0.4794;1.3474;
694.5000;0.4697;1.3192;
694.8000;0.4689;1.3168;
695.1000;0.4689;1.3145;
695.4000;0.4681;1.3168;
695.7000;0.4705;1.3121;
696.0000;0.4737;1.3262;
696.3000;0.4721;1.3192;
696.6000;0.4664;1.3215;
696.9000;0.4689;1.3215;
697.2000;0.4681;1.3262;
697.5000;0.4803;1.3521;
697.8000;0.4681;1.3215;
698.1000;0.4664;1.3051;
698.4000;0.4697;1.3145;
698.7000;0.4672;1.3075;
699.0000;0.4681;1.3075;
699.3000;0.4689;1.3121;
699.6000;0.4672;1.3215;
699.9000;0.4664;1.3098;
700.2000;0.4664;1.3145;
700.5000;0.4672;1.3168;
700.8000;0.4664;1.3239;
701.1000;0.4672;1.3286;
701.4000;0.4672;1.3239;
701.7000;0.4681;1.3239;
702.0000;0.4672;1.3192;
702.3000;0.4648;1.3098;
702.6000;0.4689;1.3239;
702.9000;0.4599;1.3075;
703.2000;0.4664;1.3309;
703.5000;0.4672;1.3239;
703.8000;0.4640;1.3051;
704.1000;0.4664;1.3145;
704.4000;0.4656;1.3168;
704.7000;0.4656;1.3121;
705.0000;0.4681;1.3192;
705.3000;0.4640;1.3168;
705.6000;0.4558;1.2910;
705.9000;0.4689;1.3286;
706.2000;0.4672;1.3309;
706.5000;0.4632;1.3215;
706.8000;0.4656;1.3262;
707.1000;0.4664;1.3215;
707.4000;0.4656;1.3192;
707.7000;0.4648;1.3192;
708.0000;0.4640;1.3192;
708.3000;0.4640;1.3145;
708.6000;0.4648;1.3262;
708.9000;0.4656;1.3309;
709.2000;0.4656;1.3286;
709.5000;0.4640;1.3286;
709.8000;0.4648;1.3403;
710.1000;0.4656;1.3474;
710.4000;0.4648;1.3427;
710.7000;0.4648;1.3521;
711.0000;0.4640;1.3544;
711.3000;0.4640;1.3567;
711.6000;0.4648;1.3638;
711.9000;0.4632;1.3567;
712.2000;0.4640;1.3567;
712.5000;0.4632;1.3614;
712.8000;0.4648;1.3591;
713.1000;0.4656;1.3614;
713.4000;0.4640;1.3614;
713.7000;0.4705;1.3755;
714.0000;0.4632;1.3567;
714.3000;0.4640;1.3497;
714.6000;0.4632;1.3474;
714.9000;0.4640;1.3450;
715.2000;0.4664;1.3450;
715.5000;0.4640;1.3403;
715.8000;0.4672;1.3521;
716.1000;0.4624;1.3521;
716.4000;0.4632;1.3497;
716.7000;0.4640;1.3591;
717.0000;0.4632;1.3474;
717.3000;0.4632;1.3474;
717.6000;0.4640;1.3521;
717.9000;0.4615;1.3521;
718.2000;0.4624;1.3614;
718.5000;0.4632;1.3614;
718.8000;0.4640;1.3544;
719.1000;0.4632;1.3427;
719.4000;0.4648;1.3427;
719.7000;0.4640;1.3356;
720.0000;0.4648;1.3286;
720.3000;0.4656;1.3239;
720.6000;0.4632;1.3168;
720.9000;0.4640;1.3121;
721.2000;0.4640;1.3098;
721.5000;0.4640;1.3192;
721.8000;0.4640;1.3215;
722.1000;0.4632;1.3168;
722.4000;0.4640;1.3098;
722.7000;0.4632;1.3121;
723.0000;0.4632;1.3075;
723.3000;0.4632;1.3145;
723.6000;0.4607;1.3121;
723.9000;0.4599;1.3168;
724.2000;0.4615;1.3309;
724.5000;0.4632;1.3356;
724.8000;0.4607;1.3145;
725.1000;0.4697;1.3333;
725.4000;0.4624;1.3262;
725.7000;0.4632;1.3333;
726.0000;0.4607;1.3262;
726.3000;0.4615;1.3356;
726.6000;0.4640;1.3427;
726.9000;0.4624;1.3309;
727.2000;0.4664;1.3380;
727.5000;0.4672;1.3380;
727.8000;0.4632;1.3215;
728.1000;0.4624;1.3262;
728.4000;0.4615;1.3192;
728.7000;0.4607;1.3051;
729.0000;0.4632;1.3098;
729.3000;0.4632;1.3145;
729.6000;0.4607;1.3145;
729.9000;0.4632;1.3121;
730.2000;0.4624;1.3145;
730.5000;0.4615;1.3192;
730.8000;0.4624;1.3262;
731.1000;0.4615;1.3309;
731.4000;0.4632;1.3403;
731.7000;0.4615;1.3333;
732.0000;0.4632;1.3333;
732.3000;0.4624;1.3309;
732.6000;0.4615;1.3215;
732.9000;0.4615;1.3121;
733.2000;0.4624;1.3168;
733.5000;0.4624;1.3215;
733.8000;0.4615;1.3262;
734.1000;0.4583;1.3286;
734.4000;0.4615;1.3333;
734.7000;0.4632;1.3333;
735.0000;0.4632;1.3356;
735.3000;0.4599;1.3309;
735.6000;0.4607;1.3403;
735.9000;0.4624;1.3333;
736.2000;0.4681;1.3544;
736.5000;0.4591;1.3286;
736.8000;0.4591;1.3333;
737.1000;0.4607;1.3356;
737.4000;0.4615;1.3333;
737.7000;0.4664;1.3403;
738.0000;0.4591;1.3239;
738.3000;0.4575;1.3121;
738.6000;0.4607;1.3239;
738.9000;0.4599;1.3262;
739.2000;0.4526;1.3121;
739.5000;0.4615;1.3356;
739.8000;0.4599;1.3333;
740.1000;0.4607;1.3309;
740.4000;0.4615;1.3403;
740.7000;0.4607;1.3403;
741.0000;0.4591;1.3450;
741.3000;0.4656;1.3567;
741.6000;0.4599;1.3380;
741.9000;0.4615;1.3333;
742.2000;0.4567;1.3215;
742.5000;0.4615;1.3356;
742.8000;0.4599;1.3356;
743.1000;0.4615;1.3427;
743.4000;0.4624;1.3427;
743.7000;0.4624;1.3403;
744.0000;0.4599;1.3309;
744.3000;0.4607;1.3286;
744.6000;0.4599;1.3168;
744.9000;0.4624;1.3215;
745.2000;0.4599;1.3075;
745.5000;0.4607;1.3075;
745.8000;0.4599;1.3098;
746.1000;0.4477;1.2769;
746.4000;0.4599;1.3098;
746.7000;0.4526;1.2981;
747.0000;0.4575;1.3051;
747.3000;0.4615;1.3145;
747.6000;0.4664;1.3286;
747.9000;0.4485;1.2769;
748.2000;0.4607;1.3098;
748.5000;0.4469;1.2793;
748.8000;0.4607;1.3121;
749.1000;0.4583;1.3145;
749.4000;0.4591;1.3215;
749.7000;0.4583;1.3239;
750.0000;0.4599;1.3309;
750.3000;0.4624;1.3356;
750.6000;0.4583;1.3309;
750.9000;0.4558;1.3239;
751.2000;0.4583;1.3262;
751.5000;0.4599;1.3286;
751.8000;0.4607;1.3286;
752.1000;0.4558;1.3145;
752.4000;0.4583;1.3286;
752.7000;0.4607;1.3356;
753.0000;0.4583;1.3309;
753.3000;0.4624;1.3450;
753.6000;0.4607;1.3403;
753.9000;0.4607;1.3450;
754.2000;0.4607;1.3567;
754.5000;0.4591;1.3567;
754.8000;0.4591;1.3474;
755.1000;0.4583;1.3450;
755.4000;0.4591;1.3380;
755.7000;0.4591;1.3403;
756.0000;0.4656;1.3521;
756.3000;0.4599;1.3356;
756.6000;0.4599;1.3333;
756.9000;0.4591;1.3380;
757.2000;0.4583;1.3333;
757.5000;0.4575;1.3262;
757.8000;0.4607;1.3215;
758.1000;0.4591;1.3145;
758.4000;0.4599;1.3286;
758.7000;0.4567;1.3121;
759.0000;0.4583;1.3028;
759.3000;0.4599;1.3121;
759.6000;0.4583;1.3028;
759.9000;0.4583;1.2863;
760.2000;0.4558;1.2722;
760.5000;0.4591;1.2840;
760.8000;0.4640;1.2981;
761.1000;0.4575;1.2910;
761.4000;0.4591;1.2910;
761.7000;0.4607;1.2934;
762.0000;0.4591;1.2934;
762.3000;0.4518;1.2793;
762.6000;0.4591;1.3075;
762.9000;0.4599;1.3098;
763.2000;0.4583;1.3098;
763.5000;0.4558;1.3028;
763.8000;0.4583;1.2981;
764.1000;0.4591;1.3145;
764.4000;0.4607;1.3239;
764.7000;0.4599;1.3239;
765.0000;0.4575;1.3262;
765.3000;0.4575;1.3262;
765.6000;0.4591;1.3286;
765.9000;0.4599;1.3262;
766.2000;0.4575;1.3121;
766.5000;0.4607;1.3192;
766.8000;0.4583;1.3192;
767.1000;0.4591;1.3239;
767.4000;0.4550;1.3145;
767.7000;0.4599;1.3215;
768.0000;0.4599;1.3215;
768.3000;0.4583;1.3239;
768.6000;0.4615;1.3239;
768.9000;0.4591;1.3192;
769.2000;0.4599;1.3262;
769.5000;0.4648;1.3356;
769.8000;0.4697;1.3521;
770.1000;0.4534;1.3121;
770.4000;0.4599;1.3215;
770.7000;0.4624;1.3356;
771.0000;0.4591;1.3286;
771.3000;0.4583;1.3286;
771.6000;0.4575;1.3333;
771.9000;0.4591;1.3286;
772.2000;0.4599;1.3262;
772.5000;0.4550;1.3121;
772.8000;0.4575;1.3239;
773.1000;0.4575;1.3262;
773.4000;0.4583;1.3286;
773.7000;0.4567;1.3192;
774.0000;0.4567;1.3262;
774.3000;0.4599;1.3333;
774.6000;0.4558;1.3286;
774.9000;0.4575;1.3262;
775.2000;0.4591;1.3403;
775.5000;0.4575;1.3356;
775.8000;0.4583;1.3380;
776.1000;0.4599;1.3380;
776.4000;0.4591;1.3380;
776.7000;0.4583;1.3286;
777.0000;0.4591;1.3286;
777.3000;0.4583;1.3356;
777.6000;0.4510;1.3145;
777.9000;0.4583;1.3286;
778.2000;0.4607;1.3380;
778.5000;0.4583;1.3239;
778.8000;0.4567;1.3192;
779.1000;0.4542;1.3051;
779.4000;0.4567;1.3098;
779.7000;0.4583;1.3121;
780.0000;0.4583;1.3192;
780.3000;0.4599;1.3309;
780.6000;0.4567;1.3356;
780.9000;0.4575;1.3286;
781.2000;0.4583;1.3309;
781.5000;0.4567;1.3333;
781.8000;0.4575;1.3380;
782.1000;0.4518;1.3192;
782.4000;0.4575;1.3309;
782.7000;0.4599;1.3403;
783.0000;0.4583;1.3380;
783.3000;0.4575;1.3309;
783.6000;0.4583;1.3309;
783.9000;0.4534;1.3145;
784.2000;0.4542;1.3239;
784.5000;0.4583;1.3403;
784.8000;0.4640;1.3567;
785.1000;0.4567;1.3309;
785.4000;0.4550;1.3309;
785.7000;0.4607;1.3544;
786.0000;0.4583;1.3356;
786.3000;0.4624;1.3544;
786.6000;0.4575;1.3427;
786.9000;0.4575;1.3450;
787.2000;0.4583;1.3380;
787.5000;0.4583;1.3380;
787.8000;0.4567;1.3309;
788.1000;0.4558;1.3286;
788.4000;0.4583;1.3309;
788.7000;0.4583;1.3356;
789.0000;0.4567;1.3309;
789.3000;0.4583;1.3239;
789.6000;0.4567;1.3262;
789.9000;0.4591;1.3380;
790.2000;0.4575;1.3333;
790.5000;0.4575;1.3380;
790.8000;0.4583;1.3333;
791.1000;0.4599;1.3333;
791.4000;0.4575;1.3309;
791.7000;0.4575;1.3286;
792.0000;0.4558;1.3309;
792.3000;0.4558;1.3309;
792.6000;0.4575;1.3356;
792.9000;0.4591;1.3450;
793.2000;0.4583;1.3380;
793.5000;0.4583;1.3356;
793.8000;0.4526;1.3286;
794.1000;0.4567;1.3380;
794.4000;0.4583;1.3380;
794.7000;0.4583;1.3356;
795.0000;0.4542;1.3215;
795.3000;0.4599;1.3333;
795.6000;0.4575;1.3262;
795.9000;0.4591;1.3286;
796.2000;0.4583;1.3286;
796.5000;0.4567;1.3168;
796.8000;0.4550;1.3239;
797.1000;0.4558;1.3309;
797.4000;0.4534;1.3286;
797.7000;0.4567;1.3309;
798.0000;0.4534;1.3239;
798.3000;0.4542;1.3333;
798.6000;0.4567;1.3380;
798.9000;0.4575;1.3380;
799.2000;0.4567;1.3380;
799.5000;0.4542;1.3262;
799.8000;0.4550;1.3262;
800.1000;0.4567;1.3309;
800.4000;0.4583;1.3333;
800.7000;0.4575;1.3309;
801.0000;0.4550;1.3309;
801.3000;0.4567;1.3403;
801.6000;0.4567;1.3380;
801.9000;0.4558;1.3333;
802.2000;0.4583;1.3333;
802.5000;0.4599;1.3403;
802.8000;0.4567;1.3380;
803.1000;0.4534;1.3333;
803.4000;0.4567;1.3403;
803.7000;0.4567;1.3403;
804.0000;0.4591;1.3450;
804.3000;0.4558;1.3403;
804.6000;0.4599;1.3403;
804.9000;0.4567;1.3403;
805.2000;0.4567;1.3450;
805.5000;0.4575;1.3450;
805.8000;0.4575;1.3403;
806.1000;0.4567;1.3403;
806.4000;0.4567;1.3403;
806.7000;0.4477;1.3215;
807.0000;0.4567;1.3474;
807.3000;0.4526;1.3356;
807.6000;0.4567;1.3403;
807.9000;0.4575;1.3403;
808.2000;0.4567;1.3356;
808.5000;0.4575;1.3403;
808.8000;0.4526;1.3262;
809.1000;0.4575;1.3333;
809.4000;0.4648;1.3474;
809.7000;0.4575;1.3192;
810.0000;0.4575;1.3098;
810.3000;0.4558;1.3075;
810.6000;0.4558;1.3145;
810.9000;0.4575;1.3168;
811.2000;0.4558;1.3168;
811.5000;0.4558;1.3168;
811.8000;0.4567;1.3215;
812.1000;0.4567;1.3262;
812.4000;0.4575;1.3262;
812.7000;0.4575;1.3356;
813.0000;0.4567;1.3403;
813.3000;0.4518;1.3380;
813.6000;0.4583;1.3450;
813.9000;0.4558;1.3450;
814.2000;0.4558;1.3427;
814.5000;0.4558;1.3450;
814.8000;0.4575;1.3521;
815.1000;0.4558;1.3450;
815.4000;0.4567;1.3497;
815.7000;0.4575;1.3497;
816.0000;0.4575;1.3521;
816.3000;0.4567;1.3521;
816.6000;0.4567;1.3474;
816.9000;0.4575;1.3474;
817.2000;0.4575;1.3450;
817.5000;0.4575;1.3497;
817.8000;0.4558;1.3450;
818.1000;0.4567;1.3403;
818.4000;0.4575;1.3403;
818.7000;0.4591;1.3403;
819.0000;0.4558;1.3309;
819.3000;0.4567;1.3356;
819.6000;0.4550;1.3356;
819.9000;0.4640;1.3638;
820.2000;0.4558;1.3521;
820.5000;0.4550;1.3474;
820.8000;0.4583;1.3497;
821.1000;0.4575;1.3474;
821.4000;0.4558;1.3380;
821.7000;0.4558;1.3356;
822.0000;0.4558;1.3427;
822.3000;0.4550;1.3286;
822.6000;0.4567;1.3380;
822.9000;0.4575;1.3427;
823.2000;0.4567;1.3544;
823.5000;0.4575;1.3474;
823.8000;0.4567;1.3474;
824.1000;0.4567;1.3427;
824.4000;0.4583;1.3544;
824.7000;0.4567;1.3427;
825.0000;0.4575;1.3450;
825.3000;0.4567;1.3450;
825.6000;0.4567;1.3403;
825.9000;0.4567;1.3450;
826.2000;0.4575;1.3497;
826.5000;0.4575;1.3403;
826.8000;0.4567;1.3427;
827.1000;0.4575;1.3497;
827.4000;0.4558;1.3521;
827.7000;0.4558;1.3661;
828.0000;0.4558;1.3661;
828.3000;0.4550;1.3614;
828.6000;0.4558;1.3685;
828.9000;0.4567;1.3685;
829.2000;0.4567;1.3708;
829.5000;0.4550;1.3614;
829.8000;0.4575;1.3567;
830.1000;0.4550;1.3567;
830.4000;0.4542;1.3356;
830.7000;0.4550;1.3309;
831.0000;0.4550;1.3239;
831.3000;0.4599;1.3403;
831.6000;0.4558;1.3309;
831.9000;0.4526;1.3286;
832.2000;0.4542;1.3286;
832.5000;0.4567;1.3403;
832.8000;0.4542;1.3333;
833.1000;0.4558;1.3380;
833.4000;0.4550;1.3403;
833.7000;0.4550;1.3356;
834.0000;0.4542;1.3333;
834.3000;0.4607;1.3521;
834.6000;0.4567;1.3403;
834.9000;0.4558;1.3403;
835.2000;0.4461;1.3121;
835.5000;0.4558;1.3333;
835.8000;0.4558;1.3356;
836.1000;0.4567;1.3380;
836.4000;0.4542;1.3309;
836.7000;0.4567;1.3356;
837.0000;0.4567;1.3309;
837.3000;0.4664;1.3497;
837.6000;0.4558;1.3262;
837.9000;0.4575;1.3286;
838.2000;0.4599;1.3403;
838.5000;0.4575;1.3333;
838.8000;0.4567;1.3380;
839.1000;0.4542;1.3286;
839.4000;0.4558;1.3356;
839.7000;0.4575;1.3356;
840.0000;0.4567;1.3427;
840.3000;0.4542;1.3450;
840.6000;0.4575;1.3497;
840.9000;0.4583;1.3521;
841.2000;0.4567;1.3450;
841.5000;0.4575;1.3521;
841.8000;0.4558;1.3567;
842.1000;0.4558;1.3591;
842.4000;0.4558;1.3544;
842.7000;0.4567;1.3474;
843.0000;0.4575;1.3450;
843.3000;0.4567;1.3450;
843.6000;0.4550;1.3333;
843.9000;0.4583;1.3450;
844.2000;0.4558;1.3309;
844.5000;0.4534;1.3356;
844.8000;0.4591;1.3380;
845.1000;0.4461;1.2934;
845.4000;0.4558;1.3051;
845.7000;0.4567;1.3075;
846.0000;0.4567;1.3051;
846.3000;0.4477;1.2910;
846.6000;0.4550;1.3098;
846.9000;0.4567;1.3168;
847.2000;0.4575;1.3145;
847.5000;0.4550;1.3098;
847.8000;0.4542;1.3215;
848.1000;0.4567;1.3239;
848.4000;0.4558;1.3145;
848.7000;0.4575;1.3192;
849.0000;0.4534;1.3145;
849.3000;0.4510;1.3028;
849.6000;0.4550;1.3121;
849.9000;0.4550;1.3051;
850.2000;0.4550;1.3028;
850.5000;0.4542;1.3121;
850.8000;0.4575;1.3239;
851.1000;0.4575;1.3262;
851.4000;0.4558;1.3215;
851.7000;0.4558;1.3286;
852.0000;0.4575;1.3262;
852.3000;0.4583;1.3309;
852.6000;0.4550;1.3239;
852.9000;0.4558;1.3262;
853.2000;0.4542;1.3215;
853.5000;0.4550;1.3145;
853.8000;0.4567;1.3192;
854.1000;0.4534;1.3168;
854.4000;0.4542;1.3239;
854.7000;0.4550;1.3239;
855.0000;0.4436;1.3028;
855.3000;0.4558;1.3309;
855.6000;0.4558;1.3286;
855.9000;0.4477;1.2981;
856.2000;0.4550;1.3145;
856.5000;0.4567;1.3145;
856.8000;0.4583;1.3215;
857.1000;0.4558;1.3239;
857.4000;0.4550;1.3239;
857.7000;0.4550;1.3309;
858.0000;0.4542;1.3262;
858.3000;0.4444;1.3051;
858.6000;0.4567;1.3403;
858.9000;0.4558;1.3356;
859.2000;0.4567;1.3262;
859.5000;0.4550;1.3239;
859.8000;0.4558;1.3262;
860.1000;0.4567;1.3239;
860.4000;0.4558;1.3168;
860.7000;0.4567;1.3145;
861.0000;0.4526;1.3121;
861.3000;0.4558;1.3239;
861.6000;0.4550;1.3215;
861.9000;0.4550;1.3309;
862.2000;0.4567;1.3333;
862.5000;0.4575;1.3309;
862.8000;0.4558;1.3262;
863.1000;0.4550;1.3168;
863.4000;0.4542;1.3145;
863.7000;0.4558;1.3239;
864.0000;0.4542;1.3239;
864.3000;0.4534;1.3239;
864.6000;0.4550;1.3309;
864.9000;0.4534;1.3356;
865.2000;0.4599;1.3661;
865.5000;0.4542;1.3450;
865.8000;0.4550;1.3474;
866.1000;0.4672;1.3732;
866.4000;0.4436;1.3168;
866.7000;0.4542;1.3403;
867.0000;0.4558;1.3474;
867.3000;0.4567;1.3474;
867.6000;0.4550;1.3403;
867.9000;0.4567;1.3333;
868.2000;0.4542;1.3215;
868.5000;0.4558;1.3286;
868.8000;0.4567;1.3333;
869.1000;0.4550;1.3309;
869.4000;0.4591;1.3427;
869.7000;0.4550;1.3356;
870.0000;0.4558;1.3427;
870.3000;0.4542;1.3356;
870.6000;0.4550;1.3427;
870.9000;0.4542;1.3380;
871.2000;0.4534;1.3309;
871.5000;0.4567;1.3380;
871.8000;0.4526;1.3286;
872.1000;0.4534;1.3380;
872.4000;0.4558;1.3474;
872.7000;0.4550;1.3427;
873.0000;0.4558;1.3380;
873.3000;0.4542;1.3309;
873.6000;0.4526;1.3286;
873.9000;0.4534;1.3262;
874.2000;0.4591;1.3380;
874.5000;0.4558;1.3239;
874.8000;0.4550;1.3168;
875.1000;0.4558;1.3121;
875.4000;0.4575;1.3168;
875.7000;0.4534;1.3098;
876.0000;0.4534;1.3168;
876.3000;0.4550;1.3262;
876.6000;0.4542;1.3239;
876.9000;0.4583;1.3262;
877.2000;0.4542;1.3098;
877.5000;0.4550;1.3051;
877.8000;0.4550;1.3098;
878.1000;0.4567;1.3145;
878.4000;0.4550;1.3121;
878.7000;0.4550;1.3075;
879.0000;0.4550;1.3075;
879.3000;0.4501;1.2934;
879.6000;0.4558;1.3121;
879.9000;0.4550;1.3145;
880.2000;0.4542;1.3075;
880.5000;0.4558;1.3098;
880.8000;0.4599;1.3168;
881.1000;0.4534;1.3075;
881.4000;0.4542;1.3098;
881.7000;0.4550;1.3192;
882.0000;0.4591;1.3309;
882.3000;0.4534;1.3215;
882.6000;0.4542;1.3239;
882.9000;0.4558;1.3262;
883.2000;0.4558;1.3333;
883.5000;0.4558;1.3380;
883.8000;0.4542;1.3309;
884.1000;0.4558;1.3286;
884.4000;0.4567;1.3309;
884.7000;0.4550;1.3286;
885.0000;0.4567;1.3286;
885.3000;0.4567;1.3333;
885.6000;0.4567;1.3262;
885.9000;0.4558;1.3239;
886.2000;0.4518;1.3192;
886.5000;0.4550;1.3309;
886.8000;0.4550;1.3262;
887.1000;0.4550;1.3286;
887.4000;0.4558;1.3262;
887.7000;0.4526;1.3121;
888.0000;0.4542;1.3098;
888.3000;0.4550;1.3145;
888.6000;0.4550;1.3168;
888.9000;0.4542;1.3121;
889.2000;0.4558;1.3215;
889.5000;0.4534;1.3192;
889.8000;0.4550;1.3168;
890.1000;0.4558;1.3239;
890.4000;0.4550;1.3286;
890.7000;0.4550;1.3215;
891.0000;0.4550;1.3239;
891.3000;0.4542;1.3145;
891.6000;0.4558;1.3098;
891.9000;0.4550;1.3098;
892.2000;0.4558;1.3192;
892.5000;0.4583;1.3286;
892.8000;0.4542;1.3215;
893.1000;0.4542;1.3192;
893.4000;0.4518;1.3028;
893.7000;0.4567;1.3239;
894.0000;0.4550;1.3262;
894.3000;0.4542;1.3380;
894.6000;0.4567;1.3450;
894.9000;0.4550;1.3356;
895.2000;0.4518;1.3309;
895.5000;0.4558;1.3403;
895.8000;0.4567;1.3356;
896.1000;0.4542;1.3215;
896.4000;0.4575;1.3215;
896.7000;0.4526;1.3168;
897.0000;0.4558;1.3262;
897.3000;0.4575;1.3239;
897.6000;0.4550;1.3333;
897.9000;0.4575;1.3521;
898.2000;0.4534;1.3403;
898.5000;0.4550;1.3403;
898.8000;0.4567;1.3309;
899.1000;0.4542;1.3262;
899.4000;0.4550;1.3239;
899.7000;0.4567;1.3286;
900.0000;0.4534;1.3286;
900.3000;0.4575;1.3427;
900.6000;0.4550;1.3356;
900.9000;0.4575;1.3356;
901.2000;0.4567;1.3356;
901.5000;0.4542;1.3239;
901.8000;0.4534;1.3239;
902.1000;0.4534;1.3309;
902.4000;0.4550;1.3333;
902.7000;0.4542;1.3356;
903.0000;0.4534;1.3286;
903.3000;0.4542;1.3239;
903.6000;0.4550;1.3262;
903.9000;0.4542;1.3215;
904.2000;0.4534;1.3262;
904.5000;0.4534;1.3309;
904.8000;0.4534;1.3356;
905.1000;0.4567;1.3380;
905.4000;0.4550;1.3309;
905.7000;0.4550;1.3239;
906.0000;0.4558;1.3215;
906.3000;0.4567;1.3262;
906.6000;0.4567;1.3168;
906.9000;0.4550;1.3051;
907.2000;0.4558;1.3121;
907.5000;0.4550;1.3121;
907.8000;0.4550;1.3121;
908.1000;0.4550;1.3051;
908.4000;0.4534;1.3098;
908.7000;0.4558;1.3051;
909.0000;0.4558;1.3004;
909.3000;0.4558;1.2981;
909.6000;0.4526;1.2887;
909.9000;0.4534;1.3051;
910.2000;0.4558;1.3121;
910.5000;0.4469;1.2887;
910.8000;0.4542;1.3004;
911.1000;0.4550;1.3028;
911.4000;0.4640;1.3239;
911.7000;0.4558;1.3051;
912.0000;0.4526;1.3051;
912.3000;0.4550;1.3098;
912.6000;0.4558;1.3286;
912.9000;0.4550;1.3309;
913.2000;0.4534;1.3239;
913.5000;0.4567;1.3380;
913.8000;0.4558;1.3450;
914.1000;0.4453;1.3215;
914.4000;0.4526;1.3380;
914.7000;0.4526;1.3427;
915.0000;0.4542;1.3450;
915.3000;0.4534;1.3474;
915.6000;0.4493;1.3262;
915.9000;0.4542;1.3497;
916.2000;0.4550;1.3450;
916.5000;0.4550;1.3403;
916.8000;0.4518;1.3286;
917.1000;0.4534;1.3286;
917.4000;0.4542;1.3262;
917.7000;0.4542;1.3262;
918.0000;0.4526;1.3121;
918.3000;0.4526;1.3145;
918.6000;0.4542;1.3145;
918.9000;0.4518;1.3075;
919.2000;0.4542;1.3192;
919.5000;0.4501;1.3098;
919.8000;0.4591;1.3286;
920.1000;0.4542;1.3168;
920.4000;0.4542;1.3262;
920.7000;0.4542;1.3309;
921.0000;0.4558;1.3356;
921.3000;0.4558;1.3380;
921.6000;0.4550;1.3380;
921.9000;0.4558;1.3333;
922.2000;0.4542;1.3333;
922.5000;0.4542;1.3380;
922.8000;0.4542;1.3521;
923.1000;0.4534;1.3474;
923.4000;0.4518;1.3333;
923.7000;0.4485;1.3239;
924.0000;0.4558;1.3450;
924.3000;0.4550;1.3497;
924.6000;0.4534;1.3380;
924.9000;0.4567;1.3427;
925.2000;0.4526;1.3309;
925.5000;0.4542;1.3403;
925.8000;0.4558;1.3450;
926.1000;0.4526;1.3450;
926.4000;0.4558;1.3521;
926.7000;0.4550;1.3474;
927.0000;0.4567;1.3474;
927.3000;0.4542;1.3427;
927.6000;0.4550;1.3474;
927.9000;0.4534;1.3497;
928.2000;0.4428;1.3380;
928.5000;0.4518;1.3661;
928.8000;0.4542;1.3661;
929.1000;0.4518;1.3591;
929.4000;0.4550;1.3638;
929.7000;0.4542;1.3591;
930.0000;0.4518;1.3403;
930.3000;0.4526;1.3333;
930.6000;0.4558;1.3333;
930.9000;0.4526;1.3286;
931.2000;0.4542;1.3333;
931.5000;0.4542;1.3333;
931.8000;0.4550;1.3286;
932.1000;0.4558;1.3380;
932.4000;0.4558;1.3427;
932.7000;0.4591;1.3474;
933.0000;0.4534;1.3380;
933.3000;0.4558;1.3403;
933.6000;0.4526;1.3333;
933.9000;0.4534;1.3380;
934.2000;0.4534;1.3309;
934.5000;0.4558;1.3333;
934.8000;0.4534;1.3215;
935.1000;0.4526;1.3239;
935.4000;0.4534;1.3215;
935.7000;0.4501;1.3168;
936.0000;0.4534;1.3239;
936.3000;0.4534;1.3192;
936.6000;0.4526;1.3168;
936.9000;0.4534;1.3168;
937.2000;0.4534;1.3262;
937.5000;0.4526;1.3286;
937.8000;0.4542;1.3333;
938.1000;0.4526;1.3356;
938.4000;0.4591;1.3521;
938.7000;0.4534;1.3333;
939.0000;0.4542;1.3403;
939.3000;0.4534;1.3403;
939.6000;0.4550;1.3450;
939.9000;0.4542;1.3497;
940.2000;0.4518;1.3427;
940.5000;0.4526;1.3356;
940.8000;0.4534;1.3497;
941.1000;0.4542;1.3567;
941.4000;0.4469;1.3450;
941.7000;0.4550;1.3614;
942.0000;0.4550;1.3544;
942.3000;0.4558;1.3591;
942.6000;0.4542;1.3403;
942.9000;0.4534;1.3333;
943.2000;0.4542;1.3474;
943.5000;0.4550;1.3474;
943.8000;0.4558;1.3497;
944.1000;0.4534;1.3497;
944.4000;0.4542;1.3567;
944.7000;0.4558;1.3638;
945.0000;0.4542;1.3567;
945.3000;0.4526;1.3614;
945.6000;0.4542;1.3661;
945.9000;0.4550;1.3661;
946.2000;0.4550;1.3614;
946.5000;0.4550;1.3614;
946.8000;0.4518;1.3497;
947.1000;0.4534;1.3450;
947.4000;0.4501;1.3333;
947.7000;0.4558;1.3521;
948.0000;0.4534;1.3497;
948.3000;0.4591;1.3661;
948.6000;0.4558;1.3497;
948.9000;0.4550;1.3521;
949.2000;0.4534;1.3474;
949.5000;0.4558;1.3521;
949.8000;0.4567;1.3591;
950.1000;0.4599;1.3591;
950.4000;0.4493;1.3286;
950.7000;0.4493;1.3145;
951.0000;0.4542;1.3356;
951.3000;0.4534;1.3427;
951.6000;0.4542;1.3427;
951.9000;0.4534;1.3427;
952.2000;0.4542;1.3380;
952.5000;0.4542;1.3427;
952.8000;0.4542;1.3309;
953.1000;0.4550;1.3262;
953.4000;0.4575;1.3356;
953.7000;0.4575;1.3403;
954.0000;0.4558;1.3286;
954.3000;0.4550;1.3262;
954.6000;0.4534;1.3333;
954.9000;0.4550;1.3356;
955.2000;0.4550;1.3380;
955.5000;0.4567;1.3427;
955.8000;0.4558;1.3380;
956.1000;0.4534;1.3380;
956.4000;0.4542;1.3427;
956.7000;0.4526;1.3309;
957.0000;0.4526;1.3262;
957.3000;0.4534;1.3309;
957.6000;0.4534;1.3403;
957.9000;0.4534;1.3427;
958.2000;0.4542;1.3356;
958.5000;0.4558;1.3356;
958.8000;0.4567;1.3450;
959.1000;0.4558;1.3403;
959.4000;0.4526;1.3380;
959.7000;0.4542;1.3427;
960.0000;0.4542;1.3427;
960.3000;0.4526;1.3380;
960.6000;0.4542;1.3403;
960.9000;0.4558;1.3309;
961.2000;0.4534;1.3262;
961.5000;0.4526;1.3309;
961.8000;0.4526;1.3309;
962.1000;0.4534;1.3309;
962.4000;0.4510;1.3262;
962.7000;0.4518;1.3286;
963.0000;0.4534;1.3333;
963.3000;0.4534;1.3427;
963.6000;0.4542;1.3403;
963.9000;0.4550;1.3450;
964.2000;0.4550;1.3521;
964.5000;0.4526;1.3474;
964.8000;0.4542;1.3474;
965.1000;0.4542;1.3521;
965.4000;0.4542;1.3474;
965.7000;0.4534;1.3403;
966.0000;0.4550;1.3450;
966.3000;0.4558;1.3544;
966.6000;0.4607;1.3732;
966.9000;0.4542;1.3497;
967.2000;0.4534;1.3497;
967.5000;0.4534;1.3450;
967.8000;0.4518;1.3380;
968.1000;0.4518;1.3427;
968.4000;0.4534;1.3544;
968.7000;0.4542;1.3567;
969.0000;0.4542;1.3567;
969.3000;0.4534;1.3567;
969.6000;0.4518;1.3521;
969.9000;0.4534;1.3544;
970.2000;0.4542;1.3521;
970.5000;0.4567;1.3521;
970.8000;0.4550;1.3567;
971.1000;0.4526;1.3497;
971.4000;0.4656;1.3779;
971.7000;0.4583;1.3567;
972.0000;0.4542;1.3567;
972.3000;0.4583;1.3685;
972.6000;0.4526;1.3544;
972.9000;0.4469;1.3262;
973.2000;0.4607;1.3661;
973.5000;0.4558;1.3497;
973.8000;0.4534;1.3450;
974.1000;0.4518;1.3403;
974.4000;0.4550;1.3521;
974.7000;0.4534;1.3591;
975.0000;0.4656;1.3826;
975.3000;0.4542;1.3661;
975.6000;0.4534;1.3661;
975.9000;0.4534;1.3661;
976.2000;0.4558;1.3685;
976.5000;0.4550;1.3567;
976.8000;0.4550;1.3497;
977.1000;0.4534;1.3497;
977.4000;0.4558;1.3521;
977.7000;0.4526;1.3427;
978.0000;0.4493;1.3403;
978.3000;0.4534;1.3474;
978.6000;0.4534;1.3450;
978.9000;0.4526;1.3450;
979.2000;0.4542;1.3474;
979.5000;0.4526;1.3403;
979.8000;0.4542;1.3497;
980.1000;0.4567;1.3591;
980.4000;0.4493;1.3427;
980.7000;0.4534;1.3427;
981.0000;0.4567;1.3427;
981.3000;0.4526;1.3380;
981.6000;0.4526;1.3450;
981.9000;0.4526;1.3380;
982.2000;0.4558;1.3450;
982.5000;0.4591;1.3544;
982.8000;0.4534;1.3474;
983.1000;0.4518;1.3427;
983.4000;0.4534;1.3497;
983.7000;0.4550;1.3497;
984.0000;0.4518;1.3450;
984.3000;0.4510;1.3450;
984.6000;0.4534;1.3567;
984.9000;0.4558;1.3661;
985.2000;0.4542;1.3685;
985.5000;0.4567;1.3732;
985.8000;0.4518;1.3614;
986.1000;0.4542;1.3685;
986.4000;0.4518;1.3661;
986.7000;0.4550;1.3661;
987.0000;0.4518;1.3614;
987.3000;0.4550;1.3708;
987.6000;0.4526;1.3708;
987.9000;0.4542;1.3685;
988.2000;0.4526;1.3591;
988.5000;0.4542;1.3591;
988.8000;0.4542;1.3521;
989.1000;0.4510;1.3567;
989.4000;0.4542;1.3661;
989.7000;0.4534;1.3614;
990.0000;0.4534;1.3614;
990.3000;0.4558;1.3638;
990.6000;0.4624;1.3826;
990.9000;0.4542;1.3661;
991.2000;0.4534;1.3591;
991.5000;0.4542;1.3521;
991.8000;0.4550;1.3474;
992.1000;0.4542;1.3497;
992.4000;0.4526;1.3567;
992.7000;0.4550;1.3661;
993.0000;0.4518;1.3661;
993.3000;0.4534;1.3591;
993.6000;0.4550;1.3521;
993.9000;0.4526;1.3544;
994.2000;0.4526;1.3497;
994.5000;0.4518;1.3450;
994.8000;0.4534;1.3450;
995.1000;0.4526;1.3427;
995.4000;0.4493;1.3333;
995.7000;0.4534;1.3427;
996.0000;0.4599;1.3567;
996.3000;0.4501;1.3309;
996.6000;0.4550;1.3474;
996.9000;0.4542;1.3544;
997.2000;0.4501;1.3450;
997.5000;0.4558;1.3497;
997.8000;0.4558;1.3427;
998.1000;0.4550;1.3474;
998.4000;0.4526;1.3450;
998.7000;0.4501;1.3403;
999.0000;0.4542;1.3497;
999.3000;0.4542;1.3521;
999.6000;0.4534;1.3450;
999.9000;0.4542;1.3427;
1000.2000;0.4526;1.3380;
1000.5000;0.4575;1.3427;
1000.8000;0.4526;1.3356;
1001.1000;0.4542;1.3403;
1001.4000;0.4493;1.3333;
1001.7000;0.4534;1.3380;
1002.0000;0.4550;1.3427;
1002.3000;0.4550;1.3474;
1002.6000;0.4542;1.3544;
1002.9000;0.4518;1.3614;
1003.2000;0.4591;1.3732;
1003.5000;0.4534;1.3544;
1003.8000;0.4550;1.3521;
1004.1000;0.4534;1.3474;
1004.4000;0.4518;1.3474;
1004.7000;0.4534;1.3427;
1005.0000;0.4510;1.3427;
1005.3000;0.4453;1.3286;
1005.6000;0.4534;1.3450;
1005.9000;0.4534;1.3497;
1006.2000;0.4542;1.3521;
1006.5000;0.4534;1.3474;
1006.8000;0.4542;1.3474;
1007.1000;0.4607;1.3591;
1007.4000;0.4550;1.3427;
1007.7000;0.4534;1.3497;
1008.0000;0.4534;1.3521;
1008.3000;0.4518;1.3497;
1008.6000;0.4526;1.3474;
1008.9000;0.4534;1.3474;
1009.2000;0.4534;1.3474;
1009.5000;0.4510;1.3427;
1009.8000;0.4534;1.3544;
1010.1000;0.4534;1.3450;
1010.4000;0.4526;1.3497;
1010.7000;0.4542;1.3474;
1011.0000;0.4534;1.3497;
1011.3000;0.4510;1.3567;
1011.6000;0.4542;1.3614;
1011.9000;0.4558;1.3591;
1012.2000;0.4534;1.3497;
1012.5000;0.4461;1.3239;
1012.8000;0.4526;1.3497;
1013.1000;0.4542;1.3521;
1013.4000;0.4542;1.3544;
1013.7000;0.4567;1.3474;
1014.0000;0.4542;1.3450;
1014.3000;0.4510;1.3474;
1014.6000;0.4550;1.3685;
1014.9000;0.4534;1.3732;
1015.2000;0.4518;1.3661;
1015.5000;0.4558;1.3567;
1015.8000;0.4550;1.3544;
1016.1000;0.4550;1.3567;
1016.4000;0.4542;1.3427;
1016.7000;0.4526;1.3309;
1017.0000;0.4542;1.3380;
1017.3000;0.4526;1.3262;
1017.6000;0.4542;1.3309;
1017.9000;0.4575;1.3380;
1018.2000;0.4599;1.3497;
1018.5000;0.4534;1.3427;
1018.8000;0.4550;1.3474;
1019.1000;0.4526;1.3380;
1019.4000;0.4534;1.3427;
1019.7000;0.4550;1.3403;
1020.0000;0.4575;1.3591;
1020.3000;0.4534;1.3403;
1020.6000;0.4542;1.3380;
1020.9000;0.4550;1.3403;
1021.2000;0.4558;1.3450;
1021.5000;0.4526;1.3380;
1021.8000;0.4526;1.3239;
1022.1000;0.4518;1.3262;
1022.4000;0.4583;1.3497;
1022.7000;0.4526;1.3262;
1023.0000;0.4518;1.3262;
1023.3000;0.4534;1.3239;
1023.6000;0.4518;1.3239;
1023.9000;0.4542;1.3239;
1024.2000;0.4542;1.3215;
1024.5000;0.4542;1.3168;
1024.8000;0.4558;1.3239;
1025.1000;0.4550;1.3309;
1025.4000;0.4542;1.3309;
1025.7000;0.4526;1.3333;
1026.0000;0.4534;1.3333;
1026.3000;0.4534;1.3309;
1026.6000;0.4542;1.3309;
1026.9000;0.4526;1.3333;
1027.2000;0.4534;1.3380;
1027.5000;0.4558;1.3474;
1027.8000;0.4477;1.3286;
1028.1000;0.4534;1.3403;
1028.4000;0.4518;1.3403;
1028.7000;0.4534;1.3474;
1029.0000;0.4534;1.3450;
1029.3000;0.4534;1.3403;
1029.6000;0.4534;1.3356;
1029.9000;0.4534;1.3333;
1030.2000;0.4542;1.3309;
1030.5000;0.4518;1.3262;
1030.8000;0.4526;1.3356;
1031.1000;0.4542;1.3356;
1031.4000;0.4575;1.3333;
1031.7000;0.4550;1.3239;
1032.0000;0.4583;1.3380;
1032.3000;0.4493;1.3145;
1032.6000;0.4526;1.3239;
1032.9000;0.4534;1.3192;
1033.2000;0.4526;1.3121;
1033.5000;0.4558;1.3168;
1033.8000;0.4542;1.3121;
1034.1000;0.4461;1.3004;
1034.4000;0.4518;1.3192;
1034.7000;0.4534;1.3309;
1035.0000;0.4526;1.3333;
1035.3000;0.4550;1.3286;
1035.6000;0.4493;1.3168;
1035.9000;0.4518;1.3239;
1036.2000;0.4567;1.3356;
1036.5000;0.4526;1.3262;
1036.8000;0.4518;1.3286;
1037.1000;0.4575;1.3403;
1037.4000;0.4526;1.3192;
1037.7000;0.4534;1.3262;
1038.0000;0.4542;1.3286;
1038.3000;0.4534;1.3239;
1038.6000;0.4534;1.3286;
1038.9000;0.4534;1.3309;
1039.2000;0.4550;1.3286;
1039.5000;0.4542;1.3286;
1039.8000;0.4550;1.3215;
1040.1000;0.4534;1.3262;
1040.4000;0.4526;1.3286;
1040.7000;0.4542;1.3309;
1041.0000;0.4526;1.3192;
1041.3000;0.4550;1.3239;
1041.6000;0.4550;1.3239;
1041.9000;0.4558;1.3262;
1042.2000;0.4518;1.3168;
1042.5000;0.4526;1.3192;
1042.8000;0.4534;1.3239;
1043.1000;0.4542;1.3286;
1043.4000;0.4526;1.3215;
1043.7000;0.4558;1.3333;
1044.0000;0.4501;1.3309;
1044.3000;0.4526;1.3521;
1044.6000;0.4526;1.3474;
1044.9000;0.4518;1.3497;
1045.2000;0.4526;1.3450;
1045.5000;0.4518;1.3427;
1045.8000;0.4501;1.3427;
1046.1000;0.4534;1.3521;
1046.4000;0.4534;1.3474;
1046.7000;0.4526;1.3450;
1047.0000;0.4518;1.3450;
1047.3000;0.4501;1.3474;
1047.6000;0.4526;1.3544;
1047.9000;0.4534;1.3567;
1048.2000;0.4526;1.3544;
1048.5000;0.4526;1.3497;
1048.8000;0.4510;1.3450;
1049.1000;0.4518;1.3474;
1049.4000;0.4526;1.3544;
1049.7000;0.4501;1.3497;
1050.0000;0.4542;1.3614;
1050.3000;0.4534;1.3567;
1050.6000;0.4542;1.3614;
1050.9000;0.4534;1.3614;
1051.2000;0.4526;1.3544;
1051.5000;0.4444;1.3286;
1051.8000;0.4526;1.3521;
1052.1000;0.4591;1.3732;
1052.4000;0.4510;1.3427;
1052.7000;0.4534;1.3497;
1053.0000;0.4534;1.3544;
1053.3000;0.4534;1.3544;
1053.6000;0.4542;1.3567;
1053.9000;0.4526;1.3497;
1054.2000;0.4534;1.3474;
1054.5000;0.4542;1.3521;
1054.8000;0.4526;1.3474;
1055.1000;0.4526;1.3474;
1055.4000;0.4526;1.3403;
1055.7000;0.4526;1.3380;
1056.0000;0.4558;1.3403;
1056.3000;0.4534;1.3309;
1056.6000;0.4534;1.3380;
1056.9000;0.4534;1.3427;
1057.2000;0.4526;1.3380;
1057.5000;0.4558;1.3521;
1057.8000;0.4526;1.3544;
1058.1000;0.4510;1.3521;
1058.4000;0.4534;1.3614;
1058.7000;0.4558;1.3567;
1059.0000;0.4510;1.3380;
1059.3000;0.4534;1.3474;
1059.6000;0.4510;1.3403;
1059.9000;0.4518;1.3427;
1060.2000;0.4534;1.3497;
1060.5000;0.4542;1.3474;
1060.8000;0.4534;1.3497;
1061.1000;0.4534;1.3450;
1061.4000;0.4550;1.3474;
1061.7000;0.4534;1.3450;
1062.0000;0.4567;1.3497;
1062.3000;0.4550;1.3450;
1062.6000;0.4542;1.3427;
1062.9000;0.4526;1.3450;
1063.2000;0.4550;1.3521;
1063.5000;0.4534;1.3474;
1063.8000;0.4558;1.3521;
1064.1000;0.4534;1.3450;
1064.4000;0.4526;1.3380;
1064.7000;0.4510;1.3309;
1065.0000;0.4534;1.3380;
1065.3000;0.4542;1.3450;
1065.6000;0.4526;1.3356;
1065.9000;0.4526;1.3380;
1066.2000;0.4534;1.3427;
1066.5000;0.4534;1.3474;
1066.8000;0.4558;1.3544;
1067.1000;0.4526;1.3380;
1067.4000;0.4542;1.3474;
1067.7000;0.4477;1.3380;
1068.0000;0.4542;1.3591;
1068.3000;0.4550;1.3614;
1068.6000;0.4534;1.3661;
1068.9000;0.4518;1.3614;
1069.2000;0.4485;1.3591;
1069.5000;0.4518;1.3755;
1069.8000;0.4534;1.3685;
1070.1000;0.4526;1.3732;
1070.4000;0.4510;1.3638;
1070.7000;0.4534;1.3544;
1071.0000;0.4656;1.3896;
1071.3000;0.4526;1.3638;
1071.6000;0.4526;1.3591;
1071.9000;0.4542;1.3567;
1072.2000;0.4518;1.3591;
1072.5000;0.4550;1.3567;
1072.8000;0.4526;1.3450;
1073.1000;0.4534;1.3497;
1073.4000;0.4526;1.3450;
1073.7000;0.4526;1.3427;
1074.0000;0.4558;1.3521;
1074.3000;0.4518;1.3521;
1074.6000;0.4534;1.3427;
1074.9000;0.4542;1.3403;
1075.2000;0.4542;1.3309;
1075.5000;0.4526;1.3286;
1075.8000;0.4518;1.3309;
1076.1000;0.4526;1.3262;
1076.4000;0.4534;1.3286;
1076.7000;0.4534;1.3380;
1077.0000;0.4526;1.3380;
1077.3000;0.4518;1.3380;
1077.6000;0.4526;1.3427;
1077.9000;0.4558;1.3567;
1078.2000;0.4518;1.3521;
1078.5000;0.4526;1.3403;
1078.8000;0.4542;1.3474;
1079.1000;0.4526;1.3450;
1079.4000;0.4534;1.3403;
1079.7000;0.4436;1.3075;
1080.0000;0.4558;1.3309;
1080.3000;0.4591;1.3450;
1080.6000;0.4591;1.3521;
1080.9000;0.4526;1.3380;
1081.2000;0.4534;1.3380;
1081.5000;0.4518;1.3427;
1081.8000;0.4518;1.3544;
1082.1000;0.4510;1.3521;
1082.4000;0.4501;1.3497;
1082.7000;0.4534;1.3567;
1083.0000;0.4558;1.3567;
1083.3000;0.4428;1.3192;
1083.6000;0.4518;1.3427;
1083.9000;0.4534;1.3427;
1084.2000;0.4534;1.3497;
1084.5000;0.4542;1.3544;
1084.8000;0.4534;1.3521;
1085.1000;0.4534;1.3450;
1085.4000;0.4558;1.3521;
1085.7000;0.4510;1.3474;
1086.0000;0.4534;1.3474;
1086.3000;0.4534;1.3450;
1086.6000;0.4518;1.3309;
1086.9000;0.4542;1.3309;
1087.2000;0.4583;1.3474;
1087.5000;0.4534;1.3380;
1087.8000;0.4534;1.3450;
1088.1000;0.4542;1.3497;
1088.4000;0.4526;1.3567;
1088.7000;0.4518;1.3567;
1089.0000;0.4526;1.3708;
1089.3000;0.4550;1.3802;
1089.6000;0.4534;1.3755;
1089.9000;0.4469;1.3614;
1090.2000;0.4534;1.3708;
1090.5000;0.4558;1.3802;
1090.8000;0.4534;1.3779;
1091.1000;0.4526;1.3638;
1091.4000;0.4550;1.3638;
1091.7000;0.4501;1.3567;
1092.0000;0.4526;1.3638;
1092.3000;0.4526;1.3661;
1092.6000;0.4526;1.3661;
1092.9000;0.4493;1.3661;
1093.2000;0.4518;1.3685;
1093.5000;0.4534;1.3755;
1093.8000;0.4526;1.3661;
1094.1000;0.4542;1.3685;
1094.4000;0.4526;1.3591;
1094.7000;0.4526;1.3591;
1095.0000;0.4501;1.3567;
1095.3000;0.4518;1.3614;
1095.6000;0.4567;1.3708;
1095.9000;0.4542;1.3685;
1096.2000;0.4542;1.3638;
1096.5000;0.4583;1.3591;
1096.8000;0.4510;1.3403;
1097.1000;0.4510;1.3333;
1097.4000;0.4526;1.3356;
1097.7000;0.4518;1.3403;
1098.0000;0.4518;1.3427;
1098.3000;0.4550;1.3544;
1098.6000;0.4542;1.3521;
1098.9000;0.4436;1.3286;
1099.2000;0.4542;1.3474;
1099.5000;0.4550;1.3474;
1099.8000;0.4550;1.3450;
1100.1000;0.4526;1.3403;
1100.4000;0.4542;1.3333;
1100.7000;0.4534;1.3286;
1101.0000;0.4436;1.2957;
1101.3000;0.4526;1.3309;
1101.6000;0.4534;1.3403;
1101.9000;0.4518;1.3427;
1102.2000;0.4518;1.3450;
1102.5000;0.4542;1.3521;
1102.8000;0.4526;1.3474;
1103.1000;0.4542;1.3450;
1103.4000;0.4469;1.3262;
1103.7000;0.4518;1.3450;
1104.0000;0.4558;1.3591;
1104.3000;0.4436;1.3309;
1104.6000;0.4485;1.3450;
1104.9000;0.4534;1.3521;
1105.2000;0.4567;1.3591;
1105.5000;0.4493;1.3427;
1105.8000;0.4501;1.3427;
1106.1000;0.4542;1.3497;
1106.4000;0.4534;1.3450;
1106.7000;0.4518;1.3474;
1107.0000;0.4542;1.3474;
1107.3000;0.4493;1.3380;
1107.6000;0.4575;1.3638;
1107.9000;0.4526;1.3450;
1108.2000;0.4534;1.3521;
1108.5000;0.4461;1.3380;
1108.8000;0.4526;1.3544;
1109.1000;0.4534;1.3567;
1109.4000;0.4534;1.3544;
1109.7000;0.4501;1.3474;
1110.0000;0.4542;1.3450;
1110.3000;0.4534;1.3497;
1110.6000;0.4550;1.3567;
1110.9000;0.4550;1.3614;
1111.2000;0.4526;1.3521;
1111.5000;0.4550;1.3567;
1111.8000;0.4550;1.3521;
1112.1000;0.4501;1.3427;
1112.4000;0.4575;1.3544;
1112.7000;0.4542;1.3286;
1113.0000;0.4510;1.3215;
1113.3000;0.4550;1.3380;
1113.6000;0.4526;1.3380;
1113.9000;0.4583;1.3450;
1114.2000;0.4510;1.3427;
1114.5000;0.4526;1.3427;
1114.8000;0.4534;1.3450;
1115.1000;0.4542;1.3544;
1115.4000;0.4542;1.3567;
1115.7000;0.4534;1.3614;
1116.0000;0.4518;1.3614;
1116.3000;0.4518;1.3732;
1116.6000;0.4542;1.3732;
1116.9000;0.4534;1.3638;
1117.2000;0.4526;1.3614;
1117.5000;0.4550;1.3661;
1117.8000;0.4534;1.3685;
1118.1000;0.4550;1.3685;
1118.4000;0.4542;1.3661;
1118.7000;0.4534;1.3614;
1119.0000;0.4542;1.3638;
1119.3000;0.4558;1.3638;
1119.6000;0.4510;1.3521;
1119.9000;0.4518;1.3591;
1120.2000;0.4542;1.3661;
1120.5000;0.4534;1.3685;
1120.8000;0.4501;1.3685;
1121.1000;0.4534;1.3638;
1121.4000;0.4510;1.3521;
1121.7000;0.4534;1.3544;
1122.0000;0.4518;1.3450;
1122.3000;0.4542;1.3427;
1122.6000;0.4518;1.3403;
1122.9000;0.4493;1.3309;
1123.2000;0.4526;1.3497;
1123.5000;0.4534;1.3450;
1123.8000;0.4526;1.3450;
1124.1000;0.4534;1.3403;
1124.4000;0.4534;1.3427;
1124.7000;0.4534;1.3403;
1125.0000;0.4534;1.3427;
1125.3000;0.4526;1.3450;
1125.6000;0.4526;1.3497;
1125.9000;0.4518;1.3474;
1126.2000;0.4501;1.3427;
1126.5000;0.4501;1.3403;
1126.8000;0.4518;1.3427;
1127.1000;0.4526;1.3356;
1127.4000;0.4534;1.3333;
1127.7000;0.4534;1.3333;
1128.0000;0.4534;1.3356;
1128.3000;0.4534;1.3427;
1128.6000;0.4534;1.3474;
1128.9000;0.4534;1.3497;
1129.2000;0.4550;1.3474;
1129.5000;0.4542;1.3497;
1129.8000;0.4518;1.3474;
1130.1000;0.4534;1.3450;
1130.4000;0.4534;1.3497;
1130.7000;0.4526;1.3521;
1131.0000;0.4518;1.3497;
1131.3000;0.4518;1.3474;
1131.6000;0.4477;1.3380;
1131.9000;0.4526;1.3474;
1132.2000;0.4518;1.3497;
1132.5000;0.4526;1.3450;
1132.8000;0.4526;1.3450;
1133.1000;0.4526;1.3450;
1133.4000;0.4542;1.3450;
1133.7000;0.4510;1.3403;
1134.0000;0.4501;1.3380;
1134.3000;0.4542;1.3427;
1134.6000;0.4526;1.3356;
1134.9000;0.4526;1.3333;
1135.2000;0.4526;1.3356;
1135.5000;0.4510;1.3356;
1135.8000;0.4518;1.3356;
1136.1000;0.4542;1.3427;
1136.4000;0.4534;1.3380;
1136.7000;0.4518;1.3403;
1137.0000;0.4534;1.3427;
1137.3000;0.4567;1.3638;
1137.6000;0.4518;1.3497;
1137.9000;0.4542;1.3544;
1138.2000;0.4534;1.3474;
1138.5000;0.4534;1.3474;
1138.8000;0.4420;1.3145;
1139.1000;0.4550;1.3380;
1139.4000;0.4534;1.3356;
1139.7000;0.4518;1.3333;
1140.0000;0.4542;1.3427;
1140.3000;0.4510;1.3333;
1140.6000;0.4526;1.3380;
1140.9000;0.4526;1.3356;
1141.2000;0.4526;1.3380;
1141.5000;0.4567;1.3521;
1141.8000;0.4518;1.3380;
1142.1000;0.4518;1.3333;
1142.4000;0.4550;1.3286;
1142.7000;0.4518;1.3215;
1143.0000;0.4526;1.3262;
1143.3000;0.4575;1.3450;
1143.6000;0.4542;1.3380;
1143.9000;0.4477;1.3239;
1144.2000;0.4518;1.3380;
1144.5000;0.4493;1.3286;
1144.8000;0.4518;1.3380;
1145.1000;0.4510;1.3309;
1145.4000;0.4542;1.3427;
1145.7000;0.4534;1.3403;
1146.0000;0.4550;1.3403;
1146.3000;0.4534;1.3356;
1146.6000;0.4510;1.3215;
1146.9000;0.4428;1.3004;
1147.2000;0.4526;1.3262;
1147.5000;0.4550;1.3333;
1147.8000;0.4526;1.3474;
1148.1000;0.4526;1.3450;
1148.4000;0.4526;1.3403;
1148.7000;0.4518;1.3427;
1149.0000;0.4542;1.3497;
1149.3000;0.4518;1.3544;
1149.6000;0.4518;1.3591;
1149.9000;0.4526;1.3567;
1150.2000;0.4493;1.3567;
1150.5000;0.4526;1.3497;
1150.8000;0.4558;1.3614;
1151.1000;0.4510;1.3521;
1151.4000;0.4534;1.3567;
1151.7000;0.4526;1.3474;
1152.0000;0.4534;1.3614;
1152.3000;0.4501;1.3521;
1152.6000;0.4526;1.3614;
1152.9000;0.4518;1.3497;
1153.2000;0.4583;1.3567;
1153.5000;0.4510;1.3474;
1153.8000;0.4542;1.3521;
1154.1000;0.4526;1.3474;
1154.4000;0.4542;1.3521;
1154.7000;0.4510;1.3450;
1155.0000;0.4534;1.3450;
1155.3000;0.4534;1.3591;
1155.6000;0.4542;1.3638;
1155.9000;0.4526;1.3614;
1156.2000;0.4526;1.3497;
1156.5000;0.4526;1.3521;
1156.8000;0.4526;1.3567;
1157.1000;0.4526;1.3497;
1157.4000;0.4518;1.3474;
1157.7000;0.4534;1.3567;
1158.0000;0.4518;1.3544;
1158.3000;0.4534;1.3661;
1158.6000;0.4526;1.3661;
1158.9000;0.4542;1.3685;
1159.2000;0.4469;1.3614;
1159.5000;0.4518;1.3755;
1159.8000;0.4534;1.3755;
1160.1000;0.4526;1.3708;
1160.4000;0.4510;1.3544;
1160.7000;0.4534;1.3661;
1161.0000;0.4510;1.3638;
1161.3000;0.4550;1.3567;
1161.6000;0.4550;1.3427;
1161.9000;0.4575;1.3403;
1162.2000;0.4469;1.3145;
1162.5000;0.4510;1.3286;
1162.8000;0.4518;1.3356;
1163.1000;0.4550;1.3380;
1163.4000;0.4534;1.3309;
1163.7000;0.4518;1.3333;
1164.0000;0.4534;1.3333;
1164.3000;0.4534;1.3356;
1164.6000;0.4518;1.3309;
1164.9000;0.4510;1.3192;
1165.2000;0.4534;1.3286;
1165.5000;0.4493;1.3215;
1165.8000;0.4542;1.3309;
1166.1000;0.4518;1.3309;
1166.4000;0.4518;1.3309;
1166.7000;0.4526;1.3427;
1167.0000;0.4518;1.3427;
1167.3000;0.4526;1.3380;
1167.6000;0.4501;1.3286;
1167.9000;0.4526;1.3309;
1168.2000;0.4518;1.3286;
1168.5000;0.4534;1.3333;
1168.8000;0.4526;1.3427;
1169.1000;0.4526;1.3450;
1169.4000;0.4518;1.3427;
1169.7000;0.4518;1.3356;
1170.0000;0.4534;1.3450;
1170.3000;0.4550;1.3567;
1170.6000;0.4526;1.3474;
1170.9000;0.4534;1.3427;
1171.2000;0.4550;1.3474;
1171.5000;0.4526;1.3380;
1171.8000;0.4526;1.3286;
1172.1000;0.4526;1.3403;
1172.4000;0.4526;1.3333;
1172.7000;0.4510;1.3356;
1173.0000;0.4542;1.3474;
1173.3000;0.4510;1.3403;
1173.6000;0.4526;1.3474;
1173.9000;0.4526;1.3427;
1174.2000;0.4510;1.3380;
1174.5000;0.4518;1.3427;
1174.8000;0.4518;1.3567;
1175.1000;0.4518;1.3544;
1175.4000;0.4518;1.3497;
1175.7000;0.4518;1.3427;
1176.0000;0.4485;1.3356;
1176.3000;0.4518;1.3450;
1176.6000;0.4518;1.3403;
1176.9000;0.4510;1.3333;
1177.2000;0.4607;1.3591;
1177.5000;0.4542;1.3380;
1177.8000;0.4526;1.3403;
1178.1000;0.4542;1.3356;
1178.4000;0.4534;1.3286;
1178.7000;0.4542;1.3262;
1179.0000;0.4624;1.3544;
1179.3000;0.4501;1.3309;
1179.6000;0.4534;1.3309;
1179.9000;0.4518;1.3333;
1180.2000;0.4550;1.3380;
1180.5000;0.4526;1.3356;
1180.8000;0.4534;1.3380;
1181.1000;0.4534;1.3450;
1181.4000;0.4518;1.3544;
1181.7000;0.4526;1.3567;
1182.0000;0.4501;1.3474;
1182.3000;0.4518;1.3521;
1182.6000;0.4542;1.3450;
1182.9000;0.4534;1.3333;
1183.2000;0.4518;1.3333;
1183.5000;0.4526;1.3403;
1183.8000;0.4542;1.3450;
1184.1000;0.4534;1.3427;
1184.4000;0.4534;1.3474;
1184.7000;0.4558;1.3544;
1185.0000;0.4526;1.3638;
1185.3000;0.4526;1.3685;
1185.6000;0.4518;1.3661;
1185.9000;0.4534;1.3708;
1186.2000;0.4518;1.3661;
1186.5000;0.4534;1.3661;
1186.8000;0.4526;1.3567;
1187.1000;0.4526;1.3661;
1187.4000;0.4518;1.3685;
1187.7000;0.4542;1.3614;
1188.0000;0.4542;1.3614;
1188.3000;0.4518;1.3591;
1188.6000;0.4534;1.3591;
1188.9000;0.4567;1.3708;
1189.2000;0.4526;1.3661;
1189.5000;0.4510;1.3591;
1189.8000;0.4542;1.3638;
1190.1000;0.4534;1.3591;
1190.4000;0.4518;1.3567;
1190.7000;0.4501;1.3427;
1191.0000;0.4526;1.3497;
1191.3000;0.4510;1.3521;
1191.6000;0.4518;1.3591;
1191.9000;0.4518;1.3544;
1192.2000;0.4526;1.3474;
1192.5000;0.4469;1.3286;
1192.8000;0.4534;1.3521;
1193.1000;0.4526;1.3567;
1193.4000;0.4518;1.3474;
1193.7000;0.4550;1.3638;
1194.0000;0.4518;1.3567;
1194.3000;0.4542;1.3521;
1194.6000;0.4510;1.3474;
1194.9000;0.4534;1.3638;
1195.2000;0.4510;1.3614;
1195.5000;0.4518;1.3685;
1195.8000;0.4501;1.3661;
1196.1000;0.4510;1.3591;
1196.4000;0.4542;1.3591;
1196.7000;0.4534;1.3567;
1197.0000;0.4526;1.3474;
1197.3000;0.4526;1.3544;
1197.6000;0.4526;1.3521;
1197.9000;0.4526;1.3521;
1198.2000;0.4518;1.3497;
1198.5000;0.4518;1.3427;
1198.8000;0.4534;1.3450;
1199.1000;0.4567;1.3544;
1199.4000;0.4518;1.3497;
1199.7000;0.4534;1.3474;
1200.0000;0.4534;1.3450;
1200.3000;0.4461;1.3286;
1200.6000;0.4526;1.3380;
1200.9000;0.4542;1.3309;
1201.2000;0.4485;1.3168;
1201.5000;0.4518;1.3239;
1201.8000;0.4534;1.3239;
1202.1000;0.4518;1.3309;
1202.4000;0.4526;1.3309;
1202.7000;0.4518;1.3239;
1203.0000;0.4624;1.3450;
1203.3000;0.4526;1.3121;
1203.6000;0.4534;1.3145;
1203.9000;0.4501;1.3121;
1204.2000;0.4567;1.3239;
1204.5000;0.4501;1.3075;
1204.8000;0.4526;1.3098;
1205.1000;0.4518;1.3145;
1205.4000;0.4501;1.3286;
1205.7000;0.4518;1.3286;
1206.0000;0.4526;1.3309;
1206.3000;0.4518;1.3333;
1206.6000;0.4510;1.3309;
1206.9000;0.4518;1.3286;
1207.2000;0.4526;1.3262;
1207.5000;0.4469;1.3145;
1207.8000;0.4518;1.3215;
1208.1000;0.4542;1.3333;
1208.4000;0.4510;1.3380;
1208.7000;0.4526;1.3474;
1209.0000;0.4518;1.3380;
1209.3000;0.4534;1.3403;
1209.6000;0.4518;1.3356;
1209.9000;0.4542;1.3380;
1210.2000;0.4493;1.3262;
1210.5000;0.4526;1.3333;
1210.8000;0.4526;1.3333;
1211.1000;0.4542;1.3403;
1211.4000;0.4542;1.3309;
1211.7000;0.4550;1.3262;
1212.0000;0.4518;1.3121;
1212.3000;0.4526;1.3051;
1212.6000;0.4510;1.3121;
1212.9000;0.4526;1.3262;
1213.2000;0.4501;1.3239;
1213.5000;0.4550;1.3286;
1213.8000;0.4518;1.3262;
1214.1000;0.4436;1.3028;
1214.4000;0.4526;1.3239;
1214.7000;0.4542;1.3262;
1215.0000;0.4526;1.3286;
1215.3000;0.4526;1.3215;
1215.6000;0.4648;1.3638;
1215.9000;0.4542;1.3427;
1216.2000;0.4526;1.3403;
1216.5000;0.4575;1.3521;
1216.8000;0.4510;1.3309;
1217.1000;0.4534;1.3380;
1217.4000;0.4526;1.3333;
1217.7000;0.4510;1.3262;
1218.0000;0.4518;1.3286;
1218.3000;0.4542;1.3286;
1218.6000;0.4501;1.3168;
1218.9000;0.4534;1.3215;
1219.2000;0.4526;1.3145;
1219.5000;0.4542;1.3239;
1219.8000;0.4526;1.3215;
1220.1000;0.4534;1.3262;
1220.4000;0.4518;1.3239;
1220.7000;0.4518;1.3239;
1221.0000;0.4534;1.3286;
1221.3000;0.4461;1.3239;
1221.6000;0.4534;1.3403;
1221.9000;0.4493;1.3333;
1222.2000;0.4526;1.3333;
1222.5000;0.4510;1.3333;
1222.8000;0.4485;1.3286;
1223.1000;0.4493;1.3286;
1223.4000;0.4534;1.3591;
1223.7000;0.4493;1.3544;
1224.0000;0.4526;1.3591;
1224.3000;0.4510;1.3614;
1224.6000;0.4518;1.3591;
1224.9000;0.4501;1.3497;
1225.2000;0.4583;1.3708;
1225.5000;0.4526;1.3497;
1225.8000;0.4534;1.3427;
1226.1000;0.4542;1.3521;
1226.4000;0.4534;1.3403;
1226.7000;0.4526;1.3403;
1227.0000;0.4518;1.3380;
1227.3000;0.4542;1.3333;
1227.6000;0.4518;1.3309;
1227.9000;0.4510;1.3333;
1228.2000;0.4542;1.3356;
1228.5000;0.4501;1.3309;
1228.8000;0.4526;1.3356;
1229.1000;0.4526;1.3262;
1229.4000;0.4526;1.3239;
1229.7000;0.4493;1.3215;
1230.0000;0.4534;1.3309;
1230.3000;0.4534;1.3215;
1230.6000;0.4518;1.3239;
1230.9000;0.4534;1.3262;
1231.2000;0.4534;1.3380;
1231.5000;0.4469;1.3309;
1231.8000;0.4534;1.3380;
1232.1000;0.4558;1.3521;
1232.4000;0.4510;1.3544;
1232.7000;0.4534;1.3544;
1233.0000;0.4526;1.3567;
1233.3000;0.4526;1.3567;
1233.6000;0.4518;1.3544;
1233.9000;0.4518;1.3474;
1234.2000;0.4550;1.3474;
1234.5000;0.4461;1.3262;
1234.8000;0.4412;1.3168;
1235.1000;0.4518;1.3450;
1235.4000;0.4518;1.3427;
1235.7000;0.4534;1.3497;
1236.0000;0.4518;1.3427;
1236.3000;0.4518;1.3309;
1236.6000;0.4518;1.3403;
1236.9000;0.4526;1.3403;
1237.2000;0.4518;1.3427;
1237.5000;0.4453;1.3286;
1237.8000;0.4518;1.3521;
1238.1000;0.4542;1.3567;
1238.4000;0.4510;1.3474;
1238.7000;0.4510;1.3403;
1239.0000;0.4518;1.3403;
1239.3000;0.4583;1.3497;
1239.6000;0.4526;1.3403;
1239.9000;0.4526;1.3497;
1240.2000;0.4526;1.3450;
1240.5000;0.4534;1.3497;
1240.8000;0.4526;1.3450;
1241.1000;0.4567;1.3591;
1241.4000;0.4534;1.3356;
1241.7000;0.4534;1.3380;
1242.0000;0.4518;1.3380;
1242.3000;0.4485;1.3333;
1242.6000;0.4510;1.3474;
1242.9000;0.4510;1.3497;
1243.2000;0.4526;1.3544;
1243.5000;0.4501;1.3450;
1243.8000;0.4518;1.3497;
1244.1000;0.4501;1.3380;
1244.4000;0.4526;1.3356;
1244.7000;0.4493;1.3309;
1245.0000;0.4501;1.3333;
1245.3000;0.4526;1.3286;
1245.6000;0.4534;1.3215;
1245.9000;0.4526;1.3286;
1246.2000;0.4534;1.3380;
1246.5000;0.4510;1.3333;
1246.8000;0.4526;1.3380;
1247.1000;0.4526;1.3380;
1247.4000;0.4534;1.3474;
1247.7000;0.4526;1.3544;
1248.0000;0.4542;1.3474;
1248.3000;0.4542;1.3450;
1248.6000;0.4534;1.3427;
1248.9000;0.4501;1.3380;
1249.2000;0.4518;1.3356;
1249.5000;0.4526;1.3450;
1249.8000;0.4518;1.3450;
1250.1000;0.4485;1.3427;
1250.4000;0.4534;1.3521;
1250.7000;0.4526;1.3474;
1251.0000;0.4526;1.3474;
1251.3000;0.4534;1.3474;
1251.6000;0.4534;1.3497;
1251.9000;0.4428;1.3192;
1252.2000;0.4542;1.3427;
1252.5000;0.4518;1.3427;
1252.8000;0.4526;1.3333;
1253.1000;0.4518;1.3333;
1253.4000;0.4550;1.3474;
1253.7000;0.4518;1.3450;
1254.0000;0.4526;1.3638;
1254.3000;0.4493;1.3661;
1254.6000;0.4518;1.3708;
1254.9000;0.4518;1.3638;
1255.2000;0.4510;1.3661;
1255.5000;0.4477;1.3638;
1255.8000;0.4526;1.3661;
1256.1000;0.4575;1.3732;
1256.4000;0.4501;1.3450;
1256.7000;0.4510;1.3403;
1257.0000;0.4518;1.3333;
1257.3000;0.4518;1.3309;
1257.6000;0.4583;1.3450;
1257.9000;0.4518;1.3356;
1258.2000;0.4510;1.3333;
1258.5000;0.4550;1.3427;
1258.8000;0.4510;1.3403;
1259.1000;0.4518;1.3427;
1259.4000;0.4518;1.3403;
1259.7000;0.4526;1.3403;
1260.0000;0.4510;1.3427;
1260.3000;0.4485;1.3474;
1260.6000;0.4501;1.3427;
1260.9000;0.4518;1.3474;
1261.2000;0.4526;1.3474;
1261.5000;0.4501;1.3356;
1261.8000;0.4518;1.3356;
1262.1000;0.4518;1.3427;
1262.4000;0.4510;1.3427;
1262.7000;0.4534;1.3427;
1263.0000;0.4526;1.3380;
1263.3000;0.4518;1.3333;
1263.6000;0.4542;1.3380;
1263.9000;0.4518;1.3286;
1264.2000;0.4518;1.3262;
1264.5000;0.4493;1.3239;
1264.8000;0.4526;1.3450;
1265.1000;0.4534;1.3356;
1265.4000;0.4501;1.3215;
1265.7000;0.4526;1.3309;
1266.0000;0.4526;1.3309;
1266.3000;0.4534;1.3380;
1266.6000;0.4526;1.3262;
1266.9000;0.4583;1.3333;
1267.2000;0.4567;1.3309;
1267.5000;0.4510;1.3192;
1267.8000;0.4534;1.3262;
1268.1000;0.4518;1.3286;
1268.4000;0.4510;1.3333;
1268.7000;0.4518;1.3356;
1269.0000;0.4534;1.3474;
1269.3000;0.4534;1.3450;
1269.6000;0.4526;1.3474;
1269.9000;0.4542;1.3474;
1270.2000;0.4550;1.3474;
1270.5000;0.4534;1.3403;
1270.8000;0.4526;1.3333;
1271.1000;0.4526;1.3356;
1271.4000;0.4518;1.3286;
1271.7000;0.4518;1.3262;
1272.0000;0.4444;1.3051;
1272.3000;0.4510;1.3333;
1272.6000;0.4518;1.3403;
1272.9000;0.4501;1.3380;
1273.2000;0.4526;1.3309;
1273.5000;0.4518;1.3286;
1273.8000;0.4542;1.3356;
1274.1000;0.4518;1.3380;
1274.4000;0.4501;1.3380;
1274.7000;0.4534;1.3427;
1275.0000;0.4518;1.3333;
1275.3000;0.4526;1.3262;
1275.6000;0.4510;1.3239;
1275.9000;0.4510;1.3239;
1276.2000;0.4501;1.3239;
1276.5000;0.4526;1.3356;
1276.8000;0.4526;1.3427;
1277.1000;0.4526;1.3427;
1277.4000;0.4591;1.3591;
1277.7000;0.4526;1.3356;
1278.0000;0.4534;1.3403;
1278.3000;0.4526;1.3380;
1278.6000;0.4526;1.3403;
1278.9000;0.4526;1.3356;
1279.2000;0.4534;1.3356;
1279.5000;0.4558;1.3497;
1279.8000;0.4542;1.3450;
1280.1000;0.4518;1.3403;
1280.4000;0.4575;1.3497;
1280.7000;0.4526;1.3380;
1281.0000;0.4550;1.3427;
1281.3000;0.4510;1.3474;
1281.6000;0.4542;1.3544;
1281.9000;0.4534;1.3591;
1282.2000;0.4510;1.3497;
1282.5000;0.4542;1.3521;
1282.8000;0.4510;1.3356;
1283.1000;0.4534;1.3380;
1283.4000;0.4550;1.3356;
1283.7000;0.4469;1.3145;
1284.0000;0.4526;1.3356;
1284.3000;0.4518;1.3380;
1284.6000;0.4558;1.3474;
1284.9000;0.4518;1.3286;
1285.2000;0.4526;1.3286;
1285.5000;0.4493;1.3192;
1285.8000;0.4526;1.3286;
1286.1000;0.4534;1.3286;
1286.4000;0.4526;1.3333;
1286.7000;0.4526;1.3333;
1287.0000;0.4436;1.3121;
1287.3000;0.4518;1.3380;
1287.6000;0.4526;1.3380;
1287.9000;0.4501;1.3262;
1288.2000;0.4526;1.3239;
1288.5000;0.4550;1.3309;
1288.8000;0.4526;1.3239;
1289.1000;0.4510;1.3262;
1289.4000;0.4518;1.3286;
1289.7000;0.4518;1.3309;
1290.0000;0.4526;1.3356;
1290.3000;0.4518;1.3309;
1290.6000;0.4534;1.3309;
1290.9000;0.4542;1.3309;
1291.2000;0.4518;1.3309;
1291.5000;0.4518;1.3380;
1291.8000;0.4526;1.3333;
1292.1000;0.4534;1.3286;
1292.4000;0.4518;1.3286;
1292.7000;0.4526;1.3262;
1293.0000;0.4526;1.3286;
1293.3000;0.4534;1.3168;
1293.6000;0.4526;1.3145;
1293.9000;0.4510;1.3215;
1294.2000;0.4550;1.3286;
1294.5000;0.4518;1.3309;
1294.8000;0.4526;1.3309;
1295.1000;0.4436;1.3098;
1295.4000;0.4542;1.3403;
1295.7000;0.4518;1.3333;
1296.0000;0.4526;1.3403;
1296.3000;0.4526;1.3474;
1296.6000;0.4510;1.3356;
1296.9000;0.4518;1.3380;
1297.2000;0.4526;1.3356;
1297.5000;0.4526;1.3450;
1297.8000;0.4510;1.3380;
1298.1000;0.4526;1.3427;
1298.4000;0.4534;1.3450;
1298.7000;0.4510;1.3380;
1299.0000;0.4518;1.3286;
1299.3000;0.4510;1.3262;
1299.6000;0.4534;1.3309;
1299.9000;0.4518;1.3262;
1300.2000;0.4534;1.3356;
1300.5000;0.4534;1.3333;
1300.8000;0.4510;1.3474;
1301.1000;0.4567;1.3567;
1301.4000;0.4501;1.3380;
1301.7000;0.4526;1.3333;
1302.0000;0.4518;1.3262;
1302.3000;0.4534;1.3239;
1302.6000;0.4542;1.3309;
1302.9000;0.4493;1.3215;
1303.2000;0.4518;1.3262;
1303.5000;0.4493;1.3262;
1303.8000;0.4534;1.3239;
1304.1000;0.4461;1.3121;
1304.4000;0.4558;1.3333;
1304.7000;0.4542;1.3262;
1305.0000;0.4526;1.3262;
1305.3000;0.4501;1.3192;
1305.6000;0.4526;1.3262;
1305.9000;0.4510;1.3239;
1306.2000;0.4444;1.3145;
1306.5000;0.4550;1.3403;
1306.8000;0.4526;1.3450;
1307.1000;0.4510;1.3450;
1307.4000;0.4518;1.3450;
1307.7000;0.4526;1.3427;
1308.0000;0.4542;1.3427;
1308.3000;0.4526;1.3403;
1308.6000;0.4534;1.3474;
1308.9000;0.4501;1.3427;
1309.2000;0.4526;1.3474;
1309.5000;0.4526;1.3497;
1309.8000;0.4542;1.3544;
1310.1000;0.4534;1.3497;
1310.4000;0.4510;1.3450;
1310.7000;0.4510;1.3380;
1311.0000;0.4518;1.3356;
1311.3000;0.4542;1.3450;
1311.6000;0.4526;1.3427;
1311.9000;0.4518;1.3309;
1312.2000;0.4518;1.3286;
1312.5000;0.4550;1.3356;
1312.8000;0.4542;1.3450;
1313.1000;0.4542;1.3450;
1313.4000;0.4518;1.3333;
1313.7000;0.4534;1.3309;
1314.0000;0.4558;1.3286;
1314.3000;0.4526;1.3286;
1314.6000;0.4518;1.3286;
1314.9000;0.4567;1.3380;
1315.2000;0.4518;1.3333;
1315.5000;0.4518;1.3309;
1315.8000;0.4485;1.3192;
1316.1000;0.4534;1.3356;
1316.4000;0.4526;1.3356;
1316.7000;0.4526;1.3403;
1317.0000;0.4534;1.3403;
1317.3000;0.4461;1.3333;
1317.6000;0.4518;1.3450;
1317.9000;0.4526;1.3544;
1318.2000;0.4550;1.3614;
1318.5000;0.4518;1.3591;
1318.8000;0.4518;1.3497;
1319.1000;0.4542;1.3521;
1319.4000;0.4534;1.3474;
1319.7000;0.4526;1.3474;
1320.0000;0.4518;1.3403;
1320.3000;0.4510;1.3380;
1320.6000;0.4510;1.3356;
1320.9000;0.4550;1.3450;
1321.2000;0.4518;1.3427;
1321.5000;0.4534;1.3521;
1321.8000;0.4526;1.3614;
1322.1000;0.4518;1.3591;
1322.4000;0.4518;1.3497;
1322.7000;0.4526;1.3497;
1323.0000;0.4510;1.3333;
1323.3000;0.4510;1.3262;
1323.6000;0.4510;1.3262;
1323.9000;0.4510;1.3168;
1324.2000;0.4534;1.3192;
1324.5000;0.4542;1.3215;
1324.8000;0.4526;1.3239;
1325.1000;0.4485;1.3168;
1325.4000;0.4526;1.3286;
1325.7000;0.4510;1.3333;
1326.0000;0.4510;1.3286;
1326.3000;0.4534;1.3380;
1326.6000;0.4510;1.3309;
1326.9000;0.4542;1.3403;
1327.2000;0.4534;1.3450;
1327.5000;0.4510;1.3427;
1327.8000;0.4534;1.3403;
1328.1000;0.4534;1.3474;
1328.4000;0.4526;1.3544;
1328.7000;0.4542;1.3474;
1329.0000;0.4510;1.3380;
1329.3000;0.4526;1.3427;
1329.6000;0.4510;1.3497;
1329.9000;0.4469;1.3356;
1330.2000;0.4534;1.3497;
1330.5000;0.4534;1.3450;
1330.8000;0.4542;1.3544;
1331.1000;0.4518;1.3450;
1331.4000;0.4526;1.3474;
1331.7000;0.4526;1.3567;
1332.0000;0.4501;1.3474;
1332.3000;0.4526;1.3614;
1332.6000;0.4501;1.3567;
1332.9000;0.4526;1.3591;
1333.2000;0.4501;1.3567;
1333.5000;0.4550;1.3779;
1333.8000;0.4518;1.3826;
1334.1000;0.4518;1.3849;
1334.4000;0.4526;1.3802;
1334.7000;0.4550;1.3755;
1335.0000;0.4526;1.3732;
1335.3000;0.4518;1.3638;
1335.6000;0.4518;1.3661;
1335.9000;0.4534;1.3638;
1336.2000;0.4526;1.3638;
1336.5000;0.4518;1.3638;
1336.8000;0.4518;1.3614;
1337.1000;0.4526;1.3661;
1337.4000;0.4526;1.3708;
1337.7000;0.4526;1.3755;
1338.0000;0.4518;1.3732;
1338.3000;0.4526;1.3732;
1338.6000;0.4518;1.3732;
1338.9000;0.4550;1.3779;
1339.2000;0.4428;1.3450;
1339.5000;0.4501;1.3567;
1339.8000;0.4534;1.3497;
1340.1000;0.4518;1.3521;
1340.4000;0.4518;1.3544;
1340.7000;0.4518;1.3544;
1341.0000;0.4518;1.3591;
1341.3000;0.4526;1.3638;
1341.6000;0.4510;1.3614;
1341.9000;0.4510;1.3661;
1342.2000;0.4518;1.3638;
1342.5000;0.4534;1.3685;
1342.8000;0.4518;1.3708;
1343.1000;0.4518;1.3685;
1343.4000;0.4518;1.3732;
1343.7000;0.4518;1.3779;
1344.0000;0.4501;1.3638;
1344.3000;0.4526;1.3755;
1344.6000;0.4518;1.3802;
1344.9000;0.4501;1.3755;
1345.2000;0.4518;1.3826;
1345.5000;0.4526;1.3779;
1345.8000;0.4518;1.3732;
1346.1000;0.4510;1.3708;
1346.4000;0.4534;1.3802;
1346.7000;0.4526;1.3802;
1347.0000;0.4526;1.3732;
1347.3000;0.4518;1.3638;
1347.6000;0.4534;1.3755;
1347.9000;0.4501;1.3685;
1348.2000;0.4591;1.3896;
1348.5000;0.4510;1.3591;
1348.8000;0.4526;1.3544;
1349.1000;0.4534;1.3450;
1349.4000;0.4534;1.3497;
1349.7000;0.4526;1.3427;
1350.0000;0.4526;1.3521;
1350.3000;0.4542;1.3497;
1350.6000;0.4542;1.3544;
1350.9000;0.4518;1.3474;
1351.2000;0.4534;1.3497;
1351.5000;0.4534;1.3638;
1351.8000;0.4542;1.3685;
1352.1000;0.4550;1.3732;
1352.4000;0.4534;1.3708;
1352.7000;0.4542;1.3732;
1353.0000;0.4518;1.3638;
1353.3000;0.4534;1.3614;
1353.6000;0.4526;1.3474;
1353.9000;0.4485;1.3380;
1354.2000;0.4526;1.3474;
1354.5000;0.4485;1.3333;
1354.8000;0.4510;1.3403;
1355.1000;0.4526;1.3474;
1355.4000;0.4510;1.3450;
1355.7000;0.4534;1.3497;
1356.0000;0.4510;1.3427;
1356.3000;0.4526;1.3474;
1356.6000;0.4477;1.3356;
1356.9000;0.4526;1.3521;
1357.2000;0.4518;1.3521;
1357.5000;0.4526;1.3544;
1357.8000;0.4526;1.3591;
1358.1000;0.4542;1.3638;
1358.4000;0.4485;1.3567;
1358.7000;0.4510;1.3614;
1359.0000;0.4542;1.3614;
1359.3000;0.4526;1.3591;
1359.6000;0.4501;1.3544;
1359.9000;0.4526;1.3614;
1360.2000;0.4518;1.3567;
1360.5000;0.4518;1.3544;
1360.8000;0.4542;1.3497;
1361.1000;0.4510;1.3521;
1361.4000;0.4534;1.3591;
1361.7000;0.4526;1.3544;
1362.0000;0.4534;1.3521;
1362.3000;0.4526;1.3544;
1362.6000;0.4518;1.3567;
1362.9000;0.4526;1.3567;
1363.2000;0.4510;1.3544;
1363.5000;0.4526;1.3544;
1363.8000;0.4518;1.3474;
1364.1000;0.4518;1.3567;
1364.4000;0.4510;1.3567;
1364.7000;0.4510;1.3591;
1365.0000;0.4518;1.3685;
1365.3000;0.4534;1.3685;
1365.6000;0.4542;1.3661;
1365.9000;0.4542;1.3638;
1366.2000;0.4526;1.3638;
1366.5000;0.4526;1.3638;
1366.8000;0.4518;1.3591;
1367.1000;0.4510;1.3638;
1367.4000;0.4526;1.3661;
1367.7000;0.4526;1.3614;
1368.0000;0.4542;1.3638;
1368.3000;0.4534;1.3591;
1368.6000;0.4526;1.3497;
1368.9000;0.4550;1.3544;
1369.2000;0.4510;1.3474;
1369.5000;0.4534;1.3497;
1369.8000;0.4518;1.3333;
1370.1000;0.4534;1.3403;
1370.4000;0.4510;1.3427;
1370.7000;0.4542;1.3544;
1371.0000;0.4510;1.3497;
1371.3000;0.4518;1.3567;
1371.6000;0.4526;1.3544;
1371.9000;0.4534;1.3497;
1372.2000;0.4534;1.3497;
1372.5000;0.4550;1.3521;
1372.8000;0.4550;1.3521;
1373.1000;0.4558;1.3521;
1373.4000;0.4477;1.3380;
1373.7000;0.4518;1.3403;
1374.0000;0.4510;1.3309;
1374.3000;0.4420;1.3145;
1374.6000;0.4550;1.3544;
1374.9000;0.4518;1.3591;
1375.2000;0.4510;1.3638;
1375.5000;0.4510;1.3661;
1375.8000;0.4518;1.3638;
1376.1000;0.4526;1.3661;
1376.4000;0.4526;1.3638;
1376.7000;0.4501;1.3567;
1377.0000;0.4485;1.3474;
1377.3000;0.4534;1.3521;
1377.6000;0.4526;1.3521;
1377.9000;0.4510;1.3474;
1378.2000;0.4518;1.3427;
1378.5000;0.4526;1.3450;
1378.8000;0.4518;1.3521;
1379.1000;0.4477;1.3309;
1379.4000;0.4501;1.3309;
1379.7000;0.4493;1.3333;
1380.0000;0.4518;1.3403;
1380.3000;0.4510;1.3427;
1380.6000;0.4518;1.3450;
1380.9000;0.4510;1.3427;
1381.2000;0.4526;1.3474;
1381.5000;0.4558;1.3614;
1381.8000;0.4493;1.3474;
1382.1000;0.4526;1.3614;
1382.4000;0.4518;1.3521;
1382.7000;0.4493;1.3450;
1383.0000;0.4526;1.3591;
1383.3000;0.4518;1.3544;
1383.6000;0.4518;1.3544;
1383.9000;0.4526;1.3544;
1384.2000;0.4534;1.3521;
1384.5000;0.4526;1.3497;
1384.8000;0.4542;1.3521;
1385.1000;0.4534;1.3474;
1385.4000;0.4526;1.3521;
1385.7000;0.4526;1.3544;
1386.0000;0.4542;1.3591;
1386.3000;0.4518;1.3474;
1386.6000;0.4542;1.3544;
1386.9000;0.4518;1.3427;
1387.2000;0.4485;1.3309;
1387.5000;0.4534;1.3356;
1387.8000;0.4534;1.3309;
1388.1000;0.4510;1.3192;
1388.4000;0.4534;1.3239;
1388.7000;0.4542;1.3262;
1389.0000;0.4518;1.3333;
1389.3000;0.4526;1.3380;
1389.6000;0.4485;1.3309;
1389.9000;0.4510;1.3380;
1390.2000;0.4534;1.3333;
1390.5000;0.4453;1.3098;
1390.8000;0.4518;1.3239;
1391.1000;0.4501;1.3192;
1391.4000;0.4518;1.3239;
1391.7000;0.4526;1.3286;
1392.0000;0.4534;1.3309;
1392.3000;0.4518;1.3262;
1392.6000;0.4526;1.3333;
1392.9000;0.4534;1.3380;
1393.2000;0.4518;1.3427;
1393.5000;0.4575;1.3614;
1393.8000;0.4518;1.3333;
1394.1000;0.4575;1.3497;
1394.4000;0.4567;1.3521;
1394.7000;0.4518;1.3450;
1395.0000;0.4526;1.3450;
1395.3000;0.4534;1.3427;
1395.6000;0.4485;1.3333;
1395.9000;0.4526;1.3497;
1396.2000;0.4510;1.3474;
1396.5000;0.4510;1.3474;
1396.8000;0.4510;1.3497;
1397.1000;0.4518;1.3521;
1397.4000;0.4510;1.3380;
1397.7000;0.4518;1.3333;
1398.0000;0.4510;1.3333;
1398.3000;0.4518;1.3380;
1398.6000;0.4453;1.3239;
1398.9000;0.4518;1.3427;
1399.2000;0.4526;1.3544;
1399.5000;0.4526;1.3544;
1399.8000;0.4518;1.3497;
