time/ms;Fluo/V;P700 deltaI/I x10³;
-199.8000;0.5258;1.2018;
-199.5000;0.5267;1.1995;
-199.2000;0.5250;1.2018;
-198.9000;0.5275;1.2065;
-198.6000;0.5242;1.2018;
-198.3000;0.5242;1.1924;
-198.0000;0.5250;1.2065;
-197.7000;0.5267;1.2042;
-197.4000;0.5242;1.1971;
-197.1000;0.5242;1.1924;
-196.8000;0.5234;1.1924;
-196.5000;0.5242;1.1877;
-196.2000;0.5234;1.1877;
-195.9000;0.5250;1.1901;
-195.6000;0.5258;1.1971;
-195.3000;0.5258;1.1948;
-195.0000;0.5234;1.1948;
-194.7000;0.5258;1.2042;
-194.4000;0.5250;1.2018;
-194.1000;0.5258;1.2136;
-193.8000;0.5258;1.2042;
-193.5000;0.5283;1.2136;
-193.2000;0.5250;1.2042;
-192.9000;0.5267;1.2042;
-192.6000;0.5258;1.2042;
-192.3000;0.5315;1.2159;
-192.0000;0.5242;1.1995;
-191.7000;0.5258;1.2018;
-191.4000;0.5169;1.1807;
-191.1000;0.5258;1.2018;
-190.8000;0.5234;1.1901;
-190.5000;0.5267;1.2042;
-190.2000;0.5250;1.1971;
-189.9000;0.5267;1.2089;
-189.6000;0.5242;1.2018;
-189.3000;0.5258;1.1995;
-189.0000;0.5267;1.2042;
-188.7000;0.5250;1.2018;
-188.4000;0.5299;1.2089;
-188.1000;0.5275;1.2112;
-187.8000;0.5267;1.2018;
-187.5000;0.5258;1.2065;
-187.2000;0.5250;1.2159;
-186.9000;0.5234;1.2089;
-186.6000;0.5250;1.2159;
-186.3000;0.5242;1.2042;
-186.0000;0.5242;1.1948;
-185.7000;0.5218;1.1877;
-185.4000;0.5250;1.1995;
-185.1000;0.5258;1.1995;
-184.8000;0.5250;1.1901;
-184.5000;0.5226;1.1807;
-184.2000;0.5250;1.1854;
-183.9000;0.5275;1.1971;
-183.6000;0.5267;1.1877;
-183.3000;0.5291;1.1924;
-183.0000;0.5267;1.1924;
-182.7000;0.5291;1.1971;
-182.4000;0.5283;1.1924;
-182.1000;0.5258;1.1784;
-181.8000;0.5218;1.1784;
-181.5000;0.5275;1.1877;
-181.2000;0.5275;1.1948;
-180.9000;0.5275;1.1948;
-180.6000;0.5250;1.1901;
-180.3000;0.5275;1.2042;
-180.0000;0.5267;1.2018;
-179.7000;0.5275;1.1971;
-179.4000;0.5250;1.1948;
-179.1000;0.5250;1.1901;
-178.8000;0.5275;1.2018;
-178.5000;0.5258;1.1948;
-178.2000;0.5283;1.1948;
-177.9000;0.5291;1.2065;
-177.6000;0.5267;1.2112;
-177.3000;0.5258;1.2089;
-177.0000;0.5177;1.1807;
-176.7000;0.5283;1.2089;
-176.4000;0.5267;1.2136;
-176.1000;0.5299;1.2136;
-175.8000;0.5291;1.2136;
-175.5000;0.5267;1.2042;
-175.2000;0.5283;1.2065;
-174.9000;0.5250;1.1995;
-174.6000;0.5283;1.2136;
-174.3000;0.5267;1.2089;
-174.0000;0.5267;1.2112;
-173.7000;0.5267;1.2089;
-173.4000;0.5275;1.2042;
-173.1000;0.5267;1.2018;
-172.8000;0.5275;1.2112;
-172.5000;0.5283;1.2136;
-172.2000;0.5291;1.2276;
-171.9000;0.5299;1.2347;
-171.6000;0.5291;1.2417;
-171.3000;0.5275;1.2441;
-171.0000;0.5299;1.2511;
-170.7000;0.5283;1.2417;
-170.4000;0.5299;1.2441;
-170.1000;0.5283;1.2323;
-169.8000;0.5275;1.2206;
-169.5000;0.5275;1.2089;
-169.2000;0.5283;1.2018;
-168.9000;0.5267;1.1971;
-168.6000;0.5258;1.1995;
-168.3000;0.5258;1.2065;
-168.0000;0.5275;1.2042;
-167.7000;0.5267;1.1995;
-167.4000;0.5299;1.2065;
-167.1000;0.5291;1.2042;
-166.8000;0.5291;1.2065;
-166.5000;0.5299;1.2136;
-166.2000;0.5299;1.2136;
-165.9000;0.5307;1.2159;
-165.6000;0.5299;1.2183;
-165.3000;0.5307;1.2206;
-165.0000;0.5299;1.2136;
-164.7000;0.5307;1.2112;
-164.4000;0.5389;1.2323;
-164.1000;0.5258;1.1924;
-163.8000;0.5291;1.1971;
-163.5000;0.5218;1.1877;
-163.2000;0.5250;1.2112;
-162.9000;0.5299;1.2159;
-162.6000;0.5283;1.2159;
-162.3000;0.5193;1.1901;
-162.0000;0.5299;1.2112;
-161.7000;0.5299;1.1995;
-161.4000;0.5291;1.2018;
-161.1000;0.5299;1.2112;
-160.8000;0.5315;1.2136;
-160.5000;0.5299;1.2159;
-160.2000;0.5291;1.2136;
-159.9000;0.5291;1.2065;
-159.6000;0.5283;1.2018;
-159.3000;0.5307;1.2089;
-159.0000;0.5315;1.2112;
-158.7000;0.5291;1.2065;
-158.4000;0.5307;1.2065;
-158.1000;0.5267;1.2065;
-157.8000;0.5299;1.2136;
-157.5000;0.5291;1.2159;
-157.2000;0.5291;1.2183;
-156.9000;0.5315;1.2136;
-156.6000;0.5307;1.2159;
-156.3000;0.5291;1.2042;
-156.0000;0.5267;1.1901;
-155.7000;0.5299;1.2018;
-155.4000;0.5332;1.2136;
-155.1000;0.5307;1.2042;
-154.8000;0.5299;1.1971;
-154.5000;0.5307;1.1924;
-154.2000;0.5324;1.1924;
-153.9000;0.5307;1.1901;
-153.6000;0.5332;1.1948;
-153.3000;0.5299;1.1877;
-153.0000;0.5315;1.1877;
-152.7000;0.5307;1.1901;
-152.4000;0.5307;1.1877;
-152.1000;0.5283;1.1924;
-151.8000;0.5332;1.2065;
-151.5000;0.5324;1.2089;
-151.2000;0.5324;1.2042;
-150.9000;0.5324;1.2042;
-150.6000;0.5299;1.2042;
-150.3000;0.5299;1.2065;
-150.0000;0.5291;1.2018;
-149.7000;0.5307;1.2018;
-149.4000;0.5299;1.2018;
-149.1000;0.5332;1.2018;
-148.8000;0.5324;1.1971;
-148.5000;0.5307;1.1971;
-148.2000;0.5299;1.1924;
-147.9000;0.5299;1.1924;
-147.6000;0.5307;1.1901;
-147.3000;0.5299;1.1830;
-147.0000;0.5307;1.1760;
-146.7000;0.5332;1.1784;
-146.4000;0.5332;1.1713;
-146.1000;0.5315;1.1760;
-145.8000;0.5348;1.1830;
-145.5000;0.5332;1.1830;
-145.2000;0.5275;1.1690;
-144.9000;0.5307;1.1784;
-144.6000;0.5324;1.1760;
-144.3000;0.5324;1.1760;
-144.0000;0.5340;1.1784;
-143.7000;0.5332;1.1854;
-143.4000;0.5332;1.1830;
-143.1000;0.5315;1.1877;
-142.8000;0.5389;1.2065;
-142.5000;0.5348;1.1995;
-142.2000;0.5315;1.1877;
-141.9000;0.5307;1.1877;
-141.6000;0.5315;1.1924;
-141.3000;0.5250;1.1784;
-141.0000;0.5324;1.2065;
-140.7000;0.5299;1.1995;
-140.4000;0.5340;1.2065;
-140.1000;0.5324;1.2018;
-139.8000;0.5340;1.2089;
-139.5000;0.5372;1.2042;
-139.2000;0.5356;1.1971;
-138.9000;0.5324;1.1877;
-138.6000;0.5332;1.1854;
-138.3000;0.5267;1.1713;
-138.0000;0.5348;1.1948;
-137.7000;0.5332;1.1901;
-137.4000;0.5340;1.2018;
-137.1000;0.5348;1.2042;
-136.8000;0.5332;1.1995;
-136.5000;0.5315;1.1948;
-136.2000;0.5324;1.1924;
-135.9000;0.5324;1.1901;
-135.6000;0.5454;1.2206;
-135.3000;0.5332;1.1807;
-135.0000;0.5332;1.1854;
-134.7000;0.5348;1.2018;
-134.4000;0.5340;1.2018;
-134.1000;0.5340;1.2018;
-133.8000;0.5348;1.2042;
-133.5000;0.5348;1.1971;
-133.2000;0.5356;1.2018;
-132.9000;0.5340;1.2018;
-132.6000;0.5438;1.2183;
-132.3000;0.5348;1.1948;
-132.0000;0.5324;1.1901;
-131.7000;0.5332;1.1924;
-131.4000;0.5340;1.1971;
-131.1000;0.5340;1.1971;
-130.8000;0.5340;1.1924;
-130.5000;0.5348;1.1877;
-130.2000;0.5340;1.1877;
-129.9000;0.5324;1.1901;
-129.6000;0.5348;1.1877;
-129.3000;0.5340;1.1854;
-129.0000;0.5340;1.1924;
-128.7000;0.5332;1.1924;
-128.4000;0.5356;1.1948;
-128.1000;0.5364;1.2089;
-127.8000;0.5348;1.2042;
-127.5000;0.5389;1.2112;
-127.2000;0.5332;1.1948;
-126.9000;0.5413;1.2206;
-126.6000;0.5348;1.1948;
-126.3000;0.5356;1.1948;
-126.0000;0.5356;1.1924;
-125.7000;0.5372;1.1901;
-125.4000;0.5332;1.1830;
-125.1000;0.5348;1.1830;
-124.8000;0.5348;1.1830;
-124.5000;0.5348;1.1760;
-124.2000;0.5364;1.1830;
-123.9000;0.5364;1.1877;
-123.6000;0.5356;1.1901;
-123.3000;0.5372;1.1877;
-123.0000;0.5381;1.1901;
-122.7000;0.5332;1.1760;
-122.4000;0.5356;1.1924;
-122.1000;0.5381;1.1995;
-121.8000;0.5356;1.1995;
-121.5000;0.5364;1.1924;
-121.2000;0.5364;1.1948;
-120.9000;0.5356;1.1924;
-120.6000;0.5250;1.1713;
-120.3000;0.5372;1.2018;
-120.0000;0.5381;1.2112;
-119.7000;0.5356;1.2112;
-119.4000;0.5381;1.2159;
-119.1000;0.5364;1.2018;
-118.8000;0.5364;1.2018;
-118.5000;0.5372;1.1995;
-118.2000;0.5364;1.1901;
-117.9000;0.5348;1.1830;
-117.6000;0.5381;1.1924;
-117.3000;0.5364;1.1924;
-117.0000;0.5372;1.1877;
-116.7000;0.5389;1.1995;
-116.4000;0.5372;1.1971;
-116.1000;0.5372;1.1971;
-115.8000;0.5372;1.1877;
-115.5000;0.5462;1.2089;
-115.2000;0.5372;1.1877;
-114.9000;0.5397;1.1971;
-114.6000;0.5364;1.1784;
-114.3000;0.5381;1.1854;
-114.0000;0.5405;1.1877;
-113.7000;0.5381;1.1877;
-113.4000;0.5381;1.1924;
-113.1000;0.5397;1.1995;
-112.8000;0.5462;1.2183;
-112.5000;0.5389;1.1995;
-112.2000;0.5381;1.2065;
-111.9000;0.5389;1.2042;
-111.6000;0.5397;1.2042;
-111.3000;0.5389;1.1995;
-111.0000;0.5381;1.1995;
-110.7000;0.5381;1.1901;
-110.4000;0.5364;1.1901;
-110.1000;0.5275;1.1737;
-109.8000;0.5381;1.1948;
-109.5000;0.5291;1.1760;
-109.2000;0.5372;1.2018;
-108.9000;0.5381;1.2018;
-108.6000;0.5446;1.2159;
-108.3000;0.5389;1.2065;
-108.0000;0.5397;1.1971;
-107.7000;0.5389;1.1948;
-107.4000;0.5389;1.1971;
-107.1000;0.5397;1.1901;
-106.8000;0.5462;1.1995;
-106.5000;0.5429;1.1948;
-106.2000;0.5397;1.1877;
-105.9000;0.5381;1.1877;
-105.6000;0.5389;1.1901;
-105.3000;0.5405;1.1971;
-105.0000;0.5389;1.1995;
-104.7000;0.5340;1.1901;
-104.4000;0.5397;1.1924;
-104.1000;0.5381;1.1877;
-103.8000;0.5405;1.1830;
-103.5000;0.5332;1.1666;
-103.2000;0.5381;1.1877;
-102.9000;0.5478;1.2042;
-102.6000;0.5413;1.1830;
-102.3000;0.5405;1.1760;
-102.0000;0.5405;1.1760;
-101.7000;0.5421;1.1784;
-101.4000;0.5421;1.1830;
-101.1000;0.5413;1.1877;
-100.8000;0.5421;1.1948;
-100.5000;0.5413;1.1971;
-100.2000;0.5421;1.2018;
-99.9000;0.5389;1.1924;
-99.6000;0.5413;1.1948;
-99.3000;0.5405;1.1784;
-99.0000;0.5413;1.1854;
-98.7000;0.5421;1.1901;
-98.4000;0.5413;1.1877;
-98.1000;0.5389;1.1760;
-97.8000;0.5389;1.1807;
-97.5000;0.5405;1.1877;
-97.2000;0.5421;1.2065;
-96.9000;0.5405;1.2112;
-96.6000;0.5413;1.2042;
-96.3000;0.5421;1.2018;
-96.0000;0.5405;1.1995;
-95.7000;0.5421;1.1971;
-95.4000;0.5429;1.1995;
-95.1000;0.5429;1.1995;
-94.8000;0.5413;1.1948;
-94.5000;0.5405;1.1924;
-94.2000;0.5421;1.1948;
-93.9000;0.5389;1.1807;
-93.6000;0.5413;1.1807;
-93.3000;0.5397;1.1713;
-93.0000;0.5397;1.1666;
-92.7000;0.5413;1.1713;
-92.4000;0.5413;1.1737;
-92.1000;0.5397;1.1760;
-91.8000;0.5421;1.1830;
-91.5000;0.5429;1.1901;
-91.2000;0.5413;1.1924;
-90.9000;0.5429;1.1854;
-90.6000;0.5446;1.1854;
-90.3000;0.5421;1.1807;
-90.0000;0.5446;1.1854;
-89.7000;0.5462;1.1924;
-89.4000;0.5462;1.1901;
-89.1000;0.5413;1.1760;
-88.8000;0.5429;1.1784;
-88.5000;0.5397;1.1807;
-88.2000;0.5315;1.1572;
-87.9000;0.5405;1.1854;
-87.6000;0.5332;1.1690;
-87.3000;0.5438;1.1924;
-87.0000;0.5446;1.1924;
-86.7000;0.5421;1.1784;
-86.4000;0.5421;1.1666;
-86.1000;0.5389;1.1690;
-85.8000;0.5421;1.1713;
-85.5000;0.5446;1.1713;
-85.2000;0.5429;1.1713;
-84.9000;0.5429;1.1666;
-84.6000;0.5454;1.1807;
-84.3000;0.5454;1.1854;
-84.0000;0.5446;1.1877;
-83.7000;0.5413;1.1784;
-83.4000;0.5421;1.1760;
-83.1000;0.5446;1.1807;
-82.8000;0.5429;1.1713;
-82.5000;0.5429;1.1737;
-82.2000;0.5438;1.1760;
-81.9000;0.5397;1.1666;
-81.6000;0.5429;1.1807;
-81.3000;0.5421;1.1760;
-81.0000;0.5446;1.1760;
-80.7000;0.5438;1.1737;
-80.4000;0.5446;1.1666;
-80.1000;0.5438;1.1525;
-79.8000;0.5421;1.1525;
-79.5000;0.5438;1.1572;
-79.2000;0.5446;1.1525;
-78.9000;0.5429;1.1525;
-78.6000;0.5438;1.1525;
-78.3000;0.5405;1.1408;
-78.0000;0.5454;1.1525;
-77.7000;0.5454;1.1596;
-77.4000;0.5478;1.1549;
-77.1000;0.5470;1.1478;
-76.8000;0.5446;1.1525;
-76.5000;0.5446;1.1502;
-76.2000;0.5438;1.1455;
-75.9000;0.5454;1.1478;
-75.6000;0.5454;1.1549;
-75.3000;0.5454;1.1572;
-75.0000;0.5454;1.1619;
-74.7000;0.5438;1.1713;
-74.4000;0.5454;1.1854;
-74.1000;0.5470;1.1830;
-73.8000;0.5446;1.1713;
-73.5000;0.5438;1.1784;
-73.2000;0.5462;1.1760;
-72.9000;0.5462;1.1760;
-72.6000;0.5486;1.1830;
-72.3000;0.5470;1.1807;
-72.0000;0.5470;1.1760;
-71.7000;0.5470;1.1807;
-71.4000;0.5405;1.1666;
-71.1000;0.5478;1.1760;
-70.8000;0.5446;1.1643;
-70.5000;0.5462;1.1549;
-70.2000;0.5454;1.1572;
-69.9000;0.5446;1.1478;
-69.6000;0.5462;1.1361;
-69.3000;0.5478;1.1384;
-69.0000;0.5478;1.1431;
-68.7000;0.5470;1.1384;
-68.4000;0.5568;1.1666;
-68.1000;0.5470;1.1408;
-67.8000;0.5470;1.1478;
-67.5000;0.5462;1.1314;
-67.2000;0.5535;1.1455;
-66.9000;0.5462;1.1244;
-66.6000;0.5470;1.1267;
-66.3000;0.5470;1.1338;
-66.0000;0.5478;1.1408;
-65.7000;0.5470;1.1478;
-65.4000;0.5486;1.1525;
-65.1000;0.5462;1.1502;
-64.8000;0.5470;1.1525;
-64.5000;0.5495;1.1549;
-64.2000;0.5478;1.1549;
-63.9000;0.5519;1.1690;
-63.6000;0.5535;1.1619;
-63.3000;0.5495;1.1455;
-63.0000;0.5511;1.1408;
-62.7000;0.5495;1.1431;
-62.4000;0.5478;1.1525;
-62.1000;0.5470;1.1572;
-61.8000;0.5495;1.1596;
-61.5000;0.5478;1.1525;
-61.2000;0.5486;1.1478;
-60.9000;0.5511;1.1572;
-60.6000;0.5503;1.1572;
-60.3000;0.5503;1.1572;
-60.0000;0.5495;1.1572;
-59.7000;0.5478;1.1572;
-59.4000;0.5486;1.1596;
-59.1000;0.5495;1.1643;
-58.8000;0.5495;1.1619;
-58.5000;0.5495;1.1596;
-58.2000;0.5495;1.1619;
-57.9000;0.5486;1.1596;
-57.6000;0.5495;1.1572;
-57.3000;0.5486;1.1572;
-57.0000;0.5503;1.1572;
-56.7000;0.5478;1.1455;
-56.4000;0.5495;1.1455;
-56.1000;0.5462;1.1384;
-55.8000;0.5486;1.1408;
-55.5000;0.5503;1.1338;
-55.2000;0.5470;1.1244;
-54.9000;0.5511;1.1338;
-54.6000;0.5511;1.1338;
-54.3000;0.5503;1.1314;
-54.0000;0.5495;1.1291;
-53.7000;0.5527;1.1384;
-53.4000;0.5519;1.1431;
-53.1000;0.5511;1.1478;
-52.8000;0.5503;1.1525;
-52.5000;0.5503;1.1502;
-52.2000;0.5503;1.1431;
-51.9000;0.5495;1.1455;
-51.6000;0.5478;1.1361;
-51.3000;0.5503;1.1384;
-51.0000;0.5519;1.1408;
-50.7000;0.5527;1.1408;
-50.4000;0.5495;1.1408;
-50.1000;0.5495;1.1431;
-49.8000;0.5503;1.1361;
-49.5000;0.5527;1.1408;
-49.2000;0.5503;1.1338;
-48.9000;0.5495;1.1291;
-48.6000;0.5519;1.1455;
-48.3000;0.5543;1.1502;
-48.0000;0.5543;1.1502;
-47.7000;0.5527;1.1455;
-47.4000;0.5535;1.1478;
-47.1000;0.5527;1.1431;
-46.8000;0.5519;1.1455;
-46.5000;0.5511;1.1431;
-46.2000;0.5527;1.1502;
-45.9000;0.5527;1.1502;
-45.6000;0.5527;1.1502;
-45.3000;0.5511;1.1478;
-45.0000;0.5503;1.1478;
-44.7000;0.5543;1.1525;
-44.4000;0.5519;1.1478;
-44.1000;0.5511;1.1455;
-43.8000;0.5511;1.1455;
-43.5000;0.5495;1.1478;
-43.2000;0.5543;1.1572;
-42.9000;0.5543;1.1596;
-42.6000;0.5511;1.1549;
-42.3000;0.5511;1.1549;
-42.0000;0.5527;1.1549;
-41.7000;0.5535;1.1596;
-41.4000;0.5527;1.1502;
-41.1000;0.5519;1.1549;
-40.8000;0.5527;1.1596;
-40.5000;0.5592;1.1760;
-40.2000;0.5519;1.1596;
-39.9000;0.5511;1.1596;
-39.6000;0.5649;1.1901;
-39.3000;0.5519;1.1525;
-39.0000;0.5592;1.1713;
-38.7000;0.5478;1.1361;
-38.4000;0.5543;1.1478;
-38.1000;0.5535;1.1455;
-37.8000;0.5535;1.1361;
-37.5000;0.5519;1.1244;
-37.2000;0.5511;1.1361;
-36.9000;0.5535;1.1361;
-36.6000;0.5551;1.1361;
-36.3000;0.5527;1.1244;
-36.0000;0.5535;1.1267;
-35.7000;0.5543;1.1220;
-35.4000;0.5535;1.1244;
-35.1000;0.5543;1.1267;
-34.8000;0.5527;1.1291;
-34.5000;0.5543;1.1338;
-34.2000;0.5519;1.1314;
-33.9000;0.5543;1.1338;
-33.6000;0.5535;1.1408;
-33.3000;0.5519;1.1361;
-33.0000;0.5503;1.1314;
-32.7000;0.5543;1.1455;
-32.4000;0.5535;1.1525;
-32.1000;0.5608;1.1784;
-31.8000;0.5551;1.1619;
-31.5000;0.5535;1.1596;
-31.2000;0.5527;1.1549;
-30.9000;0.5551;1.1643;
-30.6000;0.5543;1.1596;
-30.3000;0.5568;1.1596;
-30.0000;0.5543;1.1572;
-29.7000;0.5503;1.1478;
-29.4000;0.5568;1.1690;
-29.1000;0.5519;1.1596;
-28.8000;0.5543;1.1643;
-28.5000;0.5527;1.1549;
-28.2000;0.5535;1.1549;
-27.9000;0.5560;1.1619;
-27.6000;0.5535;1.1549;
-27.3000;0.5527;1.1525;
-27.0000;0.5543;1.1502;
-26.7000;0.5543;1.1502;
-26.4000;0.5543;1.1478;
-26.1000;0.5543;1.1502;
-25.8000;0.5551;1.1549;
-25.5000;0.5551;1.1572;
-25.2000;0.5551;1.1619;
-24.9000;0.5560;1.1619;
-24.6000;0.5535;1.1619;
-24.3000;0.5535;1.1572;
-24.0000;0.5560;1.1572;
-23.7000;0.5568;1.1760;
-23.4000;0.5551;1.1713;
-23.1000;0.5535;1.1737;
-22.8000;0.5495;1.1549;
-22.5000;0.5584;1.1737;
-22.2000;0.5543;1.1666;
-21.9000;0.5543;1.1737;
-21.6000;0.5568;1.1784;
-21.3000;0.5551;1.1690;
-21.0000;0.5560;1.1690;
-20.7000;0.5608;1.1760;
-20.4000;0.5674;1.1948;
-20.1000;0.5560;1.1572;
-19.8000;0.5560;1.1619;
-19.5000;0.5543;1.1549;
-19.2000;0.5584;1.1619;
-18.9000;0.5551;1.1572;
-18.6000;0.5495;1.1478;
-18.3000;0.5592;1.1666;
-18.0000;0.5551;1.1596;
-17.7000;0.5568;1.1713;
-17.4000;0.5560;1.1760;
-17.1000;0.5560;1.1854;
-16.8000;0.5543;1.1830;
-16.5000;0.5543;1.1877;
-16.2000;0.5560;1.1877;
-15.9000;0.5519;1.1830;
-15.6000;0.5674;1.2112;
-15.3000;0.5551;1.1924;
-15.0000;0.5527;1.1877;
-14.7000;0.5560;1.1854;
-14.4000;0.5543;1.1784;
-14.1000;0.5551;1.1784;
-13.8000;0.5560;1.1760;
-13.5000;0.5560;1.1737;
-13.2000;0.5568;1.1713;
-12.9000;0.5560;1.1760;
-12.6000;0.5535;1.1760;
-12.3000;0.5543;1.1737;
-12.0000;0.5568;1.1784;
-11.7000;0.5551;1.1784;
-11.4000;0.5551;1.1760;
-11.1000;0.5568;1.1854;
-10.8000;0.5568;1.1877;
-10.5000;0.5576;1.1830;
-10.2000;0.5600;1.1971;
-9.9000;0.5560;1.1971;
-9.6000;0.5560;1.1971;
-9.3000;0.5560;1.1901;
-9.0000;0.5543;1.1854;
-8.7000;0.5576;1.1877;
-8.4000;0.5560;1.1784;
-8.1000;0.5592;1.1854;
-7.8000;0.5625;1.1901;
-7.5000;0.5576;1.1619;
-7.2000;0.5560;1.1572;
-6.9000;0.5576;1.1572;
-6.6000;0.5576;1.1596;
-6.3000;0.5600;1.1643;
-6.0000;0.5576;1.1596;
-5.7000;0.5576;1.1596;
-5.4000;0.5551;1.1572;
-5.1000;0.5568;1.1643;
-4.8000;0.5584;1.1713;
-4.5000;0.5576;1.1760;
-4.2000;0.5576;1.1784;
-3.9000;0.5568;1.1807;
-3.6000;0.5543;1.1713;
-3.3000;0.5576;1.1760;
-3.0000;0.5584;1.1807;
-2.7000;0.5576;1.1713;
-2.4000;0.5576;1.1737;
-2.1000;0.5584;1.1807;
-1.8000;0.5592;1.1924;
-1.5000;0.5584;1.1901;
-1.2000;0.5584;1.1901;
-0.9000;0.5568;1.1901;
-0.6000;0.5568;1.1877;
-0.3000;0.5568;1.1901;
0.0000;0.5568;1.1901;
0.3000;0.5836;1.1948;
0.6000;0.6260;1.2394;
0.9000;0.6610;1.2722;
1.2000;0.6878;1.3004;
1.5000;0.7082;1.3239;
1.8000;0.7277;1.3544;
2.1000;0.7448;1.3779;
2.4000;0.7586;1.3990;
2.7000;0.7668;1.4131;
3.0000;0.7757;1.4154;
3.3000;0.7847;1.4225;
3.6000;0.7904;1.4225;
3.9000;0.7977;1.4413;
4.2000;0.8018;1.4436;
4.5000;0.8067;1.4483;
4.8000;0.8116;1.4577;
5.1000;0.8156;1.4624;
5.4000;0.8083;1.4366;
5.7000;0.8213;1.4600;
6.0000;0.8278;1.4718;
6.3000;0.8164;1.4436;
6.6000;0.8221;1.4389;
6.9000;0.8246;1.4553;
7.2000;0.8344;1.4859;
7.5000;0.8368;1.4905;
7.8000;0.8384;1.4929;
8.1000;0.8376;1.4882;
8.4000;0.8400;1.4859;
8.7000;0.8433;1.4859;
9.0000;0.8433;1.4765;
9.3000;0.8425;1.4765;
9.6000;0.8449;1.4765;
9.9000;0.8474;1.4765;
10.2000;0.8482;1.4812;
10.5000;0.8498;1.4812;
10.8000;0.8523;1.4835;
11.1000;0.8531;1.4859;
11.4000;0.8514;1.4835;
11.7000;0.8523;1.4765;
12.0000;0.8523;1.4741;
12.3000;0.8571;1.4812;
12.6000;0.8571;1.4812;
12.9000;0.8580;1.4788;
13.2000;0.8628;1.4812;
13.5000;0.8580;1.4671;
13.8000;0.8612;1.4600;
14.1000;0.8523;1.4459;
14.4000;0.8604;1.4671;
14.7000;0.8596;1.4624;
15.0000;0.8637;1.4647;
15.3000;0.8547;1.4530;
15.6000;0.8620;1.4624;
15.9000;0.8645;1.4624;
16.2000;0.8645;1.4647;
16.5000;0.8645;1.4553;
16.8000;0.8669;1.4483;
17.1000;0.8685;1.4624;
17.4000;0.8677;1.4694;
17.7000;0.8694;1.4671;
18.0000;0.8702;1.4600;
18.3000;0.8694;1.4530;
18.6000;0.8710;1.4553;
18.9000;0.8726;1.4624;
19.2000;0.8734;1.4741;
19.5000;0.8710;1.4718;
19.8000;0.8726;1.4741;
20.1000;0.8702;1.4741;
20.4000;0.8718;1.4765;
20.7000;0.8726;1.4812;
21.0000;0.8710;1.4835;
21.3000;0.8742;1.4859;
21.6000;0.8734;1.4835;
21.9000;0.8734;1.4765;
22.2000;0.8726;1.4741;
22.5000;0.8783;1.4835;
22.8000;0.8775;1.4765;
23.1000;0.8759;1.4835;
23.4000;0.8742;1.4929;
23.7000;0.8751;1.4905;
24.0000;0.8759;1.4859;
24.3000;0.8759;1.4718;
24.6000;0.8791;1.4718;
24.9000;0.8783;1.4671;
25.2000;0.8799;1.4694;
25.5000;0.8734;1.4600;
25.8000;0.8905;1.5046;
26.1000;0.8791;1.4671;
26.4000;0.8816;1.4812;
26.7000;0.8799;1.4812;
27.0000;0.8799;1.4765;
27.3000;0.8840;1.4859;
27.6000;0.8807;1.4788;
27.9000;0.8620;1.4413;
28.2000;0.8816;1.4859;
28.5000;0.8824;1.4835;
28.8000;0.8824;1.4882;
29.1000;0.8840;1.4905;
29.4000;0.8832;1.4835;
29.7000;0.8824;1.4765;
30.0000;0.8856;1.4671;
30.3000;0.8832;1.4553;
30.6000;0.8840;1.4577;
30.9000;0.8840;1.4624;
31.2000;0.8840;1.4553;
31.5000;0.8848;1.4577;
31.8000;0.8848;1.4553;
32.1000;0.8848;1.4530;
32.4000;0.8832;1.4553;
32.7000;0.8848;1.4694;
33.0000;0.8921;1.4976;
33.3000;0.8856;1.4835;
33.6000;0.8864;1.4882;
33.9000;0.8848;1.4835;
34.2000;0.8873;1.4835;
34.5000;0.8864;1.4882;
34.8000;0.8873;1.4859;
35.1000;0.8881;1.4929;
35.4000;0.8889;1.4976;
35.7000;0.8881;1.4929;
36.0000;0.8889;1.4952;
36.3000;0.8824;1.4788;
36.6000;0.8864;1.4952;
36.9000;0.8840;1.4976;
37.2000;0.8856;1.4952;
37.5000;0.8881;1.4859;
37.8000;0.8864;1.4905;
38.1000;0.8889;1.4976;
38.4000;0.8881;1.4952;
38.7000;0.8995;1.5328;
39.0000;0.8873;1.4952;
39.3000;0.8881;1.4905;
39.6000;0.8889;1.4859;
39.9000;0.8881;1.4929;
40.2000;0.8897;1.4952;
40.5000;0.8889;1.4882;
40.8000;0.8889;1.4882;
41.1000;0.8881;1.4905;
41.4000;0.8938;1.4999;
41.7000;0.8913;1.4952;
42.0000;0.8881;1.4952;
42.3000;0.8905;1.5046;
42.6000;0.8897;1.5023;
42.9000;0.8881;1.4999;
43.2000;0.8889;1.4999;
43.5000;0.8897;1.4952;
43.8000;0.8905;1.4976;
44.1000;0.8881;1.4976;
44.4000;0.8913;1.5046;
44.7000;0.8913;1.5023;
45.0000;0.8913;1.4999;
45.3000;0.8897;1.4952;
45.6000;0.8856;1.4812;
45.9000;0.8913;1.4929;
46.2000;0.8905;1.4905;
46.5000;0.8807;1.4600;
46.8000;0.8905;1.4929;
47.1000;0.8921;1.4905;
47.4000;0.8905;1.4929;
47.7000;0.9011;1.5117;
48.0000;0.8905;1.4929;
48.3000;0.8987;1.5140;
48.6000;0.8938;1.4929;
48.9000;0.8905;1.4835;
49.2000;0.8864;1.4647;
49.5000;0.8930;1.4765;
49.8000;0.8913;1.4647;
50.1000;0.8921;1.4647;
50.4000;0.8921;1.4765;
50.7000;0.8930;1.4812;
51.0000;0.8881;1.4718;
51.3000;0.8954;1.4952;
51.6000;0.8930;1.4976;
51.9000;0.8873;1.4835;
52.2000;0.8946;1.4929;
52.5000;0.8930;1.4929;
52.8000;0.8921;1.4859;
53.1000;0.8913;1.4812;
53.4000;0.8913;1.4905;
53.7000;0.8913;1.4952;
54.0000;0.8954;1.5023;
54.3000;0.8913;1.4812;
54.6000;0.8897;1.4859;
54.9000;0.8905;1.4765;
55.2000;0.8946;1.4812;
55.5000;0.8921;1.4741;
55.8000;0.8913;1.4671;
56.1000;0.9003;1.4905;
56.4000;0.8946;1.4765;
56.7000;0.8930;1.4765;
57.0000;0.8921;1.4788;
57.3000;0.8938;1.4905;
57.6000;0.8938;1.4812;
57.9000;0.8954;1.4835;
58.2000;0.8938;1.4765;
58.5000;0.8930;1.4788;
58.8000;0.8930;1.4718;
59.1000;0.8954;1.4694;
59.4000;0.8946;1.4741;
59.7000;0.8938;1.4788;
60.0000;0.8938;1.4718;
60.3000;0.8954;1.4694;
60.6000;0.8962;1.4694;
60.9000;0.8995;1.4788;
61.2000;0.8946;1.4718;
61.5000;0.8970;1.4788;
61.8000;0.8954;1.4765;
62.1000;0.8946;1.4741;
62.4000;0.8954;1.4765;
62.7000;0.8962;1.4788;
63.0000;0.8930;1.4788;
63.3000;0.8946;1.4882;
63.6000;0.8954;1.4952;
63.9000;0.8930;1.4929;
64.2000;0.8938;1.4952;
64.5000;0.8946;1.4976;
64.8000;0.8938;1.4999;
65.1000;0.8946;1.5023;
65.4000;0.8954;1.5070;
65.7000;0.8938;1.5046;
66.0000;0.8938;1.5046;
66.3000;0.8946;1.5140;
66.6000;0.8978;1.5187;
66.9000;0.8970;1.5070;
67.2000;0.8946;1.4999;
67.5000;0.8962;1.5046;
67.8000;0.8921;1.5023;
68.1000;0.8954;1.5093;
68.4000;0.8946;1.4976;
68.7000;0.8913;1.4905;
69.0000;0.8946;1.4999;
69.3000;0.8921;1.4952;
69.6000;0.8921;1.4882;
69.9000;0.8946;1.4952;
70.2000;0.8946;1.4835;
70.5000;0.8970;1.4859;
70.8000;0.8954;1.4835;
71.1000;0.8970;1.4835;
71.4000;0.8978;1.4788;
71.7000;0.8864;1.4459;
72.0000;0.8954;1.4671;
72.3000;0.8946;1.4647;
72.6000;0.8938;1.4647;
72.9000;0.8970;1.4671;
73.2000;0.8970;1.4741;
73.5000;0.8930;1.4741;
73.8000;0.8962;1.4788;
74.1000;0.8946;1.4671;
74.4000;0.8962;1.4694;
74.7000;0.8954;1.4647;
75.0000;0.8938;1.4624;
75.3000;0.8978;1.4694;
75.6000;0.8954;1.4647;
75.9000;0.8962;1.4694;
76.2000;0.8946;1.4671;
76.5000;0.8938;1.4718;
76.8000;0.8962;1.4765;
77.1000;0.8954;1.4694;
77.4000;0.8946;1.4718;
77.7000;0.8978;1.4765;
78.0000;0.8954;1.4765;
78.3000;0.8978;1.4788;
78.6000;0.8954;1.4671;
78.9000;0.8987;1.4741;
79.2000;0.8946;1.4624;
79.5000;0.8978;1.4624;
79.8000;0.8962;1.4577;
80.1000;0.8962;1.4671;
80.4000;0.8962;1.4647;
80.7000;0.8978;1.4694;
81.0000;0.8954;1.4647;
81.3000;0.8962;1.4718;
81.6000;0.8946;1.4671;
81.9000;0.8962;1.4741;
82.2000;0.8970;1.4718;
82.5000;0.8978;1.4765;
82.8000;0.8954;1.4694;
83.1000;0.8987;1.4718;
83.4000;0.8962;1.4718;
83.7000;0.8978;1.4835;
84.0000;0.8978;1.4835;
84.3000;0.8970;1.4859;
84.6000;0.8962;1.4812;
84.9000;0.8978;1.4859;
85.2000;0.8954;1.4859;
85.5000;0.8954;1.4765;
85.8000;0.8978;1.4788;
86.1000;0.8962;1.4788;
86.4000;0.8946;1.4741;
86.7000;0.8962;1.4671;
87.0000;0.8954;1.4741;
87.3000;0.8978;1.4765;
87.6000;0.8954;1.4671;
87.9000;0.9027;1.4788;
88.2000;0.8954;1.4600;
88.5000;0.8970;1.4624;
88.8000;0.8987;1.4694;
89.1000;0.8995;1.4718;
89.4000;0.8970;1.4741;
89.7000;0.8987;1.4765;
90.0000;0.8970;1.4694;
90.3000;0.9027;1.4812;
90.6000;0.8987;1.4765;
90.9000;0.8995;1.4859;
91.2000;0.8978;1.4859;
91.5000;0.8978;1.4976;
91.8000;0.8970;1.4999;
92.1000;0.8954;1.4905;
92.4000;0.8978;1.4952;
92.7000;0.8970;1.4976;
93.0000;0.8962;1.4952;
93.3000;0.8954;1.4929;
93.6000;0.8946;1.4788;
93.9000;0.8987;1.4882;
94.2000;0.8970;1.4812;
94.5000;0.8987;1.4835;
94.8000;0.8978;1.4788;
95.1000;0.8995;1.4788;
95.4000;0.8978;1.4765;
95.7000;0.9003;1.4835;
96.0000;0.8987;1.4859;
96.3000;0.8987;1.4952;
96.6000;0.8978;1.4882;
96.9000;0.8978;1.4835;
97.2000;0.8954;1.4788;
97.5000;0.8978;1.4812;
97.8000;0.8970;1.4741;
98.1000;0.8970;1.4741;
98.4000;0.9003;1.4788;
98.7000;0.8970;1.4718;
99.0000;0.8978;1.4812;
99.3000;0.8978;1.4882;
99.6000;0.8954;1.4694;
99.9000;0.9044;1.4929;
100.2000;0.8987;1.4741;
100.5000;0.8978;1.4765;
100.8000;0.8970;1.4671;
101.1000;0.8970;1.4718;
101.4000;0.8930;1.4647;
101.7000;0.8970;1.4741;
102.0000;0.9084;1.4952;
102.3000;0.9019;1.4788;
102.6000;0.9003;1.4765;
102.9000;0.8978;1.4694;
103.2000;0.8987;1.4741;
103.5000;0.8962;1.4859;
103.8000;0.8970;1.4882;
104.1000;0.8970;1.4812;
104.4000;0.8978;1.4812;
104.7000;0.8970;1.4765;
105.0000;0.8930;1.4647;
105.3000;0.8987;1.4741;
105.6000;0.8978;1.4741;
105.9000;0.8978;1.4788;
106.2000;0.8978;1.4788;
106.5000;0.8987;1.4788;
106.8000;0.8987;1.4765;
107.1000;0.8987;1.4741;
107.4000;0.8962;1.4694;
107.7000;0.8987;1.4694;
108.0000;0.8987;1.4718;
108.3000;0.8978;1.4647;
108.6000;0.8995;1.4671;
108.9000;0.9011;1.4718;
109.2000;0.8962;1.4647;
109.5000;0.8970;1.4741;
109.8000;0.8995;1.4694;
110.1000;0.8995;1.4647;
110.4000;0.8987;1.4647;
110.7000;0.8995;1.4647;
111.0000;0.8978;1.4718;
111.3000;0.8987;1.4765;
111.6000;0.8978;1.4765;
111.9000;0.8987;1.4812;
112.2000;0.8970;1.4812;
112.5000;0.8987;1.4859;
112.8000;0.8987;1.4812;
113.1000;0.8987;1.4788;
113.4000;0.8954;1.4812;
113.7000;0.8970;1.4952;
114.0000;0.8995;1.4952;
114.3000;0.8970;1.4952;
114.6000;0.8995;1.4952;
114.9000;0.8987;1.4929;
115.2000;0.8970;1.4835;
115.5000;0.9003;1.4765;
115.8000;0.9003;1.4788;
116.1000;0.8995;1.4718;
116.4000;0.9060;1.4905;
116.7000;0.8987;1.4788;
117.0000;0.8995;1.4859;
117.3000;0.8987;1.5046;
117.6000;0.8987;1.5070;
117.9000;0.8978;1.5093;
118.2000;0.9019;1.5187;
118.5000;0.8995;1.4999;
118.8000;0.8978;1.4929;
119.1000;0.8978;1.4929;
119.4000;0.8962;1.4812;
119.7000;0.9011;1.4999;
120.0000;0.8987;1.4952;
120.3000;0.9003;1.4976;
120.6000;0.8995;1.4929;
120.9000;0.8897;1.4788;
121.2000;0.8987;1.5046;
121.5000;0.8987;1.4999;
121.8000;0.8987;1.5023;
122.1000;0.8987;1.5070;
122.4000;0.9003;1.5117;
122.7000;0.8987;1.4929;
123.0000;0.9003;1.4929;
123.3000;0.9076;1.5140;
123.6000;0.9027;1.4976;
123.9000;0.8995;1.4882;
124.2000;0.8987;1.4905;
124.5000;0.8978;1.4905;
124.8000;0.9003;1.4882;
125.1000;0.9003;1.4882;
125.4000;0.8962;1.4741;
125.7000;0.8978;1.4835;
126.0000;0.8946;1.4694;
126.3000;0.8995;1.4859;
126.6000;0.9068;1.4905;
126.9000;0.9068;1.4882;
127.2000;0.9052;1.4812;
127.5000;0.8987;1.4647;
127.8000;0.9003;1.4647;
128.1000;0.8987;1.4577;
128.4000;0.8987;1.4600;
128.7000;0.9019;1.4694;
129.0000;0.8987;1.4647;
129.3000;0.9019;1.4788;
129.6000;0.8978;1.4741;
129.9000;0.8995;1.4812;
130.2000;0.8946;1.4788;
130.5000;0.8978;1.4835;
130.8000;0.8962;1.4788;
131.1000;0.8995;1.4812;
131.4000;0.8995;1.4765;
131.7000;0.8987;1.4718;
132.0000;0.8995;1.4741;
132.3000;0.8995;1.4765;
132.6000;0.8995;1.4671;
132.9000;0.9003;1.4624;
133.2000;0.9068;1.4718;
133.5000;0.8995;1.4530;
133.8000;0.8995;1.4530;
134.1000;0.8987;1.4718;
134.4000;0.8987;1.4694;
134.7000;0.8970;1.4600;
135.0000;0.8978;1.4577;
135.3000;0.9003;1.4741;
135.6000;0.8978;1.4765;
135.9000;0.9019;1.4905;
136.2000;0.9101;1.5117;
136.5000;0.8995;1.4882;
136.8000;0.8987;1.4882;
137.1000;0.9003;1.4999;
137.4000;0.8995;1.4976;
137.7000;0.8995;1.4952;
138.0000;0.8987;1.5023;
138.3000;0.8881;1.4835;
138.6000;0.8978;1.4999;
138.9000;0.9003;1.4976;
139.2000;0.8978;1.4859;
139.5000;0.8987;1.4952;
139.8000;0.8978;1.4929;
140.1000;0.8897;1.4671;
140.4000;0.9003;1.4812;
140.7000;0.9011;1.4765;
141.0000;0.8995;1.4694;
141.3000;0.8889;1.4530;
141.6000;0.8995;1.4882;
141.9000;0.8978;1.4835;
142.2000;0.9019;1.4929;
142.5000;0.8987;1.4882;
142.8000;0.9019;1.4976;
143.1000;0.8987;1.4929;
143.4000;0.8978;1.4859;
143.7000;0.8938;1.4741;
144.0000;0.9027;1.4976;
144.3000;0.9003;1.5023;
144.6000;0.9019;1.5117;
144.9000;0.8970;1.4929;
145.2000;0.8978;1.4999;
145.5000;0.9068;1.5164;
145.8000;0.8970;1.4976;
146.1000;0.8995;1.4976;
146.4000;0.8978;1.4952;
146.7000;0.8987;1.4929;
147.0000;0.8995;1.4976;
147.3000;0.8978;1.4905;
147.6000;0.8970;1.4905;
147.9000;0.8995;1.4905;
148.2000;0.8995;1.4929;
148.5000;0.8954;1.4835;
148.8000;0.8995;1.4905;
149.1000;0.9003;1.4835;
149.4000;0.9003;1.4999;
149.7000;0.8995;1.4999;
150.0000;0.8995;1.4952;
150.3000;0.8987;1.4905;
150.6000;0.9003;1.5023;
150.9000;0.9003;1.5070;
151.2000;0.9003;1.5117;
151.5000;0.8995;1.5140;
151.8000;0.9003;1.5093;
152.1000;0.8930;1.4905;
152.4000;0.8995;1.5023;
152.7000;0.8995;1.5023;
153.0000;0.9003;1.5023;
153.3000;0.9027;1.5117;
153.6000;0.8995;1.5070;
153.9000;0.8987;1.5023;
154.2000;0.8995;1.4976;
154.5000;0.9068;1.5117;
154.8000;0.8987;1.4905;
155.1000;0.9011;1.4929;
155.4000;0.8962;1.4835;
155.7000;0.9011;1.4976;
156.0000;0.8978;1.4929;
156.3000;0.9035;1.5070;
156.6000;0.8995;1.4999;
156.9000;0.8995;1.5070;
157.2000;0.8987;1.4929;
157.5000;0.8978;1.5023;
157.8000;0.8889;1.4835;
158.1000;0.8995;1.5023;
158.4000;0.9084;1.5187;
158.7000;0.8987;1.4929;
159.0000;0.8978;1.4812;
159.3000;0.8954;1.4718;
159.6000;0.8995;1.4859;
159.9000;0.9027;1.4812;
160.2000;0.9019;1.4741;
160.5000;0.8987;1.4765;
160.8000;0.8987;1.4788;
161.1000;0.9003;1.4741;
161.4000;0.9003;1.4835;
161.7000;0.8987;1.4859;
162.0000;0.8954;1.4788;
162.3000;0.8905;1.4624;
162.6000;0.8995;1.4882;
162.9000;0.9003;1.4882;
163.2000;0.9003;1.4952;
163.5000;0.8995;1.4976;
163.8000;0.9011;1.4905;
164.1000;0.8987;1.4859;
164.4000;0.8864;1.4530;
164.7000;0.8946;1.4694;
165.0000;0.9003;1.4952;
165.3000;0.9003;1.5046;
165.6000;0.8995;1.5070;
165.9000;0.9003;1.5070;
166.2000;0.8987;1.5023;
166.5000;0.9019;1.5046;
166.8000;0.8995;1.4929;
167.1000;0.9003;1.4859;
167.4000;0.8995;1.4812;
167.7000;0.8897;1.4671;
168.0000;0.8978;1.4952;
168.3000;0.8995;1.4999;
168.6000;0.9003;1.5046;
168.9000;0.9003;1.5023;
169.2000;0.9003;1.4999;
169.5000;0.8962;1.4812;
169.8000;0.8962;1.4741;
170.1000;0.9003;1.4905;
170.4000;0.8995;1.4905;
170.7000;0.8970;1.4812;
171.0000;0.9003;1.4952;
171.3000;0.9003;1.4976;
171.6000;0.9019;1.4976;
171.9000;0.8995;1.4812;
172.2000;0.8987;1.4788;
172.5000;0.9060;1.4976;
172.8000;0.8995;1.4859;
173.1000;0.8978;1.4905;
173.4000;0.8978;1.4929;
173.7000;0.8995;1.5023;
174.0000;0.9003;1.5046;
174.3000;0.8970;1.4929;
174.6000;0.8995;1.4999;
174.9000;0.9003;1.4976;
175.2000;0.9003;1.4929;
175.5000;0.8987;1.4976;
175.8000;0.8987;1.4952;
176.1000;0.8995;1.5046;
176.4000;0.9011;1.5046;
176.7000;0.8978;1.4976;
177.0000;0.9044;1.5070;
177.3000;0.9003;1.4952;
177.6000;0.9011;1.4976;
177.9000;0.8978;1.4859;
178.2000;0.8995;1.4835;
178.5000;0.9019;1.4859;
178.8000;0.9011;1.4835;
179.1000;0.9003;1.4835;
179.4000;0.9044;1.4952;
179.7000;0.8995;1.4952;
180.0000;0.9003;1.4929;
180.3000;0.8978;1.4812;
180.6000;0.9011;1.4788;
180.9000;0.8905;1.4506;
181.2000;0.9003;1.4765;
181.5000;0.8978;1.4765;
181.8000;0.9011;1.4788;
182.1000;0.8995;1.4788;
182.4000;0.8995;1.4859;
182.7000;0.8987;1.4952;
183.0000;0.8978;1.4976;
183.3000;0.8987;1.4999;
183.6000;0.8970;1.4999;
183.9000;0.8987;1.5023;
184.2000;0.9060;1.5187;
184.5000;0.8962;1.4999;
184.8000;0.9003;1.4999;
185.1000;0.8978;1.4952;
185.4000;0.8987;1.4929;
185.7000;0.8987;1.4812;
186.0000;0.8978;1.4788;
186.3000;0.9011;1.4812;
186.6000;0.8987;1.4882;
186.9000;0.9003;1.4859;
187.2000;0.9035;1.4952;
187.5000;0.9003;1.4929;
187.8000;0.9011;1.4976;
188.1000;0.9019;1.4976;
188.4000;0.9003;1.4859;
188.7000;0.9052;1.4976;
189.0000;0.9019;1.4905;
189.3000;0.9019;1.4905;
189.6000;0.9011;1.4812;
189.9000;0.9027;1.4835;
190.2000;0.8987;1.4671;
190.5000;0.9035;1.4741;
190.8000;0.9003;1.4741;
191.1000;0.8995;1.4741;
191.4000;0.8987;1.4765;
191.7000;0.8962;1.4765;
192.0000;0.9044;1.4976;
192.3000;0.9011;1.4929;
192.6000;0.8970;1.4812;
192.9000;0.8978;1.4835;
193.2000;0.9011;1.4882;
193.5000;0.9003;1.4882;
193.8000;0.8970;1.4905;
194.1000;0.8987;1.4999;
194.4000;0.8987;1.5023;
194.7000;0.9011;1.5093;
195.0000;0.9035;1.5023;
195.3000;0.8978;1.4882;
195.6000;0.8978;1.4929;
195.9000;0.9003;1.4882;
196.2000;0.8995;1.4835;
196.5000;0.8987;1.4812;
196.8000;0.8995;1.4812;
197.1000;0.9003;1.4882;
197.4000;0.9011;1.4859;
197.7000;0.8978;1.4859;
198.0000;0.8978;1.4929;
198.3000;0.9011;1.4882;
198.6000;0.9011;1.4859;
198.9000;0.8987;1.4812;
199.2000;0.8987;1.4812;
199.5000;0.8995;1.4929;
199.8000;0.8995;1.4905;
200.1000;0.8970;1.4905;
200.4000;0.8970;1.4905;
200.7000;0.8938;1.4788;
201.0000;0.8987;1.4835;
201.3000;0.8987;1.4788;
201.6000;0.9027;1.4929;
201.9000;0.9035;1.4929;
202.2000;0.8987;1.4835;
202.5000;0.8978;1.4882;
202.8000;0.8970;1.4788;
203.1000;0.8995;1.4788;
203.4000;0.8995;1.4835;
203.7000;0.9011;1.4905;
204.0000;0.8995;1.5023;
204.3000;0.8987;1.5070;
204.6000;0.8987;1.5140;
204.9000;0.8897;1.4999;
205.2000;0.8995;1.5187;
205.5000;0.8987;1.5070;
205.8000;0.8970;1.5046;
206.1000;0.9011;1.5070;
206.4000;0.9003;1.5046;
206.7000;0.9011;1.5117;
207.0000;0.8978;1.5070;
207.3000;0.9003;1.5046;
207.6000;0.8987;1.4952;
207.9000;0.8970;1.4788;
208.2000;0.8987;1.4929;
208.5000;0.8962;1.4905;
208.8000;0.9003;1.5046;
209.1000;0.9003;1.4999;
209.4000;0.8978;1.4999;
209.7000;0.8987;1.4882;
210.0000;0.8987;1.4835;
210.3000;0.9052;1.4929;
210.6000;0.8987;1.4694;
210.9000;0.8995;1.4647;
211.2000;0.8978;1.4718;
211.5000;0.8978;1.4765;
211.8000;0.8995;1.4835;
212.1000;0.8978;1.4788;
212.4000;0.9084;1.4999;
212.7000;0.9011;1.4835;
213.0000;0.8987;1.4765;
213.3000;0.9003;1.4765;
213.6000;0.8954;1.4788;
213.9000;0.9003;1.4929;
214.2000;0.9003;1.4905;
214.5000;0.9011;1.4999;
214.8000;0.9019;1.5046;
215.1000;0.9003;1.5023;
215.4000;0.9011;1.4976;
215.7000;0.8987;1.5023;
216.0000;0.8970;1.4952;
216.3000;0.8995;1.5093;
216.6000;0.8987;1.5140;
216.9000;0.8995;1.5070;
217.2000;0.8987;1.5070;
217.5000;0.9052;1.5258;
217.8000;0.9003;1.5117;
218.1000;0.8987;1.5046;
218.4000;0.8889;1.4765;
218.7000;0.8987;1.4952;
219.0000;0.8970;1.4999;
219.3000;0.9003;1.4905;
219.6000;0.8995;1.4788;
219.9000;0.9003;1.4765;
220.2000;0.8995;1.4835;
220.5000;0.8987;1.4812;
220.8000;0.9011;1.4812;
221.1000;0.8995;1.4788;
221.4000;0.8978;1.4765;
221.7000;0.8995;1.4882;
222.0000;0.8987;1.4835;
222.3000;0.8970;1.4788;
222.6000;0.8978;1.4741;
222.9000;0.9003;1.4788;
223.2000;0.8987;1.4694;
223.5000;0.8987;1.4718;
223.8000;0.9011;1.4765;
224.1000;0.9003;1.4694;
224.4000;0.8987;1.4718;
224.7000;0.8987;1.4788;
225.0000;0.9003;1.4952;
225.3000;0.9003;1.5023;
225.6000;0.9011;1.5140;
225.9000;0.8995;1.5140;
226.2000;0.8987;1.5211;
226.5000;0.9011;1.5234;
226.8000;0.8995;1.5187;
227.1000;0.8978;1.5211;
227.4000;0.8995;1.5140;
227.7000;0.9003;1.5117;
228.0000;0.8995;1.5093;
228.3000;0.8995;1.5117;
228.6000;0.8995;1.5304;
228.9000;0.8962;1.5187;
229.2000;0.8987;1.5211;
229.5000;0.8978;1.5140;
229.8000;0.8946;1.5117;
230.1000;0.8970;1.4999;
230.4000;0.9003;1.5046;
230.7000;0.8921;1.4835;
231.0000;0.9068;1.5258;
231.3000;0.8995;1.5187;
231.6000;0.8995;1.5140;
231.9000;0.9003;1.5187;
232.2000;0.8978;1.5211;
232.5000;0.8954;1.5070;
232.8000;0.8987;1.5234;
233.1000;0.8995;1.5281;
233.4000;0.8987;1.5281;
233.7000;0.8987;1.5281;
234.0000;0.8995;1.5375;
234.3000;0.8995;1.5469;
234.6000;0.9011;1.5445;
234.9000;0.9003;1.5492;
235.2000;0.9011;1.5492;
235.5000;0.8995;1.5422;
235.8000;0.9003;1.5445;
236.1000;0.8995;1.5398;
236.4000;0.8995;1.5375;
236.7000;0.9068;1.5563;
237.0000;0.9076;1.5539;
237.3000;0.8995;1.5375;
237.6000;0.8995;1.5281;
237.9000;0.9011;1.5351;
238.2000;0.9003;1.5398;
238.5000;0.8987;1.5398;
238.8000;0.8995;1.5375;
239.1000;0.8978;1.5304;
239.4000;0.8897;1.5046;
239.7000;0.9011;1.5234;
240.0000;0.8978;1.5187;
240.3000;0.9011;1.5258;
240.6000;0.8978;1.5164;
240.9000;0.9076;1.5328;
241.2000;0.9052;1.5375;
241.5000;0.8987;1.5281;
241.8000;0.8978;1.5328;
242.1000;0.8954;1.5211;
242.4000;0.9060;1.5445;
242.7000;0.9003;1.5281;
243.0000;0.8987;1.5234;
243.3000;0.9003;1.5304;
243.6000;0.9011;1.5328;
243.9000;0.8995;1.5258;
244.2000;0.8978;1.5258;
244.5000;0.9035;1.5328;
244.8000;0.8987;1.5234;
245.1000;0.8978;1.5234;
245.4000;0.9003;1.5281;
245.7000;0.8978;1.5211;
246.0000;0.9011;1.5258;
246.3000;0.8995;1.5281;
246.6000;0.8987;1.5304;
246.9000;0.8987;1.5234;
247.2000;0.8995;1.5258;
247.5000;0.9003;1.5211;
247.8000;0.9003;1.5258;
248.1000;0.8978;1.5281;
248.4000;0.8978;1.5258;
248.7000;0.9003;1.5328;
249.0000;0.9003;1.5304;
249.3000;0.8987;1.5375;
249.6000;0.8987;1.5375;
249.9000;0.8946;1.5258;
250.2000;0.9027;1.5422;
250.5000;0.8987;1.5281;
250.8000;0.9011;1.5422;
251.1000;0.8987;1.5375;
251.4000;0.9011;1.5469;
251.7000;0.9068;1.5516;
252.0000;0.9003;1.5328;
252.3000;0.8938;1.5140;
252.6000;0.8995;1.5328;
252.9000;0.8987;1.5281;
253.2000;0.8978;1.5258;
253.5000;0.8978;1.5187;
253.8000;0.8995;1.5187;
254.1000;0.8995;1.5211;
254.4000;0.8995;1.5234;
254.7000;0.8987;1.5211;
255.0000;0.8970;1.5187;
255.3000;0.9003;1.5234;
255.6000;0.8987;1.5234;
255.9000;0.8970;1.5211;
256.2000;0.8995;1.5304;
256.5000;0.8978;1.5304;
256.8000;0.8995;1.5351;
257.1000;0.9003;1.5398;
257.4000;0.9035;1.5445;
257.7000;0.8987;1.5328;
258.0000;0.8995;1.5375;
258.3000;0.8938;1.5328;
258.6000;0.9027;1.5633;
258.9000;0.9011;1.5633;
259.2000;0.9003;1.5610;
259.5000;0.8978;1.5539;
259.8000;0.9019;1.5492;
260.1000;0.9003;1.5469;
260.4000;0.9027;1.5539;
260.7000;0.9003;1.5422;
261.0000;0.8995;1.5398;
261.3000;0.9011;1.5351;
261.6000;0.8954;1.5258;
261.9000;0.8995;1.5351;
262.2000;0.9003;1.5351;
262.5000;0.9044;1.5469;
262.8000;0.8995;1.5281;
263.1000;0.9044;1.5375;
263.4000;0.8978;1.5187;
263.7000;0.8995;1.5234;
264.0000;0.9011;1.5234;
264.3000;0.8970;1.5140;
264.6000;0.9003;1.5093;
264.9000;0.8987;1.5046;
265.2000;0.9027;1.5140;
265.5000;0.8995;1.5070;
265.8000;0.8987;1.5117;
266.1000;0.9027;1.5258;
266.4000;0.8978;1.5211;
266.7000;0.8978;1.5281;
267.0000;0.8995;1.5375;
267.3000;0.8995;1.5304;
267.6000;0.8987;1.5258;
267.9000;0.9011;1.5398;
268.2000;0.9068;1.5610;
268.5000;0.8995;1.5422;
268.8000;0.9003;1.5304;
269.1000;0.8995;1.5304;
269.4000;0.9003;1.5375;
269.7000;0.8970;1.5258;
270.0000;0.9011;1.5375;
270.3000;0.8987;1.5328;
270.6000;0.8995;1.5375;
270.9000;0.8995;1.5351;
271.2000;0.8978;1.5328;
271.5000;0.8987;1.5304;
271.8000;0.8995;1.5328;
272.1000;0.9035;1.5492;
272.4000;0.8995;1.5328;
272.7000;0.9035;1.5328;
273.0000;0.9003;1.5281;
273.3000;0.9060;1.5398;
273.6000;0.8995;1.5234;
273.9000;0.8995;1.5281;
274.2000;0.9003;1.5258;
274.5000;0.9011;1.5328;
274.8000;0.8995;1.5351;
275.1000;0.9011;1.5328;
275.4000;0.8987;1.5258;
275.7000;0.8995;1.5234;
276.0000;0.8962;1.5140;
276.3000;0.9003;1.5281;
276.6000;0.8978;1.5258;
276.9000;0.8987;1.5211;
277.2000;0.8995;1.5140;
277.5000;0.8978;1.5117;
277.8000;0.8995;1.5164;
278.1000;0.8954;1.5117;
278.4000;0.8987;1.5187;
278.7000;0.9003;1.5140;
279.0000;0.9003;1.5140;
279.3000;0.8970;1.5070;
279.6000;0.9011;1.5140;
279.9000;0.8978;1.5140;
280.2000;0.9003;1.5258;
280.5000;0.9003;1.5328;
280.8000;0.9011;1.5304;
281.1000;0.8995;1.5304;
281.4000;0.9019;1.5281;
281.7000;0.9003;1.5304;
282.0000;0.8995;1.5258;
282.3000;0.8995;1.5328;
282.6000;0.9003;1.5328;
282.9000;0.8995;1.5375;
283.2000;0.8978;1.5258;
283.5000;0.8995;1.5281;
283.8000;0.8987;1.5281;
284.1000;0.8995;1.5164;
284.4000;0.9003;1.5187;
284.7000;0.8938;1.4952;
285.0000;0.8995;1.5164;
285.3000;0.8987;1.5140;
285.6000;0.8970;1.5070;
285.9000;0.8987;1.5117;
286.2000;0.8995;1.5093;
286.5000;0.8954;1.5046;
286.8000;0.8987;1.5258;
287.1000;0.9011;1.5351;
287.4000;0.9011;1.5328;
287.7000;0.8995;1.5234;
288.0000;0.8954;1.5070;
288.3000;0.9011;1.5211;
288.6000;0.8930;1.4999;
288.9000;0.9003;1.5211;
289.2000;0.9019;1.5234;
289.5000;0.8995;1.5140;
289.8000;0.9011;1.5187;
290.1000;0.8995;1.5187;
290.4000;0.9011;1.5164;
290.7000;0.9003;1.5187;
291.0000;0.9011;1.5234;
291.3000;0.8995;1.5164;
291.6000;0.8995;1.5164;
291.9000;0.8978;1.5164;
292.2000;0.8995;1.5187;
292.5000;0.9003;1.5234;
292.8000;0.8987;1.5281;
293.1000;0.8987;1.5211;
293.4000;0.8995;1.5187;
293.7000;0.8995;1.5187;
294.0000;0.9003;1.5258;
294.3000;0.8970;1.5117;
294.6000;0.8978;1.5164;
294.9000;0.8995;1.5234;
295.2000;0.8987;1.5258;
295.5000;0.9003;1.5351;
295.8000;0.8970;1.5351;
296.1000;0.8987;1.5445;
296.4000;0.8995;1.5445;
296.7000;0.8995;1.5398;
297.0000;0.8978;1.5281;
297.3000;0.8938;1.5211;
297.6000;0.9003;1.5304;
297.9000;0.9019;1.5398;
298.2000;0.8970;1.5258;
298.5000;0.8987;1.5304;
298.8000;0.9003;1.5469;
299.1000;0.9003;1.5539;
299.4000;0.9019;1.5539;
299.7000;0.8962;1.5375;
300.0000;0.8962;1.5375;
300.3000;0.8978;1.5469;
300.6000;0.8987;1.5492;
300.9000;0.8987;1.5445;
301.2000;0.8995;1.5398;
301.5000;0.9003;1.5398;
301.8000;0.9003;1.5492;
302.1000;0.8987;1.5516;
302.4000;0.8995;1.5351;
302.7000;0.8995;1.5258;
303.0000;0.8995;1.5211;
303.3000;0.8995;1.5164;
303.6000;0.8995;1.5164;
303.9000;0.8995;1.5140;
304.2000;0.8995;1.5117;
304.5000;0.9003;1.5117;
304.8000;0.8995;1.5211;
305.1000;0.9003;1.5281;
305.4000;0.8954;1.5234;
305.7000;0.9003;1.5281;
306.0000;0.9027;1.5328;
306.3000;0.8995;1.5281;
306.6000;0.8995;1.5234;
306.9000;0.8978;1.5258;
307.2000;0.8995;1.5304;
307.5000;0.8938;1.5117;
307.8000;0.8930;1.5046;
308.1000;0.9035;1.5328;
308.4000;0.8995;1.5234;
308.7000;0.8978;1.5281;
309.0000;0.8995;1.5281;
309.3000;0.9003;1.5304;
309.6000;0.8987;1.5234;
309.9000;0.8987;1.5164;
310.2000;0.9003;1.5258;
310.5000;0.8987;1.5234;
310.8000;0.9027;1.5351;
311.1000;0.8995;1.5258;
311.4000;0.8995;1.5164;
311.7000;0.9003;1.5211;
312.0000;0.9003;1.5187;
312.3000;0.9011;1.5211;
312.6000;0.8905;1.5023;
312.9000;0.8954;1.5187;
313.2000;0.9011;1.5211;
313.5000;0.8995;1.5258;
313.8000;0.9003;1.5140;
314.1000;0.8995;1.5164;
314.4000;0.9003;1.5211;
314.7000;0.8995;1.5164;
315.0000;0.8987;1.5234;
315.3000;0.9011;1.5234;
315.6000;0.8987;1.5187;
315.9000;0.8995;1.5234;
316.2000;0.9019;1.5211;
316.5000;0.8987;1.5140;
316.8000;0.8978;1.5234;
317.1000;0.8987;1.5187;
317.4000;0.8995;1.5234;
317.7000;0.8987;1.5140;
318.0000;0.9011;1.5258;
318.3000;0.9019;1.5304;
318.6000;0.9003;1.5304;
318.9000;0.9019;1.5328;
319.2000;0.8995;1.5281;
319.5000;0.8995;1.5281;
319.8000;0.9027;1.5211;
320.1000;0.9011;1.5187;
320.4000;0.8962;1.5093;
320.7000;0.8995;1.5164;
321.0000;0.8995;1.5164;
321.3000;0.8954;1.5046;
321.6000;0.8987;1.5093;
321.9000;0.8995;1.5140;
322.2000;0.8970;1.5093;
322.5000;0.9003;1.5117;
322.8000;0.8995;1.5140;
323.1000;0.8995;1.5140;
323.4000;0.9117;1.5469;
323.7000;0.9019;1.5328;
324.0000;0.9011;1.5258;
324.3000;0.9019;1.5304;
324.6000;0.9003;1.5258;
324.9000;0.8995;1.5234;
325.2000;0.8995;1.5258;
325.5000;0.9003;1.5187;
325.8000;0.8995;1.5164;
326.1000;0.8995;1.5117;
326.4000;0.8978;1.5046;
326.7000;0.9003;1.5093;
327.0000;0.9003;1.5093;
327.3000;0.9003;1.5093;
327.6000;0.9011;1.5046;
327.9000;0.8995;1.5117;
328.2000;0.8978;1.5070;
328.5000;0.8995;1.5187;
328.8000;0.9003;1.5211;
329.1000;0.9003;1.5164;
329.4000;0.9019;1.5211;
329.7000;0.9003;1.5234;
330.0000;0.9011;1.5234;
330.3000;0.9003;1.5234;
330.6000;0.8987;1.5258;
330.9000;0.8978;1.5164;
331.2000;0.9003;1.5258;
331.5000;0.9003;1.5234;
331.8000;0.9003;1.5211;
332.1000;0.8987;1.5187;
332.4000;0.9011;1.5234;
332.7000;0.9003;1.5117;
333.0000;0.9019;1.5046;
333.3000;0.9019;1.5117;
333.6000;0.9019;1.5187;
333.9000;0.9011;1.5164;
334.2000;0.9011;1.5258;
334.5000;0.9019;1.5351;
334.8000;0.8995;1.5375;
335.1000;0.9011;1.5469;
335.4000;0.8987;1.5351;
335.7000;0.8987;1.5234;
336.0000;0.8987;1.5211;
336.3000;0.8995;1.5187;
336.6000;0.8946;1.5164;
336.9000;0.8995;1.5234;
337.2000;0.9003;1.5281;
337.5000;0.9011;1.5328;
337.8000;0.8995;1.5234;
338.1000;0.9003;1.5234;
338.4000;0.9011;1.5211;
338.7000;0.9003;1.5258;
339.0000;0.9003;1.5211;
339.3000;0.8995;1.5164;
339.6000;0.8987;1.5258;
339.9000;0.9019;1.5328;
340.2000;0.9003;1.5375;
340.5000;0.9011;1.5375;
340.8000;0.9003;1.5281;
341.1000;0.9052;1.5328;
341.4000;0.9003;1.5258;
341.7000;0.9003;1.5234;
342.0000;0.9011;1.5281;
342.3000;0.9027;1.5375;
342.6000;0.8978;1.5234;
342.9000;0.9011;1.5258;
343.2000;0.9011;1.5234;
343.5000;0.8995;1.5164;
343.8000;0.8987;1.5117;
344.1000;0.8995;1.5164;
344.4000;0.9011;1.5234;
344.7000;0.9011;1.5187;
345.0000;0.9019;1.5093;
345.3000;0.8995;1.5093;
345.6000;0.9011;1.5140;
345.9000;0.9076;1.5258;
346.2000;0.9003;1.5140;
346.5000;0.9003;1.5211;
346.8000;0.9003;1.5281;
347.1000;0.9011;1.5469;
347.4000;0.9003;1.5469;
347.7000;0.8987;1.5398;
348.0000;0.9003;1.5351;
348.3000;0.8978;1.5351;
348.6000;0.8995;1.5328;
348.9000;0.9019;1.5328;
349.2000;0.9003;1.5304;
349.5000;0.8987;1.5375;
349.8000;0.9011;1.5422;
350.1000;0.9003;1.5375;
350.4000;0.9044;1.5563;
350.7000;0.9003;1.5422;
351.0000;0.9003;1.5469;
351.3000;0.9003;1.5422;
351.6000;0.9011;1.5445;
351.9000;0.9003;1.5351;
352.2000;0.9011;1.5351;
352.5000;0.8970;1.5281;
352.8000;0.8995;1.5375;
353.1000;0.9027;1.5445;
353.4000;0.9011;1.5398;
353.7000;0.9035;1.5563;
354.0000;0.8987;1.5516;
354.3000;0.8995;1.5516;
354.6000;0.9003;1.5469;
354.9000;0.9003;1.5445;
355.2000;0.9003;1.5351;
355.5000;0.8954;1.5211;
355.8000;0.9011;1.5375;
356.1000;0.9027;1.5422;
356.4000;0.8995;1.5422;
356.7000;0.9011;1.5398;
357.0000;0.8995;1.5492;
357.3000;0.9003;1.5492;
357.6000;0.8995;1.5422;
357.9000;0.8987;1.5398;
358.2000;0.8954;1.5351;
358.5000;0.9019;1.5469;
358.8000;0.8995;1.5469;
359.1000;0.9003;1.5469;
359.4000;0.8987;1.5351;
359.7000;0.9003;1.5375;
360.0000;0.8946;1.5328;
360.3000;0.9003;1.5492;
360.6000;0.9076;1.5633;
360.9000;0.8889;1.5211;
361.2000;0.8905;1.5258;
361.5000;0.9003;1.5422;
361.8000;0.9003;1.5469;
362.1000;0.9101;1.5680;
362.4000;0.9019;1.5375;
362.7000;0.9011;1.5351;
363.0000;0.8995;1.5281;
363.3000;0.9011;1.5375;
363.6000;0.9003;1.5375;
363.9000;0.9019;1.5422;
364.2000;0.8995;1.5375;
364.5000;0.9019;1.5445;
364.8000;0.9003;1.5375;
365.1000;0.9011;1.5469;
365.4000;0.8995;1.5304;
365.7000;0.8995;1.5304;
366.0000;0.8978;1.5375;
366.3000;0.8995;1.5445;
366.6000;0.9011;1.5469;
366.9000;0.9003;1.5492;
367.2000;0.9035;1.5563;
367.5000;0.9011;1.5492;
367.8000;0.9003;1.5398;
368.1000;0.8954;1.5304;
368.4000;0.9011;1.5492;
368.7000;0.8995;1.5398;
369.0000;0.9044;1.5398;
369.3000;0.9027;1.5375;
369.6000;0.9011;1.5422;
369.9000;0.9084;1.5586;
370.2000;0.9003;1.5422;
370.5000;0.8987;1.5398;
370.8000;0.9011;1.5375;
371.1000;0.8987;1.5375;
371.4000;0.9011;1.5422;
371.7000;0.9011;1.5492;
372.0000;0.8970;1.5398;
372.3000;0.8995;1.5469;
372.6000;0.9035;1.5492;
372.9000;0.9003;1.5445;
373.2000;0.8995;1.5328;
373.5000;0.8987;1.5304;
373.8000;0.9019;1.5422;
374.1000;0.9003;1.5398;
374.4000;0.8978;1.5234;
374.7000;0.8995;1.5258;
375.0000;0.9003;1.5281;
375.3000;0.8995;1.5281;
375.6000;0.8995;1.5211;
375.9000;0.9052;1.5351;
376.2000;0.9003;1.5211;
376.5000;0.8978;1.5258;
376.8000;0.9011;1.5281;
377.1000;0.8995;1.5258;
377.4000;0.9003;1.5281;
377.7000;0.8987;1.5328;
378.0000;0.9011;1.5351;
378.3000;0.9003;1.5304;
378.6000;0.9019;1.5398;
378.9000;0.8995;1.5328;
379.2000;0.8995;1.5281;
379.5000;0.8987;1.5234;
379.8000;0.8995;1.5258;
380.1000;0.8995;1.5351;
380.4000;0.9011;1.5398;
380.7000;0.8962;1.5187;
381.0000;0.9019;1.5375;
381.3000;0.9003;1.5304;
381.6000;0.9003;1.5398;
381.9000;0.8995;1.5445;
382.2000;0.9011;1.5445;
382.5000;0.9027;1.5539;
382.8000;0.9011;1.5492;
383.1000;0.9027;1.5563;
383.4000;0.9027;1.5516;
383.7000;0.9003;1.5492;
384.0000;0.8987;1.5351;
384.3000;0.9027;1.5422;
384.6000;0.8987;1.5328;
384.9000;0.8995;1.5304;
385.2000;0.8995;1.5258;
385.5000;0.9019;1.5304;
385.8000;0.8995;1.5304;
386.1000;0.8921;1.5164;
386.4000;0.8987;1.5258;
386.7000;0.9003;1.5304;
387.0000;0.8978;1.5304;
387.3000;0.8978;1.5258;
387.6000;0.8978;1.5258;
387.9000;0.9003;1.5258;
388.2000;0.8995;1.5304;
388.5000;0.8995;1.5234;
388.8000;0.8995;1.5281;
389.1000;0.9003;1.5328;
389.4000;0.9011;1.5328;
389.7000;0.8921;1.5093;
390.0000;0.8873;1.4976;
390.3000;0.8921;1.5046;
390.6000;0.9003;1.5211;
390.9000;0.8987;1.5164;
391.2000;0.9003;1.5211;
391.5000;0.8995;1.5258;
391.8000;0.9060;1.5445;
392.1000;0.8995;1.5398;
392.4000;0.8954;1.5328;
392.7000;0.9019;1.5492;
393.0000;0.8987;1.5445;
393.3000;0.9003;1.5445;
393.6000;0.9003;1.5445;
393.9000;0.9027;1.5469;
394.2000;0.9003;1.5445;
394.5000;0.9003;1.5375;
394.8000;0.9068;1.5563;
395.1000;0.9027;1.5375;
395.4000;0.9003;1.5375;
395.7000;0.9003;1.5328;
396.0000;0.9011;1.5351;
396.3000;0.9003;1.5351;
396.6000;0.9011;1.5328;
396.9000;0.8995;1.5281;
397.2000;0.9019;1.5304;
397.5000;0.9027;1.5328;
397.8000;0.8978;1.5258;
398.1000;0.9044;1.5328;
398.4000;0.9003;1.5304;
398.7000;0.9011;1.5281;
399.0000;0.8995;1.5281;
399.3000;0.9003;1.5304;
399.6000;0.9027;1.5351;
399.9000;0.9011;1.5328;
400.2000;0.9019;1.5398;
400.5000;0.9035;1.5445;
400.8000;0.9003;1.5328;
401.1000;0.9003;1.5281;
401.4000;0.9003;1.5281;
401.7000;0.9019;1.5258;
402.0000;0.9019;1.5187;
402.3000;0.9019;1.5117;
402.6000;0.9011;1.5117;
402.9000;0.8995;1.5211;
403.2000;0.9011;1.5281;
403.5000;0.9044;1.5375;
403.8000;0.9019;1.5281;
404.1000;0.9011;1.5351;
404.4000;0.8995;1.5422;
404.7000;0.8978;1.5351;
405.0000;0.9019;1.5469;
405.3000;0.9019;1.5492;
405.6000;0.8995;1.5492;
405.9000;0.8978;1.5375;
406.2000;0.9003;1.5469;
406.5000;0.8995;1.5445;
406.8000;0.9125;1.5727;
407.1000;0.9035;1.5469;
407.4000;0.8930;1.5117;
407.7000;0.9003;1.5351;
408.0000;0.8987;1.5375;
408.3000;0.8987;1.5258;
408.6000;0.8987;1.5281;
408.9000;0.9011;1.5422;
409.2000;0.8995;1.5351;
409.5000;0.8995;1.5398;
409.8000;0.9003;1.5422;
410.1000;0.9011;1.5445;
410.4000;0.9003;1.5492;
410.7000;0.9019;1.5469;
411.0000;0.8995;1.5469;
411.3000;0.9003;1.5375;
411.6000;0.9027;1.5328;
411.9000;0.9011;1.5328;
412.2000;0.9011;1.5351;
412.5000;0.9019;1.5328;
412.8000;0.9011;1.5234;
413.1000;0.9003;1.5234;
413.4000;0.9027;1.5328;
413.7000;0.8987;1.5211;
414.0000;0.9011;1.5234;
414.3000;0.9003;1.5070;
414.6000;0.8995;1.5023;
414.9000;0.9003;1.5070;
415.2000;0.8995;1.4999;
415.5000;0.9003;1.5070;
415.8000;0.9003;1.5164;
416.1000;0.8995;1.5164;
416.4000;0.9011;1.5164;
416.7000;0.9011;1.5140;
417.0000;0.8995;1.5070;
417.3000;0.9003;1.5140;
417.6000;0.9003;1.5187;
417.9000;0.8897;1.5023;
418.2000;0.8995;1.5281;
418.5000;0.8970;1.5234;
418.8000;0.8970;1.5187;
419.1000;0.8978;1.5375;
419.4000;0.8962;1.5351;
419.7000;0.9003;1.5516;
420.0000;0.8995;1.5516;
420.3000;0.8987;1.5586;
420.6000;0.8987;1.5563;
420.9000;0.8995;1.5492;
421.2000;0.9019;1.5422;
421.5000;0.9035;1.5422;
421.8000;0.9019;1.5398;
422.1000;0.9011;1.5351;
422.4000;0.9003;1.5328;
422.7000;0.8970;1.5304;
423.0000;0.8987;1.5304;
423.3000;0.8995;1.5351;
423.6000;0.8987;1.5281;
423.9000;0.8987;1.5281;
424.2000;0.8995;1.5398;
424.5000;0.8970;1.5351;
424.8000;0.9003;1.5492;
425.1000;0.8995;1.5539;
425.4000;0.8995;1.5445;
425.7000;0.9019;1.5469;
426.0000;0.9019;1.5492;
426.3000;0.9019;1.5492;
426.6000;0.9019;1.5422;
426.9000;0.9011;1.5281;
427.2000;0.9011;1.5281;
427.5000;0.9027;1.5328;
427.8000;0.9011;1.5351;
428.1000;0.9027;1.5422;
428.4000;0.9011;1.5351;
428.7000;0.9003;1.5328;
429.0000;0.9003;1.5304;
429.3000;0.9011;1.5351;
429.6000;0.9011;1.5422;
429.9000;0.8987;1.5445;
430.2000;0.8995;1.5422;
430.5000;0.9052;1.5492;
430.8000;0.9011;1.5398;
431.1000;0.8978;1.5258;
431.4000;0.9019;1.5328;
431.7000;0.9003;1.5375;
432.0000;0.9011;1.5375;
432.3000;0.9003;1.5398;
432.6000;0.9003;1.5375;
432.9000;0.8987;1.5351;
433.2000;0.9011;1.5351;
433.5000;0.8970;1.5164;
433.8000;0.9035;1.5281;
434.1000;0.8995;1.5211;
434.4000;0.8995;1.5211;
434.7000;0.9003;1.5328;
435.0000;0.9003;1.5304;
435.3000;0.9003;1.5328;
435.6000;0.8978;1.5258;
435.9000;0.9003;1.5304;
436.2000;0.9027;1.5398;
436.5000;0.8995;1.5351;
436.8000;0.8978;1.5304;
437.1000;0.9011;1.5375;
437.4000;0.9011;1.5375;
437.7000;0.9052;1.5422;
438.0000;0.9035;1.5398;
438.3000;0.9027;1.5375;
438.6000;0.9027;1.5351;
438.9000;0.9027;1.5351;
439.2000;0.9035;1.5375;
439.5000;0.9011;1.5281;
439.8000;0.9027;1.5375;
440.1000;0.9076;1.5445;
440.4000;0.9019;1.5351;
440.7000;0.8995;1.5258;
441.0000;0.9011;1.5258;
441.3000;0.9003;1.5281;
441.6000;0.9011;1.5328;
441.9000;0.9052;1.5469;
442.2000;0.8995;1.5398;
442.5000;0.9027;1.5375;
442.8000;0.8987;1.5281;
443.1000;0.9060;1.5445;
443.4000;0.9035;1.5516;
443.7000;0.9027;1.5492;
444.0000;0.9011;1.5422;
444.3000;0.9052;1.5469;
444.6000;0.9003;1.5304;
444.9000;0.9011;1.5281;
445.2000;0.9027;1.5351;
445.5000;0.9035;1.5398;
445.8000;0.9003;1.5375;
446.1000;0.9011;1.5304;
446.4000;0.9003;1.5351;
446.7000;0.9003;1.5304;
447.0000;0.8995;1.5328;
447.3000;0.9003;1.5422;
447.6000;0.9011;1.5422;
447.9000;0.9027;1.5469;
448.2000;0.9084;1.5610;
448.5000;0.9125;1.5680;
448.8000;0.9003;1.5328;
449.1000;0.9027;1.5375;
449.4000;0.9019;1.5304;
449.7000;0.9011;1.5281;
450.0000;0.9011;1.5304;
450.3000;0.9019;1.5375;
450.6000;0.9011;1.5375;
450.9000;0.9052;1.5469;
451.2000;0.9003;1.5375;
451.5000;0.9003;1.5398;
451.8000;0.8987;1.5398;
452.1000;0.8987;1.5422;
452.4000;0.9019;1.5422;
452.7000;0.9011;1.5469;
453.0000;0.9019;1.5398;
453.3000;0.9019;1.5398;
453.6000;0.8987;1.5281;
453.9000;0.9011;1.5304;
454.2000;0.9027;1.5375;
454.5000;0.9011;1.5375;
454.8000;0.8995;1.5304;
455.1000;0.9003;1.5351;
455.4000;0.9084;1.5539;
455.7000;0.9019;1.5304;
456.0000;0.9011;1.5281;
456.3000;0.9019;1.5258;
456.6000;0.9003;1.5234;
456.9000;0.9003;1.5164;
457.2000;0.8995;1.5164;
457.5000;0.8995;1.5304;
457.8000;0.9003;1.5281;
458.1000;0.9011;1.5328;
458.4000;0.8995;1.5281;
458.7000;0.8995;1.5234;
459.0000;0.9019;1.5281;
459.3000;0.9068;1.5328;
459.6000;0.9011;1.5140;
459.9000;0.9003;1.5117;
460.2000;0.9011;1.5140;
460.5000;0.9003;1.5117;
460.8000;0.8995;1.5023;
461.1000;0.8995;1.5117;
461.4000;0.9019;1.5117;
461.7000;0.9019;1.5023;
462.0000;0.9011;1.5023;
462.3000;0.9052;1.5046;
462.6000;0.8995;1.5070;
462.9000;0.9019;1.5140;
463.2000;0.9011;1.5117;
463.5000;0.9003;1.5070;
463.8000;0.9019;1.5070;
464.1000;0.9003;1.5023;
464.4000;0.9027;1.5070;
464.7000;0.9109;1.5258;
465.0000;0.9003;1.5046;
465.3000;0.9011;1.5093;
465.6000;0.9011;1.5093;
465.9000;0.9027;1.5164;
466.2000;0.9019;1.5187;
466.5000;0.9003;1.5070;
466.8000;0.9019;1.5164;
467.1000;0.9011;1.5093;
467.4000;0.9027;1.5093;
467.7000;0.8995;1.5046;
468.0000;0.9035;1.5187;
468.3000;0.8987;1.5093;
468.6000;0.8995;1.5187;
468.9000;0.8995;1.5211;
469.2000;0.9044;1.5258;
469.5000;0.8954;1.5046;
469.8000;0.9003;1.5093;
470.1000;0.8921;1.4976;
470.4000;0.9011;1.5211;
470.7000;0.9019;1.5164;
471.0000;0.8954;1.5023;
471.3000;0.9011;1.5187;
471.6000;0.8938;1.4999;
471.9000;0.9003;1.5093;
472.2000;0.9019;1.5093;
472.5000;0.9011;1.5070;
472.8000;0.9003;1.5046;
473.1000;0.9027;1.5070;
473.4000;0.9019;1.5117;
473.7000;0.8995;1.5140;
474.0000;0.9019;1.5211;
474.3000;0.9011;1.5187;
474.6000;0.9011;1.5187;
474.9000;0.9011;1.5234;
475.2000;0.8987;1.5117;
475.5000;0.9003;1.5258;
475.8000;0.9003;1.5187;
476.1000;0.9011;1.5258;
476.4000;0.9019;1.5187;
476.7000;0.9019;1.5187;
477.0000;0.8995;1.5140;
477.3000;0.9011;1.5211;
477.6000;0.9003;1.5187;
477.9000;0.9027;1.5234;
478.2000;0.9092;1.5375;
478.5000;0.8930;1.4976;
478.8000;0.9011;1.5211;
479.1000;0.9011;1.5258;
479.4000;0.8938;1.5117;
479.7000;0.9011;1.5258;
480.0000;0.8954;1.5187;
480.3000;0.9027;1.5351;
480.6000;0.9019;1.5375;
480.9000;0.9019;1.5328;
481.2000;0.8897;1.5023;
481.5000;0.9003;1.5258;
481.8000;0.9019;1.5258;
482.1000;0.8978;1.5070;
482.4000;0.9011;1.5117;
482.7000;0.9019;1.5117;
483.0000;0.8995;1.5070;
483.3000;0.8978;1.5046;
483.6000;0.8987;1.5117;
483.9000;0.9011;1.5117;
484.2000;0.9035;1.5211;
484.5000;0.9019;1.5164;
484.8000;0.9011;1.5211;
485.1000;0.9019;1.5258;
485.4000;0.9019;1.5351;
485.7000;0.9011;1.5328;
486.0000;0.9011;1.5351;
486.3000;0.8987;1.5304;
486.6000;0.9035;1.5304;
486.9000;0.9027;1.5304;
487.2000;0.8938;1.5070;
487.5000;0.9035;1.5304;
487.8000;0.9149;1.5586;
488.1000;0.9011;1.5234;
488.4000;0.9011;1.5258;
488.7000;0.9011;1.5281;
489.0000;0.9027;1.5375;
489.3000;0.9019;1.5328;
489.6000;0.9027;1.5375;
489.9000;0.8978;1.5258;
490.2000;0.9011;1.5398;
490.5000;0.9011;1.5422;
490.8000;0.9019;1.5422;
491.1000;0.8978;1.5328;
491.4000;0.9011;1.5398;
491.7000;0.9011;1.5328;
492.0000;0.9027;1.5234;
492.3000;0.9035;1.5211;
492.6000;0.8978;1.5023;
492.9000;0.9003;1.5140;
493.2000;0.9019;1.5187;
493.5000;0.8946;1.4999;
493.8000;0.8987;1.5117;
494.1000;0.9019;1.5164;
494.4000;0.9003;1.5117;
494.7000;0.8995;1.5164;
495.0000;0.8987;1.5187;
495.3000;0.9117;1.5563;
495.6000;0.8978;1.5258;
495.9000;0.8995;1.5375;
496.2000;0.8995;1.5328;
496.5000;0.9027;1.5351;
496.8000;0.9019;1.5351;
497.1000;0.9011;1.5281;
497.4000;0.8987;1.5211;
497.7000;0.8946;1.5187;
498.0000;0.9027;1.5351;
498.3000;0.9044;1.5375;
498.6000;0.9003;1.5375;
498.9000;0.9011;1.5375;
499.2000;0.9035;1.5445;
499.5000;0.9011;1.5351;
499.8000;0.9011;1.5328;
500.1000;0.9011;1.5211;
500.4000;0.9125;1.5469;
500.7000;0.9011;1.5234;
501.0000;0.8970;1.5070;
501.3000;0.8995;1.5093;
501.6000;0.9035;1.5258;
501.9000;0.9011;1.5187;
502.2000;0.9060;1.5281;
502.5000;0.8970;1.5070;
502.8000;0.9011;1.5164;
503.1000;0.9019;1.5187;
503.4000;0.9035;1.5211;
503.7000;0.9019;1.5258;
504.0000;0.8987;1.5234;
504.3000;0.9044;1.5398;
504.6000;0.9011;1.5281;
504.9000;0.9003;1.5304;
505.2000;0.9011;1.5234;
505.5000;0.9019;1.5164;
505.8000;0.9027;1.5187;
506.1000;0.8987;1.5023;
506.4000;0.9019;1.5117;
506.7000;0.9019;1.5093;
507.0000;0.8962;1.4999;
507.3000;0.9019;1.5140;
507.6000;0.9011;1.5140;
507.9000;0.8962;1.4952;
508.2000;0.9133;1.5398;
508.5000;0.9003;1.5093;
508.8000;0.9027;1.5117;
509.1000;0.8954;1.4952;
509.4000;0.8970;1.5023;
509.7000;0.9019;1.5211;
510.0000;0.9003;1.5117;
510.3000;0.8978;1.5046;
510.6000;0.9011;1.5093;
510.9000;0.9027;1.5023;
511.2000;0.9052;1.5046;
511.5000;0.9011;1.5070;
511.8000;0.9027;1.5140;
512.1000;0.9027;1.5187;
512.4000;0.9035;1.5234;
512.7000;0.9035;1.5281;
513.0000;0.9011;1.5211;
513.3000;0.9035;1.5211;
513.6000;0.9035;1.5281;
513.9000;0.9019;1.5164;
514.2000;0.9035;1.5211;
514.5000;0.9027;1.5140;
514.8000;0.9027;1.5187;
515.1000;0.9044;1.5164;
515.4000;0.9003;1.5046;
515.7000;0.9011;1.5117;
516.0000;0.9019;1.5070;
516.3000;0.9044;1.5023;
516.6000;0.9019;1.4976;
516.9000;0.8995;1.4859;
517.2000;0.9011;1.4859;
517.5000;0.9019;1.4952;
517.8000;0.9011;1.4952;
518.1000;0.9019;1.4976;
518.4000;0.9068;1.5117;
518.7000;0.9019;1.4905;
519.0000;0.9011;1.4835;
519.3000;0.8995;1.4765;
519.6000;0.9011;1.4882;
519.9000;0.9011;1.4882;
520.2000;0.9003;1.4929;
520.5000;0.9011;1.4882;
520.8000;0.9011;1.4788;
521.1000;0.9044;1.4929;
521.4000;0.9019;1.4952;
521.7000;0.9027;1.4976;
522.0000;0.9027;1.5070;
522.3000;0.9027;1.5046;
522.6000;0.8995;1.4882;
522.9000;0.9019;1.4929;
523.2000;0.9011;1.4952;
523.5000;0.9011;1.4999;
523.8000;0.9027;1.5070;
524.1000;0.9035;1.5093;
524.4000;0.9011;1.5070;
524.7000;0.9011;1.5070;
525.0000;0.9019;1.5046;
525.3000;0.9019;1.5046;
525.6000;0.8921;1.4765;
525.9000;0.9019;1.5023;
526.2000;0.9019;1.5070;
526.5000;0.8938;1.4882;
526.8000;0.9019;1.5046;
527.1000;0.9044;1.5093;
527.4000;0.9019;1.4999;
527.7000;0.9019;1.4976;
528.0000;0.9027;1.4999;
528.3000;0.9011;1.4952;
528.6000;0.9003;1.4952;
528.9000;0.9003;1.5117;
529.2000;0.9011;1.5164;
529.5000;0.9003;1.5211;
529.8000;0.9003;1.5140;
530.1000;0.8995;1.5140;
530.4000;0.9035;1.5211;
530.7000;0.9003;1.5164;
531.0000;0.9011;1.5140;
531.3000;0.9011;1.5140;
531.6000;0.9027;1.5211;
531.9000;0.8995;1.5117;
532.2000;0.9003;1.5304;
532.5000;0.9011;1.5258;
532.8000;0.9019;1.5234;
533.1000;0.9011;1.5187;
533.4000;0.9011;1.5140;
533.7000;0.9027;1.5187;
534.0000;0.9027;1.5140;
534.3000;0.9052;1.5258;
534.6000;0.9019;1.5281;
534.9000;0.8962;1.5117;
535.2000;0.9044;1.5398;
535.5000;0.9027;1.5445;
535.8000;0.9027;1.5422;
536.1000;0.9019;1.5375;
536.4000;0.9003;1.5234;
536.7000;0.9019;1.5187;
537.0000;0.9011;1.5164;
537.3000;0.9003;1.5117;
537.6000;0.9019;1.5187;
537.9000;0.8995;1.5140;
538.2000;0.9003;1.5093;
538.5000;0.9003;1.5187;
538.8000;0.8978;1.5187;
539.1000;0.8987;1.5187;
539.4000;0.8995;1.5164;
539.7000;0.9003;1.5187;
540.0000;0.9011;1.5140;
540.3000;0.9003;1.5140;
540.6000;0.9003;1.5304;
540.9000;0.9027;1.5281;
541.2000;0.9011;1.5281;
541.5000;0.9011;1.5281;
541.8000;0.9035;1.5281;
542.1000;0.9019;1.5234;
542.4000;0.8930;1.5046;
542.7000;0.9003;1.5304;
543.0000;0.9011;1.5258;
543.3000;0.9019;1.5164;
543.6000;0.9019;1.5187;
543.9000;0.8995;1.5070;
544.2000;0.9011;1.5070;
544.5000;0.9019;1.5070;
544.8000;0.9101;1.5281;
545.1000;0.9003;1.5070;
545.4000;0.9003;1.5117;
545.7000;0.9019;1.5164;
546.0000;0.9019;1.5117;
546.3000;0.9019;1.5140;
546.6000;0.9019;1.5046;
546.9000;0.9003;1.5070;
547.2000;0.9019;1.5164;
547.5000;0.9027;1.5187;
547.8000;0.9068;1.5281;
548.1000;0.9011;1.5093;
548.4000;0.9027;1.5234;
548.7000;0.9019;1.5281;
549.0000;0.9019;1.5258;
549.3000;0.9019;1.5258;
549.6000;0.9019;1.5328;
549.9000;0.9011;1.5281;
550.2000;0.9027;1.5211;
550.5000;0.9027;1.5211;
550.8000;0.9027;1.5164;
551.1000;0.9044;1.5234;
551.4000;0.9027;1.5117;
551.7000;0.9019;1.5093;
552.0000;0.9027;1.5117;
552.3000;0.9035;1.5140;
552.6000;0.9019;1.5093;
552.9000;0.9027;1.5164;
553.2000;0.9027;1.5234;
553.5000;0.9035;1.5304;
553.8000;0.9019;1.5281;
554.1000;0.9019;1.5258;
554.4000;0.8987;1.5140;
554.7000;0.9035;1.5258;
555.0000;0.9019;1.5281;
555.3000;0.9003;1.5211;
555.6000;0.9003;1.5187;
555.9000;0.9076;1.5304;
556.2000;0.9019;1.5140;
556.5000;0.9011;1.5140;
556.8000;0.8970;1.5187;
557.1000;0.9011;1.5211;
557.4000;0.9027;1.5187;
557.7000;0.8913;1.4905;
558.0000;0.9003;1.5046;
558.3000;0.9019;1.5070;
558.6000;0.9019;1.5046;
558.9000;0.9035;1.5070;
559.2000;0.9019;1.5140;
559.5000;0.9019;1.5164;
559.8000;0.9019;1.5164;
560.1000;0.9019;1.5093;
560.4000;0.9035;1.5093;
560.7000;0.9003;1.4999;
561.0000;0.9011;1.4976;
561.3000;0.9003;1.4976;
561.6000;0.9019;1.5070;
561.9000;0.9003;1.5093;
562.2000;0.9019;1.5187;
562.5000;0.8946;1.5070;
562.8000;0.9052;1.5234;
563.1000;0.9027;1.5187;
563.4000;0.9027;1.5117;
563.7000;0.9035;1.5093;
564.0000;0.9027;1.5070;
564.3000;0.8938;1.4788;
564.6000;0.9027;1.4999;
564.9000;0.9019;1.5117;
565.2000;0.9027;1.5164;
565.5000;0.9011;1.5093;
565.8000;0.9019;1.5093;
566.1000;0.9035;1.5093;
566.4000;0.9027;1.5070;
566.7000;0.9035;1.5070;
567.0000;0.9052;1.5140;
567.3000;0.9011;1.5023;
567.6000;0.9027;1.5093;
567.9000;0.9044;1.5093;
568.2000;0.9035;1.5093;
568.5000;0.9027;1.5140;
568.8000;0.9035;1.5093;
569.1000;0.9044;1.5117;
569.4000;0.9027;1.5117;
569.7000;0.9019;1.5117;
570.0000;0.9019;1.5140;
570.3000;0.9060;1.5258;
570.6000;0.9027;1.5164;
570.9000;0.9003;1.5093;
571.2000;0.9035;1.5140;
571.5000;0.9035;1.5187;
571.8000;0.9060;1.5304;
572.1000;0.9011;1.5351;
572.4000;0.9019;1.5351;
572.7000;0.9027;1.5445;
573.0000;0.9092;1.5516;
573.3000;0.9052;1.5492;
573.6000;0.9003;1.5304;
573.9000;0.9044;1.5304;
574.2000;0.9035;1.5234;
574.5000;0.9003;1.5234;
574.8000;0.9027;1.5258;
575.1000;0.9035;1.5187;
575.4000;0.9019;1.5140;
575.7000;0.9035;1.5117;
576.0000;0.9027;1.5211;
576.3000;0.9044;1.5211;
576.6000;0.9027;1.5258;
576.9000;0.9060;1.5422;
577.2000;0.9027;1.5351;
577.5000;0.9011;1.5281;
577.8000;0.9019;1.5398;
578.1000;0.9060;1.5469;
578.4000;0.9060;1.5469;
578.7000;0.9019;1.5281;
579.0000;0.9011;1.5211;
579.3000;0.9027;1.5187;
579.6000;0.9027;1.5070;
579.9000;0.9117;1.5304;
580.2000;0.9027;1.5187;
580.5000;0.9044;1.5187;
580.8000;0.9092;1.5234;
581.1000;0.9044;1.5093;
581.4000;0.9035;1.5117;
581.7000;0.8987;1.4976;
582.0000;0.9044;1.5023;
582.3000;0.8987;1.4929;
582.6000;0.9019;1.5046;
582.9000;0.9052;1.5187;
583.2000;0.9035;1.5187;
583.5000;0.9019;1.5234;
583.8000;0.9027;1.5211;
584.1000;0.8978;1.5093;
584.4000;0.9027;1.5258;
584.7000;0.9035;1.5258;
585.0000;0.8954;1.5046;
585.3000;0.9003;1.5211;
585.6000;0.9011;1.5187;
585.9000;0.9109;1.5351;
586.2000;0.9027;1.5234;
586.5000;0.9011;1.5211;
586.8000;0.9011;1.5211;
587.1000;0.9019;1.5187;
587.4000;0.9011;1.5211;
587.7000;0.9019;1.5211;
588.0000;0.9019;1.5211;
588.3000;0.9019;1.5258;
588.6000;0.9035;1.5234;
588.9000;0.9117;1.5516;
589.2000;0.9027;1.5328;
589.5000;0.9044;1.5211;
589.8000;0.9027;1.5140;
590.1000;0.9035;1.5164;
590.4000;0.9044;1.5093;
590.7000;0.9125;1.5351;
591.0000;0.9035;1.5140;
591.3000;0.9044;1.5093;
591.6000;0.9019;1.5023;
591.9000;0.9027;1.4952;
592.2000;0.9019;1.4929;
592.5000;0.9027;1.4952;
592.8000;0.9003;1.4976;
593.1000;0.9011;1.4999;
593.4000;0.9019;1.4999;
593.7000;0.9019;1.5070;
594.0000;0.9019;1.5046;
594.3000;0.8970;1.4929;
594.6000;0.9027;1.5093;
594.9000;0.9035;1.5140;
595.2000;0.9027;1.5117;
595.5000;0.9027;1.5023;
595.8000;0.9027;1.5023;
596.1000;0.9027;1.5046;
596.4000;0.9035;1.5140;
596.7000;0.9003;1.5164;
597.0000;0.9003;1.5117;
597.3000;0.8987;1.5070;
597.6000;0.9019;1.5164;
597.9000;0.9027;1.5187;
598.2000;0.9011;1.5164;
598.5000;0.9003;1.5187;
598.8000;0.9035;1.5140;
599.1000;0.9011;1.5070;
599.4000;0.8987;1.5070;
599.7000;0.9027;1.5140;
600.0000;0.9011;1.5140;
600.3000;0.9068;1.5140;
600.6000;0.9019;1.4952;
600.9000;0.8987;1.4859;
601.2000;0.8954;1.4765;
601.5000;0.8897;1.4694;
601.8000;0.8832;1.4600;
602.1000;0.8742;1.4366;
602.4000;0.8653;1.4178;
602.7000;0.8612;1.4013;
603.0000;0.8612;1.4060;
603.3000;0.8490;1.3849;
603.6000;0.8417;1.3826;
603.9000;0.8376;1.3708;
604.2000;0.8295;1.3614;
604.5000;0.8295;1.3661;
604.8000;0.8221;1.3521;
605.1000;0.8213;1.3544;
605.4000;0.8124;1.3403;
605.7000;0.8050;1.3309;
606.0000;0.8026;1.3239;
606.3000;0.8002;1.3239;
606.6000;0.7961;1.3145;
606.9000;0.7920;1.3098;
607.2000;0.7888;1.3075;
607.5000;0.7839;1.2981;
607.8000;0.7806;1.2934;
608.1000;0.7790;1.2934;
608.4000;0.7733;1.2840;
608.7000;0.7709;1.2816;
609.0000;0.7660;1.2793;
609.3000;0.7652;1.2793;
609.6000;0.7595;1.2746;
609.9000;0.7578;1.2793;
610.2000;0.7554;1.2769;
610.5000;0.7546;1.2793;
610.8000;0.7578;1.2863;
611.1000;0.7497;1.2746;
611.4000;0.7432;1.2652;
611.7000;0.7432;1.2699;
612.0000;0.7407;1.2629;
612.3000;0.7375;1.2629;
612.6000;0.7350;1.2605;
612.9000;0.7326;1.2605;
613.2000;0.7293;1.2652;
613.5000;0.7293;1.2675;
613.8000;0.7253;1.2722;
614.1000;0.7245;1.2793;
614.4000;0.7228;1.2722;
614.7000;0.7204;1.2652;
615.0000;0.7163;1.2582;
615.3000;0.7147;1.2722;
615.6000;0.7179;1.2910;
615.9000;0.7098;1.2722;
616.2000;0.7090;1.2722;
616.5000;0.7057;1.2722;
616.8000;0.7033;1.2722;
617.1000;0.7025;1.2746;
617.4000;0.7025;1.2769;
617.7000;0.7009;1.2699;
618.0000;0.6895;1.2535;
618.3000;0.6968;1.2605;
618.6000;0.6943;1.2582;
618.9000;0.6911;1.2535;
619.2000;0.6895;1.2441;
619.5000;0.6903;1.2605;
619.8000;0.6870;1.2652;
620.1000;0.6854;1.2558;
620.4000;0.6838;1.2488;
620.7000;0.6838;1.2558;
621.0000;0.6838;1.2511;
621.3000;0.6805;1.2535;
621.6000;0.6772;1.2488;
621.9000;0.6781;1.2511;
622.2000;0.6724;1.2370;
622.5000;0.6748;1.2464;
622.8000;0.6748;1.2323;
623.1000;0.6634;1.2159;
623.4000;0.6724;1.2347;
623.7000;0.6707;1.2417;
624.0000;0.6675;1.2394;
624.3000;0.6675;1.2441;
624.6000;0.6659;1.2511;
624.9000;0.6650;1.2582;
625.2000;0.6642;1.2629;
625.5000;0.6593;1.2558;
625.8000;0.6618;1.2558;
626.1000;0.6593;1.2558;
626.4000;0.6577;1.2605;
626.7000;0.6561;1.2558;
627.0000;0.6520;1.2488;
627.3000;0.6545;1.2558;
627.6000;0.6545;1.2535;
627.9000;0.6512;1.2464;
628.2000;0.6553;1.2535;
628.5000;0.6512;1.2441;
628.8000;0.6496;1.2394;
629.1000;0.6463;1.2323;
629.4000;0.6488;1.2464;
629.7000;0.6463;1.2464;
630.0000;0.6455;1.2441;
630.3000;0.6447;1.2370;
630.6000;0.6431;1.2347;
630.9000;0.6471;1.2394;
631.2000;0.6365;1.2230;
631.5000;0.6398;1.2394;
631.8000;0.6414;1.2441;
632.1000;0.6382;1.2347;
632.4000;0.6382;1.2370;
632.7000;0.6382;1.2394;
633.0000;0.6374;1.2441;
633.3000;0.6365;1.2323;
633.6000;0.6365;1.2417;
633.9000;0.6341;1.2394;
634.2000;0.6333;1.2323;
634.5000;0.6325;1.2347;
634.8000;0.6325;1.2417;
635.1000;0.6317;1.2511;
635.4000;0.6276;1.2417;
635.7000;0.6276;1.2417;
636.0000;0.6276;1.2464;
636.3000;0.6170;1.2206;
636.6000;0.6268;1.2417;
636.9000;0.6243;1.2323;
637.2000;0.6243;1.2206;
637.5000;0.6260;1.2230;
637.8000;0.6219;1.2089;
638.1000;0.6227;1.2136;
638.4000;0.6195;1.2065;
638.7000;0.6219;1.2183;
639.0000;0.6195;1.2206;
639.3000;0.6195;1.2253;
639.6000;0.6178;1.2183;
639.9000;0.6186;1.2159;
640.2000;0.6146;1.2206;
640.5000;0.6170;1.2323;
640.8000;0.6162;1.2300;
641.1000;0.6113;1.2206;
641.4000;0.6154;1.2253;
641.7000;0.6113;1.2206;
642.0000;0.6138;1.2276;
642.3000;0.6048;1.2042;
642.6000;0.5991;1.1807;
642.9000;0.6129;1.2136;
643.2000;0.6129;1.2253;
643.5000;0.6072;1.2183;
643.8000;0.6097;1.2206;
644.1000;0.6081;1.2183;
644.4000;0.6097;1.2230;
644.7000;0.6081;1.2230;
645.0000;0.6089;1.2253;
645.3000;0.6089;1.2253;
645.6000;0.6113;1.2323;
645.9000;0.5991;1.2136;
646.2000;0.6048;1.2370;
646.5000;0.6056;1.2464;
646.8000;0.6032;1.2323;
647.1000;0.6089;1.2394;
647.4000;0.6015;1.2136;
647.7000;0.6024;1.2159;
648.0000;0.6040;1.2206;
648.3000;0.6015;1.2136;
648.6000;0.6024;1.2065;
648.9000;0.6015;1.2089;
649.2000;0.6056;1.2323;
649.5000;0.6007;1.2206;
649.8000;0.5991;1.2253;
650.1000;0.5975;1.2183;
650.4000;0.5991;1.2276;
650.7000;0.5967;1.2159;
651.0000;0.5967;1.2183;
651.3000;0.5967;1.2136;
651.6000;0.5975;1.2206;
651.9000;0.5958;1.2159;
652.2000;0.5942;1.2206;
652.5000;0.5942;1.2230;
652.8000;0.6024;1.2370;
653.1000;0.5934;1.2183;
653.4000;0.5934;1.2253;
653.7000;0.5853;1.2018;
654.0000;0.5926;1.2206;
654.3000;0.5942;1.2206;
654.6000;0.5918;1.2206;
654.9000;0.5942;1.2253;
655.2000;0.5926;1.2089;
655.5000;0.5934;1.2065;
655.8000;0.5958;1.2183;
656.1000;0.5902;1.2018;
656.4000;0.5845;1.2042;
656.7000;0.5869;1.2183;
657.0000;0.5877;1.2230;
657.3000;0.5828;1.2089;
657.6000;0.5869;1.2159;
657.9000;0.5861;1.2159;
658.2000;0.5869;1.2183;
658.5000;0.5845;1.2136;
658.8000;0.5853;1.2136;
659.1000;0.5861;1.2112;
659.4000;0.5828;1.2112;
659.7000;0.5845;1.2112;
660.0000;0.5853;1.2230;
660.3000;0.5828;1.2253;
660.6000;0.5853;1.2417;
660.9000;0.5836;1.2370;
661.2000;0.5845;1.2417;
661.5000;0.5877;1.2558;
661.8000;0.5845;1.2535;
662.1000;0.5836;1.2394;
662.4000;0.5796;1.2300;
662.7000;0.5812;1.2300;
663.0000;0.5836;1.2300;
663.3000;0.5828;1.2323;
663.6000;0.5820;1.2300;
663.9000;0.5779;1.2253;
664.2000;0.5796;1.2347;
664.5000;0.5804;1.2394;
664.8000;0.5804;1.2300;
665.1000;0.5779;1.2183;
665.4000;0.5788;1.2159;
665.7000;0.5714;1.2065;
666.0000;0.5771;1.2206;
666.3000;0.5796;1.2323;
666.6000;0.5771;1.2347;
666.9000;0.5763;1.2276;
667.2000;0.5788;1.2323;
667.5000;0.5779;1.2253;
667.8000;0.5779;1.2206;
668.1000;0.5820;1.2300;
668.4000;0.5763;1.2253;
668.7000;0.5763;1.2253;
669.0000;0.5755;1.2276;
669.3000;0.5755;1.2253;
669.6000;0.5747;1.2347;
669.9000;0.5755;1.2347;
670.2000;0.5747;1.2276;
670.5000;0.5747;1.2300;
670.8000;0.5755;1.2253;
671.1000;0.5755;1.2300;
671.4000;0.5747;1.2230;
671.7000;0.5722;1.2230;
672.0000;0.5739;1.2276;
672.3000;0.5747;1.2300;
672.6000;0.5739;1.2253;
672.9000;0.5731;1.2253;
673.2000;0.5698;1.2159;
673.5000;0.5747;1.2347;
673.8000;0.5739;1.2323;
674.1000;0.5722;1.2276;
674.4000;0.5706;1.2159;
674.7000;0.5722;1.2183;
675.0000;0.5731;1.2159;
675.3000;0.5698;1.2136;
675.6000;0.5714;1.2159;
675.9000;0.5674;1.2159;
676.2000;0.5722;1.2206;
676.5000;0.5714;1.2089;
676.8000;0.5706;1.2159;
677.1000;0.5706;1.2136;
677.4000;0.5706;1.2136;
677.7000;0.5714;1.2136;
678.0000;0.5690;1.2089;
678.3000;0.5698;1.2065;
678.6000;0.5690;1.1971;
678.9000;0.5698;1.2018;
679.2000;0.5820;1.2347;
679.5000;0.5690;1.2089;
679.8000;0.5682;1.2159;
680.1000;0.5665;1.2136;
680.4000;0.5608;1.1948;
680.7000;0.5665;1.2253;
681.0000;0.5665;1.2253;
681.3000;0.5690;1.2253;
681.6000;0.5682;1.2230;
681.9000;0.5674;1.2159;
682.2000;0.5682;1.2136;
682.5000;0.5657;1.2065;
682.8000;0.5682;1.2136;
683.1000;0.5674;1.2112;
683.4000;0.5665;1.1995;
683.7000;0.5600;1.1971;
684.0000;0.5682;1.2206;
684.3000;0.5731;1.2347;
684.6000;0.5657;1.2159;
684.9000;0.5665;1.2206;
685.2000;0.5665;1.2136;
685.5000;0.5690;1.2230;
685.8000;0.5763;1.2370;
686.1000;0.5649;1.2136;
686.4000;0.5633;1.2206;
686.7000;0.5665;1.2230;
687.0000;0.5649;1.2206;
687.3000;0.5649;1.2206;
687.6000;0.5665;1.2183;
687.9000;0.5649;1.2183;
688.2000;0.5633;1.2112;
688.5000;0.5633;1.2136;
688.8000;0.5608;1.2206;
689.1000;0.5625;1.2230;
689.4000;0.5641;1.2206;
689.7000;0.5617;1.2253;
690.0000;0.5657;1.2347;
690.3000;0.5625;1.2230;
690.6000;0.5625;1.2276;
690.9000;0.5600;1.2230;
691.2000;0.5592;1.2089;
691.5000;0.5617;1.2089;
691.8000;0.5617;1.2112;
692.1000;0.5617;1.2136;
692.4000;0.5608;1.2089;
692.7000;0.5617;1.1995;
693.0000;0.5625;1.1995;
693.3000;0.5625;1.1995;
693.6000;0.5625;1.2018;
693.9000;0.5649;1.2136;
694.2000;0.5584;1.2042;
694.5000;0.5633;1.2206;
694.8000;0.5600;1.2136;
695.1000;0.5600;1.2136;
695.4000;0.5600;1.2159;
695.7000;0.5600;1.2230;
696.0000;0.5592;1.2206;
696.3000;0.5600;1.2159;
696.6000;0.5592;1.2159;
696.9000;0.5608;1.2112;
697.2000;0.5576;1.2112;
697.5000;0.5608;1.2276;
697.8000;0.5600;1.2276;
698.1000;0.5625;1.2417;
698.4000;0.5592;1.2300;
698.7000;0.5600;1.2300;
699.0000;0.5608;1.2347;
699.3000;0.5592;1.2394;
699.6000;0.5584;1.2394;
699.9000;0.5568;1.2370;
700.2000;0.5592;1.2347;
700.5000;0.5568;1.2206;
700.8000;0.5600;1.2183;
701.1000;0.5584;1.2112;
701.4000;0.5576;1.2112;
701.7000;0.5584;1.2159;
702.0000;0.5503;1.2042;
702.3000;0.5592;1.2230;
702.6000;0.5568;1.2136;
702.9000;0.5568;1.2112;
703.2000;0.5535;1.1948;
703.5000;0.5576;1.2042;
703.8000;0.5576;1.2112;
704.1000;0.5568;1.2112;
704.4000;0.5560;1.2136;
704.7000;0.5584;1.2183;
705.0000;0.5551;1.2230;
705.3000;0.5543;1.2230;
705.6000;0.5608;1.2370;
705.9000;0.5649;1.2394;
706.2000;0.5568;1.2230;
706.5000;0.5527;1.2112;
706.8000;0.5560;1.2159;
707.1000;0.5560;1.2183;
707.4000;0.5551;1.2089;
707.7000;0.5511;1.2089;
708.0000;0.5674;1.2464;
708.3000;0.5568;1.2206;
708.6000;0.5560;1.2300;
708.9000;0.5560;1.2159;
709.2000;0.5560;1.2206;
709.5000;0.5568;1.2183;
709.8000;0.5551;1.2136;
710.1000;0.5543;1.2230;
710.4000;0.5568;1.2323;
710.7000;0.5543;1.2300;
711.0000;0.5560;1.2323;
711.3000;0.5568;1.2300;
711.6000;0.5535;1.2206;
711.9000;0.5543;1.2230;
712.2000;0.5486;1.2042;
712.5000;0.5543;1.2136;
712.8000;0.5535;1.2089;
713.1000;0.5600;1.2183;
713.4000;0.5543;1.2159;
713.7000;0.5543;1.2253;
714.0000;0.5568;1.2323;
714.3000;0.5560;1.2300;
714.6000;0.5551;1.2253;
714.9000;0.5551;1.2300;
715.2000;0.5470;1.2136;
715.5000;0.5438;1.2042;
715.8000;0.5527;1.2300;
716.1000;0.5519;1.2370;
716.4000;0.5543;1.2441;
716.7000;0.5519;1.2300;
717.0000;0.5519;1.2370;
717.3000;0.5535;1.2300;
717.6000;0.5527;1.2323;
717.9000;0.5527;1.2347;
718.2000;0.5511;1.2276;
718.5000;0.5543;1.2323;
718.8000;0.5543;1.2300;
719.1000;0.5511;1.2206;
719.4000;0.5527;1.2323;
719.7000;0.5527;1.2159;
720.0000;0.5519;1.2183;
720.3000;0.5511;1.2300;
720.6000;0.5519;1.2347;
720.9000;0.5592;1.2488;
721.2000;0.5560;1.2394;
721.5000;0.5535;1.2347;
721.8000;0.5519;1.2300;
722.1000;0.5511;1.2347;
722.4000;0.5421;1.2089;
722.7000;0.5486;1.2253;
723.0000;0.5535;1.2276;
723.3000;0.5519;1.2230;
723.6000;0.5503;1.2230;
723.9000;0.5486;1.2253;
724.2000;0.5535;1.2394;
724.5000;0.5519;1.2323;
724.8000;0.5519;1.2323;
725.1000;0.5527;1.2323;
725.4000;0.5535;1.2276;
725.7000;0.5438;1.1971;
726.0000;0.5503;1.2206;
726.3000;0.5511;1.2183;
726.6000;0.5519;1.2206;
726.9000;0.5519;1.2230;
727.2000;0.5527;1.2230;
727.5000;0.5519;1.2230;
727.8000;0.5511;1.2253;
728.1000;0.5560;1.2323;
728.4000;0.5462;1.2136;
728.7000;0.5519;1.2183;
729.0000;0.5551;1.2253;
729.3000;0.5413;1.1971;
729.6000;0.5527;1.2183;
729.9000;0.5486;1.2112;
730.2000;0.5478;1.2159;
730.5000;0.5511;1.2230;
730.8000;0.5495;1.2183;
731.1000;0.5511;1.2230;
731.4000;0.5535;1.2206;
731.7000;0.5503;1.2042;
732.0000;0.5503;1.2042;
732.3000;0.5511;1.2042;
732.6000;0.5503;1.2042;
732.9000;0.5511;1.2136;
733.2000;0.5503;1.2206;
733.5000;0.5511;1.2183;
733.8000;0.5503;1.2112;
734.1000;0.5454;1.1948;
734.4000;0.5462;1.1995;
734.7000;0.5495;1.2065;
735.0000;0.5495;1.2089;
735.3000;0.5478;1.2065;
735.6000;0.5470;1.2042;
735.9000;0.5503;1.2183;
736.2000;0.5535;1.2347;
736.5000;0.5519;1.2347;
736.8000;0.5519;1.2253;
737.1000;0.5495;1.2159;
737.4000;0.5551;1.2276;
737.7000;0.5486;1.2206;
738.0000;0.5486;1.2206;
738.3000;0.5511;1.2230;
738.6000;0.5519;1.2300;
738.9000;0.5486;1.2230;
739.2000;0.5519;1.2347;
739.5000;0.5478;1.2276;
739.8000;0.5486;1.2323;
740.1000;0.5495;1.2276;
740.4000;0.5486;1.2230;
740.7000;0.5495;1.2253;
741.0000;0.5486;1.2276;
741.3000;0.5478;1.2323;
741.6000;0.5478;1.2276;
741.9000;0.5560;1.2417;
742.2000;0.5470;1.2136;
742.5000;0.5486;1.2136;
742.8000;0.5470;1.2159;
743.1000;0.5486;1.2089;
743.4000;0.5503;1.2112;
743.7000;0.5495;1.2089;
744.0000;0.5495;1.2112;
744.3000;0.5511;1.2159;
744.6000;0.5503;1.2136;
744.9000;0.5486;1.2065;
745.2000;0.5543;1.2230;
745.5000;0.5495;1.2112;
745.8000;0.5454;1.2065;
746.1000;0.5486;1.2206;
746.4000;0.5511;1.2230;
746.7000;0.5503;1.2183;
747.0000;0.5486;1.2159;
747.3000;0.5462;1.2136;
747.6000;0.5519;1.2230;
747.9000;0.5495;1.2183;
748.2000;0.5478;1.2065;
748.5000;0.5503;1.2183;
748.8000;0.5470;1.2089;
749.1000;0.5495;1.2206;
749.4000;0.5486;1.2206;
749.7000;0.5454;1.2136;
750.0000;0.5486;1.2089;
750.3000;0.5503;1.2112;
750.6000;0.5470;1.2136;
750.9000;0.5503;1.2347;
751.2000;0.5478;1.2323;
751.5000;0.5470;1.2253;
751.8000;0.5470;1.2253;
752.1000;0.5478;1.2206;
752.4000;0.5478;1.2159;
752.7000;0.5478;1.2183;
753.0000;0.5454;1.2206;
753.3000;0.5470;1.2183;
753.6000;0.5470;1.2183;
753.9000;0.5486;1.2183;
754.2000;0.5486;1.2089;
754.5000;0.5454;1.1971;
754.8000;0.5486;1.2183;
755.1000;0.5478;1.2183;
755.4000;0.5462;1.2253;
755.7000;0.5462;1.2206;
756.0000;0.5470;1.2183;
756.3000;0.5486;1.2206;
756.6000;0.5470;1.2136;
756.9000;0.5446;1.2159;
757.2000;0.5454;1.2183;
757.5000;0.5470;1.2300;
757.8000;0.5470;1.2276;
758.1000;0.5462;1.2253;
758.4000;0.5454;1.2230;
758.7000;0.5470;1.2253;
759.0000;0.5470;1.2206;
759.3000;0.5470;1.2183;
759.6000;0.5462;1.2183;
759.9000;0.5478;1.2183;
760.2000;0.5470;1.2183;
760.5000;0.5462;1.2136;
760.8000;0.5470;1.2230;
761.1000;0.5438;1.2136;
761.4000;0.5413;1.2042;
761.7000;0.5478;1.2253;
762.0000;0.5405;1.2042;
762.3000;0.5438;1.2136;
762.6000;0.5454;1.2089;
762.9000;0.5470;1.2042;
763.2000;0.5470;1.2159;
763.5000;0.5462;1.2159;
763.8000;0.5470;1.2206;
764.1000;0.5462;1.2230;
764.4000;0.5454;1.2276;
764.7000;0.5462;1.2417;
765.0000;0.5478;1.2535;
765.3000;0.5478;1.2535;
765.6000;0.5470;1.2488;
765.9000;0.5478;1.2464;
766.2000;0.5454;1.2441;
766.5000;0.5454;1.2464;
766.8000;0.5470;1.2488;
767.1000;0.5454;1.2464;
767.4000;0.5454;1.2417;
767.7000;0.5438;1.2253;
768.0000;0.5454;1.2136;
768.3000;0.5462;1.2159;
768.6000;0.5478;1.2300;
768.9000;0.5470;1.2300;
769.2000;0.5446;1.2300;
769.5000;0.5495;1.2370;
769.8000;0.5470;1.2323;
770.1000;0.5470;1.2276;
770.4000;0.5470;1.2300;
770.7000;0.5462;1.2206;
771.0000;0.5470;1.2206;
771.3000;0.5470;1.2230;
771.6000;0.5462;1.2136;
771.9000;0.5470;1.2159;
772.2000;0.5454;1.2183;
772.5000;0.5446;1.2112;
772.8000;0.5462;1.2230;
773.1000;0.5470;1.2206;
773.4000;0.5438;1.2206;
773.7000;0.5421;1.2206;
774.0000;0.5462;1.2276;
774.3000;0.5454;1.2276;
774.6000;0.5454;1.2253;
774.9000;0.5462;1.2370;
775.2000;0.5446;1.2323;
775.5000;0.5462;1.2323;
775.8000;0.5446;1.2394;
776.1000;0.5462;1.2441;
776.4000;0.5438;1.2347;
776.7000;0.5454;1.2394;
777.0000;0.5519;1.2511;
777.3000;0.5462;1.2464;
777.6000;0.5413;1.2230;
777.9000;0.5503;1.2558;
778.2000;0.5454;1.2323;
778.5000;0.5454;1.2300;
778.8000;0.5454;1.2230;
779.1000;0.5519;1.2394;
779.4000;0.5462;1.2276;
779.7000;0.5454;1.2253;
780.0000;0.5462;1.2253;
780.3000;0.5478;1.2253;
780.6000;0.5454;1.2183;
780.9000;0.5478;1.2183;
781.2000;0.5462;1.2136;
781.5000;0.5470;1.2089;
781.8000;0.5462;1.2112;
782.1000;0.5470;1.2136;
782.4000;0.5462;1.2159;
782.7000;0.5438;1.2089;
783.0000;0.5454;1.2136;
783.3000;0.5454;1.2183;
783.6000;0.5446;1.2136;
783.9000;0.5446;1.2136;
784.2000;0.5429;1.2042;
784.5000;0.5454;1.2136;
784.8000;0.5429;1.2183;
785.1000;0.5454;1.2276;
785.4000;0.5446;1.2276;
785.7000;0.5462;1.2300;
786.0000;0.5446;1.2276;
786.3000;0.5470;1.2323;
786.6000;0.5470;1.2347;
786.9000;0.5405;1.2183;
787.2000;0.5470;1.2323;
787.5000;0.5454;1.2347;
787.8000;0.5438;1.2206;
788.1000;0.5438;1.2206;
788.4000;0.5454;1.2230;
788.7000;0.5454;1.2206;
789.0000;0.5470;1.2206;
789.3000;0.5454;1.2089;
789.6000;0.5454;1.2065;
789.9000;0.5454;1.2065;
790.2000;0.5503;1.2136;
790.5000;0.5446;1.1971;
790.8000;0.5438;1.1924;
791.1000;0.5438;1.1877;
791.4000;0.5462;1.1854;
791.7000;0.5446;1.1901;
792.0000;0.5438;1.1995;
792.3000;0.5340;1.1737;
792.6000;0.5446;1.1948;
792.9000;0.5438;1.1901;
793.2000;0.5454;1.1948;
793.5000;0.5446;1.1995;
793.8000;0.5397;1.1924;
794.1000;0.5446;1.1995;
794.4000;0.5429;1.1995;
794.7000;0.5446;1.2065;
795.0000;0.5446;1.2112;
795.3000;0.5446;1.2112;
795.6000;0.5438;1.2042;
795.9000;0.5462;1.2112;
796.2000;0.5462;1.2183;
796.5000;0.5478;1.2276;
796.8000;0.5454;1.2300;
797.1000;0.5462;1.2300;
797.4000;0.5470;1.2347;
797.7000;0.5446;1.2300;
798.0000;0.5454;1.2347;
798.3000;0.5454;1.2347;
798.6000;0.5503;1.2464;
798.9000;0.5446;1.2347;
799.2000;0.5470;1.2347;
799.5000;0.5446;1.2323;
799.8000;0.5438;1.2253;
800.1000;0.5438;1.2230;
800.4000;0.5454;1.2183;
800.7000;0.5438;1.2253;
801.0000;0.5429;1.2183;
801.3000;0.5429;1.2136;
801.6000;0.5462;1.2042;
801.9000;0.5446;1.1948;
802.2000;0.5429;1.1877;
802.5000;0.5462;1.1971;
802.8000;0.5470;1.1924;
803.1000;0.5462;1.1995;
803.4000;0.5413;1.1737;
803.7000;0.5454;1.1877;
804.0000;0.5340;1.1713;
804.3000;0.5429;1.1995;
804.6000;0.5429;1.1924;
804.9000;0.5429;1.1948;
805.2000;0.5495;1.2183;
805.5000;0.5446;1.1995;
805.8000;0.5413;1.2018;
806.1000;0.5438;1.2136;
806.4000;0.5446;1.2159;
806.7000;0.5446;1.2159;
807.0000;0.5446;1.2065;
807.3000;0.5438;1.2065;
807.6000;0.5438;1.2089;
807.9000;0.5438;1.2112;
808.2000;0.5413;1.1948;
808.5000;0.5446;1.1971;
808.8000;0.5438;1.2065;
809.1000;0.5446;1.2065;
809.4000;0.5454;1.2089;
809.7000;0.5429;1.2065;
810.0000;0.5438;1.2089;
810.3000;0.5438;1.2112;
810.6000;0.5446;1.2065;
810.9000;0.5478;1.2018;
811.2000;0.5413;1.1854;
811.5000;0.5446;1.1830;
811.8000;0.5446;1.1854;
812.1000;0.5389;1.1713;
812.4000;0.5438;1.2042;
812.7000;0.5429;1.2136;
813.0000;0.5438;1.2112;
813.3000;0.5389;1.1948;
813.6000;0.5446;1.1995;
813.9000;0.5429;1.1995;
814.2000;0.5446;1.2042;
814.5000;0.5446;1.2042;
814.8000;0.5454;1.2089;
815.1000;0.5438;1.2089;
815.4000;0.5446;1.2112;
815.7000;0.5446;1.2089;
816.0000;0.5413;1.1948;
816.3000;0.5389;1.1877;
816.6000;0.5454;1.2018;
816.9000;0.5486;1.2065;
817.2000;0.5438;1.2042;
817.5000;0.5454;1.2112;
817.8000;0.5421;1.2065;
818.1000;0.5429;1.2112;
818.4000;0.5462;1.2159;
818.7000;0.5462;1.2230;
819.0000;0.5454;1.2253;
819.3000;0.5454;1.2370;
819.6000;0.5438;1.2347;
819.9000;0.5438;1.2300;
820.2000;0.5429;1.2347;
820.5000;0.5413;1.2300;
820.8000;0.5438;1.2370;
821.1000;0.5421;1.2323;
821.4000;0.5438;1.2300;
821.7000;0.5429;1.2183;
822.0000;0.5438;1.2347;
822.3000;0.5446;1.2370;
822.6000;0.5429;1.2417;
822.9000;0.5519;1.2629;
823.2000;0.5446;1.2417;
823.5000;0.5454;1.2300;
823.8000;0.5429;1.2230;
824.1000;0.5332;1.2065;
824.4000;0.5413;1.2230;
824.7000;0.5446;1.2323;
825.0000;0.5397;1.2230;
825.3000;0.5429;1.2230;
825.6000;0.5421;1.2206;
825.9000;0.5397;1.2112;
826.2000;0.5446;1.2230;
826.5000;0.5438;1.2276;
826.8000;0.5462;1.2323;
827.1000;0.5429;1.2276;
827.4000;0.5438;1.2323;
827.7000;0.5421;1.2276;
828.0000;0.5446;1.2276;
828.3000;0.5438;1.2253;
828.6000;0.5429;1.2230;
828.9000;0.5438;1.2300;
829.2000;0.5462;1.2300;
829.5000;0.5478;1.2253;
829.8000;0.5454;1.2230;
830.1000;0.5405;1.2136;
830.4000;0.5372;1.2112;
830.7000;0.5446;1.2183;
831.0000;0.5438;1.2159;
831.3000;0.5446;1.2136;
831.6000;0.5413;1.1995;
831.9000;0.5446;1.2089;
832.2000;0.5421;1.1948;
832.5000;0.5519;1.2206;
832.8000;0.5454;1.2018;
833.1000;0.5438;1.1924;
833.4000;0.5429;1.1924;
833.7000;0.5454;1.2042;
834.0000;0.5397;1.1971;
834.3000;0.5438;1.1995;
834.6000;0.5454;1.1948;
834.9000;0.5446;1.1901;
835.2000;0.5446;1.1995;
835.5000;0.5446;1.1924;
835.8000;0.5438;1.2042;
836.1000;0.5429;1.1948;
836.4000;0.5446;1.1971;
836.7000;0.5446;1.1948;
837.0000;0.5438;1.1948;
837.3000;0.5462;1.2042;
837.6000;0.5446;1.2018;
837.9000;0.5429;1.1995;
838.2000;0.5438;1.2065;
838.5000;0.5413;1.1971;
838.8000;0.5421;1.2042;
839.1000;0.5478;1.2183;
839.4000;0.5429;1.2065;
839.7000;0.5429;1.1995;
840.0000;0.5429;1.2112;
840.3000;0.5438;1.2230;
840.6000;0.5446;1.2253;
840.9000;0.5429;1.2230;
841.2000;0.5438;1.2183;
841.5000;0.5454;1.2159;
841.8000;0.5446;1.2159;
842.1000;0.5446;1.2206;
842.4000;0.5413;1.2136;
842.7000;0.5438;1.2253;
843.0000;0.5421;1.2276;
843.3000;0.5421;1.2253;
843.6000;0.5429;1.2253;
843.9000;0.5421;1.2276;
844.2000;0.5478;1.2347;
844.5000;0.5421;1.2347;
844.8000;0.5438;1.2370;
845.1000;0.5429;1.2206;
845.4000;0.5454;1.2276;
845.7000;0.5446;1.2183;
846.0000;0.5429;1.2112;
846.3000;0.5446;1.2112;
846.6000;0.5535;1.2441;
846.9000;0.5332;1.1948;
847.2000;0.5381;1.1995;
847.5000;0.5446;1.2089;
847.8000;0.5429;1.2136;
848.1000;0.5438;1.2206;
848.4000;0.5503;1.2417;
848.7000;0.5438;1.2253;
849.0000;0.5446;1.2183;
849.3000;0.5413;1.2089;
849.6000;0.5446;1.2112;
849.9000;0.5454;1.2159;
850.2000;0.5454;1.2206;
850.5000;0.5438;1.2206;
850.8000;0.5446;1.2183;
851.1000;0.5454;1.2206;
851.4000;0.5381;1.2089;
851.7000;0.5429;1.2206;
852.0000;0.5421;1.2206;
852.3000;0.5438;1.2276;
852.6000;0.5397;1.2253;
852.9000;0.5438;1.2394;
853.2000;0.5478;1.2347;
853.5000;0.5486;1.2300;
853.8000;0.5438;1.2253;
854.1000;0.5454;1.2300;
854.4000;0.5478;1.2417;
854.7000;0.5429;1.2253;
855.0000;0.5446;1.2300;
855.3000;0.5438;1.2276;
855.6000;0.5429;1.2370;
855.9000;0.5462;1.2347;
856.2000;0.5413;1.2300;
856.5000;0.5470;1.2464;
856.8000;0.5438;1.2417;
857.1000;0.5454;1.2417;
857.4000;0.5429;1.2323;
857.7000;0.5438;1.2441;
858.0000;0.5454;1.2464;
858.3000;0.5462;1.2488;
858.6000;0.5438;1.2370;
858.9000;0.5446;1.2417;
859.2000;0.5462;1.2441;
859.5000;0.5421;1.2300;
859.8000;0.5446;1.2323;
860.1000;0.5429;1.2253;
860.4000;0.5413;1.2276;
860.7000;0.5429;1.2323;
861.0000;0.5470;1.2370;
861.3000;0.5429;1.2183;
861.6000;0.5429;1.2159;
861.9000;0.5438;1.2183;
862.2000;0.5446;1.2253;
862.5000;0.5446;1.2347;
862.8000;0.5438;1.2300;
863.1000;0.5446;1.2253;
863.4000;0.5429;1.2253;
863.7000;0.5429;1.2230;
864.0000;0.5454;1.2300;
864.3000;0.5429;1.2253;
864.6000;0.5413;1.2206;
864.9000;0.5429;1.2253;
865.2000;0.5429;1.2183;
865.5000;0.5454;1.2206;
865.8000;0.5438;1.2206;
866.1000;0.5438;1.2276;
866.4000;0.5438;1.2347;
866.7000;0.5429;1.2253;
867.0000;0.5421;1.2276;
867.3000;0.5429;1.2370;
867.6000;0.5454;1.2464;
867.9000;0.5429;1.2417;
868.2000;0.5446;1.2370;
868.5000;0.5397;1.2230;
868.8000;0.5503;1.2488;
869.1000;0.5438;1.2300;
869.4000;0.5462;1.2417;
869.7000;0.5446;1.2323;
870.0000;0.5438;1.2276;
870.3000;0.5315;1.2089;
870.6000;0.5429;1.2276;
870.9000;0.5551;1.2582;
871.2000;0.5438;1.2417;
871.5000;0.5438;1.2417;
871.8000;0.5429;1.2464;
872.1000;0.5421;1.2441;
872.4000;0.5511;1.2675;
872.7000;0.5462;1.2441;
873.0000;0.5429;1.2323;
873.3000;0.5454;1.2394;
873.6000;0.5511;1.2629;
873.9000;0.5438;1.2535;
874.2000;0.5462;1.2535;
874.5000;0.5405;1.2394;
874.8000;0.5438;1.2347;
875.1000;0.5470;1.2370;
875.4000;0.5446;1.2253;
875.7000;0.5429;1.2253;
876.0000;0.5438;1.2323;
876.3000;0.5438;1.2300;
876.6000;0.5446;1.2347;
876.9000;0.5446;1.2370;
877.2000;0.5478;1.2417;
877.5000;0.5454;1.2441;
877.8000;0.5438;1.2370;
878.1000;0.5438;1.2276;
878.4000;0.5413;1.2253;
878.7000;0.5446;1.2206;
879.0000;0.5438;1.2253;
879.3000;0.5421;1.2300;
879.6000;0.5438;1.2347;
879.9000;0.5446;1.2417;
880.2000;0.5470;1.2511;
880.5000;0.5421;1.2464;
880.8000;0.5429;1.2370;
881.1000;0.5486;1.2394;
881.4000;0.5429;1.2300;
881.7000;0.5429;1.2276;
882.0000;0.5438;1.2323;
882.3000;0.5413;1.2347;
882.6000;0.5421;1.2464;
882.9000;0.5511;1.2629;
883.2000;0.5446;1.2417;
883.5000;0.5438;1.2394;
883.8000;0.5446;1.2394;
884.1000;0.5446;1.2464;
884.4000;0.5364;1.2206;
884.7000;0.5421;1.2370;
885.0000;0.5454;1.2370;
885.3000;0.5519;1.2629;
885.6000;0.5454;1.2394;
885.9000;0.5438;1.2323;
886.2000;0.5429;1.2300;
886.5000;0.5446;1.2394;
886.8000;0.5421;1.2370;
887.1000;0.5438;1.2511;
887.4000;0.5429;1.2675;
887.7000;0.5446;1.2652;
888.0000;0.5454;1.2629;
888.3000;0.5454;1.2722;
888.6000;0.5429;1.2675;
888.9000;0.5421;1.2605;
889.2000;0.5438;1.2558;
889.5000;0.5438;1.2511;
889.8000;0.5429;1.2488;
890.1000;0.5462;1.2441;
890.4000;0.5454;1.2417;
890.7000;0.5438;1.2394;
891.0000;0.5446;1.2417;
891.3000;0.5429;1.2417;
891.6000;0.5429;1.2417;
891.9000;0.5438;1.2464;
892.2000;0.5413;1.2417;
892.5000;0.5429;1.2464;
892.8000;0.5503;1.2558;
893.1000;0.5446;1.2535;
893.4000;0.5486;1.2722;
893.7000;0.5454;1.2605;
894.0000;0.5421;1.2582;
894.3000;0.5413;1.2535;
894.6000;0.5438;1.2605;
894.9000;0.5446;1.2488;
895.2000;0.5438;1.2394;
895.5000;0.5446;1.2347;
895.8000;0.5454;1.2300;
896.1000;0.5446;1.2417;
896.4000;0.5438;1.2441;
896.7000;0.5438;1.2464;
897.0000;0.5495;1.2652;
897.3000;0.5446;1.2605;
897.6000;0.5429;1.2488;
897.9000;0.5454;1.2511;
898.2000;0.5446;1.2511;
898.5000;0.5438;1.2488;
898.8000;0.5429;1.2535;
899.1000;0.5421;1.2488;
899.4000;0.5454;1.2558;
899.7000;0.5438;1.2535;
900.0000;0.5429;1.2535;
900.3000;0.5429;1.2417;
900.6000;0.5429;1.2394;
900.9000;0.5429;1.2441;
901.2000;0.5381;1.2323;
901.5000;0.5421;1.2488;
901.8000;0.5446;1.2511;
902.1000;0.5438;1.2582;
902.4000;0.5446;1.2629;
902.7000;0.5421;1.2535;
903.0000;0.5340;1.2300;
903.3000;0.5454;1.2605;
903.6000;0.5429;1.2488;
903.9000;0.5446;1.2511;
904.2000;0.5364;1.2323;
904.5000;0.5438;1.2535;
904.8000;0.5429;1.2441;
905.1000;0.5438;1.2511;
905.4000;0.5438;1.2488;
905.7000;0.5462;1.2511;
906.0000;0.5421;1.2511;
906.3000;0.5421;1.2370;
906.6000;0.5438;1.2276;
906.9000;0.5429;1.2300;
907.2000;0.5503;1.2582;
907.5000;0.5438;1.2511;
907.8000;0.5429;1.2441;
908.1000;0.5421;1.2394;
908.4000;0.5429;1.2370;
908.7000;0.5421;1.2323;
909.0000;0.5446;1.2488;
909.3000;0.5405;1.2370;
909.6000;0.5438;1.2417;
909.9000;0.5429;1.2417;
910.2000;0.5519;1.2652;
910.5000;0.5438;1.2488;
910.8000;0.5429;1.2535;
911.1000;0.5413;1.2441;
911.4000;0.5413;1.2370;
911.7000;0.5421;1.2347;
912.0000;0.5429;1.2323;
912.3000;0.5446;1.2323;
912.6000;0.5438;1.2276;
912.9000;0.5446;1.2206;
913.2000;0.5413;1.2136;
913.5000;0.5438;1.2183;
913.8000;0.5527;1.2417;
914.1000;0.5454;1.2347;
914.4000;0.5438;1.2323;
914.7000;0.5438;1.2347;
915.0000;0.5429;1.2323;
915.3000;0.5438;1.2323;
915.6000;0.5446;1.2300;
915.9000;0.5486;1.2464;
916.2000;0.5446;1.2370;
916.5000;0.5446;1.2323;
916.8000;0.5372;1.2183;
917.1000;0.5340;1.2042;
917.4000;0.5438;1.2323;
917.7000;0.5438;1.2394;
918.0000;0.5413;1.2370;
918.3000;0.5413;1.2300;
918.6000;0.5429;1.2300;
918.9000;0.5397;1.2253;
919.2000;0.5470;1.2441;
919.5000;0.5429;1.2323;
919.8000;0.5413;1.2370;
920.1000;0.5429;1.2394;
920.4000;0.5438;1.2488;
920.7000;0.5438;1.2535;
921.0000;0.5438;1.2582;
921.3000;0.5438;1.2582;
921.6000;0.5446;1.2558;
921.9000;0.5429;1.2464;
922.2000;0.5446;1.2488;
922.5000;0.5429;1.2441;
922.8000;0.5438;1.2441;
923.1000;0.5446;1.2558;
923.4000;0.5429;1.2464;
923.7000;0.5421;1.2300;
924.0000;0.5421;1.2347;
924.3000;0.5438;1.2276;
924.6000;0.5438;1.2159;
924.9000;0.5438;1.2253;
925.2000;0.5446;1.2276;
925.5000;0.5454;1.2370;
925.8000;0.5438;1.2370;
926.1000;0.5454;1.2417;
926.4000;0.5462;1.2464;
926.7000;0.5446;1.2464;
927.0000;0.5446;1.2535;
927.3000;0.5478;1.2605;
927.6000;0.5438;1.2441;
927.9000;0.5421;1.2417;
928.2000;0.5421;1.2347;
928.5000;0.5446;1.2441;
928.8000;0.5429;1.2464;
929.1000;0.5429;1.2441;
929.4000;0.5438;1.2488;
929.7000;0.5446;1.2558;
930.0000;0.5438;1.2488;
930.3000;0.5454;1.2464;
930.6000;0.5446;1.2417;
930.9000;0.5454;1.2370;
931.2000;0.5446;1.2417;
931.5000;0.5429;1.2370;
931.8000;0.5454;1.2394;
932.1000;0.5446;1.2370;
932.4000;0.5446;1.2323;
932.7000;0.5438;1.2323;
933.0000;0.5438;1.2300;
933.3000;0.5372;1.2183;
933.6000;0.5438;1.2323;
933.9000;0.5454;1.2370;
934.2000;0.5543;1.2675;
934.5000;0.5446;1.2511;
934.8000;0.5438;1.2417;
935.1000;0.5543;1.2746;
935.4000;0.5446;1.2488;
935.7000;0.5413;1.2417;
936.0000;0.5421;1.2441;
936.3000;0.5438;1.2511;
936.6000;0.5454;1.2464;
936.9000;0.5397;1.2300;
937.2000;0.5446;1.2441;
937.5000;0.5446;1.2464;
937.8000;0.5405;1.2347;
938.1000;0.5405;1.2394;
938.4000;0.5454;1.2558;
938.7000;0.5438;1.2511;
939.0000;0.5421;1.2488;
939.3000;0.5429;1.2511;
939.6000;0.5438;1.2605;
939.9000;0.5438;1.2675;
940.2000;0.5438;1.2605;
940.5000;0.5315;1.2206;
940.8000;0.5429;1.2558;
941.1000;0.5438;1.2605;
941.4000;0.5429;1.2629;
941.7000;0.5372;1.2558;
942.0000;0.5486;1.2863;
942.3000;0.5421;1.2652;
942.6000;0.5438;1.2605;
942.9000;0.5438;1.2488;
943.2000;0.5446;1.2464;
943.5000;0.5397;1.2370;
943.8000;0.5438;1.2441;
944.1000;0.5462;1.2488;
944.4000;0.5429;1.2441;
944.7000;0.5429;1.2488;
945.0000;0.5446;1.2582;
945.3000;0.5438;1.2558;
945.6000;0.5438;1.2558;
945.9000;0.5438;1.2605;
946.2000;0.5446;1.2582;
946.5000;0.5429;1.2582;
946.8000;0.5438;1.2558;
947.1000;0.5438;1.2511;
947.4000;0.5429;1.2488;
947.7000;0.5438;1.2488;
948.0000;0.5429;1.2417;
948.3000;0.5421;1.2370;
948.6000;0.5429;1.2417;
948.9000;0.5429;1.2488;
949.2000;0.5421;1.2511;
949.5000;0.5429;1.2464;
949.8000;0.5438;1.2417;
950.1000;0.5519;1.2511;
950.4000;0.5446;1.2370;
950.7000;0.5446;1.2441;
951.0000;0.5429;1.2535;
951.3000;0.5462;1.2675;
951.6000;0.5454;1.2605;
951.9000;0.5438;1.2535;
952.2000;0.5446;1.2535;
952.5000;0.5454;1.2582;
952.8000;0.5454;1.2558;
953.1000;0.5421;1.2441;
953.4000;0.5421;1.2488;
953.7000;0.5429;1.2464;
954.0000;0.5438;1.2441;
954.3000;0.5454;1.2558;
954.6000;0.5429;1.2394;
954.9000;0.5413;1.2394;
955.2000;0.5429;1.2488;
955.5000;0.5470;1.2535;
955.8000;0.5446;1.2558;
956.1000;0.5454;1.2722;
956.4000;0.5429;1.2675;
956.7000;0.5356;1.2582;
957.0000;0.5446;1.2722;
957.3000;0.5413;1.2675;
957.6000;0.5332;1.2488;
957.9000;0.5438;1.2699;
958.2000;0.5429;1.2722;
958.5000;0.5438;1.2605;
958.8000;0.5429;1.2535;
959.1000;0.5446;1.2582;
959.4000;0.5454;1.2605;
959.7000;0.5446;1.2558;
960.0000;0.5429;1.2535;
960.3000;0.5454;1.2535;
960.6000;0.5470;1.2535;
960.9000;0.5454;1.2464;
961.2000;0.5446;1.2511;
961.5000;0.5454;1.2511;
961.8000;0.5438;1.2511;
962.1000;0.5438;1.2511;
962.4000;0.5438;1.2511;
962.7000;0.5438;1.2464;
963.0000;0.5454;1.2417;
963.3000;0.5438;1.2370;
963.6000;0.5438;1.2300;
963.9000;0.5446;1.2394;
964.2000;0.5543;1.2769;
964.5000;0.5495;1.2558;
964.8000;0.5438;1.2417;
965.1000;0.5446;1.2464;
965.4000;0.5429;1.2417;
965.7000;0.5462;1.2511;
966.0000;0.5454;1.2511;
966.3000;0.5332;1.2253;
966.6000;0.5454;1.2535;
966.9000;0.5438;1.2558;
967.2000;0.5372;1.2394;
967.5000;0.5462;1.2605;
967.8000;0.5454;1.2558;
968.1000;0.5462;1.2629;
968.4000;0.5462;1.2464;
968.7000;0.5438;1.2535;
969.0000;0.5421;1.2558;
969.3000;0.5486;1.2746;
969.6000;0.5438;1.2652;
969.9000;0.5511;1.2816;
970.2000;0.5429;1.2582;
970.5000;0.5446;1.2535;
970.8000;0.5364;1.2347;
971.1000;0.5429;1.2488;
971.4000;0.5454;1.2488;
971.7000;0.5446;1.2582;
972.0000;0.5446;1.2558;
972.3000;0.5438;1.2558;
972.6000;0.5438;1.2558;
972.9000;0.5495;1.2746;
973.2000;0.5438;1.2582;
973.5000;0.5462;1.2511;
973.8000;0.5413;1.2370;
974.1000;0.5429;1.2441;
974.4000;0.5470;1.2394;
974.7000;0.5462;1.2370;
975.0000;0.5446;1.2394;
975.3000;0.5503;1.2535;
975.6000;0.5470;1.2394;
975.9000;0.5348;1.2183;
976.2000;0.5446;1.2347;
976.5000;0.5438;1.2394;
976.8000;0.5438;1.2464;
977.1000;0.5454;1.2417;
977.4000;0.5454;1.2347;
977.7000;0.5421;1.2347;
978.0000;0.5454;1.2323;
978.3000;0.5503;1.2511;
978.6000;0.5372;1.2230;
978.9000;0.5438;1.2488;
979.2000;0.5454;1.2488;
979.5000;0.5413;1.2464;
979.8000;0.5462;1.2488;
980.1000;0.5429;1.2394;
980.4000;0.5421;1.2347;
980.7000;0.5438;1.2417;
981.0000;0.5462;1.2370;
981.3000;0.5438;1.2370;
981.6000;0.5438;1.2347;
981.9000;0.5438;1.2253;
982.2000;0.5478;1.2370;
982.5000;0.5438;1.2253;
982.8000;0.5446;1.2323;
983.1000;0.5462;1.2323;
983.4000;0.5551;1.2558;
983.7000;0.5454;1.2323;
984.0000;0.5462;1.2347;
984.3000;0.5446;1.2441;
984.6000;0.5470;1.2558;
984.9000;0.5438;1.2582;
985.2000;0.5429;1.2582;
985.5000;0.5389;1.2417;
985.8000;0.5413;1.2558;
986.1000;0.5478;1.2605;
986.4000;0.5397;1.2417;
986.7000;0.5543;1.2793;
987.0000;0.5429;1.2535;
987.3000;0.5454;1.2675;
987.6000;0.5438;1.2652;
987.9000;0.5429;1.2652;
988.2000;0.5429;1.2699;
988.5000;0.5324;1.2464;
988.8000;0.5446;1.2722;
989.1000;0.5429;1.2582;
989.4000;0.5438;1.2605;
989.7000;0.5470;1.2675;
990.0000;0.5454;1.2605;
990.3000;0.5446;1.2558;
990.6000;0.5438;1.2511;
990.9000;0.5438;1.2488;
991.2000;0.5446;1.2464;
991.5000;0.5462;1.2535;
991.8000;0.5438;1.2464;
992.1000;0.5446;1.2464;
992.4000;0.5454;1.2511;
992.7000;0.5454;1.2535;
993.0000;0.5454;1.2535;
993.3000;0.5454;1.2511;
993.6000;0.5438;1.2417;
993.9000;0.5454;1.2511;
994.2000;0.5478;1.2582;
994.5000;0.5446;1.2488;
994.8000;0.5421;1.2464;
995.1000;0.5421;1.2464;
995.4000;0.5446;1.2464;
995.7000;0.5429;1.2347;
996.0000;0.5438;1.2300;
996.3000;0.5438;1.2323;
996.6000;0.5421;1.2347;
996.9000;0.5438;1.2370;
997.2000;0.5421;1.2253;
997.5000;0.5438;1.2370;
997.8000;0.5446;1.2417;
998.1000;0.5413;1.2464;
998.4000;0.5438;1.2558;
998.7000;0.5421;1.2582;
999.0000;0.5438;1.2558;
999.3000;0.5454;1.2535;
999.6000;0.5446;1.2417;
999.9000;0.5421;1.2276;
1000.2000;0.5438;1.2394;
1000.5000;0.5438;1.2488;
1000.8000;0.5421;1.2464;
1001.1000;0.5397;1.2347;
1001.4000;0.5397;1.2347;
1001.7000;0.5446;1.2488;
1002.0000;0.5429;1.2464;
1002.3000;0.5470;1.2582;
1002.6000;0.5478;1.2605;
1002.9000;0.5462;1.2464;
1003.2000;0.5438;1.2370;
1003.5000;0.5454;1.2417;
1003.8000;0.5429;1.2441;
1004.1000;0.5454;1.2511;
1004.4000;0.5364;1.2276;
1004.7000;0.5446;1.2582;
1005.0000;0.5421;1.2558;
1005.3000;0.5446;1.2652;
1005.6000;0.5429;1.2652;
1005.9000;0.5454;1.2675;
1006.2000;0.5438;1.2605;
1006.5000;0.5462;1.2629;
1006.8000;0.5438;1.2511;
1007.1000;0.5470;1.2488;
1007.4000;0.5527;1.2629;
1007.7000;0.5446;1.2464;
1008.0000;0.5446;1.2582;
1008.3000;0.5454;1.2582;
1008.6000;0.5470;1.2629;
1008.9000;0.5454;1.2605;
1009.2000;0.5462;1.2629;
1009.5000;0.5519;1.2699;
1009.8000;0.5454;1.2511;
1010.1000;0.5438;1.2441;
1010.4000;0.5486;1.2558;
1010.7000;0.5470;1.2558;
1011.0000;0.5356;1.2230;
1011.3000;0.5429;1.2347;
1011.6000;0.5429;1.2323;
1011.9000;0.5446;1.2394;
1012.2000;0.5413;1.2394;
1012.5000;0.5421;1.2370;
1012.8000;0.5429;1.2370;
1013.1000;0.5446;1.2323;
1013.4000;0.5429;1.2300;
1013.7000;0.5315;1.1995;
1014.0000;0.5446;1.2323;
1014.3000;0.5446;1.2323;
1014.6000;0.5438;1.2276;
1014.9000;0.5527;1.2488;
1015.2000;0.5438;1.2183;
1015.5000;0.5454;1.2323;
1015.8000;0.5454;1.2347;
1016.1000;0.5454;1.2300;
1016.4000;0.5438;1.2206;
1016.7000;0.5446;1.2253;
1017.0000;0.5446;1.2370;
1017.3000;0.5438;1.2441;
1017.6000;0.5438;1.2417;
1017.9000;0.5462;1.2582;
1018.2000;0.5421;1.2394;
1018.5000;0.5462;1.2323;
1018.8000;0.5486;1.2488;
1019.1000;0.5454;1.2511;
1019.4000;0.5454;1.2652;
1019.7000;0.5446;1.2652;
1020.0000;0.5462;1.2558;
1020.3000;0.5454;1.2511;
1020.6000;0.5454;1.2441;
1020.9000;0.5454;1.2441;
1021.2000;0.5454;1.2417;
1021.5000;0.5462;1.2370;
1021.8000;0.5438;1.2323;
1022.1000;0.5454;1.2441;
1022.4000;0.5454;1.2347;
1022.7000;0.5454;1.2276;
1023.0000;0.5446;1.2323;
1023.3000;0.5438;1.2347;
1023.6000;0.5446;1.2394;
1023.9000;0.5462;1.2347;
1024.2000;0.5454;1.2230;
1024.5000;0.5454;1.2300;
1024.8000;0.5462;1.2347;
1025.1000;0.5446;1.2347;
1025.4000;0.5454;1.2347;
1025.7000;0.5454;1.2300;
1026.0000;0.5454;1.2300;
1026.3000;0.5511;1.2394;
1026.6000;0.5446;1.2230;
1026.9000;0.5454;1.2276;
1027.2000;0.5446;1.2323;
1027.5000;0.5454;1.2394;
1027.8000;0.5438;1.2417;
1028.1000;0.5421;1.2394;
1028.4000;0.5372;1.2206;
1028.7000;0.5454;1.2394;
1029.0000;0.5462;1.2535;
1029.3000;0.5446;1.2441;
1029.6000;0.5454;1.2394;
1029.9000;0.5478;1.2464;
1030.2000;0.5462;1.2394;
1030.5000;0.5454;1.2370;
1030.8000;0.5446;1.2276;
1031.1000;0.5421;1.2183;
1031.4000;0.5495;1.2394;
1031.7000;0.5454;1.2323;
1032.0000;0.5446;1.2300;
1032.3000;0.5429;1.2206;
1032.6000;0.5486;1.2464;
1032.9000;0.5438;1.2441;
1033.2000;0.5454;1.2511;
1033.5000;0.5429;1.2347;
1033.8000;0.5446;1.2323;
1034.1000;0.5446;1.2370;
1034.4000;0.5446;1.2417;
1034.7000;0.5454;1.2464;
1035.0000;0.5462;1.2488;
1035.3000;0.5478;1.2464;
1035.6000;0.5454;1.2394;
1035.9000;0.5462;1.2464;
1036.2000;0.5446;1.2488;
1036.5000;0.5519;1.2699;
1036.8000;0.5446;1.2582;
1037.1000;0.5454;1.2558;
1037.4000;0.5429;1.2441;
1037.7000;0.5454;1.2464;
1038.0000;0.5519;1.2535;
1038.3000;0.5429;1.2417;
1038.6000;0.5429;1.2441;
1038.9000;0.5446;1.2464;
1039.2000;0.5413;1.2347;
1039.5000;0.5438;1.2370;
1039.8000;0.5429;1.2370;
1040.1000;0.5462;1.2370;
1040.4000;0.5454;1.2417;
1040.7000;0.5454;1.2464;
1041.0000;0.5454;1.2417;
1041.3000;0.5429;1.2370;
1041.6000;0.5438;1.2394;
1041.9000;0.5454;1.2511;
1042.2000;0.5478;1.2582;
1042.5000;0.5462;1.2535;
1042.8000;0.5446;1.2535;
1043.1000;0.5454;1.2511;
1043.4000;0.5462;1.2441;
1043.7000;0.5454;1.2347;
1044.0000;0.5438;1.2347;
1044.3000;0.5454;1.2394;
1044.6000;0.5438;1.2394;
1044.9000;0.5478;1.2441;
1045.2000;0.5413;1.2323;
1045.5000;0.5446;1.2394;
1045.8000;0.5454;1.2394;
1046.1000;0.5446;1.2488;
1046.4000;0.5438;1.2441;
1046.7000;0.5446;1.2464;
1047.0000;0.5438;1.2488;
1047.3000;0.5470;1.2464;
1047.6000;0.5454;1.2417;
1047.9000;0.5454;1.2417;
1048.2000;0.5462;1.2441;
1048.5000;0.5438;1.2347;
1048.8000;0.5446;1.2417;
1049.1000;0.5454;1.2464;
1049.4000;0.5454;1.2464;
1049.7000;0.5454;1.2488;
1050.0000;0.5454;1.2441;
1050.3000;0.5446;1.2464;
1050.6000;0.5438;1.2464;
1050.9000;0.5454;1.2511;
1051.2000;0.5454;1.2464;
1051.5000;0.5454;1.2558;
1051.8000;0.5454;1.2605;
1052.1000;0.5454;1.2582;
1052.4000;0.5454;1.2558;
1052.7000;0.5446;1.2535;
1053.0000;0.5454;1.2582;
1053.3000;0.5454;1.2582;
1053.6000;0.5446;1.2464;
1053.9000;0.5446;1.2394;
1054.2000;0.5438;1.2417;
1054.5000;0.5454;1.2488;
1054.8000;0.5462;1.2441;
1055.1000;0.5454;1.2464;
1055.4000;0.5332;1.2253;
1055.7000;0.5495;1.2746;
1056.0000;0.5446;1.2535;
1056.3000;0.5438;1.2417;
1056.6000;0.5438;1.2370;
1056.9000;0.5470;1.2488;
1057.2000;0.5413;1.2394;
1057.5000;0.5454;1.2488;
1057.8000;0.5519;1.2629;
1058.1000;0.5405;1.2370;
1058.4000;0.5454;1.2511;
1058.7000;0.5486;1.2558;
1059.0000;0.5429;1.2441;
1059.3000;0.5438;1.2535;
1059.6000;0.5446;1.2582;
1059.9000;0.5462;1.2582;
1060.2000;0.5438;1.2488;
1060.5000;0.5438;1.2488;
1060.8000;0.5429;1.2511;
1061.1000;0.5438;1.2652;
1061.4000;0.5438;1.2558;
1061.7000;0.5429;1.2511;
1062.0000;0.5421;1.2558;
1062.3000;0.5462;1.2652;
1062.6000;0.5438;1.2675;
1062.9000;0.5446;1.2605;
1063.2000;0.5438;1.2535;
1063.5000;0.5446;1.2558;
1063.8000;0.5470;1.2511;
1064.1000;0.5438;1.2417;
1064.4000;0.5446;1.2300;
1064.7000;0.5470;1.2417;
1065.0000;0.5454;1.2394;
1065.3000;0.5462;1.2488;
1065.6000;0.5405;1.2370;
1065.9000;0.5454;1.2394;
1066.2000;0.5454;1.2300;
1066.5000;0.5438;1.2370;
1066.8000;0.5429;1.2300;
1067.1000;0.5454;1.2276;
1067.4000;0.5446;1.2253;
1067.7000;0.5470;1.2370;
1068.0000;0.5454;1.2347;
1068.3000;0.5470;1.2394;
1068.6000;0.5462;1.2417;
1068.9000;0.5470;1.2535;
1069.2000;0.5470;1.2558;
1069.5000;0.5446;1.2582;
1069.8000;0.5446;1.2675;
1070.1000;0.5470;1.2699;
1070.4000;0.5446;1.2582;
1070.7000;0.5462;1.2558;
1071.0000;0.5446;1.2488;
1071.3000;0.5454;1.2464;
1071.6000;0.5446;1.2370;
1071.9000;0.5446;1.2394;
1072.2000;0.5438;1.2347;
1072.5000;0.5446;1.2441;
1072.8000;0.5446;1.2441;
1073.1000;0.5462;1.2347;
1073.4000;0.5446;1.2370;
1073.7000;0.5446;1.2323;
1074.0000;0.5446;1.2394;
1074.3000;0.5551;1.2699;
1074.6000;0.5446;1.2417;
1074.9000;0.5446;1.2488;
1075.2000;0.5429;1.2417;
1075.5000;0.5421;1.2276;
1075.8000;0.5446;1.2206;
1076.1000;0.5438;1.2206;
1076.4000;0.5454;1.2276;
1076.7000;0.5438;1.2370;
1077.0000;0.5429;1.2300;
1077.3000;0.5454;1.2276;
1077.6000;0.5446;1.2276;
1077.9000;0.5495;1.2417;
1078.2000;0.5454;1.2441;
1078.5000;0.5470;1.2441;
1078.8000;0.5438;1.2417;
1079.1000;0.5478;1.2488;
1079.4000;0.5405;1.2300;
1079.7000;0.5470;1.2535;
1080.0000;0.5462;1.2511;
1080.3000;0.5503;1.2605;
1080.6000;0.5462;1.2464;
1080.9000;0.5454;1.2394;
1081.2000;0.5495;1.2535;
1081.5000;0.5454;1.2323;
1081.8000;0.5462;1.2347;
1082.1000;0.5454;1.2370;
1082.4000;0.5421;1.2230;
1082.7000;0.5478;1.2300;
1083.0000;0.5519;1.2394;
1083.3000;0.5478;1.2323;
1083.6000;0.5397;1.2112;
1083.9000;0.5462;1.2323;
1084.2000;0.5454;1.2300;
1084.5000;0.5429;1.2253;
1084.8000;0.5454;1.2276;
1085.1000;0.5462;1.2394;
1085.4000;0.5478;1.2511;
1085.7000;0.5462;1.2488;
1086.0000;0.5446;1.2488;
1086.3000;0.5470;1.2464;
1086.6000;0.5462;1.2417;
1086.9000;0.5470;1.2394;
1087.2000;0.5454;1.2323;
1087.5000;0.5478;1.2300;
1087.8000;0.5405;1.2230;
1088.1000;0.5429;1.2253;
1088.4000;0.5454;1.2370;
1088.7000;0.5462;1.2464;
1089.0000;0.5397;1.2253;
1089.3000;0.5462;1.2441;
1089.6000;0.5454;1.2394;
1089.9000;0.5470;1.2417;
1090.2000;0.5405;1.2370;
1090.5000;0.5462;1.2464;
1090.8000;0.5470;1.2441;
1091.1000;0.5462;1.2323;
1091.4000;0.5446;1.2347;
1091.7000;0.5462;1.2417;
1092.0000;0.5462;1.2464;
1092.3000;0.5478;1.2488;
1092.6000;0.5462;1.2582;
1092.9000;0.5535;1.2722;
1093.2000;0.5446;1.2535;
1093.5000;0.5454;1.2629;
1093.8000;0.5462;1.2675;
1094.1000;0.5438;1.2535;
1094.4000;0.5462;1.2535;
1094.7000;0.5454;1.2511;
1095.0000;0.5454;1.2605;
1095.3000;0.5470;1.2605;
1095.6000;0.5429;1.2417;
1095.9000;0.5438;1.2464;
1096.2000;0.5446;1.2417;
1096.5000;0.5478;1.2441;
1096.8000;0.5446;1.2441;
1097.1000;0.5446;1.2441;
1097.4000;0.5446;1.2394;
1097.7000;0.5446;1.2276;
1098.0000;0.5446;1.2276;
1098.3000;0.5429;1.2183;
1098.6000;0.5446;1.2394;
1098.9000;0.5413;1.2300;
1099.2000;0.5413;1.2300;
1099.5000;0.5503;1.2511;
1099.8000;0.5462;1.2488;
1100.1000;0.5470;1.2417;
1100.4000;0.5446;1.2417;
1100.7000;0.5462;1.2488;
1101.0000;0.5446;1.2441;
1101.3000;0.5462;1.2441;
1101.6000;0.5454;1.2464;
1101.9000;0.5462;1.2464;
1102.2000;0.5495;1.2535;
1102.5000;0.5446;1.2464;
1102.8000;0.5462;1.2535;
1103.1000;0.5438;1.2558;
1103.4000;0.5478;1.2558;
1103.7000;0.5446;1.2417;
1104.0000;0.5478;1.2511;
1104.3000;0.5470;1.2417;
1104.6000;0.5454;1.2417;
1104.9000;0.5527;1.2699;
1105.2000;0.5470;1.2582;
1105.5000;0.5470;1.2582;
1105.8000;0.5462;1.2558;
1106.1000;0.5462;1.2535;
1106.4000;0.5438;1.2488;
1106.7000;0.5470;1.2558;
1107.0000;0.5348;1.2276;
1107.3000;0.5462;1.2652;
1107.6000;0.5454;1.2605;
1107.9000;0.5462;1.2652;
1108.2000;0.5429;1.2511;
1108.5000;0.5470;1.2558;
1108.8000;0.5454;1.2488;
1109.1000;0.5454;1.2441;
1109.4000;0.5446;1.2464;
1109.7000;0.5429;1.2558;
1110.0000;0.5454;1.2675;
1110.3000;0.5446;1.2699;
1110.6000;0.5454;1.2722;
1110.9000;0.5438;1.2582;
1111.2000;0.5470;1.2699;
1111.5000;0.5454;1.2605;
1111.8000;0.5462;1.2605;
1112.1000;0.5503;1.2746;
1112.4000;0.5454;1.2629;
1112.7000;0.5486;1.2675;
1113.0000;0.5470;1.2652;
1113.3000;0.5462;1.2605;
1113.6000;0.5462;1.2652;
1113.9000;0.5462;1.2722;
1114.2000;0.5470;1.2722;
1114.5000;0.5438;1.2675;
1114.8000;0.5446;1.2582;
1115.1000;0.5429;1.2535;
1115.4000;0.5454;1.2558;
1115.7000;0.5446;1.2464;
1116.0000;0.5446;1.2347;
1116.3000;0.5454;1.2206;
1116.6000;0.5462;1.2112;
1116.9000;0.5462;1.2112;
1117.2000;0.5421;1.2042;
1117.5000;0.5454;1.2159;
1117.8000;0.5503;1.2347;
1118.1000;0.5495;1.2370;
1118.4000;0.5429;1.2230;
1118.7000;0.5446;1.2230;
1119.0000;0.5446;1.2206;
1119.3000;0.5446;1.2183;
1119.6000;0.5462;1.2183;
1119.9000;0.5438;1.2136;
1120.2000;0.5495;1.2347;
1120.5000;0.5462;1.2394;
1120.8000;0.5454;1.2370;
1121.1000;0.5462;1.2370;
1121.4000;0.5446;1.2300;
1121.7000;0.5462;1.2347;
1122.0000;0.5470;1.2323;
1122.3000;0.5364;1.2089;
1122.6000;0.5535;1.2464;
1122.9000;0.5495;1.2347;
1123.2000;0.5486;1.2394;
1123.5000;0.5462;1.2417;
1123.8000;0.5462;1.2417;
1124.1000;0.5462;1.2535;
1124.4000;0.5470;1.2605;
1124.7000;0.5470;1.2582;
1125.0000;0.5454;1.2488;
1125.3000;0.5454;1.2464;
1125.6000;0.5470;1.2511;
1125.9000;0.5486;1.2535;
1126.2000;0.5462;1.2582;
1126.5000;0.5462;1.2488;
1126.8000;0.5446;1.2488;
1127.1000;0.5446;1.2464;
1127.4000;0.5478;1.2511;
1127.7000;0.5438;1.2488;
1128.0000;0.5462;1.2558;
1128.3000;0.5454;1.2535;
1128.6000;0.5454;1.2488;
1128.9000;0.5454;1.2511;
1129.2000;0.5486;1.2629;
1129.5000;0.5478;1.2535;
1129.8000;0.5470;1.2511;
1130.1000;0.5470;1.2488;
1130.4000;0.5462;1.2464;
1130.7000;0.5462;1.2488;
1131.0000;0.5381;1.2183;
1131.3000;0.5478;1.2558;
1131.6000;0.5560;1.2769;
1131.9000;0.5454;1.2535;
1132.2000;0.5462;1.2511;
1132.5000;0.5470;1.2582;
1132.8000;0.5470;1.2629;
1133.1000;0.5454;1.2558;
1133.4000;0.5462;1.2722;
1133.7000;0.5470;1.2769;
1134.0000;0.5462;1.2769;
1134.3000;0.5486;1.2816;
1134.6000;0.5429;1.2816;
1134.9000;0.5462;1.2840;
1135.2000;0.5470;1.2746;
1135.5000;0.5454;1.2699;
1135.8000;0.5454;1.2605;
1136.1000;0.5478;1.2629;
1136.4000;0.5462;1.2558;
1136.7000;0.5446;1.2558;
1137.0000;0.5462;1.2535;
1137.3000;0.5478;1.2652;
1137.6000;0.5454;1.2605;
1137.9000;0.5462;1.2699;
1138.2000;0.5446;1.2605;
1138.5000;0.5470;1.2629;
1138.8000;0.5454;1.2652;
1139.1000;0.5486;1.2769;
1139.4000;0.5454;1.2722;
1139.7000;0.5462;1.2652;
1140.0000;0.5462;1.2629;
1140.3000;0.5446;1.2652;
1140.6000;0.5470;1.2582;
1140.9000;0.5462;1.2511;
1141.2000;0.5429;1.2417;
1141.5000;0.5446;1.2464;
1141.8000;0.5462;1.2464;
1142.1000;0.5454;1.2558;
1142.4000;0.5462;1.2629;
1142.7000;0.5454;1.2652;
1143.0000;0.5454;1.2605;
1143.3000;0.5503;1.2629;
1143.6000;0.5478;1.2582;
1143.9000;0.5462;1.2629;
1144.2000;0.5438;1.2441;
1144.5000;0.5446;1.2441;
1144.8000;0.5462;1.2488;
1145.1000;0.5462;1.2464;
1145.4000;0.5454;1.2370;
1145.7000;0.5438;1.2300;
1146.0000;0.5462;1.2370;
1146.3000;0.5470;1.2417;
1146.6000;0.5470;1.2464;
1146.9000;0.5462;1.2464;
1147.2000;0.5454;1.2488;
1147.5000;0.5421;1.2464;
1147.8000;0.5462;1.2417;
1148.1000;0.5446;1.2323;
1148.4000;0.5454;1.2323;
1148.7000;0.5462;1.2394;
1149.0000;0.5462;1.2394;
1149.3000;0.5470;1.2417;
1149.6000;0.5478;1.2394;
1149.9000;0.5462;1.2441;
1150.2000;0.5462;1.2347;
1150.5000;0.5462;1.2300;
1150.8000;0.5462;1.2347;
1151.1000;0.5454;1.2276;
1151.4000;0.5470;1.2347;
1151.7000;0.5478;1.2276;
1152.0000;0.5470;1.2206;
1152.3000;0.5478;1.2300;
1152.6000;0.5470;1.2253;
1152.9000;0.5454;1.2276;
1153.2000;0.5478;1.2323;
1153.5000;0.5503;1.2347;
1153.8000;0.5478;1.2370;
1154.1000;0.5462;1.2300;
1154.4000;0.5478;1.2370;
1154.7000;0.5446;1.2417;
1155.0000;0.5438;1.2300;
1155.3000;0.5454;1.2323;
1155.6000;0.5462;1.2323;
1155.9000;0.5446;1.2276;
1156.2000;0.5470;1.2370;
1156.5000;0.5470;1.2300;
1156.8000;0.5568;1.2535;
1157.1000;0.5462;1.2253;
1157.4000;0.5462;1.2394;
1157.7000;0.5454;1.2394;
1158.0000;0.5397;1.2300;
1158.3000;0.5503;1.2464;
1158.6000;0.5462;1.2300;
1158.9000;0.5454;1.2323;
1159.2000;0.5454;1.2276;
1159.5000;0.5470;1.2300;
1159.8000;0.5462;1.2300;
1160.1000;0.5495;1.2488;
1160.4000;0.5446;1.2370;
1160.7000;0.5470;1.2441;
1161.0000;0.5462;1.2417;
1161.3000;0.5462;1.2323;
1161.6000;0.5462;1.2183;
1161.9000;0.5462;1.2112;
1162.2000;0.5486;1.2136;
1162.5000;0.5478;1.1971;
1162.8000;0.5462;1.1924;
1163.1000;0.5446;1.2018;
1163.4000;0.5454;1.2183;
1163.7000;0.5470;1.2253;
1164.0000;0.5438;1.2276;
1164.3000;0.5478;1.2347;
1164.6000;0.5478;1.2441;
1164.9000;0.5470;1.2441;
1165.2000;0.5462;1.2464;
1165.5000;0.5454;1.2394;
1165.8000;0.5454;1.2276;
1166.1000;0.5446;1.2276;
1166.4000;0.5462;1.2300;
1166.7000;0.5462;1.2347;
1167.0000;0.5470;1.2347;
1167.3000;0.5470;1.2230;
1167.6000;0.5454;1.2323;
1167.9000;0.5470;1.2323;
1168.2000;0.5470;1.2347;
1168.5000;0.5454;1.2394;
1168.8000;0.5413;1.2136;
1169.1000;0.5438;1.2089;
1169.4000;0.5454;1.2089;
1169.7000;0.5462;1.2206;
1170.0000;0.5486;1.2206;
1170.3000;0.5462;1.2159;
1170.6000;0.5454;1.2206;
1170.9000;0.5543;1.2441;
1171.2000;0.5495;1.2394;
1171.5000;0.5446;1.2276;
1171.8000;0.5454;1.2300;
1172.1000;0.5478;1.2394;
1172.4000;0.5462;1.2230;
1172.7000;0.5446;1.2159;
1173.0000;0.5429;1.2112;
1173.3000;0.5454;1.2136;
1173.6000;0.5429;1.2183;
1173.9000;0.5340;1.2018;
1174.2000;0.5372;1.2042;
1174.5000;0.5503;1.2253;
1174.8000;0.5503;1.2300;
1175.1000;0.5454;1.2183;
1175.4000;0.5454;1.2230;
1175.7000;0.5470;1.2230;
1176.0000;0.5429;1.2183;
1176.3000;0.5446;1.2253;
1176.6000;0.5470;1.2276;
1176.9000;0.5478;1.2394;
1177.2000;0.5438;1.2370;
1177.5000;0.5405;1.2183;
1177.8000;0.5470;1.2441;
1178.1000;0.5568;1.2652;
1178.4000;0.5438;1.2206;
1178.7000;0.5446;1.2183;
1179.0000;0.5470;1.2253;
1179.3000;0.5454;1.2230;
1179.6000;0.5462;1.2230;
1179.9000;0.5478;1.2300;
1180.2000;0.5462;1.2253;
1180.5000;0.5478;1.2276;
1180.8000;0.5486;1.2300;
1181.1000;0.5478;1.2323;
1181.4000;0.5462;1.2230;
1181.7000;0.5478;1.2253;
1182.0000;0.5462;1.2136;
1182.3000;0.5478;1.2230;
1182.6000;0.5470;1.2159;
1182.9000;0.5462;1.2112;
1183.2000;0.5478;1.2183;
1183.5000;0.5470;1.2276;
1183.8000;0.5470;1.2183;
1184.1000;0.5478;1.2159;
1184.4000;0.5478;1.2065;
1184.7000;0.5470;1.1995;
1185.0000;0.5454;1.2136;
1185.3000;0.5446;1.2112;
1185.6000;0.5446;1.2112;
1185.9000;0.5478;1.2183;
1186.2000;0.5454;1.2112;
1186.5000;0.5495;1.2230;
1186.8000;0.5486;1.2112;
1187.1000;0.5478;1.2136;
1187.4000;0.5470;1.2159;
1187.7000;0.5470;1.2159;
1188.0000;0.5478;1.2136;
1188.3000;0.5462;1.2065;
1188.6000;0.5478;1.2159;
1188.9000;0.5495;1.2183;
1189.2000;0.5478;1.2183;
1189.5000;0.5503;1.2370;
1189.8000;0.5438;1.2253;
1190.1000;0.5495;1.2370;
1190.4000;0.5438;1.2136;
1190.7000;0.5454;1.2136;
1191.0000;0.5478;1.2253;
1191.3000;0.5478;1.2230;
1191.6000;0.5486;1.2183;
1191.9000;0.5454;1.2159;
1192.2000;0.5462;1.2300;
1192.5000;0.5438;1.2183;
1192.8000;0.5478;1.2206;
1193.1000;0.5470;1.2183;
1193.4000;0.5486;1.2183;
1193.7000;0.5454;1.2136;
1194.0000;0.5454;1.2089;
1194.3000;0.5454;1.2112;
1194.6000;0.5478;1.2183;
1194.9000;0.5486;1.2230;
1195.2000;0.5438;1.2065;
1195.5000;0.5438;1.2042;
1195.8000;0.5470;1.2136;
1196.1000;0.5470;1.2136;
1196.4000;0.5486;1.2183;
1196.7000;0.5462;1.2253;
1197.0000;0.5470;1.2276;
1197.3000;0.5470;1.2253;
1197.6000;0.5429;1.2112;
1197.9000;0.5470;1.2183;
1198.2000;0.5454;1.2206;
1198.5000;0.5462;1.2206;
1198.8000;0.5470;1.2136;
1199.1000;0.5470;1.2089;
1199.4000;0.5462;1.2065;
1199.7000;0.5486;1.1971;
1200.0000;0.5454;1.1924;
1200.3000;0.5421;1.1784;
1200.6000;0.5584;1.2112;
1200.9000;0.5454;1.1901;
1201.2000;0.5470;1.1995;
1201.5000;0.5397;1.1971;
1201.8000;0.5454;1.2112;
1202.1000;0.5486;1.2323;
1202.4000;0.5535;1.2441;
1202.7000;0.5470;1.2230;
1203.0000;0.5478;1.2276;
1203.3000;0.5478;1.2253;
1203.6000;0.5454;1.2159;
1203.9000;0.5470;1.2183;
1204.2000;0.5486;1.2276;
1204.5000;0.5454;1.2276;
1204.8000;0.5495;1.2488;
1205.1000;0.5470;1.2323;
1205.4000;0.5478;1.2417;
1205.7000;0.5462;1.2417;
1206.0000;0.5478;1.2488;
1206.3000;0.5486;1.2464;
1206.6000;0.5462;1.2511;
1206.9000;0.5462;1.2370;
1207.2000;0.5478;1.2394;
1207.5000;0.5462;1.2323;
1207.8000;0.5495;1.2300;
1208.1000;0.5454;1.2253;
1208.4000;0.5446;1.2276;
1208.7000;0.5462;1.2230;
1209.0000;0.5454;1.2183;
1209.3000;0.5478;1.2253;
1209.6000;0.5470;1.2347;
1209.9000;0.5486;1.2370;
1210.2000;0.5462;1.2206;
1210.5000;0.5495;1.2300;
1210.8000;0.5470;1.2206;
1211.1000;0.5486;1.2230;
1211.4000;0.5446;1.2183;
1211.7000;0.5478;1.2253;
1212.0000;0.5462;1.2323;
1212.3000;0.5470;1.2394;
1212.6000;0.5454;1.2300;
1212.9000;0.5462;1.2323;
1213.2000;0.5421;1.2159;
1213.5000;0.5446;1.2206;
1213.8000;0.5462;1.2206;
1214.1000;0.5478;1.2370;
1214.4000;0.5446;1.2347;
1214.7000;0.5486;1.2511;
1215.0000;0.5486;1.2488;
1215.3000;0.5478;1.2394;
1215.6000;0.5462;1.2464;
1215.9000;0.5462;1.2441;
1216.2000;0.5454;1.2441;
1216.5000;0.5454;1.2394;
1216.8000;0.5470;1.2464;
1217.1000;0.5462;1.2441;
1217.4000;0.5356;1.2183;
1217.7000;0.5470;1.2417;
1218.0000;0.5462;1.2323;
1218.3000;0.5454;1.2253;
1218.6000;0.5438;1.2206;
1218.9000;0.5470;1.2300;
1219.2000;0.5421;1.2136;
1219.5000;0.5470;1.2276;
1219.8000;0.5462;1.2276;
1220.1000;0.5470;1.2370;
1220.4000;0.5470;1.2300;
1220.7000;0.5478;1.2276;
1221.0000;0.5478;1.2276;
1221.3000;0.5486;1.2323;
1221.6000;0.5462;1.2253;
1221.9000;0.5438;1.2159;
1222.2000;0.5478;1.2276;
1222.5000;0.5454;1.2276;
1222.8000;0.5486;1.2300;
1223.1000;0.5462;1.2206;
1223.4000;0.5454;1.2136;
1223.7000;0.5462;1.2230;
1224.0000;0.5470;1.2183;
1224.3000;0.5454;1.2159;
1224.6000;0.5462;1.2065;
1224.9000;0.5470;1.2065;
1225.2000;0.5454;1.2136;
1225.5000;0.5454;1.2206;
1225.8000;0.5446;1.2253;
1226.1000;0.5462;1.2253;
1226.4000;0.5486;1.2300;
1226.7000;0.5478;1.2276;
1227.0000;0.5495;1.2276;
1227.3000;0.5495;1.2276;
1227.6000;0.5462;1.2276;
1227.9000;0.5470;1.2323;
1228.2000;0.5462;1.2323;
1228.5000;0.5462;1.2300;
1228.8000;0.5462;1.2276;
1229.1000;0.5503;1.2300;
1229.4000;0.5478;1.2206;
1229.7000;0.5454;1.2206;
1230.0000;0.5454;1.2230;
1230.3000;0.5478;1.2323;
1230.6000;0.5462;1.2370;
1230.9000;0.5454;1.2370;
1231.2000;0.5478;1.2417;
1231.5000;0.5478;1.2441;
1231.8000;0.5478;1.2394;
1232.1000;0.5446;1.2253;
1232.4000;0.5454;1.2347;
1232.7000;0.5478;1.2464;
1233.0000;0.5486;1.2464;
1233.3000;0.5486;1.2535;
1233.6000;0.5470;1.2488;
1233.9000;0.5478;1.2441;
1234.2000;0.5470;1.2394;
1234.5000;0.5462;1.2417;
1234.8000;0.5478;1.2441;
1235.1000;0.5454;1.2323;
1235.4000;0.5462;1.2276;
1235.7000;0.5454;1.2136;
1236.0000;0.5470;1.2112;
1236.3000;0.5495;1.2136;
1236.6000;0.5470;1.2183;
1236.9000;0.5478;1.2230;
1237.2000;0.5446;1.2230;
1237.5000;0.5486;1.2417;
1237.8000;0.5478;1.2441;
1238.1000;0.5478;1.2370;
1238.4000;0.5527;1.2535;
1238.7000;0.5454;1.2394;
1239.0000;0.5454;1.2441;
1239.3000;0.5470;1.2558;
1239.6000;0.5470;1.2535;
1239.9000;0.5462;1.2511;
1240.2000;0.5413;1.2323;
1240.5000;0.5470;1.2441;
1240.8000;0.5478;1.2464;
1241.1000;0.5462;1.2417;
1241.4000;0.5446;1.2370;
1241.7000;0.5462;1.2441;
1242.0000;0.5478;1.2464;
1242.3000;0.5462;1.2488;
1242.6000;0.5462;1.2511;
1242.9000;0.5470;1.2558;
1243.2000;0.5462;1.2535;
1243.5000;0.5470;1.2511;
1243.8000;0.5462;1.2464;
1244.1000;0.5454;1.2347;
1244.4000;0.5470;1.2370;
1244.7000;0.5478;1.2441;
1245.0000;0.5446;1.2441;
1245.3000;0.5446;1.2441;
1245.6000;0.5478;1.2488;
1245.9000;0.5478;1.2605;
1246.2000;0.5454;1.2535;
1246.5000;0.5486;1.2511;
1246.8000;0.5470;1.2511;
1247.1000;0.5478;1.2558;
1247.4000;0.5470;1.2535;
1247.7000;0.5470;1.2558;
1248.0000;0.5405;1.2394;
1248.3000;0.5495;1.2582;
1248.6000;0.5551;1.2746;
1248.9000;0.5478;1.2511;
1249.2000;0.5478;1.2441;
1249.5000;0.5478;1.2464;
1249.8000;0.5486;1.2464;
1250.1000;0.5486;1.2394;
1250.4000;0.5478;1.2417;
1250.7000;0.5495;1.2511;
1251.0000;0.5503;1.2582;
1251.3000;0.5470;1.2582;
1251.6000;0.5486;1.2558;
1251.9000;0.5478;1.2511;
1252.2000;0.5495;1.2511;
1252.5000;0.5478;1.2464;
1252.8000;0.5478;1.2558;
1253.1000;0.5519;1.2629;
1253.4000;0.5486;1.2535;
1253.7000;0.5470;1.2464;
1254.0000;0.5486;1.2464;
1254.3000;0.5462;1.2535;
1254.6000;0.5462;1.2464;
1254.9000;0.5478;1.2535;
1255.2000;0.5478;1.2488;
1255.5000;0.5470;1.2464;
1255.8000;0.5429;1.2323;
1256.1000;0.5511;1.2605;
1256.4000;0.5470;1.2417;
1256.7000;0.5470;1.2347;
1257.0000;0.5462;1.2417;
1257.3000;0.5478;1.2535;
1257.6000;0.5478;1.2511;
1257.9000;0.5470;1.2511;
1258.2000;0.5454;1.2511;
1258.5000;0.5478;1.2652;
1258.8000;0.5470;1.2652;
1259.1000;0.5478;1.2582;
1259.4000;0.5470;1.2535;
1259.7000;0.5429;1.2464;
1260.0000;0.5495;1.2652;
1260.3000;0.5454;1.2582;
1260.6000;0.5462;1.2511;
1260.9000;0.5470;1.2582;
1261.2000;0.5462;1.2535;
1261.5000;0.5478;1.2488;
1261.8000;0.5486;1.2535;
1262.1000;0.5495;1.2511;
1262.4000;0.5446;1.2464;
1262.7000;0.5478;1.2441;
1263.0000;0.5454;1.2370;
1263.3000;0.5470;1.2417;
1263.6000;0.5478;1.2535;
1263.9000;0.5470;1.2511;
1264.2000;0.5470;1.2511;
1264.5000;0.5446;1.2441;
1264.8000;0.5470;1.2441;
1265.1000;0.5478;1.2441;
1265.4000;0.5503;1.2441;
1265.7000;0.5592;1.2769;
1266.0000;0.5478;1.2558;
1266.3000;0.5486;1.2535;
1266.6000;0.5470;1.2488;
1266.9000;0.5519;1.2605;
1267.2000;0.5478;1.2511;
1267.5000;0.5470;1.2488;
1267.8000;0.5478;1.2582;
1268.1000;0.5470;1.2582;
1268.4000;0.5462;1.2675;
1268.7000;0.5511;1.2675;
1269.0000;0.5495;1.2629;
1269.3000;0.5478;1.2605;
1269.6000;0.5381;1.2323;
1269.9000;0.5478;1.2558;
1270.2000;0.5429;1.2441;
1270.5000;0.5495;1.2582;
1270.8000;0.5478;1.2417;
1271.1000;0.5470;1.2347;
1271.4000;0.5486;1.2253;
1271.7000;0.5486;1.2276;
1272.0000;0.5478;1.2230;
1272.3000;0.5470;1.2253;
1272.6000;0.5478;1.2253;
1272.9000;0.5495;1.2394;
1273.2000;0.5470;1.2347;
1273.5000;0.5478;1.2394;
1273.8000;0.5413;1.2206;
1274.1000;0.5470;1.2347;
1274.4000;0.5470;1.2323;
1274.7000;0.5503;1.2347;
1275.0000;0.5470;1.2394;
1275.3000;0.5478;1.2347;
1275.6000;0.5543;1.2511;
1275.9000;0.5478;1.2276;
1276.2000;0.5446;1.2300;
1276.5000;0.5478;1.2347;
1276.8000;0.5462;1.2347;
1277.1000;0.5470;1.2417;
1277.4000;0.5470;1.2488;
1277.7000;0.5470;1.2464;
1278.0000;0.5470;1.2370;
1278.3000;0.5486;1.2417;
1278.6000;0.5478;1.2347;
1278.9000;0.5486;1.2347;
1279.2000;0.5486;1.2276;
1279.5000;0.5462;1.2159;
1279.8000;0.5478;1.2230;
1280.1000;0.5495;1.2253;
1280.4000;0.5462;1.2206;
1280.7000;0.5462;1.2112;
1281.0000;0.5478;1.2183;
1281.3000;0.5478;1.2183;
1281.6000;0.5495;1.2183;
1281.9000;0.5470;1.2112;
1282.2000;0.5454;1.2159;
1282.5000;0.5470;1.2206;
1282.8000;0.5470;1.2206;
1283.1000;0.5470;1.2230;
1283.4000;0.5478;1.2230;
1283.7000;0.5470;1.2230;
1284.0000;0.5486;1.2323;
1284.3000;0.5495;1.2300;
1284.6000;0.5470;1.2159;
1284.9000;0.5470;1.2112;
1285.2000;0.5462;1.2089;
1285.5000;0.5495;1.2206;
1285.8000;0.5478;1.2206;
1286.1000;0.5470;1.2206;
1286.4000;0.5397;1.2018;
1286.7000;0.5478;1.2276;
1287.0000;0.5429;1.2253;
1287.3000;0.5438;1.2323;
1287.6000;0.5405;1.2136;
1287.9000;0.5470;1.2300;
1288.2000;0.5470;1.2206;
1288.5000;0.5470;1.2183;
1288.8000;0.5381;1.1901;
1289.1000;0.5470;1.2112;
1289.4000;0.5462;1.2159;
1289.7000;0.5462;1.2159;
1290.0000;0.5429;1.2018;
1290.3000;0.5454;1.2089;
1290.6000;0.5470;1.2159;
1290.9000;0.5470;1.2183;
1291.2000;0.5381;1.1877;
1291.5000;0.5503;1.2230;
1291.8000;0.5486;1.2206;
1292.1000;0.5551;1.2347;
1292.4000;0.5486;1.2230;
1292.7000;0.5503;1.2206;
1293.0000;0.5584;1.2488;
1293.3000;0.5478;1.2370;
1293.6000;0.5568;1.2629;
1293.9000;0.5486;1.2394;
1294.2000;0.5470;1.2394;
1294.5000;0.5470;1.2394;
1294.8000;0.5495;1.2347;
1295.1000;0.5495;1.2347;
1295.4000;0.5470;1.2276;
1295.7000;0.5495;1.2276;
1296.0000;0.5478;1.2183;
1296.3000;0.5495;1.2159;
1296.6000;0.5495;1.2136;
1296.9000;0.5470;1.2112;
1297.2000;0.5495;1.2089;
1297.5000;0.5503;1.2206;
1297.8000;0.5486;1.2230;
1298.1000;0.5478;1.2206;
1298.4000;0.5495;1.2253;
1298.7000;0.5511;1.2300;
1299.0000;0.5462;1.2089;
1299.3000;0.5495;1.2136;
1299.6000;0.5486;1.2253;
1299.9000;0.5462;1.2206;
1300.2000;0.5438;1.2230;
1300.5000;0.5470;1.2323;
1300.8000;0.5478;1.2370;
1301.1000;0.5486;1.2394;
1301.4000;0.5478;1.2464;
1301.7000;0.5462;1.2441;
1302.0000;0.5470;1.2464;
1302.3000;0.5470;1.2535;
1302.6000;0.5486;1.2558;
1302.9000;0.5446;1.2394;
1303.2000;0.5486;1.2488;
1303.5000;0.5495;1.2464;
1303.8000;0.5495;1.2347;
1304.1000;0.5470;1.2253;
1304.4000;0.5454;1.2206;
1304.7000;0.5519;1.2300;
1305.0000;0.5503;1.2183;
1305.3000;0.5495;1.2230;
1305.6000;0.5478;1.2230;
1305.9000;0.5486;1.2276;
1306.2000;0.5486;1.2323;
1306.5000;0.5495;1.2347;
1306.8000;0.5495;1.2417;
1307.1000;0.5486;1.2370;
1307.4000;0.5478;1.2464;
1307.7000;0.5478;1.2394;
1308.0000;0.5470;1.2323;
1308.3000;0.5470;1.2347;
1308.6000;0.5454;1.2347;
1308.9000;0.5389;1.2206;
1309.2000;0.5454;1.2441;
1309.5000;0.5454;1.2441;
1309.8000;0.5495;1.2511;
1310.1000;0.5454;1.2488;
1310.4000;0.5470;1.2535;
1310.7000;0.5478;1.2605;
1311.0000;0.5462;1.2511;
1311.3000;0.5503;1.2629;
1311.6000;0.5478;1.2582;
1311.9000;0.5438;1.2511;
1312.2000;0.5413;1.2441;
1312.5000;0.5486;1.2652;
1312.8000;0.5470;1.2582;
1313.1000;0.5397;1.2394;
1313.4000;0.5478;1.2699;
1313.7000;0.5486;1.2722;
1314.0000;0.5478;1.2746;
1314.3000;0.5486;1.2699;
1314.6000;0.5478;1.2652;
1314.9000;0.5478;1.2605;
1315.2000;0.5519;1.2722;
1315.5000;0.5486;1.2535;
1315.8000;0.5470;1.2488;
1316.1000;0.5438;1.2347;
1316.4000;0.5478;1.2370;
1316.7000;0.5486;1.2394;
1317.0000;0.5429;1.2323;
1317.3000;0.5478;1.2441;
1317.6000;0.5478;1.2441;
1317.9000;0.5462;1.2370;
1318.2000;0.5535;1.2582;
1318.5000;0.5478;1.2511;
1318.8000;0.5486;1.2464;
1319.1000;0.5462;1.2370;
1319.4000;0.5495;1.2417;
1319.7000;0.5470;1.2370;
1320.0000;0.5438;1.2276;
1320.3000;0.5478;1.2441;
1320.6000;0.5503;1.2464;
1320.9000;0.5478;1.2441;
1321.2000;0.5495;1.2441;
1321.5000;0.5478;1.2464;
1321.8000;0.5454;1.2347;
1322.1000;0.5470;1.2417;
1322.4000;0.5478;1.2417;
1322.7000;0.5470;1.2464;
1323.0000;0.5470;1.2535;
1323.3000;0.5478;1.2629;
1323.6000;0.5462;1.2582;
1323.9000;0.5486;1.2582;
1324.2000;0.5486;1.2582;
1324.5000;0.5478;1.2535;
1324.8000;0.5462;1.2464;
1325.1000;0.5462;1.2370;
1325.4000;0.5470;1.2323;
1325.7000;0.5486;1.2347;
1326.0000;0.5462;1.2276;
1326.3000;0.5560;1.2582;
1326.6000;0.5486;1.2441;
1326.9000;0.5495;1.2441;
1327.2000;0.5470;1.2347;
1327.5000;0.5462;1.2370;
1327.8000;0.5503;1.2535;
1328.1000;0.5486;1.2511;
1328.4000;0.5495;1.2511;
1328.7000;0.5486;1.2582;
1329.0000;0.5495;1.2605;
1329.3000;0.5486;1.2629;
1329.6000;0.5503;1.2652;
1329.9000;0.5495;1.2675;
1330.2000;0.5495;1.2675;
1330.5000;0.5503;1.2675;
1330.8000;0.5486;1.2629;
1331.1000;0.5495;1.2605;
1331.4000;0.5495;1.2511;
1331.7000;0.5551;1.2675;
1332.0000;0.5486;1.2558;
1332.3000;0.5446;1.2417;
1332.6000;0.5389;1.2253;
1332.9000;0.5527;1.2558;
1333.2000;0.5470;1.2441;
1333.5000;0.5495;1.2464;
1333.8000;0.5470;1.2300;
1334.1000;0.5478;1.2253;
1334.4000;0.5438;1.2136;
1334.7000;0.5478;1.2183;
1335.0000;0.5486;1.2370;
1335.3000;0.5478;1.2488;
1335.6000;0.5462;1.2417;
1335.9000;0.5495;1.2511;
1336.2000;0.5478;1.2582;
1336.5000;0.5470;1.2464;
1336.8000;0.5503;1.2464;
1337.1000;0.5470;1.2488;
1337.4000;0.5486;1.2464;
1337.7000;0.5495;1.2464;
1338.0000;0.5470;1.2394;
1338.3000;0.5462;1.2323;
1338.6000;0.5503;1.2370;
1338.9000;0.5486;1.2323;
1339.2000;0.5486;1.2276;
1339.5000;0.5486;1.2230;
1339.8000;0.5486;1.2253;
1340.1000;0.5495;1.2323;
1340.4000;0.5470;1.2276;
1340.7000;0.5486;1.2323;
1341.0000;0.5495;1.2323;
1341.3000;0.5486;1.2323;
1341.6000;0.5478;1.2347;
1341.9000;0.5486;1.2347;
1342.2000;0.5511;1.2394;
1342.5000;0.5462;1.2323;
1342.8000;0.5446;1.2276;
1343.1000;0.5470;1.2300;
1343.4000;0.5486;1.2323;
1343.7000;0.5478;1.2323;
1344.0000;0.5478;1.2370;
1344.3000;0.5470;1.2441;
1344.6000;0.5470;1.2488;
1344.9000;0.5462;1.2535;
1345.2000;0.5462;1.2488;
1345.5000;0.5470;1.2323;
1345.8000;0.5470;1.2370;
1346.1000;0.5478;1.2394;
1346.4000;0.5478;1.2441;
1346.7000;0.5503;1.2488;
1347.0000;0.5495;1.2488;
1347.3000;0.5470;1.2488;
1347.6000;0.5470;1.2535;
1347.9000;0.5495;1.2558;
1348.2000;0.5511;1.2605;
1348.5000;0.5495;1.2511;
1348.8000;0.5478;1.2511;
1349.1000;0.5495;1.2464;
1349.4000;0.5470;1.2417;
1349.7000;0.5486;1.2464;
1350.0000;0.5495;1.2488;
1350.3000;0.5454;1.2417;
1350.6000;0.5503;1.2511;
1350.9000;0.5486;1.2488;
1351.2000;0.5551;1.2629;
1351.5000;0.5511;1.2488;
1351.8000;0.5503;1.2558;
1352.1000;0.5503;1.2535;
1352.4000;0.5495;1.2535;
1352.7000;0.5495;1.2535;
1353.0000;0.5503;1.2605;
1353.3000;0.5495;1.2652;
1353.6000;0.5454;1.2558;
1353.9000;0.5495;1.2535;
1354.2000;0.5527;1.2605;
1354.5000;0.5478;1.2394;
1354.8000;0.5495;1.2417;
1355.1000;0.5486;1.2394;
1355.4000;0.5462;1.2323;
1355.7000;0.5478;1.2370;
1356.0000;0.5486;1.2370;
1356.3000;0.5470;1.2347;
1356.6000;0.5486;1.2370;
1356.9000;0.5486;1.2347;
1357.2000;0.5421;1.2230;
1357.5000;0.5462;1.2323;
1357.8000;0.5478;1.2323;
1358.1000;0.5486;1.2441;
1358.4000;0.5486;1.2394;
1358.7000;0.5495;1.2370;
1359.0000;0.5454;1.2206;
1359.3000;0.5519;1.2347;
1359.6000;0.5478;1.2276;
1359.9000;0.5486;1.2370;
1360.2000;0.5470;1.2347;
1360.5000;0.5478;1.2394;
1360.8000;0.5486;1.2488;
1361.1000;0.5486;1.2441;
1361.4000;0.5486;1.2464;
1361.7000;0.5495;1.2535;
1362.0000;0.5478;1.2582;
1362.3000;0.5495;1.2605;
1362.6000;0.5503;1.2558;
1362.9000;0.5486;1.2558;
1363.2000;0.5503;1.2558;
1363.5000;0.5503;1.2558;
1363.8000;0.5405;1.2323;
1364.1000;0.5495;1.2535;
1364.4000;0.5478;1.2394;
1364.7000;0.5446;1.2276;
1365.0000;0.5462;1.2370;
1365.3000;0.5486;1.2511;
1365.6000;0.5486;1.2558;
1365.9000;0.5470;1.2511;
1366.2000;0.5397;1.2276;
1366.5000;0.5462;1.2394;
1366.8000;0.5478;1.2417;
1367.1000;0.5503;1.2417;
1367.4000;0.5503;1.2323;
1367.7000;0.5470;1.2370;
1368.0000;0.5470;1.2370;
1368.3000;0.5470;1.2370;
1368.6000;0.5486;1.2441;
1368.9000;0.5478;1.2511;
1369.2000;0.5478;1.2464;
1369.5000;0.5478;1.2441;
1369.8000;0.5503;1.2441;
1370.1000;0.5478;1.2253;
1370.4000;0.5495;1.2323;
1370.7000;0.5462;1.2347;
1371.0000;0.5495;1.2417;
1371.3000;0.5486;1.2417;
1371.6000;0.5478;1.2370;
1371.9000;0.5478;1.2488;
1372.2000;0.5495;1.2511;
1372.5000;0.5454;1.2441;
1372.8000;0.5413;1.2323;
1373.1000;0.5495;1.2511;
1373.4000;0.5470;1.2370;
1373.7000;0.5486;1.2441;
1374.0000;0.5503;1.2535;
1374.3000;0.5503;1.2582;
1374.6000;0.5503;1.2582;
1374.9000;0.5495;1.2675;
1375.2000;0.5495;1.2605;
1375.5000;0.5478;1.2535;
1375.8000;0.5454;1.2511;
1376.1000;0.5495;1.2652;
1376.4000;0.5503;1.2652;
1376.7000;0.5486;1.2675;
1377.0000;0.5495;1.2722;
1377.3000;0.5495;1.2629;
1377.6000;0.5495;1.2582;
1377.9000;0.5486;1.2582;
1378.2000;0.5511;1.2605;
1378.5000;0.5511;1.2699;
1378.8000;0.5495;1.2629;
1379.1000;0.5486;1.2629;
1379.4000;0.5478;1.2605;
1379.7000;0.5503;1.2605;
1380.0000;0.5486;1.2488;
1380.3000;0.5462;1.2370;
1380.6000;0.5478;1.2417;
1380.9000;0.5462;1.2323;
1381.2000;0.5478;1.2300;
1381.5000;0.5470;1.2323;
1381.8000;0.5486;1.2394;
1382.1000;0.5454;1.2394;
1382.4000;0.5462;1.2347;
1382.7000;0.5486;1.2394;
1383.0000;0.5495;1.2511;
1383.3000;0.5478;1.2441;
1383.6000;0.5478;1.2488;
1383.9000;0.5495;1.2488;
1384.2000;0.5503;1.2511;
1384.5000;0.5495;1.2417;
1384.8000;0.5454;1.2253;
1385.1000;0.5495;1.2347;
1385.4000;0.5503;1.2370;
1385.7000;0.5511;1.2511;
1386.0000;0.5495;1.2370;
1386.3000;0.5503;1.2253;
1386.6000;0.5486;1.2136;
1386.9000;0.5478;1.2230;
1387.2000;0.5486;1.2276;
1387.5000;0.5495;1.2347;
1387.8000;0.5519;1.2394;
1388.1000;0.5511;1.2347;
1388.4000;0.5478;1.2276;
1388.7000;0.5470;1.2323;
1389.0000;0.5478;1.2394;
1389.3000;0.5486;1.2464;
1389.6000;0.5486;1.2464;
1389.9000;0.5495;1.2464;
1390.2000;0.5495;1.2488;
1390.5000;0.5495;1.2464;
1390.8000;0.5511;1.2464;
1391.1000;0.5429;1.2370;
1391.4000;0.5511;1.2535;
1391.7000;0.5535;1.2582;
1392.0000;0.5486;1.2464;
1392.3000;0.5486;1.2511;
1392.6000;0.5470;1.2464;
1392.9000;0.5495;1.2535;
1393.2000;0.5503;1.2535;
1393.5000;0.5454;1.2464;
1393.8000;0.5478;1.2488;
1394.1000;0.5421;1.2394;
1394.4000;0.5446;1.2347;
1394.7000;0.5495;1.2441;
1395.0000;0.5478;1.2370;
1395.3000;0.5527;1.2464;
1395.6000;0.5495;1.2394;
1395.9000;0.5503;1.2370;
1396.2000;0.5478;1.2276;
1396.5000;0.5486;1.2230;
1396.8000;0.5503;1.2276;
1397.1000;0.5503;1.2323;
1397.4000;0.5551;1.2558;
1397.7000;0.5486;1.2347;
1398.0000;0.5486;1.2441;
1398.3000;0.5551;1.2511;
1398.6000;0.5486;1.2300;
1398.9000;0.5470;1.2323;
1399.2000;0.5486;1.2441;
1399.5000;0.5470;1.2511;
1399.8000;0.5486;1.2558;
