time/ms;Fluo/V;P700 deltaI/I x10³;
-199.8000;0.2475;0.5453;
-199.5000;0.2491;0.5526;
-199.2000;0.2523;0.5575;
-198.9000;0.2458;0.5284;
-198.6000;0.2507;0.5429;
-198.3000;0.2450;0.5211;
-198.0000;0.2458;0.5259;
-197.7000;0.2483;0.5356;
-197.4000;0.2442;0.5308;
-197.1000;0.2458;0.5381;
-196.8000;0.2475;0.5453;
-196.5000;0.2458;0.5429;
-196.2000;0.2483;0.5478;
-195.9000;0.2483;0.5478;
-195.6000;0.2401;0.5284;
-195.3000;0.2466;0.5429;
-195.0000;0.2483;0.5550;
-194.7000;0.2491;0.5502;
-194.4000;0.2475;0.5381;
-194.1000;0.2491;0.5478;
-193.8000;0.2483;0.5478;
-193.5000;0.2466;0.5429;
-193.2000;0.2458;0.5381;
-192.9000;0.2475;0.5453;
-192.6000;0.2458;0.5502;
-192.3000;0.2564;0.5720;
-192.0000;0.2483;0.5526;
-191.7000;0.2466;0.5478;
-191.4000;0.2466;0.5502;
-191.1000;0.2458;0.5502;
-190.8000;0.2491;0.5453;
-190.5000;0.2499;0.5575;
-190.2000;0.2483;0.5502;
-189.9000;0.2450;0.5405;
-189.6000;0.2491;0.5478;
-189.3000;0.2442;0.5308;
-189.0000;0.2466;0.5453;
-188.7000;0.2475;0.5526;
-188.4000;0.2491;0.5478;
-188.1000;0.2475;0.5356;
-187.8000;0.2466;0.5332;
-187.5000;0.2458;0.5308;
-187.2000;0.2491;0.5429;
-186.9000;0.2434;0.5284;
-186.6000;0.2466;0.5332;
-186.3000;0.2466;0.5381;
-186.0000;0.2475;0.5478;
-185.7000;0.2491;0.5478;
-185.4000;0.2491;0.5453;
-185.1000;0.2458;0.5429;
-184.8000;0.2475;0.5429;
-184.5000;0.2475;0.5332;
-184.2000;0.2475;0.5381;
-183.9000;0.2483;0.5308;
-183.6000;0.2483;0.5356;
-183.3000;0.2499;0.5453;
-183.0000;0.2466;0.5381;
-182.7000;0.2466;0.5356;
-182.4000;0.2491;0.5429;
-182.1000;0.2483;0.5453;
-181.8000;0.2385;0.5211;
-181.5000;0.2466;0.5453;
-181.2000;0.2466;0.5478;
-180.9000;0.2483;0.5623;
-180.6000;0.2475;0.5647;
-180.3000;0.2344;0.5356;
-180.0000;0.2458;0.5623;
-179.7000;0.2466;0.5696;
-179.4000;0.2483;0.5744;
-179.1000;0.2466;0.5647;
-178.8000;0.2491;0.5720;
-178.5000;0.2450;0.5647;
-178.2000;0.2458;0.5623;
-177.9000;0.2450;0.5599;
-177.6000;0.2475;0.5671;
-177.3000;0.2442;0.5575;
-177.0000;0.2483;0.5575;
-176.7000;0.2458;0.5575;
-176.4000;0.2523;0.5647;
-176.1000;0.2458;0.5526;
-175.8000;0.2475;0.5647;
-175.5000;0.2466;0.5671;
-175.2000;0.2442;0.5550;
-174.9000;0.2466;0.5647;
-174.6000;0.2475;0.5720;
-174.3000;0.2491;0.5817;
-174.0000;0.2466;0.5720;
-173.7000;0.2458;0.5720;
-173.4000;0.2458;0.5744;
-173.1000;0.2491;0.5841;
-172.8000;0.2450;0.5720;
-172.5000;0.2475;0.5768;
-172.2000;0.2507;0.5841;
-171.9000;0.2483;0.5793;
-171.6000;0.2458;0.5720;
-171.3000;0.2507;0.5865;
-171.0000;0.2466;0.5671;
-170.7000;0.2466;0.5623;
-170.4000;0.2466;0.5550;
-170.1000;0.2466;0.5502;
-169.8000;0.2475;0.5550;
-169.5000;0.2466;0.5526;
-169.2000;0.2458;0.5502;
-168.9000;0.2466;0.5550;
-168.6000;0.2483;0.5575;
-168.3000;0.2458;0.5526;
-168.0000;0.2466;0.5696;
-167.7000;0.2458;0.5671;
-167.4000;0.2458;0.5647;
-167.1000;0.2458;0.5720;
-166.8000;0.2458;0.5817;
-166.5000;0.2450;0.5768;
-166.2000;0.2450;0.5841;
-165.9000;0.2450;0.5817;
-165.6000;0.2466;0.5793;
-165.3000;0.2483;0.5720;
-165.0000;0.2458;0.5696;
-164.7000;0.2434;0.5671;
-164.4000;0.2458;0.5720;
-164.1000;0.2458;0.5720;
-163.8000;0.2475;0.5744;
-163.5000;0.2515;0.5865;
-163.2000;0.2475;0.5720;
-162.9000;0.2466;0.5744;
-162.6000;0.2458;0.5720;
-162.3000;0.2458;0.5744;
-162.0000;0.2458;0.5768;
-161.7000;0.2466;0.5865;
-161.4000;0.2450;0.5841;
-161.1000;0.2442;0.5841;
-160.8000;0.2418;0.5793;
-160.5000;0.2475;0.5890;
-160.2000;0.2466;0.5865;
-159.9000;0.2466;0.5817;
-159.6000;0.2458;0.5793;
-159.3000;0.2475;0.5890;
-159.0000;0.2491;0.5914;
-158.7000;0.2458;0.5768;
-158.4000;0.2483;0.5768;
-158.1000;0.2434;0.5599;
-157.8000;0.2491;0.5793;
-157.5000;0.2466;0.5744;
-157.2000;0.2491;0.5696;
-156.9000;0.2475;0.5720;
-156.6000;0.2466;0.5817;
-156.3000;0.2458;0.5793;
-156.0000;0.2450;0.5817;
-155.7000;0.2475;0.5768;
-155.4000;0.2466;0.5768;
-155.1000;0.2409;0.5623;
-154.8000;0.2458;0.5720;
-154.5000;0.2491;0.5793;
-154.2000;0.2466;0.5793;
-153.9000;0.2458;0.5768;
-153.6000;0.2483;0.5793;
-153.3000;0.2475;0.5720;
-153.0000;0.2532;0.5841;
-152.7000;0.2483;0.5720;
-152.4000;0.2377;0.5381;
-152.1000;0.2491;0.5696;
-151.8000;0.2466;0.5671;
-151.5000;0.2458;0.5720;
-151.2000;0.2450;0.5696;
-150.9000;0.2491;0.5768;
-150.6000;0.2434;0.5623;
-150.3000;0.2499;0.5744;
-150.0000;0.2475;0.5696;
-149.7000;0.2434;0.5623;
-149.4000;0.2434;0.5575;
-149.1000;0.2466;0.5647;
-148.8000;0.2499;0.5696;
-148.5000;0.2450;0.5671;
-148.2000;0.2483;0.5768;
-147.9000;0.2466;0.5744;
-147.6000;0.2450;0.5720;
-147.3000;0.2491;0.5696;
-147.0000;0.2564;0.5938;
-146.7000;0.2458;0.5696;
-146.4000;0.2483;0.5817;
-146.1000;0.2475;0.5793;
-145.8000;0.2458;0.5623;
-145.5000;0.2475;0.5550;
-145.2000;0.2483;0.5623;
-144.9000;0.2483;0.5623;
-144.6000;0.2450;0.5526;
-144.3000;0.2458;0.5526;
-144.0000;0.2466;0.5599;
-143.7000;0.2483;0.5575;
-143.4000;0.2475;0.5599;
-143.1000;0.2475;0.5575;
-142.8000;0.2466;0.5647;
-142.5000;0.2507;0.5696;
-142.2000;0.2483;0.5671;
-141.9000;0.2491;0.5817;
-141.6000;0.2475;0.5696;
-141.3000;0.2450;0.5550;
-141.0000;0.2458;0.5502;
-140.7000;0.2491;0.5526;
-140.4000;0.2483;0.5453;
-140.1000;0.2458;0.5381;
-139.8000;0.2442;0.5405;
-139.5000;0.2475;0.5502;
-139.2000;0.2458;0.5502;
-138.9000;0.2507;0.5671;
-138.6000;0.2483;0.5647;
-138.3000;0.2450;0.5550;
-138.0000;0.2466;0.5671;
-137.7000;0.2434;0.5575;
-137.4000;0.2483;0.5599;
-137.1000;0.2442;0.5502;
-136.8000;0.2458;0.5502;
-136.5000;0.2450;0.5478;
-136.2000;0.2466;0.5478;
-135.9000;0.2466;0.5453;
-135.6000;0.2475;0.5550;
-135.3000;0.2466;0.5526;
-135.0000;0.2499;0.5575;
-134.7000;0.2466;0.5599;
-134.4000;0.2483;0.5671;
-134.1000;0.2466;0.5696;
-133.8000;0.2589;0.6011;
-133.5000;0.2564;0.5914;
-133.2000;0.2458;0.5575;
-132.9000;0.2442;0.5550;
-132.6000;0.2475;0.5599;
-132.3000;0.2491;0.5647;
-132.0000;0.2458;0.5526;
-131.7000;0.2458;0.5575;
-131.4000;0.2475;0.5671;
-131.1000;0.2434;0.5575;
-130.8000;0.2475;0.5720;
-130.5000;0.2426;0.5526;
-130.2000;0.2458;0.5671;
-129.9000;0.2475;0.5744;
-129.6000;0.2475;0.5768;
-129.3000;0.2466;0.5744;
-129.0000;0.2483;0.5647;
-128.7000;0.2499;0.5696;
-128.4000;0.2491;0.5696;
-128.1000;0.2499;0.5744;
-127.8000;0.2483;0.5671;
-127.5000;0.2466;0.5671;
-127.2000;0.2352;0.5332;
-126.9000;0.2450;0.5550;
-126.6000;0.2450;0.5599;
-126.3000;0.2450;0.5599;
-126.0000;0.2466;0.5575;
-125.7000;0.2458;0.5526;
-125.4000;0.2434;0.5405;
-125.1000;0.2458;0.5526;
-124.8000;0.2483;0.5526;
-124.5000;0.2466;0.5526;
-124.2000;0.2418;0.5356;
-123.9000;0.2499;0.5526;
-123.6000;0.2475;0.5429;
-123.3000;0.2475;0.5478;
-123.0000;0.2466;0.5453;
-122.7000;0.2466;0.5429;
-122.4000;0.2458;0.5429;
-122.1000;0.2466;0.5405;
-121.8000;0.2401;0.5138;
-121.5000;0.2434;0.5356;
-121.2000;0.2458;0.5356;
-120.9000;0.2442;0.5332;
-120.6000;0.2466;0.5429;
-120.3000;0.2458;0.5405;
-120.0000;0.2377;0.5114;
-119.7000;0.2442;0.5284;
-119.4000;0.2458;0.5356;
-119.1000;0.2426;0.5308;
-118.8000;0.2491;0.5381;
-118.5000;0.2466;0.5381;
-118.2000;0.2499;0.5478;
-117.9000;0.2458;0.5405;
-117.6000;0.2483;0.5405;
-117.3000;0.2466;0.5356;
-117.0000;0.2483;0.5478;
-116.7000;0.2540;0.5623;
-116.4000;0.2458;0.5405;
-116.1000;0.2475;0.5429;
-115.8000;0.2507;0.5405;
-115.5000;0.2475;0.5381;
-115.2000;0.2450;0.5284;
-114.9000;0.2532;0.5575;
-114.6000;0.2491;0.5526;
-114.3000;0.2483;0.5478;
-114.0000;0.2369;0.5138;
-113.7000;0.2548;0.5502;
-113.4000;0.2475;0.5284;
-113.1000;0.2475;0.5332;
-112.8000;0.2548;0.5478;
-112.5000;0.2442;0.5235;
-112.2000;0.2475;0.5259;
-111.9000;0.2475;0.5308;
-111.6000;0.2483;0.5356;
-111.3000;0.2466;0.5405;
-111.0000;0.2483;0.5453;
-110.7000;0.2523;0.5526;
-110.4000;0.2458;0.5332;
-110.1000;0.2442;0.5356;
-109.8000;0.2532;0.5647;
-109.5000;0.2450;0.5453;
-109.2000;0.2466;0.5405;
-108.9000;0.2466;0.5381;
-108.6000;0.2458;0.5356;
-108.3000;0.2491;0.5356;
-108.0000;0.2475;0.5284;
-107.7000;0.2483;0.5308;
-107.4000;0.2458;0.5381;
-107.1000;0.2556;0.5647;
-106.8000;0.2466;0.5381;
-106.5000;0.2475;0.5381;
-106.2000;0.2450;0.5381;
-105.9000;0.2458;0.5429;
-105.6000;0.2466;0.5381;
-105.3000;0.2605;0.5720;
-105.0000;0.2344;0.5114;
-104.7000;0.2466;0.5453;
-104.4000;0.2466;0.5405;
-104.1000;0.2475;0.5478;
-103.8000;0.2475;0.5453;
-103.5000;0.2450;0.5429;
-103.2000;0.2450;0.5453;
-102.9000;0.2491;0.5526;
-102.6000;0.2475;0.5429;
-102.3000;0.2442;0.5235;
-102.0000;0.2475;0.5259;
-101.7000;0.2483;0.5356;
-101.4000;0.2466;0.5308;
-101.1000;0.2475;0.5308;
-100.8000;0.2442;0.5308;
-100.5000;0.2491;0.5381;
-100.2000;0.2466;0.5284;
-99.9000;0.2507;0.5526;
-99.6000;0.2466;0.5356;
-99.3000;0.2344;0.5163;
-99.0000;0.2475;0.5502;
-98.7000;0.2409;0.5308;
-98.4000;0.2458;0.5453;
-98.1000;0.2426;0.5381;
-97.8000;0.2483;0.5526;
-97.5000;0.2475;0.5575;
-97.2000;0.2499;0.5575;
-96.9000;0.2466;0.5526;
-96.6000;0.2475;0.5429;
-96.3000;0.2491;0.5502;
-96.0000;0.2442;0.5356;
-95.7000;0.2475;0.5429;
-95.4000;0.2475;0.5526;
-95.1000;0.2458;0.5453;
-94.8000;0.2450;0.5453;
-94.5000;0.2450;0.5453;
-94.2000;0.2515;0.5671;
-93.9000;0.2483;0.5526;
-93.6000;0.2466;0.5453;
-93.3000;0.2466;0.5478;
-93.0000;0.2442;0.5381;
-92.7000;0.2475;0.5453;
-92.4000;0.2458;0.5308;
-92.1000;0.2499;0.5453;
-91.8000;0.2475;0.5453;
-91.5000;0.2458;0.5381;
-91.2000;0.2483;0.5502;
-90.9000;0.2475;0.5526;
-90.6000;0.2466;0.5478;
-90.3000;0.2475;0.5502;
-90.0000;0.2434;0.5332;
-89.7000;0.2466;0.5308;
-89.4000;0.2466;0.5429;
-89.1000;0.2458;0.5332;
-88.8000;0.2450;0.5235;
-88.5000;0.2475;0.5235;
-88.2000;0.2458;0.5187;
-87.9000;0.2483;0.5138;
-87.6000;0.2507;0.5259;
-87.3000;0.2491;0.5259;
-87.0000;0.2466;0.5284;
-86.7000;0.2458;0.5308;
-86.4000;0.2434;0.5332;
-86.1000;0.2458;0.5405;
-85.8000;0.2458;0.5381;
-85.5000;0.2475;0.5405;
-85.2000;0.2475;0.5453;
-84.9000;0.2458;0.5453;
-84.6000;0.2450;0.5453;
-84.3000;0.2450;0.5478;
-84.0000;0.2458;0.5453;
-83.7000;0.2466;0.5478;
-83.4000;0.2458;0.5429;
-83.1000;0.2499;0.5575;
-82.8000;0.2475;0.5478;
-82.5000;0.2418;0.5356;
-82.2000;0.2491;0.5478;
-81.9000;0.2483;0.5429;
-81.6000;0.2466;0.5381;
-81.3000;0.2556;0.5671;
-81.0000;0.2475;0.5453;
-80.7000;0.2483;0.5478;
-80.4000;0.2491;0.5356;
-80.1000;0.2523;0.5381;
-79.8000;0.2475;0.5259;
-79.5000;0.2458;0.5284;
-79.2000;0.2426;0.5114;
-78.9000;0.2483;0.5356;
-78.6000;0.2466;0.5284;
-78.3000;0.2466;0.5284;
-78.0000;0.2499;0.5405;
-77.7000;0.2491;0.5381;
-77.4000;0.2475;0.5332;
-77.1000;0.2499;0.5381;
-76.8000;0.2458;0.5284;
-76.5000;0.2475;0.5332;
-76.2000;0.2352;0.5138;
-75.9000;0.2532;0.5575;
-75.6000;0.2458;0.5381;
-75.3000;0.2466;0.5332;
-75.0000;0.2475;0.5429;
-74.7000;0.2466;0.5356;
-74.4000;0.2466;0.5429;
-74.1000;0.2475;0.5526;
-73.8000;0.2499;0.5526;
-73.5000;0.2483;0.5478;
-73.2000;0.2458;0.5405;
-72.9000;0.2466;0.5453;
-72.6000;0.2499;0.5599;
-72.3000;0.2450;0.5453;
-72.0000;0.2475;0.5453;
-71.7000;0.2458;0.5381;
-71.4000;0.2393;0.5259;
-71.1000;0.2466;0.5405;
-70.8000;0.2491;0.5405;
-70.5000;0.2475;0.5284;
-70.2000;0.2352;0.4993;
-69.9000;0.2458;0.5211;
-69.6000;0.2466;0.5187;
-69.3000;0.2475;0.5259;
-69.0000;0.2466;0.5356;
-68.7000;0.2442;0.5332;
-68.4000;0.2483;0.5526;
-68.1000;0.2450;0.5453;
-67.8000;0.2466;0.5478;
-67.5000;0.2434;0.5308;
-67.2000;0.2499;0.5526;
-66.9000;0.2450;0.5453;
-66.6000;0.2458;0.5429;
-66.3000;0.2466;0.5502;
-66.0000;0.2458;0.5478;
-65.7000;0.2475;0.5526;
-65.4000;0.2466;0.5453;
-65.1000;0.2466;0.5502;
-64.8000;0.2466;0.5526;
-64.5000;0.2483;0.5478;
-64.2000;0.2475;0.5453;
-63.9000;0.2466;0.5381;
-63.6000;0.2458;0.5453;
-63.3000;0.2434;0.5453;
-63.0000;0.2466;0.5550;
-62.7000;0.2483;0.5696;
-62.4000;0.2475;0.5744;
-62.1000;0.2475;0.5720;
-61.8000;0.2483;0.5623;
-61.5000;0.2458;0.5526;
-61.2000;0.2491;0.5623;
-60.9000;0.2466;0.5647;
-60.6000;0.2458;0.5647;
-60.3000;0.2466;0.5599;
-60.0000;0.2450;0.5526;
-59.7000;0.2401;0.5478;
-59.4000;0.2466;0.5623;
-59.1000;0.2450;0.5526;
-58.8000;0.2434;0.5429;
-58.5000;0.2580;0.5720;
-58.2000;0.2450;0.5429;
-57.9000;0.2434;0.5356;
-57.6000;0.2475;0.5502;
-57.3000;0.2401;0.5405;
-57.0000;0.2491;0.5575;
-56.7000;0.2466;0.5502;
-56.4000;0.2475;0.5526;
-56.1000;0.2466;0.5478;
-55.8000;0.2466;0.5453;
-55.5000;0.2475;0.5453;
-55.2000;0.2458;0.5332;
-54.9000;0.2369;0.5163;
-54.6000;0.2491;0.5478;
-54.3000;0.2475;0.5526;
-54.0000;0.2466;0.5453;
-53.7000;0.2475;0.5453;
-53.4000;0.2491;0.5526;
-53.1000;0.2491;0.5526;
-52.8000;0.2483;0.5502;
-52.5000;0.2418;0.5284;
-52.2000;0.2369;0.5138;
-51.9000;0.2483;0.5526;
-51.6000;0.2540;0.5696;
-51.3000;0.2450;0.5478;
-51.0000;0.2475;0.5478;
-50.7000;0.2475;0.5478;
-50.4000;0.2613;0.5793;
-50.1000;0.2442;0.5381;
-49.8000;0.2475;0.5478;
-49.5000;0.2442;0.5405;
-49.2000;0.2475;0.5526;
-48.9000;0.2475;0.5550;
-48.6000;0.2450;0.5502;
-48.3000;0.2450;0.5405;
-48.0000;0.2483;0.5453;
-47.7000;0.2523;0.5623;
-47.4000;0.2458;0.5381;
-47.1000;0.2466;0.5429;
-46.8000;0.2466;0.5478;
-46.5000;0.2434;0.5405;
-46.2000;0.2450;0.5550;
-45.9000;0.2466;0.5575;
-45.6000;0.2466;0.5623;
-45.3000;0.2475;0.5623;
-45.0000;0.2475;0.5550;
-44.7000;0.2548;0.5671;
-44.4000;0.2466;0.5453;
-44.1000;0.2483;0.5526;
-43.8000;0.2475;0.5429;
-43.5000;0.2572;0.5647;
-43.2000;0.2499;0.5502;
-42.9000;0.2483;0.5405;
-42.6000;0.2458;0.5356;
-42.3000;0.2466;0.5356;
-42.0000;0.2458;0.5405;
-41.7000;0.2483;0.5502;
-41.4000;0.2442;0.5381;
-41.1000;0.2434;0.5429;
-40.8000;0.2466;0.5575;
-40.5000;0.2450;0.5502;
-40.2000;0.2377;0.5235;
-39.9000;0.2458;0.5405;
-39.6000;0.2393;0.5211;
-39.3000;0.2466;0.5356;
-39.0000;0.2475;0.5381;
-38.7000;0.2499;0.5550;
-38.4000;0.2409;0.5405;
-38.1000;0.2515;0.5647;
-37.8000;0.2466;0.5478;
-37.5000;0.2442;0.5356;
-37.2000;0.2507;0.5502;
-36.9000;0.2458;0.5356;
-36.6000;0.2466;0.5381;
-36.3000;0.2352;0.5114;
-36.0000;0.2450;0.5332;
-35.7000;0.2523;0.5526;
-35.4000;0.2466;0.5478;
-35.1000;0.2466;0.5502;
-34.8000;0.2377;0.5114;
-34.5000;0.2483;0.5356;
-34.2000;0.2475;0.5405;
-33.9000;0.2475;0.5453;
-33.6000;0.2450;0.5381;
-33.3000;0.2434;0.5356;
-33.0000;0.2458;0.5356;
-32.7000;0.2483;0.5405;
-32.4000;0.2475;0.5405;
-32.1000;0.2475;0.5502;
-31.8000;0.2458;0.5550;
-31.5000;0.2475;0.5478;
-31.2000;0.2483;0.5502;
-30.9000;0.2466;0.5405;
-30.6000;0.2475;0.5332;
-30.3000;0.2475;0.5356;
-30.0000;0.2450;0.5308;
-29.7000;0.2458;0.5405;
-29.4000;0.2483;0.5405;
-29.1000;0.2458;0.5332;
-28.8000;0.2475;0.5405;
-28.5000;0.2475;0.5381;
-28.2000;0.2401;0.5235;
-27.9000;0.2458;0.5356;
-27.6000;0.2458;0.5405;
-27.3000;0.2466;0.5478;
-27.0000;0.2483;0.5502;
-26.7000;0.2475;0.5453;
-26.4000;0.2491;0.5550;
-26.1000;0.2475;0.5502;
-25.8000;0.2458;0.5502;
-25.5000;0.2466;0.5550;
-25.2000;0.2458;0.5502;
-24.9000;0.2483;0.5502;
-24.6000;0.2466;0.5478;
-24.3000;0.2458;0.5429;
-24.0000;0.2475;0.5478;
-23.7000;0.2499;0.5575;
-23.4000;0.2507;0.5696;
-23.1000;0.2458;0.5526;
-22.8000;0.2442;0.5453;
-22.5000;0.2564;0.5793;
-22.2000;0.2450;0.5526;
-21.9000;0.2450;0.5502;
-21.6000;0.2475;0.5526;
-21.3000;0.2450;0.5550;
-21.0000;0.2458;0.5575;
-20.7000;0.2483;0.5599;
-20.4000;0.2466;0.5502;
-20.1000;0.2483;0.5599;
-19.8000;0.2458;0.5599;
-19.5000;0.2483;0.5647;
-19.2000;0.2466;0.5550;
-18.9000;0.2507;0.5696;
-18.6000;0.2523;0.5647;
-18.3000;0.2466;0.5429;
-18.0000;0.2491;0.5453;
-17.7000;0.2491;0.5453;
-17.4000;0.2556;0.5623;
-17.1000;0.2450;0.5356;
-16.8000;0.2442;0.5381;
-16.5000;0.2450;0.5502;
-16.2000;0.2442;0.5453;
-15.9000;0.2475;0.5526;
-15.6000;0.2491;0.5550;
-15.3000;0.2475;0.5599;
-15.0000;0.2442;0.5453;
-14.7000;0.2483;0.5502;
-14.4000;0.2466;0.5429;
-14.1000;0.2491;0.5502;
-13.8000;0.2458;0.5550;
-13.5000;0.2466;0.5575;
-13.2000;0.2450;0.5453;
-12.9000;0.2458;0.5526;
-12.6000;0.2523;0.5647;
-12.3000;0.2434;0.5429;
-12.0000;0.2475;0.5599;
-11.7000;0.2523;0.5623;
-11.4000;0.2466;0.5478;
-11.1000;0.2507;0.5599;
-10.8000;0.2466;0.5526;
-10.5000;0.2483;0.5599;
-10.2000;0.2442;0.5429;
-9.9000;0.2483;0.5550;
-9.6000;0.2458;0.5550;
-9.3000;0.2450;0.5429;
-9.0000;0.2450;0.5429;
-8.7000;0.2483;0.5478;
-8.4000;0.2466;0.5429;
-8.1000;0.2466;0.5502;
-7.8000;0.2466;0.5550;
-7.5000;0.2475;0.5575;
-7.2000;0.2483;0.5575;
-6.9000;0.2466;0.5526;
-6.6000;0.2475;0.5502;
-6.3000;0.2458;0.5429;
-6.0000;0.2466;0.5405;
-5.7000;0.2483;0.5502;
-5.4000;0.2540;0.5550;
-5.1000;0.2475;0.5429;
-4.8000;0.2475;0.5429;
-4.5000;0.2475;0.5453;
-4.2000;0.2458;0.5405;
-3.9000;0.2475;0.5453;
-3.6000;0.2483;0.5453;
-3.3000;0.2507;0.5502;
-3.0000;0.2491;0.5381;
-2.7000;0.2458;0.5308;
-2.4000;0.2450;0.5356;
-2.1000;0.2475;0.5453;
-1.8000;0.2475;0.5453;
-1.5000;0.2450;0.5381;
-1.2000;0.2483;0.5550;
-0.9000;0.2491;0.5599;
-0.6000;0.2475;0.5526;
-0.3000;0.2442;0.5453;
0.0000;0.2442;0.5453;
0.3000;0.2475;0.5308;
0.6000;0.2450;0.5405;
0.9000;0.2475;0.5696;
1.2000;0.2409;0.5744;
1.5000;0.2450;0.5865;
1.8000;0.2483;0.6084;
2.1000;0.2499;0.6180;
2.4000;0.2491;0.6253;
2.7000;0.2483;0.6350;
3.0000;0.2507;0.6617;
3.3000;0.2450;0.6593;
3.6000;0.2499;0.6714;
3.9000;0.2515;0.6811;
4.2000;0.2475;0.6762;
4.5000;0.2523;0.6835;
4.8000;0.2507;0.6786;
5.1000;0.2507;0.6811;
5.4000;0.2499;0.6811;
5.7000;0.2515;0.6883;
6.0000;0.2515;0.6835;
6.3000;0.2458;0.6738;
6.6000;0.2507;0.6932;
6.9000;0.2499;0.7029;
7.2000;0.2589;0.7271;
7.5000;0.2499;0.7005;
7.8000;0.2499;0.7101;
8.1000;0.2507;0.7271;
8.4000;0.2507;0.7271;
8.7000;0.2515;0.7223;
9.0000;0.2515;0.7247;
9.3000;0.2507;0.7198;
9.6000;0.2523;0.7198;
9.9000;0.2507;0.7198;
10.2000;0.2499;0.7174;
10.5000;0.2515;0.7150;
10.8000;0.2507;0.7223;
11.1000;0.2434;0.7053;
11.4000;0.2532;0.7368;
11.7000;0.2548;0.7368;
12.0000;0.2499;0.7223;
12.3000;0.2515;0.7150;
12.6000;0.2515;0.7198;
12.9000;0.2483;0.7198;
13.2000;0.2499;0.7295;
13.5000;0.2475;0.7126;
13.8000;0.2515;0.7101;
14.1000;0.2499;0.7101;
14.4000;0.2507;0.7223;
14.7000;0.2532;0.7320;
15.0000;0.2499;0.7198;
15.3000;0.2523;0.7223;
15.6000;0.2458;0.7053;
15.9000;0.2523;0.7271;
16.2000;0.2515;0.7150;
16.5000;0.2491;0.7077;
16.8000;0.2548;0.7198;
17.1000;0.2491;0.7077;
17.4000;0.2499;0.7126;
17.7000;0.2515;0.7223;
18.0000;0.2491;0.7174;
18.3000;0.2515;0.7247;
18.6000;0.2540;0.7223;
18.9000;0.2499;0.7029;
19.2000;0.2499;0.7029;
19.5000;0.2532;0.7029;
19.8000;0.2540;0.7029;
20.1000;0.2426;0.6786;
20.4000;0.2507;0.7150;
20.7000;0.2507;0.7174;
21.0000;0.2515;0.7223;
21.3000;0.2491;0.7150;
21.6000;0.2507;0.7344;
21.9000;0.2475;0.7295;
22.2000;0.2499;0.7320;
22.5000;0.2491;0.7271;
22.8000;0.2466;0.7174;
23.1000;0.2483;0.7126;
23.4000;0.2499;0.7101;
23.7000;0.2507;0.7126;
24.0000;0.2491;0.7101;
24.3000;0.2491;0.7005;
24.6000;0.2499;0.7053;
24.9000;0.2499;0.7029;
25.2000;0.2564;0.7223;
25.5000;0.2613;0.7320;
25.8000;0.2515;0.6980;
26.1000;0.2515;0.6932;
26.4000;0.2507;0.6956;
26.7000;0.2475;0.6859;
27.0000;0.2507;0.6932;
27.3000;0.2491;0.6956;
27.6000;0.2556;0.7126;
27.9000;0.2483;0.6908;
28.2000;0.2499;0.6908;
28.5000;0.2507;0.6980;
28.8000;0.2491;0.6835;
29.1000;0.2491;0.6932;
29.4000;0.2499;0.7053;
29.7000;0.2491;0.7077;
30.0000;0.2572;0.7271;
30.3000;0.2499;0.7126;
30.6000;0.2523;0.7198;
30.9000;0.2507;0.7150;
31.2000;0.2515;0.7223;
31.5000;0.2499;0.7320;
31.8000;0.2507;0.7417;
32.1000;0.2475;0.7344;
32.4000;0.2507;0.7320;
32.7000;0.2483;0.7198;
33.0000;0.2507;0.7271;
33.3000;0.2483;0.7247;
33.6000;0.2507;0.7295;
33.9000;0.2515;0.7295;
34.2000;0.2507;0.7320;
34.5000;0.2409;0.6932;
34.8000;0.2507;0.7101;
35.1000;0.2450;0.6908;
35.4000;0.2499;0.7126;
35.7000;0.2540;0.7295;
36.0000;0.2507;0.7126;
36.3000;0.2507;0.7174;
36.6000;0.2523;0.7150;
36.9000;0.2475;0.6932;
37.2000;0.2597;0.7174;
37.5000;0.2515;0.7029;
37.8000;0.2475;0.7005;
38.1000;0.2499;0.7053;
38.4000;0.2499;0.7029;
38.7000;0.2483;0.7005;
39.0000;0.2499;0.7198;
39.3000;0.2515;0.7198;
39.6000;0.2507;0.7198;
39.9000;0.2507;0.7295;
40.2000;0.2491;0.7271;
40.5000;0.2515;0.7392;
40.8000;0.2499;0.7320;
41.1000;0.2499;0.7247;
41.4000;0.2515;0.7223;
41.7000;0.2515;0.7295;
42.0000;0.2499;0.7247;
42.3000;0.2499;0.7198;
42.6000;0.2491;0.7150;
42.9000;0.2507;0.7101;
43.2000;0.2475;0.6956;
43.5000;0.2483;0.6835;
43.8000;0.2483;0.6859;
44.1000;0.2507;0.6859;
44.4000;0.2499;0.6762;
44.7000;0.2491;0.6811;
45.0000;0.2483;0.6786;
45.3000;0.2491;0.6835;
45.6000;0.2499;0.6980;
45.9000;0.2499;0.7005;
46.2000;0.2548;0.7077;
46.5000;0.2507;0.6932;
46.8000;0.2491;0.6956;
47.1000;0.2491;0.6980;
47.4000;0.2507;0.7029;
47.7000;0.2515;0.7053;
48.0000;0.2499;0.6980;
48.3000;0.2483;0.6956;
48.6000;0.2466;0.6932;
48.9000;0.2442;0.6859;
49.2000;0.2507;0.7053;
49.5000;0.2507;0.7101;
49.8000;0.2499;0.7101;
50.1000;0.2499;0.7198;
50.4000;0.2548;0.7344;
50.7000;0.2507;0.7174;
51.0000;0.2491;0.7126;
51.3000;0.2515;0.7223;
51.6000;0.2515;0.7198;
51.9000;0.2475;0.7101;
52.2000;0.2499;0.7198;
52.5000;0.2507;0.7223;
52.8000;0.2499;0.7198;
53.1000;0.2499;0.7150;
53.4000;0.2475;0.7029;
53.7000;0.2450;0.6932;
54.0000;0.2499;0.7077;
54.3000;0.2515;0.7077;
54.6000;0.2450;0.6908;
54.9000;0.2491;0.6932;
55.2000;0.2401;0.6641;
55.5000;0.2597;0.7198;
55.8000;0.2499;0.7077;
56.1000;0.2515;0.7198;
56.4000;0.2540;0.7198;
56.7000;0.2540;0.7174;
57.0000;0.2523;0.7126;
57.3000;0.2426;0.6859;
57.6000;0.2515;0.7053;
57.9000;0.2507;0.6956;
58.2000;0.2491;0.6908;
58.5000;0.2483;0.6908;
58.8000;0.2450;0.6835;
59.1000;0.2499;0.6956;
59.4000;0.2491;0.6980;
59.7000;0.2483;0.6908;
60.0000;0.2409;0.6714;
60.3000;0.2483;0.6980;
60.6000;0.2515;0.6980;
60.9000;0.2483;0.6932;
61.2000;0.2507;0.6980;
61.5000;0.2499;0.7005;
61.8000;0.2491;0.7053;
62.1000;0.2499;0.7101;
62.4000;0.2507;0.7077;
62.7000;0.2483;0.6932;
63.0000;0.2491;0.6859;
63.3000;0.2499;0.6859;
63.6000;0.2499;0.6956;
63.9000;0.2499;0.7005;
64.2000;0.2499;0.7005;
64.5000;0.2491;0.7029;
64.8000;0.2483;0.7053;
65.1000;0.2499;0.7029;
65.4000;0.2507;0.7101;
65.7000;0.2491;0.7126;
66.0000;0.2491;0.7126;
66.3000;0.2475;0.7126;
66.6000;0.2556;0.7320;
66.9000;0.2499;0.7247;
67.2000;0.2523;0.7295;
67.5000;0.2475;0.7101;
67.8000;0.2507;0.7223;
68.1000;0.2523;0.7174;
68.4000;0.2523;0.7150;
68.7000;0.2491;0.7077;
69.0000;0.2499;0.6980;
69.3000;0.2499;0.7101;
69.6000;0.2499;0.7077;
69.9000;0.2491;0.7029;
70.2000;0.2483;0.7005;
70.5000;0.2483;0.6883;
70.8000;0.2499;0.6956;
71.1000;0.2491;0.7029;
71.4000;0.2483;0.7053;
71.7000;0.2499;0.7077;
72.0000;0.2499;0.7077;
72.3000;0.2507;0.7101;
72.6000;0.2515;0.7101;
72.9000;0.2507;0.7053;
73.2000;0.2572;0.7198;
73.5000;0.2499;0.6980;
73.8000;0.2499;0.6932;
74.1000;0.2377;0.6641;
74.4000;0.2499;0.7029;
74.7000;0.2475;0.6956;
75.0000;0.2475;0.6980;
75.3000;0.2483;0.7005;
75.6000;0.2491;0.6980;
75.9000;0.2499;0.6980;
76.2000;0.2466;0.6932;
76.5000;0.2540;0.7150;
76.8000;0.2491;0.7053;
77.1000;0.2442;0.6859;
77.4000;0.2507;0.7053;
77.7000;0.2483;0.7053;
78.0000;0.2499;0.7126;
78.3000;0.2491;0.7126;
78.6000;0.2507;0.7223;
78.9000;0.2507;0.7198;
79.2000;0.2507;0.7150;
79.5000;0.2475;0.7029;
79.8000;0.2548;0.7150;
80.1000;0.2475;0.6908;
80.4000;0.2426;0.6786;
80.7000;0.2499;0.6908;
81.0000;0.2491;0.6908;
81.3000;0.2548;0.7101;
81.6000;0.2491;0.6980;
81.9000;0.2499;0.7005;
82.2000;0.2499;0.7029;
82.5000;0.2548;0.7101;
82.8000;0.2442;0.6786;
83.1000;0.2491;0.6956;
83.4000;0.2483;0.6932;
83.7000;0.2483;0.6932;
84.0000;0.2491;0.6956;
84.3000;0.2491;0.6932;
84.6000;0.2499;0.7077;
84.9000;0.2491;0.7150;
85.2000;0.2556;0.7223;
85.5000;0.2507;0.7101;
85.8000;0.2507;0.7150;
86.1000;0.2491;0.7174;
86.4000;0.2507;0.7198;
86.7000;0.2409;0.6908;
87.0000;0.2507;0.7198;
87.3000;0.2491;0.7247;
87.6000;0.2491;0.7295;
87.9000;0.2483;0.7271;
88.2000;0.2491;0.7295;
88.5000;0.2507;0.7344;
88.8000;0.2483;0.7320;
89.1000;0.2475;0.7320;
89.4000;0.2499;0.7344;
89.7000;0.2621;0.7683;
90.0000;0.2475;0.7271;
90.3000;0.2475;0.7174;
90.6000;0.2507;0.7005;
90.9000;0.2523;0.6956;
91.2000;0.2507;0.7029;
91.5000;0.2499;0.7053;
91.8000;0.2475;0.7005;
92.1000;0.2466;0.7005;
92.4000;0.2515;0.7150;
92.7000;0.2483;0.7174;
93.0000;0.2499;0.7174;
93.3000;0.2458;0.7101;
93.6000;0.2483;0.7029;
93.9000;0.2491;0.7126;
94.2000;0.2483;0.7029;
94.5000;0.2483;0.7005;
94.8000;0.2507;0.7053;
95.1000;0.2491;0.6980;
95.4000;0.2564;0.7150;
95.7000;0.2499;0.6908;
96.0000;0.2515;0.6908;
96.3000;0.2499;0.6932;
96.6000;0.2507;0.6883;
96.9000;0.2507;0.6883;
97.2000;0.2491;0.6811;
97.5000;0.2556;0.7029;
97.8000;0.2515;0.6908;
98.1000;0.2491;0.6835;
98.4000;0.2483;0.6835;
98.7000;0.2499;0.6859;
99.0000;0.2532;0.6956;
99.3000;0.2483;0.6835;
99.6000;0.2483;0.6908;
99.9000;0.2491;0.7005;
100.2000;0.2483;0.6980;
100.5000;0.2483;0.6956;
100.8000;0.2483;0.6956;
101.1000;0.2507;0.7053;
101.4000;0.2523;0.6932;
101.7000;0.2507;0.6859;
102.0000;0.2507;0.6835;
102.3000;0.2499;0.6762;
102.6000;0.2507;0.6786;
102.9000;0.2475;0.6786;
103.2000;0.2483;0.6883;
103.5000;0.2491;0.6956;
103.8000;0.2483;0.6956;
104.1000;0.2499;0.7029;
104.4000;0.2491;0.6908;
104.7000;0.2491;0.6762;
105.0000;0.2483;0.6762;
105.3000;0.2515;0.6835;
105.6000;0.2507;0.6908;
105.9000;0.2532;0.7005;
106.2000;0.2491;0.6932;
106.5000;0.2515;0.7029;
106.8000;0.2491;0.7077;
107.1000;0.2499;0.7174;
107.4000;0.2491;0.7174;
107.7000;0.2450;0.7029;
108.0000;0.2499;0.7174;
108.3000;0.2499;0.7101;
108.6000;0.2499;0.7053;
108.9000;0.2458;0.6980;
109.2000;0.2507;0.7126;
109.5000;0.2491;0.7029;
109.8000;0.2515;0.7126;
110.1000;0.2515;0.7053;
110.4000;0.2499;0.7101;
110.7000;0.2540;0.7174;
111.0000;0.2458;0.6956;
111.3000;0.2483;0.6908;
111.6000;0.2491;0.6908;
111.9000;0.2515;0.7005;
112.2000;0.2507;0.6980;
112.5000;0.2507;0.7005;
112.8000;0.2523;0.6980;
113.1000;0.2491;0.6908;
113.4000;0.2475;0.6908;
113.7000;0.2491;0.6980;
114.0000;0.2597;0.7271;
114.3000;0.2499;0.6883;
114.6000;0.2491;0.6883;
114.9000;0.2499;0.6980;
115.2000;0.2515;0.7053;
115.5000;0.2540;0.7053;
115.8000;0.2483;0.6811;
116.1000;0.2491;0.6835;
116.4000;0.2466;0.6835;
116.7000;0.2483;0.6835;
117.0000;0.2540;0.6883;
117.3000;0.2475;0.6835;
117.6000;0.2475;0.6932;
117.9000;0.2450;0.6859;
118.2000;0.2532;0.7053;
118.5000;0.2491;0.6811;
118.8000;0.2540;0.7005;
119.1000;0.2491;0.6980;
119.4000;0.2507;0.7005;
119.7000;0.2491;0.6908;
120.0000;0.2434;0.6762;
120.3000;0.2466;0.6883;
120.6000;0.2507;0.7029;
120.9000;0.2580;0.7271;
121.2000;0.2491;0.7053;
121.5000;0.2475;0.7053;
121.8000;0.2499;0.7126;
122.1000;0.2442;0.6980;
122.4000;0.2483;0.7101;
122.7000;0.2491;0.7174;
123.0000;0.2491;0.7150;
123.3000;0.2491;0.7077;
123.6000;0.2483;0.7053;
123.9000;0.2507;0.7029;
124.2000;0.2507;0.7101;
124.5000;0.2466;0.6932;
124.8000;0.2466;0.6811;
125.1000;0.2483;0.6835;
125.4000;0.2483;0.6883;
125.7000;0.2409;0.6689;
126.0000;0.2499;0.6980;
126.3000;0.2483;0.6980;
126.6000;0.2483;0.6956;
126.9000;0.2499;0.7005;
127.2000;0.2507;0.7029;
127.5000;0.2499;0.7101;
127.8000;0.2475;0.7101;
128.1000;0.2507;0.7150;
128.4000;0.2491;0.7174;
128.7000;0.2507;0.7198;
129.0000;0.2499;0.7126;
129.3000;0.2499;0.7077;
129.6000;0.2507;0.7053;
129.9000;0.2499;0.7029;
130.2000;0.2499;0.6932;
130.5000;0.2434;0.6883;
130.8000;0.2483;0.7005;
131.1000;0.2507;0.7005;
131.4000;0.2483;0.6908;
131.7000;0.2491;0.7005;
132.0000;0.2466;0.7005;
132.3000;0.2499;0.7077;
132.6000;0.2507;0.7101;
132.9000;0.2491;0.7101;
133.2000;0.2507;0.7150;
133.5000;0.2507;0.7174;
133.8000;0.2507;0.7223;
134.1000;0.2491;0.7101;
134.4000;0.2515;0.7174;
134.7000;0.2523;0.7295;
135.0000;0.2491;0.7174;
135.3000;0.2507;0.7174;
135.6000;0.2499;0.7077;
135.9000;0.2475;0.7029;
136.2000;0.2507;0.7077;
136.5000;0.2483;0.7029;
136.8000;0.2564;0.7271;
137.1000;0.2507;0.7223;
137.4000;0.2507;0.7126;
137.7000;0.2499;0.7126;
138.0000;0.2507;0.7077;
138.3000;0.2475;0.6980;
138.6000;0.2475;0.6956;
138.9000;0.2483;0.7005;
139.2000;0.2499;0.6956;
139.5000;0.2491;0.6908;
139.8000;0.2515;0.6932;
140.1000;0.2499;0.6956;
140.4000;0.2466;0.6835;
140.7000;0.2483;0.6956;
141.0000;0.2499;0.7101;
141.3000;0.2475;0.7126;
141.6000;0.2491;0.7174;
141.9000;0.2475;0.7223;
142.2000;0.2564;0.7368;
142.5000;0.2442;0.7101;
142.8000;0.2475;0.7198;
143.1000;0.2475;0.7223;
143.4000;0.2499;0.7198;
143.7000;0.2491;0.7223;
144.0000;0.2466;0.7198;
144.3000;0.2483;0.7271;
144.6000;0.2483;0.7271;
144.9000;0.2499;0.7271;
145.2000;0.2483;0.7150;
145.5000;0.2475;0.7077;
145.8000;0.2483;0.7174;
146.1000;0.2491;0.7174;
146.4000;0.2450;0.7053;
146.7000;0.2475;0.7101;
147.0000;0.2483;0.7101;
147.3000;0.2507;0.7126;
147.6000;0.2491;0.7126;
147.9000;0.2475;0.7101;
148.2000;0.2442;0.7029;
148.5000;0.2466;0.7198;
148.8000;0.2483;0.7247;
149.1000;0.2499;0.7295;
149.4000;0.2483;0.7198;
149.7000;0.2475;0.7150;
150.0000;0.2515;0.7126;
150.3000;0.2499;0.7053;
150.6000;0.2491;0.6932;
150.9000;0.2475;0.6835;
151.2000;0.2409;0.6762;
151.5000;0.2458;0.6835;
151.8000;0.2483;0.6908;
152.1000;0.2532;0.7053;
152.4000;0.2466;0.6980;
152.7000;0.2458;0.7029;
153.0000;0.2499;0.7053;
153.3000;0.2466;0.6980;
153.6000;0.2491;0.7005;
153.9000;0.2483;0.7077;
154.2000;0.2499;0.7077;
154.5000;0.2483;0.7150;
154.8000;0.2475;0.7150;
155.1000;0.2499;0.7247;
155.4000;0.2483;0.7174;
155.7000;0.2466;0.7198;
156.0000;0.2572;0.7489;
156.3000;0.2507;0.7320;
156.6000;0.2491;0.7053;
156.9000;0.2491;0.7053;
157.2000;0.2507;0.7077;
157.5000;0.2491;0.7029;
157.8000;0.2483;0.7029;
158.1000;0.2491;0.7029;
158.4000;0.2475;0.7053;
158.7000;0.2483;0.7126;
159.0000;0.2499;0.7198;
159.3000;0.2491;0.7150;
159.6000;0.2548;0.7223;
159.9000;0.2507;0.7029;
160.2000;0.2491;0.7126;
160.5000;0.2507;0.7223;
160.8000;0.2491;0.7223;
161.1000;0.2499;0.7344;
161.4000;0.2475;0.7271;
161.7000;0.2483;0.7271;
162.0000;0.2483;0.7223;
162.3000;0.2499;0.7247;
162.6000;0.2475;0.7198;
162.9000;0.2491;0.7247;
163.2000;0.2499;0.7223;
163.5000;0.2532;0.7344;
163.8000;0.2491;0.7295;
164.1000;0.2507;0.7295;
164.4000;0.2475;0.7223;
164.7000;0.2499;0.7198;
165.0000;0.2491;0.7198;
165.3000;0.2491;0.7126;
165.6000;0.2499;0.7126;
165.9000;0.2483;0.7077;
166.2000;0.2434;0.6980;
166.5000;0.2475;0.7053;
166.8000;0.2507;0.7174;
167.1000;0.2491;0.7126;
167.4000;0.2491;0.7174;
167.7000;0.2483;0.7174;
168.0000;0.2491;0.7198;
168.3000;0.2491;0.7271;
168.6000;0.2483;0.7198;
168.9000;0.2499;0.7174;
169.2000;0.2491;0.7174;
169.5000;0.2491;0.7223;
169.8000;0.2491;0.7247;
170.1000;0.2491;0.7320;
170.4000;0.2499;0.7368;
170.7000;0.2491;0.7320;
171.0000;0.2475;0.7271;
171.3000;0.2475;0.7174;
171.6000;0.2491;0.7126;
171.9000;0.2491;0.7101;
172.2000;0.2426;0.6980;
172.5000;0.2458;0.7029;
172.8000;0.2491;0.6980;
173.1000;0.2491;0.7029;
173.4000;0.2483;0.7053;
173.7000;0.2580;0.7271;
174.0000;0.2483;0.7101;
174.3000;0.2483;0.7077;
174.6000;0.2450;0.7077;
174.9000;0.2499;0.7126;
175.2000;0.2466;0.7101;
175.5000;0.2475;0.7077;
175.8000;0.2540;0.7101;
176.1000;0.2475;0.7005;
176.4000;0.2483;0.7077;
176.7000;0.2466;0.7077;
177.0000;0.2499;0.7077;
177.3000;0.2515;0.7174;
177.6000;0.2466;0.7101;
177.9000;0.2491;0.7101;
178.2000;0.2540;0.7198;
178.5000;0.2475;0.7053;
178.8000;0.2491;0.7077;
179.1000;0.2483;0.7053;
179.4000;0.2450;0.6932;
179.7000;0.2483;0.7005;
180.0000;0.2491;0.7053;
180.3000;0.2507;0.7198;
180.6000;0.2499;0.7150;
180.9000;0.2491;0.7126;
181.2000;0.2450;0.6956;
181.5000;0.2475;0.7077;
181.8000;0.2507;0.7174;
182.1000;0.2491;0.7126;
182.4000;0.2483;0.7077;
182.7000;0.2483;0.7126;
183.0000;0.2507;0.7174;
183.3000;0.2491;0.7198;
183.6000;0.2491;0.7271;
183.9000;0.2475;0.7320;
184.2000;0.2475;0.7271;
184.5000;0.2491;0.7247;
184.8000;0.2483;0.7271;
185.1000;0.2483;0.7198;
185.4000;0.2507;0.7223;
185.7000;0.2483;0.7223;
186.0000;0.2564;0.7465;
186.3000;0.2491;0.7271;
186.6000;0.2491;0.7223;
186.9000;0.2491;0.7247;
187.2000;0.2475;0.7295;
187.5000;0.2613;0.7659;
187.8000;0.2466;0.7344;
188.1000;0.2491;0.7320;
188.4000;0.2426;0.7150;
188.7000;0.2483;0.7368;
189.0000;0.2515;0.7441;
189.3000;0.2377;0.7029;
189.6000;0.2458;0.7247;
189.9000;0.2475;0.7295;
190.2000;0.2515;0.7295;
190.5000;0.2475;0.7271;
190.8000;0.2483;0.7295;
191.1000;0.2475;0.7271;
191.4000;0.2483;0.7295;
191.7000;0.2491;0.7295;
192.0000;0.2499;0.7198;
192.3000;0.2491;0.7198;
192.6000;0.2515;0.7223;
192.9000;0.2475;0.7126;
193.2000;0.2475;0.7029;
193.5000;0.2499;0.7126;
193.8000;0.2507;0.7223;
194.1000;0.2491;0.7150;
194.4000;0.2483;0.7126;
194.7000;0.2556;0.7223;
195.0000;0.2491;0.7174;
195.3000;0.2475;0.7198;
195.6000;0.2491;0.7295;
195.9000;0.2483;0.7247;
196.2000;0.2458;0.7174;
196.5000;0.2475;0.7271;
196.8000;0.2483;0.7392;
197.1000;0.2483;0.7417;
197.4000;0.2491;0.7417;
197.7000;0.2499;0.7247;
198.0000;0.2499;0.7150;
198.3000;0.2491;0.7101;
198.6000;0.2515;0.7198;
198.9000;0.2450;0.6956;
199.2000;0.2466;0.7005;
199.5000;0.2491;0.6932;
199.8000;0.2556;0.7101;
200.1000;0.2507;0.7005;
200.4000;0.2515;0.7126;
200.7000;0.2499;0.7101;
201.0000;0.2475;0.7077;
201.3000;0.2491;0.7223;
201.6000;0.2499;0.7223;
201.9000;0.2507;0.7223;
202.2000;0.2507;0.7174;
202.5000;0.2548;0.7247;
202.8000;0.2483;0.7101;
203.1000;0.2466;0.7005;
203.4000;0.2483;0.7198;
203.7000;0.2483;0.7101;
204.0000;0.2491;0.7126;
204.3000;0.2450;0.7101;
204.6000;0.2515;0.7320;
204.9000;0.2499;0.7320;
205.2000;0.2475;0.7247;
205.5000;0.2483;0.7271;
205.8000;0.2499;0.7271;
206.1000;0.2507;0.7320;
206.4000;0.2491;0.7320;
206.7000;0.2499;0.7368;
207.0000;0.2499;0.7344;
207.3000;0.2499;0.7344;
207.6000;0.2483;0.7344;
207.9000;0.2491;0.7465;
208.2000;0.2483;0.7441;
208.5000;0.2491;0.7465;
208.8000;0.2491;0.7441;
209.1000;0.2491;0.7417;
209.4000;0.2507;0.7417;
209.7000;0.2491;0.7417;
210.0000;0.2475;0.7417;
210.3000;0.2491;0.7465;
210.6000;0.2466;0.7271;
210.9000;0.2483;0.7174;
211.2000;0.2499;0.7150;
211.5000;0.2491;0.7150;
211.8000;0.2491;0.7126;
212.1000;0.2499;0.7150;
212.4000;0.2466;0.7053;
212.7000;0.2475;0.7005;
213.0000;0.2475;0.6980;
213.3000;0.2556;0.7223;
213.6000;0.2499;0.7174;
213.9000;0.2475;0.7053;
214.2000;0.2499;0.7077;
214.5000;0.2483;0.7029;
214.8000;0.2515;0.7174;
215.1000;0.2483;0.7126;
215.4000;0.2499;0.7150;
215.7000;0.2507;0.7223;
216.0000;0.2499;0.7150;
216.3000;0.2515;0.7174;
216.6000;0.2483;0.7029;
216.9000;0.2483;0.6980;
217.2000;0.2499;0.7053;
217.5000;0.2491;0.6956;
217.8000;0.2491;0.6956;
218.1000;0.2475;0.6956;
218.4000;0.2532;0.7005;
218.7000;0.2515;0.6956;
219.0000;0.2450;0.6835;
219.3000;0.2491;0.6980;
219.6000;0.2466;0.6980;
219.9000;0.2483;0.7053;
220.2000;0.2491;0.7101;
220.5000;0.2556;0.7247;
220.8000;0.2491;0.7053;
221.1000;0.2507;0.7053;
221.4000;0.2483;0.7126;
221.7000;0.2499;0.7174;
222.0000;0.2499;0.7150;
222.3000;0.2499;0.7150;
222.6000;0.2491;0.7271;
222.9000;0.2483;0.7295;
223.2000;0.2450;0.7198;
223.5000;0.2499;0.7271;
223.8000;0.2491;0.7223;
224.1000;0.2507;0.7271;
224.4000;0.2483;0.7077;
224.7000;0.2483;0.7101;
225.0000;0.2483;0.7077;
225.3000;0.2491;0.7077;
225.6000;0.2515;0.7077;
225.9000;0.2458;0.7029;
226.2000;0.2466;0.7126;
226.5000;0.2483;0.7223;
226.8000;0.2483;0.7223;
227.1000;0.2540;0.7344;
227.4000;0.2483;0.7247;
227.7000;0.2458;0.7223;
228.0000;0.2499;0.7320;
228.3000;0.2523;0.7368;
228.6000;0.2450;0.7150;
228.9000;0.2491;0.7247;
229.2000;0.2507;0.7271;
229.5000;0.2466;0.7247;
229.8000;0.2475;0.7198;
230.1000;0.2507;0.7295;
230.4000;0.2491;0.7198;
230.7000;0.2475;0.7126;
231.0000;0.2499;0.7174;
231.3000;0.2491;0.7198;
231.6000;0.2507;0.7223;
231.9000;0.2475;0.7150;
232.2000;0.2515;0.7174;
232.5000;0.2475;0.7077;
232.8000;0.2475;0.7005;
233.1000;0.2483;0.6956;
233.4000;0.2483;0.6908;
233.7000;0.2491;0.6980;
234.0000;0.2475;0.6956;
234.3000;0.2499;0.6980;
234.6000;0.2499;0.7126;
234.9000;0.2491;0.7150;
235.2000;0.2499;0.7223;
235.5000;0.2507;0.7295;
235.8000;0.2491;0.7223;
236.1000;0.2475;0.7174;
236.4000;0.2491;0.7198;
236.7000;0.2515;0.7223;
237.0000;0.2507;0.7101;
237.3000;0.2491;0.7150;
237.6000;0.2499;0.7295;
237.9000;0.2491;0.7223;
238.2000;0.2491;0.7174;
238.5000;0.2483;0.7101;
238.8000;0.2491;0.7101;
239.1000;0.2499;0.7126;
239.4000;0.2483;0.7150;
239.7000;0.2475;0.7126;
240.0000;0.2475;0.7126;
240.3000;0.2483;0.7174;
240.6000;0.2483;0.7174;
240.9000;0.2475;0.7198;
241.2000;0.2475;0.7077;
241.5000;0.2499;0.7126;
241.8000;0.2483;0.7101;
242.1000;0.2499;0.7174;
242.4000;0.2475;0.7223;
242.7000;0.2491;0.7295;
243.0000;0.2499;0.7247;
243.3000;0.2491;0.7320;
243.6000;0.2523;0.7344;
243.9000;0.2466;0.7174;
244.2000;0.2475;0.7053;
244.5000;0.2491;0.7198;
244.8000;0.2507;0.7150;
245.1000;0.2483;0.7150;
245.4000;0.2499;0.7247;
245.7000;0.2491;0.7223;
246.0000;0.2475;0.7150;
246.3000;0.2483;0.7101;
246.6000;0.2458;0.7029;
246.9000;0.2499;0.7150;
247.2000;0.2483;0.7101;
247.5000;0.2507;0.7198;
247.8000;0.2458;0.7126;
248.1000;0.2491;0.7174;
248.4000;0.2483;0.7174;
248.7000;0.2499;0.7150;
249.0000;0.2483;0.7126;
249.3000;0.2564;0.7320;
249.6000;0.2466;0.7101;
249.9000;0.2483;0.7174;
250.2000;0.2499;0.7247;
250.5000;0.2507;0.7247;
250.8000;0.2499;0.7198;
251.1000;0.2499;0.7198;
251.4000;0.2401;0.6932;
251.7000;0.2491;0.7150;
252.0000;0.2507;0.7223;
252.3000;0.2564;0.7320;
252.6000;0.2483;0.7198;
252.9000;0.2483;0.7223;
253.2000;0.2507;0.7344;
253.5000;0.2499;0.7271;
253.8000;0.2475;0.7126;
254.1000;0.2458;0.7053;
254.4000;0.2450;0.7053;
254.7000;0.2466;0.7126;
255.0000;0.2475;0.7198;
255.3000;0.2491;0.7320;
255.6000;0.2515;0.7344;
255.9000;0.2499;0.7247;
256.2000;0.2491;0.7150;
256.5000;0.2491;0.7053;
256.8000;0.2483;0.7101;
257.1000;0.2499;0.7150;
257.4000;0.2507;0.7223;
257.7000;0.2491;0.7174;
258.0000;0.2483;0.7150;
258.3000;0.2466;0.7077;
258.6000;0.2475;0.7029;
258.9000;0.2475;0.6956;
259.2000;0.2483;0.7005;
259.5000;0.2491;0.7053;
259.8000;0.2507;0.7101;
260.1000;0.2491;0.7126;
260.4000;0.2507;0.7053;
260.7000;0.2507;0.7077;
261.0000;0.2499;0.7101;
261.3000;0.2515;0.7174;
261.6000;0.2499;0.7174;
261.9000;0.2491;0.7101;
262.2000;0.2499;0.7150;
262.5000;0.2499;0.7247;
262.8000;0.2515;0.7247;
263.1000;0.2491;0.7198;
263.4000;0.2515;0.7174;
263.7000;0.2483;0.7077;
264.0000;0.2515;0.7126;
264.3000;0.2466;0.6980;
264.6000;0.2483;0.7005;
264.9000;0.2483;0.7053;
265.2000;0.2499;0.7101;
265.5000;0.2483;0.7101;
265.8000;0.2466;0.7005;
266.1000;0.2523;0.7150;
266.4000;0.2507;0.7150;
266.7000;0.2483;0.7077;
267.0000;0.2483;0.7005;
267.3000;0.2466;0.6956;
267.6000;0.2499;0.7053;
267.9000;0.2564;0.7320;
268.2000;0.2483;0.7053;
268.5000;0.2483;0.7126;
268.8000;0.2426;0.6980;
269.1000;0.2483;0.7174;
269.4000;0.2483;0.7150;
269.7000;0.2426;0.7077;
270.0000;0.2483;0.7247;
270.3000;0.2483;0.7247;
270.6000;0.2442;0.7101;
270.9000;0.2491;0.7198;
271.2000;0.2475;0.7077;
271.5000;0.2491;0.7247;
271.8000;0.2515;0.7223;
272.1000;0.2483;0.7198;
272.4000;0.2523;0.7247;
272.7000;0.2491;0.7077;
273.0000;0.2507;0.7077;
273.3000;0.2613;0.7344;
273.6000;0.2483;0.6980;
273.9000;0.2483;0.7029;
274.2000;0.2491;0.7029;
274.5000;0.2483;0.7029;
274.8000;0.2409;0.6835;
275.1000;0.2466;0.7005;
275.4000;0.2507;0.7126;
275.7000;0.2499;0.7150;
276.0000;0.2491;0.7247;
276.3000;0.2540;0.7368;
276.6000;0.2483;0.7174;
276.9000;0.2466;0.7101;
277.2000;0.2458;0.7150;
277.5000;0.2483;0.7174;
277.8000;0.2491;0.7150;
278.1000;0.2491;0.7174;
278.4000;0.2483;0.7150;
278.7000;0.2483;0.7101;
279.0000;0.2523;0.7198;
279.3000;0.2475;0.7101;
279.6000;0.2475;0.7198;
279.9000;0.2475;0.7174;
280.2000;0.2466;0.7223;
280.5000;0.2458;0.7295;
280.8000;0.2499;0.7320;
281.1000;0.2475;0.7223;
281.4000;0.2491;0.7223;
281.7000;0.2483;0.7198;
282.0000;0.2483;0.7101;
282.3000;0.2499;0.7198;
282.6000;0.2466;0.7101;
282.9000;0.2483;0.7053;
283.2000;0.2401;0.6835;
283.5000;0.2458;0.7053;
283.8000;0.2491;0.7198;
284.1000;0.2434;0.6932;
284.4000;0.2483;0.7005;
284.7000;0.2466;0.6908;
285.0000;0.2434;0.6762;
285.3000;0.2515;0.6883;
285.6000;0.2483;0.6835;
285.9000;0.2483;0.6811;
286.2000;0.2475;0.6762;
286.5000;0.2483;0.6811;
286.8000;0.2434;0.6641;
287.1000;0.2499;0.6859;
287.4000;0.2458;0.6811;
287.7000;0.2523;0.7005;
288.0000;0.2507;0.7005;
288.3000;0.2466;0.6956;
288.6000;0.2491;0.6980;
288.9000;0.2475;0.7029;
289.2000;0.2540;0.7126;
289.5000;0.2450;0.6883;
289.8000;0.2475;0.7005;
290.1000;0.2475;0.7126;
290.4000;0.2466;0.7150;
290.7000;0.2523;0.7392;
291.0000;0.2499;0.7271;
291.3000;0.2499;0.7247;
291.6000;0.2556;0.7392;
291.9000;0.2507;0.7247;
292.2000;0.2475;0.7150;
292.5000;0.2491;0.7174;
292.8000;0.2458;0.7029;
293.1000;0.2515;0.7247;
293.4000;0.2483;0.7101;
293.7000;0.2434;0.7005;
294.0000;0.2491;0.7174;
294.3000;0.2507;0.7247;
294.6000;0.2507;0.7150;
294.9000;0.2450;0.6956;
295.2000;0.2450;0.7150;
295.5000;0.2491;0.7174;
295.8000;0.2499;0.7174;
296.1000;0.2499;0.7174;
296.4000;0.2499;0.7247;
296.7000;0.2393;0.7005;
297.0000;0.2475;0.7271;
297.3000;0.2434;0.7150;
297.6000;0.2466;0.7247;
297.9000;0.2491;0.7320;
298.2000;0.2491;0.7223;
298.5000;0.2466;0.7101;
298.8000;0.2532;0.7223;
299.1000;0.2458;0.7150;
299.4000;0.2491;0.7247;
299.7000;0.2483;0.7223;
300.0000;0.2466;0.7223;
300.3000;0.2491;0.7247;
300.6000;0.2491;0.7247;
300.9000;0.2466;0.7223;
301.2000;0.2523;0.7271;
301.5000;0.2475;0.7101;
301.8000;0.2507;0.7150;
302.1000;0.2409;0.6883;
302.4000;0.2458;0.7005;
302.7000;0.2475;0.7053;
303.0000;0.2483;0.6956;
303.3000;0.2475;0.6956;
303.6000;0.2491;0.7029;
303.9000;0.2483;0.7005;
304.2000;0.2491;0.7005;
304.5000;0.2499;0.7029;
304.8000;0.2507;0.7077;
305.1000;0.2507;0.7174;
305.4000;0.2515;0.7320;
305.7000;0.2507;0.7223;
306.0000;0.2491;0.7150;
306.3000;0.2491;0.7223;
306.6000;0.2450;0.7101;
306.9000;0.2450;0.7101;
307.2000;0.2483;0.7198;
307.5000;0.2466;0.7223;
307.8000;0.2466;0.7247;
308.1000;0.2475;0.7174;
308.4000;0.2466;0.7174;
308.7000;0.2483;0.7223;
309.0000;0.2466;0.7247;
309.3000;0.2491;0.7368;
309.6000;0.2466;0.7320;
309.9000;0.2466;0.7247;
310.2000;0.2483;0.7247;
310.5000;0.2483;0.7150;
310.8000;0.2483;0.7077;
311.1000;0.2491;0.7101;
311.4000;0.2491;0.7077;
311.7000;0.2523;0.7150;
312.0000;0.2499;0.7126;
312.3000;0.2499;0.7150;
312.6000;0.2426;0.6956;
312.9000;0.2483;0.7101;
313.2000;0.2475;0.7174;
313.5000;0.2507;0.7271;
313.8000;0.2491;0.7271;
314.1000;0.2507;0.7247;
314.4000;0.2491;0.7126;
314.7000;0.2491;0.7126;
315.0000;0.2483;0.7174;
315.3000;0.2507;0.7150;
315.6000;0.2491;0.7198;
315.9000;0.2491;0.7126;
316.2000;0.2483;0.7077;
316.5000;0.2475;0.7053;
316.8000;0.2475;0.7005;
317.1000;0.2515;0.7150;
317.4000;0.2491;0.7053;
317.7000;0.2466;0.6908;
318.0000;0.2491;0.6956;
318.3000;0.2491;0.7005;
318.6000;0.2491;0.7077;
318.9000;0.2483;0.7077;
319.2000;0.2483;0.7174;
319.5000;0.2475;0.7150;
319.8000;0.2548;0.7320;
320.1000;0.2483;0.7198;
320.4000;0.2483;0.7198;
320.7000;0.2475;0.7077;
321.0000;0.2491;0.7126;
321.3000;0.2491;0.7053;
321.6000;0.2483;0.7005;
321.9000;0.2475;0.7077;
322.2000;0.2515;0.7126;
322.5000;0.2475;0.7174;
322.8000;0.2426;0.7029;
323.1000;0.2475;0.7077;
323.4000;0.2483;0.7077;
323.7000;0.2540;0.7271;
324.0000;0.2483;0.7174;
324.3000;0.2499;0.7126;
324.6000;0.2499;0.7101;
324.9000;0.2499;0.7101;
325.2000;0.2475;0.7029;
325.5000;0.2491;0.7101;
325.8000;0.2475;0.7053;
326.1000;0.2499;0.7150;
326.4000;0.2540;0.7223;
326.7000;0.2499;0.7053;
327.0000;0.2499;0.6956;
327.3000;0.2483;0.6980;
327.6000;0.2499;0.7053;
327.9000;0.2483;0.7053;
328.2000;0.2491;0.7053;
328.5000;0.2426;0.6859;
328.8000;0.2491;0.7005;
329.1000;0.2491;0.7053;
329.4000;0.2450;0.7005;
329.7000;0.2483;0.7053;
330.0000;0.2491;0.7126;
330.3000;0.2483;0.7101;
330.6000;0.2483;0.7005;
330.9000;0.2483;0.6980;
331.2000;0.2475;0.6932;
331.5000;0.2548;0.7101;
331.8000;0.2466;0.6932;
332.1000;0.2466;0.6908;
332.4000;0.2475;0.7005;
332.7000;0.2475;0.7029;
333.0000;0.2491;0.7126;
333.3000;0.2466;0.7101;
333.6000;0.2491;0.7174;
333.9000;0.2491;0.7223;
334.2000;0.2507;0.7271;
334.5000;0.2466;0.7101;
334.8000;0.2499;0.7223;
335.1000;0.2483;0.7223;
335.4000;0.2507;0.7174;
335.7000;0.2499;0.7101;
336.0000;0.2475;0.7126;
336.3000;0.2507;0.7198;
336.6000;0.2483;0.7150;
336.9000;0.2475;0.7150;
337.2000;0.2491;0.7223;
337.5000;0.2483;0.7150;
337.8000;0.2466;0.7077;
338.1000;0.2499;0.7126;
338.4000;0.2491;0.7150;
338.7000;0.2475;0.7126;
339.0000;0.2483;0.7053;
339.3000;0.2499;0.7198;
339.6000;0.2483;0.7126;
339.9000;0.2507;0.7223;
340.2000;0.2466;0.7150;
340.5000;0.2491;0.7198;
340.8000;0.2491;0.7247;
341.1000;0.2475;0.7271;
341.4000;0.2499;0.7344;
341.7000;0.2475;0.7295;
342.0000;0.2491;0.7344;
342.3000;0.2491;0.7247;
342.6000;0.2458;0.7126;
342.9000;0.2491;0.7198;
343.2000;0.2556;0.7489;
343.5000;0.2491;0.7271;
343.8000;0.2499;0.7295;
344.1000;0.2475;0.7198;
344.4000;0.2483;0.7320;
344.7000;0.2458;0.7344;
345.0000;0.2483;0.7368;
345.3000;0.2377;0.7005;
345.6000;0.2450;0.7174;
345.9000;0.2475;0.7271;
346.2000;0.2499;0.7368;
346.5000;0.2475;0.7295;
346.8000;0.2458;0.7174;
347.1000;0.2507;0.7368;
347.4000;0.2483;0.7368;
347.7000;0.2475;0.7368;
348.0000;0.2450;0.7320;
348.3000;0.2491;0.7368;
348.6000;0.2466;0.7271;
348.9000;0.2466;0.7174;
349.2000;0.2499;0.7198;
349.5000;0.2491;0.7247;
349.8000;0.2507;0.7344;
350.1000;0.2475;0.7198;
350.4000;0.2499;0.7223;
350.7000;0.2491;0.7126;
351.0000;0.2483;0.7126;
351.3000;0.2483;0.7223;
351.6000;0.2532;0.7344;
351.9000;0.2458;0.7126;
352.2000;0.2483;0.7198;
352.5000;0.2507;0.7295;
352.8000;0.2483;0.7271;
353.1000;0.2499;0.7198;
353.4000;0.2475;0.7223;
353.7000;0.2475;0.7150;
354.0000;0.2499;0.7150;
354.3000;0.2491;0.7174;
354.6000;0.2499;0.7247;
354.9000;0.2434;0.7077;
355.2000;0.2499;0.7247;
355.5000;0.2499;0.7150;
355.8000;0.2418;0.6980;
356.1000;0.2466;0.7126;
356.4000;0.2483;0.7126;
356.7000;0.2499;0.7271;
357.0000;0.2507;0.7223;
357.3000;0.2483;0.7198;
357.6000;0.2442;0.7053;
357.9000;0.2491;0.7198;
358.2000;0.2491;0.7126;
358.5000;0.2466;0.7077;
358.8000;0.2491;0.7223;
359.1000;0.2491;0.7247;
359.4000;0.2491;0.7223;
359.7000;0.2491;0.7174;
360.0000;0.2475;0.7150;
360.3000;0.2458;0.7077;
360.6000;0.2491;0.7101;
360.9000;0.2483;0.7150;
361.2000;0.2475;0.7174;
361.5000;0.2483;0.7247;
361.8000;0.2491;0.7320;
362.1000;0.2458;0.7344;
362.4000;0.2458;0.7344;
362.7000;0.2475;0.7417;
363.0000;0.2458;0.7320;
363.3000;0.2491;0.7417;
363.6000;0.2483;0.7441;
363.9000;0.2466;0.7368;
364.2000;0.2483;0.7344;
364.5000;0.2483;0.7295;
364.8000;0.2499;0.7247;
365.1000;0.2475;0.7150;
365.4000;0.2491;0.7150;
365.7000;0.2491;0.7126;
366.0000;0.2483;0.7223;
366.3000;0.2483;0.7126;
366.6000;0.2548;0.7271;
366.9000;0.2499;0.7077;
367.2000;0.2450;0.6956;
367.5000;0.2499;0.7077;
367.8000;0.2483;0.7101;
368.1000;0.2491;0.7198;
368.4000;0.2475;0.7077;
368.7000;0.2507;0.7126;
369.0000;0.2491;0.7174;
369.3000;0.2475;0.7174;
369.6000;0.2548;0.7295;
369.9000;0.2483;0.7150;
370.2000;0.2458;0.7053;
370.5000;0.2450;0.7005;
370.8000;0.2491;0.7077;
371.1000;0.2491;0.7029;
371.4000;0.2491;0.7005;
371.7000;0.2483;0.6980;
372.0000;0.2499;0.7126;
372.3000;0.2499;0.7077;
372.6000;0.2475;0.7053;
372.9000;0.2483;0.7053;
373.2000;0.2475;0.6980;
373.5000;0.2491;0.6956;
373.8000;0.2491;0.7053;
374.1000;0.2475;0.7005;
374.4000;0.2491;0.7174;
374.7000;0.2483;0.7053;
375.0000;0.2507;0.7077;
375.3000;0.2475;0.7005;
375.6000;0.2442;0.6859;
375.9000;0.2491;0.7005;
376.2000;0.2491;0.7101;
376.5000;0.2556;0.7150;
376.8000;0.2483;0.7005;
377.1000;0.2499;0.7101;
377.4000;0.2466;0.7101;
377.7000;0.2466;0.7029;
378.0000;0.2475;0.6980;
378.3000;0.2483;0.6956;
378.6000;0.2499;0.6908;
378.9000;0.2483;0.6908;
379.2000;0.2466;0.6811;
379.5000;0.2483;0.6835;
379.8000;0.2483;0.6859;
380.1000;0.2499;0.7029;
380.4000;0.2483;0.7005;
380.7000;0.2499;0.6980;
381.0000;0.2491;0.7101;
381.3000;0.2475;0.7126;
381.6000;0.2491;0.7150;
381.9000;0.2483;0.7174;
382.2000;0.2491;0.7150;
382.5000;0.2507;0.7247;
382.8000;0.2499;0.7005;
383.1000;0.2491;0.6980;
383.4000;0.2491;0.7029;
383.7000;0.2491;0.7005;
384.0000;0.2548;0.7126;
384.3000;0.2483;0.7077;
384.6000;0.2466;0.7053;
384.9000;0.2442;0.6932;
385.2000;0.2491;0.7150;
385.5000;0.2466;0.7077;
385.8000;0.2491;0.7126;
386.1000;0.2491;0.7053;
386.4000;0.2491;0.7029;
386.7000;0.2491;0.7005;
387.0000;0.2475;0.6932;
387.3000;0.2499;0.7005;
387.6000;0.2458;0.6908;
387.9000;0.2475;0.6956;
388.2000;0.2523;0.7053;
388.5000;0.2475;0.6908;
388.8000;0.2475;0.6980;
389.1000;0.2418;0.6762;
389.4000;0.2466;0.6859;
389.7000;0.2475;0.6932;
390.0000;0.2491;0.6908;
390.3000;0.2475;0.6883;
390.6000;0.2401;0.6665;
390.9000;0.2475;0.6908;
391.2000;0.2483;0.6908;
391.5000;0.2507;0.6980;
391.8000;0.2491;0.6932;
392.1000;0.2466;0.6859;
392.4000;0.2491;0.6932;
392.7000;0.2499;0.7005;
393.0000;0.2466;0.6908;
393.3000;0.2589;0.7150;
393.6000;0.2499;0.6932;
393.9000;0.2483;0.6883;
394.2000;0.2491;0.6908;
394.5000;0.2475;0.6835;
394.8000;0.2499;0.6932;
395.1000;0.2483;0.6908;
395.4000;0.2507;0.6883;
395.7000;0.2483;0.6786;
396.0000;0.2483;0.6811;
396.3000;0.2491;0.6883;
396.6000;0.2499;0.6956;
396.9000;0.2483;0.6908;
397.2000;0.2548;0.7101;
397.5000;0.2499;0.7053;
397.8000;0.2491;0.7005;
398.1000;0.2475;0.6980;
398.4000;0.2475;0.6980;
398.7000;0.2483;0.7005;
399.0000;0.2499;0.7005;
399.3000;0.2466;0.6956;
399.6000;0.2483;0.7029;
399.9000;0.2466;0.6980;
400.2000;0.2369;0.6714;
400.5000;0.2458;0.6811;
400.8000;0.2491;0.6883;
401.1000;0.2491;0.6932;
401.4000;0.2450;0.6762;
401.7000;0.2499;0.6883;
402.0000;0.2491;0.6835;
402.3000;0.2532;0.6980;
402.6000;0.2483;0.6932;
402.9000;0.2475;0.6980;
403.2000;0.2475;0.6956;
403.5000;0.2499;0.7029;
403.8000;0.2491;0.7101;
404.1000;0.2491;0.7101;
404.4000;0.2499;0.7077;
404.7000;0.2466;0.7053;
405.0000;0.2475;0.7150;
405.3000;0.2499;0.7174;
405.6000;0.2507;0.7198;
405.9000;0.2483;0.7053;
406.2000;0.2483;0.7029;
406.5000;0.2507;0.7029;
406.8000;0.2491;0.6980;
407.1000;0.2507;0.7053;
407.4000;0.2393;0.6738;
407.7000;0.2401;0.6835;
408.0000;0.2491;0.7101;
408.3000;0.2483;0.6956;
408.6000;0.2466;0.7005;
408.9000;0.2491;0.7150;
409.2000;0.2507;0.7247;
409.5000;0.2483;0.7198;
409.8000;0.2499;0.7053;
410.1000;0.2507;0.7029;
410.4000;0.2491;0.7077;
410.7000;0.2491;0.7150;
411.0000;0.2475;0.7101;
411.3000;0.2491;0.7126;
411.6000;0.2491;0.7126;
411.9000;0.2491;0.7077;
412.2000;0.2466;0.7029;
412.5000;0.2475;0.7174;
412.8000;0.2475;0.7174;
413.1000;0.2475;0.7126;
413.4000;0.2434;0.6908;
413.7000;0.2401;0.6835;
414.0000;0.2475;0.7029;
414.3000;0.2442;0.7029;
414.6000;0.2523;0.7247;
414.9000;0.2475;0.7126;
415.2000;0.2475;0.7053;
415.5000;0.2475;0.7053;
415.8000;0.2491;0.7198;
416.1000;0.2466;0.7101;
416.4000;0.2572;0.7417;
416.7000;0.2605;0.7465;
417.0000;0.2499;0.7247;
417.3000;0.2466;0.7150;
417.6000;0.2499;0.7271;
417.9000;0.2491;0.7271;
418.2000;0.2491;0.7247;
418.5000;0.2434;0.7053;
418.8000;0.2458;0.7223;
419.1000;0.2475;0.7223;
419.4000;0.2491;0.7271;
419.7000;0.2458;0.7247;
420.0000;0.2483;0.7320;
420.3000;0.2475;0.7344;
420.6000;0.2442;0.7295;
420.9000;0.2483;0.7344;
421.2000;0.2475;0.7320;
421.5000;0.2507;0.7320;
421.8000;0.2483;0.7198;
422.1000;0.2507;0.7174;
422.4000;0.2499;0.7223;
422.7000;0.2450;0.7101;
423.0000;0.2475;0.7198;
423.3000;0.2475;0.7247;
423.6000;0.2483;0.7271;
423.9000;0.2475;0.7101;
424.2000;0.2434;0.6859;
424.5000;0.2491;0.7005;
424.8000;0.2483;0.6956;
425.1000;0.2466;0.7005;
425.4000;0.2499;0.7053;
425.7000;0.2499;0.7101;
426.0000;0.2499;0.7053;
426.3000;0.2450;0.6980;
426.6000;0.2450;0.7053;
426.9000;0.2507;0.7198;
427.2000;0.2499;0.7198;
427.5000;0.2507;0.7174;
427.8000;0.2483;0.7126;
428.1000;0.2483;0.7150;
428.4000;0.2499;0.7247;
428.7000;0.2507;0.7271;
429.0000;0.2475;0.7150;
429.3000;0.2475;0.7101;
429.6000;0.2483;0.7126;
429.9000;0.2507;0.7126;
430.2000;0.2475;0.7150;
430.5000;0.2475;0.7101;
430.8000;0.2466;0.7150;
431.1000;0.2507;0.7223;
431.4000;0.2491;0.7247;
431.7000;0.2466;0.7126;
432.0000;0.2564;0.7271;
432.3000;0.2491;0.7174;
432.6000;0.2491;0.7198;
432.9000;0.2483;0.7126;
433.2000;0.2491;0.7126;
433.5000;0.2499;0.7174;
433.8000;0.2491;0.7077;
434.1000;0.2507;0.7223;
434.4000;0.2491;0.7223;
434.7000;0.2483;0.7247;
435.0000;0.2507;0.7295;
435.3000;0.2475;0.7247;
435.6000;0.2491;0.7223;
435.9000;0.2483;0.7174;
436.2000;0.2442;0.7077;
436.5000;0.2483;0.7126;
436.8000;0.2499;0.7126;
437.1000;0.2711;0.7683;
437.4000;0.2466;0.7029;
437.7000;0.2475;0.7077;
438.0000;0.2466;0.7053;
438.3000;0.2458;0.7101;
438.6000;0.2434;0.7053;
438.9000;0.2483;0.7174;
439.2000;0.2458;0.7029;
439.5000;0.2475;0.7053;
439.8000;0.2572;0.7344;
440.1000;0.2442;0.7053;
440.4000;0.2458;0.7101;
440.7000;0.2556;0.7417;
441.0000;0.2491;0.7223;
441.3000;0.2483;0.7150;
441.6000;0.2491;0.7126;
441.9000;0.2491;0.7174;
442.2000;0.2491;0.7198;
442.5000;0.2466;0.7150;
442.8000;0.2491;0.7150;
443.1000;0.2491;0.7150;
443.4000;0.2483;0.7174;
443.7000;0.2491;0.7077;
444.0000;0.2507;0.7174;
444.3000;0.2483;0.7150;
444.6000;0.2483;0.7223;
444.9000;0.2483;0.7198;
445.2000;0.2483;0.7126;
445.5000;0.2483;0.7174;
445.8000;0.2483;0.7198;
446.1000;0.2507;0.7271;
446.4000;0.2491;0.7271;
446.7000;0.2491;0.7247;
447.0000;0.2475;0.7150;
447.3000;0.2491;0.7174;
447.6000;0.2572;0.7344;
447.9000;0.2491;0.7101;
448.2000;0.2491;0.7077;
448.5000;0.2475;0.7005;
448.8000;0.2475;0.7053;
449.1000;0.2466;0.7029;
449.4000;0.2466;0.7077;
449.7000;0.2491;0.7101;
450.0000;0.2499;0.7101;
450.3000;0.2499;0.7174;
450.6000;0.2458;0.7174;
450.9000;0.2491;0.7223;
451.2000;0.2491;0.7126;
451.5000;0.2491;0.7174;
451.8000;0.2466;0.7174;
452.1000;0.2475;0.7077;
452.4000;0.2499;0.7077;
452.7000;0.2401;0.6835;
453.0000;0.2483;0.7101;
453.3000;0.2491;0.7150;
453.6000;0.2450;0.7053;
453.9000;0.2385;0.6883;
454.2000;0.2491;0.7223;
454.5000;0.2483;0.7198;
454.8000;0.2491;0.7198;
455.1000;0.2499;0.7223;
455.4000;0.2491;0.7174;
455.7000;0.2385;0.6714;
456.0000;0.2458;0.6859;
456.3000;0.2515;0.7053;
456.6000;0.2483;0.7029;
456.9000;0.2491;0.6980;
457.2000;0.2483;0.6980;
457.5000;0.2491;0.7077;
457.8000;0.2475;0.7029;
458.1000;0.2548;0.7247;
458.4000;0.2499;0.7101;
458.7000;0.2499;0.7101;
459.0000;0.2491;0.7053;
459.3000;0.2450;0.6980;
459.6000;0.2475;0.7150;
459.9000;0.2499;0.7150;
460.2000;0.2621;0.7562;
460.5000;0.2491;0.7174;
460.8000;0.2507;0.7126;
461.1000;0.2540;0.7271;
461.4000;0.2491;0.7223;
461.7000;0.2466;0.7198;
462.0000;0.2499;0.7344;
462.3000;0.2466;0.7247;
462.6000;0.2466;0.7150;
462.9000;0.2499;0.7174;
463.2000;0.2466;0.7101;
463.5000;0.2491;0.7150;
463.8000;0.2499;0.7174;
464.1000;0.2491;0.7198;
464.4000;0.2483;0.7223;
464.7000;0.2475;0.7247;
465.0000;0.2475;0.7223;
465.3000;0.2499;0.7223;
465.6000;0.2483;0.7223;
465.9000;0.2491;0.7247;
466.2000;0.2491;0.7198;
466.5000;0.2491;0.7126;
466.8000;0.2483;0.7126;
467.1000;0.2483;0.7150;
467.4000;0.2491;0.7198;
467.7000;0.2475;0.7174;
468.0000;0.2523;0.7271;
468.3000;0.2475;0.7150;
468.6000;0.2483;0.7150;
468.9000;0.2491;0.7174;
469.2000;0.2491;0.7295;
469.5000;0.2491;0.7223;
469.8000;0.2466;0.7174;
470.1000;0.2377;0.6859;
470.4000;0.2434;0.7029;
470.7000;0.2442;0.7101;
471.0000;0.2475;0.7174;
471.3000;0.2475;0.7198;
471.6000;0.2483;0.7150;
471.9000;0.2499;0.7126;
472.2000;0.2466;0.7150;
472.5000;0.2483;0.7295;
472.8000;0.2499;0.7320;
473.1000;0.2491;0.7320;
473.4000;0.2475;0.7344;
473.7000;0.2483;0.7368;
474.0000;0.2466;0.7344;
474.3000;0.2499;0.7417;
474.6000;0.2491;0.7295;
474.9000;0.2483;0.7150;
475.2000;0.2475;0.7150;
475.5000;0.2491;0.7247;
475.8000;0.2491;0.7295;
476.1000;0.2491;0.7368;
476.4000;0.2491;0.7344;
476.7000;0.2515;0.7368;
477.0000;0.2491;0.7392;
477.3000;0.2475;0.7417;
477.6000;0.2393;0.7101;
477.9000;0.2466;0.7295;
478.2000;0.2491;0.7344;
478.5000;0.2483;0.7271;
478.8000;0.2483;0.7247;
479.1000;0.2466;0.7223;
479.4000;0.2483;0.7223;
479.7000;0.2491;0.7271;
480.0000;0.2515;0.7295;
480.3000;0.2475;0.7198;
480.6000;0.2491;0.7295;
480.9000;0.2483;0.7271;
481.2000;0.2450;0.7223;
481.5000;0.2507;0.7417;
481.8000;0.2475;0.7271;
482.1000;0.2491;0.7392;
482.4000;0.2499;0.7295;
482.7000;0.2491;0.7174;
483.0000;0.2491;0.7150;
483.3000;0.2507;0.7223;
483.6000;0.2491;0.7198;
483.9000;0.2483;0.7126;
484.2000;0.2483;0.6980;
484.5000;0.2532;0.7029;
484.8000;0.2491;0.7029;
485.1000;0.2475;0.7053;
485.4000;0.2361;0.6762;
485.7000;0.2466;0.7126;
486.0000;0.2483;0.7150;
486.3000;0.2515;0.7271;
486.6000;0.2466;0.7198;
486.9000;0.2466;0.7247;
487.2000;0.2434;0.7198;
487.5000;0.2499;0.7295;
487.8000;0.2475;0.7247;
488.1000;0.2483;0.7295;
488.4000;0.2483;0.7271;
488.7000;0.2483;0.7271;
489.0000;0.2491;0.7198;
489.3000;0.2491;0.7174;
489.6000;0.2491;0.7198;
489.9000;0.2483;0.7150;
490.2000;0.2475;0.7053;
490.5000;0.2507;0.7223;
490.8000;0.2475;0.7198;
491.1000;0.2458;0.7101;
491.4000;0.2475;0.7101;
491.7000;0.2475;0.7077;
492.0000;0.2483;0.7029;
492.3000;0.2483;0.7077;
492.6000;0.2418;0.6980;
492.9000;0.2466;0.7174;
493.2000;0.2483;0.7150;
493.5000;0.2418;0.6956;
493.8000;0.2458;0.7077;
494.1000;0.2491;0.7174;
494.4000;0.2491;0.7198;
494.7000;0.2499;0.7247;
495.0000;0.2499;0.7247;
495.3000;0.2483;0.7150;
495.6000;0.2483;0.7077;
495.9000;0.2483;0.7053;
496.2000;0.2475;0.7077;
496.5000;0.2483;0.7005;
496.8000;0.2483;0.6956;
497.1000;0.2483;0.6932;
497.4000;0.2466;0.6859;
497.7000;0.2491;0.6883;
498.0000;0.2483;0.6980;
498.3000;0.2491;0.6980;
498.6000;0.2491;0.6980;
498.9000;0.2491;0.7005;
499.2000;0.2491;0.7029;
499.5000;0.2491;0.7077;
499.8000;0.2491;0.7029;
500.1000;0.2499;0.7053;
500.4000;0.2458;0.7077;
500.7000;0.2475;0.7077;
501.0000;0.2475;0.7101;
501.3000;0.2491;0.7174;
501.6000;0.2580;0.7441;
501.9000;0.2458;0.7077;
502.2000;0.2409;0.6883;
502.5000;0.2434;0.7005;
502.8000;0.2483;0.7126;
503.1000;0.2483;0.7053;
503.4000;0.2458;0.7005;
503.7000;0.2483;0.7101;
504.0000;0.2475;0.7077;
504.3000;0.2483;0.7101;
504.6000;0.2507;0.7174;
504.9000;0.2483;0.7174;
505.2000;0.2475;0.7223;
505.5000;0.2475;0.7150;
505.8000;0.2466;0.7126;
506.1000;0.2483;0.7174;
506.4000;0.2491;0.7223;
506.7000;0.2523;0.7320;
507.0000;0.2475;0.7223;
507.3000;0.2491;0.7223;
507.6000;0.2483;0.7101;
507.9000;0.2483;0.7101;
508.2000;0.2466;0.7053;
508.5000;0.2475;0.7053;
508.8000;0.2491;0.7053;
509.1000;0.2450;0.6980;
509.4000;0.2499;0.7053;
509.7000;0.2491;0.7005;
510.0000;0.2483;0.7053;
510.3000;0.2458;0.6908;
510.6000;0.2499;0.6980;
510.9000;0.2483;0.6932;
511.2000;0.2483;0.6956;
511.5000;0.2491;0.7029;
511.8000;0.2483;0.7053;
512.1000;0.2475;0.7077;
512.4000;0.2475;0.6956;
512.7000;0.2483;0.6980;
513.0000;0.2491;0.6956;
513.3000;0.2475;0.6980;
513.6000;0.2491;0.7053;
513.9000;0.2483;0.7077;
514.2000;0.2499;0.7077;
514.5000;0.2450;0.6859;
514.8000;0.2483;0.6956;
515.1000;0.2483;0.6956;
515.4000;0.2450;0.6932;
515.7000;0.2475;0.7053;
516.0000;0.2466;0.6908;
516.3000;0.2466;0.6980;
516.6000;0.2466;0.7029;
516.9000;0.2475;0.7053;
517.2000;0.2475;0.7150;
517.5000;0.2483;0.7101;
517.8000;0.2475;0.7077;
518.1000;0.2540;0.7150;
518.4000;0.2475;0.6932;
518.7000;0.2491;0.6932;
519.0000;0.2483;0.6980;
519.3000;0.2499;0.7053;
519.6000;0.2507;0.7077;
519.9000;0.2507;0.7174;
520.2000;0.2499;0.7295;
520.5000;0.2483;0.7320;
520.8000;0.2483;0.7295;
521.1000;0.2466;0.7271;
521.4000;0.2466;0.7223;
521.7000;0.2483;0.7247;
522.0000;0.2458;0.7223;
522.3000;0.2475;0.7150;
522.6000;0.2499;0.7247;
522.9000;0.2483;0.7271;
523.2000;0.2483;0.7320;
523.5000;0.2491;0.7295;
523.8000;0.2491;0.7271;
524.1000;0.2483;0.7247;
524.4000;0.2499;0.7223;
524.7000;0.2434;0.7101;
525.0000;0.2491;0.7271;
525.3000;0.2499;0.7295;
525.6000;0.2499;0.7223;
525.9000;0.2475;0.7101;
526.2000;0.2475;0.7101;
526.5000;0.2483;0.7101;
526.8000;0.2475;0.7150;
527.1000;0.2475;0.7174;
527.4000;0.2466;0.7126;
527.7000;0.2499;0.7150;
528.0000;0.2499;0.7198;
528.3000;0.2458;0.7053;
528.6000;0.2483;0.7077;
528.9000;0.2475;0.7101;
529.2000;0.2483;0.7174;
529.5000;0.2409;0.6980;
529.8000;0.2458;0.7223;
530.1000;0.2466;0.7198;
530.4000;0.2491;0.7223;
530.7000;0.2515;0.7295;
531.0000;0.2532;0.7198;
531.3000;0.2426;0.6908;
531.6000;0.2401;0.6883;
531.9000;0.2475;0.7101;
532.2000;0.2450;0.7005;
532.5000;0.2466;0.6980;
532.8000;0.2507;0.7077;
533.1000;0.2483;0.7053;
533.4000;0.2458;0.7029;
533.7000;0.2483;0.7101;
534.0000;0.2491;0.7077;
534.3000;0.2589;0.7514;
534.6000;0.2434;0.7005;
534.9000;0.2548;0.7271;
535.2000;0.2442;0.7005;
535.5000;0.2499;0.7150;
535.8000;0.2450;0.6980;
536.1000;0.2458;0.7005;
536.4000;0.2458;0.6932;
536.7000;0.2475;0.6980;
537.0000;0.2491;0.7005;
537.3000;0.2458;0.6980;
537.6000;0.2458;0.6980;
537.9000;0.2483;0.7198;
538.2000;0.2475;0.7198;
538.5000;0.2483;0.7247;
538.8000;0.2491;0.7295;
539.1000;0.2491;0.7271;
539.4000;0.2507;0.7271;
539.7000;0.2499;0.7247;
540.0000;0.2475;0.7198;
540.3000;0.2475;0.7077;
540.6000;0.2613;0.7417;
540.9000;0.2507;0.7101;
541.2000;0.2499;0.7029;
541.5000;0.2458;0.6932;
541.8000;0.2466;0.6932;
542.1000;0.2491;0.6980;
542.4000;0.2475;0.6883;
542.7000;0.2483;0.6956;
543.0000;0.2475;0.7005;
543.3000;0.2475;0.7029;
543.6000;0.2491;0.7077;
543.9000;0.2491;0.7126;
544.2000;0.2483;0.7126;
544.5000;0.2499;0.7223;
544.8000;0.2483;0.7247;
545.1000;0.2499;0.7247;
545.4000;0.2385;0.6908;
545.7000;0.2418;0.6980;
546.0000;0.2499;0.7150;
546.3000;0.2483;0.7150;
546.6000;0.2466;0.7077;
546.9000;0.2483;0.7101;
547.2000;0.2483;0.7126;
547.5000;0.2491;0.7053;
547.8000;0.2475;0.7101;
548.1000;0.2483;0.7077;
548.4000;0.2377;0.6689;
548.7000;0.2385;0.6665;
549.0000;0.2515;0.6932;
549.3000;0.2515;0.6956;
549.6000;0.2466;0.6835;
549.9000;0.2458;0.6859;
550.2000;0.2466;0.6859;
550.5000;0.2499;0.7029;
550.8000;0.2434;0.6908;
551.1000;0.2385;0.6738;
551.4000;0.2466;0.6956;
551.7000;0.2458;0.7053;
552.0000;0.2385;0.6956;
552.3000;0.2483;0.7223;
552.6000;0.2450;0.7247;
552.9000;0.2434;0.7150;
553.2000;0.2491;0.7295;
553.5000;0.2499;0.7223;
553.8000;0.2515;0.7223;
554.1000;0.2475;0.7150;
554.4000;0.2450;0.7077;
554.7000;0.2475;0.7198;
555.0000;0.2475;0.7126;
555.3000;0.2507;0.7247;
555.6000;0.2580;0.7465;
555.9000;0.2499;0.7247;
556.2000;0.2475;0.7150;
556.5000;0.2532;0.7368;
556.8000;0.2434;0.7077;
557.1000;0.2483;0.7101;
557.4000;0.2483;0.7029;
557.7000;0.2483;0.6956;
558.0000;0.2475;0.7029;
558.3000;0.2466;0.7077;
558.6000;0.2483;0.7101;
558.9000;0.2483;0.7077;
559.2000;0.2491;0.7053;
559.5000;0.2491;0.7029;
559.8000;0.2499;0.7077;
560.1000;0.2483;0.7005;
560.4000;0.2466;0.6908;
560.7000;0.2466;0.6932;
561.0000;0.2491;0.7126;
561.3000;0.2483;0.7150;
561.6000;0.2450;0.6932;
561.9000;0.2483;0.7101;
562.2000;0.2483;0.7029;
562.5000;0.2442;0.6956;
562.8000;0.2466;0.7150;
563.1000;0.2475;0.7223;
563.4000;0.2532;0.7271;
563.7000;0.2483;0.7077;
564.0000;0.2475;0.7053;
564.3000;0.2458;0.7029;
564.6000;0.2532;0.7295;
564.9000;0.2483;0.7174;
565.2000;0.2499;0.7223;
565.5000;0.2475;0.7150;
565.8000;0.2491;0.7223;
566.1000;0.2483;0.7126;
566.4000;0.2483;0.7174;
566.7000;0.2475;0.7198;
567.0000;0.2475;0.7198;
567.3000;0.2483;0.7126;
567.6000;0.2483;0.7126;
567.9000;0.2475;0.7077;
568.2000;0.2483;0.7101;
568.5000;0.2442;0.6908;
568.8000;0.2483;0.6980;
569.1000;0.2458;0.6835;
569.4000;0.2369;0.6617;
569.7000;0.2450;0.6883;
570.0000;0.2475;0.6932;
570.3000;0.2475;0.6956;
570.6000;0.2491;0.6980;
570.9000;0.2466;0.6932;
571.2000;0.2426;0.6883;
571.5000;0.2540;0.7150;
571.8000;0.2475;0.6956;
572.1000;0.2450;0.6980;
572.4000;0.2475;0.6883;
572.7000;0.2466;0.6883;
573.0000;0.2426;0.6786;
573.3000;0.2475;0.6932;
573.6000;0.2475;0.6956;
573.9000;0.2491;0.7029;
574.2000;0.2499;0.7077;
574.5000;0.2499;0.7101;
574.8000;0.2499;0.7053;
575.1000;0.2491;0.7005;
575.4000;0.2483;0.7029;
575.7000;0.2483;0.6980;
576.0000;0.2540;0.7295;
576.3000;0.2507;0.7198;
576.6000;0.2499;0.7077;
576.9000;0.2483;0.6980;
577.2000;0.2548;0.7126;
577.5000;0.2483;0.6932;
577.8000;0.2491;0.6956;
578.1000;0.2475;0.6883;
578.4000;0.2491;0.6956;
578.7000;0.2491;0.7029;
579.0000;0.2483;0.7029;
579.3000;0.2564;0.7150;
579.6000;0.2475;0.6932;
579.9000;0.2499;0.6883;
580.2000;0.2483;0.6859;
580.5000;0.2564;0.7005;
580.8000;0.2491;0.6859;
581.1000;0.2475;0.6883;
581.4000;0.2499;0.6883;
581.7000;0.2491;0.6908;
582.0000;0.2507;0.7029;
582.3000;0.2475;0.6980;
582.6000;0.2475;0.7029;
582.9000;0.2483;0.7029;
583.2000;0.2483;0.7053;
583.5000;0.2475;0.7077;
583.8000;0.2475;0.7101;
584.1000;0.2483;0.7150;
584.4000;0.2572;0.7441;
584.7000;0.2475;0.7247;
585.0000;0.2491;0.7198;
585.3000;0.2491;0.7174;
585.6000;0.2523;0.7247;
585.9000;0.2475;0.7126;
586.2000;0.2491;0.7029;
586.5000;0.2483;0.6980;
586.8000;0.2491;0.7029;
587.1000;0.2475;0.6932;
587.4000;0.2491;0.6908;
587.7000;0.2475;0.6859;
588.0000;0.2483;0.6859;
588.3000;0.2491;0.6908;
588.6000;0.2483;0.6908;
588.9000;0.2491;0.6956;
589.2000;0.2483;0.6908;
589.5000;0.2491;0.7029;
589.8000;0.2483;0.7101;
590.1000;0.2466;0.7077;
590.4000;0.2466;0.7005;
590.7000;0.2491;0.7101;
591.0000;0.2499;0.7174;
591.3000;0.2491;0.7126;
591.6000;0.2515;0.7174;
591.9000;0.2491;0.7029;
592.2000;0.2466;0.6980;
592.5000;0.2491;0.6956;
592.8000;0.2507;0.7053;
593.1000;0.2491;0.7053;
593.4000;0.2499;0.7101;
593.7000;0.2475;0.7077;
594.0000;0.2475;0.7077;
594.3000;0.2475;0.7029;
594.6000;0.2475;0.7077;
594.9000;0.2466;0.7053;
595.2000;0.2491;0.7174;
595.5000;0.2483;0.7101;
595.8000;0.2491;0.7101;
596.1000;0.2466;0.7101;
596.4000;0.2483;0.7150;
596.7000;0.2564;0.7271;
597.0000;0.2491;0.7101;
597.3000;0.2466;0.7053;
597.6000;0.2458;0.7126;
597.9000;0.2458;0.7126;
598.2000;0.2483;0.7174;
598.5000;0.2491;0.7126;
598.8000;0.2466;0.7077;
599.1000;0.2475;0.7101;
599.4000;0.2483;0.7077;
599.7000;0.2466;0.7101;
600.0000;0.2450;0.7053;
600.3000;0.2466;0.7029;
600.6000;0.2458;0.6956;
600.9000;0.2434;0.6786;
601.2000;0.2475;0.6568;
601.5000;0.2450;0.6277;
601.8000;0.2458;0.6156;
602.1000;0.2458;0.5987;
602.4000;0.2450;0.5938;
602.7000;0.2426;0.5817;
603.0000;0.2458;0.5817;
603.3000;0.2532;0.5890;
603.6000;0.2418;0.5429;
603.9000;0.2409;0.5405;
604.2000;0.2369;0.5211;
604.5000;0.2418;0.5211;
604.8000;0.2418;0.5114;
605.1000;0.2409;0.5041;
605.4000;0.2401;0.5041;
605.7000;0.2401;0.5017;
606.0000;0.2426;0.5090;
606.3000;0.2320;0.4750;
606.6000;0.2393;0.4920;
606.9000;0.2385;0.4823;
607.2000;0.2409;0.4799;
607.5000;0.2361;0.4654;
607.8000;0.2393;0.4726;
608.1000;0.2393;0.4702;
608.4000;0.2442;0.4654;
608.7000;0.2393;0.4605;
609.0000;0.2401;0.4581;
609.3000;0.2385;0.4532;
609.6000;0.2344;0.4387;
609.9000;0.2385;0.4484;
610.2000;0.2393;0.4581;
610.5000;0.2434;0.4629;
610.8000;0.2385;0.4557;
611.1000;0.2409;0.4605;
611.4000;0.2377;0.4581;
611.7000;0.2377;0.4605;
612.0000;0.2377;0.4605;
612.3000;0.2401;0.4678;
612.6000;0.2352;0.4581;
612.9000;0.2361;0.4605;
613.2000;0.2361;0.4532;
613.5000;0.2385;0.4605;
613.8000;0.2377;0.4581;
614.1000;0.2450;0.4750;
614.4000;0.2385;0.4532;
614.7000;0.2320;0.4266;
615.0000;0.2393;0.4387;
615.3000;0.2344;0.4266;
615.6000;0.2393;0.4411;
615.9000;0.2385;0.4363;
616.2000;0.2385;0.4411;
616.5000;0.2361;0.4387;
616.8000;0.2393;0.4484;
617.1000;0.2385;0.4484;
617.4000;0.2385;0.4460;
617.7000;0.2393;0.4484;
618.0000;0.2418;0.4508;
618.3000;0.2385;0.4387;
618.6000;0.2385;0.4363;
618.9000;0.2377;0.4314;
619.2000;0.2393;0.4387;
619.5000;0.2434;0.4557;
619.8000;0.2385;0.4387;
620.1000;0.2393;0.4387;
620.4000;0.2393;0.4387;
620.7000;0.2377;0.4363;
621.0000;0.2385;0.4411;
621.3000;0.2393;0.4508;
621.6000;0.2401;0.4557;
621.9000;0.2385;0.4557;
622.2000;0.2442;0.4750;
622.5000;0.2385;0.4484;
622.8000;0.2401;0.4557;
623.1000;0.2385;0.4508;
623.4000;0.2418;0.4557;
623.7000;0.2377;0.4508;
624.0000;0.2385;0.4508;
624.3000;0.2483;0.4605;
624.6000;0.2344;0.4193;
624.9000;0.2377;0.4314;
625.2000;0.2393;0.4338;
625.5000;0.2328;0.4145;
625.8000;0.2401;0.4217;
626.1000;0.2344;0.4072;
626.4000;0.2409;0.4266;
626.7000;0.2255;0.3926;
627.0000;0.2385;0.4193;
627.3000;0.2434;0.4290;
627.6000;0.2491;0.4411;
627.9000;0.2385;0.4169;
628.2000;0.2377;0.4193;
628.5000;0.2361;0.4193;
628.8000;0.2401;0.4242;
629.1000;0.2393;0.4193;
629.4000;0.2369;0.4145;
629.7000;0.2377;0.4217;
630.0000;0.2361;0.4242;
630.3000;0.2401;0.4363;
630.6000;0.2361;0.4290;
630.9000;0.2442;0.4581;
631.2000;0.2369;0.4363;
631.5000;0.2418;0.4508;
631.8000;0.2369;0.4411;
632.1000;0.2377;0.4363;
632.4000;0.2385;0.4435;
632.7000;0.2369;0.4314;
633.0000;0.2393;0.4411;
633.3000;0.2369;0.4338;
633.6000;0.2361;0.4290;
633.9000;0.2385;0.4242;
634.2000;0.2409;0.4217;
634.5000;0.2385;0.4193;
634.8000;0.2377;0.4314;
635.1000;0.2401;0.4411;
635.4000;0.2401;0.4435;
635.7000;0.2361;0.4338;
636.0000;0.2393;0.4290;
636.3000;0.2369;0.4242;
636.6000;0.2385;0.4169;
636.9000;0.2450;0.4338;
637.2000;0.2385;0.4217;
637.5000;0.2409;0.4217;
637.8000;0.2393;0.4217;
638.1000;0.2393;0.4266;
638.4000;0.2409;0.4338;
638.7000;0.2377;0.4363;
639.0000;0.2385;0.4411;
639.3000;0.2377;0.4387;
639.6000;0.2377;0.4338;
639.9000;0.2385;0.4314;
640.2000;0.2377;0.4338;
640.5000;0.2385;0.4338;
640.8000;0.2393;0.4387;
641.1000;0.2377;0.4314;
641.4000;0.2401;0.4363;
641.7000;0.2377;0.4266;
642.0000;0.2377;0.4193;
642.3000;0.2369;0.4120;
642.6000;0.2393;0.4266;
642.9000;0.2426;0.4338;
643.2000;0.2393;0.4290;
643.5000;0.2393;0.4266;
643.8000;0.2369;0.4242;
644.1000;0.2426;0.4435;
644.4000;0.2401;0.4314;
644.7000;0.2385;0.4242;
645.0000;0.2393;0.4290;
645.3000;0.2393;0.4290;
645.6000;0.2393;0.4314;
645.9000;0.2361;0.4169;
646.2000;0.2369;0.4145;
646.5000;0.2377;0.4145;
646.8000;0.2361;0.4145;
647.1000;0.2426;0.4314;
647.4000;0.2361;0.4145;
647.7000;0.2352;0.4217;
648.0000;0.2409;0.4387;
648.3000;0.2418;0.4460;
648.6000;0.2401;0.4460;
648.9000;0.2344;0.4338;
649.2000;0.2320;0.4217;
649.5000;0.2393;0.4266;
649.8000;0.2409;0.4338;
650.1000;0.2352;0.4217;
650.4000;0.2369;0.4217;
650.7000;0.2336;0.4169;
651.0000;0.2369;0.4217;
651.3000;0.2450;0.4508;
651.6000;0.2361;0.4435;
651.9000;0.2385;0.4484;
652.2000;0.2377;0.4508;
652.5000;0.2385;0.4581;
652.8000;0.2393;0.4605;
653.1000;0.2409;0.4605;
653.4000;0.2385;0.4629;
653.7000;0.2418;0.4702;
654.0000;0.2393;0.4605;
654.3000;0.2377;0.4605;
654.6000;0.2401;0.4702;
654.9000;0.2385;0.4557;
655.2000;0.2377;0.4532;
655.5000;0.2409;0.4557;
655.8000;0.2377;0.4532;
656.1000;0.2377;0.4629;
656.4000;0.2377;0.4629;
656.7000;0.2377;0.4581;
657.0000;0.2369;0.4532;
657.3000;0.2369;0.4508;
657.6000;0.2385;0.4557;
657.9000;0.2369;0.4484;
658.2000;0.2393;0.4484;
658.5000;0.2401;0.4314;
658.8000;0.2369;0.4290;
659.1000;0.2369;0.4314;
659.4000;0.2377;0.4387;
659.7000;0.2393;0.4484;
660.0000;0.2369;0.4363;
660.3000;0.2434;0.4435;
660.6000;0.2385;0.4242;
660.9000;0.2385;0.4290;
661.2000;0.2401;0.4387;
661.5000;0.2361;0.4411;
661.8000;0.2361;0.4411;
662.1000;0.2385;0.4387;
662.4000;0.2377;0.4411;
662.7000;0.2393;0.4411;
663.0000;0.2377;0.4314;
663.3000;0.2377;0.4169;
663.6000;0.2409;0.4290;
663.9000;0.2385;0.4242;
664.2000;0.2385;0.4217;
664.5000;0.2385;0.4266;
664.8000;0.2393;0.4217;
665.1000;0.2377;0.4217;
665.4000;0.2393;0.4193;
665.7000;0.2271;0.3902;
666.0000;0.2377;0.4242;
666.3000;0.2377;0.4290;
666.6000;0.2393;0.4363;
666.9000;0.2377;0.4314;
667.2000;0.2418;0.4363;
667.5000;0.2385;0.4266;
667.8000;0.2369;0.4266;
668.1000;0.2369;0.4266;
668.4000;0.2401;0.4266;
668.7000;0.2352;0.4193;
669.0000;0.2409;0.4314;
669.3000;0.2361;0.4193;
669.6000;0.2426;0.4314;
669.9000;0.2385;0.4217;
670.2000;0.2361;0.4169;
670.5000;0.2377;0.4242;
670.8000;0.2361;0.4193;
671.1000;0.2312;0.4096;
671.4000;0.2369;0.4266;
671.7000;0.2361;0.4338;
672.0000;0.2377;0.4484;
672.3000;0.2442;0.4678;
672.6000;0.2385;0.4508;
672.9000;0.2385;0.4532;
673.2000;0.2393;0.4532;
673.5000;0.2385;0.4460;
673.8000;0.2393;0.4532;
674.1000;0.2393;0.4581;
674.4000;0.2377;0.4484;
674.7000;0.2393;0.4508;
675.0000;0.2450;0.4654;
675.3000;0.2401;0.4435;
675.6000;0.2369;0.4338;
675.9000;0.2385;0.4387;
676.2000;0.2393;0.4363;
676.5000;0.2377;0.4217;
676.8000;0.2377;0.4217;
677.1000;0.2385;0.4145;
677.4000;0.2409;0.4242;
677.7000;0.2401;0.4145;
678.0000;0.2361;0.4145;
678.3000;0.2377;0.4217;
678.6000;0.2409;0.4363;
678.9000;0.2401;0.4387;
679.2000;0.2377;0.4290;
679.5000;0.2385;0.4217;
679.8000;0.2385;0.4217;
680.1000;0.2377;0.4193;
680.4000;0.2385;0.4193;
680.7000;0.2401;0.4314;
681.0000;0.2385;0.4314;
681.3000;0.2385;0.4387;
681.6000;0.2377;0.4387;
681.9000;0.2385;0.4411;
682.2000;0.2361;0.4314;
682.5000;0.2393;0.4387;
682.8000;0.2377;0.4338;
683.1000;0.2401;0.4460;
683.4000;0.2336;0.4387;
683.7000;0.2352;0.4435;
684.0000;0.2385;0.4435;
684.3000;0.2409;0.4387;
684.6000;0.2442;0.4557;
684.9000;0.2369;0.4411;
685.2000;0.2385;0.4363;
685.5000;0.2418;0.4411;
685.8000;0.2369;0.4290;
686.1000;0.2377;0.4242;
686.4000;0.2377;0.4217;
686.7000;0.2328;0.4048;
687.0000;0.2361;0.4193;
687.3000;0.2393;0.4290;
687.6000;0.2361;0.4290;
687.9000;0.2361;0.4266;
688.2000;0.2377;0.4242;
688.5000;0.2409;0.4217;
688.8000;0.2401;0.4145;
689.1000;0.2409;0.4096;
689.4000;0.2385;0.4120;
689.7000;0.2442;0.4242;
690.0000;0.2385;0.4120;
690.3000;0.2393;0.4145;
690.6000;0.2393;0.4145;
690.9000;0.2385;0.4169;
691.2000;0.2361;0.4193;
691.5000;0.2393;0.4242;
691.8000;0.2369;0.4193;
692.1000;0.2409;0.4290;
692.4000;0.2409;0.4314;
692.7000;0.2401;0.4363;
693.0000;0.2393;0.4435;
693.3000;0.2393;0.4314;
693.6000;0.2369;0.4217;
693.9000;0.2401;0.4387;
694.2000;0.2377;0.4290;
694.5000;0.2377;0.4242;
694.8000;0.2385;0.4290;
695.1000;0.2385;0.4363;
695.4000;0.2312;0.4072;
695.7000;0.2385;0.4193;
696.0000;0.2369;0.4145;
696.3000;0.2491;0.4460;
696.6000;0.2393;0.4242;
696.9000;0.2385;0.4266;
697.2000;0.2377;0.4242;
697.5000;0.2401;0.4363;
697.8000;0.2393;0.4338;
698.1000;0.2401;0.4242;
698.4000;0.2377;0.4217;
698.7000;0.2409;0.4193;
699.0000;0.2401;0.4217;
699.3000;0.2385;0.4145;
699.6000;0.2418;0.4169;
699.9000;0.2393;0.4145;
700.2000;0.2393;0.4145;
700.5000;0.2426;0.4266;
700.8000;0.2377;0.4120;
701.1000;0.2393;0.4120;
701.4000;0.2434;0.4314;
701.7000;0.2369;0.4145;
702.0000;0.2369;0.4120;
702.3000;0.2369;0.4096;
702.6000;0.2385;0.4096;
702.9000;0.2377;0.4145;
703.2000;0.2385;0.4217;
703.5000;0.2361;0.4169;
703.8000;0.2385;0.4314;
704.1000;0.2377;0.4266;
704.4000;0.2393;0.4145;
704.7000;0.2377;0.4145;
705.0000;0.2393;0.4242;
705.3000;0.2377;0.4266;
705.6000;0.2393;0.4266;
705.9000;0.2409;0.4314;
706.2000;0.2393;0.4266;
706.5000;0.2409;0.4217;
706.8000;0.2393;0.4169;
707.1000;0.2393;0.4145;
707.4000;0.2393;0.4193;
707.7000;0.2377;0.4290;
708.0000;0.2393;0.4314;
708.3000;0.2369;0.4314;
708.6000;0.2385;0.4266;
708.9000;0.2377;0.4314;
709.2000;0.2377;0.4314;
709.5000;0.2409;0.4411;
709.8000;0.2385;0.4338;
710.1000;0.2409;0.4338;
710.4000;0.2377;0.4242;
710.7000;0.2393;0.4242;
711.0000;0.2377;0.4145;
711.3000;0.2344;0.3975;
711.6000;0.2385;0.4048;
711.9000;0.2377;0.4072;
712.2000;0.2401;0.4072;
712.5000;0.2385;0.4023;
712.8000;0.2385;0.4120;
713.1000;0.2393;0.4193;
713.4000;0.2385;0.4096;
713.7000;0.2393;0.4096;
714.0000;0.2385;0.4120;
714.3000;0.2540;0.4484;
714.6000;0.2393;0.4169;
714.9000;0.2393;0.4290;
715.2000;0.2393;0.4338;
715.5000;0.2393;0.4290;
715.8000;0.2393;0.4314;
716.1000;0.2377;0.4217;
716.4000;0.2385;0.4242;
716.7000;0.2385;0.4169;
717.0000;0.2361;0.4120;
717.3000;0.2361;0.4096;
717.6000;0.2385;0.4145;
717.9000;0.2369;0.4145;
718.2000;0.2385;0.4217;
718.5000;0.2377;0.4120;
718.8000;0.2466;0.4508;
719.1000;0.2385;0.4242;
719.4000;0.2385;0.4338;
719.7000;0.2385;0.4242;
720.0000;0.2369;0.4145;
720.3000;0.2393;0.4145;
720.6000;0.2377;0.4169;
720.9000;0.2385;0.4193;
721.2000;0.2409;0.4217;
721.5000;0.2369;0.4169;
721.8000;0.2377;0.4145;
722.1000;0.2352;0.4169;
722.4000;0.2312;0.4096;
722.7000;0.2377;0.4242;
723.0000;0.2369;0.4169;
723.3000;0.2377;0.4145;
723.6000;0.2369;0.4145;
723.9000;0.2369;0.4072;
724.2000;0.2361;0.4145;
724.5000;0.2393;0.4217;
724.8000;0.2393;0.4169;
725.1000;0.2409;0.4217;
725.4000;0.2361;0.4120;
725.7000;0.2344;0.4169;
726.0000;0.2361;0.4169;
726.3000;0.2409;0.4242;
726.6000;0.2393;0.4217;
726.9000;0.2393;0.4266;
727.2000;0.2393;0.4266;
727.5000;0.2434;0.4266;
727.8000;0.2385;0.4145;
728.1000;0.2393;0.4193;
728.4000;0.2385;0.4169;
728.7000;0.2466;0.4435;
729.0000;0.2393;0.4193;
729.3000;0.2393;0.4193;
729.6000;0.2401;0.4242;
729.9000;0.2393;0.4363;
730.2000;0.2385;0.4363;
730.5000;0.2336;0.4266;
730.8000;0.2409;0.4435;
731.1000;0.2385;0.4290;
731.4000;0.2377;0.4266;
731.7000;0.2385;0.4217;
732.0000;0.2377;0.4266;
732.3000;0.2377;0.4169;
732.6000;0.2295;0.3951;
732.9000;0.2377;0.4048;
733.2000;0.2393;0.4023;
733.5000;0.2377;0.4096;
733.8000;0.2401;0.4145;
734.1000;0.2385;0.4145;
734.4000;0.2393;0.4193;
734.7000;0.2409;0.4266;
735.0000;0.2385;0.4266;
735.3000;0.2377;0.4193;
735.6000;0.2401;0.4266;
735.9000;0.2401;0.4266;
736.2000;0.2393;0.4314;
736.5000;0.2393;0.4363;
736.8000;0.2393;0.4338;
737.1000;0.2385;0.4338;
737.4000;0.2393;0.4314;
737.7000;0.2377;0.4217;
738.0000;0.2385;0.4290;
738.3000;0.2393;0.4242;
738.6000;0.2401;0.4145;
738.9000;0.2393;0.4242;
739.2000;0.2426;0.4411;
739.5000;0.2393;0.4314;
739.8000;0.2442;0.4411;
740.1000;0.2377;0.4290;
740.4000;0.2369;0.4217;
740.7000;0.2458;0.4532;
741.0000;0.2393;0.4411;
741.3000;0.2507;0.4678;
741.6000;0.2320;0.4023;
741.9000;0.2361;0.4242;
742.2000;0.2393;0.4242;
742.5000;0.2385;0.4242;
742.8000;0.2369;0.4217;
743.1000;0.2352;0.4290;
743.4000;0.2409;0.4435;
743.7000;0.2442;0.4484;
744.0000;0.2328;0.4169;
744.3000;0.2320;0.4096;
744.6000;0.2369;0.4193;
744.9000;0.2344;0.4145;
745.2000;0.2409;0.4217;
745.5000;0.2377;0.4120;
745.8000;0.2393;0.4096;
746.1000;0.2369;0.3975;
746.4000;0.2442;0.4169;
746.7000;0.2434;0.4193;
747.0000;0.2385;0.4145;
747.3000;0.2377;0.4242;
747.6000;0.2369;0.4169;
747.9000;0.2352;0.3999;
748.2000;0.2377;0.3951;
748.5000;0.2369;0.3926;
748.8000;0.2385;0.4048;
749.1000;0.2418;0.4096;
749.4000;0.2385;0.4023;
749.7000;0.2385;0.4048;
750.0000;0.2377;0.4048;
750.3000;0.2377;0.4120;
750.6000;0.2336;0.4023;
750.9000;0.2385;0.4048;
751.2000;0.2393;0.4072;
751.5000;0.2393;0.4048;
751.8000;0.2385;0.4072;
752.1000;0.2352;0.4023;
752.4000;0.2377;0.4242;
752.7000;0.2361;0.4217;
753.0000;0.2393;0.4266;
753.3000;0.2377;0.4290;
753.6000;0.2401;0.4290;
753.9000;0.2409;0.4242;
754.2000;0.2401;0.4290;
754.5000;0.2393;0.4338;
754.8000;0.2385;0.4435;
755.1000;0.2393;0.4411;
755.4000;0.2409;0.4387;
755.7000;0.2377;0.4387;
756.0000;0.2401;0.4387;
756.3000;0.2361;0.4242;
756.6000;0.2442;0.4435;
756.9000;0.2393;0.4290;
757.2000;0.2409;0.4363;
757.5000;0.2377;0.4266;
757.8000;0.2418;0.4314;
758.1000;0.2385;0.4290;
758.4000;0.2344;0.4314;
758.7000;0.2361;0.4363;
759.0000;0.2409;0.4387;
759.3000;0.2344;0.4169;
759.6000;0.2418;0.4314;
759.9000;0.2385;0.4217;
760.2000;0.2385;0.4242;
760.5000;0.2401;0.4242;
760.8000;0.2393;0.4145;
761.1000;0.2377;0.4193;
761.4000;0.2393;0.4169;
761.7000;0.2385;0.4145;
762.0000;0.2418;0.4242;
762.3000;0.2385;0.4072;
762.6000;0.2409;0.4120;
762.9000;0.2409;0.4193;
763.2000;0.2401;0.4096;
763.5000;0.2352;0.3975;
763.8000;0.2426;0.4096;
764.1000;0.2475;0.4242;
764.4000;0.2523;0.4435;
764.7000;0.2426;0.4169;
765.0000;0.2409;0.4120;
765.3000;0.2352;0.4096;
765.6000;0.2442;0.4363;
765.9000;0.2393;0.4242;
766.2000;0.2361;0.4145;
766.5000;0.2515;0.4484;
766.8000;0.2377;0.4096;
767.1000;0.2442;0.4266;
767.4000;0.2385;0.4048;
767.7000;0.2385;0.4096;
768.0000;0.2393;0.4217;
768.3000;0.2401;0.4193;
768.6000;0.2393;0.4169;
768.9000;0.2418;0.4314;
769.2000;0.2393;0.4290;
769.5000;0.2409;0.4266;
769.8000;0.2393;0.4314;
770.1000;0.2377;0.4290;
770.4000;0.2393;0.4387;
770.7000;0.2377;0.4290;
771.0000;0.2401;0.4193;
771.3000;0.2385;0.4072;
771.6000;0.2385;0.4072;
771.9000;0.2361;0.3975;
772.2000;0.2401;0.4169;
772.5000;0.2393;0.3999;
772.8000;0.2393;0.4072;
773.1000;0.2393;0.4048;
773.4000;0.2409;0.4096;
773.7000;0.2385;0.4120;
774.0000;0.2458;0.4411;
774.3000;0.2393;0.4217;
774.6000;0.2393;0.4266;
774.9000;0.2385;0.4169;
775.2000;0.2385;0.4120;
775.5000;0.2401;0.4217;
775.8000;0.2393;0.4193;
776.1000;0.2426;0.4242;
776.4000;0.2401;0.4242;
776.7000;0.2393;0.4314;
777.0000;0.2377;0.4290;
777.3000;0.2401;0.4290;
777.6000;0.2401;0.4314;
777.9000;0.2483;0.4532;
778.2000;0.2385;0.4338;
778.5000;0.2336;0.4242;
778.8000;0.2393;0.4460;
779.1000;0.2385;0.4387;
779.4000;0.2393;0.4290;
779.7000;0.2377;0.4217;
780.0000;0.2385;0.4290;
780.3000;0.2483;0.4484;
780.6000;0.2385;0.4242;
780.9000;0.2393;0.4266;
781.2000;0.2361;0.4169;
781.5000;0.2393;0.4242;
781.8000;0.2385;0.4169;
782.1000;0.2369;0.4169;
782.4000;0.2515;0.4605;
782.7000;0.2393;0.4266;
783.0000;0.2385;0.4169;
783.3000;0.2450;0.4363;
783.6000;0.2393;0.4242;
783.9000;0.2401;0.4217;
784.2000;0.2393;0.4193;
784.5000;0.2401;0.4314;
784.8000;0.2385;0.4363;
785.1000;0.2442;0.4557;
785.4000;0.2393;0.4338;
785.7000;0.2369;0.4242;
786.0000;0.2393;0.4290;
786.3000;0.2491;0.4387;
786.6000;0.2401;0.4169;
786.9000;0.2385;0.4120;
787.2000;0.2418;0.4217;
787.5000;0.2385;0.4169;
787.8000;0.2271;0.3878;
788.1000;0.2385;0.4072;
788.4000;0.2344;0.3926;
788.7000;0.2385;0.3975;
789.0000;0.2385;0.3926;
789.3000;0.2418;0.3951;
789.6000;0.2393;0.3902;
789.9000;0.2320;0.3660;
790.2000;0.2393;0.3878;
790.5000;0.2377;0.3829;
790.8000;0.2393;0.3878;
791.1000;0.2401;0.3975;
791.4000;0.2393;0.3926;
791.7000;0.2377;0.3926;
792.0000;0.2393;0.4048;
792.3000;0.2409;0.4096;
792.6000;0.2401;0.3999;
792.9000;0.2393;0.3975;
793.2000;0.2401;0.3951;
793.5000;0.2401;0.3926;
793.8000;0.2401;0.3829;
794.1000;0.2369;0.3829;
794.4000;0.2385;0.3878;
794.7000;0.2401;0.3975;
795.0000;0.2385;0.3975;
795.3000;0.2377;0.4072;
795.6000;0.2385;0.4120;
795.9000;0.2385;0.4120;
796.2000;0.2434;0.4242;
796.5000;0.2377;0.4169;
796.8000;0.2385;0.4193;
797.1000;0.2393;0.4193;
797.4000;0.2409;0.4193;
797.7000;0.2385;0.4072;
798.0000;0.2361;0.4096;
798.3000;0.2401;0.4217;
798.6000;0.2369;0.4169;
798.9000;0.2401;0.4266;
799.2000;0.2393;0.4217;
799.5000;0.2385;0.4169;
799.8000;0.2369;0.4120;
800.1000;0.2401;0.4314;
800.4000;0.2393;0.4290;
800.7000;0.2393;0.4217;
801.0000;0.2385;0.4217;
801.3000;0.2401;0.4266;
801.6000;0.2401;0.4193;
801.9000;0.2385;0.4217;
802.2000;0.2409;0.4193;
802.5000;0.2393;0.4169;
802.8000;0.2385;0.4145;
803.1000;0.2401;0.4169;
803.4000;0.2369;0.3999;
803.7000;0.2401;0.4023;
804.0000;0.2393;0.4096;
804.3000;0.2312;0.3805;
804.6000;0.2369;0.3902;
804.9000;0.2409;0.3951;
805.2000;0.2499;0.4120;
805.5000;0.2401;0.3829;
805.8000;0.2393;0.3805;
806.1000;0.2393;0.3854;
806.4000;0.2418;0.3999;
806.7000;0.2401;0.3926;
807.0000;0.2409;0.3902;
807.3000;0.2458;0.4048;
807.6000;0.2393;0.3878;
807.9000;0.2401;0.3926;
808.2000;0.2377;0.3951;
808.5000;0.2393;0.3999;
808.8000;0.2393;0.3999;
809.1000;0.2401;0.4048;
809.4000;0.2377;0.3975;
809.7000;0.2377;0.4048;
810.0000;0.2393;0.4169;
810.3000;0.2393;0.4120;
810.6000;0.2385;0.3999;
810.9000;0.2377;0.3999;
811.2000;0.2393;0.4072;
811.5000;0.2393;0.4145;
811.8000;0.2393;0.4169;
812.1000;0.2401;0.4217;
812.4000;0.2377;0.4242;
812.7000;0.2385;0.4193;
813.0000;0.2401;0.4266;
813.3000;0.2385;0.4145;
813.6000;0.2409;0.4242;
813.9000;0.2377;0.4169;
814.2000;0.2385;0.4314;
814.5000;0.2434;0.4508;
814.8000;0.2393;0.4314;
815.1000;0.2385;0.4217;
815.4000;0.2409;0.4266;
815.7000;0.2393;0.4242;
816.0000;0.2385;0.4242;
816.3000;0.2385;0.4169;
816.6000;0.2385;0.4145;
816.9000;0.2393;0.4145;
817.2000;0.2401;0.4048;
817.5000;0.2369;0.3878;
817.8000;0.2409;0.3926;
818.1000;0.2418;0.3975;
818.4000;0.2458;0.4072;
818.7000;0.2393;0.3926;
819.0000;0.2393;0.3975;
819.3000;0.2426;0.4023;
819.6000;0.2434;0.4096;
819.9000;0.2409;0.4048;
820.2000;0.2401;0.4023;
820.5000;0.2393;0.4023;
820.8000;0.2377;0.4023;
821.1000;0.2418;0.4072;
821.4000;0.2409;0.4120;
821.7000;0.2409;0.4145;
822.0000;0.2393;0.4217;
822.3000;0.2393;0.4217;
822.6000;0.2352;0.4096;
822.9000;0.2409;0.4266;
823.2000;0.2393;0.4072;
823.5000;0.2369;0.4048;
823.8000;0.2385;0.4145;
824.1000;0.2393;0.4169;
824.4000;0.2385;0.4169;
824.7000;0.2401;0.4169;
825.0000;0.2385;0.4120;
825.3000;0.2393;0.4145;
825.6000;0.2385;0.4145;
825.9000;0.2377;0.4193;
826.2000;0.2393;0.4217;
826.5000;0.2393;0.4120;
826.8000;0.2393;0.4145;
827.1000;0.2393;0.4193;
827.4000;0.2385;0.4096;
827.7000;0.2393;0.4048;
828.0000;0.2409;0.3999;
828.3000;0.2401;0.4023;
828.6000;0.2385;0.3926;
828.9000;0.2385;0.3926;
829.2000;0.2287;0.3660;
829.5000;0.2361;0.3854;
829.8000;0.2393;0.3951;
830.1000;0.2426;0.3999;
830.4000;0.2385;0.3878;
830.7000;0.2418;0.3999;
831.0000;0.2393;0.3902;
831.3000;0.2385;0.3878;
831.6000;0.2393;0.3878;
831.9000;0.2401;0.3926;
832.2000;0.2401;0.3926;
832.5000;0.2401;0.3999;
832.8000;0.2401;0.4023;
833.1000;0.2385;0.3975;
833.4000;0.2385;0.3951;
833.7000;0.2385;0.4023;
834.0000;0.2401;0.3999;
834.3000;0.2385;0.3999;
834.6000;0.2418;0.4072;
834.9000;0.2393;0.3926;
835.2000;0.2369;0.3854;
835.5000;0.2377;0.3902;
835.8000;0.2401;0.3926;
836.1000;0.2385;0.3829;
836.4000;0.2385;0.3854;
836.7000;0.2393;0.3829;
837.0000;0.2409;0.3878;
837.3000;0.2401;0.3878;
837.6000;0.2409;0.3951;
837.9000;0.2418;0.3975;
838.2000;0.2393;0.3975;
838.5000;0.2426;0.4096;
838.8000;0.2393;0.3951;
839.1000;0.2393;0.3926;
839.4000;0.2401;0.3975;
839.7000;0.2336;0.3708;
840.0000;0.2483;0.4217;
840.3000;0.2377;0.3975;
840.6000;0.2385;0.3902;
840.9000;0.2393;0.3805;
841.2000;0.2385;0.3805;
841.5000;0.2393;0.3902;
841.8000;0.2393;0.3951;
842.1000;0.2377;0.3926;
842.4000;0.2393;0.3999;
842.7000;0.2409;0.4072;
843.0000;0.2393;0.3999;
843.3000;0.2393;0.4072;
843.6000;0.2336;0.3878;
843.9000;0.2377;0.3926;
844.2000;0.2442;0.4120;
844.5000;0.2287;0.3805;
844.8000;0.2401;0.4096;
845.1000;0.2393;0.4120;
845.4000;0.2385;0.4120;
845.7000;0.2385;0.4193;
846.0000;0.2336;0.4096;
846.3000;0.2401;0.4193;
846.6000;0.2377;0.4120;
846.9000;0.2393;0.4145;
847.2000;0.2409;0.4120;
847.5000;0.2393;0.4048;
847.8000;0.2401;0.4145;
848.1000;0.2385;0.4072;
848.4000;0.2401;0.4096;
848.7000;0.2409;0.4120;
849.0000;0.2401;0.4072;
849.3000;0.2434;0.4120;
849.6000;0.2442;0.4048;
849.9000;0.2401;0.3975;
850.2000;0.2385;0.3926;
850.5000;0.2409;0.3926;
850.8000;0.2426;0.3951;
851.1000;0.2377;0.3902;
851.4000;0.2401;0.3975;
851.7000;0.2385;0.3999;
852.0000;0.2418;0.4096;
852.3000;0.2426;0.4193;
852.6000;0.2450;0.4338;
852.9000;0.2385;0.4072;
853.2000;0.2369;0.4048;
853.5000;0.2401;0.4072;
853.8000;0.2401;0.3999;
854.1000;0.2483;0.4145;
854.4000;0.2409;0.3999;
854.7000;0.2393;0.3999;
855.0000;0.2393;0.3951;
855.3000;0.2385;0.3926;
855.6000;0.2409;0.4048;
855.9000;0.2393;0.4048;
856.2000;0.2377;0.3999;
856.5000;0.2393;0.4072;
856.8000;0.2393;0.4193;
857.1000;0.2401;0.4217;
857.4000;0.2401;0.4193;
857.7000;0.2385;0.4048;
858.0000;0.2401;0.3999;
858.3000;0.2385;0.3951;
858.6000;0.2434;0.4169;
858.9000;0.2409;0.4120;
859.2000;0.2409;0.4120;
859.5000;0.2393;0.4048;
859.8000;0.2401;0.4023;
860.1000;0.2409;0.4096;
860.4000;0.2418;0.4096;
860.7000;0.2401;0.4096;
861.0000;0.2401;0.4217;
861.3000;0.2401;0.4217;
861.6000;0.2393;0.4193;
861.9000;0.2401;0.4242;
862.2000;0.2393;0.4242;
862.5000;0.2361;0.4217;
862.8000;0.2409;0.4290;
863.1000;0.2409;0.4290;
863.4000;0.2401;0.4242;
863.7000;0.2401;0.4290;
864.0000;0.2409;0.4242;
864.3000;0.2401;0.4145;
864.6000;0.2377;0.4096;
864.9000;0.2385;0.4072;
865.2000;0.2393;0.4120;
865.5000;0.2393;0.4120;
865.8000;0.2344;0.3902;
866.1000;0.2385;0.4023;
866.4000;0.2418;0.4096;
866.7000;0.2418;0.4120;
867.0000;0.2377;0.4072;
867.3000;0.2385;0.4072;
867.6000;0.2401;0.4072;
867.9000;0.2393;0.4023;
868.2000;0.2385;0.3999;
868.5000;0.2466;0.4120;
868.8000;0.2369;0.3854;
869.1000;0.2385;0.3902;
869.4000;0.2361;0.3854;
869.7000;0.2385;0.3902;
870.0000;0.2385;0.3926;
870.3000;0.2401;0.3951;
870.6000;0.2336;0.3757;
870.9000;0.2409;0.3902;
871.2000;0.2426;0.3902;
871.5000;0.2409;0.3951;
871.8000;0.2401;0.3878;
872.1000;0.2401;0.3829;
872.4000;0.2344;0.3636;
872.7000;0.2401;0.3829;
873.0000;0.2409;0.3829;
873.3000;0.2450;0.3902;
873.6000;0.2369;0.3660;
873.9000;0.2393;0.3805;
874.2000;0.2385;0.3733;
874.5000;0.2401;0.3878;
874.8000;0.2385;0.3878;
875.1000;0.2377;0.3781;
875.4000;0.2401;0.3878;
875.7000;0.2393;0.3854;
876.0000;0.2393;0.3757;
876.3000;0.2385;0.3829;
876.6000;0.2401;0.3854;
876.9000;0.2393;0.3999;
877.2000;0.2401;0.4048;
877.5000;0.2385;0.4023;
877.8000;0.2393;0.4048;
878.1000;0.2401;0.4023;
878.4000;0.2385;0.3999;
878.7000;0.2409;0.4072;
879.0000;0.2442;0.4266;
879.3000;0.2377;0.3999;
879.6000;0.2393;0.3999;
879.9000;0.2401;0.4048;
880.2000;0.2393;0.3999;
880.5000;0.2385;0.4096;
880.8000;0.2401;0.4169;
881.1000;0.2458;0.4266;
881.4000;0.2385;0.4169;
881.7000;0.2393;0.4266;
882.0000;0.2409;0.4290;
882.3000;0.2401;0.4290;
882.6000;0.2401;0.4169;
882.9000;0.2409;0.4169;
883.2000;0.2393;0.4120;
883.5000;0.2344;0.4072;
883.8000;0.2401;0.4217;
884.1000;0.2393;0.4072;
884.4000;0.2434;0.4145;
884.7000;0.2401;0.3999;
885.0000;0.2385;0.3999;
885.3000;0.2401;0.4120;
885.6000;0.2401;0.4072;
885.9000;0.2401;0.3999;
886.2000;0.2401;0.4072;
886.5000;0.2483;0.4290;
886.8000;0.2401;0.4048;
887.1000;0.2409;0.4120;
887.4000;0.2377;0.3975;
887.7000;0.2393;0.4096;
888.0000;0.2385;0.4145;
888.3000;0.2377;0.4120;
888.6000;0.2385;0.4217;
888.9000;0.2385;0.4242;
889.2000;0.2385;0.4217;
889.5000;0.2401;0.4193;
889.8000;0.2401;0.4096;
890.1000;0.2393;0.4072;
890.4000;0.2401;0.4096;
890.7000;0.2409;0.4023;
891.0000;0.2401;0.4048;
891.3000;0.2393;0.4072;
891.6000;0.2377;0.4169;
891.9000;0.2393;0.4242;
892.2000;0.2385;0.4145;
892.5000;0.2401;0.4169;
892.8000;0.2418;0.4145;
893.1000;0.2434;0.4145;
893.4000;0.2401;0.4048;
893.7000;0.2401;0.4072;
894.0000;0.2409;0.4072;
894.3000;0.2409;0.4023;
894.6000;0.2458;0.4145;
894.9000;0.2401;0.4096;
895.2000;0.2409;0.4169;
895.5000;0.2377;0.4145;
895.8000;0.2377;0.4266;
896.1000;0.2393;0.4314;
896.4000;0.2401;0.4314;
896.7000;0.2442;0.4338;
897.0000;0.2393;0.4217;
897.3000;0.2385;0.4169;
897.6000;0.2434;0.4266;
897.9000;0.2393;0.4072;
898.2000;0.2385;0.4120;
898.5000;0.2393;0.4145;
898.8000;0.2393;0.4169;
899.1000;0.2409;0.4266;
899.4000;0.2450;0.4363;
899.7000;0.2393;0.4217;
900.0000;0.2418;0.4266;
900.3000;0.2401;0.4217;
900.6000;0.2426;0.4266;
900.9000;0.2401;0.4217;
901.2000;0.2401;0.4193;
901.5000;0.2434;0.4217;
901.8000;0.2369;0.3975;
902.1000;0.2401;0.4120;
902.4000;0.2279;0.3902;
902.7000;0.2409;0.4290;
903.0000;0.2377;0.4217;
903.3000;0.2393;0.4242;
903.6000;0.2409;0.4266;
903.9000;0.2401;0.4169;
904.2000;0.2385;0.4145;
904.5000;0.2401;0.4242;
904.8000;0.2409;0.4169;
905.1000;0.2377;0.4072;
905.4000;0.2466;0.4290;
905.7000;0.2385;0.3951;
906.0000;0.2401;0.3999;
906.3000;0.2369;0.3999;
906.6000;0.2458;0.4266;
906.9000;0.2393;0.4120;
907.2000;0.2426;0.4193;
907.5000;0.2393;0.4120;
907.8000;0.2385;0.4120;
908.1000;0.2385;0.4193;
908.4000;0.2401;0.4193;
908.7000;0.2385;0.4145;
909.0000;0.2393;0.4217;
909.3000;0.2393;0.4242;
909.6000;0.2369;0.4096;
909.9000;0.2393;0.4023;
910.2000;0.2377;0.4023;
910.5000;0.2401;0.4048;
910.8000;0.2393;0.4120;
911.1000;0.2401;0.4120;
911.4000;0.2393;0.4145;
911.7000;0.2385;0.4096;
912.0000;0.2409;0.4072;
912.3000;0.2409;0.4048;
912.6000;0.2434;0.4096;
912.9000;0.2442;0.4242;
913.2000;0.2385;0.4072;
913.5000;0.2344;0.3975;
913.8000;0.2409;0.4120;
914.1000;0.2401;0.4096;
914.4000;0.2393;0.4048;
914.7000;0.2377;0.3975;
915.0000;0.2401;0.4048;
915.3000;0.2418;0.4120;
915.6000;0.2369;0.3999;
915.9000;0.2393;0.4266;
916.2000;0.2377;0.4242;
916.5000;0.2401;0.4387;
916.8000;0.2401;0.4338;
917.1000;0.2361;0.4145;
917.4000;0.2401;0.4169;
917.7000;0.2385;0.4145;
918.0000;0.2287;0.3781;
918.3000;0.2393;0.4072;
918.6000;0.2385;0.4120;
918.9000;0.2418;0.4217;
919.2000;0.2409;0.4242;
919.5000;0.2442;0.4266;
919.8000;0.2369;0.4242;
920.1000;0.2450;0.4435;
920.4000;0.2401;0.4314;
920.7000;0.2393;0.4266;
921.0000;0.2393;0.4314;
921.3000;0.2385;0.4338;
921.6000;0.2385;0.4314;
921.9000;0.2312;0.4023;
922.2000;0.2442;0.4314;
922.5000;0.2401;0.4217;
922.8000;0.2401;0.4242;
923.1000;0.2361;0.4145;
923.4000;0.2393;0.4217;
923.7000;0.2393;0.4242;
924.0000;0.2393;0.4314;
924.3000;0.2377;0.4338;
924.6000;0.2361;0.4217;
924.9000;0.2377;0.4266;
925.2000;0.2393;0.4193;
925.5000;0.2409;0.4290;
925.8000;0.2385;0.4217;
926.1000;0.2401;0.4242;
926.4000;0.2352;0.4193;
926.7000;0.2385;0.4363;
927.0000;0.2393;0.4435;
927.3000;0.2361;0.4363;
927.6000;0.2418;0.4460;
927.9000;0.2385;0.4290;
928.2000;0.2401;0.4314;
928.5000;0.2418;0.4266;
928.8000;0.2385;0.4217;
929.1000;0.2418;0.4338;
929.4000;0.2401;0.4217;
929.7000;0.2466;0.4314;
930.0000;0.2418;0.4145;
930.3000;0.2409;0.4169;
930.6000;0.2393;0.4120;
930.9000;0.2385;0.4169;
931.2000;0.2418;0.4338;
931.5000;0.2434;0.4363;
931.8000;0.2377;0.4266;
932.1000;0.2393;0.4193;
932.4000;0.2377;0.4145;
932.7000;0.2385;0.4120;
933.0000;0.2393;0.4072;
933.3000;0.2393;0.4023;
933.6000;0.2418;0.4096;
933.9000;0.2393;0.3951;
934.2000;0.2401;0.3999;
934.5000;0.2393;0.3975;
934.8000;0.2393;0.4048;
935.1000;0.2401;0.4096;
935.4000;0.2336;0.3878;
935.7000;0.2393;0.4120;
936.0000;0.2377;0.4145;
936.3000;0.2401;0.4266;
936.6000;0.2418;0.4338;
936.9000;0.2418;0.4338;
937.2000;0.2377;0.4193;
937.5000;0.2377;0.4145;
937.8000;0.2377;0.4072;
938.1000;0.2393;0.4096;
938.4000;0.2385;0.4048;
938.7000;0.2385;0.4048;
939.0000;0.2393;0.4169;
939.3000;0.2385;0.4169;
939.6000;0.2426;0.4217;
939.9000;0.2418;0.4120;
940.2000;0.2401;0.4145;
940.5000;0.2409;0.4169;
940.8000;0.2361;0.4048;
941.1000;0.2385;0.4145;
941.4000;0.2426;0.4217;
941.7000;0.2426;0.4217;
942.0000;0.2483;0.4411;
942.3000;0.2409;0.4242;
942.6000;0.2377;0.4120;
942.9000;0.2409;0.4193;
943.2000;0.2409;0.4096;
943.5000;0.2409;0.4072;
943.8000;0.2409;0.4048;
944.1000;0.2401;0.4023;
944.4000;0.2385;0.4048;
944.7000;0.2336;0.3926;
945.0000;0.2409;0.4023;
945.3000;0.2393;0.3878;
945.6000;0.2409;0.3854;
945.9000;0.2361;0.3805;
946.2000;0.2369;0.3854;
946.5000;0.2393;0.3926;
946.8000;0.2393;0.4023;
947.1000;0.2401;0.4072;
947.4000;0.2352;0.3926;
947.7000;0.2377;0.4023;
948.0000;0.2385;0.4072;
948.3000;0.2393;0.4072;
948.6000;0.2385;0.4048;
948.9000;0.2385;0.3951;
949.2000;0.2369;0.3951;
949.5000;0.2401;0.3951;
949.8000;0.2385;0.3878;
950.1000;0.2393;0.3902;
950.4000;0.2385;0.3951;
950.7000;0.2401;0.4048;
951.0000;0.2393;0.4023;
951.3000;0.2426;0.4072;
951.6000;0.2385;0.4023;
951.9000;0.2393;0.4072;
952.2000;0.2369;0.4048;
952.5000;0.2336;0.4023;
952.8000;0.2385;0.4193;
953.1000;0.2393;0.4120;
953.4000;0.2401;0.4072;
953.7000;0.2385;0.4048;
954.0000;0.2393;0.4120;
954.3000;0.2369;0.4096;
954.6000;0.2385;0.4217;
954.9000;0.2393;0.4290;
955.2000;0.2409;0.4290;
955.5000;0.2393;0.4338;
955.8000;0.2361;0.4193;
956.1000;0.2409;0.4338;
956.4000;0.2426;0.4435;
956.7000;0.2401;0.4363;
957.0000;0.2401;0.4290;
957.3000;0.2418;0.4314;
957.6000;0.2385;0.4242;
957.9000;0.2377;0.4096;
958.2000;0.2393;0.4145;
958.5000;0.2401;0.4120;
958.8000;0.2409;0.4120;
959.1000;0.2393;0.4096;
959.4000;0.2426;0.4169;
959.7000;0.2401;0.4169;
960.0000;0.2393;0.4145;
960.3000;0.2369;0.4048;
960.6000;0.2377;0.4120;
960.9000;0.2401;0.4145;
961.2000;0.2409;0.4145;
961.5000;0.2401;0.4145;
961.8000;0.2385;0.4120;
962.1000;0.2401;0.4193;
962.4000;0.2377;0.4120;
962.7000;0.2401;0.4169;
963.0000;0.2385;0.4096;
963.3000;0.2369;0.4096;
963.6000;0.2401;0.4217;
963.9000;0.2393;0.4145;
964.2000;0.2369;0.4072;
964.5000;0.2418;0.4145;
964.8000;0.2385;0.4023;
965.1000;0.2401;0.3999;
965.4000;0.2442;0.4120;
965.7000;0.2401;0.3999;
966.0000;0.2418;0.4096;
966.3000;0.2369;0.4072;
966.6000;0.2393;0.4120;
966.9000;0.2409;0.4145;
967.2000;0.2401;0.4096;
967.5000;0.2393;0.4120;
967.8000;0.2393;0.4096;
968.1000;0.2369;0.3975;
968.4000;0.2385;0.4023;
968.7000;0.2393;0.4072;
969.0000;0.2401;0.4023;
969.3000;0.2426;0.4048;
969.6000;0.2401;0.4023;
969.9000;0.2393;0.3999;
970.2000;0.2369;0.4023;
970.5000;0.2393;0.4120;
970.8000;0.2418;0.4169;
971.1000;0.2418;0.4169;
971.4000;0.2418;0.4048;
971.7000;0.2409;0.3999;
972.0000;0.2401;0.3999;
972.3000;0.2434;0.4072;
972.6000;0.2393;0.4048;
972.9000;0.2393;0.4072;
973.2000;0.2377;0.4023;
973.5000;0.2409;0.4193;
973.8000;0.2401;0.4145;
974.1000;0.2393;0.4048;
974.4000;0.2401;0.4072;
974.7000;0.2401;0.4048;
975.0000;0.2401;0.3975;
975.3000;0.2483;0.4072;
975.6000;0.2401;0.3902;
975.9000;0.2409;0.3902;
976.2000;0.2401;0.3902;
976.5000;0.2458;0.3999;
976.8000;0.2409;0.3878;
977.1000;0.2401;0.3902;
977.4000;0.2409;0.3902;
977.7000;0.2409;0.4023;
978.0000;0.2409;0.4096;
978.3000;0.2393;0.4145;
978.6000;0.2401;0.4169;
978.9000;0.2418;0.4266;
979.2000;0.2418;0.4314;
979.5000;0.2401;0.4266;
979.8000;0.2401;0.4242;
980.1000;0.2385;0.4242;
980.4000;0.2409;0.4411;
980.7000;0.2344;0.4266;
981.0000;0.2385;0.4435;
981.3000;0.2385;0.4363;
981.6000;0.2393;0.4387;
981.9000;0.2393;0.4387;
982.2000;0.2393;0.4363;
982.5000;0.2426;0.4290;
982.8000;0.2418;0.4242;
983.1000;0.2385;0.4145;
983.4000;0.2385;0.4096;
983.7000;0.2385;0.4120;
984.0000;0.2361;0.4072;
984.3000;0.2385;0.4048;
984.6000;0.2352;0.3975;
984.9000;0.2466;0.4290;
985.2000;0.2409;0.4217;
985.5000;0.2409;0.4266;
985.8000;0.2401;0.4290;
986.1000;0.2377;0.4266;
986.4000;0.2385;0.4338;
986.7000;0.2401;0.4290;
987.0000;0.2369;0.4120;
987.3000;0.2393;0.4096;
987.6000;0.2401;0.4048;
987.9000;0.2393;0.3951;
988.2000;0.2401;0.4096;
988.5000;0.2385;0.4145;
988.8000;0.2418;0.4242;
989.1000;0.2401;0.4217;
989.4000;0.2393;0.4266;
989.7000;0.2434;0.4363;
990.0000;0.2426;0.4338;
990.3000;0.2409;0.4314;
990.6000;0.2401;0.4266;
990.9000;0.2385;0.4120;
991.2000;0.2426;0.4193;
991.5000;0.2426;0.4217;
991.8000;0.2393;0.4193;
992.1000;0.2409;0.4072;
992.4000;0.2393;0.4023;
992.7000;0.2304;0.3854;
993.0000;0.2409;0.4023;
993.3000;0.2393;0.3999;
993.6000;0.2377;0.4023;
993.9000;0.2409;0.4048;
994.2000;0.2450;0.4242;
994.5000;0.2385;0.4169;
994.8000;0.2401;0.4096;
995.1000;0.2385;0.3999;
995.4000;0.2401;0.4072;
995.7000;0.2418;0.4193;
996.0000;0.2401;0.4145;
996.3000;0.2434;0.4145;
996.6000;0.2393;0.4145;
996.9000;0.2401;0.4217;
997.2000;0.2344;0.4072;
997.5000;0.2393;0.4120;
997.8000;0.2401;0.4145;
998.1000;0.2409;0.4145;
998.4000;0.2393;0.4048;
998.7000;0.2409;0.4048;
999.0000;0.2401;0.3975;
999.3000;0.2401;0.3975;
999.6000;0.2377;0.3975;
999.9000;0.2393;0.3975;
1000.2000;0.2418;0.4023;
1000.5000;0.2393;0.4023;
1000.8000;0.2401;0.4072;
1001.1000;0.2385;0.4023;
1001.4000;0.2393;0.4072;
1001.7000;0.2442;0.4120;
1002.0000;0.2401;0.4096;
1002.3000;0.2393;0.4072;
1002.6000;0.2401;0.4023;
1002.9000;0.2409;0.3999;
1003.2000;0.2385;0.3951;
1003.5000;0.2393;0.4023;
1003.8000;0.2401;0.4072;
1004.1000;0.2401;0.4120;
1004.4000;0.2393;0.4120;
1004.7000;0.2401;0.4120;
1005.0000;0.2409;0.4266;
1005.3000;0.2401;0.4266;
1005.6000;0.2418;0.4217;
1005.9000;0.2409;0.4145;
1006.2000;0.2361;0.4120;
1006.5000;0.2385;0.4193;
1006.8000;0.2409;0.4338;
1007.1000;0.2426;0.4435;
1007.4000;0.2409;0.4314;
1007.7000;0.2426;0.4242;
1008.0000;0.2328;0.3878;
1008.3000;0.2409;0.3975;
1008.6000;0.2393;0.3902;
1008.9000;0.2466;0.4096;
1009.2000;0.2385;0.4023;
1009.5000;0.2540;0.4411;
1009.8000;0.2393;0.4096;
1010.1000;0.2393;0.4072;
1010.4000;0.2401;0.4072;
1010.7000;0.2393;0.4072;
1011.0000;0.2385;0.4072;
1011.3000;0.2352;0.4023;
1011.6000;0.2401;0.4193;
1011.9000;0.2401;0.4193;
1012.2000;0.2393;0.4145;
1012.5000;0.2385;0.4120;
1012.8000;0.2401;0.4193;
1013.1000;0.2409;0.4242;
1013.4000;0.2393;0.4242;
1013.7000;0.2450;0.4363;
1014.0000;0.2393;0.4242;
1014.3000;0.2401;0.4266;
1014.6000;0.2401;0.4290;
1014.9000;0.2409;0.4387;
1015.2000;0.2458;0.4532;
1015.5000;0.2385;0.4338;
1015.8000;0.2393;0.4314;
1016.1000;0.2377;0.4290;
1016.4000;0.2409;0.4314;
1016.7000;0.2434;0.4338;
1017.0000;0.2393;0.4169;
1017.3000;0.2393;0.4242;
1017.6000;0.2418;0.4338;
1017.9000;0.2385;0.4242;
1018.2000;0.2426;0.4338;
1018.5000;0.2409;0.4266;
1018.8000;0.2442;0.4338;
1019.1000;0.2385;0.4242;
1019.4000;0.2393;0.4338;
1019.7000;0.2401;0.4314;
1020.0000;0.2401;0.4217;
1020.3000;0.2409;0.4314;
1020.6000;0.2369;0.4120;
1020.9000;0.2393;0.4169;
1021.2000;0.2385;0.4169;
1021.5000;0.2328;0.3999;
1021.8000;0.2401;0.4217;
1022.1000;0.2401;0.4193;
1022.4000;0.2401;0.4145;
1022.7000;0.2377;0.4048;
1023.0000;0.2393;0.4096;
1023.3000;0.2418;0.4169;
1023.6000;0.2426;0.4290;
1023.9000;0.2401;0.4242;
1024.2000;0.2401;0.4266;
1024.5000;0.2401;0.4266;
1024.8000;0.2426;0.4314;
1025.1000;0.2393;0.4217;
1025.4000;0.2377;0.4242;
1025.7000;0.2401;0.4435;
1026.0000;0.2393;0.4508;
1026.3000;0.2385;0.4290;
1026.6000;0.2377;0.4193;
1026.9000;0.2409;0.4266;
1027.2000;0.2401;0.4193;
1027.5000;0.2377;0.4120;
1027.8000;0.2385;0.4120;
1028.1000;0.2393;0.4193;
1028.4000;0.2409;0.4169;
1028.7000;0.2352;0.3999;
1029.0000;0.2377;0.3999;
1029.3000;0.2377;0.4096;
1029.6000;0.2369;0.4072;
1029.9000;0.2409;0.4193;
1030.2000;0.2393;0.4096;
1030.5000;0.2385;0.4096;
1030.8000;0.2401;0.4072;
1031.1000;0.2336;0.3975;
1031.4000;0.2515;0.4266;
1031.7000;0.2401;0.3951;
1032.0000;0.2352;0.3926;
1032.3000;0.2393;0.4072;
1032.6000;0.2426;0.4169;
1032.9000;0.2393;0.4145;
1033.2000;0.2458;0.4338;
1033.5000;0.2393;0.4120;
1033.8000;0.2336;0.3975;
1034.1000;0.2401;0.4120;
1034.4000;0.2393;0.4120;
1034.7000;0.2401;0.4169;
1035.0000;0.2426;0.4169;
1035.3000;0.2401;0.4242;
1035.6000;0.2401;0.4193;
1035.9000;0.2401;0.4242;
1036.2000;0.2426;0.4290;
1036.5000;0.2401;0.4169;
1036.8000;0.2409;0.4169;
1037.1000;0.2401;0.4193;
1037.4000;0.2377;0.4120;
1037.7000;0.2409;0.4242;
1038.0000;0.2401;0.4193;
1038.3000;0.2361;0.4023;
1038.6000;0.2409;0.4120;
1038.9000;0.2401;0.4048;
1039.2000;0.2377;0.4120;
1039.5000;0.2409;0.4169;
1039.8000;0.2491;0.4435;
1040.1000;0.2409;0.4290;
1040.4000;0.2418;0.4290;
1040.7000;0.2385;0.4169;
1041.0000;0.2385;0.4096;
1041.3000;0.2401;0.4169;
1041.6000;0.2385;0.4096;
1041.9000;0.2377;0.3975;
1042.2000;0.2271;0.3660;
1042.5000;0.2401;0.3975;
1042.8000;0.2393;0.4120;
1043.1000;0.2393;0.3999;
1043.4000;0.2418;0.3999;
1043.7000;0.2409;0.3951;
1044.0000;0.2426;0.3926;
1044.3000;0.2418;0.4023;
1044.6000;0.2369;0.3926;
1044.9000;0.2369;0.3926;
1045.2000;0.2377;0.4048;
1045.5000;0.2393;0.4023;
1045.8000;0.2377;0.3999;
1046.1000;0.2426;0.4096;
1046.4000;0.2385;0.4048;
1046.7000;0.2393;0.4145;
1047.0000;0.2442;0.4193;
1047.3000;0.2393;0.4072;
1047.6000;0.2409;0.4145;
1047.9000;0.2418;0.4193;
1048.2000;0.2393;0.4169;
1048.5000;0.2344;0.3999;
1048.8000;0.2409;0.4169;
1049.1000;0.2426;0.4217;
1049.4000;0.2393;0.4169;
1049.7000;0.2385;0.4217;
1050.0000;0.2434;0.4266;
1050.3000;0.2409;0.4193;
1050.6000;0.2393;0.4193;
1050.9000;0.2426;0.4290;
1051.2000;0.2393;0.4193;
1051.5000;0.2458;0.4363;
1051.8000;0.2401;0.4217;
1052.1000;0.2393;0.4169;
1052.4000;0.2385;0.4072;
1052.7000;0.2401;0.4145;
1053.0000;0.2409;0.4169;
1053.3000;0.2385;0.4072;
1053.6000;0.2385;0.4217;
1053.9000;0.2458;0.4363;
1054.2000;0.2401;0.4193;
1054.5000;0.2401;0.4169;
1054.8000;0.2393;0.4217;
1055.1000;0.2409;0.4290;
1055.4000;0.2409;0.4314;
1055.7000;0.2312;0.4048;
1056.0000;0.2385;0.4266;
1056.3000;0.2336;0.4266;
1056.6000;0.2409;0.4411;
1056.9000;0.2377;0.4338;
1057.2000;0.2393;0.4338;
1057.5000;0.2409;0.4363;
1057.8000;0.2385;0.4338;
1058.1000;0.2409;0.4314;
1058.4000;0.2385;0.4338;
1058.7000;0.2401;0.4266;
1059.0000;0.2418;0.4314;
1059.3000;0.2361;0.4145;
1059.6000;0.2426;0.4242;
1059.9000;0.2401;0.4169;
1060.2000;0.2426;0.4290;
1060.5000;0.2418;0.4242;
1060.8000;0.2418;0.4314;
1061.1000;0.2401;0.4242;
1061.4000;0.2401;0.4314;
1061.7000;0.2418;0.4314;
1062.0000;0.2426;0.4242;
1062.3000;0.2352;0.4072;
1062.6000;0.2418;0.4242;
1062.9000;0.2401;0.4193;
1063.2000;0.2401;0.4217;
1063.5000;0.2385;0.4120;
1063.8000;0.2401;0.4048;
1064.1000;0.2328;0.3902;
1064.4000;0.2385;0.4096;
1064.7000;0.2401;0.4145;
1065.0000;0.2361;0.4023;
1065.3000;0.2401;0.4145;
1065.6000;0.2418;0.4072;
1065.9000;0.2401;0.4169;
1066.2000;0.2344;0.3975;
1066.5000;0.2426;0.4217;
1066.8000;0.2409;0.4242;
1067.1000;0.2336;0.3999;
1067.4000;0.2393;0.4169;
1067.7000;0.2418;0.4193;
1068.0000;0.2377;0.4096;
1068.3000;0.2328;0.3999;
1068.6000;0.2409;0.4145;
1068.9000;0.2401;0.4169;
1069.2000;0.2401;0.4266;
1069.5000;0.2401;0.4387;
1069.8000;0.2377;0.4314;
1070.1000;0.2401;0.4338;
1070.4000;0.2393;0.4242;
1070.7000;0.2418;0.4290;
1071.0000;0.2393;0.4266;
1071.3000;0.2385;0.4217;
1071.6000;0.2409;0.4266;
1071.9000;0.2385;0.4193;
1072.2000;0.2401;0.4120;
1072.5000;0.2393;0.4048;
1072.8000;0.2442;0.4120;
1073.1000;0.2409;0.4023;
1073.4000;0.2409;0.4048;
1073.7000;0.2409;0.3999;
1074.0000;0.2409;0.4096;
1074.3000;0.2409;0.4169;
1074.6000;0.2409;0.4120;
1074.9000;0.2401;0.4193;
1075.2000;0.2401;0.4193;
1075.5000;0.2393;0.4338;
1075.8000;0.2409;0.4363;
1076.1000;0.2393;0.4387;
1076.4000;0.2393;0.4363;
1076.7000;0.2385;0.4363;
1077.0000;0.2401;0.4338;
1077.3000;0.2409;0.4290;
1077.6000;0.2385;0.4266;
1077.9000;0.2287;0.3975;
1078.2000;0.2409;0.4290;
1078.5000;0.2475;0.4508;
1078.8000;0.2401;0.4314;
1079.1000;0.2393;0.4387;
1079.4000;0.2426;0.4460;
1079.7000;0.2426;0.4435;
1080.0000;0.2409;0.4435;
1080.3000;0.2385;0.4338;
1080.6000;0.2418;0.4363;
1080.9000;0.2401;0.4338;
1081.2000;0.2393;0.4338;
1081.5000;0.2409;0.4290;
1081.8000;0.2393;0.4314;
1082.1000;0.2401;0.4266;
1082.4000;0.2409;0.4290;
1082.7000;0.2401;0.4290;
1083.0000;0.2393;0.4266;
1083.3000;0.2458;0.4411;
1083.6000;0.2458;0.4557;
1083.9000;0.2393;0.4411;
1084.2000;0.2458;0.4581;
1084.5000;0.2393;0.4484;
1084.8000;0.2369;0.4387;
1085.1000;0.2409;0.4411;
1085.4000;0.2336;0.4169;
1085.7000;0.2401;0.4387;
1086.0000;0.2409;0.4387;
1086.3000;0.2385;0.4290;
1086.6000;0.2393;0.4290;
1086.9000;0.2426;0.4387;
1087.2000;0.2434;0.4460;
1087.5000;0.2426;0.4435;
1087.8000;0.2377;0.4266;
1088.1000;0.2361;0.4217;
1088.4000;0.2409;0.4338;
1088.7000;0.2426;0.4484;
1089.0000;0.2369;0.4338;
1089.3000;0.2401;0.4314;
1089.6000;0.2393;0.4266;
1089.9000;0.2418;0.4314;
1090.2000;0.2401;0.4290;
1090.5000;0.2426;0.4387;
1090.8000;0.2328;0.4193;
1091.1000;0.2312;0.4145;
1091.4000;0.2393;0.4387;
1091.7000;0.2385;0.4266;
1092.0000;0.2385;0.4217;
1092.3000;0.2361;0.4145;
1092.6000;0.2377;0.4242;
1092.9000;0.2401;0.4266;
1093.2000;0.2409;0.4266;
1093.5000;0.2401;0.4193;
1093.8000;0.2401;0.4193;
1094.1000;0.2401;0.4072;
1094.4000;0.2393;0.4096;
1094.7000;0.2409;0.4072;
1095.0000;0.2401;0.4072;
1095.3000;0.2401;0.3975;
1095.6000;0.2393;0.3975;
1095.9000;0.2418;0.4048;
1096.2000;0.2409;0.4072;
1096.5000;0.2418;0.4096;
1096.8000;0.2393;0.4048;
1097.1000;0.2401;0.4072;
1097.4000;0.2409;0.4072;
1097.7000;0.2393;0.4048;
1098.0000;0.2393;0.4048;
1098.3000;0.2361;0.3951;
1098.6000;0.2401;0.4072;
1098.9000;0.2361;0.4023;
1099.2000;0.2401;0.4072;
1099.5000;0.2385;0.4072;
1099.8000;0.2393;0.4145;
1100.1000;0.2401;0.4169;
1100.4000;0.2377;0.4096;
1100.7000;0.2377;0.4169;
1101.0000;0.2393;0.4145;
1101.3000;0.2385;0.4096;
1101.6000;0.2507;0.4411;
1101.9000;0.2434;0.4145;
1102.2000;0.2385;0.4048;
1102.5000;0.2401;0.4048;
1102.8000;0.2393;0.4072;
1103.1000;0.2475;0.4290;
1103.4000;0.2377;0.4023;
1103.7000;0.2352;0.4048;
1104.0000;0.2336;0.4145;
1104.3000;0.2418;0.4363;
1104.6000;0.2385;0.4508;
1104.9000;0.2401;0.4435;
1105.2000;0.2442;0.4532;
1105.5000;0.2393;0.4387;
1105.8000;0.2418;0.4338;
1106.1000;0.2409;0.4338;
1106.4000;0.2401;0.4314;
1106.7000;0.2418;0.4363;
1107.0000;0.2409;0.4290;
1107.3000;0.2393;0.4290;
1107.6000;0.2418;0.4266;
1107.9000;0.2369;0.4193;
1108.2000;0.2239;0.3829;
1108.5000;0.2393;0.4314;
1108.8000;0.2401;0.4290;
1109.1000;0.2434;0.4387;
1109.4000;0.2409;0.4387;
1109.7000;0.2401;0.4290;
1110.0000;0.2418;0.4266;
1110.3000;0.2434;0.4338;
1110.6000;0.2401;0.4363;
1110.9000;0.2418;0.4363;
1111.2000;0.2401;0.4314;
1111.5000;0.2409;0.4266;
1111.8000;0.2418;0.4290;
1112.1000;0.2393;0.4169;
1112.4000;0.2401;0.4242;
1112.7000;0.2409;0.4242;
1113.0000;0.2426;0.4217;
1113.3000;0.2401;0.4193;
1113.6000;0.2401;0.4145;
1113.9000;0.2409;0.4242;
1114.2000;0.2393;0.4217;
1114.5000;0.2401;0.4242;
1114.8000;0.2401;0.4314;
1115.1000;0.2418;0.4338;
1115.4000;0.2458;0.4508;
1115.7000;0.2352;0.4217;
1116.0000;0.2401;0.4363;
1116.3000;0.2418;0.4363;
1116.6000;0.2426;0.4363;
1116.9000;0.2450;0.4532;
1117.2000;0.2418;0.4484;
1117.5000;0.2409;0.4484;
1117.8000;0.2401;0.4338;
1118.1000;0.2409;0.4411;
1118.4000;0.2418;0.4363;
1118.7000;0.2409;0.4387;
1119.0000;0.2401;0.4387;
1119.3000;0.2393;0.4314;
1119.6000;0.2401;0.4314;
1119.9000;0.2418;0.4363;
1120.2000;0.2418;0.4387;
1120.5000;0.2409;0.4314;
1120.8000;0.2401;0.4314;
1121.1000;0.2401;0.4338;
1121.4000;0.2409;0.4363;
1121.7000;0.2426;0.4411;
1122.0000;0.2401;0.4387;
1122.3000;0.2385;0.4290;
1122.6000;0.2385;0.4217;
1122.9000;0.2377;0.4169;
1123.2000;0.2393;0.4217;
1123.5000;0.2450;0.4266;
1123.8000;0.2393;0.4145;
1124.1000;0.2450;0.4363;
1124.4000;0.2483;0.4411;
1124.7000;0.2385;0.4120;
1125.0000;0.2255;0.3733;
1125.3000;0.2409;0.4193;
1125.6000;0.2458;0.4314;
1125.9000;0.2401;0.4266;
1126.2000;0.2304;0.4072;
1126.5000;0.2409;0.4314;
1126.8000;0.2450;0.4363;
1127.1000;0.2385;0.4266;
1127.4000;0.2385;0.4217;
1127.7000;0.2393;0.4169;
1128.0000;0.2393;0.4193;
1128.3000;0.2466;0.4314;
1128.6000;0.2409;0.4145;
1128.9000;0.2377;0.4096;
1129.2000;0.2287;0.3878;
1129.5000;0.2393;0.4193;
1129.8000;0.2393;0.4169;
1130.1000;0.2401;0.4193;
1130.4000;0.2426;0.4266;
1130.7000;0.2426;0.4290;
1131.0000;0.2418;0.4217;
1131.3000;0.2409;0.4193;
1131.6000;0.2401;0.4242;
1131.9000;0.2426;0.4314;
1132.2000;0.2418;0.4290;
1132.5000;0.2393;0.4217;
1132.8000;0.2401;0.4145;
1133.1000;0.2409;0.4217;
1133.4000;0.2409;0.4266;
1133.7000;0.2369;0.4217;
1134.0000;0.2393;0.4242;
1134.3000;0.2393;0.4266;
1134.6000;0.2418;0.4290;
1134.9000;0.2442;0.4314;
1135.2000;0.2409;0.4290;
1135.5000;0.2401;0.4411;
1135.8000;0.2401;0.4387;
1136.1000;0.2393;0.4363;
1136.4000;0.2385;0.4387;
1136.7000;0.2409;0.4411;
1137.0000;0.2401;0.4363;
1137.3000;0.2385;0.4338;
1137.6000;0.2393;0.4411;
1137.9000;0.2483;0.4702;
1138.2000;0.2409;0.4605;
1138.5000;0.2401;0.4508;
1138.8000;0.2401;0.4363;
1139.1000;0.2409;0.4314;
1139.4000;0.2361;0.4217;
1139.7000;0.2409;0.4435;
1140.0000;0.2409;0.4484;
1140.3000;0.2418;0.4532;
1140.6000;0.2409;0.4508;
1140.9000;0.2418;0.4387;
1141.2000;0.2401;0.4290;
1141.5000;0.2393;0.4266;
1141.8000;0.2418;0.4290;
1142.1000;0.2418;0.4314;
1142.4000;0.2418;0.4387;
1142.7000;0.2418;0.4314;
1143.0000;0.2418;0.4338;
1143.3000;0.2409;0.4290;
1143.6000;0.2409;0.4314;
1143.9000;0.2401;0.4338;
1144.2000;0.2401;0.4314;
1144.5000;0.2442;0.4338;
1144.8000;0.2409;0.4193;
1145.1000;0.2401;0.4217;
1145.4000;0.2426;0.4217;
1145.7000;0.2401;0.4193;
1146.0000;0.2401;0.4169;
1146.3000;0.2426;0.4217;
1146.6000;0.2426;0.4193;
1146.9000;0.2401;0.4145;
1147.2000;0.2426;0.4145;
1147.5000;0.2344;0.3999;
1147.8000;0.2426;0.4217;
1148.1000;0.2385;0.4145;
1148.4000;0.2450;0.4217;
1148.7000;0.2418;0.4120;
1149.0000;0.2352;0.3926;
1149.3000;0.2401;0.4048;
1149.6000;0.2475;0.4266;
1149.9000;0.2377;0.3951;
1150.2000;0.2393;0.3999;
1150.5000;0.2352;0.3902;
1150.8000;0.2401;0.4072;
1151.1000;0.2352;0.3999;
1151.4000;0.2361;0.4096;
1151.7000;0.2418;0.4169;
1152.0000;0.2409;0.4096;
1152.3000;0.2418;0.4096;
1152.6000;0.2409;0.4048;
1152.9000;0.2418;0.3999;
1153.2000;0.2385;0.4072;
1153.5000;0.2409;0.4169;
1153.8000;0.2418;0.4217;
1154.1000;0.2393;0.4266;
1154.4000;0.2393;0.4290;
1154.7000;0.2426;0.4363;
1155.0000;0.2418;0.4290;
1155.3000;0.2385;0.4266;
1155.6000;0.2409;0.4290;
1155.9000;0.2418;0.4290;
1156.2000;0.2393;0.4314;
1156.5000;0.2409;0.4338;
1156.8000;0.2426;0.4314;
1157.1000;0.2385;0.4217;
1157.4000;0.2418;0.4242;
1157.7000;0.2401;0.4266;
1158.0000;0.2401;0.4314;
1158.3000;0.2442;0.4363;
1158.6000;0.2426;0.4217;
1158.9000;0.2442;0.4242;
1159.2000;0.2393;0.4120;
1159.5000;0.2409;0.4217;
1159.8000;0.2426;0.4290;
1160.1000;0.2401;0.4363;
1160.4000;0.2393;0.4290;
1160.7000;0.2401;0.4338;
1161.0000;0.2401;0.4363;
1161.3000;0.2434;0.4460;
1161.6000;0.2426;0.4460;
1161.9000;0.2434;0.4532;
1162.2000;0.2401;0.4460;
1162.5000;0.2418;0.4435;
1162.8000;0.2385;0.4290;
1163.1000;0.2418;0.4314;
1163.4000;0.2426;0.4387;
1163.7000;0.2377;0.4217;
1164.0000;0.2401;0.4314;
1164.3000;0.2385;0.4169;
1164.6000;0.2401;0.4169;
1164.9000;0.2418;0.4145;
1165.2000;0.2401;0.4120;
1165.5000;0.2401;0.4169;
1165.8000;0.2409;0.4290;
1166.1000;0.2401;0.4217;
1166.4000;0.2418;0.4290;
1166.7000;0.2409;0.4266;
1167.0000;0.2401;0.4217;
1167.3000;0.2401;0.4193;
1167.6000;0.2434;0.4242;
1167.9000;0.2409;0.4290;
1168.2000;0.2393;0.4217;
1168.5000;0.2393;0.4242;
1168.8000;0.2418;0.4338;
1169.1000;0.2409;0.4387;
1169.4000;0.2401;0.4314;
1169.7000;0.2393;0.4338;
1170.0000;0.2401;0.4290;
1170.3000;0.2418;0.4290;
1170.6000;0.2401;0.4290;
1170.9000;0.2475;0.4484;
1171.2000;0.2409;0.4338;
1171.5000;0.2401;0.4193;
1171.8000;0.2434;0.4242;
1172.1000;0.2418;0.4193;
1172.4000;0.2401;0.4217;
1172.7000;0.2409;0.4242;
1173.0000;0.2418;0.4169;
1173.3000;0.2369;0.4023;
1173.6000;0.2393;0.4023;
1173.9000;0.2434;0.4193;
1174.2000;0.2418;0.4193;
1174.5000;0.2393;0.4120;
1174.8000;0.2361;0.4023;
1175.1000;0.2418;0.4120;
1175.4000;0.2401;0.4096;
1175.7000;0.2426;0.4145;
1176.0000;0.2393;0.4048;
1176.3000;0.2312;0.3878;
1176.6000;0.2418;0.4193;
1176.9000;0.2409;0.4242;
1177.2000;0.2393;0.4193;
1177.5000;0.2409;0.4242;
1177.8000;0.2409;0.4290;
1178.1000;0.2418;0.4290;
1178.4000;0.2385;0.4096;
1178.7000;0.2344;0.3975;
1179.0000;0.2409;0.4169;
1179.3000;0.2401;0.4193;
1179.6000;0.2369;0.4145;
1179.9000;0.2393;0.4169;
1180.2000;0.2385;0.4145;
1180.5000;0.2418;0.4266;
1180.8000;0.2393;0.4145;
1181.1000;0.2377;0.4120;
1181.4000;0.2418;0.4217;
1181.7000;0.2434;0.4242;
1182.0000;0.2426;0.4266;
1182.3000;0.2393;0.4242;
1182.6000;0.2409;0.4290;
1182.9000;0.2409;0.4193;
1183.2000;0.2418;0.4266;
1183.5000;0.2352;0.4120;
1183.8000;0.2385;0.4266;
1184.1000;0.2393;0.4266;
1184.4000;0.2377;0.4193;
1184.7000;0.2385;0.4217;
1185.0000;0.2401;0.4266;
1185.3000;0.2385;0.4169;
1185.6000;0.2393;0.4193;
1185.9000;0.2287;0.3926;
1186.2000;0.2409;0.4193;
1186.5000;0.2377;0.4120;
1186.8000;0.2418;0.4193;
1187.1000;0.2401;0.4169;
1187.4000;0.2401;0.4193;
1187.7000;0.2393;0.4169;
1188.0000;0.2418;0.4242;
1188.3000;0.2409;0.4193;
1188.6000;0.2385;0.4145;
1188.9000;0.2409;0.4048;
1189.2000;0.2409;0.4120;
1189.5000;0.2418;0.4266;
1189.8000;0.2312;0.4072;
1190.1000;0.2409;0.4290;
1190.4000;0.2385;0.4193;
1190.7000;0.2385;0.4266;
1191.0000;0.2393;0.4363;
1191.3000;0.2409;0.4363;
1191.6000;0.2409;0.4266;
1191.9000;0.2401;0.4217;
1192.2000;0.2409;0.4242;
1192.5000;0.2434;0.4314;
1192.8000;0.2466;0.4338;
1193.1000;0.2426;0.4193;
1193.4000;0.2393;0.4120;
1193.7000;0.2401;0.4120;
1194.0000;0.2377;0.4096;
1194.3000;0.2369;0.4096;
1194.6000;0.2409;0.4217;
1194.9000;0.2393;0.4145;
1195.2000;0.2377;0.4072;
1195.5000;0.2385;0.4120;
1195.8000;0.2377;0.4072;
1196.1000;0.2401;0.4120;
1196.4000;0.2401;0.4048;
1196.7000;0.2418;0.4193;
1197.0000;0.2418;0.4193;
1197.3000;0.2418;0.4266;
1197.6000;0.2385;0.4169;
1197.9000;0.2409;0.4290;
1198.2000;0.2409;0.4338;
1198.5000;0.2304;0.3926;
1198.8000;0.2393;0.4169;
1199.1000;0.2393;0.4145;
1199.4000;0.2320;0.3878;
1199.7000;0.2434;0.4193;
1200.0000;0.2418;0.4193;
1200.3000;0.2401;0.4217;
1200.6000;0.2409;0.4314;
1200.9000;0.2499;0.4508;
1201.2000;0.2426;0.4290;
1201.5000;0.2426;0.4193;
1201.8000;0.2426;0.4145;
1202.1000;0.2418;0.4145;
1202.4000;0.2418;0.4120;
1202.7000;0.2409;0.4096;
1203.0000;0.2401;0.4048;
1203.3000;0.2401;0.3951;
1203.6000;0.2393;0.3878;
1203.9000;0.2401;0.3854;
1204.2000;0.2393;0.3902;
1204.5000;0.2401;0.3951;
1204.8000;0.2393;0.3878;
1205.1000;0.2401;0.3975;
1205.4000;0.2377;0.3878;
1205.7000;0.2401;0.3902;
1206.0000;0.2409;0.4023;
1206.3000;0.2458;0.4169;
1206.6000;0.2409;0.4120;
1206.9000;0.2385;0.4096;
1207.2000;0.2393;0.3999;
1207.5000;0.2409;0.4072;
1207.8000;0.2393;0.3975;
1208.1000;0.2409;0.4048;
1208.4000;0.2409;0.4120;
1208.7000;0.2426;0.4217;
1209.0000;0.2409;0.4193;
1209.3000;0.2418;0.4266;
1209.6000;0.2401;0.4217;
1209.9000;0.2401;0.4217;
1210.2000;0.2401;0.4217;
1210.5000;0.2393;0.4145;
1210.8000;0.2418;0.4169;
1211.1000;0.2409;0.4193;
1211.4000;0.2409;0.4169;
1211.7000;0.2458;0.4290;
1212.0000;0.2434;0.4217;
1212.3000;0.2409;0.4145;
1212.6000;0.2401;0.4193;
1212.9000;0.2426;0.4217;
1213.2000;0.2393;0.4145;
1213.5000;0.2385;0.4048;
1213.8000;0.2393;0.4072;
1214.1000;0.2393;0.3975;
1214.4000;0.2401;0.3999;
1214.7000;0.2409;0.4072;
1215.0000;0.2401;0.4072;
1215.3000;0.2385;0.4048;
1215.6000;0.2434;0.4217;
1215.9000;0.2466;0.4314;
1216.2000;0.2385;0.4072;
1216.5000;0.2409;0.4145;
1216.8000;0.2401;0.4145;
1217.1000;0.2466;0.4290;
1217.4000;0.2418;0.4242;
1217.7000;0.2385;0.4169;
1218.0000;0.2393;0.4145;
1218.3000;0.2409;0.4096;
1218.6000;0.2426;0.4120;
1218.9000;0.2523;0.4266;
1219.2000;0.2385;0.3951;
1219.5000;0.2393;0.3878;
1219.8000;0.2409;0.3975;
1220.1000;0.2450;0.4072;
1220.4000;0.2418;0.4023;
1220.7000;0.2426;0.4048;
1221.0000;0.2466;0.4290;
1221.3000;0.2426;0.4096;
1221.6000;0.2401;0.4048;
1221.9000;0.2401;0.4072;
1222.2000;0.2426;0.4145;
1222.5000;0.2409;0.4169;
1222.8000;0.2401;0.4145;
1223.1000;0.2401;0.4169;
1223.4000;0.2336;0.3951;
1223.7000;0.2409;0.4096;
1224.0000;0.2409;0.4193;
1224.3000;0.2393;0.4145;
1224.6000;0.2401;0.4145;
1224.9000;0.2401;0.4266;
1225.2000;0.2409;0.4242;
1225.5000;0.2385;0.4169;
1225.8000;0.2393;0.4120;
1226.1000;0.2385;0.4120;
1226.4000;0.2442;0.4242;
1226.7000;0.2393;0.4048;
1227.0000;0.2393;0.4048;
1227.3000;0.2377;0.3999;
1227.6000;0.2401;0.4120;
1227.9000;0.2320;0.3926;
1228.2000;0.2401;0.4169;
1228.5000;0.2426;0.4169;
1228.8000;0.2377;0.4096;
1229.1000;0.2401;0.4169;
1229.4000;0.2393;0.4145;
1229.7000;0.2418;0.4193;
1230.0000;0.2409;0.4169;
1230.3000;0.2385;0.4072;
1230.6000;0.2393;0.4145;
1230.9000;0.2401;0.4120;
1231.2000;0.2401;0.4120;
1231.5000;0.2418;0.4120;
1231.8000;0.2418;0.4096;
1232.1000;0.2450;0.4193;
1232.4000;0.2418;0.4072;
1232.7000;0.2369;0.3902;
1233.0000;0.2409;0.3926;
1233.3000;0.2418;0.4023;
1233.6000;0.2426;0.4096;
1233.9000;0.2401;0.4048;
1234.2000;0.2434;0.4072;
1234.5000;0.2409;0.4048;
1234.8000;0.2409;0.4072;
1235.1000;0.2491;0.4314;
1235.4000;0.2418;0.4120;
1235.7000;0.2401;0.4169;
1236.0000;0.2393;0.4242;
1236.3000;0.2426;0.4338;
1236.6000;0.2401;0.4290;
1236.9000;0.2409;0.4338;
1237.2000;0.2418;0.4338;
1237.5000;0.2377;0.4242;
1237.8000;0.2393;0.4290;
1238.1000;0.2401;0.4266;
1238.4000;0.2458;0.4266;
1238.7000;0.2401;0.4120;
1239.0000;0.2442;0.4193;
1239.3000;0.2409;0.3999;
1239.6000;0.2385;0.3926;
1239.9000;0.2393;0.3902;
1240.2000;0.2426;0.3829;
1240.5000;0.2458;0.3951;
1240.8000;0.2369;0.3733;
1241.1000;0.2442;0.3999;
1241.4000;0.2393;0.3975;
1241.7000;0.2393;0.4145;
1242.0000;0.2401;0.4217;
1242.3000;0.2409;0.4169;
1242.6000;0.2426;0.4193;
1242.9000;0.2442;0.4169;
1243.2000;0.2418;0.4120;
1243.5000;0.2409;0.4023;
1243.8000;0.2401;0.4023;
1244.1000;0.2401;0.4096;
1244.4000;0.2409;0.4096;
1244.7000;0.2401;0.3975;
1245.0000;0.2426;0.3999;
1245.3000;0.2426;0.3975;
1245.6000;0.2434;0.4023;
1245.9000;0.2385;0.4072;
1246.2000;0.2393;0.4145;
1246.5000;0.2401;0.4193;
1246.8000;0.2409;0.4145;
1247.1000;0.2377;0.4072;
1247.4000;0.2385;0.3999;
1247.7000;0.2320;0.3829;
1248.0000;0.2409;0.3951;
1248.3000;0.2377;0.3975;
1248.6000;0.2393;0.3999;
1248.9000;0.2409;0.4023;
1249.2000;0.2385;0.4072;
1249.5000;0.2426;0.4145;
1249.8000;0.2393;0.4072;
1250.1000;0.2393;0.4072;
1250.4000;0.2418;0.4120;
1250.7000;0.2401;0.4120;
1251.0000;0.2418;0.4120;
1251.3000;0.2385;0.4072;
1251.6000;0.2385;0.4023;
1251.9000;0.2385;0.4048;
1252.2000;0.2409;0.4096;
1252.5000;0.2401;0.4023;
1252.8000;0.2401;0.4023;
1253.1000;0.2401;0.3999;
1253.4000;0.2418;0.3951;
1253.7000;0.2466;0.4048;
1254.0000;0.2369;0.3805;
1254.3000;0.2377;0.3902;
1254.6000;0.2418;0.3999;
1254.9000;0.2475;0.4193;
1255.2000;0.2393;0.4048;
1255.5000;0.2401;0.4096;
1255.8000;0.2409;0.4096;
1256.1000;0.2418;0.4145;
1256.4000;0.2328;0.3951;
1256.7000;0.2434;0.4193;
1257.0000;0.2385;0.4120;
1257.3000;0.2409;0.4193;
1257.6000;0.2434;0.4242;
1257.9000;0.2442;0.4242;
1258.2000;0.2393;0.3999;
1258.5000;0.2401;0.3999;
1258.8000;0.2466;0.4048;
1259.1000;0.2418;0.3854;
1259.4000;0.2409;0.3829;
1259.7000;0.2393;0.3781;
1260.0000;0.2401;0.3757;
1260.3000;0.2401;0.3829;
1260.6000;0.2418;0.3926;
1260.9000;0.2409;0.3902;
1261.2000;0.2401;0.3902;
1261.5000;0.2401;0.3999;
1261.8000;0.2393;0.4048;
1262.1000;0.2401;0.4096;
1262.4000;0.2409;0.4145;
1262.7000;0.2393;0.4096;
1263.0000;0.2369;0.4072;
1263.3000;0.2418;0.4193;
1263.6000;0.2287;0.3902;
1263.9000;0.2409;0.4169;
1264.2000;0.2409;0.4169;
1264.5000;0.2393;0.4120;
1264.8000;0.2475;0.4363;
1265.1000;0.2361;0.4072;
1265.4000;0.2385;0.4120;
1265.7000;0.2401;0.4217;
1266.0000;0.2418;0.4242;
1266.3000;0.2369;0.4169;
1266.6000;0.2312;0.4072;
1266.9000;0.2369;0.4193;
1267.2000;0.2409;0.4314;
1267.5000;0.2409;0.4314;
1267.8000;0.2418;0.4242;
1268.1000;0.2401;0.4242;
1268.4000;0.2409;0.4338;
1268.7000;0.2418;0.4387;
1269.0000;0.2393;0.4217;
1269.3000;0.2409;0.4242;
1269.6000;0.2352;0.4145;
1269.9000;0.2409;0.4169;
1270.2000;0.2426;0.4169;
1270.5000;0.2426;0.4048;
1270.8000;0.2418;0.4096;
1271.1000;0.2401;0.4072;
1271.4000;0.2409;0.4072;
1271.7000;0.2401;0.3999;
1272.0000;0.2418;0.3999;
1272.3000;0.2352;0.3878;
1272.6000;0.2434;0.4120;
1272.9000;0.2418;0.4072;
1273.2000;0.2401;0.4023;
1273.5000;0.2385;0.4048;
1273.8000;0.2401;0.4096;
1274.1000;0.2409;0.4145;
1274.4000;0.2304;0.3781;
1274.7000;0.2401;0.4048;
1275.0000;0.2418;0.3999;
1275.3000;0.2393;0.3926;
1275.6000;0.2401;0.3926;
1275.9000;0.2401;0.3951;
1276.2000;0.2401;0.4048;
1276.5000;0.2418;0.4120;
1276.8000;0.2401;0.3975;
1277.1000;0.2418;0.4120;
1277.4000;0.2418;0.4217;
1277.7000;0.2409;0.4217;
1278.0000;0.2409;0.4217;
1278.3000;0.2393;0.4145;
1278.6000;0.2393;0.4120;
1278.9000;0.2409;0.4145;
1279.2000;0.2401;0.4145;
1279.5000;0.2401;0.4120;
1279.8000;0.2418;0.4169;
1280.1000;0.2377;0.4023;
1280.4000;0.2377;0.4072;
1280.7000;0.2385;0.4169;
1281.0000;0.2401;0.4217;
1281.3000;0.2458;0.4290;
1281.6000;0.2409;0.4193;
1281.9000;0.2336;0.4120;
1282.2000;0.2377;0.4242;
1282.5000;0.2401;0.4242;
1282.8000;0.2409;0.4266;
1283.1000;0.2409;0.4266;
1283.4000;0.2393;0.4242;
1283.7000;0.2393;0.4242;
1284.0000;0.2426;0.4169;
1284.3000;0.2426;0.4072;
1284.6000;0.2401;0.3951;
1284.9000;0.2418;0.3999;
1285.2000;0.2418;0.4048;
1285.5000;0.2409;0.3999;
1285.8000;0.2401;0.4048;
1286.1000;0.2491;0.4387;
1286.4000;0.2401;0.4193;
1286.7000;0.2393;0.4169;
1287.0000;0.2418;0.4266;
1287.3000;0.2377;0.4120;
1287.6000;0.2393;0.4120;
1287.9000;0.2409;0.4072;
1288.2000;0.2401;0.4048;
1288.5000;0.2385;0.4023;
1288.8000;0.2369;0.3999;
1289.1000;0.2401;0.4048;
1289.4000;0.2409;0.4096;
1289.7000;0.2450;0.4314;
1290.0000;0.2393;0.4120;
1290.3000;0.2361;0.4120;
1290.6000;0.2418;0.4217;
1290.9000;0.2409;0.4193;
1291.2000;0.2450;0.4314;
1291.5000;0.2393;0.4169;
1291.8000;0.2369;0.3999;
1292.1000;0.2426;0.4120;
1292.4000;0.2409;0.4120;
1292.7000;0.2409;0.4048;
1293.0000;0.2401;0.4023;
1293.3000;0.2475;0.4266;
1293.6000;0.2385;0.4145;
1293.9000;0.2409;0.4217;
1294.2000;0.2409;0.4193;
1294.5000;0.2426;0.4193;
1294.8000;0.2418;0.4023;
1295.1000;0.2401;0.3975;
1295.4000;0.2401;0.3975;
1295.7000;0.2418;0.4048;
1296.0000;0.2401;0.4048;
1296.3000;0.2409;0.4023;
1296.6000;0.2434;0.4096;
1296.9000;0.2409;0.3975;
1297.2000;0.2426;0.4023;
1297.5000;0.2409;0.3951;
1297.8000;0.2401;0.4023;
1298.1000;0.2401;0.4072;
1298.4000;0.2418;0.4072;
1298.7000;0.2409;0.4096;
1299.0000;0.2401;0.4048;
1299.3000;0.2434;0.4048;
1299.6000;0.2393;0.3951;
1299.9000;0.2409;0.3999;
1300.2000;0.2409;0.3975;
1300.5000;0.2418;0.3975;
1300.8000;0.2409;0.3999;
1301.1000;0.2450;0.4120;
1301.4000;0.2393;0.4048;
1301.7000;0.2409;0.4072;
1302.0000;0.2466;0.4290;
1302.3000;0.2401;0.4145;
1302.6000;0.2409;0.4072;
1302.9000;0.2409;0.4048;
1303.2000;0.2418;0.4023;
1303.5000;0.2377;0.3878;
1303.8000;0.2475;0.4193;
1304.1000;0.2401;0.3951;
1304.4000;0.2426;0.3999;
1304.7000;0.2385;0.3999;
1305.0000;0.2475;0.4169;
1305.3000;0.2434;0.4048;
1305.6000;0.2418;0.4023;
1305.9000;0.2418;0.3999;
1306.2000;0.2426;0.4096;
1306.5000;0.2401;0.3999;
1306.8000;0.2418;0.3926;
1307.1000;0.2409;0.3951;
1307.4000;0.2426;0.4048;
1307.7000;0.2385;0.3926;
1308.0000;0.2418;0.4048;
1308.3000;0.2434;0.4072;
1308.6000;0.2409;0.3975;
1308.9000;0.2442;0.4048;
1309.2000;0.2409;0.3975;
1309.5000;0.2418;0.4023;
1309.8000;0.2434;0.4169;
1310.1000;0.2426;0.4145;
1310.4000;0.2393;0.4048;
1310.7000;0.2532;0.4363;
1311.0000;0.2401;0.4048;
1311.3000;0.2377;0.4023;
1311.6000;0.2401;0.4145;
1311.9000;0.2418;0.4145;
1312.2000;0.2385;0.4120;
1312.5000;0.2393;0.4072;
1312.8000;0.2418;0.4145;
1313.1000;0.2393;0.4096;
1313.4000;0.2426;0.4193;
1313.7000;0.2426;0.4096;
1314.0000;0.2401;0.4072;
1314.3000;0.2409;0.3999;
1314.6000;0.2401;0.4048;
1314.9000;0.2458;0.4169;
1315.2000;0.2434;0.4096;
1315.5000;0.2401;0.3999;
1315.8000;0.2409;0.3975;
1316.1000;0.2409;0.3951;
1316.4000;0.2426;0.4023;
1316.7000;0.2418;0.4048;
1317.0000;0.2409;0.3951;
1317.3000;0.2369;0.3878;
1317.6000;0.2385;0.3926;
1317.9000;0.2320;0.3684;
1318.2000;0.2393;0.3902;
1318.5000;0.2352;0.3805;
1318.8000;0.2401;0.3951;
1319.1000;0.2393;0.4023;
1319.4000;0.2385;0.4072;
1319.7000;0.2401;0.4145;
1320.0000;0.2418;0.4120;
1320.3000;0.2426;0.4096;
1320.6000;0.2418;0.4072;
1320.9000;0.2434;0.4023;
1321.2000;0.2434;0.4023;
1321.5000;0.2393;0.3902;
1321.8000;0.2409;0.4072;
1322.1000;0.2409;0.4072;
1322.4000;0.2434;0.4145;
1322.7000;0.2409;0.4145;
1323.0000;0.2409;0.4193;
1323.3000;0.2418;0.4169;
1323.6000;0.2409;0.4169;
1323.9000;0.2409;0.4145;
1324.2000;0.2393;0.4048;
1324.5000;0.2418;0.4023;
1324.8000;0.2442;0.4120;
1325.1000;0.2409;0.3999;
1325.4000;0.2450;0.4072;
1325.7000;0.2418;0.3805;
1326.0000;0.2418;0.3781;
1326.3000;0.2401;0.3757;
1326.6000;0.2426;0.3781;
1326.9000;0.2401;0.3781;
1327.2000;0.2426;0.3854;
1327.5000;0.2426;0.3829;
1327.8000;0.2418;0.3829;
1328.1000;0.2409;0.3829;
1328.4000;0.2336;0.3757;
1328.7000;0.2466;0.4072;
1329.0000;0.2418;0.3926;
1329.3000;0.2385;0.3805;
1329.6000;0.2401;0.3805;
1329.9000;0.2418;0.3781;
1330.2000;0.2426;0.3805;
1330.5000;0.2483;0.3999;
1330.8000;0.2418;0.3757;
1331.1000;0.2458;0.3926;
1331.4000;0.2418;0.3854;
1331.7000;0.2409;0.3926;
1332.0000;0.2442;0.4072;
1332.3000;0.2385;0.4048;
1332.6000;0.2401;0.3975;
1332.9000;0.2483;0.4217;
1333.2000;0.2393;0.3999;
1333.5000;0.2401;0.3951;
1333.8000;0.2434;0.3902;
1334.1000;0.2401;0.3829;
1334.4000;0.2409;0.3757;
1334.7000;0.2418;0.3805;
1335.0000;0.2450;0.3999;
1335.3000;0.2426;0.3975;
1335.6000;0.2409;0.3975;
1335.9000;0.2328;0.3781;
1336.2000;0.2434;0.4072;
1336.5000;0.2418;0.4120;
1336.8000;0.2418;0.4120;
1337.1000;0.2385;0.3926;
1337.4000;0.2409;0.4048;
1337.7000;0.2401;0.4023;
1338.0000;0.2385;0.4072;
1338.3000;0.2401;0.4072;
1338.6000;0.2401;0.4048;
1338.9000;0.2434;0.4023;
1339.2000;0.2466;0.4096;
1339.5000;0.2409;0.3975;
1339.8000;0.2401;0.3975;
1340.1000;0.2409;0.4023;
1340.4000;0.2458;0.4145;
1340.7000;0.2401;0.4072;
1341.0000;0.2418;0.4072;
1341.3000;0.2401;0.4120;
1341.6000;0.2426;0.4096;
1341.9000;0.2401;0.4072;
1342.2000;0.2385;0.4048;
1342.5000;0.2426;0.4120;
1342.8000;0.2434;0.4096;
1343.1000;0.2426;0.3999;
1343.4000;0.2556;0.4242;
1343.7000;0.2418;0.3878;
1344.0000;0.2434;0.3926;
1344.3000;0.2418;0.3878;
1344.6000;0.2377;0.3684;
1344.9000;0.2409;0.3733;
1345.2000;0.2434;0.3829;
1345.5000;0.2442;0.3781;
1345.8000;0.2483;0.3805;
1346.1000;0.2409;0.3636;
1346.4000;0.2409;0.3708;
1346.7000;0.2401;0.3757;
1347.0000;0.2418;0.3781;
1347.3000;0.2377;0.3757;
1347.6000;0.2426;0.3878;
1347.9000;0.2409;0.3878;
1348.2000;0.2385;0.3878;
1348.5000;0.2393;0.3854;
1348.8000;0.2418;0.3975;
1349.1000;0.2491;0.4290;
1349.4000;0.2385;0.3902;
1349.7000;0.2385;0.3951;
1350.0000;0.2401;0.3999;
1350.3000;0.2434;0.4048;
1350.6000;0.2491;0.4145;
1350.9000;0.2418;0.3951;
1351.2000;0.2401;0.3999;
1351.5000;0.2401;0.3999;
1351.8000;0.2426;0.4120;
1352.1000;0.2499;0.4314;
1352.4000;0.2401;0.4048;
1352.7000;0.2434;0.4072;
1353.0000;0.2418;0.4072;
1353.3000;0.2385;0.4048;
1353.6000;0.2401;0.4145;
1353.9000;0.2409;0.4266;
1354.2000;0.2458;0.4387;
1354.5000;0.2401;0.4217;
1354.8000;0.2401;0.4145;
1355.1000;0.2377;0.3975;
1355.4000;0.2361;0.4023;
1355.7000;0.2426;0.4242;
1356.0000;0.2377;0.4096;
1356.3000;0.2409;0.4169;
1356.6000;0.2442;0.4338;
1356.9000;0.2385;0.4193;
1357.2000;0.2401;0.4145;
1357.5000;0.2426;0.4169;
1357.8000;0.2409;0.4169;
1358.1000;0.2409;0.4266;
1358.4000;0.2409;0.4290;
1358.7000;0.2409;0.4363;
1359.0000;0.2369;0.4266;
1359.3000;0.2409;0.4435;
1359.6000;0.2434;0.4460;
1359.9000;0.2369;0.4266;
1360.2000;0.2442;0.4411;
1360.5000;0.2401;0.4217;
1360.8000;0.2409;0.4193;
1361.1000;0.2409;0.4145;
1361.4000;0.2409;0.4120;
1361.7000;0.2401;0.4048;
1362.0000;0.2426;0.4048;
1362.3000;0.2442;0.4120;
1362.6000;0.2409;0.3926;
1362.9000;0.2458;0.4072;
1363.2000;0.2426;0.3999;
1363.5000;0.2426;0.4023;
1363.8000;0.2409;0.4096;
1364.1000;0.2434;0.4217;
1364.4000;0.2418;0.4266;
1364.7000;0.2450;0.4363;
1365.0000;0.2409;0.4266;
1365.3000;0.2418;0.4217;
1365.6000;0.2418;0.4266;
1365.9000;0.2409;0.4314;
1366.2000;0.2418;0.4411;
1366.5000;0.2418;0.4460;
1366.8000;0.2385;0.4460;
1367.1000;0.2434;0.4557;
1367.4000;0.2507;0.4726;
1367.7000;0.2491;0.4678;
1368.0000;0.2409;0.4484;
1368.3000;0.2409;0.4460;
1368.6000;0.2458;0.4581;
1368.9000;0.2418;0.4460;
1369.2000;0.2418;0.4363;
1369.5000;0.2401;0.4314;
1369.8000;0.2426;0.4387;
1370.1000;0.2426;0.4338;
1370.4000;0.2401;0.4242;
1370.7000;0.2377;0.4145;
1371.0000;0.2466;0.4411;
1371.3000;0.2483;0.4435;
1371.6000;0.2483;0.4363;
1371.9000;0.2434;0.4193;
1372.2000;0.2458;0.4314;
1372.5000;0.2401;0.4193;
1372.8000;0.2401;0.4169;
1373.1000;0.2418;0.4169;
1373.4000;0.2442;0.4242;
1373.7000;0.2401;0.4096;
1374.0000;0.2401;0.4145;
1374.3000;0.2369;0.4048;
1374.6000;0.2409;0.4145;
1374.9000;0.2409;0.4072;
1375.2000;0.2401;0.3999;
1375.5000;0.2418;0.4023;
1375.8000;0.2426;0.4120;
1376.1000;0.2401;0.4048;
1376.4000;0.2418;0.4169;
1376.7000;0.2401;0.4096;
1377.0000;0.2418;0.4120;
1377.3000;0.2409;0.4242;
1377.6000;0.2385;0.4193;
1377.9000;0.2418;0.4242;
1378.2000;0.2418;0.4193;
1378.5000;0.2426;0.4242;
1378.8000;0.2426;0.4217;
1379.1000;0.2418;0.4169;
1379.4000;0.2426;0.4242;
1379.7000;0.2418;0.4169;
1380.0000;0.2418;0.4145;
1380.3000;0.2418;0.4169;
1380.6000;0.2369;0.4048;
1380.9000;0.2393;0.4145;
1381.2000;0.2401;0.4145;
1381.5000;0.2418;0.4169;
1381.8000;0.2499;0.4460;
1382.1000;0.2409;0.4266;
1382.4000;0.2409;0.4266;
1382.7000;0.2409;0.4338;
1383.0000;0.2401;0.4338;
1383.3000;0.2426;0.4411;
1383.6000;0.2426;0.4411;
1383.9000;0.2475;0.4557;
1384.2000;0.2418;0.4387;
1384.5000;0.2401;0.4363;
1384.8000;0.2401;0.4435;
1385.1000;0.2377;0.4411;
1385.4000;0.2393;0.4363;
1385.7000;0.2418;0.4338;
1386.0000;0.2409;0.4217;
1386.3000;0.2418;0.4193;
1386.6000;0.2409;0.4217;
1386.9000;0.2418;0.4242;
1387.2000;0.2564;0.4557;
1387.5000;0.2418;0.4145;
1387.8000;0.2475;0.4290;
1388.1000;0.2466;0.4217;
1388.4000;0.2352;0.3926;
1388.7000;0.2434;0.4048;
1389.0000;0.2393;0.3999;
1389.3000;0.2393;0.3951;
1389.6000;0.2434;0.4096;
1389.9000;0.2401;0.3975;
1390.2000;0.2434;0.4048;
1390.5000;0.2426;0.4145;
1390.8000;0.2418;0.4023;
1391.1000;0.2418;0.4120;
1391.4000;0.2426;0.4242;
1391.7000;0.2418;0.4145;
1392.0000;0.2409;0.4145;
1392.3000;0.2434;0.4217;
1392.6000;0.2450;0.4242;
1392.9000;0.2450;0.4169;
1393.2000;0.2409;0.4120;
1393.5000;0.2409;0.4072;
1393.8000;0.2409;0.4023;
1394.1000;0.2418;0.4023;
1394.4000;0.2401;0.3975;
1394.7000;0.2385;0.3975;
1395.0000;0.2466;0.4169;
1395.3000;0.2401;0.3902;
1395.6000;0.2475;0.4072;
1395.9000;0.2393;0.3829;
1396.2000;0.2401;0.3805;
1396.5000;0.2385;0.3733;
1396.8000;0.2377;0.3733;
1397.1000;0.2393;0.3878;
1397.4000;0.2409;0.3878;
1397.7000;0.2344;0.3684;
1398.0000;0.2409;0.3757;
1398.3000;0.2401;0.3878;
1398.6000;0.2409;0.3902;
1398.9000;0.2426;0.3975;
1399.2000;0.2418;0.3926;
1399.5000;0.2401;0.3829;
1399.8000;0.2466;0.3926;
