time/ms;Fluo/V;P700 deltaI/I x10³;
-199.8000;0.2475;0.3030;
-199.5000;0.2475;0.3030;
-199.2000;0.2483;0.3030;
-198.9000;0.2450;0.2933;
-198.6000;0.2475;0.3005;
-198.3000;0.2458;0.2957;
-198.0000;0.2483;0.3005;
-197.7000;0.2434;0.2812;
-197.4000;0.2450;0.2836;
-197.1000;0.2499;0.2884;
-196.8000;0.2458;0.2787;
-196.5000;0.2466;0.2860;
-196.2000;0.2475;0.2836;
-195.9000;0.2475;0.2860;
-195.6000;0.2418;0.2812;
-195.3000;0.2458;0.2957;
-195.0000;0.2458;0.3030;
-194.7000;0.2434;0.2957;
-194.4000;0.2466;0.3102;
-194.1000;0.2483;0.3151;
-193.8000;0.2458;0.3030;
-193.5000;0.2466;0.2933;
-193.2000;0.2466;0.2908;
-192.9000;0.2483;0.2908;
-192.6000;0.2483;0.2908;
-192.3000;0.2532;0.3005;
-192.0000;0.2475;0.2933;
-191.7000;0.2483;0.2933;
-191.4000;0.2458;0.2933;
-191.1000;0.2442;0.2908;
-190.8000;0.2450;0.2933;
-190.5000;0.2475;0.2981;
-190.2000;0.2475;0.2908;
-189.9000;0.2450;0.2836;
-189.6000;0.2466;0.2908;
-189.3000;0.2458;0.2884;
-189.0000;0.2418;0.2884;
-188.7000;0.2450;0.3030;
-188.4000;0.2499;0.3224;
-188.1000;0.2458;0.3151;
-187.8000;0.2483;0.3127;
-187.5000;0.2483;0.3030;
-187.2000;0.2483;0.3078;
-186.9000;0.2450;0.3054;
-186.6000;0.2556;0.3248;
-186.3000;0.2466;0.2981;
-186.0000;0.2491;0.3030;
-185.7000;0.2458;0.2908;
-185.4000;0.2515;0.3054;
-185.1000;0.2499;0.3030;
-184.8000;0.2458;0.2981;
-184.5000;0.2450;0.2981;
-184.2000;0.2483;0.3030;
-183.9000;0.2499;0.3078;
-183.6000;0.2491;0.3078;
-183.3000;0.2475;0.3127;
-183.0000;0.2475;0.3054;
-182.7000;0.2491;0.2957;
-182.4000;0.2466;0.2812;
-182.1000;0.2483;0.2860;
-181.8000;0.2466;0.2860;
-181.5000;0.2483;0.2884;
-181.2000;0.2475;0.2933;
-180.9000;0.2491;0.2981;
-180.6000;0.2491;0.3005;
-180.3000;0.2491;0.2908;
-180.0000;0.2515;0.2981;
-179.7000;0.2466;0.2860;
-179.4000;0.2475;0.2933;
-179.1000;0.2483;0.3054;
-178.8000;0.2483;0.3078;
-178.5000;0.2483;0.2933;
-178.2000;0.2483;0.2860;
-177.9000;0.2483;0.2787;
-177.6000;0.2450;0.2690;
-177.3000;0.2475;0.2690;
-177.0000;0.2458;0.2715;
-176.7000;0.2483;0.2836;
-176.4000;0.2483;0.2884;
-176.1000;0.2466;0.2884;
-175.8000;0.2475;0.2884;
-175.5000;0.2499;0.2981;
-175.2000;0.2458;0.2884;
-174.9000;0.2385;0.2739;
-174.6000;0.2466;0.2981;
-174.3000;0.2466;0.2981;
-174.0000;0.2475;0.3054;
-173.7000;0.2483;0.3030;
-173.4000;0.2483;0.3030;
-173.1000;0.2491;0.3005;
-172.8000;0.2491;0.3005;
-172.5000;0.2483;0.3005;
-172.2000;0.2475;0.3005;
-171.9000;0.2466;0.2981;
-171.6000;0.2466;0.2981;
-171.3000;0.2458;0.3005;
-171.0000;0.2458;0.2981;
-170.7000;0.2458;0.3005;
-170.4000;0.2466;0.3078;
-170.1000;0.2499;0.3030;
-169.8000;0.2475;0.2884;
-169.5000;0.2475;0.2908;
-169.2000;0.2466;0.2884;
-168.9000;0.2475;0.2884;
-168.6000;0.2466;0.2957;
-168.3000;0.2475;0.2981;
-168.0000;0.2458;0.2981;
-167.7000;0.2466;0.2957;
-167.4000;0.2475;0.2981;
-167.1000;0.2491;0.3005;
-166.8000;0.2475;0.2957;
-166.5000;0.2523;0.3127;
-166.2000;0.2475;0.3030;
-165.9000;0.2491;0.3005;
-165.6000;0.2540;0.3054;
-165.3000;0.2475;0.2981;
-165.0000;0.2507;0.3151;
-164.7000;0.2434;0.2933;
-164.4000;0.2466;0.2981;
-164.1000;0.2475;0.3054;
-163.8000;0.2532;0.3078;
-163.5000;0.2418;0.2884;
-163.2000;0.2475;0.2957;
-162.9000;0.2475;0.2836;
-162.6000;0.2491;0.2933;
-162.3000;0.2466;0.2933;
-162.0000;0.2646;0.3345;
-161.7000;0.2458;0.2836;
-161.4000;0.2458;0.2957;
-161.1000;0.2475;0.3005;
-160.8000;0.2475;0.2957;
-160.5000;0.2466;0.2957;
-160.2000;0.2466;0.2981;
-159.9000;0.2458;0.2957;
-159.6000;0.2426;0.2884;
-159.3000;0.2458;0.2884;
-159.0000;0.2450;0.2836;
-158.7000;0.2458;0.2933;
-158.4000;0.2458;0.2860;
-158.1000;0.2483;0.2908;
-157.8000;0.2458;0.2860;
-157.5000;0.2466;0.2860;
-157.2000;0.2483;0.2933;
-156.9000;0.2483;0.2860;
-156.6000;0.2442;0.2739;
-156.3000;0.2475;0.2884;
-156.0000;0.2466;0.2884;
-155.7000;0.2466;0.2933;
-155.4000;0.2475;0.2933;
-155.1000;0.2483;0.3030;
-154.8000;0.2458;0.2957;
-154.5000;0.2475;0.3005;
-154.2000;0.2475;0.3005;
-153.9000;0.2458;0.3030;
-153.6000;0.2483;0.2981;
-153.3000;0.2491;0.2957;
-153.0000;0.2499;0.2908;
-152.7000;0.2483;0.2812;
-152.4000;0.2491;0.2787;
-152.1000;0.2450;0.2715;
-151.8000;0.2483;0.2763;
-151.5000;0.2458;0.2787;
-151.2000;0.2491;0.2860;
-150.9000;0.2466;0.2836;
-150.6000;0.2483;0.2933;
-150.3000;0.2466;0.2812;
-150.0000;0.2466;0.2739;
-149.7000;0.2483;0.2812;
-149.4000;0.2483;0.2739;
-149.1000;0.2483;0.2715;
-148.8000;0.2450;0.2715;
-148.5000;0.2450;0.2690;
-148.2000;0.2475;0.2836;
-147.9000;0.2458;0.2763;
-147.6000;0.2458;0.2739;
-147.3000;0.2458;0.2715;
-147.0000;0.2466;0.2739;
-146.7000;0.2483;0.2690;
-146.4000;0.2442;0.2642;
-146.1000;0.2450;0.2618;
-145.8000;0.2475;0.2690;
-145.5000;0.2458;0.2593;
-145.2000;0.2450;0.2642;
-144.9000;0.2466;0.2739;
-144.6000;0.2491;0.2787;
-144.3000;0.2369;0.2424;
-144.0000;0.2483;0.2739;
-143.7000;0.2483;0.2715;
-143.4000;0.2466;0.2739;
-143.1000;0.2475;0.2715;
-142.8000;0.2466;0.2787;
-142.5000;0.2532;0.2981;
-142.2000;0.2483;0.2836;
-141.9000;0.2491;0.2836;
-141.6000;0.2483;0.2787;
-141.3000;0.2597;0.3078;
-141.0000;0.2475;0.2812;
-140.7000;0.2483;0.2812;
-140.4000;0.2540;0.3054;
-140.1000;0.2442;0.2642;
-139.8000;0.2491;0.2690;
-139.5000;0.2564;0.2884;
-139.2000;0.2499;0.2715;
-138.9000;0.2450;0.2715;
-138.6000;0.2458;0.2763;
-138.3000;0.2475;0.2860;
-138.0000;0.2475;0.2933;
-137.7000;0.2466;0.2981;
-137.4000;0.2491;0.3005;
-137.1000;0.2475;0.2884;
-136.8000;0.2442;0.2739;
-136.5000;0.2483;0.2715;
-136.2000;0.2458;0.2642;
-135.9000;0.2458;0.2715;
-135.6000;0.2483;0.2812;
-135.3000;0.2483;0.2933;
-135.0000;0.2483;0.2981;
-134.7000;0.2450;0.2957;
-134.4000;0.2466;0.3030;
-134.1000;0.2450;0.2957;
-133.8000;0.2475;0.2933;
-133.5000;0.2458;0.2884;
-133.2000;0.2466;0.2860;
-132.9000;0.2483;0.2836;
-132.6000;0.2475;0.2908;
-132.3000;0.2458;0.2836;
-132.0000;0.2369;0.2496;
-131.7000;0.2466;0.2763;
-131.4000;0.2458;0.2739;
-131.1000;0.2475;0.2812;
-130.8000;0.2475;0.2715;
-130.5000;0.2483;0.2642;
-130.2000;0.2499;0.2715;
-129.9000;0.2361;0.2448;
-129.6000;0.2483;0.2763;
-129.3000;0.2491;0.2812;
-129.0000;0.2475;0.2836;
-128.7000;0.2483;0.2836;
-128.4000;0.2483;0.2836;
-128.1000;0.2475;0.2787;
-127.8000;0.2475;0.2836;
-127.5000;0.2475;0.2787;
-127.2000;0.2393;0.2521;
-126.9000;0.2475;0.2763;
-126.6000;0.2491;0.2812;
-126.3000;0.2483;0.2812;
-126.0000;0.2442;0.2739;
-125.7000;0.2466;0.2836;
-125.4000;0.2466;0.2933;
-125.1000;0.2458;0.2836;
-124.8000;0.2483;0.2884;
-124.5000;0.2483;0.2860;
-124.2000;0.2483;0.2763;
-123.9000;0.2466;0.2690;
-123.6000;0.2466;0.2715;
-123.3000;0.2466;0.2690;
-123.0000;0.2475;0.2763;
-122.7000;0.2466;0.2715;
-122.4000;0.2475;0.2763;
-122.1000;0.2466;0.2787;
-121.8000;0.2466;0.2715;
-121.5000;0.2491;0.2739;
-121.2000;0.2450;0.2690;
-120.9000;0.2466;0.2763;
-120.6000;0.2466;0.2836;
-120.3000;0.2475;0.2884;
-120.0000;0.2499;0.2884;
-119.7000;0.2450;0.2763;
-119.4000;0.2458;0.2812;
-119.1000;0.2466;0.2812;
-118.8000;0.2491;0.2884;
-118.5000;0.2475;0.2860;
-118.2000;0.2458;0.2812;
-117.9000;0.2483;0.2812;
-117.6000;0.2426;0.2642;
-117.3000;0.2466;0.2690;
-117.0000;0.2466;0.2715;
-116.7000;0.2336;0.2351;
-116.4000;0.2475;0.2763;
-116.1000;0.2475;0.2787;
-115.8000;0.2466;0.2763;
-115.5000;0.2475;0.2763;
-115.2000;0.2466;0.2787;
-114.9000;0.2458;0.2836;
-114.6000;0.2458;0.2836;
-114.3000;0.2475;0.2836;
-114.0000;0.2458;0.2836;
-113.7000;0.2483;0.2884;
-113.4000;0.2491;0.2884;
-113.1000;0.2475;0.2933;
-112.8000;0.2466;0.2860;
-112.5000;0.2483;0.2884;
-112.2000;0.2466;0.2957;
-111.9000;0.2458;0.2933;
-111.6000;0.2458;0.2908;
-111.3000;0.2466;0.2933;
-111.0000;0.2466;0.3005;
-110.7000;0.2491;0.3030;
-110.4000;0.2483;0.2860;
-110.1000;0.2475;0.2812;
-109.8000;0.2491;0.2763;
-109.5000;0.2458;0.2642;
-109.2000;0.2466;0.2666;
-108.9000;0.2475;0.2666;
-108.6000;0.2475;0.2763;
-108.3000;0.2483;0.2836;
-108.0000;0.2491;0.2812;
-107.7000;0.2475;0.2812;
-107.4000;0.2483;0.2884;
-107.1000;0.2475;0.2908;
-106.8000;0.2458;0.2884;
-106.5000;0.2458;0.2908;
-106.2000;0.2475;0.2884;
-105.9000;0.2409;0.2739;
-105.6000;0.2466;0.2787;
-105.3000;0.2491;0.2884;
-105.0000;0.2475;0.2860;
-104.7000;0.2483;0.2981;
-104.4000;0.2475;0.2957;
-104.1000;0.2475;0.2908;
-103.8000;0.2491;0.2836;
-103.5000;0.2483;0.2763;
-103.2000;0.2442;0.2569;
-102.9000;0.2491;0.2690;
-102.6000;0.2466;0.2666;
-102.3000;0.2483;0.2618;
-102.0000;0.2483;0.2642;
-101.7000;0.2483;0.2618;
-101.4000;0.2466;0.2618;
-101.1000;0.2491;0.2666;
-100.8000;0.2466;0.2618;
-100.5000;0.2475;0.2642;
-100.2000;0.2572;0.2933;
-99.9000;0.2466;0.2642;
-99.6000;0.2466;0.2618;
-99.3000;0.2458;0.2569;
-99.0000;0.2523;0.2763;
-98.7000;0.2483;0.2690;
-98.4000;0.2475;0.2690;
-98.1000;0.2458;0.2618;
-97.8000;0.2466;0.2642;
-97.5000;0.2466;0.2666;
-97.2000;0.2466;0.2739;
-96.9000;0.2458;0.2739;
-96.6000;0.2466;0.2787;
-96.3000;0.2442;0.2715;
-96.0000;0.2466;0.2812;
-95.7000;0.2491;0.2908;
-95.4000;0.2458;0.2933;
-95.1000;0.2466;0.2860;
-94.8000;0.2466;0.2812;
-94.5000;0.2483;0.2787;
-94.2000;0.2491;0.2715;
-93.9000;0.2491;0.2739;
-93.6000;0.2426;0.2690;
-93.3000;0.2483;0.2763;
-93.0000;0.2523;0.2836;
-92.7000;0.2515;0.2884;
-92.4000;0.2475;0.2812;
-92.1000;0.2475;0.2908;
-91.8000;0.2556;0.3151;
-91.5000;0.2466;0.2933;
-91.2000;0.2475;0.2957;
-90.9000;0.2458;0.2957;
-90.6000;0.2475;0.2981;
-90.3000;0.2466;0.3005;
-90.0000;0.2466;0.2957;
-89.7000;0.2491;0.3102;
-89.4000;0.2475;0.3030;
-89.1000;0.2458;0.3005;
-88.8000;0.2450;0.2836;
-88.5000;0.2466;0.2812;
-88.2000;0.2466;0.2836;
-87.9000;0.2483;0.2884;
-87.6000;0.2466;0.2908;
-87.3000;0.2491;0.2981;
-87.0000;0.2483;0.3054;
-86.7000;0.2475;0.2957;
-86.4000;0.2475;0.2884;
-86.1000;0.2450;0.2836;
-85.8000;0.2466;0.2812;
-85.5000;0.2466;0.2812;
-85.2000;0.2475;0.2812;
-84.9000;0.2466;0.2812;
-84.6000;0.2475;0.2860;
-84.3000;0.2483;0.2957;
-84.0000;0.2483;0.3005;
-83.7000;0.2475;0.2933;
-83.4000;0.2491;0.3078;
-83.1000;0.2466;0.3005;
-82.8000;0.2466;0.2981;
-82.5000;0.2466;0.2933;
-82.2000;0.2434;0.2836;
-81.9000;0.2475;0.2957;
-81.6000;0.2466;0.2981;
-81.3000;0.2442;0.2884;
-81.0000;0.2450;0.2836;
-80.7000;0.2466;0.2812;
-80.4000;0.2483;0.2812;
-80.1000;0.2458;0.2715;
-79.8000;0.2466;0.2860;
-79.5000;0.2483;0.2957;
-79.2000;0.2507;0.3005;
-78.9000;0.2475;0.2957;
-78.6000;0.2491;0.2957;
-78.3000;0.2532;0.3078;
-78.0000;0.2499;0.2981;
-77.7000;0.2499;0.2908;
-77.4000;0.2475;0.2860;
-77.1000;0.2409;0.2642;
-76.8000;0.2491;0.2836;
-76.5000;0.2475;0.2860;
-76.2000;0.2458;0.2715;
-75.9000;0.2483;0.2812;
-75.6000;0.2507;0.2908;
-75.3000;0.2466;0.2836;
-75.0000;0.2434;0.2812;
-74.7000;0.2458;0.2933;
-74.4000;0.2466;0.2957;
-74.1000;0.2475;0.3102;
-73.8000;0.2507;0.3127;
-73.5000;0.2483;0.2957;
-73.2000;0.2475;0.2933;
-72.9000;0.2442;0.2884;
-72.6000;0.2458;0.2933;
-72.3000;0.2393;0.2763;
-72.0000;0.2491;0.2933;
-71.7000;0.2499;0.2884;
-71.4000;0.2475;0.2787;
-71.1000;0.2483;0.2763;
-70.8000;0.2458;0.2690;
-70.5000;0.2466;0.2690;
-70.2000;0.2507;0.2836;
-69.9000;0.2458;0.2763;
-69.6000;0.2475;0.2884;
-69.3000;0.2475;0.2884;
-69.0000;0.2523;0.2908;
-68.7000;0.2466;0.2642;
-68.4000;0.2450;0.2690;
-68.1000;0.2491;0.2715;
-67.8000;0.2475;0.2690;
-67.5000;0.2377;0.2545;
-67.2000;0.2344;0.2472;
-66.9000;0.2475;0.2715;
-66.6000;0.2458;0.2715;
-66.3000;0.2466;0.2690;
-66.0000;0.2434;0.2593;
-65.7000;0.2475;0.2763;
-65.4000;0.2466;0.2836;
-65.1000;0.2458;0.2836;
-64.8000;0.2450;0.2836;
-64.5000;0.2450;0.2860;
-64.2000;0.2466;0.2884;
-63.9000;0.2458;0.2908;
-63.6000;0.2475;0.2908;
-63.3000;0.2466;0.2860;
-63.0000;0.2475;0.2787;
-62.7000;0.2499;0.2812;
-62.4000;0.2475;0.2860;
-62.1000;0.2475;0.2812;
-61.8000;0.2458;0.2763;
-61.5000;0.2483;0.2836;
-61.2000;0.2475;0.2739;
-60.9000;0.2466;0.2763;
-60.6000;0.2491;0.2787;
-60.3000;0.2458;0.2739;
-60.0000;0.2458;0.2739;
-59.7000;0.2483;0.2812;
-59.4000;0.2450;0.2715;
-59.1000;0.2458;0.2739;
-58.8000;0.2466;0.2812;
-58.5000;0.2458;0.2884;
-58.2000;0.2466;0.2884;
-57.9000;0.2475;0.2812;
-57.6000;0.2466;0.2884;
-57.3000;0.2483;0.2812;
-57.0000;0.2466;0.2690;
-56.7000;0.2466;0.2593;
-56.4000;0.2466;0.2642;
-56.1000;0.2491;0.2690;
-55.8000;0.2466;0.2593;
-55.5000;0.2475;0.2666;
-55.2000;0.2450;0.2618;
-54.9000;0.2458;0.2715;
-54.6000;0.2475;0.2739;
-54.3000;0.2442;0.2666;
-54.0000;0.2450;0.2642;
-53.7000;0.2450;0.2690;
-53.4000;0.2458;0.2690;
-53.1000;0.2450;0.2739;
-52.8000;0.2475;0.2787;
-52.5000;0.2458;0.2812;
-52.2000;0.2491;0.2884;
-51.9000;0.2507;0.2884;
-51.6000;0.2483;0.2836;
-51.3000;0.2491;0.2787;
-51.0000;0.2491;0.2715;
-50.7000;0.2475;0.2666;
-50.4000;0.2466;0.2642;
-50.1000;0.2450;0.2739;
-49.8000;0.2450;0.2739;
-49.5000;0.2466;0.2763;
-49.2000;0.2442;0.2690;
-48.9000;0.2466;0.2666;
-48.6000;0.2507;0.2739;
-48.3000;0.2426;0.2618;
-48.0000;0.2466;0.2715;
-47.7000;0.2450;0.2690;
-47.4000;0.2385;0.2545;
-47.1000;0.2458;0.2690;
-46.8000;0.2458;0.2739;
-46.5000;0.2523;0.2933;
-46.2000;0.2466;0.2763;
-45.9000;0.2475;0.2739;
-45.6000;0.2450;0.2618;
-45.3000;0.2458;0.2690;
-45.0000;0.2466;0.2739;
-44.7000;0.2466;0.2715;
-44.4000;0.2458;0.2569;
-44.1000;0.2466;0.2496;
-43.8000;0.2475;0.2545;
-43.5000;0.2466;0.2569;
-43.2000;0.2458;0.2593;
-42.9000;0.2483;0.2690;
-42.6000;0.2483;0.2860;
-42.3000;0.2466;0.2812;
-42.0000;0.2475;0.2860;
-41.7000;0.2466;0.2787;
-41.4000;0.2466;0.2739;
-41.1000;0.2475;0.2739;
-40.8000;0.2483;0.2812;
-40.5000;0.2434;0.2763;
-40.2000;0.2475;0.2860;
-39.9000;0.2466;0.2860;
-39.6000;0.2499;0.2933;
-39.3000;0.2475;0.2812;
-39.0000;0.2483;0.2812;
-38.7000;0.2483;0.2812;
-38.4000;0.2466;0.2739;
-38.1000;0.2458;0.2739;
-37.8000;0.2458;0.2739;
-37.5000;0.2458;0.2787;
-37.2000;0.2458;0.2763;
-36.9000;0.2483;0.2836;
-36.6000;0.2466;0.2787;
-36.3000;0.2450;0.2739;
-36.0000;0.2466;0.2763;
-35.7000;0.2483;0.2787;
-35.4000;0.2466;0.2763;
-35.1000;0.2450;0.2860;
-34.8000;0.2475;0.2836;
-34.5000;0.2426;0.2763;
-34.2000;0.2564;0.2981;
-33.9000;0.2483;0.2715;
-33.6000;0.2491;0.2642;
-33.3000;0.2556;0.2812;
-33.0000;0.2450;0.2521;
-32.7000;0.2491;0.2666;
-32.4000;0.2499;0.2690;
-32.1000;0.2507;0.2812;
-31.8000;0.2475;0.2739;
-31.5000;0.2466;0.2715;
-31.2000;0.2361;0.2424;
-30.9000;0.2409;0.2569;
-30.6000;0.2466;0.2715;
-30.3000;0.2548;0.2981;
-30.0000;0.2466;0.2739;
-29.7000;0.2466;0.2739;
-29.4000;0.2442;0.2739;
-29.1000;0.2442;0.2812;
-28.8000;0.2466;0.2908;
-28.5000;0.2450;0.2884;
-28.2000;0.2466;0.2908;
-27.9000;0.2466;0.2860;
-27.6000;0.2499;0.2908;
-27.3000;0.2475;0.2763;
-27.0000;0.2483;0.2812;
-26.7000;0.2515;0.2860;
-26.4000;0.2515;0.2884;
-26.1000;0.2475;0.2812;
-25.8000;0.2475;0.2908;
-25.5000;0.2491;0.2981;
-25.2000;0.2475;0.2957;
-24.9000;0.2442;0.2860;
-24.6000;0.2466;0.2908;
-24.3000;0.2483;0.2933;
-24.0000;0.2434;0.2715;
-23.7000;0.2450;0.2763;
-23.4000;0.2483;0.2787;
-23.1000;0.2475;0.2739;
-22.8000;0.2491;0.2908;
-22.5000;0.2466;0.2787;
-22.2000;0.2475;0.2787;
-21.9000;0.2483;0.2763;
-21.6000;0.2458;0.2739;
-21.3000;0.2491;0.2690;
-21.0000;0.2475;0.2666;
-20.7000;0.2475;0.2690;
-20.4000;0.2491;0.2715;
-20.1000;0.2466;0.2763;
-19.8000;0.2475;0.2787;
-19.5000;0.2475;0.2812;
-19.2000;0.2458;0.2763;
-18.9000;0.2475;0.2715;
-18.6000;0.2475;0.2739;
-18.3000;0.2458;0.2787;
-18.0000;0.2466;0.2787;
-17.7000;0.2442;0.2715;
-17.4000;0.2466;0.2763;
-17.1000;0.2458;0.2739;
-16.8000;0.2458;0.2763;
-16.5000;0.2466;0.2763;
-16.2000;0.2466;0.2763;
-15.9000;0.2466;0.2715;
-15.6000;0.2475;0.2642;
-15.3000;0.2483;0.2739;
-15.0000;0.2475;0.2642;
-14.7000;0.2499;0.2618;
-14.4000;0.2483;0.2545;
-14.1000;0.2483;0.2618;
-13.8000;0.2466;0.2569;
-13.5000;0.2466;0.2545;
-13.2000;0.2466;0.2545;
-12.9000;0.2483;0.2593;
-12.6000;0.2491;0.2569;
-12.3000;0.2475;0.2521;
-12.0000;0.2466;0.2545;
-11.7000;0.2458;0.2496;
-11.4000;0.2483;0.2496;
-11.1000;0.2515;0.2593;
-10.8000;0.2475;0.2496;
-10.5000;0.2466;0.2569;
-10.2000;0.2491;0.2618;
-9.9000;0.2475;0.2569;
-9.6000;0.2491;0.2618;
-9.3000;0.2475;0.2545;
-9.0000;0.2475;0.2690;
-8.7000;0.2475;0.2690;
-8.4000;0.2483;0.2715;
-8.1000;0.2483;0.2666;
-7.8000;0.2434;0.2521;
-7.5000;0.2466;0.2521;
-7.2000;0.2434;0.2375;
-6.9000;0.2475;0.2448;
-6.6000;0.2466;0.2496;
-6.3000;0.2450;0.2569;
-6.0000;0.2523;0.2690;
-5.7000;0.2499;0.2666;
-5.4000;0.2491;0.2666;
-5.1000;0.2483;0.2618;
-4.8000;0.2483;0.2569;
-4.5000;0.2491;0.2618;
-4.2000;0.2483;0.2521;
-3.9000;0.2491;0.2496;
-3.6000;0.2475;0.2472;
-3.3000;0.2458;0.2521;
-3.0000;0.2475;0.2618;
-2.7000;0.2475;0.2763;
-2.4000;0.2475;0.2763;
-2.1000;0.2507;0.2812;
-1.8000;0.2475;0.2666;
-1.5000;0.2458;0.2618;
-1.2000;0.2475;0.2715;
-0.9000;0.2458;0.2715;
-0.6000;0.2491;0.2860;
-0.3000;0.2515;0.2908;
0.0000;0.2515;0.2908;
0.3000;0.2548;0.3005;
0.6000;0.2580;0.3320;
0.9000;0.2499;0.3320;
1.2000;0.2532;0.3636;
1.5000;0.2523;0.3829;
1.8000;0.2458;0.3878;
2.1000;0.2507;0.4120;
2.4000;0.2540;0.4290;
2.7000;0.2532;0.4338;
3.0000;0.2442;0.4266;
3.3000;0.2507;0.4532;
3.6000;0.2564;0.4750;
3.9000;0.2572;0.4872;
4.2000;0.2605;0.5066;
4.5000;0.2572;0.4993;
4.8000;0.2613;0.5017;
5.1000;0.2580;0.5090;
5.4000;0.2564;0.5090;
5.7000;0.2564;0.5138;
6.0000;0.2572;0.5235;
6.3000;0.2532;0.5138;
6.6000;0.2556;0.5211;
6.9000;0.2548;0.5211;
7.2000;0.2564;0.5308;
7.5000;0.2564;0.5381;
7.8000;0.2532;0.5259;
8.1000;0.2572;0.5332;
8.4000;0.2572;0.5308;
8.7000;0.2580;0.5284;
9.0000;0.2613;0.5332;
9.3000;0.2589;0.5453;
9.6000;0.2589;0.5478;
9.9000;0.2589;0.5526;
10.2000;0.2556;0.5453;
10.5000;0.2597;0.5550;
10.8000;0.2564;0.5381;
11.1000;0.2564;0.5381;
11.4000;0.2580;0.5478;
11.7000;0.2580;0.5502;
12.0000;0.2564;0.5453;
12.3000;0.2556;0.5502;
12.6000;0.2580;0.5623;
12.9000;0.2548;0.5575;
13.2000;0.2564;0.5599;
13.5000;0.2491;0.5284;
13.8000;0.2548;0.5502;
14.1000;0.2589;0.5575;
14.4000;0.2507;0.5332;
14.7000;0.2523;0.5405;
15.0000;0.2572;0.5478;
15.3000;0.2580;0.5429;
15.6000;0.2572;0.5405;
15.9000;0.2572;0.5356;
16.2000;0.2564;0.5381;
16.5000;0.2532;0.5235;
16.8000;0.2556;0.5259;
17.1000;0.2556;0.5356;
17.4000;0.2572;0.5429;
17.7000;0.2572;0.5502;
18.0000;0.2556;0.5526;
18.3000;0.2564;0.5502;
18.6000;0.2523;0.5381;
18.9000;0.2597;0.5526;
19.2000;0.2572;0.5526;
19.5000;0.2540;0.5381;
19.8000;0.2556;0.5429;
20.1000;0.2580;0.5429;
20.4000;0.2589;0.5429;
20.7000;0.2564;0.5356;
21.0000;0.2548;0.5429;
21.3000;0.2556;0.5381;
21.6000;0.2564;0.5356;
21.9000;0.2572;0.5332;
22.2000;0.2564;0.5405;
22.5000;0.2589;0.5502;
22.8000;0.2564;0.5453;
23.1000;0.2580;0.5478;
23.4000;0.2564;0.5453;
23.7000;0.2572;0.5356;
24.0000;0.2589;0.5381;
24.3000;0.2580;0.5284;
24.6000;0.2597;0.5308;
24.9000;0.2589;0.5356;
25.2000;0.2589;0.5381;
25.5000;0.2580;0.5356;
25.8000;0.2613;0.5502;
26.1000;0.2491;0.5187;
26.4000;0.2556;0.5453;
26.7000;0.2572;0.5599;
27.0000;0.2491;0.5453;
27.3000;0.2556;0.5575;
27.6000;0.2556;0.5550;
27.9000;0.2548;0.5550;
28.2000;0.2556;0.5526;
28.5000;0.2556;0.5526;
28.8000;0.2572;0.5502;
29.1000;0.2580;0.5526;
29.4000;0.2564;0.5429;
29.7000;0.2572;0.5453;
30.0000;0.2572;0.5502;
30.3000;0.2564;0.5429;
30.6000;0.2572;0.5429;
30.9000;0.2556;0.5381;
31.2000;0.2532;0.5332;
31.5000;0.2572;0.5550;
31.8000;0.2580;0.5599;
32.1000;0.2491;0.5405;
32.4000;0.2572;0.5599;
32.7000;0.2572;0.5550;
33.0000;0.2572;0.5599;
33.3000;0.2556;0.5575;
33.6000;0.2556;0.5575;
33.9000;0.2548;0.5575;
34.2000;0.2580;0.5599;
34.5000;0.2589;0.5575;
34.8000;0.2556;0.5453;
35.1000;0.2548;0.5502;
35.4000;0.2556;0.5478;
35.7000;0.2532;0.5356;
36.0000;0.2548;0.5381;
36.3000;0.2564;0.5453;
36.6000;0.2580;0.5478;
36.9000;0.2540;0.5429;
37.2000;0.2564;0.5599;
37.5000;0.2548;0.5550;
37.8000;0.2556;0.5623;
38.1000;0.2564;0.5671;
38.4000;0.2572;0.5647;
38.7000;0.2564;0.5623;
39.0000;0.2564;0.5599;
39.3000;0.2548;0.5526;
39.6000;0.2556;0.5526;
39.9000;0.2564;0.5647;
40.2000;0.2670;0.5938;
40.5000;0.2491;0.5381;
40.8000;0.2556;0.5550;
41.1000;0.2564;0.5575;
41.4000;0.2572;0.5599;
41.7000;0.2556;0.5550;
42.0000;0.2556;0.5502;
42.3000;0.2564;0.5478;
42.6000;0.2532;0.5405;
42.9000;0.2556;0.5526;
43.2000;0.2556;0.5526;
43.5000;0.2483;0.5381;
43.8000;0.2556;0.5453;
44.1000;0.2564;0.5453;
44.4000;0.2564;0.5405;
44.7000;0.2564;0.5478;
45.0000;0.2564;0.5453;
45.3000;0.2523;0.5308;
45.6000;0.2564;0.5453;
45.9000;0.2556;0.5502;
46.2000;0.2637;0.5817;
46.5000;0.2483;0.5381;
46.8000;0.2564;0.5671;
47.1000;0.2572;0.5696;
47.4000;0.2532;0.5599;
47.7000;0.2556;0.5647;
48.0000;0.2564;0.5647;
48.3000;0.2605;0.5768;
48.6000;0.2580;0.5768;
48.9000;0.2540;0.5720;
49.2000;0.2548;0.5720;
49.5000;0.2556;0.5768;
49.8000;0.2507;0.5575;
50.1000;0.2564;0.5623;
50.4000;0.2540;0.5550;
50.7000;0.2556;0.5550;
51.0000;0.2580;0.5671;
51.3000;0.2572;0.5696;
51.6000;0.2564;0.5696;
51.9000;0.2580;0.5720;
52.2000;0.2572;0.5671;
52.5000;0.2572;0.5720;
52.8000;0.2540;0.5744;
53.1000;0.2564;0.5647;
53.4000;0.2564;0.5671;
53.7000;0.2556;0.5696;
54.0000;0.2548;0.5599;
54.3000;0.2556;0.5599;
54.6000;0.2540;0.5526;
54.9000;0.2564;0.5502;
55.2000;0.2548;0.5429;
55.5000;0.2556;0.5405;
55.8000;0.2580;0.5502;
56.1000;0.2589;0.5550;
56.4000;0.2580;0.5453;
56.7000;0.2564;0.5526;
57.0000;0.2564;0.5526;
57.3000;0.2580;0.5575;
57.6000;0.2556;0.5550;
57.9000;0.2556;0.5599;
58.2000;0.2556;0.5599;
58.5000;0.2556;0.5623;
58.8000;0.2548;0.5599;
59.1000;0.2523;0.5502;
59.4000;0.2458;0.5259;
59.7000;0.2548;0.5526;
60.0000;0.2580;0.5623;
60.3000;0.2572;0.5575;
60.6000;0.2580;0.5550;
60.9000;0.2499;0.5381;
61.2000;0.2540;0.5575;
61.5000;0.2597;0.5599;
61.8000;0.2491;0.5453;
62.1000;0.2548;0.5550;
62.4000;0.2678;0.5768;
62.7000;0.2466;0.5235;
63.0000;0.2548;0.5478;
63.3000;0.2548;0.5429;
63.6000;0.2580;0.5502;
63.9000;0.2540;0.5453;
64.2000;0.2507;0.5332;
64.5000;0.2564;0.5453;
64.8000;0.2580;0.5575;
65.1000;0.2621;0.5817;
65.4000;0.2540;0.5647;
65.7000;0.2580;0.5696;
66.0000;0.2637;0.5865;
66.3000;0.2564;0.5696;
66.6000;0.2572;0.5575;
66.9000;0.2523;0.5453;
67.2000;0.2548;0.5381;
67.5000;0.2613;0.5550;
67.8000;0.2556;0.5453;
68.1000;0.2548;0.5381;
68.4000;0.2548;0.5381;
68.7000;0.2564;0.5478;
69.0000;0.2564;0.5478;
69.3000;0.2523;0.5405;
69.6000;0.2556;0.5478;
69.9000;0.2523;0.5429;
70.2000;0.2580;0.5575;
70.5000;0.2523;0.5550;
70.8000;0.2540;0.5599;
71.1000;0.2548;0.5623;
71.4000;0.2564;0.5623;
71.7000;0.2564;0.5575;
72.0000;0.2540;0.5478;
72.3000;0.2499;0.5332;
72.6000;0.2564;0.5575;
72.9000;0.2556;0.5526;
73.2000;0.2548;0.5478;
73.5000;0.2556;0.5405;
73.8000;0.2564;0.5550;
74.1000;0.2556;0.5526;
74.4000;0.2548;0.5381;
74.7000;0.2556;0.5381;
75.0000;0.2556;0.5381;
75.3000;0.2564;0.5453;
75.6000;0.2548;0.5405;
75.9000;0.2540;0.5332;
76.2000;0.2572;0.5405;
76.5000;0.2548;0.5284;
76.8000;0.2572;0.5284;
77.1000;0.2548;0.5308;
77.4000;0.2548;0.5308;
77.7000;0.2564;0.5332;
78.0000;0.2556;0.5235;
78.3000;0.2572;0.5284;
78.6000;0.2564;0.5284;
78.9000;0.2556;0.5332;
79.2000;0.2556;0.5308;
79.5000;0.2564;0.5308;
79.8000;0.2556;0.5332;
80.1000;0.2564;0.5332;
80.4000;0.2548;0.5332;
80.7000;0.2548;0.5332;
81.0000;0.2548;0.5405;
81.3000;0.2572;0.5478;
81.6000;0.2572;0.5453;
81.9000;0.2564;0.5405;
82.2000;0.2556;0.5332;
82.5000;0.2548;0.5284;
82.8000;0.2499;0.5138;
83.1000;0.2564;0.5235;
83.4000;0.2499;0.4993;
83.7000;0.2580;0.5163;
84.0000;0.2548;0.5066;
84.3000;0.2597;0.5114;
84.6000;0.2548;0.5138;
84.9000;0.2597;0.5259;
85.2000;0.2572;0.5235;
85.5000;0.2572;0.5308;
85.8000;0.2556;0.5381;
86.1000;0.2556;0.5405;
86.4000;0.2572;0.5502;
86.7000;0.2564;0.5453;
87.0000;0.2564;0.5453;
87.3000;0.2572;0.5478;
87.6000;0.2556;0.5453;
87.9000;0.2572;0.5478;
88.2000;0.2548;0.5453;
88.5000;0.2548;0.5405;
88.8000;0.2556;0.5405;
89.1000;0.2564;0.5356;
89.4000;0.2556;0.5332;
89.7000;0.2548;0.5284;
90.0000;0.2556;0.5235;
90.3000;0.2548;0.5308;
90.6000;0.2548;0.5453;
90.9000;0.2572;0.5502;
91.2000;0.2556;0.5478;
91.5000;0.2572;0.5453;
91.8000;0.2572;0.5429;
92.1000;0.2556;0.5356;
92.4000;0.2556;0.5356;
92.7000;0.2540;0.5429;
93.0000;0.2564;0.5526;
93.3000;0.2556;0.5478;
93.6000;0.2540;0.5453;
93.9000;0.2564;0.5526;
94.2000;0.2540;0.5478;
94.5000;0.2564;0.5502;
94.8000;0.2532;0.5502;
95.1000;0.2548;0.5502;
95.4000;0.2540;0.5381;
95.7000;0.2548;0.5308;
96.0000;0.2646;0.5429;
96.3000;0.2548;0.5211;
96.6000;0.2556;0.5259;
96.9000;0.2548;0.5235;
97.2000;0.2556;0.5138;
97.5000;0.2564;0.5114;
97.8000;0.2564;0.5114;
98.1000;0.2556;0.5211;
98.4000;0.2548;0.5284;
98.7000;0.2548;0.5332;
99.0000;0.2572;0.5429;
99.3000;0.2556;0.5502;
99.6000;0.2532;0.5405;
99.9000;0.2556;0.5429;
100.2000;0.2548;0.5405;
100.5000;0.2556;0.5381;
100.8000;0.2548;0.5381;
101.1000;0.2613;0.5550;
101.4000;0.2556;0.5429;
101.7000;0.2548;0.5405;
102.0000;0.2483;0.5284;
102.3000;0.2564;0.5502;
102.6000;0.2580;0.5575;
102.9000;0.2564;0.5526;
103.2000;0.2572;0.5647;
103.5000;0.2523;0.5599;
103.8000;0.2548;0.5623;
104.1000;0.2540;0.5478;
104.4000;0.2532;0.5453;
104.7000;0.2523;0.5429;
105.0000;0.2572;0.5550;
105.3000;0.2523;0.5453;
105.6000;0.2556;0.5647;
105.9000;0.2572;0.5671;
106.2000;0.2548;0.5671;
106.5000;0.2507;0.5599;
106.8000;0.2548;0.5671;
107.1000;0.2556;0.5599;
107.4000;0.2556;0.5575;
107.7000;0.2515;0.5381;
108.0000;0.2556;0.5526;
108.3000;0.2605;0.5696;
108.6000;0.2564;0.5526;
108.9000;0.2548;0.5453;
109.2000;0.2532;0.5429;
109.5000;0.2548;0.5453;
109.8000;0.2589;0.5623;
110.1000;0.2613;0.5720;
110.4000;0.2572;0.5550;
110.7000;0.2548;0.5526;
111.0000;0.2442;0.5163;
111.3000;0.2564;0.5526;
111.6000;0.2532;0.5478;
111.9000;0.2556;0.5502;
112.2000;0.2556;0.5550;
112.5000;0.2556;0.5453;
112.8000;0.2548;0.5332;
113.1000;0.2556;0.5381;
113.4000;0.2564;0.5453;
113.7000;0.2629;0.5671;
114.0000;0.2548;0.5478;
114.3000;0.2548;0.5429;
114.6000;0.2540;0.5502;
114.9000;0.2532;0.5478;
115.2000;0.2532;0.5453;
115.5000;0.2597;0.5599;
115.8000;0.2507;0.5284;
116.1000;0.2532;0.5381;
116.4000;0.2507;0.5284;
116.7000;0.2548;0.5308;
117.0000;0.2556;0.5332;
117.3000;0.2540;0.5356;
117.6000;0.2532;0.5332;
117.9000;0.2483;0.5284;
118.2000;0.2540;0.5478;
118.5000;0.2532;0.5429;
118.8000;0.2686;0.5744;
119.1000;0.2572;0.5381;
119.4000;0.2523;0.5356;
119.7000;0.2556;0.5429;
120.0000;0.2507;0.5259;
120.3000;0.2458;0.5138;
120.6000;0.2556;0.5405;
120.9000;0.2442;0.5066;
121.2000;0.2580;0.5453;
121.5000;0.2556;0.5381;
121.8000;0.2621;0.5526;
122.1000;0.2532;0.5356;
122.4000;0.2556;0.5259;
122.7000;0.2548;0.5308;
123.0000;0.2548;0.5381;
123.3000;0.2548;0.5381;
123.6000;0.2548;0.5453;
123.9000;0.2548;0.5429;
124.2000;0.2540;0.5405;
124.5000;0.2556;0.5405;
124.8000;0.2556;0.5453;
125.1000;0.2637;0.5696;
125.4000;0.2548;0.5526;
125.7000;0.2548;0.5453;
126.0000;0.2548;0.5429;
126.3000;0.2564;0.5526;
126.6000;0.2532;0.5429;
126.9000;0.2564;0.5478;
127.2000;0.2523;0.5356;
127.5000;0.2572;0.5453;
127.8000;0.2564;0.5405;
128.1000;0.2564;0.5429;
128.4000;0.2564;0.5453;
128.7000;0.2540;0.5453;
129.0000;0.2556;0.5550;
129.3000;0.2548;0.5550;
129.6000;0.2556;0.5478;
129.9000;0.2564;0.5526;
130.2000;0.2540;0.5381;
130.5000;0.2548;0.5356;
130.8000;0.2564;0.5356;
131.1000;0.2621;0.5550;
131.4000;0.2613;0.5550;
131.7000;0.2540;0.5332;
132.0000;0.2556;0.5381;
132.3000;0.2556;0.5405;
132.6000;0.2572;0.5478;
132.9000;0.2548;0.5405;
133.2000;0.2548;0.5332;
133.5000;0.2548;0.5332;
133.8000;0.2556;0.5381;
134.1000;0.2605;0.5478;
134.4000;0.2556;0.5284;
134.7000;0.2613;0.5478;
135.0000;0.2556;0.5284;
135.3000;0.2523;0.5211;
135.6000;0.2507;0.5138;
135.9000;0.2556;0.5284;
136.2000;0.2646;0.5526;
136.5000;0.2572;0.5308;
136.8000;0.2589;0.5429;
137.1000;0.2540;0.5308;
137.4000;0.2499;0.5138;
137.7000;0.2556;0.5356;
138.0000;0.2556;0.5381;
138.3000;0.2564;0.5429;
138.6000;0.2515;0.5235;
138.9000;0.2556;0.5381;
139.2000;0.2548;0.5284;
139.5000;0.2759;0.5914;
139.8000;0.2515;0.5211;
140.1000;0.2548;0.5381;
140.4000;0.2515;0.5381;
140.7000;0.2548;0.5405;
141.0000;0.2572;0.5575;
141.3000;0.2564;0.5599;
141.6000;0.2540;0.5575;
141.9000;0.2515;0.5575;
142.2000;0.2556;0.5720;
142.5000;0.2556;0.5647;
142.8000;0.2523;0.5575;
143.1000;0.2556;0.5599;
143.4000;0.2572;0.5599;
143.7000;0.2556;0.5575;
144.0000;0.2629;0.5817;
144.3000;0.2556;0.5647;
144.6000;0.2556;0.5623;
144.9000;0.2491;0.5429;
145.2000;0.2556;0.5647;
145.5000;0.2548;0.5623;
145.8000;0.2556;0.5647;
146.1000;0.2548;0.5623;
146.4000;0.2540;0.5575;
146.7000;0.2540;0.5502;
147.0000;0.2564;0.5526;
147.3000;0.2564;0.5599;
147.6000;0.2532;0.5599;
147.9000;0.2556;0.5623;
148.2000;0.2556;0.5550;
148.5000;0.2548;0.5550;
148.8000;0.2540;0.5526;
149.1000;0.2499;0.5478;
149.4000;0.2548;0.5599;
149.7000;0.2532;0.5575;
150.0000;0.2523;0.5575;
150.3000;0.2548;0.5623;
150.6000;0.2580;0.5623;
150.9000;0.2621;0.5768;
151.2000;0.2532;0.5575;
151.5000;0.2556;0.5720;
151.8000;0.2548;0.5720;
152.1000;0.2572;0.5768;
152.4000;0.2540;0.5720;
152.7000;0.2548;0.5696;
153.0000;0.2556;0.5623;
153.3000;0.2556;0.5575;
153.6000;0.2532;0.5550;
153.9000;0.2532;0.5599;
154.2000;0.2589;0.5696;
154.5000;0.2532;0.5575;
154.8000;0.2532;0.5526;
155.1000;0.2532;0.5599;
155.4000;0.2556;0.5744;
155.7000;0.2548;0.5768;
156.0000;0.2499;0.5623;
156.3000;0.2515;0.5647;
156.6000;0.2556;0.5671;
156.9000;0.2483;0.5502;
157.2000;0.2556;0.5696;
157.5000;0.2548;0.5623;
157.8000;0.2572;0.5671;
158.1000;0.2532;0.5575;
158.4000;0.2548;0.5550;
158.7000;0.2564;0.5502;
159.0000;0.2540;0.5526;
159.3000;0.2540;0.5526;
159.6000;0.2589;0.5623;
159.9000;0.2564;0.5526;
160.2000;0.2426;0.5211;
160.5000;0.2572;0.5550;
160.8000;0.2548;0.5526;
161.1000;0.2548;0.5502;
161.4000;0.2491;0.5381;
161.7000;0.2540;0.5526;
162.0000;0.2556;0.5550;
162.3000;0.2572;0.5647;
162.6000;0.2556;0.5623;
162.9000;0.2540;0.5623;
163.2000;0.2548;0.5599;
163.5000;0.2515;0.5502;
163.8000;0.2523;0.5478;
164.1000;0.2548;0.5502;
164.4000;0.2548;0.5453;
164.7000;0.2564;0.5502;
165.0000;0.2532;0.5453;
165.3000;0.2548;0.5550;
165.6000;0.2540;0.5453;
165.9000;0.2540;0.5429;
166.2000;0.2564;0.5526;
166.5000;0.2523;0.5405;
166.8000;0.2564;0.5405;
167.1000;0.2556;0.5429;
167.4000;0.2548;0.5356;
167.7000;0.2556;0.5356;
168.0000;0.2548;0.5259;
168.3000;0.2548;0.5259;
168.6000;0.2556;0.5235;
168.9000;0.2532;0.5356;
169.2000;0.2548;0.5429;
169.5000;0.2548;0.5405;
169.8000;0.2564;0.5405;
170.1000;0.2556;0.5381;
170.4000;0.2556;0.5356;
170.7000;0.2540;0.5308;
171.0000;0.2556;0.5284;
171.3000;0.2572;0.5259;
171.6000;0.2515;0.5187;
171.9000;0.2548;0.5235;
172.2000;0.2564;0.5259;
172.5000;0.2556;0.5284;
172.8000;0.2532;0.5187;
173.1000;0.2564;0.5259;
173.4000;0.2540;0.5211;
173.7000;0.2564;0.5332;
174.0000;0.2605;0.5405;
174.3000;0.2556;0.5308;
174.6000;0.2556;0.5332;
174.9000;0.2556;0.5308;
175.2000;0.2540;0.5381;
175.5000;0.2515;0.5332;
175.8000;0.2523;0.5381;
176.1000;0.2532;0.5429;
176.4000;0.2532;0.5381;
176.7000;0.2589;0.5429;
177.0000;0.2540;0.5381;
177.3000;0.2556;0.5356;
177.6000;0.2507;0.5259;
177.9000;0.2532;0.5284;
178.2000;0.2540;0.5332;
178.5000;0.2532;0.5405;
178.8000;0.2540;0.5405;
179.1000;0.2532;0.5381;
179.4000;0.2597;0.5550;
179.7000;0.2637;0.5744;
180.0000;0.2597;0.5671;
180.3000;0.2548;0.5550;
180.6000;0.2540;0.5478;
180.9000;0.2515;0.5332;
181.2000;0.2548;0.5356;
181.5000;0.2532;0.5308;
181.8000;0.2442;0.5066;
182.1000;0.2540;0.5308;
182.4000;0.2564;0.5405;
182.7000;0.2548;0.5429;
183.0000;0.2540;0.5381;
183.3000;0.2540;0.5308;
183.6000;0.2532;0.5405;
183.9000;0.2556;0.5526;
184.2000;0.2548;0.5502;
184.5000;0.2580;0.5575;
184.8000;0.2532;0.5550;
185.1000;0.2540;0.5575;
185.4000;0.2564;0.5623;
185.7000;0.2523;0.5550;
186.0000;0.2540;0.5453;
186.3000;0.2523;0.5429;
186.6000;0.2532;0.5526;
186.9000;0.2572;0.5623;
187.2000;0.2548;0.5550;
187.5000;0.2556;0.5526;
187.8000;0.2532;0.5453;
188.1000;0.2540;0.5429;
188.4000;0.2556;0.5575;
188.7000;0.2548;0.5599;
189.0000;0.2556;0.5696;
189.3000;0.2532;0.5623;
189.6000;0.2564;0.5647;
189.9000;0.2556;0.5599;
190.2000;0.2532;0.5526;
190.5000;0.2540;0.5647;
190.8000;0.2548;0.5720;
191.1000;0.2548;0.5671;
191.4000;0.2540;0.5623;
191.7000;0.2548;0.5599;
192.0000;0.2548;0.5575;
192.3000;0.2572;0.5720;
192.6000;0.2548;0.5550;
192.9000;0.2532;0.5502;
193.2000;0.2532;0.5429;
193.5000;0.2540;0.5550;
193.8000;0.2556;0.5647;
194.1000;0.2556;0.5647;
194.4000;0.2548;0.5599;
194.7000;0.2523;0.5550;
195.0000;0.2564;0.5623;
195.3000;0.2572;0.5623;
195.6000;0.2548;0.5599;
195.9000;0.2548;0.5696;
196.2000;0.2662;0.6108;
196.5000;0.2540;0.5744;
196.8000;0.2548;0.5841;
197.1000;0.2540;0.5768;
197.4000;0.2532;0.5768;
197.7000;0.2532;0.5696;
198.0000;0.2548;0.5671;
198.3000;0.2556;0.5671;
198.6000;0.2532;0.5647;
198.9000;0.2507;0.5599;
199.2000;0.2548;0.5744;
199.5000;0.2540;0.5671;
199.8000;0.2532;0.5575;
200.1000;0.2548;0.5575;
200.4000;0.2564;0.5623;
200.7000;0.2540;0.5720;
201.0000;0.2548;0.5696;
201.3000;0.2532;0.5623;
201.6000;0.2548;0.5647;
201.9000;0.2556;0.5696;
202.2000;0.2564;0.5696;
202.5000;0.2540;0.5623;
202.8000;0.2580;0.5744;
203.1000;0.2540;0.5671;
203.4000;0.2532;0.5623;
203.7000;0.2556;0.5720;
204.0000;0.2548;0.5696;
204.3000;0.2523;0.5696;
204.6000;0.2556;0.5817;
204.9000;0.2548;0.5720;
205.2000;0.2548;0.5744;
205.5000;0.2572;0.5817;
205.8000;0.2548;0.5744;
206.1000;0.2556;0.5671;
206.4000;0.2532;0.5671;
206.7000;0.2540;0.5671;
207.0000;0.2548;0.5671;
207.3000;0.2523;0.5647;
207.6000;0.2589;0.5817;
207.9000;0.2532;0.5623;
208.2000;0.2540;0.5623;
208.5000;0.2548;0.5623;
208.8000;0.2515;0.5599;
209.1000;0.2540;0.5720;
209.4000;0.2532;0.5671;
209.7000;0.2613;0.5793;
210.0000;0.2523;0.5575;
210.3000;0.2523;0.5575;
210.6000;0.2540;0.5623;
210.9000;0.2556;0.5720;
211.2000;0.2548;0.5696;
211.5000;0.2556;0.5696;
211.8000;0.2556;0.5623;
212.1000;0.2548;0.5671;
212.4000;0.2548;0.5599;
212.7000;0.2532;0.5599;
213.0000;0.2532;0.5599;
213.3000;0.2556;0.5720;
213.6000;0.2556;0.5841;
213.9000;0.2540;0.5817;
214.2000;0.2532;0.5696;
214.5000;0.2564;0.5744;
214.8000;0.2564;0.5793;
215.1000;0.2548;0.5793;
215.4000;0.2556;0.5793;
215.7000;0.2548;0.5744;
216.0000;0.2548;0.5720;
216.3000;0.2532;0.5793;
216.6000;0.2532;0.5744;
216.9000;0.2556;0.5768;
217.2000;0.2532;0.5744;
217.5000;0.2548;0.5696;
217.8000;0.2523;0.5623;
218.1000;0.2548;0.5671;
218.4000;0.2523;0.5550;
218.7000;0.2540;0.5550;
219.0000;0.2564;0.5623;
219.3000;0.2450;0.5332;
219.6000;0.2540;0.5599;
219.9000;0.2540;0.5623;
220.2000;0.2507;0.5550;
220.5000;0.2548;0.5599;
220.8000;0.2540;0.5550;
221.1000;0.2532;0.5453;
221.4000;0.2507;0.5405;
221.7000;0.2532;0.5502;
222.0000;0.2507;0.5550;
222.3000;0.2540;0.5696;
222.6000;0.2507;0.5575;
222.9000;0.2523;0.5623;
223.2000;0.2548;0.5599;
223.5000;0.2556;0.5599;
223.8000;0.2548;0.5623;
224.1000;0.2540;0.5599;
224.4000;0.2532;0.5453;
224.7000;0.2532;0.5259;
225.0000;0.2564;0.5308;
225.3000;0.2450;0.5138;
225.6000;0.2548;0.5478;
225.9000;0.2548;0.5478;
226.2000;0.2532;0.5429;
226.5000;0.2564;0.5429;
226.8000;0.2491;0.5259;
227.1000;0.2548;0.5308;
227.4000;0.2564;0.5332;
227.7000;0.2532;0.5259;
228.0000;0.2540;0.5356;
228.3000;0.2540;0.5381;
228.6000;0.2556;0.5429;
228.9000;0.2548;0.5478;
229.2000;0.2523;0.5502;
229.5000;0.2523;0.5478;
229.8000;0.2540;0.5526;
230.1000;0.2646;0.5793;
230.4000;0.2548;0.5478;
230.7000;0.2540;0.5502;
231.0000;0.2540;0.5478;
231.3000;0.2629;0.5841;
231.6000;0.2548;0.5599;
231.9000;0.2540;0.5575;
232.2000;0.2540;0.5502;
232.5000;0.2548;0.5550;
232.8000;0.2548;0.5502;
233.1000;0.2548;0.5429;
233.4000;0.2556;0.5429;
233.7000;0.2572;0.5478;
234.0000;0.2540;0.5429;
234.3000;0.2540;0.5356;
234.6000;0.2540;0.5332;
234.9000;0.2532;0.5308;
235.2000;0.2548;0.5356;
235.5000;0.2540;0.5308;
235.8000;0.2499;0.5235;
236.1000;0.2589;0.5502;
236.4000;0.2532;0.5356;
236.7000;0.2548;0.5453;
237.0000;0.2621;0.5623;
237.3000;0.2548;0.5478;
237.6000;0.2523;0.5405;
237.9000;0.2532;0.5502;
238.2000;0.2532;0.5478;
238.5000;0.2458;0.5259;
238.8000;0.2548;0.5575;
239.1000;0.2548;0.5526;
239.4000;0.2548;0.5599;
239.7000;0.2556;0.5599;
240.0000;0.2548;0.5623;
240.3000;0.2556;0.5623;
240.6000;0.2564;0.5550;
240.9000;0.2548;0.5478;
241.2000;0.2597;0.5671;
241.5000;0.2556;0.5550;
241.8000;0.2532;0.5550;
242.1000;0.2580;0.5720;
242.4000;0.2548;0.5575;
242.7000;0.2556;0.5526;
243.0000;0.2548;0.5429;
243.3000;0.2523;0.5453;
243.6000;0.2540;0.5502;
243.9000;0.2548;0.5502;
244.2000;0.2540;0.5550;
244.5000;0.2548;0.5502;
244.8000;0.2548;0.5550;
245.1000;0.2532;0.5526;
245.4000;0.2589;0.5671;
245.7000;0.2532;0.5526;
246.0000;0.2523;0.5453;
246.3000;0.2556;0.5526;
246.6000;0.2556;0.5550;
246.9000;0.2548;0.5478;
247.2000;0.2532;0.5526;
247.5000;0.2434;0.5308;
247.8000;0.2532;0.5526;
248.1000;0.2580;0.5575;
248.4000;0.2556;0.5550;
248.7000;0.2540;0.5623;
249.0000;0.2556;0.5575;
249.3000;0.2532;0.5575;
249.6000;0.2540;0.5647;
249.9000;0.2548;0.5599;
250.2000;0.2548;0.5599;
250.5000;0.2613;0.5744;
250.8000;0.2540;0.5502;
251.1000;0.2540;0.5526;
251.4000;0.2548;0.5599;
251.7000;0.2572;0.5671;
252.0000;0.2540;0.5599;
252.3000;0.2442;0.5332;
252.6000;0.2540;0.5575;
252.9000;0.2548;0.5575;
253.2000;0.2548;0.5623;
253.5000;0.2548;0.5575;
253.8000;0.2532;0.5526;
254.1000;0.2523;0.5550;
254.4000;0.2556;0.5575;
254.7000;0.2532;0.5502;
255.0000;0.2580;0.5550;
255.3000;0.2548;0.5526;
255.6000;0.2499;0.5453;
255.9000;0.2548;0.5550;
256.2000;0.2556;0.5671;
256.5000;0.2646;0.5865;
256.8000;0.2548;0.5575;
257.1000;0.2580;0.5720;
257.4000;0.2540;0.5599;
257.7000;0.2605;0.5720;
258.0000;0.2548;0.5575;
258.3000;0.2580;0.5696;
258.6000;0.2532;0.5550;
258.9000;0.2548;0.5671;
259.2000;0.2523;0.5623;
259.5000;0.2532;0.5647;
259.8000;0.2523;0.5671;
260.1000;0.2564;0.5671;
260.4000;0.2556;0.5647;
260.7000;0.2523;0.5599;
261.0000;0.2540;0.5696;
261.3000;0.2556;0.5671;
261.6000;0.2556;0.5623;
261.9000;0.2548;0.5526;
262.2000;0.2540;0.5478;
262.5000;0.2442;0.5284;
262.8000;0.2466;0.5429;
263.1000;0.2564;0.5647;
263.4000;0.2548;0.5623;
263.7000;0.2523;0.5526;
264.0000;0.2540;0.5453;
264.3000;0.2548;0.5502;
264.6000;0.2523;0.5526;
264.9000;0.2589;0.5647;
265.2000;0.2548;0.5502;
265.5000;0.2564;0.5502;
265.8000;0.2548;0.5453;
266.1000;0.2548;0.5526;
266.4000;0.2556;0.5550;
266.7000;0.2556;0.5478;
267.0000;0.2532;0.5478;
267.3000;0.2556;0.5623;
267.6000;0.2532;0.5647;
267.9000;0.2540;0.5599;
268.2000;0.2548;0.5526;
268.5000;0.2475;0.5405;
268.8000;0.2532;0.5647;
269.1000;0.2540;0.5647;
269.4000;0.2540;0.5599;
269.7000;0.2580;0.5575;
270.0000;0.2540;0.5478;
270.3000;0.2540;0.5575;
270.6000;0.2564;0.5599;
270.9000;0.2507;0.5526;
271.2000;0.2580;0.5526;
271.5000;0.2548;0.5453;
271.8000;0.2572;0.5502;
272.1000;0.2597;0.5696;
272.4000;0.2515;0.5478;
272.7000;0.2491;0.5356;
273.0000;0.2515;0.5405;
273.3000;0.2589;0.5599;
273.6000;0.2564;0.5623;
273.9000;0.2580;0.5623;
274.2000;0.2540;0.5502;
274.5000;0.2532;0.5429;
274.8000;0.2532;0.5405;
275.1000;0.2540;0.5356;
275.4000;0.2540;0.5356;
275.7000;0.2540;0.5405;
276.0000;0.2540;0.5356;
276.3000;0.2499;0.5308;
276.6000;0.2548;0.5429;
276.9000;0.2548;0.5478;
277.2000;0.2564;0.5453;
277.5000;0.2540;0.5478;
277.8000;0.2532;0.5453;
278.1000;0.2564;0.5526;
278.4000;0.2556;0.5550;
278.7000;0.2515;0.5478;
279.0000;0.2426;0.5259;
279.3000;0.2532;0.5526;
279.6000;0.2442;0.5284;
279.9000;0.2532;0.5478;
280.2000;0.2540;0.5526;
280.5000;0.2532;0.5526;
280.8000;0.2507;0.5550;
281.1000;0.2540;0.5599;
281.4000;0.2540;0.5550;
281.7000;0.2548;0.5429;
282.0000;0.2548;0.5332;
282.3000;0.2548;0.5308;
282.6000;0.2564;0.5405;
282.9000;0.2532;0.5429;
283.2000;0.2548;0.5526;
283.5000;0.2507;0.5429;
283.8000;0.2540;0.5502;
284.1000;0.2515;0.5429;
284.4000;0.2556;0.5502;
284.7000;0.2523;0.5453;
285.0000;0.2548;0.5526;
285.3000;0.2532;0.5502;
285.6000;0.2540;0.5478;
285.9000;0.2540;0.5405;
286.2000;0.2540;0.5502;
286.5000;0.2589;0.5623;
286.8000;0.2556;0.5429;
287.1000;0.2540;0.5405;
287.4000;0.2556;0.5429;
287.7000;0.2540;0.5405;
288.0000;0.2540;0.5429;
288.3000;0.2572;0.5478;
288.6000;0.2540;0.5429;
288.9000;0.2564;0.5478;
289.2000;0.2540;0.5405;
289.5000;0.2564;0.5478;
289.8000;0.2564;0.5599;
290.1000;0.2556;0.5550;
290.4000;0.2540;0.5502;
290.7000;0.2532;0.5550;
291.0000;0.2564;0.5575;
291.3000;0.2556;0.5575;
291.6000;0.2532;0.5453;
291.9000;0.2540;0.5429;
292.2000;0.2540;0.5332;
292.5000;0.2507;0.5235;
292.8000;0.2564;0.5381;
293.1000;0.2540;0.5381;
293.4000;0.2515;0.5405;
293.7000;0.2580;0.5623;
294.0000;0.2515;0.5381;
294.3000;0.2515;0.5405;
294.6000;0.2556;0.5550;
294.9000;0.2572;0.5599;
295.2000;0.2597;0.5526;
295.5000;0.2491;0.5187;
295.8000;0.2458;0.5114;
296.1000;0.2597;0.5429;
296.4000;0.2580;0.5429;
296.7000;0.2629;0.5575;
297.0000;0.2523;0.5284;
297.3000;0.2556;0.5356;
297.6000;0.2580;0.5478;
297.9000;0.2605;0.5526;
298.2000;0.2532;0.5405;
298.5000;0.2556;0.5478;
298.8000;0.2540;0.5575;
299.1000;0.2556;0.5696;
299.4000;0.2450;0.5453;
299.7000;0.2523;0.5671;
300.0000;0.2621;0.5865;
300.3000;0.2507;0.5623;
300.6000;0.2540;0.5623;
300.9000;0.2540;0.5671;
301.2000;0.2564;0.5720;
301.5000;0.2532;0.5671;
301.8000;0.2548;0.5671;
302.1000;0.2532;0.5623;
302.4000;0.2523;0.5550;
302.7000;0.2556;0.5575;
303.0000;0.2540;0.5526;
303.3000;0.2564;0.5526;
303.6000;0.2621;0.5696;
303.9000;0.2548;0.5599;
304.2000;0.2540;0.5575;
304.5000;0.2507;0.5526;
304.8000;0.2548;0.5599;
305.1000;0.2548;0.5550;
305.4000;0.2564;0.5647;
305.7000;0.2532;0.5526;
306.0000;0.2548;0.5575;
306.3000;0.2540;0.5526;
306.6000;0.2548;0.5526;
306.9000;0.2556;0.5453;
307.2000;0.2499;0.5356;
307.5000;0.2556;0.5502;
307.8000;0.2605;0.5671;
308.1000;0.2564;0.5575;
308.4000;0.2556;0.5526;
308.7000;0.2532;0.5550;
309.0000;0.2564;0.5599;
309.3000;0.2515;0.5453;
309.6000;0.2532;0.5550;
309.9000;0.2532;0.5575;
310.2000;0.2548;0.5671;
310.5000;0.2572;0.5696;
310.8000;0.2523;0.5599;
311.1000;0.2515;0.5599;
311.4000;0.2572;0.5720;
311.7000;0.2540;0.5696;
312.0000;0.2548;0.5720;
312.3000;0.2393;0.5284;
312.6000;0.2540;0.5793;
312.9000;0.2564;0.5841;
313.2000;0.2564;0.5768;
313.5000;0.2564;0.5744;
313.8000;0.2556;0.5793;
314.1000;0.2532;0.5720;
314.4000;0.2540;0.5647;
314.7000;0.2540;0.5696;
315.0000;0.2515;0.5671;
315.3000;0.2532;0.5720;
315.6000;0.2532;0.5744;
315.9000;0.2540;0.5623;
316.2000;0.2548;0.5550;
316.5000;0.2540;0.5526;
316.8000;0.2548;0.5550;
317.1000;0.2532;0.5550;
317.4000;0.2589;0.5720;
317.7000;0.2548;0.5623;
318.0000;0.2564;0.5768;
318.3000;0.2556;0.5768;
318.6000;0.2564;0.5720;
318.9000;0.2532;0.5671;
319.2000;0.2532;0.5720;
319.5000;0.2540;0.5647;
319.8000;0.2532;0.5599;
320.1000;0.2532;0.5575;
320.4000;0.2515;0.5575;
320.7000;0.2548;0.5647;
321.0000;0.2532;0.5550;
321.3000;0.2523;0.5453;
321.6000;0.2548;0.5478;
321.9000;0.2548;0.5502;
322.2000;0.2523;0.5526;
322.5000;0.2532;0.5623;
322.8000;0.2523;0.5575;
323.1000;0.2548;0.5744;
323.4000;0.2532;0.5696;
323.7000;0.2507;0.5623;
324.0000;0.2532;0.5599;
324.3000;0.2556;0.5671;
324.6000;0.2621;0.5817;
324.9000;0.2540;0.5478;
325.2000;0.2540;0.5526;
325.5000;0.2523;0.5575;
325.8000;0.2532;0.5575;
326.1000;0.2556;0.5696;
326.4000;0.2540;0.5623;
326.7000;0.2434;0.5405;
327.0000;0.2564;0.5793;
327.3000;0.2532;0.5696;
327.6000;0.2556;0.5793;
327.9000;0.2556;0.5865;
328.2000;0.2540;0.5768;
328.5000;0.2597;0.5865;
328.8000;0.2556;0.5744;
329.1000;0.2523;0.5720;
329.4000;0.2548;0.5817;
329.7000;0.2564;0.5817;
330.0000;0.2418;0.5381;
330.3000;0.2556;0.5768;
330.6000;0.2523;0.5647;
330.9000;0.2572;0.5768;
331.2000;0.2556;0.5744;
331.5000;0.2523;0.5720;
331.8000;0.2564;0.5793;
332.1000;0.2548;0.5768;
332.4000;0.2540;0.5696;
332.7000;0.2548;0.5696;
333.0000;0.2540;0.5623;
333.3000;0.2458;0.5332;
333.6000;0.2540;0.5647;
333.9000;0.2532;0.5599;
334.2000;0.2646;0.5914;
334.5000;0.2532;0.5623;
334.8000;0.2556;0.5671;
335.1000;0.2499;0.5526;
335.4000;0.2540;0.5599;
335.7000;0.2540;0.5478;
336.0000;0.2589;0.5623;
336.3000;0.2548;0.5502;
336.6000;0.2523;0.5478;
336.9000;0.2540;0.5550;
337.2000;0.2532;0.5575;
337.5000;0.2540;0.5599;
337.8000;0.2540;0.5575;
338.1000;0.2523;0.5550;
338.4000;0.2532;0.5575;
338.7000;0.2540;0.5623;
339.0000;0.2523;0.5599;
339.3000;0.2523;0.5526;
339.6000;0.2564;0.5550;
339.9000;0.2523;0.5526;
340.2000;0.2532;0.5550;
340.5000;0.2532;0.5599;
340.8000;0.2532;0.5526;
341.1000;0.2540;0.5550;
341.4000;0.2523;0.5575;
341.7000;0.2540;0.5575;
342.0000;0.2523;0.5575;
342.3000;0.2540;0.5671;
342.6000;0.2450;0.5429;
342.9000;0.2540;0.5671;
343.2000;0.2540;0.5647;
343.5000;0.2540;0.5526;
343.8000;0.2540;0.5526;
344.1000;0.2548;0.5526;
344.4000;0.2637;0.5696;
344.7000;0.2540;0.5405;
345.0000;0.2613;0.5550;
345.3000;0.2548;0.5453;
345.6000;0.2540;0.5478;
345.9000;0.2540;0.5478;
346.2000;0.2564;0.5575;
346.5000;0.2556;0.5502;
346.8000;0.2540;0.5453;
347.1000;0.2540;0.5502;
347.4000;0.2556;0.5550;
347.7000;0.2507;0.5429;
348.0000;0.2540;0.5502;
348.3000;0.2548;0.5478;
348.6000;0.2556;0.5550;
348.9000;0.2532;0.5599;
349.2000;0.2540;0.5550;
349.5000;0.2589;0.5744;
349.8000;0.2548;0.5647;
350.1000;0.2556;0.5647;
350.4000;0.2556;0.5696;
350.7000;0.2523;0.5647;
351.0000;0.2540;0.5623;
351.3000;0.2580;0.5623;
351.6000;0.2532;0.5599;
351.9000;0.2515;0.5575;
352.2000;0.2507;0.5550;
352.5000;0.2540;0.5647;
352.8000;0.2605;0.5890;
353.1000;0.2532;0.5744;
353.4000;0.2556;0.5768;
353.7000;0.2548;0.5647;
354.0000;0.2540;0.5623;
354.3000;0.2532;0.5550;
354.6000;0.2532;0.5550;
354.9000;0.2580;0.5696;
355.2000;0.2532;0.5526;
355.5000;0.2556;0.5526;
355.8000;0.2540;0.5575;
356.1000;0.2532;0.5575;
356.4000;0.2589;0.5623;
356.7000;0.2540;0.5478;
357.0000;0.2532;0.5599;
357.3000;0.2426;0.5332;
357.6000;0.2540;0.5647;
357.9000;0.2532;0.5696;
358.2000;0.2646;0.5914;
358.5000;0.2548;0.5720;
358.8000;0.2548;0.5696;
359.1000;0.2540;0.5720;
359.4000;0.2564;0.5793;
359.7000;0.2556;0.5720;
360.0000;0.2532;0.5744;
360.3000;0.2548;0.5768;
360.6000;0.2548;0.5696;
360.9000;0.2532;0.5647;
361.2000;0.2540;0.5623;
361.5000;0.2523;0.5526;
361.8000;0.2540;0.5599;
362.1000;0.2523;0.5647;
362.4000;0.2556;0.5744;
362.7000;0.2548;0.5768;
363.0000;0.2532;0.5744;
363.3000;0.2540;0.5744;
363.6000;0.2540;0.5720;
363.9000;0.2540;0.5793;
364.2000;0.2548;0.5744;
364.5000;0.2532;0.5647;
364.8000;0.2548;0.5647;
365.1000;0.2523;0.5575;
365.4000;0.2556;0.5671;
365.7000;0.2499;0.5575;
366.0000;0.2491;0.5453;
366.3000;0.2556;0.5623;
366.6000;0.2458;0.5356;
366.9000;0.2540;0.5575;
367.2000;0.2523;0.5550;
367.5000;0.2548;0.5599;
367.8000;0.2540;0.5550;
368.1000;0.2523;0.5575;
368.4000;0.2532;0.5623;
368.7000;0.2548;0.5623;
369.0000;0.2564;0.5647;
369.3000;0.2564;0.5623;
369.6000;0.2523;0.5502;
369.9000;0.2548;0.5550;
370.2000;0.2540;0.5575;
370.5000;0.2572;0.5671;
370.8000;0.2540;0.5550;
371.1000;0.2548;0.5502;
371.4000;0.2548;0.5453;
371.7000;0.2523;0.5381;
372.0000;0.2532;0.5405;
372.3000;0.2532;0.5405;
372.6000;0.2532;0.5429;
372.9000;0.2564;0.5526;
373.2000;0.2548;0.5550;
373.5000;0.2499;0.5429;
373.8000;0.2548;0.5599;
374.1000;0.2540;0.5647;
374.4000;0.2556;0.5623;
374.7000;0.2540;0.5550;
375.0000;0.2540;0.5599;
375.3000;0.2540;0.5623;
375.6000;0.2548;0.5623;
375.9000;0.2523;0.5599;
376.2000;0.2548;0.5647;
376.5000;0.2523;0.5647;
376.8000;0.2532;0.5599;
377.1000;0.2507;0.5575;
377.4000;0.2523;0.5623;
377.7000;0.2540;0.5671;
378.0000;0.2572;0.5696;
378.3000;0.2491;0.5526;
378.6000;0.2532;0.5744;
378.9000;0.2605;0.5962;
379.2000;0.2564;0.5865;
379.5000;0.2532;0.5720;
379.8000;0.2540;0.5817;
380.1000;0.2532;0.5914;
380.4000;0.2556;0.5962;
380.7000;0.2548;0.5890;
381.0000;0.2556;0.5841;
381.3000;0.2434;0.5478;
381.6000;0.2523;0.5793;
381.9000;0.2532;0.5768;
382.2000;0.2654;0.5914;
382.5000;0.2523;0.5720;
382.8000;0.2532;0.5793;
383.1000;0.2605;0.5938;
383.4000;0.2515;0.5744;
383.7000;0.2540;0.5647;
384.0000;0.2515;0.5526;
384.3000;0.2532;0.5550;
384.6000;0.2515;0.5550;
384.9000;0.2450;0.5259;
385.2000;0.2523;0.5526;
385.5000;0.2532;0.5502;
385.8000;0.2499;0.5356;
386.1000;0.2540;0.5550;
386.4000;0.2556;0.5599;
386.7000;0.2483;0.5405;
387.0000;0.2540;0.5478;
387.3000;0.2589;0.5526;
387.6000;0.2548;0.5381;
387.9000;0.2532;0.5284;
388.2000;0.2532;0.5356;
388.5000;0.2523;0.5405;
388.8000;0.2532;0.5405;
389.1000;0.2532;0.5453;
389.4000;0.2483;0.5259;
389.7000;0.2556;0.5356;
390.0000;0.2532;0.5405;
390.3000;0.2515;0.5381;
390.6000;0.2532;0.5526;
390.9000;0.2532;0.5575;
391.2000;0.2580;0.5744;
391.5000;0.2507;0.5623;
391.8000;0.2523;0.5623;
392.1000;0.2548;0.5623;
392.4000;0.2426;0.5308;
392.7000;0.2589;0.5623;
393.0000;0.2564;0.5575;
393.3000;0.2532;0.5599;
393.6000;0.2548;0.5696;
393.9000;0.2532;0.5671;
394.2000;0.2556;0.5720;
394.5000;0.2564;0.5744;
394.8000;0.2532;0.5502;
395.1000;0.2540;0.5599;
395.4000;0.2532;0.5478;
395.7000;0.2540;0.5478;
396.0000;0.2540;0.5478;
396.3000;0.2532;0.5429;
396.6000;0.2532;0.5405;
396.9000;0.2540;0.5453;
397.2000;0.2540;0.5429;
397.5000;0.2523;0.5429;
397.8000;0.2507;0.5356;
398.1000;0.2532;0.5453;
398.4000;0.2523;0.5575;
398.7000;0.2540;0.5647;
399.0000;0.2532;0.5671;
399.3000;0.2540;0.5720;
399.6000;0.2532;0.5720;
399.9000;0.2540;0.5671;
400.2000;0.2540;0.5720;
400.5000;0.2564;0.5768;
400.8000;0.2556;0.5671;
401.1000;0.2572;0.5720;
401.4000;0.2540;0.5550;
401.7000;0.2532;0.5429;
402.0000;0.2540;0.5429;
402.3000;0.2507;0.5332;
402.6000;0.2540;0.5381;
402.9000;0.2597;0.5550;
403.2000;0.2466;0.5211;
403.5000;0.2458;0.5284;
403.8000;0.2532;0.5502;
404.1000;0.2548;0.5550;
404.4000;0.2556;0.5550;
404.7000;0.2548;0.5599;
405.0000;0.2597;0.5817;
405.3000;0.2548;0.5744;
405.6000;0.2523;0.5647;
405.9000;0.2548;0.5696;
406.2000;0.2434;0.5429;
406.5000;0.2540;0.5647;
406.8000;0.2556;0.5599;
407.1000;0.2540;0.5502;
407.4000;0.2507;0.5478;
407.7000;0.2523;0.5526;
408.0000;0.2515;0.5405;
408.3000;0.2523;0.5332;
408.6000;0.2540;0.5332;
408.9000;0.2507;0.5308;
409.2000;0.2548;0.5478;
409.5000;0.2532;0.5429;
409.8000;0.2515;0.5308;
410.1000;0.2548;0.5429;
410.4000;0.2532;0.5453;
410.7000;0.2499;0.5381;
411.0000;0.2540;0.5526;
411.3000;0.2491;0.5405;
411.6000;0.2434;0.5235;
411.9000;0.2580;0.5575;
412.2000;0.2548;0.5453;
412.5000;0.2507;0.5284;
412.8000;0.2515;0.5381;
413.1000;0.2580;0.5526;
413.4000;0.2499;0.5235;
413.7000;0.2540;0.5356;
414.0000;0.2548;0.5356;
414.3000;0.2532;0.5405;
414.6000;0.2629;0.5671;
414.9000;0.2548;0.5478;
415.2000;0.2540;0.5429;
415.5000;0.2564;0.5575;
415.8000;0.2532;0.5526;
416.1000;0.2532;0.5623;
416.4000;0.2532;0.5550;
416.7000;0.2548;0.5478;
417.0000;0.2515;0.5429;
417.3000;0.2548;0.5502;
417.6000;0.2548;0.5647;
417.9000;0.2540;0.5575;
418.2000;0.2515;0.5429;
418.5000;0.2532;0.5429;
418.8000;0.2589;0.5526;
419.1000;0.2654;0.5720;
419.4000;0.2523;0.5429;
419.7000;0.2564;0.5526;
420.0000;0.2654;0.5768;
420.3000;0.2540;0.5502;
420.6000;0.2572;0.5696;
420.9000;0.2540;0.5623;
421.2000;0.2548;0.5671;
421.5000;0.2523;0.5599;
421.8000;0.2540;0.5575;
422.1000;0.2532;0.5623;
422.4000;0.2548;0.5720;
422.7000;0.2532;0.5647;
423.0000;0.2556;0.5647;
423.3000;0.2540;0.5671;
423.6000;0.2540;0.5744;
423.9000;0.2540;0.5696;
424.2000;0.2548;0.5768;
424.5000;0.2548;0.5841;
424.8000;0.2515;0.5793;
425.1000;0.2621;0.5987;
425.4000;0.2548;0.5647;
425.7000;0.2540;0.5599;
426.0000;0.2540;0.5599;
426.3000;0.2499;0.5453;
426.6000;0.2540;0.5599;
426.9000;0.2589;0.5720;
427.2000;0.2491;0.5405;
427.5000;0.2418;0.5211;
427.8000;0.2540;0.5550;
428.1000;0.2532;0.5526;
428.4000;0.2507;0.5453;
428.7000;0.2523;0.5502;
429.0000;0.2540;0.5575;
429.3000;0.2670;0.5890;
429.6000;0.2532;0.5526;
429.9000;0.2507;0.5526;
430.2000;0.2515;0.5478;
430.5000;0.2548;0.5550;
430.8000;0.2532;0.5429;
431.1000;0.2580;0.5526;
431.4000;0.2532;0.5381;
431.7000;0.2532;0.5429;
432.0000;0.2548;0.5502;
432.3000;0.2556;0.5502;
432.6000;0.2523;0.5429;
432.9000;0.2548;0.5453;
433.2000;0.2540;0.5429;
433.5000;0.2532;0.5453;
433.8000;0.2507;0.5381;
434.1000;0.2532;0.5453;
434.4000;0.2540;0.5478;
434.7000;0.2507;0.5284;
435.0000;0.2572;0.5478;
435.3000;0.2540;0.5405;
435.6000;0.2532;0.5308;
435.9000;0.2532;0.5308;
436.2000;0.2540;0.5356;
436.5000;0.2523;0.5356;
436.8000;0.2540;0.5356;
437.1000;0.2580;0.5502;
437.4000;0.2532;0.5405;
437.7000;0.2515;0.5381;
438.0000;0.2532;0.5478;
438.3000;0.2523;0.5453;
438.6000;0.2540;0.5405;
438.9000;0.2532;0.5381;
439.2000;0.2540;0.5356;
439.5000;0.2548;0.5284;
439.8000;0.2515;0.5284;
440.1000;0.2540;0.5429;
440.4000;0.2613;0.5599;
440.7000;0.2540;0.5429;
441.0000;0.2540;0.5405;
441.3000;0.2523;0.5429;
441.6000;0.2556;0.5502;
441.9000;0.2548;0.5405;
442.2000;0.2523;0.5405;
442.5000;0.2434;0.5114;
442.8000;0.2507;0.5429;
443.1000;0.2515;0.5550;
443.4000;0.2540;0.5478;
443.7000;0.2532;0.5381;
444.0000;0.2589;0.5599;
444.3000;0.2515;0.5453;
444.6000;0.2548;0.5575;
444.9000;0.2507;0.5502;
445.2000;0.2499;0.5502;
445.5000;0.2540;0.5550;
445.8000;0.2450;0.5163;
446.1000;0.2548;0.5502;
446.4000;0.2540;0.5478;
446.7000;0.2564;0.5550;
447.0000;0.2540;0.5453;
447.3000;0.2556;0.5575;
447.6000;0.2523;0.5502;
447.9000;0.2540;0.5575;
448.2000;0.2515;0.5623;
448.5000;0.2548;0.5696;
448.8000;0.2507;0.5502;
449.1000;0.2523;0.5550;
449.4000;0.2491;0.5526;
449.7000;0.2523;0.5550;
450.0000;0.2532;0.5599;
450.3000;0.2540;0.5599;
450.6000;0.2523;0.5502;
450.9000;0.2532;0.5429;
451.2000;0.2523;0.5502;
451.5000;0.2523;0.5429;
451.8000;0.2548;0.5453;
452.1000;0.2548;0.5453;
452.4000;0.2523;0.5429;
452.7000;0.2532;0.5381;
453.0000;0.2548;0.5453;
453.3000;0.2532;0.5575;
453.6000;0.2515;0.5526;
453.9000;0.2515;0.5526;
454.2000;0.2523;0.5502;
454.5000;0.2548;0.5526;
454.8000;0.2540;0.5453;
455.1000;0.2540;0.5381;
455.4000;0.2532;0.5405;
455.7000;0.2507;0.5356;
456.0000;0.2532;0.5550;
456.3000;0.2523;0.5575;
456.6000;0.2532;0.5575;
456.9000;0.2540;0.5502;
457.2000;0.2540;0.5526;
457.5000;0.2523;0.5526;
457.8000;0.2515;0.5550;
458.1000;0.2523;0.5599;
458.4000;0.2540;0.5575;
458.7000;0.2540;0.5575;
459.0000;0.2597;0.5647;
459.3000;0.2515;0.5429;
459.6000;0.2540;0.5429;
459.9000;0.2556;0.5502;
460.2000;0.2450;0.5259;
460.5000;0.2515;0.5453;
460.8000;0.2532;0.5453;
461.1000;0.2483;0.5332;
461.4000;0.2523;0.5453;
461.7000;0.2532;0.5429;
462.0000;0.2548;0.5332;
462.3000;0.2532;0.5235;
462.6000;0.2540;0.5235;
462.9000;0.2515;0.5211;
463.2000;0.2523;0.5332;
463.5000;0.2532;0.5356;
463.8000;0.2532;0.5381;
464.1000;0.2532;0.5405;
464.4000;0.2523;0.5381;
464.7000;0.2532;0.5429;
465.0000;0.2532;0.5453;
465.3000;0.2548;0.5405;
465.6000;0.2564;0.5502;
465.9000;0.2548;0.5405;
466.2000;0.2532;0.5453;
466.5000;0.2532;0.5405;
466.8000;0.2523;0.5332;
467.1000;0.2466;0.5114;
467.4000;0.2548;0.5235;
467.7000;0.2515;0.5187;
468.0000;0.2515;0.5187;
468.3000;0.2540;0.5332;
468.6000;0.2532;0.5356;
468.9000;0.2515;0.5332;
469.2000;0.2523;0.5308;
469.5000;0.2523;0.5259;
469.8000;0.2523;0.5308;
470.1000;0.2499;0.5163;
470.4000;0.2540;0.5332;
470.7000;0.2523;0.5332;
471.0000;0.2637;0.5575;
471.3000;0.2523;0.5235;
471.6000;0.2532;0.5284;
471.9000;0.2532;0.5308;
472.2000;0.2532;0.5284;
472.5000;0.2556;0.5284;
472.8000;0.2532;0.5284;
473.1000;0.2532;0.5308;
473.4000;0.2540;0.5308;
473.7000;0.2548;0.5308;
474.0000;0.2491;0.5066;
474.3000;0.2523;0.5138;
474.6000;0.2548;0.5163;
474.9000;0.2532;0.5211;
475.2000;0.2589;0.5332;
475.5000;0.2540;0.5332;
475.8000;0.2523;0.5284;
476.1000;0.2556;0.5308;
476.4000;0.2532;0.5259;
476.7000;0.2540;0.5284;
477.0000;0.2523;0.5235;
477.3000;0.2532;0.5284;
477.6000;0.2540;0.5332;
477.9000;0.2523;0.5332;
478.2000;0.2466;0.5187;
478.5000;0.2491;0.5211;
478.8000;0.2515;0.5356;
479.1000;0.2548;0.5502;
479.4000;0.2564;0.5671;
479.7000;0.2515;0.5575;
480.0000;0.2540;0.5671;
480.3000;0.2532;0.5599;
480.6000;0.2548;0.5671;
480.9000;0.2523;0.5671;
481.2000;0.2572;0.5817;
481.5000;0.2556;0.5768;
481.8000;0.2548;0.5793;
482.1000;0.2515;0.5671;
482.4000;0.2466;0.5478;
482.7000;0.2507;0.5526;
483.0000;0.2548;0.5526;
483.3000;0.2589;0.5550;
483.6000;0.2523;0.5356;
483.9000;0.2572;0.5502;
484.2000;0.2515;0.5356;
484.5000;0.2523;0.5429;
484.8000;0.2491;0.5259;
485.1000;0.2466;0.5114;
485.4000;0.2540;0.5187;
485.7000;0.2589;0.5356;
486.0000;0.2523;0.5284;
486.3000;0.2523;0.5356;
486.6000;0.2548;0.5478;
486.9000;0.2442;0.5235;
487.2000;0.2540;0.5502;
487.5000;0.2532;0.5429;
487.8000;0.2540;0.5453;
488.1000;0.2556;0.5429;
488.4000;0.2523;0.5381;
488.7000;0.2597;0.5599;
489.0000;0.2548;0.5526;
489.3000;0.2523;0.5526;
489.6000;0.2548;0.5502;
489.9000;0.2515;0.5405;
490.2000;0.2540;0.5453;
490.5000;0.2466;0.5308;
490.8000;0.2532;0.5429;
491.1000;0.2515;0.5405;
491.4000;0.2515;0.5308;
491.7000;0.2540;0.5356;
492.0000;0.2540;0.5332;
492.3000;0.2515;0.5284;
492.6000;0.2540;0.5284;
492.9000;0.2523;0.5284;
493.2000;0.2532;0.5332;
493.5000;0.2540;0.5332;
493.8000;0.2523;0.5332;
494.1000;0.2548;0.5429;
494.4000;0.2540;0.5405;
494.7000;0.2540;0.5405;
495.0000;0.2540;0.5429;
495.3000;0.2548;0.5429;
495.6000;0.2523;0.5453;
495.9000;0.2548;0.5429;
496.2000;0.2548;0.5453;
496.5000;0.2548;0.5453;
496.8000;0.2540;0.5405;
497.1000;0.2466;0.5163;
497.4000;0.2523;0.5381;
497.7000;0.2540;0.5332;
498.0000;0.2540;0.5381;
498.3000;0.2621;0.5453;
498.6000;0.2556;0.5259;
498.9000;0.2532;0.5187;
499.2000;0.2523;0.5211;
499.5000;0.2532;0.5211;
499.8000;0.2556;0.5211;
500.1000;0.2515;0.5138;
500.4000;0.2540;0.5138;
500.7000;0.2523;0.4944;
501.0000;0.2523;0.4969;
501.3000;0.2515;0.4969;
501.6000;0.2540;0.5041;
501.9000;0.2507;0.5041;
502.2000;0.2523;0.5187;
502.5000;0.2523;0.5332;
502.8000;0.2556;0.5332;
503.1000;0.2540;0.5356;
503.4000;0.2499;0.5284;
503.7000;0.2556;0.5332;
504.0000;0.2540;0.5284;
504.3000;0.2532;0.5308;
504.6000;0.2475;0.5163;
504.9000;0.2540;0.5259;
505.2000;0.2483;0.5163;
505.5000;0.2515;0.5259;
505.8000;0.2613;0.5575;
506.1000;0.2507;0.5356;
506.4000;0.2491;0.5332;
506.7000;0.2580;0.5575;
507.0000;0.2572;0.5671;
507.3000;0.2499;0.5381;
507.6000;0.2540;0.5453;
507.9000;0.2540;0.5453;
508.2000;0.2564;0.5526;
508.5000;0.2556;0.5575;
508.8000;0.2434;0.5308;
509.1000;0.2523;0.5550;
509.4000;0.2548;0.5647;
509.7000;0.2548;0.5599;
510.0000;0.2532;0.5526;
510.3000;0.2540;0.5478;
510.6000;0.2540;0.5478;
510.9000;0.2515;0.5381;
511.2000;0.2532;0.5381;
511.5000;0.2499;0.5381;
511.8000;0.2532;0.5575;
512.1000;0.2515;0.5575;
512.4000;0.2523;0.5575;
512.7000;0.2564;0.5526;
513.0000;0.2523;0.5453;
513.3000;0.2548;0.5526;
513.6000;0.2523;0.5453;
513.9000;0.2532;0.5478;
514.2000;0.2515;0.5405;
514.5000;0.2523;0.5381;
514.8000;0.2532;0.5429;
515.1000;0.2523;0.5429;
515.4000;0.2515;0.5405;
515.7000;0.2556;0.5453;
516.0000;0.2515;0.5405;
516.3000;0.2507;0.5429;
516.6000;0.2515;0.5478;
516.9000;0.2532;0.5526;
517.2000;0.2556;0.5623;
517.5000;0.2515;0.5599;
517.8000;0.2540;0.5671;
518.1000;0.2532;0.5671;
518.4000;0.2532;0.5623;
518.7000;0.2523;0.5599;
519.0000;0.2540;0.5647;
519.3000;0.2540;0.5696;
519.6000;0.2540;0.5623;
519.9000;0.2540;0.5623;
520.2000;0.2523;0.5575;
520.5000;0.2507;0.5647;
520.8000;0.2532;0.5647;
521.1000;0.2532;0.5599;
521.4000;0.2548;0.5599;
521.7000;0.2548;0.5647;
522.0000;0.2670;0.6011;
522.3000;0.2605;0.5890;
522.6000;0.2532;0.5599;
522.9000;0.2532;0.5575;
523.2000;0.2491;0.5478;
523.5000;0.2548;0.5550;
523.8000;0.2580;0.5768;
524.1000;0.2532;0.5623;
524.4000;0.2532;0.5550;
524.7000;0.2540;0.5526;
525.0000;0.2548;0.5575;
525.3000;0.2523;0.5623;
525.6000;0.2523;0.5502;
525.9000;0.2532;0.5502;
526.2000;0.2523;0.5453;
526.5000;0.2499;0.5405;
526.8000;0.2507;0.5453;
527.1000;0.2483;0.5429;
527.4000;0.2499;0.5550;
527.7000;0.2523;0.5599;
528.0000;0.2507;0.5575;
528.3000;0.2523;0.5502;
528.6000;0.2523;0.5502;
528.9000;0.2540;0.5575;
529.2000;0.2540;0.5550;
529.5000;0.2442;0.5308;
529.8000;0.2564;0.5526;
530.1000;0.2532;0.5453;
530.4000;0.2523;0.5356;
530.7000;0.2499;0.5429;
531.0000;0.2523;0.5356;
531.3000;0.2532;0.5381;
531.6000;0.2523;0.5453;
531.9000;0.2540;0.5453;
532.2000;0.2532;0.5405;
532.5000;0.2491;0.5381;
532.8000;0.2532;0.5429;
533.1000;0.2532;0.5453;
533.4000;0.2540;0.5550;
533.7000;0.2491;0.5356;
534.0000;0.2540;0.5502;
534.3000;0.2540;0.5575;
534.6000;0.2556;0.5599;
534.9000;0.2711;0.5962;
535.2000;0.2540;0.5453;
535.5000;0.2532;0.5381;
535.8000;0.2532;0.5356;
536.1000;0.2556;0.5478;
536.4000;0.2556;0.5453;
536.7000;0.2532;0.5429;
537.0000;0.2475;0.5235;
537.3000;0.2556;0.5453;
537.6000;0.2442;0.5090;
537.9000;0.2540;0.5429;
538.2000;0.2540;0.5453;
538.5000;0.2515;0.5453;
538.8000;0.2548;0.5526;
539.1000;0.2540;0.5453;
539.4000;0.2515;0.5356;
539.7000;0.2548;0.5405;
540.0000;0.2556;0.5575;
540.3000;0.2523;0.5502;
540.6000;0.2523;0.5502;
540.9000;0.2507;0.5429;
541.2000;0.2499;0.5381;
541.5000;0.2532;0.5381;
541.8000;0.2523;0.5332;
542.1000;0.2532;0.5332;
542.4000;0.2629;0.5647;
542.7000;0.2532;0.5332;
543.0000;0.2548;0.5478;
543.3000;0.2507;0.5405;
543.6000;0.2532;0.5381;
543.9000;0.2589;0.5526;
544.2000;0.2548;0.5405;
544.5000;0.2556;0.5405;
544.8000;0.2523;0.5356;
545.1000;0.2532;0.5502;
545.4000;0.2548;0.5526;
545.7000;0.2572;0.5623;
546.0000;0.2507;0.5502;
546.3000;0.2523;0.5502;
546.6000;0.2523;0.5502;
546.9000;0.2532;0.5478;
547.2000;0.2523;0.5429;
547.5000;0.2523;0.5356;
547.8000;0.2556;0.5405;
548.1000;0.2548;0.5429;
548.4000;0.2540;0.5429;
548.7000;0.2540;0.5478;
549.0000;0.2564;0.5453;
549.3000;0.2564;0.5526;
549.6000;0.2507;0.5429;
549.9000;0.2540;0.5550;
550.2000;0.2548;0.5526;
550.5000;0.2540;0.5599;
550.8000;0.2540;0.5671;
551.1000;0.2532;0.5647;
551.4000;0.2532;0.5647;
551.7000;0.2532;0.5647;
552.0000;0.2540;0.5599;
552.3000;0.2507;0.5526;
552.6000;0.2523;0.5647;
552.9000;0.2523;0.5647;
553.2000;0.2523;0.5623;
553.5000;0.2548;0.5671;
553.8000;0.2540;0.5599;
554.1000;0.2556;0.5599;
554.4000;0.2572;0.5623;
554.7000;0.2532;0.5575;
555.0000;0.2507;0.5478;
555.3000;0.2548;0.5599;
555.6000;0.2540;0.5550;
555.9000;0.2532;0.5478;
556.2000;0.2540;0.5502;
556.5000;0.2548;0.5599;
556.8000;0.2499;0.5429;
557.1000;0.2507;0.5429;
557.4000;0.2540;0.5453;
557.7000;0.2475;0.5187;
558.0000;0.2532;0.5308;
558.3000;0.2515;0.5308;
558.6000;0.2507;0.5356;
558.9000;0.2532;0.5453;
559.2000;0.2515;0.5453;
559.5000;0.2475;0.5429;
559.8000;0.2507;0.5429;
560.1000;0.2532;0.5478;
560.4000;0.2532;0.5478;
560.7000;0.2540;0.5453;
561.0000;0.2556;0.5502;
561.3000;0.2532;0.5453;
561.6000;0.2532;0.5453;
561.9000;0.2540;0.5478;
562.2000;0.2532;0.5429;
562.5000;0.2523;0.5356;
562.8000;0.2532;0.5502;
563.1000;0.2499;0.5502;
563.4000;0.2532;0.5550;
563.7000;0.2532;0.5526;
564.0000;0.2523;0.5526;
564.3000;0.2532;0.5575;
564.6000;0.2515;0.5502;
564.9000;0.2532;0.5478;
565.2000;0.2515;0.5381;
565.5000;0.2540;0.5405;
565.8000;0.2532;0.5453;
566.1000;0.2548;0.5478;
566.4000;0.2507;0.5381;
566.7000;0.2515;0.5502;
567.0000;0.2532;0.5502;
567.3000;0.2532;0.5478;
567.6000;0.2515;0.5356;
567.9000;0.2499;0.5381;
568.2000;0.2532;0.5429;
568.5000;0.2532;0.5453;
568.8000;0.2532;0.5381;
569.1000;0.2515;0.5381;
569.4000;0.2532;0.5502;
569.7000;0.2532;0.5550;
570.0000;0.2458;0.5284;
570.3000;0.2523;0.5405;
570.6000;0.2540;0.5381;
570.9000;0.2540;0.5356;
571.2000;0.2499;0.5308;
571.5000;0.2532;0.5502;
571.8000;0.2523;0.5502;
572.1000;0.2450;0.5308;
572.4000;0.2629;0.5768;
572.7000;0.2523;0.5575;
573.0000;0.2523;0.5599;
573.3000;0.2532;0.5623;
573.6000;0.2532;0.5671;
573.9000;0.2507;0.5502;
574.2000;0.2532;0.5550;
574.5000;0.2540;0.5623;
574.8000;0.2523;0.5550;
575.1000;0.2515;0.5502;
575.4000;0.2589;0.5744;
575.7000;0.2523;0.5599;
576.0000;0.2515;0.5550;
576.3000;0.2532;0.5575;
576.6000;0.2572;0.5671;
576.9000;0.2532;0.5575;
577.2000;0.2540;0.5623;
577.5000;0.2523;0.5478;
577.8000;0.2523;0.5550;
578.1000;0.2572;0.5671;
578.4000;0.2523;0.5550;
578.7000;0.2450;0.5381;
579.0000;0.2532;0.5526;
579.3000;0.2515;0.5453;
579.6000;0.2515;0.5429;
579.9000;0.2548;0.5599;
580.2000;0.2523;0.5502;
580.5000;0.2572;0.5671;
580.8000;0.2523;0.5599;
581.1000;0.2540;0.5599;
581.4000;0.2523;0.5550;
581.7000;0.2507;0.5429;
582.0000;0.2597;0.5696;
582.3000;0.2548;0.5671;
582.6000;0.2523;0.5526;
582.9000;0.2540;0.5502;
583.2000;0.2523;0.5381;
583.5000;0.2540;0.5526;
583.8000;0.2540;0.5453;
584.1000;0.2515;0.5405;
584.4000;0.2515;0.5381;
584.7000;0.2532;0.5453;
585.0000;0.2532;0.5356;
585.3000;0.2548;0.5429;
585.6000;0.2532;0.5332;
585.9000;0.2572;0.5478;
586.2000;0.2540;0.5453;
586.5000;0.2556;0.5405;
586.8000;0.2532;0.5381;
587.1000;0.2589;0.5575;
587.4000;0.2548;0.5453;
587.7000;0.2548;0.5405;
588.0000;0.2507;0.5284;
588.3000;0.2540;0.5405;
588.6000;0.2540;0.5453;
588.9000;0.2515;0.5356;
589.2000;0.2483;0.5284;
589.5000;0.2532;0.5356;
589.8000;0.2532;0.5356;
590.1000;0.2540;0.5429;
590.4000;0.2523;0.5308;
590.7000;0.2540;0.5332;
591.0000;0.2548;0.5356;
591.3000;0.2540;0.5332;
591.6000;0.2540;0.5332;
591.9000;0.2540;0.5356;
592.2000;0.2507;0.5211;
592.5000;0.2548;0.5259;
592.8000;0.2540;0.5259;
593.1000;0.2532;0.5235;
593.4000;0.2523;0.5259;
593.7000;0.2532;0.5308;
594.0000;0.2523;0.5211;
594.3000;0.2532;0.5187;
594.6000;0.2507;0.5138;
594.9000;0.2548;0.5211;
595.2000;0.2532;0.5211;
595.5000;0.2523;0.5259;
595.8000;0.2523;0.5308;
596.1000;0.2491;0.5235;
596.4000;0.2597;0.5575;
596.7000;0.2515;0.5381;
597.0000;0.2515;0.5356;
597.3000;0.2532;0.5405;
597.6000;0.2564;0.5429;
597.9000;0.2515;0.5429;
598.2000;0.2597;0.5720;
598.5000;0.2532;0.5478;
598.8000;0.2523;0.5478;
599.1000;0.2532;0.5526;
599.4000;0.2564;0.5502;
599.7000;0.2523;0.5429;
600.0000;0.2499;0.5405;
600.3000;0.2540;0.5502;
600.6000;0.2532;0.5381;
600.9000;0.2523;0.5187;
601.2000;0.2515;0.5090;
601.5000;0.2507;0.4993;
601.8000;0.2507;0.4823;
602.1000;0.2491;0.4581;
602.4000;0.2491;0.4411;
602.7000;0.2572;0.4508;
603.0000;0.2475;0.4072;
603.3000;0.2466;0.4023;
603.6000;0.2466;0.3975;
603.9000;0.2466;0.3854;
604.2000;0.2483;0.3854;
604.5000;0.2458;0.3805;
604.8000;0.2442;0.3733;
605.1000;0.2466;0.3733;
605.4000;0.2458;0.3684;
605.7000;0.2475;0.3636;
606.0000;0.2475;0.3587;
606.3000;0.2523;0.3684;
606.6000;0.2450;0.3466;
606.9000;0.2466;0.3466;
607.2000;0.2450;0.3466;
607.5000;0.2450;0.3539;
607.8000;0.2466;0.3539;
608.1000;0.2434;0.3345;
608.4000;0.2434;0.3224;
608.7000;0.2442;0.3199;
609.0000;0.2475;0.3224;
609.3000;0.2458;0.3175;
609.6000;0.2442;0.3199;
609.9000;0.2377;0.3078;
610.2000;0.2450;0.3296;
610.5000;0.2409;0.3127;
610.8000;0.2442;0.3320;
611.1000;0.2434;0.3320;
611.4000;0.2458;0.3320;
611.7000;0.2450;0.3175;
612.0000;0.2450;0.3127;
612.3000;0.2458;0.3127;
612.6000;0.2426;0.3078;
612.9000;0.2442;0.3102;
613.2000;0.2442;0.3078;
613.5000;0.2434;0.3054;
613.8000;0.2434;0.3175;
614.1000;0.2475;0.3296;
614.4000;0.2426;0.3151;
614.7000;0.2434;0.3054;
615.0000;0.2434;0.3224;
615.3000;0.2377;0.3102;
615.6000;0.2442;0.3127;
615.9000;0.2434;0.3175;
616.2000;0.2450;0.3272;
616.5000;0.2361;0.3005;
616.8000;0.2450;0.3199;
617.1000;0.2434;0.3127;
617.4000;0.2450;0.3175;
617.7000;0.2426;0.3102;
618.0000;0.2442;0.3127;
618.3000;0.2442;0.3078;
618.6000;0.2401;0.3030;
618.9000;0.2426;0.3127;
619.2000;0.2458;0.3199;
619.5000;0.2434;0.3199;
619.8000;0.2409;0.3054;
620.1000;0.2491;0.3320;
620.4000;0.2426;0.3127;
620.7000;0.2458;0.3151;
621.0000;0.2442;0.3005;
621.3000;0.2450;0.3030;
621.6000;0.2442;0.2933;
621.9000;0.2418;0.2812;
622.2000;0.2328;0.2642;
622.5000;0.2442;0.3030;
622.8000;0.2458;0.3078;
623.1000;0.2426;0.3054;
623.4000;0.2352;0.2836;
623.7000;0.2434;0.3054;
624.0000;0.2418;0.3054;
624.3000;0.2442;0.3199;
624.6000;0.2418;0.3151;
624.9000;0.2426;0.3151;
625.2000;0.2442;0.3224;
625.5000;0.2434;0.3175;
625.8000;0.2434;0.3224;
626.1000;0.2442;0.3224;
626.4000;0.2426;0.3199;
626.7000;0.2442;0.3224;
627.0000;0.2434;0.3102;
627.3000;0.2434;0.3102;
627.6000;0.2409;0.2908;
627.9000;0.2442;0.3127;
628.2000;0.2458;0.3224;
628.5000;0.2580;0.3514;
628.8000;0.2450;0.3175;
629.1000;0.2458;0.3102;
629.4000;0.2442;0.3127;
629.7000;0.2409;0.3102;
630.0000;0.2426;0.3224;
630.3000;0.2434;0.3248;
630.6000;0.2442;0.3151;
630.9000;0.2418;0.3102;
631.2000;0.2409;0.3030;
631.5000;0.2401;0.3078;
631.8000;0.2434;0.3151;
632.1000;0.2434;0.3030;
632.4000;0.2442;0.3030;
632.7000;0.2442;0.3005;
633.0000;0.2434;0.3030;
633.3000;0.2450;0.3030;
633.6000;0.2434;0.2981;
633.9000;0.2401;0.2884;
634.2000;0.2442;0.2933;
634.5000;0.2426;0.2860;
634.8000;0.2442;0.2884;
635.1000;0.2442;0.2908;
635.4000;0.2409;0.2812;
635.7000;0.2426;0.2860;
636.0000;0.2442;0.2787;
636.3000;0.2426;0.2715;
636.6000;0.2434;0.2787;
636.9000;0.2442;0.2836;
637.2000;0.2434;0.2812;
637.5000;0.2450;0.2860;
637.8000;0.2466;0.2908;
638.1000;0.2458;0.2981;
638.4000;0.2450;0.3054;
638.7000;0.2442;0.3151;
639.0000;0.2426;0.3078;
639.3000;0.2361;0.2908;
639.6000;0.2426;0.3102;
639.9000;0.2434;0.3127;
640.2000;0.2450;0.3199;
640.5000;0.2328;0.2787;
640.8000;0.2434;0.3005;
641.1000;0.2409;0.2860;
641.4000;0.2434;0.2908;
641.7000;0.2442;0.2933;
642.0000;0.2426;0.2957;
642.3000;0.2434;0.3005;
642.6000;0.2450;0.3005;
642.9000;0.2556;0.3320;
643.2000;0.2426;0.2981;
643.5000;0.2409;0.2981;
643.8000;0.2450;0.3030;
644.1000;0.2434;0.2908;
644.4000;0.2450;0.2884;
644.7000;0.2450;0.2884;
645.0000;0.2418;0.2884;
645.3000;0.2418;0.2836;
645.6000;0.2426;0.2860;
645.9000;0.2442;0.2908;
646.2000;0.2434;0.2933;
646.5000;0.2450;0.2933;
646.8000;0.2442;0.2908;
647.1000;0.2434;0.2957;
647.4000;0.2442;0.2981;
647.7000;0.2450;0.2933;
648.0000;0.2442;0.2908;
648.3000;0.2442;0.2908;
648.6000;0.2458;0.2957;
648.9000;0.2458;0.3005;
649.2000;0.2442;0.2884;
649.5000;0.2442;0.2908;
649.8000;0.2426;0.2884;
650.1000;0.2442;0.3005;
650.4000;0.2426;0.2957;
650.7000;0.2434;0.2933;
651.0000;0.2450;0.2957;
651.3000;0.2442;0.2933;
651.6000;0.2426;0.2860;
651.9000;0.2426;0.2787;
652.2000;0.2442;0.2884;
652.5000;0.2426;0.2860;
652.8000;0.2450;0.2981;
653.1000;0.2426;0.2908;
653.4000;0.2442;0.2860;
653.7000;0.2450;0.2812;
654.0000;0.2450;0.2836;
654.3000;0.2442;0.2763;
654.6000;0.2548;0.3030;
654.9000;0.2442;0.2739;
655.2000;0.2532;0.3102;
655.5000;0.2483;0.2933;
655.8000;0.2418;0.2763;
656.1000;0.2458;0.2908;
656.4000;0.2515;0.3078;
656.7000;0.2426;0.2908;
657.0000;0.2442;0.2933;
657.3000;0.2418;0.2908;
657.6000;0.2442;0.2933;
657.9000;0.2458;0.2908;
658.2000;0.2442;0.2908;
658.5000;0.2434;0.2812;
658.8000;0.2434;0.2763;
659.1000;0.2434;0.2739;
659.4000;0.2418;0.2763;
659.7000;0.2426;0.2836;
660.0000;0.2434;0.2836;
660.3000;0.2418;0.2739;
660.6000;0.2426;0.2860;
660.9000;0.2434;0.2860;
661.2000;0.2442;0.2933;
661.5000;0.2401;0.2739;
661.8000;0.2409;0.2763;
662.1000;0.2475;0.2884;
662.4000;0.2442;0.2787;
662.7000;0.2442;0.2763;
663.0000;0.2442;0.2763;
663.3000;0.2466;0.2884;
663.6000;0.2434;0.2787;
663.9000;0.2434;0.2787;
664.2000;0.2434;0.2812;
664.5000;0.2426;0.2933;
664.8000;0.2418;0.2981;
665.1000;0.2450;0.3054;
665.4000;0.2442;0.3030;
665.7000;0.2442;0.3102;
666.0000;0.2442;0.3151;
666.3000;0.2442;0.3151;
666.6000;0.2418;0.3151;
666.9000;0.2466;0.3272;
667.2000;0.2418;0.3078;
667.5000;0.2442;0.3078;
667.8000;0.2434;0.3005;
668.1000;0.2450;0.3078;
668.4000;0.2442;0.3005;
668.7000;0.2442;0.2981;
669.0000;0.2450;0.3030;
669.3000;0.2426;0.3030;
669.6000;0.2434;0.2981;
669.9000;0.2418;0.2957;
670.2000;0.2409;0.3030;
670.5000;0.2442;0.3127;
670.8000;0.2475;0.3175;
671.1000;0.2409;0.3054;
671.4000;0.2409;0.3151;
671.7000;0.2442;0.3199;
672.0000;0.2442;0.3127;
672.3000;0.2442;0.3078;
672.6000;0.2434;0.3030;
672.9000;0.2450;0.2933;
673.2000;0.2450;0.2860;
673.5000;0.2442;0.2812;
673.8000;0.2434;0.2812;
674.1000;0.2442;0.2860;
674.4000;0.2442;0.2908;
674.7000;0.2409;0.2957;
675.0000;0.2442;0.3030;
675.3000;0.2426;0.2981;
675.6000;0.2434;0.3005;
675.9000;0.2426;0.2933;
676.2000;0.2418;0.2908;
676.5000;0.2426;0.2981;
676.8000;0.2434;0.3078;
677.1000;0.2434;0.2981;
677.4000;0.2434;0.2933;
677.7000;0.2328;0.2666;
678.0000;0.2434;0.2908;
678.3000;0.2450;0.2908;
678.6000;0.2434;0.2884;
678.9000;0.2426;0.2884;
679.2000;0.2442;0.2957;
679.5000;0.2450;0.2933;
679.8000;0.2442;0.2836;
680.1000;0.2442;0.2812;
680.4000;0.2450;0.2884;
680.7000;0.2450;0.2908;
681.0000;0.2466;0.3005;
681.3000;0.2426;0.2836;
681.6000;0.2426;0.2908;
681.9000;0.2450;0.3102;
682.2000;0.2442;0.3078;
682.5000;0.2491;0.3175;
682.8000;0.2442;0.3175;
683.1000;0.2450;0.3127;
683.4000;0.2450;0.3078;
683.7000;0.2442;0.3054;
684.0000;0.2434;0.3054;
684.3000;0.2442;0.3078;
684.6000;0.2442;0.3054;
684.9000;0.2442;0.3054;
685.2000;0.2434;0.3030;
685.5000;0.2450;0.3078;
685.8000;0.2361;0.2763;
686.1000;0.2393;0.2908;
686.4000;0.2426;0.3005;
686.7000;0.2426;0.3054;
687.0000;0.2442;0.3054;
687.3000;0.2450;0.3127;
687.6000;0.2450;0.3151;
687.9000;0.2442;0.3151;
688.2000;0.2377;0.3030;
688.5000;0.2442;0.3127;
688.8000;0.2434;0.3224;
689.1000;0.2450;0.3248;
689.4000;0.2507;0.3296;
689.7000;0.2442;0.3078;
690.0000;0.2442;0.3078;
690.3000;0.2426;0.3151;
690.6000;0.2532;0.3417;
690.9000;0.2515;0.3393;
691.2000;0.2401;0.3054;
691.5000;0.2442;0.3102;
691.8000;0.2450;0.3151;
692.1000;0.2426;0.3054;
692.4000;0.2450;0.3102;
692.7000;0.2442;0.3102;
693.0000;0.2409;0.3030;
693.3000;0.2434;0.3151;
693.6000;0.2507;0.3369;
693.9000;0.2393;0.3030;
694.2000;0.2442;0.3272;
694.5000;0.2442;0.3199;
694.8000;0.2426;0.3175;
695.1000;0.2418;0.3175;
695.4000;0.2434;0.3224;
695.7000;0.2450;0.3199;
696.0000;0.2442;0.3102;
696.3000;0.2434;0.3054;
696.6000;0.2523;0.3248;
696.9000;0.2442;0.2981;
697.2000;0.2466;0.3030;
697.5000;0.2466;0.3030;
697.8000;0.2434;0.3054;
698.1000;0.2450;0.3175;
698.4000;0.2409;0.3127;
698.7000;0.2442;0.3151;
699.0000;0.2450;0.3175;
699.3000;0.2475;0.3224;
699.6000;0.2450;0.3127;
699.9000;0.2434;0.3054;
700.2000;0.2450;0.3030;
700.5000;0.2418;0.2957;
700.8000;0.2442;0.3102;
701.1000;0.2442;0.3272;
701.4000;0.2450;0.3248;
701.7000;0.2434;0.3320;
702.0000;0.2426;0.3296;
702.3000;0.2426;0.3248;
702.6000;0.2434;0.3248;
702.9000;0.2434;0.3199;
703.2000;0.2418;0.3102;
703.5000;0.2434;0.3127;
703.8000;0.2466;0.3248;
704.1000;0.2442;0.3199;
704.4000;0.2393;0.3054;
704.7000;0.2450;0.3199;
705.0000;0.2418;0.3127;
705.3000;0.2418;0.3054;
705.6000;0.2434;0.3102;
705.9000;0.2442;0.3127;
706.2000;0.2377;0.2836;
706.5000;0.2589;0.3442;
706.8000;0.2418;0.3005;
707.1000;0.2523;0.3272;
707.4000;0.2442;0.3248;
707.7000;0.2442;0.3272;
708.0000;0.2434;0.3175;
708.3000;0.2418;0.3078;
708.6000;0.2418;0.3078;
708.9000;0.2450;0.3175;
709.2000;0.2442;0.3199;
709.5000;0.2499;0.3296;
709.8000;0.2434;0.3199;
710.1000;0.2434;0.3248;
710.4000;0.2409;0.3151;
710.7000;0.2442;0.3175;
711.0000;0.2426;0.3224;
711.3000;0.2418;0.3224;
711.6000;0.2377;0.3054;
711.9000;0.2418;0.3102;
712.2000;0.2466;0.3272;
712.5000;0.2442;0.3248;
712.8000;0.2434;0.3151;
713.1000;0.2385;0.3054;
713.4000;0.2442;0.3248;
713.7000;0.2434;0.3199;
714.0000;0.2434;0.3199;
714.3000;0.2434;0.3199;
714.6000;0.2442;0.3102;
714.9000;0.2434;0.3102;
715.2000;0.2475;0.3224;
715.5000;0.2393;0.3175;
715.8000;0.2426;0.3272;
716.1000;0.2458;0.3320;
716.4000;0.2409;0.3199;
716.7000;0.2393;0.3175;
717.0000;0.2409;0.3248;
717.3000;0.2450;0.3296;
717.6000;0.2418;0.3175;
717.9000;0.2434;0.3248;
718.2000;0.2409;0.3199;
718.5000;0.2458;0.3248;
718.8000;0.2442;0.3199;
719.1000;0.2450;0.3199;
719.4000;0.2450;0.3175;
719.7000;0.2442;0.3224;
720.0000;0.2418;0.3224;
720.3000;0.2458;0.3248;
720.6000;0.2434;0.3296;
720.9000;0.2466;0.3224;
721.2000;0.2442;0.3054;
721.5000;0.2434;0.3078;
721.8000;0.2426;0.3030;
722.1000;0.2442;0.3030;
722.4000;0.2442;0.3127;
722.7000;0.2434;0.3175;
723.0000;0.2409;0.3175;
723.3000;0.2434;0.3127;
723.6000;0.2434;0.3102;
723.9000;0.2458;0.3078;
724.2000;0.2450;0.3030;
724.5000;0.2523;0.3248;
724.8000;0.2442;0.3127;
725.1000;0.2361;0.2908;
725.4000;0.2450;0.3102;
725.7000;0.2450;0.3151;
726.0000;0.2442;0.3078;
726.3000;0.2418;0.2981;
726.6000;0.2458;0.3127;
726.9000;0.2434;0.3151;
727.2000;0.2434;0.3151;
727.5000;0.2450;0.3127;
727.8000;0.2458;0.3127;
728.1000;0.2564;0.3272;
728.4000;0.2442;0.3005;
728.7000;0.2442;0.3078;
729.0000;0.2450;0.3054;
729.3000;0.2532;0.3345;
729.6000;0.2458;0.3175;
729.9000;0.2418;0.3030;
730.2000;0.2377;0.2836;
730.5000;0.2442;0.3078;
730.8000;0.2442;0.3151;
731.1000;0.2475;0.3248;
731.4000;0.2450;0.3102;
731.7000;0.2450;0.3127;
732.0000;0.2450;0.3102;
732.3000;0.2352;0.2933;
732.6000;0.2475;0.3175;
732.9000;0.2491;0.3199;
733.2000;0.2458;0.3151;
733.5000;0.2434;0.3127;
733.8000;0.2442;0.3054;
734.1000;0.2434;0.2981;
734.4000;0.2426;0.2981;
734.7000;0.2426;0.2957;
735.0000;0.2450;0.3030;
735.3000;0.2434;0.3054;
735.6000;0.2442;0.3151;
735.9000;0.2450;0.3151;
736.2000;0.2385;0.2933;
736.5000;0.2426;0.3030;
736.8000;0.2426;0.3030;
737.1000;0.2434;0.2981;
737.4000;0.2426;0.2933;
737.7000;0.2450;0.3005;
738.0000;0.2491;0.3102;
738.3000;0.2450;0.3078;
738.6000;0.2442;0.3054;
738.9000;0.2442;0.3030;
739.2000;0.2450;0.3005;
739.5000;0.2507;0.3175;
739.8000;0.2442;0.3054;
740.1000;0.2426;0.3030;
740.4000;0.2458;0.3078;
740.7000;0.2434;0.2981;
741.0000;0.2418;0.2933;
741.3000;0.2442;0.3030;
741.6000;0.2450;0.3054;
741.9000;0.2434;0.3102;
742.2000;0.2426;0.3030;
742.5000;0.2450;0.3030;
742.8000;0.2491;0.3199;
743.1000;0.2450;0.3030;
743.4000;0.2442;0.2981;
743.7000;0.2450;0.3078;
744.0000;0.2491;0.3224;
744.3000;0.2466;0.3102;
744.6000;0.2466;0.3151;
744.9000;0.2442;0.3151;
745.2000;0.2434;0.3199;
745.5000;0.2458;0.3320;
745.8000;0.2450;0.3248;
746.1000;0.2515;0.3442;
746.4000;0.2458;0.3199;
746.7000;0.2458;0.3248;
747.0000;0.2434;0.3127;
747.3000;0.2442;0.3175;
747.6000;0.2434;0.3151;
747.9000;0.2361;0.2957;
748.2000;0.2483;0.3199;
748.5000;0.2409;0.3199;
748.8000;0.2450;0.3320;
749.1000;0.2450;0.3296;
749.4000;0.2434;0.3248;
749.7000;0.2442;0.3248;
750.0000;0.2442;0.3151;
750.3000;0.2434;0.3175;
750.6000;0.2458;0.3175;
750.9000;0.2475;0.3151;
751.2000;0.2442;0.3102;
751.5000;0.2426;0.3030;
751.8000;0.2442;0.3005;
752.1000;0.2344;0.2836;
752.4000;0.2434;0.3102;
752.7000;0.2442;0.3054;
753.0000;0.2434;0.3030;
753.3000;0.2426;0.2981;
753.6000;0.2442;0.3005;
753.9000;0.2426;0.3030;
754.2000;0.2434;0.3005;
754.5000;0.2458;0.3054;
754.8000;0.2466;0.3030;
755.1000;0.2458;0.3030;
755.4000;0.2418;0.2933;
755.7000;0.2450;0.3005;
756.0000;0.2442;0.2908;
756.3000;0.2434;0.2884;
756.6000;0.2466;0.2860;
756.9000;0.2434;0.2836;
757.2000;0.2442;0.2908;
757.5000;0.2450;0.2933;
757.8000;0.2418;0.2787;
758.1000;0.2450;0.2884;
758.4000;0.2434;0.2860;
758.7000;0.2442;0.2836;
759.0000;0.2401;0.2836;
759.3000;0.2434;0.2812;
759.6000;0.2442;0.2812;
759.9000;0.2466;0.2860;
760.2000;0.2458;0.2763;
760.5000;0.2450;0.2787;
760.8000;0.2442;0.2836;
761.1000;0.2418;0.2836;
761.4000;0.2466;0.2933;
761.7000;0.2434;0.2884;
762.0000;0.2442;0.2957;
762.3000;0.2450;0.2836;
762.6000;0.2434;0.2836;
762.9000;0.2450;0.2957;
763.2000;0.2418;0.2860;
763.5000;0.2466;0.3030;
763.8000;0.2466;0.3054;
764.1000;0.2450;0.3054;
764.4000;0.2450;0.2957;
764.7000;0.2442;0.3078;
765.0000;0.2385;0.2957;
765.3000;0.2426;0.3127;
765.6000;0.2434;0.3127;
765.9000;0.2434;0.3102;
766.2000;0.2442;0.3151;
766.5000;0.2466;0.3127;
766.8000;0.2426;0.3030;
767.1000;0.2458;0.3078;
767.4000;0.2466;0.3127;
767.7000;0.2442;0.3054;
768.0000;0.2442;0.3054;
768.3000;0.2442;0.3078;
768.6000;0.2393;0.2957;
768.9000;0.2442;0.3102;
769.2000;0.2393;0.2933;
769.5000;0.2361;0.2933;
769.8000;0.2442;0.3054;
770.1000;0.2418;0.2981;
770.4000;0.2450;0.3054;
770.7000;0.2450;0.3102;
771.0000;0.2556;0.3345;
771.3000;0.2434;0.3078;
771.6000;0.2434;0.3078;
771.9000;0.2434;0.3030;
772.2000;0.2507;0.3345;
772.5000;0.2475;0.3296;
772.8000;0.2450;0.3199;
773.1000;0.2418;0.3005;
773.4000;0.2434;0.2957;
773.7000;0.2434;0.3005;
774.0000;0.2442;0.3005;
774.3000;0.2401;0.2787;
774.6000;0.2442;0.2836;
774.9000;0.2434;0.2860;
775.2000;0.2450;0.3005;
775.5000;0.2434;0.2981;
775.8000;0.2418;0.2908;
776.1000;0.2532;0.3151;
776.4000;0.2434;0.2787;
776.7000;0.2401;0.2763;
777.0000;0.2434;0.2908;
777.3000;0.2434;0.2860;
777.6000;0.2434;0.2836;
777.9000;0.2442;0.2836;
778.2000;0.2442;0.2812;
778.5000;0.2442;0.2812;
778.8000;0.2434;0.2836;
779.1000;0.2442;0.2860;
779.4000;0.2426;0.2763;
779.7000;0.2450;0.2836;
780.0000;0.2466;0.2836;
780.3000;0.2434;0.2787;
780.6000;0.2442;0.2836;
780.9000;0.2442;0.2836;
781.2000;0.2466;0.2933;
781.5000;0.2434;0.2933;
781.8000;0.2450;0.2957;
782.1000;0.2458;0.3054;
782.4000;0.2418;0.2933;
782.7000;0.2466;0.2981;
783.0000;0.2434;0.2908;
783.3000;0.2426;0.2908;
783.6000;0.2515;0.3078;
783.9000;0.2466;0.2884;
784.2000;0.2442;0.2933;
784.5000;0.2442;0.2933;
784.8000;0.2442;0.2981;
785.1000;0.2434;0.2957;
785.4000;0.2361;0.2812;
785.7000;0.2442;0.3005;
786.0000;0.2434;0.3005;
786.3000;0.2458;0.3005;
786.6000;0.2475;0.3175;
786.9000;0.2450;0.3054;
787.2000;0.2442;0.3102;
787.5000;0.2442;0.3151;
787.8000;0.2442;0.3175;
788.1000;0.2458;0.3127;
788.4000;0.2483;0.3102;
788.7000;0.2418;0.2908;
789.0000;0.2434;0.2981;
789.3000;0.2499;0.3151;
789.6000;0.2450;0.3078;
789.9000;0.2450;0.3151;
790.2000;0.2475;0.3272;
790.5000;0.2450;0.3127;
790.8000;0.2442;0.3005;
791.1000;0.2483;0.3054;
791.4000;0.2466;0.3005;
791.7000;0.2426;0.2884;
792.0000;0.2442;0.2981;
792.3000;0.2442;0.3054;
792.6000;0.2442;0.3127;
792.9000;0.2450;0.3175;
793.2000;0.2442;0.3127;
793.5000;0.2418;0.3005;
793.8000;0.2442;0.3054;
794.1000;0.2426;0.3078;
794.4000;0.2434;0.3030;
794.7000;0.2491;0.3127;
795.0000;0.2434;0.2933;
795.3000;0.2450;0.2884;
795.6000;0.2450;0.2860;
795.9000;0.2458;0.2957;
796.2000;0.2369;0.2739;
796.5000;0.2580;0.3393;
796.8000;0.2442;0.3078;
797.1000;0.2466;0.3127;
797.4000;0.2458;0.3102;
797.7000;0.2450;0.3102;
798.0000;0.2442;0.3102;
798.3000;0.2442;0.3102;
798.6000;0.2426;0.3054;
798.9000;0.2450;0.3175;
799.2000;0.2442;0.3272;
799.5000;0.2442;0.3296;
799.8000;0.2434;0.3320;
800.1000;0.2442;0.3417;
800.4000;0.2442;0.3442;
800.7000;0.2450;0.3369;
801.0000;0.2458;0.3272;
801.3000;0.2458;0.3224;
801.6000;0.2458;0.3151;
801.9000;0.2442;0.3005;
802.2000;0.2458;0.3030;
802.5000;0.2442;0.2860;
802.8000;0.2442;0.2836;
803.1000;0.2442;0.2908;
803.4000;0.2450;0.2884;
803.7000;0.2426;0.2812;
804.0000;0.2450;0.2763;
804.3000;0.2393;0.2739;
804.6000;0.2458;0.3005;
804.9000;0.2450;0.3005;
805.2000;0.2442;0.3030;
805.5000;0.2442;0.3005;
805.8000;0.2442;0.2957;
806.1000;0.2450;0.2981;
806.4000;0.2499;0.3199;
806.7000;0.2434;0.3151;
807.0000;0.2466;0.3248;
807.3000;0.2458;0.3272;
807.6000;0.2499;0.3320;
807.9000;0.2450;0.3224;
808.2000;0.2458;0.3151;
808.5000;0.2458;0.3199;
808.8000;0.2409;0.3102;
809.1000;0.2442;0.3175;
809.4000;0.2434;0.3127;
809.7000;0.2483;0.3175;
810.0000;0.2434;0.2933;
810.3000;0.2418;0.2884;
810.6000;0.2540;0.3272;
810.9000;0.2442;0.3005;
811.2000;0.2458;0.3151;
811.5000;0.2434;0.3175;
811.8000;0.2442;0.3151;
812.1000;0.2426;0.3175;
812.4000;0.2450;0.3199;
812.7000;0.2320;0.2836;
813.0000;0.2442;0.3199;
813.3000;0.2450;0.3175;
813.6000;0.2434;0.3102;
813.9000;0.2426;0.3078;
814.2000;0.2418;0.3078;
814.5000;0.2450;0.3127;
814.8000;0.2434;0.3127;
815.1000;0.2442;0.3102;
815.4000;0.2450;0.3102;
815.7000;0.2418;0.3102;
816.0000;0.2442;0.3199;
816.3000;0.2442;0.3175;
816.6000;0.2466;0.3248;
816.9000;0.2458;0.3175;
817.2000;0.2466;0.3175;
817.5000;0.2434;0.3078;
817.8000;0.2434;0.3102;
818.1000;0.2434;0.3054;
818.4000;0.2458;0.3102;
818.7000;0.2434;0.3102;
819.0000;0.2442;0.3127;
819.3000;0.2434;0.3127;
819.6000;0.2450;0.3127;
819.9000;0.2434;0.3127;
820.2000;0.2409;0.3054;
820.5000;0.2434;0.3078;
820.8000;0.2450;0.3005;
821.1000;0.2466;0.3030;
821.4000;0.2466;0.3030;
821.7000;0.2442;0.2908;
822.0000;0.2442;0.2763;
822.3000;0.2377;0.2593;
822.6000;0.2442;0.2763;
822.9000;0.2442;0.2812;
823.2000;0.2344;0.2521;
823.5000;0.2426;0.2763;
823.8000;0.2401;0.2715;
824.1000;0.2426;0.2763;
824.4000;0.2475;0.2981;
824.7000;0.2442;0.2981;
825.0000;0.2434;0.3054;
825.3000;0.2352;0.2787;
825.6000;0.2434;0.3054;
825.9000;0.2450;0.3127;
826.2000;0.2450;0.3102;
826.5000;0.2450;0.3127;
826.8000;0.2442;0.3127;
827.1000;0.2458;0.3127;
827.4000;0.2434;0.3054;
827.7000;0.2450;0.3127;
828.0000;0.2442;0.3030;
828.3000;0.2434;0.3151;
828.6000;0.2442;0.3127;
828.9000;0.2442;0.3151;
829.2000;0.2450;0.3224;
829.5000;0.2442;0.3248;
829.8000;0.2434;0.3175;
830.1000;0.2434;0.3151;
830.4000;0.2442;0.3199;
830.7000;0.2434;0.3127;
831.0000;0.2458;0.3175;
831.3000;0.2442;0.3175;
831.6000;0.2466;0.3272;
831.9000;0.2450;0.3175;
832.2000;0.2458;0.3224;
832.5000;0.2458;0.3224;
832.8000;0.2450;0.3199;
833.1000;0.2442;0.3151;
833.4000;0.2458;0.3224;
833.7000;0.2434;0.3102;
834.0000;0.2328;0.2884;
834.3000;0.2458;0.3199;
834.6000;0.2499;0.3296;
834.9000;0.2450;0.3102;
835.2000;0.2442;0.2981;
835.5000;0.2434;0.2957;
835.8000;0.2458;0.3078;
836.1000;0.2442;0.3030;
836.4000;0.2352;0.2763;
836.7000;0.2523;0.3248;
837.0000;0.2458;0.3102;
837.3000;0.2442;0.3127;
837.6000;0.2426;0.3054;
837.9000;0.2434;0.3102;
838.2000;0.2442;0.3127;
838.5000;0.2401;0.2981;
838.8000;0.2450;0.3102;
839.1000;0.2450;0.3175;
839.4000;0.2458;0.3175;
839.7000;0.2466;0.3199;
840.0000;0.2458;0.3102;
840.3000;0.2434;0.3005;
840.6000;0.2442;0.3127;
840.9000;0.2418;0.3054;
841.2000;0.2361;0.2957;
841.5000;0.2450;0.3272;
841.8000;0.2466;0.3272;
842.1000;0.2458;0.3272;
842.4000;0.2450;0.3199;
842.7000;0.2466;0.3248;
843.0000;0.2426;0.3175;
843.3000;0.2475;0.3248;
843.6000;0.2442;0.3175;
843.9000;0.2450;0.3102;
844.2000;0.2515;0.3248;
844.5000;0.2442;0.2981;
844.8000;0.2458;0.3005;
845.1000;0.2409;0.2981;
845.4000;0.2434;0.2957;
845.7000;0.2450;0.3005;
846.0000;0.2418;0.2957;
846.3000;0.2466;0.3127;
846.6000;0.2466;0.3175;
846.9000;0.2442;0.3151;
847.2000;0.2409;0.2933;
847.5000;0.2409;0.2884;
847.8000;0.2434;0.2933;
848.1000;0.2466;0.3030;
848.4000;0.2434;0.2908;
848.7000;0.2418;0.2933;
849.0000;0.2458;0.3054;
849.3000;0.2377;0.2884;
849.6000;0.2426;0.3054;
849.9000;0.2466;0.3199;
850.2000;0.2458;0.3151;
850.5000;0.2442;0.3078;
850.8000;0.2426;0.3127;
851.1000;0.2426;0.3151;
851.4000;0.2450;0.3248;
851.7000;0.2450;0.3199;
852.0000;0.2475;0.3296;
852.3000;0.2418;0.3151;
852.6000;0.2458;0.3272;
852.9000;0.2466;0.3224;
853.2000;0.2450;0.3151;
853.5000;0.2426;0.2981;
853.8000;0.2418;0.3005;
854.1000;0.2450;0.3054;
854.4000;0.2434;0.2981;
854.7000;0.2442;0.3005;
855.0000;0.2442;0.3102;
855.3000;0.2450;0.3175;
855.6000;0.2458;0.3199;
855.9000;0.2466;0.3296;
856.2000;0.2450;0.3272;
856.5000;0.2442;0.3199;
856.8000;0.2450;0.3127;
857.1000;0.2458;0.3102;
857.4000;0.2466;0.3078;
857.7000;0.2450;0.2981;
858.0000;0.2450;0.2957;
858.3000;0.2450;0.3005;
858.6000;0.2466;0.2981;
858.9000;0.2491;0.3030;
859.2000;0.2450;0.2908;
859.5000;0.2450;0.2884;
859.8000;0.2377;0.2690;
860.1000;0.2434;0.2860;
860.4000;0.2450;0.2933;
860.7000;0.2458;0.3078;
861.0000;0.2458;0.3054;
861.3000;0.2442;0.3005;
861.6000;0.2426;0.2981;
861.9000;0.2466;0.3005;
862.2000;0.2442;0.3005;
862.5000;0.2499;0.3151;
862.8000;0.2442;0.3005;
863.1000;0.2532;0.3199;
863.4000;0.2466;0.3054;
863.7000;0.2515;0.3224;
864.0000;0.2434;0.3054;
864.3000;0.2450;0.3078;
864.6000;0.2442;0.3030;
864.9000;0.2458;0.3102;
865.2000;0.2434;0.3005;
865.5000;0.2491;0.3030;
865.8000;0.2458;0.3127;
866.1000;0.2475;0.3078;
866.4000;0.2442;0.3054;
866.7000;0.2442;0.3030;
867.0000;0.2450;0.3005;
867.3000;0.2450;0.2981;
867.6000;0.2458;0.2933;
867.9000;0.2483;0.2981;
868.2000;0.2532;0.3102;
868.5000;0.2466;0.2908;
868.8000;0.2450;0.3030;
869.1000;0.2442;0.3054;
869.4000;0.2442;0.3005;
869.7000;0.2450;0.2981;
870.0000;0.2450;0.3030;
870.3000;0.2385;0.2860;
870.6000;0.2458;0.3078;
870.9000;0.2442;0.3005;
871.2000;0.2434;0.3030;
871.5000;0.2434;0.2957;
871.8000;0.2434;0.2957;
872.1000;0.2466;0.3030;
872.4000;0.2475;0.3102;
872.7000;0.2442;0.3127;
873.0000;0.2442;0.3127;
873.3000;0.2507;0.3345;
873.6000;0.2450;0.3151;
873.9000;0.2450;0.3151;
874.2000;0.2466;0.3102;
874.5000;0.2458;0.3102;
874.8000;0.2450;0.3102;
875.1000;0.2475;0.3127;
875.4000;0.2418;0.3054;
875.7000;0.2450;0.3127;
876.0000;0.2426;0.3078;
876.3000;0.2442;0.3175;
876.6000;0.2483;0.3199;
876.9000;0.2442;0.3175;
877.2000;0.2442;0.3175;
877.5000;0.2450;0.3175;
877.8000;0.2442;0.3078;
878.1000;0.2458;0.3127;
878.4000;0.2458;0.3127;
878.7000;0.2466;0.3078;
879.0000;0.2466;0.3030;
879.3000;0.2450;0.2957;
879.6000;0.2442;0.3030;
879.9000;0.2442;0.3102;
880.2000;0.2458;0.3102;
880.5000;0.2540;0.3320;
880.8000;0.2450;0.3102;
881.1000;0.2442;0.2981;
881.4000;0.2458;0.2957;
881.7000;0.2434;0.2957;
882.0000;0.2434;0.2957;
882.3000;0.2450;0.2981;
882.6000;0.2450;0.3078;
882.9000;0.2450;0.3030;
883.2000;0.2450;0.2981;
883.5000;0.2434;0.2908;
883.8000;0.2442;0.3030;
884.1000;0.2442;0.2933;
884.4000;0.2450;0.2957;
884.7000;0.2450;0.2981;
885.0000;0.2328;0.2715;
885.3000;0.2458;0.3005;
885.6000;0.2409;0.2933;
885.9000;0.2426;0.3005;
886.2000;0.2401;0.2957;
886.5000;0.2426;0.2981;
886.8000;0.2450;0.3127;
887.1000;0.2499;0.3345;
887.4000;0.2434;0.3248;
887.7000;0.2409;0.3151;
888.0000;0.2491;0.3320;
888.3000;0.2434;0.3224;
888.6000;0.2442;0.3224;
888.9000;0.2450;0.3175;
889.2000;0.2515;0.3369;
889.5000;0.2393;0.3102;
889.8000;0.2458;0.3224;
890.1000;0.2466;0.3272;
890.4000;0.2434;0.3175;
890.7000;0.2434;0.3175;
891.0000;0.2458;0.3248;
891.3000;0.2442;0.3272;
891.6000;0.2442;0.3345;
891.9000;0.2442;0.3296;
892.2000;0.2442;0.3320;
892.5000;0.2450;0.3248;
892.8000;0.2442;0.3175;
893.1000;0.2458;0.3272;
893.4000;0.2426;0.3248;
893.7000;0.2466;0.3272;
894.0000;0.2483;0.3296;
894.3000;0.2442;0.3127;
894.6000;0.2458;0.3078;
894.9000;0.2466;0.3102;
895.2000;0.2475;0.3054;
895.5000;0.2442;0.3005;
895.8000;0.2450;0.3005;
896.1000;0.2450;0.3102;
896.4000;0.2434;0.3127;
896.7000;0.2466;0.3175;
897.0000;0.2426;0.3005;
897.3000;0.2442;0.3030;
897.6000;0.2458;0.3078;
897.9000;0.2450;0.3054;
898.2000;0.2442;0.3005;
898.5000;0.2475;0.3054;
898.8000;0.2466;0.2981;
899.1000;0.2450;0.2908;
899.4000;0.2475;0.2957;
899.7000;0.2458;0.2908;
900.0000;0.2458;0.2957;
900.3000;0.2458;0.2957;
900.6000;0.2442;0.2908;
900.9000;0.2442;0.2957;
901.2000;0.2450;0.2981;
901.5000;0.2450;0.2981;
901.8000;0.2458;0.3030;
902.1000;0.2475;0.2981;
902.4000;0.2434;0.2884;
902.7000;0.2450;0.2908;
903.0000;0.2458;0.2957;
903.3000;0.2450;0.2933;
903.6000;0.2369;0.2787;
903.9000;0.2466;0.3005;
904.2000;0.2434;0.2933;
904.5000;0.2458;0.2957;
904.8000;0.2466;0.2908;
905.1000;0.2442;0.2812;
905.4000;0.2466;0.2884;
905.7000;0.2434;0.2787;
906.0000;0.2434;0.2739;
906.3000;0.2450;0.2812;
906.6000;0.2442;0.2860;
906.9000;0.2442;0.2908;
907.2000;0.2442;0.2884;
907.5000;0.2434;0.2739;
907.8000;0.2450;0.2715;
908.1000;0.2450;0.2787;
908.4000;0.2442;0.2787;
908.7000;0.2426;0.2739;
909.0000;0.2393;0.2642;
909.3000;0.2369;0.2618;
909.6000;0.2450;0.2884;
909.9000;0.2450;0.2933;
910.2000;0.2418;0.2908;
910.5000;0.2450;0.2908;
910.8000;0.2458;0.2933;
911.1000;0.2434;0.2860;
911.4000;0.2442;0.2715;
911.7000;0.2426;0.2690;
912.0000;0.2458;0.2690;
912.3000;0.2426;0.2593;
912.6000;0.2450;0.2642;
912.9000;0.2442;0.2690;
913.2000;0.2475;0.2836;
913.5000;0.2458;0.2739;
913.8000;0.2450;0.2666;
914.1000;0.2466;0.2787;
914.4000;0.2491;0.2933;
914.7000;0.2466;0.2933;
915.0000;0.2450;0.2836;
915.3000;0.2418;0.2715;
915.6000;0.2458;0.2860;
915.9000;0.2450;0.2763;
916.2000;0.2434;0.2836;
916.5000;0.2442;0.2908;
916.8000;0.2434;0.2908;
917.1000;0.2450;0.2836;
917.4000;0.2385;0.2569;
917.7000;0.2434;0.2715;
918.0000;0.2434;0.2739;
918.3000;0.2450;0.2690;
918.6000;0.2426;0.2666;
918.9000;0.2426;0.2715;
919.2000;0.2458;0.2715;
919.5000;0.2450;0.2642;
919.8000;0.2442;0.2690;
920.1000;0.2466;0.2739;
920.4000;0.2458;0.2787;
920.7000;0.2442;0.2715;
921.0000;0.2434;0.2715;
921.3000;0.2442;0.2642;
921.6000;0.2450;0.2642;
921.9000;0.2499;0.2836;
922.2000;0.2450;0.2763;
922.5000;0.2442;0.2763;
922.8000;0.2434;0.2715;
923.1000;0.2450;0.2763;
923.4000;0.2466;0.2739;
923.7000;0.2458;0.2812;
924.0000;0.2442;0.2739;
924.3000;0.2450;0.2884;
924.6000;0.2450;0.2836;
924.9000;0.2458;0.2860;
925.2000;0.2458;0.2787;
925.5000;0.2418;0.2715;
925.8000;0.2434;0.2690;
926.1000;0.2434;0.2763;
926.4000;0.2442;0.2715;
926.7000;0.2442;0.2763;
927.0000;0.2458;0.2763;
927.3000;0.2426;0.2666;
927.6000;0.2385;0.2521;
927.9000;0.2450;0.2642;
928.2000;0.2475;0.2715;
928.5000;0.2458;0.2690;
928.8000;0.2466;0.2812;
929.1000;0.2458;0.2690;
929.4000;0.2458;0.2666;
929.7000;0.2458;0.2739;
930.0000;0.2434;0.2690;
930.3000;0.2458;0.2787;
930.6000;0.2475;0.2860;
930.9000;0.2377;0.2593;
931.2000;0.2442;0.2836;
931.5000;0.2442;0.2787;
931.8000;0.2450;0.2812;
932.1000;0.2458;0.2884;
932.4000;0.2442;0.2884;
932.7000;0.2426;0.2739;
933.0000;0.2450;0.2812;
933.3000;0.2434;0.2739;
933.6000;0.2450;0.2836;
933.9000;0.2442;0.2836;
934.2000;0.2442;0.2763;
934.5000;0.2377;0.2690;
934.8000;0.2458;0.2836;
935.1000;0.2458;0.2812;
935.4000;0.2466;0.2812;
935.7000;0.2475;0.2860;
936.0000;0.2458;0.2836;
936.3000;0.2434;0.2715;
936.6000;0.2434;0.2739;
936.9000;0.2491;0.2957;
937.2000;0.2426;0.2836;
937.5000;0.2483;0.2908;
937.8000;0.2450;0.2787;
938.1000;0.2426;0.2763;
938.4000;0.2450;0.2812;
938.7000;0.2458;0.2933;
939.0000;0.2466;0.2957;
939.3000;0.2450;0.2981;
939.6000;0.2458;0.3005;
939.9000;0.2450;0.3030;
940.2000;0.2466;0.3054;
940.5000;0.2507;0.3127;
940.8000;0.2450;0.2957;
941.1000;0.2458;0.2957;
941.4000;0.2515;0.3175;
941.7000;0.2507;0.3102;
942.0000;0.2458;0.2957;
942.3000;0.2442;0.2981;
942.6000;0.2458;0.2957;
942.9000;0.2434;0.2908;
943.2000;0.2458;0.2957;
943.5000;0.2458;0.3030;
943.8000;0.2466;0.3102;
944.1000;0.2418;0.3102;
944.4000;0.2450;0.3127;
944.7000;0.2458;0.3127;
945.0000;0.2450;0.3127;
945.3000;0.2426;0.3078;
945.6000;0.2450;0.3199;
945.9000;0.2458;0.3320;
946.2000;0.2369;0.2933;
946.5000;0.2442;0.3175;
946.8000;0.2458;0.3151;
947.1000;0.2450;0.3127;
947.4000;0.2466;0.3151;
947.7000;0.2442;0.3102;
948.0000;0.2450;0.3078;
948.3000;0.2466;0.3127;
948.6000;0.2450;0.3005;
948.9000;0.2418;0.2908;
949.2000;0.2475;0.3054;
949.5000;0.2475;0.3030;
949.8000;0.2401;0.2860;
950.1000;0.2418;0.2908;
950.4000;0.2434;0.2957;
950.7000;0.2450;0.3030;
951.0000;0.2458;0.3078;
951.3000;0.2450;0.3005;
951.6000;0.2466;0.3030;
951.9000;0.2426;0.2836;
952.2000;0.2434;0.2933;
952.5000;0.2466;0.2957;
952.8000;0.2418;0.2860;
953.1000;0.2442;0.2933;
953.4000;0.2434;0.2884;
953.7000;0.2450;0.2884;
954.0000;0.2507;0.3030;
954.3000;0.2442;0.2860;
954.6000;0.2466;0.2860;
954.9000;0.2426;0.2787;
955.2000;0.2458;0.2836;
955.5000;0.2442;0.2787;
955.8000;0.2393;0.2666;
956.1000;0.2450;0.2739;
956.4000;0.2475;0.2908;
956.7000;0.2466;0.2981;
957.0000;0.2450;0.2812;
957.3000;0.2442;0.2836;
957.6000;0.2450;0.2812;
957.9000;0.2450;0.2812;
958.2000;0.2450;0.2860;
958.5000;0.2450;0.2957;
958.8000;0.2442;0.3005;
959.1000;0.2442;0.2957;
959.4000;0.2442;0.2957;
959.7000;0.2442;0.2957;
960.0000;0.2442;0.2933;
960.3000;0.2450;0.2957;
960.6000;0.2466;0.2981;
960.9000;0.2458;0.2981;
961.2000;0.2458;0.3054;
961.5000;0.2458;0.3102;
961.8000;0.2434;0.3078;
962.1000;0.2450;0.3175;
962.4000;0.2442;0.3054;
962.7000;0.2426;0.3127;
963.0000;0.2466;0.3272;
963.3000;0.2434;0.3151;
963.6000;0.2450;0.3175;
963.9000;0.2442;0.3102;
964.2000;0.2450;0.3151;
964.5000;0.2442;0.3175;
964.8000;0.2491;0.3248;
965.1000;0.2458;0.3127;
965.4000;0.2466;0.3102;
965.7000;0.2515;0.3224;
966.0000;0.2434;0.3005;
966.3000;0.2442;0.2908;
966.6000;0.2458;0.2884;
966.9000;0.2426;0.2981;
967.2000;0.2434;0.2981;
967.5000;0.2442;0.2981;
967.8000;0.2466;0.2981;
968.1000;0.2450;0.2933;
968.4000;0.2450;0.3054;
968.7000;0.2442;0.3102;
969.0000;0.2434;0.3054;
969.3000;0.2450;0.3078;
969.6000;0.2466;0.3054;
969.9000;0.2458;0.3005;
970.2000;0.2450;0.3030;
970.5000;0.2458;0.3054;
970.8000;0.2418;0.2957;
971.1000;0.2434;0.3005;
971.4000;0.2450;0.2981;
971.7000;0.2466;0.2957;
972.0000;0.2442;0.2957;
972.3000;0.2426;0.2884;
972.6000;0.2450;0.2860;
972.9000;0.2466;0.2908;
973.2000;0.2352;0.2618;
973.5000;0.2426;0.2787;
973.8000;0.2450;0.2860;
974.1000;0.2450;0.2860;
974.4000;0.2450;0.2884;
974.7000;0.2450;0.2884;
975.0000;0.2426;0.2812;
975.3000;0.2434;0.2787;
975.6000;0.2523;0.3102;
975.9000;0.2450;0.2884;
976.2000;0.2361;0.2666;
976.5000;0.2385;0.2739;
976.8000;0.2466;0.2933;
977.1000;0.2442;0.2836;
977.4000;0.2426;0.2884;
977.7000;0.2442;0.2884;
978.0000;0.2458;0.2933;
978.3000;0.2475;0.2884;
978.6000;0.2434;0.2739;
978.9000;0.2450;0.2739;
979.2000;0.2450;0.2666;
979.5000;0.2458;0.2739;
979.8000;0.2475;0.2860;
980.1000;0.2450;0.2812;
980.4000;0.2418;0.2690;
980.7000;0.2442;0.2787;
981.0000;0.2523;0.2908;
981.3000;0.2491;0.2957;
981.6000;0.2466;0.2908;
981.9000;0.2466;0.2884;
982.2000;0.2491;0.2981;
982.5000;0.2458;0.2836;
982.8000;0.2458;0.2908;
983.1000;0.2418;0.2836;
983.4000;0.2458;0.2884;
983.7000;0.2466;0.2836;
984.0000;0.2393;0.2666;
984.3000;0.2450;0.2836;
984.6000;0.2515;0.3005;
984.9000;0.2450;0.2860;
985.2000;0.2458;0.2812;
985.5000;0.2450;0.2908;
985.8000;0.2466;0.3005;
986.1000;0.2475;0.3078;
986.4000;0.2442;0.3054;
986.7000;0.2450;0.3030;
987.0000;0.2466;0.2981;
987.3000;0.2458;0.2933;
987.6000;0.2418;0.2836;
987.9000;0.2418;0.2763;
988.2000;0.2458;0.2836;
988.5000;0.2418;0.2715;
988.8000;0.2442;0.2739;
989.1000;0.2434;0.2787;
989.4000;0.2491;0.2957;
989.7000;0.2418;0.2690;
990.0000;0.2450;0.2715;
990.3000;0.2475;0.2715;
990.6000;0.2418;0.2618;
990.9000;0.2458;0.2715;
991.2000;0.2475;0.2787;
991.5000;0.2450;0.2763;
991.8000;0.2458;0.2787;
992.1000;0.2450;0.2812;
992.4000;0.2466;0.2884;
992.7000;0.2442;0.2812;
993.0000;0.2442;0.2812;
993.3000;0.2418;0.2787;
993.6000;0.2475;0.2763;
993.9000;0.2442;0.2763;
994.2000;0.2442;0.2787;
994.5000;0.2450;0.2860;
994.8000;0.2499;0.3005;
995.1000;0.2409;0.2812;
995.4000;0.2442;0.2812;
995.7000;0.2442;0.2787;
996.0000;0.2466;0.2836;
996.3000;0.2450;0.2763;
996.6000;0.2450;0.2715;
996.9000;0.2450;0.2642;
997.2000;0.2450;0.2666;
997.5000;0.2426;0.2618;
997.8000;0.2458;0.2739;
998.1000;0.2507;0.2981;
998.4000;0.2507;0.3030;
998.7000;0.2426;0.2860;
999.0000;0.2434;0.2763;
999.3000;0.2450;0.2787;
999.6000;0.2434;0.2739;
999.9000;0.2442;0.2787;
1000.2000;0.2450;0.2836;
1000.5000;0.2434;0.2812;
1000.8000;0.2450;0.2860;
1001.1000;0.2475;0.2884;
1001.4000;0.2450;0.2763;
1001.7000;0.2458;0.2787;
1002.0000;0.2442;0.2763;
1002.3000;0.2458;0.2812;
1002.6000;0.2475;0.2860;
1002.9000;0.2466;0.2812;
1003.2000;0.2483;0.3005;
1003.5000;0.2450;0.2957;
1003.8000;0.2458;0.3030;
1004.1000;0.2450;0.3030;
1004.4000;0.2442;0.2981;
1004.7000;0.2442;0.3005;
1005.0000;0.2442;0.2908;
1005.3000;0.2450;0.2957;
1005.6000;0.2442;0.2957;
1005.9000;0.2458;0.3030;
1006.2000;0.2409;0.2933;
1006.5000;0.2442;0.3005;
1006.8000;0.2450;0.3102;
1007.1000;0.2466;0.3199;
1007.4000;0.2458;0.3127;
1007.7000;0.2466;0.3054;
1008.0000;0.2483;0.3054;
1008.3000;0.2442;0.2908;
1008.6000;0.2458;0.2860;
1008.9000;0.2466;0.2812;
1009.2000;0.2434;0.2787;
1009.5000;0.2418;0.2715;
1009.8000;0.2450;0.2860;
1010.1000;0.2458;0.2884;
1010.4000;0.2450;0.2957;
1010.7000;0.2442;0.2981;
1011.0000;0.2442;0.3005;
1011.3000;0.2434;0.3005;
1011.6000;0.2426;0.2981;
1011.9000;0.2458;0.2957;
1012.2000;0.2442;0.2957;
1012.5000;0.2491;0.3127;
1012.8000;0.2466;0.3005;
1013.1000;0.2466;0.3005;
1013.4000;0.2572;0.3345;
1013.7000;0.2458;0.3054;
1014.0000;0.2483;0.3151;
1014.3000;0.2450;0.3102;
1014.6000;0.2458;0.3127;
1014.9000;0.2450;0.3151;
1015.2000;0.2458;0.3005;
1015.5000;0.2458;0.2981;
1015.8000;0.2442;0.3030;
1016.1000;0.2426;0.3054;
1016.4000;0.2475;0.3151;
1016.7000;0.2450;0.3030;
1017.0000;0.2458;0.3030;
1017.3000;0.2393;0.2836;
1017.6000;0.2515;0.3151;
1017.9000;0.2434;0.2957;
1018.2000;0.2458;0.2957;
1018.5000;0.2499;0.3030;
1018.8000;0.2466;0.2884;
1019.1000;0.2507;0.2981;
1019.4000;0.2434;0.2908;
1019.7000;0.2426;0.2933;
1020.0000;0.2434;0.3005;
1020.3000;0.2426;0.3005;
1020.6000;0.2418;0.2908;
1020.9000;0.2434;0.2860;
1021.2000;0.2475;0.2933;
1021.5000;0.2442;0.2860;
1021.8000;0.2450;0.2860;
1022.1000;0.2450;0.2787;
1022.4000;0.2458;0.2836;
1022.7000;0.2401;0.2763;
1023.0000;0.2475;0.3005;
1023.3000;0.2458;0.2908;
1023.6000;0.2491;0.2957;
1023.9000;0.2515;0.2908;
1024.2000;0.2458;0.2763;
1024.5000;0.2450;0.2763;
1024.8000;0.2442;0.2812;
1025.1000;0.2450;0.2884;
1025.4000;0.2466;0.2957;
1025.7000;0.2450;0.2933;
1026.0000;0.2466;0.2957;
1026.3000;0.2466;0.2933;
1026.6000;0.2442;0.2812;
1026.9000;0.2442;0.2812;
1027.2000;0.2458;0.2908;
1027.5000;0.2458;0.2908;
1027.8000;0.2483;0.3054;
1028.1000;0.2458;0.2981;
1028.4000;0.2393;0.2812;
1028.7000;0.2450;0.2981;
1029.0000;0.2442;0.3005;
1029.3000;0.2450;0.3005;
1029.6000;0.2426;0.2981;
1029.9000;0.2442;0.3078;
1030.2000;0.2442;0.3127;
1030.5000;0.2450;0.3054;
1030.8000;0.2450;0.2908;
1031.1000;0.2450;0.2860;
1031.4000;0.2466;0.2836;
1031.7000;0.2458;0.2908;
1032.0000;0.2442;0.2981;
1032.3000;0.2515;0.3224;
1032.6000;0.2442;0.2981;
1032.9000;0.2450;0.3102;
1033.2000;0.2466;0.3199;
1033.5000;0.2418;0.3151;
1033.8000;0.2442;0.3127;
1034.1000;0.2466;0.3151;
1034.4000;0.2523;0.3272;
1034.7000;0.2450;0.3054;
1035.0000;0.2458;0.3078;
1035.3000;0.2458;0.3127;
1035.6000;0.2458;0.3078;
1035.9000;0.2450;0.2981;
1036.2000;0.2458;0.3005;
1036.5000;0.2540;0.3345;
1036.8000;0.2466;0.3127;
1037.1000;0.2483;0.3127;
1037.4000;0.2458;0.3078;
1037.7000;0.2466;0.3127;
1038.0000;0.2450;0.3127;
1038.3000;0.2458;0.3175;
1038.6000;0.2442;0.3151;
1038.9000;0.2442;0.3127;
1039.2000;0.2507;0.3272;
1039.5000;0.2418;0.2981;
1039.8000;0.2458;0.3102;
1040.1000;0.2450;0.3078;
1040.4000;0.2385;0.2957;
1040.7000;0.2458;0.3151;
1041.0000;0.2450;0.3151;
1041.3000;0.2442;0.3127;
1041.6000;0.2426;0.3030;
1041.9000;0.2458;0.3078;
1042.2000;0.2466;0.3005;
1042.5000;0.2426;0.2957;
1042.8000;0.2458;0.3030;
1043.1000;0.2442;0.2908;
1043.4000;0.2426;0.2739;
1043.7000;0.2442;0.2884;
1044.0000;0.2426;0.2908;
1044.3000;0.2466;0.3078;
1044.6000;0.2458;0.3175;
1044.9000;0.2442;0.3151;
1045.2000;0.2442;0.3127;
1045.5000;0.2434;0.3054;
1045.8000;0.2458;0.3030;
1046.1000;0.2450;0.2957;
1046.4000;0.2434;0.2836;
1046.7000;0.2458;0.2884;
1047.0000;0.2466;0.2933;
1047.3000;0.2475;0.2908;
1047.6000;0.2466;0.2908;
1047.9000;0.2442;0.2981;
1048.2000;0.2475;0.3054;
1048.5000;0.2450;0.3054;
1048.8000;0.2409;0.2908;
1049.1000;0.2418;0.2812;
1049.4000;0.2450;0.2933;
1049.7000;0.2458;0.3005;
1050.0000;0.2450;0.3030;
1050.3000;0.2450;0.2981;
1050.6000;0.2450;0.2957;
1050.9000;0.2442;0.2957;
1051.2000;0.2442;0.2957;
1051.5000;0.2523;0.3151;
1051.8000;0.2442;0.2957;
1052.1000;0.2475;0.2981;
1052.4000;0.2450;0.2933;
1052.7000;0.2458;0.2884;
1053.0000;0.2458;0.2957;
1053.3000;0.2450;0.2981;
1053.6000;0.2491;0.3199;
1053.9000;0.2466;0.3175;
1054.2000;0.2458;0.3151;
1054.5000;0.2385;0.3030;
1054.8000;0.2466;0.3224;
1055.1000;0.2450;0.3151;
1055.4000;0.2450;0.3030;
1055.7000;0.2442;0.3030;
1056.0000;0.2458;0.3005;
1056.3000;0.2450;0.3030;
1056.6000;0.2475;0.3102;
1056.9000;0.2458;0.3054;
1057.2000;0.2458;0.3127;
1057.5000;0.2466;0.3078;
1057.8000;0.2458;0.3005;
1058.1000;0.2458;0.2957;
1058.4000;0.2450;0.2884;
1058.7000;0.2466;0.2812;
1059.0000;0.2450;0.2763;
1059.3000;0.2499;0.2884;
1059.6000;0.2466;0.2763;
1059.9000;0.2466;0.2690;
1060.2000;0.2466;0.2690;
1060.5000;0.2393;0.2472;
1060.8000;0.2450;0.2593;
1061.1000;0.2450;0.2690;
1061.4000;0.2458;0.2739;
1061.7000;0.2458;0.2666;
1062.0000;0.2466;0.2739;
1062.3000;0.2483;0.2763;
1062.6000;0.2434;0.2569;
1062.9000;0.2434;0.2618;
1063.2000;0.2466;0.2666;
1063.5000;0.2466;0.2763;
1063.8000;0.2475;0.2787;
1064.1000;0.2442;0.2812;
1064.4000;0.2426;0.2787;
1064.7000;0.2458;0.2981;
1065.0000;0.2475;0.3005;
1065.3000;0.2458;0.3005;
1065.6000;0.2458;0.2957;
1065.9000;0.2450;0.2908;
1066.2000;0.2434;0.2860;
1066.5000;0.2442;0.2812;
1066.8000;0.2450;0.2763;
1067.1000;0.2458;0.2836;
1067.4000;0.2466;0.2860;
1067.7000;0.2450;0.2787;
1068.0000;0.2458;0.2836;
1068.3000;0.2450;0.2836;
1068.6000;0.2450;0.2836;
1068.9000;0.2475;0.2908;
1069.2000;0.2458;0.2763;
1069.5000;0.2450;0.2739;
1069.8000;0.2458;0.2787;
1070.1000;0.2450;0.2763;
1070.4000;0.2450;0.2739;
1070.7000;0.2458;0.2715;
1071.0000;0.2426;0.2739;
1071.3000;0.2450;0.2812;
1071.6000;0.2458;0.2884;
1071.9000;0.2401;0.2739;
1072.2000;0.2458;0.2884;
1072.5000;0.2450;0.2812;
1072.8000;0.2466;0.2884;
1073.1000;0.2401;0.2715;
1073.4000;0.2507;0.3054;
1073.7000;0.2466;0.2860;
1074.0000;0.2475;0.2836;
1074.3000;0.2458;0.2836;
1074.6000;0.2442;0.2763;
1074.9000;0.2434;0.2836;
1075.2000;0.2475;0.2884;
1075.5000;0.2458;0.2908;
1075.8000;0.2450;0.3030;
1076.1000;0.2458;0.3005;
1076.4000;0.2442;0.2860;
1076.7000;0.2450;0.2836;
1077.0000;0.2458;0.2812;
1077.3000;0.2434;0.2763;
1077.6000;0.2434;0.2836;
1077.9000;0.2442;0.2860;
1078.2000;0.2475;0.2908;
1078.5000;0.2418;0.2836;
1078.8000;0.2466;0.2981;
1079.1000;0.2475;0.2981;
1079.4000;0.2491;0.2933;
1079.7000;0.2450;0.2787;
1080.0000;0.2458;0.2860;
1080.3000;0.2483;0.2957;
1080.6000;0.2434;0.2787;
1080.9000;0.2450;0.2860;
1081.2000;0.2458;0.2908;
1081.5000;0.2442;0.2787;
1081.8000;0.2466;0.2812;
1082.1000;0.2442;0.2739;
1082.4000;0.2458;0.2787;
1082.7000;0.2450;0.2715;
1083.0000;0.2450;0.2690;
1083.3000;0.2475;0.2836;
1083.6000;0.2434;0.2787;
1083.9000;0.2450;0.2836;
1084.2000;0.2458;0.2908;
1084.5000;0.2418;0.2690;
1084.8000;0.2450;0.2739;
1085.1000;0.2466;0.2836;
1085.4000;0.2466;0.2836;
1085.7000;0.2450;0.2836;
1086.0000;0.2458;0.2836;
1086.3000;0.2475;0.2836;
1086.6000;0.2466;0.2860;
1086.9000;0.2466;0.2860;
1087.2000;0.2499;0.2860;
1087.5000;0.2377;0.2569;
1087.8000;0.2458;0.2763;
1088.1000;0.2434;0.2812;
1088.4000;0.2426;0.2763;
1088.7000;0.2458;0.2860;
1089.0000;0.2450;0.2812;
1089.3000;0.2458;0.2884;
1089.6000;0.2507;0.3054;
1089.9000;0.2458;0.2957;
1090.2000;0.2442;0.2884;
1090.5000;0.2458;0.2908;
1090.8000;0.2450;0.2933;
1091.1000;0.2532;0.3102;
1091.4000;0.2442;0.3005;
1091.7000;0.2458;0.3030;
1092.0000;0.2458;0.2957;
1092.3000;0.2442;0.2884;
1092.6000;0.2442;0.2981;
1092.9000;0.2409;0.2812;
1093.2000;0.2450;0.2933;
1093.5000;0.2458;0.2860;
1093.8000;0.2442;0.2812;
1094.1000;0.2418;0.2715;
1094.4000;0.2499;0.2957;
1094.7000;0.2450;0.2884;
1095.0000;0.2377;0.2642;
1095.3000;0.2475;0.2836;
1095.6000;0.2466;0.2787;
1095.9000;0.2466;0.2763;
1096.2000;0.2466;0.2739;
1096.5000;0.2434;0.2618;
1096.8000;0.2475;0.2690;
1097.1000;0.2507;0.2787;
1097.4000;0.2458;0.2715;
1097.7000;0.2458;0.2690;
1098.0000;0.2466;0.2763;
1098.3000;0.2450;0.2739;
1098.6000;0.2426;0.2618;
1098.9000;0.2450;0.2690;
1099.2000;0.2499;0.2787;
1099.5000;0.2475;0.2690;
1099.8000;0.2458;0.2618;
1100.1000;0.2442;0.2448;
1100.4000;0.2466;0.2593;
1100.7000;0.2458;0.2569;
1101.0000;0.2442;0.2569;
1101.3000;0.2434;0.2521;
1101.6000;0.2458;0.2618;
1101.9000;0.2442;0.2521;
1102.2000;0.2450;0.2593;
1102.5000;0.2450;0.2618;
1102.8000;0.2442;0.2642;
1103.1000;0.2442;0.2496;
1103.4000;0.2450;0.2545;
1103.7000;0.2450;0.2545;
1104.0000;0.2475;0.2618;
1104.3000;0.2466;0.2618;
1104.6000;0.2458;0.2666;
1104.9000;0.2540;0.2860;
1105.2000;0.2475;0.2666;
1105.5000;0.2466;0.2666;
1105.8000;0.2548;0.2860;
1106.1000;0.2458;0.2642;
1106.4000;0.2458;0.2593;
1106.7000;0.2466;0.2593;
1107.0000;0.2466;0.2618;
1107.3000;0.2466;0.2521;
1107.6000;0.2450;0.2521;
1107.9000;0.2450;0.2545;
1108.2000;0.2442;0.2569;
1108.5000;0.2450;0.2618;
1108.8000;0.2442;0.2569;
1109.1000;0.2458;0.2666;
1109.4000;0.2442;0.2666;
1109.7000;0.2475;0.2618;
1110.0000;0.2466;0.2593;
1110.3000;0.2409;0.2496;
1110.6000;0.2409;0.2472;
1110.9000;0.2458;0.2642;
1111.2000;0.2450;0.2690;
1111.5000;0.2385;0.2472;
1111.8000;0.2450;0.2715;
1112.1000;0.2442;0.2715;
1112.4000;0.2458;0.2690;
1112.7000;0.2458;0.2690;
1113.0000;0.2442;0.2715;
1113.3000;0.2458;0.2715;
1113.6000;0.2450;0.2715;
1113.9000;0.2475;0.2860;
1114.2000;0.2491;0.2981;
1114.5000;0.2475;0.3030;
1114.8000;0.2458;0.2933;
1115.1000;0.2393;0.2763;
1115.4000;0.2450;0.2860;
1115.7000;0.2450;0.2763;
1116.0000;0.2458;0.2763;
1116.3000;0.2442;0.2739;
1116.6000;0.2483;0.2957;
1116.9000;0.2434;0.2812;
1117.2000;0.2450;0.2836;
1117.5000;0.2450;0.2884;
1117.8000;0.2434;0.2812;
1118.1000;0.2458;0.2812;
1118.4000;0.2434;0.2763;
1118.7000;0.2475;0.2812;
1119.0000;0.2540;0.3030;
1119.3000;0.2483;0.2908;
1119.6000;0.2483;0.2957;
1119.9000;0.2466;0.2884;
1120.2000;0.2458;0.2884;
1120.5000;0.2466;0.2908;
1120.8000;0.2491;0.2908;
1121.1000;0.2466;0.2812;
1121.4000;0.2450;0.2739;
1121.7000;0.2475;0.2787;
1122.0000;0.2426;0.2642;
1122.3000;0.2450;0.2763;
1122.6000;0.2466;0.2812;
1122.9000;0.2442;0.2763;
1123.2000;0.2442;0.2739;
1123.5000;0.2450;0.2739;
1123.8000;0.2458;0.2763;
1124.1000;0.2458;0.2690;
1124.4000;0.2483;0.2690;
1124.7000;0.2450;0.2715;
1125.0000;0.2458;0.2787;
1125.3000;0.2458;0.2933;
1125.6000;0.2434;0.2884;
1125.9000;0.2426;0.2884;
1126.2000;0.2458;0.2933;
1126.5000;0.2466;0.2957;
1126.8000;0.2458;0.2884;
1127.1000;0.2434;0.2787;
1127.4000;0.2458;0.2787;
1127.7000;0.2483;0.2836;
1128.0000;0.2458;0.2787;
1128.3000;0.2466;0.2763;
1128.6000;0.2458;0.2787;
1128.9000;0.2344;0.2569;
1129.2000;0.2466;0.2812;
1129.5000;0.2385;0.2472;
1129.8000;0.2499;0.2763;
1130.1000;0.2483;0.2690;
1130.4000;0.2458;0.2642;
1130.7000;0.2442;0.2569;
1131.0000;0.2458;0.2666;
1131.3000;0.2466;0.2787;
1131.6000;0.2475;0.2763;
1131.9000;0.2458;0.2715;
1132.2000;0.2426;0.2642;
1132.5000;0.2450;0.2618;
1132.8000;0.2450;0.2690;
1133.1000;0.2499;0.2715;
1133.4000;0.2450;0.2618;
1133.7000;0.2442;0.2715;
1134.0000;0.2458;0.2812;
1134.3000;0.2458;0.2884;
1134.6000;0.2442;0.2933;
1134.9000;0.2466;0.3030;
1135.2000;0.2458;0.2933;
1135.5000;0.2458;0.2933;
1135.8000;0.2466;0.2908;
1136.1000;0.2458;0.2884;
1136.4000;0.2458;0.2860;
1136.7000;0.2466;0.2812;
1137.0000;0.2434;0.2739;
1137.3000;0.2442;0.2884;
1137.6000;0.2401;0.2812;
1137.9000;0.2434;0.2981;
1138.2000;0.2442;0.2981;
1138.5000;0.2466;0.3054;
1138.8000;0.2466;0.3030;
1139.1000;0.2450;0.3030;
1139.4000;0.2426;0.2884;
1139.7000;0.2499;0.3054;
1140.0000;0.2458;0.2957;
1140.3000;0.2466;0.2908;
1140.6000;0.2442;0.2836;
1140.9000;0.2458;0.2884;
1141.2000;0.2450;0.2836;
1141.5000;0.2458;0.2836;
1141.8000;0.2450;0.2860;
1142.1000;0.2458;0.2860;
1142.4000;0.2475;0.2836;
1142.7000;0.2450;0.2787;
1143.0000;0.2458;0.2812;
1143.3000;0.2532;0.3030;
1143.6000;0.2458;0.2860;
1143.9000;0.2426;0.2836;
1144.2000;0.2442;0.2884;
1144.5000;0.2426;0.2836;
1144.8000;0.2450;0.2860;
1145.1000;0.2458;0.2933;
1145.4000;0.2466;0.3005;
1145.7000;0.2361;0.2836;
1146.0000;0.2466;0.3054;
1146.3000;0.2466;0.3005;
1146.6000;0.2385;0.2860;
1146.9000;0.2442;0.2957;
1147.2000;0.2466;0.3005;
1147.5000;0.2507;0.3102;
1147.8000;0.2450;0.3030;
1148.1000;0.2475;0.3102;
1148.4000;0.2434;0.3005;
1148.7000;0.2450;0.3175;
1149.0000;0.2458;0.3296;
1149.3000;0.2466;0.3224;
1149.6000;0.2458;0.3127;
1149.9000;0.2426;0.3078;
1150.2000;0.2442;0.3054;
1150.5000;0.2426;0.2884;
1150.8000;0.2450;0.2908;
1151.1000;0.2475;0.2957;
1151.4000;0.2458;0.2933;
1151.7000;0.2466;0.2981;
1152.0000;0.2458;0.2981;
1152.3000;0.2434;0.2908;
1152.6000;0.2458;0.2908;
1152.9000;0.2442;0.2812;
1153.2000;0.2466;0.2763;
1153.5000;0.2523;0.2763;
1153.8000;0.2361;0.2448;
1154.1000;0.2475;0.2763;
1154.4000;0.2548;0.3005;
1154.7000;0.2466;0.2812;
1155.0000;0.2418;0.2666;
1155.3000;0.2483;0.2812;
1155.6000;0.2442;0.2739;
1155.9000;0.2466;0.2787;
1156.2000;0.2450;0.2763;
1156.5000;0.2458;0.2787;
1156.8000;0.2475;0.2860;
1157.1000;0.2466;0.2884;
1157.4000;0.2450;0.2812;
1157.7000;0.2442;0.2739;
1158.0000;0.2458;0.2763;
1158.3000;0.2442;0.2860;
1158.6000;0.2450;0.2933;
1158.9000;0.2442;0.2981;
1159.2000;0.2393;0.2836;
1159.5000;0.2442;0.2981;
1159.8000;0.2466;0.3054;
1160.1000;0.2434;0.2884;
1160.4000;0.2450;0.3030;
1160.7000;0.2466;0.3005;
1161.0000;0.2458;0.3030;
1161.3000;0.2458;0.3030;
1161.6000;0.2458;0.3054;
1161.9000;0.2442;0.2957;
1162.2000;0.2450;0.2933;
1162.5000;0.2458;0.2836;
1162.8000;0.2434;0.2763;
1163.1000;0.2458;0.2860;
1163.4000;0.2466;0.2981;
1163.7000;0.2466;0.2933;
1164.0000;0.2393;0.2739;
1164.3000;0.2426;0.2787;
1164.6000;0.2442;0.2860;
1164.9000;0.2458;0.2908;
1165.2000;0.2507;0.2981;
1165.5000;0.2442;0.2860;
1165.8000;0.2450;0.2981;
1166.1000;0.2369;0.2666;
1166.4000;0.2450;0.2787;
1166.7000;0.2434;0.2787;
1167.0000;0.2466;0.2787;
1167.3000;0.2458;0.2787;
1167.6000;0.2450;0.2836;
1167.9000;0.2450;0.2836;
1168.2000;0.2450;0.2812;
1168.5000;0.2450;0.2812;
1168.8000;0.2458;0.2836;
1169.1000;0.2418;0.2763;
1169.4000;0.2466;0.2933;
1169.7000;0.2458;0.2933;
1170.0000;0.2458;0.2836;
1170.3000;0.2426;0.2787;
1170.6000;0.2377;0.2666;
1170.9000;0.2458;0.2787;
1171.2000;0.2442;0.2763;
1171.5000;0.2507;0.2908;
1171.8000;0.2458;0.2812;
1172.1000;0.2434;0.2763;
1172.4000;0.2409;0.2690;
1172.7000;0.2442;0.2715;
1173.0000;0.2475;0.2836;
1173.3000;0.2466;0.2933;
1173.6000;0.2483;0.2884;
1173.9000;0.2475;0.2884;
1174.2000;0.2466;0.2860;
1174.5000;0.2450;0.2884;
1174.8000;0.2458;0.2884;
1175.1000;0.2434;0.2860;
1175.4000;0.2401;0.2836;
1175.7000;0.2442;0.2908;
1176.0000;0.2442;0.2860;
1176.3000;0.2475;0.2860;
1176.6000;0.2442;0.2787;
1176.9000;0.2458;0.2884;
1177.2000;0.2442;0.2860;
1177.5000;0.2466;0.2933;
1177.8000;0.2466;0.3030;
1178.1000;0.2450;0.3054;
1178.4000;0.2466;0.3054;
1178.7000;0.2466;0.2981;
1179.0000;0.2466;0.2933;
1179.3000;0.2458;0.2884;
1179.6000;0.2442;0.2884;
1179.9000;0.2352;0.2763;
1180.2000;0.2409;0.2908;
1180.5000;0.2352;0.2812;
1180.8000;0.2450;0.3127;
1181.1000;0.2458;0.3005;
1181.4000;0.2532;0.3199;
1181.7000;0.2475;0.3030;
1182.0000;0.2466;0.2981;
1182.3000;0.2458;0.3030;
1182.6000;0.2458;0.3005;
1182.9000;0.2450;0.3127;
1183.2000;0.2401;0.3054;
1183.5000;0.2450;0.3102;
1183.8000;0.2434;0.3078;
1184.1000;0.2426;0.3030;
1184.4000;0.2442;0.3030;
1184.7000;0.2458;0.3102;
1185.0000;0.2491;0.3248;
1185.3000;0.2466;0.3199;
1185.6000;0.2458;0.3175;
1185.9000;0.2409;0.3054;
1186.2000;0.2483;0.3224;
1186.5000;0.2475;0.3224;
1186.8000;0.2475;0.3175;
1187.1000;0.2418;0.3005;
1187.4000;0.2466;0.3127;
1187.7000;0.2475;0.3054;
1188.0000;0.2450;0.3005;
1188.3000;0.2466;0.3054;
1188.6000;0.2426;0.2884;
1188.9000;0.2466;0.3102;
1189.2000;0.2458;0.3078;
1189.5000;0.2426;0.3005;
1189.8000;0.2458;0.3102;
1190.1000;0.2434;0.2981;
1190.4000;0.2458;0.3030;
1190.7000;0.2491;0.3030;
1191.0000;0.2475;0.3030;
1191.3000;0.2475;0.3005;
1191.6000;0.2385;0.2836;
1191.9000;0.2466;0.3054;
1192.2000;0.2475;0.3054;
1192.5000;0.2466;0.3078;
1192.8000;0.2466;0.3005;
1193.1000;0.2523;0.3151;
1193.4000;0.2507;0.3175;
1193.7000;0.2466;0.3054;
1194.0000;0.2475;0.3078;
1194.3000;0.2475;0.3005;
1194.6000;0.2466;0.3054;
1194.9000;0.2466;0.3005;
1195.2000;0.2483;0.3078;
1195.5000;0.2434;0.2981;
1195.8000;0.2450;0.2981;
1196.1000;0.2450;0.3054;
1196.4000;0.2450;0.3054;
1196.7000;0.2450;0.3054;
1197.0000;0.2466;0.3102;
1197.3000;0.2458;0.3102;
1197.6000;0.2458;0.3175;
1197.9000;0.2450;0.3102;
1198.2000;0.2466;0.3078;
1198.5000;0.2450;0.3005;
1198.8000;0.2458;0.2981;
1199.1000;0.2434;0.2836;
1199.4000;0.2450;0.2933;
1199.7000;0.2450;0.2981;
1200.0000;0.2442;0.2884;
1200.3000;0.2475;0.2884;
1200.6000;0.2475;0.2836;
1200.9000;0.2442;0.2787;
1201.2000;0.2450;0.2860;
1201.5000;0.2466;0.2836;
1201.8000;0.2450;0.2884;
1202.1000;0.2458;0.2908;
1202.4000;0.2442;0.2981;
1202.7000;0.2466;0.3078;
1203.0000;0.2458;0.2981;
1203.3000;0.2475;0.2981;
1203.6000;0.2434;0.2908;
1203.9000;0.2450;0.2981;
1204.2000;0.2458;0.2957;
1204.5000;0.2434;0.2957;
1204.8000;0.2450;0.3102;
1205.1000;0.2409;0.3030;
1205.4000;0.2466;0.3272;
1205.7000;0.2466;0.3199;
1206.0000;0.2475;0.3151;
1206.3000;0.2450;0.3078;
1206.6000;0.2507;0.3248;
1206.9000;0.2483;0.3175;
1207.2000;0.2458;0.3054;
1207.5000;0.2475;0.3078;
1207.8000;0.2442;0.3054;
1208.1000;0.2466;0.3127;
1208.4000;0.2499;0.3199;
1208.7000;0.2458;0.3151;
1209.0000;0.2426;0.3102;
1209.3000;0.2540;0.3320;
1209.6000;0.2450;0.3127;
1209.9000;0.2442;0.3054;
1210.2000;0.2434;0.3054;
1210.5000;0.2466;0.3175;
1210.8000;0.2466;0.3127;
1211.1000;0.2458;0.3127;
1211.4000;0.2442;0.3102;
1211.7000;0.2458;0.3127;
1212.0000;0.2409;0.2884;
1212.3000;0.2466;0.3005;
1212.6000;0.2523;0.3248;
1212.9000;0.2515;0.3272;
1213.2000;0.2401;0.2981;
1213.5000;0.2475;0.3127;
1213.8000;0.2466;0.3127;
1214.1000;0.2466;0.3151;
1214.4000;0.2426;0.3030;
1214.7000;0.2442;0.3054;
1215.0000;0.2426;0.3005;
1215.3000;0.2458;0.3127;
1215.6000;0.2458;0.3127;
1215.9000;0.2458;0.3127;
1216.2000;0.2442;0.3199;
1216.5000;0.2458;0.3127;
1216.8000;0.2434;0.3078;
1217.1000;0.2450;0.3127;
1217.4000;0.2450;0.3127;
1217.7000;0.2442;0.3054;
1218.0000;0.2466;0.3127;
1218.3000;0.2458;0.3175;
1218.6000;0.2475;0.3151;
1218.9000;0.2442;0.3102;
1219.2000;0.2458;0.3224;
1219.5000;0.2475;0.3175;
1219.8000;0.2458;0.3151;
1220.1000;0.2450;0.3102;
1220.4000;0.2458;0.3151;
1220.7000;0.2466;0.3175;
1221.0000;0.2450;0.3102;
1221.3000;0.2532;0.3296;
1221.6000;0.2466;0.3224;
1221.9000;0.2458;0.3127;
1222.2000;0.2450;0.3199;
1222.5000;0.2450;0.3102;
1222.8000;0.2458;0.3078;
1223.1000;0.2466;0.3054;
1223.4000;0.2409;0.2884;
1223.7000;0.2458;0.2957;
1224.0000;0.2450;0.2933;
1224.3000;0.2466;0.2981;
1224.6000;0.2475;0.3054;
1224.9000;0.2507;0.3127;
1225.2000;0.2475;0.3102;
1225.5000;0.2450;0.3102;
1225.8000;0.2450;0.3030;
1226.1000;0.2483;0.3151;
1226.4000;0.2458;0.3054;
1226.7000;0.2450;0.2957;
1227.0000;0.2458;0.3030;
1227.3000;0.2458;0.2981;
1227.6000;0.2442;0.3005;
1227.9000;0.2458;0.3054;
1228.2000;0.2458;0.3175;
1228.5000;0.2466;0.3175;
1228.8000;0.2442;0.3078;
1229.1000;0.2442;0.3054;
1229.4000;0.2344;0.2715;
1229.7000;0.2483;0.3078;
1230.0000;0.2450;0.3102;
1230.3000;0.2328;0.2763;
1230.6000;0.2434;0.3078;
1230.9000;0.2442;0.2957;
1231.2000;0.2458;0.2981;
1231.5000;0.2458;0.3030;
1231.8000;0.2475;0.3005;
1232.1000;0.2458;0.2933;
1232.4000;0.2458;0.2787;
1232.7000;0.2483;0.2763;
1233.0000;0.2466;0.2787;
1233.3000;0.2450;0.2836;
1233.6000;0.2475;0.2933;
1233.9000;0.2458;0.2908;
1234.2000;0.2450;0.2884;
1234.5000;0.2458;0.2908;
1234.8000;0.2475;0.2981;
1235.1000;0.2393;0.2836;
1235.4000;0.2458;0.3005;
1235.7000;0.2466;0.3005;
1236.0000;0.2458;0.3005;
1236.3000;0.2450;0.2908;
1236.6000;0.2466;0.2908;
1236.9000;0.2458;0.2908;
1237.2000;0.2409;0.2860;
1237.5000;0.2466;0.3005;
1237.8000;0.2475;0.3102;
1238.1000;0.2466;0.3175;
1238.4000;0.2466;0.3224;
1238.7000;0.2466;0.3175;
1239.0000;0.2458;0.3078;
1239.3000;0.2442;0.3127;
1239.6000;0.2466;0.3248;
1239.9000;0.2466;0.3272;
1240.2000;0.2499;0.3272;
1240.5000;0.2434;0.3078;
1240.8000;0.2450;0.3030;
1241.1000;0.2466;0.3054;
1241.4000;0.2491;0.3078;
1241.7000;0.2450;0.3005;
1242.0000;0.2458;0.3078;
1242.3000;0.2458;0.3102;
1242.6000;0.2466;0.3102;
1242.9000;0.2442;0.2933;
1243.2000;0.2458;0.3005;
1243.5000;0.2418;0.2981;
1243.8000;0.2466;0.3199;
1244.1000;0.2442;0.3175;
1244.4000;0.2442;0.3199;
1244.7000;0.2442;0.3320;
1245.0000;0.2450;0.3272;
1245.3000;0.2434;0.3224;
1245.6000;0.2458;0.3296;
1245.9000;0.2507;0.3393;
1246.2000;0.2458;0.3224;
1246.5000;0.2442;0.3151;
1246.8000;0.2548;0.3466;
1247.1000;0.2466;0.3127;
1247.4000;0.2409;0.2981;
1247.7000;0.2458;0.3199;
1248.0000;0.2442;0.3224;
1248.3000;0.2458;0.3199;
1248.6000;0.2450;0.3199;
1248.9000;0.2466;0.3272;
1249.2000;0.2458;0.3224;
1249.5000;0.2458;0.3199;
1249.8000;0.2458;0.3102;
1250.1000;0.2442;0.3054;
1250.4000;0.2491;0.3175;
1250.7000;0.2418;0.2908;
1251.0000;0.2442;0.2933;
1251.3000;0.2466;0.2981;
1251.6000;0.2458;0.2933;
1251.9000;0.2483;0.2957;
1252.2000;0.2475;0.2957;
1252.5000;0.2442;0.2860;
1252.8000;0.2450;0.2933;
1253.1000;0.2466;0.3102;
1253.4000;0.2475;0.3078;
1253.7000;0.2475;0.3078;
1254.0000;0.2450;0.2981;
1254.3000;0.2466;0.2981;
1254.6000;0.2466;0.2981;
1254.9000;0.2458;0.2957;
1255.2000;0.2466;0.3030;
1255.5000;0.2442;0.2957;
1255.8000;0.2458;0.3030;
1256.1000;0.2450;0.3030;
1256.4000;0.2483;0.3005;
1256.7000;0.2466;0.3054;
1257.0000;0.2393;0.3030;
1257.3000;0.2475;0.3272;
1257.6000;0.2466;0.3224;
1257.9000;0.2540;0.3417;
1258.2000;0.2466;0.3248;
1258.5000;0.2466;0.3224;
1258.8000;0.2466;0.3224;
1259.1000;0.2426;0.3127;
1259.4000;0.2475;0.3127;
1259.7000;0.2450;0.3199;
1260.0000;0.2450;0.3272;
1260.3000;0.2466;0.3151;
1260.6000;0.2450;0.3054;
1260.9000;0.2434;0.3078;
1261.2000;0.2556;0.3369;
1261.5000;0.2450;0.3078;
1261.8000;0.2458;0.3102;
1262.1000;0.2475;0.3127;
1262.4000;0.2442;0.3030;
1262.7000;0.2458;0.3151;
1263.0000;0.2458;0.3175;
1263.3000;0.2458;0.3078;
1263.6000;0.2475;0.3054;
1263.9000;0.2450;0.3005;
1264.2000;0.2458;0.3005;
1264.5000;0.2475;0.3030;
1264.8000;0.2450;0.2933;
1265.1000;0.2458;0.3005;
1265.4000;0.2458;0.3054;
1265.7000;0.2458;0.2908;
1266.0000;0.2475;0.3030;
1266.3000;0.2434;0.2908;
1266.6000;0.2442;0.2957;
1266.9000;0.2458;0.3127;
1267.2000;0.2458;0.3078;
1267.5000;0.2434;0.3127;
1267.8000;0.2450;0.3175;
1268.1000;0.2458;0.3199;
1268.4000;0.2458;0.3151;
1268.7000;0.2458;0.3199;
1269.0000;0.2450;0.3175;
1269.3000;0.2450;0.3224;
1269.6000;0.2450;0.3199;
1269.9000;0.2458;0.3199;
1270.2000;0.2475;0.3248;
1270.5000;0.2458;0.3175;
1270.8000;0.2466;0.3175;
1271.1000;0.2434;0.3127;
1271.4000;0.2442;0.3175;
1271.7000;0.2442;0.3078;
1272.0000;0.2442;0.3151;
1272.3000;0.2458;0.3151;
1272.6000;0.2442;0.3054;
1272.9000;0.2466;0.3054;
1273.2000;0.2450;0.3078;
1273.5000;0.2466;0.3102;
1273.8000;0.2458;0.3054;
1274.1000;0.2475;0.2981;
1274.4000;0.2442;0.2812;
1274.7000;0.2466;0.2836;
1275.0000;0.2466;0.2908;
1275.3000;0.2450;0.2981;
1275.6000;0.2458;0.3102;
1275.9000;0.2434;0.3054;
1276.2000;0.2450;0.3151;
1276.5000;0.2491;0.3224;
1276.8000;0.2458;0.3127;
1277.1000;0.2458;0.3151;
1277.4000;0.2458;0.3151;
1277.7000;0.2466;0.3175;
1278.0000;0.2450;0.3102;
1278.3000;0.2442;0.3054;
1278.6000;0.2475;0.3127;
1278.9000;0.2450;0.3078;
1279.2000;0.2442;0.3102;
1279.5000;0.2475;0.3054;
1279.8000;0.2450;0.3078;
1280.1000;0.2361;0.2884;
1280.4000;0.2507;0.3199;
1280.7000;0.2458;0.3151;
1281.0000;0.2418;0.2957;
1281.3000;0.2434;0.3054;
1281.6000;0.2450;0.3127;
1281.9000;0.2409;0.3030;
1282.2000;0.2458;0.3175;
1282.5000;0.2442;0.3199;
1282.8000;0.2475;0.3248;
1283.1000;0.2532;0.3369;
1283.4000;0.2475;0.3224;
1283.7000;0.2450;0.3151;
1284.0000;0.2450;0.3151;
1284.3000;0.2434;0.3054;
1284.6000;0.2548;0.3320;
1284.9000;0.2450;0.3151;
1285.2000;0.2450;0.3175;
1285.5000;0.2466;0.3224;
1285.8000;0.2483;0.3224;
1286.1000;0.2458;0.3199;
1286.4000;0.2450;0.3224;
1286.7000;0.2458;0.3224;
1287.0000;0.2458;0.3296;
1287.3000;0.2458;0.3345;
1287.6000;0.2458;0.3320;
1287.9000;0.2466;0.3224;
1288.2000;0.2418;0.3054;
1288.5000;0.2466;0.3102;
1288.8000;0.2450;0.3127;
1289.1000;0.2466;0.3175;
1289.4000;0.2466;0.3175;
1289.7000;0.2466;0.3151;
1290.0000;0.2466;0.3199;
1290.3000;0.2458;0.3175;
1290.6000;0.2458;0.3151;
1290.9000;0.2434;0.3078;
1291.2000;0.2466;0.3030;
1291.5000;0.2442;0.2981;
1291.8000;0.2450;0.2981;
1292.1000;0.2450;0.3005;
1292.4000;0.2466;0.3127;
1292.7000;0.2458;0.2957;
1293.0000;0.2434;0.2908;
1293.3000;0.2475;0.3054;
1293.6000;0.2466;0.3030;
1293.9000;0.2458;0.2957;
1294.2000;0.2426;0.2981;
1294.5000;0.2450;0.3127;
1294.8000;0.2466;0.3175;
1295.1000;0.2466;0.3224;
1295.4000;0.2466;0.3199;
1295.7000;0.2458;0.3224;
1296.0000;0.2483;0.3248;
1296.3000;0.2523;0.3272;
1296.6000;0.2442;0.3151;
1296.9000;0.2450;0.3175;
1297.2000;0.2450;0.3151;
1297.5000;0.2458;0.3127;
1297.8000;0.2466;0.3151;
1298.1000;0.2491;0.3248;
1298.4000;0.2409;0.3102;
1298.7000;0.2458;0.3224;
1299.0000;0.2475;0.3272;
1299.3000;0.2466;0.3369;
1299.6000;0.2458;0.3320;
1299.9000;0.2475;0.3320;
1300.2000;0.2507;0.3393;
1300.5000;0.2458;0.3272;
1300.8000;0.2434;0.3175;
1301.1000;0.2442;0.3224;
1301.4000;0.2458;0.3224;
1301.7000;0.2442;0.3199;
1302.0000;0.2442;0.3199;
1302.3000;0.2515;0.3369;
1302.6000;0.2442;0.3127;
1302.9000;0.2442;0.3175;
1303.2000;0.2450;0.3199;
1303.5000;0.2442;0.3224;
1303.8000;0.2466;0.3296;
1304.1000;0.2491;0.3393;
1304.4000;0.2466;0.3345;
1304.7000;0.2458;0.3272;
1305.0000;0.2401;0.3151;
1305.3000;0.2442;0.3296;
1305.6000;0.2442;0.3369;
1305.9000;0.2450;0.3320;
1306.2000;0.2475;0.3345;
1306.5000;0.2466;0.3272;
1306.8000;0.2434;0.3127;
1307.1000;0.2450;0.3127;
1307.4000;0.2385;0.2981;
1307.7000;0.2466;0.3151;
1308.0000;0.2458;0.3175;
1308.3000;0.2466;0.3175;
1308.6000;0.2442;0.3175;
1308.9000;0.2466;0.3224;
1309.2000;0.2475;0.3078;
1309.5000;0.2458;0.3030;
1309.8000;0.2466;0.3005;
1310.1000;0.2466;0.2981;
1310.4000;0.2458;0.2981;
1310.7000;0.2458;0.3078;
1311.0000;0.2450;0.3078;
1311.3000;0.2458;0.3199;
1311.6000;0.2580;0.3514;
1311.9000;0.2434;0.3224;
1312.2000;0.2466;0.3199;
1312.5000;0.2418;0.3078;
1312.8000;0.2466;0.3248;
1313.1000;0.2458;0.3272;
1313.4000;0.2442;0.3248;
1313.7000;0.2466;0.3224;
1314.0000;0.2450;0.3127;
1314.3000;0.2434;0.3127;
1314.6000;0.2434;0.3151;
1314.9000;0.2442;0.3030;
1315.2000;0.2442;0.3030;
1315.5000;0.2418;0.2933;
1315.8000;0.2458;0.3030;
1316.1000;0.2458;0.3030;
1316.4000;0.2458;0.3078;
1316.7000;0.2418;0.3078;
1317.0000;0.2442;0.3151;
1317.3000;0.2344;0.2884;
1317.6000;0.2442;0.3127;
1317.9000;0.2458;0.3127;
1318.2000;0.2458;0.3151;
1318.5000;0.2450;0.3199;
1318.8000;0.2442;0.3175;
1319.1000;0.2393;0.3005;
1319.4000;0.2466;0.3175;
1319.7000;0.2418;0.3005;
1320.0000;0.2434;0.3054;
1320.3000;0.2483;0.3078;
1320.6000;0.2466;0.3030;
1320.9000;0.2450;0.2957;
1321.2000;0.2409;0.2836;
1321.5000;0.2466;0.3030;
1321.8000;0.2458;0.2981;
1322.1000;0.2385;0.2860;
1322.4000;0.2450;0.3102;
1322.7000;0.2450;0.3199;
1323.0000;0.2442;0.3175;
1323.3000;0.2393;0.3030;
1323.6000;0.2434;0.3127;
1323.9000;0.2458;0.3102;
1324.2000;0.2466;0.3127;
1324.5000;0.2466;0.3005;
1324.8000;0.2466;0.2981;
1325.1000;0.2442;0.2860;
1325.4000;0.2475;0.2884;
1325.7000;0.2458;0.2884;
1326.0000;0.2458;0.2957;
1326.3000;0.2426;0.2933;
1326.6000;0.2475;0.3102;
1326.9000;0.2507;0.3102;
1327.2000;0.2442;0.2981;
1327.5000;0.2434;0.2957;
1327.8000;0.2458;0.2933;
1328.1000;0.2442;0.2933;
1328.4000;0.2466;0.2981;
1328.7000;0.2466;0.2933;
1329.0000;0.2450;0.2957;
1329.3000;0.2466;0.2957;
1329.6000;0.2475;0.3030;
1329.9000;0.2466;0.3005;
1330.2000;0.2466;0.2957;
1330.5000;0.2466;0.2933;
1330.8000;0.2450;0.2884;
1331.1000;0.2466;0.2908;
1331.4000;0.2401;0.2666;
1331.7000;0.2442;0.2763;
1332.0000;0.2450;0.2836;
1332.3000;0.2475;0.2981;
1332.6000;0.2434;0.2957;
1332.9000;0.2450;0.3054;
1333.2000;0.2466;0.2933;
1333.5000;0.2442;0.2860;
1333.8000;0.2450;0.2957;
1334.1000;0.2450;0.3030;
1334.4000;0.2483;0.3151;
1334.7000;0.2442;0.3078;
1335.0000;0.2458;0.3054;
1335.3000;0.2458;0.3005;
1335.6000;0.2450;0.3054;
1335.9000;0.2458;0.2981;
1336.2000;0.2466;0.2957;
1336.5000;0.2450;0.2981;
1336.8000;0.2442;0.2981;
1337.1000;0.2483;0.3127;
1337.4000;0.2475;0.3078;
1337.7000;0.2458;0.3054;
1338.0000;0.2523;0.3248;
1338.3000;0.2418;0.3054;
1338.6000;0.2458;0.3151;
1338.9000;0.2450;0.3127;
1339.2000;0.2450;0.3248;
1339.5000;0.2458;0.3296;
1339.8000;0.2458;0.3296;
1340.1000;0.2393;0.3030;
1340.4000;0.2450;0.3151;
1340.7000;0.2458;0.3175;
1341.0000;0.2475;0.3175;
1341.3000;0.2434;0.3078;
1341.6000;0.2466;0.3248;
1341.9000;0.2458;0.3320;
1342.2000;0.2466;0.3345;
1342.5000;0.2458;0.3296;
1342.8000;0.2434;0.3272;
1343.1000;0.2499;0.3393;
1343.4000;0.2466;0.3320;
1343.7000;0.2442;0.3272;
1344.0000;0.2450;0.3199;
1344.3000;0.2458;0.3224;
1344.6000;0.2458;0.3199;
1344.9000;0.2466;0.3248;
1345.2000;0.2434;0.3127;
1345.5000;0.2434;0.3175;
1345.8000;0.2450;0.3272;
1346.1000;0.2450;0.3345;
1346.4000;0.2458;0.3369;
1346.7000;0.2466;0.3345;
1347.0000;0.2458;0.3272;
1347.3000;0.2475;0.3345;
1347.6000;0.2466;0.3248;
1347.9000;0.2434;0.3127;
1348.2000;0.2466;0.3151;
1348.5000;0.2475;0.3127;
1348.8000;0.2466;0.3175;
1349.1000;0.2458;0.3224;
1349.4000;0.2442;0.3199;
1349.7000;0.2450;0.3224;
1350.0000;0.2442;0.3199;
1350.3000;0.2434;0.3127;
1350.6000;0.2442;0.3151;
1350.9000;0.2442;0.3151;
1351.2000;0.2458;0.3175;
1351.5000;0.2442;0.3248;
1351.8000;0.2458;0.3248;
1352.1000;0.2458;0.3199;
1352.4000;0.2475;0.3151;
1352.7000;0.2466;0.3127;
1353.0000;0.2442;0.3054;
1353.3000;0.2458;0.2933;
1353.6000;0.2409;0.2812;
1353.9000;0.2466;0.3005;
1354.2000;0.2450;0.3005;
1354.5000;0.2434;0.3005;
1354.8000;0.2442;0.2957;
1355.1000;0.2483;0.3030;
1355.4000;0.2450;0.3030;
1355.7000;0.2442;0.3005;
1356.0000;0.2475;0.3030;
1356.3000;0.2418;0.2860;
1356.6000;0.2450;0.3030;
1356.9000;0.2450;0.3078;
1357.2000;0.2466;0.3151;
1357.5000;0.2442;0.3151;
1357.8000;0.2466;0.3127;
1358.1000;0.2434;0.3102;
1358.4000;0.2483;0.3224;
1358.7000;0.2466;0.3272;
1359.0000;0.2458;0.3248;
1359.3000;0.2442;0.3224;
1359.6000;0.2442;0.3224;
1359.9000;0.2450;0.3248;
1360.2000;0.2458;0.3345;
1360.5000;0.2458;0.3272;
1360.8000;0.2458;0.3248;
1361.1000;0.2475;0.3224;
1361.4000;0.2572;0.3636;
1361.7000;0.2361;0.3054;
1362.0000;0.2540;0.3563;
1362.3000;0.2409;0.3175;
1362.6000;0.2458;0.3248;
1362.9000;0.2442;0.3248;
1363.2000;0.2442;0.3199;
1363.5000;0.2483;0.3296;
1363.8000;0.2385;0.3102;
1364.1000;0.2369;0.3054;
1364.4000;0.2434;0.3127;
1364.7000;0.2442;0.3199;
1365.0000;0.2401;0.3102;
1365.3000;0.2466;0.3272;
1365.6000;0.2458;0.3224;
1365.9000;0.2450;0.3199;
1366.2000;0.2458;0.3199;
1366.5000;0.2458;0.3151;
1366.8000;0.2450;0.3175;
1367.1000;0.2523;0.3369;
1367.4000;0.2458;0.3224;
1367.7000;0.2450;0.3199;
1368.0000;0.2466;0.3224;
1368.3000;0.2475;0.3345;
1368.6000;0.2458;0.3296;
1368.9000;0.2442;0.3345;
1369.2000;0.2458;0.3369;
1369.5000;0.2458;0.3393;
1369.8000;0.2442;0.3393;
1370.1000;0.2442;0.3369;
1370.4000;0.2466;0.3320;
1370.7000;0.2450;0.3248;
1371.0000;0.2466;0.3272;
1371.3000;0.2434;0.3224;
1371.6000;0.2434;0.3199;
1371.9000;0.2572;0.3636;
1372.2000;0.2442;0.3296;
1372.5000;0.2442;0.3320;
1372.8000;0.2450;0.3417;
1373.1000;0.2450;0.3393;
1373.4000;0.2458;0.3514;
1373.7000;0.2532;0.3587;
1374.0000;0.2556;0.3636;
1374.3000;0.2466;0.3320;
1374.6000;0.2458;0.3296;
1374.9000;0.2442;0.3320;
1375.2000;0.2458;0.3248;
1375.5000;0.2466;0.3199;
1375.8000;0.2458;0.3151;
1376.1000;0.2450;0.3127;
1376.4000;0.2475;0.3272;
1376.7000;0.2442;0.3248;
1377.0000;0.2442;0.3078;
1377.3000;0.2475;0.3175;
1377.6000;0.2458;0.3199;
1377.9000;0.2458;0.3248;
1378.2000;0.2458;0.3224;
1378.5000;0.2483;0.3175;
1378.8000;0.2442;0.3127;
1379.1000;0.2458;0.3127;
1379.4000;0.2458;0.3078;
1379.7000;0.2442;0.3078;
1380.0000;0.2426;0.3102;
1380.3000;0.2458;0.3272;
1380.6000;0.2483;0.3272;
1380.9000;0.2450;0.3199;
1381.2000;0.2458;0.3224;
1381.5000;0.2393;0.3005;
1381.8000;0.2458;0.3151;
1382.1000;0.2458;0.3224;
1382.4000;0.2450;0.3248;
1382.7000;0.2491;0.3320;
1383.0000;0.2434;0.3296;
1383.3000;0.2466;0.3320;
1383.6000;0.2483;0.3320;
1383.9000;0.2450;0.3272;
1384.2000;0.2458;0.3296;
1384.5000;0.2466;0.3296;
1384.8000;0.2466;0.3369;
1385.1000;0.2475;0.3417;
1385.4000;0.2450;0.3345;
1385.7000;0.2475;0.3514;
1386.0000;0.2442;0.3417;
1386.3000;0.2475;0.3345;
1386.6000;0.2450;0.3296;
1386.9000;0.2475;0.3320;
1387.2000;0.2475;0.3248;
1387.5000;0.2418;0.3078;
1387.8000;0.2466;0.3224;
1388.1000;0.2450;0.3199;
1388.4000;0.2475;0.3369;
1388.7000;0.2458;0.3320;
1389.0000;0.2466;0.3369;
1389.3000;0.2426;0.3248;
1389.6000;0.2466;0.3272;
1389.9000;0.2450;0.3320;
1390.2000;0.2393;0.3127;
1390.5000;0.2450;0.3224;
1390.8000;0.2458;0.3272;
1391.1000;0.2532;0.3539;
1391.4000;0.2442;0.3296;
1391.7000;0.2458;0.3296;
1392.0000;0.2475;0.3369;
1392.3000;0.2458;0.3369;
1392.6000;0.2466;0.3296;
1392.9000;0.2466;0.3296;
1393.2000;0.2458;0.3320;
1393.5000;0.2450;0.3369;
1393.8000;0.2434;0.3320;
1394.1000;0.2491;0.3417;
1394.4000;0.2475;0.3345;
1394.7000;0.2418;0.3127;
1395.0000;0.2434;0.3199;
1395.3000;0.2434;0.3175;
1395.6000;0.2442;0.3296;
1395.9000;0.2475;0.3320;
1396.2000;0.2450;0.3224;
1396.5000;0.2458;0.3151;
1396.8000;0.2434;0.3151;
1397.1000;0.2491;0.3345;
1397.4000;0.2418;0.3151;
1397.7000;0.2483;0.3224;
1398.0000;0.2442;0.3127;
1398.3000;0.2442;0.3127;
1398.6000;0.2458;0.3054;
1398.9000;0.2450;0.3102;
1399.2000;0.2483;0.3127;
1399.5000;0.2418;0.3030;
1399.8000;0.2458;0.3102;
