time/ms;Fluo/V;P700 deltaI/I x10³;
-199.8000;0.2466;0.2642;
-199.5000;0.2515;0.2787;
-199.2000;0.2507;0.2666;
-198.9000;0.2499;0.2666;
-198.6000;0.2475;0.2642;
-198.3000;0.2507;0.2618;
-198.0000;0.2475;0.2521;
-197.7000;0.2483;0.2545;
-197.4000;0.2499;0.2618;
-197.1000;0.2426;0.2448;
-196.8000;0.2466;0.2472;
-196.5000;0.2475;0.2593;
-196.2000;0.2523;0.2715;
-195.9000;0.2540;0.2739;
-195.6000;0.2507;0.2715;
-195.3000;0.2548;0.2860;
-195.0000;0.2523;0.2812;
-194.7000;0.2491;0.2787;
-194.4000;0.2499;0.2836;
-194.1000;0.2491;0.2884;
-193.8000;0.2483;0.2860;
-193.5000;0.2475;0.2739;
-193.2000;0.2483;0.2739;
-192.9000;0.2483;0.2715;
-192.6000;0.2483;0.2763;
-192.3000;0.2499;0.2618;
-192.0000;0.2507;0.2642;
-191.7000;0.2515;0.2642;
-191.4000;0.2499;0.2593;
-191.1000;0.2418;0.2424;
-190.8000;0.2499;0.2715;
-190.5000;0.2483;0.2666;
-190.2000;0.2499;0.2690;
-189.9000;0.2491;0.2642;
-189.6000;0.2507;0.2642;
-189.3000;0.2515;0.2666;
-189.0000;0.2507;0.2642;
-188.7000;0.2491;0.2690;
-188.4000;0.2393;0.2472;
-188.1000;0.2491;0.2715;
-187.8000;0.2491;0.2690;
-187.5000;0.2540;0.2812;
-187.2000;0.2499;0.2618;
-186.9000;0.2499;0.2618;
-186.6000;0.2507;0.2690;
-186.3000;0.2466;0.2618;
-186.0000;0.2491;0.2690;
-185.7000;0.2515;0.2690;
-185.4000;0.2483;0.2618;
-185.1000;0.2523;0.2715;
-184.8000;0.2507;0.2739;
-184.5000;0.2475;0.2642;
-184.2000;0.2523;0.2690;
-183.9000;0.2491;0.2593;
-183.6000;0.2483;0.2593;
-183.3000;0.2507;0.2593;
-183.0000;0.2483;0.2448;
-182.7000;0.2499;0.2545;
-182.4000;0.2507;0.2545;
-182.1000;0.2507;0.2569;
-181.8000;0.2532;0.2618;
-181.5000;0.2499;0.2618;
-181.2000;0.2637;0.3030;
-180.9000;0.2475;0.2569;
-180.6000;0.2458;0.2545;
-180.3000;0.2499;0.2618;
-180.0000;0.2483;0.2496;
-179.7000;0.2499;0.2545;
-179.4000;0.2605;0.2908;
-179.1000;0.2491;0.2618;
-178.8000;0.2491;0.2545;
-178.5000;0.2564;0.2715;
-178.2000;0.2507;0.2618;
-177.9000;0.2483;0.2545;
-177.6000;0.2523;0.2593;
-177.3000;0.2499;0.2593;
-177.0000;0.2532;0.2593;
-176.7000;0.2458;0.2448;
-176.4000;0.2507;0.2521;
-176.1000;0.2507;0.2496;
-175.8000;0.2491;0.2399;
-175.5000;0.2491;0.2545;
-175.2000;0.2499;0.2618;
-174.9000;0.2499;0.2666;
-174.6000;0.2507;0.2763;
-174.3000;0.2507;0.2739;
-174.0000;0.2458;0.2618;
-173.7000;0.2515;0.2787;
-173.4000;0.2532;0.2860;
-173.1000;0.2491;0.2690;
-172.8000;0.2483;0.2666;
-172.5000;0.2515;0.2715;
-172.2000;0.2499;0.2496;
-171.9000;0.2491;0.2375;
-171.6000;0.2507;0.2448;
-171.3000;0.2548;0.2569;
-171.0000;0.2491;0.2472;
-170.7000;0.2450;0.2375;
-170.4000;0.2361;0.2109;
-170.1000;0.2499;0.2472;
-169.8000;0.2385;0.2230;
-169.5000;0.2483;0.2496;
-169.2000;0.2466;0.2399;
-168.9000;0.2499;0.2569;
-168.6000;0.2499;0.2569;
-168.3000;0.2515;0.2593;
-168.0000;0.2564;0.2836;
-167.7000;0.2483;0.2690;
-167.4000;0.2515;0.2836;
-167.1000;0.2499;0.2787;
-166.8000;0.2491;0.2739;
-166.5000;0.2466;0.2787;
-166.2000;0.2491;0.2763;
-165.9000;0.2507;0.2690;
-165.6000;0.2491;0.2666;
-165.3000;0.2499;0.2642;
-165.0000;0.2532;0.2739;
-164.7000;0.2507;0.2690;
-164.4000;0.2523;0.2787;
-164.1000;0.2483;0.2739;
-163.8000;0.2483;0.2739;
-163.5000;0.2499;0.2836;
-163.2000;0.2475;0.2763;
-162.9000;0.2499;0.2812;
-162.6000;0.2491;0.2787;
-162.3000;0.2507;0.2836;
-162.0000;0.2483;0.2836;
-161.7000;0.2507;0.2836;
-161.4000;0.2499;0.2836;
-161.1000;0.2483;0.2690;
-160.8000;0.2377;0.2375;
-160.5000;0.2483;0.2642;
-160.2000;0.2491;0.2642;
-159.9000;0.2491;0.2593;
-159.6000;0.2499;0.2763;
-159.3000;0.2491;0.2763;
-159.0000;0.2491;0.2715;
-158.7000;0.2499;0.2715;
-158.4000;0.2540;0.2787;
-158.1000;0.2499;0.2715;
-157.8000;0.2507;0.2618;
-157.5000;0.2483;0.2545;
-157.2000;0.2507;0.2666;
-156.9000;0.2450;0.2569;
-156.6000;0.2483;0.2593;
-156.3000;0.2491;0.2642;
-156.0000;0.2507;0.2618;
-155.7000;0.2483;0.2618;
-155.4000;0.2483;0.2593;
-155.1000;0.2483;0.2569;
-154.8000;0.2483;0.2618;
-154.5000;0.2507;0.2642;
-154.2000;0.2515;0.2715;
-153.9000;0.2491;0.2763;
-153.6000;0.2580;0.2981;
-153.3000;0.2515;0.2763;
-153.0000;0.2426;0.2496;
-152.7000;0.2491;0.2642;
-152.4000;0.2532;0.2715;
-152.1000;0.2507;0.2618;
-151.8000;0.2507;0.2642;
-151.5000;0.2515;0.2618;
-151.2000;0.2491;0.2569;
-150.9000;0.2499;0.2690;
-150.6000;0.2515;0.2715;
-150.3000;0.2475;0.2690;
-150.0000;0.2532;0.2666;
-149.7000;0.2491;0.2569;
-149.4000;0.2377;0.2278;
-149.1000;0.2466;0.2521;
-148.8000;0.2483;0.2593;
-148.5000;0.2466;0.2593;
-148.2000;0.2491;0.2690;
-147.9000;0.2597;0.2957;
-147.6000;0.2466;0.2569;
-147.3000;0.2483;0.2569;
-147.0000;0.2466;0.2521;
-146.7000;0.2499;0.2545;
-146.4000;0.2515;0.2593;
-146.1000;0.2564;0.2763;
-145.8000;0.2515;0.2787;
-145.5000;0.2523;0.2763;
-145.2000;0.2499;0.2666;
-144.9000;0.2458;0.2545;
-144.6000;0.2564;0.2884;
-144.3000;0.2450;0.2593;
-144.0000;0.2491;0.2715;
-143.7000;0.2483;0.2715;
-143.4000;0.2483;0.2642;
-143.1000;0.2491;0.2593;
-142.8000;0.2491;0.2642;
-142.5000;0.2515;0.2690;
-142.2000;0.2483;0.2666;
-141.9000;0.2475;0.2569;
-141.6000;0.2491;0.2618;
-141.3000;0.2499;0.2521;
-141.0000;0.2499;0.2618;
-140.7000;0.2507;0.2593;
-140.4000;0.2515;0.2618;
-140.1000;0.2507;0.2618;
-139.8000;0.2483;0.2545;
-139.5000;0.2499;0.2618;
-139.2000;0.2499;0.2569;
-138.9000;0.2491;0.2569;
-138.6000;0.2499;0.2715;
-138.3000;0.2540;0.2763;
-138.0000;0.2491;0.2569;
-137.7000;0.2483;0.2521;
-137.4000;0.2515;0.2593;
-137.1000;0.2499;0.2593;
-136.8000;0.2507;0.2642;
-136.5000;0.2515;0.2666;
-136.2000;0.2483;0.2618;
-135.9000;0.2483;0.2618;
-135.6000;0.2475;0.2593;
-135.3000;0.2507;0.2593;
-135.0000;0.2475;0.2569;
-134.7000;0.2491;0.2642;
-134.4000;0.2499;0.2569;
-134.1000;0.2499;0.2642;
-133.8000;0.2491;0.2569;
-133.5000;0.2499;0.2593;
-133.2000;0.2499;0.2593;
-132.9000;0.2491;0.2739;
-132.6000;0.2499;0.2836;
-132.3000;0.2532;0.2812;
-132.0000;0.2507;0.2812;
-131.7000;0.2499;0.2763;
-131.4000;0.2491;0.2763;
-131.1000;0.2499;0.2763;
-130.8000;0.2491;0.2715;
-130.5000;0.2491;0.2666;
-130.2000;0.2515;0.2690;
-129.9000;0.2499;0.2763;
-129.6000;0.2507;0.2739;
-129.3000;0.2507;0.2666;
-129.0000;0.2507;0.2642;
-128.7000;0.2483;0.2593;
-128.4000;0.2483;0.2593;
-128.1000;0.2483;0.2593;
-127.8000;0.2499;0.2666;
-127.5000;0.2499;0.2715;
-127.2000;0.2499;0.2739;
-126.9000;0.2507;0.2715;
-126.6000;0.2507;0.2739;
-126.3000;0.2491;0.2715;
-126.0000;0.2450;0.2593;
-125.7000;0.2499;0.2763;
-125.4000;0.2458;0.2666;
-125.1000;0.2491;0.2666;
-124.8000;0.2475;0.2593;
-124.5000;0.2475;0.2545;
-124.2000;0.2507;0.2715;
-123.9000;0.2507;0.2787;
-123.6000;0.2483;0.2690;
-123.3000;0.2523;0.2860;
-123.0000;0.2491;0.2763;
-122.7000;0.2532;0.2908;
-122.4000;0.2515;0.2787;
-122.1000;0.2491;0.2763;
-121.8000;0.2483;0.2715;
-121.5000;0.2499;0.2666;
-121.2000;0.2499;0.2739;
-120.9000;0.2483;0.2690;
-120.6000;0.2483;0.2690;
-120.3000;0.2483;0.2739;
-120.0000;0.2491;0.2787;
-119.7000;0.2491;0.2787;
-119.4000;0.2483;0.2715;
-119.1000;0.2491;0.2715;
-118.8000;0.2499;0.2787;
-118.5000;0.2507;0.2715;
-118.2000;0.2499;0.2715;
-117.9000;0.2491;0.2690;
-117.6000;0.2491;0.2690;
-117.3000;0.2515;0.2642;
-117.0000;0.2499;0.2545;
-116.7000;0.2515;0.2569;
-116.4000;0.2483;0.2472;
-116.1000;0.2499;0.2545;
-115.8000;0.2515;0.2569;
-115.5000;0.2483;0.2472;
-115.2000;0.2491;0.2496;
-114.9000;0.2507;0.2424;
-114.6000;0.2540;0.2545;
-114.3000;0.2507;0.2496;
-114.0000;0.2499;0.2521;
-113.7000;0.2499;0.2569;
-113.4000;0.2491;0.2521;
-113.1000;0.2483;0.2569;
-112.8000;0.2475;0.2642;
-112.5000;0.2499;0.2690;
-112.2000;0.2499;0.2593;
-111.9000;0.2491;0.2545;
-111.6000;0.2466;0.2472;
-111.3000;0.2450;0.2472;
-111.0000;0.2540;0.2787;
-110.7000;0.2491;0.2666;
-110.4000;0.2483;0.2569;
-110.1000;0.2532;0.2739;
-109.8000;0.2483;0.2666;
-109.5000;0.2385;0.2351;
-109.2000;0.2491;0.2666;
-108.9000;0.2483;0.2618;
-108.6000;0.2499;0.2690;
-108.3000;0.2483;0.2666;
-108.0000;0.2483;0.2690;
-107.7000;0.2475;0.2715;
-107.4000;0.2434;0.2618;
-107.1000;0.2507;0.2860;
-106.8000;0.2491;0.2812;
-106.5000;0.2499;0.2812;
-106.2000;0.2483;0.2715;
-105.9000;0.2499;0.2763;
-105.6000;0.2491;0.2715;
-105.3000;0.2483;0.2715;
-105.0000;0.2483;0.2739;
-104.7000;0.2483;0.2715;
-104.4000;0.2491;0.2763;
-104.1000;0.2491;0.2739;
-103.8000;0.2466;0.2618;
-103.5000;0.2458;0.2593;
-103.2000;0.2556;0.2787;
-102.9000;0.2499;0.2618;
-102.6000;0.2540;0.2812;
-102.3000;0.2523;0.2787;
-102.0000;0.2475;0.2642;
-101.7000;0.2483;0.2690;
-101.4000;0.2507;0.2715;
-101.1000;0.2475;0.2642;
-100.8000;0.2499;0.2690;
-100.5000;0.2515;0.2787;
-100.2000;0.2491;0.2739;
-99.9000;0.2499;0.2739;
-99.6000;0.2483;0.2739;
-99.3000;0.2483;0.2763;
-99.0000;0.2483;0.2763;
-98.7000;0.2466;0.2642;
-98.4000;0.2507;0.2763;
-98.1000;0.2385;0.2521;
-97.8000;0.2483;0.2690;
-97.5000;0.2499;0.2763;
-97.2000;0.2483;0.2715;
-96.9000;0.2515;0.2739;
-96.6000;0.2507;0.2763;
-96.3000;0.2515;0.2763;
-96.0000;0.2507;0.2787;
-95.7000;0.2507;0.2787;
-95.4000;0.2515;0.2739;
-95.1000;0.2466;0.2690;
-94.8000;0.2491;0.2763;
-94.5000;0.2515;0.2787;
-94.2000;0.2450;0.2690;
-93.9000;0.2499;0.2715;
-93.6000;0.2499;0.2739;
-93.3000;0.2515;0.2739;
-93.0000;0.2515;0.2690;
-92.7000;0.2458;0.2642;
-92.4000;0.2499;0.2642;
-92.1000;0.2491;0.2569;
-91.8000;0.2499;0.2690;
-91.5000;0.2491;0.2715;
-91.2000;0.2491;0.2690;
-90.9000;0.2515;0.2690;
-90.6000;0.2483;0.2618;
-90.3000;0.2507;0.2642;
-90.0000;0.2507;0.2666;
-89.7000;0.2507;0.2618;
-89.4000;0.2507;0.2690;
-89.1000;0.2475;0.2618;
-88.8000;0.2483;0.2739;
-88.5000;0.2491;0.2763;
-88.2000;0.2442;0.2666;
-87.9000;0.2499;0.2715;
-87.6000;0.2507;0.2739;
-87.3000;0.2483;0.2545;
-87.0000;0.2507;0.2569;
-86.7000;0.2507;0.2642;
-86.4000;0.2483;0.2593;
-86.1000;0.2499;0.2593;
-85.8000;0.2499;0.2618;
-85.5000;0.2507;0.2666;
-85.2000;0.2499;0.2496;
-84.9000;0.2491;0.2521;
-84.6000;0.2475;0.2424;
-84.3000;0.2499;0.2496;
-84.0000;0.2507;0.2593;
-83.7000;0.2491;0.2569;
-83.4000;0.2507;0.2666;
-83.1000;0.2507;0.2642;
-82.8000;0.2475;0.2618;
-82.5000;0.2491;0.2666;
-82.2000;0.2540;0.2690;
-81.9000;0.2515;0.2593;
-81.6000;0.2491;0.2569;
-81.3000;0.2507;0.2472;
-81.0000;0.2507;0.2448;
-80.7000;0.2483;0.2375;
-80.4000;0.2507;0.2496;
-80.1000;0.2491;0.2496;
-79.8000;0.2499;0.2521;
-79.5000;0.2499;0.2593;
-79.2000;0.2499;0.2642;
-78.9000;0.2491;0.2569;
-78.6000;0.2540;0.2666;
-78.3000;0.2475;0.2448;
-78.0000;0.2499;0.2545;
-77.7000;0.2491;0.2496;
-77.4000;0.2458;0.2424;
-77.1000;0.2491;0.2399;
-76.8000;0.2499;0.2496;
-76.5000;0.2434;0.2351;
-76.2000;0.2483;0.2472;
-75.9000;0.2377;0.2230;
-75.6000;0.2483;0.2424;
-75.3000;0.2580;0.2666;
-75.0000;0.2515;0.2545;
-74.7000;0.2499;0.2448;
-74.4000;0.2499;0.2375;
-74.1000;0.2499;0.2399;
-73.8000;0.2483;0.2424;
-73.5000;0.2507;0.2545;
-73.2000;0.2466;0.2496;
-72.9000;0.2483;0.2496;
-72.6000;0.2564;0.2739;
-72.3000;0.2483;0.2593;
-72.0000;0.2475;0.2618;
-71.7000;0.2499;0.2690;
-71.4000;0.2499;0.2739;
-71.1000;0.2515;0.2690;
-70.8000;0.2499;0.2715;
-70.5000;0.2483;0.2666;
-70.2000;0.2499;0.2787;
-69.9000;0.2499;0.2715;
-69.6000;0.2483;0.2739;
-69.3000;0.2483;0.2690;
-69.0000;0.2491;0.2642;
-68.7000;0.2499;0.2642;
-68.4000;0.2491;0.2593;
-68.1000;0.2475;0.2545;
-67.8000;0.2507;0.2690;
-67.5000;0.2515;0.2739;
-67.2000;0.2483;0.2690;
-66.9000;0.2475;0.2666;
-66.6000;0.2540;0.2836;
-66.3000;0.2475;0.2593;
-66.0000;0.2491;0.2618;
-65.7000;0.2499;0.2666;
-65.4000;0.2515;0.2666;
-65.1000;0.2499;0.2593;
-64.8000;0.2483;0.2569;
-64.5000;0.2483;0.2618;
-64.2000;0.2499;0.2569;
-63.9000;0.2507;0.2569;
-63.6000;0.2483;0.2448;
-63.3000;0.2483;0.2424;
-63.0000;0.2475;0.2399;
-62.7000;0.2499;0.2496;
-62.4000;0.2491;0.2521;
-62.1000;0.2491;0.2521;
-61.8000;0.2515;0.2642;
-61.5000;0.2523;0.2666;
-61.2000;0.2507;0.2690;
-60.9000;0.2515;0.2690;
-60.6000;0.2491;0.2642;
-60.3000;0.2499;0.2666;
-60.0000;0.2507;0.2642;
-59.7000;0.2434;0.2496;
-59.4000;0.2475;0.2569;
-59.1000;0.2507;0.2569;
-58.8000;0.2507;0.2593;
-58.5000;0.2540;0.2593;
-58.2000;0.2491;0.2569;
-57.9000;0.2499;0.2642;
-57.6000;0.2393;0.2278;
-57.3000;0.2564;0.2787;
-57.0000;0.2483;0.2666;
-56.7000;0.2491;0.2690;
-56.4000;0.2499;0.2642;
-56.1000;0.2499;0.2690;
-55.8000;0.2475;0.2618;
-55.5000;0.2564;0.2908;
-55.2000;0.2466;0.2618;
-54.9000;0.2442;0.2521;
-54.6000;0.2515;0.2642;
-54.3000;0.2475;0.2496;
-54.0000;0.2466;0.2496;
-53.7000;0.2499;0.2472;
-53.4000;0.2418;0.2327;
-53.1000;0.2458;0.2496;
-52.8000;0.2483;0.2545;
-52.5000;0.2483;0.2496;
-52.2000;0.2466;0.2496;
-51.9000;0.2475;0.2375;
-51.6000;0.2483;0.2496;
-51.3000;0.2532;0.2569;
-51.0000;0.2515;0.2545;
-50.7000;0.2564;0.2642;
-50.4000;0.2491;0.2472;
-50.1000;0.2475;0.2472;
-49.8000;0.2418;0.2254;
-49.5000;0.2483;0.2521;
-49.2000;0.2491;0.2496;
-48.9000;0.2507;0.2545;
-48.6000;0.2491;0.2569;
-48.3000;0.2507;0.2739;
-48.0000;0.2499;0.2690;
-47.7000;0.2499;0.2715;
-47.4000;0.2499;0.2618;
-47.1000;0.2483;0.2569;
-46.8000;0.2483;0.2618;
-46.5000;0.2475;0.2545;
-46.2000;0.2515;0.2690;
-45.9000;0.2507;0.2715;
-45.6000;0.2483;0.2690;
-45.3000;0.2605;0.2981;
-45.0000;0.2523;0.2739;
-44.7000;0.2515;0.2739;
-44.4000;0.2499;0.2715;
-44.1000;0.2515;0.2812;
-43.8000;0.2507;0.2787;
-43.5000;0.2499;0.2787;
-43.2000;0.2515;0.2690;
-42.9000;0.2499;0.2569;
-42.6000;0.2491;0.2521;
-42.3000;0.2515;0.2593;
-42.0000;0.2515;0.2593;
-41.7000;0.2475;0.2569;
-41.4000;0.2499;0.2593;
-41.1000;0.2491;0.2642;
-40.8000;0.2499;0.2642;
-40.5000;0.2499;0.2618;
-40.2000;0.2605;0.2908;
-39.9000;0.2523;0.2666;
-39.6000;0.2507;0.2618;
-39.3000;0.2523;0.2763;
-39.0000;0.2507;0.2715;
-38.7000;0.2475;0.2545;
-38.4000;0.2491;0.2618;
-38.1000;0.2434;0.2448;
-37.8000;0.2507;0.2618;
-37.5000;0.2483;0.2618;
-37.2000;0.2475;0.2569;
-36.9000;0.2507;0.2618;
-36.6000;0.2523;0.2569;
-36.3000;0.2491;0.2448;
-36.0000;0.2499;0.2545;
-35.7000;0.2499;0.2545;
-35.4000;0.2507;0.2642;
-35.1000;0.2507;0.2618;
-34.8000;0.2491;0.2569;
-34.5000;0.2532;0.2642;
-34.2000;0.2499;0.2448;
-33.9000;0.2491;0.2424;
-33.6000;0.2499;0.2399;
-33.3000;0.2466;0.2254;
-33.0000;0.2515;0.2327;
-32.7000;0.2499;0.2375;
-32.4000;0.2466;0.2351;
-32.1000;0.2499;0.2448;
-31.8000;0.2507;0.2375;
-31.5000;0.2605;0.2642;
-31.2000;0.2491;0.2351;
-30.9000;0.2458;0.2327;
-30.6000;0.2458;0.2399;
-30.3000;0.2466;0.2472;
-30.0000;0.2507;0.2618;
-29.7000;0.2499;0.2618;
-29.4000;0.2475;0.2593;
-29.1000;0.2580;0.2787;
-28.8000;0.2499;0.2521;
-28.5000;0.2499;0.2545;
-28.2000;0.2491;0.2593;
-27.9000;0.2491;0.2593;
-27.6000;0.2475;0.2569;
-27.3000;0.2475;0.2666;
-27.0000;0.2499;0.2763;
-26.7000;0.2515;0.2836;
-26.4000;0.2483;0.2812;
-26.1000;0.2483;0.2860;
-25.8000;0.2507;0.2933;
-25.5000;0.2507;0.2957;
-25.2000;0.2499;0.2933;
-24.9000;0.2499;0.2812;
-24.6000;0.2507;0.2933;
-24.3000;0.2515;0.2981;
-24.0000;0.2507;0.2908;
-23.7000;0.2491;0.2836;
-23.4000;0.2483;0.2836;
-23.1000;0.2475;0.2715;
-22.8000;0.2507;0.2787;
-22.5000;0.2507;0.2763;
-22.2000;0.2507;0.2739;
-21.9000;0.2499;0.2763;
-21.6000;0.2532;0.2957;
-21.3000;0.2491;0.2836;
-21.0000;0.2499;0.2836;
-20.7000;0.2499;0.2860;
-20.4000;0.2499;0.2957;
-20.1000;0.2491;0.3005;
-19.8000;0.2499;0.2908;
-19.5000;0.2499;0.2812;
-19.2000;0.2499;0.2812;
-18.9000;0.2548;0.2884;
-18.6000;0.2426;0.2618;
-18.3000;0.2507;0.2763;
-18.0000;0.2515;0.2666;
-17.7000;0.2491;0.2569;
-17.4000;0.2450;0.2593;
-17.1000;0.2491;0.2569;
-16.8000;0.2483;0.2521;
-16.5000;0.2475;0.2545;
-16.2000;0.2458;0.2521;
-15.9000;0.2507;0.2739;
-15.6000;0.2499;0.2642;
-15.3000;0.2515;0.2593;
-15.0000;0.2466;0.2545;
-14.7000;0.2499;0.2618;
-14.4000;0.2483;0.2593;
-14.1000;0.2532;0.2763;
-13.8000;0.2499;0.2715;
-13.5000;0.2491;0.2690;
-13.2000;0.2572;0.2860;
-12.9000;0.2515;0.2763;
-12.6000;0.2491;0.2763;
-12.3000;0.2523;0.2763;
-12.0000;0.2532;0.2787;
-11.7000;0.2532;0.2812;
-11.4000;0.2499;0.2715;
-11.1000;0.2483;0.2812;
-10.8000;0.2466;0.2812;
-10.5000;0.2483;0.2884;
-10.2000;0.2491;0.2884;
-9.9000;0.2515;0.2957;
-9.6000;0.2475;0.2860;
-9.3000;0.2499;0.2908;
-9.0000;0.2491;0.2957;
-8.7000;0.2491;0.2957;
-8.4000;0.2483;0.2933;
-8.1000;0.2483;0.2957;
-7.8000;0.2483;0.2933;
-7.5000;0.2499;0.2981;
-7.2000;0.2491;0.2933;
-6.9000;0.2483;0.2933;
-6.6000;0.2491;0.2957;
-6.3000;0.2548;0.3030;
-6.0000;0.2483;0.2715;
-5.7000;0.2491;0.2836;
-5.4000;0.2458;0.2860;
-5.1000;0.2507;0.2957;
-4.8000;0.2499;0.2908;
-4.5000;0.2483;0.2884;
-4.2000;0.2450;0.2763;
-3.9000;0.2483;0.2836;
-3.6000;0.2499;0.2860;
-3.3000;0.2507;0.2860;
-3.0000;0.2483;0.2763;
-2.7000;0.2523;0.2860;
-2.4000;0.2499;0.2763;
-2.1000;0.2507;0.2860;
-1.8000;0.2483;0.2836;
-1.5000;0.2475;0.2739;
-1.2000;0.2515;0.2763;
-0.9000;0.2491;0.2739;
-0.6000;0.2499;0.2787;
-0.3000;0.2491;0.2763;
0.0000;0.2491;0.2763;
0.3000;0.2491;0.2642;
0.6000;0.2483;0.2836;
0.9000;0.2450;0.2957;
1.2000;0.2507;0.3345;
1.5000;0.2532;0.3660;
1.8000;0.2540;0.3951;
2.1000;0.2491;0.3878;
2.4000;0.2564;0.4217;
2.7000;0.2515;0.4290;
3.0000;0.2548;0.4484;
3.3000;0.2532;0.4581;
3.6000;0.2572;0.4702;
3.9000;0.2548;0.4702;
4.2000;0.2564;0.4726;
4.5000;0.2580;0.4799;
4.8000;0.2548;0.4847;
5.1000;0.2580;0.4920;
5.4000;0.2572;0.4944;
5.7000;0.2564;0.4944;
6.0000;0.2556;0.5017;
6.3000;0.2572;0.5066;
6.6000;0.2572;0.5163;
6.9000;0.2572;0.5066;
7.2000;0.2572;0.5017;
7.5000;0.2605;0.5090;
7.8000;0.2597;0.5187;
8.1000;0.2589;0.5090;
8.4000;0.2564;0.4969;
8.7000;0.2580;0.4969;
9.0000;0.2589;0.4944;
9.3000;0.2589;0.4944;
9.6000;0.2572;0.4920;
9.9000;0.2548;0.4847;
10.2000;0.2589;0.5041;
10.5000;0.2540;0.4872;
10.8000;0.2580;0.5041;
11.1000;0.2572;0.4993;
11.4000;0.2580;0.5066;
11.7000;0.2613;0.5211;
12.0000;0.2597;0.5090;
12.3000;0.2580;0.5114;
12.6000;0.2580;0.5187;
12.9000;0.2580;0.5163;
13.2000;0.2564;0.5163;
13.5000;0.2589;0.5114;
13.8000;0.2597;0.5235;
14.1000;0.2580;0.5211;
14.4000;0.2572;0.5090;
14.7000;0.2572;0.5041;
15.0000;0.2580;0.4993;
15.3000;0.2589;0.5138;
15.6000;0.2564;0.5114;
15.9000;0.2589;0.5235;
16.2000;0.2580;0.5284;
16.5000;0.2572;0.5187;
16.8000;0.2556;0.5090;
17.1000;0.2580;0.5138;
17.4000;0.2572;0.5090;
17.7000;0.2580;0.5041;
18.0000;0.2621;0.5163;
18.3000;0.2580;0.5114;
18.6000;0.2564;0.5138;
18.9000;0.2564;0.5187;
19.2000;0.2589;0.5259;
19.5000;0.2572;0.5235;
19.8000;0.2564;0.5187;
20.1000;0.2580;0.5163;
20.4000;0.2605;0.5235;
20.7000;0.2572;0.5090;
21.0000;0.2580;0.5138;
21.3000;0.2556;0.5090;
21.6000;0.2589;0.5259;
21.9000;0.2580;0.5163;
22.2000;0.2580;0.5187;
22.5000;0.2572;0.5138;
22.8000;0.2605;0.5211;
23.1000;0.2580;0.5090;
23.4000;0.2572;0.5041;
23.7000;0.2572;0.5041;
24.0000;0.2564;0.5066;
24.3000;0.2589;0.5090;
24.6000;0.2572;0.5114;
24.9000;0.2589;0.5090;
25.2000;0.2564;0.4944;
25.5000;0.2589;0.4993;
25.8000;0.2572;0.4993;
26.1000;0.2556;0.5041;
26.4000;0.2564;0.5017;
26.7000;0.2597;0.5090;
27.0000;0.2548;0.4993;
27.3000;0.2580;0.5017;
27.6000;0.2572;0.5041;
27.9000;0.2572;0.5066;
28.2000;0.2572;0.4993;
28.5000;0.2589;0.5041;
28.8000;0.2580;0.5114;
29.1000;0.2564;0.5114;
29.4000;0.2548;0.5066;
29.7000;0.2613;0.5138;
30.0000;0.2564;0.4944;
30.3000;0.2548;0.4944;
30.6000;0.2548;0.4896;
30.9000;0.2613;0.5066;
31.2000;0.2564;0.4920;
31.5000;0.2556;0.4969;
31.8000;0.2597;0.5017;
32.1000;0.2580;0.4993;
32.4000;0.2572;0.4993;
32.7000;0.2572;0.4944;
33.0000;0.2572;0.4944;
33.3000;0.2572;0.5017;
33.6000;0.2572;0.4969;
33.9000;0.2556;0.4920;
34.2000;0.2564;0.4920;
34.5000;0.2589;0.5041;
34.8000;0.2580;0.5041;
35.1000;0.2572;0.4993;
35.4000;0.2589;0.5090;
35.7000;0.2564;0.5041;
36.0000;0.2597;0.5090;
36.3000;0.2572;0.5090;
36.6000;0.2670;0.5356;
36.9000;0.2589;0.5235;
37.2000;0.2572;0.5308;
37.5000;0.2580;0.5356;
37.8000;0.2662;0.5599;
38.1000;0.2564;0.5332;
38.4000;0.2580;0.5308;
38.7000;0.2580;0.5259;
39.0000;0.2564;0.5235;
39.3000;0.2580;0.5259;
39.6000;0.2572;0.5235;
39.9000;0.2580;0.5308;
40.2000;0.2556;0.5259;
40.5000;0.2564;0.5259;
40.8000;0.2572;0.5235;
41.1000;0.2564;0.5211;
41.4000;0.2572;0.5211;
41.7000;0.2580;0.5235;
42.0000;0.2597;0.5259;
42.3000;0.2597;0.5187;
42.6000;0.2597;0.5163;
42.9000;0.2580;0.4993;
43.2000;0.2580;0.4969;
43.5000;0.2580;0.4944;
43.8000;0.2589;0.5090;
44.1000;0.2556;0.5090;
44.4000;0.2572;0.5017;
44.7000;0.2564;0.4896;
45.0000;0.2564;0.4920;
45.3000;0.2580;0.4993;
45.6000;0.2580;0.4993;
45.9000;0.2629;0.5090;
46.2000;0.2556;0.4896;
46.5000;0.2572;0.4872;
46.8000;0.2580;0.4944;
47.1000;0.2597;0.4993;
47.4000;0.2564;0.5017;
47.7000;0.2580;0.5163;
48.0000;0.2572;0.5066;
48.3000;0.2564;0.5114;
48.6000;0.2580;0.5163;
48.9000;0.2580;0.5163;
49.2000;0.2580;0.5187;
49.5000;0.2548;0.5211;
49.8000;0.2589;0.5259;
50.1000;0.2572;0.5235;
50.4000;0.2572;0.5259;
50.7000;0.2564;0.5211;
51.0000;0.2564;0.5163;
51.3000;0.2572;0.5235;
51.6000;0.2580;0.5235;
51.9000;0.2621;0.5332;
52.2000;0.2572;0.5211;
52.5000;0.2580;0.5211;
52.8000;0.2580;0.5211;
53.1000;0.2580;0.5235;
53.4000;0.2572;0.5235;
53.7000;0.2589;0.5187;
54.0000;0.2580;0.5066;
54.3000;0.2589;0.5017;
54.6000;0.2589;0.5041;
54.9000;0.2572;0.4993;
55.2000;0.2572;0.4969;
55.5000;0.2613;0.5066;
55.8000;0.2580;0.4944;
56.1000;0.2572;0.5017;
56.4000;0.2580;0.5041;
56.7000;0.2580;0.5041;
57.0000;0.2572;0.4969;
57.3000;0.2580;0.4969;
57.6000;0.2597;0.5066;
57.9000;0.2556;0.4944;
58.2000;0.2572;0.4969;
58.5000;0.2564;0.4993;
58.8000;0.2564;0.5017;
59.1000;0.2572;0.4993;
59.4000;0.2605;0.5211;
59.7000;0.2523;0.4920;
60.0000;0.2564;0.5017;
60.3000;0.2523;0.4920;
60.6000;0.2621;0.5235;
60.9000;0.2580;0.5114;
61.2000;0.2572;0.5163;
61.5000;0.2491;0.5041;
61.8000;0.2556;0.5235;
62.1000;0.2556;0.5259;
62.4000;0.2621;0.5308;
62.7000;0.2572;0.5138;
63.0000;0.2556;0.5138;
63.3000;0.2556;0.5114;
63.6000;0.2564;0.5114;
63.9000;0.2572;0.5066;
64.2000;0.2572;0.5114;
64.5000;0.2556;0.5114;
64.8000;0.2564;0.5114;
65.1000;0.2564;0.5090;
65.4000;0.2564;0.5090;
65.7000;0.2572;0.5114;
66.0000;0.2564;0.5163;
66.3000;0.2572;0.5114;
66.6000;0.2580;0.5138;
66.9000;0.2499;0.4823;
67.2000;0.2491;0.4847;
67.5000;0.2564;0.5066;
67.8000;0.2564;0.5163;
68.1000;0.2580;0.5138;
68.4000;0.2564;0.5066;
68.7000;0.2589;0.5235;
69.0000;0.2572;0.5235;
69.3000;0.2548;0.5163;
69.6000;0.2589;0.5211;
69.9000;0.2580;0.5187;
70.2000;0.2572;0.5211;
70.5000;0.2556;0.5114;
70.8000;0.2572;0.5114;
71.1000;0.2589;0.5235;
71.4000;0.2597;0.5187;
71.7000;0.2556;0.5187;
72.0000;0.2605;0.5356;
72.3000;0.2572;0.5259;
72.6000;0.2580;0.5308;
72.9000;0.2589;0.5235;
73.2000;0.2589;0.5259;
73.5000;0.2515;0.5017;
73.8000;0.2580;0.5187;
74.1000;0.2572;0.5114;
74.4000;0.2556;0.4969;
74.7000;0.2564;0.5017;
75.0000;0.2589;0.5114;
75.3000;0.2597;0.5138;
75.6000;0.2564;0.5066;
75.9000;0.2523;0.4993;
76.2000;0.2670;0.5332;
76.5000;0.2670;0.5308;
76.8000;0.2466;0.4726;
77.1000;0.2564;0.5090;
77.4000;0.2621;0.5187;
77.7000;0.2613;0.5235;
78.0000;0.2572;0.5066;
78.3000;0.2564;0.5041;
78.6000;0.2458;0.4750;
78.9000;0.2629;0.5235;
79.2000;0.2564;0.4969;
79.5000;0.2540;0.4969;
79.8000;0.2556;0.5041;
80.1000;0.2686;0.5405;
80.4000;0.2613;0.5163;
80.7000;0.2572;0.5090;
81.0000;0.2572;0.5090;
81.3000;0.2523;0.4944;
81.6000;0.2572;0.5114;
81.9000;0.2572;0.5090;
82.2000;0.2597;0.5187;
82.5000;0.2556;0.5138;
82.8000;0.2572;0.5187;
83.1000;0.2572;0.5163;
83.4000;0.2580;0.5235;
83.7000;0.2564;0.5138;
84.0000;0.2580;0.5163;
84.3000;0.2540;0.5041;
84.6000;0.2491;0.4896;
84.9000;0.2564;0.5163;
85.2000;0.2556;0.5163;
85.5000;0.2572;0.5163;
85.8000;0.2572;0.5163;
86.1000;0.2564;0.5114;
86.4000;0.2564;0.5066;
86.7000;0.2556;0.5041;
87.0000;0.2548;0.4944;
87.3000;0.2564;0.4823;
87.6000;0.2556;0.4750;
87.9000;0.2589;0.4920;
88.2000;0.2580;0.4944;
88.5000;0.2572;0.4993;
88.8000;0.2572;0.5090;
89.1000;0.2580;0.5163;
89.4000;0.2572;0.5187;
89.7000;0.2589;0.5235;
90.0000;0.2556;0.5211;
90.3000;0.2572;0.5211;
90.6000;0.2589;0.5211;
90.9000;0.2572;0.5211;
91.2000;0.2572;0.5114;
91.5000;0.2548;0.5138;
91.8000;0.2564;0.5138;
92.1000;0.2580;0.5187;
92.4000;0.2589;0.5211;
92.7000;0.2564;0.5138;
93.0000;0.2580;0.5163;
93.3000;0.2580;0.5114;
93.6000;0.2556;0.5090;
93.9000;0.2580;0.5211;
94.2000;0.2580;0.5114;
94.5000;0.2572;0.5163;
94.8000;0.2580;0.5211;
95.1000;0.2572;0.5163;
95.4000;0.2572;0.5138;
95.7000;0.2483;0.4847;
96.0000;0.2572;0.5138;
96.3000;0.2580;0.5114;
96.6000;0.2589;0.5041;
96.9000;0.2556;0.5017;
97.2000;0.2564;0.5066;
97.5000;0.2580;0.4993;
97.8000;0.2564;0.5017;
98.1000;0.2580;0.4944;
98.4000;0.2589;0.5066;
98.7000;0.2523;0.5066;
99.0000;0.2564;0.5163;
99.3000;0.2580;0.5211;
99.6000;0.2572;0.5211;
99.9000;0.2572;0.5138;
100.2000;0.2564;0.5066;
100.5000;0.2556;0.5090;
100.8000;0.2629;0.5308;
101.1000;0.2556;0.5090;
101.4000;0.2556;0.5114;
101.7000;0.2564;0.5066;
102.0000;0.2564;0.5066;
102.3000;0.2572;0.5041;
102.6000;0.2686;0.5308;
102.9000;0.2556;0.4993;
103.2000;0.2572;0.5041;
103.5000;0.2605;0.5138;
103.8000;0.2548;0.5066;
104.1000;0.2564;0.5163;
104.4000;0.2564;0.5163;
104.7000;0.2532;0.5090;
105.0000;0.2580;0.5284;
105.3000;0.2597;0.5284;
105.6000;0.2556;0.5187;
105.9000;0.2548;0.5163;
106.2000;0.2572;0.5235;
106.5000;0.2556;0.5138;
106.8000;0.2556;0.5163;
107.1000;0.2564;0.5163;
107.4000;0.2580;0.5187;
107.7000;0.2572;0.5090;
108.0000;0.2572;0.5066;
108.3000;0.2572;0.5041;
108.6000;0.2589;0.5114;
108.9000;0.2564;0.4944;
109.2000;0.2556;0.4847;
109.5000;0.2580;0.4896;
109.8000;0.2564;0.4920;
110.1000;0.2564;0.4920;
110.4000;0.2564;0.5041;
110.7000;0.2589;0.5090;
111.0000;0.2556;0.5138;
111.3000;0.2589;0.5138;
111.6000;0.2556;0.4993;
111.9000;0.2572;0.5017;
112.2000;0.2548;0.4969;
112.5000;0.2564;0.4969;
112.8000;0.2556;0.4920;
113.1000;0.2556;0.4896;
113.4000;0.2580;0.4896;
113.7000;0.2580;0.4872;
114.0000;0.2580;0.4896;
114.3000;0.2564;0.4920;
114.6000;0.2572;0.4944;
114.9000;0.2564;0.4872;
115.2000;0.2564;0.4920;
115.5000;0.2564;0.4896;
115.8000;0.2564;0.4969;
116.1000;0.2556;0.4969;
116.4000;0.2556;0.5017;
116.7000;0.2548;0.5017;
117.0000;0.2556;0.4993;
117.3000;0.2540;0.5017;
117.6000;0.2556;0.5090;
117.9000;0.2572;0.5138;
118.2000;0.2556;0.5187;
118.5000;0.2580;0.5114;
118.8000;0.2572;0.5041;
119.1000;0.2564;0.4969;
119.4000;0.2564;0.4944;
119.7000;0.2523;0.4799;
120.0000;0.2572;0.4944;
120.3000;0.2572;0.5066;
120.6000;0.2556;0.5017;
120.9000;0.2556;0.4872;
121.2000;0.2580;0.4969;
121.5000;0.2548;0.4799;
121.8000;0.2572;0.4872;
122.1000;0.2548;0.4799;
122.4000;0.2458;0.4532;
122.7000;0.2572;0.4872;
123.0000;0.2597;0.4969;
123.3000;0.2572;0.4920;
123.6000;0.2572;0.4799;
123.9000;0.2556;0.4775;
124.2000;0.2564;0.4823;
124.5000;0.2572;0.4920;
124.8000;0.2589;0.4944;
125.1000;0.2589;0.4969;
125.4000;0.2564;0.4847;
125.7000;0.2564;0.4872;
126.0000;0.2515;0.4678;
126.3000;0.2564;0.4775;
126.6000;0.2580;0.4896;
126.9000;0.2572;0.4969;
127.2000;0.2515;0.4799;
127.5000;0.2556;0.4944;
127.8000;0.2572;0.4969;
128.1000;0.2564;0.4872;
128.4000;0.2556;0.4799;
128.7000;0.2589;0.4847;
129.0000;0.2556;0.4726;
129.3000;0.2564;0.4775;
129.6000;0.2572;0.4775;
129.9000;0.2597;0.4872;
130.2000;0.2556;0.4823;
130.5000;0.2540;0.4750;
130.8000;0.2629;0.4993;
131.1000;0.2572;0.4969;
131.4000;0.2572;0.4969;
131.7000;0.2580;0.5041;
132.0000;0.2564;0.4993;
132.3000;0.2548;0.4944;
132.6000;0.2532;0.4872;
132.9000;0.2580;0.4920;
133.2000;0.2564;0.4920;
133.5000;0.2564;0.4969;
133.8000;0.2564;0.5017;
134.1000;0.2564;0.4993;
134.4000;0.2556;0.4969;
134.7000;0.2580;0.5041;
135.0000;0.2556;0.4944;
135.3000;0.2564;0.4993;
135.6000;0.2613;0.5163;
135.9000;0.2572;0.5114;
136.2000;0.2580;0.5114;
136.5000;0.2564;0.5163;
136.8000;0.2564;0.5211;
137.1000;0.2548;0.5211;
137.4000;0.2540;0.5163;
137.7000;0.2564;0.5187;
138.0000;0.2589;0.5259;
138.3000;0.2564;0.5114;
138.6000;0.2580;0.5138;
138.9000;0.2564;0.5066;
139.2000;0.2515;0.4920;
139.5000;0.2564;0.5066;
139.8000;0.2556;0.5090;
140.1000;0.2556;0.5138;
140.4000;0.2548;0.5114;
140.7000;0.2564;0.5090;
141.0000;0.2572;0.5066;
141.3000;0.2548;0.5041;
141.6000;0.2564;0.5066;
141.9000;0.2572;0.5066;
142.2000;0.2556;0.5090;
142.5000;0.2556;0.5138;
142.8000;0.2556;0.5041;
143.1000;0.2572;0.5041;
143.4000;0.2540;0.4920;
143.7000;0.2548;0.4969;
144.0000;0.2556;0.5041;
144.3000;0.2564;0.5066;
144.6000;0.2564;0.5138;
144.9000;0.2564;0.5066;
145.2000;0.2556;0.5041;
145.5000;0.2564;0.4993;
145.8000;0.2556;0.5017;
146.1000;0.2564;0.4944;
146.4000;0.2572;0.4896;
146.7000;0.2564;0.4920;
147.0000;0.2580;0.4969;
147.3000;0.2572;0.5017;
147.6000;0.2556;0.5041;
147.9000;0.2556;0.4969;
148.2000;0.2564;0.4944;
148.5000;0.2564;0.4993;
148.8000;0.2540;0.4944;
149.1000;0.2548;0.4969;
149.4000;0.2589;0.5017;
149.7000;0.2580;0.4993;
150.0000;0.2572;0.4944;
150.3000;0.2564;0.4993;
150.6000;0.2548;0.4969;
150.9000;0.2564;0.4993;
151.2000;0.2572;0.4944;
151.5000;0.2523;0.4872;
151.8000;0.2613;0.5211;
152.1000;0.2556;0.5066;
152.4000;0.2540;0.5114;
152.7000;0.2556;0.5041;
153.0000;0.2548;0.4993;
153.3000;0.2556;0.5041;
153.6000;0.2564;0.5114;
153.9000;0.2540;0.5114;
154.2000;0.2556;0.5090;
154.5000;0.2589;0.5114;
154.8000;0.2556;0.5017;
155.1000;0.2556;0.5041;
155.4000;0.2556;0.5017;
155.7000;0.2580;0.5114;
156.0000;0.2572;0.5090;
156.3000;0.2556;0.5017;
156.6000;0.2515;0.4847;
156.9000;0.2572;0.5017;
157.2000;0.2564;0.4993;
157.5000;0.2564;0.5017;
157.8000;0.2580;0.5114;
158.1000;0.2556;0.5114;
158.4000;0.2556;0.5235;
158.7000;0.2548;0.5235;
159.0000;0.2532;0.5284;
159.3000;0.2556;0.5356;
159.6000;0.2556;0.5259;
159.9000;0.2572;0.5211;
160.2000;0.2564;0.5090;
160.5000;0.2556;0.5041;
160.8000;0.2548;0.5090;
161.1000;0.2507;0.4993;
161.4000;0.2572;0.5187;
161.7000;0.2548;0.5187;
162.0000;0.2564;0.5259;
162.3000;0.2580;0.5235;
162.6000;0.2564;0.5090;
162.9000;0.2556;0.5041;
163.2000;0.2548;0.5041;
163.5000;0.2580;0.5066;
163.8000;0.2564;0.5017;
164.1000;0.2564;0.5017;
164.4000;0.2556;0.4969;
164.7000;0.2629;0.5211;
165.0000;0.2580;0.5041;
165.3000;0.2564;0.4969;
165.6000;0.2556;0.4944;
165.9000;0.2580;0.4969;
166.2000;0.2572;0.4969;
166.5000;0.2605;0.5090;
166.8000;0.2556;0.5017;
167.1000;0.2564;0.5090;
167.4000;0.2564;0.5090;
167.7000;0.2572;0.5138;
168.0000;0.2572;0.5138;
168.3000;0.2556;0.5114;
168.6000;0.2589;0.5187;
168.9000;0.2572;0.5138;
169.2000;0.2564;0.5211;
169.5000;0.2564;0.5284;
169.8000;0.2564;0.5284;
170.1000;0.2580;0.5259;
170.4000;0.2572;0.5187;
170.7000;0.2540;0.5187;
171.0000;0.2629;0.5332;
171.3000;0.2580;0.5259;
171.6000;0.2523;0.5114;
171.9000;0.2564;0.5138;
172.2000;0.2556;0.5235;
172.5000;0.2629;0.5405;
172.8000;0.2556;0.5187;
173.1000;0.2556;0.5114;
173.4000;0.2564;0.5114;
173.7000;0.2629;0.5235;
174.0000;0.2572;0.5114;
174.3000;0.2548;0.5163;
174.6000;0.2556;0.5187;
174.9000;0.2580;0.5211;
175.2000;0.2564;0.5187;
175.5000;0.2515;0.5066;
175.8000;0.2556;0.5090;
176.1000;0.2564;0.5187;
176.4000;0.2523;0.5066;
176.7000;0.2564;0.5114;
177.0000;0.2548;0.5138;
177.3000;0.2450;0.4847;
177.6000;0.2605;0.5163;
177.9000;0.2556;0.5017;
178.2000;0.2556;0.4896;
178.5000;0.2572;0.4993;
178.8000;0.2556;0.5041;
179.1000;0.2564;0.5017;
179.4000;0.2580;0.5017;
179.7000;0.2580;0.4920;
180.0000;0.2564;0.4872;
180.3000;0.2564;0.4847;
180.6000;0.2605;0.4993;
180.9000;0.2564;0.4944;
181.2000;0.2589;0.4944;
181.5000;0.2548;0.4896;
181.8000;0.2523;0.4872;
182.1000;0.2564;0.5017;
182.4000;0.2589;0.5114;
182.7000;0.2556;0.4920;
183.0000;0.2564;0.5017;
183.3000;0.2556;0.5090;
183.6000;0.2499;0.4920;
183.9000;0.2564;0.5041;
184.2000;0.2564;0.5066;
184.5000;0.2572;0.5090;
184.8000;0.2507;0.4993;
185.1000;0.2540;0.5090;
185.4000;0.2556;0.5187;
185.7000;0.2572;0.5284;
186.0000;0.2556;0.5381;
186.3000;0.2572;0.5453;
186.6000;0.2564;0.5429;
186.9000;0.2686;0.5647;
187.2000;0.2556;0.5284;
187.5000;0.2572;0.5284;
187.8000;0.2572;0.5235;
188.1000;0.2556;0.5187;
188.4000;0.2556;0.5187;
188.7000;0.2564;0.5259;
189.0000;0.2572;0.5235;
189.3000;0.2572;0.5259;
189.6000;0.2523;0.5187;
189.9000;0.2556;0.5235;
190.2000;0.2564;0.5235;
190.5000;0.2564;0.5308;
190.8000;0.2548;0.5163;
191.1000;0.2540;0.5187;
191.4000;0.2580;0.5284;
191.7000;0.2646;0.5381;
192.0000;0.2540;0.5066;
192.3000;0.2556;0.5163;
192.6000;0.2662;0.5381;
192.9000;0.2507;0.4920;
193.2000;0.2572;0.5114;
193.5000;0.2564;0.5138;
193.8000;0.2637;0.5356;
194.1000;0.2556;0.5211;
194.4000;0.2556;0.5211;
194.7000;0.2564;0.5284;
195.0000;0.2532;0.5211;
195.3000;0.2556;0.5259;
195.6000;0.2548;0.5211;
195.9000;0.2564;0.5235;
196.2000;0.2564;0.5187;
196.5000;0.2621;0.5405;
196.8000;0.2597;0.5356;
197.1000;0.2572;0.5284;
197.4000;0.2556;0.5187;
197.7000;0.2548;0.5114;
198.0000;0.2540;0.5090;
198.3000;0.2532;0.5090;
198.6000;0.2548;0.5114;
198.9000;0.2580;0.5138;
199.2000;0.2564;0.5163;
199.5000;0.2548;0.5163;
199.8000;0.2572;0.5187;
200.1000;0.2548;0.5187;
200.4000;0.2523;0.5163;
200.7000;0.2597;0.5284;
201.0000;0.2548;0.5114;
201.3000;0.2572;0.5066;
201.6000;0.2572;0.5041;
201.9000;0.2572;0.4944;
202.2000;0.2572;0.4993;
202.5000;0.2548;0.4969;
202.8000;0.2572;0.5114;
203.1000;0.2589;0.5163;
203.4000;0.2564;0.5114;
203.7000;0.2556;0.5066;
204.0000;0.2564;0.5090;
204.3000;0.2572;0.5066;
204.6000;0.2556;0.5017;
204.9000;0.2580;0.5066;
205.2000;0.2556;0.5138;
205.5000;0.2572;0.5138;
205.8000;0.2556;0.5138;
206.1000;0.2556;0.5163;
206.4000;0.2532;0.5187;
206.7000;0.2564;0.5235;
207.0000;0.2564;0.5332;
207.3000;0.2564;0.5163;
207.6000;0.2572;0.5138;
207.9000;0.2548;0.5066;
208.2000;0.2556;0.5090;
208.5000;0.2580;0.5138;
208.8000;0.2629;0.5211;
209.1000;0.2564;0.4993;
209.4000;0.2548;0.4993;
209.7000;0.2580;0.5066;
210.0000;0.2556;0.4969;
210.3000;0.2548;0.4896;
210.6000;0.2556;0.4872;
210.9000;0.2515;0.4823;
211.2000;0.2548;0.4969;
211.5000;0.2564;0.4993;
211.8000;0.2532;0.4969;
212.1000;0.2556;0.5090;
212.4000;0.2507;0.4944;
212.7000;0.2572;0.5066;
213.0000;0.2507;0.4896;
213.3000;0.2556;0.4993;
213.6000;0.2580;0.5066;
213.9000;0.2678;0.5332;
214.2000;0.2605;0.5187;
214.5000;0.2580;0.5066;
214.8000;0.2572;0.5017;
215.1000;0.2548;0.4969;
215.4000;0.2548;0.4969;
215.7000;0.2548;0.5017;
216.0000;0.2605;0.5235;
216.3000;0.2556;0.5114;
216.6000;0.2605;0.5235;
216.9000;0.2572;0.5163;
217.2000;0.2572;0.5187;
217.5000;0.2564;0.5187;
217.8000;0.2597;0.5187;
218.1000;0.2556;0.5090;
218.4000;0.2580;0.5066;
218.7000;0.2556;0.5017;
219.0000;0.2523;0.4969;
219.3000;0.2548;0.5041;
219.6000;0.2548;0.4993;
219.9000;0.2540;0.4969;
220.2000;0.2564;0.4969;
220.5000;0.2540;0.4969;
220.8000;0.2548;0.4896;
221.1000;0.2572;0.4944;
221.4000;0.2564;0.4944;
221.7000;0.2548;0.4944;
222.0000;0.2572;0.5017;
222.3000;0.2556;0.5066;
222.6000;0.2572;0.5017;
222.9000;0.2564;0.4993;
223.2000;0.2564;0.4993;
223.5000;0.2564;0.5066;
223.8000;0.2556;0.5114;
224.1000;0.2564;0.5138;
224.4000;0.2564;0.5235;
224.7000;0.2532;0.5187;
225.0000;0.2564;0.5259;
225.3000;0.2564;0.5284;
225.6000;0.2564;0.5187;
225.9000;0.2548;0.5114;
226.2000;0.2556;0.5090;
226.5000;0.2572;0.5090;
226.8000;0.2548;0.4993;
227.1000;0.2556;0.4993;
227.4000;0.2572;0.5090;
227.7000;0.2572;0.5138;
228.0000;0.2556;0.5090;
228.3000;0.2572;0.5041;
228.6000;0.2572;0.5066;
228.9000;0.2564;0.4969;
229.2000;0.2475;0.4702;
229.5000;0.2556;0.5017;
229.8000;0.2564;0.5090;
230.1000;0.2564;0.5041;
230.4000;0.2548;0.5017;
230.7000;0.2523;0.5041;
231.0000;0.2556;0.5066;
231.3000;0.2564;0.5041;
231.6000;0.2540;0.5041;
231.9000;0.2556;0.5066;
232.2000;0.2572;0.5090;
232.5000;0.2572;0.5090;
232.8000;0.2556;0.5041;
233.1000;0.2597;0.5090;
233.4000;0.2548;0.4969;
233.7000;0.2548;0.4920;
234.0000;0.2564;0.5066;
234.3000;0.2548;0.5017;
234.6000;0.2548;0.5041;
234.9000;0.2556;0.5163;
235.2000;0.2548;0.5138;
235.5000;0.2564;0.5114;
235.8000;0.2580;0.5211;
236.1000;0.2629;0.5211;
236.4000;0.2540;0.4993;
236.7000;0.2572;0.5017;
237.0000;0.2564;0.5017;
237.3000;0.2564;0.5017;
237.6000;0.2564;0.5017;
237.9000;0.2540;0.4944;
238.2000;0.2564;0.4872;
238.5000;0.2564;0.4969;
238.8000;0.2572;0.5066;
239.1000;0.2572;0.5090;
239.4000;0.2548;0.4969;
239.7000;0.2499;0.4872;
240.0000;0.2564;0.5066;
240.3000;0.2564;0.5090;
240.6000;0.2532;0.4944;
240.9000;0.2556;0.5041;
241.2000;0.2564;0.5090;
241.5000;0.2556;0.5138;
241.8000;0.2556;0.5211;
242.1000;0.2556;0.5187;
242.4000;0.2564;0.5235;
242.7000;0.2621;0.5308;
243.0000;0.2556;0.5211;
243.3000;0.2629;0.5356;
243.6000;0.2613;0.5284;
243.9000;0.2564;0.5211;
244.2000;0.2572;0.5235;
244.5000;0.2556;0.5284;
244.8000;0.2572;0.5356;
245.1000;0.2515;0.5163;
245.4000;0.2589;0.5284;
245.7000;0.2564;0.5235;
246.0000;0.2572;0.5211;
246.3000;0.2564;0.5187;
246.6000;0.2572;0.5163;
246.9000;0.2572;0.5017;
247.2000;0.2548;0.4993;
247.5000;0.2564;0.4993;
247.8000;0.2572;0.4944;
248.1000;0.2564;0.4920;
248.4000;0.2556;0.4944;
248.7000;0.2556;0.4944;
249.0000;0.2556;0.4993;
249.3000;0.2556;0.4993;
249.6000;0.2564;0.5041;
249.9000;0.2540;0.4993;
250.2000;0.2556;0.4993;
250.5000;0.2540;0.5041;
250.8000;0.2540;0.5017;
251.1000;0.2572;0.5017;
251.4000;0.2564;0.4896;
251.7000;0.2548;0.4920;
252.0000;0.2540;0.4872;
252.3000;0.2548;0.4920;
252.6000;0.2580;0.4944;
252.9000;0.2556;0.4896;
253.2000;0.2572;0.4920;
253.5000;0.2556;0.4896;
253.8000;0.2556;0.4920;
254.1000;0.2670;0.5308;
254.4000;0.2556;0.5066;
254.7000;0.2540;0.5114;
255.0000;0.2564;0.5114;
255.3000;0.2540;0.5041;
255.6000;0.2540;0.4993;
255.9000;0.2556;0.5041;
256.2000;0.2523;0.4896;
256.5000;0.2556;0.4993;
256.8000;0.2580;0.4969;
257.1000;0.2556;0.4969;
257.4000;0.2548;0.5017;
257.7000;0.2564;0.5017;
258.0000;0.2564;0.5066;
258.3000;0.2564;0.5066;
258.6000;0.2572;0.5041;
258.9000;0.2605;0.5163;
259.2000;0.2523;0.4872;
259.5000;0.2483;0.4750;
259.8000;0.2564;0.4920;
260.1000;0.2523;0.4823;
260.4000;0.2621;0.5041;
260.7000;0.2532;0.4823;
261.0000;0.2548;0.4847;
261.3000;0.2548;0.4944;
261.6000;0.2572;0.4969;
261.9000;0.2556;0.4993;
262.2000;0.2572;0.5066;
262.5000;0.2426;0.4702;
262.8000;0.2564;0.5041;
263.1000;0.2564;0.5090;
263.4000;0.2564;0.5138;
263.7000;0.2556;0.5163;
264.0000;0.2556;0.5138;
264.3000;0.2556;0.5138;
264.6000;0.2556;0.5114;
264.9000;0.2572;0.5138;
265.2000;0.2548;0.5163;
265.5000;0.2564;0.5138;
265.8000;0.2556;0.5114;
266.1000;0.2564;0.5090;
266.4000;0.2564;0.4920;
266.7000;0.2597;0.5041;
267.0000;0.2564;0.4993;
267.3000;0.2548;0.4944;
267.6000;0.2540;0.4993;
267.9000;0.2548;0.5017;
268.2000;0.2532;0.5041;
268.5000;0.2597;0.5211;
268.8000;0.2556;0.5163;
269.1000;0.2556;0.5138;
269.4000;0.2507;0.4993;
269.7000;0.2572;0.5259;
270.0000;0.2556;0.5211;
270.3000;0.2540;0.5259;
270.6000;0.2556;0.5284;
270.9000;0.2540;0.5090;
271.2000;0.2540;0.5066;
271.5000;0.2548;0.5114;
271.8000;0.2580;0.5187;
272.1000;0.2564;0.5259;
272.4000;0.2564;0.5211;
272.7000;0.2589;0.5356;
273.0000;0.2556;0.5332;
273.3000;0.2548;0.5308;
273.6000;0.2564;0.5356;
273.9000;0.2556;0.5308;
274.2000;0.2564;0.5332;
274.5000;0.2564;0.5381;
274.8000;0.2523;0.5138;
275.1000;0.2548;0.5138;
275.4000;0.2580;0.5211;
275.7000;0.2564;0.5138;
276.0000;0.2572;0.5138;
276.3000;0.2572;0.5211;
276.6000;0.2556;0.5187;
276.9000;0.2556;0.5163;
277.2000;0.2556;0.5187;
277.5000;0.2540;0.5187;
277.8000;0.2548;0.5211;
278.1000;0.2564;0.5308;
278.4000;0.2540;0.5259;
278.7000;0.2532;0.5284;
279.0000;0.2564;0.5356;
279.3000;0.2548;0.5332;
279.6000;0.2564;0.5308;
279.9000;0.2548;0.5284;
280.2000;0.2564;0.5259;
280.5000;0.2556;0.5235;
280.8000;0.2548;0.5235;
281.1000;0.2548;0.5235;
281.4000;0.2548;0.5138;
281.7000;0.2540;0.5163;
282.0000;0.2556;0.5211;
282.3000;0.2556;0.5211;
282.6000;0.2540;0.5187;
282.9000;0.2540;0.5235;
283.2000;0.2556;0.5235;
283.5000;0.2597;0.5308;
283.8000;0.2572;0.5259;
284.1000;0.2548;0.5187;
284.4000;0.2564;0.5235;
284.7000;0.2564;0.5259;
285.0000;0.2556;0.5308;
285.3000;0.2540;0.5259;
285.6000;0.2523;0.5138;
285.9000;0.2589;0.5259;
286.2000;0.2540;0.5114;
286.5000;0.2556;0.5138;
286.8000;0.2540;0.5090;
287.1000;0.2572;0.5066;
287.4000;0.2556;0.5090;
287.7000;0.2540;0.5041;
288.0000;0.2540;0.5066;
288.3000;0.2556;0.5090;
288.6000;0.2556;0.5066;
288.9000;0.2491;0.4896;
289.2000;0.2556;0.5163;
289.5000;0.2523;0.5138;
289.8000;0.2572;0.5259;
290.1000;0.2540;0.5163;
290.4000;0.2540;0.5211;
290.7000;0.2556;0.5187;
291.0000;0.2540;0.5138;
291.3000;0.2580;0.5138;
291.6000;0.2564;0.5090;
291.9000;0.2540;0.5017;
292.2000;0.2564;0.5066;
292.5000;0.2556;0.5138;
292.8000;0.2540;0.5187;
293.1000;0.2564;0.5235;
293.4000;0.2507;0.5163;
293.7000;0.2572;0.5356;
294.0000;0.2540;0.5235;
294.3000;0.2499;0.5138;
294.6000;0.2532;0.5211;
294.9000;0.2556;0.5259;
295.2000;0.2556;0.5284;
295.5000;0.2572;0.5259;
295.8000;0.2556;0.5259;
296.1000;0.2564;0.5235;
296.4000;0.2540;0.5187;
296.7000;0.2556;0.5187;
297.0000;0.2556;0.5138;
297.3000;0.2556;0.5114;
297.6000;0.2556;0.4993;
297.9000;0.2556;0.5017;
298.2000;0.2589;0.5163;
298.5000;0.2556;0.5090;
298.8000;0.2548;0.5041;
299.1000;0.2556;0.5090;
299.4000;0.2540;0.5090;
299.7000;0.2540;0.5066;
300.0000;0.2540;0.5041;
300.3000;0.2523;0.5041;
300.6000;0.2532;0.5041;
300.9000;0.2572;0.5163;
301.2000;0.2654;0.5284;
301.5000;0.2580;0.5163;
301.8000;0.2540;0.5163;
302.1000;0.2458;0.4944;
302.4000;0.2556;0.5211;
302.7000;0.2556;0.5211;
303.0000;0.2580;0.5163;
303.3000;0.2548;0.5066;
303.6000;0.2548;0.4993;
303.9000;0.2572;0.4969;
304.2000;0.2556;0.4993;
304.5000;0.2564;0.5017;
304.8000;0.2556;0.4993;
305.1000;0.2572;0.5090;
305.4000;0.2458;0.4823;
305.7000;0.2597;0.5259;
306.0000;0.2556;0.5041;
306.3000;0.2532;0.4993;
306.6000;0.2540;0.5041;
306.9000;0.2564;0.5066;
307.2000;0.2572;0.5090;
307.5000;0.2597;0.5259;
307.8000;0.2442;0.4872;
308.1000;0.2580;0.5235;
308.4000;0.2556;0.5211;
308.7000;0.2515;0.5041;
309.0000;0.2556;0.5211;
309.3000;0.2580;0.5163;
309.6000;0.2572;0.5235;
309.9000;0.2523;0.5114;
310.2000;0.2572;0.5284;
310.5000;0.2556;0.5187;
310.8000;0.2540;0.5308;
311.1000;0.2556;0.5332;
311.4000;0.2556;0.5356;
311.7000;0.2580;0.5308;
312.0000;0.2556;0.5211;
312.3000;0.2507;0.5114;
312.6000;0.2662;0.5429;
312.9000;0.2548;0.5138;
313.2000;0.2556;0.5187;
313.5000;0.2556;0.5163;
313.8000;0.2572;0.5284;
314.1000;0.2589;0.5332;
314.4000;0.2548;0.5259;
314.7000;0.2540;0.5114;
315.0000;0.2540;0.5114;
315.3000;0.2548;0.5138;
315.6000;0.2556;0.5138;
315.9000;0.2540;0.5138;
316.2000;0.2548;0.5187;
316.5000;0.2564;0.5259;
316.8000;0.2589;0.5259;
317.1000;0.2556;0.5163;
317.4000;0.2556;0.5235;
317.7000;0.2564;0.5211;
318.0000;0.2580;0.5235;
318.3000;0.2572;0.5356;
318.6000;0.2540;0.5284;
318.9000;0.2572;0.5381;
319.2000;0.2564;0.5405;
319.5000;0.2548;0.5356;
319.8000;0.2564;0.5405;
320.1000;0.2564;0.5478;
320.4000;0.2564;0.5429;
320.7000;0.2556;0.5550;
321.0000;0.2564;0.5453;
321.3000;0.2548;0.5308;
321.6000;0.2540;0.5308;
321.9000;0.2564;0.5332;
322.2000;0.2548;0.5332;
322.5000;0.2548;0.5332;
322.8000;0.2532;0.5235;
323.1000;0.2572;0.5259;
323.4000;0.2548;0.5235;
323.7000;0.2556;0.5284;
324.0000;0.2540;0.5235;
324.3000;0.2580;0.5284;
324.6000;0.2556;0.5259;
324.9000;0.2556;0.5187;
325.2000;0.2540;0.5090;
325.5000;0.2556;0.5259;
325.8000;0.2572;0.5259;
326.1000;0.2564;0.5235;
326.4000;0.2507;0.5041;
326.7000;0.2686;0.5429;
327.0000;0.2548;0.5017;
327.3000;0.2589;0.5187;
327.6000;0.2564;0.5187;
327.9000;0.2523;0.4969;
328.2000;0.2515;0.4969;
328.5000;0.2548;0.5114;
328.8000;0.2589;0.5235;
329.1000;0.2670;0.5502;
329.4000;0.2540;0.5163;
329.7000;0.2532;0.5066;
330.0000;0.2556;0.5138;
330.3000;0.2556;0.5114;
330.6000;0.2564;0.5138;
330.9000;0.2564;0.5066;
331.2000;0.2564;0.5066;
331.5000;0.2605;0.5211;
331.8000;0.2556;0.5163;
332.1000;0.2540;0.5211;
332.4000;0.2450;0.4969;
332.7000;0.2548;0.5235;
333.0000;0.2532;0.5138;
333.3000;0.2540;0.5211;
333.6000;0.2540;0.5138;
333.9000;0.2556;0.5187;
334.2000;0.2548;0.5138;
334.5000;0.2564;0.5138;
334.8000;0.2564;0.5163;
335.1000;0.2564;0.5138;
335.4000;0.2548;0.5090;
335.7000;0.2556;0.5163;
336.0000;0.2556;0.5163;
336.3000;0.2556;0.5066;
336.6000;0.2564;0.5114;
336.9000;0.2564;0.5163;
337.2000;0.2597;0.5187;
337.5000;0.2548;0.5090;
337.8000;0.2523;0.5066;
338.1000;0.2556;0.5041;
338.4000;0.2540;0.5090;
338.7000;0.2556;0.5090;
339.0000;0.2548;0.5041;
339.3000;0.2548;0.4993;
339.6000;0.2548;0.4993;
339.9000;0.2564;0.4993;
340.2000;0.2548;0.4969;
340.5000;0.2548;0.4944;
340.8000;0.2548;0.5066;
341.1000;0.2556;0.5090;
341.4000;0.2548;0.5114;
341.7000;0.2556;0.5163;
342.0000;0.2564;0.5114;
342.3000;0.2564;0.5138;
342.6000;0.2605;0.5284;
342.9000;0.2540;0.5163;
343.2000;0.2572;0.5211;
343.5000;0.2548;0.5235;
343.8000;0.2491;0.5114;
344.1000;0.2548;0.5163;
344.4000;0.2548;0.5163;
344.7000;0.2540;0.5211;
345.0000;0.2572;0.5308;
345.3000;0.2548;0.5187;
345.6000;0.2556;0.5163;
345.9000;0.2564;0.5163;
346.2000;0.2556;0.5187;
346.5000;0.2548;0.5090;
346.8000;0.2507;0.5090;
347.1000;0.2564;0.5235;
347.4000;0.2548;0.5308;
347.7000;0.2523;0.5187;
348.0000;0.2580;0.5429;
348.3000;0.2540;0.5259;
348.6000;0.2548;0.5259;
348.9000;0.2637;0.5453;
349.2000;0.2540;0.5235;
349.5000;0.2540;0.5235;
349.8000;0.2564;0.5235;
350.1000;0.2540;0.5090;
350.4000;0.2532;0.5187;
350.7000;0.2548;0.5259;
351.0000;0.2572;0.5235;
351.3000;0.2540;0.5114;
351.6000;0.2556;0.5090;
351.9000;0.2540;0.5066;
352.2000;0.2548;0.5090;
352.5000;0.2540;0.5090;
352.8000;0.2548;0.4969;
353.1000;0.2499;0.4799;
353.4000;0.2532;0.4993;
353.7000;0.2523;0.4896;
354.0000;0.2548;0.4920;
354.3000;0.2540;0.5066;
354.6000;0.2548;0.5114;
354.9000;0.2540;0.5138;
355.2000;0.2475;0.4944;
355.5000;0.2548;0.5041;
355.8000;0.2572;0.5187;
356.1000;0.2556;0.5187;
356.4000;0.2556;0.5163;
356.7000;0.2532;0.5211;
357.0000;0.2556;0.5284;
357.3000;0.2580;0.5308;
357.6000;0.2694;0.5696;
357.9000;0.2556;0.5284;
358.2000;0.2532;0.5187;
358.5000;0.2523;0.5259;
358.8000;0.2532;0.5259;
359.1000;0.2523;0.5163;
359.4000;0.2540;0.5235;
359.7000;0.2532;0.5138;
360.0000;0.2548;0.5138;
360.3000;0.2540;0.5017;
360.6000;0.2548;0.5114;
360.9000;0.2515;0.5138;
361.2000;0.2548;0.5187;
361.5000;0.2548;0.5163;
361.8000;0.2548;0.5114;
362.1000;0.2426;0.4775;
362.4000;0.2564;0.5163;
362.7000;0.2564;0.5235;
363.0000;0.2556;0.5187;
363.3000;0.2556;0.5138;
363.6000;0.2548;0.5138;
363.9000;0.2572;0.5259;
364.2000;0.2556;0.5187;
364.5000;0.2532;0.5163;
364.8000;0.2621;0.5429;
365.1000;0.2556;0.5187;
365.4000;0.2580;0.5284;
365.7000;0.2540;0.5163;
366.0000;0.2556;0.5138;
366.3000;0.2564;0.5235;
366.6000;0.2532;0.5187;
366.9000;0.2556;0.5259;
367.2000;0.2548;0.5259;
367.5000;0.2556;0.5356;
367.8000;0.2548;0.5453;
368.1000;0.2540;0.5405;
368.4000;0.2540;0.5356;
368.7000;0.2491;0.5138;
369.0000;0.2540;0.5187;
369.3000;0.2483;0.4969;
369.6000;0.2540;0.5211;
369.9000;0.2532;0.5114;
370.2000;0.2475;0.4944;
370.5000;0.2548;0.5138;
370.8000;0.2532;0.5138;
371.1000;0.2621;0.5381;
371.4000;0.2556;0.5138;
371.7000;0.2532;0.5138;
372.0000;0.2556;0.5187;
372.3000;0.2532;0.5163;
372.6000;0.2572;0.5114;
372.9000;0.2572;0.5138;
373.2000;0.2564;0.5187;
373.5000;0.2540;0.5235;
373.8000;0.2556;0.5284;
374.1000;0.2532;0.5284;
374.4000;0.2540;0.5356;
374.7000;0.2556;0.5332;
375.0000;0.2532;0.5163;
375.3000;0.2548;0.5163;
375.6000;0.2532;0.5017;
375.9000;0.2580;0.5114;
376.2000;0.2556;0.5138;
376.5000;0.2507;0.5090;
376.8000;0.2556;0.5235;
377.1000;0.2540;0.5163;
377.4000;0.2540;0.5211;
377.7000;0.2572;0.5284;
378.0000;0.2572;0.5284;
378.3000;0.2548;0.5235;
378.6000;0.2556;0.5163;
378.9000;0.2548;0.5138;
379.2000;0.2401;0.4726;
379.5000;0.2556;0.5090;
379.8000;0.2540;0.5041;
380.1000;0.2548;0.5017;
380.4000;0.2540;0.5041;
380.7000;0.2523;0.5066;
381.0000;0.2532;0.5138;
381.3000;0.2540;0.5090;
381.6000;0.2556;0.5187;
381.9000;0.2540;0.5211;
382.2000;0.2532;0.5259;
382.5000;0.2589;0.5308;
382.8000;0.2564;0.5138;
383.1000;0.2548;0.5114;
383.4000;0.2556;0.5041;
383.7000;0.2548;0.5017;
384.0000;0.2564;0.5114;
384.3000;0.2491;0.4993;
384.6000;0.2556;0.5187;
384.9000;0.2548;0.5138;
385.2000;0.2532;0.5138;
385.5000;0.2540;0.5284;
385.8000;0.2507;0.5114;
386.1000;0.2564;0.5259;
386.4000;0.2540;0.5235;
386.7000;0.2540;0.5284;
387.0000;0.2540;0.5235;
387.3000;0.2556;0.5235;
387.6000;0.2564;0.5284;
387.9000;0.2580;0.5259;
388.2000;0.2564;0.5259;
388.5000;0.2548;0.5138;
388.8000;0.2532;0.5187;
389.1000;0.2564;0.5211;
389.4000;0.2483;0.4944;
389.7000;0.2556;0.5187;
390.0000;0.2507;0.5017;
390.3000;0.2532;0.5114;
390.6000;0.2564;0.5259;
390.9000;0.2564;0.5235;
391.2000;0.2540;0.5211;
391.5000;0.2556;0.5259;
391.8000;0.2540;0.5211;
392.1000;0.2548;0.5259;
392.4000;0.2548;0.5308;
392.7000;0.2515;0.5114;
393.0000;0.2548;0.5235;
393.3000;0.2597;0.5332;
393.6000;0.2548;0.5138;
393.9000;0.2523;0.5041;
394.2000;0.2532;0.5041;
394.5000;0.2556;0.5066;
394.8000;0.2564;0.5138;
395.1000;0.2564;0.5211;
395.4000;0.2532;0.5138;
395.7000;0.2564;0.5211;
396.0000;0.2556;0.5187;
396.3000;0.2548;0.5090;
396.6000;0.2556;0.5066;
396.9000;0.2564;0.5090;
397.2000;0.2556;0.5114;
397.5000;0.2564;0.5163;
397.8000;0.2540;0.5163;
398.1000;0.2556;0.5235;
398.4000;0.2548;0.5187;
398.7000;0.2548;0.5114;
399.0000;0.2564;0.5114;
399.3000;0.2556;0.5041;
399.6000;0.2589;0.5138;
399.9000;0.2523;0.4969;
400.2000;0.2540;0.5017;
400.5000;0.2580;0.5114;
400.8000;0.2532;0.5017;
401.1000;0.2491;0.4969;
401.4000;0.2515;0.5066;
401.7000;0.2556;0.5138;
402.0000;0.2540;0.5138;
402.3000;0.2548;0.5187;
402.6000;0.2564;0.5187;
402.9000;0.2556;0.5187;
403.2000;0.2564;0.5211;
403.5000;0.2540;0.5138;
403.8000;0.2564;0.5114;
404.1000;0.2613;0.5308;
404.4000;0.2548;0.5187;
404.7000;0.2548;0.5284;
405.0000;0.2532;0.5211;
405.3000;0.2548;0.5235;
405.6000;0.2523;0.5163;
405.9000;0.2548;0.5187;
406.2000;0.2540;0.5114;
406.5000;0.2540;0.5090;
406.8000;0.2540;0.5138;
407.1000;0.2540;0.5114;
407.4000;0.2548;0.5138;
407.7000;0.2605;0.5211;
408.0000;0.2540;0.5066;
408.3000;0.2556;0.5090;
408.6000;0.2532;0.5066;
408.9000;0.2556;0.5138;
409.2000;0.2540;0.5187;
409.5000;0.2532;0.5114;
409.8000;0.2572;0.5163;
410.1000;0.2540;0.5114;
410.4000;0.2540;0.5211;
410.7000;0.2499;0.5163;
411.0000;0.2548;0.5381;
411.3000;0.2556;0.5381;
411.6000;0.2548;0.5308;
411.9000;0.2556;0.5308;
412.2000;0.2540;0.5284;
412.5000;0.2564;0.5405;
412.8000;0.2540;0.5332;
413.1000;0.2548;0.5284;
413.4000;0.2556;0.5308;
413.7000;0.2556;0.5259;
414.0000;0.2450;0.5041;
414.3000;0.2532;0.5259;
414.6000;0.2499;0.5066;
414.9000;0.2572;0.5138;
415.2000;0.2532;0.4993;
415.5000;0.2540;0.5017;
415.8000;0.2491;0.4847;
416.1000;0.2564;0.5017;
416.4000;0.2548;0.4993;
416.7000;0.2523;0.4969;
417.0000;0.2483;0.4896;
417.3000;0.2532;0.5090;
417.6000;0.2548;0.5163;
417.9000;0.2564;0.5114;
418.2000;0.2556;0.5138;
418.5000;0.2556;0.5211;
418.8000;0.2523;0.5138;
419.1000;0.2540;0.5138;
419.4000;0.2548;0.5163;
419.7000;0.2507;0.5066;
420.0000;0.2499;0.4944;
420.3000;0.2507;0.4993;
420.6000;0.2548;0.5138;
420.9000;0.2548;0.5138;
421.2000;0.2654;0.5478;
421.5000;0.2564;0.5235;
421.8000;0.2515;0.5138;
422.1000;0.2556;0.5308;
422.4000;0.2621;0.5453;
422.7000;0.2532;0.5163;
423.0000;0.2605;0.5235;
423.3000;0.2556;0.5114;
423.6000;0.2572;0.5211;
423.9000;0.2523;0.5114;
424.2000;0.2483;0.5017;
424.5000;0.2556;0.5235;
424.8000;0.2523;0.5308;
425.1000;0.2556;0.5332;
425.4000;0.2548;0.5356;
425.7000;0.2548;0.5308;
426.0000;0.2532;0.5235;
426.3000;0.2548;0.5235;
426.6000;0.2442;0.4823;
426.9000;0.2556;0.5163;
427.2000;0.2548;0.5163;
427.5000;0.2523;0.5211;
427.8000;0.2540;0.5284;
428.1000;0.2556;0.5259;
428.4000;0.2556;0.5163;
428.7000;0.2507;0.4993;
429.0000;0.2540;0.5041;
429.3000;0.2580;0.5163;
429.6000;0.2499;0.4969;
429.9000;0.2548;0.5138;
430.2000;0.2572;0.5187;
430.5000;0.2548;0.5114;
430.8000;0.2548;0.5114;
431.1000;0.2548;0.5163;
431.4000;0.2540;0.5163;
431.7000;0.2475;0.5017;
432.0000;0.2548;0.5259;
432.3000;0.2548;0.5284;
432.6000;0.2540;0.5284;
432.9000;0.2548;0.5235;
433.2000;0.2564;0.5163;
433.5000;0.2540;0.5138;
433.8000;0.2548;0.5138;
434.1000;0.2564;0.5163;
434.4000;0.2564;0.5163;
434.7000;0.2556;0.5187;
435.0000;0.2532;0.5163;
435.3000;0.2564;0.5235;
435.6000;0.2540;0.5259;
435.9000;0.2556;0.5259;
436.2000;0.2548;0.5259;
436.5000;0.2523;0.5163;
436.8000;0.2540;0.5235;
437.1000;0.2572;0.5235;
437.4000;0.2556;0.5187;
437.7000;0.2523;0.5187;
438.0000;0.2499;0.5041;
438.3000;0.2556;0.5187;
438.6000;0.2548;0.5066;
438.9000;0.2540;0.5017;
439.2000;0.2556;0.5041;
439.5000;0.2564;0.5041;
439.8000;0.2589;0.5187;
440.1000;0.2556;0.5138;
440.4000;0.2597;0.5284;
440.7000;0.2540;0.5187;
441.0000;0.2556;0.5187;
441.3000;0.2548;0.5235;
441.6000;0.2548;0.5235;
441.9000;0.2532;0.5090;
442.2000;0.2548;0.5138;
442.5000;0.2556;0.5114;
442.8000;0.2548;0.5138;
443.1000;0.2556;0.5066;
443.4000;0.2556;0.5114;
443.7000;0.2572;0.5187;
444.0000;0.2556;0.5138;
444.3000;0.2580;0.5284;
444.6000;0.2572;0.5235;
444.9000;0.2646;0.5453;
445.2000;0.2548;0.5259;
445.5000;0.2540;0.5259;
445.8000;0.2475;0.5163;
446.1000;0.2540;0.5235;
446.4000;0.2491;0.5114;
446.7000;0.2540;0.5090;
447.0000;0.2548;0.5138;
447.3000;0.2564;0.5138;
447.6000;0.2507;0.5114;
447.9000;0.2540;0.5163;
448.2000;0.2532;0.5090;
448.5000;0.2540;0.5114;
448.8000;0.2556;0.5163;
449.1000;0.2556;0.5187;
449.4000;0.2556;0.5211;
449.7000;0.2532;0.5163;
450.0000;0.2540;0.5138;
450.3000;0.2540;0.5090;
450.6000;0.2621;0.5259;
450.9000;0.2548;0.5066;
451.2000;0.2556;0.5066;
451.5000;0.2556;0.5066;
451.8000;0.2556;0.5017;
452.1000;0.2564;0.5066;
452.4000;0.2556;0.5114;
452.7000;0.2540;0.5041;
453.0000;0.2483;0.4993;
453.3000;0.2556;0.5187;
453.6000;0.2556;0.5163;
453.9000;0.2548;0.5163;
454.2000;0.2556;0.5163;
454.5000;0.2515;0.5090;
454.8000;0.2580;0.5163;
455.1000;0.2564;0.5114;
455.4000;0.2556;0.5138;
455.7000;0.2515;0.5017;
456.0000;0.2548;0.5211;
456.3000;0.2532;0.5187;
456.6000;0.2540;0.5187;
456.9000;0.2580;0.5163;
457.2000;0.2556;0.5090;
457.5000;0.2540;0.5090;
457.8000;0.2532;0.5114;
458.1000;0.2540;0.5163;
458.4000;0.2589;0.5163;
458.7000;0.2564;0.5041;
459.0000;0.2621;0.5138;
459.3000;0.2621;0.5187;
459.6000;0.2556;0.5041;
459.9000;0.2613;0.5211;
460.2000;0.2564;0.5114;
460.5000;0.2540;0.5041;
460.8000;0.2475;0.4823;
461.1000;0.2564;0.5114;
461.4000;0.2548;0.5090;
461.7000;0.2540;0.5066;
462.0000;0.2491;0.4944;
462.3000;0.2540;0.5066;
462.6000;0.2564;0.4993;
462.9000;0.2548;0.5041;
463.2000;0.2548;0.5017;
463.5000;0.2548;0.5090;
463.8000;0.2540;0.5090;
464.1000;0.2540;0.5090;
464.4000;0.2548;0.5163;
464.7000;0.2556;0.5308;
465.0000;0.2564;0.5356;
465.3000;0.2523;0.5211;
465.6000;0.2507;0.5114;
465.9000;0.2540;0.5138;
466.2000;0.2540;0.5138;
466.5000;0.2540;0.5090;
466.8000;0.2548;0.5114;
467.1000;0.2523;0.5066;
467.4000;0.2556;0.5211;
467.7000;0.2580;0.5332;
468.0000;0.2540;0.5259;
468.3000;0.2540;0.5284;
468.6000;0.2532;0.5235;
468.9000;0.2523;0.5187;
469.2000;0.2540;0.5211;
469.5000;0.2572;0.5187;
469.8000;0.2556;0.5138;
470.1000;0.2483;0.4920;
470.4000;0.2548;0.5041;
470.7000;0.2556;0.5090;
471.0000;0.2556;0.5211;
471.3000;0.2564;0.5187;
471.6000;0.2532;0.5163;
471.9000;0.2556;0.5235;
472.2000;0.2540;0.5211;
472.5000;0.2540;0.5138;
472.8000;0.2556;0.5138;
473.1000;0.2499;0.4969;
473.4000;0.2540;0.5114;
473.7000;0.2532;0.5066;
474.0000;0.2589;0.5284;
474.3000;0.2548;0.5187;
474.6000;0.2507;0.5163;
474.9000;0.2540;0.5381;
475.2000;0.2540;0.5356;
475.5000;0.2532;0.5381;
475.8000;0.2556;0.5332;
476.1000;0.2532;0.5284;
476.4000;0.2572;0.5332;
476.7000;0.2597;0.5429;
477.0000;0.2548;0.5235;
477.3000;0.2540;0.5187;
477.6000;0.2564;0.5187;
477.9000;0.2532;0.5114;
478.2000;0.2540;0.5163;
478.5000;0.2548;0.5211;
478.8000;0.2540;0.5163;
479.1000;0.2556;0.5187;
479.4000;0.2532;0.5211;
479.7000;0.2426;0.4944;
480.0000;0.2556;0.5259;
480.3000;0.2523;0.5187;
480.6000;0.2589;0.5381;
480.9000;0.2532;0.5211;
481.2000;0.2548;0.5308;
481.5000;0.2556;0.5429;
481.8000;0.2499;0.5284;
482.1000;0.2540;0.5478;
482.4000;0.2532;0.5478;
482.7000;0.2532;0.5478;
483.0000;0.2613;0.5671;
483.3000;0.2564;0.5599;
483.6000;0.2548;0.5575;
483.9000;0.2548;0.5550;
484.2000;0.2589;0.5623;
484.5000;0.2540;0.5453;
484.8000;0.2540;0.5429;
485.1000;0.2548;0.5381;
485.4000;0.2540;0.5332;
485.7000;0.2507;0.5284;
486.0000;0.2548;0.5381;
486.3000;0.2499;0.5259;
486.6000;0.2532;0.5332;
486.9000;0.2556;0.5381;
487.2000;0.2523;0.5332;
487.5000;0.2540;0.5284;
487.8000;0.2466;0.4969;
488.1000;0.2548;0.5163;
488.4000;0.2548;0.5187;
488.7000;0.2523;0.5138;
489.0000;0.2564;0.5114;
489.3000;0.2621;0.5211;
489.6000;0.2548;0.4993;
489.9000;0.2556;0.5041;
490.2000;0.2499;0.4847;
490.5000;0.2548;0.4872;
490.8000;0.2556;0.4920;
491.1000;0.2499;0.4775;
491.4000;0.2540;0.4944;
491.7000;0.2532;0.4969;
492.0000;0.2613;0.5138;
492.3000;0.2540;0.5041;
492.6000;0.2548;0.5066;
492.9000;0.2523;0.4993;
493.2000;0.2572;0.5041;
493.5000;0.2548;0.5090;
493.8000;0.2564;0.5066;
494.1000;0.2564;0.5066;
494.4000;0.2556;0.5066;
494.7000;0.2548;0.5017;
495.0000;0.2540;0.4944;
495.3000;0.2532;0.5066;
495.6000;0.2491;0.4969;
495.9000;0.2556;0.5090;
496.2000;0.2556;0.5138;
496.5000;0.2548;0.5114;
496.8000;0.2540;0.5090;
497.1000;0.2507;0.5017;
497.4000;0.2580;0.5187;
497.7000;0.2540;0.5138;
498.0000;0.2548;0.5163;
498.3000;0.2548;0.5163;
498.6000;0.2662;0.5429;
498.9000;0.2548;0.5041;
499.2000;0.2532;0.5114;
499.5000;0.2523;0.5235;
499.8000;0.2572;0.5332;
500.1000;0.2548;0.5356;
500.4000;0.2540;0.5308;
500.7000;0.2532;0.5308;
501.0000;0.2621;0.5453;
501.3000;0.2540;0.5187;
501.6000;0.2540;0.5163;
501.9000;0.2548;0.5138;
502.2000;0.2540;0.5066;
502.5000;0.2572;0.5138;
502.8000;0.2556;0.5017;
503.1000;0.2548;0.4993;
503.4000;0.2556;0.5041;
503.7000;0.2605;0.5211;
504.0000;0.2540;0.5041;
504.3000;0.2548;0.5066;
504.6000;0.2572;0.5163;
504.9000;0.2548;0.5211;
505.2000;0.2548;0.5187;
505.5000;0.2548;0.5138;
505.8000;0.2572;0.5138;
506.1000;0.2564;0.5187;
506.4000;0.2466;0.4920;
506.7000;0.2540;0.5187;
507.0000;0.2507;0.5138;
507.3000;0.2556;0.5235;
507.6000;0.2540;0.5235;
507.9000;0.2540;0.5259;
508.2000;0.2548;0.5308;
508.5000;0.2556;0.5284;
508.8000;0.2556;0.5332;
509.1000;0.2475;0.5114;
509.4000;0.2532;0.5187;
509.7000;0.2532;0.5138;
510.0000;0.2548;0.5259;
510.3000;0.2548;0.5284;
510.6000;0.2556;0.5284;
510.9000;0.2556;0.5259;
511.2000;0.2564;0.5332;
511.5000;0.2686;0.5647;
511.8000;0.2572;0.5308;
512.1000;0.2556;0.5308;
512.4000;0.2572;0.5284;
512.7000;0.2532;0.5163;
513.0000;0.2540;0.5163;
513.3000;0.2540;0.5090;
513.6000;0.2540;0.5041;
513.9000;0.2597;0.5259;
514.2000;0.2540;0.5114;
514.5000;0.2540;0.5114;
514.8000;0.2523;0.5090;
515.1000;0.2556;0.5259;
515.4000;0.2556;0.5259;
515.7000;0.2523;0.5211;
516.0000;0.2548;0.5308;
516.3000;0.2540;0.5284;
516.6000;0.2540;0.5259;
516.9000;0.2548;0.5211;
517.2000;0.2532;0.5187;
517.5000;0.2523;0.5187;
517.8000;0.2532;0.5114;
518.1000;0.2532;0.5041;
518.4000;0.2532;0.5017;
518.7000;0.2540;0.5163;
519.0000;0.2548;0.5211;
519.3000;0.2499;0.5114;
519.6000;0.2548;0.5211;
519.9000;0.2556;0.5332;
520.2000;0.2556;0.5235;
520.5000;0.2637;0.5332;
520.8000;0.2564;0.5187;
521.1000;0.2580;0.5211;
521.4000;0.2564;0.5163;
521.7000;0.2548;0.5138;
522.0000;0.2556;0.5163;
522.3000;0.2564;0.5163;
522.6000;0.2572;0.5163;
522.9000;0.2532;0.4993;
523.2000;0.2589;0.5187;
523.5000;0.2466;0.4847;
523.8000;0.2548;0.5138;
524.1000;0.2532;0.5114;
524.4000;0.2548;0.5066;
524.7000;0.2548;0.5041;
525.0000;0.2556;0.5114;
525.3000;0.2556;0.5114;
525.6000;0.2556;0.5138;
525.9000;0.2540;0.5066;
526.2000;0.2564;0.5066;
526.5000;0.2532;0.5017;
526.8000;0.2515;0.4920;
527.1000;0.2532;0.4993;
527.4000;0.2540;0.5041;
527.7000;0.2532;0.5041;
528.0000;0.2523;0.5041;
528.3000;0.2523;0.5041;
528.6000;0.2540;0.5090;
528.9000;0.2540;0.5090;
529.2000;0.2540;0.5090;
529.5000;0.2475;0.4969;
529.8000;0.2548;0.5017;
530.1000;0.2564;0.5041;
530.4000;0.2466;0.4896;
530.7000;0.2556;0.5187;
531.0000;0.2621;0.5332;
531.3000;0.2556;0.5090;
531.6000;0.2564;0.4993;
531.9000;0.2532;0.4896;
532.2000;0.2532;0.4920;
532.5000;0.2499;0.4920;
532.8000;0.2540;0.4896;
533.1000;0.2532;0.4896;
533.4000;0.2613;0.5114;
533.7000;0.2523;0.4920;
534.0000;0.2548;0.4969;
534.3000;0.2589;0.5066;
534.6000;0.2556;0.4969;
534.9000;0.2613;0.5041;
535.2000;0.2548;0.4823;
535.5000;0.2540;0.4799;
535.8000;0.2589;0.4969;
536.1000;0.2548;0.4872;
536.4000;0.2499;0.4775;
536.7000;0.2466;0.4799;
537.0000;0.2540;0.4944;
537.3000;0.2491;0.4823;
537.6000;0.2572;0.5041;
537.9000;0.2564;0.5017;
538.2000;0.2556;0.5017;
538.5000;0.2532;0.4993;
538.8000;0.2532;0.4944;
539.1000;0.2548;0.4896;
539.4000;0.2564;0.5017;
539.7000;0.2580;0.5090;
540.0000;0.2540;0.5066;
540.3000;0.2556;0.5235;
540.6000;0.2564;0.5163;
540.9000;0.2597;0.5211;
541.2000;0.2540;0.5017;
541.5000;0.2548;0.4969;
541.8000;0.2548;0.5017;
542.1000;0.2548;0.4993;
542.4000;0.2540;0.4872;
542.7000;0.2548;0.4896;
543.0000;0.2515;0.4944;
543.3000;0.2532;0.4944;
543.6000;0.2548;0.4993;
543.9000;0.2532;0.5017;
544.2000;0.2564;0.5138;
544.5000;0.2458;0.4896;
544.8000;0.2548;0.5066;
545.1000;0.2540;0.4969;
545.4000;0.2556;0.5066;
545.7000;0.2540;0.5041;
546.0000;0.2540;0.5041;
546.3000;0.2540;0.5066;
546.6000;0.2548;0.5041;
546.9000;0.2548;0.5090;
547.2000;0.2548;0.5138;
547.5000;0.2548;0.5211;
547.8000;0.2556;0.5284;
548.1000;0.2564;0.5308;
548.4000;0.2540;0.5235;
548.7000;0.2597;0.5332;
549.0000;0.2540;0.5211;
549.3000;0.2540;0.5114;
549.6000;0.2548;0.5138;
549.9000;0.2532;0.5114;
550.2000;0.2548;0.5090;
550.5000;0.2523;0.5090;
550.8000;0.2564;0.5235;
551.1000;0.2564;0.5284;
551.4000;0.2572;0.5356;
551.7000;0.2572;0.5332;
552.0000;0.2564;0.5259;
552.3000;0.2540;0.5066;
552.6000;0.2556;0.5114;
552.9000;0.2572;0.5138;
553.2000;0.2572;0.5114;
553.5000;0.2548;0.5114;
553.8000;0.2475;0.4823;
554.1000;0.2532;0.5017;
554.4000;0.2548;0.5114;
554.7000;0.2491;0.5041;
555.0000;0.2548;0.5163;
555.3000;0.2540;0.5187;
555.6000;0.2532;0.5163;
555.9000;0.2548;0.5163;
556.2000;0.2540;0.5163;
556.5000;0.2523;0.5187;
556.8000;0.2540;0.5259;
557.1000;0.2556;0.5235;
557.4000;0.2572;0.5308;
557.7000;0.2564;0.5259;
558.0000;0.2564;0.5235;
558.3000;0.2597;0.5284;
558.6000;0.2556;0.5163;
558.9000;0.2532;0.5114;
559.2000;0.2572;0.5138;
559.5000;0.2532;0.5114;
559.8000;0.2548;0.5114;
560.1000;0.2556;0.5138;
560.4000;0.2580;0.5235;
560.7000;0.2605;0.5308;
561.0000;0.2556;0.5211;
561.3000;0.2597;0.5381;
561.6000;0.2556;0.5259;
561.9000;0.2523;0.5211;
562.2000;0.2613;0.5405;
562.5000;0.2556;0.5259;
562.8000;0.2532;0.5187;
563.1000;0.2532;0.5259;
563.4000;0.2523;0.5235;
563.7000;0.2540;0.5187;
564.0000;0.2548;0.5138;
564.3000;0.2540;0.5211;
564.6000;0.2548;0.5211;
564.9000;0.2540;0.5235;
565.2000;0.2523;0.5235;
565.5000;0.2540;0.5187;
565.8000;0.2540;0.5187;
566.1000;0.2532;0.5090;
566.4000;0.2523;0.5066;
566.7000;0.2523;0.5163;
567.0000;0.2548;0.5211;
567.3000;0.2548;0.5211;
567.6000;0.2540;0.5187;
567.9000;0.2556;0.5235;
568.2000;0.2548;0.5211;
568.5000;0.2548;0.5163;
568.8000;0.2556;0.5090;
569.1000;0.2540;0.4993;
569.4000;0.2556;0.5017;
569.7000;0.2483;0.4969;
570.0000;0.2540;0.5090;
570.3000;0.2572;0.5163;
570.6000;0.2523;0.5090;
570.9000;0.2564;0.5163;
571.2000;0.2540;0.5138;
571.5000;0.2540;0.5066;
571.8000;0.2548;0.5163;
572.1000;0.2540;0.5187;
572.4000;0.2548;0.5284;
572.7000;0.2548;0.5187;
573.0000;0.2548;0.5259;
573.3000;0.2556;0.5235;
573.6000;0.2515;0.5163;
573.9000;0.2483;0.5090;
574.2000;0.2540;0.5211;
574.5000;0.2556;0.5187;
574.8000;0.2507;0.5041;
575.1000;0.2540;0.5163;
575.4000;0.2540;0.5138;
575.7000;0.2540;0.5163;
576.0000;0.2523;0.5090;
576.3000;0.2532;0.5017;
576.6000;0.2532;0.5041;
576.9000;0.2491;0.4969;
577.2000;0.2556;0.5187;
577.5000;0.2499;0.4969;
577.8000;0.2409;0.4750;
578.1000;0.2499;0.4944;
578.4000;0.2523;0.4993;
578.7000;0.2556;0.5138;
579.0000;0.2556;0.5114;
579.3000;0.2540;0.5017;
579.6000;0.2507;0.5017;
579.9000;0.2475;0.4993;
580.2000;0.2532;0.5114;
580.5000;0.2540;0.5114;
580.8000;0.2548;0.5090;
581.1000;0.2540;0.5138;
581.4000;0.2548;0.5163;
581.7000;0.2540;0.5163;
582.0000;0.2548;0.5114;
582.3000;0.2564;0.5138;
582.6000;0.2548;0.5138;
582.9000;0.2548;0.5163;
583.2000;0.2548;0.5163;
583.5000;0.2556;0.5235;
583.8000;0.2556;0.5163;
584.1000;0.2556;0.5163;
584.4000;0.2548;0.5187;
584.7000;0.2556;0.5187;
585.0000;0.2515;0.5090;
585.3000;0.2532;0.5066;
585.6000;0.2556;0.5114;
585.9000;0.2507;0.5041;
586.2000;0.2556;0.5090;
586.5000;0.2564;0.5090;
586.8000;0.2523;0.4969;
587.1000;0.2589;0.5090;
587.4000;0.2548;0.4969;
587.7000;0.2556;0.5017;
588.0000;0.2475;0.4872;
588.3000;0.2556;0.5041;
588.6000;0.2564;0.5017;
588.9000;0.2564;0.5017;
589.2000;0.2540;0.5041;
589.5000;0.2491;0.4920;
589.8000;0.2540;0.5090;
590.1000;0.2515;0.5090;
590.4000;0.2540;0.5090;
590.7000;0.2564;0.5138;
591.0000;0.2540;0.5114;
591.3000;0.2556;0.5187;
591.6000;0.2532;0.5235;
591.9000;0.2540;0.5284;
592.2000;0.2515;0.5187;
592.5000;0.2580;0.5284;
592.8000;0.2564;0.5259;
593.1000;0.2548;0.5284;
593.4000;0.2532;0.5114;
593.7000;0.2466;0.4896;
594.0000;0.2540;0.5138;
594.3000;0.2540;0.5138;
594.6000;0.2532;0.5138;
594.9000;0.2532;0.5163;
595.2000;0.2548;0.5235;
595.5000;0.2597;0.5332;
595.8000;0.2556;0.5163;
596.1000;0.2532;0.5090;
596.4000;0.2564;0.5114;
596.7000;0.2564;0.5138;
597.0000;0.2532;0.5090;
597.3000;0.2564;0.5211;
597.6000;0.2572;0.5235;
597.9000;0.2540;0.5163;
598.2000;0.2556;0.5163;
598.5000;0.2556;0.5041;
598.8000;0.2532;0.4944;
599.1000;0.2564;0.5066;
599.4000;0.2548;0.5090;
599.7000;0.2548;0.4993;
600.0000;0.2483;0.4847;
600.3000;0.2458;0.4775;
600.6000;0.2548;0.4969;
600.9000;0.2491;0.4799;
601.2000;0.2540;0.4750;
601.5000;0.2548;0.4581;
601.8000;0.2532;0.4532;
602.1000;0.2605;0.4605;
602.4000;0.2515;0.4266;
602.7000;0.2523;0.4145;
603.0000;0.2532;0.3975;
603.3000;0.2532;0.3975;
603.6000;0.2491;0.3805;
603.9000;0.2507;0.3708;
604.2000;0.2507;0.3660;
604.5000;0.2507;0.3636;
604.8000;0.2466;0.3466;
605.1000;0.2491;0.3563;
605.4000;0.2491;0.3417;
605.7000;0.2491;0.3442;
606.0000;0.2458;0.3345;
606.3000;0.2475;0.3345;
606.6000;0.2475;0.3369;
606.9000;0.2466;0.3369;
607.2000;0.2458;0.3417;
607.5000;0.2475;0.3442;
607.8000;0.2483;0.3369;
608.1000;0.2483;0.3272;
608.4000;0.2475;0.3151;
608.7000;0.2491;0.3199;
609.0000;0.2466;0.3224;
609.3000;0.2475;0.3102;
609.6000;0.2442;0.3078;
609.9000;0.2458;0.3127;
610.2000;0.2458;0.3175;
610.5000;0.2475;0.3199;
610.8000;0.2466;0.3102;
611.1000;0.2336;0.2763;
611.4000;0.2458;0.3078;
611.7000;0.2401;0.2763;
612.0000;0.2466;0.3005;
612.3000;0.2466;0.3030;
612.6000;0.2515;0.3175;
612.9000;0.2458;0.3005;
613.2000;0.2532;0.3224;
613.5000;0.2434;0.2981;
613.8000;0.2458;0.3030;
614.1000;0.2458;0.2981;
614.4000;0.2450;0.2884;
614.7000;0.2466;0.2957;
615.0000;0.2426;0.2860;
615.3000;0.2458;0.2860;
615.6000;0.2483;0.2884;
615.9000;0.2352;0.2593;
616.2000;0.2466;0.2860;
616.5000;0.2507;0.2933;
616.8000;0.2434;0.2836;
617.1000;0.2409;0.2860;
617.4000;0.2458;0.2957;
617.7000;0.2458;0.2908;
618.0000;0.2442;0.2884;
618.3000;0.2466;0.2957;
618.6000;0.2466;0.2933;
618.9000;0.2426;0.2860;
619.2000;0.2458;0.3054;
619.5000;0.2458;0.2981;
619.8000;0.2352;0.2618;
620.1000;0.2450;0.2787;
620.4000;0.2450;0.2763;
620.7000;0.2458;0.2836;
621.0000;0.2458;0.2860;
621.3000;0.2442;0.2812;
621.6000;0.2442;0.2860;
621.9000;0.2450;0.2860;
622.2000;0.2450;0.2957;
622.5000;0.2466;0.2957;
622.8000;0.2458;0.3030;
623.1000;0.2548;0.3369;
623.4000;0.2458;0.3078;
623.7000;0.2450;0.3005;
624.0000;0.2426;0.2957;
624.3000;0.2361;0.2715;
624.6000;0.2450;0.2884;
624.9000;0.2442;0.2836;
625.2000;0.2450;0.2933;
625.5000;0.2475;0.3054;
625.8000;0.2458;0.3054;
626.1000;0.2458;0.3030;
626.4000;0.2483;0.3175;
626.7000;0.2434;0.3078;
627.0000;0.2483;0.3199;
627.3000;0.2466;0.3175;
627.6000;0.2442;0.3078;
627.9000;0.2426;0.2981;
628.2000;0.2475;0.2981;
628.5000;0.2475;0.2957;
628.8000;0.2499;0.2933;
629.1000;0.2466;0.2812;
629.4000;0.2466;0.2763;
629.7000;0.2515;0.2957;
630.0000;0.2450;0.2787;
630.3000;0.2458;0.2763;
630.6000;0.2434;0.2690;
630.9000;0.2589;0.3127;
631.2000;0.2475;0.2812;
631.5000;0.2491;0.2812;
631.8000;0.2475;0.2812;
632.1000;0.2450;0.2739;
632.4000;0.2475;0.2787;
632.7000;0.2548;0.3078;
633.0000;0.2434;0.2812;
633.3000;0.2466;0.2933;
633.6000;0.2475;0.2957;
633.9000;0.2442;0.2981;
634.2000;0.2377;0.2666;
634.5000;0.2458;0.2812;
634.8000;0.2475;0.2836;
635.1000;0.2442;0.2739;
635.4000;0.2426;0.2666;
635.7000;0.2491;0.2884;
636.0000;0.2475;0.2836;
636.3000;0.2483;0.2884;
636.6000;0.2450;0.2812;
636.9000;0.2458;0.2787;
637.2000;0.2458;0.2787;
637.5000;0.2483;0.2812;
637.8000;0.2475;0.2763;
638.1000;0.2442;0.2739;
638.4000;0.2548;0.2981;
638.7000;0.2475;0.2715;
639.0000;0.2475;0.2763;
639.3000;0.2458;0.2739;
639.6000;0.2475;0.2836;
639.9000;0.2491;0.2884;
640.2000;0.2458;0.2860;
640.5000;0.2466;0.2836;
640.8000;0.2475;0.2860;
641.1000;0.2450;0.2787;
641.4000;0.2458;0.2812;
641.7000;0.2401;0.2715;
642.0000;0.2458;0.2812;
642.3000;0.2475;0.2933;
642.6000;0.2483;0.2933;
642.9000;0.2450;0.2908;
643.2000;0.2475;0.3054;
643.5000;0.2491;0.3127;
643.8000;0.2483;0.3151;
644.1000;0.2434;0.3005;
644.4000;0.2442;0.2957;
644.7000;0.2466;0.2981;
645.0000;0.2483;0.3005;
645.3000;0.2515;0.3151;
645.6000;0.2418;0.2860;
645.9000;0.2475;0.3102;
646.2000;0.2426;0.2957;
646.5000;0.2475;0.3030;
646.8000;0.2426;0.2933;
647.1000;0.2458;0.2908;
647.4000;0.2466;0.2836;
647.7000;0.2458;0.2812;
648.0000;0.2458;0.2787;
648.3000;0.2499;0.2884;
648.6000;0.2466;0.2836;
648.9000;0.2393;0.2642;
649.2000;0.2442;0.2836;
649.5000;0.2450;0.2884;
649.8000;0.2434;0.2860;
650.1000;0.2458;0.2908;
650.4000;0.2458;0.3005;
650.7000;0.2466;0.3127;
651.0000;0.2442;0.3030;
651.3000;0.2466;0.3102;
651.6000;0.2450;0.3102;
651.9000;0.2426;0.2981;
652.2000;0.2450;0.3127;
652.5000;0.2450;0.3054;
652.8000;0.2426;0.2884;
653.1000;0.2442;0.2957;
653.4000;0.2466;0.3005;
653.7000;0.2418;0.2908;
654.0000;0.2450;0.2981;
654.3000;0.2450;0.3054;
654.6000;0.2458;0.3054;
654.9000;0.2499;0.3030;
655.2000;0.2458;0.2884;
655.5000;0.2499;0.2957;
655.8000;0.2426;0.2860;
656.1000;0.2426;0.2908;
656.4000;0.2466;0.3005;
656.7000;0.2426;0.2836;
657.0000;0.2466;0.2981;
657.3000;0.2393;0.2739;
657.6000;0.2466;0.3005;
657.9000;0.2458;0.3078;
658.2000;0.2458;0.3102;
658.5000;0.2450;0.3030;
658.8000;0.2466;0.3030;
659.1000;0.2466;0.3030;
659.4000;0.2458;0.3102;
659.7000;0.2466;0.3078;
660.0000;0.2450;0.3054;
660.3000;0.2458;0.3054;
660.6000;0.2434;0.3054;
660.9000;0.2458;0.3030;
661.2000;0.2426;0.2908;
661.5000;0.2475;0.2957;
661.8000;0.2491;0.2981;
662.1000;0.2450;0.2739;
662.4000;0.2483;0.2787;
662.7000;0.2426;0.2690;
663.0000;0.2466;0.2860;
663.3000;0.2442;0.2763;
663.6000;0.2458;0.2836;
663.9000;0.2507;0.2981;
664.2000;0.2466;0.2957;
664.5000;0.2475;0.3078;
664.8000;0.2466;0.3127;
665.1000;0.2458;0.3054;
665.4000;0.2466;0.3078;
665.7000;0.2466;0.3005;
666.0000;0.2466;0.3005;
666.3000;0.2458;0.2981;
666.6000;0.2499;0.3127;
666.9000;0.2458;0.3005;
667.2000;0.2377;0.2763;
667.5000;0.2458;0.2908;
667.8000;0.2466;0.2957;
668.1000;0.2434;0.2836;
668.4000;0.2418;0.2690;
668.7000;0.2466;0.2739;
669.0000;0.2458;0.2715;
669.3000;0.2483;0.2763;
669.6000;0.2466;0.2715;
669.9000;0.2483;0.2787;
670.2000;0.2475;0.2739;
670.5000;0.2475;0.2787;
670.8000;0.2532;0.2933;
671.1000;0.2450;0.2812;
671.4000;0.2442;0.2763;
671.7000;0.2434;0.2836;
672.0000;0.2418;0.2836;
672.3000;0.2361;0.2642;
672.6000;0.2475;0.2884;
672.9000;0.2466;0.2860;
673.2000;0.2450;0.2836;
673.5000;0.2458;0.2884;
673.8000;0.2475;0.2884;
674.1000;0.2483;0.2957;
674.4000;0.2458;0.3030;
674.7000;0.2491;0.3078;
675.0000;0.2475;0.3030;
675.3000;0.2458;0.2957;
675.6000;0.2458;0.2908;
675.9000;0.2466;0.2860;
676.2000;0.2458;0.2812;
676.5000;0.2475;0.2884;
676.8000;0.2450;0.2812;
677.1000;0.2450;0.2763;
677.4000;0.2466;0.2860;
677.7000;0.2475;0.2933;
678.0000;0.2466;0.2933;
678.3000;0.2458;0.2981;
678.6000;0.2458;0.2860;
678.9000;0.2458;0.2860;
679.2000;0.2466;0.2908;
679.5000;0.2507;0.3078;
679.8000;0.2483;0.3030;
680.1000;0.2426;0.2860;
680.4000;0.2466;0.2957;
680.7000;0.2475;0.2981;
681.0000;0.2458;0.2933;
681.3000;0.2483;0.2981;
681.6000;0.2483;0.2981;
681.9000;0.2532;0.3224;
682.2000;0.2442;0.2957;
682.5000;0.2442;0.2957;
682.8000;0.2434;0.2908;
683.1000;0.2466;0.2933;
683.4000;0.2458;0.2957;
683.7000;0.2442;0.2981;
684.0000;0.2442;0.3030;
684.3000;0.2450;0.3054;
684.6000;0.2507;0.3272;
684.9000;0.2532;0.3320;
685.2000;0.2369;0.2933;
685.5000;0.2507;0.3175;
685.8000;0.2507;0.3248;
686.1000;0.2458;0.3127;
686.4000;0.2450;0.3078;
686.7000;0.2450;0.2981;
687.0000;0.2442;0.2933;
687.3000;0.2458;0.2860;
687.6000;0.2434;0.2812;
687.9000;0.2442;0.2812;
688.2000;0.2458;0.2860;
688.5000;0.2344;0.2569;
688.8000;0.2434;0.2739;
689.1000;0.2458;0.2836;
689.4000;0.2458;0.2884;
689.7000;0.2434;0.2836;
690.0000;0.2458;0.2957;
690.3000;0.2466;0.2957;
690.6000;0.2434;0.2933;
690.9000;0.2418;0.2933;
691.2000;0.2450;0.3054;
691.5000;0.2450;0.3127;
691.8000;0.2369;0.2933;
692.1000;0.2442;0.3175;
692.4000;0.2507;0.3224;
692.7000;0.2450;0.3151;
693.0000;0.2434;0.3127;
693.3000;0.2418;0.3151;
693.6000;0.2426;0.3127;
693.9000;0.2458;0.3102;
694.2000;0.2475;0.3127;
694.5000;0.2458;0.3102;
694.8000;0.2434;0.3005;
695.1000;0.2466;0.3127;
695.4000;0.2393;0.2860;
695.7000;0.2450;0.2981;
696.0000;0.2458;0.2957;
696.3000;0.2507;0.3127;
696.6000;0.2450;0.2957;
696.9000;0.2442;0.2957;
697.2000;0.2450;0.2957;
697.5000;0.2442;0.2933;
697.8000;0.2450;0.2957;
698.1000;0.2450;0.2981;
698.4000;0.2458;0.2957;
698.7000;0.2442;0.2981;
699.0000;0.2458;0.3078;
699.3000;0.2426;0.2981;
699.6000;0.2475;0.3127;
699.9000;0.2475;0.3030;
700.2000;0.2483;0.3005;
700.5000;0.2458;0.3054;
700.8000;0.2466;0.3151;
701.1000;0.2475;0.3272;
701.4000;0.2491;0.3248;
701.7000;0.2483;0.3199;
702.0000;0.2483;0.3127;
702.3000;0.2466;0.3030;
702.6000;0.2458;0.3005;
702.9000;0.2458;0.2981;
703.2000;0.2458;0.2981;
703.5000;0.2426;0.2908;
703.8000;0.2466;0.3054;
704.1000;0.2458;0.3102;
704.4000;0.2466;0.3175;
704.7000;0.2442;0.3078;
705.0000;0.2466;0.3248;
705.3000;0.2466;0.3199;
705.6000;0.2597;0.3539;
705.9000;0.2426;0.3054;
706.2000;0.2466;0.3127;
706.5000;0.2409;0.2933;
706.8000;0.2466;0.3054;
707.1000;0.2450;0.3030;
707.4000;0.2458;0.2957;
707.7000;0.2475;0.3030;
708.0000;0.2442;0.3030;
708.3000;0.2426;0.2981;
708.6000;0.2532;0.3248;
708.9000;0.2458;0.3078;
709.2000;0.2418;0.2957;
709.5000;0.2532;0.3175;
709.8000;0.2475;0.3054;
710.1000;0.2475;0.2933;
710.4000;0.2466;0.2933;
710.7000;0.2483;0.3054;
711.0000;0.2466;0.3030;
711.3000;0.2458;0.3030;
711.6000;0.2466;0.3078;
711.9000;0.2458;0.3127;
712.2000;0.2450;0.3030;
712.5000;0.2442;0.3005;
712.8000;0.2523;0.3199;
713.1000;0.2442;0.3102;
713.4000;0.2458;0.3005;
713.7000;0.2450;0.2981;
714.0000;0.2491;0.3005;
714.3000;0.2483;0.2957;
714.6000;0.2466;0.2933;
714.9000;0.2458;0.2981;
715.2000;0.2466;0.3005;
715.5000;0.2466;0.2981;
715.8000;0.2434;0.2836;
716.1000;0.2458;0.2884;
716.4000;0.2466;0.2957;
716.7000;0.2466;0.2981;
717.0000;0.2458;0.2908;
717.3000;0.2458;0.3030;
717.6000;0.2442;0.3005;
717.9000;0.2458;0.2981;
718.2000;0.2442;0.2981;
718.5000;0.2499;0.3151;
718.8000;0.2442;0.2860;
719.1000;0.2466;0.2884;
719.4000;0.2450;0.2836;
719.7000;0.2450;0.2836;
720.0000;0.2450;0.2884;
720.3000;0.2483;0.3030;
720.6000;0.2450;0.3054;
720.9000;0.2466;0.2957;
721.2000;0.2409;0.2787;
721.5000;0.2475;0.2933;
721.8000;0.2466;0.2933;
722.1000;0.2475;0.2981;
722.4000;0.2450;0.3054;
722.7000;0.2466;0.3054;
723.0000;0.2434;0.2884;
723.3000;0.2409;0.2812;
723.6000;0.2475;0.3030;
723.9000;0.2483;0.3102;
724.2000;0.2458;0.3005;
724.5000;0.2483;0.3078;
724.8000;0.2458;0.2933;
725.1000;0.2475;0.2981;
725.4000;0.2466;0.2981;
725.7000;0.2483;0.2981;
726.0000;0.2458;0.2933;
726.3000;0.2418;0.2884;
726.6000;0.2458;0.3030;
726.9000;0.2466;0.3005;
727.2000;0.2409;0.2908;
727.5000;0.2401;0.2933;
727.8000;0.2466;0.3005;
728.1000;0.2450;0.3005;
728.4000;0.2475;0.3054;
728.7000;0.2475;0.2933;
729.0000;0.2466;0.2812;
729.3000;0.2458;0.2933;
729.6000;0.2393;0.2812;
729.9000;0.2361;0.2763;
730.2000;0.2442;0.3005;
730.5000;0.2499;0.3175;
730.8000;0.2580;0.3345;
731.1000;0.2450;0.2933;
731.4000;0.2483;0.2884;
731.7000;0.2466;0.2836;
732.0000;0.2475;0.2981;
732.3000;0.2466;0.2981;
732.6000;0.2442;0.3030;
732.9000;0.2466;0.3005;
733.2000;0.2475;0.2957;
733.5000;0.2352;0.2593;
733.8000;0.2572;0.3175;
734.1000;0.2466;0.2957;
734.4000;0.2458;0.2957;
734.7000;0.2475;0.2933;
735.0000;0.2515;0.3127;
735.3000;0.2450;0.3005;
735.6000;0.2450;0.3005;
735.9000;0.2540;0.3175;
736.2000;0.2458;0.2884;
736.5000;0.2450;0.2908;
736.8000;0.2466;0.2957;
737.1000;0.2475;0.3005;
737.4000;0.2466;0.3005;
737.7000;0.2475;0.2981;
738.0000;0.2426;0.2787;
738.3000;0.2475;0.2957;
738.6000;0.2483;0.2957;
738.9000;0.2483;0.2933;
739.2000;0.2475;0.2860;
739.5000;0.2466;0.2763;
739.8000;0.2475;0.2763;
740.1000;0.2475;0.2787;
740.4000;0.2426;0.2642;
740.7000;0.2475;0.2884;
741.0000;0.2466;0.2884;
741.3000;0.2458;0.2860;
741.6000;0.2450;0.2763;
741.9000;0.2434;0.2618;
742.2000;0.2466;0.2739;
742.5000;0.2401;0.2666;
742.8000;0.2450;0.2908;
743.1000;0.2458;0.2957;
743.4000;0.2466;0.2981;
743.7000;0.2491;0.2860;
744.0000;0.2466;0.2739;
744.3000;0.2466;0.2787;
744.6000;0.2458;0.2763;
744.9000;0.2466;0.2812;
745.2000;0.2426;0.2666;
745.5000;0.2466;0.2812;
745.8000;0.2466;0.2812;
746.1000;0.2450;0.2836;
746.4000;0.2458;0.2884;
746.7000;0.2450;0.2884;
747.0000;0.2450;0.2981;
747.3000;0.2466;0.2933;
747.6000;0.2466;0.2957;
747.9000;0.2450;0.2981;
748.2000;0.2483;0.3005;
748.5000;0.2466;0.3054;
748.8000;0.2458;0.3151;
749.1000;0.2450;0.3054;
749.4000;0.2442;0.2957;
749.7000;0.2442;0.2860;
750.0000;0.2450;0.2908;
750.3000;0.2580;0.3175;
750.6000;0.2523;0.2957;
750.9000;0.2458;0.2787;
751.2000;0.2483;0.2908;
751.5000;0.2466;0.2908;
751.8000;0.2377;0.2666;
752.1000;0.2475;0.3030;
752.4000;0.2466;0.2981;
752.7000;0.2466;0.2981;
753.0000;0.2475;0.3030;
753.3000;0.2475;0.2933;
753.6000;0.2466;0.2957;
753.9000;0.2458;0.2933;
754.2000;0.2458;0.2787;
754.5000;0.2450;0.2763;
754.8000;0.2458;0.2908;
755.1000;0.2458;0.2908;
755.4000;0.2450;0.2836;
755.7000;0.2491;0.2981;
756.0000;0.2466;0.2933;
756.3000;0.2466;0.3030;
756.6000;0.2475;0.3030;
756.9000;0.2499;0.3054;
757.2000;0.2458;0.2908;
757.5000;0.2466;0.2908;
757.8000;0.2458;0.2860;
758.1000;0.2466;0.3030;
758.4000;0.2466;0.3005;
758.7000;0.2466;0.2957;
759.0000;0.2450;0.2957;
759.3000;0.2458;0.2933;
759.6000;0.2466;0.2957;
759.9000;0.2442;0.3005;
760.2000;0.2466;0.3078;
760.5000;0.2458;0.2933;
760.8000;0.2458;0.2836;
761.1000;0.2458;0.2836;
761.4000;0.2466;0.2884;
761.7000;0.2458;0.2812;
762.0000;0.2475;0.2787;
762.3000;0.2450;0.2787;
762.6000;0.2361;0.2521;
762.9000;0.2442;0.2739;
763.2000;0.2377;0.2521;
763.5000;0.2458;0.2739;
763.8000;0.2475;0.2836;
764.1000;0.2475;0.2933;
764.4000;0.2466;0.2860;
764.7000;0.2475;0.2933;
765.0000;0.2475;0.2908;
765.3000;0.2426;0.2763;
765.6000;0.2483;0.2933;
765.9000;0.2466;0.3054;
766.2000;0.2466;0.3030;
766.5000;0.2475;0.3005;
766.8000;0.2458;0.2884;
767.1000;0.2442;0.2739;
767.4000;0.2466;0.2812;
767.7000;0.2491;0.2957;
768.0000;0.2458;0.2957;
768.3000;0.2458;0.2884;
768.6000;0.2491;0.3078;
768.9000;0.2458;0.2957;
769.2000;0.2466;0.2981;
769.5000;0.2475;0.2933;
769.8000;0.2466;0.2933;
770.1000;0.2466;0.2957;
770.4000;0.2466;0.3054;
770.7000;0.2458;0.3078;
771.0000;0.2434;0.2933;
771.3000;0.2466;0.3005;
771.6000;0.2418;0.2957;
771.9000;0.2442;0.3030;
772.2000;0.2442;0.3054;
772.5000;0.2458;0.3102;
772.8000;0.2466;0.3078;
773.1000;0.2499;0.3175;
773.4000;0.2450;0.3005;
773.7000;0.2466;0.3078;
774.0000;0.2458;0.3102;
774.3000;0.2523;0.3199;
774.6000;0.2442;0.3005;
774.9000;0.2466;0.3102;
775.2000;0.2458;0.3078;
775.5000;0.2450;0.3102;
775.8000;0.2475;0.2981;
776.1000;0.2409;0.2908;
776.4000;0.2458;0.3078;
776.7000;0.2466;0.3151;
777.0000;0.2434;0.3030;
777.3000;0.2491;0.3127;
777.6000;0.2507;0.3078;
777.9000;0.2466;0.2981;
778.2000;0.2458;0.3102;
778.5000;0.2466;0.2957;
778.8000;0.2450;0.2933;
779.1000;0.2466;0.2981;
779.4000;0.2458;0.2957;
779.7000;0.2466;0.2981;
780.0000;0.2458;0.2957;
780.3000;0.2466;0.2884;
780.6000;0.2466;0.2860;
780.9000;0.2483;0.2933;
781.2000;0.2458;0.2884;
781.5000;0.2475;0.2908;
781.8000;0.2499;0.2981;
782.1000;0.2458;0.2836;
782.4000;0.2475;0.2884;
782.7000;0.2458;0.2884;
783.0000;0.2475;0.2860;
783.3000;0.2352;0.2545;
783.6000;0.2458;0.2860;
783.9000;0.2466;0.2836;
784.2000;0.2483;0.2787;
784.5000;0.2450;0.2666;
784.8000;0.2434;0.2472;
785.1000;0.2442;0.2545;
785.4000;0.2450;0.2642;
785.7000;0.2499;0.2739;
786.0000;0.2450;0.2618;
786.3000;0.2442;0.2666;
786.6000;0.2442;0.2666;
786.9000;0.2450;0.2690;
787.2000;0.2499;0.2884;
787.5000;0.2450;0.2812;
787.8000;0.2458;0.2860;
788.1000;0.2483;0.3005;
788.4000;0.2458;0.2884;
788.7000;0.2385;0.2715;
789.0000;0.2475;0.2957;
789.3000;0.2458;0.2884;
789.6000;0.2466;0.2981;
789.9000;0.2458;0.3078;
790.2000;0.2450;0.2933;
790.5000;0.2426;0.2884;
790.8000;0.2458;0.2981;
791.1000;0.2458;0.2933;
791.4000;0.2466;0.3005;
791.7000;0.2450;0.3054;
792.0000;0.2466;0.3102;
792.3000;0.2458;0.3102;
792.6000;0.2458;0.3102;
792.9000;0.2458;0.3054;
793.2000;0.2466;0.3127;
793.5000;0.2483;0.3199;
793.8000;0.2475;0.3102;
794.1000;0.2466;0.3127;
794.4000;0.2475;0.2981;
794.7000;0.2475;0.2957;
795.0000;0.2466;0.2957;
795.3000;0.2458;0.2812;
795.6000;0.2483;0.2884;
795.9000;0.2466;0.2908;
796.2000;0.2393;0.2739;
796.5000;0.2475;0.2908;
796.8000;0.2458;0.2908;
797.1000;0.2483;0.3005;
797.4000;0.2499;0.3127;
797.7000;0.2483;0.3054;
798.0000;0.2458;0.3030;
798.3000;0.2458;0.3102;
798.6000;0.2475;0.3151;
798.9000;0.2475;0.3151;
799.2000;0.2466;0.3151;
799.5000;0.2458;0.3127;
799.8000;0.2475;0.3224;
800.1000;0.2458;0.3248;
800.4000;0.2483;0.3272;
800.7000;0.2442;0.3151;
801.0000;0.2450;0.3175;
801.3000;0.2458;0.3151;
801.6000;0.2426;0.3030;
801.9000;0.2483;0.3151;
802.2000;0.2483;0.3175;
802.5000;0.2515;0.3272;
802.8000;0.2491;0.3199;
803.1000;0.2475;0.3272;
803.4000;0.2491;0.3296;
803.7000;0.2483;0.3369;
804.0000;0.2662;0.3829;
804.3000;0.2466;0.3248;
804.6000;0.2458;0.3296;
804.9000;0.2466;0.3296;
805.2000;0.2458;0.3224;
805.5000;0.2466;0.3151;
805.8000;0.2475;0.3102;
806.1000;0.2475;0.3127;
806.4000;0.2483;0.3127;
806.7000;0.2483;0.3199;
807.0000;0.2483;0.3199;
807.3000;0.2499;0.3248;
807.6000;0.2475;0.3272;
807.9000;0.2466;0.3224;
808.2000;0.2475;0.3224;
808.5000;0.2475;0.3272;
808.8000;0.2475;0.3272;
809.1000;0.2499;0.3175;
809.4000;0.2483;0.3199;
809.7000;0.2499;0.3199;
810.0000;0.2475;0.3199;
810.3000;0.2458;0.3127;
810.6000;0.2458;0.3127;
810.9000;0.2475;0.3151;
811.2000;0.2466;0.3175;
811.5000;0.2442;0.3127;
811.8000;0.2458;0.3175;
812.1000;0.2426;0.3054;
812.4000;0.2450;0.3078;
812.7000;0.2466;0.3054;
813.0000;0.2450;0.3030;
813.3000;0.2475;0.3078;
813.6000;0.2466;0.3127;
813.9000;0.2458;0.3127;
814.2000;0.2458;0.3102;
814.5000;0.2450;0.3005;
814.8000;0.2426;0.2860;
815.1000;0.2458;0.2908;
815.4000;0.2475;0.2933;
815.7000;0.2401;0.2715;
816.0000;0.2466;0.2836;
816.3000;0.2466;0.2812;
816.6000;0.2442;0.2812;
816.9000;0.2556;0.3127;
817.2000;0.2475;0.2933;
817.5000;0.2458;0.2933;
817.8000;0.2442;0.2884;
818.1000;0.2475;0.2908;
818.4000;0.2466;0.2933;
818.7000;0.2475;0.2957;
819.0000;0.2458;0.3005;
819.3000;0.2475;0.3127;
819.6000;0.2475;0.3151;
819.9000;0.2466;0.3151;
820.2000;0.2475;0.3151;
820.5000;0.2458;0.3151;
820.8000;0.2450;0.3127;
821.1000;0.2466;0.3224;
821.4000;0.2491;0.3272;
821.7000;0.2475;0.3272;
822.0000;0.2458;0.3272;
822.3000;0.2442;0.3199;
822.6000;0.2483;0.3248;
822.9000;0.2475;0.3175;
823.2000;0.2475;0.3175;
823.5000;0.2483;0.3199;
823.8000;0.2475;0.3127;
824.1000;0.2483;0.3151;
824.4000;0.2475;0.3175;
824.7000;0.2466;0.3175;
825.0000;0.2491;0.3272;
825.3000;0.2475;0.3199;
825.6000;0.2385;0.2884;
825.9000;0.2540;0.3224;
826.2000;0.2450;0.3005;
826.5000;0.2352;0.2763;
826.8000;0.2483;0.3054;
827.1000;0.2507;0.3151;
827.4000;0.2458;0.2933;
827.7000;0.2466;0.2957;
828.0000;0.2442;0.2933;
828.3000;0.2450;0.2957;
828.6000;0.2418;0.2957;
828.9000;0.2458;0.3102;
829.2000;0.2491;0.3175;
829.5000;0.2458;0.3054;
829.8000;0.2466;0.3054;
830.1000;0.2483;0.3078;
830.4000;0.2475;0.3151;
830.7000;0.2475;0.3199;
831.0000;0.2466;0.3175;
831.3000;0.2483;0.3224;
831.6000;0.2458;0.3199;
831.9000;0.2466;0.3175;
832.2000;0.2466;0.3175;
832.5000;0.2483;0.3175;
832.8000;0.2491;0.3102;
833.1000;0.2475;0.3054;
833.4000;0.2548;0.3175;
833.7000;0.2466;0.3005;
834.0000;0.2458;0.3005;
834.3000;0.2475;0.3102;
834.6000;0.2475;0.3127;
834.9000;0.2507;0.3151;
835.2000;0.2450;0.2957;
835.5000;0.2458;0.2957;
835.8000;0.2418;0.2908;
836.1000;0.2450;0.3030;
836.4000;0.2442;0.3005;
836.7000;0.2458;0.3054;
837.0000;0.2442;0.3030;
837.3000;0.2458;0.3127;
837.6000;0.2458;0.3199;
837.9000;0.2450;0.3199;
838.2000;0.2458;0.3175;
838.5000;0.2450;0.3151;
838.8000;0.2466;0.3175;
839.1000;0.2499;0.3175;
839.4000;0.2475;0.3175;
839.7000;0.2475;0.3030;
840.0000;0.2483;0.3127;
840.3000;0.2491;0.3175;
840.6000;0.2483;0.3078;
840.9000;0.2458;0.3005;
841.2000;0.2475;0.3102;
841.5000;0.2466;0.3054;
841.8000;0.2491;0.2981;
842.1000;0.2483;0.2933;
842.4000;0.2458;0.2836;
842.7000;0.2499;0.2836;
843.0000;0.2483;0.2812;
843.3000;0.2483;0.2836;
843.6000;0.2499;0.2957;
843.9000;0.2483;0.3005;
844.2000;0.2483;0.3005;
844.5000;0.2466;0.2981;
844.8000;0.2458;0.2884;
845.1000;0.2475;0.2933;
845.4000;0.2458;0.3054;
845.7000;0.2475;0.3175;
846.0000;0.2483;0.3199;
846.3000;0.2344;0.2908;
846.6000;0.2418;0.3054;
846.9000;0.2483;0.3151;
847.2000;0.2450;0.2981;
847.5000;0.2450;0.3030;
847.8000;0.2491;0.3175;
848.1000;0.2475;0.3102;
848.4000;0.2466;0.3102;
848.7000;0.2434;0.2981;
849.0000;0.2418;0.3005;
849.3000;0.2466;0.3054;
849.6000;0.2450;0.2981;
849.9000;0.2458;0.2957;
850.2000;0.2475;0.3078;
850.5000;0.2466;0.3030;
850.8000;0.2515;0.3199;
851.1000;0.2450;0.2981;
851.4000;0.2458;0.2981;
851.7000;0.2369;0.2763;
852.0000;0.2475;0.3030;
852.3000;0.2458;0.2933;
852.6000;0.2475;0.2908;
852.9000;0.2450;0.2957;
853.2000;0.2475;0.3005;
853.5000;0.2458;0.3102;
853.8000;0.2491;0.3151;
854.1000;0.2491;0.3078;
854.4000;0.2483;0.3127;
854.7000;0.2483;0.3151;
855.0000;0.2475;0.3030;
855.3000;0.2475;0.2981;
855.6000;0.2466;0.2933;
855.9000;0.2466;0.2836;
856.2000;0.2458;0.2787;
856.5000;0.2475;0.2836;
856.8000;0.2409;0.2763;
857.1000;0.2466;0.2957;
857.4000;0.2475;0.3005;
857.7000;0.2409;0.2884;
858.0000;0.2458;0.2957;
858.3000;0.2418;0.2787;
858.6000;0.2466;0.2884;
858.9000;0.2450;0.2812;
859.2000;0.2458;0.2812;
859.5000;0.2475;0.2787;
859.8000;0.2483;0.2763;
860.1000;0.2466;0.2690;
860.4000;0.2483;0.2715;
860.7000;0.2458;0.2715;
861.0000;0.2475;0.2763;
861.3000;0.2475;0.2860;
861.6000;0.2475;0.2908;
861.9000;0.2458;0.2908;
862.2000;0.2466;0.3078;
862.5000;0.2450;0.3030;
862.8000;0.2458;0.3005;
863.1000;0.2466;0.3030;
863.4000;0.2483;0.3102;
863.7000;0.2475;0.2957;
864.0000;0.2450;0.2787;
864.3000;0.2466;0.2763;
864.6000;0.2466;0.2739;
864.9000;0.2483;0.2715;
865.2000;0.2426;0.2545;
865.5000;0.2458;0.2618;
865.8000;0.2466;0.2666;
866.1000;0.2442;0.2521;
866.4000;0.2450;0.2618;
866.7000;0.2450;0.2642;
867.0000;0.2466;0.2690;
867.3000;0.2393;0.2593;
867.6000;0.2466;0.2860;
867.9000;0.2450;0.2957;
868.2000;0.2458;0.2933;
868.5000;0.2401;0.2812;
868.8000;0.2483;0.3078;
869.1000;0.2475;0.2908;
869.4000;0.2426;0.2787;
869.7000;0.2483;0.2957;
870.0000;0.2418;0.2884;
870.3000;0.2458;0.3054;
870.6000;0.2450;0.2957;
870.9000;0.2475;0.2957;
871.2000;0.2458;0.2884;
871.5000;0.2483;0.2908;
871.8000;0.2458;0.2957;
872.1000;0.2458;0.3054;
872.4000;0.2475;0.3102;
872.7000;0.2458;0.3005;
873.0000;0.2466;0.3054;
873.3000;0.2466;0.3005;
873.6000;0.2458;0.2933;
873.9000;0.2458;0.2908;
874.2000;0.2458;0.2836;
874.5000;0.2434;0.2715;
874.8000;0.2491;0.2763;
875.1000;0.2458;0.2787;
875.4000;0.2483;0.2884;
875.7000;0.2475;0.2860;
876.0000;0.2475;0.2933;
876.3000;0.2475;0.2981;
876.6000;0.2483;0.2981;
876.9000;0.2409;0.2836;
877.2000;0.2458;0.2957;
877.5000;0.2483;0.3030;
877.8000;0.2483;0.2908;
878.1000;0.2466;0.2908;
878.4000;0.2483;0.2884;
878.7000;0.2523;0.2981;
879.0000;0.2466;0.2908;
879.3000;0.2540;0.3151;
879.6000;0.2466;0.2836;
879.9000;0.2434;0.2763;
880.2000;0.2475;0.2812;
880.5000;0.2466;0.2715;
880.8000;0.2450;0.2715;
881.1000;0.2466;0.2933;
881.4000;0.2466;0.2884;
881.7000;0.2442;0.2836;
882.0000;0.2458;0.2957;
882.3000;0.2540;0.3127;
882.6000;0.2426;0.2812;
882.9000;0.2442;0.2908;
883.2000;0.2458;0.2981;
883.5000;0.2458;0.2981;
883.8000;0.2475;0.3030;
884.1000;0.2458;0.2981;
884.4000;0.2466;0.2908;
884.7000;0.2466;0.2812;
885.0000;0.2475;0.2860;
885.3000;0.2483;0.2812;
885.6000;0.2466;0.2763;
885.9000;0.2483;0.2908;
886.2000;0.2475;0.2860;
886.5000;0.2466;0.2836;
886.8000;0.2466;0.2836;
887.1000;0.2458;0.2836;
887.4000;0.2458;0.2836;
887.7000;0.2466;0.2836;
888.0000;0.2442;0.2860;
888.3000;0.2450;0.3005;
888.6000;0.2458;0.3054;
888.9000;0.2458;0.3030;
889.2000;0.2458;0.2981;
889.5000;0.2450;0.2836;
889.8000;0.2450;0.2812;
890.1000;0.2442;0.2787;
890.4000;0.2458;0.2836;
890.7000;0.2458;0.2860;
891.0000;0.2466;0.2908;
891.3000;0.2523;0.3078;
891.6000;0.2475;0.2933;
891.9000;0.2475;0.2884;
892.2000;0.2499;0.2908;
892.5000;0.2466;0.2836;
892.8000;0.2458;0.2812;
893.1000;0.2475;0.2981;
893.4000;0.2466;0.2981;
893.7000;0.2434;0.2884;
894.0000;0.2491;0.3030;
894.3000;0.2491;0.2981;
894.6000;0.2458;0.2836;
894.9000;0.2475;0.2884;
895.2000;0.2458;0.2860;
895.5000;0.2483;0.2981;
895.8000;0.2409;0.2860;
896.1000;0.2418;0.2933;
896.4000;0.2483;0.3054;
896.7000;0.2369;0.2715;
897.0000;0.2426;0.2908;
897.3000;0.2450;0.2981;
897.6000;0.2483;0.3054;
897.9000;0.2483;0.3005;
898.2000;0.2475;0.2908;
898.5000;0.2475;0.2957;
898.8000;0.2483;0.3078;
899.1000;0.2442;0.3054;
899.4000;0.2475;0.3102;
899.7000;0.2475;0.3078;
900.0000;0.2540;0.3175;
900.3000;0.2475;0.2957;
900.6000;0.2458;0.2981;
900.9000;0.2426;0.2884;
901.2000;0.2466;0.2933;
901.5000;0.2491;0.2908;
901.8000;0.2499;0.2836;
902.1000;0.2483;0.2812;
902.4000;0.2466;0.2812;
902.7000;0.2483;0.2860;
903.0000;0.2458;0.2787;
903.3000;0.2450;0.2739;
903.6000;0.2458;0.2739;
903.9000;0.2475;0.2908;
904.2000;0.2458;0.2860;
904.5000;0.2458;0.2836;
904.8000;0.2426;0.2715;
905.1000;0.2466;0.2884;
905.4000;0.2401;0.2739;
905.7000;0.2475;0.2884;
906.0000;0.2475;0.2763;
906.3000;0.2466;0.2763;
906.6000;0.2483;0.2836;
906.9000;0.2466;0.2763;
907.2000;0.2450;0.2690;
907.5000;0.2515;0.2860;
907.8000;0.2458;0.2739;
908.1000;0.2475;0.2763;
908.4000;0.2466;0.2763;
908.7000;0.2483;0.2860;
909.0000;0.2523;0.2884;
909.3000;0.2458;0.2715;
909.6000;0.2466;0.2763;
909.9000;0.2377;0.2472;
910.2000;0.2466;0.2618;
910.5000;0.2466;0.2666;
910.8000;0.2458;0.2739;
911.1000;0.2458;0.2715;
911.4000;0.2458;0.2739;
911.7000;0.2450;0.2739;
912.0000;0.2466;0.2836;
912.3000;0.2475;0.2908;
912.6000;0.2450;0.2957;
912.9000;0.2458;0.3005;
913.2000;0.2466;0.2981;
913.5000;0.2466;0.2860;
913.8000;0.2466;0.2836;
914.1000;0.2466;0.2763;
914.4000;0.2466;0.2860;
914.7000;0.2450;0.2860;
915.0000;0.2450;0.2884;
915.3000;0.2458;0.2933;
915.6000;0.2458;0.2908;
915.9000;0.2483;0.2957;
916.2000;0.2466;0.2957;
916.5000;0.2377;0.2690;
916.8000;0.2458;0.3030;
917.1000;0.2466;0.3005;
917.4000;0.2483;0.3102;
917.7000;0.2475;0.3030;
918.0000;0.2491;0.3005;
918.3000;0.2450;0.2860;
918.6000;0.2475;0.2908;
918.9000;0.2442;0.2812;
919.2000;0.2450;0.2787;
919.5000;0.2475;0.2884;
919.8000;0.2466;0.2884;
920.1000;0.2426;0.2860;
920.4000;0.2442;0.2957;
920.7000;0.2499;0.3030;
921.0000;0.2548;0.3151;
921.3000;0.2466;0.2981;
921.6000;0.2564;0.3320;
921.9000;0.2475;0.3102;
922.2000;0.2499;0.3054;
922.5000;0.2466;0.2908;
922.8000;0.2466;0.2860;
923.1000;0.2483;0.2933;
923.4000;0.2483;0.2933;
923.7000;0.2466;0.2884;
924.0000;0.2466;0.2787;
924.3000;0.2475;0.2763;
924.6000;0.2475;0.2908;
924.9000;0.2434;0.2836;
925.2000;0.2458;0.2884;
925.5000;0.2442;0.2763;
925.8000;0.2572;0.3127;
926.1000;0.2483;0.2860;
926.4000;0.2466;0.2812;
926.7000;0.2466;0.2739;
927.0000;0.2491;0.2763;
927.3000;0.2466;0.2666;
927.6000;0.2458;0.2690;
927.9000;0.2466;0.2763;
928.2000;0.2458;0.2715;
928.5000;0.2466;0.2715;
928.8000;0.2458;0.2690;
929.1000;0.2466;0.2763;
929.4000;0.2466;0.2787;
929.7000;0.2483;0.2933;
930.0000;0.2475;0.2957;
930.3000;0.2401;0.2860;
930.6000;0.2458;0.2884;
930.9000;0.2434;0.2836;
931.2000;0.2450;0.2812;
931.5000;0.2458;0.2763;
931.8000;0.2352;0.2472;
932.1000;0.2475;0.2787;
932.4000;0.2458;0.2787;
932.7000;0.2483;0.2884;
933.0000;0.2450;0.2812;
933.3000;0.2475;0.2860;
933.6000;0.2491;0.2933;
933.9000;0.2491;0.2981;
934.2000;0.2483;0.3078;
934.5000;0.2475;0.3102;
934.8000;0.2491;0.3127;
935.1000;0.2483;0.3127;
935.4000;0.2442;0.3030;
935.7000;0.2475;0.3005;
936.0000;0.2475;0.3005;
936.3000;0.2475;0.2957;
936.6000;0.2450;0.2860;
936.9000;0.2491;0.2957;
937.2000;0.2466;0.2933;
937.5000;0.2475;0.2933;
937.8000;0.2393;0.2593;
938.1000;0.2475;0.2787;
938.4000;0.2458;0.2787;
938.7000;0.2466;0.2836;
939.0000;0.2434;0.2787;
939.3000;0.2466;0.2836;
939.6000;0.2466;0.2908;
939.9000;0.2515;0.2981;
940.2000;0.2483;0.2908;
940.5000;0.2418;0.2812;
940.8000;0.2466;0.2860;
941.1000;0.2475;0.2908;
941.4000;0.2458;0.2957;
941.7000;0.2418;0.2836;
942.0000;0.2483;0.2957;
942.3000;0.2466;0.2908;
942.6000;0.2458;0.2908;
942.9000;0.2450;0.2908;
943.2000;0.2475;0.2836;
943.5000;0.2483;0.2884;
943.8000;0.2475;0.2933;
944.1000;0.2466;0.3030;
944.4000;0.2475;0.3078;
944.7000;0.2458;0.3078;
945.0000;0.2426;0.2957;
945.3000;0.2483;0.3054;
945.6000;0.2426;0.2908;
945.9000;0.2466;0.2957;
946.2000;0.2491;0.2981;
946.5000;0.2491;0.3054;
946.8000;0.2475;0.2957;
947.1000;0.2450;0.2933;
947.4000;0.2483;0.2933;
947.7000;0.2475;0.3005;
948.0000;0.2499;0.3078;
948.3000;0.2458;0.2981;
948.6000;0.2475;0.2933;
948.9000;0.2515;0.3030;
949.2000;0.2483;0.2957;
949.5000;0.2483;0.2957;
949.8000;0.2491;0.3054;
950.1000;0.2483;0.3030;
950.4000;0.2458;0.2981;
950.7000;0.2483;0.2933;
951.0000;0.2458;0.2957;
951.3000;0.2466;0.2981;
951.6000;0.2458;0.2908;
951.9000;0.2466;0.2933;
952.2000;0.2458;0.2981;
952.5000;0.2475;0.2981;
952.8000;0.2515;0.3078;
953.1000;0.2458;0.3005;
953.4000;0.2442;0.2884;
953.7000;0.2466;0.2860;
954.0000;0.2442;0.2787;
954.3000;0.2466;0.2884;
954.6000;0.2475;0.2981;
954.9000;0.2458;0.3005;
955.2000;0.2466;0.2884;
955.5000;0.2466;0.2908;
955.8000;0.2458;0.2860;
956.1000;0.2475;0.2763;
956.4000;0.2483;0.2763;
956.7000;0.2491;0.2812;
957.0000;0.2466;0.2642;
957.3000;0.2458;0.2593;
957.6000;0.2483;0.2666;
957.9000;0.2466;0.2739;
958.2000;0.2466;0.2739;
958.5000;0.2475;0.2739;
958.8000;0.2442;0.2763;
959.1000;0.2491;0.2884;
959.4000;0.2483;0.2884;
959.7000;0.2458;0.2884;
960.0000;0.2466;0.2933;
960.3000;0.2434;0.2860;
960.6000;0.2483;0.3005;
960.9000;0.2466;0.3030;
961.2000;0.2491;0.3078;
961.5000;0.2442;0.2836;
961.8000;0.2475;0.2836;
962.1000;0.2409;0.2666;
962.4000;0.2515;0.3005;
962.7000;0.2466;0.2884;
963.0000;0.2466;0.2884;
963.3000;0.2475;0.2957;
963.6000;0.2458;0.3005;
963.9000;0.2532;0.3175;
964.2000;0.2450;0.3078;
964.5000;0.2475;0.3078;
964.8000;0.2442;0.2908;
965.1000;0.2466;0.2884;
965.4000;0.2466;0.2884;
965.7000;0.2458;0.2908;
966.0000;0.2450;0.2812;
966.3000;0.2450;0.2812;
966.6000;0.2466;0.2812;
966.9000;0.2475;0.2908;
967.2000;0.2466;0.2957;
967.5000;0.2458;0.2933;
967.8000;0.2458;0.2908;
968.1000;0.2466;0.2860;
968.4000;0.2458;0.2908;
968.7000;0.2483;0.2836;
969.0000;0.2458;0.2715;
969.3000;0.2475;0.2812;
969.6000;0.2475;0.2884;
969.9000;0.2483;0.2860;
970.2000;0.2483;0.2836;
970.5000;0.2475;0.2908;
970.8000;0.2475;0.2884;
971.1000;0.2466;0.2884;
971.4000;0.2483;0.2860;
971.7000;0.2458;0.2787;
972.0000;0.2466;0.2812;
972.3000;0.2458;0.2812;
972.6000;0.2491;0.2957;
972.9000;0.2466;0.2957;
973.2000;0.2466;0.3005;
973.5000;0.2499;0.3005;
973.8000;0.2597;0.3248;
974.1000;0.2499;0.2933;
974.4000;0.2499;0.2908;
974.7000;0.2515;0.2933;
975.0000;0.2483;0.2836;
975.3000;0.2466;0.2812;
975.6000;0.2418;0.2739;
975.9000;0.2458;0.2884;
976.2000;0.2466;0.2933;
976.5000;0.2458;0.2981;
976.8000;0.2450;0.2908;
977.1000;0.2458;0.2860;
977.4000;0.2401;0.2787;
977.7000;0.2483;0.2933;
978.0000;0.2483;0.3005;
978.3000;0.2475;0.3005;
978.6000;0.2491;0.2957;
978.9000;0.2475;0.2860;
979.2000;0.2466;0.2860;
979.5000;0.2475;0.2812;
979.8000;0.2499;0.2884;
980.1000;0.2475;0.2787;
980.4000;0.2466;0.2690;
980.7000;0.2458;0.2715;
981.0000;0.2483;0.2715;
981.3000;0.2483;0.2690;
981.6000;0.2458;0.2642;
981.9000;0.2466;0.2593;
982.2000;0.2475;0.2642;
982.5000;0.2475;0.2739;
982.8000;0.2475;0.2739;
983.1000;0.2483;0.2787;
983.4000;0.2475;0.2836;
983.7000;0.2483;0.2812;
984.0000;0.2483;0.2787;
984.3000;0.2515;0.2957;
984.6000;0.2515;0.2812;
984.9000;0.2466;0.2690;
985.2000;0.2491;0.2763;
985.5000;0.2507;0.2836;
985.8000;0.2483;0.2787;
986.1000;0.2418;0.2642;
986.4000;0.2532;0.2908;
986.7000;0.2475;0.2690;
987.0000;0.2491;0.2763;
987.3000;0.2475;0.2787;
987.6000;0.2540;0.3054;
987.9000;0.2475;0.2908;
988.2000;0.2507;0.2981;
988.5000;0.2475;0.2957;
988.8000;0.2475;0.2933;
989.1000;0.2466;0.2860;
989.4000;0.2458;0.2860;
989.7000;0.2605;0.3272;
990.0000;0.2475;0.2957;
990.3000;0.2483;0.2981;
990.6000;0.2458;0.2933;
990.9000;0.2483;0.2933;
991.2000;0.2523;0.3078;
991.5000;0.2475;0.2860;
991.8000;0.2507;0.2908;
992.1000;0.2483;0.2908;
992.4000;0.2466;0.2884;
992.7000;0.2458;0.2836;
993.0000;0.2475;0.2884;
993.3000;0.2475;0.2860;
993.6000;0.2491;0.2957;
993.9000;0.2475;0.2981;
994.2000;0.2458;0.2908;
994.5000;0.2483;0.2933;
994.8000;0.2475;0.2933;
995.1000;0.2475;0.2860;
995.4000;0.2483;0.3005;
995.7000;0.2466;0.2957;
996.0000;0.2458;0.3005;
996.3000;0.2475;0.3102;
996.6000;0.2458;0.3030;
996.9000;0.2450;0.2957;
997.2000;0.2483;0.2981;
997.5000;0.2483;0.2933;
997.8000;0.2507;0.3054;
998.1000;0.2466;0.2933;
998.4000;0.2475;0.3054;
998.7000;0.2442;0.3005;
999.0000;0.2458;0.3054;
999.3000;0.2475;0.3005;
999.6000;0.2483;0.3054;
999.9000;0.2491;0.3127;
1000.2000;0.2491;0.3102;
1000.5000;0.2466;0.2981;
1000.8000;0.2409;0.2860;
1001.1000;0.2483;0.3054;
1001.4000;0.2475;0.3078;
1001.7000;0.2458;0.3030;
1002.0000;0.2458;0.3054;
1002.3000;0.2442;0.2957;
1002.6000;0.2491;0.2957;
1002.9000;0.2466;0.2957;
1003.2000;0.2458;0.2957;
1003.5000;0.2450;0.2908;
1003.8000;0.2434;0.2860;
1004.1000;0.2466;0.2908;
1004.4000;0.2475;0.2933;
1004.7000;0.2475;0.2957;
1005.0000;0.2442;0.2908;
1005.3000;0.2491;0.3005;
1005.6000;0.2458;0.2884;
1005.9000;0.2483;0.2908;
1006.2000;0.2475;0.2981;
1006.5000;0.2475;0.2957;
1006.8000;0.2499;0.3005;
1007.1000;0.2458;0.2933;
1007.4000;0.2458;0.2957;
1007.7000;0.2475;0.2908;
1008.0000;0.2491;0.3030;
1008.3000;0.2483;0.3054;
1008.6000;0.2483;0.3030;
1008.9000;0.2491;0.3030;
1009.2000;0.2483;0.3102;
1009.5000;0.2507;0.3175;
1009.8000;0.2466;0.3054;
1010.1000;0.2483;0.3054;
1010.4000;0.2475;0.3078;
1010.7000;0.2434;0.2957;
1011.0000;0.2475;0.2981;
1011.3000;0.2466;0.2884;
1011.6000;0.2450;0.2884;
1011.9000;0.2458;0.2933;
1012.2000;0.2540;0.3175;
1012.5000;0.2377;0.2690;
1012.8000;0.2483;0.3030;
1013.1000;0.2434;0.2884;
1013.4000;0.2475;0.3054;
1013.7000;0.2466;0.3054;
1014.0000;0.2434;0.2908;
1014.3000;0.2466;0.2957;
1014.6000;0.2475;0.3005;
1014.9000;0.2491;0.2981;
1015.2000;0.2483;0.2908;
1015.5000;0.2434;0.2812;
1015.8000;0.2466;0.2884;
1016.1000;0.2556;0.3175;
1016.4000;0.2475;0.3030;
1016.7000;0.2483;0.3054;
1017.0000;0.2483;0.3054;
1017.3000;0.2475;0.3078;
1017.6000;0.2475;0.3054;
1017.9000;0.2475;0.3078;
1018.2000;0.2507;0.3175;
1018.5000;0.2491;0.3078;
1018.8000;0.2483;0.2981;
1019.1000;0.2466;0.2884;
1019.4000;0.2458;0.2812;
1019.7000;0.2475;0.2836;
1020.0000;0.2466;0.2812;
1020.3000;0.2483;0.2836;
1020.6000;0.2466;0.2763;
1020.9000;0.2466;0.2812;
1021.2000;0.2458;0.2787;
1021.5000;0.2483;0.2860;
1021.8000;0.2466;0.2787;
1022.1000;0.2450;0.2739;
1022.4000;0.2458;0.2812;
1022.7000;0.2572;0.3175;
1023.0000;0.2475;0.2933;
1023.3000;0.2434;0.2860;
1023.6000;0.2450;0.2884;
1023.9000;0.2475;0.2933;
1024.2000;0.2458;0.2812;
1024.5000;0.2466;0.2860;
1024.8000;0.2475;0.2812;
1025.1000;0.2483;0.2884;
1025.4000;0.2458;0.2908;
1025.7000;0.2450;0.2763;
1026.0000;0.2475;0.2836;
1026.3000;0.2483;0.2860;
1026.6000;0.2466;0.2812;
1026.9000;0.2352;0.2569;
1027.2000;0.2458;0.2812;
1027.5000;0.2475;0.2812;
1027.8000;0.2475;0.2836;
1028.1000;0.2483;0.2860;
1028.4000;0.2475;0.2884;
1028.7000;0.2458;0.2787;
1029.0000;0.2499;0.2933;
1029.3000;0.2499;0.2933;
1029.6000;0.2458;0.2860;
1029.9000;0.2483;0.2908;
1030.2000;0.2466;0.2860;
1030.5000;0.2499;0.2957;
1030.8000;0.2499;0.2981;
1031.1000;0.2491;0.3005;
1031.4000;0.2475;0.2908;
1031.7000;0.2466;0.2884;
1032.0000;0.2483;0.2836;
1032.3000;0.2466;0.2836;
1032.6000;0.2442;0.2787;
1032.9000;0.2458;0.2981;
1033.2000;0.2466;0.2933;
1033.5000;0.2466;0.2884;
1033.8000;0.2475;0.2908;
1034.1000;0.2458;0.2812;
1034.4000;0.2532;0.2908;
1034.7000;0.2458;0.2763;
1035.0000;0.2466;0.2715;
1035.3000;0.2466;0.2666;
1035.6000;0.2475;0.2763;
1035.9000;0.2466;0.2908;
1036.2000;0.2515;0.3005;
1036.5000;0.2483;0.2860;
1036.8000;0.2466;0.2884;
1037.1000;0.2458;0.2908;
1037.4000;0.2458;0.2908;
1037.7000;0.2540;0.3175;
1038.0000;0.2556;0.3151;
1038.3000;0.2475;0.2908;
1038.6000;0.2466;0.2933;
1038.9000;0.2475;0.2933;
1039.2000;0.2434;0.2860;
1039.5000;0.2466;0.2957;
1039.8000;0.2483;0.3030;
1040.1000;0.2491;0.3005;
1040.4000;0.2483;0.2884;
1040.7000;0.2466;0.3005;
1041.0000;0.2475;0.3054;
1041.3000;0.2466;0.3054;
1041.6000;0.2458;0.3005;
1041.9000;0.2450;0.3054;
1042.2000;0.2466;0.3054;
1042.5000;0.2491;0.3102;
1042.8000;0.2458;0.2981;
1043.1000;0.2466;0.3005;
1043.4000;0.2475;0.3005;
1043.7000;0.2458;0.3005;
1044.0000;0.2466;0.3054;
1044.3000;0.2458;0.3078;
1044.6000;0.2458;0.3005;
1044.9000;0.2483;0.3102;
1045.2000;0.2458;0.3078;
1045.5000;0.2450;0.3030;
1045.8000;0.2369;0.2787;
1046.1000;0.2491;0.3005;
1046.4000;0.2515;0.3127;
1046.7000;0.2458;0.2981;
1047.0000;0.2483;0.3005;
1047.3000;0.2548;0.3127;
1047.6000;0.2466;0.3005;
1047.9000;0.2466;0.3078;
1048.2000;0.2458;0.3127;
1048.5000;0.2483;0.3127;
1048.8000;0.2483;0.3030;
1049.1000;0.2466;0.3054;
1049.4000;0.2466;0.3054;
1049.7000;0.2499;0.3224;
1050.0000;0.2466;0.3151;
1050.3000;0.2475;0.3175;
1050.6000;0.2483;0.3102;
1050.9000;0.2499;0.3078;
1051.2000;0.2475;0.3102;
1051.5000;0.2483;0.3030;
1051.8000;0.2458;0.2957;
1052.1000;0.2475;0.2981;
1052.4000;0.2475;0.3030;
1052.7000;0.2466;0.2981;
1053.0000;0.2466;0.3005;
1053.3000;0.2475;0.3054;
1053.6000;0.2475;0.3005;
1053.9000;0.2475;0.2957;
1054.2000;0.2466;0.3030;
1054.5000;0.2442;0.3005;
1054.8000;0.2458;0.3054;
1055.1000;0.2466;0.3078;
1055.4000;0.2507;0.3175;
1055.7000;0.2434;0.2933;
1056.0000;0.2442;0.2933;
1056.3000;0.2466;0.3030;
1056.6000;0.2475;0.2981;
1056.9000;0.2442;0.2884;
1057.2000;0.2442;0.2860;
1057.5000;0.2450;0.2933;
1057.8000;0.2442;0.2812;
1058.1000;0.2458;0.2884;
1058.4000;0.2466;0.2981;
1058.7000;0.2442;0.2908;
1059.0000;0.2483;0.2908;
1059.3000;0.2466;0.2812;
1059.6000;0.2475;0.2787;
1059.9000;0.2483;0.2836;
1060.2000;0.2475;0.2836;
1060.5000;0.2515;0.2957;
1060.8000;0.2475;0.2957;
1061.1000;0.2409;0.2812;
1061.4000;0.2491;0.2981;
1061.7000;0.2483;0.3005;
1062.0000;0.2466;0.2860;
1062.3000;0.2483;0.2933;
1062.6000;0.2483;0.3030;
1062.9000;0.2475;0.2860;
1063.2000;0.2475;0.2860;
1063.5000;0.2483;0.2836;
1063.8000;0.2466;0.2836;
1064.1000;0.2483;0.2884;
1064.4000;0.2475;0.2884;
1064.7000;0.2475;0.3030;
1065.0000;0.2483;0.2981;
1065.3000;0.2483;0.2933;
1065.6000;0.2491;0.2933;
1065.9000;0.2352;0.2569;
1066.2000;0.2475;0.2860;
1066.5000;0.2491;0.2957;
1066.8000;0.2466;0.2981;
1067.1000;0.2458;0.2933;
1067.4000;0.2475;0.2957;
1067.7000;0.2458;0.2957;
1068.0000;0.2466;0.2908;
1068.3000;0.2507;0.3078;
1068.6000;0.2466;0.2908;
1068.9000;0.2483;0.2933;
1069.2000;0.2450;0.2908;
1069.5000;0.2523;0.3078;
1069.8000;0.2475;0.2957;
1070.1000;0.2483;0.3054;
1070.4000;0.2475;0.3030;
1070.7000;0.2458;0.3054;
1071.0000;0.2475;0.3102;
1071.3000;0.2483;0.2981;
1071.6000;0.2483;0.2981;
1071.9000;0.2442;0.2933;
1072.2000;0.2442;0.2933;
1072.5000;0.2475;0.2981;
1072.8000;0.2491;0.3030;
1073.1000;0.2475;0.3005;
1073.4000;0.2475;0.2908;
1073.7000;0.2483;0.2957;
1074.0000;0.2483;0.2981;
1074.3000;0.2483;0.2981;
1074.6000;0.2483;0.2957;
1074.9000;0.2475;0.2957;
1075.2000;0.2466;0.2933;
1075.5000;0.2523;0.2981;
1075.8000;0.2491;0.2933;
1076.1000;0.2491;0.2908;
1076.4000;0.2483;0.2884;
1076.7000;0.2475;0.2884;
1077.0000;0.2466;0.2884;
1077.3000;0.2466;0.2933;
1077.6000;0.2475;0.2981;
1077.9000;0.2483;0.2908;
1078.2000;0.2466;0.2908;
1078.5000;0.2442;0.2860;
1078.8000;0.2418;0.2957;
1079.1000;0.2450;0.3054;
1079.4000;0.2523;0.3272;
1079.7000;0.2466;0.3030;
1080.0000;0.2458;0.3054;
1080.3000;0.2466;0.3054;
1080.6000;0.2466;0.3030;
1080.9000;0.2450;0.3078;
1081.2000;0.2483;0.3078;
1081.5000;0.2483;0.3054;
1081.8000;0.2532;0.3224;
1082.1000;0.2483;0.3078;
1082.4000;0.2450;0.3030;
1082.7000;0.2466;0.3151;
1083.0000;0.2426;0.2933;
1083.3000;0.2466;0.3127;
1083.6000;0.2450;0.3078;
1083.9000;0.2442;0.2933;
1084.2000;0.2466;0.2933;
1084.5000;0.2540;0.3224;
1084.8000;0.2458;0.2957;
1085.1000;0.2483;0.3078;
1085.4000;0.2466;0.3127;
1085.7000;0.2491;0.3199;
1086.0000;0.2475;0.3224;
1086.3000;0.2475;0.3248;
1086.6000;0.2491;0.3345;
1086.9000;0.2466;0.3248;
1087.2000;0.2466;0.3224;
1087.5000;0.2450;0.3175;
1087.8000;0.2466;0.3127;
1088.1000;0.2483;0.3102;
1088.4000;0.2466;0.3078;
1088.7000;0.2458;0.2957;
1089.0000;0.2491;0.3151;
1089.3000;0.2540;0.3296;
1089.6000;0.2466;0.2981;
1089.9000;0.2466;0.2957;
1090.2000;0.2475;0.2933;
1090.5000;0.2580;0.3296;
1090.8000;0.2466;0.3030;
1091.1000;0.2475;0.3175;
1091.4000;0.2475;0.3248;
1091.7000;0.2450;0.3127;
1092.0000;0.2475;0.3175;
1092.3000;0.2458;0.3102;
1092.6000;0.2466;0.3102;
1092.9000;0.2523;0.3248;
1093.2000;0.2450;0.3102;
1093.5000;0.2475;0.3054;
1093.8000;0.2466;0.3127;
1094.1000;0.2458;0.3175;
1094.4000;0.2466;0.3224;
1094.7000;0.2450;0.3151;
1095.0000;0.2409;0.2981;
1095.3000;0.2466;0.3151;
1095.6000;0.2450;0.3078;
1095.9000;0.2434;0.3054;
1096.2000;0.2483;0.3127;
1096.5000;0.2458;0.3175;
1096.8000;0.2466;0.3175;
1097.1000;0.2458;0.3127;
1097.4000;0.2466;0.3102;
1097.7000;0.2499;0.3175;
1098.0000;0.2434;0.3054;
1098.3000;0.2483;0.3224;
1098.6000;0.2466;0.3296;
1098.9000;0.2361;0.2957;
1099.2000;0.2475;0.3272;
1099.5000;0.2483;0.3345;
1099.8000;0.2466;0.3296;
1100.1000;0.2418;0.3199;
1100.4000;0.2475;0.3345;
1100.7000;0.2450;0.3175;
1101.0000;0.2466;0.3175;
1101.3000;0.2483;0.3272;
1101.6000;0.2483;0.3345;
1101.9000;0.2483;0.3417;
1102.2000;0.2483;0.3442;
1102.5000;0.2466;0.3345;
1102.8000;0.2466;0.3345;
1103.1000;0.2475;0.3296;
1103.4000;0.2483;0.3224;
1103.7000;0.2442;0.3224;
1104.0000;0.2466;0.3175;
1104.3000;0.2466;0.3199;
1104.6000;0.2564;0.3466;
1104.9000;0.2483;0.3272;
1105.2000;0.2401;0.2957;
1105.5000;0.2393;0.2908;
1105.8000;0.2483;0.3102;
1106.1000;0.2483;0.3078;
1106.4000;0.2466;0.3005;
1106.7000;0.2491;0.3030;
1107.0000;0.2434;0.2860;
1107.3000;0.2483;0.3054;
1107.6000;0.2540;0.3248;
1107.9000;0.2466;0.3054;
1108.2000;0.2434;0.2981;
1108.5000;0.2589;0.3345;
1108.8000;0.2466;0.3127;
1109.1000;0.2458;0.3199;
1109.4000;0.2466;0.3175;
1109.7000;0.2540;0.3345;
1110.0000;0.2483;0.3199;
1110.3000;0.2450;0.3102;
1110.6000;0.2491;0.3127;
1110.9000;0.2523;0.3272;
1111.2000;0.2475;0.3054;
1111.5000;0.2532;0.3272;
1111.8000;0.2466;0.3127;
1112.1000;0.2491;0.3199;
1112.4000;0.2532;0.3369;
1112.7000;0.2475;0.3102;
1113.0000;0.2475;0.3102;
1113.3000;0.2483;0.3127;
1113.6000;0.2483;0.3151;
1113.9000;0.2450;0.3151;
1114.2000;0.2466;0.3175;
1114.5000;0.2491;0.3272;
1114.8000;0.2475;0.3272;
1115.1000;0.2491;0.3199;
1115.4000;0.2450;0.3030;
1115.7000;0.2491;0.3127;
1116.0000;0.2466;0.3054;
1116.3000;0.2475;0.3127;
1116.6000;0.2475;0.3175;
1116.9000;0.2434;0.3054;
1117.2000;0.2466;0.3224;
1117.5000;0.2483;0.3272;
1117.8000;0.2466;0.3175;
1118.1000;0.2450;0.3151;
1118.4000;0.2458;0.3199;
1118.7000;0.2450;0.3175;
1119.0000;0.2491;0.3224;
1119.3000;0.2475;0.3151;
1119.6000;0.2442;0.3127;
1119.9000;0.2483;0.3151;
1120.2000;0.2483;0.3102;
1120.5000;0.2458;0.3005;
1120.8000;0.2466;0.3030;
1121.1000;0.2507;0.3127;
1121.4000;0.2491;0.2981;
1121.7000;0.2483;0.3005;
1122.0000;0.2491;0.3054;
1122.3000;0.2483;0.3078;
1122.6000;0.2491;0.3078;
1122.9000;0.2475;0.2981;
1123.2000;0.2466;0.3005;
1123.5000;0.2491;0.3078;
1123.8000;0.2450;0.3054;
1124.1000;0.2458;0.2981;
1124.4000;0.2491;0.3054;
1124.7000;0.2475;0.2981;
1125.0000;0.2475;0.3030;
1125.3000;0.2491;0.3127;
1125.6000;0.2458;0.3127;
1125.9000;0.2466;0.3175;
1126.2000;0.2475;0.3272;
1126.5000;0.2442;0.3224;
1126.8000;0.2466;0.3272;
1127.1000;0.2442;0.3175;
1127.4000;0.2475;0.3102;
1127.7000;0.2475;0.3151;
1128.0000;0.2523;0.3248;
1128.3000;0.2458;0.3030;
1128.6000;0.2466;0.3054;
1128.9000;0.2475;0.3151;
1129.2000;0.2597;0.3442;
1129.5000;0.2434;0.2981;
1129.8000;0.2458;0.3102;
1130.1000;0.2548;0.3296;
1130.4000;0.2475;0.3151;
1130.7000;0.2418;0.2981;
1131.0000;0.2352;0.2787;
1131.3000;0.2483;0.3078;
1131.6000;0.2426;0.3078;
1131.9000;0.2589;0.3636;
1132.2000;0.2475;0.3320;
1132.5000;0.2466;0.3272;
1132.8000;0.2475;0.3320;
1133.1000;0.2548;0.3417;
1133.4000;0.2466;0.3199;
1133.7000;0.2475;0.3175;
1134.0000;0.2499;0.3248;
1134.3000;0.2483;0.3199;
1134.6000;0.2491;0.3272;
1134.9000;0.2466;0.3224;
1135.2000;0.2483;0.3224;
1135.5000;0.2483;0.3224;
1135.8000;0.2475;0.3272;
1136.1000;0.2466;0.3224;
1136.4000;0.2491;0.3248;
1136.7000;0.2483;0.3151;
1137.0000;0.2458;0.3102;
1137.3000;0.2475;0.3054;
1137.6000;0.2499;0.3054;
1137.9000;0.2450;0.2884;
1138.2000;0.2466;0.3030;
1138.5000;0.2458;0.3102;
1138.8000;0.2466;0.3199;
1139.1000;0.2483;0.3199;
1139.4000;0.2499;0.3199;
1139.7000;0.2475;0.3151;
1140.0000;0.2491;0.3199;
1140.3000;0.2483;0.3272;
1140.6000;0.2466;0.3296;
1140.9000;0.2466;0.3248;
1141.2000;0.2483;0.3224;
1141.5000;0.2458;0.3224;
1141.8000;0.2475;0.3248;
1142.1000;0.2475;0.3175;
1142.4000;0.2475;0.3127;
1142.7000;0.2466;0.3078;
1143.0000;0.2483;0.3127;
1143.3000;0.2466;0.3078;
1143.6000;0.2475;0.3175;
1143.9000;0.2466;0.3151;
1144.2000;0.2466;0.3296;
1144.5000;0.2483;0.3466;
1144.8000;0.2507;0.3442;
1145.1000;0.2483;0.3320;
1145.4000;0.2466;0.3272;
1145.7000;0.2507;0.3296;
1146.0000;0.2409;0.3030;
1146.3000;0.2475;0.3151;
1146.6000;0.2523;0.3345;
1146.9000;0.2475;0.3248;
1147.2000;0.2507;0.3224;
1147.5000;0.2458;0.3078;
1147.8000;0.2523;0.3224;
1148.1000;0.2540;0.3369;
1148.4000;0.2475;0.3127;
1148.7000;0.2466;0.3199;
1149.0000;0.2466;0.3224;
1149.3000;0.2466;0.3248;
1149.6000;0.2491;0.3248;
1149.9000;0.2466;0.3127;
1150.2000;0.2483;0.3127;
1150.5000;0.2458;0.2981;
1150.8000;0.2450;0.2981;
1151.1000;0.2458;0.3005;
1151.4000;0.2466;0.3078;
1151.7000;0.2483;0.3224;
1152.0000;0.2426;0.3175;
1152.3000;0.2466;0.3272;
1152.6000;0.2532;0.3369;
1152.9000;0.2466;0.3175;
1153.2000;0.2475;0.3102;
1153.5000;0.2466;0.3054;
1153.8000;0.2458;0.2981;
1154.1000;0.2466;0.3054;
1154.4000;0.2466;0.2981;
1154.7000;0.2475;0.3030;
1155.0000;0.2475;0.3005;
1155.3000;0.2458;0.2981;
1155.6000;0.2466;0.3102;
1155.9000;0.2475;0.3054;
1156.2000;0.2466;0.3005;
1156.5000;0.2466;0.3102;
1156.8000;0.2483;0.3127;
1157.1000;0.2491;0.3151;
1157.4000;0.2483;0.3127;
1157.7000;0.2483;0.3151;
1158.0000;0.2475;0.3175;
1158.3000;0.2475;0.3151;
1158.6000;0.2466;0.3199;
1158.9000;0.2475;0.3175;
1159.2000;0.2466;0.3102;
1159.5000;0.2458;0.3102;
1159.8000;0.2475;0.3127;
1160.1000;0.2458;0.3102;
1160.4000;0.2442;0.3054;
1160.7000;0.2483;0.3127;
1161.0000;0.2483;0.3054;
1161.3000;0.2466;0.2957;
1161.6000;0.2458;0.2957;
1161.9000;0.2466;0.3078;
1162.2000;0.2491;0.3199;
1162.5000;0.2475;0.3127;
1162.8000;0.2483;0.3078;
1163.1000;0.2475;0.3078;
1163.4000;0.2475;0.3054;
1163.7000;0.2475;0.3102;
1164.0000;0.2475;0.3127;
1164.3000;0.2491;0.3151;
1164.6000;0.2483;0.3296;
1164.9000;0.2475;0.3248;
1165.2000;0.2458;0.3127;
1165.5000;0.2466;0.3127;
1165.8000;0.2442;0.3127;
1166.1000;0.2483;0.3175;
1166.4000;0.2466;0.3102;
1166.7000;0.2515;0.3175;
1167.0000;0.2540;0.3175;
1167.3000;0.2564;0.3199;
1167.6000;0.2572;0.3224;
1167.9000;0.2434;0.2933;
1168.2000;0.2458;0.3005;
1168.5000;0.2507;0.3224;
1168.8000;0.2466;0.3127;
1169.1000;0.2426;0.2981;
1169.4000;0.2475;0.3078;
1169.7000;0.2483;0.3078;
1170.0000;0.2475;0.3054;
1170.3000;0.2466;0.3102;
1170.6000;0.2466;0.3102;
1170.9000;0.2409;0.2933;
1171.2000;0.2475;0.3151;
1171.5000;0.2458;0.2933;
1171.8000;0.2450;0.2884;
1172.1000;0.2361;0.2569;
1172.4000;0.2466;0.2884;
1172.7000;0.2450;0.2836;
1173.0000;0.2466;0.2812;
1173.3000;0.2466;0.2763;
1173.6000;0.2475;0.2763;
1173.9000;0.2475;0.2812;
1174.2000;0.2491;0.2884;
1174.5000;0.2466;0.2739;
1174.8000;0.2442;0.2739;
1175.1000;0.2458;0.2739;
1175.4000;0.2442;0.2593;
1175.7000;0.2458;0.2618;
1176.0000;0.2483;0.2642;
1176.3000;0.2466;0.2690;
1176.6000;0.2442;0.2666;
1176.9000;0.2466;0.2715;
1177.2000;0.2466;0.2739;
1177.5000;0.2458;0.2787;
1177.8000;0.2466;0.2787;
1178.1000;0.2450;0.2715;
1178.4000;0.2475;0.2763;
1178.7000;0.2466;0.2860;
1179.0000;0.2475;0.2908;
1179.3000;0.2450;0.2763;
1179.6000;0.2352;0.2521;
1179.9000;0.2466;0.2763;
1180.2000;0.2580;0.2981;
1180.5000;0.2458;0.2739;
1180.8000;0.2418;0.2618;
1181.1000;0.2475;0.2812;
1181.4000;0.2475;0.2763;
1181.7000;0.2483;0.2812;
1182.0000;0.2466;0.2739;
1182.3000;0.2466;0.2787;
1182.6000;0.2483;0.2933;
1182.9000;0.2475;0.2787;
1183.2000;0.2475;0.2763;
1183.5000;0.2466;0.2787;
1183.8000;0.2507;0.2884;
1184.1000;0.2475;0.2787;
1184.4000;0.2532;0.2957;
1184.7000;0.2483;0.2836;
1185.0000;0.2483;0.2860;
1185.3000;0.2499;0.2884;
1185.6000;0.2466;0.2812;
1185.9000;0.2466;0.2763;
1186.2000;0.2483;0.2763;
1186.5000;0.2475;0.2715;
1186.8000;0.2491;0.2836;
1187.1000;0.2466;0.2884;
1187.4000;0.2475;0.2884;
1187.7000;0.2434;0.2884;
1188.0000;0.2450;0.3030;
1188.3000;0.2483;0.3054;
1188.6000;0.2483;0.3030;
1188.9000;0.2507;0.3054;
1189.2000;0.2483;0.3005;
1189.5000;0.2475;0.2957;
1189.8000;0.2466;0.2908;
1190.1000;0.2475;0.2957;
1190.4000;0.2466;0.2933;
1190.7000;0.2458;0.2981;
1191.0000;0.2450;0.2981;
1191.3000;0.2515;0.3054;
1191.6000;0.2466;0.2957;
1191.9000;0.2466;0.3030;
1192.2000;0.2515;0.3151;
1192.5000;0.2466;0.2860;
1192.8000;0.2475;0.2981;
1193.1000;0.2409;0.2860;
1193.4000;0.2466;0.2957;
1193.7000;0.2475;0.2933;
1194.0000;0.2556;0.3078;
1194.3000;0.2483;0.2884;
1194.6000;0.2475;0.2836;
1194.9000;0.2466;0.2787;
1195.2000;0.2475;0.2690;
1195.5000;0.2483;0.2690;
1195.8000;0.2483;0.2690;
1196.1000;0.2458;0.2763;
1196.4000;0.2466;0.2860;
1196.7000;0.2466;0.3005;
1197.0000;0.2483;0.3054;
1197.3000;0.2483;0.2957;
1197.6000;0.2458;0.2860;
1197.9000;0.2483;0.2981;
1198.2000;0.2475;0.3005;
1198.5000;0.2458;0.2981;
1198.8000;0.2475;0.3030;
1199.1000;0.2499;0.3151;
1199.4000;0.2466;0.3102;
1199.7000;0.2466;0.3054;
1200.0000;0.2540;0.3320;
1200.3000;0.2466;0.3127;
1200.6000;0.2580;0.3442;
1200.9000;0.2483;0.3175;
1201.2000;0.2466;0.3151;
1201.5000;0.2418;0.3005;
1201.8000;0.2580;0.3369;
1202.1000;0.2450;0.3005;
1202.4000;0.2466;0.3102;
1202.7000;0.2466;0.3054;
1203.0000;0.2507;0.3054;
1203.3000;0.2475;0.3005;
1203.6000;0.2458;0.2933;
1203.9000;0.2475;0.2957;
1204.2000;0.2426;0.2836;
1204.5000;0.2466;0.2957;
1204.8000;0.2442;0.2860;
1205.1000;0.2491;0.2884;
1205.4000;0.2491;0.2860;
1205.7000;0.2483;0.2860;
1206.0000;0.2483;0.2787;
1206.3000;0.2475;0.2812;
1206.6000;0.2475;0.2836;
1206.9000;0.2499;0.2981;
1207.2000;0.2475;0.2957;
1207.5000;0.2450;0.2836;
1207.8000;0.2491;0.2933;
1208.1000;0.2483;0.2812;
1208.4000;0.2434;0.2763;
1208.7000;0.2458;0.2763;
1209.0000;0.2483;0.2763;
1209.3000;0.2483;0.2812;
1209.6000;0.2491;0.2884;
1209.9000;0.2483;0.2787;
1210.2000;0.2475;0.2812;
1210.5000;0.2483;0.2860;
1210.8000;0.2450;0.2884;
1211.1000;0.2466;0.2860;
1211.4000;0.2426;0.2715;
1211.7000;0.2401;0.2690;
1212.0000;0.2466;0.2860;
1212.3000;0.2450;0.2763;
1212.6000;0.2450;0.2787;
1212.9000;0.2483;0.2860;
1213.2000;0.2475;0.2908;
1213.5000;0.2475;0.2933;
1213.8000;0.2466;0.2908;
1214.1000;0.2523;0.2908;
1214.4000;0.2475;0.2836;
1214.7000;0.2483;0.2908;
1215.0000;0.2466;0.2933;
1215.3000;0.2532;0.3030;
1215.6000;0.2466;0.2739;
1215.9000;0.2475;0.2690;
1216.2000;0.2401;0.2545;
1216.5000;0.2475;0.2908;
1216.8000;0.2475;0.2981;
1217.1000;0.2263;0.2424;
1217.4000;0.2491;0.2933;
1217.7000;0.2475;0.2957;
1218.0000;0.2466;0.2933;
1218.3000;0.2458;0.2933;
1218.6000;0.2515;0.3151;
1218.9000;0.2475;0.3054;
1219.2000;0.2483;0.3030;
1219.5000;0.2466;0.3030;
1219.8000;0.2507;0.3102;
1220.1000;0.2515;0.3151;
1220.4000;0.2466;0.3102;
1220.7000;0.2466;0.3054;
1221.0000;0.2507;0.3054;
1221.3000;0.2483;0.2981;
1221.6000;0.2491;0.3151;
1221.9000;0.2458;0.3102;
1222.2000;0.2515;0.3272;
1222.5000;0.2434;0.3054;
1222.8000;0.2475;0.3078;
1223.1000;0.2466;0.3127;
1223.4000;0.2475;0.3127;
1223.7000;0.2466;0.3151;
1224.0000;0.2466;0.3224;
1224.3000;0.2450;0.3151;
1224.6000;0.2491;0.3199;
1224.9000;0.2483;0.3054;
1225.2000;0.2483;0.3151;
1225.5000;0.2426;0.2908;
1225.8000;0.2401;0.2836;
1226.1000;0.2450;0.2908;
1226.4000;0.2466;0.2981;
1226.7000;0.2466;0.2957;
1227.0000;0.2475;0.2957;
1227.3000;0.2475;0.2933;
1227.6000;0.2483;0.2957;
1227.9000;0.2458;0.2763;
1228.2000;0.2507;0.2957;
1228.5000;0.2491;0.2908;
1228.8000;0.2483;0.2933;
1229.1000;0.2466;0.2884;
1229.4000;0.2499;0.3054;
1229.7000;0.2475;0.2933;
1230.0000;0.2483;0.3005;
1230.3000;0.2491;0.2981;
1230.6000;0.2475;0.2981;
1230.9000;0.2491;0.2957;
1231.2000;0.2491;0.2908;
1231.5000;0.2475;0.2933;
1231.8000;0.2426;0.2860;
1232.1000;0.2499;0.3151;
1232.4000;0.2418;0.2957;
1232.7000;0.2475;0.3127;
1233.0000;0.2491;0.3078;
1233.3000;0.2475;0.3030;
1233.6000;0.2491;0.2981;
1233.9000;0.2458;0.2957;
1234.2000;0.2458;0.2933;
1234.5000;0.2442;0.2957;
1234.8000;0.2466;0.3005;
1235.1000;0.2491;0.3054;
1235.4000;0.2434;0.2884;
1235.7000;0.2491;0.3127;
1236.0000;0.2450;0.3078;
1236.3000;0.2475;0.3127;
1236.6000;0.2466;0.3175;
1236.9000;0.2458;0.3127;
1237.2000;0.2475;0.3127;
1237.5000;0.2507;0.3151;
1237.8000;0.2483;0.3078;
1238.1000;0.2483;0.3102;
1238.4000;0.2483;0.3030;
1238.7000;0.2483;0.3054;
1239.0000;0.2475;0.3005;
1239.3000;0.2377;0.2715;
1239.6000;0.2483;0.2981;
1239.9000;0.2458;0.2957;
1240.2000;0.2483;0.3030;
1240.5000;0.2475;0.3102;
1240.8000;0.2491;0.3054;
1241.1000;0.2491;0.3005;
1241.4000;0.2450;0.2860;
1241.7000;0.2466;0.2787;
1242.0000;0.2450;0.2642;
1242.3000;0.2450;0.2593;
1242.6000;0.2442;0.2593;
1242.9000;0.2466;0.2642;
1243.2000;0.2466;0.2593;
1243.5000;0.2483;0.2642;
1243.8000;0.2475;0.2642;
1244.1000;0.2426;0.2521;
1244.4000;0.2491;0.2739;
1244.7000;0.2475;0.2715;
1245.0000;0.2466;0.2763;
1245.3000;0.2466;0.2787;
1245.6000;0.2426;0.2666;
1245.9000;0.2483;0.2763;
1246.2000;0.2475;0.2812;
1246.5000;0.2515;0.3005;
1246.8000;0.2475;0.2908;
1247.1000;0.2475;0.2981;
1247.4000;0.2466;0.2860;
1247.7000;0.2475;0.2908;
1248.0000;0.2458;0.2884;
1248.3000;0.2466;0.2836;
1248.6000;0.2483;0.2933;
1248.9000;0.2466;0.2860;
1249.2000;0.2418;0.2763;
1249.5000;0.2507;0.3054;
1249.8000;0.2466;0.2933;
1250.1000;0.2491;0.3102;
1250.4000;0.2483;0.3078;
1250.7000;0.2466;0.3054;
1251.0000;0.2475;0.3175;
1251.3000;0.2475;0.3175;
1251.6000;0.2499;0.3224;
1251.9000;0.2483;0.3199;
1252.2000;0.2491;0.3127;
1252.5000;0.2466;0.3054;
1252.8000;0.2475;0.3054;
1253.1000;0.2466;0.2908;
1253.4000;0.2458;0.2981;
1253.7000;0.2458;0.3005;
1254.0000;0.2491;0.3102;
1254.3000;0.2483;0.3054;
1254.6000;0.2466;0.3030;
1254.9000;0.2450;0.3054;
1255.2000;0.2491;0.3127;
1255.5000;0.2507;0.3102;
1255.8000;0.2483;0.3054;
1256.1000;0.2458;0.3030;
1256.4000;0.2475;0.3078;
1256.7000;0.2491;0.3127;
1257.0000;0.2475;0.3054;
1257.3000;0.2352;0.2763;
1257.6000;0.2466;0.3005;
1257.9000;0.2466;0.3054;
1258.2000;0.2483;0.3078;
1258.5000;0.2434;0.2908;
1258.8000;0.2458;0.3054;
1259.1000;0.2483;0.3078;
1259.4000;0.2458;0.3054;
1259.7000;0.2466;0.3054;
1260.0000;0.2499;0.3175;
1260.3000;0.2507;0.3248;
1260.6000;0.2483;0.3224;
1260.9000;0.2515;0.3320;
1261.2000;0.2515;0.3272;
1261.5000;0.2491;0.3199;
1261.8000;0.2466;0.3127;
1262.1000;0.2532;0.3369;
1262.4000;0.2466;0.3224;
1262.7000;0.2475;0.3127;
1263.0000;0.2434;0.3127;
1263.3000;0.2475;0.3345;
1263.6000;0.2491;0.3442;
1263.9000;0.2483;0.3272;
1264.2000;0.2491;0.3272;
1264.5000;0.2475;0.3199;
1264.8000;0.2458;0.3224;
1265.1000;0.2442;0.3199;
1265.4000;0.2483;0.3199;
1265.7000;0.2507;0.3272;
1266.0000;0.2499;0.3224;
1266.3000;0.2458;0.3102;
1266.6000;0.2475;0.3199;
1266.9000;0.2466;0.3199;
1267.2000;0.2483;0.3296;
1267.5000;0.2483;0.3296;
1267.8000;0.2442;0.3151;
1268.1000;0.2491;0.3199;
1268.4000;0.2418;0.3005;
1268.7000;0.2377;0.2860;
1269.0000;0.2466;0.3102;
1269.3000;0.2475;0.3078;
1269.6000;0.2466;0.3078;
1269.9000;0.2466;0.3030;
1270.2000;0.2475;0.3030;
1270.5000;0.2434;0.2933;
1270.8000;0.2491;0.3175;
1271.1000;0.2466;0.3102;
1271.4000;0.2466;0.3151;
1271.7000;0.2475;0.3127;
1272.0000;0.2466;0.3175;
1272.3000;0.2458;0.3078;
1272.6000;0.2475;0.3151;
1272.9000;0.2442;0.3078;
1273.2000;0.2483;0.3151;
1273.5000;0.2466;0.3054;
1273.8000;0.2466;0.3054;
1274.1000;0.2458;0.3054;
1274.4000;0.2475;0.3102;
1274.7000;0.2483;0.3054;
1275.0000;0.2466;0.3199;
1275.3000;0.2466;0.3248;
1275.6000;0.2475;0.3248;
1275.9000;0.2483;0.3151;
1276.2000;0.2483;0.3199;
1276.5000;0.2442;0.3127;
1276.8000;0.2483;0.3199;
1277.1000;0.2491;0.3175;
1277.4000;0.2556;0.3272;
1277.7000;0.2434;0.2933;
1278.0000;0.2466;0.2933;
1278.3000;0.2434;0.2908;
1278.6000;0.2475;0.2981;
1278.9000;0.2466;0.2981;
1279.2000;0.2475;0.2981;
1279.5000;0.2475;0.2981;
1279.8000;0.2475;0.2884;
1280.1000;0.2499;0.2957;
1280.4000;0.2499;0.3030;
1280.7000;0.2475;0.3078;
1281.0000;0.2491;0.3030;
1281.3000;0.2466;0.2933;
1281.6000;0.2458;0.2884;
1281.9000;0.2475;0.2957;
1282.2000;0.2475;0.3005;
1282.5000;0.2466;0.3054;
1282.8000;0.2466;0.3078;
1283.1000;0.2491;0.3224;
1283.4000;0.2483;0.3272;
1283.7000;0.2483;0.3199;
1284.0000;0.2458;0.3224;
1284.3000;0.2475;0.3127;
1284.6000;0.2491;0.3078;
1284.9000;0.2458;0.3005;
1285.2000;0.2377;0.2812;
1285.5000;0.2466;0.3102;
1285.8000;0.2475;0.3151;
1286.1000;0.2434;0.3005;
1286.4000;0.2466;0.3102;
1286.7000;0.2450;0.3078;
1287.0000;0.2426;0.3005;
1287.3000;0.2572;0.3442;
1287.6000;0.2475;0.3127;
1287.9000;0.2564;0.3296;
1288.2000;0.2450;0.2908;
1288.5000;0.2540;0.3127;
1288.8000;0.2491;0.3030;
1289.1000;0.2466;0.2981;
1289.4000;0.2466;0.3005;
1289.7000;0.2426;0.3030;
1290.0000;0.2475;0.3102;
1290.3000;0.2475;0.3102;
1290.6000;0.2466;0.3151;
1290.9000;0.2491;0.3127;
1291.2000;0.2483;0.3127;
1291.5000;0.2475;0.3151;
1291.8000;0.2475;0.3199;
1292.1000;0.2475;0.3224;
1292.4000;0.2483;0.3127;
1292.7000;0.2352;0.2836;
1293.0000;0.2475;0.3151;
1293.3000;0.2483;0.3199;
1293.6000;0.2450;0.3199;
1293.9000;0.2475;0.3248;
1294.2000;0.2475;0.3175;
1294.5000;0.2466;0.3151;
1294.8000;0.2434;0.3078;
1295.1000;0.2442;0.3151;
1295.4000;0.2466;0.3199;
1295.7000;0.2466;0.3248;
1296.0000;0.2344;0.2908;
1296.3000;0.2483;0.3296;
1296.6000;0.2475;0.3296;
1296.9000;0.2466;0.3248;
1297.2000;0.2475;0.3320;
1297.5000;0.2475;0.3369;
1297.8000;0.2458;0.3272;
1298.1000;0.2466;0.3151;
1298.4000;0.2491;0.3224;
1298.7000;0.2491;0.3175;
1299.0000;0.2475;0.3151;
1299.3000;0.2483;0.3127;
1299.6000;0.2483;0.3102;
1299.9000;0.2458;0.3030;
1300.2000;0.2491;0.3127;
1300.5000;0.2491;0.3224;
1300.8000;0.2475;0.3175;
1301.1000;0.2483;0.3175;
1301.4000;0.2466;0.3199;
1301.7000;0.2475;0.3224;
1302.0000;0.2475;0.3199;
1302.3000;0.2483;0.3199;
1302.6000;0.2466;0.3175;
1302.9000;0.2475;0.3151;
1303.2000;0.2475;0.3127;
1303.5000;0.2466;0.3151;
1303.8000;0.2483;0.3248;
1304.1000;0.2442;0.3175;
1304.4000;0.2466;0.3199;
1304.7000;0.2418;0.3005;
1305.0000;0.2483;0.3224;
1305.3000;0.2483;0.3345;
1305.6000;0.2475;0.3345;
1305.9000;0.2418;0.3151;
1306.2000;0.2491;0.3369;
1306.5000;0.2499;0.3369;
1306.8000;0.2499;0.3248;
1307.1000;0.2483;0.3175;
1307.4000;0.2475;0.3199;
1307.7000;0.2458;0.3199;
1308.0000;0.2458;0.3224;
1308.3000;0.2426;0.3151;
1308.6000;0.2466;0.3248;
1308.9000;0.2458;0.3272;
1309.2000;0.2466;0.3248;
1309.5000;0.2458;0.3272;
1309.8000;0.2450;0.3272;
1310.1000;0.2466;0.3248;
1310.4000;0.2475;0.3224;
1310.7000;0.2475;0.3248;
1311.0000;0.2483;0.3127;
1311.3000;0.2556;0.3369;
1311.6000;0.2483;0.3175;
1311.9000;0.2491;0.3248;
1312.2000;0.2483;0.3296;
1312.5000;0.2475;0.3248;
1312.8000;0.2483;0.3151;
1313.1000;0.2466;0.3127;
1313.4000;0.2491;0.3175;
1313.7000;0.2491;0.3127;
1314.0000;0.2499;0.3151;
1314.3000;0.2475;0.3102;
1314.6000;0.2491;0.3127;
1314.9000;0.2475;0.3078;
1315.2000;0.2499;0.3199;
1315.5000;0.2475;0.3078;
1315.8000;0.2466;0.3030;
1316.1000;0.2458;0.3054;
1316.4000;0.2532;0.3296;
1316.7000;0.2458;0.3151;
1317.0000;0.2401;0.3030;
1317.3000;0.2458;0.3102;
1317.6000;0.2499;0.3199;
1317.9000;0.2450;0.3078;
1318.2000;0.2377;0.2981;
1318.5000;0.2426;0.2981;
1318.8000;0.2466;0.3127;
1319.1000;0.2491;0.3175;
1319.4000;0.2475;0.3175;
1319.7000;0.2409;0.3030;
1320.0000;0.2523;0.3296;
1320.3000;0.2491;0.3272;
1320.6000;0.2475;0.3199;
1320.9000;0.2475;0.3296;
1321.2000;0.2475;0.3296;
1321.5000;0.2499;0.3345;
1321.8000;0.2475;0.3248;
1322.1000;0.2475;0.3199;
1322.4000;0.2475;0.3175;
1322.7000;0.2466;0.3127;
1323.0000;0.2466;0.3078;
1323.3000;0.2450;0.3054;
1323.6000;0.2466;0.3127;
1323.9000;0.2483;0.3224;
1324.2000;0.2499;0.3272;
1324.5000;0.2483;0.3296;
1324.8000;0.2515;0.3369;
1325.1000;0.2475;0.3272;
1325.4000;0.2458;0.3199;
1325.7000;0.2466;0.3199;
1326.0000;0.2458;0.3127;
1326.3000;0.2483;0.3127;
1326.6000;0.2483;0.3224;
1326.9000;0.2475;0.3272;
1327.2000;0.2466;0.3224;
1327.5000;0.2475;0.3248;
1327.8000;0.2475;0.3199;
1328.1000;0.2458;0.3102;
1328.4000;0.2491;0.3151;
1328.7000;0.2458;0.3102;
1329.0000;0.2475;0.3175;
1329.3000;0.2483;0.3199;
1329.6000;0.2483;0.3224;
1329.9000;0.2466;0.3175;
1330.2000;0.2483;0.3248;
1330.5000;0.2458;0.3102;
1330.8000;0.2483;0.3102;
1331.1000;0.2458;0.3078;
1331.4000;0.2483;0.3224;
1331.7000;0.2442;0.3102;
1332.0000;0.2450;0.3151;
1332.3000;0.2466;0.3175;
1332.6000;0.2475;0.3248;
1332.9000;0.2434;0.3175;
1333.2000;0.2401;0.3127;
1333.5000;0.2475;0.3296;
1333.8000;0.2475;0.3224;
1334.1000;0.2409;0.3078;
1334.4000;0.2483;0.3296;
1334.7000;0.2475;0.3296;
1335.0000;0.2475;0.3199;
1335.3000;0.2458;0.3151;
1335.6000;0.2466;0.3175;
1335.9000;0.2483;0.3175;
1336.2000;0.2475;0.3224;
1336.5000;0.2458;0.3151;
1336.8000;0.2483;0.3199;
1337.1000;0.2458;0.3102;
1337.4000;0.2393;0.2957;
1337.7000;0.2458;0.3175;
1338.0000;0.2483;0.3248;
1338.3000;0.2475;0.3175;
1338.6000;0.2450;0.3054;
1338.9000;0.2483;0.3078;
1339.2000;0.2450;0.3030;
1339.5000;0.2491;0.3199;
1339.8000;0.2483;0.3127;
1340.1000;0.2466;0.3151;
1340.4000;0.2434;0.3078;
1340.7000;0.2409;0.2908;
1341.0000;0.2499;0.3127;
1341.3000;0.2483;0.3030;
1341.6000;0.2483;0.3005;
1341.9000;0.2442;0.2981;
1342.2000;0.2507;0.3175;
1342.5000;0.2580;0.3417;
1342.8000;0.2466;0.3199;
1343.1000;0.2434;0.3127;
1343.4000;0.2475;0.3248;
1343.7000;0.2540;0.3393;
1344.0000;0.2540;0.3442;
1344.3000;0.2483;0.3320;
1344.6000;0.2475;0.3248;
1344.9000;0.2475;0.3199;
1345.2000;0.2475;0.3224;
1345.5000;0.2483;0.3224;
1345.8000;0.2466;0.3224;
1346.1000;0.2466;0.3199;
1346.4000;0.2475;0.3199;
1346.7000;0.2475;0.3175;
1347.0000;0.2483;0.3175;
1347.3000;0.2458;0.3175;
1347.6000;0.2466;0.3248;
1347.9000;0.2475;0.3296;
1348.2000;0.2458;0.3296;
1348.5000;0.2458;0.3320;
1348.8000;0.2466;0.3296;
1349.1000;0.2475;0.3320;
1349.4000;0.2450;0.3296;
1349.7000;0.2499;0.3345;
1350.0000;0.2458;0.3224;
1350.3000;0.2466;0.3272;
1350.6000;0.2458;0.3199;
1350.9000;0.2483;0.3199;
1351.2000;0.2458;0.3127;
1351.5000;0.2507;0.3175;
1351.8000;0.2475;0.3005;
1352.1000;0.2475;0.2908;
1352.4000;0.2483;0.3005;
1352.7000;0.2499;0.3102;
1353.0000;0.2475;0.3078;
1353.3000;0.2483;0.3054;
1353.6000;0.2499;0.3199;
1353.9000;0.2491;0.3102;
1354.2000;0.2458;0.2908;
1354.5000;0.2483;0.2981;
1354.8000;0.2483;0.2933;
1355.1000;0.2499;0.3078;
1355.4000;0.2475;0.3030;
1355.7000;0.2466;0.3102;
1356.0000;0.2466;0.3102;
1356.3000;0.2475;0.3151;
1356.6000;0.2483;0.3199;
1356.9000;0.2475;0.3199;
1357.2000;0.2466;0.3175;
1357.5000;0.2499;0.3199;
1357.8000;0.2483;0.3151;
1358.1000;0.2532;0.3272;
1358.4000;0.2458;0.3102;
1358.7000;0.2499;0.3078;
1359.0000;0.2483;0.3102;
1359.3000;0.2466;0.3151;
1359.6000;0.2507;0.3151;
1359.9000;0.2483;0.3175;
1360.2000;0.2475;0.3199;
1360.5000;0.2466;0.3199;
1360.8000;0.2475;0.3248;
1361.1000;0.2466;0.3272;
1361.4000;0.2483;0.3320;
1361.7000;0.2475;0.3296;
1362.0000;0.2458;0.3199;
1362.3000;0.2458;0.3151;
1362.6000;0.2466;0.3151;
1362.9000;0.2475;0.3224;
1363.2000;0.2475;0.3127;
1363.5000;0.2475;0.3175;
1363.8000;0.2491;0.3151;
1364.1000;0.2491;0.3151;
1364.4000;0.2466;0.3030;
1364.7000;0.2507;0.3127;
1365.0000;0.2466;0.3078;
1365.3000;0.2475;0.3102;
1365.6000;0.2466;0.3054;
1365.9000;0.2475;0.3175;
1366.2000;0.2426;0.3054;
1366.5000;0.2483;0.3199;
1366.8000;0.2466;0.3175;
1367.1000;0.2458;0.3078;
1367.4000;0.2466;0.3127;
1367.7000;0.2475;0.3151;
1368.0000;0.2475;0.3175;
1368.3000;0.2491;0.3127;
1368.6000;0.2475;0.3127;
1368.9000;0.2491;0.3175;
1369.2000;0.2499;0.3151;
1369.5000;0.2483;0.3078;
1369.8000;0.2483;0.3030;
1370.1000;0.2450;0.3054;
1370.4000;0.2475;0.2957;
1370.7000;0.2483;0.3078;
1371.0000;0.2450;0.3030;
1371.3000;0.2475;0.3102;
1371.6000;0.2483;0.3151;
1371.9000;0.2466;0.3030;
1372.2000;0.2450;0.3030;
1372.5000;0.2458;0.3102;
1372.8000;0.2466;0.3127;
1373.1000;0.2475;0.3175;
1373.4000;0.2475;0.3248;
1373.7000;0.2466;0.3248;
1374.0000;0.2499;0.3296;
1374.3000;0.2483;0.3296;
1374.6000;0.2466;0.3224;
1374.9000;0.2499;0.3199;
1375.2000;0.2483;0.3078;
1375.5000;0.2466;0.2957;
1375.8000;0.2458;0.2860;
1376.1000;0.2483;0.2908;
1376.4000;0.2475;0.2908;
1376.7000;0.2483;0.2981;
1377.0000;0.2450;0.2860;
1377.3000;0.2491;0.2860;
1377.6000;0.2475;0.2884;
1377.9000;0.2418;0.2763;
1378.2000;0.2483;0.2933;
1378.5000;0.2483;0.2957;
1378.8000;0.2450;0.2981;
1379.1000;0.2434;0.3005;
1379.4000;0.2475;0.3127;
1379.7000;0.2442;0.2981;
1380.0000;0.2483;0.3054;
1380.3000;0.2466;0.3127;
1380.6000;0.2475;0.3199;
1380.9000;0.2466;0.3224;
1381.2000;0.2532;0.3248;
1381.5000;0.2491;0.3078;
1381.8000;0.2499;0.3151;
1382.1000;0.2466;0.2981;
1382.4000;0.2466;0.3005;
1382.7000;0.2475;0.3005;
1383.0000;0.2491;0.2981;
1383.3000;0.2458;0.2933;
1383.6000;0.2475;0.2981;
1383.9000;0.2450;0.2884;
1384.2000;0.2466;0.2957;
1384.5000;0.2483;0.2957;
1384.8000;0.2458;0.2860;
1385.1000;0.2466;0.2860;
1385.4000;0.2491;0.2957;
1385.7000;0.2475;0.2908;
1386.0000;0.2475;0.2908;
1386.3000;0.2564;0.3127;
1386.6000;0.2475;0.2860;
1386.9000;0.2491;0.2908;
1387.2000;0.2475;0.2957;
1387.5000;0.2458;0.3005;
1387.8000;0.2499;0.3102;
1388.1000;0.2491;0.3127;
1388.4000;0.2475;0.3127;
1388.7000;0.2434;0.3030;
1389.0000;0.2491;0.3127;
1389.3000;0.2475;0.3151;
1389.6000;0.2475;0.3005;
1389.9000;0.2466;0.3030;
1390.2000;0.2466;0.3030;
1390.5000;0.2483;0.3078;
1390.8000;0.2475;0.3030;
1391.1000;0.2466;0.3078;
1391.4000;0.2466;0.2933;
1391.7000;0.2466;0.2908;
1392.0000;0.2483;0.2933;
1392.3000;0.2491;0.2908;
1392.6000;0.2475;0.2981;
1392.9000;0.2385;0.2812;
1393.2000;0.2483;0.3078;
1393.5000;0.2491;0.3005;
1393.8000;0.2401;0.2690;
1394.1000;0.2466;0.2812;
1394.4000;0.2483;0.2884;
1394.7000;0.2483;0.2836;
1395.0000;0.2458;0.2884;
1395.3000;0.2475;0.2908;
1395.6000;0.2483;0.2981;
1395.9000;0.2483;0.3078;
1396.2000;0.2466;0.3030;
1396.5000;0.2466;0.2981;
1396.8000;0.2475;0.3054;
1397.1000;0.2483;0.3102;
1397.4000;0.2483;0.3005;
1397.7000;0.2483;0.2957;
1398.0000;0.2466;0.2908;
1398.3000;0.2491;0.3005;
1398.6000;0.2450;0.2884;
1398.9000;0.2466;0.2933;
1399.2000;0.2475;0.3005;
1399.5000;0.2475;0.3030;
1399.8000;0.2515;0.3127;
