time/ms;Fluo/V;P700 deltaI/I x10³;
-199.8000;0.2466;0.3005;
-199.5000;0.2458;0.2884;
-199.2000;0.2458;0.2787;
-198.9000;0.2450;0.2715;
-198.6000;0.2475;0.2763;
-198.3000;0.2458;0.2715;
-198.0000;0.2475;0.2763;
-197.7000;0.2483;0.2763;
-197.4000;0.2475;0.2690;
-197.1000;0.2483;0.2642;
-196.8000;0.2507;0.2763;
-196.5000;0.2499;0.2787;
-196.2000;0.2458;0.2666;
-195.9000;0.2475;0.2715;
-195.6000;0.2491;0.2715;
-195.3000;0.2483;0.2739;
-195.0000;0.2483;0.2763;
-194.7000;0.2475;0.2690;
-194.4000;0.2458;0.2666;
-194.1000;0.2483;0.2739;
-193.8000;0.2458;0.2690;
-193.5000;0.2466;0.2739;
-193.2000;0.2491;0.2884;
-192.9000;0.2483;0.2860;
-192.6000;0.2491;0.2957;
-192.3000;0.2507;0.3030;
-192.0000;0.2483;0.2957;
-191.7000;0.2466;0.2957;
-191.4000;0.2507;0.3078;
-191.1000;0.2418;0.2908;
-190.8000;0.2466;0.2981;
-190.5000;0.2572;0.3272;
-190.2000;0.2483;0.3054;
-189.9000;0.2483;0.3030;
-189.6000;0.2483;0.2957;
-189.3000;0.2483;0.2908;
-189.0000;0.2475;0.2836;
-188.7000;0.2475;0.2860;
-188.4000;0.2483;0.2787;
-188.1000;0.2475;0.2787;
-187.8000;0.2491;0.2763;
-187.5000;0.2483;0.2763;
-187.2000;0.2491;0.2763;
-186.9000;0.2466;0.2739;
-186.6000;0.2466;0.2763;
-186.3000;0.2458;0.2787;
-186.0000;0.2483;0.2812;
-185.7000;0.2483;0.2812;
-185.4000;0.2458;0.2812;
-185.1000;0.2483;0.2884;
-184.8000;0.2491;0.2836;
-184.5000;0.2466;0.2787;
-184.2000;0.2475;0.2812;
-183.9000;0.2466;0.2763;
-183.6000;0.2483;0.2787;
-183.3000;0.2499;0.2739;
-183.0000;0.2475;0.2642;
-182.7000;0.2466;0.2715;
-182.4000;0.2475;0.2715;
-182.1000;0.2466;0.2666;
-181.8000;0.2475;0.2763;
-181.5000;0.2475;0.2763;
-181.2000;0.2491;0.2763;
-180.9000;0.2458;0.2690;
-180.6000;0.2475;0.2763;
-180.3000;0.2458;0.2690;
-180.0000;0.2466;0.2739;
-179.7000;0.2458;0.2739;
-179.4000;0.2466;0.2787;
-179.1000;0.2434;0.2739;
-178.8000;0.2475;0.2763;
-178.5000;0.2475;0.2812;
-178.2000;0.2466;0.2787;
-177.9000;0.2377;0.2521;
-177.6000;0.2491;0.2884;
-177.3000;0.2483;0.2933;
-177.0000;0.2475;0.2787;
-176.7000;0.2483;0.2884;
-176.4000;0.2458;0.2908;
-176.1000;0.2483;0.2933;
-175.8000;0.2475;0.2860;
-175.5000;0.2466;0.2884;
-175.2000;0.2475;0.2957;
-174.9000;0.2475;0.2981;
-174.6000;0.2548;0.3199;
-174.3000;0.2475;0.2981;
-174.0000;0.2548;0.3151;
-173.7000;0.2466;0.2908;
-173.4000;0.2475;0.2908;
-173.1000;0.2483;0.2933;
-172.8000;0.2483;0.2933;
-172.5000;0.2434;0.2908;
-172.2000;0.2483;0.2981;
-171.9000;0.2475;0.2981;
-171.6000;0.2475;0.3078;
-171.3000;0.2458;0.3005;
-171.0000;0.2483;0.3030;
-170.7000;0.2483;0.3078;
-170.4000;0.2385;0.2763;
-170.1000;0.2458;0.3005;
-169.8000;0.2475;0.2981;
-169.5000;0.2483;0.3102;
-169.2000;0.2475;0.3151;
-168.9000;0.2450;0.3054;
-168.6000;0.2466;0.3127;
-168.3000;0.2483;0.3248;
-168.0000;0.2458;0.3078;
-167.7000;0.2450;0.3054;
-167.4000;0.2491;0.3078;
-167.1000;0.2434;0.2933;
-166.8000;0.2483;0.3127;
-166.5000;0.2434;0.2981;
-166.2000;0.2475;0.3078;
-165.9000;0.2442;0.2957;
-165.6000;0.2483;0.3078;
-165.3000;0.2466;0.3030;
-165.0000;0.2540;0.3320;
-164.7000;0.2450;0.3102;
-164.4000;0.2507;0.3224;
-164.1000;0.2458;0.3054;
-163.8000;0.2491;0.3102;
-163.5000;0.2442;0.3102;
-163.2000;0.2466;0.3199;
-162.9000;0.2475;0.3272;
-162.6000;0.2483;0.3151;
-162.3000;0.2475;0.3102;
-162.0000;0.2458;0.3078;
-161.7000;0.2507;0.3248;
-161.4000;0.2483;0.3248;
-161.1000;0.2491;0.3199;
-160.8000;0.2515;0.3296;
-160.5000;0.2507;0.3272;
-160.2000;0.2475;0.3175;
-159.9000;0.2532;0.3320;
-159.6000;0.2466;0.3248;
-159.3000;0.2491;0.3248;
-159.0000;0.2409;0.3127;
-158.7000;0.2466;0.3224;
-158.4000;0.2475;0.3248;
-158.1000;0.2491;0.3175;
-157.8000;0.2499;0.3102;
-157.5000;0.2499;0.3175;
-157.2000;0.2466;0.3175;
-156.9000;0.2589;0.3466;
-156.6000;0.2499;0.3224;
-156.3000;0.2466;0.3175;
-156.0000;0.2491;0.3054;
-155.7000;0.2572;0.3199;
-155.4000;0.2491;0.3005;
-155.1000;0.2491;0.3054;
-154.8000;0.2466;0.3102;
-154.5000;0.2466;0.3078;
-154.2000;0.2483;0.3030;
-153.9000;0.2540;0.3199;
-153.6000;0.2475;0.3078;
-153.3000;0.2458;0.3030;
-153.0000;0.2458;0.3030;
-152.7000;0.2466;0.3127;
-152.4000;0.2458;0.3102;
-152.1000;0.2483;0.3175;
-151.8000;0.2475;0.3248;
-151.5000;0.2385;0.2957;
-151.2000;0.2466;0.3199;
-150.9000;0.2475;0.3151;
-150.6000;0.2483;0.3175;
-150.3000;0.2475;0.3127;
-150.0000;0.2483;0.3151;
-149.7000;0.2475;0.3078;
-149.4000;0.2426;0.2957;
-149.1000;0.2491;0.3175;
-148.8000;0.2483;0.3127;
-148.5000;0.2352;0.2812;
-148.2000;0.2483;0.3078;
-147.9000;0.2466;0.3102;
-147.6000;0.2475;0.3078;
-147.3000;0.2418;0.2957;
-147.0000;0.2466;0.3127;
-146.7000;0.2475;0.3199;
-146.4000;0.2458;0.3127;
-146.1000;0.2491;0.3224;
-145.8000;0.2499;0.3296;
-145.5000;0.2499;0.3345;
-145.2000;0.2499;0.3272;
-144.9000;0.2499;0.3296;
-144.6000;0.2483;0.3248;
-144.3000;0.2491;0.3151;
-144.0000;0.2475;0.3054;
-143.7000;0.2475;0.3078;
-143.4000;0.2475;0.3151;
-143.1000;0.2466;0.3151;
-142.8000;0.2450;0.3127;
-142.5000;0.2483;0.3151;
-142.2000;0.2434;0.2981;
-141.9000;0.2572;0.3224;
-141.6000;0.2491;0.2981;
-141.3000;0.2483;0.3005;
-141.0000;0.2475;0.2884;
-140.7000;0.2466;0.2884;
-140.4000;0.2483;0.2957;
-140.1000;0.2491;0.2981;
-139.8000;0.2507;0.3030;
-139.5000;0.2499;0.2957;
-139.2000;0.2483;0.2860;
-138.9000;0.2483;0.2908;
-138.6000;0.2499;0.2933;
-138.3000;0.2475;0.2836;
-138.0000;0.2401;0.2739;
-137.7000;0.2426;0.2836;
-137.4000;0.2491;0.2981;
-137.1000;0.2491;0.3005;
-136.8000;0.2475;0.3005;
-136.5000;0.2458;0.2957;
-136.2000;0.2475;0.3030;
-135.9000;0.2466;0.3078;
-135.6000;0.2499;0.3078;
-135.3000;0.2466;0.3030;
-135.0000;0.2540;0.3199;
-134.7000;0.2434;0.2933;
-134.4000;0.2466;0.3005;
-134.1000;0.2499;0.3030;
-133.8000;0.2491;0.3054;
-133.5000;0.2458;0.2933;
-133.2000;0.2458;0.2812;
-132.9000;0.2466;0.2787;
-132.6000;0.2491;0.2908;
-132.3000;0.2499;0.3030;
-132.0000;0.2475;0.2957;
-131.7000;0.2466;0.2981;
-131.4000;0.2499;0.2981;
-131.1000;0.2466;0.2908;
-130.8000;0.2475;0.2860;
-130.5000;0.2483;0.2957;
-130.2000;0.2483;0.2933;
-129.9000;0.2491;0.2957;
-129.6000;0.2475;0.2981;
-129.3000;0.2491;0.2981;
-129.0000;0.2491;0.2957;
-128.7000;0.2499;0.2957;
-128.4000;0.2483;0.2933;
-128.1000;0.2442;0.2836;
-127.8000;0.2483;0.2908;
-127.5000;0.2491;0.2933;
-127.2000;0.2483;0.2860;
-126.9000;0.2466;0.2812;
-126.6000;0.2466;0.2836;
-126.3000;0.2483;0.2812;
-126.0000;0.2515;0.2908;
-125.7000;0.2475;0.2763;
-125.4000;0.2466;0.2860;
-125.1000;0.2532;0.3175;
-124.8000;0.2466;0.2957;
-124.5000;0.2475;0.2933;
-124.2000;0.2483;0.2908;
-123.9000;0.2466;0.2908;
-123.6000;0.2475;0.2981;
-123.3000;0.2442;0.2908;
-123.0000;0.2466;0.2884;
-122.7000;0.2466;0.2836;
-122.4000;0.2483;0.2981;
-122.1000;0.2426;0.2812;
-121.8000;0.2483;0.3005;
-121.5000;0.2458;0.2933;
-121.2000;0.2475;0.2981;
-120.9000;0.2483;0.3078;
-120.6000;0.2475;0.3005;
-120.3000;0.2475;0.2981;
-120.0000;0.2475;0.2933;
-119.7000;0.2483;0.2933;
-119.4000;0.2491;0.3030;
-119.1000;0.2491;0.3078;
-118.8000;0.2483;0.3102;
-118.5000;0.2483;0.3005;
-118.2000;0.2483;0.3030;
-117.9000;0.2483;0.3054;
-117.6000;0.2458;0.3030;
-117.3000;0.2466;0.3102;
-117.0000;0.2475;0.3102;
-116.7000;0.2475;0.3030;
-116.4000;0.2466;0.3030;
-116.1000;0.2475;0.3030;
-115.8000;0.2483;0.3127;
-115.5000;0.2491;0.3199;
-115.2000;0.2483;0.3199;
-114.9000;0.2483;0.3248;
-114.6000;0.2475;0.3199;
-114.3000;0.2491;0.3175;
-114.0000;0.2434;0.2981;
-113.7000;0.2483;0.3127;
-113.4000;0.2418;0.3102;
-113.1000;0.2483;0.3320;
-112.8000;0.2475;0.3248;
-112.5000;0.2426;0.3102;
-112.2000;0.2475;0.3272;
-111.9000;0.2491;0.3199;
-111.6000;0.2442;0.3054;
-111.3000;0.2491;0.3151;
-111.0000;0.2491;0.3151;
-110.7000;0.2483;0.3127;
-110.4000;0.2475;0.3151;
-110.1000;0.2483;0.3151;
-109.8000;0.2507;0.3199;
-109.5000;0.2475;0.3127;
-109.2000;0.2491;0.3199;
-108.9000;0.2491;0.3199;
-108.6000;0.2475;0.3054;
-108.3000;0.2466;0.3005;
-108.0000;0.2499;0.2981;
-107.7000;0.2418;0.2763;
-107.4000;0.2475;0.2957;
-107.1000;0.2475;0.2981;
-106.8000;0.2466;0.2908;
-106.5000;0.2515;0.3054;
-106.2000;0.2458;0.2860;
-105.9000;0.2491;0.2957;
-105.6000;0.2409;0.2666;
-105.3000;0.2483;0.2884;
-105.0000;0.2475;0.2908;
-104.7000;0.2466;0.3005;
-104.4000;0.2491;0.3005;
-104.1000;0.2458;0.2933;
-103.8000;0.2475;0.3054;
-103.5000;0.2515;0.3078;
-103.2000;0.2442;0.2884;
-102.9000;0.2475;0.2860;
-102.6000;0.2418;0.2812;
-102.3000;0.2491;0.3005;
-102.0000;0.2491;0.3030;
-101.7000;0.2491;0.3054;
-101.4000;0.2475;0.2981;
-101.1000;0.2458;0.2908;
-100.8000;0.2450;0.2836;
-100.5000;0.2426;0.2860;
-100.2000;0.2466;0.2884;
-99.9000;0.2483;0.2860;
-99.6000;0.2523;0.3005;
-99.3000;0.2483;0.2933;
-99.0000;0.2418;0.2787;
-98.7000;0.2466;0.2957;
-98.4000;0.2507;0.3199;
-98.1000;0.2499;0.3030;
-97.8000;0.2491;0.2957;
-97.5000;0.2475;0.2957;
-97.2000;0.2458;0.2933;
-96.9000;0.2483;0.3030;
-96.6000;0.2483;0.2933;
-96.3000;0.2475;0.2884;
-96.0000;0.2369;0.2569;
-95.7000;0.2483;0.2860;
-95.4000;0.2409;0.2593;
-95.1000;0.2434;0.2715;
-94.8000;0.2466;0.2908;
-94.5000;0.2499;0.3102;
-94.2000;0.2491;0.3151;
-93.9000;0.2483;0.3005;
-93.6000;0.2483;0.3030;
-93.3000;0.2361;0.2690;
-93.0000;0.2458;0.3030;
-92.7000;0.2491;0.3127;
-92.4000;0.2564;0.3320;
-92.1000;0.2475;0.3102;
-91.8000;0.2483;0.3030;
-91.5000;0.2483;0.2981;
-91.2000;0.2475;0.3005;
-90.9000;0.2483;0.2957;
-90.6000;0.2466;0.2884;
-90.3000;0.2434;0.2860;
-90.0000;0.2475;0.3005;
-89.7000;0.2499;0.3030;
-89.4000;0.2491;0.2981;
-89.1000;0.2458;0.2884;
-88.8000;0.2499;0.2957;
-88.5000;0.2491;0.2933;
-88.2000;0.2515;0.3102;
-87.9000;0.2491;0.3054;
-87.6000;0.2499;0.3078;
-87.3000;0.2499;0.2933;
-87.0000;0.2483;0.3030;
-86.7000;0.2466;0.3005;
-86.4000;0.2483;0.3030;
-86.1000;0.2491;0.3078;
-85.8000;0.2466;0.2981;
-85.5000;0.2491;0.3030;
-85.2000;0.2491;0.3127;
-84.9000;0.2475;0.3078;
-84.6000;0.2466;0.3054;
-84.3000;0.2483;0.3151;
-84.0000;0.2491;0.3224;
-83.7000;0.2466;0.3151;
-83.4000;0.2466;0.3224;
-83.1000;0.2475;0.3296;
-82.8000;0.2475;0.3417;
-82.5000;0.2450;0.3393;
-82.2000;0.2483;0.3345;
-81.9000;0.2475;0.3320;
-81.6000;0.2483;0.3272;
-81.3000;0.2442;0.3199;
-81.0000;0.2475;0.3248;
-80.7000;0.2442;0.3199;
-80.4000;0.2499;0.3272;
-80.1000;0.2466;0.3224;
-79.8000;0.2466;0.3102;
-79.5000;0.2475;0.3054;
-79.2000;0.2483;0.3054;
-78.9000;0.2507;0.3199;
-78.6000;0.2466;0.3175;
-78.3000;0.2450;0.3030;
-78.0000;0.2475;0.3030;
-77.7000;0.2466;0.3030;
-77.4000;0.2475;0.3175;
-77.1000;0.2475;0.3248;
-76.8000;0.2466;0.3224;
-76.5000;0.2475;0.3296;
-76.2000;0.2450;0.3175;
-75.9000;0.2466;0.3175;
-75.6000;0.2483;0.3224;
-75.3000;0.2475;0.3175;
-75.0000;0.2491;0.3320;
-74.7000;0.2466;0.3320;
-74.4000;0.2564;0.3563;
-74.1000;0.2458;0.3248;
-73.8000;0.2483;0.3296;
-73.5000;0.2450;0.3224;
-73.2000;0.2548;0.3393;
-72.9000;0.2458;0.3248;
-72.6000;0.2475;0.3345;
-72.3000;0.2540;0.3490;
-72.0000;0.2466;0.3272;
-71.7000;0.2483;0.3296;
-71.4000;0.2572;0.3442;
-71.1000;0.2491;0.3296;
-70.8000;0.2483;0.3272;
-70.5000;0.2475;0.3224;
-70.2000;0.2597;0.3539;
-69.9000;0.2483;0.3248;
-69.6000;0.2475;0.3224;
-69.3000;0.2442;0.3078;
-69.0000;0.2548;0.3393;
-68.7000;0.2475;0.3151;
-68.4000;0.2475;0.3127;
-68.1000;0.2475;0.3054;
-67.8000;0.2499;0.3054;
-67.5000;0.2499;0.3199;
-67.2000;0.2475;0.3151;
-66.9000;0.2483;0.3127;
-66.6000;0.2458;0.3054;
-66.3000;0.2466;0.3078;
-66.0000;0.2483;0.3272;
-65.7000;0.2483;0.3224;
-65.4000;0.2475;0.3248;
-65.1000;0.2466;0.3199;
-64.8000;0.2483;0.3296;
-64.5000;0.2532;0.3369;
-64.2000;0.2466;0.3151;
-63.9000;0.2466;0.3175;
-63.6000;0.2483;0.3272;
-63.3000;0.2475;0.3151;
-63.0000;0.2475;0.3078;
-62.7000;0.2466;0.3078;
-62.4000;0.2507;0.3272;
-62.1000;0.2483;0.3151;
-61.8000;0.2426;0.2981;
-61.5000;0.2450;0.2981;
-61.2000;0.2450;0.3030;
-60.9000;0.2499;0.3127;
-60.6000;0.2466;0.3078;
-60.3000;0.2466;0.3175;
-60.0000;0.2483;0.3248;
-59.7000;0.2499;0.3272;
-59.4000;0.2499;0.3272;
-59.1000;0.2507;0.3224;
-58.8000;0.2483;0.3199;
-58.5000;0.2475;0.3199;
-58.2000;0.2491;0.3175;
-57.9000;0.2523;0.3296;
-57.6000;0.2475;0.3199;
-57.3000;0.2434;0.2981;
-57.0000;0.2491;0.3102;
-56.7000;0.2507;0.3151;
-56.4000;0.2401;0.2981;
-56.1000;0.2483;0.3199;
-55.8000;0.2499;0.3199;
-55.5000;0.2564;0.3442;
-55.2000;0.2564;0.3369;
-54.9000;0.2556;0.3272;
-54.6000;0.2499;0.3102;
-54.3000;0.2434;0.2981;
-54.0000;0.2475;0.3199;
-53.7000;0.2475;0.3248;
-53.4000;0.2483;0.3272;
-53.1000;0.2475;0.3248;
-52.8000;0.2466;0.3248;
-52.5000;0.2491;0.3296;
-52.2000;0.2458;0.3296;
-51.9000;0.2499;0.3369;
-51.6000;0.2483;0.3345;
-51.3000;0.2466;0.3320;
-51.0000;0.2426;0.3248;
-50.7000;0.2450;0.3199;
-50.4000;0.2499;0.3345;
-50.1000;0.2475;0.3320;
-49.8000;0.2466;0.3248;
-49.5000;0.2499;0.3248;
-49.2000;0.2491;0.3151;
-48.9000;0.2483;0.3151;
-48.6000;0.2475;0.3054;
-48.3000;0.2491;0.3151;
-48.0000;0.2491;0.3199;
-47.7000;0.2491;0.3272;
-47.4000;0.2483;0.3296;
-47.1000;0.2605;0.3660;
-46.8000;0.2507;0.3296;
-46.5000;0.2475;0.3199;
-46.2000;0.2442;0.3224;
-45.9000;0.2483;0.3248;
-45.6000;0.2475;0.3151;
-45.3000;0.2466;0.3102;
-45.0000;0.2466;0.3151;
-44.7000;0.2450;0.3102;
-44.4000;0.2475;0.3248;
-44.1000;0.2483;0.3320;
-43.8000;0.2475;0.3224;
-43.5000;0.2458;0.3127;
-43.2000;0.2466;0.3199;
-42.9000;0.2483;0.3272;
-42.6000;0.2491;0.3224;
-42.3000;0.2458;0.3151;
-42.0000;0.2507;0.3296;
-41.7000;0.2507;0.3272;
-41.4000;0.2483;0.3127;
-41.1000;0.2491;0.3102;
-40.8000;0.2483;0.3054;
-40.5000;0.2483;0.3005;
-40.2000;0.2483;0.3054;
-39.9000;0.2458;0.2981;
-39.6000;0.2409;0.2860;
-39.3000;0.2483;0.2981;
-39.0000;0.2458;0.3030;
-38.7000;0.2458;0.3054;
-38.4000;0.2450;0.2957;
-38.1000;0.2466;0.3102;
-37.8000;0.2491;0.3199;
-37.5000;0.2483;0.3272;
-37.2000;0.2466;0.3272;
-36.9000;0.2475;0.3345;
-36.6000;0.2491;0.3320;
-36.3000;0.2466;0.3296;
-36.0000;0.2466;0.3224;
-35.7000;0.2483;0.3175;
-35.4000;0.2450;0.3054;
-35.1000;0.2409;0.2812;
-34.8000;0.2409;0.2836;
-34.5000;0.2475;0.3005;
-34.2000;0.2450;0.2908;
-33.9000;0.2466;0.2860;
-33.6000;0.2458;0.2884;
-33.3000;0.2458;0.2933;
-33.0000;0.2475;0.2884;
-32.7000;0.2475;0.2908;
-32.4000;0.2483;0.2933;
-32.1000;0.2344;0.2642;
-31.8000;0.2466;0.2981;
-31.5000;0.2466;0.2981;
-31.2000;0.2466;0.2933;
-30.9000;0.2450;0.2908;
-30.6000;0.2475;0.2933;
-30.3000;0.2491;0.3078;
-30.0000;0.2466;0.3054;
-29.7000;0.2458;0.2981;
-29.4000;0.2466;0.3151;
-29.1000;0.2466;0.3127;
-28.8000;0.2540;0.3320;
-28.5000;0.2458;0.3005;
-28.2000;0.2507;0.3151;
-27.9000;0.2572;0.3272;
-27.6000;0.2418;0.2981;
-27.3000;0.2475;0.3127;
-27.0000;0.2491;0.3175;
-26.7000;0.2466;0.3151;
-26.4000;0.2475;0.3102;
-26.1000;0.2458;0.3030;
-25.8000;0.2450;0.2957;
-25.5000;0.2475;0.3030;
-25.2000;0.2475;0.3102;
-24.9000;0.2450;0.3078;
-24.6000;0.2458;0.3199;
-24.3000;0.2475;0.3296;
-24.0000;0.2450;0.3175;
-23.7000;0.2499;0.3224;
-23.4000;0.2450;0.3127;
-23.1000;0.2475;0.3272;
-22.8000;0.2499;0.3296;
-22.5000;0.2466;0.3127;
-22.2000;0.2491;0.3199;
-21.9000;0.2483;0.3224;
-21.6000;0.2466;0.3320;
-21.3000;0.2491;0.3320;
-21.0000;0.2475;0.3199;
-20.7000;0.2491;0.3224;
-20.4000;0.2475;0.3151;
-20.1000;0.2499;0.3224;
-19.8000;0.2466;0.3127;
-19.5000;0.2475;0.3127;
-19.2000;0.2466;0.3030;
-18.9000;0.2475;0.3005;
-18.6000;0.2475;0.3005;
-18.3000;0.2491;0.3030;
-18.0000;0.2385;0.2860;
-17.7000;0.2475;0.3054;
-17.4000;0.2548;0.3248;
-17.1000;0.2483;0.3127;
-16.8000;0.2418;0.2933;
-16.5000;0.2466;0.3151;
-16.2000;0.2491;0.3127;
-15.9000;0.2532;0.3320;
-15.6000;0.2450;0.3078;
-15.3000;0.2491;0.3199;
-15.0000;0.2548;0.3296;
-14.7000;0.2491;0.3175;
-14.4000;0.2475;0.3102;
-14.1000;0.2483;0.3078;
-13.8000;0.2475;0.3127;
-13.5000;0.2475;0.3175;
-13.2000;0.2499;0.3127;
-12.9000;0.2475;0.3102;
-12.6000;0.2483;0.3151;
-12.3000;0.2483;0.3151;
-12.0000;0.2475;0.3127;
-11.7000;0.2361;0.2884;
-11.4000;0.2491;0.3199;
-11.1000;0.2491;0.3199;
-10.8000;0.2466;0.3199;
-10.5000;0.2483;0.3224;
-10.2000;0.2466;0.3199;
-9.9000;0.2475;0.3199;
-9.6000;0.2475;0.3248;
-9.3000;0.2466;0.3272;
-9.0000;0.2475;0.3320;
-8.7000;0.2491;0.3417;
-8.4000;0.2491;0.3345;
-8.1000;0.2483;0.3296;
-7.8000;0.2483;0.3296;
-7.5000;0.2532;0.3369;
-7.2000;0.2605;0.3539;
-6.9000;0.2499;0.3296;
-6.6000;0.2491;0.3248;
-6.3000;0.2483;0.3175;
-6.0000;0.2450;0.3127;
-5.7000;0.2450;0.3030;
-5.4000;0.2475;0.3078;
-5.1000;0.2491;0.3005;
-4.8000;0.2499;0.3078;
-4.5000;0.2491;0.3102;
-4.2000;0.2483;0.3151;
-3.9000;0.2466;0.3175;
-3.6000;0.2475;0.3175;
-3.3000;0.2409;0.2981;
-3.0000;0.2409;0.3078;
-2.7000;0.2475;0.3199;
-2.4000;0.2483;0.3054;
-2.1000;0.2483;0.3175;
-1.8000;0.2532;0.3248;
-1.5000;0.2466;0.3102;
-1.2000;0.2426;0.3030;
-0.9000;0.2458;0.3054;
-0.6000;0.2483;0.3078;
-0.3000;0.2491;0.3127;
0.0000;0.2491;0.3127;
0.3000;0.2434;0.2812;
0.6000;0.2499;0.3320;
0.9000;0.2483;0.3417;
1.2000;0.2499;0.3733;
1.5000;0.2515;0.4072;
1.8000;0.2564;0.4338;
2.1000;0.2523;0.4290;
2.4000;0.2548;0.4435;
2.7000;0.2548;0.4532;
3.0000;0.2556;0.4750;
3.3000;0.2548;0.4920;
3.6000;0.2540;0.5066;
3.9000;0.2564;0.5235;
4.2000;0.2580;0.5259;
4.5000;0.2556;0.5308;
4.8000;0.2540;0.5332;
5.1000;0.2572;0.5478;
5.4000;0.2605;0.5575;
5.7000;0.2580;0.5502;
6.0000;0.2589;0.5526;
6.3000;0.2597;0.5526;
6.6000;0.2548;0.5429;
6.9000;0.2532;0.5356;
7.2000;0.2564;0.5429;
7.5000;0.2597;0.5599;
7.8000;0.2572;0.5550;
8.1000;0.2572;0.5671;
8.4000;0.2556;0.5575;
8.7000;0.2580;0.5550;
9.0000;0.2597;0.5526;
9.3000;0.2580;0.5550;
9.6000;0.2580;0.5550;
9.9000;0.2580;0.5623;
10.2000;0.2564;0.5599;
10.5000;0.2572;0.5599;
10.8000;0.2597;0.5623;
11.1000;0.2556;0.5599;
11.4000;0.2564;0.5671;
11.7000;0.2572;0.5768;
12.0000;0.2556;0.5720;
12.3000;0.2572;0.5671;
12.6000;0.2540;0.5478;
12.9000;0.2564;0.5453;
13.2000;0.2572;0.5502;
13.5000;0.2572;0.5502;
13.8000;0.2589;0.5502;
14.1000;0.2597;0.5575;
14.4000;0.2589;0.5647;
14.7000;0.2629;0.5890;
15.0000;0.2556;0.5720;
15.3000;0.2613;0.5865;
15.6000;0.2572;0.5841;
15.9000;0.2589;0.5987;
16.2000;0.2564;0.5865;
16.5000;0.2597;0.5914;
16.8000;0.2572;0.5841;
17.1000;0.2572;0.5865;
17.4000;0.2572;0.5841;
17.7000;0.2532;0.5744;
18.0000;0.2597;0.5890;
18.3000;0.2572;0.5890;
18.6000;0.2589;0.5865;
18.9000;0.2564;0.5768;
19.2000;0.2654;0.5987;
19.5000;0.2580;0.5696;
19.8000;0.2637;0.5720;
20.1000;0.2621;0.5720;
20.4000;0.2564;0.5599;
20.7000;0.2613;0.5696;
21.0000;0.2597;0.5696;
21.3000;0.2556;0.5526;
21.6000;0.2556;0.5575;
21.9000;0.2572;0.5599;
22.2000;0.2597;0.5671;
22.5000;0.2572;0.5550;
22.8000;0.2580;0.5623;
23.1000;0.2548;0.5526;
23.4000;0.2580;0.5623;
23.7000;0.2540;0.5478;
24.0000;0.2629;0.5744;
24.3000;0.2572;0.5575;
24.6000;0.2540;0.5526;
24.9000;0.2572;0.5623;
25.2000;0.2548;0.5599;
25.5000;0.2548;0.5526;
25.8000;0.2564;0.5526;
26.1000;0.2564;0.5575;
26.4000;0.2597;0.5526;
26.7000;0.2572;0.5405;
27.0000;0.2597;0.5550;
27.3000;0.2572;0.5502;
27.6000;0.2523;0.5453;
27.9000;0.2564;0.5478;
28.2000;0.2564;0.5623;
28.5000;0.2605;0.5696;
28.8000;0.2597;0.5744;
29.1000;0.2556;0.5671;
29.4000;0.2580;0.5671;
29.7000;0.2589;0.5720;
30.0000;0.2564;0.5647;
30.3000;0.2556;0.5526;
30.6000;0.2556;0.5647;
30.9000;0.2556;0.5599;
31.2000;0.2556;0.5671;
31.5000;0.2564;0.5623;
31.8000;0.2556;0.5623;
32.1000;0.2556;0.5671;
32.4000;0.2556;0.5696;
32.7000;0.2564;0.5817;
33.0000;0.2564;0.5793;
33.3000;0.2556;0.5744;
33.6000;0.2556;0.5720;
33.9000;0.2572;0.5696;
34.2000;0.2564;0.5720;
34.5000;0.2580;0.5671;
34.8000;0.2580;0.5647;
35.1000;0.2580;0.5575;
35.4000;0.2572;0.5526;
35.7000;0.2540;0.5502;
36.0000;0.2572;0.5550;
36.3000;0.2564;0.5575;
36.6000;0.2548;0.5575;
36.9000;0.2564;0.5575;
37.2000;0.2548;0.5599;
37.5000;0.2564;0.5671;
37.8000;0.2572;0.5720;
38.1000;0.2564;0.5671;
38.4000;0.2564;0.5671;
38.7000;0.2483;0.5405;
39.0000;0.2548;0.5526;
39.3000;0.2548;0.5502;
39.6000;0.2597;0.5550;
39.9000;0.2580;0.5526;
40.2000;0.2556;0.5453;
40.5000;0.2564;0.5356;
40.8000;0.2572;0.5356;
41.1000;0.2556;0.5332;
41.4000;0.2564;0.5381;
41.7000;0.2499;0.5187;
42.0000;0.2556;0.5356;
42.3000;0.2548;0.5332;
42.6000;0.2556;0.5453;
42.9000;0.2564;0.5550;
43.2000;0.2580;0.5623;
43.5000;0.2523;0.5550;
43.8000;0.2556;0.5575;
44.1000;0.2523;0.5502;
44.4000;0.2564;0.5526;
44.7000;0.2556;0.5478;
45.0000;0.2515;0.5405;
45.3000;0.2556;0.5599;
45.6000;0.2556;0.5671;
45.9000;0.2548;0.5647;
46.2000;0.2597;0.5671;
46.5000;0.2580;0.5599;
46.8000;0.2580;0.5647;
47.1000;0.2572;0.5671;
47.4000;0.2564;0.5599;
47.7000;0.2580;0.5671;
48.0000;0.2572;0.5623;
48.3000;0.2556;0.5647;
48.6000;0.2540;0.5575;
48.9000;0.2556;0.5526;
49.2000;0.2564;0.5575;
49.5000;0.2556;0.5599;
49.8000;0.2556;0.5623;
50.1000;0.2572;0.5671;
50.4000;0.2564;0.5696;
50.7000;0.2556;0.5696;
51.0000;0.2515;0.5599;
51.3000;0.2556;0.5696;
51.6000;0.2572;0.5696;
51.9000;0.2556;0.5647;
52.2000;0.2556;0.5647;
52.5000;0.2580;0.5671;
52.8000;0.2580;0.5599;
53.1000;0.2572;0.5599;
53.4000;0.2548;0.5623;
53.7000;0.2572;0.5623;
54.0000;0.2540;0.5575;
54.3000;0.2556;0.5526;
54.6000;0.2442;0.5259;
54.9000;0.2556;0.5453;
55.2000;0.2572;0.5526;
55.5000;0.2556;0.5526;
55.8000;0.2556;0.5478;
56.1000;0.2564;0.5429;
56.4000;0.2548;0.5429;
56.7000;0.2548;0.5429;
57.0000;0.2564;0.5429;
57.3000;0.2507;0.5284;
57.6000;0.2556;0.5453;
57.9000;0.2548;0.5453;
58.2000;0.2548;0.5478;
58.5000;0.2523;0.5453;
58.8000;0.2597;0.5599;
59.1000;0.2556;0.5478;
59.4000;0.2564;0.5429;
59.7000;0.2532;0.5356;
60.0000;0.2572;0.5453;
60.3000;0.2580;0.5526;
60.6000;0.2589;0.5550;
60.9000;0.2564;0.5429;
61.2000;0.2564;0.5284;
61.5000;0.2556;0.5332;
61.8000;0.2589;0.5429;
62.1000;0.2548;0.5405;
62.4000;0.2564;0.5502;
62.7000;0.2556;0.5502;
63.0000;0.2589;0.5575;
63.3000;0.2564;0.5550;
63.6000;0.2621;0.5647;
63.9000;0.2523;0.5502;
64.2000;0.2572;0.5550;
64.5000;0.2572;0.5599;
64.8000;0.2564;0.5550;
65.1000;0.2572;0.5550;
65.4000;0.2548;0.5429;
65.7000;0.2523;0.5381;
66.0000;0.2548;0.5478;
66.3000;0.2548;0.5550;
66.6000;0.2564;0.5623;
66.9000;0.2556;0.5623;
67.2000;0.2564;0.5575;
67.5000;0.2532;0.5502;
67.8000;0.2556;0.5599;
68.1000;0.2548;0.5599;
68.4000;0.2548;0.5623;
68.7000;0.2556;0.5647;
69.0000;0.2556;0.5550;
69.3000;0.2564;0.5550;
69.6000;0.2564;0.5599;
69.9000;0.2548;0.5599;
70.2000;0.2548;0.5647;
70.5000;0.2548;0.5696;
70.8000;0.2572;0.5720;
71.1000;0.2564;0.5720;
71.4000;0.2556;0.5744;
71.7000;0.2580;0.5768;
72.0000;0.2580;0.5817;
72.3000;0.2556;0.5744;
72.6000;0.2548;0.5696;
72.9000;0.2556;0.5744;
73.2000;0.2458;0.5478;
73.5000;0.2540;0.5599;
73.8000;0.2548;0.5575;
74.1000;0.2556;0.5478;
74.4000;0.2564;0.5526;
74.7000;0.2564;0.5381;
75.0000;0.2540;0.5332;
75.3000;0.2637;0.5623;
75.6000;0.2572;0.5502;
75.9000;0.2589;0.5502;
76.2000;0.2580;0.5502;
76.5000;0.2507;0.5308;
76.8000;0.2564;0.5429;
77.1000;0.2597;0.5429;
77.4000;0.2556;0.5284;
77.7000;0.2548;0.5284;
78.0000;0.2442;0.5017;
78.3000;0.2597;0.5332;
78.6000;0.2556;0.5284;
78.9000;0.2564;0.5259;
79.2000;0.2532;0.5187;
79.5000;0.2532;0.5114;
79.8000;0.2564;0.5114;
80.1000;0.2564;0.5259;
80.4000;0.2564;0.5308;
80.7000;0.2572;0.5381;
81.0000;0.2507;0.5284;
81.3000;0.2589;0.5453;
81.6000;0.2532;0.5356;
81.9000;0.2556;0.5550;
82.2000;0.2540;0.5502;
82.5000;0.2556;0.5356;
82.8000;0.2564;0.5381;
83.1000;0.2540;0.5356;
83.4000;0.2556;0.5381;
83.7000;0.2532;0.5478;
84.0000;0.2580;0.5575;
84.3000;0.2564;0.5575;
84.6000;0.2572;0.5623;
84.9000;0.2556;0.5550;
85.2000;0.2556;0.5502;
85.5000;0.2515;0.5429;
85.8000;0.2556;0.5550;
86.1000;0.2572;0.5599;
86.4000;0.2572;0.5575;
86.7000;0.2548;0.5502;
87.0000;0.2564;0.5478;
87.3000;0.2572;0.5478;
87.6000;0.2572;0.5453;
87.9000;0.2580;0.5478;
88.2000;0.2605;0.5647;
88.5000;0.2564;0.5623;
88.8000;0.2572;0.5647;
89.1000;0.2580;0.5623;
89.4000;0.2564;0.5502;
89.7000;0.2580;0.5526;
90.0000;0.2475;0.5211;
90.3000;0.2605;0.5575;
90.6000;0.2556;0.5575;
90.9000;0.2515;0.5429;
91.2000;0.2548;0.5599;
91.5000;0.2540;0.5550;
91.8000;0.2597;0.5599;
92.1000;0.2564;0.5478;
92.4000;0.2564;0.5453;
92.7000;0.2540;0.5405;
93.0000;0.2556;0.5405;
93.3000;0.2532;0.5356;
93.6000;0.2491;0.5163;
93.9000;0.2556;0.5405;
94.2000;0.2540;0.5429;
94.5000;0.2548;0.5478;
94.8000;0.2556;0.5502;
95.1000;0.2564;0.5453;
95.4000;0.2694;0.5817;
95.7000;0.2589;0.5599;
96.0000;0.2572;0.5550;
96.3000;0.2580;0.5575;
96.6000;0.2564;0.5599;
96.9000;0.2556;0.5502;
97.2000;0.2564;0.5429;
97.5000;0.2572;0.5453;
97.8000;0.2597;0.5526;
98.1000;0.2556;0.5453;
98.4000;0.2580;0.5599;
98.7000;0.2572;0.5575;
99.0000;0.2654;0.5768;
99.3000;0.2556;0.5453;
99.6000;0.2540;0.5502;
99.9000;0.2572;0.5671;
100.2000;0.2556;0.5671;
100.5000;0.2556;0.5623;
100.8000;0.2540;0.5599;
101.1000;0.2507;0.5453;
101.4000;0.2556;0.5599;
101.7000;0.2548;0.5502;
102.0000;0.2580;0.5623;
102.3000;0.2564;0.5599;
102.6000;0.2532;0.5478;
102.9000;0.2556;0.5405;
103.2000;0.2540;0.5332;
103.5000;0.2532;0.5356;
103.8000;0.2556;0.5429;
104.1000;0.2540;0.5381;
104.4000;0.2572;0.5478;
104.7000;0.2572;0.5526;
105.0000;0.2556;0.5526;
105.3000;0.2556;0.5575;
105.6000;0.2556;0.5599;
105.9000;0.2572;0.5478;
106.2000;0.2532;0.5356;
106.5000;0.2556;0.5405;
106.8000;0.2629;0.5526;
107.1000;0.2564;0.5284;
107.4000;0.2564;0.5332;
107.7000;0.2564;0.5332;
108.0000;0.2548;0.5259;
108.3000;0.2564;0.5308;
108.6000;0.2548;0.5405;
108.9000;0.2572;0.5381;
109.2000;0.2548;0.5356;
109.5000;0.2548;0.5405;
109.8000;0.2507;0.5284;
110.1000;0.2572;0.5526;
110.4000;0.2556;0.5502;
110.7000;0.2540;0.5453;
111.0000;0.2548;0.5478;
111.3000;0.2646;0.5793;
111.6000;0.2580;0.5575;
111.9000;0.2572;0.5623;
112.2000;0.2564;0.5671;
112.5000;0.2572;0.5696;
112.8000;0.2564;0.5599;
113.1000;0.2540;0.5526;
113.4000;0.2564;0.5599;
113.7000;0.2442;0.5284;
114.0000;0.2475;0.5429;
114.3000;0.2556;0.5671;
114.6000;0.2466;0.5453;
114.9000;0.2556;0.5671;
115.2000;0.2580;0.5720;
115.5000;0.2564;0.5696;
115.8000;0.2556;0.5647;
116.1000;0.2548;0.5478;
116.4000;0.2580;0.5599;
116.7000;0.2621;0.5647;
117.0000;0.2523;0.5405;
117.3000;0.2589;0.5478;
117.6000;0.2540;0.5381;
117.9000;0.2458;0.5163;
118.2000;0.2499;0.5332;
118.5000;0.2589;0.5478;
118.8000;0.2556;0.5356;
119.1000;0.2597;0.5453;
119.4000;0.2499;0.5308;
119.7000;0.2564;0.5478;
120.0000;0.2458;0.5332;
120.3000;0.2507;0.5429;
120.6000;0.2540;0.5526;
120.9000;0.2507;0.5453;
121.2000;0.2556;0.5526;
121.5000;0.2572;0.5623;
121.8000;0.2580;0.5623;
122.1000;0.2670;0.5865;
122.4000;0.2564;0.5599;
122.7000;0.2548;0.5502;
123.0000;0.2589;0.5453;
123.3000;0.2548;0.5405;
123.6000;0.2556;0.5405;
123.9000;0.2556;0.5405;
124.2000;0.2556;0.5429;
124.5000;0.2564;0.5550;
124.8000;0.2540;0.5550;
125.1000;0.2499;0.5332;
125.4000;0.2532;0.5502;
125.7000;0.2540;0.5550;
126.0000;0.2556;0.5550;
126.3000;0.2556;0.5502;
126.6000;0.2572;0.5453;
126.9000;0.2540;0.5308;
127.2000;0.2466;0.5090;
127.5000;0.2564;0.5332;
127.8000;0.2572;0.5356;
128.1000;0.2572;0.5356;
128.4000;0.2564;0.5405;
128.7000;0.2572;0.5478;
129.0000;0.2564;0.5502;
129.3000;0.2556;0.5502;
129.6000;0.2540;0.5405;
129.9000;0.2548;0.5502;
130.2000;0.2450;0.5235;
130.5000;0.2548;0.5478;
130.8000;0.2572;0.5502;
131.1000;0.2556;0.5405;
131.4000;0.2580;0.5453;
131.7000;0.2556;0.5502;
132.0000;0.2540;0.5478;
132.3000;0.2548;0.5405;
132.6000;0.2548;0.5453;
132.9000;0.2499;0.5332;
133.2000;0.2548;0.5478;
133.5000;0.2589;0.5623;
133.8000;0.2556;0.5550;
134.1000;0.2540;0.5502;
134.4000;0.2556;0.5453;
134.7000;0.2532;0.5284;
135.0000;0.2564;0.5356;
135.3000;0.2548;0.5284;
135.6000;0.2564;0.5308;
135.9000;0.2613;0.5502;
136.2000;0.2491;0.5235;
136.5000;0.2548;0.5429;
136.8000;0.2548;0.5381;
137.1000;0.2556;0.5453;
137.4000;0.2532;0.5381;
137.7000;0.2548;0.5381;
138.0000;0.2613;0.5478;
138.3000;0.2564;0.5332;
138.6000;0.2621;0.5381;
138.9000;0.2491;0.5066;
139.2000;0.2450;0.4969;
139.5000;0.2548;0.5284;
139.8000;0.2507;0.5211;
140.1000;0.2540;0.5235;
140.4000;0.2532;0.5235;
140.7000;0.2523;0.5259;
141.0000;0.2556;0.5356;
141.3000;0.2540;0.5405;
141.6000;0.2556;0.5405;
141.9000;0.2491;0.5187;
142.2000;0.2564;0.5381;
142.5000;0.2556;0.5308;
142.8000;0.2540;0.5259;
143.1000;0.2548;0.5308;
143.4000;0.2548;0.5381;
143.7000;0.2532;0.5405;
144.0000;0.2572;0.5575;
144.3000;0.2540;0.5623;
144.6000;0.2556;0.5550;
144.9000;0.2548;0.5502;
145.2000;0.2548;0.5429;
145.5000;0.2523;0.5453;
145.8000;0.2556;0.5526;
146.1000;0.2548;0.5502;
146.4000;0.2540;0.5478;
146.7000;0.2548;0.5550;
147.0000;0.2556;0.5599;
147.3000;0.2564;0.5550;
147.6000;0.2548;0.5405;
147.9000;0.2556;0.5381;
148.2000;0.2572;0.5381;
148.5000;0.2580;0.5526;
148.8000;0.2572;0.5550;
149.1000;0.2548;0.5453;
149.4000;0.2646;0.5768;
149.7000;0.2572;0.5623;
150.0000;0.2548;0.5647;
150.3000;0.2564;0.5671;
150.6000;0.2540;0.5647;
150.9000;0.2564;0.5696;
151.2000;0.2540;0.5526;
151.5000;0.2556;0.5550;
151.8000;0.2572;0.5575;
152.1000;0.2540;0.5550;
152.4000;0.2580;0.5647;
152.7000;0.2507;0.5453;
153.0000;0.2548;0.5526;
153.3000;0.2556;0.5526;
153.6000;0.2548;0.5502;
153.9000;0.2564;0.5502;
154.2000;0.2556;0.5478;
154.5000;0.2572;0.5478;
154.8000;0.2548;0.5526;
155.1000;0.2540;0.5478;
155.4000;0.2540;0.5453;
155.7000;0.2450;0.5187;
156.0000;0.2540;0.5405;
156.3000;0.2540;0.5478;
156.6000;0.2540;0.5381;
156.9000;0.2523;0.5284;
157.2000;0.2548;0.5356;
157.5000;0.2548;0.5429;
157.8000;0.2458;0.5211;
158.1000;0.2572;0.5453;
158.4000;0.2548;0.5429;
158.7000;0.2564;0.5453;
159.0000;0.2548;0.5429;
159.3000;0.2540;0.5381;
159.6000;0.2540;0.5478;
159.9000;0.2540;0.5356;
160.2000;0.2540;0.5308;
160.5000;0.2548;0.5332;
160.8000;0.2515;0.5308;
161.1000;0.2556;0.5381;
161.4000;0.2540;0.5332;
161.7000;0.2540;0.5211;
162.0000;0.2532;0.5114;
162.3000;0.2556;0.5187;
162.6000;0.2548;0.5259;
162.9000;0.2540;0.5332;
163.2000;0.2548;0.5381;
163.5000;0.2556;0.5308;
163.8000;0.2548;0.5405;
164.1000;0.2556;0.5332;
164.4000;0.2556;0.5308;
164.7000;0.2548;0.5356;
165.0000;0.2556;0.5429;
165.3000;0.2483;0.5211;
165.6000;0.2532;0.5356;
165.9000;0.2548;0.5356;
166.2000;0.2572;0.5429;
166.5000;0.2597;0.5453;
166.8000;0.2564;0.5381;
167.1000;0.2540;0.5332;
167.4000;0.2548;0.5356;
167.7000;0.2564;0.5332;
168.0000;0.2515;0.5235;
168.3000;0.2548;0.5332;
168.6000;0.2556;0.5405;
168.9000;0.2556;0.5381;
169.2000;0.2556;0.5453;
169.5000;0.2548;0.5502;
169.8000;0.2548;0.5526;
170.1000;0.2540;0.5502;
170.4000;0.2532;0.5453;
170.7000;0.2556;0.5550;
171.0000;0.2434;0.5308;
171.3000;0.2548;0.5526;
171.6000;0.2556;0.5526;
171.9000;0.2589;0.5623;
172.2000;0.2556;0.5526;
172.5000;0.2564;0.5575;
172.8000;0.2572;0.5550;
173.1000;0.2621;0.5720;
173.4000;0.2540;0.5453;
173.7000;0.2556;0.5550;
174.0000;0.2548;0.5550;
174.3000;0.2556;0.5647;
174.6000;0.2523;0.5526;
174.9000;0.2572;0.5575;
175.2000;0.2532;0.5405;
175.5000;0.2499;0.5284;
175.8000;0.2556;0.5405;
176.1000;0.2523;0.5259;
176.4000;0.2548;0.5356;
176.7000;0.2597;0.5599;
177.0000;0.2540;0.5453;
177.3000;0.2523;0.5356;
177.6000;0.2540;0.5453;
177.9000;0.2556;0.5526;
178.2000;0.2442;0.5187;
178.5000;0.2540;0.5575;
178.8000;0.2548;0.5696;
179.1000;0.2564;0.5671;
179.4000;0.2564;0.5696;
179.7000;0.2605;0.5768;
180.0000;0.2548;0.5647;
180.3000;0.2499;0.5550;
180.6000;0.2548;0.5720;
180.9000;0.2540;0.5671;
181.2000;0.2548;0.5696;
181.5000;0.2548;0.5744;
181.8000;0.2499;0.5575;
182.1000;0.2532;0.5647;
182.4000;0.2540;0.5599;
182.7000;0.2556;0.5623;
183.0000;0.2564;0.5720;
183.3000;0.2540;0.5671;
183.6000;0.2548;0.5696;
183.9000;0.2523;0.5575;
184.2000;0.2580;0.5623;
184.5000;0.2556;0.5599;
184.8000;0.2564;0.5623;
185.1000;0.2564;0.5647;
185.4000;0.2556;0.5599;
185.7000;0.2564;0.5599;
186.0000;0.2540;0.5502;
186.3000;0.2548;0.5502;
186.6000;0.2572;0.5599;
186.9000;0.2556;0.5671;
187.2000;0.2556;0.5575;
187.5000;0.2556;0.5599;
187.8000;0.2450;0.5284;
188.1000;0.2564;0.5623;
188.4000;0.2556;0.5623;
188.7000;0.2572;0.5623;
189.0000;0.2540;0.5575;
189.3000;0.2540;0.5502;
189.6000;0.2572;0.5599;
189.9000;0.2564;0.5502;
190.2000;0.2556;0.5429;
190.5000;0.2613;0.5599;
190.8000;0.2556;0.5478;
191.1000;0.2556;0.5405;
191.4000;0.2515;0.5284;
191.7000;0.2548;0.5429;
192.0000;0.2532;0.5381;
192.3000;0.2523;0.5356;
192.6000;0.2589;0.5575;
192.9000;0.2548;0.5478;
193.2000;0.2564;0.5575;
193.5000;0.2540;0.5502;
193.8000;0.2556;0.5550;
194.1000;0.2580;0.5575;
194.4000;0.2564;0.5502;
194.7000;0.2564;0.5550;
195.0000;0.2564;0.5575;
195.3000;0.2515;0.5453;
195.6000;0.2556;0.5550;
195.9000;0.2548;0.5575;
196.2000;0.2556;0.5575;
196.5000;0.2556;0.5478;
196.8000;0.2556;0.5429;
197.1000;0.2523;0.5381;
197.4000;0.2442;0.5259;
197.7000;0.2540;0.5502;
198.0000;0.2564;0.5526;
198.3000;0.2548;0.5478;
198.6000;0.2548;0.5381;
198.9000;0.2556;0.5453;
199.2000;0.2548;0.5502;
199.5000;0.2523;0.5502;
199.8000;0.2589;0.5599;
200.1000;0.2540;0.5575;
200.4000;0.2548;0.5696;
200.7000;0.2548;0.5744;
201.0000;0.2540;0.5768;
201.3000;0.2548;0.5744;
201.6000;0.2532;0.5720;
201.9000;0.2483;0.5550;
202.2000;0.2532;0.5744;
202.5000;0.2540;0.5696;
202.8000;0.2499;0.5550;
203.1000;0.2540;0.5671;
203.4000;0.2548;0.5696;
203.7000;0.2548;0.5623;
204.0000;0.2523;0.5453;
204.3000;0.2523;0.5526;
204.6000;0.2548;0.5526;
204.9000;0.2523;0.5429;
205.2000;0.2548;0.5526;
205.5000;0.2499;0.5405;
205.8000;0.2548;0.5429;
206.1000;0.2548;0.5502;
206.4000;0.2540;0.5453;
206.7000;0.2556;0.5599;
207.0000;0.2532;0.5453;
207.3000;0.2540;0.5453;
207.6000;0.2540;0.5381;
207.9000;0.2597;0.5647;
208.2000;0.2540;0.5478;
208.5000;0.2564;0.5599;
208.8000;0.2556;0.5575;
209.1000;0.2556;0.5575;
209.4000;0.2532;0.5453;
209.7000;0.2556;0.5526;
210.0000;0.2556;0.5575;
210.3000;0.2564;0.5550;
210.6000;0.2532;0.5405;
210.9000;0.2548;0.5381;
211.2000;0.2548;0.5356;
211.5000;0.2548;0.5429;
211.8000;0.2540;0.5453;
212.1000;0.2548;0.5478;
212.4000;0.2621;0.5744;
212.7000;0.2572;0.5575;
213.0000;0.2572;0.5671;
213.3000;0.2556;0.5647;
213.6000;0.2548;0.5599;
213.9000;0.2548;0.5599;
214.2000;0.2540;0.5647;
214.5000;0.2426;0.5308;
214.8000;0.2564;0.5647;
215.1000;0.2450;0.5332;
215.4000;0.2540;0.5550;
215.7000;0.2540;0.5550;
216.0000;0.2556;0.5478;
216.3000;0.2580;0.5478;
216.6000;0.2605;0.5599;
216.9000;0.2515;0.5381;
217.2000;0.2548;0.5623;
217.5000;0.2548;0.5696;
217.8000;0.2532;0.5671;
218.1000;0.2532;0.5671;
218.4000;0.2637;0.5865;
218.7000;0.2556;0.5623;
219.0000;0.2540;0.5599;
219.3000;0.2540;0.5647;
219.6000;0.2548;0.5623;
219.9000;0.2548;0.5575;
220.2000;0.2548;0.5550;
220.5000;0.2556;0.5550;
220.8000;0.2564;0.5526;
221.1000;0.2564;0.5526;
221.4000;0.2548;0.5526;
221.7000;0.2548;0.5599;
222.0000;0.2532;0.5526;
222.3000;0.2540;0.5550;
222.6000;0.2548;0.5599;
222.9000;0.2540;0.5575;
223.2000;0.2597;0.5793;
223.5000;0.2532;0.5550;
223.8000;0.2556;0.5575;
224.1000;0.2572;0.5575;
224.4000;0.2556;0.5502;
224.7000;0.2556;0.5478;
225.0000;0.2540;0.5502;
225.3000;0.2540;0.5478;
225.6000;0.2548;0.5502;
225.9000;0.2507;0.5502;
226.2000;0.2548;0.5623;
226.5000;0.2556;0.5526;
226.8000;0.2540;0.5550;
227.1000;0.2548;0.5623;
227.4000;0.2540;0.5599;
227.7000;0.2540;0.5599;
228.0000;0.2580;0.5768;
228.3000;0.2540;0.5696;
228.6000;0.2507;0.5671;
228.9000;0.2548;0.5793;
229.2000;0.2540;0.5841;
229.5000;0.2548;0.5793;
229.8000;0.2532;0.5744;
230.1000;0.2540;0.5744;
230.4000;0.2540;0.5671;
230.7000;0.2548;0.5768;
231.0000;0.2564;0.5865;
231.3000;0.2564;0.5841;
231.6000;0.2548;0.5817;
231.9000;0.2548;0.5720;
232.2000;0.2572;0.5720;
232.5000;0.2523;0.5526;
232.8000;0.2540;0.5550;
233.1000;0.2564;0.5647;
233.4000;0.2532;0.5526;
233.7000;0.2532;0.5550;
234.0000;0.2556;0.5575;
234.3000;0.2548;0.5599;
234.6000;0.2564;0.5696;
234.9000;0.2532;0.5696;
235.2000;0.2548;0.5720;
235.5000;0.2572;0.5793;
235.8000;0.2556;0.5696;
236.1000;0.2572;0.5793;
236.4000;0.2540;0.5720;
236.7000;0.2556;0.5744;
237.0000;0.2532;0.5671;
237.3000;0.2556;0.5768;
237.6000;0.2532;0.5671;
237.9000;0.2532;0.5599;
238.2000;0.2532;0.5599;
238.5000;0.2532;0.5478;
238.8000;0.2540;0.5550;
239.1000;0.2597;0.5744;
239.4000;0.2475;0.5429;
239.7000;0.2540;0.5575;
240.0000;0.2540;0.5550;
240.3000;0.2548;0.5478;
240.6000;0.2654;0.5914;
240.9000;0.2548;0.5575;
241.2000;0.2556;0.5575;
241.5000;0.2556;0.5550;
241.8000;0.2548;0.5575;
242.1000;0.2621;0.5744;
242.4000;0.2564;0.5696;
242.7000;0.2548;0.5575;
243.0000;0.2556;0.5526;
243.3000;0.2540;0.5526;
243.6000;0.2523;0.5550;
243.9000;0.2556;0.5575;
244.2000;0.2540;0.5526;
244.5000;0.2556;0.5526;
244.8000;0.2540;0.5526;
245.1000;0.2532;0.5550;
245.4000;0.2548;0.5623;
245.7000;0.2507;0.5502;
246.0000;0.2548;0.5671;
246.3000;0.2564;0.5744;
246.6000;0.2646;0.6011;
246.9000;0.2662;0.6132;
247.2000;0.2491;0.5647;
247.5000;0.2597;0.5938;
247.8000;0.2532;0.5841;
248.1000;0.2548;0.5793;
248.4000;0.2556;0.5768;
248.7000;0.2621;0.5914;
249.0000;0.2540;0.5647;
249.3000;0.2540;0.5599;
249.6000;0.2491;0.5478;
249.9000;0.2548;0.5575;
250.2000;0.2548;0.5550;
250.5000;0.2548;0.5575;
250.8000;0.2540;0.5550;
251.1000;0.2564;0.5647;
251.4000;0.2548;0.5696;
251.7000;0.2572;0.5744;
252.0000;0.2499;0.5526;
252.3000;0.2548;0.5671;
252.6000;0.2548;0.5526;
252.9000;0.2556;0.5623;
253.2000;0.2532;0.5526;
253.5000;0.2475;0.5429;
253.8000;0.2523;0.5575;
254.1000;0.2523;0.5647;
254.4000;0.2564;0.5744;
254.7000;0.2540;0.5696;
255.0000;0.2548;0.5696;
255.3000;0.2540;0.5599;
255.6000;0.2564;0.5623;
255.9000;0.2572;0.5623;
256.2000;0.2548;0.5671;
256.5000;0.2548;0.5623;
256.8000;0.2564;0.5671;
257.1000;0.2556;0.5623;
257.4000;0.2532;0.5526;
257.7000;0.2540;0.5599;
258.0000;0.2540;0.5623;
258.3000;0.2548;0.5575;
258.6000;0.2548;0.5575;
258.9000;0.2556;0.5599;
259.2000;0.2532;0.5575;
259.5000;0.2556;0.5623;
259.8000;0.2540;0.5647;
260.1000;0.2548;0.5744;
260.4000;0.2556;0.5696;
260.7000;0.2548;0.5599;
261.0000;0.2556;0.5550;
261.3000;0.2556;0.5502;
261.6000;0.2523;0.5453;
261.9000;0.2532;0.5478;
262.2000;0.2556;0.5502;
262.5000;0.2548;0.5599;
262.8000;0.2450;0.5284;
263.1000;0.2540;0.5575;
263.4000;0.2564;0.5647;
263.7000;0.2507;0.5550;
264.0000;0.2475;0.5429;
264.3000;0.2532;0.5599;
264.6000;0.2515;0.5526;
264.9000;0.2532;0.5575;
265.2000;0.2540;0.5575;
265.5000;0.2580;0.5599;
265.8000;0.2450;0.5211;
266.1000;0.2548;0.5526;
266.4000;0.2548;0.5453;
266.7000;0.2540;0.5502;
267.0000;0.2532;0.5502;
267.3000;0.2556;0.5478;
267.6000;0.2532;0.5381;
267.9000;0.2532;0.5453;
268.2000;0.2540;0.5429;
268.5000;0.2532;0.5575;
268.8000;0.2548;0.5550;
269.1000;0.2540;0.5575;
269.4000;0.2605;0.5671;
269.7000;0.2523;0.5478;
270.0000;0.2556;0.5599;
270.3000;0.2548;0.5599;
270.6000;0.2548;0.5599;
270.9000;0.2556;0.5550;
271.2000;0.2564;0.5575;
271.5000;0.2613;0.5720;
271.8000;0.2515;0.5502;
272.1000;0.2548;0.5575;
272.4000;0.2548;0.5550;
272.7000;0.2507;0.5356;
273.0000;0.2532;0.5478;
273.3000;0.2515;0.5502;
273.6000;0.2589;0.5550;
273.9000;0.2540;0.5429;
274.2000;0.2548;0.5332;
274.5000;0.2491;0.5211;
274.8000;0.2532;0.5332;
275.1000;0.2548;0.5502;
275.4000;0.2556;0.5453;
275.7000;0.2548;0.5502;
276.0000;0.2532;0.5502;
276.3000;0.2523;0.5526;
276.6000;0.2540;0.5599;
276.9000;0.2515;0.5453;
277.2000;0.2523;0.5550;
277.5000;0.2532;0.5696;
277.8000;0.2532;0.5623;
278.1000;0.2507;0.5599;
278.4000;0.2532;0.5720;
278.7000;0.2540;0.5696;
279.0000;0.2580;0.5720;
279.3000;0.2532;0.5526;
279.6000;0.2523;0.5478;
279.9000;0.2572;0.5623;
280.2000;0.2556;0.5623;
280.5000;0.2540;0.5575;
280.8000;0.2548;0.5696;
281.1000;0.2556;0.5744;
281.4000;0.2507;0.5696;
281.7000;0.2540;0.5671;
282.0000;0.2523;0.5623;
282.3000;0.2491;0.5453;
282.6000;0.2548;0.5575;
282.9000;0.2556;0.5623;
283.2000;0.2597;0.5768;
283.5000;0.2540;0.5575;
283.8000;0.2548;0.5526;
284.1000;0.2556;0.5526;
284.4000;0.2540;0.5405;
284.7000;0.2507;0.5308;
285.0000;0.2532;0.5235;
285.3000;0.2556;0.5332;
285.6000;0.2540;0.5429;
285.9000;0.2605;0.5623;
286.2000;0.2548;0.5550;
286.5000;0.2597;0.5744;
286.8000;0.2540;0.5575;
287.1000;0.2483;0.5356;
287.4000;0.2597;0.5744;
287.7000;0.2548;0.5696;
288.0000;0.2597;0.5744;
288.3000;0.2540;0.5623;
288.6000;0.2523;0.5575;
288.9000;0.2540;0.5502;
289.2000;0.2548;0.5599;
289.5000;0.2523;0.5478;
289.8000;0.2515;0.5502;
290.1000;0.2532;0.5575;
290.4000;0.2548;0.5647;
290.7000;0.2564;0.5623;
291.0000;0.2515;0.5599;
291.3000;0.2548;0.5647;
291.6000;0.2548;0.5647;
291.9000;0.2540;0.5599;
292.2000;0.2564;0.5575;
292.5000;0.2556;0.5575;
292.8000;0.2548;0.5526;
293.1000;0.2564;0.5502;
293.4000;0.2515;0.5284;
293.7000;0.2523;0.5308;
294.0000;0.2540;0.5453;
294.3000;0.2556;0.5429;
294.6000;0.2548;0.5453;
294.9000;0.2532;0.5478;
295.2000;0.2548;0.5429;
295.5000;0.2556;0.5381;
295.8000;0.2483;0.5114;
296.1000;0.2548;0.5211;
296.4000;0.2540;0.5211;
296.7000;0.2548;0.5259;
297.0000;0.2523;0.5259;
297.3000;0.2523;0.5332;
297.6000;0.2540;0.5381;
297.9000;0.2540;0.5405;
298.2000;0.2572;0.5405;
298.5000;0.2532;0.5356;
298.8000;0.2507;0.5259;
299.1000;0.2548;0.5332;
299.4000;0.2621;0.5502;
299.7000;0.2532;0.5308;
300.0000;0.2556;0.5381;
300.3000;0.2548;0.5429;
300.6000;0.2540;0.5453;
300.9000;0.2523;0.5429;
301.2000;0.2532;0.5502;
301.5000;0.2532;0.5526;
301.8000;0.2532;0.5575;
302.1000;0.2548;0.5599;
302.4000;0.2532;0.5599;
302.7000;0.2523;0.5526;
303.0000;0.2532;0.5647;
303.3000;0.2564;0.5744;
303.6000;0.2564;0.5671;
303.9000;0.2499;0.5502;
304.2000;0.2532;0.5575;
304.5000;0.2548;0.5623;
304.8000;0.2532;0.5502;
305.1000;0.2532;0.5599;
305.4000;0.2532;0.5647;
305.7000;0.2564;0.5744;
306.0000;0.2475;0.5526;
306.3000;0.2548;0.5696;
306.6000;0.2540;0.5671;
306.9000;0.2540;0.5744;
307.2000;0.2564;0.5720;
307.5000;0.2605;0.5962;
307.8000;0.2540;0.5696;
308.1000;0.2556;0.5744;
308.4000;0.2580;0.5744;
308.7000;0.2580;0.5720;
309.0000;0.2532;0.5623;
309.3000;0.2532;0.5647;
309.6000;0.2523;0.5647;
309.9000;0.2540;0.5696;
310.2000;0.2532;0.5671;
310.5000;0.2548;0.5696;
310.8000;0.2532;0.5696;
311.1000;0.2507;0.5671;
311.4000;0.2532;0.5744;
311.7000;0.2548;0.5768;
312.0000;0.2548;0.5793;
312.3000;0.2556;0.5865;
312.6000;0.2540;0.5744;
312.9000;0.2540;0.5599;
313.2000;0.2556;0.5671;
313.5000;0.2540;0.5647;
313.8000;0.2556;0.5744;
314.1000;0.2507;0.5671;
314.4000;0.2540;0.5671;
314.7000;0.2532;0.5623;
315.0000;0.2523;0.5526;
315.3000;0.2532;0.5575;
315.6000;0.2532;0.5502;
315.9000;0.2564;0.5478;
316.2000;0.2556;0.5478;
316.5000;0.2556;0.5453;
316.8000;0.2556;0.5478;
317.1000;0.2556;0.5502;
317.4000;0.2556;0.5599;
317.7000;0.2515;0.5550;
318.0000;0.2556;0.5550;
318.3000;0.2532;0.5502;
318.6000;0.2556;0.5502;
318.9000;0.2605;0.5599;
319.2000;0.2507;0.5332;
319.5000;0.2564;0.5502;
319.8000;0.2572;0.5671;
320.1000;0.2540;0.5550;
320.4000;0.2548;0.5526;
320.7000;0.2532;0.5526;
321.0000;0.2540;0.5453;
321.3000;0.2540;0.5599;
321.6000;0.2556;0.5671;
321.9000;0.2540;0.5647;
322.2000;0.2556;0.5671;
322.5000;0.2540;0.5696;
322.8000;0.2532;0.5623;
323.1000;0.2548;0.5647;
323.4000;0.2523;0.5550;
323.7000;0.2548;0.5478;
324.0000;0.2646;0.5671;
324.3000;0.2523;0.5429;
324.6000;0.2548;0.5453;
324.9000;0.2613;0.5671;
325.2000;0.2523;0.5526;
325.5000;0.2540;0.5575;
325.8000;0.2540;0.5575;
326.1000;0.2556;0.5599;
326.4000;0.2556;0.5647;
326.7000;0.2548;0.5526;
327.0000;0.2442;0.5259;
327.3000;0.2532;0.5550;
327.6000;0.2532;0.5550;
327.9000;0.2564;0.5478;
328.2000;0.2540;0.5429;
328.5000;0.2483;0.5332;
328.8000;0.2564;0.5453;
329.1000;0.2540;0.5502;
329.4000;0.2548;0.5502;
329.7000;0.2540;0.5502;
330.0000;0.2564;0.5575;
330.3000;0.2540;0.5575;
330.6000;0.2540;0.5575;
330.9000;0.2523;0.5623;
331.2000;0.2548;0.5623;
331.5000;0.2540;0.5623;
331.8000;0.2548;0.5623;
332.1000;0.2540;0.5599;
332.4000;0.2523;0.5502;
332.7000;0.2540;0.5478;
333.0000;0.2515;0.5381;
333.3000;0.2532;0.5453;
333.6000;0.2540;0.5453;
333.9000;0.2548;0.5453;
334.2000;0.2466;0.5284;
334.5000;0.2540;0.5405;
334.8000;0.2548;0.5381;
335.1000;0.2540;0.5356;
335.4000;0.2540;0.5453;
335.7000;0.2540;0.5429;
336.0000;0.2540;0.5405;
336.3000;0.2548;0.5356;
336.6000;0.2540;0.5381;
336.9000;0.2532;0.5356;
337.2000;0.2556;0.5429;
337.5000;0.2540;0.5284;
337.8000;0.2540;0.5284;
338.1000;0.2548;0.5356;
338.4000;0.2540;0.5405;
338.7000;0.2564;0.5478;
339.0000;0.2548;0.5405;
339.3000;0.2540;0.5356;
339.6000;0.2580;0.5502;
339.9000;0.2548;0.5405;
340.2000;0.2532;0.5356;
340.5000;0.2515;0.5308;
340.8000;0.2548;0.5429;
341.1000;0.2540;0.5550;
341.4000;0.2532;0.5478;
341.7000;0.2572;0.5671;
342.0000;0.2556;0.5575;
342.3000;0.2564;0.5599;
342.6000;0.2556;0.5575;
342.9000;0.2458;0.5284;
343.2000;0.2564;0.5502;
343.5000;0.2450;0.5187;
343.8000;0.2540;0.5405;
344.1000;0.2548;0.5405;
344.4000;0.2548;0.5453;
344.7000;0.2556;0.5405;
345.0000;0.2532;0.5453;
345.3000;0.2532;0.5478;
345.6000;0.2483;0.5308;
345.9000;0.2532;0.5453;
346.2000;0.2548;0.5526;
346.5000;0.2540;0.5550;
346.8000;0.2523;0.5526;
347.1000;0.2515;0.5550;
347.4000;0.2475;0.5453;
347.7000;0.2548;0.5623;
348.0000;0.2548;0.5623;
348.3000;0.2540;0.5550;
348.6000;0.2515;0.5502;
348.9000;0.2532;0.5526;
349.2000;0.2540;0.5526;
349.5000;0.2548;0.5453;
349.8000;0.2564;0.5575;
350.1000;0.2540;0.5550;
350.4000;0.2540;0.5575;
350.7000;0.2548;0.5550;
351.0000;0.2613;0.5768;
351.3000;0.2556;0.5599;
351.6000;0.2548;0.5526;
351.9000;0.2556;0.5453;
352.2000;0.2556;0.5429;
352.5000;0.2540;0.5259;
352.8000;0.2515;0.5259;
353.1000;0.2483;0.5163;
353.4000;0.2532;0.5259;
353.7000;0.2532;0.5235;
354.0000;0.2548;0.5429;
354.3000;0.2564;0.5575;
354.6000;0.2548;0.5478;
354.9000;0.2515;0.5502;
355.2000;0.2548;0.5599;
355.5000;0.2499;0.5526;
355.8000;0.2540;0.5550;
356.1000;0.2540;0.5502;
356.4000;0.2475;0.5259;
356.7000;0.2678;0.5841;
357.0000;0.2475;0.5211;
357.3000;0.2540;0.5453;
357.6000;0.2540;0.5478;
357.9000;0.2532;0.5550;
358.2000;0.2532;0.5575;
358.5000;0.2540;0.5526;
358.8000;0.2597;0.5768;
359.1000;0.2483;0.5575;
359.4000;0.2532;0.5623;
359.7000;0.2556;0.5575;
360.0000;0.2556;0.5502;
360.3000;0.2532;0.5453;
360.6000;0.2597;0.5550;
360.9000;0.2523;0.5478;
361.2000;0.2532;0.5575;
361.5000;0.2548;0.5575;
361.8000;0.2515;0.5526;
362.1000;0.2540;0.5478;
362.4000;0.2523;0.5405;
362.7000;0.2507;0.5259;
363.0000;0.2540;0.5405;
363.3000;0.2548;0.5405;
363.6000;0.2605;0.5526;
363.9000;0.2564;0.5453;
364.2000;0.2483;0.5308;
364.5000;0.2458;0.5235;
364.8000;0.2540;0.5502;
365.1000;0.2540;0.5550;
365.4000;0.2548;0.5599;
365.7000;0.2548;0.5478;
366.0000;0.2548;0.5453;
366.3000;0.2540;0.5356;
366.6000;0.2475;0.5259;
366.9000;0.2540;0.5453;
367.2000;0.2564;0.5550;
367.5000;0.2605;0.5671;
367.8000;0.2556;0.5526;
368.1000;0.2532;0.5575;
368.4000;0.2556;0.5623;
368.7000;0.2532;0.5550;
369.0000;0.2540;0.5599;
369.3000;0.2540;0.5575;
369.6000;0.2507;0.5502;
369.9000;0.2434;0.5211;
370.2000;0.2556;0.5550;
370.5000;0.2556;0.5599;
370.8000;0.2532;0.5575;
371.1000;0.2540;0.5453;
371.4000;0.2523;0.5429;
371.7000;0.2548;0.5429;
372.0000;0.2540;0.5429;
372.3000;0.2548;0.5478;
372.6000;0.2548;0.5599;
372.9000;0.2532;0.5623;
373.2000;0.2548;0.5599;
373.5000;0.2540;0.5599;
373.8000;0.2548;0.5526;
374.1000;0.2556;0.5599;
374.4000;0.2532;0.5671;
374.7000;0.2572;0.5720;
375.0000;0.2548;0.5599;
375.3000;0.2580;0.5647;
375.6000;0.2532;0.5478;
375.9000;0.2564;0.5502;
376.2000;0.2548;0.5502;
376.5000;0.2556;0.5429;
376.8000;0.2556;0.5478;
377.1000;0.2532;0.5429;
377.4000;0.2548;0.5502;
377.7000;0.2556;0.5502;
378.0000;0.2540;0.5478;
378.3000;0.2548;0.5526;
378.6000;0.2515;0.5550;
378.9000;0.2523;0.5671;
379.2000;0.2548;0.5744;
379.5000;0.2580;0.5696;
379.8000;0.2654;0.5890;
380.1000;0.2589;0.5793;
380.4000;0.2572;0.5793;
380.7000;0.2532;0.5647;
381.0000;0.2540;0.5599;
381.3000;0.2532;0.5502;
381.6000;0.2540;0.5429;
381.9000;0.2548;0.5429;
382.2000;0.2540;0.5550;
382.5000;0.2409;0.5211;
382.8000;0.2572;0.5623;
383.1000;0.2556;0.5720;
383.4000;0.2580;0.5817;
383.7000;0.2532;0.5599;
384.0000;0.2515;0.5502;
384.3000;0.2507;0.5502;
384.6000;0.2540;0.5526;
384.9000;0.2548;0.5550;
385.2000;0.2540;0.5429;
385.5000;0.2523;0.5284;
385.8000;0.2532;0.5211;
386.1000;0.2540;0.5259;
386.4000;0.2532;0.5284;
386.7000;0.2515;0.5405;
387.0000;0.2532;0.5550;
387.3000;0.2540;0.5575;
387.6000;0.2540;0.5575;
387.9000;0.2589;0.5623;
388.2000;0.2507;0.5429;
388.5000;0.2548;0.5429;
388.8000;0.2483;0.5308;
389.1000;0.2540;0.5453;
389.4000;0.2556;0.5478;
389.7000;0.2540;0.5308;
390.0000;0.2540;0.5381;
390.3000;0.2540;0.5356;
390.6000;0.2507;0.5259;
390.9000;0.2523;0.5332;
391.2000;0.2548;0.5502;
391.5000;0.2532;0.5429;
391.8000;0.2515;0.5381;
392.1000;0.2507;0.5356;
392.4000;0.2540;0.5526;
392.7000;0.2523;0.5478;
393.0000;0.2532;0.5478;
393.3000;0.2540;0.5502;
393.6000;0.2548;0.5502;
393.9000;0.2597;0.5647;
394.2000;0.2548;0.5550;
394.5000;0.2540;0.5550;
394.8000;0.2548;0.5405;
395.1000;0.2540;0.5405;
395.4000;0.2540;0.5405;
395.7000;0.2548;0.5526;
396.0000;0.2556;0.5599;
396.3000;0.2532;0.5453;
396.6000;0.2540;0.5550;
396.9000;0.2532;0.5526;
397.2000;0.2540;0.5550;
397.5000;0.2540;0.5575;
397.8000;0.2548;0.5453;
398.1000;0.2540;0.5478;
398.4000;0.2523;0.5550;
398.7000;0.2556;0.5647;
399.0000;0.2540;0.5671;
399.3000;0.2548;0.5647;
399.6000;0.2523;0.5671;
399.9000;0.2556;0.5671;
400.2000;0.2548;0.5647;
400.5000;0.2548;0.5550;
400.8000;0.2532;0.5478;
401.1000;0.2572;0.5599;
401.4000;0.2499;0.5405;
401.7000;0.2548;0.5526;
402.0000;0.2580;0.5671;
402.3000;0.2491;0.5405;
402.6000;0.2475;0.5381;
402.9000;0.2572;0.5575;
403.2000;0.2540;0.5599;
403.5000;0.2572;0.5696;
403.8000;0.2532;0.5502;
404.1000;0.2491;0.5526;
404.4000;0.2450;0.5429;
404.7000;0.2523;0.5526;
405.0000;0.2434;0.5356;
405.3000;0.2532;0.5671;
405.6000;0.2556;0.5647;
405.9000;0.2532;0.5575;
406.2000;0.2548;0.5550;
406.5000;0.2597;0.5841;
406.8000;0.2540;0.5696;
407.1000;0.2523;0.5720;
407.4000;0.2532;0.5647;
407.7000;0.2523;0.5550;
408.0000;0.2548;0.5599;
408.3000;0.2532;0.5599;
408.6000;0.2540;0.5744;
408.9000;0.2564;0.5817;
409.2000;0.2540;0.5768;
409.5000;0.2540;0.5768;
409.8000;0.2532;0.5696;
410.1000;0.2532;0.5647;
410.4000;0.2556;0.5696;
410.7000;0.2548;0.5671;
411.0000;0.2556;0.5671;
411.3000;0.2556;0.5720;
411.6000;0.2548;0.5696;
411.9000;0.2532;0.5599;
412.2000;0.2548;0.5720;
412.5000;0.2507;0.5599;
412.8000;0.2532;0.5720;
413.1000;0.2532;0.5696;
413.4000;0.2548;0.5720;
413.7000;0.2678;0.6108;
414.0000;0.2564;0.5768;
414.3000;0.2548;0.5744;
414.6000;0.2556;0.5793;
414.9000;0.2532;0.5768;
415.2000;0.2548;0.5696;
415.5000;0.2548;0.5720;
415.8000;0.2564;0.5768;
416.1000;0.2532;0.5671;
416.4000;0.2548;0.5696;
416.7000;0.2540;0.5720;
417.0000;0.2523;0.5720;
417.3000;0.2556;0.5720;
417.6000;0.2532;0.5696;
417.9000;0.2548;0.5744;
418.2000;0.2540;0.5696;
418.5000;0.2532;0.5671;
418.8000;0.2450;0.5478;
419.1000;0.2548;0.5647;
419.4000;0.2564;0.5671;
419.7000;0.2556;0.5526;
420.0000;0.2548;0.5478;
420.3000;0.2556;0.5502;
420.6000;0.2540;0.5575;
420.9000;0.2540;0.5623;
421.2000;0.2548;0.5671;
421.5000;0.2491;0.5502;
421.8000;0.2540;0.5575;
422.1000;0.2532;0.5599;
422.4000;0.2532;0.5647;
422.7000;0.2532;0.5575;
423.0000;0.2523;0.5575;
423.3000;0.2556;0.5671;
423.6000;0.2548;0.5623;
423.9000;0.2523;0.5550;
424.2000;0.2532;0.5550;
424.5000;0.2572;0.5575;
424.8000;0.2507;0.5478;
425.1000;0.2523;0.5575;
425.4000;0.2540;0.5599;
425.7000;0.2564;0.5623;
426.0000;0.2515;0.5502;
426.3000;0.2540;0.5526;
426.6000;0.2499;0.5429;
426.9000;0.2532;0.5502;
427.2000;0.2532;0.5550;
427.5000;0.2532;0.5623;
427.8000;0.2515;0.5526;
428.1000;0.2548;0.5526;
428.4000;0.2605;0.5671;
428.7000;0.2507;0.5381;
429.0000;0.2548;0.5381;
429.3000;0.2523;0.5381;
429.6000;0.2523;0.5429;
429.9000;0.2564;0.5502;
430.2000;0.2507;0.5453;
430.5000;0.2532;0.5599;
430.8000;0.2564;0.5671;
431.1000;0.2532;0.5647;
431.4000;0.2532;0.5526;
431.7000;0.2523;0.5599;
432.0000;0.2564;0.5671;
432.3000;0.2507;0.5478;
432.6000;0.2532;0.5647;
432.9000;0.2540;0.5671;
433.2000;0.2532;0.5575;
433.5000;0.2532;0.5599;
433.8000;0.2523;0.5550;
434.1000;0.2532;0.5575;
434.4000;0.2540;0.5599;
434.7000;0.2589;0.5671;
435.0000;0.2523;0.5575;
435.3000;0.2540;0.5599;
435.6000;0.2532;0.5599;
435.9000;0.2556;0.5696;
436.2000;0.2548;0.5575;
436.5000;0.2523;0.5478;
436.8000;0.2499;0.5405;
437.1000;0.2532;0.5526;
437.4000;0.2532;0.5575;
437.7000;0.2540;0.5599;
438.0000;0.2548;0.5671;
438.3000;0.2564;0.5744;
438.6000;0.2540;0.5647;
438.9000;0.2540;0.5671;
439.2000;0.2662;0.5938;
439.5000;0.2532;0.5478;
439.8000;0.2548;0.5526;
440.1000;0.2540;0.5478;
440.4000;0.2515;0.5502;
440.7000;0.2540;0.5550;
441.0000;0.2507;0.5429;
441.3000;0.2523;0.5526;
441.6000;0.2548;0.5671;
441.9000;0.2507;0.5502;
442.2000;0.2515;0.5478;
442.5000;0.2564;0.5502;
442.8000;0.2540;0.5453;
443.1000;0.2523;0.5478;
443.4000;0.2523;0.5478;
443.7000;0.2532;0.5478;
444.0000;0.2491;0.5429;
444.3000;0.2507;0.5453;
444.6000;0.2548;0.5502;
444.9000;0.2621;0.5647;
445.2000;0.2532;0.5502;
445.5000;0.2532;0.5429;
445.8000;0.2540;0.5405;
446.1000;0.2540;0.5381;
446.4000;0.2540;0.5356;
446.7000;0.2540;0.5453;
447.0000;0.2532;0.5526;
447.3000;0.2548;0.5502;
447.6000;0.2540;0.5550;
447.9000;0.2548;0.5599;
448.2000;0.2548;0.5671;
448.5000;0.2532;0.5623;
448.8000;0.2540;0.5647;
449.1000;0.2532;0.5575;
449.4000;0.2523;0.5647;
449.7000;0.2507;0.5550;
450.0000;0.2572;0.5671;
450.3000;0.2532;0.5478;
450.6000;0.2532;0.5575;
450.9000;0.2540;0.5502;
451.2000;0.2515;0.5405;
451.5000;0.2532;0.5453;
451.8000;0.2572;0.5575;
452.1000;0.2597;0.5623;
452.4000;0.2515;0.5575;
452.7000;0.2548;0.5744;
453.0000;0.2515;0.5671;
453.3000;0.2523;0.5623;
453.6000;0.2532;0.5647;
453.9000;0.2540;0.5671;
454.2000;0.2523;0.5599;
454.5000;0.2532;0.5599;
454.8000;0.2556;0.5696;
455.1000;0.2532;0.5671;
455.4000;0.2548;0.5647;
455.7000;0.2540;0.5744;
456.0000;0.2556;0.5720;
456.3000;0.2564;0.5696;
456.6000;0.2499;0.5550;
456.9000;0.2556;0.5647;
457.2000;0.2540;0.5599;
457.5000;0.2540;0.5550;
457.8000;0.2564;0.5671;
458.1000;0.2548;0.5623;
458.4000;0.2548;0.5671;
458.7000;0.2548;0.5671;
459.0000;0.2540;0.5671;
459.3000;0.2515;0.5550;
459.6000;0.2434;0.5284;
459.9000;0.2507;0.5502;
460.2000;0.2540;0.5575;
460.5000;0.2621;0.5841;
460.8000;0.2605;0.5720;
461.1000;0.2532;0.5526;
461.4000;0.2548;0.5575;
461.7000;0.2629;0.5841;
462.0000;0.2548;0.5671;
462.3000;0.2426;0.5381;
462.6000;0.2556;0.5720;
462.9000;0.2548;0.5671;
463.2000;0.2556;0.5696;
463.5000;0.2540;0.5623;
463.8000;0.2548;0.5744;
464.1000;0.2540;0.5720;
464.4000;0.2532;0.5696;
464.7000;0.2540;0.5744;
465.0000;0.2532;0.5720;
465.3000;0.2540;0.5744;
465.6000;0.2548;0.5841;
465.9000;0.2523;0.5720;
466.2000;0.2540;0.5720;
466.5000;0.2556;0.5817;
466.8000;0.2556;0.5744;
467.1000;0.2532;0.5599;
467.4000;0.2540;0.5550;
467.7000;0.2532;0.5526;
468.0000;0.2572;0.5623;
468.3000;0.2540;0.5453;
468.6000;0.2532;0.5478;
468.9000;0.2499;0.5356;
469.2000;0.2540;0.5453;
469.5000;0.2491;0.5405;
469.8000;0.2556;0.5575;
470.1000;0.2540;0.5575;
470.4000;0.2532;0.5671;
470.7000;0.2548;0.5696;
471.0000;0.2548;0.5647;
471.3000;0.2532;0.5575;
471.6000;0.2556;0.5575;
471.9000;0.2507;0.5478;
472.2000;0.2540;0.5526;
472.5000;0.2523;0.5526;
472.8000;0.2532;0.5526;
473.1000;0.2548;0.5599;
473.4000;0.2613;0.5744;
473.7000;0.2523;0.5502;
474.0000;0.2540;0.5502;
474.3000;0.2540;0.5526;
474.6000;0.2548;0.5575;
474.9000;0.2515;0.5526;
475.2000;0.2523;0.5526;
475.5000;0.2548;0.5623;
475.8000;0.2580;0.5744;
476.1000;0.2532;0.5623;
476.4000;0.2540;0.5696;
476.7000;0.2564;0.5793;
477.0000;0.2532;0.5696;
477.3000;0.2548;0.5623;
477.6000;0.2458;0.5381;
477.9000;0.2540;0.5526;
478.2000;0.2532;0.5575;
478.5000;0.2523;0.5575;
478.8000;0.2564;0.5647;
479.1000;0.2532;0.5623;
479.4000;0.2532;0.5599;
479.7000;0.2515;0.5550;
480.0000;0.2483;0.5405;
480.3000;0.2532;0.5526;
480.6000;0.2540;0.5623;
480.9000;0.2540;0.5623;
481.2000;0.2548;0.5623;
481.5000;0.2548;0.5623;
481.8000;0.2564;0.5696;
482.1000;0.2548;0.5671;
482.4000;0.2540;0.5671;
482.7000;0.2548;0.5768;
483.0000;0.2540;0.5671;
483.3000;0.2499;0.5550;
483.6000;0.2499;0.5453;
483.9000;0.2540;0.5526;
484.2000;0.2540;0.5575;
484.5000;0.2564;0.5599;
484.8000;0.2540;0.5599;
485.1000;0.2532;0.5478;
485.4000;0.2515;0.5478;
485.7000;0.2556;0.5575;
486.0000;0.2540;0.5478;
486.3000;0.2540;0.5502;
486.6000;0.2532;0.5575;
486.9000;0.2548;0.5671;
487.2000;0.2540;0.5623;
487.5000;0.2515;0.5599;
487.8000;0.2548;0.5623;
488.1000;0.2540;0.5623;
488.4000;0.2556;0.5696;
488.7000;0.2540;0.5647;
489.0000;0.2540;0.5575;
489.3000;0.2540;0.5599;
489.6000;0.2523;0.5526;
489.9000;0.2499;0.5526;
490.2000;0.2523;0.5502;
490.5000;0.2523;0.5405;
490.8000;0.2540;0.5453;
491.1000;0.2532;0.5429;
491.4000;0.2515;0.5453;
491.7000;0.2556;0.5550;
492.0000;0.2532;0.5575;
492.3000;0.2556;0.5647;
492.6000;0.2532;0.5599;
492.9000;0.2523;0.5453;
493.2000;0.2548;0.5478;
493.5000;0.2548;0.5502;
493.8000;0.2540;0.5550;
494.1000;0.2523;0.5647;
494.4000;0.2580;0.5914;
494.7000;0.2548;0.5768;
495.0000;0.2532;0.5720;
495.3000;0.2540;0.5696;
495.6000;0.2532;0.5575;
495.9000;0.2532;0.5550;
496.2000;0.2532;0.5550;
496.5000;0.2523;0.5478;
496.8000;0.2532;0.5429;
497.1000;0.2532;0.5453;
497.4000;0.2589;0.5623;
497.7000;0.2515;0.5429;
498.0000;0.2556;0.5453;
498.3000;0.2540;0.5478;
498.6000;0.2532;0.5405;
498.9000;0.2507;0.5332;
499.2000;0.2523;0.5356;
499.5000;0.2515;0.5429;
499.8000;0.2540;0.5429;
500.1000;0.2532;0.5332;
500.4000;0.2523;0.5308;
500.7000;0.2532;0.5356;
501.0000;0.2548;0.5502;
501.3000;0.2532;0.5550;
501.6000;0.2597;0.5720;
501.9000;0.2515;0.5550;
502.2000;0.2540;0.5623;
502.5000;0.2540;0.5696;
502.8000;0.2556;0.5671;
503.1000;0.2548;0.5696;
503.4000;0.2515;0.5671;
503.7000;0.2532;0.5671;
504.0000;0.2532;0.5696;
504.3000;0.2548;0.5696;
504.6000;0.2532;0.5671;
504.9000;0.2548;0.5623;
505.2000;0.2532;0.5623;
505.5000;0.2540;0.5575;
505.8000;0.2540;0.5599;
506.1000;0.2540;0.5647;
506.4000;0.2515;0.5599;
506.7000;0.2548;0.5720;
507.0000;0.2540;0.5696;
507.3000;0.2515;0.5623;
507.6000;0.2532;0.5647;
507.9000;0.2523;0.5671;
508.2000;0.2556;0.5793;
508.5000;0.2540;0.5865;
508.8000;0.2548;0.5841;
509.1000;0.2532;0.5744;
509.4000;0.2548;0.5744;
509.7000;0.2540;0.5671;
510.0000;0.2548;0.5671;
510.3000;0.2523;0.5599;
510.6000;0.2540;0.5575;
510.9000;0.2483;0.5550;
511.2000;0.2540;0.5671;
511.5000;0.2515;0.5647;
511.8000;0.2556;0.5720;
512.1000;0.2523;0.5647;
512.4000;0.2523;0.5696;
512.7000;0.2572;0.5793;
513.0000;0.2491;0.5647;
513.3000;0.2548;0.5720;
513.6000;0.2540;0.5720;
513.9000;0.2540;0.5720;
514.2000;0.2556;0.5720;
514.5000;0.2540;0.5671;
514.8000;0.2597;0.5744;
515.1000;0.2540;0.5623;
515.4000;0.2507;0.5526;
515.7000;0.2540;0.5550;
516.0000;0.2515;0.5429;
516.3000;0.2523;0.5453;
516.6000;0.2523;0.5478;
516.9000;0.2523;0.5381;
517.2000;0.2515;0.5381;
517.5000;0.2621;0.5647;
517.8000;0.2564;0.5502;
518.1000;0.2523;0.5381;
518.4000;0.2637;0.5550;
518.7000;0.2532;0.5332;
519.0000;0.2532;0.5356;
519.3000;0.2515;0.5381;
519.6000;0.2442;0.5138;
519.9000;0.2532;0.5453;
520.2000;0.2523;0.5453;
520.5000;0.2515;0.5405;
520.8000;0.2597;0.5696;
521.1000;0.2491;0.5405;
521.4000;0.2548;0.5575;
521.7000;0.2564;0.5575;
522.0000;0.2540;0.5526;
522.3000;0.2523;0.5478;
522.6000;0.2532;0.5502;
522.9000;0.2605;0.5696;
523.2000;0.2523;0.5453;
523.5000;0.2483;0.5381;
523.8000;0.2540;0.5502;
524.1000;0.2548;0.5453;
524.4000;0.2523;0.5356;
524.7000;0.2515;0.5332;
525.0000;0.2523;0.5308;
525.3000;0.2523;0.5187;
525.6000;0.2540;0.5284;
525.9000;0.2540;0.5308;
526.2000;0.2523;0.5284;
526.5000;0.2540;0.5308;
526.8000;0.2548;0.5405;
527.1000;0.2540;0.5502;
527.4000;0.2548;0.5478;
527.7000;0.2540;0.5429;
528.0000;0.2532;0.5478;
528.3000;0.2532;0.5502;
528.6000;0.2523;0.5599;
528.9000;0.2548;0.5526;
529.2000;0.2548;0.5575;
529.5000;0.2532;0.5550;
529.8000;0.2548;0.5550;
530.1000;0.2475;0.5308;
530.4000;0.2483;0.5284;
530.7000;0.2540;0.5453;
531.0000;0.2532;0.5453;
531.3000;0.2532;0.5453;
531.6000;0.2532;0.5478;
531.9000;0.2499;0.5308;
532.2000;0.2523;0.5356;
532.5000;0.2548;0.5429;
532.8000;0.2532;0.5526;
533.1000;0.2548;0.5575;
533.4000;0.2523;0.5502;
533.7000;0.2548;0.5502;
534.0000;0.2532;0.5478;
534.3000;0.2605;0.5647;
534.6000;0.2548;0.5502;
534.9000;0.2523;0.5429;
535.2000;0.2532;0.5599;
535.5000;0.2507;0.5599;
535.8000;0.2646;0.5938;
536.1000;0.2507;0.5575;
536.4000;0.2564;0.5575;
536.7000;0.2548;0.5478;
537.0000;0.2572;0.5550;
537.3000;0.2523;0.5429;
537.6000;0.2540;0.5502;
537.9000;0.2564;0.5478;
538.2000;0.2548;0.5429;
538.5000;0.2572;0.5429;
538.8000;0.2532;0.5284;
539.1000;0.2523;0.5332;
539.4000;0.2613;0.5696;
539.7000;0.2540;0.5453;
540.0000;0.2532;0.5453;
540.3000;0.2523;0.5453;
540.6000;0.2507;0.5356;
540.9000;0.2532;0.5453;
541.2000;0.2515;0.5405;
541.5000;0.2515;0.5453;
541.8000;0.2523;0.5550;
542.1000;0.2515;0.5502;
542.4000;0.2507;0.5550;
542.7000;0.2523;0.5599;
543.0000;0.2523;0.5671;
543.3000;0.2580;0.5744;
543.6000;0.2540;0.5647;
543.9000;0.2540;0.5575;
544.2000;0.2532;0.5526;
544.5000;0.2548;0.5478;
544.8000;0.2532;0.5478;
545.1000;0.2523;0.5453;
545.4000;0.2540;0.5478;
545.7000;0.2572;0.5575;
546.0000;0.2540;0.5429;
546.3000;0.2556;0.5453;
546.6000;0.2540;0.5405;
546.9000;0.2532;0.5429;
547.2000;0.2499;0.5356;
547.5000;0.2540;0.5478;
547.8000;0.2515;0.5453;
548.1000;0.2523;0.5453;
548.4000;0.2556;0.5623;
548.7000;0.2540;0.5550;
549.0000;0.2523;0.5623;
549.3000;0.2548;0.5647;
549.6000;0.2597;0.5720;
549.9000;0.2540;0.5575;
550.2000;0.2532;0.5575;
550.5000;0.2523;0.5575;
550.8000;0.2532;0.5575;
551.1000;0.2548;0.5647;
551.4000;0.2532;0.5550;
551.7000;0.2540;0.5647;
552.0000;0.2597;0.5623;
552.3000;0.2523;0.5453;
552.6000;0.2515;0.5502;
552.9000;0.2572;0.5623;
553.2000;0.2523;0.5526;
553.5000;0.2540;0.5575;
553.8000;0.2540;0.5550;
554.1000;0.2523;0.5526;
554.4000;0.2540;0.5453;
554.7000;0.2499;0.5356;
555.0000;0.2548;0.5502;
555.3000;0.2523;0.5502;
555.6000;0.2515;0.5429;
555.9000;0.2548;0.5526;
556.2000;0.2548;0.5429;
556.5000;0.2548;0.5429;
556.8000;0.2515;0.5381;
557.1000;0.2540;0.5502;
557.4000;0.2556;0.5478;
557.7000;0.2515;0.5429;
558.0000;0.2515;0.5453;
558.3000;0.2523;0.5453;
558.6000;0.2556;0.5550;
558.9000;0.2540;0.5429;
559.2000;0.2548;0.5453;
559.5000;0.2564;0.5453;
559.8000;0.2540;0.5405;
560.1000;0.2548;0.5356;
560.4000;0.2548;0.5405;
560.7000;0.2523;0.5429;
561.0000;0.2564;0.5550;
561.3000;0.2540;0.5575;
561.6000;0.2564;0.5575;
561.9000;0.2523;0.5405;
562.2000;0.2515;0.5453;
562.5000;0.2532;0.5550;
562.8000;0.2548;0.5599;
563.1000;0.2523;0.5526;
563.4000;0.2515;0.5478;
563.7000;0.2548;0.5550;
564.0000;0.2540;0.5526;
564.3000;0.2548;0.5526;
564.6000;0.2564;0.5526;
564.9000;0.2532;0.5453;
565.2000;0.2540;0.5453;
565.5000;0.2540;0.5550;
565.8000;0.2580;0.5623;
566.1000;0.2540;0.5453;
566.4000;0.2532;0.5502;
566.7000;0.2532;0.5526;
567.0000;0.2654;0.5817;
567.3000;0.2540;0.5429;
567.6000;0.2540;0.5453;
567.9000;0.2515;0.5478;
568.2000;0.2532;0.5599;
568.5000;0.2523;0.5599;
568.8000;0.2532;0.5599;
569.1000;0.2540;0.5550;
569.4000;0.2540;0.5526;
569.7000;0.2532;0.5550;
570.0000;0.2540;0.5526;
570.3000;0.2507;0.5405;
570.6000;0.2532;0.5405;
570.9000;0.2523;0.5381;
571.2000;0.2532;0.5478;
571.5000;0.2532;0.5356;
571.8000;0.2540;0.5405;
572.1000;0.2515;0.5453;
572.4000;0.2515;0.5405;
572.7000;0.2556;0.5478;
573.0000;0.2532;0.5429;
573.3000;0.2515;0.5405;
573.6000;0.2556;0.5429;
573.9000;0.2548;0.5405;
574.2000;0.2532;0.5405;
574.5000;0.2523;0.5453;
574.8000;0.2475;0.5235;
575.1000;0.2597;0.5575;
575.4000;0.2499;0.5478;
575.7000;0.2532;0.5526;
576.0000;0.2548;0.5502;
576.3000;0.2523;0.5478;
576.6000;0.2532;0.5478;
576.9000;0.2523;0.5453;
577.2000;0.2523;0.5284;
577.5000;0.2548;0.5332;
577.8000;0.2548;0.5356;
578.1000;0.2523;0.5308;
578.4000;0.2532;0.5381;
578.7000;0.2515;0.5356;
579.0000;0.2532;0.5429;
579.3000;0.2540;0.5405;
579.6000;0.2548;0.5526;
579.9000;0.2523;0.5478;
580.2000;0.2540;0.5599;
580.5000;0.2532;0.5647;
580.8000;0.2515;0.5550;
581.1000;0.2515;0.5502;
581.4000;0.2523;0.5526;
581.7000;0.2523;0.5502;
582.0000;0.2532;0.5502;
582.3000;0.2507;0.5429;
582.6000;0.2540;0.5526;
582.9000;0.2532;0.5575;
583.2000;0.2548;0.5550;
583.5000;0.2515;0.5526;
583.8000;0.2540;0.5526;
584.1000;0.2564;0.5599;
584.4000;0.2532;0.5502;
584.7000;0.2540;0.5526;
585.0000;0.2523;0.5526;
585.3000;0.2580;0.5647;
585.6000;0.2670;0.5938;
585.9000;0.2532;0.5623;
586.2000;0.2540;0.5623;
586.5000;0.2532;0.5453;
586.8000;0.2532;0.5453;
587.1000;0.2523;0.5405;
587.4000;0.2483;0.5356;
587.7000;0.2532;0.5502;
588.0000;0.2548;0.5502;
588.3000;0.2466;0.5259;
588.6000;0.2540;0.5429;
588.9000;0.2532;0.5453;
589.2000;0.2540;0.5575;
589.5000;0.2564;0.5671;
589.8000;0.2540;0.5623;
590.1000;0.2532;0.5599;
590.4000;0.2532;0.5599;
590.7000;0.2580;0.5768;
591.0000;0.2523;0.5526;
591.3000;0.2523;0.5526;
591.6000;0.2532;0.5550;
591.9000;0.2532;0.5550;
592.2000;0.2515;0.5599;
592.5000;0.2580;0.5768;
592.8000;0.2499;0.5623;
593.1000;0.2532;0.5647;
593.4000;0.2515;0.5502;
593.7000;0.2532;0.5575;
594.0000;0.2532;0.5599;
594.3000;0.2532;0.5550;
594.6000;0.2515;0.5453;
594.9000;0.2523;0.5502;
595.2000;0.2532;0.5453;
595.5000;0.2540;0.5526;
595.8000;0.2580;0.5623;
596.1000;0.2548;0.5550;
596.4000;0.2515;0.5526;
596.7000;0.2556;0.5599;
597.0000;0.2540;0.5550;
597.3000;0.2475;0.5308;
597.6000;0.2532;0.5453;
597.9000;0.2548;0.5453;
598.2000;0.2540;0.5453;
598.5000;0.2532;0.5453;
598.8000;0.2458;0.5284;
599.1000;0.2532;0.5575;
599.4000;0.2572;0.5671;
599.7000;0.2580;0.5696;
600.0000;0.2523;0.5478;
600.3000;0.2515;0.5429;
600.6000;0.2540;0.5332;
600.9000;0.2523;0.5259;
601.2000;0.2523;0.5163;
601.5000;0.2507;0.4896;
601.8000;0.2515;0.4775;
602.1000;0.2523;0.4629;
602.4000;0.2475;0.4387;
602.7000;0.2483;0.4217;
603.0000;0.2491;0.4120;
603.3000;0.2499;0.3999;
603.6000;0.2483;0.3902;
603.9000;0.2466;0.3854;
604.2000;0.2475;0.3757;
604.5000;0.2458;0.3733;
604.8000;0.2491;0.3781;
605.1000;0.2475;0.3708;
605.4000;0.2458;0.3539;
605.7000;0.2458;0.3514;
606.0000;0.2458;0.3466;
606.3000;0.2450;0.3393;
606.6000;0.2442;0.3393;
606.9000;0.2442;0.3369;
607.2000;0.2450;0.3393;
607.5000;0.2442;0.3296;
607.8000;0.2409;0.3224;
608.1000;0.2442;0.3272;
608.4000;0.2458;0.3296;
608.7000;0.2450;0.3296;
609.0000;0.2458;0.3248;
609.3000;0.2458;0.3224;
609.6000;0.2458;0.3248;
609.9000;0.2442;0.3224;
610.2000;0.2418;0.3102;
610.5000;0.2515;0.3369;
610.8000;0.2450;0.3175;
611.1000;0.2442;0.3175;
611.4000;0.2499;0.3272;
611.7000;0.2442;0.3030;
612.0000;0.2458;0.3151;
612.3000;0.2450;0.3248;
612.6000;0.2475;0.3248;
612.9000;0.2434;0.3175;
613.2000;0.2450;0.3320;
613.5000;0.2458;0.3320;
613.8000;0.2450;0.3320;
614.1000;0.2458;0.3345;
614.4000;0.2409;0.3175;
614.7000;0.2409;0.3151;
615.0000;0.2458;0.3296;
615.3000;0.2442;0.3248;
615.6000;0.2426;0.3151;
615.9000;0.2450;0.3175;
616.2000;0.2450;0.3175;
616.5000;0.2385;0.2981;
616.8000;0.2434;0.3102;
617.1000;0.2434;0.3054;
617.4000;0.2418;0.3030;
617.7000;0.2434;0.3005;
618.0000;0.2442;0.3054;
618.3000;0.2442;0.3005;
618.6000;0.2450;0.3005;
618.9000;0.2418;0.2981;
619.2000;0.2434;0.3054;
619.5000;0.2426;0.3030;
619.8000;0.2426;0.3102;
620.1000;0.2352;0.2763;
620.4000;0.2483;0.3127;
620.7000;0.2434;0.2981;
621.0000;0.2434;0.2933;
621.3000;0.2450;0.3054;
621.6000;0.2466;0.3199;
621.9000;0.2426;0.3054;
622.2000;0.2491;0.3199;
622.5000;0.2426;0.3102;
622.8000;0.2401;0.2933;
623.1000;0.2426;0.2933;
623.4000;0.2442;0.2981;
623.7000;0.2426;0.2981;
624.0000;0.2450;0.3030;
624.3000;0.2426;0.3030;
624.6000;0.2442;0.3078;
624.9000;0.2442;0.3127;
625.2000;0.2442;0.3102;
625.5000;0.2418;0.3102;
625.8000;0.2450;0.3248;
626.1000;0.2466;0.3272;
626.4000;0.2475;0.3296;
626.7000;0.2442;0.3224;
627.0000;0.2475;0.3248;
627.3000;0.2458;0.3272;
627.6000;0.2564;0.3514;
627.9000;0.2377;0.3054;
628.2000;0.2434;0.3127;
628.5000;0.2499;0.3320;
628.8000;0.2450;0.3248;
629.1000;0.2450;0.3175;
629.4000;0.2434;0.3151;
629.7000;0.2434;0.3151;
630.0000;0.2450;0.3224;
630.3000;0.2458;0.3248;
630.6000;0.2450;0.3248;
630.9000;0.2450;0.3224;
631.2000;0.2458;0.3224;
631.5000;0.2450;0.3248;
631.8000;0.2466;0.3296;
632.1000;0.2450;0.3199;
632.4000;0.2426;0.3127;
632.7000;0.2450;0.3199;
633.0000;0.2418;0.3102;
633.3000;0.2450;0.3151;
633.6000;0.2426;0.3030;
633.9000;0.2442;0.3078;
634.2000;0.2466;0.3151;
634.5000;0.2466;0.3127;
634.8000;0.2426;0.3030;
635.1000;0.2450;0.3078;
635.4000;0.2532;0.3320;
635.7000;0.2458;0.3102;
636.0000;0.2450;0.3030;
636.3000;0.2515;0.3175;
636.6000;0.2466;0.3054;
636.9000;0.2450;0.3054;
637.2000;0.2442;0.3078;
637.5000;0.2442;0.3054;
637.8000;0.2450;0.3224;
638.1000;0.2450;0.3127;
638.4000;0.2442;0.3030;
638.7000;0.2434;0.3005;
639.0000;0.2442;0.3030;
639.3000;0.2434;0.3030;
639.6000;0.2491;0.3224;
639.9000;0.2499;0.3272;
640.2000;0.2426;0.3054;
640.5000;0.2418;0.2933;
640.8000;0.2450;0.3054;
641.1000;0.2434;0.2981;
641.4000;0.2499;0.3175;
641.7000;0.2450;0.3054;
642.0000;0.2507;0.3248;
642.3000;0.2434;0.3030;
642.6000;0.2458;0.3127;
642.9000;0.2466;0.3199;
643.2000;0.2434;0.3175;
643.5000;0.2434;0.3127;
643.8000;0.2458;0.3127;
644.1000;0.2450;0.3151;
644.4000;0.2426;0.3127;
644.7000;0.2434;0.3127;
645.0000;0.2434;0.3175;
645.3000;0.2450;0.3127;
645.6000;0.2450;0.3054;
645.9000;0.2450;0.3102;
646.2000;0.2491;0.3224;
646.5000;0.2450;0.3151;
646.8000;0.2450;0.3151;
647.1000;0.2450;0.3175;
647.4000;0.2426;0.3078;
647.7000;0.2450;0.3151;
648.0000;0.2458;0.3151;
648.3000;0.2466;0.3151;
648.6000;0.2434;0.3127;
648.9000;0.2450;0.3151;
649.2000;0.2442;0.3078;
649.5000;0.2442;0.3054;
649.8000;0.2336;0.2666;
650.1000;0.2458;0.3005;
650.4000;0.2450;0.3102;
650.7000;0.2466;0.3175;
651.0000;0.2434;0.2957;
651.3000;0.2352;0.2715;
651.6000;0.2426;0.2908;
651.9000;0.2442;0.3005;
652.2000;0.2458;0.3102;
652.5000;0.2483;0.3248;
652.8000;0.2450;0.3272;
653.1000;0.2458;0.3272;
653.4000;0.2434;0.3224;
653.7000;0.2442;0.3151;
654.0000;0.2442;0.3127;
654.3000;0.2450;0.3127;
654.6000;0.2450;0.3151;
654.9000;0.2450;0.3175;
655.2000;0.2426;0.3127;
655.5000;0.2491;0.3345;
655.8000;0.2450;0.3296;
656.1000;0.2434;0.3175;
656.4000;0.2401;0.3127;
656.7000;0.2442;0.3175;
657.0000;0.2426;0.3151;
657.3000;0.2442;0.3151;
657.6000;0.2434;0.3078;
657.9000;0.2434;0.3127;
658.2000;0.2434;0.3102;
658.5000;0.2491;0.3199;
658.8000;0.2426;0.3054;
659.1000;0.2434;0.3054;
659.4000;0.2336;0.2666;
659.7000;0.2442;0.3054;
660.0000;0.2434;0.3054;
660.3000;0.2442;0.3151;
660.6000;0.2556;0.3442;
660.9000;0.2434;0.3030;
661.2000;0.2442;0.2981;
661.5000;0.2450;0.2957;
661.8000;0.2426;0.2860;
662.1000;0.2450;0.2957;
662.4000;0.2475;0.3054;
662.7000;0.2450;0.3054;
663.0000;0.2540;0.3272;
663.3000;0.2450;0.3102;
663.6000;0.2385;0.2957;
663.9000;0.2466;0.3175;
664.2000;0.2442;0.3151;
664.5000;0.2442;0.3224;
664.8000;0.2434;0.3175;
665.1000;0.2434;0.3175;
665.4000;0.2434;0.3151;
665.7000;0.2442;0.3175;
666.0000;0.2450;0.3127;
666.3000;0.2442;0.3248;
666.6000;0.2458;0.3345;
666.9000;0.2491;0.3417;
667.2000;0.2409;0.3248;
667.5000;0.2458;0.3369;
667.8000;0.2450;0.3345;
668.1000;0.2426;0.3320;
668.4000;0.2458;0.3272;
668.7000;0.2483;0.3199;
669.0000;0.2426;0.3054;
669.3000;0.2450;0.3151;
669.6000;0.2475;0.3224;
669.9000;0.2458;0.3248;
670.2000;0.2361;0.2957;
670.5000;0.2442;0.3272;
670.8000;0.2401;0.3127;
671.1000;0.2466;0.3296;
671.4000;0.2442;0.3320;
671.7000;0.2442;0.3320;
672.0000;0.2466;0.3345;
672.3000;0.2458;0.3345;
672.6000;0.2466;0.3345;
672.9000;0.2450;0.3248;
673.2000;0.2466;0.3199;
673.5000;0.2442;0.3199;
673.8000;0.2515;0.3345;
674.1000;0.2401;0.2981;
674.4000;0.2450;0.3078;
674.7000;0.2426;0.3054;
675.0000;0.2450;0.3127;
675.3000;0.2450;0.3175;
675.6000;0.2409;0.3175;
675.9000;0.2450;0.3272;
676.2000;0.2466;0.3296;
676.5000;0.2434;0.3199;
676.8000;0.2401;0.3054;
677.1000;0.2442;0.3151;
677.4000;0.2442;0.3127;
677.7000;0.2442;0.3054;
678.0000;0.2442;0.3005;
678.3000;0.2450;0.3127;
678.6000;0.2466;0.3151;
678.9000;0.2409;0.2957;
679.2000;0.2434;0.3054;
679.5000;0.2434;0.2981;
679.8000;0.2442;0.2981;
680.1000;0.2450;0.3005;
680.4000;0.2426;0.2860;
680.7000;0.2450;0.2981;
681.0000;0.2434;0.3005;
681.3000;0.2426;0.3054;
681.6000;0.2442;0.3102;
681.9000;0.2458;0.3175;
682.2000;0.2442;0.3224;
682.5000;0.2426;0.3151;
682.8000;0.2434;0.3127;
683.1000;0.2483;0.3199;
683.4000;0.2418;0.2981;
683.7000;0.2450;0.3078;
684.0000;0.2442;0.3102;
684.3000;0.2426;0.3102;
684.6000;0.2580;0.3490;
684.9000;0.2458;0.3151;
685.2000;0.2434;0.3054;
685.5000;0.2442;0.3102;
685.8000;0.2434;0.3078;
686.1000;0.2442;0.3175;
686.4000;0.2393;0.3054;
686.7000;0.2450;0.3199;
687.0000;0.2458;0.3175;
687.3000;0.2458;0.3199;
687.6000;0.2450;0.3224;
687.9000;0.2458;0.3248;
688.2000;0.2466;0.3151;
688.5000;0.2458;0.3078;
688.8000;0.2458;0.2981;
689.1000;0.2458;0.3030;
689.4000;0.2426;0.3005;
689.7000;0.2483;0.3102;
690.0000;0.2442;0.2957;
690.3000;0.2434;0.2908;
690.6000;0.2442;0.2933;
690.9000;0.2434;0.2836;
691.2000;0.2434;0.2884;
691.5000;0.2450;0.2981;
691.8000;0.2483;0.3030;
692.1000;0.2442;0.2908;
692.4000;0.2426;0.2787;
692.7000;0.2434;0.2787;
693.0000;0.2507;0.3054;
693.3000;0.2450;0.2836;
693.6000;0.2442;0.2884;
693.9000;0.2466;0.2981;
694.2000;0.2434;0.2957;
694.5000;0.2442;0.2908;
694.8000;0.2434;0.2933;
695.1000;0.2328;0.2739;
695.4000;0.2450;0.3005;
695.7000;0.2434;0.2957;
696.0000;0.2426;0.2908;
696.3000;0.2434;0.2836;
696.6000;0.2450;0.2836;
696.9000;0.2434;0.2812;
697.2000;0.2450;0.2884;
697.5000;0.2466;0.2908;
697.8000;0.2499;0.3005;
698.1000;0.2466;0.2860;
698.4000;0.2458;0.2787;
698.7000;0.2450;0.2787;
699.0000;0.2434;0.2787;
699.3000;0.2442;0.2860;
699.6000;0.2442;0.2884;
699.9000;0.2499;0.3102;
700.2000;0.2442;0.2957;
700.5000;0.2434;0.2933;
700.8000;0.2450;0.3030;
701.1000;0.2434;0.3054;
701.4000;0.2418;0.3054;
701.7000;0.2466;0.3151;
702.0000;0.2450;0.3005;
702.3000;0.2409;0.2981;
702.6000;0.2442;0.3078;
702.9000;0.2458;0.3199;
703.2000;0.2475;0.3224;
703.5000;0.2466;0.3199;
703.8000;0.2450;0.3175;
704.1000;0.2442;0.3175;
704.4000;0.2450;0.3175;
704.7000;0.2426;0.3078;
705.0000;0.2442;0.3127;
705.3000;0.2434;0.3127;
705.6000;0.2442;0.3151;
705.9000;0.2442;0.3199;
706.2000;0.2442;0.3224;
706.5000;0.2442;0.3151;
706.8000;0.2466;0.3248;
707.1000;0.2458;0.3199;
707.4000;0.2409;0.3127;
707.7000;0.2450;0.3151;
708.0000;0.2450;0.3102;
708.3000;0.2442;0.3078;
708.6000;0.2401;0.3054;
708.9000;0.2442;0.3102;
709.2000;0.2369;0.2884;
709.5000;0.2418;0.2957;
709.8000;0.2442;0.3005;
710.1000;0.2426;0.3054;
710.4000;0.2458;0.3102;
710.7000;0.2442;0.3005;
711.0000;0.2442;0.2933;
711.3000;0.2442;0.2933;
711.6000;0.2450;0.2981;
711.9000;0.2450;0.2981;
712.2000;0.2466;0.3030;
712.5000;0.2409;0.2860;
712.8000;0.2442;0.2957;
713.1000;0.2458;0.2957;
713.4000;0.2450;0.2957;
713.7000;0.2434;0.2860;
714.0000;0.2450;0.2836;
714.3000;0.2458;0.2812;
714.6000;0.2442;0.2860;
714.9000;0.2434;0.2860;
715.2000;0.2426;0.2836;
715.5000;0.2458;0.2860;
715.8000;0.2458;0.2884;
716.1000;0.2434;0.2836;
716.4000;0.2418;0.2812;
716.7000;0.2418;0.2763;
717.0000;0.2450;0.2884;
717.3000;0.2418;0.2812;
717.6000;0.2434;0.2836;
717.9000;0.2434;0.2884;
718.2000;0.2450;0.2933;
718.5000;0.2434;0.2884;
718.8000;0.2466;0.2957;
719.1000;0.2426;0.2981;
719.4000;0.2426;0.3102;
719.7000;0.2466;0.3199;
720.0000;0.2450;0.3175;
720.3000;0.2442;0.3127;
720.6000;0.2499;0.3296;
720.9000;0.2458;0.3078;
721.2000;0.2442;0.3030;
721.5000;0.2442;0.3078;
721.8000;0.2434;0.3078;
722.1000;0.2442;0.3054;
722.4000;0.2426;0.2981;
722.7000;0.2434;0.2957;
723.0000;0.2458;0.3005;
723.3000;0.2458;0.3005;
723.6000;0.2442;0.2957;
723.9000;0.2418;0.2957;
724.2000;0.2442;0.2981;
724.5000;0.2442;0.2884;
724.8000;0.2475;0.2933;
725.1000;0.2434;0.2836;
725.4000;0.2418;0.2787;
725.7000;0.2442;0.2763;
726.0000;0.2304;0.2375;
726.3000;0.2393;0.2763;
726.6000;0.2442;0.2860;
726.9000;0.2434;0.2957;
727.2000;0.2442;0.3005;
727.5000;0.2434;0.2981;
727.8000;0.2426;0.3005;
728.1000;0.2442;0.3127;
728.4000;0.2491;0.3175;
728.7000;0.2418;0.2957;
729.0000;0.2540;0.3199;
729.3000;0.2434;0.2860;
729.6000;0.2442;0.2860;
729.9000;0.2458;0.2812;
730.2000;0.2450;0.2739;
730.5000;0.2466;0.2642;
730.8000;0.2458;0.2593;
731.1000;0.2377;0.2399;
731.4000;0.2393;0.2569;
731.7000;0.2483;0.2884;
732.0000;0.2466;0.2860;
732.3000;0.2466;0.2957;
732.6000;0.2434;0.2884;
732.9000;0.2336;0.2715;
733.2000;0.2442;0.2908;
733.5000;0.2458;0.2860;
733.8000;0.2466;0.2908;
734.1000;0.2450;0.2763;
734.4000;0.2458;0.2787;
734.7000;0.2458;0.2908;
735.0000;0.2466;0.3005;
735.3000;0.2442;0.2981;
735.6000;0.2418;0.2933;
735.9000;0.2442;0.3005;
736.2000;0.2434;0.2933;
736.5000;0.2426;0.2957;
736.8000;0.2458;0.2933;
737.1000;0.2442;0.2981;
737.4000;0.2458;0.3054;
737.7000;0.2442;0.3078;
738.0000;0.2458;0.3102;
738.3000;0.2434;0.3102;
738.6000;0.2450;0.3175;
738.9000;0.2466;0.3224;
739.2000;0.2442;0.3175;
739.5000;0.2466;0.3175;
739.8000;0.2442;0.3127;
740.1000;0.2450;0.3078;
740.4000;0.2426;0.2981;
740.7000;0.2442;0.3005;
741.0000;0.2442;0.3030;
741.3000;0.2450;0.3005;
741.6000;0.2450;0.2957;
741.9000;0.2426;0.2908;
742.2000;0.2442;0.2981;
742.5000;0.2442;0.3078;
742.8000;0.2442;0.3030;
743.1000;0.2426;0.3005;
743.4000;0.2426;0.2981;
743.7000;0.2442;0.2957;
744.0000;0.2434;0.3005;
744.3000;0.2442;0.3005;
744.6000;0.2475;0.3102;
744.9000;0.2450;0.3078;
745.2000;0.2450;0.3102;
745.5000;0.2442;0.3127;
745.8000;0.2426;0.3151;
746.1000;0.2442;0.3199;
746.4000;0.2442;0.3151;
746.7000;0.2442;0.3151;
747.0000;0.2434;0.3078;
747.3000;0.2450;0.3199;
747.6000;0.2442;0.3102;
747.9000;0.2499;0.3296;
748.2000;0.2450;0.3078;
748.5000;0.2466;0.3102;
748.8000;0.2483;0.3151;
749.1000;0.2434;0.3005;
749.4000;0.2434;0.2981;
749.7000;0.2450;0.3078;
750.0000;0.2442;0.3078;
750.3000;0.2475;0.3151;
750.6000;0.2426;0.2957;
750.9000;0.2458;0.2957;
751.2000;0.2458;0.2981;
751.5000;0.2442;0.2908;
751.8000;0.2458;0.2933;
752.1000;0.2418;0.2981;
752.4000;0.2442;0.3102;
752.7000;0.2442;0.3102;
753.0000;0.2409;0.3078;
753.3000;0.2442;0.3151;
753.6000;0.2442;0.3151;
753.9000;0.2491;0.3296;
754.2000;0.2442;0.3272;
754.5000;0.2491;0.3393;
754.8000;0.2458;0.3272;
755.1000;0.2426;0.3151;
755.4000;0.2442;0.3151;
755.7000;0.2442;0.3005;
756.0000;0.2418;0.2957;
756.3000;0.2434;0.2908;
756.6000;0.2434;0.2908;
756.9000;0.2458;0.2933;
757.2000;0.2450;0.2933;
757.5000;0.2450;0.3054;
757.8000;0.2434;0.3054;
758.1000;0.2442;0.3054;
758.4000;0.2450;0.3054;
758.7000;0.2442;0.3078;
759.0000;0.2475;0.3175;
759.3000;0.2450;0.3102;
759.6000;0.2442;0.3030;
759.9000;0.2409;0.2908;
760.2000;0.2491;0.3030;
760.5000;0.2458;0.2957;
760.8000;0.2426;0.2812;
761.1000;0.2450;0.2836;
761.4000;0.2442;0.2884;
761.7000;0.2458;0.2908;
762.0000;0.2434;0.2860;
762.3000;0.2434;0.2908;
762.6000;0.2450;0.2957;
762.9000;0.2393;0.2860;
763.2000;0.2409;0.2957;
763.5000;0.2450;0.3005;
763.8000;0.2458;0.3030;
764.1000;0.2450;0.2957;
764.4000;0.2450;0.3005;
764.7000;0.2450;0.2981;
765.0000;0.2426;0.2957;
765.3000;0.2458;0.3054;
765.6000;0.2434;0.2908;
765.9000;0.2458;0.2787;
766.2000;0.2442;0.2787;
766.5000;0.2466;0.2860;
766.8000;0.2450;0.2812;
767.1000;0.2442;0.2836;
767.4000;0.2450;0.2884;
767.7000;0.2458;0.2884;
768.0000;0.2442;0.2812;
768.3000;0.2434;0.2884;
768.6000;0.2418;0.2860;
768.9000;0.2475;0.2981;
769.2000;0.2442;0.2981;
769.5000;0.2442;0.2981;
769.8000;0.2434;0.3005;
770.1000;0.2458;0.3030;
770.4000;0.2458;0.3030;
770.7000;0.2458;0.3005;
771.0000;0.2475;0.3030;
771.3000;0.2434;0.3005;
771.6000;0.2442;0.2957;
771.9000;0.2466;0.2957;
772.2000;0.2442;0.2860;
772.5000;0.2450;0.2812;
772.8000;0.2458;0.2836;
773.1000;0.2458;0.2908;
773.4000;0.2434;0.2933;
773.7000;0.2426;0.2957;
774.0000;0.2458;0.3030;
774.3000;0.2458;0.3127;
774.6000;0.2450;0.3175;
774.9000;0.2458;0.3127;
775.2000;0.2450;0.3127;
775.5000;0.2475;0.3151;
775.8000;0.2442;0.3102;
776.1000;0.2434;0.3030;
776.4000;0.2450;0.3005;
776.7000;0.2442;0.2933;
777.0000;0.2458;0.2981;
777.3000;0.2434;0.3005;
777.6000;0.2450;0.2981;
777.9000;0.2426;0.2884;
778.2000;0.2450;0.3005;
778.5000;0.2450;0.2981;
778.8000;0.2458;0.3102;
779.1000;0.2450;0.3102;
779.4000;0.2450;0.3175;
779.7000;0.2507;0.3345;
780.0000;0.2556;0.3393;
780.3000;0.2450;0.3054;
780.6000;0.2458;0.3054;
780.9000;0.2418;0.2981;
781.2000;0.2466;0.3078;
781.5000;0.2475;0.3151;
781.8000;0.2393;0.2908;
782.1000;0.2442;0.3030;
782.4000;0.2450;0.2981;
782.7000;0.2434;0.2981;
783.0000;0.2475;0.3151;
783.3000;0.2450;0.3078;
783.6000;0.2475;0.3030;
783.9000;0.2458;0.3054;
784.2000;0.2475;0.3078;
784.5000;0.2458;0.3127;
784.8000;0.2491;0.3224;
785.1000;0.2450;0.3078;
785.4000;0.2442;0.3151;
785.7000;0.2434;0.3175;
786.0000;0.2434;0.3127;
786.3000;0.2450;0.3175;
786.6000;0.2434;0.3078;
786.9000;0.2458;0.3030;
787.2000;0.2426;0.2908;
787.5000;0.2458;0.3030;
787.8000;0.2426;0.2933;
788.1000;0.2458;0.2981;
788.4000;0.2450;0.2957;
788.7000;0.2442;0.2884;
789.0000;0.2442;0.2836;
789.3000;0.2442;0.2884;
789.6000;0.2458;0.2957;
789.9000;0.2523;0.3175;
790.2000;0.2434;0.2933;
790.5000;0.2458;0.2884;
790.8000;0.2450;0.2933;
791.1000;0.2450;0.2933;
791.4000;0.2458;0.2836;
791.7000;0.2434;0.2690;
792.0000;0.2507;0.2884;
792.3000;0.2450;0.2787;
792.6000;0.2458;0.2836;
792.9000;0.2442;0.2787;
793.2000;0.2426;0.2763;
793.5000;0.2458;0.2787;
793.8000;0.2442;0.2690;
794.1000;0.2442;0.2739;
794.4000;0.2450;0.2715;
794.7000;0.2450;0.2690;
795.0000;0.2450;0.2690;
795.3000;0.2466;0.2812;
795.6000;0.2450;0.2739;
795.9000;0.2458;0.2787;
796.2000;0.2475;0.2812;
796.5000;0.2442;0.2812;
796.8000;0.2458;0.2884;
797.1000;0.2442;0.2884;
797.4000;0.2450;0.2836;
797.7000;0.2450;0.2763;
798.0000;0.2442;0.2763;
798.3000;0.2450;0.2812;
798.6000;0.2475;0.2715;
798.9000;0.2450;0.2739;
799.2000;0.2458;0.2787;
799.5000;0.2426;0.2884;
799.8000;0.2458;0.2933;
800.1000;0.2532;0.3102;
800.4000;0.2239;0.2351;
800.7000;0.2434;0.2812;
801.0000;0.2466;0.2884;
801.3000;0.2442;0.2836;
801.6000;0.2450;0.2860;
801.9000;0.2409;0.2715;
802.2000;0.2458;0.2836;
802.5000;0.2336;0.2496;
802.8000;0.2434;0.2812;
803.1000;0.2442;0.2908;
803.4000;0.2548;0.3175;
803.7000;0.2491;0.2981;
804.0000;0.2483;0.2957;
804.3000;0.2442;0.2836;
804.6000;0.2450;0.2763;
804.9000;0.2418;0.2690;
805.2000;0.2458;0.2812;
805.5000;0.2466;0.2933;
805.8000;0.2442;0.2981;
806.1000;0.2458;0.2933;
806.4000;0.2442;0.2908;
806.7000;0.2458;0.3005;
807.0000;0.2434;0.3005;
807.3000;0.2458;0.3005;
807.6000;0.2475;0.3151;
807.9000;0.2442;0.3005;
808.2000;0.2434;0.2957;
808.5000;0.2450;0.3030;
808.8000;0.2409;0.2884;
809.1000;0.2466;0.3030;
809.4000;0.2458;0.2981;
809.7000;0.2434;0.3054;
810.0000;0.2475;0.3224;
810.3000;0.2458;0.3151;
810.6000;0.2483;0.3175;
810.9000;0.2450;0.3078;
811.2000;0.2450;0.3054;
811.5000;0.2458;0.3078;
811.8000;0.2450;0.3054;
812.1000;0.2442;0.3078;
812.4000;0.2523;0.3296;
812.7000;0.2442;0.3030;
813.0000;0.2418;0.2908;
813.3000;0.2450;0.3030;
813.6000;0.2458;0.3005;
813.9000;0.2450;0.2908;
814.2000;0.2450;0.2908;
814.5000;0.2442;0.2957;
814.8000;0.2458;0.2981;
815.1000;0.2442;0.2981;
815.4000;0.2458;0.2957;
815.7000;0.2434;0.2812;
816.0000;0.2458;0.2836;
816.3000;0.2442;0.2884;
816.6000;0.2434;0.2933;
816.9000;0.2442;0.3005;
817.2000;0.2434;0.2957;
817.5000;0.2483;0.3127;
817.8000;0.2466;0.3005;
818.1000;0.2483;0.3102;
818.4000;0.2450;0.2981;
818.7000;0.2426;0.2957;
819.0000;0.2466;0.3078;
819.3000;0.2450;0.3030;
819.6000;0.2442;0.2957;
819.9000;0.2434;0.2981;
820.2000;0.2450;0.3078;
820.5000;0.2475;0.3199;
820.8000;0.2458;0.3030;
821.1000;0.2442;0.2957;
821.4000;0.2466;0.3102;
821.7000;0.2418;0.2981;
822.0000;0.2491;0.3199;
822.3000;0.2483;0.3224;
822.6000;0.2475;0.3248;
822.9000;0.2499;0.3296;
823.2000;0.2458;0.3199;
823.5000;0.2499;0.3272;
823.8000;0.2475;0.3224;
824.1000;0.2442;0.3127;
824.4000;0.2523;0.3272;
824.7000;0.2434;0.3102;
825.0000;0.2475;0.3248;
825.3000;0.2483;0.3224;
825.6000;0.2475;0.3175;
825.9000;0.2450;0.3102;
826.2000;0.2466;0.3151;
826.5000;0.2418;0.2981;
826.8000;0.2515;0.3345;
827.1000;0.2442;0.3102;
827.4000;0.2532;0.3296;
827.7000;0.2393;0.3030;
828.0000;0.2418;0.3151;
828.3000;0.2450;0.3224;
828.6000;0.2442;0.3175;
828.9000;0.2450;0.3224;
829.2000;0.2442;0.3199;
829.5000;0.2434;0.3102;
829.8000;0.2426;0.3054;
830.1000;0.2426;0.3005;
830.4000;0.2442;0.2957;
830.7000;0.2442;0.3054;
831.0000;0.2450;0.3078;
831.3000;0.2458;0.3078;
831.6000;0.2442;0.3030;
831.9000;0.2532;0.3272;
832.2000;0.2458;0.3127;
832.5000;0.2442;0.3005;
832.8000;0.2483;0.3005;
833.1000;0.2458;0.3005;
833.4000;0.2475;0.3054;
833.7000;0.2434;0.2933;
834.0000;0.2442;0.2957;
834.3000;0.2442;0.3005;
834.6000;0.2450;0.3030;
834.9000;0.2442;0.3054;
835.2000;0.2458;0.3030;
835.5000;0.2450;0.2884;
835.8000;0.2442;0.2763;
836.1000;0.2458;0.2690;
836.4000;0.2450;0.2666;
836.7000;0.2466;0.2763;
837.0000;0.2450;0.2739;
837.3000;0.2401;0.2690;
837.6000;0.2475;0.2860;
837.9000;0.2450;0.2957;
838.2000;0.2466;0.2981;
838.5000;0.2458;0.2981;
838.8000;0.2418;0.2957;
839.1000;0.2450;0.2981;
839.4000;0.2466;0.3005;
839.7000;0.2401;0.2763;
840.0000;0.2450;0.3005;
840.3000;0.2442;0.3054;
840.6000;0.2393;0.2908;
840.9000;0.2483;0.3175;
841.2000;0.2434;0.3078;
841.5000;0.2483;0.3175;
841.8000;0.2458;0.3078;
842.1000;0.2458;0.3151;
842.4000;0.2450;0.3175;
842.7000;0.2491;0.3199;
843.0000;0.2483;0.3175;
843.3000;0.2442;0.3175;
843.6000;0.2442;0.3199;
843.9000;0.2434;0.3175;
844.2000;0.2434;0.3078;
844.5000;0.2442;0.2981;
844.8000;0.2458;0.3030;
845.1000;0.2442;0.3005;
845.4000;0.2450;0.3102;
845.7000;0.2458;0.3127;
846.0000;0.2466;0.3102;
846.3000;0.2393;0.2933;
846.6000;0.2450;0.3078;
846.9000;0.2450;0.3127;
847.2000;0.2466;0.3175;
847.5000;0.2442;0.3102;
847.8000;0.2466;0.3102;
848.1000;0.2458;0.3005;
848.4000;0.2466;0.2957;
848.7000;0.2450;0.2957;
849.0000;0.2426;0.3005;
849.3000;0.2442;0.3030;
849.6000;0.2458;0.3030;
849.9000;0.2466;0.2957;
850.2000;0.2450;0.2957;
850.5000;0.2442;0.2884;
850.8000;0.2434;0.2860;
851.1000;0.2532;0.3175;
851.4000;0.2450;0.2933;
851.7000;0.2434;0.3030;
852.0000;0.2450;0.3102;
852.3000;0.2466;0.3102;
852.6000;0.2466;0.3078;
852.9000;0.2458;0.3054;
853.2000;0.2466;0.3224;
853.5000;0.2475;0.3224;
853.8000;0.2442;0.3127;
854.1000;0.2442;0.3175;
854.4000;0.2442;0.3005;
854.7000;0.2458;0.3030;
855.0000;0.2458;0.3054;
855.3000;0.2507;0.3127;
855.6000;0.2426;0.2957;
855.9000;0.2426;0.2933;
856.2000;0.2483;0.3078;
856.5000;0.2458;0.3005;
856.8000;0.2434;0.2884;
857.1000;0.2385;0.2666;
857.4000;0.2434;0.2739;
857.7000;0.2532;0.2957;
858.0000;0.2450;0.2836;
858.3000;0.2458;0.2957;
858.6000;0.2450;0.2957;
858.9000;0.2458;0.2981;
859.2000;0.2450;0.2908;
859.5000;0.2475;0.2908;
859.8000;0.2442;0.2908;
860.1000;0.2458;0.2933;
860.4000;0.2442;0.2981;
860.7000;0.2434;0.2933;
861.0000;0.2434;0.2933;
861.3000;0.2458;0.2933;
861.6000;0.2450;0.2860;
861.9000;0.2393;0.2666;
862.2000;0.2442;0.2812;
862.5000;0.2458;0.2860;
862.8000;0.2450;0.2787;
863.1000;0.2458;0.2763;
863.4000;0.2458;0.2836;
863.7000;0.2401;0.2812;
864.0000;0.2442;0.2763;
864.3000;0.2450;0.2787;
864.6000;0.2442;0.2787;
864.9000;0.2393;0.2521;
865.2000;0.2458;0.2739;
865.5000;0.2450;0.2763;
865.8000;0.2450;0.2763;
866.1000;0.2418;0.2739;
866.4000;0.2458;0.2836;
866.7000;0.2458;0.2884;
867.0000;0.2458;0.2908;
867.3000;0.2442;0.2908;
867.6000;0.2450;0.2957;
867.9000;0.2466;0.2957;
868.2000;0.2458;0.2884;
868.5000;0.2442;0.2836;
868.8000;0.2483;0.2884;
869.1000;0.2401;0.2642;
869.4000;0.2450;0.2812;
869.7000;0.2442;0.2884;
870.0000;0.2466;0.2884;
870.3000;0.2458;0.2908;
870.6000;0.2442;0.2884;
870.9000;0.2442;0.2836;
871.2000;0.2458;0.2836;
871.5000;0.2450;0.2812;
871.8000;0.2336;0.2424;
872.1000;0.2466;0.2763;
872.4000;0.2458;0.2666;
872.7000;0.2426;0.2569;
873.0000;0.2523;0.2787;
873.3000;0.2450;0.2642;
873.6000;0.2450;0.2690;
873.9000;0.2458;0.2763;
874.2000;0.2450;0.2836;
874.5000;0.2450;0.2763;
874.8000;0.2442;0.2787;
875.1000;0.2426;0.2763;
875.4000;0.2450;0.2739;
875.7000;0.2450;0.2642;
876.0000;0.2418;0.2569;
876.3000;0.2466;0.2690;
876.6000;0.2466;0.2763;
876.9000;0.2483;0.2787;
877.2000;0.2466;0.2763;
877.5000;0.2458;0.2739;
877.8000;0.2475;0.2836;
878.1000;0.2458;0.2812;
878.4000;0.2418;0.2690;
878.7000;0.2450;0.2715;
879.0000;0.2450;0.2739;
879.3000;0.2401;0.2593;
879.6000;0.2466;0.2763;
879.9000;0.2418;0.2690;
880.2000;0.2466;0.2836;
880.5000;0.2450;0.2739;
880.8000;0.2450;0.2666;
881.1000;0.2450;0.2642;
881.4000;0.2466;0.2666;
881.7000;0.2401;0.2521;
882.0000;0.2450;0.2666;
882.3000;0.2442;0.2618;
882.6000;0.2458;0.2763;
882.9000;0.2466;0.2836;
883.2000;0.2450;0.2787;
883.5000;0.2450;0.2666;
883.8000;0.2434;0.2593;
884.1000;0.2475;0.2690;
884.4000;0.2458;0.2715;
884.7000;0.2458;0.2787;
885.0000;0.2418;0.2715;
885.3000;0.2442;0.2763;
885.6000;0.2450;0.2739;
885.9000;0.2450;0.2739;
886.2000;0.2458;0.2787;
886.5000;0.2442;0.2690;
886.8000;0.2458;0.2690;
887.1000;0.2442;0.2690;
887.4000;0.2450;0.2763;
887.7000;0.2458;0.2715;
888.0000;0.2458;0.2836;
888.3000;0.2507;0.2884;
888.6000;0.2442;0.2763;
888.9000;0.2450;0.2739;
889.2000;0.2466;0.2860;
889.5000;0.2385;0.2593;
889.8000;0.2442;0.2763;
890.1000;0.2475;0.2860;
890.4000;0.2426;0.2812;
890.7000;0.2434;0.2763;
891.0000;0.2442;0.2933;
891.3000;0.2450;0.2933;
891.6000;0.2475;0.3030;
891.9000;0.2580;0.3296;
892.2000;0.2401;0.2812;
892.5000;0.2434;0.2908;
892.8000;0.2466;0.2933;
893.1000;0.2385;0.2690;
893.4000;0.2450;0.2836;
893.7000;0.2540;0.3030;
894.0000;0.2344;0.2666;
894.3000;0.2458;0.2957;
894.6000;0.2507;0.3102;
894.9000;0.2466;0.3054;
895.2000;0.2442;0.2981;
895.5000;0.2426;0.2836;
895.8000;0.2442;0.2884;
896.1000;0.2458;0.2884;
896.4000;0.2450;0.2812;
896.7000;0.2458;0.2739;
897.0000;0.2450;0.2715;
897.3000;0.2466;0.2763;
897.6000;0.2450;0.2715;
897.9000;0.2442;0.2666;
898.2000;0.2458;0.2690;
898.5000;0.2450;0.2690;
898.8000;0.2466;0.2690;
899.1000;0.2409;0.2569;
899.4000;0.2450;0.2690;
899.7000;0.2466;0.2739;
900.0000;0.2450;0.2715;
900.3000;0.2458;0.2739;
900.6000;0.2515;0.2957;
900.9000;0.2450;0.2860;
901.2000;0.2458;0.2908;
901.5000;0.2450;0.2933;
901.8000;0.2434;0.2933;
902.1000;0.2458;0.2884;
902.4000;0.2466;0.2884;
902.7000;0.2426;0.2860;
903.0000;0.2442;0.2860;
903.3000;0.2458;0.2957;
903.6000;0.2458;0.2908;
903.9000;0.2450;0.2836;
904.2000;0.2458;0.2908;
904.5000;0.2466;0.3005;
904.8000;0.2418;0.2981;
905.1000;0.2434;0.3054;
905.4000;0.2450;0.3054;
905.7000;0.2450;0.3151;
906.0000;0.2418;0.3030;
906.3000;0.2442;0.2981;
906.6000;0.2401;0.2836;
906.9000;0.2450;0.2908;
907.2000;0.2450;0.2908;
907.5000;0.2475;0.2933;
907.8000;0.2475;0.2957;
908.1000;0.2458;0.2836;
908.4000;0.2418;0.2739;
908.7000;0.2556;0.3175;
909.0000;0.2475;0.3102;
909.3000;0.2450;0.3078;
909.6000;0.2466;0.3078;
909.9000;0.2499;0.3078;
910.2000;0.2369;0.2715;
910.5000;0.2458;0.3078;
910.8000;0.2450;0.3127;
911.1000;0.2458;0.3127;
911.4000;0.2458;0.3127;
911.7000;0.2442;0.3151;
912.0000;0.2409;0.3054;
912.3000;0.2450;0.3224;
912.6000;0.2434;0.3175;
912.9000;0.2475;0.3272;
913.2000;0.2458;0.3151;
913.5000;0.2426;0.3102;
913.8000;0.2434;0.3127;
914.1000;0.2450;0.3175;
914.4000;0.2450;0.3175;
914.7000;0.2483;0.3224;
915.0000;0.2475;0.3199;
915.3000;0.2442;0.3054;
915.6000;0.2426;0.3005;
915.9000;0.2475;0.3102;
916.2000;0.2450;0.3102;
916.5000;0.2458;0.2981;
916.8000;0.2564;0.3320;
917.1000;0.2442;0.2908;
917.4000;0.2483;0.2957;
917.7000;0.2401;0.2690;
918.0000;0.2442;0.2836;
918.3000;0.2442;0.2787;
918.6000;0.2418;0.2690;
918.9000;0.2450;0.2933;
919.2000;0.2466;0.2933;
919.5000;0.2475;0.2957;
919.8000;0.2515;0.3078;
920.1000;0.2466;0.2884;
920.4000;0.2450;0.2787;
920.7000;0.2434;0.2642;
921.0000;0.2434;0.2618;
921.3000;0.2458;0.2666;
921.6000;0.2458;0.2690;
921.9000;0.2442;0.2690;
922.2000;0.2401;0.2593;
922.5000;0.2458;0.2812;
922.8000;0.2458;0.2787;
923.1000;0.2458;0.2763;
923.4000;0.2458;0.2884;
923.7000;0.2466;0.2908;
924.0000;0.2466;0.2981;
924.3000;0.2483;0.3005;
924.6000;0.2458;0.2908;
924.9000;0.2483;0.2908;
925.2000;0.2466;0.2836;
925.5000;0.2458;0.2836;
925.8000;0.2418;0.2739;
926.1000;0.2532;0.3005;
926.4000;0.2450;0.2860;
926.7000;0.2450;0.2812;
927.0000;0.2450;0.2812;
927.3000;0.2458;0.2812;
927.6000;0.2458;0.2860;
927.9000;0.2450;0.2860;
928.2000;0.2450;0.2933;
928.5000;0.2409;0.2812;
928.8000;0.2442;0.3005;
929.1000;0.2458;0.3005;
929.4000;0.2475;0.3054;
929.7000;0.2483;0.3078;
930.0000;0.2442;0.2957;
930.3000;0.2442;0.2908;
930.6000;0.2458;0.2908;
930.9000;0.2466;0.2981;
931.2000;0.2450;0.3005;
931.5000;0.2507;0.3102;
931.8000;0.2450;0.2957;
932.1000;0.2458;0.2933;
932.4000;0.2450;0.2957;
932.7000;0.2458;0.2908;
933.0000;0.2450;0.2884;
933.3000;0.2450;0.2884;
933.6000;0.2475;0.2981;
933.9000;0.2466;0.2981;
934.2000;0.2458;0.3030;
934.5000;0.2450;0.2981;
934.8000;0.2426;0.2957;
935.1000;0.2466;0.3102;
935.4000;0.2466;0.3151;
935.7000;0.2442;0.3102;
936.0000;0.2434;0.3054;
936.3000;0.2458;0.3102;
936.6000;0.2458;0.3005;
936.9000;0.2442;0.3005;
937.2000;0.2450;0.2908;
937.5000;0.2466;0.3005;
937.8000;0.2458;0.3030;
938.1000;0.2434;0.3005;
938.4000;0.2499;0.3175;
938.7000;0.2458;0.3127;
939.0000;0.2426;0.3005;
939.3000;0.2556;0.3320;
939.6000;0.2483;0.3030;
939.9000;0.2450;0.2981;
940.2000;0.2434;0.2933;
940.5000;0.2442;0.2933;
940.8000;0.2458;0.3030;
941.1000;0.2426;0.3054;
941.4000;0.2466;0.3127;
941.7000;0.2466;0.3127;
942.0000;0.2442;0.3030;
942.3000;0.2450;0.2981;
942.6000;0.2401;0.2836;
942.9000;0.2458;0.2908;
943.2000;0.2450;0.2836;
943.5000;0.2442;0.2812;
943.8000;0.2491;0.3030;
944.1000;0.2466;0.2933;
944.4000;0.2475;0.2884;
944.7000;0.2450;0.2884;
945.0000;0.2442;0.2981;
945.3000;0.2475;0.3151;
945.6000;0.2466;0.3102;
945.9000;0.2434;0.3005;
946.2000;0.2450;0.3005;
946.5000;0.2458;0.2933;
946.8000;0.2450;0.2933;
947.1000;0.2466;0.2884;
947.4000;0.2442;0.2860;
947.7000;0.2450;0.2981;
948.0000;0.2466;0.3102;
948.3000;0.2466;0.3102;
948.6000;0.2458;0.3175;
948.9000;0.2442;0.3127;
949.2000;0.2450;0.3030;
949.5000;0.2458;0.3054;
949.8000;0.2450;0.3102;
950.1000;0.2450;0.3030;
950.4000;0.2475;0.3005;
950.7000;0.2450;0.2908;
951.0000;0.2466;0.2908;
951.3000;0.2450;0.2908;
951.6000;0.2450;0.2908;
951.9000;0.2466;0.2957;
952.2000;0.2450;0.3054;
952.5000;0.2352;0.2787;
952.8000;0.2466;0.3078;
953.1000;0.2426;0.3005;
953.4000;0.2442;0.3151;
953.7000;0.2540;0.3442;
954.0000;0.2393;0.3127;
954.3000;0.2442;0.3199;
954.6000;0.2409;0.3127;
954.9000;0.2442;0.3272;
955.2000;0.2458;0.3369;
955.5000;0.2393;0.3248;
955.8000;0.2475;0.3369;
956.1000;0.2450;0.3199;
956.4000;0.2466;0.3224;
956.7000;0.2580;0.3539;
957.0000;0.2458;0.3102;
957.3000;0.2450;0.2981;
957.6000;0.2458;0.3078;
957.9000;0.2442;0.2957;
958.2000;0.2442;0.2981;
958.5000;0.2434;0.2957;
958.8000;0.2466;0.2933;
959.1000;0.2393;0.2739;
959.4000;0.2458;0.2836;
959.7000;0.2442;0.2715;
960.0000;0.2344;0.2496;
960.3000;0.2458;0.2812;
960.6000;0.2458;0.2884;
960.9000;0.2377;0.2642;
961.2000;0.2475;0.2812;
961.5000;0.2369;0.2496;
961.8000;0.2458;0.2763;
962.1000;0.2475;0.2812;
962.4000;0.2450;0.2787;
962.7000;0.2442;0.2860;
963.0000;0.2491;0.3005;
963.3000;0.2475;0.3151;
963.6000;0.2442;0.3054;
963.9000;0.2458;0.3127;
964.2000;0.2450;0.3127;
964.5000;0.2507;0.3296;
964.8000;0.2458;0.3151;
965.1000;0.2450;0.3078;
965.4000;0.2442;0.3127;
965.7000;0.2450;0.3151;
966.0000;0.2458;0.3127;
966.3000;0.2450;0.3102;
966.6000;0.2434;0.3030;
966.9000;0.2442;0.3054;
967.2000;0.2442;0.3102;
967.5000;0.2458;0.3054;
967.8000;0.2442;0.3030;
968.1000;0.2409;0.3054;
968.4000;0.2458;0.3248;
968.7000;0.2450;0.3320;
969.0000;0.2377;0.3102;
969.3000;0.2442;0.3248;
969.6000;0.2442;0.3224;
969.9000;0.2466;0.3272;
970.2000;0.2442;0.3127;
970.5000;0.2442;0.3102;
970.8000;0.2434;0.3054;
971.1000;0.2466;0.3199;
971.4000;0.2458;0.3127;
971.7000;0.2466;0.3078;
972.0000;0.2450;0.3102;
972.3000;0.2540;0.3369;
972.6000;0.2466;0.3102;
972.9000;0.2401;0.2981;
973.2000;0.2442;0.3175;
973.5000;0.2458;0.3248;
973.8000;0.2426;0.3127;
974.1000;0.2450;0.3248;
974.4000;0.2450;0.3199;
974.7000;0.2458;0.3272;
975.0000;0.2491;0.3369;
975.3000;0.2475;0.3369;
975.6000;0.2466;0.3393;
975.9000;0.2466;0.3320;
976.2000;0.2475;0.3393;
976.5000;0.2532;0.3514;
976.8000;0.2466;0.3296;
977.1000;0.2450;0.3151;
977.4000;0.2458;0.3248;
977.7000;0.2442;0.3175;
978.0000;0.2458;0.3199;
978.3000;0.2442;0.3102;
978.6000;0.2426;0.3030;
978.9000;0.2434;0.3078;
979.2000;0.2450;0.3102;
979.5000;0.2450;0.3127;
979.8000;0.2442;0.3199;
980.1000;0.2442;0.3199;
980.4000;0.2475;0.3320;
980.7000;0.2475;0.3345;
981.0000;0.2466;0.3320;
981.3000;0.2475;0.3248;
981.6000;0.2483;0.3224;
981.9000;0.2450;0.3151;
982.2000;0.2466;0.3175;
982.5000;0.2466;0.3199;
982.8000;0.2458;0.3175;
983.1000;0.2377;0.2957;
983.4000;0.2466;0.3175;
983.7000;0.2450;0.3175;
984.0000;0.2499;0.3296;
984.3000;0.2442;0.3199;
984.6000;0.2450;0.3175;
984.9000;0.2475;0.3248;
985.2000;0.2458;0.3272;
985.5000;0.2442;0.3320;
985.8000;0.2475;0.3345;
986.1000;0.2458;0.3248;
986.4000;0.2450;0.3199;
986.7000;0.2523;0.3320;
987.0000;0.2442;0.3102;
987.3000;0.2450;0.3054;
987.6000;0.2442;0.3102;
987.9000;0.2450;0.3102;
988.2000;0.2458;0.3151;
988.5000;0.2458;0.3248;
988.8000;0.2450;0.3248;
989.1000;0.2377;0.3005;
989.4000;0.2450;0.3224;
989.7000;0.2418;0.3151;
990.0000;0.2442;0.3151;
990.3000;0.2458;0.3272;
990.6000;0.2426;0.3175;
990.9000;0.2442;0.3175;
991.2000;0.2458;0.3199;
991.5000;0.2450;0.3151;
991.8000;0.2442;0.3005;
992.1000;0.2475;0.3030;
992.4000;0.2466;0.3030;
992.7000;0.2466;0.3054;
993.0000;0.2548;0.3296;
993.3000;0.2450;0.3030;
993.6000;0.2418;0.2957;
993.9000;0.2450;0.3005;
994.2000;0.2483;0.3078;
994.5000;0.2450;0.2981;
994.8000;0.2458;0.3030;
995.1000;0.2418;0.2933;
995.4000;0.2458;0.3102;
995.7000;0.2466;0.3151;
996.0000;0.2434;0.3030;
996.3000;0.2401;0.2884;
996.6000;0.2466;0.3005;
996.9000;0.2458;0.2957;
997.2000;0.2458;0.2884;
997.5000;0.2442;0.2884;
997.8000;0.2450;0.3030;
998.1000;0.2442;0.3102;
998.4000;0.2409;0.2957;
998.7000;0.2442;0.2933;
999.0000;0.2434;0.2957;
999.3000;0.2442;0.3030;
999.6000;0.2442;0.3078;
999.9000;0.2442;0.3102;
1000.2000;0.2466;0.3224;
1000.5000;0.2458;0.3248;
1000.8000;0.2458;0.3175;
1001.1000;0.2426;0.3102;
1001.4000;0.2401;0.3127;
1001.7000;0.2466;0.3224;
1002.0000;0.2458;0.3199;
1002.3000;0.2450;0.3199;
1002.6000;0.2458;0.3175;
1002.9000;0.2450;0.3127;
1003.2000;0.2442;0.3127;
1003.5000;0.2458;0.3151;
1003.8000;0.2409;0.2908;
1004.1000;0.2466;0.3078;
1004.4000;0.2442;0.3005;
1004.7000;0.2458;0.2981;
1005.0000;0.2475;0.2933;
1005.3000;0.2426;0.2884;
1005.6000;0.2475;0.2957;
1005.9000;0.2442;0.2836;
1006.2000;0.2450;0.2860;
1006.5000;0.2450;0.2812;
1006.8000;0.2458;0.2812;
1007.1000;0.2475;0.2860;
1007.4000;0.2450;0.2812;
1007.7000;0.2466;0.2836;
1008.0000;0.2466;0.2812;
1008.3000;0.2466;0.2690;
1008.6000;0.2434;0.2642;
1008.9000;0.2491;0.2763;
1009.2000;0.2466;0.2812;
1009.5000;0.2483;0.2739;
1009.8000;0.2450;0.2739;
1010.1000;0.2450;0.2763;
1010.4000;0.2475;0.2787;
1010.7000;0.2442;0.2715;
1011.0000;0.2450;0.2763;
1011.3000;0.2450;0.2763;
1011.6000;0.2532;0.3005;
1011.9000;0.2458;0.2957;
1012.2000;0.2475;0.2908;
1012.5000;0.2450;0.2908;
1012.8000;0.2466;0.2981;
1013.1000;0.2442;0.2908;
1013.4000;0.2450;0.2933;
1013.7000;0.2450;0.2836;
1014.0000;0.2458;0.2763;
1014.3000;0.2466;0.2787;
1014.6000;0.2442;0.2739;
1014.9000;0.2442;0.2666;
1015.2000;0.2450;0.2763;
1015.5000;0.2450;0.2860;
1015.8000;0.2483;0.2957;
1016.1000;0.2458;0.2884;
1016.4000;0.2450;0.2860;
1016.7000;0.2466;0.2836;
1017.0000;0.2409;0.2739;
1017.3000;0.2475;0.2908;
1017.6000;0.2466;0.2957;
1017.9000;0.2458;0.2957;
1018.2000;0.2458;0.3030;
1018.5000;0.2458;0.3005;
1018.8000;0.2426;0.3005;
1019.1000;0.2466;0.3054;
1019.4000;0.2450;0.3005;
1019.7000;0.2434;0.2981;
1020.0000;0.2450;0.3030;
1020.3000;0.2466;0.2981;
1020.6000;0.2450;0.2908;
1020.9000;0.2458;0.2908;
1021.2000;0.2458;0.2957;
1021.5000;0.2458;0.3078;
1021.8000;0.2548;0.3345;
1022.1000;0.2475;0.3151;
1022.4000;0.2523;0.3272;
1022.7000;0.2458;0.3127;
1023.0000;0.2458;0.3175;
1023.3000;0.2466;0.3127;
1023.6000;0.2458;0.3151;
1023.9000;0.2434;0.3102;
1024.2000;0.2458;0.3199;
1024.5000;0.2466;0.3199;
1024.8000;0.2434;0.3078;
1025.1000;0.2458;0.3102;
1025.4000;0.2409;0.2957;
1025.7000;0.2450;0.3005;
1026.0000;0.2466;0.3030;
1026.3000;0.2466;0.3127;
1026.6000;0.2540;0.3320;
1026.9000;0.2499;0.3296;
1027.2000;0.2458;0.3224;
1027.5000;0.2515;0.3466;
1027.8000;0.2466;0.3320;
1028.1000;0.2458;0.3175;
1028.4000;0.2475;0.3248;
1028.7000;0.2491;0.3248;
1029.0000;0.2442;0.3054;
1029.3000;0.2426;0.3005;
1029.6000;0.2442;0.3102;
1029.9000;0.2458;0.3102;
1030.2000;0.2458;0.3054;
1030.5000;0.2507;0.3151;
1030.8000;0.2458;0.3030;
1031.1000;0.2466;0.3030;
1031.4000;0.2532;0.3175;
1031.7000;0.2466;0.3005;
1032.0000;0.2540;0.3224;
1032.3000;0.2523;0.3151;
1032.6000;0.2475;0.3054;
1032.9000;0.2458;0.2957;
1033.2000;0.2466;0.3030;
1033.5000;0.2426;0.2933;
1033.8000;0.2475;0.3030;
1034.1000;0.2450;0.3030;
1034.4000;0.2499;0.3151;
1034.7000;0.2450;0.2957;
1035.0000;0.2385;0.2690;
1035.3000;0.2450;0.2860;
1035.6000;0.2344;0.2569;
1035.9000;0.2442;0.2836;
1036.2000;0.2450;0.2836;
1036.5000;0.2466;0.2908;
1036.8000;0.2466;0.2836;
1037.1000;0.2426;0.2715;
1037.4000;0.2466;0.2884;
1037.7000;0.2475;0.2860;
1038.0000;0.2426;0.2836;
1038.3000;0.2450;0.2933;
1038.6000;0.2450;0.2957;
1038.9000;0.2466;0.3005;
1039.2000;0.2442;0.2957;
1039.5000;0.2450;0.2933;
1039.8000;0.2458;0.3005;
1040.1000;0.2466;0.3030;
1040.4000;0.2458;0.3005;
1040.7000;0.2458;0.3078;
1041.0000;0.2540;0.3320;
1041.3000;0.2466;0.3199;
1041.6000;0.2450;0.3199;
1041.9000;0.2458;0.3175;
1042.2000;0.2475;0.3151;
1042.5000;0.2450;0.3078;
1042.8000;0.2450;0.3005;
1043.1000;0.2475;0.2981;
1043.4000;0.2458;0.2933;
1043.7000;0.2450;0.2933;
1044.0000;0.2483;0.3030;
1044.3000;0.2418;0.2884;
1044.6000;0.2475;0.3054;
1044.9000;0.2466;0.3127;
1045.2000;0.2483;0.3151;
1045.5000;0.2418;0.2981;
1045.8000;0.2499;0.3175;
1046.1000;0.2458;0.3078;
1046.4000;0.2336;0.2787;
1046.7000;0.2491;0.3296;
1047.0000;0.2450;0.3030;
1047.3000;0.2458;0.3102;
1047.6000;0.2540;0.3345;
1047.9000;0.2442;0.3127;
1048.2000;0.2450;0.3224;
1048.5000;0.2426;0.3054;
1048.8000;0.2475;0.3248;
1049.1000;0.2466;0.3248;
1049.4000;0.2426;0.3054;
1049.7000;0.2466;0.3078;
1050.0000;0.2466;0.3127;
1050.3000;0.2442;0.3175;
1050.6000;0.2409;0.3127;
1050.9000;0.2442;0.3224;
1051.2000;0.2458;0.3272;
1051.5000;0.2499;0.3417;
1051.8000;0.2466;0.3296;
1052.1000;0.2450;0.3248;
1052.4000;0.2458;0.3272;
1052.7000;0.2442;0.3102;
1053.0000;0.2466;0.3175;
1053.3000;0.2450;0.3224;
1053.6000;0.2475;0.3224;
1053.9000;0.2475;0.3127;
1054.2000;0.2475;0.3175;
1054.5000;0.2434;0.3127;
1054.8000;0.2418;0.3078;
1055.1000;0.2458;0.3296;
1055.4000;0.2458;0.3224;
1055.7000;0.2450;0.3175;
1056.0000;0.2458;0.3175;
1056.3000;0.2450;0.3199;
1056.6000;0.2466;0.3175;
1056.9000;0.2475;0.3199;
1057.2000;0.2442;0.3224;
1057.5000;0.2466;0.3199;
1057.8000;0.2458;0.3175;
1058.1000;0.2466;0.3199;
1058.4000;0.2458;0.3175;
1058.7000;0.2393;0.3005;
1059.0000;0.2450;0.3175;
1059.3000;0.2466;0.3224;
1059.6000;0.2450;0.3127;
1059.9000;0.2442;0.3127;
1060.2000;0.2458;0.3272;
1060.5000;0.2466;0.3296;
1060.8000;0.2475;0.3199;
1061.1000;0.2442;0.3199;
1061.4000;0.2450;0.3199;
1061.7000;0.2475;0.3248;
1062.0000;0.2475;0.3224;
1062.3000;0.2442;0.3054;
1062.6000;0.2475;0.3102;
1062.9000;0.2450;0.3078;
1063.2000;0.2442;0.3078;
1063.5000;0.2491;0.3127;
1063.8000;0.2450;0.3078;
1064.1000;0.2458;0.3127;
1064.4000;0.2434;0.3054;
1064.7000;0.2458;0.3078;
1065.0000;0.2450;0.3078;
1065.3000;0.2450;0.3151;
1065.6000;0.2450;0.3078;
1065.9000;0.2466;0.3127;
1066.2000;0.2434;0.3078;
1066.5000;0.2475;0.3127;
1066.8000;0.2515;0.3296;
1067.1000;0.2442;0.3127;
1067.4000;0.2434;0.3054;
1067.7000;0.2548;0.3345;
1068.0000;0.2466;0.3151;
1068.3000;0.2442;0.3102;
1068.6000;0.2515;0.3296;
1068.9000;0.2418;0.3005;
1069.2000;0.2466;0.3078;
1069.5000;0.2466;0.3102;
1069.8000;0.2369;0.2860;
1070.1000;0.2450;0.3127;
1070.4000;0.2434;0.3005;
1070.7000;0.2450;0.3078;
1071.0000;0.2458;0.3175;
1071.3000;0.2442;0.3151;
1071.6000;0.2401;0.3102;
1071.9000;0.2458;0.3199;
1072.2000;0.2466;0.3248;
1072.5000;0.2491;0.3272;
1072.8000;0.2450;0.3199;
1073.1000;0.2540;0.3442;
1073.4000;0.2475;0.3320;
1073.7000;0.2458;0.3296;
1074.0000;0.2466;0.3272;
1074.3000;0.2475;0.3272;
1074.6000;0.2475;0.3199;
1074.9000;0.2442;0.3078;
1075.2000;0.2450;0.3199;
1075.5000;0.2458;0.3199;
1075.8000;0.2450;0.3175;
1076.1000;0.2450;0.3151;
1076.4000;0.2450;0.3224;
1076.7000;0.2475;0.3248;
1077.0000;0.2458;0.3199;
1077.3000;0.2450;0.3199;
1077.6000;0.2450;0.3127;
1077.9000;0.2458;0.3199;
1078.2000;0.2450;0.3224;
1078.5000;0.2466;0.3224;
1078.8000;0.2458;0.3320;
1079.1000;0.2450;0.3345;
1079.4000;0.2450;0.3296;
1079.7000;0.2450;0.3272;
1080.0000;0.2450;0.3272;
1080.3000;0.2458;0.3272;
1080.6000;0.2409;0.3005;
1080.9000;0.2450;0.3151;
1081.2000;0.2458;0.3078;
1081.5000;0.2442;0.3030;
1081.8000;0.2515;0.3272;
1082.1000;0.2442;0.3054;
1082.4000;0.2450;0.3078;
1082.7000;0.2450;0.3102;
1083.0000;0.2450;0.3175;
1083.3000;0.2458;0.3199;
1083.6000;0.2442;0.3175;
1083.9000;0.2466;0.3127;
1084.2000;0.2450;0.3078;
1084.5000;0.2434;0.3030;
1084.8000;0.2450;0.3102;
1085.1000;0.2450;0.3102;
1085.4000;0.2442;0.3078;
1085.7000;0.2466;0.3102;
1086.0000;0.2458;0.3078;
1086.3000;0.2442;0.3005;
1086.6000;0.2458;0.3054;
1086.9000;0.2442;0.3078;
1087.2000;0.2475;0.3175;
1087.5000;0.2450;0.3005;
1087.8000;0.2458;0.3030;
1088.1000;0.2450;0.3030;
1088.4000;0.2442;0.3030;
1088.7000;0.2442;0.2981;
1089.0000;0.2475;0.3151;
1089.3000;0.2458;0.3175;
1089.6000;0.2466;0.3248;
1089.9000;0.2450;0.3199;
1090.2000;0.2434;0.3078;
1090.5000;0.2466;0.3199;
1090.8000;0.2426;0.3175;
1091.1000;0.2458;0.3296;
1091.4000;0.2393;0.3175;
1091.7000;0.2418;0.3248;
1092.0000;0.2442;0.3272;
1092.3000;0.2466;0.3442;
1092.6000;0.2507;0.3587;
1092.9000;0.2450;0.3442;
1093.2000;0.2458;0.3369;
1093.5000;0.2458;0.3369;
1093.8000;0.2458;0.3272;
1094.1000;0.2401;0.3151;
1094.4000;0.2515;0.3417;
1094.7000;0.2466;0.3345;
1095.0000;0.2458;0.3369;
1095.3000;0.2450;0.3248;
1095.6000;0.2393;0.3078;
1095.9000;0.2458;0.3272;
1096.2000;0.2466;0.3272;
1096.5000;0.2377;0.2860;
1096.8000;0.2442;0.3030;
1097.1000;0.2442;0.3005;
1097.4000;0.2442;0.3078;
1097.7000;0.2466;0.3199;
1098.0000;0.2491;0.3272;
1098.3000;0.2450;0.3102;
1098.6000;0.2491;0.3272;
1098.9000;0.2450;0.3127;
1099.2000;0.2450;0.3175;
1099.5000;0.2466;0.3175;
1099.8000;0.2466;0.3175;
1100.1000;0.2466;0.3175;
1100.4000;0.2466;0.3127;
1100.7000;0.2450;0.3078;
1101.0000;0.2450;0.3030;
1101.3000;0.2572;0.3345;
1101.6000;0.2564;0.3442;
1101.9000;0.2450;0.3248;
1102.2000;0.2442;0.3199;
1102.5000;0.2450;0.3224;
1102.8000;0.2475;0.3175;
1103.1000;0.2466;0.3175;
1103.4000;0.2450;0.3151;
1103.7000;0.2507;0.3224;
1104.0000;0.2434;0.3102;
1104.3000;0.2458;0.3320;
1104.6000;0.2450;0.3272;
1104.9000;0.2466;0.3224;
1105.2000;0.2450;0.3102;
1105.5000;0.2475;0.3175;
1105.8000;0.2458;0.3127;
1106.1000;0.2458;0.3030;
1106.4000;0.2466;0.3054;
1106.7000;0.2458;0.3102;
1107.0000;0.2442;0.3078;
1107.3000;0.2466;0.3127;
1107.6000;0.2466;0.3078;
1107.9000;0.2466;0.3030;
1108.2000;0.2466;0.2981;
1108.5000;0.2475;0.3005;
1108.8000;0.2450;0.3078;
1109.1000;0.2458;0.3005;
1109.4000;0.2466;0.3030;
1109.7000;0.2475;0.3005;
1110.0000;0.2450;0.2933;
1110.3000;0.2450;0.2933;
1110.6000;0.2458;0.2908;
1110.9000;0.2434;0.2981;
1111.2000;0.2450;0.3054;
1111.5000;0.2450;0.3005;
1111.8000;0.2450;0.2957;
1112.1000;0.2483;0.3005;
1112.4000;0.2442;0.2908;
1112.7000;0.2450;0.3005;
1113.0000;0.2458;0.3005;
1113.3000;0.2442;0.2908;
1113.6000;0.2483;0.2981;
1113.9000;0.2466;0.3005;
1114.2000;0.2458;0.3005;
1114.5000;0.2458;0.2957;
1114.8000;0.2426;0.2763;
1115.1000;0.2442;0.2860;
1115.4000;0.2450;0.2981;
1115.7000;0.2442;0.2981;
1116.0000;0.2434;0.2957;
1116.3000;0.2491;0.3175;
1116.6000;0.2458;0.3078;
1116.9000;0.2458;0.3030;
1117.2000;0.2458;0.3005;
1117.5000;0.2393;0.2812;
1117.8000;0.2418;0.2812;
1118.1000;0.2385;0.2739;
1118.4000;0.2442;0.2860;
1118.7000;0.2475;0.2884;
1119.0000;0.2458;0.2763;
1119.3000;0.2458;0.2787;
1119.6000;0.2458;0.2812;
1119.9000;0.2483;0.2957;
1120.2000;0.2458;0.2981;
1120.5000;0.2564;0.3224;
1120.8000;0.2418;0.2836;
1121.1000;0.2458;0.2908;
1121.4000;0.2442;0.2908;
1121.7000;0.2491;0.3078;
1122.0000;0.2458;0.2981;
1122.3000;0.2466;0.3030;
1122.6000;0.2450;0.3151;
1122.9000;0.2409;0.3030;
1123.2000;0.2442;0.3127;
1123.5000;0.2458;0.3199;
1123.8000;0.2450;0.3248;
1124.1000;0.2434;0.3175;
1124.4000;0.2442;0.3199;
1124.7000;0.2458;0.3224;
1125.0000;0.2458;0.3175;
1125.3000;0.2418;0.3102;
1125.6000;0.2426;0.3102;
1125.9000;0.2580;0.3514;
1126.2000;0.2418;0.3102;
1126.5000;0.2401;0.3054;
1126.8000;0.2491;0.3199;
1127.1000;0.2466;0.3102;
1127.4000;0.2344;0.2739;
1127.7000;0.2426;0.3078;
1128.0000;0.2450;0.3078;
1128.3000;0.2458;0.3054;
1128.6000;0.2466;0.3078;
1128.9000;0.2450;0.3102;
1129.2000;0.2491;0.3127;
1129.5000;0.2458;0.3030;
1129.8000;0.2442;0.3078;
1130.1000;0.2458;0.3030;
1130.4000;0.2450;0.3054;
1130.7000;0.2442;0.2957;
1131.0000;0.2466;0.3054;
1131.3000;0.2442;0.3078;
1131.6000;0.2434;0.3127;
1131.9000;0.2475;0.3272;
1132.2000;0.2483;0.3272;
1132.5000;0.2458;0.3248;
1132.8000;0.2434;0.3199;
1133.1000;0.2442;0.3175;
1133.4000;0.2458;0.3127;
1133.7000;0.2442;0.3078;
1134.0000;0.2426;0.3151;
1134.3000;0.2442;0.3199;
1134.6000;0.2458;0.3199;
1134.9000;0.2458;0.3224;
1135.2000;0.2458;0.3224;
1135.5000;0.2475;0.3272;
1135.8000;0.2442;0.3127;
1136.1000;0.2458;0.3151;
1136.4000;0.2466;0.3175;
1136.7000;0.2458;0.3248;
1137.0000;0.2450;0.3199;
1137.3000;0.2442;0.3151;
1137.6000;0.2442;0.3127;
1137.9000;0.2458;0.3127;
1138.2000;0.2466;0.3175;
1138.5000;0.2458;0.3199;
1138.8000;0.2466;0.3199;
1139.1000;0.2418;0.3102;
1139.4000;0.2426;0.3175;
1139.7000;0.2450;0.3102;
1140.0000;0.2450;0.3078;
1140.3000;0.2483;0.3199;
1140.6000;0.2491;0.3102;
1140.9000;0.2442;0.2884;
1141.2000;0.2458;0.2908;
1141.5000;0.2450;0.2836;
1141.8000;0.2466;0.2860;
1142.1000;0.2450;0.2908;
1142.4000;0.2475;0.3054;
1142.7000;0.2450;0.2981;
1143.0000;0.2450;0.3005;
1143.3000;0.2450;0.3102;
1143.6000;0.2458;0.3272;
1143.9000;0.2409;0.3151;
1144.2000;0.2458;0.3224;
1144.5000;0.2515;0.3345;
1144.8000;0.2507;0.3345;
1145.1000;0.2458;0.3248;
1145.4000;0.2475;0.3175;
1145.7000;0.2466;0.3199;
1146.0000;0.2458;0.3199;
1146.3000;0.2458;0.3175;
1146.6000;0.2442;0.3127;
1146.9000;0.2450;0.3078;
1147.2000;0.2475;0.3102;
1147.5000;0.2466;0.3078;
1147.8000;0.2515;0.3199;
1148.1000;0.2458;0.3102;
1148.4000;0.2466;0.3078;
1148.7000;0.2466;0.3030;
1149.0000;0.2458;0.3078;
1149.3000;0.2434;0.3030;
1149.6000;0.2466;0.3078;
1149.9000;0.2466;0.3054;
1150.2000;0.2466;0.3030;
1150.5000;0.2458;0.2933;
1150.8000;0.2450;0.2908;
1151.1000;0.2434;0.2860;
1151.4000;0.2458;0.2933;
1151.7000;0.2450;0.2908;
1152.0000;0.2507;0.3005;
1152.3000;0.2450;0.2836;
1152.6000;0.2466;0.2957;
1152.9000;0.2442;0.2884;
1153.2000;0.2466;0.2908;
1153.5000;0.2466;0.2981;
1153.8000;0.2458;0.2957;
1154.1000;0.2393;0.2836;
1154.4000;0.2458;0.2957;
1154.7000;0.2475;0.2860;
1155.0000;0.2466;0.2884;
1155.3000;0.2458;0.2812;
1155.6000;0.2458;0.2812;
1155.9000;0.2450;0.2812;
1156.2000;0.2450;0.2908;
1156.5000;0.2475;0.3054;
1156.8000;0.2450;0.3030;
1157.1000;0.2450;0.2957;
1157.4000;0.2466;0.3054;
1157.7000;0.2442;0.3005;
1158.0000;0.2466;0.3005;
1158.3000;0.2458;0.2981;
1158.6000;0.2466;0.3054;
1158.9000;0.2458;0.2933;
1159.2000;0.2458;0.2933;
1159.5000;0.2458;0.2957;
1159.8000;0.2475;0.2908;
1160.1000;0.2434;0.2787;
1160.4000;0.2556;0.3102;
1160.7000;0.2450;0.2836;
1161.0000;0.2540;0.3127;
1161.3000;0.2442;0.2957;
1161.6000;0.2580;0.3393;
1161.9000;0.2466;0.3102;
1162.2000;0.2523;0.3224;
1162.5000;0.2523;0.3199;
1162.8000;0.2418;0.2908;
1163.1000;0.2393;0.2836;
1163.4000;0.2442;0.2957;
1163.7000;0.2458;0.2957;
1164.0000;0.2458;0.2933;
1164.3000;0.2450;0.2884;
1164.6000;0.2475;0.2933;
1164.9000;0.2475;0.3030;
1165.2000;0.2466;0.3102;
1165.5000;0.2466;0.3054;
1165.8000;0.2409;0.2836;
1166.1000;0.2466;0.2957;
1166.4000;0.2458;0.2908;
1166.7000;0.2426;0.2812;
1167.0000;0.2475;0.2957;
1167.3000;0.2466;0.2908;
1167.6000;0.2458;0.2933;
1167.9000;0.2458;0.3005;
1168.2000;0.2450;0.3005;
1168.5000;0.2450;0.2933;
1168.8000;0.2466;0.2957;
1169.1000;0.2458;0.2981;
1169.4000;0.2466;0.3030;
1169.7000;0.2442;0.3005;
1170.0000;0.2442;0.3078;
1170.3000;0.2491;0.3175;
1170.6000;0.2450;0.3078;
1170.9000;0.2426;0.3005;
1171.2000;0.2466;0.3127;
1171.5000;0.2458;0.3054;
1171.8000;0.2466;0.2981;
1172.1000;0.2483;0.3005;
1172.4000;0.2475;0.3030;
1172.7000;0.2458;0.2957;
1173.0000;0.2466;0.3005;
1173.3000;0.2450;0.2981;
1173.6000;0.2442;0.3005;
1173.9000;0.2458;0.3005;
1174.2000;0.2466;0.3054;
1174.5000;0.2434;0.2908;
1174.8000;0.2458;0.3078;
1175.1000;0.2466;0.3054;
1175.4000;0.2466;0.3054;
1175.7000;0.2458;0.2933;
1176.0000;0.2466;0.2981;
1176.3000;0.2442;0.3030;
1176.6000;0.2458;0.2981;
1176.9000;0.2475;0.3054;
1177.2000;0.2475;0.3078;
1177.5000;0.2466;0.3005;
1177.8000;0.2466;0.3078;
1178.1000;0.2442;0.3102;
1178.4000;0.2450;0.3151;
1178.7000;0.2458;0.3030;
1179.0000;0.2458;0.3030;
1179.3000;0.2450;0.2981;
1179.6000;0.2450;0.3030;
1179.9000;0.2483;0.3127;
1180.2000;0.2475;0.3199;
1180.5000;0.2483;0.3272;
1180.8000;0.2458;0.3199;
1181.1000;0.2450;0.3175;
1181.4000;0.2450;0.3151;
1181.7000;0.2458;0.3054;
1182.0000;0.2458;0.3030;
1182.3000;0.2426;0.2908;
1182.6000;0.2475;0.2957;
1182.9000;0.2426;0.2836;
1183.2000;0.2458;0.3005;
1183.5000;0.2458;0.3030;
1183.8000;0.2450;0.2981;
1184.1000;0.2418;0.2860;
1184.4000;0.2418;0.2908;
1184.7000;0.2458;0.2981;
1185.0000;0.2336;0.2642;
1185.3000;0.2450;0.2933;
1185.6000;0.2483;0.2981;
1185.9000;0.2466;0.2957;
1186.2000;0.2499;0.3078;
1186.5000;0.2442;0.2884;
1186.8000;0.2466;0.2860;
1187.1000;0.2401;0.2715;
1187.4000;0.2475;0.2908;
1187.7000;0.2466;0.2908;
1188.0000;0.2450;0.2860;
1188.3000;0.2475;0.2957;
1188.6000;0.2442;0.2933;
1188.9000;0.2450;0.2884;
1189.2000;0.2450;0.2981;
1189.5000;0.2458;0.2981;
1189.8000;0.2475;0.2981;
1190.1000;0.2458;0.2981;
1190.4000;0.2466;0.3005;
1190.7000;0.2475;0.3078;
1191.0000;0.2418;0.3005;
1191.3000;0.2458;0.3030;
1191.6000;0.2515;0.3175;
1191.9000;0.2483;0.3102;
1192.2000;0.2466;0.2981;
1192.5000;0.2442;0.2884;
1192.8000;0.2458;0.2957;
1193.1000;0.2466;0.2981;
1193.4000;0.2458;0.2908;
1193.7000;0.2434;0.2836;
1194.0000;0.2458;0.2860;
1194.3000;0.2442;0.2957;
1194.6000;0.2442;0.2981;
1194.9000;0.2466;0.2981;
1195.2000;0.2442;0.2860;
1195.5000;0.2491;0.2908;
1195.8000;0.2466;0.2908;
1196.1000;0.2475;0.2957;
1196.4000;0.2475;0.3054;
1196.7000;0.2442;0.3054;
1197.0000;0.2450;0.3127;
1197.3000;0.2475;0.3005;
1197.6000;0.2466;0.3030;
1197.9000;0.2458;0.3005;
1198.2000;0.2450;0.2957;
1198.5000;0.2475;0.3005;
1198.8000;0.2507;0.3054;
1199.1000;0.2450;0.2957;
1199.4000;0.2442;0.2981;
1199.7000;0.2458;0.3005;
1200.0000;0.2442;0.2860;
1200.3000;0.2442;0.2812;
1200.6000;0.2409;0.2787;
1200.9000;0.2458;0.2908;
1201.2000;0.2466;0.3005;
1201.5000;0.2450;0.2957;
1201.8000;0.2458;0.2957;
1202.1000;0.2466;0.3078;
1202.4000;0.2475;0.3102;
1202.7000;0.2475;0.3005;
1203.0000;0.2466;0.3054;
1203.3000;0.2475;0.3102;
1203.6000;0.2442;0.3005;
1203.9000;0.2466;0.3102;
1204.2000;0.2475;0.3054;
1204.5000;0.2458;0.3054;
1204.8000;0.2458;0.3127;
1205.1000;0.2466;0.3127;
1205.4000;0.2532;0.3199;
1205.7000;0.2491;0.3030;
1206.0000;0.2466;0.3030;
1206.3000;0.2475;0.3102;
1206.6000;0.2466;0.3102;
1206.9000;0.2450;0.3054;
1207.2000;0.2409;0.2981;
1207.5000;0.2426;0.3030;
1207.8000;0.2442;0.3127;
1208.1000;0.2450;0.3175;
1208.4000;0.2369;0.2957;
1208.7000;0.2458;0.3151;
1209.0000;0.2434;0.3030;
1209.3000;0.2499;0.3102;
1209.6000;0.2450;0.2908;
1209.9000;0.2466;0.2884;
1210.2000;0.2450;0.2836;
1210.5000;0.2507;0.3078;
1210.8000;0.2466;0.2908;
1211.1000;0.2589;0.3224;
1211.4000;0.2401;0.2787;
1211.7000;0.2450;0.2981;
1212.0000;0.2450;0.2908;
1212.3000;0.2499;0.2981;
1212.6000;0.2450;0.2884;
1212.9000;0.2442;0.2787;
1213.2000;0.2475;0.2884;
1213.5000;0.2458;0.2860;
1213.8000;0.2442;0.2787;
1214.1000;0.2475;0.2884;
1214.4000;0.2442;0.2908;
1214.7000;0.2426;0.2860;
1215.0000;0.2466;0.2957;
1215.3000;0.2450;0.2981;
1215.6000;0.2442;0.2933;
1215.9000;0.2450;0.2908;
1216.2000;0.2532;0.3175;
1216.5000;0.2466;0.2933;
1216.8000;0.2458;0.2908;
1217.1000;0.2426;0.2812;
1217.4000;0.2458;0.3005;
1217.7000;0.2361;0.2690;
1218.0000;0.2458;0.2981;
1218.3000;0.2458;0.2957;
1218.6000;0.2466;0.2933;
1218.9000;0.2458;0.2884;
1219.2000;0.2458;0.2981;
1219.5000;0.2475;0.2981;
1219.8000;0.2458;0.3005;
1220.1000;0.2523;0.3102;
1220.4000;0.2458;0.2933;
1220.7000;0.2442;0.2933;
1221.0000;0.2426;0.2957;
1221.3000;0.2442;0.3005;
1221.6000;0.2483;0.3054;
1221.9000;0.2450;0.3005;
1222.2000;0.2426;0.3005;
1222.5000;0.2466;0.3175;
1222.8000;0.2418;0.3030;
1223.1000;0.2458;0.3102;
1223.4000;0.2466;0.3054;
1223.7000;0.2442;0.2957;
1224.0000;0.2466;0.3078;
1224.3000;0.2458;0.3102;
1224.6000;0.2458;0.3078;
1224.9000;0.2458;0.3030;
1225.2000;0.2475;0.3127;
1225.5000;0.2466;0.3151;
1225.8000;0.2434;0.3078;
1226.1000;0.2458;0.3078;
1226.4000;0.2450;0.3078;
1226.7000;0.2450;0.3078;
1227.0000;0.2458;0.3054;
1227.3000;0.2442;0.3030;
1227.6000;0.2442;0.3054;
1227.9000;0.2450;0.3005;
1228.2000;0.2450;0.3030;
1228.5000;0.2450;0.2981;
1228.8000;0.2491;0.3005;
1229.1000;0.2442;0.2908;
1229.4000;0.2450;0.2957;
1229.7000;0.2458;0.2957;
1230.0000;0.2450;0.2884;
1230.3000;0.2466;0.2908;
1230.6000;0.2475;0.2884;
1230.9000;0.2458;0.2787;
1231.2000;0.2483;0.2860;
1231.5000;0.2466;0.2812;
1231.8000;0.2564;0.3078;
1232.1000;0.2466;0.2860;
1232.4000;0.2458;0.2908;
1232.7000;0.2475;0.2981;
1233.0000;0.2475;0.2981;
1233.3000;0.2426;0.2908;
1233.6000;0.2458;0.2981;
1233.9000;0.2442;0.2908;
1234.2000;0.2475;0.3030;
1234.5000;0.2450;0.2884;
1234.8000;0.2475;0.3054;
1235.1000;0.2458;0.3127;
1235.4000;0.2466;0.3127;
1235.7000;0.2466;0.3078;
1236.0000;0.2450;0.2957;
1236.3000;0.2442;0.2981;
1236.6000;0.2507;0.3199;
1236.9000;0.2466;0.3127;
1237.2000;0.2475;0.3151;
1237.5000;0.2483;0.3248;
1237.8000;0.2450;0.3224;
1238.1000;0.2475;0.3296;
1238.4000;0.2458;0.3224;
1238.7000;0.2466;0.3199;
1239.0000;0.2442;0.3151;
1239.3000;0.2450;0.3151;
1239.6000;0.2548;0.3320;
1239.9000;0.2483;0.3030;
1240.2000;0.2475;0.3030;
1240.5000;0.2450;0.2981;
1240.8000;0.2466;0.3127;
1241.1000;0.2466;0.3151;
1241.4000;0.2458;0.3151;
1241.7000;0.2499;0.3272;
1242.0000;0.2426;0.3054;
1242.3000;0.2442;0.3102;
1242.6000;0.2450;0.3030;
1242.9000;0.2499;0.3224;
1243.2000;0.2458;0.3078;
1243.5000;0.2466;0.3005;
1243.8000;0.2458;0.3078;
1244.1000;0.2475;0.3102;
1244.4000;0.2540;0.3199;
1244.7000;0.2466;0.3005;
1245.0000;0.2442;0.2908;
1245.3000;0.2442;0.2957;
1245.6000;0.2532;0.3199;
1245.9000;0.2450;0.3054;
1246.2000;0.2450;0.3078;
1246.5000;0.2450;0.3127;
1246.8000;0.2507;0.3272;
1247.1000;0.2458;0.3078;
1247.4000;0.2442;0.3030;
1247.7000;0.2393;0.2957;
1248.0000;0.2475;0.3151;
1248.3000;0.2475;0.3151;
1248.6000;0.2442;0.3030;
1248.9000;0.2458;0.3078;
1249.2000;0.2450;0.3102;
1249.5000;0.2458;0.3102;
1249.8000;0.2458;0.3054;
1250.1000;0.2442;0.3078;
1250.4000;0.2458;0.3078;
1250.7000;0.2475;0.3102;
1251.0000;0.2450;0.3102;
1251.3000;0.2458;0.3054;
1251.6000;0.2458;0.3151;
1251.9000;0.2475;0.3199;
1252.2000;0.2483;0.3393;
1252.5000;0.2466;0.3369;
1252.8000;0.2475;0.3442;
1253.1000;0.2442;0.3296;
1253.4000;0.2466;0.3224;
1253.7000;0.2466;0.3175;
1254.0000;0.2458;0.3102;
1254.3000;0.2466;0.3151;
1254.6000;0.2466;0.3127;
1254.9000;0.2352;0.2812;
1255.2000;0.2458;0.3102;
1255.5000;0.2458;0.3127;
1255.8000;0.2458;0.3102;
1256.1000;0.2450;0.3030;
1256.4000;0.2540;0.3175;
1256.7000;0.2491;0.3102;
1257.0000;0.2475;0.3054;
1257.3000;0.2458;0.2981;
1257.6000;0.2450;0.3030;
1257.9000;0.2466;0.3102;
1258.2000;0.2483;0.3199;
1258.5000;0.2450;0.3199;
1258.8000;0.2458;0.3224;
1259.1000;0.2466;0.3345;
1259.4000;0.2475;0.3393;
1259.7000;0.2515;0.3514;
1260.0000;0.2466;0.3272;
1260.3000;0.2442;0.3199;
1260.6000;0.2442;0.3151;
1260.9000;0.2434;0.3030;
1261.2000;0.2466;0.3102;
1261.5000;0.2450;0.3175;
1261.8000;0.2458;0.3175;
1262.1000;0.2475;0.3151;
1262.4000;0.2458;0.3054;
1262.7000;0.2458;0.3054;
1263.0000;0.2466;0.3151;
1263.3000;0.2466;0.3199;
1263.6000;0.2475;0.3345;
1263.9000;0.2458;0.3272;
1264.2000;0.2450;0.3296;
1264.5000;0.2475;0.3393;
1264.8000;0.2458;0.3417;
1265.1000;0.2491;0.3490;
1265.4000;0.2450;0.3514;
1265.7000;0.2475;0.3442;
1266.0000;0.2458;0.3417;
1266.3000;0.2466;0.3345;
1266.6000;0.2466;0.3345;
1266.9000;0.2466;0.3248;
1267.2000;0.2475;0.3248;
1267.5000;0.2475;0.3320;
1267.8000;0.2515;0.3393;
1268.1000;0.2458;0.3151;
1268.4000;0.2458;0.3151;
1268.7000;0.2434;0.3078;
1269.0000;0.2475;0.3102;
1269.3000;0.2450;0.3030;
1269.6000;0.2426;0.2981;
1269.9000;0.2434;0.2957;
1270.2000;0.2491;0.3151;
1270.5000;0.2401;0.2908;
1270.8000;0.2450;0.2981;
1271.1000;0.2450;0.2957;
1271.4000;0.2466;0.3005;
1271.7000;0.2442;0.2933;
1272.0000;0.2442;0.2836;
1272.3000;0.2450;0.2884;
1272.6000;0.2475;0.3005;
1272.9000;0.2442;0.3030;
1273.2000;0.2475;0.3102;
1273.5000;0.2418;0.2957;
1273.8000;0.2458;0.3102;
1274.1000;0.2483;0.3151;
1274.4000;0.2466;0.3102;
1274.7000;0.2507;0.3151;
1275.0000;0.2475;0.3151;
1275.3000;0.2426;0.3054;
1275.6000;0.2442;0.3102;
1275.9000;0.2450;0.3127;
1276.2000;0.2409;0.2933;
1276.5000;0.2466;0.3127;
1276.8000;0.2458;0.3054;
1277.1000;0.2442;0.3030;
1277.4000;0.2450;0.3078;
1277.7000;0.2475;0.3151;
1278.0000;0.2450;0.3127;
1278.3000;0.2450;0.3102;
1278.6000;0.2475;0.3102;
1278.9000;0.2450;0.3054;
1279.2000;0.2515;0.3296;
1279.5000;0.2434;0.3078;
1279.8000;0.2458;0.3078;
1280.1000;0.2344;0.2836;
1280.4000;0.2475;0.3175;
1280.7000;0.2466;0.3102;
1281.0000;0.2475;0.3151;
1281.3000;0.2450;0.3199;
1281.6000;0.2475;0.3296;
1281.9000;0.2450;0.3199;
1282.2000;0.2475;0.3248;
1282.5000;0.2458;0.3199;
1282.8000;0.2466;0.3272;
1283.1000;0.2442;0.3248;
1283.4000;0.2458;0.3248;
1283.7000;0.2499;0.3320;
1284.0000;0.2475;0.3272;
1284.3000;0.2466;0.3199;
1284.6000;0.2507;0.3345;
1284.9000;0.2450;0.3224;
1285.2000;0.2344;0.2933;
1285.5000;0.2466;0.3272;
1285.8000;0.2458;0.3272;
1286.1000;0.2458;0.3320;
1286.4000;0.2466;0.3345;
1286.7000;0.2458;0.3345;
1287.0000;0.2450;0.3175;
1287.3000;0.2475;0.3248;
1287.6000;0.2442;0.3199;
1287.9000;0.2442;0.3272;
1288.2000;0.2450;0.3224;
1288.5000;0.2466;0.3296;
1288.8000;0.2466;0.3199;
1289.1000;0.2466;0.3151;
1289.4000;0.2442;0.3078;
1289.7000;0.2442;0.3078;
1290.0000;0.2466;0.3102;
1290.3000;0.2466;0.3199;
1290.6000;0.2450;0.3199;
1290.9000;0.2466;0.3151;
1291.2000;0.2442;0.3151;
1291.5000;0.2442;0.3054;
1291.8000;0.2426;0.2981;
1292.1000;0.2442;0.3102;
1292.4000;0.2377;0.3005;
1292.7000;0.2401;0.3175;
1293.0000;0.2450;0.3296;
1293.3000;0.2442;0.3296;
1293.6000;0.2483;0.3369;
1293.9000;0.2458;0.3224;
1294.2000;0.2450;0.3175;
1294.5000;0.2442;0.3199;
1294.8000;0.2475;0.3320;
1295.1000;0.2442;0.3199;
1295.4000;0.2458;0.3151;
1295.7000;0.2458;0.3175;
1296.0000;0.2580;0.3514;
1296.3000;0.2466;0.3175;
1296.6000;0.2458;0.3078;
1296.9000;0.2442;0.3005;
1297.2000;0.2442;0.3054;
1297.5000;0.2458;0.3102;
1297.8000;0.2483;0.3199;
1298.1000;0.2466;0.3199;
1298.4000;0.2483;0.3248;
1298.7000;0.2466;0.3224;
1299.0000;0.2466;0.3272;
1299.3000;0.2499;0.3272;
1299.6000;0.2466;0.3175;
1299.9000;0.2434;0.3102;
1300.2000;0.2491;0.3248;
1300.5000;0.2491;0.3296;
1300.8000;0.2475;0.3199;
1301.1000;0.2442;0.3127;
1301.4000;0.2450;0.3102;
1301.7000;0.2458;0.3224;
1302.0000;0.2450;0.3199;
1302.3000;0.2377;0.2908;
1302.6000;0.2418;0.3005;
1302.9000;0.2458;0.3175;
1303.2000;0.2361;0.2981;
1303.5000;0.2434;0.3175;
1303.8000;0.2450;0.3199;
1304.1000;0.2377;0.3030;
1304.4000;0.2450;0.3151;
1304.7000;0.2466;0.3151;
1305.0000;0.2466;0.3199;
1305.3000;0.2466;0.3175;
1305.6000;0.2458;0.3151;
1305.9000;0.2523;0.3272;
1306.2000;0.2426;0.3054;
1306.5000;0.2475;0.3175;
1306.8000;0.2483;0.3078;
1307.1000;0.2442;0.2957;
1307.4000;0.2450;0.3030;
1307.7000;0.2458;0.3175;
1308.0000;0.2458;0.3272;
1308.3000;0.2458;0.3272;
1308.6000;0.2442;0.3199;
1308.9000;0.2442;0.3151;
1309.2000;0.2434;0.3102;
1309.5000;0.2450;0.3151;
1309.8000;0.2475;0.3078;
1310.1000;0.2450;0.3030;
1310.4000;0.2475;0.3078;
1310.7000;0.2475;0.3127;
1311.0000;0.2458;0.3102;
1311.3000;0.2458;0.3175;
1311.6000;0.2475;0.3127;
1311.9000;0.2475;0.3102;
1312.2000;0.2458;0.3054;
1312.5000;0.2458;0.3030;
1312.8000;0.2466;0.3102;
1313.1000;0.2458;0.3127;
1313.4000;0.2450;0.3102;
1313.7000;0.2442;0.3151;
1314.0000;0.2450;0.3175;
1314.3000;0.2458;0.3151;
1314.6000;0.2507;0.3296;
1314.9000;0.2458;0.3102;
1315.2000;0.2483;0.3127;
1315.5000;0.2466;0.3054;
1315.8000;0.2483;0.3127;
1316.1000;0.2475;0.3078;
1316.4000;0.2450;0.3030;
1316.7000;0.2385;0.2787;
1317.0000;0.2458;0.2884;
1317.3000;0.2466;0.2957;
1317.6000;0.2434;0.2787;
1317.9000;0.2442;0.2908;
1318.2000;0.2450;0.2884;
1318.5000;0.2442;0.2933;
1318.8000;0.2426;0.2860;
1319.1000;0.2442;0.2884;
1319.4000;0.2458;0.2908;
1319.7000;0.2458;0.2933;
1320.0000;0.2458;0.2908;
1320.3000;0.2442;0.2860;
1320.6000;0.2442;0.2957;
1320.9000;0.2466;0.3005;
1321.2000;0.2442;0.2981;
1321.5000;0.2458;0.2981;
1321.8000;0.2434;0.2884;
1322.1000;0.2458;0.2981;
1322.4000;0.2442;0.3005;
1322.7000;0.2466;0.3102;
1323.0000;0.2450;0.3054;
1323.3000;0.2434;0.3054;
1323.6000;0.2450;0.3175;
1323.9000;0.2442;0.3127;
1324.2000;0.2458;0.3102;
1324.5000;0.2475;0.3175;
1324.8000;0.2475;0.3175;
1325.1000;0.2475;0.3224;
1325.4000;0.2458;0.3248;
1325.7000;0.2450;0.3151;
1326.0000;0.2466;0.3248;
1326.3000;0.2499;0.3345;
1326.6000;0.2458;0.3199;
1326.9000;0.2532;0.3442;
1327.2000;0.2426;0.3102;
1327.5000;0.2499;0.3296;
1327.8000;0.2450;0.3030;
1328.1000;0.2499;0.3054;
1328.4000;0.2466;0.3078;
1328.7000;0.2466;0.3127;
1329.0000;0.2466;0.3151;
1329.3000;0.2475;0.3272;
1329.6000;0.2442;0.3369;
1329.9000;0.2450;0.3345;
1330.2000;0.2385;0.3127;
1330.5000;0.2458;0.3272;
1330.8000;0.2434;0.3224;
1331.1000;0.2466;0.3345;
1331.4000;0.2434;0.3224;
1331.7000;0.2442;0.3199;
1332.0000;0.2466;0.3272;
1332.3000;0.2458;0.3248;
1332.6000;0.2466;0.3320;
1332.9000;0.2385;0.3127;
1333.2000;0.2450;0.3272;
1333.5000;0.2336;0.3030;
1333.8000;0.2491;0.3514;
1334.1000;0.2426;0.3345;
1334.4000;0.2450;0.3442;
1334.7000;0.2466;0.3490;
1335.0000;0.2352;0.3199;
1335.3000;0.2483;0.3563;
1335.6000;0.2458;0.3490;
1335.9000;0.2483;0.3417;
1336.2000;0.2491;0.3442;
1336.5000;0.2466;0.3369;
1336.8000;0.2434;0.3199;
1337.1000;0.2450;0.3224;
1337.4000;0.2475;0.3272;
1337.7000;0.2458;0.3175;
1338.0000;0.2466;0.3054;
1338.3000;0.2466;0.3175;
1338.6000;0.2434;0.3127;
1338.9000;0.2466;0.3224;
1339.2000;0.2458;0.3175;
1339.5000;0.2515;0.3320;
1339.8000;0.2409;0.3054;
1340.1000;0.2466;0.3199;
1340.4000;0.2458;0.3175;
1340.7000;0.2532;0.3393;
1341.0000;0.2442;0.3272;
1341.3000;0.2369;0.3030;
1341.6000;0.2458;0.3272;
1341.9000;0.2442;0.3320;
1342.2000;0.2450;0.3417;
1342.5000;0.2418;0.3272;
1342.8000;0.2466;0.3466;
1343.1000;0.2450;0.3369;
1343.4000;0.2442;0.3345;
1343.7000;0.2426;0.3369;
1344.0000;0.2450;0.3417;
1344.3000;0.2466;0.3466;
1344.6000;0.2450;0.3369;
1344.9000;0.2507;0.3490;
1345.2000;0.2466;0.3369;
1345.5000;0.2475;0.3369;
1345.8000;0.2507;0.3417;
1346.1000;0.2499;0.3345;
1346.4000;0.2458;0.3248;
1346.7000;0.2475;0.3296;
1347.0000;0.2458;0.3272;
1347.3000;0.2475;0.3320;
1347.6000;0.2475;0.3345;
1347.9000;0.2458;0.3345;
1348.2000;0.2466;0.3393;
1348.5000;0.2466;0.3393;
1348.8000;0.2450;0.3320;
1349.1000;0.2466;0.3320;
1349.4000;0.2434;0.3296;
1349.7000;0.2458;0.3320;
1350.0000;0.2450;0.3296;
1350.3000;0.2466;0.3272;
1350.6000;0.2450;0.3199;
1350.9000;0.2466;0.3272;
1351.2000;0.2548;0.3417;
1351.5000;0.2434;0.3127;
1351.8000;0.2466;0.3127;
1352.1000;0.2475;0.3030;
1352.4000;0.2426;0.2908;
1352.7000;0.2483;0.3005;
1353.0000;0.2597;0.3296;
1353.3000;0.2458;0.2860;
1353.6000;0.2442;0.2836;
1353.9000;0.2361;0.2739;
1354.2000;0.2458;0.3054;
1354.5000;0.2426;0.2981;
1354.8000;0.2483;0.3078;
1355.1000;0.2475;0.2981;
1355.4000;0.2458;0.2957;
1355.7000;0.2475;0.3005;
1356.0000;0.2458;0.2908;
1356.3000;0.2450;0.3005;
1356.6000;0.2466;0.3030;
1356.9000;0.2450;0.2981;
1357.2000;0.2556;0.3272;
1357.5000;0.2523;0.3224;
1357.8000;0.2450;0.3030;
1358.1000;0.2466;0.3054;
1358.4000;0.2458;0.2981;
1358.7000;0.2458;0.3005;
1359.0000;0.2466;0.3030;
1359.3000;0.2483;0.3078;
1359.6000;0.2442;0.3030;
1359.9000;0.2466;0.2981;
1360.2000;0.2450;0.2933;
1360.5000;0.2483;0.3030;
1360.8000;0.2475;0.3054;
1361.1000;0.2475;0.3054;
1361.4000;0.2515;0.3199;
1361.7000;0.2450;0.3078;
1362.0000;0.2426;0.3005;
1362.3000;0.2361;0.2836;
1362.6000;0.2483;0.3127;
1362.9000;0.2466;0.3078;
1363.2000;0.2442;0.3005;
1363.5000;0.2442;0.3054;
1363.8000;0.2442;0.2933;
1364.1000;0.2466;0.2981;
1364.4000;0.2450;0.3005;
1364.7000;0.2361;0.2666;
1365.0000;0.2418;0.2908;
1365.3000;0.2442;0.2933;
1365.6000;0.2458;0.2836;
1365.9000;0.2426;0.2884;
1366.2000;0.2450;0.2957;
1366.5000;0.2483;0.2981;
1366.8000;0.2475;0.3030;
1367.1000;0.2475;0.2957;
1367.4000;0.2450;0.2957;
1367.7000;0.2458;0.3005;
1368.0000;0.2466;0.3102;
1368.3000;0.2466;0.3102;
1368.6000;0.2466;0.2981;
1368.9000;0.2466;0.2884;
1369.2000;0.2442;0.2908;
1369.5000;0.2475;0.3054;
1369.8000;0.2426;0.2933;
1370.1000;0.2450;0.3005;
1370.4000;0.2466;0.3005;
1370.7000;0.2434;0.2908;
1371.0000;0.2466;0.2908;
1371.3000;0.2475;0.2933;
1371.6000;0.2475;0.3005;
1371.9000;0.2491;0.3054;
1372.2000;0.2475;0.3005;
1372.5000;0.2401;0.2739;
1372.8000;0.2450;0.2860;
1373.1000;0.2458;0.2860;
1373.4000;0.2491;0.3005;
1373.7000;0.2475;0.2957;
1374.0000;0.2483;0.2957;
1374.3000;0.2466;0.2933;
1374.6000;0.2466;0.2981;
1374.9000;0.2491;0.3102;
1375.2000;0.2523;0.3151;
1375.5000;0.2540;0.3199;
1375.8000;0.2466;0.3005;
1376.1000;0.2466;0.3030;
1376.4000;0.2458;0.3030;
1376.7000;0.2450;0.3030;
1377.0000;0.2466;0.3005;
1377.3000;0.2483;0.3030;
1377.6000;0.2458;0.3005;
1377.9000;0.2458;0.2981;
1378.2000;0.2450;0.2836;
1378.5000;0.2418;0.2763;
1378.8000;0.2418;0.2812;
1379.1000;0.2458;0.2957;
1379.4000;0.2458;0.3005;
1379.7000;0.2499;0.3127;
1380.0000;0.2466;0.3127;
1380.3000;0.2466;0.3078;
1380.6000;0.2483;0.3151;
1380.9000;0.2458;0.3199;
1381.2000;0.2458;0.3054;
1381.5000;0.2458;0.2981;
1381.8000;0.2483;0.2957;
1382.1000;0.2466;0.2957;
1382.4000;0.2523;0.3151;
1382.7000;0.2466;0.3005;
1383.0000;0.2458;0.3005;
1383.3000;0.2466;0.2981;
1383.6000;0.2442;0.2884;
1383.9000;0.2442;0.2884;
1384.2000;0.2466;0.2933;
1384.5000;0.2458;0.2933;
1384.8000;0.2499;0.3102;
1385.1000;0.2450;0.2957;
1385.4000;0.2466;0.2981;
1385.7000;0.2442;0.2957;
1386.0000;0.2466;0.3005;
1386.3000;0.2466;0.3005;
1386.6000;0.2450;0.3005;
1386.9000;0.2401;0.2812;
1387.2000;0.2466;0.2957;
1387.5000;0.2466;0.2957;
1387.8000;0.2466;0.3102;
1388.1000;0.2458;0.3054;
1388.4000;0.2466;0.3054;
1388.7000;0.2450;0.3102;
1389.0000;0.2466;0.3151;
1389.3000;0.2475;0.3151;
1389.6000;0.2458;0.3102;
1389.9000;0.2450;0.3151;
1390.2000;0.2499;0.3199;
1390.5000;0.2475;0.3102;
1390.8000;0.2466;0.2981;
1391.1000;0.2466;0.3030;
1391.4000;0.2450;0.3030;
1391.7000;0.2466;0.3054;
1392.0000;0.2466;0.3030;
1392.3000;0.2401;0.2933;
1392.6000;0.2466;0.3054;
1392.9000;0.2466;0.3102;
1393.2000;0.2450;0.3005;
1393.5000;0.2450;0.3030;
1393.8000;0.2466;0.3030;
1394.1000;0.2450;0.3005;
1394.4000;0.2458;0.3054;
1394.7000;0.2450;0.2957;
1395.0000;0.2442;0.2884;
1395.3000;0.2450;0.2908;
1395.6000;0.2466;0.2933;
1395.9000;0.2442;0.2957;
1396.2000;0.2450;0.3005;
1396.5000;0.2466;0.3005;
1396.8000;0.2458;0.2933;
1397.1000;0.2523;0.3030;
1397.4000;0.2458;0.2981;
1397.7000;0.2434;0.2957;
1398.0000;0.2450;0.2981;
1398.3000;0.2450;0.3030;
1398.6000;0.2458;0.2933;
1398.9000;0.2483;0.2933;
1399.2000;0.2475;0.2981;
1399.5000;0.2458;0.2933;
1399.8000;0.2458;0.2908;
