time/ms;Fluo/V;P700 deltaI/I x10³;
-199.8000;0.2458;0.3660;
-199.5000;0.2475;0.3636;
-199.2000;0.2483;0.3611;
-198.9000;0.2475;0.3563;
-198.6000;0.2466;0.3563;
-198.3000;0.2458;0.3611;
-198.0000;0.2491;0.3733;
-197.7000;0.2475;0.3757;
-197.4000;0.2434;0.3636;
-197.1000;0.2507;0.3781;
-196.8000;0.2475;0.3733;
-196.5000;0.2466;0.3660;
-196.2000;0.2491;0.3684;
-195.9000;0.2475;0.3733;
-195.6000;0.2515;0.3926;
-195.3000;0.2532;0.3999;
-195.0000;0.2458;0.3733;
-194.7000;0.2409;0.3539;
-194.4000;0.2523;0.3805;
-194.1000;0.2458;0.3611;
-193.8000;0.2466;0.3684;
-193.5000;0.2458;0.3684;
-193.2000;0.2458;0.3757;
-192.9000;0.2483;0.3829;
-192.6000;0.2515;0.3951;
-192.3000;0.2507;0.3902;
-192.0000;0.2483;0.3854;
-191.7000;0.2466;0.3781;
-191.4000;0.2426;0.3684;
-191.1000;0.2515;0.3854;
-190.8000;0.2491;0.3805;
-190.5000;0.2491;0.3781;
-190.2000;0.2466;0.3660;
-189.9000;0.2369;0.3442;
-189.6000;0.2458;0.3660;
-189.3000;0.2361;0.3320;
-189.0000;0.2507;0.3757;
-188.7000;0.2458;0.3684;
-188.4000;0.2475;0.3636;
-188.1000;0.2483;0.3636;
-187.8000;0.2475;0.3563;
-187.5000;0.2572;0.3805;
-187.2000;0.2507;0.3587;
-186.9000;0.2491;0.3514;
-186.6000;0.2475;0.3587;
-186.3000;0.2426;0.3539;
-186.0000;0.2475;0.3684;
-185.7000;0.2418;0.3539;
-185.4000;0.2475;0.3684;
-185.1000;0.2458;0.3733;
-184.8000;0.2458;0.3708;
-184.5000;0.2475;0.3733;
-184.2000;0.2466;0.3684;
-183.9000;0.2466;0.3733;
-183.6000;0.2458;0.3636;
-183.3000;0.2466;0.3757;
-183.0000;0.2475;0.3733;
-182.7000;0.2475;0.3660;
-182.4000;0.2483;0.3660;
-182.1000;0.2450;0.3563;
-181.8000;0.2426;0.3514;
-181.5000;0.2450;0.3563;
-181.2000;0.2466;0.3539;
-180.9000;0.2466;0.3587;
-180.6000;0.2442;0.3490;
-180.3000;0.2475;0.3611;
-180.0000;0.2491;0.3708;
-179.7000;0.2442;0.3563;
-179.4000;0.2475;0.3708;
-179.1000;0.2475;0.3684;
-178.8000;0.2409;0.3490;
-178.5000;0.2483;0.3636;
-178.2000;0.2434;0.3466;
-177.9000;0.2466;0.3466;
-177.6000;0.2450;0.3442;
-177.3000;0.2491;0.3539;
-177.0000;0.2483;0.3514;
-176.7000;0.2450;0.3442;
-176.4000;0.2466;0.3563;
-176.1000;0.2450;0.3514;
-175.8000;0.2483;0.3636;
-175.5000;0.2499;0.3660;
-175.2000;0.2442;0.3514;
-174.9000;0.2475;0.3587;
-174.6000;0.2483;0.3708;
-174.3000;0.2483;0.3757;
-174.0000;0.2450;0.3660;
-173.7000;0.2466;0.3708;
-173.4000;0.2499;0.3708;
-173.1000;0.2458;0.3563;
-172.8000;0.2442;0.3539;
-172.5000;0.2499;0.3708;
-172.2000;0.2491;0.3781;
-171.9000;0.2393;0.3442;
-171.6000;0.2499;0.3733;
-171.3000;0.2507;0.3854;
-171.0000;0.2450;0.3636;
-170.7000;0.2483;0.3781;
-170.4000;0.2491;0.3781;
-170.1000;0.2483;0.3733;
-169.8000;0.2466;0.3733;
-169.5000;0.2466;0.3733;
-169.2000;0.2491;0.3733;
-168.9000;0.2580;0.3999;
-168.6000;0.2483;0.3757;
-168.3000;0.2483;0.3757;
-168.0000;0.2483;0.3805;
-167.7000;0.2475;0.3757;
-167.4000;0.2466;0.3708;
-167.1000;0.2458;0.3660;
-166.8000;0.2507;0.3781;
-166.5000;0.2475;0.3757;
-166.2000;0.2483;0.3757;
-165.9000;0.2491;0.3829;
-165.6000;0.2483;0.3757;
-165.3000;0.2418;0.3563;
-165.0000;0.2450;0.3611;
-164.7000;0.2450;0.3587;
-164.4000;0.2466;0.3587;
-164.1000;0.2458;0.3563;
-163.8000;0.2458;0.3563;
-163.5000;0.2458;0.3563;
-163.2000;0.2458;0.3587;
-162.9000;0.2434;0.3514;
-162.6000;0.2418;0.3442;
-162.3000;0.2475;0.3636;
-162.0000;0.2426;0.3539;
-161.7000;0.2450;0.3587;
-161.4000;0.2475;0.3611;
-161.1000;0.2483;0.3563;
-160.8000;0.2458;0.3636;
-160.5000;0.2548;0.3975;
-160.2000;0.2450;0.3708;
-159.9000;0.2466;0.3708;
-159.6000;0.2475;0.3733;
-159.3000;0.2466;0.3757;
-159.0000;0.2466;0.3684;
-158.7000;0.2458;0.3660;
-158.4000;0.2450;0.3708;
-158.1000;0.2466;0.3708;
-157.8000;0.2434;0.3636;
-157.5000;0.2515;0.3902;
-157.2000;0.2458;0.3805;
-156.9000;0.2491;0.3926;
-156.6000;0.2483;0.3951;
-156.3000;0.2458;0.3854;
-156.0000;0.2483;0.3902;
-155.7000;0.2507;0.3926;
-155.4000;0.2507;0.3951;
-155.1000;0.2434;0.3781;
-154.8000;0.2475;0.3926;
-154.5000;0.2548;0.4096;
-154.2000;0.2499;0.3951;
-153.9000;0.2475;0.3805;
-153.6000;0.2491;0.3878;
-153.3000;0.2483;0.3829;
-153.0000;0.2475;0.3781;
-152.7000;0.2426;0.3660;
-152.4000;0.2483;0.3757;
-152.1000;0.2466;0.3733;
-151.8000;0.2475;0.3757;
-151.5000;0.2466;0.3854;
-151.2000;0.2491;0.3975;
-150.9000;0.2466;0.4023;
-150.6000;0.2450;0.4048;
-150.3000;0.2491;0.4145;
-150.0000;0.2475;0.4048;
-149.7000;0.2564;0.4266;
-149.4000;0.2466;0.3829;
-149.1000;0.2401;0.3636;
-148.8000;0.2466;0.3781;
-148.5000;0.2458;0.3757;
-148.2000;0.2442;0.3733;
-147.9000;0.2564;0.3999;
-147.6000;0.2572;0.4023;
-147.3000;0.2475;0.3733;
-147.0000;0.2491;0.3733;
-146.7000;0.2483;0.3708;
-146.4000;0.2442;0.3733;
-146.1000;0.2507;0.3829;
-145.8000;0.2491;0.3708;
-145.5000;0.2377;0.3490;
-145.2000;0.2507;0.3829;
-144.9000;0.2466;0.3757;
-144.6000;0.2418;0.3587;
-144.3000;0.2458;0.3611;
-144.0000;0.2475;0.3684;
-143.7000;0.2483;0.3708;
-143.4000;0.2475;0.3660;
-143.1000;0.2442;0.3611;
-142.8000;0.2466;0.3684;
-142.5000;0.2507;0.3708;
-142.2000;0.2491;0.3660;
-141.9000;0.2475;0.3587;
-141.6000;0.2466;0.3636;
-141.3000;0.2499;0.3636;
-141.0000;0.2491;0.3587;
-140.7000;0.2483;0.3611;
-140.4000;0.2466;0.3636;
-140.1000;0.2491;0.3781;
-139.8000;0.2434;0.3636;
-139.5000;0.2466;0.3708;
-139.2000;0.2499;0.3733;
-138.9000;0.2434;0.3563;
-138.6000;0.2458;0.3781;
-138.3000;0.2426;0.3563;
-138.0000;0.2466;0.3660;
-137.7000;0.2491;0.3805;
-137.4000;0.2458;0.3757;
-137.1000;0.2483;0.3805;
-136.8000;0.2442;0.3708;
-136.5000;0.2466;0.3781;
-136.2000;0.2466;0.3708;
-135.9000;0.2466;0.3684;
-135.6000;0.2458;0.3611;
-135.3000;0.2483;0.3611;
-135.0000;0.2466;0.3466;
-134.7000;0.2483;0.3490;
-134.4000;0.2483;0.3514;
-134.1000;0.2475;0.3442;
-133.8000;0.2442;0.3466;
-133.5000;0.2483;0.3684;
-133.2000;0.2458;0.3636;
-132.9000;0.2475;0.3563;
-132.6000;0.2450;0.3514;
-132.3000;0.2499;0.3708;
-132.0000;0.2450;0.3611;
-131.7000;0.2450;0.3660;
-131.4000;0.2458;0.3708;
-131.1000;0.2483;0.3829;
-130.8000;0.2483;0.3757;
-130.5000;0.2458;0.3733;
-130.2000;0.2466;0.3805;
-129.9000;0.2483;0.3854;
-129.6000;0.2450;0.3805;
-129.3000;0.2475;0.3854;
-129.0000;0.2475;0.3805;
-128.7000;0.2483;0.3708;
-128.4000;0.2491;0.3757;
-128.1000;0.2475;0.3660;
-127.8000;0.2507;0.3684;
-127.5000;0.2450;0.3490;
-127.2000;0.2475;0.3563;
-126.9000;0.2483;0.3587;
-126.6000;0.2475;0.3539;
-126.3000;0.2458;0.3563;
-126.0000;0.2450;0.3539;
-125.7000;0.2466;0.3611;
-125.4000;0.2580;0.3854;
-125.1000;0.2499;0.3684;
-124.8000;0.2466;0.3539;
-124.5000;0.2418;0.3393;
-124.2000;0.2483;0.3660;
-123.9000;0.2556;0.3878;
-123.6000;0.2491;0.3733;
-123.3000;0.2450;0.3587;
-123.0000;0.2466;0.3660;
-122.7000;0.2466;0.3587;
-122.4000;0.2466;0.3636;
-122.1000;0.2483;0.3757;
-121.8000;0.2483;0.3708;
-121.5000;0.2515;0.3733;
-121.2000;0.2450;0.3660;
-120.9000;0.2491;0.3829;
-120.6000;0.2523;0.3902;
-120.3000;0.2475;0.3878;
-120.0000;0.2483;0.3878;
-119.7000;0.2483;0.3805;
-119.4000;0.2483;0.3708;
-119.1000;0.2458;0.3733;
-118.8000;0.2458;0.3757;
-118.5000;0.2475;0.3733;
-118.2000;0.2499;0.3854;
-117.9000;0.2475;0.3902;
-117.6000;0.2483;0.3902;
-117.3000;0.2515;0.3878;
-117.0000;0.2466;0.3733;
-116.7000;0.2491;0.3829;
-116.4000;0.2475;0.3805;
-116.1000;0.2548;0.4120;
-115.8000;0.2475;0.3902;
-115.5000;0.2491;0.3926;
-115.2000;0.2475;0.3805;
-114.9000;0.2491;0.3829;
-114.6000;0.2499;0.3878;
-114.3000;0.2499;0.3805;
-114.0000;0.2466;0.3733;
-113.7000;0.2409;0.3563;
-113.4000;0.2450;0.3805;
-113.1000;0.2491;0.3926;
-112.8000;0.2491;0.3951;
-112.5000;0.2466;0.3781;
-112.2000;0.2523;0.3902;
-111.9000;0.2491;0.3781;
-111.6000;0.2475;0.3805;
-111.3000;0.2483;0.3902;
-111.0000;0.2475;0.3975;
-110.7000;0.2499;0.4048;
-110.4000;0.2466;0.3951;
-110.1000;0.2499;0.4023;
-109.8000;0.2483;0.3975;
-109.5000;0.2475;0.3999;
-109.2000;0.2426;0.3757;
-108.9000;0.2475;0.3854;
-108.6000;0.2475;0.3829;
-108.3000;0.2434;0.3733;
-108.0000;0.2475;0.3878;
-107.7000;0.2466;0.3757;
-107.4000;0.2434;0.3684;
-107.1000;0.2458;0.3757;
-106.8000;0.2475;0.3708;
-106.5000;0.2466;0.3611;
-106.2000;0.2532;0.3854;
-105.9000;0.2466;0.3733;
-105.6000;0.2483;0.3951;
-105.3000;0.2499;0.3975;
-105.0000;0.2475;0.3902;
-104.7000;0.2475;0.3829;
-104.4000;0.2507;0.3878;
-104.1000;0.2499;0.3781;
-103.8000;0.2450;0.3660;
-103.5000;0.2483;0.3733;
-103.2000;0.2491;0.3733;
-102.9000;0.2491;0.3829;
-102.6000;0.2475;0.3854;
-102.3000;0.2466;0.3854;
-102.0000;0.2491;0.3854;
-101.7000;0.2475;0.3805;
-101.4000;0.2450;0.3684;
-101.1000;0.2418;0.3636;
-100.8000;0.2401;0.3514;
-100.5000;0.2483;0.3757;
-100.2000;0.2475;0.3781;
-99.9000;0.2466;0.3708;
-99.6000;0.2532;0.3951;
-99.3000;0.2491;0.3805;
-99.0000;0.2475;0.3781;
-98.7000;0.2483;0.3805;
-98.4000;0.2564;0.3999;
-98.1000;0.2466;0.3781;
-97.8000;0.2401;0.3587;
-97.5000;0.2458;0.3781;
-97.2000;0.2483;0.3781;
-96.9000;0.2434;0.3587;
-96.6000;0.2475;0.3660;
-96.3000;0.2466;0.3660;
-96.0000;0.2466;0.3636;
-95.7000;0.2483;0.3636;
-95.4000;0.2491;0.3757;
-95.1000;0.2466;0.3636;
-94.8000;0.2540;0.3757;
-94.5000;0.2475;0.3587;
-94.2000;0.2483;0.3636;
-93.9000;0.2499;0.3708;
-93.6000;0.2475;0.3660;
-93.3000;0.2442;0.3563;
-93.0000;0.2466;0.3636;
-92.7000;0.2483;0.3684;
-92.4000;0.2499;0.3757;
-92.1000;0.2466;0.3636;
-91.8000;0.2466;0.3611;
-91.5000;0.2466;0.3563;
-91.2000;0.2466;0.3636;
-90.9000;0.2466;0.3563;
-90.6000;0.2475;0.3539;
-90.3000;0.2450;0.3563;
-90.0000;0.2491;0.3587;
-89.7000;0.2515;0.3684;
-89.4000;0.2450;0.3563;
-89.1000;0.2499;0.3684;
-88.8000;0.2475;0.3611;
-88.5000;0.2491;0.3611;
-88.2000;0.2483;0.3611;
-87.9000;0.2458;0.3636;
-87.6000;0.2450;0.3587;
-87.3000;0.2466;0.3611;
-87.0000;0.2483;0.3611;
-86.7000;0.2385;0.3393;
-86.4000;0.2458;0.3660;
-86.1000;0.2458;0.3733;
-85.8000;0.2418;0.3587;
-85.5000;0.2475;0.3708;
-85.2000;0.2483;0.3733;
-84.9000;0.2483;0.3733;
-84.6000;0.2458;0.3708;
-84.3000;0.2458;0.3684;
-84.0000;0.2532;0.3805;
-83.7000;0.2475;0.3636;
-83.4000;0.2458;0.3563;
-83.1000;0.2466;0.3587;
-82.8000;0.2466;0.3563;
-82.5000;0.2483;0.3636;
-82.2000;0.2475;0.3733;
-81.9000;0.2475;0.3636;
-81.6000;0.2466;0.3708;
-81.3000;0.2475;0.3708;
-81.0000;0.2466;0.3708;
-80.7000;0.2458;0.3708;
-80.4000;0.2475;0.3708;
-80.1000;0.2499;0.3781;
-79.8000;0.2466;0.3660;
-79.5000;0.2483;0.3708;
-79.2000;0.2483;0.3684;
-78.9000;0.2466;0.3636;
-78.6000;0.2483;0.3660;
-78.3000;0.2483;0.3684;
-78.0000;0.2475;0.3611;
-77.7000;0.2450;0.3539;
-77.4000;0.2483;0.3708;
-77.1000;0.2483;0.3805;
-76.8000;0.2466;0.3757;
-76.5000;0.2466;0.3781;
-76.2000;0.2466;0.3854;
-75.9000;0.2458;0.3805;
-75.6000;0.2442;0.3733;
-75.3000;0.2466;0.3660;
-75.0000;0.2475;0.3660;
-74.7000;0.2475;0.3708;
-74.4000;0.2507;0.3805;
-74.1000;0.2466;0.3684;
-73.8000;0.2369;0.3417;
-73.5000;0.2491;0.3757;
-73.2000;0.2483;0.3684;
-72.9000;0.2491;0.3757;
-72.6000;0.2491;0.3829;
-72.3000;0.2393;0.3611;
-72.0000;0.2483;0.3878;
-71.7000;0.2458;0.3878;
-71.4000;0.2523;0.3975;
-71.1000;0.2475;0.3902;
-70.8000;0.2458;0.3805;
-70.5000;0.2483;0.3878;
-70.2000;0.2450;0.3878;
-69.9000;0.2475;0.3902;
-69.6000;0.2491;0.3902;
-69.3000;0.2466;0.3878;
-69.0000;0.2434;0.3781;
-68.7000;0.2491;0.3854;
-68.4000;0.2483;0.3757;
-68.1000;0.2475;0.3805;
-67.8000;0.2491;0.3854;
-67.5000;0.2466;0.3854;
-67.2000;0.2483;0.3854;
-66.9000;0.2483;0.3757;
-66.6000;0.2466;0.3708;
-66.3000;0.2572;0.3999;
-66.0000;0.2491;0.3757;
-65.7000;0.2352;0.3393;
-65.4000;0.2483;0.3805;
-65.1000;0.2475;0.3757;
-64.8000;0.2475;0.3757;
-64.5000;0.2458;0.3781;
-64.2000;0.2418;0.3587;
-63.9000;0.2466;0.3708;
-63.6000;0.2475;0.3805;
-63.3000;0.2475;0.3781;
-63.0000;0.2491;0.3854;
-62.7000;0.2483;0.3805;
-62.4000;0.2475;0.3805;
-62.1000;0.2475;0.3926;
-61.8000;0.2491;0.3781;
-61.5000;0.2434;0.3490;
-61.2000;0.2466;0.3660;
-60.9000;0.2475;0.3660;
-60.6000;0.2475;0.3660;
-60.3000;0.2475;0.3733;
-60.0000;0.2442;0.3636;
-59.7000;0.2458;0.3660;
-59.4000;0.2475;0.3587;
-59.1000;0.2475;0.3587;
-58.8000;0.2491;0.3587;
-58.5000;0.2475;0.3490;
-58.2000;0.2483;0.3539;
-57.9000;0.2499;0.3660;
-57.6000;0.2466;0.3684;
-57.3000;0.2483;0.3684;
-57.0000;0.2491;0.3805;
-56.7000;0.2499;0.3781;
-56.4000;0.2466;0.3733;
-56.1000;0.2483;0.3757;
-55.8000;0.2491;0.3878;
-55.5000;0.2475;0.3926;
-55.2000;0.2458;0.3805;
-54.9000;0.2483;0.3757;
-54.6000;0.2475;0.3684;
-54.3000;0.2483;0.3708;
-54.0000;0.2458;0.3636;
-53.7000;0.2491;0.3781;
-53.4000;0.2475;0.3757;
-53.1000;0.2491;0.3781;
-52.8000;0.2377;0.3466;
-52.5000;0.2483;0.3733;
-52.2000;0.2466;0.3684;
-51.9000;0.2483;0.3684;
-51.6000;0.2483;0.3684;
-51.3000;0.2483;0.3757;
-51.0000;0.2475;0.3708;
-50.7000;0.2491;0.3708;
-50.4000;0.2458;0.3611;
-50.1000;0.2442;0.3611;
-49.8000;0.2491;0.3684;
-49.5000;0.2491;0.3684;
-49.2000;0.2597;0.4048;
-48.9000;0.2475;0.3781;
-48.6000;0.2499;0.3781;
-48.3000;0.2483;0.3829;
-48.0000;0.2491;0.3926;
-47.7000;0.2466;0.3805;
-47.4000;0.2458;0.3829;
-47.1000;0.2507;0.3902;
-46.8000;0.2475;0.3781;
-46.5000;0.2475;0.3660;
-46.2000;0.2442;0.3539;
-45.9000;0.2434;0.3611;
-45.6000;0.2491;0.3660;
-45.3000;0.2475;0.3611;
-45.0000;0.2442;0.3660;
-44.7000;0.2475;0.3733;
-44.4000;0.2458;0.3733;
-44.1000;0.2466;0.3660;
-43.8000;0.2466;0.3708;
-43.5000;0.2475;0.3733;
-43.2000;0.2475;0.3733;
-42.9000;0.2491;0.3733;
-42.6000;0.2466;0.3781;
-42.3000;0.2434;0.3708;
-42.0000;0.2483;0.3757;
-41.7000;0.2442;0.3636;
-41.4000;0.2483;0.3684;
-41.1000;0.2475;0.3539;
-40.8000;0.2450;0.3442;
-40.5000;0.2401;0.3272;
-40.2000;0.2483;0.3514;
-39.9000;0.2450;0.3393;
-39.6000;0.2458;0.3490;
-39.3000;0.2483;0.3611;
-39.0000;0.2442;0.3563;
-38.7000;0.2475;0.3611;
-38.4000;0.2483;0.3708;
-38.1000;0.2564;0.3926;
-37.8000;0.2483;0.3611;
-37.5000;0.2491;0.3684;
-37.2000;0.2475;0.3733;
-36.9000;0.2458;0.3708;
-36.6000;0.2466;0.3757;
-36.3000;0.2475;0.3805;
-36.0000;0.2466;0.3757;
-35.7000;0.2466;0.3636;
-35.4000;0.2458;0.3684;
-35.1000;0.2475;0.3708;
-34.8000;0.2483;0.3733;
-34.5000;0.2434;0.3539;
-34.2000;0.2483;0.3708;
-33.9000;0.2523;0.3854;
-33.6000;0.2515;0.3829;
-33.3000;0.2466;0.3733;
-33.0000;0.2548;0.3805;
-32.7000;0.2491;0.3563;
-32.4000;0.2597;0.3926;
-32.1000;0.2466;0.3636;
-31.8000;0.2483;0.3636;
-31.5000;0.2450;0.3539;
-31.2000;0.2515;0.3660;
-30.9000;0.2548;0.3805;
-30.6000;0.2483;0.3684;
-30.3000;0.2466;0.3757;
-30.0000;0.2466;0.3611;
-29.7000;0.2540;0.3781;
-29.4000;0.2385;0.3369;
-29.1000;0.2491;0.3563;
-28.8000;0.2466;0.3539;
-28.5000;0.2458;0.3490;
-28.2000;0.2442;0.3417;
-27.9000;0.2466;0.3539;
-27.6000;0.2393;0.3369;
-27.3000;0.2491;0.3563;
-27.0000;0.2475;0.3611;
-26.7000;0.2466;0.3563;
-26.4000;0.2475;0.3587;
-26.1000;0.2491;0.3514;
-25.8000;0.2466;0.3514;
-25.5000;0.2466;0.3539;
-25.2000;0.2475;0.3587;
-24.9000;0.2466;0.3684;
-24.6000;0.2499;0.3684;
-24.3000;0.2475;0.3660;
-24.0000;0.2475;0.3708;
-23.7000;0.2507;0.3757;
-23.4000;0.2483;0.3684;
-23.1000;0.2483;0.3611;
-22.8000;0.2499;0.3611;
-22.5000;0.2483;0.3514;
-22.2000;0.2523;0.3611;
-21.9000;0.2458;0.3563;
-21.6000;0.2466;0.3563;
-21.3000;0.2483;0.3539;
-21.0000;0.2475;0.3611;
-20.7000;0.2369;0.3345;
-20.4000;0.2475;0.3563;
-20.1000;0.2491;0.3587;
-19.8000;0.2458;0.3539;
-19.5000;0.2483;0.3636;
-19.2000;0.2475;0.3611;
-18.9000;0.2458;0.3684;
-18.6000;0.2426;0.3587;
-18.3000;0.2548;0.3854;
-18.0000;0.2458;0.3539;
-17.7000;0.2466;0.3611;
-17.4000;0.2466;0.3660;
-17.1000;0.2499;0.3636;
-16.8000;0.2450;0.3490;
-16.5000;0.2466;0.3490;
-16.2000;0.2466;0.3563;
-15.9000;0.2450;0.3587;
-15.6000;0.2418;0.3442;
-15.3000;0.2450;0.3514;
-15.0000;0.2377;0.3272;
-14.7000;0.2483;0.3417;
-14.4000;0.2458;0.3345;
-14.1000;0.2442;0.3393;
-13.8000;0.2483;0.3393;
-13.5000;0.2458;0.3393;
-13.2000;0.2475;0.3539;
-12.9000;0.2442;0.3320;
-12.6000;0.2475;0.3417;
-12.3000;0.2483;0.3393;
-12.0000;0.2475;0.3442;
-11.7000;0.2466;0.3345;
-11.4000;0.2458;0.3417;
-11.1000;0.2483;0.3539;
-10.8000;0.2466;0.3539;
-10.5000;0.2442;0.3417;
-10.2000;0.2466;0.3490;
-9.9000;0.2434;0.3345;
-9.6000;0.2450;0.3393;
-9.3000;0.2475;0.3490;
-9.0000;0.2434;0.3296;
-8.7000;0.2450;0.3369;
-8.4000;0.2450;0.3393;
-8.1000;0.2564;0.3805;
-7.8000;0.2466;0.3684;
-7.5000;0.2442;0.3563;
-7.2000;0.2475;0.3708;
-6.9000;0.2475;0.3684;
-6.6000;0.2466;0.3684;
-6.3000;0.2442;0.3611;
-6.0000;0.2475;0.3781;
-5.7000;0.2483;0.3829;
-5.4000;0.2418;0.3684;
-5.1000;0.2483;0.3805;
-4.8000;0.2475;0.3757;
-4.5000;0.2483;0.3757;
-4.2000;0.2483;0.3733;
-3.9000;0.2466;0.3684;
-3.6000;0.2483;0.3684;
-3.3000;0.2507;0.3757;
-3.0000;0.2426;0.3563;
-2.7000;0.2572;0.3878;
-2.4000;0.2475;0.3539;
-2.1000;0.2491;0.3490;
-1.8000;0.2475;0.3490;
-1.5000;0.2458;0.3490;
-1.2000;0.2515;0.3587;
-0.9000;0.2475;0.3539;
-0.6000;0.2450;0.3442;
-0.3000;0.2466;0.3490;
0.0000;0.2466;0.3490;
0.3000;0.2483;0.3490;
0.6000;0.2475;0.3684;
0.9000;0.2483;0.3926;
1.2000;0.2499;0.4193;
1.5000;0.2475;0.4314;
1.8000;0.2515;0.4702;
2.1000;0.2532;0.4896;
2.4000;0.2523;0.5017;
2.7000;0.2540;0.5259;
3.0000;0.2548;0.5429;
3.3000;0.2556;0.5623;
3.6000;0.2564;0.5647;
3.9000;0.2572;0.5793;
4.2000;0.2572;0.5817;
4.5000;0.2564;0.5938;
4.8000;0.2589;0.6059;
5.1000;0.2548;0.5962;
5.4000;0.2483;0.5914;
5.7000;0.2572;0.6180;
6.0000;0.2556;0.6205;
6.3000;0.2572;0.6156;
6.6000;0.2548;0.6011;
6.9000;0.2621;0.6326;
7.2000;0.2564;0.6180;
7.5000;0.2466;0.6084;
7.8000;0.2580;0.6326;
8.1000;0.2572;0.6326;
8.4000;0.2580;0.6447;
8.7000;0.2572;0.6350;
9.0000;0.2564;0.6229;
9.3000;0.2572;0.6229;
9.6000;0.2548;0.6132;
9.9000;0.2580;0.6156;
10.2000;0.2564;0.6156;
10.5000;0.2556;0.6059;
10.8000;0.2556;0.6059;
11.1000;0.2548;0.6035;
11.4000;0.2589;0.6180;
11.7000;0.2572;0.6084;
12.0000;0.2580;0.6180;
12.3000;0.2621;0.6108;
12.6000;0.2572;0.6084;
12.9000;0.2564;0.6084;
13.2000;0.2589;0.6253;
13.5000;0.2548;0.6229;
13.8000;0.2572;0.6180;
14.1000;0.2572;0.6156;
14.4000;0.2523;0.5962;
14.7000;0.2556;0.6011;
15.0000;0.2548;0.5962;
15.3000;0.2540;0.5938;
15.6000;0.2564;0.6035;
15.9000;0.2556;0.5987;
16.2000;0.2475;0.5793;
16.5000;0.2556;0.6011;
16.8000;0.2580;0.6059;
17.1000;0.2589;0.5987;
17.4000;0.2548;0.5817;
17.7000;0.2605;0.6059;
18.0000;0.2556;0.5938;
18.3000;0.2458;0.5768;
18.6000;0.2540;0.6084;
18.9000;0.2564;0.6132;
19.2000;0.2556;0.6108;
19.5000;0.2564;0.6180;
19.8000;0.2572;0.6132;
20.1000;0.2556;0.6084;
20.4000;0.2548;0.6011;
20.7000;0.2523;0.5962;
21.0000;0.2605;0.6156;
21.3000;0.2532;0.5890;
21.6000;0.2564;0.5987;
21.9000;0.2548;0.5962;
22.2000;0.2564;0.6011;
22.5000;0.2556;0.5987;
22.8000;0.2540;0.6059;
23.1000;0.2548;0.6011;
23.4000;0.2572;0.6108;
23.7000;0.2507;0.5938;
24.0000;0.2540;0.6035;
24.3000;0.2548;0.6035;
24.6000;0.2564;0.6011;
24.9000;0.2572;0.6035;
25.2000;0.2564;0.5987;
25.5000;0.2540;0.5890;
25.8000;0.2564;0.5987;
26.1000;0.2556;0.6011;
26.4000;0.2548;0.5987;
26.7000;0.2523;0.5914;
27.0000;0.2564;0.6011;
27.3000;0.2564;0.6011;
27.6000;0.2580;0.6132;
27.9000;0.2532;0.6011;
28.2000;0.2556;0.6059;
28.5000;0.2548;0.6035;
28.8000;0.2572;0.6059;
29.1000;0.2548;0.5987;
29.4000;0.2580;0.6035;
29.7000;0.2572;0.5987;
30.0000;0.2556;0.5938;
30.3000;0.2540;0.5938;
30.6000;0.2540;0.6035;
30.9000;0.2556;0.6084;
31.2000;0.2523;0.5890;
31.5000;0.2532;0.5890;
31.8000;0.2556;0.5817;
32.1000;0.2564;0.5865;
32.4000;0.2564;0.5962;
32.7000;0.2629;0.6132;
33.0000;0.2556;0.5914;
33.3000;0.2572;0.5987;
33.6000;0.2466;0.5768;
33.9000;0.2572;0.6084;
34.2000;0.2564;0.6084;
34.5000;0.2564;0.6156;
34.8000;0.2572;0.6156;
35.1000;0.2564;0.6156;
35.4000;0.2548;0.6108;
35.7000;0.2564;0.6205;
36.0000;0.2556;0.6156;
36.3000;0.2572;0.6229;
36.6000;0.2548;0.6108;
36.9000;0.2564;0.6180;
37.2000;0.2556;0.6156;
37.5000;0.2556;0.6156;
37.8000;0.2589;0.6277;
38.1000;0.2556;0.6132;
38.4000;0.2556;0.6132;
38.7000;0.2572;0.6205;
39.0000;0.2532;0.6059;
39.3000;0.2515;0.5987;
39.6000;0.2548;0.5987;
39.9000;0.2548;0.6035;
40.2000;0.2572;0.6059;
40.5000;0.2564;0.6059;
40.8000;0.2564;0.6156;
41.1000;0.2572;0.6229;
41.4000;0.2556;0.6180;
41.7000;0.2564;0.6229;
42.0000;0.2540;0.6084;
42.3000;0.2548;0.6035;
42.6000;0.2556;0.6132;
42.9000;0.2556;0.6132;
43.2000;0.2540;0.6180;
43.5000;0.2564;0.6302;
43.8000;0.2548;0.6277;
44.1000;0.2564;0.6253;
44.4000;0.2548;0.6180;
44.7000;0.2572;0.6084;
45.0000;0.2572;0.6011;
45.3000;0.2556;0.6011;
45.6000;0.2564;0.6059;
45.9000;0.2556;0.6035;
46.2000;0.2564;0.5938;
46.5000;0.2548;0.5914;
46.8000;0.2589;0.6084;
47.1000;0.2580;0.6084;
47.4000;0.2556;0.6035;
47.7000;0.2556;0.6059;
48.0000;0.2564;0.6035;
48.3000;0.2564;0.6011;
48.6000;0.2556;0.6011;
48.9000;0.2580;0.6011;
49.2000;0.2597;0.6035;
49.5000;0.2532;0.5890;
49.8000;0.2540;0.5987;
50.1000;0.2556;0.6011;
50.4000;0.2556;0.6035;
50.7000;0.2548;0.6035;
51.0000;0.2556;0.6059;
51.3000;0.2580;0.6132;
51.6000;0.2540;0.6011;
51.9000;0.2532;0.6084;
52.2000;0.2613;0.6350;
52.5000;0.2532;0.6156;
52.8000;0.2540;0.6084;
53.1000;0.2572;0.6156;
53.4000;0.2548;0.6035;
53.7000;0.2556;0.5987;
54.0000;0.2572;0.5987;
54.3000;0.2556;0.5938;
54.6000;0.2548;0.5890;
54.9000;0.2589;0.6035;
55.2000;0.2572;0.6011;
55.5000;0.2548;0.6011;
55.8000;0.2556;0.6059;
56.1000;0.2540;0.5938;
56.4000;0.2548;0.5841;
56.7000;0.2515;0.5817;
57.0000;0.2548;0.5962;
57.3000;0.2556;0.5987;
57.6000;0.2556;0.6035;
57.9000;0.2556;0.6035;
58.2000;0.2499;0.5987;
58.5000;0.2556;0.6132;
58.8000;0.2556;0.6180;
59.1000;0.2564;0.6205;
59.4000;0.2564;0.6156;
59.7000;0.2580;0.6277;
60.0000;0.2564;0.6253;
60.3000;0.2523;0.6108;
60.6000;0.2564;0.6277;
60.9000;0.2564;0.6350;
61.2000;0.2515;0.6156;
61.5000;0.2564;0.6277;
61.8000;0.2556;0.6326;
62.1000;0.2564;0.6350;
62.4000;0.2556;0.6326;
62.7000;0.2556;0.6326;
63.0000;0.2556;0.6350;
63.3000;0.2629;0.6520;
63.6000;0.2564;0.6302;
63.9000;0.2540;0.6180;
64.2000;0.2564;0.6156;
64.5000;0.2548;0.6011;
64.8000;0.2548;0.5938;
65.1000;0.2523;0.5962;
65.4000;0.2556;0.6084;
65.7000;0.2662;0.6447;
66.0000;0.2589;0.6205;
66.3000;0.2548;0.6011;
66.6000;0.2564;0.6035;
66.9000;0.2532;0.6059;
67.2000;0.2532;0.6156;
67.5000;0.2540;0.6205;
67.8000;0.2523;0.6156;
68.1000;0.2548;0.6253;
68.4000;0.2564;0.6205;
68.7000;0.2548;0.6205;
69.0000;0.2532;0.6132;
69.3000;0.2564;0.6132;
69.6000;0.2548;0.6156;
69.9000;0.2556;0.6132;
70.2000;0.2548;0.6156;
70.5000;0.2540;0.6132;
70.8000;0.2556;0.6084;
71.1000;0.2548;0.6059;
71.4000;0.2621;0.6253;
71.7000;0.2548;0.6180;
72.0000;0.2523;0.6156;
72.3000;0.2548;0.6229;
72.6000;0.2532;0.6180;
72.9000;0.2556;0.6180;
73.2000;0.2532;0.6229;
73.5000;0.2580;0.6326;
73.8000;0.2532;0.6205;
74.1000;0.2548;0.6132;
74.4000;0.2556;0.6205;
74.7000;0.2572;0.6180;
75.0000;0.2548;0.6084;
75.3000;0.2556;0.6084;
75.6000;0.2572;0.6084;
75.9000;0.2548;0.6011;
76.2000;0.2556;0.6011;
76.5000;0.2475;0.5793;
76.8000;0.2548;0.5987;
77.1000;0.2540;0.5987;
77.4000;0.2548;0.6035;
77.7000;0.2523;0.5987;
78.0000;0.2548;0.6108;
78.3000;0.2686;0.6520;
78.6000;0.2507;0.5987;
78.9000;0.2556;0.6059;
79.2000;0.2434;0.5647;
79.5000;0.2556;0.6035;
79.8000;0.2532;0.5987;
80.1000;0.2540;0.6084;
80.4000;0.2548;0.6059;
80.7000;0.2572;0.6108;
81.0000;0.2572;0.6108;
81.3000;0.2556;0.6059;
81.6000;0.2564;0.6084;
81.9000;0.2507;0.5914;
82.2000;0.2572;0.6084;
82.5000;0.2613;0.6132;
82.8000;0.2532;0.5865;
83.1000;0.2556;0.6011;
83.4000;0.2548;0.6011;
83.7000;0.2564;0.6035;
84.0000;0.2597;0.6205;
84.3000;0.2572;0.6205;
84.6000;0.2475;0.5962;
84.9000;0.2523;0.6108;
85.2000;0.2572;0.6253;
85.5000;0.2564;0.6229;
85.8000;0.2548;0.6035;
86.1000;0.2548;0.6059;
86.4000;0.2515;0.5962;
86.7000;0.2556;0.6084;
87.0000;0.2589;0.6180;
87.3000;0.2605;0.6156;
87.6000;0.2564;0.6011;
87.9000;0.2556;0.6035;
88.2000;0.2507;0.5890;
88.5000;0.2532;0.6011;
88.8000;0.2556;0.6132;
89.1000;0.2458;0.5914;
89.4000;0.2556;0.6108;
89.7000;0.2580;0.6084;
90.0000;0.2564;0.6156;
90.3000;0.2556;0.6277;
90.6000;0.2426;0.5890;
90.9000;0.2548;0.6205;
91.2000;0.2548;0.6229;
91.5000;0.2515;0.6132;
91.8000;0.2540;0.6229;
92.1000;0.2548;0.6229;
92.4000;0.2556;0.6180;
92.7000;0.2532;0.6108;
93.0000;0.2515;0.6059;
93.3000;0.2548;0.6108;
93.6000;0.2548;0.6156;
93.9000;0.2556;0.6132;
94.2000;0.2515;0.6011;
94.5000;0.2556;0.6132;
94.8000;0.2564;0.6180;
95.1000;0.2540;0.6180;
95.4000;0.2548;0.6156;
95.7000;0.2548;0.6132;
96.0000;0.2540;0.6180;
96.3000;0.2564;0.6253;
96.6000;0.2548;0.6277;
96.9000;0.2548;0.6229;
97.2000;0.2580;0.6302;
97.5000;0.2556;0.6350;
97.8000;0.2621;0.6447;
98.1000;0.2540;0.6302;
98.4000;0.2532;0.6423;
98.7000;0.2515;0.6302;
99.0000;0.2540;0.6277;
99.3000;0.2540;0.6326;
99.6000;0.2556;0.6399;
99.9000;0.2483;0.6132;
100.2000;0.2564;0.6423;
100.5000;0.2548;0.6326;
100.8000;0.2572;0.6374;
101.1000;0.2556;0.6302;
101.4000;0.2532;0.6277;
101.7000;0.2564;0.6374;
102.0000;0.2507;0.6205;
102.3000;0.2548;0.6326;
102.6000;0.2621;0.6447;
102.9000;0.2540;0.6326;
103.2000;0.2548;0.6374;
103.5000;0.2532;0.6302;
103.8000;0.2532;0.6326;
104.1000;0.2532;0.6302;
104.4000;0.2540;0.6253;
104.7000;0.2548;0.6229;
105.0000;0.2556;0.6253;
105.3000;0.2532;0.6156;
105.6000;0.2556;0.6156;
105.9000;0.2556;0.6180;
106.2000;0.2532;0.6108;
106.5000;0.2548;0.6132;
106.8000;0.2564;0.6180;
107.1000;0.2499;0.5938;
107.4000;0.2572;0.6156;
107.7000;0.2548;0.6108;
108.0000;0.2556;0.6084;
108.3000;0.2548;0.6035;
108.6000;0.2580;0.6084;
108.9000;0.2523;0.5987;
109.2000;0.2532;0.6035;
109.5000;0.2548;0.6059;
109.8000;0.2515;0.6084;
110.1000;0.2556;0.6277;
110.4000;0.2548;0.6326;
110.7000;0.2548;0.6253;
111.0000;0.2572;0.6229;
111.3000;0.2523;0.6108;
111.6000;0.2572;0.6156;
111.9000;0.2556;0.6084;
112.2000;0.2532;0.6011;
112.5000;0.2523;0.6059;
112.8000;0.2483;0.5938;
113.1000;0.2556;0.6084;
113.4000;0.2523;0.6084;
113.7000;0.2540;0.6059;
114.0000;0.2572;0.6108;
114.3000;0.2548;0.5938;
114.6000;0.2540;0.5962;
114.9000;0.2548;0.5987;
115.2000;0.2532;0.6011;
115.5000;0.2540;0.6084;
115.8000;0.2434;0.5938;
116.1000;0.2532;0.6205;
116.4000;0.2548;0.6205;
116.7000;0.2548;0.6180;
117.0000;0.2540;0.6108;
117.3000;0.2556;0.6132;
117.6000;0.2548;0.6132;
117.9000;0.2515;0.6035;
118.2000;0.2540;0.6132;
118.5000;0.2532;0.6205;
118.8000;0.2548;0.6156;
119.1000;0.2548;0.6253;
119.4000;0.2540;0.6277;
119.7000;0.2548;0.6399;
120.0000;0.2564;0.6423;
120.3000;0.2532;0.6374;
120.6000;0.2548;0.6350;
120.9000;0.2532;0.6302;
121.2000;0.2507;0.6180;
121.5000;0.2556;0.6253;
121.8000;0.2556;0.6277;
122.1000;0.2540;0.6253;
122.4000;0.2548;0.6253;
122.7000;0.2515;0.6180;
123.0000;0.2515;0.6035;
123.3000;0.2540;0.6132;
123.6000;0.2572;0.6229;
123.9000;0.2532;0.6132;
124.2000;0.2548;0.6229;
124.5000;0.2564;0.6180;
124.8000;0.2532;0.6132;
125.1000;0.2540;0.6132;
125.4000;0.2499;0.6084;
125.7000;0.2548;0.6205;
126.0000;0.2556;0.6205;
126.3000;0.2532;0.6253;
126.6000;0.2556;0.6253;
126.9000;0.2540;0.6302;
127.2000;0.2564;0.6302;
127.5000;0.2556;0.6253;
127.8000;0.2564;0.6180;
128.1000;0.2564;0.6156;
128.4000;0.2548;0.6035;
128.7000;0.2548;0.6035;
129.0000;0.2532;0.6084;
129.3000;0.2556;0.6132;
129.6000;0.2532;0.6084;
129.9000;0.2564;0.6084;
130.2000;0.2532;0.6011;
130.5000;0.2532;0.6035;
130.8000;0.2564;0.6132;
131.1000;0.2548;0.6084;
131.4000;0.2532;0.6059;
131.7000;0.2564;0.6108;
132.0000;0.2564;0.6205;
132.3000;0.2548;0.6205;
132.6000;0.2540;0.6229;
132.9000;0.2564;0.6253;
133.2000;0.2572;0.6302;
133.5000;0.2548;0.6205;
133.8000;0.2662;0.6520;
134.1000;0.2548;0.6229;
134.4000;0.2523;0.6229;
134.7000;0.2548;0.6277;
135.0000;0.2540;0.6156;
135.3000;0.2532;0.6108;
135.6000;0.2556;0.6084;
135.9000;0.2540;0.5987;
136.2000;0.2556;0.6011;
136.5000;0.2548;0.6035;
136.8000;0.2564;0.6108;
137.1000;0.2475;0.5914;
137.4000;0.2548;0.6156;
137.7000;0.2532;0.6035;
138.0000;0.2556;0.6132;
138.3000;0.2548;0.6108;
138.6000;0.2548;0.6180;
138.9000;0.2605;0.6302;
139.2000;0.2532;0.6084;
139.5000;0.2532;0.6059;
139.8000;0.2540;0.6108;
140.1000;0.2532;0.5962;
140.4000;0.2532;0.5987;
140.7000;0.2637;0.6205;
141.0000;0.2523;0.5914;
141.3000;0.2523;0.6011;
141.6000;0.2564;0.6132;
141.9000;0.2580;0.6108;
142.2000;0.2564;0.6108;
142.5000;0.2540;0.5987;
142.8000;0.2564;0.6011;
143.1000;0.2548;0.6035;
143.4000;0.2548;0.6108;
143.7000;0.2523;0.6059;
144.0000;0.2621;0.6253;
144.3000;0.2564;0.6156;
144.6000;0.2540;0.6084;
144.9000;0.2548;0.6108;
145.2000;0.2580;0.6229;
145.5000;0.2548;0.6132;
145.8000;0.2556;0.6205;
146.1000;0.2540;0.6205;
146.4000;0.2556;0.6253;
146.7000;0.2548;0.6277;
147.0000;0.2491;0.6132;
147.3000;0.2564;0.6302;
147.6000;0.2556;0.6374;
147.9000;0.2532;0.6277;
148.2000;0.2548;0.6205;
148.5000;0.2564;0.6156;
148.8000;0.2572;0.6253;
149.1000;0.2499;0.6011;
149.4000;0.2548;0.6084;
149.7000;0.2548;0.6156;
150.0000;0.2556;0.6108;
150.3000;0.2548;0.6084;
150.6000;0.2540;0.6132;
150.9000;0.2540;0.6059;
151.2000;0.2532;0.6059;
151.5000;0.2556;0.6035;
151.8000;0.2540;0.6035;
152.1000;0.2540;0.6108;
152.4000;0.2556;0.6180;
152.7000;0.2564;0.6253;
153.0000;0.2540;0.6180;
153.3000;0.2523;0.6084;
153.6000;0.2564;0.6156;
153.9000;0.2548;0.6059;
154.2000;0.2662;0.6350;
154.5000;0.2540;0.6059;
154.8000;0.2548;0.6156;
155.1000;0.2548;0.6108;
155.4000;0.2540;0.6059;
155.7000;0.2540;0.6059;
156.0000;0.2564;0.6132;
156.3000;0.2548;0.6108;
156.6000;0.2532;0.6108;
156.9000;0.2532;0.6084;
157.2000;0.2556;0.6059;
157.5000;0.2548;0.5987;
157.8000;0.2515;0.5890;
158.1000;0.2540;0.5987;
158.4000;0.2548;0.6035;
158.7000;0.2572;0.6108;
159.0000;0.2548;0.6156;
159.3000;0.2540;0.6084;
159.6000;0.2580;0.6205;
159.9000;0.2556;0.6180;
160.2000;0.2532;0.6108;
160.5000;0.2540;0.6059;
160.8000;0.2532;0.6011;
161.1000;0.2532;0.6035;
161.4000;0.2523;0.6084;
161.7000;0.2564;0.6108;
162.0000;0.2540;0.6084;
162.3000;0.2540;0.6132;
162.6000;0.2540;0.6132;
162.9000;0.2523;0.6132;
163.2000;0.2580;0.6350;
163.5000;0.2548;0.6277;
163.8000;0.2572;0.6374;
164.1000;0.2540;0.6229;
164.4000;0.2532;0.6180;
164.7000;0.2515;0.6205;
165.0000;0.2540;0.6253;
165.3000;0.2564;0.6326;
165.6000;0.2532;0.6277;
165.9000;0.2499;0.6108;
166.2000;0.2556;0.6205;
166.5000;0.2540;0.6253;
166.8000;0.2540;0.6132;
167.1000;0.2540;0.6180;
167.4000;0.2556;0.6302;
167.7000;0.2540;0.6302;
168.0000;0.2556;0.6374;
168.3000;0.2548;0.6302;
168.6000;0.2556;0.6326;
168.9000;0.2548;0.6302;
169.2000;0.2499;0.6229;
169.5000;0.2556;0.6326;
169.8000;0.2523;0.6180;
170.1000;0.2540;0.6132;
170.4000;0.2540;0.6156;
170.7000;0.2540;0.6180;
171.0000;0.2548;0.6205;
171.3000;0.2556;0.6229;
171.6000;0.2515;0.6180;
171.9000;0.2540;0.6156;
172.2000;0.2613;0.6302;
172.5000;0.2532;0.6205;
172.8000;0.2556;0.6229;
173.1000;0.2532;0.6205;
173.4000;0.2523;0.6229;
173.7000;0.2564;0.6302;
174.0000;0.2556;0.6326;
174.3000;0.2589;0.6350;
174.6000;0.2540;0.6253;
174.9000;0.2556;0.6326;
175.2000;0.2564;0.6399;
175.5000;0.2564;0.6326;
175.8000;0.2540;0.6277;
176.1000;0.2548;0.6277;
176.4000;0.2532;0.6229;
176.7000;0.2564;0.6302;
177.0000;0.2532;0.6229;
177.3000;0.2515;0.6205;
177.6000;0.2532;0.6277;
177.9000;0.2572;0.6350;
178.2000;0.2646;0.6544;
178.5000;0.2540;0.6205;
178.8000;0.2548;0.6205;
179.1000;0.2564;0.6253;
179.4000;0.2507;0.6156;
179.7000;0.2556;0.6229;
180.0000;0.2540;0.6229;
180.3000;0.2556;0.6156;
180.6000;0.2556;0.6156;
180.9000;0.2548;0.6108;
181.2000;0.2515;0.6132;
181.5000;0.2556;0.6253;
181.8000;0.2523;0.6132;
182.1000;0.2540;0.6132;
182.4000;0.2466;0.5938;
182.7000;0.2556;0.6205;
183.0000;0.2540;0.6084;
183.3000;0.2597;0.6253;
183.6000;0.2605;0.6277;
183.9000;0.2556;0.6108;
184.2000;0.2556;0.6156;
184.5000;0.2548;0.6205;
184.8000;0.2580;0.6399;
185.1000;0.2540;0.6302;
185.4000;0.2515;0.6156;
185.7000;0.2499;0.6108;
186.0000;0.2532;0.6156;
186.3000;0.2523;0.6108;
186.6000;0.2548;0.6229;
186.9000;0.2540;0.6253;
187.2000;0.2532;0.6253;
187.5000;0.2548;0.6302;
187.8000;0.2548;0.6302;
188.1000;0.2564;0.6423;
188.4000;0.2540;0.6399;
188.7000;0.2556;0.6374;
189.0000;0.2548;0.6447;
189.3000;0.2532;0.6423;
189.6000;0.2564;0.6350;
189.9000;0.2523;0.6277;
190.2000;0.2540;0.6229;
190.5000;0.2532;0.6180;
190.8000;0.2540;0.6205;
191.1000;0.2556;0.6156;
191.4000;0.2548;0.6108;
191.7000;0.2572;0.6108;
192.0000;0.2572;0.6156;
192.3000;0.2556;0.6084;
192.6000;0.2564;0.6059;
192.9000;0.2556;0.6132;
193.2000;0.2548;0.6205;
193.5000;0.2556;0.6253;
193.8000;0.2621;0.6399;
194.1000;0.2532;0.6180;
194.4000;0.2572;0.6277;
194.7000;0.2548;0.6229;
195.0000;0.2548;0.6302;
195.3000;0.2540;0.6302;
195.6000;0.2532;0.6253;
195.9000;0.2540;0.6277;
196.2000;0.2540;0.6253;
196.5000;0.2523;0.6302;
196.8000;0.2532;0.6326;
197.1000;0.2548;0.6302;
197.4000;0.2580;0.6277;
197.7000;0.2532;0.6253;
198.0000;0.2499;0.6156;
198.3000;0.2548;0.6302;
198.6000;0.2540;0.6205;
198.9000;0.2556;0.6326;
199.2000;0.2548;0.6326;
199.5000;0.2556;0.6326;
199.8000;0.2556;0.6326;
200.1000;0.2523;0.6302;
200.4000;0.2540;0.6277;
200.7000;0.2556;0.6302;
201.0000;0.2597;0.6399;
201.3000;0.2540;0.6229;
201.6000;0.2548;0.6156;
201.9000;0.2540;0.6108;
202.2000;0.2548;0.6132;
202.5000;0.2564;0.6180;
202.8000;0.2507;0.6011;
203.1000;0.2540;0.6059;
203.4000;0.2548;0.6084;
203.7000;0.2540;0.6011;
204.0000;0.2548;0.5987;
204.3000;0.2548;0.5890;
204.6000;0.2564;0.5914;
204.9000;0.2556;0.5987;
205.2000;0.2540;0.5987;
205.5000;0.2515;0.6011;
205.8000;0.2442;0.5865;
206.1000;0.2548;0.6205;
206.4000;0.2523;0.6156;
206.7000;0.2564;0.6302;
207.0000;0.2540;0.6229;
207.3000;0.2523;0.6205;
207.6000;0.2523;0.6302;
207.9000;0.2548;0.6302;
208.2000;0.2532;0.6302;
208.5000;0.2556;0.6302;
208.8000;0.2548;0.6302;
209.1000;0.2540;0.6229;
209.4000;0.2532;0.6180;
209.7000;0.2532;0.6180;
210.0000;0.2556;0.6326;
210.3000;0.2483;0.6180;
210.6000;0.2540;0.6253;
210.9000;0.2540;0.6156;
211.2000;0.2548;0.6156;
211.5000;0.2548;0.6156;
211.8000;0.2532;0.6035;
212.1000;0.2540;0.5987;
212.4000;0.2532;0.6011;
212.7000;0.2532;0.6011;
213.0000;0.2548;0.6108;
213.3000;0.2523;0.6156;
213.6000;0.2540;0.6253;
213.9000;0.2548;0.6253;
214.2000;0.2548;0.6180;
214.5000;0.2564;0.6205;
214.8000;0.2532;0.6205;
215.1000;0.2548;0.6277;
215.4000;0.2548;0.6277;
215.7000;0.2532;0.6229;
216.0000;0.2548;0.6205;
216.3000;0.2540;0.6156;
216.6000;0.2597;0.6253;
216.9000;0.2532;0.6084;
217.2000;0.2556;0.6108;
217.5000;0.2548;0.6132;
217.8000;0.2548;0.6205;
218.1000;0.2532;0.6132;
218.4000;0.2556;0.6205;
218.7000;0.2548;0.6156;
219.0000;0.2548;0.6156;
219.3000;0.2548;0.6180;
219.6000;0.2540;0.6180;
219.9000;0.2523;0.6035;
220.2000;0.2548;0.6084;
220.5000;0.2556;0.6132;
220.8000;0.2532;0.6059;
221.1000;0.2540;0.6108;
221.4000;0.2556;0.6205;
221.7000;0.2532;0.6156;
222.0000;0.2532;0.6132;
222.3000;0.2621;0.6302;
222.6000;0.2548;0.6156;
222.9000;0.2548;0.6132;
223.2000;0.2491;0.5938;
223.5000;0.2540;0.6059;
223.8000;0.2523;0.6011;
224.1000;0.2548;0.6059;
224.4000;0.2548;0.6180;
224.7000;0.2532;0.6132;
225.0000;0.2548;0.6180;
225.3000;0.2540;0.6205;
225.6000;0.2483;0.6108;
225.9000;0.2540;0.6180;
226.2000;0.2515;0.6059;
226.5000;0.2523;0.6084;
226.8000;0.2532;0.6011;
227.1000;0.2532;0.5914;
227.4000;0.2556;0.5987;
227.7000;0.2556;0.6108;
228.0000;0.2532;0.6132;
228.3000;0.2556;0.6156;
228.6000;0.2613;0.6277;
228.9000;0.2548;0.6132;
229.2000;0.2540;0.6108;
229.5000;0.2491;0.5962;
229.8000;0.2507;0.6035;
230.1000;0.2597;0.6253;
230.4000;0.2548;0.6156;
230.7000;0.2548;0.6132;
231.0000;0.2548;0.6108;
231.3000;0.2572;0.6132;
231.6000;0.2564;0.6108;
231.9000;0.2540;0.6108;
232.2000;0.2532;0.6108;
232.5000;0.2548;0.6132;
232.8000;0.2532;0.6156;
233.1000;0.2597;0.6302;
233.4000;0.2597;0.6277;
233.7000;0.2540;0.6229;
234.0000;0.2556;0.6205;
234.3000;0.2515;0.6059;
234.6000;0.2540;0.6132;
234.9000;0.2621;0.6326;
235.2000;0.2532;0.6205;
235.5000;0.2572;0.6423;
235.8000;0.2556;0.6302;
236.1000;0.2548;0.6253;
236.4000;0.2556;0.6229;
236.7000;0.2499;0.6084;
237.0000;0.2515;0.6205;
237.3000;0.2540;0.6229;
237.6000;0.2532;0.6156;
237.9000;0.2564;0.6253;
238.2000;0.2548;0.6229;
238.5000;0.2572;0.6277;
238.8000;0.2507;0.6205;
239.1000;0.2556;0.6326;
239.4000;0.2523;0.6229;
239.7000;0.2572;0.6350;
240.0000;0.2515;0.6253;
240.3000;0.2548;0.6253;
240.6000;0.2556;0.6326;
240.9000;0.2548;0.6180;
241.2000;0.2548;0.6253;
241.5000;0.2507;0.6084;
241.8000;0.2548;0.6205;
242.1000;0.2523;0.6156;
242.4000;0.2564;0.6253;
242.7000;0.2564;0.6205;
243.0000;0.2572;0.6229;
243.3000;0.2532;0.6180;
243.6000;0.2548;0.6229;
243.9000;0.2540;0.6180;
244.2000;0.2548;0.6277;
244.5000;0.2523;0.6229;
244.8000;0.2548;0.6229;
245.1000;0.2523;0.6229;
245.4000;0.2523;0.6180;
245.7000;0.2540;0.6253;
246.0000;0.2532;0.6277;
246.3000;0.2540;0.6302;
246.6000;0.2532;0.6253;
246.9000;0.2540;0.6350;
247.2000;0.2540;0.6277;
247.5000;0.2556;0.6277;
247.8000;0.2556;0.6156;
248.1000;0.2548;0.6132;
248.4000;0.2532;0.6180;
248.7000;0.2532;0.6156;
249.0000;0.2532;0.6229;
249.3000;0.2523;0.6156;
249.6000;0.2540;0.6277;
249.9000;0.2556;0.6399;
250.2000;0.2540;0.6350;
250.5000;0.2564;0.6302;
250.8000;0.2572;0.6326;
251.1000;0.2548;0.6277;
251.4000;0.2540;0.6205;
251.7000;0.2515;0.6180;
252.0000;0.2548;0.6156;
252.3000;0.2532;0.6156;
252.6000;0.2523;0.6156;
252.9000;0.2548;0.6229;
253.2000;0.2540;0.6253;
253.5000;0.2556;0.6253;
253.8000;0.2523;0.6059;
254.1000;0.2532;0.6059;
254.4000;0.2548;0.6132;
254.7000;0.2572;0.6277;
255.0000;0.2540;0.6205;
255.3000;0.2540;0.6180;
255.6000;0.2556;0.6180;
255.9000;0.2654;0.6496;
256.2000;0.2572;0.6229;
256.5000;0.2548;0.6229;
256.8000;0.2572;0.6302;
257.1000;0.2589;0.6277;
257.4000;0.2515;0.6108;
257.7000;0.2523;0.6156;
258.0000;0.2523;0.6205;
258.3000;0.2621;0.6423;
258.6000;0.2540;0.6205;
258.9000;0.2597;0.6350;
259.2000;0.2532;0.6108;
259.5000;0.2523;0.6108;
259.8000;0.2548;0.6132;
260.1000;0.2540;0.6180;
260.4000;0.2548;0.6132;
260.7000;0.2548;0.6229;
261.0000;0.2540;0.6156;
261.3000;0.2540;0.6059;
261.6000;0.2532;0.6084;
261.9000;0.2654;0.6471;
262.2000;0.2556;0.6253;
262.5000;0.2523;0.6229;
262.8000;0.2548;0.6229;
263.1000;0.2532;0.6253;
263.4000;0.2532;0.6229;
263.7000;0.2491;0.6132;
264.0000;0.2523;0.6180;
264.3000;0.2515;0.6156;
264.6000;0.2523;0.6132;
264.9000;0.2556;0.6205;
265.2000;0.2556;0.6156;
265.5000;0.2540;0.6132;
265.8000;0.2548;0.6205;
266.1000;0.2597;0.6350;
266.4000;0.2564;0.6326;
266.7000;0.2564;0.6326;
267.0000;0.2540;0.6180;
267.3000;0.2646;0.6423;
267.6000;0.2589;0.6156;
267.9000;0.2515;0.6180;
268.2000;0.2532;0.6302;
268.5000;0.2548;0.6350;
268.8000;0.2548;0.6326;
269.1000;0.2523;0.6229;
269.4000;0.2540;0.6180;
269.7000;0.2556;0.6205;
270.0000;0.2540;0.6229;
270.3000;0.2540;0.6253;
270.6000;0.2532;0.6132;
270.9000;0.2532;0.6108;
271.2000;0.2532;0.6108;
271.5000;0.2540;0.6156;
271.8000;0.2548;0.6180;
272.1000;0.2556;0.6205;
272.4000;0.2548;0.6108;
272.7000;0.2523;0.6108;
273.0000;0.2540;0.6108;
273.3000;0.2532;0.6011;
273.6000;0.2556;0.6035;
273.9000;0.2532;0.5987;
274.2000;0.2548;0.6059;
274.5000;0.2556;0.6035;
274.8000;0.2548;0.6132;
275.1000;0.2540;0.6108;
275.4000;0.2532;0.6156;
275.7000;0.2532;0.6205;
276.0000;0.2532;0.6180;
276.3000;0.2466;0.6035;
276.6000;0.2499;0.6108;
276.9000;0.2556;0.6253;
277.2000;0.2540;0.6229;
277.5000;0.2572;0.6302;
277.8000;0.2532;0.6253;
278.1000;0.2507;0.6180;
278.4000;0.2540;0.6205;
278.7000;0.2540;0.6229;
279.0000;0.2540;0.6229;
279.3000;0.2491;0.6084;
279.6000;0.2515;0.6108;
279.9000;0.2540;0.6205;
280.2000;0.2548;0.6180;
280.5000;0.2532;0.6180;
280.8000;0.2532;0.6277;
281.1000;0.2556;0.6277;
281.4000;0.2564;0.6253;
281.7000;0.2580;0.6302;
282.0000;0.2532;0.6205;
282.3000;0.2548;0.6253;
282.6000;0.2564;0.6277;
282.9000;0.2548;0.6205;
283.2000;0.2540;0.6205;
283.5000;0.2532;0.6156;
283.8000;0.2540;0.6180;
284.1000;0.2532;0.6132;
284.4000;0.2540;0.6011;
284.7000;0.2532;0.5962;
285.0000;0.2532;0.6035;
285.3000;0.2548;0.6108;
285.6000;0.2515;0.6084;
285.9000;0.2572;0.6229;
286.2000;0.2540;0.6132;
286.5000;0.2548;0.6156;
286.8000;0.2548;0.6156;
287.1000;0.2532;0.6156;
287.4000;0.2548;0.6205;
287.7000;0.2540;0.6180;
288.0000;0.2548;0.6229;
288.3000;0.2540;0.6229;
288.6000;0.2523;0.6229;
288.9000;0.2548;0.6253;
289.2000;0.2523;0.6205;
289.5000;0.2523;0.6277;
289.8000;0.2426;0.5914;
290.1000;0.2475;0.6059;
290.4000;0.2548;0.6253;
290.7000;0.2523;0.6229;
291.0000;0.2532;0.6229;
291.3000;0.2540;0.6253;
291.6000;0.2564;0.6253;
291.9000;0.2540;0.6253;
292.2000;0.2532;0.6253;
292.5000;0.2532;0.6253;
292.8000;0.2548;0.6350;
293.1000;0.2556;0.6277;
293.4000;0.2548;0.6205;
293.7000;0.2548;0.6205;
294.0000;0.2540;0.6205;
294.3000;0.2564;0.6253;
294.6000;0.2548;0.6205;
294.9000;0.2540;0.6180;
295.2000;0.2548;0.6156;
295.5000;0.2507;0.5962;
295.8000;0.2556;0.6059;
296.1000;0.2556;0.6035;
296.4000;0.2507;0.5865;
296.7000;0.2540;0.6035;
297.0000;0.2548;0.6132;
297.3000;0.2475;0.6011;
297.6000;0.2540;0.6180;
297.9000;0.2540;0.6132;
298.2000;0.2564;0.6132;
298.5000;0.2515;0.6011;
298.8000;0.2523;0.5962;
299.1000;0.2523;0.5938;
299.4000;0.2426;0.5671;
299.7000;0.2556;0.5962;
300.0000;0.2523;0.5890;
300.3000;0.2564;0.5890;
300.6000;0.2532;0.5865;
300.9000;0.2532;0.5865;
301.2000;0.2532;0.5768;
301.5000;0.2629;0.6011;
301.8000;0.2540;0.5793;
302.1000;0.2540;0.5817;
302.4000;0.2564;0.5962;
302.7000;0.2532;0.5890;
303.0000;0.2532;0.5962;
303.3000;0.2540;0.6011;
303.6000;0.2556;0.5962;
303.9000;0.2532;0.5987;
304.2000;0.2515;0.6035;
304.5000;0.2540;0.6059;
304.8000;0.2499;0.6059;
305.1000;0.2548;0.6253;
305.4000;0.2523;0.6156;
305.7000;0.2548;0.6229;
306.0000;0.2548;0.6132;
306.3000;0.2548;0.6011;
306.6000;0.2540;0.5987;
306.9000;0.2548;0.5938;
307.2000;0.2556;0.6011;
307.5000;0.2556;0.6035;
307.8000;0.2540;0.5962;
308.1000;0.2532;0.5938;
308.4000;0.2572;0.6035;
308.7000;0.2532;0.5938;
309.0000;0.2532;0.6011;
309.3000;0.2523;0.5938;
309.6000;0.2556;0.5987;
309.9000;0.2507;0.5987;
310.2000;0.2540;0.5962;
310.5000;0.2646;0.6326;
310.8000;0.2572;0.6277;
311.1000;0.2532;0.6084;
311.4000;0.2540;0.6132;
311.7000;0.2629;0.6374;
312.0000;0.2540;0.6156;
312.3000;0.2540;0.6084;
312.6000;0.2556;0.6132;
312.9000;0.2556;0.6132;
313.2000;0.2556;0.6132;
313.5000;0.2532;0.6084;
313.8000;0.2613;0.6350;
314.1000;0.2523;0.6180;
314.4000;0.2507;0.6108;
314.7000;0.2523;0.6132;
315.0000;0.2540;0.6205;
315.3000;0.2532;0.6132;
315.6000;0.2523;0.6180;
315.9000;0.2532;0.6205;
316.2000;0.2532;0.6205;
316.5000;0.2523;0.6132;
316.8000;0.2548;0.6108;
317.1000;0.2540;0.6108;
317.4000;0.2540;0.6156;
317.7000;0.2540;0.6156;
318.0000;0.2540;0.6205;
318.3000;0.2572;0.6302;
318.6000;0.2523;0.6229;
318.9000;0.2532;0.6205;
319.2000;0.2540;0.6132;
319.5000;0.2629;0.6374;
319.8000;0.2523;0.6132;
320.1000;0.2556;0.6132;
320.4000;0.2580;0.6229;
320.7000;0.2556;0.6156;
321.0000;0.2548;0.6180;
321.3000;0.2540;0.6132;
321.6000;0.2532;0.6132;
321.9000;0.2532;0.6108;
322.2000;0.2556;0.6108;
322.5000;0.2572;0.6180;
322.8000;0.2548;0.6084;
323.1000;0.2532;0.6084;
323.4000;0.2597;0.6253;
323.7000;0.2548;0.6084;
324.0000;0.2532;0.5987;
324.3000;0.2580;0.6084;
324.6000;0.2523;0.5841;
324.9000;0.2572;0.5987;
325.2000;0.2475;0.5744;
325.5000;0.2540;0.5938;
325.8000;0.2540;0.5962;
326.1000;0.2532;0.5890;
326.4000;0.2670;0.6326;
326.7000;0.2532;0.5962;
327.0000;0.2556;0.5938;
327.3000;0.2580;0.6108;
327.6000;0.2540;0.6084;
327.9000;0.2532;0.6084;
328.2000;0.2426;0.5865;
328.5000;0.2532;0.6229;
328.8000;0.2532;0.6156;
329.1000;0.2523;0.6108;
329.4000;0.2532;0.6132;
329.7000;0.2515;0.6108;
330.0000;0.2540;0.6229;
330.3000;0.2523;0.6205;
330.6000;0.2540;0.6180;
330.9000;0.2515;0.6059;
331.2000;0.2450;0.5817;
331.5000;0.2540;0.6084;
331.8000;0.2540;0.6205;
332.1000;0.2532;0.6156;
332.4000;0.2548;0.6180;
332.7000;0.2523;0.6156;
333.0000;0.2515;0.6035;
333.3000;0.2548;0.6156;
333.6000;0.2556;0.6108;
333.9000;0.2483;0.5962;
334.2000;0.2532;0.6035;
334.5000;0.2548;0.6084;
334.8000;0.2466;0.5987;
335.1000;0.2532;0.6132;
335.4000;0.2532;0.6059;
335.7000;0.2515;0.6011;
336.0000;0.2475;0.5914;
336.3000;0.2507;0.5987;
336.6000;0.2523;0.5938;
336.9000;0.2483;0.5744;
337.2000;0.2515;0.5865;
337.5000;0.2523;0.5890;
337.8000;0.2532;0.5938;
338.1000;0.2523;0.5914;
338.4000;0.2532;0.5865;
338.7000;0.2548;0.6035;
339.0000;0.2491;0.5914;
339.3000;0.2540;0.6035;
339.6000;0.2540;0.6011;
339.9000;0.2540;0.6059;
340.2000;0.2564;0.6132;
340.5000;0.2532;0.6132;
340.8000;0.2548;0.6277;
341.1000;0.2540;0.6277;
341.4000;0.2532;0.6229;
341.7000;0.2548;0.6302;
342.0000;0.2540;0.6350;
342.3000;0.2515;0.6253;
342.6000;0.2540;0.6277;
342.9000;0.2548;0.6229;
343.2000;0.2564;0.6229;
343.5000;0.2548;0.6229;
343.8000;0.2548;0.6253;
344.1000;0.2556;0.6277;
344.4000;0.2540;0.6180;
344.7000;0.2540;0.6205;
345.0000;0.2564;0.6277;
345.3000;0.2564;0.6399;
345.6000;0.2580;0.6423;
345.9000;0.2540;0.6277;
346.2000;0.2491;0.6229;
346.5000;0.2523;0.6350;
346.8000;0.2450;0.6156;
347.1000;0.2532;0.6374;
347.4000;0.2523;0.6326;
347.7000;0.2621;0.6593;
348.0000;0.2532;0.6399;
348.3000;0.2540;0.6399;
348.6000;0.2507;0.6229;
348.9000;0.2597;0.6471;
349.2000;0.2556;0.6374;
349.5000;0.2548;0.6229;
349.8000;0.2540;0.6156;
350.1000;0.2540;0.6108;
350.4000;0.2483;0.5962;
350.7000;0.2483;0.5938;
351.0000;0.2540;0.6156;
351.3000;0.2532;0.6132;
351.6000;0.2548;0.6205;
351.9000;0.2548;0.6350;
352.2000;0.2532;0.6374;
352.5000;0.2532;0.6277;
352.8000;0.2540;0.6253;
353.1000;0.2540;0.6277;
353.4000;0.2540;0.6229;
353.7000;0.2523;0.6180;
354.0000;0.2540;0.6156;
354.3000;0.2523;0.6108;
354.6000;0.2532;0.6205;
354.9000;0.2523;0.6326;
355.2000;0.2548;0.6326;
355.5000;0.2515;0.6253;
355.8000;0.2540;0.6253;
356.1000;0.2523;0.6229;
356.4000;0.2523;0.6205;
356.7000;0.2540;0.6277;
357.0000;0.2515;0.6108;
357.3000;0.2605;0.6350;
357.6000;0.2564;0.6277;
357.9000;0.2548;0.6302;
358.2000;0.2540;0.6277;
358.5000;0.2556;0.6326;
358.8000;0.2532;0.6229;
359.1000;0.2548;0.6350;
359.4000;0.2532;0.6447;
359.7000;0.2572;0.6471;
360.0000;0.2523;0.6399;
360.3000;0.2532;0.6277;
360.6000;0.2515;0.6180;
360.9000;0.2515;0.6132;
361.2000;0.2532;0.6132;
361.5000;0.2532;0.6180;
361.8000;0.2548;0.6205;
362.1000;0.2532;0.6277;
362.4000;0.2540;0.6350;
362.7000;0.2540;0.6326;
363.0000;0.2515;0.6229;
363.3000;0.2548;0.6229;
363.6000;0.2523;0.6229;
363.9000;0.2540;0.6180;
364.2000;0.2540;0.6180;
364.5000;0.2540;0.6156;
364.8000;0.2523;0.6108;
365.1000;0.2523;0.6108;
365.4000;0.2540;0.6180;
365.7000;0.2540;0.6156;
366.0000;0.2572;0.6277;
366.3000;0.2532;0.6253;
366.6000;0.2523;0.6350;
366.9000;0.2548;0.6326;
367.2000;0.2515;0.6350;
367.5000;0.2523;0.6374;
367.8000;0.2548;0.6423;
368.1000;0.2523;0.6374;
368.4000;0.2540;0.6350;
368.7000;0.2540;0.6277;
369.0000;0.2548;0.6229;
369.3000;0.2564;0.6229;
369.6000;0.2548;0.6156;
369.9000;0.2540;0.6108;
370.2000;0.2523;0.6108;
370.5000;0.2523;0.6059;
370.8000;0.2507;0.6011;
371.1000;0.2540;0.6059;
371.4000;0.2523;0.6084;
371.7000;0.2621;0.6399;
372.0000;0.2540;0.6180;
372.3000;0.2466;0.6011;
372.6000;0.2580;0.6423;
372.9000;0.2597;0.6544;
373.2000;0.2540;0.6350;
373.5000;0.2548;0.6277;
373.8000;0.2548;0.6277;
374.1000;0.2580;0.6326;
374.4000;0.2532;0.6253;
374.7000;0.2507;0.6156;
375.0000;0.2532;0.6132;
375.3000;0.2532;0.6180;
375.6000;0.2532;0.6205;
375.9000;0.2532;0.6084;
376.2000;0.2523;0.6035;
376.5000;0.2515;0.6084;
376.8000;0.2548;0.6180;
377.1000;0.2556;0.6229;
377.4000;0.2532;0.6156;
377.7000;0.2540;0.6059;
378.0000;0.2532;0.6011;
378.3000;0.2540;0.6084;
378.6000;0.2523;0.6180;
378.9000;0.2548;0.6302;
379.2000;0.2548;0.6350;
379.5000;0.2515;0.6229;
379.8000;0.2548;0.6229;
380.1000;0.2556;0.6156;
380.4000;0.2532;0.6108;
380.7000;0.2523;0.6108;
381.0000;0.2532;0.6035;
381.3000;0.2532;0.5962;
381.6000;0.2564;0.6059;
381.9000;0.2475;0.5865;
382.2000;0.2532;0.6084;
382.5000;0.2540;0.6180;
382.8000;0.2523;0.6132;
383.1000;0.2532;0.6084;
383.4000;0.2540;0.6132;
383.7000;0.2548;0.6132;
384.0000;0.2532;0.6084;
384.3000;0.2629;0.6471;
384.6000;0.2548;0.6180;
384.9000;0.2515;0.6084;
385.2000;0.2548;0.6229;
385.5000;0.2466;0.6084;
385.8000;0.2523;0.6229;
386.1000;0.2523;0.6253;
386.4000;0.2523;0.6229;
386.7000;0.2523;0.6277;
387.0000;0.2532;0.6374;
387.3000;0.2523;0.6277;
387.6000;0.2532;0.6180;
387.9000;0.2507;0.6132;
388.2000;0.2507;0.6132;
388.5000;0.2548;0.6229;
388.8000;0.2532;0.6253;
389.1000;0.2540;0.6229;
389.4000;0.2532;0.6180;
389.7000;0.2540;0.6108;
390.0000;0.2548;0.6156;
390.3000;0.2523;0.6035;
390.6000;0.2532;0.5938;
390.9000;0.2475;0.5890;
391.2000;0.2540;0.6035;
391.5000;0.2580;0.6180;
391.8000;0.2540;0.5987;
392.1000;0.2532;0.5962;
392.4000;0.2532;0.5890;
392.7000;0.2434;0.5671;
393.0000;0.2572;0.6059;
393.3000;0.2515;0.5987;
393.6000;0.2523;0.6059;
393.9000;0.2515;0.6011;
394.2000;0.2532;0.5890;
394.5000;0.2540;0.6011;
394.8000;0.2540;0.6059;
395.1000;0.2491;0.5962;
395.4000;0.2458;0.5841;
395.7000;0.2466;0.5938;
396.0000;0.2556;0.6180;
396.3000;0.2548;0.6156;
396.6000;0.2515;0.6035;
396.9000;0.2572;0.6205;
397.2000;0.2548;0.6108;
397.5000;0.2540;0.6084;
397.8000;0.2523;0.6059;
398.1000;0.2548;0.6229;
398.4000;0.2523;0.6205;
398.7000;0.2523;0.6180;
399.0000;0.2540;0.6156;
399.3000;0.2548;0.6205;
399.6000;0.2532;0.6132;
399.9000;0.2507;0.6084;
400.2000;0.2556;0.6156;
400.5000;0.2532;0.6180;
400.8000;0.2532;0.6205;
401.1000;0.2523;0.6229;
401.4000;0.2540;0.6302;
401.7000;0.2523;0.6229;
402.0000;0.2523;0.6205;
402.3000;0.2532;0.6132;
402.6000;0.2556;0.6132;
402.9000;0.2540;0.6132;
403.2000;0.2532;0.6156;
403.5000;0.2475;0.6084;
403.8000;0.2556;0.6229;
404.1000;0.2532;0.6205;
404.4000;0.2556;0.6374;
404.7000;0.2548;0.6374;
405.0000;0.2523;0.6229;
405.3000;0.2548;0.6205;
405.6000;0.2540;0.6180;
405.9000;0.2523;0.6108;
406.2000;0.2548;0.6156;
406.5000;0.2629;0.6374;
406.8000;0.2532;0.6180;
407.1000;0.2523;0.6084;
407.4000;0.2507;0.5987;
407.7000;0.2523;0.5987;
408.0000;0.2532;0.6011;
408.3000;0.2532;0.6035;
408.6000;0.2515;0.6011;
408.9000;0.2548;0.6156;
409.2000;0.2515;0.6108;
409.5000;0.2515;0.6205;
409.8000;0.2515;0.6132;
410.1000;0.2483;0.6035;
410.4000;0.2605;0.6350;
410.7000;0.2523;0.6132;
411.0000;0.2532;0.6205;
411.3000;0.2532;0.6205;
411.6000;0.2532;0.6205;
411.9000;0.2532;0.6084;
412.2000;0.2540;0.6180;
412.5000;0.2540;0.6229;
412.8000;0.2556;0.6229;
413.1000;0.2548;0.6180;
413.4000;0.2507;0.6084;
413.7000;0.2540;0.6108;
414.0000;0.2548;0.6084;
414.3000;0.2532;0.6011;
414.6000;0.2515;0.5914;
414.9000;0.2548;0.5938;
415.2000;0.2548;0.5962;
415.5000;0.2564;0.6059;
415.8000;0.2556;0.6035;
416.1000;0.2548;0.6035;
416.4000;0.2409;0.5623;
416.7000;0.2532;0.5865;
417.0000;0.2515;0.5890;
417.3000;0.2418;0.5623;
417.6000;0.2475;0.5768;
417.9000;0.2540;0.5938;
418.2000;0.2548;0.5938;
418.5000;0.2532;0.5938;
418.8000;0.2523;0.5962;
419.1000;0.2540;0.6011;
419.4000;0.2556;0.6084;
419.7000;0.2540;0.6108;
420.0000;0.2523;0.6084;
420.3000;0.2532;0.6084;
420.6000;0.2532;0.5987;
420.9000;0.2637;0.6253;
421.2000;0.2499;0.5938;
421.5000;0.2523;0.6035;
421.8000;0.2548;0.6156;
422.1000;0.2532;0.6108;
422.4000;0.2515;0.6059;
422.7000;0.2532;0.6132;
423.0000;0.2540;0.6084;
423.3000;0.2507;0.6035;
423.6000;0.2532;0.6084;
423.9000;0.2515;0.6059;
424.2000;0.2548;0.6084;
424.5000;0.2556;0.6132;
424.8000;0.2548;0.6132;
425.1000;0.2532;0.6180;
425.4000;0.2532;0.6253;
425.7000;0.2556;0.6302;
426.0000;0.2540;0.6253;
426.3000;0.2556;0.6205;
426.6000;0.2515;0.5987;
426.9000;0.2540;0.6059;
427.2000;0.2556;0.6108;
427.5000;0.2483;0.5914;
427.8000;0.2515;0.6059;
428.1000;0.2540;0.6132;
428.4000;0.2540;0.6229;
428.7000;0.2450;0.5962;
429.0000;0.2532;0.6108;
429.3000;0.2515;0.6084;
429.6000;0.2564;0.6108;
429.9000;0.2532;0.5962;
430.2000;0.2540;0.5914;
430.5000;0.2548;0.5938;
430.8000;0.2540;0.5890;
431.1000;0.2540;0.5938;
431.4000;0.2532;0.5938;
431.7000;0.2523;0.5938;
432.0000;0.2532;0.5938;
432.3000;0.2532;0.5890;
432.6000;0.2532;0.5865;
432.9000;0.2564;0.5987;
433.2000;0.2523;0.5865;
433.5000;0.2532;0.5865;
433.8000;0.2532;0.5890;
434.1000;0.2532;0.5817;
434.4000;0.2556;0.5793;
434.7000;0.2556;0.5768;
435.0000;0.2523;0.5744;
435.3000;0.2548;0.5768;
435.6000;0.2564;0.5890;
435.9000;0.2548;0.5865;
436.2000;0.2523;0.5841;
436.5000;0.2499;0.5817;
436.8000;0.2548;0.5962;
437.1000;0.2540;0.6011;
437.4000;0.2548;0.5987;
437.7000;0.2499;0.5865;
438.0000;0.2540;0.5962;
438.3000;0.2548;0.5962;
438.6000;0.2548;0.6011;
438.9000;0.2532;0.5987;
439.2000;0.2515;0.5962;
439.5000;0.2523;0.5914;
439.8000;0.2597;0.6059;
440.1000;0.2532;0.5938;
440.4000;0.2556;0.5987;
440.7000;0.2523;0.5914;
441.0000;0.2540;0.5938;
441.3000;0.2507;0.5865;
441.6000;0.2540;0.5841;
441.9000;0.2499;0.5744;
442.2000;0.2491;0.5793;
442.5000;0.2499;0.5841;
442.8000;0.2605;0.6156;
443.1000;0.2523;0.5914;
443.4000;0.2532;0.5962;
443.7000;0.2499;0.5914;
444.0000;0.2532;0.6035;
444.3000;0.2523;0.6035;
444.6000;0.2515;0.6035;
444.9000;0.2409;0.5768;
445.2000;0.2523;0.6084;
445.5000;0.2532;0.6059;
445.8000;0.2556;0.6108;
446.1000;0.2548;0.6084;
446.4000;0.2548;0.6108;
446.7000;0.2515;0.6035;
447.0000;0.2540;0.6059;
447.3000;0.2515;0.6132;
447.6000;0.2532;0.6156;
447.9000;0.2523;0.6156;
448.2000;0.2540;0.6156;
448.5000;0.2532;0.6205;
448.8000;0.2515;0.6180;
449.1000;0.2523;0.6059;
449.4000;0.2523;0.6035;
449.7000;0.2532;0.6108;
450.0000;0.2523;0.6132;
450.3000;0.2515;0.6180;
450.6000;0.2523;0.6205;
450.9000;0.2548;0.6302;
451.2000;0.2458;0.6035;
451.5000;0.2540;0.6374;
451.8000;0.2483;0.6132;
452.1000;0.2523;0.6229;
452.4000;0.2523;0.6229;
452.7000;0.2540;0.6326;
453.0000;0.2540;0.6253;
453.3000;0.2507;0.6156;
453.6000;0.2532;0.6229;
453.9000;0.2532;0.6229;
454.2000;0.2523;0.6156;
454.5000;0.2572;0.6350;
454.8000;0.2532;0.6229;
455.1000;0.2523;0.6205;
455.4000;0.2548;0.6277;
455.7000;0.2532;0.6205;
456.0000;0.2532;0.6108;
456.3000;0.2523;0.6084;
456.6000;0.2540;0.6132;
456.9000;0.2523;0.6084;
457.2000;0.2515;0.6059;
457.5000;0.2515;0.6059;
457.8000;0.2466;0.5914;
458.1000;0.2523;0.5962;
458.4000;0.2515;0.5914;
458.7000;0.2515;0.5938;
459.0000;0.2540;0.5938;
459.3000;0.2523;0.5841;
459.6000;0.2515;0.5793;
459.9000;0.2507;0.5720;
460.2000;0.2540;0.5817;
460.5000;0.2540;0.5817;
460.8000;0.2540;0.5817;
461.1000;0.2523;0.5865;
461.4000;0.2523;0.5890;
461.7000;0.2662;0.6374;
462.0000;0.2646;0.6447;
462.3000;0.2515;0.6084;
462.6000;0.2475;0.5962;
462.9000;0.2540;0.6229;
463.2000;0.2532;0.6205;
463.5000;0.2515;0.6132;
463.8000;0.2580;0.6229;
464.1000;0.2540;0.6180;
464.4000;0.2548;0.6253;
464.7000;0.2548;0.6205;
465.0000;0.2532;0.6132;
465.3000;0.2532;0.6180;
465.6000;0.2523;0.6253;
465.9000;0.2532;0.6253;
466.2000;0.2540;0.6132;
466.5000;0.2540;0.6084;
466.8000;0.2426;0.5890;
467.1000;0.2532;0.6180;
467.4000;0.2483;0.6011;
467.7000;0.2540;0.6180;
468.0000;0.2507;0.6059;
468.3000;0.2523;0.6132;
468.6000;0.2523;0.6059;
468.9000;0.2556;0.6108;
469.2000;0.2523;0.5987;
469.5000;0.2523;0.6059;
469.8000;0.2507;0.6059;
470.1000;0.2523;0.6156;
470.4000;0.2540;0.6132;
470.7000;0.2532;0.6205;
471.0000;0.2613;0.6447;
471.3000;0.2540;0.6205;
471.6000;0.2548;0.6229;
471.9000;0.2556;0.6156;
472.2000;0.2548;0.6156;
472.5000;0.2532;0.6132;
472.8000;0.2548;0.6180;
473.1000;0.2629;0.6326;
473.4000;0.2548;0.6156;
473.7000;0.2532;0.6180;
474.0000;0.2597;0.6326;
474.3000;0.2523;0.6108;
474.6000;0.2532;0.6156;
474.9000;0.2515;0.6156;
475.2000;0.2515;0.6205;
475.5000;0.2523;0.6277;
475.8000;0.2540;0.6326;
476.1000;0.2548;0.6350;
476.4000;0.2556;0.6374;
476.7000;0.2532;0.6229;
477.0000;0.2540;0.6229;
477.3000;0.2540;0.6277;
477.6000;0.2580;0.6399;
477.9000;0.2532;0.6302;
478.2000;0.2532;0.6302;
478.5000;0.2515;0.6229;
478.8000;0.2515;0.6205;
479.1000;0.2499;0.6180;
479.4000;0.2532;0.6229;
479.7000;0.2532;0.6229;
480.0000;0.2515;0.6229;
480.3000;0.2499;0.6132;
480.6000;0.2532;0.6253;
480.9000;0.2540;0.6205;
481.2000;0.2572;0.6374;
481.5000;0.2523;0.6302;
481.8000;0.2523;0.6350;
482.1000;0.2532;0.6374;
482.4000;0.2548;0.6423;
482.7000;0.2548;0.6399;
483.0000;0.2523;0.6326;
483.3000;0.2540;0.6374;
483.6000;0.2556;0.6399;
483.9000;0.2532;0.6253;
484.2000;0.2491;0.6156;
484.5000;0.2532;0.6253;
484.8000;0.2532;0.6205;
485.1000;0.2523;0.6156;
485.4000;0.2523;0.6253;
485.7000;0.2507;0.6229;
486.0000;0.2540;0.6253;
486.3000;0.2491;0.6132;
486.6000;0.2532;0.6277;
486.9000;0.2532;0.6277;
487.2000;0.2548;0.6326;
487.5000;0.2523;0.6253;
487.8000;0.2515;0.6180;
488.1000;0.2523;0.6180;
488.4000;0.2523;0.6132;
488.7000;0.2556;0.6205;
489.0000;0.2540;0.6132;
489.3000;0.2523;0.6132;
489.6000;0.2540;0.6156;
489.9000;0.2434;0.5890;
490.2000;0.2540;0.6180;
490.5000;0.2523;0.6059;
490.8000;0.2491;0.5938;
491.1000;0.2532;0.6035;
491.4000;0.2548;0.5987;
491.7000;0.2523;0.5962;
492.0000;0.2548;0.6035;
492.3000;0.2540;0.6108;
492.6000;0.2532;0.6059;
492.9000;0.2548;0.6156;
493.2000;0.2589;0.6253;
493.5000;0.2523;0.6132;
493.8000;0.2523;0.6059;
494.1000;0.2515;0.6011;
494.4000;0.2515;0.5962;
494.7000;0.2540;0.6011;
495.0000;0.2540;0.5962;
495.3000;0.2532;0.5987;
495.6000;0.2540;0.6035;
495.9000;0.2532;0.6108;
496.2000;0.2515;0.6156;
496.5000;0.2540;0.6205;
496.8000;0.2532;0.6229;
497.1000;0.2580;0.6350;
497.4000;0.2548;0.6229;
497.7000;0.2515;0.6229;
498.0000;0.2540;0.6253;
498.3000;0.2532;0.6205;
498.6000;0.2540;0.6156;
498.9000;0.2458;0.5987;
499.2000;0.2548;0.6205;
499.5000;0.2564;0.6205;
499.8000;0.2532;0.6059;
500.1000;0.2523;0.6035;
500.4000;0.2499;0.5890;
500.7000;0.2540;0.6084;
501.0000;0.2646;0.6399;
501.3000;0.2532;0.6059;
501.6000;0.2540;0.5987;
501.9000;0.2507;0.6084;
502.2000;0.2515;0.6059;
502.5000;0.2548;0.6108;
502.8000;0.2605;0.6302;
503.1000;0.2532;0.6132;
503.4000;0.2515;0.6156;
503.7000;0.2540;0.6253;
504.0000;0.2418;0.5865;
504.3000;0.2540;0.6180;
504.6000;0.2523;0.6205;
504.9000;0.2540;0.6205;
505.2000;0.2466;0.6084;
505.5000;0.2532;0.6253;
505.8000;0.2523;0.6205;
506.1000;0.2548;0.6277;
506.4000;0.2483;0.6108;
506.7000;0.2507;0.6180;
507.0000;0.2540;0.6277;
507.3000;0.2434;0.5962;
507.6000;0.2532;0.6326;
507.9000;0.2548;0.6350;
508.2000;0.2491;0.6156;
508.5000;0.2572;0.6326;
508.8000;0.2532;0.6229;
509.1000;0.2548;0.6253;
509.4000;0.2523;0.6253;
509.7000;0.2532;0.6302;
510.0000;0.2540;0.6350;
510.3000;0.2515;0.6205;
510.6000;0.2532;0.6229;
510.9000;0.2515;0.6302;
511.2000;0.2532;0.6374;
511.5000;0.2548;0.6326;
511.8000;0.2523;0.6229;
512.1000;0.2556;0.6277;
512.4000;0.2548;0.6253;
512.7000;0.2540;0.6229;
513.0000;0.2491;0.6035;
513.3000;0.2532;0.6229;
513.6000;0.2540;0.6302;
513.9000;0.2564;0.6302;
514.2000;0.2475;0.5987;
514.5000;0.2515;0.6108;
514.8000;0.2532;0.6132;
515.1000;0.2548;0.6180;
515.4000;0.2548;0.6205;
515.7000;0.2507;0.6084;
516.0000;0.2532;0.6108;
516.3000;0.2515;0.6108;
516.6000;0.2507;0.6108;
516.9000;0.2523;0.6180;
517.2000;0.2515;0.6253;
517.5000;0.2540;0.6399;
517.8000;0.2532;0.6399;
518.1000;0.2548;0.6374;
518.4000;0.2532;0.6253;
518.7000;0.2540;0.6253;
519.0000;0.2523;0.6205;
519.3000;0.2564;0.6205;
519.6000;0.2523;0.6132;
519.9000;0.2515;0.6205;
520.2000;0.2532;0.6253;
520.5000;0.2499;0.6132;
520.8000;0.2523;0.6180;
521.1000;0.2532;0.6132;
521.4000;0.2523;0.6084;
521.7000;0.2507;0.6156;
522.0000;0.2523;0.6205;
522.3000;0.2548;0.6253;
522.6000;0.2523;0.6253;
522.9000;0.2515;0.6277;
523.2000;0.2523;0.6326;
523.5000;0.2523;0.6253;
523.8000;0.2523;0.6205;
524.1000;0.2523;0.6132;
524.4000;0.2523;0.6084;
524.7000;0.2564;0.5987;
525.0000;0.2548;0.6011;
525.3000;0.2540;0.5962;
525.6000;0.2532;0.6011;
525.9000;0.2532;0.6084;
526.2000;0.2515;0.6059;
526.5000;0.2532;0.6059;
526.8000;0.2507;0.5938;
527.1000;0.2515;0.5938;
527.4000;0.2532;0.5987;
527.7000;0.2540;0.6084;
528.0000;0.2515;0.6011;
528.3000;0.2540;0.6011;
528.6000;0.2532;0.5987;
528.9000;0.2548;0.5987;
529.2000;0.2556;0.6108;
529.5000;0.2540;0.6108;
529.8000;0.2540;0.6059;
530.1000;0.2532;0.6035;
530.4000;0.2548;0.6059;
530.7000;0.2548;0.6059;
531.0000;0.2458;0.5865;
531.3000;0.2572;0.6180;
531.6000;0.2532;0.6084;
531.9000;0.2540;0.6132;
532.2000;0.2597;0.6277;
532.5000;0.2540;0.6132;
532.8000;0.2475;0.6011;
533.1000;0.2548;0.6156;
533.4000;0.2540;0.6156;
533.7000;0.2515;0.6205;
534.0000;0.2532;0.6156;
534.3000;0.2589;0.6180;
534.6000;0.2540;0.6011;
534.9000;0.2523;0.6059;
535.2000;0.2523;0.6059;
535.5000;0.2507;0.5987;
535.8000;0.2523;0.6035;
536.1000;0.2523;0.6059;
536.4000;0.2515;0.5962;
536.7000;0.2523;0.6059;
537.0000;0.2507;0.6035;
537.3000;0.2532;0.6035;
537.6000;0.2532;0.6059;
537.9000;0.2515;0.6108;
538.2000;0.2532;0.6180;
538.5000;0.2515;0.6205;
538.8000;0.2540;0.6205;
539.1000;0.2540;0.6108;
539.4000;0.2613;0.6302;
539.7000;0.2532;0.6035;
540.0000;0.2515;0.6059;
540.3000;0.2515;0.6059;
540.6000;0.2532;0.6059;
540.9000;0.2523;0.6059;
541.2000;0.2507;0.6059;
541.5000;0.2515;0.6084;
541.8000;0.2532;0.6084;
542.1000;0.2523;0.6108;
542.4000;0.2507;0.6059;
542.7000;0.2523;0.6132;
543.0000;0.2532;0.6108;
543.3000;0.2540;0.6132;
543.6000;0.2515;0.6084;
543.9000;0.2523;0.6059;
544.2000;0.2540;0.6108;
544.5000;0.2540;0.6132;
544.8000;0.2548;0.6132;
545.1000;0.2515;0.6059;
545.4000;0.2523;0.6156;
545.7000;0.2548;0.6277;
546.0000;0.2540;0.6277;
546.3000;0.2540;0.6302;
546.6000;0.2523;0.6205;
546.9000;0.2523;0.6229;
547.2000;0.2548;0.6277;
547.5000;0.2540;0.6253;
547.8000;0.2523;0.6156;
548.1000;0.2548;0.6156;
548.4000;0.2523;0.6156;
548.7000;0.2532;0.6108;
549.0000;0.2515;0.6084;
549.3000;0.2523;0.6059;
549.6000;0.2532;0.6084;
549.9000;0.2515;0.5962;
550.2000;0.2515;0.5987;
550.5000;0.2515;0.6059;
550.8000;0.2532;0.6253;
551.1000;0.2532;0.6253;
551.4000;0.2507;0.6277;
551.7000;0.2507;0.6302;
552.0000;0.2532;0.6302;
552.3000;0.2548;0.6253;
552.6000;0.2532;0.6180;
552.9000;0.2540;0.6229;
553.2000;0.2491;0.6132;
553.5000;0.2548;0.6253;
553.8000;0.2523;0.6108;
554.1000;0.2540;0.6108;
554.4000;0.2548;0.6156;
554.7000;0.2548;0.6205;
555.0000;0.2548;0.6253;
555.3000;0.2515;0.6180;
555.6000;0.2605;0.6593;
555.9000;0.2523;0.6302;
556.2000;0.2523;0.6277;
556.5000;0.2540;0.6180;
556.8000;0.2523;0.6180;
557.1000;0.2523;0.6108;
557.4000;0.2515;0.6180;
557.7000;0.2540;0.6229;
558.0000;0.2523;0.6205;
558.3000;0.2515;0.6180;
558.6000;0.2532;0.6180;
558.9000;0.2532;0.6156;
559.2000;0.2532;0.6180;
559.5000;0.2532;0.6205;
559.8000;0.2499;0.6108;
560.1000;0.2515;0.6108;
560.4000;0.2434;0.5914;
560.7000;0.2426;0.5962;
561.0000;0.2515;0.6180;
561.3000;0.2556;0.6302;
561.6000;0.2523;0.6132;
561.9000;0.2458;0.6011;
562.2000;0.2515;0.6084;
562.5000;0.2523;0.5987;
562.8000;0.2629;0.6205;
563.1000;0.2507;0.5841;
563.4000;0.2548;0.6108;
563.7000;0.2523;0.6108;
564.0000;0.2499;0.6059;
564.3000;0.2532;0.6132;
564.6000;0.2532;0.6205;
564.9000;0.2556;0.6180;
565.2000;0.2548;0.6132;
565.5000;0.2548;0.6229;
565.8000;0.2515;0.6180;
566.1000;0.2540;0.6156;
566.4000;0.2515;0.6084;
566.7000;0.2515;0.5962;
567.0000;0.2523;0.5987;
567.3000;0.2499;0.5938;
567.6000;0.2515;0.6011;
567.9000;0.2491;0.5962;
568.2000;0.2515;0.6011;
568.5000;0.2515;0.6011;
568.8000;0.2532;0.6059;
569.1000;0.2589;0.6180;
569.4000;0.2540;0.6108;
569.7000;0.2556;0.6205;
570.0000;0.2540;0.6132;
570.3000;0.2532;0.6084;
570.6000;0.2532;0.6059;
570.9000;0.2523;0.6035;
571.2000;0.2515;0.6011;
571.5000;0.2548;0.6084;
571.8000;0.2507;0.6059;
572.1000;0.2515;0.6108;
572.4000;0.2523;0.6108;
572.7000;0.2532;0.6132;
573.0000;0.2532;0.6229;
573.3000;0.2507;0.6156;
573.6000;0.2532;0.6205;
573.9000;0.2499;0.6132;
574.2000;0.2507;0.6156;
574.5000;0.2532;0.6180;
574.8000;0.2523;0.6108;
575.1000;0.2515;0.6132;
575.4000;0.2540;0.6180;
575.7000;0.2532;0.6059;
576.0000;0.2523;0.5987;
576.3000;0.2483;0.5890;
576.6000;0.2548;0.6132;
576.9000;0.2540;0.6108;
577.2000;0.2572;0.6253;
577.5000;0.2523;0.6156;
577.8000;0.2556;0.6180;
578.1000;0.2466;0.5962;
578.4000;0.2523;0.6011;
578.7000;0.2548;0.6108;
579.0000;0.2540;0.6132;
579.3000;0.2556;0.6253;
579.6000;0.2491;0.6011;
579.9000;0.2532;0.6108;
580.2000;0.2556;0.6205;
580.5000;0.2556;0.6084;
580.8000;0.2507;0.5938;
581.1000;0.2532;0.6011;
581.4000;0.2564;0.6108;
581.7000;0.2556;0.6156;
582.0000;0.2548;0.6180;
582.3000;0.2523;0.6229;
582.6000;0.2507;0.6302;
582.9000;0.2507;0.6374;
583.2000;0.2564;0.6544;
583.5000;0.2523;0.6326;
583.8000;0.2499;0.6277;
584.1000;0.2507;0.6302;
584.4000;0.2540;0.6253;
584.7000;0.2532;0.6277;
585.0000;0.2483;0.6084;
585.3000;0.2540;0.6277;
585.6000;0.2515;0.6205;
585.9000;0.2523;0.6253;
586.2000;0.2515;0.6253;
586.5000;0.2515;0.6229;
586.8000;0.2523;0.6277;
587.1000;0.2483;0.6132;
587.4000;0.2515;0.6253;
587.7000;0.2515;0.6229;
588.0000;0.2523;0.6253;
588.3000;0.2507;0.6205;
588.6000;0.2507;0.6326;
588.9000;0.2515;0.6350;
589.2000;0.2540;0.6350;
589.5000;0.2523;0.6205;
589.8000;0.2499;0.6084;
590.1000;0.2515;0.6108;
590.4000;0.2532;0.6108;
590.7000;0.2466;0.5914;
591.0000;0.2523;0.6059;
591.3000;0.2523;0.6059;
591.6000;0.2532;0.6084;
591.9000;0.2523;0.6108;
592.2000;0.2515;0.6035;
592.5000;0.2499;0.5962;
592.8000;0.2540;0.6035;
593.1000;0.2523;0.5914;
593.4000;0.2515;0.5890;
593.7000;0.2507;0.5890;
594.0000;0.2532;0.5962;
594.3000;0.2532;0.5962;
594.6000;0.2556;0.6035;
594.9000;0.2515;0.5914;
595.2000;0.2532;0.5987;
595.5000;0.2532;0.6011;
595.8000;0.2523;0.6035;
596.1000;0.2523;0.6011;
596.4000;0.2532;0.6035;
596.7000;0.2540;0.6084;
597.0000;0.2532;0.6035;
597.3000;0.2507;0.5987;
597.6000;0.2507;0.5938;
597.9000;0.2515;0.6084;
598.2000;0.2540;0.6205;
598.5000;0.2515;0.6108;
598.8000;0.2515;0.5987;
599.1000;0.2507;0.5914;
599.4000;0.2548;0.5962;
599.7000;0.2523;0.5890;
600.0000;0.2475;0.5671;
600.3000;0.2507;0.5671;
600.6000;0.2540;0.5671;
600.9000;0.2523;0.5599;
601.2000;0.2515;0.5502;
601.5000;0.2499;0.5332;
601.8000;0.2499;0.5211;
602.1000;0.2499;0.5090;
602.4000;0.2491;0.4944;
602.7000;0.2475;0.4678;
603.0000;0.2483;0.4605;
603.3000;0.2458;0.4484;
603.6000;0.2499;0.4557;
603.9000;0.2483;0.4338;
604.2000;0.2483;0.4314;
604.5000;0.2483;0.4266;
604.8000;0.2466;0.4266;
605.1000;0.2466;0.4193;
605.4000;0.2458;0.4120;
605.7000;0.2418;0.4072;
606.0000;0.2475;0.4120;
606.3000;0.2458;0.4023;
606.6000;0.2450;0.3951;
606.9000;0.2458;0.3975;
607.2000;0.2434;0.3975;
607.5000;0.2450;0.3975;
607.8000;0.2442;0.3951;
608.1000;0.2426;0.3878;
608.4000;0.2409;0.3878;
608.7000;0.2458;0.3854;
609.0000;0.2434;0.3854;
609.3000;0.2466;0.3975;
609.6000;0.2466;0.3999;
609.9000;0.2491;0.3999;
610.2000;0.2450;0.3781;
610.5000;0.2434;0.3781;
610.8000;0.2450;0.3684;
611.1000;0.2434;0.3684;
611.4000;0.2442;0.3733;
611.7000;0.2442;0.3708;
612.0000;0.2458;0.3733;
612.3000;0.2434;0.3636;
612.6000;0.2434;0.3636;
612.9000;0.2442;0.3708;
613.2000;0.2434;0.3733;
613.5000;0.2434;0.3757;
613.8000;0.2515;0.3926;
614.1000;0.2450;0.3708;
614.4000;0.2434;0.3660;
614.7000;0.2450;0.3636;
615.0000;0.2450;0.3587;
615.3000;0.2434;0.3514;
615.6000;0.2556;0.3902;
615.9000;0.2418;0.3490;
616.2000;0.2434;0.3563;
616.5000;0.2442;0.3539;
616.8000;0.2409;0.3369;
617.1000;0.2418;0.3345;
617.4000;0.2450;0.3345;
617.7000;0.2418;0.3320;
618.0000;0.2434;0.3320;
618.3000;0.2442;0.3393;
618.6000;0.2426;0.3442;
618.9000;0.2426;0.3442;
619.2000;0.2450;0.3611;
619.5000;0.2450;0.3563;
619.8000;0.2426;0.3539;
620.1000;0.2418;0.3514;
620.4000;0.2434;0.3587;
620.7000;0.2442;0.3587;
621.0000;0.2434;0.3490;
621.3000;0.2450;0.3514;
621.6000;0.2442;0.3466;
621.9000;0.2418;0.3369;
622.2000;0.2434;0.3369;
622.5000;0.2434;0.3369;
622.8000;0.2434;0.3272;
623.1000;0.2409;0.3224;
623.4000;0.2434;0.3296;
623.7000;0.2442;0.3345;
624.0000;0.2434;0.3248;
624.3000;0.2434;0.3224;
624.6000;0.2442;0.3199;
624.9000;0.2442;0.3175;
625.2000;0.2450;0.3272;
625.5000;0.2450;0.3272;
625.8000;0.2466;0.3296;
626.1000;0.2515;0.3369;
626.4000;0.2434;0.3175;
626.7000;0.2442;0.3248;
627.0000;0.2442;0.3320;
627.3000;0.2426;0.3393;
627.6000;0.2434;0.3466;
627.9000;0.2418;0.3320;
628.2000;0.2401;0.3175;
628.5000;0.2426;0.3199;
628.8000;0.2434;0.3175;
629.1000;0.2434;0.3175;
629.4000;0.2426;0.3199;
629.7000;0.2458;0.3345;
630.0000;0.2442;0.3248;
630.3000;0.2458;0.3272;
630.6000;0.2434;0.3127;
630.9000;0.2426;0.3151;
631.2000;0.2442;0.3224;
631.5000;0.2426;0.3127;
631.8000;0.2434;0.3151;
632.1000;0.2409;0.3127;
632.4000;0.2336;0.2981;
632.7000;0.2442;0.3296;
633.0000;0.2442;0.3345;
633.3000;0.2426;0.3320;
633.6000;0.2434;0.3369;
633.9000;0.2442;0.3417;
634.2000;0.2556;0.3781;
634.5000;0.2442;0.3369;
634.8000;0.2450;0.3345;
635.1000;0.2409;0.3393;
635.4000;0.2434;0.3466;
635.7000;0.2426;0.3442;
636.0000;0.2458;0.3466;
636.3000;0.2450;0.3466;
636.6000;0.2442;0.3320;
636.9000;0.2466;0.3248;
637.2000;0.2442;0.3199;
637.5000;0.2426;0.3272;
637.8000;0.2442;0.3320;
638.1000;0.2434;0.3272;
638.4000;0.2418;0.3248;
638.7000;0.2418;0.3296;
639.0000;0.2426;0.3393;
639.3000;0.2442;0.3442;
639.6000;0.2385;0.3272;
639.9000;0.2426;0.3248;
640.2000;0.2418;0.3248;
640.5000;0.2442;0.3369;
640.8000;0.2434;0.3393;
641.1000;0.2426;0.3345;
641.4000;0.2450;0.3296;
641.7000;0.2442;0.3345;
642.0000;0.2426;0.3320;
642.3000;0.2401;0.3224;
642.6000;0.2450;0.3224;
642.9000;0.2442;0.3224;
643.2000;0.2442;0.3224;
643.5000;0.2458;0.3320;
643.8000;0.2434;0.3272;
644.1000;0.2426;0.3345;
644.4000;0.2556;0.3684;
644.7000;0.2434;0.3369;
645.0000;0.2426;0.3345;
645.3000;0.2442;0.3345;
645.6000;0.2442;0.3417;
645.9000;0.2458;0.3369;
646.2000;0.2458;0.3296;
646.5000;0.2458;0.3272;
646.8000;0.2442;0.3248;
647.1000;0.2426;0.3224;
647.4000;0.2475;0.3417;
647.7000;0.2458;0.3296;
648.0000;0.2442;0.3248;
648.3000;0.2442;0.3320;
648.6000;0.2442;0.3345;
648.9000;0.2409;0.3272;
649.2000;0.2442;0.3442;
649.5000;0.2393;0.3296;
649.8000;0.2418;0.3320;
650.1000;0.2507;0.3514;
650.4000;0.2434;0.3248;
650.7000;0.2450;0.3369;
651.0000;0.2377;0.3102;
651.3000;0.2434;0.3224;
651.6000;0.2442;0.3224;
651.9000;0.2450;0.3296;
652.2000;0.2540;0.3563;
652.5000;0.2434;0.3248;
652.8000;0.2434;0.3272;
653.1000;0.2434;0.3345;
653.4000;0.2385;0.3175;
653.7000;0.2393;0.3224;
654.0000;0.2426;0.3320;
654.3000;0.2442;0.3320;
654.6000;0.2434;0.3296;
654.9000;0.2499;0.3393;
655.2000;0.2442;0.3224;
655.5000;0.2442;0.3345;
655.8000;0.2434;0.3345;
656.1000;0.2434;0.3393;
656.4000;0.2442;0.3320;
656.7000;0.2450;0.3296;
657.0000;0.2458;0.3272;
657.3000;0.2450;0.3296;
657.6000;0.2442;0.3320;
657.9000;0.2409;0.3224;
658.2000;0.2540;0.3611;
658.5000;0.2442;0.3345;
658.8000;0.2434;0.3345;
659.1000;0.2499;0.3514;
659.4000;0.2442;0.3345;
659.7000;0.2434;0.3393;
660.0000;0.2434;0.3369;
660.3000;0.2450;0.3442;
660.6000;0.2409;0.3345;
660.9000;0.2442;0.3369;
661.2000;0.2442;0.3442;
661.5000;0.2458;0.3442;
661.8000;0.2434;0.3369;
662.1000;0.2450;0.3320;
662.4000;0.2434;0.3296;
662.7000;0.2450;0.3369;
663.0000;0.2426;0.3272;
663.3000;0.2450;0.3417;
663.6000;0.2442;0.3442;
663.9000;0.2426;0.3320;
664.2000;0.2442;0.3369;
664.5000;0.2442;0.3369;
664.8000;0.2442;0.3393;
665.1000;0.2409;0.3320;
665.4000;0.2426;0.3345;
665.7000;0.2442;0.3345;
666.0000;0.2450;0.3393;
666.3000;0.2434;0.3296;
666.6000;0.2450;0.3320;
666.9000;0.2450;0.3345;
667.2000;0.2458;0.3369;
667.5000;0.2426;0.3296;
667.8000;0.2458;0.3417;
668.1000;0.2442;0.3393;
668.4000;0.2458;0.3369;
668.7000;0.2450;0.3320;
669.0000;0.2426;0.3296;
669.3000;0.2426;0.3320;
669.6000;0.2434;0.3369;
669.9000;0.2434;0.3442;
670.2000;0.2426;0.3466;
670.5000;0.2434;0.3466;
670.8000;0.2466;0.3490;
671.1000;0.2418;0.3296;
671.4000;0.2491;0.3563;
671.7000;0.2442;0.3563;
672.0000;0.2466;0.3563;
672.3000;0.2466;0.3514;
672.6000;0.2466;0.3636;
672.9000;0.2442;0.3563;
673.2000;0.2418;0.3514;
673.5000;0.2450;0.3539;
673.8000;0.2426;0.3587;
674.1000;0.2434;0.3660;
674.4000;0.2426;0.3611;
674.7000;0.2434;0.3587;
675.0000;0.2434;0.3466;
675.3000;0.2458;0.3417;
675.6000;0.2442;0.3345;
675.9000;0.2450;0.3296;
676.2000;0.2426;0.3102;
676.5000;0.2426;0.3102;
676.8000;0.2434;0.3151;
677.1000;0.2450;0.3151;
677.4000;0.2401;0.3030;
677.7000;0.2418;0.3199;
678.0000;0.2442;0.3320;
678.3000;0.2442;0.3248;
678.6000;0.2442;0.3248;
678.9000;0.2450;0.3248;
679.2000;0.2499;0.3369;
679.5000;0.2434;0.3224;
679.8000;0.2434;0.3199;
680.1000;0.2328;0.2933;
680.4000;0.2442;0.3272;
680.7000;0.2458;0.3320;
681.0000;0.2361;0.3175;
681.3000;0.2466;0.3393;
681.6000;0.2458;0.3490;
681.9000;0.2450;0.3442;
682.2000;0.2442;0.3466;
682.5000;0.2418;0.3369;
682.8000;0.2434;0.3466;
683.1000;0.2434;0.3514;
683.4000;0.2434;0.3563;
683.7000;0.2426;0.3514;
684.0000;0.2442;0.3466;
684.3000;0.2442;0.3442;
684.6000;0.2442;0.3369;
684.9000;0.2580;0.3781;
685.2000;0.2434;0.3417;
685.5000;0.2426;0.3563;
685.8000;0.2450;0.3636;
686.1000;0.2458;0.3611;
686.4000;0.2418;0.3514;
686.7000;0.2442;0.3563;
687.0000;0.2442;0.3660;
687.3000;0.2458;0.3660;
687.6000;0.2450;0.3636;
687.9000;0.2442;0.3539;
688.2000;0.2418;0.3345;
688.5000;0.2442;0.3369;
688.8000;0.2426;0.3442;
689.1000;0.2442;0.3514;
689.4000;0.2442;0.3539;
689.7000;0.2458;0.3660;
690.0000;0.2442;0.3587;
690.3000;0.2426;0.3636;
690.6000;0.2434;0.3636;
690.9000;0.2450;0.3611;
691.2000;0.2434;0.3636;
691.5000;0.2434;0.3684;
691.8000;0.2466;0.3611;
692.1000;0.2515;0.3805;
692.4000;0.2466;0.3514;
692.7000;0.2450;0.3442;
693.0000;0.2491;0.3442;
693.3000;0.2475;0.3393;
693.6000;0.2442;0.3320;
693.9000;0.2401;0.3224;
694.2000;0.2507;0.3539;
694.5000;0.2426;0.3320;
694.8000;0.2442;0.3320;
695.1000;0.2385;0.3224;
695.4000;0.2434;0.3320;
695.7000;0.2458;0.3320;
696.0000;0.2426;0.3199;
696.3000;0.2491;0.3296;
696.6000;0.2442;0.3224;
696.9000;0.2442;0.3224;
697.2000;0.2426;0.3199;
697.5000;0.2466;0.3417;
697.8000;0.2450;0.3466;
698.1000;0.2458;0.3563;
698.4000;0.2426;0.3514;
698.7000;0.2377;0.3345;
699.0000;0.2442;0.3466;
699.3000;0.2450;0.3466;
699.6000;0.2442;0.3442;
699.9000;0.2442;0.3369;
700.2000;0.2491;0.3539;
700.5000;0.2450;0.3369;
700.8000;0.2418;0.3320;
701.1000;0.2426;0.3345;
701.4000;0.2434;0.3393;
701.7000;0.2458;0.3442;
702.0000;0.2450;0.3417;
702.3000;0.2442;0.3490;
702.6000;0.2442;0.3490;
702.9000;0.2442;0.3514;
703.2000;0.2458;0.3514;
703.5000;0.2450;0.3466;
703.8000;0.2442;0.3417;
704.1000;0.2458;0.3442;
704.4000;0.2450;0.3393;
704.7000;0.2426;0.3393;
705.0000;0.2426;0.3490;
705.3000;0.2418;0.3466;
705.6000;0.2426;0.3539;
705.9000;0.2434;0.3611;
706.2000;0.2434;0.3636;
706.5000;0.2442;0.3587;
706.8000;0.2418;0.3514;
707.1000;0.2450;0.3490;
707.4000;0.2426;0.3417;
707.7000;0.2450;0.3442;
708.0000;0.2434;0.3393;
708.3000;0.2442;0.3369;
708.6000;0.2450;0.3393;
708.9000;0.2507;0.3587;
709.2000;0.2442;0.3442;
709.5000;0.2434;0.3466;
709.8000;0.2434;0.3466;
710.1000;0.2450;0.3490;
710.4000;0.2450;0.3539;
710.7000;0.2361;0.3320;
711.0000;0.2409;0.3442;
711.3000;0.2418;0.3490;
711.6000;0.2556;0.3829;
711.9000;0.2426;0.3466;
712.2000;0.2458;0.3563;
712.5000;0.2450;0.3466;
712.8000;0.2450;0.3442;
713.1000;0.2458;0.3442;
713.4000;0.2458;0.3393;
713.7000;0.2466;0.3369;
714.0000;0.2418;0.3320;
714.3000;0.2361;0.3151;
714.6000;0.2442;0.3442;
714.9000;0.2442;0.3369;
715.2000;0.2409;0.3248;
715.5000;0.2401;0.3320;
715.8000;0.2491;0.3490;
716.1000;0.2409;0.3320;
716.4000;0.2434;0.3320;
716.7000;0.2426;0.3320;
717.0000;0.2475;0.3442;
717.3000;0.2532;0.3539;
717.6000;0.2418;0.3272;
717.9000;0.2442;0.3296;
718.2000;0.2434;0.3369;
718.5000;0.2466;0.3466;
718.8000;0.2458;0.3417;
719.1000;0.2442;0.3393;
719.4000;0.2442;0.3369;
719.7000;0.2450;0.3442;
720.0000;0.2442;0.3417;
720.3000;0.2418;0.3393;
720.6000;0.2385;0.3393;
720.9000;0.2458;0.3442;
721.2000;0.2450;0.3490;
721.5000;0.2458;0.3539;
721.8000;0.2434;0.3539;
722.1000;0.2426;0.3514;
722.4000;0.2442;0.3539;
722.7000;0.2426;0.3490;
723.0000;0.2466;0.3539;
723.3000;0.2450;0.3490;
723.6000;0.2450;0.3442;
723.9000;0.2393;0.3345;
724.2000;0.2442;0.3466;
724.5000;0.2434;0.3466;
724.8000;0.2458;0.3563;
725.1000;0.2426;0.3442;
725.4000;0.2434;0.3393;
725.7000;0.2442;0.3320;
726.0000;0.2450;0.3224;
726.3000;0.2434;0.3296;
726.6000;0.2434;0.3296;
726.9000;0.2450;0.3320;
727.2000;0.2458;0.3296;
727.5000;0.2442;0.3199;
727.8000;0.2450;0.3248;
728.1000;0.2458;0.3272;
728.4000;0.2442;0.3248;
728.7000;0.2442;0.3127;
729.0000;0.2548;0.3393;
729.3000;0.2442;0.3199;
729.6000;0.2450;0.3272;
729.9000;0.2442;0.3320;
730.2000;0.2426;0.3320;
730.5000;0.2450;0.3417;
730.8000;0.2426;0.3369;
731.1000;0.2450;0.3417;
731.4000;0.2426;0.3369;
731.7000;0.2499;0.3514;
732.0000;0.2434;0.3369;
732.3000;0.2442;0.3490;
732.6000;0.2442;0.3539;
732.9000;0.2434;0.3587;
733.2000;0.2442;0.3636;
733.5000;0.2442;0.3563;
733.8000;0.2442;0.3563;
734.1000;0.2434;0.3539;
734.4000;0.2434;0.3514;
734.7000;0.2548;0.3733;
735.0000;0.2458;0.3442;
735.3000;0.2426;0.3369;
735.6000;0.2450;0.3417;
735.9000;0.2466;0.3514;
736.2000;0.2442;0.3490;
736.5000;0.2434;0.3320;
736.8000;0.2442;0.3272;
737.1000;0.2442;0.3248;
737.4000;0.2401;0.3199;
737.7000;0.2385;0.3199;
738.0000;0.2458;0.3442;
738.3000;0.2442;0.3490;
738.6000;0.2442;0.3442;
738.9000;0.2426;0.3320;
739.2000;0.2450;0.3369;
739.5000;0.2466;0.3417;
739.8000;0.2450;0.3272;
740.1000;0.2409;0.3199;
740.4000;0.2442;0.3345;
740.7000;0.2442;0.3369;
741.0000;0.2450;0.3320;
741.3000;0.2450;0.3296;
741.6000;0.2426;0.3248;
741.9000;0.2418;0.3248;
742.2000;0.2450;0.3345;
742.5000;0.2442;0.3345;
742.8000;0.2442;0.3320;
743.1000;0.2434;0.3296;
743.4000;0.2442;0.3393;
743.7000;0.2458;0.3393;
744.0000;0.2458;0.3272;
744.3000;0.2450;0.3320;
744.6000;0.2450;0.3369;
744.9000;0.2426;0.3369;
745.2000;0.2458;0.3320;
745.5000;0.2450;0.3296;
745.8000;0.2450;0.3345;
746.1000;0.2466;0.3417;
746.4000;0.2458;0.3442;
746.7000;0.2621;0.3902;
747.0000;0.2434;0.3296;
747.3000;0.2434;0.3296;
747.6000;0.2442;0.3248;
747.9000;0.2434;0.3320;
748.2000;0.2442;0.3393;
748.5000;0.2442;0.3417;
748.8000;0.2450;0.3393;
749.1000;0.2442;0.3345;
749.4000;0.2442;0.3369;
749.7000;0.2434;0.3417;
750.0000;0.2434;0.3393;
750.3000;0.2401;0.3296;
750.6000;0.2426;0.3248;
750.9000;0.2450;0.3296;
751.2000;0.2442;0.3296;
751.5000;0.2442;0.3345;
751.8000;0.2434;0.3224;
752.1000;0.2418;0.3248;
752.4000;0.2442;0.3224;
752.7000;0.2491;0.3393;
753.0000;0.2450;0.3345;
753.3000;0.2450;0.3248;
753.6000;0.2434;0.3199;
753.9000;0.2466;0.3296;
754.2000;0.2442;0.3296;
754.5000;0.2426;0.3320;
754.8000;0.2450;0.3393;
755.1000;0.2450;0.3442;
755.4000;0.2450;0.3490;
755.7000;0.2426;0.3490;
756.0000;0.2328;0.3199;
756.3000;0.2434;0.3539;
756.6000;0.2320;0.3272;
756.9000;0.2442;0.3660;
757.2000;0.2385;0.3466;
757.5000;0.2426;0.3490;
757.8000;0.2442;0.3417;
758.1000;0.2475;0.3466;
758.4000;0.2442;0.3345;
758.7000;0.2409;0.3224;
759.0000;0.2442;0.3320;
759.3000;0.2434;0.3248;
759.6000;0.2442;0.3345;
759.9000;0.2409;0.3224;
760.2000;0.2466;0.3393;
760.5000;0.2450;0.3369;
760.8000;0.2442;0.3369;
761.1000;0.2426;0.3442;
761.4000;0.2426;0.3466;
761.7000;0.2442;0.3539;
762.0000;0.2466;0.3636;
762.3000;0.2458;0.3587;
762.6000;0.2442;0.3587;
762.9000;0.2434;0.3563;
763.2000;0.2450;0.3514;
763.5000;0.2401;0.3417;
763.8000;0.2450;0.3514;
764.1000;0.2450;0.3466;
764.4000;0.2344;0.3151;
764.7000;0.2450;0.3393;
765.0000;0.2450;0.3417;
765.3000;0.2369;0.3199;
765.6000;0.2507;0.3466;
765.9000;0.2466;0.3369;
766.2000;0.2434;0.3272;
766.5000;0.2483;0.3442;
766.8000;0.2532;0.3563;
767.1000;0.2442;0.3393;
767.4000;0.2450;0.3417;
767.7000;0.2491;0.3563;
768.0000;0.2409;0.3417;
768.3000;0.2418;0.3514;
768.6000;0.2442;0.3563;
768.9000;0.2426;0.3563;
769.2000;0.2523;0.3829;
769.5000;0.2442;0.3660;
769.8000;0.2434;0.3660;
770.1000;0.2418;0.3636;
770.4000;0.2450;0.3684;
770.7000;0.2458;0.3733;
771.0000;0.2418;0.3636;
771.3000;0.2385;0.3563;
771.6000;0.2450;0.3708;
771.9000;0.2442;0.3757;
772.2000;0.2466;0.3684;
772.5000;0.2434;0.3611;
772.8000;0.2434;0.3636;
773.1000;0.2458;0.3660;
773.4000;0.2491;0.3708;
773.7000;0.2450;0.3611;
774.0000;0.2442;0.3587;
774.3000;0.2426;0.3563;
774.6000;0.2442;0.3587;
774.9000;0.2450;0.3539;
775.2000;0.2458;0.3563;
775.5000;0.2442;0.3587;
775.8000;0.2450;0.3587;
776.1000;0.2442;0.3490;
776.4000;0.2418;0.3466;
776.7000;0.2442;0.3587;
777.0000;0.2442;0.3587;
777.3000;0.2442;0.3587;
777.6000;0.2434;0.3660;
777.9000;0.2466;0.3636;
778.2000;0.2434;0.3563;
778.5000;0.2442;0.3636;
778.8000;0.2418;0.3611;
779.1000;0.2450;0.3587;
779.4000;0.2458;0.3611;
779.7000;0.2450;0.3611;
780.0000;0.2442;0.3490;
780.3000;0.2458;0.3611;
780.6000;0.2458;0.3636;
780.9000;0.2458;0.3660;
781.2000;0.2418;0.3490;
781.5000;0.2409;0.3490;
781.8000;0.2434;0.3563;
782.1000;0.2450;0.3563;
782.4000;0.2426;0.3490;
782.7000;0.2442;0.3514;
783.0000;0.2418;0.3466;
783.3000;0.2458;0.3539;
783.6000;0.2426;0.3490;
783.9000;0.2434;0.3587;
784.2000;0.2466;0.3684;
784.5000;0.2450;0.3636;
784.8000;0.2434;0.3611;
785.1000;0.2393;0.3514;
785.4000;0.2442;0.3636;
785.7000;0.2426;0.3636;
786.0000;0.2450;0.3611;
786.3000;0.2320;0.3320;
786.6000;0.2442;0.3708;
786.9000;0.2442;0.3636;
787.2000;0.2320;0.3345;
787.5000;0.2426;0.3636;
787.8000;0.2458;0.3636;
788.1000;0.2418;0.3514;
788.4000;0.2507;0.3708;
788.7000;0.2458;0.3587;
789.0000;0.2450;0.3636;
789.3000;0.2475;0.3733;
789.6000;0.2450;0.3733;
789.9000;0.2442;0.3684;
790.2000;0.2458;0.3708;
790.5000;0.2442;0.3684;
790.8000;0.2507;0.3733;
791.1000;0.2442;0.3684;
791.4000;0.2434;0.3563;
791.7000;0.2434;0.3563;
792.0000;0.2442;0.3660;
792.3000;0.2418;0.3514;
792.6000;0.2442;0.3539;
792.9000;0.2450;0.3611;
793.2000;0.2515;0.3757;
793.5000;0.2450;0.3539;
793.8000;0.2418;0.3490;
794.1000;0.2434;0.3539;
794.4000;0.2434;0.3611;
794.7000;0.2458;0.3757;
795.0000;0.2442;0.3684;
795.3000;0.2458;0.3708;
795.6000;0.2442;0.3708;
795.9000;0.2442;0.3684;
796.2000;0.2401;0.3611;
796.5000;0.2442;0.3757;
796.8000;0.2442;0.3708;
797.1000;0.2442;0.3636;
797.4000;0.2450;0.3563;
797.7000;0.2458;0.3539;
798.0000;0.2434;0.3369;
798.3000;0.2401;0.3272;
798.6000;0.2442;0.3369;
798.9000;0.2434;0.3320;
799.2000;0.2418;0.3296;
799.5000;0.2442;0.3466;
799.8000;0.2434;0.3466;
800.1000;0.2434;0.3466;
800.4000;0.2458;0.3514;
800.7000;0.2475;0.3514;
801.0000;0.2458;0.3514;
801.3000;0.2466;0.3490;
801.6000;0.2450;0.3514;
801.9000;0.2458;0.3587;
802.2000;0.2475;0.3660;
802.5000;0.2458;0.3587;
802.8000;0.2426;0.3466;
803.1000;0.2418;0.3442;
803.4000;0.2434;0.3417;
803.7000;0.2393;0.3272;
804.0000;0.2442;0.3417;
804.3000;0.2434;0.3369;
804.6000;0.2418;0.3417;
804.9000;0.2442;0.3514;
805.2000;0.2426;0.3563;
805.5000;0.2532;0.3781;
805.8000;0.2426;0.3514;
806.1000;0.2336;0.3345;
806.4000;0.2442;0.3611;
806.7000;0.2434;0.3563;
807.0000;0.2426;0.3636;
807.3000;0.2475;0.3733;
807.6000;0.2442;0.3636;
807.9000;0.2434;0.3684;
808.2000;0.2523;0.3829;
808.5000;0.2434;0.3563;
808.8000;0.2458;0.3466;
809.1000;0.2418;0.3369;
809.4000;0.2393;0.3345;
809.7000;0.2426;0.3539;
810.0000;0.2450;0.3684;
810.3000;0.2466;0.3708;
810.6000;0.2458;0.3733;
810.9000;0.2442;0.3684;
811.2000;0.2385;0.3514;
811.5000;0.2458;0.3684;
811.8000;0.2426;0.3563;
812.1000;0.2450;0.3587;
812.4000;0.2458;0.3611;
812.7000;0.2475;0.3636;
813.0000;0.2442;0.3490;
813.3000;0.2426;0.3369;
813.6000;0.2328;0.3127;
813.9000;0.2426;0.3369;
814.2000;0.2418;0.3369;
814.5000;0.2450;0.3417;
814.8000;0.2418;0.3369;
815.1000;0.2458;0.3369;
815.4000;0.2458;0.3417;
815.7000;0.2475;0.3514;
816.0000;0.2409;0.3369;
816.3000;0.2466;0.3490;
816.6000;0.2499;0.3587;
816.9000;0.2458;0.3563;
817.2000;0.2434;0.3490;
817.5000;0.2434;0.3466;
817.8000;0.2401;0.3417;
818.1000;0.2434;0.3442;
818.4000;0.2442;0.3345;
818.7000;0.2442;0.3539;
819.0000;0.2442;0.3514;
819.3000;0.2426;0.3466;
819.6000;0.2450;0.3466;
819.9000;0.2466;0.3539;
820.2000;0.2450;0.3466;
820.5000;0.2450;0.3563;
820.8000;0.2450;0.3611;
821.1000;0.2426;0.3539;
821.4000;0.2442;0.3636;
821.7000;0.2466;0.3611;
822.0000;0.2344;0.3296;
822.3000;0.2434;0.3466;
822.6000;0.2458;0.3514;
822.9000;0.2418;0.3539;
823.2000;0.2434;0.3563;
823.5000;0.2409;0.3563;
823.8000;0.2475;0.3757;
824.1000;0.2401;0.3539;
824.4000;0.2434;0.3660;
824.7000;0.2434;0.3587;
825.0000;0.2409;0.3466;
825.3000;0.2450;0.3587;
825.6000;0.2450;0.3587;
825.9000;0.2442;0.3539;
826.2000;0.2458;0.3490;
826.5000;0.2458;0.3490;
826.8000;0.2442;0.3490;
827.1000;0.2442;0.3563;
827.4000;0.2442;0.3708;
827.7000;0.2369;0.3490;
828.0000;0.2450;0.3660;
828.3000;0.2434;0.3563;
828.6000;0.2491;0.3733;
828.9000;0.2442;0.3563;
829.2000;0.2442;0.3611;
829.5000;0.2450;0.3636;
829.8000;0.2442;0.3684;
830.1000;0.2458;0.3708;
830.4000;0.2442;0.3611;
830.7000;0.2450;0.3514;
831.0000;0.2466;0.3490;
831.3000;0.2450;0.3417;
831.6000;0.2450;0.3466;
831.9000;0.2515;0.3684;
832.2000;0.2450;0.3417;
832.5000;0.2442;0.3442;
832.8000;0.2450;0.3417;
833.1000;0.2450;0.3369;
833.4000;0.2450;0.3442;
833.7000;0.2393;0.3224;
834.0000;0.2442;0.3442;
834.3000;0.2442;0.3514;
834.6000;0.2442;0.3393;
834.9000;0.2442;0.3296;
835.2000;0.2434;0.3296;
835.5000;0.2458;0.3345;
835.8000;0.2458;0.3369;
836.1000;0.2442;0.3345;
836.4000;0.2442;0.3369;
836.7000;0.2426;0.3345;
837.0000;0.2475;0.3466;
837.3000;0.2434;0.3369;
837.6000;0.2442;0.3514;
837.9000;0.2458;0.3539;
838.2000;0.2458;0.3587;
838.5000;0.2434;0.3539;
838.8000;0.2450;0.3539;
839.1000;0.2442;0.3345;
839.4000;0.2450;0.3345;
839.7000;0.2320;0.3005;
840.0000;0.2434;0.3320;
840.3000;0.2434;0.3345;
840.6000;0.2442;0.3345;
840.9000;0.2336;0.3005;
841.2000;0.2434;0.3224;
841.5000;0.2442;0.3272;
841.8000;0.2442;0.3369;
842.1000;0.2442;0.3393;
842.4000;0.2475;0.3442;
842.7000;0.2426;0.3393;
843.0000;0.2409;0.3417;
843.3000;0.2458;0.3563;
843.6000;0.2442;0.3393;
843.9000;0.2393;0.3272;
844.2000;0.2442;0.3393;
844.5000;0.2426;0.3320;
844.8000;0.2409;0.3296;
845.1000;0.2450;0.3345;
845.4000;0.2458;0.3442;
845.7000;0.2450;0.3490;
846.0000;0.2475;0.3539;
846.3000;0.2434;0.3490;
846.6000;0.2450;0.3563;
846.9000;0.2450;0.3539;
847.2000;0.2450;0.3563;
847.5000;0.2442;0.3539;
847.8000;0.2442;0.3514;
848.1000;0.2442;0.3514;
848.4000;0.2442;0.3393;
848.7000;0.2409;0.3272;
849.0000;0.2442;0.3369;
849.3000;0.2442;0.3393;
849.6000;0.2450;0.3466;
849.9000;0.2450;0.3417;
850.2000;0.2442;0.3442;
850.5000;0.2434;0.3466;
850.8000;0.2442;0.3587;
851.1000;0.2442;0.3563;
851.4000;0.2442;0.3514;
851.7000;0.2401;0.3369;
852.0000;0.2426;0.3442;
852.3000;0.2442;0.3490;
852.6000;0.2450;0.3490;
852.9000;0.2475;0.3539;
853.2000;0.2442;0.3466;
853.5000;0.2434;0.3417;
853.8000;0.2458;0.3490;
854.1000;0.2442;0.3393;
854.4000;0.2458;0.3369;
854.7000;0.2434;0.3345;
855.0000;0.2483;0.3514;
855.3000;0.2515;0.3611;
855.6000;0.2442;0.3442;
855.9000;0.2409;0.3296;
856.2000;0.2458;0.3490;
856.5000;0.2491;0.3587;
856.8000;0.2450;0.3611;
857.1000;0.2442;0.3611;
857.4000;0.2450;0.3636;
857.7000;0.2442;0.3514;
858.0000;0.2434;0.3514;
858.3000;0.2377;0.3175;
858.6000;0.2450;0.3369;
858.9000;0.2450;0.3417;
859.2000;0.2442;0.3369;
859.5000;0.2434;0.3442;
859.8000;0.2377;0.3369;
860.1000;0.2458;0.3563;
860.4000;0.2458;0.3636;
860.7000;0.2540;0.3926;
861.0000;0.2458;0.3660;
861.3000;0.2442;0.3587;
861.6000;0.2434;0.3539;
861.9000;0.2450;0.3587;
862.2000;0.2442;0.3587;
862.5000;0.2458;0.3563;
862.8000;0.2442;0.3514;
863.1000;0.2434;0.3539;
863.4000;0.2450;0.3490;
863.7000;0.2426;0.3442;
864.0000;0.2442;0.3466;
864.3000;0.2458;0.3514;
864.6000;0.2483;0.3563;
864.9000;0.2450;0.3514;
865.2000;0.2344;0.3224;
865.5000;0.2442;0.3393;
865.8000;0.2434;0.3393;
866.1000;0.2442;0.3490;
866.4000;0.2475;0.3563;
866.7000;0.2458;0.3442;
867.0000;0.2442;0.3345;
867.3000;0.2466;0.3369;
867.6000;0.2442;0.3248;
867.9000;0.2458;0.3224;
868.2000;0.2442;0.3151;
868.5000;0.2450;0.3296;
868.8000;0.2458;0.3345;
869.1000;0.2442;0.3320;
869.4000;0.2442;0.3272;
869.7000;0.2426;0.3296;
870.0000;0.2442;0.3320;
870.3000;0.2426;0.3296;
870.6000;0.2442;0.3296;
870.9000;0.2450;0.3296;
871.2000;0.2450;0.3272;
871.5000;0.2442;0.3345;
871.8000;0.2442;0.3320;
872.1000;0.2458;0.3369;
872.4000;0.2458;0.3369;
872.7000;0.2442;0.3224;
873.0000;0.2450;0.3248;
873.3000;0.2442;0.3248;
873.6000;0.2450;0.3272;
873.9000;0.2426;0.3199;
874.2000;0.2450;0.3248;
874.5000;0.2450;0.3272;
874.8000;0.2434;0.3248;
875.1000;0.2450;0.3296;
875.4000;0.2450;0.3272;
875.7000;0.2442;0.3272;
876.0000;0.2442;0.3369;
876.3000;0.2491;0.3442;
876.6000;0.2450;0.3320;
876.9000;0.2450;0.3417;
877.2000;0.2458;0.3514;
877.5000;0.2418;0.3587;
877.8000;0.2458;0.3636;
878.1000;0.2434;0.3611;
878.4000;0.2442;0.3587;
878.7000;0.2442;0.3563;
879.0000;0.2450;0.3466;
879.3000;0.2450;0.3320;
879.6000;0.2426;0.3248;
879.9000;0.2540;0.3539;
880.2000;0.2426;0.3224;
880.5000;0.2450;0.3345;
880.8000;0.2426;0.3369;
881.1000;0.2450;0.3417;
881.4000;0.2450;0.3442;
881.7000;0.2548;0.3587;
882.0000;0.2450;0.3345;
882.3000;0.2523;0.3514;
882.6000;0.2426;0.3272;
882.9000;0.2442;0.3272;
883.2000;0.2442;0.3296;
883.5000;0.2434;0.3224;
883.8000;0.2564;0.3563;
884.1000;0.2458;0.3345;
884.4000;0.2426;0.3345;
884.7000;0.2442;0.3393;
885.0000;0.2458;0.3466;
885.3000;0.2458;0.3466;
885.6000;0.2450;0.3417;
885.9000;0.2450;0.3466;
886.2000;0.2418;0.3345;
886.5000;0.2442;0.3442;
886.8000;0.2515;0.3611;
887.1000;0.2450;0.3466;
887.4000;0.2434;0.3417;
887.7000;0.2458;0.3442;
888.0000;0.2458;0.3442;
888.3000;0.2434;0.3393;
888.6000;0.2442;0.3466;
888.9000;0.2442;0.3442;
889.2000;0.2450;0.3490;
889.5000;0.2442;0.3417;
889.8000;0.2434;0.3369;
890.1000;0.2450;0.3466;
890.4000;0.2434;0.3442;
890.7000;0.2442;0.3417;
891.0000;0.2442;0.3369;
891.3000;0.2434;0.3466;
891.6000;0.2458;0.3539;
891.9000;0.2458;0.3417;
892.2000;0.2458;0.3320;
892.5000;0.2418;0.3224;
892.8000;0.2450;0.3175;
893.1000;0.2450;0.3102;
893.4000;0.2466;0.3078;
893.7000;0.2458;0.3102;
894.0000;0.2466;0.3151;
894.3000;0.2466;0.3127;
894.6000;0.2458;0.3199;
894.9000;0.2434;0.3175;
895.2000;0.2458;0.3224;
895.5000;0.2442;0.3224;
895.8000;0.2450;0.3248;
896.1000;0.2442;0.3272;
896.4000;0.2450;0.3224;
896.7000;0.2466;0.3248;
897.0000;0.2434;0.3224;
897.3000;0.2475;0.3393;
897.6000;0.2491;0.3514;
897.9000;0.2499;0.3587;
898.2000;0.2442;0.3490;
898.5000;0.2499;0.3539;
898.8000;0.2442;0.3393;
899.1000;0.2466;0.3393;
899.4000;0.2458;0.3466;
899.7000;0.2442;0.3442;
900.0000;0.2426;0.3393;
900.3000;0.2442;0.3417;
900.6000;0.2458;0.3417;
900.9000;0.2466;0.3320;
901.2000;0.2385;0.3102;
901.5000;0.2458;0.3272;
901.8000;0.2475;0.3320;
902.1000;0.2450;0.3320;
902.4000;0.2466;0.3369;
902.7000;0.2450;0.3369;
903.0000;0.2442;0.3393;
903.3000;0.2401;0.3417;
903.6000;0.2426;0.3539;
903.9000;0.2450;0.3587;
904.2000;0.2458;0.3563;
904.5000;0.2434;0.3514;
904.8000;0.2442;0.3369;
905.1000;0.2507;0.3539;
905.4000;0.2458;0.3442;
905.7000;0.2418;0.3369;
906.0000;0.2458;0.3490;
906.3000;0.2515;0.3563;
906.6000;0.2564;0.3781;
906.9000;0.2450;0.3417;
907.2000;0.2442;0.3393;
907.5000;0.2434;0.3442;
907.8000;0.2466;0.3442;
908.1000;0.2458;0.3393;
908.4000;0.2442;0.3369;
908.7000;0.2442;0.3442;
909.0000;0.2458;0.3393;
909.3000;0.2426;0.3369;
909.6000;0.2450;0.3466;
909.9000;0.2450;0.3466;
910.2000;0.2458;0.3442;
910.5000;0.2507;0.3563;
910.8000;0.2450;0.3320;
911.1000;0.2458;0.3320;
911.4000;0.2442;0.3320;
911.7000;0.2442;0.3345;
912.0000;0.2450;0.3320;
912.3000;0.2434;0.3224;
912.6000;0.2450;0.3248;
912.9000;0.2401;0.3151;
913.2000;0.2442;0.3199;
913.5000;0.2442;0.3175;
913.8000;0.2466;0.3175;
914.1000;0.2434;0.3078;
914.4000;0.2458;0.3151;
914.7000;0.2450;0.3151;
915.0000;0.2458;0.3175;
915.3000;0.2450;0.3175;
915.6000;0.2458;0.3199;
915.9000;0.2515;0.3296;
916.2000;0.2442;0.3127;
916.5000;0.2442;0.3005;
916.8000;0.2450;0.3102;
917.1000;0.2450;0.3199;
917.4000;0.2450;0.3224;
917.7000;0.2450;0.3175;
918.0000;0.2442;0.3199;
918.3000;0.2458;0.3272;
918.6000;0.2466;0.3345;
918.9000;0.2458;0.3248;
919.2000;0.2442;0.3272;
919.5000;0.2344;0.3030;
919.8000;0.2450;0.3369;
920.1000;0.2320;0.3078;
920.4000;0.2434;0.3369;
920.7000;0.2418;0.3320;
921.0000;0.2458;0.3442;
921.3000;0.2450;0.3490;
921.6000;0.2426;0.3442;
921.9000;0.2442;0.3417;
922.2000;0.2442;0.3611;
922.5000;0.2466;0.3660;
922.8000;0.2450;0.3611;
923.1000;0.2442;0.3490;
923.4000;0.2442;0.3417;
923.7000;0.2450;0.3393;
924.0000;0.2458;0.3417;
924.3000;0.2442;0.3320;
924.6000;0.2442;0.3224;
924.9000;0.2458;0.3199;
925.2000;0.2426;0.3199;
925.5000;0.2491;0.3296;
925.8000;0.2442;0.3224;
926.1000;0.2434;0.3248;
926.4000;0.2475;0.3320;
926.7000;0.2450;0.3272;
927.0000;0.2426;0.3272;
927.3000;0.2361;0.3127;
927.6000;0.2458;0.3369;
927.9000;0.2450;0.3393;
928.2000;0.2458;0.3369;
928.5000;0.2442;0.3369;
928.8000;0.2491;0.3442;
929.1000;0.2458;0.3369;
929.4000;0.2458;0.3296;
929.7000;0.2450;0.3296;
930.0000;0.2450;0.3296;
930.3000;0.2442;0.3320;
930.6000;0.2450;0.3369;
930.9000;0.2442;0.3320;
931.2000;0.2450;0.3393;
931.5000;0.2458;0.3320;
931.8000;0.2450;0.3320;
932.1000;0.2499;0.3345;
932.4000;0.2458;0.3199;
932.7000;0.2442;0.3224;
933.0000;0.2450;0.3272;
933.3000;0.2458;0.3296;
933.6000;0.2442;0.3248;
933.9000;0.2450;0.3272;
934.2000;0.2458;0.3199;
934.5000;0.2466;0.3175;
934.8000;0.2450;0.3199;
935.1000;0.2442;0.3224;
935.4000;0.2475;0.3320;
935.7000;0.2434;0.3199;
936.0000;0.2442;0.3199;
936.3000;0.2475;0.3393;
936.6000;0.2393;0.3199;
936.9000;0.2450;0.3369;
937.2000;0.2442;0.3320;
937.5000;0.2450;0.3320;
937.8000;0.2442;0.3320;
938.1000;0.2328;0.2981;
938.4000;0.2442;0.3345;
938.7000;0.2450;0.3369;
939.0000;0.2385;0.3175;
939.3000;0.2466;0.3320;
939.6000;0.2450;0.3224;
939.9000;0.2450;0.3224;
940.2000;0.2458;0.3248;
940.5000;0.2442;0.3248;
940.8000;0.2475;0.3320;
941.1000;0.2434;0.3248;
941.4000;0.2442;0.3224;
941.7000;0.2475;0.3320;
942.0000;0.2458;0.3248;
942.3000;0.2426;0.3175;
942.6000;0.2434;0.3272;
942.9000;0.2434;0.3248;
943.2000;0.2442;0.3224;
943.5000;0.2434;0.3224;
943.8000;0.2466;0.3272;
944.1000;0.2491;0.3393;
944.4000;0.2442;0.3272;
944.7000;0.2442;0.3151;
945.0000;0.2540;0.3345;
945.3000;0.2466;0.3102;
945.6000;0.2466;0.3078;
945.9000;0.2466;0.3175;
946.2000;0.2450;0.3102;
946.5000;0.2475;0.3248;
946.8000;0.2466;0.3224;
947.1000;0.2507;0.3417;
947.4000;0.2466;0.3272;
947.7000;0.2458;0.3175;
948.0000;0.2434;0.3151;
948.3000;0.2434;0.3151;
948.6000;0.2426;0.3102;
948.9000;0.2450;0.3248;
949.2000;0.2458;0.3369;
949.5000;0.2426;0.3320;
949.8000;0.2483;0.3466;
950.1000;0.2450;0.3296;
950.4000;0.2401;0.3248;
950.7000;0.2434;0.3272;
951.0000;0.2434;0.3175;
951.3000;0.2442;0.3175;
951.6000;0.2434;0.3199;
951.9000;0.2442;0.3175;
952.2000;0.2458;0.3248;
952.5000;0.2426;0.3175;
952.8000;0.2523;0.3417;
953.1000;0.2434;0.3151;
953.4000;0.2434;0.3151;
953.7000;0.2442;0.3151;
954.0000;0.2450;0.3151;
954.3000;0.2450;0.3175;
954.6000;0.2434;0.3151;
954.9000;0.2434;0.3127;
955.2000;0.2442;0.3175;
955.5000;0.2442;0.3175;
955.8000;0.2458;0.3224;
956.1000;0.2442;0.3102;
956.4000;0.2450;0.3127;
956.7000;0.2450;0.3151;
957.0000;0.2515;0.3442;
957.3000;0.2450;0.3320;
957.6000;0.2434;0.3320;
957.9000;0.2491;0.3296;
958.2000;0.2450;0.3199;
958.5000;0.2442;0.3224;
958.8000;0.2442;0.3102;
959.1000;0.2458;0.3151;
959.4000;0.2450;0.3078;
959.7000;0.2458;0.3030;
960.0000;0.2434;0.3005;
960.3000;0.2483;0.3102;
960.6000;0.2450;0.2981;
960.9000;0.2450;0.2981;
961.2000;0.2450;0.3054;
961.5000;0.2442;0.3078;
961.8000;0.2442;0.3127;
962.1000;0.2466;0.3199;
962.4000;0.2442;0.3127;
962.7000;0.2434;0.3127;
963.0000;0.2491;0.3296;
963.3000;0.2458;0.3175;
963.6000;0.2466;0.3248;
963.9000;0.2450;0.3272;
964.2000;0.2442;0.3272;
964.5000;0.2458;0.3224;
964.8000;0.2442;0.3272;
965.1000;0.2540;0.3417;
965.4000;0.2442;0.3224;
965.7000;0.2442;0.3224;
966.0000;0.2466;0.3272;
966.3000;0.2442;0.3248;
966.6000;0.2458;0.3248;
966.9000;0.2434;0.3199;
967.2000;0.2475;0.3296;
967.5000;0.2450;0.3224;
967.8000;0.2434;0.3127;
968.1000;0.2434;0.3102;
968.4000;0.2458;0.3175;
968.7000;0.2483;0.3224;
969.0000;0.2450;0.3175;
969.3000;0.2442;0.3175;
969.6000;0.2450;0.3224;
969.9000;0.2548;0.3514;
970.2000;0.2450;0.3272;
970.5000;0.2442;0.3320;
970.8000;0.2434;0.3442;
971.1000;0.2442;0.3393;
971.4000;0.2434;0.3393;
971.7000;0.2458;0.3417;
972.0000;0.2442;0.3514;
972.3000;0.2466;0.3514;
972.6000;0.2450;0.3490;
972.9000;0.2450;0.3466;
973.2000;0.2361;0.3199;
973.5000;0.2458;0.3539;
973.8000;0.2458;0.3466;
974.1000;0.2466;0.3369;
974.4000;0.2458;0.3345;
974.7000;0.2458;0.3369;
975.0000;0.2475;0.3296;
975.3000;0.2475;0.3320;
975.6000;0.2458;0.3199;
975.9000;0.2450;0.3199;
976.2000;0.2458;0.3151;
976.5000;0.2434;0.3102;
976.8000;0.2426;0.2981;
977.1000;0.2466;0.3175;
977.4000;0.2450;0.3175;
977.7000;0.2466;0.3248;
978.0000;0.2434;0.3199;
978.3000;0.2450;0.3320;
978.6000;0.2458;0.3345;
978.9000;0.2385;0.3199;
979.2000;0.2442;0.3296;
979.5000;0.2434;0.3320;
979.8000;0.2466;0.3417;
980.1000;0.2442;0.3345;
980.4000;0.2458;0.3320;
980.7000;0.2442;0.3199;
981.0000;0.2369;0.3054;
981.3000;0.2458;0.3442;
981.6000;0.2466;0.3490;
981.9000;0.2409;0.3369;
982.2000;0.2450;0.3417;
982.5000;0.2450;0.3345;
982.8000;0.2369;0.3151;
983.1000;0.2499;0.3490;
983.4000;0.2458;0.3393;
983.7000;0.2320;0.3078;
984.0000;0.2418;0.3272;
984.3000;0.2458;0.3417;
984.6000;0.2450;0.3442;
984.9000;0.2499;0.3563;
985.2000;0.2499;0.3490;
985.5000;0.2466;0.3369;
985.8000;0.2458;0.3369;
986.1000;0.2483;0.3514;
986.4000;0.2466;0.3393;
986.7000;0.2466;0.3369;
987.0000;0.2418;0.3248;
987.3000;0.2483;0.3442;
987.6000;0.2450;0.3393;
987.9000;0.2450;0.3514;
988.2000;0.2515;0.3660;
988.5000;0.2369;0.3320;
988.8000;0.2458;0.3490;
989.1000;0.2426;0.3369;
989.4000;0.2507;0.3466;
989.7000;0.2426;0.3272;
990.0000;0.2450;0.3393;
990.3000;0.2434;0.3296;
990.6000;0.2442;0.3345;
990.9000;0.2442;0.3417;
991.2000;0.2442;0.3442;
991.5000;0.2442;0.3466;
991.8000;0.2450;0.3514;
992.1000;0.2450;0.3539;
992.4000;0.2442;0.3490;
992.7000;0.2450;0.3514;
993.0000;0.2458;0.3466;
993.3000;0.2434;0.3393;
993.6000;0.2328;0.3102;
993.9000;0.2450;0.3442;
994.2000;0.2450;0.3417;
994.5000;0.2450;0.3442;
994.8000;0.2450;0.3442;
995.1000;0.2450;0.3393;
995.4000;0.2466;0.3393;
995.7000;0.2450;0.3320;
996.0000;0.2450;0.3248;
996.3000;0.2515;0.3466;
996.6000;0.2450;0.3345;
996.9000;0.2450;0.3442;
997.2000;0.2499;0.3563;
997.5000;0.2442;0.3442;
997.8000;0.2393;0.3345;
998.1000;0.2434;0.3417;
998.4000;0.2426;0.3393;
998.7000;0.2426;0.3369;
999.0000;0.2450;0.3369;
999.3000;0.2434;0.3320;
999.6000;0.2434;0.3296;
999.9000;0.2450;0.3345;
1000.2000;0.2434;0.3272;
1000.5000;0.2458;0.3296;
1000.8000;0.2450;0.3296;
1001.1000;0.2442;0.3345;
1001.4000;0.2442;0.3417;
1001.7000;0.2450;0.3369;
1002.0000;0.2434;0.3393;
1002.3000;0.2483;0.3442;
1002.6000;0.2450;0.3369;
1002.9000;0.2418;0.3248;
1003.2000;0.2434;0.3296;
1003.5000;0.2426;0.3345;
1003.8000;0.2458;0.3490;
1004.1000;0.2458;0.3490;
1004.4000;0.2434;0.3393;
1004.7000;0.2434;0.3320;
1005.0000;0.2442;0.3320;
1005.3000;0.2442;0.3248;
1005.6000;0.2466;0.3248;
1005.9000;0.2418;0.3054;
1006.2000;0.2458;0.3248;
1006.5000;0.2458;0.3345;
1006.8000;0.2466;0.3272;
1007.1000;0.2418;0.3127;
1007.4000;0.2442;0.3151;
1007.7000;0.2450;0.3175;
1008.0000;0.2466;0.3248;
1008.3000;0.2442;0.3175;
1008.6000;0.2499;0.3442;
1008.9000;0.2475;0.3345;
1009.2000;0.2434;0.3369;
1009.5000;0.2466;0.3466;
1009.8000;0.2434;0.3442;
1010.1000;0.2426;0.3369;
1010.4000;0.2458;0.3417;
1010.7000;0.2450;0.3369;
1011.0000;0.2491;0.3490;
1011.3000;0.2442;0.3272;
1011.6000;0.2458;0.3248;
1011.9000;0.2458;0.3272;
1012.2000;0.2442;0.3224;
1012.5000;0.2442;0.3296;
1012.8000;0.2450;0.3320;
1013.1000;0.2458;0.3345;
1013.4000;0.2426;0.3248;
1013.7000;0.2450;0.3320;
1014.0000;0.2450;0.3345;
1014.3000;0.2450;0.3369;
1014.6000;0.2458;0.3393;
1014.9000;0.2466;0.3514;
1015.2000;0.2450;0.3442;
1015.5000;0.2466;0.3466;
1015.8000;0.2434;0.3369;
1016.1000;0.2466;0.3466;
1016.4000;0.2475;0.3539;
1016.7000;0.2418;0.3345;
1017.0000;0.2483;0.3442;
1017.3000;0.2475;0.3393;
1017.6000;0.2499;0.3442;
1017.9000;0.2442;0.3296;
1018.2000;0.2646;0.3902;
1018.5000;0.2458;0.3296;
1018.8000;0.2475;0.3345;
1019.1000;0.2491;0.3369;
1019.4000;0.2507;0.3490;
1019.7000;0.2442;0.3296;
1020.0000;0.2450;0.3320;
1020.3000;0.2401;0.3199;
1020.6000;0.2466;0.3345;
1020.9000;0.2475;0.3272;
1021.2000;0.2401;0.3005;
1021.5000;0.2458;0.3005;
1021.8000;0.2564;0.3248;
1022.1000;0.2442;0.2933;
1022.4000;0.2426;0.3054;
1022.7000;0.2450;0.3151;
1023.0000;0.2442;0.3078;
1023.3000;0.2434;0.3005;
1023.6000;0.2377;0.2860;
1023.9000;0.2426;0.3030;
1024.2000;0.2450;0.3127;
1024.5000;0.2442;0.3224;
1024.8000;0.2328;0.3005;
1025.1000;0.2450;0.3248;
1025.4000;0.2442;0.3127;
1025.7000;0.2458;0.3151;
1026.0000;0.2483;0.3102;
1026.3000;0.2466;0.3078;
1026.6000;0.2418;0.3005;
1026.9000;0.2401;0.2933;
1027.2000;0.2458;0.3127;
1027.5000;0.2442;0.3175;
1027.8000;0.2434;0.3175;
1028.1000;0.2442;0.3127;
1028.4000;0.2442;0.3127;
1028.7000;0.2458;0.3199;
1029.0000;0.2426;0.3296;
1029.3000;0.2426;0.3345;
1029.6000;0.2458;0.3417;
1029.9000;0.2409;0.3345;
1030.2000;0.2458;0.3514;
1030.5000;0.2458;0.3466;
1030.8000;0.2475;0.3490;
1031.1000;0.2434;0.3393;
1031.4000;0.2450;0.3393;
1031.7000;0.2442;0.3369;
1032.0000;0.2458;0.3417;
1032.3000;0.2466;0.3369;
1032.6000;0.2466;0.3296;
1032.9000;0.2434;0.3248;
1033.2000;0.2483;0.3442;
1033.5000;0.2442;0.3296;
1033.8000;0.2450;0.3345;
1034.1000;0.2499;0.3514;
1034.4000;0.2442;0.3345;
1034.7000;0.2466;0.3466;
1035.0000;0.2458;0.3345;
1035.3000;0.2466;0.3442;
1035.6000;0.2434;0.3272;
1035.9000;0.2458;0.3296;
1036.2000;0.2336;0.2981;
1036.5000;0.2483;0.3369;
1036.8000;0.2418;0.3151;
1037.1000;0.2466;0.3224;
1037.4000;0.2499;0.3320;
1037.7000;0.2466;0.3175;
1038.0000;0.2409;0.3078;
1038.3000;0.2458;0.3199;
1038.6000;0.2450;0.3199;
1038.9000;0.2458;0.3224;
1039.2000;0.2442;0.3127;
1039.5000;0.2450;0.3102;
1039.8000;0.2466;0.3248;
1040.1000;0.2466;0.3248;
1040.4000;0.2442;0.3199;
1040.7000;0.2442;0.3151;
1041.0000;0.2483;0.3199;
1041.3000;0.2434;0.3102;
1041.6000;0.2466;0.3224;
1041.9000;0.2458;0.3272;
1042.2000;0.2458;0.3199;
1042.5000;0.2442;0.3224;
1042.8000;0.2458;0.3199;
1043.1000;0.2458;0.3248;
1043.4000;0.2556;0.3587;
1043.7000;0.2458;0.3248;
1044.0000;0.2458;0.3272;
1044.3000;0.2442;0.3272;
1044.6000;0.2409;0.3272;
1044.9000;0.2458;0.3345;
1045.2000;0.2466;0.3417;
1045.5000;0.2450;0.3490;
1045.8000;0.2442;0.3369;
1046.1000;0.2466;0.3369;
1046.4000;0.2491;0.3417;
1046.7000;0.2442;0.3369;
1047.0000;0.2442;0.3417;
1047.3000;0.2450;0.3466;
1047.6000;0.2450;0.3442;
1047.9000;0.2434;0.3417;
1048.2000;0.2442;0.3369;
1048.5000;0.2458;0.3369;
1048.8000;0.2458;0.3296;
1049.1000;0.2458;0.3296;
1049.4000;0.2450;0.3272;
1049.7000;0.2434;0.3224;
1050.0000;0.2475;0.3224;
1050.3000;0.2458;0.3127;
1050.6000;0.2434;0.3054;
1050.9000;0.2393;0.2908;
1051.2000;0.2450;0.3175;
1051.5000;0.2475;0.3320;
1051.8000;0.2458;0.3248;
1052.1000;0.2377;0.3054;
1052.4000;0.2442;0.3296;
1052.7000;0.2450;0.3320;
1053.0000;0.2450;0.3345;
1053.3000;0.2458;0.3272;
1053.6000;0.2442;0.3199;
1053.9000;0.2434;0.3127;
1054.2000;0.2466;0.3272;
1054.5000;0.2450;0.3199;
1054.8000;0.2442;0.3248;
1055.1000;0.2434;0.3320;
1055.4000;0.2442;0.3345;
1055.7000;0.2450;0.3369;
1056.0000;0.2434;0.3320;
1056.3000;0.2442;0.3393;
1056.6000;0.2466;0.3369;
1056.9000;0.2458;0.3369;
1057.2000;0.2418;0.3224;
1057.5000;0.2458;0.3296;
1057.8000;0.2475;0.3320;
1058.1000;0.2466;0.3369;
1058.4000;0.2450;0.3345;
1058.7000;0.2434;0.3320;
1059.0000;0.2442;0.3393;
1059.3000;0.2532;0.3708;
1059.6000;0.2426;0.3345;
1059.9000;0.2426;0.3320;
1060.2000;0.2442;0.3369;
1060.5000;0.2418;0.3320;
1060.8000;0.2458;0.3417;
1061.1000;0.2442;0.3466;
1061.4000;0.2466;0.3466;
1061.7000;0.2556;0.3684;
1062.0000;0.2458;0.3442;
1062.3000;0.2434;0.3345;
1062.6000;0.2442;0.3296;
1062.9000;0.2466;0.3369;
1063.2000;0.2426;0.3151;
1063.5000;0.2434;0.3151;
1063.8000;0.2499;0.3224;
1064.1000;0.2442;0.3127;
1064.4000;0.2475;0.3199;
1064.7000;0.2483;0.3078;
1065.0000;0.2458;0.2981;
1065.3000;0.2418;0.2860;
1065.6000;0.2442;0.3078;
1065.9000;0.2434;0.3151;
1066.2000;0.2442;0.3151;
1066.5000;0.2450;0.3175;
1066.8000;0.2458;0.3248;
1067.1000;0.2458;0.3272;
1067.4000;0.2426;0.3127;
1067.7000;0.2442;0.3296;
1068.0000;0.2458;0.3417;
1068.3000;0.2475;0.3587;
1068.6000;0.2466;0.3587;
1068.9000;0.2458;0.3539;
1069.2000;0.2458;0.3587;
1069.5000;0.2450;0.3490;
1069.8000;0.2450;0.3490;
1070.1000;0.2564;0.3660;
1070.4000;0.2458;0.3320;
1070.7000;0.2442;0.3345;
1071.0000;0.2450;0.3320;
1071.3000;0.2442;0.3296;
1071.6000;0.2458;0.3442;
1071.9000;0.2466;0.3417;
1072.2000;0.2434;0.3248;
1072.5000;0.2442;0.3175;
1072.8000;0.2450;0.3272;
1073.1000;0.2369;0.3151;
1073.4000;0.2458;0.3320;
1073.7000;0.2450;0.3272;
1074.0000;0.2450;0.3224;
1074.3000;0.2458;0.3345;
1074.6000;0.2442;0.3369;
1074.9000;0.2361;0.3078;
1075.2000;0.2450;0.3272;
1075.5000;0.2450;0.3272;
1075.8000;0.2442;0.3224;
1076.1000;0.2450;0.3320;
1076.4000;0.2442;0.3224;
1076.7000;0.2523;0.3466;
1077.0000;0.2458;0.3345;
1077.3000;0.2442;0.3320;
1077.6000;0.2426;0.3199;
1077.9000;0.2434;0.3224;
1078.2000;0.2434;0.3272;
1078.5000;0.2458;0.3320;
1078.8000;0.2458;0.3369;
1079.1000;0.2442;0.3345;
1079.4000;0.2491;0.3417;
1079.7000;0.2450;0.3296;
1080.0000;0.2401;0.3224;
1080.3000;0.2458;0.3369;
1080.6000;0.2418;0.3199;
1080.9000;0.2450;0.3320;
1081.2000;0.2434;0.3127;
1081.5000;0.2450;0.3151;
1081.8000;0.2466;0.3199;
1082.1000;0.2450;0.3151;
1082.4000;0.2458;0.3199;
1082.7000;0.2434;0.3175;
1083.0000;0.2491;0.3224;
1083.3000;0.2458;0.3054;
1083.6000;0.2475;0.3030;
1083.9000;0.2426;0.3005;
1084.2000;0.2458;0.3030;
1084.5000;0.2450;0.2957;
1084.8000;0.2442;0.2981;
1085.1000;0.2458;0.2957;
1085.4000;0.2434;0.2981;
1085.7000;0.2475;0.3030;
1086.0000;0.2450;0.2981;
1086.3000;0.2442;0.3005;
1086.6000;0.2442;0.2957;
1086.9000;0.2426;0.2884;
1087.2000;0.2466;0.3005;
1087.5000;0.2450;0.3030;
1087.8000;0.2450;0.2981;
1088.1000;0.2458;0.3030;
1088.4000;0.2458;0.3054;
1088.7000;0.2418;0.2933;
1089.0000;0.2450;0.2981;
1089.3000;0.2409;0.2884;
1089.6000;0.2450;0.3005;
1089.9000;0.2369;0.2860;
1090.2000;0.2442;0.3102;
1090.5000;0.2434;0.3175;
1090.8000;0.2475;0.3393;
1091.1000;0.2385;0.3054;
1091.4000;0.2458;0.3102;
1091.7000;0.2442;0.3127;
1092.0000;0.2458;0.3320;
1092.3000;0.2475;0.3369;
1092.6000;0.2466;0.3296;
1092.9000;0.2434;0.3199;
1093.2000;0.2434;0.3248;
1093.5000;0.2458;0.3345;
1093.8000;0.2442;0.3272;
1094.1000;0.2450;0.3272;
1094.4000;0.2418;0.3175;
1094.7000;0.2426;0.3199;
1095.0000;0.2458;0.3296;
1095.3000;0.2434;0.3345;
1095.6000;0.2458;0.3296;
1095.9000;0.2491;0.3417;
1096.2000;0.2458;0.3320;
1096.5000;0.2450;0.3296;
1096.8000;0.2442;0.3296;
1097.1000;0.2450;0.3296;
1097.4000;0.2450;0.3224;
1097.7000;0.2434;0.3224;
1098.0000;0.2450;0.3296;
1098.3000;0.2434;0.3345;
1098.6000;0.2442;0.3369;
1098.9000;0.2491;0.3393;
1099.2000;0.2458;0.3199;
1099.5000;0.2434;0.3175;
1099.8000;0.2458;0.3199;
1100.1000;0.2458;0.3248;
1100.4000;0.2450;0.3199;
1100.7000;0.2426;0.3127;
1101.0000;0.2450;0.3248;
1101.3000;0.2450;0.3345;
1101.6000;0.2442;0.3417;
1101.9000;0.2442;0.3393;
1102.2000;0.2426;0.3296;
1102.5000;0.2466;0.3320;
1102.8000;0.2458;0.3296;
1103.1000;0.2442;0.3296;
1103.4000;0.2450;0.3248;
1103.7000;0.2450;0.3248;
1104.0000;0.2450;0.3272;
1104.3000;0.2442;0.3272;
1104.6000;0.2450;0.3393;
1104.9000;0.2450;0.3490;
1105.2000;0.2450;0.3466;
1105.5000;0.2442;0.3442;
1105.8000;0.2426;0.3442;
1106.1000;0.2458;0.3466;
1106.4000;0.2458;0.3369;
1106.7000;0.2540;0.3563;
1107.0000;0.2442;0.3248;
1107.3000;0.2458;0.3296;
1107.6000;0.2450;0.3272;
1107.9000;0.2450;0.3296;
1108.2000;0.2336;0.3030;
1108.5000;0.2458;0.3345;
1108.8000;0.2475;0.3417;
1109.1000;0.2458;0.3393;
1109.4000;0.2426;0.3272;
1109.7000;0.2458;0.3345;
1110.0000;0.2548;0.3587;
1110.3000;0.2344;0.3030;
1110.6000;0.2499;0.3490;
1110.9000;0.2434;0.3296;
1111.2000;0.2475;0.3296;
1111.5000;0.2401;0.3175;
1111.8000;0.2450;0.3272;
1112.1000;0.2499;0.3393;
1112.4000;0.2450;0.3272;
1112.7000;0.2434;0.3199;
1113.0000;0.2458;0.3224;
1113.3000;0.2466;0.3272;
1113.6000;0.2458;0.3175;
1113.9000;0.2418;0.3005;
1114.2000;0.2475;0.3224;
1114.5000;0.2450;0.3151;
1114.8000;0.2491;0.3296;
1115.1000;0.2475;0.3296;
1115.4000;0.2483;0.3248;
1115.7000;0.2450;0.3127;
1116.0000;0.2426;0.3078;
1116.3000;0.2442;0.3054;
1116.6000;0.2458;0.3102;
1116.9000;0.2466;0.3224;
1117.2000;0.2426;0.3151;
1117.5000;0.2491;0.3175;
1117.8000;0.2507;0.3272;
1118.1000;0.2450;0.3005;
1118.4000;0.2450;0.3005;
1118.7000;0.2450;0.3054;
1119.0000;0.2475;0.3102;
1119.3000;0.2426;0.3054;
1119.6000;0.2458;0.3199;
1119.9000;0.2442;0.3175;
1120.2000;0.2450;0.3248;
1120.5000;0.2450;0.3345;
1120.8000;0.2426;0.3272;
1121.1000;0.2499;0.3442;
1121.4000;0.2442;0.3369;
1121.7000;0.2458;0.3442;
1122.0000;0.2458;0.3345;
1122.3000;0.2466;0.3345;
1122.6000;0.2450;0.3272;
1122.9000;0.2418;0.3199;
1123.2000;0.2450;0.3320;
1123.5000;0.2426;0.3320;
1123.8000;0.2450;0.3442;
1124.1000;0.2442;0.3369;
1124.4000;0.2450;0.3248;
1124.7000;0.2475;0.3296;
1125.0000;0.2434;0.3199;
1125.3000;0.2450;0.3199;
1125.6000;0.2458;0.3127;
1125.9000;0.2475;0.3248;
1126.2000;0.2442;0.3151;
1126.5000;0.2442;0.3272;
1126.8000;0.2499;0.3369;
1127.1000;0.2434;0.3296;
1127.4000;0.2409;0.3199;
1127.7000;0.2450;0.3345;
1128.0000;0.2458;0.3393;
1128.3000;0.2442;0.3320;
1128.6000;0.2434;0.3345;
1128.9000;0.2442;0.3320;
1129.2000;0.2442;0.3345;
1129.5000;0.2450;0.3369;
1129.8000;0.2458;0.3369;
1130.1000;0.2450;0.3369;
1130.4000;0.2418;0.3320;
1130.7000;0.2450;0.3296;
1131.0000;0.2507;0.3514;
1131.3000;0.2450;0.3296;
1131.6000;0.2442;0.3248;
1131.9000;0.2442;0.3320;
1132.2000;0.2450;0.3296;
1132.5000;0.2434;0.3224;
1132.8000;0.2442;0.3127;
1133.1000;0.2450;0.3127;
1133.4000;0.2442;0.3224;
1133.7000;0.2450;0.3175;
1134.0000;0.2434;0.3102;
1134.3000;0.2401;0.3005;
1134.6000;0.2458;0.3272;
1134.9000;0.2523;0.3514;
1135.2000;0.2458;0.3369;
1135.5000;0.2426;0.3248;
1135.8000;0.2434;0.3320;
1136.1000;0.2450;0.3393;
1136.4000;0.2434;0.3417;
1136.7000;0.2336;0.3248;
1137.0000;0.2442;0.3514;
1137.3000;0.2344;0.3272;
1137.6000;0.2377;0.3224;
1137.9000;0.2466;0.3490;
1138.2000;0.2466;0.3417;
1138.5000;0.2450;0.3345;
1138.8000;0.2426;0.3248;
1139.1000;0.2458;0.3320;
1139.4000;0.2434;0.3320;
1139.7000;0.2458;0.3442;
1140.0000;0.2450;0.3563;
1140.3000;0.2418;0.3539;
1140.6000;0.2434;0.3514;
1140.9000;0.2450;0.3466;
1141.2000;0.2442;0.3442;
1141.5000;0.2442;0.3393;
1141.8000;0.2442;0.3417;
1142.1000;0.2418;0.3320;
1142.4000;0.2442;0.3345;
1142.7000;0.2442;0.3345;
1143.0000;0.2442;0.3296;
1143.3000;0.2450;0.3345;
1143.6000;0.2442;0.3345;
1143.9000;0.2450;0.3320;
1144.2000;0.2475;0.3320;
1144.5000;0.2458;0.3248;
1144.8000;0.2475;0.3393;
1145.1000;0.2458;0.3442;
1145.4000;0.2434;0.3393;
1145.7000;0.2458;0.3514;
1146.0000;0.2426;0.3563;
1146.3000;0.2450;0.3539;
1146.6000;0.2312;0.3224;
1146.9000;0.2507;0.3636;
1147.2000;0.2450;0.3563;
1147.5000;0.2483;0.3636;
1147.8000;0.2450;0.3539;
1148.1000;0.2450;0.3442;
1148.4000;0.2450;0.3466;
1148.7000;0.2507;0.3611;
1149.0000;0.2475;0.3514;
1149.3000;0.2450;0.3539;
1149.6000;0.2450;0.3539;
1149.9000;0.2458;0.3539;
1150.2000;0.2434;0.3514;
1150.5000;0.2426;0.3563;
1150.8000;0.2475;0.3708;
1151.1000;0.2466;0.3733;
1151.4000;0.2426;0.3611;
1151.7000;0.2434;0.3611;
1152.0000;0.2450;0.3611;
1152.3000;0.2466;0.3684;
1152.6000;0.2450;0.3539;
1152.9000;0.2450;0.3466;
1153.2000;0.2450;0.3490;
1153.5000;0.2450;0.3490;
1153.8000;0.2458;0.3514;
1154.1000;0.2434;0.3345;
1154.4000;0.2426;0.3345;
1154.7000;0.2450;0.3417;
1155.0000;0.2393;0.3199;
1155.3000;0.2458;0.3345;
1155.6000;0.2491;0.3490;
1155.9000;0.2377;0.3199;
1156.2000;0.2466;0.3369;
1156.5000;0.2369;0.3127;
1156.8000;0.2434;0.3199;
1157.1000;0.2458;0.3320;
1157.4000;0.2466;0.3393;
1157.7000;0.2434;0.3369;
1158.0000;0.2458;0.3393;
1158.3000;0.2426;0.3345;
1158.6000;0.2450;0.3514;
1158.9000;0.2442;0.3417;
1159.2000;0.2442;0.3393;
1159.5000;0.2442;0.3417;
1159.8000;0.2450;0.3442;
1160.1000;0.2466;0.3442;
1160.4000;0.2572;0.3708;
1160.7000;0.2434;0.3296;
1161.0000;0.2466;0.3320;
1161.3000;0.2442;0.3224;
1161.6000;0.2442;0.3175;
1161.9000;0.2442;0.3224;
1162.2000;0.2442;0.3224;
1162.5000;0.2385;0.3127;
1162.8000;0.2442;0.3296;
1163.1000;0.2442;0.3272;
1163.4000;0.2442;0.3369;
1163.7000;0.2450;0.3369;
1164.0000;0.2483;0.3369;
1164.3000;0.2450;0.3272;
1164.6000;0.2458;0.3320;
1164.9000;0.2450;0.3272;
1165.2000;0.2475;0.3296;
1165.5000;0.2450;0.3320;
1165.8000;0.2377;0.3175;
1166.1000;0.2450;0.3417;
1166.4000;0.2442;0.3417;
1166.7000;0.2458;0.3490;
1167.0000;0.2458;0.3490;
1167.3000;0.2450;0.3514;
1167.6000;0.2458;0.3587;
1167.9000;0.2450;0.3539;
1168.2000;0.2450;0.3466;
1168.5000;0.2442;0.3442;
1168.8000;0.2466;0.3514;
1169.1000;0.2426;0.3393;
1169.4000;0.2466;0.3490;
1169.7000;0.2450;0.3466;
1170.0000;0.2377;0.3248;
1170.3000;0.2475;0.3587;
1170.6000;0.2458;0.3514;
1170.9000;0.2458;0.3490;
1171.2000;0.2434;0.3369;
1171.5000;0.2450;0.3345;
1171.8000;0.2450;0.3369;
1172.1000;0.2458;0.3393;
1172.4000;0.2426;0.3345;
1172.7000;0.2458;0.3345;
1173.0000;0.2450;0.3369;
1173.3000;0.2466;0.3369;
1173.6000;0.2458;0.3369;
1173.9000;0.2458;0.3417;
1174.2000;0.2450;0.3393;
1174.5000;0.2450;0.3417;
1174.8000;0.2450;0.3442;
1175.1000;0.2450;0.3466;
1175.4000;0.2442;0.3417;
1175.7000;0.2458;0.3514;
1176.0000;0.2564;0.3757;
1176.3000;0.2458;0.3490;
1176.6000;0.2434;0.3369;
1176.9000;0.2458;0.3442;
1177.2000;0.2442;0.3369;
1177.5000;0.2458;0.3393;
1177.8000;0.2475;0.3442;
1178.1000;0.2458;0.3296;
1178.4000;0.2434;0.3296;
1178.7000;0.2344;0.3127;
1179.0000;0.2450;0.3442;
1179.3000;0.2458;0.3442;
1179.6000;0.2434;0.3393;
1179.9000;0.2450;0.3417;
1180.2000;0.2466;0.3417;
1180.5000;0.2442;0.3393;
1180.8000;0.2442;0.3442;
1181.1000;0.2434;0.3369;
1181.4000;0.2426;0.3248;
1181.7000;0.2466;0.3393;
1182.0000;0.2450;0.3417;
1182.3000;0.2483;0.3539;
1182.6000;0.2442;0.3442;
1182.9000;0.2450;0.3417;
1183.2000;0.2450;0.3442;
1183.5000;0.2450;0.3466;
1183.8000;0.2442;0.3490;
1184.1000;0.2466;0.3563;
1184.4000;0.2401;0.3320;
1184.7000;0.2466;0.3442;
1185.0000;0.2450;0.3466;
1185.3000;0.2466;0.3466;
1185.6000;0.2466;0.3539;
1185.9000;0.2450;0.3514;
1186.2000;0.2515;0.3684;
1186.5000;0.2426;0.3417;
1186.8000;0.2458;0.3563;
1187.1000;0.2450;0.3490;
1187.4000;0.2434;0.3369;
1187.7000;0.2450;0.3369;
1188.0000;0.2426;0.3369;
1188.3000;0.2442;0.3345;
1188.6000;0.2450;0.3320;
1188.9000;0.2458;0.3345;
1189.2000;0.2442;0.3320;
1189.5000;0.2450;0.3393;
1189.8000;0.2442;0.3393;
1190.1000;0.2458;0.3369;
1190.4000;0.2442;0.3393;
1190.7000;0.2442;0.3466;
1191.0000;0.2434;0.3417;
1191.3000;0.2450;0.3442;
1191.6000;0.2466;0.3490;
1191.9000;0.2442;0.3514;
1192.2000;0.2442;0.3490;
1192.5000;0.2450;0.3514;
1192.8000;0.2458;0.3490;
1193.1000;0.2442;0.3490;
1193.4000;0.2450;0.3563;
1193.7000;0.2442;0.3514;
1194.0000;0.2434;0.3393;
1194.3000;0.2450;0.3393;
1194.6000;0.2450;0.3417;
1194.9000;0.2466;0.3514;
1195.2000;0.2434;0.3490;
1195.5000;0.2434;0.3393;
1195.8000;0.2442;0.3369;
1196.1000;0.2434;0.3320;
1196.4000;0.2458;0.3345;
1196.7000;0.2466;0.3417;
1197.0000;0.2458;0.3296;
1197.3000;0.2434;0.3296;
1197.6000;0.2426;0.3296;
1197.9000;0.2442;0.3345;
1198.2000;0.2442;0.3296;
1198.5000;0.2385;0.3224;
1198.8000;0.2442;0.3393;
1199.1000;0.2458;0.3490;
1199.4000;0.2458;0.3490;
1199.7000;0.2483;0.3490;
1200.0000;0.2450;0.3369;
1200.3000;0.2466;0.3417;
1200.6000;0.2450;0.3393;
1200.9000;0.2491;0.3442;
1201.2000;0.2409;0.3320;
1201.5000;0.2450;0.3345;
1201.8000;0.2466;0.3442;
1202.1000;0.2483;0.3466;
1202.4000;0.2442;0.3345;
1202.7000;0.2475;0.3442;
1203.0000;0.2450;0.3369;
1203.3000;0.2466;0.3320;
1203.6000;0.2466;0.3345;
1203.9000;0.2458;0.3296;
1204.2000;0.2442;0.3224;
1204.5000;0.2458;0.3320;
1204.8000;0.2401;0.3175;
1205.1000;0.2475;0.3369;
1205.4000;0.2450;0.3320;
1205.7000;0.2466;0.3345;
1206.0000;0.2466;0.3369;
1206.3000;0.2483;0.3393;
1206.6000;0.2442;0.3369;
1206.9000;0.2426;0.3272;
1207.2000;0.2450;0.3369;
1207.5000;0.2458;0.3296;
1207.8000;0.2409;0.3224;
1208.1000;0.2507;0.3393;
1208.4000;0.2458;0.3272;
1208.7000;0.2458;0.3224;
1209.0000;0.2466;0.3151;
1209.3000;0.2564;0.3514;
1209.6000;0.2450;0.3272;
1209.9000;0.2475;0.3320;
1210.2000;0.2450;0.3199;
1210.5000;0.2434;0.3151;
1210.8000;0.2458;0.3248;
1211.1000;0.2458;0.3199;
1211.4000;0.2475;0.3224;
1211.7000;0.2556;0.3442;
1212.0000;0.2426;0.3054;
1212.3000;0.2442;0.3054;
1212.6000;0.2466;0.3248;
1212.9000;0.2458;0.3345;
1213.2000;0.2458;0.3345;
1213.5000;0.2450;0.3345;
1213.8000;0.2458;0.3272;
1214.1000;0.2475;0.3224;
1214.4000;0.2458;0.3175;
1214.7000;0.2466;0.3199;
1215.0000;0.2442;0.3199;
1215.3000;0.2466;0.3248;
1215.6000;0.2434;0.3151;
1215.9000;0.2466;0.3296;
1216.2000;0.2466;0.3248;
1216.5000;0.2458;0.3272;
1216.8000;0.2442;0.3296;
1217.1000;0.2450;0.3345;
1217.4000;0.2466;0.3442;
1217.7000;0.2434;0.3369;
1218.0000;0.2540;0.3611;
1218.3000;0.2442;0.3320;
1218.6000;0.2458;0.3345;
1218.9000;0.2450;0.3320;
1219.2000;0.2450;0.3320;
1219.5000;0.2466;0.3345;
1219.8000;0.2491;0.3345;
1220.1000;0.2450;0.3296;
1220.4000;0.2418;0.3127;
1220.7000;0.2442;0.3078;
1221.0000;0.2442;0.3127;
1221.3000;0.2442;0.3151;
1221.6000;0.2450;0.3248;
1221.9000;0.2450;0.3175;
1222.2000;0.2475;0.3248;
1222.5000;0.2458;0.3272;
1222.8000;0.2418;0.3199;
1223.1000;0.2377;0.3102;
1223.4000;0.2466;0.3393;
1223.7000;0.2442;0.3272;
1224.0000;0.2475;0.3296;
1224.3000;0.2458;0.3345;
1224.6000;0.2458;0.3369;
1224.9000;0.2450;0.3369;
1225.2000;0.2458;0.3369;
1225.5000;0.2450;0.3345;
1225.8000;0.2450;0.3345;
1226.1000;0.2418;0.3199;
1226.4000;0.2483;0.3345;
1226.7000;0.2466;0.3272;
1227.0000;0.2442;0.3175;
1227.3000;0.2442;0.3224;
1227.6000;0.2475;0.3296;
1227.9000;0.2458;0.3224;
1228.2000;0.2450;0.3224;
1228.5000;0.2434;0.3224;
1228.8000;0.2450;0.3224;
1229.1000;0.2401;0.3102;
1229.4000;0.2442;0.3248;
1229.7000;0.2458;0.3320;
1230.0000;0.2475;0.3345;
1230.3000;0.2442;0.3296;
1230.6000;0.2442;0.3320;
1230.9000;0.2442;0.3369;
1231.2000;0.2426;0.3296;
1231.5000;0.2344;0.3078;
1231.8000;0.2458;0.3345;
1232.1000;0.2401;0.3248;
1232.4000;0.2377;0.3345;
1232.7000;0.2458;0.3490;
1233.0000;0.2466;0.3514;
1233.3000;0.2409;0.3393;
1233.6000;0.2450;0.3514;
1233.9000;0.2434;0.3442;
1234.2000;0.2458;0.3417;
1234.5000;0.2458;0.3490;
1234.8000;0.2442;0.3442;
1235.1000;0.2458;0.3417;
1235.4000;0.2450;0.3369;
1235.7000;0.2458;0.3393;
1236.0000;0.2418;0.3466;
1236.3000;0.2434;0.3466;
1236.6000;0.2466;0.3563;
1236.9000;0.2434;0.3417;
1237.2000;0.2466;0.3393;
1237.5000;0.2442;0.3296;
1237.8000;0.2466;0.3369;
1238.1000;0.2458;0.3417;
1238.4000;0.2450;0.3417;
1238.7000;0.2434;0.3393;
1239.0000;0.2450;0.3417;
1239.3000;0.2450;0.3442;
1239.6000;0.2434;0.3369;
1239.9000;0.2442;0.3393;
1240.2000;0.2483;0.3466;
1240.5000;0.2475;0.3587;
1240.8000;0.2466;0.3636;
1241.1000;0.2434;0.3514;
1241.4000;0.2450;0.3514;
1241.7000;0.2426;0.3393;
1242.0000;0.2450;0.3442;
1242.3000;0.2442;0.3393;
1242.6000;0.2458;0.3442;
1242.9000;0.2458;0.3466;
1243.2000;0.2450;0.3417;
1243.5000;0.2475;0.3417;
1243.8000;0.2466;0.3345;
1244.1000;0.2442;0.3296;
1244.4000;0.2401;0.3151;
1244.7000;0.2483;0.3296;
1245.0000;0.2418;0.3199;
1245.3000;0.2499;0.3417;
1245.6000;0.2466;0.3393;
1245.9000;0.2466;0.3369;
1246.2000;0.2458;0.3393;
1246.5000;0.2377;0.3296;
1246.8000;0.2458;0.3514;
1247.1000;0.2426;0.3466;
1247.4000;0.2507;0.3660;
1247.7000;0.2409;0.3345;
1248.0000;0.2401;0.3199;
1248.3000;0.2466;0.3224;
1248.6000;0.2589;0.3708;
1248.9000;0.2393;0.3151;
1249.2000;0.2499;0.3539;
1249.5000;0.2442;0.3417;
1249.8000;0.2450;0.3417;
1250.1000;0.2450;0.3466;
1250.4000;0.2442;0.3442;
1250.7000;0.2434;0.3393;
1251.0000;0.2475;0.3490;
1251.3000;0.2491;0.3539;
1251.6000;0.2466;0.3417;
1251.9000;0.2491;0.3442;
1252.2000;0.2458;0.3393;
1252.5000;0.2483;0.3417;
1252.8000;0.2450;0.3369;
1253.1000;0.2458;0.3320;
1253.4000;0.2442;0.3248;
1253.7000;0.2458;0.3199;
1254.0000;0.2548;0.3417;
1254.3000;0.2466;0.3296;
1254.6000;0.2458;0.3224;
1254.9000;0.2458;0.3175;
1255.2000;0.2442;0.3127;
1255.5000;0.2442;0.3248;
1255.8000;0.2450;0.3296;
1256.1000;0.2475;0.3442;
1256.4000;0.2450;0.3345;
1256.7000;0.2458;0.3393;
1257.0000;0.2450;0.3320;
1257.3000;0.2466;0.3466;
1257.6000;0.2466;0.3417;
1257.9000;0.2442;0.3320;
1258.2000;0.2466;0.3345;
1258.5000;0.2466;0.3369;
1258.8000;0.2442;0.3248;
1259.1000;0.2458;0.3296;
1259.4000;0.2458;0.3272;
1259.7000;0.2442;0.3175;
1260.0000;0.2418;0.3127;
1260.3000;0.2564;0.3636;
1260.6000;0.2434;0.3320;
1260.9000;0.2442;0.3320;
1261.2000;0.2442;0.3369;
1261.5000;0.2442;0.3417;
1261.8000;0.2450;0.3442;
1262.1000;0.2450;0.3514;
1262.4000;0.2450;0.3466;
1262.7000;0.2450;0.3442;
1263.0000;0.2361;0.3296;
1263.3000;0.2434;0.3442;
1263.6000;0.2458;0.3442;
1263.9000;0.2475;0.3466;
1264.2000;0.2466;0.3490;
1264.5000;0.2450;0.3345;
1264.8000;0.2442;0.3393;
1265.1000;0.2434;0.3490;
1265.4000;0.2466;0.3514;
1265.7000;0.2442;0.3490;
1266.0000;0.2466;0.3563;
1266.3000;0.2458;0.3442;
1266.6000;0.2458;0.3466;
1266.9000;0.2458;0.3539;
1267.2000;0.2458;0.3466;
1267.5000;0.2418;0.3393;
1267.8000;0.2442;0.3369;
1268.1000;0.2556;0.3684;
1268.4000;0.2409;0.3272;
1268.7000;0.2442;0.3369;
1269.0000;0.2475;0.3442;
1269.3000;0.2450;0.3296;
1269.6000;0.2466;0.3320;
1269.9000;0.2458;0.3417;
1270.2000;0.2450;0.3393;
1270.5000;0.2426;0.3320;
1270.8000;0.2450;0.3417;
1271.1000;0.2450;0.3466;
1271.4000;0.2483;0.3514;
1271.7000;0.2450;0.3345;
1272.0000;0.2450;0.3320;
1272.3000;0.2450;0.3296;
1272.6000;0.2499;0.3417;
1272.9000;0.2434;0.3393;
1273.2000;0.2442;0.3393;
1273.5000;0.2450;0.3320;
1273.8000;0.2458;0.3296;
1274.1000;0.2434;0.3199;
1274.4000;0.2491;0.3369;
1274.7000;0.2450;0.3345;
1275.0000;0.2434;0.3248;
1275.3000;0.2442;0.3272;
1275.6000;0.2458;0.3320;
1275.9000;0.2434;0.3248;
1276.2000;0.2450;0.3296;
1276.5000;0.2458;0.3320;
1276.8000;0.2442;0.3320;
1277.1000;0.2434;0.3345;
1277.4000;0.2442;0.3296;
1277.7000;0.2466;0.3369;
1278.0000;0.2466;0.3369;
1278.3000;0.2450;0.3296;
1278.6000;0.2450;0.3393;
1278.9000;0.2450;0.3417;
1279.2000;0.2450;0.3393;
1279.5000;0.2458;0.3369;
1279.8000;0.2466;0.3442;
1280.1000;0.2450;0.3369;
1280.4000;0.2466;0.3320;
1280.7000;0.2442;0.3175;
1281.0000;0.2475;0.3248;
1281.3000;0.2466;0.3224;
1281.6000;0.2458;0.3175;
1281.9000;0.2450;0.3102;
1282.2000;0.2475;0.3102;
1282.5000;0.2499;0.3175;
1282.8000;0.2483;0.3175;
1283.1000;0.2507;0.3296;
1283.4000;0.2450;0.3248;
1283.7000;0.2442;0.3296;
1284.0000;0.2458;0.3320;
1284.3000;0.2466;0.3248;
1284.6000;0.2450;0.3296;
1284.9000;0.2450;0.3320;
1285.2000;0.2458;0.3393;
1285.5000;0.2434;0.3320;
1285.8000;0.2450;0.3369;
1286.1000;0.2434;0.3345;
1286.4000;0.2434;0.3417;
1286.7000;0.2450;0.3393;
1287.0000;0.2393;0.3248;
1287.3000;0.2458;0.3442;
1287.6000;0.2450;0.3442;
1287.9000;0.2393;0.3320;
1288.2000;0.2393;0.3320;
1288.5000;0.2466;0.3539;
1288.8000;0.2458;0.3490;
1289.1000;0.2466;0.3466;
1289.4000;0.2466;0.3442;
1289.7000;0.2450;0.3417;
1290.0000;0.2450;0.3393;
1290.3000;0.2466;0.3442;
1290.6000;0.2458;0.3490;
1290.9000;0.2458;0.3417;
1291.2000;0.2450;0.3442;
1291.5000;0.2450;0.3393;
1291.8000;0.2434;0.3417;
1292.1000;0.2450;0.3417;
1292.4000;0.2450;0.3345;
1292.7000;0.2458;0.3514;
1293.0000;0.2450;0.3539;
1293.3000;0.2450;0.3514;
1293.6000;0.2442;0.3490;
1293.9000;0.2475;0.3539;
1294.2000;0.2458;0.3466;
1294.5000;0.2426;0.3393;
1294.8000;0.2442;0.3539;
1295.1000;0.2442;0.3539;
1295.4000;0.2401;0.3514;
1295.7000;0.2450;0.3636;
1296.0000;0.2475;0.3684;
1296.3000;0.2450;0.3587;
1296.6000;0.2458;0.3611;
1296.9000;0.2426;0.3490;
1297.2000;0.2458;0.3539;
1297.5000;0.2442;0.3490;
1297.8000;0.2466;0.3611;
1298.1000;0.2466;0.3660;
1298.4000;0.2442;0.3636;
1298.7000;0.2450;0.3733;
1299.0000;0.2442;0.3757;
1299.3000;0.2475;0.3757;
1299.6000;0.2466;0.3733;
1299.9000;0.2458;0.3611;
1300.2000;0.2450;0.3466;
1300.5000;0.2426;0.3442;
1300.8000;0.2434;0.3417;
1301.1000;0.2450;0.3490;
1301.4000;0.2442;0.3514;
1301.7000;0.2466;0.3563;
1302.0000;0.2466;0.3514;
1302.3000;0.2393;0.3345;
1302.6000;0.2401;0.3369;
1302.9000;0.2466;0.3490;
1303.2000;0.2466;0.3539;
1303.5000;0.2450;0.3466;
1303.8000;0.2466;0.3490;
1304.1000;0.2458;0.3466;
1304.4000;0.2466;0.3514;
1304.7000;0.2466;0.3514;
1305.0000;0.2466;0.3539;
1305.3000;0.2450;0.3417;
1305.6000;0.2458;0.3393;
1305.9000;0.2450;0.3369;
1306.2000;0.2450;0.3345;
1306.5000;0.2442;0.3296;
1306.8000;0.2434;0.3224;
1307.1000;0.2597;0.3611;
1307.4000;0.2442;0.3199;
1307.7000;0.2466;0.3345;
1308.0000;0.2458;0.3369;
1308.3000;0.2458;0.3320;
1308.6000;0.2458;0.3272;
1308.9000;0.2483;0.3393;
1309.2000;0.2450;0.3369;
1309.5000;0.2475;0.3466;
1309.8000;0.2442;0.3442;
1310.1000;0.2450;0.3442;
1310.4000;0.2458;0.3514;
1310.7000;0.2442;0.3539;
1311.0000;0.2442;0.3490;
1311.3000;0.2450;0.3514;
1311.6000;0.2442;0.3514;
1311.9000;0.2458;0.3442;
1312.2000;0.2426;0.3272;
1312.5000;0.2442;0.3417;
1312.8000;0.2442;0.3345;
1313.1000;0.2450;0.3369;
1313.4000;0.2458;0.3345;
1313.7000;0.2450;0.3272;
1314.0000;0.2442;0.3320;
1314.3000;0.2450;0.3296;
1314.6000;0.2450;0.3320;
1314.9000;0.2475;0.3393;
1315.2000;0.2483;0.3490;
1315.5000;0.2450;0.3490;
1315.8000;0.2475;0.3393;
1316.1000;0.2458;0.3296;
1316.4000;0.2466;0.3320;
1316.7000;0.2442;0.3320;
1317.0000;0.2450;0.3417;
1317.3000;0.2450;0.3442;
1317.6000;0.2475;0.3466;
1317.9000;0.2458;0.3345;
1318.2000;0.2450;0.3248;
1318.5000;0.2458;0.3320;
1318.8000;0.2450;0.3320;
1319.1000;0.2458;0.3296;
1319.4000;0.2466;0.3320;
1319.7000;0.2475;0.3369;
1320.0000;0.2450;0.3272;
1320.3000;0.2450;0.3369;
1320.6000;0.2450;0.3345;
1320.9000;0.2442;0.3320;
1321.2000;0.2442;0.3224;
1321.5000;0.2434;0.3102;
1321.8000;0.2442;0.3127;
1322.1000;0.2434;0.3224;
1322.4000;0.2426;0.3320;
1322.7000;0.2434;0.3320;
1323.0000;0.2475;0.3417;
1323.3000;0.2507;0.3466;
1323.6000;0.2466;0.3490;
1323.9000;0.2450;0.3490;
1324.2000;0.2458;0.3442;
1324.5000;0.2466;0.3442;
1324.8000;0.2491;0.3417;
1325.1000;0.2458;0.3296;
1325.4000;0.2369;0.3127;
1325.7000;0.2458;0.3369;
1326.0000;0.2466;0.3345;
1326.3000;0.2450;0.3345;
1326.6000;0.2458;0.3248;
1326.9000;0.2458;0.3248;
1327.2000;0.2483;0.3369;
1327.5000;0.2426;0.3199;
1327.8000;0.2458;0.3248;
1328.1000;0.2450;0.3175;
1328.4000;0.2458;0.3296;
1328.7000;0.2475;0.3320;
1329.0000;0.2466;0.3272;
1329.3000;0.2385;0.3102;
1329.6000;0.2491;0.3369;
1329.9000;0.2458;0.3320;
1330.2000;0.2450;0.3393;
1330.5000;0.2458;0.3417;
1330.8000;0.2475;0.3442;
1331.1000;0.2458;0.3490;
1331.4000;0.2442;0.3417;
1331.7000;0.2450;0.3490;
1332.0000;0.2458;0.3539;
1332.3000;0.2442;0.3490;
1332.6000;0.2450;0.3514;
1332.9000;0.2507;0.3757;
1333.2000;0.2450;0.3660;
1333.5000;0.2442;0.3636;
1333.8000;0.2450;0.3587;
1334.1000;0.2458;0.3563;
1334.4000;0.2442;0.3490;
1334.7000;0.2434;0.3514;
1335.0000;0.2466;0.3539;
1335.3000;0.2458;0.3514;
1335.6000;0.2450;0.3466;
1335.9000;0.2466;0.3442;
1336.2000;0.2450;0.3490;
1336.5000;0.2523;0.3636;
1336.8000;0.2450;0.3442;
1337.1000;0.2458;0.3514;
1337.4000;0.2483;0.3490;
1337.7000;0.2458;0.3369;
1338.0000;0.2458;0.3272;
1338.3000;0.2442;0.3199;
1338.6000;0.2458;0.3224;
1338.9000;0.2475;0.3272;
1339.2000;0.2515;0.3393;
1339.5000;0.2458;0.3320;
1339.8000;0.2499;0.3417;
1340.1000;0.2556;0.3563;
1340.4000;0.2450;0.3296;
1340.7000;0.2466;0.3320;
1341.0000;0.2499;0.3442;
1341.3000;0.2450;0.3296;
1341.6000;0.2450;0.3320;
1341.9000;0.2426;0.3296;
1342.2000;0.2409;0.3151;
1342.5000;0.2369;0.3030;
1342.8000;0.2458;0.3224;
1343.1000;0.2450;0.3248;
1343.4000;0.2450;0.3320;
1343.7000;0.2450;0.3345;
1344.0000;0.2466;0.3466;
1344.3000;0.2442;0.3514;
1344.6000;0.2458;0.3490;
1344.9000;0.2466;0.3539;
1345.2000;0.2458;0.3636;
1345.5000;0.2409;0.3466;
1345.8000;0.2450;0.3587;
1346.1000;0.2466;0.3514;
1346.4000;0.2483;0.3490;
1346.7000;0.2466;0.3442;
1347.0000;0.2434;0.3442;
1347.3000;0.2458;0.3393;
1347.6000;0.2466;0.3369;
1347.9000;0.2401;0.3296;
1348.2000;0.2450;0.3345;
1348.5000;0.2434;0.3296;
1348.8000;0.2458;0.3199;
1349.1000;0.2491;0.3248;
1349.4000;0.2409;0.3151;
1349.7000;0.2458;0.3369;
1350.0000;0.2491;0.3369;
1350.3000;0.2466;0.3369;
1350.6000;0.2475;0.3369;
1350.9000;0.2458;0.3369;
1351.2000;0.2475;0.3369;
1351.5000;0.2458;0.3296;
1351.8000;0.2450;0.3296;
1352.1000;0.2450;0.3248;
1352.4000;0.2475;0.3345;
1352.7000;0.2475;0.3369;
1353.0000;0.2450;0.3345;
1353.3000;0.2442;0.3393;
1353.6000;0.2450;0.3393;
1353.9000;0.2450;0.3320;
1354.2000;0.2442;0.3320;
1354.5000;0.2450;0.3345;
1354.8000;0.2442;0.3320;
1355.1000;0.2393;0.3175;
1355.4000;0.2450;0.3296;
1355.7000;0.2442;0.3345;
1356.0000;0.2458;0.3393;
1356.3000;0.2458;0.3369;
1356.6000;0.2442;0.3393;
1356.9000;0.2466;0.3345;
1357.2000;0.2450;0.3248;
1357.5000;0.2442;0.3199;
1357.8000;0.2458;0.3248;
1358.1000;0.2304;0.2957;
1358.4000;0.2475;0.3417;
1358.7000;0.2450;0.3393;
1359.0000;0.2442;0.3442;
1359.3000;0.2466;0.3490;
1359.6000;0.2442;0.3417;
1359.9000;0.2442;0.3393;
1360.2000;0.2450;0.3442;
1360.5000;0.2450;0.3490;
1360.8000;0.2458;0.3514;
1361.1000;0.2393;0.3369;
1361.4000;0.2515;0.3733;
1361.7000;0.2466;0.3514;
1362.0000;0.2450;0.3466;
1362.3000;0.2450;0.3490;
1362.6000;0.2458;0.3514;
1362.9000;0.2466;0.3490;
1363.2000;0.2418;0.3320;
1363.5000;0.2450;0.3369;
1363.8000;0.2450;0.3417;
1364.1000;0.2466;0.3466;
1364.4000;0.2458;0.3466;
1364.7000;0.2475;0.3466;
1365.0000;0.2434;0.3393;
1365.3000;0.2466;0.3466;
1365.6000;0.2442;0.3393;
1365.9000;0.2450;0.3369;
1366.2000;0.2450;0.3345;
1366.5000;0.2589;0.3611;
1366.8000;0.2483;0.3393;
1367.1000;0.2466;0.3417;
1367.4000;0.2418;0.3175;
1367.7000;0.2458;0.3296;
1368.0000;0.2442;0.3272;
1368.3000;0.2450;0.3320;
1368.6000;0.2442;0.3417;
1368.9000;0.2450;0.3393;
1369.2000;0.2442;0.3320;
1369.5000;0.2499;0.3393;
1369.8000;0.2466;0.3272;
1370.1000;0.2491;0.3369;
1370.4000;0.2466;0.3345;
1370.7000;0.2466;0.3369;
1371.0000;0.2466;0.3369;
1371.3000;0.2418;0.3320;
1371.6000;0.2458;0.3442;
1371.9000;0.2466;0.3490;
1372.2000;0.2458;0.3514;
1372.5000;0.2523;0.3757;
1372.8000;0.2450;0.3514;
1373.1000;0.2442;0.3514;
1373.4000;0.2458;0.3563;
1373.7000;0.2466;0.3514;
1374.0000;0.2458;0.3442;
1374.3000;0.2466;0.3442;
1374.6000;0.2466;0.3417;
1374.9000;0.2450;0.3393;
1375.2000;0.2450;0.3369;
1375.5000;0.2466;0.3369;
1375.8000;0.2507;0.3514;
1376.1000;0.2450;0.3345;
1376.4000;0.2458;0.3417;
1376.7000;0.2426;0.3272;
1377.0000;0.2450;0.3442;
1377.3000;0.2450;0.3442;
1377.6000;0.2450;0.3514;
1377.9000;0.2450;0.3563;
1378.2000;0.2450;0.3539;
1378.5000;0.2475;0.3539;
1378.8000;0.2442;0.3490;
1379.1000;0.2442;0.3442;
1379.4000;0.2434;0.3466;
1379.7000;0.2401;0.3490;
1380.0000;0.2458;0.3636;
1380.3000;0.2466;0.3563;
1380.6000;0.2458;0.3490;
1380.9000;0.2466;0.3393;
1381.2000;0.2450;0.3345;
1381.5000;0.2564;0.3708;
1381.8000;0.2466;0.3539;
1382.1000;0.2466;0.3563;
1382.4000;0.2458;0.3466;
1382.7000;0.2466;0.3417;
1383.0000;0.2450;0.3442;
1383.3000;0.2361;0.3296;
1383.6000;0.2458;0.3514;
1383.9000;0.2442;0.3587;
1384.2000;0.2458;0.3539;
1384.5000;0.2450;0.3320;
1384.8000;0.2450;0.3248;
1385.1000;0.2572;0.3660;
1385.4000;0.2466;0.3417;
1385.7000;0.2458;0.3320;
1386.0000;0.2458;0.3369;
1386.3000;0.2442;0.3320;
1386.6000;0.2450;0.3296;
1386.9000;0.2442;0.3248;
1387.2000;0.2458;0.3272;
1387.5000;0.2458;0.3345;
1387.8000;0.2450;0.3345;
1388.1000;0.2442;0.3296;
1388.4000;0.2499;0.3466;
1388.7000;0.2475;0.3393;
1389.0000;0.2458;0.3320;
1389.3000;0.2466;0.3417;
1389.6000;0.2450;0.3296;
1389.9000;0.2466;0.3393;
1390.2000;0.2466;0.3345;
1390.5000;0.2434;0.3224;
1390.8000;0.2450;0.3345;
1391.1000;0.2466;0.3345;
1391.4000;0.2450;0.3393;
1391.7000;0.2458;0.3417;
1392.0000;0.2458;0.3490;
1392.3000;0.2442;0.3563;
1392.6000;0.2466;0.3636;
1392.9000;0.2466;0.3539;
1393.2000;0.2434;0.3514;
1393.5000;0.2475;0.3636;
1393.8000;0.2434;0.3539;
1394.1000;0.2458;0.3636;
1394.4000;0.2450;0.3660;
1394.7000;0.2466;0.3587;
1395.0000;0.2458;0.3514;
1395.3000;0.2377;0.3248;
1395.6000;0.2442;0.3490;
1395.9000;0.2475;0.3563;
1396.2000;0.2548;0.3708;
1396.5000;0.2418;0.3320;
1396.8000;0.2483;0.3442;
1397.1000;0.2426;0.3248;
1397.4000;0.2450;0.3345;
1397.7000;0.2466;0.3417;
1398.0000;0.2450;0.3369;
1398.3000;0.2458;0.3417;
1398.6000;0.2450;0.3393;
1398.9000;0.2515;0.3611;
1399.2000;0.2475;0.3514;
1399.5000;0.2442;0.3442;
1399.8000;0.2548;0.3733;
