time/ms;Fluo/V;P700 deltaI/I x10³;
-199.8000;0.2466;0.4678;
-199.5000;0.2442;0.4702;
-199.2000;0.2466;0.4799;
-198.9000;0.2450;0.4750;
-198.6000;0.2466;0.4823;
-198.3000;0.2369;0.4629;
-198.0000;0.2523;0.5017;
-197.7000;0.2475;0.4944;
-197.4000;0.2426;0.4775;
-197.1000;0.2434;0.4750;
-196.8000;0.2483;0.4799;
-196.5000;0.2344;0.4557;
-196.2000;0.2418;0.4799;
-195.9000;0.2466;0.4896;
-195.6000;0.2393;0.4654;
-195.3000;0.2466;0.4726;
-195.0000;0.2564;0.4944;
-194.7000;0.2418;0.4532;
-194.4000;0.2450;0.4654;
-194.1000;0.2466;0.4775;
-193.8000;0.2475;0.4799;
-193.5000;0.2434;0.4775;
-193.2000;0.2491;0.4823;
-192.9000;0.2475;0.4799;
-192.6000;0.2369;0.4411;
-192.3000;0.2418;0.4581;
-192.0000;0.2507;0.4823;
-191.7000;0.2475;0.4654;
-191.4000;0.2458;0.4702;
-191.1000;0.2466;0.4654;
-190.8000;0.2491;0.4726;
-190.5000;0.2475;0.4654;
-190.2000;0.2466;0.4605;
-189.9000;0.2450;0.4654;
-189.6000;0.2483;0.4702;
-189.3000;0.2475;0.4702;
-189.0000;0.2475;0.4702;
-188.7000;0.2450;0.4629;
-188.4000;0.2466;0.4581;
-188.1000;0.2458;0.4557;
-187.8000;0.2483;0.4726;
-187.5000;0.2475;0.4557;
-187.2000;0.2483;0.4557;
-186.9000;0.2458;0.4532;
-186.6000;0.2475;0.4532;
-186.3000;0.2515;0.4557;
-186.0000;0.2409;0.4363;
-185.7000;0.2491;0.4557;
-185.4000;0.2491;0.4557;
-185.1000;0.2466;0.4581;
-184.8000;0.2401;0.4435;
-184.5000;0.2466;0.4726;
-184.2000;0.2466;0.4678;
-183.9000;0.2515;0.4750;
-183.6000;0.2475;0.4581;
-183.3000;0.2458;0.4484;
-183.0000;0.2507;0.4654;
-182.7000;0.2466;0.4557;
-182.4000;0.2466;0.4581;
-182.1000;0.2466;0.4532;
-181.8000;0.2458;0.4557;
-181.5000;0.2483;0.4532;
-181.2000;0.2483;0.4484;
-180.9000;0.2450;0.4411;
-180.6000;0.2475;0.4484;
-180.3000;0.2466;0.4484;
-180.0000;0.2458;0.4411;
-179.7000;0.2515;0.4532;
-179.4000;0.2466;0.4460;
-179.1000;0.2434;0.4460;
-178.8000;0.2458;0.4605;
-178.5000;0.2491;0.4654;
-178.2000;0.2458;0.4557;
-177.9000;0.2466;0.4557;
-177.6000;0.2442;0.4460;
-177.3000;0.2475;0.4532;
-177.0000;0.2491;0.4508;
-176.7000;0.2499;0.4581;
-176.4000;0.2491;0.4581;
-176.1000;0.2540;0.4654;
-175.8000;0.2450;0.4484;
-175.5000;0.2458;0.4460;
-175.2000;0.2458;0.4460;
-174.9000;0.2450;0.4460;
-174.6000;0.2475;0.4508;
-174.3000;0.2507;0.4605;
-174.0000;0.2458;0.4435;
-173.7000;0.2458;0.4338;
-173.4000;0.2475;0.4435;
-173.1000;0.2499;0.4484;
-172.8000;0.2466;0.4411;
-172.5000;0.2401;0.4314;
-172.2000;0.2483;0.4557;
-171.9000;0.2475;0.4532;
-171.6000;0.2450;0.4460;
-171.3000;0.2458;0.4484;
-171.0000;0.2475;0.4460;
-170.7000;0.2483;0.4484;
-170.4000;0.2442;0.4387;
-170.1000;0.2434;0.4460;
-169.8000;0.2475;0.4605;
-169.5000;0.2475;0.4654;
-169.2000;0.2475;0.4581;
-168.9000;0.2475;0.4605;
-168.6000;0.2458;0.4605;
-168.3000;0.2475;0.4605;
-168.0000;0.2491;0.4581;
-167.7000;0.2458;0.4508;
-167.4000;0.2483;0.4581;
-167.1000;0.2499;0.4605;
-166.8000;0.2475;0.4557;
-166.5000;0.2483;0.4484;
-166.2000;0.2483;0.4508;
-165.9000;0.2475;0.4508;
-165.6000;0.2483;0.4532;
-165.3000;0.2475;0.4484;
-165.0000;0.2483;0.4484;
-164.7000;0.2475;0.4460;
-164.4000;0.2491;0.4484;
-164.1000;0.2442;0.4484;
-163.8000;0.2458;0.4411;
-163.5000;0.2466;0.4411;
-163.2000;0.2466;0.4484;
-162.9000;0.2458;0.4508;
-162.6000;0.2458;0.4484;
-162.3000;0.2483;0.4435;
-162.0000;0.2475;0.4484;
-161.7000;0.2483;0.4508;
-161.4000;0.2491;0.4532;
-161.1000;0.2483;0.4557;
-160.8000;0.2458;0.4557;
-160.5000;0.2458;0.4557;
-160.2000;0.2499;0.4629;
-159.9000;0.2393;0.4387;
-159.6000;0.2434;0.4581;
-159.3000;0.2466;0.4678;
-159.0000;0.2483;0.4629;
-158.7000;0.2466;0.4629;
-158.4000;0.2450;0.4678;
-158.1000;0.2458;0.4557;
-157.8000;0.2458;0.4557;
-157.5000;0.2450;0.4532;
-157.2000;0.2483;0.4581;
-156.9000;0.2466;0.4605;
-156.6000;0.2491;0.4678;
-156.3000;0.2466;0.4654;
-156.0000;0.2515;0.4799;
-155.7000;0.2483;0.4702;
-155.4000;0.2475;0.4581;
-155.1000;0.2466;0.4532;
-154.8000;0.2458;0.4581;
-154.5000;0.2507;0.4581;
-154.2000;0.2499;0.4557;
-153.9000;0.2418;0.4387;
-153.6000;0.2450;0.4508;
-153.3000;0.2475;0.4581;
-153.0000;0.2515;0.4654;
-152.7000;0.2418;0.4363;
-152.4000;0.2466;0.4508;
-152.1000;0.2458;0.4557;
-151.8000;0.2466;0.4581;
-151.5000;0.2458;0.4484;
-151.2000;0.2475;0.4484;
-150.9000;0.2483;0.4508;
-150.6000;0.2475;0.4460;
-150.3000;0.2475;0.4411;
-150.0000;0.2475;0.4435;
-149.7000;0.2450;0.4363;
-149.4000;0.2458;0.4363;
-149.1000;0.2466;0.4290;
-148.8000;0.2466;0.4387;
-148.5000;0.2434;0.4266;
-148.2000;0.2466;0.4363;
-147.9000;0.2458;0.4363;
-147.6000;0.2458;0.4435;
-147.3000;0.2458;0.4484;
-147.0000;0.2458;0.4435;
-146.7000;0.2475;0.4508;
-146.4000;0.2466;0.4532;
-146.1000;0.2466;0.4460;
-145.8000;0.2475;0.4557;
-145.5000;0.2475;0.4605;
-145.2000;0.2483;0.4678;
-144.9000;0.2475;0.4557;
-144.6000;0.2409;0.4338;
-144.3000;0.2458;0.4532;
-144.0000;0.2418;0.4532;
-143.7000;0.2475;0.4654;
-143.4000;0.2466;0.4605;
-143.1000;0.2458;0.4508;
-142.8000;0.2458;0.4484;
-142.5000;0.2475;0.4532;
-142.2000;0.2385;0.4387;
-141.9000;0.2475;0.4678;
-141.6000;0.2458;0.4629;
-141.3000;0.2466;0.4629;
-141.0000;0.2523;0.4726;
-140.7000;0.2475;0.4532;
-140.4000;0.2466;0.4435;
-140.1000;0.2475;0.4411;
-139.8000;0.2483;0.4508;
-139.5000;0.2426;0.4460;
-139.2000;0.2458;0.4605;
-138.9000;0.2450;0.4629;
-138.6000;0.2466;0.4750;
-138.3000;0.2458;0.4750;
-138.0000;0.2450;0.4702;
-137.7000;0.2475;0.4678;
-137.4000;0.2523;0.4799;
-137.1000;0.2483;0.4581;
-136.8000;0.2466;0.4435;
-136.5000;0.2499;0.4435;
-136.2000;0.2475;0.4460;
-135.9000;0.2515;0.4532;
-135.6000;0.2466;0.4435;
-135.3000;0.2458;0.4484;
-135.0000;0.2491;0.4508;
-134.7000;0.2483;0.4508;
-134.4000;0.2483;0.4581;
-134.1000;0.2475;0.4557;
-133.8000;0.2466;0.4629;
-133.5000;0.2466;0.4581;
-133.2000;0.2483;0.4581;
-132.9000;0.2458;0.4508;
-132.6000;0.2450;0.4363;
-132.3000;0.2466;0.4460;
-132.0000;0.2458;0.4508;
-131.7000;0.2466;0.4581;
-131.4000;0.2466;0.4581;
-131.1000;0.2466;0.4557;
-130.8000;0.2466;0.4484;
-130.5000;0.2491;0.4411;
-130.2000;0.2466;0.4338;
-129.9000;0.2458;0.4435;
-129.6000;0.2458;0.4266;
-129.3000;0.2466;0.4338;
-129.0000;0.2450;0.4338;
-128.7000;0.2450;0.4387;
-128.4000;0.2483;0.4460;
-128.1000;0.2466;0.4387;
-127.8000;0.2442;0.4338;
-127.5000;0.2475;0.4290;
-127.2000;0.2442;0.4193;
-126.9000;0.2466;0.4169;
-126.6000;0.2515;0.4242;
-126.3000;0.2466;0.4145;
-126.0000;0.2458;0.4120;
-125.7000;0.2491;0.4290;
-125.4000;0.2458;0.4363;
-125.1000;0.2450;0.4314;
-124.8000;0.2475;0.4338;
-124.5000;0.2475;0.4363;
-124.2000;0.2466;0.4338;
-123.9000;0.2475;0.4387;
-123.6000;0.2499;0.4532;
-123.3000;0.2466;0.4435;
-123.0000;0.2442;0.4484;
-122.7000;0.2442;0.4508;
-122.4000;0.2466;0.4508;
-122.1000;0.2475;0.4508;
-121.8000;0.2466;0.4557;
-121.5000;0.2483;0.4678;
-121.2000;0.2450;0.4629;
-120.9000;0.2483;0.4557;
-120.6000;0.2475;0.4508;
-120.3000;0.2475;0.4411;
-120.0000;0.2458;0.4290;
-119.7000;0.2475;0.4338;
-119.4000;0.2483;0.4290;
-119.1000;0.2466;0.4266;
-118.8000;0.2434;0.4266;
-118.5000;0.2466;0.4411;
-118.2000;0.2475;0.4435;
-117.9000;0.2458;0.4411;
-117.6000;0.2458;0.4338;
-117.3000;0.2475;0.4435;
-117.0000;0.2580;0.4775;
-116.7000;0.2409;0.4387;
-116.4000;0.2483;0.4484;
-116.1000;0.2475;0.4387;
-115.8000;0.2483;0.4484;
-115.5000;0.2466;0.4460;
-115.2000;0.2475;0.4532;
-114.9000;0.2475;0.4532;
-114.6000;0.2523;0.4702;
-114.3000;0.2475;0.4581;
-114.0000;0.2483;0.4557;
-113.7000;0.2466;0.4629;
-113.4000;0.2466;0.4605;
-113.1000;0.2475;0.4629;
-112.8000;0.2532;0.4702;
-112.5000;0.2475;0.4581;
-112.2000;0.2475;0.4678;
-111.9000;0.2466;0.4678;
-111.6000;0.2483;0.4654;
-111.3000;0.2458;0.4557;
-111.0000;0.2483;0.4557;
-110.7000;0.2466;0.4532;
-110.4000;0.2466;0.4557;
-110.1000;0.2483;0.4654;
-109.8000;0.2466;0.4605;
-109.5000;0.2483;0.4654;
-109.2000;0.2483;0.4654;
-108.9000;0.2466;0.4581;
-108.6000;0.2458;0.4484;
-108.3000;0.2475;0.4460;
-108.0000;0.2475;0.4460;
-107.7000;0.2458;0.4532;
-107.4000;0.2466;0.4557;
-107.1000;0.2450;0.4460;
-106.8000;0.2499;0.4605;
-106.5000;0.2466;0.4508;
-106.2000;0.2336;0.4217;
-105.9000;0.2466;0.4557;
-105.6000;0.2475;0.4557;
-105.3000;0.2483;0.4605;
-105.0000;0.2499;0.4654;
-104.7000;0.2475;0.4654;
-104.4000;0.2442;0.4654;
-104.1000;0.2475;0.4605;
-103.8000;0.2499;0.4654;
-103.5000;0.2450;0.4581;
-103.2000;0.2458;0.4629;
-102.9000;0.2466;0.4605;
-102.6000;0.2458;0.4629;
-102.3000;0.2466;0.4654;
-102.0000;0.2475;0.4702;
-101.7000;0.2426;0.4581;
-101.4000;0.2458;0.4726;
-101.1000;0.2450;0.4702;
-100.8000;0.2458;0.4678;
-100.5000;0.2466;0.4678;
-100.2000;0.2466;0.4678;
-99.9000;0.2450;0.4654;
-99.6000;0.2466;0.4750;
-99.3000;0.2475;0.4750;
-99.0000;0.2466;0.4823;
-98.7000;0.2369;0.4484;
-98.4000;0.2475;0.4726;
-98.1000;0.2475;0.4726;
-97.8000;0.2466;0.4702;
-97.5000;0.2475;0.4678;
-97.2000;0.2466;0.4605;
-96.9000;0.2475;0.4557;
-96.6000;0.2483;0.4629;
-96.3000;0.2466;0.4581;
-96.0000;0.2499;0.4678;
-95.7000;0.2475;0.4581;
-95.4000;0.2475;0.4654;
-95.1000;0.2483;0.4726;
-94.8000;0.2442;0.4654;
-94.5000;0.2515;0.4775;
-94.2000;0.2491;0.4726;
-93.9000;0.2426;0.4532;
-93.6000;0.2442;0.4629;
-93.3000;0.2475;0.4726;
-93.0000;0.2466;0.4702;
-92.7000;0.2507;0.4872;
-92.4000;0.2458;0.4654;
-92.1000;0.2458;0.4605;
-91.8000;0.2475;0.4557;
-91.5000;0.2475;0.4435;
-91.2000;0.2483;0.4435;
-90.9000;0.2475;0.4435;
-90.6000;0.2458;0.4411;
-90.3000;0.2475;0.4363;
-90.0000;0.2466;0.4387;
-89.7000;0.2458;0.4411;
-89.4000;0.2466;0.4484;
-89.1000;0.2475;0.4557;
-88.8000;0.2458;0.4532;
-88.5000;0.2466;0.4532;
-88.2000;0.2458;0.4508;
-87.9000;0.2499;0.4605;
-87.6000;0.2450;0.4605;
-87.3000;0.2475;0.4654;
-87.0000;0.2466;0.4605;
-86.7000;0.2466;0.4629;
-86.4000;0.2475;0.4654;
-86.1000;0.2507;0.4750;
-85.8000;0.2466;0.4557;
-85.5000;0.2466;0.4581;
-85.2000;0.2507;0.4678;
-84.9000;0.2466;0.4605;
-84.6000;0.2450;0.4581;
-84.3000;0.2442;0.4605;
-84.0000;0.2483;0.4678;
-83.7000;0.2499;0.4702;
-83.4000;0.2466;0.4581;
-83.1000;0.2450;0.4484;
-82.8000;0.2466;0.4508;
-82.5000;0.2466;0.4557;
-82.2000;0.2450;0.4532;
-81.9000;0.2466;0.4460;
-81.6000;0.2458;0.4508;
-81.3000;0.2491;0.4557;
-81.0000;0.2475;0.4532;
-80.7000;0.2450;0.4532;
-80.4000;0.2475;0.4654;
-80.1000;0.2458;0.4581;
-79.8000;0.2466;0.4581;
-79.5000;0.2466;0.4460;
-79.2000;0.2475;0.4508;
-78.9000;0.2401;0.4363;
-78.6000;0.2483;0.4435;
-78.3000;0.2466;0.4363;
-78.0000;0.2483;0.4460;
-77.7000;0.2475;0.4460;
-77.4000;0.2483;0.4532;
-77.1000;0.2483;0.4508;
-76.8000;0.2450;0.4338;
-76.5000;0.2483;0.4363;
-76.2000;0.2483;0.4435;
-75.9000;0.2466;0.4387;
-75.6000;0.2458;0.4387;
-75.3000;0.2458;0.4508;
-75.0000;0.2458;0.4605;
-74.7000;0.2491;0.4654;
-74.4000;0.2475;0.4532;
-74.1000;0.2475;0.4484;
-73.8000;0.2499;0.4557;
-73.5000;0.2491;0.4581;
-73.2000;0.2466;0.4484;
-72.9000;0.2458;0.4460;
-72.6000;0.2491;0.4629;
-72.3000;0.2475;0.4532;
-72.0000;0.2466;0.4508;
-71.7000;0.2475;0.4508;
-71.4000;0.2458;0.4508;
-71.1000;0.2491;0.4532;
-70.8000;0.2466;0.4508;
-70.5000;0.2475;0.4557;
-70.2000;0.2466;0.4605;
-69.9000;0.2466;0.4532;
-69.6000;0.2434;0.4411;
-69.3000;0.2466;0.4532;
-69.0000;0.2466;0.4629;
-68.7000;0.2540;0.4799;
-68.4000;0.2483;0.4702;
-68.1000;0.2458;0.4605;
-67.8000;0.2466;0.4581;
-67.5000;0.2393;0.4460;
-67.2000;0.2556;0.4823;
-66.9000;0.2556;0.4775;
-66.6000;0.2597;0.4896;
-66.3000;0.2458;0.4605;
-66.0000;0.2483;0.4605;
-65.7000;0.2475;0.4581;
-65.4000;0.2466;0.4581;
-65.1000;0.2483;0.4702;
-64.8000;0.2475;0.4702;
-64.5000;0.2483;0.4750;
-64.2000;0.2458;0.4605;
-63.9000;0.2483;0.4557;
-63.6000;0.2483;0.4557;
-63.3000;0.2483;0.4484;
-63.0000;0.2475;0.4435;
-62.7000;0.2385;0.4217;
-62.4000;0.2466;0.4435;
-62.1000;0.2475;0.4508;
-61.8000;0.2361;0.4266;
-61.5000;0.2458;0.4557;
-61.2000;0.2450;0.4557;
-60.9000;0.2483;0.4654;
-60.6000;0.2491;0.4654;
-60.3000;0.2442;0.4532;
-60.0000;0.2458;0.4678;
-59.7000;0.2483;0.4702;
-59.4000;0.2466;0.4702;
-59.1000;0.2523;0.4896;
-58.8000;0.2466;0.4726;
-58.5000;0.2466;0.4726;
-58.2000;0.2556;0.4944;
-57.9000;0.2458;0.4726;
-57.6000;0.2475;0.4726;
-57.3000;0.2466;0.4726;
-57.0000;0.2426;0.4605;
-56.7000;0.2466;0.4775;
-56.4000;0.2458;0.4678;
-56.1000;0.2491;0.4775;
-55.8000;0.2475;0.4750;
-55.5000;0.2540;0.4920;
-55.2000;0.2458;0.4750;
-54.9000;0.2458;0.4678;
-54.6000;0.2475;0.4702;
-54.3000;0.2458;0.4678;
-54.0000;0.2466;0.4799;
-53.7000;0.2483;0.4799;
-53.4000;0.2434;0.4726;
-53.1000;0.2475;0.4799;
-52.8000;0.2450;0.4654;
-52.5000;0.2426;0.4557;
-52.2000;0.2483;0.4654;
-51.9000;0.2475;0.4557;
-51.6000;0.2458;0.4484;
-51.3000;0.2466;0.4508;
-51.0000;0.2458;0.4508;
-50.7000;0.2491;0.4532;
-50.4000;0.2450;0.4387;
-50.1000;0.2466;0.4508;
-49.8000;0.2458;0.4605;
-49.5000;0.2475;0.4605;
-49.2000;0.2418;0.4460;
-48.9000;0.2466;0.4726;
-48.6000;0.2458;0.4678;
-48.3000;0.2483;0.4726;
-48.0000;0.2483;0.4702;
-47.7000;0.2475;0.4702;
-47.4000;0.2458;0.4678;
-47.1000;0.2450;0.4605;
-46.8000;0.2499;0.4654;
-46.5000;0.2507;0.4702;
-46.2000;0.2442;0.4557;
-45.9000;0.2409;0.4460;
-45.6000;0.2523;0.4799;
-45.3000;0.2458;0.4605;
-45.0000;0.2352;0.4314;
-44.7000;0.2458;0.4557;
-44.4000;0.2458;0.4484;
-44.1000;0.2466;0.4581;
-43.8000;0.2450;0.4581;
-43.5000;0.2458;0.4629;
-43.2000;0.2458;0.4726;
-42.9000;0.2466;0.4726;
-42.6000;0.2491;0.4799;
-42.3000;0.2475;0.4726;
-42.0000;0.2434;0.4581;
-41.7000;0.2483;0.4750;
-41.4000;0.2475;0.4775;
-41.1000;0.2466;0.4750;
-40.8000;0.2344;0.4460;
-40.5000;0.2507;0.4847;
-40.2000;0.2466;0.4750;
-39.9000;0.2458;0.4750;
-39.6000;0.2466;0.4775;
-39.3000;0.2475;0.4750;
-39.0000;0.2458;0.4702;
-38.7000;0.2442;0.4629;
-38.4000;0.2475;0.4678;
-38.1000;0.2483;0.4726;
-37.8000;0.2475;0.4702;
-37.5000;0.2483;0.4799;
-37.2000;0.2475;0.4775;
-36.9000;0.2475;0.4799;
-36.6000;0.2475;0.4799;
-36.3000;0.2434;0.4654;
-36.0000;0.2475;0.4799;
-35.7000;0.2466;0.4654;
-35.4000;0.2491;0.4557;
-35.1000;0.2450;0.4435;
-34.8000;0.2466;0.4508;
-34.5000;0.2491;0.4557;
-34.2000;0.2491;0.4654;
-33.9000;0.2491;0.4702;
-33.6000;0.2466;0.4581;
-33.3000;0.2450;0.4508;
-33.0000;0.2466;0.4557;
-32.7000;0.2483;0.4702;
-32.4000;0.2466;0.4678;
-32.1000;0.2450;0.4605;
-31.8000;0.2466;0.4654;
-31.5000;0.2499;0.4823;
-31.2000;0.2475;0.4702;
-30.9000;0.2450;0.4605;
-30.6000;0.2491;0.4605;
-30.3000;0.2515;0.4750;
-30.0000;0.2466;0.4678;
-29.7000;0.2418;0.4605;
-29.4000;0.2418;0.4678;
-29.1000;0.2475;0.4823;
-28.8000;0.2475;0.4823;
-28.5000;0.2466;0.4847;
-28.2000;0.2458;0.4750;
-27.9000;0.2475;0.4823;
-27.6000;0.2466;0.4750;
-27.3000;0.2475;0.4702;
-27.0000;0.2515;0.4775;
-26.7000;0.2475;0.4702;
-26.4000;0.2450;0.4678;
-26.1000;0.2450;0.4702;
-25.8000;0.2458;0.4702;
-25.5000;0.2450;0.4750;
-25.2000;0.2458;0.4847;
-24.9000;0.2442;0.4702;
-24.6000;0.2589;0.5114;
-24.3000;0.2475;0.4775;
-24.0000;0.2418;0.4581;
-23.7000;0.2450;0.4678;
-23.4000;0.2499;0.4750;
-23.1000;0.2466;0.4581;
-22.8000;0.2466;0.4605;
-22.5000;0.2475;0.4629;
-22.2000;0.2466;0.4629;
-21.9000;0.2466;0.4605;
-21.6000;0.2418;0.4557;
-21.3000;0.2466;0.4726;
-21.0000;0.2507;0.4920;
-20.7000;0.2475;0.4726;
-20.4000;0.2458;0.4654;
-20.1000;0.2450;0.4654;
-19.8000;0.2458;0.4629;
-19.5000;0.2426;0.4581;
-19.2000;0.2475;0.4702;
-18.9000;0.2466;0.4750;
-18.6000;0.2458;0.4702;
-18.3000;0.2466;0.4726;
-18.0000;0.2458;0.4581;
-17.7000;0.2475;0.4654;
-17.4000;0.2483;0.4678;
-17.1000;0.2475;0.4654;
-16.8000;0.2483;0.4750;
-16.5000;0.2458;0.4702;
-16.2000;0.2458;0.4799;
-15.9000;0.2418;0.4629;
-15.6000;0.2475;0.4775;
-15.3000;0.2475;0.4823;
-15.0000;0.2475;0.4775;
-14.7000;0.2483;0.4726;
-14.4000;0.2458;0.4532;
-14.1000;0.2483;0.4557;
-13.8000;0.2475;0.4508;
-13.5000;0.2466;0.4508;
-13.2000;0.2466;0.4532;
-12.9000;0.2475;0.4557;
-12.6000;0.2466;0.4557;
-12.3000;0.2466;0.4629;
-12.0000;0.2466;0.4557;
-11.7000;0.2458;0.4435;
-11.4000;0.2475;0.4508;
-11.1000;0.2483;0.4508;
-10.8000;0.2483;0.4435;
-10.5000;0.2475;0.4435;
-10.2000;0.2475;0.4484;
-9.9000;0.2475;0.4557;
-9.6000;0.2466;0.4557;
-9.3000;0.2475;0.4605;
-9.0000;0.2458;0.4678;
-8.7000;0.2450;0.4629;
-8.4000;0.2475;0.4654;
-8.1000;0.2458;0.4532;
-7.8000;0.2483;0.4629;
-7.5000;0.2458;0.4581;
-7.2000;0.2466;0.4581;
-6.9000;0.2483;0.4532;
-6.6000;0.2475;0.4557;
-6.3000;0.2499;0.4605;
-6.0000;0.2483;0.4532;
-5.7000;0.2475;0.4460;
-5.4000;0.2458;0.4460;
-5.1000;0.2450;0.4460;
-4.8000;0.2475;0.4435;
-4.5000;0.2409;0.4242;
-4.2000;0.2491;0.4435;
-3.9000;0.2458;0.4435;
-3.6000;0.2483;0.4460;
-3.3000;0.2475;0.4435;
-3.0000;0.2450;0.4435;
-2.7000;0.2466;0.4557;
-2.4000;0.2466;0.4629;
-2.1000;0.2434;0.4460;
-1.8000;0.2458;0.4508;
-1.5000;0.2466;0.4532;
-1.2000;0.2515;0.4605;
-0.9000;0.2466;0.4484;
-0.6000;0.2442;0.4411;
-0.3000;0.2393;0.4290;
0.0000;0.2393;0.4290;
0.3000;0.2466;0.4193;
0.6000;0.2491;0.4581;
0.9000;0.2475;0.4775;
1.2000;0.2548;0.5163;
1.5000;0.2499;0.5187;
1.8000;0.2507;0.5405;
2.1000;0.2532;0.5550;
2.4000;0.2491;0.5599;
2.7000;0.2523;0.5865;
3.0000;0.2515;0.6035;
3.3000;0.2475;0.5938;
3.6000;0.2507;0.6108;
3.9000;0.2523;0.6277;
4.2000;0.2523;0.6302;
4.5000;0.2507;0.6302;
4.8000;0.2499;0.6350;
5.1000;0.2523;0.6277;
5.4000;0.2540;0.6302;
5.7000;0.2532;0.6253;
6.0000;0.2523;0.6326;
6.3000;0.2532;0.6326;
6.6000;0.2523;0.6374;
6.9000;0.2540;0.6423;
7.2000;0.2523;0.6447;
7.5000;0.2540;0.6399;
7.8000;0.2540;0.6447;
8.1000;0.2540;0.6423;
8.4000;0.2540;0.6447;
8.7000;0.2507;0.6423;
9.0000;0.2548;0.6496;
9.3000;0.2540;0.6520;
9.6000;0.2523;0.6471;
9.9000;0.2523;0.6520;
10.2000;0.2556;0.6568;
10.5000;0.2523;0.6568;
10.8000;0.2499;0.6568;
11.1000;0.2507;0.6568;
11.4000;0.2523;0.6568;
11.7000;0.2507;0.6593;
12.0000;0.2597;0.6714;
12.3000;0.2532;0.6568;
12.6000;0.2523;0.6593;
12.9000;0.2532;0.6568;
13.2000;0.2515;0.6544;
13.5000;0.2532;0.6520;
13.8000;0.2532;0.6520;
14.1000;0.2532;0.6520;
14.4000;0.2532;0.6496;
14.7000;0.2434;0.6277;
15.0000;0.2507;0.6617;
15.3000;0.2523;0.6665;
15.6000;0.2540;0.6520;
15.9000;0.2523;0.6374;
16.2000;0.2548;0.6471;
16.5000;0.2523;0.6447;
16.8000;0.2532;0.6496;
17.1000;0.2580;0.6617;
17.4000;0.2499;0.6471;
17.7000;0.2507;0.6471;
18.0000;0.2532;0.6471;
18.3000;0.2613;0.6689;
18.6000;0.2491;0.6374;
18.9000;0.2523;0.6496;
19.2000;0.2548;0.6496;
19.5000;0.2523;0.6520;
19.8000;0.2475;0.6326;
20.1000;0.2458;0.6277;
20.4000;0.2523;0.6496;
20.7000;0.2523;0.6471;
21.0000;0.2564;0.6568;
21.3000;0.2564;0.6568;
21.6000;0.2523;0.6447;
21.9000;0.2523;0.6447;
22.2000;0.2548;0.6496;
22.5000;0.2540;0.6471;
22.8000;0.2523;0.6423;
23.1000;0.2646;0.6665;
23.4000;0.2556;0.6447;
23.7000;0.2548;0.6374;
24.0000;0.2532;0.6350;
24.3000;0.2515;0.6326;
24.6000;0.2532;0.6423;
24.9000;0.2580;0.6520;
25.2000;0.2523;0.6326;
25.5000;0.2507;0.6229;
25.8000;0.2532;0.6350;
26.1000;0.2515;0.6447;
26.4000;0.2507;0.6447;
26.7000;0.2507;0.6423;
27.0000;0.2507;0.6326;
27.3000;0.2515;0.6399;
27.6000;0.2515;0.6471;
27.9000;0.2532;0.6471;
28.2000;0.2532;0.6471;
28.5000;0.2556;0.6496;
28.8000;0.2507;0.6374;
29.1000;0.2532;0.6423;
29.4000;0.2523;0.6447;
29.7000;0.2515;0.6520;
30.0000;0.2507;0.6520;
30.3000;0.2515;0.6617;
30.6000;0.2507;0.6593;
30.9000;0.2523;0.6593;
31.2000;0.2523;0.6593;
31.5000;0.2540;0.6617;
31.8000;0.2483;0.6520;
32.1000;0.2523;0.6593;
32.4000;0.2540;0.6593;
32.7000;0.2523;0.6544;
33.0000;0.2523;0.6544;
33.3000;0.2540;0.6593;
33.6000;0.2540;0.6593;
33.9000;0.2515;0.6496;
34.2000;0.2523;0.6617;
34.5000;0.2532;0.6689;
34.8000;0.2532;0.6665;
35.1000;0.2540;0.6617;
35.4000;0.2507;0.6593;
35.7000;0.2523;0.6544;
36.0000;0.2548;0.6617;
36.3000;0.2507;0.6496;
36.6000;0.2532;0.6520;
36.9000;0.2507;0.6399;
37.2000;0.2532;0.6471;
37.5000;0.2548;0.6544;
37.8000;0.2532;0.6447;
38.1000;0.2548;0.6544;
38.4000;0.2580;0.6641;
38.7000;0.2515;0.6544;
39.0000;0.2532;0.6593;
39.3000;0.2523;0.6689;
39.6000;0.2515;0.6665;
39.9000;0.2507;0.6665;
40.2000;0.2515;0.6665;
40.5000;0.2523;0.6593;
40.8000;0.2523;0.6544;
41.1000;0.2523;0.6544;
41.4000;0.2564;0.6617;
41.7000;0.2515;0.6496;
42.0000;0.2523;0.6544;
42.3000;0.2515;0.6496;
42.6000;0.2523;0.6496;
42.9000;0.2523;0.6520;
43.2000;0.2458;0.6399;
43.5000;0.2515;0.6471;
43.8000;0.2466;0.6350;
44.1000;0.2523;0.6423;
44.4000;0.2532;0.6471;
44.7000;0.2532;0.6520;
45.0000;0.2540;0.6617;
45.3000;0.2548;0.6568;
45.6000;0.2523;0.6544;
45.9000;0.2499;0.6496;
46.2000;0.2499;0.6447;
46.5000;0.2491;0.6471;
46.8000;0.2515;0.6496;
47.1000;0.2491;0.6447;
47.4000;0.2523;0.6447;
47.7000;0.2523;0.6496;
48.0000;0.2523;0.6520;
48.3000;0.2515;0.6471;
48.6000;0.2507;0.6544;
48.9000;0.2507;0.6544;
49.2000;0.2548;0.6641;
49.5000;0.2409;0.6302;
49.8000;0.2507;0.6689;
50.1000;0.2499;0.6738;
50.4000;0.2523;0.6811;
50.7000;0.2523;0.6762;
51.0000;0.2532;0.6665;
51.3000;0.2556;0.6714;
51.6000;0.2523;0.6641;
51.9000;0.2532;0.6617;
52.2000;0.2507;0.6520;
52.5000;0.2523;0.6593;
52.8000;0.2515;0.6593;
53.1000;0.2523;0.6617;
53.4000;0.2532;0.6617;
53.7000;0.2507;0.6593;
54.0000;0.2532;0.6641;
54.3000;0.2548;0.6665;
54.6000;0.2532;0.6641;
54.9000;0.2523;0.6617;
55.2000;0.2532;0.6544;
55.5000;0.2523;0.6544;
55.8000;0.2532;0.6544;
56.1000;0.2491;0.6423;
56.4000;0.2523;0.6568;
56.7000;0.2523;0.6568;
57.0000;0.2515;0.6544;
57.3000;0.2515;0.6568;
57.6000;0.2515;0.6568;
57.9000;0.2499;0.6496;
58.2000;0.2523;0.6520;
58.5000;0.2556;0.6617;
58.8000;0.2523;0.6496;
59.1000;0.2499;0.6423;
59.4000;0.2540;0.6520;
59.7000;0.2515;0.6641;
60.0000;0.2507;0.6617;
60.3000;0.2532;0.6714;
60.6000;0.2540;0.6714;
60.9000;0.2507;0.6665;
61.2000;0.2556;0.6811;
61.5000;0.2499;0.6738;
61.8000;0.2515;0.6762;
62.1000;0.2483;0.6593;
62.4000;0.2491;0.6617;
62.7000;0.2523;0.6665;
63.0000;0.2515;0.6641;
63.3000;0.2523;0.6641;
63.6000;0.2507;0.6665;
63.9000;0.2523;0.6714;
64.2000;0.2523;0.6714;
64.5000;0.2523;0.6714;
64.8000;0.2515;0.6665;
65.1000;0.2515;0.6689;
65.4000;0.2458;0.6520;
65.7000;0.2637;0.7029;
66.0000;0.2532;0.6811;
66.3000;0.2532;0.6762;
66.6000;0.2532;0.6738;
66.9000;0.2540;0.6762;
67.2000;0.2523;0.6689;
67.5000;0.2499;0.6641;
67.8000;0.2507;0.6641;
68.1000;0.2532;0.6641;
68.4000;0.2556;0.6738;
68.7000;0.2523;0.6738;
69.0000;0.2523;0.6762;
69.3000;0.2523;0.6665;
69.6000;0.2515;0.6665;
69.9000;0.2548;0.6786;
70.2000;0.2532;0.6665;
70.5000;0.2532;0.6714;
70.8000;0.2523;0.6617;
71.1000;0.2491;0.6447;
71.4000;0.2580;0.6714;
71.7000;0.2532;0.6496;
72.0000;0.2540;0.6520;
72.3000;0.2442;0.6229;
72.6000;0.2475;0.6326;
72.9000;0.2507;0.6520;
73.2000;0.2499;0.6520;
73.5000;0.2523;0.6568;
73.8000;0.2523;0.6593;
74.1000;0.2515;0.6568;
74.4000;0.2580;0.6738;
74.7000;0.2523;0.6665;
75.0000;0.2540;0.6689;
75.3000;0.2515;0.6714;
75.6000;0.2532;0.6714;
75.9000;0.2499;0.6665;
76.2000;0.2523;0.6738;
76.5000;0.2515;0.6665;
76.8000;0.2548;0.6786;
77.1000;0.2499;0.6641;
77.4000;0.2523;0.6762;
77.7000;0.2507;0.6738;
78.0000;0.2515;0.6786;
78.3000;0.2523;0.6738;
78.6000;0.2523;0.6665;
78.9000;0.2507;0.6665;
79.2000;0.2532;0.6641;
79.5000;0.2523;0.6568;
79.8000;0.2532;0.6665;
80.1000;0.2548;0.6762;
80.4000;0.2540;0.6714;
80.7000;0.2499;0.6544;
81.0000;0.2515;0.6641;
81.3000;0.2523;0.6641;
81.6000;0.2515;0.6665;
81.9000;0.2499;0.6641;
82.2000;0.2523;0.6617;
82.5000;0.2515;0.6544;
82.8000;0.2466;0.6302;
83.1000;0.2507;0.6374;
83.4000;0.2532;0.6447;
83.7000;0.2499;0.6471;
84.0000;0.2523;0.6496;
84.3000;0.2523;0.6544;
84.6000;0.2654;0.6932;
84.9000;0.2507;0.6544;
85.2000;0.2507;0.6471;
85.5000;0.2540;0.6617;
85.8000;0.2523;0.6617;
86.1000;0.2401;0.6399;
86.4000;0.2507;0.6738;
86.7000;0.2548;0.6908;
87.0000;0.2523;0.6786;
87.3000;0.2491;0.6689;
87.6000;0.2507;0.6738;
87.9000;0.2523;0.6786;
88.2000;0.2515;0.6762;
88.5000;0.2589;0.6883;
88.8000;0.2507;0.6593;
89.1000;0.2515;0.6593;
89.4000;0.2540;0.6593;
89.7000;0.2540;0.6593;
90.0000;0.2507;0.6399;
90.3000;0.2523;0.6520;
90.6000;0.2515;0.6447;
90.9000;0.2556;0.6641;
91.2000;0.2507;0.6544;
91.5000;0.2491;0.6544;
91.8000;0.2515;0.6496;
92.1000;0.2523;0.6617;
92.4000;0.2532;0.6617;
92.7000;0.2515;0.6520;
93.0000;0.2458;0.6399;
93.3000;0.2515;0.6617;
93.6000;0.2523;0.6738;
93.9000;0.2540;0.6714;
94.2000;0.2523;0.6617;
94.5000;0.2532;0.6714;
94.8000;0.2515;0.6641;
95.1000;0.2515;0.6617;
95.4000;0.2499;0.6617;
95.7000;0.2507;0.6568;
96.0000;0.2564;0.6689;
96.3000;0.2507;0.6568;
96.6000;0.2548;0.6665;
96.9000;0.2499;0.6520;
97.2000;0.2532;0.6568;
97.5000;0.2499;0.6520;
97.8000;0.2523;0.6617;
98.1000;0.2499;0.6520;
98.4000;0.2507;0.6568;
98.7000;0.2507;0.6496;
99.0000;0.2540;0.6593;
99.3000;0.2515;0.6544;
99.6000;0.2532;0.6593;
99.9000;0.2523;0.6617;
100.2000;0.2532;0.6665;
100.5000;0.2515;0.6568;
100.8000;0.2532;0.6641;
101.1000;0.2515;0.6568;
101.4000;0.2540;0.6593;
101.7000;0.2515;0.6568;
102.0000;0.2499;0.6423;
102.3000;0.2532;0.6423;
102.6000;0.2515;0.6374;
102.9000;0.2515;0.6350;
103.2000;0.2515;0.6350;
103.5000;0.2515;0.6399;
103.8000;0.2409;0.6035;
104.1000;0.2515;0.6302;
104.4000;0.2523;0.6350;
104.7000;0.2458;0.6205;
105.0000;0.2515;0.6423;
105.3000;0.2507;0.6399;
105.6000;0.2515;0.6374;
105.9000;0.2523;0.6471;
106.2000;0.2515;0.6471;
106.5000;0.2540;0.6471;
106.8000;0.2515;0.6399;
107.1000;0.2507;0.6471;
107.4000;0.2499;0.6496;
107.7000;0.2418;0.6350;
108.0000;0.2507;0.6496;
108.3000;0.2499;0.6399;
108.6000;0.2540;0.6447;
108.9000;0.2515;0.6326;
109.2000;0.2515;0.6326;
109.5000;0.2507;0.6326;
109.8000;0.2515;0.6471;
110.1000;0.2515;0.6544;
110.4000;0.2540;0.6689;
110.7000;0.2515;0.6544;
111.0000;0.2523;0.6568;
111.3000;0.2466;0.6471;
111.6000;0.2515;0.6544;
111.9000;0.2507;0.6593;
112.2000;0.2556;0.6689;
112.5000;0.2499;0.6568;
112.8000;0.2523;0.6568;
113.1000;0.2515;0.6544;
113.4000;0.2515;0.6471;
113.7000;0.2532;0.6496;
114.0000;0.2532;0.6471;
114.3000;0.2515;0.6423;
114.6000;0.2523;0.6374;
114.9000;0.2556;0.6423;
115.2000;0.2532;0.6253;
115.5000;0.2532;0.6302;
115.8000;0.2548;0.6350;
116.1000;0.2523;0.6277;
116.4000;0.2499;0.6399;
116.7000;0.2499;0.6399;
117.0000;0.2515;0.6471;
117.3000;0.2499;0.6447;
117.6000;0.2507;0.6447;
117.9000;0.2540;0.6593;
118.2000;0.2442;0.6374;
118.5000;0.2515;0.6544;
118.8000;0.2507;0.6520;
119.1000;0.2597;0.6617;
119.4000;0.2507;0.6447;
119.7000;0.2507;0.6568;
120.0000;0.2491;0.6544;
120.3000;0.2532;0.6617;
120.6000;0.2507;0.6617;
120.9000;0.2507;0.6544;
121.2000;0.2523;0.6423;
121.5000;0.2515;0.6568;
121.8000;0.2523;0.6641;
122.1000;0.2466;0.6423;
122.4000;0.2499;0.6423;
122.7000;0.2532;0.6399;
123.0000;0.2532;0.6423;
123.3000;0.2475;0.6326;
123.6000;0.2507;0.6423;
123.9000;0.2475;0.6471;
124.2000;0.2515;0.6520;
124.5000;0.2515;0.6544;
124.8000;0.2515;0.6568;
125.1000;0.2515;0.6544;
125.4000;0.2548;0.6641;
125.7000;0.2532;0.6593;
126.0000;0.2499;0.6471;
126.3000;0.2507;0.6568;
126.6000;0.2523;0.6544;
126.9000;0.2605;0.6617;
127.2000;0.2523;0.6544;
127.5000;0.2532;0.6641;
127.8000;0.2507;0.6617;
128.1000;0.2507;0.6665;
128.4000;0.2507;0.6641;
128.7000;0.2491;0.6544;
129.0000;0.2515;0.6544;
129.3000;0.2523;0.6568;
129.6000;0.2523;0.6496;
129.9000;0.2499;0.6374;
130.2000;0.2564;0.6593;
130.5000;0.2515;0.6447;
130.8000;0.2507;0.6496;
131.1000;0.2515;0.6593;
131.4000;0.2540;0.6665;
131.7000;0.2507;0.6544;
132.0000;0.2523;0.6593;
132.3000;0.2523;0.6738;
132.6000;0.2499;0.6738;
132.9000;0.2507;0.6762;
133.2000;0.2466;0.6617;
133.5000;0.2499;0.6665;
133.8000;0.2532;0.6665;
134.1000;0.2540;0.6641;
134.4000;0.2507;0.6593;
134.7000;0.2507;0.6617;
135.0000;0.2515;0.6617;
135.3000;0.2507;0.6689;
135.6000;0.2532;0.6714;
135.9000;0.2532;0.6689;
136.2000;0.2523;0.6641;
136.5000;0.2507;0.6689;
136.8000;0.2507;0.6714;
137.1000;0.2483;0.6689;
137.4000;0.2418;0.6520;
137.7000;0.2499;0.6689;
138.0000;0.2515;0.6714;
138.3000;0.2532;0.6714;
138.6000;0.2507;0.6593;
138.9000;0.2507;0.6617;
139.2000;0.2483;0.6568;
139.5000;0.2515;0.6641;
139.8000;0.2523;0.6496;
140.1000;0.2515;0.6496;
140.4000;0.2515;0.6496;
140.7000;0.2515;0.6496;
141.0000;0.2540;0.6520;
141.3000;0.2499;0.6374;
141.6000;0.2483;0.6326;
141.9000;0.2507;0.6447;
142.2000;0.2499;0.6496;
142.5000;0.2499;0.6520;
142.8000;0.2499;0.6447;
143.1000;0.2499;0.6447;
143.4000;0.2442;0.6326;
143.7000;0.2499;0.6399;
144.0000;0.2515;0.6423;
144.3000;0.2515;0.6399;
144.6000;0.2499;0.6471;
144.9000;0.2515;0.6568;
145.2000;0.2450;0.6423;
145.5000;0.2491;0.6544;
145.8000;0.2507;0.6641;
146.1000;0.2515;0.6641;
146.4000;0.2532;0.6689;
146.7000;0.2507;0.6738;
147.0000;0.2491;0.6617;
147.3000;0.2458;0.6520;
147.6000;0.2532;0.6714;
147.9000;0.2426;0.6350;
148.2000;0.2523;0.6593;
148.5000;0.2523;0.6496;
148.8000;0.2572;0.6593;
149.1000;0.2491;0.6326;
149.4000;0.2515;0.6326;
149.7000;0.2483;0.6350;
150.0000;0.2515;0.6399;
150.3000;0.2507;0.6326;
150.6000;0.2523;0.6399;
150.9000;0.2532;0.6496;
151.2000;0.2532;0.6471;
151.5000;0.2491;0.6447;
151.8000;0.2621;0.6811;
152.1000;0.2499;0.6496;
152.4000;0.2548;0.6593;
152.7000;0.2523;0.6520;
153.0000;0.2523;0.6593;
153.3000;0.2564;0.6689;
153.6000;0.2532;0.6593;
153.9000;0.2507;0.6520;
154.2000;0.2507;0.6665;
154.5000;0.2507;0.6641;
154.8000;0.2499;0.6617;
155.1000;0.2491;0.6544;
155.4000;0.2507;0.6641;
155.7000;0.2515;0.6568;
156.0000;0.2515;0.6471;
156.3000;0.2548;0.6544;
156.6000;0.2418;0.6229;
156.9000;0.2450;0.6326;
157.2000;0.2515;0.6593;
157.5000;0.2434;0.6374;
157.8000;0.2507;0.6496;
158.1000;0.2540;0.6593;
158.4000;0.2515;0.6568;
158.7000;0.2523;0.6665;
159.0000;0.2515;0.6641;
159.3000;0.2491;0.6593;
159.6000;0.2499;0.6665;
159.9000;0.2515;0.6762;
160.2000;0.2515;0.6786;
160.5000;0.2507;0.6786;
160.8000;0.2540;0.6883;
161.1000;0.2491;0.6738;
161.4000;0.2548;0.6908;
161.7000;0.2507;0.6811;
162.0000;0.2515;0.6859;
162.3000;0.2523;0.6835;
162.6000;0.2515;0.6835;
162.9000;0.2499;0.6811;
163.2000;0.2532;0.6811;
163.5000;0.2605;0.7029;
163.8000;0.2515;0.6859;
164.1000;0.2499;0.6883;
164.4000;0.2499;0.6859;
164.7000;0.2515;0.6762;
165.0000;0.2515;0.6665;
165.3000;0.2515;0.6617;
165.6000;0.2475;0.6544;
165.9000;0.2515;0.6568;
166.2000;0.2499;0.6641;
166.5000;0.2499;0.6544;
166.8000;0.2507;0.6544;
167.1000;0.2483;0.6568;
167.4000;0.2507;0.6641;
167.7000;0.2532;0.6665;
168.0000;0.2523;0.6714;
168.3000;0.2515;0.6641;
168.6000;0.2532;0.6665;
168.9000;0.2523;0.6689;
169.2000;0.2515;0.6714;
169.5000;0.2532;0.6786;
169.8000;0.2515;0.6714;
170.1000;0.2507;0.6665;
170.4000;0.2523;0.6738;
170.7000;0.2540;0.6762;
171.0000;0.2507;0.6738;
171.3000;0.2507;0.6689;
171.6000;0.2523;0.6617;
171.9000;0.2483;0.6544;
172.2000;0.2507;0.6689;
172.5000;0.2523;0.6738;
172.8000;0.2491;0.6665;
173.1000;0.2499;0.6641;
173.4000;0.2540;0.6689;
173.7000;0.2523;0.6641;
174.0000;0.2515;0.6641;
174.3000;0.2507;0.6568;
174.6000;0.2499;0.6568;
174.9000;0.2491;0.6544;
175.2000;0.2442;0.6496;
175.5000;0.2499;0.6568;
175.8000;0.2499;0.6544;
176.1000;0.2523;0.6617;
176.4000;0.2499;0.6544;
176.7000;0.2564;0.6786;
177.0000;0.2499;0.6665;
177.3000;0.2605;0.6932;
177.6000;0.2515;0.6714;
177.9000;0.2548;0.6714;
178.2000;0.2564;0.6786;
178.5000;0.2532;0.6617;
178.8000;0.2507;0.6544;
179.1000;0.2515;0.6520;
179.4000;0.2621;0.6811;
179.7000;0.2515;0.6471;
180.0000;0.2515;0.6423;
180.3000;0.2523;0.6520;
180.6000;0.2507;0.6568;
180.9000;0.2532;0.6714;
181.2000;0.2466;0.6520;
181.5000;0.2466;0.6471;
181.8000;0.2450;0.6423;
182.1000;0.2507;0.6520;
182.4000;0.2491;0.6471;
182.7000;0.2515;0.6544;
183.0000;0.2507;0.6641;
183.3000;0.2523;0.6568;
183.6000;0.2491;0.6544;
183.9000;0.2507;0.6544;
184.2000;0.2597;0.6859;
184.5000;0.2532;0.6544;
184.8000;0.2499;0.6471;
185.1000;0.2499;0.6496;
185.4000;0.2556;0.6738;
185.7000;0.2515;0.6568;
186.0000;0.2483;0.6520;
186.3000;0.2499;0.6593;
186.6000;0.2499;0.6568;
186.9000;0.2466;0.6544;
187.2000;0.2507;0.6568;
187.5000;0.2556;0.6689;
187.8000;0.2523;0.6593;
188.1000;0.2532;0.6593;
188.4000;0.2491;0.6471;
188.7000;0.2491;0.6423;
189.0000;0.2507;0.6399;
189.3000;0.2491;0.6447;
189.6000;0.2507;0.6471;
189.9000;0.2499;0.6399;
190.2000;0.2491;0.6399;
190.5000;0.2523;0.6544;
190.8000;0.2499;0.6520;
191.1000;0.2499;0.6471;
191.4000;0.2491;0.6496;
191.7000;0.2507;0.6496;
192.0000;0.2499;0.6423;
192.3000;0.2523;0.6544;
192.6000;0.2523;0.6520;
192.9000;0.2507;0.6471;
193.2000;0.2515;0.6447;
193.5000;0.2491;0.6496;
193.8000;0.2515;0.6496;
194.1000;0.2548;0.6617;
194.4000;0.2507;0.6447;
194.7000;0.2507;0.6399;
195.0000;0.2523;0.6496;
195.3000;0.2499;0.6350;
195.6000;0.2515;0.6374;
195.9000;0.2450;0.6205;
196.2000;0.2499;0.6326;
196.5000;0.2499;0.6277;
196.8000;0.2572;0.6447;
197.1000;0.2434;0.6011;
197.4000;0.2499;0.6277;
197.7000;0.2507;0.6277;
198.0000;0.2499;0.6253;
198.3000;0.2507;0.6253;
198.6000;0.2483;0.6277;
198.9000;0.2515;0.6350;
199.2000;0.2572;0.6520;
199.5000;0.2499;0.6399;
199.8000;0.2507;0.6544;
200.1000;0.2499;0.6496;
200.4000;0.2499;0.6447;
200.7000;0.2499;0.6423;
201.0000;0.2499;0.6447;
201.3000;0.2491;0.6399;
201.6000;0.2580;0.6665;
201.9000;0.2523;0.6568;
202.2000;0.2523;0.6471;
202.5000;0.2540;0.6520;
202.8000;0.2507;0.6350;
203.1000;0.2523;0.6399;
203.4000;0.2458;0.6156;
203.7000;0.2499;0.6277;
204.0000;0.2523;0.6399;
204.3000;0.2450;0.6277;
204.6000;0.2491;0.6253;
204.9000;0.2499;0.6277;
205.2000;0.2523;0.6302;
205.5000;0.2483;0.6205;
205.8000;0.2483;0.6205;
206.1000;0.2523;0.6399;
206.4000;0.2507;0.6374;
206.7000;0.2515;0.6277;
207.0000;0.2523;0.6277;
207.3000;0.2507;0.6399;
207.6000;0.2507;0.6374;
207.9000;0.2532;0.6447;
208.2000;0.2499;0.6447;
208.5000;0.2507;0.6447;
208.8000;0.2507;0.6520;
209.1000;0.2507;0.6471;
209.4000;0.2523;0.6496;
209.7000;0.2523;0.6447;
210.0000;0.2540;0.6471;
210.3000;0.2491;0.6326;
210.6000;0.2507;0.6229;
210.9000;0.2483;0.6205;
211.2000;0.2491;0.6277;
211.5000;0.2515;0.6350;
211.8000;0.2507;0.6302;
212.1000;0.2532;0.6350;
212.4000;0.2507;0.6399;
212.7000;0.2515;0.6471;
213.0000;0.2507;0.6374;
213.3000;0.2515;0.6447;
213.6000;0.2499;0.6374;
213.9000;0.2499;0.6350;
214.2000;0.2515;0.6399;
214.5000;0.2491;0.6374;
214.8000;0.2507;0.6374;
215.1000;0.2491;0.6399;
215.4000;0.2507;0.6423;
215.7000;0.2515;0.6350;
216.0000;0.2532;0.6520;
216.3000;0.2499;0.6399;
216.6000;0.2507;0.6374;
216.9000;0.2507;0.6350;
217.2000;0.2556;0.6496;
217.5000;0.2491;0.6277;
217.8000;0.2540;0.6447;
218.1000;0.2523;0.6399;
218.4000;0.2499;0.6471;
218.7000;0.2434;0.6302;
219.0000;0.2532;0.6520;
219.3000;0.2540;0.6447;
219.6000;0.2499;0.6447;
219.9000;0.2572;0.6568;
220.2000;0.2605;0.6593;
220.5000;0.2515;0.6302;
220.8000;0.2515;0.6302;
221.1000;0.2507;0.6302;
221.4000;0.2483;0.6302;
221.7000;0.2507;0.6399;
222.0000;0.2515;0.6423;
222.3000;0.2523;0.6350;
222.6000;0.2515;0.6253;
222.9000;0.2605;0.6496;
223.2000;0.2532;0.6302;
223.5000;0.2499;0.6253;
223.8000;0.2515;0.6326;
224.1000;0.2483;0.6229;
224.4000;0.2499;0.6253;
224.7000;0.2515;0.6229;
225.0000;0.2515;0.6326;
225.3000;0.2523;0.6326;
225.6000;0.2475;0.6205;
225.9000;0.2499;0.6277;
226.2000;0.2507;0.6205;
226.5000;0.2466;0.6108;
226.8000;0.2507;0.6180;
227.1000;0.2450;0.6059;
227.4000;0.2507;0.6229;
227.7000;0.2515;0.6205;
228.0000;0.2491;0.6205;
228.3000;0.2426;0.6156;
228.6000;0.2515;0.6423;
228.9000;0.2507;0.6471;
229.2000;0.2385;0.6180;
229.5000;0.2515;0.6544;
229.8000;0.2507;0.6496;
230.1000;0.2458;0.6302;
230.4000;0.2499;0.6326;
230.7000;0.2499;0.6326;
231.0000;0.2483;0.6205;
231.3000;0.2491;0.6253;
231.6000;0.2491;0.6302;
231.9000;0.2491;0.6253;
232.2000;0.2523;0.6253;
232.5000;0.2483;0.6205;
232.8000;0.2515;0.6277;
233.1000;0.2515;0.6277;
233.4000;0.2499;0.6326;
233.7000;0.2491;0.6350;
234.0000;0.2507;0.6302;
234.3000;0.2507;0.6302;
234.6000;0.2515;0.6302;
234.9000;0.2491;0.6277;
235.2000;0.2499;0.6374;
235.5000;0.2491;0.6350;
235.8000;0.2491;0.6277;
236.1000;0.2466;0.6180;
236.4000;0.2515;0.6229;
236.7000;0.2523;0.6277;
237.0000;0.2499;0.6132;
237.3000;0.2515;0.6229;
237.6000;0.2515;0.6302;
237.9000;0.2515;0.6350;
238.2000;0.2564;0.6447;
238.5000;0.2515;0.6471;
238.8000;0.2507;0.6471;
239.1000;0.2515;0.6496;
239.4000;0.2507;0.6471;
239.7000;0.2515;0.6350;
240.0000;0.2515;0.6423;
240.3000;0.2515;0.6447;
240.6000;0.2515;0.6496;
240.9000;0.2515;0.6520;
241.2000;0.2515;0.6447;
241.5000;0.2499;0.6471;
241.8000;0.2507;0.6593;
242.1000;0.2491;0.6520;
242.4000;0.2507;0.6544;
242.7000;0.2507;0.6593;
243.0000;0.2523;0.6617;
243.3000;0.2548;0.6617;
243.6000;0.2515;0.6593;
243.9000;0.2499;0.6520;
244.2000;0.2532;0.6568;
244.5000;0.2491;0.6447;
244.8000;0.2499;0.6423;
245.1000;0.2499;0.6423;
245.4000;0.2499;0.6544;
245.7000;0.2507;0.6520;
246.0000;0.2507;0.6471;
246.3000;0.2507;0.6374;
246.6000;0.2499;0.6350;
246.9000;0.2507;0.6447;
247.2000;0.2515;0.6544;
247.5000;0.2499;0.6520;
247.8000;0.2507;0.6520;
248.1000;0.2523;0.6471;
248.4000;0.2507;0.6447;
248.7000;0.2491;0.6399;
249.0000;0.2507;0.6447;
249.3000;0.2507;0.6423;
249.6000;0.2507;0.6496;
249.9000;0.2515;0.6447;
250.2000;0.2491;0.6374;
250.5000;0.2507;0.6447;
250.8000;0.2523;0.6423;
251.1000;0.2515;0.6399;
251.4000;0.2515;0.6374;
251.7000;0.2515;0.6277;
252.0000;0.2523;0.6302;
252.3000;0.2458;0.6132;
252.6000;0.2499;0.6326;
252.9000;0.2556;0.6302;
253.2000;0.2507;0.6205;
253.5000;0.2556;0.6253;
253.8000;0.2515;0.6180;
254.1000;0.2507;0.6108;
254.4000;0.2507;0.6132;
254.7000;0.2507;0.6084;
255.0000;0.2483;0.6084;
255.3000;0.2515;0.6180;
255.6000;0.2499;0.6229;
255.9000;0.2515;0.6302;
256.2000;0.2499;0.6277;
256.5000;0.2499;0.6229;
256.8000;0.2515;0.6326;
257.1000;0.2515;0.6374;
257.4000;0.2491;0.6253;
257.7000;0.2515;0.6399;
258.0000;0.2499;0.6423;
258.3000;0.2515;0.6593;
258.6000;0.2507;0.6520;
258.9000;0.2507;0.6447;
259.2000;0.2515;0.6399;
259.5000;0.2523;0.6471;
259.8000;0.2499;0.6423;
260.1000;0.2499;0.6423;
260.4000;0.2491;0.6447;
260.7000;0.2507;0.6423;
261.0000;0.2515;0.6447;
261.3000;0.2523;0.6447;
261.6000;0.2515;0.6423;
261.9000;0.2499;0.6350;
262.2000;0.2491;0.6350;
262.5000;0.2499;0.6447;
262.8000;0.2491;0.6423;
263.1000;0.2499;0.6423;
263.4000;0.2515;0.6447;
263.7000;0.2564;0.6568;
264.0000;0.2483;0.6326;
264.3000;0.2564;0.6544;
264.6000;0.2515;0.6496;
264.9000;0.2507;0.6471;
265.2000;0.2507;0.6520;
265.5000;0.2515;0.6520;
265.8000;0.2548;0.6593;
266.1000;0.2475;0.6350;
266.4000;0.2491;0.6326;
266.7000;0.2458;0.6180;
267.0000;0.2499;0.6326;
267.3000;0.2499;0.6302;
267.6000;0.2491;0.6302;
267.9000;0.2499;0.6399;
268.2000;0.2483;0.6350;
268.5000;0.2499;0.6326;
268.8000;0.2515;0.6326;
269.1000;0.2483;0.6277;
269.4000;0.2499;0.6374;
269.7000;0.2499;0.6326;
270.0000;0.2515;0.6423;
270.3000;0.2515;0.6374;
270.6000;0.2507;0.6423;
270.9000;0.2540;0.6447;
271.2000;0.2515;0.6374;
271.5000;0.2418;0.6108;
271.8000;0.2499;0.6302;
272.1000;0.2499;0.6277;
272.4000;0.2523;0.6471;
272.7000;0.2621;0.6835;
273.0000;0.2499;0.6520;
273.3000;0.2507;0.6593;
273.6000;0.2466;0.6423;
273.9000;0.2507;0.6544;
274.2000;0.2515;0.6544;
274.5000;0.2499;0.6544;
274.8000;0.2499;0.6544;
275.1000;0.2532;0.6641;
275.4000;0.2532;0.6617;
275.7000;0.2507;0.6496;
276.0000;0.2540;0.6593;
276.3000;0.2499;0.6471;
276.6000;0.2515;0.6496;
276.9000;0.2532;0.6665;
277.2000;0.2450;0.6374;
277.5000;0.2548;0.6568;
277.8000;0.2499;0.6471;
278.1000;0.2515;0.6593;
278.4000;0.2515;0.6665;
278.7000;0.2491;0.6617;
279.0000;0.2442;0.6496;
279.3000;0.2499;0.6544;
279.6000;0.2523;0.6447;
279.9000;0.2532;0.6471;
280.2000;0.2515;0.6471;
280.5000;0.2523;0.6447;
280.8000;0.2515;0.6447;
281.1000;0.2515;0.6544;
281.4000;0.2523;0.6641;
281.7000;0.2507;0.6738;
282.0000;0.2499;0.6665;
282.3000;0.2499;0.6641;
282.6000;0.2499;0.6665;
282.9000;0.2507;0.6641;
283.2000;0.2499;0.6593;
283.5000;0.2507;0.6617;
283.8000;0.2540;0.6714;
284.1000;0.2507;0.6496;
284.4000;0.2523;0.6568;
284.7000;0.2515;0.6714;
285.0000;0.2515;0.6689;
285.3000;0.2507;0.6617;
285.6000;0.2499;0.6568;
285.9000;0.2491;0.6496;
286.2000;0.2515;0.6568;
286.5000;0.2475;0.6423;
286.8000;0.2499;0.6568;
287.1000;0.2499;0.6617;
287.4000;0.2507;0.6689;
287.7000;0.2515;0.6689;
288.0000;0.2499;0.6714;
288.3000;0.2401;0.6496;
288.6000;0.2409;0.6471;
288.9000;0.2491;0.6689;
289.2000;0.2418;0.6447;
289.5000;0.2499;0.6568;
289.8000;0.2621;0.6932;
290.1000;0.2507;0.6617;
290.4000;0.2548;0.6714;
290.7000;0.2491;0.6447;
291.0000;0.2418;0.6205;
291.3000;0.2466;0.6326;
291.6000;0.2507;0.6447;
291.9000;0.2499;0.6496;
292.2000;0.2450;0.6374;
292.5000;0.2507;0.6496;
292.8000;0.2491;0.6496;
293.1000;0.2507;0.6544;
293.4000;0.2483;0.6447;
293.7000;0.2507;0.6471;
294.0000;0.2507;0.6496;
294.3000;0.2475;0.6399;
294.6000;0.2499;0.6471;
294.9000;0.2499;0.6399;
295.2000;0.2523;0.6496;
295.5000;0.2515;0.6496;
295.8000;0.2507;0.6471;
296.1000;0.2507;0.6399;
296.4000;0.2564;0.6520;
296.7000;0.2540;0.6496;
297.0000;0.2491;0.6326;
297.3000;0.2507;0.6374;
297.6000;0.2507;0.6326;
297.9000;0.2499;0.6399;
298.2000;0.2450;0.6277;
298.5000;0.2483;0.6350;
298.8000;0.2483;0.6302;
299.1000;0.2499;0.6399;
299.4000;0.2523;0.6423;
299.7000;0.2515;0.6423;
300.0000;0.2475;0.6302;
300.3000;0.2507;0.6399;
300.6000;0.2515;0.6471;
300.9000;0.2491;0.6544;
301.2000;0.2515;0.6617;
301.5000;0.2507;0.6544;
301.8000;0.2523;0.6568;
302.1000;0.2515;0.6617;
302.4000;0.2515;0.6471;
302.7000;0.2499;0.6496;
303.0000;0.2450;0.6302;
303.3000;0.2491;0.6350;
303.6000;0.2507;0.6423;
303.9000;0.2499;0.6544;
304.2000;0.2507;0.6593;
304.5000;0.2507;0.6593;
304.8000;0.2507;0.6593;
305.1000;0.2491;0.6544;
305.4000;0.2499;0.6617;
305.7000;0.2556;0.6665;
306.0000;0.2515;0.6593;
306.3000;0.2507;0.6593;
306.6000;0.2532;0.6665;
306.9000;0.2507;0.6544;
307.2000;0.2515;0.6520;
307.5000;0.2507;0.6447;
307.8000;0.2523;0.6423;
308.1000;0.2540;0.6471;
308.4000;0.2507;0.6423;
308.7000;0.2507;0.6471;
309.0000;0.2499;0.6471;
309.3000;0.2515;0.6520;
309.6000;0.2523;0.6447;
309.9000;0.2507;0.6374;
310.2000;0.2572;0.6568;
310.5000;0.2507;0.6350;
310.8000;0.2507;0.6326;
311.1000;0.2507;0.6326;
311.4000;0.2548;0.6423;
311.7000;0.2515;0.6374;
312.0000;0.2515;0.6471;
312.3000;0.2499;0.6471;
312.6000;0.2491;0.6471;
312.9000;0.2491;0.6374;
313.2000;0.2483;0.6399;
313.5000;0.2491;0.6374;
313.8000;0.2401;0.6084;
314.1000;0.2515;0.6350;
314.4000;0.2491;0.6350;
314.7000;0.2442;0.6108;
315.0000;0.2499;0.6302;
315.3000;0.2532;0.6471;
315.6000;0.2523;0.6423;
315.9000;0.2523;0.6399;
316.2000;0.2548;0.6544;
316.5000;0.2499;0.6447;
316.8000;0.2507;0.6399;
317.1000;0.2507;0.6399;
317.4000;0.2409;0.6084;
317.7000;0.2507;0.6326;
318.0000;0.2507;0.6350;
318.3000;0.2515;0.6471;
318.6000;0.2540;0.6496;
318.9000;0.2491;0.6423;
319.2000;0.2483;0.6302;
319.5000;0.2401;0.6084;
319.8000;0.2499;0.6374;
320.1000;0.2475;0.6374;
320.4000;0.2548;0.6544;
320.7000;0.2548;0.6496;
321.0000;0.2499;0.6447;
321.3000;0.2499;0.6520;
321.6000;0.2499;0.6471;
321.9000;0.2499;0.6496;
322.2000;0.2523;0.6544;
322.5000;0.2523;0.6496;
322.8000;0.2499;0.6302;
323.1000;0.2507;0.6302;
323.4000;0.2499;0.6326;
323.7000;0.2491;0.6326;
324.0000;0.2507;0.6399;
324.3000;0.2507;0.6471;
324.6000;0.2491;0.6423;
324.9000;0.2515;0.6496;
325.2000;0.2491;0.6423;
325.5000;0.2475;0.6350;
325.8000;0.2491;0.6253;
326.1000;0.2515;0.6302;
326.4000;0.2515;0.6180;
326.7000;0.2507;0.6205;
327.0000;0.2491;0.6326;
327.3000;0.2499;0.6205;
327.6000;0.2499;0.6229;
327.9000;0.2540;0.6229;
328.2000;0.2491;0.6205;
328.5000;0.2499;0.6229;
328.8000;0.2499;0.6302;
329.1000;0.2499;0.6350;
329.4000;0.2491;0.6350;
329.7000;0.2499;0.6374;
330.0000;0.2507;0.6423;
330.3000;0.2499;0.6374;
330.6000;0.2491;0.6326;
330.9000;0.2507;0.6447;
331.2000;0.2507;0.6471;
331.5000;0.2491;0.6350;
331.8000;0.2507;0.6399;
332.1000;0.2507;0.6447;
332.4000;0.2523;0.6423;
332.7000;0.2515;0.6374;
333.0000;0.2515;0.6399;
333.3000;0.2515;0.6399;
333.6000;0.2499;0.6374;
333.9000;0.2515;0.6350;
334.2000;0.2475;0.6229;
334.5000;0.2507;0.6277;
334.8000;0.2491;0.6277;
335.1000;0.2499;0.6350;
335.4000;0.2434;0.6156;
335.7000;0.2483;0.6302;
336.0000;0.2515;0.6399;
336.3000;0.2491;0.6447;
336.6000;0.2515;0.6423;
336.9000;0.2515;0.6302;
337.2000;0.2507;0.6374;
337.5000;0.2499;0.6326;
337.8000;0.2515;0.6302;
338.1000;0.2491;0.6326;
338.4000;0.2499;0.6302;
338.7000;0.2507;0.6399;
339.0000;0.2515;0.6520;
339.3000;0.2507;0.6471;
339.6000;0.2491;0.6399;
339.9000;0.2499;0.6399;
340.2000;0.2409;0.6108;
340.5000;0.2491;0.6471;
340.8000;0.2499;0.6471;
341.1000;0.2515;0.6471;
341.4000;0.2507;0.6496;
341.7000;0.2507;0.6520;
342.0000;0.2523;0.6544;
342.3000;0.2548;0.6568;
342.6000;0.2507;0.6447;
342.9000;0.2515;0.6423;
343.2000;0.2491;0.6277;
343.5000;0.2499;0.6302;
343.8000;0.2499;0.6350;
344.1000;0.2532;0.6423;
344.4000;0.2491;0.6374;
344.7000;0.2499;0.6399;
345.0000;0.2491;0.6350;
345.3000;0.2507;0.6374;
345.6000;0.2507;0.6350;
345.9000;0.2507;0.6399;
346.2000;0.2507;0.6399;
346.5000;0.2507;0.6496;
346.8000;0.2499;0.6399;
347.1000;0.2499;0.6350;
347.4000;0.2483;0.6229;
347.7000;0.2515;0.6277;
348.0000;0.2572;0.6423;
348.3000;0.2483;0.6302;
348.6000;0.2507;0.6326;
348.9000;0.2523;0.6447;
349.2000;0.2499;0.6423;
349.5000;0.2491;0.6326;
349.8000;0.2507;0.6277;
350.1000;0.2507;0.6253;
350.4000;0.2499;0.6229;
350.7000;0.2507;0.6302;
351.0000;0.2532;0.6277;
351.3000;0.2499;0.6253;
351.6000;0.2515;0.6350;
351.9000;0.2515;0.6423;
352.2000;0.2507;0.6399;
352.5000;0.2523;0.6423;
352.8000;0.2523;0.6471;
353.1000;0.2523;0.6496;
353.4000;0.2515;0.6423;
353.7000;0.2515;0.6374;
354.0000;0.2507;0.6350;
354.3000;0.2507;0.6350;
354.6000;0.2499;0.6277;
354.9000;0.2523;0.6253;
355.2000;0.2491;0.6180;
355.5000;0.2515;0.6302;
355.8000;0.2499;0.6350;
356.1000;0.2450;0.6180;
356.4000;0.2515;0.6326;
356.7000;0.2507;0.6350;
357.0000;0.2507;0.6326;
357.3000;0.2499;0.6302;
357.6000;0.2515;0.6326;
357.9000;0.2499;0.6302;
358.2000;0.2532;0.6423;
358.5000;0.2515;0.6277;
358.8000;0.2483;0.6205;
359.1000;0.2385;0.5914;
359.4000;0.2499;0.6253;
359.7000;0.2475;0.6229;
360.0000;0.2499;0.6302;
360.3000;0.2499;0.6423;
360.6000;0.2532;0.6423;
360.9000;0.2515;0.6399;
361.2000;0.2499;0.6399;
361.5000;0.2515;0.6399;
361.8000;0.2548;0.6423;
362.1000;0.2499;0.6374;
362.4000;0.2507;0.6447;
362.7000;0.2475;0.6350;
363.0000;0.2515;0.6447;
363.3000;0.2507;0.6399;
363.6000;0.2466;0.6132;
363.9000;0.2515;0.6253;
364.2000;0.2507;0.6205;
364.5000;0.2499;0.6132;
364.8000;0.2499;0.6156;
365.1000;0.2499;0.6132;
365.4000;0.2515;0.6229;
365.7000;0.2483;0.6205;
366.0000;0.2515;0.6302;
366.3000;0.2483;0.6302;
366.6000;0.2475;0.6229;
366.9000;0.2515;0.6399;
367.2000;0.2532;0.6374;
367.5000;0.2507;0.6374;
367.8000;0.2499;0.6471;
368.1000;0.2523;0.6471;
368.4000;0.2523;0.6496;
368.7000;0.2515;0.6520;
369.0000;0.2426;0.6229;
369.3000;0.2515;0.6496;
369.6000;0.2507;0.6520;
369.9000;0.2450;0.6326;
370.2000;0.2507;0.6277;
370.5000;0.2491;0.6302;
370.8000;0.2523;0.6374;
371.1000;0.2515;0.6350;
371.4000;0.2483;0.6277;
371.7000;0.2507;0.6302;
372.0000;0.2564;0.6496;
372.3000;0.2483;0.6350;
372.6000;0.2507;0.6350;
372.9000;0.2507;0.6229;
373.2000;0.2515;0.6156;
373.5000;0.2499;0.6059;
373.8000;0.2483;0.5987;
374.1000;0.2499;0.6108;
374.4000;0.2507;0.6084;
374.7000;0.2523;0.6084;
375.0000;0.2532;0.6108;
375.3000;0.2491;0.6059;
375.6000;0.2499;0.6108;
375.9000;0.2507;0.6156;
376.2000;0.2515;0.6277;
376.5000;0.2523;0.6302;
376.8000;0.2507;0.6253;
377.1000;0.2507;0.6229;
377.4000;0.2515;0.6253;
377.7000;0.2515;0.6326;
378.0000;0.2507;0.6374;
378.3000;0.2532;0.6471;
378.6000;0.2556;0.6496;
378.9000;0.2515;0.6423;
379.2000;0.2507;0.6447;
379.5000;0.2491;0.6471;
379.8000;0.2507;0.6471;
380.1000;0.2499;0.6350;
380.4000;0.2409;0.6132;
380.7000;0.2523;0.6447;
381.0000;0.2507;0.6350;
381.3000;0.2507;0.6423;
381.6000;0.2491;0.6399;
381.9000;0.2556;0.6593;
382.2000;0.2515;0.6496;
382.5000;0.2491;0.6423;
382.8000;0.2499;0.6399;
383.1000;0.2515;0.6496;
383.4000;0.2491;0.6326;
383.7000;0.2491;0.6399;
384.0000;0.2507;0.6374;
384.3000;0.2475;0.6326;
384.6000;0.2491;0.6302;
384.9000;0.2507;0.6229;
385.2000;0.2564;0.6326;
385.5000;0.2499;0.6156;
385.8000;0.2499;0.6205;
386.1000;0.2499;0.6132;
386.4000;0.2523;0.6132;
386.7000;0.2507;0.6132;
387.0000;0.2580;0.6520;
387.3000;0.2515;0.6326;
387.6000;0.2507;0.6350;
387.9000;0.2499;0.6350;
388.2000;0.2515;0.6350;
388.5000;0.2507;0.6277;
388.8000;0.2523;0.6350;
389.1000;0.2507;0.6277;
389.4000;0.2507;0.6277;
389.7000;0.2450;0.6132;
390.0000;0.2515;0.6374;
390.3000;0.2450;0.6108;
390.6000;0.2450;0.6108;
390.9000;0.2499;0.6229;
391.2000;0.2499;0.6205;
391.5000;0.2613;0.6520;
391.8000;0.2515;0.6253;
392.1000;0.2499;0.6205;
392.4000;0.2605;0.6423;
392.7000;0.2507;0.6108;
393.0000;0.2426;0.5914;
393.3000;0.2475;0.6156;
393.6000;0.2507;0.6253;
393.9000;0.2523;0.6229;
394.2000;0.2507;0.6132;
394.5000;0.2483;0.6108;
394.8000;0.2507;0.6084;
395.1000;0.2499;0.6084;
395.4000;0.2499;0.6156;
395.7000;0.2507;0.6180;
396.0000;0.2523;0.6277;
396.3000;0.2466;0.6180;
396.6000;0.2491;0.6180;
396.9000;0.2491;0.6132;
397.2000;0.2499;0.6253;
397.5000;0.2499;0.6277;
397.8000;0.2483;0.6253;
398.1000;0.2507;0.6374;
398.4000;0.2499;0.6229;
398.7000;0.2507;0.6277;
399.0000;0.2515;0.6253;
399.3000;0.2523;0.6326;
399.6000;0.2507;0.6229;
399.9000;0.2499;0.6229;
400.2000;0.2507;0.6180;
400.5000;0.2491;0.6156;
400.8000;0.2475;0.6059;
401.1000;0.2499;0.6205;
401.4000;0.2523;0.6253;
401.7000;0.2507;0.6253;
402.0000;0.2491;0.6302;
402.3000;0.2523;0.6374;
402.6000;0.2515;0.6496;
402.9000;0.2507;0.6471;
403.2000;0.2499;0.6496;
403.5000;0.2507;0.6617;
403.8000;0.2499;0.6544;
404.1000;0.2523;0.6568;
404.4000;0.2556;0.6714;
404.7000;0.2515;0.6593;
405.0000;0.2507;0.6544;
405.3000;0.2475;0.6326;
405.6000;0.2499;0.6471;
405.9000;0.2426;0.6277;
406.2000;0.2483;0.6447;
406.5000;0.2491;0.6496;
406.8000;0.2499;0.6568;
407.1000;0.2499;0.6496;
407.4000;0.2507;0.6593;
407.7000;0.2515;0.6665;
408.0000;0.2483;0.6568;
408.3000;0.2507;0.6520;
408.6000;0.2499;0.6447;
408.9000;0.2532;0.6496;
409.2000;0.2507;0.6423;
409.5000;0.2483;0.6374;
409.8000;0.2499;0.6350;
410.1000;0.2499;0.6277;
410.4000;0.2499;0.6302;
410.7000;0.2507;0.6302;
411.0000;0.2491;0.6180;
411.3000;0.2540;0.6229;
411.6000;0.2507;0.6059;
411.9000;0.2499;0.6059;
412.2000;0.2507;0.5987;
412.5000;0.2523;0.6011;
412.8000;0.2540;0.6156;
413.1000;0.2499;0.6132;
413.4000;0.2499;0.6205;
413.7000;0.2515;0.6302;
414.0000;0.2507;0.6253;
414.3000;0.2401;0.5962;
414.6000;0.2572;0.6423;
414.9000;0.2499;0.6302;
415.2000;0.2507;0.6350;
415.5000;0.2613;0.6593;
415.8000;0.2499;0.6229;
416.1000;0.2499;0.6277;
416.4000;0.2515;0.6350;
416.7000;0.2507;0.6350;
417.0000;0.2491;0.6399;
417.3000;0.2532;0.6399;
417.6000;0.2507;0.6253;
417.9000;0.2499;0.6277;
418.2000;0.2458;0.6205;
418.5000;0.2466;0.6277;
418.8000;0.2515;0.6471;
419.1000;0.2507;0.6496;
419.4000;0.2507;0.6399;
419.7000;0.2507;0.6520;
420.0000;0.2499;0.6544;
420.3000;0.2515;0.6544;
420.6000;0.2491;0.6423;
420.9000;0.2466;0.6374;
421.2000;0.2515;0.6423;
421.5000;0.2507;0.6399;
421.8000;0.2515;0.6374;
422.1000;0.2507;0.6399;
422.4000;0.2507;0.6520;
422.7000;0.2507;0.6544;
423.0000;0.2572;0.6689;
423.3000;0.2483;0.6496;
423.6000;0.2507;0.6447;
423.9000;0.2572;0.6665;
424.2000;0.2515;0.6399;
424.5000;0.2540;0.6447;
424.8000;0.2442;0.6326;
425.1000;0.2499;0.6447;
425.4000;0.2507;0.6568;
425.7000;0.2499;0.6593;
426.0000;0.2393;0.6374;
426.3000;0.2499;0.6617;
426.6000;0.2507;0.6593;
426.9000;0.2556;0.6641;
427.2000;0.2491;0.6447;
427.5000;0.2499;0.6423;
427.8000;0.2491;0.6471;
428.1000;0.2426;0.6277;
428.4000;0.2491;0.6496;
428.7000;0.2491;0.6520;
429.0000;0.2499;0.6593;
429.3000;0.2499;0.6593;
429.6000;0.2483;0.6641;
429.9000;0.2491;0.6617;
430.2000;0.2458;0.6471;
430.5000;0.2507;0.6544;
430.8000;0.2580;0.6714;
431.1000;0.2499;0.6568;
431.4000;0.2418;0.6350;
431.7000;0.2507;0.6520;
432.0000;0.2507;0.6447;
432.3000;0.2491;0.6496;
432.6000;0.2499;0.6471;
432.9000;0.2491;0.6471;
433.2000;0.2499;0.6496;
433.5000;0.2499;0.6471;
433.8000;0.2491;0.6447;
434.1000;0.2507;0.6568;
434.4000;0.2499;0.6544;
434.7000;0.2475;0.6423;
435.0000;0.2442;0.6326;
435.3000;0.2523;0.6593;
435.6000;0.2499;0.6593;
435.9000;0.2507;0.6568;
436.2000;0.2507;0.6544;
436.5000;0.2426;0.6302;
436.8000;0.2499;0.6520;
437.1000;0.2507;0.6617;
437.4000;0.2491;0.6544;
437.7000;0.2499;0.6544;
438.0000;0.2499;0.6665;
438.3000;0.2499;0.6617;
438.6000;0.2450;0.6496;
438.9000;0.2515;0.6689;
439.2000;0.2507;0.6617;
439.5000;0.2483;0.6568;
439.8000;0.2523;0.6714;
440.1000;0.2515;0.6665;
440.4000;0.2499;0.6568;
440.7000;0.2499;0.6544;
441.0000;0.2499;0.6617;
441.3000;0.2442;0.6496;
441.6000;0.2507;0.6738;
441.9000;0.2499;0.6714;
442.2000;0.2499;0.6738;
442.5000;0.2532;0.6786;
442.8000;0.2507;0.6665;
443.1000;0.2491;0.6568;
443.4000;0.2523;0.6520;
443.7000;0.2523;0.6544;
444.0000;0.2491;0.6496;
444.3000;0.2458;0.6326;
444.6000;0.2507;0.6471;
444.9000;0.2572;0.6738;
445.2000;0.2466;0.6399;
445.5000;0.2507;0.6496;
445.8000;0.2483;0.6374;
446.1000;0.2385;0.6059;
446.4000;0.2499;0.6374;
446.7000;0.2499;0.6447;
447.0000;0.2507;0.6520;
447.3000;0.2491;0.6496;
447.6000;0.2499;0.6568;
447.9000;0.2499;0.6496;
448.2000;0.2499;0.6568;
448.5000;0.2483;0.6544;
448.8000;0.2507;0.6520;
449.1000;0.2507;0.6544;
449.4000;0.2491;0.6471;
449.7000;0.2523;0.6544;
450.0000;0.2523;0.6471;
450.3000;0.2564;0.6568;
450.6000;0.2499;0.6447;
450.9000;0.2507;0.6568;
451.2000;0.2499;0.6471;
451.5000;0.2499;0.6447;
451.8000;0.2515;0.6423;
452.1000;0.2499;0.6447;
452.4000;0.2450;0.6253;
452.7000;0.2499;0.6374;
453.0000;0.2483;0.6399;
453.3000;0.2499;0.6471;
453.6000;0.2507;0.6496;
453.9000;0.2466;0.6326;
454.2000;0.2523;0.6399;
454.5000;0.2499;0.6302;
454.8000;0.2434;0.6180;
455.1000;0.2499;0.6399;
455.4000;0.2564;0.6520;
455.7000;0.2580;0.6641;
456.0000;0.2483;0.6399;
456.3000;0.2515;0.6496;
456.6000;0.2499;0.6447;
456.9000;0.2515;0.6496;
457.2000;0.2466;0.6350;
457.5000;0.2507;0.6496;
457.8000;0.2580;0.6641;
458.1000;0.2515;0.6423;
458.4000;0.2507;0.6374;
458.7000;0.2515;0.6302;
459.0000;0.2515;0.6350;
459.3000;0.2483;0.6326;
459.6000;0.2499;0.6277;
459.9000;0.2499;0.6156;
460.2000;0.2499;0.6205;
460.5000;0.2499;0.6156;
460.8000;0.2515;0.6180;
461.1000;0.2507;0.6156;
461.4000;0.2515;0.6302;
461.7000;0.2499;0.6253;
462.0000;0.2491;0.6277;
462.3000;0.2507;0.6471;
462.6000;0.2507;0.6520;
462.9000;0.2491;0.6471;
463.2000;0.2507;0.6520;
463.5000;0.2507;0.6520;
463.8000;0.2491;0.6520;
464.1000;0.2499;0.6423;
464.4000;0.2491;0.6447;
464.7000;0.2499;0.6423;
465.0000;0.2393;0.6205;
465.3000;0.2515;0.6544;
465.6000;0.2515;0.6641;
465.9000;0.2483;0.6568;
466.2000;0.2556;0.6665;
466.5000;0.2499;0.6568;
466.8000;0.2507;0.6544;
467.1000;0.2507;0.6617;
467.4000;0.2499;0.6544;
467.7000;0.2515;0.6568;
468.0000;0.2507;0.6568;
468.3000;0.2515;0.6617;
468.6000;0.2499;0.6544;
468.9000;0.2523;0.6544;
469.2000;0.2507;0.6496;
469.5000;0.2491;0.6568;
469.8000;0.2515;0.6593;
470.1000;0.2532;0.6617;
470.4000;0.2499;0.6496;
470.7000;0.2499;0.6471;
471.0000;0.2483;0.6447;
471.3000;0.2507;0.6447;
471.6000;0.2491;0.6471;
471.9000;0.2491;0.6496;
472.2000;0.2515;0.6471;
472.5000;0.2515;0.6447;
472.8000;0.2483;0.6447;
473.1000;0.2483;0.6423;
473.4000;0.2515;0.6447;
473.7000;0.2483;0.6350;
474.0000;0.2515;0.6374;
474.3000;0.2491;0.6350;
474.6000;0.2499;0.6447;
474.9000;0.2491;0.6399;
475.2000;0.2523;0.6471;
475.5000;0.2515;0.6471;
475.8000;0.2507;0.6399;
476.1000;0.2483;0.6374;
476.4000;0.2499;0.6423;
476.7000;0.2507;0.6471;
477.0000;0.2499;0.6471;
477.3000;0.2466;0.6302;
477.6000;0.2450;0.6229;
477.9000;0.2523;0.6423;
478.2000;0.2564;0.6568;
478.5000;0.2499;0.6423;
478.8000;0.2507;0.6447;
479.1000;0.2523;0.6520;
479.4000;0.2515;0.6568;
479.7000;0.2507;0.6471;
480.0000;0.2532;0.6350;
480.3000;0.2515;0.6205;
480.6000;0.2491;0.6035;
480.9000;0.2507;0.6132;
481.2000;0.2499;0.6108;
481.5000;0.2483;0.6108;
481.8000;0.2507;0.6156;
482.1000;0.2491;0.6156;
482.4000;0.2491;0.6132;
482.7000;0.2491;0.6180;
483.0000;0.2507;0.6229;
483.3000;0.2499;0.6180;
483.6000;0.2507;0.6108;
483.9000;0.2499;0.6108;
484.2000;0.2507;0.6180;
484.5000;0.2507;0.6108;
484.8000;0.2507;0.6156;
485.1000;0.2499;0.6180;
485.4000;0.2515;0.6277;
485.7000;0.2442;0.6132;
486.0000;0.2515;0.6302;
486.3000;0.2507;0.6326;
486.6000;0.2507;0.6350;
486.9000;0.2507;0.6302;
487.2000;0.2475;0.6180;
487.5000;0.2499;0.6180;
487.8000;0.2515;0.6132;
488.1000;0.2499;0.6084;
488.4000;0.2515;0.6229;
488.7000;0.2507;0.6302;
489.0000;0.2507;0.6374;
489.3000;0.2507;0.6374;
489.6000;0.2507;0.6399;
489.9000;0.2507;0.6447;
490.2000;0.2491;0.6399;
490.5000;0.2499;0.6423;
490.8000;0.2475;0.6374;
491.1000;0.2491;0.6374;
491.4000;0.2507;0.6302;
491.7000;0.2483;0.6229;
492.0000;0.2605;0.6568;
492.3000;0.2475;0.6326;
492.6000;0.2491;0.6326;
492.9000;0.2499;0.6326;
493.2000;0.2409;0.6059;
493.5000;0.2515;0.6302;
493.8000;0.2491;0.6205;
494.1000;0.2491;0.6229;
494.4000;0.2507;0.6180;
494.7000;0.2499;0.6035;
495.0000;0.2483;0.6059;
495.3000;0.2507;0.6132;
495.6000;0.2499;0.6156;
495.9000;0.2507;0.6180;
496.2000;0.2572;0.6374;
496.5000;0.2507;0.6229;
496.8000;0.2507;0.6302;
497.1000;0.2515;0.6399;
497.4000;0.2507;0.6447;
497.7000;0.2499;0.6423;
498.0000;0.2491;0.6374;
498.3000;0.2507;0.6447;
498.6000;0.2458;0.6253;
498.9000;0.2491;0.6326;
499.2000;0.2491;0.6326;
499.5000;0.2418;0.6108;
499.8000;0.2507;0.6399;
500.1000;0.2499;0.6326;
500.4000;0.2499;0.6374;
500.7000;0.2466;0.6326;
501.0000;0.2499;0.6399;
501.3000;0.2507;0.6423;
501.6000;0.2409;0.6108;
501.9000;0.2475;0.6326;
502.2000;0.2483;0.6423;
502.5000;0.2483;0.6399;
502.8000;0.2499;0.6423;
503.1000;0.2532;0.6496;
503.4000;0.2491;0.6423;
503.7000;0.2507;0.6399;
504.0000;0.2491;0.6326;
504.3000;0.2491;0.6229;
504.6000;0.2475;0.6132;
504.9000;0.2507;0.6229;
505.2000;0.2491;0.6156;
505.5000;0.2507;0.6180;
505.8000;0.2499;0.6205;
506.1000;0.2507;0.6326;
506.4000;0.2523;0.6374;
506.7000;0.2418;0.6059;
507.0000;0.2515;0.6350;
507.3000;0.2532;0.6447;
507.6000;0.2491;0.6326;
507.9000;0.2483;0.6277;
508.2000;0.2499;0.6277;
508.5000;0.2613;0.6568;
508.8000;0.2499;0.6326;
509.1000;0.2499;0.6326;
509.4000;0.2491;0.6302;
509.7000;0.2507;0.6253;
510.0000;0.2499;0.6205;
510.3000;0.2499;0.6180;
510.6000;0.2499;0.6229;
510.9000;0.2507;0.6277;
511.2000;0.2523;0.6302;
511.5000;0.2507;0.6229;
511.8000;0.2499;0.6253;
512.1000;0.2523;0.6326;
512.4000;0.2507;0.6326;
512.7000;0.2515;0.6350;
513.0000;0.2523;0.6350;
513.3000;0.2475;0.6156;
513.6000;0.2507;0.6277;
513.9000;0.2401;0.6035;
514.2000;0.2491;0.6253;
514.5000;0.2507;0.6205;
514.8000;0.2523;0.6180;
515.1000;0.2491;0.6084;
515.4000;0.2499;0.6156;
515.7000;0.2475;0.6108;
516.0000;0.2515;0.6253;
516.3000;0.2499;0.6326;
516.6000;0.2515;0.6399;
516.9000;0.2483;0.6302;
517.2000;0.2507;0.6374;
517.5000;0.2507;0.6374;
517.8000;0.2507;0.6399;
518.1000;0.2515;0.6374;
518.4000;0.2532;0.6374;
518.7000;0.2499;0.6302;
519.0000;0.2507;0.6374;
519.3000;0.2523;0.6399;
519.6000;0.2507;0.6496;
519.9000;0.2523;0.6568;
520.2000;0.2515;0.6617;
520.5000;0.2475;0.6447;
520.8000;0.2491;0.6496;
521.1000;0.2515;0.6568;
521.4000;0.2499;0.6496;
521.7000;0.2515;0.6544;
522.0000;0.2499;0.6520;
522.3000;0.2499;0.6544;
522.6000;0.2507;0.6496;
522.9000;0.2507;0.6447;
523.2000;0.2523;0.6471;
523.5000;0.2491;0.6374;
523.8000;0.2556;0.6471;
524.1000;0.2515;0.6399;
524.4000;0.2475;0.6253;
524.7000;0.2507;0.6302;
525.0000;0.2491;0.6253;
525.3000;0.2483;0.6302;
525.6000;0.2442;0.6156;
525.9000;0.2564;0.6423;
526.2000;0.2499;0.6277;
526.5000;0.2475;0.6253;
526.8000;0.2499;0.6302;
527.1000;0.2483;0.6302;
527.4000;0.2491;0.6350;
527.7000;0.2483;0.6350;
528.0000;0.2499;0.6568;
528.3000;0.2491;0.6568;
528.6000;0.2483;0.6447;
528.9000;0.2499;0.6447;
529.2000;0.2499;0.6399;
529.5000;0.2499;0.6326;
529.8000;0.2483;0.6326;
530.1000;0.2515;0.6302;
530.4000;0.2475;0.6180;
530.7000;0.2499;0.6253;
531.0000;0.2499;0.6229;
531.3000;0.2523;0.6374;
531.6000;0.2556;0.6447;
531.9000;0.2507;0.6302;
532.2000;0.2499;0.6229;
532.5000;0.2556;0.6374;
532.8000;0.2515;0.6374;
533.1000;0.2507;0.6277;
533.4000;0.2499;0.6229;
533.7000;0.2499;0.6205;
534.0000;0.2499;0.6277;
534.3000;0.2499;0.6253;
534.6000;0.2499;0.6302;
534.9000;0.2499;0.6326;
535.2000;0.2499;0.6277;
535.5000;0.2491;0.6326;
535.8000;0.2434;0.6132;
536.1000;0.2491;0.6302;
536.4000;0.2491;0.6302;
536.7000;0.2499;0.6302;
537.0000;0.2515;0.6399;
537.3000;0.2475;0.6399;
537.6000;0.2491;0.6447;
537.9000;0.2515;0.6471;
538.2000;0.2507;0.6374;
538.5000;0.2475;0.6326;
538.8000;0.2483;0.6253;
539.1000;0.2450;0.6132;
539.4000;0.2483;0.6277;
539.7000;0.2491;0.6229;
540.0000;0.2475;0.6253;
540.3000;0.2491;0.6277;
540.6000;0.2507;0.6350;
540.9000;0.2491;0.6326;
541.2000;0.2483;0.6302;
541.5000;0.2499;0.6277;
541.8000;0.2499;0.6229;
542.1000;0.2499;0.6156;
542.4000;0.2475;0.6059;
542.7000;0.2523;0.6180;
543.0000;0.2475;0.6084;
543.3000;0.2523;0.6229;
543.6000;0.2523;0.6253;
543.9000;0.2499;0.6180;
544.2000;0.2483;0.6253;
544.5000;0.2507;0.6277;
544.8000;0.2491;0.6229;
545.1000;0.2499;0.6205;
545.4000;0.2491;0.6253;
545.7000;0.2556;0.6447;
546.0000;0.2515;0.6326;
546.3000;0.2491;0.6277;
546.6000;0.2589;0.6496;
546.9000;0.2458;0.6205;
547.2000;0.2515;0.6277;
547.5000;0.2475;0.6156;
547.8000;0.2483;0.6229;
548.1000;0.2499;0.6326;
548.4000;0.2515;0.6253;
548.7000;0.2499;0.6205;
549.0000;0.2499;0.6180;
549.3000;0.2532;0.6326;
549.6000;0.2499;0.6302;
549.9000;0.2491;0.6350;
550.2000;0.2483;0.6277;
550.5000;0.2507;0.6253;
550.8000;0.2540;0.6326;
551.1000;0.2613;0.6568;
551.4000;0.2499;0.6302;
551.7000;0.2466;0.6253;
552.0000;0.2515;0.6423;
552.3000;0.2499;0.6326;
552.6000;0.2466;0.6229;
552.9000;0.2515;0.6277;
553.2000;0.2523;0.6229;
553.5000;0.2515;0.6180;
553.8000;0.2499;0.6205;
554.1000;0.2523;0.6253;
554.4000;0.2507;0.6156;
554.7000;0.2491;0.6180;
555.0000;0.2491;0.6180;
555.3000;0.2483;0.6132;
555.6000;0.2499;0.6108;
555.9000;0.2589;0.6326;
556.2000;0.2491;0.6132;
556.5000;0.2499;0.6205;
556.8000;0.2507;0.6132;
557.1000;0.2499;0.6205;
557.4000;0.2507;0.6180;
557.7000;0.2499;0.6084;
558.0000;0.2491;0.6059;
558.3000;0.2499;0.6059;
558.6000;0.2507;0.6156;
558.9000;0.2507;0.6229;
559.2000;0.2499;0.6205;
559.5000;0.2491;0.6229;
559.8000;0.2483;0.6253;
560.1000;0.2458;0.6253;
560.4000;0.2499;0.6277;
560.7000;0.2499;0.6326;
561.0000;0.2499;0.6374;
561.3000;0.2532;0.6423;
561.6000;0.2515;0.6374;
561.9000;0.2491;0.6326;
562.2000;0.2483;0.6229;
562.5000;0.2499;0.6326;
562.8000;0.2507;0.6302;
563.1000;0.2507;0.6253;
563.4000;0.2499;0.6277;
563.7000;0.2515;0.6180;
564.0000;0.2507;0.6205;
564.3000;0.2483;0.6229;
564.6000;0.2483;0.6229;
564.9000;0.2499;0.6180;
565.2000;0.2450;0.5914;
565.5000;0.2499;0.6011;
565.8000;0.2483;0.5987;
566.1000;0.2499;0.5987;
566.4000;0.2540;0.6108;
566.7000;0.2499;0.5962;
567.0000;0.2499;0.5890;
567.3000;0.2507;0.5987;
567.6000;0.2507;0.6011;
567.9000;0.2483;0.5987;
568.2000;0.2499;0.6084;
568.5000;0.2515;0.6156;
568.8000;0.2515;0.6132;
569.1000;0.2515;0.6108;
569.4000;0.2515;0.6156;
569.7000;0.2491;0.6156;
570.0000;0.2475;0.6059;
570.3000;0.2515;0.6132;
570.6000;0.2515;0.6156;
570.9000;0.2507;0.6084;
571.2000;0.2393;0.5768;
571.5000;0.2507;0.6059;
571.8000;0.2483;0.6035;
572.1000;0.2483;0.6035;
572.4000;0.2491;0.6011;
572.7000;0.2637;0.6350;
573.0000;0.2491;0.6084;
573.3000;0.2499;0.6180;
573.6000;0.2483;0.6180;
573.9000;0.2499;0.6253;
574.2000;0.2507;0.6277;
574.5000;0.2483;0.6229;
574.8000;0.2556;0.6399;
575.1000;0.2483;0.6132;
575.4000;0.2491;0.6108;
575.7000;0.2499;0.6059;
576.0000;0.2491;0.5987;
576.3000;0.2499;0.5962;
576.6000;0.2466;0.5841;
576.9000;0.2483;0.6011;
577.2000;0.2499;0.5987;
577.5000;0.2483;0.6035;
577.8000;0.2499;0.6035;
578.1000;0.2499;0.6035;
578.4000;0.2507;0.6084;
578.7000;0.2515;0.6084;
579.0000;0.2515;0.6035;
579.3000;0.2483;0.5987;
579.6000;0.2499;0.5938;
579.9000;0.2491;0.5890;
580.2000;0.2491;0.5817;
580.5000;0.2491;0.5768;
580.8000;0.2483;0.5720;
581.1000;0.2499;0.5793;
581.4000;0.2499;0.5817;
581.7000;0.2507;0.5890;
582.0000;0.2499;0.5793;
582.3000;0.2515;0.5841;
582.6000;0.2499;0.5768;
582.9000;0.2491;0.5744;
583.2000;0.2507;0.5793;
583.5000;0.2515;0.5817;
583.8000;0.2499;0.5841;
584.1000;0.2409;0.5550;
584.4000;0.2507;0.5890;
584.7000;0.2483;0.5890;
585.0000;0.2499;0.5865;
585.3000;0.2523;0.5914;
585.6000;0.2515;0.5793;
585.9000;0.2483;0.5768;
586.2000;0.2507;0.5744;
586.5000;0.2507;0.5793;
586.8000;0.2499;0.5841;
587.1000;0.2483;0.5865;
587.4000;0.2499;0.5987;
587.7000;0.2499;0.6011;
588.0000;0.2507;0.5987;
588.3000;0.2499;0.5962;
588.6000;0.2491;0.5865;
588.9000;0.2483;0.5841;
589.2000;0.2312;0.5405;
589.5000;0.2499;0.5938;
589.8000;0.2515;0.5914;
590.1000;0.2491;0.5841;
590.4000;0.2515;0.5841;
590.7000;0.2491;0.5817;
591.0000;0.2491;0.5890;
591.3000;0.2475;0.5890;
591.6000;0.2564;0.6156;
591.9000;0.2483;0.5865;
592.2000;0.2499;0.5987;
592.5000;0.2499;0.5962;
592.8000;0.2507;0.5962;
593.1000;0.2523;0.6059;
593.4000;0.2491;0.6035;
593.7000;0.2499;0.5987;
594.0000;0.2499;0.6035;
594.3000;0.2540;0.6108;
594.6000;0.2548;0.6084;
594.9000;0.2491;0.5938;
595.2000;0.2499;0.5865;
595.5000;0.2515;0.6011;
595.8000;0.2515;0.5987;
596.1000;0.2499;0.6035;
596.4000;0.2491;0.6011;
596.7000;0.2548;0.6180;
597.0000;0.2450;0.5938;
597.3000;0.2499;0.6059;
597.6000;0.2450;0.5841;
597.9000;0.2499;0.5987;
598.2000;0.2515;0.5987;
598.5000;0.2491;0.5890;
598.8000;0.2491;0.5865;
599.1000;0.2532;0.5987;
599.4000;0.2507;0.5962;
599.7000;0.2491;0.5987;
600.0000;0.2491;0.6035;
600.3000;0.2483;0.5962;
600.6000;0.2491;0.5914;
600.9000;0.2475;0.5841;
601.2000;0.2458;0.5696;
601.5000;0.2466;0.5429;
601.8000;0.2458;0.5284;
602.1000;0.2580;0.5453;
602.4000;0.2475;0.5114;
602.7000;0.2434;0.4872;
603.0000;0.2450;0.4750;
603.3000;0.2450;0.4581;
603.6000;0.2450;0.4532;
603.9000;0.2442;0.4484;
604.2000;0.2434;0.4411;
604.5000;0.2458;0.4338;
604.8000;0.2418;0.4120;
605.1000;0.2409;0.4120;
605.4000;0.2434;0.4120;
605.7000;0.2418;0.4023;
606.0000;0.2418;0.3951;
606.3000;0.2401;0.3854;
606.6000;0.2442;0.3926;
606.9000;0.2418;0.3829;
607.2000;0.2409;0.3805;
607.5000;0.2352;0.3611;
607.8000;0.2418;0.3757;
608.1000;0.2426;0.3733;
608.4000;0.2352;0.3587;
608.7000;0.2401;0.3660;
609.0000;0.2401;0.3684;
609.3000;0.2418;0.3708;
609.6000;0.2409;0.3684;
609.9000;0.2409;0.3660;
610.2000;0.2393;0.3684;
610.5000;0.2409;0.3708;
610.8000;0.2401;0.3708;
611.1000;0.2434;0.3781;
611.4000;0.2385;0.3708;
611.7000;0.2393;0.3781;
612.0000;0.2393;0.3757;
612.3000;0.2385;0.3636;
612.6000;0.2385;0.3636;
612.9000;0.2401;0.3611;
613.2000;0.2426;0.3636;
613.5000;0.2409;0.3660;
613.8000;0.2401;0.3563;
614.1000;0.2401;0.3563;
614.4000;0.2418;0.3611;
614.7000;0.2401;0.3611;
615.0000;0.2393;0.3611;
615.3000;0.2393;0.3660;
615.6000;0.2418;0.3636;
615.9000;0.2401;0.3660;
616.2000;0.2385;0.3587;
616.5000;0.2385;0.3563;
616.8000;0.2393;0.3490;
617.1000;0.2418;0.3490;
617.4000;0.2352;0.3345;
617.7000;0.2418;0.3442;
618.0000;0.2409;0.3417;
618.3000;0.2418;0.3490;
618.6000;0.2426;0.3563;
618.9000;0.2377;0.3345;
619.2000;0.2401;0.3345;
619.5000;0.2369;0.3224;
619.8000;0.2393;0.3296;
620.1000;0.2393;0.3248;
620.4000;0.2377;0.3224;
620.7000;0.2385;0.3296;
621.0000;0.2352;0.3199;
621.3000;0.2434;0.3466;
621.6000;0.2385;0.3296;
621.9000;0.2385;0.3272;
622.2000;0.2377;0.3248;
622.5000;0.2458;0.3563;
622.8000;0.2393;0.3417;
623.1000;0.2393;0.3369;
623.4000;0.2401;0.3248;
623.7000;0.2401;0.3248;
624.0000;0.2393;0.3224;
624.3000;0.2377;0.3175;
624.6000;0.2393;0.3272;
624.9000;0.2401;0.3393;
625.2000;0.2393;0.3417;
625.5000;0.2385;0.3369;
625.8000;0.2393;0.3224;
626.1000;0.2401;0.3320;
626.4000;0.2418;0.3296;
626.7000;0.2401;0.3272;
627.0000;0.2401;0.3272;
627.3000;0.2409;0.3393;
627.6000;0.2393;0.3466;
627.9000;0.2426;0.3466;
628.2000;0.2385;0.3369;
628.5000;0.2418;0.3442;
628.8000;0.2401;0.3320;
629.1000;0.2409;0.3393;
629.4000;0.2401;0.3393;
629.7000;0.2409;0.3369;
630.0000;0.2466;0.3563;
630.3000;0.2393;0.3490;
630.6000;0.2393;0.3563;
630.9000;0.2344;0.3490;
631.2000;0.2401;0.3660;
631.5000;0.2287;0.3393;
631.8000;0.2377;0.3539;
632.1000;0.2418;0.3684;
632.4000;0.2385;0.3781;
632.7000;0.2418;0.3757;
633.0000;0.2304;0.3417;
633.3000;0.2393;0.3514;
633.6000;0.2418;0.3514;
633.9000;0.2401;0.3563;
634.2000;0.2385;0.3539;
634.5000;0.2393;0.3514;
634.8000;0.2418;0.3539;
635.1000;0.2352;0.3345;
635.4000;0.2393;0.3393;
635.7000;0.2409;0.3369;
636.0000;0.2271;0.3078;
636.3000;0.2409;0.3466;
636.6000;0.2336;0.3248;
636.9000;0.2393;0.3466;
637.2000;0.2401;0.3587;
637.5000;0.2393;0.3611;
637.8000;0.2393;0.3563;
638.1000;0.2401;0.3539;
638.4000;0.2393;0.3466;
638.7000;0.2320;0.3199;
639.0000;0.2409;0.3442;
639.3000;0.2328;0.3151;
639.6000;0.2393;0.3369;
639.9000;0.2442;0.3539;
640.2000;0.2434;0.3611;
640.5000;0.2409;0.3587;
640.8000;0.2418;0.3563;
641.1000;0.2409;0.3587;
641.4000;0.2393;0.3611;
641.7000;0.2483;0.3805;
642.0000;0.2401;0.3611;
642.3000;0.2401;0.3514;
642.6000;0.2401;0.3587;
642.9000;0.2426;0.3563;
643.2000;0.2401;0.3490;
643.5000;0.2377;0.3490;
643.8000;0.2393;0.3490;
644.1000;0.2393;0.3466;
644.4000;0.2409;0.3514;
644.7000;0.2377;0.3417;
645.0000;0.2409;0.3490;
645.3000;0.2409;0.3490;
645.6000;0.2418;0.3417;
645.9000;0.2401;0.3417;
646.2000;0.2475;0.3660;
646.5000;0.2401;0.3514;
646.8000;0.2401;0.3587;
647.1000;0.2377;0.3563;
647.4000;0.2418;0.3733;
647.7000;0.2369;0.3563;
648.0000;0.2401;0.3539;
648.3000;0.2393;0.3490;
648.6000;0.2401;0.3514;
648.9000;0.2409;0.3587;
649.2000;0.2409;0.3539;
649.5000;0.2385;0.3514;
649.8000;0.2418;0.3514;
650.1000;0.2393;0.3490;
650.4000;0.2377;0.3490;
650.7000;0.2377;0.3539;
651.0000;0.2434;0.3757;
651.3000;0.2377;0.3684;
651.6000;0.2377;0.3757;
651.9000;0.2377;0.3781;
652.2000;0.2385;0.3805;
652.5000;0.2409;0.3878;
652.8000;0.2401;0.3757;
653.1000;0.2385;0.3733;
653.4000;0.2401;0.3805;
653.7000;0.2409;0.3829;
654.0000;0.2401;0.3757;
654.3000;0.2442;0.3829;
654.6000;0.2401;0.3757;
654.9000;0.2377;0.3684;
655.2000;0.2377;0.3660;
655.5000;0.2442;0.3757;
655.8000;0.2409;0.3708;
656.1000;0.2352;0.3563;
656.4000;0.2385;0.3660;
656.7000;0.2401;0.3781;
657.0000;0.2361;0.3611;
657.3000;0.2271;0.3393;
657.6000;0.2385;0.3733;
657.9000;0.2442;0.3733;
658.2000;0.2409;0.3684;
658.5000;0.2418;0.3781;
658.8000;0.2401;0.3757;
659.1000;0.2393;0.3781;
659.4000;0.2393;0.3781;
659.7000;0.2409;0.3829;
660.0000;0.2409;0.3757;
660.3000;0.2385;0.3733;
660.6000;0.2426;0.3878;
660.9000;0.2393;0.3757;
661.2000;0.2409;0.3854;
661.5000;0.2401;0.3854;
661.8000;0.2401;0.3902;
662.1000;0.2401;0.3854;
662.4000;0.2458;0.3854;
662.7000;0.2377;0.3660;
663.0000;0.2418;0.3708;
663.3000;0.2393;0.3611;
663.6000;0.2385;0.3514;
663.9000;0.2401;0.3539;
664.2000;0.2385;0.3466;
664.5000;0.2458;0.3660;
664.8000;0.2401;0.3587;
665.1000;0.2393;0.3636;
665.4000;0.2483;0.3878;
665.7000;0.2401;0.3684;
666.0000;0.2426;0.3733;
666.3000;0.2385;0.3733;
666.6000;0.2409;0.3805;
666.9000;0.2409;0.3878;
667.2000;0.2369;0.3708;
667.5000;0.2385;0.3757;
667.8000;0.2352;0.3660;
668.1000;0.2401;0.3805;
668.4000;0.2418;0.3805;
668.7000;0.2385;0.3781;
669.0000;0.2377;0.3733;
669.3000;0.2385;0.3805;
669.6000;0.2401;0.3902;
669.9000;0.2385;0.3854;
670.2000;0.2361;0.3805;
670.5000;0.2434;0.3999;
670.8000;0.2418;0.3951;
671.1000;0.2418;0.3926;
671.4000;0.2409;0.3805;
671.7000;0.2450;0.3805;
672.0000;0.2409;0.3757;
672.3000;0.2385;0.3684;
672.6000;0.2507;0.4023;
672.9000;0.2401;0.3708;
673.2000;0.2385;0.3660;
673.5000;0.2418;0.3733;
673.8000;0.2401;0.3684;
674.1000;0.2434;0.3805;
674.4000;0.2409;0.3781;
674.7000;0.2409;0.3805;
675.0000;0.2401;0.3757;
675.3000;0.2352;0.3708;
675.6000;0.2401;0.3878;
675.9000;0.2409;0.3951;
676.2000;0.2393;0.3829;
676.5000;0.2385;0.3902;
676.8000;0.2418;0.3975;
677.1000;0.2434;0.4048;
677.4000;0.2401;0.4023;
677.7000;0.2401;0.3999;
678.0000;0.2393;0.4023;
678.3000;0.2320;0.3829;
678.6000;0.2393;0.3926;
678.9000;0.2393;0.3829;
679.2000;0.2418;0.3902;
679.5000;0.2458;0.3999;
679.8000;0.2409;0.3926;
680.1000;0.2328;0.3684;
680.4000;0.2385;0.3829;
680.7000;0.2418;0.3805;
681.0000;0.2401;0.3781;
681.3000;0.2564;0.4145;
681.6000;0.2385;0.3684;
681.9000;0.2409;0.3660;
682.2000;0.2385;0.3636;
682.5000;0.2418;0.3684;
682.8000;0.2401;0.3660;
683.1000;0.2418;0.3708;
683.4000;0.2418;0.3781;
683.7000;0.2393;0.3708;
684.0000;0.2385;0.3708;
684.3000;0.2418;0.3733;
684.6000;0.2426;0.3660;
684.9000;0.2418;0.3660;
685.2000;0.2409;0.3611;
685.5000;0.2393;0.3539;
685.8000;0.2401;0.3539;
686.1000;0.2475;0.3733;
686.4000;0.2401;0.3563;
686.7000;0.2409;0.3611;
687.0000;0.2418;0.3563;
687.3000;0.2426;0.3660;
687.6000;0.2418;0.3708;
687.9000;0.2401;0.3708;
688.2000;0.2401;0.3611;
688.5000;0.2393;0.3587;
688.8000;0.2401;0.3660;
689.1000;0.2401;0.3708;
689.4000;0.2458;0.3926;
689.7000;0.2401;0.3829;
690.0000;0.2418;0.3829;
690.3000;0.2393;0.3781;
690.6000;0.2385;0.3684;
690.9000;0.2401;0.3757;
691.2000;0.2418;0.3854;
691.5000;0.2401;0.3805;
691.8000;0.2409;0.3781;
692.1000;0.2401;0.3781;
692.4000;0.2393;0.3805;
692.7000;0.2401;0.3805;
693.0000;0.2393;0.3781;
693.3000;0.2409;0.3757;
693.6000;0.2385;0.3708;
693.9000;0.2450;0.3878;
694.2000;0.2401;0.3660;
694.5000;0.2393;0.3587;
694.8000;0.2393;0.3636;
695.1000;0.2385;0.3611;
695.4000;0.2377;0.3563;
695.7000;0.2377;0.3490;
696.0000;0.2409;0.3563;
696.3000;0.2393;0.3539;
696.6000;0.2401;0.3490;
696.9000;0.2409;0.3490;
697.2000;0.2409;0.3466;
697.5000;0.2401;0.3393;
697.8000;0.2401;0.3345;
698.1000;0.2409;0.3345;
698.4000;0.2393;0.3417;
698.7000;0.2385;0.3417;
699.0000;0.2393;0.3369;
699.3000;0.2377;0.3320;
699.6000;0.2393;0.3393;
699.9000;0.2393;0.3514;
700.2000;0.2393;0.3490;
700.5000;0.2401;0.3514;
700.8000;0.2409;0.3539;
701.1000;0.2393;0.3466;
701.4000;0.2442;0.3514;
701.7000;0.2401;0.3490;
702.0000;0.2418;0.3587;
702.3000;0.2426;0.3660;
702.6000;0.2401;0.3660;
702.9000;0.2418;0.3636;
703.2000;0.2222;0.3127;
703.5000;0.2393;0.3611;
703.8000;0.2401;0.3636;
704.1000;0.2418;0.3757;
704.4000;0.2393;0.3611;
704.7000;0.2393;0.3563;
705.0000;0.2401;0.3708;
705.3000;0.2361;0.3708;
705.6000;0.2393;0.3733;
705.9000;0.2401;0.3757;
706.2000;0.2409;0.3708;
706.5000;0.2418;0.3781;
706.8000;0.2434;0.3733;
707.1000;0.2401;0.3708;
707.4000;0.2401;0.3636;
707.7000;0.2401;0.3708;
708.0000;0.2287;0.3369;
708.3000;0.2393;0.3563;
708.6000;0.2328;0.3514;
708.9000;0.2393;0.3587;
709.2000;0.2393;0.3442;
709.5000;0.2418;0.3417;
709.8000;0.2401;0.3466;
710.1000;0.2418;0.3490;
710.4000;0.2352;0.3369;
710.7000;0.2434;0.3539;
711.0000;0.2409;0.3466;
711.3000;0.2393;0.3466;
711.6000;0.2418;0.3587;
711.9000;0.2434;0.3660;
712.2000;0.2401;0.3563;
712.5000;0.2393;0.3587;
712.8000;0.2401;0.3636;
713.1000;0.2401;0.3708;
713.4000;0.2409;0.3708;
713.7000;0.2369;0.3539;
714.0000;0.2401;0.3636;
714.3000;0.2418;0.3587;
714.6000;0.2393;0.3539;
714.9000;0.2369;0.3539;
715.2000;0.2418;0.3636;
715.5000;0.2385;0.3587;
715.8000;0.2450;0.3757;
716.1000;0.2377;0.3636;
716.4000;0.2409;0.3757;
716.7000;0.2409;0.3757;
717.0000;0.2418;0.3757;
717.3000;0.2426;0.3708;
717.6000;0.2385;0.3636;
717.9000;0.2336;0.3490;
718.2000;0.2401;0.3684;
718.5000;0.2475;0.3829;
718.8000;0.2369;0.3490;
719.1000;0.2409;0.3587;
719.4000;0.2385;0.3611;
719.7000;0.2409;0.3660;
720.0000;0.2393;0.3757;
720.3000;0.2409;0.3781;
720.6000;0.2426;0.3757;
720.9000;0.2450;0.3878;
721.2000;0.2409;0.3757;
721.5000;0.2426;0.3684;
721.8000;0.2409;0.3563;
722.1000;0.2401;0.3636;
722.4000;0.2426;0.3708;
722.7000;0.2409;0.3781;
723.0000;0.2418;0.3733;
723.3000;0.2385;0.3611;
723.6000;0.2418;0.3611;
723.9000;0.2401;0.3466;
724.2000;0.2409;0.3466;
724.5000;0.2409;0.3466;
724.8000;0.2418;0.3539;
725.1000;0.2369;0.3539;
725.4000;0.2409;0.3611;
725.7000;0.2418;0.3636;
726.0000;0.2401;0.3636;
726.3000;0.2409;0.3611;
726.6000;0.2393;0.3660;
726.9000;0.2426;0.3854;
727.2000;0.2532;0.4096;
727.5000;0.2409;0.3805;
727.8000;0.2401;0.3781;
728.1000;0.2450;0.3805;
728.4000;0.2409;0.3708;
728.7000;0.2393;0.3757;
729.0000;0.2401;0.3854;
729.3000;0.2361;0.3708;
729.6000;0.2418;0.3781;
729.9000;0.2442;0.3854;
730.2000;0.2385;0.3708;
730.5000;0.2393;0.3733;
730.8000;0.2401;0.3781;
731.1000;0.2377;0.3733;
731.4000;0.2361;0.3684;
731.7000;0.2409;0.3829;
732.0000;0.2361;0.3636;
732.3000;0.2295;0.3490;
732.6000;0.2369;0.3684;
732.9000;0.2401;0.3781;
733.2000;0.2401;0.3878;
733.5000;0.2409;0.3926;
733.8000;0.2393;0.3854;
734.1000;0.2377;0.3854;
734.4000;0.2401;0.3902;
734.7000;0.2409;0.3926;
735.0000;0.2361;0.3805;
735.3000;0.2401;0.3878;
735.6000;0.2442;0.3926;
735.9000;0.2393;0.3781;
736.2000;0.2409;0.3781;
736.5000;0.2393;0.3805;
736.8000;0.2418;0.3805;
737.1000;0.2418;0.3757;
737.4000;0.2401;0.3757;
737.7000;0.2418;0.3781;
738.0000;0.2466;0.3999;
738.3000;0.2426;0.3854;
738.6000;0.2385;0.3878;
738.9000;0.2418;0.3854;
739.2000;0.2393;0.3902;
739.5000;0.2401;0.3926;
739.8000;0.2409;0.3854;
740.1000;0.2418;0.3829;
740.4000;0.2434;0.3781;
740.7000;0.2418;0.3781;
741.0000;0.2426;0.3926;
741.3000;0.2418;0.3805;
741.6000;0.2409;0.3708;
741.9000;0.2426;0.3684;
742.2000;0.2393;0.3636;
742.5000;0.2409;0.3636;
742.8000;0.2442;0.3733;
743.1000;0.2409;0.3684;
743.4000;0.2401;0.3684;
743.7000;0.2409;0.3684;
744.0000;0.2401;0.3708;
744.3000;0.2426;0.3781;
744.6000;0.2418;0.3733;
744.9000;0.2393;0.3733;
745.2000;0.2426;0.3781;
745.5000;0.2393;0.3708;
745.8000;0.2401;0.3757;
746.1000;0.2401;0.3757;
746.4000;0.2409;0.3781;
746.7000;0.2418;0.3733;
747.0000;0.2401;0.3733;
747.3000;0.2377;0.3611;
747.6000;0.2409;0.3708;
747.9000;0.2401;0.3708;
748.2000;0.2409;0.3781;
748.5000;0.2418;0.3708;
748.8000;0.2475;0.3902;
749.1000;0.2393;0.3733;
749.4000;0.2426;0.3781;
749.7000;0.2401;0.3781;
750.0000;0.2418;0.3854;
750.3000;0.2401;0.3829;
750.6000;0.2401;0.3805;
750.9000;0.2409;0.3781;
751.2000;0.2418;0.3805;
751.5000;0.2475;0.3902;
751.8000;0.2409;0.3684;
752.1000;0.2523;0.4048;
752.4000;0.2418;0.3733;
752.7000;0.2426;0.3684;
753.0000;0.2377;0.3587;
753.3000;0.2409;0.3708;
753.6000;0.2409;0.3733;
753.9000;0.2418;0.3660;
754.2000;0.2418;0.3636;
754.5000;0.2377;0.3514;
754.8000;0.2409;0.3587;
755.1000;0.2393;0.3539;
755.4000;0.2393;0.3539;
755.7000;0.2418;0.3708;
756.0000;0.2434;0.3708;
756.3000;0.2434;0.3757;
756.6000;0.2418;0.3781;
756.9000;0.2401;0.3708;
757.2000;0.2377;0.3757;
757.5000;0.2409;0.3805;
757.8000;0.2409;0.3708;
758.1000;0.2393;0.3684;
758.4000;0.2287;0.3417;
758.7000;0.2401;0.3757;
759.0000;0.2409;0.3781;
759.3000;0.2369;0.3611;
759.6000;0.2369;0.3660;
759.9000;0.2393;0.3805;
760.2000;0.2409;0.3829;
760.5000;0.2377;0.3660;
760.8000;0.2393;0.3757;
761.1000;0.2409;0.3733;
761.4000;0.2418;0.3708;
761.7000;0.2385;0.3611;
762.0000;0.2385;0.3490;
762.3000;0.2409;0.3563;
762.6000;0.2418;0.3587;
762.9000;0.2409;0.3514;
763.2000;0.2418;0.3563;
763.5000;0.2361;0.3490;
763.8000;0.2393;0.3708;
764.1000;0.2434;0.3660;
764.4000;0.2426;0.3587;
764.7000;0.2393;0.3539;
765.0000;0.2426;0.3660;
765.3000;0.2426;0.3611;
765.6000;0.2418;0.3660;
765.9000;0.2450;0.3757;
766.2000;0.2426;0.3733;
766.5000;0.2369;0.3563;
766.8000;0.2401;0.3563;
767.1000;0.2377;0.3417;
767.4000;0.2409;0.3369;
767.7000;0.2409;0.3393;
768.0000;0.2409;0.3369;
768.3000;0.2418;0.3369;
768.6000;0.2336;0.3248;
768.9000;0.2320;0.3199;
769.2000;0.2401;0.3514;
769.5000;0.2393;0.3490;
769.8000;0.2458;0.3636;
770.1000;0.2377;0.3587;
770.4000;0.2418;0.3708;
770.7000;0.2401;0.3708;
771.0000;0.2320;0.3393;
771.3000;0.2401;0.3684;
771.6000;0.2450;0.3684;
771.9000;0.2409;0.3587;
772.2000;0.2393;0.3563;
772.5000;0.2409;0.3563;
772.8000;0.2401;0.3684;
773.1000;0.2418;0.3708;
773.4000;0.2393;0.3660;
773.7000;0.2409;0.3660;
774.0000;0.2401;0.3660;
774.3000;0.2377;0.3563;
774.6000;0.2401;0.3539;
774.9000;0.2385;0.3539;
775.2000;0.2483;0.3757;
775.5000;0.2418;0.3636;
775.8000;0.2393;0.3539;
776.1000;0.2409;0.3611;
776.4000;0.2385;0.3611;
776.7000;0.2409;0.3587;
777.0000;0.2442;0.3684;
777.3000;0.2361;0.3393;
777.6000;0.2393;0.3539;
777.9000;0.2450;0.3781;
778.2000;0.2418;0.3660;
778.5000;0.2418;0.3733;
778.8000;0.2361;0.3563;
779.1000;0.2418;0.3733;
779.4000;0.2434;0.3805;
779.7000;0.2426;0.3854;
780.0000;0.2434;0.3951;
780.3000;0.2418;0.3902;
780.6000;0.2499;0.4217;
780.9000;0.2361;0.3878;
781.2000;0.2401;0.3951;
781.5000;0.2336;0.3757;
781.8000;0.2556;0.4290;
782.1000;0.2401;0.3878;
782.4000;0.2483;0.3999;
782.7000;0.2475;0.4023;
783.0000;0.2418;0.3926;
783.3000;0.2409;0.3902;
783.6000;0.2507;0.4072;
783.9000;0.2401;0.3757;
784.2000;0.2409;0.3757;
784.5000;0.2418;0.3757;
784.8000;0.2409;0.3660;
785.1000;0.2409;0.3563;
785.4000;0.2385;0.3539;
785.7000;0.2409;0.3611;
786.0000;0.2393;0.3514;
786.3000;0.2401;0.3442;
786.6000;0.2401;0.3514;
786.9000;0.2401;0.3514;
787.2000;0.2401;0.3514;
787.5000;0.2434;0.3611;
787.8000;0.2426;0.3636;
788.1000;0.2434;0.3636;
788.4000;0.2401;0.3611;
788.7000;0.2409;0.3563;
789.0000;0.2409;0.3587;
789.3000;0.2426;0.3684;
789.6000;0.2532;0.4048;
789.9000;0.2401;0.3660;
790.2000;0.2426;0.3708;
790.5000;0.2434;0.3708;
790.8000;0.2426;0.3636;
791.1000;0.2418;0.3587;
791.4000;0.2401;0.3539;
791.7000;0.2409;0.3514;
792.0000;0.2426;0.3587;
792.3000;0.2409;0.3611;
792.6000;0.2418;0.3660;
792.9000;0.2409;0.3660;
793.2000;0.2434;0.3733;
793.5000;0.2409;0.3611;
793.8000;0.2409;0.3611;
794.1000;0.2401;0.3660;
794.4000;0.2377;0.3587;
794.7000;0.2434;0.3829;
795.0000;0.2409;0.3781;
795.3000;0.2328;0.3563;
795.6000;0.2426;0.3708;
795.9000;0.2401;0.3708;
796.2000;0.2434;0.3829;
796.5000;0.2418;0.3878;
796.8000;0.2409;0.3854;
797.1000;0.2401;0.3781;
797.4000;0.2304;0.3514;
797.7000;0.2418;0.3829;
798.0000;0.2426;0.3926;
798.3000;0.2426;0.3926;
798.6000;0.2401;0.3878;
798.9000;0.2418;0.3902;
799.2000;0.2401;0.3926;
799.5000;0.2393;0.3902;
799.8000;0.2401;0.3829;
800.1000;0.2442;0.3926;
800.4000;0.2401;0.3854;
800.7000;0.2426;0.3781;
801.0000;0.2426;0.3757;
801.3000;0.2409;0.3757;
801.6000;0.2401;0.3781;
801.9000;0.2409;0.3781;
802.2000;0.2409;0.3829;
802.5000;0.2475;0.3926;
802.8000;0.2385;0.3733;
803.1000;0.2426;0.3781;
803.4000;0.2426;0.3781;
803.7000;0.2434;0.3878;
804.0000;0.2426;0.3926;
804.3000;0.2377;0.3926;
804.6000;0.2401;0.3951;
804.9000;0.2426;0.3926;
805.2000;0.2418;0.3829;
805.5000;0.2393;0.3733;
805.8000;0.2418;0.3781;
806.1000;0.2434;0.3757;
806.4000;0.2409;0.3733;
806.7000;0.2361;0.3587;
807.0000;0.2426;0.3684;
807.3000;0.2401;0.3708;
807.6000;0.2409;0.3733;
807.9000;0.2409;0.3757;
808.2000;0.2409;0.3805;
808.5000;0.2418;0.3757;
808.8000;0.2409;0.3781;
809.1000;0.2418;0.3829;
809.4000;0.2418;0.3805;
809.7000;0.2442;0.3805;
810.0000;0.2385;0.3708;
810.3000;0.2385;0.3684;
810.6000;0.2401;0.3781;
810.9000;0.2385;0.3757;
811.2000;0.2418;0.3829;
811.5000;0.2418;0.3805;
811.8000;0.2409;0.3684;
812.1000;0.2377;0.3636;
812.4000;0.2409;0.3684;
812.7000;0.2401;0.3490;
813.0000;0.2418;0.3587;
813.3000;0.2409;0.3660;
813.6000;0.2393;0.3563;
813.9000;0.2426;0.3563;
814.2000;0.2434;0.3587;
814.5000;0.2385;0.3490;
814.8000;0.2442;0.3636;
815.1000;0.2426;0.3587;
815.4000;0.2426;0.3611;
815.7000;0.2401;0.3636;
816.0000;0.2466;0.3708;
816.3000;0.2393;0.3587;
816.6000;0.2393;0.3660;
816.9000;0.2393;0.3636;
817.2000;0.2450;0.3781;
817.5000;0.2393;0.3708;
817.8000;0.2418;0.3611;
818.1000;0.2409;0.3636;
818.4000;0.2409;0.3733;
818.7000;0.2409;0.3684;
819.0000;0.2426;0.3684;
819.3000;0.2312;0.3393;
819.6000;0.2401;0.3708;
819.9000;0.2409;0.3757;
820.2000;0.2409;0.3781;
820.5000;0.2418;0.3660;
820.8000;0.2401;0.3733;
821.1000;0.2401;0.3708;
821.4000;0.2409;0.3733;
821.7000;0.2418;0.3805;
822.0000;0.2385;0.3757;
822.3000;0.2393;0.3781;
822.6000;0.2409;0.3805;
822.9000;0.2393;0.3781;
823.2000;0.2401;0.3805;
823.5000;0.2426;0.3854;
823.8000;0.2434;0.3854;
824.1000;0.2393;0.3757;
824.4000;0.2434;0.3781;
824.7000;0.2418;0.3636;
825.0000;0.2418;0.3636;
825.3000;0.2426;0.3684;
825.6000;0.2418;0.3684;
825.9000;0.2409;0.3660;
826.2000;0.2401;0.3708;
826.5000;0.2401;0.3660;
826.8000;0.2426;0.3611;
827.1000;0.2401;0.3563;
827.4000;0.2377;0.3514;
827.7000;0.2434;0.3611;
828.0000;0.2418;0.3563;
828.3000;0.2401;0.3611;
828.6000;0.2409;0.3587;
828.9000;0.2418;0.3660;
829.2000;0.2409;0.3611;
829.5000;0.2434;0.3733;
829.8000;0.2418;0.3660;
830.1000;0.2426;0.3611;
830.4000;0.2426;0.3587;
830.7000;0.2401;0.3514;
831.0000;0.2409;0.3490;
831.3000;0.2409;0.3587;
831.6000;0.2434;0.3733;
831.9000;0.2409;0.3636;
832.2000;0.2385;0.3660;
832.5000;0.2393;0.3708;
832.8000;0.2401;0.3684;
833.1000;0.2426;0.3684;
833.4000;0.2409;0.3684;
833.7000;0.2409;0.3684;
834.0000;0.2393;0.3636;
834.3000;0.2418;0.3563;
834.6000;0.2499;0.3805;
834.9000;0.2401;0.3563;
835.2000;0.2458;0.3757;
835.5000;0.2336;0.3417;
835.8000;0.2393;0.3587;
836.1000;0.2491;0.3829;
836.4000;0.2409;0.3684;
836.7000;0.2393;0.3708;
837.0000;0.2409;0.3757;
837.3000;0.2401;0.3708;
837.6000;0.2385;0.3684;
837.9000;0.2418;0.3708;
838.2000;0.2434;0.3733;
838.5000;0.2393;0.3611;
838.8000;0.2401;0.3708;
839.1000;0.2418;0.3684;
839.4000;0.2426;0.3757;
839.7000;0.2434;0.3708;
840.0000;0.2466;0.3781;
840.3000;0.2409;0.3563;
840.6000;0.2409;0.3660;
840.9000;0.2418;0.3563;
841.2000;0.2401;0.3490;
841.5000;0.2418;0.3587;
841.8000;0.2418;0.3587;
842.1000;0.2401;0.3514;
842.4000;0.2401;0.3514;
842.7000;0.2401;0.3490;
843.0000;0.2409;0.3442;
843.3000;0.2393;0.3369;
843.6000;0.2418;0.3442;
843.9000;0.2401;0.3369;
844.2000;0.2434;0.3466;
844.5000;0.2385;0.3345;
844.8000;0.2409;0.3490;
845.1000;0.2409;0.3466;
845.4000;0.2336;0.3248;
845.7000;0.2418;0.3563;
846.0000;0.2418;0.3539;
846.3000;0.2418;0.3587;
846.6000;0.2426;0.3563;
846.9000;0.2426;0.3563;
847.2000;0.2377;0.3539;
847.5000;0.2426;0.3563;
847.8000;0.2409;0.3466;
848.1000;0.2426;0.3539;
848.4000;0.2458;0.3587;
848.7000;0.2409;0.3490;
849.0000;0.2393;0.3466;
849.3000;0.2426;0.3611;
849.6000;0.2418;0.3636;
849.9000;0.2409;0.3563;
850.2000;0.2328;0.3345;
850.5000;0.2385;0.3442;
850.8000;0.2393;0.3417;
851.1000;0.2393;0.3393;
851.4000;0.2320;0.3296;
851.7000;0.2361;0.3442;
852.0000;0.2385;0.3539;
852.3000;0.2434;0.3684;
852.6000;0.2418;0.3539;
852.9000;0.2361;0.3393;
853.2000;0.2385;0.3442;
853.5000;0.2344;0.3466;
853.8000;0.2409;0.3587;
854.1000;0.2418;0.3539;
854.4000;0.2426;0.3563;
854.7000;0.2369;0.3442;
855.0000;0.2336;0.3345;
855.3000;0.2401;0.3490;
855.6000;0.2466;0.3660;
855.9000;0.2434;0.3660;
856.2000;0.2401;0.3539;
856.5000;0.2377;0.3466;
856.8000;0.2483;0.3708;
857.1000;0.2418;0.3587;
857.4000;0.2393;0.3563;
857.7000;0.2409;0.3611;
858.0000;0.2385;0.3611;
858.3000;0.2409;0.3708;
858.6000;0.2434;0.3733;
858.9000;0.2409;0.3611;
859.2000;0.2385;0.3539;
859.5000;0.2418;0.3563;
859.8000;0.2409;0.3539;
860.1000;0.2409;0.3636;
860.4000;0.2401;0.3708;
860.7000;0.2401;0.3805;
861.0000;0.2466;0.3902;
861.3000;0.2401;0.3708;
861.6000;0.2418;0.3708;
861.9000;0.2385;0.3660;
862.2000;0.2393;0.3684;
862.5000;0.2409;0.3708;
862.8000;0.2401;0.3733;
863.1000;0.2418;0.3733;
863.4000;0.2401;0.3733;
863.7000;0.2418;0.3781;
864.0000;0.2418;0.3781;
864.3000;0.2418;0.3781;
864.6000;0.2418;0.3733;
864.9000;0.2385;0.3587;
865.2000;0.2434;0.3733;
865.5000;0.2409;0.3684;
865.8000;0.2393;0.3611;
866.1000;0.2401;0.3660;
866.4000;0.2401;0.3636;
866.7000;0.2426;0.3636;
867.0000;0.2426;0.3611;
867.3000;0.2418;0.3684;
867.6000;0.2418;0.3733;
867.9000;0.2426;0.3708;
868.2000;0.2426;0.3684;
868.5000;0.2393;0.3587;
868.8000;0.2418;0.3611;
869.1000;0.2426;0.3684;
869.4000;0.2352;0.3417;
869.7000;0.2418;0.3660;
870.0000;0.2409;0.3636;
870.3000;0.2434;0.3708;
870.6000;0.2401;0.3660;
870.9000;0.2434;0.3805;
871.2000;0.2418;0.3708;
871.5000;0.2434;0.3636;
871.8000;0.2409;0.3539;
872.1000;0.2418;0.3563;
872.4000;0.2418;0.3539;
872.7000;0.2409;0.3514;
873.0000;0.2401;0.3587;
873.3000;0.2409;0.3733;
873.6000;0.2418;0.3733;
873.9000;0.2450;0.3781;
874.2000;0.2369;0.3636;
874.5000;0.2369;0.3636;
874.8000;0.2393;0.3684;
875.1000;0.2418;0.3757;
875.4000;0.2393;0.3660;
875.7000;0.2434;0.3781;
876.0000;0.2401;0.3781;
876.3000;0.2499;0.3878;
876.6000;0.2426;0.3708;
876.9000;0.2426;0.3636;
877.2000;0.2418;0.3587;
877.5000;0.2409;0.3587;
877.8000;0.2418;0.3417;
878.1000;0.2385;0.3417;
878.4000;0.2409;0.3466;
878.7000;0.2426;0.3417;
879.0000;0.2418;0.3466;
879.3000;0.2409;0.3563;
879.6000;0.2442;0.3660;
879.9000;0.2418;0.3539;
880.2000;0.2426;0.3636;
880.5000;0.2426;0.3660;
880.8000;0.2418;0.3660;
881.1000;0.2434;0.3708;
881.4000;0.2442;0.3829;
881.7000;0.2418;0.3854;
882.0000;0.2385;0.3781;
882.3000;0.2409;0.3805;
882.6000;0.2426;0.3781;
882.9000;0.2401;0.3708;
883.2000;0.2418;0.3660;
883.5000;0.2426;0.3636;
883.8000;0.2434;0.3587;
884.1000;0.2418;0.3587;
884.4000;0.2418;0.3539;
884.7000;0.2418;0.3587;
885.0000;0.2344;0.3248;
885.3000;0.2409;0.3466;
885.6000;0.2418;0.3490;
885.9000;0.2418;0.3514;
886.2000;0.2418;0.3514;
886.5000;0.2442;0.3587;
886.8000;0.2401;0.3442;
887.1000;0.2491;0.3660;
887.4000;0.2369;0.3345;
887.7000;0.2442;0.3563;
888.0000;0.2393;0.3514;
888.3000;0.2401;0.3514;
888.6000;0.2418;0.3490;
888.9000;0.2418;0.3466;
889.2000;0.2401;0.3320;
889.5000;0.2385;0.3369;
889.8000;0.2385;0.3320;
890.1000;0.2491;0.3587;
890.4000;0.2499;0.3660;
890.7000;0.2434;0.3490;
891.0000;0.2401;0.3490;
891.3000;0.2418;0.3490;
891.6000;0.2426;0.3514;
891.9000;0.2418;0.3466;
892.2000;0.2393;0.3490;
892.5000;0.2401;0.3466;
892.8000;0.2426;0.3514;
893.1000;0.2426;0.3514;
893.4000;0.2450;0.3611;
893.7000;0.2409;0.3442;
894.0000;0.2385;0.3442;
894.3000;0.2418;0.3514;
894.6000;0.2418;0.3490;
894.9000;0.2418;0.3514;
895.2000;0.2409;0.3514;
895.5000;0.2418;0.3611;
895.8000;0.2393;0.3514;
896.1000;0.2401;0.3514;
896.4000;0.2393;0.3490;
896.7000;0.2426;0.3466;
897.0000;0.2483;0.3587;
897.3000;0.2393;0.3393;
897.6000;0.2426;0.3490;
897.9000;0.2409;0.3539;
898.2000;0.2401;0.3514;
898.5000;0.2401;0.3514;
898.8000;0.2369;0.3466;
899.1000;0.2409;0.3514;
899.4000;0.2393;0.3490;
899.7000;0.2393;0.3611;
900.0000;0.2491;0.3878;
900.3000;0.2401;0.3490;
900.6000;0.2369;0.3369;
900.9000;0.2442;0.3563;
901.2000;0.2418;0.3417;
901.5000;0.2434;0.3466;
901.8000;0.2393;0.3320;
902.1000;0.2523;0.3587;
902.4000;0.2409;0.3393;
902.7000;0.2409;0.3514;
903.0000;0.2409;0.3539;
903.3000;0.2377;0.3539;
903.6000;0.2385;0.3514;
903.9000;0.2393;0.3563;
904.2000;0.2442;0.3733;
904.5000;0.2409;0.3684;
904.8000;0.2385;0.3563;
905.1000;0.2458;0.3733;
905.4000;0.2418;0.3587;
905.7000;0.2418;0.3587;
906.0000;0.2450;0.3660;
906.3000;0.2418;0.3490;
906.6000;0.2491;0.3708;
906.9000;0.2426;0.3563;
907.2000;0.2418;0.3587;
907.5000;0.2393;0.3539;
907.8000;0.2426;0.3587;
908.1000;0.2434;0.3660;
908.4000;0.2377;0.3514;
908.7000;0.2409;0.3611;
909.0000;0.2336;0.3320;
909.3000;0.2418;0.3636;
909.6000;0.2401;0.3587;
909.9000;0.2401;0.3684;
910.2000;0.2328;0.3514;
910.5000;0.2369;0.3636;
910.8000;0.2418;0.3708;
911.1000;0.2450;0.3781;
911.4000;0.2426;0.3611;
911.7000;0.2458;0.3684;
912.0000;0.2401;0.3636;
912.3000;0.2507;0.3829;
912.6000;0.2401;0.3514;
912.9000;0.2377;0.3490;
913.2000;0.2409;0.3636;
913.5000;0.2377;0.3514;
913.8000;0.2393;0.3636;
914.1000;0.2434;0.3757;
914.4000;0.2409;0.3587;
914.7000;0.2401;0.3539;
915.0000;0.2418;0.3563;
915.3000;0.2401;0.3514;
915.6000;0.2401;0.3442;
915.9000;0.2426;0.3490;
916.2000;0.2426;0.3393;
916.5000;0.2393;0.3369;
916.8000;0.2401;0.3466;
917.1000;0.2442;0.3660;
917.4000;0.2409;0.3708;
917.7000;0.2409;0.3611;
918.0000;0.2418;0.3587;
918.3000;0.2426;0.3587;
918.6000;0.2418;0.3490;
918.9000;0.2418;0.3442;
919.2000;0.2409;0.3466;
919.5000;0.2418;0.3466;
919.8000;0.2409;0.3369;
920.1000;0.2401;0.3296;
920.4000;0.2491;0.3539;
920.7000;0.2393;0.3320;
921.0000;0.2442;0.3563;
921.3000;0.2450;0.3757;
921.6000;0.2393;0.3563;
921.9000;0.2409;0.3563;
922.2000;0.2426;0.3660;
922.5000;0.2409;0.3684;
922.8000;0.2352;0.3514;
923.1000;0.2418;0.3684;
923.4000;0.2409;0.3660;
923.7000;0.2401;0.3733;
924.0000;0.2393;0.3636;
924.3000;0.2409;0.3660;
924.6000;0.2393;0.3708;
924.9000;0.2418;0.3781;
925.2000;0.2409;0.3781;
925.5000;0.2328;0.3563;
925.8000;0.2418;0.3684;
926.1000;0.2409;0.3636;
926.4000;0.2401;0.3587;
926.7000;0.2418;0.3660;
927.0000;0.2409;0.3708;
927.3000;0.2434;0.3684;
927.6000;0.2442;0.3805;
927.9000;0.2442;0.3805;
928.2000;0.2401;0.3611;
928.5000;0.2409;0.3539;
928.8000;0.2409;0.3587;
929.1000;0.2434;0.3660;
929.4000;0.2409;0.3611;
929.7000;0.2426;0.3660;
930.0000;0.2434;0.3733;
930.3000;0.2426;0.3733;
930.6000;0.2426;0.3708;
930.9000;0.2426;0.3708;
931.2000;0.2434;0.3708;
931.5000;0.2352;0.3539;
931.8000;0.2426;0.3708;
932.1000;0.2418;0.3660;
932.4000;0.2361;0.3442;
932.7000;0.2434;0.3611;
933.0000;0.2377;0.3490;
933.3000;0.2418;0.3636;
933.6000;0.2442;0.3708;
933.9000;0.2409;0.3708;
934.2000;0.2409;0.3684;
934.5000;0.2458;0.3781;
934.8000;0.2401;0.3708;
935.1000;0.2401;0.3684;
935.4000;0.2401;0.3684;
935.7000;0.2393;0.3636;
936.0000;0.2401;0.3636;
936.3000;0.2434;0.3708;
936.6000;0.2418;0.3660;
936.9000;0.2418;0.3708;
937.2000;0.2418;0.3684;
937.5000;0.2458;0.3733;
937.8000;0.2409;0.3563;
938.1000;0.2418;0.3636;
938.4000;0.2418;0.3636;
938.7000;0.2442;0.3733;
939.0000;0.2434;0.3757;
939.3000;0.2426;0.3636;
939.6000;0.2393;0.3490;
939.9000;0.2450;0.3708;
940.2000;0.2426;0.3660;
940.5000;0.2361;0.3466;
940.8000;0.2418;0.3563;
941.1000;0.2336;0.3369;
941.4000;0.2418;0.3490;
941.7000;0.2401;0.3393;
942.0000;0.2393;0.3393;
942.3000;0.2434;0.3539;
942.6000;0.2426;0.3539;
942.9000;0.2548;0.3878;
943.2000;0.2434;0.3587;
943.5000;0.2393;0.3539;
943.8000;0.2434;0.3660;
944.1000;0.2393;0.3636;
944.4000;0.2418;0.3708;
944.7000;0.2401;0.3611;
945.0000;0.2377;0.3490;
945.3000;0.2466;0.3708;
945.6000;0.2401;0.3514;
945.9000;0.2393;0.3539;
946.2000;0.2409;0.3611;
946.5000;0.2418;0.3660;
946.8000;0.2434;0.3684;
947.1000;0.2377;0.3708;
947.4000;0.2426;0.3781;
947.7000;0.2426;0.3733;
948.0000;0.2426;0.3733;
948.3000;0.2409;0.3636;
948.6000;0.2385;0.3636;
948.9000;0.2426;0.3733;
949.2000;0.2418;0.3733;
949.5000;0.2409;0.3684;
949.8000;0.2401;0.3539;
950.1000;0.2499;0.3733;
950.4000;0.2466;0.3587;
950.7000;0.2426;0.3539;
951.0000;0.2377;0.3442;
951.3000;0.2393;0.3417;
951.6000;0.2304;0.3175;
951.9000;0.2401;0.3417;
952.2000;0.2426;0.3514;
952.5000;0.2466;0.3587;
952.8000;0.2434;0.3563;
953.1000;0.2409;0.3684;
953.4000;0.2434;0.3757;
953.7000;0.2426;0.3708;
954.0000;0.2426;0.3733;
954.3000;0.2442;0.3733;
954.6000;0.2409;0.3587;
954.9000;0.2401;0.3539;
955.2000;0.2418;0.3563;
955.5000;0.2401;0.3539;
955.8000;0.2409;0.3587;
956.1000;0.2426;0.3684;
956.4000;0.2401;0.3684;
956.7000;0.2426;0.3733;
957.0000;0.2401;0.3611;
957.3000;0.2426;0.3660;
957.6000;0.2426;0.3660;
957.9000;0.2418;0.3684;
958.2000;0.2434;0.3684;
958.5000;0.2426;0.3684;
958.8000;0.2393;0.3660;
959.1000;0.2369;0.3587;
959.4000;0.2426;0.3684;
959.7000;0.2434;0.3660;
960.0000;0.2426;0.3733;
960.3000;0.2409;0.3733;
960.6000;0.2426;0.3733;
960.9000;0.2418;0.3708;
961.2000;0.2491;0.3951;
961.5000;0.2426;0.3757;
961.8000;0.2418;0.3708;
962.1000;0.2418;0.3684;
962.4000;0.2409;0.3611;
962.7000;0.2434;0.3708;
963.0000;0.2409;0.3684;
963.3000;0.2418;0.3684;
963.6000;0.2418;0.3757;
963.9000;0.2401;0.3708;
964.2000;0.2434;0.3781;
964.5000;0.2409;0.3708;
964.8000;0.2418;0.3757;
965.1000;0.2409;0.3781;
965.4000;0.2426;0.3805;
965.7000;0.2336;0.3611;
966.0000;0.2426;0.3902;
966.3000;0.2393;0.3805;
966.6000;0.2336;0.3636;
966.9000;0.2393;0.3854;
967.2000;0.2418;0.3926;
967.5000;0.2426;0.3926;
967.8000;0.2401;0.3926;
968.1000;0.2434;0.3878;
968.4000;0.2491;0.3975;
968.7000;0.2409;0.3805;
969.0000;0.2426;0.3781;
969.3000;0.2409;0.3684;
969.6000;0.2434;0.3684;
969.9000;0.2418;0.3708;
970.2000;0.2385;0.3539;
970.5000;0.2418;0.3660;
970.8000;0.2418;0.3636;
971.1000;0.2409;0.3708;
971.4000;0.2409;0.3757;
971.7000;0.2336;0.3514;
972.0000;0.2442;0.3805;
972.3000;0.2409;0.3733;
972.6000;0.2401;0.3684;
972.9000;0.2418;0.3733;
973.2000;0.2426;0.3708;
973.5000;0.2426;0.3805;
973.8000;0.2426;0.3805;
974.1000;0.2385;0.3781;
974.4000;0.2409;0.3878;
974.7000;0.2426;0.3951;
975.0000;0.2287;0.3490;
975.3000;0.2401;0.3805;
975.6000;0.2401;0.3733;
975.9000;0.2401;0.3660;
976.2000;0.2409;0.3757;
976.5000;0.2393;0.3733;
976.8000;0.2385;0.3636;
977.1000;0.2418;0.3684;
977.4000;0.2409;0.3563;
977.7000;0.2426;0.3563;
978.0000;0.2409;0.3466;
978.3000;0.2409;0.3563;
978.6000;0.2409;0.3611;
978.9000;0.2426;0.3611;
979.2000;0.2434;0.3563;
979.5000;0.2418;0.3563;
979.8000;0.2450;0.3636;
980.1000;0.2475;0.3684;
980.4000;0.2458;0.3684;
980.7000;0.2418;0.3587;
981.0000;0.2426;0.3587;
981.3000;0.2418;0.3417;
981.6000;0.2401;0.3393;
981.9000;0.2418;0.3490;
982.2000;0.2434;0.3636;
982.5000;0.2507;0.3757;
982.8000;0.2418;0.3563;
983.1000;0.2458;0.3636;
983.4000;0.2442;0.3514;
983.7000;0.2434;0.3514;
984.0000;0.2426;0.3611;
984.3000;0.2352;0.3490;
984.6000;0.2409;0.3660;
984.9000;0.2426;0.3708;
985.2000;0.2426;0.3684;
985.5000;0.2426;0.3757;
985.8000;0.2426;0.3757;
986.1000;0.2418;0.3781;
986.4000;0.2409;0.3684;
986.7000;0.2393;0.3636;
987.0000;0.2401;0.3660;
987.3000;0.2442;0.3781;
987.6000;0.2409;0.3733;
987.9000;0.2426;0.3733;
988.2000;0.2393;0.3636;
988.5000;0.2377;0.3539;
988.8000;0.2401;0.3563;
989.1000;0.2401;0.3514;
989.4000;0.2409;0.3490;
989.7000;0.2409;0.3539;
990.0000;0.2426;0.3708;
990.3000;0.2409;0.3660;
990.6000;0.2499;0.3829;
990.9000;0.2409;0.3636;
991.2000;0.2426;0.3733;
991.5000;0.2426;0.3684;
991.8000;0.2328;0.3369;
992.1000;0.2418;0.3684;
992.4000;0.2418;0.3708;
992.7000;0.2426;0.3708;
993.0000;0.2450;0.3805;
993.3000;0.2426;0.3660;
993.6000;0.2426;0.3660;
993.9000;0.2336;0.3442;
994.2000;0.2434;0.3636;
994.5000;0.2401;0.3539;
994.8000;0.2369;0.3442;
995.1000;0.2369;0.3514;
995.4000;0.2352;0.3442;
995.7000;0.2393;0.3490;
996.0000;0.2361;0.3320;
996.3000;0.2418;0.3587;
996.6000;0.2418;0.3636;
996.9000;0.2409;0.3733;
997.2000;0.2409;0.3781;
997.5000;0.2418;0.3854;
997.8000;0.2426;0.3854;
998.1000;0.2409;0.3781;
998.4000;0.2458;0.3854;
998.7000;0.2434;0.3781;
999.0000;0.2442;0.3781;
999.3000;0.2466;0.3733;
999.6000;0.2409;0.3563;
999.9000;0.2409;0.3514;
1000.2000;0.2401;0.3563;
1000.5000;0.2426;0.3611;
1000.8000;0.2401;0.3587;
1001.1000;0.2450;0.3733;
1001.4000;0.2377;0.3563;
1001.7000;0.2401;0.3660;
1002.0000;0.2401;0.3636;
1002.3000;0.2409;0.3684;
1002.6000;0.2393;0.3660;
1002.9000;0.2377;0.3514;
1003.2000;0.2409;0.3563;
1003.5000;0.2418;0.3636;
1003.8000;0.2426;0.3708;
1004.1000;0.2434;0.3757;
1004.4000;0.2491;0.3951;
1004.7000;0.2442;0.3854;
1005.0000;0.2418;0.3805;
1005.3000;0.2401;0.3757;
1005.6000;0.2434;0.3781;
1005.9000;0.2434;0.3805;
1006.2000;0.2426;0.3781;
1006.5000;0.2401;0.3636;
1006.8000;0.2418;0.3660;
1007.1000;0.2426;0.3660;
1007.4000;0.2475;0.3757;
1007.7000;0.2426;0.3708;
1008.0000;0.2491;0.3902;
1008.3000;0.2393;0.3660;
1008.6000;0.2401;0.3636;
1008.9000;0.2434;0.3636;
1009.2000;0.2450;0.3611;
1009.5000;0.2450;0.3636;
1009.8000;0.2434;0.3660;
1010.1000;0.2409;0.3611;
1010.4000;0.2418;0.3660;
1010.7000;0.2409;0.3636;
1011.0000;0.2401;0.3563;
1011.3000;0.2418;0.3636;
1011.6000;0.2434;0.3611;
1011.9000;0.2426;0.3611;
1012.2000;0.2393;0.3563;
1012.5000;0.2418;0.3636;
1012.8000;0.2401;0.3660;
1013.1000;0.2434;0.3781;
1013.4000;0.2385;0.3781;
1013.7000;0.2409;0.3781;
1014.0000;0.2418;0.3733;
1014.3000;0.2409;0.3660;
1014.6000;0.2442;0.3708;
1014.9000;0.2328;0.3393;
1015.2000;0.2418;0.3611;
1015.5000;0.2418;0.3636;
1015.8000;0.2401;0.3466;
1016.1000;0.2418;0.3563;
1016.4000;0.2418;0.3563;
1016.7000;0.2409;0.3587;
1017.0000;0.2507;0.3854;
1017.3000;0.2377;0.3587;
1017.6000;0.2442;0.3757;
1017.9000;0.2475;0.3805;
1018.2000;0.2434;0.3684;
1018.5000;0.2409;0.3684;
1018.8000;0.2418;0.3757;
1019.1000;0.2483;0.3975;
1019.4000;0.2401;0.3660;
1019.7000;0.2426;0.3708;
1020.0000;0.2361;0.3563;
1020.3000;0.2458;0.3708;
1020.6000;0.2475;0.3757;
1020.9000;0.2409;0.3611;
1021.2000;0.2418;0.3660;
1021.5000;0.2499;0.3926;
1021.8000;0.2434;0.3684;
1022.1000;0.2442;0.3708;
1022.4000;0.2409;0.3660;
1022.7000;0.2450;0.3781;
1023.0000;0.2336;0.3514;
1023.3000;0.2418;0.3684;
1023.6000;0.2393;0.3611;
1023.9000;0.2409;0.3660;
1024.2000;0.2369;0.3563;
1024.5000;0.2369;0.3539;
1024.8000;0.2426;0.3733;
1025.1000;0.2409;0.3708;
1025.4000;0.2320;0.3466;
1025.7000;0.2418;0.3733;
1026.0000;0.2352;0.3587;
1026.3000;0.2401;0.3708;
1026.6000;0.2418;0.3757;
1026.9000;0.2409;0.3708;
1027.2000;0.2409;0.3636;
1027.5000;0.2352;0.3417;
1027.8000;0.2385;0.3490;
1028.1000;0.2458;0.3611;
1028.4000;0.2450;0.3563;
1028.7000;0.2434;0.3539;
1029.0000;0.2418;0.3563;
1029.3000;0.2426;0.3539;
1029.6000;0.2434;0.3611;
1029.9000;0.2426;0.3611;
1030.2000;0.2434;0.3587;
1030.5000;0.2434;0.3563;
1030.8000;0.2377;0.3369;
1031.1000;0.2418;0.3514;
1031.4000;0.2409;0.3490;
1031.7000;0.2418;0.3563;
1032.0000;0.2401;0.3490;
1032.3000;0.2426;0.3563;
1032.6000;0.2385;0.3611;
1032.9000;0.2393;0.3660;
1033.2000;0.2426;0.3757;
1033.5000;0.2385;0.3733;
1033.8000;0.2401;0.3805;
1034.1000;0.2409;0.3854;
1034.4000;0.2426;0.3708;
1034.7000;0.2409;0.3660;
1035.0000;0.2401;0.3636;
1035.3000;0.2418;0.3684;
1035.6000;0.2426;0.3611;
1035.9000;0.2409;0.3587;
1036.2000;0.2393;0.3587;
1036.5000;0.2401;0.3611;
1036.8000;0.2418;0.3708;
1037.1000;0.2385;0.3563;
1037.4000;0.2401;0.3636;
1037.7000;0.2393;0.3587;
1038.0000;0.2385;0.3563;
1038.3000;0.2401;0.3660;
1038.6000;0.2523;0.3975;
1038.9000;0.2401;0.3611;
1039.2000;0.2442;0.3660;
1039.5000;0.2426;0.3539;
1039.8000;0.2434;0.3563;
1040.1000;0.2320;0.3296;
1040.4000;0.2434;0.3587;
1040.7000;0.2409;0.3587;
1041.0000;0.2369;0.3417;
1041.3000;0.2409;0.3539;
1041.6000;0.2418;0.3563;
1041.9000;0.2426;0.3514;
1042.2000;0.2418;0.3514;
1042.5000;0.2401;0.3563;
1042.8000;0.2426;0.3708;
1043.1000;0.2442;0.3829;
1043.4000;0.2401;0.3660;
1043.7000;0.2426;0.3757;
1044.0000;0.2434;0.3854;
1044.3000;0.2352;0.3660;
1044.6000;0.2499;0.3999;
1044.9000;0.2434;0.3854;
1045.2000;0.2426;0.3902;
1045.5000;0.2409;0.3854;
1045.8000;0.2418;0.3902;
1046.1000;0.2434;0.3878;
1046.4000;0.2418;0.3926;
1046.7000;0.2401;0.3829;
1047.0000;0.2409;0.3805;
1047.3000;0.2418;0.3854;
1047.6000;0.2409;0.3805;
1047.9000;0.2393;0.3757;
1048.2000;0.2409;0.3733;
1048.5000;0.2393;0.3684;
1048.8000;0.2426;0.3805;
1049.1000;0.2401;0.3757;
1049.4000;0.2507;0.3999;
1049.7000;0.2401;0.3757;
1050.0000;0.2434;0.3781;
1050.3000;0.2409;0.3660;
1050.6000;0.2401;0.3684;
1050.9000;0.2426;0.3733;
1051.2000;0.2401;0.3660;
1051.5000;0.2418;0.3636;
1051.8000;0.2418;0.3708;
1052.1000;0.2409;0.3733;
1052.4000;0.2483;0.3926;
1052.7000;0.2426;0.3757;
1053.0000;0.2426;0.3708;
1053.3000;0.2426;0.3660;
1053.6000;0.2418;0.3708;
1053.9000;0.2409;0.3757;
1054.2000;0.2450;0.3708;
1054.5000;0.2409;0.3587;
1054.8000;0.2418;0.3539;
1055.1000;0.2434;0.3611;
1055.4000;0.2401;0.3514;
1055.7000;0.2401;0.3490;
1056.0000;0.2442;0.3514;
1056.3000;0.2418;0.3490;
1056.6000;0.2515;0.3781;
1056.9000;0.2418;0.3417;
1057.2000;0.2418;0.3466;
1057.5000;0.2434;0.3490;
1057.8000;0.2418;0.3514;
1058.1000;0.2426;0.3563;
1058.4000;0.2385;0.3539;
1058.7000;0.2401;0.3636;
1059.0000;0.2442;0.3781;
1059.3000;0.2393;0.3733;
1059.6000;0.2458;0.3902;
1059.9000;0.2418;0.3805;
1060.2000;0.2418;0.3829;
1060.5000;0.2418;0.3854;
1060.8000;0.2434;0.3878;
1061.1000;0.2442;0.3999;
1061.4000;0.2442;0.3902;
1061.7000;0.2442;0.3829;
1062.0000;0.2426;0.3757;
1062.3000;0.2409;0.3660;
1062.6000;0.2426;0.3757;
1062.9000;0.2434;0.3805;
1063.2000;0.2393;0.3733;
1063.5000;0.2401;0.3708;
1063.8000;0.2409;0.3684;
1064.1000;0.2434;0.3708;
1064.4000;0.2434;0.3684;
1064.7000;0.2426;0.3587;
1065.0000;0.2442;0.3757;
1065.3000;0.2418;0.3805;
1065.6000;0.2409;0.3854;
1065.9000;0.2418;0.3781;
1066.2000;0.2409;0.3757;
1066.5000;0.2426;0.3781;
1066.8000;0.2418;0.3757;
1067.1000;0.2352;0.3563;
1067.4000;0.2434;0.3684;
1067.7000;0.2409;0.3733;
1068.0000;0.2418;0.3684;
1068.3000;0.2401;0.3684;
1068.6000;0.2409;0.3660;
1068.9000;0.2434;0.3757;
1069.2000;0.2418;0.3781;
1069.5000;0.2401;0.3708;
1069.8000;0.2401;0.3708;
1070.1000;0.2409;0.3781;
1070.4000;0.2434;0.3854;
1070.7000;0.2418;0.3854;
1071.0000;0.2401;0.3854;
1071.3000;0.2434;0.3854;
1071.6000;0.2418;0.3781;
1071.9000;0.2409;0.3757;
1072.2000;0.2418;0.3733;
1072.5000;0.2418;0.3733;
1072.8000;0.2385;0.3733;
1073.1000;0.2409;0.3805;
1073.4000;0.2523;0.4096;
1073.7000;0.2409;0.3829;
1074.0000;0.2409;0.3829;
1074.3000;0.2401;0.3781;
1074.6000;0.2409;0.3757;
1074.9000;0.2409;0.3757;
1075.2000;0.2409;0.3805;
1075.5000;0.2401;0.3708;
1075.8000;0.2442;0.3757;
1076.1000;0.2426;0.3805;
1076.4000;0.2361;0.3611;
1076.7000;0.2442;0.3757;
1077.0000;0.2409;0.3708;
1077.3000;0.2393;0.3708;
1077.6000;0.2377;0.3611;
1077.9000;0.2434;0.3757;
1078.2000;0.2507;0.3878;
1078.5000;0.2426;0.3636;
1078.8000;0.2418;0.3660;
1079.1000;0.2426;0.3781;
1079.4000;0.2409;0.3757;
1079.7000;0.2418;0.3708;
1080.0000;0.2426;0.3684;
1080.3000;0.2434;0.3708;
1080.6000;0.2418;0.3733;
1080.9000;0.2426;0.3781;
1081.2000;0.2369;0.3611;
1081.5000;0.2475;0.3926;
1081.8000;0.2434;0.3781;
1082.1000;0.2434;0.3781;
1082.4000;0.2385;0.3636;
1082.7000;0.2434;0.3805;
1083.0000;0.2409;0.3733;
1083.3000;0.2418;0.3636;
1083.6000;0.2491;0.3733;
1083.9000;0.2409;0.3514;
1084.2000;0.2426;0.3490;
1084.5000;0.2369;0.3320;
1084.8000;0.2377;0.3393;
1085.1000;0.2401;0.3466;
1085.4000;0.2418;0.3393;
1085.7000;0.2434;0.3393;
1086.0000;0.2418;0.3369;
1086.3000;0.2418;0.3320;
1086.6000;0.2491;0.3563;
1086.9000;0.2426;0.3393;
1087.2000;0.2442;0.3442;
1087.5000;0.2409;0.3442;
1087.8000;0.2409;0.3539;
1088.1000;0.2409;0.3514;
1088.4000;0.2442;0.3636;
1088.7000;0.2426;0.3587;
1089.0000;0.2426;0.3611;
1089.3000;0.2426;0.3636;
1089.6000;0.2434;0.3708;
1089.9000;0.2434;0.3539;
1090.2000;0.2409;0.3442;
1090.5000;0.2434;0.3466;
1090.8000;0.2442;0.3563;
1091.1000;0.2401;0.3417;
1091.4000;0.2409;0.3417;
1091.7000;0.2409;0.3345;
1092.0000;0.2426;0.3466;
1092.3000;0.2401;0.3393;
1092.6000;0.2466;0.3563;
1092.9000;0.2401;0.3466;
1093.2000;0.2499;0.3684;
1093.5000;0.2409;0.3490;
1093.8000;0.2393;0.3490;
1094.1000;0.2401;0.3514;
1094.4000;0.2401;0.3466;
1094.7000;0.2426;0.3417;
1095.0000;0.2385;0.3345;
1095.3000;0.2418;0.3466;
1095.6000;0.2393;0.3514;
1095.9000;0.2401;0.3563;
1096.2000;0.2426;0.3660;
1096.5000;0.2434;0.3587;
1096.8000;0.2409;0.3466;
1097.1000;0.2426;0.3490;
1097.4000;0.2491;0.3587;
1097.7000;0.2409;0.3417;
1098.0000;0.2426;0.3539;
1098.3000;0.2426;0.3636;
1098.6000;0.2426;0.3563;
1098.9000;0.2409;0.3587;
1099.2000;0.2450;0.3684;
1099.5000;0.2418;0.3587;
1099.8000;0.2393;0.3611;
1100.1000;0.2401;0.3611;
1100.4000;0.2426;0.3636;
1100.7000;0.2434;0.3684;
1101.0000;0.2434;0.3708;
1101.3000;0.2418;0.3660;
1101.6000;0.2409;0.3611;
1101.9000;0.2409;0.3636;
1102.2000;0.2434;0.3660;
1102.5000;0.2426;0.3563;
1102.8000;0.2418;0.3636;
1103.1000;0.2393;0.3660;
1103.4000;0.2426;0.3781;
1103.7000;0.2426;0.3854;
1104.0000;0.2401;0.3854;
1104.3000;0.2418;0.3854;
1104.6000;0.2426;0.3829;
1104.9000;0.2434;0.3854;
1105.2000;0.2401;0.3733;
1105.5000;0.2369;0.3660;
1105.8000;0.2312;0.3514;
1106.1000;0.2418;0.3781;
1106.4000;0.2426;0.3854;
1106.7000;0.2369;0.3757;
1107.0000;0.2426;0.3951;
1107.3000;0.2434;0.3951;
1107.6000;0.2393;0.3781;
1107.9000;0.2409;0.3805;
1108.2000;0.2426;0.3829;
1108.5000;0.2418;0.3829;
1108.8000;0.2434;0.3878;
1109.1000;0.2409;0.3805;
1109.4000;0.2409;0.3757;
1109.7000;0.2418;0.3757;
1110.0000;0.2442;0.3781;
1110.3000;0.2426;0.3829;
1110.6000;0.2434;0.3781;
1110.9000;0.2450;0.3854;
1111.2000;0.2442;0.3902;
1111.5000;0.2434;0.3805;
1111.8000;0.2426;0.3829;
1112.1000;0.2426;0.3854;
1112.4000;0.2409;0.3805;
1112.7000;0.2466;0.3926;
1113.0000;0.2418;0.3781;
1113.3000;0.2426;0.3854;
1113.6000;0.2385;0.3829;
1113.9000;0.2418;0.3878;
1114.2000;0.2458;0.3878;
1114.5000;0.2377;0.3587;
1114.8000;0.2304;0.3393;
1115.1000;0.2393;0.3611;
1115.4000;0.2369;0.3514;
1115.7000;0.2418;0.3636;
1116.0000;0.2475;0.3781;
1116.3000;0.2499;0.3854;
1116.6000;0.2336;0.3514;
1116.9000;0.2418;0.3757;
1117.2000;0.2377;0.3708;
1117.5000;0.2499;0.4023;
1117.8000;0.2418;0.3781;
1118.1000;0.2418;0.3781;
1118.4000;0.2418;0.3708;
1118.7000;0.2426;0.3708;
1119.0000;0.2418;0.3636;
1119.3000;0.2418;0.3563;
1119.6000;0.2401;0.3611;
1119.9000;0.2418;0.3660;
1120.2000;0.2401;0.3587;
1120.5000;0.2442;0.3563;
1120.8000;0.2418;0.3514;
1121.1000;0.2418;0.3563;
1121.4000;0.2491;0.3902;
1121.7000;0.2393;0.3684;
1122.0000;0.2409;0.3660;
1122.3000;0.2409;0.3660;
1122.6000;0.2434;0.3781;
1122.9000;0.2409;0.3878;
1123.2000;0.2426;0.3902;
1123.5000;0.2442;0.3975;
1123.8000;0.2434;0.3926;
1124.1000;0.2409;0.3951;
1124.4000;0.2418;0.3975;
1124.7000;0.2426;0.4048;
1125.0000;0.2426;0.4120;
1125.3000;0.2409;0.4072;
1125.6000;0.2409;0.3999;
1125.9000;0.2418;0.3951;
1126.2000;0.2434;0.3951;
1126.5000;0.2426;0.3951;
1126.8000;0.2409;0.3975;
1127.1000;0.2393;0.3829;
1127.4000;0.2434;0.3975;
1127.7000;0.2418;0.3926;
1128.0000;0.2401;0.3878;
1128.3000;0.2418;0.3854;
1128.6000;0.2409;0.3902;
1128.9000;0.2434;0.4023;
1129.2000;0.2426;0.3975;
1129.5000;0.2409;0.3926;
1129.8000;0.2401;0.3926;
1130.1000;0.2434;0.3902;
1130.4000;0.2434;0.3951;
1130.7000;0.2409;0.3878;
1131.0000;0.2401;0.3926;
1131.3000;0.2434;0.3975;
1131.6000;0.2426;0.3902;
1131.9000;0.2426;0.3902;
1132.2000;0.2426;0.3829;
1132.5000;0.2312;0.3539;
1132.8000;0.2466;0.3951;
1133.1000;0.2434;0.3902;
1133.4000;0.2312;0.3539;
1133.7000;0.2434;0.3829;
1134.0000;0.2434;0.3854;
1134.3000;0.2426;0.3854;
1134.6000;0.2418;0.3829;
1134.9000;0.2426;0.3854;
1135.2000;0.2442;0.3854;
1135.5000;0.2426;0.3829;
1135.8000;0.2401;0.3829;
1136.1000;0.2361;0.3660;
1136.4000;0.2434;0.3781;
1136.7000;0.2434;0.3854;
1137.0000;0.2434;0.3854;
1137.3000;0.2418;0.3829;
1137.6000;0.2426;0.3902;
1137.9000;0.2434;0.3926;
1138.2000;0.2377;0.3829;
1138.5000;0.2458;0.4048;
1138.8000;0.2434;0.3975;
1139.1000;0.2426;0.3926;
1139.4000;0.2418;0.3878;
1139.7000;0.2418;0.3878;
1140.0000;0.2434;0.3926;
1140.3000;0.2418;0.3829;
1140.6000;0.2426;0.3805;
1140.9000;0.2409;0.3805;
1141.2000;0.2352;0.3708;
1141.5000;0.2409;0.3805;
1141.8000;0.2385;0.3781;
1142.1000;0.2393;0.3829;
1142.4000;0.2409;0.3878;
1142.7000;0.2401;0.3902;
1143.0000;0.2450;0.3951;
1143.3000;0.2426;0.3878;
1143.6000;0.2418;0.3854;
1143.9000;0.2409;0.3854;
1144.2000;0.2418;0.3781;
1144.5000;0.2434;0.3733;
1144.8000;0.2409;0.3733;
1145.1000;0.2401;0.3733;
1145.4000;0.2385;0.3684;
1145.7000;0.2434;0.3854;
1146.0000;0.2426;0.3829;
1146.3000;0.2418;0.3757;
1146.6000;0.2401;0.3805;
1146.9000;0.2426;0.3878;
1147.2000;0.2426;0.3781;
1147.5000;0.2418;0.3708;
1147.8000;0.2434;0.3757;
1148.1000;0.2442;0.3854;
1148.4000;0.2295;0.3393;
1148.7000;0.2401;0.3708;
1149.0000;0.2466;0.3878;
1149.3000;0.2442;0.3781;
1149.6000;0.2442;0.3781;
1149.9000;0.2409;0.3660;
1150.2000;0.2401;0.3660;
1150.5000;0.2426;0.3708;
1150.8000;0.2426;0.3757;
1151.1000;0.2401;0.3757;
1151.4000;0.2401;0.3757;
1151.7000;0.2418;0.3781;
1152.0000;0.2450;0.3781;
1152.3000;0.2434;0.3757;
1152.6000;0.2344;0.3539;
1152.9000;0.2426;0.3636;
1153.2000;0.2426;0.3611;
1153.5000;0.2434;0.3611;
1153.8000;0.2418;0.3490;
1154.1000;0.2426;0.3587;
1154.4000;0.2377;0.3466;
1154.7000;0.2426;0.3563;
1155.0000;0.2426;0.3539;
1155.3000;0.2426;0.3563;
1155.6000;0.2475;0.3660;
1155.9000;0.2393;0.3417;
1156.2000;0.2426;0.3417;
1156.5000;0.2426;0.3393;
1156.8000;0.2401;0.3320;
1157.1000;0.2426;0.3345;
1157.4000;0.2418;0.3369;
1157.7000;0.2426;0.3442;
1158.0000;0.2393;0.3417;
1158.3000;0.2426;0.3490;
1158.6000;0.2434;0.3587;
1158.9000;0.2426;0.3684;
1159.2000;0.2328;0.3345;
1159.5000;0.2418;0.3563;
1159.8000;0.2491;0.3829;
1160.1000;0.2409;0.3636;
1160.4000;0.2442;0.3708;
1160.7000;0.2458;0.3684;
1161.0000;0.2426;0.3636;
1161.3000;0.2418;0.3611;
1161.6000;0.2418;0.3611;
1161.9000;0.2426;0.3660;
1162.2000;0.2426;0.3539;
1162.5000;0.2442;0.3563;
1162.8000;0.2393;0.3490;
1163.1000;0.2418;0.3660;
1163.4000;0.2434;0.3757;
1163.7000;0.2426;0.3757;
1164.0000;0.2426;0.3708;
1164.3000;0.2418;0.3733;
1164.6000;0.2418;0.3854;
1164.9000;0.2442;0.3975;
1165.2000;0.2442;0.4023;
1165.5000;0.2393;0.3951;
1165.8000;0.2409;0.3878;
1166.1000;0.2418;0.3854;
1166.4000;0.2426;0.3829;
1166.7000;0.2401;0.3733;
1167.0000;0.2442;0.3757;
1167.3000;0.2442;0.3829;
1167.6000;0.2426;0.3757;
1167.9000;0.2434;0.3805;
1168.2000;0.2418;0.3829;
1168.5000;0.2426;0.3733;
1168.8000;0.2418;0.3733;
1169.1000;0.2426;0.3733;
1169.4000;0.2385;0.3636;
1169.7000;0.2426;0.3733;
1170.0000;0.2409;0.3636;
1170.3000;0.2434;0.3660;
1170.6000;0.2418;0.3587;
1170.9000;0.2409;0.3587;
1171.2000;0.2434;0.3660;
1171.5000;0.2393;0.3587;
1171.8000;0.2418;0.3611;
1172.1000;0.2434;0.3611;
1172.4000;0.2418;0.3611;
1172.7000;0.2418;0.3539;
1173.0000;0.2426;0.3587;
1173.3000;0.2401;0.3442;
1173.6000;0.2434;0.3587;
1173.9000;0.2426;0.3514;
1174.2000;0.2434;0.3563;
1174.5000;0.2434;0.3587;
1174.8000;0.2393;0.3514;
1175.1000;0.2426;0.3611;
1175.4000;0.2434;0.3684;
1175.7000;0.2418;0.3733;
1176.0000;0.2426;0.3781;
1176.3000;0.2426;0.3902;
1176.6000;0.2442;0.4023;
1176.9000;0.2401;0.3902;
1177.2000;0.2426;0.3902;
1177.5000;0.2401;0.3829;
1177.8000;0.2426;0.3878;
1178.1000;0.2426;0.3975;
1178.4000;0.2409;0.3902;
1178.7000;0.2418;0.3878;
1179.0000;0.2418;0.3854;
1179.3000;0.2434;0.3781;
1179.6000;0.2434;0.3636;
1179.9000;0.2418;0.3636;
1180.2000;0.2442;0.3708;
1180.5000;0.2418;0.3660;
1180.8000;0.2385;0.3660;
1181.1000;0.2401;0.3684;
1181.4000;0.2426;0.3708;
1181.7000;0.2426;0.3660;
1182.0000;0.2409;0.3587;
1182.3000;0.2442;0.3587;
1182.6000;0.2426;0.3563;
1182.9000;0.2450;0.3636;
1183.2000;0.2409;0.3490;
1183.5000;0.2409;0.3563;
1183.8000;0.2418;0.3708;
1184.1000;0.2458;0.3781;
1184.4000;0.2401;0.3611;
1184.7000;0.2409;0.3660;
1185.0000;0.2409;0.3611;
1185.3000;0.2434;0.3684;
1185.6000;0.2418;0.3611;
1185.9000;0.2426;0.3708;
1186.2000;0.2426;0.3781;
1186.5000;0.2401;0.3563;
1186.8000;0.2409;0.3514;
1187.1000;0.2426;0.3636;
1187.4000;0.2401;0.3636;
1187.7000;0.2466;0.3781;
1188.0000;0.2401;0.3611;
1188.3000;0.2426;0.3611;
1188.6000;0.2532;0.3951;
1188.9000;0.2434;0.3708;
1189.2000;0.2401;0.3684;
1189.5000;0.2434;0.3781;
1189.8000;0.2418;0.3757;
1190.1000;0.2409;0.3733;
1190.4000;0.2434;0.3708;
1190.7000;0.2418;0.3708;
1191.0000;0.2418;0.3684;
1191.3000;0.2352;0.3490;
1191.6000;0.2418;0.3587;
1191.9000;0.2418;0.3660;
1192.2000;0.2369;0.3563;
1192.5000;0.2466;0.3854;
1192.8000;0.2418;0.3708;
1193.1000;0.2442;0.3660;
1193.4000;0.2483;0.3757;
1193.7000;0.2426;0.3636;
1194.0000;0.2426;0.3587;
1194.3000;0.2377;0.3393;
1194.6000;0.2442;0.3587;
1194.9000;0.2401;0.3514;
1195.2000;0.2409;0.3466;
1195.5000;0.2450;0.3611;
1195.8000;0.2385;0.3490;
1196.1000;0.2442;0.3587;
1196.4000;0.2401;0.3539;
1196.7000;0.2418;0.3636;
1197.0000;0.2409;0.3587;
1197.3000;0.2401;0.3587;
1197.6000;0.2361;0.3490;
1197.9000;0.2418;0.3708;
1198.2000;0.2401;0.3708;
1198.5000;0.2409;0.3490;
1198.8000;0.2401;0.3587;
1199.1000;0.2426;0.3636;
1199.4000;0.2434;0.3636;
1199.7000;0.2418;0.3563;
1200.0000;0.2418;0.3539;
1200.3000;0.2434;0.3684;
1200.6000;0.2426;0.3636;
1200.9000;0.2418;0.3636;
1201.2000;0.2426;0.3684;
1201.5000;0.2442;0.3757;
1201.8000;0.2442;0.3708;
1202.1000;0.2434;0.3611;
1202.4000;0.2385;0.3417;
1202.7000;0.2450;0.3587;
1203.0000;0.2466;0.3733;
1203.3000;0.2401;0.3660;
1203.6000;0.2458;0.3854;
1203.9000;0.2434;0.3781;
1204.2000;0.2409;0.3684;
1204.5000;0.2450;0.3854;
1204.8000;0.2409;0.3902;
1205.1000;0.2499;0.4120;
1205.4000;0.2442;0.3902;
1205.7000;0.2442;0.3902;
1206.0000;0.2458;0.3805;
1206.3000;0.2434;0.3781;
1206.6000;0.2418;0.3805;
1206.9000;0.2434;0.3878;
1207.2000;0.2409;0.3805;
1207.5000;0.2442;0.3902;
1207.8000;0.2401;0.3878;
1208.1000;0.2409;0.3926;
1208.4000;0.2418;0.3951;
1208.7000;0.2409;0.3951;
1209.0000;0.2409;0.3951;
1209.3000;0.2401;0.3781;
1209.6000;0.2409;0.3733;
1209.9000;0.2442;0.3757;
1210.2000;0.2434;0.3757;
1210.5000;0.2426;0.3781;
1210.8000;0.2426;0.3829;
1211.1000;0.2483;0.3902;
1211.4000;0.2418;0.3733;
1211.7000;0.2426;0.3660;
1212.0000;0.2442;0.3684;
1212.3000;0.2409;0.3636;
1212.6000;0.2426;0.3660;
1212.9000;0.2434;0.3708;
1213.2000;0.2312;0.3417;
1213.5000;0.2434;0.3733;
1213.8000;0.2409;0.3636;
1214.1000;0.2450;0.3708;
1214.4000;0.2434;0.3708;
1214.7000;0.2442;0.3757;
1215.0000;0.2442;0.3805;
1215.3000;0.2450;0.3829;
1215.6000;0.2426;0.3757;
1215.9000;0.2409;0.3684;
1216.2000;0.2475;0.3829;
1216.5000;0.2418;0.3587;
1216.8000;0.2426;0.3636;
1217.1000;0.2442;0.3684;
1217.4000;0.2409;0.3708;
1217.7000;0.2409;0.3684;
1218.0000;0.2409;0.3708;
1218.3000;0.2458;0.3854;
1218.6000;0.2418;0.3733;
1218.9000;0.2409;0.3781;
1219.2000;0.2361;0.3708;
1219.5000;0.2401;0.3829;
1219.8000;0.2418;0.3926;
1220.1000;0.2418;0.3902;
1220.4000;0.2434;0.3951;
1220.7000;0.2418;0.3902;
1221.0000;0.2426;0.3926;
1221.3000;0.2344;0.3757;
1221.6000;0.2418;0.3878;
1221.9000;0.2426;0.3854;
1222.2000;0.2426;0.3854;
1222.5000;0.2434;0.3733;
1222.8000;0.2409;0.3708;
1223.1000;0.2418;0.3781;
1223.4000;0.2426;0.3660;
1223.7000;0.2434;0.3660;
1224.0000;0.2409;0.3636;
1224.3000;0.2409;0.3563;
1224.6000;0.2418;0.3611;
1224.9000;0.2385;0.3611;
1225.2000;0.2442;0.3757;
1225.5000;0.2409;0.3636;
1225.8000;0.2426;0.3757;
1226.1000;0.2426;0.3757;
1226.4000;0.2409;0.3708;
1226.7000;0.2401;0.3660;
1227.0000;0.2450;0.3757;
1227.3000;0.2393;0.3684;
1227.6000;0.2442;0.3708;
1227.9000;0.2409;0.3733;
1228.2000;0.2409;0.3708;
1228.5000;0.2418;0.3733;
1228.8000;0.2434;0.3829;
1229.1000;0.2434;0.3854;
1229.4000;0.2401;0.3878;
1229.7000;0.2426;0.3854;
1230.0000;0.2434;0.3854;
1230.3000;0.2385;0.3854;
1230.6000;0.2352;0.3733;
1230.9000;0.2409;0.3854;
1231.2000;0.2532;0.4242;
1231.5000;0.2434;0.3902;
1231.8000;0.2434;0.3878;
1232.1000;0.2442;0.3854;
1232.4000;0.2426;0.3757;
1232.7000;0.2450;0.3878;
1233.0000;0.2491;0.4169;
1233.3000;0.2409;0.3951;
1233.6000;0.2442;0.4048;
1233.9000;0.2458;0.4096;
1234.2000;0.2458;0.4072;
1234.5000;0.2426;0.3999;
1234.8000;0.2409;0.3926;
1235.1000;0.2442;0.3878;
1235.4000;0.2450;0.3975;
1235.7000;0.2434;0.3854;
1236.0000;0.2418;0.3829;
1236.3000;0.2409;0.3902;
1236.6000;0.2426;0.3902;
1236.9000;0.2393;0.3902;
1237.2000;0.2442;0.3951;
1237.5000;0.2426;0.3902;
1237.8000;0.2434;0.3902;
1238.1000;0.2409;0.3829;
1238.4000;0.2434;0.3926;
1238.7000;0.2418;0.3951;
1239.0000;0.2418;0.3878;
1239.3000;0.2491;0.4048;
1239.6000;0.2409;0.3757;
1239.9000;0.2418;0.3757;
1240.2000;0.2426;0.3805;
1240.5000;0.2426;0.3733;
1240.8000;0.2426;0.3708;
1241.1000;0.2426;0.3611;
1241.4000;0.2426;0.3611;
1241.7000;0.2426;0.3611;
1242.0000;0.2393;0.3539;
1242.3000;0.2426;0.3587;
1242.6000;0.2409;0.3563;
1242.9000;0.2409;0.3539;
1243.2000;0.2426;0.3539;
1243.5000;0.2401;0.3514;
1243.8000;0.2409;0.3587;
1244.1000;0.2418;0.3708;
1244.4000;0.2418;0.3733;
1244.7000;0.2418;0.3781;
1245.0000;0.2458;0.3829;
1245.3000;0.2540;0.4023;
1245.6000;0.2442;0.3781;
1245.9000;0.2442;0.3757;
1246.2000;0.2426;0.3878;
1246.5000;0.2450;0.3951;
1246.8000;0.2434;0.3975;
1247.1000;0.2426;0.3999;
1247.4000;0.2393;0.3999;
1247.7000;0.2418;0.4023;
1248.0000;0.2442;0.3975;
1248.3000;0.2401;0.3951;
1248.6000;0.2418;0.4023;
1248.9000;0.2434;0.4048;
1249.2000;0.2418;0.3878;
1249.5000;0.2426;0.3951;
1249.8000;0.2409;0.3805;
1250.1000;0.2434;0.3829;
1250.4000;0.2434;0.3757;
1250.7000;0.2426;0.3854;
1251.0000;0.2450;0.3951;
1251.3000;0.2426;0.3902;
1251.6000;0.2434;0.3975;
1251.9000;0.2401;0.3902;
1252.2000;0.2434;0.3854;
1252.5000;0.2434;0.3757;
1252.8000;0.2442;0.3757;
1253.1000;0.2491;0.3975;
1253.4000;0.2442;0.3829;
1253.7000;0.2426;0.3805;
1254.0000;0.2369;0.3733;
1254.3000;0.2409;0.3757;
1254.6000;0.2393;0.3733;
1254.9000;0.2336;0.3563;
1255.2000;0.2344;0.3587;
1255.5000;0.2385;0.3757;
1255.8000;0.2409;0.3902;
1256.1000;0.2369;0.3878;
1256.4000;0.2434;0.4023;
1256.7000;0.2507;0.4169;
1257.0000;0.2401;0.3854;
1257.3000;0.2418;0.3854;
1257.6000;0.2385;0.3684;
1257.9000;0.2409;0.3829;
1258.2000;0.2377;0.3708;
1258.5000;0.2401;0.3781;
1258.8000;0.2409;0.3805;
1259.1000;0.2418;0.3902;
1259.4000;0.2434;0.3951;
1259.7000;0.2426;0.3926;
1260.0000;0.2442;0.3975;
1260.3000;0.2369;0.3757;
1260.6000;0.2426;0.3951;
1260.9000;0.2426;0.3975;
1261.2000;0.2426;0.3975;
1261.5000;0.2532;0.4266;
1261.8000;0.2426;0.3999;
1262.1000;0.2426;0.4023;
1262.4000;0.2450;0.4120;
1262.7000;0.2434;0.4096;
1263.0000;0.2393;0.4072;
1263.3000;0.2458;0.4096;
1263.6000;0.2418;0.3975;
1263.9000;0.2409;0.3951;
1264.2000;0.2409;0.3878;
1264.5000;0.2458;0.3926;
1264.8000;0.2418;0.3805;
1265.1000;0.2426;0.3757;
1265.4000;0.2385;0.3684;
1265.7000;0.2434;0.3878;
1266.0000;0.2426;0.3878;
1266.3000;0.2434;0.3854;
1266.6000;0.2426;0.3781;
1266.9000;0.2434;0.3781;
1267.2000;0.2442;0.3708;
1267.5000;0.2426;0.3708;
1267.8000;0.2426;0.3733;
1268.1000;0.2442;0.3708;
1268.4000;0.2409;0.3611;
1268.7000;0.2426;0.3708;
1269.0000;0.2434;0.3757;
1269.3000;0.2434;0.3757;
1269.6000;0.2418;0.3684;
1269.9000;0.2418;0.3636;
1270.2000;0.2426;0.3733;
1270.5000;0.2475;0.3829;
1270.8000;0.2442;0.3757;
1271.1000;0.2450;0.3805;
1271.4000;0.2434;0.3757;
1271.7000;0.2409;0.3757;
1272.0000;0.2426;0.3781;
1272.3000;0.2442;0.3757;
1272.6000;0.2532;0.4072;
1272.9000;0.2369;0.3660;
1273.2000;0.2426;0.3902;
1273.5000;0.2442;0.3926;
1273.8000;0.2418;0.3829;
1274.1000;0.2426;0.3781;
1274.4000;0.2418;0.3829;
1274.7000;0.2426;0.3805;
1275.0000;0.2352;0.3611;
1275.3000;0.2442;0.3854;
1275.6000;0.2418;0.3829;
1275.9000;0.2450;0.3854;
1276.2000;0.2434;0.3805;
1276.5000;0.2426;0.3781;
1276.8000;0.2426;0.3829;
1277.1000;0.2418;0.3878;
1277.4000;0.2442;0.3951;
1277.7000;0.2426;0.3854;
1278.0000;0.2409;0.3829;
1278.3000;0.2409;0.3878;
1278.6000;0.2418;0.3902;
1278.9000;0.2409;0.3999;
1279.2000;0.2344;0.3878;
1279.5000;0.2409;0.4023;
1279.8000;0.2409;0.4023;
1280.1000;0.2442;0.4217;
1280.4000;0.2409;0.4096;
1280.7000;0.2426;0.4169;
1281.0000;0.2409;0.4096;
1281.3000;0.2426;0.4072;
1281.6000;0.2418;0.3999;
1281.9000;0.2418;0.3951;
1282.2000;0.2426;0.3902;
1282.5000;0.2442;0.3829;
1282.8000;0.2418;0.3829;
1283.1000;0.2409;0.3757;
1283.4000;0.2426;0.3733;
1283.7000;0.2418;0.3781;
1284.0000;0.2418;0.3781;
1284.3000;0.2409;0.3854;
1284.6000;0.2409;0.3854;
1284.9000;0.2426;0.3878;
1285.2000;0.2401;0.3854;
1285.5000;0.2418;0.3854;
1285.8000;0.2409;0.3902;
1286.1000;0.2418;0.3878;
1286.4000;0.2377;0.3708;
1286.7000;0.2418;0.3805;
1287.0000;0.2409;0.3781;
1287.3000;0.2434;0.3781;
1287.6000;0.2442;0.3829;
1287.9000;0.2401;0.3805;
1288.2000;0.2385;0.3805;
1288.5000;0.2450;0.3902;
1288.8000;0.2418;0.3829;
1289.1000;0.2434;0.3854;
1289.4000;0.2361;0.3660;
1289.7000;0.2418;0.3902;
1290.0000;0.2401;0.3854;
1290.3000;0.2418;0.3975;
1290.6000;0.2426;0.3975;
1290.9000;0.2426;0.3951;
1291.2000;0.2450;0.3926;
1291.5000;0.2434;0.3975;
1291.8000;0.2434;0.3975;
1292.1000;0.2426;0.3999;
1292.4000;0.2450;0.3951;
1292.7000;0.2409;0.3805;
1293.0000;0.2409;0.3781;
1293.3000;0.2426;0.3854;
1293.6000;0.2434;0.3878;
1293.9000;0.2418;0.3781;
1294.2000;0.2458;0.3902;
1294.5000;0.2393;0.3757;
1294.8000;0.2418;0.3878;
1295.1000;0.2409;0.3902;
1295.4000;0.2442;0.4023;
1295.7000;0.2418;0.3902;
1296.0000;0.2426;0.3951;
1296.3000;0.2434;0.3951;
1296.6000;0.2393;0.3878;
1296.9000;0.2426;0.3951;
1297.2000;0.2320;0.3708;
1297.5000;0.2426;0.3951;
1297.8000;0.2434;0.3951;
1298.1000;0.2393;0.3902;
1298.4000;0.2401;0.3854;
1298.7000;0.2426;0.3951;
1299.0000;0.2434;0.3975;
1299.3000;0.2418;0.3926;
1299.6000;0.2418;0.3926;
1299.9000;0.2426;0.3951;
1300.2000;0.2426;0.4072;
1300.5000;0.2385;0.3975;
1300.8000;0.2418;0.4072;
1301.1000;0.2409;0.4072;
1301.4000;0.2450;0.4145;
1301.7000;0.2418;0.4193;
1302.0000;0.2418;0.4169;
1302.3000;0.2377;0.3975;
1302.6000;0.2426;0.4096;
1302.9000;0.2418;0.4120;
1303.2000;0.2466;0.4217;
1303.5000;0.2304;0.3684;
1303.8000;0.2426;0.4023;
1304.1000;0.2418;0.4096;
1304.4000;0.2418;0.4096;
1304.7000;0.2409;0.4096;
1305.0000;0.2418;0.4072;
1305.3000;0.2385;0.4023;
1305.6000;0.2466;0.4242;
1305.9000;0.2401;0.4048;
1306.2000;0.2442;0.4096;
1306.5000;0.2426;0.4072;
1306.8000;0.2442;0.4072;
1307.1000;0.2426;0.4048;
1307.4000;0.2352;0.3781;
1307.7000;0.2450;0.3999;
1308.0000;0.2426;0.3975;
1308.3000;0.2393;0.3878;
1308.6000;0.2418;0.3902;
1308.9000;0.2426;0.3902;
1309.2000;0.2426;0.3951;
1309.5000;0.2393;0.3902;
1309.8000;0.2418;0.3926;
1310.1000;0.2434;0.4048;
1310.4000;0.2434;0.4072;
1310.7000;0.2409;0.4048;
1311.0000;0.2426;0.4169;
1311.3000;0.2483;0.4338;
1311.6000;0.2434;0.4120;
1311.9000;0.2393;0.3975;
1312.2000;0.2426;0.4023;
1312.5000;0.2418;0.3951;
1312.8000;0.2426;0.3926;
1313.1000;0.2442;0.3926;
1313.4000;0.2475;0.4120;
1313.7000;0.2426;0.4048;
1314.0000;0.2426;0.4096;
1314.3000;0.2442;0.4169;
1314.6000;0.2418;0.4120;
1314.9000;0.2426;0.4120;
1315.2000;0.2434;0.4072;
1315.5000;0.2434;0.4023;
1315.8000;0.2434;0.4023;
1316.1000;0.2418;0.3999;
1316.4000;0.2458;0.4120;
1316.7000;0.2442;0.3999;
1317.0000;0.2442;0.4023;
1317.3000;0.2393;0.3926;
1317.6000;0.2426;0.3926;
1317.9000;0.2426;0.3926;
1318.2000;0.2426;0.3878;
1318.5000;0.2418;0.3902;
1318.8000;0.2418;0.3902;
1319.1000;0.2426;0.3926;
1319.4000;0.2401;0.3854;
1319.7000;0.2418;0.3805;
1320.0000;0.2361;0.3660;
1320.3000;0.2418;0.3805;
1320.6000;0.2409;0.3854;
1320.9000;0.2385;0.3926;
1321.2000;0.2401;0.3999;
1321.5000;0.2426;0.3926;
1321.8000;0.2434;0.3999;
1322.1000;0.2434;0.3999;
1322.4000;0.2409;0.3878;
1322.7000;0.2426;0.3854;
1323.0000;0.2287;0.3636;
1323.3000;0.2409;0.3902;
1323.6000;0.2442;0.3975;
1323.9000;0.2295;0.3611;
1324.2000;0.2507;0.4145;
1324.5000;0.2434;0.3975;
1324.8000;0.2426;0.3902;
1325.1000;0.2426;0.3854;
1325.4000;0.2434;0.3829;
1325.7000;0.2426;0.3854;
1326.0000;0.2426;0.3878;
1326.3000;0.2515;0.4120;
1326.6000;0.2418;0.3854;
1326.9000;0.2434;0.3975;
1327.2000;0.2483;0.4096;
1327.5000;0.2409;0.3926;
1327.8000;0.2426;0.3926;
1328.1000;0.2434;0.3975;
1328.4000;0.2442;0.3999;
1328.7000;0.2418;0.3975;
1329.0000;0.2361;0.3854;
1329.3000;0.2426;0.3926;
1329.6000;0.2426;0.3951;
1329.9000;0.2426;0.3926;
1330.2000;0.2409;0.3926;
1330.5000;0.2418;0.3999;
1330.8000;0.2434;0.4072;
1331.1000;0.2426;0.4048;
1331.4000;0.2532;0.4242;
1331.7000;0.2434;0.3999;
1332.0000;0.2434;0.3999;
1332.3000;0.2434;0.4072;
1332.6000;0.2434;0.3999;
1332.9000;0.2401;0.3926;
1333.2000;0.2418;0.3926;
1333.5000;0.2418;0.3926;
1333.8000;0.2442;0.3902;
1334.1000;0.2401;0.3757;
1334.4000;0.2426;0.3829;
1334.7000;0.2442;0.3902;
1335.0000;0.2418;0.3854;
1335.3000;0.2385;0.3757;
1335.6000;0.2426;0.3829;
1335.9000;0.2434;0.3708;
1336.2000;0.2418;0.3708;
1336.5000;0.2401;0.3684;
1336.8000;0.2532;0.4048;
1337.1000;0.2434;0.3757;
1337.4000;0.2401;0.3611;
1337.7000;0.2418;0.3757;
1338.0000;0.2442;0.3781;
1338.3000;0.2418;0.3878;
1338.6000;0.2418;0.3951;
1338.9000;0.2434;0.3854;
1339.2000;0.2426;0.3854;
1339.5000;0.2401;0.3829;
1339.8000;0.2442;0.3926;
1340.1000;0.2426;0.3902;
1340.4000;0.2426;0.3854;
1340.7000;0.2426;0.3805;
1341.0000;0.2418;0.3733;
1341.3000;0.2418;0.3757;
1341.6000;0.2458;0.3829;
1341.9000;0.2426;0.3781;
1342.2000;0.2426;0.3805;
1342.5000;0.2491;0.3829;
1342.8000;0.2442;0.3660;
1343.1000;0.2442;0.3684;
1343.4000;0.2442;0.3878;
1343.7000;0.2442;0.3878;
1344.0000;0.2377;0.3660;
1344.3000;0.2450;0.3854;
1344.6000;0.2426;0.3829;
1344.9000;0.2369;0.3636;
1345.2000;0.2418;0.3733;
1345.5000;0.2393;0.3781;
1345.8000;0.2426;0.3781;
1346.1000;0.2450;0.3854;
1346.4000;0.2409;0.3733;
1346.7000;0.2409;0.3660;
1347.0000;0.2320;0.3417;
1347.3000;0.2426;0.3757;
1347.6000;0.2426;0.3829;
1347.9000;0.2434;0.3829;
1348.2000;0.2409;0.3805;
1348.5000;0.2426;0.3854;
1348.8000;0.2426;0.3829;
1349.1000;0.2409;0.3781;
1349.4000;0.2385;0.3660;
1349.7000;0.2426;0.3829;
1350.0000;0.2466;0.3878;
1350.3000;0.2385;0.3660;
1350.6000;0.2426;0.3733;
1350.9000;0.2377;0.3708;
1351.2000;0.2466;0.3975;
1351.5000;0.2426;0.3878;
1351.8000;0.2426;0.3878;
1352.1000;0.2442;0.3854;
1352.4000;0.2426;0.3805;
1352.7000;0.2418;0.3805;
1353.0000;0.2426;0.3781;
1353.3000;0.2352;0.3660;
1353.6000;0.2434;0.3805;
1353.9000;0.2450;0.3757;
1354.2000;0.2418;0.3708;
1354.5000;0.2409;0.3587;
1354.8000;0.2442;0.3563;
1355.1000;0.2450;0.3611;
1355.4000;0.2393;0.3587;
1355.7000;0.2401;0.3660;
1356.0000;0.2418;0.3733;
1356.3000;0.2442;0.3781;
1356.6000;0.2450;0.3805;
1356.9000;0.2401;0.3733;
1357.2000;0.2401;0.3829;
1357.5000;0.2491;0.4169;
1357.8000;0.2434;0.3975;
1358.1000;0.2434;0.3999;
1358.4000;0.2434;0.3926;
1358.7000;0.2434;0.3878;
1359.0000;0.2426;0.3951;
1359.3000;0.2434;0.4023;
1359.6000;0.2426;0.3902;
1359.9000;0.2442;0.3902;
1360.2000;0.2418;0.3854;
1360.5000;0.2426;0.3854;
1360.8000;0.2434;0.3878;
1361.1000;0.2434;0.3878;
1361.4000;0.2328;0.3490;
1361.7000;0.2434;0.3781;
1362.0000;0.2434;0.3829;
1362.3000;0.2434;0.3902;
1362.6000;0.2442;0.3926;
1362.9000;0.2450;0.3829;
1363.2000;0.2458;0.3805;
1363.5000;0.2426;0.3733;
1363.8000;0.2418;0.3757;
1364.1000;0.2499;0.3926;
1364.4000;0.2434;0.3854;
1364.7000;0.2418;0.3854;
1365.0000;0.2409;0.3878;
1365.3000;0.2320;0.3587;
1365.6000;0.2426;0.3805;
1365.9000;0.2426;0.3878;
1366.2000;0.2320;0.3490;
1366.5000;0.2491;0.3878;
1366.8000;0.2442;0.3878;
1367.1000;0.2491;0.4048;
1367.4000;0.2385;0.3733;
1367.7000;0.2426;0.3829;
1368.0000;0.2434;0.3902;
1368.3000;0.2434;0.3781;
1368.6000;0.2409;0.3684;
1368.9000;0.2369;0.3563;
1369.2000;0.2426;0.3757;
1369.5000;0.2401;0.3684;
1369.8000;0.2385;0.3733;
1370.1000;0.2328;0.3587;
1370.4000;0.2393;0.3829;
1370.7000;0.2434;0.3805;
1371.0000;0.2434;0.3805;
1371.3000;0.2418;0.3757;
1371.6000;0.2434;0.3757;
1371.9000;0.2434;0.3781;
1372.2000;0.2418;0.3757;
1372.5000;0.2442;0.3854;
1372.8000;0.2442;0.3829;
1373.1000;0.2434;0.3854;
1373.4000;0.2540;0.4120;
1373.7000;0.2409;0.3757;
1374.0000;0.2491;0.3926;
1374.3000;0.2442;0.3854;
1374.6000;0.2409;0.3854;
1374.9000;0.2418;0.3757;
1375.2000;0.2418;0.3733;
1375.5000;0.2426;0.3805;
1375.8000;0.2344;0.3587;
1376.1000;0.2401;0.3757;
1376.4000;0.2426;0.3805;
1376.7000;0.2409;0.3829;
1377.0000;0.2409;0.3878;
1377.3000;0.2466;0.4023;
1377.6000;0.2418;0.3902;
1377.9000;0.2458;0.4023;
1378.2000;0.2450;0.3951;
1378.5000;0.2458;0.3975;
1378.8000;0.2466;0.4096;
1379.1000;0.2434;0.4048;
1379.4000;0.2434;0.3999;
1379.7000;0.2385;0.3805;
1380.0000;0.2426;0.3951;
1380.3000;0.2426;0.3854;
1380.6000;0.2458;0.3926;
1380.9000;0.2426;0.3926;
1381.2000;0.2418;0.3926;
1381.5000;0.2409;0.3878;
1381.8000;0.2426;0.3878;
1382.1000;0.2426;0.3902;
1382.4000;0.2409;0.3829;
1382.7000;0.2434;0.3878;
1383.0000;0.2401;0.3781;
1383.3000;0.2418;0.3805;
1383.6000;0.2434;0.3854;
1383.9000;0.2426;0.3902;
1384.2000;0.2442;0.3951;
1384.5000;0.2434;0.3854;
1384.8000;0.2426;0.3781;
1385.1000;0.2442;0.3757;
1385.4000;0.2426;0.3733;
1385.7000;0.2434;0.3733;
1386.0000;0.2434;0.3781;
1386.3000;0.2434;0.3805;
1386.6000;0.2409;0.3757;
1386.9000;0.2401;0.3757;
1387.2000;0.2328;0.3490;
1387.5000;0.2458;0.3926;
1387.8000;0.2418;0.3733;
1388.1000;0.2418;0.3829;
1388.4000;0.2393;0.3684;
1388.7000;0.2434;0.3805;
1389.0000;0.2418;0.3854;
1389.3000;0.2418;0.3829;
1389.6000;0.2401;0.3733;
1389.9000;0.2393;0.3733;
1390.2000;0.2409;0.3781;
1390.5000;0.2426;0.3781;
1390.8000;0.2426;0.3805;
1391.1000;0.2393;0.3684;
1391.4000;0.2426;0.3781;
1391.7000;0.2434;0.3805;
1392.0000;0.2409;0.3829;
1392.3000;0.2418;0.3854;
1392.6000;0.2475;0.3951;
1392.9000;0.2442;0.3829;
1393.2000;0.2483;0.3878;
1393.5000;0.2434;0.3781;
1393.8000;0.2418;0.3684;
1394.1000;0.2418;0.3757;
1394.4000;0.2434;0.3781;
1394.7000;0.2401;0.3684;
1395.0000;0.2409;0.3757;
1395.3000;0.2442;0.3757;
1395.6000;0.2328;0.3539;
1395.9000;0.2434;0.3805;
1396.2000;0.2434;0.3926;
1396.5000;0.2418;0.3878;
1396.8000;0.2409;0.3926;
1397.1000;0.2466;0.4023;
1397.4000;0.2426;0.3902;
1397.7000;0.2434;0.3829;
1398.0000;0.2418;0.3829;
1398.3000;0.2442;0.3829;
1398.6000;0.2393;0.3733;
1398.9000;0.2418;0.3781;
1399.2000;0.2377;0.3708;
1399.5000;0.2483;0.4023;
1399.8000;0.2434;0.3902;
