time/ms;Fluo/V;P700 deltaI/I x10³;
-199.8000;0.4062;-1.0542;
-199.5000;0.4046;-1.0641;
-199.2000;0.4054;-1.0493;
-198.9000;0.4054;-1.0468;
-198.6000;0.4070;-1.0493;
-198.3000;0.4046;-1.0567;
-198.0000;0.4054;-1.0592;
-197.7000;0.4037;-1.0542;
-197.4000;0.4046;-1.0443;
-197.1000;0.4046;-1.0394;
-196.8000;0.4062;-1.0443;
-196.5000;0.4054;-1.0493;
-196.2000;0.4078;-1.0517;
-195.9000;0.4070;-1.0468;
-195.6000;0.4062;-1.0493;
-195.3000;0.4054;-1.0468;
-195.0000;0.4054;-1.0418;
-194.7000;0.4062;-1.0319;
-194.4000;0.4070;-1.0344;
-194.1000;0.4054;-1.0319;
-193.8000;0.4062;-1.0369;
-193.5000;0.4062;-1.0418;
-193.2000;0.4070;-1.0443;
-192.9000;0.4054;-1.0418;
-192.6000;0.4046;-1.0394;
-192.3000;0.4062;-1.0319;
-192.0000;0.4070;-1.0344;
-191.7000;0.4046;-1.0344;
-191.4000;0.4070;-1.0295;
-191.1000;0.4062;-1.0443;
-190.8000;0.4078;-1.0394;
-190.5000;0.4046;-1.0418;
-190.2000;0.4046;-1.0394;
-189.9000;0.4046;-1.0418;
-189.6000;0.4054;-1.0344;
-189.3000;0.4054;-1.0295;
-189.0000;0.4062;-1.0344;
-188.7000;0.4046;-1.0443;
-188.4000;0.4070;-1.0319;
-188.1000;0.4046;-1.0394;
-187.8000;0.4046;-1.0418;
-187.5000;0.4046;-1.0418;
-187.2000;0.4054;-1.0344;
-186.9000;0.4054;-1.0295;
-186.6000;0.4046;-1.0344;
-186.3000;0.4037;-1.0394;
-186.0000;0.4062;-1.0344;
-185.7000;0.4070;-1.0270;
-185.4000;0.4054;-1.0245;
-185.1000;0.4054;-1.0220;
-184.8000;0.4054;-1.0245;
-184.5000;0.4062;-1.0220;
-184.2000;0.4046;-1.0295;
-183.9000;0.4054;-1.0245;
-183.6000;0.4062;-1.0171;
-183.3000;0.4070;-1.0121;
-183.0000;0.4062;-1.0121;
-182.7000;0.4078;-1.0072;
-182.4000;0.4054;-1.0121;
-182.1000;0.4062;-1.0146;
-181.8000;0.4046;-1.0220;
-181.5000;0.4070;-1.0270;
-181.2000;0.4054;-1.0319;
-180.9000;0.4046;-1.0394;
-180.6000;0.4054;-1.0319;
-180.3000;0.4062;-1.0418;
-180.0000;0.4054;-1.0394;
-179.7000;0.4054;-1.0394;
-179.4000;0.4078;-1.0220;
-179.1000;0.4070;-1.0146;
-178.8000;0.4070;-1.0121;
-178.5000;0.4070;-1.0121;
-178.2000;0.4054;-1.0146;
-177.9000;0.4046;-1.0146;
-177.6000;0.4046;-1.0146;
-177.3000;0.4054;-1.0171;
-177.0000;0.4143;-1.0022;
-176.7000;0.4062;-1.0319;
-176.4000;0.4029;-1.0394;
-176.1000;0.4046;-1.0369;
-175.8000;0.4070;-1.0295;
-175.5000;0.4062;-1.0270;
-175.2000;0.4054;-1.0369;
-174.9000;0.4037;-1.0418;
-174.6000;0.4054;-1.0369;
-174.3000;0.4029;-1.0394;
-174.0000;0.4070;-1.0394;
-173.7000;0.4054;-1.0443;
-173.4000;0.4070;-1.0394;
-173.1000;0.4070;-1.0394;
-172.8000;0.4078;-1.0369;
-172.5000;0.4062;-1.0443;
-172.2000;0.4037;-1.0493;
-171.9000;0.4029;-1.0517;
-171.6000;0.4062;-1.0344;
-171.3000;0.4054;-1.0443;
-171.0000;0.4046;-1.0468;
-170.7000;0.4062;-1.0443;
-170.4000;0.4062;-1.0493;
-170.1000;0.4046;-1.0418;
-169.8000;0.4070;-1.0295;
-169.5000;0.4054;-1.0319;
-169.2000;0.4054;-1.0394;
-168.9000;0.4054;-1.0369;
-168.6000;0.4054;-1.0369;
-168.3000;0.4037;-1.0418;
-168.0000;0.4046;-1.0418;
-167.7000;0.4054;-1.0443;
-167.4000;0.4062;-1.0517;
-167.1000;0.4070;-1.0369;
-166.8000;0.4086;-1.0319;
-166.5000;0.4054;-1.0344;
-166.2000;0.4070;-1.0220;
-165.9000;0.4054;-1.0270;
-165.6000;0.4078;-1.0097;
-165.3000;0.4054;-1.0196;
-165.0000;0.4037;-1.0245;
-164.7000;0.4094;-1.0097;
-164.4000;0.4029;-1.0344;
-164.1000;0.4046;-1.0295;
-163.8000;0.4046;-1.0245;
-163.5000;0.3989;-1.0418;
-163.2000;0.4062;-1.0319;
-162.9000;0.3997;-1.0394;
-162.6000;0.4086;-1.0146;
-162.3000;0.4054;-1.0171;
-162.0000;0.4086;-1.0196;
-161.7000;0.3956;-1.0394;
-161.4000;0.4070;-1.0097;
-161.1000;0.4062;-1.0047;
-160.8000;0.4054;-1.0047;
-160.5000;0.4029;-1.0121;
-160.2000;0.4062;-1.0146;
-159.9000;0.3972;-1.0245;
-159.6000;0.4054;-1.0072;
-159.3000;0.4046;-1.0097;
-159.0000;0.4021;-1.0072;
-158.7000;0.4054;-1.0097;
-158.4000;0.4094;-1.0072;
-158.1000;0.4046;-1.0295;
-157.8000;0.4054;-1.0245;
-157.5000;0.4078;-1.0171;
-157.2000;0.4070;-1.0270;
-156.9000;0.4046;-1.0418;
-156.6000;0.4062;-1.0369;
-156.3000;0.4135;-1.0196;
-156.0000;0.4078;-1.0295;
-155.7000;0.4054;-1.0295;
-155.4000;0.4029;-1.0394;
-155.1000;0.4054;-1.0295;
-154.8000;0.4037;-1.0344;
-154.5000;0.4037;-1.0319;
-154.2000;0.4046;-1.0270;
-153.9000;0.4054;-1.0245;
-153.6000;0.4054;-1.0245;
-153.3000;0.4062;-1.0295;
-153.0000;0.4037;-1.0394;
-152.7000;0.4062;-1.0418;
-152.4000;0.4062;-1.0394;
-152.1000;0.4062;-1.0319;
-151.8000;0.4078;-1.0220;
-151.5000;0.4037;-1.0295;
-151.2000;0.4054;-1.0270;
-150.9000;0.4062;-1.0295;
-150.6000;0.4070;-1.0146;
-150.3000;0.4054;-1.0220;
-150.0000;0.4070;-1.0196;
-149.7000;0.4062;-1.0319;
-149.4000;0.4062;-1.0319;
-149.1000;0.4037;-1.0270;
-148.8000;0.4054;-1.0344;
-148.5000;0.4037;-1.0319;
-148.2000;0.4029;-1.0418;
-147.9000;0.4021;-1.0418;
-147.6000;0.4046;-1.0295;
-147.3000;0.4054;-1.0245;
-147.0000;0.4054;-1.0245;
-146.7000;0.4046;-1.0295;
-146.4000;0.4078;-1.0146;
-146.1000;0.4054;-1.0270;
-145.8000;0.4054;-1.0295;
-145.5000;0.4046;-1.0270;
-145.2000;0.3980;-1.0394;
-144.9000;0.4046;-1.0171;
-144.6000;0.4046;-1.0121;
-144.3000;0.4054;-1.0121;
-144.0000;0.4037;-1.0220;
-143.7000;0.4046;-1.0270;
-143.4000;0.4005;-1.0369;
-143.1000;0.4062;-1.0270;
-142.8000;0.4046;-1.0220;
-142.5000;0.4103;-1.0146;
-142.2000;0.4078;-1.0344;
-141.9000;0.4070;-1.0319;
-141.6000;0.4037;-1.0369;
-141.3000;0.4103;-1.0146;
-141.0000;0.4029;-1.0295;
-140.7000;0.4021;-1.0220;
-140.4000;0.4070;-0.9973;
-140.1000;0.4078;-0.9998;
-139.8000;0.4062;-1.0097;
-139.5000;0.4127;-1.0022;
-139.2000;0.4046;-1.0220;
-138.9000;0.4086;-1.0220;
-138.6000;0.4062;-1.0270;
-138.3000;0.4037;-1.0344;
-138.0000;0.4086;-1.0270;
-137.7000;0.4013;-1.0468;
-137.4000;0.4054;-1.0270;
-137.1000;0.4062;-1.0171;
-136.8000;0.4062;-1.0196;
-136.5000;0.4070;-1.0220;
-136.2000;0.4054;-1.0245;
-135.9000;0.4029;-1.0344;
-135.6000;0.4021;-1.0319;
-135.3000;0.4054;-1.0121;
-135.0000;0.4054;-1.0146;
-134.7000;0.4054;-1.0121;
-134.4000;0.4029;-1.0245;
-134.1000;0.4054;-1.0245;
-133.8000;0.4070;-1.0245;
-133.5000;0.4054;-1.0245;
-133.2000;0.4054;-1.0196;
-132.9000;0.3989;-1.0295;
-132.6000;0.4037;-1.0121;
-132.3000;0.4046;-1.0146;
-132.0000;0.4086;-0.9998;
-131.7000;0.4037;-1.0171;
-131.4000;0.4062;-1.0097;
-131.1000;0.4029;-1.0171;
-130.8000;0.4046;-1.0196;
-130.5000;0.4054;-1.0220;
-130.2000;0.4054;-1.0369;
-129.9000;0.4062;-1.0369;
-129.6000;0.4054;-1.0394;
-129.3000;0.4054;-1.0369;
-129.0000;0.4054;-1.0319;
-128.7000;0.4062;-1.0394;
-128.4000;0.4054;-1.0394;
-128.1000;0.4062;-1.0394;
-127.8000;0.4062;-1.0418;
-127.5000;0.4070;-1.0443;
-127.2000;0.4070;-1.0443;
-126.9000;0.4070;-1.0394;
-126.6000;0.4062;-1.0295;
-126.3000;0.4037;-1.0270;
-126.0000;0.4046;-1.0270;
-125.7000;0.4070;-1.0220;
-125.4000;0.4070;-1.0245;
-125.1000;0.4054;-1.0220;
-124.8000;0.4062;-1.0220;
-124.5000;0.4070;-1.0220;
-124.2000;0.4070;-1.0270;
-123.9000;0.4062;-1.0394;
-123.6000;0.4062;-1.0319;
-123.3000;0.4062;-1.0220;
-123.0000;0.4046;-1.0295;
-122.7000;0.4078;-1.0245;
-122.4000;0.4054;-1.0146;
-122.1000;0.4070;-1.0121;
-121.8000;0.4046;-1.0171;
-121.5000;0.4062;-1.0171;
-121.2000;0.4062;-1.0171;
-120.9000;0.4086;-1.0146;
-120.6000;0.4078;-1.0171;
-120.3000;0.4070;-1.0146;
-120.0000;0.4046;-1.0220;
-119.7000;0.4062;-1.0146;
-119.4000;0.4078;-1.0196;
-119.1000;0.4046;-1.0319;
-118.8000;0.4029;-1.0394;
-118.5000;0.4005;-1.0443;
-118.2000;0.4029;-1.0319;
-117.9000;0.4062;-1.0245;
-117.6000;0.4029;-1.0270;
-117.3000;0.4046;-1.0220;
-117.0000;0.4070;-1.0146;
-116.7000;0.4070;-1.0220;
-116.4000;0.4086;-1.0146;
-116.1000;0.4062;-1.0270;
-115.8000;0.4037;-1.0295;
-115.5000;0.4054;-1.0295;
-115.2000;0.4062;-1.0270;
-114.9000;0.4037;-1.0270;
-114.6000;0.4046;-1.0220;
-114.3000;0.4054;-1.0220;
-114.0000;0.4070;-1.0220;
-113.7000;0.4062;-1.0097;
-113.4000;0.4046;-1.0072;
-113.1000;0.4054;-1.0047;
-112.8000;0.4078;-1.0047;
-112.5000;0.4103;-0.9948;
-112.2000;0.4054;-1.0072;
-111.9000;0.4070;-1.0097;
-111.6000;0.4062;-1.0047;
-111.3000;0.4054;-1.0072;
-111.0000;0.4021;-1.0171;
-110.7000;0.4054;-1.0146;
-110.4000;0.4086;-1.0047;
-110.1000;0.4062;-1.0146;
-109.8000;0.4046;-1.0146;
-109.5000;0.4021;-1.0196;
-109.2000;0.4070;-1.0171;
-108.9000;0.4054;-1.0245;
-108.6000;0.4094;-1.0196;
-108.3000;0.4111;-1.0196;
-108.0000;0.4021;-1.0394;
-107.7000;0.4054;-1.0295;
-107.4000;0.4037;-1.0369;
-107.1000;0.4054;-1.0344;
-106.8000;0.4054;-1.0319;
-106.5000;0.4062;-1.0295;
-106.2000;0.3972;-1.0567;
-105.9000;0.4054;-1.0295;
-105.6000;0.4029;-1.0394;
-105.3000;0.4054;-1.0319;
-105.0000;0.4037;-1.0295;
-104.7000;0.4103;-1.0097;
-104.4000;0.4062;-1.0146;
-104.1000;0.4054;-1.0220;
-103.8000;0.4062;-1.0121;
-103.5000;0.4070;-1.0097;
-103.2000;0.4037;-1.0245;
-102.9000;0.4054;-1.0245;
-102.6000;0.4046;-1.0146;
-102.3000;0.4062;-1.0121;
-102.0000;0.4062;-1.0047;
-101.7000;0.4094;-0.9973;
-101.4000;0.4078;-1.0121;
-101.1000;0.4070;-1.0097;
-100.8000;0.4086;-1.0047;
-100.5000;0.4070;-1.0047;
-100.2000;0.4086;-0.9973;
-99.9000;0.4143;-0.9948;
-99.6000;0.4037;-1.0121;
-99.3000;0.4070;-1.0072;
-99.0000;0.4062;-1.0171;
-98.7000;0.4062;-1.0196;
-98.4000;0.4062;-1.0270;
-98.1000;0.4070;-1.0270;
-97.8000;0.4054;-1.0220;
-97.5000;0.4054;-1.0196;
-97.2000;0.4062;-1.0295;
-96.9000;0.4086;-1.0146;
-96.6000;0.4054;-1.0121;
-96.3000;0.4143;-0.9849;
-96.0000;0.4070;-1.0121;
-95.7000;0.4013;-1.0295;
-95.4000;0.4054;-1.0270;
-95.1000;0.4054;-1.0295;
-94.8000;0.4054;-1.0295;
-94.5000;0.4037;-1.0319;
-94.2000;0.4078;-1.0270;
-93.9000;0.4062;-1.0245;
-93.6000;0.4103;-1.0097;
-93.3000;0.4054;-1.0270;
-93.0000;0.4037;-1.0270;
-92.7000;0.4046;-1.0220;
-92.4000;0.4029;-1.0295;
-92.1000;0.4054;-1.0270;
-91.8000;0.4046;-1.0319;
-91.5000;0.4029;-1.0295;
-91.2000;0.4062;-1.0295;
-90.9000;0.3972;-1.0567;
-90.6000;0.4021;-1.0394;
-90.3000;0.4078;-1.0245;
-90.0000;0.4037;-1.0319;
-89.7000;0.4119;-1.0270;
-89.4000;0.4046;-1.0418;
-89.1000;0.4062;-1.0344;
-88.8000;0.4054;-1.0245;
-88.5000;0.4070;-1.0295;
-88.2000;0.4046;-1.0245;
-87.9000;0.4046;-1.0171;
-87.6000;0.4094;-1.0047;
-87.3000;0.4046;-1.0072;
-87.0000;0.4029;-1.0121;
-86.7000;0.4037;-1.0220;
-86.4000;0.3956;-1.0394;
-86.1000;0.4054;-1.0022;
-85.8000;0.4046;-1.0047;
-85.5000;0.4070;-1.0022;
-85.2000;0.4054;-1.0121;
-84.9000;0.4062;-1.0072;
-84.6000;0.4054;-1.0097;
-84.3000;0.4054;-1.0121;
-84.0000;0.4054;-1.0146;
-83.7000;0.4046;-1.0196;
-83.4000;0.4054;-1.0121;
-83.1000;0.4046;-1.0171;
-82.8000;0.4094;-1.0121;
-82.5000;0.4046;-1.0245;
-82.2000;0.4062;-1.0196;
-81.9000;0.4037;-1.0220;
-81.6000;0.4062;-1.0196;
-81.3000;0.4062;-1.0097;
-81.0000;0.4070;-1.0146;
-80.7000;0.4070;-1.0171;
-80.4000;0.4062;-1.0146;
-80.1000;0.4086;-1.0072;
-79.8000;0.4046;-1.0220;
-79.5000;0.4054;-1.0270;
-79.2000;0.4078;-1.0245;
-78.9000;0.4046;-1.0295;
-78.6000;0.4062;-1.0319;
-78.3000;0.4046;-1.0394;
-78.0000;0.4029;-1.0344;
-77.7000;0.4111;-1.0121;
-77.4000;0.4070;-1.0171;
-77.1000;0.4078;-1.0146;
-76.8000;0.4054;-1.0146;
-76.5000;0.4037;-1.0196;
-76.2000;0.4062;-1.0146;
-75.9000;0.4062;-1.0220;
-75.6000;0.4062;-1.0196;
-75.3000;0.4037;-1.0220;
-75.0000;0.4070;-1.0072;
-74.7000;0.4046;-0.9998;
-74.4000;0.4046;-0.9973;
-74.1000;0.4046;-0.9948;
-73.8000;0.4054;-0.9948;
-73.5000;0.4037;-0.9998;
-73.2000;0.4062;-1.0047;
-72.9000;0.4046;-1.0121;
-72.6000;0.4070;-1.0146;
-72.3000;0.4029;-1.0196;
-72.0000;0.4103;-0.9973;
-71.7000;0.4046;-1.0072;
-71.4000;0.3989;-1.0146;
-71.1000;0.4062;-1.0047;
-70.8000;0.4037;-1.0121;
-70.5000;0.4062;-1.0171;
-70.2000;0.4054;-1.0196;
-69.9000;0.4054;-1.0344;
-69.6000;0.4046;-1.0369;
-69.3000;0.4086;-1.0220;
-69.0000;0.4078;-1.0146;
-68.7000;0.4062;-1.0196;
-68.4000;0.4046;-1.0245;
-68.1000;0.4054;-1.0196;
-67.8000;0.4062;-1.0146;
-67.5000;0.4078;-1.0121;
-67.2000;0.4005;-1.0270;
-66.9000;0.4062;-1.0146;
-66.6000;0.4062;-1.0072;
-66.3000;0.4054;-1.0171;
-66.0000;0.4168;-0.9899;
-65.7000;0.4070;-1.0146;
-65.4000;0.4062;-1.0121;
-65.1000;0.4078;-1.0097;
-64.8000;0.4070;-1.0072;
-64.5000;0.4086;-1.0072;
-64.2000;0.4111;-1.0072;
-63.9000;0.4062;-1.0295;
-63.6000;0.4021;-1.0443;
-63.3000;0.4168;-1.0047;
-63.0000;0.4054;-1.0344;
-62.7000;0.4037;-1.0344;
-62.4000;0.4062;-1.0220;
-62.1000;0.4062;-1.0220;
-61.8000;0.3997;-1.0517;
-61.5000;0.4046;-1.0344;
-61.2000;0.4086;-1.0319;
-60.9000;0.4046;-1.0270;
-60.6000;0.4062;-1.0196;
-60.3000;0.4070;-1.0245;
-60.0000;0.4054;-1.0270;
-59.7000;0.4046;-1.0319;
-59.4000;0.4070;-1.0319;
-59.1000;0.4078;-1.0270;
-58.8000;0.4086;-1.0196;
-58.5000;0.4046;-1.0319;
-58.2000;0.4078;-1.0196;
-57.9000;0.4078;-1.0220;
-57.6000;0.4062;-1.0245;
-57.3000;0.4070;-1.0171;
-57.0000;0.4046;-1.0146;
-56.7000;0.3989;-1.0344;
-56.4000;0.4062;-1.0072;
-56.1000;0.4037;-1.0097;
-55.8000;0.4094;-0.9998;
-55.5000;0.4070;-1.0121;
-55.2000;0.4046;-1.0121;
-54.9000;0.4054;-1.0146;
-54.6000;0.4062;-1.0146;
-54.3000;0.4070;-1.0097;
-54.0000;0.4062;-1.0171;
-53.7000;0.4070;-1.0121;
-53.4000;0.4062;-1.0220;
-53.1000;0.4070;-1.0171;
-52.8000;0.4054;-1.0245;
-52.5000;0.4054;-1.0245;
-52.2000;0.4062;-1.0121;
-51.9000;0.4078;-1.0171;
-51.6000;0.4054;-1.0146;
-51.3000;0.4062;-1.0146;
-51.0000;0.4062;-1.0220;
-50.7000;0.4021;-1.0344;
-50.4000;0.4086;-1.0245;
-50.1000;0.4029;-1.0319;
-49.8000;0.3997;-1.0394;
-49.5000;0.4062;-1.0245;
-49.2000;0.4054;-1.0369;
-48.9000;0.4070;-1.0369;
-48.6000;0.4086;-1.0319;
-48.3000;0.4111;-1.0047;
-48.0000;0.4062;-1.0295;
-47.7000;0.4046;-1.0319;
-47.4000;0.4005;-1.0493;
-47.1000;0.4037;-1.0468;
-46.8000;0.4054;-1.0468;
-46.5000;0.4054;-1.0517;
-46.2000;0.4029;-1.0542;
-45.9000;0.4054;-1.0369;
-45.6000;0.4062;-1.0295;
-45.3000;0.4103;-1.0121;
-45.0000;0.4070;-1.0319;
-44.7000;0.4103;-1.0344;
-44.4000;0.4070;-1.0443;
-44.1000;0.4046;-1.0443;
-43.8000;0.4062;-1.0319;
-43.5000;0.4054;-1.0369;
-43.2000;0.4054;-1.0443;
-42.9000;0.4046;-1.0394;
-42.6000;0.4070;-1.0245;
-42.3000;0.4054;-1.0270;
-42.0000;0.4037;-1.0295;
-41.7000;0.4062;-1.0220;
-41.4000;0.4062;-1.0245;
-41.1000;0.4062;-1.0245;
-40.8000;0.4054;-1.0319;
-40.5000;0.4062;-1.0245;
-40.2000;0.4054;-1.0245;
-39.9000;0.4119;-1.0245;
-39.6000;0.4062;-1.0443;
-39.3000;0.4078;-1.0418;
-39.0000;0.4054;-1.0443;
-38.7000;0.4054;-1.0418;
-38.4000;0.4070;-1.0418;
-38.1000;0.4094;-1.0369;
-37.8000;0.4062;-1.0369;
-37.5000;0.4070;-1.0418;
-37.2000;0.4054;-1.0443;
-36.9000;0.4054;-1.0344;
-36.6000;0.4078;-1.0295;
-36.3000;0.4062;-1.0220;
-36.0000;0.4070;-1.0121;
-35.7000;0.4037;-1.0171;
-35.4000;0.4037;-1.0072;
-35.1000;0.4062;-0.9998;
-34.8000;0.4062;-0.9973;
-34.5000;0.4054;-1.0047;
-34.2000;0.4070;-1.0022;
-33.9000;0.4046;-1.0097;
-33.6000;0.4078;-1.0022;
-33.3000;0.4054;-1.0146;
-33.0000;0.4070;-1.0121;
-32.7000;0.3964;-1.0394;
-32.4000;0.4037;-1.0146;
-32.1000;0.4046;-1.0245;
-31.8000;0.4046;-1.0344;
-31.5000;0.4046;-1.0418;
-31.2000;0.4070;-1.0394;
-30.9000;0.4103;-1.0319;
-30.6000;0.4046;-1.0517;
-30.3000;0.4062;-1.0443;
-30.0000;0.4037;-1.0468;
-29.7000;0.4054;-1.0344;
-29.4000;0.4046;-1.0270;
-29.1000;0.4054;-1.0171;
-28.8000;0.4046;-1.0245;
-28.5000;0.4046;-1.0196;
-28.2000;0.4062;-1.0097;
-27.9000;0.4062;-1.0171;
-27.6000;0.4070;-1.0146;
-27.3000;0.4054;-1.0270;
-27.0000;0.4054;-1.0196;
-26.7000;0.4094;-1.0047;
-26.4000;0.4062;-1.0097;
-26.1000;0.4070;-1.0047;
-25.8000;0.4037;-1.0171;
-25.5000;0.4037;-1.0319;
-25.2000;0.4046;-1.0394;
-24.9000;0.4062;-1.0319;
-24.6000;0.4046;-1.0245;
-24.3000;0.4029;-1.0295;
-24.0000;0.4046;-1.0245;
-23.7000;0.4054;-1.0295;
-23.4000;0.4078;-1.0196;
-23.1000;0.4037;-1.0319;
-22.8000;0.4054;-1.0220;
-22.5000;0.4029;-1.0270;
-22.2000;0.4054;-1.0121;
-21.9000;0.4070;-1.0097;
-21.6000;0.4054;-0.9998;
-21.3000;0.4070;-0.9948;
-21.0000;0.4151;-0.9750;
-20.7000;0.4062;-1.0097;
-20.4000;0.4062;-1.0072;
-20.1000;0.4135;-0.9973;
-19.8000;0.4054;-1.0171;
-19.5000;0.4054;-1.0319;
-19.2000;0.4054;-1.0245;
-18.9000;0.4021;-1.0344;
-18.6000;0.4070;-1.0171;
-18.3000;0.4086;-1.0022;
-18.0000;0.4062;-1.0047;
-17.7000;0.4062;-1.0022;
-17.4000;0.4070;-1.0146;
-17.1000;0.4046;-1.0171;
-16.8000;0.4143;-0.9923;
-16.5000;0.4070;-1.0047;
-16.2000;0.4070;-1.0121;
-15.9000;0.4054;-1.0171;
-15.6000;0.4062;-1.0220;
-15.3000;0.4062;-1.0196;
-15.0000;0.4054;-1.0171;
-14.7000;0.4070;-1.0171;
-14.4000;0.4062;-1.0171;
-14.1000;0.4005;-1.0220;
-13.8000;0.4054;-1.0072;
-13.5000;0.4037;-1.0121;
-13.2000;0.4062;-1.0121;
-12.9000;0.4062;-1.0196;
-12.6000;0.4054;-1.0196;
-12.3000;0.4054;-1.0245;
-12.0000;0.4005;-1.0369;
-11.7000;0.4062;-1.0146;
-11.4000;0.4054;-1.0196;
-11.1000;0.4054;-1.0220;
-10.8000;0.4021;-1.0418;
-10.5000;0.4062;-1.0295;
-10.2000;0.3989;-1.0443;
-9.9000;0.4054;-1.0394;
-9.6000;0.4046;-1.0418;
-9.3000;0.4046;-1.0319;
-9.0000;0.4062;-1.0319;
-8.7000;0.4086;-1.0319;
-8.4000;0.4054;-1.0295;
-8.1000;0.4070;-1.0245;
-7.8000;0.4070;-1.0220;
-7.5000;0.4029;-1.0319;
-7.2000;0.4046;-1.0344;
-6.9000;0.4046;-1.0220;
-6.6000;0.4037;-1.0171;
-6.3000;0.4021;-1.0097;
-6.0000;0.4046;-0.9973;
-5.7000;0.4046;-0.9899;
-5.4000;0.4070;-0.9849;
-5.1000;0.4037;-1.0022;
-4.8000;0.4046;-1.0022;
-4.5000;0.3989;-1.0270;
-4.2000;0.4037;-1.0196;
-3.9000;0.4037;-1.0171;
-3.6000;0.4046;-1.0171;
-3.3000;0.4070;-1.0146;
-3.0000;0.4078;-1.0171;
-2.7000;0.4046;-1.0171;
-2.4000;0.4005;-1.0270;
-2.1000;0.4013;-1.0270;
-1.8000;0.4054;-1.0097;
-1.5000;0.4037;-1.0220;
-1.2000;0.4037;-1.0171;
-0.9000;0.4046;-1.0146;
-0.6000;0.3980;-1.0319;
-0.3000;0.4054;-1.0171;
0.0000;0.4054;-1.0171;
0.3000;0.4330;-0.9998;
0.6000;0.4770;-0.9552;
0.9000;0.5161;-0.8909;
1.2000;0.5503;-0.8290;
1.5000;0.5714;-0.7845;
1.8000;0.5934;-0.7374;
2.1000;0.6081;-0.6954;
2.4000;0.6227;-0.6583;
2.7000;0.6284;-0.6409;
3.0000;0.6382;-0.6112;
3.3000;0.6455;-0.6013;
3.6000;0.6479;-0.6038;
3.9000;0.6545;-0.5791;
4.2000;0.6634;-0.5667;
4.5000;0.6626;-0.5791;
4.8000;0.6716;-0.5593;
5.1000;0.6691;-0.5667;
5.4000;0.6772;-0.5518;
5.7000;0.6764;-0.5568;
6.0000;0.6797;-0.5469;
6.3000;0.6854;-0.5395;
6.6000;0.6838;-0.5469;
6.9000;0.6878;-0.5395;
7.2000;0.6895;-0.5420;
7.5000;0.6919;-0.5444;
7.8000;0.6960;-0.5420;
8.1000;0.6976;-0.5420;
8.4000;0.6984;-0.5395;
8.7000;0.7009;-0.5296;
9.0000;0.6976;-0.5420;
9.3000;0.7033;-0.5321;
9.6000;0.7025;-0.5395;
9.9000;0.7057;-0.5420;
10.2000;0.7033;-0.5518;
10.5000;0.7041;-0.5518;
10.8000;0.7090;-0.5420;
11.1000;0.7114;-0.5370;
11.4000;0.7123;-0.5345;
11.7000;0.7139;-0.5395;
12.0000;0.7179;-0.5370;
12.3000;0.7196;-0.5345;
12.6000;0.7204;-0.5321;
12.9000;0.7220;-0.5246;
13.2000;0.7228;-0.5370;
13.5000;0.7228;-0.5395;
13.8000;0.7253;-0.5444;
14.1000;0.7261;-0.5444;
14.4000;0.7261;-0.5395;
14.7000;0.7285;-0.5469;
15.0000;0.7302;-0.5469;
15.3000;0.7318;-0.5568;
15.6000;0.7326;-0.5543;
15.9000;0.7432;-0.5321;
16.2000;0.7359;-0.5593;
16.5000;0.7383;-0.5518;
16.8000;0.7375;-0.5593;
17.1000;0.7391;-0.5642;
17.4000;0.7399;-0.5642;
17.7000;0.7399;-0.5642;
18.0000;0.7424;-0.5667;
18.3000;0.7407;-0.5716;
18.6000;0.7448;-0.5617;
18.9000;0.7448;-0.5617;
19.2000;0.7424;-0.5642;
19.5000;0.7440;-0.5667;
19.8000;0.7448;-0.5692;
20.1000;0.7481;-0.5692;
20.4000;0.7489;-0.5642;
20.7000;0.7481;-0.5716;
21.0000;0.7521;-0.5642;
21.3000;0.7521;-0.5766;
21.6000;0.7505;-0.5791;
21.9000;0.7530;-0.5741;
22.2000;0.7538;-0.5642;
22.5000;0.7570;-0.5642;
22.8000;0.7538;-0.5667;
23.1000;0.7570;-0.5568;
23.4000;0.7570;-0.5593;
23.7000;0.7554;-0.5617;
24.0000;0.7578;-0.5593;
24.3000;0.7554;-0.5692;
24.6000;0.7595;-0.5642;
24.9000;0.7554;-0.5815;
25.2000;0.7538;-0.5914;
25.5000;0.7627;-0.5642;
25.8000;0.7578;-0.5815;
26.1000;0.7627;-0.5692;
26.4000;0.7611;-0.5791;
26.7000;0.7635;-0.5840;
27.0000;0.7595;-0.5890;
27.3000;0.7668;-0.5865;
27.6000;0.7709;-0.5865;
27.9000;0.7684;-0.5939;
28.2000;0.7741;-0.5865;
28.5000;0.7717;-0.5964;
28.8000;0.7676;-0.6038;
29.1000;0.7660;-0.6038;
29.4000;0.7709;-0.5939;
29.7000;0.7725;-0.5964;
30.0000;0.7725;-0.5964;
30.3000;0.7725;-0.5939;
30.6000;0.7717;-0.6013;
30.9000;0.7733;-0.6038;
31.2000;0.7725;-0.6063;
31.5000;0.7782;-0.6013;
31.8000;0.7757;-0.6038;
32.1000;0.7749;-0.6063;
32.4000;0.7741;-0.6063;
32.7000;0.7757;-0.5964;
33.0000;0.7676;-0.6187;
33.3000;0.7782;-0.5964;
33.6000;0.7774;-0.5989;
33.9000;0.7766;-0.6063;
34.2000;0.7790;-0.6038;
34.5000;0.7806;-0.6013;
34.8000;0.7782;-0.6137;
35.1000;0.7806;-0.6162;
35.4000;0.7823;-0.6137;
35.7000;0.7798;-0.6236;
36.0000;0.7847;-0.6236;
36.3000;0.7831;-0.6310;
36.6000;0.7839;-0.6286;
36.9000;0.7839;-0.6310;
37.2000;0.7839;-0.6335;
37.5000;0.7847;-0.6385;
37.8000;0.7871;-0.6360;
38.1000;0.7888;-0.6236;
38.4000;0.7863;-0.6261;
38.7000;0.7896;-0.6187;
39.0000;0.7928;-0.6162;
39.3000;0.7863;-0.6360;
39.6000;0.7896;-0.6286;
39.9000;0.7871;-0.6286;
40.2000;0.7896;-0.6286;
40.5000;0.7920;-0.6310;
40.8000;0.7839;-0.6533;
41.1000;0.7985;-0.6310;
41.4000;0.7937;-0.6459;
41.7000;0.7912;-0.6508;
42.0000;0.7904;-0.6533;
42.3000;0.7928;-0.6434;
42.6000;0.7920;-0.6434;
42.9000;0.7945;-0.6360;
43.2000;0.7945;-0.6409;
43.5000;0.8018;-0.6236;
43.8000;0.7953;-0.6385;
44.1000;0.7969;-0.6434;
44.4000;0.7937;-0.6558;
44.7000;0.7977;-0.6409;
45.0000;0.7961;-0.6459;
45.3000;0.7937;-0.6558;
45.6000;0.7969;-0.6533;
45.9000;0.7985;-0.6533;
46.2000;0.7985;-0.6484;
46.5000;0.7993;-0.6607;
46.8000;0.8018;-0.6682;
47.1000;0.8010;-0.6607;
47.4000;0.8010;-0.6607;
47.7000;0.8010;-0.6583;
48.0000;0.8042;-0.6508;
48.3000;0.8034;-0.6558;
48.6000;0.8042;-0.6583;
48.9000;0.8042;-0.6583;
49.2000;0.8042;-0.6583;
49.5000;0.8059;-0.6583;
49.8000;0.8050;-0.6632;
50.1000;0.8042;-0.6632;
50.4000;0.8050;-0.6682;
50.7000;0.8099;-0.6558;
51.0000;0.8091;-0.6706;
51.3000;0.8091;-0.6781;
51.6000;0.8099;-0.6756;
51.9000;0.8124;-0.6583;
52.2000;0.8091;-0.6706;
52.5000;0.8124;-0.6607;
52.8000;0.8132;-0.6756;
53.1000;0.8197;-0.6657;
53.4000;0.8107;-0.6904;
53.7000;0.8132;-0.6880;
54.0000;0.8107;-0.6904;
54.3000;0.8197;-0.6805;
54.6000;0.8213;-0.6781;
54.9000;0.8164;-0.6904;
55.2000;0.8148;-0.6929;
55.5000;0.8148;-0.6929;
55.8000;0.8148;-0.6830;
56.1000;0.8148;-0.6830;
56.4000;0.8156;-0.6805;
56.7000;0.8181;-0.6781;
57.0000;0.8173;-0.6706;
57.3000;0.8181;-0.6731;
57.6000;0.8164;-0.6731;
57.9000;0.8189;-0.6657;
58.2000;0.8181;-0.6682;
58.5000;0.8205;-0.6706;
58.8000;0.8213;-0.6682;
59.1000;0.8213;-0.6682;
59.4000;0.8213;-0.6706;
59.7000;0.8230;-0.6657;
60.0000;0.8205;-0.6756;
60.3000;0.8230;-0.6781;
60.6000;0.8238;-0.6756;
60.9000;0.8254;-0.6756;
61.2000;0.8205;-0.6954;
61.5000;0.8254;-0.6954;
61.8000;0.8311;-0.6880;
62.1000;0.8262;-0.6929;
62.4000;0.8254;-0.6979;
62.7000;0.8278;-0.7003;
63.0000;0.8319;-0.6904;
63.3000;0.8287;-0.6954;
63.6000;0.8246;-0.7102;
63.9000;0.8278;-0.6979;
64.2000;0.8278;-0.6954;
64.5000;0.8246;-0.6979;
64.8000;0.8278;-0.7003;
65.1000;0.8238;-0.7078;
65.4000;0.8303;-0.6880;
65.7000;0.8311;-0.6929;
66.0000;0.8384;-0.6706;
66.3000;0.8319;-0.6979;
66.6000;0.8327;-0.7078;
66.9000;0.8327;-0.7152;
67.2000;0.8335;-0.7177;
67.5000;0.8303;-0.7177;
67.8000;0.8327;-0.7177;
68.1000;0.8311;-0.7276;
68.4000;0.8319;-0.7300;
68.7000;0.8335;-0.7276;
69.0000;0.8344;-0.7276;
69.3000;0.8360;-0.7201;
69.6000;0.8368;-0.7201;
69.9000;0.8376;-0.7201;
70.2000;0.8368;-0.7276;
70.5000;0.8384;-0.7276;
70.8000;0.8368;-0.7300;
71.1000;0.8384;-0.7251;
71.4000;0.8376;-0.7201;
71.7000;0.8344;-0.7251;
72.0000;0.8384;-0.7053;
72.3000;0.8417;-0.7003;
72.6000;0.8376;-0.7127;
72.9000;0.8392;-0.7102;
73.2000;0.8392;-0.7102;
73.5000;0.8417;-0.7003;
73.8000;0.8400;-0.7152;
74.1000;0.8409;-0.7102;
74.4000;0.8417;-0.7177;
74.7000;0.8441;-0.7152;
75.0000;0.8425;-0.7177;
75.3000;0.8433;-0.7201;
75.6000;0.8457;-0.7152;
75.9000;0.8441;-0.7276;
76.2000;0.8441;-0.7177;
76.5000;0.8433;-0.7226;
76.8000;0.8441;-0.7177;
77.1000;0.8563;-0.6880;
77.4000;0.8457;-0.7053;
77.7000;0.8433;-0.7152;
78.0000;0.8441;-0.7053;
78.3000;0.8449;-0.7028;
78.6000;0.8466;-0.7053;
78.9000;0.8498;-0.6979;
79.2000;0.8474;-0.7078;
79.5000;0.8474;-0.7127;
79.8000;0.8482;-0.7152;
80.1000;0.8482;-0.7226;
80.4000;0.8474;-0.7251;
80.7000;0.8482;-0.7300;
81.0000;0.8474;-0.7449;
81.3000;0.8539;-0.7424;
81.6000;0.8514;-0.7498;
81.9000;0.8490;-0.7548;
82.2000;0.8482;-0.7572;
82.5000;0.8498;-0.7572;
82.8000;0.8433;-0.7696;
83.1000;0.8482;-0.7498;
83.4000;0.8506;-0.7449;
83.7000;0.8498;-0.7374;
84.0000;0.8482;-0.7399;
84.3000;0.8514;-0.7350;
84.6000;0.8514;-0.7276;
84.9000;0.8514;-0.7276;
85.2000;0.8539;-0.7251;
85.5000;0.8523;-0.7276;
85.8000;0.8531;-0.7325;
86.1000;0.8523;-0.7300;
86.4000;0.8490;-0.7374;
86.7000;0.8531;-0.7350;
87.0000;0.8539;-0.7251;
87.3000;0.8563;-0.7201;
87.6000;0.8539;-0.7251;
87.9000;0.8539;-0.7251;
88.2000;0.8514;-0.7399;
88.5000;0.8547;-0.7300;
88.8000;0.8555;-0.7350;
89.1000;0.8571;-0.7399;
89.4000;0.8604;-0.7325;
89.7000;0.8563;-0.7449;
90.0000;0.8571;-0.7399;
90.3000;0.8580;-0.7473;
90.6000;0.8563;-0.7473;
90.9000;0.8571;-0.7473;
91.2000;0.8547;-0.7449;
91.5000;0.8539;-0.7449;
91.8000;0.8571;-0.7424;
92.1000;0.8596;-0.7399;
92.4000;0.8571;-0.7424;
92.7000;0.8580;-0.7498;
93.0000;0.8604;-0.7523;
93.3000;0.8580;-0.7721;
93.6000;0.8588;-0.7696;
93.9000;0.8506;-0.7944;
94.2000;0.8596;-0.7696;
94.5000;0.8596;-0.7721;
94.8000;0.8596;-0.7721;
95.1000;0.8580;-0.7746;
95.4000;0.8596;-0.7647;
95.7000;0.8596;-0.7671;
96.0000;0.8580;-0.7647;
96.3000;0.8563;-0.7696;
96.6000;0.8604;-0.7622;
96.9000;0.8596;-0.7622;
97.2000;0.8547;-0.7721;
97.5000;0.8588;-0.7597;
97.8000;0.8645;-0.7473;
98.1000;0.8604;-0.7523;
98.4000;0.8612;-0.7572;
98.7000;0.8596;-0.7572;
99.0000;0.8596;-0.7572;
99.3000;0.8539;-0.7845;
99.6000;0.8620;-0.7622;
99.9000;0.8604;-0.7671;
100.2000;0.8726;-0.7350;
100.5000;0.8637;-0.7498;
100.8000;0.8612;-0.7572;
101.1000;0.8628;-0.7597;
101.4000;0.8620;-0.7671;
101.7000;0.8637;-0.7696;
102.0000;0.8588;-0.7746;
102.3000;0.8604;-0.7671;
102.6000;0.8612;-0.7647;
102.9000;0.8677;-0.7399;
103.2000;0.8645;-0.7523;
103.5000;0.8637;-0.7597;
103.8000;0.8620;-0.7548;
104.1000;0.8645;-0.7498;
104.4000;0.8645;-0.7597;
104.7000;0.8653;-0.7622;
105.0000;0.8628;-0.7696;
105.3000;0.8645;-0.7597;
105.6000;0.8653;-0.7597;
105.9000;0.8653;-0.7473;
106.2000;0.8637;-0.7473;
106.5000;0.8637;-0.7548;
106.8000;0.8661;-0.7374;
107.1000;0.8694;-0.7300;
107.4000;0.8596;-0.7449;
107.7000;0.8645;-0.7350;
108.0000;0.8653;-0.7300;
108.3000;0.8653;-0.7399;
108.6000;0.8661;-0.7473;
108.9000;0.8661;-0.7498;
109.2000;0.8653;-0.7523;
109.5000;0.8637;-0.7572;
109.8000;0.8669;-0.7597;
110.1000;0.8653;-0.7647;
110.4000;0.8628;-0.7671;
110.7000;0.8694;-0.7449;
111.0000;0.8661;-0.7548;
111.3000;0.8661;-0.7498;
111.6000;0.8759;-0.7276;
111.9000;0.8661;-0.7548;
112.2000;0.8702;-0.7498;
112.5000;0.8669;-0.7548;
112.8000;0.8669;-0.7523;
113.1000;0.8677;-0.7498;
113.4000;0.8628;-0.7597;
113.7000;0.8645;-0.7572;
114.0000;0.8685;-0.7498;
114.3000;0.8661;-0.7548;
114.6000;0.8685;-0.7449;
114.9000;0.8669;-0.7399;
115.2000;0.8669;-0.7350;
115.5000;0.8702;-0.7350;
115.8000;0.8677;-0.7350;
116.1000;0.8661;-0.7449;
116.4000;0.8661;-0.7449;
116.7000;0.8604;-0.7597;
117.0000;0.8685;-0.7449;
117.3000;0.8669;-0.7572;
117.6000;0.8677;-0.7647;
117.9000;0.8669;-0.7523;
118.2000;0.8685;-0.7498;
118.5000;0.8710;-0.7548;
118.8000;0.8677;-0.7746;
119.1000;0.8677;-0.7721;
119.4000;0.8669;-0.7696;
119.7000;0.8661;-0.7770;
120.0000;0.8677;-0.7770;
120.3000;0.8702;-0.7696;
120.6000;0.8612;-0.7869;
120.9000;0.8694;-0.7622;
121.2000;0.8791;-0.7399;
121.5000;0.8685;-0.7647;
121.8000;0.8710;-0.7572;
122.1000;0.8653;-0.7671;
122.4000;0.8677;-0.7597;
122.7000;0.8685;-0.7622;
123.0000;0.8669;-0.7622;
123.3000;0.8669;-0.7548;
123.6000;0.8677;-0.7523;
123.9000;0.8669;-0.7498;
124.2000;0.8669;-0.7424;
124.5000;0.8669;-0.7399;
124.8000;0.8677;-0.7399;
125.1000;0.8677;-0.7424;
125.4000;0.8669;-0.7523;
125.7000;0.8694;-0.7572;
126.0000;0.8685;-0.7498;
126.3000;0.8710;-0.7449;
126.6000;0.8677;-0.7399;
126.9000;0.8718;-0.7424;
127.2000;0.8710;-0.7523;
127.5000;0.8702;-0.7473;
127.8000;0.8669;-0.7597;
128.1000;0.8612;-0.7696;
128.4000;0.8751;-0.7424;
128.7000;0.8702;-0.7696;
129.0000;0.8685;-0.7746;
129.3000;0.8685;-0.7795;
129.6000;0.8669;-0.7869;
129.9000;0.8685;-0.7795;
130.2000;0.8661;-0.7746;
130.5000;0.8718;-0.7548;
130.8000;0.8628;-0.7770;
131.1000;0.8694;-0.7647;
131.4000;0.8702;-0.7548;
131.7000;0.8694;-0.7597;
132.0000;0.8767;-0.7350;
132.3000;0.8710;-0.7374;
132.6000;0.8702;-0.7374;
132.9000;0.8685;-0.7424;
133.2000;0.8694;-0.7399;
133.5000;0.8734;-0.7374;
133.8000;0.8694;-0.7473;
134.1000;0.8694;-0.7473;
134.4000;0.8694;-0.7523;
134.7000;0.8677;-0.7523;
135.0000;0.8694;-0.7523;
135.3000;0.8710;-0.7572;
135.6000;0.8677;-0.7647;
135.9000;0.8677;-0.7572;
136.2000;0.8702;-0.7473;
136.5000;0.8653;-0.7498;
136.8000;0.8791;-0.7276;
137.1000;0.8685;-0.7523;
137.4000;0.8702;-0.7523;
137.7000;0.8702;-0.7523;
138.0000;0.8677;-0.7622;
138.3000;0.8685;-0.7721;
138.6000;0.8694;-0.7696;
138.9000;0.8694;-0.7597;
139.2000;0.8718;-0.7523;
139.5000;0.8767;-0.7449;
139.8000;0.8710;-0.7721;
140.1000;0.8694;-0.7721;
140.4000;0.8710;-0.7647;
140.7000;0.8702;-0.7671;
141.0000;0.8718;-0.7622;
141.3000;0.8685;-0.7671;
141.6000;0.8677;-0.7696;
141.9000;0.8685;-0.7696;
142.2000;0.8710;-0.7696;
142.5000;0.8677;-0.7721;
142.8000;0.8702;-0.7671;
143.1000;0.8685;-0.7647;
143.4000;0.8694;-0.7671;
143.7000;0.8702;-0.7622;
144.0000;0.8791;-0.7325;
144.3000;0.8685;-0.7548;
144.6000;0.8669;-0.7671;
144.9000;0.8685;-0.7647;
145.2000;0.8637;-0.7746;
145.5000;0.8702;-0.7597;
145.8000;0.8669;-0.7696;
146.1000;0.8694;-0.7696;
146.4000;0.8718;-0.7597;
146.7000;0.8702;-0.7696;
147.0000;0.8726;-0.7622;
147.3000;0.8718;-0.7548;
147.6000;0.8718;-0.7647;
147.9000;0.8685;-0.7721;
148.2000;0.8710;-0.7820;
148.5000;0.8694;-0.7869;
148.8000;0.8718;-0.7746;
149.1000;0.8694;-0.7721;
149.4000;0.8685;-0.7671;
149.7000;0.8694;-0.7671;
150.0000;0.8685;-0.7622;
150.3000;0.8702;-0.7671;
150.6000;0.8694;-0.7671;
150.9000;0.8677;-0.7671;
151.2000;0.8677;-0.7597;
151.5000;0.8669;-0.7572;
151.8000;0.8710;-0.7473;
152.1000;0.8685;-0.7473;
152.4000;0.8677;-0.7498;
152.7000;0.8694;-0.7399;
153.0000;0.8685;-0.7399;
153.3000;0.8677;-0.7350;
153.6000;0.8645;-0.7473;
153.9000;0.8685;-0.7424;
154.2000;0.8742;-0.7276;
154.5000;0.8710;-0.7399;
154.8000;0.8694;-0.7548;
155.1000;0.8685;-0.7572;
155.4000;0.8669;-0.7597;
155.7000;0.8685;-0.7572;
156.0000;0.8669;-0.7721;
156.3000;0.8694;-0.7548;
156.6000;0.8653;-0.7671;
156.9000;0.8677;-0.7622;
157.2000;0.8694;-0.7647;
157.5000;0.8734;-0.7622;
157.8000;0.8702;-0.7721;
158.1000;0.8694;-0.7696;
158.4000;0.8677;-0.7770;
158.7000;0.8694;-0.7820;
159.0000;0.8661;-0.7869;
159.3000;0.8710;-0.7721;
159.6000;0.8702;-0.7721;
159.9000;0.8653;-0.7795;
160.2000;0.8694;-0.7647;
160.5000;0.8718;-0.7523;
160.8000;0.8694;-0.7622;
161.1000;0.8710;-0.7572;
161.4000;0.8677;-0.7473;
161.7000;0.8694;-0.7424;
162.0000;0.8677;-0.7449;
162.3000;0.8677;-0.7473;
162.6000;0.8702;-0.7424;
162.9000;0.8710;-0.7523;
163.2000;0.8734;-0.7473;
163.5000;0.8718;-0.7374;
163.8000;0.8694;-0.7449;
164.1000;0.8677;-0.7424;
164.4000;0.8710;-0.7350;
164.7000;0.8669;-0.7424;
165.0000;0.8628;-0.7498;
165.3000;0.8685;-0.7399;
165.6000;0.8685;-0.7325;
165.9000;0.8694;-0.7300;
166.2000;0.8661;-0.7350;
166.5000;0.8685;-0.7374;
166.8000;0.8677;-0.7350;
167.1000;0.8702;-0.7374;
167.4000;0.8685;-0.7276;
167.7000;0.8685;-0.7325;
168.0000;0.8694;-0.7374;
168.3000;0.8685;-0.7473;
168.6000;0.8685;-0.7498;
168.9000;0.8645;-0.7622;
169.2000;0.8645;-0.7622;
169.5000;0.8702;-0.7473;
169.8000;0.8669;-0.7473;
170.1000;0.8685;-0.7399;
170.4000;0.8677;-0.7374;
170.7000;0.8726;-0.7276;
171.0000;0.8669;-0.7374;
171.3000;0.8685;-0.7374;
171.6000;0.8677;-0.7399;
171.9000;0.8759;-0.7251;
172.2000;0.8694;-0.7350;
172.5000;0.8677;-0.7350;
172.8000;0.8669;-0.7449;
173.1000;0.8669;-0.7449;
173.4000;0.8661;-0.7449;
173.7000;0.8669;-0.7473;
174.0000;0.8694;-0.7399;
174.3000;0.8669;-0.7449;
174.6000;0.8677;-0.7498;
174.9000;0.8661;-0.7523;
175.2000;0.8702;-0.7424;
175.5000;0.8620;-0.7647;
175.8000;0.8677;-0.7473;
176.1000;0.8661;-0.7424;
176.4000;0.8685;-0.7374;
176.7000;0.8669;-0.7473;
177.0000;0.8669;-0.7449;
177.3000;0.8677;-0.7548;
177.6000;0.8604;-0.7696;
177.9000;0.8677;-0.7473;
178.2000;0.8620;-0.7647;
178.5000;0.8685;-0.7572;
178.8000;0.8677;-0.7572;
179.1000;0.8669;-0.7597;
179.4000;0.8694;-0.7622;
179.7000;0.8685;-0.7647;
180.0000;0.8685;-0.7622;
180.3000;0.8685;-0.7572;
180.6000;0.8645;-0.7647;
180.9000;0.8669;-0.7622;
181.2000;0.8669;-0.7597;
181.5000;0.8620;-0.7746;
181.8000;0.8669;-0.7622;
182.1000;0.8685;-0.7572;
182.4000;0.8677;-0.7548;
182.7000;0.8669;-0.7597;
183.0000;0.8661;-0.7622;
183.3000;0.8677;-0.7523;
183.6000;0.8685;-0.7523;
183.9000;0.8669;-0.7622;
184.2000;0.8669;-0.7647;
184.5000;0.8783;-0.7374;
184.8000;0.8653;-0.7671;
185.1000;0.8677;-0.7572;
185.4000;0.8661;-0.7548;
185.7000;0.8661;-0.7548;
186.0000;0.8694;-0.7449;
186.3000;0.8710;-0.7399;
186.6000;0.8669;-0.7498;
186.9000;0.8677;-0.7449;
187.2000;0.8669;-0.7424;
187.5000;0.8661;-0.7548;
187.8000;0.8685;-0.7449;
188.1000;0.8645;-0.7572;
188.4000;0.8661;-0.7498;
188.7000;0.8653;-0.7399;
189.0000;0.8669;-0.7374;
189.3000;0.8677;-0.7399;
189.6000;0.8653;-0.7498;
189.9000;0.8653;-0.7523;
190.2000;0.8653;-0.7449;
190.5000;0.8653;-0.7498;
190.8000;0.8718;-0.7399;
191.1000;0.8637;-0.7572;
191.4000;0.8661;-0.7523;
191.7000;0.8669;-0.7523;
192.0000;0.8653;-0.7597;
192.3000;0.8669;-0.7548;
192.6000;0.8677;-0.7548;
192.9000;0.8685;-0.7498;
193.2000;0.8645;-0.7572;
193.5000;0.8637;-0.7523;
193.8000;0.8694;-0.7374;
194.1000;0.8604;-0.7647;
194.4000;0.8653;-0.7622;
194.7000;0.8628;-0.7597;
195.0000;0.8645;-0.7671;
195.3000;0.8653;-0.7721;
195.6000;0.8645;-0.7671;
195.9000;0.8661;-0.7548;
196.2000;0.8653;-0.7523;
196.5000;0.8661;-0.7572;
196.8000;0.8702;-0.7498;
197.1000;0.8653;-0.7671;
197.4000;0.8637;-0.7746;
197.7000;0.8653;-0.7647;
198.0000;0.8612;-0.7746;
198.3000;0.8645;-0.7721;
198.6000;0.8685;-0.7647;
198.9000;0.8669;-0.7622;
199.2000;0.8694;-0.7473;
199.5000;0.8677;-0.7498;
199.8000;0.8653;-0.7597;
200.1000;0.8645;-0.7671;
200.4000;0.8645;-0.7671;
200.7000;0.8645;-0.7696;
201.0000;0.8637;-0.7622;
201.3000;0.8669;-0.7548;
201.6000;0.8604;-0.7696;
201.9000;0.8645;-0.7548;
202.2000;0.8645;-0.7548;
202.5000;0.8661;-0.7449;
202.8000;0.8645;-0.7424;
203.1000;0.8653;-0.7374;
203.4000;0.8637;-0.7424;
203.7000;0.8661;-0.7399;
204.0000;0.8669;-0.7350;
204.3000;0.8661;-0.7374;
204.6000;0.8645;-0.7399;
204.9000;0.8653;-0.7523;
205.2000;0.8685;-0.7597;
205.5000;0.8653;-0.7721;
205.8000;0.8661;-0.7597;
206.1000;0.8645;-0.7721;
206.4000;0.8661;-0.7647;
206.7000;0.8661;-0.7597;
207.0000;0.8637;-0.7572;
207.3000;0.8645;-0.7572;
207.6000;0.8645;-0.7473;
207.9000;0.8637;-0.7548;
208.2000;0.8637;-0.7647;
208.5000;0.8653;-0.7671;
208.8000;0.8669;-0.7572;
209.1000;0.8685;-0.7523;
209.4000;0.8669;-0.7473;
209.7000;0.8580;-0.7622;
210.0000;0.8661;-0.7498;
210.3000;0.8653;-0.7523;
210.6000;0.8669;-0.7523;
210.9000;0.8645;-0.7523;
211.2000;0.8628;-0.7498;
211.5000;0.8645;-0.7473;
211.8000;0.8637;-0.7572;
212.1000;0.8596;-0.7770;
212.4000;0.8637;-0.7746;
212.7000;0.8620;-0.7820;
213.0000;0.8677;-0.7572;
213.3000;0.8653;-0.7622;
213.6000;0.8645;-0.7647;
213.9000;0.8645;-0.7647;
214.2000;0.8628;-0.7671;
214.5000;0.8628;-0.7721;
214.8000;0.8645;-0.7671;
215.1000;0.8677;-0.7671;
215.4000;0.8645;-0.7721;
215.7000;0.8612;-0.7696;
216.0000;0.8628;-0.7622;
216.3000;0.8661;-0.7548;
216.6000;0.8637;-0.7548;
216.9000;0.8637;-0.7597;
217.2000;0.8612;-0.7671;
217.5000;0.8661;-0.7622;
217.8000;0.8645;-0.7597;
218.1000;0.8669;-0.7449;
218.4000;0.8628;-0.7473;
218.7000;0.8604;-0.7548;
219.0000;0.8628;-0.7473;
219.3000;0.8628;-0.7374;
219.6000;0.8612;-0.7374;
219.9000;0.8645;-0.7325;
220.2000;0.8628;-0.7350;
220.5000;0.8637;-0.7350;
220.8000;0.8653;-0.7251;
221.1000;0.8588;-0.7498;
221.4000;0.8685;-0.7300;
221.7000;0.8653;-0.7325;
222.0000;0.8653;-0.7276;
222.3000;0.8620;-0.7251;
222.6000;0.8612;-0.7201;
222.9000;0.8637;-0.7251;
223.2000;0.8628;-0.7251;
223.5000;0.8628;-0.7300;
223.8000;0.8637;-0.7350;
224.1000;0.8628;-0.7424;
224.4000;0.8628;-0.7449;
224.7000;0.8637;-0.7374;
225.0000;0.8628;-0.7424;
225.3000;0.8620;-0.7276;
225.6000;0.8628;-0.7300;
225.9000;0.8620;-0.7325;
226.2000;0.8653;-0.7300;
226.5000;0.8612;-0.7449;
226.8000;0.8628;-0.7449;
227.1000;0.8637;-0.7399;
227.4000;0.8628;-0.7523;
227.7000;0.8637;-0.7597;
228.0000;0.8628;-0.7597;
228.3000;0.8628;-0.7622;
228.6000;0.8620;-0.7671;
228.9000;0.8628;-0.7671;
229.2000;0.8620;-0.7597;
229.5000;0.8637;-0.7572;
229.8000;0.8604;-0.7647;
230.1000;0.8604;-0.7572;
230.4000;0.8612;-0.7647;
230.7000;0.8612;-0.7647;
231.0000;0.8612;-0.7671;
231.3000;0.8580;-0.7671;
231.6000;0.8604;-0.7647;
231.9000;0.8612;-0.7647;
232.2000;0.8628;-0.7572;
232.5000;0.8547;-0.7795;
232.8000;0.8596;-0.7696;
233.1000;0.8596;-0.7622;
233.4000;0.8620;-0.7548;
233.7000;0.8628;-0.7622;
234.0000;0.8620;-0.7548;
234.3000;0.8677;-0.7424;
234.6000;0.8645;-0.7399;
234.9000;0.8620;-0.7498;
235.2000;0.8628;-0.7424;
235.5000;0.8620;-0.7498;
235.8000;0.8661;-0.7374;
236.1000;0.8539;-0.7671;
236.4000;0.8612;-0.7523;
236.7000;0.8604;-0.7572;
237.0000;0.8612;-0.7572;
237.3000;0.8555;-0.7746;
237.6000;0.8661;-0.7473;
237.9000;0.8612;-0.7449;
238.2000;0.8620;-0.7325;
238.5000;0.8637;-0.7251;
238.8000;0.8637;-0.7276;
239.1000;0.8637;-0.7300;
239.4000;0.8620;-0.7374;
239.7000;0.8637;-0.7300;
240.0000;0.8612;-0.7374;
240.3000;0.8612;-0.7374;
240.6000;0.8620;-0.7350;
240.9000;0.8620;-0.7325;
241.2000;0.8580;-0.7424;
241.5000;0.8604;-0.7424;
241.8000;0.8596;-0.7374;
242.1000;0.8596;-0.7350;
242.4000;0.8620;-0.7449;
242.7000;0.8596;-0.7498;
243.0000;0.8604;-0.7523;
243.3000;0.8596;-0.7597;
243.6000;0.8628;-0.7548;
243.9000;0.8604;-0.7523;
244.2000;0.8604;-0.7498;
244.5000;0.8620;-0.7449;
244.8000;0.8604;-0.7424;
245.1000;0.8628;-0.7424;
245.4000;0.8596;-0.7548;
245.7000;0.8604;-0.7548;
246.0000;0.8612;-0.7572;
246.3000;0.8588;-0.7523;
246.6000;0.8588;-0.7473;
246.9000;0.8596;-0.7424;
247.2000;0.8612;-0.7325;
247.5000;0.8604;-0.7325;
247.8000;0.8612;-0.7276;
248.1000;0.8604;-0.7350;
248.4000;0.8580;-0.7399;
248.7000;0.8588;-0.7325;
249.0000;0.8596;-0.7251;
249.3000;0.8596;-0.7276;
249.6000;0.8604;-0.7251;
249.9000;0.8604;-0.7276;
250.2000;0.8506;-0.7523;
250.5000;0.8628;-0.7226;
250.8000;0.8685;-0.7053;
251.1000;0.8596;-0.7300;
251.4000;0.8604;-0.7350;
251.7000;0.8555;-0.7548;
252.0000;0.8571;-0.7498;
252.3000;0.8596;-0.7399;
252.6000;0.8661;-0.7251;
252.9000;0.8555;-0.7523;
253.2000;0.8612;-0.7300;
253.5000;0.8612;-0.7226;
253.8000;0.8620;-0.7201;
254.1000;0.8596;-0.7300;
254.4000;0.8628;-0.7276;
254.7000;0.8588;-0.7350;
255.0000;0.8596;-0.7374;
255.3000;0.8702;-0.7053;
255.6000;0.8596;-0.7350;
255.9000;0.8612;-0.7350;
256.2000;0.8555;-0.7374;
256.5000;0.8596;-0.7276;
256.8000;0.8596;-0.7300;
257.1000;0.8555;-0.7399;
257.4000;0.8596;-0.7300;
257.7000;0.8628;-0.7251;
258.0000;0.8588;-0.7374;
258.3000;0.8588;-0.7300;
258.6000;0.8588;-0.7325;
258.9000;0.8604;-0.7276;
259.2000;0.8563;-0.7276;
259.5000;0.8604;-0.7152;
259.8000;0.8604;-0.7127;
260.1000;0.8612;-0.7078;
260.4000;0.8596;-0.7177;
260.7000;0.8571;-0.7300;
261.0000;0.8580;-0.7350;
261.3000;0.8563;-0.7350;
261.6000;0.8498;-0.7498;
261.9000;0.8661;-0.7127;
262.2000;0.8596;-0.7251;
262.5000;0.8580;-0.7251;
262.8000;0.8531;-0.7424;
263.1000;0.8612;-0.7201;
263.4000;0.8580;-0.7251;
263.7000;0.8563;-0.7177;
264.0000;0.8628;-0.7003;
264.3000;0.8580;-0.7177;
264.6000;0.8580;-0.7177;
264.9000;0.8685;-0.6805;
265.2000;0.8580;-0.6979;
265.5000;0.8580;-0.6904;
265.8000;0.8588;-0.6904;
266.1000;0.8588;-0.6904;
266.4000;0.8588;-0.6904;
266.7000;0.8580;-0.7028;
267.0000;0.8563;-0.7102;
267.3000;0.8555;-0.7177;
267.6000;0.8596;-0.7053;
267.9000;0.8596;-0.7053;
268.2000;0.8669;-0.6855;
268.5000;0.8580;-0.7127;
268.8000;0.8604;-0.7127;
269.1000;0.8588;-0.7177;
269.4000;0.8563;-0.7177;
269.7000;0.8571;-0.7127;
270.0000;0.8571;-0.7152;
270.3000;0.8588;-0.7102;
270.6000;0.8580;-0.7201;
270.9000;0.8596;-0.7127;
271.2000;0.8571;-0.7177;
271.5000;0.8596;-0.7201;
271.8000;0.8563;-0.7251;
272.1000;0.8571;-0.7251;
272.4000;0.8571;-0.7276;
272.7000;0.8571;-0.7251;
273.0000;0.8547;-0.7374;
273.3000;0.8588;-0.7300;
273.6000;0.8563;-0.7325;
273.9000;0.8571;-0.7374;
274.2000;0.8694;-0.7053;
274.5000;0.8653;-0.7078;
274.8000;0.8620;-0.7226;
275.1000;0.8555;-0.7374;
275.4000;0.8580;-0.7399;
275.7000;0.8580;-0.7374;
276.0000;0.8555;-0.7350;
276.3000;0.8596;-0.7226;
276.6000;0.8555;-0.7350;
276.9000;0.8612;-0.7226;
277.2000;0.8580;-0.7325;
277.5000;0.8604;-0.7300;
277.8000;0.8571;-0.7374;
278.1000;0.8571;-0.7399;
278.4000;0.8571;-0.7325;
278.7000;0.8571;-0.7276;
279.0000;0.8580;-0.7251;
279.3000;0.8669;-0.7053;
279.6000;0.8563;-0.7276;
279.9000;0.8612;-0.7251;
280.2000;0.8563;-0.7276;
280.5000;0.8571;-0.7325;
280.8000;0.8580;-0.7350;
281.1000;0.8604;-0.7325;
281.4000;0.8555;-0.7449;
281.7000;0.8580;-0.7399;
282.0000;0.8604;-0.7374;
282.3000;0.8547;-0.7473;
282.6000;0.8555;-0.7424;
282.9000;0.8547;-0.7424;
283.2000;0.8563;-0.7399;
283.5000;0.8571;-0.7424;
283.8000;0.8563;-0.7374;
284.1000;0.8588;-0.7325;
284.4000;0.8555;-0.7374;
284.7000;0.8588;-0.7350;
285.0000;0.8588;-0.7276;
285.3000;0.8580;-0.7350;
285.6000;0.8563;-0.7300;
285.9000;0.8580;-0.7226;
286.2000;0.8531;-0.7350;
286.5000;0.8571;-0.7325;
286.8000;0.8539;-0.7399;
287.1000;0.8563;-0.7325;
287.4000;0.8571;-0.7350;
287.7000;0.8563;-0.7399;
288.0000;0.8571;-0.7325;
288.3000;0.8547;-0.7300;
288.6000;0.8555;-0.7350;
288.9000;0.8539;-0.7350;
289.2000;0.8547;-0.7276;
289.5000;0.8555;-0.7177;
289.8000;0.8571;-0.7127;
290.1000;0.8555;-0.7127;
290.4000;0.8588;-0.7078;
290.7000;0.8596;-0.7078;
291.0000;0.8580;-0.7127;
291.3000;0.8563;-0.7127;
291.6000;0.8514;-0.7078;
291.9000;0.8571;-0.6855;
292.2000;0.8604;-0.6855;
292.5000;0.8555;-0.6954;
292.8000;0.8563;-0.6880;
293.1000;0.8563;-0.6954;
293.4000;0.8571;-0.7003;
293.7000;0.8571;-0.7003;
294.0000;0.8547;-0.7078;
294.3000;0.8612;-0.6954;
294.6000;0.8571;-0.7053;
294.9000;0.8555;-0.7053;
295.2000;0.8547;-0.7028;
295.5000;0.8555;-0.7028;
295.8000;0.8571;-0.6954;
296.1000;0.8555;-0.7003;
296.4000;0.8547;-0.7053;
296.7000;0.8563;-0.7028;
297.0000;0.8563;-0.7053;
297.3000;0.8555;-0.7177;
297.6000;0.8563;-0.7102;
297.9000;0.8531;-0.7102;
298.2000;0.8547;-0.7053;
298.5000;0.8555;-0.7028;
298.8000;0.8588;-0.7003;
299.1000;0.8547;-0.7127;
299.4000;0.8539;-0.7102;
299.7000;0.8571;-0.7078;
300.0000;0.8539;-0.7127;
300.3000;0.8580;-0.7028;
300.6000;0.8547;-0.7127;
300.9000;0.8563;-0.7078;
301.2000;0.8555;-0.7127;
301.5000;0.8498;-0.7251;
301.8000;0.8547;-0.7226;
302.1000;0.8620;-0.7078;
302.4000;0.8539;-0.7251;
302.7000;0.8571;-0.7152;
303.0000;0.8580;-0.7152;
303.3000;0.8547;-0.7201;
303.6000;0.8539;-0.7152;
303.9000;0.8539;-0.7102;
304.2000;0.8620;-0.6880;
304.5000;0.8547;-0.7053;
304.8000;0.8547;-0.7053;
305.1000;0.8571;-0.7028;
305.4000;0.8539;-0.7028;
305.7000;0.8531;-0.7003;
306.0000;0.8555;-0.6904;
306.3000;0.8523;-0.6904;
306.6000;0.8547;-0.6979;
306.9000;0.8523;-0.7028;
307.2000;0.8596;-0.6954;
307.5000;0.8547;-0.7102;
307.8000;0.8514;-0.7251;
308.1000;0.8645;-0.6929;
308.4000;0.8547;-0.7226;
308.7000;0.8563;-0.7152;
309.0000;0.8555;-0.7127;
309.3000;0.8571;-0.7028;
309.6000;0.8555;-0.7003;
309.9000;0.8555;-0.6929;
310.2000;0.8588;-0.6904;
310.5000;0.8531;-0.7127;
310.8000;0.8523;-0.7226;
311.1000;0.8547;-0.7276;
311.4000;0.8539;-0.7325;
311.7000;0.8539;-0.7251;
312.0000;0.8547;-0.7127;
312.3000;0.8547;-0.7028;
312.6000;0.8547;-0.6954;
312.9000;0.8555;-0.6929;
313.2000;0.8514;-0.7078;
313.5000;0.8523;-0.7028;
313.8000;0.8539;-0.6904;
314.1000;0.8547;-0.6880;
314.4000;0.8555;-0.6781;
314.7000;0.8547;-0.6805;
315.0000;0.8539;-0.6880;
315.3000;0.8580;-0.6830;
315.6000;0.8539;-0.6929;
315.9000;0.8523;-0.7003;
316.2000;0.8539;-0.6954;
316.5000;0.8547;-0.7003;
316.8000;0.8523;-0.7003;
317.1000;0.8539;-0.6954;
317.4000;0.8571;-0.6904;
317.7000;0.8531;-0.6979;
318.0000;0.8498;-0.7028;
318.3000;0.8547;-0.6929;
318.6000;0.8531;-0.6929;
318.9000;0.8539;-0.6855;
319.2000;0.8531;-0.6805;
319.5000;0.8523;-0.6781;
319.8000;0.8531;-0.6805;
320.1000;0.8547;-0.6781;
320.4000;0.8547;-0.6830;
320.7000;0.8514;-0.6979;
321.0000;0.8547;-0.7053;
321.3000;0.8539;-0.7078;
321.6000;0.8563;-0.7127;
321.9000;0.8547;-0.7003;
322.2000;0.8539;-0.6979;
322.5000;0.8539;-0.7053;
322.8000;0.8531;-0.7053;
323.1000;0.8523;-0.7053;
323.4000;0.8514;-0.7201;
323.7000;0.8466;-0.7251;
324.0000;0.8539;-0.7053;
324.3000;0.8531;-0.7028;
324.6000;0.8457;-0.7152;
324.9000;0.8498;-0.7053;
325.2000;0.8506;-0.7102;
325.5000;0.8531;-0.7028;
325.8000;0.8490;-0.7053;
326.1000;0.8514;-0.7127;
326.4000;0.8531;-0.7053;
326.7000;0.8531;-0.6979;
327.0000;0.8620;-0.6756;
327.3000;0.8531;-0.6979;
327.6000;0.8523;-0.7003;
327.9000;0.8539;-0.7003;
328.2000;0.8523;-0.7102;
328.5000;0.8531;-0.7078;
328.8000;0.8506;-0.7152;
329.1000;0.8563;-0.7003;
329.4000;0.8531;-0.7102;
329.7000;0.8506;-0.7127;
330.0000;0.8523;-0.7102;
330.3000;0.8506;-0.7177;
330.6000;0.8506;-0.7152;
330.9000;0.8514;-0.7053;
331.2000;0.8506;-0.7078;
331.5000;0.8531;-0.7053;
331.8000;0.8523;-0.7078;
332.1000;0.8506;-0.7152;
332.4000;0.8514;-0.7053;
332.7000;0.8490;-0.7078;
333.0000;0.8612;-0.6781;
333.3000;0.8514;-0.7078;
333.6000;0.8514;-0.7152;
333.9000;0.8531;-0.7028;
334.2000;0.8555;-0.6904;
334.5000;0.8506;-0.6929;
334.8000;0.8539;-0.6855;
335.1000;0.8531;-0.6855;
335.4000;0.8514;-0.6954;
335.7000;0.8523;-0.6979;
336.0000;0.8531;-0.7003;
336.3000;0.8523;-0.7053;
336.6000;0.8506;-0.7102;
336.9000;0.8531;-0.7053;
337.2000;0.8514;-0.7028;
337.5000;0.8514;-0.7028;
337.8000;0.8506;-0.6954;
338.1000;0.8506;-0.6929;
338.4000;0.8498;-0.6954;
338.7000;0.8498;-0.6979;
339.0000;0.8498;-0.7028;
339.3000;0.8498;-0.6904;
339.6000;0.8482;-0.6954;
339.9000;0.8490;-0.6929;
340.2000;0.8457;-0.6929;
340.5000;0.8523;-0.6756;
340.8000;0.8539;-0.6657;
341.1000;0.8514;-0.6632;
341.4000;0.8490;-0.6756;
341.7000;0.8514;-0.6781;
342.0000;0.8531;-0.6805;
342.3000;0.8498;-0.6880;
342.6000;0.8490;-0.6929;
342.9000;0.8498;-0.6880;
343.2000;0.8506;-0.7028;
343.5000;0.8531;-0.6979;
343.8000;0.8498;-0.7127;
344.1000;0.8506;-0.7078;
344.4000;0.8498;-0.7078;
344.7000;0.8498;-0.7177;
345.0000;0.8498;-0.7152;
345.3000;0.8531;-0.7028;
345.6000;0.8457;-0.7226;
345.9000;0.8506;-0.7127;
346.2000;0.8506;-0.7102;
346.5000;0.8506;-0.7028;
346.8000;0.8474;-0.7127;
347.1000;0.8514;-0.6979;
347.4000;0.8514;-0.6929;
347.7000;0.8474;-0.7003;
348.0000;0.8506;-0.6855;
348.3000;0.8466;-0.7028;
348.6000;0.8588;-0.6805;
348.9000;0.8539;-0.6929;
349.2000;0.8498;-0.7078;
349.5000;0.8482;-0.7152;
349.8000;0.8523;-0.7078;
350.1000;0.8490;-0.7152;
350.4000;0.8490;-0.7127;
350.7000;0.8514;-0.7053;
351.0000;0.8539;-0.6979;
351.3000;0.8490;-0.7078;
351.6000;0.8490;-0.7028;
351.9000;0.8539;-0.7003;
352.2000;0.8506;-0.7102;
352.5000;0.8506;-0.7053;
352.8000;0.8523;-0.7053;
353.1000;0.8580;-0.6904;
353.4000;0.8514;-0.7053;
353.7000;0.8555;-0.7028;
354.0000;0.8506;-0.7102;
354.3000;0.8498;-0.7078;
354.6000;0.8449;-0.7152;
354.9000;0.8514;-0.6954;
355.2000;0.8498;-0.6979;
355.5000;0.8490;-0.6929;
355.8000;0.8506;-0.6954;
356.1000;0.8441;-0.7152;
356.4000;0.8498;-0.6979;
356.7000;0.8612;-0.6706;
357.0000;0.8506;-0.6929;
357.3000;0.8514;-0.6880;
357.6000;0.8498;-0.7003;
357.9000;0.8506;-0.7102;
358.2000;0.8523;-0.7102;
358.5000;0.8506;-0.7276;
358.8000;0.8506;-0.7276;
359.1000;0.8506;-0.7201;
359.4000;0.8531;-0.7226;
359.7000;0.8506;-0.7201;
360.0000;0.8498;-0.7177;
360.3000;0.8490;-0.7276;
360.6000;0.8466;-0.7276;
360.9000;0.8498;-0.7177;
361.2000;0.8490;-0.7226;
361.5000;0.8531;-0.7102;
361.8000;0.8490;-0.7152;
362.1000;0.8514;-0.7053;
362.4000;0.8531;-0.6979;
362.7000;0.8490;-0.7102;
363.0000;0.8490;-0.7177;
363.3000;0.8531;-0.7152;
363.6000;0.8506;-0.7127;
363.9000;0.8531;-0.7102;
364.2000;0.8498;-0.7251;
364.5000;0.8498;-0.7350;
364.8000;0.8498;-0.7374;
365.1000;0.8466;-0.7300;
365.4000;0.8514;-0.7226;
365.7000;0.8466;-0.7251;
366.0000;0.8490;-0.7152;
366.3000;0.8539;-0.7053;
366.6000;0.8457;-0.7276;
366.9000;0.8474;-0.7152;
367.2000;0.8490;-0.7102;
367.5000;0.8514;-0.7003;
367.8000;0.8555;-0.6904;
368.1000;0.8482;-0.7028;
368.4000;0.8425;-0.7201;
368.7000;0.8571;-0.7003;
369.0000;0.8498;-0.7226;
369.3000;0.8506;-0.7177;
369.6000;0.8539;-0.7127;
369.9000;0.8433;-0.7449;
370.2000;0.8482;-0.7251;
370.5000;0.8482;-0.7325;
370.8000;0.8482;-0.7374;
371.1000;0.8514;-0.7350;
371.4000;0.8457;-0.7473;
371.7000;0.8449;-0.7523;
372.0000;0.8474;-0.7399;
372.3000;0.8482;-0.7300;
372.6000;0.8466;-0.7251;
372.9000;0.8482;-0.7276;
373.2000;0.8490;-0.7276;
373.5000;0.8506;-0.7325;
373.8000;0.8498;-0.7300;
374.1000;0.8490;-0.7300;
374.4000;0.8466;-0.7350;
374.7000;0.8457;-0.7276;
375.0000;0.8417;-0.7276;
375.3000;0.8498;-0.7127;
375.6000;0.8482;-0.7152;
375.9000;0.8466;-0.7226;
376.2000;0.8409;-0.7300;
376.5000;0.8466;-0.7127;
376.8000;0.8474;-0.7201;
377.1000;0.8490;-0.7152;
377.4000;0.8482;-0.7028;
377.7000;0.8466;-0.7078;
378.0000;0.8482;-0.7102;
378.3000;0.8490;-0.7078;
378.6000;0.8457;-0.7127;
378.9000;0.8457;-0.7226;
379.2000;0.8417;-0.7251;
379.5000;0.8466;-0.7201;
379.8000;0.8474;-0.7127;
380.1000;0.8474;-0.7251;
380.4000;0.8466;-0.7152;
380.7000;0.8466;-0.7201;
381.0000;0.8400;-0.7350;
381.3000;0.8466;-0.7177;
381.6000;0.8457;-0.7177;
381.9000;0.8539;-0.6929;
382.2000;0.8482;-0.7003;
382.5000;0.8466;-0.7028;
382.8000;0.8457;-0.7003;
383.1000;0.8466;-0.7053;
383.4000;0.8490;-0.6954;
383.7000;0.8449;-0.7102;
384.0000;0.8466;-0.7003;
384.3000;0.8449;-0.7053;
384.6000;0.8474;-0.7028;
384.9000;0.8490;-0.7028;
385.2000;0.8571;-0.6830;
385.5000;0.8490;-0.7053;
385.8000;0.8449;-0.7127;
386.1000;0.8449;-0.7276;
386.4000;0.8449;-0.7251;
386.7000;0.8466;-0.7152;
387.0000;0.8466;-0.7053;
387.3000;0.8571;-0.6830;
387.6000;0.8457;-0.7102;
387.9000;0.8466;-0.7102;
388.2000;0.8449;-0.7226;
388.5000;0.8449;-0.7152;
388.8000;0.8457;-0.7201;
389.1000;0.8490;-0.7177;
389.4000;0.8466;-0.7201;
389.7000;0.8474;-0.7226;
390.0000;0.8466;-0.7177;
390.3000;0.8474;-0.7078;
390.6000;0.8441;-0.7127;
390.9000;0.8457;-0.7028;
391.2000;0.8449;-0.6954;
391.5000;0.8466;-0.6979;
391.8000;0.8466;-0.7053;
392.1000;0.8466;-0.7053;
392.4000;0.8466;-0.7003;
392.7000;0.8474;-0.6929;
393.0000;0.8466;-0.6929;
393.3000;0.8457;-0.7028;
393.6000;0.8400;-0.7300;
393.9000;0.8449;-0.7226;
394.2000;0.8457;-0.7177;
394.5000;0.8466;-0.7053;
394.8000;0.8466;-0.7177;
395.1000;0.8425;-0.7350;
395.4000;0.8441;-0.7449;
395.7000;0.8466;-0.7374;
396.0000;0.8417;-0.7548;
396.3000;0.8466;-0.7350;
396.6000;0.8474;-0.7350;
396.9000;0.8466;-0.7300;
397.2000;0.8474;-0.7226;
397.5000;0.8449;-0.7177;
397.8000;0.8457;-0.7127;
398.1000;0.8449;-0.7127;
398.4000;0.8457;-0.7053;
398.7000;0.8449;-0.7102;
399.0000;0.8433;-0.7152;
399.3000;0.8457;-0.7251;
399.6000;0.8449;-0.7152;
399.9000;0.8514;-0.6954;
400.2000;0.8433;-0.7152;
400.5000;0.8433;-0.7078;
400.8000;0.8449;-0.7127;
401.1000;0.8441;-0.7127;
401.4000;0.8449;-0.7102;
401.7000;0.8425;-0.7201;
402.0000;0.8433;-0.7251;
402.3000;0.8449;-0.7226;
402.6000;0.8433;-0.7276;
402.9000;0.8441;-0.7177;
403.2000;0.8498;-0.7053;
403.5000;0.8433;-0.7127;
403.8000;0.8474;-0.7003;
404.1000;0.8449;-0.7078;
404.4000;0.8449;-0.7127;
404.7000;0.8466;-0.7102;
405.0000;0.8466;-0.7078;
405.3000;0.8449;-0.7053;
405.6000;0.8417;-0.7102;
405.9000;0.8466;-0.6954;
406.2000;0.8466;-0.6954;
406.5000;0.8466;-0.6929;
406.8000;0.8425;-0.6979;
407.1000;0.8449;-0.6855;
407.4000;0.8466;-0.6929;
407.7000;0.8457;-0.6929;
408.0000;0.8506;-0.6904;
408.3000;0.8490;-0.6830;
408.6000;0.8466;-0.6929;
408.9000;0.8466;-0.6904;
409.2000;0.8433;-0.6880;
409.5000;0.8490;-0.6781;
409.8000;0.8466;-0.6830;
410.1000;0.8449;-0.6805;
410.4000;0.8433;-0.6880;
410.7000;0.8457;-0.6805;
411.0000;0.8449;-0.6855;
411.3000;0.8449;-0.6756;
411.6000;0.8441;-0.6830;
411.9000;0.8433;-0.6880;
412.2000;0.8449;-0.6880;
412.5000;0.8433;-0.6904;
412.8000;0.8433;-0.6880;
413.1000;0.8457;-0.6880;
413.4000;0.8441;-0.6929;
413.7000;0.8433;-0.6954;
414.0000;0.8449;-0.6904;
414.3000;0.8498;-0.6756;
414.6000;0.8449;-0.6830;
414.9000;0.8449;-0.6805;
415.2000;0.8433;-0.6904;
415.5000;0.8498;-0.6781;
415.8000;0.8449;-0.6880;
416.1000;0.8449;-0.6929;
416.4000;0.8433;-0.6979;
416.7000;0.8433;-0.6979;
417.0000;0.8441;-0.6830;
417.3000;0.8441;-0.6904;
417.6000;0.8441;-0.6904;
417.9000;0.8466;-0.7028;
418.2000;0.8482;-0.6979;
418.5000;0.8441;-0.6979;
418.8000;0.8441;-0.7003;
419.1000;0.8441;-0.6979;
419.4000;0.8449;-0.7078;
419.7000;0.8466;-0.7028;
420.0000;0.8441;-0.7177;
420.3000;0.8433;-0.7152;
420.6000;0.8417;-0.7152;
420.9000;0.8457;-0.6979;
421.2000;0.8466;-0.7003;
421.5000;0.8433;-0.7028;
421.8000;0.8392;-0.7078;
422.1000;0.8425;-0.6954;
422.4000;0.8441;-0.6855;
422.7000;0.8425;-0.6979;
423.0000;0.8449;-0.6979;
423.3000;0.8433;-0.6929;
423.6000;0.8433;-0.6880;
423.9000;0.8449;-0.6929;
424.2000;0.8449;-0.6904;
424.5000;0.8441;-0.6904;
424.8000;0.8400;-0.7078;
425.1000;0.8425;-0.7003;
425.4000;0.8425;-0.6904;
425.7000;0.8417;-0.6929;
426.0000;0.8409;-0.6954;
426.3000;0.8441;-0.6929;
426.6000;0.8417;-0.7028;
426.9000;0.8433;-0.7003;
427.2000;0.8417;-0.7102;
427.5000;0.8433;-0.7127;
427.8000;0.8449;-0.7152;
428.1000;0.8482;-0.7102;
428.4000;0.8433;-0.7226;
428.7000;0.8425;-0.7276;
429.0000;0.8425;-0.7226;
429.3000;0.8417;-0.7152;
429.6000;0.8368;-0.7226;
429.9000;0.8425;-0.7127;
430.2000;0.8441;-0.7003;
430.5000;0.8433;-0.6904;
430.8000;0.8425;-0.6805;
431.1000;0.8368;-0.7053;
431.4000;0.8392;-0.7053;
431.7000;0.8433;-0.6929;
432.0000;0.8417;-0.6880;
432.3000;0.8433;-0.6781;
432.6000;0.8433;-0.6805;
432.9000;0.8425;-0.6756;
433.2000;0.8425;-0.6880;
433.5000;0.8457;-0.6904;
433.8000;0.8417;-0.7028;
434.1000;0.8466;-0.6880;
434.4000;0.8474;-0.6781;
434.7000;0.8417;-0.6929;
435.0000;0.8449;-0.6880;
435.3000;0.8441;-0.6805;
435.6000;0.8433;-0.6731;
435.9000;0.8417;-0.6805;
436.2000;0.8417;-0.6880;
436.5000;0.8417;-0.6855;
436.8000;0.8433;-0.6781;
437.1000;0.8425;-0.6904;
437.4000;0.8433;-0.6781;
437.7000;0.8433;-0.6830;
438.0000;0.8433;-0.6855;
438.3000;0.8433;-0.6805;
438.6000;0.8425;-0.6830;
438.9000;0.8433;-0.6706;
439.2000;0.8433;-0.6756;
439.5000;0.8457;-0.6756;
439.8000;0.8417;-0.6781;
440.1000;0.8417;-0.6805;
440.4000;0.8409;-0.6880;
440.7000;0.8400;-0.6979;
441.0000;0.8417;-0.6904;
441.3000;0.8449;-0.6805;
441.6000;0.8352;-0.7053;
441.9000;0.8425;-0.6929;
442.2000;0.8441;-0.6904;
442.5000;0.8409;-0.6929;
442.8000;0.8417;-0.6880;
443.1000;0.8400;-0.7003;
443.4000;0.8425;-0.7028;
443.7000;0.8441;-0.6954;
444.0000;0.8376;-0.7053;
444.3000;0.8441;-0.6929;
444.6000;0.8384;-0.7102;
444.9000;0.8417;-0.7102;
445.2000;0.8360;-0.7226;
445.5000;0.8425;-0.7028;
445.8000;0.8466;-0.7078;
446.1000;0.8433;-0.7078;
446.4000;0.8425;-0.7078;
446.7000;0.8490;-0.6855;
447.0000;0.8433;-0.7053;
447.3000;0.8441;-0.6954;
447.6000;0.8384;-0.7003;
447.9000;0.8441;-0.6929;
448.2000;0.8498;-0.6756;
448.5000;0.8409;-0.6979;
448.8000;0.8417;-0.6979;
449.1000;0.8409;-0.6954;
449.4000;0.8425;-0.6904;
449.7000;0.8368;-0.7028;
450.0000;0.8392;-0.6954;
450.3000;0.8417;-0.6929;
450.6000;0.8425;-0.6904;
450.9000;0.8409;-0.6979;
451.2000;0.8400;-0.6929;
451.5000;0.8392;-0.6830;
451.8000;0.8433;-0.6805;
452.1000;0.8409;-0.6979;
452.4000;0.8417;-0.7053;
452.7000;0.8409;-0.7053;
453.0000;0.8433;-0.6979;
453.3000;0.8425;-0.6954;
453.6000;0.8425;-0.6929;
453.9000;0.8425;-0.7003;
454.2000;0.8441;-0.7152;
454.5000;0.8425;-0.7127;
454.8000;0.8433;-0.7177;
455.1000;0.8417;-0.7251;
455.4000;0.8425;-0.7325;
455.7000;0.8409;-0.7276;
456.0000;0.8425;-0.7201;
456.3000;0.8400;-0.7251;
456.6000;0.8490;-0.6954;
456.9000;0.8433;-0.7078;
457.2000;0.8425;-0.7053;
457.5000;0.8409;-0.7078;
457.8000;0.8392;-0.7102;
458.1000;0.8425;-0.6979;
458.4000;0.8384;-0.6954;
458.7000;0.8425;-0.6929;
459.0000;0.8400;-0.6929;
459.3000;0.8400;-0.6929;
459.6000;0.8417;-0.6954;
459.9000;0.8409;-0.7028;
460.2000;0.8417;-0.6979;
460.5000;0.8425;-0.6904;
460.8000;0.8409;-0.6904;
461.1000;0.8409;-0.6880;
461.4000;0.8400;-0.6830;
461.7000;0.8392;-0.6929;
462.0000;0.8392;-0.6855;
462.3000;0.8400;-0.6830;
462.6000;0.8409;-0.6805;
462.9000;0.8400;-0.6830;
463.2000;0.8417;-0.6880;
463.5000;0.8425;-0.6781;
463.8000;0.8466;-0.6632;
464.1000;0.8409;-0.6805;
464.4000;0.8400;-0.6830;
464.7000;0.8417;-0.6781;
465.0000;0.8433;-0.6657;
465.3000;0.8409;-0.6682;
465.6000;0.8400;-0.6632;
465.9000;0.8425;-0.6583;
466.2000;0.8482;-0.6484;
466.5000;0.8409;-0.6706;
466.8000;0.8409;-0.6731;
467.1000;0.8400;-0.6731;
467.4000;0.8392;-0.6781;
467.7000;0.8392;-0.6781;
468.0000;0.8376;-0.6781;
468.3000;0.8425;-0.6731;
468.6000;0.8368;-0.6855;
468.9000;0.8417;-0.6781;
469.2000;0.8425;-0.6682;
469.5000;0.8409;-0.6682;
469.8000;0.8400;-0.6657;
470.1000;0.8392;-0.6756;
470.4000;0.8417;-0.6781;
470.7000;0.8433;-0.6830;
471.0000;0.8392;-0.6929;
471.3000;0.8417;-0.6929;
471.6000;0.8376;-0.7053;
471.9000;0.8400;-0.6979;
472.2000;0.8409;-0.7028;
472.5000;0.8425;-0.6979;
472.8000;0.8392;-0.7003;
473.1000;0.8400;-0.6929;
473.4000;0.8392;-0.6979;
473.7000;0.8409;-0.6929;
474.0000;0.8400;-0.6979;
474.3000;0.8376;-0.7028;
474.6000;0.8409;-0.6979;
474.9000;0.8417;-0.7003;
475.2000;0.8392;-0.7003;
475.5000;0.8392;-0.7028;
475.8000;0.8409;-0.6954;
476.1000;0.8417;-0.7053;
476.4000;0.8409;-0.7003;
476.7000;0.8400;-0.6979;
477.0000;0.8392;-0.6880;
477.3000;0.8352;-0.7003;
477.6000;0.8384;-0.6855;
477.9000;0.8433;-0.6731;
478.2000;0.8409;-0.6731;
478.5000;0.8392;-0.6706;
478.8000;0.8376;-0.6756;
479.1000;0.8392;-0.6632;
479.4000;0.8384;-0.6657;
479.7000;0.8392;-0.6706;
480.0000;0.8392;-0.6781;
480.3000;0.8344;-0.6781;
480.6000;0.8400;-0.6632;
480.9000;0.8409;-0.6607;
481.2000;0.8344;-0.6805;
481.5000;0.8433;-0.6607;
481.8000;0.8482;-0.6607;
482.1000;0.8384;-0.6929;
482.4000;0.8303;-0.7078;
482.7000;0.8400;-0.6954;
483.0000;0.8400;-0.6954;
483.3000;0.8384;-0.6855;
483.6000;0.8392;-0.6781;
483.9000;0.8409;-0.6830;
484.2000;0.8392;-0.6805;
484.5000;0.8400;-0.6682;
484.8000;0.8400;-0.6508;
485.1000;0.8409;-0.6558;
485.4000;0.8384;-0.6607;
485.7000;0.8384;-0.6632;
486.0000;0.8400;-0.6607;
486.3000;0.8400;-0.6657;
486.6000;0.8376;-0.6756;
486.9000;0.8360;-0.6904;
487.2000;0.8384;-0.6904;
487.5000;0.8392;-0.6929;
487.8000;0.8384;-0.7003;
488.1000;0.8368;-0.7003;
488.4000;0.8392;-0.6954;
488.7000;0.8384;-0.6979;
489.0000;0.8384;-0.6979;
489.3000;0.8360;-0.6979;
489.6000;0.8368;-0.6830;
489.9000;0.8376;-0.6904;
490.2000;0.8352;-0.6929;
490.5000;0.8368;-0.6706;
490.8000;0.8352;-0.6607;
491.1000;0.8392;-0.6607;
491.4000;0.8376;-0.6682;
491.7000;0.8457;-0.6583;
492.0000;0.8344;-0.6929;
492.3000;0.8392;-0.6880;
492.6000;0.8409;-0.6781;
492.9000;0.8384;-0.6781;
493.2000;0.8360;-0.6830;
493.5000;0.8400;-0.6756;
493.8000;0.8392;-0.6632;
494.1000;0.8417;-0.6508;
494.4000;0.8376;-0.6657;
494.7000;0.8392;-0.6657;
495.0000;0.8368;-0.6781;
495.3000;0.8384;-0.6880;
495.6000;0.8384;-0.6929;
495.9000;0.8384;-0.6805;
496.2000;0.8384;-0.6706;
496.5000;0.8376;-0.6781;
496.8000;0.8384;-0.6781;
497.1000;0.8392;-0.6756;
497.4000;0.8368;-0.6830;
497.7000;0.8384;-0.6929;
498.0000;0.8384;-0.6855;
498.3000;0.8441;-0.6682;
498.6000;0.8409;-0.6682;
498.9000;0.8400;-0.6632;
499.2000;0.8352;-0.6706;
499.5000;0.8400;-0.6583;
499.8000;0.8392;-0.6607;
500.1000;0.8392;-0.6657;
500.4000;0.8441;-0.6533;
500.7000;0.8400;-0.6607;
501.0000;0.8400;-0.6731;
501.3000;0.8433;-0.6533;
501.6000;0.8433;-0.6484;
501.9000;0.8466;-0.6360;
502.2000;0.8384;-0.6583;
502.5000;0.8384;-0.6657;
502.8000;0.8400;-0.6558;
503.1000;0.8384;-0.6583;
503.4000;0.8319;-0.6756;
503.7000;0.8352;-0.6706;
504.0000;0.8360;-0.6706;
504.3000;0.8368;-0.6805;
504.6000;0.8376;-0.6805;
504.9000;0.8287;-0.7078;
505.2000;0.8384;-0.6904;
505.5000;0.8400;-0.6880;
505.8000;0.8392;-0.6880;
506.1000;0.8400;-0.6781;
506.4000;0.8327;-0.7053;
506.7000;0.8368;-0.7003;
507.0000;0.8376;-0.7028;
507.3000;0.8384;-0.6880;
507.6000;0.8376;-0.6805;
507.9000;0.8376;-0.6731;
508.2000;0.8400;-0.6583;
508.5000;0.8384;-0.6706;
508.8000;0.8360;-0.6756;
509.1000;0.8384;-0.6805;
509.4000;0.8360;-0.6855;
509.7000;0.8368;-0.6805;
510.0000;0.8376;-0.6855;
510.3000;0.8360;-0.6880;
510.6000;0.8376;-0.6880;
510.9000;0.8368;-0.6904;
511.2000;0.8392;-0.6855;
511.5000;0.8319;-0.7028;
511.8000;0.8384;-0.6855;
512.1000;0.8425;-0.6781;
512.4000;0.8335;-0.6954;
512.7000;0.8376;-0.6880;
513.0000;0.8400;-0.6756;
513.3000;0.8384;-0.6855;
513.6000;0.8376;-0.6830;
513.9000;0.8376;-0.6756;
514.2000;0.8368;-0.6756;
514.5000;0.8384;-0.6805;
514.8000;0.8376;-0.6830;
515.1000;0.8344;-0.6855;
515.4000;0.8376;-0.6731;
515.7000;0.8392;-0.6731;
516.0000;0.8360;-0.6706;
516.3000;0.8376;-0.6583;
516.6000;0.8376;-0.6558;
516.9000;0.8360;-0.6508;
517.2000;0.8376;-0.6484;
517.5000;0.8319;-0.6706;
517.8000;0.8344;-0.6607;
518.1000;0.8335;-0.6657;
518.4000;0.8376;-0.6607;
518.7000;0.8368;-0.6533;
519.0000;0.8384;-0.6583;
519.3000;0.8384;-0.6583;
519.6000;0.8344;-0.6805;
519.9000;0.8417;-0.6632;
520.2000;0.8360;-0.6781;
520.5000;0.8360;-0.6805;
520.8000;0.8384;-0.6756;
521.1000;0.8368;-0.6781;
521.4000;0.8392;-0.6830;
521.7000;0.8376;-0.6855;
522.0000;0.8368;-0.6855;
522.3000;0.8360;-0.6880;
522.6000;0.8335;-0.6954;
522.9000;0.8335;-0.7078;
523.2000;0.8352;-0.6979;
523.5000;0.8368;-0.6880;
523.8000;0.8360;-0.6880;
524.1000;0.8384;-0.6855;
524.4000;0.8360;-0.6880;
524.7000;0.8352;-0.6855;
525.0000;0.8384;-0.6781;
525.3000;0.8360;-0.6855;
525.6000;0.8368;-0.6731;
525.9000;0.8368;-0.6657;
526.2000;0.8376;-0.6632;
526.5000;0.8344;-0.6632;
526.8000;0.8319;-0.6682;
527.1000;0.8384;-0.6533;
527.4000;0.8368;-0.6583;
527.7000;0.8368;-0.6607;
528.0000;0.8352;-0.6731;
528.3000;0.8352;-0.6756;
528.6000;0.8392;-0.6682;
528.9000;0.8360;-0.6682;
529.2000;0.8360;-0.6706;
529.5000;0.8360;-0.6731;
529.8000;0.8368;-0.6756;
530.1000;0.8360;-0.6682;
530.4000;0.8352;-0.6632;
530.7000;0.8352;-0.6632;
531.0000;0.8384;-0.6607;
531.3000;0.8352;-0.6607;
531.6000;0.8360;-0.6583;
531.9000;0.8360;-0.6632;
532.2000;0.8376;-0.6706;
532.5000;0.8335;-0.6805;
532.8000;0.8360;-0.6706;
533.1000;0.8360;-0.6657;
533.4000;0.8335;-0.6731;
533.7000;0.8384;-0.6632;
534.0000;0.8352;-0.6682;
534.3000;0.8335;-0.6805;
534.6000;0.8360;-0.6781;
534.9000;0.8384;-0.6706;
535.2000;0.8368;-0.6756;
535.5000;0.8327;-0.6781;
535.8000;0.8352;-0.6706;
536.1000;0.8425;-0.6558;
536.4000;0.8392;-0.6558;
536.7000;0.8360;-0.6607;
537.0000;0.8392;-0.6459;
537.3000;0.8392;-0.6434;
537.6000;0.8376;-0.6583;
537.9000;0.8368;-0.6632;
538.2000;0.8400;-0.6607;
538.5000;0.8384;-0.6607;
538.8000;0.8384;-0.6657;
539.1000;0.8311;-0.6706;
539.4000;0.8368;-0.6731;
539.7000;0.8368;-0.6657;
540.0000;0.8352;-0.6632;
540.3000;0.8392;-0.6558;
540.6000;0.8352;-0.6756;
540.9000;0.8360;-0.6805;
541.2000;0.8352;-0.6830;
541.5000;0.8254;-0.7078;
541.8000;0.8352;-0.6756;
542.1000;0.8360;-0.6657;
542.4000;0.8360;-0.6706;
542.7000;0.8352;-0.6558;
543.0000;0.8376;-0.6484;
543.3000;0.8441;-0.6310;
543.6000;0.8384;-0.6682;
543.9000;0.8344;-0.6781;
544.2000;0.8352;-0.6830;
544.5000;0.8352;-0.6731;
544.8000;0.8335;-0.6830;
545.1000;0.8352;-0.6706;
545.4000;0.8368;-0.6657;
545.7000;0.8352;-0.6756;
546.0000;0.8368;-0.6756;
546.3000;0.8400;-0.6657;
546.6000;0.8360;-0.6781;
546.9000;0.8352;-0.6781;
547.2000;0.8352;-0.6756;
547.5000;0.8400;-0.6657;
547.8000;0.8360;-0.6731;
548.1000;0.8344;-0.6731;
548.4000;0.8360;-0.6731;
548.7000;0.8352;-0.6855;
549.0000;0.8352;-0.6830;
549.3000;0.8360;-0.6830;
549.6000;0.8352;-0.6830;
549.9000;0.8352;-0.6731;
550.2000;0.8352;-0.6756;
550.5000;0.8360;-0.6731;
550.8000;0.8392;-0.6657;
551.1000;0.8360;-0.6781;
551.4000;0.8352;-0.6781;
551.7000;0.8352;-0.6682;
552.0000;0.8352;-0.6706;
552.3000;0.8344;-0.6706;
552.6000;0.8335;-0.6756;
552.9000;0.8352;-0.6805;
553.2000;0.8352;-0.6805;
553.5000;0.8352;-0.6706;
553.8000;0.8352;-0.6682;
554.1000;0.8360;-0.6632;
554.4000;0.8344;-0.6682;
554.7000;0.8360;-0.6533;
555.0000;0.8392;-0.6459;
555.3000;0.8335;-0.6657;
555.6000;0.8449;-0.6310;
555.9000;0.8344;-0.6484;
556.2000;0.8360;-0.6409;
556.5000;0.8409;-0.6335;
556.8000;0.8352;-0.6508;
557.1000;0.8352;-0.6484;
557.4000;0.8360;-0.6434;
557.7000;0.8368;-0.6459;
558.0000;0.8344;-0.6657;
558.3000;0.8344;-0.6657;
558.6000;0.8352;-0.6558;
558.9000;0.8352;-0.6533;
559.2000;0.8392;-0.6409;
559.5000;0.8335;-0.6657;
559.8000;0.8352;-0.6632;
560.1000;0.8344;-0.6731;
560.4000;0.8352;-0.6706;
560.7000;0.8344;-0.6657;
561.0000;0.8344;-0.6682;
561.3000;0.8335;-0.6657;
561.6000;0.8335;-0.6781;
561.9000;0.8352;-0.6805;
562.2000;0.8311;-0.6805;
562.5000;0.8344;-0.6756;
562.8000;0.8352;-0.6706;
563.1000;0.8417;-0.6459;
563.4000;0.8392;-0.6484;
563.7000;0.8344;-0.6657;
564.0000;0.8344;-0.6682;
564.3000;0.8392;-0.6583;
564.6000;0.8335;-0.6657;
564.9000;0.8327;-0.6756;
565.2000;0.8352;-0.6781;
565.5000;0.8344;-0.6781;
565.8000;0.8352;-0.6756;
566.1000;0.8352;-0.6706;
566.4000;0.8335;-0.6706;
566.7000;0.8344;-0.6731;
567.0000;0.8352;-0.6657;
567.3000;0.8344;-0.6830;
567.6000;0.8311;-0.6781;
567.9000;0.8352;-0.6657;
568.2000;0.8352;-0.6657;
568.5000;0.8360;-0.6706;
568.8000;0.8352;-0.6682;
569.1000;0.8344;-0.6781;
569.4000;0.8344;-0.6805;
569.7000;0.8352;-0.6830;
570.0000;0.8344;-0.6781;
570.3000;0.8360;-0.6805;
570.6000;0.8352;-0.6731;
570.9000;0.8344;-0.6731;
571.2000;0.8417;-0.6533;
571.5000;0.8352;-0.6706;
571.8000;0.8327;-0.6805;
572.1000;0.8344;-0.6756;
572.4000;0.8278;-0.6830;
572.7000;0.8327;-0.6706;
573.0000;0.8344;-0.6706;
573.3000;0.8327;-0.6706;
573.6000;0.8335;-0.6706;
573.9000;0.8327;-0.6682;
574.2000;0.8368;-0.6657;
574.5000;0.8344;-0.6731;
574.8000;0.8352;-0.6657;
575.1000;0.8352;-0.6706;
575.4000;0.8335;-0.6706;
575.7000;0.8319;-0.6682;
576.0000;0.8352;-0.6558;
576.3000;0.8327;-0.6484;
576.6000;0.8376;-0.6409;
576.9000;0.8327;-0.6508;
577.2000;0.8352;-0.6508;
577.5000;0.8303;-0.6558;
577.8000;0.8344;-0.6434;
578.1000;0.8344;-0.6533;
578.4000;0.8319;-0.6558;
578.7000;0.8319;-0.6607;
579.0000;0.8327;-0.6657;
579.3000;0.8352;-0.6706;
579.6000;0.8360;-0.6731;
579.9000;0.8344;-0.6731;
580.2000;0.8335;-0.6756;
580.5000;0.8433;-0.6508;
580.8000;0.8352;-0.6632;
581.1000;0.8303;-0.6731;
581.4000;0.8311;-0.6781;
581.7000;0.8311;-0.6682;
582.0000;0.8295;-0.6781;
582.3000;0.8335;-0.6657;
582.6000;0.8335;-0.6657;
582.9000;0.8327;-0.6607;
583.2000;0.8344;-0.6607;
583.5000;0.8327;-0.6632;
583.8000;0.8327;-0.6632;
584.1000;0.8327;-0.6657;
584.4000;0.8327;-0.6657;
584.7000;0.8352;-0.6558;
585.0000;0.8303;-0.6607;
585.3000;0.8327;-0.6533;
585.6000;0.8319;-0.6533;
585.9000;0.8327;-0.6583;
586.2000;0.8319;-0.6632;
586.5000;0.8327;-0.6682;
586.8000;0.8327;-0.6731;
587.1000;0.8327;-0.6706;
587.4000;0.8327;-0.6706;
587.7000;0.8278;-0.6805;
588.0000;0.8303;-0.6805;
588.3000;0.8319;-0.6657;
588.6000;0.8287;-0.6657;
588.9000;0.8368;-0.6508;
589.2000;0.8376;-0.6508;
589.5000;0.8327;-0.6731;
589.8000;0.8319;-0.6830;
590.1000;0.8392;-0.6657;
590.4000;0.8278;-0.6805;
590.7000;0.8335;-0.6706;
591.0000;0.8368;-0.6632;
591.3000;0.8311;-0.6731;
591.6000;0.8327;-0.6682;
591.9000;0.8319;-0.6682;
592.2000;0.8311;-0.6682;
592.5000;0.8270;-0.6805;
592.8000;0.8319;-0.6682;
593.1000;0.8319;-0.6682;
593.4000;0.8327;-0.6706;
593.7000;0.8335;-0.6781;
594.0000;0.8335;-0.6706;
594.3000;0.8327;-0.6731;
594.6000;0.8319;-0.6781;
594.9000;0.8352;-0.6731;
595.2000;0.8335;-0.6706;
595.5000;0.8287;-0.6781;
595.8000;0.8295;-0.6756;
596.1000;0.8335;-0.6805;
596.4000;0.8262;-0.6880;
596.7000;0.8327;-0.6657;
597.0000;0.8327;-0.6632;
597.3000;0.8303;-0.6682;
597.6000;0.8335;-0.6533;
597.9000;0.8311;-0.6558;
598.2000;0.8368;-0.6558;
598.5000;0.8335;-0.6657;
598.8000;0.8344;-0.6558;
599.1000;0.8392;-0.6434;
599.4000;0.8319;-0.6682;
599.7000;0.8327;-0.6682;
600.0000;0.8327;-0.6607;
600.3000;0.8295;-0.6904;
600.6000;0.8189;-0.7102;
600.9000;0.8091;-0.7251;
601.2000;0.7912;-0.7449;
601.5000;0.7798;-0.7498;
601.8000;0.7586;-0.7869;
602.1000;0.7432;-0.8092;
602.4000;0.7302;-0.8265;
602.7000;0.7123;-0.8587;
603.0000;0.7009;-0.8637;
603.3000;0.6895;-0.8711;
603.6000;0.6805;-0.8835;
603.9000;0.6691;-0.8983;
604.2000;0.6610;-0.9008;
604.5000;0.6536;-0.9057;
604.8000;0.6455;-0.9132;
605.1000;0.6406;-0.9132;
605.4000;0.6325;-0.9181;
605.7000;0.6243;-0.9305;
606.0000;0.6178;-0.9379;
606.3000;0.6138;-0.9379;
606.6000;0.6089;-0.9404;
606.9000;0.6040;-0.9503;
607.2000;0.5983;-0.9651;
607.5000;0.5942;-0.9725;
607.8000;0.5902;-0.9775;
608.1000;0.5861;-0.9800;
608.4000;0.5820;-0.9899;
608.7000;0.5788;-0.9874;
609.0000;0.5731;-0.9973;
609.3000;0.5804;-0.9849;
609.6000;0.5714;-0.9998;
609.9000;0.5690;-1.0047;
610.2000;0.5657;-1.0121;
610.5000;0.5625;-1.0171;
610.8000;0.5584;-1.0245;
611.1000;0.5551;-1.0295;
611.4000;0.5535;-1.0270;
611.7000;0.5543;-1.0245;
612.0000;0.5511;-1.0295;
612.3000;0.5486;-1.0220;
612.6000;0.5413;-1.0468;
612.9000;0.5438;-1.0245;
613.2000;0.5372;-1.0295;
613.5000;0.5389;-1.0171;
613.8000;0.5364;-1.0121;
614.1000;0.5364;-1.0072;
614.4000;0.5348;-1.0047;
614.7000;0.5340;-1.0121;
615.0000;0.5291;-1.0295;
615.3000;0.5324;-1.0245;
615.6000;0.5372;-1.0171;
615.9000;0.5242;-1.0542;
616.2000;0.5258;-1.0493;
616.5000;0.5250;-1.0493;
616.8000;0.5234;-1.0418;
617.1000;0.5201;-1.0493;
617.4000;0.5185;-1.0542;
617.7000;0.5210;-1.0468;
618.0000;0.5193;-1.0468;
618.3000;0.5177;-1.0493;
618.6000;0.5088;-1.0740;
618.9000;0.5128;-1.0666;
619.2000;0.5153;-1.0592;
619.5000;0.5136;-1.0666;
619.8000;0.5088;-1.0814;
620.1000;0.5120;-1.0691;
620.4000;0.5112;-1.0666;
620.7000;0.5112;-1.0641;
621.0000;0.5088;-1.0715;
621.3000;0.5120;-1.0517;
621.6000;0.5088;-1.0542;
621.9000;0.5071;-1.0616;
622.2000;0.5071;-1.0592;
622.5000;0.5039;-1.0740;
622.8000;0.5055;-1.0666;
623.1000;0.5039;-1.0666;
623.4000;0.5031;-1.0641;
623.7000;0.4982;-1.0641;
624.0000;0.4990;-1.0592;
624.3000;0.4998;-1.0567;
624.6000;0.5006;-1.0493;
624.9000;0.5014;-1.0394;
625.2000;0.4998;-1.0418;
625.5000;0.4974;-1.0493;
625.8000;0.4941;-1.0616;
626.1000;0.4957;-1.0616;
626.4000;0.4965;-1.0542;
626.7000;0.4917;-1.0715;
627.0000;0.4933;-1.0691;
627.3000;0.4957;-1.0691;
627.6000;0.4843;-1.0963;
627.9000;0.4941;-1.0641;
628.2000;0.4965;-1.0567;
628.5000;0.4941;-1.0592;
628.8000;0.4957;-1.0517;
629.1000;0.4884;-1.0691;
629.4000;0.4917;-1.0592;
629.7000;0.4900;-1.0641;
630.0000;0.4892;-1.0542;
630.3000;0.4884;-1.0418;
630.6000;0.4851;-1.0517;
630.9000;0.4892;-1.0468;
631.2000;0.4884;-1.0542;
631.5000;0.4860;-1.0592;
631.8000;0.4876;-1.0517;
632.1000;0.4827;-1.0592;
632.4000;0.4803;-1.0740;
632.7000;0.4835;-1.0691;
633.0000;0.4876;-1.0641;
633.3000;0.4868;-1.0592;
633.6000;0.4843;-1.0567;
633.9000;0.4794;-1.0666;
634.2000;0.4827;-1.0641;
634.5000;0.4811;-1.0715;
634.8000;0.4803;-1.0666;
635.1000;0.4957;-1.0270;
635.4000;0.4803;-1.0691;
635.7000;0.4803;-1.0641;
636.0000;0.4827;-1.0592;
636.3000;0.4778;-1.0740;
636.6000;0.4754;-1.0715;
636.9000;0.4811;-1.0542;
637.2000;0.4770;-1.0616;
637.5000;0.4843;-1.0468;
637.8000;0.4778;-1.0666;
638.1000;0.4770;-1.0666;
638.4000;0.4786;-1.0666;
638.7000;0.4762;-1.0740;
639.0000;0.4754;-1.0691;
639.3000;0.4737;-1.0765;
639.6000;0.4754;-1.0715;
639.9000;0.4770;-1.0616;
640.2000;0.4746;-1.0641;
640.5000;0.4770;-1.0666;
640.8000;0.4762;-1.0666;
641.1000;0.4762;-1.0691;
641.4000;0.4729;-1.0790;
641.7000;0.4754;-1.0641;
642.0000;0.4746;-1.0691;
642.3000;0.4737;-1.0616;
642.6000;0.4786;-1.0567;
642.9000;0.4737;-1.0691;
643.2000;0.4737;-1.0616;
643.5000;0.4721;-1.0641;
643.8000;0.4729;-1.0567;
644.1000;0.4737;-1.0517;
644.4000;0.4713;-1.0567;
644.7000;0.4697;-1.0666;
645.0000;0.4705;-1.0666;
645.3000;0.4705;-1.0567;
645.6000;0.4689;-1.0493;
645.9000;0.4697;-1.0493;
646.2000;0.4705;-1.0493;
646.5000;0.4705;-1.0468;
646.8000;0.4689;-1.0517;
647.1000;0.4681;-1.0517;
647.4000;0.4672;-1.0666;
647.7000;0.4681;-1.0666;
648.0000;0.4664;-1.0765;
648.3000;0.4672;-1.0790;
648.6000;0.4681;-1.0839;
648.9000;0.4656;-1.0814;
649.2000;0.4672;-1.0715;
649.5000;0.4664;-1.0666;
649.8000;0.4664;-1.0641;
650.1000;0.4648;-1.0616;
650.4000;0.4672;-1.0641;
650.7000;0.4664;-1.0641;
651.0000;0.4648;-1.0691;
651.3000;0.4648;-1.0740;
651.6000;0.4583;-1.0938;
651.9000;0.4656;-1.0715;
652.2000;0.4681;-1.0567;
652.5000;0.4656;-1.0666;
652.8000;0.4656;-1.0592;
653.1000;0.4648;-1.0517;
653.4000;0.4632;-1.0542;
653.7000;0.4640;-1.0542;
654.0000;0.4648;-1.0592;
654.3000;0.4640;-1.0691;
654.6000;0.4607;-1.0814;
654.9000;0.4624;-1.0691;
655.2000;0.4518;-1.0889;
655.5000;0.4624;-1.0715;
655.8000;0.4632;-1.0790;
656.1000;0.4615;-1.0790;
656.4000;0.4632;-1.0814;
656.7000;0.4615;-1.0864;
657.0000;0.4599;-1.0814;
657.3000;0.4624;-1.0765;
657.6000;0.4624;-1.0715;
657.9000;0.4632;-1.0567;
658.2000;0.4607;-1.0641;
658.5000;0.4583;-1.0666;
658.8000;0.4607;-1.0641;
659.1000;0.4599;-1.0641;
659.4000;0.4567;-1.0641;
659.7000;0.4607;-1.0616;
660.0000;0.4599;-1.0666;
660.3000;0.4607;-1.0715;
660.6000;0.4583;-1.0740;
660.9000;0.4558;-1.0715;
661.2000;0.4575;-1.0765;
661.5000;0.4575;-1.0814;
661.8000;0.4575;-1.0864;
662.1000;0.4575;-1.0839;
662.4000;0.4583;-1.0814;
662.7000;0.4575;-1.0790;
663.0000;0.4567;-1.0839;
663.3000;0.4583;-1.0864;
663.6000;0.4558;-1.0740;
663.9000;0.4542;-1.0790;
664.2000;0.4575;-1.0765;
664.5000;0.4591;-1.0616;
664.8000;0.4550;-1.0691;
665.1000;0.4542;-1.0765;
665.4000;0.4550;-1.0740;
665.7000;0.4558;-1.0790;
666.0000;0.4567;-1.0715;
666.3000;0.4550;-1.0715;
666.6000;0.4583;-1.0616;
666.9000;0.4542;-1.0691;
667.2000;0.4542;-1.0715;
667.5000;0.4542;-1.0666;
667.8000;0.4550;-1.0517;
668.1000;0.4526;-1.0418;
668.4000;0.4510;-1.0418;
668.7000;0.4510;-1.0443;
669.0000;0.4534;-1.0418;
669.3000;0.4510;-1.0493;
669.6000;0.4477;-1.0443;
669.9000;0.4518;-1.0418;
670.2000;0.4510;-1.0418;
670.5000;0.4510;-1.0418;
670.8000;0.4518;-1.0394;
671.1000;0.4501;-1.0394;
671.4000;0.4493;-1.0418;
671.7000;0.4542;-1.0468;
672.0000;0.4510;-1.0542;
672.3000;0.4501;-1.0592;
672.6000;0.4526;-1.0468;
672.9000;0.4485;-1.0592;
673.2000;0.4526;-1.0369;
673.5000;0.4510;-1.0468;
673.8000;0.4485;-1.0443;
674.1000;0.4510;-1.0394;
674.4000;0.4501;-1.0344;
674.7000;0.4501;-1.0369;
675.0000;0.4485;-1.0443;
675.3000;0.4493;-1.0418;
675.6000;0.4485;-1.0493;
675.9000;0.4469;-1.0493;
676.2000;0.4477;-1.0418;
676.5000;0.4485;-1.0319;
676.8000;0.4485;-1.0369;
677.1000;0.4477;-1.0394;
677.4000;0.4436;-1.0517;
677.7000;0.4469;-1.0295;
678.0000;0.4485;-1.0319;
678.3000;0.4469;-1.0344;
678.6000;0.4461;-1.0344;
678.9000;0.4453;-1.0443;
679.2000;0.4518;-1.0319;
679.5000;0.4469;-1.0443;
679.8000;0.4444;-1.0567;
680.1000;0.4453;-1.0493;
680.4000;0.4436;-1.0616;
680.7000;0.4436;-1.0666;
681.0000;0.4444;-1.0567;
681.3000;0.4444;-1.0592;
681.6000;0.4396;-1.0567;
681.9000;0.4444;-1.0418;
682.2000;0.4412;-1.0542;
682.5000;0.4453;-1.0517;
682.8000;0.4444;-1.0493;
683.1000;0.4444;-1.0443;
683.4000;0.4444;-1.0493;
683.7000;0.4436;-1.0542;
684.0000;0.4477;-1.0394;
684.3000;0.4420;-1.0468;
684.6000;0.4485;-1.0344;
684.9000;0.4436;-1.0493;
685.2000;0.4436;-1.0369;
685.5000;0.4436;-1.0369;
685.8000;0.4420;-1.0394;
686.1000;0.4428;-1.0468;
686.4000;0.4412;-1.0517;
686.7000;0.4436;-1.0468;
687.0000;0.4420;-1.0443;
687.3000;0.4371;-1.0567;
687.6000;0.4420;-1.0517;
687.9000;0.4420;-1.0493;
688.2000;0.4396;-1.0567;
688.5000;0.4453;-1.0394;
688.8000;0.4428;-1.0443;
689.1000;0.4404;-1.0517;
689.4000;0.4461;-1.0344;
689.7000;0.4412;-1.0493;
690.0000;0.4420;-1.0517;
690.3000;0.4404;-1.0567;
690.6000;0.4428;-1.0443;
690.9000;0.4379;-1.0542;
691.2000;0.4412;-1.0443;
691.5000;0.4404;-1.0443;
691.8000;0.4461;-1.0418;
692.1000;0.4404;-1.0542;
692.4000;0.4428;-1.0493;
692.7000;0.4404;-1.0542;
693.0000;0.4412;-1.0468;
693.3000;0.4420;-1.0418;
693.6000;0.4363;-1.0542;
693.9000;0.4412;-1.0394;
694.2000;0.4396;-1.0418;
694.5000;0.4404;-1.0394;
694.8000;0.4379;-1.0418;
695.1000;0.4379;-1.0418;
695.4000;0.4396;-1.0493;
695.7000;0.4379;-1.0567;
696.0000;0.4379;-1.0542;
696.3000;0.4396;-1.0493;
696.6000;0.4363;-1.0715;
696.9000;0.4420;-1.0517;
697.2000;0.4396;-1.0592;
697.5000;0.4371;-1.0666;
697.8000;0.4396;-1.0542;
698.1000;0.4396;-1.0493;
698.4000;0.4396;-1.0443;
698.7000;0.4404;-1.0369;
699.0000;0.4347;-1.0567;
699.3000;0.4371;-1.0592;
699.6000;0.4387;-1.0468;
699.9000;0.4355;-1.0468;
700.2000;0.4355;-1.0517;
700.5000;0.4363;-1.0567;
700.8000;0.4387;-1.0517;
701.1000;0.4355;-1.0443;
701.4000;0.4404;-1.0468;
701.7000;0.4355;-1.0592;
702.0000;0.4371;-1.0542;
702.3000;0.4314;-1.0592;
702.6000;0.4363;-1.0517;
702.9000;0.4330;-1.0616;
703.2000;0.4420;-1.0344;
703.5000;0.4396;-1.0369;
703.8000;0.4371;-1.0468;
704.1000;0.4371;-1.0493;
704.4000;0.4363;-1.0567;
704.7000;0.4322;-1.0567;
705.0000;0.4363;-1.0517;
705.3000;0.4355;-1.0493;
705.6000;0.4363;-1.0394;
705.9000;0.4347;-1.0517;
706.2000;0.4347;-1.0517;
706.5000;0.4396;-1.0418;
706.8000;0.4371;-1.0517;
707.1000;0.4347;-1.0493;
707.4000;0.4322;-1.0567;
707.7000;0.4355;-1.0493;
708.0000;0.4339;-1.0616;
708.3000;0.4363;-1.0592;
708.6000;0.4347;-1.0641;
708.9000;0.4355;-1.0592;
709.2000;0.4314;-1.0616;
709.5000;0.4322;-1.0616;
709.8000;0.4306;-1.0592;
710.1000;0.4330;-1.0567;
710.4000;0.4330;-1.0493;
710.7000;0.4339;-1.0443;
711.0000;0.4347;-1.0443;
711.3000;0.4347;-1.0493;
711.6000;0.4347;-1.0592;
711.9000;0.4339;-1.0567;
712.2000;0.4298;-1.0616;
712.5000;0.4330;-1.0567;
712.8000;0.4306;-1.0666;
713.1000;0.4290;-1.0592;
713.4000;0.4290;-1.0641;
713.7000;0.4322;-1.0542;
714.0000;0.4322;-1.0567;
714.3000;0.4298;-1.0616;
714.6000;0.4314;-1.0542;
714.9000;0.4314;-1.0567;
715.2000;0.4306;-1.0567;
715.5000;0.4306;-1.0517;
715.8000;0.4322;-1.0567;
716.1000;0.4339;-1.0592;
716.4000;0.4322;-1.0616;
716.7000;0.4306;-1.0666;
717.0000;0.4298;-1.0641;
717.3000;0.4290;-1.0567;
717.6000;0.4330;-1.0443;
717.9000;0.4314;-1.0369;
718.2000;0.4322;-1.0319;
718.5000;0.4290;-1.0443;
718.8000;0.4298;-1.0394;
719.1000;0.4306;-1.0443;
719.4000;0.4290;-1.0493;
719.7000;0.4339;-1.0319;
720.0000;0.4306;-1.0295;
720.3000;0.4282;-1.0319;
720.6000;0.4298;-1.0344;
720.9000;0.4314;-1.0369;
721.2000;0.4314;-1.0468;
721.5000;0.4339;-1.0468;
721.8000;0.4290;-1.0616;
722.1000;0.4282;-1.0542;
722.4000;0.4306;-1.0443;
722.7000;0.4298;-1.0493;
723.0000;0.4298;-1.0468;
723.3000;0.4290;-1.0493;
723.6000;0.4298;-1.0517;
723.9000;0.4290;-1.0567;
724.2000;0.4322;-1.0493;
724.5000;0.4282;-1.0616;
724.8000;0.4282;-1.0592;
725.1000;0.4225;-1.0715;
725.4000;0.4265;-1.0493;
725.7000;0.4257;-1.0542;
726.0000;0.4265;-1.0567;
726.3000;0.4257;-1.0517;
726.6000;0.4282;-1.0443;
726.9000;0.4265;-1.0493;
727.2000;0.4274;-1.0468;
727.5000;0.4265;-1.0443;
727.8000;0.4265;-1.0418;
728.1000;0.4257;-1.0493;
728.4000;0.4208;-1.0616;
728.7000;0.4282;-1.0394;
729.0000;0.4274;-1.0394;
729.3000;0.4363;-1.0245;
729.6000;0.4282;-1.0592;
729.9000;0.4257;-1.0567;
730.2000;0.4306;-1.0443;
730.5000;0.4225;-1.0691;
730.8000;0.4282;-1.0616;
731.1000;0.4282;-1.0567;
731.4000;0.4249;-1.0567;
731.7000;0.4274;-1.0418;
732.0000;0.4249;-1.0369;
732.3000;0.4265;-1.0270;
732.6000;0.4257;-1.0295;
732.9000;0.4249;-1.0319;
733.2000;0.4265;-1.0418;
733.5000;0.4241;-1.0443;
733.8000;0.4257;-1.0319;
734.1000;0.4274;-1.0295;
734.4000;0.4257;-1.0344;
734.7000;0.4257;-1.0394;
735.0000;0.4265;-1.0344;
735.3000;0.4257;-1.0418;
735.6000;0.4274;-1.0319;
735.9000;0.4249;-1.0319;
736.2000;0.4257;-1.0319;
736.5000;0.4257;-1.0270;
736.8000;0.4249;-1.0418;
737.1000;0.4265;-1.0394;
737.4000;0.4265;-1.0344;
737.7000;0.4249;-1.0369;
738.0000;0.4265;-1.0344;
738.3000;0.4282;-1.0270;
738.6000;0.4249;-1.0295;
738.9000;0.4265;-1.0295;
739.2000;0.4257;-1.0319;
739.5000;0.4241;-1.0319;
739.8000;0.4249;-1.0245;
740.1000;0.4233;-1.0245;
740.4000;0.4249;-1.0072;
740.7000;0.4241;-1.0146;
741.0000;0.4208;-1.0344;
741.3000;0.4225;-1.0319;
741.6000;0.4257;-1.0220;
741.9000;0.4225;-1.0220;
742.2000;0.4265;-1.0072;
742.5000;0.4233;-1.0146;
742.8000;0.4241;-1.0097;
743.1000;0.4241;-1.0196;
743.4000;0.4241;-1.0369;
743.7000;0.4249;-1.0394;
744.0000;0.4274;-1.0220;
744.3000;0.4257;-1.0319;
744.6000;0.4249;-1.0418;
744.9000;0.4233;-1.0418;
745.2000;0.4225;-1.0394;
745.5000;0.4241;-1.0319;
745.8000;0.4241;-1.0295;
746.1000;0.4135;-1.0517;
746.4000;0.4249;-1.0220;
746.7000;0.4217;-1.0369;
747.0000;0.4208;-1.0394;
747.3000;0.4200;-1.0517;
747.6000;0.4225;-1.0418;
747.9000;0.4233;-1.0369;
748.2000;0.4225;-1.0245;
748.5000;0.4200;-1.0344;
748.8000;0.4225;-1.0369;
749.1000;0.4176;-1.0542;
749.4000;0.4200;-1.0443;
749.7000;0.4217;-1.0369;
750.0000;0.4217;-1.0369;
750.3000;0.4233;-1.0319;
750.6000;0.4233;-1.0369;
750.9000;0.4217;-1.0394;
751.2000;0.4192;-1.0443;
751.5000;0.4217;-1.0245;
751.8000;0.4200;-1.0319;
752.1000;0.4225;-1.0319;
752.4000;0.4208;-1.0369;
752.7000;0.4217;-1.0295;
753.0000;0.4233;-1.0245;
753.3000;0.4233;-1.0295;
753.6000;0.4217;-1.0344;
753.9000;0.4200;-1.0344;
754.2000;0.4208;-1.0270;
754.5000;0.4208;-1.0220;
754.8000;0.4225;-1.0220;
755.1000;0.4217;-1.0171;
755.4000;0.4217;-1.0121;
755.7000;0.4217;-1.0121;
756.0000;0.4200;-1.0220;
756.3000;0.4192;-1.0196;
756.6000;0.4184;-1.0245;
756.9000;0.4192;-1.0245;
757.2000;0.4217;-1.0245;
757.5000;0.4233;-1.0196;
757.8000;0.4200;-1.0319;
758.1000;0.4200;-1.0369;
758.4000;0.4225;-1.0295;
758.7000;0.4217;-1.0344;
759.0000;0.4225;-1.0270;
759.3000;0.4200;-1.0443;
759.6000;0.4208;-1.0394;
759.9000;0.4208;-1.0319;
760.2000;0.4208;-1.0319;
760.5000;0.4200;-1.0394;
760.8000;0.4192;-1.0468;
761.1000;0.4184;-1.0517;
761.4000;0.4192;-1.0517;
761.7000;0.4192;-1.0493;
762.0000;0.4176;-1.0394;
762.3000;0.4200;-1.0319;
762.6000;0.4217;-1.0319;
762.9000;0.4200;-1.0319;
763.2000;0.4184;-1.0270;
763.5000;0.4192;-1.0394;
763.8000;0.4192;-1.0394;
764.1000;0.4192;-1.0344;
764.4000;0.4217;-1.0295;
764.7000;0.4168;-1.0369;
765.0000;0.4208;-1.0220;
765.3000;0.4200;-1.0295;
765.6000;0.4208;-1.0270;
765.9000;0.4192;-1.0319;
766.2000;0.4176;-1.0369;
766.5000;0.4168;-1.0468;
766.8000;0.4168;-1.0418;
767.1000;0.4200;-1.0394;
767.4000;0.4192;-1.0468;
767.7000;0.4225;-1.0295;
768.0000;0.4184;-1.0443;
768.3000;0.4184;-1.0443;
768.6000;0.4208;-1.0493;
768.9000;0.4192;-1.0443;
769.2000;0.4176;-1.0468;
769.5000;0.4151;-1.0468;
769.8000;0.4192;-1.0443;
770.1000;0.4176;-1.0468;
770.4000;0.4143;-1.0592;
770.7000;0.4135;-1.0542;
771.0000;0.4168;-1.0468;
771.3000;0.4176;-1.0344;
771.6000;0.4160;-1.0369;
771.9000;0.4168;-1.0394;
772.2000;0.4168;-1.0418;
772.5000;0.4200;-1.0443;
772.8000;0.4176;-1.0517;
773.1000;0.4160;-1.0493;
773.4000;0.4217;-1.0418;
773.7000;0.4192;-1.0394;
774.0000;0.4192;-1.0394;
774.3000;0.4160;-1.0468;
774.6000;0.4184;-1.0295;
774.9000;0.4176;-1.0344;
775.2000;0.4184;-1.0319;
775.5000;0.4184;-1.0270;
775.8000;0.4176;-1.0245;
776.1000;0.4176;-1.0270;
776.4000;0.4168;-1.0319;
776.7000;0.4176;-1.0319;
777.0000;0.4160;-1.0344;
777.3000;0.4151;-1.0369;
777.6000;0.4176;-1.0295;
777.9000;0.4184;-1.0245;
778.2000;0.4176;-1.0270;
778.5000;0.4184;-1.0270;
778.8000;0.4192;-1.0270;
779.1000;0.4176;-1.0319;
779.4000;0.4168;-1.0468;
779.7000;0.4184;-1.0418;
780.0000;0.4168;-1.0369;
780.3000;0.4184;-1.0220;
780.6000;0.4306;-0.9899;
780.9000;0.4160;-1.0270;
781.2000;0.4176;-1.0270;
781.5000;0.4151;-1.0295;
781.8000;0.4160;-1.0270;
782.1000;0.4135;-1.0319;
782.4000;0.4160;-1.0394;
782.7000;0.4135;-1.0443;
783.0000;0.4151;-1.0394;
783.3000;0.4151;-1.0344;
783.6000;0.4135;-1.0344;
783.9000;0.4151;-1.0295;
784.2000;0.4168;-1.0295;
784.5000;0.4160;-1.0344;
784.8000;0.4160;-1.0369;
785.1000;0.4168;-1.0295;
785.4000;0.4184;-1.0270;
785.7000;0.4151;-1.0245;
786.0000;0.4151;-1.0220;
786.3000;0.4160;-1.0270;
786.6000;0.4168;-1.0270;
786.9000;0.4151;-1.0394;
787.2000;0.4103;-1.0443;
787.5000;0.4176;-1.0295;
787.8000;0.4160;-1.0295;
788.1000;0.4176;-1.0171;
788.4000;0.4143;-1.0344;
788.7000;0.4143;-1.0196;
789.0000;0.4176;-1.0072;
789.3000;0.4151;-1.0146;
789.6000;0.4135;-1.0171;
789.9000;0.4151;-1.0121;
790.2000;0.4160;-1.0146;
790.5000;0.4151;-1.0171;
790.8000;0.4151;-1.0196;
791.1000;0.4135;-1.0245;
791.4000;0.4086;-1.0369;
791.7000;0.4160;-1.0146;
792.0000;0.4160;-1.0121;
792.3000;0.4143;-1.0196;
792.6000;0.4078;-1.0344;
792.9000;0.4135;-1.0220;
793.2000;0.4143;-1.0146;
793.5000;0.4143;-1.0146;
793.8000;0.4151;-1.0097;
794.1000;0.4151;-1.0097;
794.4000;0.4151;-1.0196;
794.7000;0.4127;-1.0344;
795.0000;0.4143;-1.0270;
795.3000;0.4176;-1.0245;
795.6000;0.4168;-1.0295;
795.9000;0.4143;-1.0245;
796.2000;0.4168;-1.0171;
796.5000;0.4119;-1.0171;
796.8000;0.4127;-1.0047;
797.1000;0.4135;-1.0097;
797.4000;0.4127;-1.0196;
797.7000;0.4119;-1.0196;
798.0000;0.4127;-1.0121;
798.3000;0.4135;-1.0171;
798.6000;0.4135;-1.0220;
798.9000;0.4127;-1.0220;
799.2000;0.4192;-0.9973;
799.5000;0.4160;-1.0072;
799.8000;0.4143;-1.0146;
800.1000;0.4127;-1.0196;
800.4000;0.4143;-1.0220;
800.7000;0.4241;-0.9948;
801.0000;0.4143;-1.0171;
801.3000;0.4127;-1.0146;
801.6000;0.4168;-1.0072;
801.9000;0.4135;-1.0121;
802.2000;0.4127;-1.0121;
802.5000;0.4127;-1.0220;
802.8000;0.4151;-1.0097;
803.1000;0.4143;-1.0047;
803.4000;0.4119;-1.0097;
803.7000;0.4119;-1.0022;
804.0000;0.4111;-1.0047;
804.3000;0.4135;-1.0022;
804.6000;0.4021;-1.0319;
804.9000;0.4127;-1.0097;
805.2000;0.4135;-1.0121;
805.5000;0.4143;-1.0121;
805.8000;0.4135;-1.0196;
806.1000;0.4143;-1.0196;
806.4000;0.4176;-1.0072;
806.7000;0.4111;-1.0196;
807.0000;0.4094;-1.0245;
807.3000;0.4151;-1.0097;
807.6000;0.4135;-1.0121;
807.9000;0.4127;-1.0097;
808.2000;0.4111;-1.0022;
808.5000;0.4111;-1.0022;
808.8000;0.4111;-0.9923;
809.1000;0.4111;-0.9948;
809.4000;0.4119;-0.9973;
809.7000;0.4127;-0.9998;
810.0000;0.4111;-0.9998;
810.3000;0.4135;-0.9948;
810.6000;0.4135;-1.0022;
810.9000;0.4111;-0.9923;
811.2000;0.4127;-0.9948;
811.5000;0.4135;-1.0022;
811.8000;0.4119;-1.0146;
812.1000;0.4135;-1.0196;
812.4000;0.4160;-1.0171;
812.7000;0.4111;-1.0146;
813.0000;0.4119;-1.0245;
813.3000;0.4078;-1.0295;
813.6000;0.4086;-1.0245;
813.9000;0.4103;-1.0220;
814.2000;0.4103;-1.0171;
814.5000;0.4135;-1.0047;
814.8000;0.4111;-1.0171;
815.1000;0.4111;-1.0097;
815.4000;0.4094;-1.0121;
815.7000;0.4135;-1.0047;
816.0000;0.4111;-1.0097;
816.3000;0.4103;-1.0097;
816.6000;0.4111;-0.9998;
816.9000;0.4086;-1.0072;
817.2000;0.4103;-1.0097;
817.5000;0.4127;-1.0022;
817.8000;0.4103;-1.0022;
818.1000;0.4103;-1.0022;
818.4000;0.4135;-0.9998;
818.7000;0.4086;-1.0097;
819.0000;0.4111;-1.0072;
819.3000;0.4094;-1.0121;
819.6000;0.4103;-1.0146;
819.9000;0.4103;-1.0072;
820.2000;0.4103;-1.0097;
820.5000;0.4135;-0.9973;
820.8000;0.4094;-1.0022;
821.1000;0.4070;-1.0097;
821.4000;0.4078;-1.0072;
821.7000;0.4094;-1.0022;
822.0000;0.4111;-0.9998;
822.3000;0.4127;-0.9973;
822.6000;0.4111;-1.0072;
822.9000;0.4103;-1.0196;
823.2000;0.4119;-1.0097;
823.5000;0.4103;-1.0171;
823.8000;0.4103;-1.0196;
824.1000;0.4103;-1.0146;
824.4000;0.4054;-1.0344;
824.7000;0.4054;-1.0369;
825.0000;0.4119;-1.0196;
825.3000;0.4111;-1.0171;
825.6000;0.4086;-1.0220;
825.9000;0.4119;-1.0171;
826.2000;0.4103;-1.0196;
826.5000;0.4094;-1.0270;
826.8000;0.4094;-1.0319;
827.1000;0.4078;-1.0344;
827.4000;0.4103;-1.0270;
827.7000;0.4078;-1.0319;
828.0000;0.4094;-1.0220;
828.3000;0.4119;-1.0295;
828.6000;0.4119;-1.0295;
828.9000;0.4111;-1.0344;
829.2000;0.4111;-1.0394;
829.5000;0.4103;-1.0344;
829.8000;0.4127;-1.0196;
830.1000;0.4062;-1.0220;
830.4000;0.4094;-1.0072;
830.7000;0.4103;-1.0047;
831.0000;0.4094;-1.0047;
831.3000;0.4086;-1.0047;
831.6000;0.4086;-1.0022;
831.9000;0.4103;-1.0022;
832.2000;0.4135;-0.9948;
832.5000;0.4111;-1.0047;
832.8000;0.4111;-1.0196;
833.1000;0.4094;-1.0146;
833.4000;0.4086;-1.0146;
833.7000;0.4070;-1.0171;
834.0000;0.4200;-0.9899;
834.3000;0.4094;-1.0196;
834.6000;0.4094;-1.0245;
834.9000;0.4086;-1.0295;
835.2000;0.4037;-1.0443;
835.5000;0.4070;-1.0319;
835.8000;0.4070;-1.0245;
836.1000;0.4094;-1.0196;
836.4000;0.4078;-1.0270;
836.7000;0.4021;-1.0369;
837.0000;0.4086;-1.0245;
837.3000;0.4111;-1.0295;
837.6000;0.4086;-1.0270;
837.9000;0.4070;-1.0270;
838.2000;0.4062;-1.0196;
838.5000;0.4086;-1.0196;
838.8000;0.4094;-1.0146;
839.1000;0.4094;-1.0196;
839.4000;0.4103;-1.0171;
839.7000;0.4078;-1.0245;
840.0000;0.4054;-1.0369;
840.3000;0.4135;-1.0319;
840.6000;0.4119;-1.0270;
840.9000;0.4094;-1.0369;
841.2000;0.4078;-1.0319;
841.5000;0.4103;-1.0171;
841.8000;0.4078;-1.0196;
842.1000;0.4094;-1.0097;
842.4000;0.4086;-1.0072;
842.7000;0.4086;-1.0047;
843.0000;0.4111;-1.0022;
843.3000;0.4176;-0.9874;
843.6000;0.4078;-1.0220;
843.9000;0.4078;-1.0245;
844.2000;0.4078;-1.0220;
844.5000;0.4013;-1.0468;
844.8000;0.4070;-1.0220;
845.1000;0.4029;-1.0344;
845.4000;0.4054;-1.0196;
845.7000;0.4070;-1.0121;
846.0000;0.4054;-1.0196;
846.3000;0.4143;-0.9923;
846.6000;0.4103;-1.0022;
846.9000;0.4070;-1.0121;
847.2000;0.4078;-1.0220;
847.5000;0.4078;-1.0220;
847.8000;0.4021;-1.0517;
848.1000;0.4086;-1.0295;
848.4000;0.4086;-1.0220;
848.7000;0.4086;-1.0196;
849.0000;0.4103;-1.0270;
849.3000;0.4086;-1.0295;
849.6000;0.4078;-1.0220;
849.9000;0.4062;-1.0196;
850.2000;0.4086;-1.0146;
850.5000;0.4078;-1.0097;
850.8000;0.4094;-1.0121;
851.1000;0.4086;-1.0047;
851.4000;0.4094;-1.0196;
851.7000;0.4070;-1.0270;
852.0000;0.4086;-1.0245;
852.3000;0.4054;-1.0295;
852.6000;0.4054;-1.0245;
852.9000;0.4111;-1.0196;
853.2000;0.4094;-1.0245;
853.5000;0.4070;-1.0245;
853.8000;0.3972;-1.0369;
854.1000;0.4046;-1.0196;
854.4000;0.4086;-1.0146;
854.7000;0.4094;-1.0097;
855.0000;0.4078;-1.0146;
855.3000;0.4086;-1.0146;
855.6000;0.4086;-1.0171;
855.9000;0.4078;-1.0196;
856.2000;0.4062;-1.0121;
856.5000;0.4037;-1.0171;
856.8000;0.4078;-1.0121;
857.1000;0.4078;-1.0072;
857.4000;0.4062;-1.0047;
857.7000;0.4037;-1.0097;
858.0000;0.4062;-1.0047;
858.3000;0.4037;-0.9973;
858.6000;0.4062;-1.0022;
858.9000;0.4078;-1.0196;
859.2000;0.4054;-1.0394;
859.5000;0.4086;-1.0319;
859.8000;0.4078;-1.0295;
860.1000;0.4054;-1.0319;
860.4000;0.4029;-1.0344;
860.7000;0.4054;-1.0220;
861.0000;0.4054;-1.0220;
861.3000;0.4062;-1.0121;
861.6000;0.4054;-1.0171;
861.9000;0.4086;-1.0121;
862.2000;0.4078;-1.0072;
862.5000;0.4054;-1.0171;
862.8000;0.4086;-1.0047;
863.1000;0.4094;-1.0047;
863.4000;0.4062;-1.0171;
863.7000;0.4070;-1.0245;
864.0000;0.4054;-1.0319;
864.3000;0.4078;-1.0220;
864.6000;0.4078;-1.0121;
864.9000;0.4062;-1.0121;
865.2000;0.4046;-1.0047;
865.5000;0.4119;-0.9750;
865.8000;0.4070;-0.9824;
866.1000;0.4062;-0.9874;
866.4000;0.4070;-0.9899;
866.7000;0.4070;-0.9824;
867.0000;0.4078;-0.9800;
867.3000;0.4119;-0.9701;
867.6000;0.4037;-0.9973;
867.9000;0.4070;-0.9874;
868.2000;0.4086;-0.9874;
868.5000;0.4078;-0.9998;
868.8000;0.4062;-1.0022;
869.1000;0.4062;-1.0121;
869.4000;0.4078;-1.0121;
869.7000;0.4078;-1.0171;
870.0000;0.4046;-1.0121;
870.3000;0.3997;-1.0270;
870.6000;0.4029;-1.0270;
870.9000;0.4054;-1.0171;
871.2000;0.4062;-1.0121;
871.5000;0.4054;-1.0097;
871.8000;0.4078;-0.9998;
872.1000;0.4062;-0.9998;
872.4000;0.4078;-1.0072;
872.7000;0.4086;-1.0072;
873.0000;0.4046;-1.0220;
873.3000;0.4078;-1.0146;
873.6000;0.4070;-1.0171;
873.9000;0.4037;-1.0097;
874.2000;0.4054;-1.0047;
874.5000;0.4029;-0.9998;
874.8000;0.4054;-0.9899;
875.1000;0.4046;-0.9973;
875.4000;0.4054;-0.9998;
875.7000;0.4046;-1.0146;
876.0000;0.4054;-1.0072;
876.3000;0.4046;-1.0146;
876.6000;0.4062;-1.0146;
876.9000;0.4062;-1.0270;
877.2000;0.4062;-1.0245;
877.5000;0.4070;-1.0245;
877.8000;0.4062;-1.0220;
878.1000;0.4054;-1.0245;
878.4000;0.4062;-1.0146;
878.7000;0.4062;-1.0072;
879.0000;0.4046;-1.0171;
879.3000;0.4111;-0.9998;
879.6000;0.4054;-1.0097;
879.9000;0.4037;-1.0171;
880.2000;0.4005;-1.0295;
880.5000;0.4054;-1.0171;
880.8000;0.4037;-1.0196;
881.1000;0.4070;-0.9998;
881.4000;0.4103;-0.9923;
881.7000;0.4037;-1.0072;
882.0000;0.4062;-1.0047;
882.3000;0.4078;-0.9948;
882.6000;0.4046;-1.0047;
882.9000;0.4046;-1.0022;
883.2000;0.4054;-1.0047;
883.5000;0.4005;-1.0270;
883.8000;0.4078;-1.0072;
884.1000;0.4037;-1.0146;
884.4000;0.4013;-1.0121;
884.7000;0.4103;-1.0072;
885.0000;0.4062;-1.0171;
885.3000;0.4070;-1.0171;
885.6000;0.4062;-1.0171;
885.9000;0.4054;-1.0196;
886.2000;0.4029;-1.0270;
886.5000;0.4046;-1.0220;
886.8000;0.4037;-1.0196;
887.1000;0.4070;-1.0146;
887.4000;0.4078;-1.0196;
887.7000;0.4054;-1.0270;
888.0000;0.4046;-1.0245;
888.3000;0.4103;-1.0121;
888.6000;0.4062;-1.0171;
888.9000;0.4054;-1.0196;
889.2000;0.3964;-1.0443;
889.5000;0.4054;-1.0220;
889.8000;0.4054;-1.0270;
890.1000;0.4046;-1.0270;
890.4000;0.4021;-1.0319;
890.7000;0.4046;-1.0220;
891.0000;0.4037;-1.0171;
891.3000;0.4070;-1.0121;
891.6000;0.4046;-1.0245;
891.9000;0.4046;-1.0220;
892.2000;0.4046;-1.0196;
892.5000;0.4070;-1.0022;
892.8000;0.4046;-1.0072;
893.1000;0.4037;-1.0022;
893.4000;0.4013;-1.0196;
893.7000;0.4046;-1.0022;
894.0000;0.4037;-1.0047;
894.3000;0.4013;-1.0121;
894.6000;0.4029;-1.0072;
894.9000;0.4078;-0.9998;
895.2000;0.4046;-1.0097;
895.5000;0.4029;-1.0171;
895.8000;0.4070;-1.0097;
896.1000;0.4037;-1.0047;
896.4000;0.4054;-0.9998;
896.7000;0.4054;-0.9923;
897.0000;0.4078;-0.9775;
897.3000;0.4037;-0.9775;
897.6000;0.4208;-0.9354;
897.9000;0.4070;-0.9800;
898.2000;0.4046;-0.9874;
898.5000;0.4062;-0.9849;
898.8000;0.4054;-0.9849;
899.1000;0.3997;-0.9998;
899.4000;0.4062;-0.9874;
899.7000;0.4021;-0.9973;
900.0000;0.4046;-0.9923;
900.3000;0.4037;-0.9948;
900.6000;0.4086;-0.9874;
900.9000;0.4054;-0.9923;
901.2000;0.4029;-0.9973;
901.5000;0.4054;-0.9923;
901.8000;0.4054;-0.9998;
902.1000;0.4005;-1.0121;
902.4000;0.4070;-0.9899;
902.7000;0.4046;-0.9923;
903.0000;0.4062;-0.9923;
903.3000;0.4037;-0.9998;
903.6000;0.4037;-0.9923;
903.9000;0.4037;-0.9899;
904.2000;0.4054;-0.9800;
904.5000;0.4070;-0.9849;
904.8000;0.4021;-1.0022;
905.1000;0.4046;-0.9998;
905.4000;0.4037;-1.0047;
905.7000;0.4037;-1.0072;
906.0000;0.4037;-1.0097;
906.3000;0.4005;-1.0097;
906.6000;0.4062;-0.9973;
906.9000;0.4037;-1.0022;
907.2000;0.4054;-0.9948;
907.5000;0.4054;-0.9998;
907.8000;0.4054;-0.9973;
908.1000;0.4054;-1.0022;
908.4000;0.4054;-1.0022;
908.7000;0.4029;-1.0097;
909.0000;0.4054;-1.0097;
909.3000;0.4046;-1.0121;
909.6000;0.4037;-1.0196;
909.9000;0.4037;-1.0245;
910.2000;0.4111;-0.9973;
910.5000;0.4013;-1.0146;
910.8000;0.4029;-1.0072;
911.1000;0.4021;-1.0072;
911.4000;0.4013;-1.0121;
911.7000;0.4029;-1.0171;
912.0000;0.3997;-1.0196;
912.3000;0.3989;-1.0220;
912.6000;0.4021;-1.0146;
912.9000;0.4046;-1.0047;
913.2000;0.4127;-0.9800;
913.5000;0.4013;-1.0121;
913.8000;0.4037;-1.0047;
914.1000;0.4029;-1.0097;
914.4000;0.4103;-0.9948;
914.7000;0.4029;-1.0146;
915.0000;0.4037;-1.0146;
915.3000;0.3956;-1.0319;
915.6000;0.4037;-0.9973;
915.9000;0.4037;-1.0022;
916.2000;0.4021;-1.0097;
916.5000;0.4021;-1.0097;
916.8000;0.4029;-1.0146;
917.1000;0.4029;-1.0146;
917.4000;0.4021;-1.0097;
917.7000;0.4029;-1.0146;
918.0000;0.4037;-1.0171;
918.3000;0.3956;-1.0270;
918.6000;0.4005;-1.0097;
918.9000;0.4029;-1.0047;
919.2000;0.4037;-1.0072;
919.5000;0.4013;-1.0072;
919.8000;0.4021;-1.0121;
920.1000;0.4013;-1.0146;
920.4000;0.4037;-1.0022;
920.7000;0.4046;-1.0022;
921.0000;0.4029;-1.0121;
921.3000;0.4046;-1.0097;
921.6000;0.4021;-1.0097;
921.9000;0.4037;-1.0121;
922.2000;0.4029;-1.0146;
922.5000;0.4021;-1.0171;
922.8000;0.4021;-1.0270;
923.1000;0.4029;-1.0196;
923.4000;0.4005;-1.0245;
923.7000;0.4013;-1.0220;
924.0000;0.4021;-1.0245;
924.3000;0.4021;-1.0344;
924.6000;0.4029;-1.0344;
924.9000;0.4029;-1.0394;
925.2000;0.4013;-1.0394;
925.5000;0.4029;-1.0319;
925.8000;0.4021;-1.0344;
926.1000;0.4021;-1.0468;
926.4000;0.4029;-1.0394;
926.7000;0.4037;-1.0344;
927.0000;0.4037;-1.0344;
927.3000;0.4029;-1.0344;
927.6000;0.4013;-1.0418;
927.9000;0.4021;-1.0295;
928.2000;0.4029;-1.0319;
928.5000;0.4013;-1.0344;
928.8000;0.4021;-1.0344;
929.1000;0.4029;-1.0319;
929.4000;0.4037;-1.0220;
929.7000;0.4037;-1.0171;
930.0000;0.4005;-1.0220;
930.3000;0.4021;-1.0270;
930.6000;0.4029;-1.0220;
930.9000;0.4021;-1.0270;
931.2000;0.4103;-0.9973;
931.5000;0.4037;-1.0047;
931.8000;0.4037;-1.0121;
932.1000;0.4054;-1.0146;
932.4000;0.4046;-1.0121;
932.7000;0.4029;-1.0196;
933.0000;0.4094;-0.9998;
933.3000;0.4054;-1.0146;
933.6000;0.4021;-1.0220;
933.9000;0.4037;-1.0171;
934.2000;0.4021;-1.0220;
934.5000;0.4021;-1.0196;
934.8000;0.4021;-1.0146;
935.1000;0.3989;-1.0220;
935.4000;0.4070;-1.0022;
935.7000;0.4037;-1.0146;
936.0000;0.4029;-1.0171;
936.3000;0.3997;-1.0171;
936.6000;0.4013;-1.0146;
936.9000;0.4029;-1.0146;
937.2000;0.3997;-1.0196;
937.5000;0.4037;-1.0171;
937.8000;0.4021;-1.0245;
938.1000;0.4013;-1.0295;
938.4000;0.4062;-1.0196;
938.7000;0.4029;-1.0245;
939.0000;0.4046;-1.0220;
939.3000;0.4037;-1.0220;
939.6000;0.4013;-1.0270;
939.9000;0.4013;-1.0394;
940.2000;0.4021;-1.0344;
940.5000;0.4062;-1.0220;
940.8000;0.4029;-1.0220;
941.1000;0.4029;-1.0196;
941.4000;0.4021;-1.0171;
941.7000;0.4029;-1.0146;
942.0000;0.4029;-1.0121;
942.3000;0.4029;-1.0121;
942.6000;0.4029;-1.0097;
942.9000;0.4013;-1.0146;
943.2000;0.4013;-1.0097;
943.5000;0.4046;-1.0022;
943.8000;0.4013;-1.0220;
944.1000;0.4013;-1.0171;
944.4000;0.4005;-1.0146;
944.7000;0.4021;-1.0097;
945.0000;0.4021;-1.0097;
945.3000;0.4029;-1.0121;
945.6000;0.4021;-1.0047;
945.9000;0.4013;-1.0072;
946.2000;0.4037;-0.9998;
946.5000;0.4013;-1.0121;
946.8000;0.4005;-1.0121;
947.1000;0.3972;-1.0196;
947.4000;0.3997;-1.0146;
947.7000;0.4013;-1.0097;
948.0000;0.4029;-1.0022;
948.3000;0.4021;-1.0097;
948.6000;0.4005;-1.0097;
948.9000;0.4021;-1.0047;
949.2000;0.4029;-0.9973;
949.5000;0.4005;-0.9973;
949.8000;0.4021;-0.9998;
950.1000;0.4078;-0.9849;
950.4000;0.4005;-1.0047;
950.7000;0.4021;-1.0047;
951.0000;0.4013;-1.0022;
951.3000;0.4037;-0.9973;
951.6000;0.4021;-1.0072;
951.9000;0.4037;-1.0047;
952.2000;0.4005;-1.0097;
952.5000;0.4037;-0.9998;
952.8000;0.4013;-1.0121;
953.1000;0.4021;-1.0022;
953.4000;0.3948;-1.0171;
953.7000;0.4005;-1.0072;
954.0000;0.4021;-1.0097;
954.3000;0.3997;-1.0047;
954.6000;0.4013;-0.9923;
954.9000;0.4021;-0.9874;
955.2000;0.4070;-0.9750;
955.5000;0.4029;-0.9800;
955.8000;0.4021;-0.9849;
956.1000;0.4029;-0.9874;
956.4000;0.4029;-0.9899;
956.7000;0.4021;-0.9948;
957.0000;0.3972;-1.0072;
957.3000;0.3989;-1.0072;
957.6000;0.4005;-0.9923;
957.9000;0.4021;-0.9998;
958.2000;0.4013;-1.0072;
958.5000;0.3989;-1.0022;
958.8000;0.4013;-0.9948;
959.1000;0.4037;-0.9998;
959.4000;0.4029;-1.0121;
959.7000;0.3989;-1.0171;
960.0000;0.4013;-1.0220;
960.3000;0.3980;-1.0344;
960.6000;0.4029;-1.0196;
960.9000;0.4037;-1.0146;
961.2000;0.3972;-1.0344;
961.5000;0.3997;-1.0220;
961.8000;0.4021;-1.0121;
962.1000;0.4013;-1.0047;
962.4000;0.4013;-0.9998;
962.7000;0.4021;-0.9998;
963.0000;0.4013;-1.0121;
963.3000;0.4005;-1.0097;
963.6000;0.3989;-1.0022;
963.9000;0.4013;-0.9899;
964.2000;0.4013;-0.9874;
964.5000;0.4013;-0.9923;
964.8000;0.4013;-0.9973;
965.1000;0.4021;-0.9923;
965.4000;0.4029;-0.9923;
965.7000;0.4005;-1.0022;
966.0000;0.4021;-1.0022;
966.3000;0.4037;-0.9998;
966.6000;0.3980;-1.0097;
966.9000;0.3997;-1.0097;
967.2000;0.4005;-1.0121;
967.5000;0.4029;-1.0196;
967.8000;0.4021;-1.0171;
968.1000;0.3980;-1.0196;
968.4000;0.4005;-1.0146;
968.7000;0.4021;-1.0121;
969.0000;0.3997;-1.0097;
969.3000;0.4005;-1.0196;
969.6000;0.4021;-1.0047;
969.9000;0.4013;-1.0146;
970.2000;0.4021;-1.0047;
970.5000;0.4021;-0.9973;
970.8000;0.4029;-0.9948;
971.1000;0.4046;-0.9849;
971.4000;0.4005;-0.9973;
971.7000;0.4013;-0.9998;
972.0000;0.3997;-1.0022;
972.3000;0.4013;-0.9899;
972.6000;0.4005;-1.0022;
972.9000;0.4005;-1.0072;
973.2000;0.3948;-1.0196;
973.5000;0.3980;-1.0047;
973.8000;0.4005;-0.9923;
974.1000;0.4013;-1.0022;
974.4000;0.4029;-0.9874;
974.7000;0.3997;-0.9948;
975.0000;0.4021;-0.9973;
975.3000;0.4013;-1.0022;
975.6000;0.4013;-1.0047;
975.9000;0.4029;-0.9973;
976.2000;0.4013;-0.9948;
976.5000;0.3997;-0.9948;
976.8000;0.4013;-0.9973;
977.1000;0.4037;-0.9973;
977.4000;0.3989;-1.0097;
977.7000;0.3997;-1.0171;
978.0000;0.4005;-1.0220;
978.3000;0.3989;-1.0295;
978.6000;0.4013;-1.0245;
978.9000;0.4021;-1.0196;
979.2000;0.3989;-1.0270;
979.5000;0.3997;-1.0270;
979.8000;0.4005;-1.0196;
980.1000;0.3997;-1.0047;
980.4000;0.4005;-0.9899;
980.7000;0.3997;-0.9973;
981.0000;0.4013;-0.9973;
981.3000;0.3956;-1.0171;
981.6000;0.4021;-0.9998;
981.9000;0.4021;-0.9923;
982.2000;0.4021;-1.0022;
982.5000;0.4021;-1.0022;
982.8000;0.3997;-0.9948;
983.1000;0.4013;-0.9948;
983.4000;0.3997;-0.9923;
983.7000;0.3997;-1.0022;
984.0000;0.4005;-1.0022;
984.3000;0.3875;-1.0344;
984.6000;0.4037;-0.9899;
984.9000;0.3980;-1.0097;
985.2000;0.3980;-1.0072;
985.5000;0.4037;-0.9899;
985.8000;0.4005;-0.9973;
986.1000;0.4005;-1.0022;
986.4000;0.3972;-1.0072;
986.7000;0.4005;-0.9973;
987.0000;0.4005;-0.9899;
987.3000;0.4005;-0.9973;
987.6000;0.4013;-1.0022;
987.9000;0.4029;-0.9899;
988.2000;0.4013;-0.9973;
988.5000;0.4029;-0.9973;
988.8000;0.3997;-1.0047;
989.1000;0.3964;-1.0072;
989.4000;0.4005;-0.9998;
989.7000;0.4005;-0.9899;
990.0000;0.4021;-0.9948;
990.3000;0.4005;-0.9998;
990.6000;0.3972;-1.0097;
990.9000;0.4070;-0.9775;
991.2000;0.3997;-0.9899;
991.5000;0.4005;-0.9899;
991.8000;0.4005;-0.9824;
992.1000;0.3980;-0.9824;
992.4000;0.4021;-0.9775;
992.7000;0.4005;-0.9874;
993.0000;0.4029;-0.9725;
993.3000;0.4037;-0.9775;
993.6000;0.3997;-0.9923;
993.9000;0.3989;-0.9973;
994.2000;0.3980;-0.9998;
994.5000;0.3997;-0.9973;
994.8000;0.3997;-0.9849;
995.1000;0.3980;-0.9849;
995.4000;0.3997;-0.9849;
995.7000;0.3997;-0.9874;
996.0000;0.4005;-0.9899;
996.3000;0.3980;-0.9948;
996.6000;0.3989;-0.9973;
996.9000;0.3997;-1.0022;
997.2000;0.4037;-0.9998;
997.5000;0.4013;-1.0146;
997.8000;0.3989;-1.0220;
998.1000;0.3989;-1.0171;
998.4000;0.4005;-1.0097;
998.7000;0.3997;-1.0072;
999.0000;0.3997;-1.0022;
999.3000;0.3972;-0.9998;
999.6000;0.3997;-0.9899;
999.9000;0.3989;-0.9973;
1000.2000;0.3989;-1.0022;
1000.5000;0.3989;-1.0072;
1000.8000;0.3997;-1.0072;
1001.1000;0.4013;-0.9998;
1001.4000;0.3997;-1.0097;
1001.7000;0.3980;-1.0146;
1002.0000;0.3997;-1.0121;
1002.3000;0.4054;-0.9899;
1002.6000;0.3997;-1.0097;
1002.9000;0.4005;-1.0072;
1003.2000;0.3997;-1.0121;
1003.5000;0.3989;-1.0072;
1003.8000;0.4005;-1.0072;
1004.1000;0.4005;-0.9973;
1004.4000;0.3997;-0.9973;
1004.7000;0.4021;-0.9899;
1005.0000;0.4021;-0.9973;
1005.3000;0.4070;-0.9849;
1005.6000;0.4054;-0.9874;
1005.9000;0.4005;-0.9973;
1006.2000;0.4005;-0.9874;
1006.5000;0.3989;-0.9874;
1006.8000;0.3980;-0.9849;
1007.1000;0.3989;-0.9800;
1007.4000;0.3980;-0.9824;
1007.7000;0.3940;-1.0072;
1008.0000;0.3972;-0.9923;
1008.3000;0.3964;-0.9923;
1008.6000;0.3972;-0.9849;
1008.9000;0.4013;-0.9750;
1009.2000;0.3956;-0.9948;
1009.5000;0.3972;-0.9824;
1009.8000;0.3997;-0.9874;
1010.1000;0.3907;-1.0121;
1010.4000;0.3989;-1.0047;
1010.7000;0.3972;-1.0097;
1011.0000;0.3989;-0.9973;
1011.3000;0.3997;-1.0047;
1011.6000;0.3997;-1.0022;
1011.9000;0.4029;-0.9998;
1012.2000;0.3997;-1.0022;
1012.5000;0.4054;-0.9849;
1012.8000;0.3989;-0.9948;
1013.1000;0.4029;-0.9874;
1013.4000;0.4005;-0.9923;
1013.7000;0.4013;-1.0022;
1014.0000;0.3989;-0.9948;
1014.3000;0.3997;-1.0022;
1014.6000;0.3980;-1.0022;
1014.9000;0.4021;-0.9998;
1015.2000;0.3989;-1.0097;
1015.5000;0.3980;-1.0121;
1015.8000;0.3997;-1.0121;
1016.1000;0.3956;-1.0072;
1016.4000;0.3980;-1.0121;
1016.7000;0.4005;-0.9973;
1017.0000;0.3997;-0.9948;
1017.3000;0.4029;-0.9973;
1017.6000;0.3997;-1.0022;
1017.9000;0.4037;-0.9923;
1018.2000;0.3997;-0.9973;
1018.5000;0.3989;-0.9948;
1018.8000;0.4005;-0.9948;
1019.1000;0.3989;-0.9923;
1019.4000;0.3989;-0.9849;
1019.7000;0.3980;-0.9998;
1020.0000;0.3989;-1.0097;
1020.3000;0.3980;-1.0072;
1020.6000;0.3980;-1.0097;
1020.9000;0.3997;-0.9998;
1021.2000;0.4046;-0.9824;
1021.5000;0.3997;-0.9899;
1021.8000;0.3997;-0.9948;
1022.1000;0.3972;-0.9998;
1022.4000;0.3997;-1.0047;
1022.7000;0.3997;-1.0022;
1023.0000;0.3989;-1.0097;
1023.3000;0.4005;-0.9998;
1023.6000;0.3989;-1.0097;
1023.9000;0.3989;-1.0047;
1024.2000;0.4021;-1.0022;
1024.5000;0.4021;-1.0047;
1024.8000;0.3997;-1.0121;
1025.1000;0.4029;-1.0047;
1025.4000;0.3989;-1.0171;
1025.7000;0.3956;-1.0196;
1026.0000;0.3972;-1.0171;
1026.3000;0.3980;-1.0220;
1026.6000;0.3989;-1.0196;
1026.9000;0.3989;-1.0047;
1027.2000;0.3980;-1.0022;
1027.5000;0.3997;-1.0022;
1027.8000;0.4021;-1.0072;
1028.1000;0.3932;-1.0295;
1028.4000;0.4054;-1.0022;
1028.7000;0.3997;-1.0171;
1029.0000;0.3997;-1.0097;
1029.3000;0.3964;-1.0171;
1029.6000;0.4005;-1.0146;
1029.9000;0.3989;-1.0270;
1030.2000;0.3989;-1.0319;
1030.5000;0.3980;-1.0418;
1030.8000;0.3980;-1.0468;
1031.1000;0.3940;-1.0715;
1031.4000;0.3980;-1.0666;
1031.7000;0.3989;-1.0592;
1032.0000;0.4005;-1.0443;
1032.3000;0.3997;-1.0394;
1032.6000;0.3964;-1.0517;
1032.9000;0.3997;-1.0319;
1033.2000;0.3997;-1.0344;
1033.5000;0.3964;-1.0394;
1033.8000;0.3989;-1.0418;
1034.1000;0.4029;-1.0295;
1034.4000;0.3997;-1.0443;
1034.7000;0.4005;-1.0443;
1035.0000;0.3989;-1.0319;
1035.3000;0.4005;-1.0270;
1035.6000;0.3997;-1.0319;
1035.9000;0.3989;-1.0270;
1036.2000;0.3989;-1.0220;
1036.5000;0.4029;-1.0146;
1036.8000;0.4005;-1.0196;
1037.1000;0.4005;-1.0196;
1037.4000;0.4005;-1.0196;
1037.7000;0.3997;-1.0220;
1038.0000;0.3980;-1.0270;
1038.3000;0.4005;-1.0196;
1038.6000;0.4070;-1.0022;
1038.9000;0.3980;-1.0220;
1039.2000;0.3997;-1.0146;
1039.5000;0.3997;-1.0196;
1039.8000;0.3997;-1.0295;
1040.1000;0.3972;-1.0270;
1040.4000;0.3980;-1.0220;
1040.7000;0.3997;-1.0072;
1041.0000;0.4005;-0.9998;
1041.3000;0.3989;-0.9998;
1041.6000;0.3972;-1.0072;
1041.9000;0.4005;-1.0072;
1042.2000;0.3972;-1.0097;
1042.5000;0.3972;-1.0171;
1042.8000;0.3980;-1.0097;
1043.1000;0.3972;-1.0146;
1043.4000;0.4029;-1.0121;
1043.7000;0.3980;-1.0220;
1044.0000;0.3964;-1.0220;
1044.3000;0.3989;-1.0146;
1044.6000;0.3964;-1.0121;
1044.9000;0.3972;-1.0196;
1045.2000;0.3956;-1.0270;
1045.5000;0.4013;-1.0196;
1045.8000;0.3997;-1.0245;
1046.1000;0.3964;-1.0245;
1046.4000;0.3989;-1.0270;
1046.7000;0.4005;-1.0270;
1047.0000;0.3964;-1.0369;
1047.3000;0.3964;-1.0394;
1047.6000;0.3997;-1.0295;
1047.9000;0.4013;-1.0270;
1048.2000;0.4029;-1.0196;
1048.5000;0.3980;-1.0319;
1048.8000;0.3997;-1.0270;
1049.1000;0.4062;-1.0047;
1049.4000;0.4021;-1.0121;
1049.7000;0.4021;-1.0245;
1050.0000;0.3997;-1.0394;
1050.3000;0.3997;-1.0418;
1050.6000;0.4037;-1.0295;
1050.9000;0.3989;-1.0443;
1051.2000;0.3915;-1.0542;
1051.5000;0.3972;-1.0418;
1051.8000;0.3972;-1.0418;
1052.1000;0.4013;-1.0295;
1052.4000;0.4037;-1.0270;
1052.7000;0.3980;-1.0443;
1053.0000;0.3997;-1.0344;
1053.3000;0.3997;-1.0319;
1053.6000;0.3980;-1.0196;
1053.9000;0.3972;-1.0220;
1054.2000;0.3972;-1.0220;
1054.5000;0.3980;-1.0295;
1054.8000;0.3980;-1.0295;
1055.1000;0.3972;-1.0295;
1055.4000;0.3980;-1.0220;
1055.7000;0.3989;-1.0270;
1056.0000;0.3989;-1.0245;
1056.3000;0.3989;-1.0220;
1056.6000;0.3932;-1.0418;
1056.9000;0.3980;-1.0295;
1057.2000;0.3964;-1.0295;
1057.5000;0.3997;-1.0220;
1057.8000;0.3989;-1.0220;
1058.1000;0.3972;-1.0196;
1058.4000;0.3964;-1.0121;
1058.7000;0.4005;-1.0047;
1059.0000;0.3989;-1.0146;
1059.3000;0.3980;-1.0196;
1059.6000;0.3980;-1.0171;
1059.9000;0.3980;-1.0146;
1060.2000;0.4021;-1.0220;
1060.5000;0.3997;-1.0319;
1060.8000;0.3997;-1.0295;
1061.1000;0.3980;-1.0220;
1061.4000;0.3989;-1.0220;
1061.7000;0.4013;-1.0220;
1062.0000;0.3972;-1.0245;
1062.3000;0.3997;-1.0270;
1062.6000;0.3997;-1.0270;
1062.9000;0.3989;-1.0196;
1063.2000;0.3989;-1.0245;
1063.5000;0.3964;-1.0319;
1063.8000;0.3989;-1.0295;
1064.1000;0.3989;-1.0220;
1064.4000;0.3989;-1.0220;
1064.7000;0.3980;-1.0220;
1065.0000;0.3980;-1.0146;
1065.3000;0.3989;-1.0220;
1065.6000;0.3980;-1.0220;
1065.9000;0.3972;-1.0245;
1066.2000;0.3997;-1.0270;
1066.5000;0.3972;-1.0418;
1066.8000;0.3989;-1.0493;
1067.1000;0.4005;-1.0418;
1067.4000;0.3997;-1.0369;
1067.7000;0.3980;-1.0344;
1068.0000;0.3972;-1.0418;
1068.3000;0.3972;-1.0319;
1068.6000;0.3989;-1.0171;
1068.9000;0.3989;-1.0146;
1069.2000;0.3948;-1.0344;
1069.5000;0.3972;-1.0220;
1069.8000;0.3964;-1.0295;
1070.1000;0.3997;-1.0270;
1070.4000;0.3997;-1.0245;
1070.7000;0.4021;-1.0171;
1071.0000;0.3956;-1.0319;
1071.3000;0.3989;-1.0220;
1071.6000;0.3980;-1.0319;
1071.9000;0.3989;-1.0418;
1072.2000;0.4021;-1.0369;
1072.5000;0.3989;-1.0394;
1072.8000;0.3997;-1.0369;
1073.1000;0.3989;-1.0344;
1073.4000;0.3972;-1.0344;
1073.7000;0.4013;-1.0220;
1074.0000;0.4037;-1.0220;
1074.3000;0.3989;-1.0295;
1074.6000;0.4005;-1.0295;
1074.9000;0.3964;-1.0443;
1075.2000;0.3980;-1.0394;
1075.5000;0.3980;-1.0468;
1075.8000;0.3964;-1.0418;
1076.1000;0.3997;-1.0369;
1076.4000;0.3948;-1.0493;
1076.7000;0.3980;-1.0468;
1077.0000;0.3980;-1.0468;
1077.3000;0.3964;-1.0493;
1077.6000;0.3989;-1.0443;
1077.9000;0.3997;-1.0394;
1078.2000;0.3980;-1.0394;
1078.5000;0.3932;-1.0443;
1078.8000;0.3883;-1.0567;
1079.1000;0.3989;-1.0344;
1079.4000;0.3980;-1.0369;
1079.7000;0.3997;-1.0369;
1080.0000;0.3980;-1.0418;
1080.3000;0.3972;-1.0468;
1080.6000;0.3997;-1.0517;
1080.9000;0.3980;-1.0567;
1081.2000;0.3980;-1.0641;
1081.5000;0.3980;-1.0567;
1081.8000;0.3972;-1.0468;
1082.1000;0.3989;-1.0468;
1082.4000;0.3956;-1.0443;
1082.7000;0.3989;-1.0369;
1083.0000;0.3997;-1.0443;
1083.3000;0.3964;-1.0592;
1083.6000;0.3980;-1.0592;
1083.9000;0.3956;-1.0641;
1084.2000;0.3997;-1.0542;
1084.5000;0.3989;-1.0592;
1084.8000;0.3989;-1.0542;
1085.1000;0.3932;-1.0616;
1085.4000;0.3940;-1.0542;
1085.7000;0.3980;-1.0443;
1086.0000;0.3989;-1.0394;
1086.3000;0.3980;-1.0319;
1086.6000;0.4013;-1.0319;
1086.9000;0.3980;-1.0394;
1087.2000;0.3980;-1.0418;
1087.5000;0.3997;-1.0443;
1087.8000;0.3989;-1.0369;
1088.1000;0.4005;-1.0369;
1088.4000;0.3989;-1.0394;
1088.7000;0.3980;-1.0270;
1089.0000;0.3997;-1.0295;
1089.3000;0.3972;-1.0319;
1089.6000;0.3980;-1.0418;
1089.9000;0.3989;-1.0394;
1090.2000;0.3972;-1.0418;
1090.5000;0.3997;-1.0418;
1090.8000;0.3972;-1.0468;
1091.1000;0.3972;-1.0517;
1091.4000;0.3997;-1.0468;
1091.7000;0.3972;-1.0468;
1092.0000;0.3980;-1.0443;
1092.3000;0.3972;-1.0344;
1092.6000;0.3964;-1.0344;
1092.9000;0.3972;-1.0369;
1093.2000;0.3980;-1.0369;
1093.5000;0.3972;-1.0295;
1093.8000;0.3964;-1.0319;
1094.1000;0.3989;-1.0245;
1094.4000;0.3964;-1.0295;
1094.7000;0.4021;-1.0146;
1095.0000;0.3989;-1.0146;
1095.3000;0.3972;-1.0319;
1095.6000;0.3989;-1.0295;
1095.9000;0.3980;-1.0344;
1096.2000;0.3972;-1.0394;
1096.5000;0.3989;-1.0319;
1096.8000;0.3972;-1.0394;
1097.1000;0.3989;-1.0443;
1097.4000;0.3972;-1.0418;
1097.7000;0.3980;-1.0369;
1098.0000;0.3989;-1.0443;
1098.3000;0.3932;-1.0592;
1098.6000;0.3956;-1.0517;
1098.9000;0.3972;-1.0418;
1099.2000;0.3980;-1.0319;
1099.5000;0.4005;-1.0319;
1099.8000;0.3980;-1.0319;
1100.1000;0.3980;-1.0394;
1100.4000;0.3972;-1.0319;
1100.7000;0.4021;-1.0196;
1101.0000;0.3980;-1.0295;
1101.3000;0.3972;-1.0319;
1101.6000;0.3964;-1.0295;
1101.9000;0.3980;-1.0295;
1102.2000;0.3980;-1.0319;
1102.5000;0.3956;-1.0319;
1102.8000;0.3972;-1.0245;
1103.1000;0.3980;-1.0245;
1103.4000;0.3956;-1.0418;
1103.7000;0.3980;-1.0319;
1104.0000;0.3964;-1.0270;
1104.3000;0.3980;-1.0121;
1104.6000;0.3980;-1.0196;
1104.9000;0.3972;-1.0171;
1105.2000;0.3972;-1.0146;
1105.5000;0.3980;-1.0245;
1105.8000;0.3989;-1.0196;
1106.1000;0.3989;-1.0245;
1106.4000;0.3980;-1.0295;
1106.7000;0.3989;-1.0171;
1107.0000;0.4062;-0.9998;
1107.3000;0.3989;-1.0220;
1107.6000;0.3964;-1.0171;
1107.9000;0.3940;-1.0295;
1108.2000;0.3980;-1.0196;
1108.5000;0.3948;-1.0245;
1108.8000;0.4046;-0.9923;
1109.1000;0.3883;-1.0319;
1109.4000;0.3980;-0.9998;
1109.7000;0.3948;-1.0097;
1110.0000;0.3915;-1.0295;
1110.3000;0.3972;-1.0220;
1110.6000;0.3964;-1.0121;
1110.9000;0.3997;-1.0220;
1111.2000;0.3972;-1.0295;
1111.5000;0.3956;-1.0171;
1111.8000;0.3989;-1.0072;
1112.1000;0.3989;-1.0022;
1112.4000;0.3972;-1.0121;
1112.7000;0.3972;-1.0097;
1113.0000;0.3972;-1.0121;
1113.3000;0.3964;-1.0121;
1113.6000;0.3964;-1.0047;
1113.9000;0.3980;-1.0022;
1114.2000;0.3980;-1.0121;
1114.5000;0.4037;-1.0072;
1114.8000;0.3980;-1.0196;
1115.1000;0.3989;-1.0245;
1115.4000;0.3948;-1.0319;
1115.7000;0.4037;-1.0121;
1116.0000;0.4005;-1.0196;
1116.3000;0.4013;-1.0270;
1116.6000;0.4005;-1.0270;
1116.9000;0.3980;-1.0369;
1117.2000;0.3989;-1.0270;
1117.5000;0.4005;-1.0171;
1117.8000;0.3997;-1.0220;
1118.1000;0.3972;-1.0369;
1118.4000;0.3972;-1.0394;
1118.7000;0.4021;-1.0196;
1119.0000;0.3989;-1.0394;
1119.3000;0.3972;-1.0295;
1119.6000;0.3980;-1.0196;
1119.9000;0.3989;-1.0220;
1120.2000;0.3980;-1.0344;
1120.5000;0.3940;-1.0493;
1120.8000;0.3980;-1.0418;
1121.1000;0.3997;-1.0344;
1121.4000;0.3964;-1.0319;
1121.7000;0.3980;-1.0220;
1122.0000;0.3997;-1.0146;
1122.3000;0.3980;-1.0196;
1122.6000;0.3989;-1.0295;
1122.9000;0.3964;-1.0344;
1123.2000;0.3956;-1.0394;
1123.5000;0.3940;-1.0517;
1123.8000;0.3972;-1.0394;
1124.1000;0.3956;-1.0394;
1124.4000;0.3964;-1.0270;
1124.7000;0.3907;-1.0220;
1125.0000;0.3980;-0.9948;
1125.3000;0.3972;-0.9998;
1125.6000;0.3932;-1.0121;
1125.9000;0.4013;-0.9849;
1126.2000;0.3980;-0.9948;
1126.5000;0.3980;-0.9998;
1126.8000;0.3956;-1.0097;
1127.1000;0.3972;-1.0097;
1127.4000;0.3964;-1.0072;
1127.7000;0.3972;-1.0146;
1128.0000;0.3997;-1.0097;
1128.3000;0.3972;-1.0097;
1128.6000;0.4062;-0.9923;
1128.9000;0.3932;-1.0295;
1129.2000;0.3980;-1.0121;
1129.5000;0.4029;-1.0022;
1129.8000;0.3980;-1.0022;
1130.1000;0.3997;-1.0047;
1130.4000;0.4021;-1.0072;
1130.7000;0.3972;-1.0220;
1131.0000;0.3980;-1.0369;
1131.3000;0.3972;-1.0319;
1131.6000;0.3980;-1.0270;
1131.9000;0.3989;-1.0344;
1132.2000;0.3989;-1.0295;
1132.5000;0.3972;-1.0369;
1132.8000;0.3989;-1.0369;
1133.1000;0.4046;-1.0245;
1133.4000;0.3972;-1.0517;
1133.7000;0.3989;-1.0542;
1134.0000;0.3923;-1.0666;
1134.3000;0.3989;-1.0493;
1134.6000;0.3972;-1.0468;
1134.9000;0.3989;-1.0418;
1135.2000;0.3989;-1.0468;
1135.5000;0.3989;-1.0468;
1135.8000;0.3980;-1.0418;
1136.1000;0.3980;-1.0468;
1136.4000;0.3915;-1.0567;
1136.7000;0.3964;-1.0418;
1137.0000;0.3972;-1.0344;
1137.3000;0.3989;-1.0369;
1137.6000;0.3997;-1.0344;
1137.9000;0.3989;-1.0369;
1138.2000;0.3980;-1.0319;
1138.5000;0.3972;-1.0295;
1138.8000;0.3964;-1.0295;
1139.1000;0.3980;-1.0245;
1139.4000;0.4013;-1.0171;
1139.7000;0.3964;-1.0344;
1140.0000;0.3964;-1.0394;
1140.3000;0.3989;-1.0319;
1140.6000;0.3989;-1.0270;
1140.9000;0.3997;-1.0270;
1141.2000;0.3932;-1.0369;
1141.5000;0.3980;-1.0196;
1141.8000;0.3980;-1.0245;
1142.1000;0.3964;-1.0171;
1142.4000;0.3940;-1.0196;
1142.7000;0.3972;-1.0171;
1143.0000;0.3989;-1.0196;
1143.3000;0.3956;-1.0245;
1143.6000;0.3972;-1.0270;
1143.9000;0.3972;-1.0270;
1144.2000;0.3989;-1.0220;
1144.5000;0.4013;-1.0121;
1144.8000;0.3980;-1.0270;
1145.1000;0.4046;-1.0171;
1145.4000;0.4013;-1.0270;
1145.7000;0.3989;-1.0295;
1146.0000;0.3964;-1.0394;
1146.3000;0.3972;-1.0394;
1146.6000;0.3891;-1.0616;
1146.9000;0.3972;-1.0394;
1147.2000;0.3964;-1.0394;
1147.5000;0.3997;-1.0245;
1147.8000;0.3980;-1.0295;
1148.1000;0.3989;-1.0295;
1148.4000;0.3997;-1.0319;
1148.7000;0.4037;-1.0146;
1149.0000;0.3980;-1.0196;
1149.3000;0.4005;-1.0097;
1149.6000;0.3989;-1.0097;
1149.9000;0.3948;-1.0121;
1150.2000;0.3972;-1.0022;
1150.5000;0.4086;-0.9725;
1150.8000;0.3997;-1.0072;
1151.1000;0.3972;-1.0097;
1151.4000;0.3980;-1.0022;
1151.7000;0.3980;-0.9948;
1152.0000;0.3956;-1.0022;
1152.3000;0.3980;-0.9923;
1152.6000;0.3972;-1.0022;
1152.9000;0.3972;-1.0121;
1153.2000;0.4005;-1.0047;
1153.5000;0.3972;-1.0196;
1153.8000;0.3964;-1.0295;
1154.1000;0.3972;-1.0270;
1154.4000;0.3989;-1.0270;
1154.7000;0.3980;-1.0270;
1155.0000;0.3972;-1.0344;
1155.3000;0.3980;-1.0369;
1155.6000;0.3989;-1.0319;
1155.9000;0.3980;-1.0319;
1156.2000;0.3964;-1.0369;
1156.5000;0.3956;-1.0468;
1156.8000;0.3980;-1.0369;
1157.1000;0.3989;-1.0443;
1157.4000;0.3980;-1.0468;
1157.7000;0.3972;-1.0418;
1158.0000;0.3948;-1.0468;
1158.3000;0.3972;-1.0394;
1158.6000;0.3891;-1.0542;
1158.9000;0.3972;-1.0369;
1159.2000;0.3980;-1.0319;
1159.5000;0.3972;-1.0394;
1159.8000;0.3972;-1.0493;
1160.1000;0.3964;-1.0468;
1160.4000;0.3972;-1.0418;
1160.7000;0.3997;-1.0394;
1161.0000;0.3997;-1.0443;
1161.3000;0.3980;-1.0493;
1161.6000;0.3972;-1.0493;
1161.9000;0.3997;-1.0443;
1162.2000;0.3972;-1.0394;
1162.5000;0.3948;-1.0592;
1162.8000;0.3972;-1.0567;
1163.1000;0.3972;-1.0493;
1163.4000;0.4037;-1.0245;
1163.7000;0.3980;-1.0418;
1164.0000;0.3964;-1.0418;
1164.3000;0.3964;-1.0468;
1164.6000;0.3989;-1.0468;
1164.9000;0.3964;-1.0468;
1165.2000;0.3980;-1.0517;
1165.5000;0.4013;-1.0443;
1165.8000;0.3980;-1.0517;
1166.1000;0.3980;-1.0468;
1166.4000;0.4005;-1.0443;
1166.7000;0.3980;-1.0493;
1167.0000;0.3989;-1.0542;
1167.3000;0.3997;-1.0517;
1167.6000;0.3948;-1.0592;
1167.9000;0.3972;-1.0468;
1168.2000;0.3980;-1.0493;
1168.5000;0.3989;-1.0542;
1168.8000;0.3972;-1.0542;
1169.1000;0.4046;-1.0369;
1169.4000;0.3997;-1.0517;
1169.7000;0.3972;-1.0542;
1170.0000;0.3972;-1.0542;
1170.3000;0.3956;-1.0592;
1170.6000;0.4021;-1.0418;
1170.9000;0.3972;-1.0542;
1171.2000;0.3964;-1.0542;
1171.5000;0.4046;-1.0344;
1171.8000;0.3972;-1.0493;
1172.1000;0.3980;-1.0418;
1172.4000;0.3972;-1.0418;
1172.7000;0.3956;-1.0493;
1173.0000;0.3964;-1.0443;
1173.3000;0.3972;-1.0542;
1173.6000;0.3956;-1.0616;
1173.9000;0.3989;-1.0517;
1174.2000;0.3956;-1.0592;
1174.5000;0.3989;-1.0592;
1174.8000;0.3997;-1.0517;
1175.1000;0.3980;-1.0517;
1175.4000;0.3964;-1.0468;
1175.7000;0.3964;-1.0468;
1176.0000;0.4037;-1.0319;
1176.3000;0.3948;-1.0517;
1176.6000;0.4037;-1.0369;
1176.9000;0.3940;-1.0616;
1177.2000;0.3989;-1.0592;
1177.5000;0.3972;-1.0616;
1177.8000;0.3980;-1.0592;
1178.1000;0.3989;-1.0493;
1178.4000;0.3980;-1.0493;
1178.7000;0.3997;-1.0418;
1179.0000;0.3980;-1.0443;
1179.3000;0.3964;-1.0493;
1179.6000;0.3989;-1.0493;
1179.9000;0.4021;-1.0418;
1180.2000;0.3989;-1.0493;
1180.5000;0.3980;-1.0493;
1180.8000;0.3923;-1.0641;
1181.1000;0.3948;-1.0468;
1181.4000;0.3980;-1.0369;
1181.7000;0.3964;-1.0295;
1182.0000;0.3972;-1.0394;
1182.3000;0.3972;-1.0443;
1182.6000;0.3956;-1.0592;
1182.9000;0.3964;-1.0567;
1183.2000;0.3948;-1.0567;
1183.5000;0.3972;-1.0468;
1183.8000;0.3956;-1.0418;
1184.1000;0.3956;-1.0468;
1184.4000;0.3964;-1.0542;
1184.7000;0.3956;-1.0616;
1185.0000;0.3972;-1.0542;
1185.3000;0.3883;-1.0839;
1185.6000;0.3972;-1.0567;
1185.9000;0.3964;-1.0468;
1186.2000;0.3997;-1.0418;
1186.5000;0.3972;-1.0443;
1186.8000;0.3972;-1.0493;
1187.1000;0.3972;-1.0493;
1187.4000;0.4029;-1.0443;
1187.7000;0.3964;-1.0616;
1188.0000;0.3980;-1.0468;
1188.3000;0.3972;-1.0567;
1188.6000;0.3980;-1.0666;
1188.9000;0.3972;-1.0715;
1189.2000;0.3964;-1.0765;
1189.5000;0.3997;-1.0715;
1189.8000;0.3964;-1.0765;
1190.1000;0.3972;-1.0715;
1190.4000;0.3948;-1.0691;
1190.7000;0.3989;-1.0443;
1191.0000;0.3948;-1.0542;
1191.3000;0.3972;-1.0493;
1191.6000;0.4029;-1.0319;
1191.9000;0.3989;-1.0493;
1192.2000;0.3956;-1.0691;
1192.5000;0.3964;-1.0616;
1192.8000;0.3980;-1.0592;
1193.1000;0.3980;-1.0567;
1193.4000;0.3972;-1.0517;
1193.7000;0.3964;-1.0443;
1194.0000;0.3972;-1.0344;
1194.3000;0.3964;-1.0369;
1194.6000;0.3972;-1.0369;
1194.9000;0.3972;-1.0394;
1195.2000;0.3980;-1.0394;
1195.5000;0.3972;-1.0468;
1195.8000;0.3956;-1.0517;
1196.1000;0.3980;-1.0493;
1196.4000;0.3964;-1.0493;
1196.7000;0.3989;-1.0468;
1197.0000;0.3972;-1.0394;
1197.3000;0.3972;-1.0418;
1197.6000;0.3964;-1.0418;
1197.9000;0.3997;-1.0369;
1198.2000;0.3948;-1.0443;
1198.5000;0.3972;-1.0517;
1198.8000;0.3972;-1.0468;
1199.1000;0.3972;-1.0418;
1199.4000;0.3964;-1.0493;
1199.7000;0.3989;-1.0468;
1200.0000;0.3932;-1.0666;
1200.3000;0.3997;-1.0517;
1200.6000;0.3940;-1.0616;
1200.9000;0.3964;-1.0517;
1201.2000;0.3932;-1.0567;
1201.5000;0.3997;-1.0394;
1201.8000;0.3964;-1.0493;
1202.1000;0.3964;-1.0443;
1202.4000;0.3956;-1.0443;
1202.7000;0.3980;-1.0394;
1203.0000;0.4070;-1.0245;
1203.3000;0.3964;-1.0517;
1203.6000;0.3956;-1.0493;
1203.9000;0.3972;-1.0493;
1204.2000;0.3964;-1.0468;
1204.5000;0.3980;-1.0418;
1204.8000;0.3972;-1.0517;
1205.1000;0.3964;-1.0517;
1205.4000;0.3972;-1.0468;
1205.7000;0.3989;-1.0493;
1206.0000;0.3980;-1.0493;
1206.3000;0.3972;-1.0517;
1206.6000;0.4046;-1.0295;
1206.9000;0.3980;-1.0418;
1207.2000;0.4029;-1.0245;
1207.5000;0.3972;-1.0369;
1207.8000;0.3980;-1.0344;
1208.1000;0.3980;-1.0295;
1208.4000;0.3997;-1.0295;
1208.7000;0.3972;-1.0394;
1209.0000;0.3972;-1.0468;
1209.3000;0.3972;-1.0493;
1209.6000;0.3989;-1.0418;
1209.9000;0.3980;-1.0468;
1210.2000;0.3964;-1.0418;
1210.5000;0.3989;-1.0418;
1210.8000;0.3980;-1.0369;
1211.1000;0.3964;-1.0418;
1211.4000;0.3980;-1.0369;
1211.7000;0.4021;-1.0369;
1212.0000;0.3980;-1.0517;
1212.3000;0.3972;-1.0616;
1212.6000;0.3980;-1.0641;
1212.9000;0.3964;-1.0641;
1213.2000;0.3972;-1.0641;
1213.5000;0.3997;-1.0567;
1213.8000;0.3964;-1.0517;
1214.1000;0.3964;-1.0443;
1214.4000;0.3948;-1.0567;
1214.7000;0.4021;-1.0418;
1215.0000;0.3964;-1.0443;
1215.3000;0.3980;-1.0344;
1215.6000;0.3956;-1.0369;
1215.9000;0.3989;-1.0295;
1216.2000;0.3956;-1.0418;
1216.5000;0.3891;-1.0715;
1216.8000;0.3989;-1.0468;
1217.1000;0.3956;-1.0542;
1217.4000;0.3980;-1.0394;
1217.7000;0.3964;-1.0369;
1218.0000;0.3972;-1.0319;
1218.3000;0.3989;-1.0295;
1218.6000;0.3989;-1.0245;
1218.9000;0.3964;-1.0344;
1219.2000;0.3989;-1.0295;
1219.5000;0.3989;-1.0344;
1219.8000;0.3989;-1.0443;
1220.1000;0.3964;-1.0468;
1220.4000;0.3997;-1.0468;
1220.7000;0.3980;-1.0468;
1221.0000;0.3997;-1.0344;
1221.3000;0.3989;-1.0270;
1221.6000;0.3972;-1.0270;
1221.9000;0.3989;-1.0196;
1222.2000;0.3972;-1.0196;
1222.5000;0.3972;-1.0270;
1222.8000;0.3964;-1.0245;
1223.1000;0.3980;-1.0196;
1223.4000;0.3980;-1.0171;
1223.7000;0.3972;-1.0220;
1224.0000;0.3989;-1.0270;
1224.3000;0.3972;-1.0344;
1224.6000;0.3989;-1.0270;
1224.9000;0.3964;-1.0344;
1225.2000;0.3989;-1.0319;
1225.5000;0.3989;-1.0394;
1225.8000;0.3948;-1.0493;
1226.1000;0.3989;-1.0369;
1226.4000;0.4021;-1.0295;
1226.7000;0.3972;-1.0319;
1227.0000;0.3980;-1.0196;
1227.3000;0.4005;-1.0171;
1227.6000;0.3980;-1.0270;
1227.9000;0.3972;-1.0344;
1228.2000;0.4005;-1.0220;
1228.5000;0.3997;-1.0245;
1228.8000;0.3980;-1.0270;
1229.1000;0.4078;-1.0047;
1229.4000;0.3964;-1.0196;
1229.7000;0.3980;-1.0245;
1230.0000;0.3972;-1.0394;
1230.3000;0.3989;-1.0344;
1230.6000;0.3972;-1.0369;
1230.9000;0.3972;-1.0394;
1231.2000;0.3932;-1.0418;
1231.5000;0.4037;-1.0245;
1231.8000;0.3989;-1.0394;
1232.1000;0.3972;-1.0394;
1232.4000;0.3997;-1.0394;
1232.7000;0.3964;-1.0418;
1233.0000;0.3972;-1.0369;
1233.3000;0.3948;-1.0443;
1233.6000;0.3989;-1.0394;
1233.9000;0.3980;-1.0443;
1234.2000;0.3964;-1.0418;
1234.5000;0.4005;-1.0394;
1234.8000;0.3989;-1.0418;
1235.1000;0.4078;-1.0196;
1235.4000;0.3972;-1.0542;
1235.7000;0.3932;-1.0666;
1236.0000;0.3932;-1.0592;
1236.3000;0.3956;-1.0517;
1236.6000;0.3980;-1.0517;
1236.9000;0.3964;-1.0468;
1237.2000;0.3923;-1.0567;
1237.5000;0.4005;-1.0270;
1237.8000;0.3964;-1.0344;
1238.1000;0.3989;-1.0344;
1238.4000;0.3980;-1.0245;
1238.7000;0.3980;-1.0220;
1239.0000;0.3980;-1.0369;
1239.3000;0.3956;-1.0394;
1239.6000;0.3980;-1.0394;
1239.9000;0.3980;-1.0394;
1240.2000;0.3972;-1.0344;
1240.5000;0.3956;-1.0418;
1240.8000;0.3948;-1.0493;
1241.1000;0.3964;-1.0468;
1241.4000;0.3972;-1.0394;
1241.7000;0.3997;-1.0344;
1242.0000;0.3964;-1.0394;
1242.3000;0.3964;-1.0344;
1242.6000;0.3980;-1.0245;
1242.9000;0.3972;-1.0344;
1243.2000;0.3989;-1.0369;
1243.5000;0.3972;-1.0443;
1243.8000;0.3980;-1.0394;
1244.1000;0.4013;-1.0344;
1244.4000;0.3972;-1.0394;
1244.7000;0.4037;-1.0220;
1245.0000;0.3972;-1.0369;
1245.3000;0.3980;-1.0319;
1245.6000;0.3972;-1.0394;
1245.9000;0.3956;-1.0443;
1246.2000;0.4029;-1.0295;
1246.5000;0.3964;-1.0443;
1246.8000;0.3980;-1.0468;
1247.1000;0.3972;-1.0517;
1247.4000;0.3972;-1.0567;
1247.7000;0.3980;-1.0468;
1248.0000;0.3972;-1.0468;
1248.3000;0.3997;-1.0319;
1248.6000;0.3964;-1.0394;
1248.9000;0.4037;-1.0196;
1249.2000;0.4005;-1.0196;
1249.5000;0.3997;-1.0121;
1249.8000;0.3980;-1.0220;
1250.1000;0.3883;-1.0493;
1250.4000;0.3980;-1.0171;
1250.7000;0.3964;-1.0121;
1251.0000;0.3964;-1.0146;
1251.3000;0.3956;-1.0245;
1251.6000;0.3997;-1.0171;
1251.9000;0.3980;-1.0245;
1252.2000;0.3883;-1.0468;
1252.5000;0.3980;-1.0319;
1252.8000;0.3989;-1.0295;
1253.1000;0.3980;-1.0319;
1253.4000;0.4078;-1.0047;
1253.7000;0.3972;-1.0319;
1254.0000;0.3964;-1.0295;
1254.3000;0.4054;-0.9998;
1254.6000;0.3972;-1.0146;
1254.9000;0.3964;-1.0121;
1255.2000;0.3972;-1.0121;
1255.5000;0.3940;-1.0146;
1255.8000;0.3956;-1.0097;
1256.1000;0.3972;-1.0072;
1256.4000;0.3980;-1.0097;
1256.7000;0.3997;-1.0196;
1257.0000;0.3980;-1.0319;
1257.3000;0.3989;-1.0369;
1257.6000;0.3997;-1.0295;
1257.9000;0.3989;-1.0220;
1258.2000;0.3989;-1.0220;
1258.5000;0.3997;-1.0220;
1258.8000;0.3972;-1.0369;
1259.1000;0.3964;-1.0394;
1259.4000;0.3989;-1.0344;
1259.7000;0.3964;-1.0245;
1260.0000;0.3989;-1.0171;
1260.3000;0.3980;-1.0171;
1260.6000;0.3948;-1.0270;
1260.9000;0.3948;-1.0295;
1261.2000;0.4062;-1.0072;
1261.5000;0.3980;-1.0295;
1261.8000;0.3980;-1.0319;
1262.1000;0.3956;-1.0394;
1262.4000;0.3964;-1.0270;
1262.7000;0.3972;-1.0146;
1263.0000;0.3980;-1.0072;
1263.3000;0.3989;-1.0047;
1263.6000;0.3980;-1.0047;
1263.9000;0.3989;-1.0047;
1264.2000;0.3989;-1.0121;
1264.5000;0.4037;-0.9948;
1264.8000;0.3964;-1.0196;
1265.1000;0.3972;-1.0146;
1265.4000;0.3980;-1.0121;
1265.7000;0.4013;-1.0047;
1266.0000;0.3948;-1.0220;
1266.3000;0.3989;-1.0121;
1266.6000;0.3932;-1.0295;
1266.9000;0.3956;-1.0245;
1267.2000;0.3980;-1.0245;
1267.5000;0.3989;-1.0245;
1267.8000;0.3989;-1.0270;
1268.1000;0.3980;-1.0319;
1268.4000;0.3980;-1.0319;
1268.7000;0.3997;-1.0295;
1269.0000;0.3980;-1.0344;
1269.3000;0.3989;-1.0319;
1269.6000;0.3997;-1.0295;
1269.9000;0.3989;-1.0295;
1270.2000;0.3964;-1.0443;
1270.5000;0.3972;-1.0468;
1270.8000;0.3989;-1.0443;
1271.1000;0.3932;-1.0567;
1271.4000;0.3964;-1.0616;
1271.7000;0.3980;-1.0517;
1272.0000;0.3980;-1.0493;
1272.3000;0.4021;-1.0319;
1272.6000;0.3964;-1.0468;
1272.9000;0.3997;-1.0493;
1273.2000;0.3923;-1.0715;
1273.5000;0.3980;-1.0542;
1273.8000;0.3997;-1.0517;
1274.1000;0.3980;-1.0517;
1274.4000;0.3997;-1.0418;
1274.7000;0.3964;-1.0418;
1275.0000;0.3989;-1.0468;
1275.3000;0.3997;-1.0394;
1275.6000;0.3972;-1.0394;
1275.9000;0.3989;-1.0295;
1276.2000;0.4070;-1.0097;
1276.5000;0.3989;-1.0369;
1276.8000;0.3980;-1.0443;
1277.1000;0.3972;-1.0443;
1277.4000;0.4005;-1.0443;
1277.7000;0.3948;-1.0592;
1278.0000;0.3964;-1.0443;
1278.3000;0.3980;-1.0394;
1278.6000;0.3972;-1.0443;
1278.9000;0.3972;-1.0270;
1279.2000;0.4005;-1.0196;
1279.5000;0.4013;-1.0270;
1279.8000;0.3980;-1.0220;
1280.1000;0.3932;-1.0295;
1280.4000;0.3980;-1.0196;
1280.7000;0.3980;-1.0270;
1281.0000;0.3964;-1.0270;
1281.3000;0.3956;-1.0369;
1281.6000;0.3956;-1.0394;
1281.9000;0.3964;-1.0394;
1282.2000;0.3883;-1.0666;
1282.5000;0.3980;-1.0369;
1282.8000;0.3972;-1.0418;
1283.1000;0.3980;-1.0369;
1283.4000;0.3980;-1.0270;
1283.7000;0.3972;-1.0270;
1284.0000;0.3989;-1.0270;
1284.3000;0.3980;-1.0394;
1284.6000;0.4005;-1.0369;
1284.9000;0.3989;-1.0344;
1285.2000;0.3964;-1.0493;
1285.5000;0.3972;-1.0418;
1285.8000;0.3972;-1.0319;
1286.1000;0.3980;-1.0369;
1286.4000;0.3964;-1.0319;
1286.7000;0.3964;-1.0369;
1287.0000;0.3972;-1.0319;
1287.3000;0.3989;-1.0319;
1287.6000;0.3989;-1.0245;
1287.9000;0.3932;-1.0270;
1288.2000;0.3980;-1.0072;
1288.5000;0.3972;-1.0121;
1288.8000;0.3989;-1.0072;
1289.1000;0.3972;-1.0196;
1289.4000;0.3989;-1.0196;
1289.7000;0.3989;-1.0319;
1290.0000;0.3989;-1.0344;
1290.3000;0.3989;-1.0369;
1290.6000;0.3980;-1.0270;
1290.9000;0.3972;-1.0319;
1291.2000;0.3980;-1.0394;
1291.5000;0.3972;-1.0418;
1291.8000;0.3972;-1.0517;
1292.1000;0.3948;-1.0493;
1292.4000;0.4005;-1.0270;
1292.7000;0.3907;-1.0418;
1293.0000;0.4021;-1.0196;
1293.3000;0.3964;-1.0220;
1293.6000;0.3989;-1.0196;
1293.9000;0.4005;-1.0245;
1294.2000;0.3956;-1.0344;
1294.5000;0.3989;-1.0270;
1294.8000;0.3972;-1.0245;
1295.1000;0.4013;-1.0121;
1295.4000;0.3972;-1.0245;
1295.7000;0.3972;-1.0245;
1296.0000;0.3948;-1.0220;
1296.3000;0.3980;-1.0121;
1296.6000;0.3964;-1.0121;
1296.9000;0.3923;-1.0270;
1297.2000;0.4013;-1.0047;
1297.5000;0.3972;-1.0171;
1297.8000;0.3964;-1.0196;
1298.1000;0.3940;-1.0295;
1298.4000;0.3980;-1.0344;
1298.7000;0.3997;-1.0295;
1299.0000;0.3980;-1.0344;
1299.3000;0.4005;-1.0295;
1299.6000;0.3980;-1.0270;
1299.9000;0.3980;-1.0270;
1300.2000;0.3980;-1.0245;
1300.5000;0.3989;-1.0196;
1300.8000;0.3980;-1.0270;
1301.1000;0.3989;-1.0245;
1301.4000;0.3972;-1.0245;
1301.7000;0.3989;-1.0220;
1302.0000;0.3964;-1.0369;
1302.3000;0.3964;-1.0295;
1302.6000;0.3989;-1.0270;
1302.9000;0.3980;-1.0394;
1303.2000;0.3972;-1.0344;
1303.5000;0.3980;-1.0418;
1303.8000;0.3972;-1.0443;
1304.1000;0.3989;-1.0369;
1304.4000;0.3980;-1.0319;
1304.7000;0.4021;-1.0220;
1305.0000;0.3964;-1.0295;
1305.3000;0.3964;-1.0245;
1305.6000;0.3972;-1.0319;
1305.9000;0.3980;-1.0344;
1306.2000;0.4046;-1.0121;
1306.5000;0.3989;-1.0245;
1306.8000;0.3989;-1.0171;
1307.1000;0.3980;-1.0220;
1307.4000;0.3972;-1.0196;
1307.7000;0.3989;-1.0220;
1308.0000;0.3989;-1.0245;
1308.3000;0.3989;-1.0171;
1308.6000;0.3989;-1.0097;
1308.9000;0.3997;-1.0072;
1309.2000;0.3964;-1.0171;
1309.5000;0.3956;-1.0220;
1309.8000;0.3989;-1.0196;
1310.1000;0.3997;-1.0220;
1310.4000;0.3972;-1.0369;
1310.7000;0.3972;-1.0394;
1311.0000;0.3972;-1.0369;
1311.3000;0.3989;-1.0295;
1311.6000;0.3980;-1.0270;
1311.9000;0.4013;-1.0220;
1312.2000;0.3972;-1.0319;
1312.5000;0.3980;-1.0270;
1312.8000;0.3980;-1.0220;
1313.1000;0.3989;-1.0196;
1313.4000;0.3964;-1.0245;
1313.7000;0.3989;-1.0171;
1314.0000;0.3980;-1.0270;
1314.3000;0.3972;-1.0394;
1314.6000;0.4005;-1.0394;
1314.9000;0.3980;-1.0468;
1315.2000;0.3980;-1.0418;
1315.5000;0.4013;-1.0369;
1315.8000;0.3972;-1.0443;
1316.1000;0.3997;-1.0295;
1316.4000;0.3989;-1.0295;
1316.7000;0.4005;-1.0295;
1317.0000;0.4005;-1.0319;
1317.3000;0.3964;-1.0369;
1317.6000;0.3989;-1.0394;
1317.9000;0.3997;-1.0344;
1318.2000;0.3964;-1.0394;
1318.5000;0.3972;-1.0394;
1318.8000;0.3964;-1.0493;
1319.1000;0.3891;-1.0691;
1319.4000;0.3989;-1.0443;
1319.7000;0.3980;-1.0542;
1320.0000;0.3989;-1.0418;
1320.3000;0.3997;-1.0295;
1320.6000;0.3997;-1.0270;
1320.9000;0.3989;-1.0220;
1321.2000;0.4046;-1.0072;
1321.5000;0.3989;-1.0245;
1321.8000;0.3980;-1.0295;
1322.1000;0.3989;-1.0319;
1322.4000;0.3964;-1.0295;
1322.7000;0.4013;-1.0196;
1323.0000;0.3980;-1.0344;
1323.3000;0.4021;-1.0245;
1323.6000;0.3980;-1.0394;
1323.9000;0.3980;-1.0418;
1324.2000;0.4005;-1.0295;
1324.5000;0.3980;-1.0344;
1324.8000;0.3980;-1.0344;
1325.1000;0.3972;-1.0344;
1325.4000;0.3997;-1.0369;
1325.7000;0.3972;-1.0394;
1326.0000;0.3989;-1.0344;
1326.3000;0.3964;-1.0394;
1326.6000;0.3989;-1.0319;
1326.9000;0.3989;-1.0270;
1327.2000;0.3972;-1.0295;
1327.5000;0.3989;-1.0220;
1327.8000;0.3972;-1.0319;
1328.1000;0.3997;-1.0245;
1328.4000;0.3972;-1.0369;
1328.7000;0.3980;-1.0295;
1329.0000;0.3997;-1.0295;
1329.3000;0.3997;-1.0270;
1329.6000;0.3989;-1.0319;
1329.9000;0.4005;-1.0245;
1330.2000;0.3972;-1.0344;
1330.5000;0.3972;-1.0394;
1330.8000;0.3940;-1.0517;
1331.1000;0.3989;-1.0418;
1331.4000;0.4013;-1.0468;
1331.7000;0.3972;-1.0542;
1332.0000;0.3989;-1.0493;
1332.3000;0.3972;-1.0542;
1332.6000;0.3989;-1.0592;
1332.9000;0.3997;-1.0517;
1333.2000;0.3989;-1.0493;
1333.5000;0.3980;-1.0616;
1333.8000;0.3997;-1.0567;
1334.1000;0.3972;-1.0567;
1334.4000;0.3972;-1.0443;
1334.7000;0.3932;-1.0468;
1335.0000;0.3972;-1.0319;
1335.3000;0.3956;-1.0344;
1335.6000;0.3980;-1.0270;
1335.9000;0.3923;-1.0443;
1336.2000;0.3980;-1.0369;
1336.5000;0.3972;-1.0369;
1336.8000;0.3956;-1.0394;
1337.1000;0.3997;-1.0245;
1337.4000;0.3964;-1.0220;
1337.7000;0.3948;-1.0220;
1338.0000;0.3972;-1.0196;
1338.3000;0.3997;-1.0121;
1338.6000;0.3972;-1.0196;
1338.9000;0.3964;-1.0196;
1339.2000;0.3980;-1.0245;
1339.5000;0.3989;-1.0270;
1339.8000;0.3956;-1.0344;
1340.1000;0.3997;-1.0245;
1340.4000;0.3989;-1.0270;
1340.7000;0.3972;-1.0270;
1341.0000;0.4005;-1.0319;
1341.3000;0.3989;-1.0418;
1341.6000;0.3972;-1.0517;
1341.9000;0.3956;-1.0468;
1342.2000;0.3997;-1.0369;
1342.5000;0.3989;-1.0295;
1342.8000;0.3972;-1.0319;
1343.1000;0.4029;-1.0270;
1343.4000;0.4005;-1.0220;
1343.7000;0.3989;-1.0295;
1344.0000;0.3972;-1.0319;
1344.3000;0.4046;-1.0121;
1344.6000;0.3923;-1.0443;
1344.9000;0.3980;-1.0319;
1345.2000;0.3972;-1.0295;
1345.5000;0.3948;-1.0418;
1345.8000;0.3997;-1.0295;
1346.1000;0.3964;-1.0319;
1346.4000;0.3956;-1.0369;
1346.7000;0.3980;-1.0369;
1347.0000;0.3972;-1.0468;
1347.3000;0.3980;-1.0394;
1347.6000;0.4046;-1.0196;
1347.9000;0.3972;-1.0443;
1348.2000;0.3989;-1.0468;
1348.5000;0.3980;-1.0468;
1348.8000;0.3997;-1.0394;
1349.1000;0.3989;-1.0468;
1349.4000;0.3980;-1.0567;
1349.7000;0.3972;-1.0641;
1350.0000;0.3980;-1.0517;
1350.3000;0.3891;-1.0889;
1350.6000;0.4062;-1.0443;
1350.9000;0.4021;-1.0641;
1351.2000;0.4013;-1.0641;
1351.5000;0.3989;-1.0765;
1351.8000;0.3964;-1.0790;
1352.1000;0.4013;-1.0715;
1352.4000;0.3964;-1.0864;
1352.7000;0.3964;-1.0864;
1353.0000;0.3883;-1.0938;
1353.3000;0.4021;-1.0616;
1353.6000;0.3989;-1.0740;
1353.9000;0.3980;-1.0814;
1354.2000;0.3989;-1.0790;
1354.5000;0.3989;-1.0740;
1354.8000;0.3980;-1.0691;
1355.1000;0.3972;-1.0592;
1355.4000;0.4013;-1.0418;
1355.7000;0.3964;-1.0517;
1356.0000;0.3972;-1.0567;
1356.3000;0.3948;-1.0616;
1356.6000;0.3972;-1.0592;
1356.9000;0.4005;-1.0369;
1357.2000;0.3980;-1.0394;
1357.5000;0.4005;-1.0394;
1357.8000;0.3980;-1.0443;
1358.1000;0.3989;-1.0394;
1358.4000;0.3997;-1.0369;
1358.7000;0.3989;-1.0443;
1359.0000;0.3972;-1.0394;
1359.3000;0.3956;-1.0443;
1359.6000;0.3932;-1.0542;
1359.9000;0.3980;-1.0443;
1360.2000;0.3989;-1.0418;
1360.5000;0.3980;-1.0344;
1360.8000;0.3964;-1.0443;
1361.1000;0.3980;-1.0369;
1361.4000;0.3989;-1.0369;
1361.7000;0.3997;-1.0418;
1362.0000;0.3980;-1.0493;
1362.3000;0.3980;-1.0443;
1362.6000;0.4013;-1.0394;
1362.9000;0.3989;-1.0641;
1363.2000;0.3989;-1.0592;
1363.5000;0.3980;-1.0641;
1363.8000;0.4021;-1.0468;
1364.1000;0.3980;-1.0493;
1364.4000;0.4070;-1.0344;
1364.7000;0.3907;-1.0765;
1365.0000;0.3972;-1.0666;
1365.3000;0.3989;-1.0641;
1365.6000;0.3899;-1.0839;
1365.9000;0.3989;-1.0542;
1366.2000;0.4005;-1.0443;
1366.5000;0.3980;-1.0394;
1366.8000;0.3980;-1.0270;
1367.1000;0.3923;-1.0443;
1367.4000;0.3972;-1.0369;
1367.7000;0.3956;-1.0394;
1368.0000;0.3972;-1.0394;
1368.3000;0.3997;-1.0443;
1368.6000;0.3972;-1.0344;
1368.9000;0.3980;-1.0196;
1369.2000;0.4005;-1.0146;
1369.5000;0.4086;-0.9998;
1369.8000;0.3940;-1.0319;
1370.1000;0.3997;-1.0245;
1370.4000;0.3989;-1.0270;
1370.7000;0.3956;-1.0369;
1371.0000;0.3989;-1.0220;
1371.3000;0.3997;-1.0196;
1371.6000;0.3972;-1.0245;
1371.9000;0.3956;-1.0270;
1372.2000;0.3997;-1.0220;
1372.5000;0.4005;-1.0344;
1372.8000;0.4054;-1.0220;
1373.1000;0.3980;-1.0443;
1373.4000;0.3972;-1.0443;
1373.7000;0.3980;-1.0517;
1374.0000;0.3989;-1.0418;
1374.3000;0.3948;-1.0567;
1374.6000;0.4029;-1.0418;
1374.9000;0.4013;-1.0493;
1375.2000;0.3980;-1.0517;
1375.5000;0.3989;-1.0443;
1375.8000;0.4037;-1.0196;
1376.1000;0.3980;-1.0295;
1376.4000;0.3932;-1.0443;
1376.7000;0.3980;-1.0295;
1377.0000;0.3923;-1.0443;
1377.3000;0.4037;-1.0171;
1377.6000;0.4029;-1.0270;
1377.9000;0.3997;-1.0394;
1378.2000;0.3989;-1.0443;
1378.5000;0.3989;-1.0295;
1378.8000;0.3956;-1.0369;
1379.1000;0.3989;-1.0319;
1379.4000;0.3980;-1.0245;
1379.7000;0.3972;-1.0270;
1380.0000;0.3972;-1.0344;
1380.3000;0.3980;-1.0270;
1380.6000;0.3980;-1.0369;
1380.9000;0.3989;-1.0319;
1381.2000;0.3980;-1.0295;
1381.5000;0.3956;-1.0394;
1381.8000;0.3989;-1.0319;
1382.1000;0.3980;-1.0394;
1382.4000;0.3972;-1.0443;
1382.7000;0.3972;-1.0468;
1383.0000;0.3980;-1.0443;
1383.3000;0.4005;-1.0468;
1383.6000;0.3972;-1.0468;
1383.9000;0.3964;-1.0468;
1384.2000;0.3980;-1.0517;
1384.5000;0.4005;-1.0443;
1384.8000;0.3964;-1.0517;
1385.1000;0.3989;-1.0418;
1385.4000;0.3989;-1.0369;
1385.7000;0.3989;-1.0295;
1386.0000;0.3997;-1.0295;
1386.3000;0.4021;-1.0220;
1386.6000;0.4021;-1.0220;
1386.9000;0.3989;-1.0295;
1387.2000;0.3972;-1.0418;
1387.5000;0.3964;-1.0418;
1387.8000;0.3932;-1.0443;
1388.1000;0.3997;-1.0220;
1388.4000;0.3980;-1.0245;
1388.7000;0.3948;-1.0270;
1389.0000;0.3972;-1.0196;
1389.3000;0.3956;-1.0344;
1389.6000;0.4029;-1.0072;
1389.9000;0.3980;-1.0196;
1390.2000;0.3899;-1.0418;
1390.5000;0.3989;-1.0319;
1390.8000;0.3997;-1.0319;
1391.1000;0.3989;-1.0270;
1391.4000;0.3989;-1.0295;
1391.7000;0.4005;-1.0220;
1392.0000;0.3980;-1.0270;
1392.3000;0.3980;-1.0319;
1392.6000;0.3980;-1.0295;
1392.9000;0.3980;-1.0295;
1393.2000;0.4029;-1.0171;
1393.5000;0.3997;-1.0245;
1393.8000;0.3972;-1.0295;
1394.1000;0.3907;-1.0567;
1394.4000;0.3980;-1.0369;
1394.7000;0.3980;-1.0344;
1395.0000;0.4005;-1.0319;
1395.3000;0.3980;-1.0319;
1395.6000;0.3980;-1.0319;
1395.9000;0.3989;-1.0295;
1396.2000;0.3989;-1.0270;
1396.5000;0.3989;-1.0220;
1396.8000;0.3989;-1.0245;
1397.1000;0.3989;-1.0270;
1397.4000;0.3980;-1.0270;
1397.7000;0.3980;-1.0344;
1398.0000;0.3997;-1.0295;
1398.3000;0.3989;-1.0319;
1398.6000;0.3989;-1.0270;
1398.9000;0.3997;-1.0319;
1399.2000;0.4005;-1.0344;
1399.5000;0.3989;-1.0418;
1399.8000;0.3972;-1.0394;
