time/ms;Fluo/V;P700 deltaI/I x10³;
-199.8000;0.4103;-1.0740;
-199.5000;0.4078;-1.0790;
-199.2000;0.4078;-1.0864;
-198.9000;0.4094;-1.0790;
-198.6000;0.4078;-1.0765;
-198.3000;0.4094;-1.0715;
-198.0000;0.4094;-1.0592;
-197.7000;0.4086;-1.0592;
-197.4000;0.4086;-1.0641;
-197.1000;0.4119;-1.0517;
-196.8000;0.4086;-1.0567;
-196.5000;0.4111;-1.0443;
-196.2000;0.4094;-1.0468;
-195.9000;0.4111;-1.0493;
-195.6000;0.4111;-1.0493;
-195.3000;0.4119;-1.0493;
-195.0000;0.4103;-1.0567;
-194.7000;0.4094;-1.0592;
-194.4000;0.4103;-1.0542;
-194.1000;0.4094;-1.0641;
-193.8000;0.4086;-1.0715;
-193.5000;0.4111;-1.0641;
-193.2000;0.4103;-1.0641;
-192.9000;0.4127;-1.0567;
-192.6000;0.4111;-1.0542;
-192.3000;0.4086;-1.0616;
-192.0000;0.4103;-1.0641;
-191.7000;0.4086;-1.0641;
-191.4000;0.4103;-1.0468;
-191.1000;0.4111;-1.0493;
-190.8000;0.4119;-1.0517;
-190.5000;0.4029;-1.0691;
-190.2000;0.4111;-1.0468;
-189.9000;0.4086;-1.0616;
-189.6000;0.4111;-1.0641;
-189.3000;0.4119;-1.0542;
-189.0000;0.4078;-1.0567;
-188.7000;0.4103;-1.0517;
-188.4000;0.4111;-1.0418;
-188.1000;0.4094;-1.0394;
-187.8000;0.4094;-1.0493;
-187.5000;0.4086;-1.0493;
-187.2000;0.4086;-1.0493;
-186.9000;0.4070;-1.0542;
-186.6000;0.4094;-1.0468;
-186.3000;0.4119;-1.0394;
-186.0000;0.4103;-1.0443;
-185.7000;0.4094;-1.0443;
-185.4000;0.4078;-1.0468;
-185.1000;0.4111;-1.0468;
-184.8000;0.4086;-1.0517;
-184.5000;0.4086;-1.0542;
-184.2000;0.4086;-1.0493;
-183.9000;0.4086;-1.0592;
-183.6000;0.4103;-1.0542;
-183.3000;0.4086;-1.0592;
-183.0000;0.4103;-1.0567;
-182.7000;0.4119;-1.0567;
-182.4000;0.4103;-1.0641;
-182.1000;0.4119;-1.0542;
-181.8000;0.4103;-1.0493;
-181.5000;0.4062;-1.0517;
-181.2000;0.4103;-1.0418;
-180.9000;0.4103;-1.0443;
-180.6000;0.4086;-1.0493;
-180.3000;0.4094;-1.0517;
-180.0000;0.4111;-1.0468;
-179.7000;0.4103;-1.0443;
-179.4000;0.4111;-1.0517;
-179.1000;0.4086;-1.0666;
-178.8000;0.4094;-1.0567;
-178.5000;0.4094;-1.0493;
-178.2000;0.4094;-1.0443;
-177.9000;0.4103;-1.0394;
-177.6000;0.4078;-1.0369;
-177.3000;0.4078;-1.0468;
-177.0000;0.4029;-1.0592;
-176.7000;0.4086;-1.0369;
-176.4000;0.4078;-1.0418;
-176.1000;0.4135;-1.0369;
-175.8000;0.4094;-1.0468;
-175.5000;0.4078;-1.0567;
-175.2000;0.4103;-1.0493;
-174.9000;0.4078;-1.0542;
-174.6000;0.4103;-1.0418;
-174.3000;0.4111;-1.0319;
-174.0000;0.4086;-1.0394;
-173.7000;0.4103;-1.0418;
-173.4000;0.4168;-1.0295;
-173.1000;0.4103;-1.0468;
-172.8000;0.4103;-1.0468;
-172.5000;0.4103;-1.0443;
-172.2000;0.4111;-1.0468;
-171.9000;0.4086;-1.0542;
-171.6000;0.4103;-1.0542;
-171.3000;0.4094;-1.0542;
-171.0000;0.4078;-1.0517;
-170.7000;0.4111;-1.0468;
-170.4000;0.4111;-1.0517;
-170.1000;0.4094;-1.0542;
-169.8000;0.4111;-1.0468;
-169.5000;0.4111;-1.0493;
-169.2000;0.4094;-1.0517;
-168.9000;0.4103;-1.0443;
-168.6000;0.4086;-1.0319;
-168.3000;0.4094;-1.0270;
-168.0000;0.4094;-1.0270;
-167.7000;0.4086;-1.0220;
-167.4000;0.4094;-1.0245;
-167.1000;0.4086;-1.0369;
-166.8000;0.4103;-1.0394;
-166.5000;0.4086;-1.0443;
-166.2000;0.4111;-1.0344;
-165.9000;0.4111;-1.0394;
-165.6000;0.4119;-1.0369;
-165.3000;0.4086;-1.0493;
-165.0000;0.4119;-1.0369;
-164.7000;0.4103;-1.0369;
-164.4000;0.4111;-1.0418;
-164.1000;0.4103;-1.0369;
-163.8000;0.4119;-1.0319;
-163.5000;0.4078;-1.0394;
-163.2000;0.4111;-1.0369;
-162.9000;0.4111;-1.0369;
-162.6000;0.4070;-1.0443;
-162.3000;0.4078;-1.0468;
-162.0000;0.4094;-1.0493;
-161.7000;0.4070;-1.0517;
-161.4000;0.4094;-1.0418;
-161.1000;0.4103;-1.0344;
-160.8000;0.4070;-1.0344;
-160.5000;0.4070;-1.0394;
-160.2000;0.4143;-1.0220;
-159.9000;0.4094;-1.0418;
-159.6000;0.4086;-1.0567;
-159.3000;0.4094;-1.0493;
-159.0000;0.4103;-1.0567;
-158.7000;0.4094;-1.0616;
-158.4000;0.4094;-1.0641;
-158.1000;0.4103;-1.0641;
-157.8000;0.4103;-1.0567;
-157.5000;0.4086;-1.0592;
-157.2000;0.4070;-1.0493;
-156.9000;0.4151;-1.0270;
-156.6000;0.4086;-1.0443;
-156.3000;0.4103;-1.0443;
-156.0000;0.4070;-1.0517;
-155.7000;0.4103;-1.0443;
-155.4000;0.4119;-1.0344;
-155.1000;0.4094;-1.0394;
-154.8000;0.4086;-1.0443;
-154.5000;0.4046;-1.0666;
-154.2000;0.4111;-1.0443;
-153.9000;0.4111;-1.0443;
-153.6000;0.4078;-1.0567;
-153.3000;0.4094;-1.0493;
-153.0000;0.4103;-1.0468;
-152.7000;0.4062;-1.0493;
-152.4000;0.4094;-1.0468;
-152.1000;0.4094;-1.0468;
-151.8000;0.4094;-1.0418;
-151.5000;0.4103;-1.0418;
-151.2000;0.4103;-1.0418;
-150.9000;0.4094;-1.0443;
-150.6000;0.4111;-1.0418;
-150.3000;0.4143;-1.0196;
-150.0000;0.4127;-1.0196;
-149.7000;0.4135;-1.0220;
-149.4000;0.4094;-1.0394;
-149.1000;0.4103;-1.0394;
-148.8000;0.4086;-1.0468;
-148.5000;0.4094;-1.0443;
-148.2000;0.4078;-1.0493;
-147.9000;0.4103;-1.0394;
-147.6000;0.4111;-1.0344;
-147.3000;0.4103;-1.0344;
-147.0000;0.4086;-1.0369;
-146.7000;0.4094;-1.0418;
-146.4000;0.4094;-1.0443;
-146.1000;0.4086;-1.0468;
-145.8000;0.4094;-1.0517;
-145.5000;0.4103;-1.0493;
-145.2000;0.4094;-1.0493;
-144.9000;0.4103;-1.0493;
-144.6000;0.4111;-1.0616;
-144.3000;0.4119;-1.0691;
-144.0000;0.4094;-1.0814;
-143.7000;0.4094;-1.0740;
-143.4000;0.4086;-1.0765;
-143.1000;0.4054;-1.0864;
-142.8000;0.4111;-1.0641;
-142.5000;0.4119;-1.0592;
-142.2000;0.4111;-1.0592;
-141.9000;0.4094;-1.0616;
-141.6000;0.4094;-1.0542;
-141.3000;0.4111;-1.0468;
-141.0000;0.4111;-1.0443;
-140.7000;0.4086;-1.0542;
-140.4000;0.4111;-1.0493;
-140.1000;0.4094;-1.0567;
-139.8000;0.4086;-1.0616;
-139.5000;0.4078;-1.0691;
-139.2000;0.4094;-1.0616;
-138.9000;0.4078;-1.0691;
-138.6000;0.4103;-1.0666;
-138.3000;0.4184;-1.0493;
-138.0000;0.4103;-1.0666;
-137.7000;0.4111;-1.0666;
-137.4000;0.4094;-1.0765;
-137.1000;0.4094;-1.0790;
-136.8000;0.4070;-1.0765;
-136.5000;0.4086;-1.0691;
-136.2000;0.4078;-1.0666;
-135.9000;0.4103;-1.0493;
-135.6000;0.4094;-1.0567;
-135.3000;0.4103;-1.0567;
-135.0000;0.4103;-1.0542;
-134.7000;0.4103;-1.0517;
-134.4000;0.4094;-1.0542;
-134.1000;0.4086;-1.0517;
-133.8000;0.4119;-1.0468;
-133.5000;0.4094;-1.0517;
-133.2000;0.4103;-1.0493;
-132.9000;0.4103;-1.0542;
-132.6000;0.4111;-1.0517;
-132.3000;0.4094;-1.0567;
-132.0000;0.4103;-1.0567;
-131.7000;0.4119;-1.0567;
-131.4000;0.4127;-1.0542;
-131.1000;0.4103;-1.0592;
-130.8000;0.4086;-1.0666;
-130.5000;0.4103;-1.0715;
-130.2000;0.4103;-1.0616;
-129.9000;0.4094;-1.0641;
-129.6000;0.4103;-1.0592;
-129.3000;0.4111;-1.0592;
-129.0000;0.4160;-1.0344;
-128.7000;0.4127;-1.0418;
-128.4000;0.4103;-1.0493;
-128.1000;0.4103;-1.0592;
-127.8000;0.4086;-1.0691;
-127.5000;0.4111;-1.0715;
-127.2000;0.4086;-1.0740;
-126.9000;0.4086;-1.0691;
-126.6000;0.4086;-1.0691;
-126.3000;0.4111;-1.0616;
-126.0000;0.4119;-1.0567;
-125.7000;0.4103;-1.0592;
-125.4000;0.4086;-1.0616;
-125.1000;0.4135;-1.0542;
-124.8000;0.4135;-1.0517;
-124.5000;0.4103;-1.0666;
-124.2000;0.4086;-1.0740;
-123.9000;0.4160;-1.0493;
-123.6000;0.4094;-1.0641;
-123.3000;0.4094;-1.0666;
-123.0000;0.4111;-1.0592;
-122.7000;0.4119;-1.0517;
-122.4000;0.4103;-1.0542;
-122.1000;0.4103;-1.0443;
-121.8000;0.4103;-1.0394;
-121.5000;0.4103;-1.0443;
-121.2000;0.4143;-1.0319;
-120.9000;0.4086;-1.0493;
-120.6000;0.4078;-1.0517;
-120.3000;0.4086;-1.0443;
-120.0000;0.4086;-1.0394;
-119.7000;0.4078;-1.0493;
-119.4000;0.4086;-1.0418;
-119.1000;0.4094;-1.0394;
-118.8000;0.4094;-1.0369;
-118.5000;0.4119;-1.0344;
-118.2000;0.4143;-1.0171;
-117.9000;0.4103;-1.0295;
-117.6000;0.4111;-1.0319;
-117.3000;0.4103;-1.0295;
-117.0000;0.4037;-1.0493;
-116.7000;0.4086;-1.0369;
-116.4000;0.4078;-1.0468;
-116.1000;0.4086;-1.0542;
-115.8000;0.4054;-1.0641;
-115.5000;0.4078;-1.0493;
-115.2000;0.4086;-1.0468;
-114.9000;0.4094;-1.0567;
-114.6000;0.4078;-1.0616;
-114.3000;0.4086;-1.0666;
-114.0000;0.4094;-1.0641;
-113.7000;0.4176;-1.0369;
-113.4000;0.4103;-1.0517;
-113.1000;0.4111;-1.0468;
-112.8000;0.4119;-1.0418;
-112.5000;0.4078;-1.0542;
-112.2000;0.4086;-1.0443;
-111.9000;0.4086;-1.0468;
-111.6000;0.4086;-1.0517;
-111.3000;0.4086;-1.0394;
-111.0000;0.4086;-1.0418;
-110.7000;0.4111;-1.0468;
-110.4000;0.4094;-1.0468;
-110.1000;0.4086;-1.0468;
-109.8000;0.4111;-1.0394;
-109.5000;0.4078;-1.0493;
-109.2000;0.4111;-1.0418;
-108.9000;0.4086;-1.0468;
-108.6000;0.4103;-1.0418;
-108.3000;0.4094;-1.0468;
-108.0000;0.4094;-1.0418;
-107.7000;0.4078;-1.0567;
-107.4000;0.4135;-1.0369;
-107.1000;0.4086;-1.0567;
-106.8000;0.4111;-1.0468;
-106.5000;0.4037;-1.0567;
-106.2000;0.4021;-1.0641;
-105.9000;0.4078;-1.0592;
-105.6000;0.4094;-1.0542;
-105.3000;0.4070;-1.0567;
-105.0000;0.4037;-1.0592;
-104.7000;0.4094;-1.0468;
-104.4000;0.4160;-1.0295;
-104.1000;0.4103;-1.0517;
-103.8000;0.4094;-1.0517;
-103.5000;0.4160;-1.0270;
-103.2000;0.4143;-1.0394;
-102.9000;0.4103;-1.0418;
-102.6000;0.4094;-1.0443;
-102.3000;0.4103;-1.0468;
-102.0000;0.4103;-1.0443;
-101.7000;0.4086;-1.0493;
-101.4000;0.4135;-1.0394;
-101.1000;0.4070;-1.0517;
-100.8000;0.4103;-1.0493;
-100.5000;0.4103;-1.0493;
-100.2000;0.4094;-1.0517;
-99.9000;0.4086;-1.0493;
-99.6000;0.4086;-1.0394;
-99.3000;0.4127;-1.0295;
-99.0000;0.4094;-1.0394;
-98.7000;0.4094;-1.0344;
-98.4000;0.4103;-1.0319;
-98.1000;0.4111;-1.0270;
-97.8000;0.4094;-1.0319;
-97.5000;0.4111;-1.0443;
-97.2000;0.4111;-1.0418;
-96.9000;0.4111;-1.0319;
-96.6000;0.4094;-1.0344;
-96.3000;0.4119;-1.0344;
-96.0000;0.4103;-1.0468;
-95.7000;0.4111;-1.0443;
-95.4000;0.4094;-1.0542;
-95.1000;0.4111;-1.0567;
-94.8000;0.4103;-1.0493;
-94.5000;0.4094;-1.0641;
-94.2000;0.4094;-1.0616;
-93.9000;0.4111;-1.0592;
-93.6000;0.4094;-1.0641;
-93.3000;0.4086;-1.0592;
-93.0000;0.4103;-1.0493;
-92.7000;0.4094;-1.0542;
-92.4000;0.4151;-1.0394;
-92.1000;0.4111;-1.0542;
-91.8000;0.4103;-1.0567;
-91.5000;0.4176;-1.0344;
-91.2000;0.4070;-1.0616;
-90.9000;0.4094;-1.0691;
-90.6000;0.4094;-1.0666;
-90.3000;0.4111;-1.0666;
-90.0000;0.4086;-1.0715;
-89.7000;0.4111;-1.0666;
-89.4000;0.4070;-1.0592;
-89.1000;0.4103;-1.0443;
-88.8000;0.4103;-1.0443;
-88.5000;0.4111;-1.0468;
-88.2000;0.4086;-1.0567;
-87.9000;0.4078;-1.0592;
-87.6000;0.4078;-1.0616;
-87.3000;0.4094;-1.0592;
-87.0000;0.4111;-1.0567;
-86.7000;0.4111;-1.0616;
-86.4000;0.4192;-1.0418;
-86.1000;0.4086;-1.0616;
-85.8000;0.4094;-1.0592;
-85.5000;0.4103;-1.0616;
-85.2000;0.4094;-1.0542;
-84.9000;0.4054;-1.0592;
-84.6000;0.4094;-1.0418;
-84.3000;0.4103;-1.0418;
-84.0000;0.4135;-1.0369;
-83.7000;0.4078;-1.0369;
-83.4000;0.4103;-1.0394;
-83.1000;0.4086;-1.0394;
-82.8000;0.4111;-1.0295;
-82.5000;0.4103;-1.0295;
-82.2000;0.4046;-1.0369;
-81.9000;0.4143;-1.0072;
-81.6000;0.4135;-1.0146;
-81.3000;0.4103;-1.0270;
-81.0000;0.4111;-1.0369;
-80.7000;0.4070;-1.0394;
-80.4000;0.4135;-1.0220;
-80.1000;0.4094;-1.0295;
-79.8000;0.4078;-1.0394;
-79.5000;0.4078;-1.0493;
-79.2000;0.4062;-1.0567;
-78.9000;0.4094;-1.0493;
-78.6000;0.4094;-1.0468;
-78.3000;0.4094;-1.0517;
-78.0000;0.4086;-1.0493;
-77.7000;0.4094;-1.0493;
-77.4000;0.4094;-1.0517;
-77.1000;0.4086;-1.0666;
-76.8000;0.4103;-1.0715;
-76.5000;0.4086;-1.0814;
-76.2000;0.4111;-1.0666;
-75.9000;0.4103;-1.0666;
-75.6000;0.4086;-1.0715;
-75.3000;0.4086;-1.0666;
-75.0000;0.4070;-1.0542;
-74.7000;0.4103;-1.0270;
-74.4000;0.4111;-1.0220;
-74.1000;0.4111;-1.0220;
-73.8000;0.4135;-1.0270;
-73.5000;0.4111;-1.0319;
-73.2000;0.4111;-1.0270;
-72.9000;0.4119;-1.0295;
-72.6000;0.4119;-1.0344;
-72.3000;0.4111;-1.0493;
-72.0000;0.4119;-1.0517;
-71.7000;0.4086;-1.0592;
-71.4000;0.4111;-1.0542;
-71.1000;0.4111;-1.0493;
-70.8000;0.4094;-1.0567;
-70.5000;0.4078;-1.0542;
-70.2000;0.4078;-1.0418;
-69.9000;0.4086;-1.0369;
-69.6000;0.4086;-1.0418;
-69.3000;0.4151;-1.0369;
-69.0000;0.4054;-1.0592;
-68.7000;0.4094;-1.0418;
-68.4000;0.4070;-1.0493;
-68.1000;0.4119;-1.0468;
-67.8000;0.4086;-1.0493;
-67.5000;0.4127;-1.0319;
-67.2000;0.4160;-1.0121;
-66.9000;0.4094;-1.0369;
-66.6000;0.4094;-1.0443;
-66.3000;0.4094;-1.0443;
-66.0000;0.4094;-1.0418;
-65.7000;0.4086;-1.0394;
-65.4000;0.4094;-1.0295;
-65.1000;0.4094;-1.0270;
-64.8000;0.4111;-1.0295;
-64.5000;0.4094;-1.0394;
-64.2000;0.4078;-1.0394;
-63.9000;0.4111;-1.0344;
-63.6000;0.4103;-1.0319;
-63.3000;0.4094;-1.0295;
-63.0000;0.4094;-1.0270;
-62.7000;0.4103;-1.0319;
-62.4000;0.4111;-1.0344;
-62.1000;0.4160;-1.0295;
-61.8000;0.4111;-1.0517;
-61.5000;0.4111;-1.0468;
-61.2000;0.4103;-1.0493;
-60.9000;0.4094;-1.0418;
-60.6000;0.4111;-1.0443;
-60.3000;0.4103;-1.0542;
-60.0000;0.4103;-1.0592;
-59.7000;0.4127;-1.0443;
-59.4000;0.4094;-1.0369;
-59.1000;0.4103;-1.0369;
-58.8000;0.4103;-1.0394;
-58.5000;0.4094;-1.0319;
-58.2000;0.4103;-1.0270;
-57.9000;0.4086;-1.0295;
-57.6000;0.4111;-1.0220;
-57.3000;0.4086;-1.0319;
-57.0000;0.4103;-1.0245;
-56.7000;0.4103;-1.0220;
-56.4000;0.4103;-1.0245;
-56.1000;0.4103;-1.0220;
-55.8000;0.4103;-1.0245;
-55.5000;0.4094;-1.0270;
-55.2000;0.4094;-1.0344;
-54.9000;0.4094;-1.0295;
-54.6000;0.4086;-1.0295;
-54.3000;0.4078;-1.0394;
-54.0000;0.4094;-1.0418;
-53.7000;0.4094;-1.0394;
-53.4000;0.4119;-1.0344;
-53.1000;0.4094;-1.0319;
-52.8000;0.4111;-1.0344;
-52.5000;0.4094;-1.0369;
-52.2000;0.4062;-1.0493;
-51.9000;0.4119;-1.0418;
-51.6000;0.4103;-1.0517;
-51.3000;0.4021;-1.0790;
-51.0000;0.4086;-1.0592;
-50.7000;0.4119;-1.0592;
-50.4000;0.4103;-1.0542;
-50.1000;0.4046;-1.0666;
-49.8000;0.4086;-1.0517;
-49.5000;0.4086;-1.0592;
-49.2000;0.4086;-1.0567;
-48.9000;0.4086;-1.0517;
-48.6000;0.4094;-1.0493;
-48.3000;0.4094;-1.0517;
-48.0000;0.4119;-1.0493;
-47.7000;0.4070;-1.0493;
-47.4000;0.4070;-1.0443;
-47.1000;0.4078;-1.0517;
-46.8000;0.4160;-1.0344;
-46.5000;0.4021;-1.0715;
-46.2000;0.4127;-1.0542;
-45.9000;0.4103;-1.0616;
-45.6000;0.4143;-1.0542;
-45.3000;0.4062;-1.0790;
-45.0000;0.4037;-1.0740;
-44.7000;0.4111;-1.0468;
-44.4000;0.4029;-1.0517;
-44.1000;0.4119;-1.0443;
-43.8000;0.4119;-1.0493;
-43.5000;0.4070;-1.0493;
-43.2000;0.4103;-1.0394;
-42.9000;0.4094;-1.0443;
-42.6000;0.4086;-1.0418;
-42.3000;0.4078;-1.0468;
-42.0000;0.4119;-1.0319;
-41.7000;0.4094;-1.0319;
-41.4000;0.4103;-1.0369;
-41.1000;0.4078;-1.0493;
-40.8000;0.4094;-1.0443;
-40.5000;0.4127;-1.0344;
-40.2000;0.4119;-1.0394;
-39.9000;0.4135;-1.0369;
-39.6000;0.4111;-1.0418;
-39.3000;0.4094;-1.0468;
-39.0000;0.4111;-1.0517;
-38.7000;0.4094;-1.0542;
-38.4000;0.4094;-1.0567;
-38.1000;0.4070;-1.0592;
-37.8000;0.4103;-1.0443;
-37.5000;0.4094;-1.0468;
-37.2000;0.4111;-1.0517;
-36.9000;0.4119;-1.0517;
-36.6000;0.4111;-1.0517;
-36.3000;0.4103;-1.0517;
-36.0000;0.4086;-1.0517;
-35.7000;0.4103;-1.0468;
-35.4000;0.4127;-1.0443;
-35.1000;0.4103;-1.0443;
-34.8000;0.4094;-1.0369;
-34.5000;0.4111;-1.0369;
-34.2000;0.4176;-1.0270;
-33.9000;0.4086;-1.0394;
-33.6000;0.4094;-1.0394;
-33.3000;0.4103;-1.0418;
-33.0000;0.4078;-1.0592;
-32.7000;0.4086;-1.0616;
-32.4000;0.4070;-1.0666;
-32.1000;0.4086;-1.0616;
-31.8000;0.4111;-1.0592;
-31.5000;0.4094;-1.0740;
-31.2000;0.4062;-1.0938;
-30.9000;0.4094;-1.0864;
-30.6000;0.4111;-1.0814;
-30.3000;0.4111;-1.0814;
-30.0000;0.4094;-1.0839;
-29.7000;0.4103;-1.0839;
-29.4000;0.4094;-1.0814;
-29.1000;0.4127;-1.0666;
-28.8000;0.4094;-1.0641;
-28.5000;0.4111;-1.0616;
-28.2000;0.4086;-1.0740;
-27.9000;0.4111;-1.0740;
-27.6000;0.4103;-1.0740;
-27.3000;0.4086;-1.0691;
-27.0000;0.4094;-1.0666;
-26.7000;0.4094;-1.0616;
-26.4000;0.4111;-1.0542;
-26.1000;0.4135;-1.0616;
-25.8000;0.4111;-1.0641;
-25.5000;0.4103;-1.0666;
-25.2000;0.4103;-1.0666;
-24.9000;0.4119;-1.0517;
-24.6000;0.4103;-1.0418;
-24.3000;0.4078;-1.0443;
-24.0000;0.4103;-1.0344;
-23.7000;0.4111;-1.0319;
-23.4000;0.4094;-1.0443;
-23.1000;0.4119;-1.0493;
-22.8000;0.4094;-1.0493;
-22.5000;0.4086;-1.0493;
-22.2000;0.4103;-1.0443;
-21.9000;0.4086;-1.0418;
-21.6000;0.4094;-1.0418;
-21.3000;0.4103;-1.0394;
-21.0000;0.4111;-1.0394;
-20.7000;0.4103;-1.0443;
-20.4000;0.4094;-1.0418;
-20.1000;0.4046;-1.0517;
-19.8000;0.4062;-1.0567;
-19.5000;0.3915;-1.1037;
-19.2000;0.4094;-1.0567;
-18.9000;0.4086;-1.0517;
-18.6000;0.4168;-1.0369;
-18.3000;0.4094;-1.0567;
-18.0000;0.4103;-1.0567;
-17.7000;0.4086;-1.0666;
-17.4000;0.4078;-1.0592;
-17.1000;0.4094;-1.0493;
-16.8000;0.4094;-1.0517;
-16.5000;0.4094;-1.0542;
-16.2000;0.4103;-1.0517;
-15.9000;0.4086;-1.0493;
-15.6000;0.4111;-1.0468;
-15.3000;0.4094;-1.0517;
-15.0000;0.4103;-1.0567;
-14.7000;0.4094;-1.0616;
-14.4000;0.4078;-1.0715;
-14.1000;0.4086;-1.0616;
-13.8000;0.4094;-1.0542;
-13.5000;0.4119;-1.0468;
-13.2000;0.4078;-1.0493;
-12.9000;0.4094;-1.0542;
-12.6000;0.4094;-1.0666;
-12.3000;0.4111;-1.0542;
-12.0000;0.4086;-1.0592;
-11.7000;0.4143;-1.0369;
-11.4000;0.4078;-1.0468;
-11.1000;0.4111;-1.0443;
-10.8000;0.4103;-1.0493;
-10.5000;0.4094;-1.0443;
-10.2000;0.4070;-1.0493;
-9.9000;0.4103;-1.0418;
-9.6000;0.4029;-1.0641;
-9.3000;0.4119;-1.0418;
-9.0000;0.4127;-1.0468;
-8.7000;0.4086;-1.0517;
-8.4000;0.4046;-1.0641;
-8.1000;0.4103;-1.0369;
-7.8000;0.4078;-1.0493;
-7.5000;0.4094;-1.0517;
-7.2000;0.4086;-1.0691;
-6.9000;0.4094;-1.0666;
-6.6000;0.4086;-1.0641;
-6.3000;0.4103;-1.0542;
-6.0000;0.4094;-1.0567;
-5.7000;0.4086;-1.0418;
-5.4000;0.4086;-1.0517;
-5.1000;0.4103;-1.0542;
-4.8000;0.4119;-1.0567;
-4.5000;0.4111;-1.0666;
-4.2000;0.4103;-1.0616;
-3.9000;0.4103;-1.0592;
-3.6000;0.4094;-1.0493;
-3.3000;0.4094;-1.0468;
-3.0000;0.4103;-1.0418;
-2.7000;0.4135;-1.0319;
-2.4000;0.4094;-1.0567;
-2.1000;0.4111;-1.0567;
-1.8000;0.4111;-1.0517;
-1.5000;0.4086;-1.0616;
-1.2000;0.4127;-1.0493;
-0.9000;0.4127;-1.0443;
-0.6000;0.4086;-1.0468;
-0.3000;0.4078;-1.0468;
0.0000;0.4078;-1.0468;
0.3000;0.4339;-1.0319;
0.6000;0.4819;-0.9701;
0.9000;0.5185;-0.9181;
1.2000;0.5551;-0.8414;
1.5000;0.5755;-0.8018;
1.8000;0.5958;-0.7523;
2.1000;0.6105;-0.7177;
2.4000;0.6195;-0.7053;
2.7000;0.6300;-0.6880;
3.0000;0.6382;-0.6682;
3.3000;0.6463;-0.6533;
3.6000;0.6496;-0.6434;
3.9000;0.6561;-0.6261;
4.2000;0.6610;-0.6088;
4.5000;0.6724;-0.5840;
4.8000;0.6675;-0.5939;
5.1000;0.6724;-0.5865;
5.4000;0.6748;-0.5815;
5.7000;0.6789;-0.5766;
6.0000;0.6813;-0.5791;
6.3000;0.6805;-0.5815;
6.6000;0.6846;-0.5840;
6.9000;0.6854;-0.5815;
7.2000;0.6911;-0.5791;
7.5000;0.6895;-0.5964;
7.8000;0.6943;-0.5914;
8.1000;0.6968;-0.5890;
8.4000;0.6976;-0.5914;
8.7000;0.6952;-0.5939;
9.0000;0.7033;-0.5840;
9.3000;0.7017;-0.5914;
9.6000;0.7049;-0.5865;
9.9000;0.7082;-0.5815;
10.2000;0.7066;-0.5964;
10.5000;0.7147;-0.5840;
10.8000;0.7139;-0.5890;
11.1000;0.7131;-0.5939;
11.4000;0.7114;-0.6038;
11.7000;0.7163;-0.6013;
12.0000;0.7196;-0.5865;
12.3000;0.7204;-0.5791;
12.6000;0.7245;-0.5840;
12.9000;0.7220;-0.6013;
13.2000;0.7236;-0.6038;
13.5000;0.7245;-0.5989;
13.8000;0.7277;-0.5914;
14.1000;0.7277;-0.5939;
14.4000;0.7212;-0.6137;
14.7000;0.7318;-0.5989;
15.0000;0.7334;-0.6088;
15.3000;0.7318;-0.6162;
15.6000;0.7359;-0.5914;
15.9000;0.7375;-0.5914;
16.2000;0.7383;-0.5890;
16.5000;0.7383;-0.5890;
16.8000;0.7456;-0.5716;
17.1000;0.7432;-0.5815;
17.4000;0.7432;-0.5766;
17.7000;0.7440;-0.5791;
18.0000;0.7367;-0.6063;
18.3000;0.7473;-0.5840;
18.6000;0.7464;-0.5914;
18.9000;0.7489;-0.5964;
19.2000;0.7505;-0.6038;
19.5000;0.7513;-0.6162;
19.8000;0.7521;-0.6187;
20.1000;0.7513;-0.6236;
20.4000;0.7546;-0.6286;
20.7000;0.7546;-0.6211;
21.0000;0.7562;-0.6112;
21.3000;0.7603;-0.6013;
21.6000;0.7578;-0.6137;
21.9000;0.7603;-0.6162;
22.2000;0.7595;-0.6162;
22.5000;0.7627;-0.6088;
22.8000;0.7611;-0.6088;
23.1000;0.7660;-0.6063;
23.4000;0.7627;-0.6162;
23.7000;0.7611;-0.6211;
24.0000;0.7611;-0.6261;
24.3000;0.7660;-0.6187;
24.6000;0.7652;-0.6211;
24.9000;0.7676;-0.6112;
25.2000;0.7700;-0.6088;
25.5000;0.7684;-0.6211;
25.8000;0.7676;-0.6261;
26.1000;0.7790;-0.6088;
26.4000;0.7709;-0.6360;
26.7000;0.7684;-0.6434;
27.0000;0.7741;-0.6385;
27.3000;0.7749;-0.6385;
27.6000;0.7733;-0.6459;
27.9000;0.7774;-0.6434;
28.2000;0.7749;-0.6508;
28.5000;0.7757;-0.6533;
28.8000;0.7749;-0.6533;
29.1000;0.7757;-0.6632;
29.4000;0.7741;-0.6657;
29.7000;0.7814;-0.6484;
30.0000;0.7839;-0.6434;
30.3000;0.7798;-0.6558;
30.6000;0.7814;-0.6533;
30.9000;0.7823;-0.6558;
31.2000;0.7831;-0.6607;
31.5000;0.7839;-0.6583;
31.8000;0.7839;-0.6583;
32.1000;0.7871;-0.6632;
32.4000;0.7888;-0.6558;
32.7000;0.7880;-0.6583;
33.0000;0.7880;-0.6632;
33.3000;0.7888;-0.6607;
33.6000;0.7888;-0.6607;
33.9000;0.7880;-0.6508;
34.2000;0.7912;-0.6508;
34.5000;0.7888;-0.6484;
34.8000;0.7953;-0.6385;
35.1000;0.7937;-0.6409;
35.4000;0.7928;-0.6558;
35.7000;0.7953;-0.6533;
36.0000;0.7945;-0.6583;
36.3000;0.7896;-0.6706;
36.6000;0.7928;-0.6607;
36.9000;0.7961;-0.6706;
37.2000;0.7863;-0.7003;
37.5000;0.7985;-0.6756;
37.8000;0.7953;-0.6880;
38.1000;0.7977;-0.6756;
38.4000;0.8026;-0.6682;
38.7000;0.8010;-0.6731;
39.0000;0.7993;-0.6855;
39.3000;0.7993;-0.6830;
39.6000;0.8026;-0.6781;
39.9000;0.8010;-0.6855;
40.2000;0.8034;-0.6781;
40.5000;0.8050;-0.6781;
40.8000;0.8083;-0.6756;
41.1000;0.8050;-0.6904;
41.4000;0.8059;-0.6880;
41.7000;0.8075;-0.6979;
42.0000;0.8075;-0.7102;
42.3000;0.8091;-0.7078;
42.6000;0.8083;-0.7053;
42.9000;0.8067;-0.7003;
43.2000;0.8091;-0.6979;
43.5000;0.8132;-0.6805;
43.8000;0.8181;-0.6731;
44.1000;0.8107;-0.6979;
44.4000;0.8107;-0.6954;
44.7000;0.8116;-0.6954;
45.0000;0.8140;-0.6880;
45.3000;0.8132;-0.6929;
45.6000;0.8124;-0.7053;
45.9000;0.8148;-0.7003;
46.2000;0.8221;-0.6880;
46.5000;0.8173;-0.7028;
46.8000;0.8164;-0.7102;
47.1000;0.8173;-0.7152;
47.4000;0.8156;-0.7152;
47.7000;0.8197;-0.7053;
48.0000;0.8164;-0.7201;
48.3000;0.8189;-0.7177;
48.6000;0.8132;-0.7325;
48.9000;0.8173;-0.7350;
49.2000;0.8181;-0.7325;
49.5000;0.8213;-0.7325;
49.8000;0.8213;-0.7300;
50.1000;0.8254;-0.7177;
50.4000;0.8246;-0.7152;
50.7000;0.8254;-0.7053;
51.0000;0.8287;-0.6904;
51.3000;0.8230;-0.7028;
51.6000;0.8254;-0.7053;
51.9000;0.8278;-0.7201;
52.2000;0.8262;-0.7276;
52.5000;0.8246;-0.7399;
52.8000;0.8287;-0.7424;
53.1000;0.8270;-0.7276;
53.4000;0.8270;-0.7276;
53.7000;0.8246;-0.7374;
54.0000;0.8254;-0.7449;
54.3000;0.8311;-0.7325;
54.6000;0.8311;-0.7399;
54.9000;0.8303;-0.7473;
55.2000;0.8311;-0.7449;
55.5000;0.8327;-0.7374;
55.8000;0.8319;-0.7325;
56.1000;0.8335;-0.7251;
56.4000;0.8319;-0.7276;
56.7000;0.8352;-0.7201;
57.0000;0.8335;-0.7325;
57.3000;0.8327;-0.7399;
57.6000;0.8303;-0.7449;
57.9000;0.8384;-0.7251;
58.2000;0.8376;-0.7226;
58.5000;0.8368;-0.7201;
58.8000;0.8352;-0.7300;
59.1000;0.8392;-0.7300;
59.4000;0.8384;-0.7300;
59.7000;0.8360;-0.7350;
60.0000;0.8376;-0.7374;
60.3000;0.8400;-0.7350;
60.6000;0.8400;-0.7325;
60.9000;0.8376;-0.7399;
61.2000;0.8384;-0.7325;
61.5000;0.8409;-0.7276;
61.8000;0.8433;-0.7177;
62.1000;0.8352;-0.7449;
62.4000;0.8392;-0.7350;
62.7000;0.8441;-0.7251;
63.0000;0.8417;-0.7424;
63.3000;0.8555;-0.7053;
63.6000;0.8441;-0.7350;
63.9000;0.8400;-0.7548;
64.2000;0.8449;-0.7449;
64.5000;0.8449;-0.7523;
64.8000;0.8425;-0.7548;
65.1000;0.8457;-0.7473;
65.4000;0.8409;-0.7671;
65.7000;0.8466;-0.7498;
66.0000;0.8425;-0.7498;
66.3000;0.8466;-0.7399;
66.6000;0.8498;-0.7399;
66.9000;0.8490;-0.7325;
67.2000;0.8490;-0.7300;
67.5000;0.8474;-0.7276;
67.8000;0.8498;-0.7251;
68.1000;0.8523;-0.7201;
68.4000;0.8498;-0.7276;
68.7000;0.8506;-0.7325;
69.0000;0.8498;-0.7374;
69.3000;0.8498;-0.7399;
69.6000;0.8531;-0.7350;
69.9000;0.8490;-0.7449;
70.2000;0.8514;-0.7498;
70.5000;0.8523;-0.7572;
70.8000;0.8514;-0.7572;
71.1000;0.8531;-0.7622;
71.4000;0.8539;-0.7572;
71.7000;0.8523;-0.7572;
72.0000;0.8555;-0.7572;
72.3000;0.8555;-0.7647;
72.6000;0.8547;-0.7696;
72.9000;0.8539;-0.7671;
73.2000;0.8539;-0.7746;
73.5000;0.8539;-0.7770;
73.8000;0.8555;-0.7696;
74.1000;0.8563;-0.7671;
74.4000;0.8555;-0.7647;
74.7000;0.8571;-0.7671;
75.0000;0.8555;-0.7671;
75.3000;0.8539;-0.7696;
75.6000;0.8588;-0.7597;
75.9000;0.8580;-0.7622;
76.2000;0.8571;-0.7622;
76.5000;0.8571;-0.7647;
76.8000;0.8571;-0.7671;
77.1000;0.8580;-0.7671;
77.4000;0.8596;-0.7572;
77.7000;0.8588;-0.7548;
78.0000;0.8612;-0.7473;
78.3000;0.8661;-0.7424;
78.6000;0.8612;-0.7597;
78.9000;0.8604;-0.7671;
79.2000;0.8637;-0.7721;
79.5000;0.8604;-0.7869;
79.8000;0.8612;-0.7820;
80.1000;0.8612;-0.7721;
80.4000;0.8620;-0.7721;
80.7000;0.8645;-0.7597;
81.0000;0.8612;-0.7746;
81.3000;0.8653;-0.7721;
81.6000;0.8620;-0.7746;
81.9000;0.8637;-0.7721;
82.2000;0.8637;-0.7622;
82.5000;0.8628;-0.7597;
82.8000;0.8604;-0.7647;
83.1000;0.8645;-0.7523;
83.4000;0.8661;-0.7473;
83.7000;0.8677;-0.7424;
84.0000;0.8637;-0.7449;
84.3000;0.8637;-0.7498;
84.6000;0.8645;-0.7572;
84.9000;0.8620;-0.7647;
85.2000;0.8604;-0.7746;
85.5000;0.8645;-0.7647;
85.8000;0.8653;-0.7671;
86.1000;0.8685;-0.7597;
86.4000;0.8653;-0.7671;
86.7000;0.8677;-0.7647;
87.0000;0.8661;-0.7597;
87.3000;0.8669;-0.7597;
87.6000;0.8677;-0.7696;
87.9000;0.8620;-0.7746;
88.2000;0.8612;-0.7770;
88.5000;0.8677;-0.7696;
88.8000;0.8653;-0.7845;
89.1000;0.8661;-0.7869;
89.4000;0.8661;-0.7845;
89.7000;0.8759;-0.7721;
90.0000;0.8669;-0.7968;
90.3000;0.8669;-0.7993;
90.6000;0.8661;-0.7919;
90.9000;0.8694;-0.7770;
91.2000;0.8718;-0.7647;
91.5000;0.8718;-0.7523;
91.8000;0.8685;-0.7671;
92.1000;0.8685;-0.7770;
92.4000;0.8710;-0.7746;
92.7000;0.8685;-0.7820;
93.0000;0.8661;-0.7894;
93.3000;0.8702;-0.7746;
93.6000;0.8710;-0.7770;
93.9000;0.8702;-0.7721;
94.2000;0.8694;-0.7696;
94.5000;0.8694;-0.7622;
94.8000;0.8685;-0.7647;
95.1000;0.8677;-0.7721;
95.4000;0.8685;-0.7721;
95.7000;0.8726;-0.7647;
96.0000;0.8702;-0.7647;
96.3000;0.8685;-0.7671;
96.6000;0.8694;-0.7770;
96.9000;0.8710;-0.7746;
97.2000;0.8694;-0.7770;
97.5000;0.8620;-0.7919;
97.8000;0.8816;-0.7399;
98.1000;0.8694;-0.7647;
98.4000;0.8710;-0.7523;
98.7000;0.8718;-0.7548;
99.0000;0.8718;-0.7597;
99.3000;0.8718;-0.7671;
99.6000;0.8718;-0.7721;
99.9000;0.8718;-0.7795;
100.2000;0.8710;-0.7820;
100.5000;0.8718;-0.7820;
100.8000;0.8734;-0.7869;
101.1000;0.8726;-0.7894;
101.4000;0.8718;-0.7894;
101.7000;0.8710;-0.7919;
102.0000;0.8710;-0.7869;
102.3000;0.8751;-0.7746;
102.6000;0.8751;-0.7721;
102.9000;0.8742;-0.7746;
103.2000;0.8742;-0.7770;
103.5000;0.8767;-0.7770;
103.8000;0.8718;-0.7770;
104.1000;0.8726;-0.7845;
104.4000;0.8742;-0.7746;
104.7000;0.8751;-0.7671;
105.0000;0.8734;-0.7671;
105.3000;0.8742;-0.7721;
105.6000;0.8694;-0.7820;
105.9000;0.8734;-0.7770;
106.2000;0.8734;-0.7671;
106.5000;0.8718;-0.7721;
106.8000;0.8742;-0.7795;
107.1000;0.8718;-0.7894;
107.4000;0.8685;-0.7944;
107.7000;0.8742;-0.7770;
108.0000;0.8734;-0.7721;
108.3000;0.8718;-0.7696;
108.6000;0.8726;-0.7572;
108.9000;0.8734;-0.7523;
109.2000;0.8726;-0.7597;
109.5000;0.8718;-0.7523;
109.8000;0.8775;-0.7350;
110.1000;0.8734;-0.7622;
110.4000;0.8751;-0.7647;
110.7000;0.8734;-0.7795;
111.0000;0.8734;-0.7845;
111.3000;0.8742;-0.7795;
111.6000;0.8742;-0.7820;
111.9000;0.8742;-0.7820;
112.2000;0.8734;-0.7869;
112.5000;0.8734;-0.7869;
112.8000;0.8759;-0.7746;
113.1000;0.8726;-0.7820;
113.4000;0.8751;-0.7671;
113.7000;0.8751;-0.7696;
114.0000;0.8751;-0.7622;
114.3000;0.8742;-0.7671;
114.6000;0.8759;-0.7671;
114.9000;0.8775;-0.7746;
115.2000;0.8751;-0.7721;
115.5000;0.8767;-0.7647;
115.8000;0.8751;-0.7647;
116.1000;0.8710;-0.7721;
116.4000;0.8751;-0.7622;
116.7000;0.8767;-0.7671;
117.0000;0.8775;-0.7622;
117.3000;0.8751;-0.7671;
117.6000;0.8751;-0.7572;
117.9000;0.8726;-0.7622;
118.2000;0.8767;-0.7498;
118.5000;0.8783;-0.7449;
118.8000;0.8734;-0.7622;
119.1000;0.8840;-0.7350;
119.4000;0.8734;-0.7647;
119.7000;0.8734;-0.7622;
120.0000;0.8718;-0.7597;
120.3000;0.8751;-0.7548;
120.6000;0.8742;-0.7572;
120.9000;0.8726;-0.7647;
121.2000;0.8734;-0.7647;
121.5000;0.8718;-0.7746;
121.8000;0.8742;-0.7721;
122.1000;0.8751;-0.7671;
122.4000;0.8767;-0.7671;
122.7000;0.8759;-0.7671;
123.0000;0.8767;-0.7671;
123.3000;0.8742;-0.7770;
123.6000;0.8751;-0.7820;
123.9000;0.8759;-0.7770;
124.2000;0.8799;-0.7696;
124.5000;0.8718;-0.7869;
124.8000;0.8742;-0.7746;
125.1000;0.8726;-0.7795;
125.4000;0.8742;-0.7647;
125.7000;0.8767;-0.7671;
126.0000;0.8726;-0.7820;
126.3000;0.8710;-0.7820;
126.6000;0.8742;-0.7746;
126.9000;0.8751;-0.7696;
127.2000;0.8807;-0.7572;
127.5000;0.8759;-0.7671;
127.8000;0.8734;-0.7721;
128.1000;0.8751;-0.7597;
128.4000;0.8807;-0.7523;
128.7000;0.8775;-0.7597;
129.0000;0.8742;-0.7721;
129.3000;0.8718;-0.7869;
129.6000;0.8832;-0.7473;
129.9000;0.8726;-0.7696;
130.2000;0.8759;-0.7548;
130.5000;0.8726;-0.7523;
130.8000;0.8759;-0.7523;
131.1000;0.8726;-0.7647;
131.4000;0.8816;-0.7473;
131.7000;0.8710;-0.7721;
132.0000;0.8742;-0.7721;
132.3000;0.8767;-0.7671;
132.6000;0.8824;-0.7572;
132.9000;0.8751;-0.7721;
133.2000;0.8759;-0.7696;
133.5000;0.8767;-0.7671;
133.8000;0.8734;-0.7696;
134.1000;0.8759;-0.7622;
134.4000;0.8767;-0.7572;
134.7000;0.8742;-0.7647;
135.0000;0.8751;-0.7647;
135.3000;0.8751;-0.7696;
135.6000;0.8759;-0.7622;
135.9000;0.8759;-0.7597;
136.2000;0.8767;-0.7523;
136.5000;0.8742;-0.7597;
136.8000;0.8734;-0.7770;
137.1000;0.8742;-0.7721;
137.4000;0.8759;-0.7696;
137.7000;0.8751;-0.7746;
138.0000;0.8775;-0.7795;
138.3000;0.8816;-0.7671;
138.6000;0.8767;-0.7770;
138.9000;0.8791;-0.7671;
139.2000;0.8751;-0.7671;
139.5000;0.8742;-0.7622;
139.8000;0.8718;-0.7671;
140.1000;0.8767;-0.7597;
140.4000;0.8734;-0.7647;
140.7000;0.8759;-0.7647;
141.0000;0.8848;-0.7523;
141.3000;0.8775;-0.7597;
141.6000;0.8742;-0.7746;
141.9000;0.8807;-0.7622;
142.2000;0.8767;-0.7746;
142.5000;0.8759;-0.7721;
142.8000;0.8718;-0.7770;
143.1000;0.8751;-0.7746;
143.4000;0.8751;-0.7721;
143.7000;0.8742;-0.7696;
144.0000;0.8742;-0.7671;
144.3000;0.8751;-0.7746;
144.6000;0.8734;-0.7845;
144.9000;0.8775;-0.7696;
145.2000;0.8726;-0.7845;
145.5000;0.8742;-0.7845;
145.8000;0.8734;-0.7869;
146.1000;0.8734;-0.7944;
146.4000;0.8734;-0.7944;
146.7000;0.8751;-0.7845;
147.0000;0.8759;-0.7820;
147.3000;0.8726;-0.7845;
147.6000;0.8767;-0.7795;
147.9000;0.8742;-0.7869;
148.2000;0.8734;-0.7869;
148.5000;0.8751;-0.7795;
148.8000;0.8742;-0.7795;
149.1000;0.8807;-0.7647;
149.4000;0.8775;-0.7746;
149.7000;0.8702;-0.7869;
150.0000;0.8759;-0.7770;
150.3000;0.8726;-0.7894;
150.6000;0.8767;-0.7721;
150.9000;0.8775;-0.7696;
151.2000;0.8759;-0.7770;
151.5000;0.8799;-0.7721;
151.8000;0.8767;-0.7770;
152.1000;0.8710;-0.7820;
152.4000;0.8726;-0.7721;
152.7000;0.8751;-0.7671;
153.0000;0.8718;-0.7721;
153.3000;0.8710;-0.7721;
153.6000;0.8710;-0.7746;
153.9000;0.8734;-0.7671;
154.2000;0.8734;-0.7696;
154.5000;0.8726;-0.7647;
154.8000;0.8734;-0.7721;
155.1000;0.8710;-0.7770;
155.4000;0.8726;-0.7820;
155.7000;0.8726;-0.7919;
156.0000;0.8718;-0.8018;
156.3000;0.8751;-0.7944;
156.6000;0.8742;-0.8018;
156.9000;0.8767;-0.7795;
157.2000;0.8726;-0.7869;
157.5000;0.8742;-0.7869;
157.8000;0.8726;-0.7869;
158.1000;0.8734;-0.7820;
158.4000;0.8653;-0.8043;
158.7000;0.8751;-0.7746;
159.0000;0.8759;-0.7721;
159.3000;0.8734;-0.7770;
159.6000;0.8742;-0.7696;
159.9000;0.8759;-0.7647;
160.2000;0.8751;-0.7721;
160.5000;0.8742;-0.7721;
160.8000;0.8742;-0.7746;
161.1000;0.8742;-0.7770;
161.4000;0.8742;-0.7845;
161.7000;0.8734;-0.7993;
162.0000;0.8718;-0.8043;
162.3000;0.8726;-0.7993;
162.6000;0.8726;-0.7944;
162.9000;0.8726;-0.7919;
163.2000;0.8726;-0.7944;
163.5000;0.8718;-0.7869;
163.8000;0.8734;-0.7795;
164.1000;0.8734;-0.7746;
164.4000;0.8726;-0.7770;
164.7000;0.8759;-0.7770;
165.0000;0.8742;-0.7746;
165.3000;0.8718;-0.7820;
165.6000;0.8702;-0.7795;
165.9000;0.8767;-0.7622;
166.2000;0.8734;-0.7721;
166.5000;0.8734;-0.7696;
166.8000;0.8710;-0.7845;
167.1000;0.8734;-0.7770;
167.4000;0.8734;-0.7795;
167.7000;0.8726;-0.7795;
168.0000;0.8726;-0.7721;
168.3000;0.8734;-0.7647;
168.6000;0.8726;-0.7696;
168.9000;0.8751;-0.7498;
169.2000;0.8742;-0.7548;
169.5000;0.8718;-0.7671;
169.8000;0.8734;-0.7721;
170.1000;0.8767;-0.7671;
170.4000;0.8751;-0.7746;
170.7000;0.8751;-0.7770;
171.0000;0.8751;-0.7845;
171.3000;0.8751;-0.7746;
171.6000;0.8742;-0.7795;
171.9000;0.8718;-0.7919;
172.2000;0.8751;-0.7845;
172.5000;0.8734;-0.7894;
172.8000;0.8742;-0.7869;
173.1000;0.8734;-0.7845;
173.4000;0.8726;-0.7820;
173.7000;0.8726;-0.7795;
174.0000;0.8742;-0.7671;
174.3000;0.8742;-0.7622;
174.6000;0.8718;-0.7696;
174.9000;0.8718;-0.7671;
175.2000;0.8734;-0.7622;
175.5000;0.8742;-0.7523;
175.8000;0.8726;-0.7548;
176.1000;0.8726;-0.7548;
176.4000;0.8751;-0.7498;
176.7000;0.8734;-0.7572;
177.0000;0.8710;-0.7671;
177.3000;0.8694;-0.7746;
177.6000;0.8751;-0.7523;
177.9000;0.8718;-0.7597;
178.2000;0.8694;-0.7597;
178.5000;0.8710;-0.7572;
178.8000;0.8588;-0.7845;
179.1000;0.8702;-0.7597;
179.4000;0.8742;-0.7548;
179.7000;0.8718;-0.7671;
180.0000;0.8726;-0.7746;
180.3000;0.8726;-0.7622;
180.6000;0.8734;-0.7572;
180.9000;0.8759;-0.7424;
181.2000;0.8694;-0.7622;
181.5000;0.8710;-0.7523;
181.8000;0.8734;-0.7473;
182.1000;0.8718;-0.7597;
182.4000;0.8694;-0.7721;
182.7000;0.8726;-0.7671;
183.0000;0.8759;-0.7548;
183.3000;0.8726;-0.7548;
183.6000;0.8718;-0.7523;
183.9000;0.8759;-0.7473;
184.2000;0.8710;-0.7671;
184.5000;0.8718;-0.7572;
184.8000;0.8710;-0.7647;
185.1000;0.8669;-0.7746;
185.4000;0.8726;-0.7449;
185.7000;0.8734;-0.7498;
186.0000;0.8620;-0.7845;
186.3000;0.8694;-0.7647;
186.6000;0.8710;-0.7523;
186.9000;0.8718;-0.7498;
187.2000;0.8694;-0.7523;
187.5000;0.8759;-0.7300;
187.8000;0.8710;-0.7399;
188.1000;0.8702;-0.7399;
188.4000;0.8702;-0.7325;
188.7000;0.8702;-0.7374;
189.0000;0.8702;-0.7424;
189.3000;0.8694;-0.7498;
189.6000;0.8653;-0.7721;
189.9000;0.8702;-0.7671;
190.2000;0.8702;-0.7671;
190.5000;0.8702;-0.7622;
190.8000;0.8685;-0.7746;
191.1000;0.8645;-0.7820;
191.4000;0.8702;-0.7721;
191.7000;0.8702;-0.7671;
192.0000;0.8718;-0.7647;
192.3000;0.8710;-0.7622;
192.6000;0.8694;-0.7572;
192.9000;0.8702;-0.7548;
193.2000;0.8685;-0.7548;
193.5000;0.8702;-0.7498;
193.8000;0.8726;-0.7523;
194.1000;0.8694;-0.7548;
194.4000;0.8702;-0.7523;
194.7000;0.8694;-0.7622;
195.0000;0.8702;-0.7622;
195.3000;0.8645;-0.7696;
195.6000;0.8710;-0.7498;
195.9000;0.8710;-0.7548;
196.2000;0.8694;-0.7671;
196.5000;0.8694;-0.7696;
196.8000;0.8734;-0.7696;
197.1000;0.8710;-0.7721;
197.4000;0.8685;-0.7845;
197.7000;0.8718;-0.7696;
198.0000;0.8702;-0.7671;
198.3000;0.8685;-0.7671;
198.6000;0.8645;-0.7647;
198.9000;0.8702;-0.7597;
199.2000;0.8677;-0.7746;
199.5000;0.8694;-0.7746;
199.8000;0.8734;-0.7671;
200.1000;0.8694;-0.7721;
200.4000;0.8694;-0.7671;
200.7000;0.8694;-0.7671;
201.0000;0.8685;-0.7696;
201.3000;0.8694;-0.7721;
201.6000;0.8694;-0.7671;
201.9000;0.8710;-0.7647;
202.2000;0.8742;-0.7523;
202.5000;0.8694;-0.7622;
202.8000;0.8767;-0.7424;
203.1000;0.8669;-0.7820;
203.4000;0.8677;-0.7770;
203.7000;0.8677;-0.7696;
204.0000;0.8702;-0.7572;
204.3000;0.8612;-0.7696;
204.6000;0.8669;-0.7424;
204.9000;0.8751;-0.7276;
205.2000;0.8775;-0.7325;
205.5000;0.8677;-0.7597;
205.8000;0.8694;-0.7622;
206.1000;0.8694;-0.7523;
206.4000;0.8685;-0.7597;
206.7000;0.8685;-0.7523;
207.0000;0.8694;-0.7498;
207.3000;0.8710;-0.7424;
207.6000;0.8677;-0.7473;
207.9000;0.8669;-0.7473;
208.2000;0.8710;-0.7424;
208.5000;0.8694;-0.7424;
208.8000;0.8677;-0.7374;
209.1000;0.8661;-0.7325;
209.4000;0.8677;-0.7276;
209.7000;0.8685;-0.7251;
210.0000;0.8702;-0.7350;
210.3000;0.8685;-0.7374;
210.6000;0.8661;-0.7473;
210.9000;0.8685;-0.7424;
211.2000;0.8677;-0.7449;
211.5000;0.8677;-0.7498;
211.8000;0.8677;-0.7473;
212.1000;0.8620;-0.7647;
212.4000;0.8677;-0.7523;
212.7000;0.8604;-0.7721;
213.0000;0.8628;-0.7647;
213.3000;0.8653;-0.7548;
213.6000;0.8645;-0.7572;
213.9000;0.8661;-0.7449;
214.2000;0.8661;-0.7498;
214.5000;0.8669;-0.7424;
214.8000;0.8677;-0.7498;
215.1000;0.8677;-0.7523;
215.4000;0.8661;-0.7572;
215.7000;0.8685;-0.7473;
216.0000;0.8653;-0.7473;
216.3000;0.8661;-0.7498;
216.6000;0.8669;-0.7523;
216.9000;0.8661;-0.7498;
217.2000;0.8637;-0.7622;
217.5000;0.8677;-0.7572;
217.8000;0.8694;-0.7572;
218.1000;0.8685;-0.7572;
218.4000;0.8685;-0.7473;
218.7000;0.8677;-0.7498;
219.0000;0.8677;-0.7622;
219.3000;0.8653;-0.7671;
219.6000;0.8677;-0.7622;
219.9000;0.8669;-0.7597;
220.2000;0.8685;-0.7597;
220.5000;0.8694;-0.7647;
220.8000;0.8669;-0.7647;
221.1000;0.8677;-0.7572;
221.4000;0.8677;-0.7548;
221.7000;0.8677;-0.7671;
222.0000;0.8669;-0.7746;
222.3000;0.8694;-0.7622;
222.6000;0.8669;-0.7671;
222.9000;0.8685;-0.7647;
223.2000;0.8653;-0.7671;
223.5000;0.8669;-0.7622;
223.8000;0.8653;-0.7548;
224.1000;0.8661;-0.7473;
224.4000;0.8637;-0.7449;
224.7000;0.8645;-0.7399;
225.0000;0.8661;-0.7473;
225.3000;0.8669;-0.7449;
225.6000;0.8661;-0.7449;
225.9000;0.8685;-0.7374;
226.2000;0.8661;-0.7449;
226.5000;0.8669;-0.7424;
226.8000;0.8669;-0.7424;
227.1000;0.8645;-0.7473;
227.4000;0.8637;-0.7449;
227.7000;0.8677;-0.7399;
228.0000;0.8628;-0.7449;
228.3000;0.8645;-0.7498;
228.6000;0.8645;-0.7523;
228.9000;0.8710;-0.7325;
229.2000;0.8653;-0.7424;
229.5000;0.8677;-0.7374;
229.8000;0.8661;-0.7350;
230.1000;0.8645;-0.7449;
230.4000;0.8661;-0.7424;
230.7000;0.8653;-0.7399;
231.0000;0.8677;-0.7473;
231.3000;0.8661;-0.7597;
231.6000;0.8677;-0.7473;
231.9000;0.8669;-0.7523;
232.2000;0.8637;-0.7548;
232.5000;0.8661;-0.7523;
232.8000;0.8685;-0.7597;
233.1000;0.8604;-0.7795;
233.4000;0.8661;-0.7572;
233.7000;0.8661;-0.7597;
234.0000;0.8604;-0.7671;
234.3000;0.8677;-0.7449;
234.6000;0.8702;-0.7350;
234.9000;0.8637;-0.7548;
235.2000;0.8637;-0.7548;
235.5000;0.8653;-0.7424;
235.8000;0.8669;-0.7449;
236.1000;0.8653;-0.7449;
236.4000;0.8653;-0.7424;
236.7000;0.8596;-0.7572;
237.0000;0.8702;-0.7374;
237.3000;0.8645;-0.7572;
237.6000;0.8661;-0.7498;
237.9000;0.8661;-0.7498;
238.2000;0.8645;-0.7473;
238.5000;0.8645;-0.7449;
238.8000;0.8669;-0.7473;
239.1000;0.8653;-0.7498;
239.4000;0.8653;-0.7473;
239.7000;0.8653;-0.7498;
240.0000;0.8637;-0.7498;
240.3000;0.8653;-0.7399;
240.6000;0.8661;-0.7424;
240.9000;0.8653;-0.7399;
241.2000;0.8645;-0.7473;
241.5000;0.8653;-0.7498;
241.8000;0.8653;-0.7498;
242.1000;0.8637;-0.7523;
242.4000;0.8653;-0.7498;
242.7000;0.8645;-0.7498;
243.0000;0.8661;-0.7424;
243.3000;0.8628;-0.7473;
243.6000;0.8653;-0.7399;
243.9000;0.8620;-0.7473;
244.2000;0.8653;-0.7424;
244.5000;0.8637;-0.7449;
244.8000;0.8645;-0.7350;
245.1000;0.8645;-0.7350;
245.4000;0.8653;-0.7374;
245.7000;0.8661;-0.7350;
246.0000;0.8653;-0.7399;
246.3000;0.8628;-0.7473;
246.6000;0.8645;-0.7449;
246.9000;0.8645;-0.7374;
247.2000;0.8645;-0.7473;
247.5000;0.8628;-0.7473;
247.8000;0.8620;-0.7498;
248.1000;0.8669;-0.7399;
248.4000;0.8628;-0.7473;
248.7000;0.8628;-0.7523;
249.0000;0.8637;-0.7399;
249.3000;0.8653;-0.7350;
249.6000;0.8637;-0.7300;
249.9000;0.8628;-0.7374;
250.2000;0.8628;-0.7325;
250.5000;0.8637;-0.7399;
250.8000;0.8653;-0.7374;
251.1000;0.8612;-0.7424;
251.4000;0.8653;-0.7325;
251.7000;0.8653;-0.7276;
252.0000;0.8669;-0.7300;
252.3000;0.8628;-0.7350;
252.6000;0.8637;-0.7300;
252.9000;0.8653;-0.7251;
253.2000;0.8645;-0.7300;
253.5000;0.8637;-0.7325;
253.8000;0.8637;-0.7325;
254.1000;0.8628;-0.7374;
254.4000;0.8628;-0.7424;
254.7000;0.8645;-0.7350;
255.0000;0.8677;-0.7374;
255.3000;0.8637;-0.7498;
255.6000;0.8628;-0.7523;
255.9000;0.8637;-0.7523;
256.2000;0.8637;-0.7572;
256.5000;0.8645;-0.7548;
256.8000;0.8661;-0.7473;
257.1000;0.8645;-0.7473;
257.4000;0.8645;-0.7473;
257.7000;0.8702;-0.7276;
258.0000;0.8620;-0.7449;
258.3000;0.8653;-0.7251;
258.6000;0.8677;-0.7251;
258.9000;0.8571;-0.7449;
259.2000;0.8628;-0.7350;
259.5000;0.8628;-0.7251;
259.8000;0.8580;-0.7300;
260.1000;0.8563;-0.7498;
260.4000;0.8612;-0.7374;
260.7000;0.8620;-0.7374;
261.0000;0.8694;-0.7226;
261.3000;0.8612;-0.7449;
261.6000;0.8645;-0.7424;
261.9000;0.8628;-0.7449;
262.2000;0.8628;-0.7449;
262.5000;0.8620;-0.7473;
262.8000;0.8645;-0.7498;
263.1000;0.8637;-0.7523;
263.4000;0.8645;-0.7548;
263.7000;0.8637;-0.7572;
264.0000;0.8628;-0.7523;
264.3000;0.8653;-0.7572;
264.6000;0.8637;-0.7498;
264.9000;0.8653;-0.7399;
265.2000;0.8637;-0.7548;
265.5000;0.8628;-0.7622;
265.8000;0.8620;-0.7622;
266.1000;0.8612;-0.7647;
266.4000;0.8620;-0.7622;
266.7000;0.8620;-0.7671;
267.0000;0.8612;-0.7597;
267.3000;0.8620;-0.7424;
267.6000;0.8637;-0.7374;
267.9000;0.8628;-0.7399;
268.2000;0.8628;-0.7449;
268.5000;0.8637;-0.7399;
268.8000;0.8677;-0.7226;
269.1000;0.8637;-0.7325;
269.4000;0.8628;-0.7374;
269.7000;0.8523;-0.7597;
270.0000;0.8628;-0.7300;
270.3000;0.8620;-0.7300;
270.6000;0.8653;-0.7127;
270.9000;0.8604;-0.7177;
271.2000;0.8604;-0.7152;
271.5000;0.8612;-0.7177;
271.8000;0.8604;-0.7102;
272.1000;0.8628;-0.7078;
272.4000;0.8588;-0.7127;
272.7000;0.8661;-0.6954;
273.0000;0.8604;-0.7078;
273.3000;0.8637;-0.7028;
273.6000;0.8637;-0.6954;
273.9000;0.8637;-0.6954;
274.2000;0.8653;-0.7003;
274.5000;0.8620;-0.7152;
274.8000;0.8661;-0.7127;
275.1000;0.8637;-0.7276;
275.4000;0.8563;-0.7449;
275.7000;0.8653;-0.7201;
276.0000;0.8612;-0.7226;
276.3000;0.8596;-0.7325;
276.6000;0.8612;-0.7152;
276.9000;0.8620;-0.7152;
277.2000;0.8653;-0.7152;
277.5000;0.8637;-0.7276;
277.8000;0.8628;-0.7226;
278.1000;0.8612;-0.7251;
278.4000;0.8612;-0.7201;
278.7000;0.8620;-0.7127;
279.0000;0.8628;-0.7152;
279.3000;0.8620;-0.7251;
279.6000;0.8612;-0.7276;
279.9000;0.8612;-0.7300;
280.2000;0.8620;-0.7152;
280.5000;0.8596;-0.7152;
280.8000;0.8588;-0.7201;
281.1000;0.8612;-0.7201;
281.4000;0.8604;-0.7201;
281.7000;0.8555;-0.7251;
282.0000;0.8612;-0.7127;
282.3000;0.8612;-0.7177;
282.6000;0.8571;-0.7201;
282.9000;0.8604;-0.7300;
283.2000;0.8628;-0.7325;
283.5000;0.8596;-0.7350;
283.8000;0.8612;-0.7226;
284.1000;0.8547;-0.7374;
284.4000;0.8588;-0.7251;
284.7000;0.8547;-0.7374;
285.0000;0.8596;-0.7325;
285.3000;0.8596;-0.7251;
285.6000;0.8539;-0.7300;
285.9000;0.8604;-0.7177;
286.2000;0.8596;-0.7201;
286.5000;0.8604;-0.7226;
286.8000;0.8596;-0.7251;
287.1000;0.8596;-0.7276;
287.4000;0.8604;-0.7152;
287.7000;0.8620;-0.7177;
288.0000;0.8620;-0.7226;
288.3000;0.8628;-0.7226;
288.6000;0.8628;-0.7325;
288.9000;0.8637;-0.7300;
289.2000;0.8612;-0.7201;
289.5000;0.8604;-0.7226;
289.8000;0.8645;-0.7127;
290.1000;0.8596;-0.7201;
290.4000;0.8620;-0.7226;
290.7000;0.8604;-0.7276;
291.0000;0.8604;-0.7300;
291.3000;0.8604;-0.7350;
291.6000;0.8588;-0.7374;
291.9000;0.8596;-0.7300;
292.2000;0.8588;-0.7201;
292.5000;0.8596;-0.7201;
292.8000;0.8628;-0.7177;
293.1000;0.8571;-0.7300;
293.4000;0.8612;-0.7251;
293.7000;0.8555;-0.7300;
294.0000;0.8596;-0.7251;
294.3000;0.8596;-0.7177;
294.6000;0.8490;-0.7449;
294.9000;0.8604;-0.7127;
295.2000;0.8555;-0.7201;
295.5000;0.8596;-0.7201;
295.8000;0.8571;-0.7226;
296.1000;0.8563;-0.7276;
296.4000;0.8637;-0.7127;
296.7000;0.8523;-0.7300;
297.0000;0.8555;-0.7325;
297.3000;0.8612;-0.7276;
297.6000;0.8596;-0.7251;
297.9000;0.8620;-0.7152;
298.2000;0.8612;-0.7102;
298.5000;0.8604;-0.7028;
298.8000;0.8588;-0.6979;
299.1000;0.8604;-0.7028;
299.4000;0.8588;-0.7053;
299.7000;0.8580;-0.7028;
300.0000;0.8563;-0.7053;
300.3000;0.8580;-0.7028;
300.6000;0.8580;-0.7053;
300.9000;0.8580;-0.7102;
301.2000;0.8506;-0.7251;
301.5000;0.8596;-0.7053;
301.8000;0.8506;-0.7276;
302.1000;0.8588;-0.7078;
302.4000;0.8571;-0.7053;
302.7000;0.8637;-0.7003;
303.0000;0.8580;-0.7127;
303.3000;0.8580;-0.7078;
303.6000;0.8588;-0.7102;
303.9000;0.8580;-0.7201;
304.2000;0.8588;-0.7300;
304.5000;0.8547;-0.7374;
304.8000;0.8588;-0.7201;
305.1000;0.8563;-0.7201;
305.4000;0.8571;-0.7201;
305.7000;0.8596;-0.7127;
306.0000;0.8588;-0.7102;
306.3000;0.8580;-0.7102;
306.6000;0.8645;-0.6979;
306.9000;0.8580;-0.7177;
307.2000;0.8571;-0.7226;
307.5000;0.8547;-0.7350;
307.8000;0.8571;-0.7226;
308.1000;0.8571;-0.7226;
308.4000;0.8580;-0.7226;
308.7000;0.8580;-0.7226;
309.0000;0.8547;-0.7276;
309.3000;0.8596;-0.7201;
309.6000;0.8588;-0.7102;
309.9000;0.8596;-0.7127;
310.2000;0.8588;-0.7201;
310.5000;0.8588;-0.7152;
310.8000;0.8580;-0.7177;
311.1000;0.8604;-0.7177;
311.4000;0.8571;-0.7325;
311.7000;0.8596;-0.7276;
312.0000;0.8580;-0.7300;
312.3000;0.8588;-0.7251;
312.6000;0.8580;-0.7374;
312.9000;0.8580;-0.7424;
313.2000;0.8588;-0.7350;
313.5000;0.8588;-0.7374;
313.8000;0.8580;-0.7374;
314.1000;0.8604;-0.7276;
314.4000;0.8588;-0.7374;
314.7000;0.8596;-0.7325;
315.0000;0.8588;-0.7350;
315.3000;0.8588;-0.7300;
315.6000;0.8685;-0.7003;
315.9000;0.8580;-0.7276;
316.2000;0.8596;-0.7276;
316.5000;0.8588;-0.7276;
316.8000;0.8645;-0.7127;
317.1000;0.8580;-0.7276;
317.4000;0.8580;-0.7276;
317.7000;0.8620;-0.7127;
318.0000;0.8563;-0.7226;
318.3000;0.8596;-0.7226;
318.6000;0.8588;-0.7276;
318.9000;0.8539;-0.7374;
319.2000;0.8580;-0.7276;
319.5000;0.8588;-0.7276;
319.8000;0.8571;-0.7350;
320.1000;0.8580;-0.7300;
320.4000;0.8588;-0.7226;
320.7000;0.8563;-0.7300;
321.0000;0.8555;-0.7251;
321.3000;0.8563;-0.7300;
321.6000;0.8571;-0.7300;
321.9000;0.8563;-0.7374;
322.2000;0.8571;-0.7325;
322.5000;0.8571;-0.7300;
322.8000;0.8563;-0.7300;
323.1000;0.8571;-0.7276;
323.4000;0.8588;-0.7078;
323.7000;0.8588;-0.7152;
324.0000;0.8580;-0.7226;
324.3000;0.8580;-0.7226;
324.6000;0.8571;-0.7300;
324.9000;0.8596;-0.7276;
325.2000;0.8563;-0.7251;
325.5000;0.8580;-0.7226;
325.8000;0.8580;-0.7276;
326.1000;0.8588;-0.7276;
326.4000;0.8571;-0.7325;
326.7000;0.8580;-0.7226;
327.0000;0.8580;-0.7201;
327.3000;0.8588;-0.7226;
327.6000;0.8588;-0.7251;
327.9000;0.8571;-0.7152;
328.2000;0.8547;-0.7201;
328.5000;0.8571;-0.7226;
328.8000;0.8571;-0.7152;
329.1000;0.8563;-0.7102;
329.4000;0.8547;-0.7152;
329.7000;0.8596;-0.7003;
330.0000;0.8571;-0.7078;
330.3000;0.8547;-0.7152;
330.6000;0.8580;-0.7152;
330.9000;0.8555;-0.7177;
331.2000;0.8588;-0.7127;
331.5000;0.8531;-0.7226;
331.8000;0.8563;-0.7127;
332.1000;0.8588;-0.7028;
332.4000;0.8555;-0.7078;
332.7000;0.8547;-0.7177;
333.0000;0.8547;-0.7177;
333.3000;0.8580;-0.7201;
333.6000;0.8563;-0.7300;
333.9000;0.8571;-0.7251;
334.2000;0.8571;-0.7201;
334.5000;0.8580;-0.7201;
334.8000;0.8571;-0.7276;
335.1000;0.8563;-0.7300;
335.4000;0.8555;-0.7325;
335.7000;0.8555;-0.7350;
336.0000;0.8571;-0.7251;
336.3000;0.8571;-0.7300;
336.6000;0.8539;-0.7251;
336.9000;0.8563;-0.7201;
337.2000;0.8514;-0.7152;
337.5000;0.8555;-0.7102;
337.8000;0.8563;-0.7102;
338.1000;0.8563;-0.7177;
338.4000;0.8563;-0.7102;
338.7000;0.8637;-0.6904;
339.0000;0.8571;-0.7028;
339.3000;0.8580;-0.7028;
339.6000;0.8547;-0.7102;
339.9000;0.8506;-0.7226;
340.2000;0.8547;-0.7102;
340.5000;0.8547;-0.7003;
340.8000;0.8523;-0.7127;
341.1000;0.8604;-0.6880;
341.4000;0.8555;-0.6954;
341.7000;0.8588;-0.6979;
342.0000;0.8531;-0.7078;
342.3000;0.8571;-0.7003;
342.6000;0.8555;-0.6954;
342.9000;0.8547;-0.6880;
343.2000;0.8547;-0.6929;
343.5000;0.8539;-0.6929;
343.8000;0.8555;-0.6954;
344.1000;0.8547;-0.7003;
344.4000;0.8563;-0.6979;
344.7000;0.8571;-0.6954;
345.0000;0.8490;-0.7276;
345.3000;0.8563;-0.7003;
345.6000;0.8571;-0.7028;
345.9000;0.8514;-0.7201;
346.2000;0.8547;-0.7226;
346.5000;0.8563;-0.7152;
346.8000;0.8563;-0.7152;
347.1000;0.8563;-0.7078;
347.4000;0.8555;-0.7152;
347.7000;0.8555;-0.7251;
348.0000;0.8555;-0.7276;
348.3000;0.8539;-0.7226;
348.6000;0.8547;-0.7251;
348.9000;0.8563;-0.7201;
349.2000;0.8563;-0.7251;
349.5000;0.8555;-0.7152;
349.8000;0.8555;-0.7226;
350.1000;0.8555;-0.7177;
350.4000;0.8588;-0.7053;
350.7000;0.8547;-0.7102;
351.0000;0.8547;-0.7078;
351.3000;0.8555;-0.7078;
351.6000;0.8604;-0.7003;
351.9000;0.8547;-0.7028;
352.2000;0.8555;-0.6954;
352.5000;0.8474;-0.7102;
352.8000;0.8555;-0.6954;
353.1000;0.8514;-0.7078;
353.4000;0.8555;-0.7102;
353.7000;0.8555;-0.7078;
354.0000;0.8531;-0.7078;
354.3000;0.8571;-0.6979;
354.6000;0.8547;-0.7102;
354.9000;0.8547;-0.7102;
355.2000;0.8547;-0.7127;
355.5000;0.8563;-0.7102;
355.8000;0.8571;-0.7053;
356.1000;0.8555;-0.7102;
356.4000;0.8555;-0.7127;
356.7000;0.8563;-0.7078;
357.0000;0.8547;-0.7127;
357.3000;0.8514;-0.7177;
357.6000;0.8547;-0.7226;
357.9000;0.8547;-0.7152;
358.2000;0.8580;-0.7127;
358.5000;0.8531;-0.7226;
358.8000;0.8547;-0.7152;
359.1000;0.8523;-0.7226;
359.4000;0.8588;-0.7053;
359.7000;0.8563;-0.7102;
360.0000;0.8596;-0.7102;
360.3000;0.8449;-0.7449;
360.6000;0.8571;-0.7201;
360.9000;0.8563;-0.7177;
361.2000;0.8547;-0.7251;
361.5000;0.8555;-0.7177;
361.8000;0.8547;-0.7276;
362.1000;0.8547;-0.7276;
362.4000;0.8547;-0.7251;
362.7000;0.8523;-0.7300;
363.0000;0.8531;-0.7325;
363.3000;0.8571;-0.7226;
363.6000;0.8539;-0.7300;
363.9000;0.8523;-0.7300;
364.2000;0.8547;-0.7201;
364.5000;0.8547;-0.7152;
364.8000;0.8588;-0.7078;
365.1000;0.8547;-0.7177;
365.4000;0.8588;-0.7003;
365.7000;0.8612;-0.7003;
366.0000;0.8547;-0.7177;
366.3000;0.8555;-0.7152;
366.6000;0.8539;-0.7152;
366.9000;0.8523;-0.7003;
367.2000;0.8547;-0.7028;
367.5000;0.8523;-0.7028;
367.8000;0.8555;-0.6929;
368.1000;0.8547;-0.7053;
368.4000;0.8490;-0.7201;
368.7000;0.8547;-0.7127;
369.0000;0.8547;-0.7102;
369.3000;0.8539;-0.7152;
369.6000;0.8571;-0.7152;
369.9000;0.8596;-0.7028;
370.2000;0.8539;-0.7127;
370.5000;0.8563;-0.7053;
370.8000;0.8555;-0.7053;
371.1000;0.8547;-0.7053;
371.4000;0.8547;-0.6979;
371.7000;0.8531;-0.7028;
372.0000;0.8539;-0.6929;
372.3000;0.8547;-0.6929;
372.6000;0.8539;-0.6929;
372.9000;0.8506;-0.6979;
373.2000;0.8547;-0.6880;
373.5000;0.8547;-0.6954;
373.8000;0.8531;-0.7053;
374.1000;0.8531;-0.7028;
374.4000;0.8523;-0.7053;
374.7000;0.8531;-0.7152;
375.0000;0.8514;-0.7251;
375.3000;0.8523;-0.7152;
375.6000;0.8531;-0.7177;
375.9000;0.8531;-0.7102;
376.2000;0.8539;-0.7127;
376.5000;0.8482;-0.7201;
376.8000;0.8531;-0.7053;
377.1000;0.8539;-0.7053;
377.4000;0.8531;-0.7028;
377.7000;0.8539;-0.6979;
378.0000;0.8523;-0.7003;
378.3000;0.8531;-0.7003;
378.6000;0.8523;-0.7028;
378.9000;0.8539;-0.7053;
379.2000;0.8523;-0.7053;
379.5000;0.8539;-0.7053;
379.8000;0.8539;-0.6979;
380.1000;0.8531;-0.7053;
380.4000;0.8547;-0.7127;
380.7000;0.8547;-0.7177;
381.0000;0.8555;-0.7226;
381.3000;0.8547;-0.7152;
381.6000;0.8555;-0.7003;
381.9000;0.8563;-0.6979;
382.2000;0.8547;-0.6954;
382.5000;0.8547;-0.6929;
382.8000;0.8539;-0.6904;
383.1000;0.8620;-0.6657;
383.4000;0.8514;-0.6904;
383.7000;0.8547;-0.6880;
384.0000;0.8523;-0.7003;
384.3000;0.8523;-0.7078;
384.6000;0.8523;-0.7102;
384.9000;0.8531;-0.7078;
385.2000;0.8620;-0.6805;
385.5000;0.8514;-0.7152;
385.8000;0.8523;-0.7201;
386.1000;0.8563;-0.7102;
386.4000;0.8523;-0.7127;
386.7000;0.8514;-0.7078;
387.0000;0.8514;-0.7003;
387.3000;0.8531;-0.6979;
387.6000;0.8531;-0.6954;
387.9000;0.8506;-0.7003;
388.2000;0.8482;-0.7152;
388.5000;0.8514;-0.7177;
388.8000;0.8580;-0.6954;
389.1000;0.8523;-0.7152;
389.4000;0.8563;-0.7102;
389.7000;0.8555;-0.7078;
390.0000;0.8555;-0.7003;
390.3000;0.8531;-0.7127;
390.6000;0.8539;-0.7078;
390.9000;0.8531;-0.7177;
391.2000;0.8523;-0.7201;
391.5000;0.8539;-0.7251;
391.8000;0.8596;-0.7053;
392.1000;0.8531;-0.7276;
392.4000;0.8547;-0.7251;
392.7000;0.8563;-0.7177;
393.0000;0.8531;-0.7177;
393.3000;0.8523;-0.7251;
393.6000;0.8523;-0.7276;
393.9000;0.8531;-0.7350;
394.2000;0.8523;-0.7350;
394.5000;0.8506;-0.7350;
394.8000;0.8539;-0.7276;
395.1000;0.8523;-0.7300;
395.4000;0.8523;-0.7276;
395.7000;0.8523;-0.7226;
396.0000;0.8531;-0.7177;
396.3000;0.8514;-0.7152;
396.6000;0.8531;-0.7127;
396.9000;0.8523;-0.7201;
397.2000;0.8539;-0.7251;
397.5000;0.8506;-0.7276;
397.8000;0.8531;-0.7177;
398.1000;0.8523;-0.7127;
398.4000;0.8514;-0.7152;
398.7000;0.8531;-0.7053;
399.0000;0.8514;-0.7078;
399.3000;0.8498;-0.7152;
399.6000;0.8506;-0.7201;
399.9000;0.8514;-0.7276;
400.2000;0.8506;-0.7300;
400.5000;0.8514;-0.7300;
400.8000;0.8506;-0.7177;
401.1000;0.8457;-0.7276;
401.4000;0.8498;-0.7226;
401.7000;0.8506;-0.7102;
402.0000;0.8482;-0.7127;
402.3000;0.8514;-0.7177;
402.6000;0.8523;-0.7102;
402.9000;0.8523;-0.7078;
403.2000;0.8514;-0.7053;
403.5000;0.8506;-0.7053;
403.8000;0.8514;-0.7078;
404.1000;0.8555;-0.6954;
404.4000;0.8490;-0.7028;
404.7000;0.8523;-0.7053;
405.0000;0.8523;-0.7053;
405.3000;0.8571;-0.6954;
405.6000;0.8514;-0.7028;
405.9000;0.8531;-0.7053;
406.2000;0.8580;-0.6904;
406.5000;0.8596;-0.6929;
406.8000;0.8523;-0.7028;
407.1000;0.8523;-0.7053;
407.4000;0.8523;-0.7102;
407.7000;0.8506;-0.7177;
408.0000;0.8457;-0.7325;
408.3000;0.8571;-0.7102;
408.6000;0.8482;-0.7177;
408.9000;0.8482;-0.7152;
409.2000;0.8506;-0.7078;
409.5000;0.8506;-0.7053;
409.8000;0.8523;-0.7003;
410.1000;0.8523;-0.6979;
410.4000;0.8523;-0.7102;
410.7000;0.8457;-0.7276;
411.0000;0.8514;-0.7078;
411.3000;0.8474;-0.7201;
411.6000;0.8620;-0.6781;
411.9000;0.8531;-0.7003;
412.2000;0.8571;-0.6880;
412.5000;0.8523;-0.7028;
412.8000;0.8620;-0.6756;
413.1000;0.8523;-0.7003;
413.4000;0.8514;-0.7003;
413.7000;0.8523;-0.6929;
414.0000;0.8514;-0.7053;
414.3000;0.8514;-0.7028;
414.6000;0.8514;-0.7003;
414.9000;0.8482;-0.7102;
415.2000;0.8514;-0.7053;
415.5000;0.8514;-0.7053;
415.8000;0.8506;-0.7003;
416.1000;0.8506;-0.7028;
416.4000;0.8506;-0.6979;
416.7000;0.8531;-0.6880;
417.0000;0.8555;-0.6731;
417.3000;0.8531;-0.6830;
417.6000;0.8523;-0.6805;
417.9000;0.8506;-0.6830;
418.2000;0.8514;-0.6781;
418.5000;0.8523;-0.6904;
418.8000;0.8531;-0.6929;
419.1000;0.8514;-0.6929;
419.4000;0.8514;-0.6929;
419.7000;0.8482;-0.7028;
420.0000;0.8563;-0.6855;
420.3000;0.8498;-0.6929;
420.6000;0.8498;-0.6979;
420.9000;0.8506;-0.6979;
421.2000;0.8514;-0.6954;
421.5000;0.8506;-0.6979;
421.8000;0.8506;-0.7003;
422.1000;0.8482;-0.7152;
422.4000;0.8514;-0.7078;
422.7000;0.8531;-0.6979;
423.0000;0.8523;-0.7078;
423.3000;0.8498;-0.7152;
423.6000;0.8514;-0.7102;
423.9000;0.8482;-0.7226;
424.2000;0.8474;-0.7201;
424.5000;0.8474;-0.7152;
424.8000;0.8490;-0.7127;
425.1000;0.8474;-0.7276;
425.4000;0.8506;-0.7152;
425.7000;0.8482;-0.7226;
426.0000;0.8514;-0.7102;
426.3000;0.8498;-0.7102;
426.6000;0.8498;-0.7152;
426.9000;0.8506;-0.7201;
427.2000;0.8506;-0.7152;
427.5000;0.8490;-0.7152;
427.8000;0.8506;-0.7102;
428.1000;0.8466;-0.7078;
428.4000;0.8514;-0.7053;
428.7000;0.8482;-0.7152;
429.0000;0.8506;-0.7102;
429.3000;0.8523;-0.7003;
429.6000;0.8523;-0.7078;
429.9000;0.8514;-0.7078;
430.2000;0.8498;-0.7127;
430.5000;0.8482;-0.7177;
430.8000;0.8523;-0.7028;
431.1000;0.8466;-0.7201;
431.4000;0.8523;-0.7152;
431.7000;0.8498;-0.7276;
432.0000;0.8506;-0.7201;
432.3000;0.8490;-0.7053;
432.6000;0.8539;-0.6904;
432.9000;0.8514;-0.7053;
433.2000;0.8506;-0.7078;
433.5000;0.8506;-0.6979;
433.8000;0.8506;-0.7003;
434.1000;0.8498;-0.7078;
434.4000;0.8514;-0.7078;
434.7000;0.8441;-0.7177;
435.0000;0.8498;-0.7152;
435.3000;0.8490;-0.7127;
435.6000;0.8490;-0.7102;
435.9000;0.8490;-0.7201;
436.2000;0.8506;-0.7102;
436.5000;0.8506;-0.7127;
436.8000;0.8498;-0.7053;
437.1000;0.8506;-0.7078;
437.4000;0.8506;-0.7028;
437.7000;0.8498;-0.7078;
438.0000;0.8539;-0.7003;
438.3000;0.8506;-0.7127;
438.6000;0.8490;-0.7152;
438.9000;0.8531;-0.6954;
439.2000;0.8514;-0.6904;
439.5000;0.8506;-0.7028;
439.8000;0.8498;-0.7028;
440.1000;0.8482;-0.7028;
440.4000;0.8547;-0.6929;
440.7000;0.8498;-0.7028;
441.0000;0.8498;-0.7028;
441.3000;0.8514;-0.7127;
441.6000;0.8506;-0.7226;
441.9000;0.8523;-0.7152;
442.2000;0.8498;-0.7226;
442.5000;0.8490;-0.7251;
442.8000;0.8506;-0.7226;
443.1000;0.8490;-0.7300;
443.4000;0.8514;-0.7350;
443.7000;0.8498;-0.7276;
444.0000;0.8506;-0.7226;
444.3000;0.8482;-0.7300;
444.6000;0.8498;-0.7276;
444.9000;0.8490;-0.7350;
445.2000;0.8466;-0.7350;
445.5000;0.8474;-0.7399;
445.8000;0.8482;-0.7399;
446.1000;0.8490;-0.7300;
446.4000;0.8490;-0.7350;
446.7000;0.8490;-0.7226;
447.0000;0.8482;-0.7226;
447.3000;0.8506;-0.7177;
447.6000;0.8498;-0.7078;
447.9000;0.8498;-0.7102;
448.2000;0.8514;-0.7102;
448.5000;0.8490;-0.7127;
448.8000;0.8482;-0.7177;
449.1000;0.8474;-0.7201;
449.4000;0.8498;-0.7226;
449.7000;0.8498;-0.7177;
450.0000;0.8490;-0.7226;
450.3000;0.8490;-0.7226;
450.6000;0.8482;-0.7251;
450.9000;0.8490;-0.7177;
451.2000;0.8482;-0.7078;
451.5000;0.8555;-0.6954;
451.8000;0.8498;-0.6979;
452.1000;0.8482;-0.7003;
452.4000;0.8506;-0.6979;
452.7000;0.8498;-0.7028;
453.0000;0.8490;-0.7078;
453.3000;0.8506;-0.7152;
453.6000;0.8506;-0.7201;
453.9000;0.8490;-0.7251;
454.2000;0.8498;-0.7251;
454.5000;0.8384;-0.7523;
454.8000;0.8466;-0.7300;
455.1000;0.8482;-0.7251;
455.4000;0.8474;-0.7201;
455.7000;0.8474;-0.7276;
456.0000;0.8490;-0.7251;
456.3000;0.8490;-0.7152;
456.6000;0.8482;-0.7201;
456.9000;0.8482;-0.7177;
457.2000;0.8482;-0.7102;
457.5000;0.8498;-0.7102;
457.8000;0.8523;-0.7102;
458.1000;0.8506;-0.7226;
458.4000;0.8506;-0.7152;
458.7000;0.8490;-0.7102;
459.0000;0.8474;-0.7028;
459.3000;0.8498;-0.6929;
459.6000;0.8466;-0.7003;
459.9000;0.8482;-0.6904;
460.2000;0.8474;-0.6904;
460.5000;0.8482;-0.6880;
460.8000;0.8482;-0.6880;
461.1000;0.8449;-0.7003;
461.4000;0.8490;-0.6954;
461.7000;0.8563;-0.6781;
462.0000;0.8474;-0.7053;
462.3000;0.8400;-0.7251;
462.6000;0.8498;-0.7028;
462.9000;0.8466;-0.7078;
463.2000;0.8498;-0.7003;
463.5000;0.8490;-0.6979;
463.8000;0.8482;-0.6954;
464.1000;0.8490;-0.6979;
464.4000;0.8482;-0.6979;
464.7000;0.8474;-0.7028;
465.0000;0.8490;-0.7053;
465.3000;0.8457;-0.7127;
465.6000;0.8474;-0.7152;
465.9000;0.8555;-0.6954;
466.2000;0.8498;-0.6979;
466.5000;0.8498;-0.7003;
466.8000;0.8441;-0.7152;
467.1000;0.8490;-0.6929;
467.4000;0.8466;-0.6904;
467.7000;0.8490;-0.6954;
468.0000;0.8498;-0.6979;
468.3000;0.8466;-0.7078;
468.6000;0.8490;-0.7078;
468.9000;0.8490;-0.7102;
469.2000;0.8482;-0.7201;
469.5000;0.8433;-0.7374;
469.8000;0.8482;-0.7276;
470.1000;0.8482;-0.7251;
470.4000;0.8474;-0.7276;
470.7000;0.8474;-0.7251;
471.0000;0.8433;-0.7325;
471.3000;0.8482;-0.7177;
471.6000;0.8482;-0.7177;
471.9000;0.8498;-0.7152;
472.2000;0.8490;-0.7251;
472.5000;0.8514;-0.7152;
472.8000;0.8474;-0.7325;
473.1000;0.8482;-0.7350;
473.4000;0.8457;-0.7300;
473.7000;0.8474;-0.7226;
474.0000;0.8482;-0.7201;
474.3000;0.8506;-0.7102;
474.6000;0.8498;-0.7078;
474.9000;0.8466;-0.7102;
475.2000;0.8482;-0.7003;
475.5000;0.8482;-0.6979;
475.8000;0.8474;-0.6904;
476.1000;0.8506;-0.6855;
476.4000;0.8482;-0.7053;
476.7000;0.8506;-0.7003;
477.0000;0.8490;-0.7003;
477.3000;0.8506;-0.6954;
477.6000;0.8498;-0.6979;
477.9000;0.8490;-0.6979;
478.2000;0.8506;-0.7053;
478.5000;0.8482;-0.7152;
478.8000;0.8433;-0.7226;
479.1000;0.8474;-0.7152;
479.4000;0.8466;-0.7177;
479.7000;0.8482;-0.7127;
480.0000;0.8466;-0.7053;
480.3000;0.8474;-0.6979;
480.6000;0.8482;-0.6979;
480.9000;0.8441;-0.7177;
481.2000;0.8498;-0.7053;
481.5000;0.8490;-0.7127;
481.8000;0.8449;-0.7226;
482.1000;0.8498;-0.7127;
482.4000;0.8482;-0.7152;
482.7000;0.8441;-0.7251;
483.0000;0.8474;-0.7102;
483.3000;0.8482;-0.7102;
483.6000;0.8466;-0.7152;
483.9000;0.8433;-0.7325;
484.2000;0.8466;-0.7251;
484.5000;0.8466;-0.7201;
484.8000;0.8474;-0.7028;
485.1000;0.8457;-0.7053;
485.4000;0.8457;-0.7201;
485.7000;0.8466;-0.7152;
486.0000;0.8441;-0.7152;
486.3000;0.8449;-0.7177;
486.6000;0.8441;-0.7127;
486.9000;0.8466;-0.6954;
487.2000;0.8433;-0.7028;
487.5000;0.8466;-0.6904;
487.8000;0.8457;-0.7003;
488.1000;0.8466;-0.6929;
488.4000;0.8466;-0.6954;
488.7000;0.8457;-0.6979;
489.0000;0.8457;-0.6880;
489.3000;0.8474;-0.6830;
489.6000;0.8506;-0.6830;
489.9000;0.8506;-0.6979;
490.2000;0.8482;-0.7127;
490.5000;0.8474;-0.7226;
490.8000;0.8482;-0.7201;
491.1000;0.8482;-0.7325;
491.4000;0.8466;-0.7350;
491.7000;0.8474;-0.7276;
492.0000;0.8457;-0.7276;
492.3000;0.8466;-0.7300;
492.6000;0.8466;-0.7374;
492.9000;0.8466;-0.7350;
493.2000;0.8490;-0.7251;
493.5000;0.8506;-0.7053;
493.8000;0.8474;-0.7102;
494.1000;0.8466;-0.7152;
494.4000;0.8482;-0.7177;
494.7000;0.8457;-0.7251;
495.0000;0.8457;-0.7226;
495.3000;0.8474;-0.7078;
495.6000;0.8457;-0.7078;
495.9000;0.8474;-0.7102;
496.2000;0.8482;-0.7102;
496.5000;0.8482;-0.7201;
496.8000;0.8449;-0.7276;
497.1000;0.8498;-0.7053;
497.4000;0.8449;-0.7127;
497.7000;0.8425;-0.7102;
498.0000;0.8457;-0.6979;
498.3000;0.8474;-0.6880;
498.6000;0.8466;-0.6855;
498.9000;0.8482;-0.6855;
499.2000;0.8498;-0.6954;
499.5000;0.8482;-0.7152;
499.8000;0.8506;-0.7028;
500.1000;0.8539;-0.6805;
500.4000;0.8466;-0.7053;
500.7000;0.8498;-0.6954;
501.0000;0.8457;-0.7078;
501.3000;0.8571;-0.6731;
501.6000;0.8482;-0.7003;
501.9000;0.8466;-0.7053;
502.2000;0.8449;-0.6954;
502.5000;0.8466;-0.6880;
502.8000;0.8490;-0.6805;
503.1000;0.8425;-0.6979;
503.4000;0.8457;-0.6979;
503.7000;0.8433;-0.7028;
504.0000;0.8474;-0.6979;
504.3000;0.8433;-0.7127;
504.6000;0.8449;-0.7127;
504.9000;0.8514;-0.6979;
505.2000;0.8457;-0.7102;
505.5000;0.8466;-0.7053;
505.8000;0.8441;-0.7102;
506.1000;0.8490;-0.6954;
506.4000;0.8457;-0.7102;
506.7000;0.8457;-0.7127;
507.0000;0.8514;-0.6929;
507.3000;0.8425;-0.7053;
507.6000;0.8457;-0.6954;
507.9000;0.8433;-0.6979;
508.2000;0.8441;-0.6954;
508.5000;0.8466;-0.6929;
508.8000;0.8466;-0.6855;
509.1000;0.8482;-0.6756;
509.4000;0.8441;-0.6904;
509.7000;0.8449;-0.6880;
510.0000;0.8474;-0.6781;
510.3000;0.8466;-0.6781;
510.6000;0.8457;-0.6781;
510.9000;0.8457;-0.6880;
511.2000;0.8441;-0.6880;
511.5000;0.8466;-0.6904;
511.8000;0.8449;-0.6979;
512.1000;0.8466;-0.6880;
512.4000;0.8466;-0.6830;
512.7000;0.8474;-0.6756;
513.0000;0.8474;-0.6781;
513.3000;0.8457;-0.6855;
513.6000;0.8474;-0.6830;
513.9000;0.8498;-0.6805;
514.2000;0.8482;-0.6781;
514.5000;0.8457;-0.6756;
514.8000;0.8466;-0.6706;
515.1000;0.8466;-0.6706;
515.4000;0.8457;-0.6731;
515.7000;0.8368;-0.7053;
516.0000;0.8449;-0.6904;
516.3000;0.8441;-0.6954;
516.6000;0.8457;-0.6929;
516.9000;0.8441;-0.7003;
517.2000;0.8433;-0.7028;
517.5000;0.8490;-0.6904;
517.8000;0.8457;-0.6954;
518.1000;0.8474;-0.6830;
518.4000;0.8457;-0.6880;
518.7000;0.8457;-0.6830;
519.0000;0.8457;-0.6880;
519.3000;0.8466;-0.6929;
519.6000;0.8449;-0.7003;
519.9000;0.8466;-0.6904;
520.2000;0.8482;-0.6904;
520.5000;0.8474;-0.7003;
520.8000;0.8449;-0.7102;
521.1000;0.8449;-0.7127;
521.4000;0.8474;-0.7078;
521.7000;0.8466;-0.7102;
522.0000;0.8457;-0.7078;
522.3000;0.8457;-0.7127;
522.6000;0.8466;-0.7127;
522.9000;0.8449;-0.7201;
523.2000;0.8563;-0.6880;
523.5000;0.8457;-0.7102;
523.8000;0.8466;-0.7078;
524.1000;0.8482;-0.7053;
524.4000;0.8514;-0.6954;
524.7000;0.8466;-0.7053;
525.0000;0.8449;-0.7102;
525.3000;0.8466;-0.6979;
525.6000;0.8449;-0.6904;
525.9000;0.8466;-0.6929;
526.2000;0.8417;-0.7053;
526.5000;0.8457;-0.7003;
526.8000;0.8466;-0.7003;
527.1000;0.8466;-0.6979;
527.4000;0.8457;-0.6979;
527.7000;0.8441;-0.6904;
528.0000;0.8449;-0.6929;
528.3000;0.8441;-0.6904;
528.6000;0.8449;-0.6979;
528.9000;0.8449;-0.7028;
529.2000;0.8474;-0.6979;
529.5000;0.8449;-0.7053;
529.8000;0.8466;-0.7003;
530.1000;0.8457;-0.6880;
530.4000;0.8466;-0.6929;
530.7000;0.8449;-0.7053;
531.0000;0.8457;-0.7053;
531.3000;0.8457;-0.7053;
531.6000;0.8457;-0.7028;
531.9000;0.8449;-0.7078;
532.2000;0.8441;-0.7028;
532.5000;0.8433;-0.7028;
532.8000;0.8433;-0.7028;
533.1000;0.8449;-0.6929;
533.4000;0.8433;-0.7028;
533.7000;0.8433;-0.7053;
534.0000;0.8433;-0.6979;
534.3000;0.8449;-0.6929;
534.6000;0.8441;-0.6880;
534.9000;0.8441;-0.6830;
535.2000;0.8441;-0.6855;
535.5000;0.8474;-0.6756;
535.8000;0.8441;-0.6904;
536.1000;0.8457;-0.6855;
536.4000;0.8449;-0.6805;
536.7000;0.8514;-0.6682;
537.0000;0.8441;-0.6855;
537.3000;0.8457;-0.6830;
537.6000;0.8441;-0.6830;
537.9000;0.8457;-0.6855;
538.2000;0.8457;-0.6880;
538.5000;0.8409;-0.7053;
538.8000;0.8449;-0.7003;
539.1000;0.8433;-0.7003;
539.4000;0.8466;-0.6904;
539.7000;0.8457;-0.6855;
540.0000;0.8392;-0.7152;
540.3000;0.8441;-0.6979;
540.6000;0.8400;-0.7127;
540.9000;0.8498;-0.6781;
541.2000;0.8449;-0.6855;
541.5000;0.8417;-0.6904;
541.8000;0.8433;-0.6830;
542.1000;0.8433;-0.6855;
542.4000;0.8425;-0.6880;
542.7000;0.8425;-0.6904;
543.0000;0.8482;-0.6805;
543.3000;0.8425;-0.6954;
543.6000;0.8441;-0.6954;
543.9000;0.8441;-0.7003;
544.2000;0.8433;-0.7053;
544.5000;0.8474;-0.7003;
544.8000;0.8457;-0.7152;
545.1000;0.8441;-0.7152;
545.4000;0.8441;-0.7078;
545.7000;0.8490;-0.7003;
546.0000;0.8441;-0.7078;
546.3000;0.8449;-0.7127;
546.6000;0.8441;-0.7226;
546.9000;0.8441;-0.7152;
547.2000;0.8441;-0.7053;
547.5000;0.8441;-0.7078;
547.8000;0.8392;-0.7152;
548.1000;0.8417;-0.7028;
548.4000;0.8449;-0.6904;
548.7000;0.8425;-0.6855;
549.0000;0.8433;-0.6830;
549.3000;0.8441;-0.6880;
549.6000;0.8457;-0.6880;
549.9000;0.8457;-0.6880;
550.2000;0.8441;-0.7003;
550.5000;0.8457;-0.7127;
550.8000;0.8449;-0.7127;
551.1000;0.8449;-0.7127;
551.4000;0.8449;-0.7127;
551.7000;0.8441;-0.7102;
552.0000;0.8441;-0.7102;
552.3000;0.8449;-0.7053;
552.6000;0.8449;-0.7053;
552.9000;0.8441;-0.7127;
553.2000;0.8425;-0.7102;
553.5000;0.8457;-0.6929;
553.8000;0.8384;-0.7053;
554.1000;0.8425;-0.6954;
554.4000;0.8433;-0.7003;
554.7000;0.8433;-0.6979;
555.0000;0.8392;-0.7127;
555.3000;0.8449;-0.6929;
555.6000;0.8441;-0.6979;
555.9000;0.8449;-0.7003;
556.2000;0.8457;-0.7003;
556.5000;0.8449;-0.6979;
556.8000;0.8441;-0.7028;
557.1000;0.8441;-0.6979;
557.4000;0.8441;-0.7003;
557.7000;0.8433;-0.7028;
558.0000;0.8409;-0.7028;
558.3000;0.8417;-0.6979;
558.6000;0.8433;-0.6855;
558.9000;0.8449;-0.6830;
559.2000;0.8441;-0.6929;
559.5000;0.8425;-0.6979;
559.8000;0.8441;-0.6904;
560.1000;0.8441;-0.6904;
560.4000;0.8433;-0.6904;
560.7000;0.8449;-0.6904;
561.0000;0.8417;-0.6954;
561.3000;0.8417;-0.6979;
561.6000;0.8384;-0.7053;
561.9000;0.8417;-0.6904;
562.2000;0.8433;-0.6904;
562.5000;0.8400;-0.6954;
562.8000;0.8433;-0.6781;
563.1000;0.8417;-0.6756;
563.4000;0.8433;-0.6781;
563.7000;0.8506;-0.6657;
564.0000;0.8417;-0.6929;
564.3000;0.8417;-0.6904;
564.6000;0.8425;-0.6880;
564.9000;0.8425;-0.6880;
565.2000;0.8425;-0.6855;
565.5000;0.8425;-0.6904;
565.8000;0.8384;-0.7053;
566.1000;0.8441;-0.6855;
566.4000;0.8409;-0.7028;
566.7000;0.8425;-0.7028;
567.0000;0.8400;-0.7177;
567.3000;0.8441;-0.7102;
567.6000;0.8441;-0.7053;
567.9000;0.8433;-0.7127;
568.2000;0.8417;-0.7127;
568.5000;0.8531;-0.6756;
568.8000;0.8417;-0.7102;
569.1000;0.8490;-0.6954;
569.4000;0.8425;-0.7102;
569.7000;0.8449;-0.6979;
570.0000;0.8441;-0.7003;
570.3000;0.8433;-0.7028;
570.6000;0.8417;-0.7102;
570.9000;0.8433;-0.7102;
571.2000;0.8466;-0.7102;
571.5000;0.8474;-0.6954;
571.8000;0.8441;-0.7078;
572.1000;0.8368;-0.7300;
572.4000;0.8441;-0.7177;
572.7000;0.8384;-0.7300;
573.0000;0.8433;-0.6979;
573.3000;0.8425;-0.6929;
573.6000;0.8425;-0.6855;
573.9000;0.8425;-0.6855;
574.2000;0.8474;-0.6706;
574.5000;0.8425;-0.6781;
574.8000;0.8433;-0.6805;
575.1000;0.8433;-0.6904;
575.4000;0.8376;-0.7201;
575.7000;0.8514;-0.6880;
576.0000;0.8425;-0.7152;
576.3000;0.8457;-0.6954;
576.6000;0.8441;-0.6929;
576.9000;0.8441;-0.6954;
577.2000;0.8360;-0.7226;
577.5000;0.8441;-0.6979;
577.8000;0.8409;-0.7127;
578.1000;0.8376;-0.7251;
578.4000;0.8376;-0.7325;
578.7000;0.8441;-0.7102;
579.0000;0.8425;-0.7127;
579.3000;0.8433;-0.7127;
579.6000;0.8400;-0.7177;
579.9000;0.8425;-0.7201;
580.2000;0.8433;-0.7177;
580.5000;0.8433;-0.7127;
580.8000;0.8425;-0.7127;
581.1000;0.8417;-0.7152;
581.4000;0.8425;-0.7028;
581.7000;0.8409;-0.7102;
582.0000;0.8449;-0.6979;
582.3000;0.8441;-0.6954;
582.6000;0.8376;-0.7102;
582.9000;0.8376;-0.7152;
583.2000;0.8441;-0.6954;
583.5000;0.8417;-0.6929;
583.8000;0.8441;-0.6880;
584.1000;0.8433;-0.6929;
584.4000;0.8433;-0.6904;
584.7000;0.8384;-0.7127;
585.0000;0.8417;-0.7078;
585.3000;0.8433;-0.7003;
585.6000;0.8433;-0.6979;
585.9000;0.8433;-0.6929;
586.2000;0.8417;-0.6880;
586.5000;0.8433;-0.6904;
586.8000;0.8433;-0.6929;
587.1000;0.8425;-0.6929;
587.4000;0.8417;-0.6954;
587.7000;0.8425;-0.6954;
588.0000;0.8449;-0.6880;
588.3000;0.8457;-0.6855;
588.6000;0.8425;-0.6880;
588.9000;0.8425;-0.6830;
589.2000;0.8433;-0.6830;
589.5000;0.8523;-0.6607;
589.8000;0.8441;-0.6929;
590.1000;0.8409;-0.7053;
590.4000;0.8466;-0.6904;
590.7000;0.8417;-0.6954;
591.0000;0.8417;-0.7053;
591.3000;0.8417;-0.7102;
591.6000;0.8449;-0.6929;
591.9000;0.8441;-0.6904;
592.2000;0.8425;-0.6979;
592.5000;0.8409;-0.7003;
592.8000;0.8433;-0.6805;
593.1000;0.8433;-0.6805;
593.4000;0.8547;-0.6533;
593.7000;0.8417;-0.6855;
594.0000;0.8425;-0.6880;
594.3000;0.8392;-0.7003;
594.6000;0.8466;-0.6805;
594.9000;0.8417;-0.6830;
595.2000;0.8417;-0.6880;
595.5000;0.8441;-0.6929;
595.8000;0.8441;-0.6855;
596.1000;0.8433;-0.6954;
596.4000;0.8441;-0.6855;
596.7000;0.8466;-0.6706;
597.0000;0.8433;-0.6781;
597.3000;0.8392;-0.6904;
597.6000;0.8433;-0.6855;
597.9000;0.8400;-0.6979;
598.2000;0.8466;-0.6855;
598.5000;0.8425;-0.6904;
598.8000;0.8368;-0.6979;
599.1000;0.8335;-0.7078;
599.4000;0.8457;-0.6830;
599.7000;0.8449;-0.6855;
600.0000;0.8417;-0.6904;
600.3000;0.8400;-0.7102;
600.6000;0.8319;-0.7300;
600.9000;0.8197;-0.7523;
601.2000;0.8050;-0.7696;
601.5000;0.7904;-0.7894;
601.8000;0.7717;-0.8142;
602.1000;0.7546;-0.8439;
602.4000;0.7407;-0.8562;
602.7000;0.7293;-0.8711;
603.0000;0.7196;-0.8736;
603.3000;0.7049;-0.9008;
603.6000;0.6960;-0.9057;
603.9000;0.6854;-0.9206;
604.2000;0.6756;-0.9329;
604.5000;0.6707;-0.9428;
604.8000;0.6626;-0.9527;
605.1000;0.6545;-0.9577;
605.4000;0.6471;-0.9676;
605.7000;0.6455;-0.9676;
606.0000;0.6365;-0.9800;
606.3000;0.6317;-0.9849;
606.6000;0.6252;-0.9849;
606.9000;0.6203;-0.9800;
607.2000;0.6178;-0.9849;
607.5000;0.6105;-1.0022;
607.8000;0.6089;-1.0022;
608.1000;0.6072;-0.9973;
608.4000;0.6032;-1.0022;
608.7000;0.5991;-1.0072;
609.0000;0.5902;-1.0220;
609.3000;0.5918;-1.0121;
609.6000;0.5877;-1.0146;
609.9000;0.5828;-1.0245;
610.2000;0.5812;-1.0245;
610.5000;0.5722;-1.0468;
610.8000;0.5763;-1.0319;
611.1000;0.5771;-1.0245;
611.4000;0.5747;-1.0220;
611.7000;0.5690;-1.0394;
612.0000;0.5682;-1.0344;
612.3000;0.5657;-1.0418;
612.6000;0.5617;-1.0493;
612.9000;0.5625;-1.0517;
613.2000;0.5617;-1.0542;
613.5000;0.5568;-1.0567;
613.8000;0.5543;-1.0567;
614.1000;0.5551;-1.0517;
614.4000;0.5535;-1.0493;
614.7000;0.5543;-1.0443;
615.0000;0.5511;-1.0468;
615.3000;0.5478;-1.0616;
615.6000;0.5462;-1.0616;
615.9000;0.5535;-1.0394;
616.2000;0.5438;-1.0493;
616.5000;0.5405;-1.0542;
616.8000;0.5405;-1.0542;
617.1000;0.5405;-1.0592;
617.4000;0.5421;-1.0468;
617.7000;0.5389;-1.0493;
618.0000;0.5356;-1.0666;
618.3000;0.5340;-1.0616;
618.6000;0.5356;-1.0616;
618.9000;0.5315;-1.0740;
619.2000;0.5307;-1.0814;
619.5000;0.5315;-1.0765;
619.8000;0.5283;-1.0765;
620.1000;0.5283;-1.0790;
620.4000;0.5267;-1.0864;
620.7000;0.5258;-1.0864;
621.0000;0.5258;-1.0740;
621.3000;0.5250;-1.0691;
621.6000;0.5250;-1.0616;
621.9000;0.5218;-1.0715;
622.2000;0.5218;-1.0715;
622.5000;0.5218;-1.0691;
622.8000;0.5201;-1.0666;
623.1000;0.5177;-1.0814;
623.4000;0.5193;-1.0715;
623.7000;0.5177;-1.0666;
624.0000;0.5185;-1.0641;
624.3000;0.5177;-1.0666;
624.6000;0.5153;-1.0740;
624.9000;0.5088;-1.0889;
625.2000;0.5153;-1.0641;
625.5000;0.5112;-1.0715;
625.8000;0.5112;-1.0666;
626.1000;0.5112;-1.0740;
626.4000;0.5112;-1.0814;
626.7000;0.5104;-1.0864;
627.0000;0.5096;-1.0864;
627.3000;0.5079;-1.0889;
627.6000;0.5088;-1.0864;
627.9000;0.5031;-1.0839;
628.2000;0.5112;-1.0641;
628.5000;0.5071;-1.0666;
628.8000;0.5079;-1.0616;
629.1000;0.5039;-1.0592;
629.4000;0.5047;-1.0567;
629.7000;0.5047;-1.0542;
630.0000;0.5031;-1.0542;
630.3000;0.5031;-1.0616;
630.6000;0.5039;-1.0641;
630.9000;0.5006;-1.0740;
631.2000;0.4982;-1.0765;
631.5000;0.4998;-1.0790;
631.8000;0.4982;-1.0864;
632.1000;0.5055;-1.0641;
632.4000;0.4982;-1.0740;
632.7000;0.5006;-1.0715;
633.0000;0.4982;-1.0839;
633.3000;0.4982;-1.0889;
633.6000;0.4974;-1.0889;
633.9000;0.4974;-1.0963;
634.2000;0.4957;-1.0938;
634.5000;0.4933;-1.0864;
634.8000;0.4965;-1.0814;
635.1000;0.4949;-1.0987;
635.4000;0.4965;-1.0839;
635.7000;0.4941;-1.0889;
636.0000;0.4941;-1.0864;
636.3000;0.4892;-1.0938;
636.6000;0.4941;-1.0790;
636.9000;0.4908;-1.0839;
637.2000;0.4900;-1.0913;
637.5000;0.4884;-1.0913;
637.8000;0.4917;-1.0889;
638.1000;0.4892;-1.0913;
638.4000;0.4892;-1.0913;
638.7000;0.4900;-1.0913;
639.0000;0.4917;-1.0814;
639.3000;0.4900;-1.0864;
639.6000;0.4900;-1.0765;
639.9000;0.4900;-1.0715;
640.2000;0.4868;-1.0740;
640.5000;0.4876;-1.0765;
640.8000;0.4868;-1.0765;
641.1000;0.4819;-1.0839;
641.4000;0.4868;-1.0666;
641.7000;0.4860;-1.0765;
642.0000;0.4843;-1.0765;
642.3000;0.4827;-1.0790;
642.6000;0.4868;-1.0641;
642.9000;0.4835;-1.0691;
643.2000;0.4843;-1.0715;
643.5000;0.4827;-1.0814;
643.8000;0.4843;-1.0765;
644.1000;0.4827;-1.0814;
644.4000;0.4827;-1.0889;
644.7000;0.4819;-1.0938;
645.0000;0.4803;-1.0963;
645.3000;0.4827;-1.0889;
645.6000;0.4819;-1.0913;
645.9000;0.4811;-1.0889;
646.2000;0.4811;-1.0864;
646.5000;0.4794;-1.0839;
646.8000;0.4819;-1.0790;
647.1000;0.4778;-1.0839;
647.4000;0.4778;-1.0814;
647.7000;0.4803;-1.0765;
648.0000;0.4786;-1.0765;
648.3000;0.4811;-1.0641;
648.6000;0.4803;-1.0666;
648.9000;0.4811;-1.0641;
649.2000;0.4794;-1.0691;
649.5000;0.4803;-1.0740;
649.8000;0.4778;-1.0790;
650.1000;0.4754;-1.0889;
650.4000;0.4778;-1.0814;
650.7000;0.4770;-1.0715;
651.0000;0.4721;-1.0790;
651.3000;0.4737;-1.0864;
651.6000;0.4754;-1.0839;
651.9000;0.4754;-1.0715;
652.2000;0.4737;-1.0740;
652.5000;0.4721;-1.0691;
652.8000;0.4705;-1.0790;
653.1000;0.4778;-1.0493;
653.4000;0.4729;-1.0616;
653.7000;0.4746;-1.0592;
654.0000;0.4737;-1.0567;
654.3000;0.4737;-1.0616;
654.6000;0.4713;-1.0666;
654.9000;0.4697;-1.0715;
655.2000;0.4697;-1.0765;
655.5000;0.4778;-1.0493;
655.8000;0.4681;-1.0740;
656.1000;0.4778;-1.0443;
656.4000;0.4689;-1.0715;
656.7000;0.4705;-1.0616;
657.0000;0.4681;-1.0517;
657.3000;0.4681;-1.0542;
657.6000;0.4681;-1.0468;
657.9000;0.4713;-1.0468;
658.2000;0.4689;-1.0641;
658.5000;0.4681;-1.0740;
658.8000;0.4689;-1.0666;
659.1000;0.4681;-1.0715;
659.4000;0.4697;-1.0616;
659.7000;0.4664;-1.0641;
660.0000;0.4648;-1.0765;
660.3000;0.4681;-1.0765;
660.6000;0.4664;-1.0889;
660.9000;0.4681;-1.0913;
661.2000;0.4672;-1.0938;
661.5000;0.4648;-1.0889;
661.8000;0.4664;-1.0839;
662.1000;0.4681;-1.0740;
662.4000;0.4664;-1.0814;
662.7000;0.4681;-1.0715;
663.0000;0.4681;-1.0666;
663.3000;0.4664;-1.0790;
663.6000;0.4656;-1.0740;
663.9000;0.4697;-1.0517;
664.2000;0.4648;-1.0641;
664.5000;0.4672;-1.0542;
664.8000;0.4656;-1.0592;
665.1000;0.4640;-1.0616;
665.4000;0.4640;-1.0542;
665.7000;0.4550;-1.0864;
666.0000;0.4624;-1.0641;
666.3000;0.4640;-1.0765;
666.6000;0.4632;-1.0839;
666.9000;0.4607;-1.0963;
667.2000;0.4648;-1.0913;
667.5000;0.4632;-1.0938;
667.8000;0.4607;-1.1012;
668.1000;0.4632;-1.0938;
668.4000;0.4624;-1.0963;
668.7000;0.4697;-1.0740;
669.0000;0.4681;-1.0790;
669.3000;0.4607;-1.0889;
669.6000;0.4607;-1.0790;
669.9000;0.4615;-1.0715;
670.2000;0.4607;-1.0691;
670.5000;0.4591;-1.0616;
670.8000;0.4624;-1.0592;
671.1000;0.4591;-1.0666;
671.4000;0.4575;-1.0740;
671.7000;0.4599;-1.0765;
672.0000;0.4583;-1.0864;
672.3000;0.4599;-1.0765;
672.6000;0.4591;-1.0740;
672.9000;0.4599;-1.0765;
673.2000;0.4599;-1.0864;
673.5000;0.4591;-1.0889;
673.8000;0.4575;-1.0864;
674.1000;0.4567;-1.0839;
674.4000;0.4567;-1.0889;
674.7000;0.4558;-1.0889;
675.0000;0.4583;-1.0864;
675.3000;0.4607;-1.0839;
675.6000;0.4575;-1.0963;
675.9000;0.4558;-1.0938;
676.2000;0.4550;-1.0938;
676.5000;0.4558;-1.0839;
676.8000;0.4558;-1.0864;
677.1000;0.4583;-1.0839;
677.4000;0.4567;-1.0814;
677.7000;0.4575;-1.0740;
678.0000;0.4575;-1.0715;
678.3000;0.4542;-1.0839;
678.6000;0.4550;-1.0740;
678.9000;0.4550;-1.0740;
679.2000;0.4558;-1.0790;
679.5000;0.4534;-1.0814;
679.8000;0.4542;-1.0889;
680.1000;0.4550;-1.0889;
680.4000;0.4518;-1.0864;
680.7000;0.4550;-1.0765;
681.0000;0.4501;-1.0889;
681.3000;0.4534;-1.0790;
681.6000;0.4534;-1.0765;
681.9000;0.4534;-1.0765;
682.2000;0.4534;-1.0814;
682.5000;0.4526;-1.0839;
682.8000;0.4510;-1.0913;
683.1000;0.4518;-1.0938;
683.4000;0.4542;-1.0913;
683.7000;0.4526;-1.0913;
684.0000;0.4534;-1.0839;
684.3000;0.4575;-1.0790;
684.6000;0.4501;-1.0839;
684.9000;0.4510;-1.0839;
685.2000;0.4526;-1.0864;
685.5000;0.4542;-1.0839;
685.8000;0.4485;-1.0938;
686.1000;0.4493;-1.0938;
686.4000;0.4550;-1.0715;
686.7000;0.4493;-1.0889;
687.0000;0.4518;-1.0839;
687.3000;0.4567;-1.0715;
687.6000;0.4526;-1.0864;
687.9000;0.4501;-1.0913;
688.2000;0.4485;-1.0913;
688.5000;0.4485;-1.0913;
688.8000;0.4493;-1.0864;
689.1000;0.4501;-1.0839;
689.4000;0.4493;-1.0889;
689.7000;0.4485;-1.0938;
690.0000;0.4501;-1.0889;
690.3000;0.4477;-1.0864;
690.6000;0.4453;-1.0864;
690.9000;0.4493;-1.0666;
691.2000;0.4485;-1.0691;
691.5000;0.4469;-1.0790;
691.8000;0.4526;-1.0641;
692.1000;0.4477;-1.0740;
692.4000;0.4453;-1.0814;
692.7000;0.4477;-1.0790;
693.0000;0.4461;-1.0864;
693.3000;0.4477;-1.0765;
693.6000;0.4469;-1.0765;
693.9000;0.4469;-1.0814;
694.2000;0.4469;-1.0765;
694.5000;0.4461;-1.0765;
694.8000;0.4493;-1.0715;
695.1000;0.4485;-1.0740;
695.4000;0.4477;-1.0814;
695.7000;0.4461;-1.0889;
696.0000;0.4461;-1.0889;
696.3000;0.4461;-1.0963;
696.6000;0.4461;-1.0938;
696.9000;0.4444;-1.0913;
697.2000;0.4436;-1.0889;
697.5000;0.4436;-1.0814;
697.8000;0.4510;-1.0641;
698.1000;0.4444;-1.0839;
698.4000;0.4444;-1.0765;
698.7000;0.4444;-1.0765;
699.0000;0.4477;-1.0691;
699.3000;0.4428;-1.0740;
699.6000;0.4420;-1.0715;
699.9000;0.4469;-1.0641;
700.2000;0.4444;-1.0691;
700.5000;0.4444;-1.0765;
700.8000;0.4444;-1.0839;
701.1000;0.4444;-1.0839;
701.4000;0.4436;-1.0814;
701.7000;0.4436;-1.0864;
702.0000;0.4379;-1.0963;
702.3000;0.4428;-1.0864;
702.6000;0.4420;-1.0938;
702.9000;0.4420;-1.0963;
703.2000;0.4420;-1.0889;
703.5000;0.4404;-1.0814;
703.8000;0.4387;-1.0839;
704.1000;0.4444;-1.0790;
704.4000;0.4444;-1.0765;
704.7000;0.4428;-1.0814;
705.0000;0.4436;-1.0765;
705.3000;0.4444;-1.0715;
705.6000;0.4412;-1.0790;
705.9000;0.4412;-1.0790;
706.2000;0.4404;-1.0814;
706.5000;0.4461;-1.0691;
706.8000;0.4404;-1.0814;
707.1000;0.4412;-1.0790;
707.4000;0.4379;-1.0864;
707.7000;0.4396;-1.0889;
708.0000;0.4412;-1.0814;
708.3000;0.4420;-1.0765;
708.6000;0.4412;-1.0790;
708.9000;0.4412;-1.0790;
709.2000;0.4420;-1.0913;
709.5000;0.4420;-1.0938;
709.8000;0.4412;-1.0938;
710.1000;0.4404;-1.1012;
710.4000;0.4404;-1.1012;
710.7000;0.4363;-1.1062;
711.0000;0.4339;-1.1086;
711.3000;0.4396;-1.0963;
711.6000;0.4363;-1.0963;
711.9000;0.4387;-1.0963;
712.2000;0.4404;-1.0913;
712.5000;0.4371;-1.0987;
712.8000;0.4428;-1.0790;
713.1000;0.4412;-1.0913;
713.4000;0.4371;-1.0987;
713.7000;0.4363;-1.0963;
714.0000;0.4396;-1.0913;
714.3000;0.4404;-1.0987;
714.6000;0.4461;-1.0790;
714.9000;0.4396;-1.0864;
715.2000;0.4371;-1.0814;
715.5000;0.4404;-1.0790;
715.8000;0.4379;-1.0913;
716.1000;0.4363;-1.0913;
716.4000;0.4330;-1.0938;
716.7000;0.4371;-1.0889;
717.0000;0.4371;-1.0938;
717.3000;0.4363;-1.1012;
717.6000;0.4347;-1.1012;
717.9000;0.4339;-1.1062;
718.2000;0.4371;-1.0938;
718.5000;0.4347;-1.0889;
718.8000;0.4363;-1.0938;
719.1000;0.4379;-1.0913;
719.4000;0.4379;-1.0938;
719.7000;0.4355;-1.1012;
720.0000;0.4371;-1.1062;
720.3000;0.4379;-1.1012;
720.6000;0.4355;-1.0938;
720.9000;0.4363;-1.0938;
721.2000;0.4330;-1.0987;
721.5000;0.4355;-1.0913;
721.8000;0.4339;-1.0913;
722.1000;0.4314;-1.1012;
722.4000;0.4330;-1.0987;
722.7000;0.4387;-1.0814;
723.0000;0.4330;-1.0913;
723.3000;0.4371;-1.0839;
723.6000;0.4347;-1.0765;
723.9000;0.4339;-1.0740;
724.2000;0.4322;-1.0715;
724.5000;0.4330;-1.0691;
724.8000;0.4339;-1.0666;
725.1000;0.4371;-1.0592;
725.4000;0.4330;-1.0740;
725.7000;0.4347;-1.0715;
726.0000;0.4339;-1.0616;
726.3000;0.4330;-1.0616;
726.6000;0.4298;-1.0790;
726.9000;0.4396;-1.0567;
727.2000;0.4379;-1.0517;
727.5000;0.4339;-1.0616;
727.8000;0.4306;-1.0765;
728.1000;0.4314;-1.0715;
728.4000;0.4314;-1.0691;
728.7000;0.4314;-1.0765;
729.0000;0.4339;-1.0740;
729.3000;0.4330;-1.0740;
729.6000;0.4330;-1.0790;
729.9000;0.4339;-1.0765;
730.2000;0.4322;-1.0765;
730.5000;0.4330;-1.0691;
730.8000;0.4347;-1.0616;
731.1000;0.4290;-1.0790;
731.4000;0.4339;-1.0616;
731.7000;0.4314;-1.0641;
732.0000;0.4347;-1.0592;
732.3000;0.4257;-1.0790;
732.6000;0.4322;-1.0592;
732.9000;0.4306;-1.0740;
733.2000;0.4322;-1.0715;
733.5000;0.4314;-1.0715;
733.8000;0.4257;-1.0938;
734.1000;0.4314;-1.0864;
734.4000;0.4314;-1.0913;
734.7000;0.4330;-1.0864;
735.0000;0.4306;-1.0864;
735.3000;0.4306;-1.0889;
735.6000;0.4322;-1.0913;
735.9000;0.4322;-1.0839;
736.2000;0.4330;-1.0864;
736.5000;0.4306;-1.0814;
736.8000;0.4290;-1.0715;
737.1000;0.4290;-1.0715;
737.4000;0.4298;-1.0814;
737.7000;0.4322;-1.0740;
738.0000;0.4290;-1.0814;
738.3000;0.4282;-1.0740;
738.6000;0.4355;-1.0542;
738.9000;0.4298;-1.0616;
739.2000;0.4314;-1.0592;
739.5000;0.4290;-1.0592;
739.8000;0.4314;-1.0567;
740.1000;0.4290;-1.0592;
740.4000;0.4298;-1.0542;
740.7000;0.4298;-1.0567;
741.0000;0.4306;-1.0641;
741.3000;0.4314;-1.0691;
741.6000;0.4306;-1.0740;
741.9000;0.4314;-1.0691;
742.2000;0.4314;-1.0740;
742.5000;0.4282;-1.0790;
742.8000;0.4379;-1.0493;
743.1000;0.4298;-1.0567;
743.4000;0.4298;-1.0592;
743.7000;0.4274;-1.0790;
744.0000;0.4298;-1.0740;
744.3000;0.4290;-1.0814;
744.6000;0.4298;-1.0814;
744.9000;0.4298;-1.0814;
745.2000;0.4249;-1.1037;
745.5000;0.4290;-1.0987;
745.8000;0.4290;-1.1037;
746.1000;0.4363;-1.0790;
746.4000;0.4298;-1.1012;
746.7000;0.4265;-1.1062;
747.0000;0.4265;-1.1037;
747.3000;0.4282;-1.0864;
747.6000;0.4314;-1.0740;
747.9000;0.4233;-1.0864;
748.2000;0.4168;-1.1136;
748.5000;0.4330;-1.0666;
748.8000;0.4274;-1.0691;
749.1000;0.4314;-1.0592;
749.4000;0.4241;-1.0814;
749.7000;0.4290;-1.0740;
750.0000;0.4290;-1.0814;
750.3000;0.4265;-1.0814;
750.6000;0.4274;-1.0814;
750.9000;0.4257;-1.0765;
751.2000;0.4265;-1.0715;
751.5000;0.4290;-1.0715;
751.8000;0.4274;-1.0740;
752.1000;0.4265;-1.0765;
752.4000;0.4241;-1.0889;
752.7000;0.4265;-1.0864;
753.0000;0.4282;-1.0864;
753.3000;0.4274;-1.0889;
753.6000;0.4265;-1.0938;
753.9000;0.4274;-1.0864;
754.2000;0.4274;-1.0963;
754.5000;0.4200;-1.1062;
754.8000;0.4249;-1.0864;
755.1000;0.4290;-1.0715;
755.4000;0.4257;-1.0715;
755.7000;0.4274;-1.0715;
756.0000;0.4249;-1.0740;
756.3000;0.4208;-1.0864;
756.6000;0.4274;-1.0691;
756.9000;0.4257;-1.0666;
757.2000;0.4265;-1.0691;
757.5000;0.4265;-1.0740;
757.8000;0.4314;-1.0567;
758.1000;0.4257;-1.0666;
758.4000;0.4241;-1.0715;
758.7000;0.4225;-1.0715;
759.0000;0.4257;-1.0691;
759.3000;0.4257;-1.0740;
759.6000;0.4217;-1.0839;
759.9000;0.4249;-1.0765;
760.2000;0.4257;-1.0715;
760.5000;0.4192;-1.0740;
760.8000;0.4233;-1.0641;
761.1000;0.4257;-1.0592;
761.4000;0.4257;-1.0641;
761.7000;0.4257;-1.0616;
762.0000;0.4249;-1.0616;
762.3000;0.4249;-1.0592;
762.6000;0.4257;-1.0616;
762.9000;0.4241;-1.0616;
763.2000;0.4241;-1.0666;
763.5000;0.4249;-1.0691;
763.8000;0.4233;-1.0765;
764.1000;0.4265;-1.0666;
764.4000;0.4249;-1.0715;
764.7000;0.4241;-1.0765;
765.0000;0.4233;-1.0765;
765.3000;0.4225;-1.0740;
765.6000;0.4249;-1.0740;
765.9000;0.4225;-1.0765;
766.2000;0.4241;-1.0715;
766.5000;0.4233;-1.0864;
766.8000;0.4249;-1.0864;
767.1000;0.4233;-1.0864;
767.4000;0.4257;-1.0765;
767.7000;0.4241;-1.0740;
768.0000;0.4208;-1.0765;
768.3000;0.4217;-1.0765;
768.6000;0.4208;-1.0740;
768.9000;0.4225;-1.0790;
769.2000;0.4233;-1.0691;
769.5000;0.4208;-1.0641;
769.8000;0.4241;-1.0443;
770.1000;0.4257;-1.0493;
770.4000;0.4217;-1.0567;
770.7000;0.4233;-1.0542;
771.0000;0.4135;-1.0814;
771.3000;0.4225;-1.0592;
771.6000;0.4241;-1.0592;
771.9000;0.4217;-1.0567;
772.2000;0.4168;-1.0666;
772.5000;0.4143;-1.0715;
772.8000;0.4233;-1.0542;
773.1000;0.4225;-1.0542;
773.4000;0.4217;-1.0493;
773.7000;0.4200;-1.0592;
774.0000;0.4192;-1.0641;
774.3000;0.4225;-1.0493;
774.6000;0.4217;-1.0468;
774.9000;0.4217;-1.0517;
775.2000;0.4241;-1.0542;
775.5000;0.4208;-1.0691;
775.8000;0.4217;-1.0616;
776.1000;0.4225;-1.0616;
776.4000;0.4217;-1.0592;
776.7000;0.4241;-1.0542;
777.0000;0.4225;-1.0641;
777.3000;0.4225;-1.0691;
777.6000;0.4192;-1.0740;
777.9000;0.4208;-1.0740;
778.2000;0.4217;-1.0666;
778.5000;0.4306;-1.0394;
778.8000;0.4217;-1.0567;
779.1000;0.4208;-1.0616;
779.4000;0.4225;-1.0616;
779.7000;0.4184;-1.0814;
780.0000;0.4208;-1.0765;
780.3000;0.4241;-1.0592;
780.6000;0.4225;-1.0616;
780.9000;0.4192;-1.0666;
781.2000;0.4233;-1.0592;
781.5000;0.4208;-1.0715;
781.8000;0.4094;-1.0938;
782.1000;0.4200;-1.0616;
782.4000;0.4200;-1.0641;
782.7000;0.4176;-1.0641;
783.0000;0.4208;-1.0542;
783.3000;0.4200;-1.0616;
783.6000;0.4225;-1.0567;
783.9000;0.4160;-1.0740;
784.2000;0.4192;-1.0592;
784.5000;0.4192;-1.0517;
784.8000;0.4290;-1.0245;
785.1000;0.4200;-1.0468;
785.4000;0.4192;-1.0493;
785.7000;0.4192;-1.0468;
786.0000;0.4225;-1.0493;
786.3000;0.4200;-1.0542;
786.6000;0.4192;-1.0592;
786.9000;0.4217;-1.0616;
787.2000;0.4217;-1.0666;
787.5000;0.4192;-1.0616;
787.8000;0.4208;-1.0443;
788.1000;0.4208;-1.0443;
788.4000;0.4192;-1.0542;
788.7000;0.4200;-1.0468;
789.0000;0.4208;-1.0443;
789.3000;0.4184;-1.0567;
789.6000;0.4184;-1.0517;
789.9000;0.4176;-1.0542;
790.2000;0.4192;-1.0517;
790.5000;0.4200;-1.0567;
790.8000;0.4208;-1.0592;
791.1000;0.4200;-1.0691;
791.4000;0.4192;-1.0715;
791.7000;0.4184;-1.0592;
792.0000;0.4233;-1.0517;
792.3000;0.4192;-1.0592;
792.6000;0.4176;-1.0616;
792.9000;0.4176;-1.0616;
793.2000;0.4200;-1.0616;
793.5000;0.4233;-1.0394;
793.8000;0.4192;-1.0443;
794.1000;0.4160;-1.0567;
794.4000;0.4233;-1.0468;
794.7000;0.4184;-1.0567;
795.0000;0.4184;-1.0542;
795.3000;0.4184;-1.0542;
795.6000;0.4176;-1.0542;
795.9000;0.4176;-1.0517;
796.2000;0.4233;-1.0517;
796.5000;0.4184;-1.0666;
796.8000;0.4176;-1.0691;
797.1000;0.4176;-1.0542;
797.4000;0.4184;-1.0443;
797.7000;0.4192;-1.0319;
798.0000;0.4192;-1.0394;
798.3000;0.4160;-1.0493;
798.6000;0.4184;-1.0394;
798.9000;0.4168;-1.0394;
799.2000;0.4200;-1.0394;
799.5000;0.4151;-1.0493;
799.8000;0.4200;-1.0394;
800.1000;0.4176;-1.0369;
800.4000;0.4168;-1.0369;
800.7000;0.4151;-1.0394;
801.0000;0.4176;-1.0394;
801.3000;0.4168;-1.0443;
801.6000;0.4168;-1.0567;
801.9000;0.4160;-1.0567;
802.2000;0.4151;-1.0542;
802.5000;0.4127;-1.0493;
802.8000;0.4208;-1.0369;
803.1000;0.4249;-1.0295;
803.4000;0.4192;-1.0468;
803.7000;0.4184;-1.0493;
804.0000;0.4184;-1.0567;
804.3000;0.4143;-1.0740;
804.6000;0.4176;-1.0542;
804.9000;0.4160;-1.0641;
805.2000;0.4176;-1.0542;
805.5000;0.4168;-1.0493;
805.8000;0.4168;-1.0394;
806.1000;0.4184;-1.0319;
806.4000;0.4151;-1.0468;
806.7000;0.4176;-1.0443;
807.0000;0.4143;-1.0493;
807.3000;0.4151;-1.0641;
807.6000;0.4176;-1.0567;
807.9000;0.4176;-1.0567;
808.2000;0.4135;-1.0666;
808.5000;0.4168;-1.0641;
808.8000;0.4168;-1.0616;
809.1000;0.4160;-1.0641;
809.4000;0.4160;-1.0691;
809.7000;0.4168;-1.0691;
810.0000;0.4160;-1.0691;
810.3000;0.4282;-1.0344;
810.6000;0.4143;-1.0691;
810.9000;0.4151;-1.0616;
811.2000;0.4160;-1.0592;
811.5000;0.4168;-1.0592;
811.8000;0.4151;-1.0592;
812.1000;0.4176;-1.0493;
812.4000;0.4160;-1.0468;
812.7000;0.4168;-1.0468;
813.0000;0.4168;-1.0443;
813.3000;0.4184;-1.0418;
813.6000;0.4176;-1.0567;
813.9000;0.4151;-1.0592;
814.2000;0.4192;-1.0443;
814.5000;0.4176;-1.0517;
814.8000;0.4151;-1.0592;
815.1000;0.4127;-1.0641;
815.4000;0.4184;-1.0517;
815.7000;0.4151;-1.0493;
816.0000;0.4135;-1.0542;
816.3000;0.4111;-1.0691;
816.6000;0.4151;-1.0542;
816.9000;0.4151;-1.0443;
817.2000;0.4143;-1.0443;
817.5000;0.4143;-1.0394;
817.8000;0.4151;-1.0319;
818.1000;0.4184;-1.0295;
818.4000;0.4143;-1.0468;
818.7000;0.4168;-1.0468;
819.0000;0.4168;-1.0443;
819.3000;0.4160;-1.0319;
819.6000;0.4046;-1.0542;
819.9000;0.4135;-1.0295;
820.2000;0.4176;-1.0270;
820.5000;0.4176;-1.0270;
820.8000;0.4151;-1.0344;
821.1000;0.4127;-1.0344;
821.4000;0.4151;-1.0319;
821.7000;0.4168;-1.0295;
822.0000;0.4233;-1.0146;
822.3000;0.4151;-1.0369;
822.6000;0.4151;-1.0369;
822.9000;0.4135;-1.0394;
823.2000;0.4119;-1.0418;
823.5000;0.4143;-1.0270;
823.8000;0.4160;-1.0245;
824.1000;0.4127;-1.0319;
824.4000;0.4135;-1.0295;
824.7000;0.4135;-1.0270;
825.0000;0.4151;-1.0220;
825.3000;0.4078;-1.0517;
825.6000;0.4151;-1.0319;
825.9000;0.4135;-1.0493;
826.2000;0.4127;-1.0616;
826.5000;0.4135;-1.0517;
826.8000;0.4135;-1.0468;
827.1000;0.4257;-1.0097;
827.4000;0.4037;-1.0740;
827.7000;0.4143;-1.0443;
828.0000;0.4135;-1.0443;
828.3000;0.4111;-1.0542;
828.6000;0.4135;-1.0567;
828.9000;0.4135;-1.0616;
829.2000;0.4127;-1.0616;
829.5000;0.4135;-1.0592;
829.8000;0.4135;-1.0641;
830.1000;0.4135;-1.0666;
830.4000;0.4119;-1.0715;
830.7000;0.4143;-1.0691;
831.0000;0.4151;-1.0740;
831.3000;0.4143;-1.0790;
831.6000;0.4151;-1.0691;
831.9000;0.4151;-1.0715;
832.2000;0.4151;-1.0592;
832.5000;0.4151;-1.0517;
832.8000;0.4143;-1.0493;
833.1000;0.4135;-1.0443;
833.4000;0.4151;-1.0369;
833.7000;0.4143;-1.0369;
834.0000;0.4103;-1.0468;
834.3000;0.4127;-1.0468;
834.6000;0.4143;-1.0443;
834.9000;0.4135;-1.0418;
835.2000;0.4103;-1.0542;
835.5000;0.4135;-1.0592;
835.8000;0.4135;-1.0567;
836.1000;0.4111;-1.0592;
836.4000;0.4143;-1.0641;
836.7000;0.4119;-1.0691;
837.0000;0.4111;-1.0616;
837.3000;0.4127;-1.0517;
837.6000;0.4119;-1.0517;
837.9000;0.4143;-1.0517;
838.2000;0.4119;-1.0567;
838.5000;0.4135;-1.0517;
838.8000;0.4119;-1.0666;
839.1000;0.4111;-1.0616;
839.4000;0.4127;-1.0567;
839.7000;0.4176;-1.0394;
840.0000;0.4168;-1.0394;
840.3000;0.4111;-1.0517;
840.6000;0.4119;-1.0567;
840.9000;0.4127;-1.0592;
841.2000;0.4127;-1.0666;
841.5000;0.4127;-1.0592;
841.8000;0.4127;-1.0542;
842.1000;0.4143;-1.0517;
842.4000;0.4111;-1.0641;
842.7000;0.4135;-1.0616;
843.0000;0.4135;-1.0666;
843.3000;0.4176;-1.0443;
843.6000;0.4127;-1.0567;
843.9000;0.4127;-1.0567;
844.2000;0.4135;-1.0616;
844.5000;0.4135;-1.0616;
844.8000;0.4143;-1.0616;
845.1000;0.4103;-1.0790;
845.4000;0.4103;-1.0790;
845.7000;0.4127;-1.0765;
846.0000;0.4127;-1.0691;
846.3000;0.4127;-1.0740;
846.6000;0.4127;-1.0691;
846.9000;0.4119;-1.0765;
847.2000;0.4119;-1.0814;
847.5000;0.4119;-1.0864;
847.8000;0.4111;-1.0889;
848.1000;0.4103;-1.0864;
848.4000;0.4160;-1.0691;
848.7000;0.4135;-1.0691;
849.0000;0.4111;-1.0691;
849.3000;0.4119;-1.0666;
849.6000;0.4119;-1.0715;
849.9000;0.4119;-1.0715;
850.2000;0.4103;-1.0691;
850.5000;0.4119;-1.0691;
850.8000;0.4119;-1.0715;
851.1000;0.4103;-1.0691;
851.4000;0.4094;-1.0715;
851.7000;0.4086;-1.0616;
852.0000;0.4094;-1.0542;
852.3000;0.4094;-1.0517;
852.6000;0.4103;-1.0616;
852.9000;0.4094;-1.0542;
853.2000;0.4086;-1.0691;
853.5000;0.4119;-1.0666;
853.8000;0.4103;-1.0740;
854.1000;0.4111;-1.0740;
854.4000;0.4111;-1.0814;
854.7000;0.4103;-1.0765;
855.0000;0.4094;-1.0740;
855.3000;0.4119;-1.0592;
855.6000;0.4094;-1.0592;
855.9000;0.4111;-1.0493;
856.2000;0.4127;-1.0369;
856.5000;0.4111;-1.0418;
856.8000;0.4111;-1.0493;
857.1000;0.4119;-1.0468;
857.4000;0.4127;-1.0468;
857.7000;0.4086;-1.0542;
858.0000;0.4103;-1.0394;
858.3000;0.4103;-1.0468;
858.6000;0.4103;-1.0443;
858.9000;0.4111;-1.0443;
859.2000;0.4070;-1.0493;
859.5000;0.4094;-1.0493;
859.8000;0.4127;-1.0542;
860.1000;0.4094;-1.0641;
860.4000;0.4094;-1.0616;
860.7000;0.4070;-1.0666;
861.0000;0.4111;-1.0592;
861.3000;0.4103;-1.0517;
861.6000;0.4111;-1.0369;
861.9000;0.4111;-1.0369;
862.2000;0.4119;-1.0468;
862.5000;0.4111;-1.0517;
862.8000;0.4143;-1.0443;
863.1000;0.4070;-1.0666;
863.4000;0.4127;-1.0517;
863.7000;0.4143;-1.0443;
864.0000;0.4103;-1.0517;
864.3000;0.4103;-1.0493;
864.6000;0.4070;-1.0567;
864.9000;0.4127;-1.0517;
865.2000;0.4086;-1.0616;
865.5000;0.4103;-1.0517;
865.8000;0.4111;-1.0517;
866.1000;0.4094;-1.0517;
866.4000;0.4143;-1.0468;
866.7000;0.4103;-1.0567;
867.0000;0.4151;-1.0517;
867.3000;0.4111;-1.0567;
867.6000;0.4111;-1.0567;
867.9000;0.4111;-1.0592;
868.2000;0.4111;-1.0493;
868.5000;0.4103;-1.0443;
868.8000;0.4111;-1.0443;
869.1000;0.4143;-1.0394;
869.4000;0.4160;-1.0319;
869.7000;0.4078;-1.0542;
870.0000;0.4119;-1.0468;
870.3000;0.4086;-1.0592;
870.6000;0.4094;-1.0468;
870.9000;0.4103;-1.0468;
871.2000;0.4111;-1.0443;
871.5000;0.4143;-1.0369;
871.8000;0.4111;-1.0468;
872.1000;0.4094;-1.0641;
872.4000;0.4094;-1.0567;
872.7000;0.4086;-1.0567;
873.0000;0.4111;-1.0592;
873.3000;0.4086;-1.0691;
873.6000;0.4086;-1.0765;
873.9000;0.4135;-1.0666;
874.2000;0.4119;-1.0765;
874.5000;0.4094;-1.0839;
874.8000;0.4086;-1.0864;
875.1000;0.4078;-1.0790;
875.4000;0.4086;-1.0765;
875.7000;0.4078;-1.0691;
876.0000;0.4078;-1.0641;
876.3000;0.4062;-1.0691;
876.6000;0.4103;-1.0666;
876.9000;0.4094;-1.0666;
877.2000;0.4054;-1.0765;
877.5000;0.4094;-1.0666;
877.8000;0.4094;-1.0691;
878.1000;0.4078;-1.0592;
878.4000;0.4086;-1.0542;
878.7000;0.4078;-1.0567;
879.0000;0.4078;-1.0592;
879.3000;0.4127;-1.0517;
879.6000;0.4078;-1.0740;
879.9000;0.4103;-1.0740;
880.2000;0.4086;-1.0740;
880.5000;0.4111;-1.0715;
880.8000;0.4062;-1.0889;
881.1000;0.4103;-1.0814;
881.4000;0.4078;-1.0814;
881.7000;0.4103;-1.0765;
882.0000;0.4062;-1.0889;
882.3000;0.4086;-1.0839;
882.6000;0.4094;-1.0765;
882.9000;0.4078;-1.0765;
883.2000;0.4094;-1.0765;
883.5000;0.4111;-1.0740;
883.8000;0.4070;-1.0889;
884.1000;0.4086;-1.0864;
884.4000;0.4070;-1.0889;
884.7000;0.4070;-1.0864;
885.0000;0.4176;-1.0641;
885.3000;0.4094;-1.0765;
885.6000;0.4086;-1.0765;
885.9000;0.4094;-1.0790;
886.2000;0.4078;-1.0864;
886.5000;0.4111;-1.0691;
886.8000;0.4029;-1.0864;
887.1000;0.4143;-1.0567;
887.4000;0.4062;-1.0740;
887.7000;0.4086;-1.0790;
888.0000;0.4078;-1.0790;
888.3000;0.4086;-1.0765;
888.6000;0.4005;-1.0913;
888.9000;0.4054;-1.0765;
889.2000;0.4086;-1.0740;
889.5000;0.4143;-1.0542;
889.8000;0.4094;-1.0641;
890.1000;0.4086;-1.0616;
890.4000;0.4078;-1.0641;
890.7000;0.4086;-1.0616;
891.0000;0.4094;-1.0641;
891.3000;0.4078;-1.0666;
891.6000;0.4086;-1.0616;
891.9000;0.4127;-1.0616;
892.2000;0.4086;-1.0715;
892.5000;0.4151;-1.0592;
892.8000;0.4078;-1.0839;
893.1000;0.4086;-1.0814;
893.4000;0.4062;-1.0839;
893.7000;0.4094;-1.0765;
894.0000;0.4070;-1.0790;
894.3000;0.4086;-1.0666;
894.6000;0.4078;-1.0666;
894.9000;0.4070;-1.0641;
895.2000;0.4078;-1.0517;
895.5000;0.4086;-1.0517;
895.8000;0.4111;-1.0418;
896.1000;0.4054;-1.0517;
896.4000;0.4029;-1.0567;
896.7000;0.4103;-1.0468;
897.0000;0.4086;-1.0468;
897.3000;0.4094;-1.0493;
897.6000;0.4070;-1.0418;
897.9000;0.4070;-1.0319;
898.2000;0.4029;-1.0394;
898.5000;0.4086;-1.0319;
898.8000;0.4054;-1.0418;
899.1000;0.4070;-1.0468;
899.4000;0.4078;-1.0443;
899.7000;0.4094;-1.0443;
900.0000;0.4086;-1.0394;
900.3000;0.4078;-1.0418;
900.6000;0.4086;-1.0369;
900.9000;0.4054;-1.0418;
901.2000;0.4086;-1.0369;
901.5000;0.4086;-1.0369;
901.8000;0.4062;-1.0493;
902.1000;0.4111;-1.0394;
902.4000;0.4078;-1.0443;
902.7000;0.4094;-1.0418;
903.0000;0.4103;-1.0319;
903.3000;0.4078;-1.0369;
903.6000;0.4086;-1.0319;
903.9000;0.4078;-1.0443;
904.2000;0.4078;-1.0493;
904.5000;0.4086;-1.0468;
904.8000;0.4086;-1.0443;
905.1000;0.4135;-1.0245;
905.4000;0.4070;-1.0344;
905.7000;0.4070;-1.0369;
906.0000;0.4070;-1.0369;
906.3000;0.4070;-1.0270;
906.6000;0.4086;-1.0245;
906.9000;0.4086;-1.0295;
907.2000;0.4037;-1.0344;
907.5000;0.4078;-1.0270;
907.8000;0.4094;-1.0270;
908.1000;0.4062;-1.0369;
908.4000;0.4054;-1.0369;
908.7000;0.4062;-1.0369;
909.0000;0.4111;-1.0220;
909.3000;0.3997;-1.0517;
909.6000;0.4062;-1.0344;
909.9000;0.4070;-1.0394;
910.2000;0.4070;-1.0369;
910.5000;0.4070;-1.0270;
910.8000;0.4135;-1.0121;
911.1000;0.4062;-1.0319;
911.4000;0.4062;-1.0319;
911.7000;0.4070;-1.0319;
912.0000;0.4086;-1.0418;
912.3000;0.4037;-1.0493;
912.6000;0.4070;-1.0369;
912.9000;0.4070;-1.0394;
913.2000;0.4062;-1.0567;
913.5000;0.4078;-1.0542;
913.8000;0.4070;-1.0592;
914.1000;0.4054;-1.0567;
914.4000;0.4054;-1.0641;
914.7000;0.4062;-1.0542;
915.0000;0.4094;-1.0542;
915.3000;0.4168;-1.0394;
915.6000;0.4078;-1.0616;
915.9000;0.4078;-1.0592;
916.2000;0.4119;-1.0542;
916.5000;0.4078;-1.0592;
916.8000;0.4119;-1.0592;
917.1000;0.4143;-1.0369;
917.4000;0.4078;-1.0517;
917.7000;0.4046;-1.0616;
918.0000;0.4046;-1.0641;
918.3000;0.4135;-1.0468;
918.6000;0.4062;-1.0616;
918.9000;0.4054;-1.0616;
919.2000;0.4005;-1.0715;
919.5000;0.4119;-1.0369;
919.8000;0.4094;-1.0493;
920.1000;0.4062;-1.0567;
920.4000;0.4086;-1.0542;
920.7000;0.4054;-1.0666;
921.0000;0.4078;-1.0542;
921.3000;0.4070;-1.0493;
921.6000;0.4078;-1.0468;
921.9000;0.4054;-1.0517;
922.2000;0.4054;-1.0616;
922.5000;0.4078;-1.0641;
922.8000;0.4070;-1.0592;
923.1000;0.4078;-1.0517;
923.4000;0.4070;-1.0468;
923.7000;0.4078;-1.0418;
924.0000;0.4054;-1.0443;
924.3000;0.4062;-1.0418;
924.6000;0.4062;-1.0443;
924.9000;0.4094;-1.0344;
925.2000;0.4070;-1.0369;
925.5000;0.4070;-1.0245;
925.8000;0.4062;-1.0394;
926.1000;0.4078;-1.0369;
926.4000;0.4086;-1.0270;
926.7000;0.4078;-1.0245;
927.0000;0.4078;-1.0295;
927.3000;0.4078;-1.0270;
927.6000;0.4078;-1.0295;
927.9000;0.4070;-1.0319;
928.2000;0.4070;-1.0344;
928.5000;0.4054;-1.0220;
928.8000;0.4078;-1.0097;
929.1000;0.4054;-1.0171;
929.4000;0.4094;-1.0220;
929.7000;0.4046;-1.0245;
930.0000;0.4070;-1.0220;
930.3000;0.4070;-1.0220;
930.6000;0.4086;-1.0245;
930.9000;0.4062;-1.0344;
931.2000;0.4078;-1.0369;
931.5000;0.4062;-1.0369;
931.8000;0.4070;-1.0369;
932.1000;0.4078;-1.0295;
932.4000;0.4078;-1.0319;
932.7000;0.4078;-1.0394;
933.0000;0.4103;-1.0369;
933.3000;0.3964;-1.0666;
933.6000;0.4062;-1.0369;
933.9000;0.4062;-1.0493;
934.2000;0.4111;-1.0394;
934.5000;0.4111;-1.0295;
934.8000;0.4070;-1.0369;
935.1000;0.4054;-1.0418;
935.4000;0.4029;-1.0517;
935.7000;0.4029;-1.0641;
936.0000;0.4070;-1.0592;
936.3000;0.4046;-1.0567;
936.6000;0.4111;-1.0245;
936.9000;0.4046;-1.0295;
937.2000;0.4070;-1.0220;
937.5000;0.4021;-1.0344;
937.8000;0.4054;-1.0196;
938.1000;0.4037;-1.0270;
938.4000;0.4021;-1.0344;
938.7000;0.4013;-1.0369;
939.0000;0.4054;-1.0270;
939.3000;0.4021;-1.0344;
939.6000;0.4070;-1.0344;
939.9000;0.4046;-1.0369;
940.2000;0.4119;-1.0171;
940.5000;0.4062;-1.0394;
940.8000;0.4062;-1.0295;
941.1000;0.4021;-1.0369;
941.4000;0.4021;-1.0319;
941.7000;0.4054;-1.0220;
942.0000;0.4037;-1.0220;
942.3000;0.4062;-1.0220;
942.6000;0.4046;-1.0319;
942.9000;0.4054;-1.0270;
943.2000;0.4054;-1.0295;
943.5000;0.4054;-1.0319;
943.8000;0.4054;-1.0369;
944.1000;0.4062;-1.0443;
944.4000;0.4062;-1.0443;
944.7000;0.4062;-1.0493;
945.0000;0.4046;-1.0542;
945.3000;0.4062;-1.0517;
945.6000;0.4054;-1.0517;
945.9000;0.4070;-1.0369;
946.2000;0.4046;-1.0319;
946.5000;0.4062;-1.0418;
946.8000;0.4029;-1.0468;
947.1000;0.4070;-1.0369;
947.4000;0.4054;-1.0468;
947.7000;0.4062;-1.0418;
948.0000;0.4054;-1.0394;
948.3000;0.4062;-1.0369;
948.6000;0.4054;-1.0344;
948.9000;0.4029;-1.0369;
949.2000;0.4054;-1.0344;
949.5000;0.4062;-1.0344;
949.8000;0.4029;-1.0468;
950.1000;0.4054;-1.0418;
950.4000;0.4054;-1.0369;
950.7000;0.4062;-1.0369;
951.0000;0.4070;-1.0344;
951.3000;0.4070;-1.0394;
951.6000;0.4070;-1.0369;
951.9000;0.4054;-1.0344;
952.2000;0.4037;-1.0394;
952.5000;0.4054;-1.0418;
952.8000;0.4062;-1.0270;
953.1000;0.4078;-1.0196;
953.4000;0.4070;-1.0196;
953.7000;0.4046;-1.0270;
954.0000;0.4046;-1.0295;
954.3000;0.4070;-1.0295;
954.6000;0.4094;-1.0220;
954.9000;0.4062;-1.0369;
955.2000;0.3997;-1.0542;
955.5000;0.4013;-1.0641;
955.8000;0.4070;-1.0493;
956.1000;0.4037;-1.0666;
956.4000;0.3980;-1.0765;
956.7000;0.4078;-1.0493;
957.0000;0.4046;-1.0567;
957.3000;0.4046;-1.0567;
957.6000;0.4021;-1.0542;
957.9000;0.4037;-1.0493;
958.2000;0.4111;-1.0344;
958.5000;0.4037;-1.0418;
958.8000;0.4054;-1.0493;
959.1000;0.4062;-1.0641;
959.4000;0.4070;-1.0616;
959.7000;0.4094;-1.0493;
960.0000;0.4037;-1.0592;
960.3000;0.4037;-1.0517;
960.6000;0.4086;-1.0468;
960.9000;0.4054;-1.0493;
961.2000;0.4029;-1.0542;
961.5000;0.4046;-1.0493;
961.8000;0.4054;-1.0443;
962.1000;0.4062;-1.0443;
962.4000;0.4111;-1.0245;
962.7000;0.4046;-1.0319;
963.0000;0.4062;-1.0220;
963.3000;0.4054;-1.0344;
963.6000;0.4062;-1.0394;
963.9000;0.4037;-1.0468;
964.2000;0.4029;-1.0394;
964.5000;0.4062;-1.0344;
964.8000;0.4046;-1.0344;
965.1000;0.4046;-1.0245;
965.4000;0.4037;-1.0295;
965.7000;0.4054;-1.0319;
966.0000;0.4078;-1.0295;
966.3000;0.4070;-1.0443;
966.6000;0.4054;-1.0567;
966.9000;0.4046;-1.0567;
967.2000;0.4037;-1.0468;
967.5000;0.4046;-1.0369;
967.8000;0.4046;-1.0394;
968.1000;0.4029;-1.0369;
968.4000;0.4037;-1.0295;
968.7000;0.4029;-1.0344;
969.0000;0.4070;-1.0369;
969.3000;0.4046;-1.0369;
969.6000;0.4054;-1.0319;
969.9000;0.4037;-1.0394;
970.2000;0.4037;-1.0443;
970.5000;0.4054;-1.0468;
970.8000;0.4046;-1.0443;
971.1000;0.4046;-1.0443;
971.4000;0.4029;-1.0468;
971.7000;0.4062;-1.0344;
972.0000;0.4046;-1.0344;
972.3000;0.4054;-1.0344;
972.6000;0.4046;-1.0443;
972.9000;0.4013;-1.0542;
973.2000;0.4021;-1.0443;
973.5000;0.4046;-1.0270;
973.8000;0.4029;-1.0295;
974.1000;0.4046;-1.0369;
974.4000;0.4046;-1.0394;
974.7000;0.4029;-1.0369;
975.0000;0.4062;-1.0245;
975.3000;0.4054;-1.0319;
975.6000;0.4037;-1.0418;
975.9000;0.4046;-1.0418;
976.2000;0.4046;-1.0418;
976.5000;0.4037;-1.0369;
976.8000;0.4029;-1.0418;
977.1000;0.4021;-1.0418;
977.4000;0.4046;-1.0369;
977.7000;0.4029;-1.0394;
978.0000;0.4037;-1.0344;
978.3000;0.4029;-1.0295;
978.6000;0.4021;-1.0344;
978.9000;0.4054;-1.0319;
979.2000;0.4054;-1.0344;
979.5000;0.4062;-1.0319;
979.8000;0.4046;-1.0344;
980.1000;0.3972;-1.0542;
980.4000;0.4046;-1.0394;
980.7000;0.4037;-1.0468;
981.0000;0.4070;-1.0394;
981.3000;0.4046;-1.0517;
981.6000;0.4046;-1.0468;
981.9000;0.4037;-1.0394;
982.2000;0.4046;-1.0369;
982.5000;0.4062;-1.0295;
982.8000;0.4054;-1.0468;
983.1000;0.4054;-1.0616;
983.4000;0.3948;-1.0864;
983.7000;0.4054;-1.0542;
984.0000;0.4062;-1.0418;
984.3000;0.4037;-1.0443;
984.6000;0.4070;-1.0319;
984.9000;0.4062;-1.0344;
985.2000;0.4054;-1.0270;
985.5000;0.4037;-1.0344;
985.8000;0.4046;-1.0319;
986.1000;0.4037;-1.0369;
986.4000;0.4037;-1.0319;
986.7000;0.4037;-1.0245;
987.0000;0.4037;-1.0270;
987.3000;0.4054;-1.0270;
987.6000;0.4037;-1.0270;
987.9000;0.3997;-1.0369;
988.2000;0.4062;-1.0319;
988.5000;0.4062;-1.0245;
988.8000;0.4062;-1.0245;
989.1000;0.4054;-1.0245;
989.4000;0.4135;-1.0072;
989.7000;0.4029;-1.0270;
990.0000;0.4029;-1.0295;
990.3000;0.4046;-1.0344;
990.6000;0.4046;-1.0295;
990.9000;0.4054;-1.0220;
991.2000;0.4029;-1.0270;
991.5000;0.4054;-1.0295;
991.8000;0.4037;-1.0369;
992.1000;0.4013;-1.0394;
992.4000;0.4021;-1.0344;
992.7000;0.4054;-1.0270;
993.0000;0.4046;-1.0319;
993.3000;0.4029;-1.0418;
993.6000;0.4046;-1.0443;
993.9000;0.4029;-1.0517;
994.2000;0.4046;-1.0443;
994.5000;0.4062;-1.0344;
994.8000;0.4013;-1.0517;
995.1000;0.4070;-1.0394;
995.4000;0.4054;-1.0394;
995.7000;0.4054;-1.0418;
996.0000;0.4037;-1.0418;
996.3000;0.4046;-1.0443;
996.6000;0.4054;-1.0493;
996.9000;0.4021;-1.0517;
997.2000;0.4037;-1.0468;
997.5000;0.4029;-1.0468;
997.8000;0.4037;-1.0468;
998.1000;0.4021;-1.0542;
998.4000;0.4054;-1.0468;
998.7000;0.4037;-1.0493;
999.0000;0.4037;-1.0493;
999.3000;0.4054;-1.0443;
999.6000;0.4046;-1.0567;
999.9000;0.4046;-1.0691;
1000.2000;0.4037;-1.0666;
1000.5000;0.4054;-1.0616;
1000.8000;0.4013;-1.0641;
1001.1000;0.4037;-1.0616;
1001.4000;0.4021;-1.0691;
1001.7000;0.4013;-1.0740;
1002.0000;0.4037;-1.0691;
1002.3000;0.4037;-1.0641;
1002.6000;0.4021;-1.0641;
1002.9000;0.4037;-1.0616;
1003.2000;0.4021;-1.0641;
1003.5000;0.4013;-1.0641;
1003.8000;0.4013;-1.0641;
1004.1000;0.4021;-1.0616;
1004.4000;0.4037;-1.0542;
1004.7000;0.4037;-1.0616;
1005.0000;0.4037;-1.0592;
1005.3000;0.4029;-1.0517;
1005.6000;0.4046;-1.0493;
1005.9000;0.4046;-1.0468;
1006.2000;0.4119;-1.0319;
1006.5000;0.3948;-1.0765;
1006.8000;0.4046;-1.0493;
1007.1000;0.4054;-1.0418;
1007.4000;0.4037;-1.0493;
1007.7000;0.4046;-1.0418;
1008.0000;0.4062;-1.0443;
1008.3000;0.4046;-1.0344;
1008.6000;0.4054;-1.0220;
1008.9000;0.4029;-1.0270;
1009.2000;0.4046;-1.0295;
1009.5000;0.4054;-1.0295;
1009.8000;0.4046;-1.0319;
1010.1000;0.4046;-1.0369;
1010.4000;0.4037;-1.0369;
1010.7000;0.4046;-1.0319;
1011.0000;0.4037;-1.0344;
1011.3000;0.4029;-1.0344;
1011.6000;0.4037;-1.0344;
1011.9000;0.4037;-1.0418;
1012.2000;0.4046;-1.0418;
1012.5000;0.4013;-1.0493;
1012.8000;0.4029;-1.0493;
1013.1000;0.4029;-1.0493;
1013.4000;0.4029;-1.0517;
1013.7000;0.4029;-1.0517;
1014.0000;0.4021;-1.0493;
1014.3000;0.4021;-1.0542;
1014.6000;0.4046;-1.0468;
1014.9000;0.4021;-1.0443;
1015.2000;0.4037;-1.0468;
1015.5000;0.4013;-1.0542;
1015.8000;0.4037;-1.0493;
1016.1000;0.4013;-1.0567;
1016.4000;0.4029;-1.0493;
1016.7000;0.4021;-1.0517;
1017.0000;0.3964;-1.0542;
1017.3000;0.4037;-1.0295;
1017.6000;0.4013;-1.0319;
1017.9000;0.4046;-1.0220;
1018.2000;0.4037;-1.0196;
1018.5000;0.4029;-1.0270;
1018.8000;0.4037;-1.0245;
1019.1000;0.4021;-1.0295;
1019.4000;0.4046;-1.0245;
1019.7000;0.4046;-1.0245;
1020.0000;0.4021;-1.0319;
1020.3000;0.4021;-1.0270;
1020.6000;0.4029;-1.0196;
1020.9000;0.4111;-1.0072;
1021.2000;0.4037;-1.0319;
1021.5000;0.4021;-1.0369;
1021.8000;0.3997;-1.0369;
1022.1000;0.4005;-1.0394;
1022.4000;0.4046;-1.0394;
1022.7000;0.4037;-1.0418;
1023.0000;0.4046;-1.0394;
1023.3000;0.4037;-1.0418;
1023.6000;0.4037;-1.0493;
1023.9000;0.4046;-1.0418;
1024.2000;0.4037;-1.0369;
1024.5000;0.4037;-1.0443;
1024.8000;0.4046;-1.0319;
1025.1000;0.4029;-1.0344;
1025.4000;0.4046;-1.0319;
1025.7000;0.4013;-1.0394;
1026.0000;0.4037;-1.0418;
1026.3000;0.4037;-1.0344;
1026.6000;0.4029;-1.0295;
1026.9000;0.4013;-1.0369;
1027.2000;0.4046;-1.0394;
1027.5000;0.4046;-1.0394;
1027.8000;0.4029;-1.0443;
1028.1000;0.4029;-1.0443;
1028.4000;0.4046;-1.0468;
1028.7000;0.4037;-1.0542;
1029.0000;0.4062;-1.0517;
1029.3000;0.4029;-1.0592;
1029.6000;0.4103;-1.0319;
1029.9000;0.4037;-1.0493;
1030.2000;0.4021;-1.0493;
1030.5000;0.4013;-1.0493;
1030.8000;0.4037;-1.0468;
1031.1000;0.4029;-1.0493;
1031.4000;0.3989;-1.0616;
1031.7000;0.4021;-1.0517;
1032.0000;0.4013;-1.0517;
1032.3000;0.4029;-1.0468;
1032.6000;0.4021;-1.0493;
1032.9000;0.4021;-1.0542;
1033.2000;0.4021;-1.0567;
1033.5000;0.4037;-1.0468;
1033.8000;0.4037;-1.0369;
1034.1000;0.4029;-1.0394;
1034.4000;0.4029;-1.0220;
1034.7000;0.4029;-1.0245;
1035.0000;0.4046;-1.0270;
1035.3000;0.4021;-1.0319;
1035.6000;0.4021;-1.0394;
1035.9000;0.4046;-1.0369;
1036.2000;0.4021;-1.0418;
1036.5000;0.4046;-1.0418;
1036.8000;0.4037;-1.0369;
1037.1000;0.4037;-1.0443;
1037.4000;0.4029;-1.0418;
1037.7000;0.3964;-1.0517;
1038.0000;0.4029;-1.0344;
1038.3000;0.4021;-1.0418;
1038.6000;0.4046;-1.0394;
1038.9000;0.4037;-1.0369;
1039.2000;0.4021;-1.0394;
1039.5000;0.4021;-1.0270;
1039.8000;0.4021;-1.0295;
1040.1000;0.4070;-1.0196;
1040.4000;0.4029;-1.0270;
1040.7000;0.4013;-1.0295;
1041.0000;0.4013;-1.0319;
1041.3000;0.4029;-1.0270;
1041.6000;0.4013;-1.0369;
1041.9000;0.4021;-1.0295;
1042.2000;0.4037;-1.0319;
1042.5000;0.4005;-1.0369;
1042.8000;0.4013;-1.0369;
1043.1000;0.4021;-1.0369;
1043.4000;0.4029;-1.0517;
1043.7000;0.4021;-1.0542;
1044.0000;0.4094;-1.0418;
1044.3000;0.4013;-1.0691;
1044.6000;0.4021;-1.0740;
1044.9000;0.4013;-1.0740;
1045.2000;0.4029;-1.0715;
1045.5000;0.4021;-1.0616;
1045.8000;0.4021;-1.0641;
1046.1000;0.4029;-1.0616;
1046.4000;0.4029;-1.0616;
1046.7000;0.4021;-1.0691;
1047.0000;0.4046;-1.0691;
1047.3000;0.4005;-1.0790;
1047.6000;0.4037;-1.0641;
1047.9000;0.4029;-1.0567;
1048.2000;0.3980;-1.0691;
1048.5000;0.3997;-1.0592;
1048.8000;0.4005;-1.0542;
1049.1000;0.4070;-1.0418;
1049.4000;0.4029;-1.0493;
1049.7000;0.4037;-1.0418;
1050.0000;0.4013;-1.0493;
1050.3000;0.3997;-1.0443;
1050.6000;0.3989;-1.0443;
1050.9000;0.4037;-1.0295;
1051.2000;0.4029;-1.0418;
1051.5000;0.3956;-1.0616;
1051.8000;0.4062;-1.0369;
1052.1000;0.4005;-1.0418;
1052.4000;0.4046;-1.0443;
1052.7000;0.3989;-1.0493;
1053.0000;0.4005;-1.0418;
1053.3000;0.4046;-1.0394;
1053.6000;0.3948;-1.0616;
1053.9000;0.4005;-1.0493;
1054.2000;0.3980;-1.0517;
1054.5000;0.4021;-1.0394;
1054.8000;0.4037;-1.0418;
1055.1000;0.4021;-1.0468;
1055.4000;0.4070;-1.0319;
1055.7000;0.4013;-1.0468;
1056.0000;0.4021;-1.0468;
1056.3000;0.3980;-1.0493;
1056.6000;0.4029;-1.0344;
1056.9000;0.4029;-1.0394;
1057.2000;0.4021;-1.0517;
1057.5000;0.4078;-1.0369;
1057.8000;0.3980;-1.0616;
1058.1000;0.4046;-1.0542;
1058.4000;0.4021;-1.0666;
1058.7000;0.4013;-1.0592;
1059.0000;0.4037;-1.0567;
1059.3000;0.4037;-1.0567;
1059.6000;0.4037;-1.0542;
1059.9000;0.4054;-1.0542;
1060.2000;0.4037;-1.0517;
1060.5000;0.4054;-1.0468;
1060.8000;0.4013;-1.0517;
1061.1000;0.4021;-1.0493;
1061.4000;0.4037;-1.0418;
1061.7000;0.4037;-1.0295;
1062.0000;0.4062;-1.0344;
1062.3000;0.4013;-1.0517;
1062.6000;0.4013;-1.0567;
1062.9000;0.4029;-1.0468;
1063.2000;0.4013;-1.0418;
1063.5000;0.4013;-1.0344;
1063.8000;0.4021;-1.0394;
1064.1000;0.4135;-1.0022;
1064.4000;0.4021;-1.0418;
1064.7000;0.3997;-1.0468;
1065.0000;0.4029;-1.0493;
1065.3000;0.4021;-1.0493;
1065.6000;0.4029;-1.0369;
1065.9000;0.3997;-1.0418;
1066.2000;0.4013;-1.0493;
1066.5000;0.4013;-1.0517;
1066.8000;0.4037;-1.0493;
1067.1000;0.4021;-1.0542;
1067.4000;0.4013;-1.0493;
1067.7000;0.4029;-1.0493;
1068.0000;0.4021;-1.0517;
1068.3000;0.4021;-1.0443;
1068.6000;0.4005;-1.0468;
1068.9000;0.4029;-1.0418;
1069.2000;0.4062;-1.0369;
1069.5000;0.4005;-1.0493;
1069.8000;0.4021;-1.0517;
1070.1000;0.3948;-1.0839;
1070.4000;0.4021;-1.0592;
1070.7000;0.4062;-1.0517;
1071.0000;0.4094;-1.0344;
1071.3000;0.4029;-1.0493;
1071.6000;0.4005;-1.0542;
1071.9000;0.4062;-1.0369;
1072.2000;0.4046;-1.0418;
1072.5000;0.4029;-1.0592;
1072.8000;0.4029;-1.0592;
1073.1000;0.4037;-1.0517;
1073.4000;0.3997;-1.0641;
1073.7000;0.4029;-1.0567;
1074.0000;0.4005;-1.0616;
1074.3000;0.4029;-1.0592;
1074.6000;0.4103;-1.0369;
1074.9000;0.4046;-1.0567;
1075.2000;0.4062;-1.0468;
1075.5000;0.4029;-1.0418;
1075.8000;0.4037;-1.0344;
1076.1000;0.3997;-1.0418;
1076.4000;0.3940;-1.0616;
1076.7000;0.3997;-1.0493;
1077.0000;0.4029;-1.0443;
1077.3000;0.4062;-1.0542;
1077.6000;0.4037;-1.0666;
1077.9000;0.4037;-1.0715;
1078.2000;0.4094;-1.0517;
1078.5000;0.4046;-1.0592;
1078.8000;0.4013;-1.0567;
1079.1000;0.4005;-1.0493;
1079.4000;0.4013;-1.0443;
1079.7000;0.4021;-1.0369;
1080.0000;0.4037;-1.0319;
1080.3000;0.4021;-1.0369;
1080.6000;0.4021;-1.0418;
1080.9000;0.4029;-1.0319;
1081.2000;0.4021;-1.0369;
1081.5000;0.4013;-1.0418;
1081.8000;0.4029;-1.0344;
1082.1000;0.4013;-1.0344;
1082.4000;0.4029;-1.0319;
1082.7000;0.4013;-1.0319;
1083.0000;0.4005;-1.0394;
1083.3000;0.4029;-1.0344;
1083.6000;0.4021;-1.0344;
1083.9000;0.4021;-1.0394;
1084.2000;0.4021;-1.0319;
1084.5000;0.4029;-1.0394;
1084.8000;0.4021;-1.0369;
1085.1000;0.4013;-1.0443;
1085.4000;0.4046;-1.0394;
1085.7000;0.4013;-1.0344;
1086.0000;0.4029;-1.0319;
1086.3000;0.4013;-1.0443;
1086.6000;0.4029;-1.0344;
1086.9000;0.4046;-1.0344;
1087.2000;0.4062;-1.0245;
1087.5000;0.4005;-1.0468;
1087.8000;0.4021;-1.0394;
1088.1000;0.4078;-1.0270;
1088.4000;0.4013;-1.0517;
1088.7000;0.4127;-1.0270;
1089.0000;0.4037;-1.0517;
1089.3000;0.4070;-1.0418;
1089.6000;0.3997;-1.0592;
1089.9000;0.3948;-1.0715;
1090.2000;0.4005;-1.0592;
1090.5000;0.4005;-1.0592;
1090.8000;0.4021;-1.0567;
1091.1000;0.4103;-1.0394;
1091.4000;0.3997;-1.0740;
1091.7000;0.4054;-1.0592;
1092.0000;0.4029;-1.0691;
1092.3000;0.4046;-1.0542;
1092.6000;0.4037;-1.0542;
1092.9000;0.3980;-1.0666;
1093.2000;0.3997;-1.0616;
1093.5000;0.4013;-1.0542;
1093.8000;0.4013;-1.0517;
1094.1000;0.4013;-1.0517;
1094.4000;0.4021;-1.0493;
1094.7000;0.4013;-1.0542;
1095.0000;0.4046;-1.0394;
1095.3000;0.4029;-1.0418;
1095.6000;0.4046;-1.0369;
1095.9000;0.4062;-1.0319;
1096.2000;0.4013;-1.0418;
1096.5000;0.4037;-1.0369;
1096.8000;0.4054;-1.0344;
1097.1000;0.3997;-1.0468;
1097.4000;0.3997;-1.0468;
1097.7000;0.4005;-1.0443;
1098.0000;0.4005;-1.0369;
1098.3000;0.4046;-1.0344;
1098.6000;0.3948;-1.0592;
1098.9000;0.4005;-1.0443;
1099.2000;0.4013;-1.0418;
1099.5000;0.4005;-1.0394;
1099.8000;0.3989;-1.0369;
1100.1000;0.4021;-1.0319;
1100.4000;0.4013;-1.0245;
1100.7000;0.4070;-1.0097;
1101.0000;0.4029;-1.0270;
1101.3000;0.4029;-1.0270;
1101.6000;0.4037;-1.0344;
1101.9000;0.4013;-1.0468;
1102.2000;0.4005;-1.0542;
1102.5000;0.4013;-1.0567;
1102.8000;0.4029;-1.0542;
1103.1000;0.4013;-1.0468;
1103.4000;0.4029;-1.0394;
1103.7000;0.4005;-1.0418;
1104.0000;0.4021;-1.0245;
1104.3000;0.3997;-1.0270;
1104.6000;0.4013;-1.0270;
1104.9000;0.4029;-1.0121;
1105.2000;0.4037;-1.0196;
1105.5000;0.4029;-1.0270;
1105.8000;0.4005;-1.0220;
1106.1000;0.4021;-1.0319;
1106.4000;0.4086;-1.0196;
1106.7000;0.4037;-1.0418;
1107.0000;0.4029;-1.0394;
1107.3000;0.4013;-1.0493;
1107.6000;0.4013;-1.0542;
1107.9000;0.3989;-1.0493;
1108.2000;0.3997;-1.0468;
1108.5000;0.3989;-1.0418;
1108.8000;0.4029;-1.0443;
1109.1000;0.4013;-1.0443;
1109.4000;0.4005;-1.0369;
1109.7000;0.4013;-1.0443;
1110.0000;0.3997;-1.0567;
1110.3000;0.4013;-1.0542;
1110.6000;0.4005;-1.0592;
1110.9000;0.4054;-1.0542;
1111.2000;0.4021;-1.0592;
1111.5000;0.4005;-1.0616;
1111.8000;0.4029;-1.0493;
1112.1000;0.4021;-1.0443;
1112.4000;0.3997;-1.0468;
1112.7000;0.4013;-1.0468;
1113.0000;0.3989;-1.0592;
1113.3000;0.4029;-1.0493;
1113.6000;0.3932;-1.0765;
1113.9000;0.4013;-1.0691;
1114.2000;0.4037;-1.0567;
1114.5000;0.4037;-1.0542;
1114.8000;0.4021;-1.0641;
1115.1000;0.4005;-1.0715;
1115.4000;0.4054;-1.0641;
1115.7000;0.4029;-1.0740;
1116.0000;0.4021;-1.0740;
1116.3000;0.4046;-1.0666;
1116.6000;0.4013;-1.0641;
1116.9000;0.4013;-1.0517;
1117.2000;0.4054;-1.0493;
1117.5000;0.4021;-1.0616;
1117.8000;0.4021;-1.0567;
1118.1000;0.4021;-1.0641;
1118.4000;0.4054;-1.0567;
1118.7000;0.3997;-1.0616;
1119.0000;0.4021;-1.0592;
1119.3000;0.4013;-1.0517;
1119.6000;0.4005;-1.0641;
1119.9000;0.4005;-1.0616;
1120.2000;0.3997;-1.0567;
1120.5000;0.4013;-1.0493;
1120.8000;0.4013;-1.0517;
1121.1000;0.4005;-1.0567;
1121.4000;0.4005;-1.0493;
1121.7000;0.4029;-1.0468;
1122.0000;0.3997;-1.0567;
1122.3000;0.4021;-1.0542;
1122.6000;0.3915;-1.0740;
1122.9000;0.4013;-1.0468;
1123.2000;0.3997;-1.0468;
1123.5000;0.4029;-1.0394;
1123.8000;0.4021;-1.0369;
1124.1000;0.4013;-1.0418;
1124.4000;0.4021;-1.0319;
1124.7000;0.4005;-1.0418;
1125.0000;0.4013;-1.0418;
1125.3000;0.4070;-1.0245;
1125.6000;0.4013;-1.0418;
1125.9000;0.4005;-1.0616;
1126.2000;0.4005;-1.0592;
1126.5000;0.3997;-1.0616;
1126.8000;0.4021;-1.0542;
1127.1000;0.4029;-1.0493;
1127.4000;0.4029;-1.0517;
1127.7000;0.3923;-1.0691;
1128.0000;0.4037;-1.0443;
1128.3000;0.4111;-1.0319;
1128.6000;0.4127;-1.0220;
1128.9000;0.4029;-1.0493;
1129.2000;0.4021;-1.0468;
1129.5000;0.4046;-1.0319;
1129.8000;0.3964;-1.0468;
1130.1000;0.4029;-1.0295;
1130.4000;0.4021;-1.0394;
1130.7000;0.4021;-1.0394;
1131.0000;0.4013;-1.0418;
1131.3000;0.4013;-1.0418;
1131.6000;0.4013;-1.0418;
1131.9000;0.4037;-1.0270;
1132.2000;0.4070;-1.0220;
1132.5000;0.4005;-1.0394;
1132.8000;0.4070;-1.0270;
1133.1000;0.4021;-1.0344;
1133.4000;0.4021;-1.0319;
1133.7000;0.4013;-1.0369;
1134.0000;0.3956;-1.0542;
1134.3000;0.3997;-1.0418;
1134.6000;0.3989;-1.0394;
1134.9000;0.4013;-1.0295;
1135.2000;0.4013;-1.0319;
1135.5000;0.4013;-1.0319;
1135.8000;0.4013;-1.0344;
1136.1000;0.3940;-1.0592;
1136.4000;0.4029;-1.0344;
1136.7000;0.4021;-1.0369;
1137.0000;0.4021;-1.0319;
1137.3000;0.4005;-1.0369;
1137.6000;0.4013;-1.0344;
1137.9000;0.4094;-1.0047;
1138.2000;0.3972;-1.0344;
1138.5000;0.4005;-1.0245;
1138.8000;0.4029;-1.0319;
1139.1000;0.4005;-1.0394;
1139.4000;0.4021;-1.0443;
1139.7000;0.4021;-1.0418;
1140.0000;0.3972;-1.0517;
1140.3000;0.4005;-1.0394;
1140.6000;0.4029;-1.0369;
1140.9000;0.4029;-1.0468;
1141.2000;0.4013;-1.0493;
1141.5000;0.4021;-1.0443;
1141.8000;0.4021;-1.0443;
1142.1000;0.3989;-1.0418;
1142.4000;0.4013;-1.0443;
1142.7000;0.4021;-1.0443;
1143.0000;0.4013;-1.0468;
1143.3000;0.4021;-1.0418;
1143.6000;0.4013;-1.0344;
1143.9000;0.4021;-1.0295;
1144.2000;0.3923;-1.0616;
1144.5000;0.3989;-1.0468;
1144.8000;0.3997;-1.0468;
1145.1000;0.4070;-1.0344;
1145.4000;0.4013;-1.0443;
1145.7000;0.4013;-1.0468;
1146.0000;0.4037;-1.0295;
1146.3000;0.4029;-1.0270;
1146.6000;0.4013;-1.0369;
1146.9000;0.4013;-1.0369;
1147.2000;0.4005;-1.0443;
1147.5000;0.3980;-1.0369;
1147.8000;0.4013;-1.0196;
1148.1000;0.4021;-1.0245;
1148.4000;0.4054;-1.0196;
1148.7000;0.4021;-1.0369;
1149.0000;0.4005;-1.0369;
1149.3000;0.4037;-1.0344;
1149.6000;0.4005;-1.0443;
1149.9000;0.4021;-1.0394;
1150.2000;0.4005;-1.0443;
1150.5000;0.3997;-1.0394;
1150.8000;0.3997;-1.0344;
1151.1000;0.4029;-1.0369;
1151.4000;0.4021;-1.0394;
1151.7000;0.4046;-1.0319;
1152.0000;0.3997;-1.0443;
1152.3000;0.4005;-1.0418;
1152.6000;0.4021;-1.0394;
1152.9000;0.4013;-1.0394;
1153.2000;0.4021;-1.0344;
1153.5000;0.4037;-1.0319;
1153.8000;0.4021;-1.0344;
1154.1000;0.4029;-1.0319;
1154.4000;0.4029;-1.0369;
1154.7000;0.4029;-1.0418;
1155.0000;0.4054;-1.0443;
1155.3000;0.4054;-1.0369;
1155.6000;0.3980;-1.0443;
1155.9000;0.4005;-1.0369;
1156.2000;0.4013;-1.0369;
1156.5000;0.4021;-1.0344;
1156.8000;0.4046;-1.0443;
1157.1000;0.4037;-1.0567;
1157.4000;0.4021;-1.0493;
1157.7000;0.4054;-1.0369;
1158.0000;0.4037;-1.0468;
1158.3000;0.4013;-1.0542;
1158.6000;0.3989;-1.0542;
1158.9000;0.3997;-1.0567;
1159.2000;0.4013;-1.0394;
1159.5000;0.3989;-1.0319;
1159.8000;0.4013;-1.0270;
1160.1000;0.4021;-1.0146;
1160.4000;0.4029;-1.0196;
1160.7000;0.4013;-1.0270;
1161.0000;0.3989;-1.0344;
1161.3000;0.4037;-1.0245;
1161.6000;0.3972;-1.0394;
1161.9000;0.3964;-1.0443;
1162.2000;0.4021;-1.0344;
1162.5000;0.4029;-1.0295;
1162.8000;0.4029;-1.0369;
1163.1000;0.3997;-1.0344;
1163.4000;0.4005;-1.0394;
1163.7000;0.4013;-1.0295;
1164.0000;0.4062;-1.0072;
1164.3000;0.4013;-1.0171;
1164.6000;0.4029;-1.0270;
1164.9000;0.4029;-1.0295;
1165.2000;0.4086;-1.0171;
1165.5000;0.4029;-1.0394;
1165.8000;0.3948;-1.0542;
1166.1000;0.4013;-1.0369;
1166.4000;0.3997;-1.0418;
1166.7000;0.4005;-1.0443;
1167.0000;0.3997;-1.0493;
1167.3000;0.4062;-1.0270;
1167.6000;0.4021;-1.0369;
1167.9000;0.4005;-1.0418;
1168.2000;0.4013;-1.0443;
1168.5000;0.3997;-1.0468;
1168.8000;0.4037;-1.0369;
1169.1000;0.4013;-1.0295;
1169.4000;0.3997;-1.0295;
1169.7000;0.3989;-1.0295;
1170.0000;0.3948;-1.0319;
1170.3000;0.4013;-1.0196;
1170.6000;0.4119;-1.0022;
1170.9000;0.3997;-1.0319;
1171.2000;0.4021;-1.0295;
1171.5000;0.4021;-1.0394;
1171.8000;0.4013;-1.0344;
1172.1000;0.4013;-1.0295;
1172.4000;0.4054;-1.0022;
1172.7000;0.4005;-1.0171;
1173.0000;0.4021;-1.0245;
1173.3000;0.4021;-1.0270;
1173.6000;0.4046;-1.0245;
1173.9000;0.3997;-1.0319;
1174.2000;0.4029;-1.0220;
1174.5000;0.4037;-1.0270;
1174.8000;0.4021;-1.0369;
1175.1000;0.4029;-1.0295;
1175.4000;0.4037;-1.0220;
1175.7000;0.4029;-1.0171;
1176.0000;0.4046;-1.0171;
1176.3000;0.4005;-1.0245;
1176.6000;0.4013;-1.0344;
1176.9000;0.4021;-1.0344;
1177.2000;0.3997;-1.0344;
1177.5000;0.4021;-1.0369;
1177.8000;0.4013;-1.0344;
1178.1000;0.4021;-1.0295;
1178.4000;0.4021;-1.0270;
1178.7000;0.4021;-1.0344;
1179.0000;0.4037;-1.0344;
1179.3000;0.4029;-1.0319;
1179.6000;0.4013;-1.0369;
1179.9000;0.4046;-1.0220;
1180.2000;0.4037;-1.0270;
1180.5000;0.4013;-1.0245;
1180.8000;0.4029;-1.0171;
1181.1000;0.4021;-1.0171;
1181.4000;0.4005;-1.0146;
1181.7000;0.3989;-1.0220;
1182.0000;0.4013;-1.0220;
1182.3000;0.3989;-1.0344;
1182.6000;0.4005;-1.0319;
1182.9000;0.3932;-1.0493;
1183.2000;0.4013;-1.0295;
1183.5000;0.4021;-1.0344;
1183.8000;0.4005;-1.0418;
1184.1000;0.4005;-1.0394;
1184.4000;0.4013;-1.0468;
1184.7000;0.4037;-1.0369;
1185.0000;0.4029;-1.0394;
1185.3000;0.4021;-1.0418;
1185.6000;0.4029;-1.0394;
1185.9000;0.4046;-1.0418;
1186.2000;0.4005;-1.0517;
1186.5000;0.3980;-1.0517;
1186.8000;0.4062;-1.0295;
1187.1000;0.4005;-1.0394;
1187.4000;0.4046;-1.0394;
1187.7000;0.4054;-1.0344;
1188.0000;0.4070;-1.0245;
1188.3000;0.4005;-1.0344;
1188.6000;0.3972;-1.0468;
1188.9000;0.4021;-1.0394;
1189.2000;0.4054;-1.0319;
1189.5000;0.4029;-1.0394;
1189.8000;0.4021;-1.0418;
1190.1000;0.4021;-1.0517;
1190.4000;0.3997;-1.0468;
1190.7000;0.4021;-1.0443;
1191.0000;0.4062;-1.0220;
1191.3000;0.4013;-1.0245;
1191.6000;0.4013;-1.0270;
1191.9000;0.4005;-1.0270;
1192.2000;0.4013;-1.0369;
1192.5000;0.3997;-1.0418;
1192.8000;0.4005;-1.0418;
1193.1000;0.4021;-1.0344;
1193.4000;0.4005;-1.0418;
1193.7000;0.4029;-1.0418;
1194.0000;0.4005;-1.0493;
1194.3000;0.4021;-1.0394;
1194.6000;0.3980;-1.0443;
1194.9000;0.4005;-1.0344;
1195.2000;0.4029;-1.0270;
1195.5000;0.4013;-1.0369;
1195.8000;0.4005;-1.0394;
1196.1000;0.4005;-1.0369;
1196.4000;0.4029;-1.0270;
1196.7000;0.4021;-1.0344;
1197.0000;0.4013;-1.0443;
1197.3000;0.4070;-1.0245;
1197.6000;0.4013;-1.0295;
1197.9000;0.3997;-1.0319;
1198.2000;0.4005;-1.0245;
1198.5000;0.4005;-1.0146;
1198.8000;0.4021;-1.0220;
1199.1000;0.4029;-1.0270;
1199.4000;0.4005;-1.0270;
1199.7000;0.4021;-1.0196;
1200.0000;0.4013;-1.0319;
1200.3000;0.4005;-1.0220;
1200.6000;0.4005;-1.0344;
1200.9000;0.4021;-1.0418;
1201.2000;0.4021;-1.0443;
1201.5000;0.4005;-1.0493;
1201.8000;0.3964;-1.0641;
1202.1000;0.4013;-1.0493;
1202.4000;0.4029;-1.0443;
1202.7000;0.4005;-1.0443;
1203.0000;0.3932;-1.0616;
1203.3000;0.3980;-1.0517;
1203.6000;0.4021;-1.0369;
1203.9000;0.4037;-1.0369;
1204.2000;0.3989;-1.0567;
1204.5000;0.4021;-1.0443;
1204.8000;0.4013;-1.0418;
1205.1000;0.3932;-1.0616;
1205.4000;0.4013;-1.0394;
1205.7000;0.3997;-1.0394;
1206.0000;0.4013;-1.0319;
1206.3000;0.4021;-1.0295;
1206.6000;0.4021;-1.0270;
1206.9000;0.4013;-1.0344;
1207.2000;0.4021;-1.0270;
1207.5000;0.4021;-1.0319;
1207.8000;0.4021;-1.0245;
1208.1000;0.4029;-1.0196;
1208.4000;0.4013;-1.0270;
1208.7000;0.4013;-1.0344;
1209.0000;0.4029;-1.0369;
1209.3000;0.4005;-1.0369;
1209.6000;0.4037;-1.0344;
1209.9000;0.4029;-1.0319;
1210.2000;0.4029;-1.0369;
1210.5000;0.4005;-1.0369;
1210.8000;0.4013;-1.0418;
1211.1000;0.4029;-1.0344;
1211.4000;0.4005;-1.0270;
1211.7000;0.4005;-1.0220;
1212.0000;0.4013;-1.0196;
1212.3000;0.4029;-1.0245;
1212.6000;0.4021;-1.0245;
1212.9000;0.4005;-1.0394;
1213.2000;0.4021;-1.0418;
1213.5000;0.4029;-1.0369;
1213.8000;0.4021;-1.0270;
1214.1000;0.4005;-1.0220;
1214.4000;0.3997;-1.0171;
1214.7000;0.3997;-1.0047;
1215.0000;0.3989;-1.0121;
1215.3000;0.4029;-1.0097;
1215.6000;0.4013;-1.0171;
1215.9000;0.3989;-1.0270;
1216.2000;0.4005;-1.0196;
1216.5000;0.3997;-1.0245;
1216.8000;0.3997;-1.0196;
1217.1000;0.4005;-1.0171;
1217.4000;0.4005;-1.0171;
1217.7000;0.4021;-1.0121;
1218.0000;0.4005;-1.0121;
1218.3000;0.3997;-1.0146;
1218.6000;0.3980;-1.0097;
1218.9000;0.3972;-1.0072;
1219.2000;0.4037;-0.9923;
1219.5000;0.4013;-1.0022;
1219.8000;0.4005;-0.9948;
1220.1000;0.4029;-0.9899;
1220.4000;0.4021;-1.0022;
1220.7000;0.4037;-0.9923;
1221.0000;0.4005;-0.9948;
1221.3000;0.4013;-1.0022;
1221.6000;0.4021;-1.0047;
1221.9000;0.4029;-0.9948;
1222.2000;0.3997;-1.0072;
1222.5000;0.3989;-1.0270;
1222.8000;0.4119;-0.9923;
1223.1000;0.3989;-1.0171;
1223.4000;0.4021;-1.0121;
1223.7000;0.4054;-1.0121;
1224.0000;0.3956;-1.0270;
1224.3000;0.4013;-1.0270;
1224.6000;0.4037;-1.0344;
1224.9000;0.4005;-1.0394;
1225.2000;0.4005;-1.0295;
1225.5000;0.4029;-1.0295;
1225.8000;0.4037;-1.0220;
1226.1000;0.4021;-1.0146;
1226.4000;0.4029;-1.0121;
1226.7000;0.4029;-1.0121;
1227.0000;0.4005;-1.0196;
1227.3000;0.4021;-1.0220;
1227.6000;0.4021;-1.0196;
1227.9000;0.3989;-1.0196;
1228.2000;0.3997;-1.0171;
1228.5000;0.4005;-1.0270;
1228.8000;0.4111;-1.0022;
1229.1000;0.3980;-1.0394;
1229.4000;0.4037;-1.0121;
1229.7000;0.4005;-1.0146;
1230.0000;0.4054;-1.0022;
1230.3000;0.4029;-1.0097;
1230.6000;0.4013;-1.0097;
1230.9000;0.4029;-1.0097;
1231.2000;0.4013;-1.0121;
1231.5000;0.4013;-1.0220;
1231.8000;0.4037;-1.0171;
1232.1000;0.4029;-1.0295;
1232.4000;0.4029;-1.0245;
1232.7000;0.4021;-1.0270;
1233.0000;0.3997;-1.0344;
1233.3000;0.4013;-1.0418;
1233.6000;0.3997;-1.0418;
1233.9000;0.4013;-1.0394;
1234.2000;0.4029;-1.0344;
1234.5000;0.4029;-1.0418;
1234.8000;0.4029;-1.0394;
1235.1000;0.4037;-1.0443;
1235.4000;0.4029;-1.0418;
1235.7000;0.4029;-1.0418;
1236.0000;0.4037;-1.0270;
1236.3000;0.4021;-1.0245;
1236.6000;0.4021;-1.0245;
1236.9000;0.4029;-1.0171;
1237.2000;0.4029;-1.0121;
1237.5000;0.4005;-1.0146;
1237.8000;0.4021;-1.0146;
1238.1000;0.3980;-1.0171;
1238.4000;0.4054;-1.0047;
1238.7000;0.4021;-1.0220;
1239.0000;0.4005;-1.0270;
1239.3000;0.4013;-1.0245;
1239.6000;0.3997;-1.0344;
1239.9000;0.3997;-1.0369;
1240.2000;0.4005;-1.0319;
1240.5000;0.4037;-1.0220;
1240.8000;0.4021;-1.0295;
1241.1000;0.4029;-1.0245;
1241.4000;0.3997;-1.0319;
1241.7000;0.3980;-1.0270;
1242.0000;0.4029;-1.0171;
1242.3000;0.4021;-1.0270;
1242.6000;0.4013;-1.0245;
1242.9000;0.4037;-1.0270;
1243.2000;0.4037;-1.0295;
1243.5000;0.4029;-1.0319;
1243.8000;0.4021;-1.0344;
1244.1000;0.4021;-1.0344;
1244.4000;0.3964;-1.0394;
1244.7000;0.4013;-1.0319;
1245.0000;0.4013;-1.0418;
1245.3000;0.4029;-1.0369;
1245.6000;0.3997;-1.0418;
1245.9000;0.3997;-1.0394;
1246.2000;0.4029;-1.0369;
1246.5000;0.4013;-1.0394;
1246.8000;0.4021;-1.0369;
1247.1000;0.4021;-1.0418;
1247.4000;0.4029;-1.0418;
1247.7000;0.4013;-1.0295;
1248.0000;0.4005;-1.0295;
1248.3000;0.4013;-1.0245;
1248.6000;0.4013;-1.0220;
1248.9000;0.4029;-1.0220;
1249.2000;0.3956;-1.0443;
1249.5000;0.4013;-1.0344;
1249.8000;0.4005;-1.0369;
1250.1000;0.3980;-1.0394;
1250.4000;0.3997;-1.0344;
1250.7000;0.4013;-1.0245;
1251.0000;0.4029;-1.0196;
1251.3000;0.4005;-1.0245;
1251.6000;0.4021;-1.0245;
1251.9000;0.4029;-1.0220;
1252.2000;0.4037;-1.0270;
1252.5000;0.4037;-1.0319;
1252.8000;0.3997;-1.0319;
1253.1000;0.4005;-1.0245;
1253.4000;0.4029;-1.0220;
1253.7000;0.4013;-1.0295;
1254.0000;0.3989;-1.0369;
1254.3000;0.4013;-1.0369;
1254.6000;0.4029;-1.0394;
1254.9000;0.3989;-1.0418;
1255.2000;0.4046;-1.0319;
1255.5000;0.4021;-1.0319;
1255.8000;0.4037;-1.0295;
1256.1000;0.4005;-1.0394;
1256.4000;0.4037;-1.0394;
1256.7000;0.3997;-1.0369;
1257.0000;0.3948;-1.0319;
1257.3000;0.4054;-1.0022;
1257.6000;0.4029;-1.0097;
1257.9000;0.4029;-1.0121;
1258.2000;0.4054;-0.9998;
1258.5000;0.3997;-1.0097;
1258.8000;0.4054;-1.0047;
1259.1000;0.3948;-1.0319;
1259.4000;0.4013;-1.0295;
1259.7000;0.4037;-1.0245;
1260.0000;0.4094;-1.0196;
1260.3000;0.4013;-1.0468;
1260.6000;0.4054;-1.0394;
1260.9000;0.4029;-1.0344;
1261.2000;0.4013;-1.0344;
1261.5000;0.4005;-1.0344;
1261.8000;0.4013;-1.0319;
1262.1000;0.4005;-1.0319;
1262.4000;0.4029;-1.0220;
1262.7000;0.3891;-1.0493;
1263.0000;0.4013;-1.0220;
1263.3000;0.4013;-1.0270;
1263.6000;0.4070;-1.0097;
1263.9000;0.4119;-1.0072;
1264.2000;0.4029;-1.0344;
1264.5000;0.4029;-1.0394;
1264.8000;0.4029;-1.0344;
1265.1000;0.4046;-1.0270;
1265.4000;0.4029;-1.0319;
1265.7000;0.4021;-1.0394;
1266.0000;0.4005;-1.0418;
1266.3000;0.3997;-1.0418;
1266.6000;0.4013;-1.0319;
1266.9000;0.4005;-1.0443;
1267.2000;0.4021;-1.0493;
1267.5000;0.4046;-1.0468;
1267.8000;0.4029;-1.0443;
1268.1000;0.4029;-1.0468;
1268.4000;0.4046;-1.0394;
1268.7000;0.4005;-1.0468;
1269.0000;0.4021;-1.0418;
1269.3000;0.4021;-1.0394;
1269.6000;0.4029;-1.0369;
1269.9000;0.4021;-1.0270;
1270.2000;0.4046;-1.0146;
1270.5000;0.4013;-1.0245;
1270.8000;0.4037;-1.0220;
1271.1000;0.4037;-1.0171;
1271.4000;0.4037;-1.0196;
1271.7000;0.3989;-1.0295;
1272.0000;0.3989;-1.0196;
1272.3000;0.3997;-1.0171;
1272.6000;0.4037;-1.0072;
1272.9000;0.3989;-1.0097;
1273.2000;0.4127;-0.9775;
1273.5000;0.4005;-1.0047;
1273.8000;0.4005;-1.0072;
1274.1000;0.4013;-1.0072;
1274.4000;0.4005;-1.0121;
1274.7000;0.3989;-1.0196;
1275.0000;0.3997;-1.0220;
1275.3000;0.3964;-1.0270;
1275.6000;0.4013;-1.0171;
1275.9000;0.4054;-1.0146;
1276.2000;0.3989;-1.0295;
1276.5000;0.4013;-1.0196;
1276.8000;0.4013;-1.0245;
1277.1000;0.3980;-1.0319;
1277.4000;0.4005;-1.0196;
1277.7000;0.4029;-1.0220;
1278.0000;0.3940;-1.0418;
1278.3000;0.3989;-1.0270;
1278.6000;0.4005;-1.0319;
1278.9000;0.4021;-1.0270;
1279.2000;0.4037;-1.0196;
1279.5000;0.4029;-1.0171;
1279.8000;0.4054;-1.0097;
1280.1000;0.3997;-1.0319;
1280.4000;0.4021;-1.0245;
1280.7000;0.4005;-1.0270;
1281.0000;0.4005;-1.0196;
1281.3000;0.4021;-1.0097;
1281.6000;0.4021;-1.0196;
1281.9000;0.4005;-1.0171;
1282.2000;0.4013;-1.0097;
1282.5000;0.3997;-1.0121;
1282.8000;0.4037;-1.0072;
1283.1000;0.3989;-1.0220;
1283.4000;0.4013;-1.0146;
1283.7000;0.4021;-1.0121;
1284.0000;0.4013;-1.0196;
1284.3000;0.4029;-1.0245;
1284.6000;0.4029;-1.0295;
1284.9000;0.4029;-1.0369;
1285.2000;0.4005;-1.0443;
1285.5000;0.4029;-1.0418;
1285.8000;0.4029;-1.0319;
1286.1000;0.4029;-1.0220;
1286.4000;0.4086;-1.0072;
1286.7000;0.4013;-1.0270;
1287.0000;0.4005;-1.0220;
1287.3000;0.4029;-1.0171;
1287.6000;0.4111;-0.9998;
1287.9000;0.4013;-1.0295;
1288.2000;0.4021;-1.0270;
1288.5000;0.3964;-1.0394;
1288.8000;0.4029;-1.0171;
1289.1000;0.4021;-1.0295;
1289.4000;0.4021;-1.0344;
1289.7000;0.4086;-1.0121;
1290.0000;0.4046;-1.0245;
1290.3000;0.4029;-1.0295;
1290.6000;0.4021;-1.0220;
1290.9000;0.4013;-1.0121;
1291.2000;0.4029;-1.0097;
1291.5000;0.4029;-1.0171;
1291.8000;0.4021;-1.0121;
1292.1000;0.4046;-1.0047;
1292.4000;0.4029;-1.0097;
1292.7000;0.4029;-1.0047;
1293.0000;0.4005;-1.0072;
1293.3000;0.4021;-1.0072;
1293.6000;0.4013;-1.0196;
1293.9000;0.4037;-1.0072;
1294.2000;0.3997;-1.0146;
1294.5000;0.4037;-1.0047;
1294.8000;0.4037;-1.0171;
1295.1000;0.3972;-1.0171;
1295.4000;0.4029;-1.0097;
1295.7000;0.4029;-1.0097;
1296.0000;0.4078;-0.9948;
1296.3000;0.4021;-1.0121;
1296.6000;0.4046;-1.0047;
1296.9000;0.3989;-1.0220;
1297.2000;0.4021;-1.0171;
1297.5000;0.4013;-1.0196;
1297.8000;0.4029;-1.0121;
1298.1000;0.4029;-1.0047;
1298.4000;0.4021;-1.0022;
1298.7000;0.4029;-1.0047;
1299.0000;0.4086;-0.9973;
1299.3000;0.4046;-1.0097;
1299.6000;0.4054;-1.0097;
1299.9000;0.4021;-1.0146;
1300.2000;0.4037;-1.0146;
1300.5000;0.4062;-1.0171;
1300.8000;0.4037;-1.0146;
1301.1000;0.4013;-1.0220;
1301.4000;0.4054;-1.0196;
1301.7000;0.4029;-1.0295;
1302.0000;0.4046;-1.0146;
1302.3000;0.4037;-1.0196;
1302.6000;0.4029;-1.0245;
1302.9000;0.4029;-1.0220;
1303.2000;0.4029;-1.0245;
1303.5000;0.4029;-1.0196;
1303.8000;0.4029;-1.0121;
1304.1000;0.4037;-1.0047;
1304.4000;0.4037;-1.0097;
1304.7000;0.4021;-1.0171;
1305.0000;0.4037;-1.0196;
1305.3000;0.4021;-1.0270;
1305.6000;0.4037;-1.0319;
1305.9000;0.4070;-1.0319;
1306.2000;0.4013;-1.0493;
1306.5000;0.3997;-1.0443;
1306.8000;0.4029;-1.0295;
1307.1000;0.4021;-1.0295;
1307.4000;0.4037;-1.0295;
1307.7000;0.4029;-1.0369;
1308.0000;0.4029;-1.0295;
1308.3000;0.4021;-1.0319;
1308.6000;0.3989;-1.0468;
1308.9000;0.4037;-1.0394;
1309.2000;0.4005;-1.0443;
1309.5000;0.4021;-1.0443;
1309.8000;0.4029;-1.0344;
1310.1000;0.4021;-1.0319;
1310.4000;0.4037;-1.0220;
1310.7000;0.4013;-1.0270;
1311.0000;0.4021;-1.0270;
1311.3000;0.4005;-1.0196;
1311.6000;0.4013;-1.0196;
1311.9000;0.4037;-1.0146;
1312.2000;0.4021;-1.0121;
1312.5000;0.4029;-1.0097;
1312.8000;0.4037;-1.0097;
1313.1000;0.4029;-1.0072;
1313.4000;0.4037;-1.0072;
1313.7000;0.4005;-1.0220;
1314.0000;0.3972;-1.0344;
1314.3000;0.4062;-1.0196;
1314.6000;0.4037;-1.0270;
1314.9000;0.3997;-1.0443;
1315.2000;0.4021;-1.0344;
1315.5000;0.4078;-1.0171;
1315.8000;0.3997;-1.0319;
1316.1000;0.4013;-1.0220;
1316.4000;0.3997;-1.0196;
1316.7000;0.4021;-1.0072;
1317.0000;0.4021;-0.9948;
1317.3000;0.4046;-0.9874;
1317.6000;0.4037;-0.9874;
1317.9000;0.4054;-0.9750;
1318.2000;0.4037;-0.9849;
1318.5000;0.3989;-0.9973;
1318.8000;0.4005;-0.9899;
1319.1000;0.4005;-0.9998;
1319.4000;0.4005;-1.0072;
1319.7000;0.4013;-1.0072;
1320.0000;0.4062;-0.9998;
1320.3000;0.4070;-1.0022;
1320.6000;0.4054;-0.9998;
1320.9000;0.4029;-1.0022;
1321.2000;0.4021;-0.9998;
1321.5000;0.3997;-1.0097;
1321.8000;0.4013;-1.0072;
1322.1000;0.4029;-1.0047;
1322.4000;0.4037;-0.9998;
1322.7000;0.4029;-0.9998;
1323.0000;0.4054;-0.9923;
1323.3000;0.4029;-0.9899;
1323.6000;0.4005;-1.0022;
1323.9000;0.4046;-0.9998;
1324.2000;0.4021;-1.0146;
1324.5000;0.4021;-1.0171;
1324.8000;0.4029;-1.0196;
1325.1000;0.4037;-1.0121;
1325.4000;0.4013;-1.0171;
1325.7000;0.4029;-1.0146;
1326.0000;0.4013;-1.0121;
1326.3000;0.4021;-1.0121;
1326.6000;0.4029;-1.0121;
1326.9000;0.4013;-1.0220;
1327.2000;0.4046;-1.0146;
1327.5000;0.4013;-1.0270;
1327.8000;0.4029;-1.0319;
1328.1000;0.4037;-1.0171;
1328.4000;0.4037;-0.9998;
1328.7000;0.4037;-0.9899;
1329.0000;0.4037;-0.9899;
1329.3000;0.4029;-0.9973;
1329.6000;0.4021;-1.0022;
1329.9000;0.4005;-1.0022;
1330.2000;0.4029;-0.9948;
1330.5000;0.4029;-1.0022;
1330.8000;0.4013;-1.0047;
1331.1000;0.4037;-0.9973;
1331.4000;0.4054;-0.9948;
1331.7000;0.4037;-1.0072;
1332.0000;0.4005;-1.0196;
1332.3000;0.4029;-1.0097;
1332.6000;0.4037;-0.9998;
1332.9000;0.4037;-1.0022;
1333.2000;0.4037;-1.0072;
1333.5000;0.4029;-1.0171;
1333.8000;0.4037;-1.0220;
1334.1000;0.4037;-1.0245;
1334.4000;0.4029;-1.0319;
1334.7000;0.4029;-1.0319;
1335.0000;0.4037;-1.0270;
1335.3000;0.4078;-1.0022;
1335.6000;0.4021;-1.0072;
1335.9000;0.4062;-0.9923;
1336.2000;0.4029;-0.9998;
1336.5000;0.4070;-0.9923;
1336.8000;0.4029;-1.0047;
1337.1000;0.4021;-1.0121;
1337.4000;0.4046;-1.0072;
1337.7000;0.4037;-1.0196;
1338.0000;0.4037;-1.0270;
1338.3000;0.4021;-1.0319;
1338.6000;0.4029;-1.0196;
1338.9000;0.4062;-1.0121;
1339.2000;0.4005;-1.0171;
1339.5000;0.3997;-1.0171;
1339.8000;0.4037;-1.0097;
1340.1000;0.4013;-1.0146;
1340.4000;0.4021;-1.0146;
1340.7000;0.4021;-1.0171;
1341.0000;0.4037;-1.0171;
1341.3000;0.4037;-1.0295;
1341.6000;0.4046;-1.0270;
1341.9000;0.4005;-1.0344;
1342.2000;0.4021;-1.0270;
1342.5000;0.4021;-1.0319;
1342.8000;0.4037;-1.0369;
1343.1000;0.4029;-1.0394;
1343.4000;0.4029;-1.0493;
1343.7000;0.4029;-1.0443;
1344.0000;0.4021;-1.0344;
1344.3000;0.4046;-1.0319;
1344.6000;0.4029;-1.0394;
1344.9000;0.4021;-1.0394;
1345.2000;0.4021;-1.0394;
1345.5000;0.4005;-1.0394;
1345.8000;0.4046;-1.0270;
1346.1000;0.4021;-1.0369;
1346.4000;0.4037;-1.0295;
1346.7000;0.4062;-1.0245;
1347.0000;0.4021;-1.0295;
1347.3000;0.4013;-1.0171;
1347.6000;0.3923;-1.0270;
1347.9000;0.4037;-1.0047;
1348.2000;0.4029;-1.0146;
1348.5000;0.4029;-1.0121;
1348.8000;0.4046;-1.0022;
1349.1000;0.4021;-1.0121;
1349.4000;0.4021;-1.0196;
1349.7000;0.4021;-1.0146;
1350.0000;0.4021;-1.0097;
1350.3000;0.4013;-1.0245;
1350.6000;0.4046;-1.0270;
1350.9000;0.4037;-1.0394;
1351.2000;0.4029;-1.0418;
1351.5000;0.4029;-1.0369;
1351.8000;0.4054;-1.0295;
1352.1000;0.4021;-1.0295;
1352.4000;0.4013;-1.0220;
1352.7000;0.4029;-1.0220;
1353.0000;0.4029;-1.0146;
1353.3000;0.4037;-1.0072;
1353.6000;0.4029;-1.0047;
1353.9000;0.4029;-1.0022;
1354.2000;0.4021;-1.0072;
1354.5000;0.4029;-1.0072;
1354.8000;0.4037;-1.0047;
1355.1000;0.4021;-1.0072;
1355.4000;0.4046;-1.0121;
1355.7000;0.4005;-1.0171;
1356.0000;0.4005;-1.0220;
1356.3000;0.4037;-1.0220;
1356.6000;0.4086;-1.0072;
1356.9000;0.4029;-1.0146;
1357.2000;0.4029;-1.0196;
1357.5000;0.3948;-1.0468;
1357.8000;0.4029;-1.0319;
1358.1000;0.4046;-1.0369;
1358.4000;0.4054;-1.0344;
1358.7000;0.4013;-1.0418;
1359.0000;0.4029;-1.0468;
1359.3000;0.4037;-1.0443;
1359.6000;0.4029;-1.0493;
1359.9000;0.4070;-1.0394;
1360.2000;0.3940;-1.0691;
1360.5000;0.4029;-1.0468;
1360.8000;0.4037;-1.0493;
1361.1000;0.4037;-1.0394;
1361.4000;0.4013;-1.0319;
1361.7000;0.4013;-1.0344;
1362.0000;0.4037;-1.0344;
1362.3000;0.4029;-1.0394;
1362.6000;0.4046;-1.0369;
1362.9000;0.4037;-1.0369;
1363.2000;0.4037;-1.0369;
1363.5000;0.4029;-1.0468;
1363.8000;0.4046;-1.0517;
1364.1000;0.4054;-1.0517;
1364.4000;0.4037;-1.0493;
1364.7000;0.4070;-1.0394;
1365.0000;0.4005;-1.0493;
1365.3000;0.4013;-1.0468;
1365.6000;0.4029;-1.0369;
1365.9000;0.4054;-1.0319;
1366.2000;0.4029;-1.0394;
1366.5000;0.4029;-1.0319;
1366.8000;0.4029;-1.0394;
1367.1000;0.4103;-1.0171;
1367.4000;0.4021;-1.0369;
1367.7000;0.4029;-1.0369;
1368.0000;0.4029;-1.0394;
1368.3000;0.4013;-1.0542;
1368.6000;0.4062;-1.0542;
1368.9000;0.4029;-1.0542;
1369.2000;0.4127;-1.0270;
1369.5000;0.4037;-1.0493;
1369.8000;0.4037;-1.0493;
1370.1000;0.4046;-1.0517;
1370.4000;0.4021;-1.0542;
1370.7000;0.4021;-1.0517;
1371.0000;0.4005;-1.0567;
1371.3000;0.4037;-1.0542;
1371.6000;0.4021;-1.0567;
1371.9000;0.4086;-1.0418;
1372.2000;0.4021;-1.0592;
1372.5000;0.4029;-1.0592;
1372.8000;0.4021;-1.0666;
1373.1000;0.4029;-1.0592;
1373.4000;0.4029;-1.0567;
1373.7000;0.4005;-1.0691;
1374.0000;0.3997;-1.0641;
1374.3000;0.4013;-1.0567;
1374.6000;0.4046;-1.0443;
1374.9000;0.4037;-1.0443;
1375.2000;0.3948;-1.0616;
1375.5000;0.4029;-1.0394;
1375.8000;0.4029;-1.0344;
1376.1000;0.4021;-1.0245;
1376.4000;0.4054;-1.0121;
1376.7000;0.4021;-1.0196;
1377.0000;0.4013;-1.0196;
1377.3000;0.4037;-1.0196;
1377.6000;0.4029;-1.0171;
1377.9000;0.4021;-1.0245;
1378.2000;0.3989;-1.0295;
1378.5000;0.4029;-1.0171;
1378.8000;0.4021;-1.0270;
1379.1000;0.4029;-1.0295;
1379.4000;0.3915;-1.0616;
1379.7000;0.4021;-1.0369;
1380.0000;0.4037;-1.0295;
1380.3000;0.4021;-1.0245;
1380.6000;0.4094;-1.0146;
1380.9000;0.4037;-1.0245;
1381.2000;0.4070;-1.0245;
1381.5000;0.4005;-1.0319;
1381.8000;0.4046;-1.0295;
1382.1000;0.4005;-1.0443;
1382.4000;0.4046;-1.0468;
1382.7000;0.4037;-1.0493;
1383.0000;0.3980;-1.0567;
1383.3000;0.4021;-1.0517;
1383.6000;0.4029;-1.0443;
1383.9000;0.4054;-1.0319;
1384.2000;0.4029;-1.0369;
1384.5000;0.4021;-1.0394;
1384.8000;0.4029;-1.0418;
1385.1000;0.4021;-1.0493;
1385.4000;0.4013;-1.0468;
1385.7000;0.4013;-1.0493;
1386.0000;0.4005;-1.0443;
1386.3000;0.3989;-1.0468;
1386.6000;0.3997;-1.0567;
1386.9000;0.4021;-1.0493;
1387.2000;0.4005;-1.0567;
1387.5000;0.4013;-1.0542;
1387.8000;0.4029;-1.0542;
1388.1000;0.4005;-1.0691;
1388.4000;0.4021;-1.0616;
1388.7000;0.4037;-1.0542;
1389.0000;0.4046;-1.0542;
1389.3000;0.4054;-1.0567;
1389.6000;0.4037;-1.0592;
1389.9000;0.4029;-1.0542;
1390.2000;0.4037;-1.0468;
1390.5000;0.4021;-1.0493;
1390.8000;0.4037;-1.0468;
1391.1000;0.4021;-1.0468;
1391.4000;0.4021;-1.0468;
1391.7000;0.4013;-1.0493;
1392.0000;0.4013;-1.0542;
1392.3000;0.4013;-1.0542;
1392.6000;0.4029;-1.0542;
1392.9000;0.4029;-1.0517;
1393.2000;0.4037;-1.0418;
1393.5000;0.4029;-1.0369;
1393.8000;0.4054;-1.0369;
1394.1000;0.4029;-1.0394;
1394.4000;0.4013;-1.0369;
1394.7000;0.4013;-1.0295;
1395.0000;0.4021;-1.0245;
1395.3000;0.4037;-1.0295;
1395.6000;0.4037;-1.0344;
1395.9000;0.4037;-1.0369;
1396.2000;0.4021;-1.0443;
1396.5000;0.4029;-1.0394;
1396.8000;0.4054;-1.0418;
1397.1000;0.4037;-1.0369;
1397.4000;0.4046;-1.0344;
1397.7000;0.4021;-1.0270;
1398.0000;0.4029;-1.0319;
1398.3000;0.4021;-1.0394;
1398.6000;0.4013;-1.0394;
1398.9000;0.4046;-1.0220;
1399.2000;0.4029;-1.0270;
1399.5000;0.4046;-1.0270;
1399.8000;0.4054;-1.0146;
