time/ms;Fluo/V;P700 deltaI/I x10³;
-199.8000;0.3386;1.0118;
-199.5000;0.3386;1.0118;
-199.2000;0.3370;1.0118;
-198.9000;0.3362;1.0118;
-198.6000;0.3362;1.0068;
-198.3000;0.3394;1.0118;
-198.0000;0.3378;1.0093;
-197.7000;0.3362;1.0093;
-197.4000;0.3386;1.0168;
-197.1000;0.3394;1.0218;
-196.8000;0.3378;1.0193;
-196.5000;0.3370;1.0143;
-196.2000;0.3378;1.0218;
-195.9000;0.3378;1.0268;
-195.6000;0.3378;1.0293;
-195.3000;0.3337;1.0143;
-195.0000;0.3386;1.0243;
-194.7000;0.3386;1.0243;
-194.4000;0.3403;1.0193;
-194.1000;0.3378;1.0218;
-193.8000;0.3378;1.0118;
-193.5000;0.3378;1.0118;
-193.2000;0.3386;1.0218;
-192.9000;0.3378;1.0168;
-192.6000;0.3378;1.0193;
-192.3000;0.3378;1.0193;
-192.0000;0.3370;1.0193;
-191.7000;0.3386;1.0218;
-191.4000;0.3386;1.0168;
-191.1000;0.3378;1.0143;
-190.8000;0.3435;1.0318;
-190.5000;0.3394;1.0243;
-190.2000;0.3403;1.0193;
-189.9000;0.3386;1.0143;
-189.6000;0.3386;1.0143;
-189.3000;0.3386;1.0168;
-189.0000;0.3386;1.0268;
-188.7000;0.3386;1.0193;
-188.4000;0.3378;1.0268;
-188.1000;0.3378;1.0318;
-187.8000;0.3370;1.0293;
-187.5000;0.3370;1.0318;
-187.2000;0.3386;1.0392;
-186.9000;0.3394;1.0318;
-186.6000;0.3378;1.0268;
-186.3000;0.3378;1.0143;
-186.0000;0.3370;1.0168;
-185.7000;0.3362;1.0143;
-185.4000;0.3378;1.0168;
-185.1000;0.3386;1.0193;
-184.8000;0.3378;1.0268;
-184.5000;0.3378;1.0343;
-184.2000;0.3378;1.0318;
-183.9000;0.3378;1.0293;
-183.6000;0.3378;1.0268;
-183.3000;0.3386;1.0268;
-183.0000;0.3427;1.0368;
-182.7000;0.3394;1.0193;
-182.4000;0.3386;1.0193;
-182.1000;0.3378;1.0168;
-181.8000;0.3378;1.0193;
-181.5000;0.3386;1.0168;
-181.2000;0.3362;1.0118;
-180.9000;0.3386;1.0168;
-180.6000;0.3386;1.0168;
-180.3000;0.3386;1.0143;
-180.0000;0.3378;1.0168;
-179.7000;0.3378;1.0343;
-179.4000;0.3386;1.0293;
-179.1000;0.3403;1.0318;
-178.8000;0.3394;1.0268;
-178.5000;0.3386;1.0243;
-178.2000;0.3468;1.0492;
-177.9000;0.3386;1.0293;
-177.6000;0.3386;1.0318;
-177.3000;0.3378;1.0293;
-177.0000;0.3394;1.0318;
-176.7000;0.3289;0.9919;
-176.4000;0.3386;1.0143;
-176.1000;0.3378;1.0143;
-175.8000;0.3354;1.0068;
-175.5000;0.3419;1.0218;
-175.2000;0.3394;1.0218;
-174.9000;0.3378;1.0293;
-174.6000;0.3403;1.0368;
-174.3000;0.3403;1.0417;
-174.0000;0.3386;1.0318;
-173.7000;0.3378;1.0243;
-173.4000;0.3386;1.0318;
-173.1000;0.3394;1.0318;
-172.8000;0.3386;1.0318;
-172.5000;0.3411;1.0268;
-172.2000;0.3362;1.0118;
-171.9000;0.3403;1.0243;
-171.6000;0.3403;1.0293;
-171.3000;0.3378;1.0268;
-171.0000;0.3403;1.0293;
-170.7000;0.3394;1.0268;
-170.4000;0.3394;1.0243;
-170.1000;0.3378;1.0243;
-169.8000;0.3280;0.9994;
-169.5000;0.3378;1.0218;
-169.2000;0.3386;1.0293;
-168.9000;0.3403;1.0318;
-168.6000;0.3394;1.0343;
-168.3000;0.3394;1.0368;
-168.0000;0.3378;1.0368;
-167.7000;0.3403;1.0442;
-167.4000;0.3386;1.0392;
-167.1000;0.3378;1.0268;
-166.8000;0.3370;1.0293;
-166.5000;0.3403;1.0343;
-166.2000;0.3394;1.0368;
-165.9000;0.3378;1.0392;
-165.6000;0.3305;1.0268;
-165.3000;0.3403;1.0492;
-165.0000;0.3394;1.0492;
-164.7000;0.3362;1.0417;
-164.4000;0.3378;1.0467;
-164.1000;0.3337;1.0268;
-163.8000;0.3386;1.0417;
-163.5000;0.3386;1.0318;
-163.2000;0.3394;1.0343;
-162.9000;0.3394;1.0343;
-162.6000;0.3403;1.0343;
-162.3000;0.3394;1.0293;
-162.0000;0.3370;1.0218;
-161.7000;0.3403;1.0243;
-161.4000;0.3460;1.0343;
-161.1000;0.3378;1.0019;
-160.8000;0.3370;1.0093;
-160.5000;0.3386;1.0093;
-160.2000;0.3378;1.0068;
-159.9000;0.3370;1.0068;
-159.6000;0.3386;1.0168;
-159.3000;0.3427;1.0268;
-159.0000;0.3280;0.9869;
-158.7000;0.3403;1.0193;
-158.4000;0.3394;1.0218;
-158.1000;0.3378;1.0193;
-157.8000;0.3394;1.0218;
-157.5000;0.3394;1.0293;
-157.2000;0.3394;1.0268;
-156.9000;0.3362;1.0218;
-156.6000;0.3370;1.0243;
-156.3000;0.3370;1.0218;
-156.0000;0.3378;1.0218;
-155.7000;0.3378;1.0243;
-155.4000;0.3378;1.0143;
-155.1000;0.3419;1.0168;
-154.8000;0.3484;1.0368;
-154.5000;0.3321;1.0019;
-154.2000;0.3378;1.0193;
-153.9000;0.3394;1.0193;
-153.6000;0.3386;1.0118;
-153.3000;0.3443;1.0243;
-153.0000;0.3443;1.0318;
-152.7000;0.3386;1.0168;
-152.4000;0.3370;1.0093;
-152.1000;0.3500;1.0368;
-151.8000;0.3460;1.0318;
-151.5000;0.3394;1.0143;
-151.2000;0.3411;1.0193;
-150.9000;0.3378;1.0118;
-150.6000;0.3362;1.0143;
-150.3000;0.3394;1.0143;
-150.0000;0.3386;1.0218;
-149.7000;0.3362;1.0268;
-149.4000;0.3394;1.0318;
-149.1000;0.3370;1.0293;
-148.8000;0.3386;1.0293;
-148.5000;0.3386;1.0268;
-148.2000;0.3386;1.0318;
-147.9000;0.3378;1.0293;
-147.6000;0.3378;1.0318;
-147.3000;0.3451;1.0467;
-147.0000;0.3394;1.0293;
-146.7000;0.3362;1.0243;
-146.4000;0.3378;1.0293;
-146.1000;0.3403;1.0243;
-145.8000;0.3378;1.0268;
-145.5000;0.3370;1.0218;
-145.2000;0.3378;1.0293;
-144.9000;0.3378;1.0343;
-144.6000;0.3362;1.0293;
-144.3000;0.3378;1.0243;
-144.0000;0.3394;1.0243;
-143.7000;0.3386;1.0218;
-143.4000;0.3411;1.0293;
-143.1000;0.3394;1.0318;
-142.8000;0.3378;1.0218;
-142.5000;0.3403;1.0243;
-142.2000;0.3394;1.0218;
-141.9000;0.3378;1.0143;
-141.6000;0.3394;1.0068;
-141.3000;0.3394;1.0143;
-141.0000;0.3419;1.0218;
-140.7000;0.3394;1.0193;
-140.4000;0.3394;1.0243;
-140.1000;0.3378;1.0243;
-139.8000;0.3394;1.0268;
-139.5000;0.3386;1.0143;
-139.2000;0.3386;1.0093;
-138.9000;0.3386;1.0093;
-138.6000;0.3378;1.0093;
-138.3000;0.3403;1.0168;
-138.0000;0.3403;1.0243;
-137.7000;0.3386;1.0218;
-137.4000;0.3394;1.0193;
-137.1000;0.3378;1.0143;
-136.8000;0.3354;1.0068;
-136.5000;0.3386;1.0143;
-136.2000;0.3394;1.0168;
-135.9000;0.3378;1.0168;
-135.6000;0.3386;1.0143;
-135.3000;0.3386;1.0143;
-135.0000;0.3386;1.0093;
-134.7000;0.3370;1.0068;
-134.4000;0.3386;1.0019;
-134.1000;0.3386;0.9994;
-133.8000;0.3386;1.0093;
-133.5000;0.3411;1.0168;
-133.2000;0.3378;1.0193;
-132.9000;0.3394;1.0293;
-132.6000;0.3427;1.0343;
-132.3000;0.3443;1.0368;
-132.0000;0.3394;1.0243;
-131.7000;0.3386;1.0243;
-131.4000;0.3386;1.0218;
-131.1000;0.3370;1.0218;
-130.8000;0.3329;1.0019;
-130.5000;0.3378;1.0218;
-130.2000;0.3370;1.0243;
-129.9000;0.3386;1.0268;
-129.6000;0.3394;1.0318;
-129.3000;0.3346;1.0193;
-129.0000;0.3370;1.0268;
-128.7000;0.3321;1.0193;
-128.4000;0.3386;1.0392;
-128.1000;0.3394;1.0368;
-127.8000;0.3354;1.0293;
-127.5000;0.3378;1.0392;
-127.2000;0.3403;1.0492;
-126.9000;0.3370;1.0392;
-126.6000;0.3370;1.0392;
-126.3000;0.3378;1.0368;
-126.0000;0.3411;1.0417;
-125.7000;0.3370;1.0293;
-125.4000;0.3337;1.0193;
-125.1000;0.3394;1.0343;
-124.8000;0.3378;1.0343;
-124.5000;0.3386;1.0368;
-124.2000;0.3321;1.0193;
-123.9000;0.3362;1.0318;
-123.6000;0.3386;1.0318;
-123.3000;0.3378;1.0318;
-123.0000;0.3378;1.0293;
-122.7000;0.3394;1.0392;
-122.4000;0.3386;1.0368;
-122.1000;0.3386;1.0318;
-121.8000;0.3403;1.0392;
-121.5000;0.3378;1.0293;
-121.2000;0.3378;1.0417;
-120.9000;0.3362;1.0318;
-120.6000;0.3386;1.0268;
-120.3000;0.3394;1.0293;
-120.0000;0.3370;1.0343;
-119.7000;0.3403;1.0442;
-119.4000;0.3435;1.0492;
-119.1000;0.3378;1.0392;
-118.8000;0.3394;1.0442;
-118.5000;0.3386;1.0392;
-118.2000;0.3403;1.0442;
-117.9000;0.3419;1.0492;
-117.6000;0.3386;1.0467;
-117.3000;0.3370;1.0442;
-117.0000;0.3411;1.0592;
-116.7000;0.3394;1.0567;
-116.4000;0.3378;1.0467;
-116.1000;0.3468;1.0741;
-115.8000;0.3378;1.0492;
-115.5000;0.3386;1.0467;
-115.2000;0.3370;1.0318;
-114.9000;0.3370;1.0318;
-114.6000;0.3386;1.0343;
-114.3000;0.3394;1.0417;
-114.0000;0.3386;1.0417;
-113.7000;0.3370;1.0417;
-113.4000;0.3386;1.0492;
-113.1000;0.3403;1.0467;
-112.8000;0.3386;1.0392;
-112.5000;0.3386;1.0318;
-112.2000;0.3378;1.0268;
-111.9000;0.3386;1.0318;
-111.6000;0.3394;1.0368;
-111.3000;0.3354;1.0243;
-111.0000;0.3394;1.0343;
-110.7000;0.3386;1.0293;
-110.4000;0.3386;1.0318;
-110.1000;0.3386;1.0368;
-109.8000;0.3386;1.0318;
-109.5000;0.3305;1.0118;
-109.2000;0.3370;1.0343;
-108.9000;0.3394;1.0368;
-108.6000;0.3451;1.0467;
-108.3000;0.3394;1.0293;
-108.0000;0.3435;1.0293;
-107.7000;0.3394;1.0168;
-107.4000;0.3403;1.0243;
-107.1000;0.3386;1.0218;
-106.8000;0.3394;1.0193;
-106.5000;0.3419;1.0318;
-106.2000;0.3370;1.0243;
-105.9000;0.3427;1.0343;
-105.6000;0.3411;1.0243;
-105.3000;0.3378;1.0143;
-105.0000;0.3362;1.0143;
-104.7000;0.3419;1.0293;
-104.4000;0.3378;1.0243;
-104.1000;0.3362;1.0268;
-103.8000;0.3533;1.0716;
-103.5000;0.3394;1.0343;
-103.2000;0.3394;1.0417;
-102.9000;0.3427;1.0617;
-102.6000;0.3394;1.0567;
-102.3000;0.3386;1.0517;
-102.0000;0.3394;1.0592;
-101.7000;0.3394;1.0567;
-101.4000;0.3354;1.0392;
-101.1000;0.3394;1.0467;
-100.8000;0.3386;1.0442;
-100.5000;0.3394;1.0492;
-100.2000;0.3460;1.0692;
-99.9000;0.3378;1.0517;
-99.6000;0.3386;1.0517;
-99.3000;0.3378;1.0592;
-99.0000;0.3403;1.0592;
-98.7000;0.3378;1.0567;
-98.4000;0.3386;1.0567;
-98.1000;0.3386;1.0542;
-97.8000;0.3386;1.0467;
-97.5000;0.3394;1.0442;
-97.2000;0.3386;1.0442;
-96.9000;0.3370;1.0417;
-96.6000;0.3386;1.0268;
-96.3000;0.3378;1.0243;
-96.0000;0.3362;1.0243;
-95.7000;0.3370;1.0293;
-95.4000;0.3386;1.0268;
-95.1000;0.3386;1.0318;
-94.8000;0.3394;1.0293;
-94.5000;0.3362;1.0218;
-94.2000;0.3354;1.0193;
-93.9000;0.3378;1.0218;
-93.6000;0.3370;1.0143;
-93.3000;0.3386;1.0143;
-93.0000;0.3403;1.0193;
-92.7000;0.3394;1.0243;
-92.4000;0.3362;1.0143;
-92.1000;0.3435;1.0467;
-91.8000;0.3378;1.0293;
-91.5000;0.3378;1.0392;
-91.2000;0.3370;1.0293;
-90.9000;0.3378;1.0268;
-90.6000;0.3394;1.0243;
-90.3000;0.3386;1.0318;
-90.0000;0.3394;1.0343;
-89.7000;0.3362;1.0318;
-89.4000;0.3386;1.0318;
-89.1000;0.3378;1.0318;
-88.8000;0.3403;1.0368;
-88.5000;0.3403;1.0343;
-88.2000;0.3386;1.0392;
-87.9000;0.3378;1.0392;
-87.6000;0.3411;1.0417;
-87.3000;0.3403;1.0417;
-87.0000;0.3394;1.0368;
-86.7000;0.3386;1.0368;
-86.4000;0.3386;1.0343;
-86.1000;0.3370;1.0268;
-85.8000;0.3394;1.0243;
-85.5000;0.3370;1.0243;
-85.2000;0.3386;1.0243;
-84.9000;0.3370;1.0193;
-84.6000;0.3346;1.0068;
-84.3000;0.3264;0.9944;
-84.0000;0.3386;1.0268;
-83.7000;0.3403;1.0293;
-83.4000;0.3378;1.0168;
-83.1000;0.3362;1.0093;
-82.8000;0.3403;1.0318;
-82.5000;0.3370;1.0293;
-82.2000;0.3378;1.0368;
-81.9000;0.3378;1.0343;
-81.6000;0.3394;1.0318;
-81.3000;0.3411;1.0368;
-81.0000;0.3378;1.0318;
-80.7000;0.3354;1.0293;
-80.4000;0.3386;1.0392;
-80.1000;0.3386;1.0368;
-79.8000;0.3386;1.0318;
-79.5000;0.3378;1.0243;
-79.2000;0.3378;1.0218;
-78.9000;0.3394;1.0243;
-78.6000;0.3403;1.0318;
-78.3000;0.3386;1.0268;
-78.0000;0.3403;1.0243;
-77.7000;0.3403;1.0218;
-77.4000;0.3362;1.0243;
-77.1000;0.3386;1.0343;
-76.8000;0.3386;1.0343;
-76.5000;0.3386;1.0368;
-76.2000;0.3386;1.0318;
-75.9000;0.3378;1.0392;
-75.6000;0.3386;1.0442;
-75.3000;0.3386;1.0492;
-75.0000;0.3394;1.0592;
-74.7000;0.3386;1.0617;
-74.4000;0.3362;1.0567;
-74.1000;0.3378;1.0542;
-73.8000;0.3403;1.0542;
-73.5000;0.3394;1.0417;
-73.2000;0.3411;1.0542;
-72.9000;0.3386;1.0392;
-72.6000;0.3386;1.0392;
-72.3000;0.3394;1.0417;
-72.0000;0.3386;1.0442;
-71.7000;0.3378;1.0442;
-71.4000;0.3370;1.0392;
-71.1000;0.3378;1.0442;
-70.8000;0.3460;1.0592;
-70.5000;0.3378;1.0467;
-70.2000;0.3354;1.0442;
-69.9000;0.3370;1.0343;
-69.6000;0.3370;1.0368;
-69.3000;0.3394;1.0368;
-69.0000;0.3386;1.0343;
-68.7000;0.3386;1.0392;
-68.4000;0.3394;1.0467;
-68.1000;0.3386;1.0517;
-67.8000;0.3354;1.0368;
-67.5000;0.3394;1.0392;
-67.2000;0.3394;1.0417;
-66.9000;0.3403;1.0442;
-66.6000;0.3427;1.0567;
-66.3000;0.3378;1.0442;
-66.0000;0.3386;1.0442;
-65.7000;0.3378;1.0442;
-65.4000;0.3370;1.0343;
-65.1000;0.3403;1.0567;
-64.8000;0.3378;1.0642;
-64.5000;0.3394;1.0642;
-64.2000;0.3394;1.0567;
-63.9000;0.3378;1.0442;
-63.6000;0.3403;1.0442;
-63.3000;0.3411;1.0467;
-63.0000;0.3394;1.0368;
-62.7000;0.3411;1.0442;
-62.4000;0.3419;1.0392;
-62.1000;0.3403;1.0343;
-61.8000;0.3394;1.0343;
-61.5000;0.3386;1.0243;
-61.2000;0.3427;1.0368;
-60.9000;0.3411;1.0268;
-60.6000;0.3386;1.0218;
-60.3000;0.3378;1.0193;
-60.0000;0.3386;1.0268;
-59.7000;0.3378;1.0268;
-59.4000;0.3378;1.0392;
-59.1000;0.3370;1.0442;
-58.8000;0.3370;1.0368;
-58.5000;0.3386;1.0343;
-58.2000;0.3370;1.0243;
-57.9000;0.3386;1.0368;
-57.6000;0.3394;1.0392;
-57.3000;0.3394;1.0467;
-57.0000;0.3435;1.0542;
-56.7000;0.3321;1.0218;
-56.4000;0.3370;1.0368;
-56.1000;0.3378;1.0343;
-55.8000;0.3378;1.0368;
-55.5000;0.3354;1.0368;
-55.2000;0.3394;1.0517;
-54.9000;0.3370;1.0392;
-54.6000;0.3394;1.0467;
-54.3000;0.3378;1.0368;
-54.0000;0.3386;1.0392;
-53.7000;0.3362;1.0417;
-53.4000;0.3394;1.0442;
-53.1000;0.3386;1.0442;
-52.8000;0.3394;1.0492;
-52.5000;0.3386;1.0467;
-52.2000;0.3403;1.0417;
-51.9000;0.3394;1.0392;
-51.6000;0.3386;1.0442;
-51.3000;0.3378;1.0467;
-51.0000;0.3386;1.0467;
-50.7000;0.3370;1.0442;
-50.4000;0.3394;1.0492;
-50.1000;0.3386;1.0442;
-49.8000;0.3394;1.0467;
-49.5000;0.3386;1.0467;
-49.2000;0.3370;1.0417;
-48.9000;0.3378;1.0492;
-48.6000;0.3354;1.0442;
-48.3000;0.3411;1.0617;
-48.0000;0.3419;1.0542;
-47.7000;0.3378;1.0492;
-47.4000;0.3403;1.0592;
-47.1000;0.3329;1.0392;
-46.8000;0.3370;1.0492;
-46.5000;0.3370;1.0442;
-46.2000;0.3394;1.0467;
-45.9000;0.3403;1.0542;
-45.6000;0.3394;1.0567;
-45.3000;0.3378;1.0517;
-45.0000;0.3337;1.0343;
-44.7000;0.3394;1.0467;
-44.4000;0.3386;1.0417;
-44.1000;0.3394;1.0392;
-43.8000;0.3492;1.0617;
-43.5000;0.3378;1.0293;
-43.2000;0.3411;1.0368;
-42.9000;0.3394;1.0318;
-42.6000;0.3394;1.0392;
-42.3000;0.3386;1.0492;
-42.0000;0.3394;1.0667;
-41.7000;0.3378;1.0667;
-41.4000;0.3378;1.0617;
-41.1000;0.3386;1.0567;
-40.8000;0.3378;1.0617;
-40.5000;0.3386;1.0667;
-40.2000;0.3378;1.0692;
-39.9000;0.3386;1.0667;
-39.6000;0.3378;1.0617;
-39.3000;0.3329;1.0417;
-39.0000;0.3378;1.0542;
-38.7000;0.3370;1.0517;
-38.4000;0.3354;1.0442;
-38.1000;0.3403;1.0642;
-37.8000;0.3386;1.0542;
-37.5000;0.3280;1.0293;
-37.2000;0.3378;1.0617;
-36.9000;0.3378;1.0617;
-36.6000;0.3386;1.0592;
-36.3000;0.3386;1.0542;
-36.0000;0.3435;1.0617;
-35.7000;0.3386;1.0467;
-35.4000;0.3370;1.0318;
-35.1000;0.3378;1.0293;
-34.8000;0.3362;1.0293;
-34.5000;0.3313;1.0193;
-34.2000;0.3394;1.0417;
-33.9000;0.3346;1.0343;
-33.6000;0.3386;1.0417;
-33.3000;0.3427;1.0392;
-33.0000;0.3378;1.0318;
-32.7000;0.3386;1.0268;
-32.4000;0.3370;1.0168;
-32.1000;0.3394;1.0168;
-31.8000;0.3403;1.0168;
-31.5000;0.3411;1.0243;
-31.2000;0.3370;1.0218;
-30.9000;0.3370;1.0268;
-30.6000;0.3403;1.0318;
-30.3000;0.3411;1.0417;
-30.0000;0.3394;1.0368;
-29.7000;0.3386;1.0417;
-29.4000;0.3394;1.0417;
-29.1000;0.3411;1.0442;
-28.8000;0.3386;1.0492;
-28.5000;0.3386;1.0542;
-28.2000;0.3403;1.0542;
-27.9000;0.3386;1.0542;
-27.6000;0.3370;1.0492;
-27.3000;0.3370;1.0467;
-27.0000;0.3378;1.0492;
-26.7000;0.3403;1.0692;
-26.4000;0.3386;1.0667;
-26.1000;0.3386;1.0716;
-25.8000;0.3394;1.0567;
-25.5000;0.3378;1.0567;
-25.2000;0.3386;1.0667;
-24.9000;0.3378;1.0592;
-24.6000;0.3435;1.0816;
-24.3000;0.3403;1.0741;
-24.0000;0.3419;1.0741;
-23.7000;0.3378;1.0517;
-23.4000;0.3403;1.0692;
-23.1000;0.3378;1.0741;
-22.8000;0.3370;1.0667;
-22.5000;0.3362;1.0692;
-22.2000;0.3378;1.0766;
-21.9000;0.3386;1.0866;
-21.6000;0.3346;1.0816;
-21.3000;0.3386;1.0916;
-21.0000;0.3280;1.0592;
-20.7000;0.3370;1.0866;
-20.4000;0.3370;1.0816;
-20.1000;0.3386;1.0891;
-19.8000;0.3394;1.0916;
-19.5000;0.3394;1.0891;
-19.2000;0.3394;1.0791;
-18.9000;0.3427;1.0766;
-18.6000;0.3378;1.0642;
-18.3000;0.3394;1.0567;
-18.0000;0.3394;1.0617;
-17.7000;0.3411;1.0592;
-17.4000;0.3378;1.0592;
-17.1000;0.3386;1.0617;
-16.8000;0.3508;1.0966;
-16.5000;0.3427;1.0716;
-16.2000;0.3386;1.0542;
-15.9000;0.3386;1.0417;
-15.6000;0.3394;1.0467;
-15.3000;0.3386;1.0417;
-15.0000;0.3386;1.0392;
-14.7000;0.3427;1.0567;
-14.4000;0.3378;1.0417;
-14.1000;0.3386;1.0417;
-13.8000;0.3427;1.0492;
-13.5000;0.3370;1.0368;
-13.2000;0.3394;1.0368;
-12.9000;0.3427;1.0442;
-12.6000;0.3394;1.0442;
-12.3000;0.3394;1.0467;
-12.0000;0.3378;1.0442;
-11.7000;0.3378;1.0442;
-11.4000;0.3386;1.0492;
-11.1000;0.3386;1.0492;
-10.8000;0.3386;1.0492;
-10.5000;0.3451;1.0716;
-10.2000;0.3370;1.0467;
-9.9000;0.3403;1.0592;
-9.6000;0.3362;1.0492;
-9.3000;0.3370;1.0492;
-9.0000;0.3411;1.0592;
-8.7000;0.3297;1.0218;
-8.4000;0.3394;1.0392;
-8.1000;0.3378;1.0343;
-7.8000;0.3378;1.0442;
-7.5000;0.3403;1.0517;
-7.2000;0.3386;1.0368;
-6.9000;0.3394;1.0442;
-6.6000;0.3403;1.0442;
-6.3000;0.3386;1.0392;
-6.0000;0.3378;1.0392;
-5.7000;0.3378;1.0368;
-5.4000;0.3378;1.0343;
-5.1000;0.3394;1.0442;
-4.8000;0.3378;1.0492;
-4.5000;0.3386;1.0467;
-4.2000;0.3378;1.0492;
-3.9000;0.3394;1.0467;
-3.6000;0.3403;1.0417;
-3.3000;0.3403;1.0467;
-3.0000;0.3394;1.0542;
-2.7000;0.3386;1.0617;
-2.4000;0.3386;1.0542;
-2.1000;0.3370;1.0567;
-1.8000;0.3370;1.0617;
-1.5000;0.3394;1.0617;
-1.2000;0.3378;1.0567;
-0.9000;0.3394;1.0592;
-0.6000;0.3329;1.0442;
-0.3000;0.3248;1.0243;
0.0000;0.3248;1.0243;
0.3000;0.3460;1.1015;
0.6000;0.3590;1.1265;
0.9000;0.3679;1.1614;
1.2000;0.3761;1.2037;
1.5000;0.3818;1.2411;
1.8000;0.3875;1.2685;
2.1000;0.3923;1.2959;
2.4000;0.3980;1.3333;
2.7000;0.3948;1.3458;
3.0000;0.3980;1.3632;
3.3000;0.3989;1.3632;
3.6000;0.4029;1.3707;
3.9000;0.4029;1.3682;
4.2000;0.4046;1.3682;
4.5000;0.4021;1.3657;
4.8000;0.4046;1.3782;
5.1000;0.4062;1.3782;
5.4000;0.4046;1.3832;
5.7000;0.4078;1.3906;
6.0000;0.4094;1.4056;
6.3000;0.4037;1.3882;
6.6000;0.4086;1.4056;
6.9000;0.4103;1.4031;
7.2000;0.4111;1.4106;
7.5000;0.4135;1.4156;
7.8000;0.4119;1.4106;
8.1000;0.4135;1.4181;
8.4000;0.4127;1.4131;
8.7000;0.4143;1.4156;
9.0000;0.4135;1.4205;
9.3000;0.4143;1.4230;
9.6000;0.4127;1.4156;
9.9000;0.4143;1.4156;
10.2000;0.4160;1.4205;
10.5000;0.4168;1.4181;
10.8000;0.4054;1.3931;
11.1000;0.4127;1.4131;
11.4000;0.4176;1.4181;
11.7000;0.4160;1.4156;
12.0000;0.4135;1.4131;
12.3000;0.4168;1.4230;
12.6000;0.4176;1.4330;
12.9000;0.4176;1.4280;
13.2000;0.4168;1.4205;
13.5000;0.4143;1.4131;
13.8000;0.4151;1.4181;
14.1000;0.4176;1.4205;
14.4000;0.4176;1.4205;
14.7000;0.4192;1.4255;
15.0000;0.4176;1.4205;
15.3000;0.4184;1.4156;
15.6000;0.4160;1.4106;
15.9000;0.4184;1.4056;
16.2000;0.4208;1.4081;
16.5000;0.4217;1.4106;
16.8000;0.4208;1.4031;
17.1000;0.4192;1.4006;
17.4000;0.4217;1.4106;
17.7000;0.4217;1.4181;
18.0000;0.4217;1.4156;
18.3000;0.4184;1.4081;
18.6000;0.4200;1.4156;
18.9000;0.4200;1.4230;
19.2000;0.4217;1.4205;
19.5000;0.4200;1.4156;
19.8000;0.4225;1.4106;
20.1000;0.4217;1.4106;
20.4000;0.4200;1.4056;
20.7000;0.4217;1.4006;
21.0000;0.4208;1.4006;
21.3000;0.4217;1.3931;
21.6000;0.4217;1.3882;
21.9000;0.4225;1.3857;
22.2000;0.4233;1.3906;
22.5000;0.4249;1.4006;
22.8000;0.4225;1.4006;
23.1000;0.4347;1.4380;
23.4000;0.4176;1.3906;
23.7000;0.4208;1.4031;
24.0000;0.4282;1.4230;
24.3000;0.4233;1.4081;
24.6000;0.4233;1.4106;
24.9000;0.4160;1.3906;
25.2000;0.4233;1.4031;
25.5000;0.4192;1.3906;
25.8000;0.4217;1.4081;
26.1000;0.4241;1.4131;
26.4000;0.4233;1.4081;
26.7000;0.4241;1.4181;
27.0000;0.4249;1.4106;
27.3000;0.4241;1.4056;
27.6000;0.4249;1.4106;
27.9000;0.4241;1.4056;
28.2000;0.4257;1.4006;
28.5000;0.4184;1.3807;
28.8000;0.4249;1.3906;
29.1000;0.4249;1.3981;
29.4000;0.4225;1.3956;
29.7000;0.4241;1.4031;
30.0000;0.4249;1.4106;
30.3000;0.4257;1.4056;
30.6000;0.4265;1.4056;
30.9000;0.4257;1.3931;
31.2000;0.4257;1.3807;
31.5000;0.4282;1.3882;
31.8000;0.4330;1.4006;
32.1000;0.4257;1.3882;
32.4000;0.4257;1.3832;
32.7000;0.4225;1.3732;
33.0000;0.4265;1.3857;
33.3000;0.4274;1.3857;
33.6000;0.4257;1.3682;
33.9000;0.4257;1.3682;
34.2000;0.4257;1.3757;
34.5000;0.4249;1.3732;
34.8000;0.4249;1.3757;
35.1000;0.4241;1.3757;
35.4000;0.4257;1.3807;
35.7000;0.4274;1.3906;
36.0000;0.4265;1.3882;
36.3000;0.4257;1.3807;
36.6000;0.4241;1.3807;
36.9000;0.4249;1.3832;
37.2000;0.4249;1.3857;
37.5000;0.4282;1.3882;
37.8000;0.4282;1.3782;
38.1000;0.4274;1.3757;
38.4000;0.4290;1.3807;
38.7000;0.4257;1.3682;
39.0000;0.4274;1.3757;
39.3000;0.4274;1.3732;
39.6000;0.4274;1.3682;
39.9000;0.4257;1.3732;
40.2000;0.4257;1.3732;
40.5000;0.4241;1.3682;
40.8000;0.4265;1.3707;
41.1000;0.4274;1.3682;
41.4000;0.4249;1.3682;
41.7000;0.4282;1.3782;
42.0000;0.4265;1.3857;
42.3000;0.4282;1.3857;
42.6000;0.4274;1.3906;
42.9000;0.4274;1.3981;
43.2000;0.4290;1.3931;
43.5000;0.4290;1.3857;
43.8000;0.4282;1.3732;
44.1000;0.4282;1.3682;
44.4000;0.4298;1.3757;
44.7000;0.4265;1.3558;
45.0000;0.4298;1.3582;
45.3000;0.4274;1.3558;
45.6000;0.4274;1.3558;
45.9000;0.4265;1.3582;
46.2000;0.4265;1.3632;
46.5000;0.4282;1.3582;
46.8000;0.4282;1.3607;
47.1000;0.4282;1.3582;
47.4000;0.4233;1.3458;
47.7000;0.4290;1.3657;
48.0000;0.4274;1.3682;
48.3000;0.4298;1.3632;
48.6000;0.4306;1.3707;
48.9000;0.4290;1.3707;
49.2000;0.4265;1.3582;
49.5000;0.4265;1.3558;
49.8000;0.4290;1.3508;
50.1000;0.4282;1.3408;
50.4000;0.4290;1.3433;
50.7000;0.4306;1.3508;
51.0000;0.4290;1.3508;
51.3000;0.4314;1.3558;
51.6000;0.4306;1.3533;
51.9000;0.4314;1.3533;
52.2000;0.4306;1.3483;
52.5000;0.4339;1.3607;
52.8000;0.4306;1.3533;
53.1000;0.4233;1.3358;
53.4000;0.4322;1.3533;
53.7000;0.4306;1.3483;
54.0000;0.4306;1.3558;
54.3000;0.4306;1.3558;
54.6000;0.4298;1.3508;
54.9000;0.4265;1.3383;
55.2000;0.4314;1.3458;
55.5000;0.4322;1.3383;
55.8000;0.4314;1.3358;
56.1000;0.4298;1.3333;
56.4000;0.4322;1.3358;
56.7000;0.4314;1.3308;
57.0000;0.4314;1.3234;
57.3000;0.4330;1.3258;
57.6000;0.4404;1.3458;
57.9000;0.4282;1.3134;
58.2000;0.4314;1.3234;
58.5000;0.4290;1.3134;
58.8000;0.4282;1.3184;
59.1000;0.4298;1.3234;
59.4000;0.4241;1.3134;
59.7000;0.4298;1.3234;
60.0000;0.4306;1.3258;
60.3000;0.4306;1.3333;
60.6000;0.4298;1.3358;
60.9000;0.4339;1.3483;
61.2000;0.4363;1.3558;
61.5000;0.4322;1.3408;
61.8000;0.4314;1.3383;
62.1000;0.4330;1.3408;
62.4000;0.4330;1.3383;
62.7000;0.4339;1.3383;
63.0000;0.4322;1.3383;
63.3000;0.4290;1.3234;
63.6000;0.4436;1.3607;
63.9000;0.4347;1.3333;
64.2000;0.4347;1.3383;
64.5000;0.4322;1.3333;
64.8000;0.4330;1.3383;
65.1000;0.4330;1.3358;
65.4000;0.4330;1.3408;
65.7000;0.4298;1.3258;
66.0000;0.4355;1.3383;
66.3000;0.4347;1.3358;
66.6000;0.4322;1.3333;
66.9000;0.4322;1.3358;
67.2000;0.4347;1.3483;
67.5000;0.4363;1.3582;
67.8000;0.4355;1.3483;
68.1000;0.4347;1.3383;
68.4000;0.4461;1.3682;
68.7000;0.4355;1.3458;
69.0000;0.4339;1.3383;
69.3000;0.4339;1.3333;
69.6000;0.4363;1.3333;
69.9000;0.4363;1.3258;
70.2000;0.4347;1.3159;
70.5000;0.4347;1.3184;
70.8000;0.4347;1.3109;
71.1000;0.4371;1.3159;
71.4000;0.4404;1.3283;
71.7000;0.4347;1.3159;
72.0000;0.4387;1.3159;
72.3000;0.4355;1.3134;
72.6000;0.4330;1.3084;
72.9000;0.4355;1.3134;
73.2000;0.4371;1.3134;
73.5000;0.4355;1.3109;
73.8000;0.4379;1.3109;
74.1000;0.4339;1.3034;
74.4000;0.4347;1.3009;
74.7000;0.4363;1.3109;
75.0000;0.4355;1.3059;
75.3000;0.4363;1.3134;
75.6000;0.4347;1.3109;
75.9000;0.4355;1.3209;
76.2000;0.4363;1.3184;
76.5000;0.4371;1.3134;
76.8000;0.4379;1.3109;
77.1000;0.4355;1.3184;
77.4000;0.4363;1.3184;
77.7000;0.4363;1.3109;
78.0000;0.4379;1.3109;
78.3000;0.4347;1.3084;
78.6000;0.4371;1.3159;
78.9000;0.4379;1.3234;
79.2000;0.4363;1.3234;
79.5000;0.4436;1.3433;
79.8000;0.4371;1.3134;
80.1000;0.4363;1.3134;
80.4000;0.4355;1.3109;
80.7000;0.4371;1.3134;
81.0000;0.4371;1.3134;
81.3000;0.4371;1.3134;
81.6000;0.4379;1.3184;
81.9000;0.4347;1.3109;
82.2000;0.4306;1.2984;
82.5000;0.4347;1.3159;
82.8000;0.4387;1.3209;
83.1000;0.4306;1.3009;
83.4000;0.4371;1.3109;
83.7000;0.4387;1.2984;
84.0000;0.4387;1.3009;
84.3000;0.4379;1.3009;
84.6000;0.4379;1.2959;
84.9000;0.4371;1.2959;
85.2000;0.4387;1.3009;
85.5000;0.4387;1.2984;
85.8000;0.4379;1.2984;
86.1000;0.4363;1.3059;
86.4000;0.4379;1.3159;
86.7000;0.4379;1.3134;
87.0000;0.4379;1.3109;
87.3000;0.4404;1.3308;
87.6000;0.4330;1.3059;
87.9000;0.4379;1.3184;
88.2000;0.4396;1.3234;
88.5000;0.4355;1.3059;
88.8000;0.4396;1.3134;
89.1000;0.4387;1.3109;
89.4000;0.4387;1.3034;
89.7000;0.4371;1.3009;
90.0000;0.4379;1.3034;
90.3000;0.4387;1.3034;
90.6000;0.4387;1.3084;
90.9000;0.4379;1.3109;
91.2000;0.4379;1.3109;
91.5000;0.4396;1.3159;
91.8000;0.4387;1.3134;
92.1000;0.4379;1.3084;
92.4000;0.4379;1.3034;
92.7000;0.4404;1.3084;
93.0000;0.4404;1.3034;
93.3000;0.4387;1.3009;
93.6000;0.4371;1.2984;
93.9000;0.4387;1.3059;
94.2000;0.4387;1.3159;
94.5000;0.4347;1.3059;
94.8000;0.4379;1.3159;
95.1000;0.4404;1.3209;
95.4000;0.4387;1.3358;
95.7000;0.4371;1.3283;
96.0000;0.4396;1.3209;
96.3000;0.4371;1.3109;
96.6000;0.4396;1.3109;
96.9000;0.4371;1.3034;
97.2000;0.4396;1.3034;
97.5000;0.4379;1.3059;
97.8000;0.4387;1.3009;
98.1000;0.4371;1.2984;
98.4000;0.4404;1.3009;
98.7000;0.4387;1.2984;
99.0000;0.4396;1.3009;
99.3000;0.4412;1.2959;
99.6000;0.4379;1.2885;
99.9000;0.4387;1.2810;
100.2000;0.4404;1.2785;
100.5000;0.4387;1.2760;
100.8000;0.4387;1.2785;
101.1000;0.4420;1.2810;
101.4000;0.4371;1.2710;
101.7000;0.4363;1.2785;
102.0000;0.4396;1.2885;
102.3000;0.4428;1.2934;
102.6000;0.4420;1.2910;
102.9000;0.4404;1.2934;
103.2000;0.4404;1.2959;
103.5000;0.4387;1.3034;
103.8000;0.4501;1.3333;
104.1000;0.4420;1.3034;
104.4000;0.4404;1.2984;
104.7000;0.4387;1.3009;
105.0000;0.4420;1.3034;
105.3000;0.4396;1.3084;
105.6000;0.4396;1.3159;
105.9000;0.4396;1.3134;
106.2000;0.4371;1.3084;
106.5000;0.4379;1.3109;
106.8000;0.4404;1.3134;
107.1000;0.4396;1.3109;
107.4000;0.4379;1.3059;
107.7000;0.4412;1.3084;
108.0000;0.4412;1.2910;
108.3000;0.4412;1.2910;
108.6000;0.4404;1.2835;
108.9000;0.4396;1.2860;
109.2000;0.4404;1.2934;
109.5000;0.4396;1.2860;
109.8000;0.4396;1.2810;
110.1000;0.4371;1.2860;
110.4000;0.4339;1.2710;
110.7000;0.4428;1.2959;
111.0000;0.4404;1.2959;
111.3000;0.4396;1.2934;
111.6000;0.4412;1.3084;
111.9000;0.4404;1.3134;
112.2000;0.4404;1.3084;
112.5000;0.4436;1.3084;
112.8000;0.4412;1.2885;
113.1000;0.4420;1.2910;
113.4000;0.4412;1.2910;
113.7000;0.4428;1.2934;
114.0000;0.4396;1.2934;
114.3000;0.4420;1.2984;
114.6000;0.4404;1.3034;
114.9000;0.4387;1.3084;
115.2000;0.4404;1.3134;
115.5000;0.4396;1.3184;
115.8000;0.4396;1.3134;
116.1000;0.4404;1.3184;
116.4000;0.4371;1.3159;
116.7000;0.4412;1.3234;
117.0000;0.4404;1.3134;
117.3000;0.4396;1.3109;
117.6000;0.4404;1.3109;
117.9000;0.4420;1.3134;
118.2000;0.4387;1.3009;
118.5000;0.4387;1.2984;
118.8000;0.4404;1.3009;
119.1000;0.4404;1.2984;
119.4000;0.4396;1.2934;
119.7000;0.4412;1.2959;
120.0000;0.4371;1.2910;
120.3000;0.4412;1.2984;
120.6000;0.4412;1.2934;
120.9000;0.4404;1.2885;
121.2000;0.4412;1.2835;
121.5000;0.4412;1.2860;
121.8000;0.4404;1.2984;
122.1000;0.4428;1.3059;
122.4000;0.4412;1.3059;
122.7000;0.4428;1.3009;
123.0000;0.4420;1.2910;
123.3000;0.4396;1.2860;
123.6000;0.4469;1.3009;
123.9000;0.4428;1.2885;
124.2000;0.4387;1.2835;
124.5000;0.4322;1.2760;
124.8000;0.4404;1.2959;
125.1000;0.4420;1.3009;
125.4000;0.4412;1.3059;
125.7000;0.4404;1.3109;
126.0000;0.4396;1.3009;
126.3000;0.4412;1.3034;
126.6000;0.4404;1.2934;
126.9000;0.4444;1.3134;
127.2000;0.4420;1.3009;
127.5000;0.4420;1.2959;
127.8000;0.4387;1.2810;
128.1000;0.4428;1.2934;
128.4000;0.4404;1.2910;
128.7000;0.4347;1.2810;
129.0000;0.4396;1.3009;
129.3000;0.4412;1.3059;
129.6000;0.4404;1.3109;
129.9000;0.4404;1.3159;
130.2000;0.4396;1.3059;
130.5000;0.4404;1.3034;
130.8000;0.4396;1.3034;
131.1000;0.4412;1.3009;
131.4000;0.4404;1.3059;
131.7000;0.4396;1.3084;
132.0000;0.4396;1.3084;
132.3000;0.4436;1.3234;
132.6000;0.4396;1.3209;
132.9000;0.4396;1.3209;
133.2000;0.4404;1.3283;
133.5000;0.4412;1.3358;
133.8000;0.4404;1.3308;
134.1000;0.4404;1.3283;
134.4000;0.4387;1.3283;
134.7000;0.4404;1.3283;
135.0000;0.4387;1.3283;
135.3000;0.4371;1.3234;
135.6000;0.4396;1.3283;
135.9000;0.4387;1.3159;
136.2000;0.4379;1.2959;
136.5000;0.4396;1.2934;
136.8000;0.4404;1.2934;
137.1000;0.4412;1.2984;
137.4000;0.4412;1.3059;
137.7000;0.4404;1.3084;
138.0000;0.4404;1.3059;
138.3000;0.4420;1.3134;
138.6000;0.4412;1.3084;
138.9000;0.4379;1.3034;
139.2000;0.4404;1.2934;
139.5000;0.4404;1.3009;
139.8000;0.4412;1.3159;
140.1000;0.4396;1.3084;
140.4000;0.4404;1.3109;
140.7000;0.4412;1.3084;
141.0000;0.4404;1.3034;
141.3000;0.4396;1.3009;
141.6000;0.4469;1.3209;
141.9000;0.4396;1.3009;
142.2000;0.4420;1.3059;
142.5000;0.4412;1.3059;
142.8000;0.4412;1.3059;
143.1000;0.4404;1.3034;
143.4000;0.4444;1.3109;
143.7000;0.4404;1.3059;
144.0000;0.4420;1.3084;
144.3000;0.4412;1.3084;
144.6000;0.4436;1.3159;
144.9000;0.4428;1.3034;
145.2000;0.4404;1.3034;
145.5000;0.4404;1.2984;
145.8000;0.4412;1.3009;
146.1000;0.4420;1.3034;
146.4000;0.4404;1.2934;
146.7000;0.4404;1.2934;
147.0000;0.4412;1.3034;
147.3000;0.4428;1.3059;
147.6000;0.4363;1.2860;
147.9000;0.4396;1.3009;
148.2000;0.4404;1.3034;
148.5000;0.4428;1.3184;
148.8000;0.4412;1.3134;
149.1000;0.4404;1.3134;
149.4000;0.4396;1.3084;
149.7000;0.4387;1.2984;
150.0000;0.4387;1.2910;
150.3000;0.4412;1.2934;
150.6000;0.4404;1.2835;
150.9000;0.4444;1.3009;
151.2000;0.4420;1.2959;
151.5000;0.4404;1.3009;
151.8000;0.4387;1.2984;
152.1000;0.4396;1.2934;
152.4000;0.4428;1.2984;
152.7000;0.4420;1.2959;
153.0000;0.4428;1.2934;
153.3000;0.4379;1.2885;
153.6000;0.4420;1.2934;
153.9000;0.4420;1.2934;
154.2000;0.4396;1.3009;
154.5000;0.4453;1.3159;
154.8000;0.4339;1.2860;
155.1000;0.4453;1.3084;
155.4000;0.4396;1.3059;
155.7000;0.4412;1.3084;
156.0000;0.4404;1.3084;
156.3000;0.4420;1.3184;
156.6000;0.4387;1.3109;
156.9000;0.4379;1.3134;
157.2000;0.4379;1.3134;
157.5000;0.4412;1.3209;
157.8000;0.4396;1.3109;
158.1000;0.4330;1.2934;
158.4000;0.4371;1.3009;
158.7000;0.4420;1.3059;
159.0000;0.4412;1.3009;
159.3000;0.4379;1.2984;
159.6000;0.4396;1.2984;
159.9000;0.4387;1.2910;
160.2000;0.4534;1.3308;
160.5000;0.4396;1.3009;
160.8000;0.4420;1.3159;
161.1000;0.4412;1.3184;
161.4000;0.4404;1.3209;
161.7000;0.4412;1.3134;
162.0000;0.4453;1.3234;
162.3000;0.4428;1.3184;
162.6000;0.4501;1.3308;
162.9000;0.4396;1.3034;
163.2000;0.4363;1.2910;
163.5000;0.4412;1.2984;
163.8000;0.4396;1.3034;
164.1000;0.4379;1.2984;
164.4000;0.4404;1.3109;
164.7000;0.4396;1.3084;
165.0000;0.4379;1.3109;
165.3000;0.4428;1.3134;
165.6000;0.4396;1.2984;
165.9000;0.4387;1.3034;
166.2000;0.4387;1.2959;
166.5000;0.4387;1.2860;
166.8000;0.4379;1.2835;
167.1000;0.4387;1.2860;
167.4000;0.4379;1.2835;
167.7000;0.4371;1.2810;
168.0000;0.4396;1.2934;
168.3000;0.4396;1.2984;
168.6000;0.4404;1.3059;
168.9000;0.4396;1.3109;
169.2000;0.4412;1.3109;
169.5000;0.4404;1.3059;
169.8000;0.4396;1.3059;
170.1000;0.4420;1.3159;
170.4000;0.4420;1.3258;
170.7000;0.4469;1.3458;
171.0000;0.4412;1.3283;
171.3000;0.4420;1.3358;
171.6000;0.4396;1.3258;
171.9000;0.4396;1.3333;
172.2000;0.4379;1.3283;
172.5000;0.4396;1.3308;
172.8000;0.4428;1.3283;
173.1000;0.4404;1.3234;
173.4000;0.4412;1.3258;
173.7000;0.4396;1.3283;
174.0000;0.4412;1.3234;
174.3000;0.4396;1.3184;
174.6000;0.4404;1.3184;
174.9000;0.4396;1.3084;
175.2000;0.4387;1.3059;
175.5000;0.4396;1.3009;
175.8000;0.4412;1.2959;
176.1000;0.4387;1.2910;
176.4000;0.4387;1.2934;
176.7000;0.4379;1.3009;
177.0000;0.4396;1.3034;
177.3000;0.4396;1.3034;
177.6000;0.4330;1.2810;
177.9000;0.4404;1.3034;
178.2000;0.4469;1.3159;
178.5000;0.4387;1.2810;
178.8000;0.4420;1.2885;
179.1000;0.4420;1.2910;
179.4000;0.4412;1.2910;
179.7000;0.4396;1.2860;
180.0000;0.4387;1.2710;
180.3000;0.4453;1.2810;
180.6000;0.4396;1.2760;
180.9000;0.4379;1.2760;
181.2000;0.4379;1.2735;
181.5000;0.4387;1.2760;
181.8000;0.4485;1.3009;
182.1000;0.4387;1.2810;
182.4000;0.4396;1.2934;
182.7000;0.4396;1.2959;
183.0000;0.4396;1.3009;
183.3000;0.4387;1.2934;
183.6000;0.4396;1.2934;
183.9000;0.4396;1.2885;
184.2000;0.4371;1.2910;
184.5000;0.4412;1.2934;
184.8000;0.4396;1.2860;
185.1000;0.4387;1.2835;
185.4000;0.4396;1.2835;
185.7000;0.4404;1.2810;
186.0000;0.4387;1.2835;
186.3000;0.4387;1.2760;
186.6000;0.4387;1.2710;
186.9000;0.4379;1.2685;
187.2000;0.4396;1.2760;
187.5000;0.4371;1.2660;
187.8000;0.4387;1.2660;
188.1000;0.4387;1.2660;
188.4000;0.4355;1.2536;
188.7000;0.4363;1.2660;
189.0000;0.4428;1.2835;
189.3000;0.4396;1.2785;
189.6000;0.4396;1.2785;
189.9000;0.4363;1.2710;
190.2000;0.4404;1.2835;
190.5000;0.4396;1.2810;
190.8000;0.4396;1.2685;
191.1000;0.4363;1.2635;
191.4000;0.4371;1.2685;
191.7000;0.4387;1.2735;
192.0000;0.4420;1.2785;
192.3000;0.4371;1.2735;
192.6000;0.4396;1.2785;
192.9000;0.4387;1.2810;
193.2000;0.4436;1.2835;
193.5000;0.4396;1.2710;
193.8000;0.4371;1.2660;
194.1000;0.4387;1.2635;
194.4000;0.4379;1.2635;
194.7000;0.4339;1.2561;
195.0000;0.4379;1.2810;
195.3000;0.4379;1.2735;
195.6000;0.4355;1.2635;
195.9000;0.4396;1.2785;
196.2000;0.4379;1.2835;
196.5000;0.4396;1.2885;
196.8000;0.4396;1.2885;
197.1000;0.4404;1.2885;
197.4000;0.4387;1.2860;
197.7000;0.4453;1.3084;
198.0000;0.4396;1.2860;
198.3000;0.4379;1.2785;
198.6000;0.4371;1.2785;
198.9000;0.4387;1.2910;
199.2000;0.4379;1.2934;
199.5000;0.4396;1.3059;
199.8000;0.4363;1.2934;
200.1000;0.4444;1.3184;
200.4000;0.4387;1.3009;
200.7000;0.4379;1.3034;
201.0000;0.4387;1.3109;
201.3000;0.4379;1.3109;
201.6000;0.4387;1.3109;
201.9000;0.4387;1.3109;
202.2000;0.4371;1.3034;
202.5000;0.4379;1.3009;
202.8000;0.4347;1.2984;
203.1000;0.4436;1.3184;
203.4000;0.4298;1.2910;
203.7000;0.4387;1.3084;
204.0000;0.4371;1.3109;
204.3000;0.4396;1.3109;
204.6000;0.4379;1.3084;
204.9000;0.4379;1.3159;
205.2000;0.4379;1.3159;
205.5000;0.4339;1.3084;
205.8000;0.4379;1.3159;
206.1000;0.4355;1.3034;
206.4000;0.4355;1.3109;
206.7000;0.4379;1.3134;
207.0000;0.4371;1.3134;
207.3000;0.4412;1.3184;
207.6000;0.4396;1.3059;
207.9000;0.4371;1.2984;
208.2000;0.4371;1.2984;
208.5000;0.4371;1.3034;
208.8000;0.4371;1.3059;
209.1000;0.4355;1.2959;
209.4000;0.4379;1.3059;
209.7000;0.4387;1.3034;
210.0000;0.4339;1.3009;
210.3000;0.4387;1.3084;
210.6000;0.4322;1.2934;
210.9000;0.4387;1.3034;
211.2000;0.4396;1.3059;
211.5000;0.4371;1.2984;
211.8000;0.4379;1.3009;
212.1000;0.4379;1.3084;
212.4000;0.4339;1.3034;
212.7000;0.4379;1.3258;
213.0000;0.4363;1.3258;
213.3000;0.4314;1.3109;
213.6000;0.4387;1.3308;
213.9000;0.4371;1.3283;
214.2000;0.4371;1.3283;
214.5000;0.4387;1.3308;
214.8000;0.4396;1.3358;
215.1000;0.4387;1.3433;
215.4000;0.4379;1.3408;
215.7000;0.4339;1.3258;
216.0000;0.4371;1.3383;
216.3000;0.4396;1.3408;
216.6000;0.4298;1.3184;
216.9000;0.4379;1.3508;
217.2000;0.4379;1.3458;
217.5000;0.4379;1.3383;
217.8000;0.4387;1.3433;
218.1000;0.4379;1.3333;
218.4000;0.4379;1.3358;
218.7000;0.4322;1.3159;
219.0000;0.4404;1.3308;
219.3000;0.4387;1.3333;
219.6000;0.4330;1.3209;
219.9000;0.4314;1.3184;
220.2000;0.4379;1.3333;
220.5000;0.4355;1.3258;
220.8000;0.4379;1.3358;
221.1000;0.4363;1.3234;
221.4000;0.4371;1.3234;
221.7000;0.4363;1.3159;
222.0000;0.4363;1.3184;
222.3000;0.4363;1.3283;
222.6000;0.4379;1.3234;
222.9000;0.4298;1.3034;
223.2000;0.4355;1.3234;
223.5000;0.4379;1.3234;
223.8000;0.4371;1.3283;
224.1000;0.4363;1.3209;
224.4000;0.4347;1.3134;
224.7000;0.4371;1.3258;
225.0000;0.4371;1.3184;
225.3000;0.4355;1.3134;
225.6000;0.4363;1.3184;
225.9000;0.4371;1.3209;
226.2000;0.4363;1.3184;
226.5000;0.4363;1.3234;
226.8000;0.4371;1.3258;
227.1000;0.4371;1.3283;
227.4000;0.4371;1.3308;
227.7000;0.4355;1.3159;
228.0000;0.4363;1.3209;
228.3000;0.4363;1.3159;
228.6000;0.4379;1.3134;
228.9000;0.4363;1.3134;
229.2000;0.4355;1.3034;
229.5000;0.4355;1.2984;
229.8000;0.4371;1.3134;
230.1000;0.4371;1.3258;
230.4000;0.4371;1.3234;
230.7000;0.4469;1.3533;
231.0000;0.4371;1.3209;
231.3000;0.4379;1.3159;
231.6000;0.4379;1.3184;
231.9000;0.4355;1.3209;
232.2000;0.4379;1.3333;
232.5000;0.4379;1.3358;
232.8000;0.4379;1.3283;
233.1000;0.4371;1.3258;
233.4000;0.4347;1.3258;
233.7000;0.4371;1.3308;
234.0000;0.4371;1.3308;
234.3000;0.4355;1.3308;
234.6000;0.4355;1.3358;
234.9000;0.4371;1.3433;
235.2000;0.4404;1.3533;
235.5000;0.4347;1.3358;
235.8000;0.4363;1.3333;
236.1000;0.4355;1.3358;
236.4000;0.4371;1.3358;
236.7000;0.4363;1.3283;
237.0000;0.4355;1.3283;
237.3000;0.4339;1.3258;
237.6000;0.4379;1.3433;
237.9000;0.4387;1.3383;
238.2000;0.4363;1.3308;
238.5000;0.4355;1.3258;
238.8000;0.4363;1.3258;
239.1000;0.4355;1.3308;
239.4000;0.4355;1.3308;
239.7000;0.4314;1.3234;
240.0000;0.4363;1.3408;
240.3000;0.4371;1.3358;
240.6000;0.4404;1.3408;
240.9000;0.4339;1.3258;
241.2000;0.4347;1.3234;
241.5000;0.4363;1.3258;
241.8000;0.4339;1.3134;
242.1000;0.4436;1.3358;
242.4000;0.4355;1.3258;
242.7000;0.4379;1.3258;
243.0000;0.4363;1.3258;
243.3000;0.4371;1.3234;
243.6000;0.4420;1.3458;
243.9000;0.4412;1.3433;
244.2000;0.4355;1.3258;
244.5000;0.4355;1.3159;
244.8000;0.4347;1.3159;
245.1000;0.4371;1.3184;
245.4000;0.4347;1.3134;
245.7000;0.4371;1.3159;
246.0000;0.4339;1.3034;
246.3000;0.4363;1.3159;
246.6000;0.4371;1.3209;
246.9000;0.4436;1.3383;
247.2000;0.4371;1.3308;
247.5000;0.4355;1.3358;
247.8000;0.4339;1.3408;
248.1000;0.4363;1.3408;
248.4000;0.4363;1.3383;
248.7000;0.4461;1.3657;
249.0000;0.4363;1.3358;
249.3000;0.4371;1.3358;
249.6000;0.4371;1.3283;
249.9000;0.4371;1.3184;
250.2000;0.4314;1.3109;
250.5000;0.4355;1.3159;
250.8000;0.4355;1.3109;
251.1000;0.4347;1.3084;
251.4000;0.4355;1.3159;
251.7000;0.4371;1.3209;
252.0000;0.4330;1.3109;
252.3000;0.4330;1.3134;
252.6000;0.4322;1.3184;
252.9000;0.4371;1.3358;
253.2000;0.4363;1.3308;
253.5000;0.4363;1.3333;
253.8000;0.4298;1.3084;
254.1000;0.4379;1.3333;
254.4000;0.4355;1.3308;
254.7000;0.4347;1.3333;
255.0000;0.4347;1.3283;
255.3000;0.4363;1.3358;
255.6000;0.4355;1.3308;
255.9000;0.4339;1.3333;
256.2000;0.4290;1.3184;
256.5000;0.4322;1.3209;
256.8000;0.4355;1.3234;
257.1000;0.4355;1.3184;
257.4000;0.4347;1.3283;
257.7000;0.4347;1.3308;
258.0000;0.4371;1.3533;
258.3000;0.4314;1.3333;
258.6000;0.4339;1.3308;
258.9000;0.4339;1.3258;
259.2000;0.4412;1.3433;
259.5000;0.4339;1.3209;
259.8000;0.4355;1.3258;
260.1000;0.4339;1.3283;
260.4000;0.4355;1.3308;
260.7000;0.4355;1.3234;
261.0000;0.4314;1.3184;
261.3000;0.4363;1.3383;
261.6000;0.4363;1.3358;
261.9000;0.4339;1.3308;
262.2000;0.4330;1.3234;
262.5000;0.4347;1.3258;
262.8000;0.4347;1.3159;
263.1000;0.4347;1.3209;
263.4000;0.4347;1.3283;
263.7000;0.4347;1.3283;
264.0000;0.4363;1.3283;
264.3000;0.4347;1.3258;
264.6000;0.4298;1.3084;
264.9000;0.4347;1.3109;
265.2000;0.4314;1.2959;
265.5000;0.4330;1.3009;
265.8000;0.4355;1.3134;
266.1000;0.4330;1.3059;
266.4000;0.4322;1.3034;
266.7000;0.4347;1.3084;
267.0000;0.4355;1.3109;
267.3000;0.4420;1.3283;
267.6000;0.4347;1.3109;
267.9000;0.4347;1.3159;
268.2000;0.4339;1.3134;
268.5000;0.4339;1.3134;
268.8000;0.4347;1.3159;
269.1000;0.4322;1.3258;
269.4000;0.4339;1.3258;
269.7000;0.4339;1.3258;
270.0000;0.4339;1.3209;
270.3000;0.4347;1.3209;
270.6000;0.4339;1.3134;
270.9000;0.4322;1.3134;
271.2000;0.4347;1.3234;
271.5000;0.4339;1.3209;
271.8000;0.4339;1.3258;
272.1000;0.4339;1.3283;
272.4000;0.4282;1.3084;
272.7000;0.4257;1.3059;
273.0000;0.4355;1.3258;
273.3000;0.4387;1.3358;
273.6000;0.4355;1.3184;
273.9000;0.4347;1.3159;
274.2000;0.4241;1.2984;
274.5000;0.4363;1.3258;
274.8000;0.4225;1.2785;
275.1000;0.4257;1.2835;
275.4000;0.4347;1.3009;
275.7000;0.4339;1.2934;
276.0000;0.4330;1.2910;
276.3000;0.4339;1.3034;
276.6000;0.4330;1.2959;
276.9000;0.4330;1.2959;
277.2000;0.4347;1.3009;
277.5000;0.4330;1.3034;
277.8000;0.4420;1.3308;
278.1000;0.4347;1.3084;
278.4000;0.4330;1.3084;
278.7000;0.4347;1.3109;
279.0000;0.4322;1.2984;
279.3000;0.4347;1.3084;
279.6000;0.4339;1.3084;
279.9000;0.4330;1.3034;
280.2000;0.4347;1.2984;
280.5000;0.4355;1.3059;
280.8000;0.4347;1.3034;
281.1000;0.4347;1.3109;
281.4000;0.4347;1.3134;
281.7000;0.4322;1.3084;
282.0000;0.4225;1.2785;
282.3000;0.4339;1.3134;
282.6000;0.4330;1.3059;
282.9000;0.4355;1.3059;
283.2000;0.4347;1.3034;
283.5000;0.4347;1.3109;
283.8000;0.4339;1.3109;
284.1000;0.4330;1.3034;
284.4000;0.4339;1.3059;
284.7000;0.4339;1.2984;
285.0000;0.4355;1.3059;
285.3000;0.4330;1.2959;
285.6000;0.4322;1.2984;
285.9000;0.4355;1.3059;
286.2000;0.4330;1.3034;
286.5000;0.4330;1.2959;
286.8000;0.4322;1.2934;
287.1000;0.4330;1.2934;
287.4000;0.4339;1.3109;
287.7000;0.4379;1.3308;
288.0000;0.4339;1.3308;
288.3000;0.4355;1.3283;
288.6000;0.4379;1.3358;
288.9000;0.4347;1.3308;
289.2000;0.4339;1.3333;
289.5000;0.4314;1.3184;
289.8000;0.4355;1.3184;
290.1000;0.4274;1.3034;
290.4000;0.4330;1.3258;
290.7000;0.4420;1.3533;
291.0000;0.4339;1.3383;
291.3000;0.4339;1.3383;
291.6000;0.4322;1.3308;
291.9000;0.4339;1.3283;
292.2000;0.4330;1.3159;
292.5000;0.4322;1.3184;
292.8000;0.4322;1.3209;
293.1000;0.4355;1.3408;
293.4000;0.4339;1.3408;
293.7000;0.4330;1.3383;
294.0000;0.4322;1.3408;
294.3000;0.4363;1.3408;
294.6000;0.4306;1.3209;
294.9000;0.4330;1.3308;
295.2000;0.4314;1.3258;
295.5000;0.4355;1.3333;
295.8000;0.4347;1.3258;
296.1000;0.4339;1.3258;
296.4000;0.4314;1.3234;
296.7000;0.4322;1.3258;
297.0000;0.4322;1.3283;
297.3000;0.4322;1.3358;
297.6000;0.4330;1.3358;
297.9000;0.4314;1.3308;
298.2000;0.4314;1.3308;
298.5000;0.4322;1.3383;
298.8000;0.4298;1.3283;
299.1000;0.4330;1.3408;
299.4000;0.4363;1.3508;
299.7000;0.4347;1.3433;
300.0000;0.4339;1.3458;
300.3000;0.4363;1.3558;
300.6000;0.4330;1.3458;
300.9000;0.4330;1.3383;
301.2000;0.4322;1.3433;
301.5000;0.4314;1.3408;
301.8000;0.4322;1.3333;
302.1000;0.4444;1.3582;
302.4000;0.4347;1.3308;
302.7000;0.4330;1.3209;
303.0000;0.4330;1.3159;
303.3000;0.4339;1.3184;
303.6000;0.4314;1.3109;
303.9000;0.4363;1.3258;
304.2000;0.4298;1.3084;
304.5000;0.4339;1.3234;
304.8000;0.4339;1.3258;
305.1000;0.4339;1.3159;
305.4000;0.4339;1.3084;
305.7000;0.4330;1.3034;
306.0000;0.4347;1.3059;
306.3000;0.4322;1.2984;
306.6000;0.4217;1.2735;
306.9000;0.4330;1.3084;
307.2000;0.4330;1.3109;
307.5000;0.4339;1.3234;
307.8000;0.4330;1.3234;
308.1000;0.4322;1.3234;
308.4000;0.4339;1.3333;
308.7000;0.4339;1.3308;
309.0000;0.4347;1.3234;
309.3000;0.4306;1.3159;
309.6000;0.4322;1.3184;
309.9000;0.4330;1.3109;
310.2000;0.4355;1.3184;
310.5000;0.4339;1.3159;
310.8000;0.4330;1.3159;
311.1000;0.4347;1.3134;
311.4000;0.4347;1.3134;
311.7000;0.4339;1.3084;
312.0000;0.4330;1.3059;
312.3000;0.4339;1.3034;
312.6000;0.4355;1.3109;
312.9000;0.4339;1.3134;
313.2000;0.4339;1.3134;
313.5000;0.4265;1.2984;
313.8000;0.4322;1.3234;
314.1000;0.4347;1.3283;
314.4000;0.4330;1.3209;
314.7000;0.4330;1.3184;
315.0000;0.4330;1.3134;
315.3000;0.4339;1.3209;
315.6000;0.4330;1.3109;
315.9000;0.4314;1.3159;
316.2000;0.4306;1.3109;
316.5000;0.4314;1.3184;
316.8000;0.4306;1.3184;
317.1000;0.4314;1.3234;
317.4000;0.4322;1.3184;
317.7000;0.4330;1.3184;
318.0000;0.4330;1.3209;
318.3000;0.4314;1.3209;
318.6000;0.4322;1.3258;
318.9000;0.4330;1.3234;
319.2000;0.4347;1.3308;
319.5000;0.4330;1.3209;
319.8000;0.4322;1.3209;
320.1000;0.4387;1.3333;
320.4000;0.4347;1.3308;
320.7000;0.4314;1.3159;
321.0000;0.4322;1.3159;
321.3000;0.4282;1.2959;
321.6000;0.4330;1.3034;
321.9000;0.4322;1.3109;
322.2000;0.4306;1.3084;
322.5000;0.4306;1.3009;
322.8000;0.4339;1.3109;
323.1000;0.4339;1.3134;
323.4000;0.4314;1.3034;
323.7000;0.4339;1.3134;
324.0000;0.4330;1.3184;
324.3000;0.4347;1.3159;
324.6000;0.4322;1.3159;
324.9000;0.4322;1.3109;
325.2000;0.4322;1.3134;
325.5000;0.4339;1.3159;
325.8000;0.4314;1.3209;
326.1000;0.4330;1.3308;
326.4000;0.4314;1.3308;
326.7000;0.4322;1.3258;
327.0000;0.4322;1.3234;
327.3000;0.4314;1.3234;
327.6000;0.4339;1.3433;
327.9000;0.4339;1.3433;
328.2000;0.4322;1.3358;
328.5000;0.4347;1.3234;
328.8000;0.4322;1.3184;
329.1000;0.4330;1.3159;
329.4000;0.4322;1.3184;
329.7000;0.4314;1.3209;
330.0000;0.4330;1.3209;
330.3000;0.4314;1.3234;
330.6000;0.4339;1.3234;
330.9000;0.4322;1.3184;
331.2000;0.4314;1.3134;
331.5000;0.4347;1.3184;
331.8000;0.4330;1.3184;
332.1000;0.4314;1.3159;
332.4000;0.4322;1.3234;
332.7000;0.4314;1.3234;
333.0000;0.4330;1.3209;
333.3000;0.4322;1.3234;
333.6000;0.4314;1.3258;
333.9000;0.4330;1.3308;
334.2000;0.4330;1.3283;
334.5000;0.4322;1.3358;
334.8000;0.4257;1.3209;
335.1000;0.4314;1.3458;
335.4000;0.4322;1.3508;
335.7000;0.4306;1.3408;
336.0000;0.4298;1.3358;
336.3000;0.4306;1.3283;
336.6000;0.4314;1.3308;
336.9000;0.4314;1.3333;
337.2000;0.4306;1.3358;
337.5000;0.4306;1.3433;
337.8000;0.4314;1.3558;
338.1000;0.4322;1.3558;
338.4000;0.4322;1.3657;
338.7000;0.4314;1.3582;
339.0000;0.4322;1.3508;
339.3000;0.4330;1.3458;
339.6000;0.4322;1.3383;
339.9000;0.4314;1.3408;
340.2000;0.4306;1.3333;
340.5000;0.4298;1.3358;
340.8000;0.4322;1.3358;
341.1000;0.4322;1.3358;
341.4000;0.4306;1.3333;
341.7000;0.4306;1.3433;
342.0000;0.4339;1.3508;
342.3000;0.4339;1.3483;
342.6000;0.4298;1.3308;
342.9000;0.4330;1.3358;
343.2000;0.4314;1.3333;
343.5000;0.4363;1.3458;
343.8000;0.4314;1.3308;
344.1000;0.4322;1.3408;
344.4000;0.4339;1.3508;
344.7000;0.4330;1.3483;
345.0000;0.4322;1.3533;
345.3000;0.4322;1.3607;
345.6000;0.4330;1.3533;
345.9000;0.4322;1.3508;
346.2000;0.4322;1.3433;
346.5000;0.4330;1.3483;
346.8000;0.4322;1.3433;
347.1000;0.4314;1.3458;
347.4000;0.4339;1.3458;
347.7000;0.4298;1.3308;
348.0000;0.4314;1.3308;
348.3000;0.4314;1.3308;
348.6000;0.4298;1.3333;
348.9000;0.4314;1.3333;
349.2000;0.4363;1.3458;
349.5000;0.4314;1.3358;
349.8000;0.4322;1.3458;
350.1000;0.4314;1.3558;
350.4000;0.4274;1.3408;
350.7000;0.4306;1.3383;
351.0000;0.4330;1.3458;
351.3000;0.4355;1.3558;
351.6000;0.4330;1.3383;
351.9000;0.4322;1.3408;
352.2000;0.4290;1.3358;
352.5000;0.4314;1.3358;
352.8000;0.4306;1.3358;
353.1000;0.4314;1.3283;
353.4000;0.4314;1.3333;
353.7000;0.4314;1.3383;
354.0000;0.4306;1.3458;
354.3000;0.4298;1.3533;
354.6000;0.4314;1.3458;
354.9000;0.4322;1.3483;
355.2000;0.4322;1.3458;
355.5000;0.4322;1.3508;
355.8000;0.4322;1.3383;
356.1000;0.4314;1.3308;
356.4000;0.4314;1.3308;
356.7000;0.4298;1.3308;
357.0000;0.4298;1.3333;
357.3000;0.4322;1.3433;
357.6000;0.4322;1.3458;
357.9000;0.4314;1.3383;
358.2000;0.4298;1.3333;
358.5000;0.4322;1.3433;
358.8000;0.4314;1.3383;
359.1000;0.4298;1.3333;
359.4000;0.4314;1.3358;
359.7000;0.4314;1.3358;
360.0000;0.4322;1.3358;
360.3000;0.4322;1.3283;
360.6000;0.4339;1.3333;
360.9000;0.4330;1.3383;
361.2000;0.4347;1.3433;
361.5000;0.4314;1.3358;
361.8000;0.4314;1.3433;
362.1000;0.4322;1.3458;
362.4000;0.4314;1.3458;
362.7000;0.4306;1.3458;
363.0000;0.4306;1.3433;
363.3000;0.4330;1.3508;
363.6000;0.4330;1.3458;
363.9000;0.4322;1.3433;
364.2000;0.4257;1.3234;
364.5000;0.4355;1.3558;
364.8000;0.4306;1.3458;
365.1000;0.4306;1.3483;
365.4000;0.4322;1.3508;
365.7000;0.4306;1.3483;
366.0000;0.4314;1.3508;
366.3000;0.4347;1.3607;
366.6000;0.4274;1.3408;
366.9000;0.4314;1.3508;
367.2000;0.4314;1.3558;
367.5000;0.4306;1.3582;
367.8000;0.4322;1.3558;
368.1000;0.4274;1.3383;
368.4000;0.4330;1.3533;
368.7000;0.4322;1.3483;
369.0000;0.4314;1.3533;
369.3000;0.4257;1.3408;
369.6000;0.4339;1.3682;
369.9000;0.4322;1.3682;
370.2000;0.4306;1.3632;
370.5000;0.4322;1.3682;
370.8000;0.4290;1.3682;
371.1000;0.4298;1.3632;
371.4000;0.4306;1.3732;
371.7000;0.4298;1.3607;
372.0000;0.4306;1.3582;
372.3000;0.4322;1.3582;
372.6000;0.4241;1.3408;
372.9000;0.4306;1.3508;
373.2000;0.4314;1.3483;
373.5000;0.4290;1.3458;
373.8000;0.4330;1.3533;
374.1000;0.4314;1.3508;
374.4000;0.4306;1.3458;
374.7000;0.4314;1.3458;
375.0000;0.4306;1.3433;
375.3000;0.4306;1.3458;
375.6000;0.4298;1.3358;
375.9000;0.4314;1.3383;
376.2000;0.4322;1.3333;
376.5000;0.4314;1.3383;
376.8000;0.4314;1.3508;
377.1000;0.4306;1.3458;
377.4000;0.4314;1.3483;
377.7000;0.4314;1.3383;
378.0000;0.4298;1.3333;
378.3000;0.4322;1.3458;
378.6000;0.4306;1.3433;
378.9000;0.4314;1.3383;
379.2000;0.4298;1.3433;
379.5000;0.4290;1.3333;
379.8000;0.4339;1.3483;
380.1000;0.4298;1.3508;
380.4000;0.4314;1.3533;
380.7000;0.4290;1.3433;
381.0000;0.4274;1.3333;
381.3000;0.4314;1.3408;
381.6000;0.4290;1.3408;
381.9000;0.4282;1.3258;
382.2000;0.4298;1.3308;
382.5000;0.4265;1.3258;
382.8000;0.4314;1.3358;
383.1000;0.4298;1.3308;
383.4000;0.4306;1.3308;
383.7000;0.4347;1.3433;
384.0000;0.4290;1.3283;
384.3000;0.4290;1.3283;
384.6000;0.4298;1.3358;
384.9000;0.4306;1.3383;
385.2000;0.4314;1.3433;
385.5000;0.4225;1.3184;
385.8000;0.4298;1.3433;
386.1000;0.4298;1.3508;
386.4000;0.4330;1.3582;
386.7000;0.4306;1.3508;
387.0000;0.4290;1.3433;
387.3000;0.4306;1.3483;
387.6000;0.4290;1.3433;
387.9000;0.4306;1.3508;
388.2000;0.4306;1.3533;
388.5000;0.4306;1.3558;
388.8000;0.4290;1.3582;
389.1000;0.4347;1.3632;
389.4000;0.4314;1.3483;
389.7000;0.4314;1.3458;
390.0000;0.4314;1.3533;
390.3000;0.4330;1.3607;
390.6000;0.4322;1.3558;
390.9000;0.4322;1.3533;
391.2000;0.4274;1.3458;
391.5000;0.4347;1.3582;
391.8000;0.4282;1.3458;
392.1000;0.4314;1.3508;
392.4000;0.4282;1.3383;
392.7000;0.4306;1.3408;
393.0000;0.4314;1.3383;
393.3000;0.4371;1.3582;
393.6000;0.4298;1.3408;
393.9000;0.4314;1.3458;
394.2000;0.4290;1.3408;
394.5000;0.4298;1.3433;
394.8000;0.4314;1.3508;
395.1000;0.4306;1.3433;
395.4000;0.4314;1.3458;
395.7000;0.4314;1.3533;
396.0000;0.4306;1.3533;
396.3000;0.4306;1.3508;
396.6000;0.4314;1.3533;
396.9000;0.4314;1.3582;
397.2000;0.4298;1.3533;
397.5000;0.4322;1.3607;
397.8000;0.4290;1.3508;
398.1000;0.4282;1.3533;
398.4000;0.4298;1.3632;
398.7000;0.4314;1.3657;
399.0000;0.4298;1.3657;
399.3000;0.4322;1.3657;
399.6000;0.4322;1.3607;
399.9000;0.4306;1.3607;
400.2000;0.4322;1.3682;
400.5000;0.4314;1.3657;
400.8000;0.4306;1.3632;
401.1000;0.4306;1.3533;
401.4000;0.4290;1.3508;
401.7000;0.4314;1.3657;
402.0000;0.4306;1.3632;
402.3000;0.4322;1.3533;
402.6000;0.4314;1.3508;
402.9000;0.4306;1.3533;
403.2000;0.4314;1.3558;
403.5000;0.4306;1.3533;
403.8000;0.4330;1.3558;
404.1000;0.4290;1.3508;
404.4000;0.4306;1.3607;
404.7000;0.4306;1.3582;
405.0000;0.4306;1.3582;
405.3000;0.4298;1.3582;
405.6000;0.4274;1.3533;
405.9000;0.4298;1.3632;
406.2000;0.4306;1.3558;
406.5000;0.4347;1.3632;
406.8000;0.4282;1.3483;
407.1000;0.4347;1.3582;
407.4000;0.4290;1.3408;
407.7000;0.4314;1.3508;
408.0000;0.4306;1.3383;
408.3000;0.4330;1.3508;
408.6000;0.4314;1.3383;
408.9000;0.4306;1.3408;
409.2000;0.4314;1.3383;
409.5000;0.4322;1.3408;
409.8000;0.4298;1.3433;
410.1000;0.4290;1.3458;
410.4000;0.4306;1.3558;
410.7000;0.4257;1.3433;
411.0000;0.4314;1.3582;
411.3000;0.4314;1.3607;
411.6000;0.4290;1.3508;
411.9000;0.4306;1.3657;
412.2000;0.4298;1.3657;
412.5000;0.4306;1.3657;
412.8000;0.4322;1.3707;
413.1000;0.4330;1.3732;
413.4000;0.4298;1.3657;
413.7000;0.4306;1.3582;
414.0000;0.4314;1.3582;
414.3000;0.4322;1.3632;
414.6000;0.4298;1.3558;
414.9000;0.4314;1.3607;
415.2000;0.4290;1.3607;
415.5000;0.4249;1.3433;
415.8000;0.4306;1.3582;
416.1000;0.4298;1.3558;
416.4000;0.4306;1.3657;
416.7000;0.4306;1.3657;
417.0000;0.4306;1.3682;
417.3000;0.4290;1.3632;
417.6000;0.4290;1.3657;
417.9000;0.4314;1.3707;
418.2000;0.4306;1.3732;
418.5000;0.4298;1.3782;
418.8000;0.4290;1.3857;
419.1000;0.4306;1.3906;
419.4000;0.4298;1.3906;
419.7000;0.4298;1.3906;
420.0000;0.4298;1.3857;
420.3000;0.4282;1.3832;
420.6000;0.4363;1.4006;
420.9000;0.4298;1.3882;
421.2000;0.4314;1.3882;
421.5000;0.4290;1.3882;
421.8000;0.4282;1.3857;
422.1000;0.4314;1.3906;
422.4000;0.4290;1.3832;
422.7000;0.4290;1.3757;
423.0000;0.4290;1.3732;
423.3000;0.4290;1.3757;
423.6000;0.4298;1.3682;
423.9000;0.4306;1.3707;
424.2000;0.4298;1.3657;
424.5000;0.4314;1.3732;
424.8000;0.4298;1.3732;
425.1000;0.4306;1.3757;
425.4000;0.4298;1.3707;
425.7000;0.4290;1.3732;
426.0000;0.4306;1.3757;
426.3000;0.4306;1.3757;
426.6000;0.4298;1.3707;
426.9000;0.4241;1.3458;
427.2000;0.4314;1.3732;
427.5000;0.4339;1.3906;
427.8000;0.4298;1.3732;
428.1000;0.4314;1.3807;
428.4000;0.4298;1.3707;
428.7000;0.4298;1.3682;
429.0000;0.4298;1.3632;
429.3000;0.4306;1.3707;
429.6000;0.4314;1.3757;
429.9000;0.4265;1.3732;
430.2000;0.4298;1.3757;
430.5000;0.4249;1.3632;
430.8000;0.4298;1.3782;
431.1000;0.4306;1.3732;
431.4000;0.4306;1.3707;
431.7000;0.4298;1.3707;
432.0000;0.4274;1.3632;
432.3000;0.4282;1.3707;
432.6000;0.4274;1.3757;
432.9000;0.4282;1.3732;
433.2000;0.4298;1.3632;
433.5000;0.4306;1.3707;
433.8000;0.4282;1.3732;
434.1000;0.4298;1.3732;
434.4000;0.4265;1.3582;
434.7000;0.4290;1.3582;
435.0000;0.4298;1.3707;
435.3000;0.4298;1.3607;
435.6000;0.4298;1.3533;
435.9000;0.4298;1.3607;
436.2000;0.4290;1.3632;
436.5000;0.4290;1.3483;
436.8000;0.4274;1.3433;
437.1000;0.4282;1.3582;
437.4000;0.4298;1.3657;
437.7000;0.4290;1.3582;
438.0000;0.4265;1.3632;
438.3000;0.4290;1.3682;
438.6000;0.4298;1.3807;
438.9000;0.4306;1.3857;
439.2000;0.4298;1.3931;
439.5000;0.4298;1.4031;
439.8000;0.4306;1.3931;
440.1000;0.4290;1.3882;
440.4000;0.4298;1.3807;
440.7000;0.4298;1.3782;
441.0000;0.4282;1.3782;
441.3000;0.4306;1.3757;
441.6000;0.4282;1.3707;
441.9000;0.4290;1.3782;
442.2000;0.4298;1.3832;
442.5000;0.4330;1.3931;
442.8000;0.4290;1.3807;
443.1000;0.4282;1.3757;
443.4000;0.4217;1.3558;
443.7000;0.4290;1.3732;
444.0000;0.4290;1.3707;
444.3000;0.4274;1.3657;
444.6000;0.4290;1.3657;
444.9000;0.4314;1.3582;
445.2000;0.4363;1.3757;
445.5000;0.4306;1.3682;
445.8000;0.4298;1.3682;
446.1000;0.4298;1.3707;
446.4000;0.4208;1.3508;
446.7000;0.4306;1.3807;
447.0000;0.4298;1.3832;
447.3000;0.4298;1.3807;
447.6000;0.4298;1.3782;
447.9000;0.4290;1.3807;
448.2000;0.4290;1.3807;
448.5000;0.4306;1.3782;
448.8000;0.4306;1.3807;
449.1000;0.4265;1.3732;
449.4000;0.4282;1.3807;
449.7000;0.4282;1.3832;
450.0000;0.4298;1.3807;
450.3000;0.4274;1.3657;
450.6000;0.4298;1.3707;
450.9000;0.4290;1.3757;
451.2000;0.4282;1.3682;
451.5000;0.4290;1.3757;
451.8000;0.4290;1.3757;
452.1000;0.4274;1.3757;
452.4000;0.4306;1.3882;
452.7000;0.4265;1.3732;
453.0000;0.4282;1.3732;
453.3000;0.4282;1.3657;
453.6000;0.4257;1.3657;
453.9000;0.4274;1.3657;
454.2000;0.4282;1.3682;
454.5000;0.4322;1.3682;
454.8000;0.4298;1.3632;
455.1000;0.4306;1.3732;
455.4000;0.4290;1.3782;
455.7000;0.4298;1.3757;
456.0000;0.4306;1.3732;
456.3000;0.4298;1.3757;
456.6000;0.4298;1.3857;
456.9000;0.4282;1.3857;
457.2000;0.4208;1.3632;
457.5000;0.4371;1.4081;
457.8000;0.4298;1.3931;
458.1000;0.4274;1.3906;
458.4000;0.4347;1.4031;
458.7000;0.4265;1.3782;
459.0000;0.4314;1.3956;
459.3000;0.4274;1.3857;
459.6000;0.4306;1.3931;
459.9000;0.4298;1.3931;
460.2000;0.4306;1.3956;
460.5000;0.4298;1.3906;
460.8000;0.4306;1.3882;
461.1000;0.4290;1.3807;
461.4000;0.4314;1.3807;
461.7000;0.4306;1.3757;
462.0000;0.4306;1.3757;
462.3000;0.4274;1.3782;
462.6000;0.4306;1.3931;
462.9000;0.4298;1.3882;
463.2000;0.4306;1.3882;
463.5000;0.4282;1.3832;
463.8000;0.4282;1.3857;
464.1000;0.4298;1.3832;
464.4000;0.4306;1.3857;
464.7000;0.4298;1.3782;
465.0000;0.4306;1.3757;
465.3000;0.4274;1.3757;
465.6000;0.4265;1.3732;
465.9000;0.4298;1.3782;
466.2000;0.4282;1.3757;
466.5000;0.4298;1.3807;
466.8000;0.4298;1.3782;
467.1000;0.4298;1.3757;
467.4000;0.4298;1.3807;
467.7000;0.4322;1.3782;
468.0000;0.4306;1.3732;
468.3000;0.4290;1.3732;
468.6000;0.4306;1.3707;
468.9000;0.4298;1.3707;
469.2000;0.4347;1.3807;
469.5000;0.4347;1.3857;
469.8000;0.4298;1.3782;
470.1000;0.4282;1.3732;
470.4000;0.4290;1.3757;
470.7000;0.4298;1.3832;
471.0000;0.4274;1.3682;
471.3000;0.4290;1.3657;
471.6000;0.4290;1.3707;
471.9000;0.4265;1.3607;
472.2000;0.4282;1.3632;
472.5000;0.4290;1.3558;
472.8000;0.4282;1.3483;
473.1000;0.4274;1.3483;
473.4000;0.4290;1.3458;
473.7000;0.4290;1.3458;
474.0000;0.4298;1.3582;
474.3000;0.4274;1.3707;
474.6000;0.4282;1.3632;
474.9000;0.4290;1.3632;
475.2000;0.4290;1.3632;
475.5000;0.4298;1.3682;
475.8000;0.4290;1.3657;
476.1000;0.4282;1.3707;
476.4000;0.4241;1.3632;
476.7000;0.4298;1.3732;
477.0000;0.4282;1.3657;
477.3000;0.4265;1.3607;
477.6000;0.4274;1.3657;
477.9000;0.4290;1.3757;
478.2000;0.4290;1.3782;
478.5000;0.4265;1.3732;
478.8000;0.4282;1.3707;
479.1000;0.4282;1.3707;
479.4000;0.4290;1.3657;
479.7000;0.4290;1.3657;
480.0000;0.4290;1.3682;
480.3000;0.4298;1.3607;
480.6000;0.4322;1.3632;
480.9000;0.4306;1.3657;
481.2000;0.4306;1.3707;
481.5000;0.4282;1.3632;
481.8000;0.4290;1.3632;
482.1000;0.4274;1.3607;
482.4000;0.4379;1.3882;
482.7000;0.4217;1.3458;
483.0000;0.4290;1.3682;
483.3000;0.4282;1.3632;
483.6000;0.4249;1.3558;
483.9000;0.4290;1.3682;
484.2000;0.4298;1.3707;
484.5000;0.4298;1.3707;
484.8000;0.4208;1.3433;
485.1000;0.4282;1.3632;
485.4000;0.4282;1.3607;
485.7000;0.4290;1.3632;
486.0000;0.4274;1.3607;
486.3000;0.4298;1.3632;
486.6000;0.4314;1.3657;
486.9000;0.4282;1.3607;
487.2000;0.4265;1.3533;
487.5000;0.4274;1.3607;
487.8000;0.4282;1.3632;
488.1000;0.4290;1.3657;
488.4000;0.4290;1.3682;
488.7000;0.4290;1.3533;
489.0000;0.4290;1.3582;
489.3000;0.4298;1.3632;
489.6000;0.4290;1.3632;
489.9000;0.4274;1.3558;
490.2000;0.4249;1.3582;
490.5000;0.4282;1.3732;
490.8000;0.4298;1.3782;
491.1000;0.4274;1.3732;
491.4000;0.4249;1.3757;
491.7000;0.4282;1.3882;
492.0000;0.4290;1.3832;
492.3000;0.4282;1.3732;
492.6000;0.4274;1.3582;
492.9000;0.4290;1.3607;
493.2000;0.4298;1.3682;
493.5000;0.4290;1.3657;
493.8000;0.4274;1.3632;
494.1000;0.4257;1.3657;
494.4000;0.4282;1.3707;
494.7000;0.4274;1.3607;
495.0000;0.4282;1.3682;
495.3000;0.4290;1.3682;
495.6000;0.4290;1.3657;
495.9000;0.4290;1.3582;
496.2000;0.4274;1.3558;
496.5000;0.4282;1.3682;
496.8000;0.4290;1.3682;
497.1000;0.4290;1.3682;
497.4000;0.4274;1.3582;
497.7000;0.4290;1.3607;
498.0000;0.4274;1.3582;
498.3000;0.4314;1.3707;
498.6000;0.4290;1.3757;
498.9000;0.4274;1.3732;
499.2000;0.4282;1.3732;
499.5000;0.4282;1.3757;
499.8000;0.4274;1.3682;
500.1000;0.4282;1.3632;
500.4000;0.4282;1.3682;
500.7000;0.4282;1.3657;
501.0000;0.4265;1.3657;
501.3000;0.4347;1.3782;
501.6000;0.4339;1.3807;
501.9000;0.4314;1.3807;
502.2000;0.4290;1.3707;
502.5000;0.4282;1.3632;
502.8000;0.4274;1.3582;
503.1000;0.4290;1.3582;
503.4000;0.4290;1.3558;
503.7000;0.4265;1.3533;
504.0000;0.4282;1.3582;
504.3000;0.4265;1.3607;
504.6000;0.4282;1.3757;
504.9000;0.4298;1.3782;
505.2000;0.4298;1.3707;
505.5000;0.4257;1.3682;
505.8000;0.4282;1.3782;
506.1000;0.4314;1.3782;
506.4000;0.4274;1.3732;
506.7000;0.4282;1.3632;
507.0000;0.4298;1.3632;
507.3000;0.4160;1.3258;
507.6000;0.4274;1.3657;
507.9000;0.4274;1.3657;
508.2000;0.4274;1.3732;
508.5000;0.4363;1.4006;
508.8000;0.4290;1.3782;
509.1000;0.4282;1.3807;
509.4000;0.4274;1.3782;
509.7000;0.4314;1.3782;
510.0000;0.4290;1.3682;
510.3000;0.4298;1.3782;
510.6000;0.4274;1.3832;
510.9000;0.4282;1.3956;
511.2000;0.4290;1.3931;
511.5000;0.4282;1.3882;
511.8000;0.4274;1.3906;
512.1000;0.4282;1.3906;
512.4000;0.4265;1.3931;
512.7000;0.4274;1.3931;
513.0000;0.4274;1.3882;
513.3000;0.4257;1.3882;
513.6000;0.4274;1.3857;
513.9000;0.4282;1.3832;
514.2000;0.4265;1.3832;
514.5000;0.4265;1.3782;
514.8000;0.4282;1.3857;
515.1000;0.4274;1.3857;
515.4000;0.4282;1.3882;
515.7000;0.4274;1.3882;
516.0000;0.4290;1.3882;
516.3000;0.4282;1.3882;
516.6000;0.4200;1.3732;
516.9000;0.4265;1.3882;
517.2000;0.4298;1.3956;
517.5000;0.4314;1.4031;
517.8000;0.4290;1.3956;
518.1000;0.4290;1.4056;
518.4000;0.4290;1.4006;
518.7000;0.4306;1.4031;
519.0000;0.4274;1.3981;
519.3000;0.4265;1.3981;
519.6000;0.4265;1.3931;
519.9000;0.4257;1.3882;
520.2000;0.4298;1.3882;
520.5000;0.4249;1.3682;
520.8000;0.4282;1.3682;
521.1000;0.4192;1.3533;
521.4000;0.4265;1.3732;
521.7000;0.4274;1.3707;
522.0000;0.4282;1.3657;
522.3000;0.4298;1.3757;
522.6000;0.4249;1.3707;
522.9000;0.4265;1.3807;
523.2000;0.4371;1.4056;
523.5000;0.4290;1.3807;
523.8000;0.4249;1.3732;
524.1000;0.4265;1.3732;
524.4000;0.4274;1.3782;
524.7000;0.4282;1.3906;
525.0000;0.4274;1.3882;
525.3000;0.4306;1.3956;
525.6000;0.4298;1.3832;
525.9000;0.4265;1.3782;
526.2000;0.4274;1.3906;
526.5000;0.4282;1.3906;
526.8000;0.4274;1.3981;
527.1000;0.4274;1.4056;
527.4000;0.4282;1.4056;
527.7000;0.4298;1.4131;
528.0000;0.4265;1.4106;
528.3000;0.4257;1.4081;
528.6000;0.4265;1.4131;
528.9000;0.4290;1.4131;
529.2000;0.4290;1.4156;
529.5000;0.4241;1.3981;
529.8000;0.4282;1.4031;
530.1000;0.4298;1.4006;
530.4000;0.4290;1.3956;
530.7000;0.4290;1.3981;
531.0000;0.4298;1.3956;
531.3000;0.4306;1.4006;
531.6000;0.4265;1.3931;
531.9000;0.4257;1.3906;
532.2000;0.4282;1.3931;
532.5000;0.4265;1.3981;
532.8000;0.4274;1.3956;
533.1000;0.4265;1.3906;
533.4000;0.4274;1.3882;
533.7000;0.4298;1.3832;
534.0000;0.4306;1.3931;
534.3000;0.4282;1.3757;
534.6000;0.4298;1.3782;
534.9000;0.4274;1.3757;
535.2000;0.4290;1.3782;
535.5000;0.4282;1.3757;
535.8000;0.4298;1.3782;
536.1000;0.4347;1.4006;
536.4000;0.4290;1.3832;
536.7000;0.4274;1.3857;
537.0000;0.4282;1.3857;
537.3000;0.4265;1.3807;
537.6000;0.4265;1.3857;
537.9000;0.4274;1.3857;
538.2000;0.4241;1.3807;
538.5000;0.4257;1.3782;
538.8000;0.4265;1.3707;
539.1000;0.4274;1.3757;
539.4000;0.4371;1.4031;
539.7000;0.4257;1.3732;
540.0000;0.4282;1.3832;
540.3000;0.4274;1.3782;
540.6000;0.4282;1.3857;
540.9000;0.4265;1.3757;
541.2000;0.4274;1.3732;
541.5000;0.4282;1.3807;
541.8000;0.4282;1.3757;
542.1000;0.4290;1.3782;
542.4000;0.4282;1.3757;
542.7000;0.4265;1.3707;
543.0000;0.4257;1.3657;
543.3000;0.4274;1.3782;
543.6000;0.4241;1.3757;
543.9000;0.4282;1.3832;
544.2000;0.4282;1.3832;
544.5000;0.4282;1.3857;
544.8000;0.4265;1.3757;
545.1000;0.4274;1.3757;
545.4000;0.4274;1.3757;
545.7000;0.4265;1.3732;
546.0000;0.4282;1.3707;
546.3000;0.4274;1.3732;
546.6000;0.4290;1.3607;
546.9000;0.4282;1.3558;
547.2000;0.4274;1.3632;
547.5000;0.4265;1.3732;
547.8000;0.4274;1.3807;
548.1000;0.4282;1.3906;
548.4000;0.4274;1.3956;
548.7000;0.4339;1.4156;
549.0000;0.4282;1.3931;
549.3000;0.4241;1.3882;
549.6000;0.4298;1.4056;
549.9000;0.4233;1.3882;
550.2000;0.4257;1.3931;
550.5000;0.4265;1.4006;
550.8000;0.4290;1.4131;
551.1000;0.4282;1.4006;
551.4000;0.4233;1.3882;
551.7000;0.4298;1.4056;
552.0000;0.4282;1.4006;
552.3000;0.4257;1.3906;
552.6000;0.4274;1.4081;
552.9000;0.4290;1.4131;
553.2000;0.4274;1.4106;
553.5000;0.4282;1.4056;
553.8000;0.4282;1.3981;
554.1000;0.4265;1.3931;
554.4000;0.4314;1.3882;
554.7000;0.4274;1.3807;
555.0000;0.4257;1.3807;
555.3000;0.4192;1.3657;
555.6000;0.4274;1.3882;
555.9000;0.4265;1.3832;
556.2000;0.4249;1.3906;
556.5000;0.4265;1.3981;
556.8000;0.4274;1.3931;
557.1000;0.4265;1.3981;
557.4000;0.4290;1.4031;
557.7000;0.4217;1.3832;
558.0000;0.4274;1.3931;
558.3000;0.4274;1.3882;
558.6000;0.4265;1.3906;
558.9000;0.4257;1.3906;
559.2000;0.4265;1.3981;
559.5000;0.4249;1.3906;
559.8000;0.4274;1.3906;
560.1000;0.4274;1.4006;
560.4000;0.4290;1.4081;
560.7000;0.4290;1.4031;
561.0000;0.4282;1.4056;
561.3000;0.4274;1.4006;
561.6000;0.4282;1.4006;
561.9000;0.4274;1.3981;
562.2000;0.4282;1.4006;
562.5000;0.4265;1.4056;
562.8000;0.4265;1.3956;
563.1000;0.4265;1.3981;
563.4000;0.4241;1.3906;
563.7000;0.4257;1.4031;
564.0000;0.4265;1.4081;
564.3000;0.4274;1.4056;
564.6000;0.4265;1.4031;
564.9000;0.4249;1.4006;
565.2000;0.4257;1.4106;
565.5000;0.4257;1.4006;
565.8000;0.4274;1.3956;
566.1000;0.4265;1.4006;
566.4000;0.4265;1.4031;
566.7000;0.4274;1.4205;
567.0000;0.4265;1.4181;
567.3000;0.4274;1.4181;
567.6000;0.4257;1.4081;
567.9000;0.4282;1.4131;
568.2000;0.4225;1.3882;
568.5000;0.4200;1.3857;
568.8000;0.4200;1.3832;
569.1000;0.4257;1.4081;
569.4000;0.4249;1.4056;
569.7000;0.4265;1.4106;
570.0000;0.4257;1.4031;
570.3000;0.4249;1.4081;
570.6000;0.4274;1.4205;
570.9000;0.4200;1.4006;
571.2000;0.4257;1.4106;
571.5000;0.4265;1.4081;
571.8000;0.4249;1.4056;
572.1000;0.4217;1.4006;
572.4000;0.4265;1.4056;
572.7000;0.4257;1.3981;
573.0000;0.4257;1.3956;
573.3000;0.4274;1.4006;
573.6000;0.4265;1.3906;
573.9000;0.4257;1.3981;
574.2000;0.4274;1.4031;
574.5000;0.4306;1.4056;
574.8000;0.4274;1.3906;
575.1000;0.4249;1.3782;
575.4000;0.4249;1.3857;
575.7000;0.4298;1.3981;
576.0000;0.4274;1.3931;
576.3000;0.4306;1.4106;
576.6000;0.4265;1.3882;
576.9000;0.4265;1.3906;
577.2000;0.4274;1.3857;
577.5000;0.4274;1.3981;
577.8000;0.4282;1.3832;
578.1000;0.4274;1.3732;
578.4000;0.4257;1.3732;
578.7000;0.4225;1.3682;
579.0000;0.4257;1.3732;
579.3000;0.4257;1.3707;
579.6000;0.4330;1.3882;
579.9000;0.4274;1.3832;
580.2000;0.4274;1.3832;
580.5000;0.4257;1.3782;
580.8000;0.4274;1.3807;
581.1000;0.4282;1.3857;
581.4000;0.4257;1.3782;
581.7000;0.4265;1.3807;
582.0000;0.4257;1.3807;
582.3000;0.4265;1.3807;
582.6000;0.4298;1.3807;
582.9000;0.4217;1.3582;
583.2000;0.4274;1.3732;
583.5000;0.4265;1.3732;
583.8000;0.4265;1.3732;
584.1000;0.4257;1.3682;
584.4000;0.4257;1.3582;
584.7000;0.4265;1.3657;
585.0000;0.4282;1.3632;
585.3000;0.4282;1.3582;
585.6000;0.4265;1.3582;
585.9000;0.4282;1.3707;
586.2000;0.4274;1.3732;
586.5000;0.4265;1.3782;
586.8000;0.4257;1.3807;
587.1000;0.4274;1.3832;
587.4000;0.4322;1.3981;
587.7000;0.4257;1.3732;
588.0000;0.4265;1.3657;
588.3000;0.4274;1.3707;
588.6000;0.4290;1.3782;
588.9000;0.4208;1.3632;
589.2000;0.4257;1.3832;
589.5000;0.4265;1.3807;
589.8000;0.4282;1.3906;
590.1000;0.4274;1.3832;
590.4000;0.4265;1.3807;
590.7000;0.4274;1.3732;
591.0000;0.4347;1.3931;
591.3000;0.4257;1.3732;
591.6000;0.4290;1.3757;
591.9000;0.4184;1.3483;
592.2000;0.4257;1.3682;
592.5000;0.4257;1.3732;
592.8000;0.4265;1.3732;
593.1000;0.4265;1.3782;
593.4000;0.4257;1.3857;
593.7000;0.4290;1.3832;
594.0000;0.4274;1.3807;
594.3000;0.4257;1.3682;
594.6000;0.4290;1.3857;
594.9000;0.4314;1.3906;
595.2000;0.4274;1.3857;
595.5000;0.4249;1.3757;
595.8000;0.4265;1.3782;
596.1000;0.4192;1.3657;
596.4000;0.4265;1.3906;
596.7000;0.4257;1.3782;
597.0000;0.4265;1.3832;
597.3000;0.4257;1.3832;
597.6000;0.4192;1.3657;
597.9000;0.4249;1.3807;
598.2000;0.4265;1.3807;
598.5000;0.4290;1.3931;
598.8000;0.4265;1.4006;
599.1000;0.4241;1.3906;
599.4000;0.4265;1.3931;
599.7000;0.4241;1.3882;
600.0000;0.4249;1.3906;
600.3000;0.4274;1.3807;
600.6000;0.4265;1.3657;
600.9000;0.4282;1.3582;
601.2000;0.4111;1.3084;
601.5000;0.4062;1.2810;
601.8000;0.3972;1.2511;
602.1000;0.3915;1.2287;
602.4000;0.3867;1.2062;
602.7000;0.3761;1.1713;
603.0000;0.3753;1.1614;
603.3000;0.3712;1.1514;
603.6000;0.3728;1.1514;
603.9000;0.3630;1.1190;
604.2000;0.3590;1.1140;
604.5000;0.3565;1.1065;
604.8000;0.3541;1.0991;
605.1000;0.3508;1.0916;
605.4000;0.3484;1.0891;
605.7000;0.3460;1.0716;
606.0000;0.3443;1.0716;
606.3000;0.3419;1.0567;
606.6000;0.3411;1.0592;
606.9000;0.3394;1.0542;
607.2000;0.3370;1.0467;
607.5000;0.3378;1.0542;
607.8000;0.3354;1.0492;
608.1000;0.3329;1.0343;
608.4000;0.3337;1.0343;
608.7000;0.3305;1.0243;
609.0000;0.3321;1.0318;
609.3000;0.3305;1.0193;
609.6000;0.3313;1.0143;
609.9000;0.3256;1.0019;
610.2000;0.3280;1.0118;
610.5000;0.3289;1.0168;
610.8000;0.3280;1.0118;
611.1000;0.3272;1.0019;
611.4000;0.3280;1.0093;
611.7000;0.3264;1.0044;
612.0000;0.3248;1.0068;
612.3000;0.3223;0.9969;
612.6000;0.3232;0.9944;
612.9000;0.3240;0.9919;
613.2000;0.3223;0.9819;
613.5000;0.3175;0.9670;
613.8000;0.3223;0.9819;
614.1000;0.3199;0.9769;
614.4000;0.3191;0.9695;
614.7000;0.3240;0.9844;
615.0000;0.3207;0.9919;
615.3000;0.3199;0.9944;
615.6000;0.3142;0.9744;
615.9000;0.3199;0.9969;
616.2000;0.3240;1.0143;
616.5000;0.3215;1.0143;
616.8000;0.3191;0.9969;
617.1000;0.3166;0.9969;
617.4000;0.3175;0.9969;
617.7000;0.3101;0.9645;
618.0000;0.3166;0.9869;
618.3000;0.3142;0.9819;
618.6000;0.3158;0.9844;
618.9000;0.3126;0.9695;
619.2000;0.3142;0.9794;
619.5000;0.3150;0.9769;
619.8000;0.3142;0.9620;
620.1000;0.3134;0.9620;
620.4000;0.3142;0.9645;
620.7000;0.3142;0.9595;
621.0000;0.3150;0.9570;
621.3000;0.3053;0.9246;
621.6000;0.3166;0.9545;
621.9000;0.3223;0.9720;
622.2000;0.3150;0.9520;
622.5000;0.3142;0.9445;
622.8000;0.3134;0.9595;
623.1000;0.3142;0.9595;
623.4000;0.3223;0.9819;
623.7000;0.3101;0.9495;
624.0000;0.3126;0.9470;
624.3000;0.3118;0.9445;
624.6000;0.3118;0.9346;
624.9000;0.3158;0.9470;
625.2000;0.3134;0.9545;
625.5000;0.3118;0.9520;
625.8000;0.3126;0.9520;
626.1000;0.3085;0.9445;
626.4000;0.2996;0.9271;
626.7000;0.3109;0.9620;
627.0000;0.3101;0.9595;
627.3000;0.3093;0.9595;
627.6000;0.3085;0.9570;
627.9000;0.3109;0.9645;
628.2000;0.3093;0.9570;
628.5000;0.3085;0.9520;
628.8000;0.3085;0.9495;
629.1000;0.3077;0.9545;
629.4000;0.3101;0.9520;
629.7000;0.3085;0.9445;
630.0000;0.3109;0.9520;
630.3000;0.3093;0.9396;
630.6000;0.3093;0.9371;
630.9000;0.3085;0.9396;
631.2000;0.3077;0.9346;
631.5000;0.3085;0.9396;
631.8000;0.3093;0.9445;
632.1000;0.3101;0.9445;
632.4000;0.3101;0.9445;
632.7000;0.3069;0.9371;
633.0000;0.3085;0.9470;
633.3000;0.3093;0.9620;
633.6000;0.3085;0.9570;
633.9000;0.3101;0.9520;
634.2000;0.3085;0.9620;
634.5000;0.3085;0.9570;
634.8000;0.3093;0.9570;
635.1000;0.3077;0.9495;
635.4000;0.3101;0.9495;
635.7000;0.3069;0.9445;
636.0000;0.3085;0.9495;
636.3000;0.3069;0.9545;
636.6000;0.3093;0.9819;
636.9000;0.3093;0.9819;
637.2000;0.3085;0.9744;
637.5000;0.3069;0.9744;
637.8000;0.3085;0.9819;
638.1000;0.3053;0.9769;
638.4000;0.3069;0.9794;
638.7000;0.3028;0.9620;
639.0000;0.3069;0.9620;
639.3000;0.3020;0.9520;
639.6000;0.3053;0.9595;
639.9000;0.3061;0.9670;
640.2000;0.3061;0.9645;
640.5000;0.3044;0.9645;
640.8000;0.3077;0.9720;
641.1000;0.3077;0.9695;
641.4000;0.3077;0.9695;
641.7000;0.2996;0.9470;
642.0000;0.3044;0.9645;
642.3000;0.3061;0.9695;
642.6000;0.3069;0.9695;
642.9000;0.3061;0.9620;
643.2000;0.3061;0.9744;
643.5000;0.3077;0.9744;
643.8000;0.3061;0.9720;
644.1000;0.3077;0.9769;
644.4000;0.3077;0.9769;
644.7000;0.3053;0.9744;
645.0000;0.3069;0.9794;
645.3000;0.3158;1.0068;
645.6000;0.3069;0.9769;
645.9000;0.3061;0.9769;
646.2000;0.3061;0.9794;
646.5000;0.3053;0.9670;
646.8000;0.3061;0.9695;
647.1000;0.3069;0.9670;
647.4000;0.2987;0.9470;
647.7000;0.3053;0.9695;
648.0000;0.3069;0.9744;
648.3000;0.3077;0.9744;
648.6000;0.3053;0.9645;
648.9000;0.3053;0.9595;
649.2000;0.3069;0.9545;
649.5000;0.3077;0.9545;
649.8000;0.3069;0.9570;
650.1000;0.3020;0.9470;
650.4000;0.3044;0.9470;
650.7000;0.3044;0.9495;
651.0000;0.3036;0.9495;
651.3000;0.3044;0.9570;
651.6000;0.3036;0.9495;
651.9000;0.3044;0.9470;
652.2000;0.3077;0.9620;
652.5000;0.3061;0.9595;
652.8000;0.3028;0.9645;
653.1000;0.3044;0.9769;
653.4000;0.3061;0.9894;
653.7000;0.3028;0.9819;
654.0000;0.3028;0.9794;
654.3000;0.3036;0.9769;
654.6000;0.3085;0.9844;
654.9000;0.3053;0.9720;
655.2000;0.3044;0.9744;
655.5000;0.3061;0.9819;
655.8000;0.3036;0.9819;
656.1000;0.3044;0.9819;
656.4000;0.3036;0.9769;
656.7000;0.3028;0.9744;
657.0000;0.3036;0.9819;
657.3000;0.3044;0.9844;
657.6000;0.3028;0.9819;
657.9000;0.3036;0.9869;
658.2000;0.3012;0.9819;
658.5000;0.3061;0.9894;
658.8000;0.3028;0.9844;
659.1000;0.3028;0.9720;
659.4000;0.3004;0.9645;
659.7000;0.3028;0.9769;
660.0000;0.3020;0.9720;
660.3000;0.3020;0.9695;
660.6000;0.3012;0.9769;
660.9000;0.3028;0.9794;
661.2000;0.3028;0.9695;
661.5000;0.3028;0.9720;
661.8000;0.3036;0.9620;
662.1000;0.3028;0.9570;
662.4000;0.3036;0.9570;
662.7000;0.3020;0.9495;
663.0000;0.3020;0.9495;
663.3000;0.3028;0.9620;
663.6000;0.3012;0.9570;
663.9000;0.3012;0.9545;
664.2000;0.3028;0.9695;
664.5000;0.3020;0.9670;
664.8000;0.3020;0.9645;
665.1000;0.3020;0.9645;
665.4000;0.3004;0.9570;
665.7000;0.3012;0.9570;
666.0000;0.3028;0.9695;
666.3000;0.3020;0.9744;
666.6000;0.3012;0.9894;
666.9000;0.3012;0.9869;
667.2000;0.3012;0.9944;
667.5000;0.3020;0.9969;
667.8000;0.3020;0.9969;
668.1000;0.3020;0.9994;
668.4000;0.2996;0.9944;
668.7000;0.3012;1.0068;
669.0000;0.3004;1.0093;
669.3000;0.3012;0.9994;
669.6000;0.3061;0.9994;
669.9000;0.2996;0.9869;
670.2000;0.3004;0.9794;
670.5000;0.3012;0.9769;
670.8000;0.3004;0.9744;
671.1000;0.3012;0.9720;
671.4000;0.3077;0.9819;
671.7000;0.3020;0.9620;
672.0000;0.3004;0.9570;
672.3000;0.2922;0.9296;
672.6000;0.3004;0.9495;
672.9000;0.2996;0.9420;
673.2000;0.3012;0.9545;
673.5000;0.3036;0.9595;
673.8000;0.3012;0.9595;
674.1000;0.3012;0.9695;
674.4000;0.3004;0.9720;
674.7000;0.3020;0.9794;
675.0000;0.3004;0.9744;
675.3000;0.3004;0.9720;
675.6000;0.3004;0.9720;
675.9000;0.2996;0.9620;
676.2000;0.3012;0.9695;
676.5000;0.3020;0.9769;
676.8000;0.3004;0.9670;
677.1000;0.3004;0.9595;
677.4000;0.3004;0.9620;
677.7000;0.3004;0.9620;
678.0000;0.2996;0.9545;
678.3000;0.3004;0.9670;
678.6000;0.3004;0.9595;
678.9000;0.3004;0.9595;
679.2000;0.3004;0.9670;
679.5000;0.2996;0.9620;
679.8000;0.3020;0.9645;
680.1000;0.3012;0.9570;
680.4000;0.3036;0.9695;
680.7000;0.2996;0.9620;
681.0000;0.3004;0.9720;
681.3000;0.3004;0.9720;
681.6000;0.3004;0.9769;
681.9000;0.3004;0.9695;
682.2000;0.3012;0.9620;
682.5000;0.2979;0.9545;
682.8000;0.3012;0.9645;
683.1000;0.2996;0.9620;
683.4000;0.2996;0.9670;
683.7000;0.3012;0.9720;
684.0000;0.3020;0.9720;
684.3000;0.3004;0.9720;
684.6000;0.3004;0.9670;
684.9000;0.2987;0.9595;
685.2000;0.3004;0.9620;
685.5000;0.3004;0.9670;
685.8000;0.2996;0.9670;
686.1000;0.2922;0.9420;
686.4000;0.2979;0.9545;
686.7000;0.3012;0.9570;
687.0000;0.3004;0.9545;
687.3000;0.3012;0.9595;
687.6000;0.2996;0.9570;
687.9000;0.3012;0.9620;
688.2000;0.3028;0.9620;
688.5000;0.2987;0.9595;
688.8000;0.2996;0.9570;
689.1000;0.3004;0.9570;
689.4000;0.3012;0.9620;
689.7000;0.2939;0.9420;
690.0000;0.2979;0.9570;
690.3000;0.3004;0.9670;
690.6000;0.3004;0.9695;
690.9000;0.2996;0.9695;
691.2000;0.2996;0.9744;
691.5000;0.3004;0.9744;
691.8000;0.2987;0.9720;
692.1000;0.3093;0.9969;
692.4000;0.3085;0.9944;
692.7000;0.2979;0.9595;
693.0000;0.2996;0.9620;
693.3000;0.2979;0.9570;
693.6000;0.2987;0.9595;
693.9000;0.2898;0.9321;
694.2000;0.3004;0.9695;
694.5000;0.2996;0.9720;
694.8000;0.2971;0.9695;
695.1000;0.3004;0.9794;
695.4000;0.3012;0.9744;
695.7000;0.3004;0.9695;
696.0000;0.3004;0.9744;
696.3000;0.3028;0.9844;
696.6000;0.2996;0.9869;
696.9000;0.2996;0.9844;
697.2000;0.2987;0.9869;
697.5000;0.3004;0.9794;
697.8000;0.3004;0.9769;
698.1000;0.3004;0.9794;
698.4000;0.2996;0.9744;
698.7000;0.3020;0.9794;
699.0000;0.2996;0.9819;
699.3000;0.3004;0.9819;
699.6000;0.2996;0.9744;
699.9000;0.2979;0.9720;
700.2000;0.2996;0.9695;
700.5000;0.3004;0.9695;
700.8000;0.2971;0.9620;
701.1000;0.2979;0.9720;
701.4000;0.2979;0.9744;
701.7000;0.2987;0.9769;
702.0000;0.3012;0.9794;
702.3000;0.2971;0.9894;
702.6000;0.2987;0.9919;
702.9000;0.2987;0.9969;
703.2000;0.2996;0.9994;
703.5000;0.2963;0.9869;
703.8000;0.2979;0.9894;
704.1000;0.2996;0.9819;
704.4000;0.2971;0.9769;
704.7000;0.2963;0.9720;
705.0000;0.2971;0.9769;
705.3000;0.2987;0.9819;
705.6000;0.2971;0.9744;
705.9000;0.2971;0.9744;
706.2000;0.3004;0.9894;
706.5000;0.3004;0.9844;
706.8000;0.2971;0.9744;
707.1000;0.2996;0.9844;
707.4000;0.2971;0.9744;
707.7000;0.2971;0.9695;
708.0000;0.3004;0.9794;
708.3000;0.2979;0.9769;
708.6000;0.2971;0.9744;
708.9000;0.2971;0.9744;
709.2000;0.2971;0.9794;
709.5000;0.2971;0.9869;
709.8000;0.2963;0.9769;
710.1000;0.2979;0.9720;
710.4000;0.2914;0.9520;
710.7000;0.3036;0.9769;
711.0000;0.2987;0.9570;
711.3000;0.2979;0.9495;
711.6000;0.2971;0.9520;
711.9000;0.2996;0.9620;
712.2000;0.2955;0.9520;
712.5000;0.2971;0.9470;
712.8000;0.3053;0.9695;
713.1000;0.2996;0.9495;
713.4000;0.2890;0.9271;
713.7000;0.2996;0.9670;
714.0000;0.2947;0.9670;
714.3000;0.2996;0.9869;
714.6000;0.2979;0.9844;
714.9000;0.2979;0.9844;
715.2000;0.2971;0.9794;
715.5000;0.2979;0.9869;
715.8000;0.2987;0.9844;
716.1000;0.2955;0.9720;
716.4000;0.2979;0.9670;
716.7000;0.2979;0.9744;
717.0000;0.2979;0.9769;
717.3000;0.2979;0.9769;
717.6000;0.2987;0.9769;
717.9000;0.2971;0.9869;
718.2000;0.2987;0.9894;
718.5000;0.2963;0.9944;
718.8000;0.2963;0.9969;
719.1000;0.2963;0.9919;
719.4000;0.2996;1.0044;
719.7000;0.2987;1.0019;
720.0000;0.2996;0.9969;
720.3000;0.2963;0.9894;
720.6000;0.2979;0.9919;
720.9000;0.2979;0.9844;
721.2000;0.2979;0.9794;
721.5000;0.2971;0.9869;
721.8000;0.2987;0.9894;
722.1000;0.2979;0.9794;
722.4000;0.2979;0.9819;
722.7000;0.2955;0.9744;
723.0000;0.2963;0.9695;
723.3000;0.2971;0.9620;
723.6000;0.2996;0.9695;
723.9000;0.2971;0.9620;
724.2000;0.2963;0.9545;
724.5000;0.2971;0.9645;
724.8000;0.2955;0.9645;
725.1000;0.2971;0.9720;
725.4000;0.2963;0.9595;
725.7000;0.2979;0.9570;
726.0000;0.2979;0.9670;
726.3000;0.2971;0.9645;
726.6000;0.2996;0.9645;
726.9000;0.2979;0.9545;
727.2000;0.2996;0.9595;
727.5000;0.2979;0.9620;
727.8000;0.2971;0.9570;
728.1000;0.2963;0.9595;
728.4000;0.2987;0.9620;
728.7000;0.2987;0.9670;
729.0000;0.2963;0.9620;
729.3000;0.2971;0.9645;
729.6000;0.2873;0.9371;
729.9000;0.2979;0.9720;
730.2000;0.2882;0.9445;
730.5000;0.2947;0.9570;
730.8000;0.2979;0.9645;
731.1000;0.2963;0.9645;
731.4000;0.2979;0.9645;
731.7000;0.3004;0.9720;
732.0000;0.2971;0.9720;
732.3000;0.2979;0.9720;
732.6000;0.3004;0.9744;
732.9000;0.2914;0.9470;
733.2000;0.2979;0.9595;
733.5000;0.2979;0.9545;
733.8000;0.2963;0.9470;
734.1000;0.2963;0.9420;
734.4000;0.2963;0.9470;
734.7000;0.2922;0.9396;
735.0000;0.2979;0.9545;
735.3000;0.2987;0.9545;
735.6000;0.2955;0.9495;
735.9000;0.2939;0.9420;
736.2000;0.2987;0.9545;
736.5000;0.2979;0.9570;
736.8000;0.2971;0.9620;
737.1000;0.2979;0.9720;
737.4000;0.2963;0.9645;
737.7000;0.2865;0.9470;
738.0000;0.2979;0.9794;
738.3000;0.2971;0.9819;
738.6000;0.2987;0.9794;
738.9000;0.2971;0.9869;
739.2000;0.2963;0.9819;
739.5000;0.2955;0.9794;
739.8000;0.2971;0.9819;
740.1000;0.2971;0.9869;
740.4000;0.2996;0.9919;
740.7000;0.2963;0.9744;
741.0000;0.2987;0.9695;
741.3000;0.2963;0.9670;
741.6000;0.2963;0.9645;
741.9000;0.2963;0.9645;
742.2000;0.2979;0.9670;
742.5000;0.2979;0.9744;
742.8000;0.2971;0.9769;
743.1000;0.2971;0.9769;
743.4000;0.2963;0.9819;
743.7000;0.2971;0.9819;
744.0000;0.2963;0.9720;
744.3000;0.2955;0.9720;
744.6000;0.2963;0.9645;
744.9000;0.2971;0.9695;
745.2000;0.2971;0.9794;
745.5000;0.2963;0.9794;
745.8000;0.2971;0.9744;
746.1000;0.2906;0.9595;
746.4000;0.2979;0.9769;
746.7000;0.2914;0.9570;
747.0000;0.2939;0.9695;
747.3000;0.2955;0.9720;
747.6000;0.3020;0.9969;
747.9000;0.2955;0.9794;
748.2000;0.2955;0.9819;
748.5000;0.2963;0.9894;
748.8000;0.2955;0.9769;
749.1000;0.2922;0.9620;
749.4000;0.2939;0.9595;
749.7000;0.2971;0.9720;
750.0000;0.2955;0.9695;
750.3000;0.2963;0.9645;
750.6000;0.2882;0.9396;
750.9000;0.2963;0.9670;
751.2000;0.2971;0.9645;
751.5000;0.2955;0.9670;
751.8000;0.2963;0.9744;
752.1000;0.2963;0.9744;
752.4000;0.2939;0.9595;
752.7000;0.2979;0.9769;
753.0000;0.2971;0.9819;
753.3000;0.2955;0.9720;
753.6000;0.2873;0.9445;
753.9000;0.2955;0.9720;
754.2000;0.2963;0.9720;
754.5000;0.2963;0.9645;
754.8000;0.2963;0.9720;
755.1000;0.2971;0.9744;
755.4000;0.2955;0.9744;
755.7000;0.2971;0.9720;
756.0000;0.2955;0.9670;
756.3000;0.2939;0.9670;
756.6000;0.2979;0.9720;
756.9000;0.2996;0.9819;
757.2000;0.2955;0.9744;
757.5000;0.2963;0.9769;
757.8000;0.2963;0.9720;
758.1000;0.2963;0.9769;
758.4000;0.2955;0.9794;
758.7000;0.2979;0.9819;
759.0000;0.2947;0.9744;
759.3000;0.2947;0.9595;
759.6000;0.2947;0.9645;
759.9000;0.2930;0.9520;
760.2000;0.2930;0.9595;
760.5000;0.2947;0.9645;
760.8000;0.2955;0.9670;
761.1000;0.2955;0.9695;
761.4000;0.2955;0.9695;
761.7000;0.2930;0.9520;
762.0000;0.2947;0.9620;
762.3000;0.2963;0.9670;
762.6000;0.2955;0.9695;
762.9000;0.2971;0.9670;
763.2000;0.2930;0.9545;
763.5000;0.3028;0.9869;
763.8000;0.2963;0.9595;
764.1000;0.2955;0.9620;
764.4000;0.2955;0.9620;
764.7000;0.2947;0.9545;
765.0000;0.2947;0.9620;
765.3000;0.2955;0.9570;
765.6000;0.2963;0.9595;
765.9000;0.2971;0.9670;
766.2000;0.2979;0.9695;
766.5000;0.2963;0.9720;
766.8000;0.2947;0.9744;
767.1000;0.2971;0.9794;
767.4000;0.2963;0.9744;
767.7000;0.2947;0.9645;
768.0000;0.2971;0.9695;
768.3000;0.2947;0.9695;
768.6000;0.2963;0.9695;
768.9000;0.2947;0.9620;
769.2000;0.2947;0.9645;
769.5000;0.2930;0.9720;
769.8000;0.2939;0.9720;
770.1000;0.2939;0.9769;
770.4000;0.2939;0.9819;
770.7000;0.2955;0.9744;
771.0000;0.2947;0.9744;
771.3000;0.2955;0.9720;
771.6000;0.2963;0.9744;
771.9000;0.2947;0.9695;
772.2000;0.2955;0.9720;
772.5000;0.2955;0.9695;
772.8000;0.3004;0.9720;
773.1000;0.2947;0.9595;
773.4000;0.2955;0.9595;
773.7000;0.2930;0.9520;
774.0000;0.2939;0.9570;
774.3000;0.2947;0.9545;
774.6000;0.2996;0.9620;
774.9000;0.2963;0.9570;
775.2000;0.2971;0.9620;
775.5000;0.2939;0.9570;
775.8000;0.2930;0.9520;
776.1000;0.2939;0.9520;
776.4000;0.2939;0.9545;
776.7000;0.2963;0.9570;
777.0000;0.2963;0.9520;
777.3000;0.2955;0.9520;
777.6000;0.2849;0.9271;
777.9000;0.2971;0.9595;
778.2000;0.2955;0.9595;
778.5000;0.2955;0.9570;
778.8000;0.2979;0.9595;
779.1000;0.2930;0.9470;
779.4000;0.2947;0.9695;
779.7000;0.2947;0.9744;
780.0000;0.2947;0.9844;
780.3000;0.2939;0.9819;
780.6000;0.2955;0.9819;
780.9000;0.2939;0.9819;
781.2000;0.2979;0.9794;
781.5000;0.2947;0.9794;
781.8000;0.2979;0.9894;
782.1000;0.2971;0.9919;
782.4000;0.2971;0.9919;
782.7000;0.2955;0.9894;
783.0000;0.2963;0.9844;
783.3000;0.2955;0.9794;
783.6000;0.2947;0.9744;
783.9000;0.2947;0.9744;
784.2000;0.2939;0.9769;
784.5000;0.2955;0.9794;
784.8000;0.2955;0.9794;
785.1000;0.2914;0.9645;
785.4000;0.2930;0.9695;
785.7000;0.2955;0.9794;
786.0000;0.2963;0.9744;
786.3000;0.2947;0.9670;
786.6000;0.2955;0.9695;
786.9000;0.2963;0.9819;
787.2000;0.2987;0.9944;
787.5000;0.2963;0.9844;
787.8000;0.2955;0.9794;
788.1000;0.2963;0.9769;
788.4000;0.2947;0.9819;
788.7000;0.2922;0.9720;
789.0000;0.2939;0.9744;
789.3000;0.2955;0.9695;
789.6000;0.2955;0.9695;
789.9000;0.2939;0.9695;
790.2000;0.2947;0.9744;
790.5000;0.2930;0.9645;
790.8000;0.2955;0.9720;
791.1000;0.2955;0.9720;
791.4000;0.2947;0.9620;
791.7000;0.2939;0.9595;
792.0000;0.2947;0.9570;
792.3000;0.2955;0.9595;
792.6000;0.2914;0.9570;
792.9000;0.2947;0.9645;
793.2000;0.2955;0.9620;
793.5000;0.2930;0.9570;
793.8000;0.2955;0.9595;
794.1000;0.2939;0.9695;
794.4000;0.2947;0.9869;
794.7000;0.2939;0.9844;
795.0000;0.2947;0.9869;
795.3000;0.2947;0.9919;
795.6000;0.2947;0.9794;
795.9000;0.2955;0.9794;
796.2000;0.2963;0.9819;
796.5000;0.2939;0.9744;
796.8000;0.2922;0.9670;
797.1000;0.2955;0.9744;
797.4000;0.2930;0.9720;
797.7000;0.2947;0.9695;
798.0000;0.2947;0.9695;
798.3000;0.2955;0.9769;
798.6000;0.2979;0.9794;
798.9000;0.2922;0.9645;
799.2000;0.2939;0.9670;
799.5000;0.2939;0.9670;
799.8000;0.2963;0.9720;
800.1000;0.2947;0.9695;
800.4000;0.2939;0.9744;
800.7000;0.2939;0.9819;
801.0000;0.2963;0.9919;
801.3000;0.2947;0.9869;
801.6000;0.2947;0.9894;
801.9000;0.2963;0.9944;
802.2000;0.2971;0.9944;
802.5000;0.3004;0.9919;
802.8000;0.2955;0.9819;
803.1000;0.2939;0.9844;
803.4000;0.2971;0.9969;
803.7000;0.2849;0.9645;
804.0000;0.2939;0.9819;
804.3000;0.2939;0.9844;
804.6000;0.2939;0.9794;
804.9000;0.2882;0.9620;
805.2000;0.2947;0.9819;
805.5000;0.2939;0.9720;
805.8000;0.2955;0.9744;
806.1000;0.2914;0.9595;
806.4000;0.2930;0.9645;
806.7000;0.2930;0.9670;
807.0000;0.2987;0.9794;
807.3000;0.2947;0.9645;
807.6000;0.2930;0.9720;
807.9000;0.2939;0.9769;
808.2000;0.2955;0.9819;
808.5000;0.2947;0.9769;
808.8000;0.2922;0.9744;
809.1000;0.2922;0.9744;
809.4000;0.2930;0.9794;
809.7000;0.2914;0.9769;
810.0000;0.2987;0.9994;
810.3000;0.2922;0.9819;
810.6000;0.2930;0.9819;
810.9000;0.2996;0.9919;
811.2000;0.2947;0.9720;
811.5000;0.2947;0.9794;
811.8000;0.2947;0.9844;
812.1000;0.2955;0.9869;
812.4000;0.2939;0.9894;
812.7000;0.2955;0.9969;
813.0000;0.2930;0.9969;
813.3000;0.2947;0.9994;
813.6000;0.2947;1.0019;
813.9000;0.2939;1.0068;
814.2000;0.2939;1.0093;
814.5000;0.2963;1.0143;
814.8000;0.2947;1.0143;
815.1000;0.2955;1.0068;
815.4000;0.2939;0.9994;
815.7000;0.2955;0.9994;
816.0000;0.2955;1.0019;
816.3000;0.2955;0.9994;
816.6000;0.2955;1.0068;
816.9000;0.2939;1.0019;
817.2000;0.2963;1.0044;
817.5000;0.2939;0.9944;
817.8000;0.2947;0.9894;
818.1000;0.2947;0.9894;
818.4000;0.2939;0.9894;
818.7000;0.2939;0.9844;
819.0000;0.2930;0.9794;
819.3000;0.2947;0.9794;
819.6000;0.2955;0.9969;
819.9000;0.2922;0.9894;
820.2000;0.2922;0.9969;
820.5000;0.2939;1.0044;
820.8000;0.2939;1.0068;
821.1000;0.2939;1.0068;
821.4000;0.2963;1.0068;
821.7000;0.3020;1.0193;
822.0000;0.2971;1.0068;
822.3000;0.2939;0.9919;
822.6000;0.2939;0.9919;
822.9000;0.2930;0.9919;
823.2000;0.2930;0.9944;
823.5000;0.2930;0.9919;
823.8000;0.2947;0.9969;
824.1000;0.2930;0.9869;
824.4000;0.2914;0.9794;
824.7000;0.2906;0.9769;
825.0000;0.2947;0.9869;
825.3000;0.2939;0.9844;
825.6000;0.2963;0.9944;
825.9000;0.2947;0.9894;
826.2000;0.2947;0.9994;
826.5000;0.2922;0.9994;
826.8000;0.2930;1.0044;
827.1000;0.2955;1.0118;
827.4000;0.2947;1.0068;
827.7000;0.2833;0.9894;
828.0000;0.2955;1.0143;
828.3000;0.2947;1.0019;
828.6000;0.2890;0.9819;
828.9000;0.2947;0.9969;
829.2000;0.2996;1.0168;
829.5000;0.2955;1.0044;
829.8000;0.2947;0.9969;
830.1000;0.2955;0.9994;
830.4000;0.2947;0.9944;
830.7000;0.2922;0.9869;
831.0000;0.2930;0.9944;
831.3000;0.2955;1.0019;
831.6000;0.2955;0.9919;
831.9000;0.2947;0.9894;
832.2000;0.2939;0.9819;
832.5000;0.2963;0.9844;
832.8000;0.2939;0.9869;
833.1000;0.2922;0.9919;
833.4000;0.2930;0.9944;
833.7000;0.2939;0.9969;
834.0000;0.2963;0.9994;
834.3000;0.2922;0.9819;
834.6000;0.2922;0.9819;
834.9000;0.2930;0.9744;
835.2000;0.2930;0.9695;
835.5000;0.2939;0.9695;
835.8000;0.2930;0.9620;
836.1000;0.2939;0.9595;
836.4000;0.2987;0.9769;
836.7000;0.2955;0.9844;
837.0000;0.2930;0.9819;
837.3000;0.2947;0.9919;
837.6000;0.2939;0.9919;
837.9000;0.2930;0.9894;
838.2000;0.2939;0.9844;
838.5000;0.2947;0.9819;
838.8000;0.2955;0.9894;
839.1000;0.2939;0.9844;
839.4000;0.2947;0.9869;
839.7000;0.2922;0.9869;
840.0000;0.2930;0.9919;
840.3000;0.2947;0.9969;
840.6000;0.2930;0.9944;
840.9000;0.2914;0.9844;
841.2000;0.2930;0.9894;
841.5000;0.2947;0.9894;
841.8000;0.2939;0.9969;
842.1000;0.2939;0.9994;
842.4000;0.2939;0.9969;
842.7000;0.2947;0.9944;
843.0000;0.2930;0.9894;
843.3000;0.2930;0.9894;
843.6000;0.2865;0.9670;
843.9000;0.2939;0.9869;
844.2000;0.2955;0.9869;
844.5000;0.2955;0.9769;
844.8000;0.2914;0.9695;
845.1000;0.2955;0.9819;
845.4000;0.2882;0.9670;
845.7000;0.2939;0.9894;
846.0000;0.2914;0.9869;
846.3000;0.2922;0.9919;
846.6000;0.2922;0.9844;
846.9000;0.2833;0.9645;
847.2000;0.2922;0.9769;
847.5000;0.2939;0.9720;
847.8000;0.2939;0.9819;
848.1000;0.2882;0.9645;
848.4000;0.2939;0.9819;
848.7000;0.2906;0.9794;
849.0000;0.2939;0.9744;
849.3000;0.2922;0.9645;
849.6000;0.2930;0.9620;
849.9000;0.2930;0.9595;
850.2000;0.2922;0.9620;
850.5000;0.2939;0.9570;
850.8000;0.2930;0.9595;
851.1000;0.2947;0.9595;
851.4000;0.2922;0.9520;
851.7000;0.2898;0.9445;
852.0000;0.2947;0.9520;
852.3000;0.2930;0.9570;
852.6000;0.2939;0.9570;
852.9000;0.2939;0.9570;
853.2000;0.2963;0.9695;
853.5000;0.2939;0.9620;
853.8000;0.2930;0.9595;
854.1000;0.2947;0.9645;
854.4000;0.2930;0.9620;
854.7000;0.2930;0.9670;
855.0000;0.2939;0.9794;
855.3000;0.2947;0.9894;
855.6000;0.2939;0.9844;
855.9000;0.2930;0.9720;
856.2000;0.2922;0.9695;
856.5000;0.2963;0.9769;
856.8000;0.2939;0.9670;
857.1000;0.2947;0.9695;
857.4000;0.2939;0.9695;
857.7000;0.2930;0.9695;
858.0000;0.2947;0.9744;
858.3000;0.2939;0.9844;
858.6000;0.2939;0.9794;
858.9000;0.2914;0.9819;
859.2000;0.2930;0.9819;
859.5000;0.2825;0.9645;
859.8000;0.2922;0.9894;
860.1000;0.2930;0.9994;
860.4000;0.2930;0.9994;
860.7000;0.2930;1.0019;
861.0000;0.2930;1.0019;
861.3000;0.2947;1.0044;
861.6000;0.2922;0.9944;
861.9000;0.2947;0.9994;
862.2000;0.2947;0.9994;
862.5000;0.2947;1.0068;
862.8000;0.2955;1.0019;
863.1000;0.2947;1.0019;
863.4000;0.2922;0.9969;
863.7000;0.2930;1.0019;
864.0000;0.2930;0.9969;
864.3000;0.2947;0.9994;
864.6000;0.3004;1.0118;
864.9000;0.2939;0.9994;
865.2000;0.2939;1.0019;
865.5000;0.2922;1.0093;
865.8000;0.2939;1.0093;
866.1000;0.2914;0.9844;
866.4000;0.2939;0.9944;
866.7000;0.2898;0.9769;
867.0000;0.2963;0.9969;
867.3000;0.2939;0.9894;
867.6000;0.2865;0.9720;
867.9000;0.2922;0.9794;
868.2000;0.2971;0.9944;
868.5000;0.2930;0.9894;
868.8000;0.2987;1.0093;
869.1000;0.2930;0.9994;
869.4000;0.2939;0.9969;
869.7000;0.2906;0.9919;
870.0000;0.2922;0.9894;
870.3000;0.2922;0.9944;
870.6000;0.2930;0.9919;
870.9000;0.2930;0.9919;
871.2000;0.2930;0.9869;
871.5000;0.2930;0.9894;
871.8000;0.2939;0.9869;
872.1000;0.2939;0.9819;
872.4000;0.2930;0.9844;
872.7000;0.2922;0.9769;
873.0000;0.2930;0.9894;
873.3000;0.2922;0.9819;
873.6000;0.2922;0.9894;
873.9000;0.2947;0.9969;
874.2000;0.2939;0.9944;
874.5000;0.2939;0.9919;
874.8000;0.2947;0.9944;
875.1000;0.2930;0.9944;
875.4000;0.2906;0.9894;
875.7000;0.2939;0.9969;
876.0000;0.2947;0.9919;
876.3000;0.2922;0.9844;
876.6000;0.2939;0.9919;
876.9000;0.2857;0.9720;
877.2000;0.2987;1.0093;
877.5000;0.2939;0.9994;
877.8000;0.2914;0.9869;
878.1000;0.2914;0.9894;
878.4000;0.2939;0.9919;
878.7000;0.2922;0.9919;
879.0000;0.2930;0.9919;
879.3000;0.2955;0.9994;
879.6000;0.2906;0.9919;
879.9000;0.2922;0.9869;
880.2000;0.2914;0.9894;
880.5000;0.2857;0.9744;
880.8000;0.2930;1.0019;
881.1000;0.2939;1.0019;
881.4000;0.2930;1.0019;
881.7000;0.2922;0.9894;
882.0000;0.2939;0.9944;
882.3000;0.2939;0.9894;
882.6000;0.2930;0.9844;
882.9000;0.2947;0.9869;
883.2000;0.2939;0.9844;
883.5000;0.2947;0.9794;
883.8000;0.2930;0.9744;
884.1000;0.2955;0.9819;
884.4000;0.2922;0.9744;
884.7000;0.2930;0.9695;
885.0000;0.2922;0.9670;
885.3000;0.2930;0.9720;
885.6000;0.2930;0.9645;
885.9000;0.2939;0.9720;
886.2000;0.2922;0.9744;
886.5000;0.2922;0.9744;
886.8000;0.2914;0.9720;
887.1000;0.2930;0.9744;
887.4000;0.2939;0.9769;
887.7000;0.2922;0.9744;
888.0000;0.2922;0.9794;
888.3000;0.2939;0.9919;
888.6000;0.2955;0.9969;
888.9000;0.2930;0.9969;
889.2000;0.2930;0.9944;
889.5000;0.2922;0.9869;
889.8000;0.2922;0.9819;
890.1000;0.2898;0.9769;
890.4000;0.2882;0.9695;
890.7000;0.2971;0.9994;
891.0000;0.2882;0.9794;
891.3000;0.2914;0.9794;
891.6000;0.2939;0.9869;
891.9000;0.2939;0.9894;
892.2000;0.2914;0.9894;
892.5000;0.2947;0.9869;
892.8000;0.2914;0.9794;
893.1000;0.2914;0.9794;
893.4000;0.2930;0.9819;
893.7000;0.2914;0.9819;
894.0000;0.2922;0.9819;
894.3000;0.2947;0.9894;
894.6000;0.2939;0.9894;
894.9000;0.2922;0.9769;
895.2000;0.2906;0.9769;
895.5000;0.2930;0.9794;
895.8000;0.2922;0.9720;
896.1000;0.2906;0.9720;
896.4000;0.2930;0.9769;
896.7000;0.2922;0.9744;
897.0000;0.2947;0.9794;
897.3000;0.2939;0.9794;
897.6000;0.2922;0.9794;
897.9000;0.2930;0.9794;
898.2000;0.2906;0.9744;
898.5000;0.2939;0.9819;
898.8000;0.2922;0.9794;
899.1000;0.2922;0.9794;
899.4000;0.3004;0.9969;
899.7000;0.2914;0.9769;
900.0000;0.2930;0.9794;
900.3000;0.2922;0.9819;
900.6000;0.2930;0.9769;
900.9000;0.2930;0.9769;
901.2000;0.2930;0.9769;
901.5000;0.2882;0.9520;
901.8000;0.2930;0.9520;
902.1000;0.2890;0.9396;
902.4000;0.2930;0.9520;
902.7000;0.2947;0.9695;
903.0000;0.2939;0.9720;
903.3000;0.2963;0.9769;
903.6000;0.2930;0.9744;
903.9000;0.2939;0.9744;
904.2000;0.2963;0.9769;
904.5000;0.2955;0.9769;
904.8000;0.2914;0.9570;
905.1000;0.2947;0.9720;
905.4000;0.2922;0.9769;
905.7000;0.2922;0.9720;
906.0000;0.2922;0.9720;
906.3000;0.2930;0.9720;
906.6000;0.2922;0.9695;
906.9000;0.2922;0.9670;
907.2000;0.2922;0.9844;
907.5000;0.2979;0.9969;
907.8000;0.2914;0.9744;
908.1000;0.2922;0.9670;
908.4000;0.2930;0.9570;
908.7000;0.2930;0.9595;
909.0000;0.2939;0.9645;
909.3000;0.3044;0.9944;
909.6000;0.2914;0.9545;
909.9000;0.2922;0.9670;
910.2000;0.2939;0.9645;
910.5000;0.2930;0.9570;
910.8000;0.2947;0.9570;
911.1000;0.2922;0.9570;
911.4000;0.2922;0.9620;
911.7000;0.2947;0.9744;
912.0000;0.2922;0.9595;
912.3000;0.2914;0.9670;
912.6000;0.2930;0.9744;
912.9000;0.2939;0.9819;
913.2000;0.2930;0.9819;
913.5000;0.2922;0.9769;
913.8000;0.2930;0.9794;
914.1000;0.2930;0.9720;
914.4000;0.2857;0.9520;
914.7000;0.2939;0.9744;
915.0000;0.2930;0.9819;
915.3000;0.2963;0.9919;
915.6000;0.2922;0.9894;
915.9000;0.2914;0.9919;
916.2000;0.2914;0.9944;
916.5000;0.2930;0.9894;
916.8000;0.2922;0.9919;
917.1000;0.2922;0.9844;
917.4000;0.2947;0.9844;
917.7000;0.2930;0.9869;
918.0000;0.2906;0.9844;
918.3000;0.2987;1.0044;
918.6000;0.2914;0.9794;
918.9000;0.2930;0.9869;
919.2000;0.2930;0.9919;
919.5000;0.2971;1.0093;
919.8000;0.2922;0.9944;
920.1000;0.2906;0.9894;
920.4000;0.2930;0.9944;
920.7000;0.2865;0.9769;
921.0000;0.2930;0.9919;
921.3000;0.2922;0.9944;
921.6000;0.2947;0.9994;
921.9000;0.2914;1.0019;
922.2000;0.2816;0.9794;
922.5000;0.2979;1.0168;
922.8000;0.2922;0.9944;
923.1000;0.2947;0.9869;
923.4000;0.2930;0.9769;
923.7000;0.2947;0.9819;
924.0000;0.2939;0.9844;
924.3000;0.2930;0.9844;
924.6000;0.2939;0.9819;
924.9000;0.2914;0.9744;
925.2000;0.2930;0.9844;
925.5000;0.2906;0.9844;
925.8000;0.2914;0.9869;
926.1000;0.2873;0.9744;
926.4000;0.2922;0.9869;
926.7000;0.2906;0.9720;
927.0000;0.2882;0.9620;
927.3000;0.2939;0.9744;
927.6000;0.2939;0.9695;
927.9000;0.2930;0.9769;
928.2000;0.2922;0.9720;
928.5000;0.2955;0.9844;
928.8000;0.2922;0.9769;
929.1000;0.2930;0.9769;
929.4000;0.2939;0.9744;
929.7000;0.2914;0.9695;
930.0000;0.2922;0.9744;
930.3000;0.2914;0.9794;
930.6000;0.2930;0.9844;
930.9000;0.2930;0.9894;
931.2000;0.2906;0.9869;
931.5000;0.2906;0.9819;
931.8000;0.2930;0.9869;
932.1000;0.2922;0.9869;
932.4000;0.2914;0.9844;
932.7000;0.2906;0.9919;
933.0000;0.2922;0.9944;
933.3000;0.2922;0.9919;
933.6000;0.2914;0.9869;
933.9000;0.2890;0.9720;
934.2000;0.2939;0.9919;
934.5000;0.2922;0.9969;
934.8000;0.2906;0.9894;
935.1000;0.2930;0.9919;
935.4000;0.2898;0.9819;
935.7000;0.2955;0.9944;
936.0000;0.2930;0.9944;
936.3000;0.2922;0.9919;
936.6000;0.2906;0.9844;
936.9000;0.2922;0.9769;
937.2000;0.2939;0.9744;
937.5000;0.2914;0.9744;
937.8000;0.2914;0.9794;
938.1000;0.2930;0.9844;
938.4000;0.2939;0.9919;
938.7000;0.2922;0.9919;
939.0000;0.2914;0.9919;
939.3000;0.2898;0.9844;
939.6000;0.2922;0.9919;
939.9000;0.2865;0.9769;
940.2000;0.2955;0.9969;
940.5000;0.2922;0.9794;
940.8000;0.2930;0.9794;
941.1000;0.2939;0.9819;
941.4000;0.2947;0.9844;
941.7000;0.2971;0.9944;
942.0000;0.2939;0.9869;
942.3000;0.2808;0.9520;
942.6000;0.2955;0.9869;
942.9000;0.2898;0.9769;
943.2000;0.3004;1.0068;
943.5000;0.2939;0.9869;
943.8000;0.2914;0.9769;
944.1000;0.2906;0.9794;
944.4000;0.2930;0.9794;
944.7000;0.2898;0.9769;
945.0000;0.2914;0.9744;
945.3000;0.2922;0.9670;
945.6000;0.2922;0.9720;
945.9000;0.2939;0.9744;
946.2000;0.2914;0.9720;
946.5000;0.2906;0.9595;
946.8000;0.2914;0.9545;
947.1000;0.2922;0.9545;
947.4000;0.2906;0.9470;
947.7000;0.2922;0.9545;
948.0000;0.2922;0.9520;
948.3000;0.2930;0.9570;
948.6000;0.2922;0.9620;
948.9000;0.2914;0.9495;
949.2000;0.2930;0.9495;
949.5000;0.2939;0.9520;
949.8000;0.2922;0.9420;
950.1000;0.2922;0.9445;
950.4000;0.2939;0.9445;
950.7000;0.2922;0.9371;
951.0000;0.2939;0.9495;
951.3000;0.2930;0.9545;
951.6000;0.2922;0.9545;
951.9000;0.2906;0.9570;
952.2000;0.2930;0.9645;
952.5000;0.2906;0.9595;
952.8000;0.2914;0.9570;
953.1000;0.2930;0.9645;
953.4000;0.2947;0.9645;
953.7000;0.2939;0.9744;
954.0000;0.2955;0.9819;
954.3000;0.2930;0.9819;
954.6000;0.2922;0.9744;
954.9000;0.2939;0.9794;
955.2000;0.2914;0.9720;
955.5000;0.2906;0.9720;
955.8000;0.2914;0.9819;
956.1000;0.2930;0.9819;
956.4000;0.2930;0.9869;
956.7000;0.2922;0.9844;
957.0000;0.2930;0.9819;
957.3000;0.2922;0.9744;
957.6000;0.2930;0.9695;
957.9000;0.2914;0.9645;
958.2000;0.2906;0.9645;
958.5000;0.2922;0.9670;
958.8000;0.2922;0.9720;
959.1000;0.2955;0.9769;
959.4000;0.2963;0.9794;
959.7000;0.2971;0.9794;
960.0000;0.2939;0.9645;
960.3000;0.2939;0.9595;
960.6000;0.2841;0.9296;
960.9000;0.2930;0.9620;
961.2000;0.2930;0.9695;
961.5000;0.2857;0.9570;
961.8000;0.2930;0.9769;
962.1000;0.2939;0.9744;
962.4000;0.2930;0.9794;
962.7000;0.2996;0.9869;
963.0000;0.2947;0.9744;
963.3000;0.2930;0.9620;
963.6000;0.2939;0.9645;
963.9000;0.2996;0.9894;
964.2000;0.2898;0.9570;
964.5000;0.2922;0.9670;
964.8000;0.2930;0.9645;
965.1000;0.2947;0.9620;
965.4000;0.2963;0.9570;
965.7000;0.2914;0.9470;
966.0000;0.2922;0.9570;
966.3000;0.2947;0.9645;
966.6000;0.2939;0.9670;
966.9000;0.2922;0.9670;
967.2000;0.2939;0.9670;
967.5000;0.2955;0.9744;
967.8000;0.2922;0.9670;
968.1000;0.2930;0.9670;
968.4000;0.2930;0.9794;
968.7000;0.2947;0.9844;
969.0000;0.2987;1.0044;
969.3000;0.2930;0.9919;
969.6000;0.2914;0.9869;
969.9000;0.2833;0.9670;
970.2000;0.2930;0.9919;
970.5000;0.2930;0.9894;
970.8000;0.2906;0.9894;
971.1000;0.2914;0.9794;
971.4000;0.2930;0.9794;
971.7000;0.2922;0.9844;
972.0000;0.2906;0.9769;
972.3000;0.2914;0.9769;
972.6000;0.2930;0.9794;
972.9000;0.2930;0.9744;
973.2000;0.2930;0.9819;
973.5000;0.2922;0.9819;
973.8000;0.2930;0.9869;
974.1000;0.2922;0.9819;
974.4000;0.3036;1.0118;
974.7000;0.2939;0.9720;
975.0000;0.2906;0.9744;
975.3000;0.2947;0.9819;
975.6000;0.2906;0.9645;
975.9000;0.2906;0.9769;
976.2000;0.2906;0.9744;
976.5000;0.2914;0.9744;
976.8000;0.2906;0.9695;
977.1000;0.2914;0.9645;
977.4000;0.2930;0.9720;
977.7000;0.2930;0.9695;
978.0000;0.2922;0.9670;
978.3000;0.2930;0.9720;
978.6000;0.2922;0.9720;
978.9000;0.2922;0.9695;
979.2000;0.2930;0.9645;
979.5000;0.2914;0.9520;
979.8000;0.2930;0.9570;
980.1000;0.2914;0.9520;
980.4000;0.2930;0.9645;
980.7000;0.2922;0.9620;
981.0000;0.2906;0.9545;
981.3000;0.2922;0.9620;
981.6000;0.2914;0.9620;
981.9000;0.2922;0.9620;
982.2000;0.2922;0.9670;
982.5000;0.2922;0.9620;
982.8000;0.2922;0.9570;
983.1000;0.2922;0.9495;
983.4000;0.2922;0.9420;
983.7000;0.2922;0.9371;
984.0000;0.2930;0.9520;
984.3000;0.2930;0.9520;
984.6000;0.2971;0.9645;
984.9000;0.2922;0.9545;
985.2000;0.2922;0.9645;
985.5000;0.2914;0.9620;
985.8000;0.2922;0.9695;
986.1000;0.2906;0.9720;
986.4000;0.2914;0.9744;
986.7000;0.2922;0.9744;
987.0000;0.2922;0.9769;
987.3000;0.2898;0.9670;
987.6000;0.2922;0.9769;
987.9000;0.2914;0.9720;
988.2000;0.2930;0.9645;
988.5000;0.2930;0.9695;
988.8000;0.2914;0.9620;
989.1000;0.2939;0.9595;
989.4000;0.2922;0.9570;
989.7000;0.2971;0.9695;
990.0000;0.2922;0.9570;
990.3000;0.2955;0.9645;
990.6000;0.2914;0.9495;
990.9000;0.2922;0.9445;
991.2000;0.2914;0.9620;
991.5000;0.2922;0.9670;
991.8000;0.2922;0.9645;
992.1000;0.2914;0.9570;
992.4000;0.2971;0.9695;
992.7000;0.2939;0.9545;
993.0000;0.2922;0.9470;
993.3000;0.2971;0.9620;
993.6000;0.2930;0.9495;
993.9000;0.2906;0.9570;
994.2000;0.2922;0.9670;
994.5000;0.2914;0.9744;
994.8000;0.2930;0.9695;
995.1000;0.2922;0.9645;
995.4000;0.2939;0.9620;
995.7000;0.2930;0.9545;
996.0000;0.2922;0.9570;
996.3000;0.2914;0.9620;
996.6000;0.2914;0.9595;
996.9000;0.2922;0.9620;
997.2000;0.2906;0.9570;
997.5000;0.2906;0.9570;
997.8000;0.2922;0.9545;
998.1000;0.2930;0.9670;
998.4000;0.2939;0.9744;
998.7000;0.2914;0.9720;
999.0000;0.2914;0.9695;
999.3000;0.2939;0.9720;
999.6000;0.2914;0.9545;
999.9000;0.2906;0.9520;
1000.2000;0.2930;0.9645;
1000.5000;0.2865;0.9520;
1000.8000;0.2922;0.9595;
1001.1000;0.2906;0.9620;
1001.4000;0.2922;0.9695;
1001.7000;0.2906;0.9645;
1002.0000;0.2922;0.9695;
1002.3000;0.2906;0.9620;
1002.6000;0.2914;0.9645;
1002.9000;0.2947;0.9670;
1003.2000;0.2922;0.9570;
1003.5000;0.2906;0.9620;
1003.8000;0.2898;0.9670;
1004.1000;0.2914;0.9744;
1004.4000;0.2939;0.9794;
1004.7000;0.2922;0.9769;
1005.0000;0.2906;0.9670;
1005.3000;0.2906;0.9744;
1005.6000;0.2922;0.9769;
1005.9000;0.2939;0.9819;
1006.2000;0.2922;0.9720;
1006.5000;0.2906;0.9720;
1006.8000;0.2930;0.9695;
1007.1000;0.2914;0.9645;
1007.4000;0.2930;0.9670;
1007.7000;0.2947;0.9720;
1008.0000;0.2906;0.9670;
1008.3000;0.2947;0.9769;
1008.6000;0.2914;0.9720;
1008.9000;0.2922;0.9819;
1009.2000;0.3028;1.0093;
1009.5000;0.2930;0.9869;
1009.8000;0.2914;0.9819;
1010.1000;0.2906;0.9695;
1010.4000;0.2914;0.9744;
1010.7000;0.2914;0.9720;
1011.0000;0.2914;0.9744;
1011.3000;0.2922;0.9794;
1011.6000;0.2922;0.9844;
1011.9000;0.2914;0.9744;
1012.2000;0.2939;0.9769;
1012.5000;0.2906;0.9595;
1012.8000;0.2922;0.9595;
1013.1000;0.2930;0.9595;
1013.4000;0.2930;0.9520;
1013.7000;0.2930;0.9495;
1014.0000;0.2922;0.9520;
1014.3000;0.2922;0.9470;
1014.6000;0.2939;0.9495;
1014.9000;0.2914;0.9371;
1015.2000;0.2930;0.9396;
1015.5000;0.2914;0.9396;
1015.8000;0.2963;0.9520;
1016.1000;0.2922;0.9445;
1016.4000;0.2906;0.9371;
1016.7000;0.2914;0.9445;
1017.0000;0.2939;0.9570;
1017.3000;0.2922;0.9595;
1017.6000;0.2922;0.9620;
1017.9000;0.2914;0.9595;
1018.2000;0.2930;0.9670;
1018.5000;0.2930;0.9670;
1018.8000;0.2922;0.9695;
1019.1000;0.2914;0.9720;
1019.4000;0.2906;0.9620;
1019.7000;0.2939;0.9620;
1020.0000;0.2914;0.9595;
1020.3000;0.2922;0.9670;
1020.6000;0.2914;0.9620;
1020.9000;0.2939;0.9744;
1021.2000;0.2930;0.9720;
1021.5000;0.2914;0.9720;
1021.8000;0.2930;0.9794;
1022.1000;0.2914;0.9769;
1022.4000;0.2922;0.9769;
1022.7000;0.2930;0.9819;
1023.0000;0.2914;0.9819;
1023.3000;0.2922;0.9944;
1023.6000;0.2930;0.9944;
1023.9000;0.2947;0.9894;
1024.2000;0.2906;0.9844;
1024.5000;0.2922;0.9844;
1024.8000;0.2930;0.9919;
1025.1000;0.2898;0.9869;
1025.4000;0.2906;0.9869;
1025.7000;0.2914;0.9769;
1026.0000;0.2930;0.9869;
1026.3000;0.2914;0.9769;
1026.6000;0.2906;0.9744;
1026.9000;0.2914;0.9769;
1027.2000;0.2914;0.9869;
1027.5000;0.2906;0.9844;
1027.8000;0.2898;0.9744;
1028.1000;0.2922;0.9794;
1028.4000;0.2914;0.9720;
1028.7000;0.2906;0.9794;
1029.0000;0.2922;0.9695;
1029.3000;0.2914;0.9595;
1029.6000;0.2922;0.9595;
1029.9000;0.2930;0.9545;
1030.2000;0.2922;0.9570;
1030.5000;0.2906;0.9620;
1030.8000;0.2939;0.9695;
1031.1000;0.2922;0.9695;
1031.4000;0.2987;0.9944;
1031.7000;0.2914;0.9769;
1032.0000;0.2922;0.9720;
1032.3000;0.2922;0.9645;
1032.6000;0.2955;0.9744;
1032.9000;0.2939;0.9869;
1033.2000;0.2939;0.9869;
1033.5000;0.2882;0.9744;
1033.8000;0.2914;0.9720;
1034.1000;0.2922;0.9695;
1034.4000;0.2914;0.9570;
1034.7000;0.2930;0.9620;
1035.0000;0.2939;0.9645;
1035.3000;0.2939;0.9595;
1035.6000;0.2914;0.9470;
1035.9000;0.2914;0.9470;
1036.2000;0.3012;0.9695;
1036.5000;0.2922;0.9371;
1036.8000;0.2922;0.9470;
1037.1000;0.2906;0.9495;
1037.4000;0.2890;0.9371;
1037.7000;0.2914;0.9470;
1038.0000;0.2914;0.9570;
1038.3000;0.2882;0.9495;
1038.6000;0.2922;0.9595;
1038.9000;0.2930;0.9670;
1039.2000;0.2906;0.9595;
1039.5000;0.2922;0.9695;
1039.8000;0.2914;0.9695;
1040.1000;0.2922;0.9720;
1040.4000;0.2947;0.9744;
1040.7000;0.2922;0.9670;
1041.0000;0.2914;0.9620;
1041.3000;0.2930;0.9744;
1041.6000;0.2922;0.9695;
1041.9000;0.2914;0.9595;
1042.2000;0.2922;0.9595;
1042.5000;0.2922;0.9595;
1042.8000;0.2906;0.9645;
1043.1000;0.2906;0.9570;
1043.4000;0.2914;0.9645;
1043.7000;0.2947;0.9769;
1044.0000;0.2914;0.9695;
1044.3000;0.2930;0.9620;
1044.6000;0.2898;0.9545;
1044.9000;0.2914;0.9545;
1045.2000;0.2922;0.9570;
1045.5000;0.2914;0.9520;
1045.8000;0.2906;0.9470;
1046.1000;0.2906;0.9570;
1046.4000;0.2922;0.9595;
1046.7000;0.2922;0.9620;
1047.0000;0.2906;0.9670;
1047.3000;0.2914;0.9720;
1047.6000;0.2922;0.9695;
1047.9000;0.2898;0.9670;
1048.2000;0.2890;0.9570;
1048.5000;0.2914;0.9645;
1048.8000;0.2914;0.9720;
1049.1000;0.2914;0.9695;
1049.4000;0.2922;0.9570;
1049.7000;0.2906;0.9570;
1050.0000;0.2914;0.9645;
1050.3000;0.2914;0.9720;
1050.6000;0.2906;0.9720;
1050.9000;0.2849;0.9520;
1051.2000;0.2898;0.9595;
1051.5000;0.2906;0.9595;
1051.8000;0.2906;0.9645;
1052.1000;0.2930;0.9670;
1052.4000;0.2898;0.9620;
1052.7000;0.2930;0.9744;
1053.0000;0.2930;0.9769;
1053.3000;0.2914;0.9744;
1053.6000;0.2914;0.9769;
1053.9000;0.2873;0.9695;
1054.2000;0.2939;0.9894;
1054.5000;0.2825;0.9545;
1054.8000;0.2939;0.9894;
1055.1000;0.2922;0.9819;
1055.4000;0.2914;0.9720;
1055.7000;0.2914;0.9720;
1056.0000;0.2890;0.9645;
1056.3000;0.2922;0.9645;
1056.6000;0.2914;0.9695;
1056.9000;0.2914;0.9645;
1057.2000;0.2898;0.9620;
1057.5000;0.2906;0.9645;
1057.8000;0.2930;0.9620;
1058.1000;0.2914;0.9570;
1058.4000;0.2914;0.9595;
1058.7000;0.2930;0.9545;
1059.0000;0.2939;0.9645;
1059.3000;0.2857;0.9495;
1059.6000;0.2922;0.9670;
1059.9000;0.2865;0.9645;
1060.2000;0.2898;0.9744;
1060.5000;0.2922;0.9645;
1060.8000;0.2914;0.9570;
1061.1000;0.2922;0.9520;
1061.4000;0.2922;0.9545;
1061.7000;0.2930;0.9520;
1062.0000;0.2922;0.9570;
1062.3000;0.2865;0.9445;
1062.6000;0.2914;0.9520;
1062.9000;0.2930;0.9595;
1063.2000;0.2930;0.9595;
1063.5000;0.2914;0.9545;
1063.8000;0.2922;0.9545;
1064.1000;0.2922;0.9545;
1064.4000;0.2930;0.9470;
1064.7000;0.2930;0.9445;
1065.0000;0.2922;0.9445;
1065.3000;0.2914;0.9420;
1065.6000;0.2914;0.9470;
1065.9000;0.2922;0.9445;
1066.2000;0.2914;0.9445;
1066.5000;0.2922;0.9371;
1066.8000;0.2890;0.9296;
1067.1000;0.2914;0.9371;
1067.4000;0.2865;0.9271;
1067.7000;0.2906;0.9296;
1068.0000;0.2930;0.9371;
1068.3000;0.2906;0.9321;
1068.6000;0.2906;0.9296;
1068.9000;0.2906;0.9271;
1069.2000;0.2914;0.9321;
1069.5000;0.2890;0.9321;
1069.8000;0.2922;0.9470;
1070.1000;0.2898;0.9520;
1070.4000;0.2841;0.9396;
1070.7000;0.2833;0.9445;
1071.0000;0.2922;0.9695;
1071.3000;0.2914;0.9570;
1071.6000;0.2906;0.9445;
1071.9000;0.2939;0.9595;
1072.2000;0.2914;0.9545;
1072.5000;0.2914;0.9595;
1072.8000;0.2922;0.9595;
1073.1000;0.2922;0.9595;
1073.4000;0.2906;0.9520;
1073.7000;0.2987;0.9595;
1074.0000;0.2906;0.9445;
1074.3000;0.2914;0.9495;
1074.6000;0.2890;0.9470;
1074.9000;0.2906;0.9570;
1075.2000;0.2914;0.9545;
1075.5000;0.3020;0.9794;
1075.8000;0.2890;0.9371;
1076.1000;0.2898;0.9420;
1076.4000;0.2930;0.9620;
1076.7000;0.2971;0.9720;
1077.0000;0.2914;0.9570;
1077.3000;0.2947;0.9695;
1077.6000;0.2873;0.9595;
1077.9000;0.2914;0.9695;
1078.2000;0.2979;0.9744;
1078.5000;0.3012;0.9869;
1078.8000;0.2914;0.9570;
1079.1000;0.2906;0.9445;
1079.4000;0.2930;0.9470;
1079.7000;0.2898;0.9470;
1080.0000;0.2873;0.9420;
1080.3000;0.3012;0.9769;
1080.6000;0.2914;0.9470;
1080.9000;0.2906;0.9445;
1081.2000;0.2914;0.9570;
1081.5000;0.2971;0.9794;
1081.8000;0.2979;0.9645;
1082.1000;0.2922;0.9495;
1082.4000;0.2890;0.9420;
1082.7000;0.2898;0.9445;
1083.0000;0.2922;0.9420;
1083.3000;0.2906;0.9346;
1083.6000;0.2914;0.9445;
1083.9000;0.2922;0.9545;
1084.2000;0.2922;0.9595;
1084.5000;0.2914;0.9720;
1084.8000;0.2930;0.9769;
1085.1000;0.2898;0.9670;
1085.4000;0.2914;0.9695;
1085.7000;0.2939;0.9744;
1086.0000;0.2906;0.9695;
1086.3000;0.2857;0.9445;
1086.6000;0.2914;0.9495;
1086.9000;0.2906;0.9545;
1087.2000;0.2922;0.9520;
1087.5000;0.2914;0.9520;
1087.8000;0.2898;0.9445;
1088.1000;0.2914;0.9371;
1088.4000;0.2979;0.9670;
1088.7000;0.2939;0.9520;
1089.0000;0.2882;0.9371;
1089.3000;0.2922;0.9520;
1089.6000;0.2939;0.9570;
1089.9000;0.2939;0.9595;
1090.2000;0.2939;0.9645;
1090.5000;0.2930;0.9620;
1090.8000;0.3004;0.9794;
1091.1000;0.2963;0.9744;
1091.4000;0.2914;0.9620;
1091.7000;0.2849;0.9445;
1092.0000;0.2930;0.9720;
1092.3000;0.2914;0.9695;
1092.6000;0.2963;0.9744;
1092.9000;0.2914;0.9645;
1093.2000;0.2922;0.9595;
1093.5000;0.2947;0.9744;
1093.8000;0.2906;0.9744;
1094.1000;0.2922;0.9894;
1094.4000;0.2841;0.9695;
1094.7000;0.2906;0.9869;
1095.0000;0.2987;1.0019;
1095.3000;0.2914;0.9869;
1095.6000;0.2939;0.9894;
1095.9000;0.2930;0.9869;
1096.2000;0.2939;0.9969;
1096.5000;0.2898;0.9744;
1096.8000;0.2906;0.9794;
1097.1000;0.2906;0.9844;
1097.4000;0.2890;0.9819;
1097.7000;0.2890;0.9819;
1098.0000;0.2906;0.9919;
1098.3000;0.2906;0.9894;
1098.6000;0.2922;0.9819;
1098.9000;0.2914;0.9744;
1099.2000;0.2914;0.9819;
1099.5000;0.2939;0.9794;
1099.8000;0.2914;0.9720;
1100.1000;0.2890;0.9670;
1100.4000;0.2914;0.9545;
1100.7000;0.2890;0.9520;
1101.0000;0.2947;0.9645;
1101.3000;0.2914;0.9545;
1101.6000;0.2898;0.9545;
1101.9000;0.2890;0.9570;
1102.2000;0.2939;0.9794;
1102.5000;0.2906;0.9744;
1102.8000;0.2971;0.9894;
1103.1000;0.2857;0.9570;
1103.4000;0.2930;0.9720;
1103.7000;0.2914;0.9769;
1104.0000;0.2906;0.9695;
1104.3000;0.2898;0.9645;
1104.6000;0.2914;0.9744;
1104.9000;0.2939;0.9794;
1105.2000;0.2906;0.9769;
1105.5000;0.3012;1.0068;
1105.8000;0.2914;0.9819;
1106.1000;0.2922;0.9720;
1106.4000;0.2914;0.9645;
1106.7000;0.2914;0.9620;
1107.0000;0.2914;0.9595;
1107.3000;0.3004;0.9919;
1107.6000;0.2922;0.9720;
1107.9000;0.2922;0.9744;
1108.2000;0.2922;0.9720;
1108.5000;0.2922;0.9695;
1108.8000;0.2947;0.9744;
1109.1000;0.2922;0.9744;
1109.4000;0.2906;0.9744;
1109.7000;0.2922;0.9744;
1110.0000;0.2898;0.9645;
1110.3000;0.2930;0.9744;
1110.6000;0.2914;0.9595;
1110.9000;0.2906;0.9595;
1111.2000;0.2939;0.9720;
1111.5000;0.2906;0.9670;
1111.8000;0.2906;0.9620;
1112.1000;0.2890;0.9595;
1112.4000;0.2906;0.9620;
1112.7000;0.2906;0.9445;
1113.0000;0.2906;0.9371;
1113.3000;0.2898;0.9420;
1113.6000;0.2906;0.9445;
1113.9000;0.2906;0.9445;
1114.2000;0.2906;0.9520;
1114.5000;0.2930;0.9470;
1114.8000;0.2930;0.9520;
1115.1000;0.2914;0.9495;
1115.4000;0.2955;0.9595;
1115.7000;0.2890;0.9420;
1116.0000;0.2873;0.9321;
1116.3000;0.2955;0.9520;
1116.6000;0.2906;0.9371;
1116.9000;0.2849;0.9171;
1117.2000;0.2922;0.9396;
1117.5000;0.2865;0.9271;
1117.8000;0.2898;0.9371;
1118.1000;0.2914;0.9420;
1118.4000;0.2922;0.9495;
1118.7000;0.2922;0.9520;
1119.0000;0.2898;0.9371;
1119.3000;0.2906;0.9445;
1119.6000;0.2906;0.9420;
1119.9000;0.2833;0.9246;
1120.2000;0.2930;0.9545;
1120.5000;0.2898;0.9520;
1120.8000;0.2882;0.9470;
1121.1000;0.2898;0.9520;
1121.4000;0.2914;0.9595;
1121.7000;0.2890;0.9520;
1122.0000;0.2914;0.9570;
1122.3000;0.2906;0.9695;
1122.6000;0.2898;0.9645;
1122.9000;0.2922;0.9744;
1123.2000;0.2930;0.9720;
1123.5000;0.2922;0.9720;
1123.8000;0.2849;0.9595;
1124.1000;0.2939;0.9720;
1124.4000;0.2922;0.9670;
1124.7000;0.2922;0.9595;
1125.0000;0.2922;0.9595;
1125.3000;0.2914;0.9620;
1125.6000;0.2857;0.9520;
1125.9000;0.2914;0.9620;
1126.2000;0.2882;0.9570;
1126.5000;0.2914;0.9695;
1126.8000;0.2922;0.9720;
1127.1000;0.2914;0.9695;
1127.4000;0.2914;0.9620;
1127.7000;0.2906;0.9595;
1128.0000;0.2922;0.9595;
1128.3000;0.2930;0.9695;
1128.6000;0.2906;0.9720;
1128.9000;0.2906;0.9720;
1129.2000;0.2930;0.9695;
1129.5000;0.2914;0.9645;
1129.8000;0.2955;0.9720;
1130.1000;0.2906;0.9645;
1130.4000;0.2873;0.9620;
1130.7000;0.2922;0.9769;
1131.0000;0.2906;0.9720;
1131.3000;0.2922;0.9695;
1131.6000;0.2914;0.9645;
1131.9000;0.2906;0.9595;
1132.2000;0.2939;0.9620;
1132.5000;0.2914;0.9470;
1132.8000;0.2906;0.9545;
1133.1000;0.2922;0.9645;
1133.4000;0.2882;0.9445;
1133.7000;0.2922;0.9570;
1134.0000;0.2922;0.9670;
1134.3000;0.2939;0.9744;
1134.6000;0.2930;0.9645;
1134.9000;0.2922;0.9595;
1135.2000;0.2922;0.9645;
1135.5000;0.2955;0.9794;
1135.8000;0.2914;0.9720;
1136.1000;0.2906;0.9720;
1136.4000;0.2930;0.9794;
1136.7000;0.2947;0.9844;
1137.0000;0.2808;0.9545;
1137.3000;0.2906;0.9769;
1137.6000;0.2906;0.9595;
1137.9000;0.2906;0.9645;
1138.2000;0.2898;0.9620;
1138.5000;0.2906;0.9695;
1138.8000;0.2898;0.9744;
1139.1000;0.2914;0.9794;
1139.4000;0.2930;0.9794;
1139.7000;0.2898;0.9769;
1140.0000;0.2914;0.9819;
1140.3000;0.2939;0.9769;
1140.6000;0.2898;0.9645;
1140.9000;0.2873;0.9595;
1141.2000;0.2906;0.9670;
1141.5000;0.2849;0.9545;
1141.8000;0.2890;0.9620;
1142.1000;0.2898;0.9670;
1142.4000;0.2922;0.9819;
1142.7000;0.2922;0.9769;
1143.0000;0.2906;0.9769;
1143.3000;0.2906;0.9695;
1143.6000;0.2865;0.9545;
1143.9000;0.2906;0.9620;
1144.2000;0.2857;0.9545;
1144.5000;0.2922;0.9695;
1144.8000;0.2898;0.9620;
1145.1000;0.2906;0.9695;
1145.4000;0.2890;0.9695;
1145.7000;0.2914;0.9645;
1146.0000;0.2890;0.9495;
1146.3000;0.2922;0.9545;
1146.6000;0.2914;0.9495;
1146.9000;0.2914;0.9520;
1147.2000;0.2930;0.9595;
1147.5000;0.2971;0.9695;
1147.8000;0.2906;0.9520;
1148.1000;0.2914;0.9520;
1148.4000;0.2922;0.9545;
1148.7000;0.2914;0.9470;
1149.0000;0.2914;0.9570;
1149.3000;0.2898;0.9570;
1149.6000;0.2955;0.9670;
1149.9000;0.2882;0.9520;
1150.2000;0.2930;0.9595;
1150.5000;0.2914;0.9670;
1150.8000;0.2906;0.9645;
1151.1000;0.2914;0.9695;
1151.4000;0.2922;0.9645;
1151.7000;0.2914;0.9645;
1152.0000;0.2898;0.9720;
1152.3000;0.2947;0.9819;
1152.6000;0.2906;0.9670;
1152.9000;0.2906;0.9620;
1153.2000;0.2914;0.9670;
1153.5000;0.2890;0.9645;
1153.8000;0.2914;0.9670;
1154.1000;0.2906;0.9720;
1154.4000;0.2865;0.9744;
1154.7000;0.2914;0.9919;
1155.0000;0.2914;0.9894;
1155.3000;0.2979;1.0068;
1155.6000;0.2890;0.9869;
1155.9000;0.2922;0.9844;
1156.2000;0.2882;0.9744;
1156.5000;0.2914;0.9794;
1156.8000;0.2849;0.9570;
1157.1000;0.2906;0.9695;
1157.4000;0.2906;0.9720;
1157.7000;0.2922;0.9819;
1158.0000;0.2922;0.9794;
1158.3000;0.2922;0.9744;
1158.6000;0.2914;0.9769;
1158.9000;0.2857;0.9545;
1159.2000;0.2930;0.9744;
1159.5000;0.2939;0.9769;
1159.8000;0.2930;0.9794;
1160.1000;0.2914;0.9819;
1160.4000;0.2922;0.9769;
1160.7000;0.2914;0.9769;
1161.0000;0.2930;0.9744;
1161.3000;0.2914;0.9645;
1161.6000;0.2906;0.9595;
1161.9000;0.2906;0.9545;
1162.2000;0.2906;0.9570;
1162.5000;0.2914;0.9695;
1162.8000;0.2922;0.9744;
1163.1000;0.2922;0.9769;
1163.4000;0.2873;0.9695;
1163.7000;0.2914;0.9844;
1164.0000;0.2906;0.9844;
1164.3000;0.2906;0.9894;
1164.6000;0.2939;0.9894;
1164.9000;0.2906;0.9744;
1165.2000;0.2914;0.9769;
1165.5000;0.2922;0.9794;
1165.8000;0.2906;0.9819;
1166.1000;0.2890;0.9695;
1166.4000;0.2906;0.9670;
1166.7000;0.2898;0.9545;
1167.0000;0.2930;0.9670;
1167.3000;0.2930;0.9720;
1167.6000;0.2890;0.9670;
1167.9000;0.2914;0.9695;
1168.2000;0.2939;0.9894;
1168.5000;0.2955;0.9844;
1168.8000;0.2898;0.9720;
1169.1000;0.2930;0.9720;
1169.4000;0.2906;0.9695;
1169.7000;0.2930;0.9819;
1170.0000;0.2890;0.9695;
1170.3000;0.2922;0.9769;
1170.6000;0.2865;0.9620;
1170.9000;0.2947;0.9944;
1171.2000;0.2914;0.9794;
1171.5000;0.2906;0.9769;
1171.8000;0.2914;0.9720;
1172.1000;0.2833;0.9495;
1172.4000;0.2898;0.9695;
1172.7000;0.2906;0.9769;
1173.0000;0.2922;0.9819;
1173.3000;0.2914;0.9869;
1173.6000;0.2914;0.9844;
1173.9000;0.2898;0.9869;
1174.2000;0.2906;0.9819;
1174.5000;0.2930;0.9844;
1174.8000;0.2914;0.9894;
1175.1000;0.2906;0.9819;
1175.4000;0.2922;0.9819;
1175.7000;0.2914;0.9844;
1176.0000;0.2922;0.9944;
1176.3000;0.2873;0.9819;
1176.6000;0.2890;0.9894;
1176.9000;0.2914;0.9969;
1177.2000;0.2906;0.9944;
1177.5000;0.2906;0.9919;
1177.8000;0.2882;0.9869;
1178.1000;0.2922;0.9944;
1178.4000;0.2914;0.9944;
1178.7000;0.2922;0.9919;
1179.0000;0.2914;0.9894;
1179.3000;0.2922;0.9894;
1179.6000;0.2922;0.9844;
1179.9000;0.2914;0.9769;
1180.2000;0.2930;0.9869;
1180.5000;0.2914;0.9819;
1180.8000;0.2914;0.9794;
1181.1000;0.2914;0.9769;
1181.4000;0.2914;0.9844;
1181.7000;0.2906;0.9794;
1182.0000;0.2906;0.9720;
1182.3000;0.2930;0.9670;
1182.6000;0.2922;0.9645;
1182.9000;0.2914;0.9695;
1183.2000;0.2906;0.9720;
1183.5000;0.2947;0.9844;
1183.8000;0.2906;0.9744;
1184.1000;0.2914;0.9819;
1184.4000;0.2939;0.9919;
1184.7000;0.2914;0.9919;
1185.0000;0.2922;0.9994;
1185.3000;0.2922;0.9969;
1185.6000;0.2898;0.9969;
1185.9000;0.2930;0.9919;
1186.2000;0.2898;0.9819;
1186.5000;0.2914;0.9919;
1186.8000;0.2922;0.9919;
1187.1000;0.2922;0.9944;
1187.4000;0.2816;0.9645;
1187.7000;0.2914;0.9844;
1188.0000;0.2914;0.9769;
1188.3000;0.2898;0.9670;
1188.6000;0.2922;0.9794;
1188.9000;0.2930;0.9869;
1189.2000;0.2890;0.9869;
1189.5000;0.2930;0.9894;
1189.8000;0.2922;0.9919;
1190.1000;0.2882;0.9844;
1190.4000;0.2898;0.9794;
1190.7000;0.2930;0.9869;
1191.0000;0.2939;0.9919;
1191.3000;0.2906;0.9944;
1191.6000;0.2906;1.0019;
1191.9000;0.2873;0.9944;
1192.2000;0.2906;0.9994;
1192.5000;0.2922;1.0118;
1192.8000;0.2906;1.0044;
1193.1000;0.2890;0.9944;
1193.4000;0.2914;1.0019;
1193.7000;0.2922;0.9994;
1194.0000;0.2882;0.9944;
1194.3000;0.2914;1.0044;
1194.6000;0.2939;1.0118;
1194.9000;0.2963;1.0218;
1195.2000;0.2939;1.0143;
1195.5000;0.2898;0.9919;
1195.8000;0.2914;0.9919;
1196.1000;0.2914;0.9944;
1196.4000;0.2906;0.9969;
1196.7000;0.2906;0.9894;
1197.0000;0.2930;0.9894;
1197.3000;0.2914;0.9819;
1197.6000;0.2906;0.9869;
1197.9000;0.2914;0.9919;
1198.2000;0.2906;0.9919;
1198.5000;0.2930;1.0019;
1198.8000;0.2930;1.0044;
1199.1000;0.2898;0.9919;
1199.4000;0.2906;0.9919;
1199.7000;0.2914;0.9919;
1200.0000;0.2930;0.9944;
1200.3000;0.2914;0.9844;
1200.6000;0.2906;0.9869;
1200.9000;0.2906;0.9869;
1201.2000;0.2914;0.9869;
1201.5000;0.2922;0.9894;
1201.8000;0.2890;0.9844;
1202.1000;0.2914;0.9894;
1202.4000;0.2873;0.9769;
1202.7000;0.2898;0.9794;
1203.0000;0.2906;0.9819;
1203.3000;0.2882;0.9844;
1203.6000;0.2914;0.9894;
1203.9000;0.2930;0.9844;
1204.2000;0.2914;0.9819;
1204.5000;0.2906;0.9769;
1204.8000;0.2906;0.9744;
1205.1000;0.2930;0.9794;
1205.4000;0.2922;0.9769;
1205.7000;0.2922;0.9744;
1206.0000;0.2914;0.9769;
1206.3000;0.2922;0.9869;
1206.6000;0.2914;0.9869;
1206.9000;0.2914;0.9819;
1207.2000;0.2906;0.9769;
1207.5000;0.2963;0.9894;
1207.8000;0.2906;0.9769;
1208.1000;0.2906;0.9794;
1208.4000;0.2882;0.9695;
1208.7000;0.2906;0.9769;
1209.0000;0.2922;0.9744;
1209.3000;0.2906;0.9670;
1209.6000;0.2955;0.9720;
1209.9000;0.2914;0.9720;
1210.2000;0.2833;0.9495;
1210.5000;0.2914;0.9720;
1210.8000;0.2922;0.9744;
1211.1000;0.2825;0.9545;
1211.4000;0.2930;0.9894;
1211.7000;0.2914;0.9869;
1212.0000;0.2930;0.9919;
1212.3000;0.2890;0.9844;
1212.6000;0.2906;0.9944;
1212.9000;0.2914;0.9919;
1213.2000;0.2906;0.9794;
1213.5000;0.2890;0.9769;
1213.8000;0.2922;0.9744;
1214.1000;0.2914;0.9645;
1214.4000;0.2922;0.9695;
1214.7000;0.2898;0.9670;
1215.0000;0.2922;0.9769;
1215.3000;0.2922;0.9794;
1215.6000;0.2914;0.9720;
1215.9000;0.2963;0.9894;
1216.2000;0.2906;0.9844;
1216.5000;0.2906;0.9894;
1216.8000;0.2882;0.9844;
1217.1000;0.2922;0.9994;
1217.4000;0.2898;0.9894;
1217.7000;0.2914;0.9894;
1218.0000;0.2930;0.9919;
1218.3000;0.2914;0.9969;
1218.6000;0.2914;0.9994;
1218.9000;0.2979;1.0044;
1219.2000;0.2922;0.9894;
1219.5000;0.2922;0.9969;
1219.8000;0.2914;0.9969;
1220.1000;0.2930;0.9944;
1220.4000;0.2914;0.9919;
1220.7000;0.2914;0.9819;
1221.0000;0.2898;0.9844;
1221.3000;0.2906;0.9794;
1221.6000;0.2792;0.9470;
1221.9000;0.2898;0.9720;
1222.2000;0.2882;0.9720;
1222.5000;0.2914;0.9769;
1222.8000;0.2906;0.9720;
1223.1000;0.2914;0.9819;
1223.4000;0.2914;0.9794;
1223.7000;0.2906;0.9744;
1224.0000;0.2930;0.9869;
1224.3000;0.2890;0.9720;
1224.6000;0.2906;0.9720;
1224.9000;0.2906;0.9695;
1225.2000;0.2906;0.9595;
1225.5000;0.2906;0.9720;
1225.8000;0.2898;0.9720;
1226.1000;0.2890;0.9744;
1226.4000;0.2922;0.9844;
1226.7000;0.2890;0.9819;
1227.0000;0.2922;0.9894;
1227.3000;0.2898;0.9769;
1227.6000;0.2890;0.9744;
1227.9000;0.2914;0.9744;
1228.2000;0.2906;0.9695;
1228.5000;0.2890;0.9595;
1228.8000;0.2914;0.9645;
1229.1000;0.2922;0.9720;
1229.4000;0.2800;0.9346;
1229.7000;0.2906;0.9645;
1230.0000;0.2898;0.9570;
1230.3000;0.2930;0.9545;
1230.6000;0.2939;0.9620;
1230.9000;0.2914;0.9570;
1231.2000;0.2914;0.9645;
1231.5000;0.2939;0.9769;
1231.8000;0.2914;0.9720;
1232.1000;0.2857;0.9420;
1232.4000;0.2914;0.9595;
1232.7000;0.2890;0.9620;
1233.0000;0.2906;0.9744;
1233.3000;0.2914;0.9769;
1233.6000;0.2955;0.9894;
1233.9000;0.2898;0.9769;
1234.2000;0.2906;0.9744;
1234.5000;0.2930;0.9744;
1234.8000;0.2922;0.9695;
1235.1000;0.2922;0.9645;
1235.4000;0.2922;0.9595;
1235.7000;0.2922;0.9695;
1236.0000;0.2930;0.9794;
1236.3000;0.2906;0.9769;
1236.6000;0.2906;0.9720;
1236.9000;0.2906;0.9670;
1237.2000;0.2865;0.9495;
1237.5000;0.2898;0.9570;
1237.8000;0.2914;0.9620;
1238.1000;0.2906;0.9595;
1238.4000;0.2906;0.9645;
1238.7000;0.2906;0.9595;
1239.0000;0.2906;0.9620;
1239.3000;0.2930;0.9670;
1239.6000;0.2947;0.9695;
1239.9000;0.2914;0.9595;
1240.2000;0.2914;0.9620;
1240.5000;0.2906;0.9670;
1240.8000;0.2955;0.9794;
1241.1000;0.2906;0.9695;
1241.4000;0.2922;0.9695;
1241.7000;0.2906;0.9670;
1242.0000;0.2906;0.9744;
1242.3000;0.2914;0.9794;
1242.6000;0.2922;0.9819;
1242.9000;0.2898;0.9744;
1243.2000;0.2890;0.9670;
1243.5000;0.2898;0.9695;
1243.8000;0.2914;0.9720;
1244.1000;0.2906;0.9819;
1244.4000;0.2914;0.9869;
1244.7000;0.2914;0.9819;
1245.0000;0.2906;0.9695;
1245.3000;0.2906;0.9595;
1245.6000;0.2914;0.9695;
1245.9000;0.2914;0.9720;
1246.2000;0.2930;0.9769;
1246.5000;0.2906;0.9645;
1246.8000;0.2914;0.9645;
1247.1000;0.2890;0.9670;
1247.4000;0.2939;0.9894;
1247.7000;0.2914;0.9794;
1248.0000;0.2898;0.9720;
1248.3000;0.2922;0.9819;
1248.6000;0.2906;0.9844;
1248.9000;0.2898;0.9844;
1249.2000;0.2914;0.9819;
1249.5000;0.2914;0.9794;
1249.8000;0.2939;0.9794;
1250.1000;0.2922;0.9769;
1250.4000;0.2906;0.9720;
1250.7000;0.2914;0.9720;
1251.0000;0.2906;0.9720;
1251.3000;0.2922;0.9744;
1251.6000;0.2906;0.9744;
1251.9000;0.2922;0.9695;
1252.2000;0.2922;0.9744;
1252.5000;0.2914;0.9720;
1252.8000;0.2890;0.9670;
1253.1000;0.2898;0.9819;
1253.4000;0.2906;0.9819;
1253.7000;0.2914;0.9819;
1254.0000;0.2882;0.9769;
1254.3000;0.2898;0.9869;
1254.6000;0.2898;0.9844;
1254.9000;0.2922;0.9969;
1255.2000;0.2906;0.9944;
1255.5000;0.2914;0.9969;
1255.8000;0.2922;0.9969;
1256.1000;0.2930;1.0068;
1256.4000;0.2906;0.9994;
1256.7000;0.2914;1.0044;
1257.0000;0.2849;0.9869;
1257.3000;0.2882;0.9969;
1257.6000;0.2890;0.9944;
1257.9000;0.2914;1.0068;
1258.2000;0.2898;0.9994;
1258.5000;0.2906;0.9994;
1258.8000;0.2914;0.9969;
1259.1000;0.2890;0.9944;
1259.4000;0.2922;0.9894;
1259.7000;0.2906;0.9919;
1260.0000;0.2914;0.9919;
1260.3000;0.2914;0.9894;
1260.6000;0.2898;0.9869;
1260.9000;0.2922;0.9869;
1261.2000;0.2906;0.9794;
1261.5000;0.2963;0.9944;
1261.8000;0.2898;0.9844;
1262.1000;0.2898;0.9769;
1262.4000;0.2963;0.9994;
1262.7000;0.2922;0.9894;
1263.0000;0.2922;0.9869;
1263.3000;0.2906;0.9819;
1263.6000;0.2963;1.0044;
1263.9000;0.2906;0.9869;
1264.2000;0.2906;0.9894;
1264.5000;0.2833;0.9670;
1264.8000;0.2906;0.9919;
1265.1000;0.2963;1.0118;
1265.4000;0.2939;0.9994;
1265.7000;0.2914;0.9869;
1266.0000;0.2947;0.9944;
1266.3000;0.2914;0.9844;
1266.6000;0.2914;0.9869;
1266.9000;0.2865;0.9769;
1267.2000;0.2987;1.0068;
1267.5000;0.2906;0.9919;
1267.8000;0.2922;0.9994;
1268.1000;0.2939;1.0068;
1268.4000;0.2947;1.0044;
1268.7000;0.2906;0.9969;
1269.0000;0.2906;0.9969;
1269.3000;0.2890;0.9969;
1269.6000;0.2939;1.0068;
1269.9000;0.2922;0.9944;
1270.2000;0.2906;0.9919;
1270.5000;0.2906;0.9869;
1270.8000;0.2906;0.9769;
1271.1000;0.2906;0.9769;
1271.4000;0.2898;0.9769;
1271.7000;0.2922;0.9794;
1272.0000;0.2906;0.9819;
1272.3000;0.2971;1.0044;
1272.6000;0.2930;0.9944;
1272.9000;0.2898;0.9819;
1273.2000;0.2898;0.9794;
1273.5000;0.2898;0.9844;
1273.8000;0.2890;0.9819;
1274.1000;0.2914;0.9869;
1274.4000;0.2890;0.9844;
1274.7000;0.2882;0.9894;
1275.0000;0.2922;0.9969;
1275.3000;0.2914;0.9919;
1275.6000;0.2922;0.9894;
1275.9000;0.2898;0.9944;
1276.2000;0.2898;0.9869;
1276.5000;0.2890;0.9869;
1276.8000;0.2890;0.9894;
1277.1000;0.2906;0.9994;
1277.4000;0.2914;1.0019;
1277.7000;0.2914;0.9944;
1278.0000;0.2898;0.9969;
1278.3000;0.2914;0.9994;
1278.6000;0.2914;1.0068;
1278.9000;0.2922;1.0093;
1279.2000;0.2930;1.0143;
1279.5000;0.2930;1.0068;
1279.8000;0.2914;0.9994;
1280.1000;0.2930;1.0044;
1280.4000;0.2930;0.9969;
1280.7000;0.2914;0.9944;
1281.0000;0.2890;0.9944;
1281.3000;0.2882;0.9919;
1281.6000;0.2947;1.0019;
1281.9000;0.2930;0.9969;
1282.2000;0.2906;0.9994;
1282.5000;0.2939;1.0093;
1282.8000;0.2898;0.9919;
1283.1000;0.2890;0.9894;
1283.4000;0.2914;0.9944;
1283.7000;0.2914;0.9919;
1284.0000;0.2922;0.9944;
1284.3000;0.2906;0.9919;
1284.6000;0.2922;0.9919;
1284.9000;0.2922;0.9969;
1285.2000;0.2865;0.9944;
1285.5000;0.2898;1.0068;
1285.8000;0.2914;1.0093;
1286.1000;0.2922;1.0093;
1286.4000;0.2939;1.0093;
1286.7000;0.2922;1.0068;
1287.0000;0.2914;1.0068;
1287.3000;0.2898;0.9994;
1287.6000;0.2898;1.0093;
1287.9000;0.2857;0.9969;
1288.2000;0.2906;1.0044;
1288.5000;0.2906;1.0019;
1288.8000;0.2914;0.9944;
1289.1000;0.2906;0.9969;
1289.4000;0.2914;0.9969;
1289.7000;0.2914;0.9969;
1290.0000;0.2906;0.9919;
1290.3000;0.2914;0.9944;
1290.6000;0.2922;1.0068;
1290.9000;0.2898;1.0019;
1291.2000;0.2898;0.9994;
1291.5000;0.2922;1.0044;
1291.8000;0.2914;0.9969;
1292.1000;0.2898;0.9944;
1292.4000;0.2914;1.0044;
1292.7000;0.2898;1.0019;
1293.0000;0.2906;1.0068;
1293.3000;0.2906;1.0118;
1293.6000;0.2882;0.9969;
1293.9000;0.2898;0.9919;
1294.2000;0.2906;0.9969;
1294.5000;0.2914;0.9919;
1294.8000;0.2890;0.9769;
1295.1000;0.2906;0.9794;
1295.4000;0.2979;1.0044;
1295.7000;0.2898;0.9869;
1296.0000;0.2906;0.9969;
1296.3000;0.2914;0.9969;
1296.6000;0.2906;0.9969;
1296.9000;0.2939;1.0093;
1297.2000;0.2922;1.0218;
1297.5000;0.2906;1.0044;
1297.8000;0.2906;1.0044;
1298.1000;0.2906;0.9994;
1298.4000;0.2890;0.9844;
1298.7000;0.2914;0.9869;
1299.0000;0.2906;0.9919;
1299.3000;0.2922;0.9919;
1299.6000;0.2922;0.9919;
1299.9000;0.2914;0.9844;
1300.2000;0.2914;0.9919;
1300.5000;0.2898;0.9869;
1300.8000;0.2914;0.9969;
1301.1000;0.2898;0.9894;
1301.4000;0.2922;0.9994;
1301.7000;0.2914;0.9969;
1302.0000;0.2914;0.9969;
1302.3000;0.2930;0.9969;
1302.6000;0.2930;1.0019;
1302.9000;0.2914;0.9944;
1303.2000;0.2906;0.9844;
1303.5000;0.2890;0.9844;
1303.8000;0.2898;0.9869;
1304.1000;0.2906;0.9919;
1304.4000;0.2922;1.0044;
1304.7000;0.2906;1.0093;
1305.0000;0.2922;1.0118;
1305.3000;0.2955;1.0193;
1305.6000;0.2930;1.0168;
1305.9000;0.2898;1.0068;
1306.2000;0.2898;1.0019;
1306.5000;0.2873;0.9969;
1306.8000;0.2914;1.0093;
1307.1000;0.2914;1.0118;
1307.4000;0.2906;1.0193;
1307.7000;0.2898;1.0268;
1308.0000;0.2890;1.0193;
1308.3000;0.2922;1.0218;
1308.6000;0.2906;1.0218;
1308.9000;0.2914;1.0243;
1309.2000;0.2922;1.0268;
1309.5000;0.2947;1.0268;
1309.8000;0.2930;1.0193;
1310.1000;0.2914;1.0168;
1310.4000;0.2930;1.0193;
1310.7000;0.2922;1.0243;
1311.0000;0.2914;1.0243;
1311.3000;0.2906;1.0168;
1311.6000;0.2906;1.0193;
1311.9000;0.2914;1.0243;
1312.2000;0.2906;1.0243;
1312.5000;0.2906;1.0243;
1312.8000;0.2906;1.0268;
1313.1000;0.2841;0.9969;
1313.4000;0.2890;1.0168;
1313.7000;0.2906;1.0218;
1314.0000;0.2898;1.0143;
1314.3000;0.2865;1.0019;
1314.6000;0.2922;1.0243;
1314.9000;0.2890;1.0293;
1315.2000;0.2898;1.0243;
1315.5000;0.2906;1.0193;
1315.8000;0.2906;1.0143;
1316.1000;0.2914;1.0193;
1316.4000;0.2873;1.0093;
1316.7000;0.2898;1.0118;
1317.0000;0.2906;1.0093;
1317.3000;0.2922;1.0044;
1317.6000;0.2914;1.0019;
1317.9000;0.2922;1.0044;
1318.2000;0.2914;1.0044;
1318.5000;0.2906;1.0093;
1318.8000;0.2898;1.0044;
1319.1000;0.2890;1.0019;
1319.4000;0.2914;1.0118;
1319.7000;0.2914;1.0118;
1320.0000;0.2906;0.9969;
1320.3000;0.2882;0.9844;
1320.6000;0.2922;0.9869;
1320.9000;0.2906;0.9894;
1321.2000;0.2947;1.0019;
1321.5000;0.2906;1.0044;
1321.8000;0.2898;1.0068;
1322.1000;0.2922;1.0093;
1322.4000;0.2890;0.9994;
1322.7000;0.2890;0.9994;
1323.0000;0.2922;1.0118;
1323.3000;0.2939;1.0118;
1323.6000;0.2882;0.9969;
1323.9000;0.2963;1.0143;
1324.2000;0.2898;1.0044;
1324.5000;0.2930;1.0044;
1324.8000;0.2987;1.0218;
1325.1000;0.2898;1.0044;
1325.4000;0.2914;1.0019;
1325.7000;0.2906;0.9969;
1326.0000;0.2947;1.0093;
1326.3000;0.2825;0.9670;
1326.6000;0.2922;0.9894;
1326.9000;0.2914;0.9944;
1327.2000;0.2898;0.9944;
1327.5000;0.2996;1.0143;
1327.8000;0.2898;0.9969;
1328.1000;0.2930;1.0168;
1328.4000;0.2979;1.0268;
1328.7000;0.2906;1.0143;
1329.0000;0.2882;1.0093;
1329.3000;0.2914;1.0118;
1329.6000;0.2898;1.0068;
1329.9000;0.2914;1.0068;
1330.2000;0.2979;1.0143;
1330.5000;0.2914;1.0019;
1330.8000;0.2914;1.0044;
1331.1000;0.2898;1.0019;
1331.4000;0.2906;1.0019;
1331.7000;0.2914;1.0068;
1332.0000;0.2898;1.0068;
1332.3000;0.2906;1.0168;
1332.6000;0.2906;1.0168;
1332.9000;0.2898;1.0093;
1333.2000;0.2890;1.0118;
1333.5000;0.2922;1.0093;
1333.8000;0.2890;1.0093;
1334.1000;0.2898;1.0143;
1334.4000;0.2898;1.0143;
1334.7000;0.2914;1.0293;
1335.0000;0.2922;1.0417;
1335.3000;0.2890;1.0293;
1335.6000;0.2922;1.0318;
1335.9000;0.2898;1.0293;
1336.2000;0.2914;1.0343;
1336.5000;0.2922;1.0392;
1336.8000;0.2906;1.0343;
1337.1000;0.2825;1.0068;
1337.4000;0.2914;1.0318;
1337.7000;0.2898;1.0218;
1338.0000;0.2922;1.0193;
1338.3000;0.2906;1.0218;
1338.6000;0.2898;1.0168;
1338.9000;0.2939;1.0343;
1339.2000;0.2898;1.0193;
1339.5000;0.2898;1.0168;
1339.8000;0.2898;1.0068;
1340.1000;0.2963;1.0268;
1340.4000;0.2947;1.0168;
1340.7000;0.2882;0.9969;
1341.0000;0.2906;1.0068;
1341.3000;0.2906;1.0019;
1341.6000;0.2906;0.9969;
1341.9000;0.2898;1.0044;
1342.2000;0.2922;1.0093;
1342.5000;0.2914;1.0143;
1342.8000;0.2882;1.0068;
1343.1000;0.2906;1.0118;
1343.4000;0.2890;1.0093;
1343.7000;0.2906;1.0193;
1344.0000;0.2890;1.0218;
1344.3000;0.2898;1.0218;
1344.6000;0.2914;1.0268;
1344.9000;0.2914;1.0243;
1345.2000;0.2914;1.0193;
1345.5000;0.2914;1.0093;
1345.8000;0.2906;1.0044;
1346.1000;0.2906;1.0019;
1346.4000;0.2914;1.0019;
1346.7000;0.2898;1.0019;
1347.0000;0.2914;1.0093;
1347.3000;0.2922;1.0118;
1347.6000;0.2906;1.0143;
1347.9000;0.2873;1.0093;
1348.2000;0.2882;1.0093;
1348.5000;0.2922;1.0243;
1348.8000;0.2930;1.0168;
1349.1000;0.2898;1.0118;
1349.4000;0.2890;1.0143;
1349.7000;0.2898;1.0118;
1350.0000;0.2890;1.0143;
1350.3000;0.2914;1.0193;
1350.6000;0.2906;1.0168;
1350.9000;0.2906;1.0143;
1351.2000;0.2922;1.0143;
1351.5000;0.2914;1.0093;
1351.8000;0.2890;1.0019;
1352.1000;0.3004;1.0318;
1352.4000;0.2898;0.9994;
1352.7000;0.2906;1.0019;
1353.0000;0.2857;0.9944;
1353.3000;0.2906;1.0068;
1353.6000;0.2914;1.0168;
1353.9000;0.2922;1.0243;
1354.2000;0.2922;1.0168;
1354.5000;0.2882;1.0118;
1354.8000;0.2906;1.0093;
1355.1000;0.2922;1.0143;
1355.4000;0.2914;1.0068;
1355.7000;0.2906;1.0068;
1356.0000;0.2906;1.0019;
1356.3000;0.2906;1.0019;
1356.6000;0.2922;1.0118;
1356.9000;0.2922;1.0193;
1357.2000;0.2906;1.0019;
1357.5000;0.2906;1.0093;
1357.8000;0.2906;1.0168;
1358.1000;0.2914;1.0193;
1358.4000;0.2906;1.0193;
1358.7000;0.2939;1.0293;
1359.0000;0.2922;1.0293;
1359.3000;0.2906;1.0193;
1359.6000;0.2898;1.0218;
1359.9000;0.2930;1.0368;
1360.2000;0.2898;1.0268;
1360.5000;0.2922;1.0318;
1360.8000;0.3004;1.0567;
1361.1000;0.2890;1.0218;
1361.4000;0.2898;1.0268;
1361.7000;0.2906;1.0143;
1362.0000;0.2914;1.0118;
1362.3000;0.2890;1.0068;
1362.6000;0.2914;1.0118;
1362.9000;0.2906;1.0168;
1363.2000;0.2882;1.0093;
1363.5000;0.2898;1.0143;
1363.8000;0.2914;1.0193;
1364.1000;0.2971;1.0318;
1364.4000;0.2800;0.9744;
1364.7000;0.2906;0.9994;
1365.0000;0.2898;0.9994;
1365.3000;0.2922;1.0093;
1365.6000;0.2906;1.0093;
1365.9000;0.2914;1.0143;
1366.2000;0.2922;1.0243;
1366.5000;0.2898;1.0168;
1366.8000;0.2898;1.0193;
1367.1000;0.2914;1.0193;
1367.4000;0.2906;1.0243;
1367.7000;0.2906;1.0193;
1368.0000;0.2906;1.0218;
1368.3000;0.2914;1.0193;
1368.6000;0.2898;1.0143;
1368.9000;0.2914;1.0168;
1369.2000;0.2898;1.0193;
1369.5000;0.2906;1.0168;
1369.8000;0.2906;1.0193;
1370.1000;0.2914;1.0168;
1370.4000;0.2914;1.0143;
1370.7000;0.2922;1.0118;
1371.0000;0.2922;1.0093;
1371.3000;0.2914;1.0093;
1371.6000;0.2939;1.0193;
1371.9000;0.2906;1.0118;
1372.2000;0.2906;1.0143;
1372.5000;0.2914;1.0093;
1372.8000;0.2922;1.0093;
1373.1000;0.2914;1.0068;
1373.4000;0.2922;1.0118;
1373.7000;0.2906;0.9994;
1374.0000;0.2914;1.0019;
1374.3000;0.2922;1.0068;
1374.6000;0.2906;1.0068;
1374.9000;0.2947;1.0143;
1375.2000;0.2922;1.0093;
1375.5000;0.2922;1.0068;
1375.8000;0.2914;1.0019;
1376.1000;0.2906;0.9944;
1376.4000;0.2906;0.9869;
1376.7000;0.2996;1.0118;
1377.0000;0.2898;0.9869;
1377.3000;0.2873;0.9819;
1377.6000;0.2808;0.9720;
1377.9000;0.2898;0.9944;
1378.2000;0.2906;1.0019;
1378.5000;0.2898;1.0068;
1378.8000;0.2898;1.0068;
1379.1000;0.2898;1.0019;
1379.4000;0.2914;0.9969;
1379.7000;0.2865;0.9894;
1380.0000;0.2922;0.9994;
1380.3000;0.2922;1.0019;
1380.6000;0.2914;1.0068;
1380.9000;0.2882;1.0068;
1381.2000;0.2914;1.0143;
1381.5000;0.2930;1.0168;
1381.8000;0.2914;1.0193;
1382.1000;0.2906;1.0143;
1382.4000;0.2882;0.9994;
1382.7000;0.2890;1.0019;
1383.0000;0.2898;1.0044;
1383.3000;0.2906;1.0093;
1383.6000;0.2898;1.0019;
1383.9000;0.2898;1.0118;
1384.2000;0.2914;1.0143;
1384.5000;0.2865;1.0019;
1384.8000;0.3004;1.0368;
1385.1000;0.2914;1.0093;
1385.4000;0.2898;1.0143;
1385.7000;0.2914;1.0193;
1386.0000;0.2914;1.0143;
1386.3000;0.2882;1.0118;
1386.6000;0.2898;1.0093;
1386.9000;0.2914;1.0093;
1387.2000;0.2906;1.0118;
1387.5000;0.2873;1.0068;
1387.8000;0.2890;1.0044;
1388.1000;0.2939;1.0093;
1388.4000;0.2914;1.0093;
1388.7000;0.2906;1.0143;
1389.0000;0.2816;0.9969;
1389.3000;0.2930;1.0193;
1389.6000;0.2914;1.0118;
1389.9000;0.2930;1.0143;
1390.2000;0.2906;1.0068;
1390.5000;0.2922;1.0118;
1390.8000;0.2914;0.9944;
1391.1000;0.2922;0.9969;
1391.4000;0.2906;0.9944;
1391.7000;0.2906;0.9994;
1392.0000;0.2906;1.0118;
1392.3000;0.2914;1.0118;
1392.6000;0.2906;1.0093;
1392.9000;0.2906;1.0218;
1393.2000;0.2906;1.0268;
1393.5000;0.2914;1.0293;
1393.8000;0.2914;1.0193;
1394.1000;0.2882;0.9994;
1394.4000;0.2914;1.0093;
1394.7000;0.2922;0.9994;
1395.0000;0.2857;0.9919;
1395.3000;0.2898;0.9969;
1395.6000;0.2922;0.9969;
1395.9000;0.2922;1.0044;
1396.2000;0.2930;1.0068;
1396.5000;0.2906;0.9994;
1396.8000;0.2906;0.9994;
1397.1000;0.2890;0.9994;
1397.4000;0.2890;1.0044;
1397.7000;0.2898;1.0044;
1398.0000;0.2898;1.0068;
1398.3000;0.2914;1.0093;
1398.6000;0.2906;1.0118;
1398.9000;0.2890;1.0044;
1399.2000;0.2906;1.0068;
1399.5000;0.2914;1.0044;
1399.8000;0.2898;1.0068;
