time/ms;Fluo/V;P700 deltaI/I x10³;
-199.8000;0.3313;1.0118;
-199.5000;0.3297;1.0093;
-199.2000;0.3321;1.0093;
-198.9000;0.3329;0.9969;
-198.6000;0.3321;0.9919;
-198.3000;0.3305;0.9894;
-198.0000;0.3297;0.9869;
-197.7000;0.3248;0.9670;
-197.4000;0.3207;0.9645;
-197.1000;0.3305;0.9844;
-196.8000;0.3386;1.0118;
-196.5000;0.3272;0.9769;
-196.2000;0.3280;0.9944;
-195.9000;0.3313;1.0044;
-195.6000;0.3240;0.9844;
-195.3000;0.3313;1.0068;
-195.0000;0.3297;0.9869;
-194.7000;0.3297;0.9869;
-194.4000;0.3305;0.9869;
-194.1000;0.3289;0.9869;
-193.8000;0.3305;0.9894;
-193.5000;0.3305;0.9994;
-193.2000;0.3313;1.0044;
-192.9000;0.3305;1.0044;
-192.6000;0.3297;1.0019;
-192.3000;0.3305;1.0044;
-192.0000;0.3305;1.0019;
-191.7000;0.3289;0.9969;
-191.4000;0.3289;1.0118;
-191.1000;0.3313;1.0118;
-190.8000;0.3297;1.0118;
-190.5000;0.3297;1.0143;
-190.2000;0.3305;1.0168;
-189.9000;0.3321;1.0218;
-189.6000;0.3313;1.0243;
-189.3000;0.3321;1.0218;
-189.0000;0.3313;1.0193;
-188.7000;0.3321;1.0168;
-188.4000;0.3313;1.0044;
-188.1000;0.3313;1.0044;
-187.8000;0.3329;0.9969;
-187.5000;0.3305;0.9869;
-187.2000;0.3313;0.9894;
-186.9000;0.3297;0.9944;
-186.6000;0.3305;0.9944;
-186.3000;0.3313;0.9969;
-186.0000;0.3329;1.0019;
-185.7000;0.3305;0.9994;
-185.4000;0.3329;1.0044;
-185.1000;0.3313;1.0168;
-184.8000;0.3313;1.0293;
-184.5000;0.3321;1.0318;
-184.2000;0.3321;1.0218;
-183.9000;0.3313;1.0193;
-183.6000;0.3313;1.0168;
-183.3000;0.3313;1.0093;
-183.0000;0.3321;1.0093;
-182.7000;0.3313;1.0044;
-182.4000;0.3370;1.0168;
-182.1000;0.3313;1.0068;
-181.8000;0.3313;1.0093;
-181.5000;0.3313;1.0068;
-181.2000;0.3289;1.0019;
-180.9000;0.3305;1.0143;
-180.6000;0.3305;1.0093;
-180.3000;0.3289;1.0019;
-180.0000;0.3297;1.0068;
-179.7000;0.3321;1.0193;
-179.4000;0.3289;1.0143;
-179.1000;0.3313;1.0218;
-178.8000;0.3289;1.0293;
-178.5000;0.3313;1.0343;
-178.2000;0.3329;1.0293;
-177.9000;0.3305;1.0293;
-177.6000;0.3411;1.0492;
-177.3000;0.3321;1.0218;
-177.0000;0.3313;1.0218;
-176.7000;0.3297;1.0193;
-176.4000;0.3321;1.0143;
-176.1000;0.3289;1.0093;
-175.8000;0.3297;1.0093;
-175.5000;0.3240;0.9944;
-175.2000;0.3305;1.0143;
-174.9000;0.3305;1.0044;
-174.6000;0.3297;0.9969;
-174.3000;0.3313;1.0044;
-174.0000;0.3297;1.0044;
-173.7000;0.3321;0.9994;
-173.4000;0.3337;0.9969;
-173.1000;0.3289;0.9894;
-172.8000;0.3272;0.9844;
-172.5000;0.3313;0.9894;
-172.2000;0.3443;1.0318;
-171.9000;0.3321;0.9969;
-171.6000;0.3297;0.9869;
-171.3000;0.3370;1.0044;
-171.0000;0.3305;0.9794;
-170.7000;0.3411;1.0044;
-170.4000;0.3329;0.9769;
-170.1000;0.3305;0.9769;
-169.8000;0.3362;0.9969;
-169.5000;0.3305;0.9769;
-169.2000;0.3337;0.9944;
-168.9000;0.3313;0.9894;
-168.6000;0.3305;0.9894;
-168.3000;0.3313;0.9969;
-168.0000;0.3313;1.0019;
-167.7000;0.3305;0.9969;
-167.4000;0.3305;0.9994;
-167.1000;0.3321;0.9969;
-166.8000;0.3313;0.9894;
-166.5000;0.3313;0.9919;
-166.2000;0.3305;0.9894;
-165.9000;0.3289;0.9894;
-165.6000;0.3289;0.9919;
-165.3000;0.3321;1.0044;
-165.0000;0.3264;0.9969;
-164.7000;0.3305;1.0118;
-164.4000;0.3337;1.0243;
-164.1000;0.3313;1.0093;
-163.8000;0.3329;1.0019;
-163.5000;0.3297;0.9919;
-163.2000;0.3297;0.9969;
-162.9000;0.3305;1.0019;
-162.6000;0.3346;1.0093;
-162.3000;0.3305;0.9919;
-162.0000;0.3289;0.9894;
-161.7000;0.3378;1.0218;
-161.4000;0.3313;1.0044;
-161.1000;0.3297;0.9919;
-160.8000;0.3313;0.9969;
-160.5000;0.3280;0.9744;
-160.2000;0.3305;0.9869;
-159.9000;0.3305;0.9769;
-159.6000;0.3394;1.0019;
-159.3000;0.3337;0.9794;
-159.0000;0.3313;0.9844;
-158.7000;0.3297;0.9819;
-158.4000;0.3297;0.9744;
-158.1000;0.3305;0.9744;
-157.8000;0.3321;0.9894;
-157.5000;0.3313;0.9869;
-157.2000;0.3272;0.9744;
-156.9000;0.3378;1.0044;
-156.6000;0.3305;1.0019;
-156.3000;0.3346;1.0118;
-156.0000;0.3321;1.0068;
-155.7000;0.3305;0.9994;
-155.4000;0.3305;1.0019;
-155.1000;0.3305;1.0068;
-154.8000;0.3297;0.9919;
-154.5000;0.3313;0.9944;
-154.2000;0.3354;1.0019;
-153.9000;0.3297;0.9969;
-153.6000;0.3321;1.0093;
-153.3000;0.3297;0.9969;
-153.0000;0.3297;1.0019;
-152.7000;0.3321;1.0118;
-152.4000;0.3297;1.0068;
-152.1000;0.3305;1.0093;
-151.8000;0.3297;1.0044;
-151.5000;0.3297;1.0068;
-151.2000;0.3297;1.0019;
-150.9000;0.3289;1.0118;
-150.6000;0.3289;1.0118;
-150.3000;0.3362;1.0293;
-150.0000;0.3280;1.0044;
-149.7000;0.3313;1.0118;
-149.4000;0.3305;1.0068;
-149.1000;0.3272;1.0068;
-148.8000;0.3321;1.0168;
-148.5000;0.3305;1.0143;
-148.2000;0.3346;1.0218;
-147.9000;0.3297;1.0044;
-147.6000;0.3321;0.9994;
-147.3000;0.3289;0.9944;
-147.0000;0.3305;0.9994;
-146.7000;0.3354;1.0193;
-146.4000;0.3329;1.0168;
-146.1000;0.3305;1.0143;
-145.8000;0.3313;1.0118;
-145.5000;0.3297;1.0193;
-145.2000;0.3305;1.0168;
-144.9000;0.3321;1.0168;
-144.6000;0.3289;1.0118;
-144.3000;0.3329;1.0168;
-144.0000;0.3305;1.0093;
-143.7000;0.3329;1.0168;
-143.4000;0.3321;1.0218;
-143.1000;0.3305;1.0168;
-142.8000;0.3362;1.0293;
-142.5000;0.3313;1.0118;
-142.2000;0.3313;1.0118;
-141.9000;0.3280;1.0093;
-141.6000;0.3321;1.0168;
-141.3000;0.3305;1.0093;
-141.0000;0.3297;1.0118;
-140.7000;0.3313;1.0143;
-140.4000;0.3305;1.0068;
-140.1000;0.3305;1.0118;
-139.8000;0.3337;1.0143;
-139.5000;0.3305;1.0019;
-139.2000;0.3305;1.0019;
-138.9000;0.3321;1.0068;
-138.6000;0.3305;1.0093;
-138.3000;0.3313;1.0019;
-138.0000;0.3297;0.9944;
-137.7000;0.3337;1.0118;
-137.4000;0.3329;0.9994;
-137.1000;0.3305;0.9869;
-136.8000;0.3313;0.9994;
-136.5000;0.3297;0.9994;
-136.2000;0.3313;1.0019;
-135.9000;0.3313;1.0168;
-135.6000;0.3329;1.0193;
-135.3000;0.3305;1.0268;
-135.0000;0.3264;1.0193;
-134.7000;0.3321;1.0268;
-134.4000;0.3305;1.0168;
-134.1000;0.3313;1.0193;
-133.8000;0.3329;1.0168;
-133.5000;0.3329;1.0218;
-133.2000;0.3313;1.0118;
-132.9000;0.3362;1.0318;
-132.6000;0.3329;1.0243;
-132.3000;0.3313;1.0168;
-132.0000;0.3305;1.0143;
-131.7000;0.3297;1.0168;
-131.4000;0.3305;1.0193;
-131.1000;0.3305;1.0218;
-130.8000;0.3305;1.0118;
-130.5000;0.3305;1.0044;
-130.2000;0.3313;0.9994;
-129.9000;0.3305;1.0044;
-129.6000;0.3305;0.9919;
-129.3000;0.3321;0.9994;
-129.0000;0.3337;1.0068;
-128.7000;0.3313;1.0019;
-128.4000;0.3313;0.9944;
-128.1000;0.3305;0.9944;
-127.8000;0.3313;0.9994;
-127.5000;0.3313;0.9994;
-127.2000;0.3313;1.0019;
-126.9000;0.3313;1.0019;
-126.6000;0.3289;0.9944;
-126.3000;0.3313;1.0019;
-126.0000;0.3305;1.0019;
-125.7000;0.3289;0.9894;
-125.4000;0.3297;0.9969;
-125.1000;0.3313;0.9944;
-124.8000;0.3321;1.0019;
-124.5000;0.3313;1.0019;
-124.2000;0.3329;1.0044;
-123.9000;0.3313;1.0044;
-123.6000;0.3305;0.9994;
-123.3000;0.3297;0.9994;
-123.0000;0.3297;0.9994;
-122.7000;0.3321;1.0044;
-122.4000;0.3321;1.0093;
-122.1000;0.3313;1.0068;
-121.8000;0.3313;1.0118;
-121.5000;0.3305;1.0118;
-121.2000;0.3305;1.0118;
-120.9000;0.3313;1.0068;
-120.6000;0.3297;1.0093;
-120.3000;0.3289;1.0093;
-120.0000;0.3297;1.0068;
-119.7000;0.3329;1.0093;
-119.4000;0.3305;1.0019;
-119.1000;0.3313;0.9969;
-118.8000;0.3305;0.9969;
-118.5000;0.3305;0.9994;
-118.2000;0.3370;1.0143;
-117.9000;0.3321;1.0044;
-117.6000;0.3321;1.0044;
-117.3000;0.3321;1.0044;
-117.0000;0.3313;1.0044;
-116.7000;0.3305;1.0044;
-116.4000;0.3297;1.0044;
-116.1000;0.3305;1.0044;
-115.8000;0.3305;1.0093;
-115.5000;0.3305;1.0143;
-115.2000;0.3297;1.0044;
-114.9000;0.3321;1.0093;
-114.6000;0.3313;1.0093;
-114.3000;0.3321;1.0118;
-114.0000;0.3321;1.0143;
-113.7000;0.3321;1.0093;
-113.4000;0.3305;1.0068;
-113.1000;0.3297;1.0019;
-112.8000;0.3305;1.0068;
-112.5000;0.3305;1.0168;
-112.2000;0.3321;1.0168;
-111.9000;0.3305;1.0118;
-111.6000;0.3297;1.0044;
-111.3000;0.3305;0.9994;
-111.0000;0.3280;0.9844;
-110.7000;0.3329;0.9994;
-110.4000;0.3305;0.9994;
-110.1000;0.3289;0.9944;
-109.8000;0.3305;0.9969;
-109.5000;0.3321;0.9969;
-109.2000;0.3321;1.0019;
-108.9000;0.3337;1.0168;
-108.6000;0.3321;1.0068;
-108.3000;0.3313;0.9969;
-108.0000;0.3305;1.0044;
-107.7000;0.3337;1.0068;
-107.4000;0.3321;1.0068;
-107.1000;0.3321;1.0118;
-106.8000;0.3370;1.0268;
-106.5000;0.3305;1.0044;
-106.2000;0.3313;1.0068;
-105.9000;0.3321;1.0118;
-105.6000;0.3305;1.0068;
-105.3000;0.3313;1.0044;
-105.0000;0.3313;1.0019;
-104.7000;0.3313;1.0068;
-104.4000;0.3321;1.0093;
-104.1000;0.3313;1.0068;
-103.8000;0.3321;1.0068;
-103.5000;0.3313;1.0044;
-103.2000;0.3321;1.0118;
-102.9000;0.3305;1.0068;
-102.6000;0.3305;1.0218;
-102.3000;0.3313;1.0293;
-102.0000;0.3321;1.0293;
-101.7000;0.3321;1.0318;
-101.4000;0.3305;1.0318;
-101.1000;0.3305;1.0268;
-100.8000;0.3313;1.0218;
-100.5000;0.3305;1.0168;
-100.2000;0.3305;1.0093;
-99.9000;0.3305;1.0093;
-99.6000;0.3313;1.0019;
-99.3000;0.3313;0.9994;
-99.0000;0.3321;1.0068;
-98.7000;0.3321;1.0019;
-98.4000;0.3305;1.0044;
-98.1000;0.3321;1.0068;
-97.8000;0.3297;1.0019;
-97.5000;0.3305;0.9944;
-97.2000;0.3305;0.9944;
-96.9000;0.3305;1.0019;
-96.6000;0.3313;1.0019;
-96.3000;0.3305;0.9969;
-96.0000;0.3297;0.9969;
-95.7000;0.3305;1.0068;
-95.4000;0.3305;1.0068;
-95.1000;0.3313;1.0168;
-94.8000;0.3321;1.0168;
-94.5000;0.3313;1.0193;
-94.2000;0.3321;1.0143;
-93.9000;0.3305;1.0118;
-93.6000;0.3297;1.0093;
-93.3000;0.3313;1.0143;
-93.0000;0.3313;1.0168;
-92.7000;0.3321;1.0093;
-92.4000;0.3321;1.0044;
-92.1000;0.3305;0.9969;
-91.8000;0.3329;1.0019;
-91.5000;0.3305;0.9994;
-91.2000;0.3305;0.9969;
-90.9000;0.3329;0.9994;
-90.6000;0.3297;0.9969;
-90.3000;0.3313;0.9944;
-90.0000;0.3305;0.9944;
-89.7000;0.3289;0.9894;
-89.4000;0.3305;0.9919;
-89.1000;0.3305;0.9969;
-88.8000;0.3305;0.9944;
-88.5000;0.3305;0.9969;
-88.2000;0.3305;1.0044;
-87.9000;0.3305;1.0093;
-87.6000;0.3305;1.0044;
-87.3000;0.3297;1.0118;
-87.0000;0.3289;1.0118;
-86.7000;0.3289;1.0143;
-86.4000;0.3427;1.0467;
-86.1000;0.3297;1.0143;
-85.8000;0.3305;1.0118;
-85.5000;0.3305;1.0168;
-85.2000;0.3321;1.0168;
-84.9000;0.3305;1.0118;
-84.6000;0.3313;1.0093;
-84.3000;0.3313;1.0093;
-84.0000;0.3329;1.0218;
-83.7000;0.3305;1.0243;
-83.4000;0.3313;1.0243;
-83.1000;0.3321;1.0268;
-82.8000;0.3378;1.0392;
-82.5000;0.3305;1.0168;
-82.2000;0.3313;1.0168;
-81.9000;0.3321;1.0218;
-81.6000;0.3321;1.0268;
-81.3000;0.3305;1.0243;
-81.0000;0.3305;1.0318;
-80.7000;0.3321;1.0368;
-80.4000;0.3297;1.0318;
-80.1000;0.3305;1.0318;
-79.8000;0.3313;1.0318;
-79.5000;0.3313;1.0268;
-79.2000;0.3313;1.0193;
-78.9000;0.3313;1.0268;
-78.6000;0.3321;1.0193;
-78.3000;0.3305;1.0143;
-78.0000;0.3313;1.0218;
-77.7000;0.3313;1.0368;
-77.4000;0.3297;1.0293;
-77.1000;0.3313;1.0318;
-76.8000;0.3313;1.0293;
-76.5000;0.3321;1.0218;
-76.2000;0.3297;1.0193;
-75.9000;0.3297;1.0168;
-75.6000;0.3313;1.0193;
-75.3000;0.3305;1.0143;
-75.0000;0.3313;1.0068;
-74.7000;0.3329;1.0118;
-74.4000;0.3248;0.9944;
-74.1000;0.3329;1.0118;
-73.8000;0.3305;1.0093;
-73.5000;0.3346;1.0093;
-73.2000;0.3386;1.0168;
-72.9000;0.3329;1.0044;
-72.6000;0.3272;0.9919;
-72.3000;0.3313;0.9994;
-72.0000;0.3305;0.9994;
-71.7000;0.3305;0.9994;
-71.4000;0.3337;1.0118;
-71.1000;0.3313;1.0118;
-70.8000;0.3297;1.0044;
-70.5000;0.3321;1.0068;
-70.2000;0.3321;1.0068;
-69.9000;0.3313;1.0044;
-69.6000;0.3321;0.9919;
-69.3000;0.3313;0.9944;
-69.0000;0.3313;0.9844;
-68.7000;0.3313;0.9919;
-68.4000;0.3215;0.9670;
-68.1000;0.3321;1.0019;
-67.8000;0.3329;1.0068;
-67.5000;0.3354;1.0218;
-67.2000;0.3337;1.0168;
-66.9000;0.3289;1.0044;
-66.6000;0.3305;1.0019;
-66.3000;0.3240;0.9919;
-66.0000;0.3297;1.0068;
-65.7000;0.3297;1.0143;
-65.4000;0.3240;1.0019;
-65.1000;0.3297;1.0243;
-64.8000;0.3313;1.0218;
-64.5000;0.3305;1.0143;
-64.2000;0.3305;1.0143;
-63.9000;0.3313;1.0218;
-63.6000;0.3297;1.0168;
-63.3000;0.3297;1.0118;
-63.0000;0.3313;1.0168;
-62.7000;0.3305;1.0193;
-62.4000;0.3337;1.0243;
-62.1000;0.3297;1.0143;
-61.8000;0.3297;1.0068;
-61.5000;0.3280;0.9994;
-61.2000;0.3419;1.0368;
-60.9000;0.3313;1.0168;
-60.6000;0.3305;1.0218;
-60.3000;0.3305;1.0243;
-60.0000;0.3305;1.0343;
-59.7000;0.3313;1.0318;
-59.4000;0.3337;1.0492;
-59.1000;0.3313;1.0368;
-58.8000;0.3411;1.0567;
-58.5000;0.3305;1.0318;
-58.2000;0.3313;1.0343;
-57.9000;0.3313;1.0293;
-57.6000;0.3305;1.0243;
-57.3000;0.3297;1.0193;
-57.0000;0.3305;1.0118;
-56.7000;0.3297;1.0068;
-56.4000;0.3297;1.0093;
-56.1000;0.3305;1.0118;
-55.8000;0.3297;1.0044;
-55.5000;0.3297;1.0019;
-55.2000;0.3321;0.9994;
-54.9000;0.3313;0.9944;
-54.6000;0.3313;1.0019;
-54.3000;0.3289;0.9944;
-54.0000;0.3297;0.9994;
-53.7000;0.3313;1.0044;
-53.4000;0.3313;1.0044;
-53.1000;0.3305;0.9944;
-52.8000;0.3280;0.9844;
-52.5000;0.3337;0.9944;
-52.2000;0.3321;0.9944;
-51.9000;0.3313;0.9844;
-51.6000;0.3297;0.9919;
-51.3000;0.3305;0.9969;
-51.0000;0.3313;0.9869;
-50.7000;0.3305;0.9869;
-50.4000;0.3313;0.9894;
-50.1000;0.3313;0.9994;
-49.8000;0.3313;0.9894;
-49.5000;0.3313;0.9869;
-49.2000;0.3305;0.9869;
-48.9000;0.3313;0.9869;
-48.6000;0.3313;0.9944;
-48.3000;0.3329;0.9994;
-48.0000;0.3305;0.9919;
-47.7000;0.3297;1.0044;
-47.4000;0.3313;1.0044;
-47.1000;0.3305;1.0118;
-46.8000;0.3313;1.0118;
-46.5000;0.3305;1.0118;
-46.2000;0.3313;1.0118;
-45.9000;0.3321;1.0143;
-45.6000;0.3305;1.0044;
-45.3000;0.3232;0.9844;
-45.0000;0.3297;1.0068;
-44.7000;0.3305;1.0093;
-44.4000;0.3289;1.0093;
-44.1000;0.3313;1.0218;
-43.8000;0.3256;1.0093;
-43.5000;0.3313;1.0318;
-43.2000;0.3305;1.0293;
-42.9000;0.3305;1.0218;
-42.6000;0.3313;1.0143;
-42.3000;0.3329;1.0143;
-42.0000;0.3337;1.0118;
-41.7000;0.3321;1.0019;
-41.4000;0.3305;0.9969;
-41.1000;0.3313;0.9969;
-40.8000;0.3248;0.9769;
-40.5000;0.3297;0.9894;
-40.2000;0.3305;0.9919;
-39.9000;0.3232;0.9769;
-39.6000;0.3313;1.0019;
-39.3000;0.3321;1.0019;
-39.0000;0.3313;0.9994;
-38.7000;0.3264;0.9969;
-38.4000;0.3313;1.0068;
-38.1000;0.3329;1.0168;
-37.8000;0.3313;1.0068;
-37.5000;0.3297;0.9994;
-37.2000;0.3386;1.0218;
-36.9000;0.3305;0.9994;
-36.6000;0.3297;0.9969;
-36.3000;0.3321;1.0118;
-36.0000;0.3256;0.9944;
-35.7000;0.3337;1.0093;
-35.4000;0.3280;0.9994;
-35.1000;0.3321;1.0093;
-34.8000;0.3321;1.0068;
-34.5000;0.3337;1.0118;
-34.2000;0.3321;1.0118;
-33.9000;0.3297;1.0019;
-33.6000;0.3329;1.0118;
-33.3000;0.3321;1.0118;
-33.0000;0.3297;1.0044;
-32.7000;0.3305;1.0019;
-32.4000;0.3321;0.9969;
-32.1000;0.3313;1.0068;
-31.8000;0.3370;1.0368;
-31.5000;0.3305;1.0193;
-31.2000;0.3305;1.0143;
-30.9000;0.3313;1.0218;
-30.6000;0.3305;1.0168;
-30.3000;0.3305;1.0143;
-30.0000;0.3297;1.0118;
-29.7000;0.3313;1.0068;
-29.4000;0.3297;0.9969;
-29.1000;0.3337;1.0019;
-28.8000;0.3305;1.0044;
-28.5000;0.3321;1.0168;
-28.2000;0.3280;1.0093;
-27.9000;0.3305;1.0168;
-27.6000;0.3256;1.0168;
-27.3000;0.3305;1.0293;
-27.0000;0.3321;1.0368;
-26.7000;0.3305;1.0343;
-26.4000;0.3297;1.0268;
-26.1000;0.3297;1.0268;
-25.8000;0.3305;1.0293;
-25.5000;0.3321;1.0293;
-25.2000;0.3297;1.0243;
-24.9000;0.3321;1.0243;
-24.6000;0.3411;1.0517;
-24.3000;0.3329;1.0243;
-24.0000;0.3321;1.0093;
-23.7000;0.3321;1.0143;
-23.4000;0.3313;1.0118;
-23.1000;0.3321;1.0168;
-22.8000;0.3305;1.0168;
-22.5000;0.3313;1.0168;
-22.2000;0.3297;1.0168;
-21.9000;0.3305;1.0193;
-21.6000;0.3313;1.0168;
-21.3000;0.3289;1.0068;
-21.0000;0.3305;1.0068;
-20.7000;0.3329;1.0093;
-20.4000;0.3305;1.0093;
-20.1000;0.3289;0.9994;
-19.8000;0.3297;1.0093;
-19.5000;0.3305;1.0168;
-19.2000;0.3321;1.0193;
-18.9000;0.3313;1.0193;
-18.6000;0.3313;1.0268;
-18.3000;0.3313;1.0343;
-18.0000;0.3280;1.0268;
-17.7000;0.3313;1.0343;
-17.4000;0.3272;1.0268;
-17.1000;0.3313;1.0218;
-16.8000;0.3321;1.0143;
-16.5000;0.3313;1.0093;
-16.2000;0.3313;1.0019;
-15.9000;0.3321;1.0019;
-15.6000;0.3313;0.9994;
-15.3000;0.3313;0.9944;
-15.0000;0.3272;0.9794;
-14.7000;0.3297;0.9869;
-14.4000;0.3313;0.9894;
-14.1000;0.3305;0.9844;
-13.8000;0.3297;0.9769;
-13.5000;0.3305;0.9894;
-13.2000;0.3321;0.9944;
-12.9000;0.3313;0.9969;
-12.6000;0.3313;0.9994;
-12.3000;0.3297;0.9969;
-12.0000;0.3240;0.9894;
-11.7000;0.3313;1.0044;
-11.4000;0.3313;1.0044;
-11.1000;0.3297;1.0044;
-10.8000;0.3313;1.0044;
-10.5000;0.3305;0.9994;
-10.2000;0.3289;0.9994;
-9.9000;0.3313;1.0019;
-9.6000;0.3329;1.0093;
-9.3000;0.3321;0.9994;
-9.0000;0.3305;0.9994;
-8.7000;0.3313;1.0044;
-8.4000;0.3313;1.0068;
-8.1000;0.3305;1.0093;
-7.8000;0.3305;1.0143;
-7.5000;0.3297;1.0143;
-7.2000;0.3297;1.0118;
-6.9000;0.3313;1.0118;
-6.6000;0.3305;1.0068;
-6.3000;0.3289;1.0068;
-6.0000;0.3305;1.0118;
-5.7000;0.3297;1.0118;
-5.4000;0.3305;1.0093;
-5.1000;0.3321;1.0168;
-4.8000;0.3329;1.0118;
-4.5000;0.3297;1.0068;
-4.2000;0.3305;1.0019;
-3.9000;0.3313;0.9969;
-3.6000;0.3289;0.9944;
-3.3000;0.3337;1.0143;
-3.0000;0.3321;1.0093;
-2.7000;0.3321;1.0168;
-2.4000;0.3305;1.0168;
-2.1000;0.3313;1.0218;
-1.8000;0.3305;1.0118;
-1.5000;0.3240;0.9944;
-1.2000;0.3313;1.0118;
-0.9000;0.3313;1.0143;
-0.6000;0.3305;0.9994;
-0.3000;0.3297;0.9944;
0.0000;0.3297;0.9944;
0.3000;0.3394;1.0168;
0.6000;0.3525;1.0592;
0.9000;0.3647;1.1090;
1.2000;0.3736;1.1489;
1.5000;0.3810;1.1788;
1.8000;0.3867;1.2087;
2.1000;0.3899;1.2386;
2.4000;0.3923;1.2586;
2.7000;0.3932;1.2835;
3.0000;0.3972;1.3059;
3.3000;0.4005;1.3209;
3.6000;0.3997;1.3283;
3.9000;0.4013;1.3358;
4.2000;0.4021;1.3533;
4.5000;0.4054;1.3508;
4.8000;0.4062;1.3458;
5.1000;0.4062;1.3433;
5.4000;0.4062;1.3483;
5.7000;0.4070;1.3508;
6.0000;0.4103;1.3582;
6.3000;0.4094;1.3558;
6.6000;0.4086;1.3582;
6.9000;0.4103;1.3682;
7.2000;0.4111;1.3732;
7.5000;0.4086;1.3707;
7.8000;0.4103;1.3682;
8.1000;0.4103;1.3707;
8.4000;0.4119;1.3682;
8.7000;0.4135;1.3682;
9.0000;0.4127;1.3632;
9.3000;0.4127;1.3632;
9.6000;0.4143;1.3682;
9.9000;0.4143;1.3707;
10.2000;0.4135;1.3757;
10.5000;0.4151;1.3757;
10.8000;0.4160;1.3757;
11.1000;0.4151;1.3757;
11.4000;0.4160;1.3832;
11.7000;0.4184;1.3882;
12.0000;0.4184;1.3807;
12.3000;0.4176;1.3782;
12.6000;0.4168;1.3832;
12.9000;0.4160;1.3807;
13.2000;0.4168;1.3807;
13.5000;0.4176;1.3832;
13.8000;0.4184;1.3832;
14.1000;0.4176;1.3782;
14.4000;0.4176;1.3757;
14.7000;0.4184;1.3857;
15.0000;0.4200;1.3857;
15.3000;0.4192;1.3882;
15.6000;0.4184;1.3857;
15.9000;0.4184;1.3732;
16.2000;0.4217;1.3782;
16.5000;0.4168;1.3657;
16.8000;0.4208;1.3782;
17.1000;0.4265;1.3956;
17.4000;0.4111;1.3582;
17.7000;0.4184;1.3882;
18.0000;0.4184;1.3882;
18.3000;0.4192;1.3757;
18.6000;0.4208;1.3832;
18.9000;0.4241;1.3981;
19.2000;0.4200;1.3782;
19.5000;0.4208;1.3757;
19.8000;0.4217;1.3832;
20.1000;0.4225;1.3757;
20.4000;0.4225;1.3732;
20.7000;0.4217;1.3707;
21.0000;0.4233;1.3682;
21.3000;0.4241;1.3607;
21.6000;0.4176;1.3508;
21.9000;0.4225;1.3607;
22.2000;0.4217;1.3632;
22.5000;0.4233;1.3707;
22.8000;0.4249;1.3732;
23.1000;0.4217;1.3757;
23.4000;0.4233;1.3732;
23.7000;0.4225;1.3707;
24.0000;0.4241;1.3682;
24.3000;0.4290;1.3807;
24.6000;0.4217;1.3682;
24.9000;0.4241;1.3657;
25.2000;0.4249;1.3657;
25.5000;0.4241;1.3682;
25.8000;0.4274;1.3682;
26.1000;0.4249;1.3632;
26.4000;0.4233;1.3558;
26.7000;0.4200;1.3483;
27.0000;0.4249;1.3632;
27.3000;0.4274;1.3632;
27.6000;0.4257;1.3558;
27.9000;0.4184;1.3358;
28.2000;0.4249;1.3582;
28.5000;0.4225;1.3533;
28.8000;0.4249;1.3582;
29.1000;0.4274;1.3607;
29.4000;0.4241;1.3558;
29.7000;0.4249;1.3558;
30.0000;0.4265;1.3533;
30.3000;0.4265;1.3632;
30.6000;0.4208;1.3458;
30.9000;0.4249;1.3508;
31.2000;0.4265;1.3582;
31.5000;0.4339;1.3707;
31.8000;0.4249;1.3508;
32.1000;0.4249;1.3508;
32.4000;0.4233;1.3483;
32.7000;0.4265;1.3558;
33.0000;0.4265;1.3533;
33.3000;0.4274;1.3458;
33.6000;0.4249;1.3358;
33.9000;0.4257;1.3408;
34.2000;0.4274;1.3458;
34.5000;0.4265;1.3483;
34.8000;0.4282;1.3533;
35.1000;0.4330;1.3682;
35.4000;0.4274;1.3458;
35.7000;0.4265;1.3433;
36.0000;0.4322;1.3533;
36.3000;0.4306;1.3558;
36.6000;0.4282;1.3508;
36.9000;0.4274;1.3508;
37.2000;0.4274;1.3483;
37.5000;0.4265;1.3408;
37.8000;0.4282;1.3483;
38.1000;0.4249;1.3383;
38.4000;0.4200;1.3209;
38.7000;0.4257;1.3383;
39.0000;0.4290;1.3458;
39.3000;0.4274;1.3433;
39.6000;0.4290;1.3433;
39.9000;0.4282;1.3383;
40.2000;0.4290;1.3308;
40.5000;0.4265;1.3258;
40.8000;0.4290;1.3408;
41.1000;0.4274;1.3408;
41.4000;0.4306;1.3458;
41.7000;0.4274;1.3458;
42.0000;0.4322;1.3558;
42.3000;0.4282;1.3408;
42.6000;0.4298;1.3358;
42.9000;0.4306;1.3333;
43.2000;0.4290;1.3234;
43.5000;0.4298;1.3234;
43.8000;0.4298;1.3209;
44.1000;0.4298;1.3258;
44.4000;0.4298;1.3283;
44.7000;0.4298;1.3134;
45.0000;0.4274;1.3159;
45.3000;0.4355;1.3258;
45.6000;0.4306;1.3109;
45.9000;0.4306;1.3184;
46.2000;0.4298;1.3109;
46.5000;0.4290;1.3009;
46.8000;0.4371;1.3234;
47.1000;0.4274;1.3009;
47.4000;0.4322;1.3084;
47.7000;0.4290;1.2910;
48.0000;0.4314;1.3034;
48.3000;0.4330;1.3159;
48.6000;0.4322;1.3184;
48.9000;0.4314;1.3209;
49.2000;0.4290;1.3184;
49.5000;0.4298;1.3283;
49.8000;0.4339;1.3333;
50.1000;0.4314;1.3209;
50.4000;0.4339;1.3333;
50.7000;0.4322;1.3209;
51.0000;0.4314;1.3109;
51.3000;0.4330;1.3184;
51.6000;0.4347;1.3134;
51.9000;0.4314;1.3084;
52.2000;0.4322;1.3134;
52.5000;0.4314;1.3084;
52.8000;0.4306;1.3034;
53.1000;0.4322;1.3109;
53.4000;0.4290;1.3034;
53.7000;0.4306;1.3059;
54.0000;0.4330;1.3084;
54.3000;0.4290;1.2984;
54.6000;0.4339;1.3034;
54.9000;0.4314;1.2984;
55.2000;0.4347;1.3009;
55.5000;0.4355;1.3034;
55.8000;0.4339;1.3084;
56.1000;0.4347;1.3109;
56.4000;0.4314;1.3034;
56.7000;0.4355;1.3134;
57.0000;0.4347;1.3134;
57.3000;0.4225;1.2810;
57.6000;0.4339;1.2984;
57.9000;0.4355;1.3084;
58.2000;0.4339;1.3084;
58.5000;0.4298;1.2860;
58.8000;0.4241;1.2710;
59.1000;0.4306;1.2885;
59.4000;0.4347;1.2934;
59.7000;0.4339;1.2984;
60.0000;0.4347;1.2934;
60.3000;0.4339;1.2835;
60.6000;0.4339;1.2760;
60.9000;0.4355;1.2760;
61.2000;0.4339;1.2785;
61.5000;0.4322;1.2760;
61.8000;0.4330;1.2885;
62.1000;0.4371;1.2959;
62.4000;0.4355;1.2860;
62.7000;0.4330;1.2810;
63.0000;0.4355;1.2835;
63.3000;0.4412;1.3009;
63.6000;0.4339;1.2860;
63.9000;0.4257;1.2536;
64.2000;0.4298;1.2710;
64.5000;0.4379;1.2885;
64.8000;0.4379;1.2885;
65.1000;0.4355;1.2910;
65.4000;0.4347;1.2785;
65.7000;0.4379;1.2860;
66.0000;0.4379;1.2910;
66.3000;0.4282;1.2685;
66.6000;0.4371;1.2934;
66.9000;0.4371;1.2959;
67.2000;0.4355;1.3034;
67.5000;0.4371;1.3009;
67.8000;0.4379;1.3009;
68.1000;0.4379;1.2959;
68.4000;0.4387;1.2835;
68.7000;0.4379;1.2760;
69.0000;0.4371;1.2710;
69.3000;0.4379;1.2785;
69.6000;0.4379;1.2735;
69.9000;0.4404;1.2685;
70.2000;0.4485;1.2959;
70.5000;0.4387;1.2660;
70.8000;0.4379;1.2710;
71.1000;0.4404;1.2785;
71.4000;0.4387;1.2760;
71.7000;0.4396;1.2760;
72.0000;0.4387;1.2785;
72.3000;0.4387;1.2760;
72.6000;0.4379;1.2685;
72.9000;0.4396;1.2685;
73.2000;0.4396;1.2735;
73.5000;0.4396;1.2685;
73.8000;0.4396;1.2610;
74.1000;0.4387;1.2586;
74.4000;0.4379;1.2760;
74.7000;0.4379;1.2810;
75.0000;0.4396;1.2910;
75.3000;0.4379;1.2934;
75.6000;0.4371;1.2860;
75.9000;0.4396;1.2934;
76.2000;0.4387;1.2934;
76.5000;0.4396;1.3034;
76.8000;0.4387;1.3034;
77.1000;0.4396;1.3084;
77.4000;0.4371;1.2934;
77.7000;0.4420;1.3059;
78.0000;0.4404;1.3109;
78.3000;0.4387;1.3059;
78.6000;0.4420;1.3009;
78.9000;0.4396;1.2885;
79.2000;0.4339;1.2685;
79.5000;0.4412;1.2860;
79.8000;0.4379;1.2760;
80.1000;0.4339;1.2710;
80.4000;0.4387;1.2835;
80.7000;0.4387;1.2785;
81.0000;0.4404;1.2810;
81.3000;0.4379;1.2760;
81.6000;0.4396;1.2710;
81.9000;0.4396;1.2735;
82.2000;0.4412;1.2760;
82.5000;0.4428;1.2785;
82.8000;0.4412;1.2710;
83.1000;0.4396;1.2735;
83.4000;0.4412;1.2785;
83.7000;0.4412;1.2760;
84.0000;0.4420;1.2785;
84.3000;0.4396;1.2660;
84.6000;0.4436;1.2835;
84.9000;0.4363;1.2710;
85.2000;0.4412;1.2785;
85.5000;0.4404;1.2785;
85.8000;0.4420;1.2934;
86.1000;0.4428;1.2860;
86.4000;0.4412;1.2810;
86.7000;0.4379;1.2760;
87.0000;0.4371;1.2685;
87.3000;0.4444;1.2835;
87.6000;0.4436;1.2810;
87.9000;0.4436;1.2835;
88.2000;0.4412;1.2835;
88.5000;0.4428;1.2810;
88.8000;0.4428;1.2835;
89.1000;0.4404;1.2810;
89.4000;0.4412;1.2910;
89.7000;0.4436;1.2984;
90.0000;0.4412;1.2959;
90.3000;0.4396;1.2910;
90.6000;0.4404;1.2984;
90.9000;0.4412;1.2885;
91.2000;0.4412;1.2934;
91.5000;0.4428;1.2934;
91.8000;0.4412;1.2860;
92.1000;0.4412;1.2860;
92.4000;0.4436;1.2860;
92.7000;0.4510;1.3109;
93.0000;0.4420;1.2760;
93.3000;0.4412;1.2710;
93.6000;0.4420;1.2685;
93.9000;0.4404;1.2660;
94.2000;0.4420;1.2685;
94.5000;0.4412;1.2735;
94.8000;0.4420;1.2785;
95.1000;0.4428;1.2760;
95.4000;0.4428;1.2760;
95.7000;0.4428;1.2710;
96.0000;0.4428;1.2710;
96.3000;0.4444;1.2710;
96.6000;0.4436;1.2760;
96.9000;0.4428;1.2760;
97.2000;0.4510;1.2984;
97.5000;0.4444;1.2934;
97.8000;0.4444;1.2885;
98.1000;0.4428;1.2835;
98.4000;0.4436;1.2860;
98.7000;0.4444;1.2885;
99.0000;0.4436;1.2810;
99.3000;0.4420;1.2835;
99.6000;0.4428;1.2810;
99.9000;0.4436;1.2785;
100.2000;0.4436;1.2785;
100.5000;0.4436;1.2810;
100.8000;0.4420;1.2860;
101.1000;0.4420;1.2810;
101.4000;0.4436;1.2860;
101.7000;0.4428;1.2885;
102.0000;0.4404;1.2785;
102.3000;0.4436;1.2910;
102.6000;0.4453;1.2810;
102.9000;0.4453;1.2785;
103.2000;0.4428;1.2760;
103.5000;0.4420;1.2810;
103.8000;0.4436;1.2860;
104.1000;0.4453;1.2860;
104.4000;0.4436;1.2860;
104.7000;0.4412;1.2785;
105.0000;0.4428;1.2885;
105.3000;0.4420;1.2860;
105.6000;0.4428;1.2810;
105.9000;0.4444;1.2860;
106.2000;0.4420;1.2835;
106.5000;0.4436;1.2885;
106.8000;0.4444;1.2860;
107.1000;0.4510;1.2934;
107.4000;0.4444;1.2835;
107.7000;0.4461;1.2760;
108.0000;0.4453;1.2860;
108.3000;0.4453;1.2984;
108.6000;0.4485;1.3159;
108.9000;0.4461;1.3034;
109.2000;0.4444;1.2934;
109.5000;0.4436;1.2810;
109.8000;0.4436;1.2835;
110.1000;0.4444;1.2885;
110.4000;0.4444;1.2860;
110.7000;0.4453;1.2860;
111.0000;0.4444;1.2810;
111.3000;0.4461;1.2810;
111.6000;0.4444;1.2760;
111.9000;0.4453;1.2785;
112.2000;0.4428;1.2735;
112.5000;0.4453;1.2810;
112.8000;0.4485;1.2910;
113.1000;0.4461;1.2885;
113.4000;0.4436;1.2810;
113.7000;0.4453;1.2860;
114.0000;0.4453;1.2885;
114.3000;0.4444;1.2860;
114.6000;0.4444;1.2860;
114.9000;0.4453;1.2910;
115.2000;0.4436;1.2835;
115.5000;0.4444;1.2910;
115.8000;0.4444;1.2860;
116.1000;0.4436;1.2810;
116.4000;0.4436;1.2785;
116.7000;0.4469;1.2835;
117.0000;0.4461;1.2860;
117.3000;0.4444;1.2835;
117.6000;0.4453;1.2885;
117.9000;0.4469;1.2910;
118.2000;0.4453;1.2959;
118.5000;0.4444;1.2934;
118.8000;0.4420;1.2934;
119.1000;0.4453;1.2934;
119.4000;0.4444;1.2984;
119.7000;0.4493;1.3084;
120.0000;0.4453;1.2959;
120.3000;0.4461;1.2934;
120.6000;0.4461;1.2934;
120.9000;0.4453;1.2959;
121.2000;0.4453;1.2984;
121.5000;0.4453;1.2984;
121.8000;0.4469;1.2934;
122.1000;0.4469;1.2934;
122.4000;0.4461;1.2934;
122.7000;0.4461;1.3084;
123.0000;0.4461;1.3159;
123.3000;0.4453;1.3109;
123.6000;0.4453;1.3009;
123.9000;0.4453;1.2885;
124.2000;0.4436;1.2835;
124.5000;0.4444;1.2885;
124.8000;0.4436;1.2860;
125.1000;0.4461;1.2835;
125.4000;0.4501;1.3009;
125.7000;0.4461;1.2934;
126.0000;0.4444;1.2934;
126.3000;0.4453;1.2934;
126.6000;0.4461;1.2959;
126.9000;0.4493;1.2910;
127.2000;0.4453;1.2810;
127.5000;0.4453;1.2860;
127.8000;0.4461;1.2910;
128.1000;0.4461;1.2959;
128.4000;0.4453;1.2934;
128.7000;0.4444;1.2959;
129.0000;0.4444;1.2910;
129.3000;0.4510;1.3059;
129.6000;0.4453;1.2885;
129.9000;0.4444;1.2860;
130.2000;0.4436;1.2810;
130.5000;0.4444;1.2760;
130.8000;0.4453;1.2810;
131.1000;0.4444;1.2785;
131.4000;0.4444;1.2785;
131.7000;0.4461;1.2785;
132.0000;0.4453;1.2710;
132.3000;0.4453;1.2810;
132.6000;0.4444;1.2885;
132.9000;0.4444;1.2934;
133.2000;0.4453;1.2959;
133.5000;0.4453;1.2984;
133.8000;0.4469;1.3009;
134.1000;0.4461;1.3009;
134.4000;0.4453;1.3034;
134.7000;0.4453;1.3009;
135.0000;0.4444;1.3009;
135.3000;0.4444;1.3084;
135.6000;0.4453;1.3159;
135.9000;0.4453;1.3159;
136.2000;0.4444;1.3109;
136.5000;0.4444;1.3009;
136.8000;0.4436;1.2860;
137.1000;0.4453;1.2910;
137.4000;0.4469;1.2959;
137.7000;0.4444;1.2785;
138.0000;0.4436;1.2835;
138.3000;0.4453;1.2835;
138.6000;0.4444;1.2835;
138.9000;0.4444;1.2860;
139.2000;0.4444;1.2885;
139.5000;0.4453;1.2959;
139.8000;0.4469;1.3009;
140.1000;0.4428;1.2910;
140.4000;0.4444;1.2984;
140.7000;0.4444;1.2984;
141.0000;0.4453;1.3009;
141.3000;0.4420;1.2885;
141.6000;0.4436;1.2885;
141.9000;0.4469;1.2959;
142.2000;0.4461;1.3009;
142.5000;0.4444;1.2959;
142.8000;0.4453;1.2984;
143.1000;0.4444;1.2885;
143.4000;0.4444;1.2910;
143.7000;0.4444;1.2860;
144.0000;0.4436;1.2735;
144.3000;0.4542;1.3034;
144.6000;0.4444;1.2735;
144.9000;0.4436;1.2710;
145.2000;0.4436;1.2635;
145.5000;0.4436;1.2660;
145.8000;0.4444;1.2710;
146.1000;0.4444;1.2785;
146.4000;0.4444;1.2810;
146.7000;0.4453;1.2835;
147.0000;0.4436;1.2785;
147.3000;0.4379;1.2610;
147.6000;0.4444;1.2710;
147.9000;0.4485;1.2885;
148.2000;0.4436;1.2785;
148.5000;0.4453;1.2735;
148.8000;0.4436;1.2760;
149.1000;0.4428;1.2760;
149.4000;0.4428;1.2785;
149.7000;0.4444;1.2885;
150.0000;0.4428;1.2910;
150.3000;0.4355;1.2735;
150.6000;0.4436;1.2885;
150.9000;0.4453;1.3009;
151.2000;0.4444;1.2910;
151.5000;0.4444;1.2860;
151.8000;0.4436;1.2910;
152.1000;0.4453;1.2959;
152.4000;0.4444;1.2910;
152.7000;0.4444;1.2835;
153.0000;0.4453;1.2885;
153.3000;0.4444;1.2910;
153.6000;0.4453;1.2885;
153.9000;0.4444;1.2910;
154.2000;0.4428;1.2835;
154.5000;0.4420;1.2934;
154.8000;0.4453;1.3084;
155.1000;0.4436;1.3059;
155.4000;0.4396;1.2934;
155.7000;0.4436;1.2984;
156.0000;0.4444;1.3009;
156.3000;0.4347;1.2835;
156.6000;0.4436;1.3009;
156.9000;0.4444;1.2984;
157.2000;0.4469;1.3034;
157.5000;0.4436;1.2910;
157.8000;0.4428;1.2959;
158.1000;0.4453;1.3084;
158.4000;0.4436;1.2984;
158.7000;0.4444;1.2984;
159.0000;0.4453;1.2984;
159.3000;0.4420;1.2934;
159.6000;0.4453;1.2934;
159.9000;0.4436;1.2910;
160.2000;0.4436;1.2910;
160.5000;0.4469;1.3034;
160.8000;0.4436;1.3034;
161.1000;0.4428;1.3209;
161.4000;0.4444;1.3283;
161.7000;0.4436;1.3308;
162.0000;0.4436;1.3258;
162.3000;0.4436;1.3184;
162.6000;0.4444;1.3283;
162.9000;0.4444;1.3184;
163.2000;0.4436;1.3209;
163.5000;0.4404;1.3134;
163.8000;0.4510;1.3383;
164.1000;0.4444;1.3258;
164.4000;0.4444;1.3234;
164.7000;0.4436;1.3258;
165.0000;0.4453;1.3209;
165.3000;0.4436;1.3159;
165.6000;0.4453;1.3059;
165.9000;0.4444;1.3059;
166.2000;0.4444;1.3084;
166.5000;0.4355;1.2810;
166.8000;0.4444;1.3134;
167.1000;0.4436;1.3084;
167.4000;0.4412;1.3134;
167.7000;0.4493;1.3308;
168.0000;0.4444;1.3258;
168.3000;0.4444;1.3258;
168.6000;0.4412;1.3159;
168.9000;0.4453;1.3209;
169.2000;0.4436;1.3184;
169.5000;0.4444;1.3059;
169.8000;0.4444;1.3109;
170.1000;0.4444;1.3159;
170.4000;0.4436;1.3134;
170.7000;0.4444;1.3184;
171.0000;0.4461;1.3258;
171.3000;0.4436;1.3134;
171.6000;0.4444;1.3109;
171.9000;0.4428;1.2984;
172.2000;0.4485;1.3109;
172.5000;0.4436;1.3009;
172.8000;0.4469;1.3034;
173.1000;0.4461;1.2959;
173.4000;0.4453;1.3034;
173.7000;0.4396;1.3034;
174.0000;0.4444;1.3134;
174.3000;0.4387;1.3009;
174.6000;0.4436;1.3234;
174.9000;0.4444;1.3234;
175.2000;0.4436;1.3209;
175.5000;0.4404;1.3109;
175.8000;0.4396;1.3034;
176.1000;0.4428;1.3109;
176.4000;0.4510;1.3283;
176.7000;0.4453;1.3084;
177.0000;0.4453;1.3059;
177.3000;0.4444;1.3084;
177.6000;0.4428;1.3084;
177.9000;0.4444;1.3059;
178.2000;0.4428;1.3059;
178.5000;0.4428;1.2984;
178.8000;0.4436;1.2984;
179.1000;0.4444;1.3009;
179.4000;0.4420;1.2959;
179.7000;0.4412;1.2810;
180.0000;0.4420;1.2910;
180.3000;0.4444;1.2959;
180.6000;0.4412;1.2860;
180.9000;0.4436;1.2984;
181.2000;0.4428;1.2860;
181.5000;0.4444;1.2860;
181.8000;0.4436;1.2860;
182.1000;0.4420;1.2785;
182.4000;0.4314;1.2436;
182.7000;0.4461;1.2910;
183.0000;0.4428;1.2885;
183.3000;0.4355;1.2785;
183.6000;0.4444;1.3109;
183.9000;0.4428;1.3109;
184.2000;0.4461;1.3184;
184.5000;0.4436;1.3109;
184.8000;0.4412;1.3034;
185.1000;0.4444;1.3009;
185.4000;0.4420;1.3084;
185.7000;0.4444;1.3084;
186.0000;0.4404;1.3109;
186.3000;0.4428;1.3184;
186.6000;0.4436;1.3283;
186.9000;0.4428;1.3258;
187.2000;0.4420;1.3283;
187.5000;0.4436;1.3283;
187.8000;0.4436;1.3258;
188.1000;0.4436;1.3234;
188.4000;0.4428;1.3209;
188.7000;0.4412;1.3209;
189.0000;0.4428;1.3283;
189.3000;0.4404;1.3258;
189.6000;0.4420;1.3159;
189.9000;0.4387;1.3059;
190.2000;0.4420;1.3109;
190.5000;0.4387;1.2984;
190.8000;0.4404;1.3109;
191.1000;0.4404;1.3134;
191.4000;0.4428;1.3134;
191.7000;0.4428;1.3134;
192.0000;0.4396;1.3009;
192.3000;0.4412;1.3059;
192.6000;0.4387;1.2959;
192.9000;0.4428;1.3084;
193.2000;0.4428;1.3109;
193.5000;0.4420;1.3109;
193.8000;0.4428;1.3184;
194.1000;0.4469;1.3209;
194.4000;0.4436;1.3109;
194.7000;0.4404;1.3084;
195.0000;0.4436;1.3134;
195.3000;0.4420;1.3134;
195.6000;0.4420;1.3084;
195.9000;0.4420;1.3009;
196.2000;0.4453;1.3109;
196.5000;0.4428;1.3034;
196.8000;0.4428;1.3084;
197.1000;0.4436;1.3134;
197.4000;0.4420;1.3084;
197.7000;0.4404;1.3109;
198.0000;0.4420;1.3308;
198.3000;0.4428;1.3308;
198.6000;0.4428;1.3283;
198.9000;0.4404;1.3234;
199.2000;0.4404;1.3159;
199.5000;0.4428;1.3258;
199.8000;0.4420;1.3333;
200.1000;0.4420;1.3308;
200.4000;0.4420;1.3308;
200.7000;0.4420;1.3333;
201.0000;0.4420;1.3408;
201.3000;0.4412;1.3333;
201.6000;0.4436;1.3308;
201.9000;0.4420;1.3258;
202.2000;0.4436;1.3333;
202.5000;0.4420;1.3283;
202.8000;0.4428;1.3308;
203.1000;0.4436;1.3283;
203.4000;0.4412;1.3234;
203.7000;0.4404;1.3209;
204.0000;0.4412;1.3209;
204.3000;0.4428;1.3333;
204.6000;0.4420;1.3308;
204.9000;0.4436;1.3383;
205.2000;0.4420;1.3283;
205.5000;0.4420;1.3308;
205.8000;0.4420;1.3258;
206.1000;0.4404;1.3283;
206.4000;0.4428;1.3358;
206.7000;0.4404;1.3283;
207.0000;0.4412;1.3258;
207.3000;0.4436;1.3358;
207.6000;0.4428;1.3333;
207.9000;0.4436;1.3383;
208.2000;0.4428;1.3308;
208.5000;0.4412;1.3283;
208.8000;0.4420;1.3134;
209.1000;0.4428;1.3134;
209.4000;0.4420;1.3109;
209.7000;0.4396;1.3009;
210.0000;0.4379;1.2934;
210.3000;0.4404;1.3059;
210.6000;0.4412;1.2984;
210.9000;0.4347;1.2760;
211.2000;0.4387;1.2934;
211.5000;0.4428;1.2934;
211.8000;0.4420;1.3009;
212.1000;0.4428;1.3009;
212.4000;0.4428;1.2959;
212.7000;0.4420;1.2984;
213.0000;0.4428;1.2984;
213.3000;0.4436;1.3059;
213.6000;0.4436;1.3034;
213.9000;0.4412;1.3109;
214.2000;0.4420;1.3134;
214.5000;0.4436;1.3209;
214.8000;0.4396;1.3209;
215.1000;0.4379;1.3134;
215.4000;0.4396;1.3258;
215.7000;0.4404;1.3209;
216.0000;0.4404;1.3283;
216.3000;0.4404;1.3258;
216.6000;0.4404;1.3184;
216.9000;0.4404;1.3159;
217.2000;0.4404;1.3333;
217.5000;0.4428;1.3408;
217.8000;0.4396;1.3358;
218.1000;0.4396;1.3408;
218.4000;0.4404;1.3433;
218.7000;0.4412;1.3433;
219.0000;0.4396;1.3308;
219.3000;0.4396;1.3308;
219.6000;0.4339;1.3109;
219.9000;0.4404;1.3258;
220.2000;0.4396;1.3283;
220.5000;0.4404;1.3333;
220.8000;0.4387;1.3383;
221.1000;0.4387;1.3383;
221.4000;0.4444;1.3433;
221.7000;0.4379;1.3333;
222.0000;0.4404;1.3383;
222.3000;0.4396;1.3283;
222.6000;0.4322;1.3059;
222.9000;0.4396;1.3283;
223.2000;0.4461;1.3458;
223.5000;0.4420;1.3383;
223.8000;0.4404;1.3408;
224.1000;0.4404;1.3333;
224.4000;0.4420;1.3483;
224.7000;0.4412;1.3458;
225.0000;0.4420;1.3483;
225.3000;0.4404;1.3483;
225.6000;0.4396;1.3383;
225.9000;0.4420;1.3433;
226.2000;0.4412;1.3408;
226.5000;0.4412;1.3358;
226.8000;0.4412;1.3408;
227.1000;0.4420;1.3458;
227.4000;0.4347;1.3258;
227.7000;0.4412;1.3358;
228.0000;0.4396;1.3234;
228.3000;0.4396;1.3308;
228.6000;0.4412;1.3433;
228.9000;0.4412;1.3333;
229.2000;0.4379;1.3333;
229.5000;0.4396;1.3333;
229.8000;0.4396;1.3408;
230.1000;0.4396;1.3433;
230.4000;0.4379;1.3283;
230.7000;0.4404;1.3358;
231.0000;0.4404;1.3383;
231.3000;0.4387;1.3408;
231.6000;0.4412;1.3433;
231.9000;0.4404;1.3533;
232.2000;0.4404;1.3558;
232.5000;0.4412;1.3582;
232.8000;0.4396;1.3458;
233.1000;0.4412;1.3483;
233.4000;0.4428;1.3433;
233.7000;0.4412;1.3358;
234.0000;0.4404;1.3283;
234.3000;0.4404;1.3308;
234.6000;0.4412;1.3358;
234.9000;0.4404;1.3358;
235.2000;0.4420;1.3383;
235.5000;0.4404;1.3408;
235.8000;0.4387;1.3383;
236.1000;0.4420;1.3383;
236.4000;0.4420;1.3458;
236.7000;0.4396;1.3408;
237.0000;0.4404;1.3383;
237.3000;0.4404;1.3383;
237.6000;0.4396;1.3408;
237.9000;0.4404;1.3358;
238.2000;0.4387;1.3333;
238.5000;0.4404;1.3383;
238.8000;0.4420;1.3433;
239.1000;0.4396;1.3333;
239.4000;0.4396;1.3283;
239.7000;0.4404;1.3383;
240.0000;0.4412;1.3408;
240.3000;0.4387;1.3358;
240.6000;0.4371;1.3358;
240.9000;0.4371;1.3333;
241.2000;0.4404;1.3458;
241.5000;0.4363;1.3358;
241.8000;0.4387;1.3508;
242.1000;0.4396;1.3458;
242.4000;0.4387;1.3508;
242.7000;0.4396;1.3483;
243.0000;0.4387;1.3433;
243.3000;0.4387;1.3408;
243.6000;0.4379;1.3383;
243.9000;0.4412;1.3433;
244.2000;0.4404;1.3458;
244.5000;0.4404;1.3458;
244.8000;0.4387;1.3433;
245.1000;0.4396;1.3383;
245.4000;0.4306;1.3184;
245.7000;0.4396;1.3333;
246.0000;0.4396;1.3283;
246.3000;0.4404;1.3383;
246.6000;0.4396;1.3283;
246.9000;0.4396;1.3308;
247.2000;0.4387;1.3408;
247.5000;0.4412;1.3408;
247.8000;0.4404;1.3333;
248.1000;0.4404;1.3358;
248.4000;0.4404;1.3358;
248.7000;0.4404;1.3383;
249.0000;0.4396;1.3333;
249.3000;0.4355;1.3184;
249.6000;0.4404;1.3333;
249.9000;0.4355;1.3184;
250.2000;0.4396;1.3308;
250.5000;0.4387;1.3234;
250.8000;0.4387;1.3283;
251.1000;0.4379;1.3358;
251.4000;0.4347;1.3234;
251.7000;0.4387;1.3308;
252.0000;0.4379;1.3258;
252.3000;0.4387;1.3383;
252.6000;0.4420;1.3483;
252.9000;0.4387;1.3333;
253.2000;0.4314;1.3059;
253.5000;0.4404;1.3308;
253.8000;0.4363;1.3109;
254.1000;0.4387;1.3283;
254.4000;0.4387;1.3283;
254.7000;0.4379;1.3258;
255.0000;0.4379;1.3358;
255.3000;0.4396;1.3408;
255.6000;0.4379;1.3383;
255.9000;0.4379;1.3383;
256.2000;0.4396;1.3408;
256.5000;0.4396;1.3358;
256.8000;0.4387;1.3408;
257.1000;0.4379;1.3458;
257.4000;0.4420;1.3558;
257.7000;0.4387;1.3333;
258.0000;0.4379;1.3408;
258.3000;0.4387;1.3433;
258.6000;0.4461;1.3607;
258.9000;0.4396;1.3433;
259.2000;0.4396;1.3408;
259.5000;0.4387;1.3408;
259.8000;0.4387;1.3283;
260.1000;0.4387;1.3333;
260.4000;0.4387;1.3333;
260.7000;0.4387;1.3308;
261.0000;0.4363;1.3234;
261.3000;0.4371;1.3234;
261.6000;0.4387;1.3283;
261.9000;0.4379;1.3258;
262.2000;0.4387;1.3308;
262.5000;0.4396;1.3333;
262.8000;0.4314;1.3109;
263.1000;0.4379;1.3258;
263.4000;0.4387;1.3283;
263.7000;0.4387;1.3283;
264.0000;0.4396;1.3234;
264.3000;0.4314;1.3009;
264.6000;0.4379;1.3209;
264.9000;0.4404;1.3209;
265.2000;0.4387;1.3209;
265.5000;0.4396;1.3333;
265.8000;0.4396;1.3408;
266.1000;0.4387;1.3408;
266.4000;0.4387;1.3358;
266.7000;0.4387;1.3383;
267.0000;0.4387;1.3209;
267.3000;0.4379;1.3159;
267.6000;0.4387;1.3234;
267.9000;0.4396;1.3234;
268.2000;0.4396;1.3283;
268.5000;0.4396;1.3308;
268.8000;0.4379;1.3258;
269.1000;0.4396;1.3408;
269.4000;0.4404;1.3408;
269.7000;0.4330;1.3184;
270.0000;0.4363;1.3159;
270.3000;0.4379;1.3109;
270.6000;0.4396;1.3184;
270.9000;0.4379;1.3159;
271.2000;0.4436;1.3283;
271.5000;0.4274;1.2860;
271.8000;0.4387;1.3209;
272.1000;0.4347;1.3134;
272.4000;0.4396;1.3184;
272.7000;0.4387;1.3184;
273.0000;0.4387;1.3234;
273.3000;0.4347;1.3109;
273.6000;0.4469;1.3433;
273.9000;0.4387;1.3159;
274.2000;0.4379;1.3109;
274.5000;0.4404;1.3184;
274.8000;0.4387;1.3109;
275.1000;0.4379;1.3184;
275.4000;0.4387;1.3159;
275.7000;0.4387;1.3209;
276.0000;0.4387;1.3159;
276.3000;0.4379;1.3109;
276.6000;0.4387;1.3109;
276.9000;0.4379;1.3109;
277.2000;0.4371;1.3134;
277.5000;0.4428;1.3283;
277.8000;0.4387;1.3184;
278.1000;0.4396;1.3184;
278.4000;0.4387;1.3159;
278.7000;0.4412;1.3159;
279.0000;0.4379;1.3084;
279.3000;0.4387;1.3184;
279.6000;0.4396;1.3283;
279.9000;0.4379;1.3234;
280.2000;0.4371;1.3258;
280.5000;0.4436;1.3408;
280.8000;0.4371;1.3234;
281.1000;0.4363;1.3234;
281.4000;0.4339;1.3134;
281.7000;0.4387;1.3209;
282.0000;0.4387;1.3209;
282.3000;0.4379;1.3134;
282.6000;0.4314;1.2885;
282.9000;0.4396;1.3109;
283.2000;0.4387;1.3184;
283.5000;0.4379;1.3159;
283.8000;0.4379;1.3134;
284.1000;0.4371;1.3184;
284.4000;0.4379;1.3234;
284.7000;0.4290;1.3034;
285.0000;0.4347;1.3209;
285.3000;0.4379;1.3283;
285.6000;0.4379;1.3308;
285.9000;0.4355;1.3258;
286.2000;0.4355;1.3159;
286.5000;0.4355;1.3159;
286.8000;0.4396;1.3209;
287.1000;0.4371;1.3209;
287.4000;0.4347;1.3109;
287.7000;0.4355;1.3184;
288.0000;0.4363;1.3258;
288.3000;0.4420;1.3333;
288.6000;0.4371;1.3209;
288.9000;0.4363;1.3159;
289.2000;0.4371;1.3084;
289.5000;0.4404;1.3134;
289.8000;0.4371;1.3084;
290.1000;0.4371;1.3059;
290.4000;0.4379;1.3109;
290.7000;0.4453;1.3508;
291.0000;0.4379;1.3283;
291.3000;0.4363;1.3234;
291.6000;0.4274;1.2885;
291.9000;0.4347;1.3184;
292.2000;0.4387;1.3308;
292.5000;0.4355;1.3258;
292.8000;0.4339;1.3308;
293.1000;0.4371;1.3383;
293.4000;0.4387;1.3333;
293.7000;0.4363;1.3308;
294.0000;0.4371;1.3308;
294.3000;0.4363;1.3209;
294.6000;0.4379;1.3258;
294.9000;0.4404;1.3308;
295.2000;0.4396;1.3358;
295.5000;0.4347;1.3283;
295.8000;0.4371;1.3308;
296.1000;0.4330;1.3134;
296.4000;0.4355;1.3234;
296.7000;0.4371;1.3209;
297.0000;0.4347;1.3258;
297.3000;0.4371;1.3308;
297.6000;0.4363;1.3209;
297.9000;0.4379;1.3209;
298.2000;0.4379;1.3184;
298.5000;0.4379;1.3084;
298.8000;0.4371;1.3084;
299.1000;0.4371;1.3134;
299.4000;0.4355;1.3084;
299.7000;0.4363;1.3059;
300.0000;0.4371;1.2984;
300.3000;0.4330;1.2934;
300.6000;0.4355;1.2959;
300.9000;0.4379;1.3084;
301.2000;0.4355;1.2959;
301.5000;0.4371;1.2959;
301.8000;0.4387;1.2959;
302.1000;0.4371;1.3034;
302.4000;0.4387;1.3109;
302.7000;0.4387;1.3134;
303.0000;0.4371;1.3084;
303.3000;0.4379;1.3134;
303.6000;0.4355;1.3134;
303.9000;0.4363;1.3084;
304.2000;0.4355;1.3184;
304.5000;0.4355;1.3184;
304.8000;0.4396;1.3283;
305.1000;0.4363;1.3159;
305.4000;0.4363;1.3159;
305.7000;0.4412;1.3308;
306.0000;0.4355;1.3159;
306.3000;0.4355;1.3209;
306.6000;0.4371;1.3358;
306.9000;0.4330;1.3234;
307.2000;0.4347;1.3308;
307.5000;0.4363;1.3333;
307.8000;0.4355;1.3408;
308.1000;0.4347;1.3408;
308.4000;0.4363;1.3408;
308.7000;0.4379;1.3433;
309.0000;0.4363;1.3358;
309.3000;0.4371;1.3383;
309.6000;0.4339;1.3209;
309.9000;0.4355;1.3383;
310.2000;0.4477;1.3707;
310.5000;0.4363;1.3358;
310.8000;0.4371;1.3408;
311.1000;0.4371;1.3383;
311.4000;0.4363;1.3308;
311.7000;0.4330;1.3209;
312.0000;0.4363;1.3283;
312.3000;0.4371;1.3308;
312.6000;0.4379;1.3408;
312.9000;0.4355;1.3383;
313.2000;0.4363;1.3383;
313.5000;0.4379;1.3508;
313.8000;0.4371;1.3408;
314.1000;0.4379;1.3358;
314.4000;0.4363;1.3308;
314.7000;0.4363;1.3234;
315.0000;0.4396;1.3234;
315.3000;0.4363;1.3209;
315.6000;0.4363;1.3308;
315.9000;0.4355;1.3333;
316.2000;0.4347;1.3333;
316.5000;0.4355;1.3358;
316.8000;0.4363;1.3383;
317.1000;0.4355;1.3333;
317.4000;0.4371;1.3308;
317.7000;0.4379;1.3283;
318.0000;0.4347;1.3159;
318.3000;0.4355;1.3084;
318.6000;0.4387;1.3184;
318.9000;0.4420;1.3283;
319.2000;0.4363;1.3234;
319.5000;0.4347;1.3234;
319.8000;0.4363;1.3308;
320.1000;0.4371;1.3408;
320.4000;0.4363;1.3383;
320.7000;0.4363;1.3383;
321.0000;0.4363;1.3508;
321.3000;0.4355;1.3433;
321.6000;0.4363;1.3458;
321.9000;0.4363;1.3283;
322.2000;0.4371;1.3234;
322.5000;0.4363;1.3234;
322.8000;0.4371;1.3283;
323.1000;0.4379;1.3283;
323.4000;0.4347;1.3283;
323.7000;0.4355;1.3283;
324.0000;0.4347;1.3209;
324.3000;0.4355;1.3283;
324.6000;0.4363;1.3258;
324.9000;0.4355;1.3283;
325.2000;0.4355;1.3283;
325.5000;0.4363;1.3258;
325.8000;0.4355;1.3209;
326.1000;0.4355;1.3059;
326.4000;0.4355;1.3134;
326.7000;0.4363;1.3209;
327.0000;0.4347;1.3134;
327.3000;0.4363;1.3184;
327.6000;0.4363;1.3159;
327.9000;0.4371;1.3308;
328.2000;0.4355;1.3258;
328.5000;0.4355;1.3234;
328.8000;0.4363;1.3283;
329.1000;0.4363;1.3358;
329.4000;0.4265;1.3234;
329.7000;0.4347;1.3458;
330.0000;0.4355;1.3408;
330.3000;0.4355;1.3308;
330.6000;0.4363;1.3283;
330.9000;0.4355;1.3358;
331.2000;0.4371;1.3383;
331.5000;0.4363;1.3383;
331.8000;0.4355;1.3383;
332.1000;0.4379;1.3433;
332.4000;0.4363;1.3408;
332.7000;0.4371;1.3408;
333.0000;0.4355;1.3333;
333.3000;0.4347;1.3308;
333.6000;0.4363;1.3333;
333.9000;0.4371;1.3333;
334.2000;0.4371;1.3458;
334.5000;0.4363;1.3433;
334.8000;0.4347;1.3433;
335.1000;0.4322;1.3333;
335.4000;0.4363;1.3433;
335.7000;0.4347;1.3383;
336.0000;0.4347;1.3383;
336.3000;0.4355;1.3433;
336.6000;0.4363;1.3433;
336.9000;0.4355;1.3408;
337.2000;0.4339;1.3383;
337.5000;0.4363;1.3408;
337.8000;0.4363;1.3483;
338.1000;0.4347;1.3408;
338.4000;0.4347;1.3433;
338.7000;0.4339;1.3408;
339.0000;0.4347;1.3383;
339.3000;0.4355;1.3408;
339.6000;0.4347;1.3433;
339.9000;0.4363;1.3433;
340.2000;0.4330;1.3458;
340.5000;0.4355;1.3483;
340.8000;0.4347;1.3458;
341.1000;0.4339;1.3433;
341.4000;0.4355;1.3458;
341.7000;0.4355;1.3483;
342.0000;0.4363;1.3558;
342.3000;0.4347;1.3607;
342.6000;0.4347;1.3508;
342.9000;0.4363;1.3558;
343.2000;0.4347;1.3508;
343.5000;0.4339;1.3533;
343.8000;0.4355;1.3533;
344.1000;0.4371;1.3582;
344.4000;0.4290;1.3408;
344.7000;0.4347;1.3533;
345.0000;0.4330;1.3483;
345.3000;0.4347;1.3533;
345.6000;0.4363;1.3558;
345.9000;0.4347;1.3582;
346.2000;0.4339;1.3582;
346.5000;0.4347;1.3533;
346.8000;0.4339;1.3508;
347.1000;0.4339;1.3582;
347.4000;0.4339;1.3533;
347.7000;0.4339;1.3533;
348.0000;0.4347;1.3483;
348.3000;0.4347;1.3483;
348.6000;0.4347;1.3483;
348.9000;0.4363;1.3483;
349.2000;0.4355;1.3458;
349.5000;0.4347;1.3408;
349.8000;0.4347;1.3383;
350.1000;0.4355;1.3308;
350.4000;0.4379;1.3483;
350.7000;0.4347;1.3358;
351.0000;0.4355;1.3333;
351.3000;0.4339;1.3283;
351.6000;0.4339;1.3283;
351.9000;0.4355;1.3308;
352.2000;0.4347;1.3433;
352.5000;0.4347;1.3558;
352.8000;0.4339;1.3533;
353.1000;0.4363;1.3607;
353.4000;0.4363;1.3682;
353.7000;0.4257;1.3383;
354.0000;0.4355;1.3632;
354.3000;0.4371;1.3682;
354.6000;0.4355;1.3657;
354.9000;0.4347;1.3657;
355.2000;0.4363;1.3582;
355.5000;0.4330;1.3607;
355.8000;0.4371;1.3707;
356.1000;0.4355;1.3607;
356.4000;0.4420;1.3682;
356.7000;0.4347;1.3433;
357.0000;0.4371;1.3408;
357.3000;0.4355;1.3458;
357.6000;0.4355;1.3408;
357.9000;0.4347;1.3408;
358.2000;0.4404;1.3533;
358.5000;0.4339;1.3408;
358.8000;0.4339;1.3533;
359.1000;0.4339;1.3483;
359.4000;0.4339;1.3408;
359.7000;0.4347;1.3383;
360.0000;0.4363;1.3408;
360.3000;0.4339;1.3433;
360.6000;0.4339;1.3433;
360.9000;0.4330;1.3383;
361.2000;0.4330;1.3358;
361.5000;0.4322;1.3433;
361.8000;0.4274;1.3258;
362.1000;0.4339;1.3433;
362.4000;0.4330;1.3383;
362.7000;0.4371;1.3458;
363.0000;0.4339;1.3308;
363.3000;0.4355;1.3333;
363.6000;0.4347;1.3383;
363.9000;0.4339;1.3383;
364.2000;0.4355;1.3333;
364.5000;0.4347;1.3258;
364.8000;0.4339;1.3283;
365.1000;0.4322;1.3283;
365.4000;0.4330;1.3258;
365.7000;0.4339;1.3234;
366.0000;0.4339;1.3283;
366.3000;0.4322;1.3283;
366.6000;0.4339;1.3333;
366.9000;0.4339;1.3408;
367.2000;0.4355;1.3508;
367.5000;0.4322;1.3483;
367.8000;0.4306;1.3408;
368.1000;0.4339;1.3483;
368.4000;0.4330;1.3458;
368.7000;0.4371;1.3558;
369.0000;0.4330;1.3458;
369.3000;0.4428;1.3682;
369.6000;0.4330;1.3458;
369.9000;0.4298;1.3383;
370.2000;0.4339;1.3408;
370.5000;0.4322;1.3383;
370.8000;0.4322;1.3358;
371.1000;0.4347;1.3408;
371.4000;0.4339;1.3383;
371.7000;0.4330;1.3383;
372.0000;0.4339;1.3433;
372.3000;0.4298;1.3358;
372.6000;0.4330;1.3533;
372.9000;0.4339;1.3558;
373.2000;0.4330;1.3533;
373.5000;0.4339;1.3558;
373.8000;0.4322;1.3533;
374.1000;0.4322;1.3458;
374.4000;0.4330;1.3458;
374.7000;0.4290;1.3283;
375.0000;0.4355;1.3433;
375.3000;0.4330;1.3358;
375.6000;0.4330;1.3308;
375.9000;0.4306;1.3283;
376.2000;0.4355;1.3333;
376.5000;0.4322;1.3383;
376.8000;0.4298;1.3283;
377.1000;0.4330;1.3408;
377.4000;0.4371;1.3433;
377.7000;0.4347;1.3408;
378.0000;0.4339;1.3333;
378.3000;0.4347;1.3408;
378.6000;0.4339;1.3433;
378.9000;0.4330;1.3358;
379.2000;0.4339;1.3408;
379.5000;0.4363;1.3458;
379.8000;0.4347;1.3533;
380.1000;0.4347;1.3582;
380.4000;0.4217;1.3283;
380.7000;0.4339;1.3582;
381.0000;0.4330;1.3533;
381.3000;0.4347;1.3558;
381.6000;0.4314;1.3483;
381.9000;0.4330;1.3558;
382.2000;0.4339;1.3558;
382.5000;0.4330;1.3458;
382.8000;0.4339;1.3533;
383.1000;0.4330;1.3558;
383.4000;0.4347;1.3458;
383.7000;0.4347;1.3458;
384.0000;0.4355;1.3458;
384.3000;0.4347;1.3433;
384.6000;0.4339;1.3358;
384.9000;0.4453;1.3558;
385.2000;0.4355;1.3283;
385.5000;0.4330;1.3234;
385.8000;0.4355;1.3383;
386.1000;0.4347;1.3358;
386.4000;0.4387;1.3508;
386.7000;0.4339;1.3458;
387.0000;0.4347;1.3508;
387.3000;0.4330;1.3433;
387.6000;0.4249;1.3184;
387.9000;0.4322;1.3383;
388.2000;0.4282;1.3283;
388.5000;0.4257;1.3234;
388.8000;0.4347;1.3458;
389.1000;0.4339;1.3333;
389.4000;0.4355;1.3333;
389.7000;0.4371;1.3433;
390.0000;0.4347;1.3383;
390.3000;0.4371;1.3433;
390.6000;0.4306;1.3308;
390.9000;0.4330;1.3308;
391.2000;0.4379;1.3433;
391.5000;0.4330;1.3358;
391.8000;0.4330;1.3458;
392.1000;0.4322;1.3408;
392.4000;0.4339;1.3483;
392.7000;0.4322;1.3408;
393.0000;0.4330;1.3433;
393.3000;0.4347;1.3508;
393.6000;0.4322;1.3458;
393.9000;0.4347;1.3607;
394.2000;0.4339;1.3558;
394.5000;0.4330;1.3558;
394.8000;0.4322;1.3408;
395.1000;0.4339;1.3433;
395.4000;0.4282;1.3308;
395.7000;0.4330;1.3408;
396.0000;0.4314;1.3358;
396.3000;0.4322;1.3383;
396.6000;0.4314;1.3308;
396.9000;0.4322;1.3358;
397.2000;0.4339;1.3383;
397.5000;0.4322;1.3333;
397.8000;0.4387;1.3458;
398.1000;0.4330;1.3408;
398.4000;0.4314;1.3358;
398.7000;0.4298;1.3358;
399.0000;0.4347;1.3458;
399.3000;0.4314;1.3358;
399.6000;0.4314;1.3433;
399.9000;0.4371;1.3582;
400.2000;0.4314;1.3458;
400.5000;0.4339;1.3433;
400.8000;0.4379;1.3607;
401.1000;0.4339;1.3533;
401.4000;0.4330;1.3508;
401.7000;0.4314;1.3458;
402.0000;0.4355;1.3508;
402.3000;0.4330;1.3508;
402.6000;0.4339;1.3558;
402.9000;0.4347;1.3558;
403.2000;0.4330;1.3508;
403.5000;0.4339;1.3607;
403.8000;0.4339;1.3533;
404.1000;0.4347;1.3582;
404.4000;0.4306;1.3508;
404.7000;0.4339;1.3458;
405.0000;0.4330;1.3433;
405.3000;0.4330;1.3458;
405.6000;0.4339;1.3408;
405.9000;0.4314;1.3458;
406.2000;0.4339;1.3533;
406.5000;0.4330;1.3533;
406.8000;0.4330;1.3483;
407.1000;0.4330;1.3458;
407.4000;0.4339;1.3533;
407.7000;0.4290;1.3358;
408.0000;0.4347;1.3558;
408.3000;0.4330;1.3558;
408.6000;0.4355;1.3682;
408.9000;0.4322;1.3582;
409.2000;0.4322;1.3582;
409.5000;0.4339;1.3558;
409.8000;0.4339;1.3483;
410.1000;0.4322;1.3458;
410.4000;0.4339;1.3558;
410.7000;0.4330;1.3533;
411.0000;0.4339;1.3533;
411.3000;0.4322;1.3433;
411.6000;0.4347;1.3508;
411.9000;0.4314;1.3433;
412.2000;0.4347;1.3483;
412.5000;0.4330;1.3533;
412.8000;0.4339;1.3558;
413.1000;0.4347;1.3508;
413.4000;0.4322;1.3408;
413.7000;0.4306;1.3358;
414.0000;0.4322;1.3458;
414.3000;0.4330;1.3483;
414.6000;0.4322;1.3433;
414.9000;0.4314;1.3408;
415.2000;0.4322;1.3483;
415.5000;0.4322;1.3558;
415.8000;0.4314;1.3533;
416.1000;0.4387;1.3632;
416.4000;0.4322;1.3483;
416.7000;0.4322;1.3508;
417.0000;0.4322;1.3558;
417.3000;0.4322;1.3508;
417.6000;0.4330;1.3508;
417.9000;0.4314;1.3508;
418.2000;0.4314;1.3408;
418.5000;0.4265;1.3283;
418.8000;0.4322;1.3458;
419.1000;0.4306;1.3508;
419.4000;0.4330;1.3508;
419.7000;0.4330;1.3533;
420.0000;0.4314;1.3458;
420.3000;0.4306;1.3483;
420.6000;0.4314;1.3558;
420.9000;0.4314;1.3458;
421.2000;0.4298;1.3458;
421.5000;0.4314;1.3408;
421.8000;0.4347;1.3433;
422.1000;0.4314;1.3358;
422.4000;0.4314;1.3283;
422.7000;0.4322;1.3333;
423.0000;0.4330;1.3433;
423.3000;0.4322;1.3458;
423.6000;0.4298;1.3358;
423.9000;0.4314;1.3408;
424.2000;0.4339;1.3433;
424.5000;0.4322;1.3458;
424.8000;0.4330;1.3533;
425.1000;0.4330;1.3508;
425.4000;0.4363;1.3582;
425.7000;0.4306;1.3408;
426.0000;0.4339;1.3533;
426.3000;0.4314;1.3483;
426.6000;0.4347;1.3558;
426.9000;0.4298;1.3582;
427.2000;0.4355;1.3657;
427.5000;0.4322;1.3607;
427.8000;0.4347;1.3657;
428.1000;0.4322;1.3632;
428.4000;0.4339;1.3607;
428.7000;0.4339;1.3607;
429.0000;0.4322;1.3582;
429.3000;0.4330;1.3607;
429.6000;0.4322;1.3508;
429.9000;0.4330;1.3558;
430.2000;0.4347;1.3657;
430.5000;0.4314;1.3558;
430.8000;0.4322;1.3607;
431.1000;0.4330;1.3582;
431.4000;0.4306;1.3533;
431.7000;0.4314;1.3558;
432.0000;0.4225;1.3358;
432.3000;0.4314;1.3558;
432.6000;0.4322;1.3582;
432.9000;0.4330;1.3607;
433.2000;0.4314;1.3632;
433.5000;0.4322;1.3657;
433.8000;0.4330;1.3533;
434.1000;0.4314;1.3483;
434.4000;0.4330;1.3558;
434.7000;0.4314;1.3533;
435.0000;0.4330;1.3607;
435.3000;0.4322;1.3607;
435.6000;0.4339;1.3582;
435.9000;0.4347;1.3533;
436.2000;0.4322;1.3483;
436.5000;0.4322;1.3483;
436.8000;0.4339;1.3483;
437.1000;0.4314;1.3458;
437.4000;0.4330;1.3433;
437.7000;0.4322;1.3458;
438.0000;0.4330;1.3483;
438.3000;0.4330;1.3582;
438.6000;0.4322;1.3582;
438.9000;0.4314;1.3558;
439.2000;0.4314;1.3508;
439.5000;0.4339;1.3632;
439.8000;0.4322;1.3558;
440.1000;0.4322;1.3582;
440.4000;0.4322;1.3533;
440.7000;0.4314;1.3483;
441.0000;0.4322;1.3508;
441.3000;0.4314;1.3508;
441.6000;0.4314;1.3508;
441.9000;0.4306;1.3433;
442.2000;0.4314;1.3433;
442.5000;0.4314;1.3358;
442.8000;0.4314;1.3358;
443.1000;0.4298;1.3333;
443.4000;0.4314;1.3433;
443.7000;0.4314;1.3408;
444.0000;0.4282;1.3234;
444.3000;0.4322;1.3358;
444.6000;0.4322;1.3308;
444.9000;0.4322;1.3258;
445.2000;0.4314;1.3258;
445.5000;0.4322;1.3283;
445.8000;0.4339;1.3408;
446.1000;0.4347;1.3433;
446.4000;0.4314;1.3408;
446.7000;0.4314;1.3433;
447.0000;0.4339;1.3433;
447.3000;0.4257;1.3308;
447.6000;0.4330;1.3533;
447.9000;0.4322;1.3533;
448.2000;0.4314;1.3508;
448.5000;0.4314;1.3533;
448.8000;0.4322;1.3558;
449.1000;0.4314;1.3558;
449.4000;0.4322;1.3558;
449.7000;0.4330;1.3657;
450.0000;0.4290;1.3582;
450.3000;0.4330;1.3682;
450.6000;0.4314;1.3707;
450.9000;0.4322;1.3757;
451.2000;0.4347;1.3732;
451.5000;0.4306;1.3607;
451.8000;0.4298;1.3558;
452.1000;0.4282;1.3483;
452.4000;0.4330;1.3458;
452.7000;0.4322;1.3383;
453.0000;0.4306;1.3308;
453.3000;0.4371;1.3458;
453.6000;0.4322;1.3308;
453.9000;0.4322;1.3308;
454.2000;0.4314;1.3358;
454.5000;0.4314;1.3283;
454.8000;0.4339;1.3358;
455.1000;0.4322;1.3408;
455.4000;0.4322;1.3508;
455.7000;0.4290;1.3483;
456.0000;0.4322;1.3508;
456.3000;0.4339;1.3558;
456.6000;0.4322;1.3582;
456.9000;0.4322;1.3483;
457.2000;0.4322;1.3458;
457.5000;0.4330;1.3433;
457.8000;0.4339;1.3383;
458.1000;0.4314;1.3358;
458.4000;0.4314;1.3358;
458.7000;0.4339;1.3433;
459.0000;0.4314;1.3358;
459.3000;0.4330;1.3383;
459.6000;0.4322;1.3433;
459.9000;0.4322;1.3558;
460.2000;0.4314;1.3533;
460.5000;0.4314;1.3558;
460.8000;0.4306;1.3458;
461.1000;0.4330;1.3458;
461.4000;0.4298;1.3383;
461.7000;0.4314;1.3408;
462.0000;0.4306;1.3408;
462.3000;0.4322;1.3383;
462.6000;0.4339;1.3383;
462.9000;0.4314;1.3358;
463.2000;0.4314;1.3433;
463.5000;0.4314;1.3408;
463.8000;0.4322;1.3508;
464.1000;0.4322;1.3657;
464.4000;0.4314;1.3632;
464.7000;0.4330;1.3657;
465.0000;0.4330;1.3657;
465.3000;0.4330;1.3657;
465.6000;0.4322;1.3632;
465.9000;0.4314;1.3558;
466.2000;0.4282;1.3383;
466.5000;0.4298;1.3508;
466.8000;0.4314;1.3533;
467.1000;0.4314;1.3458;
467.4000;0.4314;1.3558;
467.7000;0.4306;1.3533;
468.0000;0.4314;1.3632;
468.3000;0.4298;1.3607;
468.6000;0.4314;1.3682;
468.9000;0.4322;1.3607;
469.2000;0.4314;1.3657;
469.5000;0.4282;1.3607;
469.8000;0.4322;1.3657;
470.1000;0.4322;1.3632;
470.4000;0.4330;1.3657;
470.7000;0.4322;1.3533;
471.0000;0.4420;1.3707;
471.3000;0.4265;1.3308;
471.6000;0.4290;1.3333;
471.9000;0.4290;1.3308;
472.2000;0.4290;1.3308;
472.5000;0.4322;1.3408;
472.8000;0.4322;1.3458;
473.1000;0.4314;1.3483;
473.4000;0.4314;1.3533;
473.7000;0.4314;1.3483;
474.0000;0.4322;1.3483;
474.3000;0.4330;1.3533;
474.6000;0.4314;1.3558;
474.9000;0.4322;1.3533;
475.2000;0.4322;1.3582;
475.5000;0.4314;1.3558;
475.8000;0.4322;1.3558;
476.1000;0.4314;1.3558;
476.4000;0.4412;1.3807;
476.7000;0.4306;1.3582;
477.0000;0.4306;1.3508;
477.3000;0.4314;1.3508;
477.6000;0.4322;1.3533;
477.9000;0.4322;1.3483;
478.2000;0.4306;1.3533;
478.5000;0.4306;1.3558;
478.8000;0.4322;1.3558;
479.1000;0.4322;1.3533;
479.4000;0.4347;1.3657;
479.7000;0.4314;1.3582;
480.0000;0.4314;1.3632;
480.3000;0.4314;1.3632;
480.6000;0.4322;1.3707;
480.9000;0.4314;1.3607;
481.2000;0.4322;1.3657;
481.5000;0.4298;1.3558;
481.8000;0.4306;1.3582;
482.1000;0.4306;1.3682;
482.4000;0.4298;1.3682;
482.7000;0.4363;1.3956;
483.0000;0.4314;1.3782;
483.3000;0.4322;1.3757;
483.6000;0.4322;1.3707;
483.9000;0.4379;1.3931;
484.2000;0.4314;1.3757;
484.5000;0.4314;1.3782;
484.8000;0.4314;1.3782;
485.1000;0.4306;1.3707;
485.4000;0.4322;1.3657;
485.7000;0.4282;1.3533;
486.0000;0.4322;1.3607;
486.3000;0.4314;1.3558;
486.6000;0.4314;1.3657;
486.9000;0.4322;1.3682;
487.2000;0.4306;1.3682;
487.5000;0.4322;1.3732;
487.8000;0.4314;1.3732;
488.1000;0.4322;1.3757;
488.4000;0.4314;1.3757;
488.7000;0.4298;1.3707;
489.0000;0.4322;1.3757;
489.3000;0.4396;1.3981;
489.6000;0.4314;1.3732;
489.9000;0.4192;1.3383;
490.2000;0.4314;1.3682;
490.5000;0.4322;1.3607;
490.8000;0.4322;1.3558;
491.1000;0.4298;1.3458;
491.4000;0.4306;1.3483;
491.7000;0.4233;1.3234;
492.0000;0.4306;1.3408;
492.3000;0.4298;1.3408;
492.6000;0.4306;1.3433;
492.9000;0.4347;1.3533;
493.2000;0.4322;1.3533;
493.5000;0.4306;1.3533;
493.8000;0.4412;1.3807;
494.1000;0.4282;1.3483;
494.4000;0.4314;1.3582;
494.7000;0.4314;1.3657;
495.0000;0.4306;1.3707;
495.3000;0.4298;1.3657;
495.6000;0.4298;1.3607;
495.9000;0.4314;1.3607;
496.2000;0.4290;1.3632;
496.5000;0.4314;1.3782;
496.8000;0.4330;1.3832;
497.1000;0.4306;1.3757;
497.4000;0.4290;1.3657;
497.7000;0.4298;1.3558;
498.0000;0.4306;1.3533;
498.3000;0.4306;1.3582;
498.6000;0.4290;1.3657;
498.9000;0.4241;1.3508;
499.2000;0.4298;1.3607;
499.5000;0.4314;1.3582;
499.8000;0.4379;1.3682;
500.1000;0.4314;1.3632;
500.4000;0.4298;1.3682;
500.7000;0.4314;1.3682;
501.0000;0.4208;1.3483;
501.3000;0.4306;1.3657;
501.6000;0.4249;1.3483;
501.9000;0.4314;1.3657;
502.2000;0.4282;1.3483;
502.5000;0.4306;1.3582;
502.8000;0.4314;1.3682;
503.1000;0.4298;1.3707;
503.4000;0.4355;1.3807;
503.7000;0.4290;1.3707;
504.0000;0.4257;1.3582;
504.3000;0.4314;1.3682;
504.6000;0.4314;1.3707;
504.9000;0.4322;1.3657;
505.2000;0.4298;1.3558;
505.5000;0.4306;1.3533;
505.8000;0.4330;1.3632;
506.1000;0.4322;1.3582;
506.4000;0.4306;1.3508;
506.7000;0.4306;1.3607;
507.0000;0.4298;1.3632;
507.3000;0.4282;1.3632;
507.6000;0.4290;1.3707;
507.9000;0.4314;1.3732;
508.2000;0.4339;1.3682;
508.5000;0.4265;1.3483;
508.8000;0.4298;1.3582;
509.1000;0.4330;1.3732;
509.4000;0.4322;1.3732;
509.7000;0.4306;1.3682;
510.0000;0.4274;1.3533;
510.3000;0.4225;1.3333;
510.6000;0.4306;1.3632;
510.9000;0.4306;1.3508;
511.2000;0.4306;1.3483;
511.5000;0.4290;1.3533;
511.8000;0.4306;1.3533;
512.1000;0.4306;1.3508;
512.4000;0.4306;1.3458;
512.7000;0.4265;1.3408;
513.0000;0.4314;1.3558;
513.3000;0.4330;1.3558;
513.6000;0.4330;1.3508;
513.9000;0.4274;1.3408;
514.2000;0.4314;1.3433;
514.5000;0.4314;1.3533;
514.8000;0.4322;1.3508;
515.1000;0.4322;1.3533;
515.4000;0.4306;1.3408;
515.7000;0.4314;1.3433;
516.0000;0.4322;1.3533;
516.3000;0.4330;1.3558;
516.6000;0.4265;1.3408;
516.9000;0.4298;1.3333;
517.2000;0.4306;1.3333;
517.5000;0.4257;1.3258;
517.8000;0.4249;1.3184;
518.1000;0.4322;1.3283;
518.4000;0.4306;1.3308;
518.7000;0.4314;1.3258;
519.0000;0.4314;1.3234;
519.3000;0.4314;1.3258;
519.6000;0.4379;1.3533;
519.9000;0.4330;1.3408;
520.2000;0.4306;1.3433;
520.5000;0.4298;1.3458;
520.8000;0.4298;1.3433;
521.1000;0.4314;1.3533;
521.4000;0.4306;1.3433;
521.7000;0.4298;1.3408;
522.0000;0.4363;1.3732;
522.3000;0.4314;1.3533;
522.6000;0.4306;1.3458;
522.9000;0.4274;1.3258;
523.2000;0.4290;1.3308;
523.5000;0.4314;1.3358;
523.8000;0.4339;1.3383;
524.1000;0.4306;1.3209;
524.4000;0.4314;1.3234;
524.7000;0.4274;1.3184;
525.0000;0.4347;1.3408;
525.3000;0.4314;1.3283;
525.6000;0.4314;1.3258;
525.9000;0.4306;1.3308;
526.2000;0.4330;1.3308;
526.5000;0.4314;1.3308;
526.8000;0.4233;1.3159;
527.1000;0.4314;1.3383;
527.4000;0.4298;1.3433;
527.7000;0.4298;1.3433;
528.0000;0.4282;1.3383;
528.3000;0.4298;1.3458;
528.6000;0.4339;1.3483;
528.9000;0.4306;1.3308;
529.2000;0.4298;1.3283;
529.5000;0.4274;1.3184;
529.8000;0.4290;1.3258;
530.1000;0.4363;1.3383;
530.4000;0.4290;1.3209;
530.7000;0.4298;1.3258;
531.0000;0.4298;1.3333;
531.3000;0.4290;1.3358;
531.6000;0.4306;1.3308;
531.9000;0.4298;1.3283;
532.2000;0.4298;1.3258;
532.5000;0.4298;1.3283;
532.8000;0.4306;1.3258;
533.1000;0.4306;1.3308;
533.4000;0.4306;1.3283;
533.7000;0.4314;1.3333;
534.0000;0.4314;1.3383;
534.3000;0.4314;1.3358;
534.6000;0.4306;1.3483;
534.9000;0.4306;1.3533;
535.2000;0.4274;1.3483;
535.5000;0.4306;1.3582;
535.8000;0.4306;1.3607;
536.1000;0.4298;1.3607;
536.4000;0.4306;1.3632;
536.7000;0.4298;1.3732;
537.0000;0.4298;1.3757;
537.3000;0.4314;1.3707;
537.6000;0.4314;1.3782;
537.9000;0.4290;1.3657;
538.2000;0.4298;1.3682;
538.5000;0.4274;1.3607;
538.8000;0.4306;1.3582;
539.1000;0.4306;1.3558;
539.4000;0.4306;1.3582;
539.7000;0.4306;1.3632;
540.0000;0.4322;1.3607;
540.3000;0.4330;1.3533;
540.6000;0.4306;1.3508;
540.9000;0.4322;1.3483;
541.2000;0.4314;1.3558;
541.5000;0.4298;1.3558;
541.8000;0.4265;1.3458;
542.1000;0.4298;1.3483;
542.4000;0.4298;1.3533;
542.7000;0.4314;1.3582;
543.0000;0.4330;1.3582;
543.3000;0.4298;1.3483;
543.6000;0.4314;1.3558;
543.9000;0.4298;1.3558;
544.2000;0.4347;1.3782;
544.5000;0.4306;1.3682;
544.8000;0.4306;1.3607;
545.1000;0.4306;1.3582;
545.4000;0.4306;1.3558;
545.7000;0.4298;1.3582;
546.0000;0.4322;1.3707;
546.3000;0.4314;1.3657;
546.6000;0.4306;1.3657;
546.9000;0.4298;1.3533;
547.2000;0.4306;1.3533;
547.5000;0.4314;1.3558;
547.8000;0.4314;1.3582;
548.1000;0.4322;1.3533;
548.4000;0.4282;1.3483;
548.7000;0.4330;1.3458;
549.0000;0.4282;1.3358;
549.3000;0.4306;1.3383;
549.6000;0.4298;1.3458;
549.9000;0.4314;1.3458;
550.2000;0.4298;1.3508;
550.5000;0.4314;1.3533;
550.8000;0.4290;1.3458;
551.1000;0.4306;1.3582;
551.4000;0.4314;1.3533;
551.7000;0.4379;1.3607;
552.0000;0.4322;1.3483;
552.3000;0.4306;1.3458;
552.6000;0.4298;1.3458;
552.9000;0.4322;1.3458;
553.2000;0.4306;1.3508;
553.5000;0.4314;1.3533;
553.8000;0.4306;1.3582;
554.1000;0.4322;1.3558;
554.4000;0.4314;1.3558;
554.7000;0.4282;1.3408;
555.0000;0.4306;1.3408;
555.3000;0.4306;1.3433;
555.6000;0.4290;1.3433;
555.9000;0.4339;1.3582;
556.2000;0.4298;1.3558;
556.5000;0.4290;1.3533;
556.8000;0.4298;1.3558;
557.1000;0.4290;1.3533;
557.4000;0.4282;1.3582;
557.7000;0.4298;1.3483;
558.0000;0.4314;1.3582;
558.3000;0.4298;1.3657;
558.6000;0.4298;1.3682;
558.9000;0.4298;1.3607;
559.2000;0.4290;1.3632;
559.5000;0.4404;1.3956;
559.8000;0.4306;1.3607;
560.1000;0.4298;1.3607;
560.4000;0.4298;1.3657;
560.7000;0.4306;1.3533;
561.0000;0.4290;1.3433;
561.3000;0.4298;1.3333;
561.6000;0.4314;1.3383;
561.9000;0.4298;1.3358;
562.2000;0.4274;1.3234;
562.5000;0.4298;1.3283;
562.8000;0.4314;1.3333;
563.1000;0.4306;1.3333;
563.4000;0.4306;1.3333;
563.7000;0.4298;1.3258;
564.0000;0.4274;1.3209;
564.3000;0.4322;1.3333;
564.6000;0.4314;1.3358;
564.9000;0.4306;1.3333;
565.2000;0.4339;1.3458;
565.5000;0.4322;1.3433;
565.8000;0.4298;1.3408;
566.1000;0.4282;1.3358;
566.4000;0.4298;1.3433;
566.7000;0.4290;1.3433;
567.0000;0.4298;1.3508;
567.3000;0.4290;1.3458;
567.6000;0.4290;1.3408;
567.9000;0.4282;1.3333;
568.2000;0.4274;1.3258;
568.5000;0.4290;1.3333;
568.8000;0.4355;1.3508;
569.1000;0.4306;1.3383;
569.4000;0.4322;1.3458;
569.7000;0.4290;1.3408;
570.0000;0.4290;1.3408;
570.3000;0.4306;1.3508;
570.6000;0.4322;1.3582;
570.9000;0.4314;1.3582;
571.2000;0.4314;1.3607;
571.5000;0.4306;1.3632;
571.8000;0.4306;1.3682;
572.1000;0.4274;1.3508;
572.4000;0.4282;1.3558;
572.7000;0.4282;1.3458;
573.0000;0.4306;1.3483;
573.3000;0.4217;1.3358;
573.6000;0.4298;1.3558;
573.9000;0.4298;1.3607;
574.2000;0.4290;1.3533;
574.5000;0.4298;1.3607;
574.8000;0.4290;1.3508;
575.1000;0.4306;1.3508;
575.4000;0.4314;1.3483;
575.7000;0.4314;1.3558;
576.0000;0.4290;1.3533;
576.3000;0.4298;1.3607;
576.6000;0.4290;1.3607;
576.9000;0.4298;1.3533;
577.2000;0.4314;1.3533;
577.5000;0.4298;1.3408;
577.8000;0.4306;1.3383;
578.1000;0.4298;1.3408;
578.4000;0.4306;1.3358;
578.7000;0.4306;1.3283;
579.0000;0.4306;1.3258;
579.3000;0.4339;1.3358;
579.6000;0.4290;1.3308;
579.9000;0.4290;1.3333;
580.2000;0.4290;1.3408;
580.5000;0.4298;1.3383;
580.8000;0.4290;1.3408;
581.1000;0.4306;1.3458;
581.4000;0.4282;1.3408;
581.7000;0.4282;1.3383;
582.0000;0.4282;1.3383;
582.3000;0.4290;1.3333;
582.6000;0.4282;1.3308;
582.9000;0.4290;1.3358;
583.2000;0.4290;1.3358;
583.5000;0.4290;1.3333;
583.8000;0.4298;1.3433;
584.1000;0.4298;1.3408;
584.4000;0.4298;1.3483;
584.7000;0.4290;1.3508;
585.0000;0.4290;1.3433;
585.3000;0.4298;1.3483;
585.6000;0.4306;1.3607;
585.9000;0.4322;1.3657;
586.2000;0.4306;1.3582;
586.5000;0.4290;1.3607;
586.8000;0.4282;1.3508;
587.1000;0.4314;1.3458;
587.4000;0.4282;1.3408;
587.7000;0.4290;1.3383;
588.0000;0.4282;1.3433;
588.3000;0.4306;1.3533;
588.6000;0.4290;1.3558;
588.9000;0.4290;1.3558;
589.2000;0.4290;1.3707;
589.5000;0.4306;1.3657;
589.8000;0.4298;1.3632;
590.1000;0.4274;1.3582;
590.4000;0.4290;1.3508;
590.7000;0.4306;1.3558;
591.0000;0.4298;1.3483;
591.3000;0.4290;1.3483;
591.6000;0.4274;1.3483;
591.9000;0.4265;1.3533;
592.2000;0.4233;1.3458;
592.5000;0.4290;1.3632;
592.8000;0.4274;1.3707;
593.1000;0.4290;1.3607;
593.4000;0.4306;1.3632;
593.7000;0.4290;1.3632;
594.0000;0.4290;1.3632;
594.3000;0.4298;1.3607;
594.6000;0.4290;1.3607;
594.9000;0.4298;1.3558;
595.2000;0.4306;1.3582;
595.5000;0.4274;1.3533;
595.8000;0.4306;1.3607;
596.1000;0.4298;1.3582;
596.4000;0.4314;1.3657;
596.7000;0.4217;1.3358;
597.0000;0.4306;1.3483;
597.3000;0.4298;1.3558;
597.6000;0.4290;1.3582;
597.9000;0.4290;1.3607;
598.2000;0.4298;1.3607;
598.5000;0.4298;1.3533;
598.8000;0.4306;1.3558;
599.1000;0.4306;1.3483;
599.4000;0.4290;1.3458;
599.7000;0.4298;1.3508;
600.0000;0.4298;1.3458;
600.3000;0.4282;1.3433;
600.6000;0.4249;1.3234;
600.9000;0.4217;1.3059;
601.2000;0.4151;1.2860;
601.5000;0.4070;1.2586;
601.8000;0.3989;1.2311;
602.1000;0.3940;1.2062;
602.4000;0.3883;1.1788;
602.7000;0.3810;1.1614;
603.0000;0.3777;1.1489;
603.3000;0.3744;1.1414;
603.6000;0.3687;1.1290;
603.9000;0.3639;1.1065;
604.2000;0.3622;1.0866;
604.5000;0.3582;1.0766;
604.8000;0.3573;1.0741;
605.1000;0.3557;1.0741;
605.4000;0.3508;1.0642;
605.7000;0.3484;1.0517;
606.0000;0.3468;1.0567;
606.3000;0.3451;1.0467;
606.6000;0.3435;1.0368;
606.9000;0.3427;1.0193;
607.2000;0.3354;0.9994;
607.5000;0.3427;1.0118;
607.8000;0.3378;0.9969;
608.1000;0.3354;0.9994;
608.4000;0.3370;1.0044;
608.7000;0.3346;0.9919;
609.0000;0.3329;0.9969;
609.3000;0.3321;0.9944;
609.6000;0.3329;0.9894;
609.9000;0.3280;0.9769;
610.2000;0.3289;0.9819;
610.5000;0.3215;0.9670;
610.8000;0.3272;0.9819;
611.1000;0.3280;0.9744;
611.4000;0.3289;0.9744;
611.7000;0.3264;0.9645;
612.0000;0.3240;0.9545;
612.3000;0.3240;0.9645;
612.6000;0.3240;0.9645;
612.9000;0.3207;0.9570;
613.2000;0.3223;0.9570;
613.5000;0.3232;0.9670;
613.8000;0.3232;0.9620;
614.1000;0.3223;0.9570;
614.4000;0.3191;0.9595;
614.7000;0.3215;0.9670;
615.0000;0.3215;0.9645;
615.3000;0.3199;0.9570;
615.6000;0.3199;0.9695;
615.9000;0.3248;0.9819;
616.2000;0.3232;0.9744;
616.5000;0.3118;0.9470;
616.8000;0.3183;0.9620;
617.1000;0.3166;0.9620;
617.4000;0.3223;0.9744;
617.7000;0.3183;0.9570;
618.0000;0.3183;0.9495;
618.3000;0.3215;0.9595;
618.6000;0.3175;0.9520;
618.9000;0.3166;0.9545;
619.2000;0.3158;0.9520;
619.5000;0.3142;0.9445;
619.8000;0.3183;0.9545;
620.1000;0.3183;0.9420;
620.4000;0.3150;0.9346;
620.7000;0.3150;0.9271;
621.0000;0.3101;0.9121;
621.3000;0.3142;0.9221;
621.6000;0.3142;0.9296;
621.9000;0.3134;0.9221;
622.2000;0.3142;0.9246;
622.5000;0.3256;0.9545;
622.8000;0.3142;0.9246;
623.1000;0.3134;0.9221;
623.4000;0.3134;0.9271;
623.7000;0.3142;0.9221;
624.0000;0.3118;0.9271;
624.3000;0.3109;0.9271;
624.6000;0.3158;0.9420;
624.9000;0.3126;0.9346;
625.2000;0.3158;0.9495;
625.5000;0.3044;0.9146;
625.8000;0.3150;0.9321;
626.1000;0.3126;0.9271;
626.4000;0.3126;0.9321;
626.7000;0.3101;0.9321;
627.0000;0.3134;0.9346;
627.3000;0.3109;0.9246;
627.6000;0.3183;0.9445;
627.9000;0.3101;0.9271;
628.2000;0.3085;0.9246;
628.5000;0.3101;0.9321;
628.8000;0.3109;0.9296;
629.1000;0.3109;0.9321;
629.4000;0.3085;0.9321;
629.7000;0.3085;0.9296;
630.0000;0.3101;0.9371;
630.3000;0.3207;0.9670;
630.6000;0.3053;0.9221;
630.9000;0.3118;0.9346;
631.2000;0.3118;0.9371;
631.5000;0.3085;0.9420;
631.8000;0.3101;0.9445;
632.1000;0.3101;0.9520;
632.4000;0.3101;0.9520;
632.7000;0.3109;0.9495;
633.0000;0.3093;0.9470;
633.3000;0.3085;0.9470;
633.6000;0.3101;0.9570;
633.9000;0.3101;0.9645;
634.2000;0.3093;0.9545;
634.5000;0.3053;0.9346;
634.8000;0.3109;0.9495;
635.1000;0.3020;0.9271;
635.4000;0.3093;0.9396;
635.7000;0.3093;0.9396;
636.0000;0.3069;0.9371;
636.3000;0.3077;0.9321;
636.6000;0.3109;0.9321;
636.9000;0.3069;0.9296;
637.2000;0.3069;0.9346;
637.5000;0.3134;0.9470;
637.8000;0.3077;0.9296;
638.1000;0.3053;0.9296;
638.4000;0.3101;0.9420;
638.7000;0.3061;0.9371;
639.0000;0.3069;0.9346;
639.3000;0.3101;0.9420;
639.6000;0.3069;0.9296;
639.9000;0.3085;0.9221;
640.2000;0.3077;0.9196;
640.5000;0.3061;0.9246;
640.8000;0.3061;0.9271;
641.1000;0.2987;0.9047;
641.4000;0.3109;0.9420;
641.7000;0.3077;0.9396;
642.0000;0.3077;0.9371;
642.3000;0.3109;0.9396;
642.6000;0.3069;0.9371;
642.9000;0.3077;0.9371;
643.2000;0.3069;0.9420;
643.5000;0.3085;0.9495;
643.8000;0.3061;0.9396;
644.1000;0.3069;0.9321;
644.4000;0.3077;0.9271;
644.7000;0.3077;0.9346;
645.0000;0.3061;0.9396;
645.3000;0.3036;0.9420;
645.6000;0.3061;0.9520;
645.9000;0.3069;0.9520;
646.2000;0.3036;0.9520;
646.5000;0.3028;0.9570;
646.8000;0.3053;0.9620;
647.1000;0.3053;0.9670;
647.4000;0.3036;0.9545;
647.7000;0.3044;0.9520;
648.0000;0.3044;0.9520;
648.3000;0.3061;0.9545;
648.6000;0.3028;0.9445;
648.9000;0.3053;0.9545;
649.2000;0.3093;0.9645;
649.5000;0.3036;0.9470;
649.8000;0.3044;0.9520;
650.1000;0.3069;0.9595;
650.4000;0.3053;0.9545;
650.7000;0.3061;0.9520;
651.0000;0.3044;0.9445;
651.3000;0.3053;0.9371;
651.6000;0.3061;0.9445;
651.9000;0.3077;0.9545;
652.2000;0.3036;0.9445;
652.5000;0.3053;0.9570;
652.8000;0.3036;0.9495;
653.1000;0.3044;0.9495;
653.4000;0.3044;0.9420;
653.7000;0.3044;0.9445;
654.0000;0.3028;0.9445;
654.3000;0.3036;0.9420;
654.6000;0.3044;0.9321;
654.9000;0.3053;0.9371;
655.2000;0.3012;0.9321;
655.5000;0.3020;0.9346;
655.8000;0.3044;0.9420;
656.1000;0.3044;0.9396;
656.4000;0.3028;0.9445;
656.7000;0.2996;0.9371;
657.0000;0.3028;0.9445;
657.3000;0.2955;0.9196;
657.6000;0.3036;0.9420;
657.9000;0.3020;0.9470;
658.2000;0.3036;0.9495;
658.5000;0.2971;0.9271;
658.8000;0.3020;0.9470;
659.1000;0.3069;0.9620;
659.4000;0.3028;0.9520;
659.7000;0.3036;0.9520;
660.0000;0.3012;0.9445;
660.3000;0.3036;0.9470;
660.6000;0.3044;0.9396;
660.9000;0.3044;0.9346;
661.2000;0.3020;0.9321;
661.5000;0.3012;0.9296;
661.8000;0.3053;0.9321;
662.1000;0.3036;0.9445;
662.4000;0.3028;0.9420;
662.7000;0.3020;0.9445;
663.0000;0.3012;0.9420;
663.3000;0.3134;0.9794;
663.6000;0.3044;0.9495;
663.9000;0.3012;0.9346;
664.2000;0.3061;0.9495;
664.5000;0.3028;0.9346;
664.8000;0.3020;0.9346;
665.1000;0.3012;0.9346;
665.4000;0.3028;0.9420;
665.7000;0.3053;0.9445;
666.0000;0.3126;0.9670;
666.3000;0.3020;0.9396;
666.6000;0.3004;0.9271;
666.9000;0.3028;0.9321;
667.2000;0.2955;0.9221;
667.5000;0.3012;0.9495;
667.8000;0.2996;0.9570;
668.1000;0.3028;0.9744;
668.4000;0.3085;0.9769;
668.7000;0.3004;0.9670;
669.0000;0.3053;0.9670;
669.3000;0.3020;0.9595;
669.6000;0.3020;0.9645;
669.9000;0.3012;0.9595;
670.2000;0.2963;0.9445;
670.5000;0.3012;0.9495;
670.8000;0.3020;0.9520;
671.1000;0.3036;0.9470;
671.4000;0.3044;0.9520;
671.7000;0.3012;0.9420;
672.0000;0.3020;0.9470;
672.3000;0.3020;0.9495;
672.6000;0.3012;0.9470;
672.9000;0.3020;0.9470;
673.2000;0.3004;0.9445;
673.5000;0.3020;0.9570;
673.8000;0.3012;0.9595;
674.1000;0.3012;0.9495;
674.4000;0.3004;0.9445;
674.7000;0.3028;0.9495;
675.0000;0.3012;0.9520;
675.3000;0.3020;0.9595;
675.6000;0.2996;0.9495;
675.9000;0.2996;0.9570;
676.2000;0.3004;0.9495;
676.5000;0.3012;0.9445;
676.8000;0.2996;0.9420;
677.1000;0.3004;0.9470;
677.4000;0.3012;0.9420;
677.7000;0.2996;0.9346;
678.0000;0.3004;0.9396;
678.3000;0.3012;0.9396;
678.6000;0.3004;0.9371;
678.9000;0.3012;0.9396;
679.2000;0.3012;0.9321;
679.5000;0.3012;0.9296;
679.8000;0.3020;0.9371;
680.1000;0.3012;0.9396;
680.4000;0.3020;0.9420;
680.7000;0.3004;0.9246;
681.0000;0.3012;0.9246;
681.3000;0.3004;0.9221;
681.6000;0.3004;0.9321;
681.9000;0.3004;0.9346;
682.2000;0.3012;0.9396;
682.5000;0.3028;0.9371;
682.8000;0.3012;0.9445;
683.1000;0.2987;0.9346;
683.4000;0.2996;0.9296;
683.7000;0.3028;0.9346;
684.0000;0.3004;0.9321;
684.3000;0.2955;0.9121;
684.6000;0.3012;0.9271;
684.9000;0.2996;0.9271;
685.2000;0.3004;0.9296;
685.5000;0.2987;0.9246;
685.8000;0.2996;0.9296;
686.1000;0.3036;0.9396;
686.4000;0.2979;0.9296;
686.7000;0.3012;0.9371;
687.0000;0.3036;0.9396;
687.3000;0.2996;0.9371;
687.6000;0.2987;0.9246;
687.9000;0.2996;0.9246;
688.2000;0.3020;0.9321;
688.5000;0.2987;0.9246;
688.8000;0.3004;0.9221;
689.1000;0.2996;0.9196;
689.4000;0.2987;0.9196;
689.7000;0.2996;0.9246;
690.0000;0.2996;0.9346;
690.3000;0.2996;0.9346;
690.6000;0.2971;0.9196;
690.9000;0.2971;0.9246;
691.2000;0.2996;0.9321;
691.5000;0.2996;0.9346;
691.8000;0.2979;0.9321;
692.1000;0.2987;0.9346;
692.4000;0.2979;0.9346;
692.7000;0.2987;0.9321;
693.0000;0.2987;0.9396;
693.3000;0.3012;0.9470;
693.6000;0.2987;0.9346;
693.9000;0.2996;0.9495;
694.2000;0.2971;0.9520;
694.5000;0.2987;0.9545;
694.8000;0.2971;0.9570;
695.1000;0.3004;0.9645;
695.4000;0.2996;0.9645;
695.7000;0.2987;0.9570;
696.0000;0.2996;0.9545;
696.3000;0.3004;0.9570;
696.6000;0.3004;0.9545;
696.9000;0.2987;0.9545;
697.2000;0.3004;0.9595;
697.5000;0.2987;0.9595;
697.8000;0.2996;0.9720;
698.1000;0.2987;0.9720;
698.4000;0.2979;0.9595;
698.7000;0.2987;0.9645;
699.0000;0.2996;0.9720;
699.3000;0.2971;0.9670;
699.6000;0.2979;0.9570;
699.9000;0.2987;0.9645;
700.2000;0.2996;0.9695;
700.5000;0.2996;0.9645;
700.8000;0.2979;0.9695;
701.1000;0.2971;0.9645;
701.4000;0.2996;0.9620;
701.7000;0.2979;0.9595;
702.0000;0.2987;0.9620;
702.3000;0.2987;0.9645;
702.6000;0.2987;0.9720;
702.9000;0.2971;0.9670;
703.2000;0.2979;0.9670;
703.5000;0.2971;0.9695;
703.8000;0.2987;0.9645;
704.1000;0.2971;0.9720;
704.4000;0.2971;0.9695;
704.7000;0.2996;0.9720;
705.0000;0.2996;0.9670;
705.3000;0.3020;0.9620;
705.6000;0.2987;0.9545;
705.9000;0.2996;0.9470;
706.2000;0.2996;0.9495;
706.5000;0.3004;0.9570;
706.8000;0.2987;0.9620;
707.1000;0.2971;0.9620;
707.4000;0.2987;0.9670;
707.7000;0.2987;0.9670;
708.0000;0.2971;0.9545;
708.3000;0.2979;0.9570;
708.6000;0.2971;0.9570;
708.9000;0.2971;0.9545;
709.2000;0.2955;0.9470;
709.5000;0.2971;0.9620;
709.8000;0.2971;0.9645;
710.1000;0.2979;0.9595;
710.4000;0.3012;0.9645;
710.7000;0.2979;0.9645;
711.0000;0.2979;0.9595;
711.3000;0.2963;0.9570;
711.6000;0.2971;0.9495;
711.9000;0.2979;0.9470;
712.2000;0.2987;0.9495;
712.5000;0.2987;0.9570;
712.8000;0.2987;0.9645;
713.1000;0.2979;0.9670;
713.4000;0.2971;0.9645;
713.7000;0.2971;0.9595;
714.0000;0.2987;0.9620;
714.3000;0.2996;0.9520;
714.6000;0.2979;0.9520;
714.9000;0.2979;0.9520;
715.2000;0.2987;0.9620;
715.5000;0.2987;0.9595;
715.8000;0.2987;0.9595;
716.1000;0.2987;0.9620;
716.4000;0.2963;0.9670;
716.7000;0.2987;0.9720;
717.0000;0.2987;0.9645;
717.3000;0.2963;0.9520;
717.6000;0.2971;0.9570;
717.9000;0.2963;0.9520;
718.2000;0.2971;0.9595;
718.5000;0.2971;0.9620;
718.8000;0.2971;0.9645;
719.1000;0.2971;0.9595;
719.4000;0.2971;0.9620;
719.7000;0.3020;0.9645;
720.0000;0.2979;0.9620;
720.3000;0.2987;0.9645;
720.6000;0.2987;0.9645;
720.9000;0.2979;0.9545;
721.2000;0.2987;0.9570;
721.5000;0.3020;0.9645;
721.8000;0.3004;0.9570;
722.1000;0.3004;0.9570;
722.4000;0.2971;0.9495;
722.7000;0.2955;0.9495;
723.0000;0.2979;0.9545;
723.3000;0.2987;0.9495;
723.6000;0.2979;0.9470;
723.9000;0.2963;0.9495;
724.2000;0.2963;0.9470;
724.5000;0.2971;0.9520;
724.8000;0.2898;0.9296;
725.1000;0.2947;0.9470;
725.4000;0.2873;0.9296;
725.7000;0.2979;0.9620;
726.0000;0.2971;0.9570;
726.3000;0.2963;0.9570;
726.6000;0.2979;0.9595;
726.9000;0.2898;0.9445;
727.2000;0.2971;0.9645;
727.5000;0.2963;0.9545;
727.8000;0.3077;0.9819;
728.1000;0.2963;0.9595;
728.4000;0.2963;0.9645;
728.7000;0.3069;0.9869;
729.0000;0.2971;0.9620;
729.3000;0.2963;0.9670;
729.6000;0.2939;0.9545;
729.9000;0.2947;0.9495;
730.2000;0.2971;0.9495;
730.5000;0.3012;0.9595;
730.8000;0.2979;0.9570;
731.1000;0.2963;0.9595;
731.4000;0.2955;0.9545;
731.7000;0.2979;0.9670;
732.0000;0.2971;0.9620;
732.3000;0.2914;0.9470;
732.6000;0.2963;0.9695;
732.9000;0.3020;0.9844;
733.2000;0.2963;0.9720;
733.5000;0.3061;0.9844;
733.8000;0.2987;0.9695;
734.1000;0.2963;0.9645;
734.4000;0.2963;0.9744;
734.7000;0.2963;0.9794;
735.0000;0.2979;0.9744;
735.3000;0.2947;0.9595;
735.6000;0.2971;0.9620;
735.9000;0.2898;0.9396;
736.2000;0.2971;0.9620;
736.5000;0.2979;0.9695;
736.8000;0.2955;0.9595;
737.1000;0.2971;0.9570;
737.4000;0.2939;0.9396;
737.7000;0.2939;0.9470;
738.0000;0.2971;0.9570;
738.3000;0.2955;0.9520;
738.6000;0.2947;0.9520;
738.9000;0.2963;0.9595;
739.2000;0.2955;0.9545;
739.5000;0.3061;0.9844;
739.8000;0.2955;0.9570;
740.1000;0.2971;0.9470;
740.4000;0.2939;0.9396;
740.7000;0.2996;0.9520;
741.0000;0.2979;0.9420;
741.3000;0.2955;0.9396;
741.6000;0.2963;0.9445;
741.9000;0.2963;0.9520;
742.2000;0.2971;0.9570;
742.5000;0.2971;0.9445;
742.8000;0.2922;0.9371;
743.1000;0.2898;0.9246;
743.4000;0.2971;0.9520;
743.7000;0.2963;0.9620;
744.0000;0.2947;0.9620;
744.3000;0.2947;0.9545;
744.6000;0.2955;0.9595;
744.9000;0.2971;0.9670;
745.2000;0.3020;0.9769;
745.5000;0.2939;0.9595;
745.8000;0.2963;0.9570;
746.1000;0.2987;0.9545;
746.4000;0.2971;0.9495;
746.7000;0.2963;0.9396;
747.0000;0.2971;0.9396;
747.3000;0.2955;0.9445;
747.6000;0.2971;0.9445;
747.9000;0.3012;0.9520;
748.2000;0.2955;0.9371;
748.5000;0.2955;0.9470;
748.8000;0.2996;0.9595;
749.1000;0.2955;0.9570;
749.4000;0.2955;0.9570;
749.7000;0.2955;0.9495;
750.0000;0.3004;0.9620;
750.3000;0.2963;0.9570;
750.6000;0.3061;0.9919;
750.9000;0.2939;0.9570;
751.2000;0.2882;0.9396;
751.5000;0.2906;0.9371;
751.8000;0.2979;0.9570;
752.1000;0.2882;0.9371;
752.4000;0.2979;0.9595;
752.7000;0.2987;0.9520;
753.0000;0.2971;0.9470;
753.3000;0.2955;0.9445;
753.6000;0.2947;0.9445;
753.9000;0.2963;0.9520;
754.2000;0.2955;0.9470;
754.5000;0.2930;0.9371;
754.8000;0.3044;0.9670;
755.1000;0.2955;0.9445;
755.4000;0.2955;0.9420;
755.7000;0.2947;0.9396;
756.0000;0.2963;0.9495;
756.3000;0.2955;0.9495;
756.6000;0.2955;0.9470;
756.9000;0.2955;0.9371;
757.2000;0.2955;0.9371;
757.5000;0.2963;0.9396;
757.8000;0.2939;0.9371;
758.1000;0.2939;0.9371;
758.4000;0.2971;0.9445;
758.7000;0.2963;0.9420;
759.0000;0.2939;0.9371;
759.3000;0.2947;0.9371;
759.6000;0.2947;0.9371;
759.9000;0.2955;0.9296;
760.2000;0.2955;0.9296;
760.5000;0.2939;0.9221;
760.8000;0.2939;0.9246;
761.1000;0.2963;0.9346;
761.4000;0.2898;0.9246;
761.7000;0.2963;0.9396;
762.0000;0.2947;0.9470;
762.3000;0.2930;0.9396;
762.6000;0.2963;0.9545;
762.9000;0.2963;0.9520;
763.2000;0.2947;0.9445;
763.5000;0.2930;0.9445;
763.8000;0.2955;0.9620;
764.1000;0.2930;0.9570;
764.4000;0.2939;0.9570;
764.7000;0.2955;0.9620;
765.0000;0.2906;0.9495;
765.3000;0.2955;0.9620;
765.6000;0.2914;0.9495;
765.9000;0.2955;0.9545;
766.2000;0.2971;0.9570;
766.5000;0.2971;0.9695;
766.8000;0.2930;0.9470;
767.1000;0.2971;0.9545;
767.4000;0.2955;0.9545;
767.7000;0.2963;0.9595;
768.0000;0.2955;0.9570;
768.3000;0.2939;0.9495;
768.6000;0.2914;0.9445;
768.9000;0.2947;0.9470;
769.2000;0.2930;0.9321;
769.5000;0.2939;0.9221;
769.8000;0.2922;0.9271;
770.1000;0.2963;0.9346;
770.4000;0.2930;0.9271;
770.7000;0.2939;0.9321;
771.0000;0.2955;0.9346;
771.3000;0.2922;0.9296;
771.6000;0.2963;0.9396;
771.9000;0.2939;0.9371;
772.2000;0.2930;0.9371;
772.5000;0.3004;0.9645;
772.8000;0.2930;0.9520;
773.1000;0.2930;0.9545;
773.4000;0.2947;0.9620;
773.7000;0.2955;0.9645;
774.0000;0.2939;0.9570;
774.3000;0.2914;0.9520;
774.6000;0.2955;0.9645;
774.9000;0.2930;0.9545;
775.2000;0.2955;0.9620;
775.5000;0.2963;0.9570;
775.8000;0.2930;0.9445;
776.1000;0.2979;0.9520;
776.4000;0.2987;0.9570;
776.7000;0.2963;0.9495;
777.0000;0.2955;0.9445;
777.3000;0.2963;0.9445;
777.6000;0.2947;0.9420;
777.9000;0.2947;0.9495;
778.2000;0.2963;0.9520;
778.5000;0.2955;0.9520;
778.8000;0.2947;0.9545;
779.1000;0.2987;0.9670;
779.4000;0.3069;0.9894;
779.7000;0.2955;0.9570;
780.0000;0.2898;0.9420;
780.3000;0.2873;0.9420;
780.6000;0.2963;0.9620;
780.9000;0.2955;0.9520;
781.2000;0.2930;0.9545;
781.5000;0.2955;0.9545;
781.8000;0.2955;0.9595;
782.1000;0.3028;0.9794;
782.4000;0.2947;0.9520;
782.7000;0.2955;0.9520;
783.0000;0.2971;0.9570;
783.3000;0.2971;0.9545;
783.6000;0.2955;0.9495;
783.9000;0.2906;0.9420;
784.2000;0.2939;0.9595;
784.5000;0.2947;0.9670;
784.8000;0.2939;0.9794;
785.1000;0.2971;0.9869;
785.4000;0.2955;0.9720;
785.7000;0.2947;0.9645;
786.0000;0.2939;0.9645;
786.3000;0.3061;0.9944;
786.6000;0.2963;0.9620;
786.9000;0.2963;0.9595;
787.2000;0.2865;0.9321;
787.5000;0.2939;0.9545;
787.8000;0.2947;0.9545;
788.1000;0.2939;0.9545;
788.4000;0.2930;0.9545;
788.7000;0.2930;0.9520;
789.0000;0.2922;0.9570;
789.3000;0.2914;0.9470;
789.6000;0.2947;0.9445;
789.9000;0.2947;0.9396;
790.2000;0.2930;0.9396;
790.5000;0.2963;0.9470;
790.8000;0.2971;0.9570;
791.1000;0.2947;0.9570;
791.4000;0.2955;0.9570;
791.7000;0.2947;0.9520;
792.0000;0.2955;0.9595;
792.3000;0.2947;0.9595;
792.6000;0.2939;0.9520;
792.9000;0.2947;0.9495;
793.2000;0.2963;0.9495;
793.5000;0.2930;0.9371;
793.8000;0.2930;0.9420;
794.1000;0.2939;0.9520;
794.4000;0.2947;0.9570;
794.7000;0.2939;0.9570;
795.0000;0.2930;0.9545;
795.3000;0.2930;0.9595;
795.6000;0.2955;0.9670;
795.9000;0.2939;0.9670;
796.2000;0.2939;0.9520;
796.5000;0.2963;0.9595;
796.8000;0.2955;0.9570;
797.1000;0.2947;0.9520;
797.4000;0.2963;0.9520;
797.7000;0.2955;0.9495;
798.0000;0.2914;0.9445;
798.3000;0.2939;0.9445;
798.6000;0.2930;0.9445;
798.9000;0.2939;0.9470;
799.2000;0.2930;0.9470;
799.5000;0.2939;0.9470;
799.8000;0.2947;0.9470;
800.1000;0.2955;0.9495;
800.4000;0.2955;0.9445;
800.7000;0.2963;0.9495;
801.0000;0.2955;0.9470;
801.3000;0.2939;0.9470;
801.6000;0.2939;0.9470;
801.9000;0.2955;0.9545;
802.2000;0.2939;0.9495;
802.5000;0.2939;0.9570;
802.8000;0.2930;0.9620;
803.1000;0.2947;0.9645;
803.4000;0.2939;0.9595;
803.7000;0.2963;0.9620;
804.0000;0.2906;0.9445;
804.3000;0.2947;0.9570;
804.6000;0.2939;0.9545;
804.9000;0.2930;0.9445;
805.2000;0.2939;0.9396;
805.5000;0.2939;0.9321;
805.8000;0.2947;0.9371;
806.1000;0.3020;0.9645;
806.4000;0.2930;0.9470;
806.7000;0.2947;0.9420;
807.0000;0.2922;0.9321;
807.3000;0.2930;0.9271;
807.6000;0.2939;0.9321;
807.9000;0.2930;0.9271;
808.2000;0.2963;0.9396;
808.5000;0.2939;0.9346;
808.8000;0.2930;0.9420;
809.1000;0.2930;0.9371;
809.4000;0.2939;0.9371;
809.7000;0.2939;0.9346;
810.0000;0.2947;0.9520;
810.3000;0.2947;0.9570;
810.6000;0.2939;0.9620;
810.9000;0.2955;0.9645;
811.2000;0.2947;0.9695;
811.5000;0.2939;0.9695;
811.8000;0.2955;0.9670;
812.1000;0.2947;0.9645;
812.4000;0.2947;0.9545;
812.7000;0.2930;0.9495;
813.0000;0.2947;0.9545;
813.3000;0.2939;0.9620;
813.6000;0.2947;0.9645;
813.9000;0.2922;0.9545;
814.2000;0.2939;0.9420;
814.5000;0.2922;0.9396;
814.8000;0.2922;0.9396;
815.1000;0.2939;0.9445;
815.4000;0.2939;0.9520;
815.7000;0.2930;0.9445;
816.0000;0.2947;0.9420;
816.3000;0.2939;0.9371;
816.6000;0.2922;0.9445;
816.9000;0.2939;0.9520;
817.2000;0.2930;0.9420;
817.5000;0.2947;0.9420;
817.8000;0.3044;0.9744;
818.1000;0.2922;0.9470;
818.4000;0.2930;0.9470;
818.7000;0.2930;0.9470;
819.0000;0.2947;0.9470;
819.3000;0.2922;0.9470;
819.6000;0.2939;0.9445;
819.9000;0.2939;0.9470;
820.2000;0.2922;0.9420;
820.5000;0.2930;0.9495;
820.8000;0.2930;0.9595;
821.1000;0.2939;0.9645;
821.4000;0.2922;0.9570;
821.7000;0.2922;0.9595;
822.0000;0.2947;0.9720;
822.3000;0.2947;0.9670;
822.6000;0.2947;0.9620;
822.9000;0.2930;0.9520;
823.2000;0.2939;0.9445;
823.5000;0.2947;0.9495;
823.8000;0.2947;0.9645;
824.1000;0.2930;0.9595;
824.4000;0.2939;0.9570;
824.7000;0.2947;0.9645;
825.0000;0.2939;0.9645;
825.3000;0.2939;0.9645;
825.6000;0.2939;0.9620;
825.9000;0.2849;0.9321;
826.2000;0.2947;0.9620;
826.5000;0.2939;0.9545;
826.8000;0.2939;0.9545;
827.1000;0.2939;0.9570;
827.4000;0.2930;0.9520;
827.7000;0.2947;0.9595;
828.0000;0.2939;0.9645;
828.3000;0.2939;0.9645;
828.6000;0.2939;0.9620;
828.9000;0.2939;0.9695;
829.2000;0.3004;0.9894;
829.5000;0.2939;0.9720;
829.8000;0.2947;0.9744;
830.1000;0.2947;0.9595;
830.4000;0.2939;0.9570;
830.7000;0.2939;0.9495;
831.0000;0.2930;0.9595;
831.3000;0.2947;0.9670;
831.6000;0.2890;0.9470;
831.9000;0.2947;0.9570;
832.2000;0.2947;0.9595;
832.5000;0.2939;0.9570;
832.8000;0.2947;0.9645;
833.1000;0.2922;0.9595;
833.4000;0.2922;0.9595;
833.7000;0.2947;0.9670;
834.0000;0.2947;0.9670;
834.3000;0.2922;0.9570;
834.6000;0.2947;0.9595;
834.9000;0.2947;0.9545;
835.2000;0.2939;0.9470;
835.5000;0.2939;0.9545;
835.8000;0.2939;0.9520;
836.1000;0.2939;0.9520;
836.4000;0.2939;0.9520;
836.7000;0.2930;0.9445;
837.0000;0.2947;0.9495;
837.3000;0.2947;0.9520;
837.6000;0.2947;0.9595;
837.9000;0.2939;0.9645;
838.2000;0.2930;0.9595;
838.5000;0.2939;0.9570;
838.8000;0.2873;0.9396;
839.1000;0.2979;0.9645;
839.4000;0.2939;0.9545;
839.7000;0.3004;0.9720;
840.0000;0.3004;0.9695;
840.3000;0.2922;0.9470;
840.6000;0.2947;0.9520;
840.9000;0.2939;0.9520;
841.2000;0.2947;0.9495;
841.5000;0.2922;0.9470;
841.8000;0.2939;0.9445;
842.1000;0.2939;0.9545;
842.4000;0.2939;0.9545;
842.7000;0.2882;0.9445;
843.0000;0.2963;0.9545;
843.3000;0.2930;0.9445;
843.6000;0.2922;0.9495;
843.9000;0.2865;0.9321;
844.2000;0.2922;0.9445;
844.5000;0.3028;0.9769;
844.8000;0.2939;0.9520;
845.1000;0.2930;0.9570;
845.4000;0.2833;0.9371;
845.7000;0.2922;0.9620;
846.0000;0.2939;0.9570;
846.3000;0.2947;0.9620;
846.6000;0.2930;0.9595;
846.9000;0.2922;0.9545;
847.2000;0.2979;0.9819;
847.5000;0.2930;0.9670;
847.8000;0.2947;0.9670;
848.1000;0.2939;0.9744;
848.4000;0.2906;0.9620;
848.7000;0.2971;0.9720;
849.0000;0.2939;0.9595;
849.3000;0.2930;0.9470;
849.6000;0.2898;0.9371;
849.9000;0.3044;0.9769;
850.2000;0.2947;0.9495;
850.5000;0.2930;0.9445;
850.8000;0.2890;0.9396;
851.1000;0.2930;0.9396;
851.4000;0.2914;0.9445;
851.7000;0.2930;0.9420;
852.0000;0.2914;0.9371;
852.3000;0.2914;0.9296;
852.6000;0.2930;0.9396;
852.9000;0.2939;0.9520;
853.2000;0.2914;0.9620;
853.5000;0.2922;0.9645;
853.8000;0.2930;0.9595;
854.1000;0.2996;0.9645;
854.4000;0.2947;0.9495;
854.7000;0.2939;0.9570;
855.0000;0.2922;0.9495;
855.3000;0.2873;0.9445;
855.6000;0.2922;0.9520;
855.9000;0.2939;0.9495;
856.2000;0.2939;0.9495;
856.5000;0.2930;0.9520;
856.8000;0.2939;0.9595;
857.1000;0.2914;0.9545;
857.4000;0.2890;0.9595;
857.7000;0.2922;0.9620;
858.0000;0.2922;0.9720;
858.3000;0.2939;0.9769;
858.6000;0.2939;0.9769;
858.9000;0.2930;0.9744;
859.2000;0.2922;0.9695;
859.5000;0.2971;0.9794;
859.8000;0.2906;0.9769;
860.1000;0.2914;0.9794;
860.4000;0.2914;0.9819;
860.7000;0.2922;0.9794;
861.0000;0.2930;0.9744;
861.3000;0.2914;0.9695;
861.6000;0.2833;0.9470;
861.9000;0.2947;0.9695;
862.2000;0.2930;0.9695;
862.5000;0.2947;0.9720;
862.8000;0.2833;0.9470;
863.1000;0.2914;0.9720;
863.4000;0.2914;0.9645;
863.7000;0.2939;0.9645;
864.0000;0.2930;0.9595;
864.3000;0.2914;0.9545;
864.6000;0.2930;0.9570;
864.9000;0.2930;0.9620;
865.2000;0.2930;0.9645;
865.5000;0.2930;0.9670;
865.8000;0.2906;0.9520;
866.1000;0.2939;0.9645;
866.4000;0.2914;0.9545;
866.7000;0.2947;0.9595;
867.0000;0.2930;0.9645;
867.3000;0.2955;0.9720;
867.6000;0.2930;0.9720;
867.9000;0.2914;0.9645;
868.2000;0.2930;0.9645;
868.5000;0.2930;0.9470;
868.8000;0.2873;0.9321;
869.1000;0.2930;0.9420;
869.4000;0.2922;0.9445;
869.7000;0.2939;0.9520;
870.0000;0.2939;0.9570;
870.3000;0.2930;0.9570;
870.6000;0.2930;0.9595;
870.9000;0.2930;0.9570;
871.2000;0.2955;0.9670;
871.5000;0.2930;0.9620;
871.8000;0.2947;0.9620;
872.1000;0.2930;0.9695;
872.4000;0.2865;0.9495;
872.7000;0.2939;0.9670;
873.0000;0.2939;0.9545;
873.3000;0.2922;0.9520;
873.6000;0.2939;0.9545;
873.9000;0.2914;0.9520;
874.2000;0.2947;0.9595;
874.5000;0.2955;0.9645;
874.8000;0.2914;0.9570;
875.1000;0.2955;0.9695;
875.4000;0.2906;0.9695;
875.7000;0.2930;0.9844;
876.0000;0.2914;0.9720;
876.3000;0.2922;0.9645;
876.6000;0.2947;0.9695;
876.9000;0.3069;0.9969;
877.2000;0.2947;0.9595;
877.5000;0.2914;0.9520;
877.8000;0.2930;0.9595;
878.1000;0.2922;0.9645;
878.4000;0.2930;0.9595;
878.7000;0.2930;0.9595;
879.0000;0.2922;0.9595;
879.3000;0.2939;0.9670;
879.6000;0.2930;0.9744;
879.9000;0.2930;0.9695;
880.2000;0.2890;0.9545;
880.5000;0.2906;0.9670;
880.8000;0.2922;0.9670;
881.1000;0.2971;0.9744;
881.4000;0.2930;0.9620;
881.7000;0.2930;0.9670;
882.0000;0.2939;0.9670;
882.3000;0.2939;0.9769;
882.6000;0.2930;0.9744;
882.9000;0.2930;0.9720;
883.2000;0.2922;0.9670;
883.5000;0.2930;0.9744;
883.8000;0.2906;0.9670;
884.1000;0.2922;0.9695;
884.4000;0.2922;0.9620;
884.7000;0.2922;0.9695;
885.0000;0.2930;0.9645;
885.3000;0.2939;0.9595;
885.6000;0.2930;0.9670;
885.9000;0.2922;0.9695;
886.2000;0.2914;0.9670;
886.5000;0.2930;0.9620;
886.8000;0.2914;0.9545;
887.1000;0.2906;0.9595;
887.4000;0.2865;0.9371;
887.7000;0.2930;0.9495;
888.0000;0.2922;0.9520;
888.3000;0.2930;0.9570;
888.6000;0.2930;0.9570;
888.9000;0.2914;0.9545;
889.2000;0.2898;0.9570;
889.5000;0.2930;0.9670;
889.8000;0.2947;0.9720;
890.1000;0.2922;0.9645;
890.4000;0.2930;0.9595;
890.7000;0.2906;0.9570;
891.0000;0.2939;0.9520;
891.3000;0.2922;0.9445;
891.6000;0.2963;0.9520;
891.9000;0.2930;0.9445;
892.2000;0.2930;0.9495;
892.5000;0.2930;0.9470;
892.8000;0.2914;0.9396;
893.1000;0.2914;0.9445;
893.4000;0.2939;0.9595;
893.7000;0.2947;0.9670;
894.0000;0.2947;0.9645;
894.3000;0.2930;0.9645;
894.6000;0.2906;0.9445;
894.9000;0.2906;0.9520;
895.2000;0.2930;0.9420;
895.5000;0.2922;0.9371;
895.8000;0.2947;0.9445;
896.1000;0.2930;0.9420;
896.4000;0.2930;0.9371;
896.7000;0.2906;0.9346;
897.0000;0.2939;0.9470;
897.3000;0.2930;0.9545;
897.6000;0.2922;0.9545;
897.9000;0.2898;0.9470;
898.2000;0.2922;0.9470;
898.5000;0.2898;0.9371;
898.8000;0.2906;0.9371;
899.1000;0.2930;0.9545;
899.4000;0.2914;0.9420;
899.7000;0.2930;0.9371;
900.0000;0.2906;0.9346;
900.3000;0.2906;0.9346;
900.6000;0.2914;0.9495;
900.9000;0.2955;0.9570;
901.2000;0.2914;0.9495;
901.5000;0.2922;0.9470;
901.8000;0.2906;0.9470;
902.1000;0.2930;0.9570;
902.4000;0.2939;0.9695;
902.7000;0.2898;0.9620;
903.0000;0.2922;0.9595;
903.3000;0.2922;0.9670;
903.6000;0.2922;0.9620;
903.9000;0.2922;0.9570;
904.2000;0.2922;0.9595;
904.5000;0.2914;0.9595;
904.8000;0.2922;0.9595;
905.1000;0.2922;0.9620;
905.4000;0.2930;0.9620;
905.7000;0.2930;0.9670;
906.0000;0.2947;0.9695;
906.3000;0.2914;0.9570;
906.6000;0.2939;0.9595;
906.9000;0.2906;0.9495;
907.2000;0.2922;0.9595;
907.5000;0.2930;0.9695;
907.8000;0.2914;0.9670;
908.1000;0.2914;0.9720;
908.4000;0.2930;0.9769;
908.7000;0.2930;0.9720;
909.0000;0.2906;0.9720;
909.3000;0.2930;0.9769;
909.6000;0.2906;0.9695;
909.9000;0.2914;0.9720;
910.2000;0.2930;0.9695;
910.5000;0.2906;0.9720;
910.8000;0.2914;0.9720;
911.1000;0.2922;0.9720;
911.4000;0.2939;0.9744;
911.7000;0.2914;0.9645;
912.0000;0.2906;0.9645;
912.3000;0.2922;0.9695;
912.6000;0.2930;0.9670;
912.9000;0.2922;0.9720;
913.2000;0.2930;0.9695;
913.5000;0.2922;0.9595;
913.8000;0.2914;0.9470;
914.1000;0.2930;0.9545;
914.4000;0.2906;0.9545;
914.7000;0.2914;0.9545;
915.0000;0.2922;0.9545;
915.3000;0.2930;0.9545;
915.6000;0.2922;0.9570;
915.9000;0.2922;0.9520;
916.2000;0.2930;0.9495;
916.5000;0.2930;0.9620;
916.8000;0.2939;0.9620;
917.1000;0.2930;0.9595;
917.4000;0.2930;0.9620;
917.7000;0.2939;0.9645;
918.0000;0.2922;0.9595;
918.3000;0.2914;0.9545;
918.6000;0.2939;0.9645;
918.9000;0.2914;0.9695;
919.2000;0.2930;0.9695;
919.5000;0.2906;0.9720;
919.8000;0.2922;0.9670;
920.1000;0.2930;0.9595;
920.4000;0.2922;0.9670;
920.7000;0.2922;0.9645;
921.0000;0.2922;0.9670;
921.3000;0.2930;0.9645;
921.6000;0.2922;0.9670;
921.9000;0.2930;0.9720;
922.2000;0.2906;0.9769;
922.5000;0.2906;0.9695;
922.8000;0.2939;0.9670;
923.1000;0.2914;0.9495;
923.4000;0.2914;0.9470;
923.7000;0.2922;0.9495;
924.0000;0.2922;0.9495;
924.3000;0.2930;0.9545;
924.6000;0.2930;0.9595;
924.9000;0.2914;0.9520;
925.2000;0.2939;0.9545;
925.5000;0.2922;0.9545;
925.8000;0.2914;0.9570;
926.1000;0.2939;0.9645;
926.4000;0.2922;0.9670;
926.7000;0.2930;0.9620;
927.0000;0.2914;0.9595;
927.3000;0.2930;0.9595;
927.6000;0.2930;0.9645;
927.9000;0.2939;0.9595;
928.2000;0.2930;0.9520;
928.5000;0.2922;0.9520;
928.8000;0.2922;0.9545;
929.1000;0.2914;0.9495;
929.4000;0.2906;0.9495;
929.7000;0.2922;0.9570;
930.0000;0.2922;0.9595;
930.3000;0.2922;0.9595;
930.6000;0.2930;0.9545;
930.9000;0.2914;0.9545;
931.2000;0.3020;0.9720;
931.5000;0.2930;0.9420;
931.8000;0.2930;0.9420;
932.1000;0.2914;0.9296;
932.4000;0.2914;0.9271;
932.7000;0.2922;0.9371;
933.0000;0.2922;0.9470;
933.3000;0.2914;0.9470;
933.6000;0.2914;0.9520;
933.9000;0.2922;0.9595;
934.2000;0.2898;0.9545;
934.5000;0.2914;0.9645;
934.8000;0.2922;0.9720;
935.1000;0.2865;0.9595;
935.4000;0.2922;0.9744;
935.7000;0.2922;0.9769;
936.0000;0.2947;0.9844;
936.3000;0.2930;0.9844;
936.6000;0.2930;0.9919;
936.9000;0.2922;0.9919;
937.2000;0.2930;0.9994;
937.5000;0.2922;0.9894;
937.8000;0.2873;0.9645;
938.1000;0.2930;0.9844;
938.4000;0.2922;0.9769;
938.7000;0.2914;0.9769;
939.0000;0.2930;0.9744;
939.3000;0.2906;0.9720;
939.6000;0.2922;0.9645;
939.9000;0.2906;0.9620;
940.2000;0.2947;0.9645;
940.5000;0.2930;0.9595;
940.8000;0.2906;0.9570;
941.1000;0.2906;0.9595;
941.4000;0.2922;0.9620;
941.7000;0.2914;0.9595;
942.0000;0.2922;0.9595;
942.3000;0.2906;0.9620;
942.6000;0.2906;0.9595;
942.9000;0.2930;0.9720;
943.2000;0.2833;0.9445;
943.5000;0.2922;0.9695;
943.8000;0.2914;0.9695;
944.1000;0.2922;0.9670;
944.4000;0.2947;0.9670;
944.7000;0.2914;0.9570;
945.0000;0.2930;0.9595;
945.3000;0.2865;0.9520;
945.6000;0.2939;0.9720;
945.9000;0.2922;0.9670;
946.2000;0.2841;0.9445;
946.5000;0.2906;0.9570;
946.8000;0.2865;0.9520;
947.1000;0.2939;0.9620;
947.4000;0.2922;0.9620;
947.7000;0.2914;0.9645;
948.0000;0.2939;0.9744;
948.3000;0.2922;0.9670;
948.6000;0.2947;0.9620;
948.9000;0.2906;0.9645;
949.2000;0.2914;0.9695;
949.5000;0.2914;0.9670;
949.8000;0.2906;0.9595;
950.1000;0.2906;0.9570;
950.4000;0.2914;0.9595;
950.7000;0.2930;0.9570;
951.0000;0.2914;0.9595;
951.3000;0.2939;0.9670;
951.6000;0.2922;0.9670;
951.9000;0.2922;0.9545;
952.2000;0.2914;0.9495;
952.5000;0.2914;0.9545;
952.8000;0.3077;1.0044;
953.1000;0.2922;0.9645;
953.4000;0.2914;0.9595;
953.7000;0.2882;0.9570;
954.0000;0.2898;0.9645;
954.3000;0.2882;0.9670;
954.6000;0.2898;0.9695;
954.9000;0.2873;0.9670;
955.2000;0.2914;0.9720;
955.5000;0.2914;0.9720;
955.8000;0.2914;0.9769;
956.1000;0.2922;0.9844;
956.4000;0.2914;0.9769;
956.7000;0.2922;0.9744;
957.0000;0.2914;0.9720;
957.3000;0.2914;0.9620;
957.6000;0.2922;0.9620;
957.9000;0.2930;0.9670;
958.2000;0.2939;0.9670;
958.5000;0.2914;0.9620;
958.8000;0.2914;0.9520;
959.1000;0.2922;0.9620;
959.4000;0.2939;0.9670;
959.7000;0.2930;0.9570;
960.0000;0.2914;0.9520;
960.3000;0.2922;0.9595;
960.6000;0.2914;0.9645;
960.9000;0.2922;0.9695;
961.2000;0.2914;0.9769;
961.5000;0.2898;0.9744;
961.8000;0.2930;0.9794;
962.1000;0.2922;0.9769;
962.4000;0.2922;0.9769;
962.7000;0.2955;0.9869;
963.0000;0.2939;0.9794;
963.3000;0.2906;0.9744;
963.6000;0.2906;0.9744;
963.9000;0.2996;1.0068;
964.2000;0.2939;0.9720;
964.5000;0.2914;0.9620;
964.8000;0.2922;0.9595;
965.1000;0.2914;0.9595;
965.4000;0.2979;0.9819;
965.7000;0.2906;0.9670;
966.0000;0.2922;0.9744;
966.3000;0.2939;0.9794;
966.6000;0.2890;0.9720;
966.9000;0.2922;0.9794;
967.2000;0.2914;0.9844;
967.5000;0.2849;0.9744;
967.8000;0.2873;0.9769;
968.1000;0.2906;0.9919;
968.4000;0.2906;0.9869;
968.7000;0.2890;0.9869;
969.0000;0.2873;0.9769;
969.3000;0.2906;0.9819;
969.6000;0.2873;0.9744;
969.9000;0.2882;0.9819;
970.2000;0.2914;0.9869;
970.5000;0.2906;0.9844;
970.8000;0.2906;0.9919;
971.1000;0.2922;1.0019;
971.4000;0.2914;0.9969;
971.7000;0.2914;1.0044;
972.0000;0.2906;1.0044;
972.3000;0.3012;1.0293;
972.6000;0.2922;1.0019;
972.9000;0.2914;0.9994;
973.2000;0.2922;0.9969;
973.5000;0.2898;0.9969;
973.8000;0.2914;0.9894;
974.1000;0.2906;0.9869;
974.4000;0.2930;0.9844;
974.7000;0.2963;0.9819;
975.0000;0.2922;0.9695;
975.3000;0.2906;0.9620;
975.6000;0.2865;0.9520;
975.9000;0.2914;0.9645;
976.2000;0.2939;0.9744;
976.5000;0.2898;0.9595;
976.8000;0.2898;0.9595;
977.1000;0.2922;0.9720;
977.4000;0.2914;0.9695;
977.7000;0.2963;0.9794;
978.0000;0.2898;0.9670;
978.3000;0.2930;0.9720;
978.6000;0.2914;0.9670;
978.9000;0.2906;0.9595;
979.2000;0.2906;0.9545;
979.5000;0.2906;0.9595;
979.8000;0.2882;0.9645;
980.1000;0.2922;0.9695;
980.4000;0.2922;0.9744;
980.7000;0.2914;0.9744;
981.0000;0.2922;0.9794;
981.3000;0.2906;0.9819;
981.6000;0.2914;0.9819;
981.9000;0.2898;0.9844;
982.2000;0.2922;0.9869;
982.5000;0.2939;0.9944;
982.8000;0.2922;0.9919;
983.1000;0.2930;0.9744;
983.4000;0.2890;0.9645;
983.7000;0.2930;0.9819;
984.0000;0.2939;0.9869;
984.3000;0.2906;0.9844;
984.6000;0.2914;0.9894;
984.9000;0.2971;1.0143;
985.2000;0.2914;0.9894;
985.5000;0.2922;0.9744;
985.8000;0.2882;0.9495;
986.1000;0.2922;0.9595;
986.4000;0.2939;0.9720;
986.7000;0.2922;0.9695;
987.0000;0.2906;0.9720;
987.3000;0.2898;0.9670;
987.6000;0.2963;0.9919;
987.9000;0.2914;0.9794;
988.2000;0.2906;0.9695;
988.5000;0.2963;0.9869;
988.8000;0.2930;0.9794;
989.1000;0.2873;0.9595;
989.4000;0.2914;0.9695;
989.7000;0.2906;0.9720;
990.0000;0.2914;0.9769;
990.3000;0.2873;0.9695;
990.6000;0.2898;0.9695;
990.9000;0.2939;0.9744;
991.2000;0.2930;0.9819;
991.5000;0.2914;0.9794;
991.8000;0.2882;0.9695;
992.1000;0.2922;0.9869;
992.4000;0.2898;0.9819;
992.7000;0.2930;0.9819;
993.0000;0.2906;0.9794;
993.3000;0.2914;0.9670;
993.6000;0.2914;0.9595;
993.9000;0.2906;0.9620;
994.2000;0.2898;0.9620;
994.5000;0.2914;0.9645;
994.8000;0.2971;0.9819;
995.1000;0.2930;0.9794;
995.4000;0.2979;0.9994;
995.7000;0.2906;0.9819;
996.0000;0.2906;0.9869;
996.3000;0.2865;0.9744;
996.6000;0.2914;0.9794;
996.9000;0.2939;0.9769;
997.2000;0.2930;0.9769;
997.5000;0.2914;0.9819;
997.8000;0.2922;0.9869;
998.1000;0.2914;0.9844;
998.4000;0.2890;0.9769;
998.7000;0.2898;0.9720;
999.0000;0.2898;0.9744;
999.3000;0.2906;0.9695;
999.6000;0.2865;0.9620;
999.9000;0.2898;0.9794;
1000.2000;0.2906;0.9720;
1000.5000;0.2914;0.9695;
1000.8000;0.2906;0.9570;
1001.1000;0.2922;0.9595;
1001.4000;0.2914;0.9744;
1001.7000;0.2914;0.9720;
1002.0000;0.2930;0.9744;
1002.3000;0.2914;0.9720;
1002.6000;0.2865;0.9670;
1002.9000;0.2930;0.9769;
1003.2000;0.2906;0.9769;
1003.5000;0.2939;0.9869;
1003.8000;0.2914;0.9894;
1004.1000;0.2930;0.9944;
1004.4000;0.2906;0.9869;
1004.7000;0.2939;0.9894;
1005.0000;0.2930;0.9894;
1005.3000;0.2922;0.9944;
1005.6000;0.2898;0.9894;
1005.9000;0.2906;0.9819;
1006.2000;0.2930;0.9944;
1006.5000;0.2930;0.9894;
1006.8000;0.2930;0.9869;
1007.1000;0.2906;0.9869;
1007.4000;0.2922;0.9819;
1007.7000;0.2906;0.9819;
1008.0000;0.2922;0.9819;
1008.3000;0.2914;0.9844;
1008.6000;0.2914;0.9844;
1008.9000;0.2906;0.9819;
1009.2000;0.2898;0.9894;
1009.5000;0.2914;0.9919;
1009.8000;0.2906;0.9869;
1010.1000;0.2914;0.9869;
1010.4000;0.2914;0.9819;
1010.7000;0.2922;0.9894;
1011.0000;0.2906;0.9794;
1011.3000;0.2914;0.9769;
1011.6000;0.2914;0.9844;
1011.9000;0.2922;0.9894;
1012.2000;0.2914;0.9919;
1012.5000;0.2930;0.9919;
1012.8000;0.2914;0.9844;
1013.1000;0.2922;0.9844;
1013.4000;0.2922;0.9944;
1013.7000;0.2906;1.0019;
1014.0000;0.2922;0.9994;
1014.3000;0.2922;1.0093;
1014.6000;0.2914;0.9919;
1014.9000;0.2873;0.9844;
1015.2000;0.2914;0.9869;
1015.5000;0.2922;0.9819;
1015.8000;0.2914;0.9819;
1016.1000;0.2914;0.9769;
1016.4000;0.2914;0.9794;
1016.7000;0.2930;0.9769;
1017.0000;0.2939;0.9744;
1017.3000;0.2906;0.9720;
1017.6000;0.2922;0.9819;
1017.9000;0.2930;0.9869;
1018.2000;0.2922;0.9894;
1018.5000;0.2922;0.9844;
1018.8000;0.2898;0.9769;
1019.1000;0.2898;0.9794;
1019.4000;0.2922;0.9919;
1019.7000;0.2898;0.9919;
1020.0000;0.2898;0.9994;
1020.3000;0.2922;0.9969;
1020.6000;0.2906;0.9969;
1020.9000;0.2898;0.9969;
1021.2000;0.2914;0.9919;
1021.5000;0.2922;0.9894;
1021.8000;0.2914;0.9944;
1022.1000;0.2914;0.9944;
1022.4000;0.2914;0.9944;
1022.7000;0.2922;0.9944;
1023.0000;0.2930;0.9944;
1023.3000;0.2922;0.9894;
1023.6000;0.2922;0.9919;
1023.9000;0.2898;0.9869;
1024.2000;0.2906;0.9869;
1024.5000;0.2922;0.9894;
1024.8000;0.2914;0.9819;
1025.1000;0.2971;0.9894;
1025.4000;0.2914;0.9744;
1025.7000;0.2922;0.9769;
1026.0000;0.2922;0.9720;
1026.3000;0.2914;0.9695;
1026.6000;0.2922;0.9769;
1026.9000;0.2930;0.9819;
1027.2000;0.2922;0.9869;
1027.5000;0.2914;0.9844;
1027.8000;0.2922;0.9869;
1028.1000;0.2930;0.9794;
1028.4000;0.2914;0.9769;
1028.7000;0.2914;0.9720;
1029.0000;0.2930;0.9720;
1029.3000;0.2914;0.9744;
1029.6000;0.2914;0.9819;
1029.9000;0.2906;0.9769;
1030.2000;0.2922;0.9794;
1030.5000;0.2930;0.9819;
1030.8000;0.2922;0.9794;
1031.1000;0.2914;0.9819;
1031.4000;0.2939;0.9744;
1031.7000;0.2922;0.9645;
1032.0000;0.2922;0.9794;
1032.3000;0.2914;0.9794;
1032.6000;0.2930;0.9769;
1032.9000;0.2906;0.9720;
1033.2000;0.2914;0.9670;
1033.5000;0.2906;0.9645;
1033.8000;0.2906;0.9570;
1034.1000;0.2898;0.9545;
1034.4000;0.2906;0.9645;
1034.7000;0.2906;0.9720;
1035.0000;0.2922;0.9695;
1035.3000;0.2914;0.9720;
1035.6000;0.2914;0.9794;
1035.9000;0.2922;0.9744;
1036.2000;0.2922;0.9769;
1036.5000;0.2914;0.9794;
1036.8000;0.2914;0.9844;
1037.1000;0.2939;0.9794;
1037.4000;0.2914;0.9645;
1037.7000;0.2914;0.9695;
1038.0000;0.2922;0.9645;
1038.3000;0.2922;0.9695;
1038.6000;0.2914;0.9595;
1038.9000;0.2914;0.9670;
1039.2000;0.2914;0.9670;
1039.5000;0.2922;0.9720;
1039.8000;0.2914;0.9720;
1040.1000;0.2914;0.9670;
1040.4000;0.2914;0.9670;
1040.7000;0.2914;0.9620;
1041.0000;0.2922;0.9670;
1041.3000;0.2922;0.9695;
1041.6000;0.2922;0.9670;
1041.9000;0.2914;0.9670;
1042.2000;0.2939;0.9720;
1042.5000;0.2922;0.9695;
1042.8000;0.2914;0.9695;
1043.1000;0.2930;0.9645;
1043.4000;0.2922;0.9645;
1043.7000;0.2914;0.9595;
1044.0000;0.2922;0.9670;
1044.3000;0.2914;0.9645;
1044.6000;0.2906;0.9645;
1044.9000;0.2906;0.9645;
1045.2000;0.2914;0.9670;
1045.5000;0.2906;0.9720;
1045.8000;0.2914;0.9720;
1046.1000;0.2930;0.9720;
1046.4000;0.2914;0.9794;
1046.7000;0.2914;0.9744;
1047.0000;0.2922;0.9744;
1047.3000;0.2922;0.9720;
1047.6000;0.2922;0.9670;
1047.9000;0.2922;0.9670;
1048.2000;0.2930;0.9720;
1048.5000;0.2930;0.9769;
1048.8000;0.2914;0.9744;
1049.1000;0.2922;0.9645;
1049.4000;0.2914;0.9620;
1049.7000;0.2922;0.9620;
1050.0000;0.2930;0.9670;
1050.3000;0.2906;0.9695;
1050.6000;0.2914;0.9819;
1050.9000;0.2914;0.9869;
1051.2000;0.2898;0.9819;
1051.5000;0.2857;0.9720;
1051.8000;0.2906;0.9794;
1052.1000;0.2914;0.9869;
1052.4000;0.2906;0.9844;
1052.7000;0.2922;0.9819;
1053.0000;0.2914;0.9844;
1053.3000;0.2922;0.9819;
1053.6000;0.2922;0.9769;
1053.9000;0.2922;0.9744;
1054.2000;0.2898;0.9695;
1054.5000;0.2922;0.9720;
1054.8000;0.2922;0.9769;
1055.1000;0.2890;0.9695;
1055.4000;0.2906;0.9794;
1055.7000;0.2906;0.9844;
1056.0000;0.2914;0.9869;
1056.3000;0.2963;0.9919;
1056.6000;0.2906;0.9769;
1056.9000;0.2914;0.9744;
1057.2000;0.2939;0.9794;
1057.5000;0.2914;0.9645;
1057.8000;0.2914;0.9670;
1058.1000;0.2841;0.9495;
1058.4000;0.2922;0.9744;
1058.7000;0.2898;0.9720;
1059.0000;0.2898;0.9695;
1059.3000;0.2890;0.9520;
1059.6000;0.2906;0.9670;
1059.9000;0.2906;0.9695;
1060.2000;0.2882;0.9520;
1060.5000;0.2841;0.9420;
1060.8000;0.2882;0.9620;
1061.1000;0.2914;0.9620;
1061.4000;0.2922;0.9670;
1061.7000;0.2906;0.9595;
1062.0000;0.2914;0.9670;
1062.3000;0.2906;0.9645;
1062.6000;0.2914;0.9670;
1062.9000;0.2906;0.9620;
1063.2000;0.2914;0.9595;
1063.5000;0.2922;0.9670;
1063.8000;0.2922;0.9695;
1064.1000;0.2922;0.9695;
1064.4000;0.2898;0.9720;
1064.7000;0.2914;0.9769;
1065.0000;0.2906;0.9794;
1065.3000;0.2849;0.9695;
1065.6000;0.2914;0.9720;
1065.9000;0.2906;0.9695;
1066.2000;0.2914;0.9720;
1066.5000;0.2914;0.9720;
1066.8000;0.2816;0.9420;
1067.1000;0.2898;0.9645;
1067.4000;0.2922;0.9670;
1067.7000;0.2849;0.9495;
1068.0000;0.2906;0.9620;
1068.3000;0.2922;0.9645;
1068.6000;0.2930;0.9645;
1068.9000;0.2922;0.9620;
1069.2000;0.2922;0.9720;
1069.5000;0.2914;0.9620;
1069.8000;0.2849;0.9495;
1070.1000;0.2906;0.9595;
1070.4000;0.2922;0.9595;
1070.7000;0.2914;0.9570;
1071.0000;0.2906;0.9670;
1071.3000;0.2922;0.9595;
1071.6000;0.2914;0.9545;
1071.9000;0.2922;0.9545;
1072.2000;0.2906;0.9545;
1072.5000;0.2922;0.9645;
1072.8000;0.2882;0.9470;
1073.1000;0.2906;0.9545;
1073.4000;0.2939;0.9645;
1073.7000;0.2987;0.9695;
1074.0000;0.2914;0.9545;
1074.3000;0.2906;0.9595;
1074.6000;0.2906;0.9645;
1074.9000;0.2906;0.9720;
1075.2000;0.2914;0.9720;
1075.5000;0.2914;0.9720;
1075.8000;0.2890;0.9595;
1076.1000;0.2930;0.9744;
1076.4000;0.2898;0.9520;
1076.7000;0.2898;0.9495;
1077.0000;0.2898;0.9620;
1077.3000;0.2898;0.9545;
1077.6000;0.2914;0.9595;
1077.9000;0.2979;0.9869;
1078.2000;0.2898;0.9720;
1078.5000;0.2890;0.9744;
1078.8000;0.2914;0.9794;
1079.1000;0.2906;0.9744;
1079.4000;0.2808;0.9445;
1079.7000;0.2898;0.9720;
1080.0000;0.2914;0.9869;
1080.3000;0.2898;0.9794;
1080.6000;0.2898;0.9695;
1080.9000;0.2882;0.9645;
1081.2000;0.2906;0.9645;
1081.5000;0.2930;0.9670;
1081.8000;0.2922;0.9620;
1082.1000;0.2890;0.9545;
1082.4000;0.2865;0.9545;
1082.7000;0.2930;0.9670;
1083.0000;0.2873;0.9470;
1083.3000;0.2890;0.9570;
1083.6000;0.2906;0.9595;
1083.9000;0.2841;0.9396;
1084.2000;0.2906;0.9670;
1084.5000;0.2922;0.9670;
1084.8000;0.2979;0.9844;
1085.1000;0.2914;0.9620;
1085.4000;0.2816;0.9396;
1085.7000;0.2906;0.9620;
1086.0000;0.2914;0.9670;
1086.3000;0.2922;0.9570;
1086.6000;0.2922;0.9545;
1086.9000;0.2922;0.9595;
1087.2000;0.2914;0.9744;
1087.5000;0.2898;0.9670;
1087.8000;0.2882;0.9620;
1088.1000;0.2898;0.9720;
1088.4000;0.2898;0.9720;
1088.7000;0.2890;0.9720;
1089.0000;0.2914;0.9844;
1089.3000;0.2882;0.9744;
1089.6000;0.2914;0.9769;
1089.9000;0.2922;0.9744;
1090.2000;0.2906;0.9670;
1090.5000;0.2873;0.9620;
1090.8000;0.2930;0.9720;
1091.1000;0.2914;0.9670;
1091.4000;0.2906;0.9670;
1091.7000;0.2882;0.9495;
1092.0000;0.2914;0.9620;
1092.3000;0.2914;0.9545;
1092.6000;0.2865;0.9396;
1092.9000;0.2947;0.9570;
1093.2000;0.2914;0.9545;
1093.5000;0.2930;0.9620;
1093.8000;0.2882;0.9570;
1094.1000;0.2922;0.9620;
1094.4000;0.2922;0.9695;
1094.7000;0.2922;0.9670;
1095.0000;0.2922;0.9595;
1095.3000;0.2914;0.9520;
1095.6000;0.2833;0.9296;
1095.9000;0.2882;0.9570;
1096.2000;0.2922;0.9670;
1096.5000;0.3004;0.9944;
1096.8000;0.2922;0.9744;
1097.1000;0.2914;0.9794;
1097.4000;0.2906;0.9769;
1097.7000;0.2914;0.9819;
1098.0000;0.2906;0.9794;
1098.3000;0.2898;0.9794;
1098.6000;0.2906;0.9720;
1098.9000;0.2906;0.9695;
1099.2000;0.2914;0.9720;
1099.5000;0.2914;0.9670;
1099.8000;0.2914;0.9695;
1100.1000;0.2873;0.9595;
1100.4000;0.2914;0.9769;
1100.7000;0.2914;0.9869;
1101.0000;0.2914;0.9819;
1101.3000;0.2882;0.9769;
1101.6000;0.2922;0.9819;
1101.9000;0.2882;0.9645;
1102.2000;0.2914;0.9620;
1102.5000;0.2882;0.9470;
1102.8000;0.2906;0.9495;
1103.1000;0.2930;0.9595;
1103.4000;0.2939;0.9670;
1103.7000;0.2914;0.9670;
1104.0000;0.3004;0.9944;
1104.3000;0.2914;0.9720;
1104.6000;0.2914;0.9670;
1104.9000;0.2922;0.9744;
1105.2000;0.2906;0.9769;
1105.5000;0.2914;0.9819;
1105.8000;0.2906;0.9794;
1106.1000;0.2930;0.9869;
1106.4000;0.2906;0.9720;
1106.7000;0.2898;0.9744;
1107.0000;0.2930;0.9744;
1107.3000;0.2898;0.9695;
1107.6000;0.2922;0.9794;
1107.9000;0.2898;0.9720;
1108.2000;0.2906;0.9794;
1108.5000;0.2906;0.9744;
1108.8000;0.2784;0.9445;
1109.1000;0.2898;0.9769;
1109.4000;0.2939;0.9869;
1109.7000;0.2898;0.9819;
1110.0000;0.2890;0.9819;
1110.3000;0.2939;0.9894;
1110.6000;0.2930;0.9844;
1110.9000;0.2898;0.9744;
1111.2000;0.2890;0.9794;
1111.5000;0.2906;0.9794;
1111.8000;0.2914;0.9794;
1112.1000;0.2930;0.9769;
1112.4000;0.2947;0.9819;
1112.7000;0.2930;0.9819;
1113.0000;0.2939;0.9844;
1113.3000;0.2914;0.9744;
1113.6000;0.2930;0.9819;
1113.9000;0.2906;0.9769;
1114.2000;0.2922;0.9794;
1114.5000;0.2930;0.9819;
1114.8000;0.2906;0.9744;
1115.1000;0.2906;0.9744;
1115.4000;0.2898;0.9670;
1115.7000;0.2906;0.9695;
1116.0000;0.2914;0.9794;
1116.3000;0.2906;0.9769;
1116.6000;0.2914;0.9769;
1116.9000;0.2890;0.9670;
1117.2000;0.2906;0.9620;
1117.5000;0.2922;0.9595;
1117.8000;0.2898;0.9520;
1118.1000;0.2906;0.9570;
1118.4000;0.2906;0.9570;
1118.7000;0.2906;0.9645;
1119.0000;0.2922;0.9645;
1119.3000;0.2906;0.9570;
1119.6000;0.2987;0.9720;
1119.9000;0.2898;0.9545;
1120.2000;0.2898;0.9570;
1120.5000;0.2971;0.9744;
1120.8000;0.2914;0.9570;
1121.1000;0.2922;0.9595;
1121.4000;0.2906;0.9620;
1121.7000;0.2906;0.9645;
1122.0000;0.2906;0.9620;
1122.3000;0.2898;0.9545;
1122.6000;0.2882;0.9495;
1122.9000;0.2898;0.9545;
1123.2000;0.2898;0.9470;
1123.5000;0.2906;0.9470;
1123.8000;0.2906;0.9495;
1124.1000;0.2906;0.9495;
1124.4000;0.2906;0.9495;
1124.7000;0.2898;0.9495;
1125.0000;0.2890;0.9445;
1125.3000;0.2906;0.9470;
1125.6000;0.2898;0.9420;
1125.9000;0.2930;0.9545;
1126.2000;0.2906;0.9445;
1126.5000;0.2906;0.9321;
1126.8000;0.2898;0.9271;
1127.1000;0.2914;0.9296;
1127.4000;0.2906;0.9346;
1127.7000;0.2898;0.9445;
1128.0000;0.2890;0.9470;
1128.3000;0.2914;0.9495;
1128.6000;0.2914;0.9495;
1128.9000;0.2898;0.9445;
1129.2000;0.2890;0.9520;
1129.5000;0.2898;0.9520;
1129.8000;0.2906;0.9595;
1130.1000;0.2898;0.9570;
1130.4000;0.2898;0.9520;
1130.7000;0.2906;0.9470;
1131.0000;0.2914;0.9520;
1131.3000;0.2930;0.9520;
1131.6000;0.2906;0.9420;
1131.9000;0.2922;0.9371;
1132.2000;0.2922;0.9445;
1132.5000;0.2914;0.9495;
1132.8000;0.2914;0.9520;
1133.1000;0.2930;0.9520;
1133.4000;0.2906;0.9495;
1133.7000;0.2930;0.9470;
1134.0000;0.2914;0.9445;
1134.3000;0.2914;0.9495;
1134.6000;0.2914;0.9495;
1134.9000;0.2914;0.9520;
1135.2000;0.2914;0.9570;
1135.5000;0.2906;0.9570;
1135.8000;0.2898;0.9545;
1136.1000;0.2906;0.9645;
1136.4000;0.2906;0.9670;
1136.7000;0.2898;0.9520;
1137.0000;0.2922;0.9545;
1137.3000;0.2906;0.9445;
1137.6000;0.2930;0.9495;
1137.9000;0.2906;0.9470;
1138.2000;0.2906;0.9520;
1138.5000;0.2922;0.9570;
1138.8000;0.2930;0.9520;
1139.1000;0.2906;0.9396;
1139.4000;0.2914;0.9296;
1139.7000;0.2914;0.9296;
1140.0000;0.2930;0.9396;
1140.3000;0.2906;0.9445;
1140.6000;0.2906;0.9420;
1140.9000;0.2922;0.9396;
1141.2000;0.2898;0.9296;
1141.5000;0.2922;0.9321;
1141.8000;0.2914;0.9321;
1142.1000;0.2914;0.9296;
1142.4000;0.2914;0.9321;
1142.7000;0.2906;0.9321;
1143.0000;0.2930;0.9371;
1143.3000;0.2906;0.9396;
1143.6000;0.2914;0.9420;
1143.9000;0.2922;0.9371;
1144.2000;0.2914;0.9420;
1144.5000;0.2914;0.9495;
1144.8000;0.2914;0.9495;
1145.1000;0.2914;0.9495;
1145.4000;0.2906;0.9495;
1145.7000;0.2898;0.9470;
1146.0000;0.2906;0.9420;
1146.3000;0.2922;0.9346;
1146.6000;0.2922;0.9371;
1146.9000;0.2914;0.9470;
1147.2000;0.2914;0.9520;
1147.5000;0.2922;0.9545;
1147.8000;0.2922;0.9520;
1148.1000;0.2914;0.9495;
1148.4000;0.2922;0.9495;
1148.7000;0.2922;0.9470;
1149.0000;0.2922;0.9545;
1149.3000;0.2914;0.9520;
1149.6000;0.2906;0.9520;
1149.9000;0.2914;0.9570;
1150.2000;0.2914;0.9620;
1150.5000;0.2906;0.9595;
1150.8000;0.2898;0.9520;
1151.1000;0.2906;0.9545;
1151.4000;0.2930;0.9645;
1151.7000;0.2922;0.9695;
1152.0000;0.2914;0.9695;
1152.3000;0.2914;0.9744;
1152.6000;0.2890;0.9720;
1152.9000;0.2914;0.9670;
1153.2000;0.2914;0.9620;
1153.5000;0.2898;0.9620;
1153.8000;0.2906;0.9595;
1154.1000;0.2906;0.9595;
1154.4000;0.2898;0.9520;
1154.7000;0.2906;0.9545;
1155.0000;0.2914;0.9445;
1155.3000;0.2906;0.9445;
1155.6000;0.2914;0.9445;
1155.9000;0.2898;0.9495;
1156.2000;0.2890;0.9495;
1156.5000;0.2930;0.9545;
1156.8000;0.2906;0.9495;
1157.1000;0.2914;0.9545;
1157.4000;0.2930;0.9620;
1157.7000;0.2922;0.9520;
1158.0000;0.2914;0.9470;
1158.3000;0.2914;0.9495;
1158.6000;0.2906;0.9470;
1158.9000;0.2914;0.9470;
1159.2000;0.2914;0.9470;
1159.5000;0.2906;0.9495;
1159.8000;0.2906;0.9520;
1160.1000;0.2922;0.9545;
1160.4000;0.2922;0.9570;
1160.7000;0.2898;0.9545;
1161.0000;0.2914;0.9620;
1161.3000;0.2922;0.9545;
1161.6000;0.2922;0.9545;
1161.9000;0.2914;0.9595;
1162.2000;0.2914;0.9670;
1162.5000;0.2930;0.9720;
1162.8000;0.2906;0.9645;
1163.1000;0.2906;0.9620;
1163.4000;0.2890;0.9520;
1163.7000;0.2873;0.9445;
1164.0000;0.2914;0.9570;
1164.3000;0.2833;0.9321;
1164.6000;0.2898;0.9545;
1164.9000;0.2914;0.9545;
1165.2000;0.2914;0.9545;
1165.5000;0.2914;0.9470;
1165.8000;0.2914;0.9545;
1166.1000;0.2906;0.9520;
1166.4000;0.2906;0.9545;
1166.7000;0.2939;0.9570;
1167.0000;0.2914;0.9545;
1167.3000;0.2914;0.9470;
1167.6000;0.2922;0.9520;
1167.9000;0.2939;0.9620;
1168.2000;0.2914;0.9545;
1168.5000;0.2914;0.9595;
1168.8000;0.2922;0.9695;
1169.1000;0.2914;0.9769;
1169.4000;0.2930;0.9769;
1169.7000;0.2906;0.9670;
1170.0000;0.2898;0.9620;
1170.3000;0.2898;0.9595;
1170.6000;0.2914;0.9570;
1170.9000;0.2906;0.9620;
1171.2000;0.2906;0.9695;
1171.5000;0.2898;0.9794;
1171.8000;0.2906;0.9769;
1172.1000;0.2906;0.9769;
1172.4000;0.2906;0.9720;
1172.7000;0.2914;0.9670;
1173.0000;0.2922;0.9670;
1173.3000;0.2939;0.9695;
1173.6000;0.2906;0.9570;
1173.9000;0.2914;0.9645;
1174.2000;0.2906;0.9545;
1174.5000;0.2930;0.9595;
1174.8000;0.2898;0.9570;
1175.1000;0.2898;0.9520;
1175.4000;0.2890;0.9520;
1175.7000;0.2922;0.9645;
1176.0000;0.2906;0.9595;
1176.3000;0.2914;0.9645;
1176.6000;0.2906;0.9645;
1176.9000;0.2898;0.9595;
1177.2000;0.2914;0.9570;
1177.5000;0.2906;0.9620;
1177.8000;0.2930;0.9720;
1178.1000;0.2922;0.9744;
1178.4000;0.2906;0.9794;
1178.7000;0.2898;0.9794;
1179.0000;0.2898;0.9819;
1179.3000;0.2914;0.9819;
1179.6000;0.2898;0.9645;
1179.9000;0.2914;0.9645;
1180.2000;0.2800;0.9346;
1180.5000;0.2971;0.9744;
1180.8000;0.2922;0.9595;
1181.1000;0.2906;0.9595;
1181.4000;0.2898;0.9595;
1181.7000;0.2955;0.9744;
1182.0000;0.2906;0.9620;
1182.3000;0.2890;0.9620;
1182.6000;0.2898;0.9645;
1182.9000;0.2914;0.9720;
1183.2000;0.2914;0.9645;
1183.5000;0.2930;0.9645;
1183.8000;0.2947;0.9670;
1184.1000;0.2914;0.9645;
1184.4000;0.2922;0.9695;
1184.7000;0.2857;0.9595;
1185.0000;0.2898;0.9794;
1185.3000;0.2841;0.9595;
1185.6000;0.2898;0.9744;
1185.9000;0.2922;0.9869;
1186.2000;0.2930;0.9844;
1186.5000;0.2914;0.9819;
1186.8000;0.2914;0.9844;
1187.1000;0.2922;0.9769;
1187.4000;0.2914;0.9794;
1187.7000;0.2914;0.9769;
1188.0000;0.2906;0.9695;
1188.3000;0.2922;0.9720;
1188.6000;0.2971;0.9844;
1188.9000;0.2882;0.9645;
1189.2000;0.2922;0.9844;
1189.5000;0.2890;0.9794;
1189.8000;0.2792;0.9520;
1190.1000;0.2906;0.9794;
1190.4000;0.2890;0.9769;
1190.7000;0.2996;1.0019;
1191.0000;0.2890;0.9670;
1191.3000;0.2914;0.9670;
1191.6000;0.2898;0.9595;
1191.9000;0.2898;0.9570;
1192.2000;0.2914;0.9645;
1192.5000;0.2898;0.9595;
1192.8000;0.2914;0.9695;
1193.1000;0.2906;0.9744;
1193.4000;0.2922;0.9769;
1193.7000;0.2882;0.9645;
1194.0000;0.2971;0.9919;
1194.3000;0.2963;0.9944;
1194.6000;0.2922;0.9720;
1194.9000;0.2898;0.9645;
1195.2000;0.2898;0.9620;
1195.5000;0.2898;0.9670;
1195.8000;0.2914;0.9744;
1196.1000;0.2898;0.9695;
1196.4000;0.2914;0.9695;
1196.7000;0.2857;0.9420;
1197.0000;0.2906;0.9670;
1197.3000;0.2898;0.9720;
1197.6000;0.2914;0.9819;
1197.9000;0.2873;0.9720;
1198.2000;0.2906;0.9744;
1198.5000;0.2906;0.9744;
1198.8000;0.2898;0.9695;
1199.1000;0.2906;0.9794;
1199.4000;0.2906;0.9670;
1199.7000;0.2882;0.9670;
1200.0000;0.2914;0.9720;
1200.3000;0.2979;0.9869;
1200.6000;0.2890;0.9595;
1200.9000;0.2849;0.9420;
1201.2000;0.2914;0.9520;
1201.5000;0.2865;0.9371;
1201.8000;0.2882;0.9371;
1202.1000;0.2890;0.9420;
1202.4000;0.2890;0.9445;
1202.7000;0.2873;0.9420;
1203.0000;0.3004;0.9670;
1203.3000;0.2963;0.9545;
1203.6000;0.2922;0.9445;
1203.9000;0.2914;0.9495;
1204.2000;0.2906;0.9495;
1204.5000;0.2865;0.9420;
1204.8000;0.2906;0.9545;
1205.1000;0.2898;0.9545;
1205.4000;0.2979;0.9695;
1205.7000;0.2898;0.9520;
1206.0000;0.2914;0.9545;
1206.3000;0.2922;0.9595;
1206.6000;0.2906;0.9570;
1206.9000;0.2906;0.9495;
1207.2000;0.2914;0.9445;
1207.5000;0.2922;0.9445;
1207.8000;0.2898;0.9346;
1208.1000;0.2898;0.9470;
1208.4000;0.2898;0.9495;
1208.7000;0.2898;0.9470;
1209.0000;0.2906;0.9495;
1209.3000;0.2947;0.9670;
1209.6000;0.2898;0.9570;
1209.9000;0.2882;0.9520;
1210.2000;0.2898;0.9545;
1210.5000;0.2914;0.9570;
1210.8000;0.2898;0.9520;
1211.1000;0.2963;0.9769;
1211.4000;0.2906;0.9695;
1211.7000;0.2898;0.9695;
1212.0000;0.2922;0.9695;
1212.3000;0.2922;0.9720;
1212.6000;0.2808;0.9445;
1212.9000;0.2882;0.9670;
1213.2000;0.2914;0.9695;
1213.5000;0.2914;0.9695;
1213.8000;0.2963;0.9844;
1214.1000;0.2914;0.9869;
1214.4000;0.2898;0.9894;
1214.7000;0.2898;0.9869;
1215.0000;0.2890;0.9894;
1215.3000;0.2890;0.9869;
1215.6000;0.2882;0.9919;
1215.9000;0.2906;0.9944;
1216.2000;0.2898;0.9894;
1216.5000;0.2906;0.9944;
1216.8000;0.2898;0.9919;
1217.1000;0.2898;0.9894;
1217.4000;0.2906;0.9969;
1217.7000;0.2906;0.9969;
1218.0000;0.2914;0.9944;
1218.3000;0.2914;0.9969;
1218.6000;0.2898;0.9994;
1218.9000;0.2955;1.0143;
1219.2000;0.2898;0.9894;
1219.5000;0.2939;1.0019;
1219.8000;0.2882;0.9894;
1220.1000;0.2898;1.0019;
1220.4000;0.2939;1.0168;
1220.7000;0.2890;1.0168;
1221.0000;0.2898;1.0168;
1221.3000;0.2906;1.0118;
1221.6000;0.2898;1.0019;
1221.9000;0.2882;0.9944;
1222.2000;0.2906;0.9969;
1222.5000;0.2898;0.9944;
1222.8000;0.2898;0.9869;
1223.1000;0.2906;0.9819;
1223.4000;0.2906;0.9794;
1223.7000;0.2922;0.9844;
1224.0000;0.2857;0.9769;
1224.3000;0.2890;0.9844;
1224.6000;0.2914;0.9819;
1224.9000;0.2914;0.9844;
1225.2000;0.2914;0.9794;
1225.5000;0.2882;0.9645;
1225.8000;0.2906;0.9670;
1226.1000;0.2914;0.9545;
1226.4000;0.2873;0.9470;
1226.7000;0.2906;0.9595;
1227.0000;0.2906;0.9645;
1227.3000;0.2898;0.9595;
1227.6000;0.2890;0.9520;
1227.9000;0.2898;0.9620;
1228.2000;0.2906;0.9620;
1228.5000;0.2914;0.9595;
1228.8000;0.2906;0.9570;
1229.1000;0.2882;0.9545;
1229.4000;0.2939;0.9744;
1229.7000;0.2890;0.9670;
1230.0000;0.2906;0.9695;
1230.3000;0.2914;0.9769;
1230.6000;0.2882;0.9645;
1230.9000;0.2865;0.9620;
1231.2000;0.2906;0.9695;
1231.5000;0.2914;0.9695;
1231.8000;0.2922;0.9744;
1232.1000;0.2906;0.9720;
1232.4000;0.2914;0.9769;
1232.7000;0.2930;0.9794;
1233.0000;0.2898;0.9794;
1233.3000;0.2898;0.9720;
1233.6000;0.2882;0.9645;
1233.9000;0.2890;0.9645;
1234.2000;0.2914;0.9720;
1234.5000;0.2882;0.9595;
1234.8000;0.2914;0.9695;
1235.1000;0.2906;0.9645;
1235.4000;0.2955;0.9744;
1235.7000;0.2906;0.9495;
1236.0000;0.2898;0.9545;
1236.3000;0.2906;0.9620;
1236.6000;0.2882;0.9645;
1236.9000;0.2898;0.9695;
1237.2000;0.2890;0.9670;
1237.5000;0.2898;0.9595;
1237.8000;0.2890;0.9595;
1238.1000;0.2906;0.9620;
1238.4000;0.2906;0.9769;
1238.7000;0.2930;0.9769;
1239.0000;0.2922;0.9695;
1239.3000;0.2930;0.9769;
1239.6000;0.2906;0.9769;
1239.9000;0.2890;0.9720;
1240.2000;0.2922;0.9720;
1240.5000;0.2906;0.9794;
1240.8000;0.2890;0.9670;
1241.1000;0.2898;0.9595;
1241.4000;0.2914;0.9645;
1241.7000;0.2906;0.9545;
1242.0000;0.2898;0.9595;
1242.3000;0.2898;0.9545;
1242.6000;0.2890;0.9470;
1242.9000;0.2914;0.9470;
1243.2000;0.2898;0.9520;
1243.5000;0.2890;0.9545;
1243.8000;0.2890;0.9595;
1244.1000;0.2890;0.9670;
1244.4000;0.2898;0.9595;
1244.7000;0.2914;0.9570;
1245.0000;0.2898;0.9570;
1245.3000;0.2898;0.9520;
1245.6000;0.2922;0.9570;
1245.9000;0.2898;0.9420;
1246.2000;0.2906;0.9420;
1246.5000;0.2898;0.9495;
1246.8000;0.2898;0.9620;
1247.1000;0.2914;0.9670;
1247.4000;0.2898;0.9670;
1247.7000;0.2914;0.9645;
1248.0000;0.2914;0.9744;
1248.3000;0.2898;0.9620;
1248.6000;0.2906;0.9595;
1248.9000;0.2914;0.9595;
1249.2000;0.2930;0.9645;
1249.5000;0.2922;0.9645;
1249.8000;0.2914;0.9620;
1250.1000;0.2882;0.9470;
1250.4000;0.2906;0.9570;
1250.7000;0.2914;0.9645;
1251.0000;0.2906;0.9720;
1251.3000;0.2906;0.9769;
1251.6000;0.2898;0.9720;
1251.9000;0.2906;0.9744;
1252.2000;0.2898;0.9794;
1252.5000;0.2906;0.9794;
1252.8000;0.2906;0.9794;
1253.1000;0.2914;0.9794;
1253.4000;0.2914;0.9869;
1253.7000;0.2890;0.9844;
1254.0000;0.2898;0.9844;
1254.3000;0.2898;0.9695;
1254.6000;0.2906;0.9595;
1254.9000;0.2890;0.9570;
1255.2000;0.2898;0.9595;
1255.5000;0.2898;0.9570;
1255.8000;0.2898;0.9595;
1256.1000;0.2890;0.9595;
1256.4000;0.2906;0.9595;
1256.7000;0.2906;0.9570;
1257.0000;0.2906;0.9620;
1257.3000;0.2873;0.9645;
1257.6000;0.2898;0.9670;
1257.9000;0.2898;0.9595;
1258.2000;0.2906;0.9645;
1258.5000;0.2906;0.9620;
1258.8000;0.2906;0.9545;
1259.1000;0.2898;0.9520;
1259.4000;0.2922;0.9595;
1259.7000;0.2906;0.9545;
1260.0000;0.2906;0.9670;
1260.3000;0.2906;0.9620;
1260.6000;0.2906;0.9695;
1260.9000;0.2906;0.9744;
1261.2000;0.2898;0.9769;
1261.5000;0.2914;0.9794;
1261.8000;0.2906;0.9894;
1262.1000;0.2898;0.9894;
1262.4000;0.2890;0.9869;
1262.7000;0.2898;0.9844;
1263.0000;0.2906;0.9794;
1263.3000;0.2906;0.9794;
1263.6000;0.2914;0.9794;
1263.9000;0.2906;0.9769;
1264.2000;0.2922;0.9744;
1264.5000;0.2930;0.9695;
1264.8000;0.2914;0.9720;
1265.1000;0.2906;0.9670;
1265.4000;0.2922;0.9720;
1265.7000;0.2906;0.9720;
1266.0000;0.2914;0.9695;
1266.3000;0.2906;0.9769;
1266.6000;0.2906;0.9844;
1266.9000;0.2898;0.9869;
1267.2000;0.2914;0.9794;
1267.5000;0.2906;0.9769;
1267.8000;0.2898;0.9794;
1268.1000;0.2906;0.9844;
1268.4000;0.2898;0.9844;
1268.7000;0.2914;0.9844;
1269.0000;0.2890;0.9720;
1269.3000;0.2906;0.9695;
1269.6000;0.2906;0.9744;
1269.9000;0.2906;0.9720;
1270.2000;0.2906;0.9670;
1270.5000;0.2882;0.9645;
1270.8000;0.2914;0.9695;
1271.1000;0.2914;0.9819;
1271.4000;0.2922;0.9819;
1271.7000;0.2914;0.9794;
1272.0000;0.2898;0.9744;
1272.3000;0.2914;0.9844;
1272.6000;0.2922;0.9794;
1272.9000;0.2914;0.9844;
1273.2000;0.2939;0.9944;
1273.5000;0.2922;0.9794;
1273.8000;0.2906;0.9720;
1274.1000;0.2914;0.9645;
1274.4000;0.2922;0.9645;
1274.7000;0.2930;0.9794;
1275.0000;0.2930;0.9844;
1275.3000;0.2906;0.9869;
1275.6000;0.2906;0.9869;
1275.9000;0.2914;0.9894;
1276.2000;0.2906;0.9869;
1276.5000;0.2914;0.9794;
1276.8000;0.2898;0.9720;
1277.1000;0.2873;0.9645;
1277.4000;0.2906;0.9794;
1277.7000;0.2906;0.9794;
1278.0000;0.2906;0.9720;
1278.3000;0.2906;0.9794;
1278.6000;0.2914;0.9819;
1278.9000;0.2906;0.9794;
1279.2000;0.2898;0.9744;
1279.5000;0.2914;0.9819;
1279.8000;0.2922;0.9919;
1280.1000;0.2906;0.9844;
1280.4000;0.2930;0.9869;
1280.7000;0.2930;0.9919;
1281.0000;0.2890;0.9894;
1281.3000;0.2914;0.9969;
1281.6000;0.2906;0.9769;
1281.9000;0.2914;0.9819;
1282.2000;0.2898;0.9844;
1282.5000;0.2906;0.9794;
1282.8000;0.2914;0.9794;
1283.1000;0.2906;0.9794;
1283.4000;0.2914;0.9819;
1283.7000;0.2890;0.9844;
1284.0000;0.2906;0.9944;
1284.3000;0.2898;0.9994;
1284.6000;0.2898;0.9869;
1284.9000;0.2914;0.9944;
1285.2000;0.2898;0.9944;
1285.5000;0.2922;0.9994;
1285.8000;0.2898;0.9869;
1286.1000;0.2890;0.9894;
1286.4000;0.2906;0.9969;
1286.7000;0.2898;0.9969;
1287.0000;0.2898;0.9869;
1287.3000;0.2906;0.9869;
1287.6000;0.2898;0.9869;
1287.9000;0.2922;0.9944;
1288.2000;0.2898;0.9944;
1288.5000;0.2816;0.9695;
1288.8000;0.2906;1.0019;
1289.1000;0.2914;1.0019;
1289.4000;0.2898;0.9994;
1289.7000;0.2930;0.9994;
1290.0000;0.2898;0.9919;
1290.3000;0.2914;0.9894;
1290.6000;0.2914;0.9794;
1290.9000;0.2906;0.9819;
1291.2000;0.2914;0.9720;
1291.5000;0.2914;0.9769;
1291.8000;0.2914;0.9844;
1292.1000;0.2906;0.9869;
1292.4000;0.2914;0.9819;
1292.7000;0.2890;0.9844;
1293.0000;0.2914;0.9919;
1293.3000;0.2898;0.9919;
1293.6000;0.2914;0.9969;
1293.9000;0.2963;1.0143;
1294.2000;0.2906;1.0044;
1294.5000;0.2906;1.0044;
1294.8000;0.2906;1.0019;
1295.1000;0.2898;0.9994;
1295.4000;0.2906;0.9944;
1295.7000;0.2906;0.9944;
1296.0000;0.2922;1.0019;
1296.3000;0.2914;1.0019;
1296.6000;0.2906;0.9994;
1296.9000;0.2906;0.9969;
1297.2000;0.2890;0.9994;
1297.5000;0.2914;1.0093;
1297.8000;0.2890;0.9994;
1298.1000;0.2906;1.0019;
1298.4000;0.2898;0.9969;
1298.7000;0.2906;0.9894;
1299.0000;0.2898;0.9794;
1299.3000;0.2898;0.9744;
1299.6000;0.2906;0.9769;
1299.9000;0.2906;0.9769;
1300.2000;0.2922;0.9794;
1300.5000;0.2808;0.9520;
1300.8000;0.2882;0.9794;
1301.1000;0.2906;0.9819;
1301.4000;0.2922;0.9869;
1301.7000;0.2890;0.9794;
1302.0000;0.2914;0.9844;
1302.3000;0.2890;0.9844;
1302.6000;0.2914;0.9919;
1302.9000;0.2898;0.9919;
1303.2000;0.2890;0.9969;
1303.5000;0.2947;1.0044;
1303.8000;0.2906;0.9919;
1304.1000;0.2914;0.9944;
1304.4000;0.2906;0.9969;
1304.7000;0.2922;0.9969;
1305.0000;0.2906;0.9969;
1305.3000;0.2914;0.9969;
1305.6000;0.2898;0.9944;
1305.9000;0.2898;0.9869;
1306.2000;0.2914;0.9944;
1306.5000;0.2906;0.9969;
1306.8000;0.2914;0.9994;
1307.1000;0.2898;0.9969;
1307.4000;0.2890;0.9919;
1307.7000;0.2914;0.9969;
1308.0000;0.2939;0.9944;
1308.3000;0.2890;0.9969;
1308.6000;0.2906;0.9969;
1308.9000;0.2816;0.9769;
1309.2000;0.2930;1.0044;
1309.5000;0.2890;0.9919;
1309.8000;0.2890;0.9994;
1310.1000;0.2898;1.0044;
1310.4000;0.2906;1.0044;
1310.7000;0.2906;1.0044;
1311.0000;0.2906;0.9969;
1311.3000;0.2898;0.9994;
1311.6000;0.2922;1.0093;
1311.9000;0.2898;1.0019;
1312.2000;0.2898;0.9969;
1312.5000;0.2873;0.9794;
1312.8000;0.2906;0.9844;
1313.1000;0.2906;0.9819;
1313.4000;0.2914;0.9844;
1313.7000;0.2914;0.9894;
1314.0000;0.2914;0.9844;
1314.3000;0.2914;0.9844;
1314.6000;0.2914;0.9894;
1314.9000;0.2906;0.9794;
1315.2000;0.2898;0.9769;
1315.5000;0.2914;0.9919;
1315.8000;0.2898;0.9819;
1316.1000;0.2906;0.9819;
1316.4000;0.2882;0.9744;
1316.7000;0.2873;0.9769;
1317.0000;0.2898;0.9769;
1317.3000;0.2906;0.9819;
1317.6000;0.2906;0.9844;
1317.9000;0.2890;0.9894;
1318.2000;0.2906;0.9944;
1318.5000;0.2873;0.9919;
1318.8000;0.2922;1.0068;
1319.1000;0.2906;0.9944;
1319.4000;0.2898;0.9844;
1319.7000;0.2898;0.9819;
1320.0000;0.2922;0.9844;
1320.3000;0.2792;0.9520;
1320.6000;0.2890;0.9769;
1320.9000;0.2996;1.0068;
1321.2000;0.2890;0.9819;
1321.5000;0.2898;0.9794;
1321.8000;0.2914;0.9869;
1322.1000;0.2906;0.9819;
1322.4000;0.2906;0.9844;
1322.7000;0.2906;0.9844;
1323.0000;0.2922;0.9844;
1323.3000;0.2906;0.9819;
1323.6000;0.2882;0.9769;
1323.9000;0.2882;0.9670;
1324.2000;0.2906;0.9695;
1324.5000;0.2898;0.9769;
1324.8000;0.2898;0.9769;
1325.1000;0.2898;0.9744;
1325.4000;0.2890;0.9769;
1325.7000;0.2906;0.9794;
1326.0000;0.2906;0.9819;
1326.3000;0.2939;0.9994;
1326.6000;0.2906;0.9919;
1326.9000;0.2906;0.9894;
1327.2000;0.2890;0.9819;
1327.5000;0.2898;0.9844;
1327.8000;0.2914;0.9944;
1328.1000;0.2906;0.9944;
1328.4000;0.2914;0.9969;
1328.7000;0.2922;1.0019;
1329.0000;0.2890;0.9969;
1329.3000;0.2971;1.0168;
1329.6000;0.2873;0.9869;
1329.9000;0.2906;0.9969;
1330.2000;0.2906;1.0019;
1330.5000;0.2922;0.9969;
1330.8000;0.2906;0.9919;
1331.1000;0.2922;0.9969;
1331.4000;0.2906;0.9994;
1331.7000;0.2906;0.9969;
1332.0000;0.2914;0.9994;
1332.3000;0.2898;1.0019;
1332.6000;0.2890;1.0019;
1332.9000;0.2906;0.9944;
1333.2000;0.2914;0.9969;
1333.5000;0.2922;0.9919;
1333.8000;0.2914;0.9944;
1334.1000;0.2914;0.9844;
1334.4000;0.2914;0.9794;
1334.7000;0.2890;0.9744;
1335.0000;0.2906;0.9869;
1335.3000;0.2922;1.0019;
1335.6000;0.2898;0.9969;
1335.9000;0.2890;0.9969;
1336.2000;0.2792;0.9869;
1336.5000;0.2873;0.9994;
1336.8000;0.2947;1.0143;
1337.1000;0.2898;1.0019;
1337.4000;0.2898;0.9969;
1337.7000;0.2914;0.9994;
1338.0000;0.2906;0.9994;
1338.3000;0.2890;0.9894;
1338.6000;0.2914;0.9994;
1338.9000;0.2865;0.9894;
1339.2000;0.2898;0.9994;
1339.5000;0.2922;1.0044;
1339.8000;0.2914;0.9919;
1340.1000;0.2906;0.9894;
1340.4000;0.2914;0.9894;
1340.7000;0.2922;0.9969;
1341.0000;0.2890;0.9919;
1341.3000;0.2922;1.0019;
1341.6000;0.2898;0.9944;
1341.9000;0.2906;0.9994;
1342.2000;0.2914;1.0044;
1342.5000;0.2947;1.0143;
1342.8000;0.2873;0.9994;
1343.1000;0.2914;1.0068;
1343.4000;0.2857;0.9919;
1343.7000;0.2914;1.0019;
1344.0000;0.2898;0.9994;
1344.3000;0.2890;0.9944;
1344.6000;0.2906;0.9869;
1344.9000;0.2906;0.9894;
1345.2000;0.2906;0.9819;
1345.5000;0.2906;0.9794;
1345.8000;0.2865;0.9670;
1346.1000;0.2922;0.9794;
1346.4000;0.2898;0.9869;
1346.7000;0.2906;0.9944;
1347.0000;0.2914;0.9969;
1347.3000;0.2914;1.0068;
1347.6000;0.2865;1.0044;
1347.9000;0.2906;1.0019;
1348.2000;0.2922;0.9969;
1348.5000;0.2922;0.9994;
1348.8000;0.2898;0.9969;
1349.1000;0.2906;1.0093;
1349.4000;0.2914;0.9969;
1349.7000;0.2906;0.9944;
1350.0000;0.2914;0.9969;
1350.3000;0.2914;0.9869;
1350.6000;0.2849;0.9720;
1350.9000;0.2898;0.9769;
1351.2000;0.2898;0.9769;
1351.5000;0.2971;0.9944;
1351.8000;0.2914;0.9819;
1352.1000;0.2906;0.9819;
1352.4000;0.2906;0.9894;
1352.7000;0.2930;0.9944;
1353.0000;0.2890;0.9944;
1353.3000;0.2922;1.0044;
1353.6000;0.2922;1.0019;
1353.9000;0.2882;0.9844;
1354.2000;0.2898;0.9844;
1354.5000;0.2898;0.9894;
1354.8000;0.2914;0.9994;
1355.1000;0.2914;1.0019;
1355.4000;0.2906;0.9944;
1355.7000;0.2906;0.9919;
1356.0000;0.2906;0.9944;
1356.3000;0.2882;0.9944;
1356.6000;0.2816;0.9744;
1356.9000;0.2898;0.9944;
1357.2000;0.2906;0.9869;
1357.5000;0.2906;0.9769;
1357.8000;0.2906;0.9744;
1358.1000;0.2873;0.9645;
1358.4000;0.2906;0.9819;
1358.7000;0.2914;0.9844;
1359.0000;0.2898;0.9844;
1359.3000;0.2898;0.9869;
1359.6000;0.2808;0.9670;
1359.9000;0.2898;0.9919;
1360.2000;0.2898;1.0044;
1360.5000;0.2906;1.0044;
1360.8000;0.2882;0.9894;
1361.1000;0.2922;0.9969;
1361.4000;0.2882;0.9894;
1361.7000;0.2898;0.9969;
1362.0000;0.2873;0.9969;
1362.3000;0.2898;0.9994;
1362.6000;0.2906;0.9944;
1362.9000;0.2914;0.9944;
1363.2000;0.2890;0.9869;
1363.5000;0.2939;0.9994;
1363.8000;0.2906;0.9944;
1364.1000;0.2906;0.9994;
1364.4000;0.2898;0.9944;
1364.7000;0.2890;0.9969;
1365.0000;0.2922;1.0093;
1365.3000;0.2898;0.9944;
1365.6000;0.2898;0.9894;
1365.9000;0.2914;0.9919;
1366.2000;0.2914;0.9819;
1366.5000;0.2865;0.9695;
1366.8000;0.2849;0.9645;
1367.1000;0.2841;0.9645;
1367.4000;0.2906;0.9894;
1367.7000;0.2947;1.0044;
1368.0000;0.2898;0.9894;
1368.3000;0.2898;0.9919;
1368.6000;0.2898;0.9869;
1368.9000;0.2906;0.9869;
1369.2000;0.2865;0.9844;
1369.5000;0.2922;0.9944;
1369.8000;0.2922;0.9994;
1370.1000;0.2906;0.9944;
1370.4000;0.2898;0.9894;
1370.7000;0.2898;0.9894;
1371.0000;0.2890;0.9819;
1371.3000;0.2914;0.9944;
1371.6000;0.2922;0.9969;
1371.9000;0.2898;1.0019;
1372.2000;0.2906;0.9969;
1372.5000;0.2882;0.9919;
1372.8000;0.2914;1.0044;
1373.1000;0.2922;1.0044;
1373.4000;0.2906;0.9969;
1373.7000;0.2906;0.9969;
1374.0000;0.2898;0.9919;
1374.3000;0.2906;0.9944;
1374.6000;0.2914;0.9944;
1374.9000;0.2906;0.9894;
1375.2000;0.2906;0.9794;
1375.5000;0.2857;0.9670;
1375.8000;0.2898;0.9769;
1376.1000;0.2914;0.9819;
1376.4000;0.2922;0.9794;
1376.7000;0.2906;0.9769;
1377.0000;0.2890;0.9794;
1377.3000;0.2906;0.9794;
1377.6000;0.2922;0.9819;
1377.9000;0.2906;0.9720;
1378.2000;0.2898;0.9769;
1378.5000;0.2906;0.9769;
1378.8000;0.2906;0.9769;
1379.1000;0.2914;0.9844;
1379.4000;0.2906;0.9869;
1379.7000;0.2906;0.9919;
1380.0000;0.2906;0.9944;
1380.3000;0.2914;0.9894;
1380.6000;0.2906;0.9969;
1380.9000;0.2890;0.9969;
1381.2000;0.2898;0.9919;
1381.5000;0.2906;0.9944;
1381.8000;0.2914;0.9994;
1382.1000;0.2906;0.9944;
1382.4000;0.2890;0.9919;
1382.7000;0.2882;0.9869;
1383.0000;0.2890;0.9919;
1383.3000;0.2890;0.9919;
1383.6000;0.2971;1.0093;
1383.9000;0.2922;0.9844;
1384.2000;0.2914;0.9869;
1384.5000;0.2898;0.9819;
1384.8000;0.2882;0.9744;
1385.1000;0.2898;0.9720;
1385.4000;0.2914;0.9744;
1385.7000;0.2890;0.9720;
1386.0000;0.2890;0.9645;
1386.3000;0.2906;0.9769;
1386.6000;0.2898;0.9794;
1386.9000;0.2873;0.9769;
1387.2000;0.2898;0.9744;
1387.5000;0.2898;0.9695;
1387.8000;0.2914;0.9695;
1388.1000;0.2906;0.9744;
1388.4000;0.2898;0.9819;
1388.7000;0.2906;0.9919;
1389.0000;0.2914;0.9994;
1389.3000;0.2922;0.9994;
1389.6000;0.2890;0.9844;
1389.9000;0.2882;0.9819;
1390.2000;0.2890;0.9844;
1390.5000;0.2947;1.0044;
1390.8000;0.2882;0.9919;
1391.1000;0.2922;1.0093;
1391.4000;0.2906;1.0093;
1391.7000;0.2906;1.0044;
1392.0000;0.2906;0.9994;
1392.3000;0.2906;0.9944;
1392.6000;0.2906;0.9944;
1392.9000;0.2882;0.9869;
1393.2000;0.2914;1.0068;
1393.5000;0.2906;1.0019;
1393.8000;0.2906;1.0044;
1394.1000;0.2898;1.0019;
1394.4000;0.2906;0.9969;
1394.7000;0.2914;0.9944;
1395.0000;0.2898;0.9894;
1395.3000;0.2906;0.9944;
1395.6000;0.2882;0.9944;
1395.9000;0.2898;0.9919;
1396.2000;0.2906;0.9919;
1396.5000;0.2898;0.9819;
1396.8000;0.2898;0.9869;
1397.1000;0.2922;0.9944;
1397.4000;0.2882;0.9894;
1397.7000;0.2906;0.9869;
1398.0000;0.2914;0.9844;
1398.3000;0.2906;0.9819;
1398.6000;0.2906;0.9894;
1398.9000;0.2971;1.0068;
1399.2000;0.2833;0.9570;
1399.5000;0.2890;0.9695;
1399.8000;0.2906;0.9670;
