time/ms;Fluo/V;P700 deltaI/I x10³;
-199.8000;0.6805;-5.5405;
-199.5000;0.6789;-5.5405;
-199.2000;0.6821;-5.5327;
-198.9000;0.6805;-5.5353;
-198.6000;0.6797;-5.5405;
-198.3000;0.6789;-5.5353;
-198.0000;0.6805;-5.5198;
-197.7000;0.6805;-5.5327;
-197.4000;0.6789;-5.5379;
-197.1000;0.6797;-5.5379;
-196.8000;0.6789;-5.5327;
-196.5000;0.6813;-5.5275;
-196.2000;0.6781;-5.5379;
-195.9000;0.6789;-5.5353;
-195.6000;0.6789;-5.5405;
-195.3000;0.6797;-5.5535;
-195.0000;0.6781;-5.5509;
-194.7000;0.6789;-5.5457;
-194.4000;0.6772;-5.5509;
-194.1000;0.6789;-5.5457;
-193.8000;0.6781;-5.5509;
-193.5000;0.6789;-5.5535;
-193.2000;0.6805;-5.5509;
-192.9000;0.6781;-5.5612;
-192.6000;0.6797;-5.5560;
-192.3000;0.6797;-5.5586;
-192.0000;0.6797;-5.5535;
-191.7000;0.6797;-5.5509;
-191.4000;0.6772;-5.5457;
-191.1000;0.6772;-5.5483;
-190.8000;0.6772;-5.5483;
-190.5000;0.6764;-5.5509;
-190.2000;0.6781;-5.5483;
-189.9000;0.6813;-5.5405;
-189.6000;0.6797;-5.5353;
-189.3000;0.6797;-5.5275;
-189.0000;0.6797;-5.5301;
-188.7000;0.6797;-5.5327;
-188.4000;0.6732;-5.5509;
-188.1000;0.6797;-5.5483;
-187.8000;0.6813;-5.5431;
-187.5000;0.6813;-5.5509;
-187.2000;0.6805;-5.5535;
-186.9000;0.6813;-5.5509;
-186.6000;0.6805;-5.5535;
-186.3000;0.6805;-5.5509;
-186.0000;0.6821;-5.5535;
-185.7000;0.6748;-5.5768;
-185.4000;0.6805;-5.5586;
-185.1000;0.6813;-5.5560;
-184.8000;0.6838;-5.5431;
-184.5000;0.6756;-5.5560;
-184.2000;0.6797;-5.5586;
-183.9000;0.6805;-5.5535;
-183.6000;0.6821;-5.5586;
-183.3000;0.6781;-5.5586;
-183.0000;0.6805;-5.5457;
-182.7000;0.6797;-5.5457;
-182.4000;0.6797;-5.5560;
-182.1000;0.6797;-5.5457;
-181.8000;0.6797;-5.5483;
-181.5000;0.6821;-5.5483;
-181.2000;0.6805;-5.5509;
-180.9000;0.6781;-5.5638;
-180.6000;0.6797;-5.5586;
-180.3000;0.6805;-5.5560;
-180.0000;0.6805;-5.5586;
-179.7000;0.6756;-5.5586;
-179.4000;0.6805;-5.5509;
-179.1000;0.6813;-5.5483;
-178.8000;0.6789;-5.5457;
-178.5000;0.6789;-5.5509;
-178.2000;0.6781;-5.5560;
-177.9000;0.6772;-5.5560;
-177.6000;0.6838;-5.5405;
-177.3000;0.6797;-5.5509;
-177.0000;0.6797;-5.5483;
-176.7000;0.6797;-5.5560;
-176.4000;0.6797;-5.5612;
-176.1000;0.6748;-5.5742;
-175.8000;0.6789;-5.5586;
-175.5000;0.6805;-5.5560;
-175.2000;0.6789;-5.5509;
-174.9000;0.6797;-5.5431;
-174.6000;0.6805;-5.5405;
-174.3000;0.6805;-5.5431;
-174.0000;0.6789;-5.5483;
-173.7000;0.6789;-5.5612;
-173.4000;0.6797;-5.5612;
-173.1000;0.6813;-5.5535;
-172.8000;0.6781;-5.5431;
-172.5000;0.6781;-5.5405;
-172.2000;0.6789;-5.5405;
-171.9000;0.6870;-5.5250;
-171.6000;0.6789;-5.5405;
-171.3000;0.6805;-5.5327;
-171.0000;0.6805;-5.5250;
-170.7000;0.6821;-5.5120;
-170.4000;0.6813;-5.5094;
-170.1000;0.6805;-5.5120;
-169.8000;0.6805;-5.5094;
-169.5000;0.6781;-5.5250;
-169.2000;0.6756;-5.5405;
-168.9000;0.6805;-5.5327;
-168.6000;0.6805;-5.5224;
-168.3000;0.6789;-5.5379;
-168.0000;0.6797;-5.5353;
-167.7000;0.6797;-5.5327;
-167.4000;0.6781;-5.5405;
-167.1000;0.6821;-5.5379;
-166.8000;0.6805;-5.5483;
-166.5000;0.6748;-5.5560;
-166.2000;0.6797;-5.5483;
-165.9000;0.6805;-5.5509;
-165.6000;0.6862;-5.5379;
-165.3000;0.6789;-5.5457;
-165.0000;0.6789;-5.5431;
-164.7000;0.6805;-5.5353;
-164.4000;0.6756;-5.5457;
-164.1000;0.6781;-5.5405;
-163.8000;0.6797;-5.5379;
-163.5000;0.6797;-5.5353;
-163.2000;0.6789;-5.5379;
-162.9000;0.6781;-5.5405;
-162.6000;0.6805;-5.5275;
-162.3000;0.6797;-5.5224;
-162.0000;0.6797;-5.5224;
-161.7000;0.6781;-5.5275;
-161.4000;0.6805;-5.5224;
-161.1000;0.6821;-5.5172;
-160.8000;0.6797;-5.5146;
-160.5000;0.6789;-5.5094;
-160.2000;0.6797;-5.5172;
-159.9000;0.6805;-5.5224;
-159.6000;0.6797;-5.5327;
-159.3000;0.6781;-5.5379;
-159.0000;0.6797;-5.5379;
-158.7000;0.6789;-5.5353;
-158.4000;0.6797;-5.5353;
-158.1000;0.6789;-5.5327;
-157.8000;0.6821;-5.5275;
-157.5000;0.6805;-5.5198;
-157.2000;0.6797;-5.5275;
-156.9000;0.6805;-5.5353;
-156.6000;0.6789;-5.5405;
-156.3000;0.6797;-5.5405;
-156.0000;0.6789;-5.5405;
-155.7000;0.6805;-5.5431;
-155.4000;0.6805;-5.5353;
-155.1000;0.6781;-5.5353;
-154.8000;0.6781;-5.5275;
-154.5000;0.6813;-5.5198;
-154.2000;0.6772;-5.5327;
-153.9000;0.6781;-5.5353;
-153.6000;0.6789;-5.5405;
-153.3000;0.6789;-5.5353;
-153.0000;0.6797;-5.5301;
-152.7000;0.6781;-5.5327;
-152.4000;0.6789;-5.5301;
-152.1000;0.6813;-5.5250;
-151.8000;0.6781;-5.5301;
-151.5000;0.6781;-5.5275;
-151.2000;0.6797;-5.5198;
-150.9000;0.6789;-5.5198;
-150.6000;0.6716;-5.5405;
-150.3000;0.6797;-5.5275;
-150.0000;0.6764;-5.5353;
-149.7000;0.6797;-5.5379;
-149.4000;0.6789;-5.5405;
-149.1000;0.6789;-5.5483;
-148.8000;0.6797;-5.5509;
-148.5000;0.6821;-5.5405;
-148.2000;0.6797;-5.5379;
-147.9000;0.6781;-5.5483;
-147.6000;0.6789;-5.5353;
-147.3000;0.6789;-5.5405;
-147.0000;0.6797;-5.5405;
-146.7000;0.6805;-5.5327;
-146.4000;0.6797;-5.5327;
-146.1000;0.6805;-5.5301;
-145.8000;0.6789;-5.5250;
-145.5000;0.6813;-5.5198;
-145.2000;0.6789;-5.5224;
-144.9000;0.6789;-5.5301;
-144.6000;0.6789;-5.5327;
-144.3000;0.6821;-5.5275;
-144.0000;0.6789;-5.5250;
-143.7000;0.6772;-5.5379;
-143.4000;0.6797;-5.5353;
-143.1000;0.6789;-5.5379;
-142.8000;0.6781;-5.5327;
-142.5000;0.6772;-5.5353;
-142.2000;0.6772;-5.5457;
-141.9000;0.6797;-5.5379;
-141.6000;0.6821;-5.5431;
-141.3000;0.6789;-5.5509;
-141.0000;0.6789;-5.5431;
-140.7000;0.6789;-5.5431;
-140.4000;0.6797;-5.5405;
-140.1000;0.6797;-5.5483;
-139.8000;0.6789;-5.5457;
-139.5000;0.6797;-5.5405;
-139.2000;0.6813;-5.5483;
-138.9000;0.6789;-5.5535;
-138.6000;0.6805;-5.5483;
-138.3000;0.6805;-5.5457;
-138.0000;0.6805;-5.5509;
-137.7000;0.6805;-5.5431;
-137.4000;0.6789;-5.5379;
-137.1000;0.6789;-5.5405;
-136.8000;0.6813;-5.5457;
-136.5000;0.6813;-5.5535;
-136.2000;0.6797;-5.5509;
-135.9000;0.6732;-5.5586;
-135.6000;0.6732;-5.5560;
-135.3000;0.6821;-5.5379;
-135.0000;0.6821;-5.5431;
-134.7000;0.6813;-5.5535;
-134.4000;0.6805;-5.5612;
-134.1000;0.6789;-5.5535;
-133.8000;0.6789;-5.5483;
-133.5000;0.6781;-5.5483;
-133.2000;0.6789;-5.5483;
-132.9000;0.6789;-5.5431;
-132.6000;0.6797;-5.5405;
-132.3000;0.6805;-5.5353;
-132.0000;0.6829;-5.5327;
-131.7000;0.6813;-5.5327;
-131.4000;0.6756;-5.5353;
-131.1000;0.6821;-5.5250;
-130.8000;0.6789;-5.5327;
-130.5000;0.6789;-5.5301;
-130.2000;0.6797;-5.5301;
-129.9000;0.6805;-5.5250;
-129.6000;0.6756;-5.5327;
-129.3000;0.6797;-5.5275;
-129.0000;0.6870;-5.5198;
-128.7000;0.6756;-5.5509;
-128.4000;0.6797;-5.5431;
-128.1000;0.6781;-5.5405;
-127.8000;0.6797;-5.5405;
-127.5000;0.6813;-5.5353;
-127.2000;0.6764;-5.5483;
-126.9000;0.6805;-5.5327;
-126.6000;0.6789;-5.5353;
-126.3000;0.6829;-5.5275;
-126.0000;0.6789;-5.5353;
-125.7000;0.6797;-5.5353;
-125.4000;0.6813;-5.5301;
-125.1000;0.6797;-5.5327;
-124.8000;0.6789;-5.5353;
-124.5000;0.6781;-5.5431;
-124.2000;0.6789;-5.5405;
-123.9000;0.6789;-5.5431;
-123.6000;0.6797;-5.5379;
-123.3000;0.6789;-5.5353;
-123.0000;0.6797;-5.5405;
-122.7000;0.6789;-5.5509;
-122.4000;0.6732;-5.5638;
-122.1000;0.6789;-5.5535;
-121.8000;0.6772;-5.5586;
-121.5000;0.6854;-5.5353;
-121.2000;0.6805;-5.5457;
-120.9000;0.6797;-5.5405;
-120.6000;0.6797;-5.5509;
-120.3000;0.6813;-5.5379;
-120.0000;0.6781;-5.5379;
-119.7000;0.6821;-5.5250;
-119.4000;0.6797;-5.5353;
-119.1000;0.6813;-5.5327;
-118.8000;0.6797;-5.5301;
-118.5000;0.6789;-5.5172;
-118.2000;0.6789;-5.5275;
-117.9000;0.6805;-5.5327;
-117.6000;0.6797;-5.5379;
-117.3000;0.6797;-5.5431;
-117.0000;0.6797;-5.5353;
-116.7000;0.6781;-5.5353;
-116.4000;0.6797;-5.5431;
-116.1000;0.6797;-5.5405;
-115.8000;0.6789;-5.5431;
-115.5000;0.6772;-5.5457;
-115.2000;0.6772;-5.5483;
-114.9000;0.6781;-5.5483;
-114.6000;0.6748;-5.5560;
-114.3000;0.6805;-5.5379;
-114.0000;0.6797;-5.5275;
-113.7000;0.6813;-5.5146;
-113.4000;0.6797;-5.5275;
-113.1000;0.6797;-5.5301;
-112.8000;0.6805;-5.5250;
-112.5000;0.6772;-5.5353;
-112.2000;0.6797;-5.5405;
-111.9000;0.6789;-5.5301;
-111.6000;0.6797;-5.5301;
-111.3000;0.6805;-5.5301;
-111.0000;0.6813;-5.5250;
-110.7000;0.6789;-5.5250;
-110.4000;0.6813;-5.5275;
-110.1000;0.6805;-5.5250;
-109.8000;0.6797;-5.5353;
-109.5000;0.6781;-5.5431;
-109.2000;0.6821;-5.5353;
-108.9000;0.6805;-5.5353;
-108.6000;0.6805;-5.5301;
-108.3000;0.6821;-5.5327;
-108.0000;0.6797;-5.5379;
-107.7000;0.6789;-5.5457;
-107.4000;0.6732;-5.5535;
-107.1000;0.6805;-5.5353;
-106.8000;0.6789;-5.5431;
-106.5000;0.6781;-5.5457;
-106.2000;0.6789;-5.5353;
-105.9000;0.6772;-5.5483;
-105.6000;0.6772;-5.5457;
-105.3000;0.6772;-5.5457;
-105.0000;0.6797;-5.5483;
-104.7000;0.6805;-5.5431;
-104.4000;0.6772;-5.5509;
-104.1000;0.6675;-5.5716;
-103.8000;0.6756;-5.5638;
-103.5000;0.6846;-5.5301;
-103.2000;0.6805;-5.5327;
-102.9000;0.6748;-5.5483;
-102.6000;0.6756;-5.5431;
-102.3000;0.6805;-5.5301;
-102.0000;0.6797;-5.5301;
-101.7000;0.6805;-5.5379;
-101.4000;0.6813;-5.5327;
-101.1000;0.6797;-5.5379;
-100.8000;0.6797;-5.5379;
-100.5000;0.6797;-5.5405;
-100.2000;0.6789;-5.5509;
-99.9000;0.6789;-5.5457;
-99.6000;0.6805;-5.5457;
-99.3000;0.6805;-5.5509;
-99.0000;0.6789;-5.5483;
-98.7000;0.6813;-5.5457;
-98.4000;0.6748;-5.5716;
-98.1000;0.6813;-5.5560;
-97.8000;0.6797;-5.5560;
-97.5000;0.6797;-5.5405;
-97.2000;0.6797;-5.5327;
-96.9000;0.6813;-5.5353;
-96.6000;0.6797;-5.5483;
-96.3000;0.6797;-5.5509;
-96.0000;0.6789;-5.5560;
-95.7000;0.6805;-5.5457;
-95.4000;0.6789;-5.5457;
-95.1000;0.6789;-5.5405;
-94.8000;0.6789;-5.5301;
-94.5000;0.6797;-5.5250;
-94.2000;0.6797;-5.5224;
-93.9000;0.6797;-5.5224;
-93.6000;0.6805;-5.5198;
-93.3000;0.6813;-5.5301;
-93.0000;0.6781;-5.5457;
-92.7000;0.6797;-5.5483;
-92.4000;0.6821;-5.5353;
-92.1000;0.6813;-5.5353;
-91.8000;0.6772;-5.5405;
-91.5000;0.6781;-5.5327;
-91.2000;0.6772;-5.5275;
-90.9000;0.6772;-5.5301;
-90.6000;0.6789;-5.5275;
-90.3000;0.6789;-5.5172;
-90.0000;0.6772;-5.5275;
-89.7000;0.6797;-5.5224;
-89.4000;0.6789;-5.5275;
-89.1000;0.6797;-5.5301;
-88.8000;0.6862;-5.5224;
-88.5000;0.6797;-5.5457;
-88.2000;0.6789;-5.5509;
-87.9000;0.6797;-5.5483;
-87.6000;0.6781;-5.5560;
-87.3000;0.6797;-5.5509;
-87.0000;0.6797;-5.5405;
-86.7000;0.6797;-5.5431;
-86.4000;0.6781;-5.5457;
-86.1000;0.6764;-5.5431;
-85.8000;0.6789;-5.5379;
-85.5000;0.6789;-5.5457;
-85.2000;0.6797;-5.5457;
-84.9000;0.6797;-5.5431;
-84.6000;0.6797;-5.5431;
-84.3000;0.6756;-5.5457;
-84.0000;0.6797;-5.5379;
-83.7000;0.6797;-5.5483;
-83.4000;0.6789;-5.5509;
-83.1000;0.6805;-5.5509;
-82.8000;0.6805;-5.5483;
-82.5000;0.6789;-5.5405;
-82.2000;0.6781;-5.5483;
-81.9000;0.6789;-5.5457;
-81.6000;0.6781;-5.5457;
-81.3000;0.6764;-5.5535;
-81.0000;0.6781;-5.5483;
-80.7000;0.6789;-5.5379;
-80.4000;0.6740;-5.5431;
-80.1000;0.6805;-5.5275;
-79.8000;0.6789;-5.5301;
-79.5000;0.6813;-5.5198;
-79.2000;0.6789;-5.5301;
-78.9000;0.6813;-5.5275;
-78.6000;0.6789;-5.5301;
-78.3000;0.6829;-5.5301;
-78.0000;0.6813;-5.5405;
-77.7000;0.6813;-5.5509;
-77.4000;0.6805;-5.5535;
-77.1000;0.6797;-5.5483;
-76.8000;0.6797;-5.5431;
-76.5000;0.6797;-5.5483;
-76.2000;0.6789;-5.5457;
-75.9000;0.6854;-5.5353;
-75.6000;0.6895;-5.5275;
-75.3000;0.6789;-5.5405;
-75.0000;0.6789;-5.5379;
-74.7000;0.6797;-5.5327;
-74.4000;0.6764;-5.5379;
-74.1000;0.6805;-5.5301;
-73.8000;0.6854;-5.5198;
-73.5000;0.6870;-5.5146;
-73.2000;0.6797;-5.5457;
-72.9000;0.6805;-5.5431;
-72.6000;0.6813;-5.5431;
-72.3000;0.6789;-5.5457;
-72.0000;0.6789;-5.5379;
-71.7000;0.6789;-5.5301;
-71.4000;0.6772;-5.5275;
-71.1000;0.6748;-5.5327;
-70.8000;0.6781;-5.5353;
-70.5000;0.6772;-5.5431;
-70.2000;0.6781;-5.5509;
-69.9000;0.6797;-5.5457;
-69.6000;0.6797;-5.5457;
-69.3000;0.6797;-5.5353;
-69.0000;0.6797;-5.5275;
-68.7000;0.6797;-5.5275;
-68.4000;0.6764;-5.5405;
-68.1000;0.6789;-5.5327;
-67.8000;0.6821;-5.5250;
-67.5000;0.6797;-5.5353;
-67.2000;0.6797;-5.5327;
-66.9000;0.6789;-5.5301;
-66.6000;0.6789;-5.5327;
-66.3000;0.6781;-5.5301;
-66.0000;0.6781;-5.5275;
-65.7000;0.6813;-5.5198;
-65.4000;0.6797;-5.5120;
-65.1000;0.6789;-5.5198;
-64.8000;0.6797;-5.5301;
-64.5000;0.6797;-5.5353;
-64.2000;0.6789;-5.5379;
-63.9000;0.6805;-5.5405;
-63.6000;0.6781;-5.5457;
-63.3000;0.6789;-5.5431;
-63.0000;0.6813;-5.5353;
-62.7000;0.6797;-5.5405;
-62.4000;0.6797;-5.5379;
-62.1000;0.6781;-5.5379;
-61.8000;0.6797;-5.5405;
-61.5000;0.6789;-5.5431;
-61.2000;0.6797;-5.5483;
-60.9000;0.6805;-5.5483;
-60.6000;0.6797;-5.5535;
-60.3000;0.6805;-5.5457;
-60.0000;0.6813;-5.5483;
-59.7000;0.6781;-5.5509;
-59.4000;0.6797;-5.5509;
-59.1000;0.6797;-5.5535;
-58.8000;0.6805;-5.5483;
-58.5000;0.6740;-5.5560;
-58.2000;0.6797;-5.5509;
-57.9000;0.6789;-5.5612;
-57.6000;0.6838;-5.5509;
-57.3000;0.6724;-5.5819;
-57.0000;0.6781;-5.5560;
-56.7000;0.6797;-5.5535;
-56.4000;0.6764;-5.5664;
-56.1000;0.6789;-5.5483;
-55.8000;0.6781;-5.5535;
-55.5000;0.6764;-5.5535;
-55.2000;0.6805;-5.5509;
-54.9000;0.6797;-5.5483;
-54.6000;0.6805;-5.5509;
-54.3000;0.6781;-5.5509;
-54.0000;0.6797;-5.5509;
-53.7000;0.6797;-5.5483;
-53.4000;0.6772;-5.5535;
-53.1000;0.6772;-5.5457;
-52.8000;0.6781;-5.5353;
-52.5000;0.6781;-5.5327;
-52.2000;0.6789;-5.5327;
-51.9000;0.6756;-5.5379;
-51.6000;0.6813;-5.5250;
-51.3000;0.6732;-5.5353;
-51.0000;0.6781;-5.5146;
-50.7000;0.6789;-5.5224;
-50.4000;0.6691;-5.5509;
-50.1000;0.6789;-5.5250;
-49.8000;0.6740;-5.5431;
-49.5000;0.6813;-5.5146;
-49.2000;0.6838;-5.5146;
-48.9000;0.6805;-5.5224;
-48.6000;0.6805;-5.5146;
-48.3000;0.6838;-5.5120;
-48.0000;0.6781;-5.5275;
-47.7000;0.6781;-5.5250;
-47.4000;0.6789;-5.5198;
-47.1000;0.6789;-5.5327;
-46.8000;0.6781;-5.5405;
-46.5000;0.6813;-5.5379;
-46.2000;0.6805;-5.5379;
-45.9000;0.6789;-5.5353;
-45.6000;0.6789;-5.5431;
-45.3000;0.6781;-5.5405;
-45.0000;0.6813;-5.5431;
-44.7000;0.6805;-5.5405;
-44.4000;0.6781;-5.5431;
-44.1000;0.6805;-5.5353;
-43.8000;0.6805;-5.5457;
-43.5000;0.6813;-5.5327;
-43.2000;0.6805;-5.5405;
-42.9000;0.6813;-5.5301;
-42.6000;0.6797;-5.5457;
-42.3000;0.6813;-5.5535;
-42.0000;0.6821;-5.5535;
-41.7000;0.6895;-5.5353;
-41.4000;0.6797;-5.5612;
-41.1000;0.6813;-5.5560;
-40.8000;0.6821;-5.5483;
-40.5000;0.6805;-5.5431;
-40.2000;0.6813;-5.5379;
-39.9000;0.6797;-5.5405;
-39.6000;0.6797;-5.5405;
-39.3000;0.6772;-5.5379;
-39.0000;0.6813;-5.5275;
-38.7000;0.6821;-5.5327;
-38.4000;0.6805;-5.5327;
-38.1000;0.6813;-5.5353;
-37.8000;0.6797;-5.5457;
-37.5000;0.6781;-5.5405;
-37.2000;0.6805;-5.5301;
-36.9000;0.6797;-5.5301;
-36.6000;0.6764;-5.5275;
-36.3000;0.6797;-5.5250;
-36.0000;0.6829;-5.5198;
-35.7000;0.6772;-5.5327;
-35.4000;0.6813;-5.5224;
-35.1000;0.6813;-5.5146;
-34.8000;0.6797;-5.5250;
-34.5000;0.6716;-5.5483;
-34.2000;0.6838;-5.5146;
-33.9000;0.6789;-5.5275;
-33.6000;0.6789;-5.5224;
-33.3000;0.6805;-5.5224;
-33.0000;0.6821;-5.5198;
-32.7000;0.6854;-5.5094;
-32.4000;0.6789;-5.5327;
-32.1000;0.6862;-5.5094;
-31.8000;0.6821;-5.5301;
-31.5000;0.6781;-5.5327;
-31.2000;0.6781;-5.5301;
-30.9000;0.6797;-5.5094;
-30.6000;0.6805;-5.5016;
-30.3000;0.6813;-5.5016;
-30.0000;0.6797;-5.5094;
-29.7000;0.6789;-5.5172;
-29.4000;0.6797;-5.5224;
-29.1000;0.6797;-5.5146;
-28.8000;0.6797;-5.5224;
-28.5000;0.6797;-5.5275;
-28.2000;0.6797;-5.5327;
-27.9000;0.6813;-5.5327;
-27.6000;0.6789;-5.5301;
-27.3000;0.6789;-5.5379;
-27.0000;0.6838;-5.5275;
-26.7000;0.6805;-5.5431;
-26.4000;0.6781;-5.5509;
-26.1000;0.6789;-5.5535;
-25.8000;0.6772;-5.5560;
-25.5000;0.6797;-5.5535;
-25.2000;0.6789;-5.5664;
-24.9000;0.6748;-5.5768;
-24.6000;0.6789;-5.5586;
-24.3000;0.6805;-5.5664;
-24.0000;0.6813;-5.5638;
-23.7000;0.6797;-5.5638;
-23.4000;0.6764;-5.5716;
-23.1000;0.6805;-5.5560;
-22.8000;0.6740;-5.5716;
-22.5000;0.6781;-5.5535;
-22.2000;0.6789;-5.5535;
-21.9000;0.6797;-5.5535;
-21.6000;0.6772;-5.5509;
-21.3000;0.6789;-5.5379;
-21.0000;0.6781;-5.5353;
-20.7000;0.6805;-5.5275;
-20.4000;0.6797;-5.5327;
-20.1000;0.6781;-5.5353;
-19.8000;0.6797;-5.5431;
-19.5000;0.6789;-5.5509;
-19.2000;0.6789;-5.5483;
-18.9000;0.6797;-5.5483;
-18.6000;0.6732;-5.5664;
-18.3000;0.6781;-5.5509;
-18.0000;0.6813;-5.5457;
-17.7000;0.6805;-5.5379;
-17.4000;0.6797;-5.5431;
-17.1000;0.6813;-5.5483;
-16.8000;0.6756;-5.5612;
-16.5000;0.6821;-5.5405;
-16.2000;0.6797;-5.5457;
-15.9000;0.6797;-5.5405;
-15.6000;0.6789;-5.5457;
-15.3000;0.6805;-5.5353;
-15.0000;0.6789;-5.5275;
-14.7000;0.6805;-5.5327;
-14.4000;0.6797;-5.5353;
-14.1000;0.6813;-5.5405;
-13.8000;0.6805;-5.5405;
-13.5000;0.6732;-5.5612;
-13.2000;0.6797;-5.5457;
-12.9000;0.6805;-5.5405;
-12.6000;0.6764;-5.5535;
-12.3000;0.6797;-5.5560;
-12.0000;0.6805;-5.5509;
-11.7000;0.6781;-5.5535;
-11.4000;0.6805;-5.5405;
-11.1000;0.6740;-5.5431;
-10.8000;0.6805;-5.5275;
-10.5000;0.6838;-5.5224;
-10.2000;0.6805;-5.5379;
-9.9000;0.6797;-5.5379;
-9.6000;0.6772;-5.5535;
-9.3000;0.6781;-5.5586;
-9.0000;0.6789;-5.5483;
-8.7000;0.6781;-5.5586;
-8.4000;0.6797;-5.5664;
-8.1000;0.6789;-5.5664;
-7.8000;0.6789;-5.5638;
-7.5000;0.6805;-5.5586;
-7.2000;0.6789;-5.5586;
-6.9000;0.6789;-5.5560;
-6.6000;0.6781;-5.5586;
-6.3000;0.6805;-5.5586;
-6.0000;0.6789;-5.5586;
-5.7000;0.6838;-5.5431;
-5.4000;0.6797;-5.5535;
-5.1000;0.6813;-5.5535;
-4.8000;0.6781;-5.5586;
-4.5000;0.6805;-5.5509;
-4.2000;0.6781;-5.5509;
-3.9000;0.6797;-5.5483;
-3.6000;0.6805;-5.5535;
-3.3000;0.6724;-5.5690;
-3.0000;0.6781;-5.5560;
-2.7000;0.6789;-5.5483;
-2.4000;0.6789;-5.5457;
-2.1000;0.6797;-5.5405;
-1.8000;0.6789;-5.5431;
-1.5000;0.6781;-5.5431;
-1.2000;0.6813;-5.5457;
-0.9000;0.6797;-5.5483;
-0.6000;0.6789;-5.5483;
-0.3000;0.6764;-5.5483;
0.0000;0.6764;-5.5483;
0.3000;0.7041;-5.5068;
0.6000;0.7489;-5.4343;
0.9000;0.7814;-5.3721;
1.2000;0.8067;-5.3177;
1.5000;0.8295;-5.2763;
1.8000;0.8433;-5.2374;
2.1000;0.8563;-5.1986;
2.4000;0.8677;-5.1727;
2.7000;0.8783;-5.1416;
3.0000;0.8848;-5.1261;
3.3000;0.8832;-5.1235;
3.6000;0.8970;-5.0898;
3.9000;0.9044;-5.0820;
4.2000;0.9044;-5.0820;
4.5000;0.9101;-5.0717;
4.8000;0.9158;-5.0535;
5.1000;0.9182;-5.0535;
5.4000;0.9271;-5.0380;
5.7000;0.9223;-5.0691;
6.0000;0.9263;-5.0665;
6.3000;0.9296;-5.0639;
6.6000;0.9337;-5.0587;
6.9000;0.9353;-5.0665;
7.2000;0.9410;-5.0561;
7.5000;0.9402;-5.0613;
7.8000;0.9442;-5.0639;
8.1000;0.9467;-5.0587;
8.4000;0.9483;-5.0587;
8.7000;0.9516;-5.0561;
9.0000;0.9532;-5.0535;
9.3000;0.9573;-5.0587;
9.6000;0.9581;-5.0613;
9.9000;0.9597;-5.0639;
10.2000;0.9613;-5.0613;
10.5000;0.9630;-5.0587;
10.8000;0.9630;-5.0639;
11.1000;0.9678;-5.0535;
11.4000;0.9687;-5.0561;
11.7000;0.9760;-5.0458;
12.0000;0.9727;-5.0509;
12.3000;0.9744;-5.0587;
12.6000;0.9768;-5.0535;
12.9000;0.9809;-5.0535;
13.2000;0.9817;-5.0561;
13.5000;0.9825;-5.0561;
13.8000;0.9849;-5.0535;
14.1000;0.9858;-5.0535;
14.4000;0.9882;-5.0484;
14.7000;0.9890;-5.0561;
15.0000;0.9906;-5.0665;
15.3000;0.9931;-5.0691;
15.6000;0.9931;-5.0717;
15.9000;0.9955;-5.0717;
16.2000;0.9972;-5.0665;
16.5000;0.9972;-5.0743;
16.8000;0.9988;-5.0743;
17.1000;0.9996;-5.0743;
17.4000;1.0020;-5.0768;
17.7000;1.0045;-5.0743;
18.0000;1.0053;-5.0768;
18.3000;1.0061;-5.0717;
18.6000;1.0061;-5.0743;
18.9000;1.0102;-5.0717;
19.2000;1.0110;-5.0743;
19.5000;1.0126;-5.0717;
19.8000;1.0159;-5.0794;
20.1000;1.0134;-5.0820;
20.4000;1.0159;-5.0898;
20.7000;1.0151;-5.0950;
21.0000;1.0183;-5.0898;
21.3000;1.0159;-5.0950;
21.6000;1.0232;-5.0846;
21.9000;1.0191;-5.0924;
22.2000;1.0183;-5.0976;
22.5000;1.0208;-5.0924;
22.8000;1.0216;-5.1002;
23.1000;1.0232;-5.0976;
23.4000;1.0224;-5.0976;
23.7000;1.0232;-5.0950;
24.0000;1.0248;-5.0924;
24.3000;1.0273;-5.0820;
24.6000;1.0289;-5.0872;
24.9000;1.0273;-5.0924;
25.2000;1.0281;-5.0898;
25.5000;1.0322;-5.0872;
25.8000;1.0305;-5.0898;
26.1000;1.0322;-5.0820;
26.4000;1.0305;-5.0820;
26.7000;1.0305;-5.0898;
27.0000;1.0305;-5.0898;
27.3000;1.0338;-5.0898;
27.6000;1.0313;-5.0950;
27.9000;1.0313;-5.0898;
28.2000;1.0354;-5.0924;
28.5000;1.0354;-5.0976;
28.8000;1.0338;-5.1079;
29.1000;1.0354;-5.1079;
29.4000;1.0370;-5.1079;
29.7000;1.0403;-5.1079;
30.0000;1.0379;-5.1105;
30.3000;1.0379;-5.1079;
30.6000;1.0403;-5.1053;
30.9000;1.0395;-5.1105;
31.2000;1.0387;-5.1105;
31.5000;1.0387;-5.1131;
31.8000;1.0403;-5.1079;
32.1000;1.0395;-5.1028;
32.4000;1.0395;-5.1028;
32.7000;1.0403;-5.1053;
33.0000;1.0419;-5.1079;
33.3000;1.0427;-5.1053;
33.6000;1.0427;-5.0976;
33.9000;1.0452;-5.0872;
34.2000;1.0419;-5.0846;
34.5000;1.0435;-5.0743;
34.8000;1.0427;-5.0846;
35.1000;1.0452;-5.0820;
35.4000;1.0444;-5.0924;
35.7000;1.0452;-5.0898;
36.0000;1.0427;-5.1002;
36.3000;1.0435;-5.0898;
36.6000;1.0435;-5.0950;
36.9000;1.0435;-5.0976;
37.2000;1.0468;-5.0924;
37.5000;1.0460;-5.0924;
37.8000;1.0452;-5.0950;
38.1000;1.0444;-5.0950;
38.4000;1.0484;-5.0872;
38.7000;1.0484;-5.0950;
39.0000;1.0492;-5.0924;
39.3000;1.0484;-5.0846;
39.6000;1.0492;-5.0898;
39.9000;1.0492;-5.0872;
40.2000;1.0476;-5.0924;
40.5000;1.0501;-5.0924;
40.8000;1.0517;-5.0872;
41.1000;1.0517;-5.0924;
41.4000;1.0525;-5.0898;
41.7000;1.0492;-5.1028;
42.0000;1.0517;-5.1002;
42.3000;1.0541;-5.0976;
42.6000;1.0525;-5.1002;
42.9000;1.0517;-5.0976;
43.2000;1.0509;-5.1053;
43.5000;1.0509;-5.1079;
43.8000;1.0525;-5.1002;
44.1000;1.0525;-5.1002;
44.4000;1.0509;-5.1002;
44.7000;1.0525;-5.0976;
45.0000;1.0549;-5.0898;
45.3000;1.0533;-5.1002;
45.6000;1.0525;-5.0898;
45.9000;1.0541;-5.0924;
46.2000;1.0558;-5.0924;
46.5000;1.0533;-5.0898;
46.8000;1.0541;-5.0924;
47.1000;1.0501;-5.1002;
47.4000;1.0541;-5.0924;
47.7000;1.0533;-5.0976;
48.0000;1.0517;-5.1002;
48.3000;1.0549;-5.1002;
48.6000;1.0533;-5.1002;
48.9000;1.0541;-5.1028;
49.2000;1.0525;-5.1053;
49.5000;1.0517;-5.1028;
49.8000;1.0541;-5.0898;
50.1000;1.0541;-5.0898;
50.4000;1.0541;-5.0898;
50.7000;1.0549;-5.0924;
51.0000;1.0558;-5.0898;
51.3000;1.0566;-5.0898;
51.6000;1.0501;-5.1053;
51.9000;1.0566;-5.0976;
52.2000;1.0566;-5.0950;
52.5000;1.0574;-5.0924;
52.8000;1.0566;-5.0976;
53.1000;1.0574;-5.0898;
53.4000;1.0574;-5.0924;
53.7000;1.0566;-5.0898;
54.0000;1.0582;-5.0924;
54.3000;1.0558;-5.0950;
54.6000;1.0566;-5.0820;
54.9000;1.0574;-5.0820;
55.2000;1.0574;-5.0846;
55.5000;1.0558;-5.0924;
55.8000;1.0566;-5.0950;
56.1000;1.0590;-5.0846;
56.4000;1.0631;-5.0846;
56.7000;1.0582;-5.0872;
57.0000;1.0525;-5.0898;
57.3000;1.0582;-5.0820;
57.6000;1.0582;-5.0872;
57.9000;1.0525;-5.0898;
58.2000;1.0566;-5.0794;
58.5000;1.0615;-5.0768;
58.8000;1.0574;-5.0846;
59.1000;1.0517;-5.1079;
59.4000;1.0606;-5.0898;
59.7000;1.0582;-5.0924;
60.0000;1.0615;-5.0950;
60.3000;1.0574;-5.1002;
60.6000;1.0590;-5.0976;
60.9000;1.0582;-5.1053;
61.2000;1.0598;-5.1002;
61.5000;1.0590;-5.1131;
61.8000;1.0590;-5.1183;
62.1000;1.0574;-5.1131;
62.4000;1.0598;-5.1079;
62.7000;1.0566;-5.1105;
63.0000;1.0606;-5.1105;
63.3000;1.0598;-5.1053;
63.6000;1.0639;-5.1079;
63.9000;1.0615;-5.1183;
64.2000;1.0606;-5.1183;
64.5000;1.0615;-5.1079;
64.8000;1.0598;-5.1053;
65.1000;1.0623;-5.1028;
65.4000;1.0623;-5.1131;
65.7000;1.0615;-5.1183;
66.0000;1.0590;-5.1235;
66.3000;1.0631;-5.1131;
66.6000;1.0696;-5.0950;
66.9000;1.0655;-5.0976;
67.2000;1.0615;-5.1131;
67.5000;1.0615;-5.1131;
67.8000;1.0663;-5.0898;
68.1000;1.0631;-5.1002;
68.4000;1.0598;-5.1079;
68.7000;1.0590;-5.1002;
69.0000;1.0615;-5.0976;
69.3000;1.0631;-5.0924;
69.6000;1.0623;-5.1002;
69.9000;1.0606;-5.1079;
70.2000;1.0631;-5.1131;
70.5000;1.0647;-5.1105;
70.8000;1.0615;-5.1131;
71.1000;1.0615;-5.1079;
71.4000;1.0590;-5.1105;
71.7000;1.0615;-5.1157;
72.0000;1.0623;-5.1235;
72.3000;1.0615;-5.1235;
72.6000;1.0590;-5.1261;
72.9000;1.0631;-5.1183;
73.2000;1.0639;-5.1235;
73.5000;1.0606;-5.1209;
73.8000;1.0615;-5.1261;
74.1000;1.0623;-5.1261;
74.4000;1.0566;-5.1442;
74.7000;1.0639;-5.1287;
75.0000;1.0615;-5.1364;
75.3000;1.0623;-5.1312;
75.6000;1.0712;-5.1028;
75.9000;1.0631;-5.1157;
76.2000;1.0623;-5.1183;
76.5000;1.0631;-5.1157;
76.8000;1.0647;-5.1209;
77.1000;1.0647;-5.1209;
77.4000;1.0623;-5.1312;
77.7000;1.0631;-5.1338;
78.0000;1.0672;-5.1261;
78.3000;1.0615;-5.1312;
78.6000;1.0639;-5.1312;
78.9000;1.0639;-5.1287;
79.2000;1.0623;-5.1235;
79.5000;1.0655;-5.1079;
79.8000;1.0663;-5.1053;
80.1000;1.0631;-5.1131;
80.4000;1.0655;-5.1183;
80.7000;1.0647;-5.1183;
81.0000;1.0672;-5.1183;
81.3000;1.0639;-5.1287;
81.6000;1.0631;-5.1287;
81.9000;1.0631;-5.1390;
82.2000;1.0655;-5.1338;
82.5000;1.0729;-5.1183;
82.8000;1.0663;-5.1209;
83.1000;1.0680;-5.1131;
83.4000;1.0655;-5.1183;
83.7000;1.0631;-5.1235;
84.0000;1.0688;-5.1028;
84.3000;1.0615;-5.1131;
84.6000;1.0615;-5.1287;
84.9000;1.0704;-5.1131;
85.2000;1.0647;-5.1312;
85.5000;1.0639;-5.1338;
85.8000;1.0647;-5.1364;
86.1000;1.0663;-5.1338;
86.4000;1.0647;-5.1442;
86.7000;1.0672;-5.1287;
87.0000;1.0672;-5.1287;
87.3000;1.0663;-5.1312;
87.6000;1.0639;-5.1442;
87.9000;1.0663;-5.1390;
88.2000;1.0663;-5.1468;
88.5000;1.0655;-5.1546;
88.8000;1.0639;-5.1546;
89.1000;1.0639;-5.1546;
89.4000;1.0663;-5.1520;
89.7000;1.0655;-5.1520;
90.0000;1.0663;-5.1520;
90.3000;1.0647;-5.1520;
90.6000;1.0647;-5.1649;
90.9000;1.0663;-5.1571;
91.2000;1.0672;-5.1597;
91.5000;1.0655;-5.1571;
91.8000;1.0672;-5.1546;
92.1000;1.0663;-5.1494;
92.4000;1.0672;-5.1546;
92.7000;1.0655;-5.1597;
93.0000;1.0647;-5.1571;
93.3000;1.0672;-5.1520;
93.6000;1.0663;-5.1623;
93.9000;1.0647;-5.1546;
94.2000;1.0647;-5.1546;
94.5000;1.0639;-5.1494;
94.8000;1.0655;-5.1520;
95.1000;1.0615;-5.1571;
95.4000;1.0655;-5.1597;
95.7000;1.0655;-5.1571;
96.0000;1.0655;-5.1546;
96.3000;1.0598;-5.1727;
96.6000;1.0574;-5.1805;
96.9000;1.0663;-5.1623;
97.2000;1.0663;-5.1520;
97.5000;1.0655;-5.1468;
97.8000;1.0655;-5.1390;
98.1000;1.0663;-5.1390;
98.4000;1.0655;-5.1442;
98.7000;1.0663;-5.1442;
99.0000;1.0639;-5.1494;
99.3000;1.0615;-5.1597;
99.6000;1.0663;-5.1390;
99.9000;1.0647;-5.1364;
100.2000;1.0647;-5.1390;
100.5000;1.0655;-5.1364;
100.8000;1.0663;-5.1235;
101.1000;1.0688;-5.1157;
101.4000;1.0663;-5.1261;
101.7000;1.0655;-5.1312;
102.0000;1.0672;-5.1261;
102.3000;1.0680;-5.1312;
102.6000;1.0680;-5.1364;
102.9000;1.0672;-5.1261;
103.2000;1.0672;-5.1261;
103.5000;1.0672;-5.1261;
103.8000;1.0680;-5.1287;
104.1000;1.0688;-5.1209;
104.4000;1.0631;-5.1338;
104.7000;1.0623;-5.1364;
105.0000;1.0672;-5.1338;
105.3000;1.0639;-5.1364;
105.6000;1.0680;-5.1235;
105.9000;1.0639;-5.1312;
106.2000;1.0655;-5.1338;
106.5000;1.0745;-5.1157;
106.8000;1.0688;-5.1390;
107.1000;1.0680;-5.1442;
107.4000;1.0672;-5.1364;
107.7000;1.0590;-5.1597;
108.0000;1.0696;-5.1442;
108.3000;1.0672;-5.1442;
108.6000;1.0688;-5.1468;
108.9000;1.0729;-5.1390;
109.2000;1.0672;-5.1520;
109.5000;1.0663;-5.1546;
109.8000;1.0647;-5.1597;
110.1000;1.0696;-5.1520;
110.4000;1.0672;-5.1520;
110.7000;1.0623;-5.1597;
111.0000;1.0680;-5.1416;
111.3000;1.0688;-5.1364;
111.6000;1.0729;-5.1209;
111.9000;1.0704;-5.1338;
112.2000;1.0680;-5.1364;
112.5000;1.0672;-5.1442;
112.8000;1.0647;-5.1494;
113.1000;1.0680;-5.1338;
113.4000;1.0712;-5.1312;
113.7000;1.0680;-5.1442;
114.0000;1.0680;-5.1416;
114.3000;1.0680;-5.1364;
114.6000;1.0672;-5.1390;
114.9000;1.0696;-5.1312;
115.2000;1.0704;-5.1416;
115.5000;1.0688;-5.1494;
115.8000;1.0680;-5.1520;
116.1000;1.0672;-5.1520;
116.4000;1.0688;-5.1520;
116.7000;1.0696;-5.1546;
117.0000;1.0680;-5.1520;
117.3000;1.0688;-5.1546;
117.6000;1.0720;-5.1520;
117.9000;1.0663;-5.1623;
118.2000;1.0672;-5.1571;
118.5000;1.0688;-5.1520;
118.8000;1.0688;-5.1442;
119.1000;1.0696;-5.1390;
119.4000;1.0696;-5.1416;
119.7000;1.0696;-5.1364;
120.0000;1.0680;-5.1468;
120.3000;1.0696;-5.1494;
120.6000;1.0688;-5.1520;
120.9000;1.0688;-5.1546;
121.2000;1.0688;-5.1546;
121.5000;1.0712;-5.1468;
121.8000;1.0680;-5.1546;
122.1000;1.0688;-5.1597;
122.4000;1.0696;-5.1701;
122.7000;1.0688;-5.1675;
123.0000;1.0696;-5.1623;
123.3000;1.0688;-5.1675;
123.6000;1.0672;-5.1701;
123.9000;1.0688;-5.1649;
124.2000;1.0696;-5.1649;
124.5000;1.0688;-5.1675;
124.8000;1.0680;-5.1675;
125.1000;1.0663;-5.1597;
125.4000;1.0688;-5.1623;
125.7000;1.0663;-5.1623;
126.0000;1.0655;-5.1597;
126.3000;1.0655;-5.1649;
126.6000;1.0672;-5.1520;
126.9000;1.0672;-5.1623;
127.2000;1.0672;-5.1649;
127.5000;1.0688;-5.1675;
127.8000;1.0680;-5.1701;
128.1000;1.0696;-5.1623;
128.4000;1.0680;-5.1623;
128.7000;1.0672;-5.1623;
129.0000;1.0688;-5.1597;
129.3000;1.0720;-5.1494;
129.6000;1.0663;-5.1623;
129.9000;1.0639;-5.1727;
130.2000;1.0672;-5.1597;
130.5000;1.0688;-5.1520;
130.8000;1.0696;-5.1597;
131.1000;1.0696;-5.1546;
131.4000;1.0680;-5.1571;
131.7000;1.0680;-5.1571;
132.0000;1.0688;-5.1571;
132.3000;1.0696;-5.1623;
132.6000;1.0720;-5.1571;
132.9000;1.0688;-5.1649;
133.2000;1.0696;-5.1597;
133.5000;1.0704;-5.1623;
133.8000;1.0696;-5.1571;
134.1000;1.0704;-5.1623;
134.4000;1.0696;-5.1623;
134.7000;1.0712;-5.1675;
135.0000;1.0696;-5.1727;
135.3000;1.0696;-5.1727;
135.6000;1.0688;-5.1779;
135.9000;1.0704;-5.1701;
136.2000;1.0696;-5.1727;
136.5000;1.0688;-5.1805;
136.8000;1.0647;-5.1856;
137.1000;1.0712;-5.1701;
137.4000;1.0672;-5.1779;
137.7000;1.0696;-5.1753;
138.0000;1.0655;-5.1779;
138.3000;1.0704;-5.1571;
138.6000;1.0688;-5.1597;
138.9000;1.0696;-5.1597;
139.2000;1.0696;-5.1546;
139.5000;1.0680;-5.1597;
139.8000;1.0696;-5.1701;
140.1000;1.0688;-5.1623;
140.4000;1.0696;-5.1571;
140.7000;1.0696;-5.1597;
141.0000;1.0688;-5.1649;
141.3000;1.0696;-5.1649;
141.6000;1.0680;-5.1649;
141.9000;1.0688;-5.1701;
142.2000;1.0688;-5.1753;
142.5000;1.0712;-5.1779;
142.8000;1.0688;-5.1856;
143.1000;1.0696;-5.1830;
143.4000;1.0729;-5.1882;
143.7000;1.0688;-5.1882;
144.0000;1.0688;-5.1830;
144.3000;1.0696;-5.1779;
144.6000;1.0696;-5.1753;
144.9000;1.0704;-5.1779;
145.2000;1.0696;-5.1830;
145.5000;1.0696;-5.1908;
145.8000;1.0704;-5.1960;
146.1000;1.0704;-5.1934;
146.4000;1.0696;-5.1986;
146.7000;1.0688;-5.2064;
147.0000;1.0769;-5.1830;
147.3000;1.0696;-5.1934;
147.6000;1.0680;-5.2038;
147.9000;1.0696;-5.2064;
148.2000;1.0712;-5.2012;
148.5000;1.0704;-5.1986;
148.8000;1.0696;-5.2090;
149.1000;1.0696;-5.2064;
149.4000;1.0688;-5.2115;
149.7000;1.0696;-5.2115;
150.0000;1.0696;-5.2141;
150.3000;1.0704;-5.1986;
150.6000;1.0688;-5.2090;
150.9000;1.0704;-5.2064;
151.2000;1.0720;-5.1934;
151.5000;1.0655;-5.2090;
151.8000;1.0680;-5.2012;
152.1000;1.0680;-5.1986;
152.4000;1.0688;-5.2038;
152.7000;1.0688;-5.1960;
153.0000;1.0672;-5.1986;
153.3000;1.0696;-5.1934;
153.6000;1.0704;-5.1882;
153.9000;1.0688;-5.1934;
154.2000;1.0688;-5.1934;
154.5000;1.0688;-5.1882;
154.8000;1.0704;-5.1882;
155.1000;1.0696;-5.1856;
155.4000;1.0680;-5.1882;
155.7000;1.0696;-5.1856;
156.0000;1.0680;-5.1934;
156.3000;1.0696;-5.1908;
156.6000;1.0704;-5.1856;
156.9000;1.0745;-5.1934;
157.2000;1.0729;-5.1986;
157.5000;1.0704;-5.2012;
157.8000;1.0704;-5.2090;
158.1000;1.0688;-5.2115;
158.4000;1.0688;-5.2115;
158.7000;1.0704;-5.2012;
159.0000;1.0647;-5.2115;
159.3000;1.0712;-5.1934;
159.6000;1.0696;-5.1856;
159.9000;1.0704;-5.1908;
160.2000;1.0704;-5.1934;
160.5000;1.0688;-5.2064;
160.8000;1.0712;-5.1960;
161.1000;1.0704;-5.1960;
161.4000;1.0704;-5.1856;
161.7000;1.0680;-5.1830;
162.0000;1.0663;-5.1934;
162.3000;1.0712;-5.1805;
162.6000;1.0720;-5.1805;
162.9000;1.0688;-5.1856;
163.2000;1.0696;-5.1856;
163.5000;1.0696;-5.1830;
163.8000;1.0688;-5.1830;
164.1000;1.0696;-5.1727;
164.4000;1.0729;-5.1727;
164.7000;1.0696;-5.1856;
165.0000;1.0712;-5.1908;
165.3000;1.0704;-5.1830;
165.6000;1.0696;-5.1986;
165.9000;1.0720;-5.2012;
166.2000;1.0720;-5.2064;
166.5000;1.0696;-5.2167;
166.8000;1.0696;-5.2090;
167.1000;1.0704;-5.1960;
167.4000;1.0680;-5.1908;
167.7000;1.0704;-5.1908;
168.0000;1.0712;-5.1934;
168.3000;1.0631;-5.2064;
168.6000;1.0680;-5.1934;
168.9000;1.0704;-5.1934;
169.2000;1.0688;-5.1986;
169.5000;1.0696;-5.1960;
169.8000;1.0696;-5.1908;
170.1000;1.0688;-5.1934;
170.4000;1.0720;-5.1856;
170.7000;1.0688;-5.1908;
171.0000;1.0696;-5.1960;
171.3000;1.0720;-5.2012;
171.6000;1.0704;-5.2064;
171.9000;1.0696;-5.2193;
172.2000;1.0688;-5.2167;
172.5000;1.0704;-5.2038;
172.8000;1.0696;-5.2064;
173.1000;1.0696;-5.2012;
173.4000;1.0745;-5.1882;
173.7000;1.0696;-5.1986;
174.0000;1.0663;-5.2141;
174.3000;1.0696;-5.1960;
174.6000;1.0729;-5.1882;
174.9000;1.0680;-5.2115;
175.2000;1.0704;-5.1986;
175.5000;1.0745;-5.1986;
175.8000;1.0704;-5.2090;
176.1000;1.0696;-5.2193;
176.4000;1.0745;-5.2064;
176.7000;1.0680;-5.2193;
177.0000;1.0680;-5.2219;
177.3000;1.0672;-5.2167;
177.6000;1.0688;-5.2090;
177.9000;1.0737;-5.1908;
178.2000;1.0696;-5.2064;
178.5000;1.0688;-5.2090;
178.8000;1.0696;-5.2064;
179.1000;1.0696;-5.2115;
179.4000;1.0696;-5.2064;
179.7000;1.0712;-5.2038;
180.0000;1.0720;-5.2064;
180.3000;1.0704;-5.2193;
180.6000;1.0720;-5.2167;
180.9000;1.0704;-5.2271;
181.2000;1.0712;-5.2271;
181.5000;1.0704;-5.2349;
181.8000;1.0704;-5.2374;
182.1000;1.0761;-5.2167;
182.4000;1.0688;-5.2323;
182.7000;1.0794;-5.2064;
183.0000;1.0720;-5.2245;
183.3000;1.0696;-5.2271;
183.6000;1.0696;-5.2323;
183.9000;1.0704;-5.2219;
184.2000;1.0712;-5.2219;
184.5000;1.0712;-5.2245;
184.8000;1.0704;-5.2297;
185.1000;1.0712;-5.2271;
185.4000;1.0688;-5.2271;
185.7000;1.0720;-5.2115;
186.0000;1.0737;-5.2090;
186.3000;1.0720;-5.2090;
186.6000;1.0720;-5.2064;
186.9000;1.0737;-5.1986;
187.2000;1.0704;-5.2141;
187.5000;1.0696;-5.2090;
187.8000;1.0712;-5.1986;
188.1000;1.0696;-5.2012;
188.4000;1.0753;-5.1856;
188.7000;1.0680;-5.2012;
189.0000;1.0696;-5.1934;
189.3000;1.0777;-5.1727;
189.6000;1.0712;-5.1856;
189.9000;1.0704;-5.1934;
190.2000;1.0704;-5.1934;
190.5000;1.0720;-5.1934;
190.8000;1.0729;-5.1934;
191.1000;1.0704;-5.1960;
191.4000;1.0761;-5.1830;
191.7000;1.0704;-5.1908;
192.0000;1.0720;-5.1908;
192.3000;1.0680;-5.1934;
192.6000;1.0704;-5.1830;
192.9000;1.0639;-5.1960;
193.2000;1.0688;-5.1856;
193.5000;1.0720;-5.1908;
193.8000;1.0696;-5.1934;
194.1000;1.0712;-5.1882;
194.4000;1.0720;-5.1908;
194.7000;1.0720;-5.1960;
195.0000;1.0647;-5.2141;
195.3000;1.0704;-5.2012;
195.6000;1.0704;-5.2012;
195.9000;1.0737;-5.1960;
196.2000;1.0680;-5.2064;
196.5000;1.0729;-5.1856;
196.8000;1.0688;-5.1986;
197.1000;1.0704;-5.1882;
197.4000;1.0712;-5.1856;
197.7000;1.0688;-5.1960;
198.0000;1.0680;-5.1986;
198.3000;1.0696;-5.1908;
198.6000;1.0672;-5.2090;
198.9000;1.0696;-5.1960;
199.2000;1.0704;-5.1986;
199.5000;1.0737;-5.1960;
199.8000;1.0729;-5.1934;
200.1000;1.0688;-5.1986;
200.4000;1.0680;-5.1986;
200.7000;1.0680;-5.2064;
201.0000;1.0704;-5.1830;
201.3000;1.0720;-5.1779;
201.6000;1.0704;-5.1856;
201.9000;1.0712;-5.1830;
202.2000;1.0696;-5.1856;
202.5000;1.0704;-5.1882;
202.8000;1.0680;-5.1908;
203.1000;1.0696;-5.1986;
203.4000;1.0712;-5.1934;
203.7000;1.0704;-5.1805;
204.0000;1.0680;-5.1805;
204.3000;1.0688;-5.1805;
204.6000;1.0696;-5.1830;
204.9000;1.0737;-5.1753;
205.2000;1.0696;-5.1830;
205.5000;1.0704;-5.1830;
205.8000;1.0704;-5.1882;
206.1000;1.0704;-5.1934;
206.4000;1.0704;-5.1960;
206.7000;1.0704;-5.1908;
207.0000;1.0712;-5.1908;
207.3000;1.0712;-5.1934;
207.6000;1.0655;-5.2038;
207.9000;1.0704;-5.1882;
208.2000;1.0704;-5.1830;
208.5000;1.0712;-5.1779;
208.8000;1.0761;-5.1623;
209.1000;1.0720;-5.1830;
209.4000;1.0696;-5.2012;
209.7000;1.0704;-5.1960;
210.0000;1.0729;-5.1960;
210.3000;1.0672;-5.2064;
210.6000;1.0696;-5.2012;
210.9000;1.0712;-5.1986;
211.2000;1.0737;-5.1934;
211.5000;1.0720;-5.1960;
211.8000;1.0704;-5.2038;
212.1000;1.0696;-5.1960;
212.4000;1.0745;-5.1805;
212.7000;1.0696;-5.1805;
213.0000;1.0688;-5.1753;
213.3000;1.0647;-5.1856;
213.6000;1.0631;-5.1830;
213.9000;1.0672;-5.1830;
214.2000;1.0680;-5.1727;
214.5000;1.0704;-5.1701;
214.8000;1.0704;-5.1727;
215.1000;1.0696;-5.1779;
215.4000;1.0696;-5.1908;
215.7000;1.0696;-5.2064;
216.0000;1.0704;-5.2038;
216.3000;1.0712;-5.2012;
216.6000;1.0712;-5.2012;
216.9000;1.0729;-5.1986;
217.2000;1.0729;-5.1960;
217.5000;1.0720;-5.2115;
217.8000;1.0696;-5.2090;
218.1000;1.0712;-5.2012;
218.4000;1.0704;-5.2012;
218.7000;1.0688;-5.2012;
219.0000;1.0712;-5.1960;
219.3000;1.0704;-5.1882;
219.6000;1.0704;-5.1830;
219.9000;1.0720;-5.1805;
220.2000;1.0745;-5.1727;
220.5000;1.0704;-5.1830;
220.8000;1.0712;-5.1727;
221.1000;1.0729;-5.1727;
221.4000;1.0704;-5.1727;
221.7000;1.0761;-5.1623;
222.0000;1.0704;-5.1856;
222.3000;1.0712;-5.1856;
222.6000;1.0729;-5.1779;
222.9000;1.0712;-5.1805;
223.2000;1.0720;-5.1805;
223.5000;1.0663;-5.2038;
223.8000;1.0712;-5.1986;
224.1000;1.0704;-5.2090;
224.4000;1.0704;-5.2115;
224.7000;1.0729;-5.1960;
225.0000;1.0696;-5.2115;
225.3000;1.0704;-5.2012;
225.6000;1.0712;-5.1934;
225.9000;1.0696;-5.1960;
226.2000;1.0696;-5.1908;
226.5000;1.0696;-5.1908;
226.8000;1.0688;-5.2012;
227.1000;1.0688;-5.2115;
227.4000;1.0696;-5.2115;
227.7000;1.0712;-5.1960;
228.0000;1.0704;-5.1986;
228.3000;1.0696;-5.1986;
228.6000;1.0737;-5.1908;
228.9000;1.0720;-5.1986;
229.2000;1.0696;-5.2012;
229.5000;1.0745;-5.1882;
229.8000;1.0696;-5.2115;
230.1000;1.0720;-5.2090;
230.4000;1.0704;-5.2219;
230.7000;1.0696;-5.2245;
231.0000;1.0704;-5.2193;
231.3000;1.0704;-5.2090;
231.6000;1.0696;-5.2167;
231.9000;1.0688;-5.2141;
232.2000;1.0745;-5.1986;
232.5000;1.0720;-5.2012;
232.8000;1.0720;-5.1986;
233.1000;1.0704;-5.2038;
233.4000;1.0704;-5.2141;
233.7000;1.0696;-5.2271;
234.0000;1.0704;-5.2374;
234.3000;1.0712;-5.2323;
234.6000;1.0688;-5.2271;
234.9000;1.0712;-5.2141;
235.2000;1.0696;-5.2141;
235.5000;1.0704;-5.2141;
235.8000;1.0712;-5.2090;
236.1000;1.0672;-5.2141;
236.4000;1.0696;-5.2115;
236.7000;1.0712;-5.2090;
237.0000;1.0696;-5.2090;
237.3000;1.0696;-5.2167;
237.6000;1.0712;-5.2090;
237.9000;1.0720;-5.2064;
238.2000;1.0753;-5.1986;
238.5000;1.0712;-5.1986;
238.8000;1.0696;-5.1986;
239.1000;1.0704;-5.1960;
239.4000;1.0696;-5.1934;
239.7000;1.0696;-5.1830;
240.0000;1.0696;-5.1779;
240.3000;1.0704;-5.1779;
240.6000;1.0712;-5.1727;
240.9000;1.0704;-5.1753;
241.2000;1.0704;-5.1779;
241.5000;1.0712;-5.1779;
241.8000;1.0712;-5.1805;
242.1000;1.0720;-5.1856;
242.4000;1.0704;-5.1805;
242.7000;1.0745;-5.1727;
243.0000;1.0696;-5.1805;
243.3000;1.0696;-5.1727;
243.6000;1.0720;-5.1649;
243.9000;1.0696;-5.1649;
244.2000;1.0737;-5.1571;
244.5000;1.0704;-5.1675;
244.8000;1.0704;-5.1623;
245.1000;1.0777;-5.1494;
245.4000;1.0704;-5.1597;
245.7000;1.0680;-5.1805;
246.0000;1.0712;-5.1727;
246.3000;1.0720;-5.1649;
246.6000;1.0688;-5.1727;
246.9000;1.0672;-5.1779;
247.2000;1.0729;-5.1701;
247.5000;1.0655;-5.1805;
247.8000;1.0729;-5.1701;
248.1000;1.0720;-5.1701;
248.4000;1.0712;-5.1727;
248.7000;1.0720;-5.1753;
249.0000;1.0712;-5.1830;
249.3000;1.0720;-5.1805;
249.6000;1.0712;-5.1805;
249.9000;1.0704;-5.1805;
250.2000;1.0696;-5.1830;
250.5000;1.0696;-5.1830;
250.8000;1.0777;-5.1597;
251.1000;1.0696;-5.1727;
251.4000;1.0696;-5.1675;
251.7000;1.0704;-5.1623;
252.0000;1.0712;-5.1623;
252.3000;1.0729;-5.1571;
252.6000;1.0712;-5.1623;
252.9000;1.0704;-5.1623;
253.2000;1.0696;-5.1753;
253.5000;1.0704;-5.1779;
253.8000;1.0704;-5.1779;
254.1000;1.0696;-5.1882;
254.4000;1.0704;-5.1908;
254.7000;1.0712;-5.1779;
255.0000;1.0712;-5.1779;
255.3000;1.0720;-5.1649;
255.6000;1.0696;-5.1727;
255.9000;1.0712;-5.1701;
256.2000;1.0680;-5.1805;
256.5000;1.0688;-5.1727;
256.8000;1.0696;-5.1753;
257.1000;1.0688;-5.1779;
257.4000;1.0720;-5.1649;
257.7000;1.0688;-5.1727;
258.0000;1.0704;-5.1727;
258.3000;1.0712;-5.1727;
258.6000;1.0720;-5.1779;
258.9000;1.0712;-5.1830;
259.2000;1.0696;-5.1805;
259.5000;1.0712;-5.1727;
259.8000;1.0704;-5.1830;
260.1000;1.0696;-5.1856;
260.4000;1.0696;-5.1805;
260.7000;1.0696;-5.1830;
261.0000;1.0696;-5.1882;
261.3000;1.0761;-5.1675;
261.6000;1.0753;-5.1571;
261.9000;1.0704;-5.1675;
262.2000;1.0647;-5.1727;
262.5000;1.0696;-5.1546;
262.8000;1.0688;-5.1597;
263.1000;1.0704;-5.1675;
263.4000;1.0712;-5.1649;
263.7000;1.0704;-5.1727;
264.0000;1.0720;-5.1779;
264.3000;1.0712;-5.1856;
264.6000;1.0712;-5.1805;
264.9000;1.0688;-5.1779;
265.2000;1.0663;-5.1882;
265.5000;1.0704;-5.1753;
265.8000;1.0696;-5.1805;
266.1000;1.0655;-5.1934;
266.4000;1.0647;-5.2038;
266.7000;1.0704;-5.1830;
267.0000;1.0720;-5.1856;
267.3000;1.0712;-5.1934;
267.6000;1.0704;-5.1908;
267.9000;1.0696;-5.1986;
268.2000;1.0680;-5.1908;
268.5000;1.0688;-5.1830;
268.8000;1.0712;-5.1779;
269.1000;1.0663;-5.1805;
269.4000;1.0777;-5.1520;
269.7000;1.0712;-5.1597;
270.0000;1.0712;-5.1623;
270.3000;1.0712;-5.1675;
270.6000;1.0729;-5.1675;
270.9000;1.0712;-5.1675;
271.2000;1.0720;-5.1727;
271.5000;1.0696;-5.1753;
271.8000;1.0737;-5.1779;
272.1000;1.0720;-5.1882;
272.4000;1.0712;-5.1908;
272.7000;1.0688;-5.1934;
273.0000;1.0655;-5.2012;
273.3000;1.0680;-5.1986;
273.6000;1.0704;-5.2012;
273.9000;1.0704;-5.2038;
274.2000;1.0696;-5.2115;
274.5000;1.0696;-5.2141;
274.8000;1.0720;-5.2090;
275.1000;1.0696;-5.2141;
275.4000;1.0696;-5.2141;
275.7000;1.0696;-5.2167;
276.0000;1.0680;-5.2219;
276.3000;1.0663;-5.2219;
276.6000;1.0704;-5.2038;
276.9000;1.0688;-5.2064;
277.2000;1.0745;-5.2012;
277.5000;1.0712;-5.2038;
277.8000;1.0696;-5.2012;
278.1000;1.0712;-5.1934;
278.4000;1.0729;-5.1908;
278.7000;1.0712;-5.2090;
279.0000;1.0720;-5.2115;
279.3000;1.0712;-5.2012;
279.6000;1.0712;-5.2012;
279.9000;1.0704;-5.1934;
280.2000;1.0729;-5.1805;
280.5000;1.0696;-5.1830;
280.8000;1.0704;-5.1882;
281.1000;1.0745;-5.1882;
281.4000;1.0720;-5.2038;
281.7000;1.0696;-5.2064;
282.0000;1.0696;-5.1934;
282.3000;1.0647;-5.2038;
282.6000;1.0704;-5.1934;
282.9000;1.0704;-5.2012;
283.2000;1.0704;-5.1960;
283.5000;1.0696;-5.2064;
283.8000;1.0720;-5.1960;
284.1000;1.0704;-5.2064;
284.4000;1.0631;-5.2167;
284.7000;1.0696;-5.1882;
285.0000;1.0704;-5.1779;
285.3000;1.0696;-5.1779;
285.6000;1.0688;-5.1805;
285.9000;1.0696;-5.1727;
286.2000;1.0688;-5.1727;
286.5000;1.0680;-5.1779;
286.8000;1.0672;-5.1882;
287.1000;1.0672;-5.1882;
287.4000;1.0631;-5.1934;
287.7000;1.0696;-5.1805;
288.0000;1.0704;-5.1753;
288.3000;1.0680;-5.1753;
288.6000;1.0696;-5.1779;
288.9000;1.0704;-5.1753;
289.2000;1.0704;-5.1856;
289.5000;1.0769;-5.1675;
289.8000;1.0696;-5.1908;
290.1000;1.0712;-5.1934;
290.4000;1.0729;-5.1934;
290.7000;1.0794;-5.1779;
291.0000;1.0623;-5.2090;
291.3000;1.0704;-5.1986;
291.6000;1.0704;-5.2012;
291.9000;1.0712;-5.1986;
292.2000;1.0688;-5.1908;
292.5000;1.0704;-5.1908;
292.8000;1.0712;-5.1882;
293.1000;1.0704;-5.1882;
293.4000;1.0737;-5.1753;
293.7000;1.0729;-5.1727;
294.0000;1.0704;-5.1830;
294.3000;1.0704;-5.1779;
294.6000;1.0696;-5.1805;
294.9000;1.0720;-5.1727;
295.2000;1.0704;-5.1727;
295.5000;1.0696;-5.1701;
295.8000;1.0720;-5.1597;
296.1000;1.0720;-5.1571;
296.4000;1.0696;-5.1649;
296.7000;1.0680;-5.1675;
297.0000;1.0704;-5.1623;
297.3000;1.0688;-5.1805;
297.6000;1.0688;-5.1830;
297.9000;1.0696;-5.1805;
298.2000;1.0696;-5.1727;
298.5000;1.0696;-5.1727;
298.8000;1.0655;-5.1830;
299.1000;1.0688;-5.1830;
299.4000;1.0704;-5.1753;
299.7000;1.0704;-5.1727;
300.0000;1.0696;-5.1675;
300.3000;1.0696;-5.1701;
300.6000;1.0704;-5.1727;
300.9000;1.0704;-5.1779;
301.2000;1.0704;-5.1805;
301.5000;1.0704;-5.1830;
301.8000;1.0712;-5.1882;
302.1000;1.0720;-5.1856;
302.4000;1.0704;-5.1779;
302.7000;1.0672;-5.1830;
303.0000;1.0696;-5.1830;
303.3000;1.0655;-5.1856;
303.6000;1.0696;-5.1753;
303.9000;1.0712;-5.1753;
304.2000;1.0672;-5.1830;
304.5000;1.0753;-5.1675;
304.8000;1.0696;-5.1805;
305.1000;1.0696;-5.1779;
305.4000;1.0769;-5.1597;
305.7000;1.0704;-5.1753;
306.0000;1.0696;-5.1727;
306.3000;1.0680;-5.1727;
306.6000;1.0647;-5.1830;
306.9000;1.0696;-5.1856;
307.2000;1.0704;-5.1805;
307.5000;1.0672;-5.1805;
307.8000;1.0688;-5.1779;
308.1000;1.0688;-5.1727;
308.4000;1.0761;-5.1520;
308.7000;1.0712;-5.1701;
309.0000;1.0672;-5.1753;
309.3000;1.0704;-5.1597;
309.6000;1.0688;-5.1649;
309.9000;1.0729;-5.1597;
310.2000;1.0704;-5.1649;
310.5000;1.0712;-5.1597;
310.8000;1.0720;-5.1494;
311.1000;1.0712;-5.1546;
311.4000;1.0680;-5.1649;
311.7000;1.0761;-5.1520;
312.0000;1.0712;-5.1675;
312.3000;1.0704;-5.1675;
312.6000;1.0737;-5.1675;
312.9000;1.0696;-5.1753;
313.2000;1.0696;-5.1727;
313.5000;1.0696;-5.1753;
313.8000;1.0729;-5.1779;
314.1000;1.0688;-5.1882;
314.4000;1.0696;-5.1779;
314.7000;1.0688;-5.1830;
315.0000;1.0688;-5.1830;
315.3000;1.0696;-5.1830;
315.6000;1.0696;-5.1830;
315.9000;1.0720;-5.1908;
316.2000;1.0696;-5.1908;
316.5000;1.0712;-5.1882;
316.8000;1.0688;-5.1934;
317.1000;1.0712;-5.1908;
317.4000;1.0696;-5.1882;
317.7000;1.0704;-5.1856;
318.0000;1.0688;-5.1882;
318.3000;1.0696;-5.1882;
318.6000;1.0704;-5.1830;
318.9000;1.0615;-5.1960;
319.2000;1.0672;-5.1805;
319.5000;1.0696;-5.1753;
319.8000;1.0688;-5.1753;
320.1000;1.0704;-5.1675;
320.4000;1.0696;-5.1675;
320.7000;1.0696;-5.1727;
321.0000;1.0720;-5.1753;
321.3000;1.0729;-5.1727;
321.6000;1.0688;-5.1856;
321.9000;1.0704;-5.1779;
322.2000;1.0696;-5.1727;
322.5000;1.0696;-5.1805;
322.8000;1.0688;-5.1779;
323.1000;1.0680;-5.1805;
323.4000;1.0688;-5.1779;
323.7000;1.0704;-5.1779;
324.0000;1.0696;-5.1830;
324.3000;1.0696;-5.1830;
324.6000;1.0680;-5.1753;
324.9000;1.0696;-5.1649;
325.2000;1.0704;-5.1649;
325.5000;1.0688;-5.1753;
325.8000;1.0712;-5.1701;
326.1000;1.0712;-5.1753;
326.4000;1.0769;-5.1675;
326.7000;1.0696;-5.1934;
327.0000;1.0655;-5.2012;
327.3000;1.0680;-5.1908;
327.6000;1.0729;-5.1753;
327.9000;1.0672;-5.1805;
328.2000;1.0688;-5.1727;
328.5000;1.0696;-5.1701;
328.8000;1.0737;-5.1546;
329.1000;1.0696;-5.1649;
329.4000;1.0688;-5.1727;
329.7000;1.0688;-5.1753;
330.0000;1.0680;-5.1779;
330.3000;1.0704;-5.1805;
330.6000;1.0786;-5.1623;
330.9000;1.0696;-5.1856;
331.2000;1.0729;-5.1675;
331.5000;1.0704;-5.1727;
331.8000;1.0680;-5.1908;
332.1000;1.0688;-5.1805;
332.4000;1.0688;-5.1779;
332.7000;1.0704;-5.1701;
333.0000;1.0696;-5.1701;
333.3000;1.0696;-5.1649;
333.6000;1.0696;-5.1753;
333.9000;1.0688;-5.1830;
334.2000;1.0672;-5.1856;
334.5000;1.0680;-5.1779;
334.8000;1.0704;-5.1701;
335.1000;1.0704;-5.1701;
335.4000;1.0696;-5.1675;
335.7000;1.0704;-5.1753;
336.0000;1.0704;-5.1753;
336.3000;1.0688;-5.1779;
336.6000;1.0696;-5.1753;
336.9000;1.0696;-5.1727;
337.2000;1.0680;-5.1753;
337.5000;1.0696;-5.1701;
337.8000;1.0688;-5.1727;
338.1000;1.0680;-5.1830;
338.4000;1.0680;-5.1753;
338.7000;1.0672;-5.1779;
339.0000;1.0680;-5.1805;
339.3000;1.0680;-5.1779;
339.6000;1.0696;-5.1830;
339.9000;1.0688;-5.1882;
340.2000;1.0696;-5.1805;
340.5000;1.0704;-5.1830;
340.8000;1.0696;-5.1908;
341.1000;1.0712;-5.1805;
341.4000;1.0696;-5.1727;
341.7000;1.0712;-5.1623;
342.0000;1.0704;-5.1649;
342.3000;1.0688;-5.1571;
342.6000;1.0663;-5.1623;
342.9000;1.0688;-5.1623;
343.2000;1.0696;-5.1649;
343.5000;1.0720;-5.1597;
343.8000;1.0655;-5.1779;
344.1000;1.0672;-5.1753;
344.4000;1.0696;-5.1727;
344.7000;1.0696;-5.1830;
345.0000;1.0696;-5.1753;
345.3000;1.0720;-5.1597;
345.6000;1.0680;-5.1649;
345.9000;1.0704;-5.1623;
346.2000;1.0688;-5.1701;
346.5000;1.0696;-5.1701;
346.8000;1.0704;-5.1675;
347.1000;1.0680;-5.1753;
347.4000;1.0688;-5.1701;
347.7000;1.0777;-5.1571;
348.0000;1.0704;-5.1753;
348.3000;1.0688;-5.1701;
348.6000;1.0688;-5.1753;
348.9000;1.0680;-5.1649;
349.2000;1.0720;-5.1571;
349.5000;1.0688;-5.1675;
349.8000;1.0688;-5.1701;
350.1000;1.0688;-5.1701;
350.4000;1.0655;-5.1856;
350.7000;1.0761;-5.1675;
351.0000;1.0696;-5.1779;
351.3000;1.0704;-5.1701;
351.6000;1.0712;-5.1597;
351.9000;1.0704;-5.1546;
352.2000;1.0696;-5.1571;
352.5000;1.0688;-5.1546;
352.8000;1.0688;-5.1571;
353.1000;1.0688;-5.1520;
353.4000;1.0639;-5.1727;
353.7000;1.0688;-5.1597;
354.0000;1.0680;-5.1597;
354.3000;1.0696;-5.1623;
354.6000;1.0712;-5.1571;
354.9000;1.0688;-5.1727;
355.2000;1.0680;-5.1779;
355.5000;1.0631;-5.2012;
355.8000;1.0704;-5.1882;
356.1000;1.0696;-5.1908;
356.4000;1.0688;-5.1908;
356.7000;1.0680;-5.1908;
357.0000;1.0696;-5.1882;
357.3000;1.0696;-5.1908;
357.6000;1.0688;-5.1882;
357.9000;1.0704;-5.1805;
358.2000;1.0704;-5.1779;
358.5000;1.0704;-5.1830;
358.8000;1.0688;-5.1830;
359.1000;1.0688;-5.1753;
359.4000;1.0688;-5.1727;
359.7000;1.0688;-5.1701;
360.0000;1.0688;-5.1701;
360.3000;1.0696;-5.1701;
360.6000;1.0704;-5.1779;
360.9000;1.0704;-5.1830;
361.2000;1.0696;-5.1856;
361.5000;1.0737;-5.1675;
361.8000;1.0696;-5.1753;
362.1000;1.0663;-5.1830;
362.4000;1.0704;-5.1727;
362.7000;1.0663;-5.1882;
363.0000;1.0696;-5.1856;
363.3000;1.0696;-5.1830;
363.6000;1.0712;-5.1882;
363.9000;1.0696;-5.1882;
364.2000;1.0696;-5.1856;
364.5000;1.0704;-5.1830;
364.8000;1.0696;-5.1727;
365.1000;1.0663;-5.1779;
365.4000;1.0696;-5.1779;
365.7000;1.0704;-5.1856;
366.0000;1.0704;-5.1779;
366.3000;1.0688;-5.1779;
366.6000;1.0704;-5.1649;
366.9000;1.0696;-5.1675;
367.2000;1.0712;-5.1623;
367.5000;1.0696;-5.1701;
367.8000;1.0696;-5.1675;
368.1000;1.0696;-5.1623;
368.4000;1.0688;-5.1597;
368.7000;1.0688;-5.1571;
369.0000;1.0663;-5.1727;
369.3000;1.0753;-5.1597;
369.6000;1.0672;-5.1779;
369.9000;1.0712;-5.1701;
370.2000;1.0655;-5.1830;
370.5000;1.0704;-5.1727;
370.8000;1.0729;-5.1571;
371.1000;1.0712;-5.1571;
371.4000;1.0729;-5.1494;
371.7000;1.0704;-5.1571;
372.0000;1.0696;-5.1675;
372.3000;1.0712;-5.1675;
372.6000;1.0696;-5.1830;
372.9000;1.0704;-5.1779;
373.2000;1.0704;-5.1701;
373.5000;1.0696;-5.1727;
373.8000;1.0688;-5.1779;
374.1000;1.0696;-5.1753;
374.4000;1.0696;-5.1805;
374.7000;1.0688;-5.1779;
375.0000;1.0720;-5.1727;
375.3000;1.0704;-5.1727;
375.6000;1.0712;-5.1701;
375.9000;1.0696;-5.1753;
376.2000;1.0680;-5.1701;
376.5000;1.0712;-5.1701;
376.8000;1.0680;-5.1779;
377.1000;1.0680;-5.1882;
377.4000;1.0663;-5.1882;
377.7000;1.0647;-5.1882;
378.0000;1.0729;-5.1701;
378.3000;1.0672;-5.1830;
378.6000;1.0680;-5.1830;
378.9000;1.0680;-5.1830;
379.2000;1.0672;-5.1882;
379.5000;1.0672;-5.1830;
379.8000;1.0696;-5.1882;
380.1000;1.0696;-5.1882;
380.4000;1.0688;-5.1960;
380.7000;1.0680;-5.2038;
381.0000;1.0688;-5.2038;
381.3000;1.0696;-5.1856;
381.6000;1.0688;-5.1856;
381.9000;1.0663;-5.1908;
382.2000;1.0680;-5.1882;
382.5000;1.0688;-5.1986;
382.8000;1.0704;-5.1986;
383.1000;1.0737;-5.1830;
383.4000;1.0704;-5.1805;
383.7000;1.0696;-5.1727;
384.0000;1.0688;-5.1753;
384.3000;1.0680;-5.1753;
384.6000;1.0696;-5.1649;
384.9000;1.0688;-5.1649;
385.2000;1.0696;-5.1701;
385.5000;1.0647;-5.1908;
385.8000;1.0688;-5.1856;
386.1000;1.0688;-5.1882;
386.4000;1.0696;-5.1908;
386.7000;1.0696;-5.1882;
387.0000;1.0688;-5.1856;
387.3000;1.0688;-5.1805;
387.6000;1.0680;-5.1779;
387.9000;1.0712;-5.1675;
388.2000;1.0696;-5.1727;
388.5000;1.0688;-5.1856;
388.8000;1.0688;-5.1856;
389.1000;1.0704;-5.1753;
389.4000;1.0704;-5.1753;
389.7000;1.0696;-5.1805;
390.0000;1.0688;-5.1882;
390.3000;1.0704;-5.1908;
390.6000;1.0688;-5.2012;
390.9000;1.0680;-5.1986;
391.2000;1.0680;-5.1882;
391.5000;1.0696;-5.1856;
391.8000;1.0704;-5.1805;
392.1000;1.0696;-5.1727;
392.4000;1.0696;-5.1701;
392.7000;1.0688;-5.1623;
393.0000;1.0688;-5.1623;
393.3000;1.0704;-5.1571;
393.6000;1.0688;-5.1520;
393.9000;1.0696;-5.1649;
394.2000;1.0696;-5.1546;
394.5000;1.0696;-5.1623;
394.8000;1.0663;-5.1649;
395.1000;1.0688;-5.1597;
395.4000;1.0704;-5.1571;
395.7000;1.0696;-5.1623;
396.0000;1.0672;-5.1649;
396.3000;1.0688;-5.1649;
396.6000;1.0680;-5.1727;
396.9000;1.0688;-5.1779;
397.2000;1.0663;-5.1805;
397.5000;1.0680;-5.1649;
397.8000;1.0680;-5.1701;
398.1000;1.0704;-5.1649;
398.4000;1.0663;-5.1727;
398.7000;1.0696;-5.1597;
399.0000;1.0696;-5.1675;
399.3000;1.0696;-5.1649;
399.6000;1.0704;-5.1727;
399.9000;1.0688;-5.1701;
400.2000;1.0680;-5.1779;
400.5000;1.0672;-5.1727;
400.8000;1.0688;-5.1623;
401.1000;1.0663;-5.1779;
401.4000;1.0590;-5.1934;
401.7000;1.0623;-5.1960;
402.0000;1.0712;-5.1623;
402.3000;1.0672;-5.1597;
402.6000;1.0680;-5.1623;
402.9000;1.0680;-5.1701;
403.2000;1.0655;-5.1727;
403.5000;1.0688;-5.1701;
403.8000;1.0680;-5.1727;
404.1000;1.0696;-5.1546;
404.4000;1.0704;-5.1701;
404.7000;1.0655;-5.1779;
405.0000;1.0672;-5.1675;
405.3000;1.0672;-5.1675;
405.6000;1.0696;-5.1623;
405.9000;1.0680;-5.1727;
406.2000;1.0655;-5.1779;
406.5000;1.0688;-5.1649;
406.8000;1.0737;-5.1597;
407.1000;1.0680;-5.1727;
407.4000;1.0688;-5.1675;
407.7000;1.0680;-5.1701;
408.0000;1.0704;-5.1701;
408.3000;1.0704;-5.1649;
408.6000;1.0672;-5.1571;
408.9000;1.0688;-5.1546;
409.2000;1.0688;-5.1571;
409.5000;1.0712;-5.1571;
409.8000;1.0688;-5.1597;
410.1000;1.0680;-5.1597;
410.4000;1.0672;-5.1649;
410.7000;1.0696;-5.1649;
411.0000;1.0688;-5.1623;
411.3000;1.0672;-5.1753;
411.6000;1.0655;-5.1779;
411.9000;1.0696;-5.1701;
412.2000;1.0688;-5.1649;
412.5000;1.0696;-5.1701;
412.8000;1.0688;-5.1675;
413.1000;1.0680;-5.1649;
413.4000;1.0729;-5.1571;
413.7000;1.0672;-5.1623;
414.0000;1.0680;-5.1597;
414.3000;1.0704;-5.1546;
414.6000;1.0688;-5.1571;
414.9000;1.0680;-5.1623;
415.2000;1.0655;-5.1701;
415.5000;1.0672;-5.1571;
415.8000;1.0688;-5.1546;
416.1000;1.0672;-5.1597;
416.4000;1.0712;-5.1546;
416.7000;1.0631;-5.1882;
417.0000;1.0680;-5.1727;
417.3000;1.0704;-5.1675;
417.6000;1.0672;-5.1675;
417.9000;1.0696;-5.1701;
418.2000;1.0704;-5.1675;
418.5000;1.0696;-5.1753;
418.8000;1.0696;-5.1779;
419.1000;1.0680;-5.1753;
419.4000;1.0704;-5.1753;
419.7000;1.0720;-5.1753;
420.0000;1.0696;-5.1727;
420.3000;1.0680;-5.1779;
420.6000;1.0680;-5.1675;
420.9000;1.0696;-5.1571;
421.2000;1.0672;-5.1546;
421.5000;1.0688;-5.1494;
421.8000;1.0680;-5.1597;
422.1000;1.0704;-5.1623;
422.4000;1.0688;-5.1675;
422.7000;1.0680;-5.1779;
423.0000;1.0615;-5.1960;
423.3000;1.0647;-5.1830;
423.6000;1.0663;-5.1830;
423.9000;1.0623;-5.1908;
424.2000;1.0729;-5.1779;
424.5000;1.0777;-5.1675;
424.8000;1.0720;-5.1727;
425.1000;1.0696;-5.1649;
425.4000;1.0737;-5.1571;
425.7000;1.0696;-5.1701;
426.0000;1.0688;-5.1779;
426.3000;1.0688;-5.1805;
426.6000;1.0680;-5.1805;
426.9000;1.0655;-5.1908;
427.2000;1.0680;-5.1753;
427.5000;1.0663;-5.1753;
427.8000;1.0688;-5.1727;
428.1000;1.0688;-5.1779;
428.4000;1.0688;-5.1830;
428.7000;1.0712;-5.1727;
429.0000;1.0680;-5.1753;
429.3000;1.0696;-5.1727;
429.6000;1.0655;-5.1805;
429.9000;1.0655;-5.1830;
430.2000;1.0688;-5.1727;
430.5000;1.0672;-5.1675;
430.8000;1.0680;-5.1753;
431.1000;1.0696;-5.1753;
431.4000;1.0672;-5.1753;
431.7000;1.0672;-5.1753;
432.0000;1.0680;-5.1701;
432.3000;1.0672;-5.1701;
432.6000;1.0680;-5.1623;
432.9000;1.0688;-5.1623;
433.2000;1.0696;-5.1649;
433.5000;1.0688;-5.1675;
433.8000;1.0696;-5.1571;
434.1000;1.0672;-5.1571;
434.4000;1.0663;-5.1597;
434.7000;1.0680;-5.1597;
435.0000;1.0672;-5.1494;
435.3000;1.0696;-5.1494;
435.6000;1.0672;-5.1571;
435.9000;1.0672;-5.1623;
436.2000;1.0688;-5.1623;
436.5000;1.0696;-5.1623;
436.8000;1.0672;-5.1675;
437.1000;1.0672;-5.1779;
437.4000;1.0655;-5.1856;
437.7000;1.0623;-5.1830;
438.0000;1.0688;-5.1701;
438.3000;1.0680;-5.1649;
438.6000;1.0712;-5.1520;
438.9000;1.0680;-5.1571;
439.2000;1.0696;-5.1571;
439.5000;1.0680;-5.1597;
439.8000;1.0663;-5.1597;
440.1000;1.0623;-5.1701;
440.4000;1.0680;-5.1546;
440.7000;1.0672;-5.1597;
441.0000;1.0680;-5.1675;
441.3000;1.0663;-5.1701;
441.6000;1.0680;-5.1597;
441.9000;1.0672;-5.1701;
442.2000;1.0663;-5.1753;
442.5000;1.0680;-5.1753;
442.8000;1.0672;-5.1727;
443.1000;1.0688;-5.1649;
443.4000;1.0688;-5.1701;
443.7000;1.0696;-5.1675;
444.0000;1.0704;-5.1675;
444.3000;1.0704;-5.1675;
444.6000;1.0696;-5.1753;
444.9000;1.0688;-5.1701;
445.2000;1.0720;-5.1623;
445.5000;1.0688;-5.1727;
445.8000;1.0672;-5.1675;
446.1000;1.0680;-5.1649;
446.4000;1.0672;-5.1649;
446.7000;1.0663;-5.1597;
447.0000;1.0639;-5.1649;
447.3000;1.0663;-5.1701;
447.6000;1.0663;-5.1753;
447.9000;1.0688;-5.1727;
448.2000;1.0672;-5.1727;
448.5000;1.0737;-5.1520;
448.8000;1.0663;-5.1597;
449.1000;1.0688;-5.1597;
449.4000;1.0680;-5.1701;
449.7000;1.0672;-5.1779;
450.0000;1.0688;-5.1753;
450.3000;1.0672;-5.1753;
450.6000;1.0680;-5.1727;
450.9000;1.0663;-5.1649;
451.2000;1.0688;-5.1546;
451.5000;1.0672;-5.1675;
451.8000;1.0680;-5.1727;
452.1000;1.0672;-5.1675;
452.4000;1.0672;-5.1623;
452.7000;1.0680;-5.1623;
453.0000;1.0696;-5.1623;
453.3000;1.0655;-5.1701;
453.6000;1.0688;-5.1649;
453.9000;1.0704;-5.1701;
454.2000;1.0696;-5.1649;
454.5000;1.0688;-5.1623;
454.8000;1.0696;-5.1546;
455.1000;1.0647;-5.1701;
455.4000;1.0680;-5.1597;
455.7000;1.0720;-5.1520;
456.0000;1.0696;-5.1546;
456.3000;1.0696;-5.1520;
456.6000;1.0680;-5.1597;
456.9000;1.0696;-5.1520;
457.2000;1.0631;-5.1753;
457.5000;1.0655;-5.1753;
457.8000;1.0696;-5.1623;
458.1000;1.0696;-5.1649;
458.4000;1.0680;-5.1649;
458.7000;1.0663;-5.1675;
459.0000;1.0729;-5.1520;
459.3000;1.0688;-5.1520;
459.6000;1.0688;-5.1546;
459.9000;1.0680;-5.1546;
460.2000;1.0672;-5.1546;
460.5000;1.0696;-5.1494;
460.8000;1.0680;-5.1520;
461.1000;1.0729;-5.1416;
461.4000;1.0729;-5.1390;
461.7000;1.0729;-5.1468;
462.0000;1.0672;-5.1623;
462.3000;1.0680;-5.1649;
462.6000;1.0672;-5.1675;
462.9000;1.0672;-5.1701;
463.2000;1.0688;-5.1675;
463.5000;1.0680;-5.1675;
463.8000;1.0655;-5.1727;
464.1000;1.0672;-5.1753;
464.4000;1.0680;-5.1675;
464.7000;1.0672;-5.1597;
465.0000;1.0688;-5.1649;
465.3000;1.0663;-5.1675;
465.6000;1.0680;-5.1701;
465.9000;1.0696;-5.1649;
466.2000;1.0680;-5.1597;
466.5000;1.0680;-5.1597;
466.8000;1.0680;-5.1649;
467.1000;1.0680;-5.1649;
467.4000;1.0663;-5.1675;
467.7000;1.0672;-5.1597;
468.0000;1.0672;-5.1520;
468.3000;1.0672;-5.1494;
468.6000;1.0688;-5.1520;
468.9000;1.0663;-5.1520;
469.2000;1.0688;-5.1494;
469.5000;1.0688;-5.1390;
469.8000;1.0663;-5.1390;
470.1000;1.0647;-5.1442;
470.4000;1.0680;-5.1468;
470.7000;1.0688;-5.1468;
471.0000;1.0672;-5.1494;
471.3000;1.0655;-5.1520;
471.6000;1.0720;-5.1390;
471.9000;1.0680;-5.1416;
472.2000;1.0696;-5.1468;
472.5000;1.0672;-5.1494;
472.8000;1.0680;-5.1546;
473.1000;1.0663;-5.1520;
473.4000;1.0680;-5.1520;
473.7000;1.0672;-5.1571;
474.0000;1.0647;-5.1675;
474.3000;1.0680;-5.1520;
474.6000;1.0680;-5.1520;
474.9000;1.0688;-5.1546;
475.2000;1.0663;-5.1546;
475.5000;1.0672;-5.1571;
475.8000;1.0696;-5.1597;
476.1000;1.0696;-5.1571;
476.4000;1.0688;-5.1520;
476.7000;1.0737;-5.1390;
477.0000;1.0680;-5.1649;
477.3000;1.0688;-5.1546;
477.6000;1.0680;-5.1597;
477.9000;1.0672;-5.1494;
478.2000;1.0672;-5.1468;
478.5000;1.0672;-5.1494;
478.8000;1.0680;-5.1546;
479.1000;1.0696;-5.1571;
479.4000;1.0672;-5.1546;
479.7000;1.0802;-5.1312;
480.0000;1.0720;-5.1468;
480.3000;1.0672;-5.1597;
480.6000;1.0680;-5.1571;
480.9000;1.0680;-5.1442;
481.2000;1.0672;-5.1416;
481.5000;1.0663;-5.1546;
481.8000;1.0672;-5.1468;
482.1000;1.0696;-5.1494;
482.4000;1.0647;-5.1623;
482.7000;1.0688;-5.1520;
483.0000;1.0680;-5.1546;
483.3000;1.0680;-5.1520;
483.6000;1.0655;-5.1597;
483.9000;1.0663;-5.1623;
484.2000;1.0688;-5.1649;
484.5000;1.0672;-5.1546;
484.8000;1.0672;-5.1494;
485.1000;1.0704;-5.1338;
485.4000;1.0672;-5.1468;
485.7000;1.0663;-5.1442;
486.0000;1.0680;-5.1390;
486.3000;1.0615;-5.1649;
486.6000;1.0663;-5.1494;
486.9000;1.0737;-5.1338;
487.2000;1.0672;-5.1546;
487.5000;1.0639;-5.1623;
487.8000;1.0672;-5.1623;
488.1000;1.0672;-5.1571;
488.4000;1.0688;-5.1520;
488.7000;1.0688;-5.1546;
489.0000;1.0663;-5.1520;
489.3000;1.0680;-5.1520;
489.6000;1.0688;-5.1546;
489.9000;1.0688;-5.1546;
490.2000;1.0680;-5.1571;
490.5000;1.0680;-5.1442;
490.8000;1.0663;-5.1416;
491.1000;1.0680;-5.1390;
491.4000;1.0655;-5.1442;
491.7000;1.0663;-5.1520;
492.0000;1.0680;-5.1571;
492.3000;1.0639;-5.1675;
492.6000;1.0688;-5.1649;
492.9000;1.0672;-5.1753;
493.2000;1.0655;-5.1727;
493.5000;1.0647;-5.1727;
493.8000;1.0680;-5.1701;
494.1000;1.0680;-5.1701;
494.4000;1.0672;-5.1649;
494.7000;1.0720;-5.1597;
495.0000;1.0688;-5.1727;
495.3000;1.0672;-5.1701;
495.6000;1.0663;-5.1623;
495.9000;1.0680;-5.1597;
496.2000;1.0680;-5.1571;
496.5000;1.0680;-5.1520;
496.8000;1.0680;-5.1597;
497.1000;1.0688;-5.1571;
497.4000;1.0680;-5.1546;
497.7000;1.0688;-5.1520;
498.0000;1.0729;-5.1416;
498.3000;1.0672;-5.1571;
498.6000;1.0647;-5.1623;
498.9000;1.0688;-5.1571;
499.2000;1.0672;-5.1520;
499.5000;1.0655;-5.1494;
499.8000;1.0663;-5.1494;
500.1000;1.0672;-5.1494;
500.4000;1.0663;-5.1468;
500.7000;1.0663;-5.1416;
501.0000;1.0672;-5.1416;
501.3000;1.0688;-5.1442;
501.6000;1.0680;-5.1520;
501.9000;1.0672;-5.1468;
502.2000;1.0647;-5.1571;
502.5000;1.0680;-5.1468;
502.8000;1.0672;-5.1494;
503.1000;1.0672;-5.1494;
503.4000;1.0663;-5.1520;
503.7000;1.0680;-5.1546;
504.0000;1.0704;-5.1468;
504.3000;1.0672;-5.1546;
504.6000;1.0680;-5.1442;
504.9000;1.0680;-5.1390;
505.2000;1.0680;-5.1390;
505.5000;1.0647;-5.1520;
505.8000;1.0696;-5.1338;
506.1000;1.0672;-5.1390;
506.4000;1.0672;-5.1390;
506.7000;1.0696;-5.1312;
507.0000;1.0680;-5.1338;
507.3000;1.0672;-5.1338;
507.6000;1.0672;-5.1364;
507.9000;1.0672;-5.1287;
508.2000;1.0672;-5.1235;
508.5000;1.0680;-5.1312;
508.8000;1.0704;-5.1183;
509.1000;1.0672;-5.1157;
509.4000;1.0623;-5.1312;
509.7000;1.0680;-5.1235;
510.0000;1.0655;-5.1287;
510.3000;1.0663;-5.1312;
510.6000;1.0663;-5.1312;
510.9000;1.0663;-5.1364;
511.2000;1.0647;-5.1390;
511.5000;1.0663;-5.1364;
511.8000;1.0663;-5.1364;
512.1000;1.0680;-5.1364;
512.4000;1.0672;-5.1364;
512.7000;1.0680;-5.1416;
513.0000;1.0672;-5.1390;
513.3000;1.0672;-5.1364;
513.6000;1.0680;-5.1338;
513.9000;1.0696;-5.1364;
514.2000;1.0639;-5.1546;
514.5000;1.0712;-5.1442;
514.8000;1.0680;-5.1597;
515.1000;1.0672;-5.1623;
515.4000;1.0680;-5.1546;
515.7000;1.0672;-5.1494;
516.0000;1.0672;-5.1494;
516.3000;1.0606;-5.1675;
516.6000;1.0680;-5.1390;
516.9000;1.0672;-5.1338;
517.2000;1.0704;-5.1312;
517.5000;1.0663;-5.1416;
517.8000;1.0696;-5.1338;
518.1000;1.0688;-5.1416;
518.4000;1.0826;-5.1002;
518.7000;1.0672;-5.1338;
519.0000;1.0680;-5.1338;
519.3000;1.0672;-5.1364;
519.6000;1.0663;-5.1364;
519.9000;1.0663;-5.1416;
520.2000;1.0655;-5.1468;
520.5000;1.0688;-5.1494;
520.8000;1.0688;-5.1546;
521.1000;1.0655;-5.1701;
521.4000;1.0663;-5.1649;
521.7000;1.0631;-5.1675;
522.0000;1.0688;-5.1520;
522.3000;1.0696;-5.1468;
522.6000;1.0672;-5.1468;
522.9000;1.0688;-5.1312;
523.2000;1.0688;-5.1390;
523.5000;1.0688;-5.1416;
523.8000;1.0680;-5.1468;
524.1000;1.0672;-5.1520;
524.4000;1.0680;-5.1416;
524.7000;1.0647;-5.1390;
525.0000;1.0663;-5.1338;
525.3000;1.0663;-5.1390;
525.6000;1.0672;-5.1390;
525.9000;1.0672;-5.1364;
526.2000;1.0696;-5.1364;
526.5000;1.0672;-5.1442;
526.8000;1.0631;-5.1546;
527.1000;1.0663;-5.1416;
527.4000;1.0663;-5.1390;
527.7000;1.0663;-5.1338;
528.0000;1.0598;-5.1468;
528.3000;1.0696;-5.1183;
528.6000;1.0655;-5.1261;
528.9000;1.0663;-5.1287;
529.2000;1.0631;-5.1364;
529.5000;1.0655;-5.1235;
529.8000;1.0672;-5.1183;
530.1000;1.0663;-5.1209;
530.4000;1.0647;-5.1157;
530.7000;1.0639;-5.1157;
531.0000;1.0663;-5.1028;
531.3000;1.0688;-5.1053;
531.6000;1.0680;-5.1131;
531.9000;1.0672;-5.1157;
532.2000;1.0680;-5.1235;
532.5000;1.0688;-5.1261;
532.8000;1.0639;-5.1494;
533.1000;1.0663;-5.1416;
533.4000;1.0590;-5.1546;
533.7000;1.0582;-5.1494;
534.0000;1.0712;-5.1209;
534.3000;1.0680;-5.1364;
534.6000;1.0672;-5.1390;
534.9000;1.0672;-5.1338;
535.2000;1.0688;-5.1209;
535.5000;1.0631;-5.1390;
535.8000;1.0704;-5.1312;
536.1000;1.0672;-5.1442;
536.4000;1.0696;-5.1416;
536.7000;1.0663;-5.1468;
537.0000;1.0655;-5.1494;
537.3000;1.0639;-5.1571;
537.6000;1.0672;-5.1546;
537.9000;1.0672;-5.1546;
538.2000;1.0680;-5.1546;
538.5000;1.0672;-5.1520;
538.8000;1.0672;-5.1494;
539.1000;1.0663;-5.1468;
539.4000;1.0655;-5.1571;
539.7000;1.0631;-5.1701;
540.0000;1.0672;-5.1623;
540.3000;1.0647;-5.1701;
540.6000;1.0623;-5.1856;
540.9000;1.0680;-5.1779;
541.2000;1.0663;-5.1753;
541.5000;1.0720;-5.1597;
541.8000;1.0655;-5.1779;
542.1000;1.0663;-5.1753;
542.4000;1.0663;-5.1779;
542.7000;1.0672;-5.1727;
543.0000;1.0655;-5.1675;
543.3000;1.0663;-5.1623;
543.6000;1.0672;-5.1597;
543.9000;1.0672;-5.1623;
544.2000;1.0672;-5.1597;
544.5000;1.0655;-5.1571;
544.8000;1.0672;-5.1546;
545.1000;1.0655;-5.1623;
545.4000;1.0647;-5.1597;
545.7000;1.0639;-5.1623;
546.0000;1.0655;-5.1520;
546.3000;1.0663;-5.1546;
546.6000;1.0655;-5.1520;
546.9000;1.0655;-5.1546;
547.2000;1.0655;-5.1468;
547.5000;1.0672;-5.1390;
547.8000;1.0680;-5.1261;
548.1000;1.0712;-5.1287;
548.4000;1.0680;-5.1390;
548.7000;1.0655;-5.1416;
549.0000;1.0672;-5.1468;
549.3000;1.0688;-5.1390;
549.6000;1.0672;-5.1338;
549.9000;1.0680;-5.1312;
550.2000;1.0672;-5.1338;
550.5000;1.0680;-5.1312;
550.8000;1.0663;-5.1287;
551.1000;1.0663;-5.1261;
551.4000;1.0672;-5.1312;
551.7000;1.0672;-5.1338;
552.0000;1.0655;-5.1442;
552.3000;1.0623;-5.1494;
552.6000;1.0688;-5.1338;
552.9000;1.0680;-5.1390;
553.2000;1.0655;-5.1494;
553.5000;1.0663;-5.1520;
553.8000;1.0672;-5.1571;
554.1000;1.0672;-5.1520;
554.4000;1.0663;-5.1649;
554.7000;1.0688;-5.1546;
555.0000;1.0672;-5.1520;
555.3000;1.0688;-5.1468;
555.6000;1.0688;-5.1494;
555.9000;1.0688;-5.1442;
556.2000;1.0647;-5.1494;
556.5000;1.0753;-5.1287;
556.8000;1.0582;-5.1701;
557.1000;1.0647;-5.1623;
557.4000;1.0680;-5.1571;
557.7000;1.0680;-5.1520;
558.0000;1.0672;-5.1468;
558.3000;1.0672;-5.1442;
558.6000;1.0663;-5.1338;
558.9000;1.0672;-5.1312;
559.2000;1.0672;-5.1312;
559.5000;1.0663;-5.1312;
559.8000;1.0639;-5.1416;
560.1000;1.0672;-5.1364;
560.4000;1.0663;-5.1338;
560.7000;1.0672;-5.1390;
561.0000;1.0672;-5.1416;
561.3000;1.0672;-5.1416;
561.6000;1.0680;-5.1442;
561.9000;1.0680;-5.1416;
562.2000;1.0672;-5.1468;
562.5000;1.0672;-5.1442;
562.8000;1.0672;-5.1468;
563.1000;1.0680;-5.1442;
563.4000;1.0672;-5.1442;
563.7000;1.0696;-5.1494;
564.0000;1.0696;-5.1468;
564.3000;1.0688;-5.1312;
564.6000;1.0672;-5.1287;
564.9000;1.0663;-5.1338;
565.2000;1.0663;-5.1468;
565.5000;1.0680;-5.1390;
565.8000;1.0704;-5.1416;
566.1000;1.0688;-5.1442;
566.4000;1.0663;-5.1468;
566.7000;1.0672;-5.1520;
567.0000;1.0663;-5.1468;
567.3000;1.0655;-5.1442;
567.6000;1.0655;-5.1442;
567.9000;1.0663;-5.1390;
568.2000;1.0663;-5.1338;
568.5000;1.0663;-5.1364;
568.8000;1.0655;-5.1442;
569.1000;1.0663;-5.1416;
569.4000;1.0672;-5.1468;
569.7000;1.0712;-5.1338;
570.0000;1.0663;-5.1468;
570.3000;1.0680;-5.1468;
570.6000;1.0663;-5.1520;
570.9000;1.0663;-5.1416;
571.2000;1.0655;-5.1416;
571.5000;1.0639;-5.1442;
571.8000;1.0680;-5.1390;
572.1000;1.0663;-5.1416;
572.4000;1.0639;-5.1520;
572.7000;1.0663;-5.1546;
573.0000;1.0680;-5.1468;
573.3000;1.0680;-5.1442;
573.6000;1.0672;-5.1468;
573.9000;1.0663;-5.1416;
574.2000;1.0655;-5.1442;
574.5000;1.0672;-5.1416;
574.8000;1.0672;-5.1416;
575.1000;1.0672;-5.1364;
575.4000;1.0680;-5.1338;
575.7000;1.0606;-5.1520;
576.0000;1.0704;-5.1364;
576.3000;1.0615;-5.1546;
576.6000;1.0680;-5.1390;
576.9000;1.0655;-5.1416;
577.2000;1.0672;-5.1338;
577.5000;1.0655;-5.1364;
577.8000;1.0655;-5.1312;
578.1000;1.0672;-5.1287;
578.4000;1.0655;-5.1287;
578.7000;1.0655;-5.1338;
579.0000;1.0631;-5.1364;
579.3000;1.0688;-5.1235;
579.6000;1.0663;-5.1235;
579.9000;1.0672;-5.1209;
580.2000;1.0615;-5.1338;
580.5000;1.0590;-5.1468;
580.8000;1.0663;-5.1312;
581.1000;1.0680;-5.1338;
581.4000;1.0655;-5.1364;
581.7000;1.0655;-5.1338;
582.0000;1.0647;-5.1494;
582.3000;1.0647;-5.1494;
582.6000;1.0663;-5.1468;
582.9000;1.0655;-5.1442;
583.2000;1.0663;-5.1416;
583.5000;1.0720;-5.1338;
583.8000;1.0655;-5.1468;
584.1000;1.0663;-5.1416;
584.4000;1.0663;-5.1416;
584.7000;1.0663;-5.1338;
585.0000;1.0663;-5.1390;
585.3000;1.0655;-5.1364;
585.6000;1.0672;-5.1287;
585.9000;1.0663;-5.1416;
586.2000;1.0655;-5.1416;
586.5000;1.0672;-5.1312;
586.8000;1.0647;-5.1312;
587.1000;1.0672;-5.1287;
587.4000;1.0647;-5.1338;
587.7000;1.0647;-5.1364;
588.0000;1.0655;-5.1364;
588.3000;1.0663;-5.1338;
588.6000;1.0672;-5.1468;
588.9000;1.0663;-5.1494;
589.2000;1.0655;-5.1546;
589.5000;1.0647;-5.1597;
589.8000;1.0663;-5.1623;
590.1000;1.0655;-5.1649;
590.4000;1.0663;-5.1597;
590.7000;1.0680;-5.1520;
591.0000;1.0680;-5.1494;
591.3000;1.0680;-5.1416;
591.6000;1.0712;-5.1390;
591.9000;1.0688;-5.1442;
592.2000;1.0672;-5.1546;
592.5000;1.0598;-5.1701;
592.8000;1.0655;-5.1494;
593.1000;1.0655;-5.1416;
593.4000;1.0672;-5.1442;
593.7000;1.0663;-5.1520;
594.0000;1.0672;-5.1468;
594.3000;1.0655;-5.1468;
594.6000;1.0663;-5.1520;
594.9000;1.0672;-5.1416;
595.2000;1.0663;-5.1416;
595.5000;1.0663;-5.1338;
595.8000;1.0647;-5.1287;
596.1000;1.0663;-5.1261;
596.4000;1.0647;-5.1390;
596.7000;1.0672;-5.1364;
597.0000;1.0647;-5.1416;
597.3000;1.0663;-5.1312;
597.6000;1.0647;-5.1442;
597.9000;1.0647;-5.1442;
598.2000;1.0655;-5.1364;
598.5000;1.0647;-5.1468;
598.8000;1.0663;-5.1494;
599.1000;1.0655;-5.1520;
599.4000;1.0663;-5.1468;
599.7000;1.0639;-5.1520;
600.0000;1.0631;-5.1571;
600.3000;1.0720;-5.1571;
600.6000;1.0647;-5.1960;
600.9000;1.0606;-5.2271;
601.2000;1.0541;-5.2608;
601.5000;1.0460;-5.2892;
601.8000;1.0362;-5.3126;
602.1000;1.0281;-5.3411;
602.4000;1.0199;-5.3488;
602.7000;1.0126;-5.3644;
603.0000;1.0028;-5.3877;
603.3000;0.9963;-5.3980;
603.6000;0.9906;-5.4110;
603.9000;0.9833;-5.4188;
604.2000;0.9776;-5.4343;
604.5000;0.9703;-5.4473;
604.8000;0.9654;-5.4628;
605.1000;0.9630;-5.4628;
605.4000;0.9556;-5.4706;
605.7000;0.9516;-5.4732;
606.0000;0.9467;-5.4835;
606.3000;0.9426;-5.4861;
606.6000;0.9394;-5.4887;
606.9000;0.9304;-5.5120;
607.2000;0.9288;-5.5224;
607.5000;0.9255;-5.5172;
607.8000;0.9214;-5.5250;
608.1000;0.9166;-5.5379;
608.4000;0.9158;-5.5301;
608.7000;0.9109;-5.5379;
609.0000;0.9060;-5.5431;
609.3000;0.9035;-5.5379;
609.6000;0.9019;-5.5301;
609.9000;0.8970;-5.5405;
610.2000;0.8954;-5.5327;
610.5000;0.8987;-5.5250;
610.8000;0.8864;-5.5353;
611.1000;0.8840;-5.5405;
611.4000;0.8840;-5.5405;
611.7000;0.8783;-5.5509;
612.0000;0.8759;-5.5586;
612.3000;0.8734;-5.5612;
612.6000;0.8710;-5.5664;
612.9000;0.8685;-5.5638;
613.2000;0.8661;-5.5638;
613.5000;0.8628;-5.5716;
613.8000;0.8628;-5.5664;
614.1000;0.8612;-5.5664;
614.4000;0.8571;-5.5664;
614.7000;0.8531;-5.5768;
615.0000;0.8514;-5.5742;
615.3000;0.8498;-5.5845;
615.6000;0.8498;-5.5768;
615.9000;0.8457;-5.5819;
616.2000;0.8449;-5.5871;
616.5000;0.8425;-5.5923;
616.8000;0.8392;-5.5975;
617.1000;0.8368;-5.6027;
617.4000;0.8360;-5.6053;
617.7000;0.8335;-5.6053;
618.0000;0.8327;-5.6078;
618.3000;0.8311;-5.6156;
618.6000;0.8270;-5.6104;
618.9000;0.8287;-5.6053;
619.2000;0.8270;-5.5923;
619.5000;0.8246;-5.5923;
619.8000;0.8221;-5.5949;
620.1000;0.8205;-5.5949;
620.4000;0.8205;-5.5897;
620.7000;0.8189;-5.5845;
621.0000;0.8164;-5.5897;
621.3000;0.8148;-5.6001;
621.6000;0.8132;-5.6027;
621.9000;0.8091;-5.6208;
622.2000;0.8124;-5.6078;
622.5000;0.8091;-5.6130;
622.8000;0.8075;-5.6078;
623.1000;0.8075;-5.6001;
623.4000;0.8059;-5.5949;
623.7000;0.8026;-5.5949;
624.0000;0.8148;-5.5638;
624.3000;0.8018;-5.5794;
624.6000;0.8002;-5.5923;
624.9000;0.7993;-5.5845;
625.2000;0.7969;-5.5871;
625.5000;0.7961;-5.5794;
625.8000;0.7961;-5.5716;
626.1000;0.7920;-5.5768;
626.4000;0.7863;-5.5923;
626.7000;0.7912;-5.5871;
627.0000;0.7912;-5.5897;
627.3000;0.7920;-5.5897;
627.6000;0.7880;-5.5949;
627.9000;0.7880;-5.5949;
628.2000;0.7871;-5.5975;
628.5000;0.7847;-5.5975;
628.8000;0.7847;-5.6027;
629.1000;0.7831;-5.6001;
629.4000;0.7831;-5.6053;
629.7000;0.7823;-5.6078;
630.0000;0.7823;-5.6130;
630.3000;0.7790;-5.6208;
630.6000;0.7749;-5.6337;
630.9000;0.7782;-5.6182;
631.2000;0.7766;-5.6234;
631.5000;0.7766;-5.6182;
631.8000;0.7766;-5.6130;
632.1000;0.7757;-5.6130;
632.4000;0.7766;-5.6156;
632.7000;0.7717;-5.6260;
633.0000;0.7700;-5.6260;
633.3000;0.7692;-5.6286;
633.6000;0.7660;-5.6286;
633.9000;0.7684;-5.6182;
634.2000;0.7643;-5.6312;
634.5000;0.7676;-5.6156;
634.8000;0.7660;-5.6182;
635.1000;0.7652;-5.6260;
635.4000;0.7676;-5.6234;
635.7000;0.7619;-5.6260;
636.0000;0.7619;-5.6260;
636.3000;0.7619;-5.6182;
636.6000;0.7603;-5.6260;
636.9000;0.7611;-5.6260;
637.2000;0.7595;-5.6337;
637.5000;0.7611;-5.6286;
637.8000;0.7586;-5.6260;
638.1000;0.7603;-5.6234;
638.4000;0.7578;-5.6286;
638.7000;0.7562;-5.6286;
639.0000;0.7538;-5.6312;
639.3000;0.7521;-5.6286;
639.6000;0.7538;-5.6312;
639.9000;0.7538;-5.6441;
640.2000;0.7538;-5.6415;
640.5000;0.7530;-5.6519;
640.8000;0.7530;-5.6389;
641.1000;0.7521;-5.6389;
641.4000;0.7505;-5.6467;
641.7000;0.7505;-5.6415;
642.0000;0.7521;-5.6337;
642.3000;0.7489;-5.6312;
642.6000;0.7570;-5.6182;
642.9000;0.7481;-5.6415;
643.2000;0.7473;-5.6337;
643.5000;0.7464;-5.6441;
643.8000;0.7448;-5.6415;
644.1000;0.7464;-5.6363;
644.4000;0.7440;-5.6441;
644.7000;0.7432;-5.6415;
645.0000;0.7456;-5.6389;
645.3000;0.7424;-5.6441;
645.6000;0.7416;-5.6389;
645.9000;0.7407;-5.6441;
646.2000;0.7440;-5.6286;
646.5000;0.7407;-5.6415;
646.8000;0.7407;-5.6415;
647.1000;0.7399;-5.6337;
647.4000;0.7383;-5.6467;
647.7000;0.7424;-5.6286;
648.0000;0.7383;-5.6337;
648.3000;0.7391;-5.6312;
648.6000;0.7391;-5.6415;
648.9000;0.7367;-5.6363;
649.2000;0.7350;-5.6415;
649.5000;0.7350;-5.6312;
649.8000;0.7350;-5.6234;
650.1000;0.7326;-5.6286;
650.4000;0.7334;-5.6208;
650.7000;0.7334;-5.6182;
651.0000;0.7326;-5.6182;
651.3000;0.7359;-5.6156;
651.6000;0.7326;-5.6260;
651.9000;0.7302;-5.6337;
652.2000;0.7318;-5.6415;
652.5000;0.7310;-5.6441;
652.8000;0.7293;-5.6545;
653.1000;0.7302;-5.6493;
653.4000;0.7285;-5.6519;
653.7000;0.7302;-5.6493;
654.0000;0.7293;-5.6493;
654.3000;0.7253;-5.6467;
654.6000;0.7253;-5.6493;
654.9000;0.7253;-5.6337;
655.2000;0.7245;-5.6234;
655.5000;0.7245;-5.6337;
655.8000;0.7236;-5.6312;
656.1000;0.7253;-5.6234;
656.4000;0.7253;-5.6260;
656.7000;0.7245;-5.6286;
657.0000;0.7245;-5.6286;
657.3000;0.7220;-5.6337;
657.6000;0.7228;-5.6286;
657.9000;0.7228;-5.6337;
658.2000;0.7196;-5.6415;
658.5000;0.7196;-5.6493;
658.8000;0.7212;-5.6519;
659.1000;0.7204;-5.6519;
659.4000;0.7212;-5.6493;
659.7000;0.7196;-5.6519;
660.0000;0.7204;-5.6441;
660.3000;0.7163;-5.6545;
660.6000;0.7188;-5.6415;
660.9000;0.7179;-5.6545;
661.2000;0.7179;-5.6545;
661.5000;0.7171;-5.6571;
661.8000;0.7155;-5.6597;
662.1000;0.7155;-5.6493;
662.4000;0.7147;-5.6493;
662.7000;0.7188;-5.6389;
663.0000;0.7155;-5.6415;
663.3000;0.7139;-5.6467;
663.6000;0.7123;-5.6441;
663.9000;0.7114;-5.6493;
664.2000;0.7123;-5.6441;
664.5000;0.7123;-5.6493;
664.8000;0.7131;-5.6415;
665.1000;0.7123;-5.6519;
665.4000;0.7114;-5.6467;
665.7000;0.7074;-5.6467;
666.0000;0.7090;-5.6415;
666.3000;0.7106;-5.6415;
666.6000;0.7188;-5.6234;
666.9000;0.7090;-5.6441;
667.2000;0.7106;-5.6545;
667.5000;0.7082;-5.6571;
667.8000;0.7090;-5.6571;
668.1000;0.7082;-5.6571;
668.4000;0.7066;-5.6648;
668.7000;0.7066;-5.6545;
669.0000;0.7049;-5.6571;
669.3000;0.7082;-5.6493;
669.6000;0.7066;-5.6467;
669.9000;0.7057;-5.6493;
670.2000;0.7066;-5.6363;
670.5000;0.7049;-5.6363;
670.8000;0.6992;-5.6545;
671.1000;0.7033;-5.6493;
671.4000;0.7041;-5.6467;
671.7000;0.7033;-5.6415;
672.0000;0.7041;-5.6363;
672.3000;0.6911;-5.6700;
672.6000;0.6984;-5.6493;
672.9000;0.7017;-5.6467;
673.2000;0.6976;-5.6545;
673.5000;0.7025;-5.6441;
673.8000;0.7000;-5.6415;
674.1000;0.7049;-5.6286;
674.4000;0.7017;-5.6337;
674.7000;0.6992;-5.6493;
675.0000;0.7009;-5.6415;
675.3000;0.6984;-5.6389;
675.6000;0.6992;-5.6545;
675.9000;0.6976;-5.6597;
676.2000;0.6976;-5.6674;
676.5000;0.6943;-5.6700;
676.8000;0.6984;-5.6622;
677.1000;0.6976;-5.6674;
677.4000;0.6919;-5.6752;
677.7000;0.6984;-5.6545;
678.0000;0.6984;-5.6493;
678.3000;0.6968;-5.6597;
678.6000;0.7009;-5.6441;
678.9000;0.6968;-5.6519;
679.2000;0.6960;-5.6493;
679.5000;0.6984;-5.6493;
679.8000;0.6943;-5.6648;
680.1000;0.6935;-5.6571;
680.4000;0.6943;-5.6597;
680.7000;0.6943;-5.6519;
681.0000;0.6943;-5.6545;
681.3000;0.6927;-5.6648;
681.6000;0.6927;-5.6648;
681.9000;0.6943;-5.6622;
682.2000;0.6919;-5.6622;
682.5000;0.6911;-5.6571;
682.8000;0.6927;-5.6441;
683.1000;0.6911;-5.6467;
683.4000;0.6919;-5.6415;
683.7000;0.6911;-5.6467;
684.0000;0.6911;-5.6519;
684.3000;0.6911;-5.6597;
684.6000;0.6911;-5.6622;
684.9000;0.6878;-5.6622;
685.2000;0.6878;-5.6622;
685.5000;0.6862;-5.6648;
685.8000;0.6870;-5.6622;
686.1000;0.6870;-5.6597;
686.4000;0.6870;-5.6597;
686.7000;0.6886;-5.6571;
687.0000;0.6895;-5.6545;
687.3000;0.6886;-5.6467;
687.6000;0.6886;-5.6441;
687.9000;0.6870;-5.6493;
688.2000;0.6870;-5.6519;
688.5000;0.6870;-5.6571;
688.8000;0.6878;-5.6622;
689.1000;0.6862;-5.6597;
689.4000;0.6854;-5.6545;
689.7000;0.6862;-5.6597;
690.0000;0.6854;-5.6571;
690.3000;0.6838;-5.6622;
690.6000;0.6846;-5.6648;
690.9000;0.6846;-5.6674;
691.2000;0.6781;-5.6778;
691.5000;0.6846;-5.6622;
691.8000;0.6854;-5.6571;
692.1000;0.6862;-5.6519;
692.4000;0.6838;-5.6622;
692.7000;0.6821;-5.6700;
693.0000;0.6838;-5.6622;
693.3000;0.6821;-5.6648;
693.6000;0.6838;-5.6571;
693.9000;0.6829;-5.6545;
694.2000;0.6821;-5.6519;
694.5000;0.6829;-5.6571;
694.8000;0.6805;-5.6545;
695.1000;0.6805;-5.6545;
695.4000;0.6805;-5.6519;
695.7000;0.6764;-5.6597;
696.0000;0.6797;-5.6545;
696.3000;0.6789;-5.6545;
696.6000;0.6813;-5.6545;
696.9000;0.6781;-5.6648;
697.2000;0.6813;-5.6597;
697.5000;0.6821;-5.6648;
697.8000;0.6797;-5.6648;
698.1000;0.6805;-5.6571;
698.4000;0.6797;-5.6467;
698.7000;0.6789;-5.6467;
699.0000;0.6789;-5.6493;
699.3000;0.6772;-5.6493;
699.6000;0.6781;-5.6467;
699.9000;0.6764;-5.6441;
700.2000;0.6748;-5.6441;
700.5000;0.6797;-5.6312;
700.8000;0.6748;-5.6545;
701.1000;0.6772;-5.6571;
701.4000;0.6772;-5.6571;
701.7000;0.6772;-5.6648;
702.0000;0.6789;-5.6622;
702.3000;0.6781;-5.6571;
702.6000;0.6854;-5.6389;
702.9000;0.6821;-5.6467;
703.2000;0.6772;-5.6648;
703.5000;0.6756;-5.6622;
703.8000;0.6764;-5.6597;
704.1000;0.6740;-5.6597;
704.4000;0.6740;-5.6571;
704.7000;0.6732;-5.6571;
705.0000;0.6716;-5.6493;
705.3000;0.6740;-5.6493;
705.6000;0.6716;-5.6597;
705.9000;0.6724;-5.6571;
706.2000;0.6724;-5.6493;
706.5000;0.6724;-5.6441;
706.8000;0.6716;-5.6493;
707.1000;0.6724;-5.6415;
707.4000;0.6716;-5.6467;
707.7000;0.6716;-5.6467;
708.0000;0.6707;-5.6519;
708.3000;0.6707;-5.6571;
708.6000;0.6707;-5.6441;
708.9000;0.6716;-5.6441;
709.2000;0.6691;-5.6441;
709.5000;0.6699;-5.6389;
709.8000;0.6707;-5.6389;
710.1000;0.6707;-5.6441;
710.4000;0.6707;-5.6441;
710.7000;0.6667;-5.6441;
711.0000;0.6691;-5.6312;
711.3000;0.6691;-5.6286;
711.6000;0.6683;-5.6312;
711.9000;0.6675;-5.6337;
712.2000;0.6675;-5.6415;
712.5000;0.6691;-5.6363;
712.8000;0.6683;-5.6389;
713.1000;0.6683;-5.6337;
713.4000;0.6683;-5.6337;
713.7000;0.6659;-5.6312;
714.0000;0.6683;-5.6286;
714.3000;0.6667;-5.6363;
714.6000;0.6675;-5.6337;
714.9000;0.6667;-5.6415;
715.2000;0.6667;-5.6363;
715.5000;0.6667;-5.6337;
715.8000;0.6602;-5.6519;
716.1000;0.6634;-5.6441;
716.4000;0.6642;-5.6363;
716.7000;0.6650;-5.6312;
717.0000;0.6634;-5.6312;
717.3000;0.6683;-5.6208;
717.6000;0.6667;-5.6260;
717.9000;0.6650;-5.6337;
718.2000;0.6650;-5.6260;
718.5000;0.6683;-5.6156;
718.8000;0.6642;-5.6182;
719.1000;0.6642;-5.6156;
719.4000;0.6642;-5.6156;
719.7000;0.6707;-5.6027;
720.0000;0.6626;-5.6260;
720.3000;0.6634;-5.6312;
720.6000;0.6626;-5.6286;
720.9000;0.6618;-5.6312;
721.2000;0.6610;-5.6260;
721.5000;0.6626;-5.6260;
721.8000;0.6626;-5.6234;
722.1000;0.6626;-5.6234;
722.4000;0.6626;-5.6234;
722.7000;0.6610;-5.6208;
723.0000;0.6618;-5.6156;
723.3000;0.6675;-5.5897;
723.6000;0.6610;-5.6104;
723.9000;0.6602;-5.6001;
724.2000;0.6618;-5.6027;
724.5000;0.6626;-5.5949;
724.8000;0.6610;-5.6078;
725.1000;0.6602;-5.6078;
725.4000;0.6626;-5.6027;
725.7000;0.6602;-5.6156;
726.0000;0.6593;-5.6156;
726.3000;0.6610;-5.6104;
726.6000;0.6585;-5.6156;
726.9000;0.6602;-5.6130;
727.2000;0.6585;-5.6104;
727.5000;0.6593;-5.6078;
727.8000;0.6593;-5.5949;
728.1000;0.6593;-5.5949;
728.4000;0.6585;-5.5949;
728.7000;0.6593;-5.5949;
729.0000;0.6577;-5.5975;
729.3000;0.6585;-5.5923;
729.6000;0.6569;-5.6001;
729.9000;0.6553;-5.6104;
730.2000;0.6593;-5.6027;
730.5000;0.6577;-5.6078;
730.8000;0.6593;-5.6078;
731.1000;0.6577;-5.6104;
731.4000;0.6585;-5.6078;
731.7000;0.6585;-5.6104;
732.0000;0.6577;-5.6156;
732.3000;0.6569;-5.6130;
732.6000;0.6577;-5.6027;
732.9000;0.6561;-5.6053;
733.2000;0.6553;-5.6053;
733.5000;0.6561;-5.6027;
733.8000;0.6553;-5.6001;
734.1000;0.6577;-5.5845;
734.4000;0.6545;-5.6001;
734.7000;0.6545;-5.6027;
735.0000;0.6569;-5.5975;
735.3000;0.6545;-5.6053;
735.6000;0.6536;-5.6027;
735.9000;0.6553;-5.6130;
736.2000;0.6561;-5.6130;
736.5000;0.6553;-5.6156;
736.8000;0.6545;-5.6130;
737.1000;0.6602;-5.6130;
737.4000;0.6536;-5.6156;
737.7000;0.6528;-5.6234;
738.0000;0.6545;-5.6208;
738.3000;0.6528;-5.6182;
738.6000;0.6528;-5.6182;
738.9000;0.6536;-5.6104;
739.2000;0.6553;-5.6130;
739.5000;0.6577;-5.6027;
739.8000;0.6536;-5.6208;
740.1000;0.6528;-5.6182;
740.4000;0.6553;-5.6001;
740.7000;0.6561;-5.6001;
741.0000;0.6536;-5.6130;
741.3000;0.6528;-5.6182;
741.6000;0.6504;-5.6260;
741.9000;0.6528;-5.6234;
742.2000;0.6496;-5.6389;
742.5000;0.6528;-5.6337;
742.8000;0.6520;-5.6415;
743.1000;0.6512;-5.6389;
743.4000;0.6512;-5.6312;
743.7000;0.6545;-5.6234;
744.0000;0.6512;-5.6312;
744.3000;0.6528;-5.6260;
744.6000;0.6504;-5.6312;
744.9000;0.6504;-5.6234;
745.2000;0.6504;-5.6156;
745.5000;0.6504;-5.6182;
745.8000;0.6520;-5.6156;
746.1000;0.6512;-5.6130;
746.4000;0.6528;-5.6104;
746.7000;0.6504;-5.6156;
747.0000;0.6504;-5.6078;
747.3000;0.6553;-5.6053;
747.6000;0.6504;-5.6208;
747.9000;0.6471;-5.6208;
748.2000;0.6496;-5.6104;
748.5000;0.6528;-5.5975;
748.8000;0.6496;-5.6078;
749.1000;0.6463;-5.6130;
749.4000;0.6488;-5.5949;
749.7000;0.6488;-5.5975;
750.0000;0.6496;-5.6001;
750.3000;0.6488;-5.5949;
750.6000;0.6504;-5.5949;
750.9000;0.6528;-5.5923;
751.2000;0.6496;-5.6001;
751.5000;0.6496;-5.6053;
751.8000;0.6479;-5.6027;
752.1000;0.6504;-5.6053;
752.4000;0.6479;-5.6053;
752.7000;0.6479;-5.6027;
753.0000;0.6471;-5.6078;
753.3000;0.6471;-5.6027;
753.6000;0.6479;-5.6053;
753.9000;0.6536;-5.5923;
754.2000;0.6463;-5.6053;
754.5000;0.6520;-5.5975;
754.8000;0.6471;-5.6130;
755.1000;0.6479;-5.6130;
755.4000;0.6471;-5.6053;
755.7000;0.6463;-5.6053;
756.0000;0.6463;-5.6053;
756.3000;0.6431;-5.6130;
756.6000;0.6455;-5.6156;
756.9000;0.6463;-5.6182;
757.2000;0.6512;-5.6078;
757.5000;0.6447;-5.6104;
757.8000;0.6447;-5.6104;
758.1000;0.6447;-5.6027;
758.4000;0.6382;-5.6208;
758.7000;0.6463;-5.6078;
759.0000;0.6439;-5.6130;
759.3000;0.6463;-5.6130;
759.6000;0.6455;-5.6130;
759.9000;0.6471;-5.6078;
760.2000;0.6422;-5.6104;
760.5000;0.6431;-5.6156;
760.8000;0.6455;-5.6130;
761.1000;0.6463;-5.6130;
761.4000;0.6447;-5.6156;
761.7000;0.6447;-5.6234;
762.0000;0.6447;-5.6208;
762.3000;0.6463;-5.6130;
762.6000;0.6455;-5.6130;
762.9000;0.6422;-5.6156;
763.2000;0.6447;-5.6104;
763.5000;0.6447;-5.6078;
763.8000;0.6447;-5.6104;
764.1000;0.6439;-5.6156;
764.4000;0.6447;-5.6078;
764.7000;0.6422;-5.6104;
765.0000;0.6439;-5.6130;
765.3000;0.6439;-5.6182;
765.6000;0.6365;-5.6312;
765.9000;0.6431;-5.6078;
766.2000;0.6422;-5.6078;
766.5000;0.6455;-5.5975;
766.8000;0.6431;-5.6053;
767.1000;0.6439;-5.6053;
767.4000;0.6439;-5.6053;
767.7000;0.6422;-5.6053;
768.0000;0.6414;-5.6027;
768.3000;0.6398;-5.5975;
768.6000;0.6422;-5.5975;
768.9000;0.6439;-5.5975;
769.2000;0.6406;-5.6053;
769.5000;0.6406;-5.6104;
769.8000;0.6406;-5.6078;
770.1000;0.6414;-5.6078;
770.4000;0.6414;-5.6001;
770.7000;0.6390;-5.6027;
771.0000;0.6406;-5.6001;
771.3000;0.6422;-5.5871;
771.6000;0.6414;-5.5897;
771.9000;0.6406;-5.6053;
772.2000;0.6406;-5.6130;
772.5000;0.6382;-5.6104;
772.8000;0.6406;-5.6027;
773.1000;0.6406;-5.6078;
773.4000;0.6390;-5.6104;
773.7000;0.6390;-5.6156;
774.0000;0.6398;-5.6104;
774.3000;0.6406;-5.6104;
774.6000;0.6447;-5.5975;
774.9000;0.6422;-5.6027;
775.2000;0.6406;-5.6078;
775.5000;0.6390;-5.6156;
775.8000;0.6382;-5.6182;
776.1000;0.6414;-5.6027;
776.4000;0.6414;-5.6053;
776.7000;0.6406;-5.6053;
777.0000;0.6398;-5.6104;
777.3000;0.6422;-5.6001;
777.6000;0.6406;-5.5949;
777.9000;0.6398;-5.5949;
778.2000;0.6382;-5.6027;
778.5000;0.6365;-5.6078;
778.8000;0.6382;-5.6053;
779.1000;0.6382;-5.6027;
779.4000;0.6374;-5.6053;
779.7000;0.6365;-5.6053;
780.0000;0.6398;-5.5949;
780.3000;0.6382;-5.6001;
780.6000;0.6406;-5.6053;
780.9000;0.6390;-5.6078;
781.2000;0.6382;-5.6027;
781.5000;0.6382;-5.6027;
781.8000;0.6390;-5.5975;
782.1000;0.6365;-5.6053;
782.4000;0.6382;-5.5949;
782.7000;0.6341;-5.6053;
783.0000;0.6390;-5.5949;
783.3000;0.6382;-5.6027;
783.6000;0.6365;-5.6130;
783.9000;0.6374;-5.6130;
784.2000;0.6406;-5.6078;
784.5000;0.6382;-5.6234;
784.8000;0.6365;-5.6312;
785.1000;0.6382;-5.6182;
785.4000;0.6382;-5.6130;
785.7000;0.6398;-5.6130;
786.0000;0.6325;-5.6182;
786.3000;0.6357;-5.6130;
786.6000;0.6390;-5.6053;
786.9000;0.6382;-5.6027;
787.2000;0.6374;-5.5975;
787.5000;0.6357;-5.6027;
787.8000;0.6374;-5.5975;
788.1000;0.6382;-5.5949;
788.4000;0.6357;-5.6001;
788.7000;0.6357;-5.6027;
789.0000;0.6357;-5.5949;
789.3000;0.6365;-5.5949;
789.6000;0.6349;-5.5897;
789.9000;0.6349;-5.5897;
790.2000;0.6398;-5.5716;
790.5000;0.6406;-5.5638;
790.8000;0.6357;-5.5742;
791.1000;0.6357;-5.5794;
791.4000;0.6325;-5.5897;
791.7000;0.6365;-5.5819;
792.0000;0.6341;-5.5871;
792.3000;0.6349;-5.5819;
792.6000;0.6349;-5.5819;
792.9000;0.6349;-5.5871;
793.2000;0.6349;-5.5923;
793.5000;0.6349;-5.5819;
793.8000;0.6333;-5.5845;
794.1000;0.6365;-5.5690;
794.4000;0.6349;-5.5742;
794.7000;0.6333;-5.5845;
795.0000;0.6325;-5.5794;
795.3000;0.6349;-5.5845;
795.6000;0.6333;-5.5871;
795.9000;0.6349;-5.5845;
796.2000;0.6309;-5.5897;
796.5000;0.6341;-5.5949;
796.8000;0.6357;-5.5871;
797.1000;0.6357;-5.5923;
797.4000;0.6325;-5.5923;
797.7000;0.6349;-5.5845;
798.0000;0.6333;-5.5819;
798.3000;0.6349;-5.5794;
798.6000;0.6349;-5.5819;
798.9000;0.6333;-5.5845;
799.2000;0.6333;-5.5923;
799.5000;0.6349;-5.5897;
799.8000;0.6357;-5.5897;
800.1000;0.6341;-5.5871;
800.4000;0.6325;-5.5949;
800.7000;0.6374;-5.5871;
801.0000;0.6317;-5.6001;
801.3000;0.6357;-5.5949;
801.6000;0.6325;-5.6130;
801.9000;0.6325;-5.6053;
802.2000;0.6382;-5.5897;
802.5000;0.6349;-5.6027;
802.8000;0.6317;-5.6104;
803.1000;0.6341;-5.6053;
803.4000;0.6325;-5.6104;
803.7000;0.6333;-5.6078;
804.0000;0.6325;-5.5949;
804.3000;0.6309;-5.6001;
804.6000;0.6292;-5.6130;
804.9000;0.6325;-5.6130;
805.2000;0.6349;-5.6078;
805.5000;0.6325;-5.6182;
805.8000;0.6333;-5.6001;
806.1000;0.6341;-5.5949;
806.4000;0.6317;-5.5975;
806.7000;0.6309;-5.5949;
807.0000;0.6309;-5.5949;
807.3000;0.6309;-5.5923;
807.6000;0.6235;-5.6104;
807.9000;0.6292;-5.6053;
808.2000;0.6325;-5.6027;
808.5000;0.6317;-5.6078;
808.8000;0.6309;-5.6130;
809.1000;0.6300;-5.6130;
809.4000;0.6300;-5.6130;
809.7000;0.6325;-5.6078;
810.0000;0.6317;-5.6130;
810.3000;0.6300;-5.6208;
810.6000;0.6292;-5.6234;
810.9000;0.6325;-5.6208;
811.2000;0.6292;-5.6182;
811.5000;0.6325;-5.6027;
811.8000;0.6276;-5.6104;
812.1000;0.6309;-5.5975;
812.4000;0.6309;-5.5949;
812.7000;0.6300;-5.5923;
813.0000;0.6276;-5.5975;
813.3000;0.6349;-5.5794;
813.6000;0.6309;-5.5819;
813.9000;0.6292;-5.5845;
814.2000;0.6284;-5.5923;
814.5000;0.6300;-5.5897;
814.8000;0.6284;-5.5923;
815.1000;0.6284;-5.5871;
815.4000;0.6252;-5.5897;
815.7000;0.6276;-5.5716;
816.0000;0.6292;-5.5716;
816.3000;0.6284;-5.5768;
816.6000;0.6276;-5.5742;
816.9000;0.6276;-5.5716;
817.2000;0.6284;-5.5716;
817.5000;0.6309;-5.5742;
817.8000;0.6276;-5.5845;
818.1000;0.6268;-5.5949;
818.4000;0.6268;-5.5923;
818.7000;0.6276;-5.5871;
819.0000;0.6284;-5.5897;
819.3000;0.6284;-5.5845;
819.6000;0.6292;-5.5819;
819.9000;0.6292;-5.5819;
820.2000;0.6284;-5.5845;
820.5000;0.6219;-5.5949;
820.8000;0.6284;-5.5742;
821.1000;0.6219;-5.5975;
821.4000;0.6284;-5.5768;
821.7000;0.6276;-5.5690;
822.0000;0.6341;-5.5535;
822.3000;0.6268;-5.5716;
822.6000;0.6284;-5.5768;
822.9000;0.6276;-5.5768;
823.2000;0.6268;-5.5819;
823.5000;0.6268;-5.5794;
823.8000;0.6284;-5.5716;
824.1000;0.6252;-5.5768;
824.4000;0.6268;-5.5845;
824.7000;0.6276;-5.5845;
825.0000;0.6276;-5.5871;
825.3000;0.6260;-5.5923;
825.6000;0.6252;-5.6001;
825.9000;0.6260;-5.5897;
826.2000;0.6268;-5.5871;
826.5000;0.6260;-5.5690;
826.8000;0.6284;-5.5612;
827.1000;0.6260;-5.5716;
827.4000;0.6276;-5.5742;
827.7000;0.6317;-5.5612;
828.0000;0.6252;-5.5716;
828.3000;0.6333;-5.5638;
828.6000;0.6276;-5.5638;
828.9000;0.6260;-5.5716;
829.2000;0.6260;-5.5586;
829.5000;0.6317;-5.5457;
829.8000;0.6260;-5.5612;
830.1000;0.6268;-5.5612;
830.4000;0.6260;-5.5612;
830.7000;0.6260;-5.5638;
831.0000;0.6276;-5.5586;
831.3000;0.6252;-5.5535;
831.6000;0.6268;-5.5638;
831.9000;0.6268;-5.5638;
832.2000;0.6260;-5.5690;
832.5000;0.6260;-5.5690;
832.8000;0.6243;-5.5794;
833.1000;0.6252;-5.5768;
833.4000;0.6260;-5.5716;
833.7000;0.6243;-5.5690;
834.0000;0.6243;-5.5768;
834.3000;0.6292;-5.5664;
834.6000;0.6243;-5.5612;
834.9000;0.6243;-5.5560;
835.2000;0.6276;-5.5483;
835.5000;0.6235;-5.5612;
835.8000;0.6186;-5.5768;
836.1000;0.6243;-5.5742;
836.4000;0.6333;-5.5431;
836.7000;0.6243;-5.5638;
837.0000;0.6235;-5.5768;
837.3000;0.6227;-5.5768;
837.6000;0.6235;-5.5716;
837.9000;0.6252;-5.5612;
838.2000;0.6235;-5.5612;
838.5000;0.6243;-5.5638;
838.8000;0.6243;-5.5638;
839.1000;0.6235;-5.5690;
839.4000;0.6243;-5.5664;
839.7000;0.6211;-5.5871;
840.0000;0.6243;-5.5794;
840.3000;0.6243;-5.5768;
840.6000;0.6235;-5.5819;
840.9000;0.6227;-5.5768;
841.2000;0.6235;-5.5819;
841.5000;0.6268;-5.5794;
841.8000;0.6243;-5.5819;
842.1000;0.6235;-5.5871;
842.4000;0.6235;-5.5897;
842.7000;0.6252;-5.5742;
843.0000;0.6243;-5.5768;
843.3000;0.6260;-5.5664;
843.6000;0.6260;-5.5638;
843.9000;0.6252;-5.5690;
844.2000;0.6219;-5.5716;
844.5000;0.6260;-5.5716;
844.8000;0.6252;-5.5794;
845.1000;0.6235;-5.5845;
845.4000;0.6235;-5.5794;
845.7000;0.6260;-5.5819;
846.0000;0.6227;-5.5845;
846.3000;0.6227;-5.5716;
846.6000;0.6235;-5.5664;
846.9000;0.6227;-5.5742;
847.2000;0.6227;-5.5742;
847.5000;0.6227;-5.5794;
847.8000;0.6235;-5.5742;
848.1000;0.6243;-5.5690;
848.4000;0.6219;-5.5819;
848.7000;0.6243;-5.5742;
849.0000;0.6219;-5.5845;
849.3000;0.6219;-5.5819;
849.6000;0.6235;-5.5845;
849.9000;0.6211;-5.5819;
850.2000;0.6243;-5.5690;
850.5000;0.6211;-5.5768;
850.8000;0.6211;-5.5716;
851.1000;0.6195;-5.5768;
851.4000;0.6211;-5.5690;
851.7000;0.6235;-5.5690;
852.0000;0.6227;-5.5819;
852.3000;0.6227;-5.5871;
852.6000;0.6227;-5.5897;
852.9000;0.6219;-5.5923;
853.2000;0.6235;-5.5897;
853.5000;0.6219;-5.5923;
853.8000;0.6227;-5.5819;
854.1000;0.6162;-5.5897;
854.4000;0.6235;-5.5768;
854.7000;0.6235;-5.5664;
855.0000;0.6219;-5.5690;
855.3000;0.6219;-5.5690;
855.6000;0.6211;-5.5690;
855.9000;0.6227;-5.5638;
856.2000;0.6211;-5.5690;
856.5000;0.6203;-5.5768;
856.8000;0.6260;-5.5612;
857.1000;0.6227;-5.5664;
857.4000;0.6203;-5.5664;
857.7000;0.6252;-5.5716;
858.0000;0.6203;-5.5819;
858.3000;0.6227;-5.5742;
858.6000;0.6138;-5.6001;
858.9000;0.6243;-5.5664;
859.2000;0.6195;-5.5742;
859.5000;0.6211;-5.5690;
859.8000;0.6211;-5.5742;
860.1000;0.6195;-5.5742;
860.4000;0.6186;-5.5845;
860.7000;0.6211;-5.5819;
861.0000;0.6203;-5.5794;
861.3000;0.6170;-5.5794;
861.6000;0.6219;-5.5794;
861.9000;0.6219;-5.5716;
862.2000;0.6203;-5.5768;
862.5000;0.6195;-5.5768;
862.8000;0.6195;-5.5819;
863.1000;0.6219;-5.5690;
863.4000;0.6211;-5.5742;
863.7000;0.6203;-5.5768;
864.0000;0.6195;-5.5794;
864.3000;0.6203;-5.5819;
864.6000;0.6203;-5.5819;
864.9000;0.6203;-5.5871;
865.2000;0.6203;-5.5871;
865.5000;0.6211;-5.5794;
865.8000;0.6211;-5.5819;
866.1000;0.6186;-5.5794;
866.4000;0.6186;-5.5664;
866.7000;0.6203;-5.5560;
867.0000;0.6211;-5.5560;
867.3000;0.6195;-5.5638;
867.6000;0.6243;-5.5638;
867.9000;0.6195;-5.5716;
868.2000;0.6195;-5.5845;
868.5000;0.6235;-5.5768;
868.8000;0.6203;-5.5845;
869.1000;0.6195;-5.5819;
869.4000;0.6195;-5.5794;
869.7000;0.6211;-5.5742;
870.0000;0.6203;-5.5768;
870.3000;0.6195;-5.5768;
870.6000;0.6203;-5.5716;
870.9000;0.6203;-5.5664;
871.2000;0.6203;-5.5638;
871.5000;0.6186;-5.5768;
871.8000;0.6170;-5.5794;
872.1000;0.6186;-5.5845;
872.4000;0.6195;-5.5897;
872.7000;0.6203;-5.5949;
873.0000;0.6186;-5.6027;
873.3000;0.6195;-5.5923;
873.6000;0.6195;-5.6053;
873.9000;0.6203;-5.5975;
874.2000;0.6195;-5.6027;
874.5000;0.6219;-5.5949;
874.8000;0.6186;-5.5975;
875.1000;0.6170;-5.5949;
875.4000;0.6138;-5.5975;
875.7000;0.6178;-5.5949;
876.0000;0.6186;-5.5897;
876.3000;0.6178;-5.5897;
876.6000;0.6170;-5.5975;
876.9000;0.6170;-5.5949;
877.2000;0.6178;-5.5949;
877.5000;0.6170;-5.5975;
877.8000;0.6203;-5.5845;
878.1000;0.6219;-5.5716;
878.4000;0.6195;-5.5664;
878.7000;0.6211;-5.5716;
879.0000;0.6203;-5.5742;
879.3000;0.6178;-5.5742;
879.6000;0.6129;-5.5819;
879.9000;0.6195;-5.5716;
880.2000;0.6170;-5.5897;
880.5000;0.6195;-5.5871;
880.8000;0.6186;-5.5949;
881.1000;0.6186;-5.5923;
881.4000;0.6186;-5.5897;
881.7000;0.6203;-5.5794;
882.0000;0.6186;-5.5819;
882.3000;0.6170;-5.5975;
882.6000;0.6170;-5.5975;
882.9000;0.6186;-5.5871;
883.2000;0.6186;-5.5664;
883.5000;0.6186;-5.5742;
883.8000;0.6162;-5.5794;
884.1000;0.6178;-5.5794;
884.4000;0.6178;-5.5794;
884.7000;0.6162;-5.5845;
885.0000;0.6211;-5.5794;
885.3000;0.6186;-5.5768;
885.6000;0.6162;-5.5716;
885.9000;0.6162;-5.5742;
886.2000;0.6178;-5.5742;
886.5000;0.6186;-5.5690;
886.8000;0.6162;-5.5794;
887.1000;0.6243;-5.5638;
887.4000;0.6178;-5.5794;
887.7000;0.6129;-5.5794;
888.0000;0.6178;-5.5612;
888.3000;0.6170;-5.5690;
888.6000;0.6146;-5.5768;
888.9000;0.6195;-5.5768;
889.2000;0.6195;-5.5638;
889.5000;0.6162;-5.5664;
889.8000;0.6178;-5.5612;
890.1000;0.6195;-5.5664;
890.4000;0.6178;-5.5742;
890.7000;0.6105;-5.5923;
891.0000;0.6186;-5.5742;
891.3000;0.6178;-5.5768;
891.6000;0.6186;-5.5716;
891.9000;0.6154;-5.5794;
892.2000;0.6162;-5.5742;
892.5000;0.6154;-5.5716;
892.8000;0.6170;-5.5742;
893.1000;0.6162;-5.5716;
893.4000;0.6162;-5.5768;
893.7000;0.6154;-5.5794;
894.0000;0.6162;-5.5794;
894.3000;0.6170;-5.5794;
894.6000;0.6162;-5.5845;
894.9000;0.6154;-5.5819;
895.2000;0.6146;-5.5794;
895.5000;0.6154;-5.5716;
895.8000;0.6170;-5.5742;
896.1000;0.6154;-5.5690;
896.4000;0.6170;-5.5716;
896.7000;0.6170;-5.5819;
897.0000;0.6162;-5.5845;
897.3000;0.6178;-5.5794;
897.6000;0.6121;-5.5871;
897.9000;0.6162;-5.5742;
898.2000;0.6129;-5.5819;
898.5000;0.6097;-5.5949;
898.8000;0.6146;-5.5768;
899.1000;0.6162;-5.5716;
899.4000;0.6138;-5.5768;
899.7000;0.6170;-5.5794;
900.0000;0.6146;-5.5819;
900.3000;0.6186;-5.5690;
900.6000;0.6178;-5.5690;
900.9000;0.6178;-5.5690;
901.2000;0.6178;-5.5690;
901.5000;0.6162;-5.5690;
901.8000;0.6162;-5.5690;
902.1000;0.6162;-5.5690;
902.4000;0.6162;-5.5716;
902.7000;0.6170;-5.5638;
903.0000;0.6154;-5.5638;
903.3000;0.6154;-5.5664;
903.6000;0.6146;-5.5690;
903.9000;0.6178;-5.5638;
904.2000;0.6154;-5.5690;
904.5000;0.6146;-5.5690;
904.8000;0.6146;-5.5742;
905.1000;0.6154;-5.5690;
905.4000;0.6146;-5.5690;
905.7000;0.6154;-5.5690;
906.0000;0.6146;-5.5690;
906.3000;0.6146;-5.5690;
906.6000;0.6146;-5.5664;
906.9000;0.6154;-5.5690;
907.2000;0.6138;-5.5742;
907.5000;0.6154;-5.5819;
907.8000;0.6138;-5.5897;
908.1000;0.6146;-5.5794;
908.4000;0.6129;-5.5845;
908.7000;0.6138;-5.5845;
909.0000;0.6154;-5.5819;
909.3000;0.6162;-5.5690;
909.6000;0.6154;-5.5716;
909.9000;0.6162;-5.5716;
910.2000;0.6154;-5.5794;
910.5000;0.6162;-5.5794;
910.8000;0.6138;-5.5768;
911.1000;0.6129;-5.5716;
911.4000;0.6138;-5.5716;
911.7000;0.6138;-5.5716;
912.0000;0.6146;-5.5716;
912.3000;0.6146;-5.5768;
912.6000;0.6154;-5.5716;
912.9000;0.6154;-5.5845;
913.2000;0.6154;-5.5742;
913.5000;0.6138;-5.5742;
913.8000;0.6146;-5.5716;
914.1000;0.6138;-5.5638;
914.4000;0.6178;-5.5560;
914.7000;0.6146;-5.5716;
915.0000;0.6154;-5.5690;
915.3000;0.6146;-5.5690;
915.6000;0.6186;-5.5638;
915.9000;0.6154;-5.5716;
916.2000;0.6146;-5.5638;
916.5000;0.6129;-5.5612;
916.8000;0.6129;-5.5742;
917.1000;0.6154;-5.5638;
917.4000;0.6154;-5.5612;
917.7000;0.6154;-5.5638;
918.0000;0.6154;-5.5664;
918.3000;0.6146;-5.5716;
918.6000;0.6154;-5.5742;
918.9000;0.6154;-5.5768;
919.2000;0.6146;-5.5742;
919.5000;0.6162;-5.5742;
919.8000;0.6138;-5.5716;
920.1000;0.6154;-5.5716;
920.4000;0.6146;-5.5742;
920.7000;0.6154;-5.5716;
921.0000;0.6162;-5.5690;
921.3000;0.6138;-5.5716;
921.6000;0.6097;-5.5768;
921.9000;0.6129;-5.5612;
922.2000;0.6170;-5.5586;
922.5000;0.6154;-5.5690;
922.8000;0.6138;-5.5638;
923.1000;0.6138;-5.5612;
923.4000;0.6129;-5.5509;
923.7000;0.6146;-5.5431;
924.0000;0.6121;-5.5483;
924.3000;0.6129;-5.5483;
924.6000;0.6129;-5.5509;
924.9000;0.6129;-5.5509;
925.2000;0.6129;-5.5535;
925.5000;0.6121;-5.5509;
925.8000;0.6129;-5.5483;
926.1000;0.6129;-5.5483;
926.4000;0.6121;-5.5560;
926.7000;0.6129;-5.5483;
927.0000;0.6129;-5.5483;
927.3000;0.6129;-5.5509;
927.6000;0.6162;-5.5483;
927.9000;0.6121;-5.5509;
928.2000;0.6121;-5.5612;
928.5000;0.6113;-5.5612;
928.8000;0.6138;-5.5535;
929.1000;0.6138;-5.5379;
929.4000;0.6129;-5.5431;
929.7000;0.6129;-5.5457;
930.0000;0.6138;-5.5586;
930.3000;0.6081;-5.5742;
930.6000;0.6146;-5.5638;
930.9000;0.6146;-5.5560;
931.2000;0.6105;-5.5638;
931.5000;0.6138;-5.5586;
931.8000;0.6138;-5.5535;
932.1000;0.6129;-5.5560;
932.4000;0.6146;-5.5586;
932.7000;0.6129;-5.5612;
933.0000;0.6089;-5.5612;
933.3000;0.6138;-5.5560;
933.6000;0.6129;-5.5612;
933.9000;0.6113;-5.5664;
934.2000;0.6129;-5.5742;
934.5000;0.6129;-5.5716;
934.8000;0.6121;-5.5716;
935.1000;0.6113;-5.5742;
935.4000;0.6121;-5.5716;
935.7000;0.6121;-5.5742;
936.0000;0.6121;-5.5742;
936.3000;0.6138;-5.5716;
936.6000;0.6113;-5.5768;
936.9000;0.6121;-5.5742;
937.2000;0.6121;-5.5664;
937.5000;0.6113;-5.5768;
937.8000;0.6129;-5.5716;
938.1000;0.6121;-5.5638;
938.4000;0.6129;-5.5638;
938.7000;0.6138;-5.5560;
939.0000;0.6121;-5.5612;
939.3000;0.6129;-5.5742;
939.6000;0.6121;-5.5819;
939.9000;0.6121;-5.5845;
940.2000;0.6138;-5.5768;
940.5000;0.6121;-5.5794;
940.8000;0.6129;-5.5871;
941.1000;0.6121;-5.5794;
941.4000;0.6138;-5.5871;
941.7000;0.6121;-5.5949;
942.0000;0.6113;-5.5949;
942.3000;0.6121;-5.5819;
942.6000;0.6121;-5.5845;
942.9000;0.6113;-5.5794;
943.2000;0.6121;-5.5716;
943.5000;0.6105;-5.5716;
943.8000;0.6113;-5.5768;
944.1000;0.6113;-5.5742;
944.4000;0.6040;-5.5845;
944.7000;0.6113;-5.5612;
945.0000;0.6113;-5.5638;
945.3000;0.6113;-5.5638;
945.6000;0.6113;-5.5560;
945.9000;0.6113;-5.5612;
946.2000;0.6113;-5.5612;
946.5000;0.6121;-5.5560;
946.8000;0.6113;-5.5612;
947.1000;0.6138;-5.5560;
947.4000;0.6097;-5.5664;
947.7000;0.6121;-5.5586;
948.0000;0.6186;-5.5535;
948.3000;0.6121;-5.5768;
948.6000;0.6113;-5.5768;
948.9000;0.6178;-5.5690;
949.2000;0.6072;-5.5897;
949.5000;0.6089;-5.5871;
949.8000;0.6097;-5.5871;
950.1000;0.6138;-5.5768;
950.4000;0.6105;-5.5845;
950.7000;0.6097;-5.5794;
951.0000;0.6105;-5.5690;
951.3000;0.6121;-5.5560;
951.6000;0.6113;-5.5535;
951.9000;0.6105;-5.5509;
952.2000;0.6064;-5.5612;
952.5000;0.6064;-5.5535;
952.8000;0.6113;-5.5379;
953.1000;0.6032;-5.5638;
953.4000;0.6186;-5.5275;
953.7000;0.6105;-5.5509;
954.0000;0.6113;-5.5509;
954.3000;0.6113;-5.5535;
954.6000;0.6113;-5.5509;
954.9000;0.6170;-5.5379;
955.2000;0.6040;-5.5716;
955.5000;0.6105;-5.5535;
955.8000;0.6113;-5.5586;
956.1000;0.6113;-5.5586;
956.4000;0.6064;-5.5716;
956.7000;0.6097;-5.5509;
957.0000;0.6105;-5.5509;
957.3000;0.6113;-5.5483;
957.6000;0.6097;-5.5612;
957.9000;0.6105;-5.5612;
958.2000;0.6097;-5.5690;
958.5000;0.6105;-5.5612;
958.8000;0.6048;-5.5690;
959.1000;0.6113;-5.5560;
959.4000;0.6097;-5.5586;
959.7000;0.6089;-5.5716;
960.0000;0.6081;-5.5794;
960.3000;0.6089;-5.5845;
960.6000;0.6097;-5.5819;
960.9000;0.6129;-5.5690;
961.2000;0.6089;-5.5819;
961.5000;0.6121;-5.5794;
961.8000;0.6105;-5.5871;
962.1000;0.6105;-5.5819;
962.4000;0.6089;-5.5794;
962.7000;0.6089;-5.5819;
963.0000;0.6097;-5.5768;
963.3000;0.6081;-5.5819;
963.6000;0.6154;-5.5664;
963.9000;0.6081;-5.5871;
964.2000;0.6105;-5.5871;
964.5000;0.6097;-5.5871;
964.8000;0.6064;-5.5923;
965.1000;0.6081;-5.5871;
965.4000;0.6056;-5.5923;
965.7000;0.6097;-5.5845;
966.0000;0.6089;-5.5819;
966.3000;0.6097;-5.5716;
966.6000;0.6097;-5.5716;
966.9000;0.6089;-5.5716;
967.2000;0.6113;-5.5716;
967.5000;0.6089;-5.5742;
967.8000;0.6089;-5.5742;
968.1000;0.6081;-5.5742;
968.4000;0.6089;-5.5716;
968.7000;0.6113;-5.5560;
969.0000;0.6081;-5.5638;
969.3000;0.6089;-5.5535;
969.6000;0.6097;-5.5586;
969.9000;0.6081;-5.5586;
970.2000;0.6081;-5.5638;
970.5000;0.6072;-5.5638;
970.8000;0.6081;-5.5664;
971.1000;0.6138;-5.5483;
971.4000;0.6081;-5.5664;
971.7000;0.6072;-5.5742;
972.0000;0.6056;-5.5690;
972.3000;0.6097;-5.5586;
972.6000;0.6081;-5.5638;
972.9000;0.6072;-5.5612;
973.2000;0.5999;-5.5819;
973.5000;0.6081;-5.5612;
973.8000;0.6121;-5.5431;
974.1000;0.6121;-5.5405;
974.4000;0.6097;-5.5509;
974.7000;0.6105;-5.5483;
975.0000;0.6089;-5.5535;
975.3000;0.6081;-5.5483;
975.6000;0.6097;-5.5535;
975.9000;0.6072;-5.5586;
976.2000;0.6081;-5.5509;
976.5000;0.6089;-5.5560;
976.8000;0.6105;-5.5509;
977.1000;0.6113;-5.5509;
977.4000;0.6097;-5.5612;
977.7000;0.6162;-5.5405;
978.0000;0.6097;-5.5509;
978.3000;0.6089;-5.5535;
978.6000;0.6089;-5.5405;
978.9000;0.6097;-5.5379;
979.2000;0.6081;-5.5483;
979.5000;0.6081;-5.5509;
979.8000;0.6097;-5.5560;
980.1000;0.6097;-5.5560;
980.4000;0.6072;-5.5612;
980.7000;0.6072;-5.5664;
981.0000;0.6081;-5.5716;
981.3000;0.6081;-5.5742;
981.6000;0.6097;-5.5664;
981.9000;0.6089;-5.5716;
982.2000;0.6097;-5.5690;
982.5000;0.6081;-5.5716;
982.8000;0.6089;-5.5612;
983.1000;0.6089;-5.5612;
983.4000;0.6081;-5.5586;
983.7000;0.6081;-5.5664;
984.0000;0.6072;-5.5612;
984.3000;0.6089;-5.5638;
984.6000;0.6089;-5.5716;
984.9000;0.6064;-5.5716;
985.2000;0.6064;-5.5716;
985.5000;0.6089;-5.5638;
985.8000;0.6072;-5.5690;
986.1000;0.6072;-5.5690;
986.4000;0.6089;-5.5690;
986.7000;0.6072;-5.5664;
987.0000;0.6089;-5.5638;
987.3000;0.6097;-5.5638;
987.6000;0.6105;-5.5586;
987.9000;0.6089;-5.5638;
988.2000;0.6097;-5.5586;
988.5000;0.6097;-5.5612;
988.8000;0.6097;-5.5664;
989.1000;0.6089;-5.5664;
989.4000;0.6048;-5.5845;
989.7000;0.6138;-5.5560;
990.0000;0.6089;-5.5638;
990.3000;0.6081;-5.5586;
990.6000;0.6089;-5.5509;
990.9000;0.6072;-5.5431;
991.2000;0.6064;-5.5457;
991.5000;0.6072;-5.5457;
991.8000;0.6072;-5.5431;
992.1000;0.6072;-5.5483;
992.4000;0.6056;-5.5535;
992.7000;0.6105;-5.5379;
993.0000;0.6089;-5.5431;
993.3000;0.6072;-5.5509;
993.6000;0.6072;-5.5664;
993.9000;0.6072;-5.5638;
994.2000;0.6089;-5.5586;
994.5000;0.6072;-5.5586;
994.8000;0.6089;-5.5586;
995.1000;0.6105;-5.5509;
995.4000;0.6089;-5.5535;
995.7000;0.6048;-5.5664;
996.0000;0.6056;-5.5612;
996.3000;0.6064;-5.5638;
996.6000;0.6064;-5.5664;
996.9000;0.6072;-5.5612;
997.2000;0.6064;-5.5638;
997.5000;0.6081;-5.5535;
997.8000;0.6081;-5.5483;
998.1000;0.6072;-5.5457;
998.4000;0.6064;-5.5509;
998.7000;0.6064;-5.5483;
999.0000;0.6081;-5.5483;
999.3000;0.6072;-5.5483;
999.6000;0.6072;-5.5509;
999.9000;0.6064;-5.5535;
1000.2000;0.6064;-5.5612;
1000.5000;0.6072;-5.5612;
1000.8000;0.6064;-5.5638;
1001.1000;0.6089;-5.5560;
1001.4000;0.6081;-5.5535;
1001.7000;0.6081;-5.5509;
1002.0000;0.6113;-5.5483;
1002.3000;0.6072;-5.5535;
1002.6000;0.6056;-5.5535;
1002.9000;0.6081;-5.5483;
1003.2000;0.6081;-5.5431;
1003.5000;0.6072;-5.5560;
1003.8000;0.6064;-5.5560;
1004.1000;0.6072;-5.5612;
1004.4000;0.6040;-5.5586;
1004.7000;0.6064;-5.5509;
1005.0000;0.6097;-5.5457;
1005.3000;0.6081;-5.5612;
1005.6000;0.6113;-5.5509;
1005.9000;0.6056;-5.5586;
1006.2000;0.6072;-5.5483;
1006.5000;0.6048;-5.5560;
1006.8000;0.6089;-5.5483;
1007.1000;0.6064;-5.5612;
1007.4000;0.6032;-5.5664;
1007.7000;0.6064;-5.5560;
1008.0000;0.6097;-5.5509;
1008.3000;0.6072;-5.5586;
1008.6000;0.6089;-5.5664;
1008.9000;0.6064;-5.5612;
1009.2000;0.6056;-5.5612;
1009.5000;0.6089;-5.5638;
1009.8000;0.6081;-5.5716;
1010.1000;0.6072;-5.5716;
1010.4000;0.6072;-5.5716;
1010.7000;0.6056;-5.5664;
1011.0000;0.6089;-5.5586;
1011.3000;0.6072;-5.5638;
1011.6000;0.6072;-5.5509;
1011.9000;0.6072;-5.5483;
1012.2000;0.6064;-5.5535;
1012.5000;0.6089;-5.5483;
1012.8000;0.6064;-5.5535;
1013.1000;0.6064;-5.5535;
1013.4000;0.6056;-5.5560;
1013.7000;0.6072;-5.5457;
1014.0000;0.6064;-5.5535;
1014.3000;0.6064;-5.5638;
1014.6000;0.6081;-5.5638;
1014.9000;0.6081;-5.5612;
1015.2000;0.6056;-5.5612;
1015.5000;0.6081;-5.5483;
1015.8000;0.6064;-5.5560;
1016.1000;0.6056;-5.5638;
1016.4000;0.6056;-5.5664;
1016.7000;0.6015;-5.5742;
1017.0000;0.6064;-5.5664;
1017.3000;0.6048;-5.5586;
1017.6000;0.6048;-5.5612;
1017.9000;0.6056;-5.5586;
1018.2000;0.6072;-5.5586;
1018.5000;0.6056;-5.5612;
1018.8000;0.6072;-5.5664;
1019.1000;0.6064;-5.5690;
1019.4000;0.6089;-5.5638;
1019.7000;0.6056;-5.5742;
1020.0000;0.6056;-5.5819;
1020.3000;0.6032;-5.5819;
1020.6000;0.6081;-5.5716;
1020.9000;0.6072;-5.5716;
1021.2000;0.6056;-5.5742;
1021.5000;0.6072;-5.5690;
1021.8000;0.6072;-5.5716;
1022.1000;0.6072;-5.5664;
1022.4000;0.6048;-5.5716;
1022.7000;0.6056;-5.5690;
1023.0000;0.6064;-5.5664;
1023.3000;0.6072;-5.5664;
1023.6000;0.6056;-5.5638;
1023.9000;0.6081;-5.5638;
1024.2000;0.6064;-5.5664;
1024.5000;0.6072;-5.5845;
1024.8000;0.6081;-5.5845;
1025.1000;0.6064;-5.5794;
1025.4000;0.6081;-5.5716;
1025.7000;0.6072;-5.5742;
1026.0000;0.6072;-5.5716;
1026.3000;0.6040;-5.5716;
1026.6000;0.6056;-5.5664;
1026.9000;0.6056;-5.5638;
1027.2000;0.6064;-5.5586;
1027.5000;0.6048;-5.5612;
1027.8000;0.6040;-5.5612;
1028.1000;0.6024;-5.5612;
1028.4000;0.6097;-5.5405;
1028.7000;0.6072;-5.5379;
1029.0000;0.6056;-5.5431;
1029.3000;0.6048;-5.5483;
1029.6000;0.6081;-5.5535;
1029.9000;0.6089;-5.5457;
1030.2000;0.6081;-5.5509;
1030.5000;0.6064;-5.5638;
1030.8000;0.6064;-5.5612;
1031.1000;0.6072;-5.5638;
1031.4000;0.6032;-5.5768;
1031.7000;0.6064;-5.5690;
1032.0000;0.6138;-5.5509;
1032.3000;0.6072;-5.5664;
1032.6000;0.6056;-5.5586;
1032.9000;0.6064;-5.5509;
1033.2000;0.6064;-5.5535;
1033.5000;0.6089;-5.5483;
1033.8000;0.6056;-5.5638;
1034.1000;0.6064;-5.5560;
1034.4000;0.6040;-5.5586;
1034.7000;0.6097;-5.5457;
1035.0000;0.6064;-5.5483;
1035.3000;0.6072;-5.5483;
1035.6000;0.6056;-5.5560;
1035.9000;0.6056;-5.5586;
1036.2000;0.6064;-5.5586;
1036.5000;0.6097;-5.5535;
1036.8000;0.6032;-5.5586;
1037.1000;0.6040;-5.5509;
1037.4000;0.6056;-5.5535;
1037.7000;0.6032;-5.5612;
1038.0000;0.6056;-5.5535;
1038.3000;0.6113;-5.5405;
1038.6000;0.6048;-5.5535;
1038.9000;0.6048;-5.5612;
1039.2000;0.6113;-5.5483;
1039.5000;0.6056;-5.5690;
1039.8000;0.6064;-5.5664;
1040.1000;0.6048;-5.5690;
1040.4000;0.6032;-5.5664;
1040.7000;0.6056;-5.5664;
1041.0000;0.6056;-5.5535;
1041.3000;0.6056;-5.5560;
1041.6000;0.6048;-5.5638;
1041.9000;0.5999;-5.5742;
1042.2000;0.6056;-5.5560;
1042.5000;0.6064;-5.5560;
1042.8000;0.6056;-5.5509;
1043.1000;0.6064;-5.5483;
1043.4000;0.6032;-5.5509;
1043.7000;0.6048;-5.5457;
1044.0000;0.6040;-5.5457;
1044.3000;0.6081;-5.5405;
1044.6000;0.6064;-5.5483;
1044.9000;0.6072;-5.5483;
1045.2000;0.6056;-5.5457;
1045.5000;0.6056;-5.5379;
1045.8000;0.6056;-5.5353;
1046.1000;0.6056;-5.5275;
1046.4000;0.6072;-5.5275;
1046.7000;0.6064;-5.5301;
1047.0000;0.6048;-5.5301;
1047.3000;0.6048;-5.5275;
1047.6000;0.6040;-5.5327;
1047.9000;0.6007;-5.5535;
1048.2000;0.6032;-5.5379;
1048.5000;0.6048;-5.5327;
1048.8000;0.6048;-5.5301;
1049.1000;0.6056;-5.5379;
1049.4000;0.6032;-5.5405;
1049.7000;0.6056;-5.5483;
1050.0000;0.6032;-5.5612;
1050.3000;0.6056;-5.5483;
1050.6000;0.6048;-5.5509;
1050.9000;0.6032;-5.5535;
1051.2000;0.6056;-5.5509;
1051.5000;0.6040;-5.5509;
1051.8000;0.6040;-5.5431;
1052.1000;0.6048;-5.5431;
1052.4000;0.6015;-5.5535;
1052.7000;0.6048;-5.5405;
1053.0000;0.6040;-5.5431;
1053.3000;0.6032;-5.5535;
1053.6000;0.6040;-5.5509;
1053.9000;0.6007;-5.5560;
1054.2000;0.6048;-5.5457;
1054.5000;0.6032;-5.5431;
1054.8000;0.6056;-5.5327;
1055.1000;0.6056;-5.5327;
1055.4000;0.6048;-5.5327;
1055.7000;0.6072;-5.5327;
1056.0000;0.6040;-5.5405;
1056.3000;0.6064;-5.5327;
1056.6000;0.6064;-5.5301;
1056.9000;0.6064;-5.5353;
1057.2000;0.6048;-5.5431;
1057.5000;0.6048;-5.5483;
1057.8000;0.6064;-5.5405;
1058.1000;0.6056;-5.5405;
1058.4000;0.6072;-5.5327;
1058.7000;0.6048;-5.5405;
1059.0000;0.6040;-5.5379;
1059.3000;0.6040;-5.5379;
1059.6000;0.6064;-5.5431;
1059.9000;0.5991;-5.5664;
1060.2000;0.6024;-5.5586;
1060.5000;0.6064;-5.5431;
1060.8000;0.6040;-5.5431;
1061.1000;0.6056;-5.5405;
1061.4000;0.6015;-5.5379;
1061.7000;0.6097;-5.5146;
1062.0000;0.6040;-5.5250;
1062.3000;0.6040;-5.5301;
1062.6000;0.6015;-5.5457;
1062.9000;0.6040;-5.5405;
1063.2000;0.6032;-5.5509;
1063.5000;0.5991;-5.5509;
1063.8000;0.6032;-5.5353;
1064.1000;0.5958;-5.5560;
1064.4000;0.6040;-5.5405;
1064.7000;0.6032;-5.5405;
1065.0000;0.5983;-5.5483;
1065.3000;0.6048;-5.5353;
1065.6000;0.6040;-5.5457;
1065.9000;0.6040;-5.5483;
1066.2000;0.6056;-5.5509;
1066.5000;0.6072;-5.5509;
1066.8000;0.6064;-5.5586;
1067.1000;0.6048;-5.5664;
1067.4000;0.6024;-5.5586;
1067.7000;0.6032;-5.5664;
1068.0000;0.6056;-5.5560;
1068.3000;0.6024;-5.5560;
1068.6000;0.6032;-5.5638;
1068.9000;0.6024;-5.5560;
1069.2000;0.6048;-5.5509;
1069.5000;0.6072;-5.5509;
1069.8000;0.6056;-5.5535;
1070.1000;0.6048;-5.5509;
1070.4000;0.6048;-5.5483;
1070.7000;0.6056;-5.5483;
1071.0000;0.6056;-5.5457;
1071.3000;0.6048;-5.5457;
1071.6000;0.6056;-5.5509;
1071.9000;0.6056;-5.5457;
1072.2000;0.6048;-5.5535;
1072.5000;0.6056;-5.5509;
1072.8000;0.6048;-5.5535;
1073.1000;0.6024;-5.5560;
1073.4000;0.6040;-5.5535;
1073.7000;0.6015;-5.5664;
1074.0000;0.6007;-5.5638;
1074.3000;0.6040;-5.5560;
1074.6000;0.6024;-5.5612;
1074.9000;0.6024;-5.5586;
1075.2000;0.6024;-5.5560;
1075.5000;0.6040;-5.5457;
1075.8000;0.6040;-5.5431;
1076.1000;0.6064;-5.5379;
1076.4000;0.6040;-5.5405;
1076.7000;0.6007;-5.5457;
1077.0000;0.6048;-5.5353;
1077.3000;0.6040;-5.5405;
1077.6000;0.6024;-5.5405;
1077.9000;0.6032;-5.5483;
1078.2000;0.6024;-5.5509;
1078.5000;0.6048;-5.5535;
1078.8000;0.6040;-5.5560;
1079.1000;0.6040;-5.5483;
1079.4000;0.6064;-5.5327;
1079.7000;0.6040;-5.5431;
1080.0000;0.6032;-5.5431;
1080.3000;0.6032;-5.5483;
1080.6000;0.6015;-5.5457;
1080.9000;0.6040;-5.5457;
1081.2000;0.6024;-5.5586;
1081.5000;0.6056;-5.5560;
1081.8000;0.6056;-5.5612;
1082.1000;0.6048;-5.5664;
1082.4000;0.6048;-5.5560;
1082.7000;0.5991;-5.5612;
1083.0000;0.6040;-5.5535;
1083.3000;0.6032;-5.5586;
1083.6000;0.6048;-5.5560;
1083.9000;0.6040;-5.5535;
1084.2000;0.6072;-5.5457;
1084.5000;0.5999;-5.5638;
1084.8000;0.6015;-5.5535;
1085.1000;0.6032;-5.5457;
1085.4000;0.6056;-5.5379;
1085.7000;0.6032;-5.5405;
1086.0000;0.6015;-5.5483;
1086.3000;0.6024;-5.5483;
1086.6000;0.6024;-5.5431;
1086.9000;0.6040;-5.5353;
1087.2000;0.6081;-5.5250;
1087.5000;0.6024;-5.5301;
1087.8000;0.6032;-5.5353;
1088.1000;0.6032;-5.5327;
1088.4000;0.6032;-5.5327;
1088.7000;0.6032;-5.5405;
1089.0000;0.6064;-5.5405;
1089.3000;0.6040;-5.5379;
1089.6000;0.6024;-5.5379;
1089.9000;0.6032;-5.5405;
1090.2000;0.6024;-5.5405;
1090.5000;0.6024;-5.5431;
1090.8000;0.6064;-5.5353;
1091.1000;0.6048;-5.5431;
1091.4000;0.6048;-5.5353;
1091.7000;0.6024;-5.5483;
1092.0000;0.6048;-5.5405;
1092.3000;0.6032;-5.5535;
1092.6000;0.6048;-5.5664;
1092.9000;0.6032;-5.5638;
1093.2000;0.6024;-5.5612;
1093.5000;0.6048;-5.5612;
1093.8000;0.6015;-5.5716;
1094.1000;0.6032;-5.5742;
1094.4000;0.6024;-5.5742;
1094.7000;0.6032;-5.5716;
1095.0000;0.6032;-5.5845;
1095.3000;0.6007;-5.5871;
1095.6000;0.6032;-5.5845;
1095.9000;0.6040;-5.5794;
1096.2000;0.6040;-5.5794;
1096.5000;0.6056;-5.5716;
1096.8000;0.6024;-5.5819;
1097.1000;0.6015;-5.5768;
1097.4000;0.6024;-5.5716;
1097.7000;0.6032;-5.5742;
1098.0000;0.6007;-5.5768;
1098.3000;0.6015;-5.5742;
1098.6000;0.6024;-5.5690;
1098.9000;0.6032;-5.5612;
1099.2000;0.5999;-5.5742;
1099.5000;0.6007;-5.5664;
1099.8000;0.6032;-5.5612;
1100.1000;0.6007;-5.5638;
1100.4000;0.6015;-5.5638;
1100.7000;0.6024;-5.5612;
1101.0000;0.6032;-5.5586;
1101.3000;0.6040;-5.5560;
1101.6000;0.6032;-5.5664;
1101.9000;0.5975;-5.5768;
1102.2000;0.6032;-5.5638;
1102.5000;0.6040;-5.5664;
1102.8000;0.6040;-5.5612;
1103.1000;0.5991;-5.5690;
1103.4000;0.5975;-5.5690;
1103.7000;0.6032;-5.5509;
1104.0000;0.6032;-5.5690;
1104.3000;0.6024;-5.5664;
1104.6000;0.6015;-5.5690;
1104.9000;0.6032;-5.5638;
1105.2000;0.6048;-5.5768;
1105.5000;0.6024;-5.5871;
1105.8000;0.5999;-5.5975;
1106.1000;0.6032;-5.5975;
1106.4000;0.6048;-5.5923;
1106.7000;0.6040;-5.5897;
1107.0000;0.6015;-5.5923;
1107.3000;0.6024;-5.5845;
1107.6000;0.6024;-5.5690;
1107.9000;0.6032;-5.5716;
1108.2000;0.5991;-5.5768;
1108.5000;0.5999;-5.5716;
1108.8000;0.5999;-5.5742;
1109.1000;0.5999;-5.5742;
1109.4000;0.6032;-5.5509;
1109.7000;0.6089;-5.5353;
1110.0000;0.6040;-5.5431;
1110.3000;0.6024;-5.5457;
1110.6000;0.6007;-5.5560;
1110.9000;0.6015;-5.5586;
1111.2000;0.6015;-5.5509;
1111.5000;0.5975;-5.5664;
1111.8000;0.5975;-5.5768;
1112.1000;0.6015;-5.5716;
1112.4000;0.6032;-5.5690;
1112.7000;0.6015;-5.5664;
1113.0000;0.6040;-5.5535;
1113.3000;0.6040;-5.5638;
1113.6000;0.6015;-5.5690;
1113.9000;0.6015;-5.5690;
1114.2000;0.6097;-5.5509;
1114.5000;0.6032;-5.5612;
1114.8000;0.5942;-5.5742;
1115.1000;0.6024;-5.5535;
1115.4000;0.6024;-5.5457;
1115.7000;0.6040;-5.5483;
1116.0000;0.6007;-5.5560;
1116.3000;0.6064;-5.5431;
1116.6000;0.6024;-5.5431;
1116.9000;0.6040;-5.5535;
1117.2000;0.6024;-5.5509;
1117.5000;0.6040;-5.5457;
1117.8000;0.5991;-5.5586;
1118.1000;0.6024;-5.5612;
1118.4000;0.6024;-5.5586;
1118.7000;0.6015;-5.5509;
1119.0000;0.6024;-5.5509;
1119.3000;0.6040;-5.5535;
1119.6000;0.6024;-5.5560;
1119.9000;0.6024;-5.5509;
1120.2000;0.6024;-5.5483;
1120.5000;0.6007;-5.5457;
1120.8000;0.6032;-5.5457;
1121.1000;0.5999;-5.5483;
1121.4000;0.6024;-5.5405;
1121.7000;0.6024;-5.5457;
1122.0000;0.5991;-5.5535;
1122.3000;0.6032;-5.5509;
1122.6000;0.5983;-5.5690;
1122.9000;0.6072;-5.5535;
1123.2000;0.6015;-5.5638;
1123.5000;0.6024;-5.5612;
1123.8000;0.6007;-5.5586;
1124.1000;0.5983;-5.5560;
1124.4000;0.5991;-5.5586;
1124.7000;0.6024;-5.5483;
1125.0000;0.6024;-5.5405;
1125.3000;0.6040;-5.5431;
1125.6000;0.6015;-5.5535;
1125.9000;0.6113;-5.5275;
1126.2000;0.6032;-5.5457;
1126.5000;0.6024;-5.5353;
1126.8000;0.6032;-5.5457;
1127.1000;0.6040;-5.5535;
1127.4000;0.6024;-5.5483;
1127.7000;0.6032;-5.5379;
1128.0000;0.6040;-5.5327;
1128.3000;0.5999;-5.5483;
1128.6000;0.6007;-5.5457;
1128.9000;0.6032;-5.5327;
1129.2000;0.6032;-5.5379;
1129.5000;0.6007;-5.5379;
1129.8000;0.6024;-5.5327;
1130.1000;0.6015;-5.5405;
1130.4000;0.6032;-5.5457;
1130.7000;0.6024;-5.5509;
1131.0000;0.6015;-5.5612;
1131.3000;0.6024;-5.5586;
1131.6000;0.6024;-5.5535;
1131.9000;0.6007;-5.5535;
1132.2000;0.6032;-5.5405;
1132.5000;0.6048;-5.5301;
1132.8000;0.6007;-5.5379;
1133.1000;0.6032;-5.5275;
1133.4000;0.6007;-5.5327;
1133.7000;0.6024;-5.5379;
1134.0000;0.6007;-5.5457;
1134.3000;0.6015;-5.5509;
1134.6000;0.6015;-5.5535;
1134.9000;0.6024;-5.5535;
1135.2000;0.6048;-5.5457;
1135.5000;0.6024;-5.5638;
1135.8000;0.6015;-5.5664;
1136.1000;0.6040;-5.5690;
1136.4000;0.5999;-5.5690;
1136.7000;0.6032;-5.5638;
1137.0000;0.6032;-5.5586;
1137.3000;0.6032;-5.5535;
1137.6000;0.6040;-5.5483;
1137.9000;0.6015;-5.5535;
1138.2000;0.6032;-5.5535;
1138.5000;0.6032;-5.5560;
1138.8000;0.6015;-5.5586;
1139.1000;0.6015;-5.5612;
1139.4000;0.6024;-5.5664;
1139.7000;0.6032;-5.5560;
1140.0000;0.6032;-5.5560;
1140.3000;0.6007;-5.5586;
1140.6000;0.6024;-5.5535;
1140.9000;0.6072;-5.5509;
1141.2000;0.6015;-5.5638;
1141.5000;0.6015;-5.5535;
1141.8000;0.6007;-5.5535;
1142.1000;0.6024;-5.5509;
1142.4000;0.6040;-5.5586;
1142.7000;0.6048;-5.5612;
1143.0000;0.6024;-5.5612;
1143.3000;0.6015;-5.5586;
1143.6000;0.6032;-5.5612;
1143.9000;0.6015;-5.5638;
1144.2000;0.5999;-5.5716;
1144.5000;0.5999;-5.5716;
1144.8000;0.6007;-5.5664;
1145.1000;0.5999;-5.5664;
1145.4000;0.5999;-5.5638;
1145.7000;0.6007;-5.5612;
1146.0000;0.6007;-5.5612;
1146.3000;0.5999;-5.5638;
1146.6000;0.6015;-5.5612;
1146.9000;0.6015;-5.5690;
1147.2000;0.5983;-5.5819;
1147.5000;0.6032;-5.5664;
1147.8000;0.6007;-5.5586;
1148.1000;0.6024;-5.5535;
1148.4000;0.6089;-5.5327;
1148.7000;0.6032;-5.5483;
1149.0000;0.6024;-5.5483;
1149.3000;0.6015;-5.5405;
1149.6000;0.6024;-5.5379;
1149.9000;0.6007;-5.5431;
1150.2000;0.6015;-5.5509;
1150.5000;0.6015;-5.5457;
1150.8000;0.6015;-5.5379;
1151.1000;0.6032;-5.5275;
1151.4000;0.6015;-5.5379;
1151.7000;0.6015;-5.5457;
1152.0000;0.6024;-5.5457;
1152.3000;0.6089;-5.5301;
1152.6000;0.6024;-5.5483;
1152.9000;0.6007;-5.5509;
1153.2000;0.6015;-5.5431;
1153.5000;0.6015;-5.5405;
1153.8000;0.6032;-5.5431;
1154.1000;0.6024;-5.5431;
1154.4000;0.5999;-5.5535;
1154.7000;0.5999;-5.5509;
1155.0000;0.5991;-5.5535;
1155.3000;0.6024;-5.5379;
1155.6000;0.6007;-5.5353;
1155.9000;0.6015;-5.5327;
1156.2000;0.6024;-5.5379;
1156.5000;0.5991;-5.5457;
1156.8000;0.6015;-5.5327;
1157.1000;0.6032;-5.5275;
1157.4000;0.6007;-5.5379;
1157.7000;0.6072;-5.5250;
1158.0000;0.6007;-5.5405;
1158.3000;0.5999;-5.5457;
1158.6000;0.6007;-5.5457;
1158.9000;0.6056;-5.5353;
1159.2000;0.6024;-5.5457;
1159.5000;0.6024;-5.5405;
1159.8000;0.6015;-5.5379;
1160.1000;0.6015;-5.5353;
1160.4000;0.6024;-5.5431;
1160.7000;0.6007;-5.5535;
1161.0000;0.5999;-5.5560;
1161.3000;0.6015;-5.5560;
1161.6000;0.6024;-5.5535;
1161.9000;0.6007;-5.5535;
1162.2000;0.5991;-5.5560;
1162.5000;0.6024;-5.5535;
1162.8000;0.6007;-5.5586;
1163.1000;0.5991;-5.5664;
1163.4000;0.6015;-5.5483;
1163.7000;0.5999;-5.5535;
1164.0000;0.6007;-5.5483;
1164.3000;0.6007;-5.5509;
1164.6000;0.6015;-5.5457;
1164.9000;0.6015;-5.5379;
1165.2000;0.5999;-5.5405;
1165.5000;0.6007;-5.5405;
1165.8000;0.5999;-5.5483;
1166.1000;0.6007;-5.5483;
1166.4000;0.6015;-5.5535;
1166.7000;0.6007;-5.5612;
1167.0000;0.6007;-5.5560;
1167.3000;0.5999;-5.5586;
1167.6000;0.6032;-5.5431;
1167.9000;0.6024;-5.5405;
1168.2000;0.6007;-5.5431;
1168.5000;0.6007;-5.5457;
1168.8000;0.6024;-5.5431;
1169.1000;0.6040;-5.5327;
1169.4000;0.5983;-5.5483;
1169.7000;0.6024;-5.5483;
1170.0000;0.5999;-5.5586;
1170.3000;0.6015;-5.5535;
1170.6000;0.6015;-5.5638;
1170.9000;0.5999;-5.5690;
1171.2000;0.6007;-5.5638;
1171.5000;0.6015;-5.5586;
1171.8000;0.6032;-5.5509;
1172.1000;0.6007;-5.5535;
1172.4000;0.6007;-5.5457;
1172.7000;0.6015;-5.5483;
1173.0000;0.6015;-5.5483;
1173.3000;0.6015;-5.5457;
1173.6000;0.5958;-5.5664;
1173.9000;0.6032;-5.5509;
1174.2000;0.6048;-5.5483;
1174.5000;0.6007;-5.5509;
1174.8000;0.6064;-5.5327;
1175.1000;0.5991;-5.5483;
1175.4000;0.6032;-5.5379;
1175.7000;0.5999;-5.5509;
1176.0000;0.5991;-5.5431;
1176.3000;0.6015;-5.5483;
1176.6000;0.6024;-5.5535;
1176.9000;0.5999;-5.5716;
1177.2000;0.6015;-5.5742;
1177.5000;0.5975;-5.5845;
1177.8000;0.6007;-5.5742;
1178.1000;0.6015;-5.5716;
1178.4000;0.6007;-5.5690;
1178.7000;0.6064;-5.5560;
1179.0000;0.5999;-5.5690;
1179.3000;0.5999;-5.5690;
1179.6000;0.6007;-5.5638;
1179.9000;0.6007;-5.5560;
1180.2000;0.6024;-5.5509;
1180.5000;0.6032;-5.5483;
1180.8000;0.6007;-5.5535;
1181.1000;0.6072;-5.5327;
1181.4000;0.6024;-5.5483;
1181.7000;0.6015;-5.5405;
1182.0000;0.6015;-5.5509;
1182.3000;0.6048;-5.5457;
1182.6000;0.5999;-5.5457;
1182.9000;0.5999;-5.5379;
1183.2000;0.6024;-5.5250;
1183.5000;0.5983;-5.5405;
1183.8000;0.6007;-5.5379;
1184.1000;0.6007;-5.5353;
1184.4000;0.6007;-5.5301;
1184.7000;0.5983;-5.5379;
1185.0000;0.6024;-5.5379;
1185.3000;0.6015;-5.5431;
1185.6000;0.6024;-5.5457;
1185.9000;0.6007;-5.5509;
1186.2000;0.5991;-5.5586;
1186.5000;0.6089;-5.5327;
1186.8000;0.5999;-5.5483;
1187.1000;0.6024;-5.5301;
1187.4000;0.6024;-5.5198;
1187.7000;0.6007;-5.5198;
1188.0000;0.5999;-5.5094;
1188.3000;0.6007;-5.5198;
1188.6000;0.5991;-5.5250;
1188.9000;0.6007;-5.5224;
1189.2000;0.6007;-5.5275;
1189.5000;0.6015;-5.5379;
1189.8000;0.6015;-5.5431;
1190.1000;0.6007;-5.5405;
1190.4000;0.5999;-5.5405;
1190.7000;0.6007;-5.5250;
1191.0000;0.5999;-5.5250;
1191.3000;0.5991;-5.5275;
1191.6000;0.5991;-5.5250;
1191.9000;0.6007;-5.5172;
1192.2000;0.6024;-5.5120;
1192.5000;0.5934;-5.5353;
1192.8000;0.5983;-5.5224;
1193.1000;0.5967;-5.5250;
1193.4000;0.5942;-5.5405;
1193.7000;0.5999;-5.5172;
1194.0000;0.6007;-5.5042;
1194.3000;0.6024;-5.4965;
1194.6000;0.6072;-5.4887;
1194.9000;0.6015;-5.5042;
1195.2000;0.5991;-5.5172;
1195.5000;0.5967;-5.5301;
1195.8000;0.6007;-5.5120;
1196.1000;0.6007;-5.5198;
1196.4000;0.6007;-5.5224;
1196.7000;0.5983;-5.5250;
1197.0000;0.6007;-5.5250;
1197.3000;0.6024;-5.5198;
1197.6000;0.5999;-5.5301;
1197.9000;0.5999;-5.5224;
1198.2000;0.6015;-5.5198;
1198.5000;0.5999;-5.5198;
1198.8000;0.5991;-5.5250;
1199.1000;0.5991;-5.5301;
1199.4000;0.6032;-5.5327;
1199.7000;0.6015;-5.5327;
1200.0000;0.5983;-5.5327;
1200.3000;0.5991;-5.5327;
1200.6000;0.6024;-5.5198;
1200.9000;0.6015;-5.5198;
1201.2000;0.6015;-5.5120;
1201.5000;0.5983;-5.5301;
1201.8000;0.5975;-5.5327;
1202.1000;0.5999;-5.5275;
1202.4000;0.5999;-5.5327;
1202.7000;0.6032;-5.5224;
1203.0000;0.6015;-5.5327;
1203.3000;0.6007;-5.5301;
1203.6000;0.6048;-5.5275;
1203.9000;0.6015;-5.5301;
1204.2000;0.5958;-5.5379;
1204.5000;0.5999;-5.5327;
1204.8000;0.6015;-5.5275;
1205.1000;0.6007;-5.5250;
1205.4000;0.6015;-5.5224;
1205.7000;0.6007;-5.5224;
1206.0000;0.6015;-5.5068;
1206.3000;0.5999;-5.5146;
1206.6000;0.5991;-5.5120;
1206.9000;0.6007;-5.5146;
1207.2000;0.5991;-5.5172;
1207.5000;0.5991;-5.5198;
1207.8000;0.5991;-5.5198;
1208.1000;0.6032;-5.5068;
1208.4000;0.5999;-5.5146;
1208.7000;0.5999;-5.5172;
1209.0000;0.6007;-5.5172;
1209.3000;0.5999;-5.5353;
1209.6000;0.5999;-5.5379;
1209.9000;0.6015;-5.5379;
1210.2000;0.6015;-5.5509;
1210.5000;0.6007;-5.5483;
1210.8000;0.6007;-5.5509;
1211.1000;0.6015;-5.5457;
1211.4000;0.6007;-5.5483;
1211.7000;0.6015;-5.5353;
1212.0000;0.5999;-5.5353;
1212.3000;0.6015;-5.5327;
1212.6000;0.6007;-5.5379;
1212.9000;0.6032;-5.5379;
1213.2000;0.6007;-5.5379;
1213.5000;0.6015;-5.5457;
1213.8000;0.6007;-5.5483;
1214.1000;0.5991;-5.5457;
1214.4000;0.6007;-5.5353;
1214.7000;0.6015;-5.5379;
1215.0000;0.5999;-5.5379;
1215.3000;0.6007;-5.5301;
1215.6000;0.5991;-5.5353;
1215.9000;0.5991;-5.5327;
1216.2000;0.6007;-5.5198;
1216.5000;0.6007;-5.5146;
1216.8000;0.5991;-5.5172;
1217.1000;0.5991;-5.5120;
1217.4000;0.6007;-5.5120;
1217.7000;0.6015;-5.5094;
1218.0000;0.6007;-5.5120;
1218.3000;0.6024;-5.5198;
1218.6000;0.5975;-5.5301;
1218.9000;0.5999;-5.5224;
1219.2000;0.5991;-5.5146;
1219.5000;0.5975;-5.5224;
1219.8000;0.5983;-5.5224;
1220.1000;0.5999;-5.5172;
1220.4000;0.5991;-5.5198;
1220.7000;0.6032;-5.5068;
1221.0000;0.5983;-5.5275;
1221.3000;0.6007;-5.5250;
1221.6000;0.6007;-5.5172;
1221.9000;0.6007;-5.5224;
1222.2000;0.6015;-5.5224;
1222.5000;0.5999;-5.5224;
1222.8000;0.6007;-5.5224;
1223.1000;0.5999;-5.5198;
1223.4000;0.5999;-5.5146;
1223.7000;0.5991;-5.5172;
1224.0000;0.5999;-5.5120;
1224.3000;0.5999;-5.5120;
1224.6000;0.5967;-5.5250;
1224.9000;0.5991;-5.5224;
1225.2000;0.5999;-5.5198;
1225.5000;0.6007;-5.5120;
1225.8000;0.5999;-5.5120;
1226.1000;0.6024;-5.5094;
1226.4000;0.6007;-5.5146;
1226.7000;0.5991;-5.5172;
1227.0000;0.5999;-5.5172;
1227.3000;0.6007;-5.5172;
1227.6000;0.5991;-5.5224;
1227.9000;0.5999;-5.5250;
1228.2000;0.5991;-5.5327;
1228.5000;0.5999;-5.5275;
1228.8000;0.6024;-5.5224;
1229.1000;0.5999;-5.5250;
1229.4000;0.5991;-5.5275;
1229.7000;0.5999;-5.5301;
1230.0000;0.5999;-5.5301;
1230.3000;0.6007;-5.5301;
1230.6000;0.6015;-5.5301;
1230.9000;0.5999;-5.5301;
1231.2000;0.5991;-5.5379;
1231.5000;0.5991;-5.5379;
1231.8000;0.5991;-5.5379;
1232.1000;0.5991;-5.5431;
1232.4000;0.5991;-5.5353;
1232.7000;0.6015;-5.5353;
1233.0000;0.5991;-5.5457;
1233.3000;0.6072;-5.5301;
1233.6000;0.5975;-5.5431;
1233.9000;0.5991;-5.5483;
1234.2000;0.6007;-5.5405;
1234.5000;0.5991;-5.5457;
1234.8000;0.5983;-5.5457;
1235.1000;0.5991;-5.5457;
1235.4000;0.6015;-5.5483;
1235.7000;0.5991;-5.5509;
1236.0000;0.5999;-5.5457;
1236.3000;0.6024;-5.5457;
1236.6000;0.6007;-5.5431;
1236.9000;0.5999;-5.5405;
1237.2000;0.5975;-5.5457;
1237.5000;0.5991;-5.5327;
1237.8000;0.6007;-5.5301;
1238.1000;0.6015;-5.5301;
1238.4000;0.5999;-5.5379;
1238.7000;0.5999;-5.5431;
1239.0000;0.5983;-5.5457;
1239.3000;0.6048;-5.5353;
1239.6000;0.6007;-5.5379;
1239.9000;0.5967;-5.5457;
1240.2000;0.6007;-5.5405;
1240.5000;0.5975;-5.5457;
1240.8000;0.5999;-5.5379;
1241.1000;0.5975;-5.5535;
1241.4000;0.6024;-5.5405;
1241.7000;0.5999;-5.5379;
1242.0000;0.6064;-5.5198;
1242.3000;0.6007;-5.5301;
1242.6000;0.5999;-5.5275;
1242.9000;0.5983;-5.5353;
1243.2000;0.5999;-5.5327;
1243.5000;0.6007;-5.5327;
1243.8000;0.5983;-5.5301;
1244.1000;0.5967;-5.5224;
1244.4000;0.6007;-5.5068;
1244.7000;0.5999;-5.5068;
1245.0000;0.5991;-5.5016;
1245.3000;0.5991;-5.5042;
1245.6000;0.5991;-5.5146;
1245.9000;0.5999;-5.5146;
1246.2000;0.5950;-5.5250;
1246.5000;0.6015;-5.5120;
1246.8000;0.6007;-5.5250;
1247.1000;0.5999;-5.5250;
1247.4000;0.6007;-5.5250;
1247.7000;0.6007;-5.5327;
1248.0000;0.5999;-5.5379;
1248.3000;0.6064;-5.5172;
1248.6000;0.5991;-5.5353;
1248.9000;0.5950;-5.5457;
1249.2000;0.5967;-5.5327;
1249.5000;0.5999;-5.5379;
1249.8000;0.5991;-5.5483;
1250.1000;0.5983;-5.5509;
1250.4000;0.5975;-5.5405;
1250.7000;0.5975;-5.5353;
1251.0000;0.6007;-5.5327;
1251.3000;0.5942;-5.5405;
1251.6000;0.5975;-5.5379;
1251.9000;0.5999;-5.5379;
1252.2000;0.6015;-5.5327;
1252.5000;0.5975;-5.5327;
1252.8000;0.5999;-5.5275;
1253.1000;0.6007;-5.5250;
1253.4000;0.5950;-5.5353;
1253.7000;0.6007;-5.5250;
1254.0000;0.6015;-5.5224;
1254.3000;0.6015;-5.5198;
1254.6000;0.5999;-5.5301;
1254.9000;0.6015;-5.5327;
1255.2000;0.6007;-5.5405;
1255.5000;0.5991;-5.5405;
1255.8000;0.5983;-5.5379;
1256.1000;0.6007;-5.5379;
1256.4000;0.5999;-5.5353;
1256.7000;0.6015;-5.5327;
1257.0000;0.5999;-5.5250;
1257.3000;0.6007;-5.5146;
1257.6000;0.5991;-5.5224;
1257.9000;0.5950;-5.5224;
1258.2000;0.6007;-5.5172;
1258.5000;0.6015;-5.5250;
1258.8000;0.5991;-5.5301;
1259.1000;0.5967;-5.5301;
1259.4000;0.5991;-5.5275;
1259.7000;0.6024;-5.5094;
1260.0000;0.6015;-5.5172;
1260.3000;0.5983;-5.5250;
1260.6000;0.5967;-5.5224;
1260.9000;0.5991;-5.5068;
1261.2000;0.5991;-5.5094;
1261.5000;0.5999;-5.5120;
1261.8000;0.5983;-5.5224;
1262.1000;0.5991;-5.5250;
1262.4000;0.5975;-5.5327;
1262.7000;0.5983;-5.5301;
1263.0000;0.5983;-5.5301;
1263.3000;0.6024;-5.5224;
1263.6000;0.5999;-5.5301;
1263.9000;0.5991;-5.5405;
1264.2000;0.5991;-5.5353;
1264.5000;0.5999;-5.5275;
1264.8000;0.5999;-5.5405;
1265.1000;0.6024;-5.5379;
1265.4000;0.5991;-5.5353;
1265.7000;0.5983;-5.5379;
1266.0000;0.6007;-5.5301;
1266.3000;0.6015;-5.5327;
1266.6000;0.5991;-5.5327;
1266.9000;0.6024;-5.5224;
1267.2000;0.5991;-5.5250;
1267.5000;0.6007;-5.5198;
1267.8000;0.6015;-5.5198;
1268.1000;0.5999;-5.5275;
1268.4000;0.5999;-5.5275;
1268.7000;0.6007;-5.5301;
1269.0000;0.5991;-5.5353;
1269.3000;0.5967;-5.5379;
1269.6000;0.6015;-5.5301;
1269.9000;0.6015;-5.5327;
1270.2000;0.6007;-5.5353;
1270.5000;0.5983;-5.5431;
1270.8000;0.5934;-5.5560;
1271.1000;0.5999;-5.5431;
1271.4000;0.6024;-5.5327;
1271.7000;0.5983;-5.5457;
1272.0000;0.5991;-5.5457;
1272.3000;0.5991;-5.5405;
1272.6000;0.5999;-5.5327;
1272.9000;0.5991;-5.5250;
1273.2000;0.5983;-5.5250;
1273.5000;0.5999;-5.5198;
1273.8000;0.5999;-5.5250;
1274.1000;0.6056;-5.5094;
1274.4000;0.5975;-5.5250;
1274.7000;0.5967;-5.5301;
1275.0000;0.5975;-5.5405;
1275.3000;0.5967;-5.5457;
1275.6000;0.5999;-5.5379;
1275.9000;0.5983;-5.5405;
1276.2000;0.5934;-5.5457;
1276.5000;0.5999;-5.5301;
1276.8000;0.5991;-5.5327;
1277.1000;0.6032;-5.5250;
1277.4000;0.6007;-5.5275;
1277.7000;0.5983;-5.5327;
1278.0000;0.6056;-5.5120;
1278.3000;0.5975;-5.5353;
1278.6000;0.5999;-5.5301;
1278.9000;0.6007;-5.5301;
1279.2000;0.5991;-5.5224;
1279.5000;0.5991;-5.5198;
1279.8000;0.5991;-5.5250;
1280.1000;0.5983;-5.5250;
1280.4000;0.5999;-5.5250;
1280.7000;0.6015;-5.5146;
1281.0000;0.5991;-5.5327;
1281.3000;0.5975;-5.5457;
1281.6000;0.6007;-5.5301;
1281.9000;0.6015;-5.5250;
1282.2000;0.5975;-5.5379;
1282.5000;0.5991;-5.5301;
1282.8000;0.6007;-5.5275;
1283.1000;0.6015;-5.5146;
1283.4000;0.5991;-5.5068;
1283.7000;0.6007;-5.5016;
1284.0000;0.5991;-5.4991;
1284.3000;0.5999;-5.5068;
1284.6000;0.5983;-5.5094;
1284.9000;0.5934;-5.5275;
1285.2000;0.5991;-5.5172;
1285.5000;0.5983;-5.5198;
1285.8000;0.5975;-5.5198;
1286.1000;0.5991;-5.5198;
1286.4000;0.5983;-5.5301;
1286.7000;0.5983;-5.5353;
1287.0000;0.5975;-5.5301;
1287.3000;0.6048;-5.5068;
1287.6000;0.5991;-5.5120;
1287.9000;0.5983;-5.5120;
1288.2000;0.5967;-5.5198;
1288.5000;0.5991;-5.5094;
1288.8000;0.6015;-5.5042;
1289.1000;0.5975;-5.5094;
1289.4000;0.5967;-5.5068;
1289.7000;0.5991;-5.5120;
1290.0000;0.5999;-5.5120;
1290.3000;0.5967;-5.5146;
1290.6000;0.5999;-5.4991;
1290.9000;0.5983;-5.5042;
1291.2000;0.5983;-5.5068;
1291.5000;0.5983;-5.5068;
1291.8000;0.5983;-5.5172;
1292.1000;0.6081;-5.4991;
1292.4000;0.5983;-5.5172;
1292.7000;0.5999;-5.5094;
1293.0000;0.5991;-5.5094;
1293.3000;0.6007;-5.5042;
1293.6000;0.5999;-5.5146;
1293.9000;0.5999;-5.5224;
1294.2000;0.5983;-5.5301;
1294.5000;0.5991;-5.5275;
1294.8000;0.5991;-5.5275;
1295.1000;0.5991;-5.5250;
1295.4000;0.5999;-5.5172;
1295.7000;0.5999;-5.5275;
1296.0000;0.5991;-5.5275;
1296.3000;0.5999;-5.5301;
1296.6000;0.5999;-5.5353;
1296.9000;0.6015;-5.5301;
1297.2000;0.5967;-5.5405;
1297.5000;0.6007;-5.5301;
1297.8000;0.5983;-5.5301;
1298.1000;0.5999;-5.5379;
1298.4000;0.5983;-5.5405;
1298.7000;0.5975;-5.5457;
1299.0000;0.5999;-5.5327;
1299.3000;0.5999;-5.5353;
1299.6000;0.5999;-5.5405;
1299.9000;0.5983;-5.5379;
1300.2000;0.6007;-5.5327;
1300.5000;0.5991;-5.5405;
1300.8000;0.5999;-5.5327;
1301.1000;0.5967;-5.5431;
1301.4000;0.5975;-5.5405;
1301.7000;0.5991;-5.5431;
1302.0000;0.5983;-5.5457;
1302.3000;0.5975;-5.5457;
1302.6000;0.5983;-5.5457;
1302.9000;0.5991;-5.5405;
1303.2000;0.5991;-5.5405;
1303.5000;0.5983;-5.5483;
1303.8000;0.5983;-5.5405;
1304.1000;0.5967;-5.5483;
1304.4000;0.5999;-5.5379;
1304.7000;0.5991;-5.5301;
1305.0000;0.5991;-5.5353;
1305.3000;0.5967;-5.5483;
1305.6000;0.5991;-5.5457;
1305.9000;0.5999;-5.5431;
1306.2000;0.5983;-5.5457;
1306.5000;0.5975;-5.5379;
1306.8000;0.5991;-5.5353;
1307.1000;0.6007;-5.5224;
1307.4000;0.5999;-5.5353;
1307.7000;0.5983;-5.5327;
1308.0000;0.5991;-5.5327;
1308.3000;0.5958;-5.5405;
1308.6000;0.5983;-5.5405;
1308.9000;0.5975;-5.5431;
1309.2000;0.5975;-5.5457;
1309.5000;0.5991;-5.5457;
1309.8000;0.6032;-5.5457;
1310.1000;0.5983;-5.5483;
1310.4000;0.5983;-5.5483;
1310.7000;0.5983;-5.5457;
1311.0000;0.5975;-5.5405;
1311.3000;0.6056;-5.5250;
1311.6000;0.5967;-5.5405;
1311.9000;0.5958;-5.5405;
1312.2000;0.5983;-5.5327;
1312.5000;0.5975;-5.5353;
1312.8000;0.5983;-5.5327;
1313.1000;0.5975;-5.5301;
1313.4000;0.5983;-5.5353;
1313.7000;0.5983;-5.5353;
1314.0000;0.5991;-5.5353;
1314.3000;0.5991;-5.5379;
1314.6000;0.6007;-5.5353;
1314.9000;0.5999;-5.5353;
1315.2000;0.5999;-5.5379;
1315.5000;0.5991;-5.5405;
1315.8000;0.5967;-5.5405;
1316.1000;0.6007;-5.5405;
1316.4000;0.5950;-5.5483;
1316.7000;0.5934;-5.5509;
1317.0000;0.5999;-5.5224;
1317.3000;0.5991;-5.5275;
1317.6000;0.5918;-5.5560;
1317.9000;0.5991;-5.5353;
1318.2000;0.6032;-5.5275;
1318.5000;0.5999;-5.5405;
1318.8000;0.5991;-5.5457;
1319.1000;0.5991;-5.5405;
1319.4000;0.5991;-5.5353;
1319.7000;0.6007;-5.5250;
1320.0000;0.5999;-5.5250;
1320.3000;0.5991;-5.5275;
1320.6000;0.5975;-5.5379;
1320.9000;0.5983;-5.5275;
1321.2000;0.5975;-5.5301;
1321.5000;0.5975;-5.5327;
1321.8000;0.5975;-5.5275;
1322.1000;0.5991;-5.5250;
1322.4000;0.5991;-5.5250;
1322.7000;0.5991;-5.5301;
1323.0000;0.5983;-5.5301;
1323.3000;0.5975;-5.5353;
1323.6000;0.5967;-5.5353;
1323.9000;0.5975;-5.5275;
1324.2000;0.5991;-5.5275;
1324.5000;0.5999;-5.5275;
1324.8000;0.6015;-5.5224;
1325.1000;0.6007;-5.5224;
1325.4000;0.5991;-5.5172;
1325.7000;0.5983;-5.5198;
1326.0000;0.5958;-5.5327;
1326.3000;0.5983;-5.5250;
1326.6000;0.5999;-5.5146;
1326.9000;0.5975;-5.5250;
1327.2000;0.5983;-5.5275;
1327.5000;0.5991;-5.5275;
1327.8000;0.5983;-5.5301;
1328.1000;0.5991;-5.5275;
1328.4000;0.5975;-5.5301;
1328.7000;0.5999;-5.5198;
1329.0000;0.5983;-5.5198;
1329.3000;0.5983;-5.5120;
1329.6000;0.5999;-5.5094;
1329.9000;0.5999;-5.5094;
1330.2000;0.5991;-5.5120;
1330.5000;0.5999;-5.5146;
1330.8000;0.5983;-5.5120;
1331.1000;0.5991;-5.5068;
1331.4000;0.5991;-5.5172;
1331.7000;0.6064;-5.5068;
1332.0000;0.5983;-5.5198;
1332.3000;0.5967;-5.5224;
1332.6000;0.5991;-5.5224;
1332.9000;0.5983;-5.5327;
1333.2000;0.5975;-5.5275;
1333.5000;0.5975;-5.5327;
1333.8000;0.5975;-5.5275;
1334.1000;0.5999;-5.5250;
1334.4000;0.5983;-5.5353;
1334.7000;0.5975;-5.5327;
1335.0000;0.6032;-5.5250;
1335.3000;0.5975;-5.5327;
1335.6000;0.5958;-5.5379;
1335.9000;0.5999;-5.5198;
1336.2000;0.5975;-5.5353;
1336.5000;0.5983;-5.5379;
1336.8000;0.6048;-5.5198;
1337.1000;0.5983;-5.5379;
1337.4000;0.5967;-5.5405;
1337.7000;0.5991;-5.5327;
1338.0000;0.5958;-5.5405;
1338.3000;0.5958;-5.5379;
1338.6000;0.5975;-5.5250;
1338.9000;0.5975;-5.5275;
1339.2000;0.5967;-5.5301;
1339.5000;0.5983;-5.5327;
1339.8000;0.5967;-5.5353;
1340.1000;0.5983;-5.5275;
1340.4000;0.5942;-5.5405;
1340.7000;0.5983;-5.5379;
1341.0000;0.5975;-5.5379;
1341.3000;0.5975;-5.5353;
1341.6000;0.5999;-5.5301;
1341.9000;0.5999;-5.5250;
1342.2000;0.5967;-5.5250;
1342.5000;0.5983;-5.5301;
1342.8000;0.5983;-5.5379;
1343.1000;0.5967;-5.5379;
1343.4000;0.5958;-5.5327;
1343.7000;0.5967;-5.5275;
1344.0000;0.6007;-5.5224;
1344.3000;0.5983;-5.5250;
1344.6000;0.5975;-5.5224;
1344.9000;0.5983;-5.5301;
1345.2000;0.5991;-5.5301;
1345.5000;0.5975;-5.5301;
1345.8000;0.5967;-5.5353;
1346.1000;0.5999;-5.5327;
1346.4000;0.5991;-5.5301;
1346.7000;0.5983;-5.5301;
1347.0000;0.5991;-5.5250;
1347.3000;0.5983;-5.5275;
1347.6000;0.5975;-5.5353;
1347.9000;0.5975;-5.5353;
1348.2000;0.5991;-5.5275;
1348.5000;0.5983;-5.5250;
1348.8000;0.5983;-5.5275;
1349.1000;0.5983;-5.5275;
1349.4000;0.5958;-5.5301;
1349.7000;0.5983;-5.5327;
1350.0000;0.5983;-5.5250;
1350.3000;0.6007;-5.5250;
1350.6000;0.5991;-5.5327;
1350.9000;0.5975;-5.5327;
1351.2000;0.5983;-5.5327;
1351.5000;0.5983;-5.5301;
1351.8000;0.5991;-5.5172;
1352.1000;0.5991;-5.5250;
1352.4000;0.5999;-5.5146;
1352.7000;0.5967;-5.5224;
1353.0000;0.5975;-5.5250;
1353.3000;0.5999;-5.5224;
1353.6000;0.5991;-5.5301;
1353.9000;0.5999;-5.5275;
1354.2000;0.5975;-5.5301;
1354.5000;0.6024;-5.5250;
1354.8000;0.5983;-5.5327;
1355.1000;0.5975;-5.5301;
1355.4000;0.5983;-5.5301;
1355.7000;0.5975;-5.5301;
1356.0000;0.5983;-5.5301;
1356.3000;0.5967;-5.5353;
1356.6000;0.5975;-5.5431;
1356.9000;0.5975;-5.5379;
1357.2000;0.6015;-5.5353;
1357.5000;0.5975;-5.5301;
1357.8000;0.6015;-5.5250;
1358.1000;0.5967;-5.5353;
1358.4000;0.5999;-5.5198;
1358.7000;0.5983;-5.5224;
1359.0000;0.5983;-5.5146;
1359.3000;0.6040;-5.4991;
1359.6000;0.5991;-5.5146;
1359.9000;0.5861;-5.5457;
1360.2000;0.5942;-5.5327;
1360.5000;0.5975;-5.5275;
1360.8000;0.5991;-5.5275;
1361.1000;0.5983;-5.5301;
1361.4000;0.5983;-5.5327;
1361.7000;0.5991;-5.5301;
1362.0000;0.5967;-5.5379;
1362.3000;0.5991;-5.5353;
1362.6000;0.5975;-5.5431;
1362.9000;0.5991;-5.5353;
1363.2000;0.5999;-5.5327;
1363.5000;0.5967;-5.5405;
1363.8000;0.5983;-5.5301;
1364.1000;0.5967;-5.5250;
1364.4000;0.5975;-5.5224;
1364.7000;0.5983;-5.5172;
1365.0000;0.5967;-5.5172;
1365.3000;0.5983;-5.5172;
1365.6000;0.5958;-5.5275;
1365.9000;0.5983;-5.5275;
1366.2000;0.5991;-5.5327;
1366.5000;0.5983;-5.5405;
1366.8000;0.5934;-5.5560;
1367.1000;0.5983;-5.5405;
1367.4000;0.6040;-5.5275;
1367.7000;0.5975;-5.5327;
1368.0000;0.5983;-5.5431;
1368.3000;0.5958;-5.5405;
1368.6000;0.6015;-5.5301;
1368.9000;0.5967;-5.5379;
1369.2000;0.5975;-5.5509;
1369.5000;0.5975;-5.5509;
1369.8000;0.5942;-5.5535;
1370.1000;0.5983;-5.5379;
1370.4000;0.5942;-5.5327;
1370.7000;0.5950;-5.5250;
1371.0000;0.5991;-5.5224;
1371.3000;0.5991;-5.5198;
1371.6000;0.5967;-5.5198;
1371.9000;0.5958;-5.5224;
1372.2000;0.6007;-5.5198;
1372.5000;0.5942;-5.5327;
1372.8000;0.5958;-5.5301;
1373.1000;0.5983;-5.5198;
1373.4000;0.5991;-5.5172;
1373.7000;0.5983;-5.5198;
1374.0000;0.5967;-5.5172;
1374.3000;0.5983;-5.5120;
1374.6000;0.5975;-5.5172;
1374.9000;0.5975;-5.5198;
1375.2000;0.5975;-5.5275;
1375.5000;0.5967;-5.5275;
1375.8000;0.5983;-5.5275;
1376.1000;0.5975;-5.5275;
1376.4000;0.5983;-5.5250;
1376.7000;0.6015;-5.5068;
1377.0000;0.5975;-5.5275;
1377.3000;0.5975;-5.5198;
1377.6000;0.5967;-5.5250;
1377.9000;0.5983;-5.5172;
1378.2000;0.5967;-5.5250;
1378.5000;0.5999;-5.5224;
1378.8000;0.5983;-5.5250;
1379.1000;0.5991;-5.5146;
1379.4000;0.5975;-5.5172;
1379.7000;0.5983;-5.5068;
1380.0000;0.5975;-5.5172;
1380.3000;0.5958;-5.5198;
1380.6000;0.5967;-5.5120;
1380.9000;0.5967;-5.5172;
1381.2000;0.6007;-5.5146;
1381.5000;0.5991;-5.5146;
1381.8000;0.5975;-5.5172;
1382.1000;0.5991;-5.5094;
1382.4000;0.5983;-5.5094;
1382.7000;0.5975;-5.5172;
1383.0000;0.5975;-5.5198;
1383.3000;0.5958;-5.5198;
1383.6000;0.5975;-5.5146;
1383.9000;0.6015;-5.5042;
1384.2000;0.6007;-5.5094;
1384.5000;0.5975;-5.5224;
1384.8000;0.5975;-5.5250;
1385.1000;0.5983;-5.5250;
1385.4000;0.5950;-5.5327;
1385.7000;0.5975;-5.5224;
1386.0000;0.5975;-5.5172;
1386.3000;0.5991;-5.5146;
1386.6000;0.5983;-5.5172;
1386.9000;0.5983;-5.5146;
1387.2000;0.5950;-5.5224;
1387.5000;0.5910;-5.5275;
1387.8000;0.5999;-5.5068;
1388.1000;0.5975;-5.5172;
1388.4000;0.5999;-5.5120;
1388.7000;0.5967;-5.5250;
1389.0000;0.5975;-5.5275;
1389.3000;0.5958;-5.5405;
1389.6000;0.5975;-5.5353;
1389.9000;0.5975;-5.5275;
1390.2000;0.5999;-5.5301;
1390.5000;0.5999;-5.5275;
1390.8000;0.5975;-5.5353;
1391.1000;0.5991;-5.5379;
1391.4000;0.6007;-5.5275;
1391.7000;0.5999;-5.5353;
1392.0000;0.6007;-5.5224;
1392.3000;0.5991;-5.5198;
1392.6000;0.6007;-5.5094;
1392.9000;0.6024;-5.5042;
1393.2000;0.5991;-5.5172;
1393.5000;0.6007;-5.5301;
1393.8000;0.5991;-5.5327;
1394.1000;0.5975;-5.5353;
1394.4000;0.5926;-5.5431;
1394.7000;0.5983;-5.5353;
1395.0000;0.5975;-5.5483;
1395.3000;0.5983;-5.5405;
1395.6000;0.5967;-5.5379;
1395.9000;0.5967;-5.5379;
1396.2000;0.5975;-5.5250;
1396.5000;0.5999;-5.5146;
1396.8000;0.5975;-5.5198;
1397.1000;0.5983;-5.5250;
1397.4000;0.5991;-5.5275;
1397.7000;0.5991;-5.5198;
1398.0000;0.5926;-5.5301;
1398.3000;0.5983;-5.5094;
1398.6000;0.5983;-5.5120;
1398.9000;0.5975;-5.5172;
1399.2000;0.5910;-5.5275;
1399.5000;0.5967;-5.5172;
1399.8000;0.5975;-5.5198;
