time/ms;Fluo/V;P700 deltaI/I x10³;
-199.8000;0.9280;-5.3126;
-199.5000;0.9288;-5.3151;
-199.2000;0.9263;-5.3151;
-198.9000;0.9271;-5.3151;
-198.6000;0.9280;-5.3048;
-198.3000;0.9271;-5.3100;
-198.0000;0.9288;-5.3126;
-197.7000;0.9280;-5.3126;
-197.4000;0.9280;-5.3203;
-197.1000;0.9337;-5.3100;
-196.8000;0.9288;-5.3281;
-196.5000;0.9280;-5.3281;
-196.2000;0.9320;-5.3203;
-195.9000;0.9296;-5.3281;
-195.6000;0.9239;-5.3462;
-195.3000;0.9288;-5.3359;
-195.0000;0.9280;-5.3307;
-194.7000;0.9271;-5.3255;
-194.4000;0.9288;-5.3307;
-194.1000;0.9280;-5.3255;
-193.8000;0.9280;-5.3177;
-193.5000;0.9296;-5.3203;
-193.2000;0.9288;-5.3203;
-192.9000;0.9280;-5.3229;
-192.6000;0.9263;-5.3229;
-192.3000;0.9296;-5.3177;
-192.0000;0.9288;-5.3126;
-191.7000;0.9288;-5.3151;
-191.4000;0.9288;-5.3048;
-191.1000;0.9288;-5.3022;
-190.8000;0.9296;-5.2944;
-190.5000;0.9296;-5.2892;
-190.2000;0.9280;-5.2841;
-189.9000;0.9288;-5.2867;
-189.6000;0.9280;-5.3022;
-189.3000;0.9288;-5.3074;
-189.0000;0.9288;-5.2996;
-188.7000;0.9296;-5.3048;
-188.4000;0.9304;-5.3022;
-188.1000;0.9296;-5.3100;
-187.8000;0.9296;-5.3048;
-187.5000;0.9288;-5.2996;
-187.2000;0.9280;-5.3074;
-186.9000;0.9312;-5.3100;
-186.6000;0.9263;-5.3177;
-186.3000;0.9288;-5.3177;
-186.0000;0.9304;-5.3126;
-185.7000;0.9263;-5.3203;
-185.4000;0.9239;-5.3307;
-185.1000;0.9263;-5.3203;
-184.8000;0.9288;-5.3126;
-184.5000;0.9296;-5.3151;
-184.2000;0.9296;-5.3126;
-183.9000;0.9288;-5.3074;
-183.6000;0.9263;-5.3074;
-183.3000;0.9280;-5.3074;
-183.0000;0.9288;-5.3022;
-182.7000;0.9288;-5.2996;
-182.4000;0.9280;-5.3074;
-182.1000;0.9288;-5.3048;
-181.8000;0.9288;-5.3100;
-181.5000;0.9288;-5.3126;
-181.2000;0.9280;-5.3151;
-180.9000;0.9271;-5.3022;
-180.6000;0.9296;-5.2996;
-180.3000;0.9296;-5.3100;
-180.0000;0.9271;-5.3151;
-179.7000;0.9328;-5.3048;
-179.4000;0.9288;-5.3203;
-179.1000;0.9271;-5.3100;
-178.8000;0.9271;-5.3048;
-178.5000;0.9280;-5.3022;
-178.2000;0.9288;-5.2996;
-177.9000;0.9280;-5.3074;
-177.6000;0.9280;-5.3022;
-177.3000;0.9296;-5.2918;
-177.0000;0.9280;-5.3022;
-176.7000;0.9280;-5.2996;
-176.4000;0.9280;-5.2970;
-176.1000;0.9288;-5.3022;
-175.8000;0.9280;-5.3022;
-175.5000;0.9296;-5.3048;
-175.2000;0.9288;-5.3151;
-174.9000;0.9296;-5.3100;
-174.6000;0.9247;-5.3255;
-174.3000;0.9288;-5.3203;
-174.0000;0.9280;-5.3151;
-173.7000;0.9271;-5.3203;
-173.4000;0.9280;-5.3177;
-173.1000;0.9288;-5.3074;
-172.8000;0.9296;-5.2996;
-172.5000;0.9263;-5.2970;
-172.2000;0.9288;-5.2918;
-171.9000;0.9271;-5.2970;
-171.6000;0.9288;-5.2996;
-171.3000;0.9304;-5.2944;
-171.0000;0.9280;-5.2970;
-170.7000;0.9288;-5.2892;
-170.4000;0.9304;-5.2918;
-170.1000;0.9288;-5.3022;
-169.8000;0.9280;-5.3074;
-169.5000;0.9255;-5.3203;
-169.2000;0.9288;-5.3151;
-168.9000;0.9296;-5.3177;
-168.6000;0.9296;-5.3255;
-168.3000;0.9223;-5.3462;
-168.0000;0.9304;-5.3281;
-167.7000;0.9288;-5.3203;
-167.4000;0.9369;-5.2970;
-167.1000;0.9280;-5.3203;
-166.8000;0.9280;-5.3255;
-166.5000;0.9296;-5.3307;
-166.2000;0.9288;-5.3307;
-165.9000;0.9296;-5.3229;
-165.6000;0.9263;-5.3255;
-165.3000;0.9296;-5.3203;
-165.0000;0.9296;-5.3307;
-164.7000;0.9288;-5.3359;
-164.4000;0.9271;-5.3462;
-164.1000;0.9304;-5.3385;
-163.8000;0.9304;-5.3462;
-163.5000;0.9231;-5.3695;
-163.2000;0.9304;-5.3436;
-162.9000;0.9271;-5.3488;
-162.6000;0.9288;-5.3411;
-162.3000;0.9280;-5.3462;
-162.0000;0.9271;-5.3462;
-161.7000;0.9304;-5.3385;
-161.4000;0.9353;-5.3229;
-161.1000;0.9288;-5.3359;
-160.8000;0.9280;-5.3359;
-160.5000;0.9304;-5.3307;
-160.2000;0.9304;-5.3255;
-159.9000;0.9247;-5.3359;
-159.6000;0.9288;-5.3281;
-159.3000;0.9280;-5.3255;
-159.0000;0.9296;-5.3229;
-158.7000;0.9320;-5.3177;
-158.4000;0.9304;-5.3151;
-158.1000;0.9312;-5.3151;
-157.8000;0.9288;-5.3151;
-157.5000;0.9304;-5.3151;
-157.2000;0.9288;-5.3126;
-156.9000;0.9296;-5.3151;
-156.6000;0.9280;-5.3177;
-156.3000;0.9231;-5.3229;
-156.0000;0.9288;-5.3074;
-155.7000;0.9288;-5.3100;
-155.4000;0.9271;-5.3177;
-155.1000;0.9288;-5.3074;
-154.8000;0.9271;-5.3151;
-154.5000;0.9255;-5.3255;
-154.2000;0.9288;-5.3177;
-153.9000;0.9247;-5.3203;
-153.6000;0.9320;-5.3048;
-153.3000;0.9280;-5.3074;
-153.0000;0.9296;-5.3203;
-152.7000;0.9304;-5.3203;
-152.4000;0.9296;-5.3151;
-152.1000;0.9271;-5.3203;
-151.8000;0.9280;-5.3177;
-151.5000;0.9263;-5.3255;
-151.2000;0.9296;-5.3177;
-150.9000;0.9296;-5.3126;
-150.6000;0.9263;-5.3203;
-150.3000;0.9271;-5.3151;
-150.0000;0.9280;-5.3126;
-149.7000;0.9288;-5.3203;
-149.4000;0.9280;-5.3203;
-149.1000;0.9271;-5.3229;
-148.8000;0.9304;-5.3255;
-148.5000;0.9280;-5.3359;
-148.2000;0.9304;-5.3177;
-147.9000;0.9288;-5.3177;
-147.6000;0.9304;-5.3126;
-147.3000;0.9288;-5.3151;
-147.0000;0.9288;-5.3126;
-146.7000;0.9304;-5.2996;
-146.4000;0.9280;-5.2996;
-146.1000;0.9247;-5.3100;
-145.8000;0.9280;-5.2970;
-145.5000;0.9255;-5.3100;
-145.2000;0.9304;-5.2970;
-144.9000;0.9296;-5.3048;
-144.6000;0.9320;-5.2944;
-144.3000;0.9255;-5.3074;
-144.0000;0.9271;-5.3074;
-143.7000;0.9288;-5.3151;
-143.4000;0.9320;-5.3048;
-143.1000;0.9206;-5.3307;
-142.8000;0.9280;-5.3151;
-142.5000;0.9288;-5.3100;
-142.2000;0.9288;-5.3126;
-141.9000;0.9271;-5.3126;
-141.6000;0.9271;-5.3100;
-141.3000;0.9288;-5.3074;
-141.0000;0.9296;-5.3100;
-140.7000;0.9296;-5.3048;
-140.4000;0.9312;-5.3100;
-140.1000;0.9288;-5.3126;
-139.8000;0.9304;-5.2996;
-139.5000;0.9263;-5.3022;
-139.2000;0.9288;-5.3022;
-138.9000;0.9255;-5.3126;
-138.6000;0.9296;-5.2996;
-138.3000;0.9288;-5.2970;
-138.0000;0.9288;-5.2944;
-137.7000;0.9271;-5.2944;
-137.4000;0.9288;-5.2918;
-137.1000;0.9280;-5.2867;
-136.8000;0.9288;-5.2918;
-136.5000;0.9288;-5.3022;
-136.2000;0.9271;-5.2996;
-135.9000;0.9280;-5.2996;
-135.6000;0.9296;-5.2970;
-135.3000;0.9271;-5.2996;
-135.0000;0.9280;-5.2970;
-134.7000;0.9280;-5.2918;
-134.4000;0.9288;-5.2867;
-134.1000;0.9296;-5.2841;
-133.8000;0.9296;-5.2789;
-133.5000;0.9280;-5.2815;
-133.2000;0.9280;-5.2841;
-132.9000;0.9280;-5.2892;
-132.6000;0.9304;-5.2815;
-132.3000;0.9231;-5.3022;
-132.0000;0.9223;-5.3022;
-131.7000;0.9280;-5.2815;
-131.4000;0.9280;-5.2789;
-131.1000;0.9271;-5.2815;
-130.8000;0.9263;-5.2944;
-130.5000;0.9296;-5.2918;
-130.2000;0.9231;-5.2970;
-129.9000;0.9239;-5.2867;
-129.6000;0.9288;-5.2841;
-129.3000;0.9280;-5.2841;
-129.0000;0.9288;-5.2841;
-128.7000;0.9288;-5.2867;
-128.4000;0.9312;-5.2815;
-128.1000;0.9288;-5.2892;
-127.8000;0.9288;-5.2944;
-127.5000;0.9288;-5.2996;
-127.2000;0.9288;-5.3022;
-126.9000;0.9288;-5.2970;
-126.6000;0.9288;-5.2841;
-126.3000;0.9296;-5.2867;
-126.0000;0.9296;-5.2892;
-125.7000;0.9271;-5.2970;
-125.4000;0.9271;-5.2918;
-125.1000;0.9288;-5.2867;
-124.8000;0.9288;-5.2815;
-124.5000;0.9288;-5.2763;
-124.2000;0.9288;-5.2789;
-123.9000;0.9280;-5.2763;
-123.6000;0.9288;-5.2763;
-123.3000;0.9288;-5.2711;
-123.0000;0.9288;-5.2789;
-122.7000;0.9296;-5.2841;
-122.4000;0.9271;-5.2867;
-122.1000;0.9271;-5.2892;
-121.8000;0.9288;-5.2918;
-121.5000;0.9280;-5.2867;
-121.2000;0.9280;-5.2918;
-120.9000;0.9263;-5.2970;
-120.6000;0.9271;-5.2944;
-120.3000;0.9288;-5.2918;
-120.0000;0.9280;-5.2892;
-119.7000;0.9280;-5.2892;
-119.4000;0.9320;-5.2841;
-119.1000;0.9312;-5.2815;
-118.8000;0.9288;-5.2892;
-118.5000;0.9337;-5.2815;
-118.2000;0.9296;-5.2918;
-117.9000;0.9296;-5.2892;
-117.6000;0.9288;-5.2892;
-117.3000;0.9288;-5.2996;
-117.0000;0.9271;-5.3048;
-116.7000;0.9280;-5.2996;
-116.4000;0.9280;-5.2996;
-116.1000;0.9271;-5.3022;
-115.8000;0.9345;-5.2789;
-115.5000;0.9288;-5.2996;
-115.2000;0.9280;-5.2996;
-114.9000;0.9288;-5.2970;
-114.6000;0.9320;-5.2918;
-114.3000;0.9280;-5.2892;
-114.0000;0.9263;-5.2867;
-113.7000;0.9288;-5.2918;
-113.4000;0.9353;-5.2789;
-113.1000;0.9296;-5.2918;
-112.8000;0.9304;-5.2867;
-112.5000;0.9312;-5.2815;
-112.2000;0.9288;-5.2867;
-111.9000;0.9280;-5.2867;
-111.6000;0.9288;-5.2892;
-111.3000;0.9288;-5.2892;
-111.0000;0.9280;-5.2918;
-110.7000;0.9271;-5.2944;
-110.4000;0.9280;-5.2841;
-110.1000;0.9320;-5.2789;
-109.8000;0.9280;-5.2892;
-109.5000;0.9263;-5.2918;
-109.2000;0.9288;-5.2841;
-108.9000;0.9288;-5.2918;
-108.6000;0.9271;-5.2892;
-108.3000;0.9271;-5.2867;
-108.0000;0.9288;-5.2867;
-107.7000;0.9288;-5.2815;
-107.4000;0.9280;-5.2892;
-107.1000;0.9271;-5.2944;
-106.8000;0.9328;-5.2815;
-106.5000;0.9304;-5.2841;
-106.2000;0.9280;-5.2867;
-105.9000;0.9288;-5.2815;
-105.6000;0.9288;-5.2867;
-105.3000;0.9263;-5.2892;
-105.0000;0.9271;-5.2918;
-104.7000;0.9271;-5.2970;
-104.4000;0.9271;-5.2996;
-104.1000;0.9271;-5.2970;
-103.8000;0.9271;-5.2996;
-103.5000;0.9271;-5.3022;
-103.2000;0.9288;-5.2944;
-102.9000;0.9304;-5.2892;
-102.6000;0.9271;-5.2996;
-102.3000;0.9288;-5.2944;
-102.0000;0.9296;-5.2944;
-101.7000;0.9312;-5.2918;
-101.4000;0.9312;-5.2970;
-101.1000;0.9288;-5.2996;
-100.8000;0.9288;-5.2970;
-100.5000;0.9304;-5.2918;
-100.2000;0.9296;-5.2867;
-99.9000;0.9296;-5.2892;
-99.6000;0.9337;-5.2815;
-99.3000;0.9271;-5.2918;
-99.0000;0.9280;-5.2970;
-98.7000;0.9288;-5.3022;
-98.4000;0.9288;-5.2996;
-98.1000;0.9288;-5.3022;
-97.8000;0.9280;-5.3022;
-97.5000;0.9304;-5.2996;
-97.2000;0.9223;-5.3177;
-96.9000;0.9263;-5.3074;
-96.6000;0.9288;-5.2970;
-96.3000;0.9271;-5.2996;
-96.0000;0.9280;-5.2996;
-95.7000;0.9255;-5.3048;
-95.4000;0.9263;-5.3100;
-95.1000;0.9263;-5.3151;
-94.8000;0.9271;-5.3203;
-94.5000;0.9271;-5.3126;
-94.2000;0.9288;-5.3022;
-93.9000;0.9288;-5.2996;
-93.6000;0.9296;-5.2970;
-93.3000;0.9280;-5.3022;
-93.0000;0.9247;-5.3126;
-92.7000;0.9288;-5.3048;
-92.4000;0.9296;-5.3048;
-92.1000;0.9304;-5.2996;
-91.8000;0.9288;-5.2996;
-91.5000;0.9288;-5.2970;
-91.2000;0.9288;-5.3022;
-90.9000;0.9304;-5.3074;
-90.6000;0.9312;-5.3126;
-90.3000;0.9288;-5.3074;
-90.0000;0.9280;-5.3048;
-89.7000;0.9304;-5.2970;
-89.4000;0.9288;-5.2996;
-89.1000;0.9280;-5.2996;
-88.8000;0.9328;-5.2867;
-88.5000;0.9304;-5.2944;
-88.2000;0.9280;-5.2970;
-87.9000;0.9271;-5.2970;
-87.6000;0.9280;-5.2944;
-87.3000;0.9280;-5.2918;
-87.0000;0.9271;-5.2996;
-86.7000;0.9280;-5.2970;
-86.4000;0.9288;-5.2996;
-86.1000;0.9304;-5.3022;
-85.8000;0.9280;-5.3022;
-85.5000;0.9280;-5.2944;
-85.2000;0.9263;-5.2996;
-84.9000;0.9271;-5.2970;
-84.6000;0.9288;-5.3022;
-84.3000;0.9271;-5.3151;
-84.0000;0.9312;-5.2970;
-83.7000;0.9288;-5.3048;
-83.4000;0.9288;-5.3048;
-83.1000;0.9288;-5.2996;
-82.8000;0.9231;-5.3100;
-82.5000;0.9280;-5.2970;
-82.2000;0.9263;-5.3048;
-81.9000;0.9288;-5.2996;
-81.6000;0.9271;-5.3074;
-81.3000;0.9280;-5.3126;
-81.0000;0.9296;-5.3048;
-80.7000;0.9280;-5.3048;
-80.4000;0.9263;-5.3100;
-80.1000;0.9288;-5.3022;
-79.8000;0.9271;-5.3022;
-79.5000;0.9255;-5.3100;
-79.2000;0.9271;-5.3151;
-78.9000;0.9271;-5.3126;
-78.6000;0.9280;-5.3100;
-78.3000;0.9280;-5.3048;
-78.0000;0.9288;-5.3022;
-77.7000;0.9296;-5.3022;
-77.4000;0.9288;-5.3048;
-77.1000;0.9296;-5.3022;
-76.8000;0.9288;-5.3048;
-76.5000;0.9288;-5.3074;
-76.2000;0.9288;-5.2944;
-75.9000;0.9280;-5.2892;
-75.6000;0.9312;-5.2841;
-75.3000;0.9280;-5.2918;
-75.0000;0.9304;-5.2970;
-74.7000;0.9328;-5.2996;
-74.4000;0.9296;-5.3126;
-74.1000;0.9271;-5.3151;
-73.8000;0.9280;-5.3100;
-73.5000;0.9280;-5.3100;
-73.2000;0.9247;-5.3203;
-72.9000;0.9280;-5.3022;
-72.6000;0.9280;-5.3022;
-72.3000;0.9288;-5.2996;
-72.0000;0.9296;-5.2944;
-71.7000;0.9296;-5.2918;
-71.4000;0.9296;-5.2918;
-71.1000;0.9296;-5.2918;
-70.8000;0.9296;-5.2918;
-70.5000;0.9312;-5.2867;
-70.2000;0.9304;-5.2841;
-69.9000;0.9304;-5.2892;
-69.6000;0.9312;-5.2944;
-69.3000;0.9296;-5.2867;
-69.0000;0.9280;-5.2892;
-68.7000;0.9296;-5.2867;
-68.4000;0.9288;-5.2892;
-68.1000;0.9296;-5.2892;
-67.8000;0.9288;-5.3022;
-67.5000;0.9271;-5.3022;
-67.2000;0.9280;-5.3022;
-66.9000;0.9271;-5.3100;
-66.6000;0.9280;-5.3022;
-66.3000;0.9263;-5.3022;
-66.0000;0.9288;-5.2996;
-65.7000;0.9296;-5.3048;
-65.4000;0.9296;-5.3022;
-65.1000;0.9296;-5.3048;
-64.8000;0.9280;-5.3022;
-64.5000;0.9304;-5.2996;
-64.2000;0.9288;-5.2918;
-63.9000;0.9280;-5.2996;
-63.6000;0.9296;-5.2867;
-63.3000;0.9280;-5.2944;
-63.0000;0.9271;-5.2918;
-62.7000;0.9288;-5.2867;
-62.4000;0.9288;-5.2944;
-62.1000;0.9288;-5.3048;
-61.8000;0.9296;-5.2970;
-61.5000;0.9296;-5.2892;
-61.2000;0.9296;-5.2867;
-60.9000;0.9280;-5.2841;
-60.6000;0.9296;-5.2789;
-60.3000;0.9345;-5.2763;
-60.0000;0.9271;-5.2944;
-59.7000;0.9304;-5.2944;
-59.4000;0.9280;-5.3074;
-59.1000;0.9296;-5.3100;
-58.8000;0.9280;-5.3151;
-58.5000;0.9296;-5.3151;
-58.2000;0.9263;-5.3203;
-57.9000;0.9280;-5.3151;
-57.6000;0.9296;-5.3151;
-57.3000;0.9304;-5.3126;
-57.0000;0.9271;-5.3177;
-56.7000;0.9304;-5.3074;
-56.4000;0.9296;-5.3048;
-56.1000;0.9271;-5.3100;
-55.8000;0.9288;-5.2996;
-55.5000;0.9288;-5.3074;
-55.2000;0.9296;-5.3048;
-54.9000;0.9280;-5.3074;
-54.6000;0.9271;-5.3048;
-54.3000;0.9271;-5.2996;
-54.0000;0.9288;-5.2918;
-53.7000;0.9271;-5.2970;
-53.4000;0.9271;-5.3022;
-53.1000;0.9280;-5.2944;
-52.8000;0.9280;-5.2918;
-52.5000;0.9288;-5.2892;
-52.2000;0.9271;-5.2918;
-51.9000;0.9280;-5.2970;
-51.6000;0.9280;-5.2970;
-51.3000;0.9288;-5.2944;
-51.0000;0.9288;-5.2996;
-50.7000;0.9280;-5.3048;
-50.4000;0.9288;-5.3022;
-50.1000;0.9280;-5.2996;
-49.8000;0.9280;-5.2996;
-49.5000;0.9263;-5.3074;
-49.2000;0.9304;-5.2944;
-48.9000;0.9304;-5.2918;
-48.6000;0.9280;-5.2918;
-48.3000;0.9263;-5.2944;
-48.0000;0.9312;-5.2867;
-47.7000;0.9296;-5.2867;
-47.4000;0.9231;-5.2996;
-47.1000;0.9304;-5.2867;
-46.8000;0.9280;-5.2892;
-46.5000;0.9296;-5.2841;
-46.2000;0.9304;-5.2841;
-45.9000;0.9206;-5.3100;
-45.6000;0.9288;-5.3048;
-45.3000;0.9288;-5.3048;
-45.0000;0.9312;-5.3074;
-44.7000;0.9288;-5.3048;
-44.4000;0.9280;-5.3074;
-44.1000;0.9288;-5.2996;
-43.8000;0.9296;-5.2996;
-43.5000;0.9271;-5.2996;
-43.2000;0.9280;-5.3022;
-42.9000;0.9288;-5.2996;
-42.6000;0.9296;-5.3048;
-42.3000;0.9280;-5.3074;
-42.0000;0.9288;-5.3074;
-41.7000;0.9280;-5.3151;
-41.4000;0.9288;-5.3177;
-41.1000;0.9304;-5.3177;
-40.8000;0.9271;-5.3281;
-40.5000;0.9296;-5.3177;
-40.2000;0.9337;-5.2996;
-39.9000;0.9304;-5.3022;
-39.6000;0.9288;-5.2996;
-39.3000;0.9271;-5.3126;
-39.0000;0.9280;-5.2996;
-38.7000;0.9288;-5.2996;
-38.4000;0.9304;-5.3100;
-38.1000;0.9296;-5.3151;
-37.8000;0.9280;-5.3100;
-37.5000;0.9288;-5.3022;
-37.2000;0.9312;-5.2918;
-36.9000;0.9280;-5.2996;
-36.6000;0.9271;-5.3100;
-36.3000;0.9271;-5.3048;
-36.0000;0.9271;-5.3022;
-35.7000;0.9271;-5.3074;
-35.4000;0.9288;-5.3074;
-35.1000;0.9280;-5.3074;
-34.8000;0.9304;-5.3048;
-34.5000;0.9255;-5.3126;
-34.2000;0.9271;-5.3074;
-33.9000;0.9304;-5.3022;
-33.6000;0.9280;-5.3100;
-33.3000;0.9288;-5.3126;
-33.0000;0.9304;-5.3126;
-32.7000;0.9280;-5.3151;
-32.4000;0.9296;-5.3048;
-32.1000;0.9271;-5.3022;
-31.8000;0.9247;-5.3100;
-31.5000;0.9206;-5.3151;
-31.2000;0.9296;-5.2944;
-30.9000;0.9271;-5.3048;
-30.6000;0.9296;-5.2944;
-30.3000;0.9280;-5.2996;
-30.0000;0.9304;-5.2867;
-29.7000;0.9288;-5.2918;
-29.4000;0.9271;-5.3022;
-29.1000;0.9288;-5.3100;
-28.8000;0.9271;-5.3151;
-28.5000;0.9288;-5.3177;
-28.2000;0.9304;-5.3151;
-27.9000;0.9247;-5.3229;
-27.6000;0.9263;-5.3307;
-27.3000;0.9271;-5.3359;
-27.0000;0.9280;-5.3229;
-26.7000;0.9280;-5.3229;
-26.4000;0.9280;-5.3281;
-26.1000;0.9280;-5.3177;
-25.8000;0.9280;-5.3100;
-25.5000;0.9296;-5.3100;
-25.2000;0.9288;-5.3048;
-24.9000;0.9271;-5.3022;
-24.6000;0.9263;-5.3022;
-24.3000;0.9280;-5.2996;
-24.0000;0.9320;-5.2918;
-23.7000;0.9296;-5.2970;
-23.4000;0.9312;-5.2970;
-23.1000;0.9296;-5.2970;
-22.8000;0.9223;-5.3151;
-22.5000;0.9337;-5.2841;
-22.2000;0.9280;-5.2996;
-21.9000;0.9271;-5.2996;
-21.6000;0.9280;-5.2996;
-21.3000;0.9280;-5.2970;
-21.0000;0.9280;-5.2867;
-20.7000;0.9288;-5.2841;
-20.4000;0.9263;-5.2841;
-20.1000;0.9263;-5.2892;
-19.8000;0.9296;-5.2918;
-19.5000;0.9288;-5.2970;
-19.2000;0.9296;-5.3022;
-18.9000;0.9296;-5.3100;
-18.6000;0.9280;-5.3126;
-18.3000;0.9288;-5.2996;
-18.0000;0.9280;-5.2996;
-17.7000;0.9263;-5.3074;
-17.4000;0.9263;-5.2970;
-17.1000;0.9280;-5.2970;
-16.8000;0.9280;-5.2996;
-16.5000;0.9280;-5.3048;
-16.2000;0.9296;-5.3048;
-15.9000;0.9280;-5.3022;
-15.6000;0.9288;-5.2970;
-15.3000;0.9288;-5.3100;
-15.0000;0.9280;-5.3100;
-14.7000;0.9280;-5.3048;
-14.4000;0.9280;-5.3022;
-14.1000;0.9263;-5.2996;
-13.8000;0.9288;-5.3048;
-13.5000;0.9304;-5.3100;
-13.2000;0.9280;-5.3177;
-12.9000;0.9280;-5.3229;
-12.6000;0.9263;-5.3229;
-12.3000;0.9280;-5.3229;
-12.0000;0.9288;-5.3203;
-11.7000;0.9271;-5.3177;
-11.4000;0.9288;-5.3177;
-11.1000;0.9288;-5.3255;
-10.8000;0.9337;-5.3203;
-10.5000;0.9296;-5.3255;
-10.2000;0.9288;-5.3177;
-9.9000;0.9271;-5.3177;
-9.6000;0.9280;-5.3151;
-9.3000;0.9320;-5.3151;
-9.0000;0.9320;-5.3203;
-8.7000;0.9312;-5.3151;
-8.4000;0.9263;-5.3177;
-8.1000;0.9304;-5.3048;
-7.8000;0.9296;-5.3100;
-7.5000;0.9288;-5.3048;
-7.2000;0.9271;-5.3126;
-6.9000;0.9280;-5.3022;
-6.6000;0.9312;-5.2996;
-6.3000;0.9263;-5.3074;
-6.0000;0.9288;-5.3100;
-5.7000;0.9320;-5.2918;
-5.4000;0.9271;-5.3100;
-5.1000;0.9345;-5.2918;
-4.8000;0.9288;-5.3022;
-4.5000;0.9296;-5.3048;
-4.2000;0.9296;-5.3022;
-3.9000;0.9255;-5.3048;
-3.6000;0.9304;-5.2892;
-3.3000;0.9288;-5.2944;
-3.0000;0.9263;-5.2944;
-2.7000;0.9288;-5.2815;
-2.4000;0.9312;-5.2789;
-2.1000;0.9280;-5.2918;
-1.8000;0.9280;-5.3048;
-1.5000;0.9271;-5.3022;
-1.2000;0.9304;-5.2970;
-0.9000;0.9280;-5.3100;
-0.6000;0.9288;-5.3100;
-0.3000;0.9304;-5.3074;
0.0000;0.9304;-5.3074;
0.3000;0.9320;-5.2970;
0.6000;0.9418;-5.2452;
0.9000;0.9451;-5.2167;
1.2000;0.9426;-5.2012;
1.5000;0.9524;-5.1546;
1.8000;0.9581;-5.1235;
2.1000;0.9589;-5.1053;
2.4000;0.9646;-5.0768;
2.7000;0.9638;-5.0794;
3.0000;0.9646;-5.0820;
3.3000;0.9646;-5.0717;
3.6000;0.9662;-5.0639;
3.9000;0.9670;-5.0509;
4.2000;0.9678;-5.0406;
4.5000;0.9695;-5.0354;
4.8000;0.9711;-5.0328;
5.1000;0.9695;-5.0354;
5.4000;0.9703;-5.0250;
5.7000;0.9719;-5.0276;
6.0000;0.9727;-5.0328;
6.3000;0.9719;-5.0302;
6.6000;0.9703;-5.0276;
6.9000;0.9719;-5.0276;
7.2000;0.9744;-5.0173;
7.5000;0.9760;-5.0199;
7.8000;0.9744;-5.0276;
8.1000;0.9735;-5.0225;
8.4000;0.9760;-5.0147;
8.7000;0.9744;-5.0173;
9.0000;0.9735;-5.0225;
9.3000;0.9735;-5.0199;
9.6000;0.9735;-5.0121;
9.9000;0.9768;-5.0095;
10.2000;0.9776;-5.0147;
10.5000;0.9768;-5.0199;
10.8000;0.9768;-5.0147;
11.1000;0.9776;-5.0121;
11.4000;0.9768;-5.0147;
11.7000;0.9760;-5.0250;
12.0000;0.9760;-5.0302;
12.3000;0.9760;-5.0276;
12.6000;0.9768;-5.0250;
12.9000;0.9760;-5.0302;
13.2000;0.9760;-5.0328;
13.5000;0.9760;-5.0225;
13.8000;0.9776;-5.0173;
14.1000;0.9776;-5.0069;
14.4000;0.9768;-5.0043;
14.7000;0.9801;-4.9888;
15.0000;0.9776;-4.9991;
15.3000;0.9768;-4.9940;
15.6000;0.9792;-4.9966;
15.9000;0.9801;-4.9966;
16.2000;0.9792;-4.9966;
16.5000;0.9752;-5.0095;
16.8000;0.9784;-4.9991;
17.1000;0.9817;-4.9940;
17.4000;0.9809;-4.9914;
17.7000;0.9801;-4.9888;
18.0000;0.9776;-4.9888;
18.3000;0.9784;-4.9991;
18.6000;0.9792;-5.0017;
18.9000;0.9744;-5.0199;
19.2000;0.9768;-5.0095;
19.5000;0.9784;-5.0043;
19.8000;0.9833;-4.9862;
20.1000;0.9801;-4.9888;
20.4000;0.9801;-4.9810;
20.7000;0.9801;-4.9862;
21.0000;0.9744;-5.0043;
21.3000;0.9801;-4.9966;
21.6000;0.9825;-4.9914;
21.9000;0.9801;-5.0043;
22.2000;0.9809;-5.0043;
22.5000;0.9809;-5.0017;
22.8000;0.9801;-5.0069;
23.1000;0.9809;-5.0043;
23.4000;0.9792;-5.0069;
23.7000;0.9801;-4.9991;
24.0000;0.9792;-4.9966;
24.3000;0.9817;-4.9862;
24.6000;0.9784;-4.9914;
24.9000;0.9801;-4.9914;
25.2000;0.9809;-4.9991;
25.5000;0.9817;-4.9966;
25.8000;0.9801;-4.9991;
26.1000;0.9760;-5.0147;
26.4000;0.9817;-4.9940;
26.7000;0.9809;-4.9966;
27.0000;0.9817;-4.9914;
27.3000;0.9825;-4.9836;
27.6000;0.9817;-4.9888;
27.9000;0.9817;-4.9914;
28.2000;0.9809;-5.0017;
28.5000;0.9801;-5.0043;
28.8000;0.9801;-5.0017;
29.1000;0.9817;-4.9940;
29.4000;0.9801;-4.9888;
29.7000;0.9833;-4.9862;
30.0000;0.9792;-4.9966;
30.3000;0.9817;-4.9836;
30.6000;0.9825;-4.9810;
30.9000;0.9801;-4.9888;
31.2000;0.9801;-4.9966;
31.5000;0.9809;-4.9940;
31.8000;0.9833;-4.9862;
32.1000;0.9809;-4.9888;
32.4000;0.9801;-4.9862;
32.7000;0.9752;-4.9888;
33.0000;0.9809;-4.9784;
33.3000;0.9792;-4.9810;
33.6000;0.9792;-4.9758;
33.9000;0.9801;-4.9784;
34.2000;0.9801;-4.9836;
34.5000;0.9801;-4.9784;
34.8000;0.9809;-4.9836;
35.1000;0.9801;-4.9810;
35.4000;0.9833;-4.9758;
35.7000;0.9841;-4.9706;
36.0000;0.9792;-4.9681;
36.3000;0.9760;-4.9784;
36.6000;0.9882;-4.9473;
36.9000;0.9817;-4.9603;
37.2000;0.9817;-4.9629;
37.5000;0.9784;-4.9706;
37.8000;0.9833;-4.9681;
38.1000;0.9801;-4.9732;
38.4000;0.9841;-4.9655;
38.7000;0.9776;-4.9758;
39.0000;0.9809;-4.9758;
39.3000;0.9703;-5.0069;
39.6000;0.9768;-4.9940;
39.9000;0.9784;-5.0017;
40.2000;0.9817;-4.9888;
40.5000;0.9809;-4.9914;
40.8000;0.9809;-4.9914;
41.1000;0.9784;-4.9888;
41.4000;0.9809;-4.9758;
41.7000;0.9817;-4.9732;
42.0000;0.9817;-4.9836;
42.3000;0.9792;-4.9836;
42.6000;0.9817;-4.9784;
42.9000;0.9801;-4.9732;
43.2000;0.9825;-4.9758;
43.5000;0.9792;-4.9888;
43.8000;0.9792;-4.9991;
44.1000;0.9801;-4.9940;
44.4000;0.9809;-4.9836;
44.7000;0.9792;-4.9940;
45.0000;0.9809;-4.9966;
45.3000;0.9801;-4.9991;
45.6000;0.9801;-5.0147;
45.9000;0.9792;-5.0043;
46.2000;0.9784;-5.0173;
46.5000;0.9776;-5.0276;
46.8000;0.9801;-5.0276;
47.1000;0.9825;-5.0276;
47.4000;0.9809;-5.0250;
47.7000;0.9801;-5.0199;
48.0000;0.9809;-5.0147;
48.3000;0.9833;-5.0043;
48.6000;0.9825;-5.0069;
48.9000;0.9817;-5.0043;
49.2000;0.9809;-5.0043;
49.5000;0.9792;-5.0043;
49.8000;0.9817;-5.0017;
50.1000;0.9817;-5.0069;
50.4000;0.9792;-5.0095;
50.7000;0.9825;-5.0017;
51.0000;0.9817;-5.0017;
51.3000;0.9801;-5.0043;
51.6000;0.9817;-4.9991;
51.9000;0.9809;-4.9991;
52.2000;0.9809;-5.0043;
52.5000;0.9801;-5.0121;
52.8000;0.9768;-5.0250;
53.1000;0.9817;-5.0095;
53.4000;0.9809;-5.0043;
53.7000;0.9801;-5.0095;
54.0000;0.9784;-5.0095;
54.3000;0.9792;-5.0147;
54.6000;0.9809;-5.0276;
54.9000;0.9801;-5.0250;
55.2000;0.9792;-5.0147;
55.5000;0.9776;-5.0095;
55.8000;0.9752;-5.0147;
56.1000;0.9776;-5.0095;
56.4000;0.9801;-5.0095;
56.7000;0.9792;-5.0121;
57.0000;0.9801;-5.0121;
57.3000;0.9809;-5.0069;
57.6000;0.9825;-4.9991;
57.9000;0.9801;-5.0069;
58.2000;0.9809;-5.0095;
58.5000;0.9768;-5.0199;
58.8000;0.9801;-5.0095;
59.1000;0.9801;-5.0069;
59.4000;0.9801;-5.0043;
59.7000;0.9817;-5.0043;
60.0000;0.9809;-5.0069;
60.3000;0.9801;-5.0121;
60.6000;0.9809;-5.0147;
60.9000;0.9809;-5.0121;
61.2000;0.9817;-5.0069;
61.5000;0.9784;-5.0250;
61.8000;0.9801;-5.0173;
62.1000;0.9801;-5.0095;
62.4000;0.9817;-5.0043;
62.7000;0.9792;-5.0121;
63.0000;0.9792;-5.0225;
63.3000;0.9792;-5.0147;
63.6000;0.9735;-5.0250;
63.9000;0.9801;-5.0017;
64.2000;0.9784;-5.0043;
64.5000;0.9801;-5.0017;
64.8000;0.9809;-5.0043;
65.1000;0.9792;-5.0017;
65.4000;0.9792;-5.0043;
65.7000;0.9784;-5.0017;
66.0000;0.9792;-4.9991;
66.3000;0.9801;-4.9966;
66.6000;0.9792;-4.9966;
66.9000;0.9792;-4.9940;
67.2000;0.9776;-4.9888;
67.5000;0.9801;-4.9888;
67.8000;0.9760;-4.9914;
68.1000;0.9817;-4.9810;
68.4000;0.9792;-4.9862;
68.7000;0.9809;-4.9836;
69.0000;0.9792;-4.9784;
69.3000;0.9801;-4.9706;
69.6000;0.9760;-4.9888;
69.9000;0.9776;-4.9888;
70.2000;0.9776;-4.9836;
70.5000;0.9776;-4.9940;
70.8000;0.9792;-4.9862;
71.1000;0.9801;-4.9888;
71.4000;0.9817;-4.9836;
71.7000;0.9792;-4.9810;
72.0000;0.9801;-4.9836;
72.3000;0.9792;-4.9784;
72.6000;0.9801;-4.9784;
72.9000;0.9792;-4.9836;
73.2000;0.9809;-4.9758;
73.5000;0.9801;-4.9836;
73.8000;0.9809;-4.9810;
74.1000;0.9776;-4.9862;
74.4000;0.9784;-4.9836;
74.7000;0.9784;-4.9914;
75.0000;0.9784;-4.9914;
75.3000;0.9792;-4.9940;
75.6000;0.9792;-4.9888;
75.9000;0.9792;-4.9836;
76.2000;0.9801;-4.9914;
76.5000;0.9776;-4.9966;
76.8000;0.9825;-4.9914;
77.1000;0.9784;-5.0017;
77.4000;0.9776;-5.0069;
77.7000;0.9792;-4.9966;
78.0000;0.9801;-4.9966;
78.3000;0.9784;-4.9940;
78.6000;0.9801;-4.9862;
78.9000;0.9711;-5.0017;
79.2000;0.9792;-4.9888;
79.5000;0.9792;-4.9991;
79.8000;0.9792;-4.9991;
80.1000;0.9784;-4.9940;
80.4000;0.9809;-4.9991;
80.7000;0.9801;-4.9914;
81.0000;0.9784;-5.0043;
81.3000;0.9784;-5.0017;
81.6000;0.9801;-5.0043;
81.9000;0.9792;-5.0095;
82.2000;0.9792;-5.0121;
82.5000;0.9792;-5.0069;
82.8000;0.9801;-5.0069;
83.1000;0.9809;-5.0017;
83.4000;0.9792;-5.0121;
83.7000;0.9776;-5.0121;
84.0000;0.9809;-5.0147;
84.3000;0.9801;-5.0069;
84.6000;0.9792;-5.0121;
84.9000;0.9784;-5.0095;
85.2000;0.9784;-5.0043;
85.5000;0.9752;-5.0147;
85.8000;0.9792;-5.0095;
86.1000;0.9801;-5.0121;
86.4000;0.9809;-4.9991;
86.7000;0.9801;-5.0043;
87.0000;0.9768;-5.0095;
87.3000;0.9784;-5.0017;
87.6000;0.9768;-5.0069;
87.9000;0.9792;-5.0017;
88.2000;0.9744;-5.0095;
88.5000;0.9776;-4.9940;
88.8000;0.9784;-4.9914;
89.1000;0.9784;-4.9966;
89.4000;0.9817;-4.9914;
89.7000;0.9784;-4.9914;
90.0000;0.9687;-5.0121;
90.3000;0.9792;-4.9862;
90.6000;0.9792;-4.9888;
90.9000;0.9760;-4.9940;
91.2000;0.9776;-4.9862;
91.5000;0.9801;-4.9862;
91.8000;0.9792;-4.9862;
92.1000;0.9768;-4.9940;
92.4000;0.9801;-4.9862;
92.7000;0.9768;-4.9888;
93.0000;0.9744;-4.9991;
93.3000;0.9768;-4.9862;
93.6000;0.9776;-4.9914;
93.9000;0.9768;-4.9940;
94.2000;0.9776;-5.0017;
94.5000;0.9784;-5.0017;
94.8000;0.9784;-5.0121;
95.1000;0.9768;-5.0095;
95.4000;0.9784;-5.0017;
95.7000;0.9768;-5.0095;
96.0000;0.9776;-5.0069;
96.3000;0.9776;-5.0069;
96.6000;0.9776;-5.0069;
96.9000;0.9784;-5.0017;
97.2000;0.9768;-5.0017;
97.5000;0.9768;-5.0017;
97.8000;0.9776;-5.0043;
98.1000;0.9768;-5.0043;
98.4000;0.9801;-5.0017;
98.7000;0.9792;-5.0147;
99.0000;0.9776;-5.0173;
99.3000;0.9784;-5.0225;
99.6000;0.9784;-5.0121;
99.9000;0.9792;-5.0095;
100.2000;0.9784;-5.0069;
100.5000;0.9792;-5.0043;
100.8000;0.9744;-5.0147;
101.1000;0.9784;-5.0069;
101.4000;0.9776;-5.0069;
101.7000;0.9760;-4.9991;
102.0000;0.9801;-4.9862;
102.3000;0.9760;-4.9940;
102.6000;0.9760;-4.9888;
102.9000;0.9768;-4.9888;
103.2000;0.9776;-4.9888;
103.5000;0.9768;-4.9888;
103.8000;0.9768;-4.9836;
104.1000;0.9768;-4.9784;
104.4000;0.9735;-4.9836;
104.7000;0.9768;-4.9706;
105.0000;0.9719;-4.9810;
105.3000;0.9760;-4.9784;
105.6000;0.9752;-4.9810;
105.9000;0.9752;-4.9836;
106.2000;0.9768;-4.9836;
106.5000;0.9768;-4.9810;
106.8000;0.9784;-4.9758;
107.1000;0.9792;-4.9784;
107.4000;0.9776;-4.9784;
107.7000;0.9776;-4.9784;
108.0000;0.9776;-4.9732;
108.3000;0.9784;-4.9758;
108.6000;0.9768;-4.9836;
108.9000;0.9776;-4.9810;
109.2000;0.9768;-4.9862;
109.5000;0.9784;-4.9836;
109.8000;0.9784;-4.9784;
110.1000;0.9801;-4.9732;
110.4000;0.9833;-4.9603;
110.7000;0.9744;-4.9810;
111.0000;0.9784;-4.9784;
111.3000;0.9768;-4.9836;
111.6000;0.9776;-4.9732;
111.9000;0.9784;-4.9706;
112.2000;0.9776;-4.9810;
112.5000;0.9776;-4.9836;
112.8000;0.9801;-4.9810;
113.1000;0.9752;-4.9914;
113.4000;0.9784;-4.9862;
113.7000;0.9768;-4.9862;
114.0000;0.9760;-4.9810;
114.3000;0.9752;-4.9836;
114.6000;0.9776;-4.9836;
114.9000;0.9711;-4.9966;
115.2000;0.9768;-4.9784;
115.5000;0.9776;-4.9836;
115.8000;0.9784;-4.9888;
116.1000;0.9735;-4.9940;
116.4000;0.9784;-4.9758;
116.7000;0.9776;-4.9810;
117.0000;0.9719;-4.9914;
117.3000;0.9776;-4.9732;
117.6000;0.9752;-4.9810;
117.9000;0.9768;-4.9836;
118.2000;0.9735;-4.9862;
118.5000;0.9776;-4.9810;
118.8000;0.9776;-4.9810;
119.1000;0.9784;-4.9862;
119.4000;0.9760;-4.9914;
119.7000;0.9784;-4.9940;
120.0000;0.9784;-4.9888;
120.3000;0.9776;-4.9914;
120.6000;0.9760;-4.9888;
120.9000;0.9776;-4.9862;
121.2000;0.9784;-4.9862;
121.5000;0.9776;-4.9784;
121.8000;0.9752;-4.9784;
122.1000;0.9768;-4.9655;
122.4000;0.9784;-4.9551;
122.7000;0.9768;-4.9551;
123.0000;0.9760;-4.9577;
123.3000;0.9760;-4.9577;
123.6000;0.9784;-4.9603;
123.9000;0.9760;-4.9706;
124.2000;0.9776;-4.9681;
124.5000;0.9760;-4.9758;
124.8000;0.9719;-4.9784;
125.1000;0.9776;-4.9629;
125.4000;0.9760;-4.9681;
125.7000;0.9727;-4.9758;
126.0000;0.9768;-4.9629;
126.3000;0.9784;-4.9655;
126.6000;0.9776;-4.9681;
126.9000;0.9776;-4.9603;
127.2000;0.9719;-4.9758;
127.5000;0.9792;-4.9577;
127.8000;0.9760;-4.9603;
128.1000;0.9744;-4.9603;
128.4000;0.9752;-4.9655;
128.7000;0.9792;-4.9577;
129.0000;0.9784;-4.9603;
129.3000;0.9760;-4.9706;
129.6000;0.9744;-4.9629;
129.9000;0.9760;-4.9629;
130.2000;0.9768;-4.9655;
130.5000;0.9760;-4.9655;
130.8000;0.9760;-4.9706;
131.1000;0.9776;-4.9810;
131.4000;0.9801;-4.9784;
131.7000;0.9760;-4.9862;
132.0000;0.9719;-5.0017;
132.3000;0.9752;-4.9862;
132.6000;0.9776;-4.9758;
132.9000;0.9760;-4.9758;
133.2000;0.9817;-4.9655;
133.5000;0.9760;-4.9810;
133.8000;0.9784;-4.9706;
134.1000;0.9801;-4.9732;
134.4000;0.9776;-4.9784;
134.7000;0.9760;-4.9888;
135.0000;0.9776;-4.9810;
135.3000;0.9752;-4.9784;
135.6000;0.9776;-4.9810;
135.9000;0.9801;-4.9784;
136.2000;0.9768;-4.9966;
136.5000;0.9768;-4.9991;
136.8000;0.9727;-5.0121;
137.1000;0.9760;-5.0043;
137.4000;0.9760;-5.0069;
137.7000;0.9768;-5.0043;
138.0000;0.9792;-4.9888;
138.3000;0.9744;-4.9966;
138.6000;0.9768;-4.9888;
138.9000;0.9776;-4.9914;
139.2000;0.9776;-4.9888;
139.5000;0.9760;-4.9914;
139.8000;0.9760;-4.9940;
140.1000;0.9768;-5.0017;
140.4000;0.9776;-5.0043;
140.7000;0.9760;-4.9991;
141.0000;0.9744;-4.9991;
141.3000;0.9760;-4.9966;
141.6000;0.9760;-4.9914;
141.9000;0.9727;-4.9940;
142.2000;0.9735;-4.9888;
142.5000;0.9768;-4.9888;
142.8000;0.9768;-4.9810;
143.1000;0.9744;-4.9862;
143.4000;0.9760;-4.9732;
143.7000;0.9760;-4.9784;
144.0000;0.9768;-4.9810;
144.3000;0.9760;-4.9758;
144.6000;0.9760;-4.9706;
144.9000;0.9760;-4.9784;
145.2000;0.9760;-4.9810;
145.5000;0.9752;-4.9836;
145.8000;0.9776;-4.9940;
146.1000;0.9752;-5.0043;
146.4000;0.9760;-4.9966;
146.7000;0.9784;-4.9888;
147.0000;0.9744;-4.9862;
147.3000;0.9760;-4.9732;
147.6000;0.9752;-4.9784;
147.9000;0.9768;-4.9758;
148.2000;0.9784;-4.9732;
148.5000;0.9768;-4.9810;
148.8000;0.9784;-4.9784;
149.1000;0.9776;-4.9810;
149.4000;0.9776;-4.9810;
149.7000;0.9776;-4.9862;
150.0000;0.9744;-4.9914;
150.3000;0.9752;-4.9966;
150.6000;0.9784;-4.9888;
150.9000;0.9768;-4.9862;
151.2000;0.9744;-4.9991;
151.5000;0.9768;-4.9914;
151.8000;0.9776;-4.9862;
152.1000;0.9760;-4.9836;
152.4000;0.9735;-4.9862;
152.7000;0.9760;-4.9784;
153.0000;0.9792;-4.9732;
153.3000;0.9760;-4.9810;
153.6000;0.9784;-4.9758;
153.9000;0.9752;-4.9784;
154.2000;0.9744;-4.9810;
154.5000;0.9768;-4.9758;
154.8000;0.9768;-4.9888;
155.1000;0.9768;-4.9914;
155.4000;0.9784;-4.9836;
155.7000;0.9768;-4.9706;
156.0000;0.9768;-4.9784;
156.3000;0.9768;-4.9758;
156.6000;0.9801;-4.9706;
156.9000;0.9760;-4.9784;
157.2000;0.9768;-4.9784;
157.5000;0.9735;-4.9810;
157.8000;0.9760;-4.9862;
158.1000;0.9752;-4.9888;
158.4000;0.9784;-4.9784;
158.7000;0.9752;-4.9888;
159.0000;0.9735;-4.9862;
159.3000;0.9752;-4.9784;
159.6000;0.9760;-4.9784;
159.9000;0.9744;-4.9862;
160.2000;0.9752;-4.9862;
160.5000;0.9752;-4.9784;
160.8000;0.9760;-4.9862;
161.1000;0.9735;-4.9966;
161.4000;0.9752;-4.9991;
161.7000;0.9744;-5.0043;
162.0000;0.9768;-4.9940;
162.3000;0.9760;-4.9862;
162.6000;0.9727;-4.9836;
162.9000;0.9752;-4.9758;
163.2000;0.9719;-4.9810;
163.5000;0.9735;-4.9706;
163.8000;0.9744;-4.9732;
164.1000;0.9768;-4.9706;
164.4000;0.9776;-4.9629;
164.7000;0.9760;-4.9629;
165.0000;0.9792;-4.9681;
165.3000;0.9768;-4.9758;
165.6000;0.9752;-4.9784;
165.9000;0.9760;-4.9758;
166.2000;0.9752;-4.9758;
166.5000;0.9744;-4.9810;
166.8000;0.9768;-4.9758;
167.1000;0.9760;-4.9810;
167.4000;0.9760;-4.9888;
167.7000;0.9760;-4.9914;
168.0000;0.9744;-4.9966;
168.3000;0.9703;-5.0095;
168.6000;0.9776;-4.9966;
168.9000;0.9744;-5.0043;
169.2000;0.9703;-5.0147;
169.5000;0.9768;-4.9966;
169.8000;0.9801;-4.9836;
170.1000;0.9817;-4.9732;
170.4000;0.9744;-4.9810;
170.7000;0.9776;-4.9706;
171.0000;0.9744;-4.9862;
171.3000;0.9727;-4.9888;
171.6000;0.9760;-4.9732;
171.9000;0.9744;-4.9784;
172.2000;0.9760;-4.9758;
172.5000;0.9752;-4.9706;
172.8000;0.9735;-4.9758;
173.1000;0.9744;-4.9706;
173.4000;0.9760;-4.9681;
173.7000;0.9760;-4.9629;
174.0000;0.9727;-4.9836;
174.3000;0.9776;-4.9732;
174.6000;0.9752;-4.9810;
174.9000;0.9776;-4.9784;
175.2000;0.9744;-4.9810;
175.5000;0.9776;-4.9784;
175.8000;0.9744;-4.9914;
176.1000;0.9784;-4.9862;
176.4000;0.9752;-4.9940;
176.7000;0.9792;-4.9758;
177.0000;0.9752;-4.9836;
177.3000;0.9768;-4.9862;
177.6000;0.9768;-4.9888;
177.9000;0.9744;-4.9888;
178.2000;0.9760;-4.9888;
178.5000;0.9768;-4.9862;
178.8000;0.9752;-4.9940;
179.1000;0.9760;-4.9966;
179.4000;0.9735;-4.9966;
179.7000;0.9735;-4.9940;
180.0000;0.9735;-4.9991;
180.3000;0.9744;-4.9888;
180.6000;0.9744;-4.9914;
180.9000;0.9735;-4.9991;
181.2000;0.9744;-4.9940;
181.5000;0.9752;-4.9888;
181.8000;0.9727;-4.9914;
182.1000;0.9760;-4.9810;
182.4000;0.9752;-4.9784;
182.7000;0.9735;-4.9706;
183.0000;0.9735;-4.9706;
183.3000;0.9719;-4.9732;
183.6000;0.9735;-4.9732;
183.9000;0.9744;-4.9655;
184.2000;0.9744;-4.9655;
184.5000;0.9768;-4.9603;
184.8000;0.9711;-4.9810;
185.1000;0.9760;-4.9758;
185.4000;0.9768;-4.9706;
185.7000;0.9744;-4.9732;
186.0000;0.9727;-4.9784;
186.3000;0.9744;-4.9836;
186.6000;0.9776;-4.9758;
186.9000;0.9744;-4.9836;
187.2000;0.9760;-4.9810;
187.5000;0.9687;-5.0043;
187.8000;0.9760;-4.9836;
188.1000;0.9768;-4.9862;
188.4000;0.9744;-4.9862;
188.7000;0.9752;-4.9914;
189.0000;0.9776;-4.9914;
189.3000;0.9752;-5.0017;
189.6000;0.9760;-4.9991;
189.9000;0.9744;-5.0017;
190.2000;0.9776;-4.9914;
190.5000;0.9768;-4.9940;
190.8000;0.9776;-4.9914;
191.1000;0.9760;-4.9966;
191.4000;0.9752;-4.9966;
191.7000;0.9768;-4.9888;
192.0000;0.9744;-4.9966;
192.3000;0.9760;-4.9940;
192.6000;0.9752;-5.0043;
192.9000;0.9776;-4.9966;
193.2000;0.9735;-4.9966;
193.5000;0.9735;-4.9914;
193.8000;0.9768;-4.9914;
194.1000;0.9744;-4.9914;
194.4000;0.9744;-4.9862;
194.7000;0.9735;-4.9888;
195.0000;0.9752;-4.9758;
195.3000;0.9744;-4.9758;
195.6000;0.9744;-4.9706;
195.9000;0.9695;-4.9836;
196.2000;0.9735;-4.9732;
196.5000;0.9727;-4.9732;
196.8000;0.9744;-4.9603;
197.1000;0.9744;-4.9629;
197.4000;0.9744;-4.9655;
197.7000;0.9711;-4.9914;
198.0000;0.9760;-4.9758;
198.3000;0.9735;-4.9836;
198.6000;0.9727;-4.9914;
198.9000;0.9744;-4.9914;
199.2000;0.9727;-4.9914;
199.5000;0.9744;-4.9810;
199.8000;0.9744;-4.9784;
200.1000;0.9744;-4.9784;
200.4000;0.9760;-4.9758;
200.7000;0.9735;-4.9681;
201.0000;0.9744;-4.9655;
201.3000;0.9695;-4.9810;
201.6000;0.9695;-4.9836;
201.9000;0.9752;-4.9732;
202.2000;0.9744;-4.9706;
202.5000;0.9735;-4.9706;
202.8000;0.9752;-4.9706;
203.1000;0.9735;-4.9706;
203.4000;0.9744;-4.9681;
203.7000;0.9744;-4.9758;
204.0000;0.9760;-4.9629;
204.3000;0.9744;-4.9655;
204.6000;0.9719;-4.9758;
204.9000;0.9784;-4.9603;
205.2000;0.9735;-4.9603;
205.5000;0.9744;-4.9577;
205.8000;0.9695;-4.9706;
206.1000;0.9727;-4.9629;
206.4000;0.9752;-4.9525;
206.7000;0.9760;-4.9551;
207.0000;0.9735;-4.9629;
207.3000;0.9735;-4.9655;
207.6000;0.9695;-4.9706;
207.9000;0.9727;-4.9577;
208.2000;0.9752;-4.9681;
208.5000;0.9784;-4.9577;
208.8000;0.9735;-4.9784;
209.1000;0.9711;-4.9862;
209.4000;0.9752;-4.9681;
209.7000;0.9744;-4.9706;
210.0000;0.9752;-4.9732;
210.3000;0.9752;-4.9706;
210.6000;0.9792;-4.9706;
210.9000;0.9735;-4.9732;
211.2000;0.9727;-4.9784;
211.5000;0.9744;-4.9810;
211.8000;0.9735;-4.9758;
212.1000;0.9752;-4.9732;
212.4000;0.9719;-4.9758;
212.7000;0.9752;-4.9655;
213.0000;0.9744;-4.9706;
213.3000;0.9719;-4.9732;
213.6000;0.9752;-4.9681;
213.9000;0.9760;-4.9629;
214.2000;0.9744;-4.9758;
214.5000;0.9744;-4.9758;
214.8000;0.9727;-4.9758;
215.1000;0.9727;-4.9810;
215.4000;0.9727;-4.9732;
215.7000;0.9744;-4.9655;
216.0000;0.9727;-4.9629;
216.3000;0.9727;-4.9629;
216.6000;0.9735;-4.9706;
216.9000;0.9744;-4.9629;
217.2000;0.9703;-4.9681;
217.5000;0.9719;-4.9706;
217.8000;0.9760;-4.9681;
218.1000;0.9735;-4.9732;
218.4000;0.9744;-4.9758;
218.7000;0.9711;-4.9810;
219.0000;0.9719;-4.9784;
219.3000;0.9727;-4.9758;
219.6000;0.9760;-4.9784;
219.9000;0.9727;-4.9862;
220.2000;0.9727;-4.9888;
220.5000;0.9735;-4.9784;
220.8000;0.9735;-4.9836;
221.1000;0.9719;-4.9888;
221.4000;0.9735;-4.9862;
221.7000;0.9719;-4.9966;
222.0000;0.9727;-4.9966;
222.3000;0.9792;-4.9758;
222.6000;0.9727;-4.9914;
222.9000;0.9719;-4.9888;
223.2000;0.9744;-4.9732;
223.5000;0.9752;-4.9655;
223.8000;0.9727;-4.9681;
224.1000;0.9744;-4.9655;
224.4000;0.9711;-4.9758;
224.7000;0.9752;-4.9706;
225.0000;0.9727;-4.9758;
225.3000;0.9727;-4.9732;
225.6000;0.9719;-4.9784;
225.9000;0.9727;-4.9706;
226.2000;0.9735;-4.9758;
226.5000;0.9760;-4.9706;
226.8000;0.9719;-4.9758;
227.1000;0.9727;-4.9629;
227.4000;0.9735;-4.9629;
227.7000;0.9735;-4.9551;
228.0000;0.9760;-4.9499;
228.3000;0.9727;-4.9577;
228.6000;0.9727;-4.9681;
228.9000;0.9719;-4.9758;
229.2000;0.9752;-4.9732;
229.5000;0.9744;-4.9836;
229.8000;0.9735;-4.9836;
230.1000;0.9760;-4.9836;
230.4000;0.9776;-4.9862;
230.7000;0.9727;-4.9991;
231.0000;0.9744;-4.9888;
231.3000;0.9735;-4.9888;
231.6000;0.9735;-4.9914;
231.9000;0.9752;-4.9862;
232.2000;0.9727;-4.9940;
232.5000;0.9744;-4.9836;
232.8000;0.9752;-4.9836;
233.1000;0.9744;-4.9836;
233.4000;0.9735;-4.9706;
233.7000;0.9760;-4.9706;
234.0000;0.9752;-4.9810;
234.3000;0.9744;-4.9914;
234.6000;0.9727;-4.9940;
234.9000;0.9735;-4.9966;
235.2000;0.9744;-4.9940;
235.5000;0.9735;-4.9966;
235.8000;0.9727;-4.9888;
236.1000;0.9752;-4.9810;
236.4000;0.9719;-4.9862;
236.7000;0.9711;-4.9940;
237.0000;0.9727;-4.9888;
237.3000;0.9735;-4.9914;
237.6000;0.9752;-4.9914;
237.9000;0.9735;-4.9914;
238.2000;0.9752;-4.9888;
238.5000;0.9735;-4.9991;
238.8000;0.9735;-4.9914;
239.1000;0.9735;-4.9966;
239.4000;0.9727;-5.0017;
239.7000;0.9735;-4.9940;
240.0000;0.9744;-4.9862;
240.3000;0.9719;-4.9810;
240.6000;0.9719;-4.9758;
240.9000;0.9678;-4.9681;
241.2000;0.9711;-4.9681;
241.5000;0.9703;-4.9784;
241.8000;0.9687;-4.9810;
242.1000;0.9719;-4.9732;
242.4000;0.9719;-4.9758;
242.7000;0.9711;-4.9836;
243.0000;0.9735;-4.9810;
243.3000;0.9727;-4.9862;
243.6000;0.9744;-4.9888;
243.9000;0.9744;-4.9888;
244.2000;0.9703;-4.9940;
244.5000;0.9735;-4.9914;
244.8000;0.9727;-4.9888;
245.1000;0.9735;-4.9914;
245.4000;0.9719;-4.9862;
245.7000;0.9711;-4.9914;
246.0000;0.9711;-4.9836;
246.3000;0.9735;-4.9732;
246.6000;0.9752;-4.9681;
246.9000;0.9727;-4.9732;
247.2000;0.9719;-4.9655;
247.5000;0.9744;-4.9629;
247.8000;0.9744;-4.9655;
248.1000;0.9719;-4.9784;
248.4000;0.9727;-4.9784;
248.7000;0.9719;-4.9758;
249.0000;0.9752;-4.9629;
249.3000;0.9719;-4.9706;
249.6000;0.9719;-4.9706;
249.9000;0.9744;-4.9706;
250.2000;0.9744;-4.9681;
250.5000;0.9727;-4.9603;
250.8000;0.9744;-4.9681;
251.1000;0.9703;-4.9758;
251.4000;0.9719;-4.9758;
251.7000;0.9727;-4.9758;
252.0000;0.9735;-4.9732;
252.3000;0.9678;-4.9862;
252.6000;0.9719;-4.9784;
252.9000;0.9760;-4.9810;
253.2000;0.9744;-4.9784;
253.5000;0.9744;-4.9810;
253.8000;0.9727;-4.9862;
254.1000;0.9727;-4.9862;
254.4000;0.9735;-4.9810;
254.7000;0.9727;-4.9810;
255.0000;0.9760;-4.9758;
255.3000;0.9744;-4.9758;
255.6000;0.9744;-4.9810;
255.9000;0.9744;-4.9991;
256.2000;0.9703;-4.9966;
256.5000;0.9727;-4.9836;
256.8000;0.9719;-4.9862;
257.1000;0.9711;-4.9940;
257.4000;0.9727;-4.9888;
257.7000;0.9727;-4.9966;
258.0000;0.9735;-4.9888;
258.3000;0.9735;-4.9862;
258.6000;0.9719;-4.9810;
258.9000;0.9727;-4.9836;
259.2000;0.9735;-4.9836;
259.5000;0.9752;-4.9862;
259.8000;0.9727;-4.9940;
260.1000;0.9760;-4.9836;
260.4000;0.9735;-4.9862;
260.7000;0.9752;-4.9810;
261.0000;0.9727;-4.9940;
261.3000;0.9735;-4.9914;
261.6000;0.9727;-4.9914;
261.9000;0.9735;-4.9862;
262.2000;0.9735;-4.9784;
262.5000;0.9727;-4.9758;
262.8000;0.9735;-4.9758;
263.1000;0.9744;-4.9681;
263.4000;0.9752;-4.9655;
263.7000;0.9752;-4.9629;
264.0000;0.9711;-4.9681;
264.3000;0.9752;-4.9629;
264.6000;0.9735;-4.9758;
264.9000;0.9727;-4.9914;
265.2000;0.9654;-5.0147;
265.5000;0.9744;-4.9940;
265.8000;0.9711;-5.0017;
266.1000;0.9711;-4.9991;
266.4000;0.9760;-4.9914;
266.7000;0.9735;-4.9966;
267.0000;0.9719;-4.9966;
267.3000;0.9727;-4.9940;
267.6000;0.9703;-4.9940;
267.9000;0.9719;-4.9914;
268.2000;0.9719;-4.9888;
268.5000;0.9703;-4.9862;
268.8000;0.9719;-4.9758;
269.1000;0.9711;-4.9836;
269.4000;0.9735;-4.9784;
269.7000;0.9727;-4.9784;
270.0000;0.9719;-4.9706;
270.3000;0.9711;-4.9758;
270.6000;0.9719;-4.9706;
270.9000;0.9719;-4.9681;
271.2000;0.9711;-4.9758;
271.5000;0.9735;-4.9810;
271.8000;0.9719;-4.9888;
272.1000;0.9735;-4.9966;
272.4000;0.9678;-5.0095;
272.7000;0.9768;-4.9888;
273.0000;0.9735;-4.9940;
273.3000;0.9735;-4.9940;
273.6000;0.9776;-4.9836;
273.9000;0.9711;-4.9914;
274.2000;0.9670;-5.0017;
274.5000;0.9727;-4.9888;
274.8000;0.9735;-4.9732;
275.1000;0.9760;-4.9784;
275.4000;0.9711;-4.9914;
275.7000;0.9711;-4.9836;
276.0000;0.9727;-4.9888;
276.3000;0.9719;-4.9862;
276.6000;0.9719;-4.9810;
276.9000;0.9711;-4.9862;
277.2000;0.9719;-4.9836;
277.5000;0.9727;-4.9888;
277.8000;0.9727;-4.9966;
278.1000;0.9678;-5.0147;
278.4000;0.9744;-4.9914;
278.7000;0.9727;-4.9810;
279.0000;0.9719;-4.9836;
279.3000;0.9735;-4.9784;
279.6000;0.9735;-4.9732;
279.9000;0.9727;-4.9732;
280.2000;0.9776;-4.9732;
280.5000;0.9744;-4.9836;
280.8000;0.9719;-4.9810;
281.1000;0.9727;-4.9810;
281.4000;0.9735;-4.9862;
281.7000;0.9719;-4.9914;
282.0000;0.9735;-4.9991;
282.3000;0.9727;-4.9991;
282.6000;0.9719;-5.0043;
282.9000;0.9727;-4.9966;
283.2000;0.9727;-4.9888;
283.5000;0.9727;-4.9888;
283.8000;0.9735;-4.9862;
284.1000;0.9719;-4.9836;
284.4000;0.9711;-4.9836;
284.7000;0.9719;-4.9784;
285.0000;0.9719;-4.9810;
285.3000;0.9711;-4.9888;
285.6000;0.9719;-4.9810;
285.9000;0.9735;-4.9862;
286.2000;0.9719;-4.9940;
286.5000;0.9735;-4.9940;
286.8000;0.9719;-4.9888;
287.1000;0.9719;-4.9914;
287.4000;0.9744;-4.9784;
287.7000;0.9687;-4.9966;
288.0000;0.9703;-4.9862;
288.3000;0.9711;-4.9784;
288.6000;0.9727;-4.9758;
288.9000;0.9678;-4.9836;
289.2000;0.9703;-4.9888;
289.5000;0.9711;-4.9836;
289.8000;0.9727;-4.9706;
290.1000;0.9719;-4.9784;
290.4000;0.9760;-4.9732;
290.7000;0.9727;-4.9758;
291.0000;0.9719;-4.9758;
291.3000;0.9719;-4.9655;
291.6000;0.9711;-4.9681;
291.9000;0.9719;-4.9836;
292.2000;0.9727;-4.9810;
292.5000;0.9711;-4.9706;
292.8000;0.9727;-4.9681;
293.1000;0.9703;-4.9758;
293.4000;0.9703;-4.9784;
293.7000;0.9727;-4.9706;
294.0000;0.9719;-4.9784;
294.3000;0.9719;-4.9810;
294.6000;0.9711;-4.9888;
294.9000;0.9727;-4.9862;
295.2000;0.9735;-4.9784;
295.5000;0.9735;-4.9784;
295.8000;0.9719;-4.9810;
296.1000;0.9735;-4.9681;
296.4000;0.9719;-4.9732;
296.7000;0.9703;-4.9758;
297.0000;0.9719;-4.9758;
297.3000;0.9744;-4.9758;
297.6000;0.9727;-4.9784;
297.9000;0.9703;-4.9810;
298.2000;0.9711;-4.9810;
298.5000;0.9678;-4.9940;
298.8000;0.9711;-4.9810;
299.1000;0.9719;-4.9836;
299.4000;0.9703;-4.9914;
299.7000;0.9695;-4.9914;
300.0000;0.9711;-4.9888;
300.3000;0.9727;-4.9862;
300.6000;0.9727;-4.9862;
300.9000;0.9752;-4.9732;
301.2000;0.9703;-4.9862;
301.5000;0.9727;-4.9784;
301.8000;0.9719;-4.9732;
302.1000;0.9711;-4.9784;
302.4000;0.9727;-4.9758;
302.7000;0.9727;-4.9681;
303.0000;0.9719;-4.9681;
303.3000;0.9703;-4.9681;
303.6000;0.9711;-4.9706;
303.9000;0.9711;-4.9732;
304.2000;0.9719;-4.9732;
304.5000;0.9703;-4.9732;
304.8000;0.9711;-4.9706;
305.1000;0.9711;-4.9784;
305.4000;0.9719;-4.9758;
305.7000;0.9703;-4.9758;
306.0000;0.9703;-4.9784;
306.3000;0.9727;-4.9655;
306.6000;0.9735;-4.9525;
306.9000;0.9719;-4.9603;
307.2000;0.9727;-4.9655;
307.5000;0.9719;-4.9655;
307.8000;0.9719;-4.9603;
308.1000;0.9727;-4.9629;
308.4000;0.9727;-4.9655;
308.7000;0.9703;-4.9706;
309.0000;0.9719;-4.9681;
309.3000;0.9695;-4.9784;
309.6000;0.9703;-4.9836;
309.9000;0.9703;-4.9888;
310.2000;0.9760;-4.9706;
310.5000;0.9752;-4.9603;
310.8000;0.9711;-4.9758;
311.1000;0.9711;-4.9810;
311.4000;0.9711;-4.9758;
311.7000;0.9719;-4.9758;
312.0000;0.9719;-4.9655;
312.3000;0.9711;-4.9706;
312.6000;0.9711;-4.9784;
312.9000;0.9711;-4.9810;
313.2000;0.9703;-4.9784;
313.5000;0.9727;-4.9732;
313.8000;0.9711;-4.9732;
314.1000;0.9703;-4.9810;
314.4000;0.9752;-4.9603;
314.7000;0.9695;-4.9706;
315.0000;0.9695;-4.9681;
315.3000;0.9727;-4.9629;
315.6000;0.9703;-4.9655;
315.9000;0.9703;-4.9577;
316.2000;0.9695;-4.9655;
316.5000;0.9744;-4.9603;
316.8000;0.9711;-4.9758;
317.1000;0.9711;-4.9862;
317.4000;0.9792;-4.9681;
317.7000;0.9719;-4.9784;
318.0000;0.9719;-4.9862;
318.3000;0.9695;-4.9914;
318.6000;0.9744;-4.9784;
318.9000;0.9711;-4.9836;
319.2000;0.9703;-4.9810;
319.5000;0.9760;-4.9681;
319.8000;0.9711;-4.9758;
320.1000;0.9760;-4.9706;
320.4000;0.9687;-4.9888;
320.7000;0.9727;-4.9914;
321.0000;0.9687;-5.0043;
321.3000;0.9768;-4.9784;
321.6000;0.9695;-4.9940;
321.9000;0.9727;-4.9810;
322.2000;0.9727;-4.9784;
322.5000;0.9711;-4.9758;
322.8000;0.9711;-4.9758;
323.1000;0.9727;-4.9681;
323.4000;0.9703;-4.9758;
323.7000;0.9711;-4.9706;
324.0000;0.9678;-4.9862;
324.3000;0.9719;-4.9784;
324.6000;0.9703;-4.9784;
324.9000;0.9719;-4.9681;
325.2000;0.9719;-4.9629;
325.5000;0.9727;-4.9629;
325.8000;0.9719;-4.9551;
326.1000;0.9719;-4.9603;
326.4000;0.9703;-4.9551;
326.7000;0.9711;-4.9551;
327.0000;0.9719;-4.9577;
327.3000;0.9727;-4.9655;
327.6000;0.9703;-4.9655;
327.9000;0.9695;-4.9655;
328.2000;0.9711;-4.9603;
328.5000;0.9695;-4.9629;
328.8000;0.9703;-4.9577;
329.1000;0.9695;-4.9577;
329.4000;0.9719;-4.9577;
329.7000;0.9711;-4.9577;
330.0000;0.9711;-4.9525;
330.3000;0.9719;-4.9499;
330.6000;0.9703;-4.9681;
330.9000;0.9695;-4.9784;
331.2000;0.9727;-4.9655;
331.5000;0.9711;-4.9681;
331.8000;0.9727;-4.9603;
332.1000;0.9727;-4.9629;
332.4000;0.9735;-4.9525;
332.7000;0.9687;-4.9577;
333.0000;0.9752;-4.9447;
333.3000;0.9768;-4.9447;
333.6000;0.9719;-4.9629;
333.9000;0.9711;-4.9706;
334.2000;0.9695;-4.9732;
334.5000;0.9719;-4.9629;
334.8000;0.9646;-4.9732;
335.1000;0.9719;-4.9603;
335.4000;0.9703;-4.9681;
335.7000;0.9711;-4.9655;
336.0000;0.9719;-4.9603;
336.3000;0.9695;-4.9499;
336.6000;0.9711;-4.9603;
336.9000;0.9727;-4.9551;
337.2000;0.9703;-4.9577;
337.5000;0.9735;-4.9551;
337.8000;0.9711;-4.9551;
338.1000;0.9711;-4.9499;
338.4000;0.9703;-4.9499;
338.7000;0.9719;-4.9422;
339.0000;0.9703;-4.9577;
339.3000;0.9670;-4.9681;
339.6000;0.9711;-4.9655;
339.9000;0.9719;-4.9629;
340.2000;0.9695;-4.9603;
340.5000;0.9678;-4.9732;
340.8000;0.9703;-4.9655;
341.1000;0.9695;-4.9629;
341.4000;0.9711;-4.9629;
341.7000;0.9662;-4.9810;
342.0000;0.9719;-4.9681;
342.3000;0.9719;-4.9603;
342.6000;0.9711;-4.9551;
342.9000;0.9703;-4.9629;
343.2000;0.9711;-4.9603;
343.5000;0.9719;-4.9551;
343.8000;0.9719;-4.9499;
344.1000;0.9662;-4.9525;
344.4000;0.9727;-4.9447;
344.7000;0.9703;-4.9499;
345.0000;0.9719;-4.9473;
345.3000;0.9703;-4.9577;
345.6000;0.9687;-4.9603;
345.9000;0.9695;-4.9577;
346.2000;0.9703;-4.9629;
346.5000;0.9695;-4.9629;
346.8000;0.9703;-4.9629;
347.1000;0.9752;-4.9473;
347.4000;0.9703;-4.9551;
347.7000;0.9703;-4.9473;
348.0000;0.9719;-4.9499;
348.3000;0.9703;-4.9525;
348.6000;0.9695;-4.9525;
348.9000;0.9703;-4.9603;
349.2000;0.9711;-4.9577;
349.5000;0.9703;-4.9706;
349.8000;0.9703;-4.9784;
350.1000;0.9711;-4.9810;
350.4000;0.9695;-4.9758;
350.7000;0.9703;-4.9784;
351.0000;0.9703;-4.9732;
351.3000;0.9719;-4.9655;
351.6000;0.9695;-4.9681;
351.9000;0.9711;-4.9655;
352.2000;0.9744;-4.9551;
352.5000;0.9695;-4.9681;
352.8000;0.9703;-4.9655;
353.1000;0.9687;-4.9681;
353.4000;0.9703;-4.9629;
353.7000;0.9695;-4.9629;
354.0000;0.9695;-4.9603;
354.3000;0.9703;-4.9629;
354.6000;0.9703;-4.9629;
354.9000;0.9695;-4.9655;
355.2000;0.9613;-4.9862;
355.5000;0.9695;-4.9681;
355.8000;0.9711;-4.9681;
356.1000;0.9703;-4.9732;
356.4000;0.9809;-4.9525;
356.7000;0.9711;-4.9836;
357.0000;0.9719;-4.9758;
357.3000;0.9695;-4.9836;
357.6000;0.9687;-4.9836;
357.9000;0.9703;-4.9810;
358.2000;0.9727;-4.9732;
358.5000;0.9719;-4.9655;
358.8000;0.9727;-4.9551;
359.1000;0.9589;-4.9914;
359.4000;0.9695;-4.9577;
359.7000;0.9695;-4.9603;
360.0000;0.9695;-4.9603;
360.3000;0.9711;-4.9655;
360.6000;0.9711;-4.9603;
360.9000;0.9719;-4.9551;
361.2000;0.9703;-4.9551;
361.5000;0.9727;-4.9473;
361.8000;0.9711;-4.9551;
362.1000;0.9711;-4.9603;
362.4000;0.9719;-4.9706;
362.7000;0.9719;-4.9706;
363.0000;0.9711;-4.9706;
363.3000;0.9711;-4.9681;
363.6000;0.9703;-4.9629;
363.9000;0.9695;-4.9655;
364.2000;0.9727;-4.9603;
364.5000;0.9703;-4.9603;
364.8000;0.9695;-4.9603;
365.1000;0.9703;-4.9577;
365.4000;0.9703;-4.9499;
365.7000;0.9703;-4.9499;
366.0000;0.9703;-4.9551;
366.3000;0.9703;-4.9551;
366.6000;0.9662;-4.9577;
366.9000;0.9711;-4.9629;
367.2000;0.9727;-4.9629;
367.5000;0.9760;-4.9499;
367.8000;0.9711;-4.9603;
368.1000;0.9703;-4.9655;
368.4000;0.9711;-4.9577;
368.7000;0.9703;-4.9681;
369.0000;0.9711;-4.9629;
369.3000;0.9711;-4.9655;
369.6000;0.9711;-4.9629;
369.9000;0.9711;-4.9551;
370.2000;0.9719;-4.9577;
370.5000;0.9711;-4.9603;
370.8000;0.9711;-4.9655;
371.1000;0.9670;-4.9784;
371.4000;0.9703;-4.9706;
371.7000;0.9695;-4.9732;
372.0000;0.9711;-4.9706;
372.3000;0.9703;-4.9681;
372.6000;0.9703;-4.9706;
372.9000;0.9703;-4.9758;
373.2000;0.9711;-4.9681;
373.5000;0.9727;-4.9655;
373.8000;0.9687;-4.9681;
374.1000;0.9703;-4.9603;
374.4000;0.9719;-4.9603;
374.7000;0.9695;-4.9655;
375.0000;0.9695;-4.9603;
375.3000;0.9711;-4.9577;
375.6000;0.9719;-4.9706;
375.9000;0.9711;-4.9732;
376.2000;0.9711;-4.9629;
376.5000;0.9711;-4.9629;
376.8000;0.9703;-4.9681;
377.1000;0.9711;-4.9655;
377.4000;0.9711;-4.9629;
377.7000;0.9719;-4.9603;
378.0000;0.9719;-4.9603;
378.3000;0.9695;-4.9629;
378.6000;0.9703;-4.9577;
378.9000;0.9654;-4.9681;
379.2000;0.9695;-4.9577;
379.5000;0.9695;-4.9525;
379.8000;0.9695;-4.9525;
380.1000;0.9654;-4.9603;
380.4000;0.9678;-4.9629;
380.7000;0.9703;-4.9629;
381.0000;0.9670;-4.9784;
381.3000;0.9695;-4.9655;
381.6000;0.9703;-4.9551;
381.9000;0.9711;-4.9577;
382.2000;0.9703;-4.9577;
382.5000;0.9711;-4.9551;
382.8000;0.9678;-4.9629;
383.1000;0.9719;-4.9525;
383.4000;0.9719;-4.9577;
383.7000;0.9711;-4.9499;
384.0000;0.9744;-4.9370;
384.3000;0.9711;-4.9422;
384.6000;0.9719;-4.9422;
384.9000;0.9670;-4.9551;
385.2000;0.9695;-4.9473;
385.5000;0.9703;-4.9499;
385.8000;0.9695;-4.9525;
386.1000;0.9687;-4.9603;
386.4000;0.9711;-4.9577;
386.7000;0.9703;-4.9706;
387.0000;0.9695;-4.9629;
387.3000;0.9711;-4.9655;
387.6000;0.9678;-4.9577;
387.9000;0.9678;-4.9629;
388.2000;0.9695;-4.9629;
388.5000;0.9703;-4.9525;
388.8000;0.9687;-4.9499;
389.1000;0.9654;-4.9655;
389.4000;0.9703;-4.9551;
389.7000;0.9695;-4.9629;
390.0000;0.9687;-4.9706;
390.3000;0.9695;-4.9655;
390.6000;0.9678;-4.9681;
390.9000;0.9695;-4.9629;
391.2000;0.9711;-4.9551;
391.5000;0.9703;-4.9603;
391.8000;0.9695;-4.9681;
392.1000;0.9662;-4.9810;
392.4000;0.9687;-4.9706;
392.7000;0.9678;-4.9706;
393.0000;0.9703;-4.9655;
393.3000;0.9695;-4.9655;
393.6000;0.9711;-4.9577;
393.9000;0.9687;-4.9603;
394.2000;0.9687;-4.9758;
394.5000;0.9687;-4.9810;
394.8000;0.9695;-4.9732;
395.1000;0.9703;-4.9655;
395.4000;0.9695;-4.9681;
395.7000;0.9678;-4.9655;
396.0000;0.9695;-4.9577;
396.3000;0.9687;-4.9551;
396.6000;0.9687;-4.9473;
396.9000;0.9678;-4.9473;
397.2000;0.9687;-4.9447;
397.5000;0.9695;-4.9473;
397.8000;0.9695;-4.9577;
398.1000;0.9703;-4.9577;
398.4000;0.9703;-4.9629;
398.7000;0.9695;-4.9577;
399.0000;0.9695;-4.9551;
399.3000;0.9711;-4.9447;
399.6000;0.9703;-4.9499;
399.9000;0.9695;-4.9525;
400.2000;0.9711;-4.9525;
400.5000;0.9687;-4.9499;
400.8000;0.9687;-4.9499;
401.1000;0.9687;-4.9499;
401.4000;0.9719;-4.9473;
401.7000;0.9703;-4.9629;
402.0000;0.9687;-4.9629;
402.3000;0.9687;-4.9655;
402.6000;0.9695;-4.9681;
402.9000;0.9687;-4.9655;
403.2000;0.9662;-4.9629;
403.5000;0.9646;-4.9784;
403.8000;0.9687;-4.9681;
404.1000;0.9703;-4.9655;
404.4000;0.9776;-4.9473;
404.7000;0.9703;-4.9603;
405.0000;0.9711;-4.9577;
405.3000;0.9687;-4.9706;
405.6000;0.9678;-4.9706;
405.9000;0.9695;-4.9681;
406.2000;0.9687;-4.9629;
406.5000;0.9703;-4.9525;
406.8000;0.9678;-4.9603;
407.1000;0.9687;-4.9577;
407.4000;0.9703;-4.9577;
407.7000;0.9711;-4.9525;
408.0000;0.9703;-4.9499;
408.3000;0.9695;-4.9577;
408.6000;0.9687;-4.9603;
408.9000;0.9711;-4.9577;
409.2000;0.9703;-4.9603;
409.5000;0.9703;-4.9629;
409.8000;0.9695;-4.9629;
410.1000;0.9695;-4.9551;
410.4000;0.9711;-4.9577;
410.7000;0.9687;-4.9681;
411.0000;0.9695;-4.9655;
411.3000;0.9695;-4.9577;
411.6000;0.9703;-4.9655;
411.9000;0.9703;-4.9655;
412.2000;0.9695;-4.9629;
412.5000;0.9687;-4.9603;
412.8000;0.9711;-4.9499;
413.1000;0.9687;-4.9577;
413.4000;0.9703;-4.9499;
413.7000;0.9695;-4.9499;
414.0000;0.9703;-4.9499;
414.3000;0.9695;-4.9473;
414.6000;0.9687;-4.9499;
414.9000;0.9678;-4.9603;
415.2000;0.9695;-4.9525;
415.5000;0.9695;-4.9603;
415.8000;0.9687;-4.9681;
416.1000;0.9678;-4.9655;
416.4000;0.9703;-4.9629;
416.7000;0.9703;-4.9577;
417.0000;0.9678;-4.9577;
417.3000;0.9687;-4.9629;
417.6000;0.9703;-4.9681;
417.9000;0.9703;-4.9603;
418.2000;0.9703;-4.9681;
418.5000;0.9687;-4.9681;
418.8000;0.9703;-4.9655;
419.1000;0.9703;-4.9681;
419.4000;0.9687;-4.9706;
419.7000;0.9703;-4.9629;
420.0000;0.9719;-4.9603;
420.3000;0.9711;-4.9655;
420.6000;0.9703;-4.9681;
420.9000;0.9695;-4.9629;
421.2000;0.9678;-4.9732;
421.5000;0.9687;-4.9758;
421.8000;0.9695;-4.9655;
422.1000;0.9687;-4.9577;
422.4000;0.9687;-4.9603;
422.7000;0.9678;-4.9655;
423.0000;0.9687;-4.9655;
423.3000;0.9678;-4.9629;
423.6000;0.9687;-4.9525;
423.9000;0.9678;-4.9551;
424.2000;0.9678;-4.9603;
424.5000;0.9695;-4.9655;
424.8000;0.9678;-4.9681;
425.1000;0.9687;-4.9732;
425.4000;0.9687;-4.9681;
425.7000;0.9695;-4.9681;
426.0000;0.9695;-4.9706;
426.3000;0.9687;-4.9681;
426.6000;0.9703;-4.9655;
426.9000;0.9687;-4.9629;
427.2000;0.9662;-4.9603;
427.5000;0.9662;-4.9603;
427.8000;0.9695;-4.9473;
428.1000;0.9687;-4.9447;
428.4000;0.9695;-4.9422;
428.7000;0.9695;-4.9447;
429.0000;0.9678;-4.9499;
429.3000;0.9703;-4.9422;
429.6000;0.9678;-4.9396;
429.9000;0.9678;-4.9447;
430.2000;0.9703;-4.9370;
430.5000;0.9687;-4.9422;
430.8000;0.9678;-4.9422;
431.1000;0.9695;-4.9396;
431.4000;0.9678;-4.9525;
431.7000;0.9662;-4.9577;
432.0000;0.9678;-4.9525;
432.3000;0.9687;-4.9551;
432.6000;0.9687;-4.9577;
432.9000;0.9678;-4.9603;
433.2000;0.9719;-4.9577;
433.5000;0.9727;-4.9551;
433.8000;0.9695;-4.9577;
434.1000;0.9678;-4.9655;
434.4000;0.9687;-4.9655;
434.7000;0.9687;-4.9706;
435.0000;0.9670;-4.9784;
435.3000;0.9678;-4.9784;
435.6000;0.9695;-4.9706;
435.9000;0.9695;-4.9629;
436.2000;0.9695;-4.9655;
436.5000;0.9752;-4.9499;
436.8000;0.9695;-4.9732;
437.1000;0.9703;-4.9758;
437.4000;0.9744;-4.9706;
437.7000;0.9735;-4.9655;
438.0000;0.9711;-4.9758;
438.3000;0.9670;-4.9836;
438.6000;0.9695;-4.9784;
438.9000;0.9670;-4.9784;
439.2000;0.9662;-4.9758;
439.5000;0.9695;-4.9655;
439.8000;0.9678;-4.9629;
440.1000;0.9703;-4.9681;
440.4000;0.9687;-4.9810;
440.7000;0.9678;-4.9836;
441.0000;0.9711;-4.9655;
441.3000;0.9687;-4.9732;
441.6000;0.9695;-4.9706;
441.9000;0.9695;-4.9758;
442.2000;0.9695;-4.9784;
442.5000;0.9687;-4.9810;
442.8000;0.9695;-4.9732;
443.1000;0.9752;-4.9629;
443.4000;0.9695;-4.9732;
443.7000;0.9678;-4.9758;
444.0000;0.9687;-4.9732;
444.3000;0.9711;-4.9758;
444.6000;0.9703;-4.9784;
444.9000;0.9711;-4.9681;
445.2000;0.9695;-4.9655;
445.5000;0.9662;-4.9629;
445.8000;0.9687;-4.9525;
446.1000;0.9695;-4.9629;
446.4000;0.9711;-4.9577;
446.7000;0.9695;-4.9525;
447.0000;0.9687;-4.9525;
447.3000;0.9703;-4.9499;
447.6000;0.9695;-4.9525;
447.9000;0.9678;-4.9577;
448.2000;0.9687;-4.9603;
448.5000;0.9678;-4.9629;
448.8000;0.9703;-4.9603;
449.1000;0.9695;-4.9681;
449.4000;0.9597;-4.9758;
449.7000;0.9695;-4.9551;
450.0000;0.9703;-4.9499;
450.3000;0.9670;-4.9525;
450.6000;0.9687;-4.9499;
450.9000;0.9678;-4.9422;
451.2000;0.9687;-4.9447;
451.5000;0.9662;-4.9447;
451.8000;0.9695;-4.9396;
452.1000;0.9687;-4.9422;
452.4000;0.9678;-4.9473;
452.7000;0.9630;-4.9603;
453.0000;0.9662;-4.9447;
453.3000;0.9695;-4.9422;
453.6000;0.9687;-4.9499;
453.9000;0.9678;-4.9499;
454.2000;0.9687;-4.9577;
454.5000;0.9613;-4.9758;
454.8000;0.9695;-4.9577;
455.1000;0.9703;-4.9396;
455.4000;0.9687;-4.9292;
455.7000;0.9678;-4.9214;
456.0000;0.9744;-4.9137;
456.3000;0.9678;-4.9318;
456.6000;0.9703;-4.9214;
456.9000;0.9711;-4.9292;
457.2000;0.9695;-4.9396;
457.5000;0.9695;-4.9318;
457.8000;0.9719;-4.9188;
458.1000;0.9695;-4.9214;
458.4000;0.9687;-4.9266;
458.7000;0.9678;-4.9292;
459.0000;0.9695;-4.9292;
459.3000;0.9678;-4.9318;
459.6000;0.9621;-4.9447;
459.9000;0.9687;-4.9473;
460.2000;0.9695;-4.9447;
460.5000;0.9678;-4.9447;
460.8000;0.9687;-4.9447;
461.1000;0.9695;-4.9447;
461.4000;0.9703;-4.9318;
461.7000;0.9678;-4.9396;
462.0000;0.9687;-4.9447;
462.3000;0.9687;-4.9422;
462.6000;0.9695;-4.9396;
462.9000;0.9687;-4.9473;
463.2000;0.9678;-4.9525;
463.5000;0.9670;-4.9577;
463.8000;0.9678;-4.9629;
464.1000;0.9695;-4.9603;
464.4000;0.9687;-4.9551;
464.7000;0.9678;-4.9525;
465.0000;0.9760;-4.9473;
465.3000;0.9703;-4.9681;
465.6000;0.9678;-4.9706;
465.9000;0.9687;-4.9706;
466.2000;0.9703;-4.9784;
466.5000;0.9678;-4.9810;
466.8000;0.9687;-4.9732;
467.1000;0.9695;-4.9681;
467.4000;0.9711;-4.9655;
467.7000;0.9703;-4.9577;
468.0000;0.9654;-4.9655;
468.3000;0.9621;-4.9732;
468.6000;0.9695;-4.9499;
468.9000;0.9687;-4.9499;
469.2000;0.9678;-4.9525;
469.5000;0.9703;-4.9499;
469.8000;0.9670;-4.9551;
470.1000;0.9670;-4.9447;
470.4000;0.9687;-4.9370;
470.7000;0.9687;-4.9447;
471.0000;0.9678;-4.9473;
471.3000;0.9670;-4.9473;
471.6000;0.9703;-4.9422;
471.9000;0.9703;-4.9473;
472.2000;0.9711;-4.9396;
472.5000;0.9670;-4.9396;
472.8000;0.9662;-4.9499;
473.1000;0.9678;-4.9473;
473.4000;0.9621;-4.9577;
473.7000;0.9670;-4.9396;
474.0000;0.9670;-4.9447;
474.3000;0.9670;-4.9422;
474.6000;0.9654;-4.9499;
474.9000;0.9695;-4.9396;
475.2000;0.9621;-4.9499;
475.5000;0.9662;-4.9370;
475.8000;0.9662;-4.9396;
476.1000;0.9670;-4.9396;
476.4000;0.9670;-4.9473;
476.7000;0.9703;-4.9422;
477.0000;0.9703;-4.9370;
477.3000;0.9687;-4.9344;
477.6000;0.9695;-4.9473;
477.9000;0.9678;-4.9551;
478.2000;0.9703;-4.9499;
478.5000;0.9687;-4.9551;
478.8000;0.9678;-4.9577;
479.1000;0.9678;-4.9473;
479.4000;0.9678;-4.9499;
479.7000;0.9670;-4.9499;
480.0000;0.9678;-4.9525;
480.3000;0.9678;-4.9551;
480.6000;0.9678;-4.9629;
480.9000;0.9670;-4.9629;
481.2000;0.9654;-4.9810;
481.5000;0.9687;-4.9706;
481.8000;0.9687;-4.9629;
482.1000;0.9678;-4.9629;
482.4000;0.9678;-4.9603;
482.7000;0.9711;-4.9499;
483.0000;0.9670;-4.9603;
483.3000;0.9678;-4.9577;
483.6000;0.9687;-4.9577;
483.9000;0.9687;-4.9603;
484.2000;0.9695;-4.9629;
484.5000;0.9687;-4.9577;
484.8000;0.9678;-4.9629;
485.1000;0.9678;-4.9603;
485.4000;0.9678;-4.9577;
485.7000;0.9687;-4.9655;
486.0000;0.9687;-4.9681;
486.3000;0.9687;-4.9732;
486.6000;0.9703;-4.9655;
486.9000;0.9662;-4.9551;
487.2000;0.9687;-4.9473;
487.5000;0.9687;-4.9499;
487.8000;0.9687;-4.9603;
488.1000;0.9638;-4.9681;
488.4000;0.9662;-4.9681;
488.7000;0.9678;-4.9655;
489.0000;0.9678;-4.9681;
489.3000;0.9662;-4.9706;
489.6000;0.9678;-4.9888;
489.9000;0.9662;-4.9940;
490.2000;0.9678;-4.9914;
490.5000;0.9670;-4.9914;
490.8000;0.9687;-4.9914;
491.1000;0.9678;-4.9940;
491.4000;0.9678;-4.9836;
491.7000;0.9695;-4.9836;
492.0000;0.9687;-4.9836;
492.3000;0.9703;-4.9888;
492.6000;0.9662;-5.0017;
492.9000;0.9695;-4.9991;
493.2000;0.9703;-4.9784;
493.5000;0.9678;-4.9836;
493.8000;0.9654;-4.9810;
494.1000;0.9687;-4.9784;
494.4000;0.9678;-4.9758;
494.7000;0.9687;-4.9655;
495.0000;0.9670;-4.9603;
495.3000;0.9687;-4.9551;
495.6000;0.9670;-4.9551;
495.9000;0.9678;-4.9577;
496.2000;0.9678;-4.9655;
496.5000;0.9646;-4.9655;
496.8000;0.9687;-4.9551;
497.1000;0.9678;-4.9551;
497.4000;0.9646;-4.9551;
497.7000;0.9711;-4.9266;
498.0000;0.9670;-4.9344;
498.3000;0.9695;-4.9396;
498.6000;0.9695;-4.9396;
498.9000;0.9662;-4.9473;
499.2000;0.9646;-4.9577;
499.5000;0.9678;-4.9551;
499.8000;0.9670;-4.9499;
500.1000;0.9670;-4.9577;
500.4000;0.9654;-4.9603;
500.7000;0.9662;-4.9655;
501.0000;0.9670;-4.9655;
501.3000;0.9678;-4.9655;
501.6000;0.9687;-4.9629;
501.9000;0.9678;-4.9681;
502.2000;0.9662;-4.9681;
502.5000;0.9662;-4.9655;
502.8000;0.9695;-4.9603;
503.1000;0.9735;-4.9447;
503.4000;0.9662;-4.9551;
503.7000;0.9670;-4.9577;
504.0000;0.9662;-4.9603;
504.3000;0.9670;-4.9473;
504.6000;0.9670;-4.9370;
504.9000;0.9678;-4.9447;
505.2000;0.9670;-4.9473;
505.5000;0.9678;-4.9499;
505.8000;0.9670;-4.9551;
506.1000;0.9678;-4.9447;
506.4000;0.9695;-4.9447;
506.7000;0.9703;-4.9577;
507.0000;0.9678;-4.9681;
507.3000;0.9670;-4.9681;
507.6000;0.9687;-4.9655;
507.9000;0.9678;-4.9706;
508.2000;0.9670;-4.9706;
508.5000;0.9687;-4.9655;
508.8000;0.9687;-4.9603;
509.1000;0.9695;-4.9551;
509.4000;0.9670;-4.9499;
509.7000;0.9687;-4.9447;
510.0000;0.9678;-4.9447;
510.3000;0.9678;-4.9396;
510.6000;0.9654;-4.9473;
510.9000;0.9670;-4.9499;
511.2000;0.9695;-4.9499;
511.5000;0.9670;-4.9551;
511.8000;0.9662;-4.9706;
512.1000;0.9711;-4.9577;
512.4000;0.9678;-4.9603;
512.7000;0.9678;-4.9499;
513.0000;0.9662;-4.9577;
513.3000;0.9687;-4.9603;
513.6000;0.9670;-4.9603;
513.9000;0.9711;-4.9473;
514.2000;0.9719;-4.9396;
514.5000;0.9670;-4.9525;
514.8000;0.9670;-4.9499;
515.1000;0.9670;-4.9603;
515.4000;0.9670;-4.9603;
515.7000;0.9670;-4.9577;
516.0000;0.9678;-4.9499;
516.3000;0.9678;-4.9525;
516.6000;0.9670;-4.9577;
516.9000;0.9670;-4.9603;
517.2000;0.9678;-4.9473;
517.5000;0.9670;-4.9447;
517.8000;0.9662;-4.9525;
518.1000;0.9662;-4.9525;
518.4000;0.9678;-4.9551;
518.7000;0.9670;-4.9577;
519.0000;0.9687;-4.9525;
519.3000;0.9662;-4.9603;
519.6000;0.9662;-4.9577;
519.9000;0.9678;-4.9499;
520.2000;0.9670;-4.9525;
520.5000;0.9670;-4.9577;
520.8000;0.9662;-4.9629;
521.1000;0.9670;-4.9499;
521.4000;0.9695;-4.9447;
521.7000;0.9678;-4.9525;
522.0000;0.9662;-4.9499;
522.3000;0.9654;-4.9525;
522.6000;0.9638;-4.9577;
522.9000;0.9662;-4.9447;
523.2000;0.9662;-4.9525;
523.5000;0.9662;-4.9499;
523.8000;0.9670;-4.9499;
524.1000;0.9687;-4.9447;
524.4000;0.9678;-4.9447;
524.7000;0.9646;-4.9499;
525.0000;0.9638;-4.9525;
525.3000;0.9654;-4.9525;
525.6000;0.9678;-4.9499;
525.9000;0.9646;-4.9577;
526.2000;0.9646;-4.9603;
526.5000;0.9687;-4.9447;
526.8000;0.9654;-4.9525;
527.1000;0.9646;-4.9629;
527.4000;0.9646;-4.9525;
527.7000;0.9678;-4.9499;
528.0000;0.9670;-4.9655;
528.3000;0.9630;-4.9681;
528.6000;0.9613;-4.9784;
528.9000;0.9687;-4.9603;
529.2000;0.9678;-4.9706;
529.5000;0.9638;-4.9784;
529.8000;0.9654;-4.9706;
530.1000;0.9670;-4.9706;
530.4000;0.9654;-4.9706;
530.7000;0.9646;-4.9732;
531.0000;0.9646;-4.9732;
531.3000;0.9662;-4.9732;
531.6000;0.9654;-4.9706;
531.9000;0.9670;-4.9655;
532.2000;0.9662;-4.9603;
532.5000;0.9687;-4.9603;
532.8000;0.9678;-4.9655;
533.1000;0.9654;-4.9706;
533.4000;0.9670;-4.9629;
533.7000;0.9670;-4.9603;
534.0000;0.9695;-4.9525;
534.3000;0.9744;-4.9447;
534.6000;0.9662;-4.9577;
534.9000;0.9662;-4.9577;
535.2000;0.9678;-4.9655;
535.5000;0.9670;-4.9577;
535.8000;0.9662;-4.9629;
536.1000;0.9670;-4.9655;
536.4000;0.9654;-4.9758;
536.7000;0.9662;-4.9681;
537.0000;0.9670;-4.9655;
537.3000;0.9630;-4.9732;
537.6000;0.9670;-4.9681;
537.9000;0.9662;-4.9655;
538.2000;0.9711;-4.9525;
538.5000;0.9670;-4.9629;
538.8000;0.9662;-4.9681;
539.1000;0.9678;-4.9629;
539.4000;0.9678;-4.9603;
539.7000;0.9670;-4.9629;
540.0000;0.9662;-4.9577;
540.3000;0.9678;-4.9551;
540.6000;0.9662;-4.9603;
540.9000;0.9678;-4.9577;
541.2000;0.9654;-4.9629;
541.5000;0.9654;-4.9629;
541.8000;0.9670;-4.9681;
542.1000;0.9646;-4.9732;
542.4000;0.9654;-4.9706;
542.7000;0.9646;-4.9655;
543.0000;0.9670;-4.9499;
543.3000;0.9678;-4.9473;
543.6000;0.9638;-4.9577;
543.9000;0.9654;-4.9551;
544.2000;0.9621;-4.9629;
544.5000;0.9670;-4.9603;
544.8000;0.9670;-4.9681;
545.1000;0.9654;-4.9603;
545.4000;0.9630;-4.9577;
545.7000;0.9670;-4.9499;
546.0000;0.9662;-4.9551;
546.3000;0.9670;-4.9525;
546.6000;0.9654;-4.9577;
546.9000;0.9621;-4.9629;
547.2000;0.9654;-4.9473;
547.5000;0.9662;-4.9422;
547.8000;0.9654;-4.9473;
548.1000;0.9703;-4.9344;
548.4000;0.9670;-4.9370;
548.7000;0.9654;-4.9422;
549.0000;0.9662;-4.9370;
549.3000;0.9630;-4.9422;
549.6000;0.9670;-4.9344;
549.9000;0.9670;-4.9344;
550.2000;0.9662;-4.9422;
550.5000;0.9662;-4.9396;
550.8000;0.9662;-4.9447;
551.1000;0.9670;-4.9422;
551.4000;0.9678;-4.9370;
551.7000;0.9678;-4.9344;
552.0000;0.9678;-4.9396;
552.3000;0.9646;-4.9370;
552.6000;0.9621;-4.9447;
552.9000;0.9670;-4.9292;
553.2000;0.9662;-4.9266;
553.5000;0.9630;-4.9370;
553.8000;0.9662;-4.9292;
554.1000;0.9654;-4.9318;
554.4000;0.9670;-4.9344;
554.7000;0.9630;-4.9473;
555.0000;0.9670;-4.9344;
555.3000;0.9654;-4.9525;
555.6000;0.9670;-4.9551;
555.9000;0.9719;-4.9422;
556.2000;0.9662;-4.9499;
556.5000;0.9687;-4.9499;
556.8000;0.9678;-4.9603;
557.1000;0.9678;-4.9499;
557.4000;0.9670;-4.9473;
557.7000;0.9646;-4.9577;
558.0000;0.9662;-4.9525;
558.3000;0.9678;-4.9499;
558.6000;0.9646;-4.9525;
558.9000;0.9654;-4.9499;
559.2000;0.9670;-4.9447;
559.5000;0.9654;-4.9499;
559.8000;0.9662;-4.9603;
560.1000;0.9654;-4.9525;
560.4000;0.9621;-4.9525;
560.7000;0.9646;-4.9447;
561.0000;0.9646;-4.9396;
561.3000;0.9630;-4.9422;
561.6000;0.9638;-4.9473;
561.9000;0.9646;-4.9422;
562.2000;0.9662;-4.9370;
562.5000;0.9654;-4.9422;
562.8000;0.9646;-4.9422;
563.1000;0.9654;-4.9370;
563.4000;0.9654;-4.9370;
563.7000;0.9662;-4.9344;
564.0000;0.9662;-4.9318;
564.3000;0.9654;-4.9266;
564.6000;0.9662;-4.9214;
564.9000;0.9703;-4.9111;
565.2000;0.9646;-4.9370;
565.5000;0.9662;-4.9318;
565.8000;0.9638;-4.9396;
566.1000;0.9662;-4.9370;
566.4000;0.9670;-4.9344;
566.7000;0.9678;-4.9344;
567.0000;0.9638;-4.9422;
567.3000;0.9638;-4.9396;
567.6000;0.9646;-4.9344;
567.9000;0.9646;-4.9370;
568.2000;0.9638;-4.9473;
568.5000;0.9654;-4.9422;
568.8000;0.9638;-4.9370;
569.1000;0.9695;-4.9240;
569.4000;0.9605;-4.9447;
569.7000;0.9646;-4.9499;
570.0000;0.9654;-4.9396;
570.3000;0.9662;-4.9344;
570.6000;0.9654;-4.9370;
570.9000;0.9662;-4.9292;
571.2000;0.9670;-4.9292;
571.5000;0.9654;-4.9473;
571.8000;0.9638;-4.9499;
572.1000;0.9646;-4.9525;
572.4000;0.9670;-4.9499;
572.7000;0.9646;-4.9577;
573.0000;0.9654;-4.9577;
573.3000;0.9662;-4.9577;
573.6000;0.9695;-4.9473;
573.9000;0.9670;-4.9525;
574.2000;0.9662;-4.9551;
574.5000;0.9646;-4.9525;
574.8000;0.9662;-4.9525;
575.1000;0.9662;-4.9525;
575.4000;0.9662;-4.9473;
575.7000;0.9662;-4.9473;
576.0000;0.9678;-4.9473;
576.3000;0.9670;-4.9473;
576.6000;0.9630;-4.9681;
576.9000;0.9662;-4.9681;
577.2000;0.9638;-4.9681;
577.5000;0.9662;-4.9629;
577.8000;0.9646;-4.9706;
578.1000;0.9662;-4.9655;
578.4000;0.9654;-4.9681;
578.7000;0.9654;-4.9577;
579.0000;0.9662;-4.9551;
579.3000;0.9662;-4.9603;
579.6000;0.9662;-4.9629;
579.9000;0.9670;-4.9577;
580.2000;0.9654;-4.9473;
580.5000;0.9646;-4.9396;
580.8000;0.9654;-4.9370;
581.1000;0.9621;-4.9473;
581.4000;0.9670;-4.9318;
581.7000;0.9670;-4.9214;
582.0000;0.9646;-4.9292;
582.3000;0.9687;-4.9163;
582.6000;0.9670;-4.9214;
582.9000;0.9670;-4.9188;
583.2000;0.9654;-4.9214;
583.5000;0.9654;-4.9266;
583.8000;0.9646;-4.9292;
584.1000;0.9687;-4.9163;
584.4000;0.9654;-4.9214;
584.7000;0.9670;-4.9163;
585.0000;0.9662;-4.9137;
585.3000;0.9752;-4.8955;
585.6000;0.9687;-4.9137;
585.9000;0.9662;-4.9240;
586.2000;0.9646;-4.9266;
586.5000;0.9670;-4.9318;
586.8000;0.9638;-4.9422;
587.1000;0.9646;-4.9447;
587.4000;0.9638;-4.9525;
587.7000;0.9638;-4.9499;
588.0000;0.9670;-4.9396;
588.3000;0.9662;-4.9473;
588.6000;0.9638;-4.9525;
588.9000;0.9654;-4.9551;
589.2000;0.9662;-4.9499;
589.5000;0.9638;-4.9681;
589.8000;0.9638;-4.9603;
590.1000;0.9662;-4.9655;
590.4000;0.9662;-4.9629;
590.7000;0.9695;-4.9447;
591.0000;0.9654;-4.9525;
591.3000;0.9670;-4.9499;
591.6000;0.9630;-4.9629;
591.9000;0.9662;-4.9447;
592.2000;0.9654;-4.9396;
592.5000;0.9662;-4.9525;
592.8000;0.9662;-4.9499;
593.1000;0.9654;-4.9525;
593.4000;0.9687;-4.9499;
593.7000;0.9654;-4.9577;
594.0000;0.9670;-4.9473;
594.3000;0.9654;-4.9525;
594.6000;0.9646;-4.9551;
594.9000;0.9654;-4.9447;
595.2000;0.9630;-4.9525;
595.5000;0.9662;-4.9525;
595.8000;0.9654;-4.9499;
596.1000;0.9646;-4.9499;
596.4000;0.9646;-4.9370;
596.7000;0.9662;-4.9240;
597.0000;0.9670;-4.9292;
597.3000;0.9646;-4.9344;
597.6000;0.9638;-4.9344;
597.9000;0.9646;-4.9447;
598.2000;0.9654;-4.9525;
598.5000;0.9621;-4.9525;
598.8000;0.9654;-4.9344;
599.1000;0.9638;-4.9344;
599.4000;0.9646;-4.9396;
599.7000;0.9630;-4.9525;
600.0000;0.9630;-4.9422;
600.3000;0.9630;-4.9551;
600.6000;0.9621;-4.9810;
600.9000;0.9597;-4.9940;
601.2000;0.9524;-5.0302;
601.5000;0.9442;-5.0639;
601.8000;0.9385;-5.0898;
602.1000;0.9271;-5.1235;
602.4000;0.9223;-5.1364;
602.7000;0.9149;-5.1597;
603.0000;0.9076;-5.1727;
603.3000;0.9019;-5.1934;
603.6000;0.8962;-5.2115;
603.9000;0.8897;-5.2323;
604.2000;0.8873;-5.2323;
604.5000;0.8799;-5.2582;
604.8000;0.8767;-5.2763;
605.1000;0.8718;-5.2892;
605.4000;0.8669;-5.2996;
605.7000;0.8628;-5.3100;
606.0000;0.8588;-5.3126;
606.3000;0.8547;-5.3229;
606.6000;0.8498;-5.3281;
606.9000;0.8474;-5.3333;
607.2000;0.8417;-5.3359;
607.5000;0.8392;-5.3411;
607.8000;0.8376;-5.3385;
608.1000;0.8327;-5.3359;
608.4000;0.8303;-5.3411;
608.7000;0.8262;-5.3592;
609.0000;0.8246;-5.3592;
609.3000;0.8205;-5.3566;
609.6000;0.8189;-5.3618;
609.9000;0.8156;-5.3721;
610.2000;0.8140;-5.3799;
610.5000;0.8107;-5.3773;
610.8000;0.8083;-5.3773;
611.1000;0.8067;-5.3721;
611.4000;0.8042;-5.3644;
611.7000;0.8018;-5.3747;
612.0000;0.8002;-5.3773;
612.3000;0.7969;-5.3929;
612.6000;0.8002;-5.3903;
612.9000;0.7937;-5.3980;
613.2000;0.7912;-5.4006;
613.5000;0.7888;-5.4084;
613.8000;0.7871;-5.4084;
614.1000;0.7847;-5.4110;
614.4000;0.7831;-5.4084;
614.7000;0.7823;-5.4162;
615.0000;0.7814;-5.4213;
615.3000;0.7774;-5.4239;
615.6000;0.7774;-5.4265;
615.9000;0.7749;-5.4291;
616.2000;0.7741;-5.4291;
616.5000;0.7725;-5.4317;
616.8000;0.7709;-5.4343;
617.1000;0.7700;-5.4265;
617.4000;0.7676;-5.4317;
617.7000;0.7652;-5.4369;
618.0000;0.7643;-5.4421;
618.3000;0.7643;-5.4369;
618.6000;0.7619;-5.4369;
618.9000;0.7595;-5.4447;
619.2000;0.7586;-5.4317;
619.5000;0.7570;-5.4265;
619.8000;0.7578;-5.4291;
620.1000;0.7546;-5.4343;
620.4000;0.7530;-5.4317;
620.7000;0.7530;-5.4369;
621.0000;0.7513;-5.4317;
621.3000;0.7505;-5.4317;
621.6000;0.7481;-5.4343;
621.9000;0.7481;-5.4369;
622.2000;0.7456;-5.4343;
622.5000;0.7456;-5.4317;
622.8000;0.7456;-5.4317;
623.1000;0.7432;-5.4343;
623.4000;0.7424;-5.4317;
623.7000;0.7432;-5.4291;
624.0000;0.7424;-5.4317;
624.3000;0.7391;-5.4369;
624.6000;0.7391;-5.4395;
624.9000;0.7399;-5.4239;
625.2000;0.7375;-5.4317;
625.5000;0.7359;-5.4421;
625.8000;0.7342;-5.4421;
626.1000;0.7342;-5.4395;
626.4000;0.7334;-5.4369;
626.7000;0.7334;-5.4395;
627.0000;0.7302;-5.4447;
627.3000;0.7302;-5.4343;
627.6000;0.7310;-5.4343;
627.9000;0.7302;-5.4343;
628.2000;0.7318;-5.4291;
628.5000;0.7285;-5.4395;
628.8000;0.7261;-5.4473;
629.1000;0.7261;-5.4369;
629.4000;0.7253;-5.4343;
629.7000;0.7245;-5.4421;
630.0000;0.7236;-5.4395;
630.3000;0.7212;-5.4447;
630.6000;0.7236;-5.4447;
630.9000;0.7212;-5.4473;
631.2000;0.7220;-5.4473;
631.5000;0.7212;-5.4550;
631.8000;0.7188;-5.4576;
632.1000;0.7261;-5.4369;
632.4000;0.7171;-5.4550;
632.7000;0.7188;-5.4473;
633.0000;0.7188;-5.4395;
633.3000;0.7179;-5.4473;
633.6000;0.7163;-5.4473;
633.9000;0.7179;-5.4421;
634.2000;0.7163;-5.4369;
634.5000;0.7155;-5.4447;
634.8000;0.7147;-5.4447;
635.1000;0.7139;-5.4550;
635.4000;0.7139;-5.4550;
635.7000;0.7131;-5.4421;
636.0000;0.7123;-5.4421;
636.3000;0.7114;-5.4498;
636.6000;0.7106;-5.4550;
636.9000;0.7106;-5.4550;
637.2000;0.7049;-5.4706;
637.5000;0.7082;-5.4576;
637.8000;0.7074;-5.4524;
638.1000;0.7098;-5.4473;
638.4000;0.7139;-5.4369;
638.7000;0.7090;-5.4524;
639.0000;0.7082;-5.4524;
639.3000;0.7082;-5.4473;
639.6000;0.7025;-5.4550;
639.9000;0.7041;-5.4550;
640.2000;0.7041;-5.4550;
640.5000;0.7041;-5.4524;
640.8000;0.7025;-5.4524;
641.1000;0.7009;-5.4576;
641.4000;0.7025;-5.4576;
641.7000;0.7025;-5.4550;
642.0000;0.7009;-5.4550;
642.3000;0.7009;-5.4602;
642.6000;0.6911;-5.4861;
642.9000;0.7000;-5.4576;
643.2000;0.7000;-5.4576;
643.5000;0.6976;-5.4550;
643.8000;0.6976;-5.4550;
644.1000;0.6927;-5.4706;
644.4000;0.6984;-5.4447;
644.7000;0.6943;-5.4524;
645.0000;0.6952;-5.4498;
645.3000;0.6952;-5.4473;
645.6000;0.6952;-5.4473;
645.9000;0.6935;-5.4498;
646.2000;0.6992;-5.4317;
646.5000;0.6927;-5.4473;
646.8000;0.6935;-5.4447;
647.1000;0.6935;-5.4447;
647.4000;0.6919;-5.4602;
647.7000;0.6919;-5.4628;
648.0000;0.6919;-5.4602;
648.3000;0.6911;-5.4602;
648.6000;0.6911;-5.4628;
648.9000;0.6911;-5.4473;
649.2000;0.6911;-5.4447;
649.5000;0.6911;-5.4447;
649.8000;0.6903;-5.4473;
650.1000;0.6870;-5.4654;
650.4000;0.6895;-5.4576;
650.7000;0.6895;-5.4576;
651.0000;0.6870;-5.4602;
651.3000;0.6862;-5.4706;
651.6000;0.6886;-5.4654;
651.9000;0.6862;-5.4654;
652.2000;0.6805;-5.4706;
652.5000;0.6862;-5.4654;
652.8000;0.6854;-5.4654;
653.1000;0.6870;-5.4628;
653.4000;0.6862;-5.4654;
653.7000;0.6846;-5.4576;
654.0000;0.6838;-5.4524;
654.3000;0.6829;-5.4498;
654.6000;0.6838;-5.4473;
654.9000;0.6829;-5.4473;
655.2000;0.6829;-5.4473;
655.5000;0.6813;-5.4447;
655.8000;0.6805;-5.4447;
656.1000;0.6846;-5.4291;
656.4000;0.6813;-5.4421;
656.7000;0.6805;-5.4421;
657.0000;0.6862;-5.4498;
657.3000;0.6781;-5.4628;
657.6000;0.6797;-5.4602;
657.9000;0.6781;-5.4654;
658.2000;0.6789;-5.4524;
658.5000;0.6838;-5.4395;
658.8000;0.6764;-5.4602;
659.1000;0.6772;-5.4576;
659.4000;0.6781;-5.4524;
659.7000;0.6764;-5.4550;
660.0000;0.6756;-5.4498;
660.3000;0.6781;-5.4447;
660.6000;0.6716;-5.4498;
660.9000;0.6748;-5.4473;
661.2000;0.6748;-5.4498;
661.5000;0.6732;-5.4473;
661.8000;0.6740;-5.4421;
662.1000;0.6756;-5.4447;
662.4000;0.6740;-5.4447;
662.7000;0.6732;-5.4421;
663.0000;0.6699;-5.4524;
663.3000;0.6724;-5.4447;
663.6000;0.6732;-5.4447;
663.9000;0.6707;-5.4447;
664.2000;0.6716;-5.4473;
664.5000;0.6716;-5.4447;
664.8000;0.6707;-5.4473;
665.1000;0.6707;-5.4473;
665.4000;0.6699;-5.4550;
665.7000;0.6691;-5.4602;
666.0000;0.6699;-5.4524;
666.3000;0.6683;-5.4576;
666.6000;0.6691;-5.4550;
666.9000;0.6675;-5.4524;
667.2000;0.6683;-5.4498;
667.5000;0.6699;-5.4524;
667.8000;0.6667;-5.4602;
668.1000;0.6667;-5.4576;
668.4000;0.6691;-5.4524;
668.7000;0.6675;-5.4550;
669.0000;0.6667;-5.4602;
669.3000;0.6659;-5.4602;
669.6000;0.6659;-5.4498;
669.9000;0.6667;-5.4473;
670.2000;0.6659;-5.4473;
670.5000;0.6634;-5.4473;
670.8000;0.6650;-5.4395;
671.1000;0.6642;-5.4421;
671.4000;0.6642;-5.4447;
671.7000;0.6642;-5.4473;
672.0000;0.6642;-5.4447;
672.3000;0.6618;-5.4447;
672.6000;0.6626;-5.4421;
672.9000;0.6618;-5.4447;
673.2000;0.6626;-5.4421;
673.5000;0.6634;-5.4369;
673.8000;0.6659;-5.4343;
674.1000;0.6618;-5.4421;
674.4000;0.6602;-5.4395;
674.7000;0.6610;-5.4395;
675.0000;0.6610;-5.4395;
675.3000;0.6602;-5.4395;
675.6000;0.6602;-5.4421;
675.9000;0.6602;-5.4498;
676.2000;0.6602;-5.4447;
676.5000;0.6585;-5.4473;
676.8000;0.6593;-5.4550;
677.1000;0.6585;-5.4473;
677.4000;0.6593;-5.4447;
677.7000;0.6593;-5.4421;
678.0000;0.6626;-5.4395;
678.3000;0.6577;-5.4498;
678.6000;0.6585;-5.4447;
678.9000;0.6585;-5.4447;
679.2000;0.6569;-5.4498;
679.5000;0.6585;-5.4498;
679.8000;0.6577;-5.4473;
680.1000;0.6593;-5.4421;
680.4000;0.6602;-5.4343;
680.7000;0.6577;-5.4343;
681.0000;0.6577;-5.4369;
681.3000;0.6553;-5.4369;
681.6000;0.6553;-5.4343;
681.9000;0.6536;-5.4317;
682.2000;0.6520;-5.4369;
682.5000;0.6536;-5.4317;
682.8000;0.6520;-5.4369;
683.1000;0.6528;-5.4447;
683.4000;0.6577;-5.4265;
683.7000;0.6536;-5.4447;
684.0000;0.6512;-5.4498;
684.3000;0.6512;-5.4524;
684.6000;0.6528;-5.4421;
684.9000;0.6520;-5.4395;
685.2000;0.6455;-5.4576;
685.5000;0.6512;-5.4447;
685.8000;0.6512;-5.4447;
686.1000;0.6520;-5.4395;
686.4000;0.6520;-5.4395;
686.7000;0.6488;-5.4524;
687.0000;0.6496;-5.4447;
687.3000;0.6504;-5.4421;
687.6000;0.6447;-5.4550;
687.9000;0.6504;-5.4421;
688.2000;0.6488;-5.4524;
688.5000;0.6488;-5.4447;
688.8000;0.6479;-5.4524;
689.1000;0.6496;-5.4447;
689.4000;0.6479;-5.4498;
689.7000;0.6536;-5.4291;
690.0000;0.6479;-5.4343;
690.3000;0.6496;-5.4317;
690.6000;0.6496;-5.4291;
690.9000;0.6471;-5.4291;
691.2000;0.6463;-5.4265;
691.5000;0.6463;-5.4265;
691.8000;0.6479;-5.4291;
692.1000;0.6447;-5.4369;
692.4000;0.6455;-5.4317;
692.7000;0.6455;-5.4265;
693.0000;0.6463;-5.4162;
693.3000;0.6455;-5.4239;
693.6000;0.6471;-5.4213;
693.9000;0.6463;-5.4136;
694.2000;0.6463;-5.4136;
694.5000;0.6447;-5.4239;
694.8000;0.6455;-5.4265;
695.1000;0.6447;-5.4291;
695.4000;0.6431;-5.4369;
695.7000;0.6447;-5.4369;
696.0000;0.6422;-5.4421;
696.3000;0.6414;-5.4447;
696.6000;0.6439;-5.4447;
696.9000;0.6447;-5.4550;
697.2000;0.6422;-5.4576;
697.5000;0.6414;-5.4576;
697.8000;0.6422;-5.4524;
698.1000;0.6422;-5.4473;
698.4000;0.6398;-5.4524;
698.7000;0.6414;-5.4473;
699.0000;0.6431;-5.4395;
699.3000;0.6422;-5.4369;
699.6000;0.6406;-5.4395;
699.9000;0.6414;-5.4343;
700.2000;0.6365;-5.4498;
700.5000;0.6455;-5.4317;
700.8000;0.6414;-5.4473;
701.1000;0.6406;-5.4473;
701.4000;0.6398;-5.4343;
701.7000;0.6398;-5.4343;
702.0000;0.6390;-5.4291;
702.3000;0.6382;-5.4291;
702.6000;0.6365;-5.4421;
702.9000;0.6414;-5.4369;
703.2000;0.6382;-5.4498;
703.5000;0.6382;-5.4447;
703.8000;0.6382;-5.4447;
704.1000;0.6390;-5.4421;
704.4000;0.6382;-5.4447;
704.7000;0.6382;-5.4369;
705.0000;0.6382;-5.4395;
705.3000;0.6365;-5.4395;
705.6000;0.6382;-5.4395;
705.9000;0.6374;-5.4343;
706.2000;0.6374;-5.4343;
706.5000;0.6382;-5.4317;
706.8000;0.6382;-5.4317;
707.1000;0.6365;-5.4343;
707.4000;0.6374;-5.4291;
707.7000;0.6341;-5.4291;
708.0000;0.6365;-5.4188;
708.3000;0.6357;-5.4239;
708.6000;0.6374;-5.4188;
708.9000;0.6357;-5.4317;
709.2000;0.6333;-5.4447;
709.5000;0.6349;-5.4498;
709.8000;0.6357;-5.4473;
710.1000;0.6333;-5.4473;
710.4000;0.6333;-5.4421;
710.7000;0.6341;-5.4343;
711.0000;0.6341;-5.4369;
711.3000;0.6325;-5.4343;
711.6000;0.6309;-5.4395;
711.9000;0.6365;-5.4317;
712.2000;0.6365;-5.4343;
712.5000;0.6325;-5.4395;
712.8000;0.6317;-5.4447;
713.1000;0.6300;-5.4447;
713.4000;0.6325;-5.4317;
713.7000;0.6325;-5.4265;
714.0000;0.6325;-5.4265;
714.3000;0.6317;-5.4265;
714.6000;0.6341;-5.4239;
714.9000;0.6317;-5.4369;
715.2000;0.6333;-5.4317;
715.5000;0.6333;-5.4265;
715.8000;0.6349;-5.4162;
716.1000;0.6309;-5.4239;
716.4000;0.6317;-5.4213;
716.7000;0.6292;-5.4188;
717.0000;0.6284;-5.4162;
717.3000;0.6317;-5.4136;
717.6000;0.6276;-5.4265;
717.9000;0.6309;-5.4239;
718.2000;0.6317;-5.4213;
718.5000;0.6276;-5.4213;
718.8000;0.6284;-5.4239;
719.1000;0.6268;-5.4239;
719.4000;0.6292;-5.4136;
719.7000;0.6309;-5.4213;
720.0000;0.6235;-5.4317;
720.3000;0.6309;-5.4162;
720.6000;0.6276;-5.4265;
720.9000;0.6292;-5.4239;
721.2000;0.6284;-5.4369;
721.5000;0.6268;-5.4369;
721.8000;0.6260;-5.4317;
722.1000;0.6284;-5.4188;
722.4000;0.6276;-5.4213;
722.7000;0.6252;-5.4291;
723.0000;0.6252;-5.4343;
723.3000;0.6219;-5.4343;
723.6000;0.6268;-5.4239;
723.9000;0.6243;-5.4343;
724.2000;0.6243;-5.4369;
724.5000;0.6317;-5.4110;
724.8000;0.6268;-5.4188;
725.1000;0.6317;-5.4136;
725.4000;0.6243;-5.4265;
725.7000;0.6235;-5.4213;
726.0000;0.6268;-5.4188;
726.3000;0.6243;-5.4265;
726.6000;0.6276;-5.4213;
726.9000;0.6243;-5.4239;
727.2000;0.6186;-5.4291;
727.5000;0.6235;-5.4162;
727.8000;0.6252;-5.4110;
728.1000;0.6243;-5.4188;
728.4000;0.6219;-5.4317;
728.7000;0.6243;-5.4239;
729.0000;0.6178;-5.4369;
729.3000;0.6227;-5.4265;
729.6000;0.6227;-5.4291;
729.9000;0.6243;-5.4265;
730.2000;0.6235;-5.4291;
730.5000;0.6219;-5.4343;
730.8000;0.6219;-5.4343;
731.1000;0.6252;-5.4265;
731.4000;0.6227;-5.4395;
731.7000;0.6227;-5.4421;
732.0000;0.6219;-5.4447;
732.3000;0.6227;-5.4421;
732.6000;0.6195;-5.4498;
732.9000;0.6195;-5.4447;
733.2000;0.6203;-5.4447;
733.5000;0.6219;-5.4395;
733.8000;0.6203;-5.4421;
734.1000;0.6195;-5.4447;
734.4000;0.6203;-5.4369;
734.7000;0.6211;-5.4369;
735.0000;0.6276;-5.4239;
735.3000;0.6211;-5.4395;
735.6000;0.6211;-5.4447;
735.9000;0.6195;-5.4524;
736.2000;0.6203;-5.4550;
736.5000;0.6178;-5.4576;
736.8000;0.6146;-5.4602;
737.1000;0.6195;-5.4395;
737.4000;0.6186;-5.4395;
737.7000;0.6211;-5.4395;
738.0000;0.6186;-5.4395;
738.3000;0.6195;-5.4369;
738.6000;0.6203;-5.4343;
738.9000;0.6203;-5.4343;
739.2000;0.6203;-5.4317;
739.5000;0.6178;-5.4395;
739.8000;0.6121;-5.4576;
740.1000;0.6186;-5.4421;
740.4000;0.6203;-5.4369;
740.7000;0.6154;-5.4550;
741.0000;0.6178;-5.4447;
741.3000;0.6195;-5.4369;
741.6000;0.6211;-5.4265;
741.9000;0.6170;-5.4395;
742.2000;0.6186;-5.4395;
742.5000;0.6178;-5.4343;
742.8000;0.6178;-5.4343;
743.1000;0.6154;-5.4291;
743.4000;0.6170;-5.4239;
743.7000;0.6170;-5.4213;
744.0000;0.6219;-5.4213;
744.3000;0.6186;-5.4317;
744.6000;0.6154;-5.4421;
744.9000;0.6162;-5.4395;
745.2000;0.6178;-5.4369;
745.5000;0.6186;-5.4265;
745.8000;0.6195;-5.4343;
746.1000;0.6162;-5.4317;
746.4000;0.6170;-5.4343;
746.7000;0.6170;-5.4343;
747.0000;0.6170;-5.4369;
747.3000;0.6097;-5.4473;
747.6000;0.6154;-5.4395;
747.9000;0.6162;-5.4369;
748.2000;0.6154;-5.4369;
748.5000;0.6162;-5.4291;
748.8000;0.6146;-5.4291;
749.1000;0.6154;-5.4213;
749.4000;0.6138;-5.4265;
749.7000;0.6129;-5.4291;
750.0000;0.6154;-5.4213;
750.3000;0.6154;-5.4136;
750.6000;0.6146;-5.4188;
750.9000;0.6138;-5.4239;
751.2000;0.6138;-5.4343;
751.5000;0.6170;-5.4317;
751.8000;0.6121;-5.4369;
752.1000;0.6129;-5.4343;
752.4000;0.6129;-5.4369;
752.7000;0.6154;-5.4265;
753.0000;0.6138;-5.4188;
753.3000;0.6146;-5.4162;
753.6000;0.6195;-5.4058;
753.9000;0.6121;-5.4188;
754.2000;0.6138;-5.4213;
754.5000;0.6129;-5.4317;
754.8000;0.6121;-5.4343;
755.1000;0.6129;-5.4395;
755.4000;0.6129;-5.4343;
755.7000;0.6129;-5.4291;
756.0000;0.6121;-5.4369;
756.3000;0.6129;-5.4291;
756.6000;0.6113;-5.4369;
756.9000;0.6105;-5.4343;
757.2000;0.6097;-5.4343;
757.5000;0.6081;-5.4291;
757.8000;0.6105;-5.4136;
758.1000;0.6097;-5.4058;
758.4000;0.6170;-5.3929;
758.7000;0.6121;-5.4006;
759.0000;0.6089;-5.4058;
759.3000;0.6105;-5.4084;
759.6000;0.6081;-5.4239;
759.9000;0.6081;-5.4291;
760.2000;0.6097;-5.4188;
760.5000;0.6089;-5.4110;
760.8000;0.6105;-5.4032;
761.1000;0.6097;-5.4032;
761.4000;0.6072;-5.4110;
761.7000;0.6105;-5.4084;
762.0000;0.6097;-5.4162;
762.3000;0.6105;-5.4162;
762.6000;0.6064;-5.4265;
762.9000;0.6097;-5.4213;
763.2000;0.6105;-5.4136;
763.5000;0.6162;-5.4006;
763.8000;0.6097;-5.4239;
764.1000;0.6097;-5.4213;
764.4000;0.6097;-5.4136;
764.7000;0.6113;-5.4110;
765.0000;0.6081;-5.4213;
765.3000;0.6081;-5.4265;
765.6000;0.6072;-5.4317;
765.9000;0.6097;-5.4239;
766.2000;0.6089;-5.4188;
766.5000;0.6064;-5.4265;
766.8000;0.6089;-5.4239;
767.1000;0.6089;-5.4291;
767.4000;0.6089;-5.4291;
767.7000;0.6072;-5.4317;
768.0000;0.6081;-5.4265;
768.3000;0.6072;-5.4317;
768.6000;0.6064;-5.4291;
768.9000;0.6089;-5.4239;
769.2000;0.6056;-5.4265;
769.5000;0.6097;-5.4110;
769.8000;0.6072;-5.4162;
770.1000;0.6072;-5.4162;
770.4000;0.6064;-5.4162;
770.7000;0.6072;-5.4162;
771.0000;0.6081;-5.4162;
771.3000;0.6081;-5.4265;
771.6000;0.6072;-5.4239;
771.9000;0.6048;-5.4317;
772.2000;0.6064;-5.4265;
772.5000;0.6072;-5.4213;
772.8000;0.6048;-5.4291;
773.1000;0.6072;-5.4291;
773.4000;0.6072;-5.4265;
773.7000;0.6072;-5.4291;
774.0000;0.6072;-5.4188;
774.3000;0.6064;-5.4136;
774.6000;0.6056;-5.4162;
774.9000;0.6048;-5.4239;
775.2000;0.6072;-5.4239;
775.5000;0.6048;-5.4239;
775.8000;0.6072;-5.4213;
776.1000;0.6048;-5.4239;
776.4000;0.6015;-5.4265;
776.7000;0.6040;-5.4136;
777.0000;0.6048;-5.4162;
777.3000;0.6024;-5.4188;
777.6000;0.6048;-5.4162;
777.9000;0.6040;-5.4188;
778.2000;0.6032;-5.4188;
778.5000;0.6040;-5.4136;
778.8000;0.6040;-5.4162;
779.1000;0.6032;-5.4084;
779.4000;0.6097;-5.3954;
779.7000;0.5991;-5.4239;
780.0000;0.6015;-5.4343;
780.3000;0.6015;-5.4369;
780.6000;0.6032;-5.4291;
780.9000;0.6032;-5.4239;
781.2000;0.6024;-5.4188;
781.5000;0.6015;-5.4291;
781.8000;0.6032;-5.4239;
782.1000;0.6032;-5.4162;
782.4000;0.6032;-5.4188;
782.7000;0.6024;-5.4136;
783.0000;0.5999;-5.4213;
783.3000;0.6024;-5.4162;
783.6000;0.6032;-5.4188;
783.9000;0.6032;-5.4162;
784.2000;0.6015;-5.4110;
784.5000;0.6024;-5.4136;
784.8000;0.6040;-5.4084;
785.1000;0.6032;-5.4058;
785.4000;0.6007;-5.4136;
785.7000;0.5999;-5.4162;
786.0000;0.6024;-5.4136;
786.3000;0.6024;-5.4213;
786.6000;0.6024;-5.4239;
786.9000;0.6040;-5.4265;
787.2000;0.6015;-5.4317;
787.5000;0.6032;-5.4369;
787.8000;0.6032;-5.4317;
788.1000;0.6032;-5.4317;
788.4000;0.6015;-5.4343;
788.7000;0.6032;-5.4291;
789.0000;0.6007;-5.4265;
789.3000;0.6040;-5.4239;
789.6000;0.6015;-5.4421;
789.9000;0.6015;-5.4369;
790.2000;0.6015;-5.4317;
790.5000;0.6007;-5.4265;
790.8000;0.6007;-5.4265;
791.1000;0.6015;-5.4188;
791.4000;0.5999;-5.4188;
791.7000;0.5991;-5.4239;
792.0000;0.5991;-5.4213;
792.3000;0.6048;-5.4084;
792.6000;0.6007;-5.4213;
792.9000;0.5991;-5.4265;
793.2000;0.5999;-5.4239;
793.5000;0.5999;-5.4265;
793.8000;0.5991;-5.4265;
794.1000;0.5942;-5.4395;
794.4000;0.6015;-5.4213;
794.7000;0.5975;-5.4369;
795.0000;0.5999;-5.4369;
795.3000;0.5999;-5.4343;
795.6000;0.5991;-5.4317;
795.9000;0.5983;-5.4343;
796.2000;0.5975;-5.4395;
796.5000;0.5999;-5.4395;
796.8000;0.5975;-5.4421;
797.1000;0.5999;-5.4395;
797.4000;0.5975;-5.4369;
797.7000;0.6007;-5.4265;
798.0000;0.5999;-5.4265;
798.3000;0.5983;-5.4343;
798.6000;0.5991;-5.4265;
798.9000;0.5999;-5.4213;
799.2000;0.5967;-5.4291;
799.5000;0.5983;-5.4317;
799.8000;0.5975;-5.4343;
800.1000;0.5975;-5.4343;
800.4000;0.5942;-5.4421;
800.7000;0.5999;-5.4265;
801.0000;0.5983;-5.4291;
801.3000;0.5958;-5.4291;
801.6000;0.5967;-5.4343;
801.9000;0.5950;-5.4291;
802.2000;0.5975;-5.4291;
802.5000;0.5983;-5.4317;
802.8000;0.5958;-5.4343;
803.1000;0.5975;-5.4265;
803.4000;0.5958;-5.4239;
803.7000;0.5967;-5.4213;
804.0000;0.5975;-5.4162;
804.3000;0.5967;-5.4213;
804.6000;0.5967;-5.4239;
804.9000;0.6007;-5.4213;
805.2000;0.5950;-5.4343;
805.5000;0.5967;-5.4317;
805.8000;0.5967;-5.4343;
806.1000;0.5950;-5.4395;
806.4000;0.5958;-5.4291;
806.7000;0.5958;-5.4265;
807.0000;0.5999;-5.4188;
807.3000;0.5967;-5.4291;
807.6000;0.5999;-5.4188;
807.9000;0.5975;-5.4343;
808.2000;0.5950;-5.4317;
808.5000;0.5967;-5.4239;
808.8000;0.5958;-5.4265;
809.1000;0.5958;-5.4317;
809.4000;0.5950;-5.4343;
809.7000;0.5967;-5.4395;
810.0000;0.5942;-5.4498;
810.3000;0.5926;-5.4524;
810.6000;0.5942;-5.4395;
810.9000;0.5942;-5.4369;
811.2000;0.5942;-5.4291;
811.5000;0.5975;-5.4136;
811.8000;0.5934;-5.4265;
812.1000;0.5958;-5.4213;
812.4000;0.5942;-5.4265;
812.7000;0.5934;-5.4291;
813.0000;0.5999;-5.4162;
813.3000;0.5942;-5.4317;
813.6000;0.5934;-5.4317;
813.9000;0.5958;-5.4265;
814.2000;0.5958;-5.4188;
814.5000;0.5942;-5.4188;
814.8000;0.5926;-5.4084;
815.1000;0.5991;-5.3980;
815.4000;0.5926;-5.4110;
815.7000;0.5934;-5.4136;
816.0000;0.5934;-5.4213;
816.3000;0.5942;-5.4213;
816.6000;0.5934;-5.4188;
816.9000;0.5934;-5.4084;
817.2000;0.5885;-5.4239;
817.5000;0.5975;-5.3980;
817.8000;0.5942;-5.4136;
818.1000;0.5999;-5.4006;
818.4000;0.5910;-5.4239;
818.7000;0.5926;-5.4291;
819.0000;0.5918;-5.4265;
819.3000;0.5926;-5.4239;
819.6000;0.5934;-5.4162;
819.9000;0.5934;-5.4213;
820.2000;0.5942;-5.4136;
820.5000;0.5942;-5.4084;
820.8000;0.5926;-5.4058;
821.1000;0.5926;-5.4032;
821.4000;0.5869;-5.4265;
821.7000;0.5918;-5.4136;
822.0000;0.5918;-5.4162;
822.3000;0.5918;-5.4084;
822.6000;0.5902;-5.4213;
822.9000;0.5918;-5.4213;
823.2000;0.5950;-5.4265;
823.5000;0.5918;-5.4265;
823.8000;0.5918;-5.4317;
824.1000;0.5910;-5.4343;
824.4000;0.5869;-5.4421;
824.7000;0.5958;-5.4188;
825.0000;0.5926;-5.4213;
825.3000;0.5918;-5.4239;
825.6000;0.5893;-5.4265;
825.9000;0.5918;-5.4136;
826.2000;0.5934;-5.4032;
826.5000;0.5910;-5.4032;
826.8000;0.5902;-5.4058;
827.1000;0.5918;-5.3980;
827.4000;0.5910;-5.3980;
827.7000;0.5877;-5.4136;
828.0000;0.5918;-5.4084;
828.3000;0.5918;-5.4136;
828.6000;0.5918;-5.4162;
828.9000;0.5885;-5.4265;
829.2000;0.5926;-5.4213;
829.5000;0.5902;-5.4317;
829.8000;0.5902;-5.4317;
830.1000;0.5918;-5.4317;
830.4000;0.5934;-5.4343;
830.7000;0.5950;-5.4239;
831.0000;0.5934;-5.4265;
831.3000;0.5926;-5.4213;
831.6000;0.5845;-5.4395;
831.9000;0.5910;-5.4136;
832.2000;0.5918;-5.4032;
832.5000;0.5885;-5.4110;
832.8000;0.5885;-5.4110;
833.1000;0.5910;-5.4162;
833.4000;0.5918;-5.4213;
833.7000;0.5910;-5.4213;
834.0000;0.5893;-5.4239;
834.3000;0.5902;-5.4213;
834.6000;0.5975;-5.4058;
834.9000;0.5926;-5.4188;
835.2000;0.5893;-5.4188;
835.5000;0.5902;-5.4265;
835.8000;0.5893;-5.4265;
836.1000;0.5926;-5.4162;
836.4000;0.5893;-5.4136;
836.7000;0.5902;-5.4213;
837.0000;0.5902;-5.4213;
837.3000;0.5926;-5.4162;
837.6000;0.5836;-5.4317;
837.9000;0.5902;-5.4188;
838.2000;0.5853;-5.4265;
838.5000;0.5877;-5.4188;
838.8000;0.5902;-5.4032;
839.1000;0.5918;-5.4058;
839.4000;0.5893;-5.4110;
839.7000;0.5910;-5.4058;
840.0000;0.5902;-5.4136;
840.3000;0.5893;-5.4136;
840.6000;0.5885;-5.4213;
840.9000;0.5885;-5.4162;
841.2000;0.5885;-5.4058;
841.5000;0.5877;-5.4110;
841.8000;0.5893;-5.4032;
842.1000;0.5893;-5.4110;
842.4000;0.5893;-5.4058;
842.7000;0.5902;-5.4058;
843.0000;0.5885;-5.4110;
843.3000;0.5877;-5.4110;
843.6000;0.5885;-5.4058;
843.9000;0.5869;-5.4084;
844.2000;0.5885;-5.4084;
844.5000;0.5877;-5.4058;
844.8000;0.5836;-5.4188;
845.1000;0.5902;-5.4058;
845.4000;0.5869;-5.4136;
845.7000;0.5877;-5.4136;
846.0000;0.5869;-5.4006;
846.3000;0.5893;-5.3929;
846.6000;0.5853;-5.3980;
846.9000;0.5869;-5.4006;
847.2000;0.5885;-5.3903;
847.5000;0.5877;-5.3954;
847.8000;0.5845;-5.4006;
848.1000;0.5869;-5.3929;
848.4000;0.5926;-5.3851;
848.7000;0.5885;-5.4032;
849.0000;0.5885;-5.4032;
849.3000;0.5885;-5.4032;
849.6000;0.5853;-5.4188;
849.9000;0.5885;-5.4162;
850.2000;0.5877;-5.4136;
850.5000;0.5877;-5.4188;
850.8000;0.5861;-5.4110;
851.1000;0.5902;-5.3980;
851.4000;0.5885;-5.3980;
851.7000;0.5885;-5.3877;
852.0000;0.5861;-5.4006;
852.3000;0.5869;-5.4058;
852.6000;0.5877;-5.4032;
852.9000;0.5869;-5.4136;
853.2000;0.5877;-5.4136;
853.5000;0.5869;-5.4213;
853.8000;0.5877;-5.4213;
854.1000;0.5877;-5.4084;
854.4000;0.5861;-5.4032;
854.7000;0.5885;-5.4006;
855.0000;0.5902;-5.3877;
855.3000;0.5861;-5.4006;
855.6000;0.5861;-5.4032;
855.9000;0.5861;-5.4084;
856.2000;0.5853;-5.4006;
856.5000;0.5804;-5.4239;
856.8000;0.5893;-5.4032;
857.1000;0.5828;-5.4110;
857.4000;0.5853;-5.3954;
857.7000;0.5845;-5.3980;
858.0000;0.5836;-5.4058;
858.3000;0.5845;-5.3980;
858.6000;0.5861;-5.3980;
858.9000;0.5861;-5.3980;
859.2000;0.5869;-5.3980;
859.5000;0.5845;-5.3929;
859.8000;0.5853;-5.3980;
860.1000;0.5869;-5.3954;
860.4000;0.5845;-5.3980;
860.7000;0.5853;-5.3980;
861.0000;0.5771;-5.4162;
861.3000;0.5877;-5.3929;
861.6000;0.5845;-5.3980;
861.9000;0.5934;-5.3851;
862.2000;0.5869;-5.3954;
862.5000;0.5836;-5.4032;
862.8000;0.5926;-5.3825;
863.1000;0.5845;-5.4032;
863.4000;0.5853;-5.4058;
863.7000;0.5853;-5.4058;
864.0000;0.5869;-5.3980;
864.3000;0.5853;-5.4032;
864.6000;0.5877;-5.4006;
864.9000;0.5853;-5.4058;
865.2000;0.5861;-5.4006;
865.5000;0.5845;-5.4032;
865.8000;0.5828;-5.3954;
866.1000;0.5812;-5.4032;
866.4000;0.5828;-5.4058;
866.7000;0.5853;-5.4058;
867.0000;0.5853;-5.3980;
867.3000;0.5845;-5.4058;
867.6000;0.5836;-5.4032;
867.9000;0.5861;-5.3903;
868.2000;0.5836;-5.3877;
868.5000;0.5820;-5.4006;
868.8000;0.5845;-5.3877;
869.1000;0.5828;-5.3954;
869.4000;0.5796;-5.4032;
869.7000;0.5820;-5.3980;
870.0000;0.5836;-5.3980;
870.3000;0.5853;-5.3954;
870.6000;0.5853;-5.3954;
870.9000;0.5845;-5.4032;
871.2000;0.5853;-5.4032;
871.5000;0.5788;-5.4213;
871.8000;0.5853;-5.3980;
872.1000;0.5836;-5.4058;
872.4000;0.5755;-5.4265;
872.7000;0.5853;-5.3980;
873.0000;0.5861;-5.4006;
873.3000;0.5820;-5.4136;
873.6000;0.5828;-5.4162;
873.9000;0.5836;-5.4162;
874.2000;0.5845;-5.4136;
874.5000;0.5845;-5.4084;
874.8000;0.5788;-5.4239;
875.1000;0.5828;-5.4162;
875.4000;0.5836;-5.4188;
875.7000;0.5893;-5.4058;
876.0000;0.5861;-5.4110;
876.3000;0.5812;-5.4110;
876.6000;0.5788;-5.4239;
876.9000;0.5845;-5.4084;
877.2000;0.5869;-5.3954;
877.5000;0.5845;-5.4006;
877.8000;0.5836;-5.4136;
878.1000;0.5828;-5.4188;
878.4000;0.5836;-5.4162;
878.7000;0.5828;-5.4188;
879.0000;0.5820;-5.4213;
879.3000;0.5828;-5.4239;
879.6000;0.5845;-5.4239;
879.9000;0.5812;-5.4213;
880.2000;0.5836;-5.4291;
880.5000;0.5828;-5.4317;
880.8000;0.5836;-5.4265;
881.1000;0.5828;-5.4188;
881.4000;0.5820;-5.4136;
881.7000;0.5812;-5.4136;
882.0000;0.5820;-5.4084;
882.3000;0.5828;-5.4110;
882.6000;0.5812;-5.4162;
882.9000;0.5828;-5.4213;
883.2000;0.5836;-5.4162;
883.5000;0.5804;-5.4239;
883.8000;0.5828;-5.4188;
884.1000;0.5836;-5.4032;
884.4000;0.5804;-5.4110;
884.7000;0.5828;-5.4058;
885.0000;0.5812;-5.4136;
885.3000;0.5796;-5.4162;
885.6000;0.5820;-5.4006;
885.9000;0.5820;-5.4032;
886.2000;0.5820;-5.4058;
886.5000;0.5804;-5.4084;
886.8000;0.5812;-5.4032;
887.1000;0.5820;-5.4058;
887.4000;0.5796;-5.4213;
887.7000;0.5804;-5.4265;
888.0000;0.5828;-5.4291;
888.3000;0.5812;-5.4239;
888.6000;0.5788;-5.4239;
888.9000;0.5804;-5.4188;
889.2000;0.5779;-5.4239;
889.5000;0.5812;-5.4162;
889.8000;0.5788;-5.4188;
890.1000;0.5796;-5.4162;
890.4000;0.5771;-5.4188;
890.7000;0.5804;-5.4032;
891.0000;0.5820;-5.3980;
891.3000;0.5804;-5.4006;
891.6000;0.5796;-5.3980;
891.9000;0.5820;-5.3929;
892.2000;0.5820;-5.3929;
892.5000;0.5885;-5.3825;
892.8000;0.5812;-5.3980;
893.1000;0.5796;-5.4006;
893.4000;0.5869;-5.3747;
893.7000;0.5788;-5.4006;
894.0000;0.5779;-5.4084;
894.3000;0.5804;-5.3980;
894.6000;0.5804;-5.4006;
894.9000;0.5820;-5.3980;
895.2000;0.5804;-5.3980;
895.5000;0.5771;-5.4032;
895.8000;0.5812;-5.3980;
896.1000;0.5796;-5.4006;
896.4000;0.5812;-5.4084;
896.7000;0.5788;-5.4058;
897.0000;0.5812;-5.3877;
897.3000;0.5788;-5.3825;
897.6000;0.5812;-5.3851;
897.9000;0.5796;-5.3954;
898.2000;0.5788;-5.4006;
898.5000;0.5853;-5.3877;
898.8000;0.5804;-5.3877;
899.1000;0.5812;-5.3851;
899.4000;0.5779;-5.3980;
899.7000;0.5804;-5.3954;
900.0000;0.5804;-5.3877;
900.3000;0.5788;-5.3903;
900.6000;0.5804;-5.3877;
900.9000;0.5796;-5.3877;
901.2000;0.5796;-5.3929;
901.5000;0.5796;-5.3903;
901.8000;0.5788;-5.3929;
902.1000;0.5788;-5.3903;
902.4000;0.5796;-5.3851;
902.7000;0.5779;-5.3929;
903.0000;0.5796;-5.3980;
903.3000;0.5788;-5.4058;
903.6000;0.5779;-5.4136;
903.9000;0.5779;-5.4136;
904.2000;0.5796;-5.4084;
904.5000;0.5771;-5.4188;
904.8000;0.5788;-5.4162;
905.1000;0.5796;-5.4110;
905.4000;0.5788;-5.4213;
905.7000;0.5788;-5.4239;
906.0000;0.5739;-5.4317;
906.3000;0.5804;-5.4136;
906.6000;0.5796;-5.4006;
906.9000;0.5779;-5.4032;
907.2000;0.5788;-5.4006;
907.5000;0.5796;-5.3903;
907.8000;0.5779;-5.3980;
908.1000;0.5779;-5.3980;
908.4000;0.5771;-5.4084;
908.7000;0.5788;-5.4006;
909.0000;0.5804;-5.4006;
909.3000;0.5828;-5.3903;
909.6000;0.5796;-5.3877;
909.9000;0.5804;-5.4006;
910.2000;0.5804;-5.4110;
910.5000;0.5788;-5.4110;
910.8000;0.5788;-5.4136;
911.1000;0.5755;-5.4110;
911.4000;0.5788;-5.4006;
911.7000;0.5804;-5.3954;
912.0000;0.5804;-5.3929;
912.3000;0.5796;-5.3877;
912.6000;0.5771;-5.3903;
912.9000;0.5788;-5.3851;
913.2000;0.5796;-5.3851;
913.5000;0.5771;-5.3929;
913.8000;0.5755;-5.3903;
914.1000;0.5779;-5.3851;
914.4000;0.5739;-5.3929;
914.7000;0.5771;-5.3929;
915.0000;0.5788;-5.3877;
915.3000;0.5788;-5.3903;
915.6000;0.5771;-5.4006;
915.9000;0.5788;-5.4006;
916.2000;0.5755;-5.4110;
916.5000;0.5779;-5.4136;
916.8000;0.5788;-5.4136;
917.1000;0.5779;-5.4084;
917.4000;0.5755;-5.4110;
917.7000;0.5771;-5.4136;
918.0000;0.5796;-5.4032;
918.3000;0.5763;-5.4213;
918.6000;0.5755;-5.4084;
918.9000;0.5755;-5.4136;
919.2000;0.5771;-5.4136;
919.5000;0.5788;-5.4058;
919.8000;0.5755;-5.4032;
920.1000;0.5771;-5.4006;
920.4000;0.5763;-5.3954;
920.7000;0.5779;-5.3903;
921.0000;0.5755;-5.3954;
921.3000;0.5763;-5.3903;
921.6000;0.5779;-5.3877;
921.9000;0.5796;-5.3799;
922.2000;0.5771;-5.3929;
922.5000;0.5828;-5.3799;
922.8000;0.5779;-5.3954;
923.1000;0.5763;-5.4006;
923.4000;0.5755;-5.4032;
923.7000;0.5763;-5.3980;
924.0000;0.5755;-5.3954;
924.3000;0.5779;-5.3903;
924.6000;0.5755;-5.3903;
924.9000;0.5763;-5.3929;
925.2000;0.5788;-5.3825;
925.5000;0.5763;-5.3954;
925.8000;0.5755;-5.4006;
926.1000;0.5763;-5.3877;
926.4000;0.5755;-5.3929;
926.7000;0.5779;-5.3903;
927.0000;0.5706;-5.4110;
927.3000;0.5771;-5.3954;
927.6000;0.5731;-5.4058;
927.9000;0.5763;-5.3929;
928.2000;0.5812;-5.3851;
928.5000;0.5771;-5.3851;
928.8000;0.5771;-5.3851;
929.1000;0.5771;-5.3903;
929.4000;0.5771;-5.3903;
929.7000;0.5779;-5.3851;
930.0000;0.5755;-5.3929;
930.3000;0.5755;-5.3980;
930.6000;0.5763;-5.3954;
930.9000;0.5739;-5.4032;
931.2000;0.5779;-5.3980;
931.5000;0.5763;-5.3954;
931.8000;0.5763;-5.3954;
932.1000;0.5722;-5.4058;
932.4000;0.5771;-5.3954;
932.7000;0.5788;-5.3980;
933.0000;0.5779;-5.3903;
933.3000;0.5755;-5.3903;
933.6000;0.5771;-5.3877;
933.9000;0.5731;-5.4058;
934.2000;0.5755;-5.3980;
934.5000;0.5698;-5.4032;
934.8000;0.5755;-5.3903;
935.1000;0.5763;-5.3825;
935.4000;0.5788;-5.3773;
935.7000;0.5755;-5.3954;
936.0000;0.5747;-5.3877;
936.3000;0.5755;-5.3877;
936.6000;0.5747;-5.3877;
936.9000;0.5747;-5.3799;
937.2000;0.5731;-5.3799;
937.5000;0.5771;-5.3721;
937.8000;0.5747;-5.3670;
938.1000;0.5763;-5.3566;
938.4000;0.5755;-5.3592;
938.7000;0.5747;-5.3670;
939.0000;0.5739;-5.3773;
939.3000;0.5731;-5.3799;
939.6000;0.5755;-5.3747;
939.9000;0.5739;-5.3851;
940.2000;0.5747;-5.4006;
940.5000;0.5706;-5.4110;
940.8000;0.5755;-5.4006;
941.1000;0.5739;-5.4110;
941.4000;0.5714;-5.4188;
941.7000;0.5747;-5.4136;
942.0000;0.5747;-5.4136;
942.3000;0.5739;-5.4136;
942.6000;0.5755;-5.4058;
942.9000;0.5731;-5.4162;
943.2000;0.5731;-5.4188;
943.5000;0.5812;-5.3929;
943.8000;0.5739;-5.4110;
944.1000;0.5755;-5.4032;
944.4000;0.5763;-5.4058;
944.7000;0.5722;-5.4084;
945.0000;0.5788;-5.3980;
945.3000;0.5755;-5.4058;
945.6000;0.5747;-5.4032;
945.9000;0.5763;-5.4058;
946.2000;0.5747;-5.4006;
946.5000;0.5747;-5.4006;
946.8000;0.5722;-5.4032;
947.1000;0.5747;-5.4006;
947.4000;0.5755;-5.4032;
947.7000;0.5739;-5.4006;
948.0000;0.5747;-5.4006;
948.3000;0.5722;-5.4032;
948.6000;0.5739;-5.4084;
948.9000;0.5706;-5.4136;
949.2000;0.5763;-5.4006;
949.5000;0.5722;-5.4136;
949.8000;0.5731;-5.4110;
950.1000;0.5739;-5.4110;
950.4000;0.5747;-5.4058;
950.7000;0.5682;-5.4213;
951.0000;0.5739;-5.4032;
951.3000;0.5747;-5.4084;
951.6000;0.5739;-5.4110;
951.9000;0.5739;-5.4136;
952.2000;0.5747;-5.4188;
952.5000;0.5714;-5.4239;
952.8000;0.5722;-5.4162;
953.1000;0.5747;-5.4084;
953.4000;0.5739;-5.4136;
953.7000;0.5739;-5.4110;
954.0000;0.5674;-5.4369;
954.3000;0.5731;-5.4239;
954.6000;0.5722;-5.4188;
954.9000;0.5739;-5.4084;
955.2000;0.5739;-5.4084;
955.5000;0.5771;-5.4032;
955.8000;0.5812;-5.3980;
956.1000;0.5747;-5.4213;
956.4000;0.5698;-5.4291;
956.7000;0.5722;-5.4162;
957.0000;0.5722;-5.4213;
957.3000;0.5731;-5.4239;
957.6000;0.5722;-5.4291;
957.9000;0.5739;-5.4239;
958.2000;0.5674;-5.4317;
958.5000;0.5714;-5.4084;
958.8000;0.5739;-5.3954;
959.1000;0.5731;-5.4006;
959.4000;0.5706;-5.3954;
959.7000;0.5739;-5.3877;
960.0000;0.5755;-5.3851;
960.3000;0.5731;-5.4006;
960.6000;0.5731;-5.4058;
960.9000;0.5690;-5.4188;
961.2000;0.5722;-5.4006;
961.5000;0.5731;-5.4058;
961.8000;0.5722;-5.4084;
962.1000;0.5722;-5.4084;
962.4000;0.5731;-5.4058;
962.7000;0.5690;-5.4162;
963.0000;0.5731;-5.4058;
963.3000;0.5706;-5.4006;
963.6000;0.5714;-5.4006;
963.9000;0.5739;-5.4032;
964.2000;0.5714;-5.4006;
964.5000;0.5731;-5.3980;
964.8000;0.5714;-5.4084;
965.1000;0.5714;-5.4110;
965.4000;0.5698;-5.4188;
965.7000;0.5714;-5.4058;
966.0000;0.5714;-5.4032;
966.3000;0.5714;-5.4032;
966.6000;0.5771;-5.3903;
966.9000;0.5722;-5.3929;
967.2000;0.5698;-5.4006;
967.5000;0.5731;-5.3954;
967.8000;0.5714;-5.3980;
968.1000;0.5714;-5.4058;
968.4000;0.5698;-5.4032;
968.7000;0.5731;-5.4006;
969.0000;0.5739;-5.4032;
969.3000;0.5722;-5.4188;
969.6000;0.5706;-5.4317;
969.9000;0.5706;-5.4265;
970.2000;0.5722;-5.4239;
970.5000;0.5731;-5.4213;
970.8000;0.5714;-5.4213;
971.1000;0.5706;-5.4265;
971.4000;0.5722;-5.4291;
971.7000;0.5731;-5.4291;
972.0000;0.5722;-5.4239;
972.3000;0.5698;-5.4265;
972.6000;0.5706;-5.4239;
972.9000;0.5722;-5.4162;
973.2000;0.5731;-5.4084;
973.5000;0.5739;-5.4084;
973.8000;0.5690;-5.4239;
974.1000;0.5722;-5.4084;
974.4000;0.5722;-5.4032;
974.7000;0.5625;-5.4265;
975.0000;0.5755;-5.3903;
975.3000;0.5722;-5.4084;
975.6000;0.5722;-5.4058;
975.9000;0.5714;-5.4110;
976.2000;0.5698;-5.4213;
976.5000;0.5763;-5.4084;
976.8000;0.5731;-5.4136;
977.1000;0.5722;-5.4110;
977.4000;0.5714;-5.4213;
977.7000;0.5722;-5.4239;
978.0000;0.5698;-5.4213;
978.3000;0.5706;-5.4188;
978.6000;0.5714;-5.4188;
978.9000;0.5722;-5.4110;
979.2000;0.5706;-5.4188;
979.5000;0.5722;-5.4110;
979.8000;0.5706;-5.4032;
980.1000;0.5682;-5.4084;
980.4000;0.5714;-5.4084;
980.7000;0.5706;-5.4162;
981.0000;0.5698;-5.4136;
981.3000;0.5698;-5.4188;
981.6000;0.5714;-5.4110;
981.9000;0.5698;-5.4110;
982.2000;0.5698;-5.4032;
982.5000;0.5714;-5.4058;
982.8000;0.5706;-5.4084;
983.1000;0.5698;-5.4084;
983.4000;0.5706;-5.3954;
983.7000;0.5706;-5.4032;
984.0000;0.5706;-5.4058;
984.3000;0.5722;-5.4006;
984.6000;0.5706;-5.4058;
984.9000;0.5722;-5.4058;
985.2000;0.5714;-5.3954;
985.5000;0.5739;-5.3851;
985.8000;0.5714;-5.3903;
986.1000;0.5706;-5.3929;
986.4000;0.5698;-5.4032;
986.7000;0.5714;-5.4006;
987.0000;0.5714;-5.4058;
987.3000;0.5690;-5.4006;
987.6000;0.5665;-5.4058;
987.9000;0.5706;-5.4006;
988.2000;0.5698;-5.4058;
988.5000;0.5657;-5.4058;
988.8000;0.5698;-5.3929;
989.1000;0.5731;-5.3929;
989.4000;0.5722;-5.3929;
989.7000;0.5690;-5.3954;
990.0000;0.5690;-5.4032;
990.3000;0.5682;-5.4058;
990.6000;0.5714;-5.4006;
990.9000;0.5698;-5.4110;
991.2000;0.5682;-5.4162;
991.5000;0.5674;-5.4136;
991.8000;0.5706;-5.4032;
992.1000;0.5682;-5.4084;
992.4000;0.5698;-5.4084;
992.7000;0.5698;-5.4058;
993.0000;0.5706;-5.3954;
993.3000;0.5698;-5.3980;
993.6000;0.5665;-5.4006;
993.9000;0.5690;-5.3954;
994.2000;0.5698;-5.3929;
994.5000;0.5706;-5.3954;
994.8000;0.5698;-5.4084;
995.1000;0.5747;-5.4006;
995.4000;0.5682;-5.4136;
995.7000;0.5706;-5.4084;
996.0000;0.5714;-5.4084;
996.3000;0.5722;-5.4058;
996.6000;0.5706;-5.4239;
996.9000;0.5714;-5.4188;
997.2000;0.5714;-5.4162;
997.5000;0.5714;-5.4084;
997.8000;0.5698;-5.4084;
998.1000;0.5706;-5.4058;
998.4000;0.5722;-5.4006;
998.7000;0.5706;-5.4006;
999.0000;0.5706;-5.4006;
999.3000;0.5714;-5.4006;
999.6000;0.5714;-5.3929;
999.9000;0.5706;-5.3903;
1000.2000;0.5698;-5.3903;
1000.5000;0.5706;-5.3954;
1000.8000;0.5641;-5.4162;
1001.1000;0.5698;-5.3980;
1001.4000;0.5682;-5.4006;
1001.7000;0.5698;-5.3980;
1002.0000;0.5690;-5.3954;
1002.3000;0.5690;-5.3851;
1002.6000;0.5690;-5.3903;
1002.9000;0.5739;-5.3695;
1003.2000;0.5722;-5.3773;
1003.5000;0.5698;-5.3825;
1003.8000;0.5690;-5.3877;
1004.1000;0.5682;-5.3929;
1004.4000;0.5755;-5.3851;
1004.7000;0.5698;-5.4006;
1005.0000;0.5722;-5.3903;
1005.3000;0.5682;-5.3980;
1005.6000;0.5690;-5.3980;
1005.9000;0.5690;-5.3954;
1006.2000;0.5690;-5.3929;
1006.5000;0.5674;-5.3929;
1006.8000;0.5690;-5.3980;
1007.1000;0.5690;-5.3954;
1007.4000;0.5674;-5.3903;
1007.7000;0.5690;-5.3747;
1008.0000;0.5690;-5.3799;
1008.3000;0.5706;-5.3773;
1008.6000;0.5714;-5.3747;
1008.9000;0.5698;-5.3721;
1009.2000;0.5682;-5.3695;
1009.5000;0.5690;-5.3695;
1009.8000;0.5698;-5.3747;
1010.1000;0.5682;-5.3721;
1010.4000;0.5690;-5.3695;
1010.7000;0.5690;-5.3799;
1011.0000;0.5698;-5.3773;
1011.3000;0.5698;-5.3773;
1011.6000;0.5714;-5.3695;
1011.9000;0.5682;-5.3773;
1012.2000;0.5698;-5.3747;
1012.5000;0.5690;-5.3773;
1012.8000;0.5698;-5.3747;
1013.1000;0.5682;-5.3747;
1013.4000;0.5690;-5.3721;
1013.7000;0.5682;-5.3799;
1014.0000;0.5682;-5.3747;
1014.3000;0.5682;-5.3747;
1014.6000;0.5682;-5.3851;
1014.9000;0.5698;-5.3929;
1015.2000;0.5698;-5.4032;
1015.5000;0.5690;-5.3980;
1015.8000;0.5690;-5.3903;
1016.1000;0.5722;-5.3773;
1016.4000;0.5674;-5.3851;
1016.7000;0.5690;-5.3877;
1017.0000;0.5657;-5.3903;
1017.3000;0.5682;-5.3954;
1017.6000;0.5690;-5.4006;
1017.9000;0.5674;-5.4006;
1018.2000;0.5698;-5.3980;
1018.5000;0.5665;-5.3980;
1018.8000;0.5674;-5.4032;
1019.1000;0.5649;-5.4110;
1019.4000;0.5682;-5.3954;
1019.7000;0.5706;-5.3954;
1020.0000;0.5698;-5.4058;
1020.3000;0.5690;-5.4032;
1020.6000;0.5690;-5.3954;
1020.9000;0.5682;-5.3877;
1021.2000;0.5657;-5.4006;
1021.5000;0.5674;-5.3980;
1021.8000;0.5682;-5.4084;
1022.1000;0.5674;-5.4084;
1022.4000;0.5682;-5.4084;
1022.7000;0.5690;-5.3954;
1023.0000;0.5690;-5.3929;
1023.3000;0.5698;-5.3877;
1023.6000;0.5665;-5.3929;
1023.9000;0.5682;-5.3877;
1024.2000;0.5690;-5.3877;
1024.5000;0.5665;-5.3851;
1024.8000;0.5665;-5.3877;
1025.1000;0.5690;-5.3929;
1025.4000;0.5682;-5.3954;
1025.7000;0.5674;-5.3903;
1026.0000;0.5698;-5.3851;
1026.3000;0.5665;-5.3954;
1026.6000;0.5682;-5.3903;
1026.9000;0.5690;-5.3929;
1027.2000;0.5714;-5.3851;
1027.5000;0.5649;-5.4006;
1027.8000;0.5690;-5.3954;
1028.1000;0.5649;-5.4006;
1028.4000;0.5665;-5.3954;
1028.7000;0.5633;-5.4006;
1029.0000;0.5665;-5.3851;
1029.3000;0.5682;-5.3851;
1029.6000;0.5657;-5.3954;
1029.9000;0.5665;-5.3877;
1030.2000;0.5706;-5.3799;
1030.5000;0.5690;-5.3773;
1030.8000;0.5682;-5.3825;
1031.1000;0.5674;-5.3851;
1031.4000;0.5682;-5.3903;
1031.7000;0.5690;-5.3954;
1032.0000;0.5665;-5.3954;
1032.3000;0.5690;-5.3799;
1032.6000;0.5674;-5.3799;
1032.9000;0.5690;-5.3877;
1033.2000;0.5690;-5.3903;
1033.5000;0.5698;-5.3877;
1033.8000;0.5682;-5.3877;
1034.1000;0.5706;-5.3954;
1034.4000;0.5682;-5.4006;
1034.7000;0.5674;-5.3954;
1035.0000;0.5665;-5.3980;
1035.3000;0.5690;-5.3851;
1035.6000;0.5665;-5.3954;
1035.9000;0.5649;-5.3980;
1036.2000;0.5682;-5.3877;
1036.5000;0.5682;-5.3851;
1036.8000;0.5674;-5.3877;
1037.1000;0.5649;-5.3929;
1037.4000;0.5682;-5.3877;
1037.7000;0.5682;-5.3825;
1038.0000;0.5625;-5.3929;
1038.3000;0.5674;-5.3825;
1038.6000;0.5674;-5.3825;
1038.9000;0.5674;-5.3851;
1039.2000;0.5665;-5.3903;
1039.5000;0.5674;-5.3877;
1039.8000;0.5657;-5.3825;
1040.1000;0.5674;-5.3721;
1040.4000;0.5682;-5.3747;
1040.7000;0.5674;-5.3695;
1041.0000;0.5674;-5.3695;
1041.3000;0.5682;-5.3644;
1041.6000;0.5674;-5.3695;
1041.9000;0.5674;-5.3825;
1042.2000;0.5698;-5.3851;
1042.5000;0.5657;-5.4058;
1042.8000;0.5690;-5.3980;
1043.1000;0.5682;-5.3954;
1043.4000;0.5682;-5.4006;
1043.7000;0.5682;-5.4032;
1044.0000;0.5649;-5.4058;
1044.3000;0.5690;-5.4032;
1044.6000;0.5674;-5.4058;
1044.9000;0.5657;-5.3929;
1045.2000;0.5665;-5.3851;
1045.5000;0.5682;-5.3851;
1045.8000;0.5698;-5.3799;
1046.1000;0.5682;-5.3721;
1046.4000;0.5657;-5.3721;
1046.7000;0.5682;-5.3618;
1047.0000;0.5649;-5.3670;
1047.3000;0.5649;-5.3695;
1047.6000;0.5665;-5.3825;
1047.9000;0.5665;-5.3903;
1048.2000;0.5674;-5.3929;
1048.5000;0.5682;-5.3903;
1048.8000;0.5665;-5.4058;
1049.1000;0.5706;-5.4058;
1049.4000;0.5674;-5.4032;
1049.7000;0.5665;-5.4006;
1050.0000;0.5665;-5.4058;
1050.3000;0.5657;-5.3980;
1050.6000;0.5674;-5.3799;
1050.9000;0.5690;-5.3747;
1051.2000;0.5674;-5.3877;
1051.5000;0.5665;-5.3954;
1051.8000;0.5665;-5.3954;
1052.1000;0.5682;-5.3980;
1052.4000;0.5674;-5.4058;
1052.7000;0.5657;-5.4084;
1053.0000;0.5665;-5.4162;
1053.3000;0.5657;-5.4110;
1053.6000;0.5665;-5.4110;
1053.9000;0.5665;-5.4110;
1054.2000;0.5649;-5.4162;
1054.5000;0.5592;-5.4317;
1054.8000;0.5674;-5.4006;
1055.1000;0.5657;-5.3980;
1055.4000;0.5592;-5.4006;
1055.7000;0.5641;-5.3877;
1056.0000;0.5649;-5.3799;
1056.3000;0.5649;-5.3773;
1056.6000;0.5665;-5.3825;
1056.9000;0.5657;-5.3851;
1057.2000;0.5674;-5.3799;
1057.5000;0.5649;-5.3877;
1057.8000;0.5665;-5.3825;
1058.1000;0.5617;-5.3877;
1058.4000;0.5641;-5.3954;
1058.7000;0.5657;-5.3903;
1059.0000;0.5665;-5.3877;
1059.3000;0.5633;-5.3954;
1059.6000;0.5649;-5.3903;
1059.9000;0.5665;-5.3799;
1060.2000;0.5657;-5.3903;
1060.5000;0.5682;-5.3851;
1060.8000;0.5665;-5.3825;
1061.1000;0.5665;-5.3747;
1061.4000;0.5657;-5.3799;
1061.7000;0.5665;-5.3695;
1062.0000;0.5706;-5.3670;
1062.3000;0.5657;-5.3747;
1062.6000;0.5682;-5.3670;
1062.9000;0.5690;-5.3644;
1063.2000;0.5690;-5.3644;
1063.5000;0.5649;-5.3747;
1063.8000;0.5674;-5.3799;
1064.1000;0.5600;-5.4032;
1064.4000;0.5649;-5.3903;
1064.7000;0.5657;-5.3773;
1065.0000;0.5617;-5.3877;
1065.3000;0.5657;-5.3773;
1065.6000;0.5584;-5.3954;
1065.9000;0.5674;-5.3773;
1066.2000;0.5665;-5.3747;
1066.5000;0.5665;-5.3695;
1066.8000;0.5665;-5.3618;
1067.1000;0.5657;-5.3695;
1067.4000;0.5682;-5.3695;
1067.7000;0.5674;-5.3747;
1068.0000;0.5657;-5.3799;
1068.3000;0.5649;-5.3851;
1068.6000;0.5625;-5.4006;
1068.9000;0.5641;-5.3877;
1069.2000;0.5649;-5.3773;
1069.5000;0.5641;-5.3825;
1069.8000;0.5641;-5.3721;
1070.1000;0.5657;-5.3644;
1070.4000;0.5649;-5.3592;
1070.7000;0.5649;-5.3592;
1071.0000;0.5649;-5.3618;
1071.3000;0.5682;-5.3540;
1071.6000;0.5641;-5.3644;
1071.9000;0.5665;-5.3695;
1072.2000;0.5657;-5.3670;
1072.5000;0.5657;-5.3747;
1072.8000;0.5657;-5.3721;
1073.1000;0.5657;-5.3747;
1073.4000;0.5649;-5.3747;
1073.7000;0.5665;-5.3799;
1074.0000;0.5665;-5.3851;
1074.3000;0.5682;-5.3799;
1074.6000;0.5682;-5.3747;
1074.9000;0.5649;-5.3799;
1075.2000;0.5665;-5.3747;
1075.5000;0.5641;-5.3877;
1075.8000;0.5657;-5.3825;
1076.1000;0.5633;-5.3851;
1076.4000;0.5641;-5.3825;
1076.7000;0.5641;-5.3851;
1077.0000;0.5649;-5.3877;
1077.3000;0.5665;-5.3799;
1077.6000;0.5649;-5.3773;
1077.9000;0.5665;-5.3670;
1078.2000;0.5649;-5.3799;
1078.5000;0.5657;-5.3799;
1078.8000;0.5731;-5.3670;
1079.1000;0.5665;-5.3877;
1079.4000;0.5657;-5.3929;
1079.7000;0.5649;-5.3954;
1080.0000;0.5714;-5.3825;
1080.3000;0.5665;-5.3903;
1080.6000;0.5657;-5.4006;
1080.9000;0.5665;-5.4032;
1081.2000;0.5649;-5.4032;
1081.5000;0.5665;-5.4006;
1081.8000;0.5657;-5.4084;
1082.1000;0.5649;-5.4032;
1082.4000;0.5649;-5.4058;
1082.7000;0.5633;-5.4032;
1083.0000;0.5641;-5.4058;
1083.3000;0.5649;-5.3980;
1083.6000;0.5649;-5.4058;
1083.9000;0.5714;-5.3825;
1084.2000;0.5649;-5.3954;
1084.5000;0.5633;-5.4058;
1084.8000;0.5714;-5.3877;
1085.1000;0.5682;-5.3773;
1085.4000;0.5649;-5.3851;
1085.7000;0.5633;-5.3954;
1086.0000;0.5641;-5.3954;
1086.3000;0.5649;-5.3954;
1086.6000;0.5706;-5.3851;
1086.9000;0.5665;-5.3954;
1087.2000;0.5649;-5.4006;
1087.5000;0.5682;-5.3954;
1087.8000;0.5665;-5.3954;
1088.1000;0.5698;-5.3799;
1088.4000;0.5633;-5.3980;
1088.7000;0.5641;-5.3980;
1089.0000;0.5641;-5.4006;
1089.3000;0.5649;-5.3980;
1089.6000;0.5641;-5.3929;
1089.9000;0.5641;-5.3903;
1090.2000;0.5649;-5.3851;
1090.5000;0.5649;-5.3903;
1090.8000;0.5633;-5.3954;
1091.1000;0.5633;-5.3980;
1091.4000;0.5641;-5.3877;
1091.7000;0.5649;-5.3877;
1092.0000;0.5649;-5.3877;
1092.3000;0.5641;-5.3877;
1092.6000;0.5641;-5.3877;
1092.9000;0.5657;-5.3877;
1093.2000;0.5657;-5.3851;
1093.5000;0.5641;-5.3954;
1093.8000;0.5641;-5.3903;
1094.1000;0.5649;-5.3851;
1094.4000;0.5649;-5.3877;
1094.7000;0.5641;-5.3954;
1095.0000;0.5633;-5.3903;
1095.3000;0.5682;-5.3644;
1095.6000;0.5641;-5.3670;
1095.9000;0.5633;-5.3747;
1096.2000;0.5633;-5.3799;
1096.5000;0.5617;-5.3929;
1096.8000;0.5633;-5.3877;
1097.1000;0.5625;-5.3980;
1097.4000;0.5625;-5.4006;
1097.7000;0.5641;-5.3954;
1098.0000;0.5633;-5.4006;
1098.3000;0.5641;-5.4006;
1098.6000;0.5633;-5.4032;
1098.9000;0.5633;-5.4006;
1099.2000;0.5633;-5.4032;
1099.5000;0.5625;-5.4006;
1099.8000;0.5633;-5.4006;
1100.1000;0.5617;-5.3980;
1100.4000;0.5633;-5.3929;
1100.7000;0.5641;-5.3825;
1101.0000;0.5641;-5.3851;
1101.3000;0.5649;-5.3773;
1101.6000;0.5633;-5.3773;
1101.9000;0.5657;-5.3721;
1102.2000;0.5665;-5.3747;
1102.5000;0.5649;-5.3825;
1102.8000;0.5641;-5.3851;
1103.1000;0.5657;-5.3799;
1103.4000;0.5608;-5.3954;
1103.7000;0.5649;-5.3851;
1104.0000;0.5625;-5.4058;
1104.3000;0.5633;-5.4058;
1104.6000;0.5665;-5.4032;
1104.9000;0.5617;-5.4291;
1105.2000;0.5633;-5.4213;
1105.5000;0.5633;-5.4213;
1105.8000;0.5649;-5.4136;
1106.1000;0.5649;-5.4058;
1106.4000;0.5665;-5.4058;
1106.7000;0.5649;-5.4110;
1107.0000;0.5641;-5.4058;
1107.3000;0.5657;-5.3980;
1107.6000;0.5649;-5.4032;
1107.9000;0.5641;-5.4058;
1108.2000;0.5657;-5.4006;
1108.5000;0.5641;-5.4058;
1108.8000;0.5641;-5.4032;
1109.1000;0.5649;-5.3980;
1109.4000;0.5641;-5.4006;
1109.7000;0.5641;-5.4006;
1110.0000;0.5633;-5.4006;
1110.3000;0.5560;-5.4188;
1110.6000;0.5633;-5.4032;
1110.9000;0.5625;-5.4006;
1111.2000;0.5633;-5.3877;
1111.5000;0.5608;-5.3929;
1111.8000;0.5625;-5.3877;
1112.1000;0.5633;-5.3851;
1112.4000;0.5633;-5.3825;
1112.7000;0.5576;-5.4032;
1113.0000;0.5649;-5.3877;
1113.3000;0.5641;-5.3825;
1113.6000;0.5649;-5.3695;
1113.9000;0.5633;-5.3695;
1114.2000;0.5633;-5.3644;
1114.5000;0.5633;-5.3592;
1114.8000;0.5649;-5.3644;
1115.1000;0.5641;-5.3644;
1115.4000;0.5633;-5.3670;
1115.7000;0.5633;-5.3670;
1116.0000;0.5641;-5.3747;
1116.3000;0.5625;-5.3799;
1116.6000;0.5617;-5.3747;
1116.9000;0.5641;-5.3695;
1117.2000;0.5633;-5.3773;
1117.5000;0.5633;-5.3721;
1117.8000;0.5682;-5.3670;
1118.1000;0.5633;-5.3721;
1118.4000;0.5641;-5.3644;
1118.7000;0.5649;-5.3644;
1119.0000;0.5633;-5.3695;
1119.3000;0.5600;-5.3799;
1119.6000;0.5641;-5.3721;
1119.9000;0.5649;-5.3644;
1120.2000;0.5617;-5.3747;
1120.5000;0.5535;-5.3929;
1120.8000;0.5625;-5.3721;
1121.1000;0.5649;-5.3644;
1121.4000;0.5625;-5.3695;
1121.7000;0.5625;-5.3670;
1122.0000;0.5641;-5.3670;
1122.3000;0.5617;-5.3747;
1122.6000;0.5625;-5.3747;
1122.9000;0.5608;-5.3721;
1123.2000;0.5617;-5.3695;
1123.5000;0.5625;-5.3695;
1123.8000;0.5665;-5.3540;
1124.1000;0.5633;-5.3644;
1124.4000;0.5633;-5.3670;
1124.7000;0.5617;-5.3695;
1125.0000;0.5641;-5.3695;
1125.3000;0.5633;-5.3670;
1125.6000;0.5633;-5.3670;
1125.9000;0.5633;-5.3695;
1126.2000;0.5625;-5.3721;
1126.5000;0.5633;-5.3695;
1126.8000;0.5641;-5.3721;
1127.1000;0.5617;-5.3670;
1127.4000;0.5600;-5.3799;
1127.7000;0.5633;-5.3721;
1128.0000;0.5617;-5.3825;
1128.3000;0.5617;-5.3825;
1128.6000;0.5608;-5.3825;
1128.9000;0.5649;-5.3747;
1129.2000;0.5633;-5.3825;
1129.5000;0.5608;-5.3903;
1129.8000;0.5625;-5.3773;
1130.1000;0.5608;-5.3903;
1130.4000;0.5633;-5.3877;
1130.7000;0.5625;-5.3825;
1131.0000;0.5641;-5.3799;
1131.3000;0.5633;-5.3773;
1131.6000;0.5698;-5.3592;
1131.9000;0.5625;-5.3825;
1132.2000;0.5633;-5.3773;
1132.5000;0.5649;-5.3721;
1132.8000;0.5633;-5.3773;
1133.1000;0.5657;-5.3721;
1133.4000;0.5608;-5.3747;
1133.7000;0.5625;-5.3773;
1134.0000;0.5625;-5.3747;
1134.3000;0.5641;-5.3644;
1134.6000;0.5625;-5.3695;
1134.9000;0.5608;-5.3670;
1135.2000;0.5617;-5.3618;
1135.5000;0.5576;-5.3773;
1135.8000;0.5674;-5.3592;
1136.1000;0.5641;-5.3721;
1136.4000;0.5641;-5.3670;
1136.7000;0.5633;-5.3747;
1137.0000;0.5617;-5.3799;
1137.3000;0.5625;-5.3747;
1137.6000;0.5625;-5.3695;
1137.9000;0.5625;-5.3695;
1138.2000;0.5625;-5.3721;
1138.5000;0.5698;-5.3514;
1138.8000;0.5625;-5.3618;
1139.1000;0.5633;-5.3618;
1139.4000;0.5641;-5.3618;
1139.7000;0.5633;-5.3670;
1140.0000;0.5633;-5.3644;
1140.3000;0.5641;-5.3618;
1140.6000;0.5649;-5.3618;
1140.9000;0.5625;-5.3695;
1141.2000;0.5625;-5.3670;
1141.5000;0.5592;-5.3644;
1141.8000;0.5625;-5.3514;
1142.1000;0.5625;-5.3540;
1142.4000;0.5617;-5.3618;
1142.7000;0.5633;-5.3618;
1143.0000;0.5625;-5.3644;
1143.3000;0.5625;-5.3618;
1143.6000;0.5625;-5.3644;
1143.9000;0.5625;-5.3514;
1144.2000;0.5617;-5.3566;
1144.5000;0.5649;-5.3488;
1144.8000;0.5617;-5.3618;
1145.1000;0.5608;-5.3618;
1145.4000;0.5625;-5.3566;
1145.7000;0.5625;-5.3592;
1146.0000;0.5600;-5.3670;
1146.3000;0.5625;-5.3695;
1146.6000;0.5625;-5.3747;
1146.9000;0.5641;-5.3721;
1147.2000;0.5608;-5.3825;
1147.5000;0.5625;-5.3799;
1147.8000;0.5568;-5.3980;
1148.1000;0.5633;-5.3695;
1148.4000;0.5608;-5.3695;
1148.7000;0.5584;-5.3799;
1149.0000;0.5625;-5.3747;
1149.3000;0.5633;-5.3670;
1149.6000;0.5633;-5.3618;
1149.9000;0.5608;-5.3747;
1150.2000;0.5617;-5.3747;
1150.5000;0.5617;-5.3747;
1150.8000;0.5617;-5.3799;
1151.1000;0.5600;-5.3903;
1151.4000;0.5568;-5.4006;
1151.7000;0.5625;-5.3851;
1152.0000;0.5608;-5.3903;
1152.3000;0.5625;-5.3773;
1152.6000;0.5560;-5.3851;
1152.9000;0.5625;-5.3618;
1153.2000;0.5608;-5.3618;
1153.5000;0.5617;-5.3540;
1153.8000;0.5625;-5.3488;
1154.1000;0.5584;-5.3618;
1154.4000;0.5649;-5.3540;
1154.7000;0.5617;-5.3592;
1155.0000;0.5641;-5.3514;
1155.3000;0.5608;-5.3566;
1155.6000;0.5584;-5.3618;
1155.9000;0.5608;-5.3566;
1156.2000;0.5568;-5.3695;
1156.5000;0.5608;-5.3566;
1156.8000;0.5641;-5.3644;
1157.1000;0.5568;-5.3747;
1157.4000;0.5649;-5.3592;
1157.7000;0.5617;-5.3644;
1158.0000;0.5608;-5.3644;
1158.3000;0.5617;-5.3592;
1158.6000;0.5625;-5.3514;
1158.9000;0.5617;-5.3540;
1159.2000;0.5576;-5.3670;
1159.5000;0.5576;-5.3644;
1159.8000;0.5576;-5.3695;
1160.1000;0.5600;-5.3592;
1160.4000;0.5617;-5.3540;
1160.7000;0.5617;-5.3540;
1161.0000;0.5641;-5.3514;
1161.3000;0.5608;-5.3618;
1161.6000;0.5600;-5.3566;
1161.9000;0.5617;-5.3566;
1162.2000;0.5600;-5.3644;
1162.5000;0.5600;-5.3566;
1162.8000;0.5600;-5.3514;
1163.1000;0.5608;-5.3566;
1163.4000;0.5625;-5.3540;
1163.7000;0.5608;-5.3566;
1164.0000;0.5600;-5.3566;
1164.3000;0.5641;-5.3514;
1164.6000;0.5608;-5.3618;
1164.9000;0.5625;-5.3566;
1165.2000;0.5617;-5.3670;
1165.5000;0.5617;-5.3695;
1165.8000;0.5625;-5.3747;
1166.1000;0.5625;-5.3695;
1166.4000;0.5608;-5.3670;
1166.7000;0.5608;-5.3721;
1167.0000;0.5625;-5.3721;
1167.3000;0.5625;-5.3644;
1167.6000;0.5617;-5.3566;
1167.9000;0.5625;-5.3540;
1168.2000;0.5608;-5.3540;
1168.5000;0.5600;-5.3592;
1168.8000;0.5617;-5.3566;
1169.1000;0.5617;-5.3592;
1169.4000;0.5608;-5.3644;
1169.7000;0.5625;-5.3618;
1170.0000;0.5608;-5.3618;
1170.3000;0.5617;-5.3566;
1170.6000;0.5600;-5.3721;
1170.9000;0.5608;-5.3773;
1171.2000;0.5617;-5.3773;
1171.5000;0.5625;-5.3644;
1171.8000;0.5600;-5.3670;
1172.1000;0.5608;-5.3618;
1172.4000;0.5625;-5.3592;
1172.7000;0.5617;-5.3540;
1173.0000;0.5592;-5.3566;
1173.3000;0.5608;-5.3644;
1173.6000;0.5649;-5.3566;
1173.9000;0.5592;-5.3540;
1174.2000;0.5543;-5.3695;
1174.5000;0.5608;-5.3592;
1174.8000;0.5617;-5.3670;
1175.1000;0.5617;-5.3670;
1175.4000;0.5617;-5.3695;
1175.7000;0.5625;-5.3670;
1176.0000;0.5625;-5.3592;
1176.3000;0.5625;-5.3618;
1176.6000;0.5665;-5.3514;
1176.9000;0.5617;-5.3618;
1177.2000;0.5608;-5.3670;
1177.5000;0.5617;-5.3618;
1177.8000;0.5617;-5.3592;
1178.1000;0.5608;-5.3618;
1178.4000;0.5617;-5.3695;
1178.7000;0.5617;-5.3670;
1179.0000;0.5600;-5.3695;
1179.3000;0.5592;-5.3773;
1179.6000;0.5592;-5.3695;
1179.9000;0.5633;-5.3540;
1180.2000;0.5665;-5.3436;
1180.5000;0.5665;-5.3540;
1180.8000;0.5617;-5.3695;
1181.1000;0.5617;-5.3695;
1181.4000;0.5625;-5.3721;
1181.7000;0.5608;-5.3695;
1182.0000;0.5600;-5.3618;
1182.3000;0.5625;-5.3540;
1182.6000;0.5657;-5.3514;
1182.9000;0.5617;-5.3566;
1183.2000;0.5592;-5.3670;
1183.5000;0.5584;-5.3670;
1183.8000;0.5608;-5.3618;
1184.1000;0.5657;-5.3462;
1184.4000;0.5625;-5.3514;
1184.7000;0.5608;-5.3540;
1185.0000;0.5608;-5.3540;
1185.3000;0.5608;-5.3488;
1185.6000;0.5617;-5.3618;
1185.9000;0.5608;-5.3592;
1186.2000;0.5625;-5.3618;
1186.5000;0.5617;-5.3566;
1186.8000;0.5617;-5.3566;
1187.1000;0.5592;-5.3618;
1187.4000;0.5600;-5.3644;
1187.7000;0.5600;-5.3592;
1188.0000;0.5608;-5.3592;
1188.3000;0.5617;-5.3488;
1188.6000;0.5600;-5.3540;
1188.9000;0.5600;-5.3592;
1189.2000;0.5608;-5.3618;
1189.5000;0.5592;-5.3670;
1189.8000;0.5608;-5.3644;
1190.1000;0.5625;-5.3695;
1190.4000;0.5682;-5.3566;
1190.7000;0.5592;-5.3721;
1191.0000;0.5600;-5.3695;
1191.3000;0.5608;-5.3747;
1191.6000;0.5608;-5.3721;
1191.9000;0.5592;-5.3721;
1192.2000;0.5600;-5.3721;
1192.5000;0.5600;-5.3721;
1192.8000;0.5608;-5.3721;
1193.1000;0.5592;-5.3773;
1193.4000;0.5584;-5.3773;
1193.7000;0.5608;-5.3825;
1194.0000;0.5608;-5.3851;
1194.3000;0.5633;-5.3799;
1194.6000;0.5592;-5.3929;
1194.9000;0.5592;-5.3903;
1195.2000;0.5608;-5.3825;
1195.5000;0.5641;-5.3695;
1195.8000;0.5608;-5.3618;
1196.1000;0.5608;-5.3695;
1196.4000;0.5625;-5.3618;
1196.7000;0.5625;-5.3695;
1197.0000;0.5617;-5.3721;
1197.3000;0.5608;-5.3747;
1197.6000;0.5633;-5.3592;
1197.9000;0.5600;-5.3670;
1198.2000;0.5608;-5.3695;
1198.5000;0.5592;-5.3773;
1198.8000;0.5592;-5.3670;
1199.1000;0.5608;-5.3592;
1199.4000;0.5592;-5.3644;
1199.7000;0.5592;-5.3721;
1200.0000;0.5592;-5.3670;
1200.3000;0.5600;-5.3695;
1200.6000;0.5592;-5.3670;
1200.9000;0.5584;-5.3721;
1201.2000;0.5600;-5.3670;
1201.5000;0.5600;-5.3695;
1201.8000;0.5617;-5.3644;
1202.1000;0.5617;-5.3644;
1202.4000;0.5600;-5.3644;
1202.7000;0.5617;-5.3540;
1203.0000;0.5560;-5.3670;
1203.3000;0.5592;-5.3462;
1203.6000;0.5584;-5.3514;
1203.9000;0.5649;-5.3462;
1204.2000;0.5600;-5.3540;
1204.5000;0.5592;-5.3592;
1204.8000;0.5592;-5.3644;
1205.1000;0.5592;-5.3618;
1205.4000;0.5608;-5.3592;
1205.7000;0.5608;-5.3514;
1206.0000;0.5617;-5.3514;
1206.3000;0.5600;-5.3462;
1206.6000;0.5608;-5.3385;
1206.9000;0.5608;-5.3385;
1207.2000;0.5617;-5.3307;
1207.5000;0.5600;-5.3411;
1207.8000;0.5617;-5.3385;
1208.1000;0.5608;-5.3333;
1208.4000;0.5625;-5.3281;
1208.7000;0.5617;-5.3307;
1209.0000;0.5617;-5.3411;
1209.3000;0.5584;-5.3592;
1209.6000;0.5617;-5.3618;
1209.9000;0.5584;-5.3670;
1210.2000;0.5600;-5.3670;
1210.5000;0.5608;-5.3592;
1210.8000;0.5608;-5.3618;
1211.1000;0.5625;-5.3462;
1211.4000;0.5608;-5.3488;
1211.7000;0.5600;-5.3462;
1212.0000;0.5649;-5.3359;
1212.3000;0.5641;-5.3385;
1212.6000;0.5584;-5.3618;
1212.9000;0.5600;-5.3618;
1213.2000;0.5625;-5.3566;
1213.5000;0.5584;-5.3670;
1213.8000;0.5584;-5.3566;
1214.1000;0.5584;-5.3566;
1214.4000;0.5600;-5.3566;
1214.7000;0.5600;-5.3540;
1215.0000;0.5592;-5.3514;
1215.3000;0.5568;-5.3566;
1215.6000;0.5527;-5.3695;
1215.9000;0.5592;-5.3644;
1216.2000;0.5592;-5.3618;
1216.5000;0.5592;-5.3566;
1216.8000;0.5617;-5.3540;
1217.1000;0.5592;-5.3592;
1217.4000;0.5576;-5.3747;
1217.7000;0.5592;-5.3644;
1218.0000;0.5608;-5.3566;
1218.3000;0.5657;-5.3488;
1218.6000;0.5625;-5.3540;
1218.9000;0.5592;-5.3514;
1219.2000;0.5608;-5.3411;
1219.5000;0.5617;-5.3514;
1219.8000;0.5608;-5.3462;
1220.1000;0.5592;-5.3540;
1220.4000;0.5600;-5.3540;
1220.7000;0.5608;-5.3514;
1221.0000;0.5600;-5.3462;
1221.3000;0.5592;-5.3566;
1221.6000;0.5592;-5.3540;
1221.9000;0.5617;-5.3488;
1222.2000;0.5600;-5.3488;
1222.5000;0.5592;-5.3566;
1222.8000;0.5657;-5.3359;
1223.1000;0.5608;-5.3411;
1223.4000;0.5600;-5.3385;
1223.7000;0.5600;-5.3436;
1224.0000;0.5608;-5.3411;
1224.3000;0.5584;-5.3514;
1224.6000;0.5592;-5.3566;
1224.9000;0.5584;-5.3618;
1225.2000;0.5600;-5.3566;
1225.5000;0.5584;-5.3592;
1225.8000;0.5608;-5.3514;
1226.1000;0.5600;-5.3514;
1226.4000;0.5576;-5.3592;
1226.7000;0.5576;-5.3618;
1227.0000;0.5592;-5.3644;
1227.3000;0.5608;-5.3721;
1227.6000;0.5584;-5.3670;
1227.9000;0.5584;-5.3695;
1228.2000;0.5584;-5.3670;
1228.5000;0.5592;-5.3618;
1228.8000;0.5584;-5.3618;
1229.1000;0.5592;-5.3566;
1229.4000;0.5600;-5.3514;
1229.7000;0.5600;-5.3436;
1230.0000;0.5608;-5.3462;
1230.3000;0.5568;-5.3540;
1230.6000;0.5584;-5.3488;
1230.9000;0.5617;-5.3333;
1231.2000;0.5600;-5.3359;
1231.5000;0.5617;-5.3359;
1231.8000;0.5568;-5.3540;
1232.1000;0.5592;-5.3566;
1232.4000;0.5592;-5.3618;
1232.7000;0.5584;-5.3747;
1233.0000;0.5584;-5.3773;
1233.3000;0.5600;-5.3877;
1233.6000;0.5592;-5.3980;
1233.9000;0.5592;-5.3954;
1234.2000;0.5592;-5.3851;
1234.5000;0.5568;-5.3903;
1234.8000;0.5560;-5.3929;
1235.1000;0.5576;-5.3825;
1235.4000;0.5600;-5.3721;
1235.7000;0.5584;-5.3877;
1236.0000;0.5592;-5.3825;
1236.3000;0.5657;-5.3670;
1236.6000;0.5600;-5.3747;
1236.9000;0.5592;-5.3618;
1237.2000;0.5584;-5.3618;
1237.5000;0.5625;-5.3514;
1237.8000;0.5600;-5.3592;
1238.1000;0.5592;-5.3592;
1238.4000;0.5584;-5.3644;
1238.7000;0.5584;-5.3695;
1239.0000;0.5592;-5.3721;
1239.3000;0.5576;-5.3721;
1239.6000;0.5592;-5.3773;
1239.9000;0.5592;-5.3773;
1240.2000;0.5584;-5.3773;
1240.5000;0.5584;-5.3773;
1240.8000;0.5584;-5.3851;
1241.1000;0.5608;-5.3825;
1241.4000;0.5617;-5.3773;
1241.7000;0.5600;-5.3747;
1242.0000;0.5576;-5.3670;
1242.3000;0.5608;-5.3618;
1242.6000;0.5600;-5.3695;
1242.9000;0.5600;-5.3695;
1243.2000;0.5600;-5.3695;
1243.5000;0.5600;-5.3618;
1243.8000;0.5600;-5.3592;
1244.1000;0.5592;-5.3566;
1244.4000;0.5584;-5.3644;
1244.7000;0.5584;-5.3592;
1245.0000;0.5600;-5.3540;
1245.3000;0.5592;-5.3540;
1245.6000;0.5527;-5.3721;
1245.9000;0.5592;-5.3618;
1246.2000;0.5568;-5.3618;
1246.5000;0.5592;-5.3618;
1246.8000;0.5576;-5.3670;
1247.1000;0.5576;-5.3670;
1247.4000;0.5576;-5.3695;
1247.7000;0.5584;-5.3695;
1248.0000;0.5592;-5.3644;
1248.3000;0.5592;-5.3618;
1248.6000;0.5576;-5.3618;
1248.9000;0.5592;-5.3644;
1249.2000;0.5608;-5.3618;
1249.5000;0.5584;-5.3618;
1249.8000;0.5560;-5.3773;
1250.1000;0.5584;-5.3799;
1250.4000;0.5592;-5.3825;
1250.7000;0.5600;-5.3773;
1251.0000;0.5584;-5.3825;
1251.3000;0.5592;-5.3825;
1251.6000;0.5576;-5.3825;
1251.9000;0.5584;-5.3825;
1252.2000;0.5592;-5.3773;
1252.5000;0.5600;-5.3721;
1252.8000;0.5592;-5.3721;
1253.1000;0.5584;-5.3747;
1253.4000;0.5576;-5.3644;
1253.7000;0.5600;-5.3644;
1254.0000;0.5600;-5.3540;
1254.3000;0.5600;-5.3592;
1254.6000;0.5584;-5.3618;
1254.9000;0.5592;-5.3618;
1255.2000;0.5600;-5.3618;
1255.5000;0.5617;-5.3514;
1255.8000;0.5576;-5.3618;
1256.1000;0.5584;-5.3695;
1256.4000;0.5592;-5.3695;
1256.7000;0.5592;-5.3670;
1257.0000;0.5576;-5.3695;
1257.3000;0.5592;-5.3644;
1257.6000;0.5576;-5.3670;
1257.9000;0.5592;-5.3644;
1258.2000;0.5600;-5.3566;
1258.5000;0.5592;-5.3644;
1258.8000;0.5576;-5.3670;
1259.1000;0.5576;-5.3695;
1259.4000;0.5600;-5.3695;
1259.7000;0.5617;-5.3670;
1260.0000;0.5592;-5.3670;
1260.3000;0.5600;-5.3592;
1260.6000;0.5641;-5.3385;
1260.9000;0.5592;-5.3488;
1261.2000;0.5584;-5.3566;
1261.5000;0.5633;-5.3436;
1261.8000;0.5592;-5.3566;
1262.1000;0.5584;-5.3540;
1262.4000;0.5568;-5.3540;
1262.7000;0.5592;-5.3514;
1263.0000;0.5584;-5.3644;
1263.3000;0.5592;-5.3670;
1263.6000;0.5600;-5.3695;
1263.9000;0.5584;-5.3747;
1264.2000;0.5608;-5.3644;
1264.5000;0.5576;-5.3644;
1264.8000;0.5576;-5.3618;
1265.1000;0.5576;-5.3618;
1265.4000;0.5592;-5.3721;
1265.7000;0.5600;-5.3644;
1266.0000;0.5592;-5.3721;
1266.3000;0.5600;-5.3695;
1266.6000;0.5584;-5.3747;
1266.9000;0.5584;-5.3644;
1267.2000;0.5608;-5.3514;
1267.5000;0.5543;-5.3670;
1267.8000;0.5600;-5.3592;
1268.1000;0.5600;-5.3514;
1268.4000;0.5592;-5.3462;
1268.7000;0.5584;-5.3592;
1269.0000;0.5625;-5.3488;
1269.3000;0.5592;-5.3566;
1269.6000;0.5600;-5.3540;
1269.9000;0.5568;-5.3592;
1270.2000;0.5576;-5.3592;
1270.5000;0.5535;-5.3644;
1270.8000;0.5592;-5.3514;
1271.1000;0.5551;-5.3644;
1271.4000;0.5568;-5.3592;
1271.7000;0.5584;-5.3644;
1272.0000;0.5608;-5.3695;
1272.3000;0.5576;-5.3721;
1272.6000;0.5592;-5.3670;
1272.9000;0.5584;-5.3695;
1273.2000;0.5600;-5.3644;
1273.5000;0.5600;-5.3566;
1273.8000;0.5592;-5.3566;
1274.1000;0.5592;-5.3514;
1274.4000;0.5576;-5.3566;
1274.7000;0.5576;-5.3462;
1275.0000;0.5576;-5.3436;
1275.3000;0.5568;-5.3462;
1275.6000;0.5592;-5.3411;
1275.9000;0.5584;-5.3462;
1276.2000;0.5551;-5.3566;
1276.5000;0.5584;-5.3488;
1276.8000;0.5584;-5.3514;
1277.1000;0.5576;-5.3618;
1277.4000;0.5600;-5.3618;
1277.7000;0.5584;-5.3644;
1278.0000;0.5560;-5.3721;
1278.3000;0.5600;-5.3670;
1278.6000;0.5608;-5.3566;
1278.9000;0.5592;-5.3462;
1279.2000;0.5592;-5.3436;
1279.5000;0.5584;-5.3514;
1279.8000;0.5592;-5.3514;
1280.1000;0.5584;-5.3514;
1280.4000;0.5584;-5.3566;
1280.7000;0.5576;-5.3592;
1281.0000;0.5576;-5.3644;
1281.3000;0.5584;-5.3592;
1281.6000;0.5568;-5.3618;
1281.9000;0.5568;-5.3566;
1282.2000;0.5551;-5.3488;
1282.5000;0.5592;-5.3385;
1282.8000;0.5600;-5.3411;
1283.1000;0.5568;-5.3436;
1283.4000;0.5519;-5.3566;
1283.7000;0.5568;-5.3488;
1284.0000;0.5584;-5.3385;
1284.3000;0.5576;-5.3411;
1284.6000;0.5600;-5.3385;
1284.9000;0.5592;-5.3436;
1285.2000;0.5600;-5.3436;
1285.5000;0.5576;-5.3514;
1285.8000;0.5584;-5.3462;
1286.1000;0.5584;-5.3411;
1286.4000;0.5551;-5.3462;
1286.7000;0.5560;-5.3436;
1287.0000;0.5560;-5.3488;
1287.3000;0.5592;-5.3359;
1287.6000;0.5576;-5.3411;
1287.9000;0.5568;-5.3436;
1288.2000;0.5584;-5.3436;
1288.5000;0.5608;-5.3359;
1288.8000;0.5592;-5.3411;
1289.1000;0.5600;-5.3359;
1289.4000;0.5576;-5.3436;
1289.7000;0.5600;-5.3359;
1290.0000;0.5600;-5.3385;
1290.3000;0.5576;-5.3385;
1290.6000;0.5576;-5.3488;
1290.9000;0.5584;-5.3540;
1291.2000;0.5600;-5.3436;
1291.5000;0.5576;-5.3540;
1291.8000;0.5584;-5.3488;
1292.1000;0.5568;-5.3462;
1292.4000;0.5625;-5.3385;
1292.7000;0.5584;-5.3462;
1293.0000;0.5551;-5.3488;
1293.3000;0.5560;-5.3385;
1293.6000;0.5576;-5.3385;
1293.9000;0.5503;-5.3488;
1294.2000;0.5584;-5.3333;
1294.5000;0.5584;-5.3333;
1294.8000;0.5568;-5.3359;
1295.1000;0.5617;-5.3281;
1295.4000;0.5568;-5.3229;
1295.7000;0.5576;-5.3281;
1296.0000;0.5560;-5.3359;
1296.3000;0.5560;-5.3307;
1296.6000;0.5576;-5.3333;
1296.9000;0.5641;-5.3255;
1297.2000;0.5592;-5.3333;
1297.5000;0.5584;-5.3385;
1297.8000;0.5560;-5.3462;
1298.1000;0.5560;-5.3514;
1298.4000;0.5584;-5.3462;
1298.7000;0.5576;-5.3462;
1299.0000;0.5584;-5.3411;
1299.3000;0.5543;-5.3359;
1299.6000;0.5592;-5.3255;
1299.9000;0.5584;-5.3281;
1300.2000;0.5584;-5.3307;
1300.5000;0.5576;-5.3359;
1300.8000;0.5600;-5.3333;
1301.1000;0.5584;-5.3359;
1301.4000;0.5600;-5.3333;
1301.7000;0.5592;-5.3385;
1302.0000;0.5625;-5.3333;
1302.3000;0.5535;-5.3618;
1302.6000;0.5576;-5.3540;
1302.9000;0.5592;-5.3592;
1303.2000;0.5584;-5.3514;
1303.5000;0.5568;-5.3488;
1303.8000;0.5584;-5.3488;
1304.1000;0.5584;-5.3411;
1304.4000;0.5584;-5.3488;
1304.7000;0.5576;-5.3488;
1305.0000;0.5576;-5.3436;
1305.3000;0.5625;-5.3177;
1305.6000;0.5584;-5.3281;
1305.9000;0.5576;-5.3333;
1306.2000;0.5592;-5.3385;
1306.5000;0.5600;-5.3411;
1306.8000;0.5584;-5.3462;
1307.1000;0.5560;-5.3514;
1307.4000;0.5584;-5.3436;
1307.7000;0.5576;-5.3359;
1308.0000;0.5568;-5.3359;
1308.3000;0.5584;-5.3307;
1308.6000;0.5560;-5.3462;
1308.9000;0.5576;-5.3462;
1309.2000;0.5592;-5.3436;
1309.5000;0.5584;-5.3462;
1309.8000;0.5568;-5.3514;
1310.1000;0.5641;-5.3333;
1310.4000;0.5576;-5.3385;
1310.7000;0.5568;-5.3333;
1311.0000;0.5568;-5.3411;
1311.3000;0.5576;-5.3385;
1311.6000;0.5576;-5.3359;
1311.9000;0.5560;-5.3436;
1312.2000;0.5568;-5.3385;
1312.5000;0.5576;-5.3385;
1312.8000;0.5576;-5.3462;
1313.1000;0.5576;-5.3540;
1313.4000;0.5584;-5.3644;
1313.7000;0.5568;-5.3592;
1314.0000;0.5584;-5.3488;
1314.3000;0.5592;-5.3462;
1314.6000;0.5584;-5.3488;
1314.9000;0.5584;-5.3359;
1315.2000;0.5576;-5.3411;
1315.5000;0.5584;-5.3462;
1315.8000;0.5592;-5.3462;
1316.1000;0.5560;-5.3566;
1316.4000;0.5560;-5.3566;
1316.7000;0.5568;-5.3514;
1317.0000;0.5576;-5.3514;
1317.3000;0.5560;-5.3514;
1317.6000;0.5568;-5.3411;
1317.9000;0.5568;-5.3333;
1318.2000;0.5617;-5.3281;
1318.5000;0.5560;-5.3488;
1318.8000;0.5568;-5.3488;
1319.1000;0.5568;-5.3488;
1319.4000;0.5576;-5.3411;
1319.7000;0.5568;-5.3436;
1320.0000;0.5543;-5.3488;
1320.3000;0.5576;-5.3462;
1320.6000;0.5568;-5.3488;
1320.9000;0.5560;-5.3462;
1321.2000;0.5576;-5.3462;
1321.5000;0.5568;-5.3488;
1321.8000;0.5600;-5.3411;
1322.1000;0.5576;-5.3514;
1322.4000;0.5551;-5.3566;
1322.7000;0.5568;-5.3592;
1323.0000;0.5560;-5.3644;
1323.3000;0.5576;-5.3618;
1323.6000;0.5584;-5.3618;
1323.9000;0.5568;-5.3618;
1324.2000;0.5576;-5.3592;
1324.5000;0.5584;-5.3488;
1324.8000;0.5584;-5.3411;
1325.1000;0.5576;-5.3359;
1325.4000;0.5592;-5.3307;
1325.7000;0.5576;-5.3462;
1326.0000;0.5584;-5.3462;
1326.3000;0.5584;-5.3540;
1326.6000;0.5535;-5.3695;
1326.9000;0.5584;-5.3644;
1327.2000;0.5576;-5.3670;
1327.5000;0.5584;-5.3618;
1327.8000;0.5584;-5.3566;
1328.1000;0.5568;-5.3566;
1328.4000;0.5576;-5.3618;
1328.7000;0.5576;-5.3618;
1329.0000;0.5560;-5.3670;
1329.3000;0.5576;-5.3644;
1329.6000;0.5584;-5.3644;
1329.9000;0.5568;-5.3592;
1330.2000;0.5560;-5.3514;
1330.5000;0.5568;-5.3488;
1330.8000;0.5568;-5.3462;
1331.1000;0.5576;-5.3411;
1331.4000;0.5560;-5.3488;
1331.7000;0.5584;-5.3514;
1332.0000;0.5576;-5.3540;
1332.3000;0.5576;-5.3566;
1332.6000;0.5551;-5.3592;
1332.9000;0.5568;-5.3618;
1333.2000;0.5576;-5.3540;
1333.5000;0.5568;-5.3540;
1333.8000;0.5576;-5.3540;
1334.1000;0.5560;-5.3618;
1334.4000;0.5633;-5.3514;
1334.7000;0.5576;-5.3618;
1335.0000;0.5560;-5.3592;
1335.3000;0.5568;-5.3540;
1335.6000;0.5576;-5.3436;
1335.9000;0.5576;-5.3359;
1336.2000;0.5568;-5.3359;
1336.5000;0.5560;-5.3385;
1336.8000;0.5592;-5.3307;
1337.1000;0.5576;-5.3281;
1337.4000;0.5576;-5.3307;
1337.7000;0.5568;-5.3333;
1338.0000;0.5600;-5.3255;
1338.3000;0.5592;-5.3359;
1338.6000;0.5576;-5.3359;
1338.9000;0.5560;-5.3385;
1339.2000;0.5560;-5.3436;
1339.5000;0.5560;-5.3359;
1339.8000;0.5560;-5.3333;
1340.1000;0.5560;-5.3385;
1340.4000;0.5568;-5.3333;
1340.7000;0.5568;-5.3333;
1341.0000;0.5568;-5.3255;
1341.3000;0.5584;-5.3229;
1341.6000;0.5568;-5.3462;
1341.9000;0.5576;-5.3488;
1342.2000;0.5551;-5.3540;
1342.5000;0.5649;-5.3255;
1342.8000;0.5568;-5.3411;
1343.1000;0.5617;-5.3255;
1343.4000;0.5600;-5.3333;
1343.7000;0.5568;-5.3385;
1344.0000;0.5568;-5.3436;
1344.3000;0.5527;-5.3670;
1344.6000;0.5560;-5.3618;
1344.9000;0.5576;-5.3540;
1345.2000;0.5551;-5.3592;
1345.5000;0.5543;-5.3566;
1345.8000;0.5568;-5.3488;
1346.1000;0.5592;-5.3462;
1346.4000;0.5543;-5.3540;
1346.7000;0.5576;-5.3462;
1347.0000;0.5560;-5.3488;
1347.3000;0.5600;-5.3436;
1347.6000;0.5576;-5.3488;
1347.9000;0.5576;-5.3540;
1348.2000;0.5576;-5.3514;
1348.5000;0.5576;-5.3462;
1348.8000;0.5592;-5.3436;
1349.1000;0.5576;-5.3514;
1349.4000;0.5576;-5.3462;
1349.7000;0.5576;-5.3436;
1350.0000;0.5568;-5.3333;
1350.3000;0.5584;-5.3255;
1350.6000;0.5625;-5.3229;
1350.9000;0.5584;-5.3359;
1351.2000;0.5568;-5.3359;
1351.5000;0.5584;-5.3307;
1351.8000;0.5649;-5.3229;
1352.1000;0.5543;-5.3385;
1352.4000;0.5560;-5.3385;
1352.7000;0.5527;-5.3514;
1353.0000;0.5576;-5.3488;
1353.3000;0.5527;-5.3566;
1353.6000;0.5551;-5.3462;
1353.9000;0.5568;-5.3514;
1354.2000;0.5560;-5.3540;
1354.5000;0.5543;-5.3644;
1354.8000;0.5551;-5.3540;
1355.1000;0.5576;-5.3462;
1355.4000;0.5568;-5.3488;
1355.7000;0.5560;-5.3540;
1356.0000;0.5560;-5.3488;
1356.3000;0.5576;-5.3462;
1356.6000;0.5560;-5.3514;
1356.9000;0.5576;-5.3540;
1357.2000;0.5568;-5.3592;
1357.5000;0.5568;-5.3488;
1357.8000;0.5592;-5.3281;
1358.1000;0.5584;-5.3333;
1358.4000;0.5568;-5.3255;
1358.7000;0.5568;-5.3203;
1359.0000;0.5568;-5.3229;
1359.3000;0.5576;-5.3229;
1359.6000;0.5576;-5.3281;
1359.9000;0.5560;-5.3281;
1360.2000;0.5584;-5.3333;
1360.5000;0.5560;-5.3307;
1360.8000;0.5568;-5.3307;
1361.1000;0.5600;-5.3203;
1361.4000;0.5551;-5.3333;
1361.7000;0.5568;-5.3229;
1362.0000;0.5560;-5.3307;
1362.3000;0.5560;-5.3359;
1362.6000;0.5543;-5.3359;
1362.9000;0.5600;-5.3229;
1363.2000;0.5543;-5.3462;
1363.5000;0.5568;-5.3462;
1363.8000;0.5568;-5.3385;
1364.1000;0.5568;-5.3385;
1364.4000;0.5560;-5.3411;
1364.7000;0.5568;-5.3359;
1365.0000;0.5568;-5.3385;
1365.3000;0.5576;-5.3333;
1365.6000;0.5560;-5.3281;
1365.9000;0.5568;-5.3333;
1366.2000;0.5560;-5.3385;
1366.5000;0.5608;-5.3359;
1366.8000;0.5576;-5.3514;
1367.1000;0.5625;-5.3411;
1367.4000;0.5576;-5.3385;
1367.7000;0.5551;-5.3462;
1368.0000;0.5527;-5.3618;
1368.3000;0.5560;-5.3411;
1368.6000;0.5568;-5.3359;
1368.9000;0.5560;-5.3436;
1369.2000;0.5584;-5.3359;
1369.5000;0.5568;-5.3385;
1369.8000;0.5551;-5.3411;
1370.1000;0.5568;-5.3411;
1370.4000;0.5568;-5.3436;
1370.7000;0.5584;-5.3411;
1371.0000;0.5576;-5.3411;
1371.3000;0.5560;-5.3436;
1371.6000;0.5592;-5.3359;
1371.9000;0.5576;-5.3359;
1372.2000;0.5576;-5.3359;
1372.5000;0.5568;-5.3385;
1372.8000;0.5568;-5.3462;
1373.1000;0.5584;-5.3359;
1373.4000;0.5568;-5.3385;
1373.7000;0.5551;-5.3411;
1374.0000;0.5551;-5.3411;
1374.3000;0.5568;-5.3359;
1374.6000;0.5543;-5.3488;
1374.9000;0.5551;-5.3488;
1375.2000;0.5543;-5.3566;
1375.5000;0.5560;-5.3592;
1375.8000;0.5535;-5.3540;
1376.1000;0.5535;-5.3540;
1376.4000;0.5551;-5.3618;
1376.7000;0.5551;-5.3670;
1377.0000;0.5535;-5.3747;
1377.3000;0.5560;-5.3670;
1377.6000;0.5600;-5.3514;
1377.9000;0.5527;-5.3618;
1378.2000;0.5568;-5.3540;
1378.5000;0.5633;-5.3307;
1378.8000;0.5551;-5.3540;
1379.1000;0.5551;-5.3566;
1379.4000;0.5560;-5.3695;
1379.7000;0.5551;-5.3592;
1380.0000;0.5551;-5.3566;
1380.3000;0.5551;-5.3540;
1380.6000;0.5527;-5.3695;
1380.9000;0.5560;-5.3592;
1381.2000;0.5576;-5.3566;
1381.5000;0.5543;-5.3695;
1381.8000;0.5568;-5.3592;
1382.1000;0.5592;-5.3540;
1382.4000;0.5560;-5.3514;
1382.7000;0.5560;-5.3540;
1383.0000;0.5560;-5.3488;
1383.3000;0.5551;-5.3540;
1383.6000;0.5576;-5.3385;
1383.9000;0.5568;-5.3462;
1384.2000;0.5535;-5.3540;
1384.5000;0.5592;-5.3385;
1384.8000;0.5543;-5.3436;
1385.1000;0.5486;-5.3618;
1385.4000;0.5608;-5.3307;
1385.7000;0.5560;-5.3462;
1386.0000;0.5568;-5.3514;
1386.3000;0.5511;-5.3540;
1386.6000;0.5551;-5.3411;
1386.9000;0.5560;-5.3436;
1387.2000;0.5576;-5.3488;
1387.5000;0.5551;-5.3488;
1387.8000;0.5568;-5.3566;
1388.1000;0.5592;-5.3514;
1388.4000;0.5560;-5.3566;
1388.7000;0.5568;-5.3592;
1389.0000;0.5551;-5.3566;
1389.3000;0.5535;-5.3670;
1389.6000;0.5535;-5.3618;
1389.9000;0.5543;-5.3618;
1390.2000;0.5543;-5.3592;
1390.5000;0.5551;-5.3592;
1390.8000;0.5560;-5.3618;
1391.1000;0.5535;-5.3618;
1391.4000;0.5551;-5.3592;
1391.7000;0.5551;-5.3566;
1392.0000;0.5560;-5.3618;
1392.3000;0.5617;-5.3436;
1392.6000;0.5511;-5.3695;
1392.9000;0.5551;-5.3540;
1393.2000;0.5568;-5.3514;
1393.5000;0.5560;-5.3540;
1393.8000;0.5568;-5.3514;
1394.1000;0.5592;-5.3462;
1394.4000;0.5551;-5.3514;
1394.7000;0.5560;-5.3488;
1395.0000;0.5551;-5.3566;
1395.3000;0.5511;-5.3592;
1395.6000;0.5543;-5.3488;
1395.9000;0.5560;-5.3488;
1396.2000;0.5560;-5.3411;
1396.5000;0.5551;-5.3385;
1396.8000;0.5568;-5.3203;
1397.1000;0.5568;-5.3229;
1397.4000;0.5560;-5.3307;
1397.7000;0.5535;-5.3385;
1398.0000;0.5584;-5.3385;
1398.3000;0.5560;-5.3411;
1398.6000;0.5560;-5.3462;
1398.9000;0.5551;-5.3436;
1399.2000;0.5527;-5.3514;
1399.5000;0.5576;-5.3359;
1399.8000;0.5551;-5.3411;
