time/ms;Fluo/V;P700 deltaI/I x10³;
-199.8000;0.7057;-5.4783;
-199.5000;0.7025;-5.4887;
-199.2000;0.7041;-5.4887;
-198.9000;0.6992;-5.5016;
-198.6000;0.7041;-5.4861;
-198.3000;0.7033;-5.4913;
-198.0000;0.7033;-5.5016;
-197.7000;0.6992;-5.5120;
-197.4000;0.7033;-5.4965;
-197.1000;0.6992;-5.5016;
-196.8000;0.7049;-5.4939;
-196.5000;0.7033;-5.4939;
-196.2000;0.6976;-5.5068;
-195.9000;0.7049;-5.4939;
-195.6000;0.7041;-5.4913;
-195.3000;0.7066;-5.4835;
-195.0000;0.7041;-5.4809;
-194.7000;0.7049;-5.4783;
-194.4000;0.7049;-5.4757;
-194.1000;0.7057;-5.4732;
-193.8000;0.7049;-5.4757;
-193.5000;0.7049;-5.4757;
-193.2000;0.7049;-5.4783;
-192.9000;0.7033;-5.4861;
-192.6000;0.7033;-5.4835;
-192.3000;0.7033;-5.4783;
-192.0000;0.7025;-5.4835;
-191.7000;0.7090;-5.4732;
-191.4000;0.7033;-5.4939;
-191.1000;0.7025;-5.4887;
-190.8000;0.7074;-5.4809;
-190.5000;0.7000;-5.5016;
-190.2000;0.7033;-5.4887;
-189.9000;0.7025;-5.4861;
-189.6000;0.7041;-5.4809;
-189.3000;0.7049;-5.4783;
-189.0000;0.7033;-5.4835;
-188.7000;0.7025;-5.4861;
-188.4000;0.7049;-5.4887;
-188.1000;0.7033;-5.4887;
-187.8000;0.7033;-5.4965;
-187.5000;0.7033;-5.5068;
-187.2000;0.7082;-5.4965;
-186.9000;0.7033;-5.5016;
-186.6000;0.7041;-5.4913;
-186.3000;0.7025;-5.4991;
-186.0000;0.7017;-5.4991;
-185.7000;0.6992;-5.5016;
-185.4000;0.7025;-5.4965;
-185.1000;0.7025;-5.5042;
-184.8000;0.7041;-5.5224;
-184.5000;0.7041;-5.5198;
-184.2000;0.7017;-5.5250;
-183.9000;0.7057;-5.5094;
-183.6000;0.7025;-5.5198;
-183.3000;0.7041;-5.5172;
-183.0000;0.7082;-5.4991;
-182.7000;0.7009;-5.5094;
-182.4000;0.7009;-5.4991;
-182.1000;0.7033;-5.4887;
-181.8000;0.7049;-5.4861;
-181.5000;0.7025;-5.4861;
-181.2000;0.7041;-5.4939;
-180.9000;0.7041;-5.4965;
-180.6000;0.7057;-5.4913;
-180.3000;0.7049;-5.4887;
-180.0000;0.7041;-5.4887;
-179.7000;0.7017;-5.4887;
-179.4000;0.7041;-5.4939;
-179.1000;0.7049;-5.5016;
-178.8000;0.7017;-5.5068;
-178.5000;0.7017;-5.5146;
-178.2000;0.7033;-5.5120;
-177.9000;0.7049;-5.5068;
-177.6000;0.7025;-5.4913;
-177.3000;0.7033;-5.4809;
-177.0000;0.7041;-5.4757;
-176.7000;0.7041;-5.4783;
-176.4000;0.7025;-5.4835;
-176.1000;0.7041;-5.4809;
-175.8000;0.7017;-5.4887;
-175.5000;0.7033;-5.4809;
-175.2000;0.7041;-5.4913;
-174.9000;0.7066;-5.4887;
-174.6000;0.7057;-5.4965;
-174.3000;0.7090;-5.4887;
-174.0000;0.7049;-5.5016;
-173.7000;0.7049;-5.4991;
-173.4000;0.7041;-5.5068;
-173.1000;0.7041;-5.5068;
-172.8000;0.7041;-5.4991;
-172.5000;0.7057;-5.4861;
-172.2000;0.7009;-5.5016;
-171.9000;0.7041;-5.5016;
-171.6000;0.7025;-5.5120;
-171.3000;0.7025;-5.5172;
-171.0000;0.7017;-5.5146;
-170.7000;0.7025;-5.5068;
-170.4000;0.7033;-5.5068;
-170.1000;0.7041;-5.5120;
-169.8000;0.7041;-5.5224;
-169.5000;0.7033;-5.5224;
-169.2000;0.7049;-5.5094;
-168.9000;0.7041;-5.5068;
-168.6000;0.7009;-5.5146;
-168.3000;0.7025;-5.5146;
-168.0000;0.7041;-5.5120;
-167.7000;0.7049;-5.5146;
-167.4000;0.7033;-5.5094;
-167.1000;0.7000;-5.5146;
-166.8000;0.7090;-5.4913;
-166.5000;0.7041;-5.5016;
-166.2000;0.7025;-5.5042;
-165.9000;0.7009;-5.5146;
-165.6000;0.7033;-5.5094;
-165.3000;0.7041;-5.5042;
-165.0000;0.7041;-5.5068;
-164.7000;0.7041;-5.5016;
-164.4000;0.7033;-5.5068;
-164.1000;0.7000;-5.5094;
-163.8000;0.7049;-5.5016;
-163.5000;0.7041;-5.5042;
-163.2000;0.7033;-5.5094;
-162.9000;0.7049;-5.5068;
-162.6000;0.7041;-5.5016;
-162.3000;0.7049;-5.4965;
-162.0000;0.6968;-5.5042;
-161.7000;0.7033;-5.4887;
-161.4000;0.7033;-5.4835;
-161.1000;0.7033;-5.4835;
-160.8000;0.7139;-5.4550;
-160.5000;0.7033;-5.4835;
-160.2000;0.7000;-5.4913;
-159.9000;0.7041;-5.4835;
-159.6000;0.7041;-5.4913;
-159.3000;0.7041;-5.4913;
-159.0000;0.7131;-5.4654;
-158.7000;0.7049;-5.4887;
-158.4000;0.7033;-5.4991;
-158.1000;0.7033;-5.5016;
-157.8000;0.7033;-5.4991;
-157.5000;0.7041;-5.4965;
-157.2000;0.7025;-5.4965;
-156.9000;0.7025;-5.4939;
-156.6000;0.7041;-5.4887;
-156.3000;0.7033;-5.4887;
-156.0000;0.7041;-5.4835;
-155.7000;0.7033;-5.4835;
-155.4000;0.7041;-5.4809;
-155.1000;0.7041;-5.4706;
-154.8000;0.7041;-5.4602;
-154.5000;0.7041;-5.4706;
-154.2000;0.7041;-5.4706;
-153.9000;0.7090;-5.4680;
-153.6000;0.7049;-5.4783;
-153.3000;0.7049;-5.4757;
-153.0000;0.7033;-5.4809;
-152.7000;0.7049;-5.4783;
-152.4000;0.7025;-5.4887;
-152.1000;0.7033;-5.4965;
-151.8000;0.7049;-5.4887;
-151.5000;0.7049;-5.4939;
-151.2000;0.7041;-5.4809;
-150.9000;0.7033;-5.4835;
-150.6000;0.7033;-5.4783;
-150.3000;0.7033;-5.4757;
-150.0000;0.7041;-5.4809;
-149.7000;0.7033;-5.4887;
-149.4000;0.7025;-5.4913;
-149.1000;0.7009;-5.4939;
-148.8000;0.7057;-5.4809;
-148.5000;0.7025;-5.4887;
-148.2000;0.7041;-5.4835;
-147.9000;0.7025;-5.4913;
-147.6000;0.7041;-5.4861;
-147.3000;0.7033;-5.4887;
-147.0000;0.7049;-5.4887;
-146.7000;0.6968;-5.4965;
-146.4000;0.7025;-5.4809;
-146.1000;0.7049;-5.4861;
-145.8000;0.7057;-5.4809;
-145.5000;0.7033;-5.4783;
-145.2000;0.7033;-5.4887;
-144.9000;0.7049;-5.4861;
-144.6000;0.7041;-5.4939;
-144.3000;0.7009;-5.5068;
-144.0000;0.7049;-5.5016;
-143.7000;0.7049;-5.4939;
-143.4000;0.7033;-5.4965;
-143.1000;0.7033;-5.4991;
-142.8000;0.7049;-5.4913;
-142.5000;0.7041;-5.4939;
-142.2000;0.7025;-5.4887;
-141.9000;0.7041;-5.4835;
-141.6000;0.7049;-5.4887;
-141.3000;0.7033;-5.4965;
-141.0000;0.7025;-5.5042;
-140.7000;0.7033;-5.5068;
-140.4000;0.7033;-5.5068;
-140.1000;0.7017;-5.5068;
-139.8000;0.7041;-5.5016;
-139.5000;0.7049;-5.4965;
-139.2000;0.7009;-5.4991;
-138.9000;0.7033;-5.4861;
-138.6000;0.7025;-5.4913;
-138.3000;0.7025;-5.4861;
-138.0000;0.7033;-5.4835;
-137.7000;0.7057;-5.4835;
-137.4000;0.7041;-5.4861;
-137.1000;0.7098;-5.4757;
-136.8000;0.7033;-5.4939;
-136.5000;0.7017;-5.4887;
-136.2000;0.7049;-5.4887;
-135.9000;0.7057;-5.4887;
-135.6000;0.7082;-5.4809;
-135.3000;0.7025;-5.5016;
-135.0000;0.7041;-5.4991;
-134.7000;0.7033;-5.4913;
-134.4000;0.7033;-5.4913;
-134.1000;0.7025;-5.4991;
-133.8000;0.7033;-5.4965;
-133.5000;0.7041;-5.5042;
-133.2000;0.7033;-5.5042;
-132.9000;0.7041;-5.5042;
-132.6000;0.7049;-5.5094;
-132.3000;0.7041;-5.5042;
-132.0000;0.7041;-5.5068;
-131.7000;0.7025;-5.5068;
-131.4000;0.7025;-5.5042;
-131.1000;0.7041;-5.4965;
-130.8000;0.7009;-5.5042;
-130.5000;0.7025;-5.5094;
-130.2000;0.7025;-5.5068;
-129.9000;0.7025;-5.5042;
-129.6000;0.7009;-5.5094;
-129.3000;0.7041;-5.4991;
-129.0000;0.7033;-5.5016;
-128.7000;0.7033;-5.5016;
-128.4000;0.7082;-5.4861;
-128.1000;0.7057;-5.4809;
-127.8000;0.7049;-5.4887;
-127.5000;0.7049;-5.4939;
-127.2000;0.7033;-5.5094;
-126.9000;0.7033;-5.5094;
-126.6000;0.7033;-5.5094;
-126.3000;0.7033;-5.5094;
-126.0000;0.7049;-5.5042;
-125.7000;0.7033;-5.5094;
-125.4000;0.7041;-5.5042;
-125.1000;0.7025;-5.5042;
-124.8000;0.7033;-5.4991;
-124.5000;0.7041;-5.4913;
-124.2000;0.7017;-5.4991;
-123.9000;0.7057;-5.4991;
-123.6000;0.7017;-5.5068;
-123.3000;0.7041;-5.4939;
-123.0000;0.7033;-5.4939;
-122.7000;0.7033;-5.4939;
-122.4000;0.7066;-5.4887;
-122.1000;0.7114;-5.4861;
-121.8000;0.7041;-5.5146;
-121.5000;0.7041;-5.5068;
-121.2000;0.7025;-5.5042;
-120.9000;0.7033;-5.5120;
-120.6000;0.7041;-5.5068;
-120.3000;0.7033;-5.4965;
-120.0000;0.7049;-5.4991;
-119.7000;0.7025;-5.5094;
-119.4000;0.7033;-5.4991;
-119.1000;0.7033;-5.5068;
-118.8000;0.7017;-5.5094;
-118.5000;0.7009;-5.5068;
-118.2000;0.7000;-5.5042;
-117.9000;0.7025;-5.5068;
-117.6000;0.7017;-5.5146;
-117.3000;0.7025;-5.5172;
-117.0000;0.7000;-5.5353;
-116.7000;0.7033;-5.5250;
-116.4000;0.7033;-5.5172;
-116.1000;0.7033;-5.5224;
-115.8000;0.7025;-5.5250;
-115.5000;0.7033;-5.5198;
-115.2000;0.7025;-5.5198;
-114.9000;0.7025;-5.5146;
-114.6000;0.7057;-5.5094;
-114.3000;0.7017;-5.5146;
-114.0000;0.6992;-5.5172;
-113.7000;0.7000;-5.5146;
-113.4000;0.7033;-5.5120;
-113.1000;0.6992;-5.5224;
-112.8000;0.7033;-5.5172;
-112.5000;0.7025;-5.5198;
-112.2000;0.7033;-5.5068;
-111.9000;0.7033;-5.5016;
-111.6000;0.7090;-5.4835;
-111.3000;0.7033;-5.4991;
-111.0000;0.7025;-5.5120;
-110.7000;0.7025;-5.5094;
-110.4000;0.7033;-5.5042;
-110.1000;0.7025;-5.5068;
-109.8000;0.7025;-5.5042;
-109.5000;0.7025;-5.5146;
-109.2000;0.7017;-5.5198;
-108.9000;0.7049;-5.5146;
-108.6000;0.7033;-5.5146;
-108.3000;0.7000;-5.5224;
-108.0000;0.7033;-5.5094;
-107.7000;0.7033;-5.5120;
-107.4000;0.7049;-5.5224;
-107.1000;0.7041;-5.5198;
-106.8000;0.7049;-5.5172;
-106.5000;0.7057;-5.5094;
-106.2000;0.7041;-5.5172;
-105.9000;0.7033;-5.5172;
-105.6000;0.7017;-5.5250;
-105.3000;0.7033;-5.5250;
-105.0000;0.7033;-5.5275;
-104.7000;0.7025;-5.5250;
-104.4000;0.7000;-5.5379;
-104.1000;0.7033;-5.5250;
-103.8000;0.7049;-5.5327;
-103.5000;0.7017;-5.5379;
-103.2000;0.7033;-5.5275;
-102.9000;0.7000;-5.5301;
-102.6000;0.7041;-5.5172;
-102.3000;0.7041;-5.5068;
-102.0000;0.7009;-5.5198;
-101.7000;0.7033;-5.5094;
-101.4000;0.7057;-5.5042;
-101.1000;0.7033;-5.5068;
-100.8000;0.7041;-5.5042;
-100.5000;0.7017;-5.5094;
-100.2000;0.7017;-5.5094;
-99.9000;0.7041;-5.4965;
-99.6000;0.7033;-5.4939;
-99.3000;0.7025;-5.4991;
-99.0000;0.6960;-5.5172;
-98.7000;0.7033;-5.5068;
-98.4000;0.7025;-5.5120;
-98.1000;0.6992;-5.5198;
-97.8000;0.7025;-5.5042;
-97.5000;0.7098;-5.4861;
-97.2000;0.7057;-5.4913;
-96.9000;0.7041;-5.4991;
-96.6000;0.7066;-5.5042;
-96.3000;0.7057;-5.5094;
-96.0000;0.7033;-5.5120;
-95.7000;0.7041;-5.5146;
-95.4000;0.7025;-5.5224;
-95.1000;0.7025;-5.5172;
-94.8000;0.7025;-5.5172;
-94.5000;0.7033;-5.5224;
-94.2000;0.7049;-5.5146;
-93.9000;0.7033;-5.5198;
-93.6000;0.7033;-5.5120;
-93.3000;0.7033;-5.5094;
-93.0000;0.7033;-5.5016;
-92.7000;0.7025;-5.5016;
-92.4000;0.7041;-5.4991;
-92.1000;0.7041;-5.5016;
-91.8000;0.7033;-5.5120;
-91.5000;0.7033;-5.5172;
-91.2000;0.7057;-5.5120;
-90.9000;0.7049;-5.5042;
-90.6000;0.7025;-5.5042;
-90.3000;0.7017;-5.4965;
-90.0000;0.7041;-5.4965;
-89.7000;0.7025;-5.5120;
-89.4000;0.7033;-5.5120;
-89.1000;0.7025;-5.5146;
-88.8000;0.7033;-5.5224;
-88.5000;0.7033;-5.5172;
-88.2000;0.7041;-5.5042;
-87.9000;0.7033;-5.5094;
-87.6000;0.7025;-5.5120;
-87.3000;0.7049;-5.4991;
-87.0000;0.7033;-5.4991;
-86.7000;0.7049;-5.4965;
-86.4000;0.7033;-5.5016;
-86.1000;0.7033;-5.5042;
-85.8000;0.7139;-5.4783;
-85.5000;0.7033;-5.5094;
-85.2000;0.7049;-5.5146;
-84.9000;0.7025;-5.5198;
-84.6000;0.7049;-5.5198;
-84.3000;0.7041;-5.5094;
-84.0000;0.7041;-5.5120;
-83.7000;0.7049;-5.5094;
-83.4000;0.7041;-5.4965;
-83.1000;0.7041;-5.4913;
-82.8000;0.7033;-5.4861;
-82.5000;0.7041;-5.4887;
-82.2000;0.7049;-5.4965;
-81.9000;0.7033;-5.5016;
-81.6000;0.7009;-5.5094;
-81.3000;0.7041;-5.5016;
-81.0000;0.7041;-5.4991;
-80.7000;0.7017;-5.5094;
-80.4000;0.7033;-5.5094;
-80.1000;0.7025;-5.5016;
-79.8000;0.7049;-5.5016;
-79.5000;0.7041;-5.5016;
-79.2000;0.7041;-5.5042;
-78.9000;0.7066;-5.4965;
-78.6000;0.7033;-5.5094;
-78.3000;0.7025;-5.4991;
-78.0000;0.7025;-5.5042;
-77.7000;0.7025;-5.5068;
-77.4000;0.7025;-5.4991;
-77.1000;0.7049;-5.4939;
-76.8000;0.7057;-5.4965;
-76.5000;0.7025;-5.5042;
-76.2000;0.7033;-5.5068;
-75.9000;0.7049;-5.5042;
-75.6000;0.7123;-5.4861;
-75.3000;0.7041;-5.5094;
-75.0000;0.7025;-5.5068;
-74.7000;0.7009;-5.5042;
-74.4000;0.7033;-5.5016;
-74.1000;0.7049;-5.5016;
-73.8000;0.7074;-5.4939;
-73.5000;0.7025;-5.5016;
-73.2000;0.7041;-5.5042;
-72.9000;0.7041;-5.5068;
-72.6000;0.7041;-5.5042;
-72.3000;0.6992;-5.5094;
-72.0000;0.7041;-5.4887;
-71.7000;0.7033;-5.4913;
-71.4000;0.7049;-5.4809;
-71.1000;0.7033;-5.4757;
-70.8000;0.7033;-5.4732;
-70.5000;0.7049;-5.4757;
-70.2000;0.7017;-5.4861;
-69.9000;0.7017;-5.4887;
-69.6000;0.7033;-5.4887;
-69.3000;0.7041;-5.4887;
-69.0000;0.7009;-5.4965;
-68.7000;0.7009;-5.5042;
-68.4000;0.7025;-5.4965;
-68.1000;0.7090;-5.4809;
-67.8000;0.7033;-5.4965;
-67.5000;0.7090;-5.4939;
-67.2000;0.7025;-5.5016;
-66.9000;0.7033;-5.4939;
-66.6000;0.7025;-5.4965;
-66.3000;0.7025;-5.4991;
-66.0000;0.7025;-5.5016;
-65.7000;0.7025;-5.4991;
-65.4000;0.7033;-5.4913;
-65.1000;0.7025;-5.4991;
-64.8000;0.7017;-5.5016;
-64.5000;0.7025;-5.4965;
-64.2000;0.7041;-5.4887;
-63.9000;0.7017;-5.4887;
-63.6000;0.7033;-5.4913;
-63.3000;0.7033;-5.4939;
-63.0000;0.7041;-5.4835;
-62.7000;0.7041;-5.4835;
-62.4000;0.7025;-5.4939;
-62.1000;0.7025;-5.5068;
-61.8000;0.7041;-5.4991;
-61.5000;0.7033;-5.5042;
-61.2000;0.7041;-5.5068;
-60.9000;0.7033;-5.5120;
-60.6000;0.7017;-5.5146;
-60.3000;0.7049;-5.5120;
-60.0000;0.7025;-5.5224;
-59.7000;0.7082;-5.5068;
-59.4000;0.7033;-5.5120;
-59.1000;0.7033;-5.5094;
-58.8000;0.7025;-5.5042;
-58.5000;0.7033;-5.5016;
-58.2000;0.7041;-5.4887;
-57.9000;0.7041;-5.4913;
-57.6000;0.7025;-5.4913;
-57.3000;0.7033;-5.4913;
-57.0000;0.7025;-5.4991;
-56.7000;0.7017;-5.4913;
-56.4000;0.7033;-5.4965;
-56.1000;0.7025;-5.4939;
-55.8000;0.7041;-5.4913;
-55.5000;0.7025;-5.5016;
-55.2000;0.7041;-5.4939;
-54.9000;0.7025;-5.5042;
-54.6000;0.7025;-5.4991;
-54.3000;0.7033;-5.4939;
-54.0000;0.7033;-5.4913;
-53.7000;0.7033;-5.4939;
-53.4000;0.7041;-5.4887;
-53.1000;0.7049;-5.4913;
-52.8000;0.7041;-5.4939;
-52.5000;0.7041;-5.4913;
-52.2000;0.7049;-5.4783;
-51.9000;0.7131;-5.4576;
-51.6000;0.7074;-5.4706;
-51.3000;0.7025;-5.4757;
-51.0000;0.7049;-5.4654;
-50.7000;0.7057;-5.4706;
-50.4000;0.7041;-5.4835;
-50.1000;0.7041;-5.4835;
-49.8000;0.7074;-5.4861;
-49.5000;0.7041;-5.5042;
-49.2000;0.7033;-5.5094;
-48.9000;0.7017;-5.5198;
-48.6000;0.7025;-5.5094;
-48.3000;0.7025;-5.5094;
-48.0000;0.7033;-5.5120;
-47.7000;0.7041;-5.4991;
-47.4000;0.7033;-5.5016;
-47.1000;0.7033;-5.5068;
-46.8000;0.7033;-5.5120;
-46.5000;0.7041;-5.5120;
-46.2000;0.7057;-5.4991;
-45.9000;0.7041;-5.4887;
-45.6000;0.7041;-5.4939;
-45.3000;0.7033;-5.4939;
-45.0000;0.7041;-5.4809;
-44.7000;0.7082;-5.4732;
-44.4000;0.7033;-5.4861;
-44.1000;0.7017;-5.4939;
-43.8000;0.7082;-5.4809;
-43.5000;0.7098;-5.4861;
-43.2000;0.7033;-5.4991;
-42.9000;0.7009;-5.5146;
-42.6000;0.7025;-5.5094;
-42.3000;0.7025;-5.5068;
-42.0000;0.7025;-5.5016;
-41.7000;0.7041;-5.5068;
-41.4000;0.7033;-5.5094;
-41.1000;0.7025;-5.5120;
-40.8000;0.7025;-5.5042;
-40.5000;0.7017;-5.5120;
-40.2000;0.7025;-5.5068;
-39.9000;0.7041;-5.5094;
-39.6000;0.7041;-5.5120;
-39.3000;0.7009;-5.5120;
-39.0000;0.7017;-5.5068;
-38.7000;0.7017;-5.5120;
-38.4000;0.6992;-5.5172;
-38.1000;0.7033;-5.5094;
-37.8000;0.7033;-5.5120;
-37.5000;0.7033;-5.5068;
-37.2000;0.7057;-5.4965;
-36.9000;0.7033;-5.5094;
-36.6000;0.7033;-5.5120;
-36.3000;0.7041;-5.5120;
-36.0000;0.7025;-5.5198;
-35.7000;0.7025;-5.5094;
-35.4000;0.7000;-5.5094;
-35.1000;0.7033;-5.5016;
-34.8000;0.7033;-5.4991;
-34.5000;0.7025;-5.5042;
-34.2000;0.7049;-5.4991;
-33.9000;0.7033;-5.5146;
-33.6000;0.7041;-5.5094;
-33.3000;0.7025;-5.5224;
-33.0000;0.7025;-5.5224;
-32.7000;0.7025;-5.5120;
-32.4000;0.7025;-5.5120;
-32.1000;0.7033;-5.5094;
-31.8000;0.7025;-5.5068;
-31.5000;0.7017;-5.5146;
-31.2000;0.7033;-5.5042;
-30.9000;0.7041;-5.5068;
-30.6000;0.7025;-5.5068;
-30.3000;0.7049;-5.5042;
-30.0000;0.7033;-5.5016;
-29.7000;0.7009;-5.5120;
-29.4000;0.7057;-5.5068;
-29.1000;0.7000;-5.5120;
-28.8000;0.7066;-5.4991;
-28.5000;0.7041;-5.4965;
-28.2000;0.7000;-5.5120;
-27.9000;0.6927;-5.5353;
-27.6000;0.7000;-5.5198;
-27.3000;0.7025;-5.5120;
-27.0000;0.7049;-5.5224;
-26.7000;0.7074;-5.5172;
-26.4000;0.7033;-5.5250;
-26.1000;0.7017;-5.5224;
-25.8000;0.7049;-5.5172;
-25.5000;0.7025;-5.5275;
-25.2000;0.7041;-5.5146;
-24.9000;0.7049;-5.5172;
-24.6000;0.7033;-5.5120;
-24.3000;0.7041;-5.5146;
-24.0000;0.7057;-5.5094;
-23.7000;0.7033;-5.5094;
-23.4000;0.7066;-5.5094;
-23.1000;0.7074;-5.5068;
-22.8000;0.7057;-5.5198;
-22.5000;0.7057;-5.5275;
-22.2000;0.7017;-5.5275;
-21.9000;0.7049;-5.5198;
-21.6000;0.7033;-5.5146;
-21.3000;0.7025;-5.5146;
-21.0000;0.7017;-5.5120;
-20.7000;0.7049;-5.5120;
-20.4000;0.7033;-5.5094;
-20.1000;0.7017;-5.5120;
-19.8000;0.7041;-5.4939;
-19.5000;0.7049;-5.4913;
-19.2000;0.7066;-5.4706;
-18.9000;0.7049;-5.4783;
-18.6000;0.7082;-5.4680;
-18.3000;0.7057;-5.4732;
-18.0000;0.7041;-5.4680;
-17.7000;0.7041;-5.4757;
-17.4000;0.7033;-5.4835;
-17.1000;0.7041;-5.4757;
-16.8000;0.7041;-5.4732;
-16.5000;0.7025;-5.4783;
-16.2000;0.7041;-5.4732;
-15.9000;0.7033;-5.4757;
-15.6000;0.7041;-5.4757;
-15.3000;0.7033;-5.4835;
-15.0000;0.7025;-5.4913;
-14.7000;0.7033;-5.4887;
-14.4000;0.7041;-5.4965;
-14.1000;0.7041;-5.4965;
-13.8000;0.7057;-5.4991;
-13.5000;0.7033;-5.5042;
-13.2000;0.7033;-5.5120;
-12.9000;0.7033;-5.5042;
-12.6000;0.7033;-5.5094;
-12.3000;0.7033;-5.5068;
-12.0000;0.7057;-5.5068;
-11.7000;0.7049;-5.5016;
-11.4000;0.7033;-5.5016;
-11.1000;0.7025;-5.5042;
-10.8000;0.7049;-5.5016;
-10.5000;0.7049;-5.4939;
-10.2000;0.7025;-5.4991;
-9.9000;0.7049;-5.4861;
-9.6000;0.7049;-5.4861;
-9.3000;0.7041;-5.4887;
-9.0000;0.7057;-5.4939;
-8.7000;0.7025;-5.4861;
-8.4000;0.7066;-5.4809;
-8.1000;0.7041;-5.4887;
-7.8000;0.7057;-5.4835;
-7.5000;0.7033;-5.4939;
-7.2000;0.7025;-5.4939;
-6.9000;0.7049;-5.4913;
-6.6000;0.7025;-5.5042;
-6.3000;0.7025;-5.5016;
-6.0000;0.7033;-5.4991;
-5.7000;0.7017;-5.4991;
-5.4000;0.7025;-5.4991;
-5.1000;0.7009;-5.4887;
-4.8000;0.7041;-5.4757;
-4.5000;0.7041;-5.4732;
-4.2000;0.7066;-5.4628;
-3.9000;0.7025;-5.4680;
-3.6000;0.7025;-5.4783;
-3.3000;0.7041;-5.4783;
-3.0000;0.7041;-5.4783;
-2.7000;0.7041;-5.4732;
-2.4000;0.7041;-5.4809;
-2.1000;0.7041;-5.4809;
-1.8000;0.7041;-5.4835;
-1.5000;0.7017;-5.4783;
-1.2000;0.7009;-5.4835;
-0.9000;0.7041;-5.4783;
-0.6000;0.7033;-5.4861;
-0.3000;0.7033;-5.4861;
0.0000;0.7033;-5.4861;
0.3000;0.7245;-5.4576;
0.6000;0.7643;-5.3877;
0.9000;0.7961;-5.3255;
1.2000;0.8213;-5.2815;
1.5000;0.8433;-5.2426;
1.8000;0.8547;-5.2064;
2.1000;0.8702;-5.1649;
2.4000;0.8799;-5.1287;
2.7000;0.8873;-5.1131;
3.0000;0.8913;-5.1079;
3.3000;0.9011;-5.0768;
3.6000;0.9060;-5.0665;
3.9000;0.9101;-5.0665;
4.2000;0.9141;-5.0561;
4.5000;0.9174;-5.0509;
4.8000;0.9223;-5.0406;
5.1000;0.9247;-5.0302;
5.4000;0.9231;-5.0380;
5.7000;0.9320;-5.0276;
6.0000;0.9385;-5.0199;
6.3000;0.9385;-5.0302;
6.6000;0.9410;-5.0276;
6.9000;0.9426;-5.0276;
7.2000;0.9451;-5.0354;
7.5000;0.9467;-5.0354;
7.8000;0.9491;-5.0328;
8.1000;0.9532;-5.0302;
8.4000;0.9540;-5.0276;
8.7000;0.9565;-5.0302;
9.0000;0.9589;-5.0302;
9.3000;0.9605;-5.0302;
9.6000;0.9613;-5.0302;
9.9000;0.9654;-5.0173;
10.2000;0.9654;-5.0173;
10.5000;0.9670;-5.0250;
10.8000;0.9695;-5.0276;
11.1000;0.9711;-5.0276;
11.4000;0.9752;-5.0225;
11.7000;0.9768;-5.0250;
12.0000;0.9776;-5.0302;
12.3000;0.9792;-5.0276;
12.6000;0.9792;-5.0354;
12.9000;0.9817;-5.0276;
13.2000;0.9833;-5.0380;
13.5000;0.9849;-5.0406;
13.8000;0.9874;-5.0406;
14.1000;0.9866;-5.0432;
14.4000;0.9906;-5.0354;
14.7000;0.9915;-5.0406;
15.0000;0.9915;-5.0328;
15.3000;0.9931;-5.0328;
15.6000;0.9972;-5.0406;
15.9000;0.9963;-5.0484;
16.2000;0.9972;-5.0458;
16.5000;0.9996;-5.0535;
16.8000;1.0004;-5.0561;
17.1000;1.0004;-5.0509;
17.4000;1.0028;-5.0484;
17.7000;1.0053;-5.0587;
18.0000;0.9988;-5.0768;
18.3000;1.0061;-5.0639;
18.6000;1.0053;-5.0587;
18.9000;1.0085;-5.0535;
19.2000;1.0102;-5.0639;
19.5000;1.0142;-5.0484;
19.8000;1.0126;-5.0484;
20.1000;1.0142;-5.0380;
20.4000;1.0142;-5.0380;
20.7000;1.0102;-5.0406;
21.0000;1.0159;-5.0225;
21.3000;1.0175;-5.0328;
21.6000;1.0191;-5.0328;
21.9000;1.0175;-5.0380;
22.2000;1.0216;-5.0328;
22.5000;1.0208;-5.0328;
22.8000;1.0159;-5.0458;
23.1000;1.0232;-5.0328;
23.4000;1.0199;-5.0276;
23.7000;1.0224;-5.0354;
24.0000;1.0232;-5.0432;
24.3000;1.0240;-5.0380;
24.6000;1.0240;-5.0458;
24.9000;1.0265;-5.0354;
25.2000;1.0256;-5.0406;
25.5000;1.0256;-5.0432;
25.8000;1.0256;-5.0458;
26.1000;1.0248;-5.0406;
26.4000;1.0265;-5.0406;
26.7000;1.0273;-5.0406;
27.0000;1.0273;-5.0484;
27.3000;1.0248;-5.0509;
27.6000;1.0305;-5.0406;
27.9000;1.0305;-5.0509;
28.2000;1.0256;-5.0665;
28.5000;1.0289;-5.0613;
28.8000;1.0305;-5.0535;
29.1000;1.0313;-5.0535;
29.4000;1.0313;-5.0535;
29.7000;1.0322;-5.0561;
30.0000;1.0330;-5.0509;
30.3000;1.0338;-5.0432;
30.6000;1.0346;-5.0484;
30.9000;1.0362;-5.0406;
31.2000;1.0362;-5.0458;
31.5000;1.0354;-5.0484;
31.8000;1.0379;-5.0458;
32.1000;1.0370;-5.0484;
32.4000;1.0362;-5.0406;
32.7000;1.0411;-5.0380;
33.0000;1.0395;-5.0406;
33.3000;1.0379;-5.0458;
33.6000;1.0395;-5.0509;
33.9000;1.0370;-5.0639;
34.2000;1.0395;-5.0613;
34.5000;1.0387;-5.0613;
34.8000;1.0387;-5.0509;
35.1000;1.0379;-5.0458;
35.4000;1.0476;-5.0199;
35.7000;1.0395;-5.0432;
36.0000;1.0411;-5.0458;
36.3000;1.0411;-5.0587;
36.6000;1.0435;-5.0535;
36.9000;1.0411;-5.0665;
37.2000;1.0354;-5.0794;
37.5000;1.0411;-5.0691;
37.8000;1.0419;-5.0665;
38.1000;1.0419;-5.0587;
38.4000;1.0395;-5.0665;
38.7000;1.0419;-5.0561;
39.0000;1.0435;-5.0484;
39.3000;1.0427;-5.0509;
39.6000;1.0452;-5.0484;
39.9000;1.0427;-5.0535;
40.2000;1.0444;-5.0509;
40.5000;1.0427;-5.0509;
40.8000;1.0427;-5.0535;
41.1000;1.0444;-5.0509;
41.4000;1.0427;-5.0587;
41.7000;1.0444;-5.0613;
42.0000;1.0460;-5.0587;
42.3000;1.0435;-5.0639;
42.6000;1.0452;-5.0639;
42.9000;1.0460;-5.0639;
43.2000;1.0460;-5.0665;
43.5000;1.0452;-5.0639;
43.8000;1.0476;-5.0484;
44.1000;1.0427;-5.0535;
44.4000;1.0476;-5.0406;
44.7000;1.0484;-5.0458;
45.0000;1.0484;-5.0509;
45.3000;1.0460;-5.0561;
45.6000;1.0492;-5.0535;
45.9000;1.0484;-5.0561;
46.2000;1.0468;-5.0535;
46.5000;1.0476;-5.0458;
46.8000;1.0476;-5.0561;
47.1000;1.0452;-5.0639;
47.4000;1.0492;-5.0639;
47.7000;1.0484;-5.0665;
48.0000;1.0509;-5.0587;
48.3000;1.0517;-5.0691;
48.6000;1.0492;-5.0717;
48.9000;1.0492;-5.0639;
49.2000;1.0484;-5.0691;
49.5000;1.0501;-5.0535;
49.8000;1.0492;-5.0509;
50.1000;1.0484;-5.0509;
50.4000;1.0501;-5.0380;
50.7000;1.0509;-5.0302;
51.0000;1.0517;-5.0354;
51.3000;1.0509;-5.0484;
51.6000;1.0501;-5.0561;
51.9000;1.0492;-5.0587;
52.2000;1.0509;-5.0535;
52.5000;1.0501;-5.0535;
52.8000;1.0501;-5.0484;
53.1000;1.0525;-5.0380;
53.4000;1.0501;-5.0535;
53.7000;1.0525;-5.0484;
54.0000;1.0492;-5.0509;
54.3000;1.0533;-5.0406;
54.6000;1.0509;-5.0432;
54.9000;1.0517;-5.0354;
55.2000;1.0517;-5.0406;
55.5000;1.0501;-5.0432;
55.8000;1.0525;-5.0535;
56.1000;1.0517;-5.0639;
56.4000;1.0533;-5.0535;
56.7000;1.0533;-5.0691;
57.0000;1.0533;-5.0743;
57.3000;1.0533;-5.0639;
57.6000;1.0484;-5.0768;
57.9000;1.0517;-5.0613;
58.2000;1.0533;-5.0535;
58.5000;1.0533;-5.0613;
58.8000;1.0525;-5.0613;
59.1000;1.0525;-5.0639;
59.4000;1.0525;-5.0613;
59.7000;1.0509;-5.0639;
60.0000;1.0533;-5.0561;
60.3000;1.0566;-5.0484;
60.6000;1.0541;-5.0509;
60.9000;1.0525;-5.0509;
61.2000;1.0541;-5.0458;
61.5000;1.0517;-5.0458;
61.8000;1.0533;-5.0406;
62.1000;1.0533;-5.0354;
62.4000;1.0549;-5.0354;
62.7000;1.0541;-5.0380;
63.0000;1.0484;-5.0484;
63.3000;1.0558;-5.0328;
63.6000;1.0549;-5.0432;
63.9000;1.0549;-5.0406;
64.2000;1.0541;-5.0509;
64.5000;1.0533;-5.0535;
64.8000;1.0541;-5.0509;
65.1000;1.0566;-5.0561;
65.4000;1.0492;-5.0691;
65.7000;1.0549;-5.0587;
66.0000;1.0582;-5.0535;
66.3000;1.0533;-5.0665;
66.6000;1.0517;-5.0691;
66.9000;1.0541;-5.0717;
67.2000;1.0509;-5.0846;
67.5000;1.0566;-5.0794;
67.8000;1.0517;-5.0976;
68.1000;1.0549;-5.0898;
68.4000;1.0549;-5.0872;
68.7000;1.0574;-5.0846;
69.0000;1.0525;-5.1028;
69.3000;1.0533;-5.0924;
69.6000;1.0549;-5.0924;
69.9000;1.0533;-5.0872;
70.2000;1.0558;-5.0820;
70.5000;1.0582;-5.0768;
70.8000;1.0623;-5.0665;
71.1000;1.0558;-5.0743;
71.4000;1.0582;-5.0665;
71.7000;1.0533;-5.0743;
72.0000;1.0533;-5.0717;
72.3000;1.0566;-5.0639;
72.6000;1.0574;-5.0665;
72.9000;1.0517;-5.0872;
73.2000;1.0549;-5.0743;
73.5000;1.0582;-5.0691;
73.8000;1.0574;-5.0743;
74.1000;1.0582;-5.0717;
74.4000;1.0566;-5.0768;
74.7000;1.0558;-5.0794;
75.0000;1.0574;-5.0717;
75.3000;1.0574;-5.0743;
75.6000;1.0566;-5.0768;
75.9000;1.0574;-5.0743;
76.2000;1.0501;-5.0950;
76.5000;1.0582;-5.0898;
76.8000;1.0566;-5.0898;
77.1000;1.0558;-5.0898;
77.4000;1.0549;-5.1002;
77.7000;1.0590;-5.0872;
78.0000;1.0574;-5.0924;
78.3000;1.0558;-5.0924;
78.6000;1.0566;-5.0924;
78.9000;1.0574;-5.0872;
79.2000;1.0558;-5.0950;
79.5000;1.0574;-5.0924;
79.8000;1.0558;-5.0846;
80.1000;1.0663;-5.0613;
80.4000;1.0582;-5.0924;
80.7000;1.0533;-5.1002;
81.0000;1.0566;-5.0898;
81.3000;1.0574;-5.0898;
81.6000;1.0549;-5.0898;
81.9000;1.0566;-5.0924;
82.2000;1.0566;-5.0950;
82.5000;1.0566;-5.0846;
82.8000;1.0574;-5.0898;
83.1000;1.0566;-5.0898;
83.4000;1.0574;-5.0950;
83.7000;1.0558;-5.0898;
84.0000;1.0566;-5.0898;
84.3000;1.0558;-5.0924;
84.6000;1.0574;-5.0846;
84.9000;1.0598;-5.0794;
85.2000;1.0566;-5.0820;
85.5000;1.0598;-5.0820;
85.8000;1.0574;-5.0820;
86.1000;1.0623;-5.0665;
86.4000;1.0566;-5.0743;
86.7000;1.0566;-5.0846;
87.0000;1.0566;-5.0872;
87.3000;1.0541;-5.0950;
87.6000;1.0525;-5.0898;
87.9000;1.0606;-5.0691;
88.2000;1.0566;-5.0794;
88.5000;1.0606;-5.0691;
88.8000;1.0566;-5.0768;
89.1000;1.0582;-5.0665;
89.4000;1.0566;-5.0768;
89.7000;1.0582;-5.0820;
90.0000;1.0663;-5.0613;
90.3000;1.0533;-5.0950;
90.6000;1.0598;-5.0820;
90.9000;1.0590;-5.0846;
91.2000;1.0582;-5.0846;
91.5000;1.0598;-5.0898;
91.8000;1.0582;-5.0950;
92.1000;1.0566;-5.0924;
92.4000;1.0574;-5.0898;
92.7000;1.0590;-5.0898;
93.0000;1.0566;-5.0950;
93.3000;1.0590;-5.0924;
93.6000;1.0574;-5.0950;
93.9000;1.0663;-5.0665;
94.2000;1.0598;-5.0924;
94.5000;1.0631;-5.0872;
94.8000;1.0606;-5.0924;
95.1000;1.0639;-5.0872;
95.4000;1.0566;-5.1028;
95.7000;1.0590;-5.0976;
96.0000;1.0598;-5.0924;
96.3000;1.0574;-5.1002;
96.6000;1.0598;-5.0976;
96.9000;1.0606;-5.1053;
97.2000;1.0615;-5.0976;
97.5000;1.0574;-5.1028;
97.8000;1.0574;-5.1053;
98.1000;1.0598;-5.1157;
98.4000;1.0590;-5.1183;
98.7000;1.0566;-5.1157;
99.0000;1.0582;-5.1105;
99.3000;1.0598;-5.1053;
99.6000;1.0615;-5.1002;
99.9000;1.0598;-5.1053;
100.2000;1.0606;-5.1028;
100.5000;1.0598;-5.1053;
100.8000;1.0615;-5.1131;
101.1000;1.0598;-5.1157;
101.4000;1.0582;-5.1157;
101.7000;1.0582;-5.1183;
102.0000;1.0598;-5.1105;
102.3000;1.0590;-5.1157;
102.6000;1.0590;-5.1157;
102.9000;1.0574;-5.1209;
103.2000;1.0598;-5.1183;
103.5000;1.0566;-5.1235;
103.8000;1.0574;-5.1183;
104.1000;1.0566;-5.1157;
104.4000;1.0615;-5.1079;
104.7000;1.0615;-5.1079;
105.0000;1.0590;-5.1053;
105.3000;1.0598;-5.1053;
105.6000;1.0598;-5.1131;
105.9000;1.0590;-5.1053;
106.2000;1.0606;-5.1053;
106.5000;1.0606;-5.1053;
106.8000;1.0582;-5.1105;
107.1000;1.0606;-5.1157;
107.4000;1.0590;-5.1131;
107.7000;1.0598;-5.1157;
108.0000;1.0590;-5.1183;
108.3000;1.0615;-5.1131;
108.6000;1.0606;-5.1183;
108.9000;1.0598;-5.1183;
109.2000;1.0590;-5.1235;
109.5000;1.0533;-5.1442;
109.8000;1.0606;-5.1235;
110.1000;1.0598;-5.1209;
110.4000;1.0615;-5.1183;
110.7000;1.0598;-5.1287;
111.0000;1.0615;-5.1183;
111.3000;1.0590;-5.1209;
111.6000;1.0541;-5.1364;
111.9000;1.0615;-5.1183;
112.2000;1.0598;-5.1235;
112.5000;1.0598;-5.1287;
112.8000;1.0590;-5.1287;
113.1000;1.0615;-5.1209;
113.4000;1.0598;-5.1235;
113.7000;1.0615;-5.1235;
114.0000;1.0582;-5.1312;
114.3000;1.0590;-5.1338;
114.6000;1.0598;-5.1312;
114.9000;1.0672;-5.1079;
115.2000;1.0615;-5.1261;
115.5000;1.0615;-5.1261;
115.8000;1.0623;-5.1338;
116.1000;1.0663;-5.1338;
116.4000;1.0623;-5.1338;
116.7000;1.0566;-5.1390;
117.0000;1.0606;-5.1312;
117.3000;1.0590;-5.1261;
117.6000;1.0598;-5.1209;
117.9000;1.0582;-5.1338;
118.2000;1.0566;-5.1468;
118.5000;1.0598;-5.1390;
118.8000;1.0590;-5.1390;
119.1000;1.0590;-5.1442;
119.4000;1.0606;-5.1312;
119.7000;1.0606;-5.1157;
120.0000;1.0615;-5.1157;
120.3000;1.0606;-5.1183;
120.6000;1.0615;-5.1131;
120.9000;1.0623;-5.1131;
121.2000;1.0598;-5.1209;
121.5000;1.0606;-5.1183;
121.8000;1.0590;-5.1287;
122.1000;1.0615;-5.1261;
122.4000;1.0623;-5.1364;
122.7000;1.0606;-5.1287;
123.0000;1.0606;-5.1364;
123.3000;1.0590;-5.1442;
123.6000;1.0598;-5.1442;
123.9000;1.0606;-5.1390;
124.2000;1.0639;-5.1235;
124.5000;1.0582;-5.1235;
124.8000;1.0590;-5.1235;
125.1000;1.0598;-5.1183;
125.4000;1.0598;-5.1287;
125.7000;1.0598;-5.1287;
126.0000;1.0615;-5.1261;
126.3000;1.0606;-5.1235;
126.6000;1.0541;-5.1442;
126.9000;1.0598;-5.1364;
127.2000;1.0590;-5.1442;
127.5000;1.0598;-5.1494;
127.8000;1.0623;-5.1494;
128.1000;1.0598;-5.1416;
128.4000;1.0606;-5.1494;
128.7000;1.0615;-5.1597;
129.0000;1.0623;-5.1623;
129.3000;1.0590;-5.1649;
129.6000;1.0606;-5.1571;
129.9000;1.0606;-5.1546;
130.2000;1.0598;-5.1494;
130.5000;1.0606;-5.1468;
130.8000;1.0623;-5.1416;
131.1000;1.0598;-5.1494;
131.4000;1.0615;-5.1494;
131.7000;1.0623;-5.1468;
132.0000;1.0582;-5.1623;
132.3000;1.0623;-5.1468;
132.6000;1.0606;-5.1390;
132.9000;1.0615;-5.1390;
133.2000;1.0598;-5.1338;
133.5000;1.0598;-5.1416;
133.8000;1.0615;-5.1390;
134.1000;1.0574;-5.1546;
134.4000;1.0631;-5.1338;
134.7000;1.0606;-5.1364;
135.0000;1.0582;-5.1416;
135.3000;1.0606;-5.1338;
135.6000;1.0606;-5.1390;
135.9000;1.0655;-5.1312;
136.2000;1.0639;-5.1287;
136.5000;1.0655;-5.1261;
136.8000;1.0615;-5.1390;
137.1000;1.0606;-5.1364;
137.4000;1.0598;-5.1468;
137.7000;1.0606;-5.1338;
138.0000;1.0606;-5.1261;
138.3000;1.0623;-5.1209;
138.6000;1.0606;-5.1287;
138.9000;1.0615;-5.1287;
139.2000;1.0590;-5.1442;
139.5000;1.0606;-5.1338;
139.8000;1.0615;-5.1390;
140.1000;1.0615;-5.1364;
140.4000;1.0623;-5.1338;
140.7000;1.0598;-5.1364;
141.0000;1.0615;-5.1364;
141.3000;1.0598;-5.1364;
141.6000;1.0598;-5.1261;
141.9000;1.0615;-5.1261;
142.2000;1.0590;-5.1338;
142.5000;1.0606;-5.1364;
142.8000;1.0606;-5.1338;
143.1000;1.0615;-5.1235;
143.4000;1.0590;-5.1338;
143.7000;1.0590;-5.1364;
144.0000;1.0598;-5.1338;
144.3000;1.0590;-5.1312;
144.6000;1.0631;-5.1235;
144.9000;1.0590;-5.1338;
145.2000;1.0606;-5.1261;
145.5000;1.0615;-5.1312;
145.8000;1.0615;-5.1338;
146.1000;1.0615;-5.1235;
146.4000;1.0639;-5.1261;
146.7000;1.0623;-5.1209;
147.0000;1.0623;-5.1183;
147.3000;1.0558;-5.1312;
147.6000;1.0598;-5.1287;
147.9000;1.0615;-5.1261;
148.2000;1.0615;-5.1235;
148.5000;1.0606;-5.1287;
148.8000;1.0615;-5.1338;
149.1000;1.0606;-5.1312;
149.4000;1.0606;-5.1312;
149.7000;1.0598;-5.1287;
150.0000;1.0606;-5.1287;
150.3000;1.0615;-5.1157;
150.6000;1.0590;-5.1338;
150.9000;1.0598;-5.1338;
151.2000;1.0606;-5.1338;
151.5000;1.0598;-5.1235;
151.8000;1.0615;-5.1235;
152.1000;1.0639;-5.1105;
152.4000;1.0615;-5.1235;
152.7000;1.0615;-5.1287;
153.0000;1.0615;-5.1416;
153.3000;1.0590;-5.1442;
153.6000;1.0590;-5.1261;
153.9000;1.0606;-5.1235;
154.2000;1.0574;-5.1287;
154.5000;1.0615;-5.1261;
154.8000;1.0615;-5.1261;
155.1000;1.0606;-5.1235;
155.4000;1.0606;-5.1209;
155.7000;1.0606;-5.1261;
156.0000;1.0623;-5.1261;
156.3000;1.0615;-5.1312;
156.6000;1.0606;-5.1287;
156.9000;1.0606;-5.1209;
157.2000;1.0663;-5.1131;
157.5000;1.0598;-5.1287;
157.8000;1.0631;-5.1287;
158.1000;1.0615;-5.1338;
158.4000;1.0598;-5.1416;
158.7000;1.0623;-5.1442;
159.0000;1.0623;-5.1442;
159.3000;1.0631;-5.1390;
159.6000;1.0615;-5.1442;
159.9000;1.0688;-5.1338;
160.2000;1.0574;-5.1571;
160.5000;1.0615;-5.1364;
160.8000;1.0623;-5.1364;
161.1000;1.0623;-5.1416;
161.4000;1.0623;-5.1442;
161.7000;1.0623;-5.1390;
162.0000;1.0623;-5.1312;
162.3000;1.0623;-5.1364;
162.6000;1.0598;-5.1468;
162.9000;1.0606;-5.1494;
163.2000;1.0590;-5.1546;
163.5000;1.0606;-5.1468;
163.8000;1.0615;-5.1390;
164.1000;1.0598;-5.1416;
164.4000;1.0606;-5.1442;
164.7000;1.0598;-5.1390;
165.0000;1.0623;-5.1364;
165.3000;1.0598;-5.1468;
165.6000;1.0606;-5.1442;
165.9000;1.0623;-5.1312;
166.2000;1.0606;-5.1338;
166.5000;1.0606;-5.1390;
166.8000;1.0615;-5.1390;
167.1000;1.0623;-5.1338;
167.4000;1.0623;-5.1312;
167.7000;1.0615;-5.1468;
168.0000;1.0615;-5.1520;
168.3000;1.0606;-5.1571;
168.6000;1.0615;-5.1546;
168.9000;1.0623;-5.1442;
169.2000;1.0623;-5.1364;
169.5000;1.0606;-5.1364;
169.8000;1.0606;-5.1364;
170.1000;1.0598;-5.1416;
170.4000;1.0598;-5.1416;
170.7000;1.0606;-5.1364;
171.0000;1.0590;-5.1416;
171.3000;1.0590;-5.1520;
171.6000;1.0606;-5.1546;
171.9000;1.0598;-5.1520;
172.2000;1.0631;-5.1442;
172.5000;1.0623;-5.1494;
172.8000;1.0639;-5.1468;
173.1000;1.0631;-5.1468;
173.4000;1.0615;-5.1390;
173.7000;1.0623;-5.1390;
174.0000;1.0647;-5.1390;
174.3000;1.0606;-5.1364;
174.6000;1.0623;-5.1416;
174.9000;1.0615;-5.1416;
175.2000;1.0615;-5.1468;
175.5000;1.0615;-5.1494;
175.8000;1.0598;-5.1546;
176.1000;1.0606;-5.1494;
176.4000;1.0623;-5.1468;
176.7000;1.0606;-5.1468;
177.0000;1.0606;-5.1390;
177.3000;1.0615;-5.1287;
177.6000;1.0606;-5.1338;
177.9000;1.0606;-5.1442;
178.2000;1.0598;-5.1494;
178.5000;1.0615;-5.1494;
178.8000;1.0623;-5.1468;
179.1000;1.0696;-5.1312;
179.4000;1.0606;-5.1520;
179.7000;1.0598;-5.1520;
180.0000;1.0590;-5.1546;
180.3000;1.0606;-5.1520;
180.6000;1.0631;-5.1390;
180.9000;1.0623;-5.1390;
181.2000;1.0582;-5.1468;
181.5000;1.0615;-5.1442;
181.8000;1.0615;-5.1442;
182.1000;1.0590;-5.1494;
182.4000;1.0623;-5.1416;
182.7000;1.0606;-5.1442;
183.0000;1.0566;-5.1597;
183.3000;1.0615;-5.1442;
183.6000;1.0606;-5.1571;
183.9000;1.0615;-5.1468;
184.2000;1.0639;-5.1312;
184.5000;1.0606;-5.1364;
184.8000;1.0615;-5.1364;
185.1000;1.0623;-5.1364;
185.4000;1.0615;-5.1364;
185.7000;1.0566;-5.1442;
186.0000;1.0582;-5.1338;
186.3000;1.0606;-5.1390;
186.6000;1.0615;-5.1390;
186.9000;1.0598;-5.1520;
187.2000;1.0623;-5.1442;
187.5000;1.0623;-5.1442;
187.8000;1.0623;-5.1416;
188.1000;1.0631;-5.1468;
188.4000;1.0615;-5.1520;
188.7000;1.0615;-5.1520;
189.0000;1.0631;-5.1546;
189.3000;1.0623;-5.1546;
189.6000;1.0606;-5.1546;
189.9000;1.0615;-5.1520;
190.2000;1.0623;-5.1571;
190.5000;1.0623;-5.1675;
190.8000;1.0606;-5.1675;
191.1000;1.0623;-5.1597;
191.4000;1.0623;-5.1494;
191.7000;1.0615;-5.1442;
192.0000;1.0615;-5.1364;
192.3000;1.0623;-5.1338;
192.6000;1.0623;-5.1390;
192.9000;1.0631;-5.1364;
193.2000;1.0623;-5.1364;
193.5000;1.0615;-5.1364;
193.8000;1.0615;-5.1364;
194.1000;1.0615;-5.1261;
194.4000;1.0615;-5.1287;
194.7000;1.0615;-5.1338;
195.0000;1.0623;-5.1390;
195.3000;1.0615;-5.1520;
195.6000;1.0606;-5.1546;
195.9000;1.0615;-5.1390;
196.2000;1.0598;-5.1312;
196.5000;1.0615;-5.1364;
196.8000;1.0615;-5.1520;
197.1000;1.0623;-5.1494;
197.4000;1.0623;-5.1520;
197.7000;1.0623;-5.1338;
198.0000;1.0623;-5.1312;
198.3000;1.0615;-5.1261;
198.6000;1.0606;-5.1338;
198.9000;1.0623;-5.1338;
199.2000;1.0623;-5.1338;
199.5000;1.0606;-5.1390;
199.8000;1.0598;-5.1494;
200.1000;1.0598;-5.1338;
200.4000;1.0598;-5.1287;
200.7000;1.0598;-5.1364;
201.0000;1.0623;-5.1390;
201.3000;1.0598;-5.1390;
201.6000;1.0623;-5.1364;
201.9000;1.0712;-5.1131;
202.2000;1.0631;-5.1338;
202.5000;1.0615;-5.1338;
202.8000;1.0615;-5.1442;
203.1000;1.0582;-5.1442;
203.4000;1.0639;-5.1312;
203.7000;1.0623;-5.1312;
204.0000;1.0639;-5.1235;
204.3000;1.0639;-5.1209;
204.6000;1.0623;-5.1235;
204.9000;1.0647;-5.1209;
205.2000;1.0663;-5.1209;
205.5000;1.0582;-5.1442;
205.8000;1.0615;-5.1494;
206.1000;1.0615;-5.1468;
206.4000;1.0615;-5.1520;
206.7000;1.0623;-5.1494;
207.0000;1.0615;-5.1520;
207.3000;1.0606;-5.1442;
207.6000;1.0606;-5.1468;
207.9000;1.0598;-5.1390;
208.2000;1.0647;-5.1209;
208.5000;1.0623;-5.1235;
208.8000;1.0615;-5.1287;
209.1000;1.0631;-5.1235;
209.4000;1.0631;-5.1209;
209.7000;1.0606;-5.1312;
210.0000;1.0615;-5.1364;
210.3000;1.0606;-5.1390;
210.6000;1.0623;-5.1416;
210.9000;1.0639;-5.1312;
211.2000;1.0615;-5.1364;
211.5000;1.0606;-5.1390;
211.8000;1.0615;-5.1416;
212.1000;1.0615;-5.1364;
212.4000;1.0623;-5.1209;
212.7000;1.0623;-5.1183;
213.0000;1.0615;-5.1287;
213.3000;1.0704;-5.1157;
213.6000;1.0623;-5.1287;
213.9000;1.0623;-5.1183;
214.2000;1.0606;-5.1157;
214.5000;1.0615;-5.1209;
214.8000;1.0623;-5.1209;
215.1000;1.0606;-5.1235;
215.4000;1.0623;-5.1209;
215.7000;1.0598;-5.1183;
216.0000;1.0598;-5.1183;
216.3000;1.0615;-5.1105;
216.6000;1.0615;-5.1105;
216.9000;1.0623;-5.1105;
217.2000;1.0615;-5.1131;
217.5000;1.0615;-5.1235;
217.8000;1.0606;-5.1312;
218.1000;1.0615;-5.1338;
218.4000;1.0639;-5.1364;
218.7000;1.0615;-5.1287;
219.0000;1.0623;-5.1261;
219.3000;1.0615;-5.1261;
219.6000;1.0623;-5.1209;
219.9000;1.0598;-5.1209;
220.2000;1.0615;-5.1183;
220.5000;1.0631;-5.1157;
220.8000;1.0606;-5.1261;
221.1000;1.0606;-5.1287;
221.4000;1.0590;-5.1287;
221.7000;1.0606;-5.1183;
222.0000;1.0598;-5.1157;
222.3000;1.0623;-5.1105;
222.6000;1.0623;-5.1105;
222.9000;1.0631;-5.1079;
223.2000;1.0696;-5.0976;
223.5000;1.0615;-5.1157;
223.8000;1.0606;-5.1261;
224.1000;1.0623;-5.1235;
224.4000;1.0631;-5.1287;
224.7000;1.0623;-5.1235;
225.0000;1.0615;-5.1287;
225.3000;1.0606;-5.1312;
225.6000;1.0574;-5.1442;
225.9000;1.0615;-5.1364;
226.2000;1.0623;-5.1312;
226.5000;1.0615;-5.1287;
226.8000;1.0606;-5.1209;
227.1000;1.0615;-5.1261;
227.4000;1.0639;-5.1235;
227.7000;1.0623;-5.1209;
228.0000;1.0623;-5.1235;
228.3000;1.0598;-5.1287;
228.6000;1.0631;-5.1261;
228.9000;1.0598;-5.1312;
229.2000;1.0574;-5.1494;
229.5000;1.0615;-5.1338;
229.8000;1.0623;-5.1312;
230.1000;1.0606;-5.1338;
230.4000;1.0582;-5.1390;
230.7000;1.0615;-5.1235;
231.0000;1.0606;-5.1261;
231.3000;1.0606;-5.1183;
231.6000;1.0623;-5.1209;
231.9000;1.0615;-5.1157;
232.2000;1.0590;-5.1209;
232.5000;1.0615;-5.1235;
232.8000;1.0615;-5.1261;
233.1000;1.0606;-5.1287;
233.4000;1.0623;-5.1287;
233.7000;1.0606;-5.1261;
234.0000;1.0623;-5.1287;
234.3000;1.0615;-5.1312;
234.6000;1.0598;-5.1390;
234.9000;1.0615;-5.1416;
235.2000;1.0623;-5.1312;
235.5000;1.0623;-5.1338;
235.8000;1.0615;-5.1287;
236.1000;1.0615;-5.1390;
236.4000;1.0647;-5.1390;
236.7000;1.0606;-5.1390;
237.0000;1.0606;-5.1416;
237.3000;1.0631;-5.1338;
237.6000;1.0623;-5.1287;
237.9000;1.0615;-5.1235;
238.2000;1.0631;-5.1131;
238.5000;1.0615;-5.1131;
238.8000;1.0639;-5.1131;
239.1000;1.0615;-5.1209;
239.4000;1.0606;-5.1183;
239.7000;1.0598;-5.1157;
240.0000;1.0615;-5.1157;
240.3000;1.0615;-5.1157;
240.6000;1.0606;-5.1131;
240.9000;1.0590;-5.1209;
241.2000;1.0623;-5.1157;
241.5000;1.0615;-5.1131;
241.8000;1.0615;-5.1183;
242.1000;1.0615;-5.1131;
242.4000;1.0606;-5.1261;
242.7000;1.0566;-5.1494;
243.0000;1.0623;-5.1416;
243.3000;1.0615;-5.1338;
243.6000;1.0606;-5.1390;
243.9000;1.0615;-5.1338;
244.2000;1.0615;-5.1312;
244.5000;1.0615;-5.1338;
244.8000;1.0615;-5.1416;
245.1000;1.0623;-5.1442;
245.4000;1.0615;-5.1416;
245.7000;1.0615;-5.1390;
246.0000;1.0598;-5.1364;
246.3000;1.0615;-5.1312;
246.6000;1.0615;-5.1287;
246.9000;1.0606;-5.1287;
247.2000;1.0598;-5.1287;
247.5000;1.0631;-5.1235;
247.8000;1.0631;-5.1157;
248.1000;1.0606;-5.1183;
248.4000;1.0606;-5.1312;
248.7000;1.0598;-5.1287;
249.0000;1.0590;-5.1364;
249.3000;1.0615;-5.1338;
249.6000;1.0631;-5.1338;
249.9000;1.0623;-5.1287;
250.2000;1.0655;-5.1235;
250.5000;1.0623;-5.1364;
250.8000;1.0623;-5.1416;
251.1000;1.0582;-5.1468;
251.4000;1.0598;-5.1390;
251.7000;1.0623;-5.1494;
252.0000;1.0663;-5.1390;
252.3000;1.0615;-5.1520;
252.6000;1.0615;-5.1520;
252.9000;1.0623;-5.1390;
253.2000;1.0623;-5.1338;
253.5000;1.0606;-5.1416;
253.8000;1.0615;-5.1390;
254.1000;1.0606;-5.1468;
254.4000;1.0631;-5.1416;
254.7000;1.0615;-5.1364;
255.0000;1.0598;-5.1364;
255.3000;1.0606;-5.1364;
255.6000;1.0615;-5.1338;
255.9000;1.0623;-5.1364;
256.2000;1.0623;-5.1364;
256.5000;1.0615;-5.1312;
256.8000;1.0623;-5.1287;
257.1000;1.0598;-5.1287;
257.4000;1.0590;-5.1312;
257.7000;1.0590;-5.1338;
258.0000;1.0688;-5.1209;
258.3000;1.0606;-5.1364;
258.6000;1.0606;-5.1390;
258.9000;1.0598;-5.1364;
259.2000;1.0623;-5.1390;
259.5000;1.0623;-5.1364;
259.8000;1.0615;-5.1416;
260.1000;1.0623;-5.1364;
260.4000;1.0615;-5.1442;
260.7000;1.0623;-5.1390;
261.0000;1.0615;-5.1416;
261.3000;1.0590;-5.1546;
261.6000;1.0590;-5.1520;
261.9000;1.0623;-5.1494;
262.2000;1.0615;-5.1571;
262.5000;1.0606;-5.1597;
262.8000;1.0615;-5.1649;
263.1000;1.0615;-5.1701;
263.4000;1.0623;-5.1623;
263.7000;1.0615;-5.1597;
264.0000;1.0623;-5.1649;
264.3000;1.0688;-5.1494;
264.6000;1.0598;-5.1753;
264.9000;1.0606;-5.1779;
265.2000;1.0639;-5.1805;
265.5000;1.0615;-5.1779;
265.8000;1.0623;-5.1727;
266.1000;1.0623;-5.1701;
266.4000;1.0615;-5.1649;
266.7000;1.0623;-5.1649;
267.0000;1.0615;-5.1494;
267.3000;1.0623;-5.1390;
267.6000;1.0606;-5.1416;
267.9000;1.0598;-5.1416;
268.2000;1.0615;-5.1390;
268.5000;1.0615;-5.1468;
268.8000;1.0558;-5.1597;
269.1000;1.0655;-5.1364;
269.4000;1.0606;-5.1416;
269.7000;1.0615;-5.1468;
270.0000;1.0598;-5.1571;
270.3000;1.0598;-5.1675;
270.6000;1.0639;-5.1546;
270.9000;1.0623;-5.1675;
271.2000;1.0606;-5.1727;
271.5000;1.0647;-5.1623;
271.8000;1.0606;-5.1675;
272.1000;1.0623;-5.1649;
272.4000;1.0623;-5.1727;
272.7000;1.0623;-5.1649;
273.0000;1.0615;-5.1649;
273.3000;1.0606;-5.1675;
273.6000;1.0582;-5.1753;
273.9000;1.0615;-5.1571;
274.2000;1.0598;-5.1597;
274.5000;1.0623;-5.1597;
274.8000;1.0631;-5.1571;
275.1000;1.0615;-5.1649;
275.4000;1.0655;-5.1546;
275.7000;1.0696;-5.1416;
276.0000;1.0647;-5.1571;
276.3000;1.0623;-5.1649;
276.6000;1.0606;-5.1623;
276.9000;1.0598;-5.1520;
277.2000;1.0606;-5.1520;
277.5000;1.0615;-5.1571;
277.8000;1.0582;-5.1597;
278.1000;1.0606;-5.1546;
278.4000;1.0615;-5.1468;
278.7000;1.0582;-5.1546;
279.0000;1.0606;-5.1494;
279.3000;1.0615;-5.1494;
279.6000;1.0615;-5.1494;
279.9000;1.0631;-5.1416;
280.2000;1.0615;-5.1442;
280.5000;1.0598;-5.1520;
280.8000;1.0615;-5.1494;
281.1000;1.0623;-5.1390;
281.4000;1.0615;-5.1416;
281.7000;1.0598;-5.1416;
282.0000;1.0590;-5.1442;
282.3000;1.0598;-5.1494;
282.6000;1.0598;-5.1520;
282.9000;1.0615;-5.1468;
283.2000;1.0631;-5.1468;
283.5000;1.0598;-5.1390;
283.8000;1.0615;-5.1416;
284.1000;1.0606;-5.1494;
284.4000;1.0606;-5.1546;
284.7000;1.0615;-5.1520;
285.0000;1.0623;-5.1468;
285.3000;1.0615;-5.1494;
285.6000;1.0623;-5.1468;
285.9000;1.0623;-5.1390;
286.2000;1.0606;-5.1494;
286.5000;1.0615;-5.1442;
286.8000;1.0606;-5.1442;
287.1000;1.0590;-5.1520;
287.4000;1.0606;-5.1494;
287.7000;1.0598;-5.1468;
288.0000;1.0590;-5.1597;
288.3000;1.0566;-5.1649;
288.6000;1.0598;-5.1494;
288.9000;1.0598;-5.1571;
289.2000;1.0590;-5.1571;
289.5000;1.0590;-5.1597;
289.8000;1.0606;-5.1546;
290.1000;1.0623;-5.1546;
290.4000;1.0615;-5.1649;
290.7000;1.0663;-5.1494;
291.0000;1.0623;-5.1546;
291.3000;1.0615;-5.1468;
291.6000;1.0639;-5.1390;
291.9000;1.0639;-5.1312;
292.2000;1.0615;-5.1287;
292.5000;1.0623;-5.1287;
292.8000;1.0549;-5.1468;
293.1000;1.0541;-5.1571;
293.4000;1.0615;-5.1390;
293.7000;1.0606;-5.1494;
294.0000;1.0615;-5.1442;
294.3000;1.0606;-5.1520;
294.6000;1.0623;-5.1442;
294.9000;1.0623;-5.1546;
295.2000;1.0663;-5.1468;
295.5000;1.0623;-5.1623;
295.8000;1.0615;-5.1571;
296.1000;1.0606;-5.1571;
296.4000;1.0615;-5.1623;
296.7000;1.0631;-5.1571;
297.0000;1.0631;-5.1597;
297.3000;1.0574;-5.1753;
297.6000;1.0623;-5.1623;
297.9000;1.0615;-5.1597;
298.2000;1.0606;-5.1753;
298.5000;1.0615;-5.1727;
298.8000;1.0615;-5.1701;
299.1000;1.0615;-5.1675;
299.4000;1.0615;-5.1649;
299.7000;1.0631;-5.1597;
300.0000;1.0615;-5.1649;
300.3000;1.0655;-5.1571;
300.6000;1.0606;-5.1571;
300.9000;1.0623;-5.1597;
301.2000;1.0606;-5.1597;
301.5000;1.0615;-5.1546;
301.8000;1.0631;-5.1416;
302.1000;1.0615;-5.1546;
302.4000;1.0606;-5.1571;
302.7000;1.0606;-5.1520;
303.0000;1.0606;-5.1494;
303.3000;1.0598;-5.1546;
303.6000;1.0590;-5.1494;
303.9000;1.0590;-5.1520;
304.2000;1.0590;-5.1546;
304.5000;1.0598;-5.1546;
304.8000;1.0606;-5.1390;
305.1000;1.0606;-5.1364;
305.4000;1.0623;-5.1364;
305.7000;1.0623;-5.1364;
306.0000;1.0606;-5.1364;
306.3000;1.0606;-5.1364;
306.6000;1.0623;-5.1468;
306.9000;1.0615;-5.1571;
307.2000;1.0623;-5.1597;
307.5000;1.0623;-5.1597;
307.8000;1.0598;-5.1597;
308.1000;1.0566;-5.1597;
308.4000;1.0606;-5.1442;
308.7000;1.0615;-5.1494;
309.0000;1.0606;-5.1597;
309.3000;1.0623;-5.1520;
309.6000;1.0598;-5.1442;
309.9000;1.0598;-5.1364;
310.2000;1.0598;-5.1312;
310.5000;1.0606;-5.1312;
310.8000;1.0598;-5.1416;
311.1000;1.0639;-5.1364;
311.4000;1.0606;-5.1494;
311.7000;1.0598;-5.1416;
312.0000;1.0598;-5.1416;
312.3000;1.0598;-5.1494;
312.6000;1.0598;-5.1520;
312.9000;1.0606;-5.1442;
313.2000;1.0606;-5.1468;
313.5000;1.0623;-5.1442;
313.8000;1.0598;-5.1494;
314.1000;1.0590;-5.1520;
314.4000;1.0631;-5.1390;
314.7000;1.0606;-5.1364;
315.0000;1.0615;-5.1338;
315.3000;1.0590;-5.1416;
315.6000;1.0623;-5.1364;
315.9000;1.0590;-5.1468;
316.2000;1.0598;-5.1494;
316.5000;1.0615;-5.1468;
316.8000;1.0623;-5.1390;
317.1000;1.0631;-5.1364;
317.4000;1.0615;-5.1312;
317.7000;1.0615;-5.1364;
318.0000;1.0615;-5.1364;
318.3000;1.0623;-5.1416;
318.6000;1.0623;-5.1546;
318.9000;1.0606;-5.1468;
319.2000;1.0606;-5.1390;
319.5000;1.0623;-5.1364;
319.8000;1.0615;-5.1390;
320.1000;1.0598;-5.1416;
320.4000;1.0606;-5.1442;
320.7000;1.0598;-5.1468;
321.0000;1.0615;-5.1364;
321.3000;1.0582;-5.1546;
321.6000;1.0606;-5.1442;
321.9000;1.0615;-5.1390;
322.2000;1.0566;-5.1597;
322.5000;1.0598;-5.1468;
322.8000;1.0598;-5.1468;
323.1000;1.0582;-5.1597;
323.4000;1.0615;-5.1675;
323.7000;1.0598;-5.1727;
324.0000;1.0590;-5.1649;
324.3000;1.0484;-5.1649;
324.6000;1.0598;-5.1364;
324.9000;1.0631;-5.1390;
325.2000;1.0582;-5.1494;
325.5000;1.0582;-5.1520;
325.8000;1.0574;-5.1571;
326.1000;1.0590;-5.1520;
326.4000;1.0598;-5.1416;
326.7000;1.0574;-5.1571;
327.0000;1.0606;-5.1468;
327.3000;1.0598;-5.1468;
327.6000;1.0590;-5.1390;
327.9000;1.0606;-5.1364;
328.2000;1.0615;-5.1390;
328.5000;1.0631;-5.1338;
328.8000;1.0615;-5.1442;
329.1000;1.0623;-5.1494;
329.4000;1.0606;-5.1442;
329.7000;1.0615;-5.1442;
330.0000;1.0606;-5.1416;
330.3000;1.0606;-5.1468;
330.6000;1.0606;-5.1468;
330.9000;1.0615;-5.1442;
331.2000;1.0623;-5.1390;
331.5000;1.0606;-5.1442;
331.8000;1.0598;-5.1364;
332.1000;1.0631;-5.1364;
332.4000;1.0582;-5.1442;
332.7000;1.0623;-5.1494;
333.0000;1.0623;-5.1520;
333.3000;1.0566;-5.1701;
333.6000;1.0663;-5.1468;
333.9000;1.0615;-5.1597;
334.2000;1.0615;-5.1546;
334.5000;1.0590;-5.1597;
334.8000;1.0623;-5.1623;
335.1000;1.0606;-5.1649;
335.4000;1.0615;-5.1571;
335.7000;1.0598;-5.1546;
336.0000;1.0574;-5.1520;
336.3000;1.0598;-5.1364;
336.6000;1.0606;-5.1364;
336.9000;1.0615;-5.1338;
337.2000;1.0631;-5.1261;
337.5000;1.0623;-5.1287;
337.8000;1.0590;-5.1312;
338.1000;1.0598;-5.1338;
338.4000;1.0598;-5.1390;
338.7000;1.0582;-5.1442;
339.0000;1.0672;-5.1312;
339.3000;1.0623;-5.1364;
339.6000;1.0606;-5.1416;
339.9000;1.0606;-5.1442;
340.2000;1.0606;-5.1494;
340.5000;1.0566;-5.1597;
340.8000;1.0582;-5.1494;
341.1000;1.0590;-5.1442;
341.4000;1.0582;-5.1468;
341.7000;1.0615;-5.1442;
342.0000;1.0606;-5.1442;
342.3000;1.0615;-5.1520;
342.6000;1.0672;-5.1338;
342.9000;1.0615;-5.1416;
343.2000;1.0606;-5.1364;
343.5000;1.0615;-5.1416;
343.8000;1.0623;-5.1364;
344.1000;1.0606;-5.1338;
344.4000;1.0582;-5.1442;
344.7000;1.0615;-5.1390;
345.0000;1.0615;-5.1468;
345.3000;1.0566;-5.1546;
345.6000;1.0606;-5.1520;
345.9000;1.0598;-5.1571;
346.2000;1.0615;-5.1597;
346.5000;1.0615;-5.1520;
346.8000;1.0590;-5.1546;
347.1000;1.0598;-5.1571;
347.4000;1.0590;-5.1571;
347.7000;1.0590;-5.1546;
348.0000;1.0606;-5.1623;
348.3000;1.0623;-5.1520;
348.6000;1.0606;-5.1520;
348.9000;1.0606;-5.1468;
349.2000;1.0606;-5.1494;
349.5000;1.0606;-5.1571;
349.8000;1.0606;-5.1701;
350.1000;1.0606;-5.1623;
350.4000;1.0590;-5.1597;
350.7000;1.0598;-5.1623;
351.0000;1.0598;-5.1597;
351.3000;1.0615;-5.1546;
351.6000;1.0598;-5.1597;
351.9000;1.0598;-5.1701;
352.2000;1.0606;-5.1649;
352.5000;1.0606;-5.1675;
352.8000;1.0606;-5.1597;
353.1000;1.0606;-5.1597;
353.4000;1.0606;-5.1571;
353.7000;1.0574;-5.1701;
354.0000;1.0623;-5.1520;
354.3000;1.0598;-5.1520;
354.6000;1.0590;-5.1675;
354.9000;1.0590;-5.1675;
355.2000;1.0606;-5.1649;
355.5000;1.0615;-5.1675;
355.8000;1.0615;-5.1753;
356.1000;1.0598;-5.1805;
356.4000;1.0615;-5.1779;
356.7000;1.0606;-5.1675;
357.0000;1.0582;-5.1779;
357.3000;1.0615;-5.1753;
357.6000;1.0598;-5.1805;
357.9000;1.0615;-5.1701;
358.2000;1.0615;-5.1701;
358.5000;1.0606;-5.1779;
358.8000;1.0606;-5.1779;
359.1000;1.0623;-5.1753;
359.4000;1.0606;-5.1701;
359.7000;1.0590;-5.1675;
360.0000;1.0623;-5.1597;
360.3000;1.0615;-5.1623;
360.6000;1.0582;-5.1727;
360.9000;1.0598;-5.1779;
361.2000;1.0598;-5.1830;
361.5000;1.0647;-5.1727;
361.8000;1.0574;-5.1882;
362.1000;1.0623;-5.1727;
362.4000;1.0598;-5.1753;
362.7000;1.0598;-5.1727;
363.0000;1.0606;-5.1623;
363.3000;1.0574;-5.1649;
363.6000;1.0615;-5.1571;
363.9000;1.0598;-5.1649;
364.2000;1.0598;-5.1727;
364.5000;1.0598;-5.1779;
364.8000;1.0582;-5.1805;
365.1000;1.0606;-5.1649;
365.4000;1.0606;-5.1675;
365.7000;1.0590;-5.1727;
366.0000;1.0590;-5.1753;
366.3000;1.0582;-5.1753;
366.6000;1.0582;-5.1753;
366.9000;1.0606;-5.1753;
367.2000;1.0598;-5.1675;
367.5000;1.0582;-5.1753;
367.8000;1.0606;-5.1727;
368.1000;1.0623;-5.1753;
368.4000;1.0582;-5.1805;
368.7000;1.0598;-5.1830;
369.0000;1.0615;-5.1830;
369.3000;1.0623;-5.1779;
369.6000;1.0598;-5.1805;
369.9000;1.0598;-5.1727;
370.2000;1.0606;-5.1649;
370.5000;1.0590;-5.1597;
370.8000;1.0598;-5.1623;
371.1000;1.0590;-5.1701;
371.4000;1.0606;-5.1675;
371.7000;1.0631;-5.1623;
372.0000;1.0590;-5.1675;
372.3000;1.0606;-5.1701;
372.6000;1.0655;-5.1571;
372.9000;1.0598;-5.1623;
373.2000;1.0606;-5.1623;
373.5000;1.0606;-5.1675;
373.8000;1.0615;-5.1597;
374.1000;1.0598;-5.1623;
374.4000;1.0606;-5.1675;
374.7000;1.0615;-5.1597;
375.0000;1.0582;-5.1597;
375.3000;1.0582;-5.1494;
375.6000;1.0598;-5.1416;
375.9000;1.0615;-5.1390;
376.2000;1.0574;-5.1494;
376.5000;1.0582;-5.1442;
376.8000;1.0590;-5.1390;
377.1000;1.0582;-5.1416;
377.4000;1.0590;-5.1442;
377.7000;1.0598;-5.1442;
378.0000;1.0606;-5.1390;
378.3000;1.0590;-5.1364;
378.6000;1.0598;-5.1364;
378.9000;1.0598;-5.1364;
379.2000;1.0598;-5.1364;
379.5000;1.0574;-5.1442;
379.8000;1.0590;-5.1416;
380.1000;1.0582;-5.1416;
380.4000;1.0606;-5.1468;
380.7000;1.0582;-5.1571;
381.0000;1.0582;-5.1623;
381.3000;1.0558;-5.1701;
381.6000;1.0582;-5.1623;
381.9000;1.0582;-5.1701;
382.2000;1.0590;-5.1701;
382.5000;1.0639;-5.1520;
382.8000;1.0647;-5.1546;
383.1000;1.0615;-5.1649;
383.4000;1.0606;-5.1675;
383.7000;1.0590;-5.1623;
384.0000;1.0598;-5.1546;
384.3000;1.0606;-5.1623;
384.6000;1.0606;-5.1649;
384.9000;1.0606;-5.1623;
385.2000;1.0598;-5.1597;
385.5000;1.0606;-5.1571;
385.8000;1.0598;-5.1546;
386.1000;1.0647;-5.1364;
386.4000;1.0582;-5.1520;
386.7000;1.0549;-5.1649;
387.0000;1.0598;-5.1623;
387.3000;1.0566;-5.1675;
387.6000;1.0590;-5.1675;
387.9000;1.0582;-5.1597;
388.2000;1.0598;-5.1546;
388.5000;1.0590;-5.1520;
388.8000;1.0598;-5.1520;
389.1000;1.0590;-5.1623;
389.4000;1.0606;-5.1571;
389.7000;1.0606;-5.1623;
390.0000;1.0582;-5.1623;
390.3000;1.0582;-5.1675;
390.6000;1.0606;-5.1649;
390.9000;1.0623;-5.1520;
391.2000;1.0672;-5.1338;
391.5000;1.0590;-5.1571;
391.8000;1.0574;-5.1597;
392.1000;1.0582;-5.1675;
392.4000;1.0574;-5.1675;
392.7000;1.0598;-5.1597;
393.0000;1.0598;-5.1571;
393.3000;1.0615;-5.1597;
393.6000;1.0598;-5.1546;
393.9000;1.0615;-5.1597;
394.2000;1.0582;-5.1701;
394.5000;1.0590;-5.1623;
394.8000;1.0672;-5.1416;
395.1000;1.0615;-5.1597;
395.4000;1.0615;-5.1571;
395.7000;1.0639;-5.1468;
396.0000;1.0606;-5.1623;
396.3000;1.0598;-5.1623;
396.6000;1.0582;-5.1546;
396.9000;1.0517;-5.1727;
397.2000;1.0663;-5.1364;
397.5000;1.0606;-5.1390;
397.8000;1.0688;-5.1235;
398.1000;1.0598;-5.1442;
398.4000;1.0598;-5.1390;
398.7000;1.0623;-5.1494;
399.0000;1.0606;-5.1571;
399.3000;1.0615;-5.1571;
399.6000;1.0590;-5.1623;
399.9000;1.0606;-5.1597;
400.2000;1.0606;-5.1546;
400.5000;1.0598;-5.1571;
400.8000;1.0590;-5.1623;
401.1000;1.0631;-5.1546;
401.4000;1.0590;-5.1727;
401.7000;1.0598;-5.1779;
402.0000;1.0582;-5.1753;
402.3000;1.0582;-5.1701;
402.6000;1.0582;-5.1649;
402.9000;1.0615;-5.1675;
403.2000;1.0582;-5.1779;
403.5000;1.0598;-5.1753;
403.8000;1.0606;-5.1753;
404.1000;1.0615;-5.1623;
404.4000;1.0615;-5.1649;
404.7000;1.0606;-5.1675;
405.0000;1.0606;-5.1701;
405.3000;1.0598;-5.1675;
405.6000;1.0598;-5.1727;
405.9000;1.0590;-5.1805;
406.2000;1.0598;-5.1805;
406.5000;1.0623;-5.1753;
406.8000;1.0598;-5.1753;
407.1000;1.0598;-5.1779;
407.4000;1.0615;-5.1727;
407.7000;1.0623;-5.1727;
408.0000;1.0598;-5.1649;
408.3000;1.0606;-5.1675;
408.6000;1.0566;-5.1701;
408.9000;1.0598;-5.1520;
409.2000;1.0598;-5.1520;
409.5000;1.0582;-5.1442;
409.8000;1.0590;-5.1312;
410.1000;1.0582;-5.1416;
410.4000;1.0598;-5.1390;
410.7000;1.0574;-5.1442;
411.0000;1.0558;-5.1520;
411.3000;1.0574;-5.1520;
411.6000;1.0590;-5.1546;
411.9000;1.0574;-5.1520;
412.2000;1.0606;-5.1494;
412.5000;1.0639;-5.1442;
412.8000;1.0598;-5.1571;
413.1000;1.0582;-5.1623;
413.4000;1.0574;-5.1675;
413.7000;1.0590;-5.1571;
414.0000;1.0598;-5.1546;
414.3000;1.0566;-5.1494;
414.6000;1.0598;-5.1390;
414.9000;1.0615;-5.1338;
415.2000;1.0680;-5.1131;
415.5000;1.0566;-5.1338;
415.8000;1.0590;-5.1312;
416.1000;1.0582;-5.1287;
416.4000;1.0590;-5.1287;
416.7000;1.0582;-5.1338;
417.0000;1.0582;-5.1364;
417.3000;1.0582;-5.1416;
417.6000;1.0590;-5.1364;
417.9000;1.0590;-5.1364;
418.2000;1.0639;-5.1287;
418.5000;1.0590;-5.1338;
418.8000;1.0623;-5.1261;
419.1000;1.0590;-5.1338;
419.4000;1.0558;-5.1364;
419.7000;1.0598;-5.1364;
420.0000;1.0574;-5.1468;
420.3000;1.0655;-5.1312;
420.6000;1.0590;-5.1442;
420.9000;1.0590;-5.1390;
421.2000;1.0582;-5.1494;
421.5000;1.0623;-5.1390;
421.8000;1.0598;-5.1546;
422.1000;1.0566;-5.1597;
422.4000;1.0590;-5.1364;
422.7000;1.0606;-5.1390;
423.0000;1.0590;-5.1390;
423.3000;1.0590;-5.1468;
423.6000;1.0590;-5.1416;
423.9000;1.0582;-5.1390;
424.2000;1.0590;-5.1338;
424.5000;1.0598;-5.1312;
424.8000;1.0590;-5.1261;
425.1000;1.0590;-5.1261;
425.4000;1.0615;-5.1312;
425.7000;1.0590;-5.1287;
426.0000;1.0598;-5.1312;
426.3000;1.0582;-5.1442;
426.6000;1.0598;-5.1442;
426.9000;1.0598;-5.1494;
427.2000;1.0582;-5.1520;
427.5000;1.0574;-5.1494;
427.8000;1.0598;-5.1442;
428.1000;1.0582;-5.1494;
428.4000;1.0590;-5.1494;
428.7000;1.0598;-5.1520;
429.0000;1.0574;-5.1597;
429.3000;1.0574;-5.1623;
429.6000;1.0533;-5.1675;
429.9000;1.0598;-5.1442;
430.2000;1.0590;-5.1520;
430.5000;1.0533;-5.1597;
430.8000;1.0598;-5.1416;
431.1000;1.0590;-5.1390;
431.4000;1.0566;-5.1416;
431.7000;1.0606;-5.1364;
432.0000;1.0566;-5.1520;
432.3000;1.0582;-5.1442;
432.6000;1.0574;-5.1571;
432.9000;1.0582;-5.1520;
433.2000;1.0598;-5.1442;
433.5000;1.0606;-5.1416;
433.8000;1.0525;-5.1675;
434.1000;1.0582;-5.1623;
434.4000;1.0615;-5.1546;
434.7000;1.0590;-5.1623;
435.0000;1.0582;-5.1623;
435.3000;1.0590;-5.1623;
435.6000;1.0541;-5.1675;
435.9000;1.0590;-5.1649;
436.2000;1.0590;-5.1649;
436.5000;1.0590;-5.1623;
436.8000;1.0615;-5.1623;
437.1000;1.0590;-5.1597;
437.4000;1.0574;-5.1649;
437.7000;1.0598;-5.1520;
438.0000;1.0598;-5.1468;
438.3000;1.0582;-5.1520;
438.6000;1.0574;-5.1546;
438.9000;1.0574;-5.1546;
439.2000;1.0566;-5.1597;
439.5000;1.0696;-5.1312;
439.8000;1.0606;-5.1442;
440.1000;1.0598;-5.1442;
440.4000;1.0582;-5.1546;
440.7000;1.0574;-5.1571;
441.0000;1.0606;-5.1520;
441.3000;1.0590;-5.1546;
441.6000;1.0582;-5.1520;
441.9000;1.0590;-5.1520;
442.2000;1.0598;-5.1468;
442.5000;1.0574;-5.1494;
442.8000;1.0574;-5.1468;
443.1000;1.0582;-5.1442;
443.4000;1.0582;-5.1571;
443.7000;1.0574;-5.1520;
444.0000;1.0582;-5.1546;
444.3000;1.0590;-5.1520;
444.6000;1.0598;-5.1494;
444.9000;1.0574;-5.1520;
445.2000;1.0574;-5.1571;
445.5000;1.0574;-5.1571;
445.8000;1.0574;-5.1571;
446.1000;1.0582;-5.1623;
446.4000;1.0582;-5.1597;
446.7000;1.0582;-5.1546;
447.0000;1.0598;-5.1468;
447.3000;1.0606;-5.1442;
447.6000;1.0598;-5.1390;
447.9000;1.0606;-5.1390;
448.2000;1.0574;-5.1364;
448.5000;1.0590;-5.1287;
448.8000;1.0590;-5.1209;
449.1000;1.0574;-5.1261;
449.4000;1.0574;-5.1364;
449.7000;1.0590;-5.1338;
450.0000;1.0590;-5.1390;
450.3000;1.0590;-5.1468;
450.6000;1.0566;-5.1571;
450.9000;1.0590;-5.1390;
451.2000;1.0615;-5.1338;
451.5000;1.0590;-5.1390;
451.8000;1.0590;-5.1442;
452.1000;1.0590;-5.1494;
452.4000;1.0590;-5.1468;
452.7000;1.0606;-5.1390;
453.0000;1.0590;-5.1442;
453.3000;1.0582;-5.1390;
453.6000;1.0558;-5.1416;
453.9000;1.0590;-5.1287;
454.2000;1.0574;-5.1364;
454.5000;1.0672;-5.1053;
454.8000;1.0639;-5.1079;
455.1000;1.0574;-5.1261;
455.4000;1.0558;-5.1338;
455.7000;1.0615;-5.1235;
456.0000;1.0541;-5.1416;
456.3000;1.0549;-5.1312;
456.6000;1.0623;-5.1209;
456.9000;1.0582;-5.1235;
457.2000;1.0590;-5.1235;
457.5000;1.0590;-5.1183;
457.8000;1.0582;-5.1261;
458.1000;1.0590;-5.1287;
458.4000;1.0598;-5.1209;
458.7000;1.0598;-5.1287;
459.0000;1.0582;-5.1235;
459.3000;1.0574;-5.1338;
459.6000;1.0606;-5.1209;
459.9000;1.0549;-5.1312;
460.2000;1.0582;-5.1209;
460.5000;1.0582;-5.1261;
460.8000;1.0598;-5.1261;
461.1000;1.0582;-5.1261;
461.4000;1.0590;-5.1261;
461.7000;1.0598;-5.1261;
462.0000;1.0598;-5.1261;
462.3000;1.0582;-5.1235;
462.6000;1.0606;-5.1157;
462.9000;1.0598;-5.1079;
463.2000;1.0590;-5.1105;
463.5000;1.0598;-5.1209;
463.8000;1.0582;-5.1261;
464.1000;1.0582;-5.1287;
464.4000;1.0590;-5.1312;
464.7000;1.0582;-5.1364;
465.0000;1.0590;-5.1338;
465.3000;1.0566;-5.1261;
465.6000;1.0574;-5.1261;
465.9000;1.0582;-5.1261;
466.2000;1.0566;-5.1338;
466.5000;1.0574;-5.1261;
466.8000;1.0566;-5.1157;
467.1000;1.0582;-5.1079;
467.4000;1.0566;-5.1105;
467.7000;1.0582;-5.1053;
468.0000;1.0574;-5.1131;
468.3000;1.0574;-5.1105;
468.6000;1.0558;-5.1105;
468.9000;1.0566;-5.1079;
469.2000;1.0574;-5.1105;
469.5000;1.0590;-5.1053;
469.8000;1.0558;-5.1131;
470.1000;1.0574;-5.1131;
470.4000;1.0574;-5.1209;
470.7000;1.0590;-5.1235;
471.0000;1.0541;-5.1390;
471.3000;1.0590;-5.1468;
471.6000;1.0598;-5.1494;
471.9000;1.0598;-5.1494;
472.2000;1.0590;-5.1416;
472.5000;1.0590;-5.1468;
472.8000;1.0598;-5.1364;
473.1000;1.0606;-5.1287;
473.4000;1.0598;-5.1287;
473.7000;1.0606;-5.1261;
474.0000;1.0566;-5.1442;
474.3000;1.0566;-5.1494;
474.6000;1.0582;-5.1416;
474.9000;1.0574;-5.1442;
475.2000;1.0582;-5.1364;
475.5000;1.0655;-5.1209;
475.8000;1.0582;-5.1364;
476.1000;1.0558;-5.1390;
476.4000;1.0574;-5.1364;
476.7000;1.0623;-5.1312;
477.0000;1.0606;-5.1287;
477.3000;1.0558;-5.1364;
477.6000;1.0590;-5.1364;
477.9000;1.0590;-5.1390;
478.2000;1.0541;-5.1520;
478.5000;1.0574;-5.1520;
478.8000;1.0582;-5.1468;
479.1000;1.0590;-5.1546;
479.4000;1.0598;-5.1546;
479.7000;1.0590;-5.1468;
480.0000;1.0582;-5.1364;
480.3000;1.0582;-5.1338;
480.6000;1.0574;-5.1364;
480.9000;1.0590;-5.1416;
481.2000;1.0615;-5.1468;
481.5000;1.0606;-5.1364;
481.8000;1.0615;-5.1338;
482.1000;1.0631;-5.1235;
482.4000;1.0590;-5.1287;
482.7000;1.0582;-5.1338;
483.0000;1.0590;-5.1312;
483.3000;1.0582;-5.1235;
483.6000;1.0590;-5.1183;
483.9000;1.0549;-5.1390;
484.2000;1.0590;-5.1235;
484.5000;1.0639;-5.1053;
484.8000;1.0582;-5.1157;
485.1000;1.0590;-5.1157;
485.4000;1.0615;-5.1105;
485.7000;1.0598;-5.1235;
486.0000;1.0606;-5.1209;
486.3000;1.0598;-5.1235;
486.6000;1.0606;-5.1209;
486.9000;1.0574;-5.1235;
487.2000;1.0590;-5.1235;
487.5000;1.0582;-5.1287;
487.8000;1.0582;-5.1235;
488.1000;1.0590;-5.1235;
488.4000;1.0590;-5.1235;
488.7000;1.0582;-5.1287;
489.0000;1.0525;-5.1390;
489.3000;1.0574;-5.1312;
489.6000;1.0598;-5.1287;
489.9000;1.0558;-5.1468;
490.2000;1.0574;-5.1416;
490.5000;1.0566;-5.1520;
490.8000;1.0680;-5.1235;
491.1000;1.0590;-5.1364;
491.4000;1.0566;-5.1364;
491.7000;1.0541;-5.1416;
492.0000;1.0647;-5.1235;
492.3000;1.0582;-5.1390;
492.6000;1.0582;-5.1390;
492.9000;1.0606;-5.1287;
493.2000;1.0680;-5.1157;
493.5000;1.0598;-5.1312;
493.8000;1.0574;-5.1364;
494.1000;1.0590;-5.1312;
494.4000;1.0582;-5.1261;
494.7000;1.0574;-5.1183;
495.0000;1.0468;-5.1520;
495.3000;1.0606;-5.1261;
495.6000;1.0590;-5.1364;
495.9000;1.0590;-5.1338;
496.2000;1.0582;-5.1287;
496.5000;1.0582;-5.1312;
496.8000;1.0574;-5.1338;
497.1000;1.0582;-5.1287;
497.4000;1.0541;-5.1416;
497.7000;1.0558;-5.1364;
498.0000;1.0639;-5.1183;
498.3000;1.0574;-5.1416;
498.6000;1.0606;-5.1338;
498.9000;1.0590;-5.1364;
499.2000;1.0598;-5.1261;
499.5000;1.0582;-5.1287;
499.8000;1.0615;-5.1209;
500.1000;1.0590;-5.1235;
500.4000;1.0574;-5.1131;
500.7000;1.0558;-5.1235;
501.0000;1.0574;-5.1287;
501.3000;1.0598;-5.1209;
501.6000;1.0525;-5.1494;
501.9000;1.0566;-5.1338;
502.2000;1.0574;-5.1416;
502.5000;1.0566;-5.1416;
502.8000;1.0598;-5.1209;
503.1000;1.0541;-5.1442;
503.4000;1.0558;-5.1312;
503.7000;1.0566;-5.1287;
504.0000;1.0598;-5.1261;
504.3000;1.0509;-5.1546;
504.6000;1.0639;-5.1364;
504.9000;1.0590;-5.1597;
505.2000;1.0590;-5.1753;
505.5000;1.0590;-5.1701;
505.8000;1.0598;-5.1597;
506.1000;1.0590;-5.1597;
506.4000;1.0582;-5.1571;
506.7000;1.0574;-5.1468;
507.0000;1.0549;-5.1468;
507.3000;1.0582;-5.1520;
507.6000;1.0606;-5.1494;
507.9000;1.0566;-5.1546;
508.2000;1.0574;-5.1520;
508.5000;1.0590;-5.1442;
508.8000;1.0525;-5.1546;
509.1000;1.0541;-5.1442;
509.4000;1.0574;-5.1338;
509.7000;1.0574;-5.1416;
510.0000;1.0558;-5.1494;
510.3000;1.0574;-5.1494;
510.6000;1.0566;-5.1468;
510.9000;1.0574;-5.1442;
511.2000;1.0574;-5.1416;
511.5000;1.0574;-5.1364;
511.8000;1.0566;-5.1442;
512.1000;1.0582;-5.1364;
512.4000;1.0574;-5.1312;
512.7000;1.0598;-5.1287;
513.0000;1.0590;-5.1338;
513.3000;1.0558;-5.1442;
513.6000;1.0574;-5.1338;
513.9000;1.0574;-5.1312;
514.2000;1.0566;-5.1261;
514.5000;1.0558;-5.1364;
514.8000;1.0590;-5.1209;
515.1000;1.0582;-5.1235;
515.4000;1.0606;-5.1157;
515.7000;1.0533;-5.1442;
516.0000;1.0574;-5.1364;
516.3000;1.0582;-5.1416;
516.6000;1.0582;-5.1390;
516.9000;1.0574;-5.1364;
517.2000;1.0574;-5.1442;
517.5000;1.0582;-5.1338;
517.8000;1.0647;-5.1105;
518.1000;1.0549;-5.1338;
518.4000;1.0582;-5.1338;
518.7000;1.0582;-5.1338;
519.0000;1.0574;-5.1261;
519.3000;1.0582;-5.1235;
519.6000;1.0582;-5.1235;
519.9000;1.0623;-5.1079;
520.2000;1.0566;-5.1131;
520.5000;1.0582;-5.1079;
520.8000;1.0582;-5.1209;
521.1000;1.0574;-5.1287;
521.4000;1.0582;-5.1209;
521.7000;1.0582;-5.1312;
522.0000;1.0582;-5.1338;
522.3000;1.0655;-5.1105;
522.6000;1.0582;-5.1364;
522.9000;1.0566;-5.1364;
523.2000;1.0574;-5.1338;
523.5000;1.0525;-5.1468;
523.8000;1.0574;-5.1312;
524.1000;1.0623;-5.1261;
524.4000;1.0598;-5.1235;
524.7000;1.0541;-5.1442;
525.0000;1.0574;-5.1364;
525.3000;1.0590;-5.1312;
525.6000;1.0574;-5.1287;
525.9000;1.0590;-5.1131;
526.2000;1.0574;-5.1183;
526.5000;1.0606;-5.1105;
526.8000;1.0566;-5.1131;
527.1000;1.0574;-5.1209;
527.4000;1.0582;-5.1183;
527.7000;1.0525;-5.1338;
528.0000;1.0582;-5.1209;
528.3000;1.0639;-5.1157;
528.6000;1.0590;-5.1261;
528.9000;1.0566;-5.1312;
529.2000;1.0590;-5.1364;
529.5000;1.0598;-5.1364;
529.8000;1.0574;-5.1416;
530.1000;1.0574;-5.1442;
530.4000;1.0566;-5.1338;
530.7000;1.0574;-5.1235;
531.0000;1.0549;-5.1338;
531.3000;1.0566;-5.1364;
531.6000;1.0558;-5.1364;
531.9000;1.0574;-5.1364;
532.2000;1.0574;-5.1416;
532.5000;1.0541;-5.1468;
532.8000;1.0574;-5.1312;
533.1000;1.0558;-5.1312;
533.4000;1.0574;-5.1364;
533.7000;1.0558;-5.1442;
534.0000;1.0582;-5.1442;
534.3000;1.0549;-5.1442;
534.6000;1.0549;-5.1468;
534.9000;1.0549;-5.1390;
535.2000;1.0582;-5.1338;
535.5000;1.0582;-5.1338;
535.8000;1.0549;-5.1390;
536.1000;1.0558;-5.1364;
536.4000;1.0590;-5.1287;
536.7000;1.0574;-5.1312;
537.0000;1.0549;-5.1416;
537.3000;1.0582;-5.1442;
537.6000;1.0582;-5.1338;
537.9000;1.0598;-5.1364;
538.2000;1.0574;-5.1364;
538.5000;1.0566;-5.1468;
538.8000;1.0549;-5.1546;
539.1000;1.0574;-5.1520;
539.4000;1.0574;-5.1442;
539.7000;1.0582;-5.1390;
540.0000;1.0615;-5.1364;
540.3000;1.0590;-5.1338;
540.6000;1.0582;-5.1364;
540.9000;1.0574;-5.1364;
541.2000;1.0566;-5.1364;
541.5000;1.0558;-5.1183;
541.8000;1.0566;-5.1235;
542.1000;1.0566;-5.1338;
542.4000;1.0566;-5.1338;
542.7000;1.0558;-5.1261;
543.0000;1.0566;-5.1312;
543.3000;1.0590;-5.1261;
543.6000;1.0574;-5.1364;
543.9000;1.0541;-5.1468;
544.2000;1.0615;-5.1364;
544.5000;1.0582;-5.1416;
544.8000;1.0590;-5.1390;
545.1000;1.0574;-5.1468;
545.4000;1.0533;-5.1623;
545.7000;1.0598;-5.1416;
546.0000;1.0566;-5.1416;
546.3000;1.0558;-5.1416;
546.6000;1.0541;-5.1416;
546.9000;1.0566;-5.1364;
547.2000;1.0574;-5.1338;
547.5000;1.0574;-5.1416;
547.8000;1.0558;-5.1494;
548.1000;1.0590;-5.1494;
548.4000;1.0582;-5.1494;
548.7000;1.0623;-5.1494;
549.0000;1.0566;-5.1675;
549.3000;1.0582;-5.1649;
549.6000;1.0558;-5.1675;
549.9000;1.0582;-5.1546;
550.2000;1.0558;-5.1520;
550.5000;1.0541;-5.1520;
550.8000;1.0582;-5.1364;
551.1000;1.0558;-5.1364;
551.4000;1.0566;-5.1442;
551.7000;1.0549;-5.1416;
552.0000;1.0566;-5.1312;
552.3000;1.0623;-5.1261;
552.6000;1.0590;-5.1338;
552.9000;1.0566;-5.1442;
553.2000;1.0574;-5.1312;
553.5000;1.0582;-5.1338;
553.8000;1.0574;-5.1364;
554.1000;1.0574;-5.1468;
554.4000;1.0549;-5.1520;
554.7000;1.0582;-5.1364;
555.0000;1.0615;-5.1338;
555.3000;1.0582;-5.1287;
555.6000;1.0574;-5.1287;
555.9000;1.0590;-5.1312;
556.2000;1.0590;-5.1364;
556.5000;1.0574;-5.1571;
556.8000;1.0582;-5.1520;
557.1000;1.0598;-5.1468;
557.4000;1.0582;-5.1520;
557.7000;1.0566;-5.1494;
558.0000;1.0566;-5.1520;
558.3000;1.0541;-5.1597;
558.6000;1.0574;-5.1468;
558.9000;1.0582;-5.1364;
559.2000;1.0566;-5.1364;
559.5000;1.0582;-5.1312;
559.8000;1.0574;-5.1338;
560.1000;1.0549;-5.1312;
560.4000;1.0549;-5.1287;
560.7000;1.0525;-5.1390;
561.0000;1.0541;-5.1338;
561.3000;1.0574;-5.1261;
561.6000;1.0558;-5.1312;
561.9000;1.0566;-5.1364;
562.2000;1.0517;-5.1520;
562.5000;1.0574;-5.1390;
562.8000;1.0566;-5.1338;
563.1000;1.0558;-5.1312;
563.4000;1.0606;-5.1235;
563.7000;1.0574;-5.1338;
564.0000;1.0558;-5.1338;
564.3000;1.0558;-5.1390;
564.6000;1.0549;-5.1390;
564.9000;1.0574;-5.1390;
565.2000;1.0566;-5.1390;
565.5000;1.0558;-5.1416;
565.8000;1.0549;-5.1494;
566.1000;1.0590;-5.1390;
566.4000;1.0574;-5.1468;
566.7000;1.0582;-5.1390;
567.0000;1.0549;-5.1520;
567.3000;1.0590;-5.1597;
567.6000;1.0566;-5.1623;
567.9000;1.0566;-5.1675;
568.2000;1.0566;-5.1727;
568.5000;1.0574;-5.1701;
568.8000;1.0558;-5.1805;
569.1000;1.0525;-5.1830;
569.4000;1.0582;-5.1675;
569.7000;1.0606;-5.1649;
570.0000;1.0525;-5.1779;
570.3000;1.0590;-5.1701;
570.6000;1.0582;-5.1701;
570.9000;1.0582;-5.1623;
571.2000;1.0566;-5.1623;
571.5000;1.0598;-5.1494;
571.8000;1.0574;-5.1494;
572.1000;1.0582;-5.1442;
572.4000;1.0574;-5.1442;
572.7000;1.0606;-5.1364;
573.0000;1.0566;-5.1468;
573.3000;1.0558;-5.1442;
573.6000;1.0549;-5.1338;
573.9000;1.0574;-5.1338;
574.2000;1.0566;-5.1287;
574.5000;1.0533;-5.1416;
574.8000;1.0566;-5.1312;
575.1000;1.0558;-5.1287;
575.4000;1.0590;-5.1287;
575.7000;1.0566;-5.1390;
576.0000;1.0574;-5.1312;
576.3000;1.0566;-5.1416;
576.6000;1.0574;-5.1442;
576.9000;1.0574;-5.1520;
577.2000;1.0574;-5.1546;
577.5000;1.0582;-5.1546;
577.8000;1.0574;-5.1520;
578.1000;1.0615;-5.1338;
578.4000;1.0558;-5.1494;
578.7000;1.0558;-5.1546;
579.0000;1.0541;-5.1571;
579.3000;1.0574;-5.1442;
579.6000;1.0558;-5.1468;
579.9000;1.0566;-5.1468;
580.2000;1.0549;-5.1442;
580.5000;1.0566;-5.1364;
580.8000;1.0566;-5.1416;
581.1000;1.0582;-5.1390;
581.4000;1.0574;-5.1390;
581.7000;1.0566;-5.1416;
582.0000;1.0566;-5.1416;
582.3000;1.0558;-5.1468;
582.6000;1.0582;-5.1416;
582.9000;1.0549;-5.1546;
583.2000;1.0566;-5.1494;
583.5000;1.0574;-5.1546;
583.8000;1.0566;-5.1494;
584.1000;1.0574;-5.1468;
584.4000;1.0558;-5.1520;
584.7000;1.0541;-5.1649;
585.0000;1.0590;-5.1546;
585.3000;1.0509;-5.1701;
585.6000;1.0582;-5.1494;
585.9000;1.0566;-5.1546;
586.2000;1.0574;-5.1494;
586.5000;1.0574;-5.1494;
586.8000;1.0582;-5.1494;
587.1000;1.0558;-5.1546;
587.4000;1.0606;-5.1338;
587.7000;1.0549;-5.1520;
588.0000;1.0566;-5.1546;
588.3000;1.0631;-5.1312;
588.6000;1.0541;-5.1442;
588.9000;1.0558;-5.1390;
589.2000;1.0558;-5.1312;
589.5000;1.0558;-5.1312;
589.8000;1.0549;-5.1390;
590.1000;1.0549;-5.1416;
590.4000;1.0541;-5.1416;
590.7000;1.0566;-5.1442;
591.0000;1.0549;-5.1494;
591.3000;1.0647;-5.1209;
591.6000;1.0558;-5.1364;
591.9000;1.0476;-5.1546;
592.2000;1.0549;-5.1390;
592.5000;1.0582;-5.1287;
592.8000;1.0558;-5.1312;
593.1000;1.0566;-5.1312;
593.4000;1.0566;-5.1287;
593.7000;1.0549;-5.1312;
594.0000;1.0525;-5.1338;
594.3000;1.0549;-5.1312;
594.6000;1.0566;-5.1261;
594.9000;1.0558;-5.1364;
595.2000;1.0558;-5.1312;
595.5000;1.0574;-5.1261;
595.8000;1.0549;-5.1287;
596.1000;1.0533;-5.1338;
596.4000;1.0549;-5.1209;
596.7000;1.0590;-5.1183;
597.0000;1.0574;-5.1338;
597.3000;1.0558;-5.1364;
597.6000;1.0615;-5.1131;
597.9000;1.0549;-5.1261;
598.2000;1.0558;-5.1261;
598.5000;1.0566;-5.1287;
598.8000;1.0541;-5.1312;
599.1000;1.0574;-5.1209;
599.4000;1.0574;-5.1287;
599.7000;1.0574;-5.1390;
600.0000;1.0541;-5.1416;
600.3000;1.0541;-5.1468;
600.6000;1.0590;-5.1675;
600.9000;1.0509;-5.1986;
601.2000;1.0427;-5.2297;
601.5000;1.0346;-5.2530;
601.8000;1.0256;-5.2841;
602.1000;1.0199;-5.2996;
602.4000;1.0118;-5.3281;
602.7000;1.0012;-5.3462;
603.0000;0.9947;-5.3721;
603.3000;0.9874;-5.3773;
603.6000;0.9801;-5.3954;
603.9000;0.9744;-5.4162;
604.2000;0.9662;-5.4343;
604.5000;0.9613;-5.4421;
604.8000;0.9581;-5.4473;
605.1000;0.9499;-5.4602;
605.4000;0.9467;-5.4732;
605.7000;0.9418;-5.4809;
606.0000;0.9385;-5.4861;
606.3000;0.9320;-5.4939;
606.6000;0.9271;-5.5094;
606.9000;0.9231;-5.5068;
607.2000;0.9214;-5.5016;
607.5000;0.9133;-5.5146;
607.8000;0.9109;-5.5120;
608.1000;0.9076;-5.5094;
608.4000;0.9052;-5.5120;
608.7000;0.9019;-5.5275;
609.0000;0.8978;-5.5379;
609.3000;0.8962;-5.5353;
609.6000;0.8897;-5.5457;
609.9000;0.8905;-5.5405;
610.2000;0.8881;-5.5353;
610.5000;0.8816;-5.5431;
610.8000;0.8742;-5.5509;
611.1000;0.8767;-5.5431;
611.4000;0.8751;-5.5405;
611.7000;0.8702;-5.5457;
612.0000;0.8677;-5.5535;
612.3000;0.8653;-5.5483;
612.6000;0.8612;-5.5560;
612.9000;0.8588;-5.5535;
613.2000;0.8588;-5.5509;
613.5000;0.8563;-5.5483;
613.8000;0.8523;-5.5612;
614.1000;0.8514;-5.5560;
614.4000;0.8474;-5.5638;
614.7000;0.8457;-5.5819;
615.0000;0.8474;-5.5716;
615.3000;0.8417;-5.5664;
615.6000;0.8384;-5.5690;
615.9000;0.8368;-5.5768;
616.2000;0.8368;-5.5742;
616.5000;0.8360;-5.5664;
616.8000;0.8319;-5.5690;
617.1000;0.8319;-5.5638;
617.4000;0.8295;-5.5690;
617.7000;0.8262;-5.5794;
618.0000;0.8246;-5.5819;
618.3000;0.8238;-5.5871;
618.6000;0.8205;-5.5871;
618.9000;0.8181;-5.5975;
619.2000;0.8173;-5.5949;
619.5000;0.8197;-5.5923;
619.8000;0.8132;-5.5975;
620.1000;0.8099;-5.5975;
620.4000;0.8132;-5.5794;
620.7000;0.8091;-5.5819;
621.0000;0.8083;-5.5794;
621.3000;0.8075;-5.5871;
621.6000;0.8034;-5.6001;
621.9000;0.8042;-5.6027;
622.2000;0.8018;-5.6104;
622.5000;0.8018;-5.6078;
622.8000;0.8018;-5.6053;
623.1000;0.7985;-5.6078;
623.4000;0.7977;-5.5949;
623.7000;0.7985;-5.6001;
624.0000;0.7969;-5.6027;
624.3000;0.7945;-5.6001;
624.6000;0.7945;-5.5949;
624.9000;0.7920;-5.5871;
625.2000;0.7896;-5.5871;
625.5000;0.7823;-5.6078;
625.8000;0.7871;-5.6001;
626.1000;0.7863;-5.6053;
626.4000;0.7904;-5.6027;
626.7000;0.7839;-5.6182;
627.0000;0.7814;-5.6182;
627.3000;0.7823;-5.6182;
627.6000;0.7814;-5.6053;
627.9000;0.7782;-5.6130;
628.2000;0.7774;-5.6130;
628.5000;0.7774;-5.6027;
628.8000;0.7790;-5.6001;
629.1000;0.7757;-5.6001;
629.4000;0.7725;-5.6104;
629.7000;0.7717;-5.6078;
630.0000;0.7700;-5.6104;
630.3000;0.7725;-5.6053;
630.6000;0.7700;-5.6234;
630.9000;0.7725;-5.6053;
631.2000;0.7668;-5.6078;
631.5000;0.7692;-5.6104;
631.8000;0.7684;-5.6182;
632.1000;0.7660;-5.6182;
632.4000;0.7643;-5.6156;
632.7000;0.7676;-5.6001;
633.0000;0.7643;-5.6104;
633.3000;0.7635;-5.6053;
633.6000;0.7578;-5.6130;
633.9000;0.7619;-5.6078;
634.2000;0.7660;-5.5949;
634.5000;0.7595;-5.6053;
634.8000;0.7578;-5.6078;
635.1000;0.7578;-5.6078;
635.4000;0.7586;-5.5949;
635.7000;0.7570;-5.5871;
636.0000;0.7538;-5.5819;
636.3000;0.7562;-5.5794;
636.6000;0.7554;-5.5871;
636.9000;0.7538;-5.5923;
637.2000;0.7513;-5.5949;
637.5000;0.7521;-5.5975;
637.8000;0.7513;-5.5949;
638.1000;0.7521;-5.6027;
638.4000;0.7473;-5.6053;
638.7000;0.7497;-5.5975;
639.0000;0.7497;-5.5975;
639.3000;0.7481;-5.6130;
639.6000;0.7497;-5.6156;
639.9000;0.7448;-5.6234;
640.2000;0.7481;-5.6156;
640.5000;0.7464;-5.6156;
640.8000;0.7440;-5.6156;
641.1000;0.7448;-5.6156;
641.4000;0.7367;-5.6363;
641.7000;0.7432;-5.6234;
642.0000;0.7416;-5.6182;
642.3000;0.7440;-5.6130;
642.6000;0.7407;-5.6260;
642.9000;0.7416;-5.6260;
643.2000;0.7399;-5.6156;
643.5000;0.7391;-5.6104;
643.8000;0.7391;-5.6156;
644.1000;0.7416;-5.6053;
644.4000;0.7310;-5.6286;
644.7000;0.7375;-5.6130;
645.0000;0.7375;-5.6208;
645.3000;0.7375;-5.6260;
645.6000;0.7367;-5.6286;
645.9000;0.7342;-5.6286;
646.2000;0.7334;-5.6286;
646.5000;0.7326;-5.6312;
646.8000;0.7342;-5.6363;
647.1000;0.7342;-5.6363;
647.4000;0.7326;-5.6389;
647.7000;0.7318;-5.6389;
648.0000;0.7326;-5.6337;
648.3000;0.7310;-5.6363;
648.6000;0.7302;-5.6363;
648.9000;0.7285;-5.6441;
649.2000;0.7293;-5.6441;
649.5000;0.7269;-5.6389;
649.8000;0.7261;-5.6363;
650.1000;0.7269;-5.6312;
650.4000;0.7261;-5.6260;
650.7000;0.7269;-5.6234;
651.0000;0.7269;-5.6286;
651.3000;0.7245;-5.6286;
651.6000;0.7236;-5.6286;
651.9000;0.7245;-5.6260;
652.2000;0.7245;-5.6286;
652.5000;0.7220;-5.6286;
652.8000;0.7261;-5.6234;
653.1000;0.7212;-5.6260;
653.4000;0.7212;-5.6312;
653.7000;0.7212;-5.6234;
654.0000;0.7228;-5.6104;
654.3000;0.7212;-5.6104;
654.6000;0.7196;-5.6156;
654.9000;0.7188;-5.6156;
655.2000;0.7188;-5.6130;
655.5000;0.7179;-5.6078;
655.8000;0.7228;-5.5923;
656.1000;0.7163;-5.6027;
656.4000;0.7163;-5.6027;
656.7000;0.7212;-5.5923;
657.0000;0.7163;-5.5949;
657.3000;0.7155;-5.5897;
657.6000;0.7163;-5.5871;
657.9000;0.7155;-5.5897;
658.2000;0.7155;-5.5845;
658.5000;0.7139;-5.5975;
658.8000;0.7139;-5.5975;
659.1000;0.7131;-5.6027;
659.4000;0.7139;-5.5949;
659.7000;0.7139;-5.5975;
660.0000;0.7123;-5.5975;
660.3000;0.7131;-5.5871;
660.6000;0.7131;-5.5845;
660.9000;0.7131;-5.5897;
661.2000;0.7098;-5.6027;
661.5000;0.7106;-5.5975;
661.8000;0.7049;-5.6078;
662.1000;0.7139;-5.5871;
662.4000;0.7106;-5.5845;
662.7000;0.7139;-5.5742;
663.0000;0.7066;-5.5897;
663.3000;0.7074;-5.5923;
663.6000;0.7106;-5.5742;
663.9000;0.7074;-5.5819;
664.2000;0.7066;-5.5871;
664.5000;0.7049;-5.5897;
664.8000;0.7131;-5.5742;
665.1000;0.7057;-5.5871;
665.4000;0.7049;-5.5871;
665.7000;0.7041;-5.5923;
666.0000;0.7049;-5.5975;
666.3000;0.7025;-5.6053;
666.6000;0.7033;-5.6078;
666.9000;0.7025;-5.6053;
667.2000;0.7017;-5.6053;
667.5000;0.6952;-5.6182;
667.8000;0.7025;-5.5975;
668.1000;0.7000;-5.6027;
668.4000;0.6992;-5.6104;
668.7000;0.7017;-5.6053;
669.0000;0.6952;-5.6130;
669.3000;0.7000;-5.5975;
669.6000;0.6992;-5.5897;
669.9000;0.6992;-5.6027;
670.2000;0.6984;-5.6104;
670.5000;0.6984;-5.6104;
670.8000;0.6976;-5.6260;
671.1000;0.7025;-5.6027;
671.4000;0.6976;-5.6130;
671.7000;0.6976;-5.6104;
672.0000;0.6960;-5.6130;
672.3000;0.6976;-5.6234;
672.6000;0.6968;-5.6234;
672.9000;0.6960;-5.6337;
673.2000;0.6935;-5.6389;
673.5000;0.6968;-5.6312;
673.8000;0.6968;-5.6260;
674.1000;0.6960;-5.6286;
674.4000;0.6943;-5.6286;
674.7000;0.6976;-5.6182;
675.0000;0.6952;-5.6182;
675.3000;0.6943;-5.6286;
675.6000;0.6943;-5.6312;
675.9000;0.6927;-5.6234;
676.2000;0.6943;-5.6208;
676.5000;0.6919;-5.6286;
676.8000;0.6919;-5.6286;
677.1000;0.6911;-5.6286;
677.4000;0.6895;-5.6208;
677.7000;0.6895;-5.6182;
678.0000;0.6886;-5.6182;
678.3000;0.6886;-5.6130;
678.6000;0.6903;-5.6053;
678.9000;0.6919;-5.6078;
679.2000;0.6927;-5.6130;
679.5000;0.6895;-5.6260;
679.8000;0.6895;-5.6260;
680.1000;0.6886;-5.6234;
680.4000;0.6895;-5.6182;
680.7000;0.6854;-5.6182;
681.0000;0.6878;-5.6130;
681.3000;0.6862;-5.6130;
681.6000;0.6903;-5.6078;
681.9000;0.6838;-5.6182;
682.2000;0.6878;-5.6130;
682.5000;0.6870;-5.6182;
682.8000;0.6854;-5.6208;
683.1000;0.6862;-5.6104;
683.4000;0.6862;-5.6130;
683.7000;0.6846;-5.6208;
684.0000;0.6838;-5.6104;
684.3000;0.6862;-5.6053;
684.6000;0.6854;-5.6027;
684.9000;0.6838;-5.6078;
685.2000;0.6846;-5.6078;
685.5000;0.6854;-5.6027;
685.8000;0.6821;-5.6130;
686.1000;0.6829;-5.6053;
686.4000;0.6838;-5.6104;
686.7000;0.6789;-5.6208;
687.0000;0.6805;-5.6234;
687.3000;0.6838;-5.6182;
687.6000;0.6838;-5.6156;
687.9000;0.6805;-5.6182;
688.2000;0.6805;-5.6156;
688.5000;0.6813;-5.6104;
688.8000;0.6838;-5.5949;
689.1000;0.6821;-5.5949;
689.4000;0.6805;-5.6053;
689.7000;0.6805;-5.6104;
690.0000;0.6797;-5.6182;
690.3000;0.6805;-5.6053;
690.6000;0.6838;-5.6053;
690.9000;0.6789;-5.6104;
691.2000;0.6797;-5.6053;
691.5000;0.6797;-5.6130;
691.8000;0.6781;-5.6104;
692.1000;0.6772;-5.6078;
692.4000;0.6764;-5.6078;
692.7000;0.6772;-5.6104;
693.0000;0.6764;-5.6104;
693.3000;0.6772;-5.6001;
693.6000;0.6756;-5.5975;
693.9000;0.6683;-5.6182;
694.2000;0.6756;-5.6053;
694.5000;0.6764;-5.6053;
694.8000;0.6756;-5.6078;
695.1000;0.6756;-5.6130;
695.4000;0.6748;-5.6104;
695.7000;0.6756;-5.6130;
696.0000;0.6756;-5.6078;
696.3000;0.6740;-5.6078;
696.6000;0.6740;-5.6078;
696.9000;0.6756;-5.5949;
697.2000;0.6740;-5.5897;
697.5000;0.6724;-5.5949;
697.8000;0.6756;-5.5975;
698.1000;0.6732;-5.6078;
698.4000;0.6732;-5.6104;
698.7000;0.6699;-5.6104;
699.0000;0.6740;-5.5897;
699.3000;0.6740;-5.5975;
699.6000;0.6716;-5.5975;
699.9000;0.6724;-5.6001;
700.2000;0.6707;-5.5975;
700.5000;0.6732;-5.5871;
700.8000;0.6699;-5.5975;
701.1000;0.6691;-5.6001;
701.4000;0.6675;-5.6078;
701.7000;0.6699;-5.6053;
702.0000;0.6699;-5.6130;
702.3000;0.6683;-5.6182;
702.6000;0.6699;-5.6156;
702.9000;0.6610;-5.6312;
703.2000;0.6683;-5.6104;
703.5000;0.6691;-5.6078;
703.8000;0.6683;-5.6130;
704.1000;0.6675;-5.6053;
704.4000;0.6650;-5.6130;
704.7000;0.6691;-5.5975;
705.0000;0.6545;-5.6260;
705.3000;0.6650;-5.6104;
705.6000;0.6707;-5.6104;
705.9000;0.6675;-5.6130;
706.2000;0.6675;-5.6104;
706.5000;0.6667;-5.6027;
706.8000;0.6667;-5.6027;
707.1000;0.6707;-5.5949;
707.4000;0.6642;-5.6027;
707.7000;0.6659;-5.5975;
708.0000;0.6675;-5.5949;
708.3000;0.6667;-5.6001;
708.6000;0.6716;-5.5794;
708.9000;0.6642;-5.5923;
709.2000;0.6650;-5.5871;
709.5000;0.6707;-5.5716;
709.8000;0.6659;-5.5897;
710.1000;0.6585;-5.6078;
710.4000;0.6602;-5.6001;
710.7000;0.6610;-5.6053;
711.0000;0.6634;-5.6027;
711.3000;0.6634;-5.6027;
711.6000;0.6618;-5.6130;
711.9000;0.6618;-5.6078;
712.2000;0.6634;-5.6027;
712.5000;0.6667;-5.5975;
712.8000;0.6634;-5.6078;
713.1000;0.6626;-5.6001;
713.4000;0.6618;-5.6027;
713.7000;0.6626;-5.5897;
714.0000;0.6528;-5.6130;
714.3000;0.6626;-5.5897;
714.6000;0.6634;-5.5923;
714.9000;0.6634;-5.5897;
715.2000;0.6610;-5.5897;
715.5000;0.6585;-5.5975;
715.8000;0.6593;-5.5949;
716.1000;0.6602;-5.5949;
716.4000;0.6593;-5.5975;
716.7000;0.6593;-5.5897;
717.0000;0.6593;-5.5897;
717.3000;0.6593;-5.6001;
717.6000;0.6585;-5.6130;
717.9000;0.6593;-5.6156;
718.2000;0.6593;-5.6027;
718.5000;0.6536;-5.6156;
718.8000;0.6585;-5.5949;
719.1000;0.6618;-5.5871;
719.4000;0.6536;-5.6027;
719.7000;0.6602;-5.5845;
720.0000;0.6577;-5.5871;
720.3000;0.6561;-5.5897;
720.6000;0.6569;-5.5897;
720.9000;0.6569;-5.5923;
721.2000;0.6593;-5.5897;
721.5000;0.6569;-5.5949;
721.8000;0.6561;-5.5975;
722.1000;0.6561;-5.5975;
722.4000;0.6561;-5.6027;
722.7000;0.6536;-5.6027;
723.0000;0.6577;-5.5897;
723.3000;0.6569;-5.5845;
723.6000;0.6602;-5.5768;
723.9000;0.6561;-5.5923;
724.2000;0.6569;-5.5923;
724.5000;0.6553;-5.5975;
724.8000;0.6593;-5.5923;
725.1000;0.6545;-5.6001;
725.4000;0.6553;-5.6104;
725.7000;0.6536;-5.6104;
726.0000;0.6545;-5.6078;
726.3000;0.6545;-5.6053;
726.6000;0.6536;-5.6001;
726.9000;0.6496;-5.6078;
727.2000;0.6545;-5.6027;
727.5000;0.6553;-5.5975;
727.8000;0.6504;-5.6078;
728.1000;0.6528;-5.6027;
728.4000;0.6553;-5.5975;
728.7000;0.6520;-5.6156;
729.0000;0.6536;-5.6104;
729.3000;0.6504;-5.6234;
729.6000;0.6512;-5.6260;
729.9000;0.6520;-5.6234;
730.2000;0.6528;-5.6208;
730.5000;0.6528;-5.6104;
730.8000;0.6504;-5.6156;
731.1000;0.6528;-5.6104;
731.4000;0.6520;-5.6078;
731.7000;0.6512;-5.6027;
732.0000;0.6512;-5.6001;
732.3000;0.6504;-5.6104;
732.6000;0.6520;-5.6001;
732.9000;0.6520;-5.6027;
733.2000;0.6520;-5.6027;
733.5000;0.6512;-5.6104;
733.8000;0.6528;-5.6053;
734.1000;0.6545;-5.5949;
734.4000;0.6439;-5.6234;
734.7000;0.6479;-5.6104;
735.0000;0.6488;-5.6104;
735.3000;0.6504;-5.6027;
735.6000;0.6488;-5.5923;
735.9000;0.6479;-5.5923;
736.2000;0.6488;-5.6027;
736.5000;0.6496;-5.6001;
736.8000;0.6512;-5.5975;
737.1000;0.6496;-5.5975;
737.4000;0.6512;-5.5975;
737.7000;0.6496;-5.6027;
738.0000;0.6479;-5.6104;
738.3000;0.6488;-5.6027;
738.6000;0.6504;-5.5923;
738.9000;0.6488;-5.5949;
739.2000;0.6488;-5.6078;
739.5000;0.6447;-5.6260;
739.8000;0.6479;-5.6208;
740.1000;0.6471;-5.6234;
740.4000;0.6479;-5.6156;
740.7000;0.6463;-5.6208;
741.0000;0.6479;-5.6130;
741.3000;0.6455;-5.6156;
741.6000;0.6496;-5.6078;
741.9000;0.6479;-5.6130;
742.2000;0.6439;-5.6234;
742.5000;0.6447;-5.6286;
742.8000;0.6463;-5.6182;
743.1000;0.6447;-5.6182;
743.4000;0.6406;-5.6337;
743.7000;0.6447;-5.6208;
744.0000;0.6455;-5.6182;
744.3000;0.6447;-5.6208;
744.6000;0.6447;-5.6156;
744.9000;0.6447;-5.6234;
745.2000;0.6447;-5.6363;
745.5000;0.6439;-5.6260;
745.8000;0.6439;-5.6156;
746.1000;0.6439;-5.6104;
746.4000;0.6455;-5.6027;
746.7000;0.6455;-5.6078;
747.0000;0.6463;-5.6104;
747.3000;0.6406;-5.6234;
747.6000;0.6447;-5.6104;
747.9000;0.6447;-5.6078;
748.2000;0.6455;-5.6027;
748.5000;0.6439;-5.6104;
748.8000;0.6422;-5.6182;
749.1000;0.6422;-5.6182;
749.4000;0.6414;-5.6182;
749.7000;0.6431;-5.6130;
750.0000;0.6455;-5.6104;
750.3000;0.6414;-5.6104;
750.6000;0.6447;-5.5975;
750.9000;0.6431;-5.5794;
751.2000;0.6439;-5.5819;
751.5000;0.6422;-5.5923;
751.8000;0.6455;-5.5845;
752.1000;0.6357;-5.6104;
752.4000;0.6422;-5.6027;
752.7000;0.6422;-5.6027;
753.0000;0.6422;-5.6104;
753.3000;0.6414;-5.6260;
753.6000;0.6374;-5.6389;
753.9000;0.6422;-5.6208;
754.2000;0.6447;-5.6130;
754.5000;0.6439;-5.6208;
754.8000;0.6414;-5.6260;
755.1000;0.6333;-5.6441;
755.4000;0.6439;-5.6234;
755.7000;0.6422;-5.6182;
756.0000;0.6406;-5.6208;
756.3000;0.6431;-5.6234;
756.6000;0.6406;-5.6156;
756.9000;0.6406;-5.6156;
757.2000;0.6431;-5.6130;
757.5000;0.6398;-5.6130;
757.8000;0.6439;-5.6027;
758.1000;0.6479;-5.5923;
758.4000;0.6398;-5.6182;
758.7000;0.6398;-5.6104;
759.0000;0.6422;-5.5975;
759.3000;0.6414;-5.5923;
759.6000;0.6382;-5.6001;
759.9000;0.6382;-5.6001;
760.2000;0.6374;-5.5975;
760.5000;0.6390;-5.5871;
760.8000;0.6414;-5.5845;
761.1000;0.6390;-5.6001;
761.4000;0.6382;-5.6104;
761.7000;0.6374;-5.6104;
762.0000;0.6406;-5.5975;
762.3000;0.6390;-5.6001;
762.6000;0.6414;-5.5975;
762.9000;0.6406;-5.5949;
763.2000;0.6390;-5.5897;
763.5000;0.6374;-5.5975;
763.8000;0.6398;-5.5897;
764.1000;0.6382;-5.5949;
764.4000;0.6382;-5.5923;
764.7000;0.6374;-5.5923;
765.0000;0.6365;-5.5949;
765.3000;0.6349;-5.5949;
765.6000;0.6382;-5.5923;
765.9000;0.6357;-5.5949;
766.2000;0.6357;-5.5923;
766.5000;0.6365;-5.5975;
766.8000;0.6357;-5.6027;
767.1000;0.6365;-5.5975;
767.4000;0.6341;-5.6001;
767.7000;0.6357;-5.5897;
768.0000;0.6374;-5.5923;
768.3000;0.6382;-5.5897;
768.6000;0.6365;-5.5949;
768.9000;0.6349;-5.6053;
769.2000;0.6341;-5.6053;
769.5000;0.6365;-5.5923;
769.8000;0.6374;-5.5819;
770.1000;0.6374;-5.5923;
770.4000;0.6325;-5.6053;
770.7000;0.6341;-5.6001;
771.0000;0.6374;-5.5923;
771.3000;0.6390;-5.5819;
771.6000;0.6341;-5.5923;
771.9000;0.6349;-5.5742;
772.2000;0.6365;-5.5664;
772.5000;0.6357;-5.5690;
772.8000;0.6365;-5.5794;
773.1000;0.6406;-5.5690;
773.4000;0.6357;-5.5845;
773.7000;0.6333;-5.5871;
774.0000;0.6341;-5.5819;
774.3000;0.6365;-5.5768;
774.6000;0.6333;-5.5742;
774.9000;0.6325;-5.5716;
775.2000;0.6309;-5.5716;
775.5000;0.6333;-5.5716;
775.8000;0.6341;-5.5768;
776.1000;0.6398;-5.5586;
776.4000;0.6325;-5.5845;
776.7000;0.6341;-5.5742;
777.0000;0.6349;-5.5768;
777.3000;0.6333;-5.5819;
777.6000;0.6357;-5.5794;
777.9000;0.6341;-5.5794;
778.2000;0.6357;-5.5794;
778.5000;0.6349;-5.5794;
778.8000;0.6325;-5.5768;
779.1000;0.6349;-5.5742;
779.4000;0.6333;-5.5819;
779.7000;0.6341;-5.5794;
780.0000;0.6317;-5.5845;
780.3000;0.6349;-5.5716;
780.6000;0.6325;-5.5819;
780.9000;0.6333;-5.5871;
781.2000;0.6276;-5.6001;
781.5000;0.6325;-5.5949;
781.8000;0.6309;-5.5897;
782.1000;0.6325;-5.5845;
782.4000;0.6317;-5.5819;
782.7000;0.6349;-5.5794;
783.0000;0.6300;-5.5845;
783.3000;0.6300;-5.5845;
783.6000;0.6300;-5.5871;
783.9000;0.6325;-5.5819;
784.2000;0.6284;-5.5794;
784.5000;0.6317;-5.5664;
784.8000;0.6325;-5.5690;
785.1000;0.6300;-5.5716;
785.4000;0.6300;-5.5794;
785.7000;0.6300;-5.5819;
786.0000;0.6292;-5.5742;
786.3000;0.6292;-5.5819;
786.6000;0.6292;-5.5845;
786.9000;0.6300;-5.5845;
787.2000;0.6309;-5.5897;
787.5000;0.6341;-5.5845;
787.8000;0.6317;-5.5949;
788.1000;0.6309;-5.5819;
788.4000;0.6317;-5.5742;
788.7000;0.6300;-5.5794;
789.0000;0.6317;-5.5768;
789.3000;0.6309;-5.5768;
789.6000;0.6317;-5.5690;
789.9000;0.6292;-5.5742;
790.2000;0.6309;-5.5638;
790.5000;0.6325;-5.5664;
790.8000;0.6284;-5.5664;
791.1000;0.6309;-5.5612;
791.4000;0.6317;-5.5638;
791.7000;0.6252;-5.5768;
792.0000;0.6260;-5.5716;
792.3000;0.6284;-5.5612;
792.6000;0.6284;-5.5690;
792.9000;0.6284;-5.5690;
793.2000;0.6300;-5.5638;
793.5000;0.6284;-5.5638;
793.8000;0.6309;-5.5535;
794.1000;0.6276;-5.5638;
794.4000;0.6252;-5.5690;
794.7000;0.6252;-5.5690;
795.0000;0.6309;-5.5483;
795.3000;0.6317;-5.5483;
795.6000;0.6268;-5.5560;
795.9000;0.6260;-5.5535;
796.2000;0.6292;-5.5457;
796.5000;0.6300;-5.5509;
796.8000;0.6260;-5.5742;
797.1000;0.6276;-5.5716;
797.4000;0.6325;-5.5612;
797.7000;0.6252;-5.5742;
798.0000;0.6276;-5.5716;
798.3000;0.6268;-5.5664;
798.6000;0.6252;-5.5742;
798.9000;0.6203;-5.5897;
799.2000;0.6276;-5.5690;
799.5000;0.6235;-5.5690;
799.8000;0.6292;-5.5560;
800.1000;0.6276;-5.5638;
800.4000;0.6219;-5.5716;
800.7000;0.6235;-5.5638;
801.0000;0.6219;-5.5690;
801.3000;0.6260;-5.5586;
801.6000;0.6252;-5.5638;
801.9000;0.6268;-5.5560;
802.2000;0.6260;-5.5664;
802.5000;0.6252;-5.5690;
802.8000;0.6276;-5.5664;
803.1000;0.6235;-5.5716;
803.4000;0.6227;-5.5690;
803.7000;0.6235;-5.5716;
804.0000;0.6243;-5.5664;
804.3000;0.6243;-5.5664;
804.6000;0.6260;-5.5664;
804.9000;0.6252;-5.5716;
805.2000;0.6252;-5.5768;
805.5000;0.6243;-5.5845;
805.8000;0.6235;-5.5871;
806.1000;0.6243;-5.5871;
806.4000;0.6219;-5.5871;
806.7000;0.6243;-5.5819;
807.0000;0.6235;-5.5871;
807.3000;0.6235;-5.5897;
807.6000;0.6235;-5.5871;
807.9000;0.6284;-5.5690;
808.2000;0.6252;-5.5819;
808.5000;0.6195;-5.5923;
808.8000;0.6235;-5.5716;
809.1000;0.6243;-5.5716;
809.4000;0.6252;-5.5586;
809.7000;0.6235;-5.5638;
810.0000;0.6268;-5.5560;
810.3000;0.6252;-5.5716;
810.6000;0.6186;-5.5768;
810.9000;0.6219;-5.5664;
811.2000;0.6227;-5.5768;
811.5000;0.6227;-5.5768;
811.8000;0.6243;-5.5638;
812.1000;0.6227;-5.5638;
812.4000;0.6154;-5.5768;
812.7000;0.6252;-5.5560;
813.0000;0.6252;-5.5535;
813.3000;0.6235;-5.5560;
813.6000;0.6227;-5.5560;
813.9000;0.6235;-5.5612;
814.2000;0.6211;-5.5612;
814.5000;0.6243;-5.5638;
814.8000;0.6235;-5.5586;
815.1000;0.6227;-5.5560;
815.4000;0.6227;-5.5586;
815.7000;0.6211;-5.5690;
816.0000;0.6219;-5.5716;
816.3000;0.6227;-5.5586;
816.6000;0.6203;-5.5586;
816.9000;0.6211;-5.5586;
817.2000;0.6219;-5.5612;
817.5000;0.6203;-5.5716;
817.8000;0.6260;-5.5586;
818.1000;0.6219;-5.5638;
818.4000;0.6227;-5.5690;
818.7000;0.6219;-5.5716;
819.0000;0.6195;-5.5742;
819.3000;0.6162;-5.5897;
819.6000;0.6203;-5.5768;
819.9000;0.6203;-5.5716;
820.2000;0.6235;-5.5664;
820.5000;0.6203;-5.5716;
820.8000;0.6203;-5.5742;
821.1000;0.6211;-5.5794;
821.4000;0.6211;-5.5871;
821.7000;0.6203;-5.5716;
822.0000;0.6203;-5.5690;
822.3000;0.6211;-5.5690;
822.6000;0.6203;-5.5690;
822.9000;0.6211;-5.5638;
823.2000;0.6203;-5.5560;
823.5000;0.6235;-5.5483;
823.8000;0.6211;-5.5535;
824.1000;0.6211;-5.5457;
824.4000;0.6219;-5.5457;
824.7000;0.6227;-5.5405;
825.0000;0.6227;-5.5405;
825.3000;0.6219;-5.5431;
825.6000;0.6195;-5.5483;
825.9000;0.6243;-5.5483;
826.2000;0.6195;-5.5586;
826.5000;0.6170;-5.5612;
826.8000;0.6195;-5.5535;
827.1000;0.6195;-5.5509;
827.4000;0.6203;-5.5509;
827.7000;0.6186;-5.5586;
828.0000;0.6252;-5.5509;
828.3000;0.6203;-5.5638;
828.6000;0.6211;-5.5664;
828.9000;0.6162;-5.5845;
829.2000;0.6211;-5.5586;
829.5000;0.6203;-5.5612;
829.8000;0.6203;-5.5560;
830.1000;0.6186;-5.5612;
830.4000;0.6211;-5.5535;
830.7000;0.6219;-5.5483;
831.0000;0.6227;-5.5431;
831.3000;0.6195;-5.5509;
831.6000;0.6195;-5.5638;
831.9000;0.6203;-5.5638;
832.2000;0.6195;-5.5612;
832.5000;0.6203;-5.5638;
832.8000;0.6162;-5.5690;
833.1000;0.6178;-5.5664;
833.4000;0.6186;-5.5664;
833.7000;0.6195;-5.5690;
834.0000;0.6195;-5.5716;
834.3000;0.6186;-5.5638;
834.6000;0.6195;-5.5638;
834.9000;0.6211;-5.5586;
835.2000;0.6195;-5.5535;
835.5000;0.6154;-5.5535;
835.8000;0.6195;-5.5457;
836.1000;0.6195;-5.5457;
836.4000;0.6195;-5.5483;
836.7000;0.6178;-5.5535;
837.0000;0.6178;-5.5535;
837.3000;0.6195;-5.5509;
837.6000;0.6195;-5.5431;
837.9000;0.6178;-5.5535;
838.2000;0.6170;-5.5586;
838.5000;0.6203;-5.5586;
838.8000;0.6186;-5.5535;
839.1000;0.6170;-5.5612;
839.4000;0.6162;-5.5560;
839.7000;0.6170;-5.5509;
840.0000;0.6268;-5.5327;
840.3000;0.6178;-5.5560;
840.6000;0.6170;-5.5560;
840.9000;0.6186;-5.5638;
841.2000;0.6154;-5.5690;
841.5000;0.6186;-5.5690;
841.8000;0.6162;-5.5716;
842.1000;0.6162;-5.5742;
842.4000;0.6113;-5.5897;
842.7000;0.6146;-5.5638;
843.0000;0.6162;-5.5612;
843.3000;0.6186;-5.5612;
843.6000;0.6154;-5.5586;
843.9000;0.6089;-5.5768;
844.2000;0.6195;-5.5535;
844.5000;0.6170;-5.5612;
844.8000;0.6178;-5.5612;
845.1000;0.6170;-5.5586;
845.4000;0.6178;-5.5586;
845.7000;0.6162;-5.5612;
846.0000;0.6219;-5.5509;
846.3000;0.6162;-5.5612;
846.6000;0.6186;-5.5560;
846.9000;0.6162;-5.5535;
847.2000;0.6178;-5.5431;
847.5000;0.6162;-5.5535;
847.8000;0.6195;-5.5509;
848.1000;0.6170;-5.5612;
848.4000;0.6162;-5.5664;
848.7000;0.6170;-5.5612;
849.0000;0.6170;-5.5457;
849.3000;0.6170;-5.5457;
849.6000;0.6186;-5.5457;
849.9000;0.6146;-5.5535;
850.2000;0.6170;-5.5560;
850.5000;0.6170;-5.5638;
850.8000;0.6154;-5.5690;
851.1000;0.6129;-5.5819;
851.4000;0.6178;-5.5638;
851.7000;0.6170;-5.5612;
852.0000;0.6129;-5.5664;
852.3000;0.6146;-5.5509;
852.6000;0.6113;-5.5560;
852.9000;0.6170;-5.5431;
853.2000;0.6138;-5.5509;
853.5000;0.6154;-5.5535;
853.8000;0.6162;-5.5509;
854.1000;0.6186;-5.5509;
854.4000;0.6154;-5.5560;
854.7000;0.6162;-5.5612;
855.0000;0.6146;-5.5638;
855.3000;0.6170;-5.5638;
855.6000;0.6154;-5.5664;
855.9000;0.6162;-5.5742;
856.2000;0.6170;-5.5716;
856.5000;0.6154;-5.5690;
856.8000;0.6154;-5.5716;
857.1000;0.6170;-5.5690;
857.4000;0.6146;-5.5819;
857.7000;0.6146;-5.5664;
858.0000;0.6162;-5.5560;
858.3000;0.6154;-5.5560;
858.6000;0.6154;-5.5586;
858.9000;0.6146;-5.5664;
859.2000;0.6162;-5.5716;
859.5000;0.6154;-5.5716;
859.8000;0.6146;-5.5742;
860.1000;0.6146;-5.5742;
860.4000;0.6154;-5.5716;
860.7000;0.6146;-5.5664;
861.0000;0.6146;-5.5690;
861.3000;0.6154;-5.5690;
861.6000;0.6154;-5.5638;
861.9000;0.6146;-5.5742;
862.2000;0.6129;-5.5794;
862.5000;0.6146;-5.5768;
862.8000;0.6227;-5.5586;
863.1000;0.6138;-5.5794;
863.4000;0.6138;-5.5690;
863.7000;0.6178;-5.5690;
864.0000;0.6170;-5.5819;
864.3000;0.6154;-5.5949;
864.6000;0.6138;-5.5897;
864.9000;0.6138;-5.5794;
865.2000;0.6113;-5.5742;
865.5000;0.6105;-5.5794;
865.8000;0.6121;-5.5794;
866.1000;0.6129;-5.5690;
866.4000;0.6138;-5.5742;
866.7000;0.6138;-5.5742;
867.0000;0.6129;-5.5742;
867.3000;0.6121;-5.5742;
867.6000;0.6121;-5.5716;
867.9000;0.6121;-5.5794;
868.2000;0.6154;-5.5690;
868.5000;0.6129;-5.5742;
868.8000;0.6121;-5.5845;
869.1000;0.6113;-5.5794;
869.4000;0.6121;-5.5742;
869.7000;0.6129;-5.5819;
870.0000;0.6121;-5.5794;
870.3000;0.6113;-5.5638;
870.6000;0.6121;-5.5638;
870.9000;0.6121;-5.5690;
871.2000;0.6129;-5.5638;
871.5000;0.6105;-5.5716;
871.8000;0.6138;-5.5690;
872.1000;0.6129;-5.5664;
872.4000;0.6113;-5.5690;
872.7000;0.6113;-5.5716;
873.0000;0.6121;-5.5716;
873.3000;0.6105;-5.5794;
873.6000;0.6105;-5.5742;
873.9000;0.6129;-5.5768;
874.2000;0.6138;-5.5768;
874.5000;0.6113;-5.5768;
874.8000;0.6113;-5.5794;
875.1000;0.6097;-5.5871;
875.4000;0.6146;-5.5742;
875.7000;0.6129;-5.5742;
876.0000;0.6129;-5.5768;
876.3000;0.6178;-5.5690;
876.6000;0.6121;-5.5794;
876.9000;0.6121;-5.5845;
877.2000;0.6121;-5.5845;
877.5000;0.6170;-5.5664;
877.8000;0.6121;-5.5742;
878.1000;0.6064;-5.5897;
878.4000;0.6105;-5.5845;
878.7000;0.6097;-5.5819;
879.0000;0.6089;-5.5742;
879.3000;0.6129;-5.5638;
879.6000;0.6129;-5.5664;
879.9000;0.6105;-5.5794;
880.2000;0.6105;-5.5794;
880.5000;0.6113;-5.5716;
880.8000;0.6113;-5.5664;
881.1000;0.6121;-5.5716;
881.4000;0.6121;-5.5716;
881.7000;0.6081;-5.5819;
882.0000;0.6113;-5.5664;
882.3000;0.6072;-5.5794;
882.6000;0.6097;-5.5716;
882.9000;0.6178;-5.5612;
883.2000;0.6089;-5.5923;
883.5000;0.6138;-5.5794;
883.8000;0.6129;-5.5819;
884.1000;0.6032;-5.5975;
884.4000;0.6113;-5.5819;
884.7000;0.6105;-5.5794;
885.0000;0.6113;-5.5845;
885.3000;0.6113;-5.5923;
885.6000;0.6121;-5.5923;
885.9000;0.6113;-5.5975;
886.2000;0.6121;-5.5949;
886.5000;0.6081;-5.6053;
886.8000;0.6113;-5.6001;
887.1000;0.6113;-5.5975;
887.4000;0.6105;-5.5949;
887.7000;0.6105;-5.5897;
888.0000;0.6089;-5.5949;
888.3000;0.6097;-5.5923;
888.6000;0.6097;-5.5871;
888.9000;0.6097;-5.5819;
889.2000;0.6089;-5.5845;
889.5000;0.6097;-5.5819;
889.8000;0.6105;-5.5871;
890.1000;0.6056;-5.6001;
890.4000;0.6105;-5.5897;
890.7000;0.6089;-5.6001;
891.0000;0.6129;-5.5923;
891.3000;0.6113;-5.5949;
891.6000;0.6121;-5.5949;
891.9000;0.6113;-5.5975;
892.2000;0.6113;-5.5975;
892.5000;0.6113;-5.5923;
892.8000;0.6097;-5.5897;
893.1000;0.6097;-5.5794;
893.4000;0.6081;-5.5819;
893.7000;0.6105;-5.5716;
894.0000;0.6105;-5.5690;
894.3000;0.6064;-5.5664;
894.6000;0.6089;-5.5612;
894.9000;0.6113;-5.5638;
895.2000;0.6072;-5.5612;
895.5000;0.6089;-5.5638;
895.8000;0.6089;-5.5612;
896.1000;0.6089;-5.5560;
896.4000;0.6097;-5.5509;
896.7000;0.6097;-5.5509;
897.0000;0.6081;-5.5586;
897.3000;0.6105;-5.5560;
897.6000;0.6105;-5.5509;
897.9000;0.6105;-5.5457;
898.2000;0.6089;-5.5509;
898.5000;0.6081;-5.5586;
898.8000;0.6105;-5.5483;
899.1000;0.6064;-5.5586;
899.4000;0.6081;-5.5509;
899.7000;0.6105;-5.5405;
900.0000;0.6162;-5.5405;
900.3000;0.6032;-5.5664;
900.6000;0.6138;-5.5431;
900.9000;0.6089;-5.5457;
901.2000;0.6097;-5.5379;
901.5000;0.6089;-5.5405;
901.8000;0.6121;-5.5431;
902.1000;0.6081;-5.5535;
902.4000;0.6089;-5.5560;
902.7000;0.6121;-5.5405;
903.0000;0.6081;-5.5457;
903.3000;0.6064;-5.5509;
903.6000;0.6072;-5.5586;
903.9000;0.6064;-5.5638;
904.2000;0.6072;-5.5612;
904.5000;0.6072;-5.5612;
904.8000;0.6064;-5.5612;
905.1000;0.6097;-5.5586;
905.4000;0.6081;-5.5612;
905.7000;0.6081;-5.5716;
906.0000;0.6072;-5.5716;
906.3000;0.6072;-5.5742;
906.6000;0.6089;-5.5716;
906.9000;0.6081;-5.5742;
907.2000;0.6072;-5.5768;
907.5000;0.6121;-5.5612;
907.8000;0.6146;-5.5612;
908.1000;0.6146;-5.5535;
908.4000;0.6081;-5.5742;
908.7000;0.6056;-5.5794;
909.0000;0.6064;-5.5716;
909.3000;0.6056;-5.5845;
909.6000;0.6072;-5.5794;
909.9000;0.6072;-5.5819;
910.2000;0.6097;-5.5638;
910.5000;0.6081;-5.5638;
910.8000;0.6081;-5.5690;
911.1000;0.6040;-5.5845;
911.4000;0.6089;-5.5716;
911.7000;0.6081;-5.5819;
912.0000;0.6064;-5.5845;
912.3000;0.6081;-5.5845;
912.6000;0.6081;-5.5819;
912.9000;0.6081;-5.5819;
913.2000;0.6040;-5.5845;
913.5000;0.6089;-5.5716;
913.8000;0.6064;-5.5768;
914.1000;0.6097;-5.5690;
914.4000;0.6064;-5.5742;
914.7000;0.6056;-5.5690;
915.0000;0.6064;-5.5612;
915.3000;0.6056;-5.5586;
915.6000;0.6089;-5.5483;
915.9000;0.6064;-5.5457;
916.2000;0.6064;-5.5509;
916.5000;0.6064;-5.5586;
916.8000;0.6072;-5.5742;
917.1000;0.6081;-5.5716;
917.4000;0.6072;-5.5742;
917.7000;0.6056;-5.5794;
918.0000;0.6081;-5.5742;
918.3000;0.6072;-5.5664;
918.6000;0.6072;-5.5586;
918.9000;0.6081;-5.5638;
919.2000;0.6089;-5.5638;
919.5000;0.6072;-5.5768;
919.8000;0.6081;-5.5690;
920.1000;0.6064;-5.5716;
920.4000;0.6072;-5.5664;
920.7000;0.6072;-5.5612;
921.0000;0.6089;-5.5638;
921.3000;0.6089;-5.5690;
921.6000;0.6072;-5.5664;
921.9000;0.6097;-5.5664;
922.2000;0.6064;-5.5664;
922.5000;0.6064;-5.5612;
922.8000;0.6081;-5.5586;
923.1000;0.6081;-5.5560;
923.4000;0.6081;-5.5586;
923.7000;0.6032;-5.5612;
924.0000;0.6064;-5.5612;
924.3000;0.6146;-5.5457;
924.6000;0.6064;-5.5638;
924.9000;0.6056;-5.5664;
925.2000;0.6072;-5.5690;
925.5000;0.6064;-5.5794;
925.8000;0.6064;-5.5819;
926.1000;0.6064;-5.5819;
926.4000;0.6064;-5.5871;
926.7000;0.6072;-5.5794;
927.0000;0.6097;-5.5742;
927.3000;0.6072;-5.5871;
927.6000;0.6007;-5.6104;
927.9000;0.6072;-5.5871;
928.2000;0.6089;-5.5638;
928.5000;0.6072;-5.5638;
928.8000;0.6072;-5.5638;
929.1000;0.6072;-5.5586;
929.4000;0.6056;-5.5716;
929.7000;0.6072;-5.5716;
930.0000;0.6072;-5.5742;
930.3000;0.6072;-5.5638;
930.6000;0.6048;-5.5664;
930.9000;0.6064;-5.5586;
931.2000;0.6072;-5.5509;
931.5000;0.6056;-5.5586;
931.8000;0.6056;-5.5535;
932.1000;0.6056;-5.5483;
932.4000;0.6081;-5.5483;
932.7000;0.6056;-5.5509;
933.0000;0.6064;-5.5535;
933.3000;0.6064;-5.5560;
933.6000;0.6056;-5.5509;
933.9000;0.6064;-5.5509;
934.2000;0.6089;-5.5535;
934.5000;0.6064;-5.5586;
934.8000;0.6064;-5.5612;
935.1000;0.6048;-5.5560;
935.4000;0.6064;-5.5483;
935.7000;0.6064;-5.5586;
936.0000;0.6072;-5.5586;
936.3000;0.6032;-5.5690;
936.6000;0.6040;-5.5716;
936.9000;0.6040;-5.5690;
937.2000;0.6056;-5.5509;
937.5000;0.6048;-5.5560;
937.8000;0.6040;-5.5664;
938.1000;0.6032;-5.5612;
938.4000;0.6048;-5.5535;
938.7000;0.6032;-5.5509;
939.0000;0.6056;-5.5379;
939.3000;0.6032;-5.5431;
939.6000;0.6056;-5.5483;
939.9000;0.6048;-5.5483;
940.2000;0.6024;-5.5509;
940.5000;0.6056;-5.5509;
940.8000;0.6056;-5.5586;
941.1000;0.6048;-5.5586;
941.4000;0.6024;-5.5535;
941.7000;0.6040;-5.5612;
942.0000;0.6040;-5.5560;
942.3000;0.6056;-5.5638;
942.6000;0.6056;-5.5690;
942.9000;0.5999;-5.5794;
943.2000;0.6048;-5.5612;
943.5000;0.6056;-5.5664;
943.8000;0.6048;-5.5716;
944.1000;0.6040;-5.5768;
944.4000;0.6064;-5.5586;
944.7000;0.6048;-5.5716;
945.0000;0.6056;-5.5638;
945.3000;0.6024;-5.5664;
945.6000;0.6040;-5.5612;
945.9000;0.6048;-5.5638;
946.2000;0.6048;-5.5612;
946.5000;0.6048;-5.5664;
946.8000;0.6040;-5.5664;
947.1000;0.6040;-5.5638;
947.4000;0.6056;-5.5612;
947.7000;0.5999;-5.5586;
948.0000;0.6024;-5.5535;
948.3000;0.6056;-5.5560;
948.6000;0.6040;-5.5638;
948.9000;0.6040;-5.5612;
949.2000;0.6048;-5.5638;
949.5000;0.6121;-5.5457;
949.8000;0.6048;-5.5509;
950.1000;0.6024;-5.5535;
950.4000;0.6064;-5.5431;
950.7000;0.6048;-5.5509;
951.0000;0.6056;-5.5560;
951.3000;0.5999;-5.5690;
951.6000;0.6032;-5.5690;
951.9000;0.6040;-5.5690;
952.2000;0.6048;-5.5768;
952.5000;0.6056;-5.5768;
952.8000;0.6032;-5.5742;
953.1000;0.6032;-5.5742;
953.4000;0.6048;-5.5742;
953.7000;0.6032;-5.5664;
954.0000;0.6048;-5.5612;
954.3000;0.6024;-5.5742;
954.6000;0.6040;-5.5638;
954.9000;0.6032;-5.5612;
955.2000;0.6040;-5.5586;
955.5000;0.6032;-5.5612;
955.8000;0.6032;-5.5509;
956.1000;0.6024;-5.5457;
956.4000;0.6040;-5.5431;
956.7000;0.6032;-5.5457;
957.0000;0.6032;-5.5457;
957.3000;0.6032;-5.5457;
957.6000;0.6032;-5.5509;
957.9000;0.6040;-5.5353;
958.2000;0.6032;-5.5431;
958.5000;0.6024;-5.5535;
958.8000;0.6040;-5.5431;
959.1000;0.6024;-5.5431;
959.4000;0.6048;-5.5457;
959.7000;0.6040;-5.5457;
960.0000;0.6032;-5.5509;
960.3000;0.6040;-5.5431;
960.6000;0.6032;-5.5483;
960.9000;0.6040;-5.5535;
961.2000;0.6024;-5.5535;
961.5000;0.6007;-5.5664;
961.8000;0.5999;-5.5612;
962.1000;0.6024;-5.5586;
962.4000;0.5999;-5.5612;
962.7000;0.6032;-5.5586;
963.0000;0.6040;-5.5612;
963.3000;0.6015;-5.5612;
963.6000;0.6024;-5.5535;
963.9000;0.6032;-5.5509;
964.2000;0.6032;-5.5431;
964.5000;0.6032;-5.5483;
964.8000;0.6024;-5.5457;
965.1000;0.6024;-5.5379;
965.4000;0.5975;-5.5560;
965.7000;0.6024;-5.5431;
966.0000;0.5991;-5.5586;
966.3000;0.6032;-5.5457;
966.6000;0.6040;-5.5405;
966.9000;0.6024;-5.5327;
967.2000;0.6032;-5.5405;
967.5000;0.6015;-5.5483;
967.8000;0.6024;-5.5535;
968.1000;0.6024;-5.5483;
968.4000;0.6015;-5.5483;
968.7000;0.6032;-5.5483;
969.0000;0.6072;-5.5327;
969.3000;0.6040;-5.5483;
969.6000;0.6024;-5.5457;
969.9000;0.6024;-5.5457;
970.2000;0.6024;-5.5483;
970.5000;0.6064;-5.5379;
970.8000;0.5999;-5.5509;
971.1000;0.6015;-5.5457;
971.4000;0.6040;-5.5353;
971.7000;0.6032;-5.5457;
972.0000;0.5999;-5.5560;
972.3000;0.6015;-5.5586;
972.6000;0.6032;-5.5586;
972.9000;0.6015;-5.5483;
973.2000;0.5967;-5.5509;
973.5000;0.6015;-5.5379;
973.8000;0.6024;-5.5379;
974.1000;0.6032;-5.5327;
974.4000;0.6040;-5.5301;
974.7000;0.6015;-5.5327;
975.0000;0.6032;-5.5327;
975.3000;0.6007;-5.5457;
975.6000;0.6024;-5.5405;
975.9000;0.6015;-5.5353;
976.2000;0.6007;-5.5431;
976.5000;0.6015;-5.5405;
976.8000;0.6024;-5.5431;
977.1000;0.6032;-5.5431;
977.4000;0.6048;-5.5457;
977.7000;0.6024;-5.5560;
978.0000;0.6032;-5.5560;
978.3000;0.6015;-5.5664;
978.6000;0.6007;-5.5690;
978.9000;0.6024;-5.5638;
979.2000;0.6024;-5.5690;
979.5000;0.6015;-5.5690;
979.8000;0.6040;-5.5664;
980.1000;0.6007;-5.5716;
980.4000;0.6015;-5.5742;
980.7000;0.6015;-5.5716;
981.0000;0.5967;-5.5845;
981.3000;0.5999;-5.5638;
981.6000;0.6024;-5.5560;
981.9000;0.6040;-5.5457;
982.2000;0.5983;-5.5638;
982.5000;0.6007;-5.5586;
982.8000;0.5950;-5.5664;
983.1000;0.6056;-5.5379;
983.4000;0.6032;-5.5535;
983.7000;0.6015;-5.5586;
984.0000;0.6024;-5.5586;
984.3000;0.5942;-5.5690;
984.6000;0.6007;-5.5586;
984.9000;0.6007;-5.5483;
985.2000;0.5991;-5.5560;
985.5000;0.6007;-5.5560;
985.8000;0.5999;-5.5586;
986.1000;0.5991;-5.5560;
986.4000;0.5991;-5.5535;
986.7000;0.6007;-5.5483;
987.0000;0.5999;-5.5457;
987.3000;0.6015;-5.5431;
987.6000;0.5991;-5.5457;
987.9000;0.6007;-5.5457;
988.2000;0.6015;-5.5560;
988.5000;0.6007;-5.5535;
988.8000;0.6007;-5.5509;
989.1000;0.6007;-5.5560;
989.4000;0.5999;-5.5535;
989.7000;0.6007;-5.5560;
990.0000;0.6007;-5.5560;
990.3000;0.6007;-5.5638;
990.6000;0.5967;-5.5664;
990.9000;0.6015;-5.5560;
991.2000;0.6007;-5.5535;
991.5000;0.5999;-5.5535;
991.8000;0.6007;-5.5457;
992.1000;0.6007;-5.5379;
992.4000;0.5999;-5.5483;
992.7000;0.6015;-5.5483;
993.0000;0.5991;-5.5405;
993.3000;0.6007;-5.5431;
993.6000;0.5934;-5.5586;
993.9000;0.5991;-5.5379;
994.2000;0.6007;-5.5301;
994.5000;0.6015;-5.5224;
994.8000;0.6015;-5.5224;
995.1000;0.5991;-5.5250;
995.4000;0.6007;-5.5224;
995.7000;0.6007;-5.5275;
996.0000;0.6015;-5.5275;
996.3000;0.5999;-5.5301;
996.6000;0.5991;-5.5327;
996.9000;0.5991;-5.5379;
997.2000;0.5967;-5.5405;
997.5000;0.5999;-5.5327;
997.8000;0.5999;-5.5301;
998.1000;0.5991;-5.5327;
998.4000;0.6007;-5.5301;
998.7000;0.5999;-5.5431;
999.0000;0.6015;-5.5431;
999.3000;0.6015;-5.5379;
999.6000;0.6081;-5.5146;
999.9000;0.5958;-5.5457;
1000.2000;0.6015;-5.5405;
1000.5000;0.6024;-5.5301;
1000.8000;0.6015;-5.5327;
1001.1000;0.6007;-5.5353;
1001.4000;0.6007;-5.5431;
1001.7000;0.5999;-5.5431;
1002.0000;0.5942;-5.5638;
1002.3000;0.6015;-5.5379;
1002.6000;0.6007;-5.5379;
1002.9000;0.5991;-5.5405;
1003.2000;0.5999;-5.5535;
1003.5000;0.5926;-5.5664;
1003.8000;0.5991;-5.5535;
1004.1000;0.6015;-5.5405;
1004.4000;0.6007;-5.5379;
1004.7000;0.6015;-5.5353;
1005.0000;0.6040;-5.5353;
1005.3000;0.5983;-5.5535;
1005.6000;0.5983;-5.5509;
1005.9000;0.5991;-5.5379;
1006.2000;0.5991;-5.5431;
1006.5000;0.5999;-5.5509;
1006.8000;0.5999;-5.5560;
1007.1000;0.6040;-5.5535;
1007.4000;0.5991;-5.5612;
1007.7000;0.5991;-5.5560;
1008.0000;0.5983;-5.5586;
1008.3000;0.5975;-5.5586;
1008.6000;0.6007;-5.5509;
1008.9000;0.5991;-5.5535;
1009.2000;0.5983;-5.5535;
1009.5000;0.5999;-5.5431;
1009.8000;0.6007;-5.5379;
1010.1000;0.5983;-5.5379;
1010.4000;0.5983;-5.5353;
1010.7000;0.6007;-5.5379;
1011.0000;0.5975;-5.5431;
1011.3000;0.5983;-5.5457;
1011.6000;0.5991;-5.5457;
1011.9000;0.6015;-5.5379;
1012.2000;0.6007;-5.5379;
1012.5000;0.5975;-5.5509;
1012.8000;0.6032;-5.5457;
1013.1000;0.5991;-5.5638;
1013.4000;0.5983;-5.5638;
1013.7000;0.5983;-5.5509;
1014.0000;0.6015;-5.5483;
1014.3000;0.5999;-5.5535;
1014.6000;0.5983;-5.5535;
1014.9000;0.5983;-5.5457;
1015.2000;0.6007;-5.5431;
1015.5000;0.6032;-5.5379;
1015.8000;0.6015;-5.5431;
1016.1000;0.5991;-5.5509;
1016.4000;0.5991;-5.5612;
1016.7000;0.5991;-5.5586;
1017.0000;0.5975;-5.5509;
1017.3000;0.5975;-5.5535;
1017.6000;0.5991;-5.5483;
1017.9000;0.6007;-5.5405;
1018.2000;0.5983;-5.5405;
1018.5000;0.5975;-5.5457;
1018.8000;0.5991;-5.5483;
1019.1000;0.6007;-5.5509;
1019.4000;0.5942;-5.5690;
1019.7000;0.5975;-5.5509;
1020.0000;0.6007;-5.5405;
1020.3000;0.5983;-5.5509;
1020.6000;0.6015;-5.5431;
1020.9000;0.5975;-5.5586;
1021.2000;0.5926;-5.5716;
1021.5000;0.6040;-5.5560;
1021.8000;0.5991;-5.5638;
1022.1000;0.5983;-5.5690;
1022.4000;0.5975;-5.5690;
1022.7000;0.5991;-5.5586;
1023.0000;0.5983;-5.5690;
1023.3000;0.5983;-5.5742;
1023.6000;0.5950;-5.5819;
1023.9000;0.5991;-5.5664;
1024.2000;0.6064;-5.5612;
1024.5000;0.5975;-5.5845;
1024.8000;0.5991;-5.5716;
1025.1000;0.5991;-5.5690;
1025.4000;0.5999;-5.5664;
1025.7000;0.6007;-5.5690;
1026.0000;0.5975;-5.5742;
1026.3000;0.5983;-5.5819;
1026.6000;0.5999;-5.5845;
1026.9000;0.5991;-5.5845;
1027.2000;0.5999;-5.5845;
1027.5000;0.5991;-5.5768;
1027.8000;0.5999;-5.5535;
1028.1000;0.5967;-5.5612;
1028.4000;0.5999;-5.5483;
1028.7000;0.5975;-5.5664;
1029.0000;0.5950;-5.5845;
1029.3000;0.6072;-5.5509;
1029.6000;0.5967;-5.5690;
1029.9000;0.5975;-5.5690;
1030.2000;0.5991;-5.5560;
1030.5000;0.5999;-5.5664;
1030.8000;0.5967;-5.5664;
1031.1000;0.5975;-5.5716;
1031.4000;0.5975;-5.5716;
1031.7000;0.5991;-5.5612;
1032.0000;0.5999;-5.5560;
1032.3000;0.6015;-5.5431;
1032.6000;0.5975;-5.5586;
1032.9000;0.5983;-5.5612;
1033.2000;0.5983;-5.5560;
1033.5000;0.5975;-5.5535;
1033.8000;0.5991;-5.5535;
1034.1000;0.5975;-5.5535;
1034.4000;0.5983;-5.5457;
1034.7000;0.5983;-5.5457;
1035.0000;0.5983;-5.5353;
1035.3000;0.5942;-5.5560;
1035.6000;0.5999;-5.5431;
1035.9000;0.5999;-5.5535;
1036.2000;0.5983;-5.5586;
1036.5000;0.5983;-5.5535;
1036.8000;0.5999;-5.5612;
1037.1000;0.5975;-5.5638;
1037.4000;0.5975;-5.5690;
1037.7000;0.5983;-5.5638;
1038.0000;0.5975;-5.5586;
1038.3000;0.6007;-5.5509;
1038.6000;0.5975;-5.5535;
1038.9000;0.5983;-5.5509;
1039.2000;0.5991;-5.5405;
1039.5000;0.5999;-5.5353;
1039.8000;0.5967;-5.5509;
1040.1000;0.5975;-5.5457;
1040.4000;0.5967;-5.5457;
1040.7000;0.5967;-5.5457;
1041.0000;0.5975;-5.5483;
1041.3000;0.5983;-5.5509;
1041.6000;0.5999;-5.5483;
1041.9000;0.5975;-5.5509;
1042.2000;0.5999;-5.5535;
1042.5000;0.5934;-5.5638;
1042.8000;0.5975;-5.5509;
1043.1000;0.5967;-5.5586;
1043.4000;0.5991;-5.5483;
1043.7000;0.5967;-5.5509;
1044.0000;0.5999;-5.5509;
1044.3000;0.5983;-5.5483;
1044.6000;0.5983;-5.5560;
1044.9000;0.5975;-5.5612;
1045.2000;0.5942;-5.5716;
1045.5000;0.6032;-5.5457;
1045.8000;0.5975;-5.5638;
1046.1000;0.5967;-5.5690;
1046.4000;0.5967;-5.5690;
1046.7000;0.5967;-5.5742;
1047.0000;0.5991;-5.5742;
1047.3000;0.5975;-5.5716;
1047.6000;0.5975;-5.5794;
1047.9000;0.5975;-5.5742;
1048.2000;0.6048;-5.5560;
1048.5000;0.5983;-5.5612;
1048.8000;0.5967;-5.5638;
1049.1000;0.5975;-5.5690;
1049.4000;0.5975;-5.5690;
1049.7000;0.5983;-5.5664;
1050.0000;0.5983;-5.5690;
1050.3000;0.5958;-5.5794;
1050.6000;0.5975;-5.5690;
1050.9000;0.5999;-5.5664;
1051.2000;0.5999;-5.5586;
1051.5000;0.5991;-5.5664;
1051.8000;0.5975;-5.5768;
1052.1000;0.5999;-5.5716;
1052.4000;0.5999;-5.5742;
1052.7000;0.5975;-5.5794;
1053.0000;0.5975;-5.5716;
1053.3000;0.5950;-5.5871;
1053.6000;0.5983;-5.5768;
1053.9000;0.5967;-5.5845;
1054.2000;0.5967;-5.5794;
1054.5000;0.5950;-5.5768;
1054.8000;0.5975;-5.5768;
1055.1000;0.5967;-5.5871;
1055.4000;0.5950;-5.5897;
1055.7000;0.5967;-5.5819;
1056.0000;0.5958;-5.5871;
1056.3000;0.5991;-5.5871;
1056.6000;0.5975;-5.5897;
1056.9000;0.5967;-5.5845;
1057.2000;0.5975;-5.5768;
1057.5000;0.5967;-5.5768;
1057.8000;0.5983;-5.5897;
1058.1000;0.5983;-5.5949;
1058.4000;0.6040;-5.5690;
1058.7000;0.5991;-5.5768;
1059.0000;0.5983;-5.5768;
1059.3000;0.6015;-5.5612;
1059.6000;0.5975;-5.5638;
1059.9000;0.5975;-5.5638;
1060.2000;0.5975;-5.5586;
1060.5000;0.5967;-5.5612;
1060.8000;0.5967;-5.5638;
1061.1000;0.5975;-5.5586;
1061.4000;0.6032;-5.5431;
1061.7000;0.5983;-5.5638;
1062.0000;0.5975;-5.5690;
1062.3000;0.5950;-5.5768;
1062.6000;0.5975;-5.5716;
1062.9000;0.5967;-5.5664;
1063.2000;0.5983;-5.5612;
1063.5000;0.5983;-5.5535;
1063.8000;0.5983;-5.5535;
1064.1000;0.5975;-5.5638;
1064.4000;0.5934;-5.5716;
1064.7000;0.5975;-5.5716;
1065.0000;0.5958;-5.5690;
1065.3000;0.5967;-5.5690;
1065.6000;0.5950;-5.5638;
1065.9000;0.5950;-5.5638;
1066.2000;0.5958;-5.5690;
1066.5000;0.5958;-5.5716;
1066.8000;0.5967;-5.5586;
1067.1000;0.5950;-5.5664;
1067.4000;0.5975;-5.5664;
1067.7000;0.5983;-5.5612;
1068.0000;0.5958;-5.5690;
1068.3000;0.5967;-5.5690;
1068.6000;0.5975;-5.5664;
1068.9000;0.5975;-5.5664;
1069.2000;0.5983;-5.5638;
1069.5000;0.5975;-5.5690;
1069.8000;0.5958;-5.5664;
1070.1000;0.5967;-5.5768;
1070.4000;0.5967;-5.5742;
1070.7000;0.5967;-5.5768;
1071.0000;0.5958;-5.5716;
1071.3000;0.5967;-5.5690;
1071.6000;0.5967;-5.5716;
1071.9000;0.5975;-5.5664;
1072.2000;0.5967;-5.5690;
1072.5000;0.5983;-5.5586;
1072.8000;0.5975;-5.5612;
1073.1000;0.5967;-5.5664;
1073.4000;0.5999;-5.5612;
1073.7000;0.5967;-5.5716;
1074.0000;0.5975;-5.5716;
1074.3000;0.6007;-5.5586;
1074.6000;0.5950;-5.5638;
1074.9000;0.5967;-5.5509;
1075.2000;0.5967;-5.5612;
1075.5000;0.5958;-5.5716;
1075.8000;0.5958;-5.5742;
1076.1000;0.5967;-5.5716;
1076.4000;0.5934;-5.5819;
1076.7000;0.5967;-5.5768;
1077.0000;0.5958;-5.5819;
1077.3000;0.5958;-5.5871;
1077.6000;0.5958;-5.5871;
1077.9000;0.5967;-5.5871;
1078.2000;0.5958;-5.5845;
1078.5000;0.5958;-5.5845;
1078.8000;0.5983;-5.5716;
1079.1000;0.5975;-5.5716;
1079.4000;0.5950;-5.5768;
1079.7000;0.5950;-5.5664;
1080.0000;0.5950;-5.5742;
1080.3000;0.5958;-5.5819;
1080.6000;0.5950;-5.5768;
1080.9000;0.5942;-5.5768;
1081.2000;0.5942;-5.5716;
1081.5000;0.5967;-5.5664;
1081.8000;0.5975;-5.5612;
1082.1000;0.5958;-5.5612;
1082.4000;0.5958;-5.5638;
1082.7000;0.5958;-5.5716;
1083.0000;0.5975;-5.5742;
1083.3000;0.5885;-5.5949;
1083.6000;0.5950;-5.5845;
1083.9000;0.5967;-5.5794;
1084.2000;0.5958;-5.5716;
1084.5000;0.5975;-5.5664;
1084.8000;0.5950;-5.5690;
1085.1000;0.5967;-5.5664;
1085.4000;0.5983;-5.5690;
1085.7000;0.5958;-5.5742;
1086.0000;0.5958;-5.5742;
1086.3000;0.5950;-5.5794;
1086.6000;0.5991;-5.5638;
1086.9000;0.5967;-5.5690;
1087.2000;0.5934;-5.5742;
1087.5000;0.5934;-5.5664;
1087.8000;0.5950;-5.5664;
1088.1000;0.5967;-5.5690;
1088.4000;0.5950;-5.5716;
1088.7000;0.5967;-5.5768;
1089.0000;0.5958;-5.5819;
1089.3000;0.5958;-5.5845;
1089.6000;0.5942;-5.5871;
1089.9000;0.5958;-5.5871;
1090.2000;0.5967;-5.5819;
1090.5000;0.5967;-5.5768;
1090.8000;0.5958;-5.5794;
1091.1000;0.5950;-5.5664;
1091.4000;0.5950;-5.5716;
1091.7000;0.5958;-5.5819;
1092.0000;0.5967;-5.5690;
1092.3000;0.5983;-5.5638;
1092.6000;0.5950;-5.5664;
1092.9000;0.5983;-5.5664;
1093.2000;0.5975;-5.5716;
1093.5000;0.5958;-5.5768;
1093.8000;0.5934;-5.5768;
1094.1000;0.5958;-5.5794;
1094.4000;0.5958;-5.5845;
1094.7000;0.5910;-5.5923;
1095.0000;0.5975;-5.5819;
1095.3000;0.5958;-5.5716;
1095.6000;0.5975;-5.5664;
1095.9000;0.5958;-5.5638;
1096.2000;0.5950;-5.5586;
1096.5000;0.5950;-5.5664;
1096.8000;0.5958;-5.5664;
1097.1000;0.5991;-5.5509;
1097.4000;0.5950;-5.5586;
1097.7000;0.5967;-5.5586;
1098.0000;0.5910;-5.5716;
1098.3000;0.5967;-5.5509;
1098.6000;0.5967;-5.5560;
1098.9000;0.5950;-5.5638;
1099.2000;0.5926;-5.5638;
1099.5000;0.5942;-5.5586;
1099.8000;0.5950;-5.5483;
1100.1000;0.5967;-5.5457;
1100.4000;0.5950;-5.5535;
1100.7000;0.5950;-5.5509;
1101.0000;0.5942;-5.5586;
1101.3000;0.5991;-5.5483;
1101.6000;0.5942;-5.5638;
1101.9000;0.5958;-5.5586;
1102.2000;0.5950;-5.5664;
1102.5000;0.5958;-5.5612;
1102.8000;0.5950;-5.5664;
1103.1000;0.5958;-5.5638;
1103.4000;0.5967;-5.5586;
1103.7000;0.5958;-5.5638;
1104.0000;0.5958;-5.5716;
1104.3000;0.5942;-5.5742;
1104.6000;0.5975;-5.5586;
1104.9000;0.5934;-5.5535;
1105.2000;0.5958;-5.5431;
1105.5000;0.5967;-5.5483;
1105.8000;0.5942;-5.5509;
1106.1000;0.5975;-5.5405;
1106.4000;0.5950;-5.5483;
1106.7000;0.5958;-5.5431;
1107.0000;0.5950;-5.5431;
1107.3000;0.5975;-5.5457;
1107.6000;0.5958;-5.5457;
1107.9000;0.5958;-5.5457;
1108.2000;0.5950;-5.5560;
1108.5000;0.5975;-5.5535;
1108.8000;0.5983;-5.5612;
1109.1000;0.5918;-5.5742;
1109.4000;0.5950;-5.5612;
1109.7000;0.5926;-5.5716;
1110.0000;0.5958;-5.5742;
1110.3000;0.5958;-5.5819;
1110.6000;0.5967;-5.5768;
1110.9000;0.5999;-5.5716;
1111.2000;0.5975;-5.5716;
1111.5000;0.5950;-5.5716;
1111.8000;0.5950;-5.5742;
1112.1000;0.5934;-5.5664;
1112.4000;0.5950;-5.5638;
1112.7000;0.5950;-5.5716;
1113.0000;0.5950;-5.5716;
1113.3000;0.5958;-5.5690;
1113.6000;0.5958;-5.5664;
1113.9000;0.5942;-5.5664;
1114.2000;0.5950;-5.5638;
1114.5000;0.5950;-5.5664;
1114.8000;0.5950;-5.5742;
1115.1000;0.5950;-5.5690;
1115.4000;0.6032;-5.5560;
1115.7000;0.5934;-5.5716;
1116.0000;0.5910;-5.5794;
1116.3000;0.5950;-5.5664;
1116.6000;0.6024;-5.5457;
1116.9000;0.5910;-5.5716;
1117.2000;0.5950;-5.5664;
1117.5000;0.5950;-5.5664;
1117.8000;0.5975;-5.5509;
1118.1000;0.5942;-5.5509;
1118.4000;0.5958;-5.5457;
1118.7000;0.5967;-5.5457;
1119.0000;0.5934;-5.5535;
1119.3000;0.5902;-5.5535;
1119.6000;0.5958;-5.5405;
1119.9000;0.5967;-5.5379;
1120.2000;0.5950;-5.5353;
1120.5000;0.5934;-5.5457;
1120.8000;0.5918;-5.5509;
1121.1000;0.5967;-5.5431;
1121.4000;0.5967;-5.5405;
1121.7000;0.5975;-5.5301;
1122.0000;0.5918;-5.5431;
1122.3000;0.5918;-5.5483;
1122.6000;0.5950;-5.5327;
1122.9000;0.5942;-5.5353;
1123.2000;0.5893;-5.5586;
1123.5000;0.5942;-5.5509;
1123.8000;0.5942;-5.5483;
1124.1000;0.5958;-5.5379;
1124.4000;0.5877;-5.5509;
1124.7000;0.5967;-5.5275;
1125.0000;0.5950;-5.5327;
1125.3000;0.5958;-5.5353;
1125.6000;0.5942;-5.5405;
1125.9000;0.5958;-5.5327;
1126.2000;0.5934;-5.5509;
1126.5000;0.5942;-5.5457;
1126.8000;0.5958;-5.5431;
1127.1000;0.5958;-5.5457;
1127.4000;0.5958;-5.5405;
1127.7000;0.5958;-5.5327;
1128.0000;0.5967;-5.5224;
1128.3000;0.5918;-5.5275;
1128.6000;0.5926;-5.5250;
1128.9000;0.5942;-5.5198;
1129.2000;0.5950;-5.5198;
1129.5000;0.5934;-5.5198;
1129.8000;0.5934;-5.5224;
1130.1000;0.5950;-5.5250;
1130.4000;0.5975;-5.5275;
1130.7000;0.5926;-5.5301;
1131.0000;0.5967;-5.5250;
1131.3000;0.5950;-5.5301;
1131.6000;0.5934;-5.5275;
1131.9000;0.5958;-5.5224;
1132.2000;0.5942;-5.5146;
1132.5000;0.5950;-5.5146;
1132.8000;0.5926;-5.5250;
1133.1000;0.5910;-5.5301;
1133.4000;0.5918;-5.5224;
1133.7000;0.5926;-5.5224;
1134.0000;0.5942;-5.5250;
1134.3000;0.5942;-5.5250;
1134.6000;0.5967;-5.5224;
1134.9000;0.5950;-5.5275;
1135.2000;0.5958;-5.5301;
1135.5000;0.5926;-5.5483;
1135.8000;0.5950;-5.5379;
1136.1000;0.5950;-5.5327;
1136.4000;0.5950;-5.5431;
1136.7000;0.5893;-5.5431;
1137.0000;0.5926;-5.5301;
1137.3000;0.5926;-5.5327;
1137.6000;0.5934;-5.5327;
1137.9000;0.5918;-5.5431;
1138.2000;0.5934;-5.5379;
1138.5000;0.5950;-5.5327;
1138.8000;0.5942;-5.5327;
1139.1000;0.5950;-5.5275;
1139.4000;0.6032;-5.5068;
1139.7000;0.5999;-5.5120;
1140.0000;0.5942;-5.5250;
1140.3000;0.5942;-5.5224;
1140.6000;0.5934;-5.5327;
1140.9000;0.5918;-5.5379;
1141.2000;0.5950;-5.5379;
1141.5000;0.5950;-5.5353;
1141.8000;0.5926;-5.5457;
1142.1000;0.5934;-5.5457;
1142.4000;0.5958;-5.5457;
1142.7000;0.5950;-5.5535;
1143.0000;0.5942;-5.5509;
1143.3000;0.5975;-5.5509;
1143.6000;0.5926;-5.5535;
1143.9000;0.5999;-5.5431;
1144.2000;0.5958;-5.5535;
1144.5000;0.5958;-5.5509;
1144.8000;0.5942;-5.5483;
1145.1000;0.5942;-5.5405;
1145.4000;0.5918;-5.5431;
1145.7000;0.5942;-5.5327;
1146.0000;0.5942;-5.5275;
1146.3000;0.5877;-5.5431;
1146.6000;0.5942;-5.5275;
1146.9000;0.5926;-5.5353;
1147.2000;0.5934;-5.5379;
1147.5000;0.5926;-5.5405;
1147.8000;0.5942;-5.5405;
1148.1000;0.5950;-5.5327;
1148.4000;0.5893;-5.5483;
1148.7000;0.5934;-5.5327;
1149.0000;0.5942;-5.5379;
1149.3000;0.5934;-5.5353;
1149.6000;0.5942;-5.5327;
1149.9000;0.5934;-5.5353;
1150.2000;0.5934;-5.5327;
1150.5000;0.5950;-5.5275;
1150.8000;0.5942;-5.5224;
1151.1000;0.5926;-5.5198;
1151.4000;0.5983;-5.5068;
1151.7000;0.5942;-5.5224;
1152.0000;0.5902;-5.5353;
1152.3000;0.5934;-5.5379;
1152.6000;0.5934;-5.5353;
1152.9000;0.5934;-5.5457;
1153.2000;0.5934;-5.5457;
1153.5000;0.5934;-5.5431;
1153.8000;0.5942;-5.5405;
1154.1000;0.5958;-5.5379;
1154.4000;0.5942;-5.5431;
1154.7000;0.5942;-5.5405;
1155.0000;0.5958;-5.5275;
1155.3000;0.5934;-5.5327;
1155.6000;0.5942;-5.5327;
1155.9000;0.5934;-5.5250;
1156.2000;0.5950;-5.5301;
1156.5000;0.5934;-5.5301;
1156.8000;0.5934;-5.5327;
1157.1000;0.5958;-5.5275;
1157.4000;0.5926;-5.5431;
1157.7000;0.5910;-5.5483;
1158.0000;0.5934;-5.5353;
1158.3000;0.5902;-5.5327;
1158.6000;0.5902;-5.5405;
1158.9000;0.5926;-5.5379;
1159.2000;0.5926;-5.5353;
1159.5000;0.5934;-5.5301;
1159.8000;0.5942;-5.5250;
1160.1000;0.5934;-5.5327;
1160.4000;0.6007;-5.5120;
1160.7000;0.5934;-5.5301;
1161.0000;0.5910;-5.5405;
1161.3000;0.5893;-5.5457;
1161.6000;0.5918;-5.5301;
1161.9000;0.5934;-5.5275;
1162.2000;0.5942;-5.5327;
1162.5000;0.5934;-5.5327;
1162.8000;0.5942;-5.5327;
1163.1000;0.5950;-5.5301;
1163.4000;0.5958;-5.5224;
1163.7000;0.5942;-5.5250;
1164.0000;0.5926;-5.5250;
1164.3000;0.5950;-5.5301;
1164.6000;0.5942;-5.5250;
1164.9000;0.5942;-5.5172;
1165.2000;0.5918;-5.5250;
1165.5000;0.5950;-5.5094;
1165.8000;0.5942;-5.5094;
1166.1000;0.5942;-5.5224;
1166.4000;0.5950;-5.5250;
1166.7000;0.5918;-5.5275;
1167.0000;0.5918;-5.5327;
1167.3000;0.5910;-5.5327;
1167.6000;0.5918;-5.5327;
1167.9000;0.5918;-5.5457;
1168.2000;0.5926;-5.5457;
1168.5000;0.5942;-5.5483;
1168.8000;0.5934;-5.5509;
1169.1000;0.5926;-5.5560;
1169.4000;0.5934;-5.5509;
1169.7000;0.5926;-5.5509;
1170.0000;0.5918;-5.5560;
1170.3000;0.5926;-5.5509;
1170.6000;0.5934;-5.5405;
1170.9000;0.5934;-5.5327;
1171.2000;0.5934;-5.5301;
1171.5000;0.5942;-5.5250;
1171.8000;0.5934;-5.5224;
1172.1000;0.5991;-5.5120;
1172.4000;0.5926;-5.5250;
1172.7000;0.5926;-5.5275;
1173.0000;0.5950;-5.5275;
1173.3000;0.5926;-5.5327;
1173.6000;0.5942;-5.5275;
1173.9000;0.5934;-5.5275;
1174.2000;0.5926;-5.5379;
1174.5000;0.5926;-5.5457;
1174.8000;0.5942;-5.5405;
1175.1000;0.5950;-5.5353;
1175.4000;0.5967;-5.5275;
1175.7000;0.5934;-5.5301;
1176.0000;0.5934;-5.5224;
1176.3000;0.5942;-5.5224;
1176.6000;0.5942;-5.5198;
1176.9000;0.5934;-5.5275;
1177.2000;0.5934;-5.5250;
1177.5000;0.5926;-5.5301;
1177.8000;0.5926;-5.5275;
1178.1000;0.5926;-5.5198;
1178.4000;0.5926;-5.5250;
1178.7000;0.5958;-5.5120;
1179.0000;0.5926;-5.5146;
1179.3000;0.5934;-5.5224;
1179.6000;0.5934;-5.5198;
1179.9000;0.5934;-5.5224;
1180.2000;0.5950;-5.5275;
1180.5000;0.5926;-5.5224;
1180.8000;0.5934;-5.5224;
1181.1000;0.5934;-5.5172;
1181.4000;0.5934;-5.5224;
1181.7000;0.5926;-5.5275;
1182.0000;0.5942;-5.5198;
1182.3000;0.5958;-5.5172;
1182.6000;0.5934;-5.5250;
1182.9000;0.5950;-5.5224;
1183.2000;0.5934;-5.5224;
1183.5000;0.5926;-5.5275;
1183.8000;0.5918;-5.5198;
1184.1000;0.5902;-5.5275;
1184.4000;0.5934;-5.5250;
1184.7000;0.5934;-5.5301;
1185.0000;0.5902;-5.5353;
1185.3000;0.5926;-5.5224;
1185.6000;0.5926;-5.5224;
1185.9000;0.5926;-5.5250;
1186.2000;0.5942;-5.5198;
1186.5000;0.5950;-5.5172;
1186.8000;0.5934;-5.5250;
1187.1000;0.5950;-5.5172;
1187.4000;0.5926;-5.5275;
1187.7000;0.5926;-5.5172;
1188.0000;0.5918;-5.5172;
1188.3000;0.5926;-5.5198;
1188.6000;0.5918;-5.5172;
1188.9000;0.5934;-5.5120;
1189.2000;0.5942;-5.5094;
1189.5000;0.5958;-5.5198;
1189.8000;0.5926;-5.5198;
1190.1000;0.5926;-5.5198;
1190.4000;0.5934;-5.5224;
1190.7000;0.5918;-5.5275;
1191.0000;0.5926;-5.5275;
1191.3000;0.5926;-5.5275;
1191.6000;0.5942;-5.5275;
1191.9000;0.5926;-5.5327;
1192.2000;0.5926;-5.5431;
1192.5000;0.5926;-5.5405;
1192.8000;0.5934;-5.5327;
1193.1000;0.5942;-5.5301;
1193.4000;0.6081;-5.4965;
1193.7000;0.5942;-5.5379;
1194.0000;0.5934;-5.5405;
1194.3000;0.5942;-5.5353;
1194.6000;0.5926;-5.5327;
1194.9000;0.5942;-5.5172;
1195.2000;0.5918;-5.5275;
1195.5000;0.5942;-5.5224;
1195.8000;0.5918;-5.5224;
1196.1000;0.5926;-5.5172;
1196.4000;0.5926;-5.5120;
1196.7000;0.5926;-5.5120;
1197.0000;0.5918;-5.5198;
1197.3000;0.5950;-5.5198;
1197.6000;0.5918;-5.5301;
1197.9000;0.5934;-5.5250;
1198.2000;0.5893;-5.5301;
1198.5000;0.5975;-5.5250;
1198.8000;0.5934;-5.5379;
1199.1000;0.5934;-5.5301;
1199.4000;0.5885;-5.5379;
1199.7000;0.5975;-5.5224;
1200.0000;0.5942;-5.5379;
1200.3000;0.5918;-5.5379;
1200.6000;0.5918;-5.5379;
1200.9000;0.5918;-5.5457;
1201.2000;0.5926;-5.5483;
1201.5000;0.5926;-5.5509;
1201.8000;0.5991;-5.5327;
1202.1000;0.5942;-5.5483;
1202.4000;0.5926;-5.5457;
1202.7000;0.5918;-5.5457;
1203.0000;0.5934;-5.5431;
1203.3000;0.5942;-5.5483;
1203.6000;0.5926;-5.5457;
1203.9000;0.5926;-5.5431;
1204.2000;0.5934;-5.5483;
1204.5000;0.5926;-5.5509;
1204.8000;0.5934;-5.5457;
1205.1000;0.5958;-5.5431;
1205.4000;0.5950;-5.5483;
1205.7000;0.5869;-5.5638;
1206.0000;0.5942;-5.5483;
1206.3000;0.5861;-5.5612;
1206.6000;0.6015;-5.5224;
1206.9000;0.5950;-5.5379;
1207.2000;0.5942;-5.5431;
1207.5000;0.5926;-5.5509;
1207.8000;0.5934;-5.5638;
1208.1000;0.5926;-5.5586;
1208.4000;0.5934;-5.5535;
1208.7000;0.5918;-5.5560;
1209.0000;0.5902;-5.5560;
1209.3000;0.5918;-5.5431;
1209.6000;0.5926;-5.5275;
1209.9000;0.5918;-5.5250;
1210.2000;0.5918;-5.5275;
1210.5000;0.5918;-5.5379;
1210.8000;0.5910;-5.5405;
1211.1000;0.5926;-5.5431;
1211.4000;0.5950;-5.5353;
1211.7000;0.5934;-5.5379;
1212.0000;0.5942;-5.5275;
1212.3000;0.5950;-5.5301;
1212.6000;0.5910;-5.5379;
1212.9000;0.5910;-5.5457;
1213.2000;0.5910;-5.5509;
1213.5000;0.5934;-5.5457;
1213.8000;0.5910;-5.5431;
1214.1000;0.5918;-5.5405;
1214.4000;0.5877;-5.5560;
1214.7000;0.5910;-5.5483;
1215.0000;0.5910;-5.5457;
1215.3000;0.5918;-5.5405;
1215.6000;0.5926;-5.5379;
1215.9000;0.5926;-5.5353;
1216.2000;0.5910;-5.5379;
1216.5000;0.5926;-5.5405;
1216.8000;0.5918;-5.5431;
1217.1000;0.5934;-5.5405;
1217.4000;0.5934;-5.5405;
1217.7000;0.5918;-5.5431;
1218.0000;0.5918;-5.5353;
1218.3000;0.5934;-5.5353;
1218.6000;0.5926;-5.5405;
1218.9000;0.5902;-5.5379;
1219.2000;0.5926;-5.5327;
1219.5000;0.5926;-5.5275;
1219.8000;0.5926;-5.5301;
1220.1000;0.5926;-5.5431;
1220.4000;0.5926;-5.5457;
1220.7000;0.5918;-5.5509;
1221.0000;0.5934;-5.5431;
1221.3000;0.5942;-5.5379;
1221.6000;0.5918;-5.5405;
1221.9000;0.5934;-5.5353;
1222.2000;0.5926;-5.5431;
1222.5000;0.5902;-5.5483;
1222.8000;0.5934;-5.5327;
1223.1000;0.5926;-5.5405;
1223.4000;0.5902;-5.5483;
1223.7000;0.5926;-5.5379;
1224.0000;0.5877;-5.5535;
1224.3000;0.5918;-5.5509;
1224.6000;0.5934;-5.5431;
1224.9000;0.5885;-5.5457;
1225.2000;0.5926;-5.5379;
1225.5000;0.5926;-5.5405;
1225.8000;0.5926;-5.5405;
1226.1000;0.5918;-5.5457;
1226.4000;0.5926;-5.5483;
1226.7000;0.5926;-5.5457;
1227.0000;0.5918;-5.5483;
1227.3000;0.5934;-5.5431;
1227.6000;0.5934;-5.5457;
1227.9000;0.5918;-5.5483;
1228.2000;0.5926;-5.5405;
1228.5000;0.5958;-5.5275;
1228.8000;0.5942;-5.5405;
1229.1000;0.5910;-5.5405;
1229.4000;0.5926;-5.5431;
1229.7000;0.5893;-5.5483;
1230.0000;0.5885;-5.5586;
1230.3000;0.5926;-5.5431;
1230.6000;0.5902;-5.5405;
1230.9000;0.5893;-5.5327;
1231.2000;0.5926;-5.5275;
1231.5000;0.5877;-5.5405;
1231.8000;0.5918;-5.5327;
1232.1000;0.5902;-5.5483;
1232.4000;0.5861;-5.5612;
1232.7000;0.5918;-5.5509;
1233.0000;0.5926;-5.5431;
1233.3000;0.5910;-5.5405;
1233.6000;0.5918;-5.5457;
1233.9000;0.5918;-5.5431;
1234.2000;0.5910;-5.5431;
1234.5000;0.5910;-5.5379;
1234.8000;0.5918;-5.5353;
1235.1000;0.5910;-5.5483;
1235.4000;0.5893;-5.5535;
1235.7000;0.5910;-5.5431;
1236.0000;0.5918;-5.5327;
1236.3000;0.5926;-5.5353;
1236.6000;0.5918;-5.5353;
1236.9000;0.5918;-5.5431;
1237.2000;0.5869;-5.5483;
1237.5000;0.5934;-5.5275;
1237.8000;0.5942;-5.5250;
1238.1000;0.5926;-5.5353;
1238.4000;0.5942;-5.5327;
1238.7000;0.5885;-5.5483;
1239.0000;0.5934;-5.5483;
1239.3000;0.5926;-5.5483;
1239.6000;0.5918;-5.5483;
1239.9000;0.5942;-5.5405;
1240.2000;0.5926;-5.5483;
1240.5000;0.5926;-5.5431;
1240.8000;0.5942;-5.5431;
1241.1000;0.5902;-5.5612;
1241.4000;0.5902;-5.5638;
1241.7000;0.5893;-5.5664;
1242.0000;0.5910;-5.5612;
1242.3000;0.5910;-5.5535;
1242.6000;0.5934;-5.5535;
1242.9000;0.5902;-5.5586;
1243.2000;0.5918;-5.5509;
1243.5000;0.5926;-5.5431;
1243.8000;0.5934;-5.5353;
1244.1000;0.5910;-5.5509;
1244.4000;0.5918;-5.5405;
1244.7000;0.5926;-5.5379;
1245.0000;0.5950;-5.5275;
1245.3000;0.5926;-5.5353;
1245.6000;0.5926;-5.5457;
1245.9000;0.5910;-5.5483;
1246.2000;0.5885;-5.5509;
1246.5000;0.5893;-5.5535;
1246.8000;0.5910;-5.5431;
1247.1000;0.5902;-5.5457;
1247.4000;0.5902;-5.5405;
1247.7000;0.5910;-5.5353;
1248.0000;0.5910;-5.5379;
1248.3000;0.5926;-5.5353;
1248.6000;0.5893;-5.5431;
1248.9000;0.5893;-5.5405;
1249.2000;0.5918;-5.5353;
1249.5000;0.5893;-5.5405;
1249.8000;0.5893;-5.5457;
1250.1000;0.5910;-5.5431;
1250.4000;0.5902;-5.5431;
1250.7000;0.5918;-5.5431;
1251.0000;0.5902;-5.5483;
1251.3000;0.5902;-5.5509;
1251.6000;0.5934;-5.5327;
1251.9000;0.5934;-5.5353;
1252.2000;0.5893;-5.5431;
1252.5000;0.5926;-5.5405;
1252.8000;0.5926;-5.5405;
1253.1000;0.5918;-5.5457;
1253.4000;0.5910;-5.5431;
1253.7000;0.5926;-5.5379;
1254.0000;0.5934;-5.5275;
1254.3000;0.5934;-5.5301;
1254.6000;0.5910;-5.5379;
1254.9000;0.5885;-5.5457;
1255.2000;0.5926;-5.5301;
1255.5000;0.5926;-5.5457;
1255.8000;0.5926;-5.5509;
1256.1000;0.5885;-5.5612;
1256.4000;0.5902;-5.5586;
1256.7000;0.5926;-5.5560;
1257.0000;0.5918;-5.5509;
1257.3000;0.5910;-5.5586;
1257.6000;0.5893;-5.5638;
1257.9000;0.5910;-5.5612;
1258.2000;0.5910;-5.5509;
1258.5000;0.5902;-5.5431;
1258.8000;0.5918;-5.5509;
1259.1000;0.5934;-5.5405;
1259.4000;0.5934;-5.5405;
1259.7000;0.5902;-5.5431;
1260.0000;0.5926;-5.5327;
1260.3000;0.5893;-5.5301;
1260.6000;0.5926;-5.5327;
1260.9000;0.5918;-5.5379;
1261.2000;0.5918;-5.5431;
1261.5000;0.5910;-5.5431;
1261.8000;0.5926;-5.5457;
1262.1000;0.5926;-5.5483;
1262.4000;0.5918;-5.5483;
1262.7000;0.5910;-5.5457;
1263.0000;0.5934;-5.5327;
1263.3000;0.5942;-5.5379;
1263.6000;0.5918;-5.5301;
1263.9000;0.5926;-5.5353;
1264.2000;0.5910;-5.5457;
1264.5000;0.5934;-5.5457;
1264.8000;0.5918;-5.5431;
1265.1000;0.5926;-5.5483;
1265.4000;0.5926;-5.5379;
1265.7000;0.5926;-5.5379;
1266.0000;0.5918;-5.5431;
1266.3000;0.5926;-5.5379;
1266.6000;0.5942;-5.5301;
1266.9000;0.5885;-5.5509;
1267.2000;0.5926;-5.5483;
1267.5000;0.5942;-5.5353;
1267.8000;0.5861;-5.5483;
1268.1000;0.5926;-5.5301;
1268.4000;0.5902;-5.5379;
1268.7000;0.5950;-5.5224;
1269.0000;0.5845;-5.5483;
1269.3000;0.5853;-5.5535;
1269.6000;0.5877;-5.5483;
1269.9000;0.5918;-5.5379;
1270.2000;0.5918;-5.5379;
1270.5000;0.5918;-5.5457;
1270.8000;0.5910;-5.5535;
1271.1000;0.5918;-5.5560;
1271.4000;0.5910;-5.5509;
1271.7000;0.5918;-5.5431;
1272.0000;0.5910;-5.5457;
1272.3000;0.5885;-5.5535;
1272.6000;0.5893;-5.5483;
1272.9000;0.5934;-5.5379;
1273.2000;0.5918;-5.5353;
1273.5000;0.5893;-5.5405;
1273.8000;0.5918;-5.5379;
1274.1000;0.5877;-5.5483;
1274.4000;0.5902;-5.5509;
1274.7000;0.5934;-5.5535;
1275.0000;0.5893;-5.5560;
1275.3000;0.5910;-5.5457;
1275.6000;0.5910;-5.5431;
1275.9000;0.5893;-5.5431;
1276.2000;0.5926;-5.5405;
1276.5000;0.5918;-5.5509;
1276.8000;0.5893;-5.5586;
1277.1000;0.5877;-5.5612;
1277.4000;0.5893;-5.5509;
1277.7000;0.5902;-5.5431;
1278.0000;0.5910;-5.5457;
1278.3000;0.5975;-5.5250;
1278.6000;0.5918;-5.5353;
1278.9000;0.5902;-5.5275;
1279.2000;0.5918;-5.5250;
1279.5000;0.5918;-5.5353;
1279.8000;0.5918;-5.5457;
1280.1000;0.5926;-5.5483;
1280.4000;0.5926;-5.5483;
1280.7000;0.5918;-5.5509;
1281.0000;0.5918;-5.5560;
1281.3000;0.5910;-5.5483;
1281.6000;0.5893;-5.5483;
1281.9000;0.5893;-5.5483;
1282.2000;0.5934;-5.5327;
1282.5000;0.5893;-5.5379;
1282.8000;0.5893;-5.5379;
1283.1000;0.5885;-5.5405;
1283.4000;0.5910;-5.5483;
1283.7000;0.5934;-5.5509;
1284.0000;0.5918;-5.5483;
1284.3000;0.5902;-5.5535;
1284.6000;0.5902;-5.5560;
1284.9000;0.5926;-5.5535;
1285.2000;0.5910;-5.5509;
1285.5000;0.5893;-5.5560;
1285.8000;0.5893;-5.5379;
1286.1000;0.5910;-5.5327;
1286.4000;0.5926;-5.5301;
1286.7000;0.5910;-5.5250;
1287.0000;0.5934;-5.5224;
1287.3000;0.5926;-5.5146;
1287.6000;0.5918;-5.5172;
1287.9000;0.5910;-5.5172;
1288.2000;0.5918;-5.5250;
1288.5000;0.5910;-5.5250;
1288.8000;0.5910;-5.5172;
1289.1000;0.5918;-5.5275;
1289.4000;0.5902;-5.5301;
1289.7000;0.5926;-5.5250;
1290.0000;0.5902;-5.5275;
1290.3000;0.5918;-5.5327;
1290.6000;0.5910;-5.5275;
1290.9000;0.5885;-5.5250;
1291.2000;0.5902;-5.5275;
1291.5000;0.5893;-5.5379;
1291.8000;0.5893;-5.5379;
1292.1000;0.5893;-5.5431;
1292.4000;0.5885;-5.5457;
1292.7000;0.5910;-5.5353;
1293.0000;0.5902;-5.5405;
1293.3000;0.5885;-5.5379;
1293.6000;0.5893;-5.5405;
1293.9000;0.5877;-5.5353;
1294.2000;0.5885;-5.5405;
1294.5000;0.5910;-5.5379;
1294.8000;0.5885;-5.5405;
1295.1000;0.5885;-5.5379;
1295.4000;0.5893;-5.5353;
1295.7000;0.5893;-5.5405;
1296.0000;0.5885;-5.5431;
1296.3000;0.5902;-5.5457;
1296.6000;0.5918;-5.5353;
1296.9000;0.5918;-5.5379;
1297.2000;0.5958;-5.5250;
1297.5000;0.5910;-5.5353;
1297.8000;0.5934;-5.5224;
1298.1000;0.5942;-5.5172;
1298.4000;0.5902;-5.5275;
1298.7000;0.5902;-5.5301;
1299.0000;0.5926;-5.5275;
1299.3000;0.5910;-5.5327;
1299.6000;0.5902;-5.5301;
1299.9000;0.5910;-5.5224;
1300.2000;0.5910;-5.5224;
1300.5000;0.5934;-5.5146;
1300.8000;0.5910;-5.5224;
1301.1000;0.5918;-5.5353;
1301.4000;0.5910;-5.5431;
1301.7000;0.5910;-5.5379;
1302.0000;0.5902;-5.5405;
1302.3000;0.5918;-5.5327;
1302.6000;0.5918;-5.5353;
1302.9000;0.5910;-5.5353;
1303.2000;0.5902;-5.5431;
1303.5000;0.5902;-5.5353;
1303.8000;0.5902;-5.5379;
1304.1000;0.5942;-5.5275;
1304.4000;0.5902;-5.5431;
1304.7000;0.5902;-5.5405;
1305.0000;0.5910;-5.5379;
1305.3000;0.5885;-5.5457;
1305.6000;0.5893;-5.5405;
1305.9000;0.5910;-5.5431;
1306.2000;0.5861;-5.5509;
1306.5000;0.5893;-5.5405;
1306.8000;0.5910;-5.5379;
1307.1000;0.5902;-5.5405;
1307.4000;0.5902;-5.5405;
1307.7000;0.5910;-5.5509;
1308.0000;0.5926;-5.5457;
1308.3000;0.5910;-5.5405;
1308.6000;0.5910;-5.5353;
1308.9000;0.5934;-5.5301;
1309.2000;0.5910;-5.5353;
1309.5000;0.5902;-5.5405;
1309.8000;0.5902;-5.5457;
1310.1000;0.5910;-5.5405;
1310.4000;0.5902;-5.5457;
1310.7000;0.5934;-5.5457;
1311.0000;0.5902;-5.5431;
1311.3000;0.5902;-5.5405;
1311.6000;0.5910;-5.5301;
1311.9000;0.5918;-5.5275;
1312.2000;0.5918;-5.5250;
1312.5000;0.5902;-5.5224;
1312.8000;0.5893;-5.5146;
1313.1000;0.5910;-5.5068;
1313.4000;0.5845;-5.5198;
1313.7000;0.5885;-5.5146;
1314.0000;0.5950;-5.5068;
1314.3000;0.5893;-5.5224;
1314.6000;0.5910;-5.5250;
1314.9000;0.5836;-5.5483;
1315.2000;0.5893;-5.5353;
1315.5000;0.5902;-5.5327;
1315.8000;0.5910;-5.5224;
1316.1000;0.5910;-5.5172;
1316.4000;0.5902;-5.5172;
1316.7000;0.5869;-5.5224;
1317.0000;0.5918;-5.5068;
1317.3000;0.5893;-5.5172;
1317.6000;0.5885;-5.5146;
1317.9000;0.5853;-5.5198;
1318.2000;0.5910;-5.5016;
1318.5000;0.5893;-5.4991;
1318.8000;0.5877;-5.5068;
1319.1000;0.5893;-5.5146;
1319.4000;0.5926;-5.5198;
1319.7000;0.5885;-5.5275;
1320.0000;0.5910;-5.5250;
1320.3000;0.5902;-5.5301;
1320.6000;0.5902;-5.5379;
1320.9000;0.5893;-5.5379;
1321.2000;0.5926;-5.5405;
1321.5000;0.5910;-5.5353;
1321.8000;0.5910;-5.5379;
1322.1000;0.5910;-5.5379;
1322.4000;0.5918;-5.5353;
1322.7000;0.5910;-5.5327;
1323.0000;0.5975;-5.5198;
1323.3000;0.5934;-5.5275;
1323.6000;0.5910;-5.5327;
1323.9000;0.5869;-5.5431;
1324.2000;0.5902;-5.5405;
1324.5000;0.5975;-5.5301;
1324.8000;0.5910;-5.5457;
1325.1000;0.5877;-5.5509;
1325.4000;0.5910;-5.5431;
1325.7000;0.5918;-5.5353;
1326.0000;0.5893;-5.5431;
1326.3000;0.5861;-5.5457;
1326.6000;0.5902;-5.5301;
1326.9000;0.5910;-5.5224;
1327.2000;0.5893;-5.5172;
1327.5000;0.5902;-5.5146;
1327.8000;0.5893;-5.5120;
1328.1000;0.5967;-5.4939;
1328.4000;0.5869;-5.5146;
1328.7000;0.5902;-5.5120;
1329.0000;0.5877;-5.5198;
1329.3000;0.5885;-5.5146;
1329.6000;0.5910;-5.5146;
1329.9000;0.5910;-5.5301;
1330.2000;0.5910;-5.5250;
1330.5000;0.5910;-5.5301;
1330.8000;0.5926;-5.5224;
1331.1000;0.5918;-5.5198;
1331.4000;0.5942;-5.5120;
1331.7000;0.5902;-5.5120;
1332.0000;0.5910;-5.5172;
1332.3000;0.5893;-5.5198;
1332.6000;0.5910;-5.5068;
1332.9000;0.5902;-5.5042;
1333.2000;0.5983;-5.4835;
1333.5000;0.5950;-5.4965;
1333.8000;0.5861;-5.5250;
1334.1000;0.5918;-5.5094;
1334.4000;0.5910;-5.5172;
1334.7000;0.5902;-5.5275;
1335.0000;0.5910;-5.5275;
1335.3000;0.5893;-5.5327;
1335.6000;0.5910;-5.5224;
1335.9000;0.5910;-5.5250;
1336.2000;0.5910;-5.5198;
1336.5000;0.5902;-5.5224;
1336.8000;0.5885;-5.5198;
1337.1000;0.5885;-5.5224;
1337.4000;0.5893;-5.5198;
1337.7000;0.5893;-5.5120;
1338.0000;0.5885;-5.5120;
1338.3000;0.5877;-5.5224;
1338.6000;0.5893;-5.5224;
1338.9000;0.5910;-5.5250;
1339.2000;0.5885;-5.5327;
1339.5000;0.5885;-5.5250;
1339.8000;0.5902;-5.5224;
1340.1000;0.5885;-5.5250;
1340.4000;0.5893;-5.5250;
1340.7000;0.5910;-5.5120;
1341.0000;0.5926;-5.5120;
1341.3000;0.5934;-5.5198;
1341.6000;0.5918;-5.5172;
1341.9000;0.5869;-5.5224;
1342.2000;0.5918;-5.5094;
1342.5000;0.5926;-5.5094;
1342.8000;0.5958;-5.4991;
1343.1000;0.5902;-5.5146;
1343.4000;0.5885;-5.5198;
1343.7000;0.5893;-5.5172;
1344.0000;0.5902;-5.5146;
1344.3000;0.5910;-5.5068;
1344.6000;0.5885;-5.5172;
1344.9000;0.5918;-5.5094;
1345.2000;0.5893;-5.5198;
1345.5000;0.5877;-5.5224;
1345.8000;0.5893;-5.5198;
1346.1000;0.5845;-5.5250;
1346.4000;0.5934;-5.5042;
1346.7000;0.5918;-5.5172;
1347.0000;0.5869;-5.5198;
1347.3000;0.5869;-5.5198;
1347.6000;0.5845;-5.5301;
1347.9000;0.5902;-5.5146;
1348.2000;0.5934;-5.5120;
1348.5000;0.5845;-5.5379;
1348.8000;0.5902;-5.5224;
1349.1000;0.5975;-5.4991;
1349.4000;0.5893;-5.5250;
1349.7000;0.5893;-5.5301;
1350.0000;0.5910;-5.5275;
1350.3000;0.5902;-5.5379;
1350.6000;0.5885;-5.5405;
1350.9000;0.5893;-5.5353;
1351.2000;0.5918;-5.5275;
1351.5000;0.5918;-5.5198;
1351.8000;0.5910;-5.5198;
1352.1000;0.5885;-5.5198;
1352.4000;0.5910;-5.5146;
1352.7000;0.5893;-5.5146;
1353.0000;0.5910;-5.5224;
1353.3000;0.5885;-5.5275;
1353.6000;0.5893;-5.5327;
1353.9000;0.5910;-5.5250;
1354.2000;0.5902;-5.5198;
1354.5000;0.5910;-5.5224;
1354.8000;0.5910;-5.5094;
1355.1000;0.5885;-5.5042;
1355.4000;0.5902;-5.5094;
1355.7000;0.5902;-5.5016;
1356.0000;0.5893;-5.5042;
1356.3000;0.5902;-5.5042;
1356.6000;0.5910;-5.5068;
1356.9000;0.5902;-5.5120;
1357.2000;0.5902;-5.5120;
1357.5000;0.5893;-5.5198;
1357.8000;0.5918;-5.5146;
1358.1000;0.5893;-5.5198;
1358.4000;0.5910;-5.5198;
1358.7000;0.5902;-5.5301;
1359.0000;0.5902;-5.5198;
1359.3000;0.5918;-5.5224;
1359.6000;0.5902;-5.5172;
1359.9000;0.5845;-5.5353;
1360.2000;0.5918;-5.5275;
1360.5000;0.5910;-5.5327;
1360.8000;0.5910;-5.5405;
1361.1000;0.5877;-5.5457;
1361.4000;0.5828;-5.5560;
1361.7000;0.5869;-5.5405;
1362.0000;0.5902;-5.5172;
1362.3000;0.5885;-5.5275;
1362.6000;0.5861;-5.5327;
1362.9000;0.5885;-5.5379;
1363.2000;0.5893;-5.5301;
1363.5000;0.5893;-5.5353;
1363.8000;0.5893;-5.5327;
1364.1000;0.5893;-5.5275;
1364.4000;0.5885;-5.5224;
1364.7000;0.5902;-5.5146;
1365.0000;0.5877;-5.5146;
1365.3000;0.5893;-5.5094;
1365.6000;0.5869;-5.5068;
1365.9000;0.5877;-5.5068;
1366.2000;0.5893;-5.5016;
1366.5000;0.5893;-5.5042;
1366.8000;0.5869;-5.5042;
1367.1000;0.5885;-5.5094;
1367.4000;0.5902;-5.5042;
1367.7000;0.5893;-5.5068;
1368.0000;0.5877;-5.5068;
1368.3000;0.5885;-5.5042;
1368.6000;0.5910;-5.5094;
1368.9000;0.5820;-5.5379;
1369.2000;0.5926;-5.5094;
1369.5000;0.5942;-5.5094;
1369.8000;0.5918;-5.5327;
1370.1000;0.5934;-5.5275;
1370.4000;0.5869;-5.5353;
1370.7000;0.5877;-5.5224;
1371.0000;0.5877;-5.5172;
1371.3000;0.5885;-5.5146;
1371.6000;0.5845;-5.5250;
1371.9000;0.5877;-5.5094;
1372.2000;0.5918;-5.4965;
1372.5000;0.5893;-5.5068;
1372.8000;0.5893;-5.5068;
1373.1000;0.5902;-5.5068;
1373.4000;0.5893;-5.5120;
1373.7000;0.5885;-5.5250;
1374.0000;0.5910;-5.5198;
1374.3000;0.5893;-5.5224;
1374.6000;0.5893;-5.5198;
1374.9000;0.5918;-5.5250;
1375.2000;0.5885;-5.5301;
1375.5000;0.5910;-5.5198;
1375.8000;0.5893;-5.5224;
1376.1000;0.5869;-5.5327;
1376.4000;0.5885;-5.5353;
1376.7000;0.5918;-5.5301;
1377.0000;0.5910;-5.5301;
1377.3000;0.5902;-5.5275;
1377.6000;0.5885;-5.5250;
1377.9000;0.5910;-5.5224;
1378.2000;0.5910;-5.5250;
1378.5000;0.5918;-5.5327;
1378.8000;0.5918;-5.5353;
1379.1000;0.5893;-5.5457;
1379.4000;0.5877;-5.5483;
1379.7000;0.5934;-5.5353;
1380.0000;0.5885;-5.5379;
1380.3000;0.5926;-5.5250;
1380.6000;0.5902;-5.5327;
1380.9000;0.5910;-5.5275;
1381.2000;0.5902;-5.5353;
1381.5000;0.5902;-5.5301;
1381.8000;0.5893;-5.5431;
1382.1000;0.5902;-5.5301;
1382.4000;0.5893;-5.5250;
1382.7000;0.5885;-5.5172;
1383.0000;0.5893;-5.5198;
1383.3000;0.5910;-5.5224;
1383.6000;0.5885;-5.5327;
1383.9000;0.5877;-5.5379;
1384.2000;0.5869;-5.5431;
1384.5000;0.5893;-5.5301;
1384.8000;0.5918;-5.5224;
1385.1000;0.5893;-5.5327;
1385.4000;0.5877;-5.5379;
1385.7000;0.5885;-5.5301;
1386.0000;0.5902;-5.5172;
1386.3000;0.5910;-5.5146;
1386.6000;0.5893;-5.5198;
1386.9000;0.5893;-5.5250;
1387.2000;0.5910;-5.5250;
1387.5000;0.5893;-5.5327;
1387.8000;0.5926;-5.5172;
1388.1000;0.5869;-5.5275;
1388.4000;0.5893;-5.5224;
1388.7000;0.5893;-5.5275;
1389.0000;0.5902;-5.5250;
1389.3000;0.5885;-5.5275;
1389.6000;0.5877;-5.5275;
1389.9000;0.5885;-5.5250;
1390.2000;0.5877;-5.5301;
1390.5000;0.5885;-5.5353;
1390.8000;0.5893;-5.5275;
1391.1000;0.5902;-5.5224;
1391.4000;0.5885;-5.5275;
1391.7000;0.5877;-5.5275;
1392.0000;0.5877;-5.5275;
1392.3000;0.5893;-5.5275;
1392.6000;0.5893;-5.5327;
1392.9000;0.5893;-5.5301;
1393.2000;0.5918;-5.5301;
1393.5000;0.5910;-5.5431;
1393.8000;0.5893;-5.5327;
1394.1000;0.5910;-5.5275;
1394.4000;0.5893;-5.5301;
1394.7000;0.5902;-5.5327;
1395.0000;0.5885;-5.5405;
1395.3000;0.5885;-5.5431;
1395.6000;0.5885;-5.5431;
1395.9000;0.5893;-5.5379;
1396.2000;0.5918;-5.5250;
1396.5000;0.5885;-5.5301;
1396.8000;0.5885;-5.5198;
1397.1000;0.5893;-5.5275;
1397.4000;0.5893;-5.5275;
1397.7000;0.5893;-5.5353;
1398.0000;0.5910;-5.5353;
1398.3000;0.5893;-5.5431;
1398.6000;0.5893;-5.5431;
1398.9000;0.5902;-5.5405;
1399.2000;0.5910;-5.5353;
1399.5000;0.5902;-5.5405;
1399.8000;0.5918;-5.5379;
