time/ms;Fluo/V;P700 deltaI/I x10³;
-199.8000;0.4208;-5.7788;
-199.5000;0.4208;-5.7788;
-199.2000;0.4208;-5.7762;
-198.9000;0.4233;-5.7736;
-198.6000;0.4233;-5.7762;
-198.3000;0.4257;-5.7814;
-198.0000;0.4257;-5.7814;
-197.7000;0.4257;-5.7788;
-197.4000;0.4257;-5.7762;
-197.1000;0.4241;-5.7840;
-196.8000;0.4265;-5.7892;
-196.5000;0.4241;-5.8021;
-196.2000;0.4257;-5.8073;
-195.9000;0.4257;-5.8047;
-195.6000;0.4265;-5.8047;
-195.3000;0.4265;-5.7969;
-195.0000;0.4241;-5.7969;
-194.7000;0.4241;-5.7918;
-194.4000;0.4249;-5.7788;
-194.1000;0.4241;-5.7814;
-193.8000;0.4249;-5.7736;
-193.5000;0.4249;-5.7736;
-193.2000;0.4241;-5.7762;
-192.9000;0.4249;-5.7788;
-192.6000;0.4257;-5.7918;
-192.3000;0.4241;-5.7892;
-192.0000;0.4257;-5.7840;
-191.7000;0.4249;-5.7710;
-191.4000;0.4265;-5.7710;
-191.1000;0.4257;-5.7633;
-190.8000;0.4249;-5.7607;
-190.5000;0.4257;-5.7633;
-190.2000;0.4257;-5.7658;
-189.9000;0.4249;-5.7607;
-189.6000;0.4249;-5.7581;
-189.3000;0.4192;-5.7658;
-189.0000;0.4265;-5.7399;
-188.7000;0.4282;-5.7374;
-188.4000;0.4257;-5.7503;
-188.1000;0.4322;-5.7270;
-187.8000;0.4233;-5.7555;
-187.5000;0.4249;-5.7503;
-187.2000;0.4257;-5.7503;
-186.9000;0.4249;-5.7555;
-186.6000;0.4257;-5.7503;
-186.3000;0.4257;-5.7425;
-186.0000;0.4249;-5.7399;
-185.7000;0.4257;-5.7425;
-185.4000;0.4257;-5.7374;
-185.1000;0.4265;-5.7348;
-184.8000;0.4241;-5.7477;
-184.5000;0.4257;-5.7529;
-184.2000;0.4249;-5.7555;
-183.9000;0.4265;-5.7555;
-183.6000;0.4249;-5.7633;
-183.3000;0.4241;-5.7710;
-183.0000;0.4265;-5.7633;
-182.7000;0.4257;-5.7607;
-182.4000;0.4257;-5.7736;
-182.1000;0.4249;-5.7814;
-181.8000;0.4265;-5.7736;
-181.5000;0.4257;-5.7762;
-181.2000;0.4265;-5.7762;
-180.9000;0.4265;-5.7788;
-180.6000;0.4257;-5.7892;
-180.3000;0.4257;-5.7918;
-180.0000;0.4257;-5.8073;
-179.7000;0.4249;-5.8073;
-179.4000;0.4241;-5.8047;
-179.1000;0.4265;-5.7995;
-178.8000;0.4257;-5.7995;
-178.5000;0.4249;-5.8073;
-178.2000;0.4233;-5.8021;
-177.9000;0.4265;-5.7866;
-177.6000;0.4257;-5.7892;
-177.3000;0.4241;-5.7918;
-177.0000;0.4241;-5.7943;
-176.7000;0.4257;-5.7969;
-176.4000;0.4298;-5.7918;
-176.1000;0.4290;-5.7943;
-175.8000;0.4257;-5.8021;
-175.5000;0.4249;-5.8073;
-175.2000;0.4257;-5.8073;
-174.9000;0.4274;-5.8021;
-174.6000;0.4249;-5.7943;
-174.3000;0.4241;-5.8021;
-174.0000;0.4241;-5.8073;
-173.7000;0.4249;-5.8125;
-173.4000;0.4257;-5.8047;
-173.1000;0.4257;-5.7969;
-172.8000;0.4282;-5.7918;
-172.5000;0.4249;-5.8099;
-172.2000;0.4241;-5.8073;
-171.9000;0.4265;-5.7969;
-171.6000;0.4265;-5.7995;
-171.3000;0.4257;-5.7969;
-171.0000;0.4249;-5.7969;
-170.7000;0.4249;-5.8021;
-170.4000;0.4257;-5.8047;
-170.1000;0.4249;-5.8099;
-169.8000;0.4265;-5.7969;
-169.5000;0.4233;-5.8125;
-169.2000;0.4249;-5.8047;
-168.9000;0.4257;-5.8021;
-168.6000;0.4249;-5.8047;
-168.3000;0.4249;-5.8125;
-168.0000;0.4249;-5.8228;
-167.7000;0.4282;-5.8202;
-167.4000;0.4257;-5.8202;
-167.1000;0.4265;-5.8280;
-166.8000;0.4249;-5.8280;
-166.5000;0.4306;-5.8125;
-166.2000;0.4265;-5.8202;
-165.9000;0.4249;-5.8202;
-165.6000;0.4249;-5.8125;
-165.3000;0.4257;-5.8151;
-165.0000;0.4257;-5.8099;
-164.7000;0.4257;-5.8073;
-164.4000;0.4257;-5.8073;
-164.1000;0.4249;-5.8047;
-163.8000;0.4265;-5.7995;
-163.5000;0.4257;-5.7943;
-163.2000;0.4249;-5.7969;
-162.9000;0.4249;-5.8021;
-162.6000;0.4208;-5.8047;
-162.3000;0.4257;-5.7969;
-162.0000;0.4274;-5.7969;
-161.7000;0.4265;-5.7969;
-161.4000;0.4249;-5.8047;
-161.1000;0.4257;-5.8047;
-160.8000;0.4257;-5.8073;
-160.5000;0.4274;-5.8073;
-160.2000;0.4257;-5.8047;
-159.9000;0.4265;-5.7943;
-159.6000;0.4282;-5.7892;
-159.3000;0.4249;-5.7918;
-159.0000;0.4249;-5.7969;
-158.7000;0.4265;-5.7918;
-158.4000;0.4233;-5.7995;
-158.1000;0.4249;-5.7892;
-157.8000;0.4257;-5.7866;
-157.5000;0.4347;-5.7684;
-157.2000;0.4257;-5.7866;
-156.9000;0.4265;-5.7788;
-156.6000;0.4249;-5.7918;
-156.3000;0.4306;-5.7788;
-156.0000;0.4265;-5.7866;
-155.7000;0.4249;-5.7969;
-155.4000;0.4257;-5.8047;
-155.1000;0.4265;-5.7995;
-154.8000;0.4282;-5.7969;
-154.5000;0.4257;-5.7995;
-154.2000;0.4249;-5.7995;
-153.9000;0.4257;-5.7943;
-153.6000;0.4257;-5.7918;
-153.3000;0.4225;-5.7995;
-153.0000;0.4257;-5.7892;
-152.7000;0.4249;-5.7918;
-152.4000;0.4249;-5.7892;
-152.1000;0.4274;-5.7840;
-151.8000;0.4241;-5.7866;
-151.5000;0.4225;-5.7892;
-151.2000;0.4257;-5.7866;
-150.9000;0.4265;-5.7892;
-150.6000;0.4249;-5.7969;
-150.3000;0.4257;-5.7995;
-150.0000;0.4241;-5.8021;
-149.7000;0.4265;-5.7969;
-149.4000;0.4274;-5.7918;
-149.1000;0.4225;-5.7995;
-148.8000;0.4233;-5.7892;
-148.5000;0.4241;-5.7892;
-148.2000;0.4233;-5.7969;
-147.9000;0.4257;-5.7840;
-147.6000;0.4208;-5.7943;
-147.3000;0.4241;-5.7918;
-147.0000;0.4241;-5.7969;
-146.7000;0.4265;-5.7943;
-146.4000;0.4233;-5.8099;
-146.1000;0.4241;-5.8099;
-145.8000;0.4257;-5.8073;
-145.5000;0.4265;-5.7995;
-145.2000;0.4257;-5.8125;
-144.9000;0.4290;-5.7969;
-144.6000;0.4168;-5.8254;
-144.3000;0.4265;-5.8047;
-144.0000;0.4257;-5.8047;
-143.7000;0.4241;-5.8047;
-143.4000;0.4249;-5.7969;
-143.1000;0.4257;-5.7995;
-142.8000;0.4257;-5.7995;
-142.5000;0.4233;-5.8073;
-142.2000;0.4257;-5.8021;
-141.9000;0.4241;-5.7969;
-141.6000;0.4249;-5.7943;
-141.3000;0.4241;-5.7943;
-141.0000;0.4241;-5.7892;
-140.7000;0.4249;-5.7840;
-140.4000;0.4249;-5.7840;
-140.1000;0.4257;-5.7736;
-139.8000;0.4290;-5.7607;
-139.5000;0.4257;-5.7918;
-139.2000;0.4257;-5.7969;
-138.9000;0.4241;-5.7969;
-138.6000;0.4274;-5.7918;
-138.3000;0.4298;-5.7892;
-138.0000;0.4249;-5.8047;
-137.7000;0.4249;-5.7969;
-137.4000;0.4249;-5.7943;
-137.1000;0.4233;-5.8021;
-136.8000;0.4249;-5.7969;
-136.5000;0.4233;-5.7943;
-136.2000;0.4249;-5.7866;
-135.9000;0.4249;-5.7943;
-135.6000;0.4241;-5.7969;
-135.3000;0.4160;-5.8021;
-135.0000;0.4257;-5.7892;
-134.7000;0.4257;-5.7969;
-134.4000;0.4249;-5.7995;
-134.1000;0.4233;-5.8021;
-133.8000;0.4241;-5.8021;
-133.5000;0.4225;-5.7918;
-133.2000;0.4249;-5.7840;
-132.9000;0.4249;-5.7866;
-132.6000;0.4249;-5.7892;
-132.3000;0.4249;-5.7866;
-132.0000;0.4233;-5.7918;
-131.7000;0.4233;-5.7918;
-131.4000;0.4257;-5.7866;
-131.1000;0.4249;-5.7866;
-130.8000;0.4241;-5.7892;
-130.5000;0.4241;-5.7995;
-130.2000;0.4257;-5.7969;
-129.9000;0.4265;-5.8073;
-129.6000;0.4249;-5.8047;
-129.3000;0.4265;-5.7943;
-129.0000;0.4233;-5.7995;
-128.7000;0.4257;-5.7918;
-128.4000;0.4241;-5.7943;
-128.1000;0.4257;-5.7840;
-127.8000;0.4241;-5.7892;
-127.5000;0.4241;-5.7866;
-127.2000;0.4241;-5.7943;
-126.9000;0.4225;-5.8021;
-126.6000;0.4257;-5.7943;
-126.3000;0.4249;-5.8047;
-126.0000;0.4241;-5.8099;
-125.7000;0.4249;-5.8099;
-125.4000;0.4241;-5.8099;
-125.1000;0.4274;-5.7969;
-124.8000;0.4265;-5.7995;
-124.5000;0.4217;-5.7995;
-124.2000;0.4249;-5.7892;
-123.9000;0.4249;-5.7814;
-123.6000;0.4290;-5.7814;
-123.3000;0.4249;-5.7943;
-123.0000;0.4233;-5.8047;
-122.7000;0.4241;-5.8047;
-122.4000;0.4241;-5.8021;
-122.1000;0.4241;-5.7943;
-121.8000;0.4257;-5.7969;
-121.5000;0.4257;-5.7943;
-121.2000;0.4257;-5.7892;
-120.9000;0.4298;-5.7762;
-120.6000;0.4241;-5.7866;
-120.3000;0.4265;-5.7866;
-120.0000;0.4265;-5.7840;
-119.7000;0.4249;-5.7918;
-119.4000;0.4265;-5.7943;
-119.1000;0.4241;-5.7969;
-118.8000;0.4208;-5.7995;
-118.5000;0.4257;-5.7866;
-118.2000;0.4265;-5.7943;
-117.9000;0.4241;-5.7943;
-117.6000;0.4249;-5.7918;
-117.3000;0.4274;-5.7892;
-117.0000;0.4241;-5.7943;
-116.7000;0.4241;-5.7943;
-116.4000;0.4208;-5.8047;
-116.1000;0.4249;-5.8099;
-115.8000;0.4241;-5.8073;
-115.5000;0.4274;-5.7969;
-115.2000;0.4265;-5.7943;
-114.9000;0.4274;-5.7918;
-114.6000;0.4249;-5.7943;
-114.3000;0.4257;-5.8047;
-114.0000;0.4233;-5.8151;
-113.7000;0.4257;-5.7969;
-113.4000;0.4257;-5.8021;
-113.1000;0.4184;-5.8177;
-112.8000;0.4249;-5.7918;
-112.5000;0.4265;-5.7892;
-112.2000;0.4217;-5.8047;
-111.9000;0.4241;-5.7969;
-111.6000;0.4257;-5.7892;
-111.3000;0.4225;-5.7969;
-111.0000;0.4249;-5.7943;
-110.7000;0.4241;-5.7892;
-110.4000;0.4225;-5.7969;
-110.1000;0.4241;-5.7943;
-109.8000;0.4241;-5.7969;
-109.5000;0.4241;-5.7943;
-109.2000;0.4249;-5.7918;
-108.9000;0.4233;-5.8073;
-108.6000;0.4249;-5.7995;
-108.3000;0.4257;-5.7892;
-108.0000;0.4233;-5.7866;
-107.7000;0.4249;-5.7892;
-107.4000;0.4257;-5.7814;
-107.1000;0.4233;-5.7788;
-106.8000;0.4241;-5.7762;
-106.5000;0.4249;-5.7762;
-106.2000;0.4241;-5.7762;
-105.9000;0.4265;-5.7736;
-105.6000;0.4176;-5.7995;
-105.3000;0.4257;-5.7840;
-105.0000;0.4241;-5.7943;
-104.7000;0.4241;-5.7918;
-104.4000;0.4249;-5.7840;
-104.1000;0.4282;-5.7814;
-103.8000;0.4249;-5.7892;
-103.5000;0.4265;-5.7814;
-103.2000;0.4200;-5.7892;
-102.9000;0.4249;-5.7788;
-102.6000;0.4257;-5.7814;
-102.3000;0.4306;-5.7710;
-102.0000;0.4274;-5.7840;
-101.7000;0.4225;-5.7866;
-101.4000;0.4241;-5.7840;
-101.1000;0.4249;-5.7736;
-100.8000;0.4241;-5.7762;
-100.5000;0.4249;-5.7736;
-100.2000;0.4249;-5.7633;
-99.9000;0.4274;-5.7529;
-99.6000;0.4241;-5.7633;
-99.3000;0.4241;-5.7658;
-99.0000;0.4265;-5.7555;
-98.7000;0.4257;-5.7684;
-98.4000;0.4274;-5.7710;
-98.1000;0.4274;-5.7736;
-97.8000;0.4257;-5.7762;
-97.5000;0.4265;-5.7736;
-97.2000;0.4265;-5.7710;
-96.9000;0.4274;-5.7710;
-96.6000;0.4265;-5.7633;
-96.3000;0.4257;-5.7684;
-96.0000;0.4233;-5.7762;
-95.7000;0.4208;-5.7814;
-95.4000;0.4282;-5.7658;
-95.1000;0.4339;-5.7555;
-94.8000;0.4282;-5.7710;
-94.5000;0.4257;-5.7684;
-94.2000;0.4274;-5.7762;
-93.9000;0.4257;-5.7814;
-93.6000;0.4274;-5.7710;
-93.3000;0.4257;-5.7736;
-93.0000;0.4249;-5.7814;
-92.7000;0.4265;-5.7788;
-92.4000;0.4265;-5.7840;
-92.1000;0.4282;-5.7762;
-91.8000;0.4265;-5.7736;
-91.5000;0.4282;-5.7736;
-91.2000;0.4265;-5.7814;
-90.9000;0.4265;-5.7866;
-90.6000;0.4282;-5.7788;
-90.3000;0.4257;-5.7866;
-90.0000;0.4265;-5.7892;
-89.7000;0.4306;-5.7814;
-89.4000;0.4347;-5.7658;
-89.1000;0.4265;-5.7840;
-88.8000;0.4282;-5.7736;
-88.5000;0.4257;-5.7814;
-88.2000;0.4282;-5.7814;
-87.9000;0.4274;-5.7762;
-87.6000;0.4290;-5.7710;
-87.3000;0.4241;-5.7840;
-87.0000;0.4282;-5.7736;
-86.7000;0.4274;-5.7788;
-86.4000;0.4274;-5.7736;
-86.1000;0.4282;-5.7607;
-85.8000;0.4257;-5.7633;
-85.5000;0.4282;-5.7633;
-85.2000;0.4274;-5.7684;
-84.9000;0.4265;-5.7684;
-84.6000;0.4298;-5.7555;
-84.3000;0.4265;-5.7607;
-84.0000;0.4274;-5.7633;
-83.7000;0.4257;-5.7736;
-83.4000;0.4241;-5.7710;
-83.1000;0.4265;-5.7684;
-82.8000;0.4241;-5.7633;
-82.5000;0.4265;-5.7633;
-82.2000;0.4257;-5.7503;
-81.9000;0.4265;-5.7607;
-81.6000;0.4298;-5.7555;
-81.3000;0.4282;-5.7607;
-81.0000;0.4298;-5.7633;
-80.7000;0.4265;-5.7736;
-80.4000;0.4265;-5.7633;
-80.1000;0.4298;-5.7607;
-79.8000;0.4265;-5.7633;
-79.5000;0.4241;-5.7633;
-79.2000;0.4265;-5.7607;
-78.9000;0.4274;-5.7736;
-78.6000;0.4265;-5.7762;
-78.3000;0.4241;-5.7788;
-78.0000;0.4233;-5.7788;
-77.7000;0.4282;-5.7684;
-77.4000;0.4290;-5.7710;
-77.1000;0.4265;-5.7710;
-76.8000;0.4257;-5.7736;
-76.5000;0.4249;-5.7762;
-76.2000;0.4274;-5.7684;
-75.9000;0.4265;-5.7736;
-75.6000;0.4282;-5.7710;
-75.3000;0.4274;-5.7710;
-75.0000;0.4274;-5.7762;
-74.7000;0.4265;-5.7788;
-74.4000;0.4257;-5.7840;
-74.1000;0.4257;-5.7814;
-73.8000;0.4274;-5.7658;
-73.5000;0.4274;-5.7710;
-73.2000;0.4265;-5.7762;
-72.9000;0.4265;-5.7866;
-72.6000;0.4274;-5.7840;
-72.3000;0.4265;-5.7762;
-72.0000;0.4265;-5.7762;
-71.7000;0.4225;-5.7840;
-71.4000;0.4322;-5.7633;
-71.1000;0.4265;-5.7788;
-70.8000;0.4265;-5.7736;
-70.5000;0.4257;-5.7736;
-70.2000;0.4233;-5.7814;
-69.9000;0.4274;-5.7788;
-69.6000;0.4257;-5.7814;
-69.3000;0.4274;-5.7633;
-69.0000;0.4274;-5.7581;
-68.7000;0.4282;-5.7607;
-68.4000;0.4282;-5.7658;
-68.1000;0.4274;-5.7762;
-67.8000;0.4265;-5.7814;
-67.5000;0.4274;-5.7814;
-67.2000;0.4290;-5.7788;
-66.9000;0.4274;-5.7710;
-66.6000;0.4257;-5.7788;
-66.3000;0.4274;-5.7814;
-66.0000;0.4265;-5.7814;
-65.7000;0.4249;-5.7892;
-65.4000;0.4274;-5.7788;
-65.1000;0.4257;-5.7710;
-64.8000;0.4249;-5.7788;
-64.5000;0.4274;-5.7736;
-64.2000;0.4339;-5.7607;
-63.9000;0.4249;-5.7762;
-63.6000;0.4274;-5.7684;
-63.3000;0.4274;-5.7658;
-63.0000;0.4265;-5.7788;
-62.7000;0.4290;-5.7684;
-62.4000;0.4274;-5.7762;
-62.1000;0.4282;-5.7762;
-61.8000;0.4265;-5.7736;
-61.5000;0.4265;-5.7658;
-61.2000;0.4282;-5.7607;
-60.9000;0.4274;-5.7581;
-60.6000;0.4265;-5.7658;
-60.3000;0.4274;-5.7658;
-60.0000;0.4265;-5.7762;
-59.7000;0.4265;-5.7710;
-59.4000;0.4265;-5.7736;
-59.1000;0.4274;-5.7710;
-58.8000;0.4355;-5.7477;
-58.5000;0.4274;-5.7633;
-58.2000;0.4274;-5.7555;
-57.9000;0.4274;-5.7451;
-57.6000;0.4265;-5.7503;
-57.3000;0.4274;-5.7555;
-57.0000;0.4217;-5.7710;
-56.7000;0.4257;-5.7658;
-56.4000;0.4265;-5.7633;
-56.1000;0.4298;-5.7607;
-55.8000;0.4298;-5.7633;
-55.5000;0.4274;-5.7658;
-55.2000;0.4265;-5.7607;
-54.9000;0.4274;-5.7633;
-54.6000;0.4265;-5.7684;
-54.3000;0.4265;-5.7658;
-54.0000;0.4274;-5.7581;
-53.7000;0.4282;-5.7529;
-53.4000;0.4282;-5.7477;
-53.1000;0.4257;-5.7503;
-52.8000;0.4257;-5.7581;
-52.5000;0.4274;-5.7581;
-52.2000;0.4249;-5.7710;
-51.9000;0.4290;-5.7710;
-51.6000;0.4257;-5.7736;
-51.3000;0.4265;-5.7762;
-51.0000;0.4282;-5.7736;
-50.7000;0.4282;-5.7736;
-50.4000;0.4274;-5.7762;
-50.1000;0.4282;-5.7710;
-49.8000;0.4290;-5.7710;
-49.5000;0.4274;-5.7684;
-49.2000;0.4265;-5.7710;
-48.9000;0.4233;-5.7788;
-48.6000;0.4274;-5.7658;
-48.3000;0.4371;-5.7399;
-48.0000;0.4282;-5.7555;
-47.7000;0.4274;-5.7529;
-47.4000;0.4274;-5.7529;
-47.1000;0.4290;-5.7529;
-46.8000;0.4290;-5.7555;
-46.5000;0.4257;-5.7736;
-46.2000;0.4298;-5.7658;
-45.9000;0.4282;-5.7658;
-45.6000;0.4290;-5.7633;
-45.3000;0.4265;-5.7736;
-45.0000;0.4265;-5.7736;
-44.7000;0.4282;-5.7788;
-44.4000;0.4298;-5.7762;
-44.1000;0.4282;-5.7710;
-43.8000;0.4265;-5.7788;
-43.5000;0.4265;-5.7684;
-43.2000;0.4233;-5.7840;
-42.9000;0.4290;-5.7633;
-42.6000;0.4274;-5.7710;
-42.3000;0.4282;-5.7658;
-42.0000;0.4282;-5.7658;
-41.7000;0.4274;-5.7710;
-41.4000;0.4274;-5.7762;
-41.1000;0.4265;-5.7658;
-40.8000;0.4282;-5.7736;
-40.5000;0.4274;-5.7762;
-40.2000;0.4265;-5.7814;
-39.9000;0.4282;-5.7814;
-39.6000;0.4274;-5.7840;
-39.3000;0.4274;-5.7918;
-39.0000;0.4274;-5.7969;
-38.7000;0.4257;-5.7943;
-38.4000;0.4282;-5.7814;
-38.1000;0.4282;-5.7866;
-37.8000;0.4274;-5.7788;
-37.5000;0.4265;-5.7814;
-37.2000;0.4290;-5.7710;
-36.9000;0.4282;-5.7788;
-36.6000;0.4282;-5.7736;
-36.3000;0.4298;-5.7633;
-36.0000;0.4290;-5.7684;
-35.7000;0.4274;-5.7658;
-35.4000;0.4274;-5.7607;
-35.1000;0.4274;-5.7555;
-34.8000;0.4225;-5.7658;
-34.5000;0.4290;-5.7477;
-34.2000;0.4274;-5.7503;
-33.9000;0.4274;-5.7529;
-33.6000;0.4274;-5.7633;
-33.3000;0.4282;-5.7658;
-33.0000;0.4274;-5.7710;
-32.7000;0.4290;-5.7633;
-32.4000;0.4282;-5.7607;
-32.1000;0.4282;-5.7477;
-31.8000;0.4290;-5.7425;
-31.5000;0.4241;-5.7633;
-31.2000;0.4257;-5.7633;
-30.9000;0.4274;-5.7633;
-30.6000;0.4282;-5.7633;
-30.3000;0.4249;-5.7736;
-30.0000;0.4282;-5.7684;
-29.7000;0.4265;-5.7684;
-29.4000;0.4322;-5.7633;
-29.1000;0.4290;-5.7684;
-28.8000;0.4274;-5.7607;
-28.5000;0.4265;-5.7607;
-28.2000;0.4274;-5.7658;
-27.9000;0.4249;-5.7736;
-27.6000;0.4265;-5.7710;
-27.3000;0.4282;-5.7684;
-27.0000;0.4282;-5.7736;
-26.7000;0.4282;-5.7840;
-26.4000;0.4225;-5.7969;
-26.1000;0.4274;-5.7840;
-25.8000;0.4265;-5.7840;
-25.5000;0.4290;-5.7788;
-25.2000;0.4274;-5.7814;
-24.9000;0.4282;-5.7866;
-24.6000;0.4274;-5.7892;
-24.3000;0.4265;-5.7943;
-24.0000;0.4282;-5.7918;
-23.7000;0.4265;-5.7943;
-23.4000;0.4274;-5.7840;
-23.1000;0.4282;-5.7762;
-22.8000;0.4282;-5.7736;
-22.5000;0.4274;-5.7788;
-22.2000;0.4282;-5.7814;
-21.9000;0.4282;-5.7788;
-21.6000;0.4282;-5.7736;
-21.3000;0.4322;-5.7581;
-21.0000;0.4282;-5.7607;
-20.7000;0.4274;-5.7658;
-20.4000;0.4290;-5.7633;
-20.1000;0.4322;-5.7581;
-19.8000;0.4290;-5.7607;
-19.5000;0.4274;-5.7607;
-19.2000;0.4298;-5.7503;
-18.9000;0.4282;-5.7477;
-18.6000;0.4265;-5.7451;
-18.3000;0.4274;-5.7529;
-18.0000;0.4290;-5.7529;
-17.7000;0.4282;-5.7529;
-17.4000;0.4265;-5.7607;
-17.1000;0.4282;-5.7658;
-16.8000;0.4298;-5.7658;
-16.5000;0.4290;-5.7658;
-16.2000;0.4265;-5.7710;
-15.9000;0.4290;-5.7788;
-15.6000;0.4282;-5.7762;
-15.3000;0.4290;-5.7684;
-15.0000;0.4290;-5.7736;
-14.7000;0.4257;-5.7840;
-14.4000;0.4282;-5.7814;
-14.1000;0.4282;-5.7762;
-13.8000;0.4290;-5.7814;
-13.5000;0.4282;-5.7814;
-13.2000;0.4257;-5.7892;
-12.9000;0.4282;-5.7866;
-12.6000;0.4274;-5.7840;
-12.3000;0.4290;-5.7788;
-12.0000;0.4274;-5.7866;
-11.7000;0.4290;-5.7814;
-11.4000;0.4290;-5.7814;
-11.1000;0.4274;-5.7788;
-10.8000;0.4265;-5.7840;
-10.5000;0.4282;-5.7866;
-10.2000;0.4282;-5.7892;
-9.9000;0.4282;-5.7814;
-9.6000;0.4208;-5.7943;
-9.3000;0.4257;-5.7892;
-9.0000;0.4290;-5.7892;
-8.7000;0.4265;-5.7918;
-8.4000;0.4282;-5.7943;
-8.1000;0.4265;-5.7918;
-7.8000;0.4290;-5.7840;
-7.5000;0.4298;-5.7840;
-7.2000;0.4306;-5.7736;
-6.9000;0.4274;-5.7840;
-6.6000;0.4298;-5.7762;
-6.3000;0.4290;-5.7762;
-6.0000;0.4306;-5.7607;
-5.7000;0.4282;-5.7762;
-5.4000;0.4265;-5.7866;
-5.1000;0.4282;-5.7814;
-4.8000;0.4339;-5.7684;
-4.5000;0.4282;-5.7814;
-4.2000;0.4265;-5.7840;
-3.9000;0.4290;-5.7788;
-3.6000;0.4282;-5.7762;
-3.3000;0.4265;-5.7840;
-3.0000;0.4265;-5.7840;
-2.7000;0.4217;-5.7866;
-2.4000;0.4290;-5.7736;
-2.1000;0.4274;-5.7762;
-1.8000;0.4298;-5.7736;
-1.5000;0.4282;-5.7840;
-1.2000;0.4298;-5.7814;
-0.9000;0.4298;-5.7918;
-0.6000;0.4274;-5.8021;
-0.3000;0.4274;-5.8047;
0.0000;0.4274;-5.8047;
0.3000;0.4648;-5.7814;
0.6000;0.5307;-5.6804;
0.9000;0.5885;-5.5638;
1.2000;0.6309;-5.4757;
1.5000;0.6650;-5.4006;
1.8000;0.6911;-5.3333;
2.1000;0.7131;-5.2685;
2.4000;0.7269;-5.2219;
2.7000;0.7383;-5.1805;
3.0000;0.7473;-5.1546;
3.3000;0.7530;-5.1287;
3.6000;0.7570;-5.1183;
3.9000;0.7660;-5.0950;
4.2000;0.7709;-5.0898;
4.5000;0.7725;-5.0872;
4.8000;0.7766;-5.0768;
5.1000;0.7839;-5.0587;
5.4000;0.7863;-5.0613;
5.7000;0.7896;-5.0535;
6.0000;0.7928;-5.0509;
6.3000;0.7945;-5.0484;
6.6000;0.7977;-5.0406;
6.9000;0.8010;-5.0354;
7.2000;0.8018;-5.0406;
7.5000;0.8075;-5.0354;
7.8000;0.8091;-5.0354;
8.1000;0.8124;-5.0302;
8.4000;0.8140;-5.0328;
8.7000;0.8189;-5.0276;
9.0000;0.8213;-5.0225;
9.3000;0.8246;-5.0199;
9.6000;0.8278;-5.0173;
9.9000;0.8278;-5.0250;
10.2000;0.8335;-5.0225;
10.5000;0.8344;-5.0250;
10.8000;0.8352;-5.0250;
11.1000;0.8409;-5.0095;
11.4000;0.8433;-5.0095;
11.7000;0.8490;-5.0017;
12.0000;0.8457;-5.0199;
12.3000;0.8604;-4.9966;
12.6000;0.8571;-5.0225;
12.9000;0.8596;-5.0328;
13.2000;0.8669;-5.0250;
13.5000;0.8612;-5.0458;
13.8000;0.8653;-5.0354;
14.1000;0.8669;-5.0380;
14.4000;0.8742;-5.0121;
14.7000;0.8783;-5.0121;
15.0000;0.8791;-5.0225;
15.3000;0.8816;-5.0225;
15.6000;0.8864;-5.0147;
15.9000;0.8881;-5.0173;
16.2000;0.8921;-5.0173;
16.5000;0.8913;-5.0250;
16.8000;0.8946;-5.0250;
17.1000;0.8978;-5.0250;
17.4000;0.8995;-5.0354;
17.7000;0.9019;-5.0276;
18.0000;0.9060;-5.0276;
18.3000;0.9084;-5.0250;
18.6000;0.9084;-5.0354;
18.9000;0.9109;-5.0354;
19.2000;0.9125;-5.0354;
19.5000;0.9158;-5.0302;
19.8000;0.9166;-5.0250;
20.1000;0.9182;-5.0276;
20.4000;0.9206;-5.0328;
20.7000;0.9206;-5.0354;
21.0000;0.9255;-5.0328;
21.3000;0.9263;-5.0276;
21.6000;0.9271;-5.0302;
21.9000;0.9296;-5.0225;
22.2000;0.9304;-5.0276;
22.5000;0.9369;-5.0276;
22.8000;0.9353;-5.0406;
23.1000;0.9361;-5.0484;
23.4000;0.9394;-5.0432;
23.7000;0.9410;-5.0406;
24.0000;0.9410;-5.0458;
24.3000;0.9402;-5.0458;
24.6000;0.9459;-5.0276;
24.9000;0.9442;-5.0250;
25.2000;0.9467;-5.0173;
25.5000;0.9459;-5.0173;
25.8000;0.9508;-5.0147;
26.1000;0.9508;-5.0302;
26.4000;0.9516;-5.0276;
26.7000;0.9540;-5.0328;
27.0000;0.9573;-5.0199;
27.3000;0.9573;-5.0121;
27.6000;0.9565;-5.0173;
27.9000;0.9573;-5.0173;
28.2000;0.9581;-5.0095;
28.5000;0.9581;-5.0250;
28.8000;0.9605;-5.0173;
29.1000;0.9605;-5.0199;
29.4000;0.9613;-5.0225;
29.7000;0.9638;-5.0250;
30.0000;0.9654;-5.0250;
30.3000;0.9654;-5.0276;
30.6000;0.9678;-5.0380;
30.9000;0.9687;-5.0406;
31.2000;0.9687;-5.0328;
31.5000;0.9703;-5.0380;
31.8000;0.9703;-5.0432;
32.1000;0.9711;-5.0509;
32.4000;0.9744;-5.0458;
32.7000;0.9703;-5.0561;
33.0000;0.9703;-5.0535;
33.3000;0.9735;-5.0458;
33.6000;0.9768;-5.0458;
33.9000;0.9752;-5.0509;
34.2000;0.9744;-5.0587;
34.5000;0.9784;-5.0509;
34.8000;0.9735;-5.0587;
35.1000;0.9776;-5.0458;
35.4000;0.9735;-5.0535;
35.7000;0.9784;-5.0484;
36.0000;0.9768;-5.0561;
36.3000;0.9817;-5.0484;
36.6000;0.9784;-5.0535;
36.9000;0.9849;-5.0432;
37.2000;0.9874;-5.0432;
37.5000;0.9849;-5.0561;
37.8000;0.9858;-5.0509;
38.1000;0.9817;-5.0639;
38.4000;0.9866;-5.0561;
38.7000;0.9866;-5.0639;
39.0000;0.9866;-5.0587;
39.3000;0.9866;-5.0587;
39.6000;0.9874;-5.0639;
39.9000;0.9882;-5.0561;
40.2000;0.9898;-5.0509;
40.5000;0.9939;-5.0458;
40.8000;0.9906;-5.0587;
41.1000;0.9906;-5.0535;
41.4000;0.9906;-5.0561;
41.7000;0.9906;-5.0613;
42.0000;0.9906;-5.0665;
42.3000;0.9947;-5.0509;
42.6000;0.9931;-5.0561;
42.9000;0.9915;-5.0613;
43.2000;0.9947;-5.0484;
43.5000;0.9923;-5.0509;
43.8000;0.9955;-5.0458;
44.1000;0.9996;-5.0328;
44.4000;0.9947;-5.0484;
44.7000;0.9955;-5.0509;
45.0000;0.9955;-5.0535;
45.3000;0.9955;-5.0587;
45.6000;0.9955;-5.0587;
45.9000;0.9972;-5.0484;
46.2000;1.0020;-5.0380;
46.5000;0.9980;-5.0509;
46.8000;0.9955;-5.0665;
47.1000;0.9996;-5.0587;
47.4000;0.9988;-5.0665;
47.7000;0.9988;-5.0743;
48.0000;0.9988;-5.0768;
48.3000;1.0004;-5.0743;
48.6000;0.9996;-5.0717;
48.9000;1.0004;-5.0665;
49.2000;0.9996;-5.0717;
49.5000;0.9996;-5.0768;
49.8000;0.9996;-5.0820;
50.1000;1.0069;-5.0639;
50.4000;1.0028;-5.0794;
50.7000;0.9963;-5.0872;
51.0000;1.0020;-5.0820;
51.3000;1.0028;-5.0768;
51.6000;1.0028;-5.0820;
51.9000;1.0012;-5.0820;
52.2000;1.0020;-5.0768;
52.5000;1.0028;-5.0768;
52.8000;1.0110;-5.0665;
53.1000;1.0037;-5.0872;
53.4000;1.0110;-5.0691;
53.7000;1.0045;-5.0898;
54.0000;1.0020;-5.0950;
54.3000;1.0045;-5.0872;
54.6000;1.0045;-5.0872;
54.9000;1.0053;-5.0950;
55.2000;1.0053;-5.1028;
55.5000;1.0045;-5.1079;
55.8000;1.0061;-5.0976;
56.1000;1.0085;-5.0872;
56.4000;1.0061;-5.0924;
56.7000;1.0069;-5.0924;
57.0000;1.0094;-5.0898;
57.3000;1.0085;-5.1028;
57.6000;1.0077;-5.1105;
57.9000;1.0094;-5.1053;
58.2000;1.0061;-5.1079;
58.5000;1.0069;-5.1053;
58.8000;1.0094;-5.1002;
59.1000;1.0085;-5.1053;
59.4000;1.0077;-5.1079;
59.7000;1.0069;-5.1105;
60.0000;1.0102;-5.1053;
60.3000;1.0102;-5.1028;
60.6000;1.0118;-5.0976;
60.9000;1.0102;-5.1028;
61.2000;1.0102;-5.1131;
61.5000;1.0102;-5.1131;
61.8000;1.0085;-5.1287;
62.1000;1.0102;-5.1312;
62.4000;1.0085;-5.1390;
62.7000;1.0061;-5.1520;
63.0000;1.0118;-5.1468;
63.3000;1.0102;-5.1520;
63.6000;1.0126;-5.1442;
63.9000;1.0126;-5.1416;
64.2000;1.0142;-5.1312;
64.5000;1.0053;-5.1571;
64.8000;1.0126;-5.1442;
65.1000;1.0126;-5.1468;
65.4000;1.0134;-5.1546;
65.7000;1.0142;-5.1649;
66.0000;1.0126;-5.1623;
66.3000;1.0126;-5.1649;
66.6000;1.0126;-5.1597;
66.9000;1.0159;-5.1546;
67.2000;1.0134;-5.1623;
67.5000;1.0159;-5.1649;
67.8000;1.0159;-5.1597;
68.1000;1.0142;-5.1623;
68.4000;1.0110;-5.1753;
68.7000;1.0142;-5.1623;
69.0000;1.0151;-5.1675;
69.3000;1.0159;-5.1701;
69.6000;1.0151;-5.1753;
69.9000;1.0159;-5.1753;
70.2000;1.0151;-5.1779;
70.5000;1.0167;-5.1805;
70.8000;1.0159;-5.1830;
71.1000;1.0183;-5.1727;
71.4000;1.0159;-5.1805;
71.7000;1.0167;-5.1779;
72.0000;1.0224;-5.1649;
72.3000;1.0159;-5.1753;
72.6000;1.0142;-5.1753;
72.9000;1.0175;-5.1649;
73.2000;1.0175;-5.1753;
73.5000;1.0191;-5.1830;
73.8000;1.0175;-5.1908;
74.1000;1.0191;-5.1882;
74.4000;1.0208;-5.2012;
74.7000;1.0208;-5.2115;
75.0000;1.0199;-5.2219;
75.3000;1.0199;-5.2090;
75.6000;1.0199;-5.2064;
75.9000;1.0208;-5.2090;
76.2000;1.0199;-5.2219;
76.5000;1.0199;-5.2271;
76.8000;1.0208;-5.2219;
77.1000;1.0232;-5.2141;
77.4000;1.0281;-5.2012;
77.7000;1.0208;-5.2219;
78.0000;1.0216;-5.2219;
78.3000;1.0232;-5.2271;
78.6000;1.0224;-5.2349;
78.9000;1.0208;-5.2271;
79.2000;1.0224;-5.2297;
79.5000;1.0240;-5.2349;
79.8000;1.0240;-5.2374;
80.1000;1.0232;-5.2478;
80.4000;1.0224;-5.2504;
80.7000;1.0248;-5.2426;
81.0000;1.0248;-5.2374;
81.3000;1.0248;-5.2400;
81.6000;1.0256;-5.2297;
81.9000;1.0256;-5.2374;
82.2000;1.0265;-5.2297;
82.5000;1.0256;-5.2374;
82.8000;1.0248;-5.2478;
83.1000;1.0273;-5.2452;
83.4000;1.0265;-5.2478;
83.7000;1.0273;-5.2426;
84.0000;1.0248;-5.2478;
84.3000;1.0273;-5.2608;
84.6000;1.0289;-5.2556;
84.9000;1.0256;-5.2582;
85.2000;1.0265;-5.2582;
85.5000;1.0232;-5.2633;
85.8000;1.0281;-5.2582;
86.1000;1.0289;-5.2608;
86.4000;1.0281;-5.2608;
86.7000;1.0289;-5.2711;
87.0000;1.0289;-5.2737;
87.3000;1.0305;-5.2659;
87.6000;1.0256;-5.2841;
87.9000;1.0305;-5.2685;
88.2000;1.0256;-5.2867;
88.5000;1.0305;-5.2815;
88.8000;1.0305;-5.2867;
89.1000;1.0322;-5.2815;
89.4000;1.0305;-5.2867;
89.7000;1.0305;-5.2892;
90.0000;1.0297;-5.2970;
90.3000;1.0354;-5.2815;
90.6000;1.0379;-5.2815;
90.9000;1.0330;-5.2892;
91.2000;1.0330;-5.2970;
91.5000;1.0248;-5.3255;
91.8000;1.0330;-5.3048;
92.1000;1.0330;-5.2996;
92.4000;1.0273;-5.3229;
92.7000;1.0338;-5.3048;
93.0000;1.0338;-5.2944;
93.3000;1.0354;-5.2944;
93.6000;1.0338;-5.2944;
93.9000;1.0370;-5.2918;
94.2000;1.0346;-5.2996;
94.5000;1.0370;-5.3022;
94.8000;1.0354;-5.3100;
95.1000;1.0346;-5.3151;
95.4000;1.0354;-5.3255;
95.7000;1.0362;-5.3229;
96.0000;1.0370;-5.3203;
96.3000;1.0354;-5.3203;
96.6000;1.0362;-5.3281;
96.9000;1.0330;-5.3359;
97.2000;1.0379;-5.3229;
97.5000;1.0387;-5.3229;
97.8000;1.0379;-5.3229;
98.1000;1.0403;-5.3203;
98.4000;1.0395;-5.3229;
98.7000;1.0403;-5.3255;
99.0000;1.0411;-5.3100;
99.3000;1.0395;-5.3126;
99.6000;1.0387;-5.3229;
99.9000;1.0403;-5.3203;
100.2000;1.0403;-5.3255;
100.5000;1.0411;-5.3307;
100.8000;1.0403;-5.3333;
101.1000;1.0419;-5.3255;
101.4000;1.0444;-5.3281;
101.7000;1.0419;-5.3385;
102.0000;1.0403;-5.3411;
102.3000;1.0419;-5.3333;
102.6000;1.0419;-5.3385;
102.9000;1.0435;-5.3462;
103.2000;1.0444;-5.3540;
103.5000;1.0444;-5.3592;
103.8000;1.0395;-5.3644;
104.1000;1.0460;-5.3540;
104.4000;1.0435;-5.3644;
104.7000;1.0395;-5.3799;
105.0000;1.0468;-5.3670;
105.3000;1.0468;-5.3644;
105.6000;1.0427;-5.3825;
105.9000;1.0468;-5.3721;
106.2000;1.0460;-5.3799;
106.5000;1.0476;-5.3721;
106.8000;1.0395;-5.3929;
107.1000;1.0460;-5.3721;
107.4000;1.0476;-5.3747;
107.7000;1.0476;-5.3721;
108.0000;1.0484;-5.3618;
108.3000;1.0476;-5.3670;
108.6000;1.0484;-5.3747;
108.9000;1.0484;-5.3799;
109.2000;1.0476;-5.3903;
109.5000;1.0476;-5.3851;
109.8000;1.0484;-5.3799;
110.1000;1.0492;-5.3799;
110.4000;1.0501;-5.3799;
110.7000;1.0509;-5.3747;
111.0000;1.0492;-5.3851;
111.3000;1.0509;-5.3929;
111.6000;1.0574;-5.3747;
111.9000;1.0517;-5.3903;
112.2000;1.0517;-5.3954;
112.5000;1.0525;-5.3954;
112.8000;1.0517;-5.4006;
113.1000;1.0501;-5.3954;
113.4000;1.0533;-5.3877;
113.7000;1.0541;-5.3954;
114.0000;1.0558;-5.3980;
114.3000;1.0549;-5.3903;
114.6000;1.0558;-5.3799;
114.9000;1.0541;-5.3851;
115.2000;1.0566;-5.3929;
115.5000;1.0574;-5.3929;
115.8000;1.0566;-5.4006;
116.1000;1.0574;-5.4084;
116.4000;1.0582;-5.4110;
116.7000;1.0582;-5.4136;
117.0000;1.0582;-5.4136;
117.3000;1.0582;-5.4058;
117.6000;1.0590;-5.4084;
117.9000;1.0598;-5.4058;
118.2000;1.0574;-5.4162;
118.5000;1.0582;-5.4162;
118.8000;1.0598;-5.4110;
119.1000;1.0615;-5.4213;
119.4000;1.0606;-5.4213;
119.7000;1.0615;-5.4136;
120.0000;1.0582;-5.4136;
120.3000;1.0606;-5.4136;
120.6000;1.0615;-5.4213;
120.9000;1.0623;-5.4317;
121.2000;1.0647;-5.4317;
121.5000;1.0639;-5.4343;
121.8000;1.0639;-5.4343;
122.1000;1.0639;-5.4369;
122.4000;1.0631;-5.4498;
122.7000;1.0631;-5.4524;
123.0000;1.0655;-5.4473;
123.3000;1.0663;-5.4369;
123.6000;1.0663;-5.4447;
123.9000;1.0655;-5.4447;
124.2000;1.0663;-5.4473;
124.5000;1.0655;-5.4447;
124.8000;1.0672;-5.4447;
125.1000;1.0655;-5.4343;
125.4000;1.0647;-5.4369;
125.7000;1.0655;-5.4343;
126.0000;1.0631;-5.4395;
126.3000;1.0655;-5.4369;
126.6000;1.0655;-5.4343;
126.9000;1.0680;-5.4317;
127.2000;1.0753;-5.4162;
127.5000;1.0639;-5.4498;
127.8000;1.0639;-5.4550;
128.1000;1.0663;-5.4498;
128.4000;1.0745;-5.4265;
128.7000;1.0672;-5.4421;
129.0000;1.0655;-5.4447;
129.3000;1.0696;-5.4317;
129.6000;1.0704;-5.4317;
129.9000;1.0729;-5.4213;
130.2000;1.0712;-5.4317;
130.5000;1.0720;-5.4265;
130.8000;1.0720;-5.4369;
131.1000;1.0729;-5.4395;
131.4000;1.0704;-5.4447;
131.7000;1.0729;-5.4498;
132.0000;1.0729;-5.4498;
132.3000;1.0720;-5.4447;
132.6000;1.0712;-5.4421;
132.9000;1.0720;-5.4369;
133.2000;1.0712;-5.4447;
133.5000;1.0704;-5.4343;
133.8000;1.0737;-5.4317;
134.1000;1.0737;-5.4291;
134.4000;1.0672;-5.4395;
134.7000;1.0745;-5.4213;
135.0000;1.0753;-5.4291;
135.3000;1.0761;-5.4265;
135.6000;1.0761;-5.4317;
135.9000;1.0761;-5.4395;
136.2000;1.0737;-5.4473;
136.5000;1.0761;-5.4447;
136.8000;1.0745;-5.4473;
137.1000;1.0761;-5.4395;
137.4000;1.0761;-5.4369;
137.7000;1.0753;-5.4369;
138.0000;1.0818;-5.4317;
138.3000;1.0777;-5.4498;
138.6000;1.0777;-5.4473;
138.9000;1.0786;-5.4473;
139.2000;1.0777;-5.4576;
139.5000;1.0794;-5.4576;
139.8000;1.0794;-5.4602;
140.1000;1.0802;-5.4654;
140.4000;1.0802;-5.4654;
140.7000;1.0810;-5.4757;
141.0000;1.0810;-5.4628;
141.3000;1.0826;-5.4706;
141.6000;1.0802;-5.4783;
141.9000;1.0826;-5.4680;
142.2000;1.0834;-5.4654;
142.5000;1.0834;-5.4732;
142.8000;1.0769;-5.4835;
143.1000;1.0834;-5.4783;
143.4000;1.0826;-5.4680;
143.7000;1.0802;-5.4732;
144.0000;1.0818;-5.4783;
144.3000;1.0794;-5.4887;
144.6000;1.0834;-5.4757;
144.9000;1.0867;-5.4757;
145.2000;1.0867;-5.4783;
145.5000;1.0851;-5.4809;
145.8000;1.0916;-5.4783;
146.1000;1.0883;-5.4809;
146.4000;1.0859;-5.4861;
146.7000;1.0842;-5.4913;
147.0000;1.0842;-5.4757;
147.3000;1.0851;-5.4654;
147.6000;1.0859;-5.4602;
147.9000;1.0842;-5.4654;
148.2000;1.0859;-5.4576;
148.5000;1.0883;-5.4421;
148.8000;1.0891;-5.4421;
149.1000;1.0867;-5.4473;
149.4000;1.0867;-5.4628;
149.7000;1.0859;-5.4654;
150.0000;1.0899;-5.4550;
150.3000;1.0859;-5.4628;
150.6000;1.0883;-5.4550;
150.9000;1.0899;-5.4550;
151.2000;1.0899;-5.4628;
151.5000;1.0891;-5.4680;
151.8000;1.0883;-5.4732;
152.1000;1.0899;-5.4732;
152.4000;1.0859;-5.4913;
152.7000;1.0875;-5.4861;
153.0000;1.0891;-5.4861;
153.3000;1.0899;-5.4757;
153.6000;1.0965;-5.4602;
153.9000;1.0891;-5.4783;
154.2000;1.0908;-5.4732;
154.5000;1.0997;-5.4550;
154.8000;1.0916;-5.4732;
155.1000;1.0924;-5.4757;
155.4000;1.0916;-5.4757;
155.7000;1.0948;-5.4757;
156.0000;1.0924;-5.4732;
156.3000;1.0940;-5.4706;
156.6000;1.0940;-5.4602;
156.9000;1.0924;-5.4680;
157.2000;1.0924;-5.4680;
157.5000;1.0932;-5.4757;
157.8000;1.0940;-5.4680;
158.1000;1.0932;-5.4706;
158.4000;1.0932;-5.4680;
158.7000;1.0940;-5.4628;
159.0000;1.0965;-5.4550;
159.3000;1.0940;-5.4602;
159.6000;1.0940;-5.4628;
159.9000;1.0940;-5.4654;
160.2000;1.0956;-5.4680;
160.5000;1.0948;-5.4732;
160.8000;1.1013;-5.4576;
161.1000;1.0948;-5.4732;
161.4000;1.0956;-5.4654;
161.7000;1.0916;-5.4732;
162.0000;1.0956;-5.4628;
162.3000;1.0956;-5.4524;
162.6000;1.0948;-5.4473;
162.9000;1.0940;-5.4498;
163.2000;1.0956;-5.4524;
163.5000;1.0956;-5.4628;
163.8000;1.0973;-5.4680;
164.1000;1.0981;-5.4706;
164.4000;1.0965;-5.4835;
164.7000;1.0956;-5.4991;
165.0000;1.0973;-5.5016;
165.3000;1.0973;-5.5016;
165.6000;1.0981;-5.4965;
165.9000;1.0989;-5.4939;
166.2000;1.0973;-5.5068;
166.5000;1.0989;-5.5042;
166.8000;1.1062;-5.4913;
167.1000;1.0973;-5.5016;
167.4000;1.0989;-5.4913;
167.7000;1.0973;-5.5042;
168.0000;1.1005;-5.5016;
168.3000;1.0981;-5.5094;
168.6000;1.0989;-5.5068;
168.9000;1.0956;-5.5146;
169.2000;1.1013;-5.5068;
169.5000;1.1005;-5.5094;
169.8000;1.1013;-5.5042;
170.1000;1.0997;-5.5016;
170.4000;1.1030;-5.5042;
170.7000;1.1013;-5.5042;
171.0000;1.1013;-5.5042;
171.3000;1.1013;-5.5120;
171.6000;1.1022;-5.5120;
171.9000;1.1022;-5.5094;
172.2000;1.1013;-5.5146;
172.5000;1.1005;-5.5094;
172.8000;1.1022;-5.5016;
173.1000;1.1005;-5.5042;
173.4000;1.0997;-5.5042;
173.7000;1.1013;-5.5042;
174.0000;1.1046;-5.5016;
174.3000;1.1030;-5.5068;
174.6000;1.1030;-5.5094;
174.9000;1.1013;-5.5198;
175.2000;1.1022;-5.5120;
175.5000;1.1046;-5.5016;
175.8000;1.1046;-5.5094;
176.1000;1.0965;-5.5327;
176.4000;1.1038;-5.5172;
176.7000;1.1054;-5.5172;
177.0000;1.1054;-5.5094;
177.3000;1.1054;-5.5094;
177.6000;1.1079;-5.4991;
177.9000;1.1054;-5.5094;
178.2000;1.1054;-5.5172;
178.5000;1.1054;-5.5120;
178.8000;1.1054;-5.5068;
179.1000;1.1062;-5.5016;
179.4000;1.1070;-5.4991;
179.7000;1.1038;-5.5094;
180.0000;1.1070;-5.5016;
180.3000;1.1062;-5.5146;
180.6000;1.1054;-5.5068;
180.9000;1.1079;-5.5016;
181.2000;1.1054;-5.5120;
181.5000;1.1079;-5.5146;
181.8000;1.1079;-5.5146;
182.1000;1.1079;-5.5172;
182.4000;1.1054;-5.5120;
182.7000;1.1062;-5.5146;
183.0000;1.1062;-5.5120;
183.3000;1.1070;-5.5016;
183.6000;1.1136;-5.4887;
183.9000;1.1046;-5.5068;
184.2000;1.1054;-5.5042;
184.5000;1.1054;-5.5094;
184.8000;1.1079;-5.5068;
185.1000;1.1062;-5.5042;
185.4000;1.1079;-5.5068;
185.7000;1.1119;-5.5094;
186.0000;1.1079;-5.5224;
186.3000;1.1070;-5.5250;
186.6000;1.1070;-5.5224;
186.9000;1.1087;-5.5146;
187.2000;1.1087;-5.5198;
187.5000;1.1087;-5.5094;
187.8000;1.1087;-5.5094;
188.1000;1.1038;-5.5224;
188.4000;1.1087;-5.5224;
188.7000;1.1087;-5.5224;
189.0000;1.1070;-5.5275;
189.3000;1.1095;-5.5301;
189.6000;1.1095;-5.5275;
189.9000;1.1087;-5.5172;
190.2000;1.1095;-5.5042;
190.5000;1.1087;-5.5120;
190.8000;1.1095;-5.5172;
191.1000;1.1095;-5.5172;
191.4000;1.1111;-5.5120;
191.7000;1.1111;-5.5172;
192.0000;1.1111;-5.5327;
192.3000;1.1127;-5.5250;
192.6000;1.1111;-5.5301;
192.9000;1.1111;-5.5250;
193.2000;1.1046;-5.5405;
193.5000;1.1136;-5.5224;
193.8000;1.1119;-5.5198;
194.1000;1.1184;-5.5146;
194.4000;1.1152;-5.5275;
194.7000;1.1136;-5.5327;
195.0000;1.1136;-5.5353;
195.3000;1.1144;-5.5250;
195.6000;1.1127;-5.5250;
195.9000;1.1127;-5.5198;
196.2000;1.1119;-5.5250;
196.5000;1.1127;-5.5224;
196.8000;1.1127;-5.5146;
197.1000;1.1111;-5.5094;
197.4000;1.1144;-5.4991;
197.7000;1.1127;-5.5042;
198.0000;1.1136;-5.5172;
198.3000;1.1152;-5.5146;
198.6000;1.1168;-5.5094;
198.9000;1.1127;-5.5146;
199.2000;1.1079;-5.5327;
199.5000;1.1144;-5.5250;
199.8000;1.1152;-5.5198;
200.1000;1.1136;-5.5198;
200.4000;1.1136;-5.5275;
200.7000;1.1127;-5.5198;
201.0000;1.1119;-5.5301;
201.3000;1.1160;-5.5250;
201.6000;1.1095;-5.5379;
201.9000;1.1168;-5.5198;
202.2000;1.1160;-5.5198;
202.5000;1.1201;-5.5120;
202.8000;1.1160;-5.5146;
203.1000;1.1168;-5.5198;
203.4000;1.1127;-5.5301;
203.7000;1.1119;-5.5327;
204.0000;1.1152;-5.5198;
204.3000;1.1160;-5.5250;
204.6000;1.1144;-5.5224;
204.9000;1.1152;-5.5172;
205.2000;1.1160;-5.5198;
205.5000;1.1160;-5.5198;
205.8000;1.1103;-5.5301;
206.1000;1.1193;-5.5016;
206.4000;1.1160;-5.5146;
206.7000;1.1144;-5.5120;
207.0000;1.1168;-5.5224;
207.3000;1.1152;-5.5198;
207.6000;1.1144;-5.5120;
207.9000;1.1176;-5.4965;
208.2000;1.1152;-5.5094;
208.5000;1.1160;-5.5146;
208.8000;1.1193;-5.5068;
209.1000;1.1127;-5.5198;
209.4000;1.1136;-5.5198;
209.7000;1.1152;-5.5146;
210.0000;1.1160;-5.5094;
210.3000;1.1160;-5.5094;
210.6000;1.1152;-5.5068;
210.9000;1.1152;-5.5068;
211.2000;1.1168;-5.5198;
211.5000;1.1176;-5.5120;
211.8000;1.1176;-5.5094;
212.1000;1.1193;-5.5146;
212.4000;1.1193;-5.5120;
212.7000;1.1176;-5.5198;
213.0000;1.1184;-5.5275;
213.3000;1.1176;-5.5275;
213.6000;1.1176;-5.5301;
213.9000;1.1201;-5.5327;
214.2000;1.1184;-5.5457;
214.5000;1.1217;-5.5457;
214.8000;1.1225;-5.5353;
215.1000;1.1184;-5.5301;
215.4000;1.1209;-5.5250;
215.7000;1.1201;-5.5172;
216.0000;1.1201;-5.5198;
216.3000;1.1209;-5.5224;
216.6000;1.1201;-5.5224;
216.9000;1.1176;-5.5250;
217.2000;1.1176;-5.5353;
217.5000;1.1201;-5.5198;
217.8000;1.1209;-5.5250;
218.1000;1.1201;-5.5250;
218.4000;1.1193;-5.5198;
218.7000;1.1184;-5.5198;
219.0000;1.1217;-5.5250;
219.3000;1.1193;-5.5275;
219.6000;1.1176;-5.5327;
219.9000;1.1201;-5.5250;
220.2000;1.1201;-5.5275;
220.5000;1.1193;-5.5353;
220.8000;1.1176;-5.5405;
221.1000;1.1225;-5.5146;
221.4000;1.1193;-5.5275;
221.7000;1.1201;-5.5198;
222.0000;1.1209;-5.5224;
222.3000;1.1201;-5.5224;
222.6000;1.1209;-5.5275;
222.9000;1.1168;-5.5353;
223.2000;1.1258;-5.5172;
223.5000;1.1233;-5.5172;
223.8000;1.1193;-5.5405;
224.1000;1.1217;-5.5353;
224.4000;1.1201;-5.5431;
224.7000;1.1209;-5.5250;
225.0000;1.1209;-5.5275;
225.3000;1.1249;-5.5146;
225.6000;1.1225;-5.5250;
225.9000;1.1225;-5.5172;
226.2000;1.1160;-5.5379;
226.5000;1.1209;-5.5224;
226.8000;1.1209;-5.5250;
227.1000;1.1209;-5.5301;
227.4000;1.1217;-5.5301;
227.7000;1.1217;-5.5327;
228.0000;1.1225;-5.5327;
228.3000;1.1233;-5.5327;
228.6000;1.1168;-5.5483;
228.9000;1.1217;-5.5431;
229.2000;1.1249;-5.5405;
229.5000;1.1233;-5.5431;
229.8000;1.1209;-5.5509;
230.1000;1.1217;-5.5457;
230.4000;1.1241;-5.5353;
230.7000;1.1193;-5.5431;
231.0000;1.1233;-5.5379;
231.3000;1.1209;-5.5379;
231.6000;1.1217;-5.5353;
231.9000;1.1233;-5.5275;
232.2000;1.1217;-5.5327;
232.5000;1.1217;-5.5275;
232.8000;1.1209;-5.5250;
233.1000;1.1225;-5.5250;
233.4000;1.1209;-5.5301;
233.7000;1.1233;-5.5275;
234.0000;1.1217;-5.5275;
234.3000;1.1209;-5.5327;
234.6000;1.1209;-5.5353;
234.9000;1.1184;-5.5405;
235.2000;1.1201;-5.5405;
235.5000;1.1233;-5.5353;
235.8000;1.1225;-5.5405;
236.1000;1.1209;-5.5431;
236.4000;1.1233;-5.5353;
236.7000;1.1249;-5.5250;
237.0000;1.1258;-5.5224;
237.3000;1.1233;-5.5353;
237.6000;1.1225;-5.5405;
237.9000;1.1241;-5.5457;
238.2000;1.1233;-5.5431;
238.5000;1.1233;-5.5353;
238.8000;1.1176;-5.5560;
239.1000;1.1249;-5.5353;
239.4000;1.1282;-5.5224;
239.7000;1.1249;-5.5327;
240.0000;1.1233;-5.5457;
240.3000;1.1266;-5.5431;
240.6000;1.1249;-5.5483;
240.9000;1.1258;-5.5483;
241.2000;1.1249;-5.5457;
241.5000;1.1217;-5.5379;
241.8000;1.1209;-5.5405;
242.1000;1.1266;-5.5327;
242.4000;1.1241;-5.5301;
242.7000;1.1266;-5.5250;
243.0000;1.1225;-5.5327;
243.3000;1.1266;-5.5250;
243.6000;1.1249;-5.5327;
243.9000;1.1274;-5.5301;
244.2000;1.1274;-5.5327;
244.5000;1.1249;-5.5379;
244.8000;1.1290;-5.5146;
245.1000;1.1225;-5.5224;
245.4000;1.1233;-5.5224;
245.7000;1.1249;-5.5198;
246.0000;1.1241;-5.5301;
246.3000;1.1225;-5.5327;
246.6000;1.1249;-5.5250;
246.9000;1.1249;-5.5327;
247.2000;1.1249;-5.5379;
247.5000;1.1249;-5.5379;
247.8000;1.1241;-5.5457;
248.1000;1.1249;-5.5405;
248.4000;1.1266;-5.5431;
248.7000;1.1258;-5.5457;
249.0000;1.1249;-5.5431;
249.3000;1.1258;-5.5457;
249.6000;1.1266;-5.5431;
249.9000;1.1274;-5.5483;
250.2000;1.1258;-5.5535;
250.5000;1.1298;-5.5353;
250.8000;1.1266;-5.5431;
251.1000;1.1249;-5.5457;
251.4000;1.1266;-5.5379;
251.7000;1.1282;-5.5301;
252.0000;1.1249;-5.5379;
252.3000;1.1225;-5.5483;
252.6000;1.1241;-5.5431;
252.9000;1.1249;-5.5379;
253.2000;1.1249;-5.5353;
253.5000;1.1258;-5.5301;
253.8000;1.1274;-5.5353;
254.1000;1.1241;-5.5405;
254.4000;1.1241;-5.5457;
254.7000;1.1274;-5.5353;
255.0000;1.1266;-5.5301;
255.3000;1.1266;-5.5327;
255.6000;1.1266;-5.5327;
255.9000;1.1258;-5.5301;
256.2000;1.1258;-5.5327;
256.5000;1.1241;-5.5457;
256.8000;1.1258;-5.5353;
257.1000;1.1241;-5.5353;
257.4000;1.1266;-5.5146;
257.7000;1.1290;-5.5146;
258.0000;1.1241;-5.5198;
258.3000;1.1249;-5.5275;
258.6000;1.1274;-5.5275;
258.9000;1.1249;-5.5275;
259.2000;1.1282;-5.5301;
259.5000;1.1274;-5.5275;
259.8000;1.1306;-5.5275;
260.1000;1.1298;-5.5301;
260.4000;1.1258;-5.5483;
260.7000;1.1282;-5.5483;
261.0000;1.1217;-5.5612;
261.3000;1.1282;-5.5379;
261.6000;1.1274;-5.5457;
261.9000;1.1274;-5.5379;
262.2000;1.1258;-5.5431;
262.5000;1.1274;-5.5353;
262.8000;1.1282;-5.5405;
263.1000;1.1274;-5.5379;
263.4000;1.1274;-5.5431;
263.7000;1.1266;-5.5405;
264.0000;1.1274;-5.5457;
264.3000;1.1266;-5.5535;
264.6000;1.1298;-5.5431;
264.9000;1.1258;-5.5560;
265.2000;1.1298;-5.5353;
265.5000;1.1266;-5.5379;
265.8000;1.1290;-5.5327;
266.1000;1.1266;-5.5405;
266.4000;1.1193;-5.5586;
266.7000;1.1282;-5.5379;
267.0000;1.1282;-5.5301;
267.3000;1.1290;-5.5327;
267.6000;1.1282;-5.5353;
267.9000;1.1323;-5.5301;
268.2000;1.1306;-5.5353;
268.5000;1.1282;-5.5431;
268.8000;1.1290;-5.5379;
269.1000;1.1258;-5.5431;
269.4000;1.1225;-5.5405;
269.7000;1.1290;-5.5275;
270.0000;1.1274;-5.5250;
270.3000;1.1274;-5.5275;
270.6000;1.1298;-5.5301;
270.9000;1.1266;-5.5431;
271.2000;1.1266;-5.5457;
271.5000;1.1282;-5.5431;
271.8000;1.1266;-5.5483;
272.1000;1.1290;-5.5483;
272.4000;1.1274;-5.5457;
272.7000;1.1258;-5.5457;
273.0000;1.1298;-5.5353;
273.3000;1.1266;-5.5431;
273.6000;1.1282;-5.5353;
273.9000;1.1282;-5.5327;
274.2000;1.1290;-5.5301;
274.5000;1.1347;-5.5146;
274.8000;1.1282;-5.5327;
275.1000;1.1298;-5.5327;
275.4000;1.1306;-5.5327;
275.7000;1.1306;-5.5379;
276.0000;1.1306;-5.5353;
276.3000;1.1290;-5.5431;
276.6000;1.1282;-5.5509;
276.9000;1.1282;-5.5483;
277.2000;1.1290;-5.5457;
277.5000;1.1282;-5.5483;
277.8000;1.1290;-5.5509;
278.1000;1.1290;-5.5535;
278.4000;1.1282;-5.5586;
278.7000;1.1298;-5.5560;
279.0000;1.1298;-5.5586;
279.3000;1.1290;-5.5483;
279.6000;1.1290;-5.5483;
279.9000;1.1290;-5.5535;
280.2000;1.1306;-5.5612;
280.5000;1.1298;-5.5638;
280.8000;1.1290;-5.5535;
281.1000;1.1274;-5.5535;
281.4000;1.1282;-5.5431;
281.7000;1.1298;-5.5379;
282.0000;1.1233;-5.5560;
282.3000;1.1315;-5.5405;
282.6000;1.1274;-5.5509;
282.9000;1.1266;-5.5535;
283.2000;1.1290;-5.5431;
283.5000;1.1290;-5.5405;
283.8000;1.1298;-5.5431;
284.1000;1.1323;-5.5405;
284.4000;1.1282;-5.5535;
284.7000;1.1306;-5.5457;
285.0000;1.1282;-5.5509;
285.3000;1.1274;-5.5535;
285.6000;1.1315;-5.5535;
285.9000;1.1298;-5.5483;
286.2000;1.1274;-5.5509;
286.5000;1.1355;-5.5224;
286.8000;1.1290;-5.5379;
287.1000;1.1315;-5.5379;
287.4000;1.1290;-5.5509;
287.7000;1.1298;-5.5509;
288.0000;1.1306;-5.5379;
288.3000;1.1298;-5.5483;
288.6000;1.1290;-5.5431;
288.9000;1.1290;-5.5405;
289.2000;1.1306;-5.5327;
289.5000;1.1290;-5.5301;
289.8000;1.1290;-5.5327;
290.1000;1.1266;-5.5379;
290.4000;1.1306;-5.5275;
290.7000;1.1306;-5.5224;
291.0000;1.1306;-5.5250;
291.3000;1.1298;-5.5275;
291.6000;1.1323;-5.5250;
291.9000;1.1315;-5.5301;
292.2000;1.1298;-5.5301;
292.5000;1.1298;-5.5275;
292.8000;1.1282;-5.5327;
293.1000;1.1323;-5.5224;
293.4000;1.1315;-5.5275;
293.7000;1.1331;-5.5327;
294.0000;1.1298;-5.5431;
294.3000;1.1306;-5.5431;
294.6000;1.1266;-5.5612;
294.9000;1.1306;-5.5560;
295.2000;1.1298;-5.5509;
295.5000;1.1290;-5.5509;
295.8000;1.1315;-5.5379;
296.1000;1.1298;-5.5457;
296.4000;1.1306;-5.5431;
296.7000;1.1298;-5.5457;
297.0000;1.1306;-5.5431;
297.3000;1.1290;-5.5509;
297.6000;1.1315;-5.5457;
297.9000;1.1282;-5.5509;
298.2000;1.1306;-5.5535;
298.5000;1.1258;-5.5638;
298.8000;1.1347;-5.5483;
299.1000;1.1290;-5.5535;
299.4000;1.1315;-5.5457;
299.7000;1.1339;-5.5353;
300.0000;1.1323;-5.5405;
300.3000;1.1306;-5.5483;
300.6000;1.1274;-5.5560;
300.9000;1.1315;-5.5560;
301.2000;1.1306;-5.5535;
301.5000;1.1290;-5.5560;
301.8000;1.1306;-5.5509;
302.1000;1.1315;-5.5457;
302.4000;1.1290;-5.5560;
302.7000;1.1306;-5.5509;
303.0000;1.1331;-5.5431;
303.3000;1.1298;-5.5483;
303.6000;1.1323;-5.5379;
303.9000;1.1323;-5.5457;
304.2000;1.1323;-5.5509;
304.5000;1.1306;-5.5483;
304.8000;1.1355;-5.5405;
305.1000;1.1347;-5.5301;
305.4000;1.1298;-5.5379;
305.7000;1.1306;-5.5431;
306.0000;1.1323;-5.5509;
306.3000;1.1315;-5.5483;
306.6000;1.1306;-5.5560;
306.9000;1.1323;-5.5560;
307.2000;1.1331;-5.5638;
307.5000;1.1306;-5.5690;
307.8000;1.1306;-5.5612;
308.1000;1.1306;-5.5586;
308.4000;1.1323;-5.5612;
308.7000;1.1306;-5.5612;
309.0000;1.1290;-5.5612;
309.3000;1.1298;-5.5509;
309.6000;1.1298;-5.5560;
309.9000;1.1339;-5.5483;
310.2000;1.1282;-5.5535;
310.5000;1.1298;-5.5535;
310.8000;1.1298;-5.5560;
311.1000;1.1298;-5.5509;
311.4000;1.1306;-5.5560;
311.7000;1.1298;-5.5535;
312.0000;1.1315;-5.5535;
312.3000;1.1315;-5.5586;
312.6000;1.1298;-5.5535;
312.9000;1.1315;-5.5483;
313.2000;1.1298;-5.5483;
313.5000;1.1388;-5.5275;
313.8000;1.1315;-5.5405;
314.1000;1.1290;-5.5457;
314.4000;1.1306;-5.5483;
314.7000;1.1298;-5.5483;
315.0000;1.1298;-5.5560;
315.3000;1.1306;-5.5612;
315.6000;1.1306;-5.5560;
315.9000;1.1323;-5.5483;
316.2000;1.1323;-5.5509;
316.5000;1.1298;-5.5535;
316.8000;1.1331;-5.5509;
317.1000;1.1315;-5.5483;
317.4000;1.1339;-5.5483;
317.7000;1.1323;-5.5457;
318.0000;1.1315;-5.5509;
318.3000;1.1306;-5.5586;
318.6000;1.1323;-5.5586;
318.9000;1.1331;-5.5457;
319.2000;1.1339;-5.5457;
319.5000;1.1290;-5.5612;
319.8000;1.1315;-5.5664;
320.1000;1.1323;-5.5768;
320.4000;1.1315;-5.5742;
320.7000;1.1274;-5.5871;
321.0000;1.1315;-5.5819;
321.3000;1.1323;-5.5845;
321.6000;1.1306;-5.5923;
321.9000;1.1331;-5.5819;
322.2000;1.1306;-5.5949;
322.5000;1.1331;-5.5871;
322.8000;1.1258;-5.6001;
323.1000;1.1347;-5.5819;
323.4000;1.1347;-5.5819;
323.7000;1.1323;-5.5794;
324.0000;1.1323;-5.5845;
324.3000;1.1323;-5.5819;
324.6000;1.1315;-5.5794;
324.9000;1.1331;-5.5742;
325.2000;1.1315;-5.5716;
325.5000;1.1323;-5.5742;
325.8000;1.1323;-5.5794;
326.1000;1.1396;-5.5560;
326.4000;1.1347;-5.5664;
326.7000;1.1331;-5.5742;
327.0000;1.1315;-5.5819;
327.3000;1.1323;-5.5819;
327.6000;1.1339;-5.5768;
327.9000;1.1249;-5.5949;
328.2000;1.1339;-5.5794;
328.5000;1.1339;-5.5819;
328.8000;1.1331;-5.5923;
329.1000;1.1363;-5.5794;
329.4000;1.1323;-5.5923;
329.7000;1.1315;-5.5975;
330.0000;1.1323;-5.5845;
330.3000;1.1323;-5.5897;
330.6000;1.1323;-5.5794;
330.9000;1.1323;-5.5716;
331.2000;1.1323;-5.5819;
331.5000;1.1315;-5.5871;
331.8000;1.1331;-5.5768;
332.1000;1.1323;-5.5794;
332.4000;1.1266;-5.5949;
332.7000;1.1331;-5.5742;
333.0000;1.1323;-5.5742;
333.3000;1.1331;-5.5716;
333.6000;1.1315;-5.5742;
333.9000;1.1323;-5.5794;
334.2000;1.1331;-5.5845;
334.5000;1.1323;-5.5871;
334.8000;1.1315;-5.5871;
335.1000;1.1323;-5.5794;
335.4000;1.1315;-5.5690;
335.7000;1.1298;-5.5716;
336.0000;1.1323;-5.5690;
336.3000;1.1306;-5.5664;
336.6000;1.1315;-5.5664;
336.9000;1.1323;-5.5612;
337.2000;1.1347;-5.5560;
337.5000;1.1323;-5.5638;
337.8000;1.1323;-5.5690;
338.1000;1.1323;-5.5742;
338.4000;1.1331;-5.5716;
338.7000;1.1339;-5.5690;
339.0000;1.1315;-5.5768;
339.3000;1.1323;-5.5690;
339.6000;1.1282;-5.5742;
339.9000;1.1323;-5.5690;
340.2000;1.1306;-5.5638;
340.5000;1.1315;-5.5535;
340.8000;1.1323;-5.5560;
341.1000;1.1331;-5.5535;
341.4000;1.1347;-5.5560;
341.7000;1.1323;-5.5586;
342.0000;1.1323;-5.5586;
342.3000;1.1331;-5.5483;
342.6000;1.1331;-5.5457;
342.9000;1.1331;-5.5483;
343.2000;1.1347;-5.5379;
343.5000;1.1380;-5.5275;
343.8000;1.1339;-5.5405;
344.1000;1.1323;-5.5353;
344.4000;1.1323;-5.5379;
344.7000;1.1315;-5.5405;
345.0000;1.1306;-5.5457;
345.3000;1.1266;-5.5509;
345.6000;1.1331;-5.5431;
345.9000;1.1323;-5.5483;
346.2000;1.1331;-5.5353;
346.5000;1.1315;-5.5405;
346.8000;1.1380;-5.5224;
347.1000;1.1339;-5.5405;
347.4000;1.1274;-5.5483;
347.7000;1.1315;-5.5353;
348.0000;1.1331;-5.5431;
348.3000;1.1315;-5.5483;
348.6000;1.1315;-5.5457;
348.9000;1.1323;-5.5431;
349.2000;1.1315;-5.5509;
349.5000;1.1290;-5.5535;
349.8000;1.1380;-5.5431;
350.1000;1.1323;-5.5664;
350.4000;1.1315;-5.5690;
350.7000;1.1339;-5.5612;
351.0000;1.1331;-5.5560;
351.3000;1.1331;-5.5457;
351.6000;1.1331;-5.5431;
351.9000;1.1363;-5.5275;
352.2000;1.1339;-5.5379;
352.5000;1.1339;-5.5275;
352.8000;1.1331;-5.5301;
353.1000;1.1347;-5.5379;
353.4000;1.1331;-5.5353;
353.7000;1.1315;-5.5483;
354.0000;1.1339;-5.5405;
354.3000;1.1306;-5.5535;
354.6000;1.1331;-5.5431;
354.9000;1.1315;-5.5431;
355.2000;1.1315;-5.5560;
355.5000;1.1339;-5.5431;
355.8000;1.1331;-5.5509;
356.1000;1.1437;-5.5327;
356.4000;1.1339;-5.5586;
356.7000;1.1331;-5.5560;
357.0000;1.1331;-5.5535;
357.3000;1.1339;-5.5431;
357.6000;1.1339;-5.5457;
357.9000;1.1298;-5.5431;
358.2000;1.1331;-5.5327;
358.5000;1.1331;-5.5431;
358.8000;1.1339;-5.5483;
359.1000;1.1315;-5.5535;
359.4000;1.1323;-5.5509;
359.7000;1.1331;-5.5483;
360.0000;1.1323;-5.5483;
360.3000;1.1323;-5.5535;
360.6000;1.1331;-5.5560;
360.9000;1.1331;-5.5509;
361.2000;1.1331;-5.5431;
361.5000;1.1315;-5.5353;
361.8000;1.1347;-5.5327;
362.1000;1.1339;-5.5301;
362.4000;1.1339;-5.5275;
362.7000;1.1331;-5.5301;
363.0000;1.1331;-5.5353;
363.3000;1.1331;-5.5379;
363.6000;1.1315;-5.5405;
363.9000;1.1339;-5.5301;
364.2000;1.1290;-5.5405;
364.5000;1.1339;-5.5224;
364.8000;1.1347;-5.5224;
365.1000;1.1355;-5.5275;
365.4000;1.1355;-5.5275;
365.7000;1.1323;-5.5379;
366.0000;1.1339;-5.5379;
366.3000;1.1323;-5.5379;
366.6000;1.1315;-5.5405;
366.9000;1.1363;-5.5250;
367.2000;1.1347;-5.5250;
367.5000;1.1347;-5.5301;
367.8000;1.1339;-5.5431;
368.1000;1.1339;-5.5457;
368.4000;1.1282;-5.5483;
368.7000;1.1339;-5.5405;
369.0000;1.1331;-5.5431;
369.3000;1.1380;-5.5327;
369.6000;1.1339;-5.5353;
369.9000;1.1298;-5.5405;
370.2000;1.1323;-5.5353;
370.5000;1.1331;-5.5301;
370.8000;1.1323;-5.5301;
371.1000;1.1339;-5.5224;
371.4000;1.1347;-5.5250;
371.7000;1.1323;-5.5224;
372.0000;1.1323;-5.5120;
372.3000;1.1429;-5.4887;
372.6000;1.1347;-5.5068;
372.9000;1.1363;-5.5094;
373.2000;1.1339;-5.5094;
373.5000;1.1339;-5.5016;
373.8000;1.1339;-5.5068;
374.1000;1.1339;-5.5094;
374.4000;1.1282;-5.5198;
374.7000;1.1306;-5.5120;
375.0000;1.1355;-5.5016;
375.3000;1.1331;-5.5042;
375.6000;1.1315;-5.5042;
375.9000;1.1323;-5.5016;
376.2000;1.1323;-5.5094;
376.5000;1.1331;-5.5094;
376.8000;1.1331;-5.5146;
377.1000;1.1315;-5.5172;
377.4000;1.1323;-5.5120;
377.7000;1.1331;-5.5120;
378.0000;1.1331;-5.5120;
378.3000;1.1347;-5.5224;
378.6000;1.1355;-5.5224;
378.9000;1.1380;-5.5146;
379.2000;1.1339;-5.5327;
379.5000;1.1339;-5.5327;
379.8000;1.1339;-5.5327;
380.1000;1.1339;-5.5353;
380.4000;1.1339;-5.5353;
380.7000;1.1339;-5.5353;
381.0000;1.1331;-5.5405;
381.3000;1.1339;-5.5327;
381.6000;1.1331;-5.5275;
381.9000;1.1315;-5.5301;
382.2000;1.1331;-5.5301;
382.5000;1.1323;-5.5327;
382.8000;1.1331;-5.5353;
383.1000;1.1339;-5.5327;
383.4000;1.1339;-5.5327;
383.7000;1.1347;-5.5327;
384.0000;1.1290;-5.5509;
384.3000;1.1339;-5.5431;
384.6000;1.1339;-5.5379;
384.9000;1.1339;-5.5483;
385.2000;1.1282;-5.5586;
385.5000;1.1363;-5.5405;
385.8000;1.1339;-5.5405;
386.1000;1.1323;-5.5379;
386.4000;1.1339;-5.5405;
386.7000;1.1306;-5.5483;
387.0000;1.1323;-5.5379;
387.3000;1.1315;-5.5353;
387.6000;1.1323;-5.5327;
387.9000;1.1323;-5.5327;
388.2000;1.1323;-5.5301;
388.5000;1.1404;-5.5224;
388.8000;1.1347;-5.5457;
389.1000;1.1339;-5.5431;
389.4000;1.1339;-5.5509;
389.7000;1.1331;-5.5483;
390.0000;1.1347;-5.5457;
390.3000;1.1339;-5.5457;
390.6000;1.1331;-5.5405;
390.9000;1.1339;-5.5379;
391.2000;1.1323;-5.5405;
391.5000;1.1331;-5.5379;
391.8000;1.1388;-5.5250;
392.1000;1.1315;-5.5379;
392.4000;1.1339;-5.5327;
392.7000;1.1339;-5.5379;
393.0000;1.1396;-5.5172;
393.3000;1.1323;-5.5405;
393.6000;1.1323;-5.5483;
393.9000;1.1347;-5.5457;
394.2000;1.1331;-5.5483;
394.5000;1.1355;-5.5431;
394.8000;1.1315;-5.5535;
395.1000;1.1331;-5.5535;
395.4000;1.1331;-5.5483;
395.7000;1.1363;-5.5457;
396.0000;1.1339;-5.5457;
396.3000;1.1331;-5.5535;
396.6000;1.1331;-5.5483;
396.9000;1.1306;-5.5405;
397.2000;1.1323;-5.5250;
397.5000;1.1331;-5.5250;
397.8000;1.1306;-5.5379;
398.1000;1.1323;-5.5353;
398.4000;1.1315;-5.5301;
398.7000;1.1331;-5.5250;
399.0000;1.1323;-5.5198;
399.3000;1.1331;-5.5250;
399.6000;1.1347;-5.5250;
399.9000;1.1388;-5.5146;
400.2000;1.1331;-5.5275;
400.5000;1.1355;-5.5301;
400.8000;1.1339;-5.5327;
401.1000;1.1315;-5.5457;
401.4000;1.1339;-5.5353;
401.7000;1.1339;-5.5353;
402.0000;1.1331;-5.5431;
402.3000;1.1331;-5.5431;
402.6000;1.1323;-5.5327;
402.9000;1.1363;-5.5250;
403.2000;1.1339;-5.5327;
403.5000;1.1347;-5.5327;
403.8000;1.1347;-5.5275;
404.1000;1.1315;-5.5405;
404.4000;1.1331;-5.5250;
404.7000;1.1323;-5.5172;
405.0000;1.1315;-5.5301;
405.3000;1.1323;-5.5353;
405.6000;1.1420;-5.5172;
405.9000;1.1347;-5.5198;
406.2000;1.1331;-5.5250;
406.5000;1.1331;-5.5250;
406.8000;1.1339;-5.5172;
407.1000;1.1339;-5.5172;
407.4000;1.1323;-5.5146;
407.7000;1.1331;-5.5094;
408.0000;1.1331;-5.5068;
408.3000;1.1339;-5.5120;
408.6000;1.1339;-5.5094;
408.9000;1.1306;-5.5120;
409.2000;1.1331;-5.5172;
409.5000;1.1290;-5.5198;
409.8000;1.1347;-5.5172;
410.1000;1.1323;-5.5250;
410.4000;1.1331;-5.5172;
410.7000;1.1339;-5.5250;
411.0000;1.1347;-5.5224;
411.3000;1.1331;-5.5275;
411.6000;1.1323;-5.5250;
411.9000;1.1331;-5.5172;
412.2000;1.1331;-5.5224;
412.5000;1.1339;-5.5224;
412.8000;1.1298;-5.5379;
413.1000;1.1380;-5.5068;
413.4000;1.1323;-5.5250;
413.7000;1.1323;-5.5327;
414.0000;1.1323;-5.5327;
414.3000;1.1339;-5.5301;
414.6000;1.1323;-5.5172;
414.9000;1.1339;-5.5172;
415.2000;1.1331;-5.5301;
415.5000;1.1347;-5.5275;
415.8000;1.1323;-5.5353;
416.1000;1.1339;-5.5250;
416.4000;1.1331;-5.5224;
416.7000;1.1315;-5.5275;
417.0000;1.1339;-5.5120;
417.3000;1.1339;-5.5068;
417.6000;1.1323;-5.5120;
417.9000;1.1331;-5.5094;
418.2000;1.1331;-5.5120;
418.5000;1.1355;-5.5120;
418.8000;1.1372;-5.5042;
419.1000;1.1347;-5.5120;
419.4000;1.1347;-5.5120;
419.7000;1.1347;-5.5120;
420.0000;1.1355;-5.5146;
420.3000;1.1339;-5.5198;
420.6000;1.1339;-5.5224;
420.9000;1.1339;-5.5224;
421.2000;1.1363;-5.5146;
421.5000;1.1339;-5.5172;
421.8000;1.1347;-5.5198;
422.1000;1.1331;-5.5198;
422.4000;1.1347;-5.5224;
422.7000;1.1323;-5.5275;
423.0000;1.1331;-5.5301;
423.3000;1.1355;-5.5353;
423.6000;1.1331;-5.5483;
423.9000;1.1331;-5.5483;
424.2000;1.1315;-5.5509;
424.5000;1.1315;-5.5483;
424.8000;1.1355;-5.5431;
425.1000;1.1339;-5.5483;
425.4000;1.1339;-5.5483;
425.7000;1.1306;-5.5509;
426.0000;1.1315;-5.5379;
426.3000;1.1331;-5.5353;
426.6000;1.1315;-5.5405;
426.9000;1.1323;-5.5405;
427.2000;1.1372;-5.5250;
427.5000;1.1339;-5.5327;
427.8000;1.1331;-5.5250;
428.1000;1.1331;-5.5250;
428.4000;1.1258;-5.5405;
428.7000;1.1323;-5.5224;
429.0000;1.1347;-5.5275;
429.3000;1.1339;-5.5275;
429.6000;1.1331;-5.5198;
429.9000;1.1347;-5.5120;
430.2000;1.1339;-5.5068;
430.5000;1.1331;-5.5198;
430.8000;1.1331;-5.5172;
431.1000;1.1347;-5.5120;
431.4000;1.1355;-5.5068;
431.7000;1.1339;-5.5094;
432.0000;1.1315;-5.5120;
432.3000;1.1323;-5.5146;
432.6000;1.1347;-5.5068;
432.9000;1.1347;-5.5068;
433.2000;1.1306;-5.5250;
433.5000;1.1290;-5.5250;
433.8000;1.1331;-5.5198;
434.1000;1.1323;-5.5250;
434.4000;1.1323;-5.5275;
434.7000;1.1323;-5.5353;
435.0000;1.1339;-5.5224;
435.3000;1.1339;-5.5250;
435.6000;1.1306;-5.5301;
435.9000;1.1331;-5.5224;
436.2000;1.1339;-5.5146;
436.5000;1.1355;-5.5146;
436.8000;1.1347;-5.5120;
437.1000;1.1323;-5.5172;
437.4000;1.1331;-5.5172;
437.7000;1.1347;-5.5120;
438.0000;1.1339;-5.5146;
438.3000;1.1298;-5.5327;
438.6000;1.1339;-5.5275;
438.9000;1.1331;-5.5353;
439.2000;1.1347;-5.5353;
439.5000;1.1331;-5.5353;
439.8000;1.1331;-5.5327;
440.1000;1.1347;-5.5250;
440.4000;1.1355;-5.5275;
440.7000;1.1347;-5.5327;
441.0000;1.1331;-5.5327;
441.3000;1.1282;-5.5405;
441.6000;1.1347;-5.5250;
441.9000;1.1298;-5.5431;
442.2000;1.1339;-5.5327;
442.5000;1.1331;-5.5405;
442.8000;1.1347;-5.5405;
443.1000;1.1339;-5.5301;
443.4000;1.1323;-5.5353;
443.7000;1.1331;-5.5379;
444.0000;1.1306;-5.5379;
444.3000;1.1315;-5.5457;
444.6000;1.1306;-5.5457;
444.9000;1.1388;-5.5250;
445.2000;1.1331;-5.5353;
445.5000;1.1339;-5.5301;
445.8000;1.1323;-5.5224;
446.1000;1.1315;-5.5224;
446.4000;1.1323;-5.5275;
446.7000;1.1282;-5.5457;
447.0000;1.1355;-5.5172;
447.3000;1.1323;-5.5198;
447.6000;1.1347;-5.5224;
447.9000;1.1241;-5.5379;
448.2000;1.1315;-5.5198;
448.5000;1.1323;-5.5068;
448.8000;1.1331;-5.5094;
449.1000;1.1274;-5.5224;
449.4000;1.1331;-5.4991;
449.7000;1.1282;-5.5120;
450.0000;1.1331;-5.4939;
450.3000;1.1331;-5.4913;
450.6000;1.1388;-5.4809;
450.9000;1.1339;-5.4965;
451.2000;1.1339;-5.4991;
451.5000;1.1331;-5.4991;
451.8000;1.1372;-5.4939;
452.1000;1.1347;-5.4965;
452.4000;1.1315;-5.5120;
452.7000;1.1331;-5.5042;
453.0000;1.1282;-5.5120;
453.3000;1.1339;-5.5042;
453.6000;1.1339;-5.5068;
453.9000;1.1315;-5.5120;
454.2000;1.1363;-5.5042;
454.5000;1.1331;-5.5068;
454.8000;1.1339;-5.5068;
455.1000;1.1331;-5.5068;
455.4000;1.1347;-5.5094;
455.7000;1.1339;-5.5094;
456.0000;1.1290;-5.5120;
456.3000;1.1323;-5.4991;
456.6000;1.1339;-5.4939;
456.9000;1.1339;-5.4991;
457.2000;1.1347;-5.5016;
457.5000;1.1298;-5.5198;
457.8000;1.1339;-5.5172;
458.1000;1.1331;-5.5120;
458.4000;1.1331;-5.5068;
458.7000;1.1380;-5.5016;
459.0000;1.1339;-5.5172;
459.3000;1.1331;-5.5172;
459.6000;1.1331;-5.5146;
459.9000;1.1347;-5.5042;
460.2000;1.1331;-5.5042;
460.5000;1.1339;-5.4939;
460.8000;1.1347;-5.4965;
461.1000;1.1323;-5.5042;
461.4000;1.1266;-5.5250;
461.7000;1.1347;-5.5120;
462.0000;1.1347;-5.4991;
462.3000;1.1339;-5.5068;
462.6000;1.1339;-5.5094;
462.9000;1.1339;-5.5146;
463.2000;1.1355;-5.5094;
463.5000;1.1347;-5.5172;
463.8000;1.1388;-5.5120;
464.1000;1.1355;-5.5198;
464.4000;1.1331;-5.5120;
464.7000;1.1339;-5.5198;
465.0000;1.1347;-5.5224;
465.3000;1.1315;-5.5172;
465.6000;1.1306;-5.5250;
465.9000;1.1306;-5.5301;
466.2000;1.1331;-5.5301;
466.5000;1.1339;-5.5224;
466.8000;1.1347;-5.5120;
467.1000;1.1347;-5.5068;
467.4000;1.1331;-5.5094;
467.7000;1.1331;-5.5224;
468.0000;1.1339;-5.5172;
468.3000;1.1323;-5.5146;
468.6000;1.1347;-5.5068;
468.9000;1.1331;-5.5146;
469.2000;1.1315;-5.5172;
469.5000;1.1323;-5.5094;
469.8000;1.1339;-5.5042;
470.1000;1.1339;-5.5042;
470.4000;1.1355;-5.5042;
470.7000;1.1347;-5.5120;
471.0000;1.1298;-5.5146;
471.3000;1.1323;-5.5094;
471.6000;1.1323;-5.5120;
471.9000;1.1290;-5.5275;
472.2000;1.1331;-5.5120;
472.5000;1.1355;-5.5016;
472.8000;1.1347;-5.5042;
473.1000;1.1323;-5.5120;
473.4000;1.1347;-5.4991;
473.7000;1.1323;-5.5198;
474.0000;1.1347;-5.5146;
474.3000;1.1323;-5.5120;
474.6000;1.1339;-5.5094;
474.9000;1.1355;-5.4991;
475.2000;1.1266;-5.5042;
475.5000;1.1323;-5.4991;
475.8000;1.1323;-5.4939;
476.1000;1.1331;-5.4835;
476.4000;1.1331;-5.4965;
476.7000;1.1331;-5.4991;
477.0000;1.1355;-5.4991;
477.3000;1.1323;-5.5094;
477.6000;1.1355;-5.5016;
477.9000;1.1323;-5.5120;
478.2000;1.1331;-5.5068;
478.5000;1.1339;-5.5172;
478.8000;1.1339;-5.5224;
479.1000;1.1323;-5.5224;
479.4000;1.1331;-5.5250;
479.7000;1.1339;-5.5198;
480.0000;1.1339;-5.5120;
480.3000;1.1331;-5.5094;
480.6000;1.1339;-5.5068;
480.9000;1.1323;-5.5172;
481.2000;1.1315;-5.5224;
481.5000;1.1323;-5.5198;
481.8000;1.1298;-5.5198;
482.1000;1.1306;-5.5198;
482.4000;1.1331;-5.5172;
482.7000;1.1306;-5.5198;
483.0000;1.1323;-5.5250;
483.3000;1.1323;-5.5327;
483.6000;1.1339;-5.5275;
483.9000;1.1315;-5.5327;
484.2000;1.1323;-5.5327;
484.5000;1.1282;-5.5405;
484.8000;1.1331;-5.5198;
485.1000;1.1331;-5.5224;
485.4000;1.1331;-5.5172;
485.7000;1.1331;-5.5301;
486.0000;1.1363;-5.5250;
486.3000;1.1331;-5.5275;
486.6000;1.1274;-5.5431;
486.9000;1.1339;-5.5224;
487.2000;1.1331;-5.5275;
487.5000;1.1339;-5.5275;
487.8000;1.1315;-5.5301;
488.1000;1.1347;-5.5250;
488.4000;1.1331;-5.5301;
488.7000;1.1323;-5.5301;
489.0000;1.1347;-5.5146;
489.3000;1.1331;-5.5275;
489.6000;1.1339;-5.5224;
489.9000;1.1315;-5.5275;
490.2000;1.1315;-5.5198;
490.5000;1.1306;-5.5250;
490.8000;1.1323;-5.5250;
491.1000;1.1323;-5.5275;
491.4000;1.1331;-5.5172;
491.7000;1.1282;-5.5120;
492.0000;1.1331;-5.5042;
492.3000;1.1323;-5.5172;
492.6000;1.1331;-5.5120;
492.9000;1.1388;-5.5094;
493.2000;1.1323;-5.5250;
493.5000;1.1315;-5.5327;
493.8000;1.1339;-5.5198;
494.1000;1.1315;-5.5172;
494.4000;1.1331;-5.5172;
494.7000;1.1315;-5.5146;
495.0000;1.1331;-5.5198;
495.3000;1.1315;-5.5120;
495.6000;1.1404;-5.4965;
495.9000;1.1315;-5.5146;
496.2000;1.1315;-5.5094;
496.5000;1.1331;-5.5120;
496.8000;1.1323;-5.5146;
497.1000;1.1323;-5.5172;
497.4000;1.1347;-5.5172;
497.7000;1.1323;-5.5224;
498.0000;1.1347;-5.5250;
498.3000;1.1323;-5.5327;
498.6000;1.1331;-5.5353;
498.9000;1.1331;-5.5379;
499.2000;1.1347;-5.5379;
499.5000;1.1323;-5.5327;
499.8000;1.1323;-5.5301;
500.1000;1.1363;-5.5198;
500.4000;1.1347;-5.5327;
500.7000;1.1339;-5.5301;
501.0000;1.1331;-5.5224;
501.3000;1.1315;-5.5275;
501.6000;1.1331;-5.5275;
501.9000;1.1331;-5.5172;
502.2000;1.1323;-5.5172;
502.5000;1.1331;-5.5198;
502.8000;1.1323;-5.5224;
503.1000;1.1323;-5.5275;
503.4000;1.1331;-5.5172;
503.7000;1.1323;-5.5146;
504.0000;1.1347;-5.5042;
504.3000;1.1331;-5.5094;
504.6000;1.1339;-5.5042;
504.9000;1.1298;-5.5120;
505.2000;1.1315;-5.5172;
505.5000;1.1331;-5.5198;
505.8000;1.1323;-5.5094;
506.1000;1.1298;-5.5068;
506.4000;1.1306;-5.5120;
506.7000;1.1323;-5.5094;
507.0000;1.1323;-5.5120;
507.3000;1.1315;-5.5094;
507.6000;1.1315;-5.5172;
507.9000;1.1266;-5.5327;
508.2000;1.1323;-5.5172;
508.5000;1.1298;-5.5250;
508.8000;1.1347;-5.5094;
509.1000;1.1331;-5.5172;
509.4000;1.1323;-5.5250;
509.7000;1.1323;-5.5275;
510.0000;1.1355;-5.5172;
510.3000;1.1323;-5.5172;
510.6000;1.1331;-5.5120;
510.9000;1.1323;-5.5120;
511.2000;1.1315;-5.5120;
511.5000;1.1339;-5.5172;
511.8000;1.1347;-5.5250;
512.1000;1.1306;-5.5379;
512.4000;1.1339;-5.5379;
512.7000;1.1339;-5.5379;
513.0000;1.1331;-5.5353;
513.3000;1.1347;-5.5275;
513.6000;1.1339;-5.5224;
513.9000;1.1363;-5.5120;
514.2000;1.1323;-5.5146;
514.5000;1.1331;-5.5094;
514.8000;1.1315;-5.5172;
515.1000;1.1323;-5.5094;
515.4000;1.1331;-5.5146;
515.7000;1.1315;-5.5224;
516.0000;1.1315;-5.5353;
516.3000;1.1315;-5.5379;
516.6000;1.1306;-5.5327;
516.9000;1.1331;-5.5224;
517.2000;1.1306;-5.5275;
517.5000;1.1298;-5.5275;
517.8000;1.1315;-5.5250;
518.1000;1.1323;-5.5198;
518.4000;1.1323;-5.5094;
518.7000;1.1315;-5.5120;
519.0000;1.1306;-5.5094;
519.3000;1.1315;-5.5042;
519.6000;1.1323;-5.5094;
519.9000;1.1315;-5.5146;
520.2000;1.1306;-5.5120;
520.5000;1.1315;-5.5094;
520.8000;1.1315;-5.5068;
521.1000;1.1306;-5.5094;
521.4000;1.1355;-5.5120;
521.7000;1.1290;-5.5379;
522.0000;1.1306;-5.5275;
522.3000;1.1315;-5.5224;
522.6000;1.1306;-5.5250;
522.9000;1.1315;-5.5198;
523.2000;1.1323;-5.5224;
523.5000;1.1323;-5.5275;
523.8000;1.1331;-5.5250;
524.1000;1.1323;-5.5198;
524.4000;1.1331;-5.5146;
524.7000;1.1323;-5.5146;
525.0000;1.1363;-5.5068;
525.3000;1.1323;-5.5224;
525.6000;1.1306;-5.5301;
525.9000;1.1331;-5.5301;
526.2000;1.1323;-5.5353;
526.5000;1.1290;-5.5353;
526.8000;1.1323;-5.5353;
527.1000;1.1331;-5.5379;
527.4000;1.1331;-5.5353;
527.7000;1.1290;-5.5327;
528.0000;1.1323;-5.5120;
528.3000;1.1323;-5.5042;
528.6000;1.1363;-5.5016;
528.9000;1.1323;-5.5042;
529.2000;1.1331;-5.5016;
529.5000;1.1331;-5.4991;
529.8000;1.1331;-5.4887;
530.1000;1.1363;-5.4835;
530.4000;1.1306;-5.4939;
530.7000;1.1258;-5.5016;
531.0000;1.1306;-5.5068;
531.3000;1.1323;-5.5094;
531.6000;1.1306;-5.5094;
531.9000;1.1315;-5.5068;
532.2000;1.1429;-5.4809;
532.5000;1.1339;-5.5198;
532.8000;1.1331;-5.5198;
533.1000;1.1323;-5.5172;
533.4000;1.1347;-5.5198;
533.7000;1.1315;-5.5353;
534.0000;1.1347;-5.5327;
534.3000;1.1306;-5.5379;
534.6000;1.1339;-5.5275;
534.9000;1.1323;-5.5327;
535.2000;1.1331;-5.5301;
535.5000;1.1323;-5.5379;
535.8000;1.1323;-5.5457;
536.1000;1.1323;-5.5405;
536.4000;1.1323;-5.5431;
536.7000;1.1315;-5.5431;
537.0000;1.1323;-5.5353;
537.3000;1.1315;-5.5301;
537.6000;1.1331;-5.5275;
537.9000;1.1355;-5.5353;
538.2000;1.1323;-5.5379;
538.5000;1.1331;-5.5327;
538.8000;1.1323;-5.5327;
539.1000;1.1339;-5.5224;
539.4000;1.1298;-5.5353;
539.7000;1.1298;-5.5301;
540.0000;1.1331;-5.5250;
540.3000;1.1298;-5.5327;
540.6000;1.1315;-5.5327;
540.9000;1.1290;-5.5431;
541.2000;1.1315;-5.5405;
541.5000;1.1339;-5.5301;
541.8000;1.1274;-5.5431;
542.1000;1.1323;-5.5301;
542.4000;1.1298;-5.5353;
542.7000;1.1315;-5.5275;
543.0000;1.1298;-5.5275;
543.3000;1.1306;-5.5250;
543.6000;1.1315;-5.5301;
543.9000;1.1315;-5.5275;
544.2000;1.1339;-5.5198;
544.5000;1.1323;-5.5250;
544.8000;1.1315;-5.5327;
545.1000;1.1323;-5.5353;
545.4000;1.1339;-5.5250;
545.7000;1.1331;-5.5405;
546.0000;1.1306;-5.5535;
546.3000;1.1323;-5.5327;
546.6000;1.1331;-5.5301;
546.9000;1.1339;-5.5224;
547.2000;1.1315;-5.5301;
547.5000;1.1315;-5.5224;
547.8000;1.1315;-5.5250;
548.1000;1.1323;-5.5275;
548.4000;1.1323;-5.5275;
548.7000;1.1306;-5.5327;
549.0000;1.1315;-5.5353;
549.3000;1.1315;-5.5353;
549.6000;1.1315;-5.5353;
549.9000;1.1331;-5.5379;
550.2000;1.1347;-5.5301;
550.5000;1.1323;-5.5353;
550.8000;1.1290;-5.5457;
551.1000;1.1331;-5.5431;
551.4000;1.1323;-5.5457;
551.7000;1.1323;-5.5405;
552.0000;1.1306;-5.5509;
552.3000;1.1323;-5.5457;
552.6000;1.1298;-5.5405;
552.9000;1.1266;-5.5457;
553.2000;1.1315;-5.5301;
553.5000;1.1323;-5.5327;
553.8000;1.1315;-5.5301;
554.1000;1.1290;-5.5327;
554.4000;1.1331;-5.5224;
554.7000;1.1331;-5.5250;
555.0000;1.1298;-5.5327;
555.3000;1.1306;-5.5379;
555.6000;1.1331;-5.5327;
555.9000;1.1315;-5.5457;
556.2000;1.1323;-5.5353;
556.5000;1.1315;-5.5353;
556.8000;1.1339;-5.5327;
557.1000;1.1290;-5.5405;
557.4000;1.1331;-5.5379;
557.7000;1.1315;-5.5353;
558.0000;1.1323;-5.5327;
558.3000;1.1315;-5.5301;
558.6000;1.1323;-5.5275;
558.9000;1.1315;-5.5301;
559.2000;1.1323;-5.5250;
559.5000;1.1323;-5.5250;
559.8000;1.1331;-5.5224;
560.1000;1.1298;-5.5275;
560.4000;1.1355;-5.5172;
560.7000;1.1315;-5.5146;
561.0000;1.1331;-5.5068;
561.3000;1.1331;-5.5094;
561.6000;1.1315;-5.5146;
561.9000;1.1323;-5.5120;
562.2000;1.1315;-5.5250;
562.5000;1.1323;-5.5250;
562.8000;1.1258;-5.5301;
563.1000;1.1323;-5.5094;
563.4000;1.1323;-5.5094;
563.7000;1.1290;-5.5172;
564.0000;1.1298;-5.5250;
564.3000;1.1331;-5.5224;
564.6000;1.1315;-5.5172;
564.9000;1.1249;-5.5094;
565.2000;1.1298;-5.5068;
565.5000;1.1323;-5.4991;
565.8000;1.1388;-5.4887;
566.1000;1.1323;-5.5042;
566.4000;1.1315;-5.5094;
566.7000;1.1274;-5.5224;
567.0000;1.1323;-5.5146;
567.3000;1.1347;-5.5146;
567.6000;1.1315;-5.5198;
567.9000;1.1306;-5.5198;
568.2000;1.1306;-5.5146;
568.5000;1.1282;-5.5172;
568.8000;1.1306;-5.5172;
569.1000;1.1298;-5.5224;
569.4000;1.1315;-5.5250;
569.7000;1.1306;-5.5198;
570.0000;1.1290;-5.5250;
570.3000;1.1323;-5.5198;
570.6000;1.1315;-5.5275;
570.9000;1.1323;-5.5275;
571.2000;1.1290;-5.5301;
571.5000;1.1315;-5.5198;
571.8000;1.1306;-5.5172;
572.1000;1.1315;-5.5172;
572.4000;1.1323;-5.5094;
572.7000;1.1306;-5.5120;
573.0000;1.1298;-5.5068;
573.3000;1.1306;-5.5094;
573.6000;1.1396;-5.4939;
573.9000;1.1306;-5.5120;
574.2000;1.1274;-5.5275;
574.5000;1.1315;-5.5198;
574.8000;1.1331;-5.5120;
575.1000;1.1315;-5.5094;
575.4000;1.1306;-5.5016;
575.7000;1.1306;-5.5042;
576.0000;1.1306;-5.5042;
576.3000;1.1306;-5.5094;
576.6000;1.1290;-5.5224;
576.9000;1.1298;-5.5275;
577.2000;1.1315;-5.5275;
577.5000;1.1306;-5.5327;
577.8000;1.1323;-5.5224;
578.1000;1.1290;-5.5353;
578.4000;1.1306;-5.5275;
578.7000;1.1315;-5.5224;
579.0000;1.1315;-5.5172;
579.3000;1.1282;-5.5275;
579.6000;1.1274;-5.5301;
579.9000;1.1274;-5.5275;
580.2000;1.1323;-5.5198;
580.5000;1.1306;-5.5250;
580.8000;1.1331;-5.5224;
581.1000;1.1331;-5.5198;
581.4000;1.1323;-5.5224;
581.7000;1.1347;-5.5224;
582.0000;1.1290;-5.5275;
582.3000;1.1331;-5.5120;
582.6000;1.1290;-5.5146;
582.9000;1.1298;-5.5094;
583.2000;1.1315;-5.5094;
583.5000;1.1331;-5.5094;
583.8000;1.1347;-5.5068;
584.1000;1.1323;-5.5120;
584.4000;1.1323;-5.5146;
584.7000;1.1315;-5.5068;
585.0000;1.1315;-5.5068;
585.3000;1.1298;-5.5172;
585.6000;1.1315;-5.5172;
585.9000;1.1298;-5.5146;
586.2000;1.1306;-5.5120;
586.5000;1.1323;-5.5042;
586.8000;1.1315;-5.5016;
587.1000;1.1258;-5.5198;
587.4000;1.1315;-5.5120;
587.7000;1.1282;-5.5224;
588.0000;1.1298;-5.5172;
588.3000;1.1290;-5.5224;
588.6000;1.1298;-5.5146;
588.9000;1.1323;-5.5016;
589.2000;1.1298;-5.4991;
589.5000;1.1282;-5.4939;
589.8000;1.1306;-5.4835;
590.1000;1.1290;-5.4913;
590.4000;1.1306;-5.4991;
590.7000;1.1290;-5.5068;
591.0000;1.1298;-5.5016;
591.3000;1.1315;-5.5016;
591.6000;1.1323;-5.5016;
591.9000;1.1306;-5.5016;
592.2000;1.1298;-5.5042;
592.5000;1.1323;-5.5120;
592.8000;1.1323;-5.5068;
593.1000;1.1323;-5.5094;
593.4000;1.1306;-5.5120;
593.7000;1.1315;-5.5068;
594.0000;1.1298;-5.5094;
594.3000;1.1306;-5.5146;
594.6000;1.1315;-5.5172;
594.9000;1.1298;-5.5172;
595.2000;1.1306;-5.5120;
595.5000;1.1282;-5.5172;
595.8000;1.1306;-5.5120;
596.1000;1.1306;-5.5068;
596.4000;1.1306;-5.5146;
596.7000;1.1323;-5.5120;
597.0000;1.1298;-5.5224;
597.3000;1.1315;-5.5198;
597.6000;1.1274;-5.5275;
597.9000;1.1315;-5.5094;
598.2000;1.1298;-5.5094;
598.5000;1.1331;-5.5016;
598.8000;1.1282;-5.5016;
599.1000;1.1306;-5.4913;
599.4000;1.1298;-5.4939;
599.7000;1.1331;-5.4861;
600.0000;1.1323;-5.5016;
600.3000;1.1323;-5.5275;
600.6000;1.1306;-5.5509;
600.9000;1.1355;-5.5535;
601.2000;1.1355;-5.5690;
601.5000;1.1372;-5.5845;
601.8000;1.1380;-5.5923;
602.1000;1.1355;-5.6260;
602.4000;1.1372;-5.6493;
602.7000;1.1363;-5.6648;
603.0000;1.1323;-5.6881;
603.3000;1.1380;-5.6830;
603.6000;1.1363;-5.7011;
603.9000;1.1372;-5.7063;
604.2000;1.1372;-5.7140;
604.5000;1.1380;-5.7218;
604.8000;1.1363;-5.7451;
605.1000;1.1388;-5.7425;
605.4000;1.1380;-5.7477;
605.7000;1.1388;-5.7425;
606.0000;1.1388;-5.7425;
606.3000;1.1372;-5.7503;
606.6000;1.1372;-5.7633;
606.9000;1.1388;-5.7658;
607.2000;1.1388;-5.7581;
607.5000;1.1372;-5.7581;
607.8000;1.1388;-5.7529;
608.1000;1.1380;-5.7503;
608.4000;1.1363;-5.7581;
608.7000;1.1388;-5.7581;
609.0000;1.1380;-5.7658;
609.3000;1.1372;-5.7684;
609.6000;1.1388;-5.7710;
609.9000;1.1355;-5.7762;
610.2000;1.1388;-5.7814;
610.5000;1.1388;-5.7814;
610.8000;1.1388;-5.7788;
611.1000;1.1380;-5.7840;
611.4000;1.1388;-5.7736;
611.7000;1.1355;-5.7814;
612.0000;1.1396;-5.7762;
612.3000;1.1380;-5.7814;
612.6000;1.1380;-5.7814;
612.9000;1.1380;-5.7814;
613.2000;1.1380;-5.7892;
613.5000;1.1388;-5.7866;
613.8000;1.1372;-5.7866;
614.1000;1.1363;-5.7892;
614.4000;1.1380;-5.7918;
614.7000;1.1388;-5.7892;
615.0000;1.1363;-5.7918;
615.3000;1.1363;-5.7866;
615.6000;1.1363;-5.7918;
615.9000;1.1380;-5.7892;
616.2000;1.1372;-5.7892;
616.5000;1.1380;-5.7762;
616.8000;1.1372;-5.7762;
617.1000;1.1388;-5.7762;
617.4000;1.1323;-5.7969;
617.7000;1.1388;-5.7866;
618.0000;1.1412;-5.7866;
618.3000;1.1388;-5.7918;
618.6000;1.1388;-5.7969;
618.9000;1.1372;-5.8047;
619.2000;1.1380;-5.8021;
619.5000;1.1388;-5.7995;
619.8000;1.1372;-5.7969;
620.1000;1.1372;-5.7943;
620.4000;1.1380;-5.7918;
620.7000;1.1380;-5.7892;
621.0000;1.1396;-5.7995;
621.3000;1.1380;-5.8073;
621.6000;1.1396;-5.7969;
621.9000;1.1380;-5.7892;
622.2000;1.1420;-5.7710;
622.5000;1.1380;-5.7892;
622.8000;1.1388;-5.7840;
623.1000;1.1380;-5.7814;
623.4000;1.1388;-5.7710;
623.7000;1.1347;-5.7892;
624.0000;1.1380;-5.7840;
624.3000;1.1372;-5.7814;
624.6000;1.1380;-5.7866;
624.9000;1.1372;-5.7736;
625.2000;1.1380;-5.7788;
625.5000;1.1372;-5.7814;
625.8000;1.1380;-5.7840;
626.1000;1.1380;-5.7866;
626.4000;1.1372;-5.7866;
626.7000;1.1331;-5.8047;
627.0000;1.1363;-5.7840;
627.3000;1.1388;-5.7840;
627.6000;1.1372;-5.7943;
627.9000;1.1388;-5.7866;
628.2000;1.1380;-5.7814;
628.5000;1.1372;-5.7788;
628.8000;1.1388;-5.7788;
629.1000;1.1363;-5.7943;
629.4000;1.1380;-5.7892;
629.7000;1.1388;-5.7969;
630.0000;1.1380;-5.8021;
630.3000;1.1372;-5.7943;
630.6000;1.1372;-5.7892;
630.9000;1.1388;-5.7918;
631.2000;1.1372;-5.7918;
631.5000;1.1363;-5.7866;
631.8000;1.1380;-5.7814;
632.1000;1.1396;-5.7736;
632.4000;1.1355;-5.7918;
632.7000;1.1396;-5.7840;
633.0000;1.1331;-5.7969;
633.3000;1.1396;-5.7840;
633.6000;1.1380;-5.7788;
633.9000;1.1372;-5.7866;
634.2000;1.1388;-5.7918;
634.5000;1.1396;-5.7995;
634.8000;1.1372;-5.7943;
635.1000;1.1388;-5.7918;
635.4000;1.1380;-5.7892;
635.7000;1.1388;-5.7762;
636.0000;1.1404;-5.7736;
636.3000;1.1380;-5.7762;
636.6000;1.1339;-5.7918;
636.9000;1.1388;-5.7788;
637.2000;1.1372;-5.7762;
637.5000;1.1380;-5.7840;
637.8000;1.1380;-5.7788;
638.1000;1.1388;-5.7788;
638.4000;1.1388;-5.7866;
638.7000;1.1396;-5.7762;
639.0000;1.1396;-5.7710;
639.3000;1.1388;-5.7736;
639.6000;1.1388;-5.7684;
639.9000;1.1380;-5.7892;
640.2000;1.1372;-5.7995;
640.5000;1.1388;-5.7969;
640.8000;1.1372;-5.7866;
641.1000;1.1396;-5.7736;
641.4000;1.1445;-5.7684;
641.7000;1.1396;-5.7840;
642.0000;1.1388;-5.7995;
642.3000;1.1396;-5.8021;
642.6000;1.1420;-5.7995;
642.9000;1.1380;-5.7995;
643.2000;1.1388;-5.7995;
643.5000;1.1388;-5.7969;
643.8000;1.1380;-5.7943;
644.1000;1.1380;-5.7995;
644.4000;1.1388;-5.7943;
644.7000;1.1380;-5.7943;
645.0000;1.1355;-5.8021;
645.3000;1.1396;-5.7969;
645.6000;1.1372;-5.7969;
645.9000;1.1363;-5.7969;
646.2000;1.1380;-5.7969;
646.5000;1.1372;-5.7969;
646.8000;1.1363;-5.7969;
647.1000;1.1420;-5.7918;
647.4000;1.1380;-5.8047;
647.7000;1.1372;-5.7969;
648.0000;1.1404;-5.7892;
648.3000;1.1380;-5.7969;
648.6000;1.1396;-5.7892;
648.9000;1.1380;-5.7969;
649.2000;1.1388;-5.7943;
649.5000;1.1372;-5.7995;
649.8000;1.1347;-5.8125;
650.1000;1.1290;-5.8151;
650.4000;1.0606;-5.8073;
650.7000;1.0012;-5.8125;
651.0000;0.9573;-5.8125;
651.3000;0.9231;-5.8125;
651.6000;0.8970;-5.8099;
651.9000;0.8791;-5.7995;
652.2000;0.8612;-5.7995;
652.5000;0.8523;-5.7892;
652.8000;0.8433;-5.7943;
653.1000;0.8368;-5.7814;
653.4000;0.8319;-5.7788;
653.7000;0.8295;-5.7814;
654.0000;0.8295;-5.7736;
654.3000;0.8238;-5.7788;
654.6000;0.8213;-5.7788;
654.9000;0.8205;-5.7684;
655.2000;0.8148;-5.7788;
655.5000;0.8205;-5.7607;
655.8000;0.8164;-5.7684;
656.1000;0.8197;-5.7684;
656.4000;0.8173;-5.7684;
656.7000;0.8164;-5.7710;
657.0000;0.8164;-5.7710;
657.3000;0.8148;-5.7840;
657.6000;0.8148;-5.7840;
657.9000;0.8099;-5.7918;
658.2000;0.8164;-5.7814;
658.5000;0.8164;-5.7762;
658.8000;0.8173;-5.7736;
659.1000;0.8173;-5.7684;
659.4000;0.8164;-5.7658;
659.7000;0.8156;-5.7658;
660.0000;0.8173;-5.7710;
660.3000;0.8156;-5.7762;
660.6000;0.8148;-5.7736;
660.9000;0.8156;-5.7762;
661.2000;0.8148;-5.7814;
661.5000;0.8164;-5.7866;
661.8000;0.8156;-5.7918;
662.1000;0.8148;-5.7943;
662.4000;0.8148;-5.7918;
662.7000;0.8173;-5.7788;
663.0000;0.8164;-5.7788;
663.3000;0.8164;-5.7788;
663.6000;0.8181;-5.7710;
663.9000;0.8189;-5.7710;
664.2000;0.8164;-5.7788;
664.5000;0.8164;-5.7762;
664.8000;0.8164;-5.7788;
665.1000;0.8189;-5.7684;
665.4000;0.8164;-5.7736;
665.7000;0.8140;-5.7788;
666.0000;0.8156;-5.7814;
666.3000;0.8156;-5.7736;
666.6000;0.8140;-5.7710;
666.9000;0.8173;-5.7581;
667.2000;0.8132;-5.7684;
667.5000;0.8116;-5.7658;
667.8000;0.8156;-5.7529;
668.1000;0.8164;-5.7581;
668.4000;0.8173;-5.7451;
668.7000;0.8156;-5.7529;
669.0000;0.8173;-5.7529;
669.3000;0.8148;-5.7607;
669.6000;0.8107;-5.7710;
669.9000;0.8156;-5.7555;
670.2000;0.8164;-5.7477;
670.5000;0.8173;-5.7529;
670.8000;0.8156;-5.7529;
671.1000;0.8164;-5.7555;
671.4000;0.8148;-5.7658;
671.7000;0.8156;-5.7658;
672.0000;0.8173;-5.7555;
672.3000;0.8148;-5.7581;
672.6000;0.8173;-5.7529;
672.9000;0.8197;-5.7529;
673.2000;0.8173;-5.7633;
673.5000;0.8148;-5.7736;
673.8000;0.8140;-5.7762;
674.1000;0.8164;-5.7736;
674.4000;0.8164;-5.7658;
674.7000;0.8156;-5.7684;
675.0000;0.8164;-5.7710;
675.3000;0.8156;-5.7736;
675.6000;0.8164;-5.7684;
675.9000;0.8164;-5.7633;
676.2000;0.8148;-5.7658;
676.5000;0.8148;-5.7633;
676.8000;0.8156;-5.7684;
677.1000;0.8164;-5.7633;
677.4000;0.8156;-5.7736;
677.7000;0.8156;-5.7736;
678.0000;0.8148;-5.7736;
678.3000;0.8164;-5.7658;
678.6000;0.8148;-5.7710;
678.9000;0.8164;-5.7710;
679.2000;0.8140;-5.7762;
679.5000;0.8173;-5.7658;
679.8000;0.8173;-5.7633;
680.1000;0.8173;-5.7607;
680.4000;0.8148;-5.7736;
680.7000;0.8164;-5.7633;
681.0000;0.8181;-5.7529;
681.3000;0.8181;-5.7425;
681.6000;0.8164;-5.7529;
681.9000;0.8156;-5.7503;
682.2000;0.8173;-5.7529;
682.5000;0.8148;-5.7529;
682.8000;0.8156;-5.7555;
683.1000;0.8140;-5.7736;
683.4000;0.8164;-5.7658;
683.7000;0.8156;-5.7684;
684.0000;0.8156;-5.7658;
684.3000;0.8173;-5.7581;
684.6000;0.8164;-5.7503;
684.9000;0.8164;-5.7529;
685.2000;0.8132;-5.7658;
685.5000;0.8091;-5.7788;
685.8000;0.8156;-5.7633;
686.1000;0.8148;-5.7684;
686.4000;0.8164;-5.7658;
686.7000;0.8116;-5.7736;
687.0000;0.8164;-5.7607;
687.3000;0.8164;-5.7581;
687.6000;0.8148;-5.7581;
687.9000;0.8140;-5.7607;
688.2000;0.8164;-5.7581;
688.5000;0.8164;-5.7581;
688.8000;0.8173;-5.7607;
689.1000;0.8156;-5.7581;
689.4000;0.8164;-5.7607;
689.7000;0.8173;-5.7736;
690.0000;0.8164;-5.7788;
690.3000;0.8205;-5.7710;
690.6000;0.8140;-5.7892;
690.9000;0.8173;-5.7736;
691.2000;0.8173;-5.7658;
691.5000;0.8164;-5.7736;
691.8000;0.8164;-5.7866;
692.1000;0.8140;-5.7840;
692.4000;0.8189;-5.7866;
692.7000;0.8156;-5.7918;
693.0000;0.8140;-5.7918;
693.3000;0.8107;-5.7995;
693.6000;0.8173;-5.7762;
693.9000;0.8173;-5.7762;
694.2000;0.8173;-5.7840;
694.5000;0.8116;-5.8021;
694.8000;0.8132;-5.7995;
695.1000;0.8181;-5.7892;
695.4000;0.8173;-5.7969;
695.7000;0.8173;-5.7918;
696.0000;0.8164;-5.7814;
696.3000;0.8173;-5.7788;
696.6000;0.8116;-5.7892;
696.9000;0.8156;-5.7892;
697.2000;0.8107;-5.7943;
697.5000;0.8164;-5.7788;
697.8000;0.8173;-5.7814;
698.1000;0.8164;-5.7866;
698.4000;0.8164;-5.7918;
698.7000;0.8164;-5.7892;
699.0000;0.8156;-5.7918;
699.3000;0.8173;-5.7918;
699.6000;0.8173;-5.7969;
699.9000;0.8173;-5.7943;
700.2000;0.8091;-5.7918;
700.5000;0.7896;-5.7762;
700.8000;0.7790;-5.7684;
701.1000;0.7676;-5.7710;
701.4000;0.7595;-5.7710;
701.7000;0.7538;-5.7762;
702.0000;0.7505;-5.7710;
702.3000;0.7456;-5.7762;
702.6000;0.7367;-5.7866;
702.9000;0.7407;-5.7710;
703.2000;0.7383;-5.7762;
703.5000;0.7391;-5.7736;
703.8000;0.7383;-5.7736;
704.1000;0.7326;-5.7866;
704.4000;0.7367;-5.7814;
704.7000;0.7359;-5.7788;
705.0000;0.7367;-5.7684;
705.3000;0.7350;-5.7658;
705.6000;0.7342;-5.7684;
705.9000;0.7359;-5.7684;
706.2000;0.7375;-5.7633;
706.5000;0.7334;-5.7710;
706.8000;0.7359;-5.7658;
707.1000;0.7359;-5.7762;
707.4000;0.7350;-5.7840;
707.7000;0.7350;-5.7814;
708.0000;0.7326;-5.7943;
708.3000;0.7350;-5.7918;
708.6000;0.7334;-5.7943;
708.9000;0.7350;-5.7866;
709.2000;0.7359;-5.7762;
709.5000;0.7383;-5.7633;
709.8000;0.7342;-5.7814;
710.1000;0.7359;-5.7840;
710.4000;0.7350;-5.7814;
710.7000;0.7302;-5.7918;
711.0000;0.7359;-5.7892;
711.3000;0.7350;-5.7762;
711.6000;0.7334;-5.7736;
711.9000;0.7342;-5.7658;
712.2000;0.7342;-5.7684;
712.5000;0.7350;-5.7788;
712.8000;0.7334;-5.7866;
713.1000;0.7334;-5.7840;
713.4000;0.7350;-5.7788;
713.7000;0.7342;-5.7840;
714.0000;0.7334;-5.7762;
714.3000;0.7342;-5.7658;
714.6000;0.7302;-5.7762;
714.9000;0.7367;-5.7503;
715.2000;0.7342;-5.7477;
715.5000;0.7359;-5.7399;
715.8000;0.7334;-5.7477;
716.1000;0.7342;-5.7503;
716.4000;0.7359;-5.7529;
716.7000;0.7359;-5.7503;
717.0000;0.7359;-5.7477;
717.3000;0.7350;-5.7555;
717.6000;0.7359;-5.7633;
717.9000;0.7350;-5.7736;
718.2000;0.7350;-5.7658;
718.5000;0.7334;-5.7710;
718.8000;0.7342;-5.7581;
719.1000;0.7359;-5.7555;
719.4000;0.7350;-5.7607;
719.7000;0.7350;-5.7658;
720.0000;0.7342;-5.7736;
720.3000;0.7367;-5.7710;
720.6000;0.7399;-5.7658;
720.9000;0.7416;-5.7658;
721.2000;0.7342;-5.7840;
721.5000;0.7342;-5.7788;
721.8000;0.7359;-5.7788;
722.1000;0.7342;-5.7814;
722.4000;0.7342;-5.7788;
722.7000;0.7350;-5.7788;
723.0000;0.7342;-5.7736;
723.3000;0.7350;-5.7684;
723.6000;0.7342;-5.7684;
723.9000;0.7334;-5.7607;
724.2000;0.7359;-5.7555;
724.5000;0.7350;-5.7581;
724.8000;0.7367;-5.7581;
725.1000;0.7383;-5.7581;
725.4000;0.7359;-5.7658;
725.7000;0.7350;-5.7633;
726.0000;0.7367;-5.7581;
726.3000;0.7359;-5.7529;
726.6000;0.7342;-5.7529;
726.9000;0.7302;-5.7607;
727.2000;0.7391;-5.7322;
727.5000;0.7359;-5.7374;
727.8000;0.7350;-5.7374;
728.1000;0.7359;-5.7399;
728.4000;0.7367;-5.7425;
728.7000;0.7334;-5.7555;
729.0000;0.7359;-5.7529;
729.3000;0.7342;-5.7607;
729.6000;0.7350;-5.7633;
729.9000;0.7334;-5.7607;
730.2000;0.7334;-5.7607;
730.5000;0.7342;-5.7555;
730.8000;0.7350;-5.7503;
731.1000;0.7342;-5.7477;
731.4000;0.7359;-5.7477;
731.7000;0.7310;-5.7503;
732.0000;0.7342;-5.7399;
732.3000;0.7350;-5.7425;
732.6000;0.7350;-5.7425;
732.9000;0.7318;-5.7399;
733.2000;0.7359;-5.7425;
733.5000;0.7350;-5.7451;
733.8000;0.7359;-5.7477;
734.1000;0.7342;-5.7503;
734.4000;0.7350;-5.7503;
734.7000;0.7350;-5.7555;
735.0000;0.7359;-5.7581;
735.3000;0.7350;-5.7658;
735.6000;0.7342;-5.7581;
735.9000;0.7424;-5.7348;
736.2000;0.7359;-5.7477;
736.5000;0.7342;-5.7555;
736.8000;0.7359;-5.7529;
737.1000;0.7359;-5.7555;
737.4000;0.7367;-5.7555;
737.7000;0.7342;-5.7633;
738.0000;0.7350;-5.7607;
738.3000;0.7350;-5.7581;
738.6000;0.7334;-5.7788;
738.9000;0.7342;-5.7736;
739.2000;0.7350;-5.7710;
739.5000;0.7350;-5.7658;
739.8000;0.7310;-5.7710;
740.1000;0.7342;-5.7710;
740.4000;0.7350;-5.7658;
740.7000;0.7318;-5.7762;
741.0000;0.7375;-5.7555;
741.3000;0.7334;-5.7736;
741.6000;0.7334;-5.7762;
741.9000;0.7350;-5.7788;
742.2000;0.7367;-5.7658;
742.5000;0.7359;-5.7633;
742.8000;0.7334;-5.7788;
743.1000;0.7342;-5.7658;
743.4000;0.7359;-5.7607;
743.7000;0.7269;-5.7814;
744.0000;0.7350;-5.7581;
744.3000;0.7350;-5.7607;
744.6000;0.7350;-5.7633;
744.9000;0.7367;-5.7555;
745.2000;0.7359;-5.7555;
745.5000;0.7342;-5.7633;
745.8000;0.7350;-5.7684;
746.1000;0.7359;-5.7581;
746.4000;0.7350;-5.7710;
746.7000;0.7342;-5.7762;
747.0000;0.7342;-5.7710;
747.3000;0.7359;-5.7581;
747.6000;0.7367;-5.7633;
747.9000;0.7350;-5.7762;
748.2000;0.7350;-5.7762;
748.5000;0.7359;-5.7710;
748.8000;0.7350;-5.7684;
749.1000;0.7350;-5.7607;
749.4000;0.7359;-5.7581;
749.7000;0.7359;-5.7529;
750.0000;0.7359;-5.7581;
750.3000;0.7269;-5.7658;
750.6000;0.7188;-5.7607;
750.9000;0.7074;-5.7710;
751.2000;0.7033;-5.7684;
751.5000;0.6984;-5.7607;
751.8000;0.6935;-5.7581;
752.1000;0.6935;-5.7529;
752.4000;0.6903;-5.7529;
752.7000;0.6878;-5.7581;
753.0000;0.6886;-5.7633;
753.3000;0.6862;-5.7633;
753.6000;0.6854;-5.7684;
753.9000;0.6838;-5.7684;
754.2000;0.6838;-5.7658;
754.5000;0.6838;-5.7633;
754.8000;0.6854;-5.7710;
755.1000;0.6846;-5.7736;
755.4000;0.6854;-5.7633;
755.7000;0.6846;-5.7633;
756.0000;0.6829;-5.7736;
756.3000;0.6854;-5.7581;
756.6000;0.6838;-5.7555;
756.9000;0.6829;-5.7477;
757.2000;0.6805;-5.7684;
757.5000;0.6829;-5.7607;
757.8000;0.6846;-5.7581;
758.1000;0.6829;-5.7736;
758.4000;0.6829;-5.7736;
758.7000;0.6821;-5.7762;
759.0000;0.6862;-5.7581;
759.3000;0.6846;-5.7503;
759.6000;0.6829;-5.7607;
759.9000;0.6878;-5.7451;
760.2000;0.6764;-5.7762;
760.5000;0.6870;-5.7607;
760.8000;0.6854;-5.7658;
761.1000;0.6829;-5.7736;
761.4000;0.6838;-5.7762;
761.7000;0.6813;-5.7762;
762.0000;0.6829;-5.7710;
762.3000;0.6829;-5.7633;
762.6000;0.6821;-5.7710;
762.9000;0.6838;-5.7684;
763.2000;0.6838;-5.7633;
763.5000;0.6813;-5.7684;
763.8000;0.6846;-5.7607;
764.1000;0.6846;-5.7684;
764.4000;0.6829;-5.7710;
764.7000;0.6854;-5.7658;
765.0000;0.6838;-5.7736;
765.3000;0.6821;-5.7710;
765.6000;0.6838;-5.7710;
765.9000;0.6878;-5.7633;
766.2000;0.6829;-5.7814;
766.5000;0.6821;-5.7788;
766.8000;0.6805;-5.7840;
767.1000;0.6821;-5.7736;
767.4000;0.6821;-5.7736;
767.7000;0.6838;-5.7555;
768.0000;0.6854;-5.7607;
768.3000;0.6838;-5.7607;
768.6000;0.6838;-5.7555;
768.9000;0.6829;-5.7529;
769.2000;0.6838;-5.7503;
769.5000;0.6813;-5.7555;
769.8000;0.6781;-5.7684;
770.1000;0.6829;-5.7581;
770.4000;0.6829;-5.7529;
770.7000;0.6838;-5.7529;
771.0000;0.6829;-5.7529;
771.3000;0.6821;-5.7607;
771.6000;0.6854;-5.7503;
771.9000;0.6838;-5.7529;
772.2000;0.6838;-5.7555;
772.5000;0.6854;-5.7581;
772.8000;0.6846;-5.7607;
773.1000;0.6846;-5.7684;
773.4000;0.6846;-5.7736;
773.7000;0.6829;-5.7710;
774.0000;0.6846;-5.7710;
774.3000;0.6895;-5.7555;
774.6000;0.6805;-5.7866;
774.9000;0.6821;-5.7710;
775.2000;0.6838;-5.7607;
775.5000;0.6838;-5.7607;
775.8000;0.6846;-5.7607;
776.1000;0.6838;-5.7555;
776.4000;0.6829;-5.7607;
776.7000;0.6862;-5.7555;
777.0000;0.6838;-5.7529;
777.3000;0.6829;-5.7581;
777.6000;0.6821;-5.7581;
777.9000;0.6854;-5.7529;
778.2000;0.6838;-5.7581;
778.5000;0.6838;-5.7555;
778.8000;0.6829;-5.7607;
779.1000;0.6821;-5.7633;
779.4000;0.6846;-5.7555;
779.7000;0.6911;-5.7374;
780.0000;0.6838;-5.7581;
780.3000;0.6781;-5.7684;
780.6000;0.6838;-5.7529;
780.9000;0.6813;-5.7607;
781.2000;0.6838;-5.7581;
781.5000;0.6846;-5.7607;
781.8000;0.6846;-5.7581;
782.1000;0.6870;-5.7607;
782.4000;0.6838;-5.7684;
782.7000;0.6829;-5.7684;
783.0000;0.6838;-5.7633;
783.3000;0.6846;-5.7633;
783.6000;0.6846;-5.7684;
783.9000;0.6813;-5.7736;
784.2000;0.6846;-5.7710;
784.5000;0.6838;-5.7710;
784.8000;0.6789;-5.7892;
785.1000;0.6829;-5.7814;
785.4000;0.6846;-5.7736;
785.7000;0.6821;-5.7710;
786.0000;0.6838;-5.7658;
786.3000;0.6838;-5.7607;
786.6000;0.6846;-5.7633;
786.9000;0.6838;-5.7633;
787.2000;0.6886;-5.7529;
787.5000;0.6821;-5.7684;
787.8000;0.6838;-5.7633;
788.1000;0.6821;-5.7607;
788.4000;0.6838;-5.7503;
788.7000;0.6846;-5.7503;
789.0000;0.6854;-5.7451;
789.3000;0.6838;-5.7477;
789.6000;0.6805;-5.7581;
789.9000;0.6838;-5.7555;
790.2000;0.6821;-5.7633;
790.5000;0.6829;-5.7581;
790.8000;0.6854;-5.7503;
791.1000;0.6821;-5.7736;
791.4000;0.6829;-5.7658;
791.7000;0.6813;-5.7710;
792.0000;0.6846;-5.7736;
792.3000;0.6838;-5.7788;
792.6000;0.6854;-5.7710;
792.9000;0.6846;-5.7684;
793.2000;0.6854;-5.7633;
793.5000;0.6846;-5.7684;
793.8000;0.6838;-5.7710;
794.1000;0.6838;-5.7658;
794.4000;0.6854;-5.7607;
794.7000;0.6846;-5.7607;
795.0000;0.6838;-5.7555;
795.3000;0.6870;-5.7529;
795.6000;0.6854;-5.7581;
795.9000;0.6846;-5.7607;
796.2000;0.6821;-5.7658;
796.5000;0.6829;-5.7633;
796.8000;0.6838;-5.7607;
797.1000;0.6829;-5.7633;
797.4000;0.6821;-5.7658;
797.7000;0.6821;-5.7658;
798.0000;0.6829;-5.7633;
798.3000;0.6846;-5.7607;
798.6000;0.6838;-5.7710;
798.9000;0.6838;-5.7710;
799.2000;0.6854;-5.7658;
799.5000;0.6838;-5.7684;
799.8000;0.6846;-5.7607;
800.1000;0.6838;-5.7529;
800.4000;0.6756;-5.7581;
800.7000;0.6699;-5.7555;
801.0000;0.6650;-5.7581;
801.3000;0.6667;-5.7503;
801.6000;0.6659;-5.7503;
801.9000;0.6569;-5.7762;
802.2000;0.6618;-5.7477;
802.5000;0.6545;-5.7633;
802.8000;0.6536;-5.7633;
803.1000;0.6520;-5.7581;
803.4000;0.6553;-5.7374;
803.7000;0.6528;-5.7374;
804.0000;0.6528;-5.7399;
804.3000;0.6528;-5.7451;
804.6000;0.6528;-5.7503;
804.9000;0.6512;-5.7581;
805.2000;0.6488;-5.7710;
805.5000;0.6528;-5.7633;
805.8000;0.6512;-5.7684;
806.1000;0.6520;-5.7581;
806.4000;0.6512;-5.7633;
806.7000;0.6504;-5.7607;
807.0000;0.6512;-5.7633;
807.3000;0.6512;-5.7684;
807.6000;0.6496;-5.7788;
807.9000;0.6520;-5.7633;
808.2000;0.6496;-5.7710;
808.5000;0.6479;-5.7710;
808.8000;0.6512;-5.7710;
809.1000;0.6520;-5.7736;
809.4000;0.6496;-5.7788;
809.7000;0.6569;-5.7503;
810.0000;0.6520;-5.7658;
810.3000;0.6504;-5.7762;
810.6000;0.6471;-5.7866;
810.9000;0.6512;-5.7788;
811.2000;0.6504;-5.7840;
811.5000;0.6496;-5.7866;
811.8000;0.6455;-5.8151;
812.1000;0.6504;-5.8021;
812.4000;0.6528;-5.7995;
812.7000;0.6447;-5.8125;
813.0000;0.6504;-5.7943;
813.3000;0.6561;-5.7788;
813.6000;0.6512;-5.7762;
813.9000;0.6528;-5.7710;
814.2000;0.6520;-5.7710;
814.5000;0.6520;-5.7788;
814.8000;0.6512;-5.7840;
815.1000;0.6504;-5.7762;
815.4000;0.6520;-5.7710;
815.7000;0.6512;-5.7607;
816.0000;0.6504;-5.7633;
816.3000;0.6520;-5.7555;
816.6000;0.6496;-5.7581;
816.9000;0.6520;-5.7607;
817.2000;0.6496;-5.7684;
817.5000;0.6520;-5.7658;
817.8000;0.6520;-5.7710;
818.1000;0.6512;-5.7762;
818.4000;0.6479;-5.7814;
818.7000;0.6520;-5.7762;
819.0000;0.6512;-5.7788;
819.3000;0.6528;-5.7762;
819.6000;0.6520;-5.7788;
819.9000;0.6504;-5.7736;
820.2000;0.6520;-5.7710;
820.5000;0.6520;-5.7736;
820.8000;0.6520;-5.7710;
821.1000;0.6512;-5.7710;
821.4000;0.6496;-5.7684;
821.7000;0.6520;-5.7607;
822.0000;0.6520;-5.7581;
822.3000;0.6504;-5.7607;
822.6000;0.6512;-5.7555;
822.9000;0.6504;-5.7607;
823.2000;0.6520;-5.7503;
823.5000;0.6512;-5.7451;
823.8000;0.6520;-5.7451;
824.1000;0.6528;-5.7374;
824.4000;0.6520;-5.7399;
824.7000;0.6536;-5.7425;
825.0000;0.6520;-5.7399;
825.3000;0.6520;-5.7555;
825.6000;0.6528;-5.7555;
825.9000;0.6504;-5.7581;
826.2000;0.6496;-5.7684;
826.5000;0.6504;-5.7607;
826.8000;0.6512;-5.7581;
827.1000;0.6479;-5.7736;
827.4000;0.6512;-5.7658;
827.7000;0.6520;-5.7762;
828.0000;0.6593;-5.7581;
828.3000;0.6528;-5.7710;
828.6000;0.6520;-5.7788;
828.9000;0.6520;-5.7814;
829.2000;0.6512;-5.7840;
829.5000;0.6512;-5.7866;
829.8000;0.6488;-5.7866;
830.1000;0.6520;-5.7814;
830.4000;0.6528;-5.7840;
830.7000;0.6512;-5.7840;
831.0000;0.6520;-5.7814;
831.3000;0.6545;-5.7684;
831.6000;0.6585;-5.7581;
831.9000;0.6512;-5.7736;
832.2000;0.6520;-5.7684;
832.5000;0.6488;-5.7814;
832.8000;0.6528;-5.7866;
833.1000;0.6528;-5.7866;
833.4000;0.6512;-5.7918;
833.7000;0.6553;-5.7814;
834.0000;0.6504;-5.7918;
834.3000;0.6512;-5.7866;
834.6000;0.6479;-5.7814;
834.9000;0.6520;-5.7607;
835.2000;0.6520;-5.7555;
835.5000;0.6520;-5.7503;
835.8000;0.6488;-5.7607;
836.1000;0.6496;-5.7581;
836.4000;0.6504;-5.7607;
836.7000;0.6520;-5.7529;
837.0000;0.6520;-5.7607;
837.3000;0.6512;-5.7633;
837.6000;0.6496;-5.7658;
837.9000;0.6496;-5.7762;
838.2000;0.6528;-5.7736;
838.5000;0.6496;-5.7840;
838.8000;0.6512;-5.7814;
839.1000;0.6520;-5.7814;
839.4000;0.6520;-5.7762;
839.7000;0.6520;-5.7710;
840.0000;0.6512;-5.7788;
840.3000;0.6512;-5.7814;
840.6000;0.6520;-5.7866;
840.9000;0.6520;-5.7840;
841.2000;0.6512;-5.7814;
841.5000;0.6520;-5.7762;
841.8000;0.6520;-5.7710;
842.1000;0.6504;-5.7710;
842.4000;0.6504;-5.7684;
842.7000;0.6496;-5.7658;
843.0000;0.6504;-5.7658;
843.3000;0.6528;-5.7633;
843.6000;0.6496;-5.7736;
843.9000;0.6488;-5.7840;
844.2000;0.6504;-5.7788;
844.5000;0.6553;-5.7658;
844.8000;0.6520;-5.7710;
845.1000;0.6512;-5.7684;
845.4000;0.6512;-5.7633;
845.7000;0.6528;-5.7555;
846.0000;0.6520;-5.7710;
846.3000;0.6512;-5.7736;
846.6000;0.6488;-5.7736;
846.9000;0.6504;-5.7658;
847.2000;0.6512;-5.7788;
847.5000;0.6488;-5.7866;
847.8000;0.6496;-5.7814;
848.1000;0.6512;-5.7736;
848.4000;0.6545;-5.7710;
848.7000;0.6553;-5.7658;
849.0000;0.6504;-5.7814;
849.3000;0.6512;-5.7788;
849.6000;0.6504;-5.7814;
849.9000;0.6520;-5.7814;
850.2000;0.6496;-5.7788;
850.5000;0.6414;-5.7814;
850.8000;0.6382;-5.7736;
851.1000;0.6357;-5.7710;
851.4000;0.6325;-5.7736;
851.7000;0.6300;-5.7633;
852.0000;0.6284;-5.7581;
852.3000;0.6268;-5.7607;
852.6000;0.6252;-5.7658;
852.9000;0.6317;-5.7555;
853.2000;0.6178;-5.7736;
853.5000;0.6235;-5.7555;
853.8000;0.6211;-5.7684;
854.1000;0.6260;-5.7581;
854.4000;0.6227;-5.7633;
854.7000;0.6227;-5.7684;
855.0000;0.6227;-5.7607;
855.3000;0.6235;-5.7529;
855.6000;0.6235;-5.7477;
855.9000;0.6235;-5.7503;
856.2000;0.6235;-5.7581;
856.5000;0.6219;-5.7658;
856.8000;0.6227;-5.7658;
857.1000;0.6227;-5.7684;
857.4000;0.6235;-5.7684;
857.7000;0.6235;-5.7658;
858.0000;0.6211;-5.7736;
858.3000;0.6227;-5.7607;
858.6000;0.6227;-5.7555;
858.9000;0.6235;-5.7581;
859.2000;0.6211;-5.7710;
859.5000;0.6227;-5.7684;
859.8000;0.6252;-5.7607;
860.1000;0.6219;-5.7658;
860.4000;0.6235;-5.7633;
860.7000;0.6252;-5.7555;
861.0000;0.6325;-5.7374;
861.3000;0.6252;-5.7581;
861.6000;0.6235;-5.7658;
861.9000;0.6235;-5.7607;
862.2000;0.6235;-5.7503;
862.5000;0.6235;-5.7451;
862.8000;0.6227;-5.7399;
863.1000;0.6227;-5.7477;
863.4000;0.6227;-5.7425;
863.7000;0.6227;-5.7425;
864.0000;0.6243;-5.7451;
864.3000;0.6227;-5.7555;
864.6000;0.6252;-5.7555;
864.9000;0.6243;-5.7633;
865.2000;0.6235;-5.7633;
865.5000;0.6235;-5.7581;
865.8000;0.6227;-5.7633;
866.1000;0.6235;-5.7607;
866.4000;0.6235;-5.7710;
866.7000;0.6219;-5.7814;
867.0000;0.6235;-5.7684;
867.3000;0.6252;-5.7555;
867.6000;0.6203;-5.7607;
867.9000;0.6227;-5.7581;
868.2000;0.6227;-5.7607;
868.5000;0.6170;-5.7736;
868.8000;0.6252;-5.7555;
869.1000;0.6227;-5.7581;
869.4000;0.6227;-5.7658;
869.7000;0.6235;-5.7633;
870.0000;0.6243;-5.7581;
870.3000;0.6227;-5.7684;
870.6000;0.6252;-5.7555;
870.9000;0.6235;-5.7633;
871.2000;0.6243;-5.7633;
871.5000;0.6243;-5.7607;
871.8000;0.6276;-5.7529;
872.1000;0.6227;-5.7633;
872.4000;0.6235;-5.7607;
872.7000;0.6243;-5.7581;
873.0000;0.6219;-5.7581;
873.3000;0.6227;-5.7633;
873.6000;0.6227;-5.7658;
873.9000;0.6219;-5.7684;
874.2000;0.6235;-5.7658;
874.5000;0.6235;-5.7633;
874.8000;0.6219;-5.7762;
875.1000;0.6252;-5.7710;
875.4000;0.6243;-5.7633;
875.7000;0.6235;-5.7607;
876.0000;0.6243;-5.7658;
876.3000;0.6235;-5.7762;
876.6000;0.6235;-5.7684;
876.9000;0.6235;-5.7684;
877.2000;0.6235;-5.7762;
877.5000;0.6243;-5.7762;
877.8000;0.6219;-5.7762;
878.1000;0.6235;-5.7788;
878.4000;0.6227;-5.7762;
878.7000;0.6219;-5.7710;
879.0000;0.6219;-5.7736;
879.3000;0.6243;-5.7736;
879.6000;0.6260;-5.7684;
879.9000;0.6211;-5.7918;
880.2000;0.6235;-5.7788;
880.5000;0.6219;-5.7762;
880.8000;0.6260;-5.7736;
881.1000;0.6219;-5.7762;
881.4000;0.6227;-5.7710;
881.7000;0.6243;-5.7607;
882.0000;0.6219;-5.7607;
882.3000;0.6227;-5.7581;
882.6000;0.6252;-5.7581;
882.9000;0.6252;-5.7633;
883.2000;0.6219;-5.7607;
883.5000;0.6219;-5.7555;
883.8000;0.6211;-5.7607;
884.1000;0.6219;-5.7581;
884.4000;0.6227;-5.7581;
884.7000;0.6219;-5.7607;
885.0000;0.6211;-5.7658;
885.3000;0.6235;-5.7581;
885.6000;0.6203;-5.7658;
885.9000;0.6227;-5.7529;
886.2000;0.6243;-5.7477;
886.5000;0.6235;-5.7451;
886.8000;0.6219;-5.7503;
887.1000;0.6235;-5.7529;
887.4000;0.6219;-5.7581;
887.7000;0.6219;-5.7607;
888.0000;0.6227;-5.7633;
888.3000;0.6227;-5.7581;
888.6000;0.6211;-5.7710;
888.9000;0.6235;-5.7633;
889.2000;0.6292;-5.7425;
889.5000;0.6219;-5.7658;
889.8000;0.6211;-5.7684;
890.1000;0.6203;-5.7736;
890.4000;0.6243;-5.7710;
890.7000;0.6227;-5.7762;
891.0000;0.6219;-5.7788;
891.3000;0.6227;-5.7710;
891.6000;0.6203;-5.7762;
891.9000;0.6252;-5.7710;
892.2000;0.6227;-5.7710;
892.5000;0.6235;-5.7658;
892.8000;0.6252;-5.7555;
893.1000;0.6252;-5.7529;
893.4000;0.6235;-5.7529;
893.7000;0.6227;-5.7555;
894.0000;0.6227;-5.7451;
894.3000;0.6276;-5.7296;
894.6000;0.6227;-5.7477;
894.9000;0.6235;-5.7477;
895.2000;0.6243;-5.7503;
895.5000;0.6219;-5.7529;
895.8000;0.6235;-5.7503;
896.1000;0.6162;-5.7788;
896.4000;0.6211;-5.7633;
896.7000;0.6227;-5.7607;
897.0000;0.6243;-5.7684;
897.3000;0.6268;-5.7607;
897.6000;0.6227;-5.7710;
897.9000;0.6219;-5.7710;
898.2000;0.6235;-5.7581;
898.5000;0.6260;-5.7633;
898.8000;0.6243;-5.7658;
899.1000;0.6211;-5.7866;
899.4000;0.6235;-5.7814;
899.7000;0.6195;-5.7918;
900.0000;0.6227;-5.7866;
900.3000;0.6195;-5.7762;
900.6000;0.6129;-5.7658;
900.9000;0.6081;-5.7633;
901.2000;0.5999;-5.7684;
901.5000;0.5958;-5.7762;
901.8000;0.6015;-5.7581;
902.1000;0.5991;-5.7555;
902.4000;0.5991;-5.7399;
902.7000;0.5967;-5.7503;
903.0000;0.5958;-5.7529;
903.3000;0.5967;-5.7529;
903.6000;0.5926;-5.7684;
903.9000;0.5958;-5.7684;
904.2000;0.5926;-5.7814;
904.5000;0.5942;-5.7788;
904.8000;0.5967;-5.7762;
905.1000;0.5967;-5.7710;
905.4000;0.5934;-5.7788;
905.7000;0.5942;-5.7684;
906.0000;0.5942;-5.7684;
906.3000;0.5967;-5.7684;
906.6000;0.5958;-5.7633;
906.9000;0.5902;-5.7736;
907.2000;0.5950;-5.7581;
907.5000;0.5942;-5.7555;
907.8000;0.5942;-5.7503;
908.1000;0.5942;-5.7451;
908.4000;0.5958;-5.7477;
908.7000;0.5934;-5.7529;
909.0000;0.5942;-5.7529;
909.3000;0.5926;-5.7658;
909.6000;0.5877;-5.7762;
909.9000;0.5942;-5.7710;
910.2000;0.5942;-5.7633;
910.5000;0.5926;-5.7658;
910.8000;0.5942;-5.7555;
911.1000;0.5926;-5.7736;
911.4000;0.5934;-5.7633;
911.7000;0.5942;-5.7633;
912.0000;0.5942;-5.7633;
912.3000;0.5950;-5.7658;
912.6000;0.5958;-5.7581;
912.9000;0.5950;-5.7658;
913.2000;0.5934;-5.7762;
913.5000;0.5950;-5.7684;
913.8000;0.5942;-5.7710;
914.1000;0.5902;-5.7788;
914.4000;0.5910;-5.7762;
914.7000;0.5934;-5.7736;
915.0000;0.5950;-5.7710;
915.3000;0.5926;-5.7814;
915.6000;0.5934;-5.7736;
915.9000;0.5934;-5.7684;
916.2000;0.5942;-5.7684;
916.5000;0.5950;-5.7710;
916.8000;0.5934;-5.7788;
917.1000;0.5942;-5.7788;
917.4000;0.5918;-5.7866;
917.7000;0.5950;-5.7684;
918.0000;0.5942;-5.7710;
918.3000;0.5950;-5.7658;
918.6000;0.5934;-5.7658;
918.9000;0.5950;-5.7581;
919.2000;0.5950;-5.7633;
919.5000;0.5942;-5.7633;
919.8000;0.6015;-5.7425;
920.1000;0.5918;-5.7710;
920.4000;0.5934;-5.7633;
920.7000;0.5934;-5.7581;
921.0000;0.5934;-5.7684;
921.3000;0.5942;-5.7736;
921.6000;0.5918;-5.7710;
921.9000;0.5958;-5.7658;
922.2000;0.5958;-5.7710;
922.5000;0.5950;-5.7788;
922.8000;0.5950;-5.7788;
923.1000;0.5934;-5.7762;
923.4000;0.5967;-5.7607;
923.7000;0.5934;-5.7736;
924.0000;0.5942;-5.7607;
924.3000;0.5877;-5.7840;
924.6000;0.5942;-5.7736;
924.9000;0.5950;-5.7658;
925.2000;0.5983;-5.7581;
925.5000;0.5926;-5.7762;
925.8000;0.5942;-5.7710;
926.1000;0.5950;-5.7658;
926.4000;0.5950;-5.7684;
926.7000;0.5926;-5.7736;
927.0000;0.5950;-5.7788;
927.3000;0.5958;-5.7762;
927.6000;0.5934;-5.7788;
927.9000;0.5934;-5.7710;
928.2000;0.5967;-5.7607;
928.5000;0.5958;-5.7607;
928.8000;0.5958;-5.7477;
929.1000;0.5934;-5.7529;
929.4000;0.5918;-5.7581;
929.7000;0.5950;-5.7581;
930.0000;0.5934;-5.7658;
930.3000;0.5942;-5.7607;
930.6000;0.5942;-5.7581;
930.9000;0.5942;-5.7684;
931.2000;0.5942;-5.7684;
931.5000;0.5950;-5.7607;
931.8000;0.5926;-5.7684;
932.1000;0.5926;-5.7607;
932.4000;0.5942;-5.7658;
932.7000;0.5958;-5.7736;
933.0000;0.5942;-5.7684;
933.3000;0.5950;-5.7684;
933.6000;0.5942;-5.7710;
933.9000;0.5950;-5.7684;
934.2000;0.5926;-5.7736;
934.5000;0.5934;-5.7736;
934.8000;0.5926;-5.7710;
935.1000;0.5934;-5.7736;
935.4000;0.5942;-5.7710;
935.7000;0.5950;-5.7633;
936.0000;0.5918;-5.7710;
936.3000;0.5942;-5.7633;
936.6000;0.5942;-5.7710;
936.9000;0.5950;-5.7788;
937.2000;0.5926;-5.7788;
937.5000;0.5942;-5.7762;
937.8000;0.5958;-5.7762;
938.1000;0.5942;-5.7684;
938.4000;0.5934;-5.7607;
938.7000;0.5950;-5.7607;
939.0000;0.5958;-5.7607;
939.3000;0.5958;-5.7581;
939.6000;0.5942;-5.7555;
939.9000;0.5950;-5.7555;
940.2000;0.5934;-5.7555;
940.5000;0.5958;-5.7503;
940.8000;0.5934;-5.7529;
941.1000;0.5942;-5.7555;
941.4000;0.5926;-5.7633;
941.7000;0.5934;-5.7607;
942.0000;0.5934;-5.7555;
942.3000;0.5926;-5.7581;
942.6000;0.5942;-5.7581;
942.9000;0.5893;-5.7736;
943.2000;0.5934;-5.7633;
943.5000;0.5942;-5.7607;
943.8000;0.5950;-5.7555;
944.1000;0.5926;-5.7555;
944.4000;0.5950;-5.7503;
944.7000;0.5942;-5.7529;
945.0000;0.5950;-5.7555;
945.3000;0.5926;-5.7555;
945.6000;0.5950;-5.7581;
945.9000;0.5942;-5.7555;
946.2000;0.6015;-5.7296;
946.5000;0.5950;-5.7425;
946.8000;0.5950;-5.7503;
947.1000;0.5902;-5.7710;
947.4000;0.5950;-5.7555;
947.7000;0.5942;-5.7555;
948.0000;0.5926;-5.7658;
948.3000;0.5958;-5.7581;
948.6000;0.5967;-5.7503;
948.9000;0.5958;-5.7581;
949.2000;0.5950;-5.7581;
949.5000;0.5942;-5.7658;
949.8000;0.5967;-5.7555;
950.1000;0.5942;-5.7555;
950.4000;0.5885;-5.7503;
950.7000;0.5869;-5.7451;
951.0000;0.5828;-5.7503;
951.3000;0.5820;-5.7451;
951.6000;0.5796;-5.7425;
951.9000;0.5796;-5.7425;
952.2000;0.5779;-5.7451;
952.5000;0.5763;-5.7374;
952.8000;0.5771;-5.7374;
953.1000;0.5747;-5.7425;
953.4000;0.5763;-5.7425;
953.7000;0.5755;-5.7607;
954.0000;0.5763;-5.7607;
954.3000;0.5763;-5.7581;
954.6000;0.5812;-5.7374;
954.9000;0.5804;-5.7425;
955.2000;0.5755;-5.7503;
955.5000;0.5747;-5.7503;
955.8000;0.5747;-5.7503;
956.1000;0.5739;-5.7529;
956.4000;0.5731;-5.7477;
956.7000;0.5755;-5.7529;
957.0000;0.5755;-5.7477;
957.3000;0.5755;-5.7529;
957.6000;0.5739;-5.7607;
957.9000;0.5747;-5.7607;
958.2000;0.5755;-5.7581;
958.5000;0.5755;-5.7633;
958.8000;0.5755;-5.7736;
959.1000;0.5739;-5.7633;
959.4000;0.5739;-5.7607;
959.7000;0.5739;-5.7555;
960.0000;0.5763;-5.7529;
960.3000;0.5763;-5.7477;
960.6000;0.5739;-5.7529;
960.9000;0.5755;-5.7529;
961.2000;0.5739;-5.7607;
961.5000;0.5755;-5.7503;
961.8000;0.5739;-5.7477;
962.1000;0.5755;-5.7425;
962.4000;0.5747;-5.7399;
962.7000;0.5731;-5.7348;
963.0000;0.5739;-5.7425;
963.3000;0.5755;-5.7451;
963.6000;0.5747;-5.7477;
963.9000;0.5739;-5.7477;
964.2000;0.5771;-5.7451;
964.5000;0.5755;-5.7477;
964.8000;0.5747;-5.7555;
965.1000;0.5755;-5.7607;
965.4000;0.5763;-5.7581;
965.7000;0.5747;-5.7736;
966.0000;0.5747;-5.7736;
966.3000;0.5747;-5.7684;
966.6000;0.5739;-5.7555;
966.9000;0.5747;-5.7529;
967.2000;0.5690;-5.7710;
967.5000;0.5755;-5.7607;
967.8000;0.5747;-5.7607;
968.1000;0.5739;-5.7607;
968.4000;0.5739;-5.7633;
968.7000;0.5755;-5.7581;
969.0000;0.5747;-5.7684;
969.3000;0.5755;-5.7736;
969.6000;0.5763;-5.7684;
969.9000;0.5755;-5.7607;
970.2000;0.5747;-5.7529;
970.5000;0.5739;-5.7581;
970.8000;0.5755;-5.7555;
971.1000;0.5747;-5.7581;
971.4000;0.5763;-5.7555;
971.7000;0.5739;-5.7633;
972.0000;0.5755;-5.7581;
972.3000;0.5739;-5.7581;
972.6000;0.5739;-5.7529;
972.9000;0.5747;-5.7477;
973.2000;0.5739;-5.7555;
973.5000;0.5755;-5.7425;
973.8000;0.5771;-5.7348;
974.1000;0.5747;-5.7374;
974.4000;0.5755;-5.7451;
974.7000;0.5747;-5.7451;
975.0000;0.5747;-5.7425;
975.3000;0.5755;-5.7374;
975.6000;0.5739;-5.7374;
975.9000;0.5771;-5.7322;
976.2000;0.5755;-5.7348;
976.5000;0.5747;-5.7425;
976.8000;0.5722;-5.7503;
977.1000;0.5739;-5.7477;
977.4000;0.5731;-5.7477;
977.7000;0.5755;-5.7425;
978.0000;0.5755;-5.7555;
978.3000;0.5739;-5.7581;
978.6000;0.5739;-5.7633;
978.9000;0.5755;-5.7581;
979.2000;0.5755;-5.7658;
979.5000;0.5747;-5.7762;
979.8000;0.5755;-5.7736;
980.1000;0.5771;-5.7581;
980.4000;0.5779;-5.7555;
980.7000;0.5747;-5.7529;
981.0000;0.5755;-5.7529;
981.3000;0.5763;-5.7555;
981.6000;0.5763;-5.7607;
981.9000;0.5755;-5.7607;
982.2000;0.5747;-5.7555;
982.5000;0.5755;-5.7555;
982.8000;0.5739;-5.7607;
983.1000;0.5739;-5.7529;
983.4000;0.5731;-5.7503;
983.7000;0.5739;-5.7503;
984.0000;0.5779;-5.7503;
984.3000;0.5747;-5.7555;
984.6000;0.5731;-5.7555;
984.9000;0.5763;-5.7477;
985.2000;0.5755;-5.7555;
985.5000;0.5755;-5.7581;
985.8000;0.5755;-5.7633;
986.1000;0.5755;-5.7581;
986.4000;0.5755;-5.7555;
986.7000;0.5755;-5.7658;
987.0000;0.5747;-5.7684;
987.3000;0.5739;-5.7658;
987.6000;0.5771;-5.7555;
987.9000;0.5763;-5.7529;
988.2000;0.5755;-5.7633;
988.5000;0.5739;-5.7658;
988.8000;0.5739;-5.7607;
989.1000;0.5747;-5.7503;
989.4000;0.5755;-5.7477;
989.7000;0.5690;-5.7581;
990.0000;0.5682;-5.7633;
990.3000;0.5755;-5.7529;
990.6000;0.5755;-5.7503;
990.9000;0.5771;-5.7503;
991.2000;0.5747;-5.7529;
991.5000;0.5763;-5.7529;
991.8000;0.5747;-5.7581;
992.1000;0.5747;-5.7581;
992.4000;0.5755;-5.7555;
992.7000;0.5788;-5.7374;
993.0000;0.5747;-5.7529;
993.3000;0.5755;-5.7555;
993.6000;0.5739;-5.7633;
993.9000;0.5755;-5.7607;
994.2000;0.5755;-5.7658;
994.5000;0.5796;-5.7607;
994.8000;0.5755;-5.7736;
995.1000;0.5763;-5.7633;
995.4000;0.5763;-5.7658;
995.7000;0.5755;-5.7658;
996.0000;0.5747;-5.7684;
996.3000;0.5755;-5.7710;
996.6000;0.5747;-5.7710;
996.9000;0.5722;-5.7736;
997.2000;0.5747;-5.7581;
997.5000;0.5747;-5.7581;
997.8000;0.5722;-5.7684;
998.1000;0.5747;-5.7658;
998.4000;0.5755;-5.7555;
998.7000;0.5755;-5.7581;
999.0000;0.5796;-5.7503;
999.3000;0.5763;-5.7529;
999.6000;0.5747;-5.7581;
999.9000;0.5755;-5.7658;
1000.2000;0.5739;-5.7684;
1000.5000;0.5698;-5.7581;
1000.8000;0.5649;-5.7529;
1001.1000;0.5617;-5.7503;
1001.4000;0.5625;-5.7374;
1001.7000;0.5625;-5.7348;
1002.0000;0.5576;-5.7451;
1002.3000;0.5584;-5.7555;
1002.6000;0.5568;-5.7581;
1002.9000;0.5568;-5.7633;
1003.2000;0.5584;-5.7555;
1003.5000;0.5576;-5.7555;
1003.8000;0.5568;-5.7503;
1004.1000;0.5543;-5.7477;
1004.4000;0.5560;-5.7374;
1004.7000;0.5560;-5.7348;
1005.0000;0.5568;-5.7451;
1005.3000;0.5560;-5.7425;
1005.6000;0.5600;-5.7374;
1005.9000;0.5551;-5.7399;
1006.2000;0.5568;-5.7374;
1006.5000;0.5568;-5.7374;
1006.8000;0.5568;-5.7399;
1007.1000;0.5568;-5.7374;
1007.4000;0.5551;-5.7425;
1007.7000;0.5560;-5.7322;
1008.0000;0.5551;-5.7322;
1008.3000;0.5568;-5.7244;
1008.6000;0.5519;-5.7503;
1008.9000;0.5568;-5.7322;
1009.2000;0.5551;-5.7374;
1009.5000;0.5560;-5.7451;
1009.8000;0.5568;-5.7451;
1010.1000;0.5560;-5.7529;
1010.4000;0.5560;-5.7477;
1010.7000;0.5560;-5.7399;
1011.0000;0.5568;-5.7451;
1011.3000;0.5568;-5.7529;
1011.6000;0.5560;-5.7555;
1011.9000;0.5560;-5.7607;
1012.2000;0.5568;-5.7529;
1012.5000;0.5560;-5.7555;
1012.8000;0.5560;-5.7529;
1013.1000;0.5551;-5.7581;
1013.4000;0.5568;-5.7529;
1013.7000;0.5608;-5.7503;
1014.0000;0.5568;-5.7555;
1014.3000;0.5576;-5.7581;
1014.6000;0.5576;-5.7555;
1014.9000;0.5568;-5.7607;
1015.2000;0.5560;-5.7581;
1015.5000;0.5560;-5.7555;
1015.8000;0.5568;-5.7503;
1016.1000;0.5576;-5.7529;
1016.4000;0.5576;-5.7555;
1016.7000;0.5576;-5.7503;
1017.0000;0.5535;-5.7581;
1017.3000;0.5560;-5.7477;
1017.6000;0.5576;-5.7477;
1017.9000;0.5535;-5.7581;
1018.2000;0.5568;-5.7555;
1018.5000;0.5568;-5.7555;
1018.8000;0.5560;-5.7658;
1019.1000;0.5568;-5.7633;
1019.4000;0.5568;-5.7607;
1019.7000;0.5576;-5.7555;
1020.0000;0.5568;-5.7658;
1020.3000;0.5551;-5.7736;
1020.6000;0.5511;-5.7814;
1020.9000;0.5600;-5.7581;
1021.2000;0.5568;-5.7658;
1021.5000;0.5551;-5.7658;
1021.8000;0.5568;-5.7555;
1022.1000;0.5560;-5.7529;
1022.4000;0.5568;-5.7529;
1022.7000;0.5551;-5.7607;
1023.0000;0.5560;-5.7581;
1023.3000;0.5568;-5.7581;
1023.6000;0.5560;-5.7607;
1023.9000;0.5551;-5.7581;
1024.2000;0.5568;-5.7555;
1024.5000;0.5560;-5.7529;
1024.8000;0.5560;-5.7529;
1025.1000;0.5576;-5.7529;
1025.4000;0.5551;-5.7607;
1025.7000;0.5584;-5.7529;
1026.0000;0.5584;-5.7451;
1026.3000;0.5568;-5.7555;
1026.6000;0.5560;-5.7581;
1026.9000;0.5551;-5.7581;
1027.2000;0.5551;-5.7555;
1027.5000;0.5568;-5.7477;
1027.8000;0.5568;-5.7503;
1028.1000;0.5551;-5.7555;
1028.4000;0.5560;-5.7477;
1028.7000;0.5576;-5.7503;
1029.0000;0.5560;-5.7581;
1029.3000;0.5560;-5.7555;
1029.6000;0.5543;-5.7607;
1029.9000;0.5576;-5.7529;
1030.2000;0.5576;-5.7555;
1030.5000;0.5560;-5.7581;
1030.8000;0.5584;-5.7477;
1031.1000;0.5576;-5.7529;
1031.4000;0.5568;-5.7555;
1031.7000;0.5568;-5.7581;
1032.0000;0.5560;-5.7555;
1032.3000;0.5584;-5.7451;
1032.6000;0.5576;-5.7477;
1032.9000;0.5568;-5.7555;
1033.2000;0.5568;-5.7503;
1033.5000;0.5568;-5.7425;
1033.8000;0.5551;-5.7503;
1034.1000;0.5560;-5.7425;
1034.4000;0.5551;-5.7322;
1034.7000;0.5568;-5.7244;
1035.0000;0.5551;-5.7296;
1035.3000;0.5551;-5.7322;
1035.6000;0.5584;-5.7270;
1035.9000;0.5576;-5.7322;
1036.2000;0.5576;-5.7425;
1036.5000;0.5568;-5.7451;
1036.8000;0.5543;-5.7581;
1037.1000;0.5576;-5.7581;
1037.4000;0.5560;-5.7581;
1037.7000;0.5584;-5.7555;
1038.0000;0.5551;-5.7529;
1038.3000;0.5551;-5.7503;
1038.6000;0.5576;-5.7477;
1038.9000;0.5584;-5.7425;
1039.2000;0.5641;-5.7374;
1039.5000;0.5560;-5.7607;
1039.8000;0.5560;-5.7658;
1040.1000;0.5568;-5.7607;
1040.4000;0.5584;-5.7607;
1040.7000;0.5600;-5.7503;
1041.0000;0.5568;-5.7607;
1041.3000;0.5568;-5.7581;
1041.6000;0.5576;-5.7607;
1041.9000;0.5568;-5.7451;
1042.2000;0.5568;-5.7555;
1042.5000;0.5592;-5.7503;
1042.8000;0.5568;-5.7503;
1043.1000;0.5576;-5.7451;
1043.4000;0.5568;-5.7529;
1043.7000;0.5576;-5.7555;
1044.0000;0.5576;-5.7529;
1044.3000;0.5568;-5.7529;
1044.6000;0.5625;-5.7425;
1044.9000;0.5576;-5.7684;
1045.2000;0.5584;-5.7684;
1045.5000;0.5568;-5.7892;
1045.8000;0.5576;-5.7840;
1046.1000;0.5568;-5.7866;
1046.4000;0.5560;-5.7788;
1046.7000;0.5584;-5.7607;
1047.0000;0.5568;-5.7607;
1047.3000;0.5560;-5.7555;
1047.6000;0.5568;-5.7529;
1047.9000;0.5576;-5.7529;
1048.2000;0.5576;-5.7633;
1048.5000;0.5576;-5.7658;
1048.8000;0.5560;-5.7710;
1049.1000;0.5576;-5.7658;
1049.4000;0.5560;-5.7710;
1049.7000;0.5576;-5.7762;
1050.0000;0.5568;-5.7840;
1050.3000;0.5560;-5.7710;
1050.6000;0.5527;-5.7684;
1050.9000;0.5519;-5.7658;
1051.2000;0.5511;-5.7684;
1051.5000;0.5511;-5.7684;
1051.8000;0.5543;-5.7658;
1052.1000;0.5511;-5.7633;
1052.4000;0.5486;-5.7736;
1052.7000;0.5486;-5.7762;
1053.0000;0.5495;-5.7788;
1053.3000;0.5495;-5.7762;
1053.6000;0.5478;-5.7788;
1053.9000;0.5503;-5.7814;
1054.2000;0.5486;-5.7814;
1054.5000;0.5495;-5.7762;
1054.8000;0.5478;-5.7736;
1055.1000;0.5486;-5.7736;
1055.4000;0.5462;-5.7866;
1055.7000;0.5478;-5.7710;
1056.0000;0.5478;-5.7658;
1056.3000;0.5478;-5.7762;
1056.6000;0.5495;-5.7658;
1056.9000;0.5486;-5.7684;
1057.2000;0.5486;-5.7658;
1057.5000;0.5478;-5.7607;
1057.8000;0.5543;-5.7477;
1058.1000;0.5462;-5.7684;
1058.4000;0.5495;-5.7710;
1058.7000;0.5486;-5.7684;
1059.0000;0.5478;-5.7762;
1059.3000;0.5454;-5.7788;
1059.6000;0.5503;-5.7658;
1059.9000;0.5511;-5.7555;
1060.2000;0.5470;-5.7710;
1060.5000;0.5495;-5.7633;
1060.8000;0.5503;-5.7633;
1061.1000;0.5486;-5.7633;
1061.4000;0.5543;-5.7477;
1061.7000;0.5511;-5.7529;
1062.0000;0.5495;-5.7581;
1062.3000;0.5495;-5.7684;
1062.6000;0.5503;-5.7684;
1062.9000;0.5535;-5.7607;
1063.2000;0.5511;-5.7710;
1063.5000;0.5511;-5.7684;
1063.8000;0.5495;-5.7684;
1064.1000;0.5486;-5.7607;
1064.4000;0.5495;-5.7633;
1064.7000;0.5486;-5.7581;
1065.0000;0.5478;-5.7555;
1065.3000;0.5486;-5.7451;
1065.6000;0.5478;-5.7451;
1065.9000;0.5486;-5.7425;
1066.2000;0.5495;-5.7425;
1066.5000;0.5486;-5.7399;
1066.8000;0.5478;-5.7503;
1067.1000;0.5478;-5.7581;
1067.4000;0.5470;-5.7581;
1067.7000;0.5503;-5.7581;
1068.0000;0.5486;-5.7607;
1068.3000;0.5511;-5.7529;
1068.6000;0.5478;-5.7529;
1068.9000;0.5470;-5.7555;
1069.2000;0.5470;-5.7607;
1069.5000;0.5495;-5.7529;
1069.8000;0.5495;-5.7503;
1070.1000;0.5478;-5.7529;
1070.4000;0.5478;-5.7581;
1070.7000;0.5478;-5.7529;
1071.0000;0.5486;-5.7451;
1071.3000;0.5478;-5.7451;
1071.6000;0.5486;-5.7399;
1071.9000;0.5478;-5.7503;
1072.2000;0.5478;-5.7477;
1072.5000;0.5486;-5.7529;
1072.8000;0.5486;-5.7607;
1073.1000;0.5486;-5.7710;
1073.4000;0.5495;-5.7633;
1073.7000;0.5495;-5.7684;
1074.0000;0.5495;-5.7658;
1074.3000;0.5527;-5.7581;
1074.6000;0.5511;-5.7581;
1074.9000;0.5495;-5.7529;
1075.2000;0.5486;-5.7503;
1075.5000;0.5478;-5.7529;
1075.8000;0.5495;-5.7477;
1076.1000;0.5503;-5.7451;
1076.4000;0.5478;-5.7555;
1076.7000;0.5454;-5.7529;
1077.0000;0.5495;-5.7529;
1077.3000;0.5511;-5.7503;
1077.6000;0.5454;-5.7607;
1077.9000;0.5495;-5.7529;
1078.2000;0.5486;-5.7529;
1078.5000;0.5454;-5.7607;
1078.8000;0.5486;-5.7581;
1079.1000;0.5486;-5.7633;
1079.4000;0.5486;-5.7658;
1079.7000;0.5543;-5.7503;
1080.0000;0.5486;-5.7581;
1080.3000;0.5527;-5.7555;
1080.6000;0.5470;-5.7658;
1080.9000;0.5486;-5.7581;
1081.2000;0.5495;-5.7529;
1081.5000;0.5478;-5.7529;
1081.8000;0.5478;-5.7555;
1082.1000;0.5503;-5.7607;
1082.4000;0.5495;-5.7658;
1082.7000;0.5511;-5.7555;
1083.0000;0.5503;-5.7607;
1083.3000;0.5478;-5.7710;
1083.6000;0.5486;-5.7607;
1083.9000;0.5519;-5.7503;
1084.2000;0.5486;-5.7581;
1084.5000;0.5478;-5.7658;
1084.8000;0.5495;-5.7658;
1085.1000;0.5519;-5.7633;
1085.4000;0.5495;-5.7633;
1085.7000;0.5511;-5.7607;
1086.0000;0.5511;-5.7684;
1086.3000;0.5478;-5.7684;
1086.6000;0.5503;-5.7633;
1086.9000;0.5519;-5.7607;
1087.2000;0.5503;-5.7633;
1087.5000;0.5503;-5.7658;
1087.8000;0.5478;-5.7788;
1088.1000;0.5495;-5.7658;
1088.4000;0.5503;-5.7555;
1088.7000;0.5503;-5.7477;
1089.0000;0.5503;-5.7425;
1089.3000;0.5503;-5.7451;
1089.6000;0.5486;-5.7451;
1089.9000;0.5495;-5.7477;
1090.2000;0.5495;-5.7451;
1090.5000;0.5495;-5.7451;
1090.8000;0.5495;-5.7425;
1091.1000;0.5486;-5.7451;
1091.4000;0.5495;-5.7374;
1091.7000;0.5486;-5.7503;
1092.0000;0.5486;-5.7529;
1092.3000;0.5503;-5.7581;
1092.6000;0.5486;-5.7684;
1092.9000;0.5535;-5.7529;
1093.2000;0.5503;-5.7529;
1093.5000;0.5486;-5.7477;
1093.8000;0.5503;-5.7374;
1094.1000;0.5511;-5.7348;
1094.4000;0.5486;-5.7477;
1094.7000;0.5495;-5.7425;
1095.0000;0.5462;-5.7529;
1095.3000;0.5486;-5.7451;
1095.6000;0.5486;-5.7399;
1095.9000;0.5486;-5.7399;
1096.2000;0.5495;-5.7451;
1096.5000;0.5495;-5.7451;
1096.8000;0.5503;-5.7348;
1097.1000;0.5429;-5.7503;
1097.4000;0.5486;-5.7374;
1097.7000;0.5495;-5.7348;
1098.0000;0.5478;-5.7399;
1098.3000;0.5438;-5.7529;
1098.6000;0.5429;-5.7555;
1098.9000;0.5495;-5.7399;
1099.2000;0.5511;-5.7296;
1099.5000;0.5486;-5.7399;
1099.8000;0.5486;-5.7399;
1100.1000;0.5495;-5.7348;
1100.4000;0.5446;-5.7322;
1100.7000;0.5421;-5.7270;
1101.0000;0.5381;-5.7296;
1101.3000;0.5364;-5.7296;
1101.6000;0.5364;-5.7322;
1101.9000;0.5324;-5.7348;
1102.2000;0.5315;-5.7374;
1102.5000;0.5258;-5.7451;
1102.8000;0.5307;-5.7296;
1103.1000;0.5291;-5.7374;
1103.4000;0.5291;-5.7322;
1103.7000;0.5291;-5.7322;
1104.0000;0.5307;-5.7322;
1104.3000;0.5315;-5.7296;
1104.6000;0.5291;-5.7348;
1104.9000;0.5283;-5.7374;
1105.2000;0.5315;-5.7399;
1105.5000;0.5291;-5.7503;
1105.8000;0.5307;-5.7399;
1106.1000;0.5291;-5.7477;
1106.4000;0.5299;-5.7374;
1106.7000;0.5291;-5.7348;
1107.0000;0.5291;-5.7451;
1107.3000;0.5275;-5.7477;
1107.6000;0.5291;-5.7451;
1107.9000;0.5299;-5.7374;
1108.2000;0.5299;-5.7322;
1108.5000;0.5291;-5.7425;
1108.8000;0.5275;-5.7503;
1109.1000;0.5291;-5.7451;
1109.4000;0.5307;-5.7451;
1109.7000;0.5291;-5.7503;
1110.0000;0.5299;-5.7529;
1110.3000;0.5299;-5.7529;
1110.6000;0.5307;-5.7503;
1110.9000;0.5307;-5.7451;
1111.2000;0.5299;-5.7503;
1111.5000;0.5291;-5.7529;
1111.8000;0.5291;-5.7529;
1112.1000;0.5356;-5.7374;
1112.4000;0.5291;-5.7581;
1112.7000;0.5275;-5.7581;
1113.0000;0.5307;-5.7581;
1113.3000;0.5283;-5.7684;
1113.6000;0.5283;-5.7633;
1113.9000;0.5283;-5.7581;
1114.2000;0.5291;-5.7529;
1114.5000;0.5299;-5.7555;
1114.8000;0.5340;-5.7503;
1115.1000;0.5275;-5.7633;
1115.4000;0.5299;-5.7581;
1115.7000;0.5299;-5.7529;
1116.0000;0.5275;-5.7658;
1116.3000;0.5283;-5.7607;
1116.6000;0.5291;-5.7684;
1116.9000;0.5275;-5.7684;
1117.2000;0.5283;-5.7658;
1117.5000;0.5299;-5.7633;
1117.8000;0.5315;-5.7607;
1118.1000;0.5340;-5.7451;
1118.4000;0.5299;-5.7607;
1118.7000;0.5275;-5.7710;
1119.0000;0.5283;-5.7710;
1119.3000;0.5299;-5.7658;
1119.6000;0.5291;-5.7633;
1119.9000;0.5315;-5.7529;
1120.2000;0.5283;-5.7684;
1120.5000;0.5307;-5.7710;
1120.8000;0.5291;-5.7736;
1121.1000;0.5307;-5.7710;
1121.4000;0.5275;-5.7762;
1121.7000;0.5291;-5.7684;
1122.0000;0.5299;-5.7633;
1122.3000;0.5291;-5.7607;
1122.6000;0.5275;-5.7477;
1122.9000;0.5291;-5.7425;
1123.2000;0.5291;-5.7477;
1123.5000;0.5291;-5.7555;
1123.8000;0.5291;-5.7581;
1124.1000;0.5307;-5.7658;
1124.4000;0.5267;-5.7736;
1124.7000;0.5299;-5.7607;
1125.0000;0.5307;-5.7555;
1125.3000;0.5299;-5.7555;
1125.6000;0.5356;-5.7451;
1125.9000;0.5315;-5.7607;
1126.2000;0.5307;-5.7555;
1126.5000;0.5291;-5.7529;
1126.8000;0.5275;-5.7451;
1127.1000;0.5210;-5.7529;
1127.4000;0.5283;-5.7374;
1127.7000;0.5283;-5.7374;
1128.0000;0.5299;-5.7322;
1128.3000;0.5299;-5.7296;
1128.6000;0.5267;-5.7425;
1128.9000;0.5307;-5.7348;
1129.2000;0.5218;-5.7503;
1129.5000;0.5283;-5.7322;
1129.8000;0.5283;-5.7348;
1130.1000;0.5291;-5.7425;
1130.4000;0.5299;-5.7425;
1130.7000;0.5283;-5.7555;
1131.0000;0.5315;-5.7503;
1131.3000;0.5299;-5.7581;
1131.6000;0.5307;-5.7555;
1131.9000;0.5291;-5.7658;
1132.2000;0.5283;-5.7762;
1132.5000;0.5283;-5.7762;
1132.8000;0.5291;-5.7762;
1133.1000;0.5283;-5.7736;
1133.4000;0.5307;-5.7710;
1133.7000;0.5299;-5.7762;
1134.0000;0.5299;-5.7736;
1134.3000;0.5291;-5.7684;
1134.6000;0.5332;-5.7581;
1134.9000;0.5299;-5.7581;
1135.2000;0.5315;-5.7581;
1135.5000;0.5324;-5.7555;
1135.8000;0.5299;-5.7503;
1136.1000;0.5299;-5.7399;
1136.4000;0.5324;-5.7399;
1136.7000;0.5267;-5.7581;
1137.0000;0.5315;-5.7607;
1137.3000;0.5291;-5.7658;
1137.6000;0.5291;-5.7710;
1137.9000;0.5291;-5.7736;
1138.2000;0.5291;-5.7684;
1138.5000;0.5299;-5.7710;
1138.8000;0.5307;-5.7788;
1139.1000;0.5291;-5.7788;
1139.4000;0.5291;-5.7788;
1139.7000;0.5291;-5.7840;
1140.0000;0.5299;-5.7814;
1140.3000;0.5291;-5.7866;
1140.6000;0.5291;-5.7788;
1140.9000;0.5291;-5.7633;
1141.2000;0.5291;-5.7607;
1141.5000;0.5299;-5.7581;
1141.8000;0.5299;-5.7633;
1142.1000;0.5340;-5.7607;
1142.4000;0.5299;-5.7607;
1142.7000;0.5299;-5.7581;
1143.0000;0.5283;-5.7633;
1143.3000;0.5283;-5.7762;
1143.6000;0.5283;-5.7814;
1143.9000;0.5299;-5.7762;
1144.2000;0.5299;-5.7710;
1144.5000;0.5283;-5.7633;
1144.8000;0.5299;-5.7581;
1145.1000;0.5315;-5.7581;
1145.4000;0.5299;-5.7555;
1145.7000;0.5291;-5.7555;
1146.0000;0.5332;-5.7451;
1146.3000;0.5299;-5.7503;
1146.6000;0.5299;-5.7555;
1146.9000;0.5283;-5.7710;
1147.2000;0.5283;-5.7736;
1147.5000;0.5258;-5.7892;
1147.8000;0.5291;-5.7814;
1148.1000;0.5275;-5.7814;
1148.4000;0.5332;-5.7633;
1148.7000;0.5283;-5.7684;
1149.0000;0.5299;-5.7581;
1149.3000;0.5299;-5.7633;
1149.6000;0.5226;-5.7814;
1149.9000;0.5291;-5.7633;
1150.2000;0.5299;-5.7633;
1150.5000;0.5250;-5.7658;
1150.8000;0.5234;-5.7658;
1151.1000;0.5218;-5.7633;
1151.4000;0.5218;-5.7581;
1151.7000;0.5201;-5.7555;
1152.0000;0.5185;-5.7581;
1152.3000;0.5177;-5.7581;
1152.6000;0.5169;-5.7581;
1152.9000;0.5201;-5.7374;
1153.2000;0.5144;-5.7581;
1153.5000;0.5161;-5.7529;
1153.8000;0.5161;-5.7607;
1154.1000;0.5201;-5.7477;
1154.4000;0.5128;-5.7710;
1154.7000;0.5185;-5.7633;
1155.0000;0.5161;-5.7684;
1155.3000;0.5185;-5.7684;
1155.6000;0.5177;-5.7607;
1155.9000;0.5161;-5.7684;
1156.2000;0.5169;-5.7658;
1156.5000;0.5161;-5.7581;
1156.8000;0.5161;-5.7529;
1157.1000;0.5177;-5.7503;
1157.4000;0.5169;-5.7503;
1157.7000;0.5169;-5.7529;
1158.0000;0.5153;-5.7581;
1158.3000;0.5161;-5.7529;
1158.6000;0.5136;-5.7581;
1158.9000;0.5161;-5.7451;
1159.2000;0.5161;-5.7425;
1159.5000;0.5144;-5.7477;
1159.8000;0.5153;-5.7425;
1160.1000;0.5153;-5.7374;
1160.4000;0.5161;-5.7296;
1160.7000;0.5169;-5.7218;
1161.0000;0.5161;-5.7218;
1161.3000;0.5169;-5.7166;
1161.6000;0.5169;-5.7166;
1161.9000;0.5161;-5.7218;
1162.2000;0.5169;-5.7218;
1162.5000;0.5169;-5.7270;
1162.8000;0.5169;-5.7218;
1163.1000;0.5169;-5.7270;
1163.4000;0.5153;-5.7399;
1163.7000;0.5153;-5.7399;
1164.0000;0.5161;-5.7374;
1164.3000;0.5185;-5.7322;
1164.6000;0.5161;-5.7399;
1164.9000;0.5177;-5.7374;
1165.2000;0.5161;-5.7322;
1165.5000;0.5185;-5.7374;
1165.8000;0.5185;-5.7348;
1166.1000;0.5153;-5.7425;
1166.4000;0.5177;-5.7296;
1166.7000;0.5169;-5.7322;
1167.0000;0.5177;-5.7374;
1167.3000;0.5161;-5.7374;
1167.6000;0.5177;-5.7348;
1167.9000;0.5169;-5.7399;
1168.2000;0.5185;-5.7296;
1168.5000;0.5161;-5.7425;
1168.8000;0.5153;-5.7503;
1169.1000;0.5153;-5.7477;
1169.4000;0.5161;-5.7451;
1169.7000;0.5177;-5.7425;
1170.0000;0.5169;-5.7477;
1170.3000;0.5177;-5.7451;
1170.6000;0.5201;-5.7296;
1170.9000;0.5185;-5.7374;
1171.2000;0.5161;-5.7399;
1171.5000;0.5104;-5.7555;
1171.8000;0.5193;-5.7374;
1172.1000;0.5210;-5.7322;
1172.4000;0.5169;-5.7399;
1172.7000;0.5201;-5.7348;
1173.0000;0.5169;-5.7348;
1173.3000;0.5177;-5.7374;
1173.6000;0.5193;-5.7296;
1173.9000;0.5169;-5.7296;
1174.2000;0.5161;-5.7348;
1174.5000;0.5177;-5.7425;
1174.8000;0.5185;-5.7425;
1175.1000;0.5153;-5.7451;
1175.4000;0.5161;-5.7425;
1175.7000;0.5226;-5.7348;
1176.0000;0.5161;-5.7477;
1176.3000;0.5161;-5.7399;
1176.6000;0.5169;-5.7348;
1176.9000;0.5169;-5.7348;
1177.2000;0.5201;-5.7322;
1177.5000;0.5185;-5.7425;
1177.8000;0.5169;-5.7477;
1178.1000;0.5177;-5.7425;
1178.4000;0.5169;-5.7451;
1178.7000;0.5161;-5.7503;
1179.0000;0.5153;-5.7555;
1179.3000;0.5169;-5.7451;
1179.6000;0.5201;-5.7399;
1179.9000;0.5169;-5.7555;
1180.2000;0.5161;-5.7684;
1180.5000;0.5161;-5.7607;
1180.8000;0.5161;-5.7633;
1181.1000;0.5177;-5.7581;
1181.4000;0.5177;-5.7555;
1181.7000;0.5153;-5.7581;
1182.0000;0.5177;-5.7451;
1182.3000;0.5185;-5.7477;
1182.6000;0.5177;-5.7399;
1182.9000;0.5169;-5.7374;
1183.2000;0.5161;-5.7425;
1183.5000;0.5169;-5.7348;
1183.8000;0.5161;-5.7348;
1184.1000;0.5185;-5.7348;
1184.4000;0.5177;-5.7451;
1184.7000;0.5153;-5.7503;
1185.0000;0.5153;-5.7425;
1185.3000;0.5161;-5.7425;
1185.6000;0.5177;-5.7451;
1185.9000;0.5169;-5.7477;
1186.2000;0.5169;-5.7477;
1186.5000;0.5185;-5.7581;
1186.8000;0.5161;-5.7607;
1187.1000;0.5161;-5.7633;
1187.4000;0.5185;-5.7607;
1187.7000;0.5177;-5.7581;
1188.0000;0.5161;-5.7581;
1188.3000;0.5177;-5.7477;
1188.6000;0.5177;-5.7503;
1188.9000;0.5169;-5.7503;
1189.2000;0.5153;-5.7529;
1189.5000;0.5169;-5.7581;
1189.8000;0.5185;-5.7477;
1190.1000;0.5161;-5.7529;
1190.4000;0.5185;-5.7399;
1190.7000;0.5153;-5.7425;
1191.0000;0.5169;-5.7399;
1191.3000;0.5161;-5.7348;
1191.6000;0.5169;-5.7374;
1191.9000;0.5169;-5.7425;
1192.2000;0.5185;-5.7399;
1192.5000;0.5169;-5.7451;
1192.8000;0.5169;-5.7399;
1193.1000;0.5161;-5.7399;
1193.4000;0.5169;-5.7348;
1193.7000;0.5185;-5.7348;
1194.0000;0.5169;-5.7322;
1194.3000;0.5161;-5.7322;
1194.6000;0.5169;-5.7244;
1194.9000;0.5177;-5.7296;
1195.2000;0.5153;-5.7348;
1195.5000;0.5128;-5.7503;
1195.8000;0.5177;-5.7425;
1196.1000;0.5161;-5.7425;
1196.4000;0.5161;-5.7529;
1196.7000;0.5193;-5.7477;
1197.0000;0.5169;-5.7555;
1197.3000;0.5177;-5.7658;
1197.6000;0.5177;-5.7762;
1197.9000;0.5177;-5.7710;
1198.2000;0.5177;-5.7658;
1198.5000;0.5177;-5.7607;
1198.8000;0.5210;-5.7451;
1199.1000;0.5169;-5.7555;
1199.4000;0.5169;-5.7607;
1199.7000;0.5201;-5.7555;
1200.0000;0.5169;-5.7633;
1200.3000;0.5144;-5.7710;
1200.6000;0.5120;-5.7710;
1200.9000;0.5112;-5.7684;
1201.2000;0.5104;-5.7607;
1201.5000;0.5088;-5.7555;
1201.8000;0.5112;-5.7503;
1202.1000;0.5071;-5.7529;
1202.4000;0.5039;-5.7555;
1202.7000;0.5055;-5.7503;
1203.0000;0.5063;-5.7451;
1203.3000;0.5071;-5.7503;
1203.6000;0.5039;-5.7658;
1203.9000;0.5063;-5.7555;
1204.2000;0.4998;-5.7710;
1204.5000;0.5047;-5.7633;
1204.8000;0.4998;-5.7814;
1205.1000;0.5071;-5.7607;
1205.4000;0.5047;-5.7633;
1205.7000;0.5055;-5.7581;
1206.0000;0.5047;-5.7633;
1206.3000;0.5055;-5.7710;
1206.6000;0.5055;-5.7684;
1206.9000;0.5063;-5.7684;
1207.2000;0.5014;-5.7684;
1207.5000;0.5063;-5.7555;
1207.8000;0.5055;-5.7529;
1208.1000;0.5039;-5.7477;
1208.4000;0.5055;-5.7503;
1208.7000;0.5047;-5.7581;
1209.0000;0.5063;-5.7555;
1209.3000;0.5063;-5.7581;
1209.6000;0.5055;-5.7581;
1209.9000;0.5047;-5.7607;
1210.2000;0.5014;-5.7658;
1210.5000;0.5063;-5.7529;
1210.8000;0.5055;-5.7477;
1211.1000;0.5039;-5.7607;
1211.4000;0.5022;-5.7684;
1211.7000;0.5055;-5.7581;
1212.0000;0.5039;-5.7684;
1212.3000;0.5039;-5.7581;
1212.6000;0.5063;-5.7529;
1212.9000;0.5055;-5.7607;
1213.2000;0.5047;-5.7684;
1213.5000;0.5063;-5.7710;
1213.8000;0.5063;-5.7658;
1214.1000;0.5055;-5.7607;
1214.4000;0.5063;-5.7529;
1214.7000;0.5039;-5.7529;
1215.0000;0.5063;-5.7477;
1215.3000;0.5039;-5.7529;
1215.6000;0.5031;-5.7503;
1215.9000;0.5039;-5.7451;
1216.2000;0.5055;-5.7399;
1216.5000;0.5014;-5.7451;
1216.8000;0.5063;-5.7374;
1217.1000;0.4998;-5.7607;
1217.4000;0.5039;-5.7503;
1217.7000;0.5063;-5.7348;
1218.0000;0.5047;-5.7399;
1218.3000;0.5063;-5.7374;
1218.6000;0.5047;-5.7477;
1218.9000;0.5055;-5.7607;
1219.2000;0.5063;-5.7607;
1219.5000;0.5031;-5.7684;
1219.8000;0.5047;-5.7658;
1220.1000;0.5055;-5.7658;
1220.4000;0.5047;-5.7736;
1220.7000;0.5071;-5.7684;
1221.0000;0.5055;-5.7658;
1221.3000;0.5104;-5.7555;
1221.6000;0.5112;-5.7529;
1221.9000;0.5071;-5.7658;
1222.2000;0.5063;-5.7658;
1222.5000;0.5055;-5.7633;
1222.8000;0.5055;-5.7607;
1223.1000;0.5039;-5.7762;
1223.4000;0.5055;-5.7658;
1223.7000;0.5063;-5.7710;
1224.0000;0.5047;-5.7710;
1224.3000;0.5063;-5.7658;
1224.6000;0.5055;-5.7710;
1224.9000;0.5055;-5.7736;
1225.2000;0.5071;-5.7710;
1225.5000;0.5088;-5.7633;
1225.8000;0.5031;-5.7788;
1226.1000;0.5031;-5.7814;
1226.4000;0.5071;-5.7814;
1226.7000;0.5071;-5.7814;
1227.0000;0.5055;-5.7814;
1227.3000;0.5047;-5.7814;
1227.6000;0.5006;-5.7943;
1227.9000;0.5063;-5.7710;
1228.2000;0.5055;-5.7736;
1228.5000;0.5063;-5.7710;
1228.8000;0.5063;-5.7736;
1229.1000;0.5055;-5.7736;
1229.4000;0.5071;-5.7736;
1229.7000;0.5047;-5.7762;
1230.0000;0.5047;-5.7788;
1230.3000;0.5055;-5.7788;
1230.6000;0.5136;-5.7581;
1230.9000;0.5128;-5.7684;
1231.2000;0.5055;-5.7814;
1231.5000;0.5055;-5.7684;
1231.8000;0.5039;-5.7762;
1232.1000;0.5079;-5.7658;
1232.4000;0.5063;-5.7788;
1232.7000;0.5039;-5.7840;
1233.0000;0.5088;-5.7607;
1233.3000;0.5063;-5.7658;
1233.6000;0.5055;-5.7633;
1233.9000;0.5055;-5.7658;
1234.2000;0.5055;-5.7736;
1234.5000;0.5055;-5.7710;
1234.8000;0.5055;-5.7633;
1235.1000;0.5039;-5.7684;
1235.4000;0.5063;-5.7658;
1235.7000;0.5055;-5.7633;
1236.0000;0.5063;-5.7581;
1236.3000;0.5055;-5.7581;
1236.6000;0.5055;-5.7503;
1236.9000;0.5071;-5.7477;
1237.2000;0.5039;-5.7529;
1237.5000;0.5047;-5.7555;
1237.8000;0.5047;-5.7529;
1238.1000;0.5071;-5.7451;
1238.4000;0.5079;-5.7399;
1238.7000;0.5063;-5.7555;
1239.0000;0.5055;-5.7658;
1239.3000;0.5063;-5.7684;
1239.6000;0.5063;-5.7581;
1239.9000;0.5071;-5.7451;
1240.2000;0.5055;-5.7607;
1240.5000;0.5055;-5.7581;
1240.8000;0.5047;-5.7555;
1241.1000;0.4998;-5.7762;
1241.4000;0.5079;-5.7581;
1241.7000;0.5055;-5.7607;
1242.0000;0.5039;-5.7658;
1242.3000;0.5055;-5.7633;
1242.6000;0.5055;-5.7633;
1242.9000;0.5063;-5.7581;
1243.2000;0.5047;-5.7633;
1243.5000;0.5047;-5.7633;
1243.8000;0.5047;-5.7503;
1244.1000;0.5039;-5.7555;
1244.4000;0.5055;-5.7529;
1244.7000;0.5079;-5.7529;
1245.0000;0.5096;-5.7529;
1245.3000;0.5055;-5.7555;
1245.6000;0.5063;-5.7529;
1245.9000;0.5071;-5.7425;
1246.2000;0.5055;-5.7555;
1246.5000;0.5063;-5.7503;
1246.8000;0.5031;-5.7658;
1247.1000;0.5014;-5.7788;
1247.4000;0.5063;-5.7581;
1247.7000;0.5063;-5.7581;
1248.0000;0.4990;-5.7762;
1248.3000;0.5063;-5.7581;
1248.6000;0.5088;-5.7555;
1248.9000;0.5063;-5.7607;
1249.2000;0.5185;-5.7322;
1249.5000;0.5047;-5.7684;
1249.8000;0.5071;-5.7633;
1250.1000;0.5088;-5.7607;
1250.4000;0.5031;-5.7658;
1250.7000;0.5014;-5.7633;
1251.0000;0.5047;-5.7581;
1251.3000;0.5047;-5.7503;
1251.6000;0.5014;-5.7477;
1251.9000;0.5014;-5.7555;
1252.2000;0.4998;-5.7581;
1252.5000;0.4998;-5.7581;
1252.8000;0.5022;-5.7529;
1253.1000;0.5031;-5.7503;
1253.4000;0.5055;-5.7503;
1253.7000;0.5014;-5.7555;
1254.0000;0.5047;-5.7503;
1254.3000;0.4990;-5.7581;
1254.6000;0.4998;-5.7555;
1254.9000;0.5006;-5.7555;
1255.2000;0.5022;-5.7477;
1255.5000;0.5014;-5.7477;
1255.8000;0.5014;-5.7581;
1256.1000;0.4965;-5.7710;
1256.4000;0.5006;-5.7581;
1256.7000;0.4998;-5.7658;
1257.0000;0.4998;-5.7658;
1257.3000;0.5014;-5.7633;
1257.6000;0.5006;-5.7581;
1257.9000;0.4998;-5.7633;
1258.2000;0.4998;-5.7658;
1258.5000;0.5014;-5.7684;
1258.8000;0.5006;-5.7736;
1259.1000;0.5031;-5.7607;
1259.4000;0.5014;-5.7477;
1259.7000;0.4998;-5.7477;
1260.0000;0.5014;-5.7451;
1260.3000;0.5006;-5.7555;
1260.6000;0.5006;-5.7529;
1260.9000;0.4998;-5.7581;
1261.2000;0.5047;-5.7451;
1261.5000;0.5014;-5.7477;
1261.8000;0.5014;-5.7477;
1262.1000;0.5006;-5.7503;
1262.4000;0.5039;-5.7503;
1262.7000;0.5006;-5.7684;
1263.0000;0.5006;-5.7736;
1263.3000;0.5006;-5.7840;
1263.6000;0.5022;-5.7788;
1263.9000;0.5006;-5.7866;
1264.2000;0.5022;-5.7840;
1264.5000;0.5022;-5.7840;
1264.8000;0.5022;-5.7840;
1265.1000;0.5022;-5.7762;
1265.4000;0.5006;-5.7762;
1265.7000;0.4998;-5.7762;
1266.0000;0.5006;-5.7814;
1266.3000;0.5022;-5.7736;
1266.6000;0.5055;-5.7607;
1266.9000;0.5014;-5.7633;
1267.2000;0.5022;-5.7555;
1267.5000;0.5014;-5.7633;
1267.8000;0.5022;-5.7581;
1268.1000;0.5006;-5.7633;
1268.4000;0.5014;-5.7658;
1268.7000;0.4965;-5.7788;
1269.0000;0.5031;-5.7581;
1269.3000;0.5006;-5.7607;
1269.6000;0.5006;-5.7633;
1269.9000;0.5022;-5.7607;
1270.2000;0.5022;-5.7658;
1270.5000;0.5014;-5.7736;
1270.8000;0.5014;-5.7788;
1271.1000;0.4990;-5.7866;
1271.4000;0.4990;-5.7840;
1271.7000;0.5022;-5.7762;
1272.0000;0.5006;-5.7710;
1272.3000;0.5014;-5.7710;
1272.6000;0.4998;-5.7658;
1272.9000;0.5014;-5.7607;
1273.2000;0.5039;-5.7607;
1273.5000;0.5014;-5.7633;
1273.8000;0.5031;-5.7529;
1274.1000;0.5014;-5.7503;
1274.4000;0.4998;-5.7607;
1274.7000;0.5014;-5.7607;
1275.0000;0.5014;-5.7607;
1275.3000;0.5014;-5.7633;
1275.6000;0.5014;-5.7581;
1275.9000;0.5006;-5.7607;
1276.2000;0.4998;-5.7633;
1276.5000;0.5006;-5.7581;
1276.8000;0.5022;-5.7555;
1277.1000;0.5022;-5.7529;
1277.4000;0.4998;-5.7633;
1277.7000;0.5006;-5.7581;
1278.0000;0.5006;-5.7684;
1278.3000;0.5031;-5.7633;
1278.6000;0.4990;-5.7710;
1278.9000;0.5006;-5.7736;
1279.2000;0.5006;-5.7658;
1279.5000;0.5006;-5.7710;
1279.8000;0.5022;-5.7710;
1280.1000;0.5014;-5.7736;
1280.4000;0.5006;-5.7736;
1280.7000;0.5022;-5.7736;
1281.0000;0.5014;-5.7762;
1281.3000;0.5022;-5.7710;
1281.6000;0.5006;-5.7710;
1281.9000;0.5031;-5.7658;
1282.2000;0.5006;-5.7633;
1282.5000;0.5031;-5.7684;
1282.8000;0.5014;-5.7658;
1283.1000;0.5006;-5.7633;
1283.4000;0.4998;-5.7581;
1283.7000;0.4998;-5.7503;
1284.0000;0.5063;-5.7425;
1284.3000;0.5047;-5.7503;
1284.6000;0.5022;-5.7529;
1284.9000;0.5014;-5.7555;
1285.2000;0.5022;-5.7581;
1285.5000;0.5014;-5.7607;
1285.8000;0.5031;-5.7607;
1286.1000;0.5031;-5.7607;
1286.4000;0.5031;-5.7658;
1286.7000;0.5022;-5.7684;
1287.0000;0.5022;-5.7736;
1287.3000;0.4982;-5.7814;
1287.6000;0.5031;-5.7658;
1287.9000;0.5014;-5.7684;
1288.2000;0.5022;-5.7581;
1288.5000;0.4982;-5.7658;
1288.8000;0.5022;-5.7581;
1289.1000;0.5014;-5.7607;
1289.4000;0.4998;-5.7555;
1289.7000;0.5022;-5.7503;
1290.0000;0.5022;-5.7529;
1290.3000;0.4965;-5.7633;
1290.6000;0.5022;-5.7425;
1290.9000;0.5014;-5.7477;
1291.2000;0.5031;-5.7581;
1291.5000;0.5022;-5.7581;
1291.8000;0.4998;-5.7658;
1292.1000;0.5014;-5.7658;
1292.4000;0.5047;-5.7581;
1292.7000;0.5006;-5.7633;
1293.0000;0.5006;-5.7658;
1293.3000;0.5006;-5.7581;
1293.6000;0.5031;-5.7607;
1293.9000;0.5006;-5.7633;
1294.2000;0.5006;-5.7581;
1294.5000;0.5031;-5.7607;
1294.8000;0.5014;-5.7658;
1295.1000;0.5014;-5.7633;
1295.4000;0.5006;-5.7684;
1295.7000;0.5006;-5.7658;
1296.0000;0.5022;-5.7529;
1296.3000;0.5014;-5.7425;
1296.6000;0.5014;-5.7348;
1296.9000;0.5022;-5.7270;
1297.2000;0.5022;-5.7322;
1297.5000;0.5014;-5.7374;
1297.8000;0.5006;-5.7399;
1298.1000;0.5006;-5.7529;
1298.4000;0.4998;-5.7581;
1298.7000;0.5014;-5.7581;
1299.0000;0.5006;-5.7607;
1299.3000;0.4982;-5.7788;
1299.6000;0.5022;-5.7762;
1299.9000;0.5022;-5.7762;
1300.2000;0.5022;-5.7710;
1300.5000;0.4990;-5.7710;
1300.8000;0.4982;-5.7607;
1301.1000;0.4965;-5.7529;
1301.4000;0.4957;-5.7555;
1301.7000;0.4941;-5.7529;
1302.0000;0.4957;-5.7529;
1302.3000;0.4925;-5.7555;
1302.6000;0.4949;-5.7503;
1302.9000;0.4925;-5.7529;
1303.2000;0.4917;-5.7633;
1303.5000;0.4949;-5.7607;
1303.8000;0.4941;-5.7710;
1304.1000;0.4941;-5.7684;
1304.4000;0.4917;-5.7684;
1304.7000;0.4925;-5.7607;
1305.0000;0.4884;-5.7736;
1305.3000;0.4925;-5.7607;
1305.6000;0.4957;-5.7503;
1305.9000;0.4949;-5.7555;
1306.2000;0.4941;-5.7581;
1306.5000;0.4925;-5.7581;
1306.8000;0.4925;-5.7607;
1307.1000;0.4925;-5.7633;
1307.4000;0.4957;-5.7555;
1307.7000;0.4925;-5.7529;
1308.0000;0.4949;-5.7503;
1308.3000;0.4933;-5.7581;
1308.6000;0.4925;-5.7581;
1308.9000;0.4925;-5.7684;
1309.2000;0.4908;-5.7762;
1309.5000;0.4925;-5.7762;
1309.8000;0.4933;-5.7814;
1310.1000;0.4892;-5.7866;
1310.4000;0.4917;-5.7633;
1310.7000;0.4941;-5.7555;
1311.0000;0.4925;-5.7581;
1311.3000;0.4941;-5.7658;
1311.6000;0.4933;-5.7762;
1311.9000;0.4933;-5.7814;
1312.2000;0.4925;-5.7814;
1312.5000;0.4925;-5.7814;
1312.8000;0.4933;-5.7710;
1313.1000;0.4933;-5.7633;
1313.4000;0.4908;-5.7736;
1313.7000;0.4925;-5.7658;
1314.0000;0.4933;-5.7710;
1314.3000;0.4917;-5.7710;
1314.6000;0.4917;-5.7633;
1314.9000;0.4917;-5.7658;
1315.2000;0.4974;-5.7477;
1315.5000;0.4925;-5.7633;
1315.8000;0.4811;-5.7866;
1316.1000;0.4933;-5.7529;
1316.4000;0.4957;-5.7477;
1316.7000;0.4941;-5.7529;
1317.0000;0.4876;-5.7633;
1317.3000;0.4917;-5.7555;
1317.6000;0.4933;-5.7555;
1317.9000;0.4941;-5.7581;
1318.2000;0.4908;-5.7684;
1318.5000;0.4925;-5.7710;
1318.8000;0.4925;-5.7658;
1319.1000;0.4925;-5.7736;
1319.4000;0.4925;-5.7684;
1319.7000;0.4917;-5.7633;
1320.0000;0.4843;-5.7684;
1320.3000;0.4941;-5.7425;
1320.6000;0.4917;-5.7529;
1320.9000;0.4949;-5.7555;
1321.2000;0.4925;-5.7633;
1321.5000;0.4941;-5.7607;
1321.8000;0.4933;-5.7581;
1322.1000;0.4941;-5.7607;
1322.4000;0.4941;-5.7633;
1322.7000;0.4941;-5.7684;
1323.0000;0.4900;-5.7762;
1323.3000;0.4917;-5.7736;
1323.6000;0.4925;-5.7762;
1323.9000;0.4941;-5.7788;
1324.2000;0.4933;-5.7736;
1324.5000;0.4917;-5.7736;
1324.8000;0.4925;-5.7633;
1325.1000;0.4933;-5.7555;
1325.4000;0.4941;-5.7477;
1325.7000;0.4925;-5.7529;
1326.0000;0.4925;-5.7633;
1326.3000;0.4925;-5.7710;
1326.6000;0.4933;-5.7607;
1326.9000;0.4941;-5.7607;
1327.2000;0.4925;-5.7658;
1327.5000;0.4925;-5.7607;
1327.8000;0.4925;-5.7684;
1328.1000;0.4941;-5.7581;
1328.4000;0.4892;-5.7633;
1328.7000;0.4900;-5.7684;
1329.0000;0.4965;-5.7581;
1329.3000;0.4917;-5.7658;
1329.6000;0.4908;-5.7633;
1329.9000;0.4908;-5.7607;
1330.2000;0.4917;-5.7633;
1330.5000;0.4933;-5.7581;
1330.8000;0.4933;-5.7529;
1331.1000;0.4933;-5.7503;
1331.4000;0.4908;-5.7581;
1331.7000;0.4925;-5.7503;
1332.0000;0.4941;-5.7555;
1332.3000;0.4908;-5.7555;
1332.6000;0.4917;-5.7555;
1332.9000;0.4933;-5.7581;
1333.2000;0.4941;-5.7607;
1333.5000;0.4933;-5.7555;
1333.8000;0.4917;-5.7684;
1334.1000;0.4965;-5.7503;
1334.4000;0.4933;-5.7581;
1334.7000;0.4941;-5.7529;
1335.0000;0.4884;-5.7633;
1335.3000;0.4933;-5.7529;
1335.6000;0.4957;-5.7451;
1335.9000;0.4933;-5.7555;
1336.2000;0.4933;-5.7607;
1336.5000;0.4957;-5.7607;
1336.8000;0.4965;-5.7555;
1337.1000;0.4933;-5.7607;
1337.4000;0.4900;-5.7633;
1337.7000;0.4925;-5.7581;
1338.0000;0.4933;-5.7581;
1338.3000;0.4957;-5.7529;
1338.6000;0.4900;-5.7710;
1338.9000;0.4925;-5.7581;
1339.2000;0.4933;-5.7555;
1339.5000;0.4917;-5.7633;
1339.8000;0.4933;-5.7581;
1340.1000;0.4933;-5.7581;
1340.4000;0.4925;-5.7581;
1340.7000;0.4892;-5.7710;
1341.0000;0.4933;-5.7710;
1341.3000;0.4933;-5.7633;
1341.6000;0.4917;-5.7710;
1341.9000;0.4933;-5.7710;
1342.2000;0.4884;-5.7736;
1342.5000;0.4933;-5.7633;
1342.8000;0.4933;-5.7607;
1343.1000;0.4933;-5.7581;
1343.4000;0.4949;-5.7503;
1343.7000;0.4941;-5.7529;
1344.0000;0.4917;-5.7581;
1344.3000;0.4941;-5.7529;
1344.6000;0.4933;-5.7477;
1344.9000;0.4933;-5.7529;
1345.2000;0.4917;-5.7581;
1345.5000;0.4933;-5.7529;
1345.8000;0.4925;-5.7503;
1346.1000;0.4917;-5.7529;
1346.4000;0.4933;-5.7529;
1346.7000;0.4933;-5.7555;
1347.0000;0.4892;-5.7684;
1347.3000;0.4941;-5.7555;
1347.6000;0.4876;-5.7736;
1347.9000;0.4868;-5.7710;
1348.2000;0.4941;-5.7555;
1348.5000;0.4949;-5.7529;
1348.8000;0.4908;-5.7607;
1349.1000;0.4892;-5.7607;
1349.4000;0.4949;-5.7555;
1349.7000;0.4941;-5.7555;
1350.0000;0.4925;-5.7529;
1350.3000;0.4900;-5.7555;
1350.6000;0.4892;-5.7529;
1350.9000;0.4868;-5.7684;
1351.2000;0.4892;-5.7581;
1351.5000;0.4884;-5.7633;
1351.8000;0.4884;-5.7503;
1352.1000;0.4892;-5.7503;
1352.4000;0.4884;-5.7555;
1352.7000;0.4868;-5.7529;
1353.0000;0.4884;-5.7529;
1353.3000;0.4884;-5.7581;
1353.6000;0.4892;-5.7581;
1353.9000;0.4868;-5.7503;
1354.2000;0.4851;-5.7581;
1354.5000;0.4876;-5.7529;
1354.8000;0.4884;-5.7529;
1355.1000;0.4884;-5.7425;
1355.4000;0.4851;-5.7555;
1355.7000;0.4868;-5.7529;
1356.0000;0.4884;-5.7503;
1356.3000;0.4892;-5.7529;
1356.6000;0.4884;-5.7555;
1356.9000;0.4868;-5.7503;
1357.2000;0.4876;-5.7555;
1357.5000;0.4917;-5.7477;
1357.8000;0.4868;-5.7503;
1358.1000;0.4851;-5.7633;
1358.4000;0.4884;-5.7529;
1358.7000;0.4868;-5.7581;
1359.0000;0.4908;-5.7477;
1359.3000;0.4868;-5.7529;
1359.6000;0.4851;-5.7555;
1359.9000;0.4868;-5.7581;
1360.2000;0.4876;-5.7607;
1360.5000;0.4876;-5.7555;
1360.8000;0.4900;-5.7503;
1361.1000;0.4876;-5.7581;
1361.4000;0.4843;-5.7633;
1361.7000;0.4868;-5.7581;
1362.0000;0.4851;-5.7684;
1362.3000;0.4851;-5.7607;
1362.6000;0.4876;-5.7529;
1362.9000;0.4868;-5.7555;
1363.2000;0.4860;-5.7607;
1363.5000;0.4876;-5.7529;
1363.8000;0.4876;-5.7529;
1364.1000;0.4868;-5.7633;
1364.4000;0.4868;-5.7633;
1364.7000;0.4868;-5.7581;
1365.0000;0.4819;-5.7762;
1365.3000;0.4868;-5.7658;
1365.6000;0.4876;-5.7633;
1365.9000;0.4851;-5.7710;
1366.2000;0.4860;-5.7581;
1366.5000;0.4884;-5.7633;
1366.8000;0.4868;-5.7710;
1367.1000;0.4868;-5.7736;
1367.4000;0.4876;-5.7736;
1367.7000;0.4876;-5.7762;
1368.0000;0.4843;-5.7866;
1368.3000;0.4851;-5.7814;
1368.6000;0.4868;-5.7736;
1368.9000;0.4892;-5.7736;
1369.2000;0.4876;-5.7762;
1369.5000;0.4876;-5.7788;
1369.8000;0.4876;-5.7762;
1370.1000;0.4876;-5.7684;
1370.4000;0.4876;-5.7658;
1370.7000;0.4851;-5.7607;
1371.0000;0.4917;-5.7399;
1371.3000;0.4884;-5.7555;
1371.6000;0.4868;-5.7607;
1371.9000;0.4819;-5.7762;
1372.2000;0.4860;-5.7607;
1372.5000;0.4860;-5.7633;
1372.8000;0.4884;-5.7581;
1373.1000;0.4860;-5.7684;
1373.4000;0.4843;-5.7736;
1373.7000;0.4876;-5.7633;
1374.0000;0.4892;-5.7607;
1374.3000;0.4884;-5.7503;
1374.6000;0.4884;-5.7581;
1374.9000;0.4876;-5.7529;
1375.2000;0.4876;-5.7529;
1375.5000;0.4860;-5.7555;
1375.8000;0.4868;-5.7581;
1376.1000;0.4860;-5.7710;
1376.4000;0.4835;-5.7814;
1376.7000;0.4868;-5.7788;
1377.0000;0.4868;-5.7866;
1377.3000;0.4843;-5.7840;
1377.6000;0.4925;-5.7762;
1377.9000;0.4876;-5.7788;
1378.2000;0.4876;-5.7658;
1378.5000;0.4925;-5.7477;
1378.8000;0.4876;-5.7581;
1379.1000;0.4876;-5.7581;
1379.4000;0.4908;-5.7529;
1379.7000;0.4868;-5.7555;
1380.0000;0.4868;-5.7529;
1380.3000;0.4868;-5.7399;
1380.6000;0.4876;-5.7555;
1380.9000;0.4876;-5.7633;
1381.2000;0.4851;-5.7658;
1381.5000;0.4884;-5.7581;
1381.8000;0.4884;-5.7581;
1382.1000;0.4868;-5.7581;
1382.4000;0.4876;-5.7529;
1382.7000;0.4860;-5.7581;
1383.0000;0.4876;-5.7581;
1383.3000;0.4868;-5.7529;
1383.6000;0.4884;-5.7503;
1383.9000;0.4884;-5.7477;
1384.2000;0.4876;-5.7477;
1384.5000;0.4884;-5.7374;
1384.8000;0.4876;-5.7399;
1385.1000;0.4868;-5.7322;
1385.4000;0.4876;-5.7322;
1385.7000;0.4876;-5.7348;
1386.0000;0.4868;-5.7374;
1386.3000;0.4868;-5.7425;
1386.6000;0.4876;-5.7399;
1386.9000;0.4876;-5.7451;
1387.2000;0.4868;-5.7399;
1387.5000;0.4876;-5.7374;
1387.8000;0.4860;-5.7425;
1388.1000;0.4892;-5.7322;
1388.4000;0.4876;-5.7348;
1388.7000;0.4876;-5.7374;
1389.0000;0.4876;-5.7374;
1389.3000;0.4884;-5.7348;
1389.6000;0.4884;-5.7348;
1389.9000;0.4843;-5.7348;
1390.2000;0.4884;-5.7270;
1390.5000;0.4908;-5.7270;
1390.8000;0.4884;-5.7322;
1391.1000;0.4868;-5.7399;
1391.4000;0.4860;-5.7529;
1391.7000;0.4876;-5.7477;
1392.0000;0.4876;-5.7529;
1392.3000;0.4860;-5.7581;
1392.6000;0.4876;-5.7477;
1392.9000;0.4876;-5.7451;
1393.2000;0.4884;-5.7425;
1393.5000;0.4884;-5.7477;
1393.8000;0.4876;-5.7529;
1394.1000;0.4876;-5.7529;
1394.4000;0.4892;-5.7529;
1394.7000;0.4884;-5.7581;
1395.0000;0.4876;-5.7555;
1395.3000;0.4868;-5.7658;
1395.6000;0.4876;-5.7658;
1395.9000;0.4892;-5.7555;
1396.2000;0.4876;-5.7581;
1396.5000;0.4876;-5.7555;
1396.8000;0.4860;-5.7529;
1397.1000;0.4868;-5.7503;
1397.4000;0.4868;-5.7503;
1397.7000;0.4876;-5.7503;
1398.0000;0.4876;-5.7607;
1398.3000;0.4884;-5.7658;
1398.6000;0.4876;-5.7607;
1398.9000;0.4876;-5.7555;
1399.2000;0.4876;-5.7555;
1399.5000;0.4900;-5.7555;
1399.8000;0.4892;-5.7581;
