time/ms;Fluo/V;P700 deltaI/I x10³;
-199.8000;0.7831;-5.4809;
-199.5000;0.7847;-5.4757;
-199.2000;0.7839;-5.4835;
-198.9000;0.7855;-5.4732;
-198.6000;0.7839;-5.4783;
-198.3000;0.7814;-5.4809;
-198.0000;0.7839;-5.4861;
-197.7000;0.7823;-5.4887;
-197.4000;0.7847;-5.4835;
-197.1000;0.7839;-5.4913;
-196.8000;0.7823;-5.4835;
-196.5000;0.7814;-5.4835;
-196.2000;0.7831;-5.4680;
-195.9000;0.7839;-5.4706;
-195.6000;0.7831;-5.4732;
-195.3000;0.7823;-5.4835;
-195.0000;0.7847;-5.4809;
-194.7000;0.7814;-5.4887;
-194.4000;0.7831;-5.4809;
-194.1000;0.7823;-5.4861;
-193.8000;0.7863;-5.4861;
-193.5000;0.7814;-5.5016;
-193.2000;0.7823;-5.5042;
-192.9000;0.7831;-5.4965;
-192.6000;0.7839;-5.4939;
-192.3000;0.7823;-5.4991;
-192.0000;0.7766;-5.5016;
-191.7000;0.7814;-5.4939;
-191.4000;0.7831;-5.4991;
-191.1000;0.7831;-5.4965;
-190.8000;0.7814;-5.5016;
-190.5000;0.7839;-5.4939;
-190.2000;0.7871;-5.4913;
-189.9000;0.7855;-5.4965;
-189.6000;0.7831;-5.4991;
-189.3000;0.7847;-5.4835;
-189.0000;0.7839;-5.4861;
-188.7000;0.7839;-5.4939;
-188.4000;0.7798;-5.4965;
-188.1000;0.7847;-5.4732;
-187.8000;0.7831;-5.4732;
-187.5000;0.7831;-5.4680;
-187.2000;0.7855;-5.4524;
-186.9000;0.7831;-5.4602;
-186.6000;0.7847;-5.4628;
-186.3000;0.7814;-5.4783;
-186.0000;0.7831;-5.4809;
-185.7000;0.7831;-5.4757;
-185.4000;0.7831;-5.4706;
-185.1000;0.7839;-5.4654;
-184.8000;0.7839;-5.4680;
-184.5000;0.7839;-5.4732;
-184.2000;0.7814;-5.4835;
-183.9000;0.7814;-5.4861;
-183.6000;0.7839;-5.4783;
-183.3000;0.7863;-5.4783;
-183.0000;0.7839;-5.4965;
-182.7000;0.7855;-5.4965;
-182.4000;0.7831;-5.5042;
-182.1000;0.7806;-5.5042;
-181.8000;0.7814;-5.5094;
-181.5000;0.7798;-5.5120;
-181.2000;0.7839;-5.5016;
-180.9000;0.7831;-5.5016;
-180.6000;0.7823;-5.5016;
-180.3000;0.7831;-5.4991;
-180.0000;0.7831;-5.4965;
-179.7000;0.7839;-5.4887;
-179.4000;0.7823;-5.4809;
-179.1000;0.7839;-5.4835;
-178.8000;0.7831;-5.4783;
-178.5000;0.7847;-5.4809;
-178.2000;0.7831;-5.4835;
-177.9000;0.7847;-5.4835;
-177.6000;0.7831;-5.4861;
-177.3000;0.7920;-5.4628;
-177.0000;0.7823;-5.4809;
-176.7000;0.7823;-5.4861;
-176.4000;0.7806;-5.4783;
-176.1000;0.7839;-5.4706;
-175.8000;0.7839;-5.4809;
-175.5000;0.7839;-5.4783;
-175.2000;0.7863;-5.4732;
-174.9000;0.7823;-5.4861;
-174.6000;0.7831;-5.4887;
-174.3000;0.7814;-5.4913;
-174.0000;0.7831;-5.4913;
-173.7000;0.7823;-5.4939;
-173.4000;0.7839;-5.4887;
-173.1000;0.7823;-5.4965;
-172.8000;0.7798;-5.4939;
-172.5000;0.7806;-5.4913;
-172.2000;0.7839;-5.4861;
-171.9000;0.7814;-5.4861;
-171.6000;0.7766;-5.5042;
-171.3000;0.7855;-5.4861;
-171.0000;0.7823;-5.4939;
-170.7000;0.7839;-5.4887;
-170.4000;0.7831;-5.4887;
-170.1000;0.7831;-5.4887;
-169.8000;0.7831;-5.4939;
-169.5000;0.7831;-5.4887;
-169.2000;0.7831;-5.4913;
-168.9000;0.7814;-5.4913;
-168.6000;0.7863;-5.4757;
-168.3000;0.7847;-5.4835;
-168.0000;0.7823;-5.4835;
-167.7000;0.7831;-5.4809;
-167.4000;0.7831;-5.4861;
-167.1000;0.7766;-5.5068;
-166.8000;0.7814;-5.4939;
-166.5000;0.7839;-5.4783;
-166.2000;0.7823;-5.4757;
-165.9000;0.7831;-5.4706;
-165.6000;0.7831;-5.4757;
-165.3000;0.7823;-5.4706;
-165.0000;0.7831;-5.4680;
-164.7000;0.7839;-5.4576;
-164.4000;0.7831;-5.4628;
-164.1000;0.7798;-5.4757;
-163.8000;0.7831;-5.4757;
-163.5000;0.7823;-5.4809;
-163.2000;0.7839;-5.4835;
-162.9000;0.7855;-5.4835;
-162.6000;0.7831;-5.4939;
-162.3000;0.7839;-5.4991;
-162.0000;0.7823;-5.5042;
-161.7000;0.7871;-5.4939;
-161.4000;0.7831;-5.4965;
-161.1000;0.7839;-5.4887;
-160.8000;0.7839;-5.4965;
-160.5000;0.7831;-5.4965;
-160.2000;0.7814;-5.5094;
-159.9000;0.7896;-5.4913;
-159.6000;0.7831;-5.5042;
-159.3000;0.7831;-5.4991;
-159.0000;0.7798;-5.5120;
-158.7000;0.7823;-5.4991;
-158.4000;0.7798;-5.5042;
-158.1000;0.7839;-5.5016;
-157.8000;0.7814;-5.5120;
-157.5000;0.7839;-5.5068;
-157.2000;0.7831;-5.5120;
-156.9000;0.7823;-5.5172;
-156.6000;0.7831;-5.5120;
-156.3000;0.7831;-5.5094;
-156.0000;0.7823;-5.5042;
-155.7000;0.7847;-5.4965;
-155.4000;0.7839;-5.4887;
-155.1000;0.7814;-5.4939;
-154.8000;0.7823;-5.4887;
-154.5000;0.7839;-5.4783;
-154.2000;0.7823;-5.4809;
-153.9000;0.7863;-5.4732;
-153.6000;0.7806;-5.4861;
-153.3000;0.7823;-5.4913;
-153.0000;0.7823;-5.4887;
-152.7000;0.7814;-5.4939;
-152.4000;0.7839;-5.4965;
-152.1000;0.7839;-5.4913;
-151.8000;0.7855;-5.4887;
-151.5000;0.7823;-5.4913;
-151.2000;0.7823;-5.4835;
-150.9000;0.7855;-5.4732;
-150.6000;0.7847;-5.4680;
-150.3000;0.7823;-5.4783;
-150.0000;0.7823;-5.4887;
-149.7000;0.7831;-5.4835;
-149.4000;0.7863;-5.4732;
-149.1000;0.7847;-5.4835;
-148.8000;0.7831;-5.4732;
-148.5000;0.7823;-5.4628;
-148.2000;0.7839;-5.4628;
-147.9000;0.7880;-5.4602;
-147.6000;0.7839;-5.4680;
-147.3000;0.7847;-5.4654;
-147.0000;0.7831;-5.4680;
-146.7000;0.7847;-5.4732;
-146.4000;0.7831;-5.4835;
-146.1000;0.7774;-5.4965;
-145.8000;0.7839;-5.4783;
-145.5000;0.7839;-5.4783;
-145.2000;0.7831;-5.4783;
-144.9000;0.7847;-5.4783;
-144.6000;0.7831;-5.4783;
-144.3000;0.7855;-5.4680;
-144.0000;0.7863;-5.4628;
-143.7000;0.7831;-5.4680;
-143.4000;0.7847;-5.4680;
-143.1000;0.7831;-5.4654;
-142.8000;0.7814;-5.4732;
-142.5000;0.7839;-5.4680;
-142.2000;0.7823;-5.4783;
-141.9000;0.7839;-5.4732;
-141.6000;0.7814;-5.4809;
-141.3000;0.7814;-5.4783;
-141.0000;0.7814;-5.4783;
-140.7000;0.7823;-5.4887;
-140.4000;0.7831;-5.4809;
-140.1000;0.7823;-5.4757;
-139.8000;0.7831;-5.4757;
-139.5000;0.7863;-5.4654;
-139.2000;0.7871;-5.4654;
-138.9000;0.7814;-5.4783;
-138.6000;0.7839;-5.4783;
-138.3000;0.7798;-5.4835;
-138.0000;0.7823;-5.4809;
-137.7000;0.7855;-5.4732;
-137.4000;0.7823;-5.4783;
-137.1000;0.7823;-5.4732;
-136.8000;0.7855;-5.4628;
-136.5000;0.7839;-5.4706;
-136.2000;0.7823;-5.4835;
-135.9000;0.7831;-5.4835;
-135.6000;0.7839;-5.4835;
-135.3000;0.7831;-5.4861;
-135.0000;0.7831;-5.4887;
-134.7000;0.7863;-5.4732;
-134.4000;0.7839;-5.4757;
-134.1000;0.7847;-5.4757;
-133.8000;0.7782;-5.4887;
-133.5000;0.7831;-5.4861;
-133.2000;0.7823;-5.4809;
-132.9000;0.7823;-5.4757;
-132.6000;0.7798;-5.4965;
-132.3000;0.7814;-5.4887;
-132.0000;0.7814;-5.4861;
-131.7000;0.7839;-5.4783;
-131.4000;0.7831;-5.4861;
-131.1000;0.7814;-5.4783;
-130.8000;0.7823;-5.4809;
-130.5000;0.7823;-5.4835;
-130.2000;0.7757;-5.5016;
-129.9000;0.7798;-5.4887;
-129.6000;0.7823;-5.4861;
-129.3000;0.7831;-5.4861;
-129.0000;0.7839;-5.4757;
-128.7000;0.7814;-5.4757;
-128.4000;0.7831;-5.4706;
-128.1000;0.7774;-5.4965;
-127.8000;0.7839;-5.4835;
-127.5000;0.7880;-5.4628;
-127.2000;0.7847;-5.4732;
-126.9000;0.7871;-5.4732;
-126.6000;0.7823;-5.4913;
-126.3000;0.7863;-5.4913;
-126.0000;0.7831;-5.4965;
-125.7000;0.7839;-5.4835;
-125.4000;0.7831;-5.4887;
-125.1000;0.7855;-5.4861;
-124.8000;0.7839;-5.4887;
-124.5000;0.7823;-5.4783;
-124.2000;0.7831;-5.4732;
-123.9000;0.7847;-5.4706;
-123.6000;0.7855;-5.4680;
-123.3000;0.7839;-5.4680;
-123.0000;0.7831;-5.4680;
-122.7000;0.7855;-5.4602;
-122.4000;0.7839;-5.4602;
-122.1000;0.7798;-5.4732;
-121.8000;0.7839;-5.4680;
-121.5000;0.7839;-5.4757;
-121.2000;0.7839;-5.4706;
-120.9000;0.7847;-5.4654;
-120.6000;0.7839;-5.4680;
-120.3000;0.7839;-5.4732;
-120.0000;0.7863;-5.4654;
-119.7000;0.7798;-5.4757;
-119.4000;0.7831;-5.4706;
-119.1000;0.7814;-5.4706;
-118.8000;0.7823;-5.4706;
-118.5000;0.7823;-5.4680;
-118.2000;0.7814;-5.4628;
-117.9000;0.7823;-5.4550;
-117.6000;0.7839;-5.4602;
-117.3000;0.7831;-5.4628;
-117.0000;0.7831;-5.4680;
-116.7000;0.7823;-5.4757;
-116.4000;0.7847;-5.4680;
-116.1000;0.7839;-5.4628;
-115.8000;0.7839;-5.4654;
-115.5000;0.7839;-5.4680;
-115.2000;0.7855;-5.4576;
-114.9000;0.7774;-5.4680;
-114.6000;0.7814;-5.4602;
-114.3000;0.7847;-5.4576;
-114.0000;0.7839;-5.4654;
-113.7000;0.7831;-5.4706;
-113.4000;0.7847;-5.4628;
-113.1000;0.7831;-5.4732;
-112.8000;0.7839;-5.4809;
-112.5000;0.7823;-5.4887;
-112.2000;0.7847;-5.4861;
-111.9000;0.7823;-5.4913;
-111.6000;0.7823;-5.4913;
-111.3000;0.7823;-5.4887;
-111.0000;0.7823;-5.4861;
-110.7000;0.7839;-5.4835;
-110.4000;0.7814;-5.4861;
-110.1000;0.7847;-5.4732;
-109.8000;0.7823;-5.4887;
-109.5000;0.7831;-5.4887;
-109.2000;0.7782;-5.4991;
-108.9000;0.7831;-5.4861;
-108.6000;0.7831;-5.4835;
-108.3000;0.7831;-5.4861;
-108.0000;0.7814;-5.4913;
-107.7000;0.7839;-5.4887;
-107.4000;0.7814;-5.4861;
-107.1000;0.7839;-5.4809;
-106.8000;0.7790;-5.4965;
-106.5000;0.7831;-5.4913;
-106.2000;0.7798;-5.5068;
-105.9000;0.7839;-5.4965;
-105.6000;0.7831;-5.4991;
-105.3000;0.7839;-5.4965;
-105.0000;0.7814;-5.4991;
-104.7000;0.7863;-5.4757;
-104.4000;0.7831;-5.4861;
-104.1000;0.7774;-5.5146;
-103.8000;0.7757;-5.5301;
-103.5000;0.7823;-5.5068;
-103.2000;0.7831;-5.5042;
-102.9000;0.7823;-5.5094;
-102.6000;0.7823;-5.5094;
-102.3000;0.7798;-5.5120;
-102.0000;0.7823;-5.5042;
-101.7000;0.7814;-5.5042;
-101.4000;0.7814;-5.5042;
-101.1000;0.7814;-5.4991;
-100.8000;0.7839;-5.4887;
-100.5000;0.7831;-5.4965;
-100.2000;0.7823;-5.4965;
-99.9000;0.7831;-5.4861;
-99.6000;0.7831;-5.4861;
-99.3000;0.7912;-5.4732;
-99.0000;0.7823;-5.4939;
-98.7000;0.7814;-5.5016;
-98.4000;0.7831;-5.4939;
-98.1000;0.7847;-5.4965;
-97.8000;0.7855;-5.4939;
-97.5000;0.7871;-5.4913;
-97.2000;0.7823;-5.4965;
-96.9000;0.7839;-5.4887;
-96.6000;0.7839;-5.4991;
-96.3000;0.7839;-5.5042;
-96.0000;0.7847;-5.4991;
-95.7000;0.7847;-5.4991;
-95.4000;0.7847;-5.5042;
-95.1000;0.7831;-5.4991;
-94.8000;0.7823;-5.5042;
-94.5000;0.7847;-5.4991;
-94.2000;0.7839;-5.5016;
-93.9000;0.7831;-5.5068;
-93.6000;0.7823;-5.5042;
-93.3000;0.7839;-5.5016;
-93.0000;0.7831;-5.5016;
-92.7000;0.7823;-5.5016;
-92.4000;0.7823;-5.5068;
-92.1000;0.7839;-5.4991;
-91.8000;0.7831;-5.4991;
-91.5000;0.7831;-5.4965;
-91.2000;0.7790;-5.5224;
-90.9000;0.7831;-5.5094;
-90.6000;0.7823;-5.5120;
-90.3000;0.7839;-5.4991;
-90.0000;0.7831;-5.4965;
-89.7000;0.7806;-5.5042;
-89.4000;0.7814;-5.5016;
-89.1000;0.7831;-5.5042;
-88.8000;0.7823;-5.5016;
-88.5000;0.7823;-5.5042;
-88.2000;0.7806;-5.5068;
-87.9000;0.7839;-5.4991;
-87.6000;0.7831;-5.4991;
-87.3000;0.7831;-5.4939;
-87.0000;0.7888;-5.4757;
-86.7000;0.7839;-5.4939;
-86.4000;0.7847;-5.4913;
-86.1000;0.7831;-5.4939;
-85.8000;0.7766;-5.5016;
-85.5000;0.7831;-5.4757;
-85.2000;0.7831;-5.4757;
-84.9000;0.7839;-5.4757;
-84.6000;0.7814;-5.4861;
-84.3000;0.7831;-5.4783;
-84.0000;0.7847;-5.4732;
-83.7000;0.7831;-5.4835;
-83.4000;0.7831;-5.4783;
-83.1000;0.7823;-5.4757;
-82.8000;0.7880;-5.4706;
-82.5000;0.7831;-5.4809;
-82.2000;0.7847;-5.4706;
-81.9000;0.7839;-5.4757;
-81.6000;0.7823;-5.4732;
-81.3000;0.7831;-5.4732;
-81.0000;0.7823;-5.4680;
-80.7000;0.7831;-5.4680;
-80.4000;0.7823;-5.4732;
-80.1000;0.7839;-5.4757;
-79.8000;0.7798;-5.4783;
-79.5000;0.7814;-5.4783;
-79.2000;0.7823;-5.4680;
-78.9000;0.7823;-5.4628;
-78.6000;0.7814;-5.4602;
-78.3000;0.7839;-5.4628;
-78.0000;0.7831;-5.4680;
-77.7000;0.7839;-5.4732;
-77.4000;0.7839;-5.4757;
-77.1000;0.7814;-5.4783;
-76.8000;0.7814;-5.4835;
-76.5000;0.7839;-5.4809;
-76.2000;0.7847;-5.4783;
-75.9000;0.7774;-5.4965;
-75.6000;0.7831;-5.4835;
-75.3000;0.7823;-5.4913;
-75.0000;0.7814;-5.5068;
-74.7000;0.7839;-5.4965;
-74.4000;0.7831;-5.4861;
-74.1000;0.7806;-5.4913;
-73.8000;0.7814;-5.4939;
-73.5000;0.7831;-5.4939;
-73.2000;0.7806;-5.5042;
-72.9000;0.7871;-5.4965;
-72.6000;0.7814;-5.5042;
-72.3000;0.7831;-5.4939;
-72.0000;0.7831;-5.4861;
-71.7000;0.7904;-5.4628;
-71.4000;0.7839;-5.4835;
-71.1000;0.7823;-5.4835;
-70.8000;0.7814;-5.4783;
-70.5000;0.7814;-5.4809;
-70.2000;0.7855;-5.4732;
-69.9000;0.7814;-5.4835;
-69.6000;0.7823;-5.4861;
-69.3000;0.7814;-5.4835;
-69.0000;0.7823;-5.4861;
-68.7000;0.7839;-5.4835;
-68.4000;0.7831;-5.4809;
-68.1000;0.7831;-5.4887;
-67.8000;0.7782;-5.5042;
-67.5000;0.7839;-5.4835;
-67.2000;0.7896;-5.4680;
-66.9000;0.7831;-5.4861;
-66.6000;0.7847;-5.4783;
-66.3000;0.7831;-5.4783;
-66.0000;0.7831;-5.4680;
-65.7000;0.7823;-5.4706;
-65.4000;0.7806;-5.4809;
-65.1000;0.7831;-5.4757;
-64.8000;0.7839;-5.4783;
-64.5000;0.7823;-5.4783;
-64.2000;0.7823;-5.4835;
-63.9000;0.7814;-5.4913;
-63.6000;0.7823;-5.4757;
-63.3000;0.7814;-5.4732;
-63.0000;0.7806;-5.4809;
-62.7000;0.7831;-5.4887;
-62.4000;0.7839;-5.4835;
-62.1000;0.7839;-5.4757;
-61.8000;0.7823;-5.4861;
-61.5000;0.7839;-5.4887;
-61.2000;0.7831;-5.4939;
-60.9000;0.7839;-5.4861;
-60.6000;0.7831;-5.4861;
-60.3000;0.7863;-5.4783;
-60.0000;0.7831;-5.4965;
-59.7000;0.7823;-5.4939;
-59.4000;0.7823;-5.4913;
-59.1000;0.7823;-5.4861;
-58.8000;0.7774;-5.5042;
-58.5000;0.7839;-5.4887;
-58.2000;0.7839;-5.4939;
-57.9000;0.7855;-5.4835;
-57.6000;0.7823;-5.4939;
-57.3000;0.7823;-5.4965;
-57.0000;0.7831;-5.4991;
-56.7000;0.7831;-5.5016;
-56.4000;0.7823;-5.5016;
-56.1000;0.7839;-5.5016;
-55.8000;0.7855;-5.5016;
-55.5000;0.7831;-5.5068;
-55.2000;0.7823;-5.5146;
-54.9000;0.7831;-5.5120;
-54.6000;0.7831;-5.5042;
-54.3000;0.7871;-5.4939;
-54.0000;0.7839;-5.5016;
-53.7000;0.7831;-5.5016;
-53.4000;0.7831;-5.5042;
-53.1000;0.7831;-5.5094;
-52.8000;0.7831;-5.5120;
-52.5000;0.7774;-5.5172;
-52.2000;0.7863;-5.4965;
-51.9000;0.7863;-5.4939;
-51.6000;0.7831;-5.5016;
-51.3000;0.7823;-5.4939;
-51.0000;0.7839;-5.4835;
-50.7000;0.7823;-5.4913;
-50.4000;0.7806;-5.4965;
-50.1000;0.7823;-5.5042;
-49.8000;0.7831;-5.4991;
-49.5000;0.7823;-5.4965;
-49.2000;0.7831;-5.4887;
-48.9000;0.7839;-5.4861;
-48.6000;0.7806;-5.4939;
-48.3000;0.7814;-5.4861;
-48.0000;0.7823;-5.4887;
-47.7000;0.7823;-5.4913;
-47.4000;0.7823;-5.4939;
-47.1000;0.7896;-5.4757;
-46.8000;0.7839;-5.4887;
-46.5000;0.7823;-5.4913;
-46.2000;0.7823;-5.4965;
-45.9000;0.7839;-5.4965;
-45.6000;0.7831;-5.4861;
-45.3000;0.7847;-5.4861;
-45.0000;0.7896;-5.4757;
-44.7000;0.7831;-5.4913;
-44.4000;0.7823;-5.4913;
-44.1000;0.7888;-5.4783;
-43.8000;0.7806;-5.4913;
-43.5000;0.7831;-5.4809;
-43.2000;0.7847;-5.4783;
-42.9000;0.7863;-5.4654;
-42.6000;0.7831;-5.4706;
-42.3000;0.7831;-5.4809;
-42.0000;0.7847;-5.4861;
-41.7000;0.7847;-5.4835;
-41.4000;0.7831;-5.4861;
-41.1000;0.7839;-5.4783;
-40.8000;0.7831;-5.4757;
-40.5000;0.7839;-5.4732;
-40.2000;0.7831;-5.4706;
-39.9000;0.7831;-5.4680;
-39.6000;0.7814;-5.4732;
-39.3000;0.7831;-5.4680;
-39.0000;0.7839;-5.4654;
-38.7000;0.7806;-5.4680;
-38.4000;0.7831;-5.4654;
-38.1000;0.7839;-5.4654;
-37.8000;0.7831;-5.4783;
-37.5000;0.7831;-5.4706;
-37.2000;0.7823;-5.4654;
-36.9000;0.7749;-5.4809;
-36.6000;0.7847;-5.4628;
-36.3000;0.7831;-5.4680;
-36.0000;0.7863;-5.4602;
-35.7000;0.7831;-5.4628;
-35.4000;0.7839;-5.4628;
-35.1000;0.7839;-5.4628;
-34.8000;0.7831;-5.4628;
-34.5000;0.7847;-5.4602;
-34.2000;0.7839;-5.4680;
-33.9000;0.7831;-5.4732;
-33.6000;0.7814;-5.4835;
-33.3000;0.7774;-5.4939;
-33.0000;0.7839;-5.4706;
-32.7000;0.7831;-5.4680;
-32.4000;0.7823;-5.4783;
-32.1000;0.7831;-5.4809;
-31.8000;0.7806;-5.4861;
-31.5000;0.7831;-5.4783;
-31.2000;0.7839;-5.4861;
-30.9000;0.7831;-5.4887;
-30.6000;0.7839;-5.4861;
-30.3000;0.7847;-5.4783;
-30.0000;0.7855;-5.4835;
-29.7000;0.7806;-5.4887;
-29.4000;0.7920;-5.4654;
-29.1000;0.7839;-5.4887;
-28.8000;0.7831;-5.4939;
-28.5000;0.7839;-5.4939;
-28.2000;0.7823;-5.4887;
-27.9000;0.7839;-5.4887;
-27.6000;0.7814;-5.4809;
-27.3000;0.7831;-5.4783;
-27.0000;0.7814;-5.4757;
-26.7000;0.7831;-5.4680;
-26.4000;0.7814;-5.4757;
-26.1000;0.7806;-5.4732;
-25.8000;0.7823;-5.4732;
-25.5000;0.7823;-5.4706;
-25.2000;0.7790;-5.4809;
-24.9000;0.7806;-5.4757;
-24.6000;0.7823;-5.4757;
-24.3000;0.7839;-5.4783;
-24.0000;0.7831;-5.4757;
-23.7000;0.7814;-5.4680;
-23.4000;0.7823;-5.4706;
-23.1000;0.7823;-5.4732;
-22.8000;0.7823;-5.4783;
-22.5000;0.7814;-5.4757;
-22.2000;0.7823;-5.4783;
-21.9000;0.7831;-5.4628;
-21.6000;0.7814;-5.4680;
-21.3000;0.7814;-5.4654;
-21.0000;0.7823;-5.4602;
-20.7000;0.7823;-5.4550;
-20.4000;0.7814;-5.4628;
-20.1000;0.7871;-5.4550;
-19.8000;0.7847;-5.4602;
-19.5000;0.7831;-5.4680;
-19.2000;0.7814;-5.4783;
-18.9000;0.7814;-5.4757;
-18.6000;0.7839;-5.4706;
-18.3000;0.7839;-5.4783;
-18.0000;0.7814;-5.4809;
-17.7000;0.7806;-5.4783;
-17.4000;0.7831;-5.4706;
-17.1000;0.7823;-5.4757;
-16.8000;0.7823;-5.4757;
-16.5000;0.7839;-5.4783;
-16.2000;0.7904;-5.4654;
-15.9000;0.7831;-5.4757;
-15.6000;0.7839;-5.4783;
-15.3000;0.7831;-5.4706;
-15.0000;0.7839;-5.4680;
-14.7000;0.7847;-5.4680;
-14.4000;0.7831;-5.4732;
-14.1000;0.7839;-5.4706;
-13.8000;0.7774;-5.4783;
-13.5000;0.7847;-5.4602;
-13.2000;0.7774;-5.4732;
-12.9000;0.7847;-5.4576;
-12.6000;0.7847;-5.4628;
-12.3000;0.7847;-5.4550;
-12.0000;0.7798;-5.4680;
-11.7000;0.7855;-5.4576;
-11.4000;0.7814;-5.4732;
-11.1000;0.7839;-5.4680;
-10.8000;0.7831;-5.4757;
-10.5000;0.7839;-5.4809;
-10.2000;0.7831;-5.4757;
-9.9000;0.7855;-5.4706;
-9.6000;0.7839;-5.4706;
-9.3000;0.7863;-5.4628;
-9.0000;0.7814;-5.4757;
-8.7000;0.7839;-5.4783;
-8.4000;0.7823;-5.4887;
-8.1000;0.7823;-5.4835;
-7.8000;0.7831;-5.4706;
-7.5000;0.7831;-5.4680;
-7.2000;0.7847;-5.4576;
-6.9000;0.7823;-5.4654;
-6.6000;0.7839;-5.4654;
-6.3000;0.7798;-5.4809;
-6.0000;0.7831;-5.4809;
-5.7000;0.7847;-5.4680;
-5.4000;0.7806;-5.4783;
-5.1000;0.7839;-5.4628;
-4.8000;0.7847;-5.4654;
-4.5000;0.7839;-5.4706;
-4.2000;0.7831;-5.4706;
-3.9000;0.7814;-5.4809;
-3.6000;0.7839;-5.4757;
-3.3000;0.7831;-5.4887;
-3.0000;0.7814;-5.4913;
-2.7000;0.7831;-5.4965;
-2.4000;0.7814;-5.4965;
-2.1000;0.7823;-5.4861;
-1.8000;0.7823;-5.4887;
-1.5000;0.7823;-5.4861;
-1.2000;0.7823;-5.4991;
-0.9000;0.7823;-5.5068;
-0.6000;0.7823;-5.5068;
-0.3000;0.7814;-5.5094;
0.0000;0.7814;-5.5094;
0.3000;0.8010;-5.4887;
0.6000;0.8392;-5.4058;
0.9000;0.8555;-5.3566;
1.2000;0.8759;-5.2996;
1.5000;0.8930;-5.2530;
1.8000;0.9044;-5.2141;
2.1000;0.9141;-5.1986;
2.4000;0.9214;-5.1753;
2.7000;0.9353;-5.1442;
3.0000;0.9353;-5.1390;
3.3000;0.9394;-5.1209;
3.6000;0.9442;-5.1053;
3.9000;0.9508;-5.0898;
4.2000;0.9524;-5.0872;
4.5000;0.9540;-5.0846;
4.8000;0.9565;-5.0846;
5.1000;0.9589;-5.0768;
5.4000;0.9605;-5.0743;
5.7000;0.9662;-5.0639;
6.0000;0.9630;-5.0717;
6.3000;0.9695;-5.0665;
6.6000;0.9711;-5.0561;
6.9000;0.9727;-5.0535;
7.2000;0.9727;-5.0535;
7.5000;0.9752;-5.0535;
7.8000;0.9776;-5.0561;
8.1000;0.9841;-5.0458;
8.4000;0.9858;-5.0509;
8.7000;0.9825;-5.0613;
9.0000;0.9833;-5.0639;
9.3000;0.9882;-5.0587;
9.6000;0.9882;-5.0717;
9.9000;0.9849;-5.0846;
10.2000;0.9898;-5.0768;
10.5000;0.9906;-5.0768;
10.8000;0.9931;-5.0717;
11.1000;0.9963;-5.0665;
11.4000;0.9955;-5.0717;
11.7000;0.9963;-5.0691;
12.0000;0.9947;-5.0665;
12.3000;0.9996;-5.0561;
12.6000;1.0004;-5.0587;
12.9000;1.0020;-5.0535;
13.2000;1.0037;-5.0535;
13.5000;1.0037;-5.0535;
13.8000;1.0045;-5.0743;
14.1000;1.0061;-5.0717;
14.4000;1.0069;-5.0691;
14.7000;1.0094;-5.0665;
15.0000;1.0085;-5.0665;
15.3000;1.0085;-5.0665;
15.6000;1.0110;-5.0561;
15.9000;1.0126;-5.0535;
16.2000;1.0134;-5.0561;
16.5000;1.0134;-5.0509;
16.8000;1.0159;-5.0484;
17.1000;1.0151;-5.0484;
17.4000;1.0167;-5.0484;
17.7000;1.0167;-5.0535;
18.0000;1.0167;-5.0535;
18.3000;1.0175;-5.0613;
18.6000;1.0183;-5.0665;
18.9000;1.0159;-5.0743;
19.2000;1.0191;-5.0794;
19.5000;1.0208;-5.0717;
19.8000;1.0224;-5.0665;
20.1000;1.0224;-5.0665;
20.4000;1.0216;-5.0613;
20.7000;1.0240;-5.0613;
21.0000;1.0232;-5.0639;
21.3000;1.0240;-5.0639;
21.6000;1.0240;-5.0613;
21.9000;1.0248;-5.0613;
22.2000;1.0248;-5.0665;
22.5000;1.0256;-5.0639;
22.8000;1.0248;-5.0691;
23.1000;1.0305;-5.0587;
23.4000;1.0289;-5.0665;
23.7000;1.0305;-5.0665;
24.0000;1.0232;-5.0898;
24.3000;1.0297;-5.0613;
24.6000;1.0281;-5.0691;
24.9000;1.0289;-5.0717;
25.2000;1.0305;-5.0587;
25.5000;1.0313;-5.0639;
25.8000;1.0322;-5.0613;
26.1000;1.0313;-5.0535;
26.4000;1.0313;-5.0509;
26.7000;1.0322;-5.0484;
27.0000;1.0322;-5.0509;
27.3000;1.0338;-5.0432;
27.6000;1.0313;-5.0587;
27.9000;1.0330;-5.0665;
28.2000;1.0338;-5.0691;
28.5000;1.0338;-5.0717;
28.8000;1.0330;-5.0768;
29.1000;1.0338;-5.0872;
29.4000;1.0354;-5.0872;
29.7000;1.0338;-5.0898;
30.0000;1.0362;-5.0898;
30.3000;1.0354;-5.0846;
30.6000;1.0362;-5.0846;
30.9000;1.0362;-5.0743;
31.2000;1.0370;-5.0768;
31.5000;1.0362;-5.0717;
31.8000;1.0370;-5.0743;
32.1000;1.0387;-5.0717;
32.4000;1.0387;-5.0717;
32.7000;1.0362;-5.0846;
33.0000;1.0362;-5.0872;
33.3000;1.0379;-5.0768;
33.6000;1.0387;-5.0743;
33.9000;1.0403;-5.0613;
34.2000;1.0379;-5.0691;
34.5000;1.0379;-5.0743;
34.8000;1.0387;-5.0794;
35.1000;1.0427;-5.0768;
35.4000;1.0419;-5.0768;
35.7000;1.0403;-5.0768;
36.0000;1.0403;-5.0846;
36.3000;1.0403;-5.0820;
36.6000;1.0387;-5.0872;
36.9000;1.0419;-5.0898;
37.2000;1.0419;-5.0898;
37.5000;1.0427;-5.0872;
37.8000;1.0411;-5.0846;
38.1000;1.0395;-5.0872;
38.4000;1.0411;-5.0846;
38.7000;1.0435;-5.0820;
39.0000;1.0411;-5.0820;
39.3000;1.0419;-5.0743;
39.6000;1.0403;-5.0820;
39.9000;1.0444;-5.0768;
40.2000;1.0427;-5.0768;
40.5000;1.0419;-5.0820;
40.8000;1.0419;-5.0846;
41.1000;1.0379;-5.0924;
41.4000;1.0427;-5.0794;
41.7000;1.0379;-5.0924;
42.0000;1.0435;-5.0768;
42.3000;1.0435;-5.0743;
42.6000;1.0419;-5.0743;
42.9000;1.0419;-5.0898;
43.2000;1.0427;-5.0820;
43.5000;1.0435;-5.0717;
43.8000;1.0452;-5.0613;
44.1000;1.0444;-5.0639;
44.4000;1.0435;-5.0691;
44.7000;1.0419;-5.0587;
45.0000;1.0435;-5.0458;
45.3000;1.0435;-5.0484;
45.6000;1.0427;-5.0587;
45.9000;1.0427;-5.0717;
46.2000;1.0468;-5.0613;
46.5000;1.0444;-5.0587;
46.8000;1.0476;-5.0484;
47.1000;1.0460;-5.0587;
47.4000;1.0468;-5.0587;
47.7000;1.0460;-5.0587;
48.0000;1.0444;-5.0509;
48.3000;1.0452;-5.0484;
48.6000;1.0427;-5.0639;
48.9000;1.0501;-5.0535;
49.2000;1.0468;-5.0743;
49.5000;1.0452;-5.0768;
49.8000;1.0460;-5.0794;
50.1000;1.0468;-5.0846;
50.4000;1.0444;-5.0924;
50.7000;1.0452;-5.0872;
51.0000;1.0444;-5.0872;
51.3000;1.0452;-5.0743;
51.6000;1.0452;-5.0717;
51.9000;1.0452;-5.0717;
52.2000;1.0468;-5.0794;
52.5000;1.0452;-5.0820;
52.8000;1.0452;-5.0768;
53.1000;1.0460;-5.0794;
53.4000;1.0452;-5.0794;
53.7000;1.0435;-5.0872;
54.0000;1.0452;-5.0950;
54.3000;1.0460;-5.0846;
54.6000;1.0444;-5.0872;
54.9000;1.0460;-5.0768;
55.2000;1.0476;-5.0665;
55.5000;1.0476;-5.0639;
55.8000;1.0452;-5.0691;
56.1000;1.0460;-5.0691;
56.4000;1.0460;-5.0717;
56.7000;1.0468;-5.0743;
57.0000;1.0444;-5.0768;
57.3000;1.0468;-5.0691;
57.6000;1.0452;-5.0717;
57.9000;1.0484;-5.0691;
58.2000;1.0484;-5.0613;
58.5000;1.0444;-5.0768;
58.8000;1.0476;-5.0794;
59.1000;1.0435;-5.1002;
59.4000;1.0476;-5.0872;
59.7000;1.0476;-5.0898;
60.0000;1.0476;-5.0898;
60.3000;1.0509;-5.0768;
60.6000;1.0444;-5.0898;
60.9000;1.0484;-5.0820;
61.2000;1.0484;-5.0846;
61.5000;1.0476;-5.0924;
61.8000;1.0492;-5.0898;
62.1000;1.0484;-5.0924;
62.4000;1.0476;-5.0872;
62.7000;1.0517;-5.0794;
63.0000;1.0419;-5.1053;
63.3000;1.0501;-5.0950;
63.6000;1.0452;-5.1028;
63.9000;1.0476;-5.1028;
64.2000;1.0476;-5.1002;
64.5000;1.0484;-5.1053;
64.8000;1.0476;-5.1053;
65.1000;1.0476;-5.0924;
65.4000;1.0484;-5.0924;
65.7000;1.0484;-5.0924;
66.0000;1.0492;-5.0846;
66.3000;1.0492;-5.0743;
66.6000;1.0484;-5.0846;
66.9000;1.0492;-5.0846;
67.2000;1.0476;-5.0872;
67.5000;1.0484;-5.0846;
67.8000;1.0484;-5.0846;
68.1000;1.0492;-5.0820;
68.4000;1.0484;-5.0872;
68.7000;1.0492;-5.0872;
69.0000;1.0501;-5.0898;
69.3000;1.0492;-5.0924;
69.6000;1.0476;-5.0950;
69.9000;1.0517;-5.0846;
70.2000;1.0492;-5.0924;
70.5000;1.0492;-5.0898;
70.8000;1.0501;-5.1002;
71.1000;1.0492;-5.0976;
71.4000;1.0476;-5.1028;
71.7000;1.0484;-5.1028;
72.0000;1.0476;-5.1028;
72.3000;1.0492;-5.0924;
72.6000;1.0476;-5.0898;
72.9000;1.0484;-5.0846;
73.2000;1.0476;-5.0976;
73.5000;1.0484;-5.0924;
73.8000;1.0484;-5.0950;
74.1000;1.0492;-5.0976;
74.4000;1.0492;-5.0924;
74.7000;1.0501;-5.0898;
75.0000;1.0476;-5.1002;
75.3000;1.0484;-5.1002;
75.6000;1.0484;-5.1002;
75.9000;1.0484;-5.0976;
76.2000;1.0468;-5.1028;
76.5000;1.0476;-5.1028;
76.8000;1.0476;-5.1002;
77.1000;1.0484;-5.0924;
77.4000;1.0501;-5.0898;
77.7000;1.0501;-5.0872;
78.0000;1.0501;-5.0872;
78.3000;1.0484;-5.0898;
78.6000;1.0501;-5.0846;
78.9000;1.0492;-5.0820;
79.2000;1.0501;-5.0768;
79.5000;1.0517;-5.0743;
79.8000;1.0476;-5.0872;
80.1000;1.0476;-5.0898;
80.4000;1.0476;-5.0820;
80.7000;1.0492;-5.0768;
81.0000;1.0558;-5.0691;
81.3000;1.0492;-5.0872;
81.6000;1.0484;-5.0976;
81.9000;1.0484;-5.0950;
82.2000;1.0509;-5.0846;
82.5000;1.0435;-5.1053;
82.8000;1.0468;-5.0898;
83.1000;1.0501;-5.0846;
83.4000;1.0492;-5.0846;
83.7000;1.0492;-5.0794;
84.0000;1.0492;-5.0794;
84.3000;1.0484;-5.0898;
84.6000;1.0484;-5.0872;
84.9000;1.0492;-5.0872;
85.2000;1.0484;-5.0872;
85.5000;1.0476;-5.0820;
85.8000;1.0484;-5.0820;
86.1000;1.0492;-5.0768;
86.4000;1.0484;-5.0794;
86.7000;1.0460;-5.0846;
87.0000;1.0509;-5.0717;
87.3000;1.0501;-5.0691;
87.6000;1.0501;-5.0665;
87.9000;1.0501;-5.0743;
88.2000;1.0509;-5.0743;
88.5000;1.0492;-5.0820;
88.8000;1.0517;-5.0768;
89.1000;1.0509;-5.0768;
89.4000;1.0509;-5.0768;
89.7000;1.0525;-5.0743;
90.0000;1.0501;-5.0872;
90.3000;1.0501;-5.0950;
90.6000;1.0501;-5.0976;
90.9000;1.0501;-5.0950;
91.2000;1.0501;-5.0898;
91.5000;1.0501;-5.0898;
91.8000;1.0509;-5.0872;
92.1000;1.0509;-5.0898;
92.4000;1.0533;-5.0872;
92.7000;1.0509;-5.0898;
93.0000;1.0517;-5.0924;
93.3000;1.0501;-5.1028;
93.6000;1.0517;-5.0950;
93.9000;1.0509;-5.0898;
94.2000;1.0509;-5.0820;
94.5000;1.0484;-5.0872;
94.8000;1.0492;-5.0820;
95.1000;1.0484;-5.0846;
95.4000;1.0501;-5.0846;
95.7000;1.0484;-5.0872;
96.0000;1.0476;-5.0898;
96.3000;1.0492;-5.0898;
96.6000;1.0492;-5.0924;
96.9000;1.0492;-5.0924;
97.2000;1.0492;-5.0846;
97.5000;1.0501;-5.0872;
97.8000;1.0501;-5.0898;
98.1000;1.0509;-5.0820;
98.4000;1.0517;-5.0846;
98.7000;1.0525;-5.0872;
99.0000;1.0525;-5.0846;
99.3000;1.0501;-5.0846;
99.6000;1.0435;-5.0924;
99.9000;1.0501;-5.0794;
100.2000;1.0484;-5.0924;
100.5000;1.0501;-5.0846;
100.8000;1.0484;-5.0898;
101.1000;1.0501;-5.0846;
101.4000;1.0492;-5.0820;
101.7000;1.0492;-5.0820;
102.0000;1.0525;-5.0820;
102.3000;1.0574;-5.0639;
102.6000;1.0501;-5.0846;
102.9000;1.0476;-5.0924;
103.2000;1.0509;-5.0898;
103.5000;1.0509;-5.0872;
103.8000;1.0558;-5.0872;
104.1000;1.0525;-5.0950;
104.4000;1.0509;-5.1079;
104.7000;1.0509;-5.1053;
105.0000;1.0509;-5.1105;
105.3000;1.0517;-5.1131;
105.6000;1.0525;-5.1131;
105.9000;1.0501;-5.1157;
106.2000;1.0501;-5.1053;
106.5000;1.0517;-5.1028;
106.8000;1.0509;-5.1028;
107.1000;1.0492;-5.1079;
107.4000;1.0444;-5.1209;
107.7000;1.0549;-5.1028;
108.0000;1.0549;-5.1002;
108.3000;1.0484;-5.1157;
108.6000;1.0541;-5.0950;
108.9000;1.0492;-5.1028;
109.2000;1.0509;-5.0924;
109.5000;1.0558;-5.0846;
109.8000;1.0501;-5.1053;
110.1000;1.0492;-5.1079;
110.4000;1.0501;-5.1209;
110.7000;1.0452;-5.1261;
111.0000;1.0484;-5.1209;
111.3000;1.0501;-5.1131;
111.6000;1.0509;-5.1105;
111.9000;1.0509;-5.1131;
112.2000;1.0501;-5.1183;
112.5000;1.0517;-5.1157;
112.8000;1.0509;-5.1157;
113.1000;1.0501;-5.1183;
113.4000;1.0492;-5.1157;
113.7000;1.0509;-5.1105;
114.0000;1.0501;-5.1028;
114.3000;1.0509;-5.1028;
114.6000;1.0509;-5.1028;
114.9000;1.0501;-5.1105;
115.2000;1.0501;-5.1053;
115.5000;1.0509;-5.1002;
115.8000;1.0492;-5.0950;
116.1000;1.0517;-5.0924;
116.4000;1.0533;-5.0924;
116.7000;1.0501;-5.1105;
117.0000;1.0509;-5.1131;
117.3000;1.0501;-5.1157;
117.6000;1.0582;-5.1053;
117.9000;1.0484;-5.1261;
118.2000;1.0509;-5.1131;
118.5000;1.0509;-5.1131;
118.8000;1.0444;-5.1209;
119.1000;1.0501;-5.1053;
119.4000;1.0525;-5.0950;
119.7000;1.0541;-5.0872;
120.0000;1.0501;-5.1053;
120.3000;1.0533;-5.0976;
120.6000;1.0492;-5.0976;
120.9000;1.0509;-5.0950;
121.2000;1.0509;-5.0950;
121.5000;1.0509;-5.0872;
121.8000;1.0501;-5.0950;
122.1000;1.0492;-5.0976;
122.4000;1.0452;-5.1105;
122.7000;1.0492;-5.1053;
123.0000;1.0468;-5.1105;
123.3000;1.0501;-5.1028;
123.6000;1.0501;-5.1079;
123.9000;1.0492;-5.1157;
124.2000;1.0476;-5.1261;
124.5000;1.0468;-5.1235;
124.8000;1.0468;-5.1209;
125.1000;1.0509;-5.1131;
125.4000;1.0509;-5.1079;
125.7000;1.0501;-5.1105;
126.0000;1.0492;-5.1105;
126.3000;1.0509;-5.0924;
126.6000;1.0525;-5.0898;
126.9000;1.0452;-5.0976;
127.2000;1.0484;-5.0898;
127.5000;1.0501;-5.0924;
127.8000;1.0501;-5.0950;
128.1000;1.0517;-5.0898;
128.4000;1.0492;-5.1002;
128.7000;1.0517;-5.1053;
129.0000;1.0501;-5.1053;
129.3000;1.0525;-5.0950;
129.6000;1.0501;-5.1028;
129.9000;1.0492;-5.1002;
130.2000;1.0501;-5.0976;
130.5000;1.0533;-5.0898;
130.8000;1.0525;-5.0976;
131.1000;1.0476;-5.1028;
131.4000;1.0484;-5.1002;
131.7000;1.0484;-5.1157;
132.0000;1.0501;-5.1157;
132.3000;1.0558;-5.0950;
132.6000;1.0501;-5.1002;
132.9000;1.0509;-5.0950;
133.2000;1.0484;-5.1002;
133.5000;1.0492;-5.0950;
133.8000;1.0517;-5.0924;
134.1000;1.0427;-5.1209;
134.4000;1.0509;-5.1131;
134.7000;1.0492;-5.1157;
135.0000;1.0501;-5.1131;
135.3000;1.0492;-5.1157;
135.6000;1.0501;-5.1183;
135.9000;1.0509;-5.1157;
136.2000;1.0501;-5.1183;
136.5000;1.0509;-5.1105;
136.8000;1.0501;-5.1209;
137.1000;1.0509;-5.1209;
137.4000;1.0533;-5.1131;
137.7000;1.0492;-5.1183;
138.0000;1.0517;-5.1053;
138.3000;1.0509;-5.1002;
138.6000;1.0501;-5.1079;
138.9000;1.0582;-5.0924;
139.2000;1.0509;-5.1079;
139.5000;1.0509;-5.1079;
139.8000;1.0517;-5.1053;
140.1000;1.0476;-5.1183;
140.4000;1.0574;-5.1028;
140.7000;1.0533;-5.1157;
141.0000;1.0509;-5.1209;
141.3000;1.0517;-5.1287;
141.6000;1.0509;-5.1312;
141.9000;1.0492;-5.1338;
142.2000;1.0501;-5.1338;
142.5000;1.0558;-5.1235;
142.8000;1.0501;-5.1235;
143.1000;1.0501;-5.1183;
143.4000;1.0517;-5.1131;
143.7000;1.0492;-5.1105;
144.0000;1.0517;-5.1079;
144.3000;1.0509;-5.1028;
144.6000;1.0501;-5.1053;
144.9000;1.0525;-5.1053;
145.2000;1.0525;-5.1053;
145.5000;1.0509;-5.1002;
145.8000;1.0517;-5.1002;
146.1000;1.0541;-5.0976;
146.4000;1.0533;-5.0898;
146.7000;1.0509;-5.1002;
147.0000;1.0509;-5.1028;
147.3000;1.0517;-5.1131;
147.6000;1.0484;-5.1209;
147.9000;1.0517;-5.1079;
148.2000;1.0501;-5.1131;
148.5000;1.0501;-5.1157;
148.8000;1.0492;-5.1183;
149.1000;1.0484;-5.1235;
149.4000;1.0501;-5.1131;
149.7000;1.0517;-5.1131;
150.0000;1.0509;-5.1209;
150.3000;1.0501;-5.1261;
150.6000;1.0484;-5.1364;
150.9000;1.0509;-5.1338;
151.2000;1.0509;-5.1364;
151.5000;1.0501;-5.1338;
151.8000;1.0501;-5.1416;
152.1000;1.0574;-5.1261;
152.4000;1.0533;-5.1338;
152.7000;1.0558;-5.1235;
153.0000;1.0492;-5.1287;
153.3000;1.0509;-5.1183;
153.6000;1.0501;-5.1261;
153.9000;1.0492;-5.1261;
154.2000;1.0476;-5.1312;
154.5000;1.0501;-5.1338;
154.8000;1.0492;-5.1338;
155.1000;1.0501;-5.1312;
155.4000;1.0501;-5.1287;
155.7000;1.0492;-5.1287;
156.0000;1.0501;-5.1312;
156.3000;1.0525;-5.1261;
156.6000;1.0509;-5.1338;
156.9000;1.0501;-5.1364;
157.2000;1.0509;-5.1338;
157.5000;1.0492;-5.1390;
157.8000;1.0452;-5.1520;
158.1000;1.0517;-5.1364;
158.4000;1.0509;-5.1261;
158.7000;1.0501;-5.1183;
159.0000;1.0509;-5.1235;
159.3000;1.0501;-5.1209;
159.6000;1.0444;-5.1287;
159.9000;1.0501;-5.1235;
160.2000;1.0525;-5.1209;
160.5000;1.0492;-5.1338;
160.8000;1.0492;-5.1287;
161.1000;1.0468;-5.1390;
161.4000;1.0517;-5.1261;
161.7000;1.0501;-5.1261;
162.0000;1.0509;-5.1312;
162.3000;1.0501;-5.1312;
162.6000;1.0517;-5.1235;
162.9000;1.0517;-5.1131;
163.2000;1.0525;-5.1157;
163.5000;1.0492;-5.1157;
163.8000;1.0517;-5.1157;
164.1000;1.0541;-5.1131;
164.4000;1.0501;-5.1131;
164.7000;1.0525;-5.1105;
165.0000;1.0501;-5.1105;
165.3000;1.0501;-5.1131;
165.6000;1.0492;-5.1235;
165.9000;1.0492;-5.1235;
166.2000;1.0501;-5.1287;
166.5000;1.0509;-5.1287;
166.8000;1.0509;-5.1312;
167.1000;1.0501;-5.1338;
167.4000;1.0492;-5.1338;
167.7000;1.0501;-5.1261;
168.0000;1.0460;-5.1287;
168.3000;1.0501;-5.1157;
168.6000;1.0501;-5.1157;
168.9000;1.0501;-5.1131;
169.2000;1.0501;-5.1131;
169.5000;1.0501;-5.1028;
169.8000;1.0484;-5.0976;
170.1000;1.0492;-5.0898;
170.4000;1.0509;-5.0872;
170.7000;1.0501;-5.0846;
171.0000;1.0509;-5.0872;
171.3000;1.0501;-5.0846;
171.6000;1.0501;-5.0872;
171.9000;1.0509;-5.0872;
172.2000;1.0492;-5.0872;
172.5000;1.0501;-5.0846;
172.8000;1.0501;-5.0768;
173.1000;1.0501;-5.0768;
173.4000;1.0501;-5.0872;
173.7000;1.0492;-5.0976;
174.0000;1.0509;-5.1002;
174.3000;1.0509;-5.1053;
174.6000;1.0549;-5.0950;
174.9000;1.0501;-5.1105;
175.2000;1.0501;-5.1183;
175.5000;1.0484;-5.1157;
175.8000;1.0566;-5.1028;
176.1000;1.0509;-5.1079;
176.4000;1.0517;-5.1079;
176.7000;1.0452;-5.1235;
177.0000;1.0517;-5.1028;
177.3000;1.0501;-5.1105;
177.6000;1.0509;-5.1028;
177.9000;1.0517;-5.0976;
178.2000;1.0492;-5.1053;
178.5000;1.0484;-5.1105;
178.8000;1.0501;-5.1053;
179.1000;1.0501;-5.1028;
179.4000;1.0509;-5.1002;
179.7000;1.0492;-5.1002;
180.0000;1.0476;-5.1002;
180.3000;1.0492;-5.0898;
180.6000;1.0501;-5.0924;
180.9000;1.0492;-5.0950;
181.2000;1.0517;-5.0846;
181.5000;1.0476;-5.0924;
181.8000;1.0476;-5.0898;
182.1000;1.0476;-5.0924;
182.4000;1.0492;-5.0950;
182.7000;1.0484;-5.1028;
183.0000;1.0509;-5.0976;
183.3000;1.0492;-5.1053;
183.6000;1.0492;-5.1028;
183.9000;1.0492;-5.1079;
184.2000;1.0509;-5.1053;
184.5000;1.0492;-5.1053;
184.8000;1.0492;-5.0976;
185.1000;1.0484;-5.1002;
185.4000;1.0492;-5.1028;
185.7000;1.0501;-5.1028;
186.0000;1.0501;-5.1105;
186.3000;1.0492;-5.1105;
186.6000;1.0484;-5.1105;
186.9000;1.0476;-5.1053;
187.2000;1.0476;-5.0976;
187.5000;1.0501;-5.0898;
187.8000;1.0501;-5.1002;
188.1000;1.0492;-5.1028;
188.4000;1.0492;-5.1002;
188.7000;1.0492;-5.1002;
189.0000;1.0509;-5.0898;
189.3000;1.0501;-5.1079;
189.6000;1.0549;-5.0950;
189.9000;1.0492;-5.1131;
190.2000;1.0484;-5.1183;
190.5000;1.0509;-5.1053;
190.8000;1.0549;-5.1002;
191.1000;1.0501;-5.1157;
191.4000;1.0476;-5.1235;
191.7000;1.0492;-5.1157;
192.0000;1.0566;-5.1002;
192.3000;1.0476;-5.1235;
192.6000;1.0484;-5.1183;
192.9000;1.0484;-5.1209;
193.2000;1.0517;-5.1079;
193.5000;1.0501;-5.1157;
193.8000;1.0517;-5.1053;
194.1000;1.0492;-5.1131;
194.4000;1.0509;-5.1053;
194.7000;1.0492;-5.1105;
195.0000;1.0476;-5.1183;
195.3000;1.0501;-5.1079;
195.6000;1.0501;-5.1079;
195.9000;1.0492;-5.1157;
196.2000;1.0501;-5.1053;
196.5000;1.0509;-5.1002;
196.8000;1.0566;-5.0898;
197.1000;1.0435;-5.1131;
197.4000;1.0525;-5.0976;
197.7000;1.0492;-5.1053;
198.0000;1.0501;-5.1028;
198.3000;1.0509;-5.1079;
198.6000;1.0509;-5.1131;
198.9000;1.0509;-5.1183;
199.2000;1.0517;-5.1235;
199.5000;1.0468;-5.1338;
199.8000;1.0452;-5.1261;
200.1000;1.0509;-5.1235;
200.4000;1.0517;-5.1261;
200.7000;1.0444;-5.1468;
201.0000;1.0525;-5.1287;
201.3000;1.0476;-5.1312;
201.6000;1.0492;-5.1261;
201.9000;1.0501;-5.1261;
202.2000;1.0501;-5.1235;
202.5000;1.0509;-5.1157;
202.8000;1.0509;-5.1105;
203.1000;1.0501;-5.1105;
203.4000;1.0501;-5.1105;
203.7000;1.0501;-5.1053;
204.0000;1.0509;-5.1131;
204.3000;1.0501;-5.1209;
204.6000;1.0444;-5.1261;
204.9000;1.0492;-5.1209;
205.2000;1.0492;-5.1261;
205.5000;1.0484;-5.1235;
205.8000;1.0501;-5.1209;
206.1000;1.0484;-5.1209;
206.4000;1.0492;-5.1157;
206.7000;1.0509;-5.1157;
207.0000;1.0492;-5.1235;
207.3000;1.0509;-5.1261;
207.6000;1.0492;-5.1235;
207.9000;1.0509;-5.1183;
208.2000;1.0509;-5.1131;
208.5000;1.0501;-5.1105;
208.8000;1.0509;-5.1079;
209.1000;1.0525;-5.1053;
209.4000;1.0525;-5.1079;
209.7000;1.0492;-5.1209;
210.0000;1.0501;-5.1131;
210.3000;1.0484;-5.1183;
210.6000;1.0492;-5.1235;
210.9000;1.0492;-5.1235;
211.2000;1.0476;-5.1261;
211.5000;1.0501;-5.1209;
211.8000;1.0476;-5.1131;
212.1000;1.0566;-5.1028;
212.4000;1.0468;-5.1338;
212.7000;1.0509;-5.1209;
213.0000;1.0525;-5.1157;
213.3000;1.0501;-5.1131;
213.6000;1.0501;-5.1131;
213.9000;1.0492;-5.1105;
214.2000;1.0492;-5.1157;
214.5000;1.0492;-5.1209;
214.8000;1.0517;-5.1235;
215.1000;1.0517;-5.1183;
215.4000;1.0492;-5.1261;
215.7000;1.0492;-5.1261;
216.0000;1.0484;-5.1183;
216.3000;1.0501;-5.1183;
216.6000;1.0501;-5.1183;
216.9000;1.0468;-5.1261;
217.2000;1.0435;-5.1364;
217.5000;1.0484;-5.1183;
217.8000;1.0501;-5.1105;
218.1000;1.0501;-5.1028;
218.4000;1.0501;-5.1028;
218.7000;1.0501;-5.1028;
219.0000;1.0533;-5.0950;
219.3000;1.0509;-5.1028;
219.6000;1.0484;-5.1053;
219.9000;1.0476;-5.1028;
220.2000;1.0501;-5.1053;
220.5000;1.0476;-5.1131;
220.8000;1.0484;-5.1079;
221.1000;1.0484;-5.1053;
221.4000;1.0492;-5.0950;
221.7000;1.0501;-5.0872;
222.0000;1.0484;-5.0898;
222.3000;1.0484;-5.0924;
222.6000;1.0492;-5.0950;
222.9000;1.0501;-5.0924;
223.2000;1.0492;-5.1002;
223.5000;1.0501;-5.1002;
223.8000;1.0509;-5.1028;
224.1000;1.0501;-5.1053;
224.4000;1.0501;-5.1002;
224.7000;1.0476;-5.1105;
225.0000;1.0492;-5.1105;
225.3000;1.0484;-5.1079;
225.6000;1.0501;-5.1105;
225.9000;1.0476;-5.1105;
226.2000;1.0484;-5.1028;
226.5000;1.0492;-5.1028;
226.8000;1.0435;-5.1131;
227.1000;1.0492;-5.1028;
227.4000;1.0484;-5.1002;
227.7000;1.0501;-5.1028;
228.0000;1.0492;-5.1053;
228.3000;1.0501;-5.0976;
228.6000;1.0566;-5.0691;
228.9000;1.0501;-5.0872;
229.2000;1.0492;-5.0976;
229.5000;1.0501;-5.1002;
229.8000;1.0501;-5.0950;
230.1000;1.0509;-5.0924;
230.4000;1.0492;-5.0976;
230.7000;1.0501;-5.0976;
231.0000;1.0484;-5.1028;
231.3000;1.0517;-5.0950;
231.6000;1.0484;-5.1079;
231.9000;1.0492;-5.1131;
232.2000;1.0525;-5.1157;
232.5000;1.0460;-5.1235;
232.8000;1.0501;-5.1157;
233.1000;1.0509;-5.1131;
233.4000;1.0501;-5.1183;
233.7000;1.0501;-5.1105;
234.0000;1.0517;-5.1105;
234.3000;1.0501;-5.1157;
234.6000;1.0517;-5.1079;
234.9000;1.0606;-5.0976;
235.2000;1.0484;-5.1261;
235.5000;1.0525;-5.1183;
235.8000;1.0492;-5.1209;
236.1000;1.0435;-5.1287;
236.4000;1.0492;-5.1157;
236.7000;1.0501;-5.1053;
237.0000;1.0501;-5.1053;
237.3000;1.0484;-5.1131;
237.6000;1.0476;-5.1261;
237.9000;1.0484;-5.1287;
238.2000;1.0492;-5.1261;
238.5000;1.0468;-5.1209;
238.8000;1.0492;-5.1209;
239.1000;1.0492;-5.1209;
239.4000;1.0476;-5.1287;
239.7000;1.0476;-5.1261;
240.0000;1.0484;-5.1287;
240.3000;1.0509;-5.1287;
240.6000;1.0492;-5.1364;
240.9000;1.0492;-5.1416;
241.2000;1.0476;-5.1468;
241.5000;1.0501;-5.1494;
241.8000;1.0501;-5.1571;
242.1000;1.0484;-5.1468;
242.4000;1.0492;-5.1494;
242.7000;1.0501;-5.1390;
243.0000;1.0484;-5.1390;
243.3000;1.0460;-5.1416;
243.6000;1.0492;-5.1209;
243.9000;1.0476;-5.1235;
244.2000;1.0525;-5.1209;
244.5000;1.0501;-5.1312;
244.8000;1.0476;-5.1390;
245.1000;1.0492;-5.1338;
245.4000;1.0509;-5.1287;
245.7000;1.0492;-5.1338;
246.0000;1.0509;-5.1235;
246.3000;1.0476;-5.1338;
246.6000;1.0501;-5.1261;
246.9000;1.0517;-5.1312;
247.2000;1.0492;-5.1312;
247.5000;1.0501;-5.1287;
247.8000;1.0492;-5.1235;
248.1000;1.0533;-5.1209;
248.4000;1.0501;-5.1183;
248.7000;1.0501;-5.1261;
249.0000;1.0484;-5.1261;
249.3000;1.0517;-5.1183;
249.6000;1.0501;-5.1157;
249.9000;1.0501;-5.1209;
250.2000;1.0501;-5.1209;
250.5000;1.0492;-5.1235;
250.8000;1.0501;-5.1183;
251.1000;1.0492;-5.1157;
251.4000;1.0492;-5.1131;
251.7000;1.0517;-5.1131;
252.0000;1.0492;-5.1209;
252.3000;1.0501;-5.1183;
252.6000;1.0492;-5.1261;
252.9000;1.0501;-5.1312;
253.2000;1.0484;-5.1312;
253.5000;1.0501;-5.1312;
253.8000;1.0476;-5.1364;
254.1000;1.0484;-5.1338;
254.4000;1.0484;-5.1390;
254.7000;1.0484;-5.1312;
255.0000;1.0476;-5.1312;
255.3000;1.0509;-5.1209;
255.6000;1.0501;-5.1287;
255.9000;1.0484;-5.1364;
256.2000;1.0468;-5.1312;
256.5000;1.0484;-5.1235;
256.8000;1.0525;-5.1079;
257.1000;1.0509;-5.1002;
257.4000;1.0476;-5.1028;
257.7000;1.0492;-5.1079;
258.0000;1.0484;-5.1157;
258.3000;1.0517;-5.1053;
258.6000;1.0484;-5.1157;
258.9000;1.0452;-5.1209;
259.2000;1.0492;-5.1287;
259.5000;1.0517;-5.1261;
259.8000;1.0501;-5.1287;
260.1000;1.0509;-5.1131;
260.4000;1.0492;-5.1183;
260.7000;1.0484;-5.1261;
261.0000;1.0501;-5.1312;
261.3000;1.0484;-5.1235;
261.6000;1.0476;-5.1183;
261.9000;1.0484;-5.1209;
262.2000;1.0484;-5.1235;
262.5000;1.0492;-5.1261;
262.8000;1.0476;-5.1312;
263.1000;1.0484;-5.1312;
263.4000;1.0468;-5.1338;
263.7000;1.0484;-5.1209;
264.0000;1.0492;-5.1209;
264.3000;1.0476;-5.1209;
264.6000;1.0484;-5.1079;
264.9000;1.0509;-5.1105;
265.2000;1.0501;-5.1131;
265.5000;1.0484;-5.1131;
265.8000;1.0484;-5.1131;
266.1000;1.0484;-5.1183;
266.4000;1.0484;-5.1131;
266.7000;1.0476;-5.1079;
267.0000;1.0484;-5.1131;
267.3000;1.0492;-5.1131;
267.6000;1.0476;-5.1105;
267.9000;1.0484;-5.1157;
268.2000;1.0492;-5.1235;
268.5000;1.0484;-5.1261;
268.8000;1.0484;-5.1235;
269.1000;1.0484;-5.1261;
269.4000;1.0476;-5.1209;
269.7000;1.0517;-5.1105;
270.0000;1.0501;-5.1157;
270.3000;1.0501;-5.1157;
270.6000;1.0517;-5.1105;
270.9000;1.0484;-5.1079;
271.2000;1.0452;-5.1131;
271.5000;1.0492;-5.1053;
271.8000;1.0484;-5.1131;
272.1000;1.0468;-5.1209;
272.4000;1.0476;-5.1235;
272.7000;1.0509;-5.1079;
273.0000;1.0476;-5.1157;
273.3000;1.0484;-5.1131;
273.6000;1.0492;-5.1131;
273.9000;1.0492;-5.1183;
274.2000;1.0492;-5.1183;
274.5000;1.0501;-5.1209;
274.8000;1.0484;-5.1261;
275.1000;1.0492;-5.1261;
275.4000;1.0492;-5.1235;
275.7000;1.0484;-5.1235;
276.0000;1.0492;-5.1157;
276.3000;1.0492;-5.1183;
276.6000;1.0501;-5.1131;
276.9000;1.0492;-5.1131;
277.2000;1.0468;-5.1131;
277.5000;1.0476;-5.1235;
277.8000;1.0492;-5.1183;
278.1000;1.0476;-5.1261;
278.4000;1.0509;-5.1105;
278.7000;1.0492;-5.1131;
279.0000;1.0549;-5.0976;
279.3000;1.0492;-5.1105;
279.6000;1.0484;-5.1105;
279.9000;1.0501;-5.1209;
280.2000;1.0492;-5.1235;
280.5000;1.0484;-5.1287;
280.8000;1.0501;-5.1261;
281.1000;1.0484;-5.1390;
281.4000;1.0509;-5.1312;
281.7000;1.0492;-5.1416;
282.0000;1.0444;-5.1520;
282.3000;1.0468;-5.1364;
282.6000;1.0484;-5.1312;
282.9000;1.0501;-5.1312;
283.2000;1.0484;-5.1312;
283.5000;1.0484;-5.1261;
283.8000;1.0476;-5.1338;
284.1000;1.0476;-5.1312;
284.4000;1.0484;-5.1261;
284.7000;1.0476;-5.1364;
285.0000;1.0476;-5.1390;
285.3000;1.0484;-5.1287;
285.6000;1.0476;-5.1235;
285.9000;1.0484;-5.1235;
286.2000;1.0492;-5.1209;
286.5000;1.0476;-5.1209;
286.8000;1.0492;-5.1131;
287.1000;1.0484;-5.1028;
287.4000;1.0476;-5.1183;
287.7000;1.0501;-5.1157;
288.0000;1.0492;-5.1209;
288.3000;1.0444;-5.1287;
288.6000;1.0460;-5.1235;
288.9000;1.0476;-5.1287;
289.2000;1.0468;-5.1416;
289.5000;1.0509;-5.1287;
289.8000;1.0484;-5.1235;
290.1000;1.0452;-5.1364;
290.4000;1.0484;-5.1364;
290.7000;1.0501;-5.1235;
291.0000;1.0476;-5.1287;
291.3000;1.0476;-5.1287;
291.6000;1.0484;-5.1183;
291.9000;1.0484;-5.1183;
292.2000;1.0468;-5.1338;
292.5000;1.0517;-5.1157;
292.8000;1.0468;-5.1312;
293.1000;1.0492;-5.1338;
293.4000;1.0492;-5.1261;
293.7000;1.0492;-5.1287;
294.0000;1.0492;-5.1287;
294.3000;1.0501;-5.1235;
294.6000;1.0492;-5.1235;
294.9000;1.0476;-5.1157;
295.2000;1.0468;-5.1157;
295.5000;1.0492;-5.1183;
295.8000;1.0501;-5.1312;
296.1000;1.0476;-5.1338;
296.4000;1.0492;-5.1338;
296.7000;1.0444;-5.1390;
297.0000;1.0468;-5.1390;
297.3000;1.0484;-5.1364;
297.6000;1.0492;-5.1364;
297.9000;1.0476;-5.1338;
298.2000;1.0484;-5.1416;
298.5000;1.0501;-5.1287;
298.8000;1.0460;-5.1338;
299.1000;1.0468;-5.1261;
299.4000;1.0492;-5.1235;
299.7000;1.0501;-5.1235;
300.0000;1.0501;-5.1209;
300.3000;1.0476;-5.1261;
300.6000;1.0492;-5.1338;
300.9000;1.0492;-5.1261;
301.2000;1.0492;-5.1157;
301.5000;1.0484;-5.1157;
301.8000;1.0484;-5.1183;
302.1000;1.0492;-5.1157;
302.4000;1.0476;-5.1261;
302.7000;1.0460;-5.1235;
303.0000;1.0476;-5.1235;
303.3000;1.0484;-5.1183;
303.6000;1.0492;-5.1209;
303.9000;1.0468;-5.1235;
304.2000;1.0484;-5.1183;
304.5000;1.0484;-5.1312;
304.8000;1.0492;-5.1261;
305.1000;1.0468;-5.1287;
305.4000;1.0476;-5.1235;
305.7000;1.0492;-5.1157;
306.0000;1.0452;-5.1338;
306.3000;1.0501;-5.1261;
306.6000;1.0492;-5.1261;
306.9000;1.0484;-5.1183;
307.2000;1.0476;-5.1157;
307.5000;1.0517;-5.1079;
307.8000;1.0484;-5.1183;
308.1000;1.0476;-5.1183;
308.4000;1.0476;-5.1131;
308.7000;1.0484;-5.1131;
309.0000;1.0484;-5.1131;
309.3000;1.0484;-5.1105;
309.6000;1.0484;-5.1028;
309.9000;1.0484;-5.0950;
310.2000;1.0468;-5.1053;
310.5000;1.0476;-5.1002;
310.8000;1.0484;-5.0924;
311.1000;1.0468;-5.1002;
311.4000;1.0484;-5.0950;
311.7000;1.0460;-5.0976;
312.0000;1.0460;-5.1105;
312.3000;1.0452;-5.1131;
312.6000;1.0452;-5.1183;
312.9000;1.0460;-5.1261;
313.2000;1.0476;-5.1312;
313.5000;1.0468;-5.1442;
313.8000;1.0468;-5.1468;
314.1000;1.0452;-5.1546;
314.4000;1.0484;-5.1494;
314.7000;1.0484;-5.1520;
315.0000;1.0484;-5.1494;
315.3000;1.0468;-5.1494;
315.6000;1.0517;-5.1287;
315.9000;1.0468;-5.1390;
316.2000;1.0492;-5.1390;
316.5000;1.0484;-5.1390;
316.8000;1.0468;-5.1338;
317.1000;1.0484;-5.1312;
317.4000;1.0476;-5.1338;
317.7000;1.0484;-5.1416;
318.0000;1.0468;-5.1364;
318.3000;1.0492;-5.1312;
318.6000;1.0484;-5.1312;
318.9000;1.0509;-5.1261;
319.2000;1.0517;-5.1235;
319.5000;1.0476;-5.1287;
319.8000;1.0484;-5.1390;
320.1000;1.0509;-5.1287;
320.4000;1.0484;-5.1312;
320.7000;1.0476;-5.1261;
321.0000;1.0484;-5.1261;
321.3000;1.0476;-5.1105;
321.6000;1.0492;-5.1053;
321.9000;1.0484;-5.1105;
322.2000;1.0476;-5.1105;
322.5000;1.0484;-5.1131;
322.8000;1.0476;-5.1131;
323.1000;1.0468;-5.1157;
323.4000;1.0476;-5.1157;
323.7000;1.0501;-5.1209;
324.0000;1.0468;-5.1287;
324.3000;1.0476;-5.1235;
324.6000;1.0476;-5.1209;
324.9000;1.0484;-5.1209;
325.2000;1.0476;-5.1287;
325.5000;1.0460;-5.1338;
325.8000;1.0492;-5.1312;
326.1000;1.0484;-5.1157;
326.4000;1.0492;-5.1235;
326.7000;1.0476;-5.1209;
327.0000;1.0525;-5.1131;
327.3000;1.0468;-5.1287;
327.6000;1.0492;-5.1312;
327.9000;1.0501;-5.1209;
328.2000;1.0501;-5.1209;
328.5000;1.0566;-5.1209;
328.8000;1.0517;-5.1338;
329.1000;1.0452;-5.1416;
329.4000;1.0492;-5.1338;
329.7000;1.0558;-5.1157;
330.0000;1.0476;-5.1235;
330.3000;1.0476;-5.1261;
330.6000;1.0468;-5.1235;
330.9000;1.0492;-5.1209;
331.2000;1.0484;-5.1157;
331.5000;1.0501;-5.1183;
331.8000;1.0492;-5.1157;
332.1000;1.0468;-5.1183;
332.4000;1.0476;-5.1209;
332.7000;1.0484;-5.1209;
333.0000;1.0476;-5.1312;
333.3000;1.0492;-5.1287;
333.6000;1.0484;-5.1312;
333.9000;1.0484;-5.1261;
334.2000;1.0517;-5.1079;
334.5000;1.0484;-5.1157;
334.8000;1.0476;-5.1261;
335.1000;1.0476;-5.1183;
335.4000;1.0476;-5.1209;
335.7000;1.0476;-5.1183;
336.0000;1.0476;-5.1261;
336.3000;1.0468;-5.1261;
336.6000;1.0492;-5.1131;
336.9000;1.0484;-5.1183;
337.2000;1.0444;-5.1416;
337.5000;1.0509;-5.1261;
337.8000;1.0492;-5.1261;
338.1000;1.0444;-5.1287;
338.4000;1.0501;-5.1157;
338.7000;1.0468;-5.1287;
339.0000;1.0460;-5.1338;
339.3000;1.0476;-5.1338;
339.6000;1.0476;-5.1390;
339.9000;1.0476;-5.1390;
340.2000;1.0468;-5.1494;
340.5000;1.0468;-5.1416;
340.8000;1.0492;-5.1312;
341.1000;1.0468;-5.1338;
341.4000;1.0492;-5.1312;
341.7000;1.0501;-5.1261;
342.0000;1.0468;-5.1287;
342.3000;1.0468;-5.1235;
342.6000;1.0444;-5.1235;
342.9000;1.0484;-5.1053;
343.2000;1.0484;-5.1183;
343.5000;1.0476;-5.1183;
343.8000;1.0476;-5.1235;
344.1000;1.0484;-5.1235;
344.4000;1.0476;-5.1209;
344.7000;1.0492;-5.1105;
345.0000;1.0476;-5.1183;
345.3000;1.0468;-5.1312;
345.6000;1.0444;-5.1338;
345.9000;1.0468;-5.1287;
346.2000;1.0484;-5.1209;
346.5000;1.0452;-5.1261;
346.8000;1.0460;-5.1157;
347.1000;1.0476;-5.1209;
347.4000;1.0476;-5.1235;
347.7000;1.0484;-5.1183;
348.0000;1.0468;-5.1183;
348.3000;1.0484;-5.1131;
348.6000;1.0484;-5.1105;
348.9000;1.0476;-5.1105;
349.2000;1.0452;-5.1157;
349.5000;1.0468;-5.1157;
349.8000;1.0484;-5.1131;
350.1000;1.0476;-5.1183;
350.4000;1.0476;-5.1131;
350.7000;1.0476;-5.1053;
351.0000;1.0476;-5.1053;
351.3000;1.0452;-5.1183;
351.6000;1.0468;-5.1183;
351.9000;1.0484;-5.1183;
352.2000;1.0484;-5.1131;
352.5000;1.0476;-5.1028;
352.8000;1.0468;-5.1131;
353.1000;1.0476;-5.1183;
353.4000;1.0476;-5.1235;
353.7000;1.0468;-5.1235;
354.0000;1.0468;-5.1183;
354.3000;1.0476;-5.1131;
354.6000;1.0484;-5.1235;
354.9000;1.0460;-5.1235;
355.2000;1.0468;-5.1261;
355.5000;1.0476;-5.1287;
355.8000;1.0468;-5.1183;
356.1000;1.0476;-5.1028;
356.4000;1.0468;-5.1079;
356.7000;1.0460;-5.1157;
357.0000;1.0476;-5.1183;
357.3000;1.0484;-5.1183;
357.6000;1.0476;-5.1209;
357.9000;1.0484;-5.1261;
358.2000;1.0460;-5.1235;
358.5000;1.0484;-5.1053;
358.8000;1.0476;-5.1002;
359.1000;1.0468;-5.1028;
359.4000;1.0484;-5.0976;
359.7000;1.0492;-5.0950;
360.0000;1.0484;-5.0976;
360.3000;1.0501;-5.0924;
360.6000;1.0484;-5.0950;
360.9000;1.0492;-5.0898;
361.2000;1.0484;-5.0924;
361.5000;1.0476;-5.0950;
361.8000;1.0484;-5.0924;
362.1000;1.0549;-5.0768;
362.4000;1.0492;-5.1028;
362.7000;1.0476;-5.1131;
363.0000;1.0484;-5.1053;
363.3000;1.0468;-5.1028;
363.6000;1.0476;-5.1053;
363.9000;1.0492;-5.1183;
364.2000;1.0484;-5.1209;
364.5000;1.0476;-5.1183;
364.8000;1.0476;-5.1131;
365.1000;1.0460;-5.1157;
365.4000;1.0468;-5.1183;
365.7000;1.0566;-5.1028;
366.0000;1.0427;-5.1364;
366.3000;1.0492;-5.1131;
366.6000;1.0460;-5.1235;
366.9000;1.0492;-5.1105;
367.2000;1.0501;-5.1079;
367.5000;1.0468;-5.1002;
367.8000;1.0460;-5.1105;
368.1000;1.0476;-5.1002;
368.4000;1.0468;-5.1105;
368.7000;1.0476;-5.1053;
369.0000;1.0468;-5.1053;
369.3000;1.0476;-5.1028;
369.6000;1.0452;-5.1002;
369.9000;1.0460;-5.0976;
370.2000;1.0492;-5.0976;
370.5000;1.0468;-5.1053;
370.8000;1.0460;-5.1079;
371.1000;1.0484;-5.1028;
371.4000;1.0468;-5.1131;
371.7000;1.0460;-5.1105;
372.0000;1.0468;-5.1053;
372.3000;1.0468;-5.1028;
372.6000;1.0476;-5.1053;
372.9000;1.0476;-5.1105;
373.2000;1.0468;-5.1131;
373.5000;1.0444;-5.1131;
373.8000;1.0509;-5.0898;
374.1000;1.0484;-5.1002;
374.4000;1.0427;-5.1105;
374.7000;1.0476;-5.0976;
375.0000;1.0452;-5.1079;
375.3000;1.0476;-5.1002;
375.6000;1.0533;-5.0820;
375.9000;1.0452;-5.1028;
376.2000;1.0476;-5.0976;
376.5000;1.0484;-5.1002;
376.8000;1.0452;-5.1079;
377.1000;1.0379;-5.1183;
377.4000;1.0468;-5.0898;
377.7000;1.0476;-5.0950;
378.0000;1.0476;-5.0976;
378.3000;1.0476;-5.1079;
378.6000;1.0484;-5.1131;
378.9000;1.0468;-5.1209;
379.2000;1.0476;-5.1235;
379.5000;1.0403;-5.1390;
379.8000;1.0460;-5.1235;
380.1000;1.0501;-5.1157;
380.4000;1.0476;-5.1209;
380.7000;1.0460;-5.1261;
381.0000;1.0427;-5.1416;
381.3000;1.0468;-5.1183;
381.6000;1.0460;-5.1338;
381.9000;1.0468;-5.1338;
382.2000;1.0468;-5.1416;
382.5000;1.0460;-5.1442;
382.8000;1.0460;-5.1416;
383.1000;1.0460;-5.1416;
383.4000;1.0468;-5.1338;
383.7000;1.0460;-5.1312;
384.0000;1.0460;-5.1338;
384.3000;1.0468;-5.1287;
384.6000;1.0460;-5.1287;
384.9000;1.0460;-5.1261;
385.2000;1.0452;-5.1312;
385.5000;1.0468;-5.1287;
385.8000;1.0444;-5.1312;
386.1000;1.0468;-5.1287;
386.4000;1.0468;-5.1261;
386.7000;1.0517;-5.1183;
387.0000;1.0452;-5.1312;
387.3000;1.0476;-5.1261;
387.6000;1.0476;-5.1235;
387.9000;1.0460;-5.1287;
388.2000;1.0460;-5.1261;
388.5000;1.0484;-5.1105;
388.8000;1.0468;-5.1131;
389.1000;1.0484;-5.1002;
389.4000;1.0476;-5.1002;
389.7000;1.0484;-5.0924;
390.0000;1.0460;-5.0950;
390.3000;1.0476;-5.0976;
390.6000;1.0468;-5.1105;
390.9000;1.0468;-5.1209;
391.2000;1.0484;-5.1235;
391.5000;1.0460;-5.1312;
391.8000;1.0476;-5.1338;
392.1000;1.0452;-5.1338;
392.4000;1.0444;-5.1287;
392.7000;1.0476;-5.1209;
393.0000;1.0476;-5.1209;
393.3000;1.0484;-5.1131;
393.6000;1.0476;-5.1028;
393.9000;1.0468;-5.1053;
394.2000;1.0476;-5.0950;
394.5000;1.0444;-5.1002;
394.8000;1.0444;-5.1053;
395.1000;1.0444;-5.1105;
395.4000;1.0468;-5.1105;
395.7000;1.0484;-5.1131;
396.0000;1.0452;-5.1157;
396.3000;1.0468;-5.1131;
396.6000;1.0460;-5.1105;
396.9000;1.0460;-5.1157;
397.2000;1.0476;-5.1105;
397.5000;1.0468;-5.1105;
397.8000;1.0468;-5.1079;
398.1000;1.0484;-5.1053;
398.4000;1.0525;-5.0950;
398.7000;1.0468;-5.1105;
399.0000;1.0460;-5.1131;
399.3000;1.0468;-5.1209;
399.6000;1.0476;-5.1235;
399.9000;1.0435;-5.1235;
400.2000;1.0460;-5.1209;
400.5000;1.0517;-5.1079;
400.8000;1.0452;-5.1235;
401.1000;1.0460;-5.1209;
401.4000;1.0460;-5.1261;
401.7000;1.0444;-5.1338;
402.0000;1.0476;-5.1287;
402.3000;1.0460;-5.1261;
402.6000;1.0444;-5.1287;
402.9000;1.0452;-5.1209;
403.2000;1.0476;-5.1079;
403.5000;1.0476;-5.1131;
403.8000;1.0468;-5.1105;
404.1000;1.0484;-5.1028;
404.4000;1.0484;-5.1053;
404.7000;1.0476;-5.0950;
405.0000;1.0460;-5.1053;
405.3000;1.0468;-5.1028;
405.6000;1.0460;-5.1079;
405.9000;1.0468;-5.1131;
406.2000;1.0484;-5.1105;
406.5000;1.0468;-5.1079;
406.8000;1.0460;-5.1157;
407.1000;1.0476;-5.1053;
407.4000;1.0460;-5.0976;
407.7000;1.0476;-5.1028;
408.0000;1.0468;-5.1131;
408.3000;1.0460;-5.1105;
408.6000;1.0452;-5.1105;
408.9000;1.0468;-5.1105;
409.2000;1.0460;-5.1131;
409.5000;1.0468;-5.1157;
409.8000;1.0492;-5.1183;
410.1000;1.0484;-5.1261;
410.4000;1.0484;-5.1261;
410.7000;1.0460;-5.1261;
411.0000;1.0476;-5.1209;
411.3000;1.0460;-5.1183;
411.6000;1.0468;-5.1235;
411.9000;1.0468;-5.1287;
412.2000;1.0468;-5.1287;
412.5000;1.0484;-5.1235;
412.8000;1.0460;-5.1235;
413.1000;1.0460;-5.1209;
413.4000;1.0476;-5.1131;
413.7000;1.0452;-5.1157;
414.0000;1.0452;-5.1183;
414.3000;1.0468;-5.1105;
414.6000;1.0427;-5.1235;
414.9000;1.0460;-5.1235;
415.2000;1.0460;-5.1183;
415.5000;1.0468;-5.1209;
415.8000;1.0444;-5.1416;
416.1000;1.0460;-5.1416;
416.4000;1.0468;-5.1416;
416.7000;1.0460;-5.1364;
417.0000;1.0427;-5.1338;
417.3000;1.0460;-5.1364;
417.6000;1.0460;-5.1364;
417.9000;1.0460;-5.1364;
418.2000;1.0525;-5.1131;
418.5000;1.0476;-5.1338;
418.8000;1.0468;-5.1287;
419.1000;1.0468;-5.1287;
419.4000;1.0460;-5.1235;
419.7000;1.0460;-5.1131;
420.0000;1.0403;-5.1235;
420.3000;1.0460;-5.1157;
420.6000;1.0468;-5.1131;
420.9000;1.0476;-5.1002;
421.2000;1.0460;-5.1131;
421.5000;1.0460;-5.1157;
421.8000;1.0492;-5.1105;
422.1000;1.0460;-5.1131;
422.4000;1.0419;-5.1364;
422.7000;1.0468;-5.1287;
423.0000;1.0452;-5.1416;
423.3000;1.0468;-5.1494;
423.6000;1.0452;-5.1494;
423.9000;1.0435;-5.1520;
424.2000;1.0484;-5.1468;
424.5000;1.0476;-5.1468;
424.8000;1.0460;-5.1597;
425.1000;1.0460;-5.1520;
425.4000;1.0468;-5.1520;
425.7000;1.0476;-5.1442;
426.0000;1.0492;-5.1390;
426.3000;1.0476;-5.1390;
426.6000;1.0460;-5.1364;
426.9000;1.0452;-5.1390;
427.2000;1.0452;-5.1312;
427.5000;1.0468;-5.1287;
427.8000;1.0460;-5.1287;
428.1000;1.0476;-5.1235;
428.4000;1.0492;-5.1157;
428.7000;1.0468;-5.1209;
429.0000;1.0452;-5.1287;
429.3000;1.0452;-5.1261;
429.6000;1.0460;-5.1287;
429.9000;1.0460;-5.1312;
430.2000;1.0468;-5.1338;
430.5000;1.0460;-5.1364;
430.8000;1.0452;-5.1416;
431.1000;1.0476;-5.1494;
431.4000;1.0476;-5.1364;
431.7000;1.0468;-5.1338;
432.0000;1.0444;-5.1364;
432.3000;1.0427;-5.1416;
432.6000;1.0403;-5.1442;
432.9000;1.0435;-5.1261;
433.2000;1.0444;-5.1287;
433.5000;1.0419;-5.1287;
433.8000;1.0452;-5.1261;
434.1000;1.0452;-5.1261;
434.4000;1.0501;-5.1157;
434.7000;1.0444;-5.1261;
435.0000;1.0460;-5.1183;
435.3000;1.0460;-5.1183;
435.6000;1.0444;-5.1287;
435.9000;1.0452;-5.1261;
436.2000;1.0427;-5.1338;
436.5000;1.0452;-5.1338;
436.8000;1.0460;-5.1312;
437.1000;1.0460;-5.1364;
437.4000;1.0452;-5.1390;
437.7000;1.0468;-5.1287;
438.0000;1.0435;-5.1338;
438.3000;1.0460;-5.1287;
438.6000;1.0444;-5.1287;
438.9000;1.0476;-5.1235;
439.2000;1.0435;-5.1312;
439.5000;1.0444;-5.1338;
439.8000;1.0419;-5.1390;
440.1000;1.0460;-5.1287;
440.4000;1.0460;-5.1338;
440.7000;1.0452;-5.1287;
441.0000;1.0444;-5.1287;
441.3000;1.0468;-5.1183;
441.6000;1.0468;-5.1183;
441.9000;1.0468;-5.1183;
442.2000;1.0468;-5.1183;
442.5000;1.0468;-5.1209;
442.8000;1.0452;-5.1209;
443.1000;1.0452;-5.1209;
443.4000;1.0370;-5.1390;
443.7000;1.0444;-5.1157;
444.0000;1.0435;-5.1261;
444.3000;1.0460;-5.1183;
444.6000;1.0452;-5.1183;
444.9000;1.0427;-5.1235;
445.2000;1.0452;-5.1209;
445.5000;1.0476;-5.1183;
445.8000;1.0476;-5.1131;
446.1000;1.0525;-5.0924;
446.4000;1.0501;-5.0924;
446.7000;1.0460;-5.1002;
447.0000;1.0435;-5.1053;
447.3000;1.0444;-5.1105;
447.6000;1.0411;-5.1261;
447.9000;1.0435;-5.1209;
448.2000;1.0435;-5.1235;
448.5000;1.0460;-5.1131;
448.8000;1.0468;-5.1131;
449.1000;1.0468;-5.1183;
449.4000;1.0460;-5.1235;
449.7000;1.0460;-5.1235;
450.0000;1.0468;-5.1209;
450.3000;1.0444;-5.1105;
450.6000;1.0452;-5.1131;
450.9000;1.0460;-5.1131;
451.2000;1.0444;-5.1235;
451.5000;1.0476;-5.1157;
451.8000;1.0468;-5.1183;
452.1000;1.0452;-5.1338;
452.4000;1.0435;-5.1287;
452.7000;1.0452;-5.1105;
453.0000;1.0452;-5.1131;
453.3000;1.0460;-5.1053;
453.6000;1.0444;-5.1105;
453.9000;1.0427;-5.1209;
454.2000;1.0501;-5.1028;
454.5000;1.0460;-5.1131;
454.8000;1.0444;-5.1157;
455.1000;1.0452;-5.1131;
455.4000;1.0452;-5.1131;
455.7000;1.0460;-5.1079;
456.0000;1.0452;-5.1105;
456.3000;1.0501;-5.1079;
456.6000;1.0460;-5.1157;
456.9000;1.0484;-5.1157;
457.2000;1.0468;-5.1287;
457.5000;1.0411;-5.1416;
457.8000;1.0476;-5.1183;
458.1000;1.0444;-5.1287;
458.4000;1.0476;-5.1183;
458.7000;1.0403;-5.1416;
459.0000;1.0452;-5.1261;
459.3000;1.0460;-5.1183;
459.6000;1.0460;-5.1131;
459.9000;1.0452;-5.1105;
460.2000;1.0452;-5.1209;
460.5000;1.0525;-5.0976;
460.8000;1.0419;-5.1183;
461.1000;1.0460;-5.1131;
461.4000;1.0444;-5.1157;
461.7000;1.0460;-5.1053;
462.0000;1.0468;-5.1157;
462.3000;1.0460;-5.1131;
462.6000;1.0452;-5.1053;
462.9000;1.0435;-5.1157;
463.2000;1.0460;-5.1131;
463.5000;1.0452;-5.1131;
463.8000;1.0444;-5.1157;
464.1000;1.0444;-5.1183;
464.4000;1.0444;-5.1183;
464.7000;1.0452;-5.1131;
465.0000;1.0444;-5.1131;
465.3000;1.0435;-5.1261;
465.6000;1.0444;-5.1209;
465.9000;1.0444;-5.1183;
466.2000;1.0444;-5.1209;
466.5000;1.0395;-5.1364;
466.8000;1.0460;-5.1235;
467.1000;1.0435;-5.1312;
467.4000;1.0444;-5.1261;
467.7000;1.0444;-5.1312;
468.0000;1.0452;-5.1390;
468.3000;1.0395;-5.1571;
468.6000;1.0468;-5.1235;
468.9000;1.0427;-5.1312;
469.2000;1.0435;-5.1442;
469.5000;1.0452;-5.1338;
469.8000;1.0435;-5.1312;
470.1000;1.0452;-5.1287;
470.4000;1.0435;-5.1312;
470.7000;1.0452;-5.1312;
471.0000;1.0460;-5.1287;
471.3000;1.0460;-5.1390;
471.6000;1.0460;-5.1390;
471.9000;1.0444;-5.1390;
472.2000;1.0468;-5.1312;
472.5000;1.0460;-5.1390;
472.8000;1.0452;-5.1364;
473.1000;1.0452;-5.1468;
473.4000;1.0476;-5.1364;
473.7000;1.0452;-5.1338;
474.0000;1.0460;-5.1312;
474.3000;1.0476;-5.1287;
474.6000;1.0468;-5.1261;
474.9000;1.0444;-5.1287;
475.2000;1.0509;-5.1053;
475.5000;1.0403;-5.1312;
475.8000;1.0435;-5.1209;
476.1000;1.0558;-5.0820;
476.4000;1.0444;-5.1131;
476.7000;1.0444;-5.1157;
477.0000;1.0444;-5.1131;
477.3000;1.0525;-5.0976;
477.6000;1.0452;-5.1209;
477.9000;1.0468;-5.1131;
478.2000;1.0444;-5.1183;
478.5000;1.0419;-5.1131;
478.8000;1.0452;-5.1131;
479.1000;1.0452;-5.1105;
479.4000;1.0452;-5.1131;
479.7000;1.0509;-5.1053;
480.0000;1.0444;-5.1261;
480.3000;1.0444;-5.1312;
480.6000;1.0435;-5.1364;
480.9000;1.0452;-5.1235;
481.2000;1.0460;-5.1209;
481.5000;1.0395;-5.1364;
481.8000;1.0468;-5.1235;
482.1000;1.0468;-5.1235;
482.4000;1.0460;-5.1287;
482.7000;1.0411;-5.1364;
483.0000;1.0452;-5.1235;
483.3000;1.0435;-5.1209;
483.6000;1.0468;-5.1131;
483.9000;1.0492;-5.1105;
484.2000;1.0452;-5.1183;
484.5000;1.0452;-5.1183;
484.8000;1.0370;-5.1312;
485.1000;1.0460;-5.1131;
485.4000;1.0468;-5.1131;
485.7000;1.0427;-5.1079;
486.0000;1.0452;-5.1002;
486.3000;1.0460;-5.0976;
486.6000;1.0517;-5.0768;
486.9000;1.0444;-5.0898;
487.2000;1.0452;-5.0924;
487.5000;1.0460;-5.0976;
487.8000;1.0452;-5.1079;
488.1000;1.0452;-5.1079;
488.4000;1.0444;-5.1131;
488.7000;1.0476;-5.1053;
489.0000;1.0452;-5.1002;
489.3000;1.0435;-5.1157;
489.6000;1.0435;-5.1235;
489.9000;1.0435;-5.1131;
490.2000;1.0435;-5.1105;
490.5000;1.0444;-5.1209;
490.8000;1.0427;-5.1235;
491.1000;1.0427;-5.1338;
491.4000;1.0444;-5.1235;
491.7000;1.0444;-5.1183;
492.0000;1.0452;-5.1235;
492.3000;1.0444;-5.1287;
492.6000;1.0452;-5.1287;
492.9000;1.0444;-5.1287;
493.2000;1.0435;-5.1287;
493.5000;1.0444;-5.1235;
493.8000;1.0460;-5.1157;
494.1000;1.0460;-5.1105;
494.4000;1.0444;-5.1209;
494.7000;1.0427;-5.1338;
495.0000;1.0444;-5.1287;
495.3000;1.0419;-5.1287;
495.6000;1.0435;-5.1261;
495.9000;1.0427;-5.1157;
496.2000;1.0452;-5.1183;
496.5000;1.0435;-5.1183;
496.8000;1.0444;-5.1079;
497.1000;1.0452;-5.1079;
497.4000;1.0452;-5.1053;
497.7000;1.0444;-5.1053;
498.0000;1.0435;-5.1079;
498.3000;1.0444;-5.1131;
498.6000;1.0435;-5.1209;
498.9000;1.0452;-5.1209;
499.2000;1.0468;-5.1131;
499.5000;1.0492;-5.1079;
499.8000;1.0460;-5.1209;
500.1000;1.0444;-5.1287;
500.4000;1.0460;-5.1183;
500.7000;1.0427;-5.1235;
501.0000;1.0444;-5.1157;
501.3000;1.0435;-5.1287;
501.6000;1.0411;-5.1338;
501.9000;1.0468;-5.1131;
502.2000;1.0444;-5.1209;
502.5000;1.0435;-5.1209;
502.8000;1.0435;-5.1235;
503.1000;1.0452;-5.1183;
503.4000;1.0435;-5.1261;
503.7000;1.0435;-5.1209;
504.0000;1.0476;-5.1079;
504.3000;1.0452;-5.1105;
504.6000;1.0435;-5.1079;
504.9000;1.0435;-5.0976;
505.2000;1.0411;-5.1002;
505.5000;1.0452;-5.0950;
505.8000;1.0476;-5.0924;
506.1000;1.0444;-5.0950;
506.4000;1.0435;-5.1002;
506.7000;1.0444;-5.1028;
507.0000;1.0379;-5.1209;
507.3000;1.0444;-5.1105;
507.6000;1.0435;-5.1028;
507.9000;1.0435;-5.1053;
508.2000;1.0427;-5.1209;
508.5000;1.0435;-5.1079;
508.8000;1.0427;-5.1131;
509.1000;1.0387;-5.1209;
509.4000;1.0435;-5.1002;
509.7000;1.0452;-5.1002;
510.0000;1.0403;-5.1183;
510.3000;1.0444;-5.1105;
510.6000;1.0435;-5.1028;
510.9000;1.0427;-5.1028;
511.2000;1.0427;-5.1053;
511.5000;1.0435;-5.0950;
511.8000;1.0444;-5.1002;
512.1000;1.0444;-5.0950;
512.4000;1.0444;-5.0924;
512.7000;1.0435;-5.0924;
513.0000;1.0452;-5.0872;
513.3000;1.0460;-5.0898;
513.6000;1.0460;-5.0950;
513.9000;1.0444;-5.1028;
514.2000;1.0452;-5.1053;
514.5000;1.0468;-5.0976;
514.8000;1.0452;-5.1002;
515.1000;1.0452;-5.1053;
515.4000;1.0444;-5.1028;
515.7000;1.0444;-5.0976;
516.0000;1.0444;-5.1028;
516.3000;1.0435;-5.0976;
516.6000;1.0435;-5.0976;
516.9000;1.0435;-5.0924;
517.2000;1.0460;-5.0976;
517.5000;1.0492;-5.1002;
517.8000;1.0452;-5.1028;
518.1000;1.0444;-5.1053;
518.4000;1.0452;-5.1028;
518.7000;1.0452;-5.1079;
519.0000;1.0435;-5.1131;
519.3000;1.0468;-5.1028;
519.6000;1.0460;-5.1079;
519.9000;1.0460;-5.1053;
520.2000;1.0435;-5.1131;
520.5000;1.0444;-5.1105;
520.8000;1.0452;-5.1105;
521.1000;1.0452;-5.0976;
521.4000;1.0444;-5.0976;
521.7000;1.0460;-5.1053;
522.0000;1.0468;-5.1028;
522.3000;1.0468;-5.1002;
522.6000;1.0452;-5.1079;
522.9000;1.0452;-5.1105;
523.2000;1.0452;-5.1157;
523.5000;1.0452;-5.1053;
523.8000;1.0444;-5.1105;
524.1000;1.0403;-5.1235;
524.4000;1.0427;-5.1261;
524.7000;1.0435;-5.1209;
525.0000;1.0460;-5.1183;
525.3000;1.0427;-5.1235;
525.6000;1.0444;-5.1157;
525.9000;1.0444;-5.1183;
526.2000;1.0387;-5.1364;
526.5000;1.0444;-5.1261;
526.8000;1.0427;-5.1209;
527.1000;1.0419;-5.1183;
527.4000;1.0460;-5.1053;
527.7000;1.0419;-5.1183;
528.0000;1.0435;-5.1157;
528.3000;1.0452;-5.1079;
528.6000;1.0444;-5.1053;
528.9000;1.0452;-5.1131;
529.2000;1.0444;-5.1183;
529.5000;1.0444;-5.1131;
529.8000;1.0444;-5.1157;
530.1000;1.0509;-5.0950;
530.4000;1.0444;-5.1105;
530.7000;1.0444;-5.1131;
531.0000;1.0444;-5.1028;
531.3000;1.0444;-5.1053;
531.6000;1.0435;-5.1053;
531.9000;1.0460;-5.0898;
532.2000;1.0484;-5.0872;
532.5000;1.0444;-5.0898;
532.8000;1.0427;-5.0976;
533.1000;1.0444;-5.1002;
533.4000;1.0419;-5.1053;
533.7000;1.0468;-5.0950;
534.0000;1.0435;-5.1002;
534.3000;1.0444;-5.1053;
534.6000;1.0435;-5.1079;
534.9000;1.0427;-5.1079;
535.2000;1.0452;-5.0872;
535.5000;1.0444;-5.0950;
535.8000;1.0435;-5.0950;
536.1000;1.0460;-5.0898;
536.4000;1.0403;-5.1028;
536.7000;1.0460;-5.0820;
537.0000;1.0460;-5.0794;
537.3000;1.0435;-5.0768;
537.6000;1.0444;-5.0743;
537.9000;1.0395;-5.0898;
538.2000;1.0427;-5.0898;
538.5000;1.0452;-5.0846;
538.8000;1.0379;-5.1079;
539.1000;1.0427;-5.0872;
539.4000;1.0435;-5.0898;
539.7000;1.0476;-5.0872;
540.0000;1.0435;-5.1105;
540.3000;1.0427;-5.1157;
540.6000;1.0411;-5.1261;
540.9000;1.0427;-5.1261;
541.2000;1.0419;-5.1261;
541.5000;1.0444;-5.1209;
541.8000;1.0427;-5.1235;
542.1000;1.0427;-5.1261;
542.4000;1.0444;-5.1235;
542.7000;1.0468;-5.1131;
543.0000;1.0452;-5.1209;
543.3000;1.0444;-5.1183;
543.6000;1.0354;-5.1338;
543.9000;1.0435;-5.1157;
544.2000;1.0452;-5.1131;
544.5000;1.0427;-5.1157;
544.8000;1.0435;-5.1053;
545.1000;1.0435;-5.1131;
545.4000;1.0452;-5.1079;
545.7000;1.0427;-5.1079;
546.0000;1.0444;-5.1002;
546.3000;1.0387;-5.1131;
546.6000;1.0419;-5.1028;
546.9000;1.0435;-5.1053;
547.2000;1.0411;-5.1002;
547.5000;1.0427;-5.0924;
547.8000;1.0427;-5.0898;
548.1000;1.0452;-5.0794;
548.4000;1.0460;-5.0794;
548.7000;1.0435;-5.0976;
549.0000;1.0427;-5.1053;
549.3000;1.0411;-5.1028;
549.6000;1.0444;-5.0924;
549.9000;1.0452;-5.0898;
550.2000;1.0476;-5.0820;
550.5000;1.0468;-5.0898;
550.8000;1.0452;-5.0898;
551.1000;1.0460;-5.0924;
551.4000;1.0460;-5.0898;
551.7000;1.0452;-5.0898;
552.0000;1.0452;-5.0924;
552.3000;1.0435;-5.0950;
552.6000;1.0444;-5.0976;
552.9000;1.0476;-5.0924;
553.2000;1.0444;-5.0898;
553.5000;1.0452;-5.0846;
553.8000;1.0444;-5.0898;
554.1000;1.0444;-5.0924;
554.4000;1.0452;-5.0924;
554.7000;1.0444;-5.0950;
555.0000;1.0435;-5.0976;
555.3000;1.0460;-5.0898;
555.6000;1.0460;-5.0950;
555.9000;1.0419;-5.0976;
556.2000;1.0452;-5.0924;
556.5000;1.0452;-5.0950;
556.8000;1.0435;-5.1028;
557.1000;1.0435;-5.1053;
557.4000;1.0427;-5.1053;
557.7000;1.0452;-5.0950;
558.0000;1.0476;-5.0846;
558.3000;1.0435;-5.0898;
558.6000;1.0419;-5.1028;
558.9000;1.0411;-5.0976;
559.2000;1.0452;-5.0846;
559.5000;1.0468;-5.0898;
559.8000;1.0444;-5.0924;
560.1000;1.0444;-5.0950;
560.4000;1.0452;-5.0976;
560.7000;1.0484;-5.0898;
561.0000;1.0444;-5.0950;
561.3000;1.0444;-5.0976;
561.6000;1.0435;-5.0976;
561.9000;1.0427;-5.0950;
562.2000;1.0444;-5.0872;
562.5000;1.0435;-5.0950;
562.8000;1.0395;-5.1028;
563.1000;1.0452;-5.0898;
563.4000;1.0427;-5.0846;
563.7000;1.0435;-5.0898;
564.0000;1.0460;-5.0820;
564.3000;1.0435;-5.0924;
564.6000;1.0444;-5.0898;
564.9000;1.0435;-5.0976;
565.2000;1.0427;-5.0976;
565.5000;1.0460;-5.0898;
565.8000;1.0452;-5.0950;
566.1000;1.0435;-5.1002;
566.4000;1.0444;-5.1028;
566.7000;1.0444;-5.0950;
567.0000;1.0444;-5.0976;
567.3000;1.0427;-5.1002;
567.6000;1.0444;-5.1028;
567.9000;1.0427;-5.1053;
568.2000;1.0435;-5.1079;
568.5000;1.0452;-5.0976;
568.8000;1.0435;-5.1079;
569.1000;1.0460;-5.0924;
569.4000;1.0444;-5.0768;
569.7000;1.0427;-5.0768;
570.0000;1.0435;-5.0768;
570.3000;1.0427;-5.0846;
570.6000;1.0427;-5.0898;
570.9000;1.0452;-5.0820;
571.2000;1.0419;-5.0898;
571.5000;1.0435;-5.0976;
571.8000;1.0435;-5.1053;
572.1000;1.0427;-5.1053;
572.4000;1.0427;-5.0924;
572.7000;1.0435;-5.0872;
573.0000;1.0435;-5.0950;
573.3000;1.0387;-5.1079;
573.6000;1.0419;-5.1028;
573.9000;1.0411;-5.0976;
574.2000;1.0435;-5.0898;
574.5000;1.0395;-5.1053;
574.8000;1.0435;-5.0976;
575.1000;1.0452;-5.1002;
575.4000;1.0435;-5.1002;
575.7000;1.0444;-5.0898;
576.0000;1.0460;-5.0924;
576.3000;1.0427;-5.0976;
576.6000;1.0435;-5.0898;
576.9000;1.0411;-5.0846;
577.2000;1.0435;-5.0743;
577.5000;1.0427;-5.0768;
577.8000;1.0427;-5.0743;
578.1000;1.0411;-5.0820;
578.4000;1.0435;-5.0794;
578.7000;1.0484;-5.0665;
579.0000;1.0403;-5.0794;
579.3000;1.0419;-5.0743;
579.6000;1.0435;-5.0691;
579.9000;1.0435;-5.0691;
580.2000;1.0444;-5.0691;
580.5000;1.0427;-5.0691;
580.8000;1.0427;-5.0768;
581.1000;1.0435;-5.0768;
581.4000;1.0444;-5.0820;
581.7000;1.0435;-5.0898;
582.0000;1.0435;-5.0924;
582.3000;1.0427;-5.0950;
582.6000;1.0403;-5.1157;
582.9000;1.0419;-5.1028;
583.2000;1.0427;-5.1028;
583.5000;1.0435;-5.0976;
583.8000;1.0427;-5.0924;
584.1000;1.0435;-5.0898;
584.4000;1.0435;-5.0976;
584.7000;1.0435;-5.0976;
585.0000;1.0419;-5.1002;
585.3000;1.0435;-5.0976;
585.6000;1.0427;-5.0950;
585.9000;1.0419;-5.1157;
586.2000;1.0419;-5.1157;
586.5000;1.0403;-5.1287;
586.8000;1.0435;-5.1183;
587.1000;1.0419;-5.1235;
587.4000;1.0419;-5.1131;
587.7000;1.0427;-5.1053;
588.0000;1.0427;-5.0924;
588.3000;1.0435;-5.0950;
588.6000;1.0501;-5.0768;
588.9000;1.0427;-5.0872;
589.2000;1.0403;-5.0898;
589.5000;1.0427;-5.0872;
589.8000;1.0444;-5.0898;
590.1000;1.0452;-5.0898;
590.4000;1.0427;-5.0898;
590.7000;1.0444;-5.0872;
591.0000;1.0435;-5.0924;
591.3000;1.0444;-5.0898;
591.6000;1.0427;-5.0846;
591.9000;1.0435;-5.0743;
592.2000;1.0435;-5.0820;
592.5000;1.0435;-5.0924;
592.8000;1.0435;-5.0898;
593.1000;1.0419;-5.0976;
593.4000;1.0419;-5.0950;
593.7000;1.0435;-5.0976;
594.0000;1.0427;-5.1028;
594.3000;1.0427;-5.0950;
594.6000;1.0411;-5.0950;
594.9000;1.0427;-5.0976;
595.2000;1.0427;-5.0950;
595.5000;1.0435;-5.1053;
595.8000;1.0419;-5.1079;
596.1000;1.0476;-5.1002;
596.4000;1.0444;-5.1053;
596.7000;1.0460;-5.1053;
597.0000;1.0444;-5.1131;
597.3000;1.0452;-5.1131;
597.6000;1.0452;-5.1105;
597.9000;1.0419;-5.1157;
598.2000;1.0411;-5.1131;
598.5000;1.0419;-5.1105;
598.8000;1.0444;-5.1002;
599.1000;1.0492;-5.0924;
599.4000;1.0435;-5.1079;
599.7000;1.0435;-5.1028;
600.0000;1.0411;-5.1028;
600.3000;1.0411;-5.1105;
600.6000;1.0419;-5.1390;
600.9000;1.0379;-5.1571;
601.2000;1.0281;-5.1856;
601.5000;1.0216;-5.2038;
601.8000;1.0142;-5.2271;
602.1000;1.0061;-5.2556;
602.4000;0.9972;-5.2789;
602.7000;0.9963;-5.2815;
603.0000;0.9817;-5.3229;
603.3000;0.9703;-5.3540;
603.6000;0.9711;-5.3566;
603.9000;0.9613;-5.3773;
604.2000;0.9573;-5.3825;
604.5000;0.9516;-5.3877;
604.8000;0.9459;-5.3954;
605.1000;0.9369;-5.4084;
605.4000;0.9353;-5.4084;
605.7000;0.9296;-5.4291;
606.0000;0.9271;-5.4213;
606.3000;0.9214;-5.4265;
606.6000;0.9166;-5.4395;
606.9000;0.9125;-5.4498;
607.2000;0.9076;-5.4576;
607.5000;0.9068;-5.4576;
607.8000;0.9011;-5.4628;
608.1000;0.8962;-5.4809;
608.4000;0.8978;-5.4809;
608.7000;0.8889;-5.4913;
609.0000;0.8873;-5.4913;
609.3000;0.8848;-5.4887;
609.6000;0.8799;-5.4887;
609.9000;0.8775;-5.4939;
610.2000;0.8775;-5.4965;
610.5000;0.8718;-5.5016;
610.8000;0.8702;-5.5068;
611.1000;0.8661;-5.5146;
611.4000;0.8637;-5.5172;
611.7000;0.8612;-5.5275;
612.0000;0.8523;-5.5457;
612.3000;0.8547;-5.5379;
612.6000;0.8514;-5.5379;
612.9000;0.8449;-5.5431;
613.2000;0.8482;-5.5327;
613.5000;0.8449;-5.5405;
613.8000;0.8441;-5.5379;
614.1000;0.8400;-5.5405;
614.4000;0.8409;-5.5301;
614.7000;0.8368;-5.5327;
615.0000;0.8327;-5.5327;
615.3000;0.8344;-5.5224;
615.6000;0.8303;-5.5198;
615.9000;0.8254;-5.5198;
616.2000;0.8262;-5.5146;
616.5000;0.8238;-5.5172;
616.8000;0.8205;-5.5275;
617.1000;0.8246;-5.5120;
617.4000;0.8189;-5.5120;
617.7000;0.8173;-5.5198;
618.0000;0.8132;-5.5379;
618.3000;0.8116;-5.5405;
618.6000;0.8099;-5.5431;
618.9000;0.8148;-5.5327;
619.2000;0.8083;-5.5405;
619.5000;0.8067;-5.5379;
619.8000;0.8050;-5.5379;
620.1000;0.8026;-5.5457;
620.4000;0.8018;-5.5483;
620.7000;0.7993;-5.5509;
621.0000;0.7993;-5.5509;
621.3000;0.7985;-5.5535;
621.6000;0.7928;-5.5638;
621.9000;0.7961;-5.5638;
622.2000;0.7928;-5.5690;
622.5000;0.7912;-5.5768;
622.8000;0.7945;-5.5794;
623.1000;0.7912;-5.5871;
623.4000;0.7896;-5.5871;
623.7000;0.7888;-5.5871;
624.0000;0.7896;-5.5845;
624.3000;0.7863;-5.5923;
624.6000;0.7814;-5.5923;
624.9000;0.7798;-5.5975;
625.2000;0.7782;-5.5975;
625.5000;0.7823;-5.5871;
625.8000;0.7790;-5.5871;
626.1000;0.7774;-5.5923;
626.4000;0.7757;-5.5923;
626.7000;0.7757;-5.5897;
627.0000;0.7741;-5.5871;
627.3000;0.7741;-5.5845;
627.6000;0.7725;-5.5768;
627.9000;0.7700;-5.5923;
628.2000;0.7709;-5.5871;
628.5000;0.7717;-5.5794;
628.8000;0.7676;-5.5897;
629.1000;0.7676;-5.5871;
629.4000;0.7660;-5.5923;
629.7000;0.7652;-5.5923;
630.0000;0.7627;-5.6053;
630.3000;0.7627;-5.5975;
630.6000;0.7660;-5.5897;
630.9000;0.7603;-5.6053;
631.2000;0.7619;-5.5949;
631.5000;0.7586;-5.5975;
631.8000;0.7595;-5.5871;
632.1000;0.7611;-5.5794;
632.4000;0.7586;-5.5871;
632.7000;0.7570;-5.5845;
633.0000;0.7530;-5.5871;
633.3000;0.7570;-5.5742;
633.6000;0.7538;-5.5794;
633.9000;0.7513;-5.5794;
634.2000;0.7530;-5.5768;
634.5000;0.7562;-5.5845;
634.8000;0.7530;-5.5949;
635.1000;0.7505;-5.5949;
635.4000;0.7497;-5.6001;
635.7000;0.7497;-5.6001;
636.0000;0.7489;-5.5949;
636.3000;0.7497;-5.5975;
636.6000;0.7464;-5.6001;
636.9000;0.7440;-5.5975;
637.2000;0.7456;-5.5871;
637.5000;0.7448;-5.5819;
637.8000;0.7432;-5.5949;
638.1000;0.7513;-5.5742;
638.4000;0.7416;-5.5949;
638.7000;0.7424;-5.5923;
639.0000;0.7407;-5.5819;
639.3000;0.7407;-5.5845;
639.6000;0.7416;-5.5819;
639.9000;0.7432;-5.5664;
640.2000;0.7391;-5.5716;
640.5000;0.7334;-5.5819;
640.8000;0.7383;-5.5716;
641.1000;0.7350;-5.5768;
641.4000;0.7359;-5.5638;
641.7000;0.7359;-5.5612;
642.0000;0.7342;-5.5690;
642.3000;0.7334;-5.5690;
642.6000;0.7334;-5.5768;
642.9000;0.7334;-5.5819;
643.2000;0.7326;-5.5871;
643.5000;0.7310;-5.5871;
643.8000;0.7310;-5.5897;
644.1000;0.7277;-5.5949;
644.4000;0.7277;-5.5897;
644.7000;0.7269;-5.5871;
645.0000;0.7293;-5.5923;
645.3000;0.7285;-5.5949;
645.6000;0.7277;-5.5923;
645.9000;0.7277;-5.5923;
646.2000;0.7285;-5.5819;
646.5000;0.7269;-5.5819;
646.8000;0.7261;-5.5819;
647.1000;0.7253;-5.5819;
647.4000;0.7261;-5.5794;
647.7000;0.7253;-5.5871;
648.0000;0.7310;-5.5664;
648.3000;0.7261;-5.5768;
648.6000;0.7163;-5.5949;
648.9000;0.7228;-5.5742;
649.2000;0.7204;-5.5819;
649.5000;0.7204;-5.5845;
649.8000;0.7220;-5.5819;
650.1000;0.7220;-5.5794;
650.4000;0.7196;-5.5897;
650.7000;0.7204;-5.5897;
651.0000;0.7171;-5.5897;
651.3000;0.7179;-5.5768;
651.6000;0.7179;-5.5845;
651.9000;0.7179;-5.5897;
652.2000;0.7147;-5.5949;
652.5000;0.7163;-5.5871;
652.8000;0.7155;-5.5949;
653.1000;0.7155;-5.5923;
653.4000;0.7155;-5.5819;
653.7000;0.7147;-5.5768;
654.0000;0.7163;-5.5716;
654.3000;0.7131;-5.5768;
654.6000;0.7090;-5.5768;
654.9000;0.7114;-5.5742;
655.2000;0.7131;-5.5768;
655.5000;0.7123;-5.5742;
655.8000;0.7090;-5.5845;
656.1000;0.7098;-5.5794;
656.4000;0.7074;-5.5871;
656.7000;0.7106;-5.5819;
657.0000;0.7123;-5.5845;
657.3000;0.7106;-5.5794;
657.6000;0.7090;-5.5845;
657.9000;0.7098;-5.5897;
658.2000;0.7090;-5.5897;
658.5000;0.7090;-5.5897;
658.8000;0.7074;-5.5871;
659.1000;0.7066;-5.5871;
659.4000;0.7098;-5.5742;
659.7000;0.7066;-5.5819;
660.0000;0.7049;-5.5845;
660.3000;0.7066;-5.5871;
660.6000;0.7033;-5.5897;
660.9000;0.7041;-5.5871;
661.2000;0.7082;-5.5742;
661.5000;0.7025;-5.5768;
661.8000;0.7041;-5.5742;
662.1000;0.7033;-5.5819;
662.4000;0.7009;-5.5871;
662.7000;0.7017;-5.5794;
663.0000;0.7017;-5.5768;
663.3000;0.6943;-5.5897;
663.6000;0.7033;-5.5716;
663.9000;0.6992;-5.5742;
664.2000;0.7000;-5.5742;
664.5000;0.7009;-5.5690;
664.8000;0.7000;-5.5716;
665.1000;0.6976;-5.5690;
665.4000;0.6992;-5.5690;
665.7000;0.6984;-5.5716;
666.0000;0.6952;-5.5768;
666.3000;0.6968;-5.5638;
666.6000;0.6984;-5.5690;
666.9000;0.6976;-5.5690;
667.2000;0.6968;-5.5612;
667.5000;0.6935;-5.5612;
667.8000;0.6968;-5.5483;
668.1000;0.6960;-5.5509;
668.4000;0.6952;-5.5560;
668.7000;0.6952;-5.5509;
669.0000;0.6935;-5.5612;
669.3000;0.6952;-5.5560;
669.6000;0.6878;-5.5794;
669.9000;0.6927;-5.5742;
670.2000;0.6952;-5.5664;
670.5000;0.6943;-5.5768;
670.8000;0.6943;-5.5690;
671.1000;0.6911;-5.5794;
671.4000;0.6927;-5.5819;
671.7000;0.6903;-5.5897;
672.0000;0.6935;-5.5819;
672.3000;0.6870;-5.5975;
672.6000;0.6911;-5.5845;
672.9000;0.6911;-5.5845;
673.2000;0.6911;-5.5845;
673.5000;0.6895;-5.5768;
673.8000;0.6821;-5.5949;
674.1000;0.6878;-5.5819;
674.4000;0.6870;-5.5742;
674.7000;0.6862;-5.5794;
675.0000;0.6870;-5.5845;
675.3000;0.6862;-5.5871;
675.6000;0.6870;-5.5923;
675.9000;0.6862;-5.5871;
676.2000;0.6862;-5.5716;
676.5000;0.6838;-5.5664;
676.8000;0.6854;-5.5690;
677.1000;0.6854;-5.5690;
677.4000;0.6838;-5.5638;
677.7000;0.6846;-5.5819;
678.0000;0.6854;-5.5845;
678.3000;0.6846;-5.5845;
678.6000;0.6829;-5.5819;
678.9000;0.6829;-5.5819;
679.2000;0.6838;-5.5819;
679.5000;0.6854;-5.5819;
679.8000;0.6829;-5.5923;
680.1000;0.6829;-5.5871;
680.4000;0.6821;-5.5897;
680.7000;0.6829;-5.5845;
681.0000;0.6805;-5.5871;
681.3000;0.6789;-5.5845;
681.6000;0.6805;-5.5768;
681.9000;0.6813;-5.5794;
682.2000;0.6813;-5.5845;
682.5000;0.6805;-5.5845;
682.8000;0.6829;-5.5819;
683.1000;0.6789;-5.5871;
683.4000;0.6797;-5.5845;
683.7000;0.6789;-5.5845;
684.0000;0.6789;-5.5742;
684.3000;0.6789;-5.5794;
684.6000;0.6789;-5.5742;
684.9000;0.6838;-5.5664;
685.2000;0.6797;-5.5794;
685.5000;0.6756;-5.5949;
685.8000;0.6772;-5.5871;
686.1000;0.6781;-5.5819;
686.4000;0.6707;-5.6104;
686.7000;0.6724;-5.5975;
687.0000;0.6748;-5.5923;
687.3000;0.6740;-5.5949;
687.6000;0.6740;-5.6001;
687.9000;0.6740;-5.6078;
688.2000;0.6781;-5.5975;
688.5000;0.6699;-5.6156;
688.8000;0.6707;-5.6027;
689.1000;0.6764;-5.5845;
689.4000;0.6756;-5.5794;
689.7000;0.6748;-5.5742;
690.0000;0.6740;-5.5742;
690.3000;0.6740;-5.5690;
690.6000;0.6732;-5.5742;
690.9000;0.6740;-5.5638;
691.2000;0.6716;-5.5664;
691.5000;0.6724;-5.5612;
691.8000;0.6716;-5.5612;
692.1000;0.6707;-5.5690;
692.4000;0.6707;-5.5664;
692.7000;0.6707;-5.5638;
693.0000;0.6716;-5.5638;
693.3000;0.6707;-5.5690;
693.6000;0.6740;-5.5716;
693.9000;0.6707;-5.5819;
694.2000;0.6699;-5.5794;
694.5000;0.6707;-5.5690;
694.8000;0.6659;-5.5794;
695.1000;0.6650;-5.5690;
695.4000;0.6699;-5.5612;
695.7000;0.6675;-5.5794;
696.0000;0.6691;-5.5716;
696.3000;0.6675;-5.5716;
696.6000;0.6683;-5.5716;
696.9000;0.6667;-5.5716;
697.2000;0.6667;-5.5716;
697.5000;0.6675;-5.5664;
697.8000;0.6675;-5.5612;
698.1000;0.6650;-5.5638;
698.4000;0.6650;-5.5690;
698.7000;0.6667;-5.5638;
699.0000;0.6659;-5.5638;
699.3000;0.6650;-5.5664;
699.6000;0.6659;-5.5612;
699.9000;0.6650;-5.5586;
700.2000;0.6634;-5.5638;
700.5000;0.6618;-5.5586;
700.8000;0.6634;-5.5612;
701.1000;0.6642;-5.5690;
701.4000;0.6642;-5.5742;
701.7000;0.6618;-5.5768;
702.0000;0.6618;-5.5716;
702.3000;0.6642;-5.5716;
702.6000;0.6642;-5.5638;
702.9000;0.6634;-5.5742;
703.2000;0.6634;-5.5871;
703.5000;0.6642;-5.5768;
703.8000;0.6626;-5.5794;
704.1000;0.6634;-5.5768;
704.4000;0.6610;-5.5819;
704.7000;0.6642;-5.5819;
705.0000;0.6683;-5.5742;
705.3000;0.6618;-5.5871;
705.6000;0.6626;-5.5845;
705.9000;0.6642;-5.5768;
706.2000;0.6610;-5.5845;
706.5000;0.6618;-5.5845;
706.8000;0.6569;-5.5949;
707.1000;0.6602;-5.5949;
707.4000;0.6626;-5.6027;
707.7000;0.6585;-5.6130;
708.0000;0.6585;-5.6130;
708.3000;0.6561;-5.6182;
708.6000;0.6610;-5.6104;
708.9000;0.6626;-5.6001;
709.2000;0.6553;-5.6182;
709.5000;0.6585;-5.6001;
709.8000;0.6593;-5.6001;
710.1000;0.6577;-5.6053;
710.4000;0.6585;-5.5975;
710.7000;0.6585;-5.5949;
711.0000;0.6585;-5.5897;
711.3000;0.6569;-5.5845;
711.6000;0.6569;-5.5897;
711.9000;0.6504;-5.6027;
712.2000;0.6561;-5.5897;
712.5000;0.6577;-5.5897;
712.8000;0.6561;-5.5923;
713.1000;0.6561;-5.5949;
713.4000;0.6545;-5.5975;
713.7000;0.6561;-5.6001;
714.0000;0.6569;-5.5871;
714.3000;0.6569;-5.5871;
714.6000;0.6520;-5.6053;
714.9000;0.6569;-5.6130;
715.2000;0.6585;-5.6104;
715.5000;0.6569;-5.6130;
715.8000;0.6520;-5.6053;
716.1000;0.6545;-5.5949;
716.4000;0.6536;-5.5923;
716.7000;0.6545;-5.5897;
717.0000;0.6528;-5.5897;
717.3000;0.6536;-5.5923;
717.6000;0.6553;-5.5923;
717.9000;0.6463;-5.6182;
718.2000;0.6512;-5.6078;
718.5000;0.6528;-5.6078;
718.8000;0.6512;-5.6156;
719.1000;0.6520;-5.6182;
719.4000;0.6512;-5.6053;
719.7000;0.6536;-5.5897;
720.0000;0.6569;-5.5742;
720.3000;0.6520;-5.5794;
720.6000;0.6520;-5.5819;
720.9000;0.6512;-5.5845;
721.2000;0.6504;-5.5871;
721.5000;0.6512;-5.5794;
721.8000;0.6496;-5.5794;
722.1000;0.6488;-5.5897;
722.4000;0.6479;-5.5871;
722.7000;0.6488;-5.5897;
723.0000;0.6488;-5.5897;
723.3000;0.6496;-5.5923;
723.6000;0.6496;-5.5871;
723.9000;0.6488;-5.5897;
724.2000;0.6471;-5.5923;
724.5000;0.6488;-5.5897;
724.8000;0.6479;-5.5923;
725.1000;0.6414;-5.6156;
725.4000;0.6488;-5.5897;
725.7000;0.6479;-5.5923;
726.0000;0.6471;-5.6053;
726.3000;0.6463;-5.6001;
726.6000;0.6528;-5.5871;
726.9000;0.6512;-5.5897;
727.2000;0.6471;-5.5949;
727.5000;0.6471;-5.5923;
727.8000;0.6471;-5.5923;
728.1000;0.6488;-5.5897;
728.4000;0.6455;-5.6001;
728.7000;0.6463;-5.6027;
729.0000;0.6447;-5.6001;
729.3000;0.6471;-5.5949;
729.6000;0.6455;-5.5949;
729.9000;0.6520;-5.5742;
730.2000;0.6447;-5.5845;
730.5000;0.6479;-5.5768;
730.8000;0.6463;-5.5768;
731.1000;0.6471;-5.5794;
731.4000;0.6471;-5.5768;
731.7000;0.6463;-5.5742;
732.0000;0.6439;-5.5819;
732.3000;0.6455;-5.5819;
732.6000;0.6439;-5.5742;
732.9000;0.6455;-5.5716;
733.2000;0.6512;-5.5586;
733.5000;0.6439;-5.5819;
733.8000;0.6431;-5.5871;
734.1000;0.6479;-5.5794;
734.4000;0.6439;-5.5794;
734.7000;0.6439;-5.5845;
735.0000;0.6431;-5.5845;
735.3000;0.6431;-5.5768;
735.6000;0.6439;-5.5845;
735.9000;0.6422;-5.5949;
736.2000;0.6431;-5.5949;
736.5000;0.6439;-5.5923;
736.8000;0.6439;-5.6001;
737.1000;0.6447;-5.5923;
737.4000;0.6406;-5.5975;
737.7000;0.6431;-5.5923;
738.0000;0.6439;-5.5949;
738.3000;0.6398;-5.5975;
738.6000;0.6422;-5.5975;
738.9000;0.6422;-5.6053;
739.2000;0.6422;-5.6027;
739.5000;0.6422;-5.5897;
739.8000;0.6422;-5.5871;
740.1000;0.6431;-5.5845;
740.4000;0.6422;-5.5871;
740.7000;0.6422;-5.5819;
741.0000;0.6398;-5.5768;
741.3000;0.6406;-5.5664;
741.6000;0.6422;-5.5742;
741.9000;0.6431;-5.5742;
742.2000;0.6422;-5.5845;
742.5000;0.6414;-5.5845;
742.8000;0.6398;-5.5845;
743.1000;0.6406;-5.5768;
743.4000;0.6398;-5.5716;
743.7000;0.6398;-5.5690;
744.0000;0.6390;-5.5664;
744.3000;0.6390;-5.5638;
744.6000;0.6398;-5.5612;
744.9000;0.6398;-5.5586;
745.2000;0.6390;-5.5664;
745.5000;0.6374;-5.5768;
745.8000;0.6390;-5.5638;
746.1000;0.6390;-5.5716;
746.4000;0.6382;-5.5794;
746.7000;0.6390;-5.5897;
747.0000;0.6422;-5.5716;
747.3000;0.6382;-5.5845;
747.6000;0.6374;-5.5897;
747.9000;0.6374;-5.5845;
748.2000;0.6374;-5.5949;
748.5000;0.6398;-5.5897;
748.8000;0.6374;-5.5897;
749.1000;0.6374;-5.5897;
749.4000;0.6414;-5.5871;
749.7000;0.6390;-5.5923;
750.0000;0.6309;-5.6001;
750.3000;0.6357;-5.5949;
750.6000;0.6365;-5.5897;
750.9000;0.6439;-5.5716;
751.2000;0.6374;-5.5819;
751.5000;0.6374;-5.5794;
751.8000;0.6406;-5.5794;
752.1000;0.6374;-5.5845;
752.4000;0.6374;-5.5819;
752.7000;0.6365;-5.5897;
753.0000;0.6365;-5.5768;
753.3000;0.6374;-5.5742;
753.6000;0.6349;-5.5690;
753.9000;0.6300;-5.5819;
754.2000;0.6349;-5.5716;
754.5000;0.6349;-5.5664;
754.8000;0.6357;-5.5612;
755.1000;0.6349;-5.5638;
755.4000;0.6382;-5.5535;
755.7000;0.6341;-5.5483;
756.0000;0.6349;-5.5509;
756.3000;0.6349;-5.5431;
756.6000;0.6333;-5.5560;
756.9000;0.6309;-5.5586;
757.2000;0.6349;-5.5483;
757.5000;0.6349;-5.5457;
757.8000;0.6349;-5.5509;
758.1000;0.6333;-5.5586;
758.4000;0.6341;-5.5612;
758.7000;0.6325;-5.5560;
759.0000;0.6333;-5.5586;
759.3000;0.6349;-5.5612;
759.6000;0.6268;-5.5794;
759.9000;0.6333;-5.5638;
760.2000;0.6333;-5.5716;
760.5000;0.6317;-5.5819;
760.8000;0.6333;-5.5742;
761.1000;0.6333;-5.5716;
761.4000;0.6341;-5.5794;
761.7000;0.6325;-5.5794;
762.0000;0.6317;-5.5819;
762.3000;0.6333;-5.5768;
762.6000;0.6382;-5.5690;
762.9000;0.6325;-5.5845;
763.2000;0.6341;-5.5794;
763.5000;0.6333;-5.5794;
763.8000;0.6390;-5.5560;
764.1000;0.6333;-5.5716;
764.4000;0.6300;-5.5716;
764.7000;0.6309;-5.5716;
765.0000;0.6317;-5.5664;
765.3000;0.6309;-5.5742;
765.6000;0.6300;-5.5742;
765.9000;0.6309;-5.5794;
766.2000;0.6317;-5.5819;
766.5000;0.6317;-5.5845;
766.8000;0.6284;-5.5871;
767.1000;0.6276;-5.5923;
767.4000;0.6292;-5.5845;
767.7000;0.6300;-5.5845;
768.0000;0.6317;-5.5871;
768.3000;0.6292;-5.5923;
768.6000;0.6292;-5.5923;
768.9000;0.6292;-5.5871;
769.2000;0.6300;-5.5819;
769.5000;0.6292;-5.5794;
769.8000;0.6268;-5.5819;
770.1000;0.6276;-5.5794;
770.4000;0.6284;-5.5716;
770.7000;0.6268;-5.5716;
771.0000;0.6276;-5.5768;
771.3000;0.6276;-5.5768;
771.6000;0.6276;-5.5794;
771.9000;0.6268;-5.5871;
772.2000;0.6276;-5.5819;
772.5000;0.6292;-5.5768;
772.8000;0.6276;-5.5923;
773.1000;0.6276;-5.6001;
773.4000;0.6268;-5.6027;
773.7000;0.6284;-5.6001;
774.0000;0.6284;-5.6001;
774.3000;0.6284;-5.6001;
774.6000;0.6284;-5.5975;
774.9000;0.6300;-5.5949;
775.2000;0.6276;-5.6027;
775.5000;0.6341;-5.5845;
775.8000;0.6292;-5.5949;
776.1000;0.6276;-5.5923;
776.4000;0.6268;-5.5897;
776.7000;0.6252;-5.5975;
777.0000;0.6276;-5.5871;
777.3000;0.6268;-5.5897;
777.6000;0.6268;-5.5845;
777.9000;0.6227;-5.5949;
778.2000;0.6211;-5.6001;
778.5000;0.6268;-5.5871;
778.8000;0.6227;-5.5871;
779.1000;0.6268;-5.5845;
779.4000;0.6260;-5.5871;
779.7000;0.6365;-5.5612;
780.0000;0.6219;-5.5949;
780.3000;0.6276;-5.5794;
780.6000;0.6235;-5.5845;
780.9000;0.6243;-5.5794;
781.2000;0.6235;-5.5768;
781.5000;0.6235;-5.5819;
781.8000;0.6252;-5.5794;
782.1000;0.6260;-5.5742;
782.4000;0.6235;-5.5768;
782.7000;0.6219;-5.5845;
783.0000;0.6252;-5.5768;
783.3000;0.6252;-5.5819;
783.6000;0.6252;-5.5794;
783.9000;0.6235;-5.5768;
784.2000;0.6243;-5.5768;
784.5000;0.6186;-5.5949;
784.8000;0.6227;-5.5897;
785.1000;0.6309;-5.5768;
785.4000;0.6235;-5.5897;
785.7000;0.6357;-5.5690;
786.0000;0.6227;-5.6027;
786.3000;0.6203;-5.6078;
786.6000;0.6243;-5.5845;
786.9000;0.6243;-5.5819;
787.2000;0.6260;-5.5768;
787.5000;0.6243;-5.5845;
787.8000;0.6268;-5.5742;
788.1000;0.6235;-5.5768;
788.4000;0.6260;-5.5819;
788.7000;0.6219;-5.5897;
789.0000;0.6211;-5.5923;
789.3000;0.6260;-5.5794;
789.6000;0.6211;-5.5845;
789.9000;0.6227;-5.5716;
790.2000;0.6235;-5.5819;
790.5000;0.6219;-5.5845;
790.8000;0.6219;-5.5794;
791.1000;0.6219;-5.5768;
791.4000;0.6195;-5.5819;
791.7000;0.6203;-5.5716;
792.0000;0.6219;-5.5742;
792.3000;0.6203;-5.5845;
792.6000;0.6195;-5.5975;
792.9000;0.6219;-5.5871;
793.2000;0.6211;-5.5768;
793.5000;0.6219;-5.5819;
793.8000;0.6211;-5.5845;
794.1000;0.6219;-5.5819;
794.4000;0.6203;-5.5768;
794.7000;0.6203;-5.5794;
795.0000;0.6227;-5.5690;
795.3000;0.6195;-5.5742;
795.6000;0.6219;-5.5560;
795.9000;0.6219;-5.5612;
796.2000;0.6203;-5.5690;
796.5000;0.6203;-5.5664;
796.8000;0.6211;-5.5690;
797.1000;0.6186;-5.5768;
797.4000;0.6211;-5.5794;
797.7000;0.6186;-5.5819;
798.0000;0.6195;-5.5794;
798.3000;0.6211;-5.5742;
798.6000;0.6219;-5.5742;
798.9000;0.6203;-5.5768;
799.2000;0.6219;-5.5768;
799.5000;0.6203;-5.5845;
799.8000;0.6219;-5.5871;
800.1000;0.6219;-5.5845;
800.4000;0.6195;-5.5923;
800.7000;0.6186;-5.5819;
801.0000;0.6211;-5.5716;
801.3000;0.6219;-5.5768;
801.6000;0.6195;-5.5794;
801.9000;0.6154;-5.5845;
802.2000;0.6203;-5.5819;
802.5000;0.6195;-5.5819;
802.8000;0.6195;-5.5897;
803.1000;0.6195;-5.5768;
803.4000;0.6203;-5.5690;
803.7000;0.6186;-5.5638;
804.0000;0.6162;-5.5768;
804.3000;0.6121;-5.6053;
804.6000;0.6195;-5.5897;
804.9000;0.6170;-5.5845;
805.2000;0.6186;-5.5845;
805.5000;0.6170;-5.5845;
805.8000;0.6186;-5.5768;
806.1000;0.6162;-5.5819;
806.4000;0.6178;-5.5768;
806.7000;0.6170;-5.5794;
807.0000;0.6186;-5.5768;
807.3000;0.6178;-5.5794;
807.6000;0.6186;-5.5794;
807.9000;0.6178;-5.5897;
808.2000;0.6170;-5.6001;
808.5000;0.6146;-5.6078;
808.8000;0.6186;-5.5949;
809.1000;0.6195;-5.5897;
809.4000;0.6186;-5.5871;
809.7000;0.6219;-5.5742;
810.0000;0.6186;-5.5768;
810.3000;0.6170;-5.5742;
810.6000;0.6178;-5.5690;
810.9000;0.6170;-5.5690;
811.2000;0.6178;-5.5794;
811.5000;0.6154;-5.5716;
811.8000;0.6186;-5.5612;
812.1000;0.6186;-5.5638;
812.4000;0.6203;-5.5612;
812.7000;0.6243;-5.5509;
813.0000;0.6178;-5.5664;
813.3000;0.6154;-5.5638;
813.6000;0.6186;-5.5638;
813.9000;0.6178;-5.5586;
814.2000;0.6178;-5.5535;
814.5000;0.6146;-5.5509;
814.8000;0.6178;-5.5509;
815.1000;0.6162;-5.5638;
815.4000;0.6138;-5.5690;
815.7000;0.6146;-5.5690;
816.0000;0.6146;-5.5690;
816.3000;0.6170;-5.5535;
816.6000;0.6170;-5.5509;
816.9000;0.6162;-5.5509;
817.2000;0.6170;-5.5535;
817.5000;0.6211;-5.5483;
817.8000;0.6146;-5.5586;
818.1000;0.6170;-5.5483;
818.4000;0.6146;-5.5560;
818.7000;0.6154;-5.5612;
819.0000;0.6121;-5.5742;
819.3000;0.6138;-5.5664;
819.6000;0.6162;-5.5664;
819.9000;0.6146;-5.5664;
820.2000;0.6129;-5.5664;
820.5000;0.6138;-5.5690;
820.8000;0.6146;-5.5664;
821.1000;0.6138;-5.5664;
821.4000;0.6154;-5.5638;
821.7000;0.6154;-5.5612;
822.0000;0.6146;-5.5690;
822.3000;0.6162;-5.5638;
822.6000;0.6162;-5.5535;
822.9000;0.6154;-5.5483;
823.2000;0.6121;-5.5664;
823.5000;0.6162;-5.5483;
823.8000;0.6178;-5.5379;
824.1000;0.6178;-5.5379;
824.4000;0.6146;-5.5379;
824.7000;0.6138;-5.5431;
825.0000;0.6178;-5.5353;
825.3000;0.6121;-5.5509;
825.6000;0.6138;-5.5586;
825.9000;0.6089;-5.5742;
826.2000;0.6121;-5.5612;
826.5000;0.6129;-5.5483;
826.8000;0.6138;-5.5560;
827.1000;0.6146;-5.5612;
827.4000;0.6129;-5.5690;
827.7000;0.6146;-5.5560;
828.0000;0.6146;-5.5586;
828.3000;0.6203;-5.5405;
828.6000;0.6146;-5.5483;
828.9000;0.6146;-5.5509;
829.2000;0.6146;-5.5509;
829.5000;0.6129;-5.5535;
829.8000;0.6129;-5.5535;
830.1000;0.6138;-5.5586;
830.4000;0.6146;-5.5509;
830.7000;0.6129;-5.5560;
831.0000;0.6113;-5.5638;
831.3000;0.6138;-5.5483;
831.6000;0.6146;-5.5560;
831.9000;0.6138;-5.5560;
832.2000;0.6162;-5.5483;
832.5000;0.6129;-5.5535;
832.8000;0.6129;-5.5560;
833.1000;0.6138;-5.5586;
833.4000;0.6138;-5.5560;
833.7000;0.6129;-5.5560;
834.0000;0.6121;-5.5535;
834.3000;0.6138;-5.5509;
834.6000;0.6056;-5.5690;
834.9000;0.6129;-5.5509;
835.2000;0.6032;-5.5638;
835.5000;0.6146;-5.5405;
835.8000;0.6138;-5.5483;
836.1000;0.6129;-5.5457;
836.4000;0.6138;-5.5509;
836.7000;0.6138;-5.5457;
837.0000;0.6138;-5.5483;
837.3000;0.6113;-5.5457;
837.6000;0.6121;-5.5535;
837.9000;0.6105;-5.5483;
838.2000;0.6121;-5.5431;
838.5000;0.6121;-5.5353;
838.8000;0.6121;-5.5379;
839.1000;0.6121;-5.5457;
839.4000;0.6129;-5.5483;
839.7000;0.6105;-5.5612;
840.0000;0.6089;-5.5690;
840.3000;0.6105;-5.5638;
840.6000;0.6146;-5.5612;
840.9000;0.6129;-5.5612;
841.2000;0.6105;-5.5638;
841.5000;0.6089;-5.5690;
841.8000;0.6113;-5.5483;
842.1000;0.6097;-5.5535;
842.4000;0.6089;-5.5586;
842.7000;0.6089;-5.5483;
843.0000;0.6097;-5.5535;
843.3000;0.6105;-5.5457;
843.6000;0.6113;-5.5431;
843.9000;0.6162;-5.5224;
844.2000;0.6113;-5.5405;
844.5000;0.6113;-5.5483;
844.8000;0.6105;-5.5560;
845.1000;0.6097;-5.5560;
845.4000;0.6121;-5.5483;
845.7000;0.6105;-5.5457;
846.0000;0.6097;-5.5535;
846.3000;0.6105;-5.5483;
846.6000;0.6081;-5.5535;
846.9000;0.6105;-5.5457;
847.2000;0.6089;-5.5457;
847.5000;0.6097;-5.5483;
847.8000;0.6105;-5.5457;
848.1000;0.6081;-5.5431;
848.4000;0.6064;-5.5535;
848.7000;0.6081;-5.5509;
849.0000;0.6097;-5.5431;
849.3000;0.6081;-5.5457;
849.6000;0.6113;-5.5379;
849.9000;0.6154;-5.5250;
850.2000;0.6081;-5.5405;
850.5000;0.6089;-5.5483;
850.8000;0.6105;-5.5509;
851.1000;0.6097;-5.5431;
851.4000;0.6089;-5.5483;
851.7000;0.6072;-5.5431;
852.0000;0.6089;-5.5405;
852.3000;0.6097;-5.5431;
852.6000;0.6097;-5.5509;
852.9000;0.6097;-5.5457;
853.2000;0.6113;-5.5405;
853.5000;0.6097;-5.5457;
853.8000;0.6081;-5.5509;
854.1000;0.6081;-5.5457;
854.4000;0.6097;-5.5379;
854.7000;0.6105;-5.5405;
855.0000;0.6089;-5.5509;
855.3000;0.6081;-5.5483;
855.6000;0.6113;-5.5405;
855.9000;0.6113;-5.5431;
856.2000;0.6138;-5.5327;
856.5000;0.6081;-5.5327;
856.8000;0.6072;-5.5509;
857.1000;0.6097;-5.5379;
857.4000;0.6097;-5.5353;
857.7000;0.6097;-5.5379;
858.0000;0.6089;-5.5353;
858.3000;0.6105;-5.5405;
858.6000;0.6089;-5.5457;
858.9000;0.6081;-5.5457;
859.2000;0.6072;-5.5483;
859.5000;0.6097;-5.5535;
859.8000;0.6097;-5.5586;
860.1000;0.6081;-5.5560;
860.4000;0.6097;-5.5509;
860.7000;0.6089;-5.5509;
861.0000;0.6081;-5.5483;
861.3000;0.6081;-5.5509;
861.6000;0.6064;-5.5535;
861.9000;0.6129;-5.5353;
862.2000;0.6081;-5.5353;
862.5000;0.6064;-5.5353;
862.8000;0.6081;-5.5431;
863.1000;0.6081;-5.5431;
863.4000;0.6081;-5.5560;
863.7000;0.6089;-5.5457;
864.0000;0.6081;-5.5509;
864.3000;0.6064;-5.5586;
864.6000;0.6040;-5.5716;
864.9000;0.6097;-5.5638;
865.2000;0.6072;-5.5612;
865.5000;0.6072;-5.5664;
865.8000;0.6056;-5.5690;
866.1000;0.6089;-5.5664;
866.4000;0.6024;-5.5794;
866.7000;0.6064;-5.5638;
867.0000;0.6056;-5.5586;
867.3000;0.6081;-5.5431;
867.6000;0.6040;-5.5457;
867.9000;0.6064;-5.5405;
868.2000;0.6040;-5.5535;
868.5000;0.6072;-5.5457;
868.8000;0.6056;-5.5483;
869.1000;0.6089;-5.5405;
869.4000;0.6056;-5.5509;
869.7000;0.6072;-5.5483;
870.0000;0.6081;-5.5483;
870.3000;0.6089;-5.5586;
870.6000;0.6064;-5.5586;
870.9000;0.6089;-5.5560;
871.2000;0.6072;-5.5586;
871.5000;0.6081;-5.5509;
871.8000;0.6048;-5.5535;
872.1000;0.6064;-5.5483;
872.4000;0.6056;-5.5483;
872.7000;0.6064;-5.5483;
873.0000;0.6064;-5.5405;
873.3000;0.6056;-5.5457;
873.6000;0.6064;-5.5483;
873.9000;0.6081;-5.5327;
874.2000;0.6064;-5.5457;
874.5000;0.6048;-5.5509;
874.8000;0.6064;-5.5431;
875.1000;0.6056;-5.5457;
875.4000;0.6056;-5.5509;
875.7000;0.6040;-5.5560;
876.0000;0.6048;-5.5483;
876.3000;0.6056;-5.5431;
876.6000;0.6056;-5.5405;
876.9000;0.6040;-5.5379;
877.2000;0.6048;-5.5275;
877.5000;0.6064;-5.5250;
877.8000;0.6064;-5.5250;
878.1000;0.6015;-5.5353;
878.4000;0.6048;-5.5353;
878.7000;0.6015;-5.5431;
879.0000;0.6040;-5.5405;
879.3000;0.6048;-5.5405;
879.6000;0.6040;-5.5431;
879.9000;0.6048;-5.5431;
880.2000;0.6056;-5.5327;
880.5000;0.6048;-5.5353;
880.8000;0.6097;-5.5224;
881.1000;0.6097;-5.5172;
881.4000;0.6056;-5.5301;
881.7000;0.5991;-5.5405;
882.0000;0.6040;-5.5379;
882.3000;0.6015;-5.5457;
882.6000;0.6056;-5.5353;
882.9000;0.6064;-5.5301;
883.2000;0.6056;-5.5327;
883.5000;0.6048;-5.5405;
883.8000;0.6097;-5.5275;
884.1000;0.6056;-5.5353;
884.4000;0.6032;-5.5405;
884.7000;0.6048;-5.5327;
885.0000;0.6048;-5.5405;
885.3000;0.6032;-5.5457;
885.6000;0.6048;-5.5379;
885.9000;0.6032;-5.5483;
886.2000;0.6024;-5.5509;
886.5000;0.6024;-5.5457;
886.8000;0.6048;-5.5379;
887.1000;0.6040;-5.5379;
887.4000;0.6040;-5.5431;
887.7000;0.6048;-5.5301;
888.0000;0.6024;-5.5301;
888.3000;0.6056;-5.5224;
888.6000;0.6024;-5.5250;
888.9000;0.6032;-5.5172;
889.2000;0.6040;-5.5301;
889.5000;0.6048;-5.5353;
889.8000;0.6040;-5.5327;
890.1000;0.6040;-5.5353;
890.4000;0.6040;-5.5275;
890.7000;0.6040;-5.5172;
891.0000;0.6032;-5.5224;
891.3000;0.6032;-5.5301;
891.6000;0.6056;-5.5327;
891.9000;0.6032;-5.5379;
892.2000;0.6024;-5.5379;
892.5000;0.6024;-5.5431;
892.8000;0.6024;-5.5457;
893.1000;0.6024;-5.5457;
893.4000;0.6032;-5.5405;
893.7000;0.6015;-5.5405;
894.0000;0.6032;-5.5431;
894.3000;0.5983;-5.5560;
894.6000;0.6056;-5.5379;
894.9000;0.6032;-5.5483;
895.2000;0.6056;-5.5431;
895.5000;0.6048;-5.5431;
895.8000;0.6040;-5.5457;
896.1000;0.6081;-5.5353;
896.4000;0.6056;-5.5353;
896.7000;0.5991;-5.5535;
897.0000;0.6056;-5.5431;
897.3000;0.6040;-5.5457;
897.6000;0.6040;-5.5431;
897.9000;0.5999;-5.5431;
898.2000;0.6015;-5.5405;
898.5000;0.6040;-5.5275;
898.8000;0.6007;-5.5379;
899.1000;0.6032;-5.5301;
899.4000;0.6040;-5.5250;
899.7000;0.5983;-5.5379;
900.0000;0.6056;-5.5198;
900.3000;0.6032;-5.5327;
900.6000;0.6015;-5.5431;
900.9000;0.6040;-5.5301;
901.2000;0.6015;-5.5301;
901.5000;0.5950;-5.5509;
901.8000;0.5975;-5.5379;
902.1000;0.6015;-5.5301;
902.4000;0.6015;-5.5327;
902.7000;0.6056;-5.5224;
903.0000;0.6024;-5.5353;
903.3000;0.6072;-5.5250;
903.6000;0.6032;-5.5327;
903.9000;0.6040;-5.5353;
904.2000;0.6024;-5.5405;
904.5000;0.6007;-5.5509;
904.8000;0.6007;-5.5509;
905.1000;0.6040;-5.5379;
905.4000;0.6015;-5.5431;
905.7000;0.6040;-5.5301;
906.0000;0.6032;-5.5431;
906.3000;0.6007;-5.5483;
906.6000;0.6015;-5.5457;
906.9000;0.6015;-5.5405;
907.2000;0.6015;-5.5431;
907.5000;0.6024;-5.5379;
907.8000;0.6015;-5.5327;
908.1000;0.6015;-5.5327;
908.4000;0.6024;-5.5250;
908.7000;0.6024;-5.5275;
909.0000;0.6007;-5.5224;
909.3000;0.6007;-5.5120;
909.6000;0.6007;-5.5068;
909.9000;0.5999;-5.5120;
910.2000;0.6015;-5.5172;
910.5000;0.6015;-5.5224;
910.8000;0.6015;-5.5224;
911.1000;0.6007;-5.5224;
911.4000;0.5983;-5.5327;
911.7000;0.6015;-5.5301;
912.0000;0.6007;-5.5301;
912.3000;0.6024;-5.5275;
912.6000;0.6032;-5.5120;
912.9000;0.5991;-5.5224;
913.2000;0.6007;-5.5198;
913.5000;0.6015;-5.5172;
913.8000;0.6015;-5.5198;
914.1000;0.5942;-5.5379;
914.4000;0.6024;-5.5172;
914.7000;0.6040;-5.5172;
915.0000;0.6024;-5.5250;
915.3000;0.6024;-5.5250;
915.6000;0.6024;-5.5327;
915.9000;0.6024;-5.5250;
916.2000;0.6015;-5.5224;
916.5000;0.6007;-5.5301;
916.8000;0.6040;-5.5198;
917.1000;0.6056;-5.5146;
917.4000;0.6024;-5.5224;
917.7000;0.5999;-5.5405;
918.0000;0.6081;-5.5146;
918.3000;0.6015;-5.5250;
918.6000;0.6024;-5.5250;
918.9000;0.6007;-5.5353;
919.2000;0.6015;-5.5353;
919.5000;0.6007;-5.5405;
919.8000;0.5999;-5.5405;
920.1000;0.5999;-5.5327;
920.4000;0.6007;-5.5353;
920.7000;0.5999;-5.5431;
921.0000;0.5991;-5.5431;
921.3000;0.6015;-5.5327;
921.6000;0.6007;-5.5224;
921.9000;0.6007;-5.5224;
922.2000;0.6007;-5.5224;
922.5000;0.5991;-5.5224;
922.8000;0.5999;-5.5146;
923.1000;0.5999;-5.5172;
923.4000;0.6007;-5.5224;
923.7000;0.6007;-5.5301;
924.0000;0.6007;-5.5405;
924.3000;0.5991;-5.5483;
924.6000;0.6007;-5.5483;
924.9000;0.5983;-5.5457;
925.2000;0.6007;-5.5405;
925.5000;0.5991;-5.5327;
925.8000;0.5999;-5.5301;
926.1000;0.6007;-5.5172;
926.4000;0.6015;-5.5172;
926.7000;0.6007;-5.5146;
927.0000;0.6024;-5.5120;
927.3000;0.6007;-5.5146;
927.6000;0.5991;-5.5120;
927.9000;0.5975;-5.5224;
928.2000;0.5975;-5.5146;
928.5000;0.5999;-5.5198;
928.8000;0.5967;-5.5275;
929.1000;0.6007;-5.5250;
929.4000;0.5991;-5.5327;
929.7000;0.5983;-5.5431;
930.0000;0.5983;-5.5353;
930.3000;0.5999;-5.5301;
930.6000;0.5991;-5.5250;
930.9000;0.5991;-5.5120;
931.2000;0.5991;-5.5094;
931.5000;0.5999;-5.5016;
931.8000;0.5991;-5.5042;
932.1000;0.5991;-5.4991;
932.4000;0.5999;-5.5042;
932.7000;0.5983;-5.4991;
933.0000;0.5991;-5.4939;
933.3000;0.5999;-5.5016;
933.6000;0.6032;-5.4965;
933.9000;0.5983;-5.5120;
934.2000;0.5983;-5.5068;
934.5000;0.5983;-5.5120;
934.8000;0.6032;-5.5042;
935.1000;0.5967;-5.5198;
935.4000;0.5983;-5.5120;
935.7000;0.5983;-5.5120;
936.0000;0.5950;-5.5198;
936.3000;0.6015;-5.5016;
936.6000;0.5999;-5.4939;
936.9000;0.5983;-5.4939;
937.2000;0.5926;-5.5068;
937.5000;0.5975;-5.5042;
937.8000;0.5983;-5.4991;
938.1000;0.5991;-5.4939;
938.4000;0.5991;-5.4965;
938.7000;0.6007;-5.5042;
939.0000;0.5983;-5.5146;
939.3000;0.5991;-5.5172;
939.6000;0.5983;-5.5172;
939.9000;0.5983;-5.5120;
940.2000;0.5991;-5.5224;
940.5000;0.5967;-5.5301;
940.8000;0.5975;-5.5327;
941.1000;0.5983;-5.5224;
941.4000;0.5991;-5.5275;
941.7000;0.5983;-5.5224;
942.0000;0.5926;-5.5301;
942.3000;0.5991;-5.5146;
942.6000;0.5991;-5.5120;
942.9000;0.5983;-5.5198;
943.2000;0.6081;-5.5042;
943.5000;0.6007;-5.5172;
943.8000;0.5983;-5.5146;
944.1000;0.5934;-5.5327;
944.4000;0.5983;-5.5198;
944.7000;0.5975;-5.5198;
945.0000;0.5958;-5.5301;
945.3000;0.5942;-5.5301;
945.6000;0.6007;-5.5146;
945.9000;0.5983;-5.5198;
946.2000;0.5958;-5.5301;
946.5000;0.5975;-5.5224;
946.8000;0.5942;-5.5301;
947.1000;0.5967;-5.5198;
947.4000;0.5975;-5.5172;
947.7000;0.5983;-5.5198;
948.0000;0.5991;-5.5250;
948.3000;0.5975;-5.5327;
948.6000;0.5983;-5.5353;
948.9000;0.5975;-5.5353;
949.2000;0.5991;-5.5327;
949.5000;0.6032;-5.5224;
949.8000;0.5942;-5.5405;
950.1000;0.5975;-5.5353;
950.4000;0.5983;-5.5353;
950.7000;0.5926;-5.5483;
951.0000;0.5958;-5.5405;
951.3000;0.5958;-5.5379;
951.6000;0.5958;-5.5353;
951.9000;0.5967;-5.5379;
952.2000;0.5975;-5.5405;
952.5000;0.5975;-5.5379;
952.8000;0.5967;-5.5405;
953.1000;0.5975;-5.5379;
953.4000;0.5975;-5.5327;
953.7000;0.5975;-5.5327;
954.0000;0.5983;-5.5405;
954.3000;0.6007;-5.5275;
954.6000;0.5983;-5.5301;
954.9000;0.5999;-5.5198;
955.2000;0.5975;-5.5172;
955.5000;0.5983;-5.5094;
955.8000;0.5967;-5.5068;
956.1000;0.5967;-5.5042;
956.4000;0.5950;-5.5146;
956.7000;0.5958;-5.5250;
957.0000;0.5975;-5.5327;
957.3000;0.5975;-5.5353;
957.6000;0.5975;-5.5327;
957.9000;0.5975;-5.5405;
958.2000;0.5975;-5.5457;
958.5000;0.5975;-5.5457;
958.8000;0.5958;-5.5457;
959.1000;0.5958;-5.5457;
959.4000;0.5967;-5.5379;
959.7000;0.5983;-5.5379;
960.0000;0.5975;-5.5457;
960.3000;0.5983;-5.5405;
960.6000;0.5991;-5.5301;
960.9000;0.5958;-5.5353;
961.2000;0.5950;-5.5275;
961.5000;0.5967;-5.5301;
961.8000;0.5958;-5.5353;
962.1000;0.5958;-5.5379;
962.4000;0.5958;-5.5405;
962.7000;0.5967;-5.5353;
963.0000;0.5967;-5.5353;
963.3000;0.5967;-5.5327;
963.6000;0.5950;-5.5405;
963.9000;0.5975;-5.5405;
964.2000;0.5958;-5.5457;
964.5000;0.5975;-5.5431;
964.8000;0.5983;-5.5431;
965.1000;0.5950;-5.5483;
965.4000;0.5942;-5.5535;
965.7000;0.5950;-5.5457;
966.0000;0.5975;-5.5353;
966.3000;0.5958;-5.5353;
966.6000;0.5942;-5.5353;
966.9000;0.5942;-5.5353;
967.2000;0.5950;-5.5250;
967.5000;0.5950;-5.5301;
967.8000;0.5967;-5.5224;
968.1000;0.5910;-5.5224;
968.4000;0.5942;-5.5146;
968.7000;0.5958;-5.5172;
969.0000;0.5967;-5.5198;
969.3000;0.5958;-5.5275;
969.6000;0.5958;-5.5327;
969.9000;0.5975;-5.5224;
970.2000;0.5958;-5.5275;
970.5000;0.5958;-5.5379;
970.8000;0.5958;-5.5405;
971.1000;0.5967;-5.5405;
971.4000;0.5942;-5.5483;
971.7000;0.5942;-5.5405;
972.0000;0.5967;-5.5327;
972.3000;0.5967;-5.5275;
972.6000;0.5958;-5.5250;
972.9000;0.5967;-5.5250;
973.2000;0.5975;-5.5224;
973.5000;0.5967;-5.5275;
973.8000;0.5958;-5.5327;
974.1000;0.5950;-5.5379;
974.4000;0.5942;-5.5379;
974.7000;0.5958;-5.5275;
975.0000;0.5967;-5.5198;
975.3000;0.5958;-5.5224;
975.6000;0.5958;-5.5301;
975.9000;0.5967;-5.5405;
976.2000;0.5950;-5.5353;
976.5000;0.5958;-5.5301;
976.8000;0.5942;-5.5353;
977.1000;0.5950;-5.5405;
977.4000;0.5983;-5.5301;
977.7000;0.5958;-5.5275;
978.0000;0.5958;-5.5250;
978.3000;0.5958;-5.5327;
978.6000;0.5958;-5.5431;
978.9000;0.5958;-5.5379;
979.2000;0.5958;-5.5431;
979.5000;0.5958;-5.5379;
979.8000;0.5950;-5.5379;
980.1000;0.5950;-5.5379;
980.4000;0.5967;-5.5327;
980.7000;0.5934;-5.5379;
981.0000;0.5942;-5.5353;
981.3000;0.5942;-5.5301;
981.6000;0.5950;-5.5301;
981.9000;0.5950;-5.5275;
982.2000;0.5942;-5.5146;
982.5000;0.5950;-5.5120;
982.8000;0.5950;-5.5146;
983.1000;0.5942;-5.5198;
983.4000;0.5893;-5.5301;
983.7000;0.5942;-5.5198;
984.0000;0.5942;-5.5198;
984.3000;0.5950;-5.5120;
984.6000;0.5942;-5.5198;
984.9000;0.5942;-5.5250;
985.2000;0.5950;-5.5250;
985.5000;0.5950;-5.5275;
985.8000;0.5958;-5.5301;
986.1000;0.5950;-5.5275;
986.4000;0.5950;-5.5353;
986.7000;0.5967;-5.5353;
987.0000;0.5942;-5.5327;
987.3000;0.5950;-5.5327;
987.6000;0.5958;-5.5275;
987.9000;0.5950;-5.5275;
988.2000;0.5950;-5.5172;
988.5000;0.5950;-5.5250;
988.8000;0.5958;-5.5275;
989.1000;0.5958;-5.5250;
989.4000;0.5958;-5.5198;
989.7000;0.5942;-5.5172;
990.0000;0.5983;-5.5068;
990.3000;0.5958;-5.5224;
990.6000;0.5942;-5.5224;
990.9000;0.5942;-5.5224;
991.2000;0.5999;-5.5172;
991.5000;0.5902;-5.5379;
991.8000;0.5950;-5.5353;
992.1000;0.5942;-5.5301;
992.4000;0.5934;-5.5275;
992.7000;0.5934;-5.5275;
993.0000;0.5934;-5.5172;
993.3000;0.5942;-5.5198;
993.6000;0.5950;-5.5172;
993.9000;0.5967;-5.5172;
994.2000;0.5950;-5.5224;
994.5000;0.5958;-5.5224;
994.8000;0.5958;-5.5146;
995.1000;0.5958;-5.5146;
995.4000;0.5942;-5.5224;
995.7000;0.5934;-5.5275;
996.0000;0.5950;-5.5094;
996.3000;0.5934;-5.5146;
996.6000;0.6024;-5.5042;
996.9000;0.5942;-5.5172;
997.2000;0.5950;-5.5146;
997.5000;0.5950;-5.5146;
997.8000;0.5910;-5.5301;
998.1000;0.5934;-5.5120;
998.4000;0.5926;-5.5146;
998.7000;0.5942;-5.5120;
999.0000;0.5950;-5.5172;
999.3000;0.5926;-5.5198;
999.6000;0.5934;-5.5172;
999.9000;0.5934;-5.5146;
1000.2000;0.5926;-5.5094;
1000.5000;0.5934;-5.5068;
1000.8000;0.5926;-5.5068;
1001.1000;0.5910;-5.5016;
1001.4000;0.5918;-5.5042;
1001.7000;0.5926;-5.5042;
1002.0000;0.5926;-5.5120;
1002.3000;0.5942;-5.5198;
1002.6000;0.5926;-5.5250;
1002.9000;0.5910;-5.5405;
1003.2000;0.5918;-5.5275;
1003.5000;0.5910;-5.5275;
1003.8000;0.5918;-5.5224;
1004.1000;0.5934;-5.5172;
1004.4000;0.5942;-5.5172;
1004.7000;0.5934;-5.5172;
1005.0000;0.5926;-5.5250;
1005.3000;0.5918;-5.5224;
1005.6000;0.5934;-5.5250;
1005.9000;0.5942;-5.5198;
1006.2000;0.5975;-5.5068;
1006.5000;0.5918;-5.5146;
1006.8000;0.5926;-5.5146;
1007.1000;0.5942;-5.5068;
1007.4000;0.5934;-5.5120;
1007.7000;0.5942;-5.5068;
1008.0000;0.5942;-5.5042;
1008.3000;0.5934;-5.5068;
1008.6000;0.5934;-5.5016;
1008.9000;0.5934;-5.5068;
1009.2000;0.5934;-5.5068;
1009.5000;0.5934;-5.5094;
1009.8000;0.5926;-5.5016;
1010.1000;0.5926;-5.5042;
1010.4000;0.5902;-5.5120;
1010.7000;0.5893;-5.5224;
1011.0000;0.5910;-5.5198;
1011.3000;0.5950;-5.5042;
1011.6000;0.5934;-5.5120;
1011.9000;0.5926;-5.5172;
1012.2000;0.5950;-5.5120;
1012.5000;0.5942;-5.5146;
1012.8000;0.5926;-5.5198;
1013.1000;0.5893;-5.5224;
1013.4000;0.5918;-5.5094;
1013.7000;0.5958;-5.4991;
1014.0000;0.5869;-5.5250;
1014.3000;0.5934;-5.5042;
1014.6000;0.5934;-5.4991;
1014.9000;0.5926;-5.4965;
1015.2000;0.5918;-5.5016;
1015.5000;0.5910;-5.5094;
1015.8000;0.5926;-5.5120;
1016.1000;0.5934;-5.5068;
1016.4000;0.5910;-5.5120;
1016.7000;0.5958;-5.5042;
1017.0000;0.5934;-5.5094;
1017.3000;0.5918;-5.5120;
1017.6000;0.5934;-5.5146;
1017.9000;0.5902;-5.5224;
1018.2000;0.5918;-5.5120;
1018.5000;0.5861;-5.5198;
1018.8000;0.5910;-5.5094;
1019.1000;0.5926;-5.5068;
1019.4000;0.5926;-5.5068;
1019.7000;0.5942;-5.5016;
1020.0000;0.5918;-5.5094;
1020.3000;0.5918;-5.5120;
1020.6000;0.5918;-5.5172;
1020.9000;0.5934;-5.5146;
1021.2000;0.5902;-5.5172;
1021.5000;0.5902;-5.5250;
1021.8000;0.5926;-5.5146;
1022.1000;0.5958;-5.5120;
1022.4000;0.5926;-5.5224;
1022.7000;0.5926;-5.5301;
1023.0000;0.5926;-5.5301;
1023.3000;0.5926;-5.5301;
1023.6000;0.5926;-5.5275;
1023.9000;0.5934;-5.5301;
1024.2000;0.5910;-5.5353;
1024.5000;0.5926;-5.5301;
1024.8000;0.5910;-5.5275;
1025.1000;0.5918;-5.5224;
1025.4000;0.5934;-5.5275;
1025.7000;0.5902;-5.5327;
1026.0000;0.5877;-5.5353;
1026.3000;0.5926;-5.5379;
1026.6000;0.5934;-5.5301;
1026.9000;0.5918;-5.5275;
1027.2000;0.5902;-5.5353;
1027.5000;0.5910;-5.5327;
1027.8000;0.5926;-5.5405;
1028.1000;0.5918;-5.5405;
1028.4000;0.5918;-5.5353;
1028.7000;0.5902;-5.5379;
1029.0000;0.5910;-5.5275;
1029.3000;0.5910;-5.5353;
1029.6000;0.5918;-5.5275;
1029.9000;0.5902;-5.5327;
1030.2000;0.5902;-5.5353;
1030.5000;0.5975;-5.5172;
1030.8000;0.5918;-5.5379;
1031.1000;0.5926;-5.5379;
1031.4000;0.5926;-5.5353;
1031.7000;0.5861;-5.5483;
1032.0000;0.5926;-5.5327;
1032.3000;0.5869;-5.5431;
1032.6000;0.5910;-5.5353;
1032.9000;0.5910;-5.5379;
1033.2000;0.5902;-5.5405;
1033.5000;0.5918;-5.5353;
1033.8000;0.5918;-5.5353;
1034.1000;0.5902;-5.5405;
1034.4000;0.5910;-5.5379;
1034.7000;0.5902;-5.5172;
1035.0000;0.5910;-5.5224;
1035.3000;0.5902;-5.5172;
1035.6000;0.5910;-5.5172;
1035.9000;0.5910;-5.5146;
1036.2000;0.5958;-5.4939;
1036.5000;0.5934;-5.5016;
1036.8000;0.5893;-5.5120;
1037.1000;0.5926;-5.5120;
1037.4000;0.5926;-5.5172;
1037.7000;0.5918;-5.5198;
1038.0000;0.5950;-5.5120;
1038.3000;0.5918;-5.5250;
1038.6000;0.5926;-5.5172;
1038.9000;0.5918;-5.5224;
1039.2000;0.5893;-5.5353;
1039.5000;0.5918;-5.5405;
1039.8000;0.5910;-5.5431;
1040.1000;0.5910;-5.5405;
1040.4000;0.5902;-5.5379;
1040.7000;0.5910;-5.5379;
1041.0000;0.5918;-5.5327;
1041.3000;0.5902;-5.5431;
1041.6000;0.5926;-5.5327;
1041.9000;0.5853;-5.5560;
1042.2000;0.5910;-5.5353;
1042.5000;0.5958;-5.5353;
1042.8000;0.5934;-5.5379;
1043.1000;0.5934;-5.5327;
1043.4000;0.5910;-5.5250;
1043.7000;0.5885;-5.5198;
1044.0000;0.5918;-5.5146;
1044.3000;0.5910;-5.5224;
1044.6000;0.5910;-5.5301;
1044.9000;0.5918;-5.5224;
1045.2000;0.5934;-5.5250;
1045.5000;0.5926;-5.5224;
1045.8000;0.5910;-5.5250;
1046.1000;0.5910;-5.5224;
1046.4000;0.5910;-5.5172;
1046.7000;0.5918;-5.5275;
1047.0000;0.5902;-5.5327;
1047.3000;0.5934;-5.5250;
1047.6000;0.5918;-5.5353;
1047.9000;0.5918;-5.5483;
1048.2000;0.5885;-5.5509;
1048.5000;0.5893;-5.5535;
1048.8000;0.5902;-5.5483;
1049.1000;0.5902;-5.5431;
1049.4000;0.5885;-5.5379;
1049.7000;0.5869;-5.5301;
1050.0000;0.5885;-5.5250;
1050.3000;0.5885;-5.5250;
1050.6000;0.5893;-5.5275;
1050.9000;0.5885;-5.5250;
1051.2000;0.5918;-5.5120;
1051.5000;0.5893;-5.5172;
1051.8000;0.5902;-5.5146;
1052.1000;0.5877;-5.5250;
1052.4000;0.5958;-5.4991;
1052.7000;0.5926;-5.5068;
1053.0000;0.5950;-5.4991;
1053.3000;0.5902;-5.5172;
1053.6000;0.5828;-5.5379;
1053.9000;0.5893;-5.5146;
1054.2000;0.5934;-5.5016;
1054.5000;0.5902;-5.5146;
1054.8000;0.5885;-5.5172;
1055.1000;0.5918;-5.5224;
1055.4000;0.5902;-5.5275;
1055.7000;0.5918;-5.5275;
1056.0000;0.5893;-5.5275;
1056.3000;0.5934;-5.5301;
1056.6000;0.5902;-5.5353;
1056.9000;0.5918;-5.5327;
1057.2000;0.5910;-5.5250;
1057.5000;0.5918;-5.5250;
1057.8000;0.5975;-5.5146;
1058.1000;0.5918;-5.5275;
1058.4000;0.5885;-5.5275;
1058.7000;0.5861;-5.5301;
1059.0000;0.5910;-5.5146;
1059.3000;0.5877;-5.5275;
1059.6000;0.5877;-5.5327;
1059.9000;0.5902;-5.5301;
1060.2000;0.5918;-5.5250;
1060.5000;0.5918;-5.5224;
1060.8000;0.5893;-5.5250;
1061.1000;0.5942;-5.5094;
1061.4000;0.5910;-5.5198;
1061.7000;0.5902;-5.5172;
1062.0000;0.5902;-5.5275;
1062.3000;0.5893;-5.5275;
1062.6000;0.5893;-5.5172;
1062.9000;0.5902;-5.5224;
1063.2000;0.5893;-5.5224;
1063.5000;0.5885;-5.5224;
1063.8000;0.5877;-5.5327;
1064.1000;0.5885;-5.5224;
1064.4000;0.5893;-5.5120;
1064.7000;0.5885;-5.5094;
1065.0000;0.5885;-5.5146;
1065.3000;0.5893;-5.5172;
1065.6000;0.5877;-5.5275;
1065.9000;0.5910;-5.5172;
1066.2000;0.5902;-5.5146;
1066.5000;0.5902;-5.5120;
1066.8000;0.5910;-5.5068;
1067.1000;0.5893;-5.5120;
1067.4000;0.5893;-5.5120;
1067.7000;0.5893;-5.5120;
1068.0000;0.5902;-5.5146;
1068.3000;0.5893;-5.5198;
1068.6000;0.5877;-5.5224;
1068.9000;0.5861;-5.5301;
1069.2000;0.5885;-5.5172;
1069.5000;0.5902;-5.5146;
1069.8000;0.5918;-5.5120;
1070.1000;0.5902;-5.5120;
1070.4000;0.5902;-5.5042;
1070.7000;0.5918;-5.5068;
1071.0000;0.5910;-5.5042;
1071.3000;0.5934;-5.4913;
1071.6000;0.5893;-5.5016;
1071.9000;0.5910;-5.5016;
1072.2000;0.5893;-5.5016;
1072.5000;0.5877;-5.5068;
1072.8000;0.5861;-5.5146;
1073.1000;0.5910;-5.4965;
1073.4000;0.5926;-5.4939;
1073.7000;0.5877;-5.5042;
1074.0000;0.5885;-5.4991;
1074.3000;0.5869;-5.4965;
1074.6000;0.5885;-5.4887;
1074.9000;0.5869;-5.4887;
1075.2000;0.5820;-5.4991;
1075.5000;0.5885;-5.4861;
1075.8000;0.5958;-5.4757;
1076.1000;0.5885;-5.4939;
1076.4000;0.5877;-5.5042;
1076.7000;0.5885;-5.5016;
1077.0000;0.5902;-5.5016;
1077.3000;0.5910;-5.4939;
1077.6000;0.5861;-5.5068;
1077.9000;0.5885;-5.5042;
1078.2000;0.5918;-5.4965;
1078.5000;0.5885;-5.4965;
1078.8000;0.5942;-5.4809;
1079.1000;0.5893;-5.4965;
1079.4000;0.5893;-5.4965;
1079.7000;0.5902;-5.4965;
1080.0000;0.5885;-5.4939;
1080.3000;0.5877;-5.4991;
1080.6000;0.5902;-5.4965;
1080.9000;0.5877;-5.5068;
1081.2000;0.5885;-5.5042;
1081.5000;0.5885;-5.5042;
1081.8000;0.5926;-5.4913;
1082.1000;0.5893;-5.4809;
1082.4000;0.5893;-5.4861;
1082.7000;0.5902;-5.4783;
1083.0000;0.5885;-5.4783;
1083.3000;0.5910;-5.4757;
1083.6000;0.5853;-5.4991;
1083.9000;0.5893;-5.5016;
1084.2000;0.5918;-5.4939;
1084.5000;0.5885;-5.4939;
1084.8000;0.5877;-5.4887;
1085.1000;0.5885;-5.4861;
1085.4000;0.5869;-5.4861;
1085.7000;0.5893;-5.4835;
1086.0000;0.5877;-5.4861;
1086.3000;0.5885;-5.4835;
1086.6000;0.5853;-5.4887;
1086.9000;0.5869;-5.4861;
1087.2000;0.5877;-5.4861;
1087.5000;0.5910;-5.4783;
1087.8000;0.5885;-5.4887;
1088.1000;0.5967;-5.4680;
1088.4000;0.5893;-5.4861;
1088.7000;0.5836;-5.4965;
1089.0000;0.5877;-5.4861;
1089.3000;0.5877;-5.4861;
1089.6000;0.5885;-5.4861;
1089.9000;0.5877;-5.4887;
1090.2000;0.5902;-5.4991;
1090.5000;0.5893;-5.4965;
1090.8000;0.5877;-5.4991;
1091.1000;0.5902;-5.4939;
1091.4000;0.5893;-5.4965;
1091.7000;0.5877;-5.5016;
1092.0000;0.5885;-5.4991;
1092.3000;0.5902;-5.4939;
1092.6000;0.5902;-5.4965;
1092.9000;0.5893;-5.4991;
1093.2000;0.5902;-5.4965;
1093.5000;0.5902;-5.4939;
1093.8000;0.5869;-5.4939;
1094.1000;0.5885;-5.4861;
1094.4000;0.5885;-5.4861;
1094.7000;0.5885;-5.4861;
1095.0000;0.5869;-5.4887;
1095.3000;0.5877;-5.4887;
1095.6000;0.5885;-5.4965;
1095.9000;0.5812;-5.5146;
1096.2000;0.5885;-5.4913;
1096.5000;0.5877;-5.4991;
1096.8000;0.5877;-5.5042;
1097.1000;0.5869;-5.4991;
1097.4000;0.5885;-5.4991;
1097.7000;0.5869;-5.4913;
1098.0000;0.5885;-5.4913;
1098.3000;0.5861;-5.5042;
1098.6000;0.5885;-5.5042;
1098.9000;0.5893;-5.4991;
1099.2000;0.5926;-5.4991;
1099.5000;0.5885;-5.5016;
1099.8000;0.5845;-5.5120;
1100.1000;0.5893;-5.5042;
1100.4000;0.5885;-5.5068;
1100.7000;0.5877;-5.5094;
1101.0000;0.5877;-5.5120;
1101.3000;0.5877;-5.5094;
1101.6000;0.5877;-5.5120;
1101.9000;0.5885;-5.5094;
1102.2000;0.5877;-5.5094;
1102.5000;0.5885;-5.4991;
1102.8000;0.5885;-5.4965;
1103.1000;0.5861;-5.5016;
1103.4000;0.5885;-5.4991;
1103.7000;0.5942;-5.4783;
1104.0000;0.5877;-5.4965;
1104.3000;0.5877;-5.5042;
1104.6000;0.5828;-5.5120;
1104.9000;0.5910;-5.4861;
1105.2000;0.5950;-5.4809;
1105.5000;0.5861;-5.5068;
1105.8000;0.5877;-5.4991;
1106.1000;0.5869;-5.4965;
1106.4000;0.5967;-5.4757;
1106.7000;0.5877;-5.5016;
1107.0000;0.5812;-5.5275;
1107.3000;0.5869;-5.4991;
1107.6000;0.5861;-5.4965;
1107.9000;0.5877;-5.4965;
1108.2000;0.5861;-5.4887;
1108.5000;0.5861;-5.4887;
1108.8000;0.5877;-5.4887;
1109.1000;0.5869;-5.4887;
1109.4000;0.5877;-5.4835;
1109.7000;0.5893;-5.4783;
1110.0000;0.5885;-5.4757;
1110.3000;0.5885;-5.4809;
1110.6000;0.5902;-5.4861;
1110.9000;0.5877;-5.4965;
1111.2000;0.5869;-5.4991;
1111.5000;0.5869;-5.5042;
1111.8000;0.5877;-5.4913;
1112.1000;0.5885;-5.4913;
1112.4000;0.5877;-5.4861;
1112.7000;0.5861;-5.4861;
1113.0000;0.5885;-5.4732;
1113.3000;0.5869;-5.4783;
1113.6000;0.5885;-5.4783;
1113.9000;0.5885;-5.4861;
1114.2000;0.5877;-5.4783;
1114.5000;0.5885;-5.4887;
1114.8000;0.5877;-5.4913;
1115.1000;0.5918;-5.4835;
1115.4000;0.5877;-5.4887;
1115.7000;0.5885;-5.4861;
1116.0000;0.5877;-5.4939;
1116.3000;0.5885;-5.4965;
1116.6000;0.5885;-5.5016;
1116.9000;0.5828;-5.5120;
1117.2000;0.5853;-5.4991;
1117.5000;0.5861;-5.4991;
1117.8000;0.5885;-5.4861;
1118.1000;0.5877;-5.4939;
1118.4000;0.5885;-5.4965;
1118.7000;0.5869;-5.5068;
1119.0000;0.5885;-5.5094;
1119.3000;0.5885;-5.5068;
1119.6000;0.5869;-5.5146;
1119.9000;0.5861;-5.5172;
1120.2000;0.5877;-5.5094;
1120.5000;0.5885;-5.5120;
1120.8000;0.5869;-5.5224;
1121.1000;0.5853;-5.5146;
1121.4000;0.5918;-5.4991;
1121.7000;0.5861;-5.5094;
1122.0000;0.5869;-5.5016;
1122.3000;0.5877;-5.5042;
1122.6000;0.5836;-5.5146;
1122.9000;0.5861;-5.4991;
1123.2000;0.5877;-5.4965;
1123.5000;0.5877;-5.5120;
1123.8000;0.5869;-5.5016;
1124.1000;0.5820;-5.5068;
1124.4000;0.5861;-5.5094;
1124.7000;0.5910;-5.4913;
1125.0000;0.5893;-5.4991;
1125.3000;0.5853;-5.5172;
1125.6000;0.5861;-5.5146;
1125.9000;0.5877;-5.4965;
1126.2000;0.5869;-5.4991;
1126.5000;0.5853;-5.5016;
1126.8000;0.5845;-5.5068;
1127.1000;0.5934;-5.4913;
1127.4000;0.5861;-5.5094;
1127.7000;0.5845;-5.5172;
1128.0000;0.5893;-5.5016;
1128.3000;0.5926;-5.4991;
1128.6000;0.5869;-5.5068;
1128.9000;0.5869;-5.5016;
1129.2000;0.5853;-5.5016;
1129.5000;0.5877;-5.4939;
1129.8000;0.5877;-5.4939;
1130.1000;0.5918;-5.4835;
1130.4000;0.5869;-5.5120;
1130.7000;0.5869;-5.5146;
1131.0000;0.5877;-5.5146;
1131.3000;0.5861;-5.5042;
1131.6000;0.5845;-5.5016;
1131.9000;0.5836;-5.5094;
1132.2000;0.5934;-5.4965;
1132.5000;0.5869;-5.5224;
1132.8000;0.5869;-5.5301;
1133.1000;0.5853;-5.5275;
1133.4000;0.5877;-5.5172;
1133.7000;0.5861;-5.5275;
1134.0000;0.5861;-5.5224;
1134.3000;0.5877;-5.5224;
1134.6000;0.5853;-5.5353;
1134.9000;0.5918;-5.5224;
1135.2000;0.5869;-5.5275;
1135.5000;0.5853;-5.5275;
1135.8000;0.5869;-5.5224;
1136.1000;0.5861;-5.5146;
1136.4000;0.5861;-5.5146;
1136.7000;0.5877;-5.5016;
1137.0000;0.5869;-5.4887;
1137.3000;0.5877;-5.4835;
1137.6000;0.5869;-5.4887;
1137.9000;0.5861;-5.4887;
1138.2000;0.5877;-5.4783;
1138.5000;0.5877;-5.4835;
1138.8000;0.5869;-5.4861;
1139.1000;0.5869;-5.4913;
1139.4000;0.5869;-5.4913;
1139.7000;0.5861;-5.4965;
1140.0000;0.5869;-5.4861;
1140.3000;0.5877;-5.4861;
1140.6000;0.5877;-5.4809;
1140.9000;0.5861;-5.4835;
1141.2000;0.5885;-5.4809;
1141.5000;0.5845;-5.4809;
1141.8000;0.5828;-5.4887;
1142.1000;0.5836;-5.4887;
1142.4000;0.5853;-5.4861;
1142.7000;0.5861;-5.4809;
1143.0000;0.5845;-5.4913;
1143.3000;0.5845;-5.4939;
1143.6000;0.5877;-5.4887;
1143.9000;0.5845;-5.4913;
1144.2000;0.5836;-5.4991;
1144.5000;0.5861;-5.4939;
1144.8000;0.5836;-5.5068;
1145.1000;0.5861;-5.5042;
1145.4000;0.5853;-5.5094;
1145.7000;0.5861;-5.5120;
1146.0000;0.5853;-5.5094;
1146.3000;0.5926;-5.4991;
1146.6000;0.5845;-5.5275;
1146.9000;0.5845;-5.5224;
1147.2000;0.5853;-5.5224;
1147.5000;0.5861;-5.5198;
1147.8000;0.5869;-5.5172;
1148.1000;0.5853;-5.5275;
1148.4000;0.5853;-5.5250;
1148.7000;0.5861;-5.5094;
1149.0000;0.5902;-5.5016;
1149.3000;0.5853;-5.5068;
1149.6000;0.5902;-5.4939;
1149.9000;0.5861;-5.5042;
1150.2000;0.5845;-5.5198;
1150.5000;0.5853;-5.5198;
1150.8000;0.5853;-5.5224;
1151.1000;0.5869;-5.5146;
1151.4000;0.5869;-5.5146;
1151.7000;0.5853;-5.5068;
1152.0000;0.5853;-5.5016;
1152.3000;0.5861;-5.4913;
1152.6000;0.5877;-5.4835;
1152.9000;0.5861;-5.4861;
1153.2000;0.5853;-5.4965;
1153.5000;0.5869;-5.5016;
1153.8000;0.5853;-5.5016;
1154.1000;0.5934;-5.4913;
1154.4000;0.5861;-5.4965;
1154.7000;0.5869;-5.5068;
1155.0000;0.5869;-5.5016;
1155.3000;0.5877;-5.5068;
1155.6000;0.5869;-5.5120;
1155.9000;0.5853;-5.5146;
1156.2000;0.5853;-5.5068;
1156.5000;0.5877;-5.4965;
1156.8000;0.5861;-5.4991;
1157.1000;0.5836;-5.5042;
1157.4000;0.5869;-5.4965;
1157.7000;0.5861;-5.5016;
1158.0000;0.5861;-5.5094;
1158.3000;0.5853;-5.5068;
1158.6000;0.5861;-5.5068;
1158.9000;0.5836;-5.5094;
1159.2000;0.5869;-5.4965;
1159.5000;0.5861;-5.4965;
1159.8000;0.5902;-5.4861;
1160.1000;0.5861;-5.4965;
1160.4000;0.5845;-5.4939;
1160.7000;0.5861;-5.4913;
1161.0000;0.5845;-5.4965;
1161.3000;0.5869;-5.4939;
1161.6000;0.5861;-5.5016;
1161.9000;0.5853;-5.4991;
1162.2000;0.5853;-5.5016;
1162.5000;0.5869;-5.4913;
1162.8000;0.5836;-5.5016;
1163.1000;0.5869;-5.5042;
1163.4000;0.5845;-5.5068;
1163.7000;0.5853;-5.5016;
1164.0000;0.5861;-5.5016;
1164.3000;0.5861;-5.4991;
1164.6000;0.5836;-5.5068;
1164.9000;0.5877;-5.5042;
1165.2000;0.5845;-5.5094;
1165.5000;0.5853;-5.5094;
1165.8000;0.5861;-5.5094;
1166.1000;0.5926;-5.4939;
1166.4000;0.5861;-5.4991;
1166.7000;0.5885;-5.4939;
1167.0000;0.5877;-5.4939;
1167.3000;0.5861;-5.4965;
1167.6000;0.5828;-5.5016;
1167.9000;0.5861;-5.4887;
1168.2000;0.5853;-5.4809;
1168.5000;0.5836;-5.4887;
1168.8000;0.5861;-5.4835;
1169.1000;0.5861;-5.4809;
1169.4000;0.5942;-5.4706;
1169.7000;0.5836;-5.4861;
1170.0000;0.5877;-5.4783;
1170.3000;0.5861;-5.4835;
1170.6000;0.5869;-5.4861;
1170.9000;0.5845;-5.4965;
1171.2000;0.5861;-5.4991;
1171.5000;0.5861;-5.4965;
1171.8000;0.5869;-5.5042;
1172.1000;0.5836;-5.5198;
1172.4000;0.5836;-5.5198;
1172.7000;0.5918;-5.4965;
1173.0000;0.5869;-5.5068;
1173.3000;0.5885;-5.4991;
1173.6000;0.5845;-5.5172;
1173.9000;0.5861;-5.5224;
1174.2000;0.5861;-5.5120;
1174.5000;0.5861;-5.5094;
1174.8000;0.5869;-5.5016;
1175.1000;0.5877;-5.4965;
1175.4000;0.5877;-5.4991;
1175.7000;0.5853;-5.5068;
1176.0000;0.5869;-5.5068;
1176.3000;0.5861;-5.5094;
1176.6000;0.5853;-5.5094;
1176.9000;0.5861;-5.5094;
1177.2000;0.5926;-5.4965;
1177.5000;0.5845;-5.5146;
1177.8000;0.5861;-5.5146;
1178.1000;0.5869;-5.5094;
1178.4000;0.5853;-5.5094;
1178.7000;0.5861;-5.5068;
1179.0000;0.5869;-5.5016;
1179.3000;0.5869;-5.5068;
1179.6000;0.5788;-5.5353;
1179.9000;0.5845;-5.5094;
1180.2000;0.5845;-5.5068;
1180.5000;0.5845;-5.5016;
1180.8000;0.5942;-5.4706;
1181.1000;0.5845;-5.4965;
1181.4000;0.5853;-5.4913;
1181.7000;0.5836;-5.4887;
1182.0000;0.5869;-5.4887;
1182.3000;0.5853;-5.4887;
1182.6000;0.5853;-5.4939;
1182.9000;0.5853;-5.4887;
1183.2000;0.5861;-5.4913;
1183.5000;0.5869;-5.4965;
1183.8000;0.5845;-5.5068;
1184.1000;0.5853;-5.5094;
1184.4000;0.5853;-5.5198;
1184.7000;0.5788;-5.5327;
1185.0000;0.5861;-5.5094;
1185.3000;0.5853;-5.5094;
1185.6000;0.5861;-5.5068;
1185.9000;0.5861;-5.5094;
1186.2000;0.5845;-5.5146;
1186.5000;0.5853;-5.5198;
1186.8000;0.5845;-5.5301;
1187.1000;0.5869;-5.5224;
1187.4000;0.5845;-5.5301;
1187.7000;0.5845;-5.5301;
1188.0000;0.5845;-5.5301;
1188.3000;0.5861;-5.5224;
1188.6000;0.5853;-5.5172;
1188.9000;0.5845;-5.5224;
1189.2000;0.5836;-5.5198;
1189.5000;0.5869;-5.5120;
1189.8000;0.5828;-5.5094;
1190.1000;0.5820;-5.5120;
1190.4000;0.5845;-5.5120;
1190.7000;0.5918;-5.4913;
1191.0000;0.5853;-5.5042;
1191.3000;0.5910;-5.4887;
1191.6000;0.5828;-5.5172;
1191.9000;0.5836;-5.5068;
1192.2000;0.5861;-5.5068;
1192.5000;0.5861;-5.5042;
1192.8000;0.5853;-5.5120;
1193.1000;0.5845;-5.5146;
1193.4000;0.5845;-5.5120;
1193.7000;0.5828;-5.5172;
1194.0000;0.5804;-5.5224;
1194.3000;0.5845;-5.5094;
1194.6000;0.5885;-5.5042;
1194.9000;0.5885;-5.5068;
1195.2000;0.5853;-5.5094;
1195.5000;0.5812;-5.5146;
1195.8000;0.5845;-5.5016;
1196.1000;0.5861;-5.5016;
1196.4000;0.5853;-5.5068;
1196.7000;0.5853;-5.5120;
1197.0000;0.5812;-5.5146;
1197.3000;0.5926;-5.4835;
1197.6000;0.5853;-5.5068;
1197.9000;0.5853;-5.5042;
1198.2000;0.5845;-5.4991;
1198.5000;0.5861;-5.4991;
1198.8000;0.5845;-5.5120;
1199.1000;0.5845;-5.5094;
1199.4000;0.5845;-5.5042;
1199.7000;0.5828;-5.5146;
1200.0000;0.5853;-5.5068;
1200.3000;0.5861;-5.4965;
1200.6000;0.5828;-5.5068;
1200.9000;0.5853;-5.5016;
1201.2000;0.5845;-5.5068;
1201.5000;0.5877;-5.5016;
1201.8000;0.5828;-5.5068;
1202.1000;0.5836;-5.5042;
1202.4000;0.5869;-5.5042;
1202.7000;0.5820;-5.5198;
1203.0000;0.5869;-5.5120;
1203.3000;0.5853;-5.5120;
1203.6000;0.5877;-5.4939;
1203.9000;0.5853;-5.5042;
1204.2000;0.5918;-5.4887;
1204.5000;0.5820;-5.5068;
1204.8000;0.5836;-5.4965;
1205.1000;0.5861;-5.5016;
1205.4000;0.5845;-5.5172;
1205.7000;0.5845;-5.5120;
1206.0000;0.5853;-5.5068;
1206.3000;0.5836;-5.5198;
1206.6000;0.5853;-5.5198;
1206.9000;0.5845;-5.5301;
1207.2000;0.5845;-5.5301;
1207.5000;0.5853;-5.5327;
1207.8000;0.5853;-5.5327;
1208.1000;0.5845;-5.5301;
1208.4000;0.5836;-5.5275;
1208.7000;0.5869;-5.5224;
1209.0000;0.5845;-5.5275;
1209.3000;0.5845;-5.5250;
1209.6000;0.5836;-5.5275;
1209.9000;0.5853;-5.5301;
1210.2000;0.5836;-5.5275;
1210.5000;0.5853;-5.5224;
1210.8000;0.5828;-5.5250;
1211.1000;0.5828;-5.5327;
1211.4000;0.5845;-5.5327;
1211.7000;0.5836;-5.5379;
1212.0000;0.5836;-5.5275;
1212.3000;0.5853;-5.5275;
1212.6000;0.5845;-5.5301;
1212.9000;0.5853;-5.5172;
1213.2000;0.5828;-5.5250;
1213.5000;0.5861;-5.5250;
1213.8000;0.5853;-5.5224;
1214.1000;0.5885;-5.5068;
1214.4000;0.5845;-5.5146;
1214.7000;0.5828;-5.5146;
1215.0000;0.5836;-5.5094;
1215.3000;0.5828;-5.5068;
1215.6000;0.5845;-5.5042;
1215.9000;0.5836;-5.4991;
1216.2000;0.5836;-5.4991;
1216.5000;0.5853;-5.4965;
1216.8000;0.5861;-5.4991;
1217.1000;0.5836;-5.5146;
1217.4000;0.5845;-5.4965;
1217.7000;0.5861;-5.4887;
1218.0000;0.5861;-5.4939;
1218.3000;0.5845;-5.5016;
1218.6000;0.5885;-5.4965;
1218.9000;0.5853;-5.5094;
1219.2000;0.5861;-5.5094;
1219.5000;0.5845;-5.5146;
1219.8000;0.5828;-5.5224;
1220.1000;0.5853;-5.5068;
1220.4000;0.5853;-5.5016;
1220.7000;0.5861;-5.4965;
1221.0000;0.5812;-5.5068;
1221.3000;0.5845;-5.4991;
1221.6000;0.5861;-5.5042;
1221.9000;0.5877;-5.4965;
1222.2000;0.5861;-5.4991;
1222.5000;0.5869;-5.4991;
1222.8000;0.5853;-5.5042;
1223.1000;0.5845;-5.4991;
1223.4000;0.5845;-5.4965;
1223.7000;0.5845;-5.4991;
1224.0000;0.5869;-5.5016;
1224.3000;0.5845;-5.5016;
1224.6000;0.5812;-5.5094;
1224.9000;0.5788;-5.5094;
1225.2000;0.5845;-5.5042;
1225.5000;0.5877;-5.4939;
1225.8000;0.5836;-5.5068;
1226.1000;0.5836;-5.5094;
1226.4000;0.5845;-5.5016;
1226.7000;0.5861;-5.4939;
1227.0000;0.5845;-5.4939;
1227.3000;0.5853;-5.4861;
1227.6000;0.5836;-5.4887;
1227.9000;0.5845;-5.4887;
1228.2000;0.5845;-5.4913;
1228.5000;0.5836;-5.5042;
1228.8000;0.5853;-5.5068;
1229.1000;0.5853;-5.5094;
1229.4000;0.5861;-5.5094;
1229.7000;0.5893;-5.4965;
1230.0000;0.5836;-5.5094;
1230.3000;0.5845;-5.5094;
1230.6000;0.5861;-5.5068;
1230.9000;0.5845;-5.5016;
1231.2000;0.5836;-5.5016;
1231.5000;0.5869;-5.4991;
1231.8000;0.5861;-5.4913;
1232.1000;0.5853;-5.4887;
1232.4000;0.5845;-5.4939;
1232.7000;0.5836;-5.4965;
1233.0000;0.5853;-5.4913;
1233.3000;0.5861;-5.4835;
1233.6000;0.5853;-5.4861;
1233.9000;0.5828;-5.4939;
1234.2000;0.5853;-5.4913;
1234.5000;0.5845;-5.5016;
1234.8000;0.5845;-5.5016;
1235.1000;0.5845;-5.5016;
1235.4000;0.5845;-5.5016;
1235.7000;0.5845;-5.4939;
1236.0000;0.5828;-5.4965;
1236.3000;0.5861;-5.4887;
1236.6000;0.5836;-5.4887;
1236.9000;0.5845;-5.4887;
1237.2000;0.5853;-5.4913;
1237.5000;0.5861;-5.4913;
1237.8000;0.5836;-5.5016;
1238.1000;0.5820;-5.5068;
1238.4000;0.5853;-5.4991;
1238.7000;0.5853;-5.4939;
1239.0000;0.5861;-5.4861;
1239.3000;0.5828;-5.4965;
1239.6000;0.5861;-5.4809;
1239.9000;0.5796;-5.5042;
1240.2000;0.5836;-5.5016;
1240.5000;0.5804;-5.5172;
1240.8000;0.5853;-5.5042;
1241.1000;0.5836;-5.5016;
1241.4000;0.5828;-5.5016;
1241.7000;0.5845;-5.5042;
1242.0000;0.5877;-5.4965;
1242.3000;0.5845;-5.4991;
1242.6000;0.5861;-5.4991;
1242.9000;0.5836;-5.5042;
1243.2000;0.5828;-5.4939;
1243.5000;0.5893;-5.4861;
1243.8000;0.5853;-5.4939;
1244.1000;0.5861;-5.4939;
1244.4000;0.5845;-5.4939;
1244.7000;0.5853;-5.4913;
1245.0000;0.5861;-5.4939;
1245.3000;0.5853;-5.4939;
1245.6000;0.5853;-5.4861;
1245.9000;0.5836;-5.4913;
1246.2000;0.5796;-5.5094;
1246.5000;0.5836;-5.4991;
1246.8000;0.5845;-5.4913;
1247.1000;0.5869;-5.4835;
1247.4000;0.5869;-5.4835;
1247.7000;0.5853;-5.4991;
1248.0000;0.5845;-5.5068;
1248.3000;0.5836;-5.5068;
1248.6000;0.5845;-5.5042;
1248.9000;0.5820;-5.5120;
1249.2000;0.5828;-5.5120;
1249.5000;0.5853;-5.5094;
1249.8000;0.5845;-5.5120;
1250.1000;0.5836;-5.5172;
1250.4000;0.5845;-5.5172;
1250.7000;0.5853;-5.5068;
1251.0000;0.5836;-5.5120;
1251.3000;0.5836;-5.5068;
1251.6000;0.5812;-5.5120;
1251.9000;0.5828;-5.5146;
1252.2000;0.5836;-5.5172;
1252.5000;0.5885;-5.5120;
1252.8000;0.5828;-5.5198;
1253.1000;0.5836;-5.5146;
1253.4000;0.5853;-5.5146;
1253.7000;0.5869;-5.5146;
1254.0000;0.5828;-5.5198;
1254.3000;0.5836;-5.5224;
1254.6000;0.5828;-5.5353;
1254.9000;0.5877;-5.5224;
1255.2000;0.5853;-5.5250;
1255.5000;0.5828;-5.5275;
1255.8000;0.5869;-5.5198;
1256.1000;0.5828;-5.5198;
1256.4000;0.5820;-5.5198;
1256.7000;0.5820;-5.5250;
1257.0000;0.5828;-5.5353;
1257.3000;0.5820;-5.5301;
1257.6000;0.5836;-5.5146;
1257.9000;0.5820;-5.5068;
1258.2000;0.5845;-5.5068;
1258.5000;0.5845;-5.5016;
1258.8000;0.5853;-5.4991;
1259.1000;0.5853;-5.4991;
1259.4000;0.5861;-5.5094;
1259.7000;0.5869;-5.5120;
1260.0000;0.5836;-5.5172;
1260.3000;0.5845;-5.5120;
1260.6000;0.5796;-5.5250;
1260.9000;0.5788;-5.5224;
1261.2000;0.5861;-5.4939;
1261.5000;0.5812;-5.5146;
1261.8000;0.5828;-5.5146;
1262.1000;0.5845;-5.5120;
1262.4000;0.5902;-5.4939;
1262.7000;0.5845;-5.5094;
1263.0000;0.5893;-5.4965;
1263.3000;0.5845;-5.5042;
1263.6000;0.5828;-5.5094;
1263.9000;0.5853;-5.5094;
1264.2000;0.5853;-5.5042;
1264.5000;0.5902;-5.4887;
1264.8000;0.5845;-5.5016;
1265.1000;0.5836;-5.5120;
1265.4000;0.5845;-5.5068;
1265.7000;0.5845;-5.5068;
1266.0000;0.5836;-5.5094;
1266.3000;0.5861;-5.5120;
1266.6000;0.5853;-5.5146;
1266.9000;0.5836;-5.5094;
1267.2000;0.5820;-5.5068;
1267.5000;0.5861;-5.5068;
1267.8000;0.5845;-5.5068;
1268.1000;0.5845;-5.5068;
1268.4000;0.5820;-5.5068;
1268.7000;0.5836;-5.5016;
1269.0000;0.5845;-5.4965;
1269.3000;0.5771;-5.5094;
1269.6000;0.5828;-5.4913;
1269.9000;0.5836;-5.4835;
1270.2000;0.5845;-5.4861;
1270.5000;0.5828;-5.4887;
1270.8000;0.5820;-5.4887;
1271.1000;0.5836;-5.4965;
1271.4000;0.5836;-5.4913;
1271.7000;0.5836;-5.4939;
1272.0000;0.5828;-5.4913;
1272.3000;0.5820;-5.4939;
1272.6000;0.5828;-5.5016;
1272.9000;0.5812;-5.5094;
1273.2000;0.5812;-5.5016;
1273.5000;0.5820;-5.5042;
1273.8000;0.5820;-5.4991;
1274.1000;0.5836;-5.4991;
1274.4000;0.5845;-5.4939;
1274.7000;0.5828;-5.4939;
1275.0000;0.5836;-5.4913;
1275.3000;0.5836;-5.4809;
1275.6000;0.5836;-5.4835;
1275.9000;0.5853;-5.4939;
1276.2000;0.5828;-5.5120;
1276.5000;0.5845;-5.5068;
1276.8000;0.5828;-5.5094;
1277.1000;0.5820;-5.5146;
1277.4000;0.5820;-5.5172;
1277.7000;0.5828;-5.5146;
1278.0000;0.5828;-5.5198;
1278.3000;0.5820;-5.5198;
1278.6000;0.5845;-5.5198;
1278.9000;0.5828;-5.5224;
1279.2000;0.5820;-5.5250;
1279.5000;0.5836;-5.5224;
1279.8000;0.5812;-5.5198;
1280.1000;0.5828;-5.5224;
1280.4000;0.5853;-5.5120;
1280.7000;0.5820;-5.5146;
1281.0000;0.5869;-5.4965;
1281.3000;0.5820;-5.4991;
1281.6000;0.5828;-5.4991;
1281.9000;0.5845;-5.4991;
1282.2000;0.5820;-5.5016;
1282.5000;0.5820;-5.4965;
1282.8000;0.5828;-5.4965;
1283.1000;0.5902;-5.4835;
1283.4000;0.5836;-5.4965;
1283.7000;0.5771;-5.5172;
1284.0000;0.5869;-5.4835;
1284.3000;0.5845;-5.4913;
1284.6000;0.5861;-5.4809;
1284.9000;0.5763;-5.5094;
1285.2000;0.5828;-5.4887;
1285.5000;0.5910;-5.4732;
1285.8000;0.5820;-5.4991;
1286.1000;0.5836;-5.5042;
1286.4000;0.5845;-5.5042;
1286.7000;0.5845;-5.5016;
1287.0000;0.5836;-5.4991;
1287.3000;0.5828;-5.4965;
1287.6000;0.5853;-5.4861;
1287.9000;0.5836;-5.4887;
1288.2000;0.5836;-5.4913;
1288.5000;0.5788;-5.5042;
1288.8000;0.5820;-5.4913;
1289.1000;0.5836;-5.4887;
1289.4000;0.5820;-5.4913;
1289.7000;0.5828;-5.4835;
1290.0000;0.5820;-5.4809;
1290.3000;0.5828;-5.4835;
1290.6000;0.5828;-5.4706;
1290.9000;0.5836;-5.4654;
1291.2000;0.5828;-5.4680;
1291.5000;0.5820;-5.4809;
1291.8000;0.5828;-5.4835;
1292.1000;0.5828;-5.4835;
1292.4000;0.5828;-5.4783;
1292.7000;0.5861;-5.4680;
1293.0000;0.5820;-5.4809;
1293.3000;0.5828;-5.4732;
1293.6000;0.5820;-5.4757;
1293.9000;0.5828;-5.4783;
1294.2000;0.5820;-5.4809;
1294.5000;0.5828;-5.4809;
1294.8000;0.5828;-5.4835;
1295.1000;0.5820;-5.4939;
1295.4000;0.5845;-5.4991;
1295.7000;0.5845;-5.5016;
1296.0000;0.5828;-5.5016;
1296.3000;0.5828;-5.4965;
1296.6000;0.5828;-5.4939;
1296.9000;0.5836;-5.4939;
1297.2000;0.5836;-5.4965;
1297.5000;0.5828;-5.5016;
1297.8000;0.5820;-5.5068;
1298.1000;0.5804;-5.5094;
1298.4000;0.5820;-5.5068;
1298.7000;0.5763;-5.5224;
1299.0000;0.5828;-5.5094;
1299.3000;0.5828;-5.5042;
1299.6000;0.5820;-5.4991;
1299.9000;0.5836;-5.4887;
1300.2000;0.5836;-5.4913;
1300.5000;0.5836;-5.4913;
1300.8000;0.5828;-5.4835;
1301.1000;0.5828;-5.4809;
1301.4000;0.5828;-5.4757;
1301.7000;0.5812;-5.4861;
1302.0000;0.5828;-5.4835;
1302.3000;0.5836;-5.4887;
1302.6000;0.5812;-5.4887;
1302.9000;0.5828;-5.4939;
1303.2000;0.5845;-5.4835;
1303.5000;0.5836;-5.4887;
1303.8000;0.5812;-5.4965;
1304.1000;0.5812;-5.5016;
1304.4000;0.5820;-5.5016;
1304.7000;0.5836;-5.5042;
1305.0000;0.5820;-5.4991;
1305.3000;0.5820;-5.4913;
1305.6000;0.5812;-5.4913;
1305.9000;0.5836;-5.4939;
1306.2000;0.5836;-5.4887;
1306.5000;0.5869;-5.4757;
1306.8000;0.5836;-5.4861;
1307.1000;0.5812;-5.4835;
1307.4000;0.5812;-5.4835;
1307.7000;0.5820;-5.4835;
1308.0000;0.5845;-5.4835;
1308.3000;0.5853;-5.4835;
1308.6000;0.5845;-5.4913;
1308.9000;0.5828;-5.4965;
1309.2000;0.5828;-5.4887;
1309.5000;0.5820;-5.4887;
1309.8000;0.5877;-5.4809;
1310.1000;0.5836;-5.4887;
1310.4000;0.5812;-5.4913;
1310.7000;0.5820;-5.4939;
1311.0000;0.5820;-5.4965;
1311.3000;0.5788;-5.5094;
1311.6000;0.5796;-5.4991;
1311.9000;0.5828;-5.4939;
1312.2000;0.5845;-5.4861;
1312.5000;0.5828;-5.4913;
1312.8000;0.5820;-5.4939;
1313.1000;0.5812;-5.5016;
1313.4000;0.5828;-5.4991;
1313.7000;0.5836;-5.4965;
1314.0000;0.5836;-5.4887;
1314.3000;0.5779;-5.5068;
1314.6000;0.5820;-5.4991;
1314.9000;0.5845;-5.4965;
1315.2000;0.5828;-5.4939;
1315.5000;0.5820;-5.4887;
1315.8000;0.5812;-5.4991;
1316.1000;0.5828;-5.4939;
1316.4000;0.5812;-5.4939;
1316.7000;0.5804;-5.4939;
1317.0000;0.5820;-5.4887;
1317.3000;0.5893;-5.4757;
1317.6000;0.5836;-5.4939;
1317.9000;0.5796;-5.5068;
1318.2000;0.5845;-5.4965;
1318.5000;0.5812;-5.5042;
1318.8000;0.5828;-5.5042;
1319.1000;0.5812;-5.4991;
1319.4000;0.5812;-5.4965;
1319.7000;0.5828;-5.4939;
1320.0000;0.5828;-5.4913;
1320.3000;0.5828;-5.4861;
1320.6000;0.5828;-5.4939;
1320.9000;0.5845;-5.4783;
1321.2000;0.5820;-5.4887;
1321.5000;0.5828;-5.4783;
1321.8000;0.5828;-5.4732;
1322.1000;0.5836;-5.4809;
1322.4000;0.5836;-5.4680;
1322.7000;0.5828;-5.4783;
1323.0000;0.5836;-5.4835;
1323.3000;0.5836;-5.4835;
1323.6000;0.5828;-5.4783;
1323.9000;0.5836;-5.4861;
1324.2000;0.5836;-5.4835;
1324.5000;0.5828;-5.4809;
1324.8000;0.5812;-5.4887;
1325.1000;0.5845;-5.4861;
1325.4000;0.5836;-5.4835;
1325.7000;0.5788;-5.4965;
1326.0000;0.5836;-5.4835;
1326.3000;0.5836;-5.4835;
1326.6000;0.5836;-5.4835;
1326.9000;0.5845;-5.4861;
1327.2000;0.5812;-5.4939;
1327.5000;0.5845;-5.4939;
1327.8000;0.5812;-5.4965;
1328.1000;0.5869;-5.4783;
1328.4000;0.5796;-5.4913;
1328.7000;0.5796;-5.4965;
1329.0000;0.5820;-5.4913;
1329.3000;0.5820;-5.4887;
1329.6000;0.5820;-5.4939;
1329.9000;0.5869;-5.4809;
1330.2000;0.5893;-5.4706;
1330.5000;0.5836;-5.4991;
1330.8000;0.5836;-5.4991;
1331.1000;0.5779;-5.5068;
1331.4000;0.5820;-5.4913;
1331.7000;0.5828;-5.4913;
1332.0000;0.5820;-5.4965;
1332.3000;0.5804;-5.5042;
1332.6000;0.5836;-5.4939;
1332.9000;0.5828;-5.4965;
1333.2000;0.5828;-5.5042;
1333.5000;0.5804;-5.5068;
1333.8000;0.5812;-5.5016;
1334.1000;0.5812;-5.4991;
1334.4000;0.5820;-5.4991;
1334.7000;0.5820;-5.4991;
1335.0000;0.5779;-5.5120;
1335.3000;0.5845;-5.4913;
1335.6000;0.5828;-5.4913;
1335.9000;0.5763;-5.5042;
1336.2000;0.5853;-5.4809;
1336.5000;0.5828;-5.4887;
1336.8000;0.5788;-5.5094;
1337.1000;0.5836;-5.5016;
1337.4000;0.5836;-5.5042;
1337.7000;0.5861;-5.4939;
1338.0000;0.5845;-5.4887;
1338.3000;0.5853;-5.4991;
1338.6000;0.5796;-5.5120;
1338.9000;0.5804;-5.5016;
1339.2000;0.5845;-5.5016;
1339.5000;0.5820;-5.5094;
1339.8000;0.5828;-5.5094;
1340.1000;0.5836;-5.5068;
1340.4000;0.5853;-5.4939;
1340.7000;0.5869;-5.4939;
1341.0000;0.5828;-5.4991;
1341.3000;0.5828;-5.4939;
1341.6000;0.5836;-5.4783;
1341.9000;0.5836;-5.4732;
1342.2000;0.5828;-5.4809;
1342.5000;0.5828;-5.4835;
1342.8000;0.5836;-5.4783;
1343.1000;0.5853;-5.4783;
1343.4000;0.5804;-5.4861;
1343.7000;0.5804;-5.4861;
1344.0000;0.5836;-5.4809;
1344.3000;0.5828;-5.4809;
1344.6000;0.5828;-5.4835;
1344.9000;0.5812;-5.4835;
1345.2000;0.5828;-5.4809;
1345.5000;0.5845;-5.4835;
1345.8000;0.5845;-5.4757;
1346.1000;0.5869;-5.4706;
1346.4000;0.5828;-5.4732;
1346.7000;0.5836;-5.4732;
1347.0000;0.5771;-5.4939;
1347.3000;0.5812;-5.4809;
1347.6000;0.5812;-5.4887;
1347.9000;0.5812;-5.4887;
1348.2000;0.5845;-5.4991;
1348.5000;0.5788;-5.5094;
1348.8000;0.5804;-5.5042;
1349.1000;0.5828;-5.5016;
1349.4000;0.5828;-5.4991;
1349.7000;0.5820;-5.4913;
1350.0000;0.5836;-5.4939;
1350.3000;0.5828;-5.4913;
1350.6000;0.5836;-5.4887;
1350.9000;0.5836;-5.4835;
1351.2000;0.5820;-5.4861;
1351.5000;0.5820;-5.4887;
1351.8000;0.5836;-5.4887;
1352.1000;0.5836;-5.4861;
1352.4000;0.5828;-5.4887;
1352.7000;0.5828;-5.4939;
1353.0000;0.5845;-5.4991;
1353.3000;0.5845;-5.5016;
1353.6000;0.5828;-5.5016;
1353.9000;0.5779;-5.5068;
1354.2000;0.5820;-5.4965;
1354.5000;0.5796;-5.4991;
1354.8000;0.5820;-5.4913;
1355.1000;0.5698;-5.5275;
1355.4000;0.5836;-5.4965;
1355.7000;0.5836;-5.4939;
1356.0000;0.5861;-5.4887;
1356.3000;0.5845;-5.4913;
1356.6000;0.5877;-5.4809;
1356.9000;0.5828;-5.4965;
1357.2000;0.5828;-5.5042;
1357.5000;0.5820;-5.4991;
1357.8000;0.5845;-5.4991;
1358.1000;0.5820;-5.5094;
1358.4000;0.5828;-5.5120;
1358.7000;0.5820;-5.5120;
1359.0000;0.5796;-5.5120;
1359.3000;0.5820;-5.5068;
1359.6000;0.5836;-5.4965;
1359.9000;0.5828;-5.4965;
1360.2000;0.5828;-5.4939;
1360.5000;0.5836;-5.4887;
1360.8000;0.5779;-5.5016;
1361.1000;0.5820;-5.4913;
1361.4000;0.5804;-5.4913;
1361.7000;0.5820;-5.4757;
1362.0000;0.5845;-5.4835;
1362.3000;0.5828;-5.4887;
1362.6000;0.5771;-5.5016;
1362.9000;0.5836;-5.4913;
1363.2000;0.5828;-5.4887;
1363.5000;0.5820;-5.4939;
1363.8000;0.5812;-5.4913;
1364.1000;0.5812;-5.4861;
1364.4000;0.5853;-5.4809;
1364.7000;0.5820;-5.4939;
1365.0000;0.5828;-5.4913;
1365.3000;0.5804;-5.5016;
1365.6000;0.5812;-5.5068;
1365.9000;0.5804;-5.5068;
1366.2000;0.5820;-5.5042;
1366.5000;0.5804;-5.5042;
1366.8000;0.5812;-5.4965;
1367.1000;0.5828;-5.4887;
1367.4000;0.5828;-5.4861;
1367.7000;0.5820;-5.4965;
1368.0000;0.5812;-5.4965;
1368.3000;0.5820;-5.4965;
1368.6000;0.5812;-5.4939;
1368.9000;0.5820;-5.4913;
1369.2000;0.5845;-5.4835;
1369.5000;0.5812;-5.4939;
1369.8000;0.5820;-5.5016;
1370.1000;0.5836;-5.5042;
1370.4000;0.5820;-5.5172;
1370.7000;0.5812;-5.5016;
1371.0000;0.5877;-5.4732;
1371.3000;0.5820;-5.4835;
1371.6000;0.5779;-5.5016;
1371.9000;0.5812;-5.4887;
1372.2000;0.5877;-5.4732;
1372.5000;0.5836;-5.4835;
1372.8000;0.5836;-5.4887;
1373.1000;0.5820;-5.4861;
1373.4000;0.5804;-5.4939;
1373.7000;0.5820;-5.4887;
1374.0000;0.5812;-5.4965;
1374.3000;0.5812;-5.4887;
1374.6000;0.5812;-5.4835;
1374.9000;0.5812;-5.4809;
1375.2000;0.5828;-5.4809;
1375.5000;0.5820;-5.4835;
1375.8000;0.5820;-5.4913;
1376.1000;0.5796;-5.4861;
1376.4000;0.5796;-5.4913;
1376.7000;0.5812;-5.4913;
1377.0000;0.5820;-5.4887;
1377.3000;0.5836;-5.4835;
1377.6000;0.5820;-5.4835;
1377.9000;0.5836;-5.4835;
1378.2000;0.5804;-5.4939;
1378.5000;0.5828;-5.4887;
1378.8000;0.5820;-5.4861;
1379.1000;0.5779;-5.4965;
1379.4000;0.5812;-5.4809;
1379.7000;0.5853;-5.4680;
1380.0000;0.5812;-5.4809;
1380.3000;0.5820;-5.4861;
1380.6000;0.5820;-5.4913;
1380.9000;0.5812;-5.4913;
1381.2000;0.5820;-5.4861;
1381.5000;0.5804;-5.4965;
1381.8000;0.5820;-5.4913;
1382.1000;0.5812;-5.4887;
1382.4000;0.5820;-5.4939;
1382.7000;0.5836;-5.4939;
1383.0000;0.5820;-5.4991;
1383.3000;0.5804;-5.4991;
1383.6000;0.5820;-5.4991;
1383.9000;0.5836;-5.4861;
1384.2000;0.5836;-5.4835;
1384.5000;0.5804;-5.4913;
1384.8000;0.5828;-5.4913;
1385.1000;0.5828;-5.4913;
1385.4000;0.5836;-5.4965;
1385.7000;0.5845;-5.4887;
1386.0000;0.5820;-5.4861;
1386.3000;0.5812;-5.4861;
1386.6000;0.5820;-5.4861;
1386.9000;0.5812;-5.4835;
1387.2000;0.5812;-5.4939;
1387.5000;0.5820;-5.4965;
1387.8000;0.5820;-5.4965;
1388.1000;0.5820;-5.4965;
1388.4000;0.5820;-5.4939;
1388.7000;0.5804;-5.4939;
1389.0000;0.5820;-5.4939;
1389.3000;0.5804;-5.4887;
1389.6000;0.5820;-5.4887;
1389.9000;0.5804;-5.4965;
1390.2000;0.5804;-5.5068;
1390.5000;0.5820;-5.5016;
1390.8000;0.5820;-5.5068;
1391.1000;0.5820;-5.4991;
1391.4000;0.5812;-5.4939;
1391.7000;0.5812;-5.4861;
1392.0000;0.5820;-5.4913;
1392.3000;0.5812;-5.4939;
1392.6000;0.5820;-5.4913;
1392.9000;0.5812;-5.4913;
1393.2000;0.5804;-5.4913;
1393.5000;0.5804;-5.4965;
1393.8000;0.5804;-5.4991;
1394.1000;0.5820;-5.4991;
1394.4000;0.5820;-5.4965;
1394.7000;0.5820;-5.5016;
1395.0000;0.5788;-5.5042;
1395.3000;0.5804;-5.4991;
1395.6000;0.5812;-5.4887;
1395.9000;0.5820;-5.4861;
1396.2000;0.5804;-5.4965;
1396.5000;0.5812;-5.4965;
1396.8000;0.5804;-5.5042;
1397.1000;0.5812;-5.5042;
1397.4000;0.5820;-5.5120;
1397.7000;0.5820;-5.5094;
1398.0000;0.5820;-5.5120;
1398.3000;0.5812;-5.5094;
1398.6000;0.5812;-5.5120;
1398.9000;0.5820;-5.5224;
1399.2000;0.5804;-5.5275;
1399.5000;0.5804;-5.5250;
1399.8000;0.5804;-5.5327;
