time/ms;Fluo/V;P700 deltaI/I x10³;
-199.8000;0.8433;-5.4732;
-199.5000;0.8425;-5.4757;
-199.2000;0.8441;-5.4757;
-198.9000;0.8433;-5.4861;
-198.6000;0.8433;-5.4913;
-198.3000;0.8417;-5.4991;
-198.0000;0.8457;-5.4809;
-197.7000;0.8433;-5.4861;
-197.4000;0.8417;-5.4861;
-197.1000;0.8417;-5.4913;
-196.8000;0.8417;-5.4939;
-196.5000;0.8425;-5.4913;
-196.2000;0.8417;-5.4939;
-195.9000;0.8425;-5.4887;
-195.6000;0.8425;-5.4861;
-195.3000;0.8433;-5.4887;
-195.0000;0.8433;-5.4913;
-194.7000;0.8466;-5.4783;
-194.4000;0.8433;-5.4835;
-194.1000;0.8409;-5.4861;
-193.8000;0.8449;-5.4732;
-193.5000;0.8425;-5.4835;
-193.2000;0.8417;-5.4835;
-192.9000;0.8425;-5.4757;
-192.6000;0.8425;-5.4809;
-192.3000;0.8498;-5.4680;
-192.0000;0.8433;-5.4835;
-191.7000;0.8433;-5.4835;
-191.4000;0.8449;-5.4835;
-191.1000;0.8392;-5.4809;
-190.8000;0.8417;-5.4706;
-190.5000;0.8441;-5.4680;
-190.2000;0.8417;-5.4654;
-189.9000;0.8441;-5.4550;
-189.6000;0.8425;-5.4576;
-189.3000;0.8441;-5.4628;
-189.0000;0.8449;-5.4550;
-188.7000;0.8425;-5.4654;
-188.4000;0.8425;-5.4757;
-188.1000;0.8433;-5.4783;
-187.8000;0.8433;-5.4757;
-187.5000;0.8433;-5.4783;
-187.2000;0.8425;-5.4783;
-186.9000;0.8433;-5.4861;
-186.6000;0.8433;-5.4783;
-186.3000;0.8425;-5.4706;
-186.0000;0.8441;-5.4680;
-185.7000;0.8425;-5.4835;
-185.4000;0.8441;-5.4835;
-185.1000;0.8441;-5.4861;
-184.8000;0.8449;-5.4887;
-184.5000;0.8474;-5.4861;
-184.2000;0.8441;-5.4939;
-183.9000;0.8441;-5.4939;
-183.6000;0.8441;-5.4939;
-183.3000;0.8441;-5.4913;
-183.0000;0.8474;-5.4783;
-182.7000;0.8474;-5.4809;
-182.4000;0.8441;-5.4965;
-182.1000;0.8474;-5.4939;
-181.8000;0.8425;-5.5016;
-181.5000;0.8514;-5.4680;
-181.2000;0.8449;-5.4861;
-180.9000;0.8449;-5.4835;
-180.6000;0.8433;-5.4783;
-180.3000;0.8449;-5.4732;
-180.0000;0.8441;-5.4732;
-179.7000;0.8425;-5.4835;
-179.4000;0.8441;-5.4783;
-179.1000;0.8457;-5.4861;
-178.8000;0.8441;-5.4887;
-178.5000;0.8441;-5.4835;
-178.2000;0.8425;-5.4913;
-177.9000;0.8409;-5.4965;
-177.6000;0.8433;-5.4861;
-177.3000;0.8409;-5.4861;
-177.0000;0.8433;-5.4809;
-176.7000;0.8425;-5.4887;
-176.4000;0.8425;-5.4809;
-176.1000;0.8433;-5.4835;
-175.8000;0.8433;-5.4861;
-175.5000;0.8441;-5.4887;
-175.2000;0.8449;-5.4861;
-174.9000;0.8449;-5.4783;
-174.6000;0.8433;-5.4809;
-174.3000;0.8400;-5.4965;
-174.0000;0.8449;-5.4861;
-173.7000;0.8449;-5.4835;
-173.4000;0.8449;-5.4965;
-173.1000;0.8449;-5.4939;
-172.8000;0.8433;-5.4861;
-172.5000;0.8449;-5.4887;
-172.2000;0.8433;-5.4861;
-171.9000;0.8466;-5.4809;
-171.6000;0.8433;-5.4861;
-171.3000;0.8457;-5.4939;
-171.0000;0.8449;-5.4887;
-170.7000;0.8400;-5.4939;
-170.4000;0.8441;-5.4861;
-170.1000;0.8433;-5.4913;
-169.8000;0.8441;-5.4835;
-169.5000;0.8466;-5.4783;
-169.2000;0.8409;-5.4965;
-168.9000;0.8441;-5.4913;
-168.6000;0.8417;-5.4965;
-168.3000;0.8449;-5.4965;
-168.0000;0.8457;-5.4887;
-167.7000;0.8441;-5.4991;
-167.4000;0.8449;-5.5042;
-167.1000;0.8433;-5.5120;
-166.8000;0.8425;-5.5224;
-166.5000;0.8441;-5.5250;
-166.2000;0.8433;-5.5224;
-165.9000;0.8441;-5.5120;
-165.6000;0.8449;-5.5016;
-165.3000;0.8417;-5.5120;
-165.0000;0.8417;-5.5068;
-164.7000;0.8441;-5.5042;
-164.4000;0.8441;-5.4939;
-164.1000;0.8425;-5.4939;
-163.8000;0.8425;-5.4913;
-163.5000;0.8433;-5.4861;
-163.2000;0.8425;-5.4835;
-162.9000;0.8400;-5.4965;
-162.6000;0.8449;-5.4809;
-162.3000;0.8449;-5.4835;
-162.0000;0.8449;-5.4887;
-161.7000;0.8441;-5.4991;
-161.4000;0.8449;-5.4939;
-161.1000;0.8433;-5.4913;
-160.8000;0.8449;-5.4835;
-160.5000;0.8384;-5.5016;
-160.2000;0.8449;-5.4913;
-159.9000;0.8433;-5.4887;
-159.6000;0.8433;-5.4939;
-159.3000;0.8409;-5.4991;
-159.0000;0.8441;-5.4965;
-158.7000;0.8425;-5.4991;
-158.4000;0.8441;-5.4965;
-158.1000;0.8457;-5.4887;
-157.8000;0.8433;-5.4939;
-157.5000;0.8433;-5.5042;
-157.2000;0.8400;-5.5120;
-156.9000;0.8425;-5.5042;
-156.6000;0.8433;-5.4991;
-156.3000;0.8433;-5.4965;
-156.0000;0.8433;-5.4939;
-155.7000;0.8433;-5.4939;
-155.4000;0.8433;-5.4887;
-155.1000;0.8482;-5.4809;
-154.8000;0.8441;-5.4913;
-154.5000;0.8441;-5.4965;
-154.2000;0.8466;-5.4965;
-153.9000;0.8449;-5.4809;
-153.6000;0.8433;-5.4861;
-153.3000;0.8457;-5.4861;
-153.0000;0.8449;-5.4913;
-152.7000;0.8433;-5.5016;
-152.4000;0.8457;-5.4965;
-152.1000;0.8449;-5.4861;
-151.8000;0.8457;-5.4861;
-151.5000;0.8474;-5.4835;
-151.2000;0.8441;-5.4861;
-150.9000;0.8457;-5.4809;
-150.6000;0.8433;-5.4835;
-150.3000;0.8449;-5.4783;
-150.0000;0.8457;-5.4809;
-149.7000;0.8433;-5.4861;
-149.4000;0.8441;-5.4809;
-149.1000;0.8466;-5.4757;
-148.8000;0.8457;-5.4706;
-148.5000;0.8441;-5.4809;
-148.2000;0.8433;-5.4809;
-147.9000;0.8457;-5.4757;
-147.6000;0.8433;-5.4887;
-147.3000;0.8441;-5.4965;
-147.0000;0.8449;-5.4991;
-146.7000;0.8425;-5.4913;
-146.4000;0.8417;-5.4809;
-146.1000;0.8466;-5.4706;
-145.8000;0.8433;-5.4783;
-145.5000;0.8384;-5.4913;
-145.2000;0.8425;-5.4861;
-144.9000;0.8425;-5.4887;
-144.6000;0.8433;-5.4835;
-144.3000;0.8433;-5.4835;
-144.0000;0.8457;-5.4783;
-143.7000;0.8441;-5.4757;
-143.4000;0.8449;-5.4783;
-143.1000;0.8417;-5.4887;
-142.8000;0.8441;-5.4861;
-142.5000;0.8449;-5.4887;
-142.2000;0.8506;-5.4732;
-141.9000;0.8417;-5.4913;
-141.6000;0.8441;-5.4965;
-141.3000;0.8425;-5.5016;
-141.0000;0.8433;-5.5120;
-140.7000;0.8425;-5.5146;
-140.4000;0.8441;-5.5120;
-140.1000;0.8441;-5.5120;
-139.8000;0.8433;-5.5172;
-139.5000;0.8425;-5.5146;
-139.2000;0.8425;-5.5120;
-138.9000;0.8457;-5.5094;
-138.6000;0.8441;-5.4991;
-138.3000;0.8433;-5.4939;
-138.0000;0.8441;-5.4991;
-137.7000;0.8433;-5.4991;
-137.4000;0.8457;-5.4913;
-137.1000;0.8409;-5.5094;
-136.8000;0.8417;-5.5016;
-136.5000;0.8433;-5.5042;
-136.2000;0.8417;-5.5094;
-135.9000;0.8474;-5.4965;
-135.6000;0.8409;-5.5094;
-135.3000;0.8425;-5.5094;
-135.0000;0.8441;-5.5068;
-134.7000;0.8425;-5.5094;
-134.4000;0.8449;-5.4991;
-134.1000;0.8425;-5.5042;
-133.8000;0.8433;-5.4965;
-133.5000;0.8441;-5.4965;
-133.2000;0.8482;-5.4783;
-132.9000;0.8425;-5.4887;
-132.6000;0.8441;-5.4861;
-132.3000;0.8425;-5.4887;
-132.0000;0.8400;-5.4991;
-131.7000;0.8425;-5.4913;
-131.4000;0.8425;-5.4965;
-131.1000;0.8425;-5.5016;
-130.8000;0.8425;-5.5016;
-130.5000;0.8417;-5.5042;
-130.2000;0.8441;-5.5016;
-129.9000;0.8449;-5.4965;
-129.6000;0.8425;-5.4991;
-129.3000;0.8425;-5.4939;
-129.0000;0.8433;-5.4939;
-128.7000;0.8417;-5.4939;
-128.4000;0.8417;-5.4913;
-128.1000;0.8441;-5.4861;
-127.8000;0.8441;-5.4887;
-127.5000;0.8457;-5.4861;
-127.2000;0.8449;-5.4991;
-126.9000;0.8449;-5.4939;
-126.6000;0.8449;-5.5042;
-126.3000;0.8441;-5.4991;
-126.0000;0.8425;-5.4965;
-125.7000;0.8433;-5.4939;
-125.4000;0.8433;-5.4887;
-125.1000;0.8433;-5.4887;
-124.8000;0.8433;-5.4861;
-124.5000;0.8417;-5.4965;
-124.2000;0.8433;-5.4965;
-123.9000;0.8368;-5.5068;
-123.6000;0.8433;-5.4913;
-123.3000;0.8433;-5.4861;
-123.0000;0.8425;-5.4861;
-122.7000;0.8425;-5.4887;
-122.4000;0.8425;-5.4809;
-122.1000;0.8409;-5.4913;
-121.8000;0.8409;-5.4965;
-121.5000;0.8409;-5.4939;
-121.2000;0.8425;-5.4913;
-120.9000;0.8417;-5.4913;
-120.6000;0.8498;-5.4732;
-120.3000;0.8433;-5.4913;
-120.0000;0.8433;-5.4939;
-119.7000;0.8433;-5.4939;
-119.4000;0.8425;-5.4991;
-119.1000;0.8425;-5.5094;
-118.8000;0.8441;-5.4991;
-118.5000;0.8457;-5.4913;
-118.2000;0.8433;-5.4965;
-117.9000;0.8449;-5.4965;
-117.6000;0.8449;-5.5068;
-117.3000;0.8466;-5.5016;
-117.0000;0.8441;-5.5094;
-116.7000;0.8433;-5.5120;
-116.4000;0.8433;-5.5198;
-116.1000;0.8457;-5.5198;
-115.8000;0.8457;-5.5379;
-115.5000;0.8433;-5.5379;
-115.2000;0.8433;-5.5379;
-114.9000;0.8433;-5.5301;
-114.6000;0.8482;-5.5146;
-114.3000;0.8457;-5.5250;
-114.0000;0.8441;-5.5301;
-113.7000;0.8449;-5.5224;
-113.4000;0.8425;-5.5094;
-113.1000;0.8433;-5.4991;
-112.8000;0.8425;-5.5016;
-112.5000;0.8425;-5.5042;
-112.2000;0.8466;-5.4965;
-111.9000;0.8441;-5.4913;
-111.6000;0.8482;-5.4861;
-111.3000;0.8409;-5.4991;
-111.0000;0.8425;-5.4887;
-110.7000;0.8441;-5.4887;
-110.4000;0.8400;-5.5016;
-110.1000;0.8384;-5.5016;
-109.8000;0.8433;-5.4939;
-109.5000;0.8449;-5.4939;
-109.2000;0.8409;-5.5016;
-108.9000;0.8425;-5.5016;
-108.6000;0.8400;-5.5016;
-108.3000;0.8425;-5.4991;
-108.0000;0.8433;-5.4965;
-107.7000;0.8433;-5.4913;
-107.4000;0.8441;-5.4913;
-107.1000;0.8531;-5.4732;
-106.8000;0.8441;-5.4861;
-106.5000;0.8433;-5.4965;
-106.2000;0.8433;-5.4965;
-105.9000;0.8449;-5.4939;
-105.6000;0.8457;-5.4913;
-105.3000;0.8466;-5.4887;
-105.0000;0.8457;-5.4913;
-104.7000;0.8425;-5.4939;
-104.4000;0.8409;-5.4991;
-104.1000;0.8433;-5.5042;
-103.8000;0.8392;-5.5094;
-103.5000;0.8400;-5.5016;
-103.2000;0.8433;-5.4939;
-102.9000;0.8433;-5.4913;
-102.6000;0.8449;-5.4835;
-102.3000;0.8425;-5.4887;
-102.0000;0.8457;-5.4835;
-101.7000;0.8433;-5.4887;
-101.4000;0.8433;-5.4809;
-101.1000;0.8449;-5.4809;
-100.8000;0.8433;-5.4835;
-100.5000;0.8384;-5.4783;
-100.2000;0.8433;-5.4732;
-99.9000;0.8433;-5.4809;
-99.6000;0.8433;-5.4783;
-99.3000;0.8441;-5.4732;
-99.0000;0.8417;-5.4809;
-98.7000;0.8425;-5.4835;
-98.4000;0.8433;-5.4783;
-98.1000;0.8433;-5.4757;
-97.8000;0.8417;-5.4809;
-97.5000;0.8360;-5.5016;
-97.2000;0.8417;-5.4861;
-96.9000;0.8449;-5.4861;
-96.6000;0.8441;-5.4913;
-96.3000;0.8441;-5.4939;
-96.0000;0.8457;-5.4887;
-95.7000;0.8449;-5.4887;
-95.4000;0.8466;-5.4887;
-95.1000;0.8433;-5.4965;
-94.8000;0.8425;-5.4991;
-94.5000;0.8425;-5.4939;
-94.2000;0.8441;-5.4887;
-93.9000;0.8433;-5.4939;
-93.6000;0.8425;-5.5016;
-93.3000;0.8425;-5.5042;
-93.0000;0.8425;-5.5094;
-92.7000;0.8425;-5.5068;
-92.4000;0.8425;-5.4965;
-92.1000;0.8433;-5.4887;
-91.8000;0.8441;-5.4809;
-91.5000;0.8433;-5.4783;
-91.2000;0.8433;-5.4835;
-90.9000;0.8433;-5.4783;
-90.6000;0.8457;-5.4887;
-90.3000;0.8425;-5.4965;
-90.0000;0.8425;-5.4939;
-89.7000;0.8425;-5.4913;
-89.4000;0.8425;-5.4887;
-89.1000;0.8433;-5.4913;
-88.8000;0.8425;-5.4965;
-88.5000;0.8425;-5.4913;
-88.2000;0.8417;-5.4835;
-87.9000;0.8466;-5.4706;
-87.6000;0.8433;-5.4809;
-87.3000;0.8441;-5.4835;
-87.0000;0.8449;-5.4835;
-86.7000;0.8433;-5.4913;
-86.4000;0.8466;-5.4809;
-86.1000;0.8441;-5.4861;
-85.8000;0.8441;-5.4913;
-85.5000;0.8417;-5.5094;
-85.2000;0.8449;-5.5094;
-84.9000;0.8376;-5.5198;
-84.6000;0.8425;-5.5016;
-84.3000;0.8417;-5.4913;
-84.0000;0.8441;-5.4783;
-83.7000;0.8425;-5.4887;
-83.4000;0.8449;-5.4835;
-83.1000;0.8433;-5.4783;
-82.8000;0.8449;-5.4706;
-82.5000;0.8433;-5.4783;
-82.2000;0.8433;-5.4809;
-81.9000;0.8425;-5.4783;
-81.6000;0.8449;-5.4654;
-81.3000;0.8400;-5.4809;
-81.0000;0.8441;-5.4732;
-80.7000;0.8433;-5.4732;
-80.4000;0.8441;-5.4732;
-80.1000;0.8449;-5.4680;
-79.8000;0.8417;-5.4783;
-79.5000;0.8433;-5.4732;
-79.2000;0.8441;-5.4783;
-78.9000;0.8425;-5.4809;
-78.6000;0.8441;-5.4861;
-78.3000;0.8441;-5.4887;
-78.0000;0.8449;-5.4809;
-77.7000;0.8457;-5.4861;
-77.4000;0.8449;-5.4861;
-77.1000;0.8433;-5.4939;
-76.8000;0.8425;-5.4939;
-76.5000;0.8417;-5.4991;
-76.2000;0.8441;-5.4913;
-75.9000;0.8425;-5.4887;
-75.6000;0.8433;-5.4887;
-75.3000;0.8425;-5.4939;
-75.0000;0.8474;-5.4835;
-74.7000;0.8433;-5.4939;
-74.4000;0.8417;-5.4991;
-74.1000;0.8441;-5.4939;
-73.8000;0.8449;-5.4861;
-73.5000;0.8425;-5.4835;
-73.2000;0.8449;-5.4783;
-72.9000;0.8449;-5.4783;
-72.6000;0.8441;-5.4887;
-72.3000;0.8441;-5.4939;
-72.0000;0.8400;-5.5016;
-71.7000;0.8433;-5.4913;
-71.4000;0.8441;-5.4835;
-71.1000;0.8457;-5.4809;
-70.8000;0.8449;-5.4887;
-70.5000;0.8425;-5.4939;
-70.2000;0.8441;-5.4887;
-69.9000;0.8441;-5.4887;
-69.6000;0.8425;-5.4913;
-69.3000;0.8425;-5.4861;
-69.0000;0.8433;-5.4835;
-68.7000;0.8425;-5.4835;
-68.4000;0.8433;-5.4809;
-68.1000;0.8425;-5.4783;
-67.8000;0.8441;-5.4809;
-67.5000;0.8449;-5.4783;
-67.2000;0.8449;-5.4757;
-66.9000;0.8449;-5.4783;
-66.6000;0.8433;-5.4757;
-66.3000;0.8466;-5.4680;
-66.0000;0.8449;-5.4680;
-65.7000;0.8417;-5.4680;
-65.4000;0.8384;-5.4783;
-65.1000;0.8409;-5.4835;
-64.8000;0.8441;-5.4835;
-64.5000;0.8433;-5.4809;
-64.2000;0.8433;-5.4757;
-63.9000;0.8433;-5.4757;
-63.6000;0.8482;-5.4628;
-63.3000;0.8441;-5.4732;
-63.0000;0.8449;-5.4706;
-62.7000;0.8425;-5.4732;
-62.4000;0.8417;-5.4783;
-62.1000;0.8449;-5.4706;
-61.8000;0.8449;-5.4732;
-61.5000;0.8449;-5.4680;
-61.2000;0.8433;-5.4732;
-60.9000;0.8433;-5.4680;
-60.6000;0.8466;-5.4628;
-60.3000;0.8417;-5.4809;
-60.0000;0.8457;-5.4757;
-59.7000;0.8449;-5.4809;
-59.4000;0.8457;-5.4809;
-59.1000;0.8449;-5.4887;
-58.8000;0.8417;-5.5016;
-58.5000;0.8400;-5.4991;
-58.2000;0.8433;-5.4965;
-57.9000;0.8449;-5.4809;
-57.6000;0.8449;-5.4732;
-57.3000;0.8433;-5.4757;
-57.0000;0.8466;-5.4628;
-56.7000;0.8433;-5.4680;
-56.4000;0.8409;-5.4732;
-56.1000;0.8433;-5.4732;
-55.8000;0.8449;-5.4680;
-55.5000;0.8449;-5.4732;
-55.2000;0.8425;-5.4757;
-54.9000;0.8417;-5.4861;
-54.6000;0.8441;-5.4706;
-54.3000;0.8449;-5.4732;
-54.0000;0.8441;-5.4706;
-53.7000;0.8433;-5.4783;
-53.4000;0.8433;-5.4809;
-53.1000;0.8441;-5.4783;
-52.8000;0.8425;-5.4732;
-52.5000;0.8441;-5.4757;
-52.2000;0.8425;-5.4809;
-51.9000;0.8441;-5.4809;
-51.6000;0.8441;-5.4913;
-51.3000;0.8433;-5.4939;
-51.0000;0.8449;-5.4835;
-50.7000;0.8400;-5.4939;
-50.4000;0.8433;-5.4809;
-50.1000;0.8441;-5.4835;
-49.8000;0.8441;-5.4783;
-49.5000;0.8449;-5.4809;
-49.2000;0.8531;-5.4628;
-48.9000;0.8441;-5.4809;
-48.6000;0.8433;-5.4835;
-48.3000;0.8449;-5.4887;
-48.0000;0.8409;-5.4991;
-47.7000;0.8417;-5.4965;
-47.4000;0.8409;-5.4939;
-47.1000;0.8433;-5.4861;
-46.8000;0.8425;-5.4809;
-46.5000;0.8425;-5.4732;
-46.2000;0.8417;-5.4757;
-45.9000;0.8433;-5.4809;
-45.6000;0.8433;-5.4732;
-45.3000;0.8433;-5.4732;
-45.0000;0.8449;-5.4680;
-44.7000;0.8441;-5.4680;
-44.4000;0.8449;-5.4757;
-44.1000;0.8449;-5.4783;
-43.8000;0.8498;-5.4680;
-43.5000;0.8433;-5.4783;
-43.2000;0.8441;-5.4680;
-42.9000;0.8433;-5.4706;
-42.6000;0.8457;-5.4783;
-42.3000;0.8417;-5.4809;
-42.0000;0.8482;-5.4757;
-41.7000;0.8449;-5.4939;
-41.4000;0.8425;-5.5042;
-41.1000;0.8441;-5.4939;
-40.8000;0.8425;-5.4913;
-40.5000;0.8441;-5.4887;
-40.2000;0.8441;-5.4861;
-39.9000;0.8433;-5.4939;
-39.6000;0.8514;-5.4732;
-39.3000;0.8425;-5.5016;
-39.0000;0.8433;-5.5042;
-38.7000;0.8466;-5.4965;
-38.4000;0.8433;-5.5042;
-38.1000;0.8433;-5.5016;
-37.8000;0.8433;-5.5042;
-37.5000;0.8433;-5.5068;
-37.2000;0.8433;-5.5042;
-36.9000;0.8425;-5.4965;
-36.6000;0.8482;-5.4809;
-36.3000;0.8433;-5.4939;
-36.0000;0.8441;-5.4887;
-35.7000;0.8441;-5.4861;
-35.4000;0.8466;-5.4783;
-35.1000;0.8417;-5.4913;
-34.8000;0.8417;-5.4965;
-34.5000;0.8433;-5.4913;
-34.2000;0.8433;-5.4783;
-33.9000;0.8441;-5.4783;
-33.6000;0.8441;-5.4732;
-33.3000;0.8417;-5.4861;
-33.0000;0.8449;-5.4835;
-32.7000;0.8425;-5.4913;
-32.4000;0.8433;-5.5042;
-32.1000;0.8441;-5.5042;
-31.8000;0.8433;-5.5068;
-31.5000;0.8441;-5.4991;
-31.2000;0.8441;-5.4835;
-30.9000;0.8425;-5.4835;
-30.6000;0.8433;-5.4965;
-30.3000;0.8433;-5.4965;
-30.0000;0.8449;-5.4939;
-29.7000;0.8425;-5.4939;
-29.4000;0.8433;-5.4809;
-29.1000;0.8466;-5.4757;
-28.8000;0.8433;-5.4783;
-28.5000;0.8425;-5.4861;
-28.2000;0.8425;-5.4913;
-27.9000;0.8433;-5.4861;
-27.6000;0.8400;-5.4887;
-27.3000;0.8409;-5.4809;
-27.0000;0.8457;-5.4628;
-26.7000;0.8449;-5.4576;
-26.4000;0.8433;-5.4628;
-26.1000;0.8409;-5.4706;
-25.8000;0.8409;-5.4680;
-25.5000;0.8417;-5.4680;
-25.2000;0.8433;-5.4654;
-24.9000;0.8433;-5.4732;
-24.6000;0.8441;-5.4757;
-24.3000;0.8441;-5.4809;
-24.0000;0.8425;-5.4809;
-23.7000;0.8441;-5.4783;
-23.4000;0.8417;-5.4861;
-23.1000;0.8433;-5.4757;
-22.8000;0.8441;-5.4680;
-22.5000;0.8425;-5.4809;
-22.2000;0.8425;-5.4835;
-21.9000;0.8433;-5.4680;
-21.6000;0.8466;-5.4628;
-21.3000;0.8457;-5.4757;
-21.0000;0.8449;-5.4706;
-20.7000;0.8433;-5.4654;
-20.4000;0.8433;-5.4732;
-20.1000;0.8441;-5.4809;
-19.8000;0.8425;-5.4861;
-19.5000;0.8449;-5.4835;
-19.2000;0.8449;-5.4809;
-18.9000;0.8433;-5.4783;
-18.6000;0.8425;-5.4835;
-18.3000;0.8441;-5.4887;
-18.0000;0.8425;-5.4887;
-17.7000;0.8441;-5.4913;
-17.4000;0.8376;-5.5146;
-17.1000;0.8433;-5.5146;
-16.8000;0.8392;-5.5224;
-16.5000;0.8433;-5.5068;
-16.2000;0.8425;-5.5068;
-15.9000;0.8417;-5.4991;
-15.6000;0.8417;-5.5042;
-15.3000;0.8425;-5.4965;
-15.0000;0.8433;-5.4939;
-14.7000;0.8409;-5.4939;
-14.4000;0.8425;-5.4991;
-14.1000;0.8457;-5.4861;
-13.8000;0.8449;-5.4913;
-13.5000;0.8441;-5.4913;
-13.2000;0.8417;-5.5016;
-12.9000;0.8409;-5.5016;
-12.6000;0.8433;-5.4913;
-12.3000;0.8425;-5.4861;
-12.0000;0.8425;-5.4913;
-11.7000;0.8441;-5.4861;
-11.4000;0.8376;-5.4965;
-11.1000;0.8506;-5.4576;
-10.8000;0.8425;-5.4835;
-10.5000;0.8425;-5.4783;
-10.2000;0.8425;-5.4783;
-9.9000;0.8433;-5.4809;
-9.6000;0.8384;-5.4913;
-9.3000;0.8433;-5.4887;
-9.0000;0.8425;-5.4861;
-8.7000;0.8417;-5.4913;
-8.4000;0.8425;-5.4835;
-8.1000;0.8425;-5.4835;
-7.8000;0.8425;-5.4913;
-7.5000;0.8425;-5.4991;
-7.2000;0.8400;-5.5042;
-6.9000;0.8409;-5.5068;
-6.6000;0.8425;-5.5042;
-6.3000;0.8425;-5.5016;
-6.0000;0.8433;-5.5016;
-5.7000;0.8498;-5.4913;
-5.4000;0.8409;-5.5094;
-5.1000;0.8482;-5.4835;
-4.8000;0.8425;-5.4887;
-4.5000;0.8392;-5.4939;
-4.2000;0.8449;-5.4861;
-3.9000;0.8409;-5.4887;
-3.6000;0.8425;-5.4861;
-3.3000;0.8433;-5.4887;
-3.0000;0.8433;-5.4913;
-2.7000;0.8433;-5.4965;
-2.4000;0.8433;-5.4939;
-2.1000;0.8425;-5.4991;
-1.8000;0.8425;-5.5016;
-1.5000;0.8441;-5.4965;
-1.2000;0.8441;-5.4991;
-0.9000;0.8417;-5.5068;
-0.6000;0.8441;-5.4991;
-0.3000;0.8425;-5.5016;
0.0000;0.8425;-5.5016;
0.3000;0.8612;-5.4732;
0.6000;0.8832;-5.4188;
0.9000;0.9019;-5.3721;
1.2000;0.9174;-5.3203;
1.5000;0.9280;-5.2841;
1.8000;0.9394;-5.2478;
2.1000;0.9385;-5.2426;
2.4000;0.9516;-5.2141;
2.7000;0.9548;-5.2064;
3.0000;0.9605;-5.1830;
3.3000;0.9646;-5.1597;
3.6000;0.9662;-5.1597;
3.9000;0.9719;-5.1390;
4.2000;0.9711;-5.1338;
4.5000;0.9752;-5.1157;
4.8000;0.9776;-5.1105;
5.1000;0.9792;-5.1105;
5.4000;0.9792;-5.1053;
5.7000;0.9841;-5.1079;
6.0000;0.9833;-5.1131;
6.3000;0.9849;-5.1157;
6.6000;0.9841;-5.1183;
6.9000;0.9882;-5.1053;
7.2000;0.9890;-5.1002;
7.5000;0.9906;-5.1053;
7.8000;0.9931;-5.0950;
8.1000;0.9955;-5.0976;
8.4000;0.9955;-5.1053;
8.7000;0.9972;-5.1002;
9.0000;0.9980;-5.1002;
9.3000;0.9996;-5.1002;
9.6000;1.0020;-5.1002;
9.9000;1.0012;-5.1028;
10.2000;1.0037;-5.1053;
10.5000;1.0028;-5.1105;
10.8000;1.0053;-5.1079;
11.1000;1.0061;-5.1002;
11.4000;1.0061;-5.1053;
11.7000;1.0077;-5.1028;
12.0000;1.0094;-5.1028;
12.3000;1.0094;-5.1131;
12.6000;1.0085;-5.1131;
12.9000;1.0118;-5.1002;
13.2000;1.0126;-5.0924;
13.5000;1.0110;-5.0924;
13.8000;1.0110;-5.0924;
14.1000;1.0134;-5.0950;
14.4000;1.0159;-5.1028;
14.7000;1.0134;-5.1157;
15.0000;1.0110;-5.1287;
15.3000;1.0118;-5.1235;
15.6000;1.0159;-5.1183;
15.9000;1.0183;-5.1079;
16.2000;1.0191;-5.1131;
16.5000;1.0167;-5.1157;
16.8000;1.0191;-5.1053;
17.1000;1.0183;-5.1053;
17.4000;1.0208;-5.1028;
17.7000;1.0183;-5.1131;
18.0000;1.0232;-5.1053;
18.3000;1.0224;-5.1105;
18.6000;1.0224;-5.1002;
18.9000;1.0224;-5.1157;
19.2000;1.0232;-5.1209;
19.5000;1.0289;-5.1053;
19.8000;1.0183;-5.1261;
20.1000;1.0248;-5.1053;
20.4000;1.0265;-5.1002;
20.7000;1.0248;-5.1028;
21.0000;1.0240;-5.1053;
21.3000;1.0322;-5.0794;
21.6000;1.0265;-5.0924;
21.9000;1.0265;-5.0898;
22.2000;1.0265;-5.0872;
22.5000;1.0273;-5.0898;
22.8000;1.0265;-5.0976;
23.1000;1.0273;-5.1053;
23.4000;1.0281;-5.0950;
23.7000;1.0281;-5.0976;
24.0000;1.0338;-5.0872;
24.3000;1.0289;-5.1105;
24.6000;1.0297;-5.1157;
24.9000;1.0289;-5.1105;
25.2000;1.0297;-5.1131;
25.5000;1.0297;-5.1105;
25.8000;1.0305;-5.1131;
26.1000;1.0281;-5.1209;
26.4000;1.0297;-5.1157;
26.7000;1.0297;-5.1209;
27.0000;1.0313;-5.1079;
27.3000;1.0265;-5.1157;
27.6000;1.0248;-5.1287;
27.9000;1.0265;-5.1209;
28.2000;1.0322;-5.1079;
28.5000;1.0362;-5.0846;
28.8000;1.0305;-5.0950;
29.1000;1.0305;-5.1053;
29.4000;1.0297;-5.1028;
29.7000;1.0313;-5.1079;
30.0000;1.0313;-5.0898;
30.3000;1.0305;-5.0846;
30.6000;1.0313;-5.0768;
30.9000;1.0313;-5.0717;
31.2000;1.0313;-5.0665;
31.5000;1.0330;-5.0665;
31.8000;1.0313;-5.0794;
32.1000;1.0330;-5.1053;
32.4000;1.0305;-5.1105;
32.7000;1.0346;-5.1053;
33.0000;1.0313;-5.1105;
33.3000;1.0330;-5.1131;
33.6000;1.0387;-5.1053;
33.9000;1.0346;-5.1105;
34.2000;1.0338;-5.1235;
34.5000;1.0354;-5.1209;
34.8000;1.0346;-5.1209;
35.1000;1.0362;-5.1183;
35.4000;1.0313;-5.1235;
35.7000;1.0427;-5.0898;
36.0000;1.0354;-5.1053;
36.3000;1.0370;-5.1002;
36.6000;1.0354;-5.0976;
36.9000;1.0346;-5.1002;
37.2000;1.0354;-5.1079;
37.5000;1.0346;-5.1028;
37.8000;1.0338;-5.1053;
38.1000;1.0354;-5.1053;
38.4000;1.0370;-5.1079;
38.7000;1.0362;-5.1157;
39.0000;1.0354;-5.1183;
39.3000;1.0362;-5.1209;
39.6000;1.0362;-5.1157;
39.9000;1.0362;-5.1105;
40.2000;1.0346;-5.1235;
40.5000;1.0346;-5.1312;
40.8000;1.0346;-5.1338;
41.1000;1.0354;-5.1338;
41.4000;1.0338;-5.1390;
41.7000;1.0346;-5.1390;
42.0000;1.0338;-5.1442;
42.3000;1.0354;-5.1390;
42.6000;1.0379;-5.1390;
42.9000;1.0338;-5.1468;
43.2000;1.0370;-5.1287;
43.5000;1.0387;-5.1235;
43.8000;1.0370;-5.1183;
44.1000;1.0370;-5.1183;
44.4000;1.0387;-5.1079;
44.7000;1.0362;-5.1131;
45.0000;1.0379;-5.1209;
45.3000;1.0387;-5.1235;
45.6000;1.0370;-5.1209;
45.9000;1.0370;-5.1131;
46.2000;1.0379;-5.1079;
46.5000;1.0387;-5.1053;
46.8000;1.0379;-5.1028;
47.1000;1.0395;-5.0976;
47.4000;1.0387;-5.0950;
47.7000;1.0387;-5.1028;
48.0000;1.0362;-5.1028;
48.3000;1.0370;-5.1053;
48.6000;1.0395;-5.0898;
48.9000;1.0395;-5.0872;
49.2000;1.0379;-5.0898;
49.5000;1.0338;-5.1002;
49.8000;1.0362;-5.0950;
50.1000;1.0387;-5.0976;
50.4000;1.0379;-5.0976;
50.7000;1.0379;-5.1002;
51.0000;1.0354;-5.0976;
51.3000;1.0387;-5.0950;
51.6000;1.0379;-5.0976;
51.9000;1.0379;-5.0976;
52.2000;1.0362;-5.1053;
52.5000;1.0387;-5.1079;
52.8000;1.0395;-5.1131;
53.1000;1.0403;-5.1053;
53.4000;1.0379;-5.1105;
53.7000;1.0379;-5.1183;
54.0000;1.0403;-5.1209;
54.3000;1.0379;-5.1209;
54.6000;1.0379;-5.1209;
54.9000;1.0379;-5.1261;
55.2000;1.0395;-5.1157;
55.5000;1.0395;-5.1209;
55.8000;1.0379;-5.1157;
56.1000;1.0387;-5.1157;
56.4000;1.0395;-5.1105;
56.7000;1.0387;-5.1079;
57.0000;1.0395;-5.1028;
57.3000;1.0387;-5.1002;
57.6000;1.0354;-5.1028;
57.9000;1.0411;-5.0898;
58.2000;1.0379;-5.0976;
58.5000;1.0379;-5.1002;
58.8000;1.0403;-5.0924;
59.1000;1.0395;-5.0898;
59.4000;1.0411;-5.0924;
59.7000;1.0395;-5.0950;
60.0000;1.0387;-5.1002;
60.3000;1.0387;-5.1028;
60.6000;1.0403;-5.1002;
60.9000;1.0395;-5.1053;
61.2000;1.0387;-5.0976;
61.5000;1.0411;-5.0898;
61.8000;1.0387;-5.0924;
62.1000;1.0379;-5.0950;
62.4000;1.0452;-5.0820;
62.7000;1.0411;-5.0846;
63.0000;1.0403;-5.0794;
63.3000;1.0403;-5.0768;
63.6000;1.0387;-5.0743;
63.9000;1.0395;-5.0717;
64.2000;1.0379;-5.0820;
64.5000;1.0403;-5.0794;
64.8000;1.0379;-5.0872;
65.1000;1.0395;-5.0924;
65.4000;1.0419;-5.0898;
65.7000;1.0395;-5.0924;
66.0000;1.0338;-5.1028;
66.3000;1.0379;-5.0924;
66.6000;1.0411;-5.0846;
66.9000;1.0452;-5.0794;
67.2000;1.0403;-5.0924;
67.5000;1.0395;-5.0846;
67.8000;1.0395;-5.0846;
68.1000;1.0419;-5.0950;
68.4000;1.0476;-5.0872;
68.7000;1.0411;-5.1002;
69.0000;1.0403;-5.1105;
69.3000;1.0411;-5.1209;
69.6000;1.0411;-5.1157;
69.9000;1.0403;-5.1209;
70.2000;1.0395;-5.1209;
70.5000;1.0403;-5.1235;
70.8000;1.0395;-5.1235;
71.1000;1.0403;-5.1338;
71.4000;1.0476;-5.1131;
71.7000;1.0395;-5.1287;
72.0000;1.0411;-5.1287;
72.3000;1.0403;-5.1287;
72.6000;1.0403;-5.1287;
72.9000;1.0427;-5.1235;
73.2000;1.0403;-5.1235;
73.5000;1.0403;-5.1157;
73.8000;1.0419;-5.1105;
74.1000;1.0403;-5.1028;
74.4000;1.0338;-5.1157;
74.7000;1.0492;-5.0820;
75.0000;1.0411;-5.0976;
75.3000;1.0346;-5.1157;
75.6000;1.0468;-5.1028;
75.9000;1.0419;-5.1157;
76.2000;1.0444;-5.1157;
76.5000;1.0387;-5.1338;
76.8000;1.0411;-5.1235;
77.1000;1.0419;-5.1183;
77.4000;1.0403;-5.1105;
77.7000;1.0460;-5.0950;
78.0000;1.0419;-5.1131;
78.3000;1.0444;-5.1028;
78.6000;1.0411;-5.1002;
78.9000;1.0403;-5.1002;
79.2000;1.0354;-5.1002;
79.5000;1.0411;-5.0768;
79.8000;1.0395;-5.0846;
80.1000;1.0403;-5.0924;
80.4000;1.0403;-5.0976;
80.7000;1.0387;-5.1002;
81.0000;1.0403;-5.0976;
81.3000;1.0338;-5.1131;
81.6000;1.0395;-5.1053;
81.9000;1.0403;-5.0976;
82.2000;1.0370;-5.1028;
82.5000;1.0403;-5.0768;
82.8000;1.0395;-5.0846;
83.1000;1.0427;-5.0794;
83.4000;1.0411;-5.0872;
83.7000;1.0395;-5.0872;
84.0000;1.0387;-5.0924;
84.3000;1.0387;-5.1028;
84.6000;1.0411;-5.1131;
84.9000;1.0419;-5.1105;
85.2000;1.0419;-5.1053;
85.5000;1.0435;-5.1079;
85.8000;1.0403;-5.1183;
86.1000;1.0419;-5.1183;
86.4000;1.0419;-5.1235;
86.7000;1.0379;-5.1235;
87.0000;1.0427;-5.1079;
87.3000;1.0362;-5.1261;
87.6000;1.0419;-5.1105;
87.9000;1.0411;-5.1002;
88.2000;1.0403;-5.1002;
88.5000;1.0411;-5.1028;
88.8000;1.0411;-5.1002;
89.1000;1.0395;-5.1002;
89.4000;1.0411;-5.1028;
89.7000;1.0411;-5.0976;
90.0000;1.0435;-5.0898;
90.3000;1.0313;-5.1157;
90.6000;1.0411;-5.0820;
90.9000;1.0387;-5.0898;
91.2000;1.0403;-5.0820;
91.5000;1.0460;-5.0717;
91.8000;1.0395;-5.0950;
92.1000;1.0395;-5.0950;
92.4000;1.0387;-5.0898;
92.7000;1.0395;-5.0846;
93.0000;1.0379;-5.0924;
93.3000;1.0411;-5.0846;
93.6000;1.0379;-5.0976;
93.9000;1.0403;-5.1002;
94.2000;1.0403;-5.1053;
94.5000;1.0403;-5.1131;
94.8000;1.0395;-5.1131;
95.1000;1.0419;-5.1105;
95.4000;1.0403;-5.1157;
95.7000;1.0395;-5.1131;
96.0000;1.0411;-5.1079;
96.3000;1.0419;-5.1079;
96.6000;1.0403;-5.1028;
96.9000;1.0403;-5.0950;
97.2000;1.0379;-5.0846;
97.5000;1.0403;-5.0820;
97.8000;1.0411;-5.0924;
98.1000;1.0411;-5.0898;
98.4000;1.0411;-5.0924;
98.7000;1.0444;-5.0820;
99.0000;1.0411;-5.0768;
99.3000;1.0419;-5.0768;
99.6000;1.0403;-5.0768;
99.9000;1.0403;-5.0872;
100.2000;1.0460;-5.0665;
100.5000;1.0395;-5.0898;
100.8000;1.0403;-5.0924;
101.1000;1.0411;-5.0950;
101.4000;1.0419;-5.0976;
101.7000;1.0452;-5.0794;
102.0000;1.0403;-5.0950;
102.3000;1.0395;-5.1002;
102.6000;1.0403;-5.1028;
102.9000;1.0411;-5.1002;
103.2000;1.0395;-5.1028;
103.5000;1.0419;-5.0976;
103.8000;1.0419;-5.0950;
104.1000;1.0395;-5.1002;
104.4000;1.0411;-5.0898;
104.7000;1.0411;-5.1002;
105.0000;1.0452;-5.0950;
105.3000;1.0435;-5.1002;
105.6000;1.0403;-5.1079;
105.9000;1.0411;-5.1028;
106.2000;1.0395;-5.1131;
106.5000;1.0403;-5.1002;
106.8000;1.0379;-5.1079;
107.1000;1.0411;-5.1053;
107.4000;1.0370;-5.1157;
107.7000;1.0403;-5.0976;
108.0000;1.0354;-5.1079;
108.3000;1.0370;-5.1079;
108.6000;1.0411;-5.0976;
108.9000;1.0403;-5.1002;
109.2000;1.0395;-5.0950;
109.5000;1.0395;-5.1002;
109.8000;1.0362;-5.1105;
110.1000;1.0395;-5.1053;
110.4000;1.0395;-5.1028;
110.7000;1.0403;-5.0950;
111.0000;1.0476;-5.0768;
111.3000;1.0370;-5.1028;
111.6000;1.0379;-5.0898;
111.9000;1.0395;-5.0898;
112.2000;1.0379;-5.0924;
112.5000;1.0403;-5.1002;
112.8000;1.0403;-5.1053;
113.1000;1.0411;-5.1079;
113.4000;1.0346;-5.1235;
113.7000;1.0411;-5.1157;
114.0000;1.0403;-5.1131;
114.3000;1.0403;-5.1131;
114.6000;1.0387;-5.1183;
114.9000;1.0444;-5.1105;
115.2000;1.0395;-5.1235;
115.5000;1.0419;-5.1131;
115.8000;1.0419;-5.1183;
116.1000;1.0379;-5.1261;
116.4000;1.0395;-5.1235;
116.7000;1.0419;-5.1105;
117.0000;1.0411;-5.1235;
117.3000;1.0395;-5.1287;
117.6000;1.0387;-5.1312;
117.9000;1.0395;-5.1261;
118.2000;1.0379;-5.1261;
118.5000;1.0379;-5.1131;
118.8000;1.0379;-5.1079;
119.1000;1.0403;-5.0976;
119.4000;1.0403;-5.0976;
119.7000;1.0370;-5.1002;
120.0000;1.0387;-5.1002;
120.3000;1.0403;-5.0898;
120.6000;1.0387;-5.0898;
120.9000;1.0411;-5.0820;
121.2000;1.0395;-5.0976;
121.5000;1.0435;-5.0898;
121.8000;1.0411;-5.0898;
122.1000;1.0387;-5.0898;
122.4000;1.0379;-5.0820;
122.7000;1.0395;-5.0872;
123.0000;1.0395;-5.0820;
123.3000;1.0395;-5.0820;
123.6000;1.0395;-5.0898;
123.9000;1.0403;-5.1002;
124.2000;1.0411;-5.1028;
124.5000;1.0395;-5.1131;
124.8000;1.0395;-5.1131;
125.1000;1.0403;-5.1053;
125.4000;1.0395;-5.1028;
125.7000;1.0411;-5.1028;
126.0000;1.0403;-5.1002;
126.3000;1.0411;-5.1053;
126.6000;1.0411;-5.1002;
126.9000;1.0411;-5.0976;
127.2000;1.0476;-5.0794;
127.5000;1.0395;-5.0924;
127.8000;1.0387;-5.1028;
128.1000;1.0387;-5.0950;
128.4000;1.0403;-5.0898;
128.7000;1.0395;-5.0950;
129.0000;1.0411;-5.0898;
129.3000;1.0395;-5.0950;
129.6000;1.0370;-5.1028;
129.9000;1.0395;-5.0976;
130.2000;1.0411;-5.0950;
130.5000;1.0387;-5.0950;
130.8000;1.0395;-5.0898;
131.1000;1.0403;-5.0846;
131.4000;1.0379;-5.0872;
131.7000;1.0403;-5.0872;
132.0000;1.0395;-5.0898;
132.3000;1.0387;-5.1028;
132.6000;1.0395;-5.1079;
132.9000;1.0379;-5.1157;
133.2000;1.0403;-5.1131;
133.5000;1.0411;-5.1105;
133.8000;1.0362;-5.1209;
134.1000;1.0379;-5.1209;
134.4000;1.0395;-5.1157;
134.7000;1.0403;-5.1131;
135.0000;1.0387;-5.1131;
135.3000;1.0395;-5.1131;
135.6000;1.0387;-5.1105;
135.9000;1.0387;-5.1131;
136.2000;1.0395;-5.1131;
136.5000;1.0387;-5.1079;
136.8000;1.0395;-5.1053;
137.1000;1.0387;-5.1002;
137.4000;1.0403;-5.0898;
137.7000;1.0395;-5.0976;
138.0000;1.0427;-5.0846;
138.3000;1.0387;-5.0924;
138.6000;1.0387;-5.0976;
138.9000;1.0387;-5.0950;
139.2000;1.0387;-5.0976;
139.5000;1.0395;-5.1028;
139.8000;1.0411;-5.1131;
140.1000;1.0403;-5.1131;
140.4000;1.0411;-5.1105;
140.7000;1.0411;-5.1079;
141.0000;1.0427;-5.1079;
141.3000;1.0395;-5.1131;
141.6000;1.0395;-5.1053;
141.9000;1.0387;-5.1105;
142.2000;1.0403;-5.1131;
142.5000;1.0387;-5.1131;
142.8000;1.0395;-5.1131;
143.1000;1.0395;-5.1079;
143.4000;1.0387;-5.1053;
143.7000;1.0403;-5.1028;
144.0000;1.0395;-5.1028;
144.3000;1.0379;-5.1028;
144.6000;1.0403;-5.1028;
144.9000;1.0379;-5.0976;
145.2000;1.0460;-5.0872;
145.5000;1.0379;-5.1053;
145.8000;1.0411;-5.1053;
146.1000;1.0354;-5.1131;
146.4000;1.0379;-5.0924;
146.7000;1.0419;-5.0846;
147.0000;1.0395;-5.0846;
147.3000;1.0411;-5.0898;
147.6000;1.0395;-5.0872;
147.9000;1.0379;-5.0820;
148.2000;1.0387;-5.0924;
148.5000;1.0403;-5.0976;
148.8000;1.0379;-5.1079;
149.1000;1.0395;-5.1079;
149.4000;1.0379;-5.1105;
149.7000;1.0419;-5.1028;
150.0000;1.0492;-5.0846;
150.3000;1.0411;-5.0976;
150.6000;1.0411;-5.0950;
150.9000;1.0387;-5.1002;
151.2000;1.0419;-5.0976;
151.5000;1.0403;-5.0976;
151.8000;1.0403;-5.1053;
152.1000;1.0403;-5.1079;
152.4000;1.0427;-5.0950;
152.7000;1.0403;-5.0950;
153.0000;1.0403;-5.1028;
153.3000;1.0387;-5.1028;
153.6000;1.0387;-5.1131;
153.9000;1.0395;-5.1105;
154.2000;1.0387;-5.1105;
154.5000;1.0379;-5.1157;
154.8000;1.0395;-5.1079;
155.1000;1.0379;-5.1105;
155.4000;1.0403;-5.1209;
155.7000;1.0395;-5.1209;
156.0000;1.0411;-5.1131;
156.3000;1.0411;-5.1028;
156.6000;1.0395;-5.1105;
156.9000;1.0395;-5.1131;
157.2000;1.0403;-5.1079;
157.5000;1.0395;-5.0950;
157.8000;1.0395;-5.0898;
158.1000;1.0370;-5.0872;
158.4000;1.0370;-5.0924;
158.7000;1.0395;-5.0976;
159.0000;1.0387;-5.0898;
159.3000;1.0395;-5.0924;
159.6000;1.0379;-5.1002;
159.9000;1.0403;-5.1028;
160.2000;1.0411;-5.1053;
160.5000;1.0387;-5.1105;
160.8000;1.0403;-5.1131;
161.1000;1.0395;-5.1131;
161.4000;1.0411;-5.1105;
161.7000;1.0395;-5.1079;
162.0000;1.0395;-5.1157;
162.3000;1.0403;-5.1028;
162.6000;1.0411;-5.1002;
162.9000;1.0395;-5.1105;
163.2000;1.0387;-5.1131;
163.5000;1.0395;-5.1105;
163.8000;1.0395;-5.1105;
164.1000;1.0403;-5.1079;
164.4000;1.0395;-5.1079;
164.7000;1.0395;-5.1028;
165.0000;1.0395;-5.0924;
165.3000;1.0411;-5.0950;
165.6000;1.0403;-5.0950;
165.9000;1.0403;-5.0976;
166.2000;1.0403;-5.1053;
166.5000;1.0379;-5.1053;
166.8000;1.0403;-5.1002;
167.1000;1.0403;-5.1028;
167.4000;1.0403;-5.1053;
167.7000;1.0395;-5.1183;
168.0000;1.0403;-5.1183;
168.3000;1.0403;-5.1235;
168.6000;1.0403;-5.1261;
168.9000;1.0403;-5.1157;
169.2000;1.0395;-5.1157;
169.5000;1.0395;-5.1105;
169.8000;1.0395;-5.1053;
170.1000;1.0395;-5.1079;
170.4000;1.0387;-5.1157;
170.7000;1.0387;-5.1131;
171.0000;1.0387;-5.1157;
171.3000;1.0403;-5.1131;
171.6000;1.0403;-5.1131;
171.9000;1.0395;-5.1209;
172.2000;1.0395;-5.1287;
172.5000;1.0387;-5.1312;
172.8000;1.0387;-5.1235;
173.1000;1.0395;-5.1183;
173.4000;1.0362;-5.1235;
173.7000;1.0387;-5.1183;
174.0000;1.0387;-5.1235;
174.3000;1.0387;-5.1209;
174.6000;1.0379;-5.1312;
174.9000;1.0379;-5.1364;
175.2000;1.0379;-5.1312;
175.5000;1.0354;-5.1261;
175.8000;1.0403;-5.1105;
176.1000;1.0387;-5.0976;
176.4000;1.0370;-5.0950;
176.7000;1.0387;-5.0820;
177.0000;1.0395;-5.0794;
177.3000;1.0387;-5.0846;
177.6000;1.0387;-5.0976;
177.9000;1.0403;-5.0924;
178.2000;1.0395;-5.1028;
178.5000;1.0387;-5.1079;
178.8000;1.0387;-5.1053;
179.1000;1.0395;-5.1079;
179.4000;1.0403;-5.1053;
179.7000;1.0387;-5.1183;
180.0000;1.0370;-5.1131;
180.3000;1.0387;-5.0976;
180.6000;1.0387;-5.1002;
180.9000;1.0338;-5.1105;
181.2000;1.0379;-5.0976;
181.5000;1.0313;-5.1157;
181.8000;1.0387;-5.0976;
182.1000;1.0395;-5.0950;
182.4000;1.0395;-5.0976;
182.7000;1.0379;-5.1053;
183.0000;1.0362;-5.1053;
183.3000;1.0403;-5.1028;
183.6000;1.0395;-5.1053;
183.9000;1.0387;-5.1105;
184.2000;1.0338;-5.1183;
184.5000;1.0346;-5.1131;
184.8000;1.0370;-5.1028;
185.1000;1.0387;-5.1105;
185.4000;1.0395;-5.1053;
185.7000;1.0370;-5.1028;
186.0000;1.0387;-5.1028;
186.3000;1.0379;-5.1028;
186.6000;1.0379;-5.1002;
186.9000;1.0403;-5.0950;
187.2000;1.0379;-5.0976;
187.5000;1.0395;-5.0950;
187.8000;1.0379;-5.1028;
188.1000;1.0379;-5.0924;
188.4000;1.0370;-5.1002;
188.7000;1.0379;-5.0872;
189.0000;1.0387;-5.0872;
189.3000;1.0370;-5.0924;
189.6000;1.0322;-5.1053;
189.9000;1.0362;-5.0898;
190.2000;1.0387;-5.0950;
190.5000;1.0370;-5.0976;
190.8000;1.0387;-5.0976;
191.1000;1.0387;-5.0924;
191.4000;1.0379;-5.1028;
191.7000;1.0387;-5.1157;
192.0000;1.0395;-5.1131;
192.3000;1.0387;-5.1131;
192.6000;1.0395;-5.1157;
192.9000;1.0387;-5.1157;
193.2000;1.0387;-5.1287;
193.5000;1.0411;-5.1287;
193.8000;1.0387;-5.1312;
194.1000;1.0379;-5.1209;
194.4000;1.0387;-5.1157;
194.7000;1.0387;-5.1105;
195.0000;1.0387;-5.1079;
195.3000;1.0387;-5.1053;
195.6000;1.0387;-5.1002;
195.9000;1.0330;-5.1105;
196.2000;1.0379;-5.0898;
196.5000;1.0370;-5.1053;
196.8000;1.0395;-5.1079;
197.1000;1.0411;-5.1079;
197.4000;1.0411;-5.1105;
197.7000;1.0395;-5.1079;
198.0000;1.0379;-5.1002;
198.3000;1.0362;-5.1105;
198.6000;1.0403;-5.1131;
198.9000;1.0387;-5.1079;
199.2000;1.0395;-5.0976;
199.5000;1.0403;-5.0898;
199.8000;1.0403;-5.0950;
200.1000;1.0427;-5.0950;
200.4000;1.0379;-5.1079;
200.7000;1.0346;-5.1183;
201.0000;1.0379;-5.1105;
201.3000;1.0387;-5.1079;
201.6000;1.0395;-5.1131;
201.9000;1.0395;-5.1079;
202.2000;1.0395;-5.1079;
202.5000;1.0395;-5.1053;
202.8000;1.0370;-5.1028;
203.1000;1.0379;-5.0924;
203.4000;1.0427;-5.0846;
203.7000;1.0403;-5.0872;
204.0000;1.0403;-5.0872;
204.3000;1.0387;-5.0924;
204.6000;1.0387;-5.0898;
204.9000;1.0379;-5.0924;
205.2000;1.0379;-5.0924;
205.5000;1.0379;-5.1002;
205.8000;1.0395;-5.1028;
206.1000;1.0362;-5.1131;
206.4000;1.0379;-5.1002;
206.7000;1.0379;-5.1079;
207.0000;1.0370;-5.1105;
207.3000;1.0411;-5.0976;
207.6000;1.0387;-5.1002;
207.9000;1.0395;-5.1079;
208.2000;1.0395;-5.1028;
208.5000;1.0387;-5.1028;
208.8000;1.0411;-5.0898;
209.1000;1.0379;-5.1028;
209.4000;1.0379;-5.1002;
209.7000;1.0379;-5.1028;
210.0000;1.0403;-5.1002;
210.3000;1.0387;-5.1002;
210.6000;1.0370;-5.1028;
210.9000;1.0370;-5.1079;
211.2000;1.0370;-5.0950;
211.5000;1.0379;-5.0820;
211.8000;1.0387;-5.0743;
212.1000;1.0395;-5.0768;
212.4000;1.0403;-5.0872;
212.7000;1.0387;-5.0924;
213.0000;1.0379;-5.0898;
213.3000;1.0370;-5.0872;
213.6000;1.0362;-5.0924;
213.9000;1.0395;-5.0950;
214.2000;1.0387;-5.1053;
214.5000;1.0411;-5.0976;
214.8000;1.0444;-5.0846;
215.1000;1.0395;-5.0976;
215.4000;1.0379;-5.1028;
215.7000;1.0387;-5.1002;
216.0000;1.0379;-5.1053;
216.3000;1.0330;-5.1209;
216.6000;1.0379;-5.1053;
216.9000;1.0362;-5.1053;
217.2000;1.0338;-5.1079;
217.5000;1.0362;-5.0950;
217.8000;1.0379;-5.0976;
218.1000;1.0379;-5.1105;
218.4000;1.0387;-5.1028;
218.7000;1.0370;-5.1028;
219.0000;1.0387;-5.0976;
219.3000;1.0411;-5.0898;
219.6000;1.0403;-5.0898;
219.9000;1.0379;-5.0950;
220.2000;1.0354;-5.1105;
220.5000;1.0370;-5.1053;
220.8000;1.0379;-5.0976;
221.1000;1.0362;-5.1053;
221.4000;1.0379;-5.1053;
221.7000;1.0403;-5.1053;
222.0000;1.0387;-5.1053;
222.3000;1.0379;-5.1002;
222.6000;1.0395;-5.0976;
222.9000;1.0395;-5.0950;
223.2000;1.0403;-5.0924;
223.5000;1.0379;-5.1028;
223.8000;1.0387;-5.1002;
224.1000;1.0411;-5.0976;
224.4000;1.0395;-5.0976;
224.7000;1.0403;-5.0950;
225.0000;1.0370;-5.1105;
225.3000;1.0370;-5.1131;
225.6000;1.0370;-5.1183;
225.9000;1.0379;-5.1183;
226.2000;1.0387;-5.1131;
226.5000;1.0403;-5.1002;
226.8000;1.0387;-5.1002;
227.1000;1.0370;-5.1002;
227.4000;1.0419;-5.0976;
227.7000;1.0379;-5.1105;
228.0000;1.0379;-5.1028;
228.3000;1.0444;-5.0950;
228.6000;1.0362;-5.1053;
228.9000;1.0379;-5.1053;
229.2000;1.0387;-5.1053;
229.5000;1.0395;-5.1053;
229.8000;1.0379;-5.1028;
230.1000;1.0379;-5.1105;
230.4000;1.0387;-5.1105;
230.7000;1.0379;-5.1079;
231.0000;1.0362;-5.1183;
231.3000;1.0379;-5.1183;
231.6000;1.0362;-5.1131;
231.9000;1.0370;-5.1079;
232.2000;1.0370;-5.1002;
232.5000;1.0370;-5.1028;
232.8000;1.0379;-5.1002;
233.1000;1.0395;-5.0898;
233.4000;1.0370;-5.0976;
233.7000;1.0370;-5.0976;
234.0000;1.0379;-5.1053;
234.3000;1.0379;-5.0950;
234.6000;1.0403;-5.1002;
234.9000;1.0387;-5.1002;
235.2000;1.0370;-5.1002;
235.5000;1.0379;-5.1002;
235.8000;1.0387;-5.0976;
236.1000;1.0379;-5.1053;
236.4000;1.0354;-5.1131;
236.7000;1.0370;-5.1157;
237.0000;1.0370;-5.1235;
237.3000;1.0370;-5.1209;
237.6000;1.0362;-5.1183;
237.9000;1.0370;-5.1235;
238.2000;1.0395;-5.1209;
238.5000;1.0387;-5.1235;
238.8000;1.0395;-5.1338;
239.1000;1.0362;-5.1416;
239.4000;1.0387;-5.1390;
239.7000;1.0362;-5.1494;
240.0000;1.0403;-5.1312;
240.3000;1.0379;-5.1364;
240.6000;1.0338;-5.1468;
240.9000;1.0387;-5.1312;
241.2000;1.0370;-5.1390;
241.5000;1.0354;-5.1416;
241.8000;1.0379;-5.1312;
242.1000;1.0403;-5.1183;
242.4000;1.0387;-5.1312;
242.7000;1.0354;-5.1287;
243.0000;1.0370;-5.1312;
243.3000;1.0370;-5.1261;
243.6000;1.0419;-5.1183;
243.9000;1.0354;-5.1105;
244.2000;1.0370;-5.1105;
244.5000;1.0370;-5.1105;
244.8000;1.0362;-5.1053;
245.1000;1.0379;-5.1079;
245.4000;1.0362;-5.1157;
245.7000;1.0322;-5.1312;
246.0000;1.0370;-5.1261;
246.3000;1.0354;-5.1235;
246.6000;1.0346;-5.1338;
246.9000;1.0379;-5.1157;
247.2000;1.0370;-5.1105;
247.5000;1.0395;-5.1053;
247.8000;1.0403;-5.1028;
248.1000;1.0370;-5.1105;
248.4000;1.0379;-5.1053;
248.7000;1.0379;-5.1131;
249.0000;1.0362;-5.1209;
249.3000;1.0354;-5.1261;
249.6000;1.0379;-5.1209;
249.9000;1.0379;-5.1261;
250.2000;1.0370;-5.1235;
250.5000;1.0387;-5.1131;
250.8000;1.0370;-5.1183;
251.1000;1.0387;-5.1261;
251.4000;1.0395;-5.1338;
251.7000;1.0362;-5.1390;
252.0000;1.0395;-5.1390;
252.3000;1.0379;-5.1312;
252.6000;1.0379;-5.1287;
252.9000;1.0379;-5.1287;
253.2000;1.0370;-5.1338;
253.5000;1.0403;-5.1209;
253.8000;1.0395;-5.1183;
254.1000;1.0362;-5.1183;
254.4000;1.0354;-5.1209;
254.7000;1.0379;-5.1157;
255.0000;1.0379;-5.1209;
255.3000;1.0387;-5.1209;
255.6000;1.0387;-5.1235;
255.9000;1.0419;-5.1183;
256.2000;1.0379;-5.1287;
256.5000;1.0362;-5.1209;
256.8000;1.0362;-5.1209;
257.1000;1.0435;-5.1002;
257.4000;1.0387;-5.1131;
257.7000;1.0370;-5.1209;
258.0000;1.0379;-5.1183;
258.3000;1.0379;-5.1105;
258.6000;1.0387;-5.1053;
258.9000;1.0370;-5.1079;
259.2000;1.0370;-5.1053;
259.5000;1.0387;-5.1053;
259.8000;1.0370;-5.1105;
260.1000;1.0395;-5.1105;
260.4000;1.0338;-5.1235;
260.7000;1.0379;-5.1183;
261.0000;1.0370;-5.1131;
261.3000;1.0379;-5.1079;
261.6000;1.0346;-5.1157;
261.9000;1.0370;-5.1079;
262.2000;1.0387;-5.1053;
262.5000;1.0379;-5.1131;
262.8000;1.0379;-5.1157;
263.1000;1.0379;-5.1105;
263.4000;1.0379;-5.1002;
263.7000;1.0362;-5.1079;
264.0000;1.0370;-5.1105;
264.3000;1.0387;-5.1131;
264.6000;1.0370;-5.1157;
264.9000;1.0387;-5.1157;
265.2000;1.0354;-5.1209;
265.5000;1.0379;-5.1261;
265.8000;1.0379;-5.1209;
266.1000;1.0379;-5.1131;
266.4000;1.0338;-5.1235;
266.7000;1.0395;-5.1079;
267.0000;1.0370;-5.1079;
267.3000;1.0370;-5.1028;
267.6000;1.0370;-5.0950;
267.9000;1.0370;-5.0898;
268.2000;1.0403;-5.0846;
268.5000;1.0362;-5.0950;
268.8000;1.0362;-5.0976;
269.1000;1.0370;-5.0976;
269.4000;1.0379;-5.0898;
269.7000;1.0354;-5.0950;
270.0000;1.0370;-5.0872;
270.3000;1.0370;-5.0898;
270.6000;1.0379;-5.0950;
270.9000;1.0370;-5.0950;
271.2000;1.0362;-5.0898;
271.5000;1.0395;-5.1028;
271.8000;1.0362;-5.1105;
272.1000;1.0354;-5.1131;
272.4000;1.0354;-5.1105;
272.7000;1.0379;-5.0976;
273.0000;1.0362;-5.0950;
273.3000;1.0354;-5.0898;
273.6000;1.0362;-5.0898;
273.9000;1.0370;-5.0846;
274.2000;1.0387;-5.0872;
274.5000;1.0362;-5.0950;
274.8000;1.0362;-5.0976;
275.1000;1.0354;-5.0924;
275.4000;1.0313;-5.0976;
275.7000;1.0354;-5.0898;
276.0000;1.0354;-5.0898;
276.3000;1.0370;-5.0924;
276.6000;1.0379;-5.0898;
276.9000;1.0362;-5.0924;
277.2000;1.0362;-5.0846;
277.5000;1.0362;-5.0872;
277.8000;1.0362;-5.0820;
278.1000;1.0379;-5.0794;
278.4000;1.0370;-5.0872;
278.7000;1.0395;-5.0743;
279.0000;1.0379;-5.0794;
279.3000;1.0370;-5.0820;
279.6000;1.0387;-5.0743;
279.9000;1.0370;-5.0846;
280.2000;1.0379;-5.0872;
280.5000;1.0379;-5.0898;
280.8000;1.0379;-5.0898;
281.1000;1.0362;-5.0872;
281.4000;1.0370;-5.0743;
281.7000;1.0379;-5.0743;
282.0000;1.0370;-5.0872;
282.3000;1.0379;-5.0898;
282.6000;1.0322;-5.1053;
282.9000;1.0362;-5.0898;
283.2000;1.0362;-5.1002;
283.5000;1.0330;-5.1028;
283.8000;1.0354;-5.0976;
284.1000;1.0362;-5.1002;
284.4000;1.0379;-5.0950;
284.7000;1.0362;-5.1028;
285.0000;1.0370;-5.1002;
285.3000;1.0362;-5.1028;
285.6000;1.0370;-5.0976;
285.9000;1.0370;-5.1002;
286.2000;1.0370;-5.1053;
286.5000;1.0362;-5.0924;
286.8000;1.0379;-5.0924;
287.1000;1.0362;-5.0924;
287.4000;1.0370;-5.0924;
287.7000;1.0370;-5.0924;
288.0000;1.0370;-5.1028;
288.3000;1.0370;-5.1028;
288.6000;1.0354;-5.1053;
288.9000;1.0362;-5.1028;
289.2000;1.0362;-5.1028;
289.5000;1.0387;-5.0976;
289.8000;1.0346;-5.1053;
290.1000;1.0273;-5.1183;
290.4000;1.0395;-5.0898;
290.7000;1.0379;-5.0950;
291.0000;1.0322;-5.1079;
291.3000;1.0346;-5.1053;
291.6000;1.0379;-5.0950;
291.9000;1.0379;-5.0924;
292.2000;1.0379;-5.0976;
292.5000;1.0379;-5.1002;
292.8000;1.0362;-5.1002;
293.1000;1.0379;-5.0898;
293.4000;1.0354;-5.0872;
293.7000;1.0362;-5.0846;
294.0000;1.0379;-5.0794;
294.3000;1.0362;-5.0872;
294.6000;1.0362;-5.0794;
294.9000;1.0362;-5.0846;
295.2000;1.0346;-5.0950;
295.5000;1.0370;-5.0976;
295.8000;1.0387;-5.1028;
296.1000;1.0379;-5.0950;
296.4000;1.0362;-5.0924;
296.7000;1.0370;-5.0950;
297.0000;1.0362;-5.0924;
297.3000;1.0395;-5.0820;
297.6000;1.0346;-5.0872;
297.9000;1.0354;-5.0898;
298.2000;1.0362;-5.1002;
298.5000;1.0362;-5.0924;
298.8000;1.0346;-5.0976;
299.1000;1.0370;-5.0872;
299.4000;1.0354;-5.0976;
299.7000;1.0379;-5.0924;
300.0000;1.0444;-5.0768;
300.3000;1.0354;-5.0976;
300.6000;1.0362;-5.0976;
300.9000;1.0362;-5.1028;
301.2000;1.0362;-5.0950;
301.5000;1.0362;-5.0924;
301.8000;1.0354;-5.0950;
302.1000;1.0387;-5.0898;
302.4000;1.0354;-5.0950;
302.7000;1.0354;-5.1028;
303.0000;1.0370;-5.1002;
303.3000;1.0379;-5.1053;
303.6000;1.0370;-5.1002;
303.9000;1.0362;-5.0976;
304.2000;1.0362;-5.1002;
304.5000;1.0354;-5.1028;
304.8000;1.0395;-5.0924;
305.1000;1.0395;-5.1002;
305.4000;1.0379;-5.1002;
305.7000;1.0313;-5.1209;
306.0000;1.0395;-5.1028;
306.3000;1.0379;-5.1131;
306.6000;1.0346;-5.1183;
306.9000;1.0346;-5.1079;
307.2000;1.0362;-5.0976;
307.5000;1.0379;-5.1002;
307.8000;1.0362;-5.1079;
308.1000;1.0370;-5.1105;
308.4000;1.0362;-5.1157;
308.7000;1.0379;-5.1209;
309.0000;1.0411;-5.1105;
309.3000;1.0346;-5.1235;
309.6000;1.0362;-5.1209;
309.9000;1.0362;-5.1235;
310.2000;1.0346;-5.1183;
310.5000;1.0354;-5.1131;
310.8000;1.0346;-5.1105;
311.1000;1.0370;-5.1028;
311.4000;1.0362;-5.1028;
311.7000;1.0379;-5.0950;
312.0000;1.0370;-5.0924;
312.3000;1.0411;-5.0820;
312.6000;1.0354;-5.0976;
312.9000;1.0370;-5.1002;
313.2000;1.0370;-5.1105;
313.5000;1.0338;-5.1183;
313.8000;1.0354;-5.1183;
314.1000;1.0322;-5.1183;
314.4000;1.0322;-5.1183;
314.7000;1.0346;-5.1131;
315.0000;1.0354;-5.1157;
315.3000;1.0330;-5.1261;
315.6000;1.0305;-5.1261;
315.9000;1.0370;-5.1079;
316.2000;1.0395;-5.1079;
316.5000;1.0330;-5.1183;
316.8000;1.0379;-5.1053;
317.1000;1.0379;-5.1028;
317.4000;1.0354;-5.1079;
317.7000;1.0362;-5.1079;
318.0000;1.0379;-5.1028;
318.3000;1.0427;-5.0898;
318.6000;1.0354;-5.0976;
318.9000;1.0362;-5.0924;
319.2000;1.0330;-5.1053;
319.5000;1.0305;-5.1079;
319.8000;1.0354;-5.0898;
320.1000;1.0387;-5.0820;
320.4000;1.0362;-5.0820;
320.7000;1.0346;-5.0976;
321.0000;1.0354;-5.1028;
321.3000;1.0395;-5.0924;
321.6000;1.0354;-5.1079;
321.9000;1.0395;-5.1002;
322.2000;1.0354;-5.1157;
322.5000;1.0362;-5.1131;
322.8000;1.0370;-5.1079;
323.1000;1.0370;-5.1079;
323.4000;1.0444;-5.0794;
323.7000;1.0354;-5.1028;
324.0000;1.0370;-5.1002;
324.3000;1.0346;-5.0976;
324.6000;1.0346;-5.1053;
324.9000;1.0362;-5.1079;
325.2000;1.0354;-5.1157;
325.5000;1.0354;-5.1105;
325.8000;1.0354;-5.1131;
326.1000;1.0346;-5.1105;
326.4000;1.0379;-5.1028;
326.7000;1.0362;-5.0924;
327.0000;1.0387;-5.0898;
327.3000;1.0387;-5.0872;
327.6000;1.0379;-5.0950;
327.9000;1.0354;-5.1079;
328.2000;1.0387;-5.0950;
328.5000;1.0362;-5.1002;
328.8000;1.0354;-5.1002;
329.1000;1.0354;-5.0976;
329.4000;1.0362;-5.0924;
329.7000;1.0313;-5.1028;
330.0000;1.0362;-5.0717;
330.3000;1.0354;-5.0743;
330.6000;1.0362;-5.0820;
330.9000;1.0362;-5.0872;
331.2000;1.0322;-5.0976;
331.5000;1.0379;-5.0846;
331.8000;1.0354;-5.0872;
332.1000;1.0460;-5.0717;
332.4000;1.0362;-5.1002;
332.7000;1.0370;-5.1002;
333.0000;1.0370;-5.1053;
333.3000;1.0387;-5.1028;
333.6000;1.0362;-5.1053;
333.9000;1.0370;-5.1105;
334.2000;1.0379;-5.1079;
334.5000;1.0387;-5.1053;
334.8000;1.0354;-5.1079;
335.1000;1.0362;-5.1002;
335.4000;1.0338;-5.1028;
335.7000;1.0322;-5.1131;
336.0000;1.0338;-5.0950;
336.3000;1.0370;-5.0768;
336.6000;1.0346;-5.0898;
336.9000;1.0354;-5.0872;
337.2000;1.0346;-5.0898;
337.5000;1.0289;-5.1002;
337.8000;1.0354;-5.0950;
338.1000;1.0346;-5.0976;
338.4000;1.0354;-5.0976;
338.7000;1.0313;-5.1053;
339.0000;1.0362;-5.0950;
339.3000;1.0346;-5.0976;
339.6000;1.0370;-5.0950;
339.9000;1.0338;-5.1053;
340.2000;1.0322;-5.1131;
340.5000;1.0346;-5.1053;
340.8000;1.0346;-5.1053;
341.1000;1.0346;-5.1053;
341.4000;1.0354;-5.1131;
341.7000;1.0346;-5.1157;
342.0000;1.0370;-5.1131;
342.3000;1.0354;-5.1105;
342.6000;1.0354;-5.1002;
342.9000;1.0346;-5.0976;
343.2000;1.0362;-5.0898;
343.5000;1.0370;-5.0872;
343.8000;1.0362;-5.0950;
344.1000;1.0379;-5.0924;
344.4000;1.0370;-5.0898;
344.7000;1.0346;-5.0898;
345.0000;1.0354;-5.0924;
345.3000;1.0338;-5.1028;
345.6000;1.0346;-5.0924;
345.9000;1.0338;-5.0924;
346.2000;1.0330;-5.0898;
346.5000;1.0338;-5.0898;
346.8000;1.0370;-5.0872;
347.1000;1.0370;-5.0950;
347.4000;1.0444;-5.0924;
347.7000;1.0362;-5.1131;
348.0000;1.0362;-5.1079;
348.3000;1.0370;-5.1002;
348.6000;1.0354;-5.0976;
348.9000;1.0370;-5.0924;
349.2000;1.0354;-5.0924;
349.5000;1.0354;-5.0924;
349.8000;1.0346;-5.0976;
350.1000;1.0354;-5.1002;
350.4000;1.0354;-5.1105;
350.7000;1.0362;-5.1079;
351.0000;1.0346;-5.0950;
351.3000;1.0354;-5.1002;
351.6000;1.0346;-5.1131;
351.9000;1.0354;-5.1053;
352.2000;1.0346;-5.1028;
352.5000;1.0362;-5.0976;
352.8000;1.0346;-5.0950;
353.1000;1.0354;-5.0924;
353.4000;1.0379;-5.0898;
353.7000;1.0362;-5.0924;
354.0000;1.0362;-5.0872;
354.3000;1.0346;-5.0924;
354.6000;1.0362;-5.0872;
354.9000;1.0354;-5.0846;
355.2000;1.0354;-5.0820;
355.5000;1.0354;-5.0846;
355.8000;1.0346;-5.0924;
356.1000;1.0338;-5.0820;
356.4000;1.0362;-5.0794;
356.7000;1.0330;-5.0872;
357.0000;1.0395;-5.0665;
357.3000;1.0338;-5.0743;
357.6000;1.0370;-5.0717;
357.9000;1.0338;-5.0794;
358.2000;1.0379;-5.0820;
358.5000;1.0338;-5.0950;
358.8000;1.0354;-5.0924;
359.1000;1.0354;-5.0950;
359.4000;1.0362;-5.0898;
359.7000;1.0362;-5.0924;
360.0000;1.0338;-5.0846;
360.3000;1.0354;-5.0820;
360.6000;1.0362;-5.0768;
360.9000;1.0362;-5.0743;
361.2000;1.0330;-5.0924;
361.5000;1.0346;-5.0898;
361.8000;1.0338;-5.0924;
362.1000;1.0346;-5.0976;
362.4000;1.0346;-5.0976;
362.7000;1.0370;-5.0898;
363.0000;1.0338;-5.0898;
363.3000;1.0338;-5.0950;
363.6000;1.0370;-5.0950;
363.9000;1.0362;-5.1053;
364.2000;1.0354;-5.1028;
364.5000;1.0346;-5.0976;
364.8000;1.0370;-5.0846;
365.1000;1.0354;-5.0872;
365.4000;1.0346;-5.0924;
365.7000;1.0354;-5.0924;
366.0000;1.0354;-5.0950;
366.3000;1.0354;-5.0924;
366.6000;1.0338;-5.0924;
366.9000;1.0354;-5.0872;
367.2000;1.0379;-5.0768;
367.5000;1.0346;-5.0846;
367.8000;1.0346;-5.0950;
368.1000;1.0370;-5.0924;
368.4000;1.0346;-5.0924;
368.7000;1.0370;-5.0976;
369.0000;1.0362;-5.0924;
369.3000;1.0354;-5.0872;
369.6000;1.0362;-5.0924;
369.9000;1.0354;-5.1028;
370.2000;1.0354;-5.1002;
370.5000;1.0346;-5.0950;
370.8000;1.0354;-5.0898;
371.1000;1.0354;-5.0872;
371.4000;1.0346;-5.0872;
371.7000;1.0330;-5.0846;
372.0000;1.0354;-5.0872;
372.3000;1.0273;-5.0976;
372.6000;1.0330;-5.0898;
372.9000;1.0330;-5.0924;
373.2000;1.0330;-5.0898;
373.5000;1.0354;-5.0794;
373.8000;1.0338;-5.0794;
374.1000;1.0354;-5.0743;
374.4000;1.0330;-5.0820;
374.7000;1.0346;-5.0820;
375.0000;1.0354;-5.0794;
375.3000;1.0346;-5.0976;
375.6000;1.0330;-5.0976;
375.9000;1.0354;-5.0898;
376.2000;1.0354;-5.0846;
376.5000;1.0362;-5.0820;
376.8000;1.0354;-5.0950;
377.1000;1.0354;-5.0898;
377.4000;1.0354;-5.0820;
377.7000;1.0354;-5.0846;
378.0000;1.0338;-5.0898;
378.3000;1.0346;-5.0924;
378.6000;1.0338;-5.0898;
378.9000;1.0362;-5.0872;
379.2000;1.0362;-5.0898;
379.5000;1.0362;-5.0924;
379.8000;1.0362;-5.0898;
380.1000;1.0362;-5.0924;
380.4000;1.0379;-5.0924;
380.7000;1.0338;-5.0924;
381.0000;1.0354;-5.0794;
381.3000;1.0330;-5.0898;
381.6000;1.0362;-5.0846;
381.9000;1.0338;-5.0950;
382.2000;1.0330;-5.0976;
382.5000;1.0354;-5.0898;
382.8000;1.0354;-5.0794;
383.1000;1.0338;-5.0846;
383.4000;1.0346;-5.0846;
383.7000;1.0346;-5.0846;
384.0000;1.0362;-5.0872;
384.3000;1.0322;-5.0950;
384.6000;1.0346;-5.0898;
384.9000;1.0346;-5.0924;
385.2000;1.0338;-5.0976;
385.5000;1.0354;-5.0976;
385.8000;1.0354;-5.0872;
386.1000;1.0354;-5.0846;
386.4000;1.0330;-5.0924;
386.7000;1.0338;-5.0950;
387.0000;1.0338;-5.0872;
387.3000;1.0338;-5.0846;
387.6000;1.0354;-5.0820;
387.9000;1.0354;-5.0768;
388.2000;1.0346;-5.0820;
388.5000;1.0338;-5.0872;
388.8000;1.0322;-5.0898;
389.1000;1.0362;-5.0768;
389.4000;1.0354;-5.0743;
389.7000;1.0346;-5.0820;
390.0000;1.0362;-5.0794;
390.3000;1.0379;-5.0717;
390.6000;1.0379;-5.0768;
390.9000;1.0354;-5.0743;
391.2000;1.0346;-5.0794;
391.5000;1.0395;-5.0639;
391.8000;1.0354;-5.0768;
392.1000;1.0346;-5.0820;
392.4000;1.0338;-5.0820;
392.7000;1.0354;-5.0794;
393.0000;1.0330;-5.0872;
393.3000;1.0346;-5.0820;
393.6000;1.0338;-5.0743;
393.9000;1.0346;-5.0743;
394.2000;1.0362;-5.0768;
394.5000;1.0354;-5.0820;
394.8000;1.0346;-5.0898;
395.1000;1.0338;-5.0820;
395.4000;1.0379;-5.0639;
395.7000;1.0354;-5.0743;
396.0000;1.0338;-5.0768;
396.3000;1.0387;-5.0639;
396.6000;1.0338;-5.0768;
396.9000;1.0313;-5.0768;
397.2000;1.0322;-5.0794;
397.5000;1.0338;-5.0768;
397.8000;1.0330;-5.0846;
398.1000;1.0330;-5.0898;
398.4000;1.0395;-5.0665;
398.7000;1.0338;-5.0768;
399.0000;1.0338;-5.0846;
399.3000;1.0346;-5.0820;
399.6000;1.0354;-5.0794;
399.9000;1.0330;-5.0794;
400.2000;1.0330;-5.0768;
400.5000;1.0354;-5.0872;
400.8000;1.0354;-5.0950;
401.1000;1.0346;-5.0950;
401.4000;1.0346;-5.1053;
401.7000;1.0362;-5.1002;
402.0000;1.0362;-5.0976;
402.3000;1.0362;-5.0950;
402.6000;1.0338;-5.0898;
402.9000;1.0346;-5.0846;
403.2000;1.0330;-5.0950;
403.5000;1.0346;-5.0924;
403.8000;1.0346;-5.0898;
404.1000;1.0346;-5.0976;
404.4000;1.0346;-5.0950;
404.7000;1.0346;-5.0950;
405.0000;1.0330;-5.0872;
405.3000;1.0354;-5.0794;
405.6000;1.0354;-5.0872;
405.9000;1.0354;-5.0872;
406.2000;1.0354;-5.0898;
406.5000;1.0346;-5.0820;
406.8000;1.0338;-5.0794;
407.1000;1.0362;-5.0820;
407.4000;1.0338;-5.0846;
407.7000;1.0338;-5.0872;
408.0000;1.0354;-5.0846;
408.3000;1.0305;-5.0898;
408.6000;1.0313;-5.0768;
408.9000;1.0346;-5.0768;
409.2000;1.0419;-5.0561;
409.5000;1.0346;-5.0743;
409.8000;1.0346;-5.0768;
410.1000;1.0346;-5.0691;
410.4000;1.0305;-5.0820;
410.7000;1.0346;-5.0717;
411.0000;1.0338;-5.0898;
411.3000;1.0354;-5.0924;
411.6000;1.0338;-5.1028;
411.9000;1.0338;-5.1028;
412.2000;1.0322;-5.1079;
412.5000;1.0330;-5.1105;
412.8000;1.0330;-5.1028;
413.1000;1.0338;-5.1053;
413.4000;1.0338;-5.1002;
413.7000;1.0346;-5.0976;
414.0000;1.0330;-5.1079;
414.3000;1.0370;-5.1028;
414.6000;1.0322;-5.1079;
414.9000;1.0338;-5.1053;
415.2000;1.0346;-5.1157;
415.5000;1.0370;-5.1131;
415.8000;1.0354;-5.1261;
416.1000;1.0322;-5.1364;
416.4000;1.0305;-5.1416;
416.7000;1.0330;-5.1261;
417.0000;1.0346;-5.1261;
417.3000;1.0354;-5.1235;
417.6000;1.0330;-5.1312;
417.9000;1.0346;-5.1157;
418.2000;1.0346;-5.1079;
418.5000;1.0354;-5.1053;
418.8000;1.0354;-5.1105;
419.1000;1.0313;-5.1105;
419.4000;1.0346;-5.0976;
419.7000;1.0354;-5.0924;
420.0000;1.0346;-5.0898;
420.3000;1.0330;-5.0950;
420.6000;1.0338;-5.1002;
420.9000;1.0346;-5.0976;
421.2000;1.0338;-5.0976;
421.5000;1.0346;-5.0950;
421.8000;1.0338;-5.0924;
422.1000;1.0313;-5.0950;
422.4000;1.0346;-5.0846;
422.7000;1.0338;-5.0976;
423.0000;1.0354;-5.0794;
423.3000;1.0346;-5.0898;
423.6000;1.0281;-5.1105;
423.9000;1.0346;-5.0924;
424.2000;1.0354;-5.1002;
424.5000;1.0346;-5.0898;
424.8000;1.0354;-5.0950;
425.1000;1.0354;-5.0898;
425.4000;1.0338;-5.0898;
425.7000;1.0330;-5.0898;
426.0000;1.0379;-5.0717;
426.3000;1.0362;-5.0743;
426.6000;1.0346;-5.0768;
426.9000;1.0346;-5.0872;
427.2000;1.0346;-5.0924;
427.5000;1.0346;-5.0872;
427.8000;1.0354;-5.0872;
428.1000;1.0346;-5.0820;
428.4000;1.0330;-5.0820;
428.7000;1.0379;-5.0691;
429.0000;1.0346;-5.0794;
429.3000;1.0330;-5.0898;
429.6000;1.0330;-5.0846;
429.9000;1.0330;-5.0717;
430.2000;1.0370;-5.0613;
430.5000;1.0322;-5.0768;
430.8000;1.0322;-5.0794;
431.1000;1.0338;-5.0691;
431.4000;1.0322;-5.0717;
431.7000;1.0313;-5.0768;
432.0000;1.0313;-5.0665;
432.3000;1.0322;-5.0639;
432.6000;1.0346;-5.0535;
432.9000;1.0338;-5.0561;
433.2000;1.0354;-5.0587;
433.5000;1.0330;-5.0665;
433.8000;1.0330;-5.0613;
434.1000;1.0338;-5.0768;
434.4000;1.0330;-5.0794;
434.7000;1.0322;-5.0846;
435.0000;1.0338;-5.0743;
435.3000;1.0338;-5.0717;
435.6000;1.0338;-5.0743;
435.9000;1.0322;-5.0846;
436.2000;1.0354;-5.0846;
436.5000;1.0354;-5.0898;
436.8000;1.0338;-5.0820;
437.1000;1.0338;-5.0872;
437.4000;1.0362;-5.0846;
437.7000;1.0362;-5.0846;
438.0000;1.0346;-5.0872;
438.3000;1.0338;-5.0898;
438.6000;1.0346;-5.0872;
438.9000;1.0346;-5.0846;
439.2000;1.0346;-5.0820;
439.5000;1.0322;-5.0846;
439.8000;1.0330;-5.0846;
440.1000;1.0305;-5.0872;
440.4000;1.0297;-5.0898;
440.7000;1.0322;-5.0820;
441.0000;1.0322;-5.0846;
441.3000;1.0354;-5.0846;
441.6000;1.0338;-5.0898;
441.9000;1.0346;-5.0950;
442.2000;1.0362;-5.0976;
442.5000;1.0346;-5.1028;
442.8000;1.0346;-5.1053;
443.1000;1.0322;-5.1079;
443.4000;1.0346;-5.1028;
443.7000;1.0330;-5.0976;
444.0000;1.0338;-5.0872;
444.3000;1.0346;-5.0820;
444.6000;1.0346;-5.0743;
444.9000;1.0346;-5.0743;
445.2000;1.0370;-5.0613;
445.5000;1.0395;-5.0561;
445.8000;1.0338;-5.0717;
446.1000;1.0338;-5.0717;
446.4000;1.0354;-5.0794;
446.7000;1.0379;-5.0665;
447.0000;1.0354;-5.0717;
447.3000;1.0338;-5.0794;
447.6000;1.0435;-5.0535;
447.9000;1.0362;-5.0717;
448.2000;1.0338;-5.0717;
448.5000;1.0305;-5.0743;
448.8000;1.0322;-5.0665;
449.1000;1.0346;-5.0587;
449.4000;1.0346;-5.0665;
449.7000;1.0330;-5.0665;
450.0000;1.0346;-5.0665;
450.3000;1.0313;-5.0665;
450.6000;1.0354;-5.0561;
450.9000;1.0346;-5.0665;
451.2000;1.0354;-5.0613;
451.5000;1.0322;-5.0717;
451.8000;1.0346;-5.0665;
452.1000;1.0338;-5.0691;
452.4000;1.0395;-5.0561;
452.7000;1.0338;-5.0691;
453.0000;1.0354;-5.0717;
453.3000;1.0346;-5.0717;
453.6000;1.0387;-5.0691;
453.9000;1.0338;-5.0820;
454.2000;1.0338;-5.0743;
454.5000;1.0313;-5.0768;
454.8000;1.0330;-5.0794;
455.1000;1.0346;-5.0691;
455.4000;1.0289;-5.0820;
455.7000;1.0289;-5.0768;
456.0000;1.0330;-5.0717;
456.3000;1.0330;-5.0768;
456.6000;1.0313;-5.0794;
456.9000;1.0346;-5.0743;
457.2000;1.0338;-5.0691;
457.5000;1.0338;-5.0717;
457.8000;1.0330;-5.0794;
458.1000;1.0330;-5.0743;
458.4000;1.0330;-5.0665;
458.7000;1.0338;-5.0639;
459.0000;1.0346;-5.0691;
459.3000;1.0322;-5.0768;
459.6000;1.0330;-5.0794;
459.9000;1.0346;-5.0743;
460.2000;1.0354;-5.0768;
460.5000;1.0346;-5.0820;
460.8000;1.0354;-5.0743;
461.1000;1.0362;-5.0691;
461.4000;1.0338;-5.0665;
461.7000;1.0354;-5.0691;
462.0000;1.0362;-5.0768;
462.3000;1.0330;-5.0768;
462.6000;1.0338;-5.0743;
462.9000;1.0313;-5.0794;
463.2000;1.0354;-5.0768;
463.5000;1.0338;-5.0872;
463.8000;1.0322;-5.0924;
464.1000;1.0322;-5.0846;
464.4000;1.0330;-5.0872;
464.7000;1.0330;-5.0743;
465.0000;1.0330;-5.0794;
465.3000;1.0330;-5.0820;
465.6000;1.0338;-5.0768;
465.9000;1.0330;-5.0794;
466.2000;1.0346;-5.0768;
466.5000;1.0338;-5.0743;
466.8000;1.0338;-5.0743;
467.1000;1.0346;-5.0743;
467.4000;1.0322;-5.0768;
467.7000;1.0346;-5.0743;
468.0000;1.0322;-5.0794;
468.3000;1.0346;-5.0743;
468.6000;1.0370;-5.0691;
468.9000;1.0305;-5.0846;
469.2000;1.0313;-5.0768;
469.5000;1.0354;-5.0717;
469.8000;1.0330;-5.0820;
470.1000;1.0322;-5.0794;
470.4000;1.0297;-5.0872;
470.7000;1.0313;-5.0743;
471.0000;1.0338;-5.0768;
471.3000;1.0330;-5.0717;
471.6000;1.0379;-5.0561;
471.9000;1.0346;-5.0691;
472.2000;1.0354;-5.0794;
472.5000;1.0338;-5.0743;
472.8000;1.0330;-5.0743;
473.1000;1.0322;-5.0794;
473.4000;1.0338;-5.0665;
473.7000;1.0338;-5.0639;
474.0000;1.0313;-5.0587;
474.3000;1.0322;-5.0613;
474.6000;1.0338;-5.0561;
474.9000;1.0330;-5.0587;
475.2000;1.0338;-5.0587;
475.5000;1.0330;-5.0587;
475.8000;1.0338;-5.0665;
476.1000;1.0338;-5.0691;
476.4000;1.0330;-5.0794;
476.7000;1.0330;-5.0898;
477.0000;1.0338;-5.0794;
477.3000;1.0297;-5.0820;
477.6000;1.0338;-5.0691;
477.9000;1.0330;-5.0717;
478.2000;1.0387;-5.0535;
478.5000;1.0338;-5.0639;
478.8000;1.0305;-5.0691;
479.1000;1.0330;-5.0665;
479.4000;1.0313;-5.0820;
479.7000;1.0338;-5.0794;
480.0000;1.0330;-5.0820;
480.3000;1.0313;-5.0846;
480.6000;1.0338;-5.0820;
480.9000;1.0330;-5.0743;
481.2000;1.0346;-5.0691;
481.5000;1.0330;-5.0743;
481.8000;1.0322;-5.0820;
482.1000;1.0330;-5.0743;
482.4000;1.0346;-5.0613;
482.7000;1.0330;-5.0639;
483.0000;1.0322;-5.0639;
483.3000;1.0346;-5.0561;
483.6000;1.0322;-5.0613;
483.9000;1.0346;-5.0639;
484.2000;1.0289;-5.0846;
484.5000;1.0338;-5.0794;
484.8000;1.0330;-5.0846;
485.1000;1.0338;-5.0743;
485.4000;1.0338;-5.0691;
485.7000;1.0322;-5.0691;
486.0000;1.0330;-5.0717;
486.3000;1.0330;-5.0665;
486.6000;1.0330;-5.0639;
486.9000;1.0305;-5.0717;
487.2000;1.0313;-5.0768;
487.5000;1.0346;-5.0717;
487.8000;1.0354;-5.0691;
488.1000;1.0338;-5.0639;
488.4000;1.0370;-5.0535;
488.7000;1.0330;-5.0665;
489.0000;1.0313;-5.0743;
489.3000;1.0330;-5.0613;
489.6000;1.0330;-5.0665;
489.9000;1.0330;-5.0665;
490.2000;1.0313;-5.0717;
490.5000;1.0313;-5.0743;
490.8000;1.0330;-5.0768;
491.1000;1.0322;-5.0743;
491.4000;1.0330;-5.0717;
491.7000;1.0322;-5.0717;
492.0000;1.0322;-5.0717;
492.3000;1.0330;-5.0717;
492.6000;1.0346;-5.0587;
492.9000;1.0346;-5.0717;
493.2000;1.0338;-5.0691;
493.5000;1.0305;-5.0743;
493.8000;1.0322;-5.0535;
494.1000;1.0297;-5.0665;
494.4000;1.0256;-5.0846;
494.7000;1.0338;-5.0665;
495.0000;1.0305;-5.0768;
495.3000;1.0338;-5.0691;
495.6000;1.0395;-5.0639;
495.9000;1.0322;-5.0768;
496.2000;1.0362;-5.0743;
496.5000;1.0346;-5.0846;
496.8000;1.0305;-5.1053;
497.1000;1.0322;-5.1002;
497.4000;1.0322;-5.0950;
497.7000;1.0338;-5.0898;
498.0000;1.0322;-5.0846;
498.3000;1.0305;-5.0743;
498.6000;1.0313;-5.0794;
498.9000;1.0330;-5.0820;
499.2000;1.0322;-5.0924;
499.5000;1.0313;-5.0872;
499.8000;1.0297;-5.0794;
500.1000;1.0322;-5.0794;
500.4000;1.0322;-5.0924;
500.7000;1.0313;-5.0976;
501.0000;1.0305;-5.1002;
501.3000;1.0346;-5.0976;
501.6000;1.0330;-5.1002;
501.9000;1.0330;-5.0976;
502.2000;1.0313;-5.1028;
502.5000;1.0330;-5.0950;
502.8000;1.0330;-5.0976;
503.1000;1.0330;-5.1002;
503.4000;1.0322;-5.0898;
503.7000;1.0313;-5.0872;
504.0000;1.0330;-5.0768;
504.3000;1.0322;-5.0768;
504.6000;1.0313;-5.0820;
504.9000;1.0379;-5.0743;
505.2000;1.0313;-5.0820;
505.5000;1.0281;-5.0872;
505.8000;1.0322;-5.0820;
506.1000;1.0322;-5.0820;
506.4000;1.0289;-5.0898;
506.7000;1.0322;-5.0743;
507.0000;1.0330;-5.0665;
507.3000;1.0273;-5.0820;
507.6000;1.0330;-5.0717;
507.9000;1.0346;-5.0691;
508.2000;1.0338;-5.0768;
508.5000;1.0338;-5.0794;
508.8000;1.0338;-5.0743;
509.1000;1.0330;-5.0717;
509.4000;1.0346;-5.0743;
509.7000;1.0346;-5.0717;
510.0000;1.0322;-5.0768;
510.3000;1.0322;-5.0846;
510.6000;1.0338;-5.0846;
510.9000;1.0330;-5.0924;
511.2000;1.0322;-5.0872;
511.5000;1.0289;-5.0924;
511.8000;1.0322;-5.0820;
512.1000;1.0313;-5.0794;
512.4000;1.0411;-5.0587;
512.7000;1.0322;-5.0820;
513.0000;1.0322;-5.0743;
513.3000;1.0338;-5.0743;
513.6000;1.0330;-5.0846;
513.9000;1.0338;-5.0872;
514.2000;1.0322;-5.0872;
514.5000;1.0338;-5.0872;
514.8000;1.0330;-5.0846;
515.1000;1.0248;-5.0976;
515.4000;1.0362;-5.0717;
515.7000;1.0362;-5.0743;
516.0000;1.0338;-5.0794;
516.3000;1.0330;-5.0820;
516.6000;1.0281;-5.0976;
516.9000;1.0322;-5.0924;
517.2000;1.0322;-5.0924;
517.5000;1.0330;-5.0846;
517.8000;1.0289;-5.0872;
518.1000;1.0338;-5.0743;
518.4000;1.0338;-5.0743;
518.7000;1.0338;-5.0717;
519.0000;1.0330;-5.0768;
519.3000;1.0330;-5.0794;
519.6000;1.0338;-5.0768;
519.9000;1.0387;-5.0639;
520.2000;1.0240;-5.0976;
520.5000;1.0346;-5.0872;
520.8000;1.0313;-5.0950;
521.1000;1.0313;-5.0898;
521.4000;1.0338;-5.0846;
521.7000;1.0313;-5.0872;
522.0000;1.0370;-5.0691;
522.3000;1.0305;-5.0717;
522.6000;1.0313;-5.0691;
522.9000;1.0313;-5.0691;
523.2000;1.0281;-5.0820;
523.5000;1.0338;-5.0717;
523.8000;1.0313;-5.0717;
524.1000;1.0322;-5.0717;
524.4000;1.0305;-5.0743;
524.7000;1.0322;-5.0691;
525.0000;1.0322;-5.0768;
525.3000;1.0240;-5.1053;
525.6000;1.0313;-5.0820;
525.9000;1.0322;-5.0717;
526.2000;1.0322;-5.0639;
526.5000;1.0330;-5.0691;
526.8000;1.0313;-5.0717;
527.1000;1.0330;-5.0691;
527.4000;1.0338;-5.0665;
527.7000;1.0322;-5.0717;
528.0000;1.0313;-5.0691;
528.3000;1.0322;-5.0613;
528.6000;1.0330;-5.0639;
528.9000;1.0322;-5.0665;
529.2000;1.0322;-5.0691;
529.5000;1.0330;-5.0613;
529.8000;1.0338;-5.0561;
530.1000;1.0338;-5.0587;
530.4000;1.0322;-5.0561;
530.7000;1.0313;-5.0535;
531.0000;1.0338;-5.0509;
531.3000;1.0362;-5.0509;
531.6000;1.0322;-5.0665;
531.9000;1.0305;-5.0717;
532.2000;1.0330;-5.0717;
532.5000;1.0297;-5.0639;
532.8000;1.0322;-5.0639;
533.1000;1.0322;-5.0665;
533.4000;1.0322;-5.0587;
533.7000;1.0313;-5.0535;
534.0000;1.0322;-5.0587;
534.3000;1.0330;-5.0639;
534.6000;1.0338;-5.0665;
534.9000;1.0330;-5.0717;
535.2000;1.0330;-5.0717;
535.5000;1.0330;-5.0717;
535.8000;1.0338;-5.0743;
536.1000;1.0338;-5.0820;
536.4000;1.0330;-5.0717;
536.7000;1.0313;-5.0768;
537.0000;1.0313;-5.0768;
537.3000;1.0322;-5.0717;
537.6000;1.0354;-5.0587;
537.9000;1.0313;-5.0717;
538.2000;1.0305;-5.0820;
538.5000;1.0322;-5.0768;
538.8000;1.0313;-5.0794;
539.1000;1.0387;-5.0613;
539.4000;1.0322;-5.0665;
539.7000;1.0313;-5.0691;
540.0000;1.0322;-5.0717;
540.3000;1.0330;-5.0639;
540.6000;1.0322;-5.0639;
540.9000;1.0330;-5.0613;
541.2000;1.0403;-5.0380;
541.5000;1.0330;-5.0561;
541.8000;1.0330;-5.0587;
542.1000;1.0322;-5.0509;
542.4000;1.0313;-5.0509;
542.7000;1.0322;-5.0561;
543.0000;1.0313;-5.0691;
543.3000;1.0313;-5.0717;
543.6000;1.0313;-5.0717;
543.9000;1.0354;-5.0613;
544.2000;1.0330;-5.0691;
544.5000;1.0322;-5.0639;
544.8000;1.0330;-5.0665;
545.1000;1.0322;-5.0639;
545.4000;1.0354;-5.0639;
545.7000;1.0313;-5.0743;
546.0000;1.0322;-5.0639;
546.3000;1.0313;-5.0639;
546.6000;1.0313;-5.0665;
546.9000;1.0395;-5.0535;
547.2000;1.0248;-5.0820;
547.5000;1.0322;-5.0691;
547.8000;1.0305;-5.0665;
548.1000;1.0313;-5.0613;
548.4000;1.0305;-5.0691;
548.7000;1.0322;-5.0743;
549.0000;1.0322;-5.0820;
549.3000;1.0297;-5.0872;
549.6000;1.0322;-5.0898;
549.9000;1.0313;-5.0872;
550.2000;1.0330;-5.0768;
550.5000;1.0330;-5.0743;
550.8000;1.0322;-5.0691;
551.1000;1.0330;-5.0794;
551.4000;1.0330;-5.0898;
551.7000;1.0346;-5.0872;
552.0000;1.0322;-5.0872;
552.3000;1.0313;-5.0846;
552.6000;1.0346;-5.0768;
552.9000;1.0330;-5.0794;
553.2000;1.0322;-5.0743;
553.5000;1.0305;-5.0665;
553.8000;1.0313;-5.0639;
554.1000;1.0322;-5.0587;
554.4000;1.0313;-5.0639;
554.7000;1.0370;-5.0458;
555.0000;1.0313;-5.0665;
555.3000;1.0346;-5.0561;
555.6000;1.0330;-5.0639;
555.9000;1.0322;-5.0613;
556.2000;1.0322;-5.0691;
556.5000;1.0322;-5.0743;
556.8000;1.0313;-5.0743;
557.1000;1.0313;-5.0665;
557.4000;1.0322;-5.0613;
557.7000;1.0354;-5.0639;
558.0000;1.0313;-5.0743;
558.3000;1.0305;-5.0794;
558.6000;1.0297;-5.0872;
558.9000;1.0305;-5.0794;
559.2000;1.0322;-5.0691;
559.5000;1.0297;-5.0872;
559.8000;1.0313;-5.0872;
560.1000;1.0305;-5.0898;
560.4000;1.0313;-5.0820;
560.7000;1.0297;-5.0820;
561.0000;1.0346;-5.0768;
561.3000;1.0313;-5.0794;
561.6000;1.0330;-5.0717;
561.9000;1.0322;-5.0768;
562.2000;1.0305;-5.0794;
562.5000;1.0346;-5.0717;
562.8000;1.0322;-5.0950;
563.1000;1.0362;-5.0768;
563.4000;1.0289;-5.0924;
563.7000;1.0313;-5.0898;
564.0000;1.0322;-5.0924;
564.3000;1.0305;-5.0950;
564.6000;1.0354;-5.0820;
564.9000;1.0322;-5.0898;
565.2000;1.0305;-5.1002;
565.5000;1.0322;-5.0924;
565.8000;1.0379;-5.0768;
566.1000;1.0322;-5.0976;
566.4000;1.0330;-5.1002;
566.7000;1.0346;-5.1028;
567.0000;1.0338;-5.0950;
567.3000;1.0313;-5.1002;
567.6000;1.0313;-5.1002;
567.9000;1.0313;-5.0976;
568.2000;1.0322;-5.0820;
568.5000;1.0322;-5.0898;
568.8000;1.0313;-5.0924;
569.1000;1.0297;-5.0950;
569.4000;1.0305;-5.1028;
569.7000;1.0322;-5.1002;
570.0000;1.0281;-5.1053;
570.3000;1.0322;-5.0950;
570.6000;1.0322;-5.0924;
570.9000;1.0281;-5.1002;
571.2000;1.0322;-5.0898;
571.5000;1.0313;-5.0820;
571.8000;1.0330;-5.0691;
572.1000;1.0305;-5.0665;
572.4000;1.0313;-5.0691;
572.7000;1.0305;-5.0743;
573.0000;1.0313;-5.0717;
573.3000;1.0322;-5.0665;
573.6000;1.0322;-5.0768;
573.9000;1.0330;-5.0717;
574.2000;1.0330;-5.0665;
574.5000;1.0338;-5.0743;
574.8000;1.0346;-5.0665;
575.1000;1.0322;-5.0717;
575.4000;1.0313;-5.0717;
575.7000;1.0322;-5.0717;
576.0000;1.0330;-5.0691;
576.3000;1.0313;-5.0717;
576.6000;1.0313;-5.0717;
576.9000;1.0330;-5.0743;
577.2000;1.0330;-5.0743;
577.5000;1.0370;-5.0665;
577.8000;1.0322;-5.0820;
578.1000;1.0305;-5.0820;
578.4000;1.0322;-5.0820;
578.7000;1.0305;-5.0794;
579.0000;1.0313;-5.0691;
579.3000;1.0297;-5.0691;
579.6000;1.0338;-5.0665;
579.9000;1.0305;-5.0794;
580.2000;1.0313;-5.0872;
580.5000;1.0362;-5.0794;
580.8000;1.0330;-5.0794;
581.1000;1.0322;-5.0794;
581.4000;1.0322;-5.0820;
581.7000;1.0322;-5.0872;
582.0000;1.0248;-5.1079;
582.3000;1.0305;-5.0950;
582.6000;1.0305;-5.0924;
582.9000;1.0313;-5.0950;
583.2000;1.0322;-5.0924;
583.5000;1.0289;-5.1053;
583.8000;1.0305;-5.1002;
584.1000;1.0289;-5.1002;
584.4000;1.0297;-5.0950;
584.7000;1.0313;-5.0794;
585.0000;1.0313;-5.0846;
585.3000;1.0322;-5.0898;
585.6000;1.0330;-5.0872;
585.9000;1.0297;-5.0924;
586.2000;1.0313;-5.0872;
586.5000;1.0305;-5.0820;
586.8000;1.0273;-5.0950;
587.1000;1.0313;-5.0820;
587.4000;1.0313;-5.0820;
587.7000;1.0305;-5.0717;
588.0000;1.0305;-5.0717;
588.3000;1.0305;-5.0794;
588.6000;1.0330;-5.0794;
588.9000;1.0297;-5.0768;
589.2000;1.0305;-5.0794;
589.5000;1.0313;-5.0794;
589.8000;1.0305;-5.0794;
590.1000;1.0313;-5.0820;
590.4000;1.0305;-5.0768;
590.7000;1.0297;-5.0794;
591.0000;1.0305;-5.0768;
591.3000;1.0313;-5.0768;
591.6000;1.0305;-5.0768;
591.9000;1.0313;-5.0820;
592.2000;1.0322;-5.0794;
592.5000;1.0330;-5.0820;
592.8000;1.0322;-5.0820;
593.1000;1.0297;-5.0846;
593.4000;1.0305;-5.0820;
593.7000;1.0322;-5.0794;
594.0000;1.0313;-5.0743;
594.3000;1.0256;-5.0846;
594.6000;1.0289;-5.0768;
594.9000;1.0297;-5.0794;
595.2000;1.0297;-5.0820;
595.5000;1.0305;-5.0743;
595.8000;1.0305;-5.0872;
596.1000;1.0313;-5.0820;
596.4000;1.0305;-5.0872;
596.7000;1.0313;-5.0976;
597.0000;1.0305;-5.0898;
597.3000;1.0313;-5.0872;
597.6000;1.0330;-5.0898;
597.9000;1.0313;-5.0872;
598.2000;1.0297;-5.0794;
598.5000;1.0330;-5.0820;
598.8000;1.0330;-5.0924;
599.1000;1.0330;-5.0924;
599.4000;1.0305;-5.1002;
599.7000;1.0330;-5.0924;
600.0000;1.0289;-5.1002;
600.3000;1.0305;-5.1157;
600.6000;1.0305;-5.1364;
600.9000;1.0232;-5.1571;
601.2000;1.0183;-5.1727;
601.5000;1.0167;-5.1934;
601.8000;1.0020;-5.2400;
602.1000;0.9931;-5.2737;
602.4000;0.9874;-5.2944;
602.7000;0.9776;-5.3100;
603.0000;0.9744;-5.3203;
603.3000;0.9638;-5.3462;
603.6000;0.9565;-5.3670;
603.9000;0.9524;-5.3773;
604.2000;0.9475;-5.3825;
604.5000;0.9345;-5.4110;
604.8000;0.9320;-5.4188;
605.1000;0.9280;-5.4239;
605.4000;0.9239;-5.4213;
605.7000;0.9190;-5.4291;
606.0000;0.9133;-5.4369;
606.3000;0.9092;-5.4498;
606.6000;0.9092;-5.4473;
606.9000;0.9019;-5.4602;
607.2000;0.8946;-5.4732;
607.5000;0.8938;-5.4654;
607.8000;0.8897;-5.4783;
608.1000;0.8905;-5.4732;
608.4000;0.8824;-5.4809;
608.7000;0.8791;-5.4913;
609.0000;0.8767;-5.4939;
609.3000;0.8726;-5.4939;
609.6000;0.8702;-5.5068;
609.9000;0.8653;-5.5094;
610.2000;0.8637;-5.5042;
610.5000;0.8620;-5.5042;
610.8000;0.8580;-5.5224;
611.1000;0.8555;-5.5224;
611.4000;0.8555;-5.5120;
611.7000;0.8523;-5.5224;
612.0000;0.8490;-5.5301;
612.3000;0.8457;-5.5431;
612.6000;0.8457;-5.5457;
612.9000;0.8433;-5.5457;
613.2000;0.8409;-5.5457;
613.5000;0.8368;-5.5327;
613.8000;0.8335;-5.5275;
614.1000;0.8335;-5.5250;
614.4000;0.8319;-5.5250;
614.7000;0.8270;-5.5353;
615.0000;0.8254;-5.5405;
615.3000;0.8238;-5.5457;
615.6000;0.8205;-5.5483;
615.9000;0.8181;-5.5535;
616.2000;0.8173;-5.5509;
616.5000;0.8148;-5.5535;
616.8000;0.8140;-5.5612;
617.1000;0.8132;-5.5586;
617.4000;0.8091;-5.5638;
617.7000;0.8075;-5.5560;
618.0000;0.8059;-5.5560;
618.3000;0.8050;-5.5560;
618.6000;0.8050;-5.5612;
618.9000;0.8010;-5.5638;
619.2000;0.8010;-5.5483;
619.5000;0.8002;-5.5509;
619.8000;0.7961;-5.5509;
620.1000;0.7945;-5.5509;
620.4000;0.7953;-5.5457;
620.7000;0.7945;-5.5483;
621.0000;0.7912;-5.5535;
621.3000;0.7896;-5.5664;
621.6000;0.7888;-5.5716;
621.9000;0.7888;-5.5690;
622.2000;0.7888;-5.5716;
622.5000;0.7863;-5.5742;
622.8000;0.7855;-5.5742;
623.1000;0.7823;-5.5742;
623.4000;0.7782;-5.5819;
623.7000;0.7798;-5.5794;
624.0000;0.7782;-5.5742;
624.3000;0.7749;-5.5742;
624.6000;0.7757;-5.5742;
624.9000;0.7741;-5.5768;
625.2000;0.7725;-5.5871;
625.5000;0.7774;-5.5794;
625.8000;0.7717;-5.5871;
626.1000;0.7700;-5.5742;
626.4000;0.7700;-5.5716;
626.7000;0.7709;-5.5586;
627.0000;0.7684;-5.5560;
627.3000;0.7635;-5.5690;
627.6000;0.7570;-5.5794;
627.9000;0.7643;-5.5638;
628.2000;0.7635;-5.5664;
628.5000;0.7643;-5.5716;
628.8000;0.7635;-5.5742;
629.1000;0.7635;-5.5638;
629.4000;0.7603;-5.5690;
629.7000;0.7586;-5.5690;
630.0000;0.7521;-5.5819;
630.3000;0.7554;-5.5690;
630.6000;0.7570;-5.5664;
630.9000;0.7554;-5.5794;
631.2000;0.7530;-5.5794;
631.5000;0.7530;-5.5794;
631.8000;0.7521;-5.5819;
632.1000;0.7530;-5.5871;
632.4000;0.7513;-5.5923;
632.7000;0.7505;-5.5845;
633.0000;0.7497;-5.5871;
633.3000;0.7497;-5.5845;
633.6000;0.7521;-5.5794;
633.9000;0.7464;-5.5897;
634.2000;0.7464;-5.5794;
634.5000;0.7456;-5.5845;
634.8000;0.7473;-5.5871;
635.1000;0.7391;-5.6053;
635.4000;0.7440;-5.5897;
635.7000;0.7416;-5.5949;
636.0000;0.7391;-5.6053;
636.3000;0.7391;-5.6027;
636.6000;0.7318;-5.6130;
636.9000;0.7383;-5.5897;
637.2000;0.7375;-5.5923;
637.5000;0.7375;-5.5897;
637.8000;0.7375;-5.5819;
638.1000;0.7375;-5.5742;
638.4000;0.7359;-5.5768;
638.7000;0.7375;-5.5638;
639.0000;0.7342;-5.5664;
639.3000;0.7342;-5.5690;
639.6000;0.7342;-5.5742;
639.9000;0.7334;-5.5716;
640.2000;0.7318;-5.5845;
640.5000;0.7310;-5.5768;
640.8000;0.7318;-5.5716;
641.1000;0.7302;-5.5949;
641.4000;0.7253;-5.6053;
641.7000;0.7293;-5.5949;
642.0000;0.7277;-5.5897;
642.3000;0.7293;-5.5794;
642.6000;0.7285;-5.5794;
642.9000;0.7269;-5.5871;
643.2000;0.7277;-5.5742;
643.5000;0.7261;-5.5768;
643.8000;0.7261;-5.5845;
644.1000;0.7236;-5.5897;
644.4000;0.7228;-5.5949;
644.7000;0.7228;-5.5923;
645.0000;0.7245;-5.5897;
645.3000;0.7228;-5.5923;
645.6000;0.7204;-5.5897;
645.9000;0.7220;-5.5871;
646.2000;0.7245;-5.5768;
646.5000;0.7179;-5.5923;
646.8000;0.7196;-5.5975;
647.1000;0.7179;-5.6208;
647.4000;0.7188;-5.6156;
647.7000;0.7139;-5.6260;
648.0000;0.7179;-5.6078;
648.3000;0.7171;-5.6053;
648.6000;0.7139;-5.6078;
648.9000;0.7171;-5.5949;
649.2000;0.7155;-5.6027;
649.5000;0.7163;-5.6027;
649.8000;0.7155;-5.6104;
650.1000;0.7147;-5.6182;
650.4000;0.7139;-5.6182;
650.7000;0.7123;-5.6182;
651.0000;0.7131;-5.6182;
651.3000;0.7131;-5.6104;
651.6000;0.7106;-5.6104;
651.9000;0.7106;-5.6078;
652.2000;0.7106;-5.6130;
652.5000;0.7131;-5.6053;
652.8000;0.7106;-5.6001;
653.1000;0.7106;-5.5975;
653.4000;0.7090;-5.6001;
653.7000;0.7114;-5.5975;
654.0000;0.7114;-5.5923;
654.3000;0.7090;-5.5949;
654.6000;0.7082;-5.5949;
654.9000;0.7074;-5.5871;
655.2000;0.7057;-5.5923;
655.5000;0.7017;-5.6027;
655.8000;0.7082;-5.5845;
656.1000;0.7066;-5.5923;
656.4000;0.7066;-5.5975;
656.7000;0.7057;-5.6078;
657.0000;0.7025;-5.6078;
657.3000;0.7041;-5.6001;
657.6000;0.7041;-5.6078;
657.9000;0.7041;-5.5949;
658.2000;0.7033;-5.5897;
658.5000;0.7025;-5.5819;
658.8000;0.7009;-5.5871;
659.1000;0.7025;-5.5897;
659.4000;0.7017;-5.5975;
659.7000;0.7009;-5.6001;
660.0000;0.7033;-5.5897;
660.3000;0.6984;-5.5975;
660.6000;0.6992;-5.5975;
660.9000;0.6976;-5.6027;
661.2000;0.6976;-5.6027;
661.5000;0.6976;-5.6001;
661.8000;0.6976;-5.6001;
662.1000;0.6976;-5.6104;
662.4000;0.6968;-5.6053;
662.7000;0.6968;-5.5975;
663.0000;0.6984;-5.5897;
663.3000;0.6976;-5.5845;
663.6000;0.6943;-5.5871;
663.9000;0.6960;-5.5768;
664.2000;0.6952;-5.5923;
664.5000;0.6935;-5.5923;
664.8000;0.6927;-5.5975;
665.1000;0.6927;-5.6078;
665.4000;0.6935;-5.6053;
665.7000;0.6919;-5.6027;
666.0000;0.6927;-5.5975;
666.3000;0.6911;-5.5871;
666.6000;0.6927;-5.5768;
666.9000;0.6919;-5.5871;
667.2000;0.6911;-5.5923;
667.5000;0.6903;-5.5923;
667.8000;0.6919;-5.5871;
668.1000;0.6903;-5.5949;
668.4000;0.6911;-5.5923;
668.7000;0.6895;-5.5845;
669.0000;0.6952;-5.5716;
669.3000;0.6886;-5.5742;
669.6000;0.6895;-5.5742;
669.9000;0.6870;-5.5871;
670.2000;0.6886;-5.5768;
670.5000;0.6870;-5.5768;
670.8000;0.6870;-5.5716;
671.1000;0.6862;-5.5716;
671.4000;0.6886;-5.5690;
671.7000;0.6862;-5.5716;
672.0000;0.6870;-5.5742;
672.3000;0.6854;-5.5768;
672.6000;0.6846;-5.5845;
672.9000;0.6854;-5.5845;
673.2000;0.6854;-5.5845;
673.5000;0.6854;-5.5819;
673.8000;0.6829;-5.5819;
674.1000;0.6862;-5.5794;
674.4000;0.6854;-5.5845;
674.7000;0.6829;-5.5949;
675.0000;0.6829;-5.5923;
675.3000;0.6838;-5.5923;
675.6000;0.6829;-5.5949;
675.9000;0.6821;-5.5923;
676.2000;0.6821;-5.5923;
676.5000;0.6813;-5.5871;
676.8000;0.6821;-5.5819;
677.1000;0.6805;-5.5949;
677.4000;0.6821;-5.5949;
677.7000;0.6789;-5.6001;
678.0000;0.6772;-5.6078;
678.3000;0.6797;-5.6027;
678.6000;0.6813;-5.5975;
678.9000;0.6781;-5.5975;
679.2000;0.6756;-5.6027;
679.5000;0.6724;-5.6104;
679.8000;0.6797;-5.5897;
680.1000;0.6797;-5.5871;
680.4000;0.6756;-5.6001;
680.7000;0.6772;-5.6027;
681.0000;0.6691;-5.6130;
681.3000;0.6756;-5.5923;
681.6000;0.6707;-5.6053;
681.9000;0.6748;-5.6027;
682.2000;0.6732;-5.6130;
682.5000;0.6732;-5.6182;
682.8000;0.6740;-5.6234;
683.1000;0.6772;-5.6104;
683.4000;0.6772;-5.6182;
683.7000;0.6732;-5.6286;
684.0000;0.6716;-5.6286;
684.3000;0.6781;-5.6078;
684.6000;0.6724;-5.6234;
684.9000;0.6724;-5.6156;
685.2000;0.6740;-5.6156;
685.5000;0.6740;-5.6130;
685.8000;0.6724;-5.6078;
686.1000;0.6724;-5.6078;
686.4000;0.6748;-5.6027;
686.7000;0.6707;-5.6156;
687.0000;0.6805;-5.5897;
687.3000;0.6716;-5.6104;
687.6000;0.6716;-5.6182;
687.9000;0.6691;-5.6260;
688.2000;0.6699;-5.6312;
688.5000;0.6683;-5.6337;
688.8000;0.6691;-5.6286;
689.1000;0.6691;-5.6104;
689.4000;0.6691;-5.6078;
689.7000;0.6691;-5.6104;
690.0000;0.6699;-5.6130;
690.3000;0.6675;-5.6104;
690.6000;0.6659;-5.6078;
690.9000;0.6659;-5.6027;
691.2000;0.6667;-5.6053;
691.5000;0.6667;-5.6078;
691.8000;0.6659;-5.6104;
692.1000;0.6683;-5.6182;
692.4000;0.6724;-5.6078;
692.7000;0.6659;-5.6260;
693.0000;0.6675;-5.6182;
693.3000;0.6659;-5.6156;
693.6000;0.6634;-5.6208;
693.9000;0.6650;-5.6104;
694.2000;0.6650;-5.6078;
694.5000;0.6667;-5.5949;
694.8000;0.6659;-5.6001;
695.1000;0.6642;-5.6027;
695.4000;0.6650;-5.5897;
695.7000;0.6659;-5.5871;
696.0000;0.6650;-5.5897;
696.3000;0.6593;-5.5975;
696.6000;0.6634;-5.5975;
696.9000;0.6626;-5.5949;
697.2000;0.6626;-5.5897;
697.5000;0.6691;-5.5742;
697.8000;0.6618;-5.5897;
698.1000;0.6602;-5.5897;
698.4000;0.6610;-5.5949;
698.7000;0.6602;-5.5975;
699.0000;0.6602;-5.6001;
699.3000;0.6602;-5.6053;
699.6000;0.6602;-5.6078;
699.9000;0.6610;-5.6053;
700.2000;0.6593;-5.6078;
700.5000;0.6618;-5.5949;
700.8000;0.6602;-5.6001;
701.1000;0.6618;-5.5949;
701.4000;0.6618;-5.5845;
701.7000;0.6593;-5.5949;
702.0000;0.6634;-5.5794;
702.3000;0.6577;-5.6027;
702.6000;0.6593;-5.6001;
702.9000;0.6577;-5.6104;
703.2000;0.6618;-5.5975;
703.5000;0.6585;-5.6053;
703.8000;0.6569;-5.5949;
704.1000;0.6577;-5.5923;
704.4000;0.6569;-5.5923;
704.7000;0.6561;-5.5949;
705.0000;0.6593;-5.5794;
705.3000;0.6569;-5.5923;
705.6000;0.6561;-5.5949;
705.9000;0.6569;-5.5949;
706.2000;0.6561;-5.6027;
706.5000;0.6561;-5.6104;
706.8000;0.6561;-5.6104;
707.1000;0.6553;-5.6053;
707.4000;0.6553;-5.5975;
707.7000;0.6569;-5.5897;
708.0000;0.6545;-5.6001;
708.3000;0.6528;-5.6053;
708.6000;0.6577;-5.5975;
708.9000;0.6553;-5.6001;
709.2000;0.6553;-5.6053;
709.5000;0.6528;-5.6001;
709.8000;0.6545;-5.5949;
710.1000;0.6528;-5.6027;
710.4000;0.6528;-5.6027;
710.7000;0.6536;-5.5975;
711.0000;0.6536;-5.5923;
711.3000;0.6528;-5.5949;
711.6000;0.6536;-5.5975;
711.9000;0.6520;-5.5949;
712.2000;0.6528;-5.5949;
712.5000;0.6536;-5.5871;
712.8000;0.6520;-5.5975;
713.1000;0.6512;-5.5949;
713.4000;0.6520;-5.5871;
713.7000;0.6488;-5.5949;
714.0000;0.6496;-5.5975;
714.3000;0.6488;-5.6053;
714.6000;0.6512;-5.6001;
714.9000;0.6512;-5.6001;
715.2000;0.6504;-5.6053;
715.5000;0.6479;-5.6027;
715.8000;0.6520;-5.5949;
716.1000;0.6471;-5.6027;
716.4000;0.6496;-5.5949;
716.7000;0.6520;-5.5975;
717.0000;0.6471;-5.6053;
717.3000;0.6447;-5.6104;
717.6000;0.6488;-5.6053;
717.9000;0.6488;-5.6027;
718.2000;0.6496;-5.6053;
718.5000;0.6471;-5.6130;
718.8000;0.6479;-5.6208;
719.1000;0.6496;-5.6130;
719.4000;0.6536;-5.6001;
719.7000;0.6471;-5.6130;
720.0000;0.6471;-5.6078;
720.3000;0.6479;-5.6053;
720.6000;0.6463;-5.6182;
720.9000;0.6455;-5.6234;
721.2000;0.6431;-5.6234;
721.5000;0.6471;-5.6104;
721.8000;0.6471;-5.6053;
722.1000;0.6471;-5.6130;
722.4000;0.6455;-5.6130;
722.7000;0.6455;-5.6053;
723.0000;0.6463;-5.6104;
723.3000;0.6463;-5.6104;
723.6000;0.6439;-5.6130;
723.9000;0.6455;-5.6001;
724.2000;0.6512;-5.5923;
724.5000;0.6455;-5.5975;
724.8000;0.6439;-5.5975;
725.1000;0.6447;-5.5845;
725.4000;0.6439;-5.5742;
725.7000;0.6439;-5.5690;
726.0000;0.6422;-5.5716;
726.3000;0.6439;-5.5794;
726.6000;0.6447;-5.5716;
726.9000;0.6431;-5.5742;
727.2000;0.6422;-5.5664;
727.5000;0.6422;-5.5664;
727.8000;0.6390;-5.5716;
728.1000;0.6398;-5.5716;
728.4000;0.6439;-5.5690;
728.7000;0.6431;-5.5742;
729.0000;0.6422;-5.5794;
729.3000;0.6447;-5.5690;
729.6000;0.6431;-5.5612;
729.9000;0.6422;-5.5612;
730.2000;0.6431;-5.5638;
730.5000;0.6406;-5.5716;
730.8000;0.6406;-5.5768;
731.1000;0.6414;-5.5819;
731.4000;0.6406;-5.5871;
731.7000;0.6422;-5.5871;
732.0000;0.6406;-5.5897;
732.3000;0.6398;-5.5949;
732.6000;0.6382;-5.6001;
732.9000;0.6414;-5.5949;
733.2000;0.6406;-5.6078;
733.5000;0.6406;-5.5975;
733.8000;0.6406;-5.5949;
734.1000;0.6390;-5.5949;
734.4000;0.6365;-5.5975;
734.7000;0.6406;-5.5845;
735.0000;0.6398;-5.5897;
735.3000;0.6374;-5.5897;
735.6000;0.6390;-5.5819;
735.9000;0.6398;-5.5819;
736.2000;0.6357;-5.5897;
736.5000;0.6390;-5.5794;
736.8000;0.6365;-5.5871;
737.1000;0.6390;-5.5845;
737.4000;0.6382;-5.5845;
737.7000;0.6374;-5.5845;
738.0000;0.6382;-5.5845;
738.3000;0.6374;-5.5845;
738.6000;0.6374;-5.5819;
738.9000;0.6374;-5.5768;
739.2000;0.6365;-5.5664;
739.5000;0.6365;-5.5690;
739.8000;0.6390;-5.5664;
740.1000;0.6382;-5.5664;
740.4000;0.6374;-5.5690;
740.7000;0.6374;-5.5690;
741.0000;0.6357;-5.5690;
741.3000;0.6365;-5.5664;
741.6000;0.6374;-5.5742;
741.9000;0.6365;-5.5716;
742.2000;0.6357;-5.5742;
742.5000;0.6341;-5.5716;
742.8000;0.6365;-5.5716;
743.1000;0.6374;-5.5664;
743.4000;0.6357;-5.5768;
743.7000;0.6365;-5.5716;
744.0000;0.6365;-5.5638;
744.3000;0.6357;-5.5742;
744.6000;0.6349;-5.5716;
744.9000;0.6325;-5.5819;
745.2000;0.6341;-5.5716;
745.5000;0.6341;-5.5690;
745.8000;0.6357;-5.5742;
746.1000;0.6349;-5.5768;
746.4000;0.6357;-5.5638;
746.7000;0.6333;-5.5638;
747.0000;0.6333;-5.5638;
747.3000;0.6349;-5.5638;
747.6000;0.6341;-5.5586;
747.9000;0.6325;-5.5535;
748.2000;0.6333;-5.5535;
748.5000;0.6349;-5.5509;
748.8000;0.6325;-5.5560;
749.1000;0.6341;-5.5664;
749.4000;0.6341;-5.5664;
749.7000;0.6309;-5.5690;
750.0000;0.6333;-5.5612;
750.3000;0.6317;-5.5535;
750.6000;0.6300;-5.5638;
750.9000;0.6309;-5.5638;
751.2000;0.6341;-5.5535;
751.5000;0.6317;-5.5716;
751.8000;0.6292;-5.5819;
752.1000;0.6349;-5.5794;
752.4000;0.6333;-5.5845;
752.7000;0.6276;-5.5923;
753.0000;0.6300;-5.5897;
753.3000;0.6300;-5.5845;
753.6000;0.6309;-5.5871;
753.9000;0.6333;-5.5845;
754.2000;0.6309;-5.5871;
754.5000;0.6309;-5.5742;
754.8000;0.6300;-5.5768;
755.1000;0.6333;-5.5664;
755.4000;0.6317;-5.5638;
755.7000;0.6309;-5.5664;
756.0000;0.6300;-5.5690;
756.3000;0.6300;-5.5690;
756.6000;0.6309;-5.5586;
756.9000;0.6292;-5.5560;
757.2000;0.6300;-5.5560;
757.5000;0.6309;-5.5560;
757.8000;0.6300;-5.5638;
758.1000;0.6276;-5.5742;
758.4000;0.6284;-5.5690;
758.7000;0.6292;-5.5612;
759.0000;0.6292;-5.5560;
759.3000;0.6300;-5.5509;
759.6000;0.6276;-5.5638;
759.9000;0.6292;-5.5509;
760.2000;0.6284;-5.5560;
760.5000;0.6284;-5.5612;
760.8000;0.6300;-5.5638;
761.1000;0.6300;-5.5716;
761.4000;0.6284;-5.5794;
761.7000;0.6300;-5.5819;
762.0000;0.6284;-5.5871;
762.3000;0.6276;-5.5845;
762.6000;0.6276;-5.5871;
762.9000;0.6284;-5.5845;
763.2000;0.6276;-5.5897;
763.5000;0.6276;-5.5871;
763.8000;0.6292;-5.5845;
764.1000;0.6268;-5.5794;
764.4000;0.6243;-5.5845;
764.7000;0.6252;-5.5742;
765.0000;0.6276;-5.5716;
765.3000;0.6268;-5.5768;
765.6000;0.6276;-5.5716;
765.9000;0.6243;-5.5768;
766.2000;0.6260;-5.5768;
766.5000;0.6276;-5.5716;
766.8000;0.6300;-5.5690;
767.1000;0.6268;-5.5768;
767.4000;0.6260;-5.5716;
767.7000;0.6260;-5.5690;
768.0000;0.6300;-5.5690;
768.3000;0.6268;-5.5871;
768.6000;0.6243;-5.5871;
768.9000;0.6260;-5.5845;
769.2000;0.6235;-5.5871;
769.5000;0.6252;-5.5845;
769.8000;0.6252;-5.5794;
770.1000;0.6276;-5.5690;
770.4000;0.6268;-5.5612;
770.7000;0.6186;-5.5845;
771.0000;0.6235;-5.5690;
771.3000;0.6243;-5.5535;
771.6000;0.6252;-5.5612;
771.9000;0.6300;-5.5560;
772.2000;0.6227;-5.5742;
772.5000;0.6235;-5.5690;
772.8000;0.6243;-5.5716;
773.1000;0.6309;-5.5586;
773.4000;0.6260;-5.5664;
773.7000;0.6243;-5.5742;
774.0000;0.6243;-5.5664;
774.3000;0.6227;-5.5664;
774.6000;0.6186;-5.5664;
774.9000;0.6227;-5.5690;
775.2000;0.6260;-5.5638;
775.5000;0.6211;-5.5768;
775.8000;0.6227;-5.5768;
776.1000;0.6227;-5.5716;
776.4000;0.6235;-5.5690;
776.7000;0.6235;-5.5690;
777.0000;0.6268;-5.5612;
777.3000;0.6203;-5.5768;
777.6000;0.6235;-5.5742;
777.9000;0.6235;-5.5664;
778.2000;0.6243;-5.5716;
778.5000;0.6235;-5.5690;
778.8000;0.6211;-5.5794;
779.1000;0.6186;-5.5819;
779.4000;0.6219;-5.5690;
779.7000;0.6211;-5.5716;
780.0000;0.6219;-5.5716;
780.3000;0.6211;-5.5716;
780.6000;0.6203;-5.5664;
780.9000;0.6195;-5.5742;
781.2000;0.6186;-5.5716;
781.5000;0.6203;-5.5612;
781.8000;0.6203;-5.5612;
782.1000;0.6219;-5.5664;
782.4000;0.6170;-5.5742;
782.7000;0.6195;-5.5768;
783.0000;0.6211;-5.5742;
783.3000;0.6203;-5.5716;
783.6000;0.6235;-5.5638;
783.9000;0.6203;-5.5664;
784.2000;0.6186;-5.5638;
784.5000;0.6211;-5.5612;
784.8000;0.6227;-5.5535;
785.1000;0.6211;-5.5560;
785.4000;0.6211;-5.5664;
785.7000;0.6203;-5.5638;
786.0000;0.6195;-5.5586;
786.3000;0.6186;-5.5535;
786.6000;0.6203;-5.5509;
786.9000;0.6195;-5.5509;
787.2000;0.6211;-5.5535;
787.5000;0.6203;-5.5509;
787.8000;0.6186;-5.5638;
788.1000;0.6211;-5.5535;
788.4000;0.6170;-5.5638;
788.7000;0.6170;-5.5638;
789.0000;0.6203;-5.5612;
789.3000;0.6186;-5.5690;
789.6000;0.6195;-5.5794;
789.9000;0.6195;-5.5794;
790.2000;0.6154;-5.5871;
790.5000;0.6203;-5.5819;
790.8000;0.6186;-5.5819;
791.1000;0.6195;-5.5768;
791.4000;0.6162;-5.5923;
791.7000;0.6170;-5.5871;
792.0000;0.6178;-5.5819;
792.3000;0.6243;-5.5586;
792.6000;0.6170;-5.5742;
792.9000;0.6195;-5.5664;
793.2000;0.6129;-5.5794;
793.5000;0.6203;-5.5638;
793.8000;0.6170;-5.5794;
794.1000;0.6170;-5.5897;
794.4000;0.6162;-5.5897;
794.7000;0.6186;-5.5794;
795.0000;0.6162;-5.5768;
795.3000;0.6105;-5.5819;
795.6000;0.6186;-5.5638;
795.9000;0.6178;-5.5664;
796.2000;0.6170;-5.5690;
796.5000;0.6162;-5.5690;
796.8000;0.6162;-5.5768;
797.1000;0.6170;-5.5690;
797.4000;0.6138;-5.5716;
797.7000;0.6178;-5.5638;
798.0000;0.6170;-5.5612;
798.3000;0.6162;-5.5586;
798.6000;0.6178;-5.5560;
798.9000;0.6154;-5.5638;
799.2000;0.6154;-5.5586;
799.5000;0.6154;-5.5535;
799.8000;0.6146;-5.5560;
800.1000;0.6154;-5.5535;
800.4000;0.6146;-5.5586;
800.7000;0.6178;-5.5586;
801.0000;0.6154;-5.5638;
801.3000;0.6146;-5.5716;
801.6000;0.6154;-5.5716;
801.9000;0.6162;-5.5716;
802.2000;0.6178;-5.5638;
802.5000;0.6146;-5.5638;
802.8000;0.6154;-5.5690;
803.1000;0.6113;-5.5819;
803.4000;0.6170;-5.5716;
803.7000;0.6146;-5.5794;
804.0000;0.6146;-5.5716;
804.3000;0.6146;-5.5690;
804.6000;0.6154;-5.5690;
804.9000;0.6211;-5.5560;
805.2000;0.6146;-5.5664;
805.5000;0.6170;-5.5664;
805.8000;0.6154;-5.5768;
806.1000;0.6170;-5.5794;
806.4000;0.6154;-5.5794;
806.7000;0.6162;-5.5690;
807.0000;0.6154;-5.5690;
807.3000;0.6146;-5.5586;
807.6000;0.6154;-5.5664;
807.9000;0.6138;-5.5690;
808.2000;0.6146;-5.5664;
808.5000;0.6146;-5.5612;
808.8000;0.6146;-5.5586;
809.1000;0.6154;-5.5612;
809.4000;0.6154;-5.5638;
809.7000;0.6138;-5.5638;
810.0000;0.6138;-5.5664;
810.3000;0.6138;-5.5690;
810.6000;0.6154;-5.5560;
810.9000;0.6129;-5.5638;
811.2000;0.6121;-5.5716;
811.5000;0.6121;-5.5716;
811.8000;0.6121;-5.5638;
812.1000;0.6105;-5.5690;
812.4000;0.6138;-5.5638;
812.7000;0.6138;-5.5664;
813.0000;0.6097;-5.5742;
813.3000;0.6064;-5.5819;
813.6000;0.6170;-5.5457;
813.9000;0.6081;-5.5768;
814.2000;0.6081;-5.5768;
814.5000;0.6129;-5.5690;
814.8000;0.6089;-5.5794;
815.1000;0.6105;-5.5690;
815.4000;0.6121;-5.5586;
815.7000;0.6113;-5.5612;
816.0000;0.6105;-5.5638;
816.3000;0.6129;-5.5560;
816.6000;0.6105;-5.5664;
816.9000;0.6097;-5.5768;
817.2000;0.6064;-5.5897;
817.5000;0.6129;-5.5742;
817.8000;0.6105;-5.5871;
818.1000;0.6138;-5.5819;
818.4000;0.6113;-5.5819;
818.7000;0.6138;-5.5768;
819.0000;0.6186;-5.5612;
819.3000;0.6097;-5.5897;
819.6000;0.6056;-5.5949;
819.9000;0.6121;-5.5742;
820.2000;0.6097;-5.5819;
820.5000;0.6089;-5.5768;
820.8000;0.6072;-5.5845;
821.1000;0.6113;-5.5794;
821.4000;0.6113;-5.5819;
821.7000;0.6113;-5.5768;
822.0000;0.6072;-5.5897;
822.3000;0.6121;-5.5742;
822.6000;0.6089;-5.5716;
822.9000;0.6105;-5.5871;
823.2000;0.6097;-5.5897;
823.5000;0.6097;-5.5923;
823.8000;0.6129;-5.5768;
824.1000;0.6097;-5.5690;
824.4000;0.6113;-5.5638;
824.7000;0.6113;-5.5690;
825.0000;0.6097;-5.5742;
825.3000;0.6097;-5.5716;
825.6000;0.6089;-5.5690;
825.9000;0.6081;-5.5742;
826.2000;0.6056;-5.5819;
826.5000;0.6121;-5.5586;
826.8000;0.6089;-5.5638;
827.1000;0.6105;-5.5638;
827.4000;0.6105;-5.5664;
827.7000;0.6089;-5.5768;
828.0000;0.6089;-5.5768;
828.3000;0.6089;-5.5716;
828.6000;0.6089;-5.5768;
828.9000;0.6089;-5.5742;
829.2000;0.6089;-5.5664;
829.5000;0.6105;-5.5638;
829.8000;0.6089;-5.5664;
830.1000;0.6113;-5.5664;
830.4000;0.6081;-5.5742;
830.7000;0.6097;-5.5768;
831.0000;0.6089;-5.5690;
831.3000;0.6089;-5.5586;
831.6000;0.6081;-5.5612;
831.9000;0.6081;-5.5612;
832.2000;0.6081;-5.5612;
832.5000;0.6081;-5.5638;
832.8000;0.6064;-5.5664;
833.1000;0.6072;-5.5716;
833.4000;0.6064;-5.5768;
833.7000;0.6072;-5.5768;
834.0000;0.6081;-5.5638;
834.3000;0.6064;-5.5560;
834.6000;0.6097;-5.5457;
834.9000;0.6072;-5.5560;
835.2000;0.6089;-5.5612;
835.5000;0.6032;-5.5742;
835.8000;0.6072;-5.5638;
836.1000;0.6064;-5.5664;
836.4000;0.6072;-5.5586;
836.7000;0.6113;-5.5483;
837.0000;0.6097;-5.5560;
837.3000;0.6072;-5.5535;
837.6000;0.6089;-5.5509;
837.9000;0.6064;-5.5638;
838.2000;0.6089;-5.5535;
838.5000;0.6064;-5.5509;
838.8000;0.6064;-5.5612;
839.1000;0.6081;-5.5586;
839.4000;0.6056;-5.5664;
839.7000;0.6081;-5.5509;
840.0000;0.6072;-5.5483;
840.3000;0.6089;-5.5483;
840.6000;0.6121;-5.5457;
840.9000;0.6064;-5.5612;
841.2000;0.6064;-5.5612;
841.5000;0.6072;-5.5690;
841.8000;0.6056;-5.5612;
842.1000;0.6072;-5.5586;
842.4000;0.6064;-5.5483;
842.7000;0.6138;-5.5327;
843.0000;0.6056;-5.5457;
843.3000;0.6048;-5.5483;
843.6000;0.6081;-5.5509;
843.9000;0.6056;-5.5586;
844.2000;0.6056;-5.5509;
844.5000;0.6048;-5.5509;
844.8000;0.6056;-5.5483;
845.1000;0.6056;-5.5457;
845.4000;0.6048;-5.5509;
845.7000;0.6056;-5.5509;
846.0000;0.6040;-5.5483;
846.3000;0.6048;-5.5405;
846.6000;0.6072;-5.5353;
846.9000;0.6064;-5.5405;
847.2000;0.6048;-5.5353;
847.5000;0.6048;-5.5431;
847.8000;0.6048;-5.5457;
848.1000;0.6081;-5.5405;
848.4000;0.6040;-5.5457;
848.7000;0.6081;-5.5431;
849.0000;0.6048;-5.5535;
849.3000;0.6056;-5.5535;
849.6000;0.6072;-5.5431;
849.9000;0.6048;-5.5431;
850.2000;0.6064;-5.5405;
850.5000;0.6064;-5.5301;
850.8000;0.6040;-5.5327;
851.1000;0.6064;-5.5301;
851.4000;0.6056;-5.5379;
851.7000;0.6048;-5.5431;
852.0000;0.6097;-5.5250;
852.3000;0.6015;-5.5535;
852.6000;0.6032;-5.5509;
852.9000;0.6048;-5.5509;
853.2000;0.6048;-5.5509;
853.5000;0.6048;-5.5327;
853.8000;0.6032;-5.5353;
854.1000;0.6040;-5.5379;
854.4000;0.6040;-5.5327;
854.7000;0.6064;-5.5198;
855.0000;0.6048;-5.5224;
855.3000;0.6048;-5.5172;
855.6000;0.6048;-5.5250;
855.9000;0.6048;-5.5250;
856.2000;0.6056;-5.5327;
856.5000;0.6032;-5.5483;
856.8000;0.5958;-5.5742;
857.1000;0.6032;-5.5535;
857.4000;0.6040;-5.5483;
857.7000;0.6040;-5.5586;
858.0000;0.6032;-5.5612;
858.3000;0.6040;-5.5638;
858.6000;0.6040;-5.5664;
858.9000;0.6040;-5.5664;
859.2000;0.6040;-5.5586;
859.5000;0.6032;-5.5509;
859.8000;0.6056;-5.5379;
860.1000;0.6040;-5.5457;
860.4000;0.6048;-5.5379;
860.7000;0.6048;-5.5379;
861.0000;0.6056;-5.5457;
861.3000;0.6040;-5.5379;
861.6000;0.6048;-5.5431;
861.9000;0.6040;-5.5379;
862.2000;0.6048;-5.5301;
862.5000;0.6040;-5.5224;
862.8000;0.6040;-5.5250;
863.1000;0.6040;-5.5327;
863.4000;0.6048;-5.5379;
863.7000;0.6024;-5.5405;
864.0000;0.6032;-5.5327;
864.3000;0.6048;-5.5327;
864.6000;0.6024;-5.5405;
864.9000;0.6032;-5.5379;
865.2000;0.6015;-5.5483;
865.5000;0.6007;-5.5509;
865.8000;0.6040;-5.5457;
866.1000;0.6056;-5.5327;
866.4000;0.6024;-5.5327;
866.7000;0.6024;-5.5301;
867.0000;0.6032;-5.5301;
867.3000;0.6024;-5.5379;
867.6000;0.6040;-5.5353;
867.9000;0.6015;-5.5431;
868.2000;0.6040;-5.5379;
868.5000;0.6040;-5.5405;
868.8000;0.6040;-5.5379;
869.1000;0.6064;-5.5353;
869.4000;0.6015;-5.5586;
869.7000;0.6007;-5.5560;
870.0000;0.6015;-5.5431;
870.3000;0.6040;-5.5327;
870.6000;0.6015;-5.5327;
870.9000;0.6032;-5.5275;
871.2000;0.6024;-5.5327;
871.5000;0.6007;-5.5327;
871.8000;0.6015;-5.5327;
872.1000;0.5999;-5.5405;
872.4000;0.6015;-5.5379;
872.7000;0.6015;-5.5353;
873.0000;0.6015;-5.5431;
873.3000;0.6056;-5.5327;
873.6000;0.5975;-5.5483;
873.9000;0.6024;-5.5301;
874.2000;0.6032;-5.5224;
874.5000;0.6015;-5.5250;
874.8000;0.6007;-5.5275;
875.1000;0.6015;-5.5224;
875.4000;0.6015;-5.5172;
875.7000;0.6015;-5.5146;
876.0000;0.6015;-5.5146;
876.3000;0.5991;-5.5250;
876.6000;0.6024;-5.5172;
876.9000;0.5950;-5.5457;
877.2000;0.6024;-5.5172;
877.5000;0.6024;-5.5172;
877.8000;0.6024;-5.5224;
878.1000;0.6007;-5.5405;
878.4000;0.6007;-5.5353;
878.7000;0.5983;-5.5353;
879.0000;0.6007;-5.5353;
879.3000;0.5999;-5.5405;
879.6000;0.6007;-5.5379;
879.9000;0.5983;-5.5457;
880.2000;0.6024;-5.5483;
880.5000;0.6007;-5.5509;
880.8000;0.5999;-5.5483;
881.1000;0.5999;-5.5483;
881.4000;0.6089;-5.5146;
881.7000;0.6015;-5.5250;
882.0000;0.6015;-5.5301;
882.3000;0.6015;-5.5301;
882.6000;0.6007;-5.5379;
882.9000;0.6032;-5.5301;
883.2000;0.6007;-5.5327;
883.5000;0.5991;-5.5327;
883.8000;0.5983;-5.5379;
884.1000;0.5967;-5.5353;
884.4000;0.5991;-5.5250;
884.7000;0.6007;-5.5224;
885.0000;0.5950;-5.5301;
885.3000;0.5983;-5.5275;
885.6000;0.5999;-5.5224;
885.9000;0.5999;-5.5250;
886.2000;0.6015;-5.5172;
886.5000;0.5991;-5.5224;
886.8000;0.5999;-5.5301;
887.1000;0.6040;-5.5301;
887.4000;0.5999;-5.5405;
887.7000;0.5999;-5.5431;
888.0000;0.6007;-5.5379;
888.3000;0.5991;-5.5327;
888.6000;0.5999;-5.5353;
888.9000;0.5991;-5.5224;
889.2000;0.6007;-5.5146;
889.5000;0.5999;-5.5198;
889.8000;0.5999;-5.5250;
890.1000;0.5934;-5.5379;
890.4000;0.5999;-5.5224;
890.7000;0.5975;-5.5301;
891.0000;0.5991;-5.5250;
891.3000;0.5991;-5.5275;
891.6000;0.5999;-5.5250;
891.9000;0.5983;-5.5379;
892.2000;0.5975;-5.5379;
892.5000;0.5991;-5.5327;
892.8000;0.5991;-5.5327;
893.1000;0.5999;-5.5405;
893.4000;0.5999;-5.5275;
893.7000;0.5991;-5.5301;
894.0000;0.6007;-5.5327;
894.3000;0.5983;-5.5353;
894.6000;0.5983;-5.5327;
894.9000;0.5991;-5.5198;
895.2000;0.5999;-5.5198;
895.5000;0.5991;-5.5275;
895.8000;0.5975;-5.5224;
896.1000;0.5991;-5.5172;
896.4000;0.5975;-5.5275;
896.7000;0.5999;-5.5327;
897.0000;0.5975;-5.5275;
897.3000;0.5991;-5.5327;
897.6000;0.5975;-5.5379;
897.9000;0.5991;-5.5327;
898.2000;0.5975;-5.5327;
898.5000;0.5967;-5.5301;
898.8000;0.5983;-5.5275;
899.1000;0.5999;-5.5224;
899.4000;0.5991;-5.5172;
899.7000;0.5975;-5.5198;
900.0000;0.5975;-5.5353;
900.3000;0.5967;-5.5405;
900.6000;0.5991;-5.5379;
900.9000;0.5991;-5.5327;
901.2000;0.5991;-5.5327;
901.5000;0.5967;-5.5405;
901.8000;0.5999;-5.5379;
902.1000;0.5991;-5.5431;
902.4000;0.5975;-5.5431;
902.7000;0.5975;-5.5405;
903.0000;0.5983;-5.5457;
903.3000;0.5983;-5.5483;
903.6000;0.6032;-5.5353;
903.9000;0.5983;-5.5405;
904.2000;0.5975;-5.5431;
904.5000;0.5983;-5.5405;
904.8000;0.5967;-5.5457;
905.1000;0.5958;-5.5483;
905.4000;0.5983;-5.5457;
905.7000;0.6015;-5.5301;
906.0000;0.5983;-5.5353;
906.3000;0.6024;-5.5327;
906.6000;0.5975;-5.5405;
906.9000;0.5983;-5.5379;
907.2000;0.5975;-5.5483;
907.5000;0.6015;-5.5353;
907.8000;0.5991;-5.5379;
908.1000;0.5983;-5.5405;
908.4000;0.5983;-5.5379;
908.7000;0.5958;-5.5431;
909.0000;0.6007;-5.5301;
909.3000;0.5967;-5.5353;
909.6000;0.5967;-5.5301;
909.9000;0.5967;-5.5301;
910.2000;0.5902;-5.5509;
910.5000;0.5950;-5.5457;
910.8000;0.5975;-5.5431;
911.1000;0.5934;-5.5457;
911.4000;0.5958;-5.5379;
911.7000;0.5983;-5.5353;
912.0000;0.5967;-5.5405;
912.3000;0.5975;-5.5379;
912.6000;0.5975;-5.5301;
912.9000;0.5950;-5.5275;
913.2000;0.5967;-5.5301;
913.5000;0.5983;-5.5198;
913.8000;0.5975;-5.5198;
914.1000;0.6032;-5.5042;
914.4000;0.5975;-5.5094;
914.7000;0.5958;-5.5224;
915.0000;0.5958;-5.5250;
915.3000;0.5983;-5.5224;
915.6000;0.5967;-5.5224;
915.9000;0.5967;-5.5250;
916.2000;0.5967;-5.5301;
916.5000;0.5967;-5.5301;
916.8000;0.5942;-5.5379;
917.1000;0.5967;-5.5301;
917.4000;0.5975;-5.5327;
917.7000;0.5975;-5.5353;
918.0000;0.5958;-5.5327;
918.3000;0.5967;-5.5301;
918.6000;0.5950;-5.5301;
918.9000;0.5967;-5.5250;
919.2000;0.5958;-5.5275;
919.5000;0.5942;-5.5353;
919.8000;0.5975;-5.5353;
920.1000;0.5942;-5.5457;
920.4000;0.5975;-5.5431;
920.7000;0.5967;-5.5509;
921.0000;0.5967;-5.5560;
921.3000;0.5950;-5.5535;
921.6000;0.5950;-5.5509;
921.9000;0.5991;-5.5431;
922.2000;0.5983;-5.5457;
922.5000;0.5967;-5.5405;
922.8000;0.5967;-5.5353;
923.1000;0.5958;-5.5379;
923.4000;0.5967;-5.5353;
923.7000;0.5975;-5.5327;
924.0000;0.5967;-5.5353;
924.3000;0.5934;-5.5353;
924.6000;0.5967;-5.5275;
924.9000;0.5975;-5.5250;
925.2000;0.5958;-5.5094;
925.5000;0.5942;-5.5146;
925.8000;0.5926;-5.5146;
926.1000;0.5950;-5.5224;
926.4000;0.5910;-5.5327;
926.7000;0.5934;-5.5275;
927.0000;0.5942;-5.5275;
927.3000;0.5942;-5.5327;
927.6000;0.5999;-5.5172;
927.9000;0.5958;-5.5275;
928.2000;0.5942;-5.5301;
928.5000;0.5983;-5.5172;
928.8000;0.5950;-5.5198;
929.1000;0.5967;-5.5224;
929.4000;0.5942;-5.5250;
929.7000;0.5950;-5.5275;
930.0000;0.5934;-5.5275;
930.3000;0.5893;-5.5327;
930.6000;0.5950;-5.5224;
930.9000;0.5926;-5.5327;
931.2000;0.5926;-5.5379;
931.5000;0.5926;-5.5431;
931.8000;0.5950;-5.5353;
932.1000;0.5942;-5.5379;
932.4000;0.5950;-5.5379;
932.7000;0.5950;-5.5353;
933.0000;0.5934;-5.5379;
933.3000;0.5950;-5.5353;
933.6000;0.5958;-5.5405;
933.9000;0.5958;-5.5457;
934.2000;0.5934;-5.5327;
934.5000;0.5926;-5.5301;
934.8000;0.5926;-5.5275;
935.1000;0.5942;-5.5327;
935.4000;0.5942;-5.5353;
935.7000;0.5934;-5.5301;
936.0000;0.5934;-5.5250;
936.3000;0.5934;-5.5301;
936.6000;0.5942;-5.5146;
936.9000;0.5950;-5.5094;
937.2000;0.5934;-5.5120;
937.5000;0.5942;-5.5172;
937.8000;0.5983;-5.5016;
938.1000;0.5926;-5.5250;
938.4000;0.5934;-5.5146;
938.7000;0.5934;-5.5198;
939.0000;0.5958;-5.5120;
939.3000;0.5958;-5.5146;
939.6000;0.5934;-5.5224;
939.9000;0.5934;-5.5172;
940.2000;0.5950;-5.5172;
940.5000;0.5950;-5.5224;
940.8000;0.5942;-5.5146;
941.1000;0.5942;-5.5146;
941.4000;0.5934;-5.5146;
941.7000;0.5950;-5.5016;
942.0000;0.5934;-5.5120;
942.3000;0.5893;-5.5172;
942.6000;0.5942;-5.5068;
942.9000;0.5983;-5.5016;
943.2000;0.5983;-5.5016;
943.5000;0.5950;-5.5094;
943.8000;0.5950;-5.5068;
944.1000;0.5942;-5.5094;
944.4000;0.5975;-5.4991;
944.7000;0.5934;-5.5198;
945.0000;0.5926;-5.5327;
945.3000;0.5999;-5.5172;
945.6000;0.5991;-5.5172;
945.9000;0.5942;-5.5327;
946.2000;0.5950;-5.5250;
946.5000;0.5934;-5.5327;
946.8000;0.5967;-5.5275;
947.1000;0.5934;-5.5353;
947.4000;0.5934;-5.5379;
947.7000;0.5942;-5.5301;
948.0000;0.5942;-5.5146;
948.3000;0.5934;-5.5120;
948.6000;0.5934;-5.5120;
948.9000;0.5942;-5.5120;
949.2000;0.5918;-5.5172;
949.5000;0.5885;-5.5301;
949.8000;0.5934;-5.5120;
950.1000;0.5918;-5.5146;
950.4000;0.5942;-5.5042;
950.7000;0.5926;-5.5094;
951.0000;0.5918;-5.5120;
951.3000;0.5918;-5.5068;
951.6000;0.5926;-5.5120;
951.9000;0.5934;-5.5146;
952.2000;0.5918;-5.5198;
952.5000;0.5918;-5.5094;
952.8000;0.5910;-5.5094;
953.1000;0.5934;-5.5016;
953.4000;0.5918;-5.5094;
953.7000;0.5910;-5.5120;
954.0000;0.5918;-5.5094;
954.3000;0.5967;-5.5068;
954.6000;0.5918;-5.5120;
954.9000;0.5910;-5.5172;
955.2000;0.5918;-5.5146;
955.5000;0.5910;-5.5250;
955.8000;0.5942;-5.5224;
956.1000;0.5934;-5.5275;
956.4000;0.5942;-5.5224;
956.7000;0.5926;-5.5275;
957.0000;0.5918;-5.5301;
957.3000;0.5934;-5.5198;
957.6000;0.5910;-5.5301;
957.9000;0.5926;-5.5224;
958.2000;0.5926;-5.5198;
958.5000;0.5926;-5.5120;
958.8000;0.5910;-5.5120;
959.1000;0.5902;-5.5146;
959.4000;0.5958;-5.5042;
959.7000;0.5991;-5.4939;
960.0000;0.5918;-5.5094;
960.3000;0.5934;-5.5224;
960.6000;0.5910;-5.5224;
960.9000;0.5934;-5.5224;
961.2000;0.5926;-5.5301;
961.5000;0.5926;-5.5301;
961.8000;0.5885;-5.5327;
962.1000;0.5926;-5.5224;
962.4000;0.5910;-5.5198;
962.7000;0.5918;-5.5224;
963.0000;0.5918;-5.5198;
963.3000;0.5926;-5.5198;
963.6000;0.5918;-5.5146;
963.9000;0.5893;-5.5172;
964.2000;0.5975;-5.5016;
964.5000;0.5934;-5.5094;
964.8000;0.5910;-5.5120;
965.1000;0.5918;-5.5172;
965.4000;0.5950;-5.5042;
965.7000;0.5918;-5.5094;
966.0000;0.5926;-5.5224;
966.3000;0.5950;-5.5172;
966.6000;0.5918;-5.5275;
966.9000;0.5926;-5.5275;
967.2000;0.5918;-5.5301;
967.5000;0.5902;-5.5301;
967.8000;0.5877;-5.5301;
968.1000;0.5910;-5.5172;
968.4000;0.5902;-5.5198;
968.7000;0.5910;-5.5250;
969.0000;0.5836;-5.5431;
969.3000;0.5893;-5.5198;
969.6000;0.5934;-5.5146;
969.9000;0.5926;-5.5146;
970.2000;0.5893;-5.5224;
970.5000;0.5918;-5.5198;
970.8000;0.5926;-5.5198;
971.1000;0.5926;-5.5172;
971.4000;0.5910;-5.5146;
971.7000;0.5926;-5.5042;
972.0000;0.5926;-5.5094;
972.3000;0.5845;-5.5301;
972.6000;0.5918;-5.5094;
972.9000;0.5902;-5.5120;
973.2000;0.5885;-5.5146;
973.5000;0.5902;-5.5172;
973.8000;0.5926;-5.5198;
974.1000;0.5918;-5.5146;
974.4000;0.5902;-5.5120;
974.7000;0.5877;-5.5172;
975.0000;0.5902;-5.5094;
975.3000;0.5918;-5.5120;
975.6000;0.5926;-5.5146;
975.9000;0.5910;-5.5198;
976.2000;0.5910;-5.5120;
976.5000;0.5893;-5.5172;
976.8000;0.5910;-5.5146;
977.1000;0.5893;-5.5146;
977.4000;0.5910;-5.5120;
977.7000;0.5910;-5.5068;
978.0000;0.5861;-5.5146;
978.3000;0.5877;-5.5120;
978.6000;0.5885;-5.5172;
978.9000;0.5934;-5.5094;
979.2000;0.5910;-5.5146;
979.5000;0.5885;-5.5094;
979.8000;0.5877;-5.5094;
980.1000;0.5902;-5.5094;
980.4000;0.5910;-5.5094;
980.7000;0.5918;-5.5016;
981.0000;0.5918;-5.4991;
981.3000;0.5893;-5.5146;
981.6000;0.5902;-5.5120;
981.9000;0.5910;-5.5094;
982.2000;0.5934;-5.5146;
982.5000;0.5918;-5.5120;
982.8000;0.5861;-5.5275;
983.1000;0.5893;-5.5198;
983.4000;0.5885;-5.5275;
983.7000;0.5926;-5.5172;
984.0000;0.5902;-5.5198;
984.3000;0.5885;-5.5198;
984.6000;0.5902;-5.5172;
984.9000;0.5902;-5.5198;
985.2000;0.5918;-5.5094;
985.5000;0.5902;-5.5120;
985.8000;0.5853;-5.5275;
986.1000;0.5902;-5.5094;
986.4000;0.5910;-5.5094;
986.7000;0.5902;-5.5068;
987.0000;0.5902;-5.5042;
987.3000;0.5902;-5.5042;
987.6000;0.5910;-5.4939;
987.9000;0.5910;-5.4939;
988.2000;0.5893;-5.5016;
988.5000;0.5885;-5.5042;
988.8000;0.5910;-5.5068;
989.1000;0.5902;-5.5120;
989.4000;0.5902;-5.5146;
989.7000;0.5893;-5.5172;
990.0000;0.5902;-5.5094;
990.3000;0.5910;-5.5042;
990.6000;0.5902;-5.4991;
990.9000;0.5893;-5.5068;
991.2000;0.5861;-5.5120;
991.5000;0.5902;-5.5094;
991.8000;0.5893;-5.5094;
992.1000;0.5893;-5.5120;
992.4000;0.5877;-5.5146;
992.7000;0.5877;-5.5198;
993.0000;0.5885;-5.5146;
993.3000;0.5877;-5.5275;
993.6000;0.5885;-5.5224;
993.9000;0.5902;-5.5224;
994.2000;0.5885;-5.5120;
994.5000;0.5893;-5.5146;
994.8000;0.5869;-5.5250;
995.1000;0.5893;-5.5198;
995.4000;0.5893;-5.5198;
995.7000;0.5934;-5.5120;
996.0000;0.5893;-5.5120;
996.3000;0.5902;-5.5120;
996.6000;0.5893;-5.5198;
996.9000;0.5877;-5.5275;
997.2000;0.5869;-5.5224;
997.5000;0.5918;-5.5146;
997.8000;0.5893;-5.5146;
998.1000;0.5893;-5.5198;
998.4000;0.5885;-5.5224;
998.7000;0.5820;-5.5379;
999.0000;0.5877;-5.5172;
999.3000;0.5877;-5.5301;
999.6000;0.5861;-5.5353;
999.9000;0.5885;-5.5250;
1000.2000;0.5885;-5.5224;
1000.5000;0.5926;-5.5172;
1000.8000;0.5893;-5.5224;
1001.1000;0.5910;-5.5172;
1001.4000;0.5885;-5.5198;
1001.7000;0.5934;-5.5042;
1002.0000;0.5918;-5.5094;
1002.3000;0.5893;-5.5120;
1002.6000;0.5893;-5.5172;
1002.9000;0.5902;-5.5224;
1003.2000;0.5877;-5.5301;
1003.5000;0.5885;-5.5301;
1003.8000;0.5869;-5.5275;
1004.1000;0.5893;-5.5198;
1004.4000;0.5877;-5.5172;
1004.7000;0.5861;-5.5198;
1005.0000;0.5861;-5.5146;
1005.3000;0.5902;-5.5016;
1005.6000;0.5893;-5.5042;
1005.9000;0.5893;-5.5016;
1006.2000;0.5877;-5.5120;
1006.5000;0.5869;-5.5120;
1006.8000;0.5861;-5.5146;
1007.1000;0.5885;-5.5198;
1007.4000;0.5885;-5.5224;
1007.7000;0.5869;-5.5224;
1008.0000;0.5877;-5.5146;
1008.3000;0.5926;-5.5016;
1008.6000;0.5877;-5.5068;
1008.9000;0.5861;-5.5146;
1009.2000;0.5902;-5.5042;
1009.5000;0.5885;-5.5042;
1009.8000;0.5893;-5.4991;
1010.1000;0.5893;-5.4887;
1010.4000;0.5861;-5.4965;
1010.7000;0.5885;-5.4939;
1011.0000;0.5910;-5.4913;
1011.3000;0.5877;-5.4939;
1011.6000;0.5885;-5.4965;
1011.9000;0.5877;-5.4939;
1012.2000;0.5869;-5.4913;
1012.5000;0.5869;-5.4939;
1012.8000;0.5877;-5.4991;
1013.1000;0.5869;-5.4913;
1013.4000;0.5853;-5.4887;
1013.7000;0.5853;-5.4939;
1014.0000;0.5861;-5.4991;
1014.3000;0.5885;-5.4939;
1014.6000;0.5877;-5.5016;
1014.9000;0.5869;-5.5042;
1015.2000;0.5869;-5.5094;
1015.5000;0.5926;-5.4991;
1015.8000;0.5926;-5.5016;
1016.1000;0.5877;-5.5094;
1016.4000;0.5910;-5.5068;
1016.7000;0.5836;-5.5224;
1017.0000;0.5918;-5.5068;
1017.3000;0.5877;-5.5172;
1017.6000;0.5926;-5.5120;
1017.9000;0.5885;-5.5172;
1018.2000;0.5869;-5.5198;
1018.5000;0.5877;-5.5224;
1018.8000;0.5869;-5.5198;
1019.1000;0.5869;-5.5275;
1019.4000;0.5869;-5.5379;
1019.7000;0.5853;-5.5405;
1020.0000;0.5877;-5.5405;
1020.3000;0.5885;-5.5457;
1020.6000;0.5869;-5.5405;
1020.9000;0.5820;-5.5483;
1021.2000;0.5893;-5.5327;
1021.5000;0.5926;-5.5146;
1021.8000;0.5779;-5.5405;
1022.1000;0.5877;-5.5224;
1022.4000;0.5853;-5.5275;
1022.7000;0.5845;-5.5250;
1023.0000;0.5836;-5.5353;
1023.3000;0.5788;-5.5431;
1023.6000;0.5885;-5.5068;
1023.9000;0.5861;-5.5120;
1024.2000;0.5861;-5.5224;
1024.5000;0.5869;-5.5172;
1024.8000;0.5902;-5.5016;
1025.1000;0.5902;-5.5016;
1025.4000;0.5861;-5.5094;
1025.7000;0.5861;-5.5120;
1026.0000;0.5869;-5.5042;
1026.3000;0.5869;-5.5094;
1026.6000;0.5877;-5.5172;
1026.9000;0.5885;-5.5120;
1027.2000;0.5893;-5.5042;
1027.5000;0.5861;-5.5068;
1027.8000;0.5869;-5.5146;
1028.1000;0.5853;-5.5120;
1028.4000;0.5861;-5.5068;
1028.7000;0.5845;-5.5120;
1029.0000;0.5845;-5.5094;
1029.3000;0.5845;-5.5068;
1029.6000;0.5869;-5.5042;
1029.9000;0.5853;-5.5094;
1030.2000;0.5853;-5.4991;
1030.5000;0.5861;-5.4991;
1030.8000;0.5877;-5.4887;
1031.1000;0.5877;-5.4939;
1031.4000;0.5877;-5.4939;
1031.7000;0.5861;-5.4965;
1032.0000;0.5869;-5.4965;
1032.3000;0.5877;-5.4939;
1032.6000;0.5869;-5.4991;
1032.9000;0.5885;-5.5042;
1033.2000;0.5877;-5.5042;
1033.5000;0.5869;-5.5172;
1033.8000;0.5869;-5.5172;
1034.1000;0.5869;-5.5094;
1034.4000;0.5869;-5.5094;
1034.7000;0.5885;-5.5094;
1035.0000;0.5861;-5.5094;
1035.3000;0.5902;-5.5042;
1035.6000;0.5861;-5.5172;
1035.9000;0.5861;-5.5172;
1036.2000;0.5869;-5.5224;
1036.5000;0.5845;-5.5327;
1036.8000;0.5853;-5.5327;
1037.1000;0.5902;-5.5146;
1037.4000;0.5877;-5.5198;
1037.7000;0.5869;-5.5146;
1038.0000;0.5877;-5.5120;
1038.3000;0.5836;-5.5172;
1038.6000;0.5755;-5.5405;
1038.9000;0.5861;-5.5146;
1039.2000;0.5861;-5.5120;
1039.5000;0.5861;-5.5198;
1039.8000;0.5861;-5.5146;
1040.1000;0.5869;-5.5120;
1040.4000;0.5869;-5.5146;
1040.7000;0.5861;-5.5094;
1041.0000;0.5853;-5.5172;
1041.3000;0.5845;-5.5120;
1041.6000;0.5861;-5.4991;
1041.9000;0.5853;-5.5016;
1042.2000;0.5877;-5.4965;
1042.5000;0.5877;-5.4913;
1042.8000;0.5853;-5.4965;
1043.1000;0.5877;-5.4887;
1043.4000;0.5853;-5.4965;
1043.7000;0.5861;-5.4913;
1044.0000;0.5820;-5.5042;
1044.3000;0.5853;-5.5016;
1044.6000;0.5869;-5.5042;
1044.9000;0.5828;-5.5172;
1045.2000;0.5853;-5.5120;
1045.5000;0.5853;-5.5094;
1045.8000;0.5910;-5.4939;
1046.1000;0.5853;-5.5016;
1046.4000;0.5853;-5.5094;
1046.7000;0.5812;-5.5146;
1047.0000;0.5836;-5.5198;
1047.3000;0.5853;-5.5172;
1047.6000;0.5853;-5.5146;
1047.9000;0.5885;-5.5146;
1048.2000;0.5853;-5.5146;
1048.5000;0.5828;-5.5198;
1048.8000;0.5845;-5.5094;
1049.1000;0.5853;-5.5120;
1049.4000;0.5869;-5.5068;
1049.7000;0.5861;-5.5042;
1050.0000;0.5869;-5.4965;
1050.3000;0.5861;-5.5016;
1050.6000;0.5853;-5.5042;
1050.9000;0.5869;-5.5042;
1051.2000;0.5861;-5.5094;
1051.5000;0.5845;-5.5042;
1051.8000;0.5861;-5.4965;
1052.1000;0.5845;-5.4939;
1052.4000;0.5869;-5.4913;
1052.7000;0.5861;-5.5016;
1053.0000;0.5861;-5.4991;
1053.3000;0.5861;-5.5016;
1053.6000;0.5861;-5.4965;
1053.9000;0.5853;-5.4913;
1054.2000;0.5869;-5.4835;
1054.5000;0.5877;-5.4887;
1054.8000;0.5861;-5.4965;
1055.1000;0.5853;-5.4965;
1055.4000;0.5869;-5.4887;
1055.7000;0.5861;-5.4887;
1056.0000;0.5861;-5.4939;
1056.3000;0.5885;-5.4887;
1056.6000;0.5869;-5.4965;
1056.9000;0.5845;-5.5068;
1057.2000;0.5861;-5.5146;
1057.5000;0.5861;-5.5198;
1057.8000;0.5861;-5.5094;
1058.1000;0.5869;-5.5042;
1058.4000;0.5853;-5.5016;
1058.7000;0.5853;-5.4991;
1059.0000;0.5869;-5.4965;
1059.3000;0.5836;-5.5042;
1059.6000;0.5804;-5.5016;
1059.9000;0.5845;-5.4913;
1060.2000;0.5836;-5.4965;
1060.5000;0.5869;-5.4991;
1060.8000;0.5877;-5.4991;
1061.1000;0.5828;-5.5094;
1061.4000;0.5885;-5.4939;
1061.7000;0.5845;-5.4965;
1062.0000;0.5877;-5.4861;
1062.3000;0.5934;-5.4732;
1062.6000;0.5845;-5.4913;
1062.9000;0.5869;-5.4965;
1063.2000;0.5877;-5.5016;
1063.5000;0.5853;-5.5172;
1063.8000;0.5845;-5.5094;
1064.1000;0.5853;-5.5016;
1064.4000;0.5869;-5.4965;
1064.7000;0.5861;-5.5016;
1065.0000;0.5845;-5.4965;
1065.3000;0.5869;-5.4835;
1065.6000;0.5861;-5.4835;
1065.9000;0.5869;-5.4783;
1066.2000;0.5845;-5.4861;
1066.5000;0.5861;-5.4757;
1066.8000;0.5853;-5.4757;
1067.1000;0.5853;-5.4783;
1067.4000;0.5861;-5.4913;
1067.7000;0.5853;-5.4991;
1068.0000;0.5853;-5.5042;
1068.3000;0.5845;-5.5068;
1068.6000;0.5836;-5.5068;
1068.9000;0.5828;-5.5120;
1069.2000;0.5820;-5.5198;
1069.5000;0.5845;-5.5094;
1069.8000;0.5836;-5.5094;
1070.1000;0.5836;-5.5094;
1070.4000;0.5828;-5.5198;
1070.7000;0.5836;-5.5120;
1071.0000;0.5828;-5.5172;
1071.3000;0.5836;-5.5094;
1071.6000;0.5836;-5.5120;
1071.9000;0.5836;-5.5146;
1072.2000;0.5836;-5.5172;
1072.5000;0.5820;-5.5250;
1072.8000;0.5845;-5.5094;
1073.1000;0.5869;-5.5016;
1073.4000;0.5853;-5.5172;
1073.7000;0.5836;-5.5275;
1074.0000;0.5820;-5.5275;
1074.3000;0.5861;-5.5146;
1074.6000;0.5861;-5.5224;
1074.9000;0.5845;-5.5172;
1075.2000;0.5910;-5.4991;
1075.5000;0.5845;-5.5094;
1075.8000;0.5828;-5.5120;
1076.1000;0.5845;-5.5094;
1076.4000;0.5845;-5.5068;
1076.7000;0.5836;-5.5198;
1077.0000;0.5853;-5.5042;
1077.3000;0.5853;-5.4991;
1077.6000;0.5836;-5.4939;
1077.9000;0.5861;-5.4965;
1078.2000;0.5853;-5.4965;
1078.5000;0.5861;-5.4939;
1078.8000;0.5845;-5.4939;
1079.1000;0.5853;-5.4861;
1079.4000;0.5845;-5.4991;
1079.7000;0.5877;-5.4965;
1080.0000;0.5828;-5.5042;
1080.3000;0.5853;-5.5068;
1080.6000;0.5836;-5.5146;
1080.9000;0.5845;-5.5094;
1081.2000;0.5820;-5.5172;
1081.5000;0.5836;-5.5172;
1081.8000;0.5812;-5.5198;
1082.1000;0.5845;-5.5198;
1082.4000;0.5845;-5.5146;
1082.7000;0.5869;-5.5068;
1083.0000;0.5820;-5.5146;
1083.3000;0.5893;-5.5042;
1083.6000;0.5853;-5.5094;
1083.9000;0.5804;-5.5172;
1084.2000;0.5845;-5.5068;
1084.5000;0.5853;-5.5120;
1084.8000;0.5820;-5.5172;
1085.1000;0.5853;-5.5068;
1085.4000;0.5845;-5.5068;
1085.7000;0.5828;-5.5016;
1086.0000;0.5771;-5.5172;
1086.3000;0.5853;-5.4939;
1086.6000;0.5836;-5.4965;
1086.9000;0.5836;-5.5016;
1087.2000;0.5836;-5.5016;
1087.5000;0.5861;-5.5016;
1087.8000;0.5828;-5.5120;
1088.1000;0.5845;-5.5172;
1088.4000;0.5820;-5.5172;
1088.7000;0.5853;-5.5120;
1089.0000;0.5836;-5.5224;
1089.3000;0.5845;-5.5250;
1089.6000;0.5861;-5.5146;
1089.9000;0.5845;-5.5172;
1090.2000;0.5836;-5.5094;
1090.5000;0.5820;-5.4991;
1090.8000;0.5820;-5.4991;
1091.1000;0.5845;-5.5042;
1091.4000;0.5828;-5.5068;
1091.7000;0.5812;-5.5094;
1092.0000;0.5828;-5.5068;
1092.3000;0.5828;-5.5068;
1092.6000;0.5869;-5.4939;
1092.9000;0.5853;-5.4991;
1093.2000;0.5845;-5.5042;
1093.5000;0.5845;-5.5016;
1093.8000;0.5845;-5.5016;
1094.1000;0.5853;-5.4939;
1094.4000;0.5812;-5.5042;
1094.7000;0.5820;-5.5016;
1095.0000;0.5836;-5.4991;
1095.3000;0.5828;-5.4965;
1095.6000;0.5828;-5.4939;
1095.9000;0.5836;-5.4939;
1096.2000;0.5836;-5.4965;
1096.5000;0.5804;-5.5042;
1096.8000;0.5861;-5.4939;
1097.1000;0.5820;-5.4991;
1097.4000;0.5836;-5.4991;
1097.7000;0.5812;-5.5042;
1098.0000;0.5828;-5.4991;
1098.3000;0.5845;-5.4939;
1098.6000;0.5828;-5.4939;
1098.9000;0.5869;-5.4835;
1099.2000;0.5820;-5.4965;
1099.5000;0.5812;-5.4887;
1099.8000;0.5812;-5.4835;
1100.1000;0.5820;-5.4835;
1100.4000;0.5820;-5.4861;
1100.7000;0.5828;-5.4913;
1101.0000;0.5820;-5.4965;
1101.3000;0.5902;-5.4732;
1101.6000;0.5828;-5.4965;
1101.9000;0.5861;-5.4809;
1102.2000;0.5836;-5.4861;
1102.5000;0.5836;-5.4913;
1102.8000;0.5836;-5.4887;
1103.1000;0.5828;-5.4913;
1103.4000;0.5828;-5.4887;
1103.7000;0.5828;-5.4913;
1104.0000;0.5796;-5.4965;
1104.3000;0.5869;-5.4783;
1104.6000;0.5820;-5.4939;
1104.9000;0.5836;-5.4913;
1105.2000;0.5836;-5.4939;
1105.5000;0.5836;-5.4913;
1105.8000;0.5836;-5.4887;
1106.1000;0.5828;-5.4965;
1106.4000;0.5836;-5.4939;
1106.7000;0.5828;-5.4913;
1107.0000;0.5820;-5.4965;
1107.3000;0.5836;-5.4913;
1107.6000;0.5812;-5.4939;
1107.9000;0.5828;-5.4887;
1108.2000;0.5836;-5.4835;
1108.5000;0.5820;-5.4887;
1108.8000;0.5828;-5.4991;
1109.1000;0.5836;-5.4965;
1109.4000;0.5820;-5.4939;
1109.7000;0.5836;-5.4991;
1110.0000;0.5845;-5.4887;
1110.3000;0.5836;-5.4887;
1110.6000;0.5836;-5.4887;
1110.9000;0.5845;-5.4835;
1111.2000;0.5820;-5.4913;
1111.5000;0.5820;-5.4861;
1111.8000;0.5828;-5.4861;
1112.1000;0.5861;-5.4835;
1112.4000;0.5755;-5.5016;
1112.7000;0.5820;-5.4809;
1113.0000;0.5828;-5.4783;
1113.3000;0.5820;-5.4887;
1113.6000;0.5828;-5.4939;
1113.9000;0.5779;-5.5042;
1114.2000;0.5845;-5.4913;
1114.5000;0.5845;-5.4965;
1114.8000;0.5812;-5.5094;
1115.1000;0.5788;-5.5094;
1115.4000;0.5796;-5.5120;
1115.7000;0.5877;-5.4965;
1116.0000;0.5788;-5.5146;
1116.3000;0.5820;-5.5146;
1116.6000;0.5836;-5.5042;
1116.9000;0.5877;-5.4965;
1117.2000;0.5828;-5.5042;
1117.5000;0.5877;-5.4783;
1117.8000;0.5812;-5.4887;
1118.1000;0.5845;-5.4913;
1118.4000;0.5845;-5.5016;
1118.7000;0.5861;-5.4913;
1119.0000;0.5845;-5.4991;
1119.3000;0.5828;-5.5016;
1119.6000;0.5820;-5.5042;
1119.9000;0.5755;-5.5198;
1120.2000;0.5820;-5.5120;
1120.5000;0.5820;-5.5120;
1120.8000;0.5820;-5.5120;
1121.1000;0.5828;-5.5146;
1121.4000;0.5820;-5.5042;
1121.7000;0.5820;-5.4991;
1122.0000;0.5836;-5.5016;
1122.3000;0.5828;-5.4965;
1122.6000;0.5812;-5.5016;
1122.9000;0.5820;-5.5016;
1123.2000;0.5779;-5.5094;
1123.5000;0.5828;-5.4913;
1123.8000;0.5836;-5.4809;
1124.1000;0.5836;-5.4835;
1124.4000;0.5836;-5.4939;
1124.7000;0.5820;-5.4965;
1125.0000;0.5836;-5.5042;
1125.3000;0.5828;-5.5068;
1125.6000;0.5845;-5.5042;
1125.9000;0.5828;-5.5120;
1126.2000;0.5820;-5.5120;
1126.5000;0.5820;-5.5120;
1126.8000;0.5820;-5.5120;
1127.1000;0.5820;-5.5068;
1127.4000;0.5836;-5.5068;
1127.7000;0.5828;-5.5120;
1128.0000;0.5820;-5.5172;
1128.3000;0.5812;-5.5094;
1128.6000;0.5812;-5.5120;
1128.9000;0.5804;-5.5250;
1129.2000;0.5828;-5.5224;
1129.5000;0.5771;-5.5353;
1129.8000;0.5836;-5.5120;
1130.1000;0.5828;-5.5172;
1130.4000;0.5820;-5.5146;
1130.7000;0.5804;-5.5094;
1131.0000;0.5828;-5.5016;
1131.3000;0.5812;-5.4965;
1131.6000;0.5731;-5.5172;
1131.9000;0.5804;-5.5016;
1132.2000;0.5853;-5.4939;
1132.5000;0.5812;-5.5094;
1132.8000;0.5796;-5.5094;
1133.1000;0.5820;-5.5042;
1133.4000;0.5820;-5.4965;
1133.7000;0.5804;-5.4965;
1134.0000;0.5828;-5.4965;
1134.3000;0.5804;-5.5016;
1134.6000;0.5820;-5.5094;
1134.9000;0.5804;-5.5172;
1135.2000;0.5845;-5.5016;
1135.5000;0.5820;-5.4913;
1135.8000;0.5836;-5.4913;
1136.1000;0.5820;-5.4887;
1136.4000;0.5836;-5.4835;
1136.7000;0.5812;-5.4939;
1137.0000;0.5828;-5.4887;
1137.3000;0.5804;-5.4913;
1137.6000;0.5861;-5.4809;
1137.9000;0.5739;-5.5146;
1138.2000;0.5820;-5.5016;
1138.5000;0.5836;-5.4965;
1138.8000;0.5820;-5.4887;
1139.1000;0.5812;-5.4939;
1139.4000;0.5796;-5.4887;
1139.7000;0.5812;-5.4861;
1140.0000;0.5836;-5.4913;
1140.3000;0.5812;-5.5042;
1140.6000;0.5812;-5.5094;
1140.9000;0.5820;-5.5094;
1141.2000;0.5812;-5.5094;
1141.5000;0.5869;-5.4887;
1141.8000;0.5812;-5.5042;
1142.1000;0.5812;-5.5068;
1142.4000;0.5812;-5.5042;
1142.7000;0.5804;-5.5042;
1143.0000;0.5804;-5.5094;
1143.3000;0.5820;-5.5016;
1143.6000;0.5820;-5.4965;
1143.9000;0.5820;-5.4861;
1144.2000;0.5820;-5.4887;
1144.5000;0.5820;-5.4913;
1144.8000;0.5828;-5.4887;
1145.1000;0.5820;-5.4887;
1145.4000;0.5820;-5.4939;
1145.7000;0.5828;-5.4965;
1146.0000;0.5828;-5.4965;
1146.3000;0.5828;-5.5042;
1146.6000;0.5828;-5.5042;
1146.9000;0.5820;-5.5068;
1147.2000;0.5836;-5.5094;
1147.5000;0.5828;-5.5068;
1147.8000;0.5812;-5.5094;
1148.1000;0.5828;-5.5042;
1148.4000;0.5820;-5.4965;
1148.7000;0.5820;-5.4913;
1149.0000;0.5820;-5.4835;
1149.3000;0.5820;-5.4887;
1149.6000;0.5804;-5.4887;
1149.9000;0.5804;-5.4887;
1150.2000;0.5812;-5.4887;
1150.5000;0.5828;-5.4809;
1150.8000;0.5820;-5.4913;
1151.1000;0.5804;-5.4991;
1151.4000;0.5820;-5.4939;
1151.7000;0.5804;-5.5042;
1152.0000;0.5796;-5.5146;
1152.3000;0.5820;-5.4991;
1152.6000;0.5812;-5.5068;
1152.9000;0.5796;-5.5068;
1153.2000;0.5845;-5.4965;
1153.5000;0.5820;-5.5042;
1153.8000;0.5812;-5.5068;
1154.1000;0.5804;-5.5120;
1154.4000;0.5820;-5.5120;
1154.7000;0.5804;-5.5146;
1155.0000;0.5828;-5.5042;
1155.3000;0.5779;-5.5120;
1155.6000;0.5804;-5.4965;
1155.9000;0.5812;-5.5016;
1156.2000;0.5755;-5.5146;
1156.5000;0.5804;-5.5068;
1156.8000;0.5804;-5.5042;
1157.1000;0.5812;-5.5016;
1157.4000;0.5820;-5.5068;
1157.7000;0.5820;-5.5120;
1158.0000;0.5812;-5.5094;
1158.3000;0.5804;-5.5120;
1158.6000;0.5804;-5.5042;
1158.9000;0.5820;-5.5042;
1159.2000;0.5836;-5.4939;
1159.5000;0.5820;-5.5016;
1159.8000;0.5796;-5.5016;
1160.1000;0.5812;-5.4991;
1160.4000;0.5812;-5.5042;
1160.7000;0.5796;-5.5120;
1161.0000;0.5820;-5.5094;
1161.3000;0.5820;-5.5094;
1161.6000;0.5820;-5.4991;
1161.9000;0.5812;-5.5042;
1162.2000;0.5812;-5.5094;
1162.5000;0.5779;-5.5146;
1162.8000;0.5820;-5.5042;
1163.1000;0.5812;-5.4965;
1163.4000;0.5820;-5.4913;
1163.7000;0.5804;-5.4965;
1164.0000;0.5812;-5.4913;
1164.3000;0.5820;-5.4887;
1164.6000;0.5804;-5.4913;
1164.9000;0.5804;-5.4887;
1165.2000;0.5836;-5.4861;
1165.5000;0.5820;-5.4939;
1165.8000;0.5804;-5.5042;
1166.1000;0.5804;-5.5068;
1166.4000;0.5804;-5.5042;
1166.7000;0.5804;-5.5016;
1167.0000;0.5828;-5.4965;
1167.3000;0.5812;-5.4965;
1167.6000;0.5828;-5.4861;
1167.9000;0.5836;-5.4861;
1168.2000;0.5812;-5.4991;
1168.5000;0.5771;-5.5094;
1168.8000;0.5796;-5.5042;
1169.1000;0.5804;-5.4965;
1169.4000;0.5796;-5.4991;
1169.7000;0.5812;-5.4887;
1170.0000;0.5788;-5.4965;
1170.3000;0.5812;-5.4887;
1170.6000;0.5804;-5.5042;
1170.9000;0.5820;-5.5016;
1171.2000;0.5804;-5.5016;
1171.5000;0.5804;-5.5068;
1171.8000;0.5779;-5.5042;
1172.1000;0.5812;-5.5016;
1172.4000;0.5820;-5.4991;
1172.7000;0.5771;-5.5068;
1173.0000;0.5804;-5.4939;
1173.3000;0.5796;-5.4887;
1173.6000;0.5796;-5.4835;
1173.9000;0.5796;-5.4861;
1174.2000;0.5812;-5.4887;
1174.5000;0.5804;-5.4887;
1174.8000;0.5788;-5.4939;
1175.1000;0.5788;-5.4887;
1175.4000;0.5763;-5.4939;
1175.7000;0.5820;-5.4887;
1176.0000;0.5836;-5.4835;
1176.3000;0.5812;-5.4861;
1176.6000;0.5804;-5.4939;
1176.9000;0.5828;-5.4835;
1177.2000;0.5820;-5.4887;
1177.5000;0.5779;-5.4939;
1177.8000;0.5763;-5.4965;
1178.1000;0.5812;-5.4965;
1178.4000;0.5755;-5.5120;
1178.7000;0.5796;-5.5094;
1179.0000;0.5747;-5.5250;
1179.3000;0.5796;-5.5094;
1179.6000;0.5812;-5.5068;
1179.9000;0.5845;-5.4939;
1180.2000;0.5771;-5.5172;
1180.5000;0.5747;-5.5275;
1180.8000;0.5812;-5.5068;
1181.1000;0.5812;-5.5068;
1181.4000;0.5804;-5.5146;
1181.7000;0.5812;-5.5120;
1182.0000;0.5812;-5.5224;
1182.3000;0.5804;-5.5301;
1182.6000;0.5804;-5.5250;
1182.9000;0.5804;-5.5275;
1183.2000;0.5836;-5.5198;
1183.5000;0.5812;-5.5172;
1183.8000;0.5804;-5.5146;
1184.1000;0.5796;-5.5120;
1184.4000;0.5796;-5.5198;
1184.7000;0.5812;-5.5172;
1185.0000;0.5796;-5.5146;
1185.3000;0.5812;-5.5042;
1185.6000;0.5812;-5.4965;
1185.9000;0.5804;-5.4965;
1186.2000;0.5788;-5.5042;
1186.5000;0.5828;-5.4991;
1186.8000;0.5820;-5.5016;
1187.1000;0.5836;-5.4965;
1187.4000;0.5820;-5.5016;
1187.7000;0.5788;-5.5042;
1188.0000;0.5788;-5.5016;
1188.3000;0.5812;-5.4991;
1188.6000;0.5804;-5.5068;
1188.9000;0.5796;-5.4965;
1189.2000;0.5755;-5.5042;
1189.5000;0.5796;-5.4887;
1189.8000;0.5796;-5.4809;
1190.1000;0.5804;-5.4809;
1190.4000;0.5804;-5.4835;
1190.7000;0.5804;-5.4835;
1191.0000;0.5853;-5.4732;
1191.3000;0.5796;-5.4887;
1191.6000;0.5804;-5.4965;
1191.9000;0.5812;-5.4913;
1192.2000;0.5820;-5.4965;
1192.5000;0.5804;-5.5016;
1192.8000;0.5804;-5.4913;
1193.1000;0.5788;-5.5016;
1193.4000;0.5812;-5.4991;
1193.7000;0.5820;-5.4939;
1194.0000;0.5812;-5.4939;
1194.3000;0.5731;-5.5094;
1194.6000;0.5796;-5.4991;
1194.9000;0.5836;-5.4835;
1195.2000;0.5804;-5.4887;
1195.5000;0.5796;-5.4835;
1195.8000;0.5812;-5.4913;
1196.1000;0.5788;-5.4991;
1196.4000;0.5804;-5.4913;
1196.7000;0.5812;-5.4861;
1197.0000;0.5796;-5.4809;
1197.3000;0.5820;-5.4835;
1197.6000;0.5804;-5.4835;
1197.9000;0.5788;-5.4809;
1198.2000;0.5804;-5.4783;
1198.5000;0.5796;-5.4835;
1198.8000;0.5796;-5.4913;
1199.1000;0.5796;-5.4913;
1199.4000;0.5836;-5.4835;
1199.7000;0.5796;-5.4939;
1200.0000;0.5804;-5.4965;
1200.3000;0.5796;-5.4939;
1200.6000;0.5788;-5.4913;
1200.9000;0.5796;-5.4861;
1201.2000;0.5796;-5.4809;
1201.5000;0.5820;-5.4783;
1201.8000;0.5812;-5.4835;
1202.1000;0.5804;-5.4887;
1202.4000;0.5804;-5.4809;
1202.7000;0.5820;-5.4757;
1203.0000;0.5796;-5.4913;
1203.3000;0.5788;-5.4939;
1203.6000;0.5820;-5.4965;
1203.9000;0.5804;-5.5042;
1204.2000;0.5796;-5.5016;
1204.5000;0.5796;-5.5068;
1204.8000;0.5804;-5.5016;
1205.1000;0.5796;-5.5068;
1205.4000;0.5804;-5.5016;
1205.7000;0.5796;-5.5068;
1206.0000;0.5796;-5.5042;
1206.3000;0.5804;-5.5016;
1206.6000;0.5796;-5.5068;
1206.9000;0.5804;-5.5042;
1207.2000;0.5796;-5.5068;
1207.5000;0.5828;-5.5016;
1207.8000;0.5739;-5.5198;
1208.1000;0.5796;-5.5016;
1208.4000;0.5796;-5.4965;
1208.7000;0.5812;-5.4991;
1209.0000;0.5804;-5.5042;
1209.3000;0.5796;-5.4965;
1209.6000;0.5788;-5.4991;
1209.9000;0.5796;-5.4965;
1210.2000;0.5820;-5.4991;
1210.5000;0.5804;-5.5068;
1210.8000;0.5788;-5.5016;
1211.1000;0.5779;-5.5120;
1211.4000;0.5812;-5.5068;
1211.7000;0.5779;-5.5250;
1212.0000;0.5804;-5.5172;
1212.3000;0.5796;-5.5094;
1212.6000;0.5788;-5.5172;
1212.9000;0.5788;-5.5120;
1213.2000;0.5836;-5.5042;
1213.5000;0.5796;-5.5068;
1213.8000;0.5861;-5.4887;
1214.1000;0.5828;-5.4939;
1214.4000;0.5788;-5.5094;
1214.7000;0.5836;-5.4965;
1215.0000;0.5877;-5.4835;
1215.3000;0.5763;-5.5224;
1215.6000;0.5796;-5.5146;
1215.9000;0.5804;-5.5146;
1216.2000;0.5771;-5.5146;
1216.5000;0.5804;-5.5042;
1216.8000;0.5788;-5.5042;
1217.1000;0.5771;-5.5068;
1217.4000;0.5731;-5.5198;
1217.7000;0.5796;-5.4991;
1218.0000;0.5804;-5.5120;
1218.3000;0.5796;-5.5094;
1218.6000;0.5779;-5.5120;
1218.9000;0.5804;-5.5042;
1219.2000;0.5828;-5.5016;
1219.5000;0.5804;-5.5042;
1219.8000;0.5796;-5.5068;
1220.1000;0.5796;-5.4965;
1220.4000;0.5812;-5.4991;
1220.7000;0.5788;-5.5016;
1221.0000;0.5771;-5.5094;
1221.3000;0.5788;-5.5016;
1221.6000;0.5836;-5.4913;
1221.9000;0.5812;-5.5042;
1222.2000;0.5812;-5.5042;
1222.5000;0.5812;-5.5016;
1222.8000;0.5788;-5.5042;
1223.1000;0.5836;-5.4861;
1223.4000;0.5763;-5.5042;
1223.7000;0.5739;-5.5068;
1224.0000;0.5796;-5.4991;
1224.3000;0.5796;-5.4991;
1224.6000;0.5763;-5.5094;
1224.9000;0.5796;-5.5094;
1225.2000;0.5788;-5.5094;
1225.5000;0.5755;-5.5094;
1225.8000;0.5796;-5.5016;
1226.1000;0.5796;-5.4991;
1226.4000;0.5796;-5.4939;
1226.7000;0.5845;-5.4732;
1227.0000;0.5804;-5.4913;
1227.3000;0.5788;-5.4991;
1227.6000;0.5779;-5.5016;
1227.9000;0.5788;-5.5068;
1228.2000;0.5796;-5.5016;
1228.5000;0.5788;-5.5094;
1228.8000;0.5788;-5.5016;
1229.1000;0.5820;-5.4939;
1229.4000;0.5804;-5.4887;
1229.7000;0.5836;-5.4783;
1230.0000;0.5804;-5.4861;
1230.3000;0.5739;-5.4939;
1230.6000;0.5804;-5.4809;
1230.9000;0.5779;-5.4861;
1231.2000;0.5763;-5.5016;
1231.5000;0.5788;-5.4965;
1231.8000;0.5812;-5.4913;
1232.1000;0.5804;-5.4887;
1232.4000;0.5796;-5.4965;
1232.7000;0.5779;-5.4991;
1233.0000;0.5771;-5.5016;
1233.3000;0.5804;-5.4965;
1233.6000;0.5788;-5.4939;
1233.9000;0.5779;-5.4939;
1234.2000;0.5796;-5.4887;
1234.5000;0.5845;-5.4732;
1234.8000;0.5779;-5.4991;
1235.1000;0.5771;-5.5068;
1235.4000;0.5779;-5.5120;
1235.7000;0.5788;-5.5120;
1236.0000;0.5788;-5.5146;
1236.3000;0.5779;-5.5146;
1236.6000;0.5779;-5.5068;
1236.9000;0.5796;-5.5042;
1237.2000;0.5779;-5.5094;
1237.5000;0.5788;-5.5094;
1237.8000;0.5788;-5.5172;
1238.1000;0.5796;-5.5198;
1238.4000;0.5788;-5.5250;
1238.7000;0.5796;-5.5275;
1239.0000;0.5853;-5.5120;
1239.3000;0.5755;-5.5301;
1239.6000;0.5788;-5.5198;
1239.9000;0.5779;-5.5224;
1240.2000;0.5771;-5.5250;
1240.5000;0.5763;-5.5172;
1240.8000;0.5804;-5.5094;
1241.1000;0.5788;-5.5120;
1241.4000;0.5788;-5.5146;
1241.7000;0.5812;-5.5094;
1242.0000;0.5796;-5.5120;
1242.3000;0.5796;-5.5042;
1242.6000;0.5804;-5.5042;
1242.9000;0.5788;-5.5042;
1243.2000;0.5788;-5.5042;
1243.5000;0.5804;-5.5016;
1243.8000;0.5796;-5.5120;
1244.1000;0.5788;-5.5016;
1244.4000;0.5812;-5.4991;
1244.7000;0.5779;-5.5042;
1245.0000;0.5796;-5.5120;
1245.3000;0.5796;-5.5172;
1245.6000;0.5804;-5.5146;
1245.9000;0.5779;-5.5172;
1246.2000;0.5788;-5.5068;
1246.5000;0.5779;-5.5068;
1246.8000;0.5779;-5.5042;
1247.1000;0.5796;-5.4913;
1247.4000;0.5796;-5.4913;
1247.7000;0.5796;-5.4887;
1248.0000;0.5804;-5.4913;
1248.3000;0.5755;-5.4991;
1248.6000;0.5804;-5.4835;
1248.9000;0.5779;-5.4939;
1249.2000;0.5755;-5.4965;
1249.5000;0.5804;-5.4913;
1249.8000;0.5804;-5.4939;
1250.1000;0.5796;-5.4991;
1250.4000;0.5853;-5.4861;
1250.7000;0.5779;-5.4991;
1251.0000;0.5796;-5.4965;
1251.3000;0.5796;-5.5016;
1251.6000;0.5763;-5.5094;
1251.9000;0.5812;-5.5016;
1252.2000;0.5796;-5.5068;
1252.5000;0.5771;-5.5146;
1252.8000;0.5771;-5.5094;
1253.1000;0.5788;-5.4991;
1253.4000;0.5796;-5.4887;
1253.7000;0.5812;-5.4757;
1254.0000;0.5796;-5.4861;
1254.3000;0.5812;-5.4861;
1254.6000;0.5812;-5.4809;
1254.9000;0.5796;-5.4887;
1255.2000;0.5804;-5.4913;
1255.5000;0.5763;-5.5016;
1255.8000;0.5763;-5.5016;
1256.1000;0.5796;-5.4913;
1256.4000;0.5788;-5.4939;
1256.7000;0.5771;-5.5016;
1257.0000;0.5771;-5.5068;
1257.3000;0.5779;-5.5094;
1257.6000;0.5869;-5.4887;
1257.9000;0.5779;-5.5016;
1258.2000;0.5779;-5.4991;
1258.5000;0.5779;-5.4965;
1258.8000;0.5812;-5.4965;
1259.1000;0.5779;-5.5016;
1259.4000;0.5796;-5.5016;
1259.7000;0.5796;-5.5016;
1260.0000;0.5812;-5.5068;
1260.3000;0.5804;-5.5042;
1260.6000;0.5771;-5.5068;
1260.9000;0.5796;-5.5094;
1261.2000;0.5836;-5.4939;
1261.5000;0.5779;-5.5042;
1261.8000;0.5779;-5.5042;
1262.1000;0.5861;-5.4835;
1262.4000;0.5771;-5.5068;
1262.7000;0.5796;-5.5224;
1263.0000;0.5788;-5.5275;
1263.3000;0.5788;-5.5198;
1263.6000;0.5828;-5.5016;
1263.9000;0.5796;-5.5120;
1264.2000;0.5796;-5.5068;
1264.5000;0.5796;-5.4991;
1264.8000;0.5812;-5.4965;
1265.1000;0.5812;-5.4939;
1265.4000;0.5788;-5.4913;
1265.7000;0.5796;-5.4939;
1266.0000;0.5796;-5.4861;
1266.3000;0.5804;-5.4809;
1266.6000;0.5771;-5.4913;
1266.9000;0.5804;-5.4887;
1267.2000;0.5771;-5.4939;
1267.5000;0.5771;-5.4965;
1267.8000;0.5739;-5.5094;
1268.1000;0.5771;-5.5068;
1268.4000;0.5763;-5.5016;
1268.7000;0.5788;-5.4965;
1269.0000;0.5779;-5.4913;
1269.3000;0.5731;-5.5016;
1269.6000;0.5779;-5.4861;
1269.9000;0.5779;-5.4783;
1270.2000;0.5804;-5.4809;
1270.5000;0.5771;-5.4887;
1270.8000;0.5771;-5.4887;
1271.1000;0.5779;-5.4887;
1271.4000;0.5788;-5.4783;
1271.7000;0.5779;-5.4809;
1272.0000;0.5779;-5.4913;
1272.3000;0.5771;-5.4939;
1272.6000;0.5804;-5.4913;
1272.9000;0.5869;-5.4732;
1273.2000;0.5788;-5.4913;
1273.5000;0.5788;-5.4887;
1273.8000;0.5779;-5.4861;
1274.1000;0.5796;-5.4809;
1274.4000;0.5771;-5.4913;
1274.7000;0.5771;-5.4887;
1275.0000;0.5788;-5.4861;
1275.3000;0.5788;-5.4809;
1275.6000;0.5804;-5.4809;
1275.9000;0.5779;-5.4939;
1276.2000;0.5779;-5.4913;
1276.5000;0.5771;-5.4913;
1276.8000;0.5779;-5.4965;
1277.1000;0.5771;-5.4991;
1277.4000;0.5779;-5.5016;
1277.7000;0.5779;-5.5016;
1278.0000;0.5779;-5.5016;
1278.3000;0.5779;-5.4991;
1278.6000;0.5788;-5.4965;
1278.9000;0.5804;-5.4965;
1279.2000;0.5796;-5.4939;
1279.5000;0.5796;-5.4965;
1279.8000;0.5788;-5.4965;
1280.1000;0.5877;-5.4783;
1280.4000;0.5796;-5.4861;
1280.7000;0.5747;-5.5016;
1281.0000;0.5796;-5.4887;
1281.3000;0.5788;-5.4991;
1281.6000;0.5771;-5.5016;
1281.9000;0.5779;-5.4965;
1282.2000;0.5763;-5.4939;
1282.5000;0.5747;-5.5016;
1282.8000;0.5804;-5.4861;
1283.1000;0.5812;-5.4809;
1283.4000;0.5796;-5.4965;
1283.7000;0.5771;-5.5016;
1284.0000;0.5788;-5.4991;
1284.3000;0.5796;-5.4991;
1284.6000;0.5788;-5.4939;
1284.9000;0.5779;-5.4939;
1285.2000;0.5747;-5.4991;
1285.5000;0.5820;-5.4835;
1285.8000;0.5788;-5.4965;
1286.1000;0.5812;-5.4861;
1286.4000;0.5804;-5.4861;
1286.7000;0.5788;-5.4887;
1287.0000;0.5771;-5.4835;
1287.3000;0.5747;-5.4913;
1287.6000;0.5788;-5.4861;
1287.9000;0.5779;-5.4913;
1288.2000;0.5788;-5.4913;
1288.5000;0.5820;-5.4887;
1288.8000;0.5796;-5.4887;
1289.1000;0.5771;-5.4965;
1289.4000;0.5796;-5.5016;
1289.7000;0.5779;-5.5016;
1290.0000;0.5779;-5.4991;
1290.3000;0.5771;-5.4913;
1290.6000;0.5788;-5.4887;
1290.9000;0.5779;-5.5016;
1291.2000;0.5747;-5.5198;
1291.5000;0.5779;-5.4991;
1291.8000;0.5779;-5.5016;
1292.1000;0.5779;-5.4965;
1292.4000;0.5796;-5.4965;
1292.7000;0.5755;-5.5068;
1293.0000;0.5763;-5.5016;
1293.3000;0.5788;-5.4965;
1293.6000;0.5796;-5.4965;
1293.9000;0.5788;-5.4887;
1294.2000;0.5771;-5.4861;
1294.5000;0.5788;-5.4861;
1294.8000;0.5771;-5.4965;
1295.1000;0.5779;-5.4939;
1295.4000;0.5722;-5.5094;
1295.7000;0.5788;-5.4939;
1296.0000;0.5788;-5.4913;
1296.3000;0.5788;-5.4965;
1296.6000;0.5779;-5.5068;
1296.9000;0.5796;-5.4991;
1297.2000;0.5788;-5.4913;
1297.5000;0.5771;-5.4913;
1297.8000;0.5771;-5.4809;
1298.1000;0.5788;-5.4809;
1298.4000;0.5779;-5.4809;
1298.7000;0.5788;-5.4783;
1299.0000;0.5763;-5.4835;
1299.3000;0.5763;-5.4887;
1299.6000;0.5771;-5.4939;
1299.9000;0.5796;-5.4835;
1300.2000;0.5763;-5.4965;
1300.5000;0.5779;-5.4887;
1300.8000;0.5788;-5.4809;
1301.1000;0.5779;-5.4732;
1301.4000;0.5788;-5.4835;
1301.7000;0.5771;-5.4913;
1302.0000;0.5739;-5.4965;
1302.3000;0.5763;-5.4887;
1302.6000;0.5755;-5.5042;
1302.9000;0.5747;-5.4939;
1303.2000;0.5779;-5.4887;
1303.5000;0.5755;-5.4939;
1303.8000;0.5779;-5.4809;
1304.1000;0.5804;-5.4757;
1304.4000;0.5755;-5.4809;
1304.7000;0.5820;-5.4602;
1305.0000;0.5763;-5.4757;
1305.3000;0.5747;-5.4706;
1305.6000;0.5779;-5.4628;
1305.9000;0.5788;-5.4628;
1306.2000;0.5796;-5.4602;
1306.5000;0.5771;-5.4706;
1306.8000;0.5779;-5.4706;
1307.1000;0.5820;-5.4680;
1307.4000;0.5779;-5.4757;
1307.7000;0.5779;-5.4809;
1308.0000;0.5779;-5.4783;
1308.3000;0.5771;-5.4783;
1308.6000;0.5771;-5.4783;
1308.9000;0.5788;-5.4809;
1309.2000;0.5804;-5.4706;
1309.5000;0.5739;-5.4835;
1309.8000;0.5788;-5.4757;
1310.1000;0.5763;-5.4835;
1310.4000;0.5755;-5.4835;
1310.7000;0.5779;-5.4809;
1311.0000;0.5788;-5.4835;
1311.3000;0.5779;-5.4809;
1311.6000;0.5779;-5.4783;
1311.9000;0.5779;-5.4757;
1312.2000;0.5771;-5.4809;
1312.5000;0.5771;-5.4809;
1312.8000;0.5779;-5.4732;
1313.1000;0.5779;-5.4757;
1313.4000;0.5779;-5.4861;
1313.7000;0.5796;-5.4809;
1314.0000;0.5788;-5.4783;
1314.3000;0.5771;-5.4757;
1314.6000;0.5788;-5.4680;
1314.9000;0.5771;-5.4654;
1315.2000;0.5771;-5.4732;
1315.5000;0.5763;-5.4757;
1315.8000;0.5779;-5.4732;
1316.1000;0.5779;-5.4706;
1316.4000;0.5796;-5.4654;
1316.7000;0.5763;-5.4680;
1317.0000;0.5788;-5.4628;
1317.3000;0.5771;-5.4628;
1317.6000;0.5779;-5.4680;
1317.9000;0.5788;-5.4757;
1318.2000;0.5763;-5.4809;
1318.5000;0.5771;-5.4835;
1318.8000;0.5804;-5.4783;
1319.1000;0.5788;-5.4706;
1319.4000;0.5755;-5.4628;
1319.7000;0.5771;-5.4706;
1320.0000;0.5763;-5.4757;
1320.3000;0.5804;-5.4654;
1320.6000;0.5763;-5.4706;
1320.9000;0.5820;-5.4602;
1321.2000;0.5755;-5.4680;
1321.5000;0.5779;-5.4628;
1321.8000;0.5828;-5.4550;
1322.1000;0.5788;-5.4706;
1322.4000;0.5771;-5.4757;
1322.7000;0.5828;-5.4576;
1323.0000;0.5788;-5.4680;
1323.3000;0.5763;-5.4757;
1323.6000;0.5853;-5.4576;
1323.9000;0.5779;-5.4654;
1324.2000;0.5771;-5.4706;
1324.5000;0.5755;-5.4706;
1324.8000;0.5771;-5.4680;
1325.1000;0.5779;-5.4732;
1325.4000;0.5788;-5.4706;
1325.7000;0.5779;-5.4835;
1326.0000;0.5779;-5.4861;
1326.3000;0.5763;-5.4835;
1326.6000;0.5731;-5.4809;
1326.9000;0.5771;-5.4783;
1327.2000;0.5771;-5.4809;
1327.5000;0.5788;-5.4861;
1327.8000;0.5788;-5.4809;
1328.1000;0.5771;-5.4861;
1328.4000;0.5755;-5.4809;
1328.7000;0.5804;-5.4757;
1329.0000;0.5804;-5.4783;
1329.3000;0.5788;-5.4680;
1329.6000;0.5763;-5.4757;
1329.9000;0.5779;-5.4602;
1330.2000;0.5763;-5.4680;
1330.5000;0.5763;-5.4680;
1330.8000;0.5763;-5.4757;
1331.1000;0.5771;-5.4757;
1331.4000;0.5747;-5.4835;
1331.7000;0.5771;-5.4783;
1332.0000;0.5763;-5.4783;
1332.3000;0.5763;-5.4783;
1332.6000;0.5739;-5.4861;
1332.9000;0.5788;-5.4757;
1333.2000;0.5763;-5.4887;
1333.5000;0.5771;-5.4835;
1333.8000;0.5779;-5.4783;
1334.1000;0.5763;-5.4732;
1334.4000;0.5771;-5.4757;
1334.7000;0.5779;-5.4654;
1335.0000;0.5763;-5.4602;
1335.3000;0.5771;-5.4602;
1335.6000;0.5771;-5.4654;
1335.9000;0.5763;-5.4757;
1336.2000;0.5739;-5.4783;
1336.5000;0.5763;-5.4861;
1336.8000;0.5788;-5.4887;
1337.1000;0.5771;-5.4835;
1337.4000;0.5771;-5.4835;
1337.7000;0.5779;-5.4835;
1338.0000;0.5771;-5.4732;
1338.3000;0.5796;-5.4732;
1338.6000;0.5771;-5.4861;
1338.9000;0.5788;-5.4991;
1339.2000;0.5788;-5.4991;
1339.5000;0.5796;-5.4913;
1339.8000;0.5779;-5.4913;
1340.1000;0.5755;-5.4913;
1340.4000;0.5763;-5.4861;
1340.7000;0.5755;-5.4861;
1341.0000;0.5796;-5.4835;
1341.3000;0.5755;-5.4913;
1341.6000;0.5771;-5.4757;
1341.9000;0.5796;-5.4706;
1342.2000;0.5771;-5.4809;
1342.5000;0.5674;-5.5016;
1342.8000;0.5755;-5.4783;
1343.1000;0.5779;-5.4783;
1343.4000;0.5771;-5.4783;
1343.7000;0.5763;-5.4757;
1344.0000;0.5771;-5.4706;
1344.3000;0.5804;-5.4628;
1344.6000;0.5747;-5.4809;
1344.9000;0.5755;-5.4783;
1345.2000;0.5771;-5.4757;
1345.5000;0.5771;-5.4757;
1345.8000;0.5763;-5.4809;
1346.1000;0.5788;-5.4783;
1346.4000;0.5779;-5.4835;
1346.7000;0.5804;-5.4732;
1347.0000;0.5779;-5.4732;
1347.3000;0.5779;-5.4732;
1347.6000;0.5804;-5.4809;
1347.9000;0.5771;-5.4835;
1348.2000;0.5796;-5.4809;
1348.5000;0.5763;-5.4965;
1348.8000;0.5755;-5.4861;
1349.1000;0.5788;-5.4783;
1349.4000;0.5788;-5.4757;
1349.7000;0.5731;-5.4835;
1350.0000;0.5763;-5.4757;
1350.3000;0.5771;-5.4628;
1350.6000;0.5779;-5.4576;
1350.9000;0.5788;-5.4602;
1351.2000;0.5779;-5.4628;
1351.5000;0.5771;-5.4628;
1351.8000;0.5788;-5.4576;
1352.1000;0.5779;-5.4628;
1352.4000;0.5763;-5.4706;
1352.7000;0.5779;-5.4757;
1353.0000;0.5763;-5.4809;
1353.3000;0.5755;-5.4757;
1353.6000;0.5779;-5.4757;
1353.9000;0.5763;-5.4783;
1354.2000;0.5747;-5.4861;
1354.5000;0.5747;-5.4809;
1354.8000;0.5771;-5.4809;
1355.1000;0.5779;-5.4732;
1355.4000;0.5763;-5.4732;
1355.7000;0.5714;-5.4835;
1356.0000;0.5779;-5.4706;
1356.3000;0.5763;-5.4809;
1356.6000;0.5771;-5.4809;
1356.9000;0.5771;-5.4783;
1357.2000;0.5771;-5.4835;
1357.5000;0.5779;-5.4939;
1357.8000;0.5763;-5.4861;
1358.1000;0.5714;-5.4939;
1358.4000;0.5739;-5.4913;
1358.7000;0.5771;-5.4809;
1359.0000;0.5763;-5.4861;
1359.3000;0.5763;-5.4783;
1359.6000;0.5763;-5.4809;
1359.9000;0.5763;-5.4757;
1360.2000;0.5706;-5.4965;
1360.5000;0.5747;-5.4887;
1360.8000;0.5771;-5.4835;
1361.1000;0.5771;-5.4783;
1361.4000;0.5747;-5.4783;
1361.7000;0.5755;-5.4887;
1362.0000;0.5779;-5.4835;
1362.3000;0.5722;-5.4965;
1362.6000;0.5763;-5.4835;
1362.9000;0.5731;-5.4861;
1363.2000;0.5755;-5.4861;
1363.5000;0.5788;-5.4809;
1363.8000;0.5771;-5.4809;
1364.1000;0.5755;-5.4835;
1364.4000;0.5755;-5.4861;
1364.7000;0.5747;-5.4861;
1365.0000;0.5763;-5.4835;
1365.3000;0.5706;-5.5042;
1365.6000;0.5747;-5.5016;
1365.9000;0.5722;-5.5068;
1366.2000;0.5763;-5.4835;
1366.5000;0.5788;-5.4757;
1366.8000;0.5755;-5.4861;
1367.1000;0.5771;-5.4835;
1367.4000;0.5755;-5.4783;
1367.7000;0.5763;-5.4835;
1368.0000;0.5779;-5.4783;
1368.3000;0.5763;-5.4861;
1368.6000;0.5771;-5.4835;
1368.9000;0.5771;-5.4835;
1369.2000;0.5779;-5.4861;
1369.5000;0.5771;-5.4809;
1369.8000;0.5755;-5.4861;
1370.1000;0.5796;-5.4809;
1370.4000;0.5763;-5.4783;
1370.7000;0.5755;-5.4783;
1371.0000;0.5771;-5.4706;
1371.3000;0.5779;-5.4783;
1371.6000;0.5771;-5.4757;
1371.9000;0.5779;-5.4835;
1372.2000;0.5771;-5.4965;
1372.5000;0.5788;-5.4913;
1372.8000;0.5788;-5.4887;
1373.1000;0.5763;-5.4965;
1373.4000;0.5771;-5.4991;
1373.7000;0.5763;-5.5016;
1374.0000;0.5771;-5.4991;
1374.3000;0.5763;-5.4913;
1374.6000;0.5755;-5.4887;
1374.9000;0.5763;-5.4783;
1375.2000;0.5763;-5.4783;
1375.5000;0.5763;-5.4887;
1375.8000;0.5747;-5.4861;
1376.1000;0.5755;-5.4887;
1376.4000;0.5763;-5.4887;
1376.7000;0.5788;-5.4861;
1377.0000;0.5739;-5.4887;
1377.3000;0.5771;-5.4835;
1377.6000;0.5763;-5.4861;
1377.9000;0.5779;-5.4783;
1378.2000;0.5763;-5.4783;
1378.5000;0.5755;-5.4809;
1378.8000;0.5771;-5.4861;
1379.1000;0.5771;-5.4835;
1379.4000;0.5763;-5.4861;
1379.7000;0.5714;-5.5042;
1380.0000;0.5771;-5.4887;
1380.3000;0.5763;-5.4835;
1380.6000;0.5755;-5.4861;
1380.9000;0.5771;-5.4887;
1381.2000;0.5771;-5.4835;
1381.5000;0.5796;-5.4757;
1381.8000;0.5788;-5.4809;
1382.1000;0.5812;-5.4835;
1382.4000;0.5763;-5.4965;
1382.7000;0.5755;-5.5016;
1383.0000;0.5771;-5.5042;
1383.3000;0.5804;-5.4965;
1383.6000;0.5771;-5.4991;
1383.9000;0.5763;-5.4939;
1384.2000;0.5771;-5.4835;
1384.5000;0.5779;-5.4861;
1384.8000;0.5763;-5.4965;
1385.1000;0.5779;-5.4861;
1385.4000;0.5771;-5.4861;
1385.7000;0.5763;-5.4861;
1386.0000;0.5739;-5.4965;
1386.3000;0.5763;-5.4939;
1386.6000;0.5747;-5.4939;
1386.9000;0.5804;-5.4783;
1387.2000;0.5763;-5.4783;
1387.5000;0.5755;-5.4680;
1387.8000;0.5788;-5.4706;
1388.1000;0.5763;-5.4783;
1388.4000;0.5771;-5.4835;
1388.7000;0.5763;-5.4887;
1389.0000;0.5747;-5.4861;
1389.3000;0.5771;-5.4809;
1389.6000;0.5763;-5.4835;
1389.9000;0.5763;-5.4783;
1390.2000;0.5771;-5.4835;
1390.5000;0.5771;-5.4861;
1390.8000;0.5763;-5.4913;
1391.1000;0.5747;-5.4939;
1391.4000;0.5722;-5.4913;
1391.7000;0.5755;-5.4887;
1392.0000;0.5755;-5.4835;
1392.3000;0.5763;-5.4887;
1392.6000;0.5747;-5.4887;
1392.9000;0.5779;-5.4835;
1393.2000;0.5771;-5.4861;
1393.5000;0.5763;-5.4835;
1393.8000;0.5763;-5.4835;
1394.1000;0.5771;-5.4783;
1394.4000;0.5788;-5.4809;
1394.7000;0.5779;-5.4887;
1395.0000;0.5763;-5.4809;
1395.3000;0.5779;-5.4783;
1395.6000;0.5779;-5.4835;
1395.9000;0.5763;-5.4757;
1396.2000;0.5779;-5.4654;
1396.5000;0.5755;-5.4706;
1396.8000;0.5763;-5.4783;
1397.1000;0.5771;-5.4835;
1397.4000;0.5755;-5.4887;
1397.7000;0.5755;-5.4861;
1398.0000;0.5771;-5.4965;
1398.3000;0.5779;-5.4939;
1398.6000;0.5771;-5.4939;
1398.9000;0.5771;-5.4965;
1399.2000;0.5739;-5.5068;
1399.5000;0.5771;-5.4991;
1399.8000;0.5763;-5.4965;
