time/ms;Fluo/V;P700 deltaI/I x10³;
-199.8000;0.2930;0.8997;
-199.5000;0.2955;0.9121;
-199.2000;0.2971;0.9146;
-198.9000;0.2971;0.9171;
-198.6000;0.2955;0.9121;
-198.3000;0.2947;0.9047;
-198.0000;0.2963;0.8997;
-197.7000;0.2955;0.9047;
-197.4000;0.2947;0.9047;
-197.1000;0.2963;0.9097;
-196.8000;0.2963;0.9022;
-196.5000;0.2955;0.8972;
-196.2000;0.2947;0.8997;
-195.9000;0.2955;0.9022;
-195.6000;0.2963;0.8997;
-195.3000;0.2955;0.9047;
-195.0000;0.2955;0.8997;
-194.7000;0.2947;0.8972;
-194.4000;0.2963;0.9022;
-194.1000;0.2947;0.8972;
-193.8000;0.2939;0.9022;
-193.5000;0.2947;0.8997;
-193.2000;0.2963;0.8972;
-192.9000;0.2955;0.8872;
-192.6000;0.2955;0.8947;
-192.3000;0.2939;0.8947;
-192.0000;0.2963;0.9022;
-191.7000;0.2955;0.8972;
-191.4000;0.2955;0.8997;
-191.1000;0.2955;0.8997;
-190.8000;0.2930;0.8972;
-190.5000;0.2955;0.9072;
-190.2000;0.2955;0.9047;
-189.9000;0.2922;0.8897;
-189.6000;0.2947;0.8972;
-189.3000;0.2947;0.9047;
-189.0000;0.2939;0.8972;
-188.7000;0.2914;0.8997;
-188.4000;0.2963;0.9121;
-188.1000;0.2947;0.9097;
-187.8000;0.2971;0.9047;
-187.5000;0.2955;0.8972;
-187.2000;0.2979;0.8972;
-186.9000;0.2955;0.8847;
-186.6000;0.2955;0.8748;
-186.3000;0.2947;0.8698;
-186.0000;0.2955;0.8723;
-185.7000;0.2947;0.8797;
-185.4000;0.2963;0.8872;
-185.1000;0.2963;0.8972;
-184.8000;0.2947;0.8922;
-184.5000;0.2963;0.8922;
-184.2000;0.2955;0.8997;
-183.9000;0.2963;0.8872;
-183.6000;0.2971;0.8822;
-183.3000;0.2947;0.8797;
-183.0000;0.2963;0.8773;
-182.7000;0.2914;0.8573;
-182.4000;0.2947;0.8723;
-182.1000;0.3012;0.8897;
-181.8000;0.2996;0.8897;
-181.5000;0.2971;0.8847;
-181.2000;0.2955;0.8748;
-180.9000;0.2963;0.8748;
-180.6000;0.2939;0.8797;
-180.3000;0.2930;0.8773;
-180.0000;0.2947;0.8797;
-179.7000;0.2955;0.8872;
-179.4000;0.2939;0.8748;
-179.1000;0.2955;0.8748;
-178.8000;0.2947;0.8673;
-178.5000;0.2898;0.8598;
-178.2000;0.2971;0.8797;
-177.9000;0.2947;0.8797;
-177.6000;0.2971;0.8822;
-177.3000;0.2979;0.8947;
-177.0000;0.2955;0.8947;
-176.7000;0.2963;0.8922;
-176.4000;0.2947;0.8947;
-176.1000;0.2947;0.8922;
-175.8000;0.2955;0.8947;
-175.5000;0.2963;0.9022;
-175.2000;0.2971;0.9022;
-174.9000;0.2947;0.8972;
-174.6000;0.2955;0.8947;
-174.3000;0.3036;0.9072;
-174.0000;0.2955;0.8797;
-173.7000;0.2947;0.8698;
-173.4000;0.2963;0.8748;
-173.1000;0.3012;0.8897;
-172.8000;0.2955;0.8822;
-172.5000;0.2947;0.8872;
-172.2000;0.2963;0.8922;
-171.9000;0.2947;0.8872;
-171.6000;0.2947;0.8822;
-171.3000;0.2955;0.8872;
-171.0000;0.2930;0.8773;
-170.7000;0.2955;0.8773;
-170.4000;0.2955;0.8773;
-170.1000;0.2963;0.8847;
-169.8000;0.2979;0.8972;
-169.5000;0.2963;0.8847;
-169.2000;0.2963;0.8897;
-168.9000;0.2971;0.8847;
-168.6000;0.2914;0.8723;
-168.3000;0.2947;0.8822;
-168.0000;0.2955;0.8997;
-167.7000;0.2947;0.9022;
-167.4000;0.2947;0.8997;
-167.1000;0.2947;0.8847;
-166.8000;0.2955;0.8797;
-166.5000;0.2963;0.8897;
-166.2000;0.2955;0.8872;
-165.9000;0.2947;0.8822;
-165.6000;0.2947;0.8822;
-165.3000;0.2947;0.8872;
-165.0000;0.2939;0.8897;
-164.7000;0.2947;0.8897;
-164.4000;0.2955;0.8947;
-164.1000;0.2914;0.8922;
-163.8000;0.2955;0.9022;
-163.5000;0.2939;0.8997;
-163.2000;0.2914;0.8922;
-162.9000;0.2963;0.9022;
-162.6000;0.2971;0.9047;
-162.3000;0.2930;0.8922;
-162.0000;0.2955;0.8972;
-161.7000;0.2930;0.9047;
-161.4000;0.2947;0.9022;
-161.1000;0.2947;0.8997;
-160.8000;0.2955;0.8947;
-160.5000;0.2955;0.8922;
-160.2000;0.2963;0.8972;
-159.9000;0.2971;0.9047;
-159.6000;0.2971;0.9047;
-159.3000;0.2955;0.8972;
-159.0000;0.2947;0.8972;
-158.7000;0.2971;0.8997;
-158.4000;0.2979;0.9022;
-158.1000;0.2963;0.8972;
-157.8000;0.3004;0.9072;
-157.5000;0.2947;0.8922;
-157.2000;0.2947;0.8822;
-156.9000;0.2939;0.8773;
-156.6000;0.2955;0.8847;
-156.3000;0.2947;0.8773;
-156.0000;0.2947;0.8797;
-155.7000;0.3044;0.9047;
-155.4000;0.2947;0.8822;
-155.1000;0.2947;0.8797;
-154.8000;0.2947;0.8797;
-154.5000;0.2947;0.8822;
-154.2000;0.2947;0.8847;
-153.9000;0.2947;0.8922;
-153.6000;0.2922;0.8748;
-153.3000;0.2947;0.8673;
-153.0000;0.2971;0.8698;
-152.7000;0.2955;0.8623;
-152.4000;0.2947;0.8748;
-152.1000;0.2930;0.8723;
-151.8000;0.2979;0.8797;
-151.5000;0.2955;0.8748;
-151.2000;0.2955;0.8748;
-150.9000;0.2947;0.8822;
-150.6000;0.2939;0.8847;
-150.3000;0.2939;0.8847;
-150.0000;0.2930;0.8897;
-149.7000;0.2939;0.8922;
-149.4000;0.2849;0.8648;
-149.1000;0.2947;0.8972;
-148.8000;0.2963;0.8972;
-148.5000;0.2963;0.8972;
-148.2000;0.2947;0.8997;
-147.9000;0.2947;0.8997;
-147.6000;0.2979;0.9097;
-147.3000;0.2947;0.8947;
-147.0000;0.2955;0.8947;
-146.7000;0.2939;0.8972;
-146.4000;0.2955;0.8997;
-146.1000;0.2955;0.8847;
-145.8000;0.2939;0.8773;
-145.5000;0.2947;0.8773;
-145.2000;0.2963;0.8847;
-144.9000;0.2963;0.8872;
-144.6000;0.2930;0.8773;
-144.3000;0.2963;0.8847;
-144.0000;0.2987;0.8922;
-143.7000;0.2971;0.8922;
-143.4000;0.2963;0.8947;
-143.1000;0.2996;0.9097;
-142.8000;0.2963;0.8997;
-142.5000;0.2963;0.8997;
-142.2000;0.3077;0.9271;
-141.9000;0.2955;0.9022;
-141.6000;0.2955;0.8972;
-141.3000;0.2963;0.9072;
-141.0000;0.2963;0.9047;
-140.7000;0.2947;0.9022;
-140.4000;0.2939;0.8972;
-140.1000;0.2971;0.8997;
-139.8000;0.2914;0.8897;
-139.5000;0.2955;0.8922;
-139.2000;0.2979;0.8997;
-138.9000;0.3028;0.9146;
-138.6000;0.2947;0.8922;
-138.3000;0.2955;0.8897;
-138.0000;0.3020;0.9022;
-137.7000;0.2955;0.8748;
-137.4000;0.2963;0.8797;
-137.1000;0.2987;0.8872;
-136.8000;0.2914;0.8673;
-136.5000;0.2930;0.8673;
-136.2000;0.2955;0.8822;
-135.9000;0.2955;0.8797;
-135.6000;0.2947;0.8773;
-135.3000;0.2955;0.8797;
-135.0000;0.2947;0.8872;
-134.7000;0.2963;0.8997;
-134.4000;0.2914;0.8847;
-134.1000;0.2963;0.8972;
-133.8000;0.2963;0.8897;
-133.5000;0.2955;0.8822;
-133.2000;0.2955;0.8847;
-132.9000;0.2947;0.8822;
-132.6000;0.2922;0.8748;
-132.3000;0.2955;0.8872;
-132.0000;0.2947;0.8897;
-131.7000;0.2922;0.8872;
-131.4000;0.2922;0.8797;
-131.1000;0.2963;0.8897;
-130.8000;0.2971;0.8947;
-130.5000;0.2947;0.8897;
-130.2000;0.2939;0.8897;
-129.9000;0.2955;0.8947;
-129.6000;0.2963;0.8922;
-129.3000;0.2930;0.8897;
-129.0000;0.2955;0.8897;
-128.7000;0.2955;0.8797;
-128.4000;0.2930;0.8723;
-128.1000;0.2955;0.8797;
-127.8000;0.2955;0.8797;
-127.5000;0.2947;0.8797;
-127.2000;0.2971;0.8897;
-126.9000;0.2955;0.8922;
-126.6000;0.2963;0.8997;
-126.3000;0.2955;0.8947;
-126.0000;0.2947;0.8972;
-125.7000;0.2947;0.9022;
-125.4000;0.2939;0.8997;
-125.1000;0.2939;0.8922;
-124.8000;0.2955;0.8947;
-124.5000;0.2979;0.8997;
-124.2000;0.2963;0.8972;
-123.9000;0.2955;0.8897;
-123.6000;0.2955;0.8947;
-123.3000;0.2939;0.8897;
-123.0000;0.2947;0.8947;
-122.7000;0.2939;0.8897;
-122.4000;0.2963;0.8897;
-122.1000;0.2955;0.8847;
-121.8000;0.2939;0.8773;
-121.5000;0.2955;0.8797;
-121.2000;0.2955;0.8847;
-120.9000;0.2963;0.8872;
-120.6000;0.2939;0.8972;
-120.3000;0.2947;0.8997;
-120.0000;0.2922;0.8972;
-119.7000;0.2947;0.8897;
-119.4000;0.2939;0.8897;
-119.1000;0.2947;0.9072;
-118.8000;0.2939;0.9047;
-118.5000;0.2955;0.9072;
-118.2000;0.2987;0.9171;
-117.9000;0.2971;0.9097;
-117.6000;0.2939;0.8972;
-117.3000;0.2955;0.8947;
-117.0000;0.2955;0.9047;
-116.7000;0.2939;0.8972;
-116.4000;0.2955;0.9022;
-116.1000;0.2963;0.9097;
-115.8000;0.2955;0.8997;
-115.5000;0.2947;0.8897;
-115.2000;0.2873;0.8573;
-114.9000;0.3020;0.8997;
-114.6000;0.2939;0.8822;
-114.3000;0.2979;0.8872;
-114.0000;0.2963;0.8847;
-113.7000;0.2979;0.8897;
-113.4000;0.2955;0.8773;
-113.1000;0.2947;0.8648;
-112.8000;0.2979;0.8748;
-112.5000;0.2971;0.8773;
-112.2000;0.2963;0.8773;
-111.9000;0.2963;0.8797;
-111.6000;0.2963;0.8797;
-111.3000;0.2939;0.8748;
-111.0000;0.2955;0.8797;
-110.7000;0.2971;0.8822;
-110.4000;0.2947;0.8797;
-110.1000;0.2979;0.8773;
-109.8000;0.2947;0.8748;
-109.5000;0.2963;0.8773;
-109.2000;0.2955;0.8748;
-108.9000;0.2955;0.8822;
-108.6000;0.2963;0.8947;
-108.3000;0.2963;0.8972;
-108.0000;0.2914;0.8872;
-107.7000;0.2955;0.8997;
-107.4000;0.2971;0.9022;
-107.1000;0.2939;0.8872;
-106.8000;0.2955;0.8897;
-106.5000;0.2955;0.8922;
-106.2000;0.2963;0.8947;
-105.9000;0.2939;0.8847;
-105.6000;0.2963;0.8773;
-105.3000;0.2955;0.8748;
-105.0000;0.2849;0.8473;
-104.7000;0.2939;0.8773;
-104.4000;0.2971;0.8872;
-104.1000;0.2955;0.8872;
-103.8000;0.2955;0.8922;
-103.5000;0.2939;0.9022;
-103.2000;0.2971;0.9047;
-102.9000;0.2963;0.9022;
-102.6000;0.2955;0.9022;
-102.3000;0.2947;0.8922;
-102.0000;0.2963;0.8922;
-101.7000;0.2963;0.8897;
-101.4000;0.2947;0.8922;
-101.1000;0.2955;0.9022;
-100.8000;0.2947;0.8947;
-100.5000;0.2979;0.9047;
-100.2000;0.2955;0.8947;
-99.9000;0.2947;0.8922;
-99.6000;0.2979;0.8972;
-99.3000;0.2939;0.8922;
-99.0000;0.2971;0.8972;
-98.7000;0.2955;0.9072;
-98.4000;0.2955;0.9047;
-98.1000;0.2963;0.9097;
-97.8000;0.2963;0.9121;
-97.5000;0.2955;0.9097;
-97.2000;0.2947;0.9097;
-96.9000;0.2971;0.9146;
-96.6000;0.2939;0.9022;
-96.3000;0.2947;0.9121;
-96.0000;0.2955;0.9146;
-95.7000;0.2963;0.9047;
-95.4000;0.2939;0.8947;
-95.1000;0.2971;0.9022;
-94.8000;0.2939;0.8922;
-94.5000;0.2930;0.8897;
-94.2000;0.2947;0.8947;
-93.9000;0.2955;0.8997;
-93.6000;0.2947;0.9047;
-93.3000;0.2947;0.8972;
-93.0000;0.2955;0.8897;
-92.7000;0.2955;0.9022;
-92.4000;0.2955;0.8997;
-92.1000;0.2963;0.8922;
-91.8000;0.2971;0.8897;
-91.5000;0.2979;0.8872;
-91.2000;0.2963;0.8847;
-90.9000;0.2955;0.8797;
-90.6000;0.2979;0.8847;
-90.3000;0.2898;0.8648;
-90.0000;0.2963;0.8897;
-89.7000;0.2963;0.8897;
-89.4000;0.2947;0.8797;
-89.1000;0.2947;0.8897;
-88.8000;0.2955;0.8947;
-88.5000;0.2906;0.8847;
-88.2000;0.2930;0.8897;
-87.9000;0.2979;0.9047;
-87.6000;0.2955;0.8972;
-87.3000;0.2947;0.9097;
-87.0000;0.2996;0.9196;
-86.7000;0.2955;0.9072;
-86.4000;0.2947;0.9047;
-86.1000;0.3012;0.9121;
-85.8000;0.2955;0.8922;
-85.5000;0.2971;0.8947;
-85.2000;0.2963;0.8972;
-84.9000;0.2930;0.8872;
-84.6000;0.2947;0.8872;
-84.3000;0.2963;0.8947;
-84.0000;0.3004;0.9022;
-83.7000;0.2955;0.8947;
-83.4000;0.2963;0.8947;
-83.1000;0.2979;0.8947;
-82.8000;0.3036;0.9097;
-82.5000;0.2963;0.8847;
-82.2000;0.2947;0.8822;
-81.9000;0.2947;0.8847;
-81.6000;0.2947;0.8872;
-81.3000;0.2947;0.8822;
-81.0000;0.2955;0.8773;
-80.7000;0.2906;0.8648;
-80.4000;0.2955;0.8673;
-80.1000;0.2963;0.8573;
-79.8000;0.2939;0.8449;
-79.5000;0.2922;0.8399;
-79.2000;0.2955;0.8498;
-78.9000;0.2947;0.8424;
-78.6000;0.2963;0.8523;
-78.3000;0.2963;0.8598;
-78.0000;0.2947;0.8648;
-77.7000;0.2963;0.8748;
-77.4000;0.2955;0.8797;
-77.1000;0.2963;0.8897;
-76.8000;0.2955;0.8797;
-76.5000;0.2963;0.8847;
-76.2000;0.2963;0.8723;
-75.9000;0.2963;0.8573;
-75.6000;0.2947;0.8598;
-75.3000;0.2947;0.8623;
-75.0000;0.2947;0.8548;
-74.7000;0.2939;0.8523;
-74.4000;0.2882;0.8473;
-74.1000;0.2890;0.8449;
-73.8000;0.2930;0.8598;
-73.5000;0.2963;0.8698;
-73.2000;0.2955;0.8673;
-72.9000;0.2955;0.8673;
-72.6000;0.2963;0.8648;
-72.3000;0.2947;0.8598;
-72.0000;0.2963;0.8673;
-71.7000;0.2939;0.8673;
-71.4000;0.2947;0.8847;
-71.1000;0.2979;0.8997;
-70.8000;0.3004;0.9072;
-70.5000;0.2947;0.8922;
-70.2000;0.2849;0.8748;
-69.9000;0.2963;0.8997;
-69.6000;0.2963;0.9022;
-69.3000;0.2939;0.8947;
-69.0000;0.2955;0.8947;
-68.7000;0.2947;0.8922;
-68.4000;0.2963;0.9047;
-68.1000;0.2963;0.9121;
-67.8000;0.2971;0.9121;
-67.5000;0.2963;0.8997;
-67.2000;0.2955;0.9072;
-66.9000;0.2971;0.9097;
-66.6000;0.2955;0.9072;
-66.3000;0.2963;0.9146;
-66.0000;0.2963;0.9072;
-65.7000;0.2963;0.9146;
-65.4000;0.2955;0.9146;
-65.1000;0.2955;0.9097;
-64.8000;0.2947;0.9047;
-64.5000;0.2955;0.9121;
-64.2000;0.2955;0.9121;
-63.9000;0.2971;0.9121;
-63.6000;0.2979;0.9097;
-63.3000;0.2963;0.9047;
-63.0000;0.2947;0.8997;
-62.7000;0.2979;0.9047;
-62.4000;0.2979;0.9146;
-62.1000;0.2979;0.9121;
-61.8000;0.2930;0.8997;
-61.5000;0.2947;0.9047;
-61.2000;0.2947;0.9047;
-60.9000;0.2930;0.9022;
-60.6000;0.2922;0.8922;
-60.3000;0.2930;0.8947;
-60.0000;0.2947;0.9072;
-59.7000;0.2955;0.9072;
-59.4000;0.2963;0.9121;
-59.1000;0.2947;0.9121;
-58.8000;0.2963;0.9171;
-58.5000;0.2939;0.9097;
-58.2000;0.2955;0.9146;
-57.9000;0.2939;0.9047;
-57.6000;0.2947;0.9047;
-57.3000;0.2947;0.9097;
-57.0000;0.2955;0.9146;
-56.7000;0.2955;0.9196;
-56.4000;0.2963;0.9171;
-56.1000;0.2963;0.9097;
-55.8000;0.2947;0.9022;
-55.5000;0.2947;0.9072;
-55.2000;0.2955;0.9022;
-54.9000;0.2963;0.9072;
-54.6000;0.2963;0.9022;
-54.3000;0.2947;0.9047;
-54.0000;0.2939;0.8922;
-53.7000;0.2963;0.8997;
-53.4000;0.2971;0.9022;
-53.1000;0.2914;0.8773;
-52.8000;0.2987;0.9047;
-52.5000;0.2955;0.8972;
-52.2000;0.2963;0.8947;
-51.9000;0.2963;0.8972;
-51.6000;0.2947;0.8972;
-51.3000;0.2955;0.8947;
-51.0000;0.2947;0.9097;
-50.7000;0.2914;0.9072;
-50.4000;0.2939;0.9146;
-50.1000;0.2979;0.9047;
-49.8000;0.2955;0.8947;
-49.5000;0.2947;0.8972;
-49.2000;0.2955;0.8947;
-48.9000;0.3061;0.9221;
-48.6000;0.2947;0.8922;
-48.3000;0.2947;0.8922;
-48.0000;0.2963;0.8847;
-47.7000;0.2996;0.8947;
-47.4000;0.2930;0.8797;
-47.1000;0.2939;0.8773;
-46.8000;0.2955;0.8897;
-46.5000;0.2955;0.8822;
-46.2000;0.2955;0.8847;
-45.9000;0.2955;0.8922;
-45.6000;0.2930;0.8822;
-45.3000;0.2963;0.8748;
-45.0000;0.3012;0.8997;
-44.7000;0.2955;0.8748;
-44.4000;0.2955;0.8698;
-44.1000;0.2930;0.8648;
-43.8000;0.2947;0.8748;
-43.5000;0.2963;0.8797;
-43.2000;0.2963;0.8773;
-42.9000;0.2947;0.8822;
-42.6000;0.2971;0.8897;
-42.3000;0.2955;0.8822;
-42.0000;0.2955;0.8797;
-41.7000;0.2955;0.8822;
-41.4000;0.2971;0.8847;
-41.1000;0.2955;0.8797;
-40.8000;0.2947;0.8847;
-40.5000;0.2939;0.8822;
-40.2000;0.2939;0.8797;
-39.9000;0.2947;0.8797;
-39.6000;0.2947;0.8822;
-39.3000;0.2947;0.8922;
-39.0000;0.2955;0.8872;
-38.7000;0.2922;0.8822;
-38.4000;0.2947;0.8897;
-38.1000;0.2947;0.8822;
-37.8000;0.2947;0.8748;
-37.5000;0.2930;0.8822;
-37.2000;0.3061;0.9196;
-36.9000;0.2955;0.8897;
-36.6000;0.2996;0.8922;
-36.3000;0.2963;0.8773;
-36.0000;0.2947;0.8748;
-35.7000;0.2947;0.8797;
-35.4000;0.2930;0.8723;
-35.1000;0.2939;0.8698;
-34.8000;0.2939;0.8698;
-34.5000;0.2955;0.8723;
-34.2000;0.2963;0.8698;
-33.9000;0.2971;0.8797;
-33.6000;0.2939;0.8773;
-33.3000;0.2955;0.8698;
-33.0000;0.2963;0.8748;
-32.7000;0.2963;0.8773;
-32.4000;0.2947;0.8773;
-32.1000;0.2947;0.8723;
-31.8000;0.2979;0.8797;
-31.5000;0.2922;0.8598;
-31.2000;0.2963;0.8673;
-30.9000;0.2947;0.8748;
-30.6000;0.2955;0.8847;
-30.3000;0.2947;0.8822;
-30.0000;0.2955;0.8872;
-29.7000;0.2930;0.8773;
-29.4000;0.2955;0.8847;
-29.1000;0.2947;0.8897;
-28.8000;0.2996;0.8972;
-28.5000;0.2947;0.8947;
-28.2000;0.2914;0.8847;
-27.9000;0.2963;0.8897;
-27.6000;0.2963;0.8872;
-27.3000;0.2955;0.8748;
-27.0000;0.2971;0.8673;
-26.7000;0.2979;0.8673;
-26.4000;0.2955;0.8623;
-26.1000;0.2939;0.8648;
-25.8000;0.2947;0.8773;
-25.5000;0.2971;0.8847;
-25.2000;0.2955;0.8822;
-24.9000;0.2947;0.8822;
-24.6000;0.2955;0.8922;
-24.3000;0.2963;0.8897;
-24.0000;0.3012;0.8997;
-23.7000;0.2939;0.8822;
-23.4000;0.2947;0.8872;
-23.1000;0.2963;0.8922;
-22.8000;0.2947;0.8872;
-22.5000;0.2922;0.8847;
-22.2000;0.2922;0.8773;
-21.9000;0.2955;0.8872;
-21.6000;0.2873;0.8623;
-21.3000;0.2955;0.8897;
-21.0000;0.2947;0.8897;
-20.7000;0.2955;0.9047;
-20.4000;0.2955;0.9022;
-20.1000;0.2955;0.8947;
-19.8000;0.2947;0.8872;
-19.5000;0.2963;0.8773;
-19.2000;0.2963;0.8698;
-18.9000;0.2955;0.8648;
-18.6000;0.2947;0.8673;
-18.3000;0.2971;0.8773;
-18.0000;0.2947;0.8748;
-17.7000;0.2971;0.8847;
-17.4000;0.2963;0.8822;
-17.1000;0.2971;0.8947;
-16.8000;0.2963;0.8897;
-16.5000;0.2971;0.8897;
-16.2000;0.2963;0.8872;
-15.9000;0.2955;0.8922;
-15.6000;0.2979;0.8997;
-15.3000;0.2939;0.8847;
-15.0000;0.2922;0.8797;
-14.7000;0.2963;0.8897;
-14.4000;0.3020;0.9097;
-14.1000;0.2947;0.8922;
-13.8000;0.2947;0.8972;
-13.5000;0.2947;0.8947;
-13.2000;0.2963;0.8972;
-12.9000;0.2914;0.8797;
-12.6000;0.2955;0.8997;
-12.3000;0.2955;0.8947;
-12.0000;0.2947;0.8872;
-11.7000;0.2955;0.8822;
-11.4000;0.2963;0.8922;
-11.1000;0.2947;0.8897;
-10.8000;0.2963;0.8922;
-10.5000;0.2955;0.8847;
-10.2000;0.2947;0.8947;
-9.9000;0.2955;0.8997;
-9.6000;0.2939;0.8997;
-9.3000;0.2955;0.9072;
-9.0000;0.2955;0.9171;
-8.7000;0.2947;0.9121;
-8.4000;0.2963;0.9121;
-8.1000;0.2963;0.9121;
-7.8000;0.2947;0.9146;
-7.5000;0.2987;0.9221;
-7.2000;0.2955;0.9097;
-6.9000;0.2939;0.9121;
-6.6000;0.2947;0.9196;
-6.3000;0.2971;0.9171;
-6.0000;0.2979;0.9146;
-5.7000;0.2963;0.9047;
-5.4000;0.2890;0.8822;
-5.1000;0.2971;0.8972;
-4.8000;0.2955;0.8922;
-4.5000;0.2898;0.8822;
-4.2000;0.2947;0.8897;
-3.9000;0.2971;0.8947;
-3.6000;0.3044;0.9221;
-3.3000;0.2963;0.9097;
-3.0000;0.2914;0.8897;
-2.7000;0.2971;0.9022;
-2.4000;0.2979;0.8972;
-2.1000;0.3053;0.9146;
-1.8000;0.2947;0.8947;
-1.5000;0.2963;0.9097;
-1.2000;0.2971;0.9072;
-0.9000;0.2955;0.8997;
-0.6000;0.2955;0.9022;
-0.3000;0.2930;0.8972;
0.0000;0.2930;0.8972;
0.3000;0.3101;0.9371;
0.6000;0.3264;0.9769;
0.9000;0.3427;1.0243;
1.2000;0.3557;1.0841;
1.5000;0.3630;1.1190;
1.8000;0.3728;1.1614;
2.1000;0.3777;1.1888;
2.4000;0.3826;1.2237;
2.7000;0.3875;1.2461;
3.0000;0.3980;1.2760;
3.3000;0.3907;1.2660;
3.6000;0.3948;1.2785;
3.9000;0.3980;1.2885;
4.2000;0.3972;1.2860;
4.5000;0.3989;1.2984;
4.8000;0.3972;1.2959;
5.1000;0.3989;1.3084;
5.4000;0.4013;1.3109;
5.7000;0.4021;1.3159;
6.0000;0.3964;1.3109;
6.3000;0.4046;1.3333;
6.6000;0.4046;1.3283;
6.9000;0.4078;1.3408;
7.2000;0.4070;1.3358;
7.5000;0.4086;1.3383;
7.8000;0.4086;1.3458;
8.1000;0.4119;1.3508;
8.4000;0.4070;1.3333;
8.7000;0.4086;1.3308;
9.0000;0.4078;1.3258;
9.3000;0.4086;1.3258;
9.6000;0.4086;1.3258;
9.9000;0.4094;1.3283;
10.2000;0.4127;1.3383;
10.5000;0.4119;1.3458;
10.8000;0.4200;1.3707;
11.1000;0.4103;1.3383;
11.4000;0.4135;1.3383;
11.7000;0.4127;1.3333;
12.0000;0.4111;1.3333;
12.3000;0.4143;1.3483;
12.6000;0.4135;1.3433;
12.9000;0.4143;1.3508;
13.2000;0.4119;1.3358;
13.5000;0.4151;1.3358;
13.8000;0.4143;1.3308;
14.1000;0.4225;1.3533;
14.4000;0.4143;1.3283;
14.7000;0.4160;1.3234;
15.0000;0.4168;1.3258;
15.3000;0.4168;1.3258;
15.6000;0.4184;1.3308;
15.9000;0.4176;1.3209;
16.2000;0.4176;1.3134;
16.5000;0.4200;1.3209;
16.8000;0.4200;1.3134;
17.1000;0.4208;1.3109;
17.4000;0.4192;1.3009;
17.7000;0.4200;1.3109;
18.0000;0.4208;1.3084;
18.3000;0.4217;1.3009;
18.6000;0.4257;1.3034;
18.9000;0.4208;1.2885;
19.2000;0.4208;1.2959;
19.5000;0.4217;1.2959;
19.8000;0.4225;1.3009;
20.1000;0.4217;1.2910;
20.4000;0.4233;1.2959;
20.7000;0.4241;1.2959;
21.0000;0.4241;1.2934;
21.3000;0.4208;1.2835;
21.6000;0.4233;1.2959;
21.9000;0.4143;1.2586;
22.2000;0.4257;1.2835;
22.5000;0.4282;1.2910;
22.8000;0.4257;1.2885;
23.1000;0.4241;1.2910;
23.4000;0.4290;1.3059;
23.7000;0.4249;1.2959;
24.0000;0.4257;1.2934;
24.3000;0.4217;1.2785;
24.6000;0.4233;1.2835;
24.9000;0.4184;1.2586;
25.2000;0.4265;1.2735;
25.5000;0.4241;1.2735;
25.8000;0.4265;1.2685;
26.1000;0.4241;1.2561;
26.4000;0.4265;1.2536;
26.7000;0.4274;1.2610;
27.0000;0.4298;1.2735;
27.3000;0.4306;1.2785;
27.6000;0.4290;1.2685;
27.9000;0.4282;1.2635;
28.2000;0.4290;1.2610;
28.5000;0.4282;1.2685;
28.8000;0.4298;1.2660;
29.1000;0.4306;1.2685;
29.4000;0.4306;1.2735;
29.7000;0.4306;1.2735;
30.0000;0.4290;1.2635;
30.3000;0.4298;1.2610;
30.6000;0.4306;1.2586;
30.9000;0.4298;1.2536;
31.2000;0.4290;1.2486;
31.5000;0.4298;1.2586;
31.8000;0.4265;1.2461;
32.1000;0.4314;1.2685;
32.4000;0.4290;1.2561;
32.7000;0.4314;1.2635;
33.0000;0.4306;1.2586;
33.3000;0.4306;1.2685;
33.6000;0.4330;1.2685;
33.9000;0.4298;1.2536;
34.2000;0.4322;1.2486;
34.5000;0.4330;1.2461;
34.8000;0.4257;1.2262;
35.1000;0.4322;1.2486;
35.4000;0.4322;1.2511;
35.7000;0.4330;1.2386;
36.0000;0.4330;1.2436;
36.3000;0.4322;1.2436;
36.6000;0.4322;1.2511;
36.9000;0.4330;1.2486;
37.2000;0.4347;1.2486;
37.5000;0.4347;1.2511;
37.8000;0.4363;1.2536;
38.1000;0.4363;1.2511;
38.4000;0.4363;1.2511;
38.7000;0.4363;1.2411;
39.0000;0.4347;1.2386;
39.3000;0.4363;1.2436;
39.6000;0.4371;1.2461;
39.9000;0.4363;1.2436;
40.2000;0.4363;1.2536;
40.5000;0.4379;1.2561;
40.8000;0.4371;1.2486;
41.1000;0.4371;1.2561;
41.4000;0.4355;1.2561;
41.7000;0.4339;1.2436;
42.0000;0.4371;1.2436;
42.3000;0.4379;1.2436;
42.6000;0.4355;1.2311;
42.9000;0.4404;1.2386;
43.2000;0.4363;1.2287;
43.5000;0.4387;1.2411;
43.8000;0.4347;1.2311;
44.1000;0.4387;1.2486;
44.4000;0.4412;1.2561;
44.7000;0.4412;1.2461;
45.0000;0.4444;1.2536;
45.3000;0.4363;1.2212;
45.6000;0.4404;1.2287;
45.9000;0.4469;1.2461;
46.2000;0.4314;1.2037;
46.5000;0.4387;1.2237;
46.8000;0.4436;1.2287;
47.1000;0.4436;1.2262;
47.4000;0.4428;1.2212;
47.7000;0.4404;1.2162;
48.0000;0.4363;1.2087;
48.3000;0.4412;1.2287;
48.6000;0.4436;1.2361;
48.9000;0.4428;1.2212;
49.2000;0.4420;1.2162;
49.5000;0.4428;1.2212;
49.8000;0.4436;1.2237;
50.1000;0.4444;1.2162;
50.4000;0.4444;1.2162;
50.7000;0.4436;1.2162;
51.0000;0.4444;1.2112;
51.3000;0.4396;1.1963;
51.6000;0.4444;1.2012;
51.9000;0.4444;1.2062;
52.2000;0.4461;1.2087;
52.5000;0.4428;1.2012;
52.8000;0.4453;1.2012;
53.1000;0.4412;1.1863;
53.4000;0.4453;1.2087;
53.7000;0.4453;1.2112;
54.0000;0.4453;1.2162;
54.3000;0.4453;1.2237;
54.6000;0.4461;1.2287;
54.9000;0.4461;1.2237;
55.2000;0.4436;1.2112;
55.5000;0.4444;1.2162;
55.8000;0.4469;1.2187;
56.1000;0.4469;1.2137;
56.4000;0.4461;1.2012;
56.7000;0.4469;1.2012;
57.0000;0.4477;1.1913;
57.3000;0.4469;1.1838;
57.6000;0.4453;1.1713;
57.9000;0.4469;1.1788;
58.2000;0.4469;1.1813;
58.5000;0.4485;1.1788;
58.8000;0.4412;1.1639;
59.1000;0.4542;1.2062;
59.4000;0.4485;1.1963;
59.7000;0.4501;1.2062;
60.0000;0.4493;1.1987;
60.3000;0.4493;1.1913;
60.6000;0.4501;1.1888;
60.9000;0.4510;1.1888;
61.2000;0.4461;1.1713;
61.5000;0.4510;1.1938;
61.8000;0.4518;1.1963;
62.1000;0.4534;1.2037;
62.4000;0.4550;1.2062;
62.7000;0.4534;1.2037;
63.0000;0.4542;1.1938;
63.3000;0.4469;1.1763;
63.6000;0.4526;1.1813;
63.9000;0.4550;1.1813;
64.2000;0.4534;1.1863;
64.5000;0.4526;1.1888;
64.8000;0.4558;1.1813;
65.1000;0.4510;1.1639;
65.4000;0.4510;1.1763;
65.7000;0.4526;1.1813;
66.0000;0.4550;1.1763;
66.3000;0.4542;1.1663;
66.6000;0.4526;1.1614;
66.9000;0.4550;1.1614;
67.2000;0.4493;1.1414;
67.5000;0.4526;1.1514;
67.8000;0.4534;1.1539;
68.1000;0.4534;1.1589;
68.4000;0.4550;1.1614;
68.7000;0.4534;1.1564;
69.0000;0.4526;1.1614;
69.3000;0.4477;1.1514;
69.6000;0.4534;1.1614;
69.9000;0.4550;1.1663;
70.2000;0.4542;1.1564;
70.5000;0.4550;1.1439;
70.8000;0.4534;1.1414;
71.1000;0.4542;1.1464;
71.4000;0.4542;1.1489;
71.7000;0.4550;1.1464;
72.0000;0.4567;1.1539;
72.3000;0.4599;1.1489;
72.6000;0.4558;1.1464;
72.9000;0.4567;1.1539;
73.2000;0.4583;1.1564;
73.5000;0.4575;1.1464;
73.8000;0.4583;1.1439;
74.1000;0.4583;1.1489;
74.4000;0.4558;1.1414;
74.7000;0.4583;1.1489;
75.0000;0.4583;1.1489;
75.3000;0.4591;1.1464;
75.6000;0.4558;1.1489;
75.9000;0.4575;1.1564;
76.2000;0.4583;1.1614;
76.5000;0.4583;1.1589;
76.8000;0.4599;1.1564;
77.1000;0.4583;1.1514;
77.4000;0.4591;1.1564;
77.7000;0.4607;1.1614;
78.0000;0.4583;1.1539;
78.3000;0.4591;1.1589;
78.6000;0.4534;1.1514;
78.9000;0.4599;1.1713;
79.2000;0.4591;1.1788;
79.5000;0.4591;1.1738;
79.8000;0.4599;1.1663;
80.1000;0.4599;1.1738;
80.4000;0.4624;1.1838;
80.7000;0.4648;1.1938;
81.0000;0.4599;1.1788;
81.3000;0.4591;1.1813;
81.6000;0.4591;1.1788;
81.9000;0.4607;1.1813;
82.2000;0.4607;1.1788;
82.5000;0.4607;1.1738;
82.8000;0.4615;1.1688;
83.1000;0.4607;1.1589;
83.4000;0.4607;1.1564;
83.7000;0.4624;1.1639;
84.0000;0.4599;1.1688;
84.3000;0.4615;1.1663;
84.6000;0.4607;1.1614;
84.9000;0.4607;1.1564;
85.2000;0.4664;1.1688;
85.5000;0.4607;1.1514;
85.8000;0.4607;1.1564;
86.1000;0.4615;1.1589;
86.4000;0.4624;1.1614;
86.7000;0.4567;1.1414;
87.0000;0.4615;1.1539;
87.3000;0.4615;1.1564;
87.6000;0.4558;1.1464;
87.9000;0.4615;1.1589;
88.2000;0.4632;1.1614;
88.5000;0.4599;1.1489;
88.8000;0.4615;1.1514;
89.1000;0.4624;1.1564;
89.4000;0.4542;1.1389;
89.7000;0.4599;1.1514;
90.0000;0.4656;1.1589;
90.3000;0.4632;1.1539;
90.6000;0.4607;1.1414;
90.9000;0.4607;1.1315;
91.2000;0.4632;1.1364;
91.5000;0.4632;1.1364;
91.8000;0.4624;1.1315;
92.1000;0.4624;1.1265;
92.4000;0.4624;1.1290;
92.7000;0.4640;1.1339;
93.0000;0.4640;1.1315;
93.3000;0.4640;1.1265;
93.6000;0.4624;1.1190;
93.9000;0.4632;1.1315;
94.2000;0.4575;1.1065;
94.5000;0.4656;1.1389;
94.8000;0.4632;1.1315;
95.1000;0.4624;1.1339;
95.4000;0.4632;1.1364;
95.7000;0.4632;1.1414;
96.0000;0.4632;1.1464;
96.3000;0.4599;1.1364;
96.6000;0.4640;1.1439;
96.9000;0.4640;1.1439;
97.2000;0.4632;1.1315;
97.5000;0.4656;1.1290;
97.8000;0.4656;1.1240;
98.1000;0.4640;1.1315;
98.4000;0.4640;1.1364;
98.7000;0.4648;1.1265;
99.0000;0.4656;1.1389;
99.3000;0.4648;1.1489;
99.6000;0.4640;1.1564;
99.9000;0.4697;1.1688;
100.2000;0.4656;1.1663;
100.5000;0.4672;1.1688;
100.8000;0.4689;1.1663;
101.1000;0.4681;1.1713;
101.4000;0.4648;1.1614;
101.7000;0.4664;1.1639;
102.0000;0.4632;1.1564;
102.3000;0.4656;1.1788;
102.6000;0.4656;1.1688;
102.9000;0.4672;1.1713;
103.2000;0.4640;1.1639;
103.5000;0.4656;1.1614;
103.8000;0.4624;1.1489;
104.1000;0.4640;1.1489;
104.4000;0.4672;1.1639;
104.7000;0.4681;1.1713;
105.0000;0.4648;1.1713;
105.3000;0.4648;1.1663;
105.6000;0.4681;1.1688;
105.9000;0.4656;1.1639;
106.2000;0.4648;1.1564;
106.5000;0.4648;1.1564;
106.8000;0.4664;1.1589;
107.1000;0.4664;1.1663;
107.4000;0.4656;1.1589;
107.7000;0.4656;1.1639;
108.0000;0.4664;1.1688;
108.3000;0.4664;1.1688;
108.6000;0.4648;1.1639;
108.9000;0.4664;1.1663;
109.2000;0.4672;1.1663;
109.5000;0.4648;1.1589;
109.8000;0.4648;1.1688;
110.1000;0.4648;1.1763;
110.4000;0.4640;1.1713;
110.7000;0.4664;1.1863;
111.0000;0.4648;1.1813;
111.3000;0.4648;1.1813;
111.6000;0.4672;1.1888;
111.9000;0.4656;1.1838;
112.2000;0.4656;1.1763;
112.5000;0.4672;1.1614;
112.8000;0.4697;1.1663;
113.1000;0.4664;1.1614;
113.4000;0.4689;1.1639;
113.7000;0.4754;1.1838;
114.0000;0.4664;1.1464;
114.3000;0.4656;1.1489;
114.6000;0.4681;1.1514;
114.9000;0.4664;1.1414;
115.2000;0.4648;1.1464;
115.5000;0.4640;1.1464;
115.8000;0.4656;1.1464;
116.1000;0.4648;1.1439;
116.4000;0.4648;1.1439;
116.7000;0.4656;1.1489;
117.0000;0.4656;1.1464;
117.3000;0.4697;1.1663;
117.6000;0.4656;1.1589;
117.9000;0.4664;1.1663;
118.2000;0.4664;1.1663;
118.5000;0.4664;1.1663;
118.8000;0.4575;1.1364;
119.1000;0.4672;1.1663;
119.4000;0.4591;1.1489;
119.7000;0.4656;1.1713;
120.0000;0.4640;1.1663;
120.3000;0.4648;1.1788;
120.6000;0.4648;1.1888;
120.9000;0.4672;1.1788;
121.2000;0.4656;1.1663;
121.5000;0.4656;1.1663;
121.8000;0.4664;1.1688;
122.1000;0.4664;1.1738;
122.4000;0.4656;1.1763;
122.7000;0.4672;1.1763;
123.0000;0.4656;1.1813;
123.3000;0.4672;1.1913;
123.6000;0.4656;1.1838;
123.9000;0.4681;1.1863;
124.2000;0.4664;1.1813;
124.5000;0.4672;1.1763;
124.8000;0.4689;1.1813;
125.1000;0.4640;1.1639;
125.4000;0.4664;1.1564;
125.7000;0.4648;1.1564;
126.0000;0.4681;1.1639;
126.3000;0.4672;1.1614;
126.6000;0.4656;1.1589;
126.9000;0.4656;1.1539;
127.2000;0.4664;1.1589;
127.5000;0.4672;1.1514;
127.8000;0.4656;1.1589;
128.1000;0.4664;1.1614;
128.4000;0.4672;1.1614;
128.7000;0.4664;1.1614;
129.0000;0.4615;1.1489;
129.3000;0.4664;1.1614;
129.6000;0.4672;1.1663;
129.9000;0.4664;1.1539;
130.2000;0.4729;1.1788;
130.5000;0.4656;1.1539;
130.8000;0.4640;1.1614;
131.1000;0.4664;1.1738;
131.4000;0.4664;1.1738;
131.7000;0.4681;1.1738;
132.0000;0.4689;1.1763;
132.3000;0.4681;1.1738;
132.6000;0.4681;1.1738;
132.9000;0.4664;1.1763;
133.2000;0.4681;1.1763;
133.5000;0.4689;1.1813;
133.8000;0.4664;1.1788;
134.1000;0.4672;1.1863;
134.4000;0.4681;1.1888;
134.7000;0.4681;1.1838;
135.0000;0.4672;1.1888;
135.3000;0.4672;1.1838;
135.6000;0.4664;1.1838;
135.9000;0.4648;1.1763;
136.2000;0.4664;1.1838;
136.5000;0.4664;1.1763;
136.8000;0.4656;1.1738;
137.1000;0.4664;1.1763;
137.4000;0.4672;1.1888;
137.7000;0.4567;1.1688;
138.0000;0.4681;1.1987;
138.3000;0.4640;1.1888;
138.6000;0.4672;1.1938;
138.9000;0.4681;1.1963;
139.2000;0.4656;1.1813;
139.5000;0.4656;1.1838;
139.8000;0.4681;1.1838;
140.1000;0.4664;1.1813;
140.4000;0.4664;1.1838;
140.7000;0.4721;1.1987;
141.0000;0.4640;1.1788;
141.3000;0.4672;1.1987;
141.6000;0.4664;1.1987;
141.9000;0.4664;1.1987;
142.2000;0.4672;1.1888;
142.5000;0.4615;1.1788;
142.8000;0.4672;1.1888;
143.1000;0.4746;1.2137;
143.4000;0.4632;1.1713;
143.7000;0.4672;1.1838;
144.0000;0.4681;1.1838;
144.3000;0.4672;1.1813;
144.6000;0.4648;1.1763;
144.9000;0.4681;1.1813;
145.2000;0.4697;1.1888;
145.5000;0.4664;1.1838;
145.8000;0.4689;1.1838;
146.1000;0.4656;1.1738;
146.4000;0.4681;1.1788;
146.7000;0.4664;1.1713;
147.0000;0.4664;1.1713;
147.3000;0.4664;1.1688;
147.6000;0.4672;1.1713;
147.9000;0.4672;1.1614;
148.2000;0.4681;1.1663;
148.5000;0.4672;1.1663;
148.8000;0.4672;1.1688;
149.1000;0.4664;1.1688;
149.4000;0.4672;1.1738;
149.7000;0.4664;1.1713;
150.0000;0.4656;1.1713;
150.3000;0.4648;1.1688;
150.6000;0.4664;1.1738;
150.9000;0.4664;1.1713;
151.2000;0.4648;1.1713;
151.5000;0.4681;1.1838;
151.8000;0.4664;1.1788;
152.1000;0.4607;1.1614;
152.4000;0.4681;1.1713;
152.7000;0.4672;1.1713;
153.0000;0.4664;1.1738;
153.3000;0.4672;1.1738;
153.6000;0.4664;1.1713;
153.9000;0.4664;1.1639;
154.2000;0.4672;1.1539;
154.5000;0.4664;1.1614;
154.8000;0.4681;1.1614;
155.1000;0.4664;1.1614;
155.4000;0.4648;1.1663;
155.7000;0.4640;1.1663;
156.0000;0.4640;1.1713;
156.3000;0.4664;1.1713;
156.6000;0.4656;1.1713;
156.9000;0.4648;1.1738;
157.2000;0.4607;1.1589;
157.5000;0.4681;1.1738;
157.8000;0.4664;1.1688;
158.1000;0.4681;1.1713;
158.4000;0.4656;1.1639;
158.7000;0.4632;1.1564;
159.0000;0.4672;1.1688;
159.3000;0.4664;1.1639;
159.6000;0.4664;1.1663;
159.9000;0.4648;1.1639;
160.2000;0.4672;1.1639;
160.5000;0.4681;1.1614;
160.8000;0.4615;1.1539;
161.1000;0.4640;1.1639;
161.4000;0.4664;1.1639;
161.7000;0.4648;1.1564;
162.0000;0.4672;1.1464;
162.3000;0.4664;1.1514;
162.6000;0.4664;1.1514;
162.9000;0.4664;1.1489;
163.2000;0.4664;1.1489;
163.5000;0.4648;1.1439;
163.8000;0.4648;1.1489;
164.1000;0.4664;1.1639;
164.4000;0.4656;1.1688;
164.7000;0.4672;1.1639;
165.0000;0.4664;1.1614;
165.3000;0.4664;1.1514;
165.6000;0.4656;1.1439;
165.9000;0.4729;1.1663;
166.2000;0.4656;1.1414;
166.5000;0.4656;1.1364;
166.8000;0.4672;1.1439;
167.1000;0.4648;1.1439;
167.4000;0.4648;1.1464;
167.7000;0.4664;1.1564;
168.0000;0.4664;1.1639;
168.3000;0.4672;1.1713;
168.6000;0.4664;1.1663;
168.9000;0.4664;1.1663;
169.2000;0.4664;1.1639;
169.5000;0.4672;1.1688;
169.8000;0.4672;1.1639;
170.1000;0.4664;1.1639;
170.4000;0.4656;1.1614;
170.7000;0.4656;1.1589;
171.0000;0.4640;1.1564;
171.3000;0.4648;1.1564;
171.6000;0.4648;1.1663;
171.9000;0.4672;1.1763;
172.2000;0.4648;1.1688;
172.5000;0.4656;1.1688;
172.8000;0.4672;1.1663;
173.1000;0.4632;1.1663;
173.4000;0.4656;1.1763;
173.7000;0.4664;1.1713;
174.0000;0.4681;1.1713;
174.3000;0.4664;1.1589;
174.6000;0.4664;1.1564;
174.9000;0.4656;1.1514;
175.2000;0.4697;1.1639;
175.5000;0.4672;1.1614;
175.8000;0.4664;1.1639;
176.1000;0.4672;1.1639;
176.4000;0.4656;1.1663;
176.7000;0.4656;1.1688;
177.0000;0.4656;1.1589;
177.3000;0.4672;1.1514;
177.6000;0.4648;1.1464;
177.9000;0.4656;1.1364;
178.2000;0.4648;1.1315;
178.5000;0.4648;1.1339;
178.8000;0.4648;1.1464;
179.1000;0.4607;1.1414;
179.4000;0.4672;1.1539;
179.7000;0.4664;1.1489;
180.0000;0.4656;1.1464;
180.3000;0.4721;1.1614;
180.6000;0.4656;1.1439;
180.9000;0.4664;1.1489;
181.2000;0.4754;1.1813;
181.5000;0.4648;1.1514;
181.8000;0.4615;1.1564;
182.1000;0.4656;1.1639;
182.4000;0.4664;1.1589;
182.7000;0.4648;1.1639;
183.0000;0.4729;1.1938;
183.3000;0.4632;1.1639;
183.6000;0.4640;1.1614;
183.9000;0.4697;1.1639;
184.2000;0.4672;1.1663;
184.5000;0.4664;1.1663;
184.8000;0.4640;1.1564;
185.1000;0.4640;1.1614;
185.4000;0.4648;1.1589;
185.7000;0.4648;1.1514;
186.0000;0.4640;1.1514;
186.3000;0.4640;1.1514;
186.6000;0.4656;1.1564;
186.9000;0.4648;1.1564;
187.2000;0.4648;1.1589;
187.5000;0.4648;1.1614;
187.8000;0.4656;1.1564;
188.1000;0.4656;1.1589;
188.4000;0.4656;1.1614;
188.7000;0.4656;1.1614;
189.0000;0.4599;1.1489;
189.3000;0.4656;1.1639;
189.6000;0.4664;1.1688;
189.9000;0.4648;1.1738;
190.2000;0.4632;1.1639;
190.5000;0.4648;1.1639;
190.8000;0.4648;1.1564;
191.1000;0.4648;1.1614;
191.4000;0.4640;1.1614;
191.7000;0.4648;1.1589;
192.0000;0.4664;1.1663;
192.3000;0.4664;1.1738;
192.6000;0.4664;1.1688;
192.9000;0.4656;1.1713;
193.2000;0.4664;1.1738;
193.5000;0.4656;1.1688;
193.8000;0.4656;1.1539;
194.1000;0.4664;1.1489;
194.4000;0.4681;1.1539;
194.7000;0.4672;1.1514;
195.0000;0.4656;1.1514;
195.3000;0.4648;1.1539;
195.6000;0.4664;1.1539;
195.9000;0.4656;1.1589;
196.2000;0.4648;1.1564;
196.5000;0.4648;1.1539;
196.8000;0.4648;1.1639;
197.1000;0.4656;1.1614;
197.4000;0.4656;1.1589;
197.7000;0.4542;1.1265;
198.0000;0.4656;1.1589;
198.3000;0.4672;1.1639;
198.6000;0.4664;1.1663;
198.9000;0.4656;1.1713;
199.2000;0.4648;1.1688;
199.5000;0.4664;1.1713;
199.8000;0.4656;1.1663;
200.1000;0.4656;1.1663;
200.4000;0.4648;1.1663;
200.7000;0.4648;1.1639;
201.0000;0.4648;1.1639;
201.3000;0.4624;1.1464;
201.6000;0.4640;1.1489;
201.9000;0.4664;1.1614;
202.2000;0.4672;1.1738;
202.5000;0.4689;1.1763;
202.8000;0.4656;1.1738;
203.1000;0.4713;1.1963;
203.4000;0.4632;1.1763;
203.7000;0.4648;1.1788;
204.0000;0.4656;1.1813;
204.3000;0.4640;1.1813;
204.6000;0.4640;1.1813;
204.9000;0.4664;1.1763;
205.2000;0.4640;1.1713;
205.5000;0.4640;1.1738;
205.8000;0.4656;1.1713;
206.1000;0.4648;1.1688;
206.4000;0.4664;1.1663;
206.7000;0.4664;1.1639;
207.0000;0.4656;1.1688;
207.3000;0.4607;1.1663;
207.6000;0.4648;1.1763;
207.9000;0.4664;1.1813;
208.2000;0.4656;1.1788;
208.5000;0.4656;1.1813;
208.8000;0.4648;1.1788;
209.1000;0.4664;1.1913;
209.4000;0.4648;1.1938;
209.7000;0.4648;1.1938;
210.0000;0.4729;1.2162;
210.3000;0.4591;1.1738;
210.6000;0.4656;1.1888;
210.9000;0.4648;1.2012;
211.2000;0.4632;1.1913;
211.5000;0.4640;1.1913;
211.8000;0.4640;1.1888;
212.1000;0.4648;1.1863;
212.4000;0.4656;1.1913;
212.7000;0.4672;1.1913;
213.0000;0.4672;1.1913;
213.3000;0.4648;1.1788;
213.6000;0.4640;1.1713;
213.9000;0.4656;1.1788;
214.2000;0.4640;1.1688;
214.5000;0.4640;1.1713;
214.8000;0.4656;1.1788;
215.1000;0.4664;1.1763;
215.4000;0.4648;1.1713;
215.7000;0.4640;1.1614;
216.0000;0.4648;1.1663;
216.3000;0.4648;1.1713;
216.6000;0.4681;1.1838;
216.9000;0.4640;1.1688;
217.2000;0.4607;1.1639;
217.5000;0.4664;1.1763;
217.8000;0.4648;1.1813;
218.1000;0.4640;1.1738;
218.4000;0.4632;1.1713;
218.7000;0.4656;1.1688;
219.0000;0.4656;1.1713;
219.3000;0.4648;1.1788;
219.6000;0.4640;1.1738;
219.9000;0.4648;1.1688;
220.2000;0.4672;1.1713;
220.5000;0.4656;1.1788;
220.8000;0.4624;1.1713;
221.1000;0.4640;1.1738;
221.4000;0.4656;1.1763;
221.7000;0.4640;1.1763;
222.0000;0.4664;1.1838;
222.3000;0.4648;1.1788;
222.6000;0.4664;1.1838;
222.9000;0.4648;1.1838;
223.2000;0.4640;1.1863;
223.5000;0.4656;1.1888;
223.8000;0.4656;1.1813;
224.1000;0.4648;1.1738;
224.4000;0.4648;1.1763;
224.7000;0.4640;1.1788;
225.0000;0.4648;1.1888;
225.3000;0.4656;1.1838;
225.6000;0.4640;1.1863;
225.9000;0.4624;1.1788;
226.2000;0.4640;1.1813;
226.5000;0.4648;1.1738;
226.8000;0.4648;1.1813;
227.1000;0.4648;1.1813;
227.4000;0.4607;1.1763;
227.7000;0.4648;1.1813;
228.0000;0.4648;1.1913;
228.3000;0.4656;1.1963;
228.6000;0.4648;1.1963;
228.9000;0.4640;1.1963;
229.2000;0.4648;1.2012;
229.5000;0.4648;1.2087;
229.8000;0.4640;1.1987;
230.1000;0.4664;1.2012;
230.4000;0.4672;1.2037;
230.7000;0.4640;1.1938;
231.0000;0.4648;1.1863;
231.3000;0.4624;1.1888;
231.6000;0.4664;1.1987;
231.9000;0.4640;1.1888;
232.2000;0.4624;1.1813;
232.5000;0.4632;1.1838;
232.8000;0.4624;1.1788;
233.1000;0.4599;1.1763;
233.4000;0.4632;1.1913;
233.7000;0.4640;1.1913;
234.0000;0.4656;1.1938;
234.3000;0.4640;1.1913;
234.6000;0.4648;1.1863;
234.9000;0.4583;1.1663;
235.2000;0.4632;1.1888;
235.5000;0.4697;1.2012;
235.8000;0.4640;1.1863;
236.1000;0.4656;1.1863;
236.4000;0.4672;1.1888;
236.7000;0.4624;1.1763;
237.0000;0.4681;1.1863;
237.3000;0.4640;1.1763;
237.6000;0.4632;1.1639;
237.9000;0.4632;1.1663;
238.2000;0.4656;1.1713;
238.5000;0.4615;1.1663;
238.8000;0.4624;1.1589;
239.1000;0.4697;1.1788;
239.4000;0.4624;1.1639;
239.7000;0.4648;1.1688;
240.0000;0.4656;1.1713;
240.3000;0.4615;1.1639;
240.6000;0.4648;1.1663;
240.9000;0.4632;1.1688;
241.2000;0.4640;1.1763;
241.5000;0.4624;1.1713;
241.8000;0.4640;1.1788;
242.1000;0.4624;1.1738;
242.4000;0.4656;1.1738;
242.7000;0.4632;1.1763;
243.0000;0.4648;1.1813;
243.3000;0.4656;1.1763;
243.6000;0.4648;1.1713;
243.9000;0.4640;1.1663;
244.2000;0.4648;1.1663;
244.5000;0.4632;1.1688;
244.8000;0.4632;1.1688;
245.1000;0.4640;1.1663;
245.4000;0.4640;1.1688;
245.7000;0.4640;1.1663;
246.0000;0.4664;1.1763;
246.3000;0.4640;1.1813;
246.6000;0.4624;1.1788;
246.9000;0.4624;1.1738;
247.2000;0.4632;1.1663;
247.5000;0.4624;1.1713;
247.8000;0.4632;1.1813;
248.1000;0.4632;1.1713;
248.4000;0.4583;1.1564;
248.7000;0.4615;1.1738;
249.0000;0.4648;1.1813;
249.3000;0.4632;1.1888;
249.6000;0.4583;1.1788;
249.9000;0.4632;1.1938;
250.2000;0.4672;1.2012;
250.5000;0.4640;1.1938;
250.8000;0.4632;1.1963;
251.1000;0.4632;1.1938;
251.4000;0.4664;1.2112;
251.7000;0.4599;1.1888;
252.0000;0.4624;1.1838;
252.3000;0.4640;1.1838;
252.6000;0.4607;1.1614;
252.9000;0.4615;1.1614;
253.2000;0.4632;1.1614;
253.5000;0.4632;1.1564;
253.8000;0.4607;1.1514;
254.1000;0.4640;1.1564;
254.4000;0.4632;1.1564;
254.7000;0.4607;1.1514;
255.0000;0.4615;1.1738;
255.3000;0.4575;1.1688;
255.6000;0.4615;1.1763;
255.9000;0.4575;1.1539;
256.2000;0.4615;1.1639;
256.5000;0.4681;1.1813;
256.8000;0.4640;1.1614;
257.1000;0.4632;1.1663;
257.4000;0.4648;1.1738;
257.7000;0.4624;1.1589;
258.0000;0.4615;1.1589;
258.3000;0.4656;1.1763;
258.6000;0.4632;1.1738;
258.9000;0.4640;1.1738;
259.2000;0.4624;1.1713;
259.5000;0.4648;1.1763;
259.8000;0.4615;1.1688;
260.1000;0.4615;1.1863;
260.4000;0.4624;1.1938;
260.7000;0.4640;1.1963;
261.0000;0.4632;1.1913;
261.3000;0.4591;1.1763;
261.6000;0.4640;1.1838;
261.9000;0.4624;1.1788;
262.2000;0.4632;1.1838;
262.5000;0.4615;1.1813;
262.8000;0.4607;1.1788;
263.1000;0.4632;1.1888;
263.4000;0.4624;1.1963;
263.7000;0.4640;1.1963;
264.0000;0.4632;1.1838;
264.3000;0.4648;1.1888;
264.6000;0.4640;1.1838;
264.9000;0.4632;1.1738;
265.2000;0.4632;1.1763;
265.5000;0.4624;1.1788;
265.8000;0.4721;1.2062;
266.1000;0.4632;1.1813;
266.4000;0.4615;1.1838;
266.7000;0.4567;1.1663;
267.0000;0.4632;1.1963;
267.3000;0.4632;1.1888;
267.6000;0.4632;1.1963;
267.9000;0.4615;1.1913;
268.2000;0.4599;1.1888;
268.5000;0.4624;1.1938;
268.8000;0.4624;1.1938;
269.1000;0.4615;1.1838;
269.4000;0.4632;1.1788;
269.7000;0.4632;1.1788;
270.0000;0.4632;1.1813;
270.3000;0.4599;1.1713;
270.6000;0.4599;1.1763;
270.9000;0.4624;1.1863;
271.2000;0.4615;1.1888;
271.5000;0.4615;1.1838;
271.8000;0.4624;1.1813;
272.1000;0.4624;1.1863;
272.4000;0.4615;1.1838;
272.7000;0.4599;1.1838;
273.0000;0.4648;1.1888;
273.3000;0.4648;1.1838;
273.6000;0.4640;1.1813;
273.9000;0.4615;1.1738;
274.2000;0.4624;1.1763;
274.5000;0.4632;1.1788;
274.8000;0.4632;1.1788;
275.1000;0.4640;1.1763;
275.4000;0.4721;1.2137;
275.7000;0.4599;1.1738;
276.0000;0.4656;1.1788;
276.3000;0.4624;1.1688;
276.6000;0.4615;1.1663;
276.9000;0.4615;1.1589;
277.2000;0.4632;1.1688;
277.5000;0.4624;1.1763;
277.8000;0.4607;1.1688;
278.1000;0.4583;1.1639;
278.4000;0.4640;1.1938;
278.7000;0.4648;1.2012;
279.0000;0.4534;1.1738;
279.3000;0.4664;1.2012;
279.6000;0.4632;1.1838;
279.9000;0.4640;1.1963;
280.2000;0.4607;1.1738;
280.5000;0.4615;1.1738;
280.8000;0.4615;1.1763;
281.1000;0.4615;1.1763;
281.4000;0.4624;1.1788;
281.7000;0.4615;1.1688;
282.0000;0.4558;1.1489;
282.3000;0.4632;1.1763;
282.6000;0.4615;1.1713;
282.9000;0.4624;1.1788;
283.2000;0.4632;1.1863;
283.5000;0.4615;1.1838;
283.8000;0.4632;1.1838;
284.1000;0.4558;1.1614;
284.4000;0.4607;1.1788;
284.7000;0.4615;1.1813;
285.0000;0.4567;1.1663;
285.3000;0.4624;1.1763;
285.6000;0.4615;1.1763;
285.9000;0.4615;1.1763;
286.2000;0.4615;1.1788;
286.5000;0.4615;1.1713;
286.8000;0.4599;1.1639;
287.1000;0.4615;1.1614;
287.4000;0.4607;1.1564;
287.7000;0.4640;1.1589;
288.0000;0.4591;1.1514;
288.3000;0.4615;1.1688;
288.6000;0.4640;1.1738;
288.9000;0.4624;1.1788;
289.2000;0.4656;1.1938;
289.5000;0.4640;1.1813;
289.8000;0.4615;1.1838;
290.1000;0.4607;1.1838;
290.4000;0.4640;1.2037;
290.7000;0.4607;1.2012;
291.0000;0.4615;1.2037;
291.3000;0.4632;1.1987;
291.6000;0.4534;1.1788;
291.9000;0.4599;1.1938;
292.2000;0.4607;1.1913;
292.5000;0.4615;1.1913;
292.8000;0.4632;1.2012;
293.1000;0.4607;1.1863;
293.4000;0.4648;1.1963;
293.7000;0.4632;1.2012;
294.0000;0.4632;1.2037;
294.3000;0.4615;1.1987;
294.6000;0.4624;1.2037;
294.9000;0.4624;1.1938;
295.2000;0.4632;1.1913;
295.5000;0.4624;1.1913;
295.8000;0.4640;1.1888;
296.1000;0.4632;1.1838;
296.4000;0.4615;1.1838;
296.7000;0.4632;1.1888;
297.0000;0.4607;1.1813;
297.3000;0.4591;1.1813;
297.6000;0.4624;1.1913;
297.9000;0.4599;1.1813;
298.2000;0.4558;1.1813;
298.5000;0.4656;1.2012;
298.8000;0.4575;1.1788;
299.1000;0.4607;1.1813;
299.4000;0.4624;1.1863;
299.7000;0.4615;1.1788;
300.0000;0.4632;1.1813;
300.3000;0.4615;1.1813;
300.6000;0.4607;1.1763;
300.9000;0.4632;1.1813;
301.2000;0.4615;1.1863;
301.5000;0.4624;1.1938;
301.8000;0.4615;1.1788;
302.1000;0.4567;1.1663;
302.4000;0.4607;1.1763;
302.7000;0.4624;1.1838;
303.0000;0.4599;1.1838;
303.3000;0.4624;1.1838;
303.6000;0.4607;1.1788;
303.9000;0.4607;1.1813;
304.2000;0.4648;1.1938;
304.5000;0.4591;1.1788;
304.8000;0.4607;1.1813;
305.1000;0.4607;1.1788;
305.4000;0.4599;1.1788;
305.7000;0.4615;1.1863;
306.0000;0.4615;1.1987;
306.3000;0.4615;1.1963;
306.6000;0.4624;1.2037;
306.9000;0.4599;1.1938;
307.2000;0.4591;1.1987;
307.5000;0.4591;1.1963;
307.8000;0.4607;1.1913;
308.1000;0.4615;1.1863;
308.4000;0.4599;1.1813;
308.7000;0.4607;1.1788;
309.0000;0.4615;1.1788;
309.3000;0.4599;1.1738;
309.6000;0.4599;1.1738;
309.9000;0.4599;1.1813;
310.2000;0.4615;1.2087;
310.5000;0.4615;1.2112;
310.8000;0.4615;1.2112;
311.1000;0.4591;1.2012;
311.4000;0.4583;1.2012;
311.7000;0.4664;1.2187;
312.0000;0.4591;1.1963;
312.3000;0.4583;1.1913;
312.6000;0.4599;1.1963;
312.9000;0.4583;1.1913;
313.2000;0.4575;1.1987;
313.5000;0.4607;1.2012;
313.8000;0.4591;1.1987;
314.1000;0.4615;1.1963;
314.4000;0.4615;1.1987;
314.7000;0.4591;1.1938;
315.0000;0.4607;1.1888;
315.3000;0.4607;1.1888;
315.6000;0.4607;1.1913;
315.9000;0.4575;1.1863;
316.2000;0.4607;1.1913;
316.5000;0.4607;1.1938;
316.8000;0.4607;1.1938;
317.1000;0.4607;1.1938;
317.4000;0.4599;1.1913;
317.7000;0.4607;1.2037;
318.0000;0.4607;1.2012;
318.3000;0.4599;1.1987;
318.6000;0.4607;1.2037;
318.9000;0.4591;1.1888;
319.2000;0.4632;1.1913;
319.5000;0.4624;1.1913;
319.8000;0.4550;1.1713;
320.1000;0.4599;1.1888;
320.4000;0.4624;1.2037;
320.7000;0.4591;1.1963;
321.0000;0.4607;1.1987;
321.3000;0.4591;1.1913;
321.6000;0.4599;1.1888;
321.9000;0.4599;1.1788;
322.2000;0.4648;1.1913;
322.5000;0.4591;1.1713;
322.8000;0.4599;1.1713;
323.1000;0.4607;1.1788;
323.4000;0.4607;1.1813;
323.7000;0.4607;1.1838;
324.0000;0.4624;1.1888;
324.3000;0.4615;1.1938;
324.6000;0.4615;1.1963;
324.9000;0.4615;1.1963;
325.2000;0.4607;1.1938;
325.5000;0.4624;1.2062;
325.8000;0.4640;1.2012;
326.1000;0.4607;1.1938;
326.4000;0.4599;1.1938;
326.7000;0.4607;1.1987;
327.0000;0.4615;1.1987;
327.3000;0.4599;1.1963;
327.6000;0.4591;1.1888;
327.9000;0.4615;1.1963;
328.2000;0.4599;1.1938;
328.5000;0.4542;1.1763;
328.8000;0.4624;1.2012;
329.1000;0.4591;1.1863;
329.4000;0.4583;1.1913;
329.7000;0.4599;1.1938;
330.0000;0.4583;1.1838;
330.3000;0.4591;1.1913;
330.6000;0.4583;1.1963;
330.9000;0.4591;1.1938;
331.2000;0.4591;1.1888;
331.5000;0.4493;1.1564;
331.8000;0.4599;1.1838;
332.1000;0.4615;1.1938;
332.4000;0.4607;1.1987;
332.7000;0.4583;1.1888;
333.0000;0.4607;1.1938;
333.3000;0.4599;1.1813;
333.6000;0.4583;1.1763;
333.9000;0.4599;1.1738;
334.2000;0.4599;1.1763;
334.5000;0.4607;1.1838;
334.8000;0.4607;1.1838;
335.1000;0.4599;1.1763;
335.4000;0.4607;1.1738;
335.7000;0.4591;1.1589;
336.0000;0.4591;1.1489;
336.3000;0.4591;1.1564;
336.6000;0.4591;1.1539;
336.9000;0.4583;1.1514;
337.2000;0.4591;1.1564;
337.5000;0.4583;1.1614;
337.8000;0.4575;1.1639;
338.1000;0.4567;1.1663;
338.4000;0.4583;1.1788;
338.7000;0.4575;1.1763;
339.0000;0.4591;1.1813;
339.3000;0.4599;1.1913;
339.6000;0.4615;1.1987;
339.9000;0.4599;1.1963;
340.2000;0.4599;1.2012;
340.5000;0.4591;1.2037;
340.8000;0.4599;1.1963;
341.1000;0.4615;1.2012;
341.4000;0.4575;1.1913;
341.7000;0.4591;1.1863;
342.0000;0.4591;1.1913;
342.3000;0.4558;1.1888;
342.6000;0.4583;1.1963;
342.9000;0.4575;1.1963;
343.2000;0.4591;1.1863;
343.5000;0.4599;1.1838;
343.8000;0.4591;1.1763;
344.1000;0.4583;1.1738;
344.4000;0.4558;1.1713;
344.7000;0.4575;1.1763;
345.0000;0.4607;1.1788;
345.3000;0.4607;1.1738;
345.6000;0.4615;1.1713;
345.9000;0.4599;1.1688;
346.2000;0.4599;1.1738;
346.5000;0.4591;1.1763;
346.8000;0.4599;1.1713;
347.1000;0.4599;1.1713;
347.4000;0.4624;1.1813;
347.7000;0.4558;1.1663;
348.0000;0.4599;1.1838;
348.3000;0.4615;1.1813;
348.6000;0.4599;1.1738;
348.9000;0.4591;1.1738;
349.2000;0.4583;1.1788;
349.5000;0.4583;1.1813;
349.8000;0.4583;1.1713;
350.1000;0.4591;1.1663;
350.4000;0.4599;1.1713;
350.7000;0.4591;1.1713;
351.0000;0.4607;1.1813;
351.3000;0.4575;1.1863;
351.6000;0.4583;1.1888;
351.9000;0.4550;1.1788;
352.2000;0.4591;1.1888;
352.5000;0.4526;1.1763;
352.8000;0.4583;1.1938;
353.1000;0.4542;1.1763;
353.4000;0.4575;1.1838;
353.7000;0.4599;1.1888;
354.0000;0.4583;1.1863;
354.3000;0.4575;1.1938;
354.6000;0.4591;1.1963;
354.9000;0.4624;1.1963;
355.2000;0.4591;1.1888;
355.5000;0.4591;1.1888;
355.8000;0.4599;1.1888;
356.1000;0.4607;1.1863;
356.4000;0.4591;1.1813;
356.7000;0.4575;1.1788;
357.0000;0.4575;1.1738;
357.3000;0.4575;1.1788;
357.6000;0.4591;1.1863;
357.9000;0.4575;1.1813;
358.2000;0.4583;1.1963;
358.5000;0.4591;1.2112;
358.8000;0.4624;1.2137;
359.1000;0.4599;1.2062;
359.4000;0.4591;1.2087;
359.7000;0.4607;1.2187;
360.0000;0.4591;1.2162;
360.3000;0.4607;1.2112;
360.6000;0.4599;1.2012;
360.9000;0.4607;1.2037;
361.2000;0.4607;1.1963;
361.5000;0.4583;1.1888;
361.8000;0.4599;1.1888;
362.1000;0.4591;1.1888;
362.4000;0.4583;1.1888;
362.7000;0.4542;1.1763;
363.0000;0.4591;1.1987;
363.3000;0.4567;1.2012;
363.6000;0.4591;1.2012;
363.9000;0.4640;1.2137;
364.2000;0.4567;1.1963;
364.5000;0.4575;1.2062;
364.8000;0.4583;1.2012;
365.1000;0.4591;1.2062;
365.4000;0.4575;1.2037;
365.7000;0.4583;1.2012;
366.0000;0.4583;1.1987;
366.3000;0.4591;1.2012;
366.6000;0.4567;1.2012;
366.9000;0.4583;1.2037;
367.2000;0.4567;1.2012;
367.5000;0.4583;1.1963;
367.8000;0.4591;1.1838;
368.1000;0.4558;1.1713;
368.4000;0.4526;1.1589;
368.7000;0.4558;1.1713;
369.0000;0.4591;1.1813;
369.3000;0.4567;1.1788;
369.6000;0.4591;1.1863;
369.9000;0.4607;1.1938;
370.2000;0.4575;1.1838;
370.5000;0.4599;1.1913;
370.8000;0.4542;1.1788;
371.1000;0.4583;1.1913;
371.4000;0.4632;1.2062;
371.7000;0.4591;1.1938;
372.0000;0.4591;1.1987;
372.3000;0.4591;1.1838;
372.6000;0.4599;1.1888;
372.9000;0.4583;1.1838;
373.2000;0.4591;1.1813;
373.5000;0.4640;1.1938;
373.8000;0.4583;1.1788;
374.1000;0.4591;1.1813;
374.4000;0.4591;1.1813;
374.7000;0.4575;1.1788;
375.0000;0.4558;1.1713;
375.3000;0.4493;1.1514;
375.6000;0.4583;1.1788;
375.9000;0.4583;1.1838;
376.2000;0.4599;1.1987;
376.5000;0.4567;1.1987;
376.8000;0.4583;1.2037;
377.1000;0.4575;1.2037;
377.4000;0.4583;1.2037;
377.7000;0.4583;1.2012;
378.0000;0.4607;1.2062;
378.3000;0.4567;1.2012;
378.6000;0.4575;1.2037;
378.9000;0.4591;1.2087;
379.2000;0.4599;1.2112;
379.5000;0.4575;1.1987;
379.8000;0.4575;1.1913;
380.1000;0.4583;1.2012;
380.4000;0.4599;1.2037;
380.7000;0.4558;1.1938;
381.0000;0.4591;1.2037;
381.3000;0.4583;1.2062;
381.6000;0.4591;1.2012;
381.9000;0.4591;1.2037;
382.2000;0.4567;1.2037;
382.5000;0.4583;1.2037;
382.8000;0.4575;1.2012;
383.1000;0.4575;1.2012;
383.4000;0.4567;1.1938;
383.7000;0.4567;1.1938;
384.0000;0.4575;1.1913;
384.3000;0.4599;1.2087;
384.6000;0.4575;1.2012;
384.9000;0.4583;1.1987;
385.2000;0.4583;1.1888;
385.5000;0.4575;1.1863;
385.8000;0.4583;1.1888;
386.1000;0.4583;1.1963;
386.4000;0.4575;1.1938;
386.7000;0.4583;1.1888;
387.0000;0.4583;1.1913;
387.3000;0.4575;1.1938;
387.6000;0.4567;1.1963;
387.9000;0.4575;1.1938;
388.2000;0.4567;1.1888;
388.5000;0.4550;1.1888;
388.8000;0.4550;1.1888;
389.1000;0.4575;1.1838;
389.4000;0.4599;1.1938;
389.7000;0.4583;1.1888;
390.0000;0.4583;1.1913;
390.3000;0.4591;1.1963;
390.6000;0.4583;1.1963;
390.9000;0.4550;1.1913;
391.2000;0.4583;1.1938;
391.5000;0.4575;1.1788;
391.8000;0.4567;1.1888;
392.1000;0.4599;1.1987;
392.4000;0.4583;1.1963;
392.7000;0.4615;1.2137;
393.0000;0.4575;1.1963;
393.3000;0.4575;1.1888;
393.6000;0.4583;1.1938;
393.9000;0.4469;1.1639;
394.2000;0.4591;1.1888;
394.5000;0.4591;1.1863;
394.8000;0.4575;1.1963;
395.1000;0.4591;1.1938;
395.4000;0.4575;1.1888;
395.7000;0.4485;1.1639;
396.0000;0.4558;1.1838;
396.3000;0.4583;1.1963;
396.6000;0.4567;1.1963;
396.9000;0.4469;1.1713;
397.2000;0.4575;1.1963;
397.5000;0.4583;1.2037;
397.8000;0.4575;1.2062;
398.1000;0.4575;1.2037;
398.4000;0.4583;1.2087;
398.7000;0.4583;1.1987;
399.0000;0.4664;1.2262;
399.3000;0.4591;1.2037;
399.6000;0.4575;1.2112;
399.9000;0.4567;1.2037;
400.2000;0.4567;1.2012;
400.5000;0.4583;1.1987;
400.8000;0.4567;1.1938;
401.1000;0.4583;1.1987;
401.4000;0.4575;1.1913;
401.7000;0.4567;1.1963;
402.0000;0.4567;1.2062;
402.3000;0.4567;1.2087;
402.6000;0.4567;1.2012;
402.9000;0.4567;1.2012;
403.2000;0.4567;1.2037;
403.5000;0.4583;1.2062;
403.8000;0.4583;1.1987;
404.1000;0.4583;1.1963;
404.4000;0.4583;1.1987;
404.7000;0.4583;1.2012;
405.0000;0.4591;1.2012;
405.3000;0.4591;1.2112;
405.6000;0.4615;1.2187;
405.9000;0.4575;1.2037;
406.2000;0.4583;1.2012;
406.5000;0.4575;1.1913;
406.8000;0.4591;1.1838;
407.1000;0.4599;1.1938;
407.4000;0.4558;1.1863;
407.7000;0.4558;1.1913;
408.0000;0.4558;1.1963;
408.3000;0.4567;1.1938;
408.6000;0.4575;1.1913;
408.9000;0.4558;1.1987;
409.2000;0.4558;1.2037;
409.5000;0.4575;1.1938;
409.8000;0.4575;1.1913;
410.1000;0.4558;1.1813;
410.4000;0.4567;1.1913;
410.7000;0.4558;1.1863;
411.0000;0.4567;1.1863;
411.3000;0.4534;1.1863;
411.6000;0.4567;1.1963;
411.9000;0.4550;1.1888;
412.2000;0.4558;1.1938;
412.5000;0.4550;1.1963;
412.8000;0.4575;1.2012;
413.1000;0.4567;1.1963;
413.4000;0.4599;1.2062;
413.7000;0.4567;1.1913;
414.0000;0.4591;1.1813;
414.3000;0.4542;1.1713;
414.6000;0.4575;1.1713;
414.9000;0.4542;1.1688;
415.2000;0.4550;1.1738;
415.5000;0.4558;1.1863;
415.8000;0.4567;1.1888;
416.1000;0.4583;1.1938;
416.4000;0.4575;1.1913;
416.7000;0.4567;1.1888;
417.0000;0.4575;1.1863;
417.3000;0.4567;1.1838;
417.6000;0.4567;1.1788;
417.9000;0.4575;1.1813;
418.2000;0.4558;1.1838;
418.5000;0.4575;1.1938;
418.8000;0.4583;1.1938;
419.1000;0.4591;1.1888;
419.4000;0.4632;1.2012;
419.7000;0.4583;1.1838;
420.0000;0.4591;1.1813;
420.3000;0.4648;1.2062;
420.6000;0.4518;1.1713;
420.9000;0.4583;1.1938;
421.2000;0.4575;1.1963;
421.5000;0.4575;1.1913;
421.8000;0.4534;1.1813;
422.1000;0.4518;1.1763;
422.4000;0.4583;1.1938;
422.7000;0.4575;1.1888;
423.0000;0.4550;1.1838;
423.3000;0.4575;1.1963;
423.6000;0.4583;1.1987;
423.9000;0.4558;1.1888;
424.2000;0.4575;1.1963;
424.5000;0.4558;1.2037;
424.8000;0.4550;1.1938;
425.1000;0.4591;1.2087;
425.4000;0.4575;1.2012;
425.7000;0.4583;1.2012;
426.0000;0.4469;1.1688;
426.3000;0.4575;1.2062;
426.6000;0.4583;1.2087;
426.9000;0.4558;1.2087;
427.2000;0.4583;1.2137;
427.5000;0.4567;1.2037;
427.8000;0.4550;1.2087;
428.1000;0.4558;1.2062;
428.4000;0.4558;1.2112;
428.7000;0.4575;1.2187;
429.0000;0.4550;1.2112;
429.3000;0.4591;1.2212;
429.6000;0.4567;1.2062;
429.9000;0.4583;1.2037;
430.2000;0.4624;1.2311;
430.5000;0.4575;1.2137;
430.8000;0.4624;1.2262;
431.1000;0.4567;1.2112;
431.4000;0.4550;1.2037;
431.7000;0.4567;1.2012;
432.0000;0.4550;1.2037;
432.3000;0.4599;1.2162;
432.6000;0.4542;1.1987;
432.9000;0.4558;1.1963;
433.2000;0.4542;1.1938;
433.5000;0.4550;1.1987;
433.8000;0.4550;1.1963;
434.1000;0.4558;1.1963;
434.4000;0.4575;1.1938;
434.7000;0.4567;1.1913;
435.0000;0.4558;1.1888;
435.3000;0.4567;1.1888;
435.6000;0.4558;1.1888;
435.9000;0.4558;1.1913;
436.2000;0.4558;1.1888;
436.5000;0.4534;1.1888;
436.8000;0.4558;1.1963;
437.1000;0.4542;1.1987;
437.4000;0.4558;1.2012;
437.7000;0.4567;1.2037;
438.0000;0.4550;1.2012;
438.3000;0.4575;1.2037;
438.6000;0.4550;1.1987;
438.9000;0.4575;1.2012;
439.2000;0.4583;1.1938;
439.5000;0.4526;1.1688;
439.8000;0.4567;1.1863;
440.1000;0.4550;1.1813;
440.4000;0.4583;1.1987;
440.7000;0.4591;1.2012;
441.0000;0.4558;1.1987;
441.3000;0.4591;1.2037;
441.6000;0.4583;1.1987;
441.9000;0.4558;1.1913;
442.2000;0.4567;1.1888;
442.5000;0.4550;1.1863;
442.8000;0.4550;1.1863;
443.1000;0.4542;1.1763;
443.4000;0.4550;1.1838;
443.7000;0.4591;1.1963;
444.0000;0.4567;1.1863;
444.3000;0.4493;1.1614;
444.6000;0.4567;1.1813;
444.9000;0.4567;1.1763;
445.2000;0.4567;1.1738;
445.5000;0.4624;1.1963;
445.8000;0.4567;1.1813;
446.1000;0.4558;1.1788;
446.4000;0.4469;1.1539;
446.7000;0.4558;1.1813;
447.0000;0.4542;1.1788;
447.3000;0.4550;1.1813;
447.6000;0.4542;1.1863;
447.9000;0.4534;1.1838;
448.2000;0.4567;1.1863;
448.5000;0.4550;1.1813;
448.8000;0.4542;1.1763;
449.1000;0.4583;1.1863;
449.4000;0.4550;1.1813;
449.7000;0.4558;1.1788;
450.0000;0.4575;1.1838;
450.3000;0.4558;1.1913;
450.6000;0.4567;1.1863;
450.9000;0.4558;1.1838;
451.2000;0.4575;1.1813;
451.5000;0.4567;1.1738;
451.8000;0.4567;1.1838;
452.1000;0.4558;1.1788;
452.4000;0.4558;1.1738;
452.7000;0.4534;1.1688;
453.0000;0.4542;1.1738;
453.3000;0.4558;1.1713;
453.6000;0.4558;1.1688;
453.9000;0.4558;1.1688;
454.2000;0.4534;1.1663;
454.5000;0.4558;1.1763;
454.8000;0.4477;1.1589;
455.1000;0.4558;1.1763;
455.4000;0.4558;1.1738;
455.7000;0.4550;1.1738;
456.0000;0.4575;1.1763;
456.3000;0.4558;1.1763;
456.6000;0.4567;1.1888;
456.9000;0.4558;1.1987;
457.2000;0.4567;1.1987;
457.5000;0.4575;1.1987;
457.8000;0.4567;1.1938;
458.1000;0.4575;1.1913;
458.4000;0.4575;1.2012;
458.7000;0.4567;1.1863;
459.0000;0.4550;1.1813;
459.3000;0.4567;1.1888;
459.6000;0.4550;1.1863;
459.9000;0.4550;1.1888;
460.2000;0.4575;1.1888;
460.5000;0.4558;1.1913;
460.8000;0.4575;1.1838;
461.1000;0.4583;1.1863;
461.4000;0.4510;1.1738;
461.7000;0.4583;1.1888;
462.0000;0.4558;1.1788;
462.3000;0.4567;1.1813;
462.6000;0.4567;1.1788;
462.9000;0.4567;1.1838;
463.2000;0.4534;1.1788;
463.5000;0.4567;1.1813;
463.8000;0.4550;1.1788;
464.1000;0.4542;1.1738;
464.4000;0.4558;1.1788;
464.7000;0.4518;1.1738;
465.0000;0.4550;1.1913;
465.3000;0.4583;1.2062;
465.6000;0.4558;1.2012;
465.9000;0.4542;1.2062;
466.2000;0.4599;1.2112;
466.5000;0.4526;1.1913;
466.8000;0.4567;1.2012;
467.1000;0.4607;1.2037;
467.4000;0.4567;1.1963;
467.7000;0.4542;1.1913;
468.0000;0.4591;1.1987;
468.3000;0.4583;1.1888;
468.6000;0.4558;1.1763;
468.9000;0.4624;1.1888;
469.2000;0.4558;1.1688;
469.5000;0.4567;1.1763;
469.8000;0.4501;1.1639;
470.1000;0.4534;1.1738;
470.4000;0.4518;1.1639;
470.7000;0.4550;1.1763;
471.0000;0.4567;1.1813;
471.3000;0.4583;1.1913;
471.6000;0.4542;1.1838;
471.9000;0.4558;1.1838;
472.2000;0.4534;1.1738;
472.5000;0.4534;1.1688;
472.8000;0.4558;1.1763;
473.1000;0.4558;1.1838;
473.4000;0.4558;1.1863;
473.7000;0.4550;1.1813;
474.0000;0.4542;1.1788;
474.3000;0.4542;1.1763;
474.6000;0.4550;1.1838;
474.9000;0.4542;1.1738;
475.2000;0.4550;1.1738;
475.5000;0.4542;1.1713;
475.8000;0.4558;1.1788;
476.1000;0.4526;1.1713;
476.4000;0.4534;1.1763;
476.7000;0.4567;1.1863;
477.0000;0.4558;1.1863;
477.3000;0.4558;1.1788;
477.6000;0.4526;1.1788;
477.9000;0.4550;1.1763;
478.2000;0.4550;1.1763;
478.5000;0.4526;1.1713;
478.8000;0.4558;1.1788;
479.1000;0.4534;1.1763;
479.4000;0.4542;1.1813;
479.7000;0.4550;1.1913;
480.0000;0.4558;1.1913;
480.3000;0.4558;1.1863;
480.6000;0.4550;1.1838;
480.9000;0.4550;1.1813;
481.2000;0.4558;1.1813;
481.5000;0.4542;1.1688;
481.8000;0.4550;1.1639;
482.1000;0.4534;1.1589;
482.4000;0.4526;1.1663;
482.7000;0.4534;1.1614;
483.0000;0.4558;1.1663;
483.3000;0.4558;1.1738;
483.6000;0.4550;1.1688;
483.9000;0.4542;1.1639;
484.2000;0.4526;1.1564;
484.5000;0.4575;1.1713;
484.8000;0.4542;1.1713;
485.1000;0.4550;1.1788;
485.4000;0.4599;1.1913;
485.7000;0.4550;1.1763;
486.0000;0.4558;1.1763;
486.3000;0.4558;1.1788;
486.6000;0.4542;1.1713;
486.9000;0.4542;1.1738;
487.2000;0.4550;1.1838;
487.5000;0.4558;1.1788;
487.8000;0.4607;1.1838;
488.1000;0.4558;1.1738;
488.4000;0.4550;1.1813;
488.7000;0.4558;1.1788;
489.0000;0.4575;1.1813;
489.3000;0.4550;1.1688;
489.6000;0.4558;1.1713;
489.9000;0.4567;1.1738;
490.2000;0.4550;1.1589;
490.5000;0.4575;1.1639;
490.8000;0.4558;1.1688;
491.1000;0.4550;1.1763;
491.4000;0.4510;1.1713;
491.7000;0.4558;1.1813;
492.0000;0.4583;1.1963;
492.3000;0.4567;1.1863;
492.6000;0.4550;1.1888;
492.9000;0.4558;1.1938;
493.2000;0.4550;1.1963;
493.5000;0.4558;1.1913;
493.8000;0.4575;1.1963;
494.1000;0.4591;1.1963;
494.4000;0.4534;1.1863;
494.7000;0.4558;1.1913;
495.0000;0.4550;1.1888;
495.3000;0.4550;1.1813;
495.6000;0.4550;1.1838;
495.9000;0.4567;1.1888;
496.2000;0.4550;1.1888;
496.5000;0.4542;1.1913;
496.8000;0.4542;1.1913;
497.1000;0.4550;1.1938;
497.4000;0.4558;1.1913;
497.7000;0.4550;1.1863;
498.0000;0.4550;1.1938;
498.3000;0.4534;1.1913;
498.6000;0.4550;1.1888;
498.9000;0.4550;1.1888;
499.2000;0.4550;1.1788;
499.5000;0.4558;1.1863;
499.8000;0.4575;1.1938;
500.1000;0.4461;1.1614;
500.4000;0.4550;1.1913;
500.7000;0.4550;1.1938;
501.0000;0.4550;1.1938;
501.3000;0.4550;1.1938;
501.6000;0.4558;1.1863;
501.9000;0.4567;1.1913;
502.2000;0.4567;1.1913;
502.5000;0.4558;1.1838;
502.8000;0.4550;1.1788;
503.1000;0.4518;1.1738;
503.4000;0.4526;1.1763;
503.7000;0.4550;1.1863;
504.0000;0.4526;1.1838;
504.3000;0.4567;1.1913;
504.6000;0.4550;1.1888;
504.9000;0.4518;1.1838;
505.2000;0.4534;1.1738;
505.5000;0.4648;1.2087;
505.8000;0.4534;1.1738;
506.1000;0.4558;1.1788;
506.4000;0.4575;1.1888;
506.7000;0.4558;1.1838;
507.0000;0.4558;1.1888;
507.3000;0.4558;1.1863;
507.6000;0.4558;1.1963;
507.9000;0.4567;1.1863;
508.2000;0.4534;1.1713;
508.5000;0.4575;1.1788;
508.8000;0.4558;1.1788;
509.1000;0.4550;1.1813;
509.4000;0.4558;1.1788;
509.7000;0.4526;1.1713;
510.0000;0.4542;1.1788;
510.3000;0.4558;1.1713;
510.6000;0.4518;1.1639;
510.9000;0.4534;1.1688;
511.2000;0.4542;1.1788;
511.5000;0.4550;1.1863;
511.8000;0.4550;1.1913;
512.1000;0.4542;1.1813;
512.4000;0.4550;1.1838;
512.7000;0.4550;1.1813;
513.0000;0.4534;1.1888;
513.3000;0.4526;1.1813;
513.6000;0.4534;1.1913;
513.9000;0.4534;1.1938;
514.2000;0.4542;1.1987;
514.5000;0.4534;1.1963;
514.8000;0.4534;1.1963;
515.1000;0.4550;1.2012;
515.4000;0.4534;1.1963;
515.7000;0.4534;1.1888;
516.0000;0.4526;1.1838;
516.3000;0.4542;1.1838;
516.6000;0.4550;1.1913;
516.9000;0.4534;1.1938;
517.2000;0.4534;1.2012;
517.5000;0.4550;1.2037;
517.8000;0.4550;1.1938;
518.1000;0.4534;1.1938;
518.4000;0.4518;1.1888;
518.7000;0.4526;1.1938;
519.0000;0.4542;1.1963;
519.3000;0.4534;1.2037;
519.6000;0.4534;1.2012;
519.9000;0.4550;1.2012;
520.2000;0.4558;1.1987;
520.5000;0.4558;1.1963;
520.8000;0.4550;1.1888;
521.1000;0.4526;1.1863;
521.4000;0.4550;1.1863;
521.7000;0.4567;1.1838;
522.0000;0.4542;1.1888;
522.3000;0.4542;1.1813;
522.6000;0.4550;1.1813;
522.9000;0.4518;1.1763;
523.2000;0.4542;1.1788;
523.5000;0.4542;1.1813;
523.8000;0.4575;1.1863;
524.1000;0.4550;1.1863;
524.4000;0.4534;1.1863;
524.7000;0.4550;1.1938;
525.0000;0.4477;1.1713;
525.3000;0.4550;1.1863;
525.6000;0.4534;1.1763;
525.9000;0.4558;1.1788;
526.2000;0.4558;1.1838;
526.5000;0.4567;1.1888;
526.8000;0.4550;1.1938;
527.1000;0.4583;1.1938;
527.4000;0.4542;1.1913;
527.7000;0.4567;1.1938;
528.0000;0.4558;1.1938;
528.3000;0.4534;1.1987;
528.6000;0.4534;1.2012;
528.9000;0.4550;1.2037;
529.2000;0.4558;1.2087;
529.5000;0.4510;1.1888;
529.8000;0.4526;1.1913;
530.1000;0.4542;1.1913;
530.4000;0.4526;1.1763;
530.7000;0.4550;1.1788;
531.0000;0.4542;1.1813;
531.3000;0.4567;1.1788;
531.6000;0.4575;1.1788;
531.9000;0.4558;1.1738;
532.2000;0.4542;1.1788;
532.5000;0.4542;1.1838;
532.8000;0.4550;1.1813;
533.1000;0.4558;1.1788;
533.4000;0.4591;1.1838;
533.7000;0.4526;1.1738;
534.0000;0.4542;1.1813;
534.3000;0.4550;1.1888;
534.6000;0.4550;1.1938;
534.9000;0.4542;1.1963;
535.2000;0.4534;1.1987;
535.5000;0.4510;1.1863;
535.8000;0.4550;1.1888;
536.1000;0.4550;1.1888;
536.4000;0.4542;1.1888;
536.7000;0.4567;1.1888;
537.0000;0.4550;1.1863;
537.3000;0.4542;1.1863;
537.6000;0.4550;1.1863;
537.9000;0.4550;1.1913;
538.2000;0.4550;1.1963;
538.5000;0.4542;1.1938;
538.8000;0.4526;1.1938;
539.1000;0.4493;1.1913;
539.4000;0.4518;1.1987;
539.7000;0.4526;1.1963;
540.0000;0.4583;1.2187;
540.3000;0.4550;1.2087;
540.6000;0.4542;1.1987;
540.9000;0.4550;1.1963;
541.2000;0.4550;1.1987;
541.5000;0.4550;1.2062;
541.8000;0.4542;1.2037;
542.1000;0.4567;1.2112;
542.4000;0.4550;1.1987;
542.7000;0.4542;1.1913;
543.0000;0.4567;1.1963;
543.3000;0.4542;1.1838;
543.6000;0.4558;1.1938;
543.9000;0.4534;1.1913;
544.2000;0.4550;1.1987;
544.5000;0.4526;1.1963;
544.8000;0.4501;1.1963;
545.1000;0.4542;1.2012;
545.4000;0.4542;1.2037;
545.7000;0.4615;1.2237;
546.0000;0.4558;1.2062;
546.3000;0.4583;1.2137;
546.6000;0.4550;1.2062;
546.9000;0.4550;1.2062;
547.2000;0.4526;1.1938;
547.5000;0.4534;1.1963;
547.8000;0.4526;1.1938;
548.1000;0.4534;1.1987;
548.4000;0.4534;1.2012;
548.7000;0.4534;1.1938;
549.0000;0.4542;1.1913;
549.3000;0.4542;1.1913;
549.6000;0.4550;1.1813;
549.9000;0.4542;1.1863;
550.2000;0.4526;1.1863;
550.5000;0.4542;1.1863;
550.8000;0.4550;1.1838;
551.1000;0.4542;1.1863;
551.4000;0.4534;1.1813;
551.7000;0.4558;1.1788;
552.0000;0.4542;1.1838;
552.3000;0.4542;1.1838;
552.6000;0.4542;1.1788;
552.9000;0.4534;1.1813;
553.2000;0.4534;1.1963;
553.5000;0.4567;1.2087;
553.8000;0.4526;1.1987;
554.1000;0.4526;1.1963;
554.4000;0.4567;1.2112;
554.7000;0.4558;1.2037;
555.0000;0.4534;1.1963;
555.3000;0.4526;1.2087;
555.6000;0.4542;1.2137;
555.9000;0.4542;1.2112;
556.2000;0.4550;1.1963;
556.5000;0.4526;1.2037;
556.8000;0.4510;1.2062;
557.1000;0.4558;1.2087;
557.4000;0.4550;1.2112;
557.7000;0.4518;1.2037;
558.0000;0.4542;1.2137;
558.3000;0.4542;1.2162;
558.6000;0.4510;1.2162;
558.9000;0.4526;1.2162;
559.2000;0.4558;1.2212;
559.5000;0.4526;1.2162;
559.8000;0.4534;1.2137;
560.1000;0.4534;1.2212;
560.4000;0.4534;1.2187;
560.7000;0.4550;1.2087;
561.0000;0.4542;1.2112;
561.3000;0.4542;1.2087;
561.6000;0.4534;1.1987;
561.9000;0.4534;1.2137;
562.2000;0.4550;1.2237;
562.5000;0.4526;1.2287;
562.8000;0.4542;1.2287;
563.1000;0.4534;1.2237;
563.4000;0.4550;1.2212;
563.7000;0.4542;1.2212;
564.0000;0.4607;1.2336;
564.3000;0.4534;1.2112;
564.6000;0.4534;1.2037;
564.9000;0.4583;1.2187;
565.2000;0.4534;1.1987;
565.5000;0.4542;1.2037;
565.8000;0.4534;1.2087;
566.1000;0.4542;1.2137;
566.4000;0.4567;1.2162;
566.7000;0.4550;1.2112;
567.0000;0.4558;1.2112;
567.3000;0.4550;1.2137;
567.6000;0.4550;1.2212;
567.9000;0.4534;1.2137;
568.2000;0.4526;1.2087;
568.5000;0.4526;1.2037;
568.8000;0.4542;1.2087;
569.1000;0.4575;1.2287;
569.4000;0.4542;1.2187;
569.7000;0.4542;1.2162;
570.0000;0.4526;1.2112;
570.3000;0.4485;1.1963;
570.6000;0.4534;1.2037;
570.9000;0.4518;1.2012;
571.2000;0.4526;1.2037;
571.5000;0.4534;1.2062;
571.8000;0.4526;1.2062;
572.1000;0.4526;1.2062;
572.4000;0.4534;1.2012;
572.7000;0.4534;1.1987;
573.0000;0.4526;1.2087;
573.3000;0.4526;1.2087;
573.6000;0.4534;1.2112;
573.9000;0.4542;1.2137;
574.2000;0.4510;1.2062;
574.5000;0.4550;1.2187;
574.8000;0.4518;1.2137;
575.1000;0.4534;1.2162;
575.4000;0.4534;1.2137;
575.7000;0.4542;1.2162;
576.0000;0.4550;1.2212;
576.3000;0.4558;1.2187;
576.6000;0.4542;1.2112;
576.9000;0.4550;1.2062;
577.2000;0.4477;1.1888;
577.5000;0.4542;1.2137;
577.8000;0.4542;1.2112;
578.1000;0.4518;1.2062;
578.4000;0.4550;1.2062;
578.7000;0.4542;1.2012;
579.0000;0.4550;1.1987;
579.3000;0.4550;1.2062;
579.6000;0.4534;1.2037;
579.9000;0.4550;1.2137;
580.2000;0.4550;1.2162;
580.5000;0.4461;1.1987;
580.8000;0.4510;1.2087;
581.1000;0.4534;1.2112;
581.4000;0.4526;1.2162;
581.7000;0.4550;1.2212;
582.0000;0.4534;1.2237;
582.3000;0.4518;1.2212;
582.6000;0.4534;1.2187;
582.9000;0.4550;1.2212;
583.2000;0.4501;1.2137;
583.5000;0.4534;1.2212;
583.8000;0.4542;1.2187;
584.1000;0.4534;1.2062;
584.4000;0.4534;1.2037;
584.7000;0.4542;1.2012;
585.0000;0.4534;1.1963;
585.3000;0.4526;1.1963;
585.6000;0.4542;1.1963;
585.9000;0.4534;1.2012;
586.2000;0.4534;1.2062;
586.5000;0.4550;1.2062;
586.8000;0.4558;1.2187;
587.1000;0.4526;1.2062;
587.4000;0.4510;1.1987;
587.7000;0.4550;1.1987;
588.0000;0.4493;1.1838;
588.3000;0.4550;1.1938;
588.6000;0.4526;1.1987;
588.9000;0.4518;1.2037;
589.2000;0.4534;1.2112;
589.5000;0.4534;1.2137;
589.8000;0.4526;1.2212;
590.1000;0.4534;1.2112;
590.4000;0.4542;1.1987;
590.7000;0.4526;1.1963;
591.0000;0.4477;1.1788;
591.3000;0.4550;1.1987;
591.6000;0.4534;1.1963;
591.9000;0.4534;1.1963;
592.2000;0.4493;1.1913;
592.5000;0.4583;1.2162;
592.8000;0.4526;1.2062;
593.1000;0.4534;1.2062;
593.4000;0.4567;1.2112;
593.7000;0.4518;1.2012;
594.0000;0.4444;1.1863;
594.3000;0.4550;1.2187;
594.6000;0.4526;1.2137;
594.9000;0.4534;1.2137;
595.2000;0.4550;1.2187;
595.5000;0.4501;1.2037;
595.8000;0.4510;1.2012;
596.1000;0.4518;1.2062;
596.4000;0.4534;1.2137;
596.7000;0.4534;1.2087;
597.0000;0.4526;1.2037;
597.3000;0.4526;1.2112;
597.6000;0.4534;1.2187;
597.9000;0.4542;1.2212;
598.2000;0.4526;1.2162;
598.5000;0.4558;1.2287;
598.8000;0.4550;1.2262;
599.1000;0.4550;1.2187;
599.4000;0.4518;1.2112;
599.7000;0.4542;1.2212;
600.0000;0.4518;1.2187;
600.3000;0.4518;1.2087;
600.6000;0.4501;1.1963;
600.9000;0.4461;1.1788;
601.2000;0.4396;1.1589;
601.5000;0.4371;1.1439;
601.8000;0.4306;1.1140;
602.1000;0.4233;1.0891;
602.4000;0.4176;1.0642;
602.7000;0.4119;1.0467;
603.0000;0.4078;1.0343;
603.3000;0.3997;1.0168;
603.6000;0.4029;1.0118;
603.9000;0.3948;0.9944;
604.2000;0.3915;0.9819;
604.5000;0.3891;0.9769;
604.8000;0.3858;0.9720;
605.1000;0.3834;0.9620;
605.4000;0.3810;0.9520;
605.7000;0.3801;0.9420;
606.0000;0.3761;0.9346;
606.3000;0.3736;0.9271;
606.6000;0.3728;0.9271;
606.9000;0.3712;0.9221;
607.2000;0.3704;0.9097;
607.5000;0.3663;0.8997;
607.8000;0.3663;0.9022;
608.1000;0.3655;0.9072;
608.4000;0.3647;0.9022;
608.7000;0.3639;0.9072;
609.0000;0.3622;0.9047;
609.3000;0.3630;0.8947;
609.6000;0.3598;0.8922;
609.9000;0.3606;0.8897;
610.2000;0.3598;0.8748;
610.5000;0.3582;0.8797;
610.8000;0.3557;0.8847;
611.1000;0.3533;0.8872;
611.4000;0.3541;0.8872;
611.7000;0.3557;0.8822;
612.0000;0.3606;0.8897;
612.3000;0.3533;0.8698;
612.6000;0.3541;0.8748;
612.9000;0.3525;0.8773;
613.2000;0.3525;0.8797;
613.5000;0.3508;0.8773;
613.8000;0.3516;0.8797;
614.1000;0.3484;0.8797;
614.4000;0.3468;0.8773;
614.7000;0.3484;0.8723;
615.0000;0.3476;0.8673;
615.3000;0.3484;0.8648;
615.6000;0.3435;0.8573;
615.9000;0.3476;0.8648;
616.2000;0.3394;0.8498;
616.5000;0.3427;0.8548;
616.8000;0.3394;0.8548;
617.1000;0.3500;0.8922;
617.4000;0.3451;0.8872;
617.7000;0.3354;0.8548;
618.0000;0.3394;0.8648;
618.3000;0.3460;0.8847;
618.6000;0.3435;0.8797;
618.9000;0.3394;0.8673;
619.2000;0.3451;0.8897;
619.5000;0.3419;0.8723;
619.8000;0.3329;0.8523;
620.1000;0.3419;0.8598;
620.4000;0.3403;0.8573;
620.7000;0.3403;0.8598;
621.0000;0.3419;0.8698;
621.3000;0.3403;0.8673;
621.6000;0.3394;0.8623;
621.9000;0.3386;0.8573;
622.2000;0.3394;0.8573;
622.5000;0.3394;0.8623;
622.8000;0.3370;0.8673;
623.1000;0.3394;0.8723;
623.4000;0.3378;0.8673;
623.7000;0.3362;0.8648;
624.0000;0.3354;0.8573;
624.3000;0.3378;0.8598;
624.6000;0.3378;0.8623;
624.9000;0.3362;0.8573;
625.2000;0.3354;0.8598;
625.5000;0.3435;0.8897;
625.8000;0.3354;0.8648;
626.1000;0.3329;0.8623;
626.4000;0.3370;0.8673;
626.7000;0.3337;0.8598;
627.0000;0.3321;0.8498;
627.3000;0.3362;0.8573;
627.6000;0.3337;0.8498;
627.9000;0.3313;0.8473;
628.2000;0.3321;0.8573;
628.5000;0.3313;0.8473;
628.8000;0.3337;0.8548;
629.1000;0.3362;0.8623;
629.4000;0.3321;0.8598;
629.7000;0.3346;0.8573;
630.0000;0.3321;0.8523;
630.3000;0.3305;0.8498;
630.6000;0.3321;0.8573;
630.9000;0.3329;0.8548;
631.2000;0.3313;0.8498;
631.5000;0.3305;0.8498;
631.8000;0.3305;0.8598;
632.1000;0.3337;0.8648;
632.4000;0.3313;0.8548;
632.7000;0.3305;0.8498;
633.0000;0.3329;0.8648;
633.3000;0.3305;0.8648;
633.6000;0.3305;0.8673;
633.9000;0.3297;0.8698;
634.2000;0.3297;0.8673;
634.5000;0.3289;0.8673;
634.8000;0.3297;0.8648;
635.1000;0.3289;0.8623;
635.4000;0.3289;0.8573;
635.7000;0.3297;0.8598;
636.0000;0.3297;0.8598;
636.3000;0.3289;0.8573;
636.6000;0.3297;0.8548;
636.9000;0.3337;0.8623;
637.2000;0.3305;0.8548;
637.5000;0.3272;0.8424;
637.8000;0.3272;0.8424;
638.1000;0.3207;0.8274;
638.4000;0.3297;0.8523;
638.7000;0.3305;0.8548;
639.0000;0.3264;0.8449;
639.3000;0.3272;0.8449;
639.6000;0.3297;0.8498;
639.9000;0.3272;0.8424;
640.2000;0.3280;0.8473;
640.5000;0.3289;0.8473;
640.8000;0.3280;0.8449;
641.1000;0.3264;0.8399;
641.4000;0.3240;0.8349;
641.7000;0.3256;0.8449;
642.0000;0.3256;0.8449;
642.3000;0.3264;0.8449;
642.6000;0.3248;0.8449;
642.9000;0.3240;0.8324;
643.2000;0.3191;0.8149;
643.5000;0.3248;0.8299;
643.8000;0.3272;0.8399;
644.1000;0.3240;0.8374;
644.4000;0.3215;0.8374;
644.7000;0.3240;0.8523;
645.0000;0.3256;0.8548;
645.3000;0.3248;0.8598;
645.6000;0.3256;0.8623;
645.9000;0.3240;0.8548;
646.2000;0.3256;0.8523;
646.5000;0.3248;0.8598;
646.8000;0.3248;0.8698;
647.1000;0.3248;0.8698;
647.4000;0.3248;0.8723;
647.7000;0.3232;0.8623;
648.0000;0.3240;0.8648;
648.3000;0.3232;0.8623;
648.6000;0.3166;0.8424;
648.9000;0.3232;0.8523;
649.2000;0.3248;0.8498;
649.5000;0.3248;0.8473;
649.8000;0.3232;0.8374;
650.1000;0.3248;0.8299;
650.4000;0.3232;0.8249;
650.7000;0.3215;0.8224;
651.0000;0.3223;0.8374;
651.3000;0.3199;0.8424;
651.6000;0.3215;0.8548;
651.9000;0.3215;0.8573;
652.2000;0.3215;0.8523;
652.5000;0.3215;0.8548;
652.8000;0.3207;0.8548;
653.1000;0.3223;0.8548;
653.4000;0.3215;0.8449;
653.7000;0.3207;0.8473;
654.0000;0.3191;0.8399;
654.3000;0.3175;0.8498;
654.6000;0.3191;0.8573;
654.9000;0.3199;0.8673;
655.2000;0.3207;0.8698;
655.5000;0.3191;0.8598;
655.8000;0.3183;0.8548;
656.1000;0.3175;0.8573;
656.4000;0.3183;0.8598;
656.7000;0.3199;0.8673;
657.0000;0.3207;0.8673;
657.3000;0.3207;0.8598;
657.6000;0.3199;0.8573;
657.9000;0.3183;0.8573;
658.2000;0.3183;0.8523;
658.5000;0.3199;0.8498;
658.8000;0.3183;0.8449;
659.1000;0.3248;0.8598;
659.4000;0.3199;0.8449;
659.7000;0.3175;0.8498;
660.0000;0.3207;0.8623;
660.3000;0.3199;0.8548;
660.6000;0.3175;0.8449;
660.9000;0.3183;0.8449;
661.2000;0.3183;0.8424;
661.5000;0.3158;0.8399;
661.8000;0.3183;0.8424;
662.1000;0.3166;0.8349;
662.4000;0.3191;0.8399;
662.7000;0.3166;0.8299;
663.0000;0.3150;0.8174;
663.3000;0.3175;0.8249;
663.6000;0.3191;0.8299;
663.9000;0.3199;0.8249;
664.2000;0.3183;0.8274;
664.5000;0.3175;0.8249;
664.8000;0.3166;0.8199;
665.1000;0.3158;0.8224;
665.4000;0.3166;0.8299;
665.7000;0.3150;0.8324;
666.0000;0.3142;0.8324;
666.3000;0.3191;0.8498;
666.6000;0.3175;0.8473;
666.9000;0.3199;0.8648;
667.2000;0.3142;0.8399;
667.5000;0.3158;0.8498;
667.8000;0.3166;0.8523;
668.1000;0.3150;0.8548;
668.4000;0.3158;0.8648;
668.7000;0.3166;0.8723;
669.0000;0.3158;0.8673;
669.3000;0.3150;0.8673;
669.6000;0.3134;0.8573;
669.9000;0.3158;0.8548;
670.2000;0.3166;0.8598;
670.5000;0.3150;0.8648;
670.8000;0.3134;0.8548;
671.1000;0.3150;0.8573;
671.4000;0.3134;0.8523;
671.7000;0.3158;0.8598;
672.0000;0.3199;0.8723;
672.3000;0.3150;0.8573;
672.6000;0.3142;0.8523;
672.9000;0.3150;0.8523;
673.2000;0.3256;0.8847;
673.5000;0.3166;0.8573;
673.8000;0.3215;0.8723;
674.1000;0.3150;0.8498;
674.4000;0.3142;0.8473;
674.7000;0.3150;0.8473;
675.0000;0.3150;0.8523;
675.3000;0.3118;0.8449;
675.6000;0.3142;0.8498;
675.9000;0.3175;0.8598;
676.2000;0.3150;0.8623;
676.5000;0.3158;0.8598;
676.8000;0.3158;0.8573;
677.1000;0.3199;0.8648;
677.4000;0.3158;0.8648;
677.7000;0.3150;0.8623;
678.0000;0.3166;0.8698;
678.3000;0.3150;0.8673;
678.6000;0.3134;0.8598;
678.9000;0.3134;0.8548;
679.2000;0.3142;0.8498;
679.5000;0.3126;0.8424;
679.8000;0.3126;0.8374;
680.1000;0.3134;0.8399;
680.4000;0.3118;0.8349;
680.7000;0.3118;0.8299;
681.0000;0.3109;0.8324;
681.3000;0.3126;0.8349;
681.6000;0.3142;0.8449;
681.9000;0.3142;0.8424;
682.2000;0.3126;0.8324;
682.5000;0.3142;0.8374;
682.8000;0.3134;0.8399;
683.1000;0.3248;0.8748;
683.4000;0.3118;0.8424;
683.7000;0.3134;0.8424;
684.0000;0.3126;0.8523;
684.3000;0.3126;0.8498;
684.6000;0.3118;0.8498;
684.9000;0.3118;0.8598;
685.2000;0.3150;0.8598;
685.5000;0.3118;0.8473;
685.8000;0.3126;0.8473;
686.1000;0.3118;0.8399;
686.4000;0.3142;0.8548;
686.7000;0.3150;0.8623;
687.0000;0.3118;0.8523;
687.3000;0.3093;0.8498;
687.6000;0.3126;0.8548;
687.9000;0.3109;0.8498;
688.2000;0.3118;0.8548;
688.5000;0.3109;0.8598;
688.8000;0.3044;0.8324;
689.1000;0.3158;0.8548;
689.4000;0.3109;0.8424;
689.7000;0.3109;0.8399;
690.0000;0.3118;0.8399;
690.3000;0.3118;0.8374;
690.6000;0.3126;0.8374;
690.9000;0.3109;0.8374;
691.2000;0.3093;0.8324;
691.5000;0.3134;0.8374;
691.8000;0.3126;0.8523;
692.1000;0.3118;0.8673;
692.4000;0.3109;0.8698;
692.7000;0.3118;0.8673;
693.0000;0.3118;0.8648;
693.3000;0.3077;0.8573;
693.6000;0.3093;0.8598;
693.9000;0.3109;0.8523;
694.2000;0.3126;0.8523;
694.5000;0.3109;0.8424;
694.8000;0.3101;0.8498;
695.1000;0.3118;0.8598;
695.4000;0.3109;0.8673;
695.7000;0.3109;0.8748;
696.0000;0.3069;0.8598;
696.3000;0.3044;0.8449;
696.6000;0.3109;0.8598;
696.9000;0.3118;0.8723;
697.2000;0.3085;0.8698;
697.5000;0.3109;0.8698;
697.8000;0.3077;0.8648;
698.1000;0.3109;0.8797;
698.4000;0.3101;0.8847;
698.7000;0.3109;0.8922;
699.0000;0.3118;0.8872;
699.3000;0.3109;0.8797;
699.6000;0.3118;0.8797;
699.9000;0.3134;0.8872;
700.2000;0.3085;0.8673;
700.5000;0.3077;0.8598;
700.8000;0.3093;0.8648;
701.1000;0.3134;0.8748;
701.4000;0.3069;0.8598;
701.7000;0.3069;0.8548;
702.0000;0.3101;0.8698;
702.3000;0.3109;0.8723;
702.6000;0.3101;0.8748;
702.9000;0.3093;0.8698;
703.2000;0.3109;0.8773;
703.5000;0.3101;0.8773;
703.8000;0.3069;0.8748;
704.1000;0.3093;0.8797;
704.4000;0.3109;0.8897;
704.7000;0.3109;0.8897;
705.0000;0.3093;0.8847;
705.3000;0.3077;0.8723;
705.6000;0.3085;0.8698;
705.9000;0.3085;0.8598;
706.2000;0.3077;0.8573;
706.5000;0.3085;0.8573;
706.8000;0.3085;0.8598;
707.1000;0.3093;0.8548;
707.4000;0.3085;0.8473;
707.7000;0.3085;0.8399;
708.0000;0.3085;0.8349;
708.3000;0.3085;0.8299;
708.6000;0.3093;0.8299;
708.9000;0.3085;0.8374;
709.2000;0.3085;0.8374;
709.5000;0.3069;0.8374;
709.8000;0.3093;0.8473;
710.1000;0.3085;0.8449;
710.4000;0.3077;0.8299;
710.7000;0.3077;0.8399;
711.0000;0.3077;0.8498;
711.3000;0.3069;0.8598;
711.6000;0.2979;0.8374;
711.9000;0.3085;0.8623;
712.2000;0.3134;0.8748;
712.5000;0.3093;0.8648;
712.8000;0.3101;0.8623;
713.1000;0.3085;0.8598;
713.4000;0.3085;0.8498;
713.7000;0.3093;0.8523;
714.0000;0.3109;0.8598;
714.3000;0.3085;0.8573;
714.6000;0.3093;0.8648;
714.9000;0.3101;0.8623;
715.2000;0.3085;0.8673;
715.5000;0.3093;0.8748;
715.8000;0.3085;0.8723;
716.1000;0.3085;0.8748;
716.4000;0.3101;0.8698;
716.7000;0.3069;0.8623;
717.0000;0.3101;0.8748;
717.3000;0.3093;0.8847;
717.6000;0.3109;0.8897;
717.9000;0.3085;0.8822;
718.2000;0.3061;0.8748;
718.5000;0.3085;0.8797;
718.8000;0.3093;0.8797;
719.1000;0.3077;0.8698;
719.4000;0.3069;0.8598;
719.7000;0.3069;0.8673;
720.0000;0.3085;0.8723;
720.3000;0.3142;0.8922;
720.6000;0.3069;0.8648;
720.9000;0.3036;0.8548;
721.2000;0.3085;0.8648;
721.5000;0.3061;0.8598;
721.8000;0.3061;0.8673;
722.1000;0.3053;0.8598;
722.4000;0.3053;0.8698;
722.7000;0.3069;0.8723;
723.0000;0.3085;0.8797;
723.3000;0.3061;0.8773;
723.6000;0.3061;0.8773;
723.9000;0.3053;0.8797;
724.2000;0.3036;0.8748;
724.5000;0.3053;0.8822;
724.8000;0.3053;0.8723;
725.1000;0.3069;0.8822;
725.4000;0.3069;0.8723;
725.7000;0.3053;0.8623;
726.0000;0.3069;0.8673;
726.3000;0.3053;0.8673;
726.6000;0.3061;0.8648;
726.9000;0.3044;0.8623;
727.2000;0.3053;0.8673;
727.5000;0.3053;0.8598;
727.8000;0.3101;0.8748;
728.1000;0.3053;0.8748;
728.4000;0.3028;0.8698;
728.7000;0.3061;0.8748;
729.0000;0.3061;0.8673;
729.3000;0.3053;0.8598;
729.6000;0.3044;0.8548;
729.9000;0.3053;0.8473;
730.2000;0.3093;0.8673;
730.5000;0.3061;0.8648;
730.8000;0.3069;0.8698;
731.1000;0.3028;0.8648;
731.4000;0.3061;0.8723;
731.7000;0.3069;0.8723;
732.0000;0.3044;0.8698;
732.3000;0.3044;0.8773;
732.6000;0.3077;0.8847;
732.9000;0.3069;0.8897;
733.2000;0.3069;0.8922;
733.5000;0.3069;0.8997;
733.8000;0.3166;0.9296;
734.1000;0.3061;0.8922;
734.4000;0.3036;0.8773;
734.7000;0.2979;0.8623;
735.0000;0.3069;0.8897;
735.3000;0.3069;0.8872;
735.6000;0.2955;0.8523;
735.9000;0.3053;0.8797;
736.2000;0.3012;0.8748;
736.5000;0.3061;0.8748;
736.8000;0.3069;0.8822;
737.1000;0.3061;0.8723;
737.4000;0.3053;0.8723;
737.7000;0.3069;0.8773;
738.0000;0.3093;0.8797;
738.3000;0.3053;0.8797;
738.6000;0.3053;0.8847;
738.9000;0.3061;0.8872;
739.2000;0.3053;0.8822;
739.5000;0.3109;0.8972;
739.8000;0.3012;0.8822;
740.1000;0.3142;0.9022;
740.4000;0.3020;0.8797;
740.7000;0.3069;0.8847;
741.0000;0.3044;0.8897;
741.3000;0.3053;0.8897;
741.6000;0.3020;0.8723;
741.9000;0.3053;0.8822;
742.2000;0.3061;0.8723;
742.5000;0.3004;0.8598;
742.8000;0.3053;0.8698;
743.1000;0.3069;0.8698;
743.4000;0.3044;0.8623;
743.7000;0.3044;0.8648;
744.0000;0.3053;0.8623;
744.3000;0.3053;0.8698;
744.6000;0.3044;0.8748;
744.9000;0.3044;0.8773;
745.2000;0.3069;0.8773;
745.5000;0.3028;0.8723;
745.8000;0.3053;0.8773;
746.1000;0.3044;0.8847;
746.4000;0.3036;0.8822;
746.7000;0.3061;0.8847;
747.0000;0.3028;0.8773;
747.3000;0.3036;0.8773;
747.6000;0.3053;0.8847;
747.9000;0.3044;0.8748;
748.2000;0.3069;0.8822;
748.5000;0.3036;0.8748;
748.8000;0.3036;0.8797;
749.1000;0.3028;0.8797;
749.4000;0.3044;0.8847;
749.7000;0.3053;0.8748;
750.0000;0.3053;0.8822;
750.3000;0.3044;0.8797;
750.6000;0.3028;0.8698;
750.9000;0.3020;0.8548;
751.2000;0.2971;0.8399;
751.5000;0.3044;0.8598;
751.8000;0.3044;0.8673;
752.1000;0.3053;0.8648;
752.4000;0.3028;0.8748;
752.7000;0.3044;0.8698;
753.0000;0.3020;0.8598;
753.3000;0.3077;0.8748;
753.6000;0.3044;0.8698;
753.9000;0.3036;0.8673;
754.2000;0.3053;0.8748;
754.5000;0.3053;0.8773;
754.8000;0.3036;0.8698;
755.1000;0.3044;0.8673;
755.4000;0.3061;0.8673;
755.7000;0.3028;0.8648;
756.0000;0.3028;0.8598;
756.3000;0.3044;0.8573;
756.6000;0.3036;0.8673;
756.9000;0.3028;0.8648;
757.2000;0.3028;0.8623;
757.5000;0.3036;0.8673;
757.8000;0.3036;0.8698;
758.1000;0.3028;0.8573;
758.4000;0.3036;0.8573;
758.7000;0.3044;0.8648;
759.0000;0.3028;0.8573;
759.3000;0.3069;0.8623;
759.6000;0.2996;0.8449;
759.9000;0.3012;0.8623;
760.2000;0.3036;0.8648;
760.5000;0.2987;0.8449;
760.8000;0.3036;0.8598;
761.1000;0.3028;0.8598;
761.4000;0.3020;0.8523;
761.7000;0.3053;0.8573;
762.0000;0.3028;0.8598;
762.3000;0.3036;0.8548;
762.6000;0.3020;0.8473;
762.9000;0.3036;0.8598;
763.2000;0.3044;0.8598;
763.5000;0.3036;0.8623;
763.8000;0.3044;0.8698;
764.1000;0.3028;0.8673;
764.4000;0.3044;0.8773;
764.7000;0.3036;0.8847;
765.0000;0.3036;0.8872;
765.3000;0.3028;0.8822;
765.6000;0.3028;0.8872;
765.9000;0.3020;0.8797;
766.2000;0.3044;0.8797;
766.5000;0.3020;0.8673;
766.8000;0.3061;0.8648;
767.1000;0.3028;0.8623;
767.4000;0.3028;0.8523;
767.7000;0.3036;0.8573;
768.0000;0.3028;0.8648;
768.3000;0.3036;0.8698;
768.6000;0.3036;0.8748;
768.9000;0.3020;0.8723;
769.2000;0.3053;0.8797;
769.5000;0.3053;0.8797;
769.8000;0.3028;0.8698;
770.1000;0.3012;0.8673;
770.4000;0.3028;0.8847;
770.7000;0.3012;0.8773;
771.0000;0.3061;0.8897;
771.3000;0.3004;0.8847;
771.6000;0.3004;0.8797;
771.9000;0.3004;0.8673;
772.2000;0.3020;0.8698;
772.5000;0.3028;0.8797;
772.8000;0.3053;0.8822;
773.1000;0.3020;0.8723;
773.4000;0.3020;0.8773;
773.7000;0.3012;0.8773;
774.0000;0.3061;0.8822;
774.3000;0.3036;0.8773;
774.6000;0.3036;0.8822;
774.9000;0.3085;0.8947;
775.2000;0.3061;0.8847;
775.5000;0.3036;0.8822;
775.8000;0.3044;0.8847;
776.1000;0.3020;0.8797;
776.4000;0.3012;0.8673;
776.7000;0.3020;0.8648;
777.0000;0.3012;0.8698;
777.3000;0.3053;0.8748;
777.6000;0.2996;0.8573;
777.9000;0.3028;0.8573;
778.2000;0.3028;0.8648;
778.5000;0.3028;0.8673;
778.8000;0.3012;0.8623;
779.1000;0.2979;0.8573;
779.4000;0.3020;0.8698;
779.7000;0.3020;0.8723;
780.0000;0.2955;0.8573;
780.3000;0.3020;0.8797;
780.6000;0.3020;0.8773;
780.9000;0.3044;0.8773;
781.2000;0.3028;0.8723;
781.5000;0.3036;0.8773;
781.8000;0.3069;0.8797;
782.1000;0.3020;0.8523;
782.4000;0.3036;0.8573;
782.7000;0.2922;0.8274;
783.0000;0.3036;0.8573;
783.3000;0.3077;0.8673;
783.6000;0.3028;0.8573;
783.9000;0.3028;0.8623;
784.2000;0.3004;0.8573;
784.5000;0.3028;0.8548;
784.8000;0.3028;0.8573;
785.1000;0.3061;0.8598;
785.4000;0.2996;0.8498;
785.7000;0.2971;0.8498;
786.0000;0.3028;0.8723;
786.3000;0.3004;0.8673;
786.6000;0.3028;0.8723;
786.9000;0.2996;0.8698;
787.2000;0.3044;0.8773;
787.5000;0.3044;0.8698;
787.8000;0.3004;0.8623;
788.1000;0.3028;0.8748;
788.4000;0.3012;0.8723;
788.7000;0.3028;0.8748;
789.0000;0.3012;0.8673;
789.3000;0.3036;0.8698;
789.6000;0.3020;0.8748;
789.9000;0.3036;0.8847;
790.2000;0.3118;0.9022;
790.5000;0.3028;0.8847;
790.8000;0.3053;0.8872;
791.1000;0.3020;0.8723;
791.4000;0.3036;0.8723;
791.7000;0.3004;0.8698;
792.0000;0.3020;0.8673;
792.3000;0.3012;0.8623;
792.6000;0.3012;0.8698;
792.9000;0.2963;0.8573;
793.2000;0.2996;0.8723;
793.5000;0.3012;0.8773;
793.8000;0.3004;0.8773;
794.1000;0.2996;0.8797;
794.4000;0.3012;0.8822;
794.7000;0.3004;0.8797;
795.0000;0.3012;0.8872;
795.3000;0.3012;0.8897;
795.6000;0.3004;0.8748;
795.9000;0.3020;0.8773;
796.2000;0.2979;0.8673;
796.5000;0.3004;0.8723;
796.8000;0.3012;0.8748;
797.1000;0.2971;0.8648;
797.4000;0.3012;0.8822;
797.7000;0.3028;0.8922;
798.0000;0.3020;0.8922;
798.3000;0.2996;0.8922;
798.6000;0.3020;0.8947;
798.9000;0.3028;0.8947;
799.2000;0.2963;0.8797;
799.5000;0.3012;0.8847;
799.8000;0.3012;0.8872;
800.1000;0.3020;0.8822;
800.4000;0.2996;0.8773;
800.7000;0.3004;0.8822;
801.0000;0.3061;0.8922;
801.3000;0.2996;0.8773;
801.6000;0.3004;0.8797;
801.9000;0.3004;0.8822;
802.2000;0.3012;0.8822;
802.5000;0.2996;0.8822;
802.8000;0.3028;0.8897;
803.1000;0.3012;0.8822;
803.4000;0.3020;0.8748;
803.7000;0.2955;0.8548;
804.0000;0.3020;0.8797;
804.3000;0.2987;0.8673;
804.6000;0.2996;0.8698;
804.9000;0.3012;0.8723;
805.2000;0.3020;0.8723;
805.5000;0.3020;0.8723;
805.8000;0.2987;0.8648;
806.1000;0.2914;0.8473;
806.4000;0.2996;0.8698;
806.7000;0.3012;0.8723;
807.0000;0.3004;0.8698;
807.3000;0.2987;0.8723;
807.6000;0.3020;0.8872;
807.9000;0.3004;0.8797;
808.2000;0.2987;0.8698;
808.5000;0.2979;0.8822;
808.8000;0.3004;0.8872;
809.1000;0.2996;0.8773;
809.4000;0.2996;0.8698;
809.7000;0.2996;0.8623;
810.0000;0.3012;0.8648;
810.3000;0.2963;0.8723;
810.6000;0.2979;0.8797;
810.9000;0.2996;0.8897;
811.2000;0.3004;0.8847;
811.5000;0.3004;0.8847;
811.8000;0.3012;0.8748;
812.1000;0.2979;0.8723;
812.4000;0.2971;0.8773;
812.7000;0.3004;0.8972;
813.0000;0.3012;0.8922;
813.3000;0.2939;0.8748;
813.6000;0.3020;0.8897;
813.9000;0.3036;0.8997;
814.2000;0.3077;0.9146;
814.5000;0.3044;0.8997;
814.8000;0.3012;0.8897;
815.1000;0.2987;0.8797;
815.4000;0.3012;0.8947;
815.7000;0.3004;0.8872;
816.0000;0.2996;0.8972;
816.3000;0.3012;0.8947;
816.6000;0.2996;0.8922;
816.9000;0.3004;0.8922;
817.2000;0.2987;0.8797;
817.5000;0.3004;0.8897;
817.8000;0.2971;0.8847;
818.1000;0.2996;0.8897;
818.4000;0.3004;0.8847;
818.7000;0.2996;0.8797;
819.0000;0.3012;0.8822;
819.3000;0.3004;0.8773;
819.6000;0.2987;0.8822;
819.9000;0.2996;0.8897;
820.2000;0.2996;0.8897;
820.5000;0.3004;0.8847;
820.8000;0.3012;0.8797;
821.1000;0.3004;0.8723;
821.4000;0.3004;0.8797;
821.7000;0.3012;0.8847;
822.0000;0.3004;0.8822;
822.3000;0.2987;0.8847;
822.6000;0.3012;0.8822;
822.9000;0.3012;0.8872;
823.2000;0.2996;0.8847;
823.5000;0.2987;0.8797;
823.8000;0.2987;0.8872;
824.1000;0.3028;0.8922;
824.4000;0.3004;0.8797;
824.7000;0.3020;0.8748;
825.0000;0.2996;0.8648;
825.3000;0.3036;0.8748;
825.6000;0.2996;0.8673;
825.9000;0.3004;0.8648;
826.2000;0.2971;0.8548;
826.5000;0.3012;0.8648;
826.8000;0.3012;0.8623;
827.1000;0.3012;0.8673;
827.4000;0.2979;0.8598;
827.7000;0.2922;0.8498;
828.0000;0.3012;0.8673;
828.3000;0.2996;0.8698;
828.6000;0.3053;0.8897;
828.9000;0.3004;0.8822;
829.2000;0.2914;0.8673;
829.5000;0.3012;0.8972;
829.8000;0.3093;0.9221;
830.1000;0.2996;0.8897;
830.4000;0.3020;0.8947;
830.7000;0.2939;0.8673;
831.0000;0.2996;0.8797;
831.3000;0.2906;0.8498;
831.6000;0.2963;0.8598;
831.9000;0.3004;0.8748;
832.2000;0.2987;0.8648;
832.5000;0.2996;0.8698;
832.8000;0.3004;0.8822;
833.1000;0.3020;0.8872;
833.4000;0.3004;0.8797;
833.7000;0.2987;0.8698;
834.0000;0.3012;0.8797;
834.3000;0.2996;0.8847;
834.6000;0.3004;0.8847;
834.9000;0.2996;0.8822;
835.2000;0.2996;0.8872;
835.5000;0.3012;0.8947;
835.8000;0.2987;0.8972;
836.1000;0.2979;0.8922;
836.4000;0.3004;0.9022;
836.7000;0.2996;0.8922;
837.0000;0.2996;0.8897;
837.3000;0.3004;0.8897;
837.6000;0.2996;0.8897;
837.9000;0.3004;0.8922;
838.2000;0.3004;0.8947;
838.5000;0.2987;0.9047;
838.8000;0.3012;0.9097;
839.1000;0.2996;0.9072;
839.4000;0.2996;0.9047;
839.7000;0.2971;0.8972;
840.0000;0.2963;0.8847;
840.3000;0.2987;0.8897;
840.6000;0.2987;0.8897;
840.9000;0.3004;0.8822;
841.2000;0.2955;0.8723;
841.5000;0.2987;0.8822;
841.8000;0.2971;0.8773;
842.1000;0.2979;0.8822;
842.4000;0.2987;0.8847;
842.7000;0.2979;0.8847;
843.0000;0.2987;0.8922;
843.3000;0.2987;0.8947;
843.6000;0.3004;0.8997;
843.9000;0.3004;0.8972;
844.2000;0.3036;0.9121;
844.5000;0.3004;0.8947;
844.8000;0.2979;0.8822;
845.1000;0.2979;0.8723;
845.4000;0.2996;0.8797;
845.7000;0.2987;0.8822;
846.0000;0.2987;0.8822;
846.3000;0.2996;0.8897;
846.6000;0.2979;0.8872;
846.9000;0.2996;0.8947;
847.2000;0.2987;0.8847;
847.5000;0.3004;0.8822;
847.8000;0.3012;0.8847;
848.1000;0.3004;0.8822;
848.4000;0.3004;0.8897;
848.7000;0.2996;0.8872;
849.0000;0.2979;0.8847;
849.3000;0.2922;0.8723;
849.6000;0.2987;0.8897;
849.9000;0.3004;0.8822;
850.2000;0.2979;0.8748;
850.5000;0.3020;0.8822;
850.8000;0.3004;0.8797;
851.1000;0.2996;0.8723;
851.4000;0.2979;0.8748;
851.7000;0.3004;0.8822;
852.0000;0.2996;0.8797;
852.3000;0.2979;0.8698;
852.6000;0.2955;0.8648;
852.9000;0.2963;0.8573;
853.2000;0.3012;0.8673;
853.5000;0.3012;0.8748;
853.8000;0.2979;0.8698;
854.1000;0.2996;0.8723;
854.4000;0.2996;0.8673;
854.7000;0.2996;0.8723;
855.0000;0.2987;0.8748;
855.3000;0.2987;0.8773;
855.6000;0.3036;0.9022;
855.9000;0.2979;0.8847;
856.2000;0.2987;0.8773;
856.5000;0.2963;0.8623;
856.8000;0.2987;0.8623;
857.1000;0.2987;0.8698;
857.4000;0.3004;0.8698;
857.7000;0.2996;0.8673;
858.0000;0.2987;0.8723;
858.3000;0.2987;0.8822;
858.6000;0.2996;0.8797;
858.9000;0.2996;0.8847;
859.2000;0.2987;0.8897;
859.5000;0.2955;0.8748;
859.8000;0.3004;0.8822;
860.1000;0.2979;0.8822;
860.4000;0.2922;0.8723;
860.7000;0.2987;0.8847;
861.0000;0.2996;0.8872;
861.3000;0.2987;0.8872;
861.6000;0.3044;0.9022;
861.9000;0.2979;0.8897;
862.2000;0.2987;0.8897;
862.5000;0.2996;0.8897;
862.8000;0.2987;0.8872;
863.1000;0.2996;0.8773;
863.4000;0.3004;0.8623;
863.7000;0.2996;0.8673;
864.0000;0.3020;0.8673;
864.3000;0.2979;0.8598;
864.6000;0.2987;0.8623;
864.9000;0.2971;0.8598;
865.2000;0.2987;0.8698;
865.5000;0.2996;0.8748;
865.8000;0.2947;0.8648;
866.1000;0.3028;0.8947;
866.4000;0.2996;0.8847;
866.7000;0.2971;0.8797;
867.0000;0.2963;0.8673;
867.3000;0.2971;0.8673;
867.6000;0.2996;0.8797;
867.9000;0.2996;0.8847;
868.2000;0.2947;0.8723;
868.5000;0.2979;0.8822;
868.8000;0.2971;0.8847;
869.1000;0.2987;0.8872;
869.4000;0.2979;0.8797;
869.7000;0.2979;0.8822;
870.0000;0.2987;0.8797;
870.3000;0.2979;0.8797;
870.6000;0.2963;0.8748;
870.9000;0.2979;0.8748;
871.2000;0.2963;0.8698;
871.5000;0.2971;0.8748;
871.8000;0.2987;0.8748;
872.1000;0.2979;0.8748;
872.4000;0.2987;0.8698;
872.7000;0.2979;0.8648;
873.0000;0.2971;0.8673;
873.3000;0.2996;0.8698;
873.6000;0.2971;0.8723;
873.9000;0.2979;0.8822;
874.2000;0.2979;0.8897;
874.5000;0.2987;0.8773;
874.8000;0.2996;0.8748;
875.1000;0.2987;0.8773;
875.4000;0.2979;0.8797;
875.7000;0.2979;0.8822;
876.0000;0.2971;0.8872;
876.3000;0.2979;0.8972;
876.6000;0.2971;0.8997;
876.9000;0.2971;0.9047;
877.2000;0.2955;0.8997;
877.5000;0.2963;0.8897;
877.8000;0.2979;0.8872;
878.1000;0.2979;0.8847;
878.4000;0.2987;0.8822;
878.7000;0.2996;0.8847;
879.0000;0.2996;0.8847;
879.3000;0.2987;0.8922;
879.6000;0.2979;0.8922;
879.9000;0.2996;0.8872;
880.2000;0.2979;0.8773;
880.5000;0.2963;0.8773;
880.8000;0.2979;0.8773;
881.1000;0.2996;0.8748;
881.4000;0.2996;0.8698;
881.7000;0.2971;0.8748;
882.0000;0.2971;0.8698;
882.3000;0.2987;0.8723;
882.6000;0.2996;0.8723;
882.9000;0.2979;0.8648;
883.2000;0.2963;0.8648;
883.5000;0.2971;0.8573;
883.8000;0.2987;0.8598;
884.1000;0.2971;0.8523;
884.4000;0.3044;0.8698;
884.7000;0.2971;0.8573;
885.0000;0.2971;0.8623;
885.3000;0.2979;0.8673;
885.6000;0.2979;0.8723;
885.9000;0.2979;0.8698;
886.2000;0.2971;0.8648;
886.5000;0.2987;0.8773;
886.8000;0.2979;0.8748;
887.1000;0.2979;0.8698;
887.4000;0.2987;0.8797;
887.7000;0.2987;0.8847;
888.0000;0.2996;0.8872;
888.3000;0.3077;0.9047;
888.6000;0.2987;0.8773;
888.9000;0.2963;0.8748;
889.2000;0.2833;0.8374;
889.5000;0.2987;0.8723;
889.8000;0.2996;0.8797;
890.1000;0.2996;0.8897;
890.4000;0.2979;0.8897;
890.7000;0.2979;0.8897;
891.0000;0.3004;0.8972;
891.3000;0.2955;0.8822;
891.6000;0.2996;0.8872;
891.9000;0.2963;0.8773;
892.2000;0.2971;0.8797;
892.5000;0.2971;0.8822;
892.8000;0.2971;0.8797;
893.1000;0.2971;0.8872;
893.4000;0.2979;0.8897;
893.7000;0.2979;0.8822;
894.0000;0.2963;0.8797;
894.3000;0.2979;0.8847;
894.6000;0.2987;0.8773;
894.9000;0.2979;0.8872;
895.2000;0.2987;0.8947;
895.5000;0.2979;0.8897;
895.8000;0.2971;0.8847;
896.1000;0.2971;0.8822;
896.4000;0.2963;0.8773;
896.7000;0.2971;0.8773;
897.0000;0.2979;0.8822;
897.3000;0.2955;0.8922;
897.6000;0.2979;0.9047;
897.9000;0.2996;0.8997;
898.2000;0.2930;0.8822;
898.5000;0.2987;0.8972;
898.8000;0.2996;0.8897;
899.1000;0.2955;0.8748;
899.4000;0.2963;0.8723;
899.7000;0.2955;0.8648;
900.0000;0.2971;0.8673;
900.3000;0.2996;0.8698;
900.6000;0.2979;0.8698;
900.9000;0.2979;0.8723;
901.2000;0.2971;0.8648;
901.5000;0.2987;0.8623;
901.8000;0.2979;0.8723;
902.1000;0.3012;0.8822;
902.4000;0.2971;0.8797;
902.7000;0.2979;0.8748;
903.0000;0.2971;0.8797;
903.3000;0.2971;0.8797;
903.6000;0.2987;0.8847;
903.9000;0.2979;0.8897;
904.2000;0.2963;0.8872;
904.5000;0.2987;0.8897;
904.8000;0.2987;0.8847;
905.1000;0.2947;0.8723;
905.4000;0.3012;0.8797;
905.7000;0.2979;0.8847;
906.0000;0.2971;0.8797;
906.3000;0.2955;0.8773;
906.6000;0.2979;0.8773;
906.9000;0.3004;0.8822;
907.2000;0.2955;0.8723;
907.5000;0.2979;0.8822;
907.8000;0.2963;0.8773;
908.1000;0.2979;0.8847;
908.4000;0.2971;0.8797;
908.7000;0.2971;0.8797;
909.0000;0.2963;0.8797;
909.3000;0.2996;0.8872;
909.6000;0.2996;0.8872;
909.9000;0.2979;0.8822;
910.2000;0.2979;0.8748;
910.5000;0.2971;0.8698;
910.8000;0.2979;0.8797;
911.1000;0.2922;0.8623;
911.4000;0.2963;0.8748;
911.7000;0.3004;0.8797;
912.0000;0.2963;0.8748;
912.3000;0.2971;0.8797;
912.6000;0.2971;0.8797;
912.9000;0.3004;0.8847;
913.2000;0.2914;0.8748;
913.5000;0.2963;0.8773;
913.8000;0.2963;0.8797;
914.1000;0.2971;0.8797;
914.4000;0.2987;0.8847;
914.7000;0.2955;0.8748;
915.0000;0.2914;0.8648;
915.3000;0.3077;0.9097;
915.6000;0.2963;0.8773;
915.9000;0.2963;0.8773;
916.2000;0.2971;0.8897;
916.5000;0.2971;0.8872;
916.8000;0.2987;0.8847;
917.1000;0.2963;0.8847;
917.4000;0.2947;0.8822;
917.7000;0.2971;0.8822;
918.0000;0.3012;0.8947;
918.3000;0.2971;0.8773;
918.6000;0.2996;0.8822;
918.9000;0.2987;0.8822;
919.2000;0.3028;0.8972;
919.5000;0.2987;0.8972;
919.8000;0.2996;0.8947;
920.1000;0.3020;0.9022;
920.4000;0.2987;0.8897;
920.7000;0.2987;0.8897;
921.0000;0.2987;0.8947;
921.3000;0.2979;0.8872;
921.6000;0.2971;0.8897;
921.9000;0.2939;0.8797;
922.2000;0.2971;0.8897;
922.5000;0.2939;0.8847;
922.8000;0.3004;0.8922;
923.1000;0.3093;0.9221;
923.4000;0.3012;0.8997;
923.7000;0.2987;0.8922;
924.0000;0.2979;0.8872;
924.3000;0.2979;0.8872;
924.6000;0.2979;0.8847;
924.9000;0.2939;0.8673;
925.2000;0.2971;0.8698;
925.5000;0.2914;0.8598;
925.8000;0.2955;0.8723;
926.1000;0.2955;0.8723;
926.4000;0.2971;0.8748;
926.7000;0.2971;0.8822;
927.0000;0.2963;0.8847;
927.3000;0.2963;0.8822;
927.6000;0.2971;0.8797;
927.9000;0.2930;0.8698;
928.2000;0.2971;0.8773;
928.5000;0.2971;0.8698;
928.8000;0.2979;0.8698;
929.1000;0.2955;0.8573;
929.4000;0.2947;0.8573;
929.7000;0.2979;0.8698;
930.0000;0.2955;0.8648;
930.3000;0.2963;0.8773;
930.6000;0.3044;0.8997;
930.9000;0.3044;0.9022;
931.2000;0.2971;0.8773;
931.5000;0.2963;0.8698;
931.8000;0.2955;0.8723;
932.1000;0.2947;0.8673;
932.4000;0.2955;0.8673;
932.7000;0.2955;0.8748;
933.0000;0.2955;0.8822;
933.3000;0.2971;0.8797;
933.6000;0.2987;0.8897;
933.9000;0.2963;0.8748;
934.2000;0.2971;0.8797;
934.5000;0.2882;0.8598;
934.8000;0.2971;0.8997;
935.1000;0.2963;0.8947;
935.4000;0.2971;0.8847;
935.7000;0.2979;0.8847;
936.0000;0.3004;0.8922;
936.3000;0.2971;0.8822;
936.6000;0.2955;0.8748;
936.9000;0.2971;0.8897;
937.2000;0.2955;0.8847;
937.5000;0.2971;0.8822;
937.8000;0.2971;0.8748;
938.1000;0.2906;0.8573;
938.4000;0.2987;0.8822;
938.7000;0.2963;0.8797;
939.0000;0.2971;0.8748;
939.3000;0.2955;0.8673;
939.6000;0.2979;0.8797;
939.9000;0.2987;0.8897;
940.2000;0.2963;0.8897;
940.5000;0.2971;0.8847;
940.8000;0.2987;0.8922;
941.1000;0.2979;0.8947;
941.4000;0.2971;0.8773;
941.7000;0.2979;0.8773;
942.0000;0.2971;0.8723;
942.3000;0.2996;0.8822;
942.6000;0.2971;0.8773;
942.9000;0.2955;0.8723;
943.2000;0.2971;0.8797;
943.5000;0.2987;0.8847;
943.8000;0.2963;0.8723;
944.1000;0.2930;0.8598;
944.4000;0.2987;0.8748;
944.7000;0.2979;0.8748;
945.0000;0.2971;0.8773;
945.3000;0.2971;0.8698;
945.6000;0.2971;0.8623;
945.9000;0.2930;0.8573;
946.2000;0.2947;0.8723;
946.5000;0.2971;0.8822;
946.8000;0.2963;0.8897;
947.1000;0.2955;0.8947;
947.4000;0.2914;0.8897;
947.7000;0.2971;0.8997;
948.0000;0.3036;0.9146;
948.3000;0.2971;0.9047;
948.6000;0.2971;0.9047;
948.9000;0.2963;0.9022;
949.2000;0.2979;0.8972;
949.5000;0.2979;0.9022;
949.8000;0.2979;0.8897;
950.1000;0.2963;0.8997;
950.4000;0.2955;0.8947;
950.7000;0.2971;0.8997;
951.0000;0.2971;0.8997;
951.3000;0.2971;0.8847;
951.6000;0.2955;0.8748;
951.9000;0.2963;0.8822;
952.2000;0.2955;0.8723;
952.5000;0.2955;0.8773;
952.8000;0.2979;0.8847;
953.1000;0.2963;0.8797;
953.4000;0.2979;0.8797;
953.7000;0.2963;0.8748;
954.0000;0.2979;0.8748;
954.3000;0.2963;0.8797;
954.6000;0.2963;0.8773;
954.9000;0.2979;0.8748;
955.2000;0.2987;0.8822;
955.5000;0.2971;0.8723;
955.8000;0.2947;0.8623;
956.1000;0.2971;0.8748;
956.4000;0.2963;0.8648;
956.7000;0.2971;0.8698;
957.0000;0.2979;0.8698;
957.3000;0.2971;0.8673;
957.6000;0.2971;0.8698;
957.9000;0.2898;0.8498;
958.2000;0.2971;0.8773;
958.5000;0.2996;0.8872;
958.8000;0.2963;0.8748;
959.1000;0.2971;0.8822;
959.4000;0.2987;0.8773;
959.7000;0.2971;0.8797;
960.0000;0.2971;0.8773;
960.3000;0.2914;0.8623;
960.6000;0.2963;0.8673;
960.9000;0.2963;0.8623;
961.2000;0.2873;0.8473;
961.5000;0.2971;0.8872;
961.8000;0.2955;0.8822;
962.1000;0.2930;0.8698;
962.4000;0.2963;0.8698;
962.7000;0.2971;0.8648;
963.0000;0.2971;0.8698;
963.3000;0.2947;0.8623;
963.6000;0.2955;0.8598;
963.9000;0.2971;0.8698;
964.2000;0.2947;0.8797;
964.5000;0.2971;0.8872;
964.8000;0.2971;0.8872;
965.1000;0.2971;0.8897;
965.4000;0.2987;0.8947;
965.7000;0.2987;0.8872;
966.0000;0.2971;0.8748;
966.3000;0.3012;0.8822;
966.6000;0.2987;0.8698;
966.9000;0.2947;0.8648;
967.2000;0.2963;0.8723;
967.5000;0.2963;0.8748;
967.8000;0.2979;0.8723;
968.1000;0.2955;0.8723;
968.4000;0.2971;0.8797;
968.7000;0.3004;0.8947;
969.0000;0.2987;0.8972;
969.3000;0.2996;0.8972;
969.6000;0.2963;0.8847;
969.9000;0.2947;0.8797;
970.2000;0.2996;0.8897;
970.5000;0.3004;0.8947;
970.8000;0.2979;0.8922;
971.1000;0.2971;0.8897;
971.4000;0.2930;0.8748;
971.7000;0.3004;0.8972;
972.0000;0.2987;0.8897;
972.3000;0.2955;0.8872;
972.6000;0.2963;0.8797;
972.9000;0.2971;0.8847;
973.2000;0.2979;0.8922;
973.5000;0.3053;0.9047;
973.8000;0.2996;0.8872;
974.1000;0.2971;0.8822;
974.4000;0.2898;0.8548;
974.7000;0.2947;0.8673;
975.0000;0.2971;0.8698;
975.3000;0.2963;0.8773;
975.6000;0.2979;0.8822;
975.9000;0.2955;0.8748;
976.2000;0.2979;0.8748;
976.5000;0.2939;0.8698;
976.8000;0.2971;0.8822;
977.1000;0.2979;0.8847;
977.4000;0.2971;0.8872;
977.7000;0.2963;0.8797;
978.0000;0.2971;0.8773;
978.3000;0.2963;0.8797;
978.6000;0.2947;0.8822;
978.9000;0.2979;0.8897;
979.2000;0.2979;0.8922;
979.5000;0.2955;0.8847;
979.8000;0.2987;0.8972;
980.1000;0.2979;0.8972;
980.4000;0.2930;0.8922;
980.7000;0.2971;0.8972;
981.0000;0.2955;0.8897;
981.3000;0.2979;0.8872;
981.6000;0.2971;0.8872;
981.9000;0.2971;0.8897;
982.2000;0.2971;0.8922;
982.5000;0.2971;0.8773;
982.8000;0.3004;0.8822;
983.1000;0.2963;0.8723;
983.4000;0.2955;0.8748;
983.7000;0.2947;0.8773;
984.0000;0.2906;0.8648;
984.3000;0.2963;0.8822;
984.6000;0.2963;0.8797;
984.9000;0.2971;0.8822;
985.2000;0.2987;0.8922;
985.5000;0.2963;0.8797;
985.8000;0.2963;0.8748;
986.1000;0.2971;0.8748;
986.4000;0.2963;0.8773;
986.7000;0.2963;0.8748;
987.0000;0.2898;0.8648;
987.3000;0.2955;0.8773;
987.6000;0.2955;0.8773;
987.9000;0.2963;0.8698;
988.2000;0.2947;0.8723;
988.5000;0.2955;0.8723;
988.8000;0.2955;0.8748;
989.1000;0.2947;0.8723;
989.4000;0.2996;0.8748;
989.7000;0.2963;0.8723;
990.0000;0.2971;0.8748;
990.3000;0.2971;0.8773;
990.6000;0.2979;0.8748;
990.9000;0.2971;0.8773;
991.2000;0.2947;0.8748;
991.5000;0.2963;0.8797;
991.8000;0.2971;0.8773;
992.1000;0.2963;0.8748;
992.4000;0.2979;0.8847;
992.7000;0.2971;0.8773;
993.0000;0.2971;0.8822;
993.3000;0.2979;0.8847;
993.6000;0.2979;0.8773;
993.9000;0.2955;0.8773;
994.2000;0.2971;0.8872;
994.5000;0.2971;0.8922;
994.8000;0.2963;0.8897;
995.1000;0.2963;0.8847;
995.4000;0.2849;0.8548;
995.7000;0.2987;0.8947;
996.0000;0.2955;0.8922;
996.3000;0.2971;0.8872;
996.6000;0.2947;0.8673;
996.9000;0.2963;0.8773;
997.2000;0.2979;0.8797;
997.5000;0.2963;0.8748;
997.8000;0.2979;0.8797;
998.1000;0.2955;0.8748;
998.4000;0.2971;0.8748;
998.7000;0.2947;0.8648;
999.0000;0.2955;0.8698;
999.3000;0.2987;0.8797;
999.6000;0.2890;0.8648;
999.9000;0.2987;0.8922;
1000.2000;0.2963;0.8872;
1000.5000;0.2849;0.8648;
1000.8000;0.3085;0.9321;
1001.1000;0.2963;0.8997;
1001.4000;0.2963;0.9022;
1001.7000;0.2955;0.8922;
1002.0000;0.2963;0.8997;
1002.3000;0.2963;0.8972;
1002.6000;0.2971;0.8897;
1002.9000;0.2963;0.8947;
1003.2000;0.2947;0.8972;
1003.5000;0.2996;0.9072;
1003.8000;0.2971;0.8997;
1004.1000;0.2947;0.8897;
1004.4000;0.2955;0.8897;
1004.7000;0.2971;0.8897;
1005.0000;0.2955;0.8922;
1005.3000;0.2963;0.9022;
1005.6000;0.2971;0.8997;
1005.9000;0.2979;0.8972;
1006.2000;0.2971;0.8947;
1006.5000;0.2955;0.8922;
1006.8000;0.2963;0.8897;
1007.1000;0.2963;0.8972;
1007.4000;0.2955;0.9022;
1007.7000;0.2963;0.9047;
1008.0000;0.2939;0.8947;
1008.3000;0.2955;0.8972;
1008.6000;0.2955;0.8922;
1008.9000;0.2963;0.8872;
1009.2000;0.2922;0.8897;
1009.5000;0.2947;0.8947;
1009.8000;0.2947;0.8947;
1010.1000;0.2955;0.8947;
1010.4000;0.2963;0.8872;
1010.7000;0.2963;0.8748;
1011.0000;0.3004;0.8797;
1011.3000;0.2963;0.8673;
1011.6000;0.2955;0.8623;
1011.9000;0.2930;0.8548;
1012.2000;0.2963;0.8573;
1012.5000;0.2955;0.8573;
1012.8000;0.2947;0.8573;
1013.1000;0.2914;0.8498;
1013.4000;0.2971;0.8673;
1013.7000;0.2963;0.8748;
1014.0000;0.2971;0.8773;
1014.3000;0.3061;0.9121;
1014.6000;0.2971;0.8822;
1014.9000;0.2971;0.8797;
1015.2000;0.2955;0.8773;
1015.5000;0.2947;0.8723;
1015.8000;0.2971;0.8822;
1016.1000;0.2914;0.8698;
1016.4000;0.2979;0.8847;
1016.7000;0.2963;0.8822;
1017.0000;0.2963;0.8847;
1017.3000;0.2979;0.8847;
1017.6000;0.2955;0.8872;
1017.9000;0.2914;0.8698;
1018.2000;0.2971;0.8822;
1018.5000;0.2963;0.8822;
1018.8000;0.2971;0.8872;
1019.1000;0.3053;0.9072;
1019.4000;0.2963;0.8847;
1019.7000;0.2971;0.8947;
1020.0000;0.2955;0.8922;
1020.3000;0.2955;0.8947;
1020.6000;0.2979;0.9072;
1020.9000;0.2955;0.8972;
1021.2000;0.2963;0.8972;
1021.5000;0.2996;0.9072;
1021.8000;0.2947;0.8972;
1022.1000;0.2963;0.8997;
1022.4000;0.3053;0.9171;
1022.7000;0.2971;0.8897;
1023.0000;0.2963;0.8897;
1023.3000;0.2955;0.8897;
1023.6000;0.3020;0.8997;
1023.9000;0.2939;0.8822;
1024.2000;0.2963;0.8922;
1024.5000;0.2979;0.8897;
1024.8000;0.2963;0.8897;
1025.1000;0.2971;0.8847;
1025.4000;0.2963;0.8922;
1025.7000;0.2930;0.8847;
1026.0000;0.2947;0.8872;
1026.3000;0.2955;0.8847;
1026.6000;0.2971;0.8922;
1026.9000;0.2963;0.8922;
1027.2000;0.2963;0.8872;
1027.5000;0.2963;0.8797;
1027.8000;0.2971;0.8748;
1028.1000;0.2971;0.8648;
1028.4000;0.2939;0.8648;
1028.7000;0.2963;0.8698;
1029.0000;0.2971;0.8673;
1029.3000;0.2963;0.8773;
1029.6000;0.2947;0.8748;
1029.9000;0.2979;0.8822;
1030.2000;0.3069;0.9072;
1030.5000;0.2963;0.8847;
1030.8000;0.2955;0.8773;
1031.1000;0.2955;0.8822;
1031.4000;0.2914;0.8698;
1031.7000;0.2963;0.8872;
1032.0000;0.2947;0.8797;
1032.3000;0.3012;0.8997;
1032.6000;0.2963;0.8773;
1032.9000;0.2947;0.8698;
1033.2000;0.2963;0.8723;
1033.5000;0.2963;0.8723;
1033.8000;0.2979;0.8822;
1034.1000;0.2963;0.8773;
1034.4000;0.2979;0.8847;
1034.7000;0.2963;0.8922;
1035.0000;0.3061;0.9121;
1035.3000;0.2955;0.8847;
1035.6000;0.2979;0.8872;
1035.9000;0.2963;0.8797;
1036.2000;0.2979;0.8822;
1036.5000;0.2955;0.8748;
1036.8000;0.2914;0.8523;
1037.1000;0.2922;0.8573;
1037.4000;0.2955;0.8648;
1037.7000;0.3036;0.8897;
1038.0000;0.2963;0.8698;
1038.3000;0.2955;0.8698;
1038.6000;0.2947;0.8648;
1038.9000;0.2971;0.8698;
1039.2000;0.2939;0.8548;
1039.5000;0.2971;0.8498;
1039.8000;0.3036;0.8797;
1040.1000;0.2971;0.8623;
1040.4000;0.2979;0.8648;
1040.7000;0.2971;0.8623;
1041.0000;0.2979;0.8648;
1041.3000;0.2922;0.8523;
1041.6000;0.2963;0.8598;
1041.9000;0.2963;0.8623;
1042.2000;0.2955;0.8548;
1042.5000;0.2971;0.8698;
1042.8000;0.2979;0.8847;
1043.1000;0.2963;0.8822;
1043.4000;0.2955;0.8897;
1043.7000;0.2963;0.8922;
1044.0000;0.2955;0.8897;
1044.3000;0.2955;0.8897;
1044.6000;0.3004;0.8897;
1044.9000;0.2955;0.8748;
1045.2000;0.2947;0.8723;
1045.5000;0.2979;0.8822;
1045.8000;0.2979;0.8773;
1046.1000;0.2914;0.8598;
1046.4000;0.2947;0.8748;
1046.7000;0.2963;0.8723;
1047.0000;0.2987;0.8797;
1047.3000;0.2947;0.8797;
1047.6000;0.2963;0.8822;
1047.9000;0.2971;0.8947;
1048.2000;0.2955;0.8897;
1048.5000;0.2963;0.8748;
1048.8000;0.2963;0.8723;
1049.1000;0.2947;0.8723;
1049.4000;0.2930;0.8598;
1049.7000;0.2955;0.8648;
1050.0000;0.2955;0.8673;
1050.3000;0.2963;0.8748;
1050.6000;0.2947;0.8748;
1050.9000;0.2963;0.8872;
1051.2000;0.2979;0.8947;
1051.5000;0.2971;0.8897;
1051.8000;0.2914;0.8773;
1052.1000;0.2865;0.8673;
1052.4000;0.3004;0.9072;
1052.7000;0.2955;0.8972;
1053.0000;0.2808;0.8523;
1053.3000;0.2963;0.8947;
1053.6000;0.2939;0.8822;
1053.9000;0.2939;0.8797;
1054.2000;0.2963;0.8773;
1054.5000;0.2947;0.8723;
1054.8000;0.2963;0.8748;
1055.1000;0.2947;0.8723;
1055.4000;0.2963;0.8847;
1055.7000;0.2955;0.8822;
1056.0000;0.2947;0.8822;
1056.3000;0.2955;0.8872;
1056.6000;0.2971;0.8972;
1056.9000;0.2971;0.8922;
1057.2000;0.2947;0.8872;
1057.5000;0.2947;0.8872;
1057.8000;0.2987;0.8922;
1058.1000;0.2955;0.8897;
1058.4000;0.2971;0.8847;
1058.7000;0.2979;0.8847;
1059.0000;0.2963;0.8847;
1059.3000;0.2939;0.8872;
1059.6000;0.2947;0.8897;
1059.9000;0.2963;0.8897;
1060.2000;0.2939;0.8748;
1060.5000;0.3004;0.9047;
1060.8000;0.2996;0.9022;
1061.1000;0.2955;0.8972;
1061.4000;0.2963;0.8922;
1061.7000;0.2882;0.8847;
1062.0000;0.2979;0.8997;
1062.3000;0.2955;0.8972;
1062.6000;0.2955;0.8997;
1062.9000;0.2955;0.8947;
1063.2000;0.2955;0.8947;
1063.5000;0.2987;0.8972;
1063.8000;0.2963;0.8872;
1064.1000;0.2963;0.8897;
1064.4000;0.2971;0.8947;
1064.7000;0.2947;0.8972;
1065.0000;0.2955;0.8897;
1065.3000;0.2963;0.8947;
1065.6000;0.3053;0.9246;
1065.9000;0.2939;0.8972;
1066.2000;0.2971;0.9047;
1066.5000;0.2955;0.9072;
1066.8000;0.2947;0.8997;
1067.1000;0.2955;0.9047;
1067.4000;0.2971;0.9022;
1067.7000;0.2947;0.8972;
1068.0000;0.2971;0.9022;
1068.3000;0.2955;0.8972;
1068.6000;0.2955;0.8922;
1068.9000;0.2963;0.8972;
1069.2000;0.2963;0.8997;
1069.5000;0.2963;0.9072;
1069.8000;0.2979;0.9072;
1070.1000;0.2987;0.9047;
1070.4000;0.2963;0.8922;
1070.7000;0.2955;0.8897;
1071.0000;0.2939;0.8797;
1071.3000;0.2955;0.8872;
1071.6000;0.2971;0.8897;
1071.9000;0.2963;0.8872;
1072.2000;0.2963;0.8797;
1072.5000;0.2947;0.8797;
1072.8000;0.2955;0.8748;
1073.1000;0.2955;0.8822;
1073.4000;0.2947;0.8922;
1073.7000;0.2955;0.8972;
1074.0000;0.2947;0.8872;
1074.3000;0.2987;0.8947;
1074.6000;0.2971;0.8947;
1074.9000;0.2979;0.8947;
1075.2000;0.2930;0.8897;
1075.5000;0.2939;0.8972;
1075.8000;0.2963;0.9072;
1076.1000;0.2979;0.9097;
1076.4000;0.2955;0.9022;
1076.7000;0.2939;0.8947;
1077.0000;0.2955;0.8997;
1077.3000;0.2955;0.8972;
1077.6000;0.2947;0.8947;
1077.9000;0.2939;0.8872;
1078.2000;0.2955;0.8872;
1078.5000;0.2955;0.8972;
1078.8000;0.2955;0.8922;
1079.1000;0.2939;0.8847;
1079.4000;0.2947;0.8922;
1079.7000;0.2963;0.8922;
1080.0000;0.2947;0.8897;
1080.3000;0.2922;0.8847;
1080.6000;0.2947;0.8922;
1080.9000;0.2939;0.8997;
1081.2000;0.2930;0.8972;
1081.5000;0.2955;0.9097;
1081.8000;0.2955;0.9097;
1082.1000;0.2963;0.9072;
1082.4000;0.2955;0.8997;
1082.7000;0.2947;0.8947;
1083.0000;0.2947;0.8947;
1083.3000;0.2947;0.8872;
1083.6000;0.2963;0.8847;
1083.9000;0.2963;0.8797;
1084.2000;0.2955;0.8822;
1084.5000;0.2979;0.8972;
1084.8000;0.2971;0.8897;
1085.1000;0.2955;0.8872;
1085.4000;0.2963;0.8797;
1085.7000;0.2955;0.8723;
1086.0000;0.2955;0.8698;
1086.3000;0.2971;0.8723;
1086.6000;0.2955;0.8748;
1086.9000;0.2963;0.8797;
1087.2000;0.2979;0.8797;
1087.5000;0.2922;0.8673;
1087.8000;0.2947;0.8822;
1088.1000;0.2963;0.8822;
1088.4000;0.2963;0.8822;
1088.7000;0.2922;0.8648;
1089.0000;0.2963;0.8723;
1089.3000;0.2955;0.8797;
1089.6000;0.2955;0.8822;
1089.9000;0.2955;0.8847;
1090.2000;0.2963;0.8847;
1090.5000;0.2979;0.8847;
1090.8000;0.2963;0.8922;
1091.1000;0.2963;0.8922;
1091.4000;0.2939;0.8922;
1091.7000;0.2955;0.8997;
1092.0000;0.2947;0.8947;
1092.3000;0.2955;0.9022;
1092.6000;0.2963;0.8947;
1092.9000;0.2898;0.8773;
1093.2000;0.2930;0.8847;
1093.5000;0.2898;0.8648;
1093.8000;0.2947;0.8822;
1094.1000;0.2947;0.8822;
1094.4000;0.2939;0.8773;
1094.7000;0.2963;0.8797;
1095.0000;0.2987;0.8872;
1095.3000;0.2963;0.8822;
1095.6000;0.2955;0.8797;
1095.9000;0.2963;0.8922;
1096.2000;0.2947;0.8872;
1096.5000;0.2955;0.8897;
1096.8000;0.2882;0.8673;
1097.1000;0.2930;0.8797;
1097.4000;0.2971;0.8822;
1097.7000;0.2947;0.8797;
1098.0000;0.2955;0.8847;
1098.3000;0.2939;0.8723;
1098.6000;0.2963;0.8748;
1098.9000;0.2955;0.8723;
1099.2000;0.2939;0.8797;
1099.5000;0.2955;0.8773;
1099.8000;0.2955;0.8773;
1100.1000;0.2979;0.8773;
1100.4000;0.3036;0.8922;
1100.7000;0.2963;0.8748;
1101.0000;0.2987;0.8822;
1101.3000;0.2987;0.8847;
1101.6000;0.2963;0.8822;
1101.9000;0.2955;0.8797;
1102.2000;0.2947;0.8698;
1102.5000;0.2947;0.8648;
1102.8000;0.2955;0.8673;
1103.1000;0.2947;0.8573;
1103.4000;0.2947;0.8648;
1103.7000;0.2955;0.8648;
1104.0000;0.2955;0.8573;
1104.3000;0.2955;0.8598;
1104.6000;0.2955;0.8598;
1104.9000;0.2939;0.8648;
1105.2000;0.2963;0.8698;
1105.5000;0.2922;0.8573;
1105.8000;0.2955;0.8573;
1106.1000;0.2955;0.8623;
1106.4000;0.2955;0.8648;
1106.7000;0.2963;0.8498;
1107.0000;0.2947;0.8498;
1107.3000;0.2939;0.8399;
1107.6000;0.2947;0.8374;
1107.9000;0.2947;0.8299;
1108.2000;0.2947;0.8324;
1108.5000;0.2930;0.8249;
1108.8000;0.2955;0.8274;
1109.1000;0.2947;0.8349;
1109.4000;0.2955;0.8324;
1109.7000;0.2963;0.8324;
1110.0000;0.2971;0.8424;
1110.3000;0.2947;0.8424;
1110.6000;0.2955;0.8498;
1110.9000;0.2947;0.8498;
1111.2000;0.2947;0.8548;
1111.5000;0.2971;0.8648;
1111.8000;0.2963;0.8573;
1112.1000;0.2971;0.8623;
1112.4000;0.2955;0.8623;
1112.7000;0.2930;0.8648;
1113.0000;0.2947;0.8623;
1113.3000;0.2955;0.8623;
1113.6000;0.2947;0.8648;
1113.9000;0.2939;0.8623;
1114.2000;0.2971;0.8698;
1114.5000;0.2939;0.8673;
1114.8000;0.2955;0.8648;
1115.1000;0.2947;0.8698;
1115.4000;0.2971;0.8748;
1115.7000;0.2955;0.8573;
1116.0000;0.2947;0.8723;
1116.3000;0.2971;0.8822;
1116.6000;0.2955;0.8773;
1116.9000;0.2930;0.8623;
1117.2000;0.2947;0.8673;
1117.5000;0.2971;0.8797;
1117.8000;0.2971;0.8822;
1118.1000;0.2955;0.8748;
1118.4000;0.2963;0.8748;
1118.7000;0.2947;0.8748;
1119.0000;0.2947;0.8748;
1119.3000;0.2955;0.8698;
1119.6000;0.2865;0.8424;
1119.9000;0.2947;0.8648;
1120.2000;0.2963;0.8673;
1120.5000;0.2963;0.8748;
1120.8000;0.2963;0.8822;
1121.1000;0.2963;0.8822;
1121.4000;0.2971;0.8897;
1121.7000;0.2955;0.8897;
1122.0000;0.2955;0.8922;
1122.3000;0.2947;0.8897;
1122.6000;0.2849;0.8573;
1122.9000;0.2947;0.8797;
1123.2000;0.2939;0.8748;
1123.5000;0.2963;0.8822;
1123.8000;0.2955;0.8773;
1124.1000;0.2955;0.8723;
1124.4000;0.2947;0.8723;
1124.7000;0.2955;0.8698;
1125.0000;0.2947;0.8773;
1125.3000;0.2898;0.8648;
1125.6000;0.2979;0.8872;
1125.9000;0.2947;0.8847;
1126.2000;0.2971;0.8872;
1126.5000;0.2947;0.8897;
1126.8000;0.2955;0.8947;
1127.1000;0.2930;0.8797;
1127.4000;0.2955;0.8822;
1127.7000;0.2955;0.8847;
1128.0000;0.2971;0.8822;
1128.3000;0.2947;0.8723;
1128.6000;0.2947;0.8698;
1128.9000;0.2922;0.8573;
1129.2000;0.2939;0.8598;
1129.5000;0.2987;0.8598;
1129.8000;0.2979;0.8623;
1130.1000;0.2987;0.8648;
1130.4000;0.3004;0.8698;
1130.7000;0.2963;0.8598;
1131.0000;0.2947;0.8673;
1131.3000;0.2963;0.8847;
1131.6000;0.2930;0.8847;
1131.9000;0.2955;0.8872;
1132.2000;0.2955;0.8847;
1132.5000;0.2930;0.8797;
1132.8000;0.2987;0.8847;
1133.1000;0.2930;0.8723;
1133.4000;0.3036;0.9047;
1133.7000;0.2849;0.8698;
1134.0000;0.2971;0.8972;
1134.3000;0.2971;0.8897;
1134.6000;0.2979;0.8847;
1134.9000;0.2955;0.8797;
1135.2000;0.2939;0.8822;
1135.5000;0.2971;0.8872;
1135.8000;0.2947;0.8797;
1136.1000;0.2955;0.8822;
1136.4000;0.2971;0.8897;
1136.7000;0.2955;0.8872;
1137.0000;0.2947;0.8872;
1137.3000;0.2955;0.8748;
1137.6000;0.2890;0.8523;
1137.9000;0.2873;0.8523;
1138.2000;0.2971;0.8872;
1138.5000;0.2947;0.8897;
1138.8000;0.2947;0.8872;
1139.1000;0.2955;0.8872;
1139.4000;0.2930;0.8872;
1139.7000;0.2955;0.8847;
1140.0000;0.2955;0.8897;
1140.3000;0.2963;0.8847;
1140.6000;0.2979;0.8872;
1140.9000;0.2947;0.8748;
1141.2000;0.2955;0.8698;
1141.5000;0.2947;0.8698;
1141.8000;0.2955;0.8723;
1142.1000;0.2939;0.8598;
1142.4000;0.2922;0.8648;
1142.7000;0.2955;0.8773;
1143.0000;0.2947;0.8673;
1143.3000;0.2939;0.8698;
1143.6000;0.2955;0.8698;
1143.9000;0.2947;0.8723;
1144.2000;0.2947;0.8723;
1144.5000;0.2963;0.8748;
1144.8000;0.2955;0.8723;
1145.1000;0.2898;0.8623;
1145.4000;0.2996;0.8822;
1145.7000;0.2955;0.8773;
1146.0000;0.2963;0.8872;
1146.3000;0.2963;0.8897;
1146.6000;0.2955;0.8922;
1146.9000;0.2963;0.8872;
1147.2000;0.3012;0.8997;
1147.5000;0.2971;0.8847;
1147.8000;0.2947;0.8773;
1148.1000;0.2930;0.8822;
1148.4000;0.2971;0.8922;
1148.7000;0.2963;0.8972;
1149.0000;0.2914;0.8847;
1149.3000;0.2939;0.8847;
1149.6000;0.2955;0.8797;
1149.9000;0.2963;0.8922;
1150.2000;0.2971;0.8922;
1150.5000;0.2947;0.8872;
1150.8000;0.2955;0.8872;
1151.1000;0.2947;0.8822;
1151.4000;0.2979;0.8922;
1151.7000;0.2963;0.8847;
1152.0000;0.2979;0.8872;
1152.3000;0.2963;0.8897;
1152.6000;0.2947;0.8947;
1152.9000;0.2955;0.9022;
1153.2000;0.2955;0.9022;
1153.5000;0.2939;0.8972;
1153.8000;0.2955;0.8997;
1154.1000;0.2987;0.9047;
1154.4000;0.2987;0.9047;
1154.7000;0.2971;0.8972;
1155.0000;0.2930;0.8922;
1155.3000;0.2947;0.8947;
1155.6000;0.2947;0.9022;
1155.9000;0.2963;0.9097;
1156.2000;0.2930;0.9022;
1156.5000;0.2939;0.8972;
1156.8000;0.2939;0.8947;
1157.1000;0.3020;0.8972;
1157.4000;0.3012;0.8723;
1157.7000;0.2947;0.8548;
1158.0000;0.2955;0.8673;
1158.3000;0.2955;0.8723;
1158.6000;0.2963;0.8673;
1158.9000;0.2955;0.8673;
1159.2000;0.2939;0.8623;
1159.5000;0.2865;0.8399;
1159.8000;0.2955;0.8673;
1160.1000;0.2963;0.8773;
1160.4000;0.2955;0.8797;
1160.7000;0.2849;0.8623;
1161.0000;0.2947;0.8872;
1161.3000;0.2955;0.8847;
1161.6000;0.2930;0.8698;
1161.9000;0.2963;0.8847;
1162.2000;0.2963;0.8698;
1162.5000;0.2963;0.8698;
1162.8000;0.2955;0.8748;
1163.1000;0.2939;0.8773;
1163.4000;0.2947;0.8822;
1163.7000;0.2979;0.8872;
1164.0000;0.2996;0.8972;
1164.3000;0.2947;0.8822;
1164.6000;0.2971;0.8897;
1164.9000;0.3036;0.9047;
1165.2000;0.2955;0.8822;
1165.5000;0.2979;0.8897;
1165.8000;0.2947;0.8847;
1166.1000;0.2947;0.8797;
1166.4000;0.2955;0.8797;
1166.7000;0.2955;0.8648;
1167.0000;0.2939;0.8623;
1167.3000;0.2939;0.8623;
1167.6000;0.2947;0.8673;
1167.9000;0.2939;0.8573;
1168.2000;0.2963;0.8548;
1168.5000;0.2947;0.8523;
1168.8000;0.2947;0.8548;
1169.1000;0.2947;0.8523;
1169.4000;0.2930;0.8473;
1169.7000;0.2971;0.8498;
1170.0000;0.2979;0.8523;
1170.3000;0.2963;0.8548;
1170.6000;0.2939;0.8573;
1170.9000;0.2890;0.8498;
1171.2000;0.2963;0.8723;
1171.5000;0.2996;0.8748;
1171.8000;0.2947;0.8748;
1172.1000;0.2971;0.8723;
1172.4000;0.2955;0.8723;
1172.7000;0.2955;0.8773;
1173.0000;0.2963;0.8872;
1173.3000;0.2955;0.8922;
1173.6000;0.2955;0.8897;
1173.9000;0.2979;0.8847;
1174.2000;0.2947;0.8748;
1174.5000;0.2947;0.8673;
1174.8000;0.2979;0.8822;
1175.1000;0.2963;0.8847;
1175.4000;0.2963;0.8748;
1175.7000;0.2971;0.8673;
1176.0000;0.2955;0.8598;
1176.3000;0.2979;0.8723;
1176.6000;0.2971;0.8723;
1176.9000;0.2955;0.8623;
1177.2000;0.2979;0.8723;
1177.5000;0.2947;0.8748;
1177.8000;0.2939;0.8623;
1178.1000;0.2963;0.8623;
1178.4000;0.2987;0.8797;
1178.7000;0.2898;0.8598;
1179.0000;0.2963;0.8748;
1179.3000;0.2979;0.8723;
1179.6000;0.2963;0.8598;
1179.9000;0.2963;0.8648;
1180.2000;0.2947;0.8698;
1180.5000;0.2963;0.8748;
1180.8000;0.2971;0.8822;
1181.1000;0.2963;0.8847;
1181.4000;0.2930;0.8723;
1181.7000;0.2963;0.8822;
1182.0000;0.2955;0.8797;
1182.3000;0.2955;0.8797;
1182.6000;0.2947;0.8847;
1182.9000;0.2963;0.8947;
1183.2000;0.2955;0.8922;
1183.5000;0.2955;0.8947;
1183.8000;0.2963;0.8897;
1184.1000;0.2955;0.8748;
1184.4000;0.2963;0.8698;
1184.7000;0.2939;0.8698;
1185.0000;0.2833;0.8449;
1185.3000;0.2955;0.8872;
1185.6000;0.2890;0.8623;
1185.9000;0.3020;0.8997;
1186.2000;0.2963;0.8748;
1186.5000;0.3020;0.8997;
1186.8000;0.2890;0.8598;
1187.1000;0.2939;0.8698;
1187.4000;0.2971;0.8773;
1187.7000;0.2963;0.8797;
1188.0000;0.2955;0.8822;
1188.3000;0.2947;0.8872;
1188.6000;0.2930;0.8797;
1188.9000;0.2955;0.8773;
1189.2000;0.2955;0.8773;
1189.5000;0.2955;0.8748;
1189.8000;0.2930;0.8698;
1190.1000;0.2963;0.8773;
1190.4000;0.2939;0.8698;
1190.7000;0.2979;0.8773;
1191.0000;0.2939;0.8723;
1191.3000;0.2947;0.8797;
1191.6000;0.2898;0.8598;
1191.9000;0.2955;0.8673;
1192.2000;0.2939;0.8723;
1192.5000;0.2963;0.8723;
1192.8000;0.2979;0.8723;
1193.1000;0.2971;0.8698;
1193.4000;0.2979;0.8847;
1193.7000;0.2930;0.8847;
1194.0000;0.2930;0.8822;
1194.3000;0.3004;0.9047;
1194.6000;0.2963;0.8897;
1194.9000;0.2963;0.8922;
1195.2000;0.2930;0.8723;
1195.5000;0.2963;0.8748;
1195.8000;0.2922;0.8698;
1196.1000;0.2955;0.8773;
1196.4000;0.2963;0.8822;
1196.7000;0.2963;0.8773;
1197.0000;0.2963;0.8773;
1197.3000;0.2963;0.8723;
1197.6000;0.2947;0.8698;
1197.9000;0.3036;0.9022;
1198.2000;0.2955;0.8773;
1198.5000;0.2922;0.8797;
1198.8000;0.2963;0.8872;
1199.1000;0.2963;0.8847;
1199.4000;0.2963;0.8872;
1199.7000;0.2955;0.8797;
1200.0000;0.2987;0.8997;
1200.3000;0.2955;0.8972;
1200.6000;0.2955;0.8897;
1200.9000;0.2955;0.8822;
1201.2000;0.2947;0.8847;
1201.5000;0.2955;0.8797;
1201.8000;0.2955;0.8822;
1202.1000;0.2963;0.8822;
1202.4000;0.2955;0.8797;
1202.7000;0.2963;0.8723;
1203.0000;0.2963;0.8748;
1203.3000;0.2955;0.8723;
1203.6000;0.2963;0.8723;
1203.9000;0.2996;0.8797;
1204.2000;0.2947;0.8723;
1204.5000;0.2963;0.8698;
1204.8000;0.2930;0.8548;
1205.1000;0.2947;0.8598;
1205.4000;0.2939;0.8573;
1205.7000;0.2955;0.8573;
1206.0000;0.2996;0.8598;
1206.3000;0.2963;0.8623;
1206.6000;0.2939;0.8623;
1206.9000;0.2979;0.8723;
1207.2000;0.2947;0.8673;
1207.5000;0.2947;0.8723;
1207.8000;0.2963;0.8673;
1208.1000;0.2971;0.8822;
1208.4000;0.3077;0.9097;
1208.7000;0.2955;0.8748;
1209.0000;0.3053;0.8947;
1209.3000;0.2955;0.8648;
1209.6000;0.2979;0.8673;
1209.9000;0.2955;0.8573;
1210.2000;0.2963;0.8598;
1210.5000;0.2947;0.8598;
1210.8000;0.2947;0.8623;
1211.1000;0.2955;0.8673;
1211.4000;0.2955;0.8648;
1211.7000;0.2963;0.8673;
1212.0000;0.2955;0.8748;
1212.3000;0.2963;0.8748;
1212.6000;0.2947;0.8773;
1212.9000;0.2955;0.8797;
1213.2000;0.2955;0.8872;
1213.5000;0.2955;0.8748;
1213.8000;0.2947;0.8773;
1214.1000;0.2947;0.8822;
1214.4000;0.2947;0.8897;
1214.7000;0.2955;0.8947;
1215.0000;0.3012;0.8922;
1215.3000;0.2947;0.8773;
1215.6000;0.2947;0.8748;
1215.9000;0.2955;0.8723;
1216.2000;0.2922;0.8573;
1216.5000;0.2955;0.8598;
1216.8000;0.2947;0.8698;
1217.1000;0.2963;0.8748;
1217.4000;0.2963;0.8748;
1217.7000;0.2963;0.8698;
1218.0000;0.2922;0.8623;
1218.3000;0.2955;0.8797;
1218.6000;0.2947;0.8822;
1218.9000;0.2971;0.8822;
1219.2000;0.2882;0.8623;
1219.5000;0.2963;0.8922;
1219.8000;0.2963;0.8872;
1220.1000;0.2963;0.8897;
1220.4000;0.2955;0.8872;
1220.7000;0.2971;0.8972;
1221.0000;0.2939;0.8847;
1221.3000;0.2939;0.8847;
1221.6000;0.2930;0.8748;
1221.9000;0.2971;0.8847;
1222.2000;0.2947;0.8897;
1222.5000;0.2963;0.8847;
1222.8000;0.2979;0.8847;
1223.1000;0.3020;0.8947;
1223.4000;0.2963;0.8847;
1223.7000;0.2947;0.8822;
1224.0000;0.2947;0.8748;
1224.3000;0.2963;0.8698;
1224.6000;0.2971;0.8723;
1224.9000;0.2963;0.8648;
1225.2000;0.2963;0.8548;
1225.5000;0.2849;0.8249;
1225.8000;0.2971;0.8648;
1226.1000;0.2955;0.8598;
1226.4000;0.2963;0.8698;
1226.7000;0.2963;0.8723;
1227.0000;0.2939;0.8748;
1227.3000;0.2987;0.8797;
1227.6000;0.2947;0.8623;
1227.9000;0.2922;0.8548;
1228.2000;0.2955;0.8673;
1228.5000;0.2939;0.8698;
1228.8000;0.2955;0.8773;
1229.1000;0.2955;0.8797;
1229.4000;0.2947;0.8698;
1229.7000;0.2963;0.8748;
1230.0000;0.2955;0.8698;
1230.3000;0.2873;0.8548;
1230.6000;0.2939;0.8723;
1230.9000;0.2963;0.8698;
1231.2000;0.2955;0.8648;
1231.5000;0.2898;0.8548;
1231.8000;0.3012;0.8872;
1232.1000;0.2930;0.8698;
1232.4000;0.2987;0.8847;
1232.7000;0.2955;0.8673;
1233.0000;0.2955;0.8648;
1233.3000;0.2939;0.8673;
1233.6000;0.2890;0.8548;
1233.9000;0.2930;0.8648;
1234.2000;0.2947;0.8773;
1234.5000;0.2939;0.8723;
1234.8000;0.2939;0.8773;
1235.1000;0.2955;0.8748;
1235.4000;0.2955;0.8822;
1235.7000;0.2939;0.8748;
1236.0000;0.2947;0.8797;
1236.3000;0.2955;0.8822;
1236.6000;0.2963;0.8748;
1236.9000;0.2955;0.8723;
1237.2000;0.2947;0.8723;
1237.5000;0.2963;0.8773;
1237.8000;0.2971;0.8847;
1238.1000;0.2955;0.8897;
1238.4000;0.2930;0.8872;
1238.7000;0.2939;0.8922;
1239.0000;0.2947;0.8972;
1239.3000;0.2930;0.8972;
1239.6000;0.2939;0.8897;
1239.9000;0.2939;0.8872;
1240.2000;0.2906;0.8748;
1240.5000;0.2947;0.8872;
1240.8000;0.2947;0.8822;
1241.1000;0.2963;0.8922;
1241.4000;0.2914;0.8847;
1241.7000;0.2955;0.8822;
1242.0000;0.2939;0.8723;
1242.3000;0.2947;0.8822;
1242.6000;0.2963;0.8897;
1242.9000;0.2955;0.8797;
1243.2000;0.2996;0.8872;
1243.5000;0.2963;0.8773;
1243.8000;0.2955;0.8897;
1244.1000;0.2947;0.8872;
1244.4000;0.2955;0.8872;
1244.7000;0.2922;0.8797;
1245.0000;0.2955;0.8922;
1245.3000;0.2930;0.8922;
1245.6000;0.2939;0.8922;
1245.9000;0.2955;0.8947;
1246.2000;0.2955;0.8872;
1246.5000;0.2947;0.8872;
1246.8000;0.2963;0.8972;
1247.1000;0.2955;0.8922;
1247.4000;0.2963;0.9047;
1247.7000;0.2930;0.8997;
1248.0000;0.2963;0.9022;
1248.3000;0.2947;0.9022;
1248.6000;0.2947;0.8947;
1248.9000;0.2947;0.8997;
1249.2000;0.2930;0.8847;
1249.5000;0.2963;0.8922;
1249.8000;0.3061;0.9221;
1250.1000;0.2947;0.8922;
1250.4000;0.2963;0.8872;
1250.7000;0.2906;0.8748;
1251.0000;0.2947;0.8847;
1251.3000;0.2955;0.8872;
1251.6000;0.2955;0.8872;
1251.9000;0.2939;0.8822;
1252.2000;0.2947;0.8847;
1252.5000;0.2963;0.8897;
1252.8000;0.2979;0.8897;
1253.1000;0.2930;0.8922;
1253.4000;0.2947;0.8922;
1253.7000;0.2963;0.8947;
1254.0000;0.2955;0.8947;
1254.3000;0.2947;0.8897;
1254.6000;0.2939;0.8872;
1254.9000;0.2873;0.8698;
1255.2000;0.2947;0.8972;
1255.5000;0.2930;0.8897;
1255.8000;0.2947;0.8897;
1256.1000;0.2979;0.9022;
1256.4000;0.2955;0.8922;
1256.7000;0.2906;0.8847;
1257.0000;0.2955;0.9022;
1257.3000;0.2930;0.8947;
1257.6000;0.2930;0.8847;
1257.9000;0.2971;0.8872;
1258.2000;0.2947;0.8797;
1258.5000;0.3044;0.9022;
1258.8000;0.2939;0.8822;
1259.1000;0.2873;0.8598;
1259.4000;0.2963;0.8822;
1259.7000;0.2955;0.8748;
1260.0000;0.2947;0.8822;
1260.3000;0.2955;0.8872;
1260.6000;0.2963;0.8872;
1260.9000;0.2955;0.8922;
1261.2000;0.2939;0.8897;
1261.5000;0.2963;0.9047;
1261.8000;0.2955;0.9047;
1262.1000;0.2996;0.9171;
1262.4000;0.2890;0.8872;
1262.7000;0.2979;0.9022;
1263.0000;0.2987;0.8947;
1263.3000;0.2947;0.8797;
1263.6000;0.2947;0.8748;
1263.9000;0.2955;0.8797;
1264.2000;0.2987;0.8947;
1264.5000;0.2939;0.8897;
1264.8000;0.2873;0.8623;
1265.1000;0.2971;0.8947;
1265.4000;0.2865;0.8748;
1265.7000;0.2963;0.8972;
1266.0000;0.3036;0.9072;
1266.3000;0.2947;0.8872;
1266.6000;0.2963;0.8972;
1266.9000;0.2955;0.8972;
1267.2000;0.2930;0.8897;
1267.5000;0.2914;0.8822;
1267.8000;0.2955;0.8947;
1268.1000;0.2963;0.8947;
1268.4000;0.2979;0.8997;
1268.7000;0.2955;0.8897;
1269.0000;0.2947;0.8847;
1269.3000;0.2963;0.8922;
1269.6000;0.2930;0.8972;
1269.9000;0.2914;0.8922;
1270.2000;0.2947;0.8972;
1270.5000;0.2939;0.8972;
1270.8000;0.2947;0.8997;
1271.1000;0.2939;0.8947;
1271.4000;0.2947;0.8947;
1271.7000;0.2939;0.8972;
1272.0000;0.2963;0.9072;
1272.3000;0.2947;0.9022;
1272.6000;0.2947;0.9022;
1272.9000;0.2955;0.8997;
1273.2000;0.2971;0.9022;
1273.5000;0.2939;0.8972;
1273.8000;0.2947;0.9022;
1274.1000;0.2963;0.9022;
1274.4000;0.2963;0.9022;
1274.7000;0.2947;0.8997;
1275.0000;0.2922;0.8997;
1275.3000;0.2947;0.8997;
1275.6000;0.3044;0.9271;
1275.9000;0.2963;0.9022;
1276.2000;0.2955;0.8997;
1276.5000;0.2963;0.8997;
1276.8000;0.2955;0.8922;
1277.1000;0.2939;0.8872;
1277.4000;0.2939;0.8947;
1277.7000;0.2955;0.8922;
1278.0000;0.2947;0.8773;
1278.3000;0.3020;0.9047;
1278.6000;0.2963;0.8822;
1278.9000;0.2947;0.8773;
1279.2000;0.2963;0.8822;
1279.5000;0.2963;0.8847;
1279.8000;0.2947;0.8872;
1280.1000;0.2930;0.8947;
1280.4000;0.2947;0.8972;
1280.7000;0.2939;0.8972;
1281.0000;0.2947;0.8997;
1281.3000;0.2890;0.8748;
1281.6000;0.2955;0.8773;
1281.9000;0.2955;0.8797;
1282.2000;0.2955;0.8748;
1282.5000;0.2963;0.8797;
1282.8000;0.2939;0.8773;
1283.1000;0.3020;0.8997;
1283.4000;0.2947;0.8797;
1283.7000;0.2939;0.8797;
1284.0000;0.2955;0.8822;
1284.3000;0.2930;0.8797;
1284.6000;0.2939;0.8847;
1284.9000;0.2947;0.8748;
1285.2000;0.2939;0.8797;
1285.5000;0.2963;0.8947;
1285.8000;0.2963;0.8922;
1286.1000;0.2939;0.8822;
1286.4000;0.2963;0.8847;
1286.7000;0.2947;0.8748;
1287.0000;0.2963;0.8698;
1287.3000;0.2971;0.8773;
1287.6000;0.2963;0.8748;
1287.9000;0.2955;0.8773;
1288.2000;0.2849;0.8498;
1288.5000;0.2979;0.8822;
1288.8000;0.2947;0.8773;
1289.1000;0.2930;0.8673;
1289.4000;0.2963;0.8698;
1289.7000;0.2947;0.8673;
1290.0000;0.2963;0.8698;
1290.3000;0.2939;0.8698;
1290.6000;0.2963;0.8723;
1290.9000;0.2963;0.8623;
1291.2000;0.2979;0.8748;
1291.5000;0.2963;0.8698;
1291.8000;0.2947;0.8648;
1292.1000;0.2963;0.8723;
1292.4000;0.2963;0.8748;
1292.7000;0.2955;0.8748;
1293.0000;0.2947;0.8723;
1293.3000;0.2939;0.8673;
1293.6000;0.2922;0.8548;
1293.9000;0.2963;0.8723;
1294.2000;0.2939;0.8698;
1294.5000;0.2930;0.8723;
1294.8000;0.2963;0.8822;
1295.1000;0.2939;0.8797;
1295.4000;0.2947;0.8748;
1295.7000;0.2947;0.8723;
1296.0000;0.2930;0.8748;
1296.3000;0.2955;0.8847;
1296.6000;0.2947;0.8822;
1296.9000;0.2947;0.8897;
1297.2000;0.2971;0.8922;
1297.5000;0.2955;0.8847;
1297.8000;0.2963;0.8748;
1298.1000;0.2955;0.8822;
1298.4000;0.2857;0.8698;
1298.7000;0.2955;0.8947;
1299.0000;0.2898;0.8723;
1299.3000;0.3020;0.8947;
1299.6000;0.2930;0.8723;
1299.9000;0.2955;0.8797;
1300.2000;0.2947;0.8847;
1300.5000;0.2947;0.8773;
1300.8000;0.2955;0.8773;
1301.1000;0.2971;0.8847;
1301.4000;0.2947;0.8723;
1301.7000;0.2939;0.8623;
1302.0000;0.2971;0.8648;
1302.3000;0.2930;0.8523;
1302.6000;0.3053;0.8822;
1302.9000;0.2947;0.8473;
1303.2000;0.2947;0.8498;
1303.5000;0.2955;0.8523;
1303.8000;0.2955;0.8548;
1304.1000;0.2947;0.8498;
1304.4000;0.2955;0.8498;
1304.7000;0.2963;0.8598;
1305.0000;0.2963;0.8623;
1305.3000;0.2947;0.8623;
1305.6000;0.2939;0.8648;
1305.9000;0.2955;0.8723;
1306.2000;0.2963;0.8773;
1306.5000;0.2963;0.8897;
1306.8000;0.2947;0.8822;
1307.1000;0.2979;0.8872;
1307.4000;0.2955;0.8773;
1307.7000;0.2947;0.8648;
1308.0000;0.2955;0.8673;
1308.3000;0.2955;0.8748;
1308.6000;0.2955;0.8748;
1308.9000;0.2947;0.8648;
1309.2000;0.2947;0.8698;
1309.5000;0.2939;0.8673;
1309.8000;0.2963;0.8797;
1310.1000;0.2963;0.8673;
1310.4000;0.2947;0.8623;
1310.7000;0.2947;0.8573;
1311.0000;0.2955;0.8648;
1311.3000;0.2987;0.8847;
1311.6000;0.2939;0.8748;
1311.9000;0.2955;0.8773;
1312.2000;0.2971;0.8797;
1312.5000;0.2955;0.8797;
1312.8000;0.2955;0.8698;
1313.1000;0.2947;0.8698;
1313.4000;0.2947;0.8673;
1313.7000;0.2947;0.8723;
1314.0000;0.2930;0.8748;
1314.3000;0.2939;0.8773;
1314.6000;0.2939;0.8673;
1314.9000;0.2939;0.8623;
1315.2000;0.2963;0.8748;
1315.5000;0.2939;0.8723;
1315.8000;0.2939;0.8748;
1316.1000;0.2955;0.8698;
1316.4000;0.2947;0.8773;
1316.7000;0.2955;0.8822;
1317.0000;0.2939;0.8822;
1317.3000;0.2922;0.8797;
1317.6000;0.2955;0.8847;
1317.9000;0.2930;0.8822;
1318.2000;0.2947;0.8847;
1318.5000;0.2963;0.8822;
1318.8000;0.2971;0.8872;
1319.1000;0.2963;0.8822;
1319.4000;0.2939;0.8797;
1319.7000;0.2939;0.8822;
1320.0000;0.2963;0.8847;
1320.3000;0.2955;0.8822;
1320.6000;0.2939;0.8773;
1320.9000;0.2939;0.8673;
1321.2000;0.2955;0.8748;
1321.5000;0.2939;0.8773;
1321.8000;0.2955;0.8872;
1322.1000;0.2947;0.8822;
1322.4000;0.2947;0.8797;
1322.7000;0.2939;0.8797;
1323.0000;0.2947;0.8748;
1323.3000;0.2947;0.8723;
1323.6000;0.2947;0.8748;
1323.9000;0.2971;0.8822;
1324.2000;0.2955;0.8797;
1324.5000;0.2939;0.8648;
1324.8000;0.3020;0.8847;
1325.1000;0.2955;0.8748;
1325.4000;0.2939;0.8648;
1325.7000;0.2955;0.8748;
1326.0000;0.2930;0.8723;
1326.3000;0.2963;0.8723;
1326.6000;0.2963;0.8773;
1326.9000;0.2914;0.8698;
1327.2000;0.2939;0.8698;
1327.5000;0.2947;0.8673;
1327.8000;0.2955;0.8723;
1328.1000;0.2833;0.8374;
1328.4000;0.2996;0.8797;
1328.7000;0.2939;0.8648;
1329.0000;0.2947;0.8748;
1329.3000;0.2963;0.8797;
1329.6000;0.2963;0.8648;
1329.9000;0.2947;0.8673;
1330.2000;0.2955;0.8698;
1330.5000;0.2955;0.8698;
1330.8000;0.2979;0.8797;
1331.1000;0.2947;0.8748;
1331.4000;0.2930;0.8698;
1331.7000;0.2955;0.8723;
1332.0000;0.2955;0.8673;
1332.3000;0.2955;0.8598;
1332.6000;0.2971;0.8773;
1332.9000;0.2947;0.8723;
1333.2000;0.2922;0.8673;
1333.5000;0.2955;0.8773;
1333.8000;0.2947;0.8723;
1334.1000;0.2963;0.8773;
1334.4000;0.2955;0.8773;
1334.7000;0.2963;0.8822;
1335.0000;0.2947;0.8723;
1335.3000;0.2955;0.8723;
1335.6000;0.3028;0.8947;
1335.9000;0.2963;0.8748;
1336.2000;0.2963;0.8822;
1336.5000;0.2963;0.8872;
1336.8000;0.2955;0.8872;
1337.1000;0.2939;0.8797;
1337.4000;0.2947;0.8847;
1337.7000;0.3020;0.9072;
1338.0000;0.2955;0.8847;
1338.3000;0.2955;0.8822;
1338.6000;0.2955;0.8922;
1338.9000;0.2955;0.8872;
1339.2000;0.2963;0.8872;
1339.5000;0.2971;0.8822;
1339.8000;0.2939;0.8773;
1340.1000;0.2947;0.8773;
1340.4000;0.2890;0.8573;
1340.7000;0.2955;0.8773;
1341.0000;0.2963;0.8897;
1341.3000;0.2947;0.8897;
1341.6000;0.2939;0.8897;
1341.9000;0.2930;0.8822;
1342.2000;0.2955;0.8822;
1342.5000;0.2955;0.8897;
1342.8000;0.2947;0.8847;
1343.1000;0.2947;0.8822;
1343.4000;0.2947;0.8822;
1343.7000;0.2890;0.8698;
1344.0000;0.2939;0.8748;
1344.3000;0.2922;0.8623;
1344.6000;0.2955;0.8673;
1344.9000;0.2955;0.8748;
1345.2000;0.2947;0.8673;
1345.5000;0.2939;0.8748;
1345.8000;0.2955;0.8872;
1346.1000;0.2963;0.8922;
1346.4000;0.2947;0.8897;
1346.7000;0.2955;0.8872;
1347.0000;0.2955;0.8922;
1347.3000;0.2947;0.8847;
1347.6000;0.2955;0.8748;
1347.9000;0.2955;0.8698;
1348.2000;0.3020;0.8972;
1348.5000;0.2955;0.8723;
1348.8000;0.2955;0.8698;
1349.1000;0.2947;0.8673;
1349.4000;0.2971;0.8598;
1349.7000;0.2963;0.8548;
1350.0000;0.2947;0.8598;
1350.3000;0.3028;0.8922;
1350.6000;0.2955;0.8773;
1350.9000;0.2955;0.8748;
1351.2000;0.2955;0.8698;
1351.5000;0.2947;0.8698;
1351.8000;0.2955;0.8748;
1352.1000;0.2963;0.8723;
1352.4000;0.2955;0.8748;
1352.7000;0.2963;0.8822;
1353.0000;0.2955;0.8773;
1353.3000;0.2947;0.8698;
1353.6000;0.2955;0.8723;
1353.9000;0.2947;0.8748;
1354.2000;0.2979;0.8897;
1354.5000;0.2963;0.8922;
1354.8000;0.2939;0.8897;
1355.1000;0.2947;0.8897;
1355.4000;0.2922;0.8773;
1355.7000;0.2914;0.8673;
1356.0000;0.2987;0.8847;
1356.3000;0.2955;0.8698;
1356.6000;0.2955;0.8748;
1356.9000;0.2971;0.8797;
1357.2000;0.2857;0.8523;
1357.5000;0.2979;0.8748;
1357.8000;0.2971;0.8822;
1358.1000;0.2955;0.8748;
1358.4000;0.2955;0.8773;
1358.7000;0.2947;0.8773;
1359.0000;0.2996;0.8822;
1359.3000;0.2987;0.8872;
1359.6000;0.2922;0.8773;
1359.9000;0.2947;0.8847;
1360.2000;0.2947;0.8897;
1360.5000;0.2955;0.8822;
1360.8000;0.2963;0.8773;
1361.1000;0.2947;0.8723;
1361.4000;0.2955;0.8723;
1361.7000;0.2971;0.8748;
1362.0000;0.2955;0.8797;
1362.3000;0.2963;0.8897;
1362.6000;0.2955;0.8947;
1362.9000;0.2963;0.8872;
1363.2000;0.2971;0.8872;
1363.5000;0.2963;0.9022;
1363.8000;0.2955;0.8947;
1364.1000;0.2955;0.8947;
1364.4000;0.2971;0.9047;
1364.7000;0.2971;0.8997;
1365.0000;0.2971;0.8947;
1365.3000;0.3012;0.9047;
1365.6000;0.2955;0.8997;
1365.9000;0.2963;0.9121;
1366.2000;0.2963;0.9022;
1366.5000;0.2955;0.8947;
1366.8000;0.2955;0.8972;
1367.1000;0.2971;0.8972;
1367.4000;0.2947;0.8922;
1367.7000;0.2939;0.8872;
1368.0000;0.2947;0.8922;
1368.3000;0.3020;0.9196;
1368.6000;0.2955;0.9022;
1368.9000;0.3004;0.9146;
1369.2000;0.2955;0.9047;
1369.5000;0.2947;0.9022;
1369.8000;0.2939;0.9047;
1370.1000;0.2971;0.9146;
1370.4000;0.2930;0.9121;
1370.7000;0.2955;0.9121;
1371.0000;0.2971;0.9246;
1371.3000;0.2939;0.9196;
1371.6000;0.2955;0.9196;
1371.9000;0.2955;0.9196;
1372.2000;0.2979;0.9271;
1372.5000;0.2955;0.9196;
1372.8000;0.2947;0.9196;
1373.1000;0.2996;0.9171;
1373.4000;0.2955;0.9146;
1373.7000;0.2939;0.9097;
1374.0000;0.2857;0.8897;
1374.3000;0.2939;0.8972;
1374.6000;0.2930;0.8947;
1374.9000;0.2939;0.8947;
1375.2000;0.2947;0.8947;
1375.5000;0.2898;0.8847;
1375.8000;0.2955;0.9072;
1376.1000;0.2963;0.9097;
1376.4000;0.2947;0.9097;
1376.7000;0.2955;0.8997;
1377.0000;0.2955;0.9097;
1377.3000;0.2979;0.8997;
1377.6000;0.2963;0.8897;
1377.9000;0.2947;0.8872;
1378.2000;0.2996;0.8997;
1378.5000;0.2947;0.8897;
1378.8000;0.2930;0.8972;
1379.1000;0.2939;0.8922;
1379.4000;0.2947;0.8972;
1379.7000;0.2930;0.8897;
1380.0000;0.3053;0.9346;
1380.3000;0.2947;0.9022;
1380.6000;0.2947;0.8972;
1380.9000;0.2955;0.8972;
1381.2000;0.2914;0.8947;
1381.5000;0.2939;0.9022;
1381.8000;0.2939;0.8997;
1382.1000;0.2963;0.9097;
1382.4000;0.2963;0.8997;
1382.7000;0.2955;0.8997;
1383.0000;0.2947;0.8947;
1383.3000;0.2922;0.8872;
1383.6000;0.2955;0.9022;
1383.9000;0.2971;0.8947;
1384.2000;0.2947;0.8922;
1384.5000;0.2947;0.8822;
1384.8000;0.2963;0.8872;
1385.1000;0.2955;0.8872;
1385.4000;0.2939;0.8797;
1385.7000;0.2939;0.8723;
1386.0000;0.2947;0.8723;
1386.3000;0.2979;0.8847;
1386.6000;0.2939;0.8773;
1386.9000;0.2930;0.8723;
1387.2000;0.2947;0.8698;
1387.5000;0.2971;0.8723;
1387.8000;0.2963;0.8723;
1388.1000;0.2963;0.8748;
1388.4000;0.2947;0.8723;
1388.7000;0.2963;0.8797;
1389.0000;0.2955;0.8847;
1389.3000;0.2930;0.8673;
1389.6000;0.2947;0.8723;
1389.9000;0.2939;0.8748;
1390.2000;0.2971;0.8822;
1390.5000;0.2939;0.8797;
1390.8000;0.2947;0.8872;
1391.1000;0.2963;0.9022;
1391.4000;0.2955;0.8997;
1391.7000;0.2955;0.8972;
1392.0000;0.2947;0.8997;
1392.3000;0.2963;0.9022;
1392.6000;0.2963;0.9097;
1392.9000;0.2963;0.9022;
1393.2000;0.2947;0.8822;
1393.5000;0.2971;0.8922;
1393.8000;0.2947;0.8797;
1394.1000;0.2955;0.8773;
1394.4000;0.2939;0.8822;
1394.7000;0.2939;0.8847;
1395.0000;0.2955;0.8897;
1395.3000;0.2947;0.8797;
1395.6000;0.2955;0.8822;
1395.9000;0.2939;0.8797;
1396.2000;0.2955;0.8822;
1396.5000;0.2963;0.8773;
1396.8000;0.2947;0.8797;
1397.1000;0.2955;0.8822;
1397.4000;0.2947;0.8822;
1397.7000;0.2971;0.9022;
1398.0000;0.2955;0.8922;
1398.3000;0.2955;0.8947;
1398.6000;0.2979;0.8972;
1398.9000;0.2963;0.8997;
1399.2000;0.2971;0.8997;
1399.5000;0.2955;0.8997;
1399.8000;0.2947;0.8897;
