time/ms;Fluo/V;P700 deltaI/I x10³;
-199.8000;0.3158;0.9844;
-199.5000;0.3150;0.9769;
-199.2000;0.3175;0.9869;
-198.9000;0.3166;0.9844;
-198.6000;0.3175;0.9894;
-198.3000;0.3166;0.9919;
-198.0000;0.3166;0.9994;
-197.7000;0.3215;1.0143;
-197.4000;0.3191;1.0093;
-197.1000;0.3150;1.0044;
-196.8000;0.3166;1.0143;
-196.5000;0.3150;1.0168;
-196.2000;0.3142;1.0093;
-195.9000;0.3158;1.0019;
-195.6000;0.3158;0.9944;
-195.3000;0.3158;0.9944;
-195.0000;0.3158;1.0019;
-194.7000;0.3150;0.9919;
-194.4000;0.3158;0.9919;
-194.1000;0.3166;0.9919;
-193.8000;0.3166;0.9894;
-193.5000;0.3150;0.9994;
-193.2000;0.3150;0.9994;
-192.9000;0.3142;1.0068;
-192.6000;0.3183;1.0143;
-192.3000;0.3150;0.9969;
-192.0000;0.3166;0.9919;
-191.7000;0.3166;0.9894;
-191.4000;0.3166;0.9919;
-191.1000;0.3166;0.9894;
-190.8000;0.3150;0.9869;
-190.5000;0.3191;0.9944;
-190.2000;0.3166;0.9869;
-189.9000;0.3158;0.9769;
-189.6000;0.3150;0.9720;
-189.3000;0.3150;0.9695;
-189.0000;0.3166;0.9720;
-188.7000;0.3158;0.9695;
-188.4000;0.3166;0.9744;
-188.1000;0.3142;0.9720;
-187.8000;0.3158;0.9695;
-187.5000;0.3150;0.9620;
-187.2000;0.3150;0.9670;
-186.9000;0.3150;0.9670;
-186.6000;0.3158;0.9695;
-186.3000;0.3166;0.9720;
-186.0000;0.3150;0.9720;
-185.7000;0.3166;0.9744;
-185.4000;0.3183;0.9794;
-185.1000;0.3183;0.9794;
-184.8000;0.3166;0.9794;
-184.5000;0.3158;0.9720;
-184.2000;0.3166;0.9819;
-183.9000;0.3207;0.9969;
-183.6000;0.3166;0.9819;
-183.3000;0.3158;0.9869;
-183.0000;0.3158;0.9844;
-182.7000;0.3166;0.9944;
-182.4000;0.3166;0.9944;
-182.1000;0.3150;0.9994;
-181.8000;0.3166;0.9969;
-181.5000;0.3183;0.9944;
-181.2000;0.3166;0.9919;
-180.9000;0.3166;0.9944;
-180.6000;0.3150;0.9869;
-180.3000;0.3158;0.9919;
-180.0000;0.3166;0.9894;
-179.7000;0.3150;0.9869;
-179.4000;0.3166;0.9969;
-179.1000;0.3166;0.9969;
-178.8000;0.3150;0.9919;
-178.5000;0.3150;0.9844;
-178.2000;0.3142;0.9794;
-177.9000;0.3142;0.9769;
-177.6000;0.3158;0.9794;
-177.3000;0.3175;0.9869;
-177.0000;0.3150;0.9819;
-176.7000;0.3142;0.9819;
-176.4000;0.3166;0.9869;
-176.1000;0.3166;0.9919;
-175.8000;0.3158;0.9994;
-175.5000;0.3166;0.9994;
-175.2000;0.3158;0.9944;
-174.9000;0.3158;0.9944;
-174.6000;0.3175;1.0044;
-174.3000;0.3150;1.0019;
-174.0000;0.3158;1.0044;
-173.7000;0.3150;1.0068;
-173.4000;0.3158;1.0019;
-173.1000;0.3150;1.0044;
-172.8000;0.3150;1.0093;
-172.5000;0.3158;1.0143;
-172.2000;0.3158;1.0118;
-171.9000;0.3215;1.0168;
-171.6000;0.3150;0.9944;
-171.3000;0.3150;0.9894;
-171.0000;0.3175;0.9919;
-170.7000;0.3183;0.9919;
-170.4000;0.3166;0.9869;
-170.1000;0.3175;0.9819;
-169.8000;0.3183;0.9819;
-169.5000;0.3166;0.9794;
-169.2000;0.3158;0.9769;
-168.9000;0.3158;0.9819;
-168.6000;0.3175;0.9919;
-168.3000;0.3134;0.9844;
-168.0000;0.3158;0.9844;
-167.7000;0.3134;0.9794;
-167.4000;0.3150;0.9819;
-167.1000;0.3166;0.9869;
-166.8000;0.3150;0.9769;
-166.5000;0.3158;0.9794;
-166.2000;0.3166;0.9794;
-165.9000;0.3158;0.9769;
-165.6000;0.3158;0.9844;
-165.3000;0.3166;0.9794;
-165.0000;0.3166;0.9744;
-164.7000;0.3061;0.9570;
-164.4000;0.3158;0.9794;
-164.1000;0.3158;0.9819;
-163.8000;0.3166;0.9819;
-163.5000;0.3158;0.9894;
-163.2000;0.3109;0.9794;
-162.9000;0.3158;0.9869;
-162.6000;0.3150;0.9894;
-162.3000;0.3166;0.9844;
-162.0000;0.3150;0.9869;
-161.7000;0.3175;0.9869;
-161.4000;0.3175;0.9819;
-161.1000;0.3256;1.0019;
-160.8000;0.3126;0.9720;
-160.5000;0.3150;0.9744;
-160.2000;0.3150;0.9744;
-159.9000;0.3183;0.9944;
-159.6000;0.3166;0.9919;
-159.3000;0.3166;0.9944;
-159.0000;0.3158;0.9919;
-158.7000;0.3175;0.9919;
-158.4000;0.3166;0.9919;
-158.1000;0.3183;0.9969;
-157.8000;0.3215;1.0143;
-157.5000;0.3150;0.9894;
-157.2000;0.3150;0.9894;
-156.9000;0.3158;1.0044;
-156.6000;0.3142;0.9994;
-156.3000;0.3166;1.0019;
-156.0000;0.3126;0.9944;
-155.7000;0.3150;0.9994;
-155.4000;0.3158;0.9919;
-155.1000;0.3150;0.9944;
-154.8000;0.3175;0.9994;
-154.5000;0.3183;1.0019;
-154.2000;0.3150;0.9969;
-153.9000;0.3158;0.9994;
-153.6000;0.3175;1.0019;
-153.3000;0.3150;0.9944;
-153.0000;0.3158;0.9869;
-152.7000;0.3150;0.9794;
-152.4000;0.3150;0.9744;
-152.1000;0.3158;0.9720;
-151.8000;0.3150;0.9744;
-151.5000;0.3069;0.9470;
-151.2000;0.3158;0.9695;
-150.9000;0.3175;0.9769;
-150.6000;0.3175;0.9819;
-150.3000;0.3175;0.9744;
-150.0000;0.3166;0.9794;
-149.7000;0.3175;0.9769;
-149.4000;0.3166;0.9744;
-149.1000;0.3158;0.9744;
-148.8000;0.3166;0.9819;
-148.5000;0.3207;0.9869;
-148.2000;0.3158;0.9769;
-147.9000;0.3150;0.9819;
-147.6000;0.3166;0.9894;
-147.3000;0.3150;0.9869;
-147.0000;0.3191;0.9944;
-146.7000;0.3142;0.9819;
-146.4000;0.3158;0.9794;
-146.1000;0.3150;0.9794;
-145.8000;0.3183;0.9919;
-145.5000;0.3199;0.9969;
-145.2000;0.3199;0.9969;
-144.9000;0.3199;0.9919;
-144.6000;0.3175;0.9844;
-144.3000;0.3183;0.9844;
-144.0000;0.3150;0.9720;
-143.7000;0.3134;0.9720;
-143.4000;0.3150;0.9844;
-143.1000;0.3142;0.9894;
-142.8000;0.3142;0.9869;
-142.5000;0.3134;0.9844;
-142.2000;0.3142;0.9894;
-141.9000;0.3134;0.9919;
-141.6000;0.3150;0.9869;
-141.3000;0.3150;0.9794;
-141.0000;0.3150;0.9744;
-140.7000;0.3150;0.9720;
-140.4000;0.3166;0.9794;
-140.1000;0.3175;0.9869;
-139.8000;0.3158;0.9844;
-139.5000;0.3175;0.9919;
-139.2000;0.3158;0.9944;
-138.9000;0.3166;0.9944;
-138.6000;0.3158;0.9894;
-138.3000;0.3166;0.9894;
-138.0000;0.3158;0.9869;
-137.7000;0.3223;0.9919;
-137.4000;0.3150;0.9720;
-137.1000;0.3158;0.9769;
-136.8000;0.3175;0.9720;
-136.5000;0.3166;0.9695;
-136.2000;0.3150;0.9670;
-135.9000;0.3158;0.9769;
-135.6000;0.3134;0.9720;
-135.3000;0.3158;0.9769;
-135.0000;0.3150;0.9769;
-134.7000;0.3166;0.9844;
-134.4000;0.3166;0.9894;
-134.1000;0.3158;0.9819;
-133.8000;0.3150;0.9769;
-133.5000;0.3142;0.9794;
-133.2000;0.3166;0.9844;
-132.9000;0.3158;0.9844;
-132.6000;0.3150;0.9794;
-132.3000;0.3142;0.9720;
-132.0000;0.3199;0.9844;
-131.7000;0.3158;0.9744;
-131.4000;0.3166;0.9720;
-131.1000;0.3158;0.9670;
-130.8000;0.3166;0.9620;
-130.5000;0.3183;0.9620;
-130.2000;0.3150;0.9595;
-129.9000;0.3175;0.9670;
-129.6000;0.3166;0.9695;
-129.3000;0.3175;0.9819;
-129.0000;0.3150;0.9720;
-128.7000;0.3150;0.9695;
-128.4000;0.3158;0.9794;
-128.1000;0.3150;0.9794;
-127.8000;0.3158;0.9869;
-127.5000;0.3166;0.9819;
-127.2000;0.3158;0.9794;
-126.9000;0.3166;0.9769;
-126.6000;0.3215;0.9919;
-126.3000;0.3150;0.9819;
-126.0000;0.3158;0.9794;
-125.7000;0.3199;0.9844;
-125.4000;0.3150;0.9794;
-125.1000;0.3142;0.9794;
-124.8000;0.3175;0.9819;
-124.5000;0.3166;0.9769;
-124.2000;0.3175;0.9794;
-123.9000;0.3150;0.9744;
-123.6000;0.3150;0.9769;
-123.3000;0.3175;0.9819;
-123.0000;0.3142;0.9769;
-122.7000;0.3166;0.9894;
-122.4000;0.3142;0.9819;
-122.1000;0.3166;0.9869;
-121.8000;0.3158;0.9894;
-121.5000;0.3207;0.9894;
-121.2000;0.3126;0.9720;
-120.9000;0.3150;0.9695;
-120.6000;0.3166;0.9744;
-120.3000;0.3166;0.9720;
-120.0000;0.3175;0.9744;
-119.7000;0.3183;0.9769;
-119.4000;0.3166;0.9695;
-119.1000;0.3248;0.9894;
-118.8000;0.3158;0.9695;
-118.5000;0.3158;0.9744;
-118.2000;0.3150;0.9695;
-117.9000;0.3150;0.9645;
-117.6000;0.3150;0.9670;
-117.3000;0.3150;0.9695;
-117.0000;0.3166;0.9819;
-116.7000;0.3142;0.9769;
-116.4000;0.3158;0.9769;
-116.1000;0.3142;0.9670;
-115.8000;0.3183;0.9744;
-115.5000;0.3166;0.9819;
-115.2000;0.3166;0.9794;
-114.9000;0.3126;0.9744;
-114.6000;0.3150;0.9869;
-114.3000;0.3191;0.9844;
-114.0000;0.3150;0.9844;
-113.7000;0.3191;1.0044;
-113.4000;0.3150;1.0068;
-113.1000;0.3166;1.0143;
-112.8000;0.3175;1.0143;
-112.5000;0.3175;1.0019;
-112.2000;0.3142;0.9869;
-111.9000;0.3134;0.9794;
-111.6000;0.3101;0.9670;
-111.3000;0.3183;0.9869;
-111.0000;0.3272;1.0193;
-110.7000;0.3158;0.9919;
-110.4000;0.3134;0.9919;
-110.1000;0.3166;1.0068;
-109.8000;0.3175;0.9994;
-109.5000;0.3158;0.9969;
-109.2000;0.3150;0.9994;
-108.9000;0.3175;0.9994;
-108.6000;0.3166;0.9994;
-108.3000;0.3166;1.0019;
-108.0000;0.3101;0.9844;
-107.7000;0.3175;1.0118;
-107.4000;0.3215;1.0268;
-107.1000;0.3166;1.0143;
-106.8000;0.3150;1.0143;
-106.5000;0.3166;1.0168;
-106.2000;0.3183;1.0168;
-105.9000;0.3150;1.0044;
-105.6000;0.3142;0.9969;
-105.3000;0.3158;1.0093;
-105.0000;0.3191;1.0118;
-104.7000;0.3158;1.0093;
-104.4000;0.3166;1.0068;
-104.1000;0.3142;0.9994;
-103.8000;0.3158;0.9919;
-103.5000;0.3207;0.9969;
-103.2000;0.3109;0.9670;
-102.9000;0.3158;0.9819;
-102.6000;0.3158;0.9819;
-102.3000;0.3166;0.9844;
-102.0000;0.3158;0.9844;
-101.7000;0.3175;0.9869;
-101.4000;0.3183;0.9944;
-101.1000;0.3158;0.9969;
-100.8000;0.3158;0.9969;
-100.5000;0.3158;1.0093;
-100.2000;0.3175;1.0044;
-99.9000;0.3175;1.0068;
-99.6000;0.3150;1.0019;
-99.3000;0.3166;1.0044;
-99.0000;0.3158;1.0118;
-98.7000;0.3166;1.0143;
-98.4000;0.3069;0.9894;
-98.1000;0.3150;1.0068;
-97.8000;0.3142;1.0118;
-97.5000;0.3166;1.0068;
-97.2000;0.3150;0.9894;
-96.9000;0.3142;0.9894;
-96.6000;0.3150;0.9969;
-96.3000;0.3158;0.9919;
-96.0000;0.3158;0.9994;
-95.7000;0.3126;0.9919;
-95.4000;0.3223;1.0118;
-95.1000;0.3191;0.9969;
-94.8000;0.3150;0.9869;
-94.5000;0.3166;1.0019;
-94.2000;0.3166;1.0019;
-93.9000;0.3175;1.0044;
-93.6000;0.3150;0.9969;
-93.3000;0.3158;1.0019;
-93.0000;0.3150;0.9969;
-92.7000;0.3158;0.9969;
-92.4000;0.3150;0.9919;
-92.1000;0.3150;0.9869;
-91.8000;0.3191;0.9894;
-91.5000;0.3158;0.9819;
-91.2000;0.3166;0.9844;
-90.9000;0.3134;0.9819;
-90.6000;0.3150;0.9819;
-90.3000;0.3134;0.9794;
-90.0000;0.3150;0.9844;
-89.7000;0.3183;0.9844;
-89.4000;0.3191;0.9794;
-89.1000;0.3142;0.9720;
-88.8000;0.3150;0.9720;
-88.5000;0.3183;0.9869;
-88.2000;0.3175;0.9869;
-87.9000;0.3142;0.9894;
-87.6000;0.3134;0.9869;
-87.3000;0.3199;0.9919;
-87.0000;0.3166;0.9720;
-86.7000;0.3150;0.9720;
-86.4000;0.3158;0.9819;
-86.1000;0.3166;0.9844;
-85.8000;0.3183;0.9919;
-85.5000;0.3142;0.9894;
-85.2000;0.3150;0.9819;
-84.9000;0.3175;0.9919;
-84.6000;0.3158;0.9869;
-84.3000;0.3158;0.9844;
-84.0000;0.3191;1.0093;
-83.7000;0.3150;1.0068;
-83.4000;0.3150;0.9969;
-83.1000;0.3134;0.9819;
-82.8000;0.3142;0.9769;
-82.5000;0.3158;0.9919;
-82.2000;0.3158;0.9919;
-81.9000;0.3150;0.9944;
-81.6000;0.3142;0.9969;
-81.3000;0.3158;0.9869;
-81.0000;0.3158;0.9819;
-80.7000;0.3118;0.9744;
-80.4000;0.3166;0.9869;
-80.1000;0.3166;0.9769;
-79.8000;0.3175;0.9844;
-79.5000;0.3158;0.9844;
-79.2000;0.3158;0.9869;
-78.9000;0.3166;0.9919;
-78.6000;0.3272;1.0218;
-78.3000;0.3183;0.9944;
-78.0000;0.3191;0.9969;
-77.7000;0.3142;0.9944;
-77.4000;0.3158;0.9894;
-77.1000;0.3158;0.9969;
-76.8000;0.3158;0.9894;
-76.5000;0.3150;0.9844;
-76.2000;0.3085;0.9720;
-75.9000;0.3166;0.9894;
-75.6000;0.3158;0.9919;
-75.3000;0.3150;0.9819;
-75.0000;0.3166;0.9869;
-74.7000;0.3158;0.9944;
-74.4000;0.3215;1.0044;
-74.1000;0.3142;0.9919;
-73.8000;0.3183;1.0143;
-73.5000;0.3158;0.9994;
-73.2000;0.3150;0.9944;
-72.9000;0.3158;0.9919;
-72.6000;0.3158;0.9994;
-72.3000;0.3150;1.0044;
-72.0000;0.3150;1.0019;
-71.7000;0.3158;0.9994;
-71.4000;0.3256;1.0218;
-71.1000;0.3158;0.9944;
-70.8000;0.3158;1.0044;
-70.5000;0.3158;1.0019;
-70.2000;0.3150;1.0044;
-69.9000;0.3158;1.0118;
-69.6000;0.3175;1.0118;
-69.3000;0.3150;1.0068;
-69.0000;0.3158;1.0044;
-68.7000;0.3175;1.0019;
-68.4000;0.3166;0.9919;
-68.1000;0.3248;1.0118;
-67.8000;0.3166;0.9894;
-67.5000;0.3150;0.9794;
-67.2000;0.3150;0.9794;
-66.9000;0.3158;0.9769;
-66.6000;0.3158;0.9819;
-66.3000;0.3199;0.9894;
-66.0000;0.3166;0.9919;
-65.7000;0.3118;0.9869;
-65.4000;0.3142;1.0019;
-65.1000;0.3158;1.0093;
-64.8000;0.3134;1.0019;
-64.5000;0.3175;1.0143;
-64.2000;0.3175;1.0093;
-63.9000;0.3134;0.9919;
-63.6000;0.3150;0.9944;
-63.3000;0.3158;0.9994;
-63.0000;0.3158;1.0068;
-62.7000;0.3150;0.9994;
-62.4000;0.3158;0.9994;
-62.1000;0.3134;0.9969;
-61.8000;0.3150;1.0118;
-61.5000;0.3158;1.0168;
-61.2000;0.3150;1.0118;
-60.9000;0.3118;0.9994;
-60.6000;0.3150;1.0019;
-60.3000;0.3166;0.9994;
-60.0000;0.3272;1.0293;
-59.7000;0.3150;0.9969;
-59.4000;0.3150;0.9994;
-59.1000;0.3158;0.9969;
-58.8000;0.3142;0.9969;
-58.5000;0.3142;1.0044;
-58.2000;0.3150;1.0068;
-57.9000;0.3175;1.0193;
-57.6000;0.3150;1.0143;
-57.3000;0.3150;1.0068;
-57.0000;0.3142;1.0044;
-56.7000;0.3175;1.0143;
-56.4000;0.3158;1.0093;
-56.1000;0.3207;1.0168;
-55.8000;0.3183;1.0193;
-55.5000;0.3150;1.0118;
-55.2000;0.3166;1.0118;
-54.9000;0.3158;1.0093;
-54.6000;0.3183;1.0143;
-54.3000;0.3166;1.0143;
-54.0000;0.3166;1.0193;
-53.7000;0.3166;1.0143;
-53.4000;0.3183;1.0243;
-53.1000;0.3166;1.0143;
-52.8000;0.3150;1.0068;
-52.5000;0.3158;0.9969;
-52.2000;0.3077;0.9695;
-51.9000;0.3175;0.9994;
-51.6000;0.3158;0.9919;
-51.3000;0.3166;0.9994;
-51.0000;0.3166;0.9994;
-50.7000;0.3166;1.0019;
-50.4000;0.3232;1.0218;
-50.1000;0.3166;1.0093;
-49.8000;0.3134;0.9919;
-49.5000;0.3142;0.9844;
-49.2000;0.3207;1.0068;
-48.9000;0.3126;0.9869;
-48.6000;0.3150;0.9894;
-48.3000;0.3166;0.9919;
-48.0000;0.3183;0.9994;
-47.7000;0.3166;0.9894;
-47.4000;0.3109;0.9744;
-47.1000;0.3175;0.9994;
-46.8000;0.3158;1.0019;
-46.5000;0.3175;0.9994;
-46.2000;0.3158;0.9919;
-45.9000;0.3175;0.9944;
-45.6000;0.3166;1.0019;
-45.3000;0.3166;0.9994;
-45.0000;0.3175;0.9969;
-44.7000;0.3142;0.9869;
-44.4000;0.3158;0.9869;
-44.1000;0.3199;0.9969;
-43.8000;0.3183;0.9894;
-43.5000;0.3158;0.9794;
-43.2000;0.3166;0.9844;
-42.9000;0.3175;0.9894;
-42.6000;0.3158;0.9919;
-42.3000;0.3175;0.9919;
-42.0000;0.3158;0.9844;
-41.7000;0.3158;0.9769;
-41.4000;0.3166;0.9769;
-41.1000;0.3175;0.9844;
-40.8000;0.3142;0.9794;
-40.5000;0.3158;0.9869;
-40.2000;0.3142;0.9794;
-39.9000;0.3166;0.9794;
-39.6000;0.3175;0.9869;
-39.3000;0.3158;0.9919;
-39.0000;0.3134;0.9969;
-38.7000;0.3142;0.9969;
-38.4000;0.3158;0.9944;
-38.1000;0.3158;0.9894;
-37.8000;0.3175;0.9919;
-37.5000;0.3166;0.9919;
-37.2000;0.3183;0.9994;
-36.9000;0.3142;0.9969;
-36.6000;0.3166;1.0118;
-36.3000;0.3158;1.0168;
-36.0000;0.3166;1.0093;
-35.7000;0.3150;0.9969;
-35.4000;0.3142;0.9994;
-35.1000;0.3158;1.0019;
-34.8000;0.3150;0.9919;
-34.5000;0.3150;0.9869;
-34.2000;0.3166;0.9894;
-33.9000;0.3175;0.9894;
-33.6000;0.3166;0.9769;
-33.3000;0.3158;0.9720;
-33.0000;0.3150;0.9620;
-32.7000;0.3150;0.9670;
-32.4000;0.3199;0.9819;
-32.1000;0.3158;0.9769;
-31.8000;0.3142;0.9744;
-31.5000;0.3215;0.9969;
-31.2000;0.3175;0.9844;
-30.9000;0.3166;0.9969;
-30.6000;0.3158;0.9994;
-30.3000;0.3175;1.0019;
-30.0000;0.3175;1.0118;
-29.7000;0.3166;1.0068;
-29.4000;0.3126;0.9944;
-29.1000;0.3175;1.0093;
-28.8000;0.3158;1.0143;
-28.5000;0.3175;1.0168;
-28.2000;0.3150;1.0143;
-27.9000;0.3150;1.0093;
-27.6000;0.3158;1.0093;
-27.3000;0.3183;1.0118;
-27.0000;0.3158;1.0044;
-26.7000;0.3183;1.0044;
-26.4000;0.3183;1.0068;
-26.1000;0.3191;1.0093;
-25.8000;0.3158;0.9994;
-25.5000;0.3166;1.0044;
-25.2000;0.3101;0.9894;
-24.9000;0.3166;0.9969;
-24.6000;0.3142;0.9969;
-24.3000;0.3166;1.0068;
-24.0000;0.3142;1.0118;
-23.7000;0.3166;1.0168;
-23.4000;0.3142;1.0068;
-23.1000;0.3150;1.0093;
-22.8000;0.3142;0.9994;
-22.5000;0.3142;0.9944;
-22.2000;0.3166;1.0019;
-21.9000;0.3158;0.9969;
-21.6000;0.3150;0.9994;
-21.3000;0.3158;1.0044;
-21.0000;0.3150;1.0143;
-20.7000;0.3175;1.0168;
-20.4000;0.3166;1.0093;
-20.1000;0.3183;1.0143;
-19.8000;0.3166;1.0044;
-19.5000;0.3150;1.0068;
-19.2000;0.3166;1.0044;
-18.9000;0.3175;1.0044;
-18.6000;0.3134;0.9944;
-18.3000;0.3150;1.0093;
-18.0000;0.3158;1.0118;
-17.7000;0.3158;1.0093;
-17.4000;0.3142;1.0044;
-17.1000;0.3150;1.0019;
-16.8000;0.3142;1.0019;
-16.5000;0.3150;0.9994;
-16.2000;0.3158;1.0019;
-15.9000;0.3166;1.0044;
-15.6000;0.3142;0.9919;
-15.3000;0.3199;1.0068;
-15.0000;0.3166;0.9969;
-14.7000;0.3166;1.0118;
-14.4000;0.3150;1.0019;
-14.1000;0.3150;0.9994;
-13.8000;0.3166;1.0118;
-13.5000;0.3166;1.0093;
-13.2000;0.3166;1.0143;
-12.9000;0.3158;1.0068;
-12.6000;0.3166;1.0143;
-12.3000;0.3150;0.9969;
-12.0000;0.3158;0.9919;
-11.7000;0.3134;0.9944;
-11.4000;0.3158;0.9969;
-11.1000;0.3166;1.0019;
-10.8000;0.3158;0.9994;
-10.5000;0.3150;0.9944;
-10.2000;0.3150;0.9969;
-9.9000;0.3150;1.0019;
-9.6000;0.3118;0.9944;
-9.3000;0.3158;0.9994;
-9.0000;0.3150;0.9944;
-8.7000;0.3134;0.9869;
-8.4000;0.3150;0.9994;
-8.1000;0.3150;0.9969;
-7.8000;0.3150;0.9894;
-7.5000;0.3166;0.9794;
-7.2000;0.3150;0.9769;
-6.9000;0.3158;0.9744;
-6.6000;0.3134;0.9819;
-6.3000;0.3150;0.9844;
-6.0000;0.3175;0.9944;
-5.7000;0.3150;0.9894;
-5.4000;0.3150;0.9819;
-5.1000;0.3150;0.9744;
-4.8000;0.3150;0.9645;
-4.5000;0.3175;0.9695;
-4.2000;0.3158;0.9720;
-3.9000;0.3166;0.9769;
-3.6000;0.3158;0.9744;
-3.3000;0.3158;0.9720;
-3.0000;0.3093;0.9570;
-2.7000;0.3175;0.9844;
-2.4000;0.3166;0.9869;
-2.1000;0.3166;0.9894;
-1.8000;0.3150;0.9894;
-1.5000;0.3158;0.9994;
-1.2000;0.3093;0.9869;
-0.9000;0.3166;1.0044;
-0.6000;0.3183;1.0068;
-0.3000;0.3199;1.0019;
0.0000;0.3199;1.0019;
0.3000;0.3223;0.9844;
0.6000;0.3427;1.0517;
0.9000;0.3565;1.0966;
1.2000;0.3639;1.1315;
1.5000;0.3744;1.1663;
1.8000;0.3793;1.2087;
2.1000;0.3883;1.2436;
2.4000;0.3923;1.2710;
2.7000;0.3964;1.2959;
3.0000;0.3940;1.2959;
3.3000;0.3940;1.3134;
3.6000;0.3956;1.3308;
3.9000;0.4013;1.3508;
4.2000;0.4013;1.3607;
4.5000;0.4021;1.3582;
4.8000;0.4013;1.3533;
5.1000;0.4013;1.3657;
5.4000;0.4078;1.3732;
5.7000;0.4046;1.3657;
6.0000;0.4070;1.3682;
6.3000;0.4086;1.3682;
6.6000;0.4094;1.3782;
6.9000;0.4119;1.3857;
7.2000;0.4086;1.3857;
7.5000;0.4078;1.3906;
7.8000;0.4103;1.4006;
8.1000;0.4160;1.4106;
8.4000;0.4103;1.4056;
8.7000;0.4103;1.4056;
9.0000;0.4103;1.3981;
9.3000;0.4062;1.3882;
9.6000;0.4135;1.4031;
9.9000;0.4119;1.3906;
10.2000;0.4127;1.3981;
10.5000;0.4119;1.4031;
10.8000;0.4078;1.3832;
11.1000;0.4151;1.4106;
11.4000;0.4168;1.4205;
11.7000;0.4168;1.4081;
12.0000;0.4192;1.4181;
12.3000;0.4143;1.4031;
12.6000;0.4160;1.4006;
12.9000;0.4151;1.4006;
13.2000;0.4160;1.3981;
13.5000;0.4184;1.4081;
13.8000;0.4184;1.3981;
14.1000;0.4184;1.3956;
14.4000;0.4184;1.3981;
14.7000;0.4184;1.3981;
15.0000;0.4200;1.4081;
15.3000;0.4192;1.4081;
15.6000;0.4184;1.4156;
15.9000;0.4086;1.3882;
16.2000;0.4200;1.4156;
16.5000;0.4192;1.4056;
16.8000;0.4200;1.4056;
17.1000;0.4192;1.4006;
17.4000;0.4200;1.3956;
17.7000;0.4176;1.3931;
18.0000;0.4208;1.4056;
18.3000;0.4200;1.4006;
18.6000;0.4265;1.4205;
18.9000;0.4200;1.3956;
19.2000;0.4217;1.3981;
19.5000;0.4168;1.3906;
19.8000;0.4217;1.4031;
20.1000;0.4225;1.4081;
20.4000;0.4208;1.4031;
20.7000;0.4233;1.4156;
21.0000;0.4241;1.4081;
21.3000;0.4241;1.4106;
21.6000;0.4249;1.4156;
21.9000;0.4233;1.4056;
22.2000;0.4225;1.4031;
22.5000;0.4200;1.3981;
22.8000;0.4249;1.3981;
23.1000;0.4241;1.3956;
23.4000;0.4233;1.4006;
23.7000;0.4225;1.3931;
24.0000;0.4233;1.3906;
24.3000;0.4257;1.4081;
24.6000;0.4265;1.4031;
24.9000;0.4225;1.3906;
25.2000;0.4274;1.4056;
25.5000;0.4233;1.3956;
25.8000;0.4265;1.4031;
26.1000;0.4371;1.4405;
26.4000;0.4249;1.4056;
26.7000;0.4290;1.4031;
27.0000;0.4225;1.3832;
27.3000;0.4233;1.3882;
27.6000;0.4298;1.3981;
27.9000;0.4249;1.3857;
28.2000;0.4249;1.3857;
28.5000;0.4249;1.3782;
28.8000;0.4241;1.3757;
29.1000;0.4306;1.3832;
29.4000;0.4249;1.3582;
29.7000;0.4257;1.3607;
30.0000;0.4225;1.3483;
30.3000;0.4241;1.3483;
30.6000;0.4265;1.3458;
30.9000;0.4257;1.3383;
31.2000;0.4265;1.3408;
31.5000;0.4274;1.3458;
31.8000;0.4265;1.3483;
32.1000;0.4265;1.3433;
32.4000;0.4257;1.3433;
32.7000;0.4257;1.3458;
33.0000;0.4274;1.3508;
33.3000;0.4290;1.3533;
33.6000;0.4274;1.3533;
33.9000;0.4290;1.3533;
34.2000;0.4265;1.3433;
34.5000;0.4217;1.3358;
34.8000;0.4290;1.3508;
35.1000;0.4282;1.3558;
35.4000;0.4274;1.3483;
35.7000;0.4274;1.3433;
36.0000;0.4298;1.3483;
36.3000;0.4306;1.3607;
36.6000;0.4290;1.3433;
36.9000;0.4347;1.3483;
37.2000;0.4322;1.3433;
37.5000;0.4298;1.3408;
37.8000;0.4290;1.3383;
38.1000;0.4298;1.3308;
38.4000;0.4314;1.3333;
38.7000;0.4306;1.3283;
39.0000;0.4298;1.3258;
39.3000;0.4290;1.3234;
39.6000;0.4306;1.3258;
39.9000;0.4298;1.3234;
40.2000;0.4298;1.3358;
40.5000;0.4265;1.3283;
40.8000;0.4306;1.3383;
41.1000;0.4306;1.3283;
41.4000;0.4314;1.3209;
41.7000;0.4298;1.3209;
42.0000;0.4306;1.3258;
42.3000;0.4290;1.3159;
42.6000;0.4396;1.3508;
42.9000;0.4322;1.3283;
43.2000;0.4330;1.3333;
43.5000;0.4265;1.3134;
43.8000;0.4339;1.3283;
44.1000;0.4298;1.3134;
44.4000;0.4274;1.3009;
44.7000;0.4322;1.3084;
45.0000;0.4306;1.3109;
45.3000;0.4339;1.3184;
45.6000;0.4330;1.3234;
45.9000;0.4371;1.3383;
46.2000;0.4322;1.3234;
46.5000;0.4339;1.3308;
46.8000;0.4347;1.3358;
47.1000;0.4355;1.3358;
47.4000;0.4355;1.3383;
47.7000;0.4330;1.3283;
48.0000;0.4339;1.3283;
48.3000;0.4339;1.3258;
48.6000;0.4322;1.3159;
48.9000;0.4306;1.3159;
49.2000;0.4322;1.3184;
49.5000;0.4339;1.3234;
49.8000;0.4347;1.3308;
50.1000;0.4347;1.3234;
50.4000;0.4330;1.3234;
50.7000;0.4339;1.3209;
51.0000;0.4363;1.3209;
51.3000;0.4363;1.3159;
51.6000;0.4339;1.3084;
51.9000;0.4339;1.3059;
52.2000;0.4363;1.3109;
52.5000;0.4371;1.3084;
52.8000;0.4371;1.3059;
53.1000;0.4355;1.3034;
53.4000;0.4339;1.2885;
53.7000;0.4363;1.3034;
54.0000;0.4347;1.3009;
54.3000;0.4330;1.2885;
54.6000;0.4355;1.2984;
54.9000;0.4347;1.2984;
55.2000;0.4355;1.3009;
55.5000;0.4379;1.3109;
55.8000;0.4379;1.3084;
56.1000;0.4387;1.3184;
56.4000;0.4396;1.3109;
56.7000;0.4371;1.3109;
57.0000;0.4387;1.3134;
57.3000;0.4379;1.3159;
57.6000;0.4412;1.3184;
57.9000;0.4363;1.3084;
58.2000;0.4396;1.3134;
58.5000;0.4387;1.3109;
58.8000;0.4387;1.3059;
59.1000;0.4379;1.3084;
59.4000;0.4355;1.2984;
59.7000;0.4379;1.3059;
60.0000;0.4379;1.3084;
60.3000;0.4387;1.3084;
60.6000;0.4396;1.3109;
60.9000;0.4306;1.2934;
61.2000;0.4396;1.3159;
61.5000;0.4404;1.3134;
61.8000;0.4396;1.3184;
62.1000;0.4379;1.3209;
62.4000;0.4396;1.3184;
62.7000;0.4412;1.3159;
63.0000;0.4412;1.3184;
63.3000;0.4412;1.3159;
63.6000;0.4371;1.3059;
63.9000;0.4387;1.3059;
64.2000;0.4404;1.2934;
64.5000;0.4396;1.2860;
64.8000;0.4379;1.2910;
65.1000;0.4396;1.2984;
65.4000;0.4444;1.3059;
65.7000;0.4387;1.2910;
66.0000;0.4404;1.2959;
66.3000;0.4412;1.2984;
66.6000;0.4371;1.2810;
66.9000;0.4428;1.2959;
67.2000;0.4412;1.2910;
67.5000;0.4347;1.2735;
67.8000;0.4436;1.3084;
68.1000;0.4396;1.2959;
68.4000;0.4412;1.2984;
68.7000;0.4420;1.2959;
69.0000;0.4428;1.2934;
69.3000;0.4428;1.2959;
69.6000;0.4436;1.2910;
69.9000;0.4420;1.2885;
70.2000;0.4436;1.2885;
70.5000;0.4428;1.2760;
70.8000;0.4436;1.2735;
71.1000;0.4444;1.2785;
71.4000;0.4428;1.2810;
71.7000;0.4444;1.2735;
72.0000;0.4436;1.2685;
72.3000;0.4477;1.2885;
72.6000;0.4412;1.2635;
72.9000;0.4526;1.3009;
73.2000;0.4371;1.2586;
73.5000;0.4436;1.2685;
73.8000;0.4436;1.2660;
74.1000;0.4444;1.2710;
74.4000;0.4428;1.2685;
74.7000;0.4428;1.2760;
75.0000;0.4420;1.2810;
75.3000;0.4444;1.2860;
75.6000;0.4436;1.2934;
75.9000;0.4444;1.2910;
76.2000;0.4453;1.2860;
76.5000;0.4453;1.2860;
76.8000;0.4444;1.2885;
77.1000;0.4461;1.2860;
77.4000;0.4469;1.2910;
77.7000;0.4453;1.2910;
78.0000;0.4396;1.2810;
78.3000;0.4444;1.2835;
78.6000;0.4461;1.2810;
78.9000;0.4461;1.2810;
79.2000;0.4469;1.2810;
79.5000;0.4485;1.2685;
79.8000;0.4453;1.2660;
80.1000;0.4461;1.2610;
80.4000;0.4469;1.2610;
80.7000;0.4469;1.2685;
81.0000;0.4461;1.2735;
81.3000;0.4404;1.2536;
81.6000;0.4477;1.2710;
81.9000;0.4461;1.2735;
82.2000;0.4469;1.2735;
82.5000;0.4453;1.2760;
82.8000;0.4461;1.2710;
83.1000;0.4461;1.2785;
83.4000;0.4461;1.2760;
83.7000;0.4469;1.2785;
84.0000;0.4469;1.2760;
84.3000;0.4396;1.2586;
84.6000;0.4461;1.2835;
84.9000;0.4461;1.2835;
85.2000;0.4477;1.2835;
85.5000;0.4477;1.2910;
85.8000;0.4493;1.2835;
86.1000;0.4461;1.2685;
86.4000;0.4501;1.2760;
86.7000;0.4477;1.2710;
87.0000;0.4550;1.2860;
87.3000;0.4477;1.2660;
87.6000;0.4477;1.2685;
87.9000;0.4469;1.2660;
88.2000;0.4477;1.2710;
88.5000;0.4469;1.2685;
88.8000;0.4477;1.2660;
89.1000;0.4526;1.2860;
89.4000;0.4485;1.2835;
89.7000;0.4558;1.2959;
90.0000;0.4493;1.2735;
90.3000;0.4493;1.2710;
90.6000;0.4461;1.2660;
90.9000;0.4469;1.2710;
91.2000;0.4469;1.2586;
91.5000;0.4477;1.2586;
91.8000;0.4477;1.2586;
92.1000;0.4501;1.2536;
92.4000;0.4510;1.2586;
92.7000;0.4477;1.2436;
93.0000;0.4485;1.2461;
93.3000;0.4485;1.2511;
93.6000;0.4501;1.2536;
93.9000;0.4485;1.2536;
94.2000;0.4485;1.2486;
94.5000;0.4493;1.2511;
94.8000;0.4485;1.2536;
95.1000;0.4493;1.2461;
95.4000;0.4493;1.2411;
95.7000;0.4501;1.2361;
96.0000;0.4510;1.2361;
96.3000;0.4518;1.2461;
96.6000;0.4510;1.2511;
96.9000;0.4379;1.2287;
97.2000;0.4501;1.2561;
97.5000;0.4518;1.2561;
97.8000;0.4493;1.2561;
98.1000;0.4493;1.2586;
98.4000;0.4501;1.2685;
98.7000;0.4510;1.2710;
99.0000;0.4493;1.2710;
99.3000;0.4485;1.2735;
99.6000;0.4493;1.2785;
99.9000;0.4485;1.2735;
100.2000;0.4493;1.2810;
100.5000;0.4485;1.2760;
100.8000;0.4485;1.2885;
101.1000;0.4493;1.2860;
101.4000;0.4493;1.2885;
101.7000;0.4501;1.2835;
102.0000;0.4518;1.2885;
102.3000;0.4501;1.2860;
102.6000;0.4493;1.2760;
102.9000;0.4485;1.2760;
103.2000;0.4493;1.2860;
103.5000;0.4510;1.2785;
103.8000;0.4485;1.2660;
104.1000;0.4485;1.2635;
104.4000;0.4493;1.2660;
104.7000;0.4501;1.2561;
105.0000;0.4501;1.2511;
105.3000;0.4501;1.2536;
105.6000;0.4510;1.2635;
105.9000;0.4518;1.2710;
106.2000;0.4501;1.2635;
106.5000;0.4518;1.2685;
106.8000;0.4518;1.2660;
107.1000;0.4510;1.2586;
107.4000;0.4526;1.2586;
107.7000;0.4518;1.2561;
108.0000;0.4526;1.2635;
108.3000;0.4510;1.2635;
108.6000;0.4510;1.2561;
108.9000;0.4501;1.2586;
109.2000;0.4485;1.2635;
109.5000;0.4510;1.2710;
109.8000;0.4469;1.2561;
110.1000;0.4518;1.2710;
110.4000;0.4510;1.2635;
110.7000;0.4510;1.2635;
111.0000;0.4526;1.2635;
111.3000;0.4567;1.2685;
111.6000;0.4510;1.2436;
111.9000;0.4493;1.2411;
112.2000;0.4510;1.2511;
112.5000;0.4518;1.2561;
112.8000;0.4493;1.2486;
113.1000;0.4615;1.2810;
113.4000;0.4510;1.2536;
113.7000;0.4518;1.2561;
114.0000;0.4542;1.2561;
114.3000;0.4510;1.2561;
114.6000;0.4510;1.2561;
114.9000;0.4526;1.2610;
115.2000;0.4526;1.2635;
115.5000;0.4518;1.2635;
115.8000;0.4518;1.2635;
116.1000;0.4510;1.2635;
116.4000;0.4567;1.2760;
116.7000;0.4510;1.2635;
117.0000;0.4477;1.2436;
117.3000;0.4518;1.2586;
117.6000;0.4510;1.2586;
117.9000;0.4518;1.2586;
118.2000;0.4510;1.2635;
118.5000;0.4510;1.2710;
118.8000;0.4518;1.2660;
119.1000;0.4477;1.2561;
119.4000;0.4510;1.2685;
119.7000;0.4510;1.2635;
120.0000;0.4518;1.2685;
120.3000;0.4510;1.2635;
120.6000;0.4518;1.2660;
120.9000;0.4510;1.2635;
121.2000;0.4558;1.2785;
121.5000;0.4534;1.2586;
121.8000;0.4518;1.2561;
122.1000;0.4526;1.2536;
122.4000;0.4501;1.2461;
122.7000;0.4526;1.2561;
123.0000;0.4518;1.2660;
123.3000;0.4518;1.2685;
123.6000;0.4526;1.2685;
123.9000;0.4526;1.2735;
124.2000;0.4510;1.2710;
124.5000;0.4526;1.2735;
124.8000;0.4518;1.2660;
125.1000;0.4526;1.2685;
125.4000;0.4518;1.2710;
125.7000;0.4510;1.2735;
126.0000;0.4526;1.2735;
126.3000;0.4534;1.2835;
126.6000;0.4542;1.2885;
126.9000;0.4510;1.2760;
127.2000;0.4526;1.2760;
127.5000;0.4534;1.2735;
127.8000;0.4534;1.2735;
128.1000;0.4518;1.2760;
128.4000;0.4518;1.2735;
128.7000;0.4526;1.2760;
129.0000;0.4526;1.2760;
129.3000;0.4550;1.2785;
129.6000;0.4526;1.2760;
129.9000;0.4518;1.2785;
130.2000;0.4534;1.2810;
130.5000;0.4550;1.2810;
130.8000;0.4526;1.2760;
131.1000;0.4534;1.2810;
131.4000;0.4542;1.2835;
131.7000;0.4518;1.2785;
132.0000;0.4534;1.2810;
132.3000;0.4518;1.2710;
132.6000;0.4461;1.2486;
132.9000;0.4518;1.2561;
133.2000;0.4510;1.2660;
133.5000;0.4526;1.2760;
133.8000;0.4510;1.2785;
134.1000;0.4444;1.2536;
134.4000;0.4542;1.2735;
134.7000;0.4518;1.2685;
135.0000;0.4501;1.2810;
135.3000;0.4518;1.2910;
135.6000;0.4526;1.2934;
135.9000;0.4510;1.2984;
136.2000;0.4526;1.2959;
136.5000;0.4526;1.2910;
136.8000;0.4518;1.2934;
137.1000;0.4518;1.2959;
137.4000;0.4518;1.2934;
137.7000;0.4510;1.2810;
138.0000;0.4518;1.2785;
138.3000;0.4526;1.2835;
138.6000;0.4575;1.2934;
138.9000;0.4510;1.2810;
139.2000;0.4526;1.2860;
139.5000;0.4518;1.2835;
139.8000;0.4526;1.2835;
140.1000;0.4477;1.2685;
140.4000;0.4469;1.2710;
140.7000;0.4526;1.2934;
141.0000;0.4550;1.3034;
141.3000;0.4518;1.2810;
141.6000;0.4526;1.2860;
141.9000;0.4526;1.2835;
142.2000;0.4510;1.2785;
142.5000;0.4518;1.2860;
142.8000;0.4518;1.2860;
143.1000;0.4501;1.2810;
143.4000;0.4518;1.2959;
143.7000;0.4518;1.2959;
144.0000;0.4501;1.2934;
144.3000;0.4526;1.2959;
144.6000;0.4510;1.2984;
144.9000;0.4518;1.3009;
145.2000;0.4501;1.2885;
145.5000;0.4518;1.2860;
145.8000;0.4510;1.2910;
146.1000;0.4501;1.2984;
146.4000;0.4485;1.2910;
146.7000;0.4518;1.2885;
147.0000;0.4534;1.2835;
147.3000;0.4501;1.2760;
147.6000;0.4526;1.2685;
147.9000;0.4518;1.2735;
148.2000;0.4510;1.2785;
148.5000;0.4510;1.2785;
148.8000;0.4550;1.2810;
149.1000;0.4510;1.2710;
149.4000;0.4518;1.2710;
149.7000;0.4493;1.2685;
150.0000;0.4510;1.2710;
150.3000;0.4518;1.2710;
150.6000;0.4510;1.2710;
150.9000;0.4518;1.2735;
151.2000;0.4518;1.2710;
151.5000;0.4510;1.2685;
151.8000;0.4510;1.2735;
152.1000;0.4510;1.2785;
152.4000;0.4510;1.2785;
152.7000;0.4518;1.2860;
153.0000;0.4518;1.2984;
153.3000;0.4550;1.3084;
153.6000;0.4510;1.2984;
153.9000;0.4510;1.2959;
154.2000;0.4501;1.2934;
154.5000;0.4518;1.2934;
154.8000;0.4501;1.2885;
155.1000;0.4510;1.2910;
155.4000;0.4526;1.2959;
155.7000;0.4510;1.2934;
156.0000;0.4493;1.2885;
156.3000;0.4526;1.2860;
156.6000;0.4526;1.2910;
156.9000;0.4526;1.3084;
157.2000;0.4518;1.3034;
157.5000;0.4510;1.2910;
157.8000;0.4583;1.3059;
158.1000;0.4510;1.2910;
158.4000;0.4477;1.2860;
158.7000;0.4510;1.2959;
159.0000;0.4436;1.2735;
159.3000;0.4493;1.2860;
159.6000;0.4510;1.2934;
159.9000;0.4518;1.2984;
160.2000;0.4477;1.2860;
160.5000;0.4510;1.2835;
160.8000;0.4518;1.2885;
161.1000;0.4477;1.2685;
161.4000;0.4501;1.2760;
161.7000;0.4550;1.2885;
162.0000;0.4518;1.2835;
162.3000;0.4567;1.2885;
162.6000;0.4501;1.2735;
162.9000;0.4501;1.2710;
163.2000;0.4518;1.2710;
163.5000;0.4501;1.2710;
163.8000;0.4501;1.2735;
164.1000;0.4510;1.2785;
164.4000;0.4493;1.2785;
164.7000;0.4518;1.2785;
165.0000;0.4510;1.2835;
165.3000;0.4518;1.2835;
165.6000;0.4526;1.2959;
165.9000;0.4526;1.2934;
166.2000;0.4485;1.2785;
166.5000;0.4485;1.2860;
166.8000;0.4518;1.2959;
167.1000;0.4501;1.2934;
167.4000;0.4518;1.2910;
167.7000;0.4518;1.2810;
168.0000;0.4510;1.2760;
168.3000;0.4493;1.2660;
168.6000;0.4534;1.2735;
168.9000;0.4485;1.2635;
169.2000;0.4485;1.2635;
169.5000;0.4518;1.2710;
169.8000;0.4493;1.2635;
170.1000;0.4477;1.2610;
170.4000;0.4493;1.2536;
170.7000;0.4518;1.2660;
171.0000;0.4510;1.2760;
171.3000;0.4501;1.2735;
171.6000;0.4485;1.2735;
171.9000;0.4493;1.2785;
172.2000;0.4510;1.2835;
172.5000;0.4501;1.2860;
172.8000;0.4501;1.2810;
173.1000;0.4510;1.2760;
173.4000;0.4501;1.2710;
173.7000;0.4493;1.2785;
174.0000;0.4510;1.2760;
174.3000;0.4510;1.2785;
174.6000;0.4518;1.2710;
174.9000;0.4501;1.2685;
175.2000;0.4501;1.2685;
175.5000;0.4501;1.2735;
175.8000;0.4501;1.2785;
176.1000;0.4501;1.2810;
176.4000;0.4485;1.2810;
176.7000;0.4501;1.2860;
177.0000;0.4534;1.2959;
177.3000;0.4575;1.3159;
177.6000;0.4485;1.2785;
177.9000;0.4534;1.3034;
178.2000;0.4493;1.2860;
178.5000;0.4453;1.2760;
178.8000;0.4501;1.2910;
179.1000;0.4477;1.2835;
179.4000;0.4493;1.2860;
179.7000;0.4501;1.2785;
180.0000;0.4518;1.2835;
180.3000;0.4485;1.2835;
180.6000;0.4542;1.3059;
180.9000;0.4493;1.3034;
181.2000;0.4493;1.3084;
181.5000;0.4485;1.3034;
181.8000;0.4501;1.3084;
182.1000;0.4485;1.3059;
182.4000;0.4477;1.3059;
182.7000;0.4493;1.3109;
183.0000;0.4477;1.3084;
183.3000;0.4493;1.3059;
183.6000;0.4526;1.3184;
183.9000;0.4493;1.3009;
184.2000;0.4485;1.2910;
184.5000;0.4485;1.2860;
184.8000;0.4501;1.2860;
185.1000;0.4501;1.2885;
185.4000;0.4436;1.2685;
185.7000;0.4477;1.2860;
186.0000;0.4510;1.2860;
186.3000;0.4501;1.2885;
186.6000;0.4485;1.2835;
186.9000;0.4485;1.2710;
187.2000;0.4501;1.2735;
187.5000;0.4493;1.2785;
187.8000;0.4493;1.2760;
188.1000;0.4461;1.2685;
188.4000;0.4501;1.2735;
188.7000;0.4501;1.2835;
189.0000;0.4477;1.2810;
189.3000;0.4501;1.2785;
189.6000;0.4477;1.2735;
189.9000;0.4493;1.2710;
190.2000;0.4510;1.2760;
190.5000;0.4493;1.2710;
190.8000;0.4477;1.2760;
191.1000;0.4485;1.2810;
191.4000;0.4493;1.2785;
191.7000;0.4485;1.2810;
192.0000;0.4477;1.2810;
192.3000;0.4493;1.2860;
192.6000;0.4477;1.2860;
192.9000;0.4477;1.2810;
193.2000;0.4477;1.2885;
193.5000;0.4485;1.2885;
193.8000;0.4501;1.2860;
194.1000;0.4493;1.2810;
194.4000;0.4477;1.2810;
194.7000;0.4501;1.2885;
195.0000;0.4501;1.2860;
195.3000;0.4501;1.2860;
195.6000;0.4493;1.2785;
195.9000;0.4501;1.2835;
196.2000;0.4510;1.2885;
196.5000;0.4493;1.2910;
196.8000;0.4493;1.2885;
197.1000;0.4493;1.2835;
197.4000;0.4469;1.2785;
197.7000;0.4485;1.2835;
198.0000;0.4493;1.2910;
198.3000;0.4444;1.2810;
198.6000;0.4469;1.2959;
198.9000;0.4501;1.2984;
199.2000;0.4477;1.2885;
199.5000;0.4477;1.2835;
199.8000;0.4469;1.2810;
200.1000;0.4485;1.2885;
200.4000;0.4477;1.2885;
200.7000;0.4485;1.2934;
201.0000;0.4558;1.3009;
201.3000;0.4485;1.2785;
201.6000;0.4485;1.2860;
201.9000;0.4493;1.2785;
202.2000;0.4510;1.2860;
202.5000;0.4501;1.2735;
202.8000;0.4493;1.2685;
203.1000;0.4477;1.2685;
203.4000;0.4469;1.2685;
203.7000;0.4485;1.2710;
204.0000;0.4534;1.2959;
204.3000;0.4477;1.2785;
204.6000;0.4477;1.2810;
204.9000;0.4558;1.3059;
205.2000;0.4469;1.2835;
205.5000;0.4469;1.2835;
205.8000;0.4477;1.2785;
206.1000;0.4477;1.2760;
206.4000;0.4485;1.2760;
206.7000;0.4469;1.2735;
207.0000;0.4444;1.2660;
207.3000;0.4493;1.2635;
207.6000;0.4485;1.2685;
207.9000;0.4510;1.2760;
208.2000;0.4485;1.2785;
208.5000;0.4461;1.2735;
208.8000;0.4477;1.2760;
209.1000;0.4485;1.2735;
209.4000;0.4477;1.2685;
209.7000;0.4469;1.2710;
210.0000;0.4444;1.2660;
210.3000;0.4477;1.2735;
210.6000;0.4453;1.2735;
210.9000;0.4469;1.2910;
211.2000;0.4469;1.2934;
211.5000;0.4501;1.3034;
211.8000;0.4485;1.3059;
212.1000;0.4461;1.2984;
212.4000;0.4550;1.3159;
212.7000;0.4485;1.2984;
213.0000;0.4485;1.2910;
213.3000;0.4436;1.2710;
213.6000;0.4485;1.2785;
213.9000;0.4477;1.2810;
214.2000;0.4477;1.2835;
214.5000;0.4501;1.2785;
214.8000;0.4477;1.2785;
215.1000;0.4461;1.2835;
215.4000;0.4526;1.2959;
215.7000;0.4469;1.2760;
216.0000;0.4461;1.2835;
216.3000;0.4469;1.2810;
216.6000;0.4477;1.2885;
216.9000;0.4477;1.2885;
217.2000;0.4469;1.2959;
217.5000;0.4477;1.2934;
217.8000;0.4477;1.2959;
218.1000;0.4477;1.2984;
218.4000;0.4469;1.3009;
218.7000;0.4477;1.3059;
219.0000;0.4477;1.3034;
219.3000;0.4461;1.2984;
219.6000;0.4461;1.2934;
219.9000;0.4501;1.3034;
220.2000;0.4477;1.3034;
220.5000;0.4493;1.2984;
220.8000;0.4469;1.2885;
221.1000;0.4469;1.2835;
221.4000;0.4412;1.2710;
221.7000;0.4469;1.2760;
222.0000;0.4493;1.2835;
222.3000;0.4469;1.2835;
222.6000;0.4379;1.2610;
222.9000;0.4469;1.2934;
223.2000;0.4469;1.2860;
223.5000;0.4461;1.2860;
223.8000;0.4477;1.2785;
224.1000;0.4477;1.2810;
224.4000;0.4469;1.2860;
224.7000;0.4461;1.2810;
225.0000;0.4469;1.2785;
225.3000;0.4444;1.2785;
225.6000;0.4461;1.2735;
225.9000;0.4469;1.2860;
226.2000;0.4485;1.2910;
226.5000;0.4461;1.2835;
226.8000;0.4453;1.2835;
227.1000;0.4477;1.2984;
227.4000;0.4444;1.2885;
227.7000;0.4461;1.2934;
228.0000;0.4453;1.2910;
228.3000;0.4469;1.2835;
228.6000;0.4461;1.2835;
228.9000;0.4461;1.2835;
229.2000;0.4428;1.2785;
229.5000;0.4493;1.2885;
229.8000;0.4444;1.2760;
230.1000;0.4404;1.2610;
230.4000;0.4428;1.2635;
230.7000;0.4461;1.2860;
231.0000;0.4477;1.2860;
231.3000;0.4461;1.2810;
231.6000;0.4444;1.2685;
231.9000;0.4477;1.2810;
232.2000;0.4412;1.2660;
232.5000;0.4461;1.2910;
232.8000;0.4461;1.2835;
233.1000;0.4493;1.2934;
233.4000;0.4461;1.2835;
233.7000;0.4461;1.2860;
234.0000;0.4477;1.2959;
234.3000;0.4477;1.2885;
234.6000;0.4461;1.2860;
234.9000;0.4469;1.2934;
235.2000;0.4453;1.2860;
235.5000;0.4453;1.2835;
235.8000;0.4444;1.2835;
236.1000;0.4436;1.2810;
236.4000;0.4461;1.2910;
236.7000;0.4461;1.2934;
237.0000;0.4453;1.2910;
237.3000;0.4444;1.2810;
237.6000;0.4461;1.2785;
237.9000;0.4469;1.2885;
238.2000;0.4453;1.2885;
238.5000;0.4453;1.2910;
238.8000;0.4444;1.2885;
239.1000;0.4453;1.2910;
239.4000;0.4453;1.2959;
239.7000;0.4461;1.3059;
240.0000;0.4453;1.3109;
240.3000;0.4444;1.3134;
240.6000;0.4453;1.3109;
240.9000;0.4453;1.3109;
241.2000;0.4469;1.3134;
241.5000;0.4461;1.3084;
241.8000;0.4461;1.3109;
242.1000;0.4453;1.3134;
242.4000;0.4469;1.3059;
242.7000;0.4453;1.2959;
243.0000;0.4477;1.3059;
243.3000;0.4469;1.3134;
243.6000;0.4469;1.3109;
243.9000;0.4469;1.3109;
244.2000;0.4469;1.2984;
244.5000;0.4469;1.2934;
244.8000;0.4453;1.2934;
245.1000;0.4444;1.2910;
245.4000;0.4453;1.2910;
245.7000;0.4461;1.2934;
246.0000;0.4477;1.2934;
246.3000;0.4453;1.2760;
246.6000;0.4444;1.2785;
246.9000;0.4469;1.2760;
247.2000;0.4477;1.2810;
247.5000;0.4477;1.2860;
247.8000;0.4453;1.2785;
248.1000;0.4461;1.2760;
248.4000;0.4387;1.2635;
248.7000;0.4444;1.2785;
249.0000;0.4387;1.2586;
249.3000;0.4444;1.2760;
249.6000;0.4420;1.2810;
249.9000;0.4453;1.2984;
250.2000;0.4436;1.2910;
250.5000;0.4436;1.2885;
250.8000;0.4444;1.2934;
251.1000;0.4412;1.2810;
251.4000;0.4453;1.2885;
251.7000;0.4444;1.2860;
252.0000;0.4412;1.2835;
252.3000;0.4444;1.2785;
252.6000;0.4444;1.2810;
252.9000;0.4436;1.2835;
253.2000;0.4461;1.2885;
253.5000;0.4444;1.2885;
253.8000;0.4453;1.2910;
254.1000;0.4428;1.2885;
254.4000;0.4469;1.3009;
254.7000;0.4453;1.2885;
255.0000;0.4453;1.2910;
255.3000;0.4355;1.2685;
255.6000;0.4469;1.2984;
255.9000;0.4444;1.2810;
256.2000;0.4477;1.2984;
256.5000;0.4453;1.2910;
256.8000;0.4444;1.2934;
257.1000;0.4412;1.2860;
257.4000;0.4428;1.2810;
257.7000;0.4469;1.3009;
258.0000;0.4444;1.2984;
258.3000;0.4453;1.2959;
258.6000;0.4436;1.2885;
258.9000;0.4428;1.2885;
259.2000;0.4428;1.2910;
259.5000;0.4444;1.2885;
259.8000;0.4453;1.2984;
260.1000;0.4436;1.2959;
260.4000;0.4412;1.2885;
260.7000;0.4436;1.2934;
261.0000;0.4444;1.2984;
261.3000;0.4436;1.3034;
261.6000;0.4444;1.3134;
261.9000;0.4436;1.3134;
262.2000;0.4444;1.3234;
262.5000;0.4428;1.3159;
262.8000;0.4444;1.3159;
263.1000;0.4453;1.3184;
263.4000;0.4469;1.3209;
263.7000;0.4453;1.3159;
264.0000;0.4444;1.3159;
264.3000;0.4444;1.3159;
264.6000;0.4412;1.3059;
264.9000;0.4444;1.3159;
265.2000;0.4444;1.3134;
265.5000;0.4428;1.3059;
265.8000;0.4453;1.3109;
266.1000;0.4453;1.3184;
266.4000;0.4453;1.3134;
266.7000;0.4428;1.3109;
267.0000;0.4420;1.3084;
267.3000;0.4453;1.3159;
267.6000;0.4404;1.2984;
267.9000;0.4444;1.3109;
268.2000;0.4444;1.3059;
268.5000;0.4444;1.3059;
268.8000;0.4453;1.3109;
269.1000;0.4469;1.3059;
269.4000;0.4534;1.3184;
269.7000;0.4444;1.3034;
270.0000;0.4469;1.3034;
270.3000;0.4444;1.2934;
270.6000;0.4477;1.3009;
270.9000;0.4428;1.2835;
271.2000;0.4436;1.2959;
271.5000;0.4444;1.3034;
271.8000;0.4453;1.3084;
272.1000;0.4444;1.3109;
272.4000;0.4444;1.3109;
272.7000;0.4444;1.3034;
273.0000;0.4355;1.2760;
273.3000;0.4444;1.2984;
273.6000;0.4469;1.3034;
273.9000;0.4436;1.2959;
274.2000;0.4453;1.3034;
274.5000;0.4396;1.2934;
274.8000;0.4526;1.3234;
275.1000;0.4436;1.2959;
275.4000;0.4453;1.3034;
275.7000;0.4436;1.3009;
276.0000;0.4444;1.2934;
276.3000;0.4436;1.3009;
276.6000;0.4469;1.3059;
276.9000;0.4444;1.3009;
277.2000;0.4461;1.3109;
277.5000;0.4444;1.3059;
277.8000;0.4444;1.3009;
278.1000;0.4461;1.3009;
278.4000;0.4436;1.2934;
278.7000;0.4444;1.2984;
279.0000;0.4444;1.2984;
279.3000;0.4469;1.3109;
279.6000;0.4404;1.2934;
279.9000;0.4436;1.3059;
280.2000;0.4444;1.3084;
280.5000;0.4436;1.2959;
280.8000;0.4436;1.2910;
281.1000;0.4436;1.2910;
281.4000;0.4444;1.3009;
281.7000;0.4428;1.3059;
282.0000;0.4428;1.3059;
282.3000;0.4436;1.3184;
282.6000;0.4453;1.3234;
282.9000;0.4444;1.3308;
283.2000;0.4428;1.3209;
283.5000;0.4420;1.3184;
283.8000;0.4428;1.3234;
284.1000;0.4444;1.3283;
284.4000;0.4428;1.3308;
284.7000;0.4428;1.3134;
285.0000;0.4412;1.3084;
285.3000;0.4428;1.3109;
285.6000;0.4428;1.3059;
285.9000;0.4428;1.2984;
286.2000;0.4436;1.2984;
286.5000;0.4444;1.3009;
286.8000;0.4436;1.3084;
287.1000;0.4428;1.3134;
287.4000;0.4387;1.3134;
287.7000;0.4453;1.3209;
288.0000;0.4444;1.3209;
288.3000;0.4363;1.3009;
288.6000;0.4436;1.3209;
288.9000;0.4428;1.3134;
289.2000;0.4444;1.3084;
289.5000;0.4412;1.2934;
289.8000;0.4420;1.3059;
290.1000;0.4412;1.3084;
290.4000;0.4444;1.3159;
290.7000;0.4412;1.3134;
291.0000;0.4396;1.3109;
291.3000;0.4493;1.3308;
291.6000;0.4436;1.3084;
291.9000;0.4453;1.3209;
292.2000;0.4436;1.3134;
292.5000;0.4444;1.3159;
292.8000;0.4436;1.3159;
293.1000;0.4412;1.3009;
293.4000;0.4363;1.2959;
293.7000;0.4420;1.3059;
294.0000;0.4436;1.3084;
294.3000;0.4436;1.3084;
294.6000;0.4420;1.3009;
294.9000;0.4436;1.3084;
295.2000;0.4436;1.3034;
295.5000;0.4412;1.3009;
295.8000;0.4428;1.3034;
296.1000;0.4428;1.3034;
296.4000;0.4436;1.3059;
296.7000;0.4461;1.3109;
297.0000;0.4363;1.2934;
297.3000;0.4444;1.3134;
297.6000;0.4404;1.3084;
297.9000;0.4428;1.3159;
298.2000;0.4461;1.3209;
298.5000;0.4436;1.3084;
298.8000;0.4453;1.3134;
299.1000;0.4420;1.3034;
299.4000;0.4428;1.3059;
299.7000;0.4412;1.3084;
300.0000;0.4428;1.3059;
300.3000;0.4436;1.3009;
300.6000;0.4420;1.3034;
300.9000;0.4436;1.2934;
301.2000;0.4396;1.2885;
301.5000;0.4428;1.3059;
301.8000;0.4493;1.3209;
302.1000;0.4444;1.3084;
302.4000;0.4436;1.2934;
302.7000;0.4428;1.2984;
303.0000;0.4428;1.3109;
303.3000;0.4420;1.3109;
303.6000;0.4420;1.3134;
303.9000;0.4355;1.2984;
304.2000;0.4412;1.3184;
304.5000;0.4428;1.3209;
304.8000;0.4420;1.3184;
305.1000;0.4420;1.3109;
305.4000;0.4404;1.3034;
305.7000;0.4428;1.3084;
306.0000;0.4428;1.3109;
306.3000;0.4420;1.3184;
306.6000;0.4428;1.3209;
306.9000;0.4412;1.3109;
307.2000;0.4428;1.3159;
307.5000;0.4404;1.3134;
307.8000;0.4387;1.3184;
308.1000;0.4420;1.3184;
308.4000;0.4461;1.3258;
308.7000;0.4412;1.3159;
309.0000;0.4412;1.3134;
309.3000;0.4420;1.3159;
309.6000;0.4396;1.3084;
309.9000;0.4396;1.3134;
310.2000;0.4469;1.3234;
310.5000;0.4412;1.3009;
310.8000;0.4436;1.3059;
311.1000;0.4428;1.3084;
311.4000;0.4412;1.3009;
311.7000;0.4420;1.3034;
312.0000;0.4404;1.3034;
312.3000;0.4420;1.3134;
312.6000;0.4420;1.3109;
312.9000;0.4428;1.3184;
313.2000;0.4404;1.3134;
313.5000;0.4436;1.3159;
313.8000;0.4412;1.3134;
314.1000;0.4420;1.3109;
314.4000;0.4412;1.3059;
314.7000;0.4420;1.2959;
315.0000;0.4404;1.2934;
315.3000;0.4396;1.2959;
315.6000;0.4485;1.3109;
315.9000;0.4379;1.2885;
316.2000;0.4412;1.2959;
316.5000;0.4396;1.2885;
316.8000;0.4404;1.2860;
317.1000;0.4428;1.2860;
317.4000;0.4412;1.2885;
317.7000;0.4428;1.3009;
318.0000;0.4428;1.2934;
318.3000;0.4412;1.2984;
318.6000;0.4444;1.3084;
318.9000;0.4420;1.3034;
319.2000;0.4444;1.3059;
319.5000;0.4412;1.2959;
319.8000;0.4420;1.2984;
320.1000;0.4428;1.3084;
320.4000;0.4420;1.3084;
320.7000;0.4371;1.2934;
321.0000;0.4420;1.3084;
321.3000;0.4412;1.3034;
321.6000;0.4404;1.3034;
321.9000;0.4428;1.3234;
322.2000;0.4396;1.3159;
322.5000;0.4412;1.3159;
322.8000;0.4412;1.3159;
323.1000;0.4379;1.3084;
323.4000;0.4420;1.3209;
323.7000;0.4396;1.3059;
324.0000;0.4420;1.3059;
324.3000;0.4428;1.3009;
324.6000;0.4436;1.2984;
324.9000;0.4428;1.3034;
325.2000;0.4428;1.2984;
325.5000;0.4404;1.3034;
325.8000;0.4444;1.3084;
326.1000;0.4453;1.3034;
326.4000;0.4420;1.2885;
326.7000;0.4444;1.2984;
327.0000;0.4420;1.2984;
327.3000;0.4420;1.2984;
327.6000;0.4404;1.2984;
327.9000;0.4420;1.3084;
328.2000;0.4420;1.3109;
328.5000;0.4444;1.3159;
328.8000;0.4412;1.3059;
329.1000;0.4436;1.3184;
329.4000;0.4387;1.3034;
329.7000;0.4428;1.3059;
330.0000;0.4469;1.3134;
330.3000;0.4412;1.3009;
330.6000;0.4420;1.2959;
330.9000;0.4477;1.3184;
331.2000;0.4428;1.3009;
331.5000;0.4404;1.2959;
331.8000;0.4412;1.2934;
332.1000;0.4412;1.2984;
332.4000;0.4428;1.3034;
332.7000;0.4420;1.3159;
333.0000;0.4412;1.3109;
333.3000;0.4428;1.3159;
333.6000;0.4420;1.3159;
333.9000;0.4379;1.3109;
334.2000;0.4404;1.3159;
334.5000;0.4404;1.3209;
334.8000;0.4396;1.3159;
335.1000;0.4387;1.3134;
335.4000;0.4396;1.3084;
335.7000;0.4420;1.3184;
336.0000;0.4420;1.3209;
336.3000;0.4387;1.3159;
336.6000;0.4404;1.3234;
336.9000;0.4396;1.3283;
337.2000;0.4428;1.3258;
337.5000;0.4420;1.3283;
337.8000;0.4428;1.3258;
338.1000;0.4412;1.3258;
338.4000;0.4404;1.3209;
338.7000;0.4436;1.3184;
339.0000;0.4420;1.3159;
339.3000;0.4404;1.3109;
339.6000;0.4412;1.3034;
339.9000;0.4412;1.3009;
340.2000;0.4420;1.3059;
340.5000;0.4379;1.2984;
340.8000;0.4396;1.3109;
341.1000;0.4412;1.3084;
341.4000;0.4371;1.2910;
341.7000;0.4396;1.2934;
342.0000;0.4412;1.3009;
342.3000;0.4412;1.3084;
342.6000;0.4387;1.2984;
342.9000;0.4404;1.3159;
343.2000;0.4387;1.3134;
343.5000;0.4420;1.3159;
343.8000;0.4371;1.3109;
344.1000;0.4396;1.3134;
344.4000;0.4379;1.3109;
344.7000;0.4404;1.3159;
345.0000;0.4404;1.3159;
345.3000;0.4404;1.3084;
345.6000;0.4379;1.2910;
345.9000;0.4420;1.3009;
346.2000;0.4387;1.2959;
346.5000;0.4444;1.3184;
346.8000;0.4412;1.3134;
347.1000;0.4347;1.3009;
347.4000;0.4428;1.3234;
347.7000;0.4404;1.3109;
348.0000;0.4412;1.3134;
348.3000;0.4428;1.3184;
348.6000;0.4396;1.3109;
348.9000;0.4412;1.3084;
349.2000;0.4396;1.3034;
349.5000;0.4306;1.2835;
349.8000;0.4412;1.3134;
350.1000;0.4404;1.3109;
350.4000;0.4396;1.3059;
350.7000;0.4396;1.2984;
351.0000;0.4420;1.3084;
351.3000;0.4412;1.3059;
351.6000;0.4404;1.2959;
351.9000;0.4404;1.3009;
352.2000;0.4412;1.2984;
352.5000;0.4453;1.3134;
352.8000;0.4412;1.3009;
353.1000;0.4371;1.2934;
353.4000;0.4412;1.3009;
353.7000;0.4412;1.3009;
354.0000;0.4347;1.2885;
354.3000;0.4396;1.2984;
354.6000;0.4387;1.2959;
354.9000;0.4339;1.2984;
355.2000;0.4412;1.3134;
355.5000;0.4404;1.2984;
355.8000;0.4404;1.3009;
356.1000;0.4404;1.2910;
356.4000;0.4396;1.2835;
356.7000;0.4412;1.2885;
357.0000;0.4387;1.2910;
357.3000;0.4396;1.2934;
357.6000;0.4396;1.3009;
357.9000;0.4404;1.3034;
358.2000;0.4396;1.3059;
358.5000;0.4387;1.3034;
358.8000;0.4404;1.3109;
359.1000;0.4420;1.3159;
359.4000;0.4412;1.3184;
359.7000;0.4396;1.3109;
360.0000;0.4396;1.3009;
360.3000;0.4412;1.3134;
360.6000;0.4396;1.3159;
360.9000;0.4363;1.2959;
361.2000;0.4387;1.3059;
361.5000;0.4412;1.3134;
361.8000;0.4396;1.3034;
362.1000;0.4404;1.2959;
362.4000;0.4412;1.2959;
362.7000;0.4396;1.2934;
363.0000;0.4396;1.3009;
363.3000;0.4404;1.3034;
363.6000;0.4379;1.2910;
363.9000;0.4396;1.2959;
364.2000;0.4396;1.2959;
364.5000;0.4412;1.2984;
364.8000;0.4379;1.2910;
365.1000;0.4404;1.2959;
365.4000;0.4477;1.3109;
365.7000;0.4306;1.2710;
366.0000;0.4453;1.3084;
366.3000;0.4396;1.2885;
366.6000;0.4412;1.2885;
366.9000;0.4355;1.2835;
367.2000;0.4396;1.3059;
367.5000;0.4404;1.3134;
367.8000;0.4396;1.3159;
368.1000;0.4379;1.3109;
368.4000;0.4387;1.3084;
368.7000;0.4379;1.3084;
369.0000;0.4387;1.3109;
369.3000;0.4412;1.3209;
369.6000;0.4363;1.3134;
369.9000;0.4379;1.3159;
370.2000;0.4436;1.3333;
370.5000;0.4420;1.3358;
370.8000;0.4387;1.3283;
371.1000;0.4298;1.3009;
371.4000;0.4379;1.3283;
371.7000;0.4379;1.3209;
372.0000;0.4396;1.3258;
372.3000;0.4379;1.3134;
372.6000;0.4412;1.3134;
372.9000;0.4412;1.3283;
373.2000;0.4412;1.3209;
373.5000;0.4387;1.3034;
373.8000;0.4396;1.2959;
374.1000;0.4404;1.3034;
374.4000;0.4396;1.3034;
374.7000;0.4379;1.3134;
375.0000;0.4379;1.3159;
375.3000;0.4379;1.3159;
375.6000;0.4387;1.3109;
375.9000;0.4396;1.3134;
376.2000;0.4396;1.3109;
376.5000;0.4420;1.3283;
376.8000;0.4404;1.3209;
377.1000;0.4396;1.3209;
377.4000;0.4396;1.3184;
377.7000;0.4282;1.2885;
378.0000;0.4404;1.3283;
378.3000;0.4363;1.3109;
378.6000;0.4396;1.3209;
378.9000;0.4436;1.3258;
379.2000;0.4355;1.3084;
379.5000;0.4404;1.3109;
379.8000;0.4404;1.3109;
380.1000;0.4404;1.3109;
380.4000;0.4396;1.3084;
380.7000;0.4387;1.3009;
381.0000;0.4387;1.3009;
381.3000;0.4387;1.3084;
381.6000;0.4363;1.3059;
381.9000;0.4396;1.3134;
382.2000;0.4396;1.3084;
382.5000;0.4355;1.3009;
382.8000;0.4379;1.3059;
383.1000;0.4396;1.3134;
383.4000;0.4404;1.3109;
383.7000;0.4404;1.3084;
384.0000;0.4396;1.3034;
384.3000;0.4396;1.3084;
384.6000;0.4396;1.3134;
384.9000;0.4404;1.3084;
385.2000;0.4379;1.3034;
385.5000;0.4347;1.2934;
385.8000;0.4396;1.3059;
386.1000;0.4396;1.3034;
386.4000;0.4477;1.3209;
386.7000;0.4347;1.2885;
387.0000;0.4412;1.3034;
387.3000;0.4387;1.3034;
387.6000;0.4404;1.3034;
387.9000;0.4387;1.3084;
388.2000;0.4387;1.3059;
388.5000;0.4396;1.3109;
388.8000;0.4396;1.3109;
389.1000;0.4379;1.3134;
389.4000;0.4387;1.3134;
389.7000;0.4396;1.3109;
390.0000;0.4396;1.3109;
390.3000;0.4396;1.3084;
390.6000;0.4371;1.3059;
390.9000;0.4396;1.3109;
391.2000;0.4396;1.2959;
391.5000;0.4379;1.3009;
391.8000;0.4396;1.3059;
392.1000;0.4379;1.3059;
392.4000;0.4387;1.3059;
392.7000;0.4387;1.2984;
393.0000;0.4404;1.3059;
393.3000;0.4404;1.3084;
393.6000;0.4379;1.3084;
393.9000;0.4396;1.3134;
394.2000;0.4404;1.3209;
394.5000;0.4387;1.3234;
394.8000;0.4404;1.3159;
395.1000;0.4396;1.3159;
395.4000;0.4404;1.3184;
395.7000;0.4404;1.3308;
396.0000;0.4396;1.3209;
396.3000;0.4396;1.3184;
396.6000;0.4387;1.3109;
396.9000;0.4396;1.3084;
397.2000;0.4387;1.3009;
397.5000;0.4371;1.2959;
397.8000;0.4396;1.2959;
398.1000;0.4379;1.3009;
398.4000;0.4387;1.2984;
398.7000;0.4396;1.2934;
399.0000;0.4371;1.2910;
399.3000;0.4404;1.2984;
399.6000;0.4387;1.3084;
399.9000;0.4412;1.3084;
400.2000;0.4371;1.3009;
400.5000;0.4387;1.3034;
400.8000;0.4396;1.3084;
401.1000;0.4387;1.3109;
401.4000;0.4412;1.3159;
401.7000;0.4379;1.3109;
402.0000;0.4371;1.3084;
402.3000;0.4477;1.3308;
402.6000;0.4396;1.3034;
402.9000;0.4379;1.2984;
403.2000;0.4453;1.3184;
403.5000;0.4387;1.3009;
403.8000;0.4387;1.3034;
404.1000;0.4371;1.2959;
404.4000;0.4428;1.3209;
404.7000;0.4396;1.3034;
405.0000;0.4387;1.3084;
405.3000;0.4379;1.3159;
405.6000;0.4355;1.3109;
405.9000;0.4371;1.3134;
406.2000;0.4379;1.3159;
406.5000;0.4363;1.3134;
406.8000;0.4371;1.3134;
407.1000;0.4371;1.3159;
407.4000;0.4387;1.3184;
407.7000;0.4396;1.3184;
408.0000;0.4396;1.3109;
408.3000;0.4396;1.3109;
408.6000;0.4387;1.3184;
408.9000;0.4396;1.3209;
409.2000;0.4387;1.3234;
409.5000;0.4404;1.3258;
409.8000;0.4387;1.3333;
410.1000;0.4379;1.3383;
410.4000;0.4330;1.3184;
410.7000;0.4282;1.3109;
411.0000;0.4387;1.3333;
411.3000;0.4355;1.3258;
411.6000;0.4371;1.3308;
411.9000;0.4371;1.3358;
412.2000;0.4371;1.3383;
412.5000;0.4379;1.3358;
412.8000;0.4363;1.3283;
413.1000;0.4387;1.3283;
413.4000;0.4387;1.3184;
413.7000;0.4387;1.3184;
414.0000;0.4396;1.3209;
414.3000;0.4404;1.3258;
414.6000;0.4371;1.3134;
414.9000;0.4379;1.3134;
415.2000;0.4387;1.3209;
415.5000;0.4387;1.3258;
415.8000;0.4379;1.3308;
416.1000;0.4387;1.3433;
416.4000;0.4371;1.3308;
416.7000;0.4477;1.3582;
417.0000;0.4371;1.3258;
417.3000;0.4420;1.3408;
417.6000;0.4371;1.3234;
417.9000;0.4371;1.3258;
418.2000;0.4355;1.3209;
418.5000;0.4363;1.3258;
418.8000;0.4379;1.3283;
419.1000;0.4396;1.3258;
419.4000;0.4387;1.3234;
419.7000;0.4371;1.3159;
420.0000;0.4371;1.3184;
420.3000;0.4363;1.3258;
420.6000;0.4355;1.3308;
420.9000;0.4371;1.3308;
421.2000;0.4379;1.3333;
421.5000;0.4363;1.3258;
421.8000;0.4347;1.3184;
422.1000;0.4363;1.3234;
422.4000;0.4371;1.3283;
422.7000;0.4379;1.3383;
423.0000;0.4363;1.3333;
423.3000;0.4379;1.3333;
423.6000;0.4379;1.3308;
423.9000;0.4379;1.3308;
424.2000;0.4363;1.3258;
424.5000;0.4355;1.3209;
424.8000;0.4485;1.3558;
425.1000;0.4379;1.3308;
425.4000;0.4412;1.3383;
425.7000;0.4355;1.3258;
426.0000;0.4371;1.3358;
426.3000;0.4298;1.3159;
426.6000;0.4355;1.3283;
426.9000;0.4371;1.3333;
427.2000;0.4428;1.3508;
427.5000;0.4363;1.3209;
427.8000;0.4306;1.3034;
428.1000;0.4363;1.3159;
428.4000;0.4387;1.3209;
428.7000;0.4387;1.3258;
429.0000;0.4371;1.3258;
429.3000;0.4371;1.3159;
429.6000;0.4379;1.3159;
429.9000;0.4363;1.3084;
430.2000;0.4371;1.3059;
430.5000;0.4355;1.3059;
430.8000;0.4371;1.3134;
431.1000;0.4371;1.3184;
431.4000;0.4379;1.3184;
431.7000;0.4379;1.3283;
432.0000;0.4379;1.3209;
432.3000;0.4371;1.3184;
432.6000;0.4379;1.3308;
432.9000;0.4387;1.3333;
433.2000;0.4371;1.3209;
433.5000;0.4379;1.3209;
433.8000;0.4387;1.3209;
434.1000;0.4379;1.3159;
434.4000;0.4363;1.3109;
434.7000;0.4379;1.3184;
435.0000;0.4371;1.3109;
435.3000;0.4396;1.3159;
435.6000;0.4347;1.3184;
435.9000;0.4355;1.3109;
436.2000;0.4420;1.3184;
436.5000;0.4371;1.3109;
436.8000;0.4371;1.2984;
437.1000;0.4363;1.3034;
437.4000;0.4363;1.2984;
437.7000;0.4387;1.3084;
438.0000;0.4387;1.3084;
438.3000;0.4396;1.3109;
438.6000;0.4379;1.3184;
438.9000;0.4371;1.3283;
439.2000;0.4306;1.3159;
439.5000;0.4363;1.3258;
439.8000;0.4363;1.3283;
440.1000;0.4355;1.3383;
440.4000;0.4363;1.3333;
440.7000;0.4330;1.3234;
441.0000;0.4355;1.3333;
441.3000;0.4428;1.3582;
441.6000;0.4330;1.3209;
441.9000;0.4379;1.3333;
442.2000;0.4347;1.3234;
442.5000;0.4355;1.3184;
442.8000;0.4412;1.3383;
443.1000;0.4379;1.3358;
443.4000;0.4347;1.3308;
443.7000;0.4363;1.3333;
444.0000;0.4387;1.3408;
444.3000;0.4379;1.3333;
444.6000;0.4379;1.3333;
444.9000;0.4339;1.3258;
445.2000;0.4371;1.3358;
445.5000;0.4387;1.3458;
445.8000;0.4387;1.3408;
446.1000;0.4363;1.3408;
446.4000;0.4396;1.3533;
446.7000;0.4379;1.3483;
447.0000;0.4371;1.3458;
447.3000;0.4379;1.3533;
447.6000;0.4355;1.3458;
447.9000;0.4396;1.3582;
448.2000;0.4379;1.3533;
448.5000;0.4387;1.3558;
448.8000;0.4371;1.3533;
449.1000;0.4363;1.3533;
449.4000;0.4371;1.3508;
449.7000;0.4420;1.3607;
450.0000;0.4339;1.3533;
450.3000;0.4363;1.3508;
450.6000;0.4453;1.3707;
450.9000;0.4355;1.3433;
451.2000;0.4330;1.3308;
451.5000;0.4355;1.3358;
451.8000;0.4379;1.3358;
452.1000;0.4379;1.3408;
452.4000;0.4355;1.3333;
452.7000;0.4355;1.3358;
453.0000;0.4444;1.3558;
453.3000;0.4371;1.3358;
453.6000;0.4371;1.3308;
453.9000;0.4355;1.3283;
454.2000;0.4371;1.3358;
454.5000;0.4339;1.3283;
454.8000;0.4290;1.3109;
455.1000;0.4363;1.3209;
455.4000;0.4355;1.3358;
455.7000;0.4379;1.3333;
456.0000;0.4355;1.3308;
456.3000;0.4371;1.3383;
456.6000;0.4355;1.3433;
456.9000;0.4371;1.3458;
457.2000;0.4363;1.3383;
457.5000;0.4363;1.3258;
457.8000;0.4339;1.3234;
458.1000;0.4363;1.3283;
458.4000;0.4282;1.3109;
458.7000;0.4363;1.3308;
459.0000;0.4330;1.3209;
459.3000;0.4363;1.3358;
459.6000;0.4363;1.3408;
459.9000;0.4363;1.3358;
460.2000;0.4363;1.3433;
460.5000;0.4355;1.3483;
460.8000;0.4347;1.3408;
461.1000;0.4363;1.3508;
461.4000;0.4339;1.3383;
461.7000;0.4330;1.3383;
462.0000;0.4396;1.3508;
462.3000;0.4363;1.3358;
462.6000;0.4355;1.3358;
462.9000;0.4355;1.3283;
463.2000;0.4347;1.3308;
463.5000;0.4371;1.3383;
463.8000;0.4363;1.3358;
464.1000;0.4363;1.3383;
464.4000;0.4371;1.3383;
464.7000;0.4347;1.3433;
465.0000;0.4363;1.3458;
465.3000;0.4355;1.3483;
465.6000;0.4355;1.3483;
465.9000;0.4371;1.3508;
466.2000;0.4265;1.3209;
466.5000;0.4339;1.3383;
466.8000;0.4355;1.3308;
467.1000;0.4347;1.3333;
467.4000;0.4371;1.3383;
467.7000;0.4363;1.3383;
468.0000;0.4371;1.3408;
468.3000;0.4363;1.3383;
468.6000;0.4347;1.3358;
468.9000;0.4355;1.3408;
469.2000;0.4347;1.3408;
469.5000;0.4355;1.3483;
469.8000;0.4371;1.3483;
470.1000;0.4363;1.3408;
470.4000;0.4355;1.3358;
470.7000;0.4347;1.3308;
471.0000;0.4363;1.3308;
471.3000;0.4355;1.3358;
471.6000;0.4355;1.3433;
471.9000;0.4347;1.3333;
472.2000;0.4355;1.3383;
472.5000;0.4371;1.3408;
472.8000;0.4363;1.3333;
473.1000;0.4330;1.3258;
473.4000;0.4371;1.3234;
473.7000;0.4371;1.3159;
474.0000;0.4347;1.3159;
474.3000;0.4355;1.3184;
474.6000;0.4371;1.3209;
474.9000;0.4249;1.2860;
475.2000;0.4363;1.3184;
475.5000;0.4363;1.3209;
475.8000;0.4371;1.3159;
476.1000;0.4322;1.3034;
476.4000;0.4282;1.2984;
476.7000;0.4363;1.3184;
477.0000;0.4363;1.3134;
477.3000;0.4379;1.3209;
477.6000;0.4339;1.3084;
477.9000;0.4355;1.3059;
478.2000;0.4355;1.3059;
478.5000;0.4387;1.3134;
478.8000;0.4355;1.3209;
479.1000;0.4355;1.3258;
479.4000;0.4347;1.3184;
479.7000;0.4371;1.3234;
480.0000;0.4371;1.3234;
480.3000;0.4363;1.3283;
480.6000;0.4355;1.3159;
480.9000;0.4306;1.3084;
481.2000;0.4371;1.3358;
481.5000;0.4371;1.3383;
481.8000;0.4282;1.3159;
482.1000;0.4363;1.3308;
482.4000;0.4371;1.3333;
482.7000;0.4355;1.3258;
483.0000;0.4420;1.3333;
483.3000;0.4363;1.3234;
483.6000;0.4371;1.3283;
483.9000;0.4371;1.3308;
484.2000;0.4347;1.3209;
484.5000;0.4339;1.3209;
484.8000;0.4371;1.3159;
485.1000;0.4355;1.3134;
485.4000;0.4347;1.3209;
485.7000;0.4363;1.3209;
486.0000;0.4330;1.3134;
486.3000;0.4322;1.3109;
486.6000;0.4347;1.3159;
486.9000;0.4355;1.3184;
487.2000;0.4355;1.3159;
487.5000;0.4355;1.3209;
487.8000;0.4355;1.3258;
488.1000;0.4371;1.3308;
488.4000;0.4363;1.3333;
488.7000;0.4379;1.3358;
489.0000;0.4355;1.3358;
489.3000;0.4355;1.3308;
489.6000;0.4339;1.3308;
489.9000;0.4363;1.3308;
490.2000;0.4428;1.3433;
490.5000;0.4355;1.3184;
490.8000;0.4339;1.3134;
491.1000;0.4363;1.3283;
491.4000;0.4355;1.3283;
491.7000;0.4355;1.3283;
492.0000;0.4347;1.3184;
492.3000;0.4355;1.3209;
492.6000;0.4355;1.3283;
492.9000;0.4371;1.3358;
493.2000;0.4371;1.3358;
493.5000;0.4371;1.3308;
493.8000;0.4363;1.3333;
494.1000;0.4347;1.3333;
494.4000;0.4355;1.3408;
494.7000;0.4355;1.3383;
495.0000;0.4355;1.3383;
495.3000;0.4339;1.3308;
495.6000;0.4379;1.3383;
495.9000;0.4363;1.3333;
496.2000;0.4355;1.3308;
496.5000;0.4355;1.3358;
496.8000;0.4363;1.3358;
497.1000;0.4347;1.3383;
497.4000;0.4355;1.3508;
497.7000;0.4347;1.3458;
498.0000;0.4363;1.3458;
498.3000;0.4355;1.3358;
498.6000;0.4347;1.3433;
498.9000;0.4355;1.3458;
499.2000;0.4330;1.3483;
499.5000;0.4355;1.3558;
499.8000;0.4347;1.3558;
500.1000;0.4379;1.3657;
500.4000;0.4322;1.3508;
500.7000;0.4339;1.3582;
501.0000;0.4347;1.3582;
501.3000;0.4347;1.3508;
501.6000;0.4363;1.3558;
501.9000;0.4330;1.3483;
502.2000;0.4347;1.3533;
502.5000;0.4363;1.3508;
502.8000;0.4330;1.3533;
503.1000;0.4330;1.3533;
503.4000;0.4330;1.3508;
503.7000;0.4347;1.3533;
504.0000;0.4387;1.3582;
504.3000;0.4339;1.3458;
504.6000;0.4347;1.3383;
504.9000;0.4330;1.3308;
505.2000;0.4347;1.3383;
505.5000;0.4339;1.3333;
505.8000;0.4347;1.3383;
506.1000;0.4339;1.3383;
506.4000;0.4330;1.3408;
506.7000;0.4347;1.3408;
507.0000;0.4347;1.3483;
507.3000;0.4347;1.3508;
507.6000;0.4355;1.3408;
507.9000;0.4330;1.3408;
508.2000;0.4339;1.3333;
508.5000;0.4306;1.3209;
508.8000;0.4314;1.3209;
509.1000;0.4347;1.3308;
509.4000;0.4347;1.3358;
509.7000;0.4339;1.3333;
510.0000;0.4355;1.3358;
510.3000;0.4363;1.3358;
510.6000;0.4330;1.3408;
510.9000;0.4339;1.3483;
511.2000;0.4322;1.3433;
511.5000;0.4428;1.3582;
511.8000;0.4330;1.3333;
512.1000;0.4339;1.3234;
512.4000;0.4330;1.3209;
512.7000;0.4330;1.3184;
513.0000;0.4355;1.3258;
513.3000;0.4339;1.3209;
513.6000;0.4330;1.3258;
513.9000;0.4355;1.3258;
514.2000;0.4355;1.3184;
514.5000;0.4347;1.3209;
514.8000;0.4371;1.3258;
515.1000;0.4347;1.3258;
515.4000;0.4347;1.3333;
515.7000;0.4371;1.3458;
516.0000;0.4347;1.3383;
516.3000;0.4347;1.3358;
516.6000;0.4371;1.3408;
516.9000;0.4371;1.3283;
517.2000;0.4339;1.3258;
517.5000;0.4363;1.3209;
517.8000;0.4339;1.3283;
518.1000;0.4347;1.3234;
518.4000;0.4379;1.3209;
518.7000;0.4355;1.3134;
519.0000;0.4306;1.3134;
519.3000;0.4339;1.3209;
519.6000;0.4330;1.3258;
519.9000;0.4347;1.3283;
520.2000;0.4322;1.3209;
520.5000;0.4363;1.3333;
520.8000;0.4355;1.3483;
521.1000;0.4249;1.3209;
521.4000;0.4363;1.3533;
521.7000;0.4355;1.3408;
522.0000;0.4347;1.3358;
522.3000;0.4396;1.3582;
522.6000;0.4363;1.3458;
522.9000;0.4339;1.3458;
523.2000;0.4355;1.3458;
523.5000;0.4355;1.3508;
523.8000;0.4339;1.3533;
524.1000;0.4347;1.3483;
524.4000;0.4249;1.3134;
524.7000;0.4363;1.3433;
525.0000;0.4355;1.3308;
525.3000;0.4347;1.3209;
525.6000;0.4355;1.3234;
525.9000;0.4371;1.3258;
526.2000;0.4347;1.3184;
526.5000;0.4355;1.3184;
526.8000;0.4339;1.3258;
527.1000;0.4347;1.3308;
527.4000;0.4322;1.3308;
527.7000;0.4347;1.3333;
528.0000;0.4314;1.3283;
528.3000;0.4347;1.3533;
528.6000;0.4330;1.3533;
528.9000;0.4355;1.3632;
529.2000;0.4355;1.3682;
529.5000;0.4298;1.3433;
529.8000;0.4396;1.3682;
530.1000;0.4339;1.3508;
530.4000;0.4339;1.3508;
530.7000;0.4347;1.3607;
531.0000;0.4306;1.3508;
531.3000;0.4330;1.3558;
531.6000;0.4339;1.3483;
531.9000;0.4330;1.3408;
532.2000;0.4290;1.3308;
532.5000;0.4322;1.3508;
532.8000;0.4322;1.3533;
533.1000;0.4257;1.3383;
533.4000;0.4347;1.3508;
533.7000;0.4363;1.3533;
534.0000;0.4249;1.3234;
534.3000;0.4339;1.3508;
534.6000;0.4347;1.3582;
534.9000;0.4355;1.3582;
535.2000;0.4339;1.3483;
535.5000;0.4330;1.3483;
535.8000;0.4339;1.3483;
536.1000;0.4347;1.3508;
536.4000;0.4347;1.3483;
536.7000;0.4339;1.3408;
537.0000;0.4355;1.3458;
537.3000;0.4265;1.3258;
537.6000;0.4314;1.3383;
537.9000;0.4330;1.3383;
538.2000;0.4347;1.3333;
538.5000;0.4347;1.3358;
538.8000;0.4347;1.3358;
539.1000;0.4330;1.3308;
539.4000;0.4322;1.3283;
539.7000;0.4347;1.3283;
540.0000;0.4355;1.3234;
540.3000;0.4339;1.3159;
540.6000;0.4322;1.3134;
540.9000;0.4355;1.3209;
541.2000;0.4339;1.3258;
541.5000;0.4322;1.3283;
541.8000;0.4330;1.3358;
542.1000;0.4330;1.3408;
542.4000;0.4339;1.3333;
542.7000;0.4330;1.3383;
543.0000;0.4339;1.3458;
543.3000;0.4347;1.3483;
543.6000;0.4347;1.3483;
543.9000;0.4347;1.3408;
544.2000;0.4363;1.3358;
544.5000;0.4347;1.3358;
544.8000;0.4355;1.3433;
545.1000;0.4347;1.3408;
545.4000;0.4428;1.3582;
545.7000;0.4347;1.3483;
546.0000;0.4330;1.3433;
546.3000;0.4347;1.3433;
546.6000;0.4347;1.3508;
546.9000;0.4339;1.3533;
547.2000;0.4347;1.3508;
547.5000;0.4339;1.3433;
547.8000;0.4249;1.3184;
548.1000;0.4387;1.3632;
548.4000;0.4347;1.3508;
548.7000;0.4347;1.3508;
549.0000;0.4330;1.3433;
549.3000;0.4339;1.3408;
549.6000;0.4339;1.3383;
549.9000;0.4347;1.3358;
550.2000;0.4339;1.3308;
550.5000;0.4330;1.3283;
550.8000;0.4347;1.3283;
551.1000;0.4339;1.3333;
551.4000;0.4330;1.3333;
551.7000;0.4347;1.3283;
552.0000;0.4379;1.3458;
552.3000;0.4347;1.3408;
552.6000;0.4314;1.3358;
552.9000;0.4314;1.3308;
553.2000;0.4314;1.3283;
553.5000;0.4339;1.3383;
553.8000;0.4355;1.3433;
554.1000;0.4379;1.3558;
554.4000;0.4339;1.3558;
554.7000;0.4347;1.3582;
555.0000;0.4314;1.3408;
555.3000;0.4330;1.3508;
555.6000;0.4322;1.3483;
555.9000;0.4396;1.3682;
556.2000;0.4355;1.3558;
556.5000;0.4339;1.3458;
556.8000;0.4330;1.3458;
557.1000;0.4412;1.3607;
557.4000;0.4355;1.3508;
557.7000;0.4355;1.3508;
558.0000;0.4330;1.3508;
558.3000;0.4330;1.3433;
558.6000;0.4322;1.3408;
558.9000;0.4339;1.3483;
559.2000;0.4265;1.3283;
559.5000;0.4339;1.3458;
559.8000;0.4339;1.3458;
560.1000;0.4355;1.3508;
560.4000;0.4347;1.3408;
560.7000;0.4330;1.3383;
561.0000;0.4339;1.3358;
561.3000;0.4347;1.3383;
561.6000;0.4347;1.3408;
561.9000;0.4347;1.3408;
562.2000;0.4347;1.3458;
562.5000;0.4339;1.3433;
562.8000;0.4330;1.3408;
563.1000;0.4322;1.3358;
563.4000;0.4339;1.3458;
563.7000;0.4404;1.3607;
564.0000;0.4339;1.3458;
564.3000;0.4347;1.3483;
564.6000;0.4322;1.3333;
564.9000;0.4355;1.3433;
565.2000;0.4363;1.3508;
565.5000;0.4322;1.3433;
565.8000;0.4314;1.3333;
566.1000;0.4330;1.3383;
566.4000;0.4339;1.3358;
566.7000;0.4339;1.3358;
567.0000;0.4339;1.3433;
567.3000;0.4330;1.3433;
567.6000;0.4330;1.3433;
567.9000;0.4330;1.3533;
568.2000;0.4314;1.3533;
568.5000;0.4322;1.3458;
568.8000;0.4339;1.3458;
569.1000;0.4241;1.3258;
569.4000;0.4339;1.3483;
569.7000;0.4339;1.3508;
570.0000;0.4404;1.3657;
570.3000;0.4339;1.3508;
570.6000;0.4330;1.3508;
570.9000;0.4314;1.3483;
571.2000;0.4322;1.3458;
571.5000;0.4347;1.3483;
571.8000;0.4379;1.3632;
572.1000;0.4339;1.3582;
572.4000;0.4322;1.3558;
572.7000;0.4347;1.3582;
573.0000;0.4347;1.3607;
573.3000;0.4339;1.3607;
573.6000;0.4339;1.3632;
573.9000;0.4355;1.3632;
574.2000;0.4314;1.3607;
574.5000;0.4355;1.3757;
574.8000;0.4347;1.3682;
575.1000;0.4330;1.3607;
575.4000;0.4404;1.3757;
575.7000;0.4339;1.3558;
576.0000;0.4444;1.3832;
576.3000;0.4347;1.3607;
576.6000;0.4355;1.3657;
576.9000;0.4347;1.3657;
577.2000;0.4314;1.3607;
577.5000;0.4322;1.3632;
577.8000;0.4330;1.3582;
578.1000;0.4330;1.3508;
578.4000;0.4322;1.3582;
578.7000;0.4241;1.3433;
579.0000;0.4355;1.3757;
579.3000;0.4347;1.3732;
579.6000;0.4339;1.3757;
579.9000;0.4322;1.3657;
580.2000;0.4363;1.3707;
580.5000;0.4363;1.3732;
580.8000;0.4330;1.3682;
581.1000;0.4322;1.3632;
581.4000;0.4347;1.3682;
581.7000;0.4355;1.3707;
582.0000;0.4330;1.3682;
582.3000;0.4322;1.3682;
582.6000;0.4347;1.3732;
582.9000;0.4339;1.3682;
583.2000;0.4379;1.3732;
583.5000;0.4347;1.3582;
583.8000;0.4363;1.3558;
584.1000;0.4347;1.3533;
584.4000;0.4339;1.3458;
584.7000;0.4339;1.3483;
585.0000;0.4330;1.3508;
585.3000;0.4355;1.3533;
585.6000;0.4347;1.3558;
585.9000;0.4330;1.3508;
586.2000;0.4322;1.3483;
586.5000;0.4339;1.3508;
586.8000;0.4330;1.3383;
587.1000;0.4330;1.3258;
587.4000;0.4306;1.3283;
587.7000;0.4314;1.3258;
588.0000;0.4330;1.3234;
588.3000;0.4314;1.3159;
588.6000;0.4322;1.3184;
588.9000;0.4322;1.3159;
589.2000;0.4339;1.3134;
589.5000;0.4298;1.3034;
589.8000;0.4339;1.3184;
590.1000;0.4347;1.3234;
590.4000;0.4339;1.3258;
590.7000;0.4330;1.3234;
591.0000;0.4339;1.3159;
591.3000;0.4330;1.3184;
591.6000;0.4339;1.3209;
591.9000;0.4314;1.3159;
592.2000;0.4322;1.3159;
592.5000;0.4322;1.3159;
592.8000;0.4274;1.3084;
593.1000;0.4355;1.3308;
593.4000;0.4330;1.3283;
593.7000;0.4330;1.3383;
594.0000;0.4306;1.3308;
594.3000;0.4339;1.3358;
594.6000;0.4330;1.3333;
594.9000;0.4274;1.3159;
595.2000;0.4322;1.3308;
595.5000;0.4322;1.3308;
595.8000;0.4330;1.3408;
596.1000;0.4330;1.3408;
596.4000;0.4322;1.3358;
596.7000;0.4330;1.3358;
597.0000;0.4257;1.3134;
597.3000;0.4436;1.3657;
597.6000;0.4314;1.3383;
597.9000;0.4322;1.3408;
598.2000;0.4347;1.3533;
598.5000;0.4314;1.3458;
598.8000;0.4501;1.3956;
599.1000;0.4339;1.3483;
599.4000;0.4363;1.3582;
599.7000;0.4347;1.3433;
600.0000;0.4330;1.3408;
600.3000;0.4314;1.3333;
600.6000;0.4290;1.3283;
600.9000;0.4217;1.3034;
601.2000;0.4168;1.2910;
601.5000;0.4094;1.2685;
601.8000;0.4037;1.2411;
602.1000;0.3964;1.2112;
602.4000;0.3923;1.1938;
602.7000;0.3875;1.1788;
603.0000;0.3810;1.1464;
603.3000;0.3769;1.1315;
603.6000;0.3696;1.1115;
603.9000;0.3663;1.0941;
604.2000;0.3655;1.0941;
604.5000;0.3622;1.0816;
604.8000;0.3590;1.0716;
605.1000;0.3565;1.0592;
605.4000;0.3541;1.0442;
605.7000;0.3508;1.0392;
606.0000;0.3484;1.0368;
606.3000;0.3435;1.0218;
606.6000;0.3427;1.0193;
606.9000;0.3435;1.0193;
607.2000;0.3394;1.0118;
607.5000;0.3394;1.0068;
607.8000;0.3370;0.9994;
608.1000;0.3468;1.0293;
608.4000;0.3370;1.0093;
608.7000;0.3370;1.0019;
609.0000;0.3346;0.9994;
609.3000;0.3329;0.9919;
609.6000;0.3329;0.9919;
609.9000;0.3321;0.9894;
610.2000;0.3313;0.9994;
610.5000;0.3297;1.0019;
610.8000;0.3297;1.0068;
611.1000;0.3280;0.9919;
611.4000;0.3264;0.9720;
611.7000;0.3272;0.9720;
612.0000;0.3264;0.9744;
612.3000;0.3264;0.9695;
612.6000;0.3256;0.9670;
612.9000;0.3264;0.9769;
613.2000;0.3272;0.9819;
613.5000;0.3264;0.9720;
613.8000;0.3264;0.9744;
614.1000;0.3232;0.9744;
614.4000;0.3215;0.9744;
614.7000;0.3240;0.9794;
615.0000;0.3191;0.9670;
615.3000;0.3280;0.9844;
615.6000;0.3232;0.9695;
615.9000;0.3232;0.9744;
616.2000;0.3183;0.9545;
616.5000;0.3215;0.9620;
616.8000;0.3158;0.9470;
617.1000;0.3166;0.9420;
617.4000;0.3199;0.9495;
617.7000;0.3207;0.9520;
618.0000;0.3175;0.9495;
618.3000;0.3183;0.9495;
618.6000;0.3199;0.9470;
618.9000;0.3191;0.9420;
619.2000;0.3183;0.9371;
619.5000;0.3158;0.9246;
619.8000;0.3199;0.9346;
620.1000;0.3183;0.9271;
620.4000;0.3175;0.9221;
620.7000;0.3223;0.9420;
621.0000;0.3126;0.9296;
621.3000;0.3191;0.9445;
621.6000;0.3150;0.9346;
621.9000;0.3118;0.9271;
622.2000;0.3134;0.9396;
622.5000;0.3150;0.9495;
622.8000;0.3142;0.9545;
623.1000;0.3134;0.9520;
623.4000;0.3142;0.9396;
623.7000;0.3134;0.9346;
624.0000;0.3142;0.9371;
624.3000;0.3175;0.9445;
624.6000;0.3150;0.9371;
624.9000;0.3126;0.9396;
625.2000;0.3158;0.9495;
625.5000;0.3150;0.9445;
625.8000;0.3142;0.9445;
626.1000;0.3158;0.9470;
626.4000;0.3150;0.9445;
626.7000;0.3158;0.9396;
627.0000;0.3134;0.9346;
627.3000;0.3126;0.9321;
627.6000;0.3134;0.9371;
627.9000;0.3118;0.9346;
628.2000;0.3134;0.9296;
628.5000;0.3134;0.9321;
628.8000;0.3134;0.9296;
629.1000;0.3109;0.9246;
629.4000;0.3118;0.9246;
629.7000;0.3142;0.9296;
630.0000;0.3118;0.9246;
630.3000;0.3085;0.9146;
630.6000;0.3109;0.9271;
630.9000;0.3093;0.9271;
631.2000;0.3093;0.9296;
631.5000;0.3109;0.9420;
631.8000;0.3118;0.9520;
632.1000;0.3126;0.9545;
632.4000;0.3109;0.9420;
632.7000;0.3093;0.9396;
633.0000;0.3101;0.9420;
633.3000;0.3118;0.9445;
633.6000;0.3118;0.9445;
633.9000;0.3101;0.9420;
634.2000;0.3101;0.9346;
634.5000;0.3109;0.9346;
634.8000;0.3109;0.9321;
635.1000;0.3109;0.9346;
635.4000;0.3109;0.9296;
635.7000;0.3093;0.9221;
636.0000;0.3093;0.9296;
636.3000;0.3093;0.9246;
636.6000;0.3101;0.9196;
636.9000;0.3093;0.9296;
637.2000;0.3061;0.9246;
637.5000;0.3109;0.9371;
637.8000;0.3077;0.9321;
638.1000;0.3085;0.9271;
638.4000;0.3028;0.9171;
638.7000;0.3093;0.9346;
639.0000;0.3101;0.9445;
639.3000;0.3085;0.9396;
639.6000;0.3118;0.9495;
639.9000;0.3069;0.9396;
640.2000;0.3093;0.9470;
640.5000;0.3101;0.9371;
640.8000;0.3101;0.9346;
641.1000;0.3085;0.9396;
641.4000;0.3085;0.9520;
641.7000;0.3069;0.9495;
642.0000;0.3085;0.9520;
642.3000;0.3085;0.9445;
642.6000;0.3077;0.9396;
642.9000;0.3085;0.9420;
643.2000;0.3085;0.9420;
643.5000;0.3044;0.9371;
643.8000;0.3077;0.9321;
644.1000;0.3085;0.9396;
644.4000;0.3061;0.9296;
644.7000;0.3061;0.9371;
645.0000;0.3077;0.9470;
645.3000;0.3044;0.9420;
645.6000;0.3044;0.9371;
645.9000;0.3053;0.9296;
646.2000;0.3077;0.9321;
646.5000;0.3069;0.9321;
646.8000;0.3069;0.9420;
647.1000;0.3077;0.9420;
647.4000;0.3077;0.9470;
647.7000;0.3044;0.9420;
648.0000;0.2963;0.9196;
648.3000;0.3061;0.9396;
648.6000;0.3053;0.9346;
648.9000;0.3061;0.9396;
649.2000;0.3085;0.9346;
649.5000;0.3077;0.9371;
649.8000;0.2963;0.9072;
650.1000;0.3004;0.9246;
650.4000;0.3061;0.9371;
650.7000;0.3020;0.9321;
651.0000;0.3053;0.9445;
651.3000;0.3044;0.9470;
651.6000;0.3044;0.9495;
651.9000;0.3053;0.9470;
652.2000;0.3036;0.9396;
652.5000;0.3028;0.9296;
652.8000;0.3020;0.9371;
653.1000;0.2955;0.9296;
653.4000;0.3020;0.9470;
653.7000;0.3044;0.9495;
654.0000;0.3044;0.9445;
654.3000;0.2987;0.9271;
654.6000;0.3044;0.9346;
654.9000;0.3053;0.9445;
655.2000;0.3069;0.9470;
655.5000;0.3036;0.9346;
655.8000;0.3044;0.9420;
656.1000;0.2996;0.9321;
656.4000;0.3044;0.9470;
656.7000;0.3044;0.9520;
657.0000;0.3061;0.9620;
657.3000;0.3053;0.9595;
657.6000;0.2939;0.9371;
657.9000;0.3077;0.9720;
658.2000;0.3044;0.9620;
658.5000;0.3077;0.9695;
658.8000;0.3053;0.9595;
659.1000;0.3061;0.9595;
659.4000;0.3093;0.9720;
659.7000;0.3020;0.9470;
660.0000;0.3036;0.9520;
660.3000;0.3053;0.9495;
660.6000;0.2971;0.9221;
660.9000;0.2987;0.9221;
661.2000;0.3028;0.9346;
661.5000;0.3028;0.9296;
661.8000;0.3036;0.9246;
662.1000;0.3044;0.9296;
662.4000;0.3036;0.9296;
662.7000;0.3053;0.9271;
663.0000;0.3036;0.9146;
663.3000;0.3044;0.9146;
663.6000;0.3020;0.9146;
663.9000;0.3061;0.9171;
664.2000;0.2971;0.8997;
664.5000;0.2987;0.9097;
664.8000;0.2996;0.9146;
665.1000;0.3044;0.9346;
665.4000;0.3053;0.9495;
665.7000;0.3036;0.9545;
666.0000;0.3036;0.9570;
666.3000;0.3028;0.9371;
666.6000;0.3020;0.9321;
666.9000;0.3028;0.9371;
667.2000;0.3036;0.9321;
667.5000;0.3044;0.9346;
667.8000;0.3028;0.9420;
668.1000;0.3036;0.9470;
668.4000;0.3020;0.9371;
668.7000;0.3020;0.9296;
669.0000;0.3028;0.9271;
669.3000;0.3028;0.9221;
669.6000;0.3020;0.9196;
669.9000;0.3036;0.9321;
670.2000;0.3028;0.9246;
670.5000;0.3061;0.9396;
670.8000;0.3028;0.9371;
671.1000;0.3020;0.9445;
671.4000;0.3004;0.9420;
671.7000;0.3036;0.9445;
672.0000;0.3020;0.9371;
672.3000;0.2996;0.9221;
672.6000;0.3020;0.9271;
672.9000;0.3004;0.9321;
673.2000;0.2987;0.9271;
673.5000;0.3020;0.9321;
673.8000;0.3020;0.9271;
674.1000;0.2963;0.9121;
674.4000;0.3020;0.9321;
674.7000;0.3004;0.9221;
675.0000;0.3012;0.9271;
675.3000;0.3028;0.9321;
675.6000;0.3028;0.9420;
675.9000;0.3012;0.9271;
676.2000;0.3004;0.9296;
676.5000;0.3020;0.9271;
676.8000;0.3012;0.9346;
677.1000;0.2890;0.9072;
677.4000;0.3004;0.9271;
677.7000;0.3004;0.9221;
678.0000;0.3012;0.9246;
678.3000;0.3020;0.9321;
678.6000;0.3053;0.9371;
678.9000;0.3012;0.9321;
679.2000;0.2996;0.9296;
679.5000;0.3012;0.9371;
679.8000;0.3012;0.9296;
680.1000;0.3101;0.9445;
680.4000;0.3020;0.9196;
680.7000;0.3012;0.9271;
681.0000;0.3020;0.9246;
681.3000;0.2996;0.9246;
681.6000;0.3044;0.9296;
681.9000;0.3004;0.9196;
682.2000;0.3004;0.9196;
682.5000;0.2971;0.9121;
682.8000;0.2996;0.9196;
683.1000;0.3004;0.9271;
683.4000;0.3004;0.9196;
683.7000;0.3004;0.9146;
684.0000;0.2987;0.9072;
684.3000;0.3004;0.9121;
684.6000;0.3061;0.9420;
684.9000;0.2979;0.9196;
685.2000;0.2914;0.9047;
685.5000;0.3028;0.9321;
685.8000;0.3004;0.9321;
686.1000;0.3118;0.9570;
686.4000;0.2996;0.9296;
686.7000;0.3012;0.9346;
687.0000;0.2996;0.9321;
687.3000;0.3004;0.9396;
687.6000;0.2996;0.9420;
687.9000;0.2987;0.9396;
688.2000;0.3012;0.9396;
688.5000;0.3020;0.9420;
688.8000;0.2987;0.9321;
689.1000;0.2996;0.9420;
689.4000;0.3004;0.9445;
689.7000;0.3044;0.9495;
690.0000;0.3012;0.9420;
690.3000;0.2947;0.9221;
690.6000;0.2987;0.9271;
690.9000;0.3012;0.9371;
691.2000;0.3012;0.9396;
691.5000;0.3028;0.9420;
691.8000;0.2979;0.9221;
692.1000;0.2996;0.9271;
692.4000;0.3036;0.9371;
692.7000;0.2987;0.9171;
693.0000;0.3020;0.9271;
693.3000;0.3061;0.9396;
693.6000;0.3012;0.9321;
693.9000;0.2979;0.9196;
694.2000;0.3004;0.9171;
694.5000;0.3012;0.9171;
694.8000;0.3004;0.9246;
695.1000;0.3012;0.9321;
695.4000;0.3012;0.9371;
695.7000;0.3004;0.9346;
696.0000;0.2971;0.9321;
696.3000;0.3012;0.9520;
696.6000;0.2996;0.9470;
696.9000;0.3012;0.9396;
697.2000;0.2979;0.9321;
697.5000;0.3004;0.9321;
697.8000;0.3004;0.9321;
698.1000;0.2996;0.9470;
698.4000;0.2996;0.9545;
698.7000;0.2996;0.9545;
699.0000;0.2987;0.9520;
699.3000;0.2987;0.9545;
699.6000;0.2987;0.9570;
699.9000;0.3020;0.9645;
700.2000;0.2996;0.9595;
700.5000;0.2996;0.9520;
700.8000;0.2996;0.9545;
701.1000;0.3012;0.9520;
701.4000;0.3004;0.9396;
701.7000;0.2971;0.9196;
702.0000;0.3004;0.9321;
702.3000;0.2996;0.9371;
702.6000;0.3004;0.9296;
702.9000;0.2987;0.9271;
703.2000;0.2987;0.9196;
703.5000;0.3012;0.9246;
703.8000;0.2987;0.9171;
704.1000;0.3004;0.9321;
704.4000;0.2996;0.9346;
704.7000;0.2979;0.9271;
705.0000;0.3012;0.9271;
705.3000;0.3004;0.9296;
705.6000;0.2996;0.9296;
705.9000;0.3012;0.9346;
706.2000;0.3004;0.9371;
706.5000;0.2996;0.9396;
706.8000;0.3004;0.9346;
707.1000;0.2979;0.9321;
707.4000;0.3004;0.9346;
707.7000;0.2971;0.9271;
708.0000;0.2955;0.9346;
708.3000;0.2971;0.9371;
708.6000;0.3012;0.9495;
708.9000;0.2939;0.9321;
709.2000;0.2979;0.9296;
709.5000;0.2963;0.9146;
709.8000;0.2955;0.9121;
710.1000;0.2987;0.9246;
710.4000;0.2987;0.9346;
710.7000;0.2963;0.9221;
711.0000;0.2979;0.9221;
711.3000;0.2963;0.9221;
711.6000;0.3020;0.9296;
711.9000;0.2979;0.9221;
712.2000;0.3004;0.9296;
712.5000;0.2979;0.9171;
712.8000;0.2987;0.9221;
713.1000;0.2971;0.9196;
713.4000;0.2963;0.9171;
713.7000;0.2987;0.9196;
714.0000;0.2971;0.9171;
714.3000;0.2971;0.9196;
714.6000;0.2963;0.9171;
714.9000;0.2979;0.9196;
715.2000;0.2955;0.9196;
715.5000;0.2987;0.9221;
715.8000;0.2955;0.9171;
716.1000;0.3053;0.9396;
716.4000;0.2996;0.9296;
716.7000;0.2971;0.9246;
717.0000;0.2971;0.9346;
717.3000;0.3061;0.9570;
717.6000;0.2979;0.9346;
717.9000;0.2979;0.9296;
718.2000;0.2987;0.9296;
718.5000;0.2979;0.9246;
718.8000;0.2963;0.9246;
719.1000;0.2939;0.9097;
719.4000;0.2979;0.9097;
719.7000;0.2987;0.9097;
720.0000;0.2987;0.9121;
720.3000;0.2996;0.9271;
720.6000;0.2979;0.9171;
720.9000;0.2971;0.9221;
721.2000;0.2987;0.9321;
721.5000;0.2947;0.9296;
721.8000;0.2963;0.9346;
722.1000;0.2971;0.9346;
722.4000;0.2971;0.9396;
722.7000;0.2971;0.9396;
723.0000;0.2979;0.9470;
723.3000;0.2963;0.9296;
723.6000;0.2971;0.9346;
723.9000;0.2971;0.9371;
724.2000;0.3020;0.9445;
724.5000;0.2971;0.9396;
724.8000;0.2963;0.9371;
725.1000;0.2987;0.9420;
725.4000;0.2987;0.9420;
725.7000;0.2971;0.9371;
726.0000;0.2971;0.9321;
726.3000;0.2971;0.9346;
726.6000;0.2979;0.9321;
726.9000;0.2987;0.9296;
727.2000;0.2963;0.9121;
727.5000;0.2971;0.9072;
727.8000;0.2890;0.8947;
728.1000;0.2987;0.9221;
728.4000;0.2971;0.9171;
728.7000;0.2979;0.9246;
729.0000;0.2955;0.9171;
729.3000;0.2906;0.9047;
729.6000;0.2971;0.9246;
729.9000;0.2987;0.9246;
730.2000;0.2971;0.9146;
730.5000;0.3004;0.9196;
730.8000;0.2955;0.9072;
731.1000;0.2939;0.9097;
731.4000;0.3134;0.9645;
731.7000;0.2963;0.9271;
732.0000;0.2955;0.9246;
732.3000;0.2963;0.9196;
732.6000;0.2987;0.9271;
732.9000;0.2979;0.9221;
733.2000;0.2947;0.9072;
733.5000;0.2979;0.9072;
733.8000;0.2955;0.9022;
734.1000;0.2971;0.9047;
734.4000;0.2947;0.8972;
734.7000;0.2971;0.9097;
735.0000;0.2963;0.9171;
735.3000;0.2930;0.9097;
735.6000;0.2971;0.9146;
735.9000;0.2947;0.9171;
736.2000;0.2939;0.9171;
736.5000;0.2979;0.9246;
736.8000;0.2996;0.9221;
737.1000;0.2971;0.9097;
737.4000;0.2963;0.9097;
737.7000;0.2939;0.9146;
738.0000;0.2963;0.9221;
738.3000;0.2987;0.9246;
738.6000;0.2963;0.9221;
738.9000;0.2955;0.9221;
739.2000;0.2971;0.9097;
739.5000;0.2955;0.9072;
739.8000;0.2955;0.9097;
740.1000;0.2987;0.9221;
740.4000;0.2971;0.9246;
740.7000;0.2930;0.9171;
741.0000;0.2971;0.9296;
741.3000;0.2971;0.9371;
741.6000;0.2963;0.9346;
741.9000;0.3020;0.9520;
742.2000;0.2963;0.9346;
742.5000;0.2963;0.9420;
742.8000;0.2930;0.9396;
743.1000;0.2914;0.9371;
743.4000;0.2947;0.9445;
743.7000;0.2971;0.9495;
744.0000;0.2955;0.9520;
744.3000;0.2963;0.9420;
744.6000;0.2971;0.9346;
744.9000;0.2939;0.9271;
745.2000;0.3069;0.9570;
745.5000;0.2963;0.9271;
745.8000;0.2955;0.9296;
746.1000;0.2963;0.9296;
746.4000;0.2971;0.9396;
746.7000;0.2955;0.9321;
747.0000;0.2963;0.9420;
747.3000;0.2955;0.9420;
747.6000;0.2963;0.9470;
747.9000;0.2963;0.9470;
748.2000;0.3036;0.9670;
748.5000;0.2963;0.9520;
748.8000;0.2955;0.9520;
749.1000;0.2963;0.9495;
749.4000;0.2979;0.9445;
749.7000;0.2955;0.9445;
750.0000;0.2996;0.9495;
750.3000;0.2947;0.9396;
750.6000;0.2955;0.9445;
750.9000;0.2955;0.9470;
751.2000;0.2963;0.9396;
751.5000;0.2963;0.9371;
751.8000;0.2947;0.9420;
752.1000;0.2947;0.9371;
752.4000;0.2955;0.9420;
752.7000;0.2955;0.9396;
753.0000;0.2996;0.9445;
753.3000;0.2971;0.9396;
753.6000;0.2963;0.9371;
753.9000;0.2930;0.9346;
754.2000;0.2971;0.9545;
754.5000;0.3036;0.9769;
754.8000;0.2963;0.9595;
755.1000;0.2971;0.9670;
755.4000;0.2947;0.9570;
755.7000;0.2947;0.9570;
756.0000;0.2898;0.9420;
756.3000;0.2955;0.9545;
756.6000;0.2922;0.9470;
756.9000;0.2947;0.9420;
757.2000;0.2979;0.9470;
757.5000;0.2939;0.9296;
757.8000;0.2939;0.9271;
758.1000;0.2947;0.9371;
758.4000;0.2947;0.9346;
758.7000;0.2963;0.9371;
759.0000;0.2930;0.9221;
759.3000;0.2947;0.9271;
759.6000;0.2947;0.9371;
759.9000;0.2955;0.9470;
760.2000;0.2963;0.9570;
760.5000;0.2947;0.9445;
760.8000;0.2971;0.9520;
761.1000;0.2963;0.9620;
761.4000;0.2955;0.9595;
761.7000;0.2979;0.9595;
762.0000;0.2963;0.9595;
762.3000;0.2955;0.9645;
762.6000;0.2955;0.9545;
762.9000;0.2955;0.9595;
763.2000;0.2963;0.9570;
763.5000;0.2890;0.9371;
763.8000;0.2939;0.9545;
764.1000;0.2987;0.9695;
764.4000;0.2963;0.9670;
764.7000;0.2955;0.9645;
765.0000;0.2898;0.9495;
765.3000;0.2914;0.9570;
765.6000;0.2939;0.9645;
765.9000;0.2963;0.9695;
766.2000;0.2947;0.9695;
766.5000;0.2955;0.9720;
766.8000;0.2898;0.9545;
767.1000;0.2939;0.9595;
767.4000;0.2947;0.9620;
767.7000;0.2939;0.9620;
768.0000;0.2930;0.9670;
768.3000;0.2955;0.9695;
768.6000;0.2955;0.9720;
768.9000;0.2939;0.9695;
769.2000;0.2955;0.9695;
769.5000;0.2947;0.9595;
769.8000;0.2955;0.9545;
770.1000;0.2955;0.9570;
770.4000;0.2939;0.9520;
770.7000;0.2930;0.9470;
771.0000;0.2955;0.9545;
771.3000;0.2971;0.9545;
771.6000;0.3004;0.9645;
771.9000;0.2947;0.9420;
772.2000;0.2955;0.9470;
772.5000;0.2955;0.9445;
772.8000;0.2939;0.9396;
773.1000;0.2939;0.9396;
773.4000;0.2930;0.9321;
773.7000;0.2939;0.9396;
774.0000;0.2939;0.9346;
774.3000;0.2947;0.9346;
774.6000;0.2963;0.9420;
774.9000;0.2971;0.9371;
775.2000;0.2955;0.9396;
775.5000;0.2947;0.9495;
775.8000;0.2955;0.9495;
776.1000;0.2939;0.9470;
776.4000;0.2955;0.9470;
776.7000;0.2971;0.9520;
777.0000;0.2979;0.9545;
777.3000;0.2947;0.9445;
777.6000;0.2963;0.9470;
777.9000;0.2955;0.9420;
778.2000;0.2955;0.9445;
778.5000;0.2955;0.9520;
778.8000;0.2939;0.9545;
779.1000;0.2947;0.9545;
779.4000;0.2939;0.9520;
779.7000;0.2963;0.9520;
780.0000;0.2955;0.9470;
780.3000;0.2955;0.9520;
780.6000;0.2955;0.9445;
780.9000;0.2955;0.9445;
781.2000;0.2955;0.9495;
781.5000;0.2939;0.9420;
781.8000;0.2947;0.9470;
782.1000;0.2922;0.9445;
782.4000;0.2955;0.9495;
782.7000;0.2947;0.9520;
783.0000;0.2955;0.9545;
783.3000;0.2947;0.9396;
783.6000;0.2963;0.9520;
783.9000;0.2947;0.9470;
784.2000;0.2930;0.9445;
784.5000;0.2930;0.9445;
784.8000;0.2947;0.9445;
785.1000;0.2939;0.9396;
785.4000;0.2979;0.9495;
785.7000;0.3012;0.9620;
786.0000;0.2955;0.9470;
786.3000;0.2971;0.9545;
786.6000;0.2906;0.9445;
786.9000;0.2947;0.9570;
787.2000;0.2947;0.9670;
787.5000;0.2963;0.9645;
787.8000;0.2947;0.9595;
788.1000;0.2947;0.9545;
788.4000;0.2914;0.9396;
788.7000;0.2955;0.9445;
789.0000;0.2930;0.9346;
789.3000;0.2930;0.9445;
789.6000;0.2947;0.9495;
789.9000;0.2939;0.9570;
790.2000;0.3004;0.9819;
790.5000;0.2947;0.9645;
790.8000;0.2930;0.9470;
791.1000;0.2930;0.9470;
791.4000;0.2971;0.9595;
791.7000;0.2939;0.9470;
792.0000;0.2939;0.9396;
792.3000;0.2971;0.9396;
792.6000;0.2914;0.9321;
792.9000;0.2947;0.9495;
793.2000;0.2930;0.9470;
793.5000;0.2922;0.9495;
793.8000;0.2947;0.9545;
794.1000;0.2906;0.9420;
794.4000;0.2947;0.9570;
794.7000;0.2955;0.9595;
795.0000;0.2939;0.9545;
795.3000;0.2939;0.9520;
795.6000;0.2947;0.9570;
795.9000;0.2963;0.9620;
796.2000;0.2914;0.9520;
796.5000;0.2857;0.9296;
796.8000;0.2930;0.9570;
797.1000;0.2947;0.9595;
797.4000;0.2955;0.9595;
797.7000;0.2939;0.9570;
798.0000;0.2939;0.9570;
798.3000;0.2939;0.9545;
798.6000;0.2947;0.9520;
798.9000;0.2947;0.9545;
799.2000;0.2947;0.9570;
799.5000;0.2914;0.9520;
799.8000;0.2930;0.9570;
800.1000;0.2939;0.9520;
800.4000;0.2947;0.9545;
800.7000;0.2947;0.9595;
801.0000;0.2890;0.9545;
801.3000;0.2955;0.9769;
801.6000;0.2963;0.9695;
801.9000;0.2955;0.9645;
802.2000;0.2930;0.9570;
802.5000;0.2955;0.9570;
802.8000;0.2963;0.9695;
803.1000;0.2955;0.9595;
803.4000;0.3028;0.9769;
803.7000;0.2939;0.9495;
804.0000;0.2922;0.9470;
804.3000;0.2947;0.9520;
804.6000;0.2955;0.9470;
804.9000;0.2930;0.9346;
805.2000;0.2955;0.9420;
805.5000;0.2906;0.9346;
805.8000;0.2955;0.9445;
806.1000;0.2939;0.9470;
806.4000;0.2939;0.9595;
806.7000;0.2955;0.9720;
807.0000;0.2955;0.9720;
807.3000;0.2930;0.9645;
807.6000;0.2939;0.9695;
807.9000;0.2939;0.9819;
808.2000;0.2930;0.9769;
808.5000;0.2939;0.9744;
808.8000;0.2947;0.9794;
809.1000;0.2955;0.9844;
809.4000;0.2947;0.9819;
809.7000;0.2947;0.9794;
810.0000;0.2930;0.9620;
810.3000;0.2939;0.9570;
810.6000;0.2930;0.9445;
810.9000;0.2947;0.9445;
811.2000;0.2987;0.9645;
811.5000;0.2963;0.9595;
811.8000;0.2955;0.9645;
812.1000;0.2922;0.9520;
812.4000;0.2922;0.9495;
812.7000;0.2857;0.9321;
813.0000;0.2914;0.9495;
813.3000;0.2947;0.9495;
813.6000;0.2914;0.9346;
813.9000;0.2955;0.9371;
814.2000;0.2906;0.9246;
814.5000;0.2963;0.9396;
814.8000;0.2947;0.9296;
815.1000;0.3004;0.9470;
815.4000;0.2939;0.9346;
815.7000;0.2947;0.9371;
816.0000;0.2963;0.9346;
816.3000;0.2930;0.9221;
816.6000;0.2939;0.9221;
816.9000;0.2955;0.9196;
817.2000;0.2930;0.9146;
817.5000;0.2996;0.9271;
817.8000;0.2947;0.9097;
818.1000;0.2939;0.9072;
818.4000;0.2939;0.9221;
818.7000;0.2930;0.9271;
819.0000;0.2930;0.9296;
819.3000;0.2930;0.9321;
819.6000;0.2930;0.9346;
819.9000;0.2922;0.9346;
820.2000;0.2898;0.9371;
820.5000;0.2914;0.9396;
820.8000;0.2930;0.9470;
821.1000;0.2939;0.9470;
821.4000;0.2947;0.9396;
821.7000;0.2947;0.9445;
822.0000;0.2947;0.9470;
822.3000;0.2955;0.9495;
822.6000;0.2914;0.9495;
822.9000;0.2930;0.9595;
823.2000;0.2930;0.9645;
823.5000;0.2906;0.9520;
823.8000;0.2930;0.9520;
824.1000;0.2922;0.9420;
824.4000;0.2930;0.9396;
824.7000;0.2922;0.9246;
825.0000;0.2890;0.9097;
825.3000;0.2857;0.9047;
825.6000;0.2939;0.9221;
825.9000;0.2930;0.9296;
826.2000;0.2996;0.9495;
826.5000;0.2922;0.9271;
826.8000;0.2930;0.9271;
827.1000;0.2939;0.9321;
827.4000;0.2939;0.9346;
827.7000;0.2939;0.9371;
828.0000;0.2898;0.9196;
828.3000;0.2890;0.9296;
828.6000;0.3053;0.9794;
828.9000;0.2930;0.9445;
829.2000;0.2939;0.9495;
829.5000;0.2930;0.9520;
829.8000;0.2930;0.9520;
830.1000;0.2930;0.9595;
830.4000;0.2930;0.9595;
830.7000;0.2939;0.9595;
831.0000;0.2939;0.9520;
831.3000;0.2955;0.9420;
831.6000;0.2930;0.9371;
831.9000;0.2939;0.9495;
832.2000;0.2930;0.9445;
832.5000;0.2922;0.9520;
832.8000;0.2914;0.9495;
833.1000;0.2906;0.9420;
833.4000;0.2939;0.9445;
833.7000;0.2963;0.9470;
834.0000;0.2930;0.9420;
834.3000;0.2947;0.9495;
834.6000;0.2947;0.9470;
834.9000;0.2947;0.9371;
835.2000;0.2914;0.9296;
835.5000;0.2939;0.9371;
835.8000;0.2955;0.9371;
836.1000;0.2963;0.9321;
836.4000;0.2947;0.9371;
836.7000;0.2987;0.9520;
837.0000;0.2955;0.9396;
837.3000;0.2963;0.9445;
837.6000;0.2922;0.9396;
837.9000;0.2922;0.9396;
838.2000;0.2939;0.9470;
838.5000;0.2930;0.9346;
838.8000;0.2930;0.9296;
839.1000;0.2922;0.9321;
839.4000;0.2922;0.9271;
839.7000;0.2922;0.9371;
840.0000;0.2930;0.9396;
840.3000;0.2939;0.9495;
840.6000;0.2930;0.9495;
840.9000;0.2939;0.9570;
841.2000;0.2930;0.9545;
841.5000;0.2939;0.9670;
841.8000;0.2939;0.9570;
842.1000;0.2930;0.9495;
842.4000;0.2947;0.9545;
842.7000;0.2922;0.9470;
843.0000;0.2930;0.9470;
843.3000;0.2922;0.9420;
843.6000;0.2939;0.9570;
843.9000;0.2914;0.9520;
844.2000;0.2914;0.9445;
844.5000;0.2971;0.9570;
844.8000;0.2947;0.9520;
845.1000;0.2955;0.9595;
845.4000;0.2922;0.9545;
845.7000;0.2930;0.9595;
846.0000;0.2947;0.9645;
846.3000;0.2906;0.9570;
846.6000;0.2955;0.9670;
846.9000;0.2947;0.9570;
847.2000;0.2939;0.9520;
847.5000;0.2955;0.9620;
847.8000;0.2947;0.9445;
848.1000;0.2947;0.9445;
848.4000;0.2947;0.9346;
848.7000;0.2939;0.9346;
849.0000;0.2914;0.9371;
849.3000;0.2930;0.9371;
849.6000;0.2947;0.9371;
849.9000;0.2963;0.9470;
850.2000;0.2922;0.9346;
850.5000;0.2947;0.9371;
850.8000;0.2922;0.9396;
851.1000;0.2947;0.9470;
851.4000;0.2955;0.9420;
851.7000;0.2930;0.9371;
852.0000;0.2939;0.9371;
852.3000;0.2939;0.9445;
852.6000;0.2930;0.9396;
852.9000;0.2906;0.9321;
853.2000;0.2922;0.9420;
853.5000;0.2947;0.9520;
853.8000;0.2930;0.9396;
854.1000;0.2930;0.9346;
854.4000;0.2922;0.9296;
854.7000;0.2939;0.9271;
855.0000;0.2947;0.9470;
855.3000;0.2930;0.9495;
855.6000;0.2930;0.9545;
855.9000;0.2873;0.9371;
856.2000;0.2914;0.9445;
856.5000;0.2947;0.9420;
856.8000;0.2922;0.9396;
857.1000;0.2939;0.9420;
857.4000;0.2947;0.9371;
857.7000;0.2914;0.9321;
858.0000;0.2987;0.9570;
858.3000;0.2955;0.9595;
858.6000;0.2914;0.9495;
858.9000;0.2930;0.9545;
859.2000;0.2906;0.9470;
859.5000;0.2930;0.9570;
859.8000;0.2922;0.9570;
860.1000;0.2882;0.9445;
860.4000;0.2922;0.9495;
860.7000;0.2930;0.9570;
861.0000;0.2939;0.9595;
861.3000;0.2930;0.9570;
861.6000;0.2987;0.9695;
861.9000;0.2930;0.9570;
862.2000;0.2963;0.9645;
862.5000;0.2971;0.9645;
862.8000;0.2922;0.9595;
863.1000;0.2930;0.9670;
863.4000;0.2939;0.9769;
863.7000;0.2898;0.9570;
864.0000;0.2930;0.9570;
864.3000;0.2947;0.9495;
864.6000;0.2914;0.9495;
864.9000;0.2930;0.9520;
865.2000;0.3044;0.9819;
865.5000;0.2955;0.9520;
865.8000;0.2947;0.9520;
866.1000;0.2930;0.9495;
866.4000;0.2914;0.9445;
866.7000;0.2939;0.9445;
867.0000;0.2922;0.9396;
867.3000;0.2939;0.9371;
867.6000;0.2930;0.9346;
867.9000;0.2914;0.9296;
868.2000;0.2922;0.9321;
868.5000;0.2914;0.9420;
868.8000;0.2914;0.9420;
869.1000;0.2939;0.9420;
869.4000;0.2930;0.9321;
869.7000;0.2914;0.9221;
870.0000;0.2890;0.9146;
870.3000;0.2955;0.9271;
870.6000;0.2955;0.9296;
870.9000;0.2922;0.9321;
871.2000;0.2955;0.9445;
871.5000;0.2939;0.9321;
871.8000;0.2930;0.9346;
872.1000;0.2939;0.9420;
872.4000;0.2914;0.9445;
872.7000;0.2930;0.9470;
873.0000;0.2939;0.9495;
873.3000;0.2922;0.9420;
873.6000;0.2939;0.9420;
873.9000;0.2930;0.9420;
874.2000;0.2930;0.9396;
874.5000;0.2930;0.9396;
874.8000;0.2914;0.9371;
875.1000;0.2922;0.9371;
875.4000;0.2922;0.9346;
875.7000;0.2979;0.9570;
876.0000;0.2955;0.9470;
876.3000;0.2947;0.9396;
876.6000;0.2930;0.9445;
876.9000;0.2930;0.9396;
877.2000;0.2914;0.9396;
877.5000;0.2930;0.9420;
877.8000;0.2939;0.9445;
878.1000;0.2930;0.9470;
878.4000;0.2914;0.9420;
878.7000;0.2939;0.9470;
879.0000;0.2930;0.9520;
879.3000;0.2939;0.9620;
879.6000;0.2947;0.9545;
879.9000;0.2947;0.9620;
880.2000;0.2939;0.9620;
880.5000;0.2906;0.9570;
880.8000;0.2930;0.9620;
881.1000;0.2939;0.9720;
881.4000;0.2939;0.9695;
881.7000;0.2914;0.9595;
882.0000;0.2996;0.9869;
882.3000;0.2922;0.9570;
882.6000;0.2939;0.9545;
882.9000;0.2947;0.9545;
883.2000;0.2939;0.9620;
883.5000;0.2930;0.9645;
883.8000;0.2906;0.9695;
884.1000;0.2971;0.9869;
884.4000;0.2930;0.9819;
884.7000;0.2922;0.9819;
885.0000;0.2971;0.9869;
885.3000;0.2971;0.9819;
885.6000;0.2939;0.9744;
885.9000;0.2914;0.9620;
886.2000;0.2857;0.9495;
886.5000;0.2922;0.9670;
886.8000;0.2939;0.9645;
887.1000;0.2914;0.9670;
887.4000;0.2914;0.9645;
887.7000;0.2882;0.9620;
888.0000;0.2922;0.9720;
888.3000;0.2914;0.9595;
888.6000;0.2906;0.9595;
888.9000;0.2906;0.9620;
889.2000;0.2922;0.9545;
889.5000;0.2930;0.9670;
889.8000;0.2930;0.9645;
890.1000;0.2914;0.9595;
890.4000;0.2898;0.9570;
890.7000;0.2939;0.9645;
891.0000;0.2922;0.9520;
891.3000;0.2939;0.9545;
891.6000;0.2947;0.9570;
891.9000;0.2939;0.9495;
892.2000;0.2939;0.9545;
892.5000;0.2922;0.9545;
892.8000;0.2914;0.9545;
893.1000;0.2922;0.9545;
893.4000;0.2930;0.9570;
893.7000;0.2914;0.9520;
894.0000;0.2930;0.9545;
894.3000;0.2939;0.9495;
894.6000;0.2930;0.9495;
894.9000;0.2996;0.9620;
895.2000;0.2906;0.9396;
895.5000;0.2922;0.9445;
895.8000;0.2930;0.9470;
896.1000;0.2947;0.9495;
896.4000;0.2914;0.9420;
896.7000;0.2939;0.9470;
897.0000;0.2906;0.9445;
897.3000;0.2922;0.9495;
897.6000;0.2922;0.9470;
897.9000;0.2930;0.9495;
898.2000;0.2906;0.9520;
898.5000;0.2987;0.9645;
898.8000;0.2914;0.9495;
899.1000;0.2922;0.9445;
899.4000;0.2922;0.9495;
899.7000;0.2914;0.9371;
900.0000;0.2914;0.9321;
900.3000;0.2906;0.9271;
900.6000;0.2914;0.9271;
900.9000;0.2922;0.9271;
901.2000;0.2930;0.9296;
901.5000;0.2922;0.9371;
901.8000;0.2914;0.9346;
902.1000;0.2914;0.9396;
902.4000;0.2922;0.9470;
902.7000;0.2930;0.9420;
903.0000;0.2930;0.9470;
903.3000;0.2922;0.9470;
903.6000;0.2922;0.9445;
903.9000;0.2906;0.9420;
904.2000;0.2914;0.9520;
904.5000;0.2922;0.9620;
904.8000;0.2898;0.9470;
905.1000;0.2898;0.9396;
905.4000;0.2922;0.9445;
905.7000;0.2930;0.9470;
906.0000;0.2914;0.9470;
906.3000;0.2922;0.9495;
906.6000;0.2922;0.9520;
906.9000;0.3004;0.9794;
907.2000;0.2906;0.9595;
907.5000;0.2930;0.9570;
907.8000;0.2922;0.9520;
908.1000;0.2947;0.9595;
908.4000;0.2930;0.9645;
908.7000;0.2922;0.9545;
909.0000;0.2865;0.9495;
909.3000;0.2906;0.9695;
909.6000;0.2849;0.9620;
909.9000;0.2890;0.9645;
910.2000;0.2906;0.9645;
910.5000;0.2898;0.9744;
910.8000;0.2930;0.9794;
911.1000;0.2898;0.9744;
911.4000;0.2947;0.9919;
911.7000;0.2963;0.9919;
912.0000;0.2914;0.9794;
912.3000;0.2971;0.9919;
912.6000;0.2898;0.9695;
912.9000;0.2922;0.9769;
913.2000;0.2906;0.9844;
913.5000;0.2922;0.9819;
913.8000;0.2914;0.9720;
914.1000;0.2930;0.9720;
914.4000;0.2930;0.9645;
914.7000;0.2914;0.9520;
915.0000;0.2939;0.9445;
915.3000;0.2922;0.9346;
915.6000;0.2939;0.9420;
915.9000;0.2939;0.9396;
916.2000;0.2939;0.9371;
916.5000;0.2939;0.9445;
916.8000;0.2930;0.9445;
917.1000;0.2890;0.9470;
917.4000;0.2947;0.9645;
917.7000;0.2947;0.9670;
918.0000;0.2979;0.9670;
918.3000;0.2930;0.9620;
918.6000;0.2922;0.9670;
918.9000;0.2922;0.9620;
919.2000;0.2922;0.9645;
919.5000;0.2906;0.9645;
919.8000;0.2930;0.9595;
920.1000;0.2906;0.9570;
920.4000;0.2849;0.9470;
920.7000;0.2955;0.9844;
921.0000;0.2914;0.9645;
921.3000;0.2930;0.9620;
921.6000;0.2914;0.9620;
921.9000;0.2914;0.9545;
922.2000;0.2930;0.9595;
922.5000;0.2922;0.9595;
922.8000;0.2922;0.9620;
923.1000;0.2906;0.9545;
923.4000;0.2906;0.9520;
923.7000;0.2890;0.9520;
924.0000;0.2930;0.9720;
924.3000;0.2906;0.9670;
924.6000;0.2930;0.9620;
924.9000;0.2914;0.9570;
925.2000;0.2914;0.9470;
925.5000;0.2922;0.9445;
925.8000;0.2906;0.9445;
926.1000;0.2947;0.9470;
926.4000;0.2914;0.9445;
926.7000;0.2873;0.9346;
927.0000;0.2922;0.9470;
927.3000;0.2922;0.9545;
927.6000;0.2930;0.9495;
927.9000;0.2939;0.9520;
928.2000;0.2914;0.9396;
928.5000;0.2873;0.9296;
928.8000;0.2906;0.9396;
929.1000;0.2939;0.9520;
929.4000;0.2906;0.9595;
929.7000;0.2914;0.9645;
930.0000;0.2922;0.9595;
930.3000;0.2930;0.9545;
930.6000;0.2922;0.9495;
930.9000;0.2914;0.9445;
931.2000;0.2914;0.9520;
931.5000;0.2939;0.9595;
931.8000;0.2906;0.9545;
932.1000;0.2922;0.9595;
932.4000;0.2922;0.9570;
932.7000;0.2914;0.9620;
933.0000;0.2914;0.9670;
933.3000;0.2898;0.9695;
933.6000;0.2906;0.9769;
933.9000;0.2898;0.9695;
934.2000;0.2906;0.9670;
934.5000;0.2882;0.9645;
934.8000;0.2914;0.9744;
935.1000;0.2930;0.9769;
935.4000;0.2914;0.9769;
935.7000;0.2930;0.9844;
936.0000;0.2906;0.9794;
936.3000;0.2947;0.9844;
936.6000;0.2914;0.9620;
936.9000;0.2914;0.9645;
937.2000;0.2930;0.9595;
937.5000;0.2914;0.9620;
937.8000;0.2930;0.9695;
938.1000;0.2914;0.9720;
938.4000;0.2963;0.9769;
938.7000;0.2914;0.9595;
939.0000;0.2906;0.9570;
939.3000;0.2987;0.9794;
939.6000;0.2922;0.9645;
939.9000;0.2849;0.9495;
940.2000;0.2939;0.9695;
940.5000;0.2963;0.9794;
940.8000;0.2914;0.9744;
941.1000;0.2930;0.9645;
941.4000;0.2906;0.9545;
941.7000;0.2922;0.9545;
942.0000;0.2922;0.9470;
942.3000;0.2882;0.9420;
942.6000;0.2906;0.9570;
942.9000;0.2914;0.9545;
943.2000;0.2947;0.9570;
943.5000;0.2906;0.9570;
943.8000;0.2906;0.9645;
944.1000;0.2922;0.9695;
944.4000;0.2914;0.9670;
944.7000;0.2914;0.9595;
945.0000;0.2922;0.9595;
945.3000;0.2930;0.9695;
945.6000;0.2914;0.9620;
945.9000;0.2914;0.9645;
946.2000;0.2930;0.9670;
946.5000;0.2914;0.9670;
946.8000;0.2906;0.9720;
947.1000;0.2922;0.9769;
947.4000;0.2922;0.9744;
947.7000;0.2922;0.9769;
948.0000;0.2987;0.9969;
948.3000;0.2914;0.9744;
948.6000;0.2922;0.9645;
948.9000;0.2914;0.9495;
949.2000;0.2922;0.9520;
949.5000;0.2906;0.9396;
949.8000;0.2865;0.9321;
950.1000;0.2914;0.9470;
950.4000;0.2914;0.9570;
950.7000;0.2955;0.9595;
951.0000;0.2906;0.9495;
951.3000;0.2939;0.9545;
951.6000;0.2930;0.9495;
951.9000;0.2939;0.9545;
952.2000;0.2914;0.9420;
952.5000;0.2930;0.9445;
952.8000;0.2914;0.9495;
953.1000;0.2922;0.9520;
953.4000;0.2939;0.9470;
953.7000;0.2906;0.9495;
954.0000;0.2914;0.9670;
954.3000;0.2922;0.9595;
954.6000;0.2898;0.9495;
954.9000;0.2914;0.9470;
955.2000;0.2979;0.9595;
955.5000;0.2939;0.9645;
955.8000;0.2914;0.9570;
956.1000;0.2922;0.9645;
956.4000;0.2922;0.9720;
956.7000;0.2922;0.9695;
957.0000;0.2914;0.9670;
957.3000;0.2971;0.9944;
957.6000;0.2882;0.9670;
957.9000;0.2939;0.9769;
958.2000;0.2841;0.9595;
958.5000;0.2914;0.9794;
958.8000;0.2914;0.9645;
959.1000;0.2930;0.9744;
959.4000;0.2930;0.9720;
959.7000;0.3004;0.9969;
960.0000;0.2930;0.9794;
960.3000;0.2955;0.9844;
960.6000;0.2914;0.9794;
960.9000;0.2906;0.9819;
961.2000;0.2930;0.9869;
961.5000;0.2930;0.9919;
961.8000;0.2947;0.9944;
962.1000;0.2922;0.9894;
962.4000;0.2939;0.9819;
962.7000;0.2930;0.9819;
963.0000;0.2947;0.9819;
963.3000;0.2930;0.9769;
963.6000;0.2930;0.9720;
963.9000;0.2914;0.9670;
964.2000;0.2922;0.9670;
964.5000;0.2914;0.9744;
964.8000;0.2914;0.9744;
965.1000;0.2947;0.9869;
965.4000;0.2914;0.9769;
965.7000;0.2914;0.9769;
966.0000;0.2922;0.9769;
966.3000;0.2914;0.9744;
966.6000;0.2914;0.9695;
966.9000;0.2906;0.9670;
967.2000;0.2906;0.9670;
967.5000;0.2906;0.9720;
967.8000;0.2930;0.9695;
968.1000;0.2914;0.9570;
968.4000;0.2930;0.9595;
968.7000;0.2914;0.9570;
969.0000;0.2922;0.9620;
969.3000;0.2939;0.9570;
969.6000;0.2914;0.9420;
969.9000;0.2914;0.9371;
970.2000;0.2930;0.9445;
970.5000;0.2922;0.9445;
970.8000;0.2939;0.9445;
971.1000;0.2922;0.9396;
971.4000;0.2922;0.9495;
971.7000;0.2930;0.9445;
972.0000;0.2947;0.9595;
972.3000;0.2922;0.9470;
972.6000;0.2939;0.9445;
972.9000;0.2930;0.9420;
973.2000;0.2930;0.9420;
973.5000;0.2922;0.9495;
973.8000;0.2922;0.9470;
974.1000;0.2914;0.9520;
974.4000;0.2930;0.9595;
974.7000;0.2922;0.9470;
975.0000;0.2922;0.9570;
975.3000;0.2930;0.9595;
975.6000;0.2922;0.9595;
975.9000;0.2939;0.9595;
976.2000;0.2882;0.9545;
976.5000;0.2922;0.9695;
976.8000;0.2922;0.9695;
977.1000;0.2939;0.9720;
977.4000;0.2930;0.9720;
977.7000;0.2939;0.9720;
978.0000;0.2922;0.9744;
978.3000;0.2939;0.9769;
978.6000;0.2939;0.9794;
978.9000;0.2914;0.9695;
979.2000;0.2930;0.9744;
979.5000;0.2922;0.9695;
979.8000;0.2906;0.9670;
980.1000;0.2914;0.9645;
980.4000;0.2922;0.9744;
980.7000;0.2922;0.9769;
981.0000;0.2939;0.9769;
981.3000;0.2922;0.9744;
981.6000;0.2939;0.9769;
981.9000;0.2906;0.9670;
982.2000;0.2979;0.9844;
982.5000;0.2922;0.9794;
982.8000;0.2816;0.9520;
983.1000;0.2906;0.9794;
983.4000;0.2914;0.9744;
983.7000;0.2922;0.9720;
984.0000;0.2890;0.9794;
984.3000;0.2906;0.9769;
984.6000;0.2890;0.9769;
984.9000;0.2898;0.9794;
985.2000;0.2914;0.9769;
985.5000;0.2898;0.9744;
985.8000;0.2914;0.9794;
986.1000;0.2898;0.9819;
986.4000;0.2914;0.9919;
986.7000;0.2930;0.9969;
987.0000;0.2947;1.0019;
987.3000;0.2914;0.9844;
987.6000;0.2922;0.9844;
987.9000;0.2922;0.9744;
988.2000;0.2922;0.9794;
988.5000;0.2898;0.9645;
988.8000;0.2922;0.9720;
989.1000;0.2914;0.9670;
989.4000;0.2914;0.9670;
989.7000;0.2914;0.9595;
990.0000;0.2922;0.9545;
990.3000;0.2906;0.9495;
990.6000;0.2914;0.9495;
990.9000;0.2922;0.9570;
991.2000;0.2906;0.9645;
991.5000;0.2914;0.9595;
991.8000;0.2898;0.9645;
992.1000;0.2922;0.9620;
992.4000;0.2922;0.9595;
992.7000;0.2979;0.9744;
993.0000;0.2906;0.9595;
993.3000;0.2914;0.9695;
993.6000;0.2922;0.9695;
993.9000;0.2914;0.9720;
994.2000;0.2922;0.9794;
994.5000;0.2922;0.9819;
994.8000;0.2865;0.9645;
995.1000;0.2939;0.9794;
995.4000;0.2922;0.9769;
995.7000;0.3020;0.9919;
996.0000;0.2939;0.9744;
996.3000;0.2922;0.9720;
996.6000;0.2922;0.9695;
996.9000;0.2922;0.9695;
997.2000;0.2914;0.9670;
997.5000;0.2882;0.9645;
997.8000;0.2898;0.9744;
998.1000;0.2898;0.9769;
998.4000;0.2939;0.9944;
998.7000;0.2939;0.9944;
999.0000;0.2955;0.9944;
999.3000;0.2930;0.9819;
999.6000;0.2906;0.9794;
999.9000;0.2914;0.9819;
1000.2000;0.2914;0.9769;
1000.5000;0.2906;0.9769;
1000.8000;0.2922;0.9720;
1001.1000;0.2987;0.9844;
1001.4000;0.2914;0.9670;
1001.7000;0.2890;0.9645;
1002.0000;0.2808;0.9445;
1002.3000;0.2898;0.9645;
1002.6000;0.2922;0.9720;
1002.9000;0.2906;0.9695;
1003.2000;0.2947;0.9794;
1003.5000;0.2939;0.9720;
1003.8000;0.3012;0.9894;
1004.1000;0.2930;0.9695;
1004.4000;0.2922;0.9670;
1004.7000;0.2890;0.9620;
1005.0000;0.2922;0.9744;
1005.3000;0.2865;0.9670;
1005.6000;0.2914;0.9794;
1005.9000;0.2914;0.9794;
1006.2000;0.2979;0.9919;
1006.5000;0.2906;0.9744;
1006.8000;0.2963;1.0019;
1007.1000;0.2906;0.9844;
1007.4000;0.2930;0.9894;
1007.7000;0.2930;0.9844;
1008.0000;0.2914;0.9769;
1008.3000;0.2922;0.9819;
1008.6000;0.2922;0.9720;
1008.9000;0.2914;0.9720;
1009.2000;0.2906;0.9720;
1009.5000;0.2930;0.9769;
1009.8000;0.2922;0.9819;
1010.1000;0.2922;0.9844;
1010.4000;0.2930;0.9819;
1010.7000;0.2898;0.9670;
1011.0000;0.2922;0.9769;
1011.3000;0.2930;0.9720;
1011.6000;0.2914;0.9670;
1011.9000;0.2922;0.9670;
1012.2000;0.2906;0.9595;
1012.5000;0.2979;0.9819;
1012.8000;0.2922;0.9620;
1013.1000;0.2930;0.9720;
1013.4000;0.2914;0.9695;
1013.7000;0.2930;0.9720;
1014.0000;0.2914;0.9670;
1014.3000;0.2898;0.9670;
1014.6000;0.2898;0.9620;
1014.9000;0.2914;0.9695;
1015.2000;0.2914;0.9645;
1015.5000;0.2890;0.9570;
1015.8000;0.2914;0.9595;
1016.1000;0.2955;0.9769;
1016.4000;0.2906;0.9720;
1016.7000;0.2906;0.9744;
1017.0000;0.2906;0.9720;
1017.3000;0.2898;0.9695;
1017.6000;0.2898;0.9720;
1017.9000;0.2914;0.9720;
1018.2000;0.2930;0.9769;
1018.5000;0.2898;0.9670;
1018.8000;0.2922;0.9670;
1019.1000;0.2906;0.9720;
1019.4000;0.2906;0.9695;
1019.7000;0.2857;0.9520;
1020.0000;0.2898;0.9645;
1020.3000;0.2898;0.9620;
1020.6000;0.2906;0.9595;
1020.9000;0.2930;0.9720;
1021.2000;0.2914;0.9695;
1021.5000;0.2914;0.9794;
1021.8000;0.2922;0.9769;
1022.1000;0.2955;0.9769;
1022.4000;0.2922;0.9595;
1022.7000;0.2816;0.9321;
1023.0000;0.2914;0.9520;
1023.3000;0.2914;0.9520;
1023.6000;0.2906;0.9595;
1023.9000;0.2914;0.9695;
1024.2000;0.2898;0.9695;
1024.5000;0.2914;0.9720;
1024.8000;0.2914;0.9769;
1025.1000;0.2947;0.9894;
1025.4000;0.2922;0.9794;
1025.7000;0.2890;0.9645;
1026.0000;0.2873;0.9645;
1026.3000;0.2914;0.9794;
1026.6000;0.2890;0.9670;
1026.9000;0.2906;0.9744;
1027.2000;0.2906;0.9645;
1027.5000;0.2906;0.9744;
1027.8000;0.2914;0.9794;
1028.1000;0.2898;0.9695;
1028.4000;0.2914;0.9695;
1028.7000;0.2906;0.9595;
1029.0000;0.2906;0.9645;
1029.3000;0.2898;0.9695;
1029.6000;0.2914;0.9744;
1029.9000;0.2906;0.9620;
1030.2000;0.2906;0.9645;
1030.5000;0.2914;0.9545;
1030.8000;0.2914;0.9445;
1031.1000;0.2906;0.9470;
1031.4000;0.2922;0.9545;
1031.7000;0.2922;0.9570;
1032.0000;0.2914;0.9595;
1032.3000;0.2987;0.9844;
1032.6000;0.2890;0.9595;
1032.9000;0.2882;0.9620;
1033.2000;0.2898;0.9645;
1033.5000;0.2914;0.9695;
1033.8000;0.2930;0.9645;
1034.1000;0.2955;0.9720;
1034.4000;0.2971;0.9744;
1034.7000;0.2914;0.9495;
1035.0000;0.2939;0.9595;
1035.3000;0.2833;0.9221;
1035.6000;0.2939;0.9420;
1035.9000;0.2939;0.9445;
1036.2000;0.2914;0.9495;
1036.5000;0.2930;0.9520;
1036.8000;0.2914;0.9545;
1037.1000;0.2906;0.9545;
1037.4000;0.2898;0.9570;
1037.7000;0.2914;0.9645;
1038.0000;0.2963;0.9819;
1038.3000;0.2882;0.9620;
1038.6000;0.2906;0.9695;
1038.9000;0.2906;0.9794;
1039.2000;0.2898;0.9794;
1039.5000;0.2914;0.9744;
1039.8000;0.2922;0.9794;
1040.1000;0.2906;0.9744;
1040.4000;0.2906;0.9844;
1040.7000;0.2898;0.9794;
1041.0000;0.2914;0.9769;
1041.3000;0.2898;0.9670;
1041.6000;0.2906;0.9670;
1041.9000;0.2930;0.9670;
1042.2000;0.2930;0.9670;
1042.5000;0.2922;0.9645;
1042.8000;0.2939;0.9720;
1043.1000;0.2939;0.9620;
1043.4000;0.2922;0.9620;
1043.7000;0.2914;0.9645;
1044.0000;0.2914;0.9595;
1044.3000;0.2914;0.9645;
1044.6000;0.2922;0.9744;
1044.9000;0.2930;0.9794;
1045.2000;0.2914;0.9645;
1045.5000;0.2930;0.9645;
1045.8000;0.2930;0.9769;
1046.1000;0.2906;0.9570;
1046.4000;0.2898;0.9545;
1046.7000;0.2882;0.9545;
1047.0000;0.2914;0.9670;
1047.3000;0.2914;0.9695;
1047.6000;0.2906;0.9720;
1047.9000;0.2914;0.9720;
1048.2000;0.2914;0.9720;
1048.5000;0.2930;0.9744;
1048.8000;0.2906;0.9670;
1049.1000;0.2906;0.9520;
1049.4000;0.2898;0.9371;
1049.7000;0.2865;0.9246;
1050.0000;0.2914;0.9346;
1050.3000;0.2898;0.9396;
1050.6000;0.2955;0.9570;
1050.9000;0.2906;0.9346;
1051.2000;0.2906;0.9420;
1051.5000;0.2906;0.9371;
1051.8000;0.2898;0.9396;
1052.1000;0.2914;0.9495;
1052.4000;0.2922;0.9470;
1052.7000;0.2914;0.9520;
1053.0000;0.2906;0.9495;
1053.3000;0.2906;0.9520;
1053.6000;0.2906;0.9545;
1053.9000;0.2906;0.9545;
1054.2000;0.2906;0.9670;
1054.5000;0.2922;0.9744;
1054.8000;0.2898;0.9595;
1055.1000;0.2914;0.9570;
1055.4000;0.2898;0.9520;
1055.7000;0.2914;0.9520;
1056.0000;0.2922;0.9545;
1056.3000;0.2914;0.9520;
1056.6000;0.2873;0.9495;
1056.9000;0.2890;0.9495;
1057.2000;0.2922;0.9595;
1057.5000;0.2922;0.9620;
1057.8000;0.2922;0.9595;
1058.1000;0.2930;0.9620;
1058.4000;0.2890;0.9470;
1058.7000;0.2841;0.9296;
1059.0000;0.2922;0.9470;
1059.3000;0.2914;0.9570;
1059.6000;0.2922;0.9620;
1059.9000;0.2898;0.9495;
1060.2000;0.2906;0.9520;
1060.5000;0.2890;0.9545;
1060.8000;0.2922;0.9695;
1061.1000;0.2898;0.9570;
1061.4000;0.2906;0.9545;
1061.7000;0.2914;0.9570;
1062.0000;0.2906;0.9720;
1062.3000;0.2914;0.9695;
1062.6000;0.2914;0.9670;
1062.9000;0.2922;0.9570;
1063.2000;0.2930;0.9645;
1063.5000;0.2914;0.9595;
1063.8000;0.2922;0.9545;
1064.1000;0.2906;0.9470;
1064.4000;0.2914;0.9470;
1064.7000;0.2898;0.9445;
1065.0000;0.2922;0.9396;
1065.3000;0.2906;0.9371;
1065.6000;0.2898;0.9445;
1065.9000;0.2914;0.9420;
1066.2000;0.2922;0.9470;
1066.5000;0.2922;0.9495;
1066.8000;0.2914;0.9570;
1067.1000;0.2914;0.9545;
1067.4000;0.2922;0.9495;
1067.7000;0.2930;0.9495;
1068.0000;0.2914;0.9470;
1068.3000;0.2922;0.9445;
1068.6000;0.2922;0.9396;
1068.9000;0.2873;0.9371;
1069.2000;0.2922;0.9495;
1069.5000;0.2914;0.9595;
1069.8000;0.2922;0.9620;
1070.1000;0.2922;0.9645;
1070.4000;0.2914;0.9620;
1070.7000;0.2890;0.9495;
1071.0000;0.2939;0.9545;
1071.3000;0.2914;0.9520;
1071.6000;0.2898;0.9620;
1071.9000;0.2906;0.9620;
1072.2000;0.2930;0.9620;
1072.5000;0.2930;0.9595;
1072.8000;0.2914;0.9595;
1073.1000;0.2857;0.9346;
1073.4000;0.2906;0.9495;
1073.7000;0.2865;0.9396;
1074.0000;0.2930;0.9570;
1074.3000;0.2898;0.9495;
1074.6000;0.2922;0.9620;
1074.9000;0.2898;0.9595;
1075.2000;0.2898;0.9545;
1075.5000;0.2890;0.9520;
1075.8000;0.2898;0.9645;
1076.1000;0.2922;0.9720;
1076.4000;0.2865;0.9570;
1076.7000;0.2914;0.9695;
1077.0000;0.2914;0.9695;
1077.3000;0.2930;0.9695;
1077.6000;0.2930;0.9720;
1077.9000;0.2906;0.9545;
1078.2000;0.2898;0.9520;
1078.5000;0.2922;0.9620;
1078.8000;0.2914;0.9595;
1079.1000;0.2922;0.9670;
1079.4000;0.2898;0.9595;
1079.7000;0.2890;0.9595;
1080.0000;0.2914;0.9670;
1080.3000;0.3020;0.9994;
1080.6000;0.2939;0.9869;
1080.9000;0.2898;0.9744;
1081.2000;0.2906;0.9670;
1081.5000;0.2914;0.9620;
1081.8000;0.2898;0.9645;
1082.1000;0.2906;0.9744;
1082.4000;0.2930;0.9744;
1082.7000;0.2906;0.9769;
1083.0000;0.2906;0.9769;
1083.3000;0.2906;0.9645;
1083.6000;0.2898;0.9620;
1083.9000;0.2914;0.9620;
1084.2000;0.2922;0.9695;
1084.5000;0.2914;0.9670;
1084.8000;0.2906;0.9645;
1085.1000;0.2922;0.9744;
1085.4000;0.2906;0.9744;
1085.7000;0.2914;0.9819;
1086.0000;0.2906;0.9769;
1086.3000;0.2914;0.9670;
1086.6000;0.2914;0.9645;
1086.9000;0.2906;0.9670;
1087.2000;0.2898;0.9620;
1087.5000;0.2947;0.9769;
1087.8000;0.2906;0.9645;
1088.1000;0.2906;0.9720;
1088.4000;0.2906;0.9720;
1088.7000;0.2922;0.9720;
1089.0000;0.2914;0.9670;
1089.3000;0.2906;0.9670;
1089.6000;0.2963;0.9819;
1089.9000;0.2922;0.9695;
1090.2000;0.2914;0.9769;
1090.5000;0.2930;0.9720;
1090.8000;0.2914;0.9695;
1091.1000;0.2914;0.9720;
1091.4000;0.2939;0.9819;
1091.7000;0.2930;0.9794;
1092.0000;0.2922;0.9769;
1092.3000;0.2914;0.9744;
1092.6000;0.2922;0.9744;
1092.9000;0.2922;0.9819;
1093.2000;0.2914;0.9769;
1093.5000;0.2906;0.9819;
1093.8000;0.2930;0.9844;
1094.1000;0.2914;0.9769;
1094.4000;0.2922;0.9769;
1094.7000;0.2906;0.9695;
1095.0000;0.2922;0.9670;
1095.3000;0.2898;0.9695;
1095.6000;0.2882;0.9720;
1095.9000;0.2906;0.9769;
1096.2000;0.2914;0.9819;
1096.5000;0.2906;0.9769;
1096.8000;0.2914;0.9769;
1097.1000;0.2914;0.9670;
1097.4000;0.2914;0.9595;
1097.7000;0.2906;0.9470;
1098.0000;0.2922;0.9570;
1098.3000;0.2947;0.9695;
1098.6000;0.2914;0.9670;
1098.9000;0.2922;0.9744;
1099.2000;0.2914;0.9819;
1099.5000;0.2906;0.9869;
1099.8000;0.2971;0.9844;
1100.1000;0.2906;0.9720;
1100.4000;0.2898;0.9769;
1100.7000;0.2906;0.9744;
1101.0000;0.2898;0.9720;
1101.3000;0.2898;0.9720;
1101.6000;0.2906;0.9670;
1101.9000;0.2914;0.9720;
1102.2000;0.2906;0.9769;
1102.5000;0.2922;0.9869;
1102.8000;0.2906;0.9769;
1103.1000;0.2906;0.9744;
1103.4000;0.2906;0.9844;
1103.7000;0.2906;0.9994;
1104.0000;0.2930;1.0068;
1104.3000;0.2906;0.9944;
1104.6000;0.2906;0.9944;
1104.9000;0.2898;0.9894;
1105.2000;0.2898;0.9894;
1105.5000;0.2906;0.9869;
1105.8000;0.2922;0.9969;
1106.1000;0.2882;0.9844;
1106.4000;0.2930;0.9894;
1106.7000;0.2914;0.9894;
1107.0000;0.2906;0.9944;
1107.3000;0.2898;1.0044;
1107.6000;0.2930;1.0044;
1107.9000;0.2914;1.0093;
1108.2000;0.2898;0.9944;
1108.5000;0.2914;0.9819;
1108.8000;0.2906;0.9819;
1109.1000;0.2914;0.9844;
1109.4000;0.2914;0.9869;
1109.7000;0.2890;0.9819;
1110.0000;0.2906;0.9869;
1110.3000;0.2914;0.9894;
1110.6000;0.2898;0.9794;
1110.9000;0.2914;0.9844;
1111.2000;0.2898;0.9794;
1111.5000;0.2914;0.9769;
1111.8000;0.2906;0.9769;
1112.1000;0.2906;0.9720;
1112.4000;0.2914;0.9670;
1112.7000;0.2930;0.9720;
1113.0000;0.2922;0.9819;
1113.3000;0.2914;0.9894;
1113.6000;0.2906;0.9844;
1113.9000;0.2890;0.9819;
1114.2000;0.2914;0.9919;
1114.5000;0.2922;0.9919;
1114.8000;0.2906;0.9894;
1115.1000;0.2898;0.9944;
1115.4000;0.2898;0.9969;
1115.7000;0.2906;0.9944;
1116.0000;0.2922;1.0019;
1116.3000;0.2849;0.9769;
1116.6000;0.2906;0.9869;
1116.9000;0.2914;0.9819;
1117.2000;0.2922;0.9869;
1117.5000;0.2890;0.9794;
1117.8000;0.2906;0.9769;
1118.1000;0.2922;0.9769;
1118.4000;0.2906;0.9695;
1118.7000;0.2914;0.9695;
1119.0000;0.2906;0.9695;
1119.3000;0.2914;0.9744;
1119.6000;0.2930;0.9794;
1119.9000;0.2906;0.9670;
1120.2000;0.2890;0.9769;
1120.5000;0.2922;0.9794;
1120.8000;0.2914;0.9869;
1121.1000;0.2906;0.9919;
1121.4000;0.2906;0.9944;
1121.7000;0.3004;1.0168;
1122.0000;0.2914;0.9869;
1122.3000;0.2939;1.0019;
1122.6000;0.2906;0.9894;
1122.9000;0.2914;0.9844;
1123.2000;0.2922;0.9944;
1123.5000;0.2914;0.9869;
1123.8000;0.2914;0.9844;
1124.1000;0.2906;0.9894;
1124.4000;0.2930;0.9969;
1124.7000;0.2906;0.9944;
1125.0000;0.2914;0.9994;
1125.3000;0.2906;1.0019;
1125.6000;0.2930;1.0019;
1125.9000;0.2914;0.9969;
1126.2000;0.2922;0.9869;
1126.5000;0.2914;0.9894;
1126.8000;0.2922;0.9819;
1127.1000;0.2922;0.9819;
1127.4000;0.2930;0.9844;
1127.7000;0.2906;0.9844;
1128.0000;0.2930;0.9919;
1128.3000;0.2922;0.9969;
1128.6000;0.2906;0.9844;
1128.9000;0.2914;0.9819;
1129.2000;0.2914;0.9794;
1129.5000;0.2914;0.9769;
1129.8000;0.2906;0.9769;
1130.1000;0.2890;0.9720;
1130.4000;0.2898;0.9670;
1130.7000;0.2898;0.9595;
1131.0000;0.2914;0.9570;
1131.3000;0.2906;0.9545;
1131.6000;0.2882;0.9545;
1131.9000;0.2906;0.9620;
1132.2000;0.2906;0.9570;
1132.5000;0.2906;0.9570;
1132.8000;0.2906;0.9620;
1133.1000;0.2906;0.9645;
1133.4000;0.2898;0.9595;
1133.7000;0.2906;0.9695;
1134.0000;0.2914;0.9794;
1134.3000;0.2898;0.9819;
1134.6000;0.2914;0.9919;
1134.9000;0.2906;0.9894;
1135.2000;0.2898;0.9844;
1135.5000;0.2914;0.9769;
1135.8000;0.2906;0.9744;
1136.1000;0.2906;0.9794;
1136.4000;0.2816;0.9595;
1136.7000;0.2906;0.9919;
1137.0000;0.2906;0.9894;
1137.3000;0.2930;0.9944;
1137.6000;0.2857;0.9769;
1137.9000;0.2906;0.9844;
1138.2000;0.2914;0.9944;
1138.5000;0.2914;0.9969;
1138.8000;0.2922;0.9969;
1139.1000;0.2906;0.9794;
1139.4000;0.2914;0.9769;
1139.7000;0.2922;0.9769;
1140.0000;0.2890;0.9695;
1140.3000;0.2890;0.9720;
1140.6000;0.2906;0.9794;
1140.9000;0.2906;0.9794;
1141.2000;0.2914;0.9819;
1141.5000;0.2930;0.9894;
1141.8000;0.2890;0.9844;
1142.1000;0.2898;0.9720;
1142.4000;0.2914;0.9844;
1142.7000;0.2898;0.9819;
1143.0000;0.2898;0.9819;
1143.3000;0.2890;0.9869;
1143.6000;0.2873;0.9695;
1143.9000;0.2890;0.9695;
1144.2000;0.2816;0.9470;
1144.5000;0.2947;0.9769;
1144.8000;0.2914;0.9695;
1145.1000;0.2873;0.9620;
1145.4000;0.2890;0.9744;
1145.7000;0.2898;0.9819;
1146.0000;0.2914;0.9794;
1146.3000;0.2841;0.9670;
1146.6000;0.2882;0.9769;
1146.9000;0.2914;0.9894;
1147.2000;0.2914;0.9794;
1147.5000;0.2922;0.9794;
1147.8000;0.2914;0.9744;
1148.1000;0.2906;0.9769;
1148.4000;0.2914;0.9794;
1148.7000;0.2865;0.9744;
1149.0000;0.2898;0.9944;
1149.3000;0.2914;0.9994;
1149.6000;0.2914;0.9969;
1149.9000;0.2914;0.9919;
1150.2000;0.2914;0.9969;
1150.5000;0.2906;0.9844;
1150.8000;0.2898;0.9844;
1151.1000;0.2898;0.9769;
1151.4000;0.2898;0.9819;
1151.7000;0.2898;0.9695;
1152.0000;0.2898;0.9570;
1152.3000;0.2898;0.9570;
1152.6000;0.2914;0.9620;
1152.9000;0.2922;0.9695;
1153.2000;0.2914;0.9695;
1153.5000;0.2922;0.9794;
1153.8000;0.2914;0.9819;
1154.1000;0.2906;0.9769;
1154.4000;0.2914;0.9769;
1154.7000;0.2898;0.9744;
1155.0000;0.2906;0.9695;
1155.3000;0.2906;0.9645;
1155.6000;0.2906;0.9595;
1155.9000;0.2898;0.9620;
1156.2000;0.2906;0.9645;
1156.5000;0.2914;0.9620;
1156.8000;0.2890;0.9645;
1157.1000;0.2890;0.9720;
1157.4000;0.2906;0.9670;
1157.7000;0.2825;0.9470;
1158.0000;0.2906;0.9645;
1158.3000;0.2906;0.9570;
1158.6000;0.2906;0.9570;
1158.9000;0.2914;0.9670;
1159.2000;0.2930;0.9769;
1159.5000;0.2914;0.9670;
1159.8000;0.2906;0.9520;
1160.1000;0.2882;0.9495;
1160.4000;0.2914;0.9470;
1160.7000;0.2906;0.9495;
1161.0000;0.2898;0.9570;
1161.3000;0.2963;0.9720;
1161.6000;0.2914;0.9595;
1161.9000;0.2906;0.9695;
1162.2000;0.2882;0.9620;
1162.5000;0.2930;0.9744;
1162.8000;0.2882;0.9620;
1163.1000;0.2930;0.9744;
1163.4000;0.2906;0.9595;
1163.7000;0.2816;0.9420;
1164.0000;0.2898;0.9620;
1164.3000;0.2898;0.9695;
1164.6000;0.2890;0.9695;
1164.9000;0.2947;0.9844;
1165.2000;0.2930;0.9919;
1165.5000;0.2906;0.9794;
1165.8000;0.2890;0.9769;
1166.1000;0.2873;0.9720;
1166.4000;0.2914;0.9794;
1166.7000;0.2882;0.9720;
1167.0000;0.2906;0.9819;
1167.3000;0.2914;0.9819;
1167.6000;0.2865;0.9744;
1167.9000;0.2914;0.9769;
1168.2000;0.2922;0.9744;
1168.5000;0.2914;0.9769;
1168.8000;0.2979;0.9844;
1169.1000;0.2906;0.9695;
1169.4000;0.2914;0.9744;
1169.7000;0.2882;0.9720;
1170.0000;0.2922;0.9794;
1170.3000;0.2890;0.9720;
1170.6000;0.2914;0.9720;
1170.9000;0.2914;0.9744;
1171.2000;0.2930;0.9769;
1171.5000;0.2922;0.9844;
1171.8000;0.2922;0.9794;
1172.1000;0.2914;0.9894;
1172.4000;0.2841;0.9620;
1172.7000;0.2890;0.9645;
1173.0000;0.2898;0.9695;
1173.3000;0.2906;0.9695;
1173.6000;0.2914;0.9744;
1173.9000;0.2906;0.9744;
1174.2000;0.2914;0.9720;
1174.5000;0.2906;0.9670;
1174.8000;0.2906;0.9695;
1175.1000;0.2906;0.9670;
1175.4000;0.2906;0.9695;
1175.7000;0.2914;0.9720;
1176.0000;0.2898;0.9720;
1176.3000;0.2898;0.9744;
1176.6000;0.2922;0.9819;
1176.9000;0.2906;0.9819;
1177.2000;0.2906;0.9720;
1177.5000;0.2898;0.9695;
1177.8000;0.2914;0.9695;
1178.1000;0.2906;0.9720;
1178.4000;0.2939;0.9819;
1178.7000;0.2906;0.9720;
1179.0000;0.2906;0.9769;
1179.3000;0.2922;0.9819;
1179.6000;0.2914;0.9769;
1179.9000;0.2906;0.9645;
1180.2000;0.2914;0.9645;
1180.5000;0.2914;0.9720;
1180.8000;0.2898;0.9670;
1181.1000;0.2882;0.9645;
1181.4000;0.2833;0.9420;
1181.7000;0.2906;0.9595;
1182.0000;0.2898;0.9595;
1182.3000;0.2849;0.9470;
1182.6000;0.2890;0.9520;
1182.9000;0.2873;0.9420;
1183.2000;0.2922;0.9620;
1183.5000;0.2890;0.9520;
1183.8000;0.2898;0.9445;
1184.1000;0.2914;0.9371;
1184.4000;0.2906;0.9321;
1184.7000;0.2930;0.9321;
1185.0000;0.2890;0.9296;
1185.3000;0.2906;0.9296;
1185.6000;0.2898;0.9371;
1185.9000;0.2906;0.9396;
1186.2000;0.2922;0.9420;
1186.5000;0.2906;0.9445;
1186.8000;0.2906;0.9445;
1187.1000;0.2898;0.9520;
1187.4000;0.2906;0.9620;
1187.7000;0.2914;0.9595;
1188.0000;0.2914;0.9670;
1188.3000;0.2906;0.9645;
1188.6000;0.2898;0.9695;
1188.9000;0.2914;0.9720;
1189.2000;0.2987;0.9869;
1189.5000;0.2906;0.9645;
1189.8000;0.2922;0.9645;
1190.1000;0.2865;0.9495;
1190.4000;0.2922;0.9545;
1190.7000;0.2898;0.9545;
1191.0000;0.2906;0.9595;
1191.3000;0.2930;0.9670;
1191.6000;0.2922;0.9595;
1191.9000;0.2914;0.9595;
1192.2000;0.2882;0.9495;
1192.5000;0.2906;0.9570;
1192.8000;0.2930;0.9570;
1193.1000;0.2914;0.9445;
1193.4000;0.2898;0.9420;
1193.7000;0.2898;0.9396;
1194.0000;0.2906;0.9520;
1194.3000;0.2882;0.9470;
1194.6000;0.2898;0.9545;
1194.9000;0.2906;0.9620;
1195.2000;0.2898;0.9620;
1195.5000;0.2914;0.9720;
1195.8000;0.2906;0.9695;
1196.1000;0.2898;0.9595;
1196.4000;0.2906;0.9595;
1196.7000;0.2914;0.9620;
1197.0000;0.2914;0.9670;
1197.3000;0.2914;0.9744;
1197.6000;0.2906;0.9744;
1197.9000;0.2906;0.9695;
1198.2000;0.2906;0.9720;
1198.5000;0.2906;0.9670;
1198.8000;0.2898;0.9620;
1199.1000;0.2906;0.9695;
1199.4000;0.2914;0.9595;
1199.7000;0.2930;0.9595;
1200.0000;0.2906;0.9570;
1200.3000;0.2906;0.9620;
1200.6000;0.2914;0.9670;
1200.9000;0.2906;0.9769;
1201.2000;0.2898;0.9794;
1201.5000;0.2890;0.9720;
1201.8000;0.2906;0.9769;
1202.1000;0.2906;0.9769;
1202.4000;0.2906;0.9720;
1202.7000;0.2922;0.9744;
1203.0000;0.2898;0.9744;
1203.3000;0.2914;0.9744;
1203.6000;0.2906;0.9794;
1203.9000;0.2939;0.9919;
1204.2000;0.2914;0.9769;
1204.5000;0.2800;0.9470;
1204.8000;0.2914;0.9819;
1205.1000;0.2898;0.9794;
1205.4000;0.2939;0.9919;
1205.7000;0.2898;0.9819;
1206.0000;0.2898;0.9744;
1206.3000;0.2898;0.9744;
1206.6000;0.2914;0.9794;
1206.9000;0.2865;0.9695;
1207.2000;0.2873;0.9695;
1207.5000;0.2906;0.9819;
1207.8000;0.2979;1.0068;
1208.1000;0.2906;0.9844;
1208.4000;0.2898;0.9744;
1208.7000;0.2955;0.9819;
1209.0000;0.2914;0.9620;
1209.3000;0.2914;0.9495;
1209.6000;0.2914;0.9470;
1209.9000;0.2914;0.9520;
1210.2000;0.2898;0.9545;
1210.5000;0.2906;0.9595;
1210.8000;0.2922;0.9720;
1211.1000;0.2914;0.9695;
1211.4000;0.2906;0.9670;
1211.7000;0.2882;0.9670;
1212.0000;0.2906;0.9670;
1212.3000;0.2906;0.9620;
1212.6000;0.2914;0.9695;
1212.9000;0.2914;0.9670;
1213.2000;0.2947;0.9844;
1213.5000;0.2841;0.9645;
1213.8000;0.2914;0.9819;
1214.1000;0.2906;0.9819;
1214.4000;0.2906;0.9720;
1214.7000;0.2914;0.9720;
1215.0000;0.2906;0.9769;
1215.3000;0.2914;0.9794;
1215.6000;0.2882;0.9695;
1215.9000;0.2890;0.9769;
1216.2000;0.2882;0.9695;
1216.5000;0.2890;0.9695;
1216.8000;0.2906;0.9670;
1217.1000;0.2922;0.9794;
1217.4000;0.2906;0.9794;
1217.7000;0.2898;0.9794;
1218.0000;0.2898;0.9794;
1218.3000;0.2898;0.9869;
1218.6000;0.2914;0.9819;
1218.9000;0.2914;0.9794;
1219.2000;0.2930;0.9720;
1219.5000;0.2898;0.9794;
1219.8000;0.2922;0.9844;
1220.1000;0.2922;0.9794;
1220.4000;0.2898;0.9769;
1220.7000;0.2906;0.9645;
1221.0000;0.2939;0.9819;
1221.3000;0.2906;0.9769;
1221.6000;0.2898;0.9744;
1221.9000;0.2857;0.9670;
1222.2000;0.2898;0.9844;
1222.5000;0.2987;1.0044;
1222.8000;0.2914;0.9769;
1223.1000;0.2898;0.9744;
1223.4000;0.2914;0.9769;
1223.7000;0.2922;0.9720;
1224.0000;0.2906;0.9670;
1224.3000;0.2906;0.9645;
1224.6000;0.2914;0.9670;
1224.9000;0.2922;0.9720;
1225.2000;0.2906;0.9695;
1225.5000;0.2906;0.9670;
1225.8000;0.2890;0.9670;
1226.1000;0.2898;0.9720;
1226.4000;0.2914;0.9720;
1226.7000;0.2890;0.9595;
1227.0000;0.2898;0.9545;
1227.3000;0.2882;0.9445;
1227.6000;0.2898;0.9371;
1227.9000;0.2914;0.9420;
1228.2000;0.2914;0.9445;
1228.5000;0.2906;0.9470;
1228.8000;0.2930;0.9545;
1229.1000;0.2890;0.9520;
1229.4000;0.2882;0.9420;
1229.7000;0.2890;0.9495;
1230.0000;0.2914;0.9520;
1230.3000;0.2833;0.9371;
1230.6000;0.2898;0.9545;
1230.9000;0.2873;0.9420;
1231.2000;0.2898;0.9595;
1231.5000;0.2898;0.9645;
1231.8000;0.2898;0.9670;
1232.1000;0.2906;0.9819;
1232.4000;0.2873;0.9720;
1232.7000;0.2971;0.9994;
1233.0000;0.2873;0.9769;
1233.3000;0.2906;0.9794;
1233.6000;0.2906;0.9819;
1233.9000;0.2906;0.9695;
1234.2000;0.2898;0.9620;
1234.5000;0.2906;0.9595;
1234.8000;0.2914;0.9545;
1235.1000;0.2825;0.9371;
1235.4000;0.2873;0.9520;
1235.7000;0.2906;0.9570;
1236.0000;0.2890;0.9595;
1236.3000;0.2906;0.9595;
1236.6000;0.2898;0.9620;
1236.9000;0.2890;0.9595;
1237.2000;0.2922;0.9670;
1237.5000;0.2890;0.9545;
1237.8000;0.2890;0.9470;
1238.1000;0.2906;0.9445;
1238.4000;0.2947;0.9545;
1238.7000;0.2914;0.9495;
1239.0000;0.2906;0.9545;
1239.3000;0.2898;0.9545;
1239.6000;0.2914;0.9570;
1239.9000;0.2898;0.9595;
1240.2000;0.2816;0.9371;
1240.5000;0.2906;0.9645;
1240.8000;0.2890;0.9545;
1241.1000;0.2898;0.9545;
1241.4000;0.2906;0.9570;
1241.7000;0.2882;0.9545;
1242.0000;0.2898;0.9620;
1242.3000;0.2898;0.9545;
1242.6000;0.2898;0.9545;
1242.9000;0.2898;0.9595;
1243.2000;0.2906;0.9570;
1243.5000;0.2906;0.9620;
1243.8000;0.2914;0.9645;
1244.1000;0.2922;0.9769;
1244.4000;0.2849;0.9620;
1244.7000;0.2906;0.9819;
1245.0000;0.2906;0.9794;
1245.3000;0.2963;0.9919;
1245.6000;0.2906;0.9819;
1245.9000;0.2890;0.9794;
1246.2000;0.2898;0.9720;
1246.5000;0.2906;0.9794;
1246.8000;0.2898;0.9670;
1247.1000;0.2922;0.9769;
1247.4000;0.2898;0.9720;
1247.7000;0.2914;0.9844;
1248.0000;0.2906;0.9919;
1248.3000;0.2922;0.9844;
1248.6000;0.2906;0.9744;
1248.9000;0.2898;0.9744;
1249.2000;0.2906;0.9769;
1249.5000;0.2914;0.9744;
1249.8000;0.2930;0.9744;
1250.1000;0.2906;0.9744;
1250.4000;0.2906;0.9720;
1250.7000;0.2890;0.9620;
1251.0000;0.2898;0.9595;
1251.3000;0.2898;0.9670;
1251.6000;0.2906;0.9670;
1251.9000;0.2906;0.9570;
1252.2000;0.2890;0.9495;
1252.5000;0.2906;0.9520;
1252.8000;0.2914;0.9495;
1253.1000;0.2906;0.9470;
1253.4000;0.2906;0.9545;
1253.7000;0.2898;0.9545;
1254.0000;0.2922;0.9595;
1254.3000;0.2914;0.9645;
1254.6000;0.2914;0.9645;
1254.9000;0.2882;0.9570;
1255.2000;0.2906;0.9670;
1255.5000;0.2906;0.9670;
1255.8000;0.2906;0.9620;
1256.1000;0.2906;0.9620;
1256.4000;0.2906;0.9520;
1256.7000;0.2963;0.9695;
1257.0000;0.2906;0.9495;
1257.3000;0.2914;0.9495;
1257.6000;0.2914;0.9545;
1257.9000;0.2914;0.9520;
1258.2000;0.2906;0.9545;
1258.5000;0.2922;0.9570;
1258.8000;0.2906;0.9520;
1259.1000;0.2833;0.9346;
1259.4000;0.2979;0.9744;
1259.7000;0.2914;0.9470;
1260.0000;0.2914;0.9595;
1260.3000;0.2906;0.9545;
1260.6000;0.2922;0.9620;
1260.9000;0.2930;0.9620;
1261.2000;0.2922;0.9595;
1261.5000;0.2914;0.9545;
1261.8000;0.2930;0.9545;
1262.1000;0.2947;0.9695;
1262.4000;0.2906;0.9595;
1262.7000;0.2808;0.9346;
1263.0000;0.2914;0.9720;
1263.3000;0.2922;0.9695;
1263.6000;0.2906;0.9595;
1263.9000;0.2898;0.9595;
1264.2000;0.2922;0.9670;
1264.5000;0.2906;0.9720;
1264.8000;0.2873;0.9595;
1265.1000;0.2898;0.9645;
1265.4000;0.2914;0.9794;
1265.7000;0.2906;0.9744;
1266.0000;0.2898;0.9670;
1266.3000;0.2914;0.9645;
1266.6000;0.2906;0.9570;
1266.9000;0.2898;0.9570;
1267.2000;0.2906;0.9695;
1267.5000;0.2971;0.9869;
1267.8000;0.2906;0.9769;
1268.1000;0.2963;0.9894;
1268.4000;0.2939;0.9869;
1268.7000;0.2914;0.9819;
1269.0000;0.2857;0.9744;
1269.3000;0.2930;0.9944;
1269.6000;0.2922;0.9869;
1269.9000;0.2906;0.9794;
1270.2000;0.2914;0.9869;
1270.5000;0.2914;0.9919;
1270.8000;0.2914;0.9944;
1271.1000;0.2906;1.0019;
1271.4000;0.2898;0.9969;
1271.7000;0.2890;0.9819;
1272.0000;0.2906;0.9794;
1272.3000;0.2906;0.9794;
1272.6000;0.2890;0.9744;
1272.9000;0.2914;0.9844;
1273.2000;0.2906;0.9794;
1273.5000;0.2914;0.9819;
1273.8000;0.2906;0.9744;
1274.1000;0.2914;0.9720;
1274.4000;0.2922;0.9769;
1274.7000;0.2906;0.9769;
1275.0000;0.2922;0.9869;
1275.3000;0.2898;0.9794;
1275.6000;0.2898;0.9769;
1275.9000;0.2914;0.9869;
1276.2000;0.2882;0.9744;
1276.5000;0.2898;0.9769;
1276.8000;0.2914;0.9869;
1277.1000;0.2906;0.9869;
1277.4000;0.2841;0.9670;
1277.7000;0.2906;0.9844;
1278.0000;0.2914;0.9869;
1278.3000;0.2906;0.9844;
1278.6000;0.2914;0.9919;
1278.9000;0.2906;0.9894;
1279.2000;0.2906;0.9844;
1279.5000;0.2906;0.9819;
1279.8000;0.2914;0.9894;
1280.1000;0.2906;0.9844;
1280.4000;0.2914;0.9869;
1280.7000;0.2825;0.9670;
1281.0000;0.2898;0.9869;
1281.3000;0.2922;0.9919;
1281.6000;0.2882;0.9869;
1281.9000;0.2914;0.9994;
1282.2000;0.2922;1.0044;
1282.5000;0.2882;0.9869;
1282.8000;0.2914;0.9844;
1283.1000;0.2776;0.9470;
1283.4000;0.2906;0.9769;
1283.7000;0.2890;0.9645;
1284.0000;0.2930;0.9794;
1284.3000;0.2930;0.9819;
1284.6000;0.2898;0.9670;
1284.9000;0.2922;0.9769;
1285.2000;0.2898;0.9620;
1285.5000;0.2890;0.9670;
1285.8000;0.2857;0.9545;
1286.1000;0.2808;0.9296;
1286.4000;0.2906;0.9545;
1286.7000;0.2898;0.9695;
1287.0000;0.2906;0.9720;
1287.3000;0.2890;0.9769;
1287.6000;0.2898;0.9744;
1287.9000;0.2898;0.9744;
1288.2000;0.2882;0.9670;
1288.5000;0.2930;0.9720;
1288.8000;0.2873;0.9620;
1289.1000;0.2898;0.9645;
1289.4000;0.2882;0.9545;
1289.7000;0.2906;0.9645;
1290.0000;0.2914;0.9670;
1290.3000;0.2898;0.9670;
1290.6000;0.2922;0.9695;
1290.9000;0.2930;0.9769;
1291.2000;0.2922;0.9769;
1291.5000;0.2882;0.9670;
1291.8000;0.2906;0.9645;
1292.1000;0.2906;0.9695;
1292.4000;0.2922;0.9645;
1292.7000;0.2914;0.9570;
1293.0000;0.2906;0.9620;
1293.3000;0.2898;0.9645;
1293.6000;0.2914;0.9645;
1293.9000;0.2922;0.9670;
1294.2000;0.2898;0.9570;
1294.5000;0.2922;0.9744;
1294.8000;0.2906;0.9720;
1295.1000;0.2914;0.9794;
1295.4000;0.2906;0.9819;
1295.7000;0.2906;0.9744;
1296.0000;0.2857;0.9520;
1296.3000;0.2906;0.9645;
1296.6000;0.2922;0.9595;
1296.9000;0.2906;0.9620;
1297.2000;0.2898;0.9695;
1297.5000;0.2922;0.9769;
1297.8000;0.2963;0.9869;
1298.1000;0.2882;0.9720;
1298.4000;0.2906;0.9720;
1298.7000;0.2963;0.9969;
1299.0000;0.2890;0.9695;
1299.3000;0.2914;0.9645;
1299.6000;0.2930;0.9720;
1299.9000;0.3004;0.9994;
1300.2000;0.2930;0.9744;
1300.5000;0.2865;0.9520;
1300.8000;0.2930;0.9744;
1301.1000;0.2898;0.9595;
1301.4000;0.2906;0.9595;
1301.7000;0.2873;0.9520;
1302.0000;0.2930;0.9645;
1302.3000;0.2914;0.9645;
1302.6000;0.2906;0.9670;
1302.9000;0.2914;0.9769;
1303.2000;0.2955;0.9869;
1303.5000;0.2930;0.9794;
1303.8000;0.2922;0.9720;
1304.1000;0.2906;0.9769;
1304.4000;0.2906;0.9695;
1304.7000;0.2947;0.9844;
1305.0000;0.2906;0.9744;
1305.3000;0.2922;0.9794;
1305.6000;0.2914;0.9819;
1305.9000;0.2914;0.9794;
1306.2000;0.2922;0.9844;
1306.5000;0.2890;0.9769;
1306.8000;0.2873;0.9744;
1307.1000;0.2922;0.9869;
1307.4000;0.2906;0.9844;
1307.7000;0.2939;0.9944;
1308.0000;0.2906;0.9819;
1308.3000;0.2914;0.9869;
1308.6000;0.2914;0.9819;
1308.9000;0.2914;0.9794;
1309.2000;0.2849;0.9595;
1309.5000;0.2922;0.9720;
1309.8000;0.2914;0.9794;
1310.1000;0.2882;0.9645;
1310.4000;0.2963;0.9869;
1310.7000;0.2865;0.9645;
1311.0000;0.2898;0.9695;
1311.3000;0.2914;0.9794;
1311.6000;0.2914;0.9670;
1311.9000;0.2914;0.9720;
1312.2000;0.2914;0.9744;
1312.5000;0.2914;0.9769;
1312.8000;0.2906;0.9744;
1313.1000;0.2906;0.9744;
1313.4000;0.2906;0.9819;
1313.7000;0.2922;0.9944;
1314.0000;0.2914;0.9919;
1314.3000;0.2914;0.9894;
1314.6000;0.2898;0.9869;
1314.9000;0.2922;0.9819;
1315.2000;0.2922;0.9844;
1315.5000;0.2882;0.9720;
1315.8000;0.2906;0.9844;
1316.1000;0.2947;0.9869;
1316.4000;0.2987;0.9944;
1316.7000;0.2914;0.9819;
1317.0000;0.2906;0.9794;
1317.3000;0.2898;0.9794;
1317.6000;0.2906;0.9794;
1317.9000;0.2808;0.9520;
1318.2000;0.2914;0.9794;
1318.5000;0.2857;0.9570;
1318.8000;0.2922;0.9794;
1319.1000;0.2914;0.9869;
1319.4000;0.2906;0.9819;
1319.7000;0.2914;0.9844;
1320.0000;0.2922;0.9969;
1320.3000;0.2890;0.9919;
1320.6000;0.2922;0.9919;
1320.9000;0.2906;0.9819;
1321.2000;0.2914;0.9869;
1321.5000;0.2914;0.9819;
1321.8000;0.2914;0.9744;
1322.1000;0.2898;0.9769;
1322.4000;0.2996;1.0044;
1322.7000;0.2922;0.9819;
1323.0000;0.2914;0.9769;
1323.3000;0.2914;0.9720;
1323.6000;0.2930;0.9769;
1323.9000;0.2898;0.9720;
1324.2000;0.2906;0.9769;
1324.5000;0.2906;0.9844;
1324.8000;0.2914;0.9794;
1325.1000;0.2906;0.9794;
1325.4000;0.2930;0.9769;
1325.7000;0.2906;0.9769;
1326.0000;0.2898;0.9769;
1326.3000;0.2898;0.9720;
1326.6000;0.2922;0.9720;
1326.9000;0.2906;0.9720;
1327.2000;0.2898;0.9695;
1327.5000;0.2890;0.9720;
1327.8000;0.2898;0.9744;
1328.1000;0.2906;0.9670;
1328.4000;0.2914;0.9595;
1328.7000;0.2930;0.9670;
1329.0000;0.2865;0.9570;
1329.3000;0.2914;0.9695;
1329.6000;0.2898;0.9595;
1329.9000;0.2914;0.9595;
1330.2000;0.2898;0.9620;
1330.5000;0.2930;0.9695;
1330.8000;0.2890;0.9720;
1331.1000;0.2898;0.9794;
1331.4000;0.2890;0.9769;
1331.7000;0.2906;0.9794;
1332.0000;0.2906;0.9794;
1332.3000;0.2898;0.9844;
1332.6000;0.2898;0.9844;
1332.9000;0.2922;0.9869;
1333.2000;0.2947;0.9944;
1333.5000;0.2898;0.9794;
1333.8000;0.2906;0.9794;
1334.1000;0.2906;0.9919;
1334.4000;0.2906;0.9844;
1334.7000;0.2898;0.9769;
1335.0000;0.2898;0.9844;
1335.3000;0.2898;0.9769;
1335.6000;0.2898;0.9769;
1335.9000;0.2898;0.9744;
1336.2000;0.2906;0.9819;
1336.5000;0.2906;0.9844;
1336.8000;0.2906;0.9819;
1337.1000;0.2898;0.9744;
1337.4000;0.2914;0.9794;
1337.7000;0.2882;0.9794;
1338.0000;0.2914;0.9894;
1338.3000;0.2898;0.9794;
1338.6000;0.2922;0.9894;
1338.9000;0.2841;0.9570;
1339.2000;0.2930;0.9744;
1339.5000;0.2939;0.9695;
1339.8000;0.2906;0.9595;
1340.1000;0.2898;0.9645;
1340.4000;0.2930;0.9744;
1340.7000;0.2914;0.9695;
1341.0000;0.2971;0.9869;
1341.3000;0.2898;0.9744;
1341.6000;0.2849;0.9645;
1341.9000;0.2890;0.9844;
1342.2000;0.2898;0.9869;
1342.5000;0.2833;0.9570;
1342.8000;0.2898;0.9695;
1343.1000;0.2914;0.9695;
1343.4000;0.2865;0.9620;
1343.7000;0.2890;0.9645;
1344.0000;0.2914;0.9720;
1344.3000;0.2922;0.9744;
1344.6000;0.2914;0.9670;
1344.9000;0.2922;0.9670;
1345.2000;0.2914;0.9695;
1345.5000;0.2906;0.9670;
1345.8000;0.2914;0.9794;
1346.1000;0.2922;0.9744;
1346.4000;0.2890;0.9720;
1346.7000;0.2906;0.9769;
1347.0000;0.2898;0.9720;
1347.3000;0.2882;0.9645;
1347.6000;0.2898;0.9720;
1347.9000;0.2898;0.9670;
1348.2000;0.2914;0.9670;
1348.5000;0.2890;0.9670;
1348.8000;0.2890;0.9670;
1349.1000;0.2906;0.9670;
1349.4000;0.2930;0.9695;
1349.7000;0.2914;0.9670;
1350.0000;0.2906;0.9695;
1350.3000;0.2873;0.9645;
1350.6000;0.2906;0.9670;
1350.9000;0.2898;0.9670;
1351.2000;0.2898;0.9695;
1351.5000;0.2890;0.9670;
1351.8000;0.2906;0.9695;
1352.1000;0.2906;0.9720;
1352.4000;0.2914;0.9695;
1352.7000;0.2898;0.9620;
1353.0000;0.2906;0.9645;
1353.3000;0.2922;0.9769;
1353.6000;0.2914;0.9720;
1353.9000;0.2906;0.9695;
1354.2000;0.3020;1.0019;
1354.5000;0.2922;0.9720;
1354.8000;0.2906;0.9794;
1355.1000;0.2898;0.9819;
1355.4000;0.2890;0.9670;
1355.7000;0.2882;0.9720;
1356.0000;0.2906;0.9769;
1356.3000;0.2955;0.9819;
1356.6000;0.2882;0.9570;
1356.9000;0.2906;0.9595;
1357.2000;0.2914;0.9595;
1357.5000;0.2890;0.9570;
1357.8000;0.2906;0.9645;
1358.1000;0.2906;0.9645;
1358.4000;0.2963;0.9794;
1358.7000;0.2906;0.9620;
1359.0000;0.2914;0.9670;
1359.3000;0.2890;0.9645;
1359.6000;0.2930;0.9744;
1359.9000;0.2939;0.9670;
1360.2000;0.2922;0.9595;
1360.5000;0.2914;0.9570;
1360.8000;0.2914;0.9645;
1361.1000;0.2890;0.9670;
1361.4000;0.2914;0.9744;
1361.7000;0.2930;0.9819;
1362.0000;0.2922;0.9819;
1362.3000;0.2922;0.9844;
1362.6000;0.2906;0.9769;
1362.9000;0.2882;0.9670;
1363.2000;0.2906;0.9695;
1363.5000;0.2906;0.9769;
1363.8000;0.2914;0.9744;
1364.1000;0.2979;0.9894;
1364.4000;0.2882;0.9670;
1364.7000;0.2922;0.9769;
1365.0000;0.2906;0.9769;
1365.3000;0.2857;0.9645;
1365.6000;0.2898;0.9744;
1365.9000;0.2906;0.9794;
1366.2000;0.2882;0.9695;
1366.5000;0.2898;0.9670;
1366.8000;0.2898;0.9645;
1367.1000;0.2890;0.9695;
1367.4000;0.2914;0.9769;
1367.7000;0.2882;0.9744;
1368.0000;0.2898;0.9720;
1368.3000;0.2898;0.9794;
1368.6000;0.2906;0.9844;
1368.9000;0.2898;0.9894;
1369.2000;0.2890;0.9844;
1369.5000;0.2914;0.9844;
1369.8000;0.2873;0.9620;
1370.1000;0.2914;0.9794;
1370.4000;0.2906;0.9744;
1370.7000;0.2906;0.9769;
1371.0000;0.2914;0.9769;
1371.3000;0.2947;0.9869;
1371.6000;0.2898;0.9744;
1371.9000;0.2898;0.9794;
1372.2000;0.2890;0.9794;
1372.5000;0.2930;0.9869;
1372.8000;0.2898;0.9844;
1373.1000;0.2873;0.9844;
1373.4000;0.2898;0.9819;
1373.7000;0.2922;0.9794;
1374.0000;0.2914;0.9769;
1374.3000;0.2906;0.9794;
1374.6000;0.2906;0.9720;
1374.9000;0.2922;0.9695;
1375.2000;0.2914;0.9720;
1375.5000;0.2914;0.9744;
1375.8000;0.2914;0.9670;
1376.1000;0.2914;0.9720;
1376.4000;0.2914;0.9720;
1376.7000;0.2955;0.9844;
1377.0000;0.2906;0.9794;
1377.3000;0.2849;0.9645;
1377.6000;0.2922;0.9869;
1377.9000;0.2898;0.9844;
1378.2000;0.2914;0.9869;
1378.5000;0.2898;0.9819;
1378.8000;0.2857;0.9769;
1379.1000;0.2898;0.9844;
1379.4000;0.2914;0.9944;
1379.7000;0.2979;1.0093;
1380.0000;0.2906;0.9919;
1380.3000;0.2914;0.9844;
1380.6000;0.2890;0.9769;
1380.9000;0.2898;0.9819;
1381.2000;0.2906;0.9844;
1381.5000;0.2898;0.9794;
1381.8000;0.2922;0.9769;
1382.1000;0.2996;0.9919;
1382.4000;0.2898;0.9670;
1382.7000;0.2947;0.9670;
1383.0000;0.2890;0.9570;
1383.3000;0.2906;0.9520;
1383.6000;0.2906;0.9545;
1383.9000;0.2922;0.9520;
1384.2000;0.2914;0.9595;
1384.5000;0.2922;0.9545;
1384.8000;0.2906;0.9520;
1385.1000;0.2914;0.9570;
1385.4000;0.2922;0.9520;
1385.7000;0.2898;0.9495;
1386.0000;0.2898;0.9495;
1386.3000;0.2890;0.9396;
1386.6000;0.2914;0.9495;
1386.9000;0.2890;0.9495;
1387.2000;0.2890;0.9495;
1387.5000;0.2890;0.9495;
1387.8000;0.2890;0.9445;
1388.1000;0.2922;0.9520;
1388.4000;0.2898;0.9520;
1388.7000;0.2882;0.9470;
1389.0000;0.2906;0.9545;
1389.3000;0.2906;0.9470;
1389.6000;0.2914;0.9470;
1389.9000;0.2906;0.9495;
1390.2000;0.2922;0.9595;
1390.5000;0.2906;0.9570;
1390.8000;0.2890;0.9495;
1391.1000;0.2898;0.9545;
1391.4000;0.2906;0.9570;
1391.7000;0.2882;0.9495;
1392.0000;0.2906;0.9545;
1392.3000;0.2898;0.9520;
1392.6000;0.2914;0.9595;
1392.9000;0.2898;0.9545;
1393.2000;0.2882;0.9595;
1393.5000;0.2906;0.9620;
1393.8000;0.2922;0.9645;
1394.1000;0.2930;0.9695;
1394.4000;0.2922;0.9670;
1394.7000;0.2922;0.9720;
1395.0000;0.2882;0.9620;
1395.3000;0.2955;0.9794;
1395.6000;0.2906;0.9645;
1395.9000;0.2898;0.9670;
1396.2000;0.2906;0.9695;
1396.5000;0.2898;0.9645;
1396.8000;0.2898;0.9570;
1397.1000;0.2898;0.9445;
1397.4000;0.2906;0.9420;
1397.7000;0.2882;0.9296;
1398.0000;0.2947;0.9495;
1398.3000;0.2979;0.9620;
1398.6000;0.2890;0.9396;
1398.9000;0.2890;0.9470;
1399.2000;0.2890;0.9520;
1399.5000;0.2906;0.9520;
1399.8000;0.2898;0.9520;
