time/ms;Fluo/V;P700 deltaI/I x10³;
-199.8000;0.2922;0.8648;
-199.5000;0.2939;0.8673;
-199.2000;0.2930;0.8648;
-198.9000;0.2930;0.8573;
-198.6000;0.2930;0.8548;
-198.3000;0.2939;0.8548;
-198.0000;0.2841;0.8249;
-197.7000;0.2939;0.8523;
-197.4000;0.2939;0.8449;
-197.1000;0.2947;0.8523;
-196.8000;0.2947;0.8598;
-196.5000;0.2939;0.8523;
-196.2000;0.2922;0.8523;
-195.9000;0.2939;0.8598;
-195.6000;0.2939;0.8673;
-195.3000;0.2939;0.8673;
-195.0000;0.2833;0.8374;
-194.7000;0.2947;0.8748;
-194.4000;0.2947;0.8797;
-194.1000;0.2947;0.8773;
-193.8000;0.2939;0.8723;
-193.5000;0.2947;0.8673;
-193.2000;0.2955;0.8623;
-192.9000;0.2955;0.8648;
-192.6000;0.2939;0.8673;
-192.3000;0.2947;0.8698;
-192.0000;0.2963;0.8723;
-191.7000;0.2955;0.8698;
-191.4000;0.2930;0.8623;
-191.1000;0.2947;0.8623;
-190.8000;0.2955;0.8748;
-190.5000;0.2914;0.8748;
-190.2000;0.2914;0.8723;
-189.9000;0.2939;0.8797;
-189.6000;0.2930;0.8748;
-189.3000;0.2955;0.8748;
-189.0000;0.2922;0.8723;
-188.7000;0.2930;0.8698;
-188.4000;0.2947;0.8723;
-188.1000;0.2947;0.8673;
-187.8000;0.2947;0.8673;
-187.5000;0.2947;0.8698;
-187.2000;0.2947;0.8773;
-186.9000;0.2914;0.8773;
-186.6000;0.2963;0.8872;
-186.3000;0.2947;0.8797;
-186.0000;0.2947;0.8797;
-185.7000;0.2939;0.8897;
-185.4000;0.2947;0.8797;
-185.1000;0.2947;0.8748;
-184.8000;0.2939;0.8698;
-184.5000;0.2939;0.8698;
-184.2000;0.2922;0.8573;
-183.9000;0.2930;0.8648;
-183.6000;0.2939;0.8648;
-183.3000;0.2930;0.8748;
-183.0000;0.2930;0.8822;
-182.7000;0.2939;0.8797;
-182.4000;0.2947;0.8723;
-182.1000;0.2947;0.8698;
-181.8000;0.2955;0.8723;
-181.5000;0.2955;0.8623;
-181.2000;0.2939;0.8523;
-180.9000;0.2939;0.8523;
-180.6000;0.2930;0.8498;
-180.3000;0.2930;0.8548;
-180.0000;0.2947;0.8523;
-179.7000;0.2947;0.8573;
-179.4000;0.2947;0.8548;
-179.1000;0.2947;0.8573;
-178.8000;0.2930;0.8598;
-178.5000;0.2939;0.8623;
-178.2000;0.2963;0.8723;
-177.9000;0.2947;0.8648;
-177.6000;0.2971;0.8748;
-177.3000;0.2947;0.8698;
-177.0000;0.2939;0.8673;
-176.7000;0.2947;0.8723;
-176.4000;0.2939;0.8648;
-176.1000;0.2939;0.8623;
-175.8000;0.2922;0.8598;
-175.5000;0.2947;0.8623;
-175.2000;0.2947;0.8648;
-174.9000;0.2914;0.8573;
-174.6000;0.2939;0.8648;
-174.3000;0.2841;0.8473;
-174.0000;0.2939;0.8623;
-173.7000;0.2930;0.8573;
-173.4000;0.2922;0.8548;
-173.1000;0.2939;0.8548;
-172.8000;0.2947;0.8548;
-172.5000;0.2971;0.8698;
-172.2000;0.2939;0.8573;
-171.9000;0.2955;0.8673;
-171.6000;0.2947;0.8723;
-171.3000;0.2914;0.8598;
-171.0000;0.2914;0.8623;
-170.7000;0.2955;0.8748;
-170.4000;0.2955;0.8822;
-170.1000;0.2947;0.8822;
-169.8000;0.2930;0.8723;
-169.5000;0.2930;0.8748;
-169.2000;0.2955;0.8847;
-168.9000;0.2955;0.8773;
-168.6000;0.2922;0.8623;
-168.3000;0.2922;0.8623;
-168.0000;0.2955;0.8773;
-167.7000;0.2930;0.8797;
-167.4000;0.2930;0.8723;
-167.1000;0.2939;0.8673;
-166.8000;0.2939;0.8698;
-166.5000;0.2841;0.8374;
-166.2000;0.2971;0.8723;
-165.9000;0.2939;0.8673;
-165.6000;0.2947;0.8748;
-165.3000;0.2930;0.8698;
-165.0000;0.2939;0.8648;
-164.7000;0.2955;0.8723;
-164.4000;0.2922;0.8698;
-164.1000;0.2947;0.8773;
-163.8000;0.2971;0.8847;
-163.5000;0.2963;0.8773;
-163.2000;0.2922;0.8698;
-162.9000;0.2939;0.8773;
-162.6000;0.2922;0.8698;
-162.3000;0.2947;0.8773;
-162.0000;0.2939;0.8797;
-161.7000;0.2947;0.8822;
-161.4000;0.2947;0.8773;
-161.1000;0.2939;0.8748;
-160.8000;0.2939;0.8748;
-160.5000;0.2955;0.8822;
-160.2000;0.2947;0.8797;
-159.9000;0.2947;0.8797;
-159.6000;0.2939;0.8773;
-159.3000;0.2947;0.8847;
-159.0000;0.2939;0.8922;
-158.7000;0.2841;0.8573;
-158.4000;0.2930;0.8797;
-158.1000;0.2939;0.8723;
-157.8000;0.2939;0.8673;
-157.5000;0.2947;0.8648;
-157.2000;0.2947;0.8698;
-156.9000;0.2939;0.8698;
-156.6000;0.2947;0.8748;
-156.3000;0.2939;0.8748;
-156.0000;0.2939;0.8748;
-155.7000;0.2939;0.8698;
-155.4000;0.2939;0.8648;
-155.1000;0.2939;0.8673;
-154.8000;0.2939;0.8573;
-154.5000;0.2939;0.8573;
-154.2000;0.2930;0.8598;
-153.9000;0.2939;0.8623;
-153.6000;0.2947;0.8573;
-153.3000;0.2939;0.8648;
-153.0000;0.2930;0.8673;
-152.7000;0.2955;0.8773;
-152.4000;0.2906;0.8648;
-152.1000;0.2947;0.8698;
-151.8000;0.2939;0.8623;
-151.5000;0.3004;0.8797;
-151.2000;0.2963;0.8723;
-150.9000;0.2930;0.8673;
-150.6000;0.2939;0.8723;
-150.3000;0.2996;0.8922;
-150.0000;0.2939;0.8698;
-149.7000;0.2914;0.8698;
-149.4000;0.2930;0.8748;
-149.1000;0.2939;0.8723;
-148.8000;0.2963;0.8822;
-148.5000;0.2939;0.8773;
-148.2000;0.2939;0.8748;
-147.9000;0.2930;0.8797;
-147.6000;0.2930;0.8748;
-147.3000;0.2955;0.8797;
-147.0000;0.2939;0.8797;
-146.7000;0.2947;0.8822;
-146.4000;0.2947;0.8847;
-146.1000;0.2947;0.8897;
-145.8000;0.2930;0.8847;
-145.5000;0.2865;0.8573;
-145.2000;0.2955;0.8723;
-144.9000;0.2930;0.8698;
-144.6000;0.2987;0.8822;
-144.3000;0.2939;0.8623;
-144.0000;0.2922;0.8748;
-143.7000;0.2947;0.8773;
-143.4000;0.2955;0.8847;
-143.1000;0.2930;0.8748;
-142.8000;0.2922;0.8773;
-142.5000;0.2939;0.8822;
-142.2000;0.2947;0.8847;
-141.9000;0.2930;0.8847;
-141.6000;0.2947;0.8947;
-141.3000;0.2963;0.8922;
-141.0000;0.2955;0.8897;
-140.7000;0.2955;0.8847;
-140.4000;0.2930;0.8822;
-140.1000;0.2939;0.8822;
-139.8000;0.2996;0.8972;
-139.5000;0.2930;0.8797;
-139.2000;0.2914;0.8748;
-138.9000;0.2996;0.8922;
-138.6000;0.2930;0.8797;
-138.3000;0.2947;0.8773;
-138.0000;0.2947;0.8723;
-137.7000;0.2873;0.8623;
-137.4000;0.2963;0.8797;
-137.1000;0.2841;0.8449;
-136.8000;0.2939;0.8773;
-136.5000;0.2849;0.8424;
-136.2000;0.2963;0.8723;
-135.9000;0.2890;0.8673;
-135.6000;0.2939;0.8897;
-135.3000;0.2939;0.8847;
-135.0000;0.2939;0.8797;
-134.7000;0.2930;0.8847;
-134.4000;0.2939;0.8897;
-134.1000;0.2865;0.8822;
-133.8000;0.2906;0.8947;
-133.5000;0.2939;0.8972;
-133.2000;0.2955;0.8972;
-132.9000;0.2939;0.8972;
-132.6000;0.2947;0.9121;
-132.3000;0.2939;0.9097;
-132.0000;0.2939;0.9072;
-131.7000;0.2939;0.8972;
-131.4000;0.2865;0.8773;
-131.1000;0.2963;0.8997;
-130.8000;0.2939;0.8997;
-130.5000;0.2930;0.8947;
-130.2000;0.2939;0.9072;
-129.9000;0.2930;0.8997;
-129.6000;0.2930;0.8872;
-129.3000;0.2873;0.8773;
-129.0000;0.2930;0.8872;
-128.7000;0.2922;0.8897;
-128.4000;0.2939;0.8847;
-128.1000;0.2922;0.8748;
-127.8000;0.2922;0.8698;
-127.5000;0.2930;0.8748;
-127.2000;0.2930;0.8797;
-126.9000;0.2930;0.8847;
-126.6000;0.2922;0.8797;
-126.3000;0.2939;0.8797;
-126.0000;0.2947;0.8773;
-125.7000;0.2955;0.8797;
-125.4000;0.2955;0.8822;
-125.1000;0.2930;0.8797;
-124.8000;0.2930;0.8872;
-124.5000;0.2930;0.8897;
-124.2000;0.2930;0.8822;
-123.9000;0.2947;0.8872;
-123.6000;0.2947;0.8947;
-123.3000;0.2947;0.9022;
-123.0000;0.2947;0.8922;
-122.7000;0.2939;0.8797;
-122.4000;0.2930;0.8748;
-122.1000;0.2955;0.8872;
-121.8000;0.2939;0.8773;
-121.5000;0.2922;0.8773;
-121.2000;0.2922;0.8723;
-120.9000;0.2939;0.8847;
-120.6000;0.2947;0.8897;
-120.3000;0.2922;0.8947;
-120.0000;0.2930;0.9022;
-119.7000;0.2922;0.8997;
-119.4000;0.2914;0.8897;
-119.1000;0.2922;0.8872;
-118.8000;0.2898;0.8797;
-118.5000;0.2922;0.8797;
-118.2000;0.2996;0.8972;
-117.9000;0.2939;0.8797;
-117.6000;0.2947;0.8822;
-117.3000;0.2939;0.8847;
-117.0000;0.2922;0.8723;
-116.7000;0.2930;0.8748;
-116.4000;0.2987;0.8972;
-116.1000;0.2865;0.8573;
-115.8000;0.2971;0.8872;
-115.5000;0.2939;0.8847;
-115.2000;0.2955;0.8922;
-114.9000;0.2939;0.8773;
-114.6000;0.2947;0.8797;
-114.3000;0.2922;0.8723;
-114.0000;0.2947;0.8847;
-113.7000;0.2890;0.8698;
-113.4000;0.2947;0.8847;
-113.1000;0.3012;0.9047;
-112.8000;0.2922;0.8748;
-112.5000;0.2939;0.8723;
-112.2000;0.2930;0.8673;
-111.9000;0.2947;0.8673;
-111.6000;0.2914;0.8573;
-111.3000;0.2939;0.8598;
-111.0000;0.2914;0.8548;
-110.7000;0.2906;0.8573;
-110.4000;0.2922;0.8623;
-110.1000;0.2930;0.8623;
-109.8000;0.2914;0.8573;
-109.5000;0.2947;0.8723;
-109.2000;0.2922;0.8723;
-108.9000;0.2914;0.8698;
-108.6000;0.2930;0.8623;
-108.3000;0.2930;0.8623;
-108.0000;0.2939;0.8673;
-107.7000;0.2914;0.8648;
-107.4000;0.2930;0.8648;
-107.1000;0.2914;0.8723;
-106.8000;0.2947;0.8773;
-106.5000;0.2939;0.8748;
-106.2000;0.2922;0.8698;
-105.9000;0.2939;0.8673;
-105.6000;0.2930;0.8698;
-105.3000;0.2955;0.8673;
-105.0000;0.2922;0.8498;
-104.7000;0.2914;0.8473;
-104.4000;0.2939;0.8623;
-104.1000;0.2939;0.8673;
-103.8000;0.2930;0.8723;
-103.5000;0.2939;0.8698;
-103.2000;0.2955;0.8698;
-102.9000;0.2963;0.8797;
-102.6000;0.2922;0.8748;
-102.3000;0.2947;0.8822;
-102.0000;0.2947;0.8847;
-101.7000;0.2898;0.8723;
-101.4000;0.2955;0.8822;
-101.1000;0.2955;0.8773;
-100.8000;0.2922;0.8748;
-100.5000;0.2914;0.8822;
-100.2000;0.2922;0.8897;
-99.9000;0.2914;0.8872;
-99.6000;0.2947;0.8972;
-99.3000;0.2914;0.8872;
-99.0000;0.2922;0.8847;
-98.7000;0.2898;0.8797;
-98.4000;0.2947;0.8822;
-98.1000;0.2939;0.8773;
-97.8000;0.2939;0.8797;
-97.5000;0.2947;0.8698;
-97.2000;0.2963;0.8723;
-96.9000;0.2947;0.8673;
-96.6000;0.2930;0.8598;
-96.3000;0.2930;0.8598;
-96.0000;0.2939;0.8648;
-95.7000;0.2947;0.8773;
-95.4000;0.2930;0.8723;
-95.1000;0.2939;0.8773;
-94.8000;0.2939;0.8773;
-94.5000;0.2939;0.8698;
-94.2000;0.2906;0.8648;
-93.9000;0.2906;0.8673;
-93.6000;0.2930;0.8748;
-93.3000;0.2914;0.8773;
-93.0000;0.2939;0.8847;
-92.7000;0.2890;0.8773;
-92.4000;0.2939;0.9022;
-92.1000;0.2947;0.8922;
-91.8000;0.2963;0.8947;
-91.5000;0.2947;0.8947;
-91.2000;0.2857;0.8723;
-90.9000;0.2939;0.8897;
-90.6000;0.2939;0.8872;
-90.3000;0.2922;0.8872;
-90.0000;0.2922;0.8897;
-89.7000;0.2947;0.8947;
-89.4000;0.2906;0.8773;
-89.1000;0.2922;0.8797;
-88.8000;0.2987;0.8922;
-88.5000;0.2922;0.8748;
-88.2000;0.2939;0.8723;
-87.9000;0.2930;0.8723;
-87.6000;0.2939;0.8748;
-87.3000;0.2930;0.8797;
-87.0000;0.2939;0.8847;
-86.7000;0.2979;0.8922;
-86.4000;0.2939;0.8847;
-86.1000;0.2955;0.8872;
-85.8000;0.2922;0.8797;
-85.5000;0.2939;0.8897;
-85.2000;0.2930;0.8897;
-84.9000;0.2930;0.8897;
-84.6000;0.2914;0.8847;
-84.3000;0.2914;0.8872;
-84.0000;0.2939;0.8822;
-83.7000;0.2930;0.8822;
-83.4000;0.2890;0.8673;
-83.1000;0.2930;0.8797;
-82.8000;0.2930;0.8822;
-82.5000;0.2930;0.8847;
-82.2000;0.2939;0.8922;
-81.9000;0.2955;0.8997;
-81.6000;0.2947;0.8897;
-81.3000;0.2955;0.8872;
-81.0000;0.2939;0.8822;
-80.7000;0.2939;0.8773;
-80.4000;0.2939;0.8797;
-80.1000;0.2947;0.8822;
-79.8000;0.2939;0.8822;
-79.5000;0.2930;0.8822;
-79.2000;0.2955;0.8847;
-78.9000;0.2939;0.8847;
-78.6000;0.2947;0.8872;
-78.3000;0.2939;0.8698;
-78.0000;0.2833;0.8473;
-77.7000;0.2947;0.8797;
-77.4000;0.2939;0.8773;
-77.1000;0.2930;0.8897;
-76.8000;0.2955;0.8947;
-76.5000;0.2939;0.8922;
-76.2000;0.2930;0.8922;
-75.9000;0.2947;0.9022;
-75.6000;0.2922;0.8922;
-75.3000;0.2930;0.8947;
-75.0000;0.2930;0.8897;
-74.7000;0.2947;0.8847;
-74.4000;0.2922;0.8773;
-74.1000;0.2914;0.8822;
-73.8000;0.2939;0.8972;
-73.5000;0.2939;0.9022;
-73.2000;0.2898;0.8872;
-72.9000;0.2898;0.8822;
-72.6000;0.2930;0.8947;
-72.3000;0.2914;0.8847;
-72.0000;0.2947;0.8897;
-71.7000;0.2979;0.9022;
-71.4000;0.2939;0.8997;
-71.1000;0.2955;0.8972;
-70.8000;0.2882;0.8797;
-70.5000;0.2930;0.8922;
-70.2000;0.2947;0.8847;
-69.9000;0.2955;0.8922;
-69.6000;0.2939;0.8922;
-69.3000;0.2930;0.8822;
-69.0000;0.2930;0.8748;
-68.7000;0.2955;0.8748;
-68.4000;0.2996;0.8872;
-68.1000;0.2939;0.8698;
-67.8000;0.2922;0.8673;
-67.5000;0.2955;0.8748;
-67.2000;0.2939;0.8723;
-66.9000;0.2947;0.8673;
-66.6000;0.2914;0.8648;
-66.3000;0.2939;0.8698;
-66.0000;0.2939;0.8748;
-65.7000;0.2987;0.8922;
-65.4000;0.2922;0.8673;
-65.1000;0.2939;0.8648;
-64.8000;0.2939;0.8623;
-64.5000;0.2947;0.8648;
-64.2000;0.2914;0.8598;
-63.9000;0.2939;0.8623;
-63.6000;0.2922;0.8698;
-63.3000;0.2939;0.8673;
-63.0000;0.2955;0.8698;
-62.7000;0.2930;0.8673;
-62.4000;0.2955;0.8673;
-62.1000;0.2939;0.8673;
-61.8000;0.2955;0.8623;
-61.5000;0.2930;0.8548;
-61.2000;0.2947;0.8449;
-60.9000;0.2906;0.8399;
-60.6000;0.2939;0.8349;
-60.3000;0.2922;0.8249;
-60.0000;0.2939;0.8274;
-59.7000;0.2947;0.8349;
-59.4000;0.3012;0.8523;
-59.1000;0.2914;0.8324;
-58.8000;0.2922;0.8349;
-58.5000;0.2987;0.8523;
-58.2000;0.2947;0.8473;
-57.9000;0.2963;0.8573;
-57.6000;0.2930;0.8449;
-57.3000;0.2939;0.8498;
-57.0000;0.2930;0.8523;
-56.7000;0.2930;0.8473;
-56.4000;0.2930;0.8449;
-56.1000;0.2939;0.8473;
-55.8000;0.2947;0.8523;
-55.5000;0.2939;0.8523;
-55.2000;0.2939;0.8399;
-54.9000;0.2939;0.8473;
-54.6000;0.2930;0.8399;
-54.3000;0.2930;0.8349;
-54.0000;0.2930;0.8374;
-53.7000;0.2939;0.8424;
-53.4000;0.2922;0.8449;
-53.1000;0.2930;0.8548;
-52.8000;0.2922;0.8523;
-52.5000;0.2971;0.8673;
-52.2000;0.2939;0.8573;
-51.9000;0.2947;0.8548;
-51.6000;0.2947;0.8573;
-51.3000;0.2930;0.8523;
-51.0000;0.2955;0.8598;
-50.7000;0.2939;0.8598;
-50.4000;0.2939;0.8623;
-50.1000;0.2939;0.8673;
-49.8000;0.2947;0.8648;
-49.5000;0.2947;0.8598;
-49.2000;0.3020;0.8797;
-48.9000;0.2922;0.8598;
-48.6000;0.2939;0.8698;
-48.3000;0.2939;0.8673;
-48.0000;0.2939;0.8673;
-47.7000;0.2939;0.8648;
-47.4000;0.2922;0.8623;
-47.1000;0.2939;0.8573;
-46.8000;0.2939;0.8648;
-46.5000;0.2939;0.8773;
-46.2000;0.2955;0.8723;
-45.9000;0.2947;0.8748;
-45.6000;0.2939;0.8723;
-45.3000;0.2939;0.8698;
-45.0000;0.2930;0.8698;
-44.7000;0.2939;0.8648;
-44.4000;0.2979;0.8723;
-44.1000;0.2922;0.8648;
-43.8000;0.2922;0.8673;
-43.5000;0.2930;0.8698;
-43.2000;0.2914;0.8648;
-42.9000;0.2947;0.8748;
-42.6000;0.2930;0.8723;
-42.3000;0.2955;0.8748;
-42.0000;0.2939;0.8698;
-41.7000;0.2947;0.8723;
-41.4000;0.2930;0.8723;
-41.1000;0.2930;0.8748;
-40.8000;0.2930;0.8773;
-40.5000;0.2947;0.8947;
-40.2000;0.2955;0.8947;
-39.9000;0.2947;0.8922;
-39.6000;0.2939;0.8972;
-39.3000;0.2955;0.9121;
-39.0000;0.2939;0.9097;
-38.7000;0.2939;0.9097;
-38.4000;0.2922;0.8997;
-38.1000;0.2939;0.8997;
-37.8000;0.2947;0.9121;
-37.5000;0.2939;0.8997;
-37.2000;0.2922;0.8972;
-36.9000;0.2930;0.8947;
-36.6000;0.2922;0.8922;
-36.3000;0.2833;0.8573;
-36.0000;0.2947;0.8822;
-35.7000;0.2947;0.8922;
-35.4000;0.2930;0.8872;
-35.1000;0.2930;0.8847;
-34.8000;0.2922;0.8872;
-34.5000;0.2939;0.8897;
-34.2000;0.2955;0.8897;
-33.9000;0.2939;0.8897;
-33.6000;0.2930;0.8922;
-33.3000;0.2947;0.8872;
-33.0000;0.2947;0.8847;
-32.7000;0.2939;0.8897;
-32.4000;0.2939;0.8922;
-32.1000;0.2930;0.8922;
-31.8000;0.2930;0.8947;
-31.5000;0.2987;0.9047;
-31.2000;0.2939;0.8897;
-30.9000;0.2939;0.8922;
-30.6000;0.2947;0.8847;
-30.3000;0.2922;0.8797;
-30.0000;0.2939;0.8773;
-29.7000;0.2939;0.8822;
-29.4000;0.2947;0.8797;
-29.1000;0.2930;0.8698;
-28.8000;0.2939;0.8698;
-28.5000;0.2939;0.8723;
-28.2000;0.2873;0.8598;
-27.9000;0.2947;0.8797;
-27.6000;0.2939;0.8773;
-27.3000;0.3020;0.8947;
-27.0000;0.3036;0.9097;
-26.7000;0.2947;0.8922;
-26.4000;0.2939;0.8972;
-26.1000;0.2955;0.8997;
-25.8000;0.2939;0.8947;
-25.5000;0.2947;0.8947;
-25.2000;0.2930;0.8872;
-24.9000;0.2947;0.8897;
-24.6000;0.2930;0.8897;
-24.3000;0.2930;0.8972;
-24.0000;0.2955;0.8947;
-23.7000;0.2955;0.8947;
-23.4000;0.2939;0.9047;
-23.1000;0.2939;0.8947;
-22.8000;0.2930;0.8922;
-22.5000;0.2939;0.8922;
-22.2000;0.2939;0.8922;
-21.9000;0.2922;0.8822;
-21.6000;0.3077;0.9221;
-21.3000;0.2939;0.8872;
-21.0000;0.2939;0.8773;
-20.7000;0.2882;0.8648;
-20.4000;0.2930;0.8723;
-20.1000;0.2987;0.8797;
-19.8000;0.2955;0.8698;
-19.5000;0.2930;0.8648;
-19.2000;0.2906;0.8623;
-18.9000;0.2922;0.8623;
-18.6000;0.2914;0.8648;
-18.3000;0.2955;0.8773;
-18.0000;0.2963;0.8723;
-17.7000;0.2947;0.8598;
-17.4000;0.2939;0.8573;
-17.1000;0.2930;0.8598;
-16.8000;0.2955;0.8673;
-16.5000;0.2947;0.8723;
-16.2000;0.2930;0.8748;
-15.9000;0.2947;0.8748;
-15.6000;0.2955;0.8822;
-15.3000;0.2930;0.8723;
-15.0000;0.2947;0.8748;
-14.7000;0.2947;0.8748;
-14.4000;0.2947;0.8748;
-14.1000;0.2939;0.8748;
-13.8000;0.2922;0.8773;
-13.5000;0.2939;0.8797;
-13.2000;0.2930;0.8748;
-12.9000;0.2947;0.8797;
-12.6000;0.2947;0.8797;
-12.3000;0.2930;0.8872;
-12.0000;0.2939;0.8897;
-11.7000;0.2955;0.8897;
-11.4000;0.2939;0.8897;
-11.1000;0.2947;0.8872;
-10.8000;0.2939;0.8748;
-10.5000;0.2947;0.8673;
-10.2000;0.2947;0.8673;
-9.9000;0.2947;0.8748;
-9.6000;0.2922;0.8797;
-9.3000;0.2939;0.8797;
-9.0000;0.2939;0.8773;
-8.7000;0.2947;0.8748;
-8.4000;0.2914;0.8648;
-8.1000;0.2930;0.8573;
-7.8000;0.2922;0.8498;
-7.5000;0.2930;0.8548;
-7.2000;0.2922;0.8573;
-6.9000;0.2873;0.8498;
-6.6000;0.2922;0.8623;
-6.3000;0.2955;0.8673;
-6.0000;0.2930;0.8673;
-5.7000;0.2947;0.8673;
-5.4000;0.2849;0.8424;
-5.1000;0.2930;0.8723;
-4.8000;0.2963;0.8773;
-4.5000;0.3053;0.8997;
-4.2000;0.2939;0.8623;
-3.9000;0.2939;0.8673;
-3.6000;0.2947;0.8698;
-3.3000;0.2955;0.8698;
-3.0000;0.2939;0.8623;
-2.7000;0.2939;0.8648;
-2.4000;0.2963;0.8648;
-2.1000;0.2939;0.8498;
-1.8000;0.2955;0.8473;
-1.5000;0.2939;0.8498;
-1.2000;0.2955;0.8573;
-0.9000;0.2914;0.8573;
-0.6000;0.2898;0.8473;
-0.3000;0.2833;0.8299;
0.0000;0.2833;0.8299;
0.3000;0.3085;0.8449;
0.6000;0.3272;0.8947;
0.9000;0.3443;0.9570;
1.2000;0.3573;1.0193;
1.5000;0.3687;1.0716;
1.8000;0.3720;1.1015;
2.1000;0.3777;1.1339;
2.4000;0.3785;1.1514;
2.7000;0.3834;1.1788;
3.0000;0.3907;1.2137;
3.3000;0.3875;1.2187;
3.6000;0.3956;1.2461;
3.9000;0.3989;1.2610;
4.2000;0.4037;1.2760;
4.5000;0.3989;1.2735;
4.8000;0.3972;1.2685;
5.1000;0.4013;1.2760;
5.4000;0.4029;1.2810;
5.7000;0.4029;1.2760;
6.0000;0.4037;1.2959;
6.3000;0.4054;1.2984;
6.6000;0.4054;1.3084;
6.9000;0.4046;1.3084;
7.2000;0.4062;1.3034;
7.5000;0.4054;1.2984;
7.8000;0.4070;1.2984;
8.1000;0.4078;1.2984;
8.4000;0.4070;1.2934;
8.7000;0.4119;1.3059;
9.0000;0.4103;1.3034;
9.3000;0.4094;1.3034;
9.6000;0.4111;1.3034;
9.9000;0.4094;1.3034;
10.2000;0.4111;1.3059;
10.5000;0.4070;1.3059;
10.8000;0.4111;1.3159;
11.1000;0.4111;1.3184;
11.4000;0.4127;1.3184;
11.7000;0.4078;1.2934;
12.0000;0.4135;1.3084;
12.3000;0.4135;1.3109;
12.6000;0.4151;1.3184;
12.9000;0.4143;1.3184;
13.2000;0.4168;1.3184;
13.5000;0.4208;1.3333;
13.8000;0.4168;1.3159;
14.1000;0.4192;1.3134;
14.4000;0.4168;1.3034;
14.7000;0.4168;1.2934;
15.0000;0.4176;1.2984;
15.3000;0.4208;1.3084;
15.6000;0.4208;1.3059;
15.9000;0.4192;1.3034;
16.2000;0.4176;1.3009;
16.5000;0.4192;1.2934;
16.8000;0.4208;1.2934;
17.1000;0.4192;1.2984;
17.4000;0.4233;1.3134;
17.7000;0.4217;1.3234;
18.0000;0.4192;1.3308;
18.3000;0.4086;1.2959;
18.6000;0.4176;1.3234;
18.9000;0.4200;1.3308;
19.2000;0.4225;1.3283;
19.5000;0.4217;1.3258;
19.8000;0.4200;1.3084;
20.1000;0.4217;1.3109;
20.4000;0.4225;1.3034;
20.7000;0.4233;1.2984;
21.0000;0.4208;1.2910;
21.3000;0.4135;1.2610;
21.6000;0.4225;1.2860;
21.9000;0.4217;1.2860;
22.2000;0.4241;1.2885;
22.5000;0.4217;1.2860;
22.8000;0.4282;1.3034;
23.1000;0.4233;1.2885;
23.4000;0.4257;1.2934;
23.7000;0.4249;1.2885;
24.0000;0.4257;1.2934;
24.3000;0.4241;1.2910;
24.6000;0.4233;1.2934;
24.9000;0.4241;1.2984;
25.2000;0.4249;1.2885;
25.5000;0.4265;1.2860;
25.8000;0.4265;1.2810;
26.1000;0.4257;1.2810;
26.4000;0.4265;1.2785;
26.7000;0.4257;1.2710;
27.0000;0.4265;1.2660;
27.3000;0.4249;1.2561;
27.6000;0.4233;1.2511;
27.9000;0.4257;1.2586;
28.2000;0.4282;1.2610;
28.5000;0.4282;1.2635;
28.8000;0.4265;1.2561;
29.1000;0.4265;1.2536;
29.4000;0.4274;1.2511;
29.7000;0.4274;1.2511;
30.0000;0.4274;1.2461;
30.3000;0.4290;1.2461;
30.6000;0.4282;1.2511;
30.9000;0.4290;1.2561;
31.2000;0.4298;1.2685;
31.5000;0.4290;1.2586;
31.8000;0.4282;1.2635;
32.1000;0.4282;1.2561;
32.4000;0.4282;1.2486;
32.7000;0.4314;1.2735;
33.0000;0.4306;1.2760;
33.3000;0.4306;1.2660;
33.6000;0.4314;1.2635;
33.9000;0.4298;1.2586;
34.2000;0.4290;1.2561;
34.5000;0.4298;1.2511;
34.8000;0.4298;1.2511;
35.1000;0.4322;1.2635;
35.4000;0.4306;1.2660;
35.7000;0.4322;1.2660;
36.0000;0.4306;1.2635;
36.3000;0.4298;1.2660;
36.6000;0.4298;1.2635;
36.9000;0.4322;1.2710;
37.2000;0.4314;1.2660;
37.5000;0.4314;1.2635;
37.8000;0.4306;1.2536;
38.1000;0.4314;1.2586;
38.4000;0.4306;1.2511;
38.7000;0.4330;1.2635;
39.0000;0.4330;1.2536;
39.3000;0.4322;1.2486;
39.6000;0.4436;1.2735;
39.9000;0.4330;1.2486;
40.2000;0.4314;1.2311;
40.5000;0.4330;1.2311;
40.8000;0.4339;1.2311;
41.1000;0.4339;1.2311;
41.4000;0.4330;1.2336;
41.7000;0.4339;1.2311;
42.0000;0.4339;1.2311;
42.3000;0.4347;1.2336;
42.6000;0.4330;1.2336;
42.9000;0.4339;1.2311;
43.2000;0.4355;1.2361;
43.5000;0.4363;1.2287;
43.8000;0.4363;1.2311;
44.1000;0.4485;1.2685;
44.4000;0.4363;1.2386;
44.7000;0.4363;1.2436;
45.0000;0.4379;1.2561;
45.3000;0.4347;1.2561;
45.6000;0.4379;1.2660;
45.9000;0.4379;1.2561;
46.2000;0.4379;1.2486;
46.5000;0.4387;1.2461;
46.8000;0.4379;1.2486;
47.1000;0.4371;1.2486;
47.4000;0.4371;1.2461;
47.7000;0.4355;1.2436;
48.0000;0.4387;1.2511;
48.3000;0.4396;1.2561;
48.6000;0.4379;1.2486;
48.9000;0.4387;1.2461;
49.2000;0.4404;1.2386;
49.5000;0.4387;1.2361;
49.8000;0.4412;1.2386;
50.1000;0.4396;1.2287;
50.4000;0.4404;1.2311;
50.7000;0.4420;1.2287;
51.0000;0.4404;1.2237;
51.3000;0.4428;1.2311;
51.6000;0.4404;1.2262;
51.9000;0.4404;1.2361;
52.2000;0.4428;1.2386;
52.5000;0.4428;1.2411;
52.8000;0.4404;1.2361;
53.1000;0.4428;1.2361;
53.4000;0.4436;1.2361;
53.7000;0.4420;1.2287;
54.0000;0.4436;1.2287;
54.3000;0.4428;1.2287;
54.6000;0.4453;1.2311;
54.9000;0.4444;1.2287;
55.2000;0.4428;1.2262;
55.5000;0.4469;1.2361;
55.8000;0.4428;1.2262;
56.1000;0.4404;1.2237;
56.4000;0.4436;1.2311;
56.7000;0.4453;1.2386;
57.0000;0.4436;1.2336;
57.3000;0.4436;1.2311;
57.6000;0.4436;1.2262;
57.9000;0.4453;1.2212;
58.2000;0.4461;1.2237;
58.5000;0.4444;1.2237;
58.8000;0.4453;1.2336;
59.1000;0.4453;1.2336;
59.4000;0.4453;1.2287;
59.7000;0.4461;1.2237;
60.0000;0.4371;1.2087;
60.3000;0.4461;1.2336;
60.6000;0.4444;1.2361;
60.9000;0.4461;1.2411;
61.2000;0.4469;1.2361;
61.5000;0.4412;1.2162;
61.8000;0.4461;1.2287;
62.1000;0.4453;1.2187;
62.4000;0.4477;1.2262;
62.7000;0.4469;1.2187;
63.0000;0.4461;1.2237;
63.3000;0.4477;1.2237;
63.6000;0.4485;1.2162;
63.9000;0.4485;1.2137;
64.2000;0.4485;1.2062;
64.5000;0.4493;1.2087;
64.8000;0.4501;1.2012;
65.1000;0.4510;1.2037;
65.4000;0.4542;1.2087;
65.7000;0.4485;1.2112;
66.0000;0.4518;1.2237;
66.3000;0.4501;1.2262;
66.6000;0.4493;1.2361;
66.9000;0.4493;1.2311;
67.2000;0.4493;1.2262;
67.5000;0.4501;1.2287;
67.8000;0.4518;1.2361;
68.1000;0.4469;1.2237;
68.4000;0.4518;1.2262;
68.7000;0.4526;1.2311;
69.0000;0.4558;1.2386;
69.3000;0.4469;1.2162;
69.6000;0.4510;1.2262;
69.9000;0.4518;1.2237;
70.2000;0.4526;1.2361;
70.5000;0.4469;1.2287;
70.8000;0.4518;1.2411;
71.1000;0.4518;1.2361;
71.4000;0.4501;1.2162;
71.7000;0.4518;1.2062;
72.0000;0.4526;1.1963;
72.3000;0.4526;1.2062;
72.6000;0.4534;1.2112;
72.9000;0.4518;1.2162;
73.2000;0.4518;1.2162;
73.5000;0.4534;1.2162;
73.8000;0.4542;1.2212;
74.1000;0.4542;1.2237;
74.4000;0.4542;1.2237;
74.7000;0.4526;1.2237;
75.0000;0.4526;1.2187;
75.3000;0.4558;1.2262;
75.6000;0.4542;1.2212;
75.9000;0.4550;1.2237;
76.2000;0.4550;1.2162;
76.5000;0.4542;1.2112;
76.8000;0.4550;1.2187;
77.1000;0.4550;1.2162;
77.4000;0.4542;1.2037;
77.7000;0.4567;1.1987;
78.0000;0.4656;1.2262;
78.3000;0.4550;1.1913;
78.6000;0.4542;1.1963;
78.9000;0.4558;1.1987;
79.2000;0.4567;1.2062;
79.5000;0.4567;1.2012;
79.8000;0.4558;1.2037;
80.1000;0.4575;1.2012;
80.4000;0.4575;1.2037;
80.7000;0.4526;1.1813;
81.0000;0.4558;1.1913;
81.3000;0.4567;1.1888;
81.6000;0.4558;1.1938;
81.9000;0.4558;1.1987;
82.2000;0.4558;1.1987;
82.5000;0.4558;1.1938;
82.8000;0.4550;1.1963;
83.1000;0.4550;1.1987;
83.4000;0.4567;1.1938;
83.7000;0.4567;1.1888;
84.0000;0.4567;1.1913;
84.3000;0.4575;1.1863;
84.6000;0.4583;1.1838;
84.9000;0.4583;1.1813;
85.2000;0.4583;1.1813;
85.5000;0.4591;1.1763;
85.8000;0.4591;1.1713;
86.1000;0.4583;1.1738;
86.4000;0.4583;1.1813;
86.7000;0.4607;1.1863;
87.0000;0.4567;1.1688;
87.3000;0.4542;1.1639;
87.6000;0.4591;1.1738;
87.9000;0.4567;1.1688;
88.2000;0.4599;1.1738;
88.5000;0.4567;1.1589;
88.8000;0.4607;1.1614;
89.1000;0.4624;1.1688;
89.4000;0.4607;1.1663;
89.7000;0.4615;1.1738;
90.0000;0.4607;1.1763;
90.3000;0.4640;1.1838;
90.6000;0.4607;1.1738;
90.9000;0.4599;1.1663;
91.2000;0.4632;1.1763;
91.5000;0.4599;1.1663;
91.8000;0.4624;1.1639;
92.1000;0.4607;1.1639;
92.4000;0.4615;1.1663;
92.7000;0.4599;1.1589;
93.0000;0.4615;1.1614;
93.3000;0.4599;1.1614;
93.6000;0.4599;1.1589;
93.9000;0.4615;1.1564;
94.2000;0.4615;1.1539;
94.5000;0.4632;1.1514;
94.8000;0.4615;1.1489;
95.1000;0.4607;1.1439;
95.4000;0.4624;1.1464;
95.7000;0.4615;1.1414;
96.0000;0.4591;1.1464;
96.3000;0.4624;1.1589;
96.6000;0.4567;1.1439;
96.9000;0.4729;1.1888;
97.2000;0.4591;1.1589;
97.5000;0.4607;1.1614;
97.8000;0.4615;1.1663;
98.1000;0.4624;1.1639;
98.4000;0.4575;1.1389;
98.7000;0.4599;1.1414;
99.0000;0.4615;1.1414;
99.3000;0.4632;1.1414;
99.6000;0.4624;1.1389;
99.9000;0.4624;1.1414;
100.2000;0.4615;1.1439;
100.5000;0.4632;1.1489;
100.8000;0.4632;1.1464;
101.1000;0.4632;1.1389;
101.4000;0.4681;1.1564;
101.7000;0.4632;1.1514;
102.0000;0.4632;1.1439;
102.3000;0.4648;1.1464;
102.6000;0.4640;1.1414;
102.9000;0.4632;1.1389;
103.2000;0.4632;1.1489;
103.5000;0.4648;1.1564;
103.8000;0.4599;1.1489;
104.1000;0.4648;1.1564;
104.4000;0.4648;1.1639;
104.7000;0.4656;1.1663;
105.0000;0.4624;1.1639;
105.3000;0.4632;1.1713;
105.6000;0.4640;1.1738;
105.9000;0.4664;1.1763;
106.2000;0.4689;1.1838;
106.5000;0.4632;1.1639;
106.8000;0.4640;1.1589;
107.1000;0.4648;1.1663;
107.4000;0.4632;1.1589;
107.7000;0.4632;1.1589;
108.0000;0.4656;1.1514;
108.3000;0.4640;1.1589;
108.6000;0.4632;1.1489;
108.9000;0.4640;1.1589;
109.2000;0.4656;1.1663;
109.5000;0.4648;1.1688;
109.8000;0.4640;1.1639;
110.1000;0.4648;1.1639;
110.4000;0.4640;1.1663;
110.7000;0.4689;1.1763;
111.0000;0.4648;1.1688;
111.3000;0.4599;1.1614;
111.6000;0.4632;1.1639;
111.9000;0.4656;1.1639;
112.2000;0.4648;1.1589;
112.5000;0.4591;1.1464;
112.8000;0.4583;1.1389;
113.1000;0.4648;1.1539;
113.4000;0.4640;1.1539;
113.7000;0.4640;1.1589;
114.0000;0.4640;1.1564;
114.3000;0.4640;1.1564;
114.6000;0.4656;1.1564;
114.9000;0.4656;1.1589;
115.2000;0.4713;1.1763;
115.5000;0.4656;1.1564;
115.8000;0.4656;1.1564;
116.1000;0.4705;1.1663;
116.4000;0.4664;1.1713;
116.7000;0.4640;1.1614;
117.0000;0.4615;1.1614;
117.3000;0.4648;1.1713;
117.6000;0.4648;1.1738;
117.9000;0.4656;1.1738;
118.2000;0.4672;1.1788;
118.5000;0.4721;1.1938;
118.8000;0.4640;1.1713;
119.1000;0.4648;1.1838;
119.4000;0.4656;1.1938;
119.7000;0.4664;1.2012;
120.0000;0.4681;1.2012;
120.3000;0.4664;1.1963;
120.6000;0.4656;1.1838;
120.9000;0.4648;1.1788;
121.2000;0.4664;1.1738;
121.5000;0.4648;1.1663;
121.8000;0.4656;1.1713;
122.1000;0.4640;1.1688;
122.4000;0.4640;1.1688;
122.7000;0.4664;1.1738;
123.0000;0.4599;1.1539;
123.3000;0.4672;1.1688;
123.6000;0.4648;1.1688;
123.9000;0.4648;1.1663;
124.2000;0.4664;1.1788;
124.5000;0.4648;1.1688;
124.8000;0.4705;1.1863;
125.1000;0.4664;1.1763;
125.4000;0.4664;1.1738;
125.7000;0.4681;1.1788;
126.0000;0.4664;1.1738;
126.3000;0.4648;1.1614;
126.6000;0.4575;1.1489;
126.9000;0.4746;1.1913;
127.2000;0.4656;1.1589;
127.5000;0.4664;1.1614;
127.8000;0.4656;1.1639;
128.1000;0.4640;1.1639;
128.4000;0.4664;1.1713;
128.7000;0.4681;1.1813;
129.0000;0.4664;1.1788;
129.3000;0.4648;1.1688;
129.6000;0.4648;1.1738;
129.9000;0.4664;1.1713;
130.2000;0.4697;1.1813;
130.5000;0.4664;1.1738;
130.8000;0.4664;1.1738;
131.1000;0.4648;1.1738;
131.4000;0.4656;1.1738;
131.7000;0.4656;1.1763;
132.0000;0.4640;1.1763;
132.3000;0.4681;1.1863;
132.6000;0.4632;1.1713;
132.9000;0.4656;1.1863;
133.2000;0.4656;1.1788;
133.5000;0.4681;1.1838;
133.8000;0.4664;1.1713;
134.1000;0.4664;1.1713;
134.4000;0.4640;1.1614;
134.7000;0.4640;1.1688;
135.0000;0.4656;1.1688;
135.3000;0.4681;1.1813;
135.6000;0.4624;1.1713;
135.9000;0.4664;1.1788;
136.2000;0.4656;1.1813;
136.5000;0.4648;1.1738;
136.8000;0.4656;1.1788;
137.1000;0.4664;1.1763;
137.4000;0.4664;1.1788;
137.7000;0.4664;1.1713;
138.0000;0.4648;1.1639;
138.3000;0.4656;1.1688;
138.6000;0.4664;1.1813;
138.9000;0.4656;1.1788;
139.2000;0.4656;1.1788;
139.5000;0.4656;1.1863;
139.8000;0.4681;1.1838;
140.1000;0.4672;1.1863;
140.4000;0.4664;1.1888;
140.7000;0.4640;1.1863;
141.0000;0.4664;1.1888;
141.3000;0.4664;1.1963;
141.6000;0.4656;1.1913;
141.9000;0.4648;1.1763;
142.2000;0.4656;1.1788;
142.5000;0.4656;1.1763;
142.8000;0.4656;1.1713;
143.1000;0.4656;1.1713;
143.4000;0.4648;1.1713;
143.7000;0.4672;1.1738;
144.0000;0.4672;1.1713;
144.3000;0.4664;1.1663;
144.6000;0.4705;1.1788;
144.9000;0.4672;1.1688;
145.2000;0.4664;1.1614;
145.5000;0.4664;1.1564;
145.8000;0.4656;1.1639;
146.1000;0.4664;1.1838;
146.4000;0.4672;1.1788;
146.7000;0.4664;1.1763;
147.0000;0.4640;1.1663;
147.3000;0.4664;1.1639;
147.6000;0.4672;1.1713;
147.9000;0.4656;1.1639;
148.2000;0.4656;1.1639;
148.5000;0.4648;1.1663;
148.8000;0.4656;1.1614;
149.1000;0.4664;1.1663;
149.4000;0.4656;1.1713;
149.7000;0.4656;1.1663;
150.0000;0.4672;1.1713;
150.3000;0.4672;1.1763;
150.6000;0.4664;1.1738;
150.9000;0.4672;1.1688;
151.2000;0.4656;1.1614;
151.5000;0.4672;1.1713;
151.8000;0.4672;1.1663;
152.1000;0.4656;1.1589;
152.4000;0.4648;1.1614;
152.7000;0.4648;1.1663;
153.0000;0.4648;1.1688;
153.3000;0.4656;1.1738;
153.6000;0.4664;1.1738;
153.9000;0.4591;1.1489;
154.2000;0.4656;1.1763;
154.5000;0.4672;1.1763;
154.8000;0.4664;1.1688;
155.1000;0.4656;1.1639;
155.4000;0.4656;1.1663;
155.7000;0.4672;1.1713;
156.0000;0.4664;1.1713;
156.3000;0.4689;1.1788;
156.6000;0.4640;1.1663;
156.9000;0.4656;1.1688;
157.2000;0.4664;1.1713;
157.5000;0.4656;1.1663;
157.8000;0.4656;1.1639;
158.1000;0.4656;1.1688;
158.4000;0.4648;1.1763;
158.7000;0.4648;1.1763;
159.0000;0.4656;1.1788;
159.3000;0.4656;1.1788;
159.6000;0.4656;1.1738;
159.9000;0.4648;1.1788;
160.2000;0.4672;1.1838;
160.5000;0.4664;1.1863;
160.8000;0.4656;1.1813;
161.1000;0.4664;1.1888;
161.4000;0.4664;1.1838;
161.7000;0.4672;1.1888;
162.0000;0.4656;1.1913;
162.3000;0.4656;1.1938;
162.6000;0.4689;1.1987;
162.9000;0.4664;1.1888;
163.2000;0.4648;1.1788;
163.5000;0.4664;1.1738;
163.8000;0.4672;1.1738;
164.1000;0.4664;1.1763;
164.4000;0.4664;1.1738;
164.7000;0.4648;1.1663;
165.0000;0.4664;1.1688;
165.3000;0.4648;1.1738;
165.6000;0.4664;1.1763;
165.9000;0.4664;1.1738;
166.2000;0.4656;1.1738;
166.5000;0.4567;1.1564;
166.8000;0.4664;1.1813;
167.1000;0.4689;1.1938;
167.4000;0.4664;1.1838;
167.7000;0.4681;1.1863;
168.0000;0.4672;1.1788;
168.3000;0.4656;1.1788;
168.6000;0.4664;1.1838;
168.9000;0.4656;1.1813;
169.2000;0.4672;1.1813;
169.5000;0.4664;1.1788;
169.8000;0.4664;1.1813;
170.1000;0.4729;1.1913;
170.4000;0.4591;1.1639;
170.7000;0.4681;1.1913;
171.0000;0.4664;1.1913;
171.3000;0.4640;1.1963;
171.6000;0.4681;1.1963;
171.9000;0.4664;1.1863;
172.2000;0.4648;1.1863;
172.5000;0.4746;1.2162;
172.8000;0.4656;1.1987;
173.1000;0.4664;1.1938;
173.4000;0.4664;1.1788;
173.7000;0.4648;1.1688;
174.0000;0.4664;1.1763;
174.3000;0.4681;1.1639;
174.6000;0.4681;1.1639;
174.9000;0.4664;1.1564;
175.2000;0.4664;1.1589;
175.5000;0.4681;1.1589;
175.8000;0.4681;1.1639;
176.1000;0.4672;1.1639;
176.4000;0.4664;1.1614;
176.7000;0.4664;1.1639;
177.0000;0.4681;1.1688;
177.3000;0.4599;1.1514;
177.6000;0.4689;1.1688;
177.9000;0.4754;1.1813;
178.2000;0.4664;1.1489;
178.5000;0.4656;1.1514;
178.8000;0.4664;1.1514;
179.1000;0.4648;1.1539;
179.4000;0.4672;1.1589;
179.7000;0.4664;1.1589;
180.0000;0.4656;1.1564;
180.3000;0.4640;1.1539;
180.6000;0.4656;1.1589;
180.9000;0.4656;1.1663;
181.2000;0.4664;1.1639;
181.5000;0.4648;1.1663;
181.8000;0.4672;1.1763;
182.1000;0.4664;1.1713;
182.4000;0.4664;1.1763;
182.7000;0.4656;1.1763;
183.0000;0.4664;1.1788;
183.3000;0.4656;1.1663;
183.6000;0.4672;1.1688;
183.9000;0.4664;1.1614;
184.2000;0.4672;1.1564;
184.5000;0.4648;1.1614;
184.8000;0.4632;1.1564;
185.1000;0.4550;1.1514;
185.4000;0.4615;1.1713;
185.7000;0.4664;1.1788;
186.0000;0.4648;1.1788;
186.3000;0.4591;1.1639;
186.6000;0.4672;1.1838;
186.9000;0.4664;1.1863;
187.2000;0.4583;1.1738;
187.5000;0.4656;1.1938;
187.8000;0.4648;1.1913;
188.1000;0.4542;1.1663;
188.4000;0.4664;1.1987;
188.7000;0.4656;1.1888;
189.0000;0.4656;1.1813;
189.3000;0.4648;1.1788;
189.6000;0.4664;1.1863;
189.9000;0.4656;1.1863;
190.2000;0.4648;1.1788;
190.5000;0.4656;1.1813;
190.8000;0.4648;1.1788;
191.1000;0.4648;1.1813;
191.4000;0.4656;1.1838;
191.7000;0.4664;1.1888;
192.0000;0.4681;1.2012;
192.3000;0.4672;1.1987;
192.6000;0.4672;1.1913;
192.9000;0.4664;1.1838;
193.2000;0.4672;1.1888;
193.5000;0.4615;1.1738;
193.8000;0.4648;1.1788;
194.1000;0.4664;1.1738;
194.4000;0.4681;1.1738;
194.7000;0.4672;1.1788;
195.0000;0.4656;1.1688;
195.3000;0.4648;1.1688;
195.6000;0.4648;1.1688;
195.9000;0.4664;1.1663;
196.2000;0.4664;1.1688;
196.5000;0.4656;1.1639;
196.8000;0.4664;1.1763;
197.1000;0.4656;1.1738;
197.4000;0.4648;1.1763;
197.7000;0.4640;1.1788;
198.0000;0.4640;1.1713;
198.3000;0.4648;1.1738;
198.6000;0.4640;1.1788;
198.9000;0.4697;1.1913;
199.2000;0.4648;1.1763;
199.5000;0.4550;1.1589;
199.8000;0.4648;1.1938;
200.1000;0.4664;1.1913;
200.4000;0.4681;1.1938;
200.7000;0.4656;1.1938;
201.0000;0.4672;1.1963;
201.3000;0.4656;1.1888;
201.6000;0.4656;1.1763;
201.9000;0.4713;1.1888;
202.2000;0.4632;1.1763;
202.5000;0.4648;1.1738;
202.8000;0.4648;1.1688;
203.1000;0.4640;1.1589;
203.4000;0.4648;1.1614;
203.7000;0.4681;1.1663;
204.0000;0.4648;1.1614;
204.3000;0.4640;1.1688;
204.6000;0.4632;1.1663;
204.9000;0.4648;1.1688;
205.2000;0.4640;1.1639;
205.5000;0.4615;1.1514;
205.8000;0.4648;1.1564;
206.1000;0.4672;1.1614;
206.4000;0.4681;1.1639;
206.7000;0.4550;1.1290;
207.0000;0.4640;1.1614;
207.3000;0.4632;1.1639;
207.6000;0.4648;1.1663;
207.9000;0.4648;1.1688;
208.2000;0.4648;1.1738;
208.5000;0.4656;1.1738;
208.8000;0.4656;1.1663;
209.1000;0.4640;1.1589;
209.4000;0.4599;1.1514;
209.7000;0.4624;1.1614;
210.0000;0.4640;1.1738;
210.3000;0.4672;1.1763;
210.6000;0.4624;1.1663;
210.9000;0.4632;1.1763;
211.2000;0.4632;1.1738;
211.5000;0.4664;1.1788;
211.8000;0.4664;1.1863;
212.1000;0.4640;1.1813;
212.4000;0.4672;1.1888;
212.7000;0.4648;1.1713;
213.0000;0.4632;1.1688;
213.3000;0.4632;1.1564;
213.6000;0.4656;1.1639;
213.9000;0.4640;1.1738;
214.2000;0.4615;1.1763;
214.5000;0.4632;1.1788;
214.8000;0.4648;1.1813;
215.1000;0.4656;1.1788;
215.4000;0.4640;1.1738;
215.7000;0.4599;1.1639;
216.0000;0.4648;1.1614;
216.3000;0.4640;1.1688;
216.6000;0.4648;1.1713;
216.9000;0.4640;1.1639;
217.2000;0.4656;1.1663;
217.5000;0.4705;1.1713;
217.8000;0.4648;1.1589;
218.1000;0.4640;1.1614;
218.4000;0.4648;1.1713;
218.7000;0.4632;1.1713;
219.0000;0.4656;1.1738;
219.3000;0.4656;1.1713;
219.6000;0.4640;1.1713;
219.9000;0.4648;1.1813;
220.2000;0.4640;1.1838;
220.5000;0.4648;1.1788;
220.8000;0.4615;1.1688;
221.1000;0.4656;1.1838;
221.4000;0.4648;1.1813;
221.7000;0.4648;1.1813;
222.0000;0.4648;1.1813;
222.3000;0.4656;1.1813;
222.6000;0.4656;1.1788;
222.9000;0.4648;1.1838;
223.2000;0.4640;1.1913;
223.5000;0.4640;1.1888;
223.8000;0.4640;1.1913;
224.1000;0.4632;1.1913;
224.4000;0.4607;1.1888;
224.7000;0.4648;1.1913;
225.0000;0.4640;1.1813;
225.3000;0.4648;1.1713;
225.6000;0.4607;1.1738;
225.9000;0.4689;1.1987;
226.2000;0.4664;1.1913;
226.5000;0.4648;1.1838;
226.8000;0.4632;1.1788;
227.1000;0.4632;1.1738;
227.4000;0.4632;1.1738;
227.7000;0.4737;1.2087;
228.0000;0.4656;1.1863;
228.3000;0.4534;1.1514;
228.6000;0.4640;1.1813;
228.9000;0.4640;1.1888;
229.2000;0.4624;1.1763;
229.5000;0.4599;1.1639;
229.8000;0.4607;1.1713;
230.1000;0.4632;1.1813;
230.4000;0.4632;1.1813;
230.7000;0.4599;1.1688;
231.0000;0.4632;1.1763;
231.3000;0.4632;1.1738;
231.6000;0.4648;1.1838;
231.9000;0.4640;1.1838;
232.2000;0.4648;1.1838;
232.5000;0.4648;1.1813;
232.8000;0.4656;1.1888;
233.1000;0.4640;1.1838;
233.4000;0.4640;1.1838;
233.7000;0.4648;1.1963;
234.0000;0.4624;1.1838;
234.3000;0.4607;1.1713;
234.6000;0.4615;1.1713;
234.9000;0.4624;1.1763;
235.2000;0.4583;1.1663;
235.5000;0.4640;1.1838;
235.8000;0.4624;1.1788;
236.1000;0.4632;1.1713;
236.4000;0.4648;1.1763;
236.7000;0.4632;1.1738;
237.0000;0.4583;1.1713;
237.3000;0.4624;1.1763;
237.6000;0.4624;1.1738;
237.9000;0.4632;1.1788;
238.2000;0.4615;1.1763;
238.5000;0.4615;1.1813;
238.8000;0.4632;1.1813;
239.1000;0.4632;1.1888;
239.4000;0.4607;1.1838;
239.7000;0.4607;1.1888;
240.0000;0.4632;1.1963;
240.3000;0.4632;1.2012;
240.6000;0.4624;1.2037;
240.9000;0.4632;1.2087;
241.2000;0.4624;1.2112;
241.5000;0.4624;1.2137;
241.8000;0.4632;1.2062;
242.1000;0.4624;1.1938;
242.4000;0.4607;1.1838;
242.7000;0.4648;1.1938;
243.0000;0.4632;1.1838;
243.3000;0.4640;1.1888;
243.6000;0.4615;1.1913;
243.9000;0.4632;1.1863;
244.2000;0.4664;1.1987;
244.5000;0.4640;1.1813;
244.8000;0.4615;1.1813;
245.1000;0.4640;1.1863;
245.4000;0.4640;1.1788;
245.7000;0.4697;1.1987;
246.0000;0.4632;1.1788;
246.3000;0.4632;1.1838;
246.6000;0.4648;1.1913;
246.9000;0.4632;1.1913;
247.2000;0.4591;1.1763;
247.5000;0.4607;1.1838;
247.8000;0.4624;1.1813;
248.1000;0.4615;1.1788;
248.4000;0.4640;1.1788;
248.7000;0.4632;1.1763;
249.0000;0.4624;1.1838;
249.3000;0.4632;1.1813;
249.6000;0.4640;1.1838;
249.9000;0.4632;1.1738;
250.2000;0.4689;1.2012;
250.5000;0.4624;1.1963;
250.8000;0.4640;1.1963;
251.1000;0.4632;1.1963;
251.4000;0.4632;1.1963;
251.7000;0.4624;1.1938;
252.0000;0.4624;1.1913;
252.3000;0.4632;1.1838;
252.6000;0.4583;1.1763;
252.9000;0.4640;1.1913;
253.2000;0.4632;1.1888;
253.5000;0.4615;1.1863;
253.8000;0.4615;1.1838;
254.1000;0.4632;1.1863;
254.4000;0.4624;1.1913;
254.7000;0.4632;1.1913;
255.0000;0.4599;1.1863;
255.3000;0.4583;1.1838;
255.6000;0.4640;1.1963;
255.9000;0.4640;1.1913;
256.2000;0.4632;1.1888;
256.5000;0.4624;1.1888;
256.8000;0.4624;1.1913;
257.1000;0.4615;1.1938;
257.4000;0.4607;1.1913;
257.7000;0.4624;1.1863;
258.0000;0.4624;1.1838;
258.3000;0.4624;1.1788;
258.6000;0.4632;1.1788;
258.9000;0.4607;1.1838;
259.2000;0.4607;1.1863;
259.5000;0.4624;1.1938;
259.8000;0.4615;1.1888;
260.1000;0.4599;1.1938;
260.4000;0.4534;1.1788;
260.7000;0.4632;1.2012;
261.0000;0.4632;1.1963;
261.3000;0.4632;1.1987;
261.6000;0.4640;1.1987;
261.9000;0.4632;1.1963;
262.2000;0.4607;1.1913;
262.5000;0.4640;1.1838;
262.8000;0.4615;1.1763;
263.1000;0.4615;1.1738;
263.4000;0.4624;1.1813;
263.7000;0.4615;1.1813;
264.0000;0.4615;1.1813;
264.3000;0.4624;1.1788;
264.6000;0.4632;1.1813;
264.9000;0.4632;1.1863;
265.2000;0.4624;1.1913;
265.5000;0.4624;1.1838;
265.8000;0.4624;1.1913;
266.1000;0.4624;1.1938;
266.4000;0.4607;1.1938;
266.7000;0.4656;1.2062;
267.0000;0.4624;1.1863;
267.3000;0.4615;1.1863;
267.6000;0.4615;1.1913;
267.9000;0.4615;1.1913;
268.2000;0.4607;1.1863;
268.5000;0.4615;1.1938;
268.8000;0.4607;1.1987;
269.1000;0.4607;1.1963;
269.4000;0.4607;1.1987;
269.7000;0.4632;1.1987;
270.0000;0.4656;1.2012;
270.3000;0.4615;1.1888;
270.6000;0.4607;1.1838;
270.9000;0.4615;1.1788;
271.2000;0.4624;1.1788;
271.5000;0.4599;1.1713;
271.8000;0.4591;1.1688;
272.1000;0.4640;1.1863;
272.4000;0.4664;1.1987;
272.7000;0.4607;1.1938;
273.0000;0.4615;1.1987;
273.3000;0.4591;1.1963;
273.6000;0.4599;1.2012;
273.9000;0.4624;1.2037;
274.2000;0.4607;1.1963;
274.5000;0.4599;1.1863;
274.8000;0.4624;1.2062;
275.1000;0.4607;1.1987;
275.4000;0.4624;1.1987;
275.7000;0.4615;1.2012;
276.0000;0.4624;1.1963;
276.3000;0.4648;1.2087;
276.6000;0.4599;1.1987;
276.9000;0.4615;1.1963;
277.2000;0.4575;1.1838;
277.5000;0.4615;1.1987;
277.8000;0.4607;1.1987;
278.1000;0.4607;1.1987;
278.4000;0.4607;1.2037;
278.7000;0.4615;1.2087;
279.0000;0.4607;1.2062;
279.3000;0.4599;1.1987;
279.6000;0.4615;1.1938;
279.9000;0.4607;1.1913;
280.2000;0.4607;1.1963;
280.5000;0.4567;1.1938;
280.8000;0.4591;1.1987;
281.1000;0.4615;1.2037;
281.4000;0.4607;1.2137;
281.7000;0.4624;1.2162;
282.0000;0.4607;1.2087;
282.3000;0.4607;1.2162;
282.6000;0.4591;1.2212;
282.9000;0.4599;1.2212;
283.2000;0.4591;1.2187;
283.5000;0.4591;1.2187;
283.8000;0.4599;1.2237;
284.1000;0.4599;1.2112;
284.4000;0.4591;1.2062;
284.7000;0.4591;1.2012;
285.0000;0.4591;1.1963;
285.3000;0.4656;1.2237;
285.6000;0.4534;1.1863;
285.9000;0.4615;1.2162;
286.2000;0.4640;1.2137;
286.5000;0.4632;1.2187;
286.8000;0.4599;1.2037;
287.1000;0.4607;1.1963;
287.4000;0.4607;1.1913;
287.7000;0.4591;1.1888;
288.0000;0.4599;1.1913;
288.3000;0.4599;1.1938;
288.6000;0.4640;1.1987;
288.9000;0.4607;1.1963;
289.2000;0.4632;1.1938;
289.5000;0.4583;1.1863;
289.8000;0.4607;1.1963;
290.1000;0.4607;1.1963;
290.4000;0.4583;1.1913;
290.7000;0.4607;1.1987;
291.0000;0.4607;1.2012;
291.3000;0.4615;1.2062;
291.6000;0.4558;1.1838;
291.9000;0.4615;1.1987;
292.2000;0.4615;1.1963;
292.5000;0.4640;1.1987;
292.8000;0.4599;1.1938;
293.1000;0.4599;1.1913;
293.4000;0.4599;1.1938;
293.7000;0.4615;1.1938;
294.0000;0.4607;1.1913;
294.3000;0.4607;1.1863;
294.6000;0.4583;1.1788;
294.9000;0.4542;1.1663;
295.2000;0.4599;1.1888;
295.5000;0.4583;1.1913;
295.8000;0.4583;1.1963;
296.1000;0.4599;1.2012;
296.4000;0.4615;1.2087;
296.7000;0.4607;1.2062;
297.0000;0.4599;1.1987;
297.3000;0.4607;1.1913;
297.6000;0.4607;1.1863;
297.9000;0.4599;1.1813;
298.2000;0.4599;1.1838;
298.5000;0.4624;1.1987;
298.8000;0.4615;1.1938;
299.1000;0.4607;1.1963;
299.4000;0.4599;1.1888;
299.7000;0.4615;1.1963;
300.0000;0.4607;1.1913;
300.3000;0.4632;1.1913;
300.6000;0.4624;1.1813;
300.9000;0.4599;1.1738;
301.2000;0.4599;1.1713;
301.5000;0.4624;1.1663;
301.8000;0.4697;1.1913;
302.1000;0.4656;1.1863;
302.4000;0.4615;1.1713;
302.7000;0.4607;1.1738;
303.0000;0.4575;1.1688;
303.3000;0.4640;1.1888;
303.6000;0.4615;1.1813;
303.9000;0.4591;1.1713;
304.2000;0.4510;1.1614;
304.5000;0.4607;1.1763;
304.8000;0.4607;1.1763;
305.1000;0.4607;1.1738;
305.4000;0.4615;1.1838;
305.7000;0.4591;1.1838;
306.0000;0.4591;1.1788;
306.3000;0.4575;1.1788;
306.6000;0.4624;1.1938;
306.9000;0.4591;1.1863;
307.2000;0.4599;1.1763;
307.5000;0.4558;1.1639;
307.8000;0.4607;1.1738;
308.1000;0.4624;1.1838;
308.4000;0.4591;1.1788;
308.7000;0.4575;1.1863;
309.0000;0.4599;1.1963;
309.3000;0.4591;1.2012;
309.6000;0.4550;1.1888;
309.9000;0.4607;1.2162;
310.2000;0.4591;1.2062;
310.5000;0.4607;1.2037;
310.8000;0.4591;1.1888;
311.1000;0.4599;1.1838;
311.4000;0.4591;1.1863;
311.7000;0.4599;1.1888;
312.0000;0.4599;1.1913;
312.3000;0.4591;1.1838;
312.6000;0.4599;1.1888;
312.9000;0.4607;1.1963;
313.2000;0.4575;1.1938;
313.5000;0.4583;1.1987;
313.8000;0.4583;1.1913;
314.1000;0.4591;1.1913;
314.4000;0.4591;1.1987;
314.7000;0.4583;1.1888;
315.0000;0.4599;1.1913;
315.3000;0.4591;1.1938;
315.6000;0.4583;1.1963;
315.9000;0.4591;1.1963;
316.2000;0.4591;1.1938;
316.5000;0.4583;1.1863;
316.8000;0.4591;1.1888;
317.1000;0.4607;1.1863;
317.4000;0.4534;1.1688;
317.7000;0.4591;1.1863;
318.0000;0.4599;1.1938;
318.3000;0.4607;1.1963;
318.6000;0.4583;1.1938;
318.9000;0.4583;1.1913;
319.2000;0.4624;1.1987;
319.5000;0.4599;1.1963;
319.8000;0.4550;1.1938;
320.1000;0.4599;1.2062;
320.4000;0.4510;1.1813;
320.7000;0.4640;1.2237;
321.0000;0.4583;1.2037;
321.3000;0.4583;1.2062;
321.6000;0.4575;1.2112;
321.9000;0.4591;1.2112;
322.2000;0.4542;1.1963;
322.5000;0.4615;1.2112;
322.8000;0.4526;1.1888;
323.1000;0.4599;1.2037;
323.4000;0.4583;1.1888;
323.7000;0.4477;1.1489;
324.0000;0.4583;1.1738;
324.3000;0.4599;1.1838;
324.6000;0.4624;1.1888;
324.9000;0.4558;1.1663;
325.2000;0.4583;1.1763;
325.5000;0.4567;1.1788;
325.8000;0.4624;1.1987;
326.1000;0.4624;1.2037;
326.4000;0.4575;1.1987;
326.7000;0.4583;1.2012;
327.0000;0.4599;1.2037;
327.3000;0.4599;1.1987;
327.6000;0.4583;1.1938;
327.9000;0.4583;1.1913;
328.2000;0.4583;1.1888;
328.5000;0.4591;1.1913;
328.8000;0.4599;1.1913;
329.1000;0.4567;1.1888;
329.4000;0.4583;1.1888;
329.7000;0.4575;1.1888;
330.0000;0.4575;1.1863;
330.3000;0.4583;1.1863;
330.6000;0.4567;1.1813;
330.9000;0.4575;1.1838;
331.2000;0.4575;1.1763;
331.5000;0.4534;1.1663;
331.8000;0.4599;1.1788;
332.1000;0.4599;1.1813;
332.4000;0.4591;1.1788;
332.7000;0.4567;1.1688;
333.0000;0.4583;1.1663;
333.3000;0.4591;1.1738;
333.6000;0.4583;1.1688;
333.9000;0.4583;1.1713;
334.2000;0.4575;1.1639;
334.5000;0.4583;1.1663;
334.8000;0.4575;1.1663;
335.1000;0.4558;1.1589;
335.4000;0.4583;1.1663;
335.7000;0.4591;1.1738;
336.0000;0.4583;1.1688;
336.3000;0.4591;1.1639;
336.6000;0.4591;1.1688;
336.9000;0.4534;1.1663;
337.2000;0.4558;1.1738;
337.5000;0.4583;1.1763;
337.8000;0.4583;1.1838;
338.1000;0.4591;1.1863;
338.4000;0.4583;1.1838;
338.7000;0.4567;1.1738;
339.0000;0.4583;1.1738;
339.3000;0.4591;1.1813;
339.6000;0.4599;1.1813;
339.9000;0.4624;1.1888;
340.2000;0.4567;1.1738;
340.5000;0.4575;1.1813;
340.8000;0.4567;1.1838;
341.1000;0.4599;1.1888;
341.4000;0.4575;1.1813;
341.7000;0.4591;1.1863;
342.0000;0.4583;1.1888;
342.3000;0.4624;1.2087;
342.6000;0.4607;1.1938;
342.9000;0.4583;1.1938;
343.2000;0.4656;1.2087;
343.5000;0.4583;1.1788;
343.8000;0.4550;1.1788;
344.1000;0.4567;1.1863;
344.4000;0.4534;1.1738;
344.7000;0.4615;1.2037;
345.0000;0.4575;1.2062;
345.3000;0.4575;1.2062;
345.6000;0.4575;1.2012;
345.9000;0.4558;1.2012;
346.2000;0.4591;1.2037;
346.5000;0.4558;1.1913;
346.8000;0.4575;1.1888;
347.1000;0.4567;1.1838;
347.4000;0.4648;1.2087;
347.7000;0.4583;1.1863;
348.0000;0.4567;1.1738;
348.3000;0.4591;1.1813;
348.6000;0.4567;1.1863;
348.9000;0.4567;1.1863;
349.2000;0.4567;1.1913;
349.5000;0.4534;1.1838;
349.8000;0.4575;1.1938;
350.1000;0.4567;1.1813;
350.4000;0.4558;1.1763;
350.7000;0.4575;1.1788;
351.0000;0.4526;1.1763;
351.3000;0.4575;1.1888;
351.6000;0.4567;1.1838;
351.9000;0.4575;1.1813;
352.2000;0.4558;1.1813;
352.5000;0.4567;1.1863;
352.8000;0.4583;1.1863;
353.1000;0.4575;1.1813;
353.4000;0.4558;1.1813;
353.7000;0.4567;1.1888;
354.0000;0.4575;1.1888;
354.3000;0.4567;1.1838;
354.6000;0.4558;1.1888;
354.9000;0.4558;1.1863;
355.2000;0.4583;1.1888;
355.5000;0.4558;1.1863;
355.8000;0.4550;1.1863;
356.1000;0.4575;1.1963;
356.4000;0.4558;1.1838;
356.7000;0.4567;1.1788;
357.0000;0.4575;1.1763;
357.3000;0.4558;1.1763;
357.6000;0.4583;1.1838;
357.9000;0.4575;1.1813;
358.2000;0.4575;1.1763;
358.5000;0.4575;1.1688;
358.8000;0.4534;1.1663;
359.1000;0.4567;1.1763;
359.4000;0.4558;1.1663;
359.7000;0.4534;1.1663;
360.0000;0.4558;1.1663;
360.3000;0.4567;1.1639;
360.6000;0.4526;1.1539;
360.9000;0.4550;1.1639;
361.2000;0.4567;1.1614;
361.5000;0.4567;1.1564;
361.8000;0.4575;1.1564;
362.1000;0.4526;1.1439;
362.4000;0.4534;1.1514;
362.7000;0.4558;1.1589;
363.0000;0.4575;1.1589;
363.3000;0.4558;1.1688;
363.6000;0.4591;1.1813;
363.9000;0.4632;1.1888;
364.2000;0.4542;1.1589;
364.5000;0.4583;1.1738;
364.8000;0.4567;1.1788;
365.1000;0.4575;1.1813;
365.4000;0.4591;1.1788;
365.7000;0.4567;1.1813;
366.0000;0.4567;1.1713;
366.3000;0.4526;1.1639;
366.6000;0.4575;1.1738;
366.9000;0.4550;1.1738;
367.2000;0.4567;1.1788;
367.5000;0.4607;1.1888;
367.8000;0.4575;1.1738;
368.1000;0.4558;1.1738;
368.4000;0.4567;1.1838;
368.7000;0.4550;1.1788;
369.0000;0.4575;1.1888;
369.3000;0.4567;1.1913;
369.6000;0.4550;1.1813;
369.9000;0.4550;1.1763;
370.2000;0.4558;1.1813;
370.5000;0.4567;1.1838;
370.8000;0.4575;1.1838;
371.1000;0.4591;1.2012;
371.4000;0.4444;1.1614;
371.7000;0.4575;1.1938;
372.0000;0.4534;1.1838;
372.3000;0.4567;1.1938;
372.6000;0.4567;1.1913;
372.9000;0.4518;1.1738;
373.2000;0.4567;1.1738;
373.5000;0.4567;1.1688;
373.8000;0.4575;1.1589;
374.1000;0.4567;1.1589;
374.4000;0.4567;1.1614;
374.7000;0.4558;1.1639;
375.0000;0.4550;1.1663;
375.3000;0.4583;1.1788;
375.6000;0.4607;1.1738;
375.9000;0.4518;1.1489;
376.2000;0.4550;1.1639;
376.5000;0.4575;1.1688;
376.8000;0.4567;1.1738;
377.1000;0.4550;1.1763;
377.4000;0.4534;1.1788;
377.7000;0.4567;1.1738;
378.0000;0.4567;1.1738;
378.3000;0.4567;1.1763;
378.6000;0.4558;1.1813;
378.9000;0.4558;1.1863;
379.2000;0.4558;1.1838;
379.5000;0.4558;1.1738;
379.8000;0.4550;1.1738;
380.1000;0.4550;1.1738;
380.4000;0.4550;1.1763;
380.7000;0.4550;1.1788;
381.0000;0.4558;1.1813;
381.3000;0.4575;1.1888;
381.6000;0.4469;1.1663;
381.9000;0.4542;1.1888;
382.2000;0.4550;1.1938;
382.5000;0.4526;1.1888;
382.8000;0.4534;1.1888;
383.1000;0.4558;1.1888;
383.4000;0.4534;1.1838;
383.7000;0.4591;1.1987;
384.0000;0.4567;1.1863;
384.3000;0.4550;1.1863;
384.6000;0.4558;1.1838;
384.9000;0.4640;1.1987;
385.2000;0.4542;1.1813;
385.5000;0.4550;1.1863;
385.8000;0.4558;1.1938;
386.1000;0.4550;1.1913;
386.4000;0.4550;1.1888;
386.7000;0.4558;1.1938;
387.0000;0.4567;1.1987;
387.3000;0.4542;1.1987;
387.6000;0.4550;1.1888;
387.9000;0.4542;1.1888;
388.2000;0.4542;1.1888;
388.5000;0.4542;1.1838;
388.8000;0.4550;1.1738;
389.1000;0.4526;1.1614;
389.4000;0.4542;1.1713;
389.7000;0.4550;1.1663;
390.0000;0.4542;1.1639;
390.3000;0.4583;1.1838;
390.6000;0.4558;1.1763;
390.9000;0.4664;1.2012;
391.2000;0.4567;1.1738;
391.5000;0.4550;1.1639;
391.8000;0.4575;1.1738;
392.1000;0.4575;1.1838;
392.4000;0.4575;1.1913;
392.7000;0.4591;1.1913;
393.0000;0.4567;1.1888;
393.3000;0.4558;1.1888;
393.6000;0.4550;1.1863;
393.9000;0.4607;1.2062;
394.2000;0.4558;1.1938;
394.5000;0.4558;1.1987;
394.8000;0.4542;1.1913;
395.1000;0.4542;1.1888;
395.4000;0.4567;1.1963;
395.7000;0.4558;1.1838;
396.0000;0.4550;1.1863;
396.3000;0.4550;1.1763;
396.6000;0.4558;1.1738;
396.9000;0.4672;1.2062;
397.2000;0.4575;1.1738;
397.5000;0.4558;1.1713;
397.8000;0.4542;1.1763;
398.1000;0.4575;1.1913;
398.4000;0.4550;1.1863;
398.7000;0.4542;1.1738;
399.0000;0.4534;1.1738;
399.3000;0.4558;1.1738;
399.6000;0.4550;1.1688;
399.9000;0.4575;1.1688;
400.2000;0.4550;1.1663;
400.5000;0.4583;1.1788;
400.8000;0.4550;1.1788;
401.1000;0.4526;1.1763;
401.4000;0.4501;1.1763;
401.7000;0.4542;1.1888;
402.0000;0.4558;1.1913;
402.3000;0.4550;1.1813;
402.6000;0.4518;1.1838;
402.9000;0.4607;1.2087;
403.2000;0.4567;1.1938;
403.5000;0.4550;1.1913;
403.8000;0.4550;1.1838;
404.1000;0.4558;1.1838;
404.4000;0.4558;1.1813;
404.7000;0.4550;1.1688;
405.0000;0.4534;1.1688;
405.3000;0.4542;1.1738;
405.6000;0.4575;1.1788;
405.9000;0.4534;1.1713;
406.2000;0.4550;1.1738;
406.5000;0.4550;1.1713;
406.8000;0.4558;1.1763;
407.1000;0.4542;1.1713;
407.4000;0.4550;1.1788;
407.7000;0.4558;1.1838;
408.0000;0.4542;1.1838;
408.3000;0.4558;1.1813;
408.6000;0.4542;1.1813;
408.9000;0.4542;1.1838;
409.2000;0.4550;1.1863;
409.5000;0.4542;1.1863;
409.8000;0.4550;1.1888;
410.1000;0.4550;1.1863;
410.4000;0.4453;1.1564;
410.7000;0.4542;1.1838;
411.0000;0.4550;1.1863;
411.3000;0.4526;1.1863;
411.6000;0.4526;1.1763;
411.9000;0.4542;1.1838;
412.2000;0.4477;1.1688;
412.5000;0.4501;1.1838;
412.8000;0.4526;1.2037;
413.1000;0.4526;1.2062;
413.4000;0.4550;1.2062;
413.7000;0.4542;1.1987;
414.0000;0.4485;1.1788;
414.3000;0.4518;1.1838;
414.6000;0.4534;1.1863;
414.9000;0.4542;1.1963;
415.2000;0.4534;1.1913;
415.5000;0.4558;1.2037;
415.8000;0.4526;1.1863;
416.1000;0.4575;1.2012;
416.4000;0.4501;1.1813;
416.7000;0.4542;1.1863;
417.0000;0.4542;1.1813;
417.3000;0.4558;1.1838;
417.6000;0.4542;1.1763;
417.9000;0.4550;1.1738;
418.2000;0.4550;1.1863;
418.5000;0.4534;1.1763;
418.8000;0.4550;1.1863;
419.1000;0.4518;1.1763;
419.4000;0.4534;1.1788;
419.7000;0.4542;1.1888;
420.0000;0.4558;1.1938;
420.3000;0.4558;1.2012;
420.6000;0.4550;1.1938;
420.9000;0.4550;1.1987;
421.2000;0.4558;1.1963;
421.5000;0.4526;1.1838;
421.8000;0.4558;1.1813;
422.1000;0.4550;1.1863;
422.4000;0.4550;1.1813;
422.7000;0.4461;1.1663;
423.0000;0.4534;1.1838;
423.3000;0.4542;1.1788;
423.6000;0.4558;1.1813;
423.9000;0.4558;1.1813;
424.2000;0.4542;1.1738;
424.5000;0.4542;1.1738;
424.8000;0.4550;1.1788;
425.1000;0.4534;1.1813;
425.4000;0.4534;1.1813;
425.7000;0.4534;1.1838;
426.0000;0.4607;1.2062;
426.3000;0.4534;1.1838;
426.6000;0.4542;1.1813;
426.9000;0.4534;1.1763;
427.2000;0.4550;1.1763;
427.5000;0.4542;1.1713;
427.8000;0.4534;1.1788;
428.1000;0.4550;1.1838;
428.4000;0.4534;1.1863;
428.7000;0.4550;1.1813;
429.0000;0.4534;1.1688;
429.3000;0.4542;1.1614;
429.6000;0.4534;1.1614;
429.9000;0.4534;1.1688;
430.2000;0.4542;1.1713;
430.5000;0.4542;1.1738;
430.8000;0.4518;1.1688;
431.1000;0.4550;1.1738;
431.4000;0.4534;1.1763;
431.7000;0.4550;1.1738;
432.0000;0.4550;1.1838;
432.3000;0.4558;1.1788;
432.6000;0.4550;1.1788;
432.9000;0.4558;1.1788;
433.2000;0.4469;1.1539;
433.5000;0.4526;1.1713;
433.8000;0.4550;1.1813;
434.1000;0.4550;1.1863;
434.4000;0.4534;1.1888;
434.7000;0.4550;1.1888;
435.0000;0.4534;1.1888;
435.3000;0.4534;1.1913;
435.6000;0.4534;1.1938;
435.9000;0.4550;1.1938;
436.2000;0.4542;1.1888;
436.5000;0.4534;1.1888;
436.8000;0.4526;1.1938;
437.1000;0.4542;1.1913;
437.4000;0.4534;1.1938;
437.7000;0.4558;1.1913;
438.0000;0.4550;1.1913;
438.3000;0.4526;1.1863;
438.6000;0.4526;1.1987;
438.9000;0.4534;1.1987;
439.2000;0.4542;1.2087;
439.5000;0.4534;1.2037;
439.8000;0.4534;1.2112;
440.1000;0.4542;1.2162;
440.4000;0.4534;1.2062;
440.7000;0.4534;1.2037;
441.0000;0.4510;1.2037;
441.3000;0.4444;1.1663;
441.6000;0.4526;1.1987;
441.9000;0.4583;1.2187;
442.2000;0.4526;1.2037;
442.5000;0.4526;1.2087;
442.8000;0.4542;1.2062;
443.1000;0.4534;1.1963;
443.4000;0.4534;1.2037;
443.7000;0.4493;1.1913;
444.0000;0.4542;1.2162;
444.3000;0.4526;1.2062;
444.6000;0.4534;1.2012;
444.9000;0.4542;1.2062;
445.2000;0.4542;1.2112;
445.5000;0.4542;1.2112;
445.8000;0.4591;1.2237;
446.1000;0.4510;1.2037;
446.4000;0.4518;1.1987;
446.7000;0.4534;1.2037;
447.0000;0.4526;1.1987;
447.3000;0.4526;1.1987;
447.6000;0.4493;1.1863;
447.9000;0.4526;1.2062;
448.2000;0.4526;1.2012;
448.5000;0.4534;1.2012;
448.8000;0.4412;1.1788;
449.1000;0.4542;1.2112;
449.4000;0.4534;1.2062;
449.7000;0.4526;1.2062;
450.0000;0.4526;1.2012;
450.3000;0.4518;1.2037;
450.6000;0.4526;1.2037;
450.9000;0.4526;1.2062;
451.2000;0.4542;1.2187;
451.5000;0.4534;1.2187;
451.8000;0.4558;1.2187;
452.1000;0.4534;1.2237;
452.4000;0.4534;1.2212;
452.7000;0.4518;1.2137;
453.0000;0.4534;1.2187;
453.3000;0.4534;1.2162;
453.6000;0.4526;1.2212;
453.9000;0.4583;1.2336;
454.2000;0.4542;1.2262;
454.5000;0.4534;1.2187;
454.8000;0.4526;1.2162;
455.1000;0.4615;1.2536;
455.4000;0.4534;1.2361;
455.7000;0.4542;1.2336;
456.0000;0.4469;1.2062;
456.3000;0.4518;1.2212;
456.6000;0.4428;1.1938;
456.9000;0.4526;1.2112;
457.2000;0.4526;1.2037;
457.5000;0.4534;1.2087;
457.8000;0.4542;1.2137;
458.1000;0.4510;1.1987;
458.4000;0.4624;1.2162;
458.7000;0.4518;1.1888;
459.0000;0.4518;1.1987;
459.3000;0.4534;1.2012;
459.6000;0.4534;1.1913;
459.9000;0.4526;1.1838;
460.2000;0.4534;1.1838;
460.5000;0.4550;1.1963;
460.8000;0.4526;1.1987;
461.1000;0.4526;1.2012;
461.4000;0.4518;1.1938;
461.7000;0.4534;1.2037;
462.0000;0.4518;1.2012;
462.3000;0.4510;1.1963;
462.6000;0.4518;1.1963;
462.9000;0.4534;1.2012;
463.2000;0.4542;1.1963;
463.5000;0.4526;1.1938;
463.8000;0.4542;1.2112;
464.1000;0.4534;1.2087;
464.4000;0.4542;1.2162;
464.7000;0.4542;1.2162;
465.0000;0.4526;1.2062;
465.3000;0.4436;1.1863;
465.6000;0.4534;1.1987;
465.9000;0.4477;1.1888;
466.2000;0.4526;1.1938;
466.5000;0.4518;1.1938;
466.8000;0.4534;1.1938;
467.1000;0.4526;1.1913;
467.4000;0.4518;1.1888;
467.7000;0.4534;1.1913;
468.0000;0.4534;1.1913;
468.3000;0.4526;1.1913;
468.6000;0.4469;1.1813;
468.9000;0.4534;1.1938;
469.2000;0.4534;1.1963;
469.5000;0.4526;1.1963;
469.8000;0.4534;1.1963;
470.1000;0.4575;1.2137;
470.4000;0.4558;1.2037;
470.7000;0.4550;1.2112;
471.0000;0.4518;1.2037;
471.3000;0.4575;1.2087;
471.6000;0.4526;1.2012;
471.9000;0.4534;1.2037;
472.2000;0.4501;1.1987;
472.5000;0.4534;1.2137;
472.8000;0.4510;1.2087;
473.1000;0.4542;1.2162;
473.4000;0.4558;1.2187;
473.7000;0.4501;1.2037;
474.0000;0.4550;1.2162;
474.3000;0.4534;1.2112;
474.6000;0.4534;1.2112;
474.9000;0.4518;1.2112;
475.2000;0.4534;1.2212;
475.5000;0.4526;1.2212;
475.8000;0.4518;1.2162;
476.1000;0.4534;1.2187;
476.4000;0.4518;1.2112;
476.7000;0.4550;1.2187;
477.0000;0.4534;1.2162;
477.3000;0.4534;1.2212;
477.6000;0.4518;1.2087;
477.9000;0.4526;1.2187;
478.2000;0.4567;1.2262;
478.5000;0.4485;1.2037;
478.8000;0.4518;1.2112;
479.1000;0.4518;1.2037;
479.4000;0.4518;1.2037;
479.7000;0.4477;1.2012;
480.0000;0.4477;1.2037;
480.3000;0.4518;1.2137;
480.6000;0.4534;1.2262;
480.9000;0.4518;1.2336;
481.2000;0.4510;1.2311;
481.5000;0.4518;1.2287;
481.8000;0.4534;1.2237;
482.1000;0.4501;1.2162;
482.4000;0.4526;1.2336;
482.7000;0.4501;1.2262;
483.0000;0.4510;1.2361;
483.3000;0.4518;1.2461;
483.6000;0.4518;1.2386;
483.9000;0.4518;1.2461;
484.2000;0.4501;1.2411;
484.5000;0.4501;1.2386;
484.8000;0.4510;1.2386;
485.1000;0.4510;1.2386;
485.4000;0.4550;1.2411;
485.7000;0.4550;1.2336;
486.0000;0.4534;1.2336;
486.3000;0.4526;1.2336;
486.6000;0.4518;1.2262;
486.9000;0.4518;1.2336;
487.2000;0.4542;1.2386;
487.5000;0.4518;1.2336;
487.8000;0.4550;1.2436;
488.1000;0.4493;1.2262;
488.4000;0.4558;1.2336;
488.7000;0.4510;1.2262;
489.0000;0.4542;1.2311;
489.3000;0.4518;1.2187;
489.6000;0.4518;1.2262;
489.9000;0.4591;1.2486;
490.2000;0.4526;1.2311;
490.5000;0.4550;1.2262;
490.8000;0.4518;1.2237;
491.1000;0.4518;1.2162;
491.4000;0.4510;1.2187;
491.7000;0.4567;1.2436;
492.0000;0.4526;1.2386;
492.3000;0.4542;1.2386;
492.6000;0.4599;1.2561;
492.9000;0.4526;1.2311;
493.2000;0.4567;1.2411;
493.5000;0.4510;1.2262;
493.8000;0.4510;1.2311;
494.1000;0.4501;1.2262;
494.4000;0.4518;1.2311;
494.7000;0.4477;1.2187;
495.0000;0.4526;1.2361;
495.3000;0.4453;1.2212;
495.6000;0.4501;1.2361;
495.9000;0.4501;1.2336;
496.2000;0.4558;1.2436;
496.5000;0.4510;1.2262;
496.8000;0.4575;1.2386;
497.1000;0.4510;1.2187;
497.4000;0.4453;1.2012;
497.7000;0.4591;1.2361;
498.0000;0.4534;1.2212;
498.3000;0.4526;1.2237;
498.6000;0.4526;1.2262;
498.9000;0.4526;1.2237;
499.2000;0.4599;1.2511;
499.5000;0.4534;1.2262;
499.8000;0.4493;1.2287;
500.1000;0.4542;1.2361;
500.4000;0.4510;1.2311;
500.7000;0.4534;1.2336;
501.0000;0.4534;1.2361;
501.3000;0.4518;1.2336;
501.6000;0.4518;1.2336;
501.9000;0.4485;1.2336;
502.2000;0.4518;1.2361;
502.5000;0.4534;1.2436;
502.8000;0.4510;1.2411;
503.1000;0.4518;1.2311;
503.4000;0.4526;1.2361;
503.7000;0.4526;1.2386;
504.0000;0.4526;1.2486;
504.3000;0.4526;1.2511;
504.6000;0.4518;1.2361;
504.9000;0.4526;1.2287;
505.2000;0.4534;1.2287;
505.5000;0.4526;1.2237;
505.8000;0.4493;1.2137;
506.1000;0.4485;1.2087;
506.4000;0.4518;1.2237;
506.7000;0.4526;1.2262;
507.0000;0.4518;1.2212;
507.3000;0.4542;1.2361;
507.6000;0.4534;1.2386;
507.9000;0.4493;1.2237;
508.2000;0.4510;1.2187;
508.5000;0.4518;1.2212;
508.8000;0.4510;1.2137;
509.1000;0.4526;1.2137;
509.4000;0.4518;1.2137;
509.7000;0.4518;1.2112;
510.0000;0.4510;1.2137;
510.3000;0.4526;1.2237;
510.6000;0.4518;1.2237;
510.9000;0.4477;1.2112;
511.2000;0.4510;1.2237;
511.5000;0.4518;1.2311;
511.8000;0.4526;1.2386;
512.1000;0.4518;1.2311;
512.4000;0.4575;1.2486;
512.7000;0.4518;1.2436;
513.0000;0.4518;1.2386;
513.3000;0.4510;1.2287;
513.6000;0.4518;1.2237;
513.9000;0.4518;1.2287;
514.2000;0.4526;1.2311;
514.5000;0.4510;1.2361;
514.8000;0.4567;1.2561;
515.1000;0.4526;1.2511;
515.4000;0.4542;1.2536;
515.7000;0.4501;1.2536;
516.0000;0.4526;1.2610;
516.3000;0.4510;1.2536;
516.6000;0.4501;1.2511;
516.9000;0.4518;1.2511;
517.2000;0.4493;1.2361;
517.5000;0.4510;1.2461;
517.8000;0.4518;1.2536;
518.1000;0.4518;1.2511;
518.4000;0.4518;1.2561;
518.7000;0.4591;1.2785;
519.0000;0.4518;1.2710;
519.3000;0.4526;1.2610;
519.6000;0.4510;1.2610;
519.9000;0.4542;1.2735;
520.2000;0.4526;1.2660;
520.5000;0.4518;1.2660;
520.8000;0.4501;1.2735;
521.1000;0.4501;1.2735;
521.4000;0.4526;1.2735;
521.7000;0.4501;1.2710;
522.0000;0.4493;1.2536;
522.3000;0.4526;1.2511;
522.6000;0.4526;1.2536;
522.9000;0.4526;1.2511;
523.2000;0.4510;1.2536;
523.5000;0.4510;1.2511;
523.8000;0.4510;1.2486;
524.1000;0.4510;1.2436;
524.4000;0.4501;1.2386;
524.7000;0.4501;1.2436;
525.0000;0.4518;1.2461;
525.3000;0.4518;1.2411;
525.6000;0.4526;1.2361;
525.9000;0.4550;1.2411;
526.2000;0.4518;1.2311;
526.5000;0.4510;1.2262;
526.8000;0.4518;1.2237;
527.1000;0.4510;1.2287;
527.4000;0.4510;1.2237;
527.7000;0.4518;1.2262;
528.0000;0.4526;1.2287;
528.3000;0.4534;1.2311;
528.6000;0.4518;1.2287;
528.9000;0.4542;1.2311;
529.2000;0.4526;1.2287;
529.5000;0.4518;1.2311;
529.8000;0.4510;1.2336;
530.1000;0.4518;1.2386;
530.4000;0.4501;1.2436;
530.7000;0.4510;1.2386;
531.0000;0.4510;1.2311;
531.3000;0.4534;1.2436;
531.6000;0.4518;1.2411;
531.9000;0.4518;1.2411;
532.2000;0.4526;1.2461;
532.5000;0.4485;1.2361;
532.8000;0.4518;1.2461;
533.1000;0.4518;1.2361;
533.4000;0.4526;1.2486;
533.7000;0.4518;1.2511;
534.0000;0.4518;1.2436;
534.3000;0.4526;1.2536;
534.6000;0.4518;1.2511;
534.9000;0.4501;1.2411;
535.2000;0.4518;1.2486;
535.5000;0.4510;1.2436;
535.8000;0.4501;1.2411;
536.1000;0.4493;1.2411;
536.4000;0.4501;1.2386;
536.7000;0.4501;1.2436;
537.0000;0.4550;1.2461;
537.3000;0.4493;1.2361;
537.6000;0.4510;1.2486;
537.9000;0.4510;1.2486;
538.2000;0.4510;1.2461;
538.5000;0.4510;1.2361;
538.8000;0.4501;1.2386;
539.1000;0.4493;1.2287;
539.4000;0.4518;1.2436;
539.7000;0.4510;1.2486;
540.0000;0.4501;1.2486;
540.3000;0.4599;1.2735;
540.6000;0.4510;1.2536;
540.9000;0.4510;1.2486;
541.2000;0.4477;1.2311;
541.5000;0.4485;1.2361;
541.8000;0.4501;1.2386;
542.1000;0.4510;1.2436;
542.4000;0.4518;1.2536;
542.7000;0.4501;1.2511;
543.0000;0.4501;1.2461;
543.3000;0.4518;1.2361;
543.6000;0.4501;1.2311;
543.9000;0.4493;1.2311;
544.2000;0.4510;1.2336;
544.5000;0.4510;1.2287;
544.8000;0.4510;1.2361;
545.1000;0.4461;1.2336;
545.4000;0.4477;1.2561;
545.7000;0.4575;1.2710;
546.0000;0.4510;1.2561;
546.3000;0.4518;1.2610;
546.6000;0.4501;1.2536;
546.9000;0.4493;1.2461;
547.2000;0.4510;1.2561;
547.5000;0.4436;1.2336;
547.8000;0.4493;1.2511;
548.1000;0.4510;1.2486;
548.4000;0.4493;1.2386;
548.7000;0.4591;1.2610;
549.0000;0.4501;1.2361;
549.3000;0.4501;1.2336;
549.6000;0.4510;1.2386;
549.9000;0.4510;1.2411;
550.2000;0.4485;1.2386;
550.5000;0.4501;1.2436;
550.8000;0.4493;1.2436;
551.1000;0.4485;1.2336;
551.4000;0.4542;1.2561;
551.7000;0.4510;1.2486;
552.0000;0.4493;1.2561;
552.3000;0.4510;1.2586;
552.6000;0.4501;1.2436;
552.9000;0.4485;1.2461;
553.2000;0.4485;1.2536;
553.5000;0.4550;1.2710;
553.8000;0.4493;1.2536;
554.1000;0.4501;1.2561;
554.4000;0.4485;1.2436;
554.7000;0.4493;1.2411;
555.0000;0.4518;1.2411;
555.3000;0.4493;1.2361;
555.6000;0.4485;1.2336;
555.9000;0.4501;1.2336;
556.2000;0.4518;1.2436;
556.5000;0.4510;1.2511;
556.8000;0.4501;1.2586;
557.1000;0.4518;1.2561;
557.4000;0.4485;1.2511;
557.7000;0.4420;1.2311;
558.0000;0.4550;1.2685;
558.3000;0.4518;1.2635;
558.6000;0.4485;1.2511;
558.9000;0.4493;1.2536;
559.2000;0.4510;1.2536;
559.5000;0.4485;1.2561;
559.8000;0.4493;1.2610;
560.1000;0.4501;1.2635;
560.4000;0.4485;1.2561;
560.7000;0.4510;1.2561;
561.0000;0.4510;1.2511;
561.3000;0.4526;1.2436;
561.6000;0.4493;1.2287;
561.9000;0.4510;1.2336;
562.2000;0.4501;1.2287;
562.5000;0.4501;1.2436;
562.8000;0.4444;1.2212;
563.1000;0.4501;1.2411;
563.4000;0.4615;1.2760;
563.7000;0.4501;1.2436;
564.0000;0.4510;1.2461;
564.3000;0.4501;1.2511;
564.6000;0.4469;1.2386;
564.9000;0.4501;1.2486;
565.2000;0.4469;1.2411;
565.5000;0.4461;1.2237;
565.8000;0.4518;1.2311;
566.1000;0.4501;1.2361;
566.4000;0.4485;1.2436;
566.7000;0.4485;1.2436;
567.0000;0.4501;1.2311;
567.3000;0.4493;1.2287;
567.6000;0.4510;1.2361;
567.9000;0.4510;1.2411;
568.2000;0.4501;1.2287;
568.5000;0.4518;1.2386;
568.8000;0.4501;1.2386;
569.1000;0.4493;1.2336;
569.4000;0.4542;1.2536;
569.7000;0.4510;1.2486;
570.0000;0.4469;1.2287;
570.3000;0.4501;1.2411;
570.6000;0.4493;1.2336;
570.9000;0.4501;1.2461;
571.2000;0.4477;1.2436;
571.5000;0.4534;1.2536;
571.8000;0.4493;1.2486;
572.1000;0.4453;1.2287;
572.4000;0.4510;1.2386;
572.7000;0.4453;1.2187;
573.0000;0.4485;1.2411;
573.3000;0.4477;1.2461;
573.6000;0.4526;1.2610;
573.9000;0.4534;1.2586;
574.2000;0.4518;1.2436;
574.5000;0.4493;1.2386;
574.8000;0.4518;1.2461;
575.1000;0.4510;1.2486;
575.4000;0.4501;1.2411;
575.7000;0.4477;1.2336;
576.0000;0.4501;1.2461;
576.3000;0.4501;1.2386;
576.6000;0.4501;1.2486;
576.9000;0.4469;1.2411;
577.2000;0.4485;1.2461;
577.5000;0.4469;1.2411;
577.8000;0.4493;1.2511;
578.1000;0.4469;1.2411;
578.4000;0.4485;1.2336;
578.7000;0.4493;1.2411;
579.0000;0.4501;1.2461;
579.3000;0.4469;1.2336;
579.6000;0.4485;1.2336;
579.9000;0.4501;1.2411;
580.2000;0.4493;1.2411;
580.5000;0.4477;1.2436;
580.8000;0.4485;1.2486;
581.1000;0.4493;1.2486;
581.4000;0.4501;1.2561;
581.7000;0.4493;1.2561;
582.0000;0.4493;1.2586;
582.3000;0.4501;1.2660;
582.6000;0.4493;1.2660;
582.9000;0.4501;1.2660;
583.2000;0.4485;1.2561;
583.5000;0.4469;1.2436;
583.8000;0.4501;1.2411;
584.1000;0.4485;1.2436;
584.4000;0.4493;1.2386;
584.7000;0.4510;1.2461;
585.0000;0.4477;1.2486;
585.3000;0.4501;1.2461;
585.6000;0.4485;1.2386;
585.9000;0.4493;1.2336;
586.2000;0.4493;1.2361;
586.5000;0.4550;1.2536;
586.8000;0.4526;1.2486;
587.1000;0.4510;1.2536;
587.4000;0.4485;1.2461;
587.7000;0.4493;1.2511;
588.0000;0.4485;1.2536;
588.3000;0.4477;1.2586;
588.6000;0.4453;1.2386;
588.9000;0.4493;1.2486;
589.2000;0.4510;1.2486;
589.5000;0.4461;1.2311;
589.8000;0.4485;1.2411;
590.1000;0.4453;1.2311;
590.4000;0.4404;1.2361;
590.7000;0.4477;1.2536;
591.0000;0.4501;1.2610;
591.3000;0.4534;1.2710;
591.6000;0.4501;1.2685;
591.9000;0.4493;1.2635;
592.2000;0.4493;1.2635;
592.5000;0.4477;1.2561;
592.8000;0.4485;1.2635;
593.1000;0.4534;1.2685;
593.4000;0.4485;1.2511;
593.7000;0.4477;1.2511;
594.0000;0.4550;1.2635;
594.3000;0.4493;1.2586;
594.6000;0.4493;1.2536;
594.9000;0.4501;1.2486;
595.2000;0.4518;1.2486;
595.5000;0.4469;1.2336;
595.8000;0.4477;1.2287;
596.1000;0.4485;1.2287;
596.4000;0.4485;1.2311;
596.7000;0.4493;1.2436;
597.0000;0.4461;1.2336;
597.3000;0.4501;1.2386;
597.6000;0.4493;1.2287;
597.9000;0.4485;1.2212;
598.2000;0.4420;1.2087;
598.5000;0.4501;1.2287;
598.8000;0.4591;1.2610;
599.1000;0.4501;1.2411;
599.4000;0.4550;1.2610;
599.7000;0.4493;1.2411;
600.0000;0.4477;1.2386;
600.3000;0.4493;1.2411;
600.6000;0.4453;1.2262;
600.9000;0.4420;1.2062;
601.2000;0.4339;1.1788;
601.5000;0.4265;1.1489;
601.8000;0.4233;1.1339;
602.1000;0.4176;1.1140;
602.4000;0.4094;1.0866;
602.7000;0.4046;1.0692;
603.0000;0.4021;1.0517;
603.3000;0.3923;1.0268;
603.6000;0.3907;1.0268;
603.9000;0.3883;1.0168;
604.2000;0.3875;1.0068;
604.5000;0.3867;1.0044;
604.8000;0.3793;0.9894;
605.1000;0.3761;0.9794;
605.4000;0.3842;1.0044;
605.7000;0.3704;0.9695;
606.0000;0.3704;0.9720;
606.3000;0.3663;0.9570;
606.6000;0.3655;0.9495;
606.9000;0.3647;0.9371;
607.2000;0.3614;0.9246;
607.5000;0.3606;0.9196;
607.8000;0.3606;0.9171;
608.1000;0.3565;0.9072;
608.4000;0.3582;0.9097;
608.7000;0.3565;0.9196;
609.0000;0.3549;0.9121;
609.3000;0.3533;0.9072;
609.6000;0.3541;0.9047;
609.9000;0.3516;0.9047;
610.2000;0.3460;0.8723;
610.5000;0.3492;0.8872;
610.8000;0.3476;0.8897;
611.1000;0.3443;0.8847;
611.4000;0.3468;0.8972;
611.7000;0.3476;0.9022;
612.0000;0.3443;0.8997;
612.3000;0.3468;0.8972;
612.6000;0.3419;0.8947;
612.9000;0.3451;0.8897;
613.2000;0.3443;0.8847;
613.5000;0.3468;0.8897;
613.8000;0.3419;0.8797;
614.1000;0.3435;0.8897;
614.4000;0.3419;0.8847;
614.7000;0.3419;0.8822;
615.0000;0.3411;0.8822;
615.3000;0.3403;0.8847;
615.6000;0.3394;0.8797;
615.9000;0.3313;0.8573;
616.2000;0.3378;0.8773;
616.5000;0.3370;0.8723;
616.8000;0.3370;0.8748;
617.1000;0.3378;0.8872;
617.4000;0.3346;0.8797;
617.7000;0.3362;0.8822;
618.0000;0.3362;0.8797;
618.3000;0.3354;0.8897;
618.6000;0.3346;0.8972;
618.9000;0.3346;0.8972;
619.2000;0.3321;0.8997;
619.5000;0.3329;0.9072;
619.8000;0.3346;0.9097;
620.1000;0.3354;0.9121;
620.4000;0.3337;0.9121;
620.7000;0.3313;0.9022;
621.0000;0.3362;0.9097;
621.3000;0.3272;0.8797;
621.6000;0.3329;0.8997;
621.9000;0.3305;0.8972;
622.2000;0.3321;0.8972;
622.5000;0.3313;0.8947;
622.8000;0.3305;0.8847;
623.1000;0.3313;0.8847;
623.4000;0.3321;0.8972;
623.7000;0.3289;0.8847;
624.0000;0.3305;0.8847;
624.3000;0.3297;0.8847;
624.6000;0.3313;0.8897;
624.9000;0.3280;0.8847;
625.2000;0.3297;0.8773;
625.5000;0.3289;0.8847;
625.8000;0.3289;0.8947;
626.1000;0.3280;0.8922;
626.4000;0.3223;0.8748;
626.7000;0.3207;0.8623;
627.0000;0.3264;0.8723;
627.3000;0.3272;0.8773;
627.6000;0.3272;0.8723;
627.9000;0.3305;0.8748;
628.2000;0.3289;0.8723;
628.5000;0.3297;0.8847;
628.8000;0.3272;0.8773;
629.1000;0.3240;0.8748;
629.4000;0.3256;0.8748;
629.7000;0.3264;0.8748;
630.0000;0.3305;0.8872;
630.3000;0.3248;0.8698;
630.6000;0.3272;0.8698;
630.9000;0.3256;0.8698;
631.2000;0.3272;0.8748;
631.5000;0.3272;0.8648;
631.8000;0.3232;0.8598;
632.1000;0.3240;0.8598;
632.4000;0.3175;0.8374;
632.7000;0.3223;0.8548;
633.0000;0.3248;0.8648;
633.3000;0.3232;0.8598;
633.6000;0.3240;0.8573;
633.9000;0.3215;0.8473;
634.2000;0.3289;0.8698;
634.5000;0.3232;0.8573;
634.8000;0.3240;0.8623;
635.1000;0.3223;0.8573;
635.4000;0.3150;0.8224;
635.7000;0.3240;0.8473;
636.0000;0.3223;0.8449;
636.3000;0.3215;0.8399;
636.6000;0.3223;0.8399;
636.9000;0.3223;0.8399;
637.2000;0.3215;0.8424;
637.5000;0.3232;0.8473;
637.8000;0.3199;0.8498;
638.1000;0.3215;0.8523;
638.4000;0.3240;0.8548;
638.7000;0.3215;0.8498;
639.0000;0.3223;0.8623;
639.3000;0.3223;0.8648;
639.6000;0.3215;0.8623;
639.9000;0.3191;0.8523;
640.2000;0.3215;0.8598;
640.5000;0.3215;0.8623;
640.8000;0.3175;0.8598;
641.1000;0.3199;0.8723;
641.4000;0.3191;0.8723;
641.7000;0.3199;0.8797;
642.0000;0.3109;0.8523;
642.3000;0.3191;0.8748;
642.6000;0.3191;0.8847;
642.9000;0.3191;0.8797;
643.2000;0.3166;0.8648;
643.5000;0.3191;0.8698;
643.8000;0.3191;0.8723;
644.1000;0.3175;0.8698;
644.4000;0.3166;0.8648;
644.7000;0.3207;0.8673;
645.0000;0.3199;0.8773;
645.3000;0.3199;0.8773;
645.6000;0.3191;0.8797;
645.9000;0.3175;0.8822;
646.2000;0.3191;0.8723;
646.5000;0.3183;0.8723;
646.8000;0.3150;0.8623;
647.1000;0.3248;0.8872;
647.4000;0.3150;0.8673;
647.7000;0.3166;0.8897;
648.0000;0.3175;0.8997;
648.3000;0.3126;0.8847;
648.6000;0.3158;0.8872;
648.9000;0.3183;0.8872;
649.2000;0.3183;0.8897;
649.5000;0.3175;0.8773;
649.8000;0.3175;0.8797;
650.1000;0.3175;0.8748;
650.4000;0.3150;0.8698;
650.7000;0.3183;0.8723;
651.0000;0.3166;0.8748;
651.3000;0.3166;0.8847;
651.6000;0.3183;0.8947;
651.9000;0.3150;0.8847;
652.2000;0.3158;0.8847;
652.5000;0.3150;0.8773;
652.8000;0.3183;0.8847;
653.1000;0.3158;0.8847;
653.4000;0.3142;0.8822;
653.7000;0.3142;0.8947;
654.0000;0.3150;0.8997;
654.3000;0.3134;0.8897;
654.6000;0.3142;0.8897;
654.9000;0.3142;0.8947;
655.2000;0.3191;0.9047;
655.5000;0.3166;0.8922;
655.8000;0.3126;0.8872;
656.1000;0.3142;0.8797;
656.4000;0.3150;0.8897;
656.7000;0.3142;0.8847;
657.0000;0.3109;0.8748;
657.3000;0.3118;0.8723;
657.6000;0.3150;0.8822;
657.9000;0.3191;0.8997;
658.2000;0.3150;0.8922;
658.5000;0.3126;0.8822;
658.8000;0.3150;0.8797;
659.1000;0.3118;0.8723;
659.4000;0.3207;0.8972;
659.7000;0.3126;0.8773;
660.0000;0.3142;0.8822;
660.3000;0.3134;0.8997;
660.6000;0.3134;0.8897;
660.9000;0.3126;0.8897;
661.2000;0.3142;0.8947;
661.5000;0.3101;0.8872;
661.8000;0.3166;0.8897;
662.1000;0.3142;0.8922;
662.4000;0.3118;0.9047;
662.7000;0.3126;0.9072;
663.0000;0.3142;0.9097;
663.3000;0.3134;0.9047;
663.6000;0.3118;0.8922;
663.9000;0.3142;0.8872;
664.2000;0.3142;0.8797;
664.5000;0.3061;0.8523;
664.8000;0.3118;0.8673;
665.1000;0.3134;0.8723;
665.4000;0.3142;0.8723;
665.7000;0.3134;0.8698;
666.0000;0.3109;0.8673;
666.3000;0.3142;0.8797;
666.6000;0.3036;0.8523;
666.9000;0.3101;0.8748;
667.2000;0.3158;0.8922;
667.5000;0.3061;0.8598;
667.8000;0.3134;0.8773;
668.1000;0.3101;0.8648;
668.4000;0.3093;0.8573;
668.7000;0.3134;0.8698;
669.0000;0.3134;0.8748;
669.3000;0.3134;0.8797;
669.6000;0.3101;0.8723;
669.9000;0.3012;0.8349;
670.2000;0.3069;0.8523;
670.5000;0.3118;0.8673;
670.8000;0.3093;0.8598;
671.1000;0.3126;0.8748;
671.4000;0.3126;0.8773;
671.7000;0.3109;0.8623;
672.0000;0.3118;0.8623;
672.3000;0.3085;0.8598;
672.6000;0.3109;0.8673;
672.9000;0.3199;0.8872;
673.2000;0.3118;0.8748;
673.5000;0.3118;0.8723;
673.8000;0.3118;0.8648;
674.1000;0.3109;0.8723;
674.4000;0.3101;0.8797;
674.7000;0.3093;0.8773;
675.0000;0.3126;0.8773;
675.3000;0.3101;0.8748;
675.6000;0.3101;0.8748;
675.9000;0.3126;0.8773;
676.2000;0.3093;0.8797;
676.5000;0.3085;0.8872;
676.8000;0.3118;0.8972;
677.1000;0.3118;0.8947;
677.4000;0.3109;0.8897;
677.7000;0.3118;0.8897;
678.0000;0.3109;0.8922;
678.3000;0.3101;0.8972;
678.6000;0.3118;0.8997;
678.9000;0.3093;0.9022;
679.2000;0.3101;0.9121;
679.5000;0.3085;0.8897;
679.8000;0.3085;0.8922;
680.1000;0.3093;0.8972;
680.4000;0.3077;0.8922;
680.7000;0.3101;0.8947;
681.0000;0.3085;0.8997;
681.3000;0.3085;0.9072;
681.6000;0.3085;0.9121;
681.9000;0.3077;0.9097;
682.2000;0.3077;0.8972;
682.5000;0.3077;0.8972;
682.8000;0.3101;0.8947;
683.1000;0.3109;0.8972;
683.4000;0.3044;0.8822;
683.7000;0.3093;0.8997;
684.0000;0.3093;0.8922;
684.3000;0.3093;0.8822;
684.6000;0.3085;0.8723;
684.9000;0.3077;0.8698;
685.2000;0.3069;0.8723;
685.5000;0.3134;0.8897;
685.8000;0.3101;0.8847;
686.1000;0.3093;0.8822;
686.4000;0.3101;0.8723;
686.7000;0.3085;0.8698;
687.0000;0.3101;0.8797;
687.3000;0.3093;0.8723;
687.6000;0.3109;0.8773;
687.9000;0.3093;0.8748;
688.2000;0.3077;0.8773;
688.5000;0.3085;0.8822;
688.8000;0.3061;0.8797;
689.1000;0.3093;0.8897;
689.4000;0.3093;0.8947;
689.7000;0.3053;0.8872;
690.0000;0.3069;0.8897;
690.3000;0.3053;0.8822;
690.6000;0.3020;0.8723;
690.9000;0.3069;0.8773;
691.2000;0.3053;0.8673;
691.5000;0.3142;0.8773;
691.8000;0.3077;0.8548;
692.1000;0.3109;0.8648;
692.4000;0.3004;0.8374;
692.7000;0.3061;0.8523;
693.0000;0.3061;0.8548;
693.3000;0.3077;0.8598;
693.6000;0.3061;0.8648;
693.9000;0.3061;0.8698;
694.2000;0.3069;0.8773;
694.5000;0.3069;0.8723;
694.8000;0.3069;0.8698;
695.1000;0.3061;0.8623;
695.4000;0.3012;0.8548;
695.7000;0.3061;0.8698;
696.0000;0.3061;0.8723;
696.3000;0.3069;0.8773;
696.6000;0.3069;0.8748;
696.9000;0.3061;0.8773;
697.2000;0.3061;0.8797;
697.5000;0.3044;0.8797;
697.8000;0.3093;0.8897;
698.1000;0.3077;0.8872;
698.4000;0.3093;0.8897;
698.7000;0.3077;0.8897;
699.0000;0.3134;0.8972;
699.3000;0.3077;0.8822;
699.6000;0.3077;0.8698;
699.9000;0.3069;0.8598;
700.2000;0.3069;0.8623;
700.5000;0.3061;0.8673;
700.8000;0.3069;0.8698;
701.1000;0.3069;0.8872;
701.4000;0.3101;0.8997;
701.7000;0.3053;0.8773;
702.0000;0.3085;0.8797;
702.3000;0.3077;0.8797;
702.6000;0.3085;0.8797;
702.9000;0.3061;0.8797;
703.2000;0.3093;0.8947;
703.5000;0.3044;0.8797;
703.8000;0.3053;0.8822;
704.1000;0.3069;0.8872;
704.4000;0.3069;0.8822;
704.7000;0.3093;0.8822;
705.0000;0.3101;0.8847;
705.3000;0.3061;0.8822;
705.6000;0.3028;0.8773;
705.9000;0.3061;0.8847;
706.2000;0.3061;0.8822;
706.5000;0.3036;0.8773;
706.8000;0.3044;0.8797;
707.1000;0.3061;0.8922;
707.4000;0.3036;0.8897;
707.7000;0.3053;0.8847;
708.0000;0.3020;0.8723;
708.3000;0.3044;0.8872;
708.6000;0.3053;0.8897;
708.9000;0.3061;0.8922;
709.2000;0.3093;0.8947;
709.5000;0.3004;0.8648;
709.8000;0.3053;0.8723;
710.1000;0.3036;0.8723;
710.4000;0.3044;0.8748;
710.7000;0.3044;0.8872;
711.0000;0.3061;0.9022;
711.3000;0.3044;0.8972;
711.6000;0.3053;0.8972;
711.9000;0.3053;0.8922;
712.2000;0.3061;0.8872;
712.5000;0.3069;0.8872;
712.8000;0.3069;0.8897;
713.1000;0.3053;0.8872;
713.4000;0.3044;0.8723;
713.7000;0.3044;0.8822;
714.0000;0.3053;0.8822;
714.3000;0.3044;0.8872;
714.6000;0.3118;0.9022;
714.9000;0.3053;0.8897;
715.2000;0.3044;0.8847;
715.5000;0.3053;0.8897;
715.8000;0.3036;0.8847;
716.1000;0.3036;0.8748;
716.4000;0.3061;0.8797;
716.7000;0.3044;0.8797;
717.0000;0.3053;0.8797;
717.3000;0.3061;0.8847;
717.6000;0.3061;0.8797;
717.9000;0.3061;0.8797;
718.2000;0.3028;0.8748;
718.5000;0.3044;0.8822;
718.8000;0.3044;0.8748;
719.1000;0.3036;0.8748;
719.4000;0.3036;0.8897;
719.7000;0.3044;0.8897;
720.0000;0.3036;0.8947;
720.3000;0.3053;0.8997;
720.6000;0.3036;0.8997;
720.9000;0.3028;0.9047;
721.2000;0.3028;0.9072;
721.5000;0.3036;0.8997;
721.8000;0.3044;0.8922;
722.1000;0.3036;0.8897;
722.4000;0.3012;0.8847;
722.7000;0.3044;0.8947;
723.0000;0.3020;0.8947;
723.3000;0.3036;0.9072;
723.6000;0.3036;0.9047;
723.9000;0.3044;0.9022;
724.2000;0.3044;0.8972;
724.5000;0.3069;0.8972;
724.8000;0.3093;0.9047;
725.1000;0.3036;0.8922;
725.4000;0.3036;0.8922;
725.7000;0.3053;0.8897;
726.0000;0.3020;0.8822;
726.3000;0.3028;0.8723;
726.6000;0.3061;0.8723;
726.9000;0.2996;0.8598;
727.2000;0.3069;0.8897;
727.5000;0.3044;0.8847;
727.8000;0.3036;0.8822;
728.1000;0.2996;0.8822;
728.4000;0.2947;0.8648;
728.7000;0.3028;0.8847;
729.0000;0.3053;0.8972;
729.3000;0.3036;0.8897;
729.6000;0.3028;0.8922;
729.9000;0.3044;0.8997;
730.2000;0.2996;0.8822;
730.5000;0.3028;0.8872;
730.8000;0.3053;0.8872;
731.1000;0.3044;0.8847;
731.4000;0.3020;0.8773;
731.7000;0.3028;0.8773;
732.0000;0.3028;0.8822;
732.3000;0.3044;0.8872;
732.6000;0.3004;0.8723;
732.9000;0.3028;0.8822;
733.2000;0.3004;0.8797;
733.5000;0.3085;0.9022;
733.8000;0.3061;0.8997;
734.1000;0.3061;0.8972;
734.4000;0.3044;0.8922;
734.7000;0.3044;0.8972;
735.0000;0.3036;0.9097;
735.3000;0.3044;0.8972;
735.6000;0.3028;0.8972;
735.9000;0.3053;0.9047;
736.2000;0.3020;0.8922;
736.5000;0.3028;0.8922;
736.8000;0.3028;0.8897;
737.1000;0.3028;0.8922;
737.4000;0.3061;0.8997;
737.7000;0.3028;0.8947;
738.0000;0.3020;0.8997;
738.3000;0.3036;0.9146;
738.6000;0.3020;0.9097;
738.9000;0.3036;0.9171;
739.2000;0.3044;0.9146;
739.5000;0.3004;0.9072;
739.8000;0.3053;0.9246;
740.1000;0.3036;0.9271;
740.4000;0.3012;0.9146;
740.7000;0.3028;0.9121;
741.0000;0.3020;0.9022;
741.3000;0.3020;0.9022;
741.6000;0.3028;0.9047;
741.9000;0.3012;0.8922;
742.2000;0.3028;0.8972;
742.5000;0.3020;0.8972;
742.8000;0.2979;0.8897;
743.1000;0.3044;0.9022;
743.4000;0.3061;0.9121;
743.7000;0.3012;0.8947;
744.0000;0.3028;0.8922;
744.3000;0.3012;0.8872;
744.6000;0.2996;0.8797;
744.9000;0.3028;0.8822;
745.2000;0.3020;0.8797;
745.5000;0.3028;0.8773;
745.8000;0.3012;0.8748;
746.1000;0.3012;0.8847;
746.4000;0.3028;0.8897;
746.7000;0.3020;0.8947;
747.0000;0.3020;0.8922;
747.3000;0.3004;0.8897;
747.6000;0.3012;0.8947;
747.9000;0.3028;0.9072;
748.2000;0.3020;0.9022;
748.5000;0.3020;0.8997;
748.8000;0.3028;0.8922;
749.1000;0.3085;0.9121;
749.4000;0.3020;0.8947;
749.7000;0.3020;0.8947;
750.0000;0.3012;0.8872;
750.3000;0.3028;0.8922;
750.6000;0.3020;0.8947;
750.9000;0.3020;0.8997;
751.2000;0.3036;0.9022;
751.5000;0.3020;0.8947;
751.8000;0.3012;0.8947;
752.1000;0.3020;0.8997;
752.4000;0.3004;0.8897;
752.7000;0.3020;0.8897;
753.0000;0.3012;0.8897;
753.3000;0.3020;0.8997;
753.6000;0.3012;0.8922;
753.9000;0.3012;0.8922;
754.2000;0.3061;0.8997;
754.5000;0.3020;0.8897;
754.8000;0.2987;0.8822;
755.1000;0.3004;0.8773;
755.4000;0.3012;0.8822;
755.7000;0.3004;0.8822;
756.0000;0.3028;0.8797;
756.3000;0.3020;0.8847;
756.6000;0.3004;0.8723;
756.9000;0.3012;0.8773;
757.2000;0.3012;0.8748;
757.5000;0.3012;0.8723;
757.8000;0.2996;0.8698;
758.1000;0.3012;0.8723;
758.4000;0.3012;0.8822;
758.7000;0.3020;0.8872;
759.0000;0.3012;0.8922;
759.3000;0.3020;0.8922;
759.6000;0.3020;0.8972;
759.9000;0.3012;0.8997;
760.2000;0.3028;0.9072;
760.5000;0.3020;0.9072;
760.8000;0.3061;0.9121;
761.1000;0.2979;0.8897;
761.4000;0.3036;0.8997;
761.7000;0.2947;0.8748;
762.0000;0.3012;0.8947;
762.3000;0.2979;0.8897;
762.6000;0.2996;0.8897;
762.9000;0.3036;0.9146;
763.2000;0.2955;0.8822;
763.5000;0.3020;0.9022;
763.8000;0.3004;0.8997;
764.1000;0.3012;0.9047;
764.4000;0.2955;0.8947;
764.7000;0.3004;0.8997;
765.0000;0.2987;0.8872;
765.3000;0.3020;0.8922;
765.6000;0.3012;0.8947;
765.9000;0.3020;0.8922;
766.2000;0.2996;0.8872;
766.5000;0.2996;0.8847;
766.8000;0.2971;0.8723;
767.1000;0.3028;0.8947;
767.4000;0.3004;0.8972;
767.7000;0.3044;0.8997;
768.0000;0.2987;0.8922;
768.3000;0.3004;0.8897;
768.6000;0.3004;0.8847;
768.9000;0.3004;0.8922;
769.2000;0.3020;0.8922;
769.5000;0.2947;0.8698;
769.8000;0.3028;0.8922;
770.1000;0.3012;0.8847;
770.4000;0.3012;0.8822;
770.7000;0.3012;0.8897;
771.0000;0.2996;0.8872;
771.3000;0.3004;0.8822;
771.6000;0.2996;0.8748;
771.9000;0.2971;0.8673;
772.2000;0.3020;0.8847;
772.5000;0.3012;0.8872;
772.8000;0.3020;0.8922;
773.1000;0.3012;0.8897;
773.4000;0.3020;0.8997;
773.7000;0.2996;0.9097;
774.0000;0.3004;0.9121;
774.3000;0.3020;0.9171;
774.6000;0.3012;0.9171;
774.9000;0.2955;0.9072;
775.2000;0.3004;0.9097;
775.5000;0.3012;0.9146;
775.8000;0.2971;0.8947;
776.1000;0.3020;0.9022;
776.4000;0.3004;0.8972;
776.7000;0.3004;0.9022;
777.0000;0.2996;0.8947;
777.3000;0.3004;0.8897;
777.6000;0.3004;0.8847;
777.9000;0.3012;0.8847;
778.2000;0.3012;0.8822;
778.5000;0.3020;0.8872;
778.8000;0.3020;0.8997;
779.1000;0.3012;0.8997;
779.4000;0.2996;0.9097;
779.7000;0.3004;0.9121;
780.0000;0.3004;0.9121;
780.3000;0.3020;0.9121;
780.6000;0.3077;0.9221;
780.9000;0.2996;0.9072;
781.2000;0.2996;0.8997;
781.5000;0.3020;0.8947;
781.8000;0.3004;0.9047;
782.1000;0.2996;0.9047;
782.4000;0.3012;0.8972;
782.7000;0.3004;0.8922;
783.0000;0.3004;0.8922;
783.3000;0.3012;0.8922;
783.6000;0.2996;0.8922;
783.9000;0.2971;0.8972;
784.2000;0.2996;0.9047;
784.5000;0.3004;0.8972;
784.8000;0.3004;0.8872;
785.1000;0.2996;0.8872;
785.4000;0.2987;0.8872;
785.7000;0.3004;0.8922;
786.0000;0.2955;0.8822;
786.3000;0.3126;0.9246;
786.6000;0.2996;0.8922;
786.9000;0.3004;0.9022;
787.2000;0.2987;0.9097;
787.5000;0.2987;0.9171;
787.8000;0.2963;0.9072;
788.1000;0.2987;0.9146;
788.4000;0.2947;0.9097;
788.7000;0.2996;0.9146;
789.0000;0.2987;0.9146;
789.3000;0.3004;0.9171;
789.6000;0.2996;0.9146;
789.9000;0.3004;0.9097;
790.2000;0.2987;0.9047;
790.5000;0.2955;0.8997;
790.8000;0.2996;0.9097;
791.1000;0.2996;0.9022;
791.4000;0.3004;0.8972;
791.7000;0.3004;0.9022;
792.0000;0.2996;0.8997;
792.3000;0.3004;0.9121;
792.6000;0.3004;0.9121;
792.9000;0.2996;0.9072;
793.2000;0.2979;0.8997;
793.5000;0.2996;0.8972;
793.8000;0.2971;0.8897;
794.1000;0.2987;0.8947;
794.4000;0.2996;0.8897;
794.7000;0.2987;0.8922;
795.0000;0.2979;0.8922;
795.3000;0.3004;0.8947;
795.6000;0.3004;0.8847;
795.9000;0.2996;0.8797;
796.2000;0.3012;0.8897;
796.5000;0.2979;0.8847;
796.8000;0.2898;0.8673;
797.1000;0.2987;0.8897;
797.4000;0.3012;0.8947;
797.7000;0.2971;0.8872;
798.0000;0.2996;0.8972;
798.3000;0.2996;0.8947;
798.6000;0.3004;0.8997;
798.9000;0.2996;0.8947;
799.2000;0.2930;0.8748;
799.5000;0.2996;0.9047;
799.8000;0.2987;0.9047;
800.1000;0.2987;0.9047;
800.4000;0.2996;0.8997;
800.7000;0.2979;0.8872;
801.0000;0.2955;0.8797;
801.3000;0.2996;0.8872;
801.6000;0.3028;0.8947;
801.9000;0.2971;0.8748;
802.2000;0.2979;0.8748;
802.5000;0.3004;0.8797;
802.8000;0.2971;0.8748;
803.1000;0.2987;0.8773;
803.4000;0.2963;0.8723;
803.7000;0.2971;0.8723;
804.0000;0.2971;0.8698;
804.3000;0.2987;0.8773;
804.6000;0.2996;0.8797;
804.9000;0.2996;0.8797;
805.2000;0.2996;0.8773;
805.5000;0.2996;0.8773;
805.8000;0.2996;0.8797;
806.1000;0.2987;0.8922;
806.4000;0.2987;0.8947;
806.7000;0.2979;0.8997;
807.0000;0.3012;0.9097;
807.3000;0.2979;0.9171;
807.6000;0.2987;0.9121;
807.9000;0.2979;0.9121;
808.2000;0.2971;0.9072;
808.5000;0.2996;0.9146;
808.8000;0.2987;0.9097;
809.1000;0.2996;0.9146;
809.4000;0.3020;0.9221;
809.7000;0.2979;0.9146;
810.0000;0.3020;0.9246;
810.3000;0.2987;0.9196;
810.6000;0.2987;0.9271;
810.9000;0.2939;0.9196;
811.2000;0.2987;0.9296;
811.5000;0.2987;0.9171;
811.8000;0.2979;0.9196;
812.1000;0.2979;0.9146;
812.4000;0.3061;0.9396;
812.7000;0.3077;0.9520;
813.0000;0.2987;0.9246;
813.3000;0.2979;0.9346;
813.6000;0.2996;0.9246;
813.9000;0.2979;0.9121;
814.2000;0.2979;0.9146;
814.5000;0.2922;0.8972;
814.8000;0.2987;0.9121;
815.1000;0.2971;0.9146;
815.4000;0.3028;0.9296;
815.7000;0.3061;0.9371;
816.0000;0.2996;0.9146;
816.3000;0.2996;0.9121;
816.6000;0.2996;0.9171;
816.9000;0.2987;0.9196;
817.2000;0.2979;0.9196;
817.5000;0.2996;0.9246;
817.8000;0.2996;0.9171;
818.1000;0.2971;0.9171;
818.4000;0.2987;0.9146;
818.7000;0.2987;0.9146;
819.0000;0.3004;0.9196;
819.3000;0.2979;0.9196;
819.6000;0.3004;0.9221;
819.9000;0.2987;0.9097;
820.2000;0.3036;0.9246;
820.5000;0.2996;0.9196;
820.8000;0.2996;0.9221;
821.1000;0.2996;0.9246;
821.4000;0.2971;0.9246;
821.7000;0.3004;0.9271;
822.0000;0.2971;0.9171;
822.3000;0.3020;0.9321;
822.6000;0.2955;0.9246;
822.9000;0.2987;0.9321;
823.2000;0.2996;0.9371;
823.5000;0.2963;0.9321;
823.8000;0.2971;0.9246;
824.1000;0.3020;0.9445;
824.4000;0.2987;0.9321;
824.7000;0.2963;0.9346;
825.0000;0.2963;0.9321;
825.3000;0.2971;0.9221;
825.6000;0.3004;0.9246;
825.9000;0.2963;0.9146;
826.2000;0.2987;0.9271;
826.5000;0.2979;0.9296;
826.8000;0.2971;0.9121;
827.1000;0.2971;0.9047;
827.4000;0.2971;0.9022;
827.7000;0.2963;0.8997;
828.0000;0.2971;0.9022;
828.3000;0.2963;0.9022;
828.6000;0.2971;0.9121;
828.9000;0.2971;0.9097;
829.2000;0.2979;0.9146;
829.5000;0.2979;0.9121;
829.8000;0.2955;0.9097;
830.1000;0.2979;0.9146;
830.4000;0.2996;0.9146;
830.7000;0.2979;0.9196;
831.0000;0.2947;0.9097;
831.3000;0.2971;0.9196;
831.6000;0.3004;0.9271;
831.9000;0.2996;0.9246;
832.2000;0.2987;0.9221;
832.5000;0.2979;0.9146;
832.8000;0.2996;0.9097;
833.1000;0.2971;0.9146;
833.4000;0.2987;0.9146;
833.7000;0.2963;0.9072;
834.0000;0.2996;0.9171;
834.3000;0.2979;0.9121;
834.6000;0.2996;0.9171;
834.9000;0.2987;0.9121;
835.2000;0.3044;0.9346;
835.5000;0.2955;0.9121;
835.8000;0.2906;0.9047;
836.1000;0.2963;0.9221;
836.4000;0.3053;0.9445;
836.7000;0.2979;0.9321;
837.0000;0.2979;0.9271;
837.3000;0.2987;0.9246;
837.6000;0.2971;0.9321;
837.9000;0.2963;0.9296;
838.2000;0.2987;0.9321;
838.5000;0.2914;0.9146;
838.8000;0.2955;0.9221;
839.1000;0.2963;0.9271;
839.4000;0.2979;0.9321;
839.7000;0.2987;0.9321;
840.0000;0.2987;0.9346;
840.3000;0.2979;0.9271;
840.6000;0.2906;0.9121;
840.9000;0.2987;0.9346;
841.2000;0.2987;0.9296;
841.5000;0.2963;0.9196;
841.8000;0.2979;0.9196;
842.1000;0.2987;0.9221;
842.4000;0.2971;0.9246;
842.7000;0.2955;0.9221;
843.0000;0.2963;0.9296;
843.3000;0.2979;0.9321;
843.6000;0.2971;0.9296;
843.9000;0.2971;0.9271;
844.2000;0.2987;0.9196;
844.5000;0.2979;0.9196;
844.8000;0.2979;0.9271;
845.1000;0.3028;0.9445;
845.4000;0.2979;0.9346;
845.7000;0.3020;0.9495;
846.0000;0.2963;0.9371;
846.3000;0.2955;0.9271;
846.6000;0.2955;0.9246;
846.9000;0.2955;0.9196;
847.2000;0.2963;0.9146;
847.5000;0.2971;0.9221;
847.8000;0.2979;0.9146;
848.1000;0.2963;0.9146;
848.4000;0.2971;0.9146;
848.7000;0.2955;0.9072;
849.0000;0.2963;0.9047;
849.3000;0.2963;0.9097;
849.6000;0.2971;0.9097;
849.9000;0.2979;0.9146;
850.2000;0.2971;0.9196;
850.5000;0.2963;0.9221;
850.8000;0.2979;0.9246;
851.1000;0.2979;0.9171;
851.4000;0.2979;0.9146;
851.7000;0.2979;0.9072;
852.0000;0.2971;0.9097;
852.3000;0.2996;0.9121;
852.6000;0.2963;0.9146;
852.9000;0.2963;0.9097;
853.2000;0.2963;0.9146;
853.5000;0.2971;0.9196;
853.8000;0.2963;0.9171;
854.1000;0.2963;0.9196;
854.4000;0.2955;0.9196;
854.7000;0.2979;0.9171;
855.0000;0.2947;0.9171;
855.3000;0.2955;0.9271;
855.6000;0.2963;0.9221;
855.9000;0.2987;0.9196;
856.2000;0.3020;0.9321;
856.5000;0.2971;0.9171;
856.8000;0.2882;0.8972;
857.1000;0.2987;0.9271;
857.4000;0.2963;0.9196;
857.7000;0.2963;0.9146;
858.0000;0.2963;0.9097;
858.3000;0.2963;0.9121;
858.6000;0.2963;0.9171;
858.9000;0.2963;0.9171;
859.2000;0.2955;0.9121;
859.5000;0.2963;0.9121;
859.8000;0.2979;0.9097;
860.1000;0.2971;0.9022;
860.4000;0.2971;0.8947;
860.7000;0.2947;0.8922;
861.0000;0.2979;0.8947;
861.3000;0.2971;0.8922;
861.6000;0.2947;0.8847;
861.9000;0.2963;0.8972;
862.2000;0.2963;0.9047;
862.5000;0.2971;0.9072;
862.8000;0.2971;0.9072;
863.1000;0.2955;0.9022;
863.4000;0.2963;0.9146;
863.7000;0.2930;0.8997;
864.0000;0.2971;0.9047;
864.3000;0.2955;0.9097;
864.6000;0.2971;0.9171;
864.9000;0.2979;0.9171;
865.2000;0.2987;0.9121;
865.5000;0.3044;0.9271;
865.8000;0.2971;0.9097;
866.1000;0.2979;0.9146;
866.4000;0.2979;0.9146;
866.7000;0.2971;0.8972;
867.0000;0.2971;0.8947;
867.3000;0.2963;0.8922;
867.6000;0.2890;0.8773;
867.9000;0.2979;0.8997;
868.2000;0.3004;0.9097;
868.5000;0.2971;0.9022;
868.8000;0.2963;0.8997;
869.1000;0.2963;0.8947;
869.4000;0.2947;0.8997;
869.7000;0.2971;0.9072;
870.0000;0.2955;0.9171;
870.3000;0.2939;0.9121;
870.6000;0.2947;0.9121;
870.9000;0.2963;0.9171;
871.2000;0.2947;0.9121;
871.5000;0.2971;0.9022;
871.8000;0.3012;0.9146;
872.1000;0.2955;0.8972;
872.4000;0.2947;0.8897;
872.7000;0.2979;0.8947;
873.0000;0.2963;0.8947;
873.3000;0.2898;0.8797;
873.6000;0.3020;0.9121;
873.9000;0.2947;0.8897;
874.2000;0.2971;0.8897;
874.5000;0.2963;0.8847;
874.8000;0.2963;0.8773;
875.1000;0.2971;0.8847;
875.4000;0.2947;0.8872;
875.7000;0.3004;0.9097;
876.0000;0.2979;0.8922;
876.3000;0.2947;0.8922;
876.6000;0.2963;0.8947;
876.9000;0.2955;0.8872;
877.2000;0.2955;0.8897;
877.5000;0.2955;0.8872;
877.8000;0.2939;0.8847;
878.1000;0.2947;0.8897;
878.4000;0.2971;0.8872;
878.7000;0.2947;0.8872;
879.0000;0.2971;0.8897;
879.3000;0.2930;0.8822;
879.6000;0.2955;0.8822;
879.9000;0.2987;0.8822;
880.2000;0.2963;0.8797;
880.5000;0.2971;0.8748;
880.8000;0.2955;0.8723;
881.1000;0.2955;0.8723;
881.4000;0.2963;0.8548;
881.7000;0.2947;0.8473;
882.0000;0.2955;0.8473;
882.3000;0.2947;0.8548;
882.6000;0.2963;0.8648;
882.9000;0.2947;0.8598;
883.2000;0.2979;0.8872;
883.5000;0.2947;0.8797;
883.8000;0.3012;0.9022;
884.1000;0.2947;0.8897;
884.4000;0.2963;0.8748;
884.7000;0.2939;0.8723;
885.0000;0.2971;0.8797;
885.3000;0.2947;0.8822;
885.6000;0.2963;0.8847;
885.9000;0.2955;0.8847;
886.2000;0.2963;0.8797;
886.5000;0.2971;0.8797;
886.8000;0.2963;0.8822;
887.1000;0.2971;0.8922;
887.4000;0.2963;0.8947;
887.7000;0.2922;0.8897;
888.0000;0.2963;0.8997;
888.3000;0.2963;0.9072;
888.6000;0.2939;0.9072;
888.9000;0.2947;0.9121;
889.2000;0.2963;0.9221;
889.5000;0.2947;0.9121;
889.8000;0.2963;0.9047;
890.1000;0.2963;0.8997;
890.4000;0.2939;0.8997;
890.7000;0.2963;0.9097;
891.0000;0.2971;0.8997;
891.3000;0.2996;0.8972;
891.6000;0.2930;0.8748;
891.9000;0.2987;0.8922;
892.2000;0.2955;0.8922;
892.5000;0.2979;0.9022;
892.8000;0.2963;0.8972;
893.1000;0.2955;0.8972;
893.4000;0.2865;0.8748;
893.7000;0.2930;0.8922;
894.0000;0.2963;0.9022;
894.3000;0.3069;0.9246;
894.6000;0.2939;0.8997;
894.9000;0.2947;0.9022;
895.2000;0.2963;0.9047;
895.5000;0.2963;0.9072;
895.8000;0.2947;0.9072;
896.1000;0.2963;0.8972;
896.4000;0.2971;0.9047;
896.7000;0.2955;0.8997;
897.0000;0.2963;0.9072;
897.3000;0.2955;0.8997;
897.6000;0.2947;0.8997;
897.9000;0.2963;0.9022;
898.2000;0.2963;0.9047;
898.5000;0.2939;0.8997;
898.8000;0.2987;0.9196;
899.1000;0.2963;0.9221;
899.4000;0.2979;0.9196;
899.7000;0.2906;0.9047;
900.0000;0.2971;0.9171;
900.3000;0.2971;0.9171;
900.6000;0.2987;0.9097;
900.9000;0.2979;0.9121;
901.2000;0.2955;0.9022;
901.5000;0.2963;0.8997;
901.8000;0.2971;0.8922;
902.1000;0.2947;0.8797;
902.4000;0.2955;0.8872;
902.7000;0.2955;0.8897;
903.0000;0.2939;0.8947;
903.3000;0.2963;0.9146;
903.6000;0.2955;0.9121;
903.9000;0.2890;0.8897;
904.2000;0.2955;0.9171;
904.5000;0.2987;0.9296;
904.8000;0.2955;0.9246;
905.1000;0.2914;0.8972;
905.4000;0.2971;0.9146;
905.7000;0.2963;0.9121;
906.0000;0.2955;0.9072;
906.3000;0.2914;0.8997;
906.6000;0.2955;0.9047;
906.9000;0.2979;0.9072;
907.2000;0.2955;0.8997;
907.5000;0.2939;0.8947;
907.8000;0.2882;0.8673;
908.1000;0.2955;0.8947;
908.4000;0.2906;0.8822;
908.7000;0.2955;0.8897;
909.0000;0.2955;0.8947;
909.3000;0.2963;0.9022;
909.6000;0.2963;0.8947;
909.9000;0.2955;0.8922;
910.2000;0.2963;0.8947;
910.5000;0.2971;0.8922;
910.8000;0.2963;0.8897;
911.1000;0.2955;0.8897;
911.4000;0.2963;0.8972;
911.7000;0.2971;0.8997;
912.0000;0.2955;0.9022;
912.3000;0.2947;0.9047;
912.6000;0.2939;0.8972;
912.9000;0.2955;0.9022;
913.2000;0.2963;0.9047;
913.5000;0.2979;0.8997;
913.8000;0.2955;0.9047;
914.1000;0.2955;0.9072;
914.4000;0.2987;0.9146;
914.7000;0.2939;0.9121;
915.0000;0.2955;0.9121;
915.3000;0.2890;0.8997;
915.6000;0.2947;0.9221;
915.9000;0.2939;0.9171;
916.2000;0.2963;0.9271;
916.5000;0.2955;0.9171;
916.8000;0.2955;0.9146;
917.1000;0.2930;0.9097;
917.4000;0.2947;0.9072;
917.7000;0.2955;0.9097;
918.0000;0.2963;0.9097;
918.3000;0.2947;0.9022;
918.6000;0.2955;0.9047;
918.9000;0.2939;0.9022;
919.2000;0.2955;0.9022;
919.5000;0.2947;0.9022;
919.8000;0.2947;0.8972;
920.1000;0.2955;0.8897;
920.4000;0.2947;0.8947;
920.7000;0.2955;0.8922;
921.0000;0.2939;0.8922;
921.3000;0.2947;0.8922;
921.6000;0.2939;0.8872;
921.9000;0.2939;0.8872;
922.2000;0.2963;0.8947;
922.5000;0.2947;0.8972;
922.8000;0.2939;0.9022;
923.1000;0.2939;0.8972;
923.4000;0.2963;0.8997;
923.7000;0.2939;0.8922;
924.0000;0.2922;0.8947;
924.3000;0.2947;0.8972;
924.6000;0.2955;0.8997;
924.9000;0.2930;0.8922;
925.2000;0.2955;0.8972;
925.5000;0.2947;0.8897;
925.8000;0.2947;0.8897;
926.1000;0.2930;0.8922;
926.4000;0.2947;0.9072;
926.7000;0.2930;0.9097;
927.0000;0.2922;0.9121;
927.3000;0.3028;0.9420;
927.6000;0.2930;0.9121;
927.9000;0.2939;0.8997;
928.2000;0.2963;0.9047;
928.5000;0.2955;0.9047;
928.8000;0.2947;0.9047;
929.1000;0.2947;0.9022;
929.4000;0.2971;0.9072;
929.7000;0.2955;0.9072;
930.0000;0.2955;0.9022;
930.3000;0.2947;0.9022;
930.6000;0.2947;0.8947;
930.9000;0.2922;0.8847;
931.2000;0.2971;0.9047;
931.5000;0.2947;0.8972;
931.8000;0.2963;0.9047;
932.1000;0.2955;0.8972;
932.4000;0.2947;0.8897;
932.7000;0.2930;0.8797;
933.0000;0.2939;0.8872;
933.3000;0.2849;0.8449;
933.6000;0.2971;0.8797;
933.9000;0.2963;0.8897;
934.2000;0.2947;0.8847;
934.5000;0.2947;0.8773;
934.8000;0.2947;0.8822;
935.1000;0.2947;0.8872;
935.4000;0.2947;0.8922;
935.7000;0.2963;0.8972;
936.0000;0.2947;0.9072;
936.3000;0.2971;0.9121;
936.6000;0.2955;0.9171;
936.9000;0.2947;0.9171;
937.2000;0.2955;0.9121;
937.5000;0.2963;0.9121;
937.8000;0.2955;0.9121;
938.1000;0.2947;0.9072;
938.4000;0.2955;0.9022;
938.7000;0.2947;0.8997;
939.0000;0.2939;0.8922;
939.3000;0.2939;0.8897;
939.6000;0.2963;0.8947;
939.9000;0.2963;0.8972;
940.2000;0.2873;0.8748;
940.5000;0.2939;0.8922;
940.8000;0.2930;0.8972;
941.1000;0.2955;0.9072;
941.4000;0.2963;0.9047;
941.7000;0.2947;0.8847;
942.0000;0.2955;0.8872;
942.3000;0.2939;0.8748;
942.6000;0.2939;0.8623;
942.9000;0.2939;0.8598;
943.2000;0.2930;0.8598;
943.5000;0.2955;0.8648;
943.8000;0.2947;0.8698;
944.1000;0.2947;0.8773;
944.4000;0.2947;0.8797;
944.7000;0.2947;0.8822;
945.0000;0.2955;0.8897;
945.3000;0.2955;0.8997;
945.6000;0.2939;0.8947;
945.9000;0.2939;0.9022;
946.2000;0.2955;0.9097;
946.5000;0.2947;0.9146;
946.8000;0.2955;0.9097;
947.1000;0.2955;0.9121;
947.4000;0.2971;0.9121;
947.7000;0.2955;0.9146;
948.0000;0.2939;0.9072;
948.3000;0.2939;0.9171;
948.6000;0.2955;0.9171;
948.9000;0.2963;0.9321;
949.2000;0.2898;0.9146;
949.5000;0.2930;0.9196;
949.8000;0.2939;0.9221;
950.1000;0.2963;0.9321;
950.4000;0.2947;0.9321;
950.7000;0.2947;0.9296;
951.0000;0.2955;0.9171;
951.3000;0.2971;0.9271;
951.6000;0.2963;0.9271;
951.9000;0.2939;0.9221;
952.2000;0.2947;0.9271;
952.5000;0.2939;0.9171;
952.8000;0.3036;0.9371;
953.1000;0.2939;0.9072;
953.4000;0.2939;0.9097;
953.7000;0.2947;0.9022;
954.0000;0.2963;0.9022;
954.3000;0.2971;0.9097;
954.6000;0.2914;0.9047;
954.9000;0.2939;0.9146;
955.2000;0.2955;0.9196;
955.5000;0.3012;0.9346;
955.8000;0.2882;0.8972;
956.1000;0.2947;0.9171;
956.4000;0.2971;0.9221;
956.7000;0.3053;0.9371;
957.0000;0.2947;0.9097;
957.3000;0.2947;0.9072;
957.6000;0.2947;0.9097;
957.9000;0.2955;0.9171;
958.2000;0.2930;0.9097;
958.5000;0.2939;0.9022;
958.8000;0.2963;0.9047;
959.1000;0.2955;0.9047;
959.4000;0.2979;0.9146;
959.7000;0.2963;0.9121;
960.0000;0.2955;0.9196;
960.3000;0.2963;0.9221;
960.6000;0.2947;0.9221;
960.9000;0.2963;0.9097;
961.2000;0.2963;0.9097;
961.5000;0.2955;0.9146;
961.8000;0.2963;0.9121;
962.1000;0.2955;0.9097;
962.4000;0.2955;0.9072;
962.7000;0.3004;0.9221;
963.0000;0.2955;0.8997;
963.3000;0.2947;0.9022;
963.6000;0.3036;0.9171;
963.9000;0.2939;0.8922;
964.2000;0.2939;0.8947;
964.5000;0.2922;0.9022;
964.8000;0.2930;0.8997;
965.1000;0.2947;0.8897;
965.4000;0.2955;0.8947;
965.7000;0.2890;0.8847;
966.0000;0.2939;0.8997;
966.3000;0.2947;0.9072;
966.6000;0.2947;0.9047;
966.9000;0.2963;0.9097;
967.2000;0.2939;0.9022;
967.5000;0.2955;0.9121;
967.8000;0.2939;0.9121;
968.1000;0.2947;0.9146;
968.4000;0.2914;0.9022;
968.7000;0.2947;0.9097;
969.0000;0.2947;0.9121;
969.3000;0.2939;0.9097;
969.6000;0.2947;0.9097;
969.9000;0.2963;0.9072;
970.2000;0.2939;0.9072;
970.5000;0.2955;0.9097;
970.8000;0.2947;0.9171;
971.1000;0.2955;0.9121;
971.4000;0.2971;0.9221;
971.7000;0.2971;0.9246;
972.0000;0.2955;0.9121;
972.3000;0.2930;0.8997;
972.6000;0.2955;0.9022;
972.9000;0.2963;0.9072;
973.2000;0.2963;0.9022;
973.5000;0.2947;0.9022;
973.8000;0.2955;0.8972;
974.1000;0.2963;0.9022;
974.4000;0.2971;0.9121;
974.7000;0.2996;0.9321;
975.0000;0.2955;0.9246;
975.3000;0.2955;0.9296;
975.6000;0.2955;0.9271;
975.9000;0.2971;0.9296;
976.2000;0.3044;0.9570;
976.5000;0.2947;0.9296;
976.8000;0.2963;0.9296;
977.1000;0.2963;0.9271;
977.4000;0.2955;0.9271;
977.7000;0.2939;0.9221;
978.0000;0.2963;0.9221;
978.3000;0.2955;0.9171;
978.6000;0.2939;0.9047;
978.9000;0.3028;0.9246;
979.2000;0.2955;0.9097;
979.5000;0.2930;0.8947;
979.8000;0.2930;0.9022;
980.1000;0.2939;0.8972;
980.4000;0.2955;0.8972;
980.7000;0.2955;0.8972;
981.0000;0.2955;0.9022;
981.3000;0.2955;0.9022;
981.6000;0.2939;0.8997;
981.9000;0.2857;0.8822;
982.2000;0.2955;0.9022;
982.5000;0.2841;0.8648;
982.8000;0.2939;0.8897;
983.1000;0.2947;0.8947;
983.4000;0.2939;0.8947;
983.7000;0.2939;0.8997;
984.0000;0.2930;0.9047;
984.3000;0.2947;0.9097;
984.6000;0.2922;0.9121;
984.9000;0.2947;0.9121;
985.2000;0.2955;0.9121;
985.5000;0.2979;0.9121;
985.8000;0.2930;0.9022;
986.1000;0.2906;0.8847;
986.4000;0.2947;0.8947;
986.7000;0.2963;0.9047;
987.0000;0.2955;0.8972;
987.3000;0.2939;0.8997;
987.6000;0.2939;0.8947;
987.9000;0.2947;0.8922;
988.2000;0.2857;0.8698;
988.5000;0.2955;0.8997;
988.8000;0.2939;0.8997;
989.1000;0.2922;0.9022;
989.4000;0.2939;0.8972;
989.7000;0.2955;0.8897;
990.0000;0.2963;0.8947;
990.3000;0.2930;0.8922;
990.6000;0.2947;0.8947;
990.9000;0.2947;0.9121;
991.2000;0.2939;0.9072;
991.5000;0.2930;0.9047;
991.8000;0.2939;0.9047;
992.1000;0.2963;0.9121;
992.4000;0.2955;0.9072;
992.7000;0.2996;0.9047;
993.0000;0.2947;0.9047;
993.3000;0.2922;0.9097;
993.6000;0.2882;0.9072;
993.9000;0.3020;0.9371;
994.2000;0.2939;0.9146;
994.5000;0.2939;0.9171;
994.8000;0.2939;0.9171;
995.1000;0.2906;0.9072;
995.4000;0.2963;0.9171;
995.7000;0.2947;0.9146;
996.0000;0.2987;0.9271;
996.3000;0.2963;0.9196;
996.6000;0.2955;0.9171;
996.9000;0.2947;0.9097;
997.2000;0.2939;0.9146;
997.5000;0.2930;0.9047;
997.8000;0.2914;0.8922;
998.1000;0.2939;0.8972;
998.4000;0.2930;0.8947;
998.7000;0.2873;0.8773;
999.0000;0.2955;0.8997;
999.3000;0.3012;0.9196;
999.6000;0.2947;0.9097;
999.9000;0.2947;0.9022;
1000.2000;0.2947;0.9022;
1000.5000;0.2930;0.8872;
1000.8000;0.2930;0.8847;
1001.1000;0.2947;0.8922;
1001.4000;0.2947;0.8997;
1001.7000;0.2947;0.8972;
1002.0000;0.2955;0.9022;
1002.3000;0.2955;0.9022;
1002.6000;0.2955;0.8947;
1002.9000;0.2922;0.8872;
1003.2000;0.2955;0.8997;
1003.5000;0.2947;0.9072;
1003.8000;0.2955;0.9072;
1004.1000;0.2947;0.9022;
1004.4000;0.2947;0.9047;
1004.7000;0.2963;0.9097;
1005.0000;0.2955;0.9072;
1005.3000;0.2947;0.9047;
1005.6000;0.2955;0.9121;
1005.9000;0.2849;0.8847;
1006.2000;0.2939;0.9121;
1006.5000;0.2922;0.9072;
1006.8000;0.2939;0.9121;
1007.1000;0.2922;0.9047;
1007.4000;0.2955;0.9171;
1007.7000;0.2922;0.9121;
1008.0000;0.2947;0.9171;
1008.3000;0.2963;0.9221;
1008.6000;0.2906;0.9121;
1008.9000;0.2939;0.9121;
1009.2000;0.2939;0.9121;
1009.5000;0.2939;0.9121;
1009.8000;0.2939;0.9072;
1010.1000;0.2939;0.9072;
1010.4000;0.2955;0.9121;
1010.7000;0.2955;0.9171;
1011.0000;0.2955;0.9246;
1011.3000;0.2930;0.9146;
1011.6000;0.2947;0.9146;
1011.9000;0.2939;0.9146;
1012.2000;0.2947;0.9246;
1012.5000;0.2922;0.9121;
1012.8000;0.2914;0.9072;
1013.1000;0.2930;0.9196;
1013.4000;0.2922;0.9246;
1013.7000;0.2947;0.9296;
1014.0000;0.2947;0.9321;
1014.3000;0.2947;0.9321;
1014.6000;0.2955;0.9346;
1014.9000;0.2955;0.9321;
1015.2000;0.2955;0.9346;
1015.5000;0.2947;0.9246;
1015.8000;0.2963;0.9271;
1016.1000;0.2930;0.9221;
1016.4000;0.2947;0.9146;
1016.7000;0.2971;0.9246;
1017.0000;0.2963;0.9196;
1017.3000;0.2947;0.9171;
1017.6000;0.2979;0.9296;
1017.9000;0.2971;0.9271;
1018.2000;0.2939;0.9171;
1018.5000;0.2955;0.9271;
1018.8000;0.2963;0.9246;
1019.1000;0.2922;0.9146;
1019.4000;0.2947;0.9246;
1019.7000;0.2939;0.9371;
1020.0000;0.2963;0.9371;
1020.3000;0.2963;0.9371;
1020.6000;0.2930;0.9321;
1020.9000;0.2963;0.9371;
1021.2000;0.2947;0.9296;
1021.5000;0.2939;0.9296;
1021.8000;0.2955;0.9396;
1022.1000;0.2947;0.9321;
1022.4000;0.2947;0.9271;
1022.7000;0.2930;0.9246;
1023.0000;0.2922;0.9271;
1023.3000;0.2914;0.9221;
1023.6000;0.2939;0.9321;
1023.9000;0.2947;0.9346;
1024.2000;0.2930;0.9221;
1024.5000;0.2930;0.9171;
1024.8000;0.2947;0.9271;
1025.1000;0.2930;0.9246;
1025.4000;0.2922;0.9196;
1025.7000;0.2922;0.9171;
1026.0000;0.2947;0.9271;
1026.3000;0.2979;0.9346;
1026.6000;0.2947;0.9271;
1026.9000;0.2947;0.9271;
1027.2000;0.2947;0.9171;
1027.5000;0.2971;0.9196;
1027.8000;0.2947;0.9097;
1028.1000;0.2947;0.9221;
1028.4000;0.2955;0.9271;
1028.7000;0.2930;0.9271;
1029.0000;0.2963;0.9296;
1029.3000;0.2955;0.9321;
1029.6000;0.2963;0.9346;
1029.9000;0.2939;0.9371;
1030.2000;0.2971;0.9321;
1030.5000;0.2930;0.9196;
1030.8000;0.2947;0.9271;
1031.1000;0.2955;0.9271;
1031.4000;0.2922;0.9146;
1031.7000;0.2971;0.9246;
1032.0000;0.2963;0.9271;
1032.3000;0.2939;0.9296;
1032.6000;0.2922;0.9221;
1032.9000;0.2955;0.9221;
1033.2000;0.2947;0.9221;
1033.5000;0.2930;0.9196;
1033.8000;0.2939;0.9146;
1034.1000;0.2914;0.9047;
1034.4000;0.2939;0.9097;
1034.7000;0.2882;0.8972;
1035.0000;0.2939;0.9196;
1035.3000;0.2955;0.9346;
1035.6000;0.2939;0.9346;
1035.9000;0.2930;0.9296;
1036.2000;0.2930;0.9346;
1036.5000;0.2947;0.9346;
1036.8000;0.2939;0.9246;
1037.1000;0.2939;0.9171;
1037.4000;0.2947;0.9146;
1037.7000;0.2947;0.9246;
1038.0000;0.2955;0.9196;
1038.3000;0.2947;0.9146;
1038.6000;0.2939;0.9121;
1038.9000;0.2947;0.9121;
1039.2000;0.2939;0.9097;
1039.5000;0.2939;0.9072;
1039.8000;0.2947;0.9072;
1040.1000;0.2947;0.9072;
1040.4000;0.2947;0.9097;
1040.7000;0.2947;0.9146;
1041.0000;0.2947;0.9097;
1041.3000;0.2947;0.9171;
1041.6000;0.2971;0.9271;
1041.9000;0.2955;0.9196;
1042.2000;0.2955;0.9171;
1042.5000;0.2955;0.9146;
1042.8000;0.2947;0.9097;
1043.1000;0.2947;0.9146;
1043.4000;0.2947;0.9097;
1043.7000;0.2947;0.9097;
1044.0000;0.2955;0.9022;
1044.3000;0.2922;0.8972;
1044.6000;0.2939;0.8997;
1044.9000;0.2939;0.8947;
1045.2000;0.2930;0.8897;
1045.5000;0.2947;0.8897;
1045.8000;0.2930;0.8872;
1046.1000;0.2947;0.8972;
1046.4000;0.2930;0.8947;
1046.7000;0.2963;0.9047;
1047.0000;0.2947;0.8922;
1047.3000;0.2930;0.8922;
1047.6000;0.2939;0.9022;
1047.9000;0.2890;0.8922;
1048.2000;0.2947;0.9097;
1048.5000;0.2849;0.8822;
1048.8000;0.2922;0.9022;
1049.1000;0.2939;0.9072;
1049.4000;0.2922;0.9146;
1049.7000;0.2930;0.9246;
1050.0000;0.2857;0.9047;
1050.3000;0.2947;0.9246;
1050.6000;0.2955;0.9171;
1050.9000;0.2947;0.9072;
1051.2000;0.2947;0.9047;
1051.5000;0.2955;0.9121;
1051.8000;0.2955;0.9146;
1052.1000;0.2939;0.9072;
1052.4000;0.2947;0.9121;
1052.7000;0.2947;0.9146;
1053.0000;0.2963;0.9221;
1053.3000;0.2947;0.9221;
1053.6000;0.2955;0.9246;
1053.9000;0.2930;0.9271;
1054.2000;0.2947;0.9221;
1054.5000;0.2947;0.9121;
1054.8000;0.2947;0.9121;
1055.1000;0.2963;0.9146;
1055.4000;0.2930;0.9047;
1055.7000;0.2922;0.9072;
1056.0000;0.2947;0.9097;
1056.3000;0.2922;0.8997;
1056.6000;0.2963;0.9072;
1056.9000;0.2955;0.9072;
1057.2000;0.2930;0.9097;
1057.5000;0.2939;0.9146;
1057.8000;0.2939;0.9171;
1058.1000;0.2947;0.9171;
1058.4000;0.2955;0.9246;
1058.7000;0.2947;0.9146;
1059.0000;0.2930;0.9022;
1059.3000;0.2947;0.9121;
1059.6000;0.2939;0.9171;
1059.9000;0.2939;0.9246;
1060.2000;0.2922;0.9196;
1060.5000;0.2955;0.9146;
1060.8000;0.2947;0.9121;
1061.1000;0.2947;0.9097;
1061.4000;0.2947;0.9072;
1061.7000;0.2955;0.9146;
1062.0000;0.2955;0.9196;
1062.3000;0.2955;0.9221;
1062.6000;0.2922;0.9196;
1062.9000;0.2955;0.9146;
1063.2000;0.2955;0.9171;
1063.5000;0.2963;0.9246;
1063.8000;0.2947;0.9196;
1064.1000;0.2930;0.9121;
1064.4000;0.2939;0.9121;
1064.7000;0.2955;0.9146;
1065.0000;0.2939;0.9047;
1065.3000;0.2939;0.8997;
1065.6000;0.2955;0.9072;
1065.9000;0.2947;0.9047;
1066.2000;0.2955;0.9072;
1066.5000;0.2939;0.9047;
1066.8000;0.2914;0.8972;
1067.1000;0.2947;0.9072;
1067.4000;0.2939;0.9022;
1067.7000;0.2930;0.9072;
1068.0000;0.2947;0.9196;
1068.3000;0.2914;0.9121;
1068.6000;0.2947;0.9196;
1068.9000;0.2939;0.9196;
1069.2000;0.2947;0.9221;
1069.5000;0.2955;0.9246;
1069.8000;0.2947;0.9221;
1070.1000;0.2922;0.9121;
1070.4000;0.2873;0.8972;
1070.7000;0.2922;0.9196;
1071.0000;0.2963;0.9271;
1071.3000;0.2947;0.9296;
1071.6000;0.2955;0.9271;
1071.9000;0.2939;0.9171;
1072.2000;0.2955;0.9196;
1072.5000;0.2849;0.8947;
1072.8000;0.2898;0.9097;
1073.1000;0.2947;0.9221;
1073.4000;0.2898;0.9196;
1073.7000;0.2947;0.9346;
1074.0000;0.2955;0.9296;
1074.3000;0.2922;0.9246;
1074.6000;0.2947;0.9296;
1074.9000;0.2955;0.9271;
1075.2000;0.2930;0.9146;
1075.5000;0.2939;0.9121;
1075.8000;0.2930;0.9171;
1076.1000;0.2955;0.9171;
1076.4000;0.2947;0.9146;
1076.7000;0.2922;0.9121;
1077.0000;0.2939;0.9171;
1077.3000;0.2947;0.9221;
1077.6000;0.2947;0.9296;
1077.9000;0.2930;0.9246;
1078.2000;0.2914;0.9196;
1078.5000;0.2939;0.9271;
1078.8000;0.2922;0.9221;
1079.1000;0.2930;0.9296;
1079.4000;0.2922;0.9196;
1079.7000;0.2841;0.9022;
1080.0000;0.2947;0.9296;
1080.3000;0.2947;0.9396;
1080.6000;0.2939;0.9371;
1080.9000;0.2939;0.9371;
1081.2000;0.2947;0.9296;
1081.5000;0.2955;0.9321;
1081.8000;0.2930;0.9271;
1082.1000;0.2939;0.9321;
1082.4000;0.2930;0.9321;
1082.7000;0.3004;0.9470;
1083.0000;0.2947;0.9420;
1083.3000;0.2930;0.9396;
1083.6000;0.2947;0.9420;
1083.9000;0.2947;0.9346;
1084.2000;0.2930;0.9346;
1084.5000;0.2930;0.9296;
1084.8000;0.2939;0.9246;
1085.1000;0.2939;0.9246;
1085.4000;0.2939;0.9221;
1085.7000;0.2947;0.9271;
1086.0000;0.2947;0.9271;
1086.3000;0.2939;0.9221;
1086.6000;0.2955;0.9146;
1086.9000;0.2955;0.9221;
1087.2000;0.2947;0.9171;
1087.5000;0.2955;0.9171;
1087.8000;0.2947;0.9121;
1088.1000;0.2939;0.9121;
1088.4000;0.2955;0.9196;
1088.7000;0.2947;0.9246;
1089.0000;0.2963;0.9196;
1089.3000;0.2930;0.9196;
1089.6000;0.2939;0.9221;
1089.9000;0.2922;0.9271;
1090.2000;0.2939;0.9296;
1090.5000;0.2930;0.9321;
1090.8000;0.2939;0.9321;
1091.1000;0.2939;0.9321;
1091.4000;0.2930;0.9271;
1091.7000;0.2947;0.9271;
1092.0000;0.2955;0.9246;
1092.3000;0.2922;0.9171;
1092.6000;0.2947;0.9146;
1092.9000;0.2922;0.9097;
1093.2000;0.2930;0.9072;
1093.5000;0.2947;0.9072;
1093.8000;0.2947;0.9072;
1094.1000;0.2939;0.9121;
1094.4000;0.2922;0.9072;
1094.7000;0.2955;0.9121;
1095.0000;0.2947;0.9097;
1095.3000;0.2947;0.9097;
1095.6000;0.2930;0.9047;
1095.9000;0.2947;0.9022;
1096.2000;0.2963;0.8997;
1096.5000;0.2930;0.8997;
1096.8000;0.2955;0.9072;
1097.1000;0.2939;0.9146;
1097.4000;0.2890;0.8972;
1097.7000;0.2971;0.9146;
1098.0000;0.2914;0.9072;
1098.3000;0.2922;0.9121;
1098.6000;0.2947;0.9221;
1098.9000;0.2922;0.9171;
1099.2000;0.2922;0.9121;
1099.5000;0.2939;0.9171;
1099.8000;0.2930;0.9171;
1100.1000;0.2922;0.9196;
1100.4000;0.2947;0.9171;
1100.7000;0.2922;0.9146;
1101.0000;0.2939;0.9171;
1101.3000;0.2947;0.9271;
1101.6000;0.2939;0.9271;
1101.9000;0.2947;0.9296;
1102.2000;0.2922;0.9196;
1102.5000;0.2963;0.9346;
1102.8000;0.2963;0.9296;
1103.1000;0.2947;0.9246;
1103.4000;0.2939;0.9246;
1103.7000;0.2914;0.9171;
1104.0000;0.2930;0.9171;
1104.3000;0.3028;0.9321;
1104.6000;0.2955;0.9097;
1104.9000;0.2996;0.9271;
1105.2000;0.2947;0.9121;
1105.5000;0.2939;0.9022;
1105.8000;0.2947;0.8972;
1106.1000;0.2947;0.9047;
1106.4000;0.2947;0.9022;
1106.7000;0.2939;0.9047;
1107.0000;0.2930;0.9047;
1107.3000;0.2930;0.9121;
1107.6000;0.2939;0.9097;
1107.9000;0.2947;0.9146;
1108.2000;0.2930;0.9022;
1108.5000;0.2922;0.8947;
1108.8000;0.2930;0.8922;
1109.1000;0.2955;0.9022;
1109.4000;0.2939;0.8972;
1109.7000;0.2939;0.8972;
1110.0000;0.2922;0.8897;
1110.3000;0.2939;0.8872;
1110.6000;0.2922;0.8897;
1110.9000;0.2922;0.8897;
1111.2000;0.2930;0.8947;
1111.5000;0.2939;0.8897;
1111.8000;0.2955;0.8947;
1112.1000;0.2947;0.8972;
1112.4000;0.2947;0.8997;
1112.7000;0.2955;0.9072;
1113.0000;0.2947;0.9022;
1113.3000;0.2955;0.8922;
1113.6000;0.2922;0.8872;
1113.9000;0.2922;0.9047;
1114.2000;0.2930;0.9171;
1114.5000;0.2939;0.9221;
1114.8000;0.2930;0.9246;
1115.1000;0.2930;0.9171;
1115.4000;0.2939;0.9271;
1115.7000;0.2947;0.9296;
1116.0000;0.2939;0.9371;
1116.3000;0.2914;0.9246;
1116.6000;0.2922;0.9246;
1116.9000;0.2963;0.9346;
1117.2000;0.2922;0.9097;
1117.5000;0.2922;0.9072;
1117.8000;0.2955;0.9121;
1118.1000;0.2930;0.9121;
1118.4000;0.2947;0.9271;
1118.7000;0.2939;0.9221;
1119.0000;0.2947;0.9146;
1119.3000;0.2930;0.9097;
1119.6000;0.2930;0.9097;
1119.9000;0.2873;0.8972;
1120.2000;0.2914;0.9121;
1120.5000;0.2987;0.9246;
1120.8000;0.2939;0.9221;
1121.1000;0.2939;0.9121;
1121.4000;0.2939;0.9022;
1121.7000;0.2955;0.9121;
1122.0000;0.2947;0.9121;
1122.3000;0.2947;0.9121;
1122.6000;0.2939;0.9022;
1122.9000;0.2963;0.9072;
1123.2000;0.2939;0.9171;
1123.5000;0.2939;0.9171;
1123.8000;0.2947;0.9121;
1124.1000;0.2947;0.9146;
1124.4000;0.2939;0.9097;
1124.7000;0.2922;0.9022;
1125.0000;0.2922;0.8947;
1125.3000;0.2947;0.9022;
1125.6000;0.2939;0.8997;
1125.9000;0.2930;0.9072;
1126.2000;0.2939;0.9047;
1126.5000;0.2914;0.9097;
1126.8000;0.2914;0.9196;
1127.1000;0.2947;0.9196;
1127.4000;0.2947;0.9246;
1127.7000;0.2939;0.9171;
1128.0000;0.2947;0.9146;
1128.3000;0.2922;0.9097;
1128.6000;0.2930;0.9072;
1128.9000;0.2922;0.9097;
1129.2000;0.2939;0.9121;
1129.5000;0.2947;0.9196;
1129.8000;0.2930;0.9171;
1130.1000;0.2930;0.9221;
1130.4000;0.2947;0.9296;
1130.7000;0.2939;0.9271;
1131.0000;0.2947;0.9271;
1131.3000;0.2939;0.9371;
1131.6000;0.2930;0.9296;
1131.9000;0.2955;0.9296;
1132.2000;0.2939;0.9196;
1132.5000;0.2922;0.9171;
1132.8000;0.2930;0.9221;
1133.1000;0.2939;0.9221;
1133.4000;0.2971;0.9296;
1133.7000;0.2939;0.9221;
1134.0000;0.2955;0.9296;
1134.3000;0.2947;0.9221;
1134.6000;0.2882;0.9072;
1134.9000;0.2963;0.9221;
1135.2000;0.2939;0.9221;
1135.5000;0.2939;0.9146;
1135.8000;0.2955;0.9246;
1136.1000;0.2963;0.9246;
1136.4000;0.2922;0.9047;
1136.7000;0.2963;0.9121;
1137.0000;0.2971;0.9097;
1137.3000;0.2947;0.8922;
1137.6000;0.2930;0.8897;
1137.9000;0.2939;0.8847;
1138.2000;0.2947;0.8897;
1138.5000;0.2930;0.9047;
1138.8000;0.2947;0.9097;
1139.1000;0.2922;0.9146;
1139.4000;0.2947;0.9221;
1139.7000;0.2947;0.9221;
1140.0000;0.2898;0.9047;
1140.3000;0.2906;0.9121;
1140.6000;0.2939;0.9321;
1140.9000;0.3012;0.9420;
1141.2000;0.2930;0.9171;
1141.5000;0.2930;0.9171;
1141.8000;0.2963;0.9271;
1142.1000;0.2955;0.9246;
1142.4000;0.2939;0.9097;
1142.7000;0.2922;0.9072;
1143.0000;0.2987;0.9246;
1143.3000;0.3036;0.9495;
1143.6000;0.2882;0.9146;
1143.9000;0.2996;0.9371;
1144.2000;0.2939;0.9196;
1144.5000;0.2947;0.9271;
1144.8000;0.2939;0.9196;
1145.1000;0.2939;0.9196;
1145.4000;0.2930;0.9146;
1145.7000;0.2930;0.9097;
1146.0000;0.2947;0.9146;
1146.3000;0.2947;0.9146;
1146.6000;0.2955;0.9196;
1146.9000;0.2930;0.9171;
1147.2000;0.2947;0.9097;
1147.5000;0.2947;0.9146;
1147.8000;0.2939;0.9047;
1148.1000;0.2955;0.9097;
1148.4000;0.2947;0.9097;
1148.7000;0.3012;0.9221;
1149.0000;0.2939;0.9146;
1149.3000;0.2939;0.9121;
1149.6000;0.2947;0.9121;
1149.9000;0.2955;0.9097;
1150.2000;0.2930;0.9171;
1150.5000;0.2939;0.9246;
1150.8000;0.2947;0.9221;
1151.1000;0.2947;0.9121;
1151.4000;0.2914;0.9047;
1151.7000;0.2939;0.9196;
1152.0000;0.2947;0.9171;
1152.3000;0.2922;0.9246;
1152.6000;0.2890;0.9171;
1152.9000;0.2922;0.9296;
1153.2000;0.2955;0.9371;
1153.5000;0.2955;0.9321;
1153.8000;0.2947;0.9221;
1154.1000;0.2939;0.9196;
1154.4000;0.2947;0.9271;
1154.7000;0.2939;0.9271;
1155.0000;0.2930;0.9346;
1155.3000;0.2939;0.9371;
1155.6000;0.2922;0.9196;
1155.9000;0.2947;0.9221;
1156.2000;0.2947;0.9171;
1156.5000;0.2922;0.9196;
1156.8000;0.2914;0.9196;
1157.1000;0.2939;0.9271;
1157.4000;0.2947;0.9321;
1157.7000;0.2939;0.9246;
1158.0000;0.2930;0.9246;
1158.3000;0.2963;0.9321;
1158.6000;0.2947;0.9346;
1158.9000;0.2922;0.9296;
1159.2000;0.2930;0.9246;
1159.5000;0.2939;0.9271;
1159.8000;0.2963;0.9296;
1160.1000;0.2947;0.9196;
1160.4000;0.2914;0.9097;
1160.7000;0.2939;0.9097;
1161.0000;0.2890;0.8997;
1161.3000;0.2947;0.9097;
1161.6000;0.2947;0.9146;
1161.9000;0.2955;0.9221;
1162.2000;0.2947;0.9321;
1162.5000;0.3044;0.9744;
1162.8000;0.2939;0.9371;
1163.1000;0.2955;0.9296;
1163.4000;0.2963;0.9221;
1163.7000;0.2947;0.9146;
1164.0000;0.2955;0.9121;
1164.3000;0.2890;0.8897;
1164.6000;0.2947;0.9072;
1164.9000;0.3004;0.9221;
1165.2000;0.2939;0.9047;
1165.5000;0.2963;0.9121;
1165.8000;0.2947;0.9121;
1166.1000;0.2955;0.9196;
1166.4000;0.2963;0.9271;
1166.7000;0.2955;0.9196;
1167.0000;0.2939;0.9121;
1167.3000;0.2955;0.9171;
1167.6000;0.2947;0.9146;
1167.9000;0.2947;0.9072;
1168.2000;0.2939;0.9022;
1168.5000;0.2947;0.9047;
1168.8000;0.2873;0.8922;
1169.1000;0.2930;0.9196;
1169.4000;0.2930;0.9196;
1169.7000;0.2930;0.9221;
1170.0000;0.2922;0.9146;
1170.3000;0.2939;0.9146;
1170.6000;0.2963;0.9022;
1170.9000;0.2922;0.8972;
1171.2000;0.2914;0.8922;
1171.5000;0.2914;0.8922;
1171.8000;0.2939;0.9171;
1172.1000;0.2979;0.9346;
1172.4000;0.2947;0.9221;
1172.7000;0.2930;0.9246;
1173.0000;0.2939;0.9296;
1173.3000;0.2922;0.9246;
1173.6000;0.2930;0.9221;
1173.9000;0.2930;0.9196;
1174.2000;0.2955;0.9221;
1174.5000;0.2930;0.9121;
1174.8000;0.2939;0.9171;
1175.1000;0.2963;0.9221;
1175.4000;0.2914;0.9146;
1175.7000;0.2930;0.9097;
1176.0000;0.2922;0.9047;
1176.3000;0.2930;0.9097;
1176.6000;0.2922;0.9072;
1176.9000;0.2930;0.9221;
1177.2000;0.2873;0.9047;
1177.5000;0.2939;0.9171;
1177.8000;0.2939;0.9196;
1178.1000;0.2922;0.9221;
1178.4000;0.2930;0.9246;
1178.7000;0.2947;0.9271;
1179.0000;0.2947;0.9296;
1179.3000;0.2955;0.9221;
1179.6000;0.2890;0.9097;
1179.9000;0.3053;0.9470;
1180.2000;0.2922;0.9146;
1180.5000;0.2939;0.9121;
1180.8000;0.2898;0.8947;
1181.1000;0.2914;0.8972;
1181.4000;0.2922;0.8947;
1181.7000;0.2930;0.8947;
1182.0000;0.2922;0.8922;
1182.3000;0.2930;0.8947;
1182.6000;0.2963;0.9022;
1182.9000;0.2979;0.9022;
1183.2000;0.2955;0.9047;
1183.5000;0.2947;0.8972;
1183.8000;0.2955;0.9072;
1184.1000;0.2939;0.9072;
1184.4000;0.2939;0.9097;
1184.7000;0.2922;0.9146;
1185.0000;0.2947;0.9246;
1185.3000;0.2947;0.9271;
1185.6000;0.2947;0.9221;
1185.9000;0.2947;0.9246;
1186.2000;0.2906;0.9221;
1186.5000;0.2963;0.9396;
1186.8000;0.2922;0.9296;
1187.1000;0.2939;0.9296;
1187.4000;0.2947;0.9321;
1187.7000;0.2914;0.9171;
1188.0000;0.2939;0.9246;
1188.3000;0.2930;0.9221;
1188.6000;0.2987;0.9346;
1188.9000;0.2955;0.9246;
1189.2000;0.2947;0.9271;
1189.5000;0.2922;0.9196;
1189.8000;0.2939;0.9196;
1190.1000;0.2939;0.9221;
1190.4000;0.2930;0.9171;
1190.7000;0.2947;0.9146;
1191.0000;0.2930;0.9121;
1191.3000;0.2947;0.9171;
1191.6000;0.2930;0.9196;
1191.9000;0.2939;0.9246;
1192.2000;0.2930;0.9221;
1192.5000;0.2955;0.9321;
1192.8000;0.2947;0.9346;
1193.1000;0.2939;0.9321;
1193.4000;0.2939;0.9271;
1193.7000;0.2939;0.9246;
1194.0000;0.2939;0.9246;
1194.3000;0.2930;0.9171;
1194.6000;0.2939;0.9171;
1194.9000;0.2930;0.9196;
1195.2000;0.2947;0.9246;
1195.5000;0.2939;0.9296;
1195.8000;0.2939;0.9445;
1196.1000;0.2922;0.9396;
1196.4000;0.2930;0.9396;
1196.7000;0.2955;0.9296;
1197.0000;0.2947;0.9271;
1197.3000;0.2939;0.9221;
1197.6000;0.2930;0.9246;
1197.9000;0.2963;0.9271;
1198.2000;0.2930;0.9221;
1198.5000;0.2914;0.9097;
1198.8000;0.2947;0.9121;
1199.1000;0.2922;0.9047;
1199.4000;0.2971;0.9221;
1199.7000;0.2922;0.9196;
1200.0000;0.2947;0.9271;
1200.3000;0.2947;0.9296;
1200.6000;0.2939;0.9371;
1200.9000;0.2898;0.9221;
1201.2000;0.2996;0.9495;
1201.5000;0.2930;0.9296;
1201.8000;0.2947;0.9321;
1202.1000;0.2955;0.9321;
1202.4000;0.2947;0.9321;
1202.7000;0.2930;0.9146;
1203.0000;0.2963;0.9221;
1203.3000;0.2930;0.9097;
1203.6000;0.2955;0.9171;
1203.9000;0.2939;0.9171;
1204.2000;0.2939;0.9171;
1204.5000;0.2939;0.9221;
1204.8000;0.2930;0.9271;
1205.1000;0.2922;0.9271;
1205.4000;0.2930;0.9271;
1205.7000;0.2947;0.9296;
1206.0000;0.2979;0.9420;
1206.3000;0.2947;0.9321;
1206.6000;0.2939;0.9196;
1206.9000;0.2963;0.9221;
1207.2000;0.2947;0.9121;
1207.5000;0.2930;0.9097;
1207.8000;0.2939;0.9196;
1208.1000;0.2955;0.9196;
1208.4000;0.2939;0.9171;
1208.7000;0.2947;0.9196;
1209.0000;0.2939;0.9146;
1209.3000;0.2947;0.9196;
1209.6000;0.2947;0.9246;
1209.9000;0.2996;0.9396;
1210.2000;0.2939;0.9146;
1210.5000;0.2930;0.9121;
1210.8000;0.2939;0.9196;
1211.1000;0.2947;0.9196;
1211.4000;0.2939;0.9196;
1211.7000;0.2922;0.9221;
1212.0000;0.2947;0.9271;
1212.3000;0.2955;0.9321;
1212.6000;0.2955;0.9371;
1212.9000;0.2939;0.9321;
1213.2000;0.2947;0.9346;
1213.5000;0.2955;0.9271;
1213.8000;0.2955;0.9346;
1214.1000;0.2922;0.9321;
1214.4000;0.2955;0.9346;
1214.7000;0.2939;0.9271;
1215.0000;0.2930;0.9246;
1215.3000;0.2922;0.9321;
1215.6000;0.2955;0.9346;
1215.9000;0.2939;0.9271;
1216.2000;0.2930;0.9221;
1216.5000;0.2930;0.9146;
1216.8000;0.2930;0.9196;
1217.1000;0.2939;0.9196;
1217.4000;0.2930;0.9171;
1217.7000;0.2906;0.9097;
1218.0000;0.2939;0.9121;
1218.3000;0.2922;0.8997;
1218.6000;0.2939;0.9047;
1218.9000;0.2922;0.9072;
1219.2000;0.2914;0.9047;
1219.5000;0.2939;0.9047;
1219.8000;0.2955;0.9097;
1220.1000;0.2865;0.8972;
1220.4000;0.2906;0.9121;
1220.7000;0.2922;0.9097;
1221.0000;0.2930;0.9047;
1221.3000;0.2930;0.9171;
1221.6000;0.2922;0.9221;
1221.9000;0.2947;0.9246;
1222.2000;0.2922;0.9246;
1222.5000;0.2930;0.9246;
1222.8000;0.2922;0.9246;
1223.1000;0.2939;0.9296;
1223.4000;0.2947;0.9196;
1223.7000;0.2955;0.9221;
1224.0000;0.2955;0.9221;
1224.3000;0.2939;0.9271;
1224.6000;0.2955;0.9346;
1224.9000;0.2947;0.9296;
1225.2000;0.2922;0.9221;
1225.5000;0.2906;0.9171;
1225.8000;0.2939;0.9221;
1226.1000;0.2930;0.9221;
1226.4000;0.2955;0.9221;
1226.7000;0.2971;0.9296;
1227.0000;0.2890;0.9072;
1227.3000;0.2939;0.9171;
1227.6000;0.2939;0.9097;
1227.9000;0.2922;0.9097;
1228.2000;0.2955;0.9146;
1228.5000;0.2947;0.9097;
1228.8000;0.2955;0.8997;
1229.1000;0.2930;0.8947;
1229.4000;0.3020;0.9171;
1229.7000;0.2930;0.8972;
1230.0000;0.2955;0.9047;
1230.3000;0.2939;0.8997;
1230.6000;0.2898;0.8872;
1230.9000;0.2955;0.8972;
1231.2000;0.2939;0.8947;
1231.5000;0.2939;0.8947;
1231.8000;0.2955;0.8972;
1232.1000;0.2955;0.9047;
1232.4000;0.2947;0.9072;
1232.7000;0.2930;0.9072;
1233.0000;0.2947;0.9121;
1233.3000;0.2947;0.9097;
1233.6000;0.2930;0.9097;
1233.9000;0.2930;0.9072;
1234.2000;0.2930;0.9022;
1234.5000;0.2930;0.9047;
1234.8000;0.2955;0.9146;
1235.1000;0.2947;0.9146;
1235.4000;0.2922;0.9121;
1235.7000;0.2922;0.9171;
1236.0000;0.2947;0.9271;
1236.3000;0.2890;0.9171;
1236.6000;0.2939;0.9221;
1236.9000;0.2930;0.9097;
1237.2000;0.2930;0.9097;
1237.5000;0.2955;0.9171;
1237.8000;0.2971;0.9221;
1238.1000;0.2930;0.9171;
1238.4000;0.2947;0.9221;
1238.7000;0.2939;0.9072;
1239.0000;0.2939;0.8972;
1239.3000;0.2947;0.9072;
1239.6000;0.2939;0.9047;
1239.9000;0.2930;0.8947;
1240.2000;0.2939;0.8872;
1240.5000;0.2939;0.8847;
1240.8000;0.2947;0.8872;
1241.1000;0.2955;0.8897;
1241.4000;0.2947;0.8947;
1241.7000;0.2939;0.8972;
1242.0000;0.2922;0.8972;
1242.3000;0.2930;0.9097;
1242.6000;0.2930;0.9072;
1242.9000;0.2939;0.9022;
1243.2000;0.2922;0.9047;
1243.5000;0.2939;0.9121;
1243.8000;0.2922;0.9097;
1244.1000;0.2930;0.9146;
1244.4000;0.2922;0.9072;
1244.7000;0.2930;0.9022;
1245.0000;0.2922;0.9072;
1245.3000;0.2963;0.9146;
1245.6000;0.2914;0.8997;
1245.9000;0.2922;0.9121;
1246.2000;0.2947;0.9171;
1246.5000;0.2914;0.9171;
1246.8000;0.2865;0.9047;
1247.1000;0.2922;0.9196;
1247.4000;0.2922;0.9171;
1247.7000;0.2947;0.9196;
1248.0000;0.2963;0.9246;
1248.3000;0.2939;0.9196;
1248.6000;0.2947;0.9097;
1248.9000;0.2947;0.9146;
1249.2000;0.2922;0.9022;
1249.5000;0.2914;0.9022;
1249.8000;0.2922;0.9022;
1250.1000;0.2939;0.9171;
1250.4000;0.2939;0.9146;
1250.7000;0.2939;0.9097;
1251.0000;0.2914;0.9047;
1251.3000;0.2930;0.9072;
1251.6000;0.2939;0.9121;
1251.9000;0.2996;0.9296;
1252.2000;0.2939;0.9171;
1252.5000;0.2955;0.9221;
1252.8000;0.2955;0.9296;
1253.1000;0.2963;0.9271;
1253.4000;0.2930;0.9221;
1253.7000;0.2922;0.9196;
1254.0000;0.2939;0.9271;
1254.3000;0.2922;0.9196;
1254.6000;0.2955;0.9171;
1254.9000;0.2922;0.9146;
1255.2000;0.2939;0.9121;
1255.5000;0.2939;0.9047;
1255.8000;0.2906;0.8997;
1256.1000;0.2947;0.9047;
1256.4000;0.2873;0.8822;
1256.7000;0.2947;0.8997;
1257.0000;0.2971;0.9047;
1257.3000;0.2947;0.9072;
1257.6000;0.2955;0.9121;
1257.9000;0.2939;0.9196;
1258.2000;0.2939;0.9171;
1258.5000;0.2947;0.9171;
1258.8000;0.2914;0.9072;
1259.1000;0.2947;0.9171;
1259.4000;0.2955;0.9246;
1259.7000;0.2906;0.9171;
1260.0000;0.2939;0.9221;
1260.3000;0.2914;0.9171;
1260.6000;0.2939;0.9221;
1260.9000;0.2955;0.9271;
1261.2000;0.2947;0.9271;
1261.5000;0.2906;0.9196;
1261.8000;0.2955;0.9196;
1262.1000;0.2930;0.9121;
1262.4000;0.2947;0.9171;
1262.7000;0.2922;0.9146;
1263.0000;0.2939;0.9072;
1263.3000;0.2939;0.8972;
1263.6000;0.2947;0.8922;
1263.9000;0.2947;0.8847;
1264.2000;0.2939;0.8797;
1264.5000;0.2939;0.8748;
1264.8000;0.2947;0.8748;
1265.1000;0.2939;0.8797;
1265.4000;0.2947;0.8797;
1265.7000;0.2947;0.8847;
1266.0000;0.2939;0.8822;
1266.3000;0.2914;0.8897;
1266.6000;0.2930;0.8947;
1266.9000;0.2922;0.8947;
1267.2000;0.2930;0.8897;
1267.5000;0.2930;0.8872;
1267.8000;0.2930;0.8872;
1268.1000;0.2939;0.8947;
1268.4000;0.2947;0.8997;
1268.7000;0.2930;0.8997;
1269.0000;0.2955;0.9022;
1269.3000;0.2930;0.8922;
1269.6000;0.2930;0.8947;
1269.9000;0.2930;0.8947;
1270.2000;0.2939;0.8997;
1270.5000;0.2939;0.8922;
1270.8000;0.2930;0.8972;
1271.1000;0.2914;0.8972;
1271.4000;0.2939;0.9097;
1271.7000;0.2947;0.9121;
1272.0000;0.2930;0.9121;
1272.3000;0.2922;0.9097;
1272.6000;0.2930;0.9097;
1272.9000;0.2882;0.8922;
1273.2000;0.2963;0.9171;
1273.5000;0.2939;0.9146;
1273.8000;0.2939;0.9196;
1274.1000;0.2922;0.9221;
1274.4000;0.2987;0.9371;
1274.7000;0.2922;0.9146;
1275.0000;0.2930;0.9146;
1275.3000;0.2930;0.9121;
1275.6000;0.2939;0.9146;
1275.9000;0.2947;0.9221;
1276.2000;0.2939;0.9321;
1276.5000;0.2947;0.9271;
1276.8000;0.2922;0.9221;
1277.1000;0.2906;0.9171;
1277.4000;0.2939;0.9146;
1277.7000;0.2963;0.9246;
1278.0000;0.2833;0.8847;
1278.3000;0.3036;0.9371;
1278.6000;0.2939;0.9121;
1278.9000;0.2947;0.9171;
1279.2000;0.3012;0.9371;
1279.5000;0.2930;0.9196;
1279.8000;0.2930;0.9271;
1280.1000;0.2922;0.9196;
1280.4000;0.2955;0.9246;
1280.7000;0.2939;0.9121;
1281.0000;0.2914;0.9121;
1281.3000;0.2930;0.9196;
1281.6000;0.2930;0.9171;
1281.9000;0.2939;0.9196;
1282.2000;0.2939;0.9146;
1282.5000;0.2833;0.8748;
1282.8000;0.2939;0.9022;
1283.1000;0.2930;0.8997;
1283.4000;0.2955;0.8997;
1283.7000;0.2955;0.8997;
1284.0000;0.2914;0.8972;
1284.3000;0.2947;0.9022;
1284.6000;0.2873;0.8872;
1284.9000;0.2939;0.9022;
1285.2000;0.2922;0.8997;
1285.5000;0.2955;0.9097;
1285.8000;0.2939;0.9097;
1286.1000;0.2914;0.9072;
1286.4000;0.2939;0.9121;
1286.7000;0.2939;0.9246;
1287.0000;0.2947;0.9321;
1287.3000;0.2947;0.9221;
1287.6000;0.2922;0.9097;
1287.9000;0.2922;0.9121;
1288.2000;0.2930;0.9146;
1288.5000;0.2947;0.9221;
1288.8000;0.2947;0.9246;
1289.1000;0.2955;0.9346;
1289.4000;0.2930;0.9321;
1289.7000;0.2939;0.9321;
1290.0000;0.2930;0.9246;
1290.3000;0.3012;0.9371;
1290.6000;0.2922;0.9097;
1290.9000;0.2939;0.9121;
1291.2000;0.2930;0.9121;
1291.5000;0.2914;0.9047;
1291.8000;0.2955;0.9121;
1292.1000;0.2955;0.9097;
1292.4000;0.2930;0.8997;
1292.7000;0.2955;0.9072;
1293.0000;0.2930;0.8922;
1293.3000;0.2947;0.8947;
1293.6000;0.2930;0.8872;
1293.9000;0.2939;0.8897;
1294.2000;0.2939;0.8872;
1294.5000;0.2947;0.8897;
1294.8000;0.2922;0.8822;
1295.1000;0.2930;0.8822;
1295.4000;0.2906;0.8773;
1295.7000;0.2930;0.8897;
1296.0000;0.2922;0.8847;
1296.3000;0.2939;0.8947;
1296.6000;0.2930;0.8922;
1296.9000;0.2914;0.8897;
1297.2000;0.2947;0.8972;
1297.5000;0.2939;0.8922;
1297.8000;0.2930;0.8897;
1298.1000;0.2906;0.8947;
1298.4000;0.2963;0.9097;
1298.7000;0.2939;0.9072;
1299.0000;0.2914;0.9072;
1299.3000;0.2922;0.8997;
1299.6000;0.2939;0.9022;
1299.9000;0.2955;0.9121;
1300.2000;0.2939;0.8972;
1300.5000;0.2873;0.8822;
1300.8000;0.2930;0.9022;
1301.1000;0.2930;0.8947;
1301.4000;0.2890;0.8872;
1301.7000;0.2914;0.8847;
1302.0000;0.2922;0.8897;
1302.3000;0.2987;0.9072;
1302.6000;0.2939;0.8997;
1302.9000;0.2947;0.8972;
1303.2000;0.2922;0.8972;
1303.5000;0.2939;0.9047;
1303.8000;0.2955;0.8972;
1304.1000;0.2930;0.8947;
1304.4000;0.2963;0.8972;
1304.7000;0.2922;0.8847;
1305.0000;0.2930;0.8897;
1305.3000;0.2947;0.8922;
1305.6000;0.2930;0.8822;
1305.9000;0.2930;0.8847;
1306.2000;0.2947;0.8922;
1306.5000;0.2849;0.8773;
1306.8000;0.2930;0.9022;
1307.1000;0.2947;0.8972;
1307.4000;0.2947;0.9121;
1307.7000;0.2930;0.9146;
1308.0000;0.2947;0.9171;
1308.3000;0.2955;0.9146;
1308.6000;0.2947;0.9171;
1308.9000;0.2939;0.9196;
1309.2000;0.2939;0.9171;
1309.5000;0.2939;0.9171;
1309.8000;0.2890;0.8997;
1310.1000;0.2922;0.9121;
1310.4000;0.2930;0.9121;
1310.7000;0.2922;0.9121;
1311.0000;0.2930;0.9146;
1311.3000;0.2914;0.9121;
1311.6000;0.2922;0.9097;
1311.9000;0.2930;0.9146;
1312.2000;0.2914;0.9097;
1312.5000;0.2947;0.9121;
1312.8000;0.2947;0.9146;
1313.1000;0.2955;0.9121;
1313.4000;0.2939;0.9072;
1313.7000;0.2939;0.9246;
1314.0000;0.2930;0.9246;
1314.3000;0.2939;0.9196;
1314.6000;0.2922;0.9171;
1314.9000;0.2955;0.9221;
1315.2000;0.3036;0.9445;
1315.5000;0.2939;0.9072;
1315.8000;0.2939;0.8922;
1316.1000;0.2930;0.8922;
1316.4000;0.2922;0.8897;
1316.7000;0.2963;0.8997;
1317.0000;0.2922;0.8922;
1317.3000;0.2939;0.9022;
1317.6000;0.2939;0.9072;
1317.9000;0.2939;0.8972;
1318.2000;0.2939;0.8997;
1318.5000;0.2939;0.8997;
1318.8000;0.2963;0.9146;
1319.1000;0.2922;0.9047;
1319.4000;0.2930;0.9097;
1319.7000;0.2955;0.9146;
1320.0000;0.2996;0.9221;
1320.3000;0.2947;0.9121;
1320.6000;0.2930;0.9097;
1320.9000;0.2906;0.9022;
1321.2000;0.2939;0.9171;
1321.5000;0.2939;0.9246;
1321.8000;0.2955;0.9321;
1322.1000;0.2922;0.9271;
1322.4000;0.2922;0.9271;
1322.7000;0.2922;0.9321;
1323.0000;0.2930;0.9445;
1323.3000;0.2922;0.9420;
1323.6000;0.2955;0.9495;
1323.9000;0.2955;0.9396;
1324.2000;0.2947;0.9271;
1324.5000;0.2955;0.9321;
1324.8000;0.2947;0.9296;
1325.1000;0.2947;0.9246;
1325.4000;0.2947;0.9246;
1325.7000;0.2939;0.9221;
1326.0000;0.2939;0.9146;
1326.3000;0.2939;0.9022;
1326.6000;0.2906;0.8972;
1326.9000;0.2922;0.9097;
1327.2000;0.2930;0.9146;
1327.5000;0.2939;0.9146;
1327.8000;0.2939;0.9171;
1328.1000;0.2947;0.9196;
1328.4000;0.2955;0.9146;
1328.7000;0.2939;0.9146;
1329.0000;0.2930;0.9196;
1329.3000;0.2996;0.9321;
1329.6000;0.2914;0.9047;
1329.9000;0.2922;0.9146;
1330.2000;0.2922;0.9196;
1330.5000;0.2939;0.9196;
1330.8000;0.2906;0.9171;
1331.1000;0.2922;0.9221;
1331.4000;0.2930;0.9246;
1331.7000;0.2955;0.9321;
1332.0000;0.2930;0.9271;
1332.3000;0.2914;0.9221;
1332.6000;0.2947;0.9271;
1332.9000;0.2947;0.9271;
1333.2000;0.2930;0.9271;
1333.5000;0.2930;0.9296;
1333.8000;0.3044;0.9570;
1334.1000;0.2955;0.9271;
1334.4000;0.2930;0.9221;
1334.7000;0.2939;0.9097;
1335.0000;0.2947;0.9121;
1335.3000;0.2939;0.9171;
1335.6000;0.2947;0.9097;
1335.9000;0.2930;0.9072;
1336.2000;0.2930;0.9072;
1336.5000;0.2930;0.9121;
1336.8000;0.2914;0.9171;
1337.1000;0.2930;0.9221;
1337.4000;0.2914;0.9246;
1337.7000;0.2955;0.9121;
1338.0000;0.2947;0.9097;
1338.3000;0.2849;0.8822;
1338.6000;0.2955;0.9097;
1338.9000;0.2939;0.9146;
1339.2000;0.2873;0.9072;
1339.5000;0.2939;0.9296;
1339.8000;0.2914;0.9371;
1340.1000;0.2930;0.9371;
1340.4000;0.2930;0.9396;
1340.7000;0.2955;0.9371;
1341.0000;0.2939;0.9321;
1341.3000;0.2930;0.9271;
1341.6000;0.2914;0.9221;
1341.9000;0.2914;0.9171;
1342.2000;0.2930;0.9221;
1342.5000;0.2939;0.9196;
1342.8000;0.2930;0.9271;
1343.1000;0.2947;0.9271;
1343.4000;0.2947;0.9146;
1343.7000;0.2971;0.9221;
1344.0000;0.2947;0.9221;
1344.3000;0.2947;0.9346;
1344.6000;0.2906;0.9296;
1344.9000;0.2922;0.9346;
1345.2000;0.2939;0.9346;
1345.5000;0.2955;0.9420;
1345.8000;0.2922;0.9321;
1346.1000;0.2955;0.9346;
1346.4000;0.3004;0.9495;
1346.7000;0.2939;0.9246;
1347.0000;0.2947;0.9171;
1347.3000;0.2947;0.9121;
1347.6000;0.2947;0.9121;
1347.9000;0.2939;0.9121;
1348.2000;0.2939;0.9121;
1348.5000;0.2939;0.9121;
1348.8000;0.2955;0.9121;
1349.1000;0.2947;0.9022;
1349.4000;0.2955;0.8997;
1349.7000;0.2930;0.8947;
1350.0000;0.2979;0.9072;
1350.3000;0.2930;0.8872;
1350.6000;0.2939;0.8797;
1350.9000;0.2939;0.8698;
1351.2000;0.2898;0.8573;
1351.5000;0.2930;0.8673;
1351.8000;0.2906;0.8648;
1352.1000;0.2939;0.8698;
1352.4000;0.2930;0.8673;
1352.7000;0.2955;0.8773;
1353.0000;0.2825;0.8523;
1353.3000;0.2939;0.8773;
1353.6000;0.2922;0.8822;
1353.9000;0.2939;0.9022;
1354.2000;0.2947;0.9121;
1354.5000;0.2939;0.9047;
1354.8000;0.2947;0.8997;
1355.1000;0.2930;0.9047;
1355.4000;0.2939;0.9121;
1355.7000;0.2922;0.9047;
1356.0000;0.2930;0.9121;
1356.3000;0.2930;0.9097;
1356.6000;0.2939;0.9196;
1356.9000;0.2947;0.9296;
1357.2000;0.2955;0.9171;
1357.5000;0.2930;0.9072;
1357.8000;0.3020;0.9346;
1358.1000;0.2939;0.9171;
1358.4000;0.2947;0.9146;
1358.7000;0.3004;0.9296;
1359.0000;0.2939;0.9196;
1359.3000;0.2947;0.9221;
1359.6000;0.2979;0.9420;
1359.9000;0.2930;0.9221;
1360.2000;0.2939;0.9271;
1360.5000;0.2939;0.9221;
1360.8000;0.2939;0.9171;
1361.1000;0.2939;0.9171;
1361.4000;0.2939;0.9121;
1361.7000;0.2914;0.9022;
1362.0000;0.2939;0.9072;
1362.3000;0.2930;0.9047;
1362.6000;0.2914;0.8972;
1362.9000;0.2939;0.9072;
1363.2000;0.2947;0.9146;
1363.5000;0.2930;0.9121;
1363.8000;0.2922;0.9072;
1364.1000;0.2939;0.9171;
1364.4000;0.2930;0.9221;
1364.7000;0.2930;0.9221;
1365.0000;0.2947;0.9271;
1365.3000;0.2914;0.9296;
1365.6000;0.2922;0.9221;
1365.9000;0.2922;0.9196;
1366.2000;0.2930;0.9171;
1366.5000;0.2930;0.9171;
1366.8000;0.2947;0.9121;
1367.1000;0.2922;0.9121;
1367.4000;0.2930;0.9047;
1367.7000;0.2947;0.9072;
1368.0000;0.2939;0.9146;
1368.3000;0.2906;0.9097;
1368.6000;0.2947;0.9146;
1368.9000;0.2996;0.9271;
1369.2000;0.2987;0.9196;
1369.5000;0.2963;0.9072;
1369.8000;0.2906;0.8947;
1370.1000;0.2930;0.8897;
1370.4000;0.2873;0.8773;
1370.7000;0.2955;0.8922;
1371.0000;0.2922;0.8897;
1371.3000;0.2939;0.8972;
1371.6000;0.2939;0.8972;
1371.9000;0.2963;0.8947;
1372.2000;0.2939;0.8922;
1372.5000;0.2930;0.8947;
1372.8000;0.2930;0.8997;
1373.1000;0.2947;0.9072;
1373.4000;0.2947;0.9121;
1373.7000;0.2914;0.9022;
1374.0000;0.2947;0.9121;
1374.3000;0.2930;0.9072;
1374.6000;0.2987;0.9246;
1374.9000;0.2971;0.9072;
1375.2000;0.2930;0.8897;
1375.5000;0.2930;0.8922;
1375.8000;0.2890;0.8897;
1376.1000;0.2939;0.8947;
1376.4000;0.2930;0.8972;
1376.7000;0.2922;0.9022;
1377.0000;0.2930;0.8997;
1377.3000;0.2947;0.8947;
1377.6000;0.2930;0.8922;
1377.9000;0.2939;0.8922;
1378.2000;0.2947;0.8997;
1378.5000;0.2947;0.9072;
1378.8000;0.2939;0.9196;
1379.1000;0.2947;0.9221;
1379.4000;0.2930;0.9196;
1379.7000;0.2947;0.9171;
1380.0000;0.2939;0.9171;
1380.3000;0.2939;0.9146;
1380.6000;0.2914;0.9196;
1380.9000;0.2939;0.9121;
1381.2000;0.2930;0.8972;
1381.5000;0.2939;0.8922;
1381.8000;0.2996;0.9072;
1382.1000;0.2930;0.8972;
1382.4000;0.2939;0.8997;
1382.7000;0.2979;0.9072;
1383.0000;0.2930;0.8997;
1383.3000;0.2939;0.8997;
1383.6000;0.2930;0.8997;
1383.9000;0.2939;0.8997;
1384.2000;0.2947;0.9072;
1384.5000;0.2939;0.8922;
1384.8000;0.2947;0.8922;
1385.1000;0.2955;0.8972;
1385.4000;0.2939;0.8997;
1385.7000;0.2939;0.8997;
1386.0000;0.2939;0.9097;
1386.3000;0.2930;0.9121;
1386.6000;0.2939;0.9146;
1386.9000;0.2939;0.9121;
1387.2000;0.2939;0.9097;
1387.5000;0.2947;0.9121;
1387.8000;0.2939;0.9121;
1388.1000;0.2930;0.9171;
1388.4000;0.2955;0.9321;
1388.7000;0.2914;0.9171;
1389.0000;0.2939;0.9146;
1389.3000;0.2922;0.9072;
1389.6000;0.2930;0.9022;
1389.9000;0.2955;0.9121;
1390.2000;0.2955;0.9121;
1390.5000;0.2939;0.9072;
1390.8000;0.2939;0.9171;
1391.1000;0.2939;0.9121;
1391.4000;0.2939;0.9121;
1391.7000;0.2939;0.9121;
1392.0000;0.2930;0.9171;
1392.3000;0.2939;0.9146;
1392.6000;0.2939;0.9221;
1392.9000;0.2930;0.9097;
1393.2000;0.2930;0.9072;
1393.5000;0.2947;0.8997;
1393.8000;0.2947;0.8972;
1394.1000;0.2939;0.8972;
1394.4000;0.2947;0.8997;
1394.7000;0.2930;0.9121;
1395.0000;0.2947;0.9097;
1395.3000;0.2947;0.9121;
1395.6000;0.2939;0.9097;
1395.9000;0.2939;0.9072;
1396.2000;0.2930;0.9022;
1396.5000;0.2930;0.9097;
1396.8000;0.2930;0.9121;
1397.1000;0.2922;0.9121;
1397.4000;0.2939;0.9171;
1397.7000;0.2939;0.9146;
1398.0000;0.2930;0.9146;
1398.3000;0.2914;0.9196;
1398.6000;0.2947;0.9321;
1398.9000;0.2930;0.9296;
1399.2000;0.2947;0.9346;
1399.5000;0.2930;0.9396;
1399.8000;0.2914;0.9346;
