time/ms;Fluo/V;P700 deltaI/I x10³;
-199.8000;0.5861;3.1668;
-199.5000;0.5820;3.1572;
-199.2000;0.5755;3.1356;
-198.9000;0.5820;3.1548;
-198.6000;0.5739;3.1356;
-198.3000;0.5828;3.1548;
-198.0000;0.5836;3.1644;
-197.7000;0.5845;3.1668;
-197.4000;0.5845;3.1692;
-197.1000;0.5845;3.1740;
-196.8000;0.5820;3.1644;
-196.5000;0.5836;3.1716;
-196.2000;0.5861;3.1836;
-195.9000;0.5836;3.1884;
-195.6000;0.5828;3.1860;
-195.3000;0.5861;3.1860;
-195.0000;0.5845;3.1788;
-194.7000;0.5869;3.1788;
-194.4000;0.5853;3.1596;
-194.1000;0.5845;3.1620;
-193.8000;0.5763;3.1452;
-193.5000;0.5845;3.1668;
-193.2000;0.5828;3.1668;
-192.9000;0.5836;3.1692;
-192.6000;0.5771;3.1500;
-192.3000;0.5828;3.1716;
-192.0000;0.5820;3.1812;
-191.7000;0.5845;3.1836;
-191.4000;0.5845;3.1860;
-191.1000;0.5845;3.1716;
-190.8000;0.5812;3.1812;
-190.5000;0.5902;3.1932;
-190.2000;0.5836;3.1812;
-189.9000;0.5869;3.1812;
-189.6000;0.5853;3.1668;
-189.3000;0.5812;3.1500;
-189.0000;0.5853;3.1572;
-188.7000;0.5845;3.1596;
-188.4000;0.5804;3.1476;
-188.1000;0.5788;3.1428;
-187.8000;0.5845;3.1548;
-187.5000;0.5836;3.1548;
-187.2000;0.5853;3.1548;
-186.9000;0.5836;3.1644;
-186.6000;0.5836;3.1740;
-186.3000;0.5877;3.1860;
-186.0000;0.5845;3.1764;
-185.7000;0.5877;3.1884;
-185.4000;0.5861;3.1788;
-185.1000;0.5828;3.1764;
-184.8000;0.5869;3.1812;
-184.5000;0.5820;3.1668;
-184.2000;0.5836;3.1620;
-183.9000;0.5861;3.1596;
-183.6000;0.5869;3.1524;
-183.3000;0.5812;3.1476;
-183.0000;0.5853;3.1572;
-182.7000;0.5812;3.1620;
-182.4000;0.5853;3.1692;
-182.1000;0.5804;3.1572;
-181.8000;0.5836;3.1668;
-181.5000;0.5869;3.1764;
-181.2000;0.5836;3.1716;
-180.9000;0.5861;3.1764;
-180.6000;0.5788;3.1572;
-180.3000;0.5853;3.1716;
-180.0000;0.5836;3.1620;
-179.7000;0.5861;3.1644;
-179.4000;0.5812;3.1500;
-179.1000;0.5836;3.1524;
-178.8000;0.5853;3.1668;
-178.5000;0.5861;3.1668;
-178.2000;0.5828;3.1596;
-177.9000;0.5845;3.1668;
-177.6000;0.5845;3.1668;
-177.3000;0.5836;3.1692;
-177.0000;0.5869;3.1788;
-176.7000;0.5853;3.1740;
-176.4000;0.5836;3.1740;
-176.1000;0.5869;3.1740;
-175.8000;0.5836;3.1764;
-175.5000;0.5853;3.1788;
-175.2000;0.5853;3.1788;
-174.9000;0.5828;3.1692;
-174.6000;0.5836;3.1644;
-174.3000;0.5861;3.1740;
-174.0000;0.5845;3.1740;
-173.7000;0.5836;3.1620;
-173.4000;0.5861;3.1716;
-173.1000;0.5731;3.1524;
-172.8000;0.5861;3.1740;
-172.5000;0.5853;3.1644;
-172.2000;0.5779;3.1476;
-171.9000;0.5845;3.1620;
-171.6000;0.5853;3.1620;
-171.3000;0.5836;3.1524;
-171.0000;0.5893;3.1620;
-170.7000;0.5853;3.1548;
-170.4000;0.5820;3.1524;
-170.1000;0.5804;3.1596;
-169.8000;0.5763;3.1404;
-169.5000;0.5836;3.1596;
-169.2000;0.5845;3.1596;
-168.9000;0.5828;3.1572;
-168.6000;0.5788;3.1524;
-168.3000;0.5845;3.1716;
-168.0000;0.5836;3.1692;
-167.7000;0.5853;3.1788;
-167.4000;0.5820;3.1812;
-167.1000;0.5845;3.1812;
-166.8000;0.5836;3.1716;
-166.5000;0.5820;3.1764;
-166.2000;0.5828;3.1812;
-165.9000;0.5869;3.1932;
-165.6000;0.5836;3.1740;
-165.3000;0.5836;3.1764;
-165.0000;0.5836;3.1788;
-164.7000;0.5845;3.1812;
-164.4000;0.5812;3.1788;
-164.1000;0.5845;3.1884;
-163.8000;0.5828;3.1908;
-163.5000;0.5820;3.1956;
-163.2000;0.5845;3.2004;
-162.9000;0.5828;3.1908;
-162.6000;0.5853;3.1932;
-162.3000;0.5845;3.1908;
-162.0000;0.5828;3.1908;
-161.7000;0.5853;3.1956;
-161.4000;0.5853;3.1836;
-161.1000;0.5853;3.1812;
-160.8000;0.5828;3.1788;
-160.5000;0.5885;3.1788;
-160.2000;0.5828;3.1620;
-159.9000;0.5853;3.1572;
-159.6000;0.5853;3.1620;
-159.3000;0.5861;3.1692;
-159.0000;0.5836;3.1668;
-158.7000;0.5828;3.1740;
-158.4000;0.5845;3.1788;
-158.1000;0.5853;3.1812;
-157.8000;0.5869;3.1812;
-157.5000;0.5845;3.1812;
-157.2000;0.5820;3.1836;
-156.9000;0.5845;3.1908;
-156.6000;0.5853;3.1884;
-156.3000;0.5853;3.1908;
-156.0000;0.5845;3.1956;
-155.7000;0.5828;3.2004;
-155.4000;0.5853;3.2028;
-155.1000;0.5828;3.1956;
-154.8000;0.5820;3.1980;
-154.5000;0.5845;3.2004;
-154.2000;0.5853;3.1956;
-153.9000;0.5861;3.1932;
-153.6000;0.5877;3.1908;
-153.3000;0.5828;3.1740;
-153.0000;0.5812;3.1692;
-152.7000;0.5869;3.1860;
-152.4000;0.5828;3.1788;
-152.1000;0.5812;3.1836;
-151.8000;0.5836;3.1884;
-151.5000;0.5820;3.1764;
-151.2000;0.5885;3.1908;
-150.9000;0.5828;3.1692;
-150.6000;0.5836;3.1740;
-150.3000;0.5804;3.1764;
-150.0000;0.5828;3.1692;
-149.7000;0.5820;3.1740;
-149.4000;0.5836;3.1860;
-149.1000;0.5845;3.1860;
-148.8000;0.5845;3.1812;
-148.5000;0.5836;3.1812;
-148.2000;0.5845;3.1884;
-147.9000;0.5804;3.1740;
-147.6000;0.5836;3.1836;
-147.3000;0.5779;3.1692;
-147.0000;0.5836;3.1812;
-146.7000;0.5869;3.1884;
-146.4000;0.5845;3.1860;
-146.1000;0.5836;3.1788;
-145.8000;0.5845;3.1788;
-145.5000;0.5845;3.1716;
-145.2000;0.5836;3.1716;
-144.9000;0.5828;3.1668;
-144.6000;0.5812;3.1668;
-144.3000;0.5836;3.1692;
-144.0000;0.5853;3.1716;
-143.7000;0.5828;3.1596;
-143.4000;0.5836;3.1596;
-143.1000;0.5853;3.1716;
-142.8000;0.5853;3.1740;
-142.5000;0.5836;3.1740;
-142.2000;0.5779;3.1620;
-141.9000;0.5836;3.1764;
-141.6000;0.5845;3.1860;
-141.3000;0.5845;3.1836;
-141.0000;0.5853;3.1812;
-140.7000;0.5836;3.1692;
-140.4000;0.5836;3.1692;
-140.1000;0.5877;3.1812;
-139.8000;0.5845;3.1764;
-139.5000;0.5820;3.1716;
-139.2000;0.5836;3.1812;
-138.9000;0.5836;3.1812;
-138.6000;0.5820;3.1740;
-138.3000;0.5836;3.1836;
-138.0000;0.5828;3.1836;
-137.7000;0.5836;3.1812;
-137.4000;0.5779;3.1620;
-137.1000;0.5820;3.1644;
-136.8000;0.5836;3.1596;
-136.5000;0.5836;3.1644;
-136.2000;0.5836;3.1740;
-135.9000;0.5861;3.1764;
-135.6000;0.5918;3.1980;
-135.3000;0.5836;3.1788;
-135.0000;0.5958;3.1980;
-134.7000;0.5853;3.1788;
-134.4000;0.5836;3.1836;
-134.1000;0.5836;3.1836;
-133.8000;0.5836;3.1836;
-133.5000;0.5820;3.1692;
-133.2000;0.5828;3.1716;
-132.9000;0.5853;3.1764;
-132.6000;0.5853;3.1788;
-132.3000;0.5869;3.1812;
-132.0000;0.5861;3.1788;
-131.7000;0.5853;3.1812;
-131.4000;0.5836;3.1764;
-131.1000;0.5845;3.1884;
-130.8000;0.5861;3.1956;
-130.5000;0.5853;3.1980;
-130.2000;0.5853;3.1908;
-129.9000;0.5812;3.1788;
-129.6000;0.5861;3.2028;
-129.3000;0.5885;3.2028;
-129.0000;0.5828;3.1836;
-128.7000;0.5820;3.1860;
-128.4000;0.5820;3.1788;
-128.1000;0.5796;3.1764;
-127.8000;0.5861;3.1836;
-127.5000;0.5845;3.1860;
-127.2000;0.5861;3.1908;
-126.9000;0.5836;3.1908;
-126.6000;0.5845;3.1932;
-126.3000;0.5828;3.1908;
-126.0000;0.5836;3.1860;
-125.7000;0.5836;3.1764;
-125.4000;0.5828;3.1788;
-125.1000;0.5804;3.1716;
-124.8000;0.5836;3.1788;
-124.5000;0.5853;3.1788;
-124.2000;0.5828;3.1692;
-123.9000;0.5845;3.1692;
-123.6000;0.5836;3.1692;
-123.3000;0.5902;3.1788;
-123.0000;0.5861;3.1692;
-122.7000;0.5845;3.1668;
-122.4000;0.5820;3.1596;
-122.1000;0.5853;3.1620;
-121.8000;0.5836;3.1548;
-121.5000;0.5828;3.1644;
-121.2000;0.5812;3.1620;
-120.9000;0.5836;3.1572;
-120.6000;0.5836;3.1644;
-120.3000;0.5820;3.1596;
-120.0000;0.5836;3.1740;
-119.7000;0.5828;3.1788;
-119.4000;0.5853;3.1812;
-119.1000;0.5836;3.1788;
-118.8000;0.5845;3.1860;
-118.5000;0.5845;3.1836;
-118.2000;0.5828;3.1788;
-117.9000;0.5836;3.1812;
-117.6000;0.5853;3.1764;
-117.3000;0.5845;3.1692;
-117.0000;0.5845;3.1716;
-116.7000;0.5828;3.1668;
-116.4000;0.5820;3.1692;
-116.1000;0.5828;3.1692;
-115.8000;0.5836;3.1716;
-115.5000;0.5836;3.1668;
-115.2000;0.5836;3.1668;
-114.9000;0.5836;3.1620;
-114.6000;0.5845;3.1620;
-114.3000;0.5845;3.1644;
-114.0000;0.5893;3.1788;
-113.7000;0.5836;3.1740;
-113.4000;0.5869;3.1740;
-113.1000;0.5845;3.1644;
-112.8000;0.5812;3.1572;
-112.5000;0.5853;3.1692;
-112.2000;0.5820;3.1740;
-111.9000;0.5869;3.1812;
-111.6000;0.5836;3.1620;
-111.3000;0.5820;3.1596;
-111.0000;0.5918;3.1860;
-110.7000;0.5836;3.1692;
-110.4000;0.5820;3.1692;
-110.1000;0.5828;3.1692;
-109.8000;0.5739;3.1380;
-109.5000;0.5828;3.1692;
-109.2000;0.5804;3.1668;
-108.9000;0.5828;3.1692;
-108.6000;0.5853;3.1788;
-108.3000;0.5828;3.1788;
-108.0000;0.5861;3.1908;
-107.7000;0.5828;3.1836;
-107.4000;0.5820;3.1812;
-107.1000;0.5836;3.1836;
-106.8000;0.5828;3.1860;
-106.5000;0.5836;3.1932;
-106.2000;0.5820;3.1812;
-105.9000;0.5836;3.1812;
-105.6000;0.5804;3.1692;
-105.3000;0.5845;3.1740;
-105.0000;0.5828;3.1764;
-104.7000;0.5828;3.1812;
-104.4000;0.5836;3.1788;
-104.1000;0.5820;3.1692;
-103.8000;0.5836;3.1716;
-103.5000;0.5836;3.1860;
-103.2000;0.5836;3.1860;
-102.9000;0.5845;3.1812;
-102.6000;0.5836;3.1836;
-102.3000;0.5861;3.1956;
-102.0000;0.5869;3.2004;
-101.7000;0.5845;3.1908;
-101.4000;0.5869;3.1908;
-101.1000;0.5853;3.1908;
-100.8000;0.5885;3.1980;
-100.5000;0.5836;3.1860;
-100.2000;0.5812;3.1764;
-99.9000;0.5861;3.1740;
-99.6000;0.5845;3.1668;
-99.3000;0.5861;3.1788;
-99.0000;0.5836;3.1764;
-98.7000;0.5836;3.1788;
-98.4000;0.5845;3.1812;
-98.1000;0.5853;3.1884;
-97.8000;0.5853;3.1908;
-97.5000;0.5828;3.1860;
-97.2000;0.5845;3.1884;
-96.9000;0.5820;3.1836;
-96.6000;0.5828;3.1908;
-96.3000;0.5853;3.1884;
-96.0000;0.5820;3.1812;
-95.7000;0.5828;3.1788;
-95.4000;0.5812;3.1692;
-95.1000;0.5845;3.1740;
-94.8000;0.5869;3.1836;
-94.5000;0.5845;3.1692;
-94.2000;0.5861;3.1716;
-93.9000;0.5779;3.1500;
-93.6000;0.5828;3.1620;
-93.3000;0.5845;3.1692;
-93.0000;0.5836;3.1716;
-92.7000;0.5828;3.1740;
-92.4000;0.5836;3.1764;
-92.1000;0.5836;3.1764;
-91.8000;0.5853;3.1716;
-91.5000;0.5836;3.1668;
-91.2000;0.5828;3.1620;
-90.9000;0.5861;3.1716;
-90.6000;0.5828;3.1644;
-90.3000;0.5836;3.1764;
-90.0000;0.5820;3.1788;
-89.7000;0.5836;3.1860;
-89.4000;0.5820;3.1884;
-89.1000;0.5836;3.1860;
-88.8000;0.5828;3.1908;
-88.5000;0.5853;3.2004;
-88.2000;0.5828;3.1908;
-87.9000;0.5796;3.1812;
-87.6000;0.5820;3.1836;
-87.3000;0.5828;3.1716;
-87.0000;0.5836;3.1716;
-86.7000;0.5836;3.1692;
-86.4000;0.5828;3.1596;
-86.1000;0.5828;3.1548;
-85.8000;0.5869;3.1668;
-85.5000;0.5836;3.1524;
-85.2000;0.5828;3.1572;
-84.9000;0.5828;3.1596;
-84.6000;0.5828;3.1668;
-84.3000;0.5788;3.1620;
-84.0000;0.5804;3.1716;
-83.7000;0.5812;3.1716;
-83.4000;0.5779;3.1644;
-83.1000;0.5836;3.1812;
-82.8000;0.5763;3.1692;
-82.5000;0.5812;3.1788;
-82.2000;0.5820;3.1884;
-81.9000;0.5836;3.2004;
-81.6000;0.5828;3.1980;
-81.3000;0.5828;3.1932;
-81.0000;0.5836;3.1932;
-80.7000;0.5836;3.1836;
-80.4000;0.5836;3.1788;
-80.1000;0.5828;3.1788;
-79.8000;0.5812;3.1716;
-79.5000;0.5845;3.1692;
-79.2000;0.5836;3.1644;
-78.9000;0.5820;3.1644;
-78.6000;0.5836;3.1764;
-78.3000;0.5820;3.1788;
-78.0000;0.5861;3.1860;
-77.7000;0.5820;3.1812;
-77.4000;0.5820;3.1764;
-77.1000;0.5828;3.1836;
-76.8000;0.5885;3.2028;
-76.5000;0.5828;3.1836;
-76.2000;0.5836;3.1836;
-75.9000;0.5845;3.1860;
-75.6000;0.5902;3.1980;
-75.3000;0.5804;3.1668;
-75.0000;0.5845;3.1788;
-74.7000;0.5836;3.1812;
-74.4000;0.5804;3.1812;
-74.1000;0.5828;3.1740;
-73.8000;0.5747;3.1380;
-73.5000;0.5828;3.1644;
-73.2000;0.5845;3.1716;
-72.9000;0.5836;3.1692;
-72.6000;0.5893;3.1884;
-72.3000;0.5836;3.1668;
-72.0000;0.5836;3.1644;
-71.7000;0.5836;3.1668;
-71.4000;0.5845;3.1716;
-71.1000;0.5836;3.1740;
-70.8000;0.5845;3.1740;
-70.5000;0.5845;3.1716;
-70.2000;0.5836;3.1692;
-69.9000;0.5820;3.1668;
-69.6000;0.5820;3.1548;
-69.3000;0.5820;3.1524;
-69.0000;0.5812;3.1572;
-68.7000;0.5828;3.1596;
-68.4000;0.5836;3.1620;
-68.1000;0.5820;3.1548;
-67.8000;0.5820;3.1524;
-67.5000;0.5820;3.1596;
-67.2000;0.5836;3.1716;
-66.9000;0.5869;3.1812;
-66.6000;0.5788;3.1716;
-66.3000;0.5820;3.1836;
-66.0000;0.5828;3.1860;
-65.7000;0.5828;3.1812;
-65.4000;0.5853;3.1836;
-65.1000;0.5828;3.1764;
-64.8000;0.5812;3.1692;
-64.5000;0.5812;3.1644;
-64.2000;0.5853;3.1692;
-63.9000;0.5845;3.1644;
-63.6000;0.5845;3.1716;
-63.3000;0.5853;3.1596;
-63.0000;0.5845;3.1692;
-62.7000;0.5861;3.1788;
-62.4000;0.5845;3.1740;
-62.1000;0.5845;3.1692;
-61.8000;0.5869;3.1716;
-61.5000;0.5845;3.1644;
-61.2000;0.5836;3.1596;
-60.9000;0.5820;3.1572;
-60.6000;0.5877;3.1812;
-60.3000;0.5779;3.1572;
-60.0000;0.5820;3.1620;
-59.7000;0.5812;3.1524;
-59.4000;0.5804;3.1428;
-59.1000;0.5845;3.1548;
-58.8000;0.5836;3.1548;
-58.5000;0.5828;3.1596;
-58.2000;0.5836;3.1476;
-57.9000;0.5820;3.1476;
-57.6000;0.5853;3.1524;
-57.3000;0.5763;3.1308;
-57.0000;0.5836;3.1428;
-56.7000;0.5820;3.1428;
-56.4000;0.5845;3.1428;
-56.1000;0.5836;3.1428;
-55.8000;0.5828;3.1476;
-55.5000;0.5820;3.1548;
-55.2000;0.5836;3.1476;
-54.9000;0.5828;3.1572;
-54.6000;0.5845;3.1692;
-54.3000;0.5820;3.1596;
-54.0000;0.5853;3.1596;
-53.7000;0.5820;3.1500;
-53.4000;0.5861;3.1596;
-53.1000;0.5845;3.1572;
-52.8000;0.5836;3.1620;
-52.5000;0.5836;3.1596;
-52.2000;0.5820;3.1500;
-51.9000;0.5845;3.1572;
-51.6000;0.5869;3.1692;
-51.3000;0.5804;3.1476;
-51.0000;0.5828;3.1404;
-50.7000;0.5828;3.1428;
-50.4000;0.5836;3.1428;
-50.1000;0.5836;3.1428;
-49.8000;0.5828;3.1404;
-49.5000;0.5820;3.1380;
-49.2000;0.5828;3.1428;
-48.9000;0.5828;3.1476;
-48.6000;0.5828;3.1476;
-48.3000;0.5845;3.1524;
-48.0000;0.5828;3.1476;
-47.7000;0.5812;3.1452;
-47.4000;0.5836;3.1596;
-47.1000;0.5836;3.1596;
-46.8000;0.5828;3.1572;
-46.5000;0.5828;3.1596;
-46.2000;0.5828;3.1572;
-45.9000;0.5812;3.1596;
-45.6000;0.5877;3.1764;
-45.3000;0.5812;3.1620;
-45.0000;0.5877;3.1668;
-44.7000;0.5828;3.1524;
-44.4000;0.5869;3.1644;
-44.1000;0.5828;3.1524;
-43.8000;0.5845;3.1476;
-43.5000;0.5845;3.1500;
-43.2000;0.5828;3.1572;
-42.9000;0.5812;3.1644;
-42.6000;0.5771;3.1596;
-42.3000;0.5853;3.1716;
-42.0000;0.5853;3.1644;
-41.7000;0.5828;3.1644;
-41.4000;0.5820;3.1620;
-41.1000;0.5836;3.1548;
-40.8000;0.5836;3.1476;
-40.5000;0.5828;3.1500;
-40.2000;0.5853;3.1524;
-39.9000;0.5869;3.1572;
-39.6000;0.5845;3.1524;
-39.3000;0.5869;3.1500;
-39.0000;0.5845;3.1476;
-38.7000;0.5861;3.1452;
-38.4000;0.5853;3.1452;
-38.1000;0.5828;3.1476;
-37.8000;0.5845;3.1500;
-37.5000;0.5796;3.1332;
-37.2000;0.5836;3.1476;
-36.9000;0.5836;3.1548;
-36.6000;0.5820;3.1596;
-36.3000;0.5853;3.1668;
-36.0000;0.5828;3.1596;
-35.7000;0.5828;3.1548;
-35.4000;0.5893;3.1788;
-35.1000;0.5845;3.1644;
-34.8000;0.5853;3.1644;
-34.5000;0.5877;3.1716;
-34.2000;0.5877;3.1716;
-33.9000;0.5861;3.1668;
-33.6000;0.5861;3.1692;
-33.3000;0.5885;3.1740;
-33.0000;0.5836;3.1620;
-32.7000;0.5820;3.1644;
-32.4000;0.5836;3.1620;
-32.1000;0.5828;3.1644;
-31.8000;0.5845;3.1548;
-31.5000;0.5836;3.1524;
-31.2000;0.5853;3.1548;
-30.9000;0.5820;3.1524;
-30.6000;0.5828;3.1572;
-30.3000;0.5812;3.1596;
-30.0000;0.5828;3.1596;
-29.7000;0.5820;3.1668;
-29.4000;0.5893;3.1908;
-29.1000;0.5836;3.1812;
-28.8000;0.5845;3.1932;
-28.5000;0.5885;3.1956;
-28.2000;0.5836;3.1836;
-27.9000;0.5820;3.1668;
-27.6000;0.5845;3.1620;
-27.3000;0.5828;3.1596;
-27.0000;0.5836;3.1620;
-26.7000;0.5796;3.1572;
-26.4000;0.5828;3.1620;
-26.1000;0.5828;3.1596;
-25.8000;0.5812;3.1548;
-25.5000;0.5820;3.1524;
-25.2000;0.5828;3.1620;
-24.9000;0.5828;3.1620;
-24.6000;0.5836;3.1596;
-24.3000;0.5828;3.1572;
-24.0000;0.5828;3.1620;
-23.7000;0.5836;3.1644;
-23.4000;0.5853;3.1740;
-23.1000;0.5836;3.1716;
-22.8000;0.5836;3.1692;
-22.5000;0.5845;3.1644;
-22.2000;0.5845;3.1668;
-21.9000;0.5828;3.1620;
-21.6000;0.5853;3.1596;
-21.3000;0.5836;3.1620;
-21.0000;0.5828;3.1716;
-20.7000;0.5804;3.1644;
-20.4000;0.5812;3.1644;
-20.1000;0.5861;3.1716;
-19.8000;0.5869;3.1764;
-19.5000;0.5788;3.1548;
-19.2000;0.5836;3.1716;
-18.9000;0.5836;3.1716;
-18.6000;0.5836;3.1692;
-18.3000;0.5853;3.1692;
-18.0000;0.5869;3.1764;
-17.7000;0.5861;3.1788;
-17.4000;0.5853;3.1788;
-17.1000;0.5861;3.1812;
-16.8000;0.5828;3.1692;
-16.5000;0.5853;3.1692;
-16.2000;0.5853;3.1620;
-15.9000;0.5845;3.1644;
-15.6000;0.5836;3.1620;
-15.3000;0.5869;3.1716;
-15.0000;0.5836;3.1596;
-14.7000;0.5845;3.1620;
-14.4000;0.5869;3.1668;
-14.1000;0.5861;3.1644;
-13.8000;0.5861;3.1620;
-13.5000;0.5845;3.1644;
-13.2000;0.5861;3.1524;
-12.9000;0.5828;3.1476;
-12.6000;0.5853;3.1524;
-12.3000;0.5845;3.1548;
-12.0000;0.5853;3.1572;
-11.7000;0.5820;3.1500;
-11.4000;0.5836;3.1596;
-11.1000;0.5820;3.1476;
-10.8000;0.5836;3.1548;
-10.5000;0.5836;3.1524;
-10.2000;0.5812;3.1524;
-9.9000;0.5853;3.1692;
-9.6000;0.5845;3.1716;
-9.3000;0.5779;3.1548;
-9.0000;0.5820;3.1572;
-8.7000;0.5836;3.1572;
-8.4000;0.5820;3.1500;
-8.1000;0.5845;3.1500;
-7.8000;0.5845;3.1500;
-7.5000;0.5836;3.1452;
-7.2000;0.5836;3.1476;
-6.9000;0.5845;3.1572;
-6.6000;0.5853;3.1596;
-6.3000;0.5902;3.1692;
-6.0000;0.5853;3.1572;
-5.7000;0.5853;3.1620;
-5.4000;0.5828;3.1596;
-5.1000;0.5845;3.1644;
-4.8000;0.5812;3.1572;
-4.5000;0.5820;3.1596;
-4.2000;0.5788;3.1500;
-3.9000;0.5836;3.1764;
-3.6000;0.5836;3.1716;
-3.3000;0.5950;3.1956;
-3.0000;0.5763;3.1476;
-2.7000;0.5845;3.1788;
-2.4000;0.5853;3.1788;
-2.1000;0.5845;3.1692;
-1.8000;0.5845;3.1668;
-1.5000;0.5845;3.1668;
-1.2000;0.5836;3.1644;
-0.9000;0.5853;3.1692;
-0.6000;0.5820;3.1620;
-0.3000;0.5812;3.1596;
0.0000;0.5812;3.1596;
0.3000;0.6024;3.1932;
0.6000;0.6276;3.2316;
0.9000;0.6463;3.2675;
1.2000;0.6650;3.3155;
1.5000;0.6732;3.3347;
1.8000;0.6838;3.3563;
2.1000;0.6895;3.3731;
2.4000;0.6960;3.3971;
2.7000;0.7000;3.4067;
3.0000;0.7049;3.4211;
3.3000;0.7049;3.4235;
3.6000;0.7106;3.4427;
3.9000;0.7131;3.4475;
4.2000;0.7155;3.4619;
4.5000;0.7212;3.4691;
4.8000;0.7204;3.4715;
5.1000;0.7228;3.4739;
5.4000;0.7342;3.5075;
5.7000;0.7261;3.4979;
6.0000;0.7293;3.5003;
6.3000;0.7302;3.4907;
6.6000;0.7334;3.4955;
6.9000;0.7359;3.5003;
7.2000;0.7367;3.4931;
7.5000;0.7391;3.4883;
7.8000;0.7383;3.4907;
8.1000;0.7375;3.4811;
8.4000;0.7432;3.4835;
8.7000;0.7416;3.4811;
9.0000;0.7440;3.4835;
9.3000;0.7456;3.4883;
9.6000;0.7489;3.4931;
9.9000;0.7530;3.4955;
10.2000;0.7505;3.4883;
10.5000;0.7513;3.4859;
10.8000;0.7554;3.4859;
11.1000;0.7570;3.4835;
11.4000;0.7562;3.4859;
11.7000;0.7652;3.5003;
12.0000;0.7603;3.4859;
12.3000;0.7611;3.4835;
12.6000;0.7570;3.4715;
12.9000;0.7635;3.4859;
13.2000;0.7643;3.4931;
13.5000;0.7660;3.4907;
13.8000;0.7668;3.4787;
14.1000;0.7570;3.4499;
14.4000;0.7684;3.4691;
14.7000;0.7676;3.4715;
15.0000;0.7709;3.4763;
15.3000;0.7733;3.4763;
15.6000;0.7717;3.4715;
15.9000;0.7741;3.4715;
16.2000;0.7749;3.4691;
16.5000;0.7733;3.4499;
16.8000;0.7766;3.4547;
17.1000;0.7790;3.4643;
17.4000;0.7774;3.4619;
17.7000;0.7798;3.4667;
18.0000;0.7823;3.4787;
18.3000;0.7806;3.4715;
18.6000;0.7782;3.4691;
18.9000;0.7839;3.4811;
19.2000;0.7798;3.4619;
19.5000;0.7839;3.4595;
19.8000;0.7855;3.4595;
20.1000;0.7863;3.4571;
20.4000;0.7855;3.4523;
20.7000;0.7888;3.4595;
21.0000;0.7880;3.4619;
21.3000;0.7863;3.4643;
21.6000;0.7888;3.4763;
21.9000;0.7871;3.4643;
22.2000;0.7896;3.4643;
22.5000;0.7920;3.4619;
22.8000;0.7928;3.4643;
23.1000;0.7912;3.4571;
23.4000;0.7920;3.4595;
23.7000;0.7937;3.4619;
24.0000;0.7920;3.4595;
24.3000;0.7912;3.4595;
24.6000;0.7945;3.4715;
24.9000;0.7945;3.4643;
25.2000;0.7953;3.4667;
25.5000;0.7928;3.4619;
25.8000;0.7961;3.4643;
26.1000;0.7969;3.4691;
26.4000;0.7928;3.4619;
26.7000;0.7953;3.4691;
27.0000;0.7937;3.4595;
27.3000;0.7993;3.4619;
27.6000;0.8010;3.4667;
27.9000;0.7985;3.4547;
28.2000;0.7985;3.4499;
28.5000;0.7993;3.4499;
28.8000;0.8002;3.4547;
29.1000;0.7977;3.4379;
29.4000;0.7993;3.4451;
29.7000;0.8010;3.4499;
30.0000;0.8026;3.4643;
30.3000;0.8018;3.4571;
30.6000;0.8010;3.4499;
30.9000;0.8010;3.4427;
31.2000;0.8042;3.4523;
31.5000;0.8042;3.4547;
31.8000;0.8026;3.4499;
32.1000;0.8026;3.4595;
32.4000;0.8010;3.4643;
32.7000;0.8050;3.4715;
33.0000;0.8042;3.4691;
33.3000;0.8050;3.4739;
33.6000;0.8034;3.4691;
33.9000;0.8050;3.4787;
34.2000;0.8042;3.4739;
34.5000;0.8050;3.4763;
34.8000;0.8067;3.4835;
35.1000;0.8059;3.4811;
35.4000;0.8059;3.4883;
35.7000;0.8107;3.4931;
36.0000;0.8075;3.4835;
36.3000;0.8018;3.4643;
36.6000;0.8075;3.4787;
36.9000;0.8091;3.4835;
37.2000;0.8116;3.4835;
37.5000;0.8075;3.4691;
37.8000;0.7993;3.4451;
38.1000;0.8091;3.4691;
38.4000;0.8075;3.4811;
38.7000;0.8050;3.4787;
39.0000;0.8091;3.4859;
39.3000;0.8083;3.4763;
39.6000;0.8091;3.4811;
39.9000;0.8099;3.4811;
40.2000;0.8099;3.4787;
40.5000;0.8140;3.4763;
40.8000;0.8124;3.4739;
41.1000;0.8091;3.4619;
41.4000;0.8132;3.4691;
41.7000;0.8116;3.4619;
42.0000;0.8116;3.4643;
42.3000;0.8116;3.4667;
42.6000;0.8132;3.4739;
42.9000;0.8099;3.4691;
43.2000;0.8116;3.4787;
43.5000;0.8116;3.4835;
43.8000;0.8091;3.4835;
44.1000;0.8107;3.4811;
44.4000;0.8124;3.4835;
44.7000;0.8107;3.4691;
45.0000;0.8116;3.4691;
45.3000;0.8140;3.4763;
45.6000;0.8107;3.4667;
45.9000;0.8124;3.4691;
46.2000;0.8107;3.4691;
46.5000;0.8132;3.4739;
46.8000;0.8124;3.4595;
47.1000;0.8116;3.4643;
47.4000;0.8132;3.4691;
47.7000;0.8132;3.4571;
48.0000;0.8132;3.4571;
48.3000;0.8140;3.4571;
48.6000;0.8124;3.4619;
48.9000;0.8140;3.4739;
49.2000;0.8124;3.4739;
49.5000;0.8116;3.4763;
49.8000;0.8132;3.4667;
50.1000;0.8124;3.4547;
50.4000;0.8164;3.4595;
50.7000;0.8140;3.4595;
51.0000;0.8148;3.4595;
51.3000;0.8132;3.4571;
51.6000;0.8140;3.4523;
51.9000;0.8156;3.4595;
52.2000;0.8164;3.4619;
52.5000;0.8164;3.4595;
52.8000;0.8181;3.4595;
53.1000;0.8164;3.4571;
53.4000;0.8164;3.4643;
53.7000;0.8156;3.4571;
54.0000;0.8148;3.4547;
54.3000;0.8173;3.4499;
54.6000;0.8148;3.4451;
54.9000;0.8148;3.4499;
55.2000;0.8132;3.4499;
55.5000;0.8148;3.4523;
55.8000;0.8181;3.4595;
56.1000;0.8148;3.4643;
56.4000;0.8164;3.4643;
56.7000;0.8156;3.4595;
57.0000;0.8156;3.4667;
57.3000;0.8140;3.4667;
57.6000;0.8148;3.4811;
57.9000;0.8148;3.4643;
58.2000;0.8230;3.4835;
58.5000;0.8173;3.4691;
58.8000;0.8197;3.4859;
59.1000;0.8173;3.4787;
59.4000;0.8164;3.4739;
59.7000;0.8140;3.4667;
60.0000;0.8148;3.4667;
60.3000;0.8140;3.4547;
60.6000;0.8173;3.4499;
60.9000;0.8181;3.4499;
61.2000;0.8164;3.4451;
61.5000;0.8156;3.4475;
61.8000;0.8164;3.4499;
62.1000;0.8181;3.4499;
62.4000;0.8173;3.4451;
62.7000;0.8173;3.4451;
63.0000;0.8181;3.4571;
63.3000;0.8181;3.4643;
63.6000;0.8189;3.4643;
63.9000;0.8189;3.4667;
64.2000;0.8181;3.4691;
64.5000;0.8132;3.4499;
64.8000;0.8181;3.4571;
65.1000;0.8181;3.4571;
65.4000;0.8197;3.4595;
65.7000;0.8197;3.4547;
66.0000;0.8197;3.4547;
66.3000;0.8197;3.4547;
66.6000;0.8197;3.4667;
66.9000;0.8197;3.4643;
67.2000;0.8238;3.4691;
67.5000;0.8164;3.4571;
67.8000;0.8213;3.4667;
68.1000;0.8197;3.4595;
68.4000;0.8205;3.4667;
68.7000;0.8189;3.4643;
69.0000;0.8189;3.4619;
69.3000;0.8197;3.4643;
69.6000;0.8189;3.4619;
69.9000;0.8181;3.4571;
70.2000;0.8205;3.4619;
70.5000;0.8213;3.4595;
70.8000;0.8197;3.4499;
71.1000;0.8205;3.4475;
71.4000;0.8140;3.4331;
71.7000;0.8181;3.4547;
72.0000;0.8189;3.4571;
72.3000;0.8238;3.4691;
72.6000;0.8132;3.4499;
72.9000;0.8189;3.4643;
73.2000;0.8221;3.4643;
73.5000;0.8140;3.4403;
73.8000;0.8189;3.4547;
74.1000;0.8189;3.4595;
74.4000;0.8295;3.4859;
74.7000;0.8205;3.4619;
75.0000;0.8189;3.4499;
75.3000;0.8270;3.4571;
75.6000;0.8230;3.4523;
75.9000;0.8205;3.4451;
76.2000;0.8205;3.4355;
76.5000;0.8213;3.4427;
76.8000;0.8205;3.4547;
77.1000;0.8197;3.4547;
77.4000;0.8173;3.4499;
77.7000;0.8197;3.4523;
78.0000;0.8205;3.4547;
78.3000;0.8213;3.4619;
78.6000;0.8221;3.4715;
78.9000;0.8205;3.4667;
79.2000;0.8205;3.4619;
79.5000;0.8221;3.4619;
79.8000;0.8197;3.4619;
80.1000;0.8197;3.4499;
80.4000;0.8189;3.4523;
80.7000;0.8197;3.4475;
81.0000;0.8197;3.4451;
81.3000;0.8197;3.4499;
81.6000;0.8189;3.4475;
81.9000;0.8189;3.4499;
82.2000;0.8213;3.4571;
82.5000;0.8213;3.4523;
82.8000;0.8238;3.4667;
83.1000;0.8197;3.4595;
83.4000;0.8213;3.4595;
83.7000;0.8213;3.4691;
84.0000;0.8205;3.4691;
84.3000;0.8197;3.4619;
84.6000;0.8213;3.4643;
84.9000;0.8173;3.4571;
85.2000;0.8197;3.4595;
85.5000;0.8173;3.4547;
85.8000;0.8287;3.4835;
86.1000;0.8213;3.4595;
86.4000;0.8205;3.4595;
86.7000;0.8246;3.4811;
87.0000;0.8221;3.4691;
87.3000;0.8262;3.4763;
87.6000;0.8221;3.4667;
87.9000;0.8230;3.4643;
88.2000;0.8205;3.4499;
88.5000;0.8213;3.4571;
88.8000;0.8189;3.4499;
89.1000;0.8213;3.4595;
89.4000;0.8173;3.4475;
89.7000;0.8205;3.4571;
90.0000;0.8221;3.4595;
90.3000;0.8197;3.4523;
90.6000;0.8221;3.4571;
90.9000;0.8213;3.4547;
91.2000;0.8221;3.4499;
91.5000;0.8213;3.4499;
91.8000;0.8213;3.4523;
92.1000;0.8213;3.4547;
92.4000;0.8205;3.4571;
92.7000;0.8189;3.4523;
93.0000;0.8230;3.4595;
93.3000;0.8230;3.4643;
93.6000;0.8221;3.4691;
93.9000;0.8213;3.4691;
94.2000;0.8189;3.4619;
94.5000;0.8213;3.4643;
94.8000;0.8205;3.4595;
95.1000;0.8213;3.4523;
95.4000;0.8205;3.4523;
95.7000;0.8221;3.4475;
96.0000;0.8213;3.4523;
96.3000;0.8205;3.4571;
96.6000;0.8230;3.4739;
96.9000;0.8213;3.4715;
97.2000;0.8221;3.4811;
97.5000;0.8148;3.4643;
97.8000;0.8230;3.4811;
98.1000;0.8197;3.4715;
98.4000;0.8213;3.4643;
98.7000;0.8221;3.4667;
99.0000;0.8221;3.4595;
99.3000;0.8205;3.4571;
99.6000;0.8189;3.4619;
99.9000;0.8213;3.4643;
100.2000;0.8213;3.4619;
100.5000;0.8221;3.4643;
100.8000;0.8221;3.4691;
101.1000;0.8230;3.4739;
101.4000;0.8221;3.4763;
101.7000;0.8221;3.4835;
102.0000;0.8205;3.4763;
102.3000;0.8221;3.4787;
102.6000;0.8221;3.4739;
102.9000;0.8230;3.4787;
103.2000;0.8213;3.4835;
103.5000;0.8213;3.4763;
103.8000;0.8213;3.4763;
104.1000;0.8287;3.4811;
104.4000;0.8213;3.4691;
104.7000;0.8230;3.4691;
105.0000;0.8221;3.4715;
105.3000;0.8221;3.4739;
105.6000;0.8197;3.4619;
105.9000;0.8213;3.4715;
106.2000;0.8238;3.4667;
106.5000;0.8197;3.4595;
106.8000;0.8213;3.4547;
107.1000;0.8213;3.4523;
107.4000;0.8221;3.4595;
107.7000;0.8221;3.4643;
108.0000;0.8221;3.4619;
108.3000;0.8230;3.4667;
108.6000;0.8221;3.4643;
108.9000;0.8221;3.4595;
109.2000;0.8213;3.4523;
109.5000;0.8221;3.4547;
109.8000;0.8213;3.4523;
110.1000;0.8246;3.4643;
110.4000;0.8262;3.4667;
110.7000;0.8238;3.4619;
111.0000;0.8295;3.4763;
111.3000;0.8230;3.4451;
111.6000;0.8254;3.4523;
111.9000;0.8221;3.4403;
112.2000;0.8221;3.4403;
112.5000;0.8221;3.4427;
112.8000;0.8230;3.4523;
113.1000;0.8221;3.4523;
113.4000;0.8164;3.4379;
113.7000;0.8181;3.4379;
114.0000;0.8230;3.4499;
114.3000;0.8246;3.4595;
114.6000;0.8238;3.4619;
114.9000;0.8230;3.4643;
115.2000;0.8230;3.4691;
115.5000;0.8221;3.4691;
115.8000;0.8213;3.4547;
116.1000;0.8230;3.4499;
116.4000;0.8213;3.4523;
116.7000;0.8213;3.4547;
117.0000;0.8221;3.4547;
117.3000;0.8221;3.4523;
117.6000;0.8230;3.4523;
117.9000;0.8238;3.4595;
118.2000;0.8221;3.4595;
118.5000;0.8238;3.4571;
118.8000;0.8238;3.4571;
119.1000;0.8230;3.4547;
119.4000;0.8221;3.4499;
119.7000;0.8230;3.4475;
120.0000;0.8230;3.4451;
120.3000;0.8254;3.4523;
120.6000;0.8254;3.4571;
120.9000;0.8238;3.4499;
121.2000;0.8238;3.4523;
121.5000;0.8238;3.4571;
121.8000;0.8221;3.4571;
122.1000;0.8327;3.4763;
122.4000;0.8230;3.4595;
122.7000;0.8221;3.4547;
123.0000;0.8246;3.4499;
123.3000;0.8230;3.4475;
123.6000;0.8246;3.4523;
123.9000;0.8246;3.4523;
124.2000;0.8221;3.4475;
124.5000;0.8213;3.4427;
124.8000;0.8221;3.4451;
125.1000;0.8221;3.4403;
125.4000;0.8221;3.4523;
125.7000;0.8246;3.4523;
126.0000;0.8230;3.4499;
126.3000;0.8221;3.4499;
126.6000;0.8213;3.4523;
126.9000;0.8246;3.4571;
127.2000;0.8246;3.4595;
127.5000;0.8238;3.4595;
127.8000;0.8246;3.4595;
128.1000;0.8238;3.4571;
128.4000;0.8230;3.4571;
128.7000;0.8230;3.4595;
129.0000;0.8230;3.4595;
129.3000;0.8230;3.4571;
129.6000;0.8287;3.4715;
129.9000;0.8230;3.4547;
130.2000;0.8230;3.4595;
130.5000;0.8246;3.4739;
130.8000;0.8238;3.4763;
131.1000;0.8221;3.4643;
131.4000;0.8221;3.4787;
131.7000;0.8230;3.4859;
132.0000;0.8221;3.4811;
132.3000;0.8221;3.4811;
132.6000;0.8230;3.4859;
132.9000;0.8238;3.4883;
133.2000;0.8246;3.4859;
133.5000;0.8213;3.4763;
133.8000;0.8221;3.4787;
134.1000;0.8238;3.4763;
134.4000;0.8230;3.4811;
134.7000;0.8238;3.4715;
135.0000;0.8221;3.4619;
135.3000;0.8230;3.4643;
135.6000;0.8238;3.4667;
135.9000;0.8230;3.4739;
136.2000;0.8213;3.4643;
136.5000;0.8278;3.4787;
136.8000;0.8221;3.4691;
137.1000;0.8254;3.4787;
137.4000;0.8221;3.4691;
137.7000;0.8230;3.4619;
138.0000;0.8262;3.4715;
138.3000;0.8246;3.4667;
138.6000;0.8213;3.4691;
138.9000;0.8213;3.4763;
139.2000;0.8221;3.4763;
139.5000;0.8278;3.4955;
139.8000;0.8230;3.4691;
140.1000;0.8262;3.4763;
140.4000;0.8278;3.4859;
140.7000;0.8230;3.4667;
141.0000;0.8238;3.4619;
141.3000;0.8254;3.4715;
141.6000;0.8230;3.4667;
141.9000;0.8238;3.4715;
142.2000;0.8246;3.4763;
142.5000;0.8246;3.4667;
142.8000;0.8246;3.4595;
143.1000;0.8262;3.4643;
143.4000;0.8238;3.4787;
143.7000;0.8221;3.4787;
144.0000;0.8221;3.4787;
144.3000;0.8230;3.4811;
144.6000;0.8335;3.5099;
144.9000;0.8230;3.4907;
145.2000;0.8230;3.4883;
145.5000;0.8254;3.4955;
145.8000;0.8238;3.4955;
146.1000;0.8238;3.4979;
146.4000;0.8238;3.5051;
146.7000;0.8221;3.5122;
147.0000;0.8246;3.5170;
147.3000;0.8238;3.5218;
147.6000;0.8205;3.5027;
147.9000;0.8238;3.5122;
148.2000;0.8238;3.5194;
148.5000;0.8197;3.5027;
148.8000;0.8230;3.5051;
149.1000;0.8238;3.5075;
149.4000;0.8246;3.5003;
149.7000;0.8221;3.5003;
150.0000;0.8230;3.4931;
150.3000;0.8197;3.4907;
150.6000;0.8230;3.4979;
150.9000;0.8205;3.4859;
151.2000;0.8230;3.4883;
151.5000;0.8116;3.4763;
151.8000;0.8278;3.5170;
152.1000;0.8230;3.4955;
152.4000;0.8238;3.5027;
152.7000;0.8238;3.4955;
153.0000;0.8230;3.4955;
153.3000;0.8230;3.4979;
153.6000;0.8262;3.5027;
153.9000;0.8156;3.4787;
154.2000;0.8238;3.4955;
154.5000;0.8213;3.4979;
154.8000;0.8140;3.4739;
155.1000;0.8238;3.4931;
155.4000;0.8254;3.5003;
155.7000;0.8221;3.4907;
156.0000;0.8246;3.4955;
156.3000;0.8221;3.4859;
156.6000;0.8221;3.4907;
156.9000;0.8238;3.4931;
157.2000;0.8238;3.4907;
157.5000;0.8246;3.5003;
157.8000;0.8230;3.4907;
158.1000;0.8246;3.4883;
158.4000;0.8246;3.4955;
158.7000;0.8221;3.4883;
159.0000;0.8238;3.4907;
159.3000;0.8238;3.4859;
159.6000;0.8262;3.4931;
159.9000;0.8246;3.4883;
160.2000;0.8238;3.4979;
160.5000;0.8238;3.5027;
160.8000;0.8254;3.4979;
161.1000;0.8254;3.4931;
161.4000;0.8238;3.4907;
161.7000;0.8246;3.4907;
162.0000;0.8278;3.4955;
162.3000;0.8262;3.4955;
162.6000;0.8262;3.4955;
162.9000;0.8238;3.4835;
163.2000;0.8230;3.4739;
163.5000;0.8238;3.4787;
163.8000;0.8221;3.4811;
164.1000;0.8221;3.4859;
164.4000;0.8262;3.4955;
164.7000;0.8230;3.4907;
165.0000;0.8303;3.5075;
165.3000;0.8278;3.5003;
165.6000;0.8230;3.4979;
165.9000;0.8254;3.5075;
166.2000;0.8205;3.4907;
166.5000;0.8238;3.4955;
166.8000;0.8246;3.4979;
167.1000;0.8230;3.4859;
167.4000;0.8164;3.4571;
167.7000;0.8246;3.4715;
168.0000;0.8246;3.4595;
168.3000;0.8335;3.4835;
168.6000;0.8246;3.4595;
168.9000;0.8238;3.4547;
169.2000;0.8238;3.4523;
169.5000;0.8238;3.4571;
169.8000;0.8254;3.4643;
170.1000;0.8270;3.4667;
170.4000;0.8238;3.4547;
170.7000;0.8254;3.4667;
171.0000;0.8246;3.4715;
171.3000;0.8238;3.4643;
171.6000;0.8221;3.4595;
171.9000;0.8164;3.4451;
172.2000;0.8205;3.4547;
172.5000;0.8246;3.4811;
172.8000;0.8238;3.4835;
173.1000;0.8238;3.4859;
173.4000;0.8270;3.4883;
173.7000;0.8213;3.4667;
174.0000;0.8238;3.4691;
174.3000;0.8230;3.4643;
174.6000;0.8230;3.4643;
174.9000;0.8230;3.4715;
175.2000;0.8246;3.4763;
175.5000;0.8246;3.4763;
175.8000;0.8262;3.4811;
176.1000;0.8221;3.4739;
176.4000;0.8238;3.4715;
176.7000;0.8230;3.4667;
177.0000;0.8238;3.4691;
177.3000;0.8238;3.4619;
177.6000;0.8238;3.4595;
177.9000;0.8238;3.4619;
178.2000;0.8238;3.4643;
178.5000;0.8238;3.4643;
178.8000;0.8238;3.4739;
179.1000;0.8230;3.4691;
179.4000;0.8254;3.4763;
179.7000;0.8238;3.4787;
180.0000;0.8246;3.4715;
180.3000;0.8148;3.4523;
180.6000;0.8230;3.4763;
180.9000;0.8254;3.4835;
181.2000;0.8246;3.4931;
181.5000;0.8254;3.4859;
181.8000;0.8246;3.4883;
182.1000;0.8230;3.4883;
182.4000;0.8213;3.4739;
182.7000;0.8238;3.4811;
183.0000;0.8246;3.4715;
183.3000;0.8254;3.4811;
183.6000;0.8278;3.4763;
183.9000;0.8246;3.4715;
184.2000;0.8221;3.4739;
184.5000;0.8278;3.4787;
184.8000;0.8246;3.4763;
185.1000;0.8246;3.4835;
185.4000;0.8311;3.4955;
185.7000;0.8238;3.4715;
186.0000;0.8213;3.4595;
186.3000;0.8262;3.4715;
186.6000;0.8262;3.4715;
186.9000;0.8238;3.4571;
187.2000;0.8295;3.4643;
187.5000;0.8270;3.4619;
187.8000;0.8238;3.4547;
188.1000;0.8213;3.4475;
188.4000;0.8254;3.4571;
188.7000;0.8262;3.4475;
189.0000;0.8238;3.4451;
189.3000;0.8254;3.4643;
189.6000;0.8189;3.4571;
189.9000;0.8262;3.4787;
190.2000;0.8246;3.4715;
190.5000;0.8246;3.4667;
190.8000;0.8221;3.4595;
191.1000;0.8238;3.4619;
191.4000;0.8311;3.4811;
191.7000;0.8254;3.4643;
192.0000;0.8238;3.4643;
192.3000;0.8270;3.4715;
192.6000;0.8254;3.4667;
192.9000;0.8262;3.4667;
193.2000;0.8246;3.4667;
193.5000;0.8246;3.4667;
193.8000;0.8246;3.4595;
194.1000;0.8303;3.4883;
194.4000;0.8246;3.4835;
194.7000;0.8230;3.4787;
195.0000;0.8270;3.4811;
195.3000;0.8246;3.4715;
195.6000;0.8238;3.4643;
195.9000;0.8230;3.4571;
196.2000;0.8246;3.4691;
196.5000;0.8246;3.4763;
196.8000;0.8230;3.4763;
197.1000;0.8230;3.4763;
197.4000;0.8246;3.4763;
197.7000;0.8238;3.4715;
198.0000;0.8246;3.4787;
198.3000;0.8213;3.4763;
198.6000;0.8246;3.4859;
198.9000;0.8246;3.4859;
199.2000;0.8262;3.4883;
199.5000;0.8189;3.4643;
199.8000;0.8230;3.4739;
200.1000;0.8238;3.4787;
200.4000;0.8246;3.4835;
200.7000;0.8230;3.4787;
201.0000;0.8238;3.4739;
201.3000;0.8230;3.4739;
201.6000;0.8205;3.4739;
201.9000;0.8230;3.4907;
202.2000;0.8238;3.4883;
202.5000;0.8238;3.4931;
202.8000;0.8254;3.4955;
203.1000;0.8262;3.4931;
203.4000;0.8230;3.4883;
203.7000;0.8246;3.4811;
204.0000;0.8254;3.4787;
204.3000;0.8270;3.4739;
204.6000;0.8230;3.4643;
204.9000;0.8230;3.4715;
205.2000;0.8246;3.4811;
205.5000;0.8230;3.4859;
205.8000;0.8238;3.4883;
206.1000;0.8230;3.4835;
206.4000;0.8221;3.4883;
206.7000;0.8319;3.5099;
207.0000;0.8230;3.4931;
207.3000;0.8246;3.5051;
207.6000;0.8254;3.5003;
207.9000;0.8254;3.4979;
208.2000;0.8254;3.5027;
208.5000;0.8238;3.4979;
208.8000;0.8238;3.4955;
209.1000;0.8230;3.5003;
209.4000;0.8254;3.5003;
209.7000;0.8238;3.5003;
210.0000;0.8221;3.4883;
210.3000;0.8238;3.4859;
210.6000;0.8254;3.4907;
210.9000;0.8230;3.4907;
211.2000;0.8246;3.4931;
211.5000;0.8278;3.4979;
211.8000;0.8238;3.4883;
212.1000;0.8221;3.4931;
212.4000;0.8230;3.5003;
212.7000;0.8238;3.5003;
213.0000;0.8238;3.5003;
213.3000;0.8238;3.5027;
213.6000;0.8238;3.5027;
213.9000;0.8230;3.4955;
214.2000;0.8230;3.4955;
214.5000;0.8246;3.4931;
214.8000;0.8254;3.4907;
215.1000;0.8230;3.4811;
215.4000;0.8246;3.4859;
215.7000;0.8246;3.4835;
216.0000;0.8238;3.4787;
216.3000;0.8230;3.4811;
216.6000;0.8221;3.4859;
216.9000;0.8238;3.4859;
217.2000;0.8238;3.4859;
217.5000;0.8238;3.4859;
217.8000;0.8230;3.4835;
218.1000;0.8246;3.4883;
218.4000;0.8238;3.4835;
218.7000;0.8238;3.4739;
219.0000;0.8238;3.4691;
219.3000;0.8254;3.4739;
219.6000;0.8319;3.4979;
219.9000;0.8238;3.4931;
220.2000;0.8246;3.4979;
220.5000;0.8262;3.4979;
220.8000;0.8246;3.5003;
221.1000;0.8262;3.4979;
221.4000;0.8230;3.4835;
221.7000;0.8246;3.4859;
222.0000;0.8254;3.4859;
222.3000;0.8238;3.4883;
222.6000;0.8221;3.4787;
222.9000;0.8262;3.4883;
223.2000;0.8254;3.4955;
223.5000;0.8230;3.4883;
223.8000;0.8254;3.4979;
224.1000;0.8230;3.4955;
224.4000;0.8246;3.5003;
224.7000;0.8181;3.4859;
225.0000;0.8213;3.4883;
225.3000;0.8230;3.4859;
225.6000;0.8262;3.4931;
225.9000;0.8213;3.4835;
226.2000;0.8221;3.4835;
226.5000;0.8221;3.4931;
226.8000;0.8230;3.5003;
227.1000;0.8230;3.4907;
227.4000;0.8303;3.4883;
227.7000;0.8270;3.4787;
228.0000;0.8262;3.4643;
228.3000;0.8254;3.4643;
228.6000;0.8181;3.4475;
228.9000;0.8254;3.4547;
229.2000;0.8238;3.4619;
229.5000;0.8254;3.4643;
229.8000;0.8246;3.4619;
230.1000;0.8254;3.4643;
230.4000;0.8246;3.4643;
230.7000;0.8238;3.4667;
231.0000;0.8246;3.4667;
231.3000;0.8238;3.4571;
231.6000;0.8205;3.4499;
231.9000;0.8230;3.4523;
232.2000;0.8238;3.4523;
232.5000;0.8238;3.4571;
232.8000;0.8213;3.4475;
233.1000;0.8230;3.4547;
233.4000;0.8246;3.4619;
233.7000;0.8238;3.4595;
234.0000;0.8238;3.4523;
234.3000;0.8238;3.4547;
234.6000;0.8238;3.4691;
234.9000;0.8246;3.4811;
235.2000;0.8189;3.4667;
235.5000;0.8238;3.4763;
235.8000;0.8246;3.4835;
236.1000;0.8230;3.4715;
236.4000;0.8205;3.4547;
236.7000;0.8230;3.4571;
237.0000;0.8246;3.4643;
237.3000;0.8221;3.4595;
237.6000;0.8238;3.4619;
237.9000;0.8230;3.4691;
238.2000;0.8246;3.4739;
238.5000;0.8262;3.4835;
238.8000;0.8238;3.4739;
239.1000;0.8230;3.4667;
239.4000;0.8230;3.4691;
239.7000;0.8246;3.4715;
240.0000;0.8238;3.4715;
240.3000;0.8246;3.4715;
240.6000;0.8238;3.4835;
240.9000;0.8246;3.4859;
241.2000;0.8238;3.4835;
241.5000;0.8197;3.4715;
241.8000;0.8238;3.4715;
242.1000;0.8246;3.4739;
242.4000;0.8254;3.4715;
242.7000;0.8238;3.4715;
243.0000;0.8230;3.4715;
243.3000;0.8254;3.4763;
243.6000;0.8262;3.4811;
243.9000;0.8246;3.4691;
244.2000;0.8246;3.4667;
244.5000;0.8254;3.4643;
244.8000;0.8238;3.4691;
245.1000;0.8246;3.4667;
245.4000;0.8238;3.4739;
245.7000;0.8254;3.4859;
246.0000;0.8221;3.4811;
246.3000;0.8238;3.4715;
246.6000;0.8230;3.4571;
246.9000;0.8213;3.4595;
247.2000;0.8230;3.4571;
247.5000;0.8254;3.4643;
247.8000;0.8246;3.4667;
248.1000;0.8230;3.4715;
248.4000;0.8254;3.4811;
248.7000;0.8230;3.4763;
249.0000;0.8246;3.4739;
249.3000;0.8254;3.4715;
249.6000;0.8238;3.4811;
249.9000;0.8254;3.4811;
250.2000;0.8230;3.4715;
250.5000;0.8189;3.4451;
250.8000;0.8246;3.4571;
251.1000;0.8221;3.4475;
251.4000;0.8221;3.4523;
251.7000;0.8246;3.4571;
252.0000;0.8221;3.4547;
252.3000;0.8238;3.4619;
252.6000;0.8246;3.4523;
252.9000;0.8238;3.4571;
253.2000;0.8238;3.4643;
253.5000;0.8230;3.4571;
253.8000;0.8254;3.4619;
254.1000;0.8254;3.4643;
254.4000;0.8238;3.4691;
254.7000;0.8238;3.4547;
255.0000;0.8254;3.4547;
255.3000;0.8270;3.4547;
255.6000;0.8238;3.4523;
255.9000;0.8238;3.4595;
256.2000;0.8287;3.4739;
256.5000;0.8221;3.4523;
256.8000;0.8230;3.4571;
257.1000;0.8238;3.4619;
257.4000;0.8254;3.4667;
257.7000;0.8246;3.4691;
258.0000;0.8238;3.4715;
258.3000;0.8246;3.4763;
258.6000;0.8246;3.4643;
258.9000;0.8254;3.4691;
259.2000;0.8246;3.4715;
259.5000;0.8238;3.4763;
259.8000;0.8230;3.4763;
260.1000;0.8189;3.4595;
260.4000;0.8156;3.4523;
260.7000;0.8221;3.4691;
261.0000;0.8254;3.4739;
261.3000;0.8238;3.4763;
261.6000;0.8246;3.4859;
261.9000;0.8221;3.4835;
262.2000;0.8246;3.4835;
262.5000;0.8238;3.4883;
262.8000;0.8238;3.4883;
263.1000;0.8238;3.4979;
263.4000;0.8254;3.4931;
263.7000;0.8230;3.4811;
264.0000;0.8246;3.4907;
264.3000;0.8278;3.5003;
264.6000;0.8238;3.4859;
264.9000;0.8230;3.4811;
265.2000;0.8246;3.4739;
265.5000;0.8262;3.4811;
265.8000;0.8238;3.4763;
266.1000;0.8181;3.4571;
266.4000;0.8246;3.4619;
266.7000;0.8238;3.4619;
267.0000;0.8238;3.4619;
267.3000;0.8352;3.4931;
267.6000;0.8238;3.4787;
267.9000;0.8254;3.4787;
268.2000;0.8238;3.4715;
268.5000;0.8205;3.4619;
268.8000;0.8230;3.4571;
269.1000;0.8254;3.4595;
269.4000;0.8238;3.4691;
269.7000;0.8238;3.4715;
270.0000;0.8213;3.4763;
270.3000;0.8295;3.4883;
270.6000;0.8254;3.4691;
270.9000;0.8246;3.4691;
271.2000;0.8205;3.4643;
271.5000;0.8262;3.4787;
271.8000;0.8230;3.4619;
272.1000;0.8238;3.4595;
272.4000;0.8221;3.4619;
272.7000;0.8230;3.4595;
273.0000;0.8230;3.4667;
273.3000;0.8246;3.4643;
273.6000;0.8221;3.4571;
273.9000;0.8246;3.4643;
274.2000;0.8197;3.4523;
274.5000;0.8197;3.4619;
274.8000;0.8238;3.4691;
275.1000;0.8246;3.4691;
275.4000;0.8230;3.4571;
275.7000;0.8262;3.4619;
276.0000;0.8246;3.4619;
276.3000;0.8311;3.4835;
276.6000;0.8246;3.4667;
276.9000;0.8254;3.4571;
277.2000;0.8295;3.4691;
277.5000;0.8238;3.4595;
277.8000;0.8352;3.5027;
278.1000;0.8221;3.4691;
278.4000;0.8238;3.4715;
278.7000;0.8254;3.4787;
279.0000;0.8254;3.4715;
279.3000;0.8246;3.4619;
279.6000;0.8221;3.4595;
279.9000;0.8213;3.4691;
280.2000;0.8221;3.4763;
280.5000;0.8205;3.4715;
280.8000;0.8230;3.4787;
281.1000;0.8254;3.4931;
281.4000;0.8238;3.4811;
281.7000;0.8230;3.4739;
282.0000;0.8246;3.4787;
282.3000;0.8230;3.4763;
282.6000;0.8246;3.4811;
282.9000;0.8246;3.4835;
283.2000;0.8246;3.4763;
283.5000;0.8254;3.4811;
283.8000;0.8246;3.4739;
284.1000;0.8327;3.5027;
284.4000;0.8287;3.4931;
284.7000;0.8254;3.4859;
285.0000;0.8238;3.4739;
285.3000;0.8238;3.4835;
285.6000;0.8246;3.4811;
285.9000;0.8246;3.4715;
286.2000;0.8238;3.4715;
286.5000;0.8205;3.4715;
286.8000;0.8238;3.4835;
287.1000;0.8230;3.4763;
287.4000;0.8246;3.4931;
287.7000;0.8246;3.4811;
288.0000;0.8254;3.4835;
288.3000;0.8278;3.4907;
288.6000;0.8238;3.4835;
288.9000;0.8238;3.4835;
289.2000;0.8254;3.4835;
289.5000;0.8254;3.4667;
289.8000;0.8246;3.4715;
290.1000;0.8295;3.4811;
290.4000;0.8246;3.4691;
290.7000;0.8173;3.4475;
291.0000;0.8205;3.4643;
291.3000;0.8197;3.4595;
291.6000;0.8238;3.4739;
291.9000;0.8238;3.4763;
292.2000;0.8278;3.4931;
292.5000;0.8238;3.4907;
292.8000;0.8230;3.4931;
293.1000;0.8238;3.4931;
293.4000;0.8238;3.4835;
293.7000;0.8221;3.4835;
294.0000;0.8221;3.4859;
294.3000;0.8221;3.4763;
294.6000;0.8230;3.4739;
294.9000;0.8262;3.4763;
295.2000;0.8246;3.4691;
295.5000;0.8238;3.4763;
295.8000;0.8262;3.4715;
296.1000;0.8221;3.4571;
296.4000;0.8189;3.4571;
296.7000;0.8278;3.4907;
297.0000;0.8254;3.4811;
297.3000;0.8230;3.4811;
297.6000;0.8238;3.4907;
297.9000;0.8230;3.4907;
298.2000;0.8254;3.4955;
298.5000;0.8246;3.4883;
298.8000;0.8238;3.4883;
299.1000;0.8238;3.4883;
299.4000;0.8238;3.4787;
299.7000;0.8270;3.4787;
300.0000;0.8254;3.4643;
300.3000;0.8246;3.4619;
300.6000;0.8303;3.4835;
300.9000;0.8246;3.4643;
301.2000;0.8270;3.4691;
301.5000;0.8238;3.4643;
301.8000;0.8230;3.4667;
302.1000;0.8254;3.4667;
302.4000;0.8221;3.4619;
302.7000;0.8221;3.4619;
303.0000;0.8230;3.4715;
303.3000;0.8246;3.4835;
303.6000;0.8246;3.4859;
303.9000;0.8213;3.4907;
304.2000;0.8238;3.4931;
304.5000;0.8230;3.4907;
304.8000;0.8254;3.4955;
305.1000;0.8295;3.5075;
305.4000;0.8238;3.4907;
305.7000;0.8246;3.4859;
306.0000;0.8262;3.4811;
306.3000;0.8213;3.4643;
306.6000;0.8230;3.4739;
306.9000;0.8262;3.4811;
307.2000;0.8246;3.4859;
307.5000;0.8213;3.4859;
307.8000;0.8254;3.4907;
308.1000;0.8254;3.4883;
308.4000;0.8230;3.4811;
308.7000;0.8254;3.4787;
309.0000;0.8262;3.4763;
309.3000;0.8246;3.4739;
309.6000;0.8230;3.4715;
309.9000;0.8205;3.4595;
310.2000;0.8238;3.4667;
310.5000;0.8221;3.4619;
310.8000;0.8262;3.4715;
311.1000;0.8238;3.4691;
311.4000;0.8238;3.4739;
311.7000;0.8230;3.4691;
312.0000;0.8230;3.4715;
312.3000;0.8246;3.4883;
312.6000;0.8238;3.4883;
312.9000;0.8189;3.4619;
313.2000;0.8213;3.4643;
313.5000;0.8254;3.4739;
313.8000;0.8270;3.4667;
314.1000;0.8164;3.4499;
314.4000;0.8246;3.4667;
314.7000;0.8246;3.4811;
315.0000;0.8246;3.4955;
315.3000;0.8238;3.4955;
315.6000;0.8221;3.4931;
315.9000;0.8230;3.4907;
316.2000;0.8230;3.4931;
316.5000;0.8213;3.4931;
316.8000;0.8197;3.4883;
317.1000;0.8295;3.5099;
317.4000;0.8230;3.4955;
317.7000;0.8173;3.4787;
318.0000;0.8238;3.4811;
318.3000;0.8221;3.4739;
318.6000;0.8221;3.4811;
318.9000;0.8221;3.4883;
319.2000;0.8221;3.4859;
319.5000;0.8221;3.4883;
319.8000;0.8246;3.4955;
320.1000;0.8270;3.5003;
320.4000;0.8173;3.4811;
320.7000;0.8335;3.5242;
321.0000;0.8287;3.4979;
321.3000;0.8262;3.4859;
321.6000;0.8254;3.4811;
321.9000;0.8246;3.4739;
322.2000;0.8230;3.4787;
322.5000;0.8221;3.4739;
322.8000;0.8246;3.4787;
323.1000;0.8230;3.4811;
323.4000;0.8238;3.4907;
323.7000;0.8246;3.4835;
324.0000;0.8238;3.4739;
324.3000;0.8311;3.4859;
324.6000;0.8254;3.4667;
324.9000;0.8246;3.4739;
325.2000;0.8254;3.4787;
325.5000;0.8205;3.4739;
325.8000;0.8238;3.4811;
326.1000;0.8221;3.4787;
326.4000;0.8230;3.4667;
326.7000;0.8238;3.4691;
327.0000;0.8238;3.4691;
327.3000;0.8238;3.4691;
327.6000;0.8262;3.4667;
327.9000;0.8246;3.4619;
328.2000;0.8230;3.4595;
328.5000;0.8238;3.4595;
328.8000;0.8246;3.4571;
329.1000;0.8238;3.4547;
329.4000;0.8238;3.4595;
329.7000;0.8238;3.4739;
330.0000;0.8230;3.4739;
330.3000;0.8238;3.4835;
330.6000;0.8230;3.4787;
330.9000;0.8238;3.4811;
331.2000;0.8238;3.4691;
331.5000;0.8246;3.4667;
331.8000;0.8230;3.4619;
332.1000;0.8230;3.4595;
332.4000;0.8238;3.4595;
332.7000;0.8238;3.4547;
333.0000;0.8221;3.4475;
333.3000;0.8238;3.4499;
333.6000;0.8230;3.4571;
333.9000;0.8254;3.4643;
334.2000;0.8246;3.4619;
334.5000;0.8254;3.4619;
334.8000;0.8278;3.4547;
335.1000;0.8246;3.4547;
335.4000;0.8254;3.4595;
335.7000;0.8189;3.4475;
336.0000;0.8246;3.4619;
336.3000;0.8246;3.4523;
336.6000;0.8205;3.4499;
336.9000;0.8246;3.4571;
337.2000;0.8221;3.4619;
337.5000;0.8278;3.4787;
337.8000;0.8238;3.4715;
338.1000;0.8230;3.4715;
338.4000;0.8221;3.4691;
338.7000;0.8205;3.4667;
339.0000;0.8238;3.4811;
339.3000;0.8230;3.4859;
339.6000;0.8246;3.4835;
339.9000;0.8221;3.4763;
340.2000;0.8230;3.4739;
340.5000;0.8230;3.4787;
340.8000;0.8238;3.4763;
341.1000;0.8230;3.4739;
341.4000;0.8246;3.4763;
341.7000;0.8246;3.4787;
342.0000;0.8230;3.4739;
342.3000;0.8230;3.4763;
342.6000;0.8238;3.4715;
342.9000;0.8238;3.4787;
343.2000;0.8238;3.4811;
343.5000;0.8238;3.4787;
343.8000;0.8221;3.4667;
344.1000;0.8238;3.4667;
344.4000;0.8230;3.4643;
344.7000;0.8254;3.4787;
345.0000;0.8230;3.4715;
345.3000;0.8230;3.4667;
345.6000;0.8238;3.4739;
345.9000;0.8246;3.4715;
346.2000;0.8213;3.4595;
346.5000;0.8262;3.4739;
346.8000;0.8230;3.4667;
347.1000;0.8230;3.4691;
347.4000;0.8246;3.4667;
347.7000;0.8238;3.4691;
348.0000;0.8238;3.4691;
348.3000;0.8246;3.4643;
348.6000;0.8238;3.4619;
348.9000;0.8238;3.4595;
349.2000;0.8254;3.4739;
349.5000;0.8287;3.4907;
349.8000;0.8295;3.4859;
350.1000;0.8246;3.4787;
350.4000;0.8238;3.4739;
350.7000;0.8230;3.4811;
351.0000;0.8230;3.4835;
351.3000;0.8238;3.4715;
351.6000;0.8254;3.4787;
351.9000;0.8246;3.4763;
352.2000;0.8181;3.4547;
352.5000;0.8221;3.4787;
352.8000;0.8221;3.4859;
353.1000;0.8230;3.4883;
353.4000;0.8238;3.4787;
353.7000;0.8246;3.4787;
354.0000;0.8262;3.4787;
354.3000;0.8262;3.4763;
354.6000;0.8189;3.4571;
354.9000;0.8246;3.4715;
355.2000;0.8246;3.4835;
355.5000;0.8262;3.4859;
355.8000;0.8262;3.4859;
356.1000;0.8230;3.4787;
356.4000;0.8262;3.4859;
356.7000;0.8238;3.4811;
357.0000;0.8238;3.4739;
357.3000;0.8230;3.4667;
357.6000;0.8221;3.4571;
357.9000;0.8221;3.4547;
358.2000;0.8230;3.4523;
358.5000;0.8262;3.4595;
358.8000;0.8221;3.4451;
359.1000;0.8230;3.4571;
359.4000;0.8205;3.4571;
359.7000;0.8181;3.4619;
360.0000;0.8238;3.4691;
360.3000;0.8246;3.4667;
360.6000;0.8164;3.4451;
360.9000;0.8238;3.4667;
361.2000;0.8221;3.4523;
361.5000;0.8221;3.4523;
361.8000;0.8254;3.4619;
362.1000;0.8238;3.4667;
362.4000;0.8221;3.4547;
362.7000;0.8238;3.4715;
363.0000;0.8230;3.4691;
363.3000;0.8230;3.4643;
363.6000;0.8230;3.4667;
363.9000;0.8221;3.4571;
364.2000;0.8238;3.4499;
364.5000;0.8238;3.4475;
364.8000;0.8246;3.4475;
365.1000;0.8238;3.4523;
365.4000;0.8230;3.4571;
365.7000;0.8230;3.4643;
366.0000;0.8230;3.4691;
366.3000;0.8246;3.4715;
366.6000;0.8221;3.4619;
366.9000;0.8238;3.4619;
367.2000;0.8238;3.4643;
367.5000;0.8238;3.4739;
367.8000;0.8230;3.4739;
368.1000;0.8230;3.4763;
368.4000;0.8230;3.4739;
368.7000;0.8230;3.4667;
369.0000;0.8230;3.4691;
369.3000;0.8238;3.4739;
369.6000;0.8246;3.4763;
369.9000;0.8238;3.4691;
370.2000;0.8238;3.4763;
370.5000;0.8230;3.4787;
370.8000;0.8238;3.4931;
371.1000;0.8319;3.5099;
371.4000;0.8213;3.4763;
371.7000;0.8230;3.4763;
372.0000;0.8246;3.4739;
372.3000;0.8213;3.4619;
372.6000;0.8254;3.4667;
372.9000;0.8221;3.4643;
373.2000;0.8278;3.4787;
373.5000;0.8230;3.4595;
373.8000;0.8246;3.4595;
374.1000;0.8230;3.4523;
374.4000;0.8254;3.4619;
374.7000;0.8254;3.4571;
375.0000;0.8238;3.4499;
375.3000;0.8238;3.4499;
375.6000;0.8205;3.4499;
375.9000;0.8238;3.4571;
376.2000;0.8221;3.4547;
376.5000;0.8164;3.4427;
376.8000;0.8230;3.4595;
377.1000;0.8246;3.4547;
377.4000;0.8270;3.4619;
377.7000;0.8221;3.4547;
378.0000;0.8270;3.4667;
378.3000;0.8254;3.4643;
378.6000;0.8254;3.4643;
378.9000;0.8238;3.4643;
379.2000;0.8278;3.4739;
379.5000;0.8238;3.4643;
379.8000;0.8246;3.4499;
380.1000;0.8270;3.4499;
380.4000;0.8246;3.4547;
380.7000;0.8246;3.4643;
381.0000;0.8246;3.4667;
381.3000;0.8246;3.4643;
381.6000;0.8246;3.4619;
381.9000;0.8230;3.4547;
382.2000;0.8246;3.4667;
382.5000;0.8238;3.4859;
382.8000;0.8173;3.4667;
383.1000;0.8230;3.4787;
383.4000;0.8246;3.4715;
383.7000;0.8238;3.4691;
384.0000;0.8230;3.4739;
384.3000;0.8213;3.4739;
384.6000;0.8189;3.4739;
384.9000;0.8238;3.4835;
385.2000;0.8287;3.4931;
385.5000;0.8230;3.4835;
385.8000;0.8238;3.4859;
386.1000;0.8238;3.4811;
386.4000;0.8213;3.4787;
386.7000;0.8238;3.4811;
387.0000;0.8221;3.4787;
387.3000;0.8238;3.4811;
387.6000;0.8221;3.4787;
387.9000;0.8221;3.4715;
388.2000;0.8230;3.4763;
388.5000;0.8238;3.4763;
388.8000;0.8246;3.4859;
389.1000;0.8238;3.4763;
389.4000;0.8327;3.5051;
389.7000;0.8230;3.4859;
390.0000;0.8156;3.4691;
390.3000;0.8278;3.5027;
390.6000;0.8319;3.5122;
390.9000;0.8238;3.5003;
391.2000;0.8181;3.4835;
391.5000;0.8221;3.4979;
391.8000;0.8189;3.4763;
392.1000;0.8246;3.4883;
392.4000;0.8238;3.4835;
392.7000;0.8230;3.4811;
393.0000;0.8238;3.4811;
393.3000;0.8254;3.4811;
393.6000;0.8246;3.4907;
393.9000;0.8246;3.4883;
394.2000;0.8246;3.4907;
394.5000;0.8246;3.4907;
394.8000;0.8246;3.4859;
395.1000;0.8270;3.4811;
395.4000;0.8230;3.4691;
395.7000;0.8246;3.4715;
396.0000;0.8181;3.4571;
396.3000;0.8238;3.4667;
396.6000;0.8238;3.4715;
396.9000;0.8213;3.4643;
397.2000;0.8230;3.4547;
397.5000;0.8238;3.4571;
397.8000;0.8213;3.4595;
398.1000;0.8221;3.4643;
398.4000;0.8221;3.4811;
398.7000;0.8238;3.4835;
399.0000;0.8262;3.4691;
399.3000;0.8254;3.4667;
399.6000;0.8238;3.4547;
399.9000;0.8246;3.4499;
400.2000;0.8254;3.4643;
400.5000;0.8221;3.4739;
400.8000;0.8230;3.4835;
401.1000;0.8230;3.4931;
401.4000;0.8238;3.4979;
401.7000;0.8238;3.4931;
402.0000;0.8246;3.4883;
402.3000;0.8221;3.4811;
402.6000;0.8238;3.4739;
402.9000;0.8230;3.4643;
403.2000;0.8205;3.4643;
403.5000;0.8254;3.4763;
403.8000;0.8254;3.4691;
404.1000;0.8230;3.4667;
404.4000;0.8246;3.4715;
404.7000;0.8246;3.4691;
405.0000;0.8270;3.4907;
405.3000;0.8238;3.4883;
405.6000;0.8327;3.5122;
405.9000;0.8230;3.4883;
406.2000;0.8197;3.4739;
406.5000;0.8230;3.4859;
406.8000;0.8164;3.4619;
407.1000;0.8189;3.4859;
407.4000;0.8213;3.4883;
407.7000;0.8246;3.4931;
408.0000;0.8254;3.4907;
408.3000;0.8238;3.4691;
408.6000;0.8246;3.4787;
408.9000;0.8254;3.4787;
409.2000;0.8278;3.4931;
409.5000;0.8262;3.4883;
409.8000;0.8254;3.4979;
410.1000;0.8230;3.4955;
410.4000;0.8230;3.5003;
410.7000;0.8238;3.5003;
411.0000;0.8221;3.4955;
411.3000;0.8254;3.4931;
411.6000;0.8254;3.4955;
411.9000;0.8246;3.4835;
412.2000;0.8213;3.4739;
412.5000;0.8238;3.4811;
412.8000;0.8246;3.4787;
413.1000;0.8197;3.4643;
413.4000;0.8221;3.4763;
413.7000;0.8221;3.4763;
414.0000;0.8254;3.4883;
414.3000;0.8197;3.4667;
414.6000;0.8262;3.4859;
414.9000;0.8181;3.4643;
415.2000;0.8262;3.4811;
415.5000;0.8221;3.4739;
415.8000;0.8230;3.4739;
416.1000;0.8213;3.4787;
416.4000;0.8230;3.4835;
416.7000;0.8238;3.4835;
417.0000;0.8221;3.4787;
417.3000;0.8311;3.5027;
417.6000;0.8246;3.4835;
417.9000;0.8213;3.4739;
418.2000;0.8221;3.4739;
418.5000;0.8230;3.4835;
418.8000;0.8238;3.4811;
419.1000;0.8246;3.4907;
419.4000;0.8230;3.4859;
419.7000;0.8238;3.4907;
420.0000;0.8221;3.4787;
420.3000;0.8230;3.4691;
420.6000;0.8246;3.4691;
420.9000;0.8181;3.4643;
421.2000;0.8221;3.4691;
421.5000;0.8230;3.4715;
421.8000;0.8230;3.4643;
422.1000;0.8238;3.4691;
422.4000;0.8238;3.4715;
422.7000;0.8221;3.4691;
423.0000;0.8238;3.4667;
423.3000;0.8213;3.4763;
423.6000;0.8189;3.4739;
423.9000;0.8230;3.4811;
424.2000;0.8230;3.4859;
424.5000;0.8197;3.4715;
424.8000;0.8230;3.4811;
425.1000;0.8230;3.4811;
425.4000;0.8287;3.4859;
425.7000;0.8221;3.4667;
426.0000;0.8221;3.4547;
426.3000;0.8213;3.4547;
426.6000;0.8213;3.4499;
426.9000;0.8230;3.4499;
427.2000;0.8238;3.4523;
427.5000;0.8230;3.4547;
427.8000;0.8238;3.4595;
428.1000;0.8230;3.4595;
428.4000;0.8213;3.4547;
428.7000;0.8197;3.4499;
429.0000;0.8230;3.4571;
429.3000;0.8246;3.4667;
429.6000;0.8246;3.4667;
429.9000;0.8246;3.4643;
430.2000;0.8238;3.4619;
430.5000;0.8254;3.4619;
430.8000;0.8238;3.4571;
431.1000;0.8230;3.4451;
431.4000;0.8238;3.4523;
431.7000;0.8262;3.4643;
432.0000;0.8221;3.4523;
432.3000;0.8270;3.4571;
432.6000;0.8230;3.4451;
432.9000;0.8262;3.4427;
433.2000;0.8205;3.4235;
433.5000;0.8205;3.4307;
433.8000;0.8230;3.4283;
434.1000;0.8254;3.4331;
434.4000;0.8221;3.4331;
434.7000;0.8238;3.4331;
435.0000;0.8230;3.4379;
435.3000;0.8181;3.4259;
435.6000;0.8230;3.4307;
435.9000;0.8221;3.4307;
436.2000;0.8230;3.4403;
436.5000;0.8221;3.4475;
436.8000;0.8197;3.4403;
437.1000;0.8254;3.4475;
437.4000;0.8230;3.4475;
437.7000;0.8205;3.4403;
438.0000;0.8213;3.4427;
438.3000;0.8270;3.4595;
438.6000;0.8221;3.4499;
438.9000;0.8230;3.4547;
439.2000;0.8230;3.4523;
439.5000;0.8246;3.4547;
439.8000;0.8230;3.4499;
440.1000;0.8230;3.4499;
440.4000;0.8230;3.4595;
440.7000;0.8221;3.4571;
441.0000;0.8246;3.4499;
441.3000;0.8246;3.4499;
441.6000;0.8230;3.4475;
441.9000;0.8246;3.4475;
442.2000;0.8230;3.4475;
442.5000;0.8230;3.4523;
442.8000;0.8230;3.4595;
443.1000;0.8238;3.4619;
443.4000;0.8230;3.4643;
443.7000;0.8230;3.4643;
444.0000;0.8238;3.4691;
444.3000;0.8221;3.4595;
444.6000;0.8254;3.4643;
444.9000;0.8230;3.4595;
445.2000;0.8230;3.4667;
445.5000;0.8254;3.4691;
445.8000;0.8238;3.4739;
446.1000;0.8221;3.4715;
446.4000;0.8221;3.4715;
446.7000;0.8238;3.4763;
447.0000;0.8230;3.4787;
447.3000;0.8221;3.4763;
447.6000;0.8230;3.4739;
447.9000;0.8205;3.4691;
448.2000;0.8230;3.4715;
448.5000;0.8246;3.4715;
448.8000;0.8230;3.4691;
449.1000;0.8262;3.4715;
449.4000;0.8230;3.4739;
449.7000;0.8205;3.4643;
450.0000;0.8238;3.4715;
450.3000;0.8254;3.4547;
450.6000;0.8254;3.4595;
450.9000;0.8230;3.4595;
451.2000;0.8262;3.4691;
451.5000;0.8238;3.4619;
451.8000;0.8246;3.4691;
452.1000;0.8230;3.4619;
452.4000;0.8205;3.4667;
452.7000;0.8246;3.4715;
453.0000;0.8221;3.4571;
453.3000;0.8238;3.4667;
453.6000;0.8254;3.4787;
453.9000;0.8238;3.4667;
454.2000;0.8246;3.4667;
454.5000;0.8189;3.4499;
454.8000;0.8148;3.4355;
455.1000;0.8230;3.4547;
455.4000;0.8213;3.4547;
455.7000;0.8197;3.4499;
456.0000;0.8246;3.4643;
456.3000;0.8254;3.4739;
456.6000;0.8221;3.4667;
456.9000;0.8230;3.4595;
457.2000;0.8238;3.4619;
457.5000;0.8254;3.4619;
457.8000;0.8213;3.4523;
458.1000;0.8221;3.4571;
458.4000;0.8246;3.4643;
458.7000;0.8213;3.4595;
459.0000;0.8213;3.4475;
459.3000;0.8221;3.4427;
459.6000;0.8246;3.4475;
459.9000;0.8238;3.4595;
460.2000;0.8221;3.4643;
460.5000;0.8230;3.4643;
460.8000;0.8230;3.4691;
461.1000;0.8246;3.4667;
461.4000;0.8238;3.4595;
461.7000;0.8230;3.4571;
462.0000;0.8230;3.4523;
462.3000;0.8246;3.4523;
462.6000;0.8230;3.4451;
462.9000;0.8230;3.4403;
463.2000;0.8230;3.4331;
463.5000;0.8246;3.4355;
463.8000;0.8246;3.4379;
464.1000;0.8230;3.4403;
464.4000;0.8205;3.4355;
464.7000;0.8221;3.4499;
465.0000;0.8221;3.4571;
465.3000;0.8230;3.4571;
465.6000;0.8221;3.4523;
465.9000;0.8254;3.4643;
466.2000;0.8246;3.4643;
466.5000;0.8213;3.4643;
466.8000;0.8230;3.4859;
467.1000;0.8246;3.4907;
467.4000;0.8287;3.5027;
467.7000;0.8238;3.4883;
468.0000;0.8238;3.4811;
468.3000;0.8238;3.4835;
468.6000;0.8197;3.4739;
468.9000;0.8238;3.4859;
469.2000;0.8230;3.4811;
469.5000;0.8205;3.4739;
469.8000;0.8295;3.5075;
470.1000;0.8230;3.4907;
470.4000;0.8230;3.4811;
470.7000;0.8254;3.4787;
471.0000;0.8254;3.4883;
471.3000;0.8238;3.4835;
471.6000;0.8246;3.4715;
471.9000;0.8238;3.4811;
472.2000;0.8238;3.4883;
472.5000;0.8254;3.4835;
472.8000;0.8238;3.4835;
473.1000;0.8221;3.4691;
473.4000;0.8221;3.4643;
473.7000;0.8230;3.4739;
474.0000;0.8238;3.4691;
474.3000;0.8205;3.4595;
474.6000;0.8230;3.4571;
474.9000;0.8181;3.4547;
475.2000;0.8238;3.4811;
475.5000;0.8230;3.4811;
475.8000;0.8221;3.4763;
476.1000;0.8238;3.4715;
476.4000;0.8278;3.4835;
476.7000;0.8230;3.4643;
477.0000;0.8213;3.4691;
477.3000;0.8254;3.4835;
477.6000;0.8246;3.4811;
477.9000;0.8205;3.4643;
478.2000;0.8221;3.4619;
478.5000;0.8270;3.4763;
478.8000;0.8189;3.4595;
479.1000;0.8221;3.4643;
479.4000;0.8295;3.4787;
479.7000;0.8221;3.4763;
480.0000;0.8230;3.4763;
480.3000;0.8230;3.4739;
480.6000;0.8205;3.4691;
480.9000;0.8221;3.4667;
481.2000;0.8303;3.4979;
481.5000;0.8254;3.4811;
481.8000;0.8246;3.4787;
482.1000;0.8221;3.4667;
482.4000;0.8238;3.4667;
482.7000;0.8254;3.4643;
483.0000;0.8238;3.4691;
483.3000;0.8230;3.4571;
483.6000;0.8205;3.4475;
483.9000;0.8221;3.4499;
484.2000;0.8221;3.4475;
484.5000;0.8238;3.4523;
484.8000;0.8230;3.4619;
485.1000;0.8230;3.4571;
485.4000;0.8221;3.4547;
485.7000;0.8189;3.4403;
486.0000;0.8230;3.4523;
486.3000;0.8278;3.4691;
486.6000;0.8254;3.4547;
486.9000;0.8213;3.4523;
487.2000;0.8205;3.4547;
487.5000;0.8246;3.4595;
487.8000;0.8221;3.4595;
488.1000;0.8230;3.4619;
488.4000;0.8140;3.4427;
488.7000;0.8221;3.4667;
489.0000;0.8221;3.4739;
489.3000;0.8254;3.4835;
489.6000;0.8221;3.4763;
489.9000;0.8230;3.4691;
490.2000;0.8230;3.4595;
490.5000;0.8213;3.4451;
490.8000;0.8221;3.4547;
491.1000;0.8230;3.4595;
491.4000;0.8335;3.4859;
491.7000;0.8230;3.4643;
492.0000;0.8221;3.4667;
492.3000;0.8238;3.4643;
492.6000;0.8230;3.4499;
492.9000;0.8221;3.4451;
493.2000;0.8230;3.4475;
493.5000;0.8238;3.4547;
493.8000;0.8221;3.4523;
494.1000;0.8246;3.4571;
494.4000;0.8238;3.4571;
494.7000;0.8221;3.4571;
495.0000;0.8230;3.4643;
495.3000;0.8230;3.4547;
495.6000;0.8230;3.4571;
495.9000;0.8230;3.4571;
496.2000;0.8221;3.4547;
496.5000;0.8230;3.4643;
496.8000;0.8213;3.4499;
497.1000;0.8230;3.4379;
497.4000;0.8230;3.4451;
497.7000;0.8254;3.4523;
498.0000;0.8213;3.4451;
498.3000;0.8221;3.4571;
498.6000;0.8213;3.4643;
498.9000;0.8221;3.4739;
499.2000;0.8246;3.4835;
499.5000;0.8213;3.4811;
499.8000;0.8221;3.4787;
500.1000;0.8230;3.4715;
500.4000;0.8238;3.4715;
500.7000;0.8238;3.4619;
501.0000;0.8246;3.4643;
501.3000;0.8230;3.4547;
501.6000;0.8221;3.4595;
501.9000;0.8238;3.4643;
502.2000;0.8213;3.4547;
502.5000;0.8213;3.4547;
502.8000;0.8246;3.4715;
503.1000;0.8230;3.4643;
503.4000;0.8213;3.4667;
503.7000;0.8230;3.4691;
504.0000;0.8270;3.4835;
504.3000;0.8230;3.4667;
504.6000;0.8213;3.4571;
504.9000;0.8221;3.4547;
505.2000;0.8148;3.4403;
505.5000;0.8254;3.4691;
505.8000;0.8254;3.4739;
506.1000;0.8238;3.4715;
506.4000;0.8213;3.4691;
506.7000;0.8278;3.4787;
507.0000;0.8303;3.4763;
507.3000;0.8173;3.4379;
507.6000;0.8311;3.4691;
507.9000;0.8213;3.4475;
508.2000;0.8221;3.4547;
508.5000;0.8221;3.4499;
508.8000;0.8181;3.4451;
509.1000;0.8213;3.4523;
509.4000;0.8181;3.4571;
509.7000;0.8221;3.4691;
510.0000;0.8221;3.4691;
510.3000;0.8238;3.4643;
510.6000;0.8205;3.4499;
510.9000;0.8238;3.4571;
511.2000;0.8238;3.4523;
511.5000;0.8230;3.4427;
511.8000;0.8238;3.4523;
512.1000;0.8254;3.4571;
512.4000;0.8311;3.4787;
512.7000;0.8213;3.4595;
513.0000;0.8238;3.4595;
513.3000;0.8156;3.4499;
513.6000;0.8221;3.4643;
513.9000;0.8221;3.4643;
514.2000;0.8230;3.4571;
514.5000;0.8197;3.4571;
514.8000;0.8213;3.4667;
515.1000;0.8221;3.4595;
515.4000;0.8230;3.4643;
515.7000;0.8246;3.4739;
516.0000;0.8221;3.4691;
516.3000;0.8221;3.4595;
516.6000;0.8230;3.4595;
516.9000;0.8230;3.4643;
517.2000;0.8230;3.4595;
517.5000;0.8213;3.4499;
517.8000;0.8230;3.4475;
518.1000;0.8230;3.4595;
518.4000;0.8221;3.4643;
518.7000;0.8205;3.4643;
519.0000;0.8197;3.4571;
519.3000;0.8213;3.4691;
519.6000;0.8205;3.4619;
519.9000;0.8221;3.4547;
520.2000;0.8238;3.4595;
520.5000;0.8230;3.4619;
520.8000;0.8238;3.4595;
521.1000;0.8246;3.4667;
521.4000;0.8205;3.4691;
521.7000;0.8230;3.4715;
522.0000;0.8230;3.4787;
522.3000;0.8213;3.4787;
522.6000;0.8262;3.4835;
522.9000;0.8221;3.4811;
523.2000;0.8189;3.4643;
523.5000;0.8181;3.4595;
523.8000;0.8205;3.4595;
524.1000;0.8205;3.4643;
524.4000;0.8213;3.4619;
524.7000;0.8205;3.4571;
525.0000;0.8156;3.4499;
525.3000;0.8221;3.4667;
525.6000;0.8230;3.4787;
525.9000;0.8238;3.4883;
526.2000;0.8213;3.4787;
526.5000;0.8246;3.4907;
526.8000;0.8221;3.4811;
527.1000;0.8246;3.4955;
527.4000;0.8221;3.4811;
527.7000;0.8230;3.4835;
528.0000;0.8230;3.4787;
528.3000;0.8221;3.4835;
528.6000;0.8238;3.4859;
528.9000;0.8270;3.4931;
529.2000;0.8189;3.4811;
529.5000;0.8230;3.4859;
529.8000;0.8221;3.4811;
530.1000;0.8278;3.4931;
530.4000;0.8254;3.4883;
530.7000;0.8230;3.4883;
531.0000;0.8230;3.4859;
531.3000;0.8246;3.4883;
531.6000;0.8205;3.4715;
531.9000;0.8238;3.4715;
532.2000;0.8189;3.4595;
532.5000;0.8238;3.4715;
532.8000;0.8213;3.4643;
533.1000;0.8197;3.4619;
533.4000;0.8246;3.4691;
533.7000;0.8230;3.4691;
534.0000;0.8221;3.4691;
534.3000;0.8254;3.4859;
534.6000;0.8173;3.4739;
534.9000;0.8221;3.4811;
535.2000;0.8213;3.4739;
535.5000;0.8213;3.4595;
535.8000;0.8238;3.4691;
536.1000;0.8238;3.4643;
536.4000;0.8197;3.4547;
536.7000;0.8221;3.4691;
537.0000;0.8230;3.4667;
537.3000;0.8230;3.4547;
537.6000;0.8246;3.4571;
537.9000;0.8205;3.4523;
538.2000;0.8238;3.4667;
538.5000;0.8205;3.4571;
538.8000;0.8230;3.4643;
539.1000;0.8221;3.4595;
539.4000;0.8213;3.4547;
539.7000;0.8205;3.4499;
540.0000;0.8230;3.4499;
540.3000;0.8221;3.4475;
540.6000;0.8221;3.4427;
540.9000;0.8205;3.4427;
541.2000;0.8230;3.4547;
541.5000;0.8262;3.4691;
541.8000;0.8221;3.4643;
542.1000;0.8230;3.4619;
542.4000;0.8238;3.4691;
542.7000;0.8238;3.4739;
543.0000;0.8230;3.4763;
543.3000;0.8205;3.4715;
543.6000;0.8230;3.4691;
543.9000;0.8230;3.4667;
544.2000;0.8213;3.4619;
544.5000;0.8221;3.4715;
544.8000;0.8246;3.4787;
545.1000;0.8230;3.4787;
545.4000;0.8205;3.4787;
545.7000;0.8221;3.4835;
546.0000;0.8230;3.4883;
546.3000;0.8270;3.5051;
546.6000;0.8287;3.5075;
546.9000;0.8230;3.4859;
547.2000;0.8221;3.4763;
547.5000;0.8205;3.4739;
547.8000;0.8205;3.4691;
548.1000;0.8221;3.4643;
548.4000;0.8164;3.4571;
548.7000;0.8221;3.4691;
549.0000;0.8230;3.4739;
549.3000;0.8221;3.4715;
549.6000;0.8189;3.4619;
549.9000;0.8221;3.4667;
550.2000;0.8140;3.4499;
550.5000;0.8205;3.4643;
550.8000;0.8238;3.4691;
551.1000;0.8230;3.4691;
551.4000;0.8230;3.4763;
551.7000;0.8205;3.4691;
552.0000;0.8221;3.4667;
552.3000;0.8230;3.4523;
552.6000;0.8221;3.4619;
552.9000;0.8246;3.4595;
553.2000;0.8213;3.4571;
553.5000;0.8221;3.4715;
553.8000;0.8213;3.4691;
554.1000;0.8270;3.4739;
554.4000;0.8221;3.4571;
554.7000;0.8221;3.4571;
555.0000;0.8230;3.4619;
555.3000;0.8221;3.4643;
555.6000;0.8221;3.4643;
555.9000;0.8238;3.4691;
556.2000;0.8230;3.4643;
556.5000;0.8246;3.4763;
556.8000;0.8287;3.4883;
557.1000;0.8197;3.4667;
557.4000;0.8230;3.4787;
557.7000;0.8221;3.4787;
558.0000;0.8205;3.4715;
558.3000;0.8205;3.4715;
558.6000;0.8205;3.4835;
558.9000;0.8221;3.4763;
559.2000;0.8213;3.4763;
559.5000;0.8213;3.4739;
559.8000;0.8230;3.4667;
560.1000;0.8221;3.4739;
560.4000;0.8230;3.4715;
560.7000;0.8230;3.4667;
561.0000;0.8221;3.4667;
561.3000;0.8230;3.4715;
561.6000;0.8246;3.4787;
561.9000;0.8221;3.4667;
562.2000;0.8213;3.4523;
562.5000;0.8254;3.4547;
562.8000;0.8238;3.4499;
563.1000;0.8221;3.4355;
563.4000;0.8238;3.4427;
563.7000;0.8205;3.4379;
564.0000;0.8254;3.4547;
564.3000;0.8213;3.4403;
564.6000;0.8213;3.4379;
564.9000;0.8205;3.4403;
565.2000;0.8221;3.4331;
565.5000;0.8230;3.4379;
565.8000;0.8230;3.4331;
566.1000;0.8213;3.4307;
566.4000;0.8230;3.4451;
566.7000;0.8230;3.4403;
567.0000;0.8238;3.4427;
567.3000;0.8221;3.4427;
567.6000;0.8205;3.4427;
567.9000;0.8230;3.4571;
568.2000;0.8278;3.4787;
568.5000;0.8230;3.4715;
568.8000;0.8205;3.4691;
569.1000;0.8238;3.4859;
569.4000;0.8238;3.4811;
569.7000;0.8221;3.4907;
570.0000;0.8221;3.4931;
570.3000;0.8238;3.5003;
570.6000;0.8246;3.4979;
570.9000;0.8230;3.4955;
571.2000;0.8213;3.5003;
571.5000;0.8230;3.5051;
571.8000;0.8221;3.5051;
572.1000;0.8197;3.4979;
572.4000;0.8213;3.4931;
572.7000;0.8221;3.4835;
573.0000;0.8319;3.5146;
573.3000;0.8230;3.4931;
573.6000;0.8205;3.4859;
573.9000;0.8221;3.4883;
574.2000;0.8230;3.4907;
574.5000;0.8213;3.4835;
574.8000;0.8221;3.4691;
575.1000;0.8246;3.4691;
575.4000;0.8221;3.4667;
575.7000;0.8238;3.4715;
576.0000;0.8230;3.4715;
576.3000;0.8213;3.4667;
576.6000;0.8238;3.4715;
576.9000;0.8230;3.4667;
577.2000;0.8205;3.4571;
577.5000;0.8205;3.4667;
577.8000;0.8221;3.4619;
578.1000;0.8221;3.4619;
578.4000;0.8230;3.4571;
578.7000;0.8213;3.4619;
579.0000;0.8230;3.4595;
579.3000;0.8205;3.4547;
579.6000;0.8230;3.4547;
579.9000;0.8221;3.4547;
580.2000;0.8230;3.4643;
580.5000;0.8230;3.4715;
580.8000;0.8213;3.4595;
581.1000;0.8197;3.4595;
581.4000;0.8205;3.4499;
581.7000;0.8221;3.4523;
582.0000;0.8221;3.4475;
582.3000;0.8221;3.4595;
582.6000;0.8213;3.4571;
582.9000;0.8213;3.4595;
583.2000;0.8221;3.4619;
583.5000;0.8205;3.4595;
583.8000;0.8213;3.4571;
584.1000;0.8221;3.4619;
584.4000;0.8230;3.4595;
584.7000;0.8230;3.4643;
585.0000;0.8205;3.4691;
585.3000;0.8230;3.4763;
585.6000;0.8221;3.4715;
585.9000;0.8238;3.4787;
586.2000;0.8213;3.4691;
586.5000;0.8213;3.4715;
586.8000;0.8213;3.4691;
587.1000;0.8221;3.4763;
587.4000;0.8238;3.4859;
587.7000;0.8221;3.4763;
588.0000;0.8221;3.4619;
588.3000;0.8213;3.4619;
588.6000;0.8213;3.4547;
588.9000;0.8197;3.4475;
589.2000;0.8230;3.4499;
589.5000;0.8230;3.4499;
589.8000;0.8213;3.4499;
590.1000;0.8164;3.4451;
590.4000;0.8213;3.4571;
590.7000;0.8230;3.4667;
591.0000;0.8221;3.4619;
591.3000;0.8246;3.4667;
591.6000;0.8205;3.4571;
591.9000;0.8246;3.4595;
592.2000;0.8213;3.4523;
592.5000;0.8230;3.4595;
592.8000;0.8230;3.4499;
593.1000;0.8230;3.4499;
593.4000;0.8213;3.4475;
593.7000;0.8205;3.4475;
594.0000;0.8213;3.4523;
594.3000;0.8246;3.4691;
594.6000;0.8213;3.4547;
594.9000;0.8238;3.4523;
595.2000;0.8238;3.4523;
595.5000;0.8213;3.4595;
595.8000;0.8230;3.4643;
596.1000;0.8230;3.4739;
596.4000;0.8230;3.4715;
596.7000;0.8230;3.4715;
597.0000;0.8230;3.4667;
597.3000;0.8189;3.4595;
597.6000;0.8221;3.4523;
597.9000;0.8213;3.4475;
598.2000;0.8213;3.4547;
598.5000;0.8221;3.4595;
598.8000;0.8213;3.4619;
599.1000;0.8205;3.4619;
599.4000;0.8221;3.4667;
599.7000;0.8221;3.4595;
600.0000;0.8230;3.4547;
600.3000;0.8221;3.4475;
600.6000;0.8238;3.4283;
600.9000;0.8246;3.4187;
601.2000;0.8181;3.4019;
601.5000;0.8116;3.3755;
601.8000;0.8091;3.3587;
602.1000;0.8002;3.3275;
602.4000;0.7969;3.3155;
602.7000;0.7912;3.2987;
603.0000;0.7880;3.2843;
603.3000;0.7766;3.2651;
603.6000;0.7766;3.2627;
603.9000;0.7725;3.2508;
604.2000;0.7684;3.2460;
604.5000;0.7643;3.2316;
604.8000;0.7603;3.2292;
605.1000;0.7586;3.2292;
605.4000;0.7570;3.2316;
605.7000;0.7497;3.2196;
606.0000;0.7481;3.2172;
606.3000;0.7432;3.2100;
606.6000;0.7399;3.2124;
606.9000;0.7383;3.2100;
607.2000;0.7359;3.2052;
607.5000;0.7318;3.2004;
607.8000;0.7318;3.1908;
608.1000;0.7269;3.1788;
608.4000;0.7261;3.1764;
608.7000;0.7212;3.1692;
609.0000;0.7171;3.1524;
609.3000;0.7163;3.1500;
609.6000;0.7147;3.1572;
609.9000;0.7131;3.1572;
610.2000;0.7098;3.1548;
610.5000;0.7163;3.1812;
610.8000;0.7057;3.1620;
611.1000;0.7049;3.1596;
611.4000;0.7025;3.1524;
611.7000;0.7000;3.1356;
612.0000;0.6984;3.1452;
612.3000;0.6952;3.1452;
612.6000;0.6935;3.1572;
612.9000;0.6846;3.1452;
613.2000;0.6878;3.1524;
613.5000;0.6895;3.1572;
613.8000;0.6862;3.1572;
614.1000;0.6829;3.1596;
614.4000;0.6789;3.1500;
614.7000;0.6829;3.1620;
615.0000;0.6805;3.1596;
615.3000;0.6764;3.1572;
615.6000;0.6764;3.1524;
615.9000;0.6789;3.1596;
616.2000;0.6748;3.1572;
616.5000;0.6732;3.1500;
616.8000;0.6732;3.1524;
617.1000;0.6716;3.1452;
617.4000;0.6707;3.1428;
617.7000;0.6683;3.1500;
618.0000;0.6691;3.1596;
618.3000;0.6634;3.1500;
618.6000;0.6618;3.1404;
618.9000;0.6642;3.1500;
619.2000;0.6650;3.1428;
619.5000;0.6593;3.1308;
619.8000;0.6602;3.1332;
620.1000;0.6536;3.1212;
620.4000;0.6561;3.1332;
620.7000;0.6545;3.1356;
621.0000;0.6512;3.1236;
621.3000;0.6488;3.1116;
621.6000;0.6528;3.1164;
621.9000;0.6504;3.1116;
622.2000;0.6545;3.1308;
622.5000;0.6488;3.1284;
622.8000;0.6463;3.1332;
623.1000;0.6528;3.1620;
623.4000;0.6463;3.1404;
623.7000;0.6447;3.1428;
624.0000;0.6431;3.1476;
624.3000;0.6382;3.1380;
624.6000;0.6398;3.1428;
624.9000;0.6398;3.1428;
625.2000;0.6390;3.1404;
625.5000;0.6382;3.1404;
625.8000;0.6374;3.1404;
626.1000;0.6390;3.1404;
626.4000;0.6341;3.1284;
626.7000;0.6349;3.1260;
627.0000;0.6357;3.1332;
627.3000;0.6357;3.1428;
627.6000;0.6325;3.1404;
627.9000;0.6333;3.1260;
628.2000;0.6317;3.1212;
628.5000;0.6260;3.1140;
628.8000;0.6300;3.1284;
629.1000;0.6268;3.1236;
629.4000;0.6300;3.1284;
629.7000;0.6284;3.1236;
630.0000;0.6284;3.1260;
630.3000;0.6252;3.1332;
630.6000;0.6211;3.1284;
630.9000;0.6235;3.1260;
631.2000;0.6243;3.1380;
631.5000;0.6211;3.1164;
631.8000;0.6243;3.1284;
632.1000;0.6219;3.1308;
632.4000;0.6211;3.1284;
632.7000;0.6195;3.1188;
633.0000;0.6186;3.1236;
633.3000;0.6195;3.1212;
633.6000;0.6162;3.1212;
633.9000;0.6186;3.1212;
634.2000;0.6170;3.1212;
634.5000;0.6154;3.1188;
634.8000;0.6146;3.1188;
635.1000;0.6162;3.1164;
635.4000;0.6154;3.1116;
635.7000;0.6138;3.1116;
636.0000;0.6129;3.1140;
636.3000;0.6105;3.1092;
636.6000;0.6113;3.1140;
636.9000;0.6121;3.1236;
637.2000;0.6089;3.1212;
637.5000;0.6113;3.1284;
637.8000;0.5999;3.1044;
638.1000;0.6154;3.1404;
638.4000;0.6072;3.1188;
638.7000;0.6081;3.1236;
639.0000;0.6064;3.1092;
639.3000;0.6195;3.1404;
639.6000;0.6170;3.1380;
639.9000;0.6072;3.1140;
640.2000;0.6056;3.1068;
640.5000;0.6056;3.1044;
640.8000;0.6064;3.1092;
641.1000;0.6015;3.0996;
641.4000;0.6056;3.1092;
641.7000;0.6056;3.1236;
642.0000;0.6056;3.1236;
642.3000;0.6024;3.1212;
642.6000;0.6040;3.1284;
642.9000;0.6072;3.1236;
643.2000;0.6015;3.1236;
643.5000;0.5999;3.1236;
643.8000;0.5999;3.1236;
644.1000;0.6015;3.1236;
644.4000;0.6007;3.1260;
644.7000;0.5975;3.1212;
645.0000;0.5967;3.1260;
645.3000;0.5991;3.1356;
645.6000;0.5991;3.1308;
645.9000;0.5975;3.1284;
646.2000;0.5934;3.1164;
646.5000;0.5983;3.1284;
646.8000;0.5991;3.1284;
647.1000;0.5950;3.1188;
647.4000;0.5967;3.1284;
647.7000;0.5958;3.1212;
648.0000;0.5950;3.1164;
648.3000;0.5958;3.1236;
648.6000;0.5942;3.1308;
648.9000;0.5942;3.1332;
649.2000;0.5942;3.1332;
649.5000;0.5942;3.1356;
649.8000;0.5893;3.1260;
650.1000;0.5934;3.1284;
650.4000;0.5926;3.1236;
650.7000;0.5926;3.1236;
651.0000;0.5910;3.1236;
651.3000;0.5910;3.1236;
651.6000;0.5902;3.1236;
651.9000;0.5926;3.1356;
652.2000;0.5918;3.1428;
652.5000;0.5902;3.1380;
652.8000;0.5893;3.1284;
653.1000;0.5918;3.1284;
653.4000;0.5934;3.1212;
653.7000;0.5893;3.1188;
654.0000;0.5885;3.1236;
654.3000;0.5885;3.1188;
654.6000;0.5853;3.1140;
654.9000;0.5828;3.1092;
655.2000;0.5877;3.1164;
655.5000;0.5845;3.1092;
655.8000;0.5796;3.0996;
656.1000;0.5836;3.1164;
656.4000;0.5828;3.1068;
656.7000;0.5836;3.1140;
657.0000;0.5828;3.1212;
657.3000;0.5836;3.1356;
657.6000;0.5828;3.1380;
657.9000;0.5812;3.1188;
658.2000;0.5779;3.1164;
658.5000;0.5812;3.1212;
658.8000;0.5820;3.1188;
659.1000;0.5820;3.1212;
659.4000;0.5820;3.1212;
659.7000;0.5820;3.1284;
660.0000;0.5796;3.1308;
660.3000;0.5796;3.1380;
660.6000;0.5796;3.1356;
660.9000;0.5804;3.1404;
661.2000;0.5796;3.1284;
661.5000;0.5804;3.1236;
661.8000;0.5788;3.1332;
662.1000;0.5812;3.1284;
662.4000;0.5788;3.1236;
662.7000;0.5714;3.1092;
663.0000;0.5788;3.1260;
663.3000;0.5771;3.1212;
663.6000;0.5763;3.1188;
663.9000;0.5755;3.1116;
664.2000;0.5763;3.1092;
664.5000;0.5771;3.1164;
664.8000;0.5763;3.1188;
665.1000;0.5755;3.1188;
665.4000;0.5779;3.1236;
665.7000;0.5674;3.1068;
666.0000;0.5771;3.1356;
666.3000;0.5747;3.1284;
666.6000;0.5812;3.1500;
666.9000;0.5739;3.1380;
667.2000;0.5755;3.1380;
667.5000;0.5771;3.1332;
667.8000;0.5755;3.1188;
668.1000;0.5771;3.1140;
668.4000;0.5739;3.1020;
668.7000;0.5739;3.1068;
669.0000;0.5747;3.1116;
669.3000;0.5836;3.1452;
669.6000;0.5714;3.1236;
669.9000;0.5722;3.1260;
670.2000;0.5698;3.1212;
670.5000;0.5722;3.1236;
670.8000;0.5722;3.1236;
671.1000;0.5714;3.1260;
671.4000;0.5706;3.1212;
671.7000;0.5706;3.1164;
672.0000;0.5706;3.1212;
672.3000;0.5722;3.1260;
672.6000;0.5698;3.1188;
672.9000;0.5706;3.1116;
673.2000;0.5698;3.1164;
673.5000;0.5649;3.1020;
673.8000;0.5698;3.1188;
674.1000;0.5690;3.1188;
674.4000;0.5690;3.1236;
674.7000;0.5690;3.1284;
675.0000;0.5690;3.1284;
675.3000;0.5674;3.1212;
675.6000;0.5690;3.1332;
675.9000;0.5674;3.1260;
676.2000;0.5674;3.1164;
676.5000;0.5698;3.1212;
676.8000;0.5698;3.1140;
677.1000;0.5714;3.1188;
677.4000;0.5682;3.1092;
677.7000;0.5682;3.1068;
678.0000;0.5665;3.1140;
678.3000;0.5674;3.1164;
678.6000;0.5674;3.1236;
678.9000;0.5657;3.1236;
679.2000;0.5665;3.1164;
679.5000;0.5641;3.1116;
679.8000;0.5698;3.1308;
680.1000;0.5665;3.1356;
680.4000;0.5649;3.1404;
680.7000;0.5608;3.1284;
681.0000;0.5665;3.1380;
681.3000;0.5665;3.1356;
681.6000;0.5674;3.1308;
681.9000;0.5649;3.1284;
682.2000;0.5657;3.1284;
682.5000;0.5625;3.1212;
682.8000;0.5641;3.1356;
683.1000;0.5633;3.1332;
683.4000;0.5617;3.1332;
683.7000;0.5617;3.1260;
684.0000;0.5617;3.1236;
684.3000;0.5625;3.1332;
684.6000;0.5641;3.1332;
684.9000;0.5633;3.1260;
685.2000;0.5633;3.1212;
685.5000;0.5617;3.1188;
685.8000;0.5617;3.1164;
686.1000;0.5649;3.1284;
686.4000;0.5633;3.1212;
686.7000;0.5617;3.1212;
687.0000;0.5625;3.1236;
687.3000;0.5641;3.1404;
687.6000;0.5633;3.1332;
687.9000;0.5600;3.1308;
688.2000;0.5600;3.1284;
688.5000;0.5600;3.1356;
688.8000;0.5584;3.1212;
689.1000;0.5584;3.1260;
689.4000;0.5600;3.1356;
689.7000;0.5608;3.1428;
690.0000;0.5617;3.1452;
690.3000;0.5600;3.1380;
690.6000;0.5584;3.1308;
690.9000;0.5592;3.1284;
691.2000;0.5608;3.1260;
691.5000;0.5600;3.1212;
691.8000;0.5584;3.1356;
692.1000;0.5625;3.1380;
692.4000;0.5560;3.1284;
692.7000;0.5576;3.1332;
693.0000;0.5568;3.1188;
693.3000;0.5576;3.1260;
693.6000;0.5560;3.1164;
693.9000;0.5600;3.1236;
694.2000;0.5584;3.1212;
694.5000;0.5560;3.1236;
694.8000;0.5543;3.1284;
695.1000;0.5584;3.1404;
695.4000;0.5576;3.1404;
695.7000;0.5584;3.1500;
696.0000;0.5568;3.1452;
696.3000;0.5486;3.1188;
696.6000;0.5576;3.1428;
696.9000;0.5560;3.1452;
697.2000;0.5560;3.1404;
697.5000;0.5519;3.1260;
697.8000;0.5560;3.1428;
698.1000;0.5576;3.1380;
698.4000;0.5560;3.1452;
698.7000;0.5551;3.1452;
699.0000;0.5560;3.1332;
699.3000;0.5568;3.1236;
699.6000;0.5551;3.1212;
699.9000;0.5551;3.1236;
700.2000;0.5568;3.1188;
700.5000;0.5495;3.1092;
700.8000;0.5535;3.1212;
701.1000;0.5535;3.1188;
701.4000;0.5543;3.1212;
701.7000;0.5543;3.1236;
702.0000;0.5535;3.1188;
702.3000;0.5527;3.1140;
702.6000;0.5576;3.1308;
702.9000;0.5535;3.1212;
703.2000;0.5543;3.1284;
703.5000;0.5519;3.1236;
703.8000;0.5519;3.1188;
704.1000;0.5519;3.1284;
704.4000;0.5568;3.1332;
704.7000;0.5519;3.1260;
705.0000;0.5519;3.1260;
705.3000;0.5527;3.1236;
705.6000;0.5527;3.1164;
705.9000;0.5568;3.1332;
706.2000;0.5576;3.1332;
706.5000;0.5535;3.1212;
706.8000;0.5519;3.1308;
707.1000;0.5527;3.1356;
707.4000;0.5543;3.1356;
707.7000;0.5551;3.1380;
708.0000;0.5511;3.1260;
708.3000;0.5519;3.1284;
708.6000;0.5519;3.1284;
708.9000;0.5527;3.1164;
709.2000;0.5519;3.1188;
709.5000;0.5511;3.1308;
709.8000;0.5486;3.1308;
710.1000;0.5478;3.1188;
710.4000;0.5446;3.1140;
710.7000;0.5495;3.1164;
711.0000;0.5462;3.1068;
711.3000;0.5551;3.1284;
711.6000;0.5535;3.1188;
711.9000;0.5511;3.1068;
712.2000;0.5495;3.1116;
712.5000;0.5519;3.1308;
712.8000;0.5519;3.1284;
713.1000;0.5551;3.1260;
713.4000;0.5478;3.1140;
713.7000;0.5511;3.1188;
714.0000;0.5438;3.0972;
714.3000;0.5495;3.1068;
714.6000;0.5495;3.1092;
714.9000;0.5495;3.1116;
715.2000;0.5503;3.1260;
715.5000;0.5478;3.1260;
715.8000;0.5478;3.1236;
716.1000;0.5478;3.1236;
716.4000;0.5486;3.1284;
716.7000;0.5495;3.1332;
717.0000;0.5543;3.1380;
717.3000;0.5470;3.1236;
717.6000;0.5478;3.1356;
717.9000;0.5495;3.1404;
718.2000;0.5478;3.1548;
718.5000;0.5421;3.1380;
718.8000;0.5470;3.1428;
719.1000;0.5495;3.1476;
719.4000;0.5462;3.1476;
719.7000;0.5486;3.1572;
720.0000;0.5470;3.1500;
720.3000;0.5503;3.1524;
720.6000;0.5478;3.1380;
720.9000;0.5462;3.1380;
721.2000;0.5478;3.1404;
721.5000;0.5446;3.1284;
721.8000;0.5486;3.1476;
722.1000;0.5470;3.1380;
722.4000;0.5478;3.1332;
722.7000;0.5470;3.1332;
723.0000;0.5462;3.1332;
723.3000;0.5470;3.1332;
723.6000;0.5454;3.1308;
723.9000;0.5470;3.1284;
724.2000;0.5462;3.1260;
724.5000;0.5535;3.1500;
724.8000;0.5503;3.1476;
725.1000;0.5446;3.1380;
725.4000;0.5478;3.1452;
725.7000;0.5454;3.1404;
726.0000;0.5454;3.1380;
726.3000;0.5446;3.1524;
726.6000;0.5454;3.1524;
726.9000;0.5478;3.1548;
727.2000;0.5446;3.1500;
727.5000;0.5429;3.1452;
727.8000;0.5446;3.1476;
728.1000;0.5446;3.1572;
728.4000;0.5429;3.1524;
728.7000;0.5429;3.1476;
729.0000;0.5446;3.1500;
729.3000;0.5429;3.1476;
729.6000;0.5405;3.1500;
729.9000;0.5429;3.1500;
730.2000;0.5495;3.1668;
730.5000;0.5454;3.1524;
730.8000;0.5454;3.1572;
731.1000;0.5454;3.1596;
731.4000;0.5446;3.1596;
731.7000;0.5446;3.1668;
732.0000;0.5462;3.1764;
732.3000;0.5462;3.1740;
732.6000;0.5454;3.1692;
732.9000;0.5438;3.1596;
733.2000;0.5421;3.1572;
733.5000;0.5446;3.1692;
733.8000;0.5446;3.1644;
734.1000;0.5438;3.1668;
734.4000;0.5438;3.1668;
734.7000;0.5389;3.1548;
735.0000;0.5438;3.1620;
735.3000;0.5356;3.1284;
735.6000;0.5446;3.1428;
735.9000;0.5438;3.1356;
736.2000;0.5389;3.1260;
736.5000;0.5421;3.1380;
736.8000;0.5438;3.1404;
737.1000;0.5356;3.1212;
737.4000;0.5340;3.1212;
737.7000;0.5413;3.1428;
738.0000;0.5405;3.1452;
738.3000;0.5429;3.1452;
738.6000;0.5421;3.1380;
738.9000;0.5421;3.1260;
739.2000;0.5372;3.1164;
739.5000;0.5429;3.1308;
739.8000;0.5429;3.1284;
740.1000;0.5397;3.1236;
740.4000;0.5486;3.1476;
740.7000;0.5446;3.1428;
741.0000;0.5429;3.1332;
741.3000;0.5446;3.1356;
741.6000;0.5429;3.1212;
741.9000;0.5429;3.1236;
742.2000;0.5429;3.1236;
742.5000;0.5438;3.1356;
742.8000;0.5413;3.1356;
743.1000;0.5421;3.1380;
743.4000;0.5454;3.1524;
743.7000;0.5429;3.1524;
744.0000;0.5413;3.1500;
744.3000;0.5405;3.1428;
744.6000;0.5421;3.1428;
744.9000;0.5397;3.1332;
745.2000;0.5389;3.1356;
745.5000;0.5397;3.1212;
745.8000;0.5421;3.1212;
746.1000;0.5438;3.1188;
746.4000;0.5413;3.1140;
746.7000;0.5421;3.1212;
747.0000;0.5397;3.1140;
747.3000;0.5405;3.1164;
747.6000;0.5421;3.1116;
747.9000;0.5372;3.1044;
748.2000;0.5405;3.1116;
748.5000;0.5389;3.1044;
748.8000;0.5381;3.1020;
749.1000;0.5381;3.1068;
749.4000;0.5381;3.1044;
749.7000;0.5389;3.1044;
750.0000;0.5389;3.1068;
750.3000;0.5397;3.1092;
750.6000;0.5405;3.1116;
750.9000;0.5397;3.1188;
751.2000;0.5381;3.1092;
751.5000;0.5405;3.1116;
751.8000;0.5397;3.1020;
752.1000;0.5332;3.0900;
752.4000;0.5381;3.1068;
752.7000;0.5405;3.1188;
753.0000;0.5397;3.1212;
753.3000;0.5364;3.1020;
753.6000;0.5389;3.1068;
753.9000;0.5372;3.1140;
754.2000;0.5429;3.1236;
754.5000;0.5413;3.1284;
754.8000;0.5413;3.1332;
755.1000;0.5405;3.1356;
755.4000;0.5389;3.1332;
755.7000;0.5397;3.1356;
756.0000;0.5405;3.1356;
756.3000;0.5348;3.1236;
756.6000;0.5421;3.1452;
756.9000;0.5397;3.1380;
757.2000;0.5389;3.1452;
757.5000;0.5381;3.1548;
757.8000;0.5348;3.1476;
758.1000;0.5372;3.1500;
758.4000;0.5389;3.1524;
758.7000;0.5381;3.1428;
759.0000;0.5372;3.1404;
759.3000;0.5364;3.1356;
759.6000;0.5405;3.1284;
759.9000;0.5372;3.1068;
760.2000;0.5372;3.1212;
760.5000;0.5348;3.1188;
760.8000;0.5381;3.1236;
761.1000;0.5372;3.1164;
761.4000;0.5429;3.1356;
761.7000;0.5372;3.1260;
762.0000;0.5364;3.1356;
762.3000;0.5381;3.1428;
762.6000;0.5389;3.1404;
762.9000;0.5372;3.1308;
763.2000;0.5372;3.1332;
763.5000;0.5372;3.1332;
763.8000;0.5356;3.1236;
764.1000;0.5397;3.1284;
764.4000;0.5364;3.1212;
764.7000;0.5389;3.1284;
765.0000;0.5381;3.1212;
765.3000;0.5372;3.1188;
765.6000;0.5364;3.1188;
765.9000;0.5356;3.1140;
766.2000;0.5381;3.1140;
766.5000;0.5405;3.1308;
766.8000;0.5364;3.1332;
767.1000;0.5381;3.1404;
767.4000;0.5389;3.1404;
767.7000;0.5356;3.1380;
768.0000;0.5356;3.1380;
768.3000;0.5356;3.1404;
768.6000;0.5413;3.1620;
768.9000;0.5348;3.1500;
769.2000;0.5356;3.1500;
769.5000;0.5315;3.1404;
769.8000;0.5356;3.1524;
770.1000;0.5364;3.1548;
770.4000;0.5348;3.1548;
770.7000;0.5340;3.1572;
771.0000;0.5340;3.1572;
771.3000;0.5356;3.1692;
771.6000;0.5364;3.1620;
771.9000;0.5372;3.1596;
772.2000;0.5381;3.1572;
772.5000;0.5356;3.1476;
772.8000;0.5291;3.1284;
773.1000;0.5372;3.1500;
773.4000;0.5364;3.1596;
773.7000;0.5364;3.1524;
774.0000;0.5356;3.1452;
774.3000;0.5348;3.1356;
774.6000;0.5340;3.1404;
774.9000;0.5356;3.1428;
775.2000;0.5348;3.1380;
775.5000;0.5332;3.1356;
775.8000;0.5340;3.1308;
776.1000;0.5348;3.1380;
776.4000;0.5340;3.1428;
776.7000;0.5381;3.1476;
777.0000;0.5348;3.1452;
777.3000;0.5332;3.1404;
777.6000;0.5405;3.1596;
777.9000;0.5348;3.1548;
778.2000;0.5332;3.1452;
778.5000;0.5372;3.1596;
778.8000;0.5364;3.1692;
779.1000;0.5356;3.1644;
779.4000;0.5372;3.1668;
779.7000;0.5332;3.1596;
780.0000;0.5348;3.1644;
780.3000;0.5340;3.1620;
780.6000;0.5348;3.1644;
780.9000;0.5356;3.1644;
781.2000;0.5356;3.1596;
781.5000;0.5340;3.1548;
781.8000;0.5364;3.1644;
782.1000;0.5356;3.1692;
782.4000;0.5364;3.1668;
782.7000;0.5372;3.1764;
783.0000;0.5340;3.1692;
783.3000;0.5340;3.1572;
783.6000;0.5332;3.1548;
783.9000;0.5348;3.1524;
784.2000;0.5340;3.1524;
784.5000;0.5332;3.1428;
784.8000;0.5348;3.1404;
785.1000;0.5348;3.1428;
785.4000;0.5348;3.1452;
785.7000;0.5332;3.1476;
786.0000;0.5332;3.1524;
786.3000;0.5332;3.1452;
786.6000;0.5340;3.1428;
786.9000;0.5332;3.1476;
787.2000;0.5340;3.1572;
787.5000;0.5389;3.1716;
787.8000;0.5348;3.1668;
788.1000;0.5340;3.1692;
788.4000;0.5340;3.1644;
788.7000;0.5324;3.1596;
789.0000;0.5340;3.1644;
789.3000;0.5332;3.1572;
789.6000;0.5332;3.1500;
789.9000;0.5307;3.1380;
790.2000;0.5340;3.1404;
790.5000;0.5332;3.1404;
790.8000;0.5332;3.1404;
791.1000;0.5307;3.1332;
791.4000;0.5348;3.1404;
791.7000;0.5332;3.1404;
792.0000;0.5324;3.1452;
792.3000;0.5340;3.1500;
792.6000;0.5299;3.1476;
792.9000;0.5332;3.1524;
793.2000;0.5315;3.1524;
793.5000;0.5315;3.1524;
793.8000;0.5332;3.1524;
794.1000;0.5332;3.1524;
794.4000;0.5275;3.1380;
794.7000;0.5291;3.1428;
795.0000;0.5332;3.1500;
795.3000;0.5340;3.1524;
795.6000;0.5364;3.1572;
795.9000;0.5332;3.1404;
796.2000;0.5324;3.1380;
796.5000;0.5250;3.1284;
796.8000;0.5324;3.1548;
797.1000;0.5315;3.1620;
797.4000;0.5332;3.1620;
797.7000;0.5389;3.1692;
798.0000;0.5332;3.1548;
798.3000;0.5340;3.1524;
798.6000;0.5324;3.1476;
798.9000;0.5307;3.1428;
799.2000;0.5315;3.1452;
799.5000;0.5315;3.1500;
799.8000;0.5315;3.1524;
800.1000;0.5315;3.1452;
800.4000;0.5332;3.1452;
800.7000;0.5324;3.1356;
801.0000;0.5307;3.1332;
801.3000;0.5299;3.1332;
801.6000;0.5356;3.1524;
801.9000;0.5340;3.1524;
802.2000;0.5429;3.1764;
802.5000;0.5332;3.1500;
802.8000;0.5340;3.1500;
803.1000;0.5332;3.1404;
803.4000;0.5307;3.1428;
803.7000;0.5324;3.1380;
804.0000;0.5315;3.1332;
804.3000;0.5315;3.1380;
804.6000;0.5299;3.1428;
804.9000;0.5332;3.1500;
805.2000;0.5364;3.1620;
805.5000;0.5332;3.1524;
805.8000;0.5315;3.1476;
806.1000;0.5315;3.1452;
806.4000;0.5291;3.1452;
806.7000;0.5324;3.1524;
807.0000;0.5315;3.1620;
807.3000;0.5340;3.1860;
807.6000;0.5299;3.1788;
807.9000;0.5413;3.1956;
808.2000;0.5307;3.1812;
808.5000;0.5299;3.1884;
808.8000;0.5324;3.1860;
809.1000;0.5299;3.1836;
809.4000;0.5283;3.1860;
809.7000;0.5299;3.1836;
810.0000;0.5291;3.1740;
810.3000;0.5299;3.1692;
810.6000;0.5291;3.1644;
810.9000;0.5307;3.1692;
811.2000;0.5291;3.1692;
811.5000;0.5364;3.1836;
811.8000;0.5299;3.1620;
812.1000;0.5299;3.1692;
812.4000;0.5291;3.1668;
812.7000;0.5307;3.1620;
813.0000;0.5332;3.1692;
813.3000;0.5299;3.1620;
813.6000;0.5291;3.1596;
813.9000;0.5250;3.1452;
814.2000;0.5291;3.1524;
814.5000;0.5307;3.1692;
814.8000;0.5332;3.1788;
815.1000;0.5307;3.1668;
815.4000;0.5307;3.1644;
815.7000;0.5332;3.1620;
816.0000;0.5307;3.1596;
816.3000;0.5299;3.1620;
816.6000;0.5315;3.1620;
816.9000;0.5340;3.1716;
817.2000;0.5307;3.1620;
817.5000;0.5291;3.1548;
817.8000;0.5291;3.1572;
818.1000;0.5307;3.1572;
818.4000;0.5299;3.1572;
818.7000;0.5307;3.1644;
819.0000;0.5307;3.1620;
819.3000;0.5315;3.1716;
819.6000;0.5299;3.1692;
819.9000;0.5299;3.1740;
820.2000;0.5299;3.1740;
820.5000;0.5299;3.1812;
820.8000;0.5299;3.1788;
821.1000;0.5307;3.1932;
821.4000;0.5291;3.1908;
821.7000;0.5324;3.1932;
822.0000;0.5307;3.1836;
822.3000;0.5275;3.1788;
822.6000;0.5291;3.1740;
822.9000;0.5291;3.1572;
823.2000;0.5291;3.1572;
823.5000;0.5283;3.1572;
823.8000;0.5307;3.1644;
824.1000;0.5283;3.1716;
824.4000;0.5283;3.1764;
824.7000;0.5299;3.1740;
825.0000;0.5267;3.1572;
825.3000;0.5275;3.1596;
825.6000;0.5299;3.1788;
825.9000;0.5291;3.1812;
826.2000;0.5315;3.1812;
826.5000;0.5299;3.1764;
826.8000;0.5275;3.1644;
827.1000;0.5307;3.1740;
827.4000;0.5283;3.1764;
827.7000;0.5267;3.1620;
828.0000;0.5283;3.1716;
828.3000;0.5291;3.1788;
828.6000;0.5307;3.1860;
828.9000;0.5275;3.1788;
829.2000;0.5299;3.1812;
829.5000;0.5307;3.1764;
829.8000;0.5291;3.1740;
830.1000;0.5275;3.1764;
830.4000;0.5291;3.1836;
830.7000;0.5291;3.1884;
831.0000;0.5234;3.1740;
831.3000;0.5315;3.1980;
831.6000;0.5307;3.2004;
831.9000;0.5324;3.2100;
832.2000;0.5332;3.2076;
832.5000;0.5283;3.1908;
832.8000;0.5267;3.1836;
833.1000;0.5275;3.1812;
833.4000;0.5291;3.1836;
833.7000;0.5291;3.1812;
834.0000;0.5283;3.1908;
834.3000;0.5307;3.1932;
834.6000;0.5291;3.1812;
834.9000;0.5291;3.1860;
835.2000;0.5299;3.1956;
835.5000;0.5340;3.2124;
835.8000;0.5283;3.1980;
836.1000;0.5291;3.1908;
836.4000;0.5324;3.1956;
836.7000;0.5299;3.1980;
837.0000;0.5283;3.1932;
837.3000;0.5291;3.1836;
837.6000;0.5267;3.1764;
837.9000;0.5299;3.1692;
838.2000;0.5291;3.1692;
838.5000;0.5291;3.1716;
838.8000;0.5299;3.1572;
839.1000;0.5315;3.1644;
839.4000;0.5283;3.1500;
839.7000;0.5275;3.1428;
840.0000;0.5299;3.1476;
840.3000;0.5275;3.1428;
840.6000;0.5283;3.1404;
840.9000;0.5267;3.1452;
841.2000;0.5275;3.1404;
841.5000;0.5275;3.1452;
841.8000;0.5307;3.1500;
842.1000;0.5242;3.1404;
842.4000;0.5283;3.1548;
842.7000;0.5275;3.1524;
843.0000;0.5267;3.1500;
843.3000;0.5275;3.1524;
843.6000;0.5291;3.1620;
843.9000;0.5283;3.1596;
844.2000;0.5258;3.1548;
844.5000;0.5250;3.1596;
844.8000;0.5185;3.1404;
845.1000;0.5283;3.1620;
845.4000;0.5275;3.1548;
845.7000;0.5299;3.1620;
846.0000;0.5315;3.1764;
846.3000;0.5250;3.1716;
846.6000;0.5275;3.1884;
846.9000;0.5267;3.1812;
847.2000;0.5299;3.1812;
847.5000;0.5267;3.1740;
847.8000;0.5275;3.1716;
848.1000;0.5218;3.1620;
848.4000;0.5283;3.1764;
848.7000;0.5250;3.1644;
849.0000;0.5258;3.1596;
849.3000;0.5267;3.1620;
849.6000;0.5283;3.1740;
849.9000;0.5267;3.1764;
850.2000;0.5250;3.1740;
850.5000;0.5307;3.1956;
850.8000;0.5250;3.1764;
851.1000;0.5267;3.1644;
851.4000;0.5218;3.1500;
851.7000;0.5193;3.1404;
852.0000;0.5299;3.1524;
852.3000;0.5242;3.1380;
852.6000;0.5258;3.1452;
852.9000;0.5275;3.1500;
853.2000;0.5275;3.1452;
853.5000;0.5291;3.1500;
853.8000;0.5267;3.1428;
854.1000;0.5250;3.1380;
854.4000;0.5275;3.1428;
854.7000;0.5250;3.1356;
855.0000;0.5250;3.1380;
855.3000;0.5258;3.1404;
855.6000;0.5258;3.1404;
855.9000;0.5250;3.1452;
856.2000;0.5234;3.1476;
856.5000;0.5250;3.1524;
856.8000;0.5307;3.1620;
857.1000;0.5250;3.1500;
857.4000;0.5275;3.1452;
857.7000;0.5283;3.1380;
858.0000;0.5275;3.1308;
858.3000;0.5275;3.1260;
858.6000;0.5242;3.1236;
858.9000;0.5275;3.1404;
859.2000;0.5258;3.1428;
859.5000;0.5193;3.1332;
859.8000;0.5250;3.1572;
860.1000;0.5242;3.1548;
860.4000;0.5267;3.1620;
860.7000;0.5234;3.1596;
861.0000;0.5283;3.1716;
861.3000;0.5250;3.1692;
861.6000;0.5283;3.1716;
861.9000;0.5307;3.1764;
862.2000;0.5283;3.1548;
862.5000;0.5267;3.1524;
862.8000;0.5275;3.1548;
863.1000;0.5258;3.1548;
863.4000;0.5226;3.1524;
863.7000;0.5275;3.1596;
864.0000;0.5177;3.1308;
864.3000;0.5250;3.1428;
864.6000;0.5218;3.1212;
864.9000;0.5299;3.1380;
865.2000;0.5258;3.1308;
865.5000;0.5267;3.1332;
865.8000;0.5307;3.1452;
866.1000;0.5348;3.1596;
866.4000;0.5275;3.1476;
866.7000;0.5348;3.1668;
867.0000;0.5234;3.1452;
867.3000;0.5258;3.1596;
867.6000;0.5258;3.1572;
867.9000;0.5250;3.1572;
868.2000;0.5291;3.1668;
868.5000;0.5250;3.1476;
868.8000;0.5250;3.1500;
869.1000;0.5258;3.1524;
869.4000;0.5218;3.1404;
869.7000;0.5258;3.1500;
870.0000;0.5275;3.1524;
870.3000;0.5242;3.1476;
870.6000;0.5258;3.1548;
870.9000;0.5242;3.1572;
871.2000;0.5242;3.1644;
871.5000;0.5226;3.1572;
871.8000;0.5250;3.1572;
872.1000;0.5250;3.1620;
872.4000;0.5250;3.1620;
872.7000;0.5315;3.1788;
873.0000;0.5275;3.1764;
873.3000;0.5250;3.1836;
873.6000;0.5258;3.1956;
873.9000;0.5315;3.1980;
874.2000;0.5250;3.1764;
874.5000;0.5210;3.1596;
874.8000;0.5234;3.1668;
875.1000;0.5242;3.1668;
875.4000;0.5242;3.1668;
875.7000;0.5250;3.1764;
876.0000;0.5218;3.1716;
876.3000;0.5242;3.1716;
876.6000;0.5250;3.1668;
876.9000;0.5258;3.1572;
877.2000;0.5234;3.1500;
877.5000;0.5267;3.1596;
877.8000;0.5242;3.1572;
878.1000;0.5250;3.1644;
878.4000;0.5315;3.1812;
878.7000;0.5250;3.1668;
879.0000;0.5250;3.1692;
879.3000;0.5250;3.1716;
879.6000;0.5234;3.1668;
879.9000;0.5258;3.1596;
880.2000;0.5250;3.1572;
880.5000;0.5258;3.1524;
880.8000;0.5250;3.1380;
881.1000;0.5250;3.1380;
881.4000;0.5258;3.1452;
881.7000;0.5258;3.1452;
882.0000;0.5226;3.1404;
882.3000;0.5258;3.1404;
882.6000;0.5226;3.1284;
882.9000;0.5258;3.1380;
883.2000;0.5258;3.1428;
883.5000;0.5242;3.1428;
883.8000;0.5250;3.1452;
884.1000;0.5226;3.1332;
884.4000;0.5242;3.1308;
884.7000;0.5250;3.1332;
885.0000;0.5234;3.1332;
885.3000;0.5210;3.1380;
885.6000;0.5242;3.1500;
885.9000;0.5275;3.1548;
886.2000;0.5258;3.1524;
886.5000;0.5275;3.1548;
886.8000;0.5267;3.1572;
887.1000;0.5210;3.1476;
887.4000;0.5193;3.1380;
887.7000;0.5234;3.1500;
888.0000;0.5267;3.1524;
888.3000;0.5226;3.1476;
888.6000;0.5177;3.1308;
888.9000;0.5234;3.1500;
889.2000;0.5234;3.1428;
889.5000;0.5250;3.1452;
889.8000;0.5242;3.1428;
890.1000;0.5267;3.1548;
890.4000;0.5250;3.1452;
890.7000;0.5193;3.1284;
891.0000;0.5226;3.1356;
891.3000;0.5242;3.1380;
891.6000;0.5234;3.1428;
891.9000;0.5250;3.1452;
892.2000;0.5267;3.1476;
892.5000;0.5226;3.1404;
892.8000;0.5242;3.1500;
893.1000;0.5210;3.1524;
893.4000;0.5234;3.1572;
893.7000;0.5242;3.1572;
894.0000;0.5218;3.1524;
894.3000;0.5226;3.1428;
894.6000;0.5250;3.1524;
894.9000;0.5242;3.1572;
895.2000;0.5234;3.1548;
895.5000;0.5242;3.1572;
895.8000;0.5291;3.1764;
896.1000;0.5250;3.1572;
896.4000;0.5234;3.1620;
896.7000;0.5234;3.1596;
897.0000;0.5242;3.1596;
897.3000;0.5275;3.1692;
897.6000;0.5234;3.1596;
897.9000;0.5242;3.1548;
898.2000;0.5250;3.1572;
898.5000;0.5242;3.1572;
898.8000;0.5275;3.1668;
899.1000;0.5242;3.1668;
899.4000;0.5234;3.1668;
899.7000;0.5226;3.1692;
900.0000;0.5242;3.1668;
900.3000;0.5210;3.1500;
900.6000;0.5218;3.1500;
900.9000;0.5218;3.1548;
901.2000;0.5226;3.1476;
901.5000;0.5234;3.1548;
901.8000;0.5250;3.1716;
902.1000;0.5234;3.1716;
902.4000;0.5234;3.1692;
902.7000;0.5250;3.1692;
903.0000;0.5234;3.1620;
903.3000;0.5258;3.1788;
903.6000;0.5258;3.1764;
903.9000;0.5234;3.1692;
904.2000;0.5250;3.1908;
904.5000;0.5258;3.2028;
904.8000;0.5242;3.1932;
905.1000;0.5210;3.1812;
905.4000;0.5218;3.1788;
905.7000;0.5258;3.1740;
906.0000;0.5267;3.1740;
906.3000;0.5283;3.1764;
906.6000;0.5250;3.1692;
906.9000;0.5258;3.1596;
907.2000;0.5267;3.1716;
907.5000;0.5218;3.1668;
907.8000;0.5226;3.1692;
908.1000;0.5234;3.1668;
908.4000;0.5242;3.1740;
908.7000;0.5242;3.1788;
909.0000;0.5218;3.1860;
909.3000;0.5234;3.1884;
909.6000;0.5226;3.1932;
909.9000;0.5226;3.1956;
910.2000;0.5201;3.1932;
910.5000;0.5218;3.1884;
910.8000;0.5324;3.2100;
911.1000;0.5234;3.1860;
911.4000;0.5177;3.1668;
911.7000;0.5218;3.1860;
912.0000;0.5234;3.1908;
912.3000;0.5210;3.1884;
912.6000;0.5210;3.1836;
912.9000;0.5234;3.1956;
913.2000;0.5258;3.1956;
913.5000;0.5242;3.1932;
913.8000;0.5226;3.1836;
914.1000;0.5242;3.1812;
914.4000;0.5226;3.1716;
914.7000;0.5226;3.1788;
915.0000;0.5234;3.1788;
915.3000;0.5234;3.1812;
915.6000;0.5218;3.1812;
915.9000;0.5226;3.1716;
916.2000;0.5242;3.1836;
916.5000;0.5218;3.1764;
916.8000;0.5226;3.1812;
917.1000;0.5218;3.1764;
917.4000;0.5201;3.1716;
917.7000;0.5234;3.1860;
918.0000;0.5242;3.1860;
918.3000;0.5234;3.1740;
918.6000;0.5250;3.1740;
918.9000;0.5324;3.1884;
919.2000;0.5234;3.1668;
919.5000;0.5234;3.1668;
919.8000;0.5234;3.1668;
920.1000;0.5250;3.1668;
920.4000;0.5234;3.1572;
920.7000;0.5226;3.1596;
921.0000;0.5234;3.1692;
921.3000;0.5226;3.1668;
921.6000;0.5234;3.1740;
921.9000;0.5242;3.1764;
922.2000;0.5250;3.1812;
922.5000;0.5242;3.1812;
922.8000;0.5242;3.1788;
923.1000;0.5242;3.1716;
923.4000;0.5226;3.1716;
923.7000;0.5267;3.1740;
924.0000;0.5226;3.1668;
924.3000;0.5218;3.1644;
924.6000;0.5234;3.1620;
924.9000;0.5218;3.1596;
925.2000;0.5226;3.1620;
925.5000;0.5242;3.1764;
925.8000;0.5234;3.1764;
926.1000;0.5226;3.1764;
926.4000;0.5226;3.1812;
926.7000;0.5218;3.1716;
927.0000;0.5226;3.1692;
927.3000;0.5234;3.1764;
927.6000;0.5226;3.1716;
927.9000;0.5250;3.1764;
928.2000;0.5234;3.1668;
928.5000;0.5267;3.1812;
928.8000;0.5250;3.1764;
929.1000;0.5226;3.1668;
929.4000;0.5226;3.1572;
929.7000;0.5210;3.1620;
930.0000;0.5226;3.1668;
930.3000;0.5242;3.1788;
930.6000;0.5234;3.1812;
930.9000;0.5218;3.1764;
931.2000;0.5242;3.1812;
931.5000;0.5242;3.1812;
931.8000;0.5193;3.1596;
932.1000;0.5226;3.1692;
932.4000;0.5250;3.1764;
932.7000;0.5283;3.1860;
933.0000;0.5177;3.1500;
933.3000;0.5226;3.1596;
933.6000;0.5210;3.1476;
933.9000;0.5210;3.1500;
934.2000;0.5242;3.1572;
934.5000;0.5226;3.1620;
934.8000;0.5307;3.1764;
935.1000;0.5218;3.1500;
935.4000;0.5234;3.1500;
935.7000;0.5242;3.1548;
936.0000;0.5226;3.1500;
936.3000;0.5250;3.1596;
936.6000;0.5210;3.1500;
936.9000;0.5218;3.1476;
937.2000;0.5185;3.1524;
937.5000;0.5242;3.1644;
937.8000;0.5250;3.1596;
938.1000;0.5210;3.1644;
938.4000;0.5242;3.1716;
938.7000;0.5193;3.1668;
939.0000;0.5210;3.1788;
939.3000;0.5210;3.1884;
939.6000;0.5218;3.1884;
939.9000;0.5218;3.1812;
940.2000;0.5226;3.1764;
940.5000;0.5218;3.1740;
940.8000;0.5201;3.1812;
941.1000;0.5201;3.1812;
941.4000;0.5242;3.1884;
941.7000;0.5226;3.1884;
942.0000;0.5226;3.1932;
942.3000;0.5234;3.1980;
942.6000;0.5226;3.2004;
942.9000;0.5234;3.2028;
943.2000;0.5218;3.2052;
943.5000;0.5210;3.2028;
943.8000;0.5250;3.2052;
944.1000;0.5234;3.2052;
944.4000;0.5226;3.2004;
944.7000;0.5210;3.1932;
945.0000;0.5226;3.1908;
945.3000;0.5193;3.1764;
945.6000;0.5234;3.1692;
945.9000;0.5210;3.1620;
946.2000;0.5218;3.1596;
946.5000;0.5234;3.1668;
946.8000;0.5226;3.1692;
947.1000;0.5210;3.1644;
947.4000;0.5218;3.1692;
947.7000;0.5201;3.1716;
948.0000;0.5226;3.1740;
948.3000;0.5210;3.1764;
948.6000;0.5218;3.1788;
948.9000;0.5234;3.1836;
949.2000;0.5226;3.1860;
949.5000;0.5218;3.1788;
949.8000;0.5169;3.1692;
950.1000;0.5226;3.1884;
950.4000;0.5267;3.2028;
950.7000;0.5218;3.1908;
951.0000;0.5234;3.1932;
951.3000;0.5242;3.1884;
951.6000;0.5218;3.1860;
951.9000;0.5234;3.1884;
952.2000;0.5242;3.1884;
952.5000;0.5226;3.1764;
952.8000;0.5242;3.1788;
953.1000;0.5226;3.1836;
953.4000;0.5226;3.1812;
953.7000;0.5226;3.1836;
954.0000;0.5226;3.1812;
954.3000;0.5234;3.1812;
954.6000;0.5226;3.1788;
954.9000;0.5218;3.1716;
955.2000;0.5210;3.1668;
955.5000;0.5226;3.1668;
955.8000;0.5201;3.1572;
956.1000;0.5210;3.1596;
956.4000;0.5210;3.1620;
956.7000;0.5250;3.1644;
957.0000;0.5210;3.1596;
957.3000;0.5218;3.1716;
957.6000;0.5218;3.1812;
957.9000;0.5315;3.2172;
958.2000;0.5218;3.1860;
958.5000;0.5161;3.1668;
958.8000;0.5242;3.1860;
959.1000;0.5218;3.1908;
959.4000;0.5210;3.1884;
959.7000;0.5226;3.1788;
960.0000;0.5210;3.1740;
960.3000;0.5234;3.1740;
960.6000;0.5218;3.1692;
960.9000;0.5177;3.1452;
961.2000;0.5210;3.1500;
961.5000;0.5210;3.1596;
961.8000;0.5242;3.1764;
962.1000;0.5258;3.1740;
962.4000;0.5226;3.1668;
962.7000;0.5226;3.1668;
963.0000;0.5226;3.1644;
963.3000;0.5226;3.1596;
963.6000;0.5226;3.1620;
963.9000;0.5218;3.1644;
964.2000;0.5218;3.1716;
964.5000;0.5226;3.1740;
964.8000;0.5218;3.1788;
965.1000;0.5226;3.1836;
965.4000;0.5210;3.1740;
965.7000;0.5234;3.1812;
966.0000;0.5201;3.1716;
966.3000;0.5250;3.1836;
966.6000;0.5201;3.1812;
966.9000;0.5210;3.1788;
967.2000;0.5210;3.1812;
967.5000;0.5201;3.1836;
967.8000;0.5218;3.1836;
968.1000;0.5218;3.1764;
968.4000;0.5234;3.1836;
968.7000;0.5242;3.1836;
969.0000;0.5226;3.1836;
969.3000;0.5210;3.1836;
969.6000;0.5283;3.1980;
969.9000;0.5218;3.1812;
970.2000;0.5201;3.1740;
970.5000;0.5210;3.1740;
970.8000;0.5226;3.1764;
971.1000;0.5218;3.1812;
971.4000;0.5218;3.1860;
971.7000;0.5218;3.1980;
972.0000;0.5242;3.2028;
972.3000;0.5218;3.2004;
972.6000;0.5185;3.1956;
972.9000;0.5218;3.2124;
973.2000;0.5218;3.2124;
973.5000;0.5218;3.2100;
973.8000;0.5234;3.2100;
974.1000;0.5193;3.2004;
974.4000;0.5210;3.1932;
974.7000;0.5226;3.1956;
975.0000;0.5226;3.1860;
975.3000;0.5185;3.1788;
975.6000;0.5234;3.1884;
975.9000;0.5234;3.1812;
976.2000;0.5218;3.1788;
976.5000;0.5291;3.1956;
976.8000;0.5210;3.1764;
977.1000;0.5226;3.1836;
977.4000;0.5218;3.1836;
977.7000;0.5201;3.1836;
978.0000;0.5185;3.1740;
978.3000;0.5226;3.1812;
978.6000;0.5193;3.1740;
978.9000;0.5210;3.1668;
979.2000;0.5218;3.1644;
979.5000;0.5250;3.1668;
979.8000;0.5218;3.1620;
980.1000;0.5193;3.1620;
980.4000;0.5218;3.1644;
980.7000;0.5218;3.1692;
981.0000;0.5218;3.1740;
981.3000;0.5169;3.1644;
981.6000;0.5210;3.1764;
981.9000;0.5234;3.1836;
982.2000;0.5210;3.1764;
982.5000;0.5250;3.1836;
982.8000;0.5201;3.1812;
983.1000;0.5136;3.1620;
983.4000;0.5136;3.1716;
983.7000;0.5218;3.1788;
984.0000;0.5128;3.1596;
984.3000;0.5201;3.1884;
984.6000;0.5218;3.1932;
984.9000;0.5218;3.1956;
985.2000;0.5210;3.1908;
985.5000;0.5201;3.1884;
985.8000;0.5210;3.1956;
986.1000;0.5234;3.1980;
986.4000;0.5210;3.1908;
986.7000;0.5201;3.1884;
987.0000;0.5210;3.1860;
987.3000;0.5210;3.1716;
987.6000;0.5226;3.1788;
987.9000;0.5193;3.1788;
988.2000;0.5210;3.1812;
988.5000;0.5210;3.1812;
988.8000;0.5210;3.1764;
989.1000;0.5218;3.1764;
989.4000;0.5226;3.1740;
989.7000;0.5201;3.1716;
990.0000;0.5193;3.1716;
990.3000;0.5201;3.1812;
990.6000;0.5201;3.1932;
990.9000;0.5201;3.1980;
991.2000;0.5169;3.1860;
991.5000;0.5193;3.1860;
991.8000;0.5210;3.1956;
992.1000;0.5193;3.1956;
992.4000;0.5201;3.1956;
992.7000;0.5185;3.1860;
993.0000;0.5177;3.1836;
993.3000;0.5218;3.1908;
993.6000;0.5218;3.1956;
993.9000;0.5210;3.1836;
994.2000;0.5185;3.1692;
994.5000;0.5210;3.1692;
994.8000;0.5218;3.1692;
995.1000;0.5218;3.1668;
995.4000;0.5218;3.1668;
995.7000;0.5201;3.1620;
996.0000;0.5258;3.1788;
996.3000;0.5185;3.1692;
996.6000;0.5201;3.1764;
996.9000;0.5193;3.1788;
997.2000;0.5185;3.1788;
997.5000;0.5210;3.1764;
997.8000;0.5201;3.1788;
998.1000;0.5201;3.1692;
998.4000;0.5210;3.1620;
998.7000;0.5201;3.1548;
999.0000;0.5242;3.1596;
999.3000;0.5193;3.1524;
999.6000;0.5161;3.1452;
999.9000;0.5210;3.1644;
1000.2000;0.5210;3.1692;
1000.5000;0.5218;3.1740;
1000.8000;0.5218;3.1764;
1001.1000;0.5210;3.1692;
1001.4000;0.5218;3.1716;
1001.7000;0.5193;3.1620;
1002.0000;0.5193;3.1596;
1002.3000;0.5201;3.1644;
1002.6000;0.5242;3.1764;
1002.9000;0.5242;3.1788;
1003.2000;0.5193;3.1740;
1003.5000;0.5201;3.1812;
1003.8000;0.5218;3.1788;
1004.1000;0.5193;3.1716;
1004.4000;0.5193;3.1620;
1004.7000;0.5201;3.1716;
1005.0000;0.5201;3.1740;
1005.3000;0.5193;3.1764;
1005.6000;0.5201;3.1740;
1005.9000;0.5242;3.1884;
1006.2000;0.5193;3.1812;
1006.5000;0.5234;3.1860;
1006.8000;0.5218;3.1860;
1007.1000;0.5201;3.1812;
1007.4000;0.5275;3.2028;
1007.7000;0.5234;3.1908;
1008.0000;0.5185;3.1860;
1008.3000;0.5185;3.1860;
1008.6000;0.5177;3.1788;
1008.9000;0.5193;3.1812;
1009.2000;0.5185;3.1812;
1009.5000;0.5201;3.1836;
1009.8000;0.5177;3.1884;
1010.1000;0.5185;3.1956;
1010.4000;0.5193;3.1956;
1010.7000;0.5210;3.1980;
1011.0000;0.5201;3.1908;
1011.3000;0.5193;3.1812;
1011.6000;0.5210;3.1860;
1011.9000;0.5201;3.1836;
1012.2000;0.5177;3.1812;
1012.5000;0.5210;3.1812;
1012.8000;0.5226;3.1788;
1013.1000;0.5226;3.1884;
1013.4000;0.5201;3.1860;
1013.7000;0.5201;3.1932;
1014.0000;0.5193;3.1932;
1014.3000;0.5201;3.1932;
1014.6000;0.5185;3.1812;
1014.9000;0.5201;3.1716;
1015.2000;0.5201;3.1716;
1015.5000;0.5185;3.1764;
1015.8000;0.5161;3.1788;
1016.1000;0.5201;3.1860;
1016.4000;0.5193;3.1836;
1016.7000;0.5210;3.1908;
1017.0000;0.5201;3.1884;
1017.3000;0.5193;3.1812;
1017.6000;0.5218;3.1812;
1017.9000;0.5193;3.1740;
1018.2000;0.5193;3.1764;
1018.5000;0.5193;3.1716;
1018.8000;0.5234;3.1860;
1019.1000;0.5226;3.1884;
1019.4000;0.5177;3.1692;
1019.7000;0.5210;3.1740;
1020.0000;0.5177;3.1668;
1020.3000;0.5185;3.1740;
1020.6000;0.5234;3.1908;
1020.9000;0.5193;3.1812;
1021.2000;0.5169;3.1812;
1021.5000;0.5169;3.1788;
1021.8000;0.5136;3.1644;
1022.1000;0.5218;3.1836;
1022.4000;0.5250;3.1836;
1022.7000;0.5234;3.1764;
1023.0000;0.5185;3.1668;
1023.3000;0.5193;3.1764;
1023.6000;0.5201;3.1764;
1023.9000;0.5218;3.1764;
1024.2000;0.5210;3.1692;
1024.5000;0.5201;3.1716;
1024.8000;0.5201;3.1716;
1025.1000;0.5218;3.1788;
1025.4000;0.5242;3.1836;
1025.7000;0.5210;3.1812;
1026.0000;0.5201;3.1788;
1026.3000;0.5177;3.1668;
1026.6000;0.5226;3.1764;
1026.9000;0.5201;3.1740;
1027.2000;0.5185;3.1668;
1027.5000;0.5193;3.1740;
1027.8000;0.5201;3.1692;
1028.1000;0.5210;3.1668;
1028.4000;0.5210;3.1644;
1028.7000;0.5169;3.1500;
1029.0000;0.5210;3.1644;
1029.3000;0.5185;3.1596;
1029.6000;0.5226;3.1668;
1029.9000;0.5226;3.1692;
1030.2000;0.5161;3.1524;
1030.5000;0.5218;3.1740;
1030.8000;0.5201;3.1692;
1031.1000;0.5201;3.1788;
1031.4000;0.5210;3.1812;
1031.7000;0.5193;3.1860;
1032.0000;0.5193;3.1836;
1032.3000;0.5234;3.1908;
1032.6000;0.5201;3.1788;
1032.9000;0.5234;3.1812;
1033.2000;0.5226;3.1932;
1033.5000;0.5201;3.1812;
1033.8000;0.5201;3.1740;
1034.1000;0.5185;3.1716;
1034.4000;0.5234;3.1788;
1034.7000;0.5201;3.1764;
1035.0000;0.5193;3.1764;
1035.3000;0.5088;3.1476;
1035.6000;0.5193;3.1716;
1035.9000;0.5177;3.1740;
1036.2000;0.5128;3.1716;
1036.5000;0.5201;3.1884;
1036.8000;0.5169;3.1836;
1037.1000;0.5201;3.1860;
1037.4000;0.5201;3.1836;
1037.7000;0.5193;3.1980;
1038.0000;0.5201;3.2052;
1038.3000;0.5307;3.2268;
1038.6000;0.5210;3.1956;
1038.9000;0.5201;3.1836;
1039.2000;0.5193;3.1836;
1039.5000;0.5201;3.1836;
1039.8000;0.5201;3.1836;
1040.1000;0.5218;3.1908;
1040.4000;0.5193;3.1860;
1040.7000;0.5210;3.1860;
1041.0000;0.5161;3.1836;
1041.3000;0.5185;3.1812;
1041.6000;0.5177;3.1812;
1041.9000;0.5144;3.1692;
1042.2000;0.5193;3.1812;
1042.5000;0.5144;3.1692;
1042.8000;0.5185;3.1740;
1043.1000;0.5210;3.1860;
1043.4000;0.5218;3.1980;
1043.7000;0.5210;3.1956;
1044.0000;0.5291;3.2148;
1044.3000;0.5185;3.1860;
1044.6000;0.5201;3.1956;
1044.9000;0.5201;3.1980;
1045.2000;0.5201;3.1932;
1045.5000;0.5193;3.1932;
1045.8000;0.5193;3.2004;
1046.1000;0.5193;3.1980;
1046.4000;0.5193;3.1980;
1046.7000;0.5185;3.1956;
1047.0000;0.5201;3.1956;
1047.3000;0.5193;3.1884;
1047.6000;0.5201;3.1836;
1047.9000;0.5210;3.1836;
1048.2000;0.5185;3.1788;
1048.5000;0.5185;3.1884;
1048.8000;0.5177;3.1764;
1049.1000;0.5258;3.2028;
1049.4000;0.5193;3.1908;
1049.7000;0.5210;3.1884;
1050.0000;0.5201;3.1860;
1050.3000;0.5201;3.1884;
1050.6000;0.5193;3.1932;
1050.9000;0.5210;3.1980;
1051.2000;0.5185;3.1980;
1051.5000;0.5185;3.1980;
1051.8000;0.5193;3.1956;
1052.1000;0.5193;3.1980;
1052.4000;0.5201;3.1812;
1052.7000;0.5201;3.1884;
1053.0000;0.5185;3.1908;
1053.3000;0.5185;3.1932;
1053.6000;0.5218;3.2004;
1053.9000;0.5201;3.1860;
1054.2000;0.5169;3.1812;
1054.5000;0.5185;3.1908;
1054.8000;0.5193;3.1932;
1055.1000;0.5185;3.1788;
1055.4000;0.5185;3.1836;
1055.7000;0.5185;3.1908;
1056.0000;0.5185;3.1812;
1056.3000;0.5201;3.1812;
1056.6000;0.5185;3.1716;
1056.9000;0.5201;3.1692;
1057.2000;0.5226;3.1836;
1057.5000;0.5218;3.1788;
1057.8000;0.5226;3.1836;
1058.1000;0.5299;3.2004;
1058.4000;0.5210;3.1836;
1058.7000;0.5201;3.1860;
1059.0000;0.5185;3.1788;
1059.3000;0.5250;3.1884;
1059.6000;0.5210;3.1788;
1059.9000;0.5234;3.1836;
1060.2000;0.5193;3.1764;
1060.5000;0.5185;3.1716;
1060.8000;0.5201;3.1764;
1061.1000;0.5193;3.1860;
1061.4000;0.5210;3.1812;
1061.7000;0.5193;3.1860;
1062.0000;0.5210;3.1836;
1062.3000;0.5201;3.1812;
1062.6000;0.5218;3.1812;
1062.9000;0.5210;3.1860;
1063.2000;0.5193;3.1860;
1063.5000;0.5218;3.1908;
1063.8000;0.5201;3.1812;
1064.1000;0.5193;3.1788;
1064.4000;0.5201;3.1836;
1064.7000;0.5193;3.1980;
1065.0000;0.5201;3.1956;
1065.3000;0.5193;3.1908;
1065.6000;0.5177;3.1908;
1065.9000;0.5201;3.2028;
1066.2000;0.5193;3.1932;
1066.5000;0.5218;3.2004;
1066.8000;0.5210;3.1956;
1067.1000;0.5210;3.1884;
1067.4000;0.5193;3.1908;
1067.7000;0.5120;3.1644;
1068.0000;0.5234;3.1836;
1068.3000;0.5185;3.1740;
1068.6000;0.5177;3.1788;
1068.9000;0.5144;3.1740;
1069.2000;0.5169;3.1836;
1069.5000;0.5177;3.1812;
1069.8000;0.5161;3.1764;
1070.1000;0.5185;3.1740;
1070.4000;0.5185;3.1668;
1070.7000;0.5185;3.1692;
1071.0000;0.5177;3.1692;
1071.3000;0.5201;3.1668;
1071.6000;0.5201;3.1596;
1071.9000;0.5242;3.1788;
1072.2000;0.5193;3.1764;
1072.5000;0.5185;3.1716;
1072.8000;0.5210;3.1716;
1073.1000;0.5177;3.1668;
1073.4000;0.5185;3.1644;
1073.7000;0.5218;3.1716;
1074.0000;0.5193;3.1716;
1074.3000;0.5210;3.1788;
1074.6000;0.5144;3.1572;
1074.9000;0.5193;3.1740;
1075.2000;0.5210;3.1812;
1075.5000;0.5161;3.1644;
1075.8000;0.5201;3.1788;
1076.1000;0.5193;3.1860;
1076.4000;0.5136;3.1644;
1076.7000;0.5177;3.1668;
1077.0000;0.5177;3.1644;
1077.3000;0.5193;3.1668;
1077.6000;0.5185;3.1644;
1077.9000;0.5210;3.1836;
1078.2000;0.5218;3.1932;
1078.5000;0.5201;3.1764;
1078.8000;0.5210;3.1764;
1079.1000;0.5226;3.1836;
1079.4000;0.5193;3.1812;
1079.7000;0.5201;3.1788;
1080.0000;0.5210;3.1836;
1080.3000;0.5210;3.1908;
1080.6000;0.5185;3.1836;
1080.9000;0.5193;3.1860;
1081.2000;0.5185;3.1836;
1081.5000;0.5185;3.1812;
1081.8000;0.5169;3.1716;
1082.1000;0.5185;3.1716;
1082.4000;0.5201;3.1812;
1082.7000;0.5210;3.1764;
1083.0000;0.5185;3.1812;
1083.3000;0.5193;3.1740;
1083.6000;0.5185;3.1716;
1083.9000;0.5210;3.1716;
1084.2000;0.5169;3.1644;
1084.5000;0.5193;3.1740;
1084.8000;0.5210;3.1812;
1085.1000;0.5193;3.1860;
1085.4000;0.5193;3.1836;
1085.7000;0.5193;3.1788;
1086.0000;0.5177;3.1740;
1086.3000;0.5169;3.1620;
1086.6000;0.5169;3.1644;
1086.9000;0.5193;3.1716;
1087.2000;0.5177;3.1764;
1087.5000;0.5169;3.1740;
1087.8000;0.5201;3.1740;
1088.1000;0.5185;3.1716;
1088.4000;0.5210;3.1716;
1088.7000;0.5177;3.1644;
1089.0000;0.5193;3.1740;
1089.3000;0.5185;3.1788;
1089.6000;0.5185;3.1836;
1089.9000;0.5185;3.1860;
1090.2000;0.5201;3.1788;
1090.5000;0.5210;3.1788;
1090.8000;0.5193;3.1764;
1091.1000;0.5193;3.1884;
1091.4000;0.5201;3.1884;
1091.7000;0.5210;3.1932;
1092.0000;0.5193;3.1908;
1092.3000;0.5193;3.1884;
1092.6000;0.5193;3.1908;
1092.9000;0.5201;3.1884;
1093.2000;0.5210;3.1860;
1093.5000;0.5201;3.1860;
1093.8000;0.5193;3.1860;
1094.1000;0.5201;3.1812;
1094.4000;0.5193;3.1668;
1094.7000;0.5185;3.1620;
1095.0000;0.5185;3.1620;
1095.3000;0.5218;3.1716;
1095.6000;0.5177;3.1740;
1095.9000;0.5120;3.1620;
1096.2000;0.5185;3.1836;
1096.5000;0.5169;3.1836;
1096.8000;0.5201;3.2004;
1097.1000;0.5210;3.2004;
1097.4000;0.5201;3.1812;
1097.7000;0.5201;3.1812;
1098.0000;0.5112;3.1620;
1098.3000;0.5201;3.1764;
1098.6000;0.5185;3.1740;
1098.9000;0.5201;3.1764;
1099.2000;0.5218;3.1740;
1099.5000;0.5112;3.1524;
1099.8000;0.5201;3.1692;
1100.1000;0.5185;3.1692;
1100.4000;0.5193;3.1716;
1100.7000;0.5210;3.1884;
1101.0000;0.5193;3.1932;
1101.3000;0.5185;3.1884;
1101.6000;0.5218;3.2004;
1101.9000;0.5136;3.1788;
1102.2000;0.5218;3.1956;
1102.5000;0.5177;3.1908;
1102.8000;0.5185;3.1860;
1103.1000;0.5185;3.1812;
1103.4000;0.5185;3.1812;
1103.7000;0.5201;3.1860;
1104.0000;0.5185;3.1836;
1104.3000;0.5226;3.1860;
1104.6000;0.5185;3.1860;
1104.9000;0.5185;3.1956;
1105.2000;0.5185;3.1932;
1105.5000;0.5161;3.1860;
1105.8000;0.5193;3.1908;
1106.1000;0.5185;3.1764;
1106.4000;0.5193;3.1740;
1106.7000;0.5185;3.1716;
1107.0000;0.5210;3.1812;
1107.3000;0.5185;3.1740;
1107.6000;0.5185;3.1740;
1107.9000;0.5210;3.1764;
1108.2000;0.5193;3.1836;
1108.5000;0.5210;3.1836;
1108.8000;0.5169;3.1668;
1109.1000;0.5210;3.1812;
1109.4000;0.5218;3.1884;
1109.7000;0.5193;3.1836;
1110.0000;0.5177;3.1884;
1110.3000;0.5185;3.1932;
1110.6000;0.5185;3.1932;
1110.9000;0.5169;3.1956;
1111.2000;0.5169;3.1980;
1111.5000;0.5193;3.1956;
1111.8000;0.5193;3.1812;
1112.1000;0.5185;3.1812;
1112.4000;0.5177;3.1812;
1112.7000;0.5177;3.1764;
1113.0000;0.5193;3.1764;
1113.3000;0.5210;3.1836;
1113.6000;0.5185;3.1812;
1113.9000;0.5177;3.1764;
1114.2000;0.5193;3.1932;
1114.5000;0.5226;3.1980;
1114.8000;0.5185;3.1884;
1115.1000;0.5210;3.1932;
1115.4000;0.5128;3.1668;
1115.7000;0.5169;3.1620;
1116.0000;0.5128;3.1548;
1116.3000;0.5169;3.1620;
1116.6000;0.5169;3.1620;
1116.9000;0.5185;3.1692;
1117.2000;0.5185;3.1740;
1117.5000;0.5193;3.1764;
1117.8000;0.5185;3.1788;
1118.1000;0.5210;3.1860;
1118.4000;0.5193;3.1932;
1118.7000;0.5193;3.1932;
1119.0000;0.5177;3.1836;
1119.3000;0.5185;3.1836;
1119.6000;0.5193;3.1908;
1119.9000;0.5234;3.1908;
1120.2000;0.5185;3.1788;
1120.5000;0.5169;3.1740;
1120.8000;0.5193;3.1764;
1121.1000;0.5169;3.1788;
1121.4000;0.5177;3.1836;
1121.7000;0.5185;3.1884;
1122.0000;0.5161;3.1884;
1122.3000;0.5185;3.1908;
1122.6000;0.5185;3.1884;
1122.9000;0.5185;3.1836;
1123.2000;0.5210;3.1908;
1123.5000;0.5185;3.1932;
1123.8000;0.5185;3.1956;
1124.1000;0.5185;3.1836;
1124.4000;0.5185;3.1788;
1124.7000;0.5210;3.1836;
1125.0000;0.5169;3.1716;
1125.3000;0.5136;3.1620;
1125.6000;0.5161;3.1644;
1125.9000;0.5177;3.1692;
1126.2000;0.5177;3.1716;
1126.5000;0.5169;3.1644;
1126.8000;0.5193;3.1740;
1127.1000;0.5169;3.1764;
1127.4000;0.5210;3.1860;
1127.7000;0.5185;3.1812;
1128.0000;0.5201;3.1836;
1128.3000;0.5169;3.1716;
1128.6000;0.5201;3.1860;
1128.9000;0.5193;3.1884;
1129.2000;0.5193;3.1764;
1129.5000;0.5193;3.1740;
1129.8000;0.5201;3.1788;
1130.1000;0.5201;3.1716;
1130.4000;0.5193;3.1716;
1130.7000;0.5201;3.1860;
1131.0000;0.5201;3.1884;
1131.3000;0.5153;3.1812;
1131.6000;0.5193;3.1812;
1131.9000;0.5210;3.1812;
1132.2000;0.5185;3.1788;
1132.5000;0.5177;3.1764;
1132.8000;0.5169;3.1788;
1133.1000;0.5177;3.1884;
1133.4000;0.5193;3.1884;
1133.7000;0.5177;3.1860;
1134.0000;0.5161;3.1740;
1134.3000;0.5201;3.1860;
1134.6000;0.5169;3.1812;
1134.9000;0.5169;3.1788;
1135.2000;0.5201;3.1788;
1135.5000;0.5169;3.1716;
1135.8000;0.5193;3.1812;
1136.1000;0.5193;3.1836;
1136.4000;0.5169;3.1788;
1136.7000;0.5201;3.1860;
1137.0000;0.5177;3.1788;
1137.3000;0.5218;3.1884;
1137.6000;0.5185;3.1716;
1137.9000;0.5185;3.1788;
1138.2000;0.5185;3.1836;
1138.5000;0.5218;3.1908;
1138.8000;0.5185;3.1812;
1139.1000;0.5210;3.1932;
1139.4000;0.5136;3.1788;
1139.7000;0.5210;3.1956;
1140.0000;0.5136;3.1860;
1140.3000;0.5185;3.1956;
1140.6000;0.5185;3.2004;
1140.9000;0.5185;3.1932;
1141.2000;0.5193;3.1836;
1141.5000;0.5169;3.1812;
1141.8000;0.5177;3.1812;
1142.1000;0.5185;3.1836;
1142.4000;0.5193;3.1812;
1142.7000;0.5185;3.1740;
1143.0000;0.5185;3.1836;
1143.3000;0.5185;3.1884;
1143.6000;0.5177;3.1860;
1143.9000;0.5193;3.1860;
1144.2000;0.5201;3.1908;
1144.5000;0.5193;3.1932;
1144.8000;0.5185;3.1932;
1145.1000;0.5185;3.2004;
1145.4000;0.5161;3.1980;
1145.7000;0.5161;3.2028;
1146.0000;0.5185;3.2076;
1146.3000;0.5185;3.2028;
1146.6000;0.5177;3.1908;
1146.9000;0.5185;3.1908;
1147.2000;0.5242;3.2052;
1147.5000;0.5210;3.1908;
1147.8000;0.5185;3.1860;
1148.1000;0.5193;3.1956;
1148.4000;0.5185;3.1932;
1148.7000;0.5185;3.1908;
1149.0000;0.5201;3.1788;
1149.3000;0.5218;3.1764;
1149.6000;0.5177;3.1644;
1149.9000;0.5210;3.1740;
1150.2000;0.5193;3.1716;
1150.5000;0.5210;3.1788;
1150.8000;0.5193;3.1812;
1151.1000;0.5193;3.1788;
1151.4000;0.5169;3.1692;
1151.7000;0.5193;3.1716;
1152.0000;0.5185;3.1764;
1152.3000;0.5218;3.1836;
1152.6000;0.5210;3.1860;
1152.9000;0.5193;3.1812;
1153.2000;0.5201;3.1812;
1153.5000;0.5144;3.1788;
1153.8000;0.5193;3.1956;
1154.1000;0.5218;3.2028;
1154.4000;0.5201;3.1956;
1154.7000;0.5193;3.1980;
1155.0000;0.5193;3.1980;
1155.3000;0.5258;3.2124;
1155.6000;0.5210;3.2004;
1155.9000;0.5177;3.1980;
1156.2000;0.5169;3.1860;
1156.5000;0.5169;3.1884;
1156.8000;0.5185;3.1884;
1157.1000;0.5169;3.1836;
1157.4000;0.5185;3.1836;
1157.7000;0.5201;3.1908;
1158.0000;0.5185;3.1932;
1158.3000;0.5177;3.1932;
1158.6000;0.5193;3.1980;
1158.9000;0.5185;3.2004;
1159.2000;0.5226;3.2076;
1159.5000;0.5128;3.1812;
1159.8000;0.5193;3.1956;
1160.1000;0.5283;3.2220;
1160.4000;0.5210;3.1956;
1160.7000;0.5177;3.1908;
1161.0000;0.5193;3.1908;
1161.3000;0.5185;3.1860;
1161.6000;0.5185;3.1836;
1161.9000;0.5177;3.1836;
1162.2000;0.5169;3.1812;
1162.5000;0.5120;3.1740;
1162.8000;0.5185;3.1812;
1163.1000;0.5153;3.1716;
1163.4000;0.5169;3.1812;
1163.7000;0.5185;3.1788;
1164.0000;0.5185;3.1764;
1164.3000;0.5201;3.1764;
1164.6000;0.5201;3.1740;
1164.9000;0.5201;3.1716;
1165.2000;0.5201;3.1740;
1165.5000;0.5185;3.1764;
1165.8000;0.5079;3.1332;
1166.1000;0.5177;3.1668;
1166.4000;0.5185;3.1740;
1166.7000;0.5177;3.1716;
1167.0000;0.5177;3.1764;
1167.3000;0.5185;3.1812;
1167.6000;0.5201;3.1836;
1167.9000;0.5161;3.1644;
1168.2000;0.5193;3.1788;
1168.5000;0.5258;3.2052;
1168.8000;0.5193;3.1836;
1169.1000;0.5193;3.1860;
1169.4000;0.5193;3.1812;
1169.7000;0.5185;3.1860;
1170.0000;0.5177;3.1860;
1170.3000;0.5185;3.1932;
1170.6000;0.5193;3.1908;
1170.9000;0.5193;3.1932;
1171.2000;0.5201;3.1884;
1171.5000;0.5185;3.1860;
1171.8000;0.5193;3.1956;
1172.1000;0.5161;3.1812;
1172.4000;0.5169;3.1884;
1172.7000;0.5096;3.1692;
1173.0000;0.5169;3.1956;
1173.3000;0.5169;3.2004;
1173.6000;0.5177;3.1980;
1173.9000;0.5185;3.2004;
1174.2000;0.5144;3.1932;
1174.5000;0.5177;3.1980;
1174.8000;0.5169;3.2052;
1175.1000;0.5185;3.2100;
1175.4000;0.5201;3.2028;
1175.7000;0.5177;3.1812;
1176.0000;0.5169;3.1812;
1176.3000;0.5250;3.1956;
1176.6000;0.5185;3.1788;
1176.9000;0.5096;3.1476;
1177.2000;0.5177;3.1644;
1177.5000;0.5169;3.1692;
1177.8000;0.5210;3.1644;
1178.1000;0.5201;3.1644;
1178.4000;0.5120;3.1524;
1178.7000;0.5177;3.1620;
1179.0000;0.5210;3.1716;
1179.3000;0.5201;3.1692;
1179.6000;0.5185;3.1764;
1179.9000;0.5177;3.1812;
1180.2000;0.5177;3.1836;
1180.5000;0.5185;3.1764;
1180.8000;0.5201;3.1860;
1181.1000;0.5153;3.1836;
1181.4000;0.5185;3.1932;
1181.7000;0.5210;3.1884;
1182.0000;0.5153;3.1716;
1182.3000;0.5169;3.1812;
1182.6000;0.5193;3.1956;
1182.9000;0.5185;3.1932;
1183.2000;0.5193;3.1884;
1183.5000;0.5185;3.1788;
1183.8000;0.5169;3.1740;
1184.1000;0.5218;3.1860;
1184.4000;0.5193;3.1740;
1184.7000;0.5128;3.1500;
1185.0000;0.5161;3.1668;
1185.3000;0.5169;3.1740;
1185.6000;0.5169;3.1860;
1185.9000;0.5185;3.1836;
1186.2000;0.5193;3.1764;
1186.5000;0.5185;3.1716;
1186.8000;0.5177;3.1764;
1187.1000;0.5185;3.1692;
1187.4000;0.5169;3.1668;
1187.7000;0.5250;3.1860;
1188.0000;0.5218;3.1740;
1188.3000;0.5185;3.1716;
1188.6000;0.5193;3.1788;
1188.9000;0.5193;3.1836;
1189.2000;0.5169;3.1956;
1189.5000;0.5218;3.2052;
1189.8000;0.5169;3.1932;
1190.1000;0.5169;3.1908;
1190.4000;0.5177;3.1836;
1190.7000;0.5177;3.1884;
1191.0000;0.5210;3.1908;
1191.3000;0.5177;3.1812;
1191.6000;0.5112;3.1620;
1191.9000;0.5161;3.1740;
1192.2000;0.5185;3.1788;
1192.5000;0.5234;3.1884;
1192.8000;0.5144;3.1692;
1193.1000;0.5201;3.1788;
1193.4000;0.5128;3.1692;
1193.7000;0.5185;3.1812;
1194.0000;0.5193;3.1860;
1194.3000;0.5112;3.1668;
1194.6000;0.5169;3.1740;
1194.9000;0.5153;3.1764;
1195.2000;0.5234;3.1932;
1195.5000;0.5201;3.1836;
1195.8000;0.5185;3.1932;
1196.1000;0.5136;3.1716;
1196.4000;0.5185;3.1860;
1196.7000;0.5201;3.1908;
1197.0000;0.5185;3.1836;
1197.3000;0.5201;3.1788;
1197.6000;0.5193;3.1740;
1197.9000;0.5177;3.1740;
1198.2000;0.5177;3.1716;
1198.5000;0.5201;3.1788;
1198.8000;0.5161;3.1812;
1199.1000;0.5193;3.1860;
1199.4000;0.5161;3.1740;
1199.7000;0.5193;3.1788;
1200.0000;0.5185;3.1764;
1200.3000;0.5169;3.1668;
1200.6000;0.5185;3.1764;
1200.9000;0.5177;3.1812;
1201.2000;0.5169;3.1788;
1201.5000;0.5185;3.1860;
1201.8000;0.5177;3.1884;
1202.1000;0.5193;3.1908;
1202.4000;0.5185;3.1788;
1202.7000;0.5185;3.1692;
1203.0000;0.5161;3.1572;
1203.3000;0.5161;3.1548;
1203.6000;0.5161;3.1524;
1203.9000;0.5177;3.1500;
1204.2000;0.5193;3.1596;
1204.5000;0.5185;3.1596;
1204.8000;0.5218;3.1644;
1205.1000;0.5169;3.1572;
1205.4000;0.5177;3.1620;
1205.7000;0.5161;3.1692;
1206.0000;0.5177;3.1812;
1206.3000;0.5177;3.1860;
1206.6000;0.5193;3.1932;
1206.9000;0.5161;3.1788;
1207.2000;0.5185;3.1836;
1207.5000;0.5275;3.2124;
1207.8000;0.5177;3.1812;
1208.1000;0.5185;3.1764;
1208.4000;0.5161;3.1740;
1208.7000;0.5169;3.1716;
1209.0000;0.5210;3.1740;
1209.3000;0.5177;3.1668;
1209.6000;0.5201;3.1692;
1209.9000;0.5201;3.1764;
1210.2000;0.5177;3.1716;
1210.5000;0.5226;3.1860;
1210.8000;0.5153;3.1716;
1211.1000;0.5201;3.1836;
1211.4000;0.5177;3.1716;
1211.7000;0.5177;3.1788;
1212.0000;0.5193;3.1788;
1212.3000;0.5201;3.1716;
1212.6000;0.5193;3.1620;
1212.9000;0.5193;3.1644;
1213.2000;0.5234;3.1716;
1213.5000;0.5193;3.1548;
1213.8000;0.5177;3.1476;
1214.1000;0.5169;3.1476;
1214.4000;0.5177;3.1572;
1214.7000;0.5177;3.1644;
1215.0000;0.5185;3.1572;
1215.3000;0.5177;3.1548;
1215.6000;0.5177;3.1524;
1215.9000;0.5185;3.1620;
1216.2000;0.5177;3.1692;
1216.5000;0.5153;3.1524;
1216.8000;0.5169;3.1572;
1217.1000;0.5169;3.1620;
1217.4000;0.5153;3.1596;
1217.7000;0.5210;3.1788;
1218.0000;0.5193;3.1788;
1218.3000;0.5218;3.1788;
1218.6000;0.5169;3.1764;
1218.9000;0.5161;3.1740;
1219.2000;0.5161;3.1740;
1219.5000;0.5169;3.1788;
1219.8000;0.5088;3.1620;
1220.1000;0.5177;3.1860;
1220.4000;0.5185;3.1788;
1220.7000;0.5177;3.1788;
1221.0000;0.5177;3.1836;
1221.3000;0.5177;3.1932;
1221.6000;0.5169;3.1980;
1221.9000;0.5161;3.1932;
1222.2000;0.5120;3.1812;
1222.5000;0.5185;3.1932;
1222.8000;0.5185;3.1956;
1223.1000;0.5161;3.1812;
1223.4000;0.5177;3.1836;
1223.7000;0.5185;3.1764;
1224.0000;0.5185;3.1788;
1224.3000;0.5201;3.1812;
1224.6000;0.5177;3.1812;
1224.9000;0.5210;3.1812;
1225.2000;0.5193;3.1716;
1225.5000;0.5185;3.1740;
1225.8000;0.5177;3.1764;
1226.1000;0.5177;3.1788;
1226.4000;0.5193;3.1812;
1226.7000;0.5161;3.1788;
1227.0000;0.5169;3.1836;
1227.3000;0.5193;3.1908;
1227.6000;0.5177;3.1788;
1227.9000;0.5226;3.1812;
1228.2000;0.5161;3.1596;
1228.5000;0.5169;3.1644;
1228.8000;0.5177;3.1692;
1229.1000;0.5169;3.1764;
1229.4000;0.5169;3.1812;
1229.7000;0.5185;3.1836;
1230.0000;0.5177;3.1836;
1230.3000;0.5185;3.1764;
1230.6000;0.5177;3.1716;
1230.9000;0.5177;3.1788;
1231.2000;0.5161;3.1740;
1231.5000;0.5169;3.1716;
1231.8000;0.5177;3.1692;
1232.1000;0.5218;3.1836;
1232.4000;0.5136;3.1740;
1232.7000;0.5193;3.1932;
1233.0000;0.5226;3.2076;
1233.3000;0.5185;3.1980;
1233.6000;0.5201;3.2028;
1233.9000;0.5185;3.1980;
1234.2000;0.5201;3.2028;
1234.5000;0.5177;3.1980;
1234.8000;0.5185;3.1980;
1235.1000;0.5185;3.1980;
1235.4000;0.5201;3.1908;
1235.7000;0.5161;3.1908;
1236.0000;0.5201;3.2028;
1236.3000;0.5201;3.1980;
1236.6000;0.5201;3.1884;
1236.9000;0.5169;3.1836;
1237.2000;0.5144;3.1764;
1237.5000;0.5161;3.1788;
1237.8000;0.5185;3.1716;
1238.1000;0.5177;3.1764;
1238.4000;0.5210;3.1836;
1238.7000;0.5193;3.1740;
1239.0000;0.5185;3.1764;
1239.3000;0.5185;3.1788;
1239.6000;0.5169;3.1812;
1239.9000;0.5177;3.1908;
1240.2000;0.5177;3.1884;
1240.5000;0.5193;3.1908;
1240.8000;0.5193;3.1908;
1241.1000;0.5177;3.1884;
1241.4000;0.5185;3.1932;
1241.7000;0.5161;3.1884;
1242.0000;0.5169;3.1932;
1242.3000;0.5169;3.1932;
1242.6000;0.5169;3.1836;
1242.9000;0.5177;3.1908;
1243.2000;0.5193;3.1956;
1243.5000;0.5169;3.1860;
1243.8000;0.5177;3.1932;
1244.1000;0.5177;3.1956;
1244.4000;0.5185;3.1908;
1244.7000;0.5169;3.1884;
1245.0000;0.5169;3.1956;
1245.3000;0.5185;3.1956;
1245.6000;0.5177;3.1932;
1245.9000;0.5169;3.1884;
1246.2000;0.5169;3.1908;
1246.5000;0.5177;3.1932;
1246.8000;0.5185;3.1908;
1247.1000;0.5169;3.1764;
1247.4000;0.5169;3.1764;
1247.7000;0.5177;3.1908;
1248.0000;0.5201;3.1956;
1248.3000;0.5177;3.1932;
1248.6000;0.5185;3.1860;
1248.9000;0.5210;3.1860;
1249.2000;0.5177;3.1860;
1249.5000;0.5161;3.1716;
1249.8000;0.5169;3.1692;
1250.1000;0.5153;3.1644;
1250.4000;0.5201;3.1692;
1250.7000;0.5193;3.1668;
1251.0000;0.5201;3.1692;
1251.3000;0.5193;3.1668;
1251.6000;0.5193;3.1692;
1251.9000;0.5144;3.1644;
1252.2000;0.5177;3.1692;
1252.5000;0.5136;3.1620;
1252.8000;0.5210;3.1908;
1253.1000;0.5177;3.1764;
1253.4000;0.5161;3.1812;
1253.7000;0.5169;3.1932;
1254.0000;0.5144;3.1908;
1254.3000;0.5193;3.1956;
1254.6000;0.5177;3.1908;
1254.9000;0.5169;3.1860;
1255.2000;0.5185;3.1884;
1255.5000;0.5169;3.1908;
1255.8000;0.5169;3.1908;
1256.1000;0.5136;3.1836;
1256.4000;0.5185;3.1908;
1256.7000;0.5169;3.1932;
1257.0000;0.5307;3.2244;
1257.3000;0.5161;3.1884;
1257.6000;0.5193;3.1812;
1257.9000;0.5201;3.1884;
1258.2000;0.5169;3.1812;
1258.5000;0.5226;3.1980;
1258.8000;0.5177;3.1908;
1259.1000;0.5177;3.1908;
1259.4000;0.5210;3.2028;
1259.7000;0.5185;3.1980;
1260.0000;0.5193;3.1932;
1260.3000;0.5177;3.1956;
1260.6000;0.5185;3.2028;
1260.9000;0.5169;3.1980;
1261.2000;0.5144;3.1980;
1261.5000;0.5185;3.2028;
1261.8000;0.5169;3.2004;
1262.1000;0.5169;3.1980;
1262.4000;0.5177;3.2004;
1262.7000;0.5144;3.1980;
1263.0000;0.5185;3.1956;
1263.3000;0.5210;3.1980;
1263.6000;0.5177;3.1836;
1263.9000;0.5177;3.1884;
1264.2000;0.5210;3.1980;
1264.5000;0.5169;3.2004;
1264.8000;0.5177;3.1932;
1265.1000;0.5210;3.2028;
1265.4000;0.5177;3.1956;
1265.7000;0.5169;3.1932;
1266.0000;0.5161;3.1932;
1266.3000;0.5153;3.1908;
1266.6000;0.5177;3.1908;
1266.9000;0.5185;3.1908;
1267.2000;0.5177;3.1836;
1267.5000;0.5169;3.1668;
1267.8000;0.5185;3.1716;
1268.1000;0.5185;3.1764;
1268.4000;0.5193;3.1836;
1268.7000;0.5201;3.1836;
1269.0000;0.5169;3.1788;
1269.3000;0.5177;3.1836;
1269.6000;0.5177;3.1764;
1269.9000;0.5177;3.1788;
1270.2000;0.5088;3.1596;
1270.5000;0.5185;3.1836;
1270.8000;0.5177;3.1836;
1271.1000;0.5185;3.1956;
1271.4000;0.5136;3.1860;
1271.7000;0.5226;3.2196;
1272.0000;0.5177;3.2100;
1272.3000;0.5169;3.2004;
1272.6000;0.5193;3.1980;
1272.9000;0.5177;3.1908;
1273.2000;0.5185;3.2004;
1273.5000;0.5185;3.1956;
1273.8000;0.5177;3.2004;
1274.1000;0.5185;3.2052;
1274.4000;0.5161;3.1908;
1274.7000;0.5185;3.2004;
1275.0000;0.5177;3.2004;
1275.3000;0.5161;3.1956;
1275.6000;0.5185;3.2076;
1275.9000;0.5169;3.2052;
1276.2000;0.5169;3.2076;
1276.5000;0.5177;3.2004;
1276.8000;0.5144;3.1860;
1277.1000;0.5185;3.1932;
1277.4000;0.5169;3.1908;
1277.7000;0.5120;3.1836;
1278.0000;0.5185;3.2100;
1278.3000;0.5177;3.2076;
1278.6000;0.5185;3.1932;
1278.9000;0.5185;3.1932;
1279.2000;0.5161;3.1812;
1279.5000;0.5210;3.1980;
1279.8000;0.5193;3.1932;
1280.1000;0.5104;3.1740;
1280.4000;0.5169;3.1956;
1280.7000;0.5161;3.1956;
1281.0000;0.5144;3.1860;
1281.3000;0.5177;3.1908;
1281.6000;0.5136;3.1836;
1281.9000;0.5169;3.1908;
1282.2000;0.5193;3.1908;
1282.5000;0.5193;3.1884;
1282.8000;0.5218;3.1836;
1283.1000;0.5193;3.1788;
1283.4000;0.5193;3.1716;
1283.7000;0.5161;3.1644;
1284.0000;0.5169;3.1692;
1284.3000;0.5201;3.1812;
1284.6000;0.5193;3.1836;
1284.9000;0.5201;3.1860;
1285.2000;0.5153;3.1764;
1285.5000;0.5177;3.1836;
1285.8000;0.5177;3.1908;
1286.1000;0.5185;3.1860;
1286.4000;0.5185;3.1884;
1286.7000;0.5234;3.2100;
1287.0000;0.5185;3.2100;
1287.3000;0.5193;3.2148;
1287.6000;0.5185;3.2076;
1287.9000;0.5169;3.2100;
1288.2000;0.5169;3.2148;
1288.5000;0.5169;3.2148;
1288.8000;0.5177;3.2148;
1289.1000;0.5177;3.2004;
1289.4000;0.5161;3.1932;
1289.7000;0.5161;3.2052;
1290.0000;0.5283;3.2268;
1290.3000;0.5136;3.1980;
1290.6000;0.5120;3.1860;
1290.9000;0.5161;3.1956;
1291.2000;0.5112;3.1716;
1291.5000;0.5185;3.1908;
1291.8000;0.5177;3.1860;
1292.1000;0.5177;3.1884;
1292.4000;0.5128;3.1764;
1292.7000;0.5185;3.1884;
1293.0000;0.5169;3.1836;
1293.3000;0.5185;3.1836;
1293.6000;0.5169;3.1812;
1293.9000;0.5169;3.1788;
1294.2000;0.5112;3.1692;
1294.5000;0.5169;3.1836;
1294.8000;0.5185;3.1932;
1295.1000;0.5177;3.1812;
1295.4000;0.5185;3.1692;
1295.7000;0.5185;3.1644;
1296.0000;0.5177;3.1740;
1296.3000;0.5177;3.1740;
1296.6000;0.5161;3.1812;
1296.9000;0.5177;3.1932;
1297.2000;0.5177;3.1884;
1297.5000;0.5185;3.1860;
1297.8000;0.5185;3.1884;
1298.1000;0.5185;3.1908;
1298.4000;0.5177;3.1884;
1298.7000;0.5242;3.2220;
1299.0000;0.5201;3.2100;
1299.3000;0.5161;3.2004;
1299.6000;0.5161;3.1980;
1299.9000;0.5112;3.1836;
1300.2000;0.5169;3.2004;
1300.5000;0.5153;3.1956;
1300.8000;0.5161;3.1980;
1301.1000;0.5169;3.2004;
1301.4000;0.5177;3.1932;
1301.7000;0.5161;3.1980;
1302.0000;0.5218;3.2124;
1302.3000;0.5169;3.2028;
1302.6000;0.5177;3.2028;
1302.9000;0.5169;3.2028;
1303.2000;0.5161;3.2004;
1303.5000;0.5071;3.1692;
1303.8000;0.5177;3.1932;
1304.1000;0.5210;3.1932;
1304.4000;0.5177;3.1980;
1304.7000;0.5283;3.2244;
1305.0000;0.5193;3.2052;
1305.3000;0.5177;3.2052;
1305.6000;0.5177;3.2004;
1305.9000;0.5169;3.2052;
1306.2000;0.5169;3.1932;
1306.5000;0.5177;3.1908;
1306.8000;0.5185;3.1836;
1307.1000;0.5185;3.1908;
1307.4000;0.5185;3.1932;
1307.7000;0.5169;3.1932;
1308.0000;0.5177;3.2028;
1308.3000;0.5161;3.1932;
1308.6000;0.5169;3.1980;
1308.9000;0.5185;3.2076;
1309.2000;0.5144;3.2100;
1309.5000;0.5169;3.2172;
1309.8000;0.5169;3.2052;
1310.1000;0.5185;3.1956;
1310.4000;0.5185;3.1860;
1310.7000;0.5185;3.1860;
1311.0000;0.5169;3.1788;
1311.3000;0.5169;3.1860;
1311.6000;0.5177;3.1980;
1311.9000;0.5161;3.1932;
1312.2000;0.5185;3.1980;
1312.5000;0.5144;3.1980;
1312.8000;0.5169;3.1956;
1313.1000;0.5177;3.2004;
1313.4000;0.5185;3.2052;
1313.7000;0.5193;3.2148;
1314.0000;0.5193;3.2220;
1314.3000;0.5177;3.2172;
1314.6000;0.5193;3.2196;
1314.9000;0.5185;3.2076;
1315.2000;0.5193;3.2028;
1315.5000;0.5258;3.2148;
1315.8000;0.5169;3.1932;
1316.1000;0.5177;3.1980;
1316.4000;0.5169;3.1860;
1316.7000;0.5185;3.1932;
1317.0000;0.5169;3.1884;
1317.3000;0.5169;3.1884;
1317.6000;0.5096;3.1740;
1317.9000;0.5177;3.1932;
1318.2000;0.5210;3.2052;
1318.5000;0.5185;3.1956;
1318.8000;0.5193;3.1932;
1319.1000;0.5185;3.1956;
1319.4000;0.5177;3.1932;
1319.7000;0.5185;3.1980;
1320.0000;0.5177;3.1884;
1320.3000;0.5169;3.1884;
1320.6000;0.5177;3.1956;
1320.9000;0.5128;3.1788;
1321.2000;0.5210;3.1884;
1321.5000;0.5193;3.1908;
1321.8000;0.5218;3.1980;
1322.1000;0.5169;3.1932;
1322.4000;0.5161;3.1932;
1322.7000;0.5169;3.2028;
1323.0000;0.5185;3.2004;
1323.3000;0.5193;3.2052;
1323.6000;0.5193;3.1980;
1323.9000;0.5193;3.2004;
1324.2000;0.5177;3.2052;
1324.5000;0.5218;3.2148;
1324.8000;0.5185;3.2076;
1325.1000;0.5177;3.2076;
1325.4000;0.5185;3.2052;
1325.7000;0.5177;3.1980;
1326.0000;0.5169;3.2004;
1326.3000;0.5144;3.1860;
1326.6000;0.5177;3.1908;
1326.9000;0.5185;3.1932;
1327.2000;0.5226;3.1956;
1327.5000;0.5177;3.1788;
1327.8000;0.5193;3.1860;
1328.1000;0.5193;3.1836;
1328.4000;0.5177;3.1860;
1328.7000;0.5177;3.1884;
1329.0000;0.5201;3.2004;
1329.3000;0.5177;3.1884;
1329.6000;0.5193;3.1932;
1329.9000;0.5201;3.1788;
1330.2000;0.5177;3.1788;
1330.5000;0.5185;3.1812;
1330.8000;0.5193;3.1956;
1331.1000;0.5177;3.1980;
1331.4000;0.5185;3.2028;
1331.7000;0.5185;3.2148;
1332.0000;0.5210;3.2124;
1332.3000;0.5185;3.2076;
1332.6000;0.5161;3.2004;
1332.9000;0.5193;3.2100;
1333.2000;0.5226;3.2292;
1333.5000;0.5153;3.2076;
1333.8000;0.5193;3.2196;
1334.1000;0.5177;3.2100;
1334.4000;0.5161;3.2076;
1334.7000;0.5201;3.2076;
1335.0000;0.5136;3.1908;
1335.3000;0.5161;3.2004;
1335.6000;0.5177;3.2028;
1335.9000;0.5136;3.1932;
1336.2000;0.5177;3.2052;
1336.5000;0.5169;3.2052;
1336.8000;0.5177;3.2148;
1337.1000;0.5177;3.2076;
1337.4000;0.5161;3.2052;
1337.7000;0.5177;3.2004;
1338.0000;0.5185;3.2004;
1338.3000;0.5177;3.2028;
1338.6000;0.5169;3.1908;
1338.9000;0.5201;3.2028;
1339.2000;0.5201;3.2052;
1339.5000;0.5201;3.2052;
1339.8000;0.5177;3.1932;
1340.1000;0.5144;3.1836;
1340.4000;0.5153;3.1812;
1340.7000;0.5144;3.1932;
1341.0000;0.5169;3.1836;
1341.3000;0.5153;3.1884;
1341.6000;0.5161;3.1812;
1341.9000;0.5177;3.1836;
1342.2000;0.5177;3.1788;
1342.5000;0.5161;3.1788;
1342.8000;0.5169;3.1836;
1343.1000;0.5177;3.1932;
1343.4000;0.5169;3.1980;
1343.7000;0.5169;3.1980;
1344.0000;0.5169;3.2028;
1344.3000;0.5185;3.2028;
1344.6000;0.5177;3.1908;
1344.9000;0.5177;3.1884;
1345.2000;0.5169;3.1956;
1345.5000;0.5234;3.2076;
1345.8000;0.5193;3.1884;
1346.1000;0.5169;3.1812;
1346.4000;0.5210;3.1956;
1346.7000;0.5161;3.1884;
1347.0000;0.5161;3.1908;
1347.3000;0.5177;3.1884;
1347.6000;0.5153;3.1788;
1347.9000;0.5169;3.1740;
1348.2000;0.5169;3.1764;
1348.5000;0.5096;3.1524;
1348.8000;0.5153;3.1620;
1349.1000;0.5169;3.1572;
1349.4000;0.5185;3.1572;
1349.7000;0.5193;3.1524;
1350.0000;0.5177;3.1452;
1350.3000;0.5153;3.1452;
1350.6000;0.5177;3.1500;
1350.9000;0.5177;3.1548;
1351.2000;0.5185;3.1644;
1351.5000;0.5177;3.1596;
1351.8000;0.5177;3.1572;
1352.1000;0.5177;3.1500;
1352.4000;0.5185;3.1572;
1352.7000;0.5161;3.1716;
1353.0000;0.5169;3.1764;
1353.3000;0.5185;3.1812;
1353.6000;0.5210;3.1836;
1353.9000;0.5169;3.1740;
1354.2000;0.5193;3.1692;
1354.5000;0.5193;3.1740;
1354.8000;0.5169;3.1668;
1355.1000;0.5193;3.1740;
1355.4000;0.5177;3.1596;
1355.7000;0.5185;3.1668;
1356.0000;0.5193;3.1716;
1356.3000;0.5177;3.1740;
1356.6000;0.5177;3.1692;
1356.9000;0.5177;3.1740;
1357.2000;0.5185;3.1836;
1357.5000;0.5177;3.1908;
1357.8000;0.5169;3.1956;
1358.1000;0.5169;3.1956;
1358.4000;0.5169;3.1980;
1358.7000;0.5177;3.1956;
1359.0000;0.5136;3.1884;
1359.3000;0.5169;3.1932;
1359.6000;0.5153;3.1956;
1359.9000;0.5250;3.2076;
1360.2000;0.5144;3.1764;
1360.5000;0.5161;3.1836;
1360.8000;0.5169;3.1836;
1361.1000;0.5177;3.1884;
1361.4000;0.5201;3.1908;
1361.7000;0.5161;3.1836;
1362.0000;0.5169;3.1956;
1362.3000;0.5136;3.1836;
1362.6000;0.5177;3.1884;
1362.9000;0.5169;3.1908;
1363.2000;0.5169;3.1908;
1363.5000;0.5201;3.2052;
1363.8000;0.5177;3.1980;
1364.1000;0.5193;3.1980;
1364.4000;0.5226;3.2076;
1364.7000;0.5177;3.2028;
1365.0000;0.5210;3.2052;
1365.3000;0.5185;3.2028;
1365.6000;0.5161;3.1980;
1365.9000;0.5177;3.2028;
1366.2000;0.5185;3.2100;
1366.5000;0.5210;3.2196;
1366.8000;0.5161;3.2124;
1367.1000;0.5185;3.2124;
1367.4000;0.5161;3.2124;
1367.7000;0.5177;3.2124;
1368.0000;0.5169;3.2124;
1368.3000;0.5193;3.2052;
1368.6000;0.5275;3.2220;
1368.9000;0.5177;3.1956;
1369.2000;0.5144;3.1956;
1369.5000;0.5153;3.1884;
1369.8000;0.5185;3.1956;
1370.1000;0.5193;3.1884;
1370.4000;0.5169;3.1764;
1370.7000;0.5185;3.1692;
1371.0000;0.5258;3.1956;
1371.3000;0.5185;3.1692;
1371.6000;0.5177;3.1668;
1371.9000;0.5169;3.1692;
1372.2000;0.5169;3.1764;
1372.5000;0.5161;3.1716;
1372.8000;0.5169;3.1716;
1373.1000;0.5169;3.1668;
1373.4000;0.5169;3.1668;
1373.7000;0.5185;3.1644;
1374.0000;0.5185;3.1644;
1374.3000;0.5169;3.1548;
1374.6000;0.5169;3.1620;
1374.9000;0.5193;3.1716;
1375.2000;0.5210;3.1692;
1375.5000;0.5193;3.1596;
1375.8000;0.5177;3.1620;
1376.1000;0.5193;3.1716;
1376.4000;0.5169;3.1692;
1376.7000;0.5177;3.1572;
1377.0000;0.5177;3.1524;
1377.3000;0.5185;3.1572;
1377.6000;0.5193;3.1596;
1377.9000;0.5185;3.1548;
1378.2000;0.5177;3.1500;
1378.5000;0.5136;3.1452;
1378.8000;0.5193;3.1692;
1379.1000;0.5185;3.1716;
1379.4000;0.5177;3.1668;
1379.7000;0.5185;3.1740;
1380.0000;0.5161;3.1668;
1380.3000;0.5210;3.1812;
1380.6000;0.5169;3.1812;
1380.9000;0.5177;3.1788;
1381.2000;0.5218;3.2004;
1381.5000;0.5161;3.1884;
1381.8000;0.5144;3.1812;
1382.1000;0.5161;3.1788;
1382.4000;0.5193;3.1860;
1382.7000;0.5177;3.1836;
1383.0000;0.5161;3.1764;
1383.3000;0.5153;3.1716;
1383.6000;0.5153;3.1692;
1383.9000;0.5185;3.1812;
1384.2000;0.5218;3.1956;
1384.5000;0.5193;3.1908;
1384.8000;0.5193;3.1884;
1385.1000;0.5185;3.1980;
1385.4000;0.5177;3.1932;
1385.7000;0.5185;3.1908;
1386.0000;0.5185;3.1836;
1386.3000;0.5185;3.1788;
1386.6000;0.5136;3.1692;
1386.9000;0.5177;3.1788;
1387.2000;0.5169;3.1812;
1387.5000;0.5136;3.1764;
1387.8000;0.5169;3.1860;
1388.1000;0.5177;3.1884;
1388.4000;0.5161;3.1812;
1388.7000;0.5161;3.1836;
1389.0000;0.5193;3.1956;
1389.3000;0.5144;3.1884;
1389.6000;0.5169;3.1980;
1389.9000;0.5177;3.1932;
1390.2000;0.5201;3.1908;
1390.5000;0.5185;3.1956;
1390.8000;0.5185;3.2076;
1391.1000;0.5177;3.1980;
1391.4000;0.5177;3.1956;
1391.7000;0.5201;3.1884;
1392.0000;0.5177;3.1788;
1392.3000;0.5185;3.1740;
1392.6000;0.5210;3.1884;
1392.9000;0.5250;3.2076;
1393.2000;0.5193;3.2004;
1393.5000;0.5177;3.2004;
1393.8000;0.5250;3.2148;
1394.1000;0.5201;3.2004;
1394.4000;0.5193;3.1932;
1394.7000;0.5201;3.1956;
1395.0000;0.5193;3.1956;
1395.3000;0.5153;3.1884;
1395.6000;0.5169;3.1956;
1395.9000;0.5193;3.2052;
1396.2000;0.5120;3.1836;
1396.5000;0.5161;3.1932;
1396.8000;0.5177;3.2052;
1397.1000;0.5177;3.2004;
1397.4000;0.5161;3.2004;
1397.7000;0.5177;3.1980;
1398.0000;0.5210;3.2052;
1398.3000;0.5153;3.1788;
1398.6000;0.5210;3.1788;
1398.9000;0.5193;3.1764;
1399.2000;0.5193;3.1812;
1399.5000;0.5210;3.1788;
1399.8000;0.5096;3.1548;
