time/ms;Fluo/V;P700 deltaI/I x10³;
-199.8000;0.7334;3.3947;
-199.5000;0.7342;3.3995;
-199.2000;0.7334;3.3947;
-198.9000;0.7359;3.4019;
-198.6000;0.7416;3.4187;
-198.3000;0.7350;3.4115;
-198.0000;0.7359;3.4187;
-197.7000;0.7359;3.4259;
-197.4000;0.7367;3.4283;
-197.1000;0.7375;3.4211;
-196.8000;0.7367;3.4163;
-196.5000;0.7350;3.4211;
-196.2000;0.7350;3.4307;
-195.9000;0.7359;3.4331;
-195.6000;0.7350;3.4331;
-195.3000;0.7350;3.4307;
-195.0000;0.7359;3.4211;
-194.7000;0.7269;3.3923;
-194.4000;0.7350;3.4019;
-194.1000;0.7359;3.4139;
-193.8000;0.7367;3.4139;
-193.5000;0.7367;3.4211;
-193.2000;0.7367;3.4307;
-192.9000;0.7375;3.4379;
-192.6000;0.7383;3.4355;
-192.3000;0.7367;3.4355;
-192.0000;0.7375;3.4283;
-191.7000;0.7367;3.4259;
-191.4000;0.7375;3.4211;
-191.1000;0.7350;3.4187;
-190.8000;0.7359;3.4091;
-190.5000;0.7367;3.4139;
-190.2000;0.7359;3.4115;
-189.9000;0.7342;3.4115;
-189.6000;0.7342;3.4115;
-189.3000;0.7375;3.4139;
-189.0000;0.7350;3.4211;
-188.7000;0.7359;3.4211;
-188.4000;0.7359;3.4187;
-188.1000;0.7367;3.4259;
-187.8000;0.7391;3.4259;
-187.5000;0.7375;3.4259;
-187.2000;0.7359;3.4235;
-186.9000;0.7375;3.4307;
-186.6000;0.7367;3.4307;
-186.3000;0.7375;3.4307;
-186.0000;0.7367;3.4259;
-185.7000;0.7359;3.4283;
-185.4000;0.7350;3.4307;
-185.1000;0.7350;3.4259;
-184.8000;0.7359;3.4211;
-184.5000;0.7367;3.4139;
-184.2000;0.7383;3.4307;
-183.9000;0.7367;3.4235;
-183.6000;0.7342;3.4187;
-183.3000;0.7359;3.4259;
-183.0000;0.7375;3.4307;
-182.7000;0.7367;3.4283;
-182.4000;0.7367;3.4283;
-182.1000;0.7334;3.4187;
-181.8000;0.7359;3.4259;
-181.5000;0.7367;3.4163;
-181.2000;0.7359;3.4067;
-180.9000;0.7350;3.3995;
-180.6000;0.7359;3.4043;
-180.3000;0.7359;3.4091;
-180.0000;0.7342;3.4115;
-179.7000;0.7359;3.4091;
-179.4000;0.7367;3.4115;
-179.1000;0.7359;3.4091;
-178.8000;0.7367;3.4139;
-178.5000;0.7350;3.4115;
-178.2000;0.7367;3.4283;
-177.9000;0.7359;3.4283;
-177.6000;0.7367;3.4283;
-177.3000;0.7375;3.4331;
-177.0000;0.7375;3.4283;
-176.7000;0.7367;3.4235;
-176.4000;0.7375;3.4163;
-176.1000;0.7367;3.4187;
-175.8000;0.7359;3.4211;
-175.5000;0.7350;3.4259;
-175.2000;0.7367;3.4211;
-174.9000;0.7367;3.4211;
-174.6000;0.7359;3.4211;
-174.3000;0.7367;3.4211;
-174.0000;0.7367;3.4187;
-173.7000;0.7359;3.4235;
-173.4000;0.7375;3.4259;
-173.1000;0.7359;3.4187;
-172.8000;0.7367;3.4187;
-172.5000;0.7383;3.4235;
-172.2000;0.7367;3.4067;
-171.9000;0.7318;3.3899;
-171.6000;0.7350;3.4043;
-171.3000;0.7367;3.4091;
-171.0000;0.7375;3.4115;
-170.7000;0.7350;3.4043;
-170.4000;0.7407;3.4187;
-170.1000;0.7367;3.4139;
-169.8000;0.7367;3.4139;
-169.5000;0.7375;3.4091;
-169.2000;0.7342;3.4067;
-168.9000;0.7375;3.4235;
-168.6000;0.7375;3.4259;
-168.3000;0.7367;3.4187;
-168.0000;0.7440;3.4307;
-167.7000;0.7375;3.4211;
-167.4000;0.7359;3.4259;
-167.1000;0.7375;3.4259;
-166.8000;0.7342;3.4163;
-166.5000;0.7367;3.4307;
-166.2000;0.7367;3.4307;
-165.9000;0.7350;3.4259;
-165.6000;0.7342;3.4331;
-165.3000;0.7359;3.4307;
-165.0000;0.7367;3.4451;
-164.7000;0.7375;3.4475;
-164.4000;0.7367;3.4427;
-164.1000;0.7293;3.4259;
-163.8000;0.7367;3.4523;
-163.5000;0.7359;3.4475;
-163.2000;0.7350;3.4379;
-162.9000;0.7342;3.4379;
-162.6000;0.7350;3.4379;
-162.3000;0.7375;3.4307;
-162.0000;0.7367;3.4331;
-161.7000;0.7350;3.4307;
-161.4000;0.7375;3.4427;
-161.1000;0.7367;3.4475;
-160.8000;0.7367;3.4499;
-160.5000;0.7334;3.4451;
-160.2000;0.7334;3.4451;
-159.9000;0.7359;3.4523;
-159.6000;0.7350;3.4475;
-159.3000;0.7367;3.4499;
-159.0000;0.7350;3.4427;
-158.7000;0.7367;3.4379;
-158.4000;0.7375;3.4331;
-158.1000;0.7375;3.4307;
-157.8000;0.7359;3.4355;
-157.5000;0.7367;3.4283;
-157.2000;0.7375;3.4187;
-156.9000;0.7367;3.4235;
-156.6000;0.7367;3.4283;
-156.3000;0.7391;3.4403;
-156.0000;0.7326;3.4259;
-155.7000;0.7375;3.4331;
-155.4000;0.7367;3.4403;
-155.1000;0.7416;3.4595;
-154.8000;0.7359;3.4403;
-154.5000;0.7350;3.4403;
-154.2000;0.7367;3.4379;
-153.9000;0.7359;3.4379;
-153.6000;0.7367;3.4403;
-153.3000;0.7293;3.4187;
-153.0000;0.7359;3.4307;
-152.7000;0.7367;3.4283;
-152.4000;0.7367;3.4307;
-152.1000;0.7375;3.4283;
-151.8000;0.7359;3.4283;
-151.5000;0.7367;3.4307;
-151.2000;0.7456;3.4547;
-150.9000;0.7350;3.4379;
-150.6000;0.7350;3.4403;
-150.3000;0.7293;3.4211;
-150.0000;0.7293;3.4187;
-149.7000;0.7359;3.4259;
-149.4000;0.7350;3.4163;
-149.1000;0.7350;3.4235;
-148.8000;0.7359;3.4307;
-148.5000;0.7383;3.4427;
-148.2000;0.7367;3.4379;
-147.9000;0.7350;3.4331;
-147.6000;0.7367;3.4427;
-147.3000;0.7375;3.4451;
-147.0000;0.7375;3.4355;
-146.7000;0.7350;3.4331;
-146.4000;0.7375;3.4379;
-146.1000;0.7391;3.4307;
-145.8000;0.7375;3.4283;
-145.5000;0.7391;3.4379;
-145.2000;0.7350;3.4283;
-144.9000;0.7342;3.4307;
-144.6000;0.7367;3.4331;
-144.3000;0.7342;3.4259;
-144.0000;0.7375;3.4307;
-143.7000;0.7424;3.4427;
-143.4000;0.7350;3.4211;
-143.1000;0.7350;3.4163;
-142.8000;0.7326;3.4211;
-142.5000;0.7367;3.4379;
-142.2000;0.7375;3.4451;
-141.9000;0.7359;3.4379;
-141.6000;0.7342;3.4331;
-141.3000;0.7359;3.4355;
-141.0000;0.7318;3.4307;
-140.7000;0.7334;3.4307;
-140.4000;0.7334;3.4331;
-140.1000;0.7350;3.4427;
-139.8000;0.7359;3.4523;
-139.5000;0.7359;3.4523;
-139.2000;0.7350;3.4475;
-138.9000;0.7367;3.4499;
-138.6000;0.7375;3.4451;
-138.3000;0.7359;3.4355;
-138.0000;0.7359;3.4259;
-137.7000;0.7367;3.4283;
-137.4000;0.7350;3.4235;
-137.1000;0.7367;3.4331;
-136.8000;0.7399;3.4403;
-136.5000;0.7359;3.4307;
-136.2000;0.7350;3.4307;
-135.9000;0.7359;3.4259;
-135.6000;0.7367;3.4283;
-135.3000;0.7359;3.4235;
-135.0000;0.7367;3.4259;
-134.7000;0.7359;3.4211;
-134.4000;0.7399;3.4259;
-134.1000;0.7367;3.4211;
-133.8000;0.7359;3.4235;
-133.5000;0.7391;3.4331;
-133.2000;0.7375;3.4259;
-132.9000;0.7375;3.4187;
-132.6000;0.7359;3.4139;
-132.3000;0.7318;3.4163;
-132.0000;0.7424;3.4403;
-131.7000;0.7359;3.4211;
-131.4000;0.7326;3.4235;
-131.1000;0.7342;3.4235;
-130.8000;0.7342;3.4187;
-130.5000;0.7367;3.4235;
-130.2000;0.7416;3.4355;
-129.9000;0.7334;3.4163;
-129.6000;0.7359;3.4235;
-129.3000;0.7375;3.4187;
-129.0000;0.7350;3.4091;
-128.7000;0.7350;3.4115;
-128.4000;0.7310;3.4091;
-128.1000;0.7432;3.4427;
-127.8000;0.7359;3.4235;
-127.5000;0.7359;3.4187;
-127.2000;0.7350;3.4187;
-126.9000;0.7334;3.4211;
-126.6000;0.7383;3.4235;
-126.3000;0.7350;3.4187;
-126.0000;0.7318;3.4115;
-125.7000;0.7359;3.4163;
-125.4000;0.7367;3.4187;
-125.1000;0.7350;3.4163;
-124.8000;0.7350;3.4163;
-124.5000;0.7359;3.4283;
-124.2000;0.7359;3.4283;
-123.9000;0.7334;3.4019;
-123.6000;0.7350;3.4139;
-123.3000;0.7448;3.4451;
-123.0000;0.7367;3.4307;
-122.7000;0.7367;3.4307;
-122.4000;0.7359;3.4307;
-122.1000;0.7359;3.4475;
-121.8000;0.7367;3.4427;
-121.5000;0.7383;3.4379;
-121.2000;0.7359;3.4283;
-120.9000;0.7342;3.4235;
-120.6000;0.7285;3.4235;
-120.3000;0.7350;3.4403;
-120.0000;0.7367;3.4379;
-119.7000;0.7342;3.4259;
-119.4000;0.7334;3.4307;
-119.1000;0.7326;3.4259;
-118.8000;0.7334;3.4211;
-118.5000;0.7359;3.4211;
-118.2000;0.7342;3.4211;
-117.9000;0.7367;3.4379;
-117.6000;0.7375;3.4427;
-117.3000;0.7391;3.4499;
-117.0000;0.7416;3.4667;
-116.7000;0.7367;3.4451;
-116.4000;0.7367;3.4403;
-116.1000;0.7367;3.4331;
-115.8000;0.7367;3.4235;
-115.5000;0.7375;3.4211;
-115.2000;0.7367;3.4211;
-114.9000;0.7334;3.4187;
-114.6000;0.7359;3.4163;
-114.3000;0.7359;3.4163;
-114.0000;0.7367;3.4115;
-113.7000;0.7359;3.4115;
-113.4000;0.7326;3.4067;
-113.1000;0.7350;3.4115;
-112.8000;0.7334;3.4067;
-112.5000;0.7326;3.4139;
-112.2000;0.7367;3.4259;
-111.9000;0.7375;3.4259;
-111.6000;0.7326;3.4067;
-111.3000;0.7391;3.4283;
-111.0000;0.7359;3.4235;
-110.7000;0.7350;3.4259;
-110.4000;0.7424;3.4355;
-110.1000;0.7350;3.4211;
-109.8000;0.7334;3.4235;
-109.5000;0.7350;3.4307;
-109.2000;0.7359;3.4355;
-108.9000;0.7359;3.4427;
-108.6000;0.7359;3.4523;
-108.3000;0.7342;3.4475;
-108.0000;0.7342;3.4475;
-107.7000;0.7350;3.4427;
-107.4000;0.7334;3.4307;
-107.1000;0.7326;3.4283;
-106.8000;0.7318;3.4283;
-106.5000;0.7359;3.4451;
-106.2000;0.7334;3.4331;
-105.9000;0.7416;3.4427;
-105.6000;0.7350;3.4427;
-105.3000;0.7367;3.4403;
-105.0000;0.7375;3.4379;
-104.7000;0.7359;3.4403;
-104.4000;0.7342;3.4379;
-104.1000;0.7375;3.4379;
-103.8000;0.7367;3.4331;
-103.5000;0.7367;3.4283;
-103.2000;0.7350;3.4307;
-102.9000;0.7359;3.4331;
-102.6000;0.7342;3.4307;
-102.3000;0.7367;3.4331;
-102.0000;0.7383;3.4331;
-101.7000;0.7375;3.4307;
-101.4000;0.7342;3.4235;
-101.1000;0.7342;3.4163;
-100.8000;0.7350;3.4211;
-100.5000;0.7350;3.4211;
-100.2000;0.7310;3.4091;
-99.9000;0.7350;3.4187;
-99.6000;0.7407;3.4283;
-99.3000;0.7375;3.4163;
-99.0000;0.7375;3.4187;
-98.7000;0.7375;3.4139;
-98.4000;0.7367;3.4091;
-98.1000;0.7367;3.4067;
-97.8000;0.7383;3.4067;
-97.5000;0.7375;3.4067;
-97.2000;0.7318;3.3995;
-96.9000;0.7350;3.4043;
-96.6000;0.7473;3.4379;
-96.3000;0.7399;3.4235;
-96.0000;0.7367;3.4115;
-95.7000;0.7350;3.4067;
-95.4000;0.7334;3.4091;
-95.1000;0.7350;3.4091;
-94.8000;0.7342;3.4187;
-94.5000;0.7383;3.4307;
-94.2000;0.7350;3.4259;
-93.9000;0.7350;3.4211;
-93.6000;0.7326;3.4067;
-93.3000;0.7342;3.4139;
-93.0000;0.7342;3.4211;
-92.7000;0.7375;3.4307;
-92.4000;0.7383;3.4259;
-92.1000;0.7367;3.4235;
-91.8000;0.7367;3.4235;
-91.5000;0.7359;3.4259;
-91.2000;0.7350;3.4211;
-90.9000;0.7342;3.4187;
-90.6000;0.7375;3.4283;
-90.3000;0.7326;3.4163;
-90.0000;0.7334;3.4187;
-89.7000;0.7350;3.4187;
-89.4000;0.7342;3.4211;
-89.1000;0.7359;3.4259;
-88.8000;0.7399;3.4331;
-88.5000;0.7367;3.4283;
-88.2000;0.7367;3.4187;
-87.9000;0.7367;3.4115;
-87.6000;0.7350;3.4067;
-87.3000;0.7440;3.4379;
-87.0000;0.7350;3.4211;
-86.7000;0.7367;3.4307;
-86.4000;0.7342;3.4235;
-86.1000;0.7350;3.4259;
-85.8000;0.7424;3.4403;
-85.5000;0.7432;3.4403;
-85.2000;0.7342;3.4067;
-84.9000;0.7350;3.3971;
-84.6000;0.7359;3.3995;
-84.3000;0.7473;3.4259;
-84.0000;0.7310;3.3971;
-83.7000;0.7359;3.4043;
-83.4000;0.7350;3.4043;
-83.1000;0.7277;3.3923;
-82.8000;0.7302;3.3995;
-82.5000;0.7359;3.4139;
-82.2000;0.7350;3.4043;
-81.9000;0.7367;3.4019;
-81.6000;0.7383;3.4067;
-81.3000;0.7375;3.4067;
-81.0000;0.7367;3.4187;
-80.7000;0.7375;3.4187;
-80.4000;0.7334;3.3995;
-80.1000;0.7367;3.4139;
-79.8000;0.7367;3.4115;
-79.5000;0.7391;3.4283;
-79.2000;0.7359;3.4331;
-78.9000;0.7359;3.4403;
-78.6000;0.7391;3.4475;
-78.3000;0.7359;3.4427;
-78.0000;0.7285;3.4187;
-77.7000;0.7350;3.4211;
-77.4000;0.7342;3.4187;
-77.1000;0.7375;3.4307;
-76.8000;0.7342;3.4163;
-76.5000;0.7375;3.4259;
-76.2000;0.7359;3.4235;
-75.9000;0.7367;3.4235;
-75.6000;0.7359;3.4259;
-75.3000;0.7350;3.4163;
-75.0000;0.7359;3.4211;
-74.7000;0.7367;3.4259;
-74.4000;0.7342;3.4283;
-74.1000;0.7367;3.4331;
-73.8000;0.7342;3.4211;
-73.5000;0.7367;3.4283;
-73.2000;0.7424;3.4427;
-72.9000;0.7350;3.4259;
-72.6000;0.7350;3.4187;
-72.3000;0.7359;3.4163;
-72.0000;0.7334;3.4019;
-71.7000;0.7359;3.3971;
-71.4000;0.7350;3.3971;
-71.1000;0.7342;3.4043;
-70.8000;0.7350;3.4091;
-70.5000;0.7334;3.3995;
-70.2000;0.7350;3.4091;
-69.9000;0.7359;3.4235;
-69.6000;0.7375;3.4163;
-69.3000;0.7383;3.4235;
-69.0000;0.7350;3.4091;
-68.7000;0.7350;3.4067;
-68.4000;0.7383;3.4163;
-68.1000;0.7375;3.4283;
-67.8000;0.7350;3.4259;
-67.5000;0.7383;3.4283;
-67.2000;0.7375;3.4307;
-66.9000;0.7383;3.4283;
-66.6000;0.7367;3.4307;
-66.3000;0.7342;3.4307;
-66.0000;0.7383;3.4427;
-65.7000;0.7359;3.4331;
-65.4000;0.7350;3.4163;
-65.1000;0.7359;3.4139;
-64.8000;0.7359;3.4163;
-64.5000;0.7359;3.4283;
-64.2000;0.7367;3.4355;
-63.9000;0.7350;3.4331;
-63.6000;0.7359;3.4331;
-63.3000;0.7318;3.4211;
-63.0000;0.7367;3.4331;
-62.7000;0.7350;3.4355;
-62.4000;0.7399;3.4403;
-62.1000;0.7375;3.4283;
-61.8000;0.7375;3.4307;
-61.5000;0.7342;3.4283;
-61.2000;0.7367;3.4259;
-60.9000;0.7350;3.4259;
-60.6000;0.7367;3.4283;
-60.3000;0.7326;3.4235;
-60.0000;0.7293;3.4211;
-59.7000;0.7350;3.4307;
-59.4000;0.7334;3.4283;
-59.1000;0.7334;3.4283;
-58.8000;0.7350;3.4259;
-58.5000;0.7359;3.4259;
-58.2000;0.7399;3.4307;
-57.9000;0.7359;3.4187;
-57.6000;0.7367;3.4091;
-57.3000;0.7375;3.4091;
-57.0000;0.7367;3.4091;
-56.7000;0.7359;3.4043;
-56.4000;0.7350;3.4067;
-56.1000;0.7350;3.4091;
-55.8000;0.7375;3.4139;
-55.5000;0.7391;3.4163;
-55.2000;0.7359;3.4091;
-54.9000;0.7359;3.4067;
-54.6000;0.7367;3.4043;
-54.3000;0.7359;3.4091;
-54.0000;0.7293;3.3947;
-53.7000;0.7367;3.4139;
-53.4000;0.7367;3.4211;
-53.1000;0.7375;3.4187;
-52.8000;0.7359;3.4211;
-52.5000;0.7359;3.4259;
-52.2000;0.7359;3.4163;
-51.9000;0.7367;3.4163;
-51.6000;0.7367;3.4187;
-51.3000;0.7359;3.4211;
-51.0000;0.7367;3.4163;
-50.7000;0.7367;3.4211;
-50.4000;0.7359;3.4163;
-50.1000;0.7359;3.4211;
-49.8000;0.7359;3.4163;
-49.5000;0.7464;3.4499;
-49.2000;0.7342;3.4163;
-48.9000;0.7367;3.4187;
-48.6000;0.7334;3.4115;
-48.3000;0.7359;3.4211;
-48.0000;0.7367;3.4235;
-47.7000;0.7359;3.4307;
-47.4000;0.7367;3.4283;
-47.1000;0.7359;3.4259;
-46.8000;0.7375;3.4259;
-46.5000;0.7350;3.4187;
-46.2000;0.7359;3.4211;
-45.9000;0.7359;3.4163;
-45.6000;0.7342;3.4211;
-45.3000;0.7359;3.4355;
-45.0000;0.7342;3.4331;
-44.7000;0.7375;3.4379;
-44.4000;0.7359;3.4307;
-44.1000;0.7367;3.4403;
-43.8000;0.7359;3.4355;
-43.5000;0.7383;3.4451;
-43.2000;0.7375;3.4427;
-42.9000;0.7383;3.4499;
-42.6000;0.7375;3.4427;
-42.3000;0.7350;3.4355;
-42.0000;0.7350;3.4259;
-41.7000;0.7367;3.4307;
-41.4000;0.7359;3.4187;
-41.1000;0.7399;3.4259;
-40.8000;0.7359;3.4139;
-40.5000;0.7391;3.4187;
-40.2000;0.7375;3.4211;
-39.9000;0.7350;3.4235;
-39.6000;0.7350;3.4307;
-39.3000;0.7350;3.4307;
-39.0000;0.7342;3.4235;
-38.7000;0.7367;3.4283;
-38.4000;0.7359;3.4307;
-38.1000;0.7367;3.4331;
-37.8000;0.7383;3.4403;
-37.5000;0.7342;3.4379;
-37.2000;0.7350;3.4451;
-36.9000;0.7359;3.4403;
-36.6000;0.7367;3.4499;
-36.3000;0.7350;3.4523;
-36.0000;0.7342;3.4619;
-35.7000;0.7334;3.4571;
-35.4000;0.7367;3.4595;
-35.1000;0.7350;3.4619;
-34.8000;0.7350;3.4619;
-34.5000;0.7359;3.4667;
-34.2000;0.7359;3.4643;
-33.9000;0.7383;3.4691;
-33.6000;0.7359;3.4499;
-33.3000;0.7350;3.4499;
-33.0000;0.7367;3.4523;
-32.7000;0.7359;3.4499;
-32.4000;0.7318;3.4451;
-32.1000;0.7277;3.4283;
-31.8000;0.7367;3.4451;
-31.5000;0.7391;3.4523;
-31.2000;0.7342;3.4355;
-30.9000;0.7416;3.4523;
-30.6000;0.7350;3.4331;
-30.3000;0.7350;3.4427;
-30.0000;0.7350;3.4475;
-29.7000;0.7318;3.4379;
-29.4000;0.7359;3.4475;
-29.1000;0.7342;3.4403;
-28.8000;0.7350;3.4427;
-28.5000;0.7334;3.4475;
-28.2000;0.7342;3.4475;
-27.9000;0.7326;3.4547;
-27.6000;0.7326;3.4571;
-27.3000;0.7359;3.4499;
-27.0000;0.7342;3.4451;
-26.7000;0.7367;3.4475;
-26.4000;0.7375;3.4475;
-26.1000;0.7342;3.4403;
-25.8000;0.7326;3.4379;
-25.5000;0.7399;3.4571;
-25.2000;0.7383;3.4499;
-24.9000;0.7342;3.4451;
-24.6000;0.7350;3.4499;
-24.3000;0.7383;3.4547;
-24.0000;0.7359;3.4475;
-23.7000;0.7456;3.4667;
-23.4000;0.7383;3.4499;
-23.1000;0.7391;3.4427;
-22.8000;0.7391;3.4451;
-22.5000;0.7391;3.4403;
-22.2000;0.7359;3.4355;
-21.9000;0.7359;3.4451;
-21.6000;0.7342;3.4427;
-21.3000;0.7359;3.4499;
-21.0000;0.7367;3.4547;
-20.7000;0.7350;3.4571;
-20.4000;0.7350;3.4571;
-20.1000;0.7367;3.4499;
-19.8000;0.7399;3.4475;
-19.5000;0.7359;3.4403;
-19.2000;0.7367;3.4379;
-18.9000;0.7375;3.4307;
-18.6000;0.7375;3.4259;
-18.3000;0.7375;3.4211;
-18.0000;0.7342;3.4163;
-17.7000;0.7367;3.4283;
-17.4000;0.7342;3.4091;
-17.1000;0.7359;3.4139;
-16.8000;0.7391;3.4307;
-16.5000;0.7253;3.4043;
-16.2000;0.7391;3.4379;
-15.9000;0.7375;3.4379;
-15.6000;0.7375;3.4403;
-15.3000;0.7350;3.4355;
-15.0000;0.7399;3.4403;
-14.7000;0.7350;3.4211;
-14.4000;0.7342;3.4211;
-14.1000;0.7367;3.4355;
-13.8000;0.7359;3.4283;
-13.5000;0.7375;3.4283;
-13.2000;0.7350;3.4163;
-12.9000;0.7350;3.4187;
-12.6000;0.7375;3.4259;
-12.3000;0.7359;3.4235;
-12.0000;0.7359;3.4331;
-11.7000;0.7375;3.4379;
-11.4000;0.7350;3.4379;
-11.1000;0.7334;3.4355;
-10.8000;0.7350;3.4523;
-10.5000;0.7359;3.4523;
-10.2000;0.7367;3.4499;
-9.9000;0.7367;3.4475;
-9.6000;0.7367;3.4523;
-9.3000;0.7342;3.4475;
-9.0000;0.7350;3.4355;
-8.7000;0.7367;3.4379;
-8.4000;0.7383;3.4499;
-8.1000;0.7359;3.4451;
-7.8000;0.7359;3.4355;
-7.5000;0.7375;3.4427;
-7.2000;0.7342;3.4379;
-6.9000;0.7367;3.4451;
-6.6000;0.7359;3.4475;
-6.3000;0.7375;3.4523;
-6.0000;0.7367;3.4475;
-5.7000;0.7359;3.4475;
-5.4000;0.7399;3.4427;
-5.1000;0.7326;3.4259;
-4.8000;0.7334;3.4235;
-4.5000;0.7359;3.4355;
-4.2000;0.7350;3.4355;
-3.9000;0.7383;3.4403;
-3.6000;0.7326;3.4235;
-3.3000;0.7359;3.4331;
-3.0000;0.7367;3.4259;
-2.7000;0.7375;3.4355;
-2.4000;0.7383;3.4475;
-2.1000;0.7342;3.4355;
-1.8000;0.7375;3.4499;
-1.5000;0.7375;3.4523;
-1.2000;0.7367;3.4427;
-0.9000;0.7473;3.4715;
-0.6000;0.7350;3.4379;
-0.3000;0.7326;3.4331;
0.0000;0.7326;3.4331;
0.3000;0.7350;3.4355;
0.6000;0.7391;3.4643;
0.9000;0.7456;3.5075;
1.2000;0.7473;3.5290;
1.5000;0.7497;3.5506;
1.8000;0.7513;3.5722;
2.1000;0.7530;3.5890;
2.4000;0.7538;3.5962;
2.7000;0.7562;3.6010;
3.0000;0.7586;3.6154;
3.3000;0.7578;3.6130;
3.6000;0.7586;3.6226;
3.9000;0.7595;3.6274;
4.2000;0.7627;3.6370;
4.5000;0.7578;3.6226;
4.8000;0.7603;3.6346;
5.1000;0.7595;3.6418;
5.4000;0.7603;3.6418;
5.7000;0.7603;3.6418;
6.0000;0.7619;3.6418;
6.3000;0.7570;3.6370;
6.6000;0.7627;3.6538;
6.9000;0.7643;3.6562;
7.2000;0.7627;3.6394;
7.5000;0.7635;3.6490;
7.8000;0.7660;3.6562;
8.1000;0.7668;3.6562;
8.4000;0.7635;3.6514;
8.7000;0.7635;3.6490;
9.0000;0.7700;3.6586;
9.3000;0.7668;3.6562;
9.6000;0.7676;3.6562;
9.9000;0.7660;3.6538;
10.2000;0.7692;3.6562;
10.5000;0.7684;3.6538;
10.8000;0.7692;3.6562;
11.1000;0.7684;3.6514;
11.4000;0.7692;3.6514;
11.7000;0.7700;3.6610;
12.0000;0.7643;3.6514;
12.3000;0.7692;3.6658;
12.6000;0.7684;3.6610;
12.9000;0.7684;3.6610;
13.2000;0.7709;3.6562;
13.5000;0.7700;3.6418;
13.8000;0.7725;3.6514;
14.1000;0.7717;3.6466;
14.4000;0.7725;3.6586;
14.7000;0.7692;3.6466;
15.0000;0.7676;3.6490;
15.3000;0.7709;3.6586;
15.6000;0.7709;3.6610;
15.9000;0.7668;3.6514;
16.2000;0.7700;3.6562;
16.5000;0.7717;3.6634;
16.8000;0.7741;3.6754;
17.1000;0.7725;3.6682;
17.4000;0.7733;3.6658;
17.7000;0.7733;3.6634;
18.0000;0.7741;3.6778;
18.3000;0.7749;3.6778;
18.6000;0.7749;3.6730;
18.9000;0.7725;3.6538;
19.2000;0.7741;3.6538;
19.5000;0.7717;3.6610;
19.8000;0.7741;3.6634;
20.1000;0.7733;3.6682;
20.4000;0.7725;3.6706;
20.7000;0.7741;3.6754;
21.0000;0.7725;3.6658;
21.3000;0.7733;3.6682;
21.6000;0.7733;3.6634;
21.9000;0.7749;3.6658;
22.2000;0.7741;3.6706;
22.5000;0.7749;3.6754;
22.8000;0.7749;3.6682;
23.1000;0.7757;3.6682;
23.4000;0.7757;3.6682;
23.7000;0.7733;3.6682;
24.0000;0.7757;3.6682;
24.3000;0.7733;3.6610;
24.6000;0.7749;3.6658;
24.9000;0.7749;3.6658;
25.2000;0.7757;3.6562;
25.5000;0.7749;3.6538;
25.8000;0.7774;3.6586;
26.1000;0.7766;3.6610;
26.4000;0.7766;3.6562;
26.7000;0.7782;3.6610;
27.0000;0.7766;3.6586;
27.3000;0.7766;3.6562;
27.6000;0.7766;3.6610;
27.9000;0.7774;3.6586;
28.2000;0.7757;3.6562;
28.5000;0.7766;3.6610;
28.8000;0.7757;3.6538;
29.1000;0.7774;3.6586;
29.4000;0.7766;3.6610;
29.7000;0.7798;3.6706;
30.0000;0.7766;3.6562;
30.3000;0.7766;3.6562;
30.6000;0.7757;3.6514;
30.9000;0.7782;3.6514;
31.2000;0.7757;3.6322;
31.5000;0.7766;3.6346;
31.8000;0.7757;3.6394;
32.1000;0.7757;3.6490;
32.4000;0.7766;3.6586;
32.7000;0.7814;3.6682;
33.0000;0.7782;3.6586;
33.3000;0.7831;3.6754;
33.6000;0.7774;3.6634;
33.9000;0.7766;3.6682;
34.2000;0.7749;3.6706;
34.5000;0.7798;3.6850;
34.8000;0.7782;3.6754;
35.1000;0.7782;3.6706;
35.4000;0.7774;3.6730;
35.7000;0.7806;3.6754;
36.0000;0.7798;3.6730;
36.3000;0.7766;3.6682;
36.6000;0.7798;3.6730;
36.9000;0.7766;3.6682;
37.2000;0.7798;3.6682;
37.5000;0.7782;3.6682;
37.8000;0.7757;3.6562;
38.1000;0.7782;3.6490;
38.4000;0.7774;3.6562;
38.7000;0.7790;3.6658;
39.0000;0.7806;3.6658;
39.3000;0.7782;3.6538;
39.6000;0.7790;3.6514;
39.9000;0.7782;3.6442;
40.2000;0.7790;3.6586;
40.5000;0.7814;3.6634;
40.8000;0.7790;3.6538;
41.1000;0.7782;3.6586;
41.4000;0.7823;3.6730;
41.7000;0.7782;3.6634;
42.0000;0.7782;3.6586;
42.3000;0.7790;3.6658;
42.6000;0.7782;3.6682;
42.9000;0.7798;3.6610;
43.2000;0.7806;3.6610;
43.5000;0.7880;3.6802;
43.8000;0.7806;3.6730;
44.1000;0.7782;3.6658;
44.4000;0.7749;3.6562;
44.7000;0.7798;3.6658;
45.0000;0.7790;3.6682;
45.3000;0.7774;3.6514;
45.6000;0.7774;3.6466;
45.9000;0.7782;3.6442;
46.2000;0.7798;3.6586;
46.5000;0.7782;3.6538;
46.8000;0.7790;3.6514;
47.1000;0.7774;3.6562;
47.4000;0.7790;3.6658;
47.7000;0.7798;3.6706;
48.0000;0.7717;3.6538;
48.3000;0.7790;3.6706;
48.6000;0.7823;3.6850;
48.9000;0.7798;3.6850;
49.2000;0.7823;3.6946;
49.5000;0.7798;3.6754;
49.8000;0.7798;3.6706;
50.1000;0.7814;3.6730;
50.4000;0.7798;3.6898;
50.7000;0.7790;3.6898;
51.0000;0.7798;3.6850;
51.3000;0.7798;3.6850;
51.6000;0.7782;3.6754;
51.9000;0.7790;3.6826;
52.2000;0.7823;3.6898;
52.5000;0.7766;3.6826;
52.8000;0.7782;3.6802;
53.1000;0.7774;3.6682;
53.4000;0.7790;3.6682;
53.7000;0.7855;3.6802;
54.0000;0.7782;3.6658;
54.3000;0.7790;3.6634;
54.6000;0.7790;3.6586;
54.9000;0.7806;3.6610;
55.2000;0.7798;3.6538;
55.5000;0.7790;3.6490;
55.8000;0.7790;3.6466;
56.1000;0.7823;3.6538;
56.4000;0.7814;3.6466;
56.7000;0.7806;3.6418;
57.0000;0.7766;3.6346;
57.3000;0.7798;3.6418;
57.6000;0.7798;3.6370;
57.9000;0.7790;3.6322;
58.2000;0.7814;3.6442;
58.5000;0.7814;3.6442;
58.8000;0.7806;3.6442;
59.1000;0.7774;3.6442;
59.4000;0.7790;3.6466;
59.7000;0.7790;3.6418;
60.0000;0.7749;3.6250;
60.3000;0.7790;3.6370;
60.6000;0.7790;3.6370;
60.9000;0.7798;3.6394;
61.2000;0.7823;3.6514;
61.5000;0.7806;3.6586;
61.8000;0.7806;3.6586;
62.1000;0.7717;3.6418;
62.4000;0.7790;3.6514;
62.7000;0.7798;3.6562;
63.0000;0.7790;3.6562;
63.3000;0.7774;3.6562;
63.6000;0.7790;3.6682;
63.9000;0.7790;3.6658;
64.2000;0.7798;3.6610;
64.5000;0.7806;3.6586;
64.8000;0.7798;3.6586;
65.1000;0.7798;3.6610;
65.4000;0.7814;3.6586;
65.7000;0.7798;3.6634;
66.0000;0.7823;3.6658;
66.3000;0.7806;3.6610;
66.6000;0.7806;3.6610;
66.9000;0.7790;3.6514;
67.2000;0.7782;3.6538;
67.5000;0.7814;3.6682;
67.8000;0.7806;3.6778;
68.1000;0.7806;3.6682;
68.4000;0.7790;3.6634;
68.7000;0.7814;3.6658;
69.0000;0.7806;3.6730;
69.3000;0.7798;3.6682;
69.6000;0.7790;3.6586;
69.9000;0.7823;3.6658;
70.2000;0.7823;3.6658;
70.5000;0.7798;3.6658;
70.8000;0.7798;3.6682;
71.1000;0.7798;3.6586;
71.4000;0.7806;3.6562;
71.7000;0.7798;3.6442;
72.0000;0.7790;3.6490;
72.3000;0.7806;3.6514;
72.6000;0.7798;3.6490;
72.9000;0.7798;3.6514;
73.2000;0.7798;3.6538;
73.5000;0.7798;3.6538;
73.8000;0.7700;3.6322;
74.1000;0.7863;3.6802;
74.4000;0.7798;3.6610;
74.7000;0.7782;3.6562;
75.0000;0.7798;3.6562;
75.3000;0.7823;3.6538;
75.6000;0.7831;3.6610;
75.9000;0.7798;3.6634;
76.2000;0.7806;3.6562;
76.5000;0.7798;3.6514;
76.8000;0.7790;3.6538;
77.1000;0.7790;3.6490;
77.4000;0.7798;3.6442;
77.7000;0.7782;3.6418;
78.0000;0.7798;3.6394;
78.3000;0.7766;3.6370;
78.6000;0.7847;3.6538;
78.9000;0.7782;3.6394;
79.2000;0.7831;3.6442;
79.5000;0.7782;3.6346;
79.8000;0.7782;3.6346;
80.1000;0.7814;3.6418;
80.4000;0.7798;3.6370;
80.7000;0.7749;3.6250;
81.0000;0.7806;3.6202;
81.3000;0.7774;3.6106;
81.6000;0.7806;3.6178;
81.9000;0.7774;3.6130;
82.2000;0.7814;3.6250;
82.5000;0.7806;3.6370;
82.8000;0.7814;3.6394;
83.1000;0.7839;3.6514;
83.4000;0.7798;3.6418;
83.7000;0.7814;3.6514;
84.0000;0.7774;3.6514;
84.3000;0.7823;3.6658;
84.6000;0.7814;3.6754;
84.9000;0.7806;3.6562;
85.2000;0.7806;3.6634;
85.5000;0.7790;3.6610;
85.8000;0.7806;3.6586;
86.1000;0.7798;3.6610;
86.4000;0.7774;3.6586;
86.7000;0.7814;3.6538;
87.0000;0.7782;3.6490;
87.3000;0.7790;3.6466;
87.6000;0.7831;3.6586;
87.9000;0.7757;3.6466;
88.2000;0.7790;3.6538;
88.5000;0.7798;3.6538;
88.8000;0.7782;3.6490;
89.1000;0.7749;3.6394;
89.4000;0.7863;3.6586;
89.7000;0.7798;3.6418;
90.0000;0.7782;3.6274;
90.3000;0.7798;3.6370;
90.6000;0.7790;3.6346;
90.9000;0.7749;3.6322;
91.2000;0.7790;3.6538;
91.5000;0.7774;3.6490;
91.8000;0.7790;3.6538;
92.1000;0.7798;3.6466;
92.4000;0.7774;3.6394;
92.7000;0.7806;3.6418;
93.0000;0.7823;3.6490;
93.3000;0.7790;3.6466;
93.6000;0.7814;3.6466;
93.9000;0.7814;3.6514;
94.2000;0.7806;3.6562;
94.5000;0.7790;3.6562;
94.8000;0.7814;3.6610;
95.1000;0.7798;3.6490;
95.4000;0.7798;3.6562;
95.7000;0.7855;3.6634;
96.0000;0.7806;3.6466;
96.3000;0.7790;3.6490;
96.6000;0.7814;3.6586;
96.9000;0.7806;3.6658;
97.2000;0.7774;3.6610;
97.5000;0.7798;3.6682;
97.8000;0.7888;3.6898;
98.1000;0.7831;3.6706;
98.4000;0.7814;3.6610;
98.7000;0.7798;3.6538;
99.0000;0.7806;3.6634;
99.3000;0.7814;3.6730;
99.6000;0.7814;3.6754;
99.9000;0.7806;3.6754;
100.2000;0.7790;3.6706;
100.5000;0.7782;3.6658;
100.8000;0.7790;3.6658;
101.1000;0.7806;3.6730;
101.4000;0.7766;3.6634;
101.7000;0.7782;3.6682;
102.0000;0.7798;3.6730;
102.3000;0.7790;3.6730;
102.6000;0.7823;3.6730;
102.9000;0.7725;3.6442;
103.2000;0.7831;3.6682;
103.5000;0.7814;3.6658;
103.8000;0.7790;3.6586;
104.1000;0.7823;3.6634;
104.4000;0.7806;3.6514;
104.7000;0.7806;3.6538;
105.0000;0.7798;3.6418;
105.3000;0.7798;3.6442;
105.6000;0.7814;3.6538;
105.9000;0.7814;3.6490;
106.2000;0.7798;3.6586;
106.5000;0.7790;3.6562;
106.8000;0.7798;3.6562;
107.1000;0.7806;3.6514;
107.4000;0.7806;3.6586;
107.7000;0.7798;3.6490;
108.0000;0.7790;3.6442;
108.3000;0.7814;3.6490;
108.6000;0.7798;3.6490;
108.9000;0.7790;3.6466;
109.2000;0.7806;3.6538;
109.5000;0.7798;3.6586;
109.8000;0.7790;3.6610;
110.1000;0.7798;3.6562;
110.4000;0.7814;3.6610;
110.7000;0.7814;3.6634;
111.0000;0.7814;3.6586;
111.3000;0.7798;3.6634;
111.6000;0.7741;3.6490;
111.9000;0.7806;3.6682;
112.2000;0.7823;3.6658;
112.5000;0.7798;3.6586;
112.8000;0.7806;3.6562;
113.1000;0.7806;3.6586;
113.4000;0.7757;3.6490;
113.7000;0.7798;3.6562;
114.0000;0.7766;3.6514;
114.3000;0.7790;3.6586;
114.6000;0.7888;3.6778;
114.9000;0.7782;3.6562;
115.2000;0.7790;3.6538;
115.5000;0.7782;3.6538;
115.8000;0.7839;3.6610;
116.1000;0.7774;3.6466;
116.4000;0.7774;3.6538;
116.7000;0.7774;3.6634;
117.0000;0.7823;3.6802;
117.3000;0.7782;3.6682;
117.6000;0.7782;3.6658;
117.9000;0.7782;3.6658;
118.2000;0.7717;3.6490;
118.5000;0.7798;3.6658;
118.8000;0.7774;3.6658;
119.1000;0.7782;3.6562;
119.4000;0.7790;3.6586;
119.7000;0.7782;3.6610;
120.0000;0.7782;3.6634;
120.3000;0.7814;3.6754;
120.6000;0.7847;3.6850;
120.9000;0.7806;3.6682;
121.2000;0.7798;3.6658;
121.5000;0.7790;3.6658;
121.8000;0.7798;3.6730;
122.1000;0.7790;3.6706;
122.4000;0.7814;3.6778;
122.7000;0.7798;3.6706;
123.0000;0.7806;3.6682;
123.3000;0.7814;3.6730;
123.6000;0.7749;3.6562;
123.9000;0.7806;3.6658;
124.2000;0.7798;3.6658;
124.5000;0.7782;3.6514;
124.8000;0.7847;3.6658;
125.1000;0.7757;3.6514;
125.4000;0.7798;3.6634;
125.7000;0.7806;3.6538;
126.0000;0.7790;3.6466;
126.3000;0.7798;3.6514;
126.6000;0.7782;3.6394;
126.9000;0.7790;3.6322;
127.2000;0.7847;3.6466;
127.5000;0.7782;3.6322;
127.8000;0.7757;3.6250;
128.1000;0.7790;3.6298;
128.4000;0.7806;3.6394;
128.7000;0.7798;3.6442;
129.0000;0.7806;3.6490;
129.3000;0.7790;3.6514;
129.6000;0.7814;3.6586;
129.9000;0.7798;3.6490;
130.2000;0.7806;3.6538;
130.5000;0.7806;3.6394;
130.8000;0.7790;3.6442;
131.1000;0.7806;3.6418;
131.4000;0.7814;3.6442;
131.7000;0.7790;3.6370;
132.0000;0.7806;3.6514;
132.3000;0.7823;3.6538;
132.6000;0.7806;3.6514;
132.9000;0.7831;3.6370;
133.2000;0.7790;3.6346;
133.5000;0.7814;3.6418;
133.8000;0.7798;3.6394;
134.1000;0.7823;3.6490;
134.4000;0.7798;3.6418;
134.7000;0.7798;3.6442;
135.0000;0.7774;3.6466;
135.3000;0.7806;3.6418;
135.6000;0.7814;3.6442;
135.9000;0.7798;3.6490;
136.2000;0.7814;3.6466;
136.5000;0.7790;3.6370;
136.8000;0.7798;3.6418;
137.1000;0.7896;3.6730;
137.4000;0.7806;3.6490;
137.7000;0.7790;3.6514;
138.0000;0.7814;3.6586;
138.3000;0.7798;3.6514;
138.6000;0.7806;3.6466;
138.9000;0.7806;3.6490;
139.2000;0.7782;3.6490;
139.5000;0.7774;3.6586;
139.8000;0.7790;3.6658;
140.1000;0.7782;3.6658;
140.4000;0.7790;3.6610;
140.7000;0.7782;3.6634;
141.0000;0.7782;3.6466;
141.3000;0.7798;3.6490;
141.6000;0.7814;3.6466;
141.9000;0.7790;3.6418;
142.2000;0.7774;3.6346;
142.5000;0.7790;3.6346;
142.8000;0.7676;3.6010;
143.1000;0.7774;3.6274;
143.4000;0.7798;3.6466;
143.7000;0.7782;3.6514;
144.0000;0.7806;3.6562;
144.3000;0.7782;3.6562;
144.6000;0.7733;3.6418;
144.9000;0.7798;3.6514;
145.2000;0.7839;3.6610;
145.5000;0.7725;3.6298;
145.8000;0.7790;3.6442;
146.1000;0.7790;3.6490;
146.4000;0.7782;3.6370;
146.7000;0.7790;3.6394;
147.0000;0.7782;3.6466;
147.3000;0.7782;3.6490;
147.6000;0.7806;3.6514;
147.9000;0.7782;3.6538;
148.2000;0.7782;3.6466;
148.5000;0.7863;3.6658;
148.8000;0.7823;3.6538;
149.1000;0.7798;3.6394;
149.4000;0.7798;3.6250;
149.7000;0.7823;3.6346;
150.0000;0.7831;3.6274;
150.3000;0.7823;3.6226;
150.6000;0.7814;3.6346;
150.9000;0.7782;3.6370;
151.2000;0.7774;3.6370;
151.5000;0.7782;3.6370;
151.8000;0.7782;3.6322;
152.1000;0.7798;3.6322;
152.4000;0.7798;3.6370;
152.7000;0.7798;3.6418;
153.0000;0.7806;3.6538;
153.3000;0.7782;3.6490;
153.6000;0.7798;3.6514;
153.9000;0.7790;3.6538;
154.2000;0.7790;3.6490;
154.5000;0.7790;3.6466;
154.8000;0.7757;3.6394;
155.1000;0.7790;3.6490;
155.4000;0.7782;3.6490;
155.7000;0.7782;3.6370;
156.0000;0.7806;3.6394;
156.3000;0.7782;3.6370;
156.6000;0.7831;3.6442;
156.9000;0.7814;3.6442;
157.2000;0.7774;3.6370;
157.5000;0.7782;3.6346;
157.8000;0.7790;3.6346;
158.1000;0.7774;3.6370;
158.4000;0.7774;3.6346;
158.7000;0.7766;3.6394;
159.0000;0.7766;3.6370;
159.3000;0.7782;3.6346;
159.6000;0.7774;3.6394;
159.9000;0.7774;3.6394;
160.2000;0.7774;3.6418;
160.5000;0.7774;3.6370;
160.8000;0.7798;3.6514;
161.1000;0.7774;3.6514;
161.4000;0.7790;3.6538;
161.7000;0.7774;3.6514;
162.0000;0.7798;3.6562;
162.3000;0.7782;3.6490;
162.6000;0.7790;3.6442;
162.9000;0.7782;3.6370;
163.2000;0.7798;3.6442;
163.5000;0.7790;3.6418;
163.8000;0.7806;3.6466;
164.1000;0.7806;3.6442;
164.4000;0.7823;3.6490;
164.7000;0.7790;3.6418;
165.0000;0.7782;3.6418;
165.3000;0.7814;3.6514;
165.6000;0.7798;3.6490;
165.9000;0.7774;3.6346;
166.2000;0.7725;3.6178;
166.5000;0.7782;3.6394;
166.8000;0.7814;3.6514;
167.1000;0.7782;3.6490;
167.4000;0.7782;3.6538;
167.7000;0.7766;3.6298;
168.0000;0.7806;3.6466;
168.3000;0.7790;3.6394;
168.6000;0.7814;3.6442;
168.9000;0.7798;3.6418;
169.2000;0.7790;3.6394;
169.5000;0.7782;3.6394;
169.8000;0.7782;3.6442;
170.1000;0.7798;3.6538;
170.4000;0.7806;3.6634;
170.7000;0.7814;3.6658;
171.0000;0.7798;3.6634;
171.3000;0.7749;3.6442;
171.6000;0.7774;3.6538;
171.9000;0.7774;3.6538;
172.2000;0.7823;3.6658;
172.5000;0.7806;3.6586;
172.8000;0.7766;3.6514;
173.1000;0.7806;3.6562;
173.4000;0.7782;3.6490;
173.7000;0.7814;3.6562;
174.0000;0.7790;3.6634;
174.3000;0.7790;3.6730;
174.6000;0.7798;3.6778;
174.9000;0.7806;3.6778;
175.2000;0.7790;3.6682;
175.5000;0.7790;3.6682;
175.8000;0.7790;3.6706;
176.1000;0.7774;3.6610;
176.4000;0.7774;3.6562;
176.7000;0.7774;3.6514;
177.0000;0.7766;3.6418;
177.3000;0.7774;3.6442;
177.6000;0.7766;3.6418;
177.9000;0.7790;3.6490;
178.2000;0.7806;3.6514;
178.5000;0.7774;3.6370;
178.8000;0.7806;3.6490;
179.1000;0.7774;3.6466;
179.4000;0.7782;3.6538;
179.7000;0.7774;3.6538;
180.0000;0.7766;3.6538;
180.3000;0.7774;3.6562;
180.6000;0.7798;3.6586;
180.9000;0.7798;3.6562;
181.2000;0.7798;3.6610;
181.5000;0.7774;3.6586;
181.8000;0.7790;3.6514;
182.1000;0.7692;3.6274;
182.4000;0.7806;3.6442;
182.7000;0.7782;3.6394;
183.0000;0.7717;3.6298;
183.3000;0.7774;3.6442;
183.6000;0.7782;3.6538;
183.9000;0.7790;3.6466;
184.2000;0.7782;3.6490;
184.5000;0.7782;3.6538;
184.8000;0.7782;3.6586;
185.1000;0.7782;3.6538;
185.4000;0.7790;3.6490;
185.7000;0.7782;3.6418;
186.0000;0.7790;3.6466;
186.3000;0.7790;3.6490;
186.6000;0.7782;3.6610;
186.9000;0.7774;3.6634;
187.2000;0.7790;3.6682;
187.5000;0.7782;3.6682;
187.8000;0.7782;3.6730;
188.1000;0.7855;3.6898;
188.4000;0.7798;3.6754;
188.7000;0.7757;3.6682;
189.0000;0.7782;3.6754;
189.3000;0.7790;3.6658;
189.6000;0.7831;3.6658;
189.9000;0.7798;3.6634;
190.2000;0.7798;3.6586;
190.5000;0.7782;3.6562;
190.8000;0.7790;3.6514;
191.1000;0.7798;3.6514;
191.4000;0.7782;3.6466;
191.7000;0.7774;3.6490;
192.0000;0.7782;3.6538;
192.3000;0.7782;3.6538;
192.6000;0.7749;3.6442;
192.9000;0.7782;3.6586;
193.2000;0.7790;3.6562;
193.5000;0.7806;3.6514;
193.8000;0.7798;3.6466;
194.1000;0.7766;3.6442;
194.4000;0.7798;3.6490;
194.7000;0.7798;3.6514;
195.0000;0.7790;3.6442;
195.3000;0.7839;3.6514;
195.6000;0.7790;3.6442;
195.9000;0.7790;3.6538;
196.2000;0.7782;3.6538;
196.5000;0.7790;3.6538;
196.8000;0.7782;3.6562;
197.1000;0.7790;3.6562;
197.4000;0.7766;3.6586;
197.7000;0.7774;3.6610;
198.0000;0.7790;3.6610;
198.3000;0.7790;3.6610;
198.6000;0.7790;3.6634;
198.9000;0.7814;3.6682;
199.2000;0.7798;3.6658;
199.5000;0.7782;3.6706;
199.8000;0.7782;3.6682;
200.1000;0.7798;3.6706;
200.4000;0.7774;3.6634;
200.7000;0.7774;3.6562;
201.0000;0.7806;3.6634;
201.3000;0.7774;3.6514;
201.6000;0.7790;3.6490;
201.9000;0.7749;3.6418;
202.2000;0.7774;3.6322;
202.5000;0.7766;3.6298;
202.8000;0.7782;3.6442;
203.1000;0.7676;3.6202;
203.4000;0.7863;3.6730;
203.7000;0.7774;3.6490;
204.0000;0.7766;3.6466;
204.3000;0.7749;3.6442;
204.6000;0.7814;3.6490;
204.9000;0.7798;3.6418;
205.2000;0.7774;3.6394;
205.5000;0.7782;3.6394;
205.8000;0.7790;3.6466;
206.1000;0.7790;3.6466;
206.4000;0.7774;3.6466;
206.7000;0.7757;3.6394;
207.0000;0.7766;3.6370;
207.3000;0.7790;3.6346;
207.6000;0.7790;3.6322;
207.9000;0.7757;3.6298;
208.2000;0.7806;3.6322;
208.5000;0.7798;3.6346;
208.8000;0.7790;3.6202;
209.1000;0.7782;3.6226;
209.4000;0.7790;3.6250;
209.7000;0.7757;3.6274;
210.0000;0.7766;3.6394;
210.3000;0.7774;3.6418;
210.6000;0.7766;3.6418;
210.9000;0.7733;3.6442;
211.2000;0.7717;3.6490;
211.5000;0.7782;3.6658;
211.8000;0.7790;3.6658;
212.1000;0.7782;3.6586;
212.4000;0.7774;3.6610;
212.7000;0.7790;3.6610;
213.0000;0.7814;3.6610;
213.3000;0.7798;3.6514;
213.6000;0.7896;3.6754;
213.9000;0.7766;3.6418;
214.2000;0.7871;3.6706;
214.5000;0.7774;3.6442;
214.8000;0.7798;3.6538;
215.1000;0.7798;3.6562;
215.4000;0.7782;3.6610;
215.7000;0.7782;3.6538;
216.0000;0.7790;3.6538;
216.3000;0.7798;3.6490;
216.6000;0.7790;3.6562;
216.9000;0.7798;3.6586;
217.2000;0.7782;3.6562;
217.5000;0.7790;3.6562;
217.8000;0.7757;3.6466;
218.1000;0.7766;3.6418;
218.4000;0.7790;3.6562;
218.7000;0.7790;3.6514;
219.0000;0.7774;3.6538;
219.3000;0.7798;3.6538;
219.6000;0.7798;3.6514;
219.9000;0.7798;3.6466;
220.2000;0.7806;3.6442;
220.5000;0.7774;3.6346;
220.8000;0.7790;3.6346;
221.1000;0.7774;3.6370;
221.4000;0.7766;3.6394;
221.7000;0.7766;3.6418;
222.0000;0.7757;3.6442;
222.3000;0.7757;3.6418;
222.6000;0.7782;3.6514;
222.9000;0.7798;3.6538;
223.2000;0.7782;3.6418;
223.5000;0.7790;3.6442;
223.8000;0.7790;3.6418;
224.1000;0.7806;3.6538;
224.4000;0.7806;3.6586;
224.7000;0.7782;3.6634;
225.0000;0.7798;3.6706;
225.3000;0.7782;3.6730;
225.6000;0.7757;3.6634;
225.9000;0.7766;3.6682;
226.2000;0.7774;3.6706;
226.5000;0.7790;3.6610;
226.8000;0.7766;3.6442;
227.1000;0.7749;3.6370;
227.4000;0.7725;3.6274;
227.7000;0.7798;3.6466;
228.0000;0.7782;3.6490;
228.3000;0.7782;3.6538;
228.6000;0.7774;3.6490;
228.9000;0.7798;3.6562;
229.2000;0.7782;3.6586;
229.5000;0.7766;3.6658;
229.8000;0.7774;3.6706;
230.1000;0.7790;3.6730;
230.4000;0.7749;3.6706;
230.7000;0.7774;3.6802;
231.0000;0.7741;3.6706;
231.3000;0.7782;3.6778;
231.6000;0.7798;3.6730;
231.9000;0.7774;3.6610;
232.2000;0.7766;3.6586;
232.5000;0.7774;3.6562;
232.8000;0.7790;3.6562;
233.1000;0.7774;3.6490;
233.4000;0.7831;3.6634;
233.7000;0.7782;3.6490;
234.0000;0.7790;3.6562;
234.3000;0.7798;3.6490;
234.6000;0.7798;3.6418;
234.9000;0.7766;3.6418;
235.2000;0.7831;3.6586;
235.5000;0.7766;3.6442;
235.8000;0.7790;3.6466;
236.1000;0.7774;3.6514;
236.4000;0.7741;3.6418;
236.7000;0.7774;3.6514;
237.0000;0.7782;3.6586;
237.3000;0.7774;3.6562;
237.6000;0.7814;3.6682;
237.9000;0.7774;3.6562;
238.2000;0.7774;3.6634;
238.5000;0.7766;3.6562;
238.8000;0.7782;3.6562;
239.1000;0.7806;3.6586;
239.4000;0.7790;3.6562;
239.7000;0.7855;3.6706;
240.0000;0.7790;3.6538;
240.3000;0.7782;3.6442;
240.6000;0.7806;3.6514;
240.9000;0.7757;3.6394;
241.2000;0.7766;3.6466;
241.5000;0.7790;3.6418;
241.8000;0.7806;3.6514;
242.1000;0.7814;3.6562;
242.4000;0.7766;3.6466;
242.7000;0.7749;3.6346;
243.0000;0.7790;3.6490;
243.3000;0.7814;3.6610;
243.6000;0.7749;3.6442;
243.9000;0.7725;3.6298;
244.2000;0.7757;3.6250;
244.5000;0.7790;3.6346;
244.8000;0.7700;3.6130;
245.1000;0.7798;3.6442;
245.4000;0.7774;3.6370;
245.7000;0.7749;3.6322;
246.0000;0.7757;3.6298;
246.3000;0.7757;3.6322;
246.6000;0.7774;3.6466;
246.9000;0.7782;3.6442;
247.2000;0.7766;3.6466;
247.5000;0.7774;3.6490;
247.8000;0.7774;3.6562;
248.1000;0.7782;3.6490;
248.4000;0.7782;3.6490;
248.7000;0.7782;3.6562;
249.0000;0.7782;3.6586;
249.3000;0.7790;3.6730;
249.6000;0.7790;3.6898;
249.9000;0.7790;3.6826;
250.2000;0.7782;3.6874;
250.5000;0.7782;3.6970;
250.8000;0.7790;3.6946;
251.1000;0.7774;3.6850;
251.4000;0.7741;3.6802;
251.7000;0.7782;3.6850;
252.0000;0.7790;3.6874;
252.3000;0.7774;3.6754;
252.6000;0.7790;3.6778;
252.9000;0.7774;3.6730;
253.2000;0.7798;3.6778;
253.5000;0.7782;3.6802;
253.8000;0.7774;3.6730;
254.1000;0.7790;3.6826;
254.4000;0.7774;3.6874;
254.7000;0.7774;3.6874;
255.0000;0.7774;3.6778;
255.3000;0.7782;3.6802;
255.6000;0.7757;3.6682;
255.9000;0.7782;3.6682;
256.2000;0.7790;3.6682;
256.5000;0.7766;3.6682;
256.8000;0.7766;3.6610;
257.1000;0.7733;3.6562;
257.4000;0.7839;3.6826;
257.7000;0.7757;3.6610;
258.0000;0.7766;3.6610;
258.3000;0.7831;3.6730;
258.6000;0.7757;3.6538;
258.9000;0.7774;3.6562;
259.2000;0.7782;3.6610;
259.5000;0.7790;3.6610;
259.8000;0.7757;3.6634;
260.1000;0.7766;3.6682;
260.4000;0.7774;3.6730;
260.7000;0.7790;3.6778;
261.0000;0.7782;3.6610;
261.3000;0.7798;3.6610;
261.6000;0.7782;3.6586;
261.9000;0.7798;3.6586;
262.2000;0.7839;3.6682;
262.5000;0.7782;3.6466;
262.8000;0.7790;3.6514;
263.1000;0.7814;3.6562;
263.4000;0.7790;3.6562;
263.7000;0.7766;3.6538;
264.0000;0.7798;3.6682;
264.3000;0.7757;3.6586;
264.6000;0.7757;3.6514;
264.9000;0.7782;3.6586;
265.2000;0.7766;3.6562;
265.5000;0.7790;3.6682;
265.8000;0.7782;3.6658;
266.1000;0.7782;3.6682;
266.4000;0.7782;3.6826;
266.7000;0.7839;3.6946;
267.0000;0.7790;3.6826;
267.3000;0.7790;3.6778;
267.6000;0.7806;3.6682;
267.9000;0.7782;3.6610;
268.2000;0.7766;3.6610;
268.5000;0.7782;3.6610;
268.8000;0.7814;3.6754;
269.1000;0.7782;3.6754;
269.4000;0.7749;3.6754;
269.7000;0.7766;3.6730;
270.0000;0.7798;3.6730;
270.3000;0.7757;3.6658;
270.6000;0.7782;3.6634;
270.9000;0.7774;3.6610;
271.2000;0.7774;3.6610;
271.5000;0.7774;3.6538;
271.8000;0.7782;3.6562;
272.1000;0.7766;3.6610;
272.4000;0.7757;3.6490;
272.7000;0.7774;3.6442;
273.0000;0.7757;3.6394;
273.3000;0.7782;3.6442;
273.6000;0.7774;3.6562;
273.9000;0.7798;3.6634;
274.2000;0.7782;3.6682;
274.5000;0.7790;3.6658;
274.8000;0.7782;3.6634;
275.1000;0.7790;3.6634;
275.4000;0.7790;3.6586;
275.7000;0.7806;3.6634;
276.0000;0.7798;3.6610;
276.3000;0.7790;3.6562;
276.6000;0.7806;3.6538;
276.9000;0.7782;3.6442;
277.2000;0.7790;3.6562;
277.5000;0.7774;3.6562;
277.8000;0.7790;3.6538;
278.1000;0.7790;3.6466;
278.4000;0.7782;3.6346;
278.7000;0.7757;3.6274;
279.0000;0.7757;3.6370;
279.3000;0.7806;3.6466;
279.6000;0.7782;3.6466;
279.9000;0.7774;3.6442;
280.2000;0.7839;3.6586;
280.5000;0.7774;3.6418;
280.8000;0.7782;3.6514;
281.1000;0.7757;3.6466;
281.4000;0.7766;3.6538;
281.7000;0.7774;3.6514;
282.0000;0.7782;3.6586;
282.3000;0.7798;3.6610;
282.6000;0.7814;3.6682;
282.9000;0.7831;3.6730;
283.2000;0.7814;3.6706;
283.5000;0.7782;3.6610;
283.8000;0.7790;3.6634;
284.1000;0.7790;3.6610;
284.4000;0.7790;3.6562;
284.7000;0.7790;3.6538;
285.0000;0.7798;3.6586;
285.3000;0.7790;3.6538;
285.6000;0.7790;3.6466;
285.9000;0.7782;3.6514;
286.2000;0.7741;3.6466;
286.5000;0.7774;3.6562;
286.8000;0.7782;3.6586;
287.1000;0.7790;3.6586;
287.4000;0.7766;3.6562;
287.7000;0.7717;3.6442;
288.0000;0.7790;3.6658;
288.3000;0.7774;3.6610;
288.6000;0.7774;3.6514;
288.9000;0.7782;3.6562;
289.2000;0.7782;3.6538;
289.5000;0.7766;3.6538;
289.8000;0.7782;3.6538;
290.1000;0.7782;3.6466;
290.4000;0.7782;3.6514;
290.7000;0.7774;3.6514;
291.0000;0.7774;3.6562;
291.3000;0.7774;3.6610;
291.6000;0.7782;3.6610;
291.9000;0.7774;3.6586;
292.2000;0.7782;3.6562;
292.5000;0.7782;3.6562;
292.8000;0.7782;3.6610;
293.1000;0.7774;3.6538;
293.4000;0.7774;3.6658;
293.7000;0.7774;3.6634;
294.0000;0.7774;3.6586;
294.3000;0.7766;3.6586;
294.6000;0.7782;3.6538;
294.9000;0.7782;3.6442;
295.2000;0.7774;3.6538;
295.5000;0.7766;3.6466;
295.8000;0.7774;3.6490;
296.1000;0.7782;3.6586;
296.4000;0.7766;3.6514;
296.7000;0.7774;3.6466;
297.0000;0.7766;3.6514;
297.3000;0.7766;3.6466;
297.6000;0.7790;3.6394;
297.9000;0.7782;3.6394;
298.2000;0.7790;3.6370;
298.5000;0.7790;3.6298;
298.8000;0.7790;3.6274;
299.1000;0.7798;3.6298;
299.4000;0.7782;3.6322;
299.7000;0.7782;3.6418;
300.0000;0.7782;3.6514;
300.3000;0.7782;3.6514;
300.6000;0.7774;3.6490;
300.9000;0.7774;3.6514;
301.2000;0.7782;3.6466;
301.5000;0.7782;3.6538;
301.8000;0.7782;3.6586;
302.1000;0.7766;3.6562;
302.4000;0.7749;3.6514;
302.7000;0.7774;3.6586;
303.0000;0.7733;3.6442;
303.3000;0.7782;3.6586;
303.6000;0.7774;3.6634;
303.9000;0.7757;3.6610;
304.2000;0.7831;3.6754;
304.5000;0.7774;3.6610;
304.8000;0.7782;3.6514;
305.1000;0.7790;3.6466;
305.4000;0.7798;3.6466;
305.7000;0.7774;3.6490;
306.0000;0.7774;3.6442;
306.3000;0.7790;3.6394;
306.6000;0.7774;3.6322;
306.9000;0.7798;3.6442;
307.2000;0.7766;3.6466;
307.5000;0.7774;3.6442;
307.8000;0.7782;3.6418;
308.1000;0.7749;3.6370;
308.4000;0.7774;3.6370;
308.7000;0.7839;3.6514;
309.0000;0.7782;3.6442;
309.3000;0.7774;3.6490;
309.6000;0.7766;3.6490;
309.9000;0.7676;3.6226;
310.2000;0.7774;3.6394;
310.5000;0.7782;3.6370;
310.8000;0.7774;3.6394;
311.1000;0.7733;3.6298;
311.4000;0.7790;3.6370;
311.7000;0.7782;3.6274;
312.0000;0.7790;3.6298;
312.3000;0.7766;3.6250;
312.6000;0.7774;3.6274;
312.9000;0.7782;3.6298;
313.2000;0.7774;3.6322;
313.5000;0.7766;3.6322;
313.8000;0.7847;3.6562;
314.1000;0.7855;3.6490;
314.4000;0.7790;3.6322;
314.7000;0.7782;3.6202;
315.0000;0.7798;3.6202;
315.3000;0.7782;3.6274;
315.6000;0.7790;3.6274;
315.9000;0.7782;3.6346;
316.2000;0.7766;3.6346;
316.5000;0.7774;3.6394;
316.8000;0.7790;3.6394;
317.1000;0.7774;3.6418;
317.4000;0.7766;3.6394;
317.7000;0.7700;3.6226;
318.0000;0.7774;3.6418;
318.3000;0.7766;3.6418;
318.6000;0.7774;3.6418;
318.9000;0.7782;3.6394;
319.2000;0.7766;3.6490;
319.5000;0.7741;3.6466;
319.8000;0.7774;3.6442;
320.1000;0.7782;3.6466;
320.4000;0.7741;3.6346;
320.7000;0.7766;3.6418;
321.0000;0.7774;3.6418;
321.3000;0.7790;3.6538;
321.6000;0.7733;3.6514;
321.9000;0.7774;3.6634;
322.2000;0.7766;3.6586;
322.5000;0.7757;3.6562;
322.8000;0.7766;3.6538;
323.1000;0.7782;3.6538;
323.4000;0.7774;3.6514;
323.7000;0.7766;3.6490;
324.0000;0.7790;3.6586;
324.3000;0.7774;3.6586;
324.6000;0.7766;3.6562;
324.9000;0.7790;3.6586;
325.2000;0.7757;3.6466;
325.5000;0.7766;3.6562;
325.8000;0.7766;3.6586;
326.1000;0.7766;3.6634;
326.4000;0.7766;3.6634;
326.7000;0.7774;3.6562;
327.0000;0.7774;3.6538;
327.3000;0.7766;3.6538;
327.6000;0.7774;3.6562;
327.9000;0.7766;3.6610;
328.2000;0.7790;3.6658;
328.5000;0.7766;3.6586;
328.8000;0.7766;3.6514;
329.1000;0.7790;3.6586;
329.4000;0.7725;3.6394;
329.7000;0.7766;3.6394;
330.0000;0.7790;3.6394;
330.3000;0.7757;3.6370;
330.6000;0.7766;3.6394;
330.9000;0.7774;3.6394;
331.2000;0.7806;3.6418;
331.5000;0.7757;3.6394;
331.8000;0.7774;3.6562;
332.1000;0.7782;3.6562;
332.4000;0.7766;3.6514;
332.7000;0.7790;3.6682;
333.0000;0.7790;3.6658;
333.3000;0.7774;3.6634;
333.6000;0.7790;3.6706;
333.9000;0.7782;3.6586;
334.2000;0.7831;3.6706;
334.5000;0.7782;3.6538;
334.8000;0.7814;3.6610;
335.1000;0.7823;3.6706;
335.4000;0.7806;3.6682;
335.7000;0.7888;3.6802;
336.0000;0.7774;3.6586;
336.3000;0.7709;3.6442;
336.6000;0.7757;3.6538;
336.9000;0.7757;3.6490;
337.2000;0.7806;3.6634;
337.5000;0.7766;3.6490;
337.8000;0.7782;3.6538;
338.1000;0.7757;3.6538;
338.4000;0.7790;3.6658;
338.7000;0.7798;3.6706;
339.0000;0.7774;3.6706;
339.3000;0.7790;3.6730;
339.6000;0.7774;3.6682;
339.9000;0.7766;3.6706;
340.2000;0.7782;3.6754;
340.5000;0.7774;3.6658;
340.8000;0.7774;3.6610;
341.1000;0.7790;3.6634;
341.4000;0.7766;3.6610;
341.7000;0.7766;3.6706;
342.0000;0.7782;3.6730;
342.3000;0.7782;3.6754;
342.6000;0.7766;3.6610;
342.9000;0.7782;3.6634;
343.2000;0.7774;3.6682;
343.5000;0.7782;3.6634;
343.8000;0.7774;3.6562;
344.1000;0.7725;3.6394;
344.4000;0.7798;3.6634;
344.7000;0.7790;3.6586;
345.0000;0.7782;3.6466;
345.3000;0.7782;3.6514;
345.6000;0.7782;3.6466;
345.9000;0.7790;3.6538;
346.2000;0.7766;3.6514;
346.5000;0.7766;3.6562;
346.8000;0.7782;3.6610;
347.1000;0.7774;3.6586;
347.4000;0.7790;3.6610;
347.7000;0.7790;3.6610;
348.0000;0.7790;3.6634;
348.3000;0.7798;3.6658;
348.6000;0.7847;3.6730;
348.9000;0.7774;3.6586;
349.2000;0.7782;3.6634;
349.5000;0.7700;3.6442;
349.8000;0.7790;3.6634;
350.1000;0.7847;3.6706;
350.4000;0.7749;3.6514;
350.7000;0.7806;3.6826;
351.0000;0.7774;3.6658;
351.3000;0.7774;3.6610;
351.6000;0.7749;3.6586;
351.9000;0.7774;3.6682;
352.2000;0.7798;3.6826;
352.5000;0.7774;3.6826;
352.8000;0.7757;3.6778;
353.1000;0.7790;3.6826;
353.4000;0.7774;3.6802;
353.7000;0.7774;3.6826;
354.0000;0.7757;3.6754;
354.3000;0.7871;3.7018;
354.6000;0.7766;3.6730;
354.9000;0.7790;3.6706;
355.2000;0.7766;3.6682;
355.5000;0.7814;3.6778;
355.8000;0.7774;3.6802;
356.1000;0.7782;3.6802;
356.4000;0.7766;3.6778;
356.7000;0.7749;3.6706;
357.0000;0.7766;3.6706;
357.3000;0.7749;3.6634;
357.6000;0.7823;3.6826;
357.9000;0.7749;3.6730;
358.2000;0.7766;3.6730;
358.5000;0.7782;3.6730;
358.8000;0.7774;3.6682;
359.1000;0.7814;3.6778;
359.4000;0.7782;3.6754;
359.7000;0.7814;3.6850;
360.0000;0.7774;3.6730;
360.3000;0.7782;3.6706;
360.6000;0.7676;3.6442;
360.9000;0.7741;3.6610;
361.2000;0.7717;3.6562;
361.5000;0.7782;3.6634;
361.8000;0.7774;3.6610;
362.1000;0.7774;3.6610;
362.4000;0.7774;3.6682;
362.7000;0.7766;3.6682;
363.0000;0.7757;3.6706;
363.3000;0.7757;3.6730;
363.6000;0.7774;3.6682;
363.9000;0.7782;3.6682;
364.2000;0.7790;3.6682;
364.5000;0.7766;3.6634;
364.8000;0.7790;3.6682;
365.1000;0.7774;3.6634;
365.4000;0.7757;3.6610;
365.7000;0.7766;3.6586;
366.0000;0.7766;3.6634;
366.3000;0.7782;3.6682;
366.6000;0.7831;3.6754;
366.9000;0.7774;3.6730;
367.2000;0.7774;3.6730;
367.5000;0.7725;3.6706;
367.8000;0.7774;3.6802;
368.1000;0.7757;3.6826;
368.4000;0.7774;3.6802;
368.7000;0.7774;3.6682;
369.0000;0.7782;3.6682;
369.3000;0.7790;3.6730;
369.6000;0.7782;3.6778;
369.9000;0.7774;3.6754;
370.2000;0.7774;3.6802;
370.5000;0.7774;3.6850;
370.8000;0.7757;3.6826;
371.1000;0.7774;3.6874;
371.4000;0.7782;3.6898;
371.7000;0.7766;3.6826;
372.0000;0.7757;3.6754;
372.3000;0.7757;3.6634;
372.6000;0.7774;3.6706;
372.9000;0.7757;3.6778;
373.2000;0.7757;3.6802;
373.5000;0.7782;3.6802;
373.8000;0.7806;3.6898;
374.1000;0.7782;3.6850;
374.4000;0.7831;3.6922;
374.7000;0.7766;3.6706;
375.0000;0.7806;3.6754;
375.3000;0.7749;3.6634;
375.6000;0.7766;3.6730;
375.9000;0.7766;3.6634;
376.2000;0.7709;3.6466;
376.5000;0.7766;3.6490;
376.8000;0.7766;3.6490;
377.1000;0.7847;3.6706;
377.4000;0.7798;3.6562;
377.7000;0.7806;3.6706;
378.0000;0.7725;3.6490;
378.3000;0.7766;3.6634;
378.6000;0.7757;3.6562;
378.9000;0.7774;3.6562;
379.2000;0.7782;3.6490;
379.5000;0.7782;3.6514;
379.8000;0.7733;3.6442;
380.1000;0.7774;3.6490;
380.4000;0.7782;3.6442;
380.7000;0.7806;3.6466;
381.0000;0.7766;3.6442;
381.3000;0.7766;3.6514;
381.6000;0.7782;3.6610;
381.9000;0.7766;3.6586;
382.2000;0.7766;3.6562;
382.5000;0.7774;3.6586;
382.8000;0.7766;3.6586;
383.1000;0.7782;3.6658;
383.4000;0.7774;3.6514;
383.7000;0.7782;3.6586;
384.0000;0.7757;3.6562;
384.3000;0.7782;3.6610;
384.6000;0.7733;3.6562;
384.9000;0.7766;3.6610;
385.2000;0.7790;3.6610;
385.5000;0.7782;3.6562;
385.8000;0.7774;3.6466;
386.1000;0.7766;3.6394;
386.4000;0.7766;3.6442;
386.7000;0.7774;3.6538;
387.0000;0.7766;3.6442;
387.3000;0.7766;3.6490;
387.6000;0.7782;3.6514;
387.9000;0.7774;3.6562;
388.2000;0.7766;3.6610;
388.5000;0.7757;3.6634;
388.8000;0.7774;3.6730;
389.1000;0.7774;3.6730;
389.4000;0.7766;3.6706;
389.7000;0.7766;3.6658;
390.0000;0.7774;3.6682;
390.3000;0.7774;3.6610;
390.6000;0.7798;3.6706;
390.9000;0.7757;3.6562;
391.2000;0.7774;3.6538;
391.5000;0.7757;3.6538;
391.8000;0.7766;3.6538;
392.1000;0.7757;3.6442;
392.4000;0.7757;3.6394;
392.7000;0.7757;3.6418;
393.0000;0.7757;3.6562;
393.3000;0.7766;3.6610;
393.6000;0.7766;3.6586;
393.9000;0.7757;3.6562;
394.2000;0.7782;3.6610;
394.5000;0.7782;3.6586;
394.8000;0.7749;3.6634;
395.1000;0.7774;3.6706;
395.4000;0.7741;3.6682;
395.7000;0.7774;3.6706;
396.0000;0.7741;3.6658;
396.3000;0.7757;3.6706;
396.6000;0.7749;3.6658;
396.9000;0.7733;3.6562;
397.2000;0.7733;3.6538;
397.5000;0.7741;3.6586;
397.8000;0.7757;3.6658;
398.1000;0.7749;3.6730;
398.4000;0.7766;3.6730;
398.7000;0.7823;3.6754;
399.0000;0.7766;3.6658;
399.3000;0.7741;3.6586;
399.6000;0.7774;3.6610;
399.9000;0.7757;3.6466;
400.2000;0.7700;3.6322;
400.5000;0.7733;3.6394;
400.8000;0.7774;3.6394;
401.1000;0.7741;3.6346;
401.4000;0.7766;3.6442;
401.7000;0.7774;3.6466;
402.0000;0.7774;3.6418;
402.3000;0.7757;3.6370;
402.6000;0.7814;3.6538;
402.9000;0.7766;3.6490;
403.2000;0.7782;3.6610;
403.5000;0.7782;3.6586;
403.8000;0.7766;3.6466;
404.1000;0.7774;3.6610;
404.4000;0.7774;3.6730;
404.7000;0.7790;3.6634;
405.0000;0.7782;3.6682;
405.3000;0.7790;3.6706;
405.6000;0.7790;3.6682;
405.9000;0.7782;3.6610;
406.2000;0.7782;3.6562;
406.5000;0.7774;3.6538;
406.8000;0.7766;3.6562;
407.1000;0.7766;3.6634;
407.4000;0.7757;3.6634;
407.7000;0.7749;3.6610;
408.0000;0.7757;3.6706;
408.3000;0.7782;3.6706;
408.6000;0.7774;3.6706;
408.9000;0.7774;3.6658;
409.2000;0.7766;3.6586;
409.5000;0.7774;3.6490;
409.8000;0.7782;3.6514;
410.1000;0.7790;3.6514;
410.4000;0.7774;3.6514;
410.7000;0.7790;3.6610;
411.0000;0.7774;3.6586;
411.3000;0.7757;3.6562;
411.6000;0.7766;3.6562;
411.9000;0.7757;3.6442;
412.2000;0.7790;3.6490;
412.5000;0.7774;3.6490;
412.8000;0.7766;3.6586;
413.1000;0.7766;3.6634;
413.4000;0.7757;3.6658;
413.7000;0.7757;3.6634;
414.0000;0.7790;3.6634;
414.3000;0.7782;3.6586;
414.6000;0.7782;3.6538;
414.9000;0.7814;3.6586;
415.2000;0.7774;3.6466;
415.5000;0.7741;3.6442;
415.8000;0.7757;3.6442;
416.1000;0.7717;3.6370;
416.4000;0.7774;3.6586;
416.7000;0.7782;3.6562;
417.0000;0.7774;3.6610;
417.3000;0.7766;3.6610;
417.6000;0.7823;3.6826;
417.9000;0.7757;3.6706;
418.2000;0.7766;3.6586;
418.5000;0.7774;3.6538;
418.8000;0.7766;3.6466;
419.1000;0.7774;3.6466;
419.4000;0.7774;3.6586;
419.7000;0.7774;3.6634;
420.0000;0.7766;3.6562;
420.3000;0.7725;3.6538;
420.6000;0.7757;3.6634;
420.9000;0.7741;3.6610;
421.2000;0.7798;3.6658;
421.5000;0.7749;3.6490;
421.8000;0.7757;3.6418;
422.1000;0.7757;3.6394;
422.4000;0.7766;3.6418;
422.7000;0.7782;3.6538;
423.0000;0.7741;3.6514;
423.3000;0.7782;3.6658;
423.6000;0.7774;3.6562;
423.9000;0.7757;3.6538;
424.2000;0.7757;3.6634;
424.5000;0.7774;3.6754;
424.8000;0.7741;3.6610;
425.1000;0.7774;3.6634;
425.4000;0.7766;3.6490;
425.7000;0.7782;3.6466;
426.0000;0.7774;3.6418;
426.3000;0.7774;3.6442;
426.6000;0.7774;3.6394;
426.9000;0.7806;3.6442;
427.2000;0.7774;3.6418;
427.5000;0.7774;3.6442;
427.8000;0.7757;3.6418;
428.1000;0.7766;3.6442;
428.4000;0.7749;3.6418;
428.7000;0.7774;3.6370;
429.0000;0.7782;3.6394;
429.3000;0.7749;3.6394;
429.6000;0.7757;3.6394;
429.9000;0.7782;3.6394;
430.2000;0.7766;3.6442;
430.5000;0.7749;3.6442;
430.8000;0.7766;3.6394;
431.1000;0.7782;3.6370;
431.4000;0.7766;3.6298;
431.7000;0.7766;3.6250;
432.0000;0.7749;3.6226;
432.3000;0.7782;3.6346;
432.6000;0.7766;3.6322;
432.9000;0.7798;3.6394;
433.2000;0.7790;3.6394;
433.5000;0.7766;3.6298;
433.8000;0.7790;3.6322;
434.1000;0.7774;3.6298;
434.4000;0.7774;3.6370;
434.7000;0.7839;3.6466;
435.0000;0.7790;3.6418;
435.3000;0.7782;3.6442;
435.6000;0.7757;3.6394;
435.9000;0.7766;3.6562;
436.2000;0.7766;3.6538;
436.5000;0.7741;3.6610;
436.8000;0.7774;3.6706;
437.1000;0.7757;3.6682;
437.4000;0.7774;3.6730;
437.7000;0.7766;3.6610;
438.0000;0.7757;3.6538;
438.3000;0.7749;3.6538;
438.6000;0.7766;3.6562;
438.9000;0.7774;3.6634;
439.2000;0.7766;3.6610;
439.5000;0.7798;3.6754;
439.8000;0.7717;3.6538;
440.1000;0.7757;3.6706;
440.4000;0.7749;3.6658;
440.7000;0.7766;3.6658;
441.0000;0.7766;3.6610;
441.3000;0.7757;3.6562;
441.6000;0.7766;3.6514;
441.9000;0.7766;3.6514;
442.2000;0.7741;3.6514;
442.5000;0.7766;3.6514;
442.8000;0.7749;3.6538;
443.1000;0.7806;3.6682;
443.4000;0.7757;3.6514;
443.7000;0.7774;3.6538;
444.0000;0.7700;3.6346;
444.3000;0.7749;3.6514;
444.6000;0.7749;3.6514;
444.9000;0.7766;3.6490;
445.2000;0.7725;3.6394;
445.5000;0.7717;3.6370;
445.8000;0.7741;3.6490;
446.1000;0.7774;3.6586;
446.4000;0.7749;3.6490;
446.7000;0.7766;3.6466;
447.0000;0.7766;3.6442;
447.3000;0.7757;3.6466;
447.6000;0.7757;3.6490;
447.9000;0.7766;3.6514;
448.2000;0.7766;3.6514;
448.5000;0.7814;3.6634;
448.8000;0.7733;3.6466;
449.1000;0.7741;3.6442;
449.4000;0.7757;3.6442;
449.7000;0.7847;3.6658;
450.0000;0.7790;3.6682;
450.3000;0.7749;3.6562;
450.6000;0.7774;3.6610;
450.9000;0.7749;3.6442;
451.2000;0.7749;3.6466;
451.5000;0.7790;3.6562;
451.8000;0.7717;3.6562;
452.1000;0.7757;3.6682;
452.4000;0.7766;3.6634;
452.7000;0.7782;3.6778;
453.0000;0.7757;3.6706;
453.3000;0.7766;3.6634;
453.6000;0.7766;3.6610;
453.9000;0.7790;3.6610;
454.2000;0.7757;3.6490;
454.5000;0.7766;3.6538;
454.8000;0.7774;3.6562;
455.1000;0.7766;3.6562;
455.4000;0.7757;3.6562;
455.7000;0.7774;3.6514;
456.0000;0.7782;3.6514;
456.3000;0.7766;3.6490;
456.6000;0.7757;3.6466;
456.9000;0.7774;3.6466;
457.2000;0.7782;3.6514;
457.5000;0.7782;3.6490;
457.8000;0.7774;3.6442;
458.1000;0.7766;3.6418;
458.4000;0.7749;3.6442;
458.7000;0.7757;3.6538;
459.0000;0.7757;3.6610;
459.3000;0.7766;3.6634;
459.6000;0.7774;3.6538;
459.9000;0.7782;3.6562;
460.2000;0.7823;3.6706;
460.5000;0.7766;3.6562;
460.8000;0.7790;3.6562;
461.1000;0.7757;3.6490;
461.4000;0.7749;3.6418;
461.7000;0.7757;3.6418;
462.0000;0.7766;3.6490;
462.3000;0.7733;3.6490;
462.6000;0.7774;3.6658;
462.9000;0.7766;3.6634;
463.2000;0.7717;3.6562;
463.5000;0.7766;3.6562;
463.8000;0.7749;3.6586;
464.1000;0.7766;3.6610;
464.4000;0.7782;3.6634;
464.7000;0.7774;3.6538;
465.0000;0.7766;3.6466;
465.3000;0.7741;3.6538;
465.6000;0.7766;3.6610;
465.9000;0.7774;3.6610;
466.2000;0.7749;3.6586;
466.5000;0.7774;3.6634;
466.8000;0.7749;3.6538;
467.1000;0.7757;3.6538;
467.4000;0.7757;3.6562;
467.7000;0.7774;3.6658;
468.0000;0.7839;3.6802;
468.3000;0.7757;3.6610;
468.6000;0.7757;3.6634;
468.9000;0.7774;3.6610;
469.2000;0.7774;3.6610;
469.5000;0.7774;3.6610;
469.8000;0.7757;3.6586;
470.1000;0.7733;3.6586;
470.4000;0.7766;3.6634;
470.7000;0.7725;3.6490;
471.0000;0.7749;3.6562;
471.3000;0.7766;3.6538;
471.6000;0.7806;3.6634;
471.9000;0.7774;3.6514;
472.2000;0.7766;3.6514;
472.5000;0.7766;3.6466;
472.8000;0.7766;3.6490;
473.1000;0.7766;3.6514;
473.4000;0.7757;3.6610;
473.7000;0.7717;3.6610;
474.0000;0.7749;3.6634;
474.3000;0.7774;3.6730;
474.6000;0.7733;3.6634;
474.9000;0.7749;3.6682;
475.2000;0.7757;3.6730;
475.5000;0.7741;3.6802;
475.8000;0.7782;3.6874;
476.1000;0.7749;3.6706;
476.4000;0.7757;3.6706;
476.7000;0.7782;3.6754;
477.0000;0.7757;3.6682;
477.3000;0.7749;3.6658;
477.6000;0.7749;3.6706;
477.9000;0.7757;3.6682;
478.2000;0.7766;3.6706;
478.5000;0.7757;3.6610;
478.8000;0.7741;3.6538;
479.1000;0.7757;3.6586;
479.4000;0.7757;3.6538;
479.7000;0.7717;3.6490;
480.0000;0.7741;3.6562;
480.3000;0.7766;3.6586;
480.6000;0.7774;3.6610;
480.9000;0.7774;3.6658;
481.2000;0.7757;3.6634;
481.5000;0.7749;3.6610;
481.8000;0.7757;3.6706;
482.1000;0.7766;3.6730;
482.4000;0.7741;3.6778;
482.7000;0.7717;3.6706;
483.0000;0.7741;3.6658;
483.3000;0.7782;3.6658;
483.6000;0.7774;3.6610;
483.9000;0.7757;3.6562;
484.2000;0.7782;3.6610;
484.5000;0.7766;3.6562;
484.8000;0.7757;3.6490;
485.1000;0.7757;3.6370;
485.4000;0.7741;3.6226;
485.7000;0.7766;3.6298;
486.0000;0.7774;3.6274;
486.3000;0.7749;3.6274;
486.6000;0.7757;3.6250;
486.9000;0.7757;3.6154;
487.2000;0.7733;3.6130;
487.5000;0.7766;3.6250;
487.8000;0.7733;3.6226;
488.1000;0.7757;3.6202;
488.4000;0.7774;3.6178;
488.7000;0.7757;3.6178;
489.0000;0.7766;3.6298;
489.3000;0.7757;3.6298;
489.6000;0.7766;3.6274;
489.9000;0.7733;3.6298;
490.2000;0.7774;3.6370;
490.5000;0.7774;3.6322;
490.8000;0.7766;3.6298;
491.1000;0.7823;3.6442;
491.4000;0.7766;3.6394;
491.7000;0.7790;3.6466;
492.0000;0.7700;3.6226;
492.3000;0.7766;3.6346;
492.6000;0.7806;3.6442;
492.9000;0.7741;3.6322;
493.2000;0.7733;3.6298;
493.5000;0.7766;3.6346;
493.8000;0.7749;3.6274;
494.1000;0.7757;3.6202;
494.4000;0.7676;3.6058;
494.7000;0.7757;3.6274;
495.0000;0.7782;3.6274;
495.3000;0.7766;3.6202;
495.6000;0.7766;3.6226;
495.9000;0.7774;3.6298;
496.2000;0.7749;3.6370;
496.5000;0.7757;3.6322;
496.8000;0.7700;3.6250;
497.1000;0.7733;3.6418;
497.4000;0.7741;3.6370;
497.7000;0.7741;3.6370;
498.0000;0.7749;3.6442;
498.3000;0.7749;3.6418;
498.6000;0.7741;3.6322;
498.9000;0.7741;3.6346;
499.2000;0.7749;3.6370;
499.5000;0.7757;3.6514;
499.8000;0.7774;3.6586;
500.1000;0.7774;3.6538;
500.4000;0.7766;3.6466;
500.7000;0.7757;3.6370;
501.0000;0.7782;3.6466;
501.3000;0.7766;3.6370;
501.6000;0.7749;3.6394;
501.9000;0.7766;3.6466;
502.2000;0.7757;3.6466;
502.5000;0.7766;3.6538;
502.8000;0.7749;3.6538;
503.1000;0.7766;3.6442;
503.4000;0.7757;3.6394;
503.7000;0.7766;3.6394;
504.0000;0.7749;3.6370;
504.3000;0.7782;3.6394;
504.6000;0.7766;3.6370;
504.9000;0.7709;3.6274;
505.2000;0.7749;3.6298;
505.5000;0.7757;3.6346;
505.8000;0.7766;3.6322;
506.1000;0.7766;3.6298;
506.4000;0.7757;3.6298;
506.7000;0.7733;3.6226;
507.0000;0.7774;3.6298;
507.3000;0.7766;3.6322;
507.6000;0.7798;3.6418;
507.9000;0.7749;3.6370;
508.2000;0.7749;3.6394;
508.5000;0.7806;3.6442;
508.8000;0.7757;3.6322;
509.1000;0.7733;3.6202;
509.4000;0.7749;3.6178;
509.7000;0.7766;3.6274;
510.0000;0.7733;3.6250;
510.3000;0.7766;3.6298;
510.6000;0.7749;3.6346;
510.9000;0.7766;3.6394;
511.2000;0.7766;3.6466;
511.5000;0.7757;3.6466;
511.8000;0.7757;3.6418;
512.1000;0.7749;3.6394;
512.4000;0.7782;3.6370;
512.7000;0.7782;3.6370;
513.0000;0.7717;3.6274;
513.3000;0.7757;3.6298;
513.6000;0.7774;3.6418;
513.9000;0.7766;3.6466;
514.2000;0.7725;3.6322;
514.5000;0.7774;3.6490;
514.8000;0.7766;3.6514;
515.1000;0.7774;3.6514;
515.4000;0.7766;3.6490;
515.7000;0.7774;3.6466;
516.0000;0.7757;3.6442;
516.3000;0.7774;3.6442;
516.6000;0.7757;3.6394;
516.9000;0.7806;3.6586;
517.2000;0.7725;3.6442;
517.5000;0.7806;3.6634;
517.8000;0.7749;3.6466;
518.1000;0.7757;3.6466;
518.4000;0.7749;3.6442;
518.7000;0.7774;3.6610;
519.0000;0.7766;3.6514;
519.3000;0.7749;3.6442;
519.6000;0.7766;3.6394;
519.9000;0.7700;3.6274;
520.2000;0.7766;3.6394;
520.5000;0.7774;3.6394;
520.8000;0.7757;3.6394;
521.1000;0.7757;3.6418;
521.4000;0.7766;3.6418;
521.7000;0.7757;3.6394;
522.0000;0.7717;3.6322;
522.3000;0.7741;3.6418;
522.6000;0.7757;3.6394;
522.9000;0.7717;3.6322;
523.2000;0.7757;3.6442;
523.5000;0.7749;3.6418;
523.8000;0.7749;3.6442;
524.1000;0.7749;3.6394;
524.4000;0.7757;3.6418;
524.7000;0.7749;3.6394;
525.0000;0.7709;3.6274;
525.3000;0.7782;3.6442;
525.6000;0.7766;3.6466;
525.9000;0.7774;3.6442;
526.2000;0.7766;3.6490;
526.5000;0.7757;3.6514;
526.8000;0.7774;3.6514;
527.1000;0.7749;3.6466;
527.4000;0.7774;3.6610;
527.7000;0.7749;3.6610;
528.0000;0.7757;3.6538;
528.3000;0.7749;3.6562;
528.6000;0.7766;3.6634;
528.9000;0.7757;3.6658;
529.2000;0.7782;3.6682;
529.5000;0.7733;3.6538;
529.8000;0.7766;3.6658;
530.1000;0.7741;3.6682;
530.4000;0.7806;3.6826;
530.7000;0.7757;3.6634;
531.0000;0.7733;3.6610;
531.3000;0.7766;3.6730;
531.6000;0.7806;3.6850;
531.9000;0.7692;3.6586;
532.2000;0.7717;3.6682;
532.5000;0.7733;3.6730;
532.8000;0.7749;3.6754;
533.1000;0.7749;3.6754;
533.4000;0.7741;3.6730;
533.7000;0.7700;3.6682;
534.0000;0.7757;3.6802;
534.3000;0.7733;3.6658;
534.6000;0.7741;3.6682;
534.9000;0.7741;3.6658;
535.2000;0.7782;3.6706;
535.5000;0.7774;3.6730;
535.8000;0.7749;3.6610;
536.1000;0.7749;3.6610;
536.4000;0.7709;3.6466;
536.7000;0.7774;3.6610;
537.0000;0.7757;3.6466;
537.3000;0.7757;3.6562;
537.6000;0.7774;3.6610;
537.9000;0.7766;3.6610;
538.2000;0.7757;3.6586;
538.5000;0.7749;3.6490;
538.8000;0.7757;3.6418;
539.1000;0.7766;3.6466;
539.4000;0.7774;3.6538;
539.7000;0.7774;3.6682;
540.0000;0.7766;3.6730;
540.3000;0.7790;3.6778;
540.6000;0.7766;3.6682;
540.9000;0.7741;3.6682;
541.2000;0.7757;3.6586;
541.5000;0.7749;3.6538;
541.8000;0.7652;3.6322;
542.1000;0.7684;3.6394;
542.4000;0.7757;3.6586;
542.7000;0.7700;3.6466;
543.0000;0.7774;3.6586;
543.3000;0.7741;3.6538;
543.6000;0.7700;3.6514;
543.9000;0.7757;3.6658;
544.2000;0.7757;3.6634;
544.5000;0.7684;3.6538;
544.8000;0.7757;3.6754;
545.1000;0.7749;3.6802;
545.4000;0.7766;3.6826;
545.7000;0.7749;3.6778;
546.0000;0.7757;3.6754;
546.3000;0.7757;3.6706;
546.6000;0.7733;3.6754;
546.9000;0.7814;3.6874;
547.2000;0.7757;3.6778;
547.5000;0.7757;3.6778;
547.8000;0.7757;3.6778;
548.1000;0.7757;3.6706;
548.4000;0.7757;3.6658;
548.7000;0.7749;3.6634;
549.0000;0.7757;3.6610;
549.3000;0.7766;3.6658;
549.6000;0.7757;3.6658;
549.9000;0.7757;3.6562;
550.2000;0.7766;3.6610;
550.5000;0.7766;3.6682;
550.8000;0.7766;3.6730;
551.1000;0.7733;3.6634;
551.4000;0.7766;3.6730;
551.7000;0.7774;3.6706;
552.0000;0.7757;3.6706;
552.3000;0.7757;3.6682;
552.6000;0.7733;3.6682;
552.9000;0.7749;3.6682;
553.2000;0.7766;3.6634;
553.5000;0.7749;3.6610;
553.8000;0.7757;3.6682;
554.1000;0.7766;3.6658;
554.4000;0.7725;3.6562;
554.7000;0.7766;3.6586;
555.0000;0.7757;3.6538;
555.3000;0.7757;3.6610;
555.6000;0.7684;3.6610;
555.9000;0.7798;3.6826;
556.2000;0.7741;3.6682;
556.5000;0.7725;3.6658;
556.8000;0.7757;3.6586;
557.1000;0.7766;3.6586;
557.4000;0.7766;3.6562;
557.7000;0.7757;3.6442;
558.0000;0.7733;3.6298;
558.3000;0.7798;3.6466;
558.6000;0.7741;3.6322;
558.9000;0.7733;3.6346;
559.2000;0.7733;3.6274;
559.5000;0.7774;3.6394;
559.8000;0.7757;3.6394;
560.1000;0.7749;3.6418;
560.4000;0.7741;3.6346;
560.7000;0.7766;3.6514;
561.0000;0.7839;3.6658;
561.3000;0.7749;3.6514;
561.6000;0.7757;3.6562;
561.9000;0.7782;3.6442;
562.2000;0.7700;3.6226;
562.5000;0.7766;3.6490;
562.8000;0.7749;3.6394;
563.1000;0.7790;3.6562;
563.4000;0.7757;3.6418;
563.7000;0.7814;3.6658;
564.0000;0.7660;3.6346;
564.3000;0.7741;3.6610;
564.6000;0.7757;3.6562;
564.9000;0.7733;3.6418;
565.2000;0.7757;3.6490;
565.5000;0.7757;3.6466;
565.8000;0.7749;3.6490;
566.1000;0.7717;3.6466;
566.4000;0.7717;3.6490;
566.7000;0.7749;3.6514;
567.0000;0.7749;3.6466;
567.3000;0.7757;3.6466;
567.6000;0.7782;3.6514;
567.9000;0.7741;3.6514;
568.2000;0.7749;3.6538;
568.5000;0.7757;3.6514;
568.8000;0.7749;3.6538;
569.1000;0.7749;3.6586;
569.4000;0.7766;3.6634;
569.7000;0.7766;3.6658;
570.0000;0.7749;3.6682;
570.3000;0.7749;3.6706;
570.6000;0.7782;3.6754;
570.9000;0.7774;3.6778;
571.2000;0.7782;3.6778;
571.5000;0.7782;3.6730;
571.8000;0.7774;3.6658;
572.1000;0.7766;3.6682;
572.4000;0.7774;3.6682;
572.7000;0.7774;3.6610;
573.0000;0.7749;3.6562;
573.3000;0.7766;3.6514;
573.6000;0.7774;3.6514;
573.9000;0.7749;3.6586;
574.2000;0.7749;3.6610;
574.5000;0.7757;3.6562;
574.8000;0.7790;3.6562;
575.1000;0.7757;3.6562;
575.4000;0.7757;3.6610;
575.7000;0.7766;3.6634;
576.0000;0.7757;3.6562;
576.3000;0.7757;3.6514;
576.6000;0.7757;3.6490;
576.9000;0.7749;3.6346;
577.2000;0.7757;3.6370;
577.5000;0.7733;3.6370;
577.8000;0.7741;3.6418;
578.1000;0.7741;3.6466;
578.4000;0.7733;3.6514;
578.7000;0.7749;3.6586;
579.0000;0.7741;3.6634;
579.3000;0.7733;3.6538;
579.6000;0.7733;3.6538;
579.9000;0.7741;3.6586;
580.2000;0.7749;3.6538;
580.5000;0.7725;3.6418;
580.8000;0.7741;3.6418;
581.1000;0.7700;3.6370;
581.4000;0.7733;3.6394;
581.7000;0.7782;3.6562;
582.0000;0.7806;3.6586;
582.3000;0.7741;3.6442;
582.6000;0.7741;3.6538;
582.9000;0.7749;3.6538;
583.2000;0.7692;3.6394;
583.5000;0.7757;3.6490;
583.8000;0.7749;3.6538;
584.1000;0.7774;3.6586;
584.4000;0.7766;3.6538;
584.7000;0.7741;3.6466;
585.0000;0.7766;3.6442;
585.3000;0.7741;3.6442;
585.6000;0.7757;3.6466;
585.9000;0.7766;3.6514;
586.2000;0.7782;3.6562;
586.5000;0.7757;3.6466;
586.8000;0.7766;3.6442;
587.1000;0.7790;3.6538;
587.4000;0.7766;3.6394;
587.7000;0.7700;3.6322;
588.0000;0.7749;3.6442;
588.3000;0.7741;3.6442;
588.6000;0.7782;3.6610;
588.9000;0.7766;3.6514;
589.2000;0.7733;3.6418;
589.5000;0.7749;3.6442;
589.8000;0.7741;3.6514;
590.1000;0.7749;3.6562;
590.4000;0.7733;3.6538;
590.7000;0.7717;3.6442;
591.0000;0.7741;3.6514;
591.3000;0.7741;3.6466;
591.6000;0.7766;3.6442;
591.9000;0.7741;3.6418;
592.2000;0.7749;3.6466;
592.5000;0.7733;3.6370;
592.8000;0.7741;3.6442;
593.1000;0.7733;3.6418;
593.4000;0.7733;3.6466;
593.7000;0.7749;3.6490;
594.0000;0.7749;3.6442;
594.3000;0.7757;3.6490;
594.6000;0.7766;3.6442;
594.9000;0.7741;3.6514;
595.2000;0.7749;3.6514;
595.5000;0.7757;3.6586;
595.8000;0.7733;3.6562;
596.1000;0.7766;3.6538;
596.4000;0.7766;3.6586;
596.7000;0.7749;3.6514;
597.0000;0.7749;3.6562;
597.3000;0.7741;3.6562;
597.6000;0.7749;3.6562;
597.9000;0.7847;3.6850;
598.2000;0.7741;3.6658;
598.5000;0.7757;3.6730;
598.8000;0.7766;3.6682;
599.1000;0.7766;3.6826;
599.4000;0.7725;3.6730;
599.7000;0.7757;3.6754;
600.0000;0.7766;3.6826;
600.3000;0.7757;3.6634;
600.6000;0.7790;3.6514;
600.9000;0.7700;3.6154;
601.2000;0.7725;3.6154;
601.5000;0.7676;3.5866;
601.8000;0.7627;3.5698;
602.1000;0.7578;3.5530;
602.4000;0.7505;3.5338;
602.7000;0.7481;3.5194;
603.0000;0.7407;3.5075;
603.3000;0.7359;3.4811;
603.6000;0.7326;3.4643;
603.9000;0.7277;3.4595;
604.2000;0.7228;3.4499;
604.5000;0.7179;3.4379;
604.8000;0.7171;3.4355;
605.1000;0.7147;3.4307;
605.4000;0.7090;3.4139;
605.7000;0.7074;3.4067;
606.0000;0.7025;3.3947;
606.3000;0.7049;3.4043;
606.6000;0.6992;3.3899;
606.9000;0.6943;3.3731;
607.2000;0.6952;3.3755;
607.5000;0.6911;3.3683;
607.8000;0.6870;3.3683;
608.1000;0.6838;3.3683;
608.4000;0.6862;3.3707;
608.7000;0.6813;3.3587;
609.0000;0.6797;3.3611;
609.3000;0.6756;3.3539;
609.6000;0.6764;3.3635;
609.9000;0.6699;3.3563;
610.2000;0.6724;3.3587;
610.5000;0.6707;3.3539;
610.8000;0.6667;3.3395;
611.1000;0.6691;3.3491;
611.4000;0.6626;3.3395;
611.7000;0.6618;3.3347;
612.0000;0.6610;3.3323;
612.3000;0.6561;3.3251;
612.6000;0.6545;3.3299;
612.9000;0.6536;3.3275;
613.2000;0.6512;3.3299;
613.5000;0.6488;3.3299;
613.8000;0.6488;3.3299;
614.1000;0.6455;3.3299;
614.4000;0.6463;3.3419;
614.7000;0.6439;3.3323;
615.0000;0.6439;3.3203;
615.3000;0.6422;3.3179;
615.6000;0.6406;3.3131;
615.9000;0.6382;3.3083;
616.2000;0.6398;3.3107;
616.5000;0.6374;3.3155;
616.8000;0.6349;3.3107;
617.1000;0.6333;3.3059;
617.4000;0.6333;3.3059;
617.7000;0.6309;3.3131;
618.0000;0.6309;3.3179;
618.3000;0.6292;3.3155;
618.6000;0.6276;3.3035;
618.9000;0.6243;3.3011;
619.2000;0.6268;3.3083;
619.5000;0.6219;3.3035;
619.8000;0.6260;3.3083;
620.1000;0.6211;3.3059;
620.4000;0.6219;3.3131;
620.7000;0.6203;3.3131;
621.0000;0.6186;3.3059;
621.3000;0.6162;3.3035;
621.6000;0.6170;3.3059;
621.9000;0.6138;3.3011;
622.2000;0.6186;3.3131;
622.5000;0.6129;3.3035;
622.8000;0.6113;3.3011;
623.1000;0.6227;3.3323;
623.4000;0.6113;3.3035;
623.7000;0.6113;3.2963;
624.0000;0.6089;3.2915;
624.3000;0.6097;3.2915;
624.6000;0.6032;3.2723;
624.9000;0.6064;3.2795;
625.2000;0.6064;3.2843;
625.5000;0.6024;3.2747;
625.8000;0.6040;3.2843;
626.1000;0.6081;3.2915;
626.4000;0.5983;3.2723;
626.7000;0.5975;3.2603;
627.0000;0.6007;3.2771;
627.3000;0.6024;3.2843;
627.6000;0.5983;3.2723;
627.9000;0.5999;3.2723;
628.2000;0.6007;3.2795;
628.5000;0.5967;3.2675;
628.8000;0.5958;3.2699;
629.1000;0.5975;3.2771;
629.4000;0.5958;3.2771;
629.7000;0.5975;3.2819;
630.0000;0.5918;3.2723;
630.3000;0.5950;3.2723;
630.6000;0.5950;3.2651;
630.9000;0.5934;3.2675;
631.2000;0.5918;3.2627;
631.5000;0.5934;3.2699;
631.8000;0.5926;3.2795;
632.1000;0.5918;3.2795;
632.4000;0.5918;3.2915;
632.7000;0.5893;3.2939;
633.0000;0.5877;3.2915;
633.3000;0.5942;3.3059;
633.6000;0.5926;3.3011;
633.9000;0.5877;3.2963;
634.2000;0.5861;3.2891;
634.5000;0.5877;3.2915;
634.8000;0.5861;3.2819;
635.1000;0.5845;3.2771;
635.4000;0.5845;3.2771;
635.7000;0.5828;3.2819;
636.0000;0.5836;3.2819;
636.3000;0.5845;3.2891;
636.6000;0.5828;3.2867;
636.9000;0.5779;3.2819;
637.2000;0.5836;3.2963;
637.5000;0.5804;3.2843;
637.8000;0.5804;3.2795;
638.1000;0.5796;3.2675;
638.4000;0.5804;3.2651;
638.7000;0.5796;3.2651;
639.0000;0.5804;3.2771;
639.3000;0.5796;3.2843;
639.6000;0.5788;3.2819;
639.9000;0.5771;3.2747;
640.2000;0.5796;3.2795;
640.5000;0.5779;3.2819;
640.8000;0.5771;3.2843;
641.1000;0.5788;3.2891;
641.4000;0.5755;3.2915;
641.7000;0.5796;3.3011;
642.0000;0.5779;3.2963;
642.3000;0.5739;3.2939;
642.6000;0.5739;3.2867;
642.9000;0.5747;3.2795;
643.2000;0.5714;3.2819;
643.5000;0.5739;3.2843;
643.8000;0.5788;3.3035;
644.1000;0.5755;3.3011;
644.4000;0.5706;3.2963;
644.7000;0.5731;3.3107;
645.0000;0.5722;3.3131;
645.3000;0.5690;3.3083;
645.6000;0.5714;3.3011;
645.9000;0.5690;3.2963;
646.2000;0.5690;3.2987;
646.5000;0.5706;3.2987;
646.8000;0.5682;3.2867;
647.1000;0.5755;3.2891;
647.4000;0.5682;3.2723;
647.7000;0.5747;3.2891;
648.0000;0.5665;3.2747;
648.3000;0.5674;3.2795;
648.6000;0.5674;3.2819;
648.9000;0.5649;3.2723;
649.2000;0.5665;3.2795;
649.5000;0.5576;3.2531;
649.8000;0.5649;3.2771;
650.1000;0.5657;3.2723;
650.4000;0.5576;3.2508;
650.7000;0.5625;3.2675;
651.0000;0.5633;3.2627;
651.3000;0.5560;3.2484;
651.6000;0.5617;3.2651;
651.9000;0.5649;3.2819;
652.2000;0.5657;3.2891;
652.5000;0.5617;3.2891;
652.8000;0.5625;3.2939;
653.1000;0.5617;3.2939;
653.4000;0.5633;3.3011;
653.7000;0.5600;3.2915;
654.0000;0.5617;3.2891;
654.3000;0.5608;3.2843;
654.6000;0.5592;3.2819;
654.9000;0.5617;3.2867;
655.2000;0.5535;3.2675;
655.5000;0.5608;3.2891;
655.8000;0.5698;3.3155;
656.1000;0.5600;3.2867;
656.4000;0.5625;3.2915;
656.7000;0.5600;3.2819;
657.0000;0.5608;3.2771;
657.3000;0.5600;3.2699;
657.6000;0.5600;3.2747;
657.9000;0.5584;3.2723;
658.2000;0.5633;3.2891;
658.5000;0.5519;3.2627;
658.8000;0.5592;3.2771;
659.1000;0.5551;3.2651;
659.4000;0.5551;3.2651;
659.7000;0.5576;3.2747;
660.0000;0.5535;3.2699;
660.3000;0.5535;3.2771;
660.6000;0.5543;3.2819;
660.9000;0.5503;3.2699;
661.2000;0.5535;3.2843;
661.5000;0.5543;3.2771;
661.8000;0.5543;3.2723;
662.1000;0.5535;3.2795;
662.4000;0.5535;3.2867;
662.7000;0.5527;3.2819;
663.0000;0.5527;3.2771;
663.3000;0.5535;3.2819;
663.6000;0.5527;3.2723;
663.9000;0.5519;3.2723;
664.2000;0.5535;3.2819;
664.5000;0.5527;3.2771;
664.8000;0.5519;3.2819;
665.1000;0.5495;3.2819;
665.4000;0.5495;3.2891;
665.7000;0.5511;3.2891;
666.0000;0.5503;3.2939;
666.3000;0.5535;3.2939;
666.6000;0.5511;3.2891;
666.9000;0.5511;3.2819;
667.2000;0.5535;3.2867;
667.5000;0.5568;3.2987;
667.8000;0.5576;3.3083;
668.1000;0.5511;3.2819;
668.4000;0.5519;3.2795;
668.7000;0.5503;3.2843;
669.0000;0.5503;3.2819;
669.3000;0.5486;3.2771;
669.6000;0.5478;3.2675;
669.9000;0.5486;3.2675;
670.2000;0.5511;3.2699;
670.5000;0.5486;3.2747;
670.8000;0.5446;3.2747;
671.1000;0.5438;3.2747;
671.4000;0.5511;3.2987;
671.7000;0.5462;3.2891;
672.0000;0.5462;3.2915;
672.3000;0.5364;3.2699;
672.6000;0.5462;3.2963;
672.9000;0.5454;3.2867;
673.2000;0.5462;3.2915;
673.5000;0.5438;3.2939;
673.8000;0.5462;3.2987;
674.1000;0.5446;3.2939;
674.4000;0.5381;3.2723;
674.7000;0.5438;3.2819;
675.0000;0.5446;3.2915;
675.3000;0.5454;3.2915;
675.6000;0.5446;3.2963;
675.9000;0.5454;3.3011;
676.2000;0.5429;3.2891;
676.5000;0.5535;3.3083;
676.8000;0.5446;3.2963;
677.1000;0.5495;3.3179;
677.4000;0.5413;3.3011;
677.7000;0.5446;3.3131;
678.0000;0.5527;3.3299;
678.3000;0.5470;3.3131;
678.6000;0.5438;3.3035;
678.9000;0.5454;3.3179;
679.2000;0.5381;3.3083;
679.5000;0.5421;3.3155;
679.8000;0.5429;3.3131;
680.1000;0.5340;3.2723;
680.4000;0.5413;3.3035;
680.7000;0.5397;3.2987;
681.0000;0.5389;3.2987;
681.3000;0.5438;3.3011;
681.6000;0.5413;3.2963;
681.9000;0.5397;3.2963;
682.2000;0.5438;3.3107;
682.5000;0.5454;3.3035;
682.8000;0.5381;3.2843;
683.1000;0.5413;3.2939;
683.4000;0.5397;3.2891;
683.7000;0.5397;3.2795;
684.0000;0.5405;3.2819;
684.3000;0.5397;3.2795;
684.6000;0.5446;3.2939;
684.9000;0.5397;3.2771;
685.2000;0.5389;3.2795;
685.5000;0.5389;3.2747;
685.8000;0.5389;3.2747;
686.1000;0.5397;3.2843;
686.4000;0.5405;3.2915;
686.7000;0.5397;3.2963;
687.0000;0.5332;3.2819;
687.3000;0.5324;3.2843;
687.6000;0.5381;3.2963;
687.9000;0.5372;3.2963;
688.2000;0.5381;3.2915;
688.5000;0.5356;3.2987;
688.8000;0.5429;3.3203;
689.1000;0.5372;3.3107;
689.4000;0.5372;3.3131;
689.7000;0.5372;3.3131;
690.0000;0.5356;3.3155;
690.3000;0.5364;3.3203;
690.6000;0.5389;3.3275;
690.9000;0.5372;3.3203;
691.2000;0.5372;3.3155;
691.5000;0.5389;3.3179;
691.8000;0.5364;3.3059;
692.1000;0.5356;3.3059;
692.4000;0.5348;3.2915;
692.7000;0.5356;3.2915;
693.0000;0.5315;3.2939;
693.3000;0.5381;3.3131;
693.6000;0.5356;3.3059;
693.9000;0.5324;3.2963;
694.2000;0.5348;3.3011;
694.5000;0.5348;3.3059;
694.8000;0.5356;3.2987;
695.1000;0.5218;3.2723;
695.4000;0.5267;3.2747;
695.7000;0.5356;3.3059;
696.0000;0.5348;3.3059;
696.3000;0.5348;3.3011;
696.6000;0.5275;3.2819;
696.9000;0.5348;3.2987;
697.2000;0.5324;3.3035;
697.5000;0.5372;3.3131;
697.8000;0.5340;3.3035;
698.1000;0.5348;3.2963;
698.4000;0.5348;3.2939;
698.7000;0.5324;3.2867;
699.0000;0.5348;3.2939;
699.3000;0.5332;3.2987;
699.6000;0.5340;3.3011;
699.9000;0.5315;3.3059;
700.2000;0.5340;3.3155;
700.5000;0.5324;3.3155;
700.8000;0.5348;3.3179;
701.1000;0.5364;3.3203;
701.4000;0.5324;3.3035;
701.7000;0.5356;3.3011;
702.0000;0.5340;3.2963;
702.3000;0.5283;3.2867;
702.6000;0.5348;3.3035;
702.9000;0.5315;3.3011;
703.2000;0.5283;3.2915;
703.5000;0.5291;3.2939;
703.8000;0.5315;3.2891;
704.1000;0.5340;3.2939;
704.4000;0.5332;3.2891;
704.7000;0.5307;3.2843;
705.0000;0.5291;3.2747;
705.3000;0.5307;3.2819;
705.6000;0.5315;3.2843;
705.9000;0.5315;3.2843;
706.2000;0.5291;3.2819;
706.5000;0.5315;3.2867;
706.8000;0.5324;3.2843;
707.1000;0.5324;3.2963;
707.4000;0.5315;3.3011;
707.7000;0.5299;3.2963;
708.0000;0.5307;3.2963;
708.3000;0.5324;3.2963;
708.6000;0.5283;3.2867;
708.9000;0.5299;3.2819;
709.2000;0.5307;3.2867;
709.5000;0.5299;3.2891;
709.8000;0.5307;3.2819;
710.1000;0.5299;3.2867;
710.4000;0.5291;3.2915;
710.7000;0.5275;3.2939;
711.0000;0.5291;3.2939;
711.3000;0.5299;3.2843;
711.6000;0.5307;3.2915;
711.9000;0.5307;3.2915;
712.2000;0.5307;3.2963;
712.5000;0.5275;3.2843;
712.8000;0.5267;3.2939;
713.1000;0.5267;3.2939;
713.4000;0.5275;3.2939;
713.7000;0.5258;3.2843;
714.0000;0.5210;3.2747;
714.3000;0.5275;3.2939;
714.6000;0.5299;3.3107;
714.9000;0.5275;3.3059;
715.2000;0.5267;3.2987;
715.5000;0.5258;3.3035;
715.8000;0.5307;3.3131;
716.1000;0.5340;3.3179;
716.4000;0.5348;3.3131;
716.7000;0.5275;3.2915;
717.0000;0.5340;3.3035;
717.3000;0.5275;3.2867;
717.6000;0.5234;3.2747;
717.9000;0.5242;3.2723;
718.2000;0.5242;3.2603;
718.5000;0.5291;3.2819;
718.8000;0.5258;3.2771;
719.1000;0.5210;3.2675;
719.4000;0.5177;3.2603;
719.7000;0.5275;3.2867;
720.0000;0.5250;3.2819;
720.3000;0.5193;3.2651;
720.6000;0.5250;3.2795;
720.9000;0.5258;3.2939;
721.2000;0.5283;3.2987;
721.5000;0.5267;3.2987;
721.8000;0.5250;3.2963;
722.1000;0.5250;3.3059;
722.4000;0.5299;3.3179;
722.7000;0.5250;3.3107;
723.0000;0.5242;3.3059;
723.3000;0.5267;3.3131;
723.6000;0.5250;3.3131;
723.9000;0.5234;3.3011;
724.2000;0.5226;3.2939;
724.5000;0.5250;3.2915;
724.8000;0.5250;3.2915;
725.1000;0.5242;3.2939;
725.4000;0.5226;3.2987;
725.7000;0.5258;3.3083;
726.0000;0.5250;3.3035;
726.3000;0.5250;3.2987;
726.6000;0.5242;3.2867;
726.9000;0.5258;3.2939;
727.2000;0.5258;3.2963;
727.5000;0.5250;3.2939;
727.8000;0.5234;3.3035;
728.1000;0.5258;3.3131;
728.4000;0.5242;3.3131;
728.7000;0.5234;3.3107;
729.0000;0.5234;3.3083;
729.3000;0.5226;3.3155;
729.6000;0.5234;3.3083;
729.9000;0.5193;3.2891;
730.2000;0.5250;3.2987;
730.5000;0.5234;3.3035;
730.8000;0.5234;3.3059;
731.1000;0.5234;3.3035;
731.4000;0.5234;3.3035;
731.7000;0.5226;3.3011;
732.0000;0.5218;3.2963;
732.3000;0.5218;3.3035;
732.6000;0.5242;3.3011;
732.9000;0.5201;3.2963;
733.2000;0.5226;3.2987;
733.5000;0.5226;3.2987;
733.8000;0.5226;3.2963;
734.1000;0.5226;3.2939;
734.4000;0.5242;3.2915;
734.7000;0.5234;3.3011;
735.0000;0.5234;3.2987;
735.3000;0.5226;3.2987;
735.6000;0.5234;3.3035;
735.9000;0.5210;3.2963;
736.2000;0.5226;3.2987;
736.5000;0.5218;3.3011;
736.8000;0.5210;3.3011;
737.1000;0.5193;3.3035;
737.4000;0.5210;3.3083;
737.7000;0.5201;3.3059;
738.0000;0.5218;3.2987;
738.3000;0.5185;3.3011;
738.6000;0.5169;3.2987;
738.9000;0.5201;3.3011;
739.2000;0.5218;3.3131;
739.5000;0.5210;3.3131;
739.8000;0.5177;3.3083;
740.1000;0.5177;3.3083;
740.4000;0.5201;3.3203;
740.7000;0.5210;3.3179;
741.0000;0.5120;3.2987;
741.3000;0.5218;3.3107;
741.6000;0.5201;3.2987;
741.9000;0.5218;3.2963;
742.2000;0.5201;3.2939;
742.5000;0.5153;3.2843;
742.8000;0.5201;3.3035;
743.1000;0.5201;3.3035;
743.4000;0.5218;3.3131;
743.7000;0.5193;3.3131;
744.0000;0.5201;3.3155;
744.3000;0.5185;3.3083;
744.6000;0.5201;3.3131;
744.9000;0.5185;3.3059;
745.2000;0.5210;3.3107;
745.5000;0.5201;3.3179;
745.8000;0.5210;3.3203;
746.1000;0.5218;3.3275;
746.4000;0.5193;3.3275;
746.7000;0.5210;3.3251;
747.0000;0.5210;3.3203;
747.3000;0.5193;3.3131;
747.6000;0.5201;3.3179;
747.9000;0.5193;3.3179;
748.2000;0.5177;3.3155;
748.5000;0.5201;3.3227;
748.8000;0.5210;3.3251;
749.1000;0.5201;3.3227;
749.4000;0.5185;3.3131;
749.7000;0.5193;3.3107;
750.0000;0.5218;3.3155;
750.3000;0.5218;3.3131;
750.6000;0.5218;3.3179;
750.9000;0.5201;3.3083;
751.2000;0.5201;3.3083;
751.5000;0.5201;3.3107;
751.8000;0.5193;3.3155;
752.1000;0.5185;3.3155;
752.4000;0.5193;3.3155;
752.7000;0.5193;3.3131;
753.0000;0.5201;3.3131;
753.3000;0.5210;3.3131;
753.6000;0.5185;3.3083;
753.9000;0.5185;3.3059;
754.2000;0.5185;3.2963;
754.5000;0.5185;3.2963;
754.8000;0.5161;3.3011;
755.1000;0.5177;3.3083;
755.4000;0.5210;3.3203;
755.7000;0.5112;3.2939;
756.0000;0.5185;3.3155;
756.3000;0.5177;3.3131;
756.6000;0.5177;3.3107;
756.9000;0.5201;3.3155;
757.2000;0.5169;3.3059;
757.5000;0.5169;3.3011;
757.8000;0.5169;3.3011;
758.1000;0.5177;3.2915;
758.4000;0.5161;3.2819;
758.7000;0.5112;3.2603;
759.0000;0.5177;3.2819;
759.3000;0.5161;3.2723;
759.6000;0.5177;3.2747;
759.9000;0.5177;3.2819;
760.2000;0.5177;3.2819;
760.5000;0.5177;3.2771;
760.8000;0.5185;3.2795;
761.1000;0.5161;3.2771;
761.4000;0.5185;3.2843;
761.7000;0.5169;3.2843;
762.0000;0.5161;3.2867;
762.3000;0.5153;3.2819;
762.6000;0.5169;3.2867;
762.9000;0.5128;3.2819;
763.2000;0.5161;3.2891;
763.5000;0.5153;3.2819;
763.8000;0.5161;3.2915;
764.1000;0.5177;3.2987;
764.4000;0.5177;3.3011;
764.7000;0.5161;3.2987;
765.0000;0.5161;3.2939;
765.3000;0.5161;3.2915;
765.6000;0.5185;3.2987;
765.9000;0.5210;3.3011;
766.2000;0.5169;3.2939;
766.5000;0.5185;3.2915;
766.8000;0.5128;3.2843;
767.1000;0.5161;3.2963;
767.4000;0.5161;3.2963;
767.7000;0.5161;3.3011;
768.0000;0.5161;3.3059;
768.3000;0.5136;3.3059;
768.6000;0.5153;3.3131;
768.9000;0.5169;3.3203;
769.2000;0.5169;3.3203;
769.5000;0.5210;3.3275;
769.8000;0.5169;3.3179;
770.1000;0.5193;3.3203;
770.4000;0.5169;3.3131;
770.7000;0.5169;3.3107;
771.0000;0.5169;3.3107;
771.3000;0.5201;3.3203;
771.6000;0.5169;3.3107;
771.9000;0.5169;3.2987;
772.2000;0.5153;3.3011;
772.5000;0.5161;3.2987;
772.8000;0.5128;3.2987;
773.1000;0.5144;3.2891;
773.4000;0.5136;3.2843;
773.7000;0.5153;3.2963;
774.0000;0.5153;3.2963;
774.3000;0.5161;3.2915;
774.6000;0.5153;3.2987;
774.9000;0.5161;3.2987;
775.2000;0.5185;3.3131;
775.5000;0.5169;3.3059;
775.8000;0.5169;3.2939;
776.1000;0.5161;3.2747;
776.4000;0.5169;3.2867;
776.7000;0.5169;3.2963;
777.0000;0.5071;3.2747;
777.3000;0.5161;3.2963;
777.6000;0.5128;3.2867;
777.9000;0.5169;3.3011;
778.2000;0.5144;3.2987;
778.5000;0.5144;3.2987;
778.8000;0.5144;3.2963;
779.1000;0.5169;3.3083;
779.4000;0.5144;3.2939;
779.7000;0.5144;3.2915;
780.0000;0.5096;3.2891;
780.3000;0.5136;3.2987;
780.6000;0.5144;3.2939;
780.9000;0.5153;3.3011;
781.2000;0.5153;3.3035;
781.5000;0.5144;3.2963;
781.8000;0.5153;3.3011;
782.1000;0.5136;3.2939;
782.4000;0.5144;3.3035;
782.7000;0.5128;3.2987;
783.0000;0.5136;3.3083;
783.3000;0.5128;3.3131;
783.6000;0.5144;3.3203;
783.9000;0.5120;3.3131;
784.2000;0.5120;3.3155;
784.5000;0.5136;3.3155;
784.8000;0.5136;3.3131;
785.1000;0.5144;3.3179;
785.4000;0.5120;3.3083;
785.7000;0.5128;3.3131;
786.0000;0.5177;3.3203;
786.3000;0.5128;3.3131;
786.6000;0.5153;3.3035;
786.9000;0.5144;3.3083;
787.2000;0.5136;3.3011;
787.5000;0.5120;3.3131;
787.8000;0.5128;3.3107;
788.1000;0.5234;3.3323;
788.4000;0.5144;3.3011;
788.7000;0.5144;3.2963;
789.0000;0.5153;3.3011;
789.3000;0.5136;3.2963;
789.6000;0.5136;3.2939;
789.9000;0.5104;3.2963;
790.2000;0.5136;3.2963;
790.5000;0.5112;3.2915;
790.8000;0.5144;3.3203;
791.1000;0.5144;3.3203;
791.4000;0.5136;3.3203;
791.7000;0.5136;3.3179;
792.0000;0.5112;3.3107;
792.3000;0.5120;3.3107;
792.6000;0.5104;3.3059;
792.9000;0.5104;3.3083;
793.2000;0.5128;3.3059;
793.5000;0.5120;3.3059;
793.8000;0.5096;3.3035;
794.1000;0.5136;3.3107;
794.4000;0.5120;3.3131;
794.7000;0.5128;3.3131;
795.0000;0.5112;3.3131;
795.3000;0.5144;3.3131;
795.6000;0.5112;3.3035;
795.9000;0.5153;3.3035;
796.2000;0.5047;3.2891;
796.5000;0.5112;3.3107;
796.8000;0.5128;3.3179;
797.1000;0.5144;3.3203;
797.4000;0.5193;3.3203;
797.7000;0.5128;3.2939;
798.0000;0.5136;3.3035;
798.3000;0.5120;3.3083;
798.6000;0.5136;3.3035;
798.9000;0.5128;3.3059;
799.2000;0.5128;3.3083;
799.5000;0.5144;3.3227;
799.8000;0.5144;3.3203;
800.1000;0.5136;3.3275;
800.4000;0.5128;3.3227;
800.7000;0.5104;3.3059;
801.0000;0.5136;3.3035;
801.3000;0.5136;3.3083;
801.6000;0.5120;3.3107;
801.9000;0.5136;3.3131;
802.2000;0.5104;3.3107;
802.5000;0.5120;3.3155;
802.8000;0.5079;3.3083;
803.1000;0.5112;3.3083;
803.4000;0.5104;3.3203;
803.7000;0.5120;3.3203;
804.0000;0.5079;3.3083;
804.3000;0.5104;3.3083;
804.6000;0.5079;3.2987;
804.9000;0.5112;3.3059;
805.2000;0.5096;3.3035;
805.5000;0.5096;3.3035;
805.8000;0.5047;3.2939;
806.1000;0.5112;3.2987;
806.4000;0.5112;3.2867;
806.7000;0.5088;3.2939;
807.0000;0.5112;3.3035;
807.3000;0.5088;3.3011;
807.6000;0.5136;3.3179;
807.9000;0.5096;3.3035;
808.2000;0.5104;3.2987;
808.5000;0.5096;3.3011;
808.8000;0.5120;3.3035;
809.1000;0.5071;3.3035;
809.4000;0.5104;3.3155;
809.7000;0.5112;3.3107;
810.0000;0.5112;3.3155;
810.3000;0.5096;3.3155;
810.6000;0.5169;3.3371;
810.9000;0.5112;3.3227;
811.2000;0.5096;3.3179;
811.5000;0.5128;3.3251;
811.8000;0.5120;3.3179;
812.1000;0.5071;3.3035;
812.4000;0.5039;3.2891;
812.7000;0.5120;3.3083;
813.0000;0.5177;3.3275;
813.3000;0.5120;3.3107;
813.6000;0.5112;3.3011;
813.9000;0.5112;3.3107;
814.2000;0.5153;3.3155;
814.5000;0.5088;3.3083;
814.8000;0.5144;3.3179;
815.1000;0.5112;3.3107;
815.4000;0.5079;3.3107;
815.7000;0.5128;3.3251;
816.0000;0.5112;3.3203;
816.3000;0.5104;3.3203;
816.6000;0.5120;3.3131;
816.9000;0.5088;3.2963;
817.2000;0.5128;3.3131;
817.5000;0.5120;3.2987;
817.8000;0.5104;3.3059;
818.1000;0.5104;3.2987;
818.4000;0.5112;3.3011;
818.7000;0.5218;3.3275;
819.0000;0.5112;3.3083;
819.3000;0.5055;3.2987;
819.6000;0.5112;3.3179;
819.9000;0.5104;3.3179;
820.2000;0.5079;3.3203;
820.5000;0.5096;3.3203;
820.8000;0.5112;3.3155;
821.1000;0.5104;3.3203;
821.4000;0.5112;3.3203;
821.7000;0.5096;3.3203;
822.0000;0.5104;3.3155;
822.3000;0.5120;3.3155;
822.6000;0.5096;3.3131;
822.9000;0.5120;3.3203;
823.2000;0.5128;3.3203;
823.5000;0.5112;3.3179;
823.8000;0.5096;3.3179;
824.1000;0.5088;3.3107;
824.4000;0.5088;3.3179;
824.7000;0.5096;3.3203;
825.0000;0.5185;3.3419;
825.3000;0.5096;3.3227;
825.6000;0.5088;3.3251;
825.9000;0.5096;3.3299;
826.2000;0.5104;3.3347;
826.5000;0.5112;3.3299;
826.8000;0.5120;3.3323;
827.1000;0.5096;3.3347;
827.4000;0.5079;3.3371;
827.7000;0.5031;3.3251;
828.0000;0.5096;3.3419;
828.3000;0.5112;3.3395;
828.6000;0.5063;3.3275;
828.9000;0.5088;3.3251;
829.2000;0.5161;3.3395;
829.5000;0.5128;3.3323;
829.8000;0.5096;3.3203;
830.1000;0.5055;3.3107;
830.4000;0.5112;3.3251;
830.7000;0.5193;3.3515;
831.0000;0.5112;3.3275;
831.3000;0.5088;3.3203;
831.6000;0.5128;3.3323;
831.9000;0.5096;3.3251;
832.2000;0.5088;3.3227;
832.5000;0.5071;3.3299;
832.8000;0.5096;3.3347;
833.1000;0.5177;3.3515;
833.4000;0.5104;3.3299;
833.7000;0.5112;3.3275;
834.0000;0.5112;3.3275;
834.3000;0.5096;3.3179;
834.6000;0.5096;3.3227;
834.9000;0.5128;3.3371;
835.2000;0.5128;3.3491;
835.5000;0.5161;3.3611;
835.8000;0.5120;3.3515;
836.1000;0.5096;3.3395;
836.4000;0.5063;3.3371;
836.7000;0.5096;3.3539;
837.0000;0.5096;3.3467;
837.3000;0.5088;3.3371;
837.6000;0.5088;3.3443;
837.9000;0.5096;3.3515;
838.2000;0.5006;3.3203;
838.5000;0.5063;3.3371;
838.8000;0.5112;3.3515;
839.1000;0.5079;3.3395;
839.4000;0.5079;3.3347;
839.7000;0.5096;3.3299;
840.0000;0.5096;3.3227;
840.3000;0.5088;3.3251;
840.6000;0.5120;3.3323;
840.9000;0.5063;3.3227;
841.2000;0.5071;3.3275;
841.5000;0.5088;3.3323;
841.8000;0.5088;3.3275;
842.1000;0.5079;3.3227;
842.4000;0.5063;3.3155;
842.7000;0.5079;3.3107;
843.0000;0.5088;3.3083;
843.3000;0.5096;3.3131;
843.6000;0.5088;3.3107;
843.9000;0.5088;3.3155;
844.2000;0.5088;3.3179;
844.5000;0.5079;3.3179;
844.8000;0.5104;3.3323;
845.1000;0.5088;3.3275;
845.4000;0.5096;3.3299;
845.7000;0.5088;3.3323;
846.0000;0.5079;3.3323;
846.3000;0.5088;3.3443;
846.6000;0.5104;3.3443;
846.9000;0.5071;3.3371;
847.2000;0.5079;3.3371;
847.5000;0.5096;3.3371;
847.8000;0.5088;3.3299;
848.1000;0.5088;3.3275;
848.4000;0.5079;3.3299;
848.7000;0.5063;3.3323;
849.0000;0.5112;3.3395;
849.3000;0.5079;3.3323;
849.6000;0.5088;3.3347;
849.9000;0.5047;3.3275;
850.2000;0.5112;3.3395;
850.5000;0.5096;3.3395;
850.8000;0.5055;3.3323;
851.1000;0.5071;3.3299;
851.4000;0.5079;3.3371;
851.7000;0.5088;3.3371;
852.0000;0.5079;3.3323;
852.3000;0.5096;3.3323;
852.6000;0.5096;3.3275;
852.9000;0.5088;3.3323;
853.2000;0.5079;3.3299;
853.5000;0.5071;3.3251;
853.8000;0.5047;3.3251;
854.1000;0.5079;3.3443;
854.4000;0.5063;3.3371;
854.7000;0.5071;3.3395;
855.0000;0.5055;3.3395;
855.3000;0.5088;3.3491;
855.6000;0.5096;3.3443;
855.9000;0.5079;3.3347;
856.2000;0.5047;3.3299;
856.5000;0.5088;3.3371;
856.8000;0.5071;3.3419;
857.1000;0.5079;3.3443;
857.4000;0.5063;3.3299;
857.7000;0.5079;3.3371;
858.0000;0.5071;3.3371;
858.3000;0.5063;3.3251;
858.6000;0.5071;3.3227;
858.9000;0.5063;3.3275;
859.2000;0.5071;3.3323;
859.5000;0.5055;3.3227;
859.8000;0.5071;3.3227;
860.1000;0.5039;3.3203;
860.4000;0.5071;3.3275;
860.7000;0.5063;3.3371;
861.0000;0.5063;3.3443;
861.3000;0.5047;3.3395;
861.6000;0.5047;3.3323;
861.9000;0.5128;3.3419;
862.2000;0.5096;3.3347;
862.5000;0.5071;3.3275;
862.8000;0.5063;3.3299;
863.1000;0.5088;3.3251;
863.4000;0.5071;3.3179;
863.7000;0.5071;3.3179;
864.0000;0.5079;3.3179;
864.3000;0.5055;3.3155;
864.6000;0.5055;3.3227;
864.9000;0.5104;3.3347;
865.2000;0.5063;3.3395;
865.5000;0.5055;3.3347;
865.8000;0.5063;3.3395;
866.1000;0.5079;3.3395;
866.4000;0.5079;3.3371;
866.7000;0.5014;3.3251;
867.0000;0.5071;3.3347;
867.3000;0.5071;3.3371;
867.6000;0.5063;3.3347;
867.9000;0.5079;3.3395;
868.2000;0.5088;3.3347;
868.5000;0.5006;3.3203;
868.8000;0.5055;3.3323;
869.1000;0.5047;3.3347;
869.4000;0.5071;3.3467;
869.7000;0.5039;3.3371;
870.0000;0.5079;3.3467;
870.3000;0.5063;3.3515;
870.6000;0.5063;3.3515;
870.9000;0.5047;3.3491;
871.2000;0.5079;3.3539;
871.5000;0.5039;3.3419;
871.8000;0.5079;3.3467;
872.1000;0.5079;3.3443;
872.4000;0.5063;3.3347;
872.7000;0.5071;3.3299;
873.0000;0.4974;3.3155;
873.3000;0.5055;3.3371;
873.6000;0.5096;3.3395;
873.9000;0.5055;3.3419;
874.2000;0.5104;3.3563;
874.5000;0.5063;3.3419;
874.8000;0.5079;3.3467;
875.1000;0.5047;3.3347;
875.4000;0.5071;3.3395;
875.7000;0.5079;3.3371;
876.0000;0.5071;3.3347;
876.3000;0.5071;3.3395;
876.6000;0.5071;3.3371;
876.9000;0.5014;3.3227;
877.2000;0.5079;3.3323;
877.5000;0.5063;3.3299;
877.8000;0.5055;3.3275;
878.1000;0.5063;3.3275;
878.4000;0.5063;3.3251;
878.7000;0.5063;3.3275;
879.0000;0.5063;3.3203;
879.3000;0.5071;3.3299;
879.6000;0.5055;3.3371;
879.9000;0.5071;3.3419;
880.2000;0.5079;3.3371;
880.5000;0.5071;3.3395;
880.8000;0.5063;3.3491;
881.1000;0.5071;3.3419;
881.4000;0.5063;3.3419;
881.7000;0.5063;3.3395;
882.0000;0.5039;3.3467;
882.3000;0.5096;3.3563;
882.6000;0.5055;3.3515;
882.9000;0.5063;3.3467;
883.2000;0.5063;3.3395;
883.5000;0.5112;3.3491;
883.8000;0.5055;3.3347;
884.1000;0.5039;3.3347;
884.4000;0.5047;3.3299;
884.7000;0.5055;3.3395;
885.0000;0.5047;3.3467;
885.3000;0.5031;3.3491;
885.6000;0.5039;3.3491;
885.9000;0.5071;3.3515;
886.2000;0.5031;3.3515;
886.5000;0.5022;3.3515;
886.8000;0.5055;3.3563;
887.1000;0.5039;3.3515;
887.4000;0.5022;3.3467;
887.7000;0.5226;3.3899;
888.0000;0.5063;3.3539;
888.3000;0.5055;3.3395;
888.6000;0.5055;3.3347;
888.9000;0.5055;3.3419;
889.2000;0.5055;3.3371;
889.5000;0.5079;3.3371;
889.8000;0.5071;3.3371;
890.1000;0.5071;3.3491;
890.4000;0.4998;3.3443;
890.7000;0.5063;3.3611;
891.0000;0.5055;3.3539;
891.3000;0.5063;3.3515;
891.6000;0.5055;3.3491;
891.9000;0.5096;3.3611;
892.2000;0.5055;3.3563;
892.5000;0.5071;3.3683;
892.8000;0.5047;3.3587;
893.1000;0.4998;3.3443;
893.4000;0.5063;3.3563;
893.7000;0.5047;3.3467;
894.0000;0.5088;3.3539;
894.3000;0.5063;3.3491;
894.6000;0.5055;3.3587;
894.9000;0.5169;3.3851;
895.2000;0.5006;3.3467;
895.5000;0.5063;3.3539;
895.8000;0.5022;3.3443;
896.1000;0.5096;3.3587;
896.4000;0.5055;3.3467;
896.7000;0.5112;3.3683;
897.0000;0.5039;3.3587;
897.3000;0.5039;3.3635;
897.6000;0.5047;3.3587;
897.9000;0.5063;3.3539;
898.2000;0.5031;3.3419;
898.5000;0.5047;3.3467;
898.8000;0.5039;3.3419;
899.1000;0.5063;3.3419;
899.4000;0.5039;3.3443;
899.7000;0.4990;3.3275;
900.0000;0.5063;3.3491;
900.3000;0.5031;3.3419;
900.6000;0.5047;3.3395;
900.9000;0.5047;3.3419;
901.2000;0.5039;3.3323;
901.5000;0.5055;3.3251;
901.8000;0.5047;3.3299;
902.1000;0.5039;3.3347;
902.4000;0.5055;3.3347;
902.7000;0.5031;3.3323;
903.0000;0.5063;3.3419;
903.3000;0.5047;3.3347;
903.6000;0.5071;3.3395;
903.9000;0.5047;3.3371;
904.2000;0.5039;3.3371;
904.5000;0.5047;3.3299;
904.8000;0.5039;3.3299;
905.1000;0.5079;3.3323;
905.4000;0.5071;3.3275;
905.7000;0.5055;3.3299;
906.0000;0.5071;3.3323;
906.3000;0.5031;3.3251;
906.6000;0.5047;3.3347;
906.9000;0.5055;3.3371;
907.2000;0.5022;3.3443;
907.5000;0.5039;3.3467;
907.8000;0.4990;3.3227;
908.1000;0.5047;3.3395;
908.4000;0.5031;3.3395;
908.7000;0.5055;3.3467;
909.0000;0.5047;3.3371;
909.3000;0.5039;3.3323;
909.6000;0.5063;3.3251;
909.9000;0.5006;3.3179;
910.2000;0.5039;3.3251;
910.5000;0.5039;3.3299;
910.8000;0.5063;3.3299;
911.1000;0.5039;3.3275;
911.4000;0.5039;3.3347;
911.7000;0.5039;3.3299;
912.0000;0.5031;3.3323;
912.3000;0.4925;3.3059;
912.6000;0.5063;3.3395;
912.9000;0.5047;3.3371;
913.2000;0.5047;3.3275;
913.5000;0.5014;3.3203;
913.8000;0.5022;3.3179;
914.1000;0.5047;3.3227;
914.4000;0.5031;3.3155;
914.7000;0.5047;3.3227;
915.0000;0.5047;3.3203;
915.3000;0.5055;3.3227;
915.6000;0.5039;3.3083;
915.9000;0.5039;3.3107;
916.2000;0.5022;3.3035;
916.5000;0.5055;3.3131;
916.8000;0.5055;3.3155;
917.1000;0.5014;3.3131;
917.4000;0.5063;3.3227;
917.7000;0.4965;3.2915;
918.0000;0.5055;3.3275;
918.3000;0.5039;3.3251;
918.6000;0.5047;3.3275;
918.9000;0.5039;3.3251;
919.2000;0.5055;3.3251;
919.5000;0.5063;3.3251;
919.8000;0.5047;3.3203;
920.1000;0.5039;3.3275;
920.4000;0.5055;3.3323;
920.7000;0.5039;3.3323;
921.0000;0.5047;3.3347;
921.3000;0.5039;3.3419;
921.6000;0.5063;3.3419;
921.9000;0.5088;3.3419;
922.2000;0.5039;3.3275;
922.5000;0.5055;3.3275;
922.8000;0.5071;3.3227;
923.1000;0.5055;3.3251;
923.4000;0.5047;3.3179;
923.7000;0.5055;3.3203;
924.0000;0.5079;3.3299;
924.3000;0.5088;3.3299;
924.6000;0.5079;3.3323;
924.9000;0.5014;3.3155;
925.2000;0.5039;3.3227;
925.5000;0.5047;3.3275;
925.8000;0.5039;3.3251;
926.1000;0.5063;3.3251;
926.4000;0.5079;3.3323;
926.7000;0.5014;3.3203;
927.0000;0.5063;3.3275;
927.3000;0.5031;3.3179;
927.6000;0.5022;3.3155;
927.9000;0.4965;3.3131;
928.2000;0.5047;3.3323;
928.5000;0.5031;3.3179;
928.8000;0.5047;3.3227;
929.1000;0.5128;3.3467;
929.4000;0.5022;3.3275;
929.7000;0.5039;3.3299;
930.0000;0.5039;3.3323;
930.3000;0.4957;3.3131;
930.6000;0.5055;3.3491;
930.9000;0.5031;3.3371;
931.2000;0.5039;3.3323;
931.5000;0.5096;3.3443;
931.8000;0.5047;3.3347;
932.1000;0.5031;3.3347;
932.4000;0.5047;3.3395;
932.7000;0.5055;3.3395;
933.0000;0.5047;3.3467;
933.3000;0.5022;3.3467;
933.6000;0.5055;3.3539;
933.9000;0.5022;3.3395;
934.2000;0.5022;3.3443;
934.5000;0.5047;3.3515;
934.8000;0.5047;3.3443;
935.1000;0.5022;3.3419;
935.4000;0.5039;3.3443;
935.7000;0.5047;3.3443;
936.0000;0.5014;3.3347;
936.3000;0.5031;3.3347;
936.6000;0.5047;3.3275;
936.9000;0.5039;3.3203;
937.2000;0.5039;3.3203;
937.5000;0.5031;3.3131;
937.8000;0.5031;3.3155;
938.1000;0.5047;3.3251;
938.4000;0.5055;3.3251;
938.7000;0.5022;3.3155;
939.0000;0.5039;3.3179;
939.3000;0.5039;3.3131;
939.6000;0.4982;3.2987;
939.9000;0.5047;3.3131;
940.2000;0.5014;3.3131;
940.5000;0.5039;3.3251;
940.8000;0.5047;3.3227;
941.1000;0.4998;3.3203;
941.4000;0.5031;3.3299;
941.7000;0.5022;3.3227;
942.0000;0.5031;3.3251;
942.3000;0.5031;3.3251;
942.6000;0.5055;3.3395;
942.9000;0.5014;3.3275;
943.2000;0.5039;3.3323;
943.5000;0.4998;3.3227;
943.8000;0.4933;3.3179;
944.1000;0.5031;3.3419;
944.4000;0.5071;3.3419;
944.7000;0.5022;3.3347;
945.0000;0.5022;3.3347;
945.3000;0.5096;3.3515;
945.6000;0.5039;3.3347;
945.9000;0.5063;3.3491;
946.2000;0.5039;3.3491;
946.5000;0.5039;3.3539;
946.8000;0.4917;3.3227;
947.1000;0.5047;3.3539;
947.4000;0.5014;3.3467;
947.7000;0.5006;3.3395;
948.0000;0.5039;3.3419;
948.3000;0.5055;3.3443;
948.6000;0.5022;3.3251;
948.9000;0.5022;3.3083;
949.2000;0.5014;3.3083;
949.5000;0.5014;3.3107;
949.8000;0.5047;3.3203;
950.1000;0.5006;3.3059;
950.4000;0.5039;3.3155;
950.7000;0.5031;3.3131;
951.0000;0.4998;3.3131;
951.3000;0.5039;3.3155;
951.6000;0.5039;3.3155;
951.9000;0.5039;3.3083;
952.2000;0.5031;3.3179;
952.5000;0.5088;3.3323;
952.8000;0.5031;3.3203;
953.1000;0.5031;3.3179;
953.4000;0.5022;3.3203;
953.7000;0.5014;3.3203;
954.0000;0.5014;3.3107;
954.3000;0.5063;3.3251;
954.6000;0.5047;3.3203;
954.9000;0.5031;3.3131;
955.2000;0.5039;3.3131;
955.5000;0.5039;3.3131;
955.8000;0.5047;3.3203;
956.1000;0.5055;3.3299;
956.4000;0.5022;3.3227;
956.7000;0.5047;3.3251;
957.0000;0.5055;3.3299;
957.3000;0.5022;3.3203;
957.6000;0.5031;3.3251;
957.9000;0.5022;3.3251;
958.2000;0.5039;3.3371;
958.5000;0.5031;3.3323;
958.8000;0.4965;3.3107;
959.1000;0.5031;3.3179;
959.4000;0.5063;3.3179;
959.7000;0.5031;3.3131;
960.0000;0.5055;3.3179;
960.3000;0.5047;3.3203;
960.6000;0.5022;3.3131;
960.9000;0.5022;3.3155;
961.2000;0.5039;3.3203;
961.5000;0.5006;3.3155;
961.8000;0.5031;3.3179;
962.1000;0.5039;3.3179;
962.4000;0.5039;3.3227;
962.7000;0.5031;3.3227;
963.0000;0.5047;3.3251;
963.3000;0.5022;3.3251;
963.6000;0.5022;3.3299;
963.9000;0.5055;3.3443;
964.2000;0.5047;3.3395;
964.5000;0.5047;3.3227;
964.8000;0.5063;3.3299;
965.1000;0.5055;3.3323;
965.4000;0.5039;3.3323;
965.7000;0.5022;3.3251;
966.0000;0.5022;3.3299;
966.3000;0.5047;3.3395;
966.6000;0.5047;3.3251;
966.9000;0.5071;3.3323;
967.2000;0.5022;3.3155;
967.5000;0.5039;3.3251;
967.8000;0.4990;3.3107;
968.1000;0.5006;3.3107;
968.4000;0.5022;3.3155;
968.7000;0.5022;3.3155;
969.0000;0.5031;3.3251;
969.3000;0.5031;3.3179;
969.6000;0.5022;3.3131;
969.9000;0.4998;3.3107;
970.2000;0.5022;3.3179;
970.5000;0.5047;3.3155;
970.8000;0.5039;3.3227;
971.1000;0.5022;3.3227;
971.4000;0.5055;3.3227;
971.7000;0.5014;3.3107;
972.0000;0.5022;3.3107;
972.3000;0.5031;3.3251;
972.6000;0.5031;3.3323;
972.9000;0.5022;3.3347;
973.2000;0.5014;3.3347;
973.5000;0.5031;3.3299;
973.8000;0.5055;3.3347;
974.1000;0.5022;3.3347;
974.4000;0.5047;3.3347;
974.7000;0.5047;3.3371;
975.0000;0.5047;3.3419;
975.3000;0.5071;3.3419;
975.6000;0.5031;3.3419;
975.9000;0.5022;3.3515;
976.2000;0.5039;3.3443;
976.5000;0.5014;3.3443;
976.8000;0.5022;3.3419;
977.1000;0.5031;3.3395;
977.4000;0.5031;3.3347;
977.7000;0.5014;3.3275;
978.0000;0.5006;3.3251;
978.3000;0.4965;3.3251;
978.6000;0.5031;3.3443;
978.9000;0.5039;3.3515;
979.2000;0.5014;3.3299;
979.5000;0.5014;3.3251;
979.8000;0.5006;3.3155;
980.1000;0.4998;3.3155;
980.4000;0.4990;3.3203;
980.7000;0.5006;3.3203;
981.0000;0.5031;3.3323;
981.3000;0.5055;3.3467;
981.6000;0.5031;3.3395;
981.9000;0.5031;3.3371;
982.2000;0.4998;3.3203;
982.5000;0.5031;3.3251;
982.8000;0.5031;3.3251;
983.1000;0.5031;3.3275;
983.4000;0.4998;3.3131;
983.7000;0.5031;3.3227;
984.0000;0.5022;3.3155;
984.3000;0.5112;3.3491;
984.6000;0.5014;3.3203;
984.9000;0.5014;3.3179;
985.2000;0.5047;3.3323;
985.5000;0.4998;3.3131;
985.8000;0.4990;3.3155;
986.1000;0.5039;3.3251;
986.4000;0.5031;3.3227;
986.7000;0.5022;3.3179;
987.0000;0.5006;3.3227;
987.3000;0.5031;3.3371;
987.6000;0.5031;3.3323;
987.9000;0.5031;3.3275;
988.2000;0.5055;3.3275;
988.5000;0.5006;3.3155;
988.8000;0.5022;3.3179;
989.1000;0.4990;3.3155;
989.4000;0.5022;3.3275;
989.7000;0.5031;3.3275;
990.0000;0.5022;3.3347;
990.3000;0.5031;3.3395;
990.6000;0.5014;3.3371;
990.9000;0.5079;3.3539;
991.2000;0.5022;3.3419;
991.5000;0.5022;3.3443;
991.8000;0.5039;3.3419;
992.1000;0.5031;3.3299;
992.4000;0.5047;3.3371;
992.7000;0.5039;3.3371;
993.0000;0.5031;3.3347;
993.3000;0.5006;3.3323;
993.6000;0.5022;3.3299;
993.9000;0.5006;3.3251;
994.2000;0.5079;3.3491;
994.5000;0.5014;3.3275;
994.8000;0.5014;3.3251;
995.1000;0.4998;3.3251;
995.4000;0.5006;3.3251;
995.7000;0.4957;3.3203;
996.0000;0.5014;3.3323;
996.3000;0.5014;3.3371;
996.6000;0.5014;3.3395;
996.9000;0.5031;3.3419;
997.2000;0.5022;3.3347;
997.5000;0.5031;3.3395;
997.8000;0.5022;3.3443;
998.1000;0.5063;3.3467;
998.4000;0.5039;3.3419;
998.7000;0.5031;3.3467;
999.0000;0.5022;3.3539;
999.3000;0.5022;3.3539;
999.6000;0.5022;3.3515;
999.9000;0.5022;3.3539;
1000.2000;0.5006;3.3515;
1000.5000;0.5022;3.3587;
1000.8000;0.5031;3.3611;
1001.1000;0.5031;3.3539;
1001.4000;0.5014;3.3491;
1001.7000;0.5031;3.3491;
1002.0000;0.5063;3.3443;
1002.3000;0.5031;3.3371;
1002.6000;0.5006;3.3323;
1002.9000;0.5031;3.3347;
1003.2000;0.4949;3.3155;
1003.5000;0.5006;3.3251;
1003.8000;0.5031;3.3299;
1004.1000;0.5014;3.3395;
1004.4000;0.5022;3.3371;
1004.7000;0.5022;3.3347;
1005.0000;0.5006;3.3371;
1005.3000;0.5014;3.3347;
1005.6000;0.5022;3.3347;
1005.9000;0.4998;3.3299;
1006.2000;0.5006;3.3371;
1006.5000;0.5006;3.3347;
1006.8000;0.5006;3.3395;
1007.1000;0.5022;3.3395;
1007.4000;0.5006;3.3323;
1007.7000;0.5006;3.3275;
1008.0000;0.5022;3.3299;
1008.3000;0.5006;3.3275;
1008.6000;0.5006;3.3107;
1008.9000;0.5006;3.3083;
1009.2000;0.5039;3.3227;
1009.5000;0.5022;3.3155;
1009.8000;0.5031;3.3179;
1010.1000;0.5022;3.3179;
1010.4000;0.5022;3.3107;
1010.7000;0.5022;3.3107;
1011.0000;0.4965;3.2891;
1011.3000;0.5022;3.2987;
1011.6000;0.5014;3.3035;
1011.9000;0.5022;3.3107;
1012.2000;0.4974;3.2987;
1012.5000;0.4998;3.3131;
1012.8000;0.5014;3.3179;
1013.1000;0.5006;3.3035;
1013.4000;0.5055;3.3059;
1013.7000;0.5055;3.3059;
1014.0000;0.5047;3.3083;
1014.3000;0.5031;3.3203;
1014.6000;0.5031;3.3251;
1014.9000;0.4990;3.3227;
1015.2000;0.5006;3.3299;
1015.5000;0.5014;3.3323;
1015.8000;0.5039;3.3443;
1016.1000;0.5031;3.3419;
1016.4000;0.5006;3.3395;
1016.7000;0.5014;3.3371;
1017.0000;0.5014;3.3395;
1017.3000;0.5039;3.3491;
1017.6000;0.5022;3.3443;
1017.9000;0.5022;3.3491;
1018.2000;0.5047;3.3659;
1018.5000;0.5047;3.3683;
1018.8000;0.5031;3.3635;
1019.1000;0.4974;3.3563;
1019.4000;0.4998;3.3683;
1019.7000;0.5112;3.3923;
1020.0000;0.5014;3.3707;
1020.3000;0.5063;3.3707;
1020.6000;0.4998;3.3587;
1020.9000;0.5039;3.3611;
1021.2000;0.5079;3.3779;
1021.5000;0.5031;3.3563;
1021.8000;0.5031;3.3563;
1022.1000;0.5006;3.3443;
1022.4000;0.5055;3.3539;
1022.7000;0.5006;3.3491;
1023.0000;0.5031;3.3587;
1023.3000;0.5014;3.3491;
1023.6000;0.5039;3.3563;
1023.9000;0.4998;3.3419;
1024.2000;0.4998;3.3347;
1024.5000;0.5112;3.3659;
1024.8000;0.5006;3.3347;
1025.1000;0.5014;3.3275;
1025.4000;0.5063;3.3395;
1025.7000;0.5014;3.3347;
1026.0000;0.4974;3.3323;
1026.3000;0.5006;3.3467;
1026.6000;0.5014;3.3419;
1026.9000;0.4998;3.3467;
1027.2000;0.5022;3.3491;
1027.5000;0.5014;3.3443;
1027.8000;0.5039;3.3587;
1028.1000;0.5014;3.3539;
1028.4000;0.5014;3.3611;
1028.7000;0.5022;3.3683;
1029.0000;0.4998;3.3563;
1029.3000;0.5022;3.3491;
1029.6000;0.5031;3.3443;
1029.9000;0.5014;3.3491;
1030.2000;0.4974;3.3491;
1030.5000;0.5022;3.3587;
1030.8000;0.5014;3.3587;
1031.1000;0.5022;3.3611;
1031.4000;0.5031;3.3563;
1031.7000;0.5022;3.3419;
1032.0000;0.5022;3.3491;
1032.3000;0.5022;3.3563;
1032.6000;0.5039;3.3563;
1032.9000;0.5022;3.3587;
1033.2000;0.5022;3.3635;
1033.5000;0.5022;3.3707;
1033.8000;0.5022;3.3755;
1034.1000;0.5022;3.3707;
1034.4000;0.4998;3.3611;
1034.7000;0.5014;3.3587;
1035.0000;0.5039;3.3563;
1035.3000;0.4998;3.3443;
1035.6000;0.4949;3.3347;
1035.9000;0.5039;3.3611;
1036.2000;0.5022;3.3491;
1036.5000;0.5006;3.3419;
1036.8000;0.4998;3.3371;
1037.1000;0.4908;3.3155;
1037.4000;0.4998;3.3227;
1037.7000;0.5039;3.3347;
1038.0000;0.5022;3.3347;
1038.3000;0.5022;3.3299;
1038.6000;0.4965;3.3155;
1038.9000;0.4998;3.3251;
1039.2000;0.4998;3.3251;
1039.5000;0.4998;3.3227;
1039.8000;0.4990;3.3275;
1040.1000;0.5006;3.3203;
1040.4000;0.4990;3.3179;
1040.7000;0.4957;3.3035;
1041.0000;0.5006;3.3083;
1041.3000;0.5014;3.3131;
1041.6000;0.5006;3.3131;
1041.9000;0.5006;3.3131;
1042.2000;0.4990;3.3107;
1042.5000;0.5006;3.3155;
1042.8000;0.4974;3.3011;
1043.1000;0.5039;3.3155;
1043.4000;0.5006;3.3179;
1043.7000;0.5022;3.3275;
1044.0000;0.5014;3.3227;
1044.3000;0.4990;3.3107;
1044.6000;0.5014;3.3107;
1044.9000;0.4957;3.3011;
1045.2000;0.5063;3.3299;
1045.5000;0.5014;3.3203;
1045.8000;0.5031;3.3203;
1046.1000;0.5022;3.3107;
1046.4000;0.5022;3.3035;
1046.7000;0.4998;3.3011;
1047.0000;0.4998;3.3011;
1047.3000;0.5014;3.2939;
1047.6000;0.5039;3.2963;
1047.9000;0.5006;3.2843;
1048.2000;0.5014;3.2867;
1048.5000;0.5006;3.2771;
1048.8000;0.5031;3.2939;
1049.1000;0.5006;3.2963;
1049.4000;0.4965;3.2915;
1049.7000;0.4990;3.2963;
1050.0000;0.5014;3.3011;
1050.3000;0.4998;3.3083;
1050.6000;0.5014;3.3059;
1050.9000;0.5022;3.2987;
1051.2000;0.4957;3.2939;
1051.5000;0.5006;3.3131;
1051.8000;0.5014;3.3131;
1052.1000;0.5006;3.3155;
1052.4000;0.5022;3.3131;
1052.7000;0.5031;3.3035;
1053.0000;0.5014;3.3107;
1053.3000;0.5120;3.3491;
1053.6000;0.5031;3.3251;
1053.9000;0.5039;3.3419;
1054.2000;0.4957;3.3251;
1054.5000;0.5014;3.3419;
1054.8000;0.5022;3.3323;
1055.1000;0.5022;3.3323;
1055.4000;0.5014;3.3275;
1055.7000;0.5047;3.3323;
1056.0000;0.5022;3.3299;
1056.3000;0.5063;3.3443;
1056.6000;0.5014;3.3323;
1056.9000;0.5014;3.3347;
1057.2000;0.4998;3.3347;
1057.5000;0.5014;3.3515;
1057.8000;0.5047;3.3539;
1058.1000;0.5006;3.3443;
1058.4000;0.4982;3.3323;
1058.7000;0.5014;3.3299;
1059.0000;0.4949;3.3155;
1059.3000;0.5014;3.3323;
1059.6000;0.5014;3.3419;
1059.9000;0.4949;3.3347;
1060.2000;0.5039;3.3491;
1060.5000;0.5031;3.3395;
1060.8000;0.4965;3.3227;
1061.1000;0.5014;3.3347;
1061.4000;0.5022;3.3323;
1061.7000;0.5039;3.3323;
1062.0000;0.5047;3.3371;
1062.3000;0.4998;3.3299;
1062.6000;0.5022;3.3323;
1062.9000;0.5055;3.3371;
1063.2000;0.4998;3.3275;
1063.5000;0.5014;3.3299;
1063.8000;0.5006;3.3323;
1064.1000;0.5014;3.3299;
1064.4000;0.5022;3.3299;
1064.7000;0.4990;3.3299;
1065.0000;0.5006;3.3347;
1065.3000;0.5014;3.3419;
1065.6000;0.5006;3.3323;
1065.9000;0.4990;3.3275;
1066.2000;0.4990;3.3203;
1066.5000;0.4982;3.3179;
1066.8000;0.5031;3.3323;
1067.1000;0.5014;3.3371;
1067.4000;0.4990;3.3395;
1067.7000;0.5022;3.3515;
1068.0000;0.4998;3.3419;
1068.3000;0.4998;3.3323;
1068.6000;0.5022;3.3251;
1068.9000;0.5014;3.3251;
1069.2000;0.4998;3.3227;
1069.5000;0.4998;3.3323;
1069.8000;0.5014;3.3251;
1070.1000;0.5006;3.3275;
1070.4000;0.5014;3.3299;
1070.7000;0.4990;3.3275;
1071.0000;0.4998;3.3347;
1071.3000;0.5014;3.3395;
1071.6000;0.5006;3.3443;
1071.9000;0.4990;3.3419;
1072.2000;0.4982;3.3275;
1072.5000;0.4990;3.3299;
1072.8000;0.4998;3.3371;
1073.1000;0.4998;3.3371;
1073.4000;0.5055;3.3491;
1073.7000;0.4990;3.3347;
1074.0000;0.4990;3.3371;
1074.3000;0.4998;3.3299;
1074.6000;0.5006;3.3227;
1074.9000;0.5014;3.3275;
1075.2000;0.5039;3.3395;
1075.5000;0.5006;3.3299;
1075.8000;0.5031;3.3323;
1076.1000;0.4998;3.3299;
1076.4000;0.5014;3.3275;
1076.7000;0.5031;3.3251;
1077.0000;0.5031;3.3251;
1077.3000;0.4990;3.3227;
1077.6000;0.4990;3.3227;
1077.9000;0.5022;3.3371;
1078.2000;0.4990;3.3323;
1078.5000;0.5071;3.3467;
1078.8000;0.5014;3.3347;
1079.1000;0.4990;3.3371;
1079.4000;0.5022;3.3443;
1079.7000;0.5006;3.3371;
1080.0000;0.5006;3.3347;
1080.3000;0.5006;3.3227;
1080.6000;0.4990;3.3203;
1080.9000;0.5022;3.3299;
1081.2000;0.4998;3.3227;
1081.5000;0.5006;3.3203;
1081.8000;0.5047;3.3275;
1082.1000;0.5006;3.3251;
1082.4000;0.5047;3.3299;
1082.7000;0.5006;3.3155;
1083.0000;0.4933;3.2939;
1083.3000;0.5014;3.3107;
1083.6000;0.4974;3.2963;
1083.9000;0.4982;3.3131;
1084.2000;0.5006;3.3155;
1084.5000;0.5022;3.3299;
1084.8000;0.5006;3.3299;
1085.1000;0.4998;3.3323;
1085.4000;0.4957;3.3203;
1085.7000;0.4998;3.3299;
1086.0000;0.4990;3.3371;
1086.3000;0.4998;3.3395;
1086.6000;0.5006;3.3395;
1086.9000;0.5006;3.3491;
1087.2000;0.4998;3.3395;
1087.5000;0.4990;3.3395;
1087.8000;0.5006;3.3395;
1088.1000;0.5031;3.3419;
1088.4000;0.4990;3.3299;
1088.7000;0.5014;3.3299;
1089.0000;0.5006;3.3275;
1089.3000;0.5047;3.3419;
1089.6000;0.5014;3.3203;
1089.9000;0.5014;3.3251;
1090.2000;0.5006;3.3227;
1090.5000;0.4998;3.3251;
1090.8000;0.5006;3.3395;
1091.1000;0.4998;3.3323;
1091.4000;0.5031;3.3299;
1091.7000;0.5014;3.3203;
1092.0000;0.5014;3.3179;
1092.3000;0.4990;3.3227;
1092.6000;0.5014;3.3227;
1092.9000;0.4998;3.3107;
1093.2000;0.5022;3.3155;
1093.5000;0.5006;3.3083;
1093.8000;0.5014;3.3011;
1094.1000;0.5014;3.2939;
1094.4000;0.5006;3.2939;
1094.7000;0.5071;3.3179;
1095.0000;0.4998;3.2963;
1095.3000;0.5031;3.3155;
1095.6000;0.5006;3.3227;
1095.9000;0.4998;3.3179;
1096.2000;0.5047;3.3179;
1096.5000;0.5031;3.3035;
1096.8000;0.5022;3.3011;
1097.1000;0.5031;3.3131;
1097.4000;0.5014;3.3155;
1097.7000;0.5031;3.3203;
1098.0000;0.4998;3.3179;
1098.3000;0.5006;3.3227;
1098.6000;0.5006;3.3179;
1098.9000;0.5022;3.3227;
1099.2000;0.4998;3.3179;
1099.5000;0.4990;3.3179;
1099.8000;0.4974;3.3083;
1100.1000;0.4982;3.3203;
1100.4000;0.5006;3.3323;
1100.7000;0.4998;3.3299;
1101.0000;0.5014;3.3395;
1101.3000;0.5006;3.3203;
1101.6000;0.5039;3.3347;
1101.9000;0.4982;3.3203;
1102.2000;0.5006;3.3227;
1102.5000;0.4974;3.3179;
1102.8000;0.4998;3.3275;
1103.1000;0.4990;3.3131;
1103.4000;0.5006;3.3179;
1103.7000;0.4990;3.3131;
1104.0000;0.5031;3.3203;
1104.3000;0.4974;3.3155;
1104.6000;0.4998;3.3251;
1104.9000;0.4990;3.3299;
1105.2000;0.4990;3.3299;
1105.5000;0.4974;3.3347;
1105.8000;0.4990;3.3347;
1106.1000;0.4974;3.3299;
1106.4000;0.5006;3.3371;
1106.7000;0.4990;3.3371;
1107.0000;0.4998;3.3371;
1107.3000;0.5047;3.3515;
1107.6000;0.5006;3.3323;
1107.9000;0.5039;3.3515;
1108.2000;0.5063;3.3587;
1108.5000;0.5022;3.3491;
1108.8000;0.4998;3.3371;
1109.1000;0.5014;3.3419;
1109.4000;0.5006;3.3419;
1109.7000;0.4982;3.3395;
1110.0000;0.4974;3.3419;
1110.3000;0.4990;3.3443;
1110.6000;0.4990;3.3395;
1110.9000;0.4998;3.3395;
1111.2000;0.5014;3.3347;
1111.5000;0.4990;3.3323;
1111.8000;0.4990;3.3371;
1112.1000;0.5006;3.3443;
1112.4000;0.5006;3.3515;
1112.7000;0.4998;3.3491;
1113.0000;0.5006;3.3491;
1113.3000;0.4998;3.3443;
1113.6000;0.5022;3.3395;
1113.9000;0.5006;3.3251;
1114.2000;0.4982;3.3131;
1114.5000;0.4998;3.3203;
1114.8000;0.4998;3.3275;
1115.1000;0.4974;3.3203;
1115.4000;0.4990;3.3251;
1115.7000;0.4982;3.3203;
1116.0000;0.4998;3.3299;
1116.3000;0.5055;3.3419;
1116.6000;0.5006;3.3371;
1116.9000;0.4998;3.3491;
1117.2000;0.5014;3.3467;
1117.5000;0.5006;3.3395;
1117.8000;0.5039;3.3491;
1118.1000;0.5014;3.3443;
1118.4000;0.4990;3.3395;
1118.7000;0.5031;3.3515;
1119.0000;0.4990;3.3467;
1119.3000;0.4990;3.3371;
1119.6000;0.4998;3.3323;
1119.9000;0.5047;3.3443;
1120.2000;0.4990;3.3251;
1120.5000;0.4998;3.3179;
1120.8000;0.4990;3.3155;
1121.1000;0.5039;3.3179;
1121.4000;0.4998;3.3179;
1121.7000;0.4990;3.3155;
1122.0000;0.4982;3.3107;
1122.3000;0.4998;3.3203;
1122.6000;0.5006;3.3179;
1122.9000;0.5006;3.3251;
1123.2000;0.4990;3.3179;
1123.5000;0.4998;3.3275;
1123.8000;0.5014;3.3323;
1124.1000;0.4974;3.3155;
1124.4000;0.4990;3.3203;
1124.7000;0.5006;3.3275;
1125.0000;0.5006;3.3347;
1125.3000;0.5022;3.3371;
1125.6000;0.4998;3.3371;
1125.9000;0.4990;3.3323;
1126.2000;0.5006;3.3395;
1126.5000;0.5006;3.3419;
1126.8000;0.4998;3.3395;
1127.1000;0.4998;3.3419;
1127.4000;0.4974;3.3371;
1127.7000;0.4998;3.3467;
1128.0000;0.4998;3.3491;
1128.3000;0.5014;3.3515;
1128.6000;0.4990;3.3419;
1128.9000;0.4998;3.3395;
1129.2000;0.5039;3.3419;
1129.5000;0.4990;3.3323;
1129.8000;0.5031;3.3419;
1130.1000;0.5039;3.3467;
1130.4000;0.5006;3.3395;
1130.7000;0.4990;3.3299;
1131.0000;0.5006;3.3227;
1131.3000;0.4990;3.3179;
1131.6000;0.4998;3.3203;
1131.9000;0.4990;3.3251;
1132.2000;0.4965;3.3299;
1132.5000;0.4998;3.3371;
1132.8000;0.4974;3.3299;
1133.1000;0.4982;3.3251;
1133.4000;0.4974;3.3179;
1133.7000;0.5006;3.3203;
1134.0000;0.4998;3.3227;
1134.3000;0.4998;3.3179;
1134.6000;0.5006;3.3227;
1134.9000;0.5006;3.3299;
1135.2000;0.5006;3.3299;
1135.5000;0.4982;3.3275;
1135.8000;0.5006;3.3275;
1136.1000;0.4998;3.3419;
1136.4000;0.5006;3.3467;
1136.7000;0.4982;3.3371;
1137.0000;0.4990;3.3323;
1137.3000;0.4957;3.3275;
1137.6000;0.5006;3.3395;
1137.9000;0.5006;3.3299;
1138.2000;0.4990;3.3323;
1138.5000;0.5006;3.3347;
1138.8000;0.4990;3.3323;
1139.1000;0.5014;3.3419;
1139.4000;0.4990;3.3515;
1139.7000;0.4982;3.3539;
1140.0000;0.4974;3.3539;
1140.3000;0.4982;3.3467;
1140.6000;0.4990;3.3419;
1140.9000;0.4990;3.3419;
1141.2000;0.4982;3.3395;
1141.5000;0.4974;3.3347;
1141.8000;0.4974;3.3467;
1142.1000;0.4990;3.3563;
1142.4000;0.5006;3.3587;
1142.7000;0.4974;3.3515;
1143.0000;0.4982;3.3539;
1143.3000;0.5006;3.3539;
1143.6000;0.4974;3.3419;
1143.9000;0.4990;3.3347;
1144.2000;0.4982;3.3299;
1144.5000;0.4998;3.3299;
1144.8000;0.4917;3.3083;
1145.1000;0.4957;3.3203;
1145.4000;0.4949;3.3107;
1145.7000;0.4998;3.3251;
1146.0000;0.4933;3.3035;
1146.3000;0.4982;3.3179;
1146.6000;0.5039;3.3227;
1146.9000;0.4998;3.3035;
1147.2000;0.5006;3.3011;
1147.5000;0.5006;3.2987;
1147.8000;0.5006;3.2915;
1148.1000;0.5022;3.3035;
1148.4000;0.5006;3.3059;
1148.7000;0.4990;3.3083;
1149.0000;0.4974;3.3131;
1149.3000;0.4982;3.3227;
1149.6000;0.5014;3.3251;
1149.9000;0.4998;3.3179;
1150.2000;0.5006;3.3227;
1150.5000;0.5006;3.3203;
1150.8000;0.4990;3.3203;
1151.1000;0.5006;3.3299;
1151.4000;0.5014;3.3227;
1151.7000;0.4941;3.2963;
1152.0000;0.4974;3.3035;
1152.3000;0.5006;3.3107;
1152.6000;0.4998;3.3083;
1152.9000;0.5014;3.3107;
1153.2000;0.5014;3.3083;
1153.5000;0.4998;3.3107;
1153.8000;0.5022;3.3179;
1154.1000;0.5006;3.3131;
1154.4000;0.5006;3.3203;
1154.7000;0.4990;3.3131;
1155.0000;0.4990;3.3131;
1155.3000;0.4990;3.3083;
1155.6000;0.5063;3.3251;
1155.9000;0.4998;3.3011;
1156.2000;0.4982;3.3011;
1156.5000;0.4974;3.2963;
1156.8000;0.4998;3.3083;
1157.1000;0.5022;3.3179;
1157.4000;0.4957;3.3035;
1157.7000;0.5006;3.3179;
1158.0000;0.5120;3.3515;
1158.3000;0.4998;3.3275;
1158.6000;0.5014;3.3419;
1158.9000;0.4982;3.3347;
1159.2000;0.4998;3.3443;
1159.5000;0.4990;3.3323;
1159.8000;0.4990;3.3395;
1160.1000;0.4998;3.3371;
1160.4000;0.4982;3.3443;
1160.7000;0.4982;3.3347;
1161.0000;0.5006;3.3419;
1161.3000;0.4990;3.3371;
1161.6000;0.4998;3.3395;
1161.9000;0.5031;3.3515;
1162.2000;0.4998;3.3443;
1162.5000;0.4982;3.3467;
1162.8000;0.4974;3.3395;
1163.1000;0.5014;3.3419;
1163.4000;0.5047;3.3539;
1163.7000;0.4974;3.3227;
1164.0000;0.4982;3.3203;
1164.3000;0.5014;3.3299;
1164.6000;0.5006;3.3299;
1164.9000;0.4965;3.3275;
1165.2000;0.4990;3.3323;
1165.5000;0.4990;3.3491;
1165.8000;0.4982;3.3587;
1166.1000;0.4974;3.3515;
1166.4000;0.5006;3.3563;
1166.7000;0.4990;3.3467;
1167.0000;0.4990;3.3491;
1167.3000;0.4998;3.3491;
1167.6000;0.4998;3.3491;
1167.9000;0.4982;3.3467;
1168.2000;0.4982;3.3539;
1168.5000;0.4990;3.3467;
1168.8000;0.4982;3.3491;
1169.1000;0.4990;3.3491;
1169.4000;0.4990;3.3491;
1169.7000;0.4998;3.3443;
1170.0000;0.5039;3.3419;
1170.3000;0.4900;3.3059;
1170.6000;0.5006;3.3299;
1170.9000;0.5006;3.3203;
1171.2000;0.4982;3.3107;
1171.5000;0.5006;3.3083;
1171.8000;0.4998;3.3083;
1172.1000;0.5006;3.3107;
1172.4000;0.4982;3.3155;
1172.7000;0.4974;3.3227;
1173.0000;0.4974;3.3299;
1173.3000;0.5006;3.3467;
1173.6000;0.4990;3.3443;
1173.9000;0.5006;3.3395;
1174.2000;0.5014;3.3467;
1174.5000;0.4933;3.3275;
1174.8000;0.5006;3.3419;
1175.1000;0.4965;3.3419;
1175.4000;0.4990;3.3443;
1175.7000;0.4941;3.3419;
1176.0000;0.4990;3.3587;
1176.3000;0.5014;3.3587;
1176.6000;0.4990;3.3443;
1176.9000;0.4933;3.3323;
1177.2000;0.4998;3.3443;
1177.5000;0.4982;3.3323;
1177.8000;0.5047;3.3467;
1178.1000;0.5014;3.3467;
1178.4000;0.4982;3.3323;
1178.7000;0.5014;3.3443;
1179.0000;0.4998;3.3467;
1179.3000;0.4998;3.3419;
1179.6000;0.4998;3.3371;
1179.9000;0.4998;3.3419;
1180.2000;0.4974;3.3275;
1180.5000;0.4982;3.3347;
1180.8000;0.5014;3.3371;
1181.1000;0.5006;3.3347;
1181.4000;0.4998;3.3371;
1181.7000;0.4982;3.3299;
1182.0000;0.4982;3.3323;
1182.3000;0.4998;3.3347;
1182.6000;0.4998;3.3323;
1182.9000;0.4990;3.3299;
1183.2000;0.4933;3.3107;
1183.5000;0.4990;3.3251;
1183.8000;0.4974;3.3251;
1184.1000;0.5006;3.3251;
1184.4000;0.4990;3.3179;
1184.7000;0.5006;3.3203;
1185.0000;0.5006;3.3275;
1185.3000;0.5006;3.3347;
1185.6000;0.5047;3.3419;
1185.9000;0.5006;3.3419;
1186.2000;0.4998;3.3395;
1186.5000;0.4957;3.3251;
1186.8000;0.4990;3.3299;
1187.1000;0.4998;3.3251;
1187.4000;0.4974;3.3251;
1187.7000;0.4990;3.3371;
1188.0000;0.4957;3.3323;
1188.3000;0.4990;3.3395;
1188.6000;0.5014;3.3299;
1188.9000;0.4990;3.3227;
1189.2000;0.4949;3.3107;
1189.5000;0.5039;3.3371;
1189.8000;0.4974;3.3251;
1190.1000;0.5006;3.3419;
1190.4000;0.4990;3.3467;
1190.7000;0.4965;3.3395;
1191.0000;0.5006;3.3443;
1191.3000;0.4974;3.3323;
1191.6000;0.5014;3.3323;
1191.9000;0.4998;3.3299;
1192.2000;0.5014;3.3395;
1192.5000;0.4990;3.3395;
1192.8000;0.4982;3.3347;
1193.1000;0.4974;3.3347;
1193.4000;0.5071;3.3563;
1193.7000;0.5022;3.3419;
1194.0000;0.4990;3.3275;
1194.3000;0.5014;3.3347;
1194.6000;0.4990;3.3299;
1194.9000;0.5006;3.3395;
1195.2000;0.4982;3.3323;
1195.5000;0.4990;3.3371;
1195.8000;0.4998;3.3395;
1196.1000;0.5014;3.3467;
1196.4000;0.5006;3.3395;
1196.7000;0.4998;3.3443;
1197.0000;0.4990;3.3395;
1197.3000;0.5006;3.3419;
1197.6000;0.5071;3.3611;
1197.9000;0.4982;3.3299;
1198.2000;0.4998;3.3299;
1198.5000;0.4998;3.3347;
1198.8000;0.4990;3.3299;
1199.1000;0.4998;3.3227;
1199.4000;0.4990;3.3227;
1199.7000;0.4990;3.3323;
1200.0000;0.4982;3.3299;
1200.3000;0.4990;3.3275;
1200.6000;0.4974;3.3251;
1200.9000;0.5006;3.3323;
1201.2000;0.4990;3.3275;
1201.5000;0.4982;3.3227;
1201.8000;0.4998;3.3227;
1202.1000;0.4982;3.3203;
1202.4000;0.4941;3.3107;
1202.7000;0.4990;3.3155;
1203.0000;0.4998;3.3179;
1203.3000;0.4974;3.3203;
1203.6000;0.4982;3.3275;
1203.9000;0.4982;3.3323;
1204.2000;0.4982;3.3347;
1204.5000;0.4998;3.3371;
1204.8000;0.4990;3.3323;
1205.1000;0.5047;3.3395;
1205.4000;0.4998;3.3251;
1205.7000;0.4990;3.3083;
1206.0000;0.4998;3.3107;
1206.3000;0.5022;3.3155;
1206.6000;0.4998;3.3107;
1206.9000;0.4998;3.3083;
1207.2000;0.4974;3.3035;
1207.5000;0.5006;3.3179;
1207.8000;0.4998;3.3251;
1208.1000;0.4908;3.2963;
1208.4000;0.4982;3.3203;
1208.7000;0.4990;3.3299;
1209.0000;0.4998;3.3227;
1209.3000;0.5014;3.3275;
1209.6000;0.4982;3.3203;
1209.9000;0.4974;3.3251;
1210.2000;0.4990;3.3275;
1210.5000;0.4990;3.3275;
1210.8000;0.5006;3.3299;
1211.1000;0.4974;3.3347;
1211.4000;0.4965;3.3371;
1211.7000;0.4957;3.3371;
1212.0000;0.4990;3.3395;
1212.3000;0.4998;3.3323;
1212.6000;0.4982;3.3371;
1212.9000;0.4998;3.3467;
1213.2000;0.4965;3.3371;
1213.5000;0.4982;3.3395;
1213.8000;0.5014;3.3467;
1214.1000;0.4990;3.3419;
1214.4000;0.4982;3.3443;
1214.7000;0.5063;3.3635;
1215.0000;0.4957;3.3323;
1215.3000;0.4917;3.3179;
1215.6000;0.4990;3.3251;
1215.9000;0.5031;3.3371;
1216.2000;0.4990;3.3371;
1216.5000;0.4990;3.3443;
1216.8000;0.4982;3.3443;
1217.1000;0.4998;3.3419;
1217.4000;0.5006;3.3419;
1217.7000;0.5006;3.3515;
1218.0000;0.4974;3.3443;
1218.3000;0.5006;3.3467;
1218.6000;0.4990;3.3347;
1218.9000;0.4998;3.3347;
1219.2000;0.5014;3.3227;
1219.5000;0.5014;3.3155;
1219.8000;0.4982;3.3083;
1220.1000;0.4974;3.3155;
1220.4000;0.4998;3.3251;
1220.7000;0.5071;3.3467;
1221.0000;0.5031;3.3299;
1221.3000;0.5006;3.3155;
1221.6000;0.4990;3.3107;
1221.9000;0.4974;3.3035;
1222.2000;0.4990;3.3131;
1222.5000;0.4990;3.3179;
1222.8000;0.5006;3.3299;
1223.1000;0.4998;3.3275;
1223.4000;0.5006;3.3275;
1223.7000;0.4990;3.3419;
1224.0000;0.4998;3.3395;
1224.3000;0.4965;3.3371;
1224.6000;0.4998;3.3419;
1224.9000;0.4990;3.3419;
1225.2000;0.5006;3.3419;
1225.5000;0.4990;3.3323;
1225.8000;0.4982;3.3371;
1226.1000;0.4998;3.3395;
1226.4000;0.4982;3.3323;
1226.7000;0.4990;3.3251;
1227.0000;0.4982;3.3323;
1227.3000;0.4957;3.3299;
1227.6000;0.4990;3.3299;
1227.9000;0.5022;3.3371;
1228.2000;0.4949;3.3203;
1228.5000;0.5014;3.3443;
1228.8000;0.4974;3.3275;
1229.1000;0.5014;3.3467;
1229.4000;0.4998;3.3443;
1229.7000;0.5006;3.3371;
1230.0000;0.4990;3.3467;
1230.3000;0.4998;3.3467;
1230.6000;0.5006;3.3491;
1230.9000;0.5006;3.3395;
1231.2000;0.4982;3.3227;
1231.5000;0.5022;3.3275;
1231.8000;0.5055;3.3323;
1232.1000;0.4990;3.3251;
1232.4000;0.4998;3.3371;
1232.7000;0.4990;3.3347;
1233.0000;0.4998;3.3443;
1233.3000;0.5006;3.3395;
1233.6000;0.5006;3.3395;
1233.9000;0.4998;3.3323;
1234.2000;0.4990;3.3227;
1234.5000;0.4933;3.3035;
1234.8000;0.4990;3.3155;
1235.1000;0.4982;3.3179;
1235.4000;0.4998;3.3131;
1235.7000;0.4982;3.3107;
1236.0000;0.4982;3.3059;
1236.3000;0.4974;3.3131;
1236.6000;0.4990;3.3203;
1236.9000;0.4990;3.3203;
1237.2000;0.5022;3.3227;
1237.5000;0.5006;3.3203;
1237.8000;0.5022;3.3299;
1238.1000;0.5006;3.3227;
1238.4000;0.4990;3.3227;
1238.7000;0.4982;3.3179;
1239.0000;0.4974;3.3035;
1239.3000;0.4982;3.3083;
1239.6000;0.4982;3.3131;
1239.9000;0.4933;3.3107;
1240.2000;0.4982;3.3227;
1240.5000;0.4998;3.3203;
1240.8000;0.5006;3.3179;
1241.1000;0.4982;3.3203;
1241.4000;0.4965;3.3203;
1241.7000;0.4990;3.3251;
1242.0000;0.4892;3.2987;
1242.3000;0.4998;3.3203;
1242.6000;0.5006;3.3251;
1242.9000;0.4998;3.3251;
1243.2000;0.4998;3.3227;
1243.5000;0.5006;3.3203;
1243.8000;0.4982;3.3131;
1244.1000;0.4998;3.3155;
1244.4000;0.4974;3.3155;
1244.7000;0.4957;3.3203;
1245.0000;0.5022;3.3323;
1245.3000;0.4982;3.3275;
1245.6000;0.4990;3.3371;
1245.9000;0.5006;3.3467;
1246.2000;0.4982;3.3443;
1246.5000;0.5039;3.3635;
1246.8000;0.4917;3.3323;
1247.1000;0.4957;3.3395;
1247.4000;0.4949;3.3443;
1247.7000;0.4998;3.3611;
1248.0000;0.4982;3.3611;
1248.3000;0.5006;3.3587;
1248.6000;0.4990;3.3467;
1248.9000;0.4990;3.3443;
1249.2000;0.4990;3.3419;
1249.5000;0.4990;3.3347;
1249.8000;0.4982;3.3323;
1250.1000;0.5031;3.3443;
1250.4000;0.4949;3.3275;
1250.7000;0.4982;3.3347;
1251.0000;0.4998;3.3347;
1251.3000;0.4949;3.3275;
1251.6000;0.4941;3.3251;
1251.9000;0.4990;3.3371;
1252.2000;0.5047;3.3515;
1252.5000;0.5006;3.3371;
1252.8000;0.4998;3.3323;
1253.1000;0.5014;3.3275;
1253.4000;0.5006;3.3179;
1253.7000;0.5047;3.3347;
1254.0000;0.5022;3.3275;
1254.3000;0.5031;3.3299;
1254.6000;0.5022;3.3299;
1254.9000;0.4990;3.3227;
1255.2000;0.4974;3.3251;
1255.5000;0.5031;3.3395;
1255.8000;0.4990;3.3275;
1256.1000;0.4974;3.3227;
1256.4000;0.4957;3.3131;
1256.7000;0.4990;3.3227;
1257.0000;0.4990;3.3227;
1257.3000;0.4990;3.3203;
1257.6000;0.4990;3.3203;
1257.9000;0.4990;3.3179;
1258.2000;0.4957;3.3131;
1258.5000;0.4998;3.3275;
1258.8000;0.4974;3.3227;
1259.1000;0.4990;3.3155;
1259.4000;0.4982;3.3107;
1259.7000;0.4982;3.3059;
1260.0000;0.4982;3.3059;
1260.3000;0.4990;3.3107;
1260.6000;0.5006;3.3179;
1260.9000;0.5006;3.3203;
1261.2000;0.4998;3.3275;
1261.5000;0.4998;3.3179;
1261.8000;0.4998;3.3227;
1262.1000;0.4998;3.3227;
1262.4000;0.5006;3.3275;
1262.7000;0.4990;3.3203;
1263.0000;0.5006;3.3299;
1263.3000;0.4998;3.3347;
1263.6000;0.5014;3.3299;
1263.9000;0.4990;3.3323;
1264.2000;0.4982;3.3275;
1264.5000;0.4982;3.3323;
1264.8000;0.5006;3.3371;
1265.1000;0.4998;3.3395;
1265.4000;0.4982;3.3347;
1265.7000;0.5031;3.3515;
1266.0000;0.4990;3.3419;
1266.3000;0.4982;3.3347;
1266.6000;0.4998;3.3371;
1266.9000;0.4982;3.3251;
1267.2000;0.4982;3.3227;
1267.5000;0.4990;3.3275;
1267.8000;0.4965;3.3299;
1268.1000;0.4949;3.3131;
1268.4000;0.4998;3.3179;
1268.7000;0.4982;3.3155;
1269.0000;0.5031;3.3275;
1269.3000;0.4982;3.3179;
1269.6000;0.4990;3.3203;
1269.9000;0.4982;3.3179;
1270.2000;0.4990;3.3179;
1270.5000;0.4990;3.3179;
1270.8000;0.4957;3.3035;
1271.1000;0.4990;3.3059;
1271.4000;0.5006;3.3035;
1271.7000;0.4982;3.2987;
1272.0000;0.4974;3.3011;
1272.3000;0.4974;3.2963;
1272.6000;0.4998;3.3059;
1272.9000;0.4982;3.2963;
1273.2000;0.5006;3.3035;
1273.5000;0.4965;3.2939;
1273.8000;0.4974;3.2939;
1274.1000;0.5055;3.3179;
1274.4000;0.4998;3.3131;
1274.7000;0.4998;3.3155;
1275.0000;0.4974;3.3107;
1275.3000;0.4974;3.3083;
1275.6000;0.4998;3.3131;
1275.9000;0.4974;3.3107;
1276.2000;0.4982;3.3155;
1276.5000;0.4965;3.3083;
1276.8000;0.4990;3.3155;
1277.1000;0.4982;3.3131;
1277.4000;0.4998;3.3155;
1277.7000;0.5006;3.3179;
1278.0000;0.4974;3.3083;
1278.3000;0.4965;3.3035;
1278.6000;0.4990;3.3203;
1278.9000;0.4998;3.3251;
1279.2000;0.4990;3.3227;
1279.5000;0.4982;3.3155;
1279.8000;0.4957;3.3083;
1280.1000;0.4990;3.3179;
1280.4000;0.4933;3.3107;
1280.7000;0.4990;3.3179;
1281.0000;0.4982;3.3131;
1281.3000;0.4965;3.3059;
1281.6000;0.5014;3.3155;
1281.9000;0.4998;3.3203;
1282.2000;0.5014;3.3275;
1282.5000;0.5031;3.3395;
1282.8000;0.4974;3.3275;
1283.1000;0.5047;3.3443;
1283.4000;0.4933;3.3035;
1283.7000;0.5014;3.3275;
1284.0000;0.5031;3.3371;
1284.3000;0.4990;3.3347;
1284.6000;0.4990;3.3275;
1284.9000;0.5022;3.3371;
1285.2000;0.4949;3.3227;
1285.5000;0.4982;3.3299;
1285.8000;0.5022;3.3347;
1286.1000;0.4982;3.3251;
1286.4000;0.4998;3.3203;
1286.7000;0.4998;3.3227;
1287.0000;0.4974;3.3131;
1287.3000;0.5006;3.3275;
1287.6000;0.4998;3.3371;
1287.9000;0.4974;3.3371;
1288.2000;0.4998;3.3443;
1288.5000;0.4974;3.3347;
1288.8000;0.4965;3.3275;
1289.1000;0.5022;3.3323;
1289.4000;0.4982;3.3203;
1289.7000;0.4957;3.3155;
1290.0000;0.4957;3.3251;
1290.3000;0.5006;3.3323;
1290.6000;0.4982;3.3251;
1290.9000;0.4941;3.3155;
1291.2000;0.4957;3.3155;
1291.5000;0.4990;3.3251;
1291.8000;0.5031;3.3347;
1292.1000;0.4990;3.3155;
1292.4000;0.4998;3.3107;
1292.7000;0.4990;3.3083;
1293.0000;0.4933;3.3059;
1293.3000;0.5006;3.3323;
1293.6000;0.4982;3.3371;
1293.9000;0.4990;3.3467;
1294.2000;0.4982;3.3491;
1294.5000;0.4974;3.3515;
1294.8000;0.5022;3.3563;
1295.1000;0.4965;3.3371;
1295.4000;0.4982;3.3419;
1295.7000;0.4957;3.3323;
1296.0000;0.4957;3.3251;
1296.3000;0.4982;3.3275;
1296.6000;0.4982;3.3227;
1296.9000;0.4982;3.3299;
1297.2000;0.4990;3.3371;
1297.5000;0.4974;3.3299;
1297.8000;0.5006;3.3419;
1298.1000;0.4974;3.3347;
1298.4000;0.4974;3.3347;
1298.7000;0.4990;3.3395;
1299.0000;0.4974;3.3443;
1299.3000;0.4982;3.3443;
1299.6000;0.4982;3.3443;
1299.9000;0.4982;3.3371;
1300.2000;0.4957;3.3299;
1300.5000;0.4990;3.3395;
1300.8000;0.4998;3.3443;
1301.1000;0.4990;3.3395;
1301.4000;0.5006;3.3347;
1301.7000;0.5006;3.3323;
1302.0000;0.4982;3.3371;
1302.3000;0.5047;3.3491;
1302.6000;0.4990;3.3371;
1302.9000;0.4974;3.3443;
1303.2000;0.4990;3.3491;
1303.5000;0.4990;3.3347;
1303.8000;0.5006;3.3395;
1304.1000;0.4990;3.3347;
1304.4000;0.4998;3.3371;
1304.7000;0.5022;3.3515;
1305.0000;0.4965;3.3515;
1305.3000;0.4982;3.3539;
1305.6000;0.5014;3.3611;
1305.9000;0.4990;3.3467;
1306.2000;0.5047;3.3611;
1306.5000;0.4982;3.3419;
1306.8000;0.4982;3.3419;
1307.1000;0.4998;3.3515;
1307.4000;0.4974;3.3515;
1307.7000;0.5022;3.3587;
1308.0000;0.5039;3.3611;
1308.3000;0.4941;3.3371;
1308.6000;0.4965;3.3443;
1308.9000;0.4965;3.3491;
1309.2000;0.5022;3.3491;
1309.5000;0.4998;3.3371;
1309.8000;0.4974;3.3347;
1310.1000;0.4990;3.3323;
1310.4000;0.4925;3.3275;
1310.7000;0.5014;3.3443;
1311.0000;0.4974;3.3395;
1311.3000;0.4917;3.3155;
1311.6000;0.4982;3.3203;
1311.9000;0.4982;3.3299;
1312.2000;0.4998;3.3299;
1312.5000;0.5039;3.3299;
1312.8000;0.4990;3.3179;
1313.1000;0.5006;3.3227;
1313.4000;0.4990;3.3227;
1313.7000;0.4998;3.3299;
1314.0000;0.4990;3.3323;
1314.3000;0.4990;3.3395;
1314.6000;0.4990;3.3515;
1314.9000;0.4982;3.3491;
1315.2000;0.4990;3.3419;
1315.5000;0.4998;3.3491;
1315.8000;0.5006;3.3539;
1316.1000;0.4982;3.3491;
1316.4000;0.4982;3.3467;
1316.7000;0.5006;3.3467;
1317.0000;0.5079;3.3611;
1317.3000;0.4990;3.3419;
1317.6000;0.4990;3.3419;
1317.9000;0.4998;3.3395;
1318.2000;0.4957;3.3227;
1318.5000;0.4998;3.3443;
1318.8000;0.5014;3.3395;
1319.1000;0.5006;3.3395;
1319.4000;0.4990;3.3299;
1319.7000;0.4990;3.3347;
1320.0000;0.4965;3.3347;
1320.3000;0.4974;3.3347;
1320.6000;0.5047;3.3491;
1320.9000;0.4982;3.3347;
1321.2000;0.4974;3.3323;
1321.5000;0.4982;3.3347;
1321.8000;0.4982;3.3419;
1322.1000;0.4965;3.3395;
1322.4000;0.4965;3.3419;
1322.7000;0.4990;3.3563;
1323.0000;0.4974;3.3563;
1323.3000;0.5088;3.3731;
1323.6000;0.4974;3.3395;
1323.9000;0.4990;3.3395;
1324.2000;0.4990;3.3395;
1324.5000;0.4998;3.3443;
1324.8000;0.4982;3.3419;
1325.1000;0.4965;3.3347;
1325.4000;0.4974;3.3347;
1325.7000;0.4990;3.3299;
1326.0000;0.4990;3.3323;
1326.3000;0.5047;3.3443;
1326.6000;0.4998;3.3299;
1326.9000;0.4990;3.3323;
1327.2000;0.4974;3.3275;
1327.5000;0.4998;3.3371;
1327.8000;0.5014;3.3395;
1328.1000;0.5006;3.3419;
1328.4000;0.4990;3.3323;
1328.7000;0.4998;3.3323;
1329.0000;0.4982;3.3347;
1329.3000;0.4990;3.3347;
1329.6000;0.4998;3.3347;
1329.9000;0.4998;3.3275;
1330.2000;0.4998;3.3251;
1330.5000;0.4990;3.3251;
1330.8000;0.4998;3.3347;
1331.1000;0.5055;3.3515;
1331.4000;0.4917;3.3131;
1331.7000;0.4990;3.3251;
1332.0000;0.4990;3.3251;
1332.3000;0.4998;3.3203;
1332.6000;0.4990;3.3203;
1332.9000;0.4982;3.3251;
1333.2000;0.4982;3.3323;
1333.5000;0.4990;3.3347;
1333.8000;0.4982;3.3347;
1334.1000;0.4990;3.3347;
1334.4000;0.4974;3.3275;
1334.7000;0.4982;3.3371;
1335.0000;0.4990;3.3371;
1335.3000;0.4998;3.3323;
1335.6000;0.4998;3.3323;
1335.9000;0.4990;3.3395;
1336.2000;0.4998;3.3419;
1336.5000;0.5006;3.3419;
1336.8000;0.4990;3.3395;
1337.1000;0.4982;3.3443;
1337.4000;0.5006;3.3467;
1337.7000;0.4990;3.3515;
1338.0000;0.5014;3.3515;
1338.3000;0.4998;3.3539;
1338.6000;0.4998;3.3467;
1338.9000;0.4990;3.3467;
1339.2000;0.4998;3.3491;
1339.5000;0.4990;3.3467;
1339.8000;0.4990;3.3395;
1340.1000;0.4957;3.3323;
1340.4000;0.4982;3.3419;
1340.7000;0.4982;3.3419;
1341.0000;0.4982;3.3323;
1341.3000;0.4982;3.3275;
1341.6000;0.4998;3.3275;
1341.9000;0.4965;3.3275;
1342.2000;0.4974;3.3347;
1342.5000;0.4982;3.3275;
1342.8000;0.4982;3.3251;
1343.1000;0.4998;3.3227;
1343.4000;0.4998;3.3275;
1343.7000;0.4982;3.3203;
1344.0000;0.4990;3.3251;
1344.3000;0.4941;3.3083;
1344.6000;0.4982;3.3203;
1344.9000;0.4974;3.3203;
1345.2000;0.4982;3.3227;
1345.5000;0.4974;3.3251;
1345.8000;0.4982;3.3275;
1346.1000;0.4974;3.3275;
1346.4000;0.5014;3.3347;
1346.7000;0.4982;3.3251;
1347.0000;0.4990;3.3275;
1347.3000;0.4990;3.3275;
1347.6000;0.4998;3.3347;
1347.9000;0.4998;3.3371;
1348.2000;0.4990;3.3299;
1348.5000;0.5014;3.3323;
1348.8000;0.4998;3.3299;
1349.1000;0.4990;3.3395;
1349.4000;0.4990;3.3443;
1349.7000;0.4965;3.3323;
1350.0000;0.4998;3.3491;
1350.3000;0.4990;3.3539;
1350.6000;0.4982;3.3587;
1350.9000;0.4990;3.3515;
1351.2000;0.4990;3.3563;
1351.5000;0.4908;3.3395;
1351.8000;0.4990;3.3515;
1352.1000;0.4965;3.3443;
1352.4000;0.4982;3.3419;
1352.7000;0.4998;3.3467;
1353.0000;0.4990;3.3491;
1353.3000;0.4990;3.3515;
1353.6000;0.4990;3.3539;
1353.9000;0.4990;3.3491;
1354.2000;0.4982;3.3347;
1354.5000;0.4982;3.3347;
1354.8000;0.4990;3.3371;
1355.1000;0.4998;3.3299;
1355.4000;0.4982;3.3179;
1355.7000;0.4974;3.3227;
1356.0000;0.4982;3.3179;
1356.3000;0.4982;3.3275;
1356.6000;0.4982;3.3395;
1356.9000;0.4965;3.3419;
1357.2000;0.4974;3.3443;
1357.5000;0.4990;3.3491;
1357.8000;0.5031;3.3563;
1358.1000;0.4965;3.3347;
1358.4000;0.4982;3.3275;
1358.7000;0.4965;3.3179;
1359.0000;0.4998;3.3251;
1359.3000;0.4974;3.3227;
1359.6000;0.4965;3.3179;
1359.9000;0.5006;3.3299;
1360.2000;0.5022;3.3395;
1360.5000;0.4990;3.3323;
1360.8000;0.4941;3.3155;
1361.1000;0.4974;3.3227;
1361.4000;0.5014;3.3227;
1361.7000;0.4998;3.3227;
1362.0000;0.5006;3.3299;
1362.3000;0.4998;3.3299;
1362.6000;0.5006;3.3275;
1362.9000;0.4908;3.3107;
1363.2000;0.4957;3.3203;
1363.5000;0.5006;3.3347;
1363.8000;0.4900;3.3107;
1364.1000;0.4974;3.3275;
1364.4000;0.4982;3.3203;
1364.7000;0.4974;3.3131;
1365.0000;0.5047;3.3275;
1365.3000;0.4990;3.3227;
1365.6000;0.5006;3.3347;
1365.9000;0.5006;3.3395;
1366.2000;0.4974;3.3371;
1366.5000;0.4990;3.3419;
1366.8000;0.4998;3.3443;
1367.1000;0.4965;3.3419;
1367.4000;0.4941;3.3371;
1367.7000;0.4982;3.3491;
1368.0000;0.4990;3.3587;
1368.3000;0.4965;3.3563;
1368.6000;0.4990;3.3443;
1368.9000;0.4990;3.3395;
1369.2000;0.5022;3.3371;
1369.5000;0.4990;3.3347;
1369.8000;0.5014;3.3395;
1370.1000;0.5006;3.3419;
1370.4000;0.4990;3.3395;
1370.7000;0.4998;3.3395;
1371.0000;0.4974;3.3347;
1371.3000;0.4957;3.3323;
1371.6000;0.5006;3.3371;
1371.9000;0.4990;3.3227;
1372.2000;0.4998;3.3203;
1372.5000;0.5006;3.3299;
1372.8000;0.4990;3.3299;
1373.1000;0.5006;3.3347;
1373.4000;0.4982;3.3275;
1373.7000;0.4998;3.3275;
1374.0000;0.4990;3.3275;
1374.3000;0.5014;3.3323;
1374.6000;0.4990;3.3275;
1374.9000;0.5006;3.3323;
1375.2000;0.5006;3.3347;
1375.5000;0.4998;3.3395;
1375.8000;0.4982;3.3371;
1376.1000;0.4941;3.3299;
1376.4000;0.4965;3.3347;
1376.7000;0.4982;3.3299;
1377.0000;0.4998;3.3323;
1377.3000;0.4925;3.3107;
1377.6000;0.4990;3.3275;
1377.9000;0.4982;3.3323;
1378.2000;0.4990;3.3347;
1378.5000;0.4998;3.3323;
1378.8000;0.5014;3.3299;
1379.1000;0.4998;3.3179;
1379.4000;0.4998;3.3203;
1379.7000;0.4982;3.3203;
1380.0000;0.4965;3.3203;
1380.3000;0.4974;3.3203;
1380.6000;0.5039;3.3371;
1380.9000;0.4990;3.3179;
1381.2000;0.4982;3.3035;
1381.5000;0.4998;3.3107;
1381.8000;0.4965;3.3083;
1382.1000;0.4974;3.3107;
1382.4000;0.4982;3.3155;
1382.7000;0.4998;3.3107;
1383.0000;0.4965;3.2987;
1383.3000;0.4990;3.3035;
1383.6000;0.4974;3.2987;
1383.9000;0.4990;3.3059;
1384.2000;0.5039;3.3227;
1384.5000;0.4982;3.3131;
1384.8000;0.4998;3.3179;
1385.1000;0.4982;3.3107;
1385.4000;0.4990;3.3155;
1385.7000;0.4990;3.3203;
1386.0000;0.4982;3.3227;
1386.3000;0.4998;3.3371;
1386.6000;0.4941;3.3203;
1386.9000;0.4949;3.3227;
1387.2000;0.4982;3.3299;
1387.5000;0.4974;3.3275;
1387.8000;0.4974;3.3251;
1388.1000;0.4990;3.3179;
1388.4000;0.4990;3.3107;
1388.7000;0.4990;3.3131;
1389.0000;0.4990;3.3035;
1389.3000;0.4990;3.3107;
1389.6000;0.5006;3.3083;
1389.9000;0.4990;3.3155;
1390.2000;0.4998;3.3179;
1390.5000;0.5006;3.3203;
1390.8000;0.4990;3.3179;
1391.1000;0.4990;3.3203;
1391.4000;0.4974;3.3275;
1391.7000;0.4982;3.3347;
1392.0000;0.4982;3.3371;
1392.3000;0.4990;3.3371;
1392.6000;0.4982;3.3323;
1392.9000;0.4982;3.3419;
1393.2000;0.5006;3.3491;
1393.5000;0.4965;3.3419;
1393.8000;0.5014;3.3491;
1394.1000;0.4990;3.3419;
1394.4000;0.4990;3.3347;
1394.7000;0.5022;3.3419;
1395.0000;0.4998;3.3419;
1395.3000;0.4974;3.3395;
1395.6000;0.4990;3.3347;
1395.9000;0.4982;3.3299;
1396.2000;0.4974;3.3275;
1396.5000;0.4974;3.3275;
1396.8000;0.4974;3.3251;
1397.1000;0.4982;3.3179;
1397.4000;0.4982;3.3179;
1397.7000;0.4965;3.3131;
1398.0000;0.4965;3.3083;
1398.3000;0.4990;3.3083;
1398.6000;0.4990;3.3083;
1398.9000;0.4990;3.3107;
1399.2000;0.4982;3.3179;
1399.5000;0.4982;3.3227;
1399.8000;0.5014;3.3203;
