time/ms;Fluo/V;P700 deltaI/I x10³;
-199.8000;0.3647;0.9329;
-199.5000;0.3655;0.9329;
-199.2000;0.3663;0.9329;
-198.9000;0.3679;0.9378;
-198.6000;0.3663;0.9304;
-198.3000;0.3655;0.9304;
-198.0000;0.3663;0.9353;
-197.7000;0.3679;0.9427;
-197.4000;0.3663;0.9353;
-197.1000;0.3647;0.9402;
-196.8000;0.3655;0.9452;
-196.5000;0.3655;0.9452;
-196.2000;0.3647;0.9304;
-195.9000;0.3663;0.9304;
-195.6000;0.3671;0.9353;
-195.3000;0.3671;0.9353;
-195.0000;0.3663;0.9353;
-194.7000;0.3655;0.9329;
-194.4000;0.3663;0.9378;
-194.1000;0.3679;0.9353;
-193.8000;0.3671;0.9329;
-193.5000;0.3663;0.9255;
-193.2000;0.3663;0.9231;
-192.9000;0.3663;0.9255;
-192.6000;0.3671;0.9206;
-192.3000;0.3655;0.9157;
-192.0000;0.3663;0.9157;
-191.7000;0.3647;0.9108;
-191.4000;0.3663;0.9132;
-191.1000;0.3671;0.9132;
-190.8000;0.3663;0.9206;
-190.5000;0.3655;0.9157;
-190.2000;0.3655;0.9182;
-189.9000;0.3655;0.9157;
-189.6000;0.3647;0.9182;
-189.3000;0.3655;0.9206;
-189.0000;0.3655;0.9206;
-188.7000;0.3655;0.9157;
-188.4000;0.3655;0.9255;
-188.1000;0.3647;0.9280;
-187.8000;0.3663;0.9231;
-187.5000;0.3663;0.9206;
-187.2000;0.3647;0.9132;
-186.9000;0.3655;0.9182;
-186.6000;0.3663;0.9255;
-186.3000;0.3663;0.9280;
-186.0000;0.3655;0.9206;
-185.7000;0.3663;0.9108;
-185.4000;0.3655;0.9132;
-185.1000;0.3671;0.9157;
-184.8000;0.3679;0.9206;
-184.5000;0.3663;0.9206;
-184.2000;0.3671;0.9132;
-183.9000;0.3679;0.9132;
-183.6000;0.3663;0.9182;
-183.3000;0.3655;0.9132;
-183.0000;0.3655;0.9182;
-182.7000;0.3663;0.9083;
-182.4000;0.3663;0.9132;
-182.1000;0.3647;0.9132;
-181.8000;0.3647;0.9083;
-181.5000;0.3663;0.9108;
-181.2000;0.3671;0.9132;
-180.9000;0.3663;0.9034;
-180.6000;0.3663;0.8936;
-180.3000;0.3647;0.8936;
-180.0000;0.3671;0.9059;
-179.7000;0.3663;0.9083;
-179.4000;0.3647;0.9034;
-179.1000;0.3655;0.9059;
-178.8000;0.3663;0.9132;
-178.5000;0.3671;0.9108;
-178.2000;0.3655;0.9083;
-177.9000;0.3663;0.9108;
-177.6000;0.3655;0.9132;
-177.3000;0.3647;0.9132;
-177.0000;0.3655;0.9231;
-176.7000;0.3663;0.9255;
-176.4000;0.3679;0.9378;
-176.1000;0.3655;0.9476;
-175.8000;0.3655;0.9378;
-175.5000;0.3655;0.9304;
-175.2000;0.3663;0.9157;
-174.9000;0.3663;0.9157;
-174.6000;0.3704;0.9329;
-174.3000;0.3679;0.9255;
-174.0000;0.3679;0.9182;
-173.7000;0.3671;0.9157;
-173.4000;0.3614;0.9010;
-173.1000;0.3671;0.9157;
-172.8000;0.3655;0.9182;
-172.5000;0.3639;0.9108;
-172.2000;0.3655;0.9206;
-171.9000;0.3655;0.9255;
-171.6000;0.3647;0.9255;
-171.3000;0.3647;0.9304;
-171.0000;0.3663;0.9280;
-170.7000;0.3655;0.9157;
-170.4000;0.3647;0.9157;
-170.1000;0.3655;0.9108;
-169.8000;0.3663;0.9059;
-169.5000;0.3663;0.9010;
-169.2000;0.3679;0.9034;
-168.9000;0.3606;0.8887;
-168.6000;0.3663;0.9010;
-168.3000;0.3655;0.8961;
-168.0000;0.3639;0.8985;
-167.7000;0.3663;0.9010;
-167.4000;0.3614;0.9010;
-167.1000;0.3663;0.9157;
-166.8000;0.3647;0.9206;
-166.5000;0.3622;0.9206;
-166.2000;0.3639;0.9304;
-165.9000;0.3663;0.9280;
-165.6000;0.3663;0.9304;
-165.3000;0.3655;0.9304;
-165.0000;0.3639;0.9231;
-164.7000;0.3663;0.9280;
-164.4000;0.3647;0.9255;
-164.1000;0.3647;0.9255;
-163.8000;0.3663;0.9329;
-163.5000;0.3663;0.9255;
-163.2000;0.3655;0.9206;
-162.9000;0.3663;0.9378;
-162.6000;0.3671;0.9329;
-162.3000;0.3663;0.9206;
-162.0000;0.3720;0.9402;
-161.7000;0.3655;0.9206;
-161.4000;0.3655;0.9157;
-161.1000;0.3639;0.9182;
-160.8000;0.3598;0.9059;
-160.5000;0.3655;0.9255;
-160.2000;0.3696;0.9427;
-159.9000;0.3687;0.9427;
-159.6000;0.3671;0.9304;
-159.3000;0.3671;0.9329;
-159.0000;0.3671;0.9304;
-158.7000;0.3663;0.9378;
-158.4000;0.3663;0.9304;
-158.1000;0.3679;0.9329;
-157.8000;0.3663;0.9353;
-157.5000;0.3671;0.9329;
-157.2000;0.3655;0.9255;
-156.9000;0.3671;0.9329;
-156.6000;0.3679;0.9402;
-156.3000;0.3671;0.9378;
-156.0000;0.3647;0.9402;
-155.7000;0.3663;0.9353;
-155.4000;0.3696;0.9353;
-155.1000;0.3647;0.9231;
-154.8000;0.3614;0.9083;
-154.5000;0.3687;0.9255;
-154.2000;0.3663;0.9206;
-153.9000;0.3671;0.9304;
-153.6000;0.3663;0.9402;
-153.3000;0.3622;0.9231;
-153.0000;0.3647;0.9353;
-152.7000;0.3679;0.9378;
-152.4000;0.3663;0.9329;
-152.1000;0.3663;0.9353;
-151.8000;0.3655;0.9280;
-151.5000;0.3614;0.9132;
-151.2000;0.3679;0.9182;
-150.9000;0.3671;0.9231;
-150.6000;0.3655;0.9206;
-150.3000;0.3696;0.9329;
-150.0000;0.3622;0.9083;
-149.7000;0.3655;0.9206;
-149.4000;0.3679;0.9280;
-149.1000;0.3663;0.9231;
-148.8000;0.3565;0.9108;
-148.5000;0.3647;0.9280;
-148.2000;0.3663;0.9255;
-147.9000;0.3647;0.9206;
-147.6000;0.3704;0.9378;
-147.3000;0.3671;0.9402;
-147.0000;0.3744;0.9501;
-146.7000;0.3663;0.9132;
-146.4000;0.3655;0.9231;
-146.1000;0.3671;0.9353;
-145.8000;0.3647;0.9329;
-145.5000;0.3647;0.9304;
-145.2000;0.3671;0.9353;
-144.9000;0.3622;0.9108;
-144.6000;0.3647;0.9108;
-144.3000;0.3720;0.9206;
-144.0000;0.3639;0.9083;
-143.7000;0.3647;0.9059;
-143.4000;0.3663;0.9108;
-143.1000;0.3663;0.9108;
-142.8000;0.3712;0.9255;
-142.5000;0.3663;0.9083;
-142.2000;0.3663;0.9083;
-141.9000;0.3671;0.9206;
-141.6000;0.3606;0.9010;
-141.3000;0.3663;0.9132;
-141.0000;0.3630;0.9182;
-140.7000;0.3696;0.9378;
-140.4000;0.3687;0.9231;
-140.1000;0.3647;0.9231;
-139.8000;0.3663;0.9329;
-139.5000;0.3687;0.9402;
-139.2000;0.3614;0.9157;
-138.9000;0.3687;0.9182;
-138.6000;0.3647;0.9083;
-138.3000;0.3655;0.9108;
-138.0000;0.3663;0.9182;
-137.7000;0.3663;0.9231;
-137.4000;0.3639;0.9182;
-137.1000;0.3663;0.9182;
-136.8000;0.3671;0.9353;
-136.5000;0.3663;0.9304;
-136.2000;0.3639;0.9231;
-135.9000;0.3663;0.9329;
-135.6000;0.3655;0.9280;
-135.3000;0.3655;0.9206;
-135.0000;0.3671;0.9255;
-134.7000;0.3655;0.9206;
-134.4000;0.3663;0.9157;
-134.1000;0.3655;0.9157;
-133.8000;0.3671;0.9059;
-133.5000;0.3663;0.9034;
-133.2000;0.3663;0.9157;
-132.9000;0.3655;0.9083;
-132.6000;0.3679;0.9157;
-132.3000;0.3655;0.9059;
-132.0000;0.3687;0.9132;
-131.7000;0.3671;0.9132;
-131.4000;0.3606;0.8961;
-131.1000;0.3679;0.9182;
-130.8000;0.3647;0.9206;
-130.5000;0.3663;0.9304;
-130.2000;0.3671;0.9231;
-129.9000;0.3663;0.9231;
-129.6000;0.3639;0.9255;
-129.3000;0.3655;0.9353;
-129.0000;0.3679;0.9452;
-128.7000;0.3671;0.9378;
-128.4000;0.3679;0.9353;
-128.1000;0.3696;0.9427;
-127.8000;0.3655;0.9304;
-127.5000;0.3687;0.9353;
-127.2000;0.3655;0.9304;
-126.9000;0.3671;0.9231;
-126.6000;0.3679;0.9304;
-126.3000;0.3663;0.9255;
-126.0000;0.3622;0.9157;
-125.7000;0.3696;0.9329;
-125.4000;0.3696;0.9280;
-125.1000;0.3647;0.9255;
-124.8000;0.3671;0.9255;
-124.5000;0.3655;0.9182;
-124.2000;0.3663;0.9206;
-123.9000;0.3663;0.9231;
-123.6000;0.3663;0.9255;
-123.3000;0.3663;0.9255;
-123.0000;0.3687;0.9280;
-122.7000;0.3598;0.8985;
-122.4000;0.3655;0.9132;
-122.1000;0.3671;0.9059;
-121.8000;0.3663;0.8961;
-121.5000;0.3679;0.8985;
-121.2000;0.3655;0.8961;
-120.9000;0.3647;0.8911;
-120.6000;0.3639;0.8985;
-120.3000;0.3663;0.9010;
-120.0000;0.3606;0.8985;
-119.7000;0.3687;0.9206;
-119.4000;0.3663;0.9182;
-119.1000;0.3671;0.9132;
-118.8000;0.3663;0.9157;
-118.5000;0.3655;0.9182;
-118.2000;0.3647;0.9206;
-117.9000;0.3655;0.9157;
-117.6000;0.3671;0.9231;
-117.3000;0.3647;0.9132;
-117.0000;0.3655;0.9157;
-116.7000;0.3663;0.9132;
-116.4000;0.3663;0.9182;
-116.1000;0.3679;0.9206;
-115.8000;0.3647;0.9157;
-115.5000;0.3647;0.9108;
-115.2000;0.3639;0.9010;
-114.9000;0.3687;0.9059;
-114.6000;0.3655;0.9010;
-114.3000;0.3663;0.9059;
-114.0000;0.3671;0.9108;
-113.7000;0.3671;0.9132;
-113.4000;0.3655;0.9157;
-113.1000;0.3639;0.9206;
-112.8000;0.3622;0.9132;
-112.5000;0.3639;0.9206;
-112.2000;0.3663;0.9304;
-111.9000;0.3663;0.9206;
-111.6000;0.3671;0.9255;
-111.3000;0.3663;0.9231;
-111.0000;0.3663;0.9206;
-110.7000;0.3655;0.9083;
-110.4000;0.3655;0.9059;
-110.1000;0.3687;0.9083;
-109.8000;0.3687;0.9255;
-109.5000;0.3679;0.9255;
-109.2000;0.3671;0.9182;
-108.9000;0.3630;0.9108;
-108.6000;0.3679;0.9206;
-108.3000;0.3655;0.9206;
-108.0000;0.3655;0.9255;
-107.7000;0.3647;0.9206;
-107.4000;0.3639;0.9182;
-107.1000;0.3614;0.9108;
-106.8000;0.3647;0.9329;
-106.5000;0.3671;0.9353;
-106.2000;0.3639;0.9280;
-105.9000;0.3647;0.9304;
-105.6000;0.3630;0.9231;
-105.3000;0.3663;0.9206;
-105.0000;0.3671;0.9280;
-104.7000;0.3622;0.9157;
-104.4000;0.3704;0.9329;
-104.1000;0.3663;0.9182;
-103.8000;0.3655;0.9206;
-103.5000;0.3696;0.9255;
-103.2000;0.3655;0.9157;
-102.9000;0.3663;0.9157;
-102.6000;0.3630;0.9132;
-102.3000;0.3663;0.9280;
-102.0000;0.3655;0.9182;
-101.7000;0.3663;0.9255;
-101.4000;0.3647;0.9182;
-101.1000;0.3655;0.9206;
-100.8000;0.3630;0.9182;
-100.5000;0.3639;0.9132;
-100.2000;0.3647;0.9206;
-99.9000;0.3647;0.9255;
-99.6000;0.3630;0.9304;
-99.3000;0.3655;0.9206;
-99.0000;0.3647;0.9157;
-98.7000;0.3671;0.9157;
-98.4000;0.3655;0.9083;
-98.1000;0.3655;0.9034;
-97.8000;0.3655;0.9157;
-97.5000;0.3639;0.9157;
-97.2000;0.3728;0.9402;
-96.9000;0.3671;0.9255;
-96.6000;0.3655;0.9280;
-96.3000;0.3647;0.9329;
-96.0000;0.3655;0.9304;
-95.7000;0.3655;0.9353;
-95.4000;0.3671;0.9353;
-95.1000;0.3573;0.9132;
-94.8000;0.3647;0.9378;
-94.5000;0.3639;0.9402;
-94.2000;0.3630;0.9353;
-93.9000;0.3663;0.9378;
-93.6000;0.3679;0.9402;
-93.3000;0.3663;0.9304;
-93.0000;0.3663;0.9329;
-92.7000;0.3639;0.9304;
-92.4000;0.3655;0.9329;
-92.1000;0.3671;0.9378;
-91.8000;0.3720;0.9525;
-91.5000;0.3655;0.9378;
-91.2000;0.3671;0.9378;
-90.9000;0.3679;0.9452;
-90.6000;0.3663;0.9402;
-90.3000;0.3655;0.9476;
-90.0000;0.3614;0.9402;
-89.7000;0.3655;0.9476;
-89.4000;0.3679;0.9525;
-89.1000;0.3655;0.9476;
-88.8000;0.3622;0.9427;
-88.5000;0.3671;0.9452;
-88.2000;0.3671;0.9525;
-87.9000;0.3663;0.9427;
-87.6000;0.3679;0.9452;
-87.3000;0.3687;0.9452;
-87.0000;0.3663;0.9427;
-86.7000;0.3639;0.9353;
-86.4000;0.3598;0.9182;
-86.1000;0.3630;0.9304;
-85.8000;0.3647;0.9427;
-85.5000;0.3696;0.9574;
-85.2000;0.3671;0.9427;
-84.9000;0.3671;0.9304;
-84.6000;0.3655;0.9280;
-84.3000;0.3687;0.9525;
-84.0000;0.3614;0.9329;
-83.7000;0.3671;0.9427;
-83.4000;0.3655;0.9427;
-83.1000;0.3704;0.9550;
-82.8000;0.3663;0.9501;
-82.5000;0.3639;0.9427;
-82.2000;0.3671;0.9452;
-81.9000;0.3663;0.9402;
-81.6000;0.3671;0.9452;
-81.3000;0.3655;0.9402;
-81.0000;0.3663;0.9402;
-80.7000;0.3671;0.9353;
-80.4000;0.3647;0.9255;
-80.1000;0.3655;0.9378;
-79.8000;0.3736;0.9476;
-79.5000;0.3614;0.9132;
-79.2000;0.3647;0.9329;
-78.9000;0.3679;0.9427;
-78.6000;0.3663;0.9304;
-78.3000;0.3647;0.9206;
-78.0000;0.3655;0.9231;
-77.7000;0.3655;0.9255;
-77.4000;0.3606;0.9132;
-77.1000;0.3647;0.9280;
-76.8000;0.3639;0.9329;
-76.5000;0.3639;0.9329;
-76.2000;0.3663;0.9353;
-75.9000;0.3679;0.9427;
-75.6000;0.3639;0.9402;
-75.3000;0.3639;0.9427;
-75.0000;0.3671;0.9427;
-74.7000;0.3663;0.9353;
-74.4000;0.3663;0.9353;
-74.1000;0.3671;0.9353;
-73.8000;0.3639;0.9280;
-73.5000;0.3671;0.9378;
-73.2000;0.3647;0.9304;
-72.9000;0.3655;0.9255;
-72.6000;0.3663;0.9231;
-72.3000;0.3679;0.9206;
-72.0000;0.3679;0.9304;
-71.7000;0.3720;0.9402;
-71.4000;0.3655;0.9280;
-71.1000;0.3679;0.9231;
-70.8000;0.3655;0.9280;
-70.5000;0.3687;0.9329;
-70.2000;0.3655;0.9329;
-69.9000;0.3679;0.9304;
-69.6000;0.3663;0.9231;
-69.3000;0.3679;0.9108;
-69.0000;0.3712;0.9280;
-68.7000;0.3639;0.8985;
-68.4000;0.3679;0.9034;
-68.1000;0.3647;0.9010;
-67.8000;0.3639;0.9034;
-67.5000;0.3647;0.9034;
-67.2000;0.3647;0.9108;
-66.9000;0.3663;0.9108;
-66.6000;0.3639;0.9132;
-66.3000;0.3622;0.9083;
-66.0000;0.3663;0.9157;
-65.7000;0.3663;0.9231;
-65.4000;0.3630;0.9206;
-65.1000;0.3655;0.9304;
-64.8000;0.3687;0.9329;
-64.5000;0.3687;0.9353;
-64.2000;0.3663;0.9329;
-63.9000;0.3679;0.9280;
-63.6000;0.3655;0.9329;
-63.3000;0.3679;0.9452;
-63.0000;0.3663;0.9427;
-62.7000;0.3671;0.9378;
-62.4000;0.3647;0.9255;
-62.1000;0.3679;0.9329;
-61.8000;0.3606;0.9182;
-61.5000;0.3622;0.9132;
-61.2000;0.3663;0.9182;
-60.9000;0.3655;0.9059;
-60.6000;0.3606;0.8985;
-60.3000;0.3663;0.9034;
-60.0000;0.3647;0.8961;
-59.7000;0.3663;0.8985;
-59.4000;0.3614;0.9010;
-59.1000;0.3663;0.9182;
-58.8000;0.3663;0.9231;
-58.5000;0.3671;0.9206;
-58.2000;0.3671;0.9329;
-57.9000;0.3671;0.9353;
-57.6000;0.3671;0.9280;
-57.3000;0.3655;0.9206;
-57.0000;0.3679;0.9231;
-56.7000;0.3728;0.9353;
-56.4000;0.3663;0.9182;
-56.1000;0.3630;0.9182;
-55.8000;0.3614;0.9108;
-55.5000;0.3671;0.9255;
-55.2000;0.3687;0.9402;
-54.9000;0.3663;0.9353;
-54.6000;0.3663;0.9402;
-54.3000;0.3679;0.9476;
-54.0000;0.3663;0.9353;
-53.7000;0.3663;0.9329;
-53.4000;0.3679;0.9329;
-53.1000;0.3663;0.9206;
-52.8000;0.3647;0.9280;
-52.5000;0.3647;0.9255;
-52.2000;0.3614;0.9206;
-51.9000;0.3647;0.9255;
-51.6000;0.3687;0.9353;
-51.3000;0.3647;0.9304;
-51.0000;0.3679;0.9329;
-50.7000;0.3671;0.9280;
-50.4000;0.3679;0.9280;
-50.1000;0.3663;0.9304;
-49.8000;0.3655;0.9255;
-49.5000;0.3671;0.9353;
-49.2000;0.3671;0.9353;
-48.9000;0.3679;0.9329;
-48.6000;0.3679;0.9353;
-48.3000;0.3663;0.9329;
-48.0000;0.3679;0.9353;
-47.7000;0.3598;0.9157;
-47.4000;0.3655;0.9329;
-47.1000;0.3655;0.9280;
-46.8000;0.3704;0.9476;
-46.5000;0.3655;0.9353;
-46.2000;0.3639;0.9378;
-45.9000;0.3663;0.9476;
-45.6000;0.3663;0.9525;
-45.3000;0.3671;0.9550;
-45.0000;0.3663;0.9476;
-44.7000;0.3663;0.9452;
-44.4000;0.3671;0.9427;
-44.1000;0.3687;0.9452;
-43.8000;0.3647;0.9255;
-43.5000;0.3671;0.9402;
-43.2000;0.3663;0.9378;
-42.9000;0.3671;0.9378;
-42.6000;0.3704;0.9501;
-42.3000;0.3655;0.9304;
-42.0000;0.3663;0.9280;
-41.7000;0.3663;0.9280;
-41.4000;0.3598;0.9132;
-41.1000;0.3663;0.9280;
-40.8000;0.3647;0.9329;
-40.5000;0.3655;0.9329;
-40.2000;0.3679;0.9304;
-39.9000;0.3655;0.9231;
-39.6000;0.3663;0.9231;
-39.3000;0.3647;0.9255;
-39.0000;0.3687;0.9378;
-38.7000;0.3663;0.9353;
-38.4000;0.3679;0.9329;
-38.1000;0.3630;0.9157;
-37.8000;0.3655;0.9304;
-37.5000;0.3663;0.9304;
-37.2000;0.3663;0.9304;
-36.9000;0.3663;0.9255;
-36.6000;0.3761;0.9476;
-36.3000;0.3663;0.9378;
-36.0000;0.3663;0.9329;
-35.7000;0.3663;0.9304;
-35.4000;0.3606;0.9034;
-35.1000;0.3663;0.9231;
-34.8000;0.3655;0.9157;
-34.5000;0.3663;0.9206;
-34.2000;0.3655;0.9182;
-33.9000;0.3679;0.9231;
-33.6000;0.3655;0.9206;
-33.3000;0.3655;0.9157;
-33.0000;0.3647;0.9132;
-32.7000;0.3663;0.9255;
-32.4000;0.3630;0.9157;
-32.1000;0.3647;0.9280;
-31.8000;0.3663;0.9402;
-31.5000;0.3647;0.9378;
-31.2000;0.3647;0.9452;
-30.9000;0.3663;0.9402;
-30.6000;0.3663;0.9427;
-30.3000;0.3671;0.9402;
-30.0000;0.3679;0.9353;
-29.7000;0.3671;0.9255;
-29.4000;0.3622;0.9059;
-29.1000;0.3679;0.9206;
-28.8000;0.3663;0.9206;
-28.5000;0.3736;0.9378;
-28.2000;0.3663;0.9182;
-27.9000;0.3704;0.9231;
-27.6000;0.3647;0.9108;
-27.3000;0.3671;0.9034;
-27.0000;0.3663;0.8985;
-26.7000;0.3655;0.9083;
-26.4000;0.3655;0.9108;
-26.1000;0.3663;0.9157;
-25.8000;0.3655;0.9132;
-25.5000;0.3655;0.9132;
-25.2000;0.3671;0.9255;
-24.9000;0.3663;0.9329;
-24.6000;0.3663;0.9157;
-24.3000;0.3655;0.9255;
-24.0000;0.3582;0.9108;
-23.7000;0.3663;0.9353;
-23.4000;0.3671;0.9402;
-23.1000;0.3704;0.9427;
-22.8000;0.3679;0.9280;
-22.5000;0.3663;0.9280;
-22.2000;0.3671;0.9353;
-21.9000;0.3728;0.9501;
-21.6000;0.3663;0.9427;
-21.3000;0.3663;0.9427;
-21.0000;0.3590;0.9108;
-20.7000;0.3663;0.9353;
-20.4000;0.3663;0.9329;
-20.1000;0.3655;0.9329;
-19.8000;0.3663;0.9378;
-19.5000;0.3679;0.9378;
-19.2000;0.3671;0.9378;
-18.9000;0.3679;0.9378;
-18.6000;0.3679;0.9402;
-18.3000;0.3639;0.9329;
-18.0000;0.3590;0.9231;
-17.7000;0.3647;0.9427;
-17.4000;0.3679;0.9550;
-17.1000;0.3647;0.9427;
-16.8000;0.3679;0.9476;
-16.5000;0.3639;0.9329;
-16.2000;0.3663;0.9452;
-15.9000;0.3663;0.9525;
-15.6000;0.3663;0.9574;
-15.3000;0.3630;0.9525;
-15.0000;0.3679;0.9648;
-14.7000;0.3679;0.9599;
-14.4000;0.3679;0.9525;
-14.1000;0.3679;0.9452;
-13.8000;0.3671;0.9427;
-13.5000;0.3663;0.9402;
-13.2000;0.3679;0.9427;
-12.9000;0.3655;0.9255;
-12.6000;0.3687;0.9255;
-12.3000;0.3671;0.9280;
-12.0000;0.3663;0.9280;
-11.7000;0.3663;0.9280;
-11.4000;0.3647;0.9231;
-11.1000;0.3671;0.9329;
-10.8000;0.3671;0.9402;
-10.5000;0.3655;0.9476;
-10.2000;0.3655;0.9501;
-9.9000;0.3655;0.9525;
-9.6000;0.3671;0.9378;
-9.3000;0.3655;0.9304;
-9.0000;0.3663;0.9255;
-8.7000;0.3663;0.9304;
-8.4000;0.3622;0.9280;
-8.1000;0.3671;0.9329;
-7.8000;0.3663;0.9304;
-7.5000;0.3663;0.9304;
-7.2000;0.3647;0.9304;
-6.9000;0.3663;0.9378;
-6.6000;0.3671;0.9427;
-6.3000;0.3565;0.9132;
-6.0000;0.3663;0.9378;
-5.7000;0.3679;0.9329;
-5.4000;0.3663;0.9255;
-5.1000;0.3671;0.9255;
-4.8000;0.3671;0.9280;
-4.5000;0.3736;0.9427;
-4.2000;0.3671;0.9304;
-3.9000;0.3647;0.9280;
-3.6000;0.3655;0.9280;
-3.3000;0.3687;0.9353;
-3.0000;0.3663;0.9231;
-2.7000;0.3655;0.9231;
-2.4000;0.3663;0.9280;
-2.1000;0.3647;0.9255;
-1.8000;0.3639;0.9304;
-1.5000;0.3639;0.9304;
-1.2000;0.3647;0.9206;
-0.9000;0.3639;0.9255;
-0.6000;0.3647;0.9157;
-0.3000;0.3663;0.9132;
0.0000;0.3663;0.9132;
0.3000;0.3728;0.9132;
0.6000;0.3761;0.9304;
0.9000;0.3801;0.9402;
1.2000;0.3858;0.9574;
1.5000;0.3785;0.9452;
1.8000;0.3867;0.9648;
2.1000;0.3875;0.9746;
2.4000;0.3891;0.9844;
2.7000;0.3891;1.0016;
3.0000;0.3956;1.0237;
3.3000;0.3875;1.0188;
3.6000;0.3915;1.0335;
3.9000;0.3907;1.0434;
4.2000;0.3972;1.0630;
4.5000;0.3923;1.0483;
4.8000;0.3915;1.0581;
5.1000;0.3940;1.0581;
5.4000;0.3932;1.0507;
5.7000;0.3923;1.0556;
6.0000;0.3956;1.0581;
6.3000;0.4013;1.0679;
6.6000;0.3956;1.0581;
6.9000;0.3956;1.0654;
7.2000;0.3980;1.0777;
7.5000;0.3940;1.0630;
7.8000;0.3956;1.0704;
8.1000;0.3980;1.0777;
8.4000;0.3948;1.0704;
8.7000;0.3956;1.0826;
9.0000;0.3980;1.0875;
9.3000;0.4037;1.0949;
9.6000;0.3932;1.0728;
9.9000;0.3989;1.0826;
10.2000;0.4070;1.0974;
10.5000;0.4013;1.0826;
10.8000;0.4013;1.0728;
11.1000;0.4013;1.0753;
11.4000;0.3989;1.0777;
11.7000;0.4013;1.0826;
12.0000;0.4005;1.0704;
12.3000;0.4013;1.0704;
12.6000;0.4070;1.0851;
12.9000;0.4021;1.0605;
13.2000;0.3997;1.0581;
13.5000;0.4029;1.0630;
13.8000;0.4013;1.0679;
14.1000;0.4029;1.0704;
14.4000;0.4013;1.0605;
14.7000;0.3997;1.0532;
15.0000;0.3989;1.0581;
15.3000;0.4029;1.0532;
15.6000;0.4046;1.0605;
15.9000;0.4037;1.0679;
16.2000;0.4021;1.0581;
16.5000;0.4037;1.0654;
16.8000;0.4037;1.0704;
17.1000;0.4054;1.0777;
17.4000;0.4037;1.0826;
17.7000;0.4021;1.0875;
18.0000;0.4029;1.0925;
18.3000;0.4062;1.0851;
18.6000;0.4046;1.0826;
18.9000;0.4005;1.0777;
19.2000;0.4062;1.0753;
19.5000;0.4054;1.0704;
19.8000;0.4062;1.0679;
20.1000;0.4078;1.0704;
20.4000;0.4062;1.0753;
20.7000;0.4062;1.0802;
21.0000;0.4054;1.0826;
21.3000;0.4062;1.0728;
21.6000;0.4062;1.0802;
21.9000;0.4054;1.0826;
22.2000;0.4070;1.0900;
22.5000;0.4054;1.0802;
22.8000;0.4005;1.0704;
23.1000;0.4078;1.0900;
23.4000;0.4070;1.0802;
23.7000;0.4062;1.0777;
24.0000;0.4054;1.0826;
24.3000;0.4078;1.0826;
24.6000;0.4103;1.0900;
24.9000;0.4070;1.0802;
25.2000;0.4078;1.0728;
25.5000;0.4103;1.0802;
25.8000;0.4086;1.0777;
26.1000;0.4078;1.0826;
26.4000;0.4086;1.0802;
26.7000;0.4086;1.0851;
27.0000;0.4094;1.0900;
27.3000;0.4013;1.0630;
27.6000;0.4070;1.0753;
27.9000;0.4062;1.0753;
28.2000;0.4094;1.0851;
28.5000;0.4094;1.0851;
28.8000;0.4078;1.0777;
29.1000;0.4070;1.0728;
29.4000;0.4062;1.0605;
29.7000;0.4086;1.0605;
30.0000;0.4094;1.0679;
30.3000;0.4103;1.0679;
30.6000;0.4127;1.0753;
30.9000;0.4111;1.0777;
31.2000;0.4086;1.0728;
31.5000;0.4094;1.0802;
31.8000;0.4094;1.0826;
32.1000;0.4078;1.0802;
32.4000;0.4086;1.0704;
32.7000;0.4176;1.1072;
33.0000;0.4078;1.0851;
33.3000;0.4111;1.0851;
33.6000;0.4111;1.0802;
33.9000;0.4111;1.0802;
34.2000;0.4094;1.0704;
34.5000;0.4103;1.0679;
34.8000;0.4143;1.0753;
35.1000;0.4119;1.0753;
35.4000;0.4103;1.0654;
35.7000;0.4119;1.0753;
36.0000;0.4119;1.0826;
36.3000;0.4127;1.0826;
36.6000;0.4151;1.0826;
36.9000;0.4127;1.0802;
37.2000;0.4135;1.0826;
37.5000;0.4127;1.0875;
37.8000;0.4103;1.0826;
38.1000;0.4111;1.0753;
38.4000;0.4127;1.0753;
38.7000;0.4103;1.0654;
39.0000;0.4119;1.0704;
39.3000;0.4127;1.0728;
39.6000;0.4127;1.0777;
39.9000;0.4127;1.0753;
40.2000;0.4127;1.0753;
40.5000;0.4127;1.0802;
40.8000;0.4143;1.0826;
41.1000;0.4037;1.0483;
41.4000;0.4151;1.0777;
41.7000;0.4119;1.0753;
42.0000;0.4127;1.0802;
42.3000;0.4127;1.0753;
42.6000;0.4168;1.0826;
42.9000;0.4135;1.0802;
43.2000;0.4184;1.0900;
43.5000;0.4143;1.0851;
43.8000;0.4135;1.0826;
44.1000;0.4111;1.0753;
44.4000;0.4135;1.0802;
44.7000;0.4127;1.0777;
45.0000;0.4143;1.0704;
45.3000;0.4151;1.0630;
45.6000;0.4160;1.0605;
45.9000;0.4151;1.0556;
46.2000;0.4086;1.0458;
46.5000;0.4168;1.0605;
46.8000;0.4168;1.0556;
47.1000;0.4151;1.0654;
47.4000;0.4143;1.0802;
47.7000;0.4127;1.0777;
48.0000;0.4127;1.0777;
48.3000;0.4111;1.0753;
48.6000;0.4143;1.0974;
48.9000;0.4143;1.0925;
49.2000;0.4160;1.0949;
49.5000;0.4143;1.0851;
49.8000;0.4135;1.0851;
50.1000;0.4143;1.0875;
50.4000;0.4151;1.0925;
50.7000;0.4151;1.0925;
51.0000;0.4135;1.0851;
51.3000;0.4168;1.0925;
51.6000;0.4119;1.0753;
51.9000;0.4135;1.0753;
52.2000;0.4135;1.0802;
52.5000;0.4143;1.0826;
52.8000;0.4143;1.0802;
53.1000;0.4135;1.0900;
53.4000;0.4168;1.0875;
53.7000;0.4151;1.0851;
54.0000;0.4143;1.0851;
54.3000;0.4184;1.0875;
54.6000;0.4168;1.0900;
54.9000;0.4168;1.0925;
55.2000;0.4151;1.0900;
55.5000;0.4143;1.0753;
55.8000;0.4135;1.0679;
56.1000;0.4168;1.0728;
56.4000;0.4184;1.0802;
56.7000;0.4217;1.0875;
57.0000;0.4160;1.0753;
57.3000;0.4176;1.0753;
57.6000;0.4160;1.0704;
57.9000;0.4151;1.0654;
58.2000;0.4151;1.0753;
58.5000;0.4160;1.0851;
58.8000;0.4151;1.0900;
59.1000;0.4151;1.0875;
59.4000;0.4143;1.0802;
59.7000;0.4192;1.0851;
60.0000;0.4192;1.0900;
60.3000;0.4168;1.0851;
60.6000;0.4160;1.0875;
60.9000;0.4151;1.0851;
61.2000;0.4168;1.0851;
61.5000;0.4160;1.0802;
61.8000;0.4151;1.0777;
62.1000;0.4160;1.0826;
62.4000;0.4176;1.0900;
62.7000;0.4184;1.0949;
63.0000;0.4135;1.0753;
63.3000;0.4160;1.0802;
63.6000;0.4160;1.0753;
63.9000;0.4168;1.0777;
64.2000;0.4168;1.0802;
64.5000;0.4160;1.0925;
64.8000;0.4160;1.0851;
65.1000;0.4135;1.0826;
65.4000;0.4135;1.0777;
65.7000;0.4143;1.0925;
66.0000;0.4160;1.0949;
66.3000;0.4143;1.0974;
66.6000;0.4160;1.0974;
66.9000;0.4168;1.0974;
67.2000;0.4151;1.0900;
67.5000;0.4160;1.0949;
67.8000;0.4168;1.1072;
68.1000;0.4127;1.1047;
68.4000;0.4111;1.0974;
68.7000;0.4143;1.0974;
69.0000;0.4143;1.0949;
69.3000;0.4176;1.1096;
69.6000;0.4160;1.0949;
69.9000;0.4160;1.0974;
70.2000;0.4151;1.0974;
70.5000;0.4168;1.0949;
70.8000;0.4151;1.0925;
71.1000;0.4151;1.0949;
71.4000;0.4168;1.0949;
71.7000;0.4151;1.0900;
72.0000;0.4151;1.0777;
72.3000;0.4151;1.0802;
72.6000;0.4168;1.0777;
72.9000;0.4127;1.0679;
73.2000;0.4168;1.0704;
73.5000;0.4168;1.0753;
73.8000;0.4151;1.0802;
74.1000;0.4241;1.1047;
74.4000;0.4160;1.0900;
74.7000;0.4160;1.0925;
75.0000;0.4168;1.1023;
75.3000;0.4168;1.0900;
75.6000;0.4151;1.0875;
75.9000;0.4143;1.0875;
76.2000;0.4160;1.0851;
76.5000;0.4176;1.0949;
76.8000;0.4168;1.0949;
77.1000;0.4160;1.0974;
77.4000;0.4241;1.1195;
77.7000;0.4143;1.0925;
78.0000;0.4160;1.0925;
78.3000;0.4160;1.0875;
78.6000;0.4160;1.0875;
78.9000;0.4168;1.0875;
79.2000;0.4176;1.0851;
79.5000;0.4168;1.0802;
79.8000;0.4160;1.0851;
80.1000;0.4168;1.0974;
80.4000;0.4168;1.0925;
80.7000;0.4127;1.0777;
81.0000;0.4233;1.0974;
81.3000;0.4168;1.0753;
81.6000;0.4192;1.0826;
81.9000;0.4176;1.0875;
82.2000;0.4160;1.0900;
82.5000;0.4160;1.0900;
82.8000;0.4143;1.0949;
83.1000;0.4151;1.0998;
83.4000;0.4249;1.1317;
83.7000;0.4127;1.0900;
84.0000;0.4160;1.0949;
84.3000;0.4160;1.0925;
84.6000;0.4160;1.0949;
84.9000;0.4184;1.0998;
85.2000;0.4176;1.0949;
85.5000;0.4176;1.0998;
85.8000;0.4208;1.1047;
86.1000;0.4176;1.0900;
86.4000;0.4168;1.0974;
86.7000;0.4233;1.1170;
87.0000;0.4176;1.0925;
87.3000;0.4151;1.0900;
87.6000;0.4151;1.0851;
87.9000;0.4127;1.0728;
88.2000;0.4176;1.0851;
88.5000;0.4168;1.0777;
88.8000;0.4160;1.0704;
89.1000;0.4176;1.0777;
89.4000;0.4160;1.0753;
89.7000;0.4176;1.0826;
90.0000;0.4127;1.0728;
90.3000;0.4192;1.0851;
90.6000;0.4160;1.0777;
90.9000;0.4160;1.0753;
91.2000;0.4176;1.0728;
91.5000;0.4192;1.0802;
91.8000;0.4168;1.0753;
92.1000;0.4135;1.0581;
92.4000;0.4160;1.0630;
92.7000;0.4192;1.0753;
93.0000;0.4176;1.0802;
93.3000;0.4217;1.0900;
93.6000;0.4135;1.0753;
93.9000;0.4151;1.0777;
94.2000;0.4168;1.0777;
94.5000;0.4184;1.0777;
94.8000;0.4184;1.0802;
95.1000;0.4160;1.0679;
95.4000;0.4241;1.0925;
95.7000;0.4184;1.0654;
96.0000;0.4176;1.0704;
96.3000;0.4160;1.0654;
96.6000;0.4151;1.0728;
96.9000;0.4192;1.0900;
97.2000;0.4160;1.0900;
97.5000;0.4192;1.0974;
97.8000;0.4176;1.0974;
98.1000;0.4151;1.0900;
98.4000;0.4160;1.0998;
98.7000;0.4168;1.1023;
99.0000;0.4160;1.0998;
99.3000;0.4184;1.1047;
99.6000;0.4176;1.1096;
99.9000;0.4160;1.1072;
100.2000;0.4160;1.1072;
100.5000;0.4225;1.1145;
100.8000;0.4160;1.1023;
101.1000;0.4062;1.0654;
101.4000;0.4184;1.1023;
101.7000;0.4135;1.0949;
102.0000;0.4176;1.0949;
102.3000;0.4160;1.0949;
102.6000;0.4151;1.0998;
102.9000;0.4168;1.0998;
103.2000;0.4176;1.1023;
103.5000;0.4168;1.0974;
103.8000;0.4168;1.0949;
104.1000;0.4192;1.1023;
104.4000;0.4176;1.1072;
104.7000;0.4241;1.1293;
105.0000;0.4184;1.1145;
105.3000;0.4176;1.1121;
105.6000;0.4151;1.1047;
105.9000;0.4184;1.1244;
106.2000;0.4200;1.1145;
106.5000;0.4176;1.1047;
106.8000;0.4160;1.1023;
107.1000;0.4160;1.1072;
107.4000;0.4160;1.1096;
107.7000;0.4176;1.1145;
108.0000;0.4176;1.1096;
108.3000;0.4176;1.1096;
108.6000;0.4176;1.1047;
108.9000;0.4168;1.1023;
109.2000;0.4184;1.1023;
109.5000;0.4160;1.0949;
109.8000;0.4151;1.0925;
110.1000;0.4143;1.1023;
110.4000;0.4160;1.1047;
110.7000;0.4143;1.0974;
111.0000;0.4176;1.1047;
111.3000;0.4168;1.1047;
111.6000;0.4176;1.1072;
111.9000;0.4225;1.1244;
112.2000;0.4151;1.1072;
112.5000;0.4184;1.1096;
112.8000;0.4176;1.1023;
113.1000;0.4160;1.0925;
113.4000;0.4168;1.0974;
113.7000;0.4168;1.0851;
114.0000;0.4168;1.0851;
114.3000;0.4168;1.0900;
114.6000;0.4160;1.0974;
114.9000;0.4160;1.0949;
115.2000;0.4176;1.0925;
115.5000;0.4184;1.0949;
115.8000;0.4160;1.0802;
116.1000;0.4184;1.0875;
116.4000;0.4176;1.0925;
116.7000;0.4176;1.0802;
117.0000;0.4176;1.0900;
117.3000;0.4176;1.0826;
117.6000;0.4168;1.0826;
117.9000;0.4151;1.0851;
118.2000;0.4184;1.0925;
118.5000;0.4160;1.0875;
118.8000;0.4151;1.0974;
119.1000;0.4103;1.0875;
119.4000;0.4103;1.0949;
119.7000;0.4160;1.1145;
120.0000;0.4184;1.1244;
120.3000;0.4168;1.1170;
120.6000;0.4160;1.1096;
120.9000;0.4143;1.1096;
121.2000;0.4168;1.1121;
121.5000;0.4160;1.0949;
121.8000;0.4160;1.0974;
122.1000;0.4168;1.1023;
122.4000;0.4151;1.0949;
122.7000;0.4160;1.0974;
123.0000;0.4168;1.1072;
123.3000;0.4168;1.0974;
123.6000;0.4168;1.0974;
123.9000;0.4160;1.0900;
124.2000;0.4111;1.0851;
124.5000;0.4160;1.0998;
124.8000;0.4217;1.1121;
125.1000;0.4184;1.0925;
125.4000;0.4119;1.0826;
125.7000;0.4257;1.1023;
126.0000;0.4184;1.0826;
126.3000;0.4111;1.0654;
126.6000;0.4176;1.0851;
126.9000;0.4160;1.0753;
127.2000;0.4225;1.0949;
127.5000;0.4208;1.1047;
127.8000;0.4176;1.0998;
128.1000;0.4176;1.0974;
128.4000;0.4160;1.0998;
128.7000;0.4208;1.1145;
129.0000;0.4176;1.0974;
129.3000;0.4168;1.0949;
129.6000;0.4200;1.0998;
129.9000;0.4160;1.0974;
130.2000;0.4127;1.0826;
130.5000;0.4151;1.0851;
130.8000;0.4176;1.0851;
131.1000;0.4184;1.0851;
131.4000;0.4225;1.0998;
131.7000;0.4168;1.0875;
132.0000;0.4143;1.0802;
132.3000;0.4151;1.0851;
132.6000;0.4160;1.0851;
132.9000;0.4168;1.0925;
133.2000;0.4151;1.0925;
133.5000;0.4143;1.0998;
133.8000;0.4184;1.1072;
134.1000;0.4160;1.1047;
134.4000;0.4168;1.1072;
134.7000;0.4160;1.0949;
135.0000;0.4160;1.0900;
135.3000;0.4143;1.0851;
135.6000;0.4151;1.0777;
135.9000;0.4176;1.0777;
136.2000;0.4184;1.0851;
136.5000;0.4160;1.0851;
136.8000;0.4168;1.0802;
137.1000;0.4111;1.0654;
137.4000;0.4168;1.0826;
137.7000;0.4176;1.0802;
138.0000;0.4151;1.0802;
138.3000;0.4176;1.0875;
138.6000;0.4168;1.0826;
138.9000;0.4160;1.0728;
139.2000;0.4160;1.0704;
139.5000;0.4160;1.0802;
139.8000;0.4192;1.0851;
140.1000;0.4249;1.1096;
140.4000;0.4160;1.0974;
140.7000;0.4184;1.0925;
141.0000;0.4160;1.0851;
141.3000;0.4200;1.0851;
141.6000;0.4184;1.0802;
141.9000;0.4176;1.0777;
142.2000;0.4111;1.0753;
142.5000;0.4192;1.1047;
142.8000;0.4168;1.1072;
143.1000;0.4200;1.1195;
143.4000;0.4160;1.1121;
143.7000;0.4135;1.0974;
144.0000;0.4143;1.0998;
144.3000;0.4160;1.1023;
144.6000;0.4192;1.1047;
144.9000;0.4184;1.1023;
145.2000;0.4143;1.0974;
145.5000;0.4217;1.1096;
145.8000;0.4143;1.0875;
146.1000;0.4160;1.0974;
146.4000;0.4127;1.0826;
146.7000;0.4176;1.0974;
147.0000;0.4184;1.1023;
147.3000;0.4151;1.0998;
147.6000;0.4151;1.1072;
147.9000;0.4135;1.1023;
148.2000;0.4200;1.1170;
148.5000;0.4127;1.0925;
148.8000;0.4168;1.1072;
149.1000;0.4176;1.1121;
149.4000;0.4168;1.1023;
149.7000;0.4298;1.1342;
150.0000;0.4160;1.1023;
150.3000;0.4184;1.1096;
150.6000;0.4135;1.0974;
150.9000;0.4127;1.0925;
151.2000;0.4168;1.1023;
151.5000;0.4151;1.1023;
151.8000;0.4151;1.0998;
152.1000;0.4160;1.0998;
152.4000;0.4143;1.0925;
152.7000;0.4151;1.0875;
153.0000;0.4176;1.0875;
153.3000;0.4151;1.0777;
153.6000;0.4200;1.0826;
153.9000;0.4168;1.0777;
154.2000;0.4184;1.0875;
154.5000;0.4192;1.0851;
154.8000;0.4241;1.0998;
155.1000;0.4184;1.0802;
155.4000;0.4184;1.0875;
155.7000;0.4168;1.0875;
156.0000;0.4225;1.0925;
156.3000;0.4168;1.0900;
156.6000;0.4168;1.0826;
156.9000;0.4168;1.0851;
157.2000;0.4160;1.0826;
157.5000;0.4119;1.0679;
157.8000;0.4176;1.0826;
158.1000;0.4143;1.0728;
158.4000;0.4151;1.0875;
158.7000;0.4160;1.0875;
159.0000;0.4176;1.0851;
159.3000;0.4160;1.0826;
159.6000;0.4151;1.0777;
159.9000;0.4111;1.0679;
160.2000;0.4143;1.0875;
160.5000;0.4176;1.0900;
160.8000;0.4160;1.0900;
161.1000;0.4160;1.0851;
161.4000;0.4168;1.0851;
161.7000;0.4168;1.0851;
162.0000;0.4168;1.0875;
162.3000;0.4208;1.0974;
162.6000;0.4168;1.0875;
162.9000;0.4176;1.0925;
163.2000;0.4176;1.0900;
163.5000;0.4160;1.0900;
163.8000;0.4160;1.0851;
164.1000;0.4168;1.0826;
164.4000;0.4151;1.0826;
164.7000;0.4168;1.0900;
165.0000;0.4160;1.0925;
165.3000;0.4168;1.0998;
165.6000;0.4176;1.1121;
165.9000;0.4143;1.1023;
166.2000;0.4176;1.1145;
166.5000;0.4168;1.1121;
166.8000;0.4192;1.1195;
167.1000;0.4151;1.1096;
167.4000;0.4135;1.0974;
167.7000;0.4176;1.1072;
168.0000;0.4151;1.1047;
168.3000;0.4168;1.0974;
168.6000;0.4151;1.0900;
168.9000;0.4160;1.0925;
169.2000;0.4168;1.0875;
169.5000;0.4151;1.0875;
169.8000;0.4168;1.0925;
170.1000;0.4160;1.0875;
170.4000;0.4168;1.0875;
170.7000;0.4127;1.0753;
171.0000;0.4160;1.0826;
171.3000;0.4151;1.0728;
171.6000;0.4176;1.0802;
171.9000;0.4168;1.0851;
172.2000;0.4168;1.0728;
172.5000;0.4176;1.0826;
172.8000;0.4151;1.0900;
173.1000;0.4168;1.0875;
173.4000;0.4168;1.0826;
173.7000;0.4168;1.0777;
174.0000;0.4135;1.0777;
174.3000;0.4168;1.0900;
174.6000;0.4184;1.0949;
174.9000;0.4168;1.0851;
175.2000;0.4160;1.0875;
175.5000;0.4160;1.0875;
175.8000;0.4160;1.0900;
176.1000;0.4176;1.0949;
176.4000;0.4160;1.0974;
176.7000;0.4135;1.0949;
177.0000;0.4176;1.1096;
177.3000;0.4168;1.1121;
177.6000;0.4168;1.1096;
177.9000;0.4176;1.1072;
178.2000;0.4168;1.1072;
178.5000;0.4257;1.1342;
178.8000;0.4143;1.1096;
179.1000;0.4176;1.1096;
179.4000;0.4151;1.1072;
179.7000;0.4143;1.1072;
180.0000;0.4143;1.1096;
180.3000;0.4143;1.1096;
180.6000;0.4151;1.1096;
180.9000;0.4168;1.1047;
181.2000;0.4168;1.1072;
181.5000;0.4225;1.1195;
181.8000;0.4143;1.0974;
182.1000;0.4127;1.0974;
182.4000;0.4143;1.1023;
182.7000;0.4160;1.1023;
183.0000;0.4168;1.0974;
183.3000;0.4168;1.1047;
183.6000;0.4151;1.1023;
183.9000;0.4168;1.1121;
184.2000;0.4143;1.1145;
184.5000;0.4168;1.1072;
184.8000;0.4160;1.1023;
185.1000;0.4160;1.1096;
185.4000;0.4143;1.1096;
185.7000;0.4176;1.1121;
186.0000;0.4176;1.1121;
186.3000;0.4111;1.0802;
186.6000;0.4143;1.0900;
186.9000;0.4151;1.0949;
187.2000;0.4176;1.0974;
187.5000;0.4176;1.0949;
187.8000;0.4168;1.0900;
188.1000;0.4257;1.0998;
188.4000;0.4168;1.0777;
188.7000;0.4160;1.0826;
189.0000;0.4184;1.0875;
189.3000;0.4151;1.0826;
189.6000;0.4168;1.0900;
189.9000;0.4168;1.0949;
190.2000;0.4168;1.0974;
190.5000;0.4168;1.0998;
190.8000;0.4168;1.0949;
191.1000;0.4176;1.0998;
191.4000;0.4233;1.1195;
191.7000;0.4176;1.1145;
192.0000;0.4168;1.1072;
192.3000;0.4176;1.0900;
192.6000;0.4168;1.0826;
192.9000;0.4151;1.0851;
193.2000;0.4168;1.0826;
193.5000;0.4160;1.0777;
193.8000;0.4176;1.0875;
194.1000;0.4168;1.0875;
194.4000;0.4168;1.0974;
194.7000;0.4151;1.1023;
195.0000;0.4176;1.1023;
195.3000;0.4143;1.1023;
195.6000;0.4151;1.0949;
195.9000;0.4168;1.0974;
196.2000;0.4168;1.0925;
196.5000;0.4151;1.0949;
196.8000;0.4151;1.0949;
197.1000;0.4168;1.0974;
197.4000;0.4143;1.0974;
197.7000;0.4151;1.0974;
198.0000;0.4160;1.0925;
198.3000;0.4160;1.0826;
198.6000;0.4168;1.0925;
198.9000;0.4168;1.0925;
199.2000;0.4111;1.0826;
199.5000;0.4225;1.1195;
199.8000;0.4184;1.1121;
200.1000;0.4168;1.1023;
200.4000;0.4160;1.1023;
200.7000;0.4135;1.0925;
201.0000;0.4176;1.1072;
201.3000;0.4151;1.1121;
201.6000;0.4200;1.1121;
201.9000;0.4192;1.1072;
202.2000;0.4200;1.1121;
202.5000;0.4184;1.1023;
202.8000;0.4176;1.0998;
203.1000;0.4176;1.0949;
203.4000;0.4192;1.0925;
203.7000;0.4168;1.0875;
204.0000;0.4160;1.0925;
204.3000;0.4151;1.0900;
204.6000;0.4184;1.0998;
204.9000;0.4241;1.1145;
205.2000;0.4160;1.0949;
205.5000;0.4160;1.0851;
205.8000;0.4119;1.0777;
206.1000;0.4151;1.0925;
206.4000;0.4151;1.0851;
206.7000;0.4151;1.0875;
207.0000;0.4176;1.0925;
207.3000;0.4176;1.0949;
207.6000;0.4176;1.0998;
207.9000;0.4168;1.1072;
208.2000;0.4160;1.1047;
208.5000;0.4135;1.1096;
208.8000;0.4168;1.1121;
209.1000;0.4143;1.1096;
209.4000;0.4168;1.1072;
209.7000;0.4168;1.0998;
210.0000;0.4168;1.0949;
210.3000;0.4176;1.0998;
210.6000;0.4176;1.1023;
210.9000;0.4151;1.0974;
211.2000;0.4151;1.1072;
211.5000;0.4168;1.1121;
211.8000;0.4176;1.1170;
212.1000;0.4176;1.1145;
212.4000;0.4160;1.1145;
212.7000;0.4151;1.1096;
213.0000;0.4151;1.1023;
213.3000;0.4160;1.1047;
213.6000;0.4176;1.1145;
213.9000;0.4192;1.1293;
214.2000;0.4160;1.1195;
214.5000;0.4160;1.1244;
214.8000;0.4168;1.1293;
215.1000;0.4208;1.1440;
215.4000;0.4192;1.1244;
215.7000;0.4160;1.1096;
216.0000;0.4143;1.0974;
216.3000;0.4208;1.1047;
216.6000;0.4176;1.1023;
216.9000;0.4208;1.1145;
217.2000;0.4265;1.1317;
217.5000;0.4151;1.1047;
217.8000;0.4160;1.0998;
218.1000;0.4160;1.0998;
218.4000;0.4094;1.0851;
218.7000;0.4160;1.0974;
219.0000;0.4127;1.0728;
219.3000;0.4127;1.0802;
219.6000;0.4127;1.0875;
219.9000;0.4208;1.1072;
220.2000;0.4127;1.0826;
220.5000;0.4176;1.0875;
220.8000;0.4111;1.0679;
221.1000;0.4168;1.0900;
221.4000;0.4184;1.0875;
221.7000;0.4160;1.0949;
222.0000;0.4151;1.1047;
222.3000;0.4160;1.1195;
222.6000;0.4151;1.1195;
222.9000;0.4127;1.1072;
223.2000;0.4151;1.1096;
223.5000;0.4151;1.1047;
223.8000;0.4151;1.0998;
224.1000;0.4176;1.1096;
224.4000;0.4151;1.1023;
224.7000;0.4176;1.0998;
225.0000;0.4208;1.1047;
225.3000;0.4176;1.0925;
225.6000;0.4168;1.0949;
225.9000;0.4168;1.0875;
226.2000;0.4176;1.0998;
226.5000;0.4168;1.0974;
226.8000;0.4208;1.1121;
227.1000;0.4233;1.1268;
227.4000;0.4168;1.1121;
227.7000;0.4176;1.1072;
228.0000;0.4200;1.1121;
228.3000;0.4184;1.1047;
228.6000;0.4192;1.0998;
228.9000;0.4168;1.0974;
229.2000;0.4160;1.0974;
229.5000;0.4103;1.0851;
229.8000;0.4143;1.0900;
230.1000;0.4176;1.0949;
230.4000;0.4176;1.0925;
230.7000;0.4160;1.0753;
231.0000;0.4151;1.0753;
231.3000;0.4151;1.0753;
231.6000;0.4176;1.0875;
231.9000;0.4168;1.0925;
232.2000;0.4217;1.0974;
232.5000;0.4176;1.0777;
232.8000;0.4168;1.0728;
233.1000;0.4151;1.0704;
233.4000;0.4168;1.0728;
233.7000;0.4160;1.0704;
234.0000;0.4176;1.0704;
234.3000;0.4176;1.0851;
234.6000;0.4160;1.0704;
234.9000;0.4160;1.0753;
235.2000;0.4168;1.0851;
235.5000;0.4200;1.0900;
235.8000;0.4168;1.0851;
236.1000;0.4176;1.0851;
236.4000;0.4135;1.0728;
236.7000;0.4184;1.0875;
237.0000;0.4168;1.0851;
237.3000;0.4184;1.0900;
237.6000;0.4168;1.0851;
237.9000;0.4143;1.0851;
238.2000;0.4168;1.0900;
238.5000;0.4143;1.0998;
238.8000;0.4135;1.0875;
239.1000;0.4151;1.0851;
239.4000;0.4143;1.0875;
239.7000;0.4160;1.0900;
240.0000;0.4111;1.0802;
240.3000;0.4168;1.0900;
240.6000;0.4168;1.0875;
240.9000;0.4184;1.0925;
241.2000;0.4184;1.0900;
241.5000;0.4160;1.0851;
241.8000;0.4168;1.0925;
242.1000;0.4168;1.0949;
242.4000;0.4119;1.0900;
242.7000;0.4160;1.0998;
243.0000;0.4160;1.0974;
243.3000;0.4151;1.0974;
243.6000;0.4160;1.0998;
243.9000;0.4135;1.0925;
244.2000;0.4151;1.0949;
244.5000;0.4151;1.0974;
244.8000;0.4143;1.0974;
245.1000;0.4143;1.1023;
245.4000;0.4176;1.1121;
245.7000;0.4168;1.0949;
246.0000;0.4241;1.1096;
246.3000;0.4168;1.0851;
246.6000;0.4168;1.0875;
246.9000;0.4176;1.0875;
247.2000;0.4241;1.0998;
247.5000;0.4160;1.0728;
247.8000;0.4176;1.0802;
248.1000;0.4168;1.0826;
248.4000;0.4176;1.0900;
248.7000;0.4160;1.0826;
249.0000;0.4135;1.0728;
249.3000;0.4168;1.0802;
249.6000;0.4160;1.0777;
249.9000;0.4143;1.0851;
250.2000;0.4168;1.0925;
250.5000;0.4168;1.0875;
250.8000;0.4184;1.0974;
251.1000;0.4217;1.1047;
251.4000;0.4168;1.0925;
251.7000;0.4176;1.0900;
252.0000;0.4160;1.0900;
252.3000;0.4143;1.0802;
252.6000;0.4143;1.0826;
252.9000;0.4168;1.0949;
253.2000;0.4151;1.0998;
253.5000;0.4151;1.1072;
253.8000;0.4151;1.1047;
254.1000;0.4151;1.1072;
254.4000;0.4176;1.1072;
254.7000;0.4192;1.1096;
255.0000;0.4168;1.0974;
255.3000;0.4168;1.0925;
255.6000;0.4143;1.0949;
255.9000;0.4151;1.1023;
256.2000;0.4151;1.1072;
256.5000;0.4103;1.0875;
256.8000;0.4160;1.1047;
257.1000;0.4176;1.1121;
257.4000;0.4176;1.1047;
257.7000;0.4160;1.1047;
258.0000;0.4160;1.0998;
258.3000;0.4135;1.0925;
258.6000;0.4160;1.0998;
258.9000;0.4135;1.0998;
259.2000;0.4168;1.1023;
259.5000;0.4160;1.0925;
259.8000;0.4168;1.0925;
260.1000;0.4151;1.0949;
260.4000;0.4151;1.0925;
260.7000;0.4184;1.0949;
261.0000;0.4217;1.1072;
261.3000;0.4151;1.0925;
261.6000;0.4103;1.0875;
261.9000;0.4241;1.1170;
262.2000;0.4176;1.0974;
262.5000;0.4151;1.0925;
262.8000;0.4176;1.0925;
263.1000;0.4119;1.0851;
263.4000;0.4184;1.0998;
263.7000;0.4151;1.0949;
264.0000;0.4168;1.1023;
264.3000;0.4168;1.0949;
264.6000;0.4160;1.0777;
264.9000;0.4151;1.0728;
265.2000;0.4176;1.0802;
265.5000;0.4168;1.0826;
265.8000;0.4168;1.0802;
266.1000;0.4168;1.0802;
266.4000;0.4111;1.0777;
266.7000;0.4135;1.0974;
267.0000;0.4151;1.1195;
267.3000;0.4168;1.1195;
267.6000;0.4151;1.1170;
267.9000;0.4151;1.1121;
268.2000;0.4143;1.1072;
268.5000;0.4160;1.1072;
268.8000;0.4160;1.0949;
269.1000;0.4192;1.1072;
269.4000;0.4151;1.1047;
269.7000;0.4151;1.1072;
270.0000;0.4127;1.0998;
270.3000;0.4143;1.1121;
270.6000;0.4143;1.1121;
270.9000;0.4184;1.1121;
271.2000;0.4143;1.1145;
271.5000;0.4160;1.1145;
271.8000;0.4135;1.1145;
272.1000;0.4111;1.1096;
272.4000;0.4151;1.1170;
272.7000;0.4160;1.1195;
273.0000;0.4168;1.1170;
273.3000;0.4143;1.1096;
273.6000;0.4143;1.1121;
273.9000;0.4160;1.1145;
274.2000;0.4151;1.1072;
274.5000;0.4225;1.1244;
274.8000;0.4176;1.1096;
275.1000;0.4176;1.1072;
275.4000;0.4192;1.1145;
275.7000;0.4168;1.1047;
276.0000;0.4184;1.1072;
276.3000;0.4192;1.1072;
276.6000;0.4168;1.1072;
276.9000;0.4151;1.1023;
277.2000;0.4217;1.1145;
277.5000;0.4192;1.1145;
277.8000;0.4111;1.0925;
278.1000;0.4151;1.0998;
278.4000;0.4135;1.1047;
278.7000;0.4184;1.1072;
279.0000;0.4151;1.0925;
279.3000;0.4151;1.0974;
279.6000;0.4151;1.0974;
279.9000;0.4192;1.1195;
280.2000;0.4176;1.1121;
280.5000;0.4078;1.0925;
280.8000;0.4127;1.0998;
281.1000;0.4111;1.0826;
281.4000;0.4143;1.0900;
281.7000;0.4086;1.0802;
282.0000;0.4151;1.0974;
282.3000;0.4143;1.0875;
282.6000;0.4168;1.0802;
282.9000;0.4208;1.0925;
283.2000;0.4119;1.0728;
283.5000;0.4184;1.0998;
283.8000;0.4160;1.0949;
284.1000;0.4143;1.0949;
284.4000;0.4151;1.0949;
284.7000;0.4143;1.0851;
285.0000;0.4257;1.1145;
285.3000;0.4176;1.0875;
285.6000;0.4143;1.0826;
285.9000;0.4184;1.0875;
286.2000;0.4151;1.0777;
286.5000;0.4151;1.0826;
286.8000;0.4160;1.0851;
287.1000;0.4168;1.0875;
287.4000;0.4168;1.0826;
287.7000;0.4168;1.0875;
288.0000;0.4176;1.0826;
288.3000;0.4151;1.0753;
288.6000;0.4151;1.0753;
288.9000;0.4160;1.0826;
289.2000;0.4151;1.0802;
289.5000;0.4168;1.0728;
289.8000;0.4176;1.0826;
290.1000;0.4184;1.0925;
290.4000;0.4151;1.0949;
290.7000;0.4176;1.0949;
291.0000;0.4176;1.0998;
291.3000;0.4168;1.0925;
291.6000;0.4119;1.0826;
291.9000;0.4111;1.0802;
292.2000;0.4143;1.0851;
292.5000;0.4168;1.0900;
292.8000;0.4143;1.0802;
293.1000;0.4119;1.0704;
293.4000;0.4151;1.0753;
293.7000;0.4176;1.0802;
294.0000;0.4135;1.0777;
294.3000;0.4151;1.0704;
294.6000;0.4217;1.0826;
294.9000;0.4160;1.0679;
295.2000;0.4143;1.0728;
295.5000;0.4160;1.0679;
295.8000;0.4160;1.0802;
296.1000;0.4168;1.0851;
296.4000;0.4168;1.0851;
296.7000;0.4070;1.0654;
297.0000;0.4274;1.1170;
297.3000;0.4168;1.0826;
297.6000;0.4168;1.0802;
297.9000;0.4168;1.0753;
298.2000;0.4168;1.0728;
298.5000;0.4160;1.0826;
298.8000;0.4176;1.0900;
299.1000;0.4200;1.0949;
299.4000;0.4168;1.0802;
299.7000;0.4168;1.0802;
300.0000;0.4151;1.0753;
300.3000;0.4160;1.0777;
300.6000;0.4168;1.0728;
300.9000;0.4151;1.0654;
301.2000;0.4184;1.0777;
301.5000;0.4143;1.0581;
301.8000;0.4151;1.0581;
302.1000;0.4151;1.0581;
302.4000;0.4160;1.0605;
302.7000;0.4143;1.0704;
303.0000;0.4151;1.0728;
303.3000;0.4160;1.0728;
303.6000;0.4217;1.0851;
303.9000;0.4143;1.0777;
304.2000;0.4151;1.0704;
304.5000;0.4184;1.0753;
304.8000;0.4135;1.0704;
305.1000;0.4168;1.0777;
305.4000;0.4176;1.0900;
305.7000;0.4168;1.1072;
306.0000;0.4143;1.0998;
306.3000;0.4151;1.1072;
306.6000;0.4176;1.1047;
306.9000;0.4160;1.1023;
307.2000;0.4143;1.0998;
307.5000;0.4151;1.0925;
307.8000;0.4151;1.0900;
308.1000;0.4143;1.0925;
308.4000;0.4143;1.0875;
308.7000;0.4135;1.0900;
309.0000;0.4127;1.0974;
309.3000;0.4160;1.1023;
309.6000;0.4168;1.1096;
309.9000;0.4135;1.0974;
310.2000;0.4160;1.0875;
310.5000;0.4151;1.0925;
310.8000;0.4119;1.0925;
311.1000;0.4151;1.1047;
311.4000;0.4184;1.1121;
311.7000;0.4176;1.1096;
312.0000;0.4168;1.1096;
312.3000;0.4168;1.1096;
312.6000;0.4184;1.1072;
312.9000;0.4151;1.0949;
313.2000;0.4143;1.1023;
313.5000;0.4135;1.1047;
313.8000;0.4135;1.0974;
314.1000;0.4151;1.1047;
314.4000;0.4151;1.0949;
314.7000;0.4176;1.0998;
315.0000;0.4151;1.0851;
315.3000;0.4151;1.0777;
315.6000;0.4160;1.0851;
315.9000;0.4160;1.0777;
316.2000;0.4168;1.0802;
316.5000;0.4135;1.0802;
316.8000;0.4168;1.0900;
317.1000;0.4143;1.0851;
317.4000;0.4241;1.1145;
317.7000;0.4168;1.0900;
318.0000;0.4192;1.1023;
318.3000;0.4160;1.0949;
318.6000;0.4111;1.0802;
318.9000;0.4151;1.0998;
319.2000;0.4168;1.0974;
319.5000;0.4160;1.0998;
319.8000;0.4168;1.1047;
320.1000;0.4168;1.1072;
320.4000;0.4151;1.0949;
320.7000;0.4160;1.0949;
321.0000;0.4160;1.0851;
321.3000;0.4094;1.0753;
321.6000;0.4119;1.0777;
321.9000;0.4176;1.0925;
322.2000;0.4168;1.0974;
322.5000;0.4135;1.0900;
322.8000;0.4168;1.0900;
323.1000;0.4135;1.0851;
323.4000;0.4160;1.0949;
323.7000;0.4151;1.0925;
324.0000;0.4151;1.0925;
324.3000;0.4160;1.0974;
324.6000;0.4160;1.0974;
324.9000;0.4160;1.0949;
325.2000;0.4151;1.0998;
325.5000;0.4160;1.1023;
325.8000;0.4160;1.1072;
326.1000;0.4176;1.1121;
326.4000;0.4151;1.1023;
326.7000;0.4160;1.1072;
327.0000;0.4168;1.0998;
327.3000;0.4168;1.0974;
327.6000;0.4143;1.1023;
327.9000;0.4151;1.0974;
328.2000;0.4151;1.0900;
328.5000;0.4151;1.0925;
328.8000;0.4160;1.0998;
329.1000;0.4168;1.1047;
329.4000;0.4192;1.1121;
329.7000;0.4168;1.1096;
330.0000;0.4143;1.1023;
330.3000;0.4143;1.0925;
330.6000;0.4160;1.0949;
330.9000;0.4151;1.0998;
331.2000;0.4143;1.0925;
331.5000;0.4127;1.0875;
331.8000;0.4168;1.0998;
332.1000;0.4160;1.0851;
332.4000;0.4127;1.0728;
332.7000;0.4143;1.0777;
333.0000;0.4168;1.0851;
333.3000;0.4168;1.0802;
333.6000;0.4151;1.0826;
333.9000;0.4143;1.0925;
334.2000;0.4151;1.0875;
334.5000;0.4160;1.0974;
334.8000;0.4151;1.0974;
335.1000;0.4135;1.0900;
335.4000;0.4143;1.0974;
335.7000;0.4135;1.0949;
336.0000;0.4160;1.1023;
336.3000;0.4127;1.0974;
336.6000;0.4160;1.1047;
336.9000;0.4168;1.1047;
337.2000;0.4143;1.1047;
337.5000;0.4151;1.1023;
337.8000;0.4168;1.1072;
338.1000;0.4119;1.1023;
338.4000;0.4168;1.1121;
338.7000;0.4160;1.0998;
339.0000;0.4160;1.1047;
339.3000;0.4143;1.1121;
339.6000;0.4160;1.1096;
339.9000;0.4217;1.1244;
340.2000;0.4184;1.1219;
340.5000;0.4160;1.1170;
340.8000;0.4176;1.1268;
341.1000;0.4217;1.1342;
341.4000;0.4176;1.1219;
341.7000;0.4160;1.1170;
342.0000;0.4184;1.1170;
342.3000;0.4168;1.1072;
342.6000;0.4168;1.1072;
342.9000;0.4160;1.1023;
343.2000;0.4151;1.1047;
343.5000;0.4217;1.1121;
343.8000;0.4160;1.1023;
344.1000;0.4143;1.1023;
344.4000;0.4160;1.1047;
344.7000;0.4168;1.1195;
345.0000;0.4143;1.1145;
345.3000;0.4168;1.1195;
345.6000;0.4160;1.1195;
345.9000;0.4151;1.1170;
346.2000;0.4160;1.1244;
346.5000;0.4176;1.1268;
346.8000;0.4143;1.1293;
347.1000;0.4168;1.1268;
347.4000;0.4151;1.1121;
347.7000;0.4151;1.1047;
348.0000;0.4143;1.0949;
348.3000;0.4094;1.0753;
348.6000;0.4176;1.0949;
348.9000;0.4160;1.0974;
349.2000;0.4184;1.1170;
349.5000;0.4176;1.1195;
349.8000;0.4160;1.1121;
350.1000;0.4151;1.1170;
350.4000;0.4160;1.1096;
350.7000;0.4151;1.1072;
351.0000;0.4143;1.1121;
351.3000;0.4184;1.1219;
351.6000;0.4151;1.1121;
351.9000;0.4160;1.1195;
352.2000;0.4184;1.1244;
352.5000;0.4168;1.1170;
352.8000;0.4176;1.1096;
353.1000;0.4151;1.0974;
353.4000;0.4151;1.0925;
353.7000;0.4176;1.0998;
354.0000;0.4151;1.0998;
354.3000;0.4160;1.1047;
354.6000;0.4168;1.1121;
354.9000;0.4160;1.1121;
355.2000;0.4168;1.1145;
355.5000;0.4160;1.1072;
355.8000;0.4160;1.0998;
356.1000;0.4160;1.1072;
356.4000;0.4225;1.1195;
356.7000;0.4168;1.0974;
357.0000;0.4168;1.0998;
357.3000;0.4176;1.0949;
357.6000;0.4151;1.0949;
357.9000;0.4184;1.1023;
358.2000;0.4143;1.0949;
358.5000;0.4143;1.0949;
358.8000;0.4176;1.0949;
359.1000;0.4184;1.0998;
359.4000;0.4143;1.0949;
359.7000;0.4151;1.1023;
360.0000;0.4160;1.1047;
360.3000;0.4168;1.1096;
360.6000;0.4135;1.0998;
360.9000;0.4111;1.0925;
361.2000;0.4143;1.0998;
361.5000;0.4151;1.0974;
361.8000;0.4151;1.1072;
362.1000;0.4176;1.1121;
362.4000;0.4160;1.0974;
362.7000;0.4168;1.1047;
363.0000;0.4143;1.0998;
363.3000;0.4176;1.1072;
363.6000;0.4135;1.0998;
363.9000;0.4151;1.1072;
364.2000;0.4151;1.0998;
364.5000;0.4168;1.1072;
364.8000;0.4160;1.1072;
365.1000;0.4119;1.0998;
365.4000;0.4176;1.1096;
365.7000;0.4233;1.1170;
366.0000;0.4143;1.0998;
366.3000;0.4176;1.1121;
366.6000;0.4143;1.0998;
366.9000;0.4176;1.1170;
367.2000;0.4160;1.1195;
367.5000;0.4135;1.1121;
367.8000;0.4168;1.1195;
368.1000;0.4127;1.1121;
368.4000;0.4143;1.1121;
368.7000;0.4217;1.1416;
369.0000;0.4151;1.1219;
369.3000;0.4127;1.1195;
369.6000;0.4135;1.1170;
369.9000;0.4151;1.1219;
370.2000;0.4176;1.1219;
370.5000;0.4151;1.1096;
370.8000;0.4151;1.1047;
371.1000;0.4127;1.0949;
371.4000;0.4135;1.1072;
371.7000;0.4233;1.1170;
372.0000;0.4160;1.1047;
372.3000;0.4184;1.1121;
372.6000;0.4160;1.1195;
372.9000;0.4160;1.1145;
373.2000;0.4160;1.1096;
373.5000;0.4143;1.1072;
373.8000;0.4151;1.1121;
374.1000;0.4127;1.1121;
374.4000;0.4233;1.1342;
374.7000;0.4135;1.1121;
375.0000;0.4143;1.1096;
375.3000;0.4160;1.1219;
375.6000;0.4143;1.1219;
375.9000;0.4151;1.1145;
376.2000;0.4160;1.1145;
376.5000;0.4168;1.1170;
376.8000;0.4217;1.1244;
377.1000;0.4160;1.1121;
377.4000;0.4160;1.1121;
377.7000;0.4151;1.1023;
378.0000;0.4168;1.1072;
378.3000;0.4135;1.1072;
378.6000;0.4151;1.1121;
378.9000;0.4192;1.1219;
379.2000;0.4160;1.1170;
379.5000;0.4143;1.1072;
379.8000;0.4143;1.1047;
380.1000;0.4127;1.1072;
380.4000;0.4160;1.1145;
380.7000;0.4151;1.1047;
381.0000;0.4135;1.0949;
381.3000;0.4168;1.0974;
381.6000;0.4208;1.1096;
381.9000;0.4143;1.0900;
382.2000;0.4151;1.0851;
382.5000;0.4176;1.0777;
382.8000;0.4184;1.0851;
383.1000;0.4151;1.0900;
383.4000;0.4135;1.0851;
383.7000;0.4151;1.0925;
384.0000;0.4200;1.1096;
384.3000;0.4176;1.1121;
384.6000;0.4151;1.1023;
384.9000;0.4176;1.1195;
385.2000;0.4208;1.1293;
385.5000;0.4184;1.1219;
385.8000;0.4168;1.1121;
386.1000;0.4135;1.0998;
386.4000;0.4168;1.0998;
386.7000;0.4176;1.0974;
387.0000;0.4168;1.0949;
387.3000;0.4151;1.0875;
387.6000;0.4176;1.0851;
387.9000;0.4151;1.0826;
388.2000;0.4135;1.0875;
388.5000;0.4168;1.0875;
388.8000;0.4168;1.0875;
389.1000;0.4119;1.0753;
389.4000;0.4070;1.0679;
389.7000;0.4151;1.0875;
390.0000;0.4119;1.0728;
390.3000;0.4176;1.0826;
390.6000;0.4176;1.0851;
390.9000;0.4151;1.0851;
391.2000;0.4192;1.0925;
391.5000;0.4168;1.0875;
391.8000;0.4151;1.0851;
392.1000;0.4160;1.0826;
392.4000;0.4168;1.0900;
392.7000;0.4168;1.0875;
393.0000;0.4151;1.0949;
393.3000;0.4168;1.0875;
393.6000;0.4119;1.0777;
393.9000;0.4160;1.0875;
394.2000;0.4184;1.0851;
394.5000;0.4160;1.0753;
394.8000;0.4143;1.0728;
395.1000;0.4151;1.0753;
395.4000;0.4160;1.0753;
395.7000;0.4143;1.0777;
396.0000;0.4143;1.0753;
396.3000;0.4192;1.0704;
396.6000;0.4168;1.0728;
396.9000;0.4160;1.0728;
397.2000;0.4151;1.0777;
397.5000;0.4160;1.0728;
397.8000;0.4168;1.0728;
398.1000;0.4160;1.0753;
398.4000;0.4111;1.0605;
398.7000;0.4151;1.0654;
399.0000;0.4151;1.0704;
399.3000;0.4151;1.0753;
399.6000;0.4143;1.0826;
399.9000;0.4143;1.0802;
400.2000;0.4151;1.0802;
400.5000;0.4151;1.0777;
400.8000;0.4135;1.0704;
401.1000;0.4160;1.0777;
401.4000;0.4168;1.0851;
401.7000;0.4168;1.0900;
402.0000;0.4160;1.0851;
402.3000;0.4184;1.0875;
402.6000;0.4135;1.0728;
402.9000;0.4184;1.0728;
403.2000;0.4143;1.0654;
403.5000;0.4151;1.0728;
403.8000;0.4184;1.0777;
404.1000;0.4168;1.0728;
404.4000;0.4168;1.0826;
404.7000;0.4143;1.0777;
405.0000;0.4103;1.0654;
405.3000;0.4143;1.0630;
405.6000;0.4168;1.0777;
405.9000;0.4151;1.0728;
406.2000;0.4160;1.0728;
406.5000;0.4151;1.0679;
406.8000;0.4168;1.0679;
407.1000;0.4168;1.0728;
407.4000;0.4160;1.0802;
407.7000;0.4127;1.0802;
408.0000;0.4135;1.0875;
408.3000;0.4168;1.0900;
408.6000;0.4184;1.0925;
408.9000;0.4151;1.0875;
409.2000;0.4151;1.0826;
409.5000;0.4143;1.0900;
409.8000;0.4135;1.0851;
410.1000;0.4119;1.0826;
410.4000;0.4151;1.0875;
410.7000;0.4111;1.0728;
411.0000;0.4143;1.0900;
411.3000;0.4168;1.0998;
411.6000;0.4143;1.0974;
411.9000;0.4151;1.0949;
412.2000;0.4151;1.0925;
412.5000;0.4143;1.0900;
412.8000;0.4160;1.0974;
413.1000;0.4135;1.0974;
413.4000;0.4176;1.0974;
413.7000;0.4151;1.0900;
414.0000;0.4168;1.0949;
414.3000;0.4151;1.0949;
414.6000;0.4168;1.0900;
414.9000;0.4160;1.0925;
415.2000;0.4176;1.0949;
415.5000;0.4143;1.0777;
415.8000;0.4168;1.0875;
416.1000;0.4143;1.0875;
416.4000;0.4168;1.0900;
416.7000;0.4151;1.0875;
417.0000;0.4160;1.0875;
417.3000;0.4176;1.0900;
417.6000;0.4151;1.0826;
417.9000;0.4168;1.0753;
418.2000;0.4151;1.0728;
418.5000;0.4160;1.0777;
418.8000;0.4143;1.0900;
419.1000;0.4143;1.0998;
419.4000;0.4151;1.1072;
419.7000;0.4160;1.1023;
420.0000;0.4168;1.1047;
420.3000;0.4151;1.1096;
420.6000;0.4160;1.1121;
420.9000;0.4151;1.1047;
421.2000;0.4151;1.0974;
421.5000;0.4151;1.0925;
421.8000;0.4143;1.1023;
422.1000;0.4168;1.1047;
422.4000;0.4160;1.1047;
422.7000;0.4143;1.1145;
423.0000;0.4184;1.1244;
423.3000;0.4127;1.0998;
423.6000;0.4168;1.1047;
423.9000;0.4143;1.0925;
424.2000;0.4151;1.0900;
424.5000;0.4151;1.0949;
424.8000;0.4160;1.0900;
425.1000;0.4160;1.0777;
425.4000;0.4151;1.0679;
425.7000;0.4151;1.0728;
426.0000;0.4168;1.0875;
426.3000;0.4160;1.0925;
426.6000;0.4233;1.1145;
426.9000;0.4151;1.1072;
427.2000;0.4160;1.1023;
427.5000;0.4127;1.1072;
427.8000;0.4160;1.1145;
428.1000;0.4151;1.1072;
428.4000;0.4127;1.1096;
428.7000;0.4168;1.1145;
429.0000;0.4135;1.0998;
429.3000;0.4127;1.0925;
429.6000;0.4208;1.1047;
429.9000;0.4151;1.0900;
430.2000;0.4160;1.0925;
430.5000;0.4233;1.1047;
430.8000;0.4111;1.0654;
431.1000;0.4135;1.0826;
431.4000;0.4078;1.0704;
431.7000;0.4135;1.0875;
432.0000;0.4160;1.0900;
432.3000;0.4151;1.0949;
432.6000;0.4135;1.0900;
432.9000;0.4111;1.0900;
433.2000;0.4127;1.0949;
433.5000;0.4168;1.1072;
433.8000;0.4160;1.0998;
434.1000;0.4094;1.0777;
434.4000;0.4135;1.0925;
434.7000;0.4143;1.0949;
435.0000;0.4143;1.0900;
435.3000;0.4160;1.0851;
435.6000;0.4143;1.0974;
435.9000;0.4143;1.0851;
436.2000;0.4151;1.0851;
436.5000;0.4143;1.0777;
436.8000;0.4135;1.0753;
437.1000;0.4135;1.0679;
437.4000;0.4103;1.0581;
437.7000;0.4135;1.0679;
438.0000;0.4143;1.0753;
438.3000;0.4135;1.0777;
438.6000;0.4143;1.0777;
438.9000;0.4135;1.0753;
439.2000;0.4127;1.0753;
439.5000;0.4127;1.0728;
439.8000;0.4143;1.0802;
440.1000;0.4176;1.0949;
440.4000;0.4160;1.0851;
440.7000;0.4151;1.0802;
441.0000;0.4143;1.0802;
441.3000;0.4151;1.0925;
441.6000;0.4160;1.0925;
441.9000;0.4143;1.0925;
442.2000;0.4176;1.0998;
442.5000;0.4151;1.0925;
442.8000;0.4135;1.0875;
443.1000;0.4143;1.0925;
443.4000;0.4094;1.0925;
443.7000;0.4135;1.1023;
444.0000;0.4094;1.0875;
444.3000;0.4103;1.0875;
444.6000;0.4151;1.0998;
444.9000;0.4151;1.1096;
445.2000;0.4168;1.1121;
445.5000;0.4062;1.0802;
445.8000;0.4151;1.1047;
446.1000;0.4135;1.1047;
446.4000;0.4200;1.1170;
446.7000;0.4151;1.1096;
447.0000;0.4160;1.1121;
447.3000;0.4143;1.0998;
447.6000;0.4160;1.1145;
447.9000;0.4160;1.1121;
448.2000;0.4151;1.1170;
448.5000;0.4151;1.1170;
448.8000;0.4151;1.1145;
449.1000;0.4168;1.1145;
449.4000;0.4143;1.1121;
449.7000;0.4151;1.1072;
450.0000;0.4135;1.1072;
450.3000;0.4160;1.1047;
450.6000;0.4208;1.1121;
450.9000;0.4103;1.0925;
451.2000;0.4127;1.1023;
451.5000;0.4151;1.1023;
451.8000;0.4160;1.1047;
452.1000;0.4143;1.0998;
452.4000;0.4094;1.0875;
452.7000;0.4143;1.0998;
453.0000;0.4151;1.1121;
453.3000;0.4160;1.1244;
453.6000;0.4143;1.1170;
453.9000;0.4151;1.1121;
454.2000;0.4168;1.1170;
454.5000;0.4143;1.1047;
454.8000;0.4151;1.1047;
455.1000;0.4176;1.1072;
455.4000;0.4168;1.1072;
455.7000;0.4151;1.1096;
456.0000;0.4160;1.1121;
456.3000;0.4168;1.1072;
456.6000;0.4160;1.1096;
456.9000;0.4160;1.1023;
457.2000;0.4184;1.1145;
457.5000;0.4135;1.1047;
457.8000;0.4151;1.1072;
458.1000;0.4143;1.1096;
458.4000;0.4111;1.0949;
458.7000;0.4151;1.0949;
459.0000;0.4135;1.0900;
459.3000;0.4143;1.0875;
459.6000;0.4094;1.0777;
459.9000;0.4151;1.0925;
460.2000;0.4168;1.1072;
460.5000;0.4176;1.1096;
460.8000;0.4160;1.0998;
461.1000;0.4151;1.1047;
461.4000;0.4176;1.1121;
461.7000;0.4168;1.1121;
462.0000;0.4151;1.1145;
462.3000;0.4151;1.1047;
462.6000;0.4160;1.1096;
462.9000;0.4160;1.1195;
463.2000;0.4192;1.1293;
463.5000;0.4135;1.1170;
463.8000;0.4143;1.1195;
464.1000;0.4168;1.1121;
464.4000;0.4135;1.1121;
464.7000;0.4135;1.1096;
465.0000;0.4143;1.1145;
465.3000;0.4200;1.1317;
465.6000;0.4160;1.1195;
465.9000;0.4160;1.1170;
466.2000;0.4225;1.1342;
466.5000;0.4168;1.1145;
466.8000;0.4119;1.1121;
467.1000;0.4135;1.1047;
467.4000;0.4160;1.1047;
467.7000;0.4160;1.0998;
468.0000;0.4176;1.1023;
468.3000;0.4070;1.0777;
468.6000;0.4135;1.1047;
468.9000;0.4143;1.1072;
469.2000;0.4119;1.0998;
469.5000;0.4168;1.1047;
469.8000;0.4160;1.1047;
470.1000;0.4151;1.1047;
470.4000;0.4160;1.1170;
470.7000;0.4160;1.1121;
471.0000;0.4168;1.1121;
471.3000;0.4135;1.0998;
471.6000;0.4160;1.1096;
471.9000;0.4143;1.1023;
472.2000;0.4143;1.0949;
472.5000;0.4127;1.0925;
472.8000;0.4160;1.0974;
473.1000;0.4143;1.0949;
473.4000;0.4184;1.1072;
473.7000;0.4151;1.1047;
474.0000;0.4151;1.1096;
474.3000;0.4143;1.1072;
474.6000;0.4151;1.0998;
474.9000;0.4078;1.0900;
475.2000;0.4168;1.1121;
475.5000;0.4143;1.0998;
475.8000;0.4151;1.1023;
476.1000;0.4119;1.0974;
476.4000;0.4168;1.1047;
476.7000;0.4160;1.1047;
477.0000;0.4143;1.1047;
477.3000;0.4160;1.0998;
477.6000;0.4160;1.1047;
477.9000;0.4184;1.0974;
478.2000;0.4151;1.0974;
478.5000;0.4143;1.1121;
478.8000;0.4151;1.1145;
479.1000;0.4151;1.1195;
479.4000;0.4184;1.1219;
479.7000;0.4160;1.1195;
480.0000;0.4127;1.1096;
480.3000;0.4143;1.1072;
480.6000;0.4103;1.0900;
480.9000;0.4151;1.1023;
481.2000;0.4168;1.1023;
481.5000;0.4160;1.0949;
481.8000;0.4086;1.0802;
482.1000;0.4094;1.0802;
482.4000;0.4143;1.1023;
482.7000;0.4135;1.0998;
483.0000;0.4119;1.1072;
483.3000;0.4200;1.1317;
483.6000;0.4160;1.1145;
483.9000;0.4143;1.1072;
484.2000;0.4143;1.0974;
484.5000;0.4151;1.0998;
484.8000;0.4160;1.1023;
485.1000;0.4119;1.0949;
485.4000;0.4151;1.1023;
485.7000;0.4160;1.1023;
486.0000;0.4160;1.1072;
486.3000;0.4184;1.1047;
486.6000;0.4086;1.0875;
486.9000;0.4160;1.0949;
487.2000;0.4103;1.0777;
487.5000;0.4160;1.0925;
487.8000;0.4143;1.0900;
488.1000;0.4111;1.0900;
488.4000;0.4160;1.1023;
488.7000;0.4151;1.1072;
489.0000;0.4143;1.1096;
489.3000;0.4200;1.1244;
489.6000;0.4176;1.1170;
489.9000;0.4168;1.1170;
490.2000;0.4151;1.1145;
490.5000;0.4143;1.1072;
490.8000;0.4143;1.1023;
491.1000;0.4143;1.1023;
491.4000;0.4151;1.1195;
491.7000;0.4151;1.1219;
492.0000;0.4160;1.1145;
492.3000;0.4176;1.1145;
492.6000;0.4135;1.1047;
492.9000;0.4143;1.1047;
493.2000;0.4160;1.1145;
493.5000;0.4160;1.1121;
493.8000;0.4135;1.1121;
494.1000;0.4135;1.1145;
494.4000;0.4160;1.1145;
494.7000;0.4151;1.1072;
495.0000;0.4160;1.1047;
495.3000;0.4200;1.1096;
495.6000;0.4151;1.0900;
495.9000;0.4160;1.0900;
496.2000;0.4151;1.0925;
496.5000;0.4168;1.0875;
496.8000;0.4143;1.0851;
497.1000;0.4160;1.0900;
497.4000;0.4151;1.0925;
497.7000;0.4127;1.0900;
498.0000;0.4143;1.0974;
498.3000;0.4160;1.0998;
498.6000;0.4168;1.0925;
498.9000;0.4103;1.0802;
499.2000;0.4135;1.0826;
499.5000;0.4127;1.0802;
499.8000;0.4160;1.0875;
500.1000;0.4160;1.0875;
500.4000;0.4143;1.0826;
500.7000;0.4151;1.0875;
501.0000;0.4160;1.0949;
501.3000;0.4176;1.0851;
501.6000;0.4135;1.0802;
501.9000;0.4151;1.0802;
502.2000;0.4168;1.0851;
502.5000;0.4135;1.0753;
502.8000;0.4151;1.0802;
503.1000;0.4160;1.0900;
503.4000;0.4143;1.0974;
503.7000;0.4168;1.1121;
504.0000;0.4127;1.1047;
504.3000;0.4119;1.1121;
504.6000;0.4151;1.1170;
504.9000;0.4135;1.1047;
505.2000;0.4192;1.1072;
505.5000;0.4135;1.0900;
505.8000;0.4143;1.0851;
506.1000;0.4151;1.0900;
506.4000;0.4160;1.0925;
506.7000;0.4086;1.0802;
507.0000;0.4168;1.0998;
507.3000;0.4127;1.0900;
507.6000;0.4151;1.0900;
507.9000;0.4094;1.0753;
508.2000;0.4151;1.0998;
508.5000;0.4127;1.0925;
508.8000;0.4151;1.0949;
509.1000;0.4143;1.0900;
509.4000;0.4143;1.0802;
509.7000;0.4160;1.0826;
510.0000;0.4160;1.0826;
510.3000;0.4143;1.0777;
510.6000;0.4127;1.0777;
510.9000;0.4135;1.0900;
511.2000;0.4151;1.0949;
511.5000;0.4151;1.0998;
511.8000;0.4143;1.0925;
512.1000;0.4143;1.0900;
512.4000;0.4143;1.0925;
512.7000;0.4143;1.0875;
513.0000;0.4151;1.0900;
513.3000;0.4208;1.1023;
513.6000;0.4160;1.0875;
513.9000;0.4143;1.0925;
514.2000;0.4151;1.1072;
514.5000;0.4127;1.1096;
514.8000;0.4151;1.1170;
515.1000;0.4151;1.1170;
515.4000;0.4143;1.1047;
515.7000;0.4135;1.0998;
516.0000;0.4151;1.0998;
516.3000;0.4176;1.0974;
516.6000;0.4127;1.0802;
516.9000;0.4151;1.0826;
517.2000;0.4151;1.0851;
517.5000;0.4135;1.0777;
517.8000;0.4160;1.0777;
518.1000;0.4151;1.0777;
518.4000;0.4151;1.0704;
518.7000;0.4151;1.0728;
519.0000;0.4143;1.0679;
519.3000;0.4135;1.0728;
519.6000;0.4143;1.0802;
519.9000;0.4184;1.0974;
520.2000;0.4160;1.0925;
520.5000;0.4160;1.0949;
520.8000;0.4184;1.0974;
521.1000;0.4127;1.0900;
521.4000;0.4135;1.0851;
521.7000;0.4168;1.0974;
522.0000;0.4176;1.0998;
522.3000;0.4176;1.1072;
522.6000;0.4143;1.0998;
522.9000;0.4111;1.0900;
523.2000;0.4135;1.0949;
523.5000;0.4160;1.1072;
523.8000;0.4151;1.1047;
524.1000;0.4151;1.1047;
524.4000;0.4135;1.0925;
524.7000;0.4135;1.0875;
525.0000;0.4135;1.0875;
525.3000;0.4135;1.0925;
525.6000;0.4143;1.1023;
525.9000;0.4160;1.1096;
526.2000;0.4168;1.1145;
526.5000;0.4151;1.1145;
526.8000;0.4127;1.1096;
527.1000;0.4127;1.1023;
527.4000;0.4176;1.1145;
527.7000;0.4143;1.0998;
528.0000;0.4143;1.0925;
528.3000;0.4119;1.1047;
528.6000;0.4168;1.1121;
528.9000;0.4103;1.0949;
529.2000;0.4094;1.0900;
529.5000;0.4127;1.0974;
529.8000;0.4143;1.1047;
530.1000;0.4054;1.0802;
530.4000;0.4127;1.1072;
530.7000;0.4135;1.1170;
531.0000;0.4143;1.1121;
531.3000;0.4111;1.0900;
531.6000;0.4168;1.1023;
531.9000;0.4151;1.0949;
532.2000;0.4151;1.1047;
532.5000;0.4143;1.1047;
532.8000;0.4160;1.1023;
533.1000;0.4160;1.1023;
533.4000;0.4151;1.0949;
533.7000;0.4160;1.1023;
534.0000;0.4168;1.1096;
534.3000;0.4151;1.1170;
534.6000;0.4151;1.1145;
534.9000;0.4151;1.1195;
535.2000;0.4168;1.1244;
535.5000;0.4168;1.1268;
535.8000;0.4143;1.1219;
536.1000;0.4135;1.1195;
536.4000;0.4143;1.1219;
536.7000;0.4143;1.1195;
537.0000;0.4119;1.1096;
537.3000;0.4143;1.1293;
537.6000;0.4127;1.1391;
537.9000;0.4143;1.1440;
538.2000;0.4143;1.1440;
538.5000;0.4151;1.1514;
538.8000;0.4127;1.1366;
539.1000;0.4160;1.1465;
539.4000;0.4143;1.1440;
539.7000;0.4151;1.1366;
540.0000;0.4127;1.1293;
540.3000;0.4143;1.1317;
540.6000;0.4127;1.1219;
540.9000;0.4160;1.1195;
541.2000;0.4143;1.1047;
541.5000;0.4151;1.1121;
541.8000;0.4160;1.1170;
542.1000;0.4160;1.1096;
542.4000;0.4184;1.1023;
542.7000;0.4160;1.0851;
543.0000;0.4168;1.0974;
543.3000;0.4160;1.0998;
543.6000;0.4225;1.1219;
543.9000;0.4160;1.0974;
544.2000;0.4176;1.0974;
544.5000;0.4168;1.0998;
544.8000;0.4135;1.0974;
545.1000;0.4151;1.1023;
545.4000;0.4217;1.1342;
545.7000;0.4119;1.1219;
546.0000;0.4135;1.1145;
546.3000;0.4143;1.1145;
546.6000;0.4241;1.1465;
546.9000;0.4143;1.1219;
547.2000;0.4127;1.1293;
547.5000;0.4151;1.1268;
547.8000;0.4168;1.1293;
548.1000;0.4143;1.1244;
548.4000;0.4127;1.1170;
548.7000;0.4151;1.1293;
549.0000;0.4111;1.1170;
549.3000;0.4168;1.1268;
549.6000;0.4135;1.1096;
549.9000;0.4160;1.1145;
550.2000;0.4151;1.1195;
550.5000;0.4135;1.1121;
550.8000;0.4143;1.1145;
551.1000;0.4160;1.1244;
551.4000;0.4168;1.1244;
551.7000;0.4160;1.1293;
552.0000;0.4135;1.1145;
552.3000;0.4119;1.1170;
552.6000;0.4143;1.1170;
552.9000;0.4135;1.1121;
553.2000;0.4135;1.1121;
553.5000;0.4127;1.1047;
553.8000;0.4143;1.1121;
554.1000;0.4135;1.1023;
554.4000;0.4160;1.1096;
554.7000;0.4143;1.1072;
555.0000;0.4217;1.1170;
555.3000;0.4192;1.1023;
555.6000;0.4078;1.0704;
555.9000;0.4151;1.0802;
556.2000;0.4127;1.0753;
556.5000;0.4160;1.0826;
556.8000;0.4160;1.0875;
557.1000;0.4143;1.0974;
557.4000;0.4135;1.0949;
557.7000;0.4160;1.0925;
558.0000;0.4143;1.0925;
558.3000;0.4168;1.0949;
558.6000;0.4143;1.0949;
558.9000;0.4151;1.0949;
559.2000;0.4135;1.0998;
559.5000;0.4160;1.1096;
559.8000;0.4160;1.0949;
560.1000;0.4127;1.0875;
560.4000;0.4143;1.0851;
560.7000;0.4143;1.0826;
561.0000;0.4127;1.0679;
561.3000;0.4143;1.0826;
561.6000;0.4135;1.0802;
561.9000;0.4160;1.0875;
562.2000;0.4200;1.0974;
562.5000;0.4127;1.0949;
562.8000;0.4135;1.0949;
563.1000;0.4168;1.0949;
563.4000;0.4200;1.1023;
563.7000;0.4119;1.0900;
564.0000;0.4135;1.0900;
564.3000;0.4184;1.1023;
564.6000;0.4160;1.1072;
564.9000;0.4103;1.0949;
565.2000;0.4143;1.1023;
565.5000;0.4127;1.1072;
565.8000;0.4135;1.1096;
566.1000;0.4160;1.1170;
566.4000;0.4135;1.1072;
566.7000;0.4151;1.1170;
567.0000;0.4176;1.1195;
567.3000;0.4151;1.1170;
567.6000;0.4135;1.1096;
567.9000;0.4160;1.1047;
568.2000;0.4151;1.1047;
568.5000;0.4151;1.1047;
568.8000;0.4176;1.1170;
569.1000;0.4151;1.1195;
569.4000;0.4208;1.1244;
569.7000;0.4160;1.1170;
570.0000;0.4151;1.1121;
570.3000;0.4135;1.1096;
570.6000;0.4151;1.1145;
570.9000;0.4086;1.0851;
571.2000;0.4135;1.0949;
571.5000;0.4127;1.0949;
571.8000;0.4094;1.0851;
572.1000;0.4160;1.0998;
572.4000;0.4151;1.1023;
572.7000;0.4127;1.1072;
573.0000;0.4135;1.1096;
573.3000;0.4119;1.1121;
573.6000;0.4151;1.1145;
573.9000;0.4135;1.1121;
574.2000;0.4127;1.1072;
574.5000;0.4135;1.1047;
574.8000;0.4151;1.0998;
575.1000;0.4143;1.1023;
575.4000;0.4111;1.0974;
575.7000;0.4151;1.1145;
576.0000;0.4143;1.1145;
576.3000;0.4143;1.1096;
576.6000;0.4151;1.1121;
576.9000;0.4143;1.0974;
577.2000;0.4168;1.1072;
577.5000;0.4151;1.1072;
577.8000;0.4160;1.1023;
578.1000;0.4135;1.0974;
578.4000;0.4143;1.0974;
578.7000;0.4143;1.0949;
579.0000;0.4135;1.0974;
579.3000;0.4070;1.0826;
579.6000;0.4168;1.1096;
579.9000;0.4151;1.0998;
580.2000;0.4176;1.1096;
580.5000;0.4127;1.1023;
580.8000;0.4135;1.1023;
581.1000;0.4103;1.0925;
581.4000;0.4151;1.0925;
581.7000;0.4135;1.0998;
582.0000;0.4135;1.1121;
582.3000;0.4143;1.1195;
582.6000;0.4151;1.1195;
582.9000;0.4135;1.1121;
583.2000;0.4127;1.1047;
583.5000;0.4143;1.1145;
583.8000;0.4143;1.1195;
584.1000;0.4160;1.1268;
584.4000;0.4135;1.1268;
584.7000;0.4151;1.1317;
585.0000;0.4176;1.1514;
585.3000;0.4127;1.1317;
585.6000;0.4143;1.1317;
585.9000;0.4160;1.1391;
586.2000;0.4225;1.1538;
586.5000;0.4151;1.1268;
586.8000;0.4143;1.1170;
587.1000;0.4143;1.1195;
587.4000;0.4168;1.1219;
587.7000;0.4151;1.1145;
588.0000;0.4160;1.1096;
588.3000;0.4127;1.0974;
588.6000;0.4143;1.1047;
588.9000;0.4143;1.1121;
589.2000;0.4127;1.1072;
589.5000;0.4127;1.1096;
589.8000;0.4151;1.1121;
590.1000;0.4143;1.1145;
590.4000;0.4143;1.1047;
590.7000;0.4143;1.1023;
591.0000;0.4119;1.0949;
591.3000;0.4143;1.0974;
591.6000;0.4143;1.0998;
591.9000;0.4135;1.0925;
592.2000;0.4135;1.0925;
592.5000;0.4143;1.0900;
592.8000;0.4160;1.0998;
593.1000;0.4168;1.0998;
593.4000;0.4127;1.0949;
593.7000;0.4143;1.1096;
594.0000;0.4135;1.1096;
594.3000;0.4135;1.1096;
594.6000;0.4127;1.1023;
594.9000;0.4070;1.0875;
595.2000;0.4127;1.1023;
595.5000;0.4111;1.1023;
595.8000;0.4111;1.1047;
596.1000;0.4127;1.1096;
596.4000;0.4135;1.1145;
596.7000;0.4127;1.1121;
597.0000;0.4086;1.0974;
597.3000;0.4192;1.1195;
597.6000;0.4192;1.1219;
597.9000;0.4241;1.1391;
598.2000;0.4119;1.1047;
598.5000;0.4217;1.1293;
598.8000;0.4151;1.1219;
599.1000;0.4168;1.1219;
599.4000;0.4135;1.1195;
599.7000;0.4127;1.1195;
600.0000;0.4127;1.1268;
600.3000;0.4151;1.1195;
600.6000;0.4184;1.1244;
600.9000;0.4135;1.1072;
601.2000;0.4094;1.0900;
601.5000;0.4111;1.0826;
601.8000;0.4078;1.0704;
602.1000;0.4046;1.0556;
602.4000;0.4021;1.0434;
602.7000;0.3997;1.0409;
603.0000;0.3948;1.0311;
603.3000;0.3883;1.0065;
603.6000;0.3932;1.0163;
603.9000;0.3907;1.0114;
604.2000;0.3867;1.0041;
604.5000;0.3842;0.9967;
604.8000;0.3826;0.9943;
605.1000;0.3810;0.9918;
605.4000;0.3785;0.9795;
605.7000;0.3769;0.9771;
606.0000;0.3744;0.9746;
606.3000;0.3687;0.9672;
606.6000;0.3728;0.9746;
606.9000;0.3793;0.9943;
607.2000;0.3704;0.9722;
607.5000;0.3704;0.9697;
607.8000;0.3696;0.9771;
608.1000;0.3671;0.9697;
608.4000;0.3590;0.9574;
608.7000;0.3630;0.9795;
609.0000;0.3630;0.9722;
609.3000;0.3606;0.9722;
609.6000;0.3590;0.9722;
609.9000;0.3590;0.9722;
610.2000;0.3590;0.9795;
610.5000;0.3557;0.9820;
610.8000;0.3557;0.9771;
611.1000;0.3573;0.9746;
611.4000;0.3557;0.9672;
611.7000;0.3549;0.9672;
612.0000;0.3525;0.9672;
612.3000;0.3525;0.9599;
612.6000;0.3525;0.9525;
612.9000;0.3516;0.9550;
613.2000;0.3468;0.9476;
613.5000;0.3533;0.9599;
613.8000;0.3484;0.9501;
614.1000;0.3476;0.9501;
614.4000;0.3419;0.9304;
614.7000;0.3443;0.9402;
615.0000;0.3451;0.9378;
615.3000;0.3443;0.9378;
615.6000;0.3443;0.9378;
615.9000;0.3443;0.9353;
616.2000;0.3451;0.9427;
616.5000;0.3419;0.9427;
616.8000;0.3419;0.9427;
617.1000;0.3419;0.9452;
617.4000;0.3394;0.9476;
617.7000;0.3370;0.9452;
618.0000;0.3403;0.9476;
618.3000;0.3403;0.9402;
618.6000;0.3386;0.9427;
618.9000;0.3337;0.9304;
619.2000;0.3370;0.9427;
619.5000;0.3451;0.9599;
619.8000;0.3337;0.9304;
620.1000;0.3289;0.9157;
620.4000;0.3346;0.9353;
620.7000;0.3297;0.9304;
621.0000;0.3386;0.9476;
621.3000;0.3362;0.9378;
621.6000;0.3313;0.9206;
621.9000;0.3313;0.9231;
622.2000;0.3321;0.9353;
622.5000;0.3280;0.9280;
622.8000;0.3289;0.9280;
623.1000;0.3272;0.9280;
623.4000;0.3289;0.9304;
623.7000;0.3280;0.9304;
624.0000;0.3297;0.9476;
624.3000;0.3256;0.9378;
624.6000;0.3232;0.9231;
624.9000;0.3264;0.9231;
625.2000;0.3313;0.9427;
625.5000;0.3264;0.9206;
625.8000;0.3248;0.9206;
626.1000;0.3223;0.9132;
626.4000;0.3232;0.9083;
626.7000;0.3240;0.9157;
627.0000;0.3240;0.9182;
627.3000;0.3223;0.9206;
627.6000;0.3199;0.9182;
627.9000;0.3215;0.9157;
628.2000;0.3199;0.9231;
628.5000;0.3191;0.9206;
628.8000;0.3215;0.9132;
629.1000;0.3215;0.9206;
629.4000;0.3199;0.9157;
629.7000;0.3175;0.9108;
630.0000;0.3158;0.9182;
630.3000;0.3109;0.9083;
630.6000;0.3166;0.9231;
630.9000;0.3166;0.9206;
631.2000;0.3166;0.9255;
631.5000;0.3175;0.9329;
631.8000;0.3158;0.9280;
632.1000;0.3158;0.9329;
632.4000;0.3142;0.9280;
632.7000;0.3158;0.9280;
633.0000;0.3150;0.9255;
633.3000;0.3134;0.9280;
633.6000;0.3142;0.9280;
633.9000;0.3126;0.9206;
634.2000;0.3126;0.9157;
634.5000;0.3134;0.9132;
634.8000;0.3109;0.9108;
635.1000;0.3109;0.9059;
635.4000;0.3118;0.9157;
635.7000;0.3118;0.9132;
636.0000;0.3093;0.9132;
636.3000;0.3093;0.9083;
636.6000;0.3085;0.9083;
636.9000;0.3109;0.9132;
637.2000;0.3085;0.9059;
637.5000;0.3085;0.9059;
637.8000;0.3077;0.9010;
638.1000;0.3085;0.9034;
638.4000;0.3069;0.9010;
638.7000;0.3061;0.9034;
639.0000;0.3053;0.9034;
639.3000;0.3061;0.9059;
639.6000;0.3061;0.9034;
639.9000;0.3093;0.9108;
640.2000;0.3053;0.8936;
640.5000;0.3109;0.9059;
640.8000;0.3053;0.8961;
641.1000;0.3044;0.8961;
641.4000;0.3053;0.8985;
641.7000;0.3044;0.8985;
642.0000;0.3101;0.9206;
642.3000;0.3044;0.9108;
642.6000;0.3028;0.9108;
642.9000;0.3134;0.9304;
643.2000;0.3020;0.8985;
643.5000;0.2996;0.8936;
643.8000;0.3004;0.8961;
644.1000;0.3004;0.8911;
644.4000;0.2996;0.8936;
644.7000;0.3036;0.8936;
645.0000;0.2996;0.8862;
645.3000;0.3004;0.8911;
645.6000;0.3012;0.8862;
645.9000;0.3028;0.8887;
646.2000;0.3012;0.8961;
646.5000;0.3012;0.8911;
646.8000;0.3012;0.8936;
647.1000;0.3028;0.9034;
647.4000;0.3012;0.8936;
647.7000;0.2971;0.8887;
648.0000;0.3044;0.9059;
648.3000;0.2987;0.8936;
648.6000;0.2996;0.8936;
648.9000;0.2971;0.8961;
649.2000;0.2963;0.9010;
649.5000;0.2955;0.9010;
649.8000;0.2955;0.8985;
650.1000;0.2971;0.8887;
650.4000;0.2947;0.8838;
650.7000;0.2971;0.8985;
651.0000;0.2996;0.9083;
651.3000;0.2963;0.9034;
651.6000;0.2882;0.8813;
651.9000;0.2922;0.9034;
652.2000;0.2963;0.9231;
652.5000;0.3061;0.9501;
652.8000;0.2963;0.9378;
653.1000;0.2947;0.9280;
653.4000;0.2963;0.9304;
653.7000;0.2955;0.9255;
654.0000;0.2922;0.9182;
654.3000;0.2922;0.9108;
654.6000;0.2947;0.9157;
654.9000;0.2930;0.9132;
655.2000;0.2947;0.9108;
655.5000;0.2963;0.9157;
655.8000;0.2930;0.9206;
656.1000;0.2939;0.9206;
656.4000;0.2914;0.9157;
656.7000;0.2922;0.9255;
657.0000;0.2857;0.9157;
657.3000;0.2930;0.9304;
657.6000;0.2930;0.9255;
657.9000;0.2922;0.9255;
658.2000;0.2914;0.9157;
658.5000;0.2947;0.9255;
658.8000;0.2922;0.9182;
659.1000;0.2898;0.9280;
659.4000;0.2890;0.9304;
659.7000;0.2914;0.9353;
660.0000;0.2890;0.9304;
660.3000;0.2906;0.9280;
660.6000;0.2906;0.9157;
660.9000;0.2906;0.9108;
661.2000;0.2914;0.9132;
661.5000;0.2914;0.9206;
661.8000;0.2882;0.9108;
662.1000;0.2906;0.9083;
662.4000;0.2890;0.9059;
662.7000;0.2882;0.9059;
663.0000;0.2841;0.8936;
663.3000;0.2865;0.8985;
663.6000;0.2890;0.9108;
663.9000;0.2882;0.9034;
664.2000;0.2890;0.9010;
664.5000;0.2882;0.8961;
664.8000;0.2873;0.8862;
665.1000;0.2882;0.8985;
665.4000;0.2865;0.9083;
665.7000;0.2914;0.9304;
666.0000;0.2873;0.9231;
666.3000;0.2873;0.9231;
666.6000;0.2865;0.9231;
666.9000;0.2865;0.9157;
667.2000;0.2865;0.9132;
667.5000;0.2857;0.9157;
667.8000;0.2857;0.9231;
668.1000;0.2865;0.9182;
668.4000;0.2857;0.9157;
668.7000;0.2873;0.9132;
669.0000;0.2849;0.9132;
669.3000;0.2873;0.9157;
669.6000;0.2857;0.9108;
669.9000;0.2849;0.9132;
670.2000;0.2816;0.9010;
670.5000;0.2841;0.8961;
670.8000;0.2841;0.8887;
671.1000;0.2849;0.8911;
671.4000;0.2825;0.8813;
671.7000;0.2825;0.8862;
672.0000;0.2857;0.8985;
672.3000;0.2841;0.8985;
672.6000;0.2833;0.8936;
672.9000;0.2833;0.8911;
673.2000;0.2841;0.8911;
673.5000;0.2816;0.8936;
673.8000;0.2882;0.9132;
674.1000;0.2825;0.8911;
674.4000;0.2816;0.8789;
674.7000;0.2784;0.8838;
675.0000;0.2833;0.8887;
675.3000;0.2825;0.8887;
675.6000;0.2816;0.8838;
675.9000;0.2816;0.8838;
676.2000;0.2841;0.8911;
676.5000;0.2743;0.8666;
676.8000;0.2751;0.8666;
677.1000;0.2808;0.8764;
677.4000;0.2816;0.8862;
677.7000;0.2751;0.8715;
678.0000;0.2808;0.8961;
678.3000;0.2800;0.8985;
678.6000;0.2768;0.8936;
678.9000;0.2816;0.8961;
679.2000;0.2816;0.8961;
679.5000;0.2808;0.8911;
679.8000;0.2808;0.8961;
680.1000;0.2800;0.8911;
680.4000;0.2808;0.8911;
680.7000;0.2800;0.8887;
681.0000;0.2800;0.8862;
681.3000;0.2816;0.8862;
681.6000;0.2808;0.8813;
681.9000;0.2808;0.8838;
682.2000;0.2841;0.9010;
682.5000;0.2816;0.8936;
682.8000;0.2816;0.8862;
683.1000;0.2792;0.8691;
683.4000;0.2792;0.8666;
683.7000;0.2808;0.8764;
684.0000;0.2825;0.8813;
684.3000;0.2776;0.8666;
684.6000;0.2784;0.8666;
684.9000;0.2751;0.8691;
685.2000;0.2784;0.8740;
685.5000;0.2784;0.8740;
685.8000;0.2784;0.8813;
686.1000;0.2792;0.8813;
686.4000;0.2816;0.8813;
686.7000;0.2776;0.8813;
687.0000;0.2808;0.8911;
687.3000;0.2719;0.8740;
687.6000;0.2776;0.8961;
687.9000;0.2776;0.8985;
688.2000;0.2800;0.9059;
688.5000;0.2751;0.8961;
688.8000;0.2776;0.8961;
689.1000;0.2808;0.9010;
689.4000;0.2751;0.9010;
689.7000;0.2759;0.8985;
690.0000;0.2768;0.8985;
690.3000;0.2792;0.8961;
690.6000;0.2792;0.8911;
690.9000;0.2759;0.8838;
691.2000;0.2743;0.8887;
691.5000;0.2784;0.8961;
691.8000;0.2768;0.9034;
692.1000;0.2768;0.9083;
692.4000;0.2808;0.9182;
692.7000;0.2776;0.9083;
693.0000;0.2768;0.9108;
693.3000;0.2751;0.9010;
693.6000;0.2759;0.8985;
693.9000;0.2759;0.8985;
694.2000;0.2759;0.8936;
694.5000;0.2751;0.8838;
694.8000;0.2759;0.8862;
695.1000;0.2784;0.8911;
695.4000;0.2776;0.8813;
695.7000;0.2751;0.8764;
696.0000;0.2759;0.8764;
696.3000;0.2759;0.8789;
696.6000;0.2759;0.8838;
696.9000;0.2808;0.9010;
697.2000;0.2751;0.9010;
697.5000;0.2735;0.9034;
697.8000;0.2759;0.9083;
698.1000;0.2743;0.9108;
698.4000;0.2702;0.9034;
698.7000;0.2735;0.9157;
699.0000;0.2735;0.9182;
699.3000;0.2743;0.9206;
699.6000;0.2727;0.9157;
699.9000;0.2727;0.9083;
700.2000;0.2727;0.9034;
700.5000;0.2711;0.9010;
700.8000;0.2743;0.9034;
701.1000;0.2743;0.8985;
701.4000;0.2751;0.8961;
701.7000;0.2743;0.8961;
702.0000;0.2751;0.8985;
702.3000;0.2751;0.9059;
702.6000;0.2727;0.8961;
702.9000;0.2686;0.8911;
703.2000;0.2735;0.9132;
703.5000;0.2621;0.8813;
703.8000;0.2743;0.8985;
704.1000;0.2743;0.8985;
704.4000;0.2735;0.8985;
704.7000;0.2727;0.8936;
705.0000;0.2743;0.8911;
705.3000;0.2735;0.8911;
705.6000;0.2727;0.8813;
705.9000;0.2637;0.8691;
706.2000;0.2735;0.8961;
706.5000;0.2711;0.9034;
706.8000;0.2743;0.9108;
707.1000;0.2735;0.9132;
707.4000;0.2719;0.9059;
707.7000;0.2768;0.9206;
708.0000;0.2735;0.9059;
708.3000;0.2719;0.8985;
708.6000;0.2751;0.9182;
708.9000;0.2711;0.9157;
709.2000;0.2702;0.9206;
709.5000;0.2735;0.9231;
709.8000;0.2702;0.9132;
710.1000;0.2711;0.9108;
710.4000;0.2711;0.9132;
710.7000;0.2719;0.9157;
711.0000;0.2702;0.9034;
711.3000;0.2694;0.8985;
711.6000;0.2719;0.9034;
711.9000;0.2751;0.9010;
712.2000;0.2711;0.8887;
712.5000;0.2711;0.8862;
712.8000;0.2702;0.8862;
713.1000;0.2702;0.8862;
713.4000;0.2711;0.8789;
713.7000;0.2686;0.8764;
714.0000;0.2702;0.8789;
714.3000;0.2719;0.8911;
714.6000;0.2711;0.8936;
714.9000;0.2727;0.8961;
715.2000;0.2719;0.8961;
715.5000;0.2719;0.8936;
715.8000;0.2711;0.8985;
716.1000;0.2719;0.9059;
716.4000;0.2711;0.9059;
716.7000;0.2694;0.9059;
717.0000;0.2621;0.8715;
717.3000;0.2711;0.8936;
717.6000;0.2711;0.8936;
717.9000;0.2719;0.8961;
718.2000;0.2735;0.8936;
718.5000;0.2743;0.8936;
718.8000;0.2702;0.8887;
719.1000;0.2686;0.8862;
719.4000;0.2694;0.8862;
719.7000;0.2686;0.8961;
720.0000;0.2694;0.8961;
720.3000;0.2711;0.9010;
720.6000;0.2694;0.8936;
720.9000;0.2678;0.8813;
721.2000;0.2702;0.8862;
721.5000;0.2670;0.8764;
721.8000;0.2735;0.8985;
722.1000;0.2686;0.8862;
722.4000;0.2686;0.8961;
722.7000;0.2678;0.8936;
723.0000;0.2686;0.8961;
723.3000;0.2678;0.8911;
723.6000;0.2686;0.8887;
723.9000;0.2670;0.8813;
724.2000;0.2694;0.8911;
724.5000;0.2686;0.8961;
724.8000;0.2678;0.8985;
725.1000;0.2686;0.9059;
725.4000;0.2678;0.8961;
725.7000;0.2662;0.8936;
726.0000;0.2686;0.9010;
726.3000;0.2686;0.8961;
726.6000;0.2662;0.8813;
726.9000;0.2694;0.8838;
727.2000;0.2702;0.8936;
727.5000;0.2646;0.8813;
727.8000;0.2670;0.8911;
728.1000;0.2686;0.9083;
728.4000;0.2670;0.9083;
728.7000;0.2654;0.8911;
729.0000;0.2694;0.9010;
729.3000;0.2686;0.8838;
729.6000;0.2686;0.8789;
729.9000;0.2686;0.8862;
730.2000;0.2662;0.8740;
730.5000;0.2686;0.8764;
730.8000;0.2694;0.8838;
731.1000;0.2735;0.8961;
731.4000;0.2694;0.8911;
731.7000;0.2694;0.8985;
732.0000;0.2678;0.8911;
732.3000;0.2686;0.8887;
732.6000;0.2637;0.8764;
732.9000;0.2662;0.8936;
733.2000;0.2711;0.9034;
733.5000;0.2678;0.9034;
733.8000;0.2670;0.8985;
734.1000;0.2662;0.8961;
734.4000;0.2654;0.8961;
734.7000;0.2670;0.8961;
735.0000;0.2678;0.8936;
735.3000;0.2678;0.8985;
735.6000;0.2678;0.8961;
735.9000;0.2564;0.8691;
736.2000;0.2662;0.8936;
736.5000;0.2670;0.8887;
736.8000;0.2711;0.8838;
737.1000;0.2686;0.8789;
737.4000;0.2686;0.8715;
737.7000;0.2646;0.8617;
738.0000;0.2735;0.8789;
738.3000;0.2670;0.8568;
738.6000;0.2678;0.8519;
738.9000;0.2654;0.8519;
739.2000;0.2646;0.8592;
739.5000;0.2670;0.8617;
739.8000;0.2670;0.8666;
740.1000;0.2662;0.8617;
740.4000;0.2654;0.8666;
740.7000;0.2670;0.8764;
741.0000;0.2646;0.8813;
741.3000;0.2621;0.8813;
741.6000;0.2670;0.8887;
741.9000;0.2654;0.8789;
742.2000;0.2670;0.8764;
742.5000;0.2670;0.8617;
742.8000;0.2654;0.8641;
743.1000;0.2662;0.8715;
743.4000;0.2678;0.8666;
743.7000;0.2678;0.8641;
744.0000;0.2654;0.8641;
744.3000;0.2654;0.8592;
744.6000;0.2654;0.8568;
744.9000;0.2670;0.8568;
745.2000;0.2654;0.8519;
745.5000;0.2621;0.8494;
745.8000;0.2662;0.8592;
746.1000;0.2670;0.8666;
746.4000;0.2637;0.8666;
746.7000;0.2654;0.8740;
747.0000;0.2646;0.8789;
747.3000;0.2646;0.8789;
747.6000;0.2662;0.8764;
747.9000;0.2646;0.8764;
748.2000;0.2637;0.8813;
748.5000;0.2662;0.8936;
748.8000;0.2686;0.8985;
749.1000;0.2646;0.8862;
749.4000;0.2646;0.8936;
749.7000;0.2654;0.9059;
750.0000;0.2629;0.9132;
750.3000;0.2629;0.8985;
750.6000;0.2646;0.8961;
750.9000;0.2646;0.8961;
751.2000;0.2646;0.8887;
751.5000;0.2694;0.9010;
751.8000;0.2646;0.8862;
752.1000;0.2654;0.8911;
752.4000;0.2678;0.9034;
752.7000;0.2662;0.8961;
753.0000;0.2637;0.8911;
753.3000;0.2670;0.8961;
753.6000;0.2654;0.8838;
753.9000;0.2654;0.8838;
754.2000;0.2654;0.8862;
754.5000;0.2670;0.8887;
754.8000;0.2637;0.8838;
755.1000;0.2654;0.8838;
755.4000;0.2646;0.8862;
755.7000;0.2654;0.8887;
756.0000;0.2662;0.8936;
756.3000;0.2646;0.8936;
756.6000;0.2629;0.8887;
756.9000;0.2580;0.8691;
757.2000;0.2662;0.8936;
757.5000;0.2694;0.8838;
757.8000;0.2670;0.8813;
758.1000;0.2629;0.8789;
758.4000;0.2646;0.8838;
758.7000;0.2637;0.8838;
759.0000;0.2629;0.8887;
759.3000;0.2637;0.8911;
759.6000;0.2629;0.8862;
759.9000;0.2637;0.8813;
760.2000;0.2670;0.8838;
760.5000;0.2621;0.8641;
760.8000;0.2646;0.8715;
761.1000;0.2646;0.8789;
761.4000;0.2662;0.8985;
761.7000;0.2646;0.8961;
762.0000;0.2654;0.9010;
762.3000;0.2621;0.8911;
762.6000;0.2621;0.8936;
762.9000;0.2646;0.9059;
763.2000;0.2629;0.8961;
763.5000;0.2686;0.9132;
763.8000;0.2637;0.8936;
764.1000;0.2646;0.8887;
764.4000;0.2621;0.8838;
764.7000;0.2629;0.8911;
765.0000;0.2621;0.8862;
765.3000;0.2670;0.8862;
765.6000;0.2613;0.8666;
765.9000;0.2629;0.8641;
766.2000;0.2629;0.8764;
766.5000;0.2637;0.8789;
766.8000;0.2621;0.8789;
767.1000;0.2694;0.9010;
767.4000;0.2637;0.8838;
767.7000;0.2646;0.8887;
768.0000;0.2629;0.8813;
768.3000;0.2686;0.8911;
768.6000;0.2646;0.8838;
768.9000;0.2678;0.8887;
769.2000;0.2621;0.8764;
769.5000;0.2621;0.8911;
769.8000;0.2548;0.8764;
770.1000;0.2613;0.8961;
770.4000;0.2629;0.9034;
770.7000;0.2621;0.9059;
771.0000;0.2637;0.9108;
771.3000;0.2637;0.9157;
771.6000;0.2629;0.9083;
771.9000;0.2621;0.9034;
772.2000;0.2629;0.9010;
772.5000;0.2654;0.8985;
772.8000;0.2646;0.8961;
773.1000;0.2629;0.8887;
773.4000;0.2621;0.8789;
773.7000;0.2629;0.8838;
774.0000;0.2654;0.8887;
774.3000;0.2613;0.8838;
774.6000;0.2613;0.8911;
774.9000;0.2621;0.9034;
775.2000;0.2637;0.9182;
775.5000;0.2629;0.9157;
775.8000;0.2629;0.9304;
776.1000;0.2621;0.9280;
776.4000;0.2613;0.9182;
776.7000;0.2629;0.9157;
777.0000;0.2621;0.9083;
777.3000;0.2686;0.9304;
777.6000;0.2613;0.9083;
777.9000;0.2629;0.9108;
778.2000;0.2613;0.9059;
778.5000;0.2572;0.9010;
778.8000;0.2613;0.9108;
779.1000;0.2613;0.9059;
779.4000;0.2613;0.9108;
779.7000;0.2580;0.9059;
780.0000;0.2597;0.9059;
780.3000;0.2613;0.9108;
780.6000;0.2605;0.9059;
780.9000;0.2613;0.8961;
781.2000;0.2580;0.8936;
781.5000;0.2621;0.9059;
781.8000;0.2613;0.8985;
782.1000;0.2613;0.9034;
782.4000;0.2597;0.8911;
782.7000;0.2613;0.8985;
783.0000;0.2621;0.9059;
783.3000;0.2613;0.8936;
783.6000;0.2597;0.8887;
783.9000;0.2605;0.8961;
784.2000;0.2629;0.8936;
784.5000;0.2605;0.8813;
784.8000;0.2597;0.8813;
785.1000;0.2605;0.8887;
785.4000;0.2637;0.9010;
785.7000;0.2605;0.8936;
786.0000;0.2629;0.9083;
786.3000;0.2523;0.8862;
786.6000;0.2613;0.9132;
786.9000;0.2613;0.9059;
787.2000;0.2621;0.8985;
787.5000;0.2548;0.8764;
787.8000;0.2613;0.8911;
788.1000;0.2605;0.8936;
788.4000;0.2694;0.9132;
788.7000;0.2597;0.8887;
789.0000;0.2613;0.8911;
789.3000;0.2613;0.8887;
789.6000;0.2580;0.8789;
789.9000;0.2621;0.8887;
790.2000;0.2597;0.8789;
790.5000;0.2621;0.8887;
790.8000;0.2613;0.8813;
791.1000;0.2605;0.8936;
791.4000;0.2605;0.8936;
791.7000;0.2621;0.8911;
792.0000;0.2605;0.8936;
792.3000;0.2629;0.9059;
792.6000;0.2613;0.8985;
792.9000;0.2597;0.9010;
793.2000;0.2597;0.9034;
793.5000;0.2613;0.9010;
793.8000;0.2646;0.9059;
794.1000;0.2637;0.8985;
794.4000;0.2580;0.8862;
794.7000;0.2605;0.8813;
795.0000;0.2605;0.8887;
795.3000;0.2605;0.8936;
795.6000;0.2597;0.8911;
795.9000;0.2597;0.8887;
796.2000;0.2589;0.8838;
796.5000;0.2605;0.8887;
796.8000;0.2621;0.8911;
797.1000;0.2605;0.8764;
797.4000;0.2597;0.8789;
797.7000;0.2605;0.8813;
798.0000;0.2613;0.8862;
798.3000;0.2613;0.8838;
798.6000;0.2589;0.8813;
798.9000;0.2646;0.8936;
799.2000;0.2613;0.8911;
799.5000;0.2605;0.8789;
799.8000;0.2564;0.8764;
800.1000;0.2605;0.8936;
800.4000;0.2572;0.8862;
800.7000;0.2597;0.8936;
801.0000;0.2597;0.8936;
801.3000;0.2572;0.8813;
801.6000;0.2597;0.8936;
801.9000;0.2597;0.8985;
802.2000;0.2605;0.9034;
802.5000;0.2589;0.9034;
802.8000;0.2580;0.9034;
803.1000;0.2613;0.9132;
803.4000;0.2613;0.9132;
803.7000;0.2597;0.8961;
804.0000;0.2589;0.8936;
804.3000;0.2597;0.8911;
804.6000;0.2597;0.8961;
804.9000;0.2589;0.8887;
805.2000;0.2589;0.8911;
805.5000;0.2589;0.8862;
805.8000;0.2621;0.8961;
806.1000;0.2662;0.8985;
806.4000;0.2540;0.8789;
806.7000;0.2597;0.8911;
807.0000;0.2597;0.8961;
807.3000;0.2589;0.8961;
807.6000;0.2589;0.8936;
807.9000;0.2589;0.8911;
808.2000;0.2629;0.8961;
808.5000;0.2597;0.8887;
808.8000;0.2572;0.8838;
809.1000;0.2629;0.9010;
809.4000;0.2564;0.8838;
809.7000;0.2580;0.8936;
810.0000;0.2572;0.9034;
810.3000;0.2548;0.9034;
810.6000;0.2597;0.9108;
810.9000;0.2572;0.9059;
811.2000;0.2621;0.9157;
811.5000;0.2605;0.9083;
811.8000;0.2654;0.9231;
812.1000;0.2605;0.9034;
812.4000;0.2605;0.9059;
812.7000;0.2605;0.9059;
813.0000;0.2589;0.8961;
813.3000;0.2589;0.9034;
813.6000;0.2613;0.9182;
813.9000;0.2580;0.9059;
814.2000;0.2613;0.9083;
814.5000;0.2597;0.9182;
814.8000;0.2580;0.9132;
815.1000;0.2572;0.8985;
815.4000;0.2580;0.8936;
815.7000;0.2613;0.8985;
816.0000;0.2621;0.9157;
816.3000;0.2589;0.9034;
816.6000;0.2589;0.8985;
816.9000;0.2605;0.8961;
817.2000;0.2580;0.8985;
817.5000;0.2548;0.8887;
817.8000;0.2589;0.8961;
818.1000;0.2580;0.8985;
818.4000;0.2532;0.8961;
818.7000;0.2597;0.9132;
819.0000;0.2580;0.9108;
819.3000;0.2580;0.9132;
819.6000;0.2589;0.9132;
819.9000;0.2589;0.9132;
820.2000;0.2572;0.9132;
820.5000;0.2564;0.9132;
820.8000;0.2613;0.9255;
821.1000;0.2556;0.9132;
821.4000;0.2564;0.9132;
821.7000;0.2589;0.9108;
822.0000;0.2580;0.9108;
822.3000;0.2572;0.9108;
822.6000;0.2564;0.9157;
822.9000;0.2580;0.9108;
823.2000;0.2580;0.9157;
823.5000;0.2605;0.9182;
823.8000;0.2580;0.9157;
824.1000;0.2572;0.9157;
824.4000;0.2580;0.9108;
824.7000;0.2589;0.9108;
825.0000;0.2580;0.9157;
825.3000;0.2564;0.9132;
825.6000;0.2572;0.9108;
825.9000;0.2580;0.9034;
826.2000;0.2605;0.9034;
826.5000;0.2678;0.9304;
826.8000;0.2580;0.9132;
827.1000;0.2694;0.9501;
827.4000;0.2580;0.9206;
827.7000;0.2605;0.9206;
828.0000;0.2572;0.9059;
828.3000;0.2580;0.9083;
828.6000;0.2572;0.9083;
828.9000;0.2564;0.8936;
829.2000;0.2556;0.8887;
829.5000;0.2572;0.8911;
829.8000;0.2572;0.8961;
830.1000;0.2548;0.8911;
830.4000;0.2572;0.9010;
830.7000;0.2556;0.9010;
831.0000;0.2572;0.9034;
831.3000;0.2564;0.8985;
831.6000;0.2491;0.8862;
831.9000;0.2580;0.9059;
832.2000;0.2589;0.9034;
832.5000;0.2580;0.9010;
832.8000;0.2589;0.9108;
833.1000;0.2540;0.9108;
833.4000;0.2523;0.9010;
833.7000;0.2589;0.9010;
834.0000;0.2572;0.8985;
834.3000;0.2564;0.8961;
834.6000;0.2572;0.8961;
834.9000;0.2580;0.9059;
835.2000;0.2629;0.9231;
835.5000;0.2572;0.9010;
835.8000;0.2556;0.8985;
836.1000;0.2589;0.8936;
836.4000;0.2572;0.8936;
836.7000;0.2564;0.8887;
837.0000;0.2572;0.8862;
837.3000;0.2572;0.8862;
837.6000;0.2507;0.8740;
837.9000;0.2548;0.8911;
838.2000;0.2580;0.8838;
838.5000;0.2597;0.8862;
838.8000;0.2580;0.8887;
839.1000;0.2564;0.8887;
839.4000;0.2580;0.8911;
839.7000;0.2564;0.8936;
840.0000;0.2580;0.8985;
840.3000;0.2589;0.9034;
840.6000;0.2580;0.9083;
840.9000;0.2580;0.9157;
841.2000;0.2556;0.9182;
841.5000;0.2564;0.9157;
841.8000;0.2556;0.9157;
842.1000;0.2580;0.9255;
842.4000;0.2580;0.9206;
842.7000;0.2589;0.9157;
843.0000;0.2597;0.9206;
843.3000;0.2564;0.9132;
843.6000;0.2572;0.9182;
843.9000;0.2580;0.9231;
844.2000;0.2646;0.9353;
844.5000;0.2556;0.9132;
844.8000;0.2564;0.9010;
845.1000;0.2580;0.9034;
845.4000;0.2597;0.9083;
845.7000;0.2589;0.9083;
846.0000;0.2589;0.9132;
846.3000;0.2556;0.9108;
846.6000;0.2564;0.9206;
846.9000;0.2572;0.9157;
847.2000;0.2572;0.9182;
847.5000;0.2540;0.9182;
847.8000;0.2572;0.9206;
848.1000;0.2613;0.9304;
848.4000;0.2589;0.9255;
848.7000;0.2523;0.9132;
849.0000;0.2564;0.9157;
849.3000;0.2564;0.9157;
849.6000;0.2580;0.9206;
849.9000;0.2572;0.9059;
850.2000;0.2605;0.9108;
850.5000;0.2572;0.8961;
850.8000;0.2564;0.9034;
851.1000;0.2556;0.9034;
851.4000;0.2580;0.9157;
851.7000;0.2629;0.9157;
852.0000;0.2523;0.8887;
852.3000;0.2572;0.9059;
852.6000;0.2580;0.9083;
852.9000;0.2556;0.9034;
853.2000;0.2548;0.9083;
853.5000;0.2548;0.9059;
853.8000;0.2580;0.9059;
854.1000;0.2572;0.9010;
854.4000;0.2572;0.9010;
854.7000;0.2589;0.9010;
855.0000;0.2564;0.8961;
855.3000;0.2548;0.8887;
855.6000;0.2572;0.9059;
855.9000;0.2548;0.8936;
856.2000;0.2564;0.8961;
856.5000;0.2572;0.9034;
856.8000;0.2572;0.9034;
857.1000;0.2548;0.9059;
857.4000;0.2580;0.9132;
857.7000;0.2572;0.9206;
858.0000;0.2589;0.9255;
858.3000;0.2564;0.9206;
858.6000;0.2556;0.9231;
858.9000;0.2580;0.9255;
859.2000;0.2556;0.9231;
859.5000;0.2556;0.9231;
859.8000;0.2540;0.9132;
860.1000;0.2564;0.9108;
860.4000;0.2556;0.9132;
860.7000;0.2564;0.9132;
861.0000;0.2556;0.9157;
861.3000;0.2556;0.9132;
861.6000;0.2540;0.9231;
861.9000;0.2597;0.9378;
862.2000;0.2548;0.9231;
862.5000;0.2572;0.9304;
862.8000;0.2556;0.9280;
863.1000;0.2572;0.9280;
863.4000;0.2556;0.9231;
863.7000;0.2556;0.9255;
864.0000;0.2597;0.9329;
864.3000;0.2540;0.9182;
864.6000;0.2548;0.9231;
864.9000;0.2532;0.9108;
865.2000;0.2564;0.9157;
865.5000;0.2548;0.9157;
865.8000;0.2483;0.9010;
866.1000;0.2548;0.9132;
866.4000;0.2548;0.9182;
866.7000;0.2564;0.9157;
867.0000;0.2556;0.9083;
867.3000;0.2548;0.9132;
867.6000;0.2548;0.9255;
867.9000;0.2621;0.9427;
868.2000;0.2556;0.9255;
868.5000;0.2564;0.9231;
868.8000;0.2548;0.9108;
869.1000;0.2556;0.9182;
869.4000;0.2564;0.9206;
869.7000;0.2556;0.9182;
870.0000;0.2548;0.9132;
870.3000;0.2515;0.8985;
870.6000;0.2605;0.9206;
870.9000;0.2548;0.9083;
871.2000;0.2556;0.9132;
871.5000;0.2556;0.9231;
871.8000;0.2564;0.9280;
872.1000;0.2572;0.9255;
872.4000;0.2564;0.9231;
872.7000;0.2564;0.9231;
873.0000;0.2572;0.9329;
873.3000;0.2556;0.9280;
873.6000;0.2540;0.9329;
873.9000;0.2548;0.9304;
874.2000;0.2548;0.9182;
874.5000;0.2556;0.9132;
874.8000;0.2564;0.9157;
875.1000;0.2523;0.9010;
875.4000;0.2491;0.8936;
875.7000;0.2548;0.9083;
876.0000;0.2556;0.9157;
876.3000;0.2532;0.9059;
876.6000;0.2572;0.9108;
876.9000;0.2572;0.9059;
877.2000;0.2564;0.9108;
877.5000;0.2548;0.9010;
877.8000;0.2564;0.9108;
878.1000;0.2572;0.9157;
878.4000;0.2548;0.9157;
878.7000;0.2523;0.9083;
879.0000;0.2540;0.9231;
879.3000;0.2515;0.9157;
879.6000;0.2572;0.9206;
879.9000;0.2540;0.9182;
880.2000;0.2556;0.9157;
880.5000;0.2523;0.9132;
880.8000;0.2548;0.9206;
881.1000;0.2556;0.9132;
881.4000;0.2548;0.9182;
881.7000;0.2540;0.9231;
882.0000;0.2564;0.9353;
882.3000;0.2572;0.9476;
882.6000;0.2556;0.9476;
882.9000;0.2532;0.9402;
883.2000;0.2572;0.9452;
883.5000;0.2532;0.9280;
883.8000;0.2572;0.9304;
884.1000;0.2523;0.9231;
884.4000;0.2532;0.9280;
884.7000;0.2548;0.9378;
885.0000;0.2548;0.9353;
885.3000;0.2523;0.9182;
885.6000;0.2548;0.9304;
885.9000;0.2564;0.9402;
886.2000;0.2556;0.9452;
886.5000;0.2548;0.9353;
886.8000;0.2556;0.9353;
887.1000;0.2564;0.9353;
887.4000;0.2556;0.9304;
887.7000;0.2548;0.9231;
888.0000;0.2548;0.9231;
888.3000;0.2572;0.9378;
888.6000;0.2572;0.9329;
888.9000;0.2572;0.9353;
889.2000;0.2548;0.9329;
889.5000;0.2556;0.9329;
889.8000;0.2548;0.9280;
890.1000;0.2540;0.9280;
890.4000;0.2548;0.9304;
890.7000;0.2540;0.9280;
891.0000;0.2548;0.9304;
891.3000;0.2572;0.9353;
891.6000;0.2548;0.9280;
891.9000;0.2556;0.9255;
892.2000;0.2564;0.9206;
892.5000;0.2564;0.9231;
892.8000;0.2572;0.9255;
893.1000;0.2548;0.9157;
893.4000;0.2564;0.9132;
893.7000;0.2556;0.9108;
894.0000;0.2556;0.9132;
894.3000;0.2515;0.9157;
894.6000;0.2556;0.9182;
894.9000;0.2580;0.9206;
895.2000;0.2532;0.9132;
895.5000;0.2540;0.9132;
895.8000;0.2564;0.9231;
896.1000;0.2540;0.9132;
896.4000;0.2572;0.9182;
896.7000;0.2523;0.9083;
897.0000;0.2515;0.9108;
897.3000;0.2532;0.9157;
897.6000;0.2548;0.9280;
897.9000;0.2548;0.9378;
898.2000;0.2540;0.9427;
898.5000;0.2540;0.9402;
898.8000;0.2556;0.9378;
899.1000;0.2589;0.9402;
899.4000;0.2458;0.9108;
899.7000;0.2540;0.9206;
900.0000;0.2597;0.9255;
900.3000;0.2548;0.9059;
900.6000;0.2556;0.9059;
900.9000;0.2532;0.9108;
901.2000;0.2499;0.9010;
901.5000;0.2564;0.9304;
901.8000;0.2556;0.9280;
902.1000;0.2556;0.9255;
902.4000;0.2540;0.9231;
902.7000;0.2556;0.9132;
903.0000;0.2532;0.9083;
903.3000;0.2572;0.9255;
903.6000;0.2540;0.9108;
903.9000;0.2548;0.9182;
904.2000;0.2548;0.9231;
904.5000;0.2523;0.9157;
904.8000;0.2556;0.9206;
905.1000;0.2540;0.9083;
905.4000;0.2548;0.9157;
905.7000;0.2515;0.9034;
906.0000;0.2540;0.9108;
906.3000;0.2556;0.9157;
906.6000;0.2564;0.9304;
906.9000;0.2548;0.9231;
907.2000;0.2515;0.9182;
907.5000;0.2548;0.9280;
907.8000;0.2540;0.9231;
908.1000;0.2540;0.9255;
908.4000;0.2540;0.9157;
908.7000;0.2523;0.9157;
909.0000;0.2540;0.9255;
909.3000;0.2532;0.9206;
909.6000;0.2548;0.9255;
909.9000;0.2523;0.9182;
910.2000;0.2532;0.9182;
910.5000;0.2507;0.9132;
910.8000;0.2523;0.9157;
911.1000;0.2548;0.9206;
911.4000;0.2580;0.9206;
911.7000;0.2548;0.9182;
912.0000;0.2499;0.9132;
912.3000;0.2548;0.9231;
912.6000;0.2532;0.9231;
912.9000;0.2523;0.9206;
913.2000;0.2540;0.9182;
913.5000;0.2540;0.9108;
913.8000;0.2548;0.9132;
914.1000;0.2540;0.9132;
914.4000;0.2556;0.9083;
914.7000;0.2556;0.8985;
915.0000;0.2580;0.8961;
915.3000;0.2540;0.8961;
915.6000;0.2532;0.8911;
915.9000;0.2556;0.8911;
916.2000;0.2532;0.8936;
916.5000;0.2532;0.8838;
916.8000;0.2540;0.8936;
917.1000;0.2540;0.8961;
917.4000;0.2499;0.8936;
917.7000;0.2540;0.8985;
918.0000;0.2548;0.8961;
918.3000;0.2507;0.8887;
918.6000;0.2564;0.9059;
918.9000;0.2564;0.9108;
919.2000;0.2540;0.9157;
919.5000;0.2515;0.9182;
919.8000;0.2589;0.9452;
920.1000;0.2556;0.9353;
920.4000;0.2540;0.9329;
920.7000;0.2548;0.9255;
921.0000;0.2548;0.9206;
921.3000;0.2548;0.9182;
921.6000;0.2540;0.9157;
921.9000;0.2491;0.8985;
922.2000;0.2572;0.9157;
922.5000;0.2556;0.9083;
922.8000;0.2613;0.9329;
923.1000;0.2540;0.9182;
923.4000;0.2597;0.9304;
923.7000;0.2556;0.9206;
924.0000;0.2515;0.9108;
924.3000;0.2556;0.9231;
924.6000;0.2548;0.9182;
924.9000;0.2532;0.9206;
925.2000;0.2548;0.9255;
925.5000;0.2548;0.9304;
925.8000;0.2532;0.9255;
926.1000;0.2556;0.9378;
926.4000;0.2540;0.9353;
926.7000;0.2532;0.9304;
927.0000;0.2532;0.9280;
927.3000;0.2548;0.9255;
927.6000;0.2523;0.9157;
927.9000;0.2532;0.9182;
928.2000;0.2564;0.9255;
928.5000;0.2523;0.9182;
928.8000;0.2540;0.9206;
929.1000;0.2532;0.9132;
929.4000;0.2523;0.9083;
929.7000;0.2523;0.9059;
930.0000;0.2540;0.9132;
930.3000;0.2556;0.9206;
930.6000;0.2556;0.9329;
930.9000;0.2556;0.9280;
931.2000;0.2532;0.9182;
931.5000;0.2548;0.9231;
931.8000;0.2540;0.9255;
932.1000;0.2548;0.9255;
932.4000;0.2548;0.9255;
932.7000;0.2548;0.9304;
933.0000;0.2532;0.9329;
933.3000;0.2515;0.9280;
933.6000;0.2523;0.9353;
933.9000;0.2532;0.9353;
934.2000;0.2548;0.9378;
934.5000;0.2532;0.9402;
934.8000;0.2540;0.9353;
935.1000;0.2548;0.9304;
935.4000;0.2532;0.9280;
935.7000;0.2532;0.9304;
936.0000;0.2515;0.9329;
936.3000;0.2523;0.9206;
936.6000;0.2532;0.9206;
936.9000;0.2523;0.9083;
937.2000;0.2523;0.9059;
937.5000;0.2532;0.9182;
937.8000;0.2540;0.9255;
938.1000;0.2523;0.9231;
938.4000;0.2540;0.9353;
938.7000;0.2523;0.9304;
939.0000;0.2556;0.9353;
939.3000;0.2540;0.9378;
939.6000;0.2523;0.9427;
939.9000;0.2515;0.9378;
940.2000;0.2475;0.9231;
940.5000;0.2483;0.9280;
940.8000;0.2532;0.9378;
941.1000;0.2499;0.9231;
941.4000;0.2548;0.9378;
941.7000;0.2532;0.9402;
942.0000;0.2564;0.9501;
942.3000;0.2548;0.9427;
942.6000;0.2540;0.9329;
942.9000;0.2540;0.9378;
943.2000;0.2532;0.9378;
943.5000;0.2572;0.9402;
943.8000;0.2548;0.9329;
944.1000;0.2532;0.9280;
944.4000;0.2540;0.9182;
944.7000;0.2540;0.9132;
945.0000;0.2540;0.9132;
945.3000;0.2548;0.9182;
945.6000;0.2564;0.9304;
945.9000;0.2523;0.9304;
946.2000;0.2532;0.9378;
946.5000;0.2540;0.9353;
946.8000;0.2548;0.9329;
947.1000;0.2532;0.9353;
947.4000;0.2523;0.9280;
947.7000;0.2548;0.9329;
948.0000;0.2580;0.9378;
948.3000;0.2548;0.9255;
948.6000;0.2548;0.9231;
948.9000;0.2499;0.9108;
949.2000;0.2499;0.9132;
949.5000;0.2523;0.9182;
949.8000;0.2548;0.9206;
950.1000;0.2491;0.9132;
950.4000;0.2548;0.9280;
950.7000;0.2548;0.9231;
951.0000;0.2540;0.9304;
951.3000;0.2540;0.9329;
951.6000;0.2491;0.9280;
951.9000;0.2523;0.9353;
952.2000;0.2540;0.9353;
952.5000;0.2507;0.9329;
952.8000;0.2572;0.9427;
953.1000;0.2548;0.9329;
953.4000;0.2532;0.9353;
953.7000;0.2499;0.9353;
954.0000;0.2540;0.9427;
954.3000;0.2572;0.9402;
954.6000;0.2540;0.9329;
954.9000;0.2515;0.9231;
955.2000;0.2507;0.9157;
955.5000;0.2580;0.9280;
955.8000;0.2556;0.9206;
956.1000;0.2540;0.9206;
956.4000;0.2540;0.9255;
956.7000;0.2540;0.9182;
957.0000;0.2466;0.9010;
957.3000;0.2523;0.9157;
957.6000;0.2540;0.9206;
957.9000;0.2532;0.9255;
958.2000;0.2523;0.9280;
958.5000;0.2418;0.9059;
958.8000;0.2523;0.9304;
959.1000;0.2523;0.9353;
959.4000;0.2540;0.9280;
959.7000;0.2532;0.9206;
960.0000;0.2532;0.9231;
960.3000;0.2556;0.9304;
960.6000;0.2523;0.9304;
960.9000;0.2523;0.9353;
961.2000;0.2556;0.9427;
961.5000;0.2523;0.9329;
961.8000;0.2540;0.9378;
962.1000;0.2589;0.9501;
962.4000;0.2532;0.9353;
962.7000;0.2548;0.9304;
963.0000;0.2540;0.9329;
963.3000;0.2515;0.9280;
963.6000;0.2532;0.9329;
963.9000;0.2523;0.9353;
964.2000;0.2540;0.9402;
964.5000;0.2532;0.9378;
964.8000;0.2540;0.9378;
965.1000;0.2515;0.9280;
965.4000;0.2515;0.9231;
965.7000;0.2540;0.9329;
966.0000;0.2540;0.9378;
966.3000;0.2532;0.9280;
966.6000;0.2548;0.9280;
966.9000;0.2532;0.9206;
967.2000;0.2540;0.9206;
967.5000;0.2523;0.9255;
967.8000;0.2515;0.9231;
968.1000;0.2515;0.9280;
968.4000;0.2532;0.9255;
968.7000;0.2540;0.9304;
969.0000;0.2540;0.9378;
969.3000;0.2540;0.9452;
969.6000;0.2532;0.9427;
969.9000;0.2540;0.9427;
970.2000;0.2523;0.9378;
970.5000;0.2523;0.9353;
970.8000;0.2523;0.9452;
971.1000;0.2532;0.9378;
971.4000;0.2540;0.9329;
971.7000;0.2523;0.9353;
972.0000;0.2540;0.9402;
972.3000;0.2532;0.9427;
972.6000;0.2523;0.9353;
972.9000;0.2540;0.9378;
973.2000;0.2532;0.9329;
973.5000;0.2580;0.9402;
973.8000;0.2540;0.9280;
974.1000;0.2532;0.9304;
974.4000;0.2556;0.9353;
974.7000;0.2548;0.9353;
975.0000;0.2540;0.9304;
975.3000;0.2507;0.9255;
975.6000;0.2523;0.9231;
975.9000;0.2507;0.9157;
976.2000;0.2532;0.9157;
976.5000;0.2515;0.9083;
976.8000;0.2540;0.9132;
977.1000;0.2532;0.9157;
977.4000;0.2532;0.9132;
977.7000;0.2540;0.9108;
978.0000;0.2548;0.9083;
978.3000;0.2540;0.9059;
978.6000;0.2540;0.9108;
978.9000;0.2499;0.9034;
979.2000;0.2499;0.9034;
979.5000;0.2515;0.9132;
979.8000;0.2556;0.9329;
980.1000;0.2523;0.9353;
980.4000;0.2515;0.9280;
980.7000;0.2515;0.9280;
981.0000;0.2589;0.9452;
981.3000;0.2507;0.9231;
981.6000;0.2483;0.9206;
981.9000;0.2572;0.9550;
982.2000;0.2532;0.9452;
982.5000;0.2597;0.9599;
982.8000;0.2523;0.9427;
983.1000;0.2515;0.9501;
983.4000;0.2540;0.9550;
983.7000;0.2532;0.9452;
984.0000;0.2532;0.9427;
984.3000;0.2540;0.9427;
984.6000;0.2540;0.9402;
984.9000;0.2532;0.9329;
985.2000;0.2523;0.9280;
985.5000;0.2523;0.9231;
985.8000;0.2548;0.9231;
986.1000;0.2532;0.9353;
986.4000;0.2540;0.9353;
986.7000;0.2548;0.9452;
987.0000;0.2540;0.9476;
987.3000;0.2540;0.9402;
987.6000;0.2540;0.9353;
987.9000;0.2540;0.9304;
988.2000;0.2532;0.9231;
988.5000;0.2515;0.9083;
988.8000;0.2483;0.8936;
989.1000;0.2515;0.9108;
989.4000;0.2532;0.9132;
989.7000;0.2540;0.9157;
990.0000;0.2532;0.9255;
990.3000;0.2515;0.9182;
990.6000;0.2515;0.9059;
990.9000;0.2442;0.8936;
991.2000;0.2548;0.9231;
991.5000;0.2540;0.9304;
991.8000;0.2515;0.9378;
992.1000;0.2540;0.9525;
992.4000;0.2556;0.9648;
992.7000;0.2532;0.9550;
993.0000;0.2532;0.9476;
993.3000;0.2515;0.9353;
993.6000;0.2515;0.9231;
993.9000;0.2532;0.9255;
994.2000;0.2532;0.9231;
994.5000;0.2507;0.9157;
994.8000;0.2532;0.9182;
995.1000;0.2532;0.9157;
995.4000;0.2556;0.9280;
995.7000;0.2532;0.9182;
996.0000;0.2515;0.9157;
996.3000;0.2540;0.9108;
996.6000;0.2597;0.9280;
996.9000;0.2523;0.9083;
997.2000;0.2540;0.9231;
997.5000;0.2532;0.9255;
997.8000;0.2515;0.9206;
998.1000;0.2532;0.9231;
998.4000;0.2491;0.9010;
998.7000;0.2532;0.9132;
999.0000;0.2515;0.9157;
999.3000;0.2523;0.9059;
999.6000;0.2523;0.9083;
999.9000;0.2523;0.9182;
1000.2000;0.2523;0.9231;
1000.5000;0.2523;0.9231;
1000.8000;0.2523;0.9157;
1001.1000;0.2532;0.9132;
1001.4000;0.2499;0.9010;
1001.7000;0.2556;0.9059;
1002.0000;0.2540;0.9010;
1002.3000;0.2540;0.8985;
1002.6000;0.2540;0.8985;
1002.9000;0.2523;0.8985;
1003.2000;0.2532;0.9059;
1003.5000;0.2507;0.9108;
1003.8000;0.2540;0.9231;
1004.1000;0.2523;0.9255;
1004.4000;0.2523;0.9280;
1004.7000;0.2499;0.9231;
1005.0000;0.2556;0.9255;
1005.3000;0.2532;0.9231;
1005.6000;0.2515;0.9255;
1005.9000;0.2499;0.9132;
1006.2000;0.2507;0.9157;
1006.5000;0.2523;0.9206;
1006.8000;0.2499;0.9206;
1007.1000;0.2507;0.9206;
1007.4000;0.2532;0.9231;
1007.7000;0.2523;0.9206;
1008.0000;0.2515;0.9182;
1008.3000;0.2515;0.9157;
1008.6000;0.2499;0.9206;
1008.9000;0.2515;0.9182;
1009.2000;0.2523;0.9206;
1009.5000;0.2515;0.9132;
1009.8000;0.2515;0.9182;
1010.1000;0.2564;0.9255;
1010.4000;0.2540;0.9280;
1010.7000;0.2548;0.9329;
1011.0000;0.2507;0.9182;
1011.3000;0.2523;0.9255;
1011.6000;0.2515;0.9255;
1011.9000;0.2532;0.9402;
1012.2000;0.2523;0.9378;
1012.5000;0.2532;0.9378;
1012.8000;0.2515;0.9378;
1013.1000;0.2523;0.9353;
1013.4000;0.2515;0.9329;
1013.7000;0.2507;0.9353;
1014.0000;0.2540;0.9452;
1014.3000;0.2507;0.9280;
1014.6000;0.2515;0.9280;
1014.9000;0.2515;0.9255;
1015.2000;0.2515;0.9132;
1015.5000;0.2507;0.9034;
1015.8000;0.2523;0.9157;
1016.1000;0.2499;0.9206;
1016.4000;0.2507;0.9206;
1016.7000;0.2507;0.9231;
1017.0000;0.2507;0.9206;
1017.3000;0.2523;0.9206;
1017.6000;0.2532;0.9280;
1017.9000;0.2499;0.9231;
1018.2000;0.2548;0.9304;
1018.5000;0.2458;0.9059;
1018.8000;0.2491;0.9157;
1019.1000;0.2532;0.9353;
1019.4000;0.2523;0.9255;
1019.7000;0.2556;0.9353;
1020.0000;0.2499;0.9280;
1020.3000;0.2523;0.9402;
1020.6000;0.2532;0.9378;
1020.9000;0.2532;0.9378;
1021.2000;0.2523;0.9501;
1021.5000;0.2523;0.9574;
1021.8000;0.2523;0.9452;
1022.1000;0.2507;0.9402;
1022.4000;0.2499;0.9304;
1022.7000;0.2515;0.9402;
1023.0000;0.2523;0.9427;
1023.3000;0.2507;0.9353;
1023.6000;0.2515;0.9427;
1023.9000;0.2523;0.9452;
1024.2000;0.2523;0.9452;
1024.5000;0.2523;0.9452;
1024.8000;0.2515;0.9304;
1025.1000;0.2507;0.9255;
1025.4000;0.2515;0.9378;
1025.7000;0.2523;0.9427;
1026.0000;0.2523;0.9402;
1026.3000;0.2515;0.9452;
1026.6000;0.2540;0.9525;
1026.9000;0.2532;0.9501;
1027.2000;0.2523;0.9452;
1027.5000;0.2548;0.9476;
1027.8000;0.2532;0.9427;
1028.1000;0.2532;0.9452;
1028.4000;0.2515;0.9378;
1028.7000;0.2507;0.9329;
1029.0000;0.2540;0.9402;
1029.3000;0.2507;0.9353;
1029.6000;0.2507;0.9378;
1029.9000;0.2507;0.9378;
1030.2000;0.2499;0.9378;
1030.5000;0.2532;0.9402;
1030.8000;0.2564;0.9402;
1031.1000;0.2540;0.9378;
1031.4000;0.2532;0.9476;
1031.7000;0.2523;0.9550;
1032.0000;0.2540;0.9550;
1032.3000;0.2540;0.9476;
1032.6000;0.2572;0.9501;
1032.9000;0.2548;0.9452;
1033.2000;0.2540;0.9402;
1033.5000;0.2523;0.9476;
1033.8000;0.2515;0.9501;
1034.1000;0.2523;0.9476;
1034.4000;0.2515;0.9476;
1034.7000;0.2523;0.9501;
1035.0000;0.2515;0.9525;
1035.3000;0.2507;0.9525;
1035.6000;0.2515;0.9550;
1035.9000;0.2515;0.9599;
1036.2000;0.2556;0.9648;
1036.5000;0.2532;0.9550;
1036.8000;0.2540;0.9648;
1037.1000;0.2532;0.9599;
1037.4000;0.2532;0.9574;
1037.7000;0.2491;0.9501;
1038.0000;0.2515;0.9501;
1038.3000;0.2523;0.9452;
1038.6000;0.2499;0.9378;
1038.9000;0.2499;0.9329;
1039.2000;0.2515;0.9378;
1039.5000;0.2507;0.9427;
1039.8000;0.2507;0.9402;
1040.1000;0.2564;0.9623;
1040.4000;0.2499;0.9452;
1040.7000;0.2532;0.9501;
1041.0000;0.2507;0.9550;
1041.3000;0.2540;0.9574;
1041.6000;0.2548;0.9574;
1041.9000;0.2556;0.9623;
1042.2000;0.2532;0.9353;
1042.5000;0.2532;0.9378;
1042.8000;0.2540;0.9329;
1043.1000;0.2540;0.9304;
1043.4000;0.2540;0.9304;
1043.7000;0.2523;0.9280;
1044.0000;0.2540;0.9378;
1044.3000;0.2507;0.9378;
1044.6000;0.2491;0.9304;
1044.9000;0.2507;0.9304;
1045.2000;0.2532;0.9402;
1045.5000;0.2515;0.9427;
1045.8000;0.2523;0.9476;
1046.1000;0.2540;0.9501;
1046.4000;0.2515;0.9427;
1046.7000;0.2507;0.9304;
1047.0000;0.2532;0.9378;
1047.3000;0.2540;0.9452;
1047.6000;0.2532;0.9353;
1047.9000;0.2532;0.9353;
1048.2000;0.2499;0.9280;
1048.5000;0.2499;0.9304;
1048.8000;0.2515;0.9378;
1049.1000;0.2507;0.9353;
1049.4000;0.2540;0.9427;
1049.7000;0.2515;0.9378;
1050.0000;0.2491;0.9304;
1050.3000;0.2499;0.9353;
1050.6000;0.2532;0.9402;
1050.9000;0.2491;0.9304;
1051.2000;0.2515;0.9353;
1051.5000;0.2515;0.9280;
1051.8000;0.2466;0.9206;
1052.1000;0.2540;0.9452;
1052.4000;0.2572;0.9501;
1052.7000;0.2572;0.9525;
1053.0000;0.2515;0.9427;
1053.3000;0.2515;0.9452;
1053.6000;0.2540;0.9550;
1053.9000;0.2507;0.9525;
1054.2000;0.2515;0.9525;
1054.5000;0.2523;0.9525;
1054.8000;0.2540;0.9648;
1055.1000;0.2580;0.9672;
1055.4000;0.2613;0.9623;
1055.7000;0.2515;0.9501;
1056.0000;0.2532;0.9501;
1056.3000;0.2540;0.9525;
1056.6000;0.2523;0.9525;
1056.9000;0.2499;0.9427;
1057.2000;0.2532;0.9476;
1057.5000;0.2515;0.9427;
1057.8000;0.2434;0.9255;
1058.1000;0.2491;0.9476;
1058.4000;0.2523;0.9599;
1058.7000;0.2532;0.9599;
1059.0000;0.2507;0.9501;
1059.3000;0.2580;0.9648;
1059.6000;0.2532;0.9501;
1059.9000;0.2507;0.9574;
1060.2000;0.2515;0.9525;
1060.5000;0.2515;0.9501;
1060.8000;0.2523;0.9525;
1061.1000;0.2507;0.9501;
1061.4000;0.2515;0.9525;
1061.7000;0.2540;0.9574;
1062.0000;0.2507;0.9550;
1062.3000;0.2548;0.9550;
1062.6000;0.2507;0.9501;
1062.9000;0.2515;0.9599;
1063.2000;0.2499;0.9452;
1063.5000;0.2499;0.9501;
1063.8000;0.2507;0.9525;
1064.1000;0.2515;0.9550;
1064.4000;0.2548;0.9623;
1064.7000;0.2499;0.9550;
1065.0000;0.2507;0.9501;
1065.3000;0.2523;0.9525;
1065.6000;0.2491;0.9550;
1065.9000;0.2499;0.9722;
1066.2000;0.2572;0.9820;
1066.5000;0.2532;0.9771;
1066.8000;0.2515;0.9795;
1067.1000;0.2515;0.9722;
1067.4000;0.2548;0.9820;
1067.7000;0.2499;0.9746;
1068.0000;0.2540;0.9722;
1068.3000;0.2515;0.9623;
1068.6000;0.2532;0.9623;
1068.9000;0.2507;0.9574;
1069.2000;0.2523;0.9599;
1069.5000;0.2515;0.9501;
1069.8000;0.2507;0.9402;
1070.1000;0.2540;0.9452;
1070.4000;0.2532;0.9427;
1070.7000;0.2515;0.9329;
1071.0000;0.2523;0.9402;
1071.3000;0.2515;0.9353;
1071.6000;0.2499;0.9304;
1071.9000;0.2466;0.9206;
1072.2000;0.2548;0.9402;
1072.5000;0.2523;0.9427;
1072.8000;0.2523;0.9427;
1073.1000;0.2515;0.9402;
1073.4000;0.2483;0.9378;
1073.7000;0.2475;0.9329;
1074.0000;0.2499;0.9402;
1074.3000;0.2458;0.9231;
1074.6000;0.2515;0.9452;
1074.9000;0.2515;0.9378;
1075.2000;0.2589;0.9550;
1075.5000;0.2499;0.9378;
1075.8000;0.2564;0.9550;
1076.1000;0.2532;0.9452;
1076.4000;0.2523;0.9452;
1076.7000;0.2507;0.9427;
1077.0000;0.2515;0.9378;
1077.3000;0.2523;0.9452;
1077.6000;0.2532;0.9525;
1077.9000;0.2532;0.9574;
1078.2000;0.2491;0.9452;
1078.5000;0.2523;0.9476;
1078.8000;0.2515;0.9501;
1079.1000;0.2515;0.9501;
1079.4000;0.2532;0.9525;
1079.7000;0.2515;0.9452;
1080.0000;0.2532;0.9550;
1080.3000;0.2515;0.9525;
1080.6000;0.2540;0.9525;
1080.9000;0.2507;0.9452;
1081.2000;0.2589;0.9574;
1081.5000;0.2556;0.9501;
1081.8000;0.2532;0.9476;
1082.1000;0.2491;0.9427;
1082.4000;0.2515;0.9452;
1082.7000;0.2532;0.9574;
1083.0000;0.2499;0.9574;
1083.3000;0.2515;0.9599;
1083.6000;0.2523;0.9599;
1083.9000;0.2499;0.9623;
1084.2000;0.2515;0.9599;
1084.5000;0.2499;0.9476;
1084.8000;0.2499;0.9353;
1085.1000;0.2499;0.9353;
1085.4000;0.2532;0.9378;
1085.7000;0.2507;0.9353;
1086.0000;0.2523;0.9353;
1086.3000;0.2499;0.9304;
1086.6000;0.2532;0.9329;
1086.9000;0.2507;0.9280;
1087.2000;0.2507;0.9231;
1087.5000;0.2507;0.9231;
1087.8000;0.2499;0.9231;
1088.1000;0.2532;0.9329;
1088.4000;0.2515;0.9378;
1088.7000;0.2515;0.9402;
1089.0000;0.2515;0.9452;
1089.3000;0.2426;0.9157;
1089.6000;0.2507;0.9378;
1089.9000;0.2507;0.9402;
1090.2000;0.2523;0.9574;
1090.5000;0.2515;0.9623;
1090.8000;0.2507;0.9550;
1091.1000;0.2523;0.9550;
1091.4000;0.2499;0.9501;
1091.7000;0.2507;0.9427;
1092.0000;0.2523;0.9476;
1092.3000;0.2475;0.9452;
1092.6000;0.2499;0.9501;
1092.9000;0.2523;0.9501;
1093.2000;0.2540;0.9550;
1093.5000;0.2532;0.9599;
1093.8000;0.2515;0.9599;
1094.1000;0.2523;0.9574;
1094.4000;0.2523;0.9427;
1094.7000;0.2507;0.9402;
1095.0000;0.2515;0.9402;
1095.3000;0.2523;0.9476;
1095.6000;0.2523;0.9402;
1095.9000;0.2523;0.9501;
1096.2000;0.2515;0.9501;
1096.5000;0.2580;0.9697;
1096.8000;0.2564;0.9648;
1097.1000;0.2507;0.9501;
1097.4000;0.2515;0.9402;
1097.7000;0.2532;0.9402;
1098.0000;0.2491;0.9402;
1098.3000;0.2523;0.9501;
1098.6000;0.2491;0.9402;
1098.9000;0.2515;0.9476;
1099.2000;0.2540;0.9427;
1099.5000;0.2499;0.9452;
1099.8000;0.2507;0.9427;
1100.1000;0.2515;0.9427;
1100.4000;0.2523;0.9476;
1100.7000;0.2507;0.9476;
1101.0000;0.2515;0.9501;
1101.3000;0.2532;0.9525;
1101.6000;0.2523;0.9476;
1101.9000;0.2507;0.9402;
1102.2000;0.2499;0.9353;
1102.5000;0.2499;0.9329;
1102.8000;0.2499;0.9304;
1103.1000;0.2507;0.9427;
1103.4000;0.2523;0.9427;
1103.7000;0.2564;0.9501;
1104.0000;0.2572;0.9525;
1104.3000;0.2540;0.9402;
1104.6000;0.2507;0.9402;
1104.9000;0.2523;0.9501;
1105.2000;0.2515;0.9476;
1105.5000;0.2523;0.9452;
1105.8000;0.2540;0.9452;
1106.1000;0.2523;0.9452;
1106.4000;0.2532;0.9525;
1106.7000;0.2499;0.9427;
1107.0000;0.2515;0.9501;
1107.3000;0.2491;0.9452;
1107.6000;0.2515;0.9525;
1107.9000;0.2499;0.9476;
1108.2000;0.2507;0.9452;
1108.5000;0.2499;0.9402;
1108.8000;0.2532;0.9574;
1109.1000;0.2499;0.9427;
1109.4000;0.2515;0.9353;
1109.7000;0.2548;0.9525;
1110.0000;0.2532;0.9427;
1110.3000;0.2556;0.9476;
1110.6000;0.2523;0.9427;
1110.9000;0.2532;0.9452;
1111.2000;0.2532;0.9452;
1111.5000;0.2491;0.9353;
1111.8000;0.2532;0.9525;
1112.1000;0.2523;0.9427;
1112.4000;0.2523;0.9476;
1112.7000;0.2515;0.9525;
1113.0000;0.2515;0.9525;
1113.3000;0.2426;0.9329;
1113.6000;0.2515;0.9623;
1113.9000;0.2532;0.9574;
1114.2000;0.2499;0.9501;
1114.5000;0.2499;0.9476;
1114.8000;0.2515;0.9452;
1115.1000;0.2523;0.9525;
1115.4000;0.2515;0.9599;
1115.7000;0.2589;0.9869;
1116.0000;0.2532;0.9623;
1116.3000;0.2499;0.9501;
1116.6000;0.2523;0.9574;
1116.9000;0.2507;0.9648;
1117.2000;0.2499;0.9623;
1117.5000;0.2499;0.9574;
1117.8000;0.2507;0.9599;
1118.1000;0.2507;0.9550;
1118.4000;0.2507;0.9574;
1118.7000;0.2491;0.9574;
1119.0000;0.2507;0.9574;
1119.3000;0.2491;0.9476;
1119.6000;0.2507;0.9501;
1119.9000;0.2507;0.9476;
1120.2000;0.2499;0.9452;
1120.5000;0.2483;0.9427;
1120.8000;0.2507;0.9402;
1121.1000;0.2523;0.9353;
1121.4000;0.2532;0.9329;
1121.7000;0.2523;0.9427;
1122.0000;0.2532;0.9501;
1122.3000;0.2532;0.9550;
1122.6000;0.2515;0.9599;
1122.9000;0.2499;0.9574;
1123.2000;0.2483;0.9476;
1123.5000;0.2507;0.9550;
1123.8000;0.2523;0.9648;
1124.1000;0.2580;0.9746;
1124.4000;0.2507;0.9574;
1124.7000;0.2523;0.9550;
1125.0000;0.2507;0.9648;
1125.3000;0.2523;0.9746;
1125.6000;0.2523;0.9746;
1125.9000;0.2540;0.9746;
1126.2000;0.2483;0.9599;
1126.5000;0.2540;0.9746;
1126.8000;0.2532;0.9697;
1127.1000;0.2556;0.9697;
1127.4000;0.2540;0.9672;
1127.7000;0.2532;0.9574;
1128.0000;0.2523;0.9550;
1128.3000;0.2475;0.9402;
1128.6000;0.2548;0.9574;
1128.9000;0.2532;0.9501;
1129.2000;0.2491;0.9402;
1129.5000;0.2523;0.9574;
1129.8000;0.2540;0.9722;
1130.1000;0.2621;0.9943;
1130.4000;0.2523;0.9697;
1130.7000;0.2515;0.9697;
1131.0000;0.2515;0.9722;
1131.3000;0.2466;0.9574;
1131.6000;0.2507;0.9599;
1131.9000;0.2491;0.9574;
1132.2000;0.2556;0.9599;
1132.5000;0.2515;0.9452;
1132.8000;0.2523;0.9452;
1133.1000;0.2483;0.9304;
1133.4000;0.2491;0.9304;
1133.7000;0.2515;0.9231;
1134.0000;0.2442;0.9132;
1134.3000;0.2532;0.9353;
1134.6000;0.2507;0.9206;
1134.9000;0.2507;0.9231;
1135.2000;0.2515;0.9255;
1135.5000;0.2491;0.9231;
1135.8000;0.2515;0.9255;
1136.1000;0.2532;0.9378;
1136.4000;0.2515;0.9427;
1136.7000;0.2515;0.9476;
1137.0000;0.2507;0.9476;
1137.3000;0.2515;0.9574;
1137.6000;0.2621;0.9771;
1137.9000;0.2515;0.9501;
1138.2000;0.2499;0.9378;
1138.5000;0.2580;0.9525;
1138.8000;0.2491;0.9280;
1139.1000;0.2507;0.9280;
1139.4000;0.2507;0.9329;
1139.7000;0.2507;0.9402;
1140.0000;0.2507;0.9427;
1140.3000;0.2515;0.9452;
1140.6000;0.2515;0.9525;
1140.9000;0.2507;0.9452;
1141.2000;0.2589;0.9623;
1141.5000;0.2515;0.9378;
1141.8000;0.2515;0.9427;
1142.1000;0.2523;0.9476;
1142.4000;0.2483;0.9304;
1142.7000;0.2556;0.9550;
1143.0000;0.2523;0.9427;
1143.3000;0.2532;0.9402;
1143.6000;0.2499;0.9329;
1143.9000;0.2491;0.9353;
1144.2000;0.2507;0.9427;
1144.5000;0.2483;0.9329;
1144.8000;0.2564;0.9501;
1145.1000;0.2540;0.9452;
1145.4000;0.2523;0.9378;
1145.7000;0.2515;0.9304;
1146.0000;0.2499;0.9231;
1146.3000;0.2499;0.9255;
1146.6000;0.2515;0.9280;
1146.9000;0.2507;0.9304;
1147.2000;0.2507;0.9255;
1147.5000;0.2523;0.9378;
1147.8000;0.2507;0.9378;
1148.1000;0.2515;0.9378;
1148.4000;0.2507;0.9378;
1148.7000;0.2507;0.9329;
1149.0000;0.2564;0.9525;
1149.3000;0.2483;0.9378;
1149.6000;0.2466;0.9427;
1149.9000;0.2507;0.9550;
1150.2000;0.2507;0.9574;
1150.5000;0.2507;0.9574;
1150.8000;0.2499;0.9574;
1151.1000;0.2491;0.9574;
1151.4000;0.2523;0.9599;
1151.7000;0.2507;0.9574;
1152.0000;0.2523;0.9550;
1152.3000;0.2613;0.9771;
1152.6000;0.2515;0.9452;
1152.9000;0.2507;0.9427;
1153.2000;0.2532;0.9525;
1153.5000;0.2532;0.9501;
1153.8000;0.2523;0.9501;
1154.1000;0.2499;0.9378;
1154.4000;0.2507;0.9329;
1154.7000;0.2515;0.9329;
1155.0000;0.2507;0.9353;
1155.3000;0.2515;0.9353;
1155.6000;0.2523;0.9329;
1155.9000;0.2532;0.9329;
1156.2000;0.2532;0.9378;
1156.5000;0.2540;0.9329;
1156.8000;0.2515;0.9329;
1157.1000;0.2458;0.9255;
1157.4000;0.2515;0.9427;
1157.7000;0.2540;0.9378;
1158.0000;0.2564;0.9402;
1158.3000;0.2515;0.9353;
1158.6000;0.2523;0.9402;
1158.9000;0.2523;0.9476;
1159.2000;0.2499;0.9501;
1159.5000;0.2499;0.9501;
1159.8000;0.2491;0.9427;
1160.1000;0.2515;0.9378;
1160.4000;0.2507;0.9353;
1160.7000;0.2483;0.9329;
1161.0000;0.2515;0.9402;
1161.3000;0.2515;0.9427;
1161.6000;0.2499;0.9329;
1161.9000;0.2507;0.9304;
1162.2000;0.2499;0.9329;
1162.5000;0.2499;0.9353;
1162.8000;0.2483;0.9427;
1163.1000;0.2507;0.9574;
1163.4000;0.2491;0.9550;
1163.7000;0.2507;0.9550;
1164.0000;0.2515;0.9525;
1164.3000;0.2475;0.9353;
1164.6000;0.2499;0.9378;
1164.9000;0.2491;0.9329;
1165.2000;0.2532;0.9402;
1165.5000;0.2532;0.9378;
1165.8000;0.2499;0.9402;
1166.1000;0.2507;0.9378;
1166.4000;0.2507;0.9476;
1166.7000;0.2507;0.9452;
1167.0000;0.2499;0.9402;
1167.3000;0.2515;0.9476;
1167.6000;0.2499;0.9574;
1167.9000;0.2466;0.9476;
1168.2000;0.2523;0.9599;
1168.5000;0.2507;0.9501;
1168.8000;0.2523;0.9672;
1169.1000;0.2499;0.9672;
1169.4000;0.2491;0.9599;
1169.7000;0.2450;0.9501;
1170.0000;0.2540;0.9746;
1170.3000;0.2515;0.9550;
1170.6000;0.2523;0.9525;
1170.9000;0.2507;0.9525;
1171.2000;0.2523;0.9599;
1171.5000;0.2523;0.9574;
1171.8000;0.2507;0.9574;
1172.1000;0.2507;0.9623;
1172.4000;0.2515;0.9501;
1172.7000;0.2507;0.9452;
1173.0000;0.2515;0.9525;
1173.3000;0.2532;0.9525;
1173.6000;0.2523;0.9550;
1173.9000;0.2507;0.9452;
1174.2000;0.2515;0.9525;
1174.5000;0.2523;0.9452;
1174.8000;0.2491;0.9353;
1175.1000;0.2475;0.9304;
1175.4000;0.2515;0.9501;
1175.7000;0.2507;0.9476;
1176.0000;0.2491;0.9476;
1176.3000;0.2442;0.9255;
1176.6000;0.2523;0.9452;
1176.9000;0.2507;0.9353;
1177.2000;0.2507;0.9353;
1177.5000;0.2499;0.9329;
1177.8000;0.2515;0.9427;
1178.1000;0.2499;0.9378;
1178.4000;0.2507;0.9378;
1178.7000;0.2523;0.9353;
1179.0000;0.2515;0.9427;
1179.3000;0.2507;0.9476;
1179.6000;0.2548;0.9574;
1179.9000;0.2507;0.9550;
1180.2000;0.2532;0.9623;
1180.5000;0.2515;0.9574;
1180.8000;0.2491;0.9525;
1181.1000;0.2491;0.9501;
1181.4000;0.2507;0.9476;
1181.7000;0.2426;0.9255;
1182.0000;0.2532;0.9574;
1182.3000;0.2515;0.9525;
1182.6000;0.2507;0.9574;
1182.9000;0.2515;0.9574;
1183.2000;0.2499;0.9427;
1183.5000;0.2507;0.9427;
1183.8000;0.2507;0.9353;
1184.1000;0.2515;0.9427;
1184.4000;0.2515;0.9427;
1184.7000;0.2523;0.9378;
1185.0000;0.2515;0.9329;
1185.3000;0.2515;0.9427;
1185.6000;0.2507;0.9427;
1185.9000;0.2507;0.9353;
1186.2000;0.2515;0.9402;
1186.5000;0.2499;0.9378;
1186.8000;0.2507;0.9280;
1187.1000;0.2523;0.9329;
1187.4000;0.2532;0.9427;
1187.7000;0.2499;0.9353;
1188.0000;0.2491;0.9353;
1188.3000;0.2507;0.9452;
1188.6000;0.2507;0.9476;
1188.9000;0.2540;0.9476;
1189.2000;0.2491;0.9329;
1189.5000;0.2515;0.9476;
1189.8000;0.2540;0.9476;
1190.1000;0.2507;0.9353;
1190.4000;0.2532;0.9476;
1190.7000;0.2548;0.9501;
1191.0000;0.2515;0.9476;
1191.3000;0.2532;0.9525;
1191.6000;0.2523;0.9476;
1191.9000;0.2483;0.9378;
1192.2000;0.2507;0.9452;
1192.5000;0.2483;0.9378;
1192.8000;0.2580;0.9746;
1193.1000;0.2466;0.9476;
1193.4000;0.2507;0.9697;
1193.7000;0.2499;0.9574;
1194.0000;0.2450;0.9255;
1194.3000;0.2499;0.9402;
1194.6000;0.2491;0.9427;
1194.9000;0.2491;0.9378;
1195.2000;0.2515;0.9427;
1195.5000;0.2507;0.9329;
1195.8000;0.2532;0.9476;
1196.1000;0.2532;0.9525;
1196.4000;0.2507;0.9402;
1196.7000;0.2523;0.9476;
1197.0000;0.2515;0.9574;
1197.3000;0.2572;0.9746;
1197.6000;0.2507;0.9550;
1197.9000;0.2515;0.9525;
1198.2000;0.2499;0.9378;
1198.5000;0.2515;0.9427;
1198.8000;0.2515;0.9501;
1199.1000;0.2523;0.9525;
1199.4000;0.2540;0.9550;
1199.7000;0.2499;0.9452;
1200.0000;0.2523;0.9525;
1200.3000;0.2523;0.9378;
1200.6000;0.2523;0.9304;
1200.9000;0.2548;0.9304;
1201.2000;0.2532;0.9329;
1201.5000;0.2507;0.9378;
1201.8000;0.2507;0.9402;
1202.1000;0.2515;0.9525;
1202.4000;0.2507;0.9525;
1202.7000;0.2491;0.9550;
1203.0000;0.2515;0.9697;
1203.3000;0.2515;0.9697;
1203.6000;0.2499;0.9722;
1203.9000;0.2515;0.9746;
1204.2000;0.2491;0.9623;
1204.5000;0.2515;0.9623;
1204.8000;0.2499;0.9574;
1205.1000;0.2515;0.9525;
1205.4000;0.2523;0.9550;
1205.7000;0.2483;0.9452;
1206.0000;0.2523;0.9550;
1206.3000;0.2442;0.9378;
1206.6000;0.2499;0.9402;
1206.9000;0.2523;0.9550;
1207.2000;0.2589;0.9746;
1207.5000;0.2523;0.9452;
1207.8000;0.2515;0.9501;
1208.1000;0.2523;0.9452;
1208.4000;0.2515;0.9476;
1208.7000;0.2532;0.9574;
1209.0000;0.2491;0.9452;
1209.3000;0.2523;0.9550;
1209.6000;0.2523;0.9574;
1209.9000;0.2532;0.9501;
1210.2000;0.2523;0.9476;
1210.5000;0.2499;0.9402;
1210.8000;0.2515;0.9329;
1211.1000;0.2515;0.9353;
1211.4000;0.2515;0.9402;
1211.7000;0.2507;0.9402;
1212.0000;0.2507;0.9402;
1212.3000;0.2515;0.9452;
1212.6000;0.2548;0.9574;
1212.9000;0.2499;0.9501;
1213.2000;0.2499;0.9574;
1213.5000;0.2548;0.9672;
1213.8000;0.2507;0.9697;
1214.1000;0.2507;0.9574;
1214.4000;0.2523;0.9550;
1214.7000;0.2515;0.9476;
1215.0000;0.2515;0.9427;
1215.3000;0.2499;0.9427;
1215.6000;0.2515;0.9501;
1215.9000;0.2532;0.9550;
1216.2000;0.2548;0.9574;
1216.5000;0.2499;0.9525;
1216.8000;0.2499;0.9501;
1217.1000;0.2507;0.9525;
1217.4000;0.2523;0.9525;
1217.7000;0.2507;0.9427;
1218.0000;0.2507;0.9402;
1218.3000;0.2499;0.9304;
1218.6000;0.2515;0.9304;
1218.9000;0.2475;0.9304;
1219.2000;0.2491;0.9427;
1219.5000;0.2507;0.9476;
1219.8000;0.2507;0.9476;
1220.1000;0.2580;0.9672;
1220.4000;0.2491;0.9501;
1220.7000;0.2499;0.9525;
1221.0000;0.2515;0.9550;
1221.3000;0.2572;0.9722;
1221.6000;0.2499;0.9452;
1221.9000;0.2507;0.9476;
1222.2000;0.2523;0.9599;
1222.5000;0.2491;0.9574;
1222.8000;0.2523;0.9623;
1223.1000;0.2613;0.9844;
1223.4000;0.2515;0.9623;
1223.7000;0.2483;0.9525;
1224.0000;0.2499;0.9574;
1224.3000;0.2499;0.9599;
1224.6000;0.2491;0.9501;
1224.9000;0.2450;0.9329;
1225.2000;0.2499;0.9402;
1225.5000;0.2507;0.9476;
1225.8000;0.2507;0.9550;
1226.1000;0.2548;0.9746;
1226.4000;0.2458;0.9574;
1226.7000;0.2418;0.9402;
1227.0000;0.2499;0.9574;
1227.3000;0.2532;0.9648;
1227.6000;0.2507;0.9574;
1227.9000;0.2483;0.9599;
1228.2000;0.2540;0.9722;
1228.5000;0.2515;0.9672;
1228.8000;0.2507;0.9550;
1229.1000;0.2507;0.9599;
1229.4000;0.2540;0.9648;
1229.7000;0.2515;0.9648;
1230.0000;0.2507;0.9795;
1230.3000;0.2458;0.9550;
1230.6000;0.2499;0.9722;
1230.9000;0.2515;0.9697;
1231.2000;0.2515;0.9672;
1231.5000;0.2515;0.9599;
1231.8000;0.2491;0.9550;
1232.1000;0.2499;0.9525;
1232.4000;0.2515;0.9599;
1232.7000;0.2466;0.9427;
1233.0000;0.2523;0.9452;
1233.3000;0.2523;0.9452;
1233.6000;0.2523;0.9402;
1233.9000;0.2499;0.9329;
1234.2000;0.2507;0.9329;
1234.5000;0.2507;0.9329;
1234.8000;0.2515;0.9476;
1235.1000;0.2523;0.9623;
1235.4000;0.2499;0.9599;
1235.7000;0.2499;0.9623;
1236.0000;0.2507;0.9550;
1236.3000;0.2499;0.9525;
1236.6000;0.2507;0.9623;
1236.9000;0.2515;0.9599;
1237.2000;0.2523;0.9722;
1237.5000;0.2507;0.9648;
1237.8000;0.2540;0.9722;
1238.1000;0.2523;0.9746;
1238.4000;0.2532;0.9771;
1238.7000;0.2507;0.9697;
1239.0000;0.2515;0.9771;
1239.3000;0.2515;0.9672;
1239.6000;0.2499;0.9648;
1239.9000;0.2507;0.9722;
1240.2000;0.2499;0.9771;
1240.5000;0.2540;0.9746;
1240.8000;0.2507;0.9771;
1241.1000;0.2483;0.9672;
1241.4000;0.2523;0.9746;
1241.7000;0.2515;0.9722;
1242.0000;0.2418;0.9378;
1242.3000;0.2499;0.9623;
1242.6000;0.2491;0.9746;
1242.9000;0.2491;0.9722;
1243.2000;0.2491;0.9820;
1243.5000;0.2515;0.9844;
1243.8000;0.2515;0.9893;
1244.1000;0.2507;0.9771;
1244.4000;0.2540;0.9795;
1244.7000;0.2507;0.9672;
1245.0000;0.2548;0.9722;
1245.3000;0.2515;0.9722;
1245.6000;0.2475;0.9550;
1245.9000;0.2523;0.9672;
1246.2000;0.2458;0.9476;
1246.5000;0.2442;0.9476;
1246.8000;0.2491;0.9623;
1247.1000;0.2499;0.9697;
1247.4000;0.2507;0.9623;
1247.7000;0.2499;0.9599;
1248.0000;0.2499;0.9574;
1248.3000;0.2523;0.9574;
1248.6000;0.2515;0.9501;
1248.9000;0.2532;0.9574;
1249.2000;0.2515;0.9525;
1249.5000;0.2515;0.9550;
1249.8000;0.2515;0.9525;
1250.1000;0.2499;0.9501;
1250.4000;0.2491;0.9623;
1250.7000;0.2507;0.9795;
1251.0000;0.2507;0.9869;
1251.3000;0.2507;0.9869;
1251.6000;0.2434;0.9697;
1251.9000;0.2491;0.9795;
1252.2000;0.2499;0.9771;
1252.5000;0.2507;0.9746;
1252.8000;0.2491;0.9672;
1253.1000;0.2499;0.9574;
1253.4000;0.2523;0.9844;
1253.7000;0.2507;0.9820;
1254.0000;0.2499;0.9722;
1254.3000;0.2507;0.9672;
1254.6000;0.2491;0.9599;
1254.9000;0.2499;0.9574;
1255.2000;0.2515;0.9550;
1255.5000;0.2491;0.9476;
1255.8000;0.2507;0.9550;
1256.1000;0.2507;0.9525;
1256.4000;0.2515;0.9550;
1256.7000;0.2499;0.9476;
1257.0000;0.2499;0.9427;
1257.3000;0.2475;0.9427;
1257.6000;0.2515;0.9574;
1257.9000;0.2507;0.9501;
1258.2000;0.2515;0.9452;
1258.5000;0.2409;0.9206;
1258.8000;0.2507;0.9452;
1259.1000;0.2532;0.9574;
1259.4000;0.2499;0.9550;
1259.7000;0.2523;0.9599;
1260.0000;0.2515;0.9623;
1260.3000;0.2499;0.9623;
1260.6000;0.2507;0.9501;
1260.9000;0.2515;0.9525;
1261.2000;0.2515;0.9574;
1261.5000;0.2507;0.9599;
1261.8000;0.2515;0.9648;
1262.1000;0.2499;0.9501;
1262.4000;0.2507;0.9525;
1262.7000;0.2515;0.9648;
1263.0000;0.2507;0.9525;
1263.3000;0.2491;0.9476;
1263.6000;0.2499;0.9574;
1263.9000;0.2507;0.9525;
1264.2000;0.2507;0.9623;
1264.5000;0.2523;0.9697;
1264.8000;0.2491;0.9623;
1265.1000;0.2483;0.9574;
1265.4000;0.2483;0.9574;
1265.7000;0.2515;0.9746;
1266.0000;0.2540;0.9795;
1266.3000;0.2499;0.9771;
1266.6000;0.2483;0.9672;
1266.9000;0.2515;0.9722;
1267.2000;0.2426;0.9501;
1267.5000;0.2483;0.9672;
1267.8000;0.2491;0.9697;
1268.1000;0.2499;0.9722;
1268.4000;0.2466;0.9525;
1268.7000;0.2458;0.9427;
1269.0000;0.2515;0.9599;
1269.3000;0.2507;0.9648;
1269.6000;0.2605;0.9918;
1269.9000;0.2507;0.9722;
1270.2000;0.2499;0.9746;
1270.5000;0.2523;0.9746;
1270.8000;0.2499;0.9623;
1271.1000;0.2507;0.9623;
1271.4000;0.2507;0.9623;
1271.7000;0.2507;0.9623;
1272.0000;0.2507;0.9623;
1272.3000;0.2491;0.9672;
1272.6000;0.2491;0.9672;
1272.9000;0.2507;0.9697;
1273.2000;0.2523;0.9574;
1273.5000;0.2442;0.9402;
1273.8000;0.2507;0.9550;
1274.1000;0.2507;0.9574;
1274.4000;0.2499;0.9550;
1274.7000;0.2499;0.9525;
1275.0000;0.2491;0.9550;
1275.3000;0.2515;0.9697;
1275.6000;0.2540;0.9795;
1275.9000;0.2507;0.9648;
1276.2000;0.2491;0.9599;
1276.5000;0.2499;0.9599;
1276.8000;0.2491;0.9550;
1277.1000;0.2523;0.9623;
1277.4000;0.2523;0.9697;
1277.7000;0.2491;0.9623;
1278.0000;0.2523;0.9574;
1278.3000;0.2515;0.9501;
1278.6000;0.2499;0.9476;
1278.9000;0.2507;0.9525;
1279.2000;0.2515;0.9452;
1279.5000;0.2523;0.9501;
1279.8000;0.2507;0.9501;
1280.1000;0.2499;0.9574;
1280.4000;0.2507;0.9697;
1280.7000;0.2515;0.9771;
1281.0000;0.2491;0.9722;
1281.3000;0.2491;0.9623;
1281.6000;0.2515;0.9623;
1281.9000;0.2540;0.9672;
1282.2000;0.2507;0.9501;
1282.5000;0.2515;0.9550;
1282.8000;0.2515;0.9550;
1283.1000;0.2499;0.9476;
1283.4000;0.2515;0.9476;
1283.7000;0.2499;0.9427;
1284.0000;0.2515;0.9452;
1284.3000;0.2499;0.9452;
1284.6000;0.2523;0.9550;
1284.9000;0.2475;0.9452;
1285.2000;0.2515;0.9574;
1285.5000;0.2499;0.9550;
1285.8000;0.2523;0.9501;
1286.1000;0.2499;0.9402;
1286.4000;0.2507;0.9501;
1286.7000;0.2475;0.9452;
1287.0000;0.2483;0.9452;
1287.3000;0.2540;0.9623;
1287.6000;0.2507;0.9550;
1287.9000;0.2483;0.9525;
1288.2000;0.2466;0.9525;
1288.5000;0.2499;0.9722;
1288.8000;0.2507;0.9697;
1289.1000;0.2499;0.9697;
1289.4000;0.2499;0.9648;
1289.7000;0.2466;0.9574;
1290.0000;0.2507;0.9672;
1290.3000;0.2491;0.9599;
1290.6000;0.2523;0.9746;
1290.9000;0.2499;0.9672;
1291.2000;0.2499;0.9697;
1291.5000;0.2507;0.9648;
1291.8000;0.2515;0.9648;
1292.1000;0.2499;0.9623;
1292.4000;0.2532;0.9672;
1292.7000;0.2507;0.9623;
1293.0000;0.2499;0.9648;
1293.3000;0.2499;0.9672;
1293.6000;0.2515;0.9550;
1293.9000;0.2499;0.9574;
1294.2000;0.2499;0.9574;
1294.5000;0.2499;0.9599;
1294.8000;0.2483;0.9574;
1295.1000;0.2507;0.9599;
1295.4000;0.2491;0.9550;
1295.7000;0.2483;0.9525;
1296.0000;0.2491;0.9574;
1296.3000;0.2507;0.9697;
1296.6000;0.2499;0.9648;
1296.9000;0.2523;0.9722;
1297.2000;0.2523;0.9722;
1297.5000;0.2523;0.9722;
1297.8000;0.2507;0.9623;
1298.1000;0.2499;0.9599;
1298.4000;0.2499;0.9550;
1298.7000;0.2523;0.9648;
1299.0000;0.2515;0.9525;
1299.3000;0.2523;0.9525;
1299.6000;0.2532;0.9574;
1299.9000;0.2491;0.9452;
1300.2000;0.2507;0.9378;
1300.5000;0.2507;0.9329;
1300.8000;0.2499;0.9402;
1301.1000;0.2507;0.9501;
1301.4000;0.2556;0.9525;
1301.7000;0.2499;0.9353;
1302.0000;0.2466;0.9304;
1302.3000;0.2491;0.9329;
1302.6000;0.2507;0.9304;
1302.9000;0.2515;0.9280;
1303.2000;0.2442;0.9157;
1303.5000;0.2523;0.9476;
1303.8000;0.2532;0.9525;
1304.1000;0.2491;0.9452;
1304.4000;0.2523;0.9550;
1304.7000;0.2523;0.9574;
1305.0000;0.2507;0.9476;
1305.3000;0.2507;0.9476;
1305.6000;0.2483;0.9476;
1305.9000;0.2507;0.9476;
1306.2000;0.2523;0.9427;
1306.5000;0.2491;0.9329;
1306.8000;0.2499;0.9402;
1307.1000;0.2507;0.9427;
1307.4000;0.2515;0.9329;
1307.7000;0.2564;0.9452;
1308.0000;0.2483;0.9280;
1308.3000;0.2515;0.9353;
1308.6000;0.2507;0.9329;
1308.9000;0.2491;0.9280;
1309.2000;0.2515;0.9304;
1309.5000;0.2442;0.9157;
1309.8000;0.2515;0.9427;
1310.1000;0.2491;0.9304;
1310.4000;0.2507;0.9280;
1310.7000;0.2515;0.9206;
1311.0000;0.2572;0.9329;
1311.3000;0.2491;0.9132;
1311.6000;0.2499;0.9231;
1311.9000;0.2491;0.9206;
1312.2000;0.2499;0.9255;
1312.5000;0.2523;0.9353;
1312.8000;0.2507;0.9402;
1313.1000;0.2507;0.9452;
1313.4000;0.2515;0.9550;
1313.7000;0.2515;0.9525;
1314.0000;0.2499;0.9427;
1314.3000;0.2515;0.9476;
1314.6000;0.2483;0.9525;
1314.9000;0.2515;0.9574;
1315.2000;0.2491;0.9427;
1315.5000;0.2491;0.9353;
1315.8000;0.2450;0.9280;
1316.1000;0.2515;0.9402;
1316.4000;0.2515;0.9329;
1316.7000;0.2515;0.9329;
1317.0000;0.2515;0.9304;
1317.3000;0.2540;0.9255;
1317.6000;0.2499;0.9132;
1317.9000;0.2491;0.9059;
1318.2000;0.2491;0.9132;
1318.5000;0.2523;0.9255;
1318.8000;0.2507;0.9280;
1319.1000;0.2499;0.9231;
1319.4000;0.2491;0.9182;
1319.7000;0.2515;0.9329;
1320.0000;0.2507;0.9378;
1320.3000;0.2548;0.9574;
1320.6000;0.2532;0.9574;
1320.9000;0.2523;0.9574;
1321.2000;0.2564;0.9672;
1321.5000;0.2507;0.9574;
1321.8000;0.2523;0.9525;
1322.1000;0.2507;0.9550;
1322.4000;0.2572;0.9722;
1322.7000;0.2515;0.9525;
1323.0000;0.2491;0.9452;
1323.3000;0.2515;0.9501;
1323.6000;0.2475;0.9402;
1323.9000;0.2507;0.9550;
1324.2000;0.2458;0.9476;
1324.5000;0.2499;0.9623;
1324.8000;0.2499;0.9525;
1325.1000;0.2491;0.9501;
1325.4000;0.2548;0.9476;
1325.7000;0.2523;0.9452;
1326.0000;0.2515;0.9427;
1326.3000;0.2532;0.9452;
1326.6000;0.2515;0.9525;
1326.9000;0.2499;0.9501;
1327.2000;0.2507;0.9623;
1327.5000;0.2507;0.9623;
1327.8000;0.2491;0.9623;
1328.1000;0.2515;0.9672;
1328.4000;0.2499;0.9452;
1328.7000;0.2515;0.9476;
1329.0000;0.2499;0.9501;
1329.3000;0.2491;0.9402;
1329.6000;0.2491;0.9402;
1329.9000;0.2483;0.9427;
1330.2000;0.2483;0.9476;
1330.5000;0.2499;0.9452;
1330.8000;0.2475;0.9402;
1331.1000;0.2523;0.9501;
1331.4000;0.2507;0.9402;
1331.7000;0.2507;0.9427;
1332.0000;0.2507;0.9452;
1332.3000;0.2491;0.9452;
1332.6000;0.2499;0.9574;
1332.9000;0.2515;0.9648;
1333.2000;0.2515;0.9648;
1333.5000;0.2418;0.9402;
1333.8000;0.2507;0.9525;
1334.1000;0.2491;0.9427;
1334.4000;0.2499;0.9476;
1334.7000;0.2532;0.9501;
1335.0000;0.2540;0.9525;
1335.3000;0.2507;0.9378;
1335.6000;0.2523;0.9427;
1335.9000;0.2515;0.9353;
1336.2000;0.2491;0.9353;
1336.5000;0.2523;0.9427;
1336.8000;0.2483;0.9329;
1337.1000;0.2499;0.9525;
1337.4000;0.2491;0.9525;
1337.7000;0.2515;0.9550;
1338.0000;0.2515;0.9550;
1338.3000;0.2572;0.9623;
1338.6000;0.2499;0.9402;
1338.9000;0.2515;0.9427;
1339.2000;0.2515;0.9476;
1339.5000;0.2475;0.9476;
1339.8000;0.2515;0.9550;
1340.1000;0.2515;0.9501;
1340.4000;0.2523;0.9402;
1340.7000;0.2475;0.9353;
1341.0000;0.2515;0.9378;
1341.3000;0.2491;0.9329;
1341.6000;0.2523;0.9378;
1341.9000;0.2507;0.9378;
1342.2000;0.2507;0.9353;
1342.5000;0.2418;0.9132;
1342.8000;0.2466;0.9304;
1343.1000;0.2507;0.9427;
1343.4000;0.2491;0.9476;
1343.7000;0.2491;0.9452;
1344.0000;0.2499;0.9501;
1344.3000;0.2499;0.9427;
1344.6000;0.2507;0.9427;
1344.9000;0.2507;0.9452;
1345.2000;0.2515;0.9501;
1345.5000;0.2515;0.9427;
1345.8000;0.2507;0.9402;
1346.1000;0.2491;0.9378;
1346.4000;0.2515;0.9452;
1346.7000;0.2523;0.9525;
1347.0000;0.2507;0.9427;
1347.3000;0.2507;0.9402;
1347.6000;0.2515;0.9501;
1347.9000;0.2523;0.9476;
1348.2000;0.2499;0.9280;
1348.5000;0.2507;0.9353;
1348.8000;0.2507;0.9452;
1349.1000;0.2515;0.9550;
1349.4000;0.2499;0.9427;
1349.7000;0.2507;0.9525;
1350.0000;0.2532;0.9550;
1350.3000;0.2523;0.9501;
1350.6000;0.2523;0.9476;
1350.9000;0.2523;0.9452;
1351.2000;0.2507;0.9525;
1351.5000;0.2499;0.9501;
1351.8000;0.2515;0.9525;
1352.1000;0.2507;0.9476;
1352.4000;0.2515;0.9501;
1352.7000;0.2515;0.9476;
1353.0000;0.2515;0.9501;
1353.3000;0.2499;0.9550;
1353.6000;0.2491;0.9550;
1353.9000;0.2491;0.9501;
1354.2000;0.2499;0.9402;
1354.5000;0.2523;0.9427;
1354.8000;0.2507;0.9476;
1355.1000;0.2483;0.9452;
1355.4000;0.2507;0.9501;
1355.7000;0.2491;0.9476;
1356.0000;0.2515;0.9525;
1356.3000;0.2491;0.9550;
1356.6000;0.2507;0.9599;
1356.9000;0.2507;0.9574;
1357.2000;0.2597;0.9943;
1357.5000;0.2532;0.9795;
1357.8000;0.2507;0.9722;
1358.1000;0.2499;0.9697;
1358.4000;0.2499;0.9672;
1358.7000;0.2564;0.9771;
1359.0000;0.2483;0.9672;
1359.3000;0.2515;0.9771;
1359.6000;0.2580;0.9918;
1359.9000;0.2499;0.9648;
1360.2000;0.2540;0.9722;
1360.5000;0.2523;0.9672;
1360.8000;0.2507;0.9722;
1361.1000;0.2475;0.9648;
1361.4000;0.2507;0.9722;
1361.7000;0.2499;0.9574;
1362.0000;0.2515;0.9599;
1362.3000;0.2532;0.9697;
1362.6000;0.2523;0.9820;
1362.9000;0.2515;0.9820;
1363.2000;0.2515;0.9820;
1363.5000;0.2483;0.9648;
1363.8000;0.2499;0.9574;
1364.1000;0.2507;0.9525;
1364.4000;0.2532;0.9501;
1364.7000;0.2483;0.9280;
1365.0000;0.2499;0.9304;
1365.3000;0.2491;0.9378;
1365.6000;0.2499;0.9402;
1365.9000;0.2532;0.9476;
1366.2000;0.2499;0.9427;
1366.5000;0.2450;0.9280;
1366.8000;0.2515;0.9452;
1367.1000;0.2491;0.9402;
1367.4000;0.2507;0.9525;
1367.7000;0.2523;0.9574;
1368.0000;0.2507;0.9550;
1368.3000;0.2483;0.9476;
1368.6000;0.2483;0.9476;
1368.9000;0.2475;0.9427;
1369.2000;0.2499;0.9452;
1369.5000;0.2499;0.9452;
1369.8000;0.2515;0.9476;
1370.1000;0.2515;0.9476;
1370.4000;0.2475;0.9476;
1370.7000;0.2515;0.9525;
1371.0000;0.2507;0.9476;
1371.3000;0.2458;0.9402;
1371.6000;0.2507;0.9525;
1371.9000;0.2483;0.9476;
1372.2000;0.2523;0.9623;
1372.5000;0.2491;0.9599;
1372.8000;0.2507;0.9623;
1373.1000;0.2491;0.9574;
1373.4000;0.2507;0.9525;
1373.7000;0.2491;0.9476;
1374.0000;0.2483;0.9476;
1374.3000;0.2483;0.9476;
1374.6000;0.2507;0.9501;
1374.9000;0.2507;0.9525;
1375.2000;0.2491;0.9550;
1375.5000;0.2515;0.9574;
1375.8000;0.2442;0.9427;
1376.1000;0.2491;0.9525;
1376.4000;0.2515;0.9574;
1376.7000;0.2475;0.9427;
1377.0000;0.2499;0.9476;
1377.3000;0.2515;0.9476;
1377.6000;0.2507;0.9378;
1377.9000;0.2540;0.9525;
1378.2000;0.2515;0.9501;
1378.5000;0.2475;0.9427;
1378.8000;0.2515;0.9550;
1379.1000;0.2491;0.9525;
1379.4000;0.2499;0.9550;
1379.7000;0.2515;0.9599;
1380.0000;0.2458;0.9452;
1380.3000;0.2515;0.9574;
1380.6000;0.2556;0.9771;
1380.9000;0.2507;0.9722;
1381.2000;0.2483;0.9672;
1381.5000;0.2507;0.9599;
1381.8000;0.2507;0.9623;
1382.1000;0.2515;0.9599;
1382.4000;0.2515;0.9623;
1382.7000;0.2515;0.9599;
1383.0000;0.2515;0.9574;
1383.3000;0.2515;0.9550;
1383.6000;0.2507;0.9550;
1383.9000;0.2507;0.9501;
1384.2000;0.2515;0.9550;
1384.5000;0.2540;0.9623;
1384.8000;0.2466;0.9550;
1385.1000;0.2491;0.9574;
1385.4000;0.2483;0.9574;
1385.7000;0.2499;0.9623;
1386.0000;0.2491;0.9648;
1386.3000;0.2499;0.9672;
1386.6000;0.2515;0.9672;
1386.9000;0.2515;0.9697;
1387.2000;0.2507;0.9722;
1387.5000;0.2515;0.9599;
1387.8000;0.2483;0.9574;
1388.1000;0.2475;0.9550;
1388.4000;0.2515;0.9574;
1388.7000;0.2483;0.9574;
1389.0000;0.2491;0.9623;
1389.3000;0.2483;0.9623;
1389.6000;0.2491;0.9722;
1389.9000;0.2483;0.9722;
1390.2000;0.2491;0.9795;
1390.5000;0.2491;0.9795;
1390.8000;0.2499;0.9771;
1391.1000;0.2515;0.9771;
1391.4000;0.2523;0.9697;
1391.7000;0.2483;0.9525;
1392.0000;0.2515;0.9697;
1392.3000;0.2491;0.9623;
1392.6000;0.2515;0.9672;
1392.9000;0.2491;0.9550;
1393.2000;0.2580;0.9746;
1393.5000;0.2507;0.9623;
1393.8000;0.2507;0.9672;
1394.1000;0.2466;0.9501;
1394.4000;0.2499;0.9599;
1394.7000;0.2507;0.9574;
1395.0000;0.2515;0.9574;
1395.3000;0.2499;0.9574;
1395.6000;0.2499;0.9476;
1395.9000;0.2515;0.9452;
1396.2000;0.2499;0.9402;
1396.5000;0.2507;0.9427;
1396.8000;0.2466;0.9378;
1397.1000;0.2507;0.9452;
1397.4000;0.2507;0.9501;
1397.7000;0.2507;0.9525;
1398.0000;0.2540;0.9574;
1398.3000;0.2515;0.9574;
1398.6000;0.2515;0.9599;
1398.9000;0.2434;0.9402;
1399.2000;0.2483;0.9550;
1399.5000;0.2507;0.9623;
1399.8000;0.2548;0.9722;
