time/ms;Fluo/V;P700 deltaI/I x10³;
-199.8000;0.4387;1.2681;
-199.5000;0.4387;1.2563;
-199.2000;0.4387;1.2586;
-198.9000;0.4387;1.2657;
-198.6000;0.4412;1.2634;
-198.3000;0.4387;1.2539;
-198.0000;0.4387;1.2539;
-197.7000;0.4404;1.2492;
-197.4000;0.4428;1.2634;
-197.1000;0.4379;1.2586;
-196.8000;0.4404;1.2634;
-196.5000;0.4379;1.2610;
-196.2000;0.4404;1.2704;
-195.9000;0.4428;1.2728;
-195.6000;0.4412;1.2704;
-195.3000;0.4387;1.2657;
-195.0000;0.4412;1.2657;
-194.7000;0.4404;1.2634;
-194.4000;0.4396;1.2469;
-194.1000;0.4404;1.2539;
-193.8000;0.4412;1.2610;
-193.5000;0.4387;1.2586;
-193.2000;0.4404;1.2681;
-192.9000;0.4396;1.2751;
-192.6000;0.4396;1.2634;
-192.3000;0.4387;1.2563;
-192.0000;0.4428;1.2657;
-191.7000;0.4396;1.2634;
-191.4000;0.4420;1.2728;
-191.1000;0.4387;1.2634;
-190.8000;0.4436;1.2751;
-190.5000;0.4444;1.2798;
-190.2000;0.4371;1.2751;
-189.9000;0.4420;1.2845;
-189.6000;0.4387;1.2822;
-189.3000;0.4444;1.2845;
-189.0000;0.4379;1.2704;
-188.7000;0.4396;1.2704;
-188.4000;0.4477;1.2869;
-188.1000;0.4396;1.2610;
-187.8000;0.4396;1.2657;
-187.5000;0.4371;1.2657;
-187.2000;0.4444;1.2798;
-186.9000;0.4404;1.2751;
-186.6000;0.4379;1.2681;
-186.3000;0.4387;1.2657;
-186.0000;0.4412;1.2704;
-185.7000;0.4396;1.2610;
-185.4000;0.4387;1.2657;
-185.1000;0.4396;1.2681;
-184.8000;0.4412;1.2751;
-184.5000;0.4387;1.2728;
-184.2000;0.4355;1.2728;
-183.9000;0.4404;1.2775;
-183.6000;0.4396;1.2728;
-183.3000;0.4420;1.2728;
-183.0000;0.4387;1.2681;
-182.7000;0.4387;1.2634;
-182.4000;0.4412;1.2586;
-182.1000;0.4387;1.2422;
-181.8000;0.4412;1.2563;
-181.5000;0.4387;1.2681;
-181.2000;0.4363;1.2704;
-180.9000;0.4412;1.2775;
-180.6000;0.4444;1.2845;
-180.3000;0.4379;1.2610;
-180.0000;0.4396;1.2704;
-179.7000;0.4371;1.2681;
-179.4000;0.4428;1.2822;
-179.1000;0.4404;1.2728;
-178.8000;0.4347;1.2586;
-178.5000;0.4396;1.2610;
-178.2000;0.4396;1.2657;
-177.9000;0.4396;1.2681;
-177.6000;0.4379;1.2704;
-177.3000;0.4339;1.2563;
-177.0000;0.4396;1.2775;
-176.7000;0.4396;1.2775;
-176.4000;0.4542;1.3175;
-176.1000;0.4444;1.2869;
-175.8000;0.4379;1.2681;
-175.5000;0.4379;1.2634;
-175.2000;0.4363;1.2539;
-174.9000;0.4371;1.2634;
-174.6000;0.4396;1.2657;
-174.3000;0.4363;1.2563;
-174.0000;0.4396;1.2657;
-173.7000;0.4396;1.2610;
-173.4000;0.4428;1.2751;
-173.1000;0.4412;1.2798;
-172.8000;0.4412;1.2751;
-172.5000;0.4404;1.2728;
-172.2000;0.4412;1.2681;
-171.9000;0.4412;1.2681;
-171.6000;0.4314;1.2445;
-171.3000;0.4355;1.2516;
-171.0000;0.4396;1.2563;
-170.7000;0.4453;1.2681;
-170.4000;0.4404;1.2634;
-170.1000;0.4379;1.2563;
-169.8000;0.4347;1.2469;
-169.5000;0.4396;1.2610;
-169.2000;0.4379;1.2492;
-168.9000;0.4396;1.2539;
-168.6000;0.4339;1.2398;
-168.3000;0.4355;1.2516;
-168.0000;0.4428;1.2728;
-167.7000;0.4387;1.2563;
-167.4000;0.4387;1.2586;
-167.1000;0.4412;1.2657;
-166.8000;0.4387;1.2634;
-166.5000;0.4396;1.2704;
-166.2000;0.4420;1.2728;
-165.9000;0.4387;1.2563;
-165.6000;0.4396;1.2492;
-165.3000;0.4396;1.2563;
-165.0000;0.4404;1.2586;
-164.7000;0.4322;1.2351;
-164.4000;0.4347;1.2539;
-164.1000;0.4404;1.2681;
-163.8000;0.4363;1.2634;
-163.5000;0.4404;1.2798;
-163.2000;0.4396;1.2892;
-162.9000;0.4387;1.2822;
-162.6000;0.4387;1.2775;
-162.3000;0.4412;1.2798;
-162.0000;0.4412;1.2775;
-161.7000;0.4412;1.2704;
-161.4000;0.4404;1.2704;
-161.1000;0.4404;1.2751;
-160.8000;0.4404;1.2728;
-160.5000;0.4371;1.2657;
-160.2000;0.4371;1.2586;
-159.9000;0.4404;1.2704;
-159.6000;0.4379;1.2681;
-159.3000;0.4412;1.2728;
-159.0000;0.4420;1.2751;
-158.7000;0.4347;1.2610;
-158.4000;0.4404;1.2704;
-158.1000;0.4412;1.2681;
-157.8000;0.4404;1.2634;
-157.5000;0.4420;1.2657;
-157.2000;0.4404;1.2657;
-156.9000;0.4387;1.2563;
-156.6000;0.4420;1.2704;
-156.3000;0.4412;1.2657;
-156.0000;0.4404;1.2610;
-155.7000;0.4396;1.2704;
-155.4000;0.4396;1.2681;
-155.1000;0.4396;1.2657;
-154.8000;0.4412;1.2751;
-154.5000;0.4330;1.2634;
-154.2000;0.4387;1.2728;
-153.9000;0.4396;1.2775;
-153.6000;0.4510;1.3010;
-153.3000;0.4436;1.2775;
-153.0000;0.4387;1.2610;
-152.7000;0.4355;1.2563;
-152.4000;0.4371;1.2539;
-152.1000;0.4387;1.2492;
-151.8000;0.4371;1.2563;
-151.5000;0.4379;1.2681;
-151.2000;0.4387;1.2681;
-150.9000;0.4387;1.2681;
-150.6000;0.4404;1.2798;
-150.3000;0.4396;1.2728;
-150.0000;0.4396;1.2704;
-149.7000;0.4412;1.2775;
-149.4000;0.4396;1.2728;
-149.1000;0.4428;1.2704;
-148.8000;0.4453;1.2892;
-148.5000;0.4404;1.2751;
-148.2000;0.4396;1.2751;
-147.9000;0.4396;1.2728;
-147.6000;0.4387;1.2681;
-147.3000;0.4396;1.2657;
-147.0000;0.4404;1.2657;
-146.7000;0.4404;1.2657;
-146.4000;0.4379;1.2634;
-146.1000;0.4436;1.2751;
-145.8000;0.4396;1.2634;
-145.5000;0.4371;1.2492;
-145.2000;0.4412;1.2539;
-144.9000;0.4387;1.2610;
-144.6000;0.4396;1.2657;
-144.3000;0.4379;1.2610;
-144.0000;0.4379;1.2610;
-143.7000;0.4379;1.2586;
-143.4000;0.4412;1.2610;
-143.1000;0.4412;1.2586;
-142.8000;0.4404;1.2657;
-142.5000;0.4412;1.2775;
-142.2000;0.4379;1.2681;
-141.9000;0.4420;1.2634;
-141.6000;0.4420;1.2657;
-141.3000;0.4404;1.2704;
-141.0000;0.4412;1.2751;
-140.7000;0.4420;1.2845;
-140.4000;0.4396;1.2704;
-140.1000;0.4387;1.2563;
-139.8000;0.4387;1.2586;
-139.5000;0.4412;1.2634;
-139.2000;0.4404;1.2563;
-138.9000;0.4404;1.2516;
-138.6000;0.4396;1.2610;
-138.3000;0.4412;1.2610;
-138.0000;0.4412;1.2610;
-137.7000;0.4485;1.2845;
-137.4000;0.4428;1.2728;
-137.1000;0.4404;1.2657;
-136.8000;0.4412;1.2751;
-136.5000;0.4379;1.2563;
-136.2000;0.4396;1.2657;
-135.9000;0.4404;1.2728;
-135.6000;0.4412;1.2775;
-135.3000;0.4420;1.2704;
-135.0000;0.4412;1.2634;
-134.7000;0.4396;1.2539;
-134.4000;0.4444;1.2539;
-134.1000;0.4412;1.2398;
-133.8000;0.4396;1.2257;
-133.5000;0.4396;1.2257;
-133.2000;0.4420;1.2398;
-132.9000;0.4412;1.2351;
-132.6000;0.4453;1.2492;
-132.3000;0.4420;1.2398;
-132.0000;0.4428;1.2469;
-131.7000;0.4371;1.2469;
-131.4000;0.4501;1.2822;
-131.1000;0.4420;1.2634;
-130.8000;0.4412;1.2657;
-130.5000;0.4404;1.2586;
-130.2000;0.4420;1.2681;
-129.9000;0.4387;1.2657;
-129.6000;0.4396;1.2681;
-129.3000;0.4396;1.2657;
-129.0000;0.4387;1.2586;
-128.7000;0.4396;1.2516;
-128.4000;0.4412;1.2586;
-128.1000;0.4412;1.2634;
-127.8000;0.4387;1.2539;
-127.5000;0.4396;1.2563;
-127.2000;0.4420;1.2704;
-126.9000;0.4420;1.2704;
-126.6000;0.4420;1.2634;
-126.3000;0.4404;1.2681;
-126.0000;0.4428;1.2704;
-125.7000;0.4420;1.2681;
-125.4000;0.4404;1.2634;
-125.1000;0.4404;1.2563;
-124.8000;0.4420;1.2657;
-124.5000;0.4428;1.2586;
-124.2000;0.4387;1.2398;
-123.9000;0.4404;1.2445;
-123.6000;0.4396;1.2422;
-123.3000;0.4396;1.2422;
-123.0000;0.4396;1.2492;
-122.7000;0.4322;1.2328;
-122.4000;0.4379;1.2539;
-122.1000;0.4404;1.2634;
-121.8000;0.4404;1.2634;
-121.5000;0.4396;1.2586;
-121.2000;0.4404;1.2610;
-120.9000;0.4404;1.2751;
-120.6000;0.4412;1.2728;
-120.3000;0.4420;1.2681;
-120.0000;0.4363;1.2610;
-119.7000;0.4387;1.2657;
-119.4000;0.4371;1.2586;
-119.1000;0.4412;1.2704;
-118.8000;0.4387;1.2634;
-118.5000;0.4387;1.2563;
-118.2000;0.4428;1.2657;
-117.9000;0.4404;1.2634;
-117.6000;0.4436;1.2728;
-117.3000;0.4396;1.2704;
-117.0000;0.4404;1.2775;
-116.7000;0.4404;1.2751;
-116.4000;0.4428;1.2728;
-116.1000;0.4339;1.2516;
-115.8000;0.4404;1.2751;
-115.5000;0.4404;1.2751;
-115.2000;0.4387;1.2704;
-114.9000;0.4396;1.2657;
-114.6000;0.4526;1.2986;
-114.3000;0.4396;1.2681;
-114.0000;0.4420;1.2704;
-113.7000;0.4420;1.2728;
-113.4000;0.4404;1.2681;
-113.1000;0.4396;1.2657;
-112.8000;0.4453;1.2798;
-112.5000;0.4404;1.2681;
-112.2000;0.4420;1.2634;
-111.9000;0.4363;1.2469;
-111.6000;0.4412;1.2586;
-111.3000;0.4396;1.2657;
-111.0000;0.4396;1.2751;
-110.7000;0.4404;1.2845;
-110.4000;0.4404;1.2798;
-110.1000;0.4404;1.2798;
-109.8000;0.4396;1.2775;
-109.5000;0.4396;1.2704;
-109.2000;0.4379;1.2728;
-108.9000;0.4371;1.2704;
-108.6000;0.4396;1.2822;
-108.3000;0.4371;1.2704;
-108.0000;0.4453;1.2869;
-107.7000;0.4379;1.2775;
-107.4000;0.4396;1.2728;
-107.1000;0.4387;1.2751;
-106.8000;0.4396;1.2798;
-106.5000;0.4387;1.2704;
-106.2000;0.4371;1.2704;
-105.9000;0.4387;1.2704;
-105.6000;0.4371;1.2657;
-105.3000;0.4412;1.2657;
-105.0000;0.4379;1.2492;
-104.7000;0.4363;1.2469;
-104.4000;0.4404;1.2516;
-104.1000;0.4379;1.2469;
-103.8000;0.4396;1.2492;
-103.5000;0.4396;1.2539;
-103.2000;0.4387;1.2681;
-102.9000;0.4396;1.2728;
-102.6000;0.4396;1.2657;
-102.3000;0.4379;1.2657;
-102.0000;0.4387;1.2563;
-101.7000;0.4404;1.2610;
-101.4000;0.4404;1.2657;
-101.1000;0.4396;1.2657;
-100.8000;0.4396;1.2657;
-100.5000;0.4412;1.2704;
-100.2000;0.4461;1.2728;
-99.9000;0.4420;1.2681;
-99.6000;0.4396;1.2681;
-99.3000;0.4404;1.2657;
-99.0000;0.4387;1.2634;
-98.7000;0.4387;1.2704;
-98.4000;0.4387;1.2775;
-98.1000;0.4379;1.2798;
-97.8000;0.4404;1.2869;
-97.5000;0.4420;1.2916;
-97.2000;0.4371;1.2775;
-96.9000;0.4363;1.2728;
-96.6000;0.4420;1.2822;
-96.3000;0.4387;1.2704;
-96.0000;0.4387;1.2657;
-95.7000;0.4363;1.2610;
-95.4000;0.4412;1.2610;
-95.1000;0.4412;1.2586;
-94.8000;0.4412;1.2586;
-94.5000;0.4387;1.2586;
-94.2000;0.4387;1.2563;
-93.9000;0.4404;1.2610;
-93.6000;0.4469;1.2775;
-93.3000;0.4404;1.2657;
-93.0000;0.4404;1.2681;
-92.7000;0.4396;1.2681;
-92.4000;0.4510;1.2916;
-92.1000;0.4453;1.2798;
-91.8000;0.4347;1.2516;
-91.5000;0.4404;1.2610;
-91.2000;0.4371;1.2516;
-90.9000;0.4404;1.2586;
-90.6000;0.4412;1.2586;
-90.3000;0.4379;1.2469;
-90.0000;0.4412;1.2563;
-89.7000;0.4404;1.2563;
-89.4000;0.4379;1.2681;
-89.1000;0.4396;1.2751;
-88.8000;0.4412;1.2822;
-88.5000;0.4420;1.2845;
-88.2000;0.4396;1.2775;
-87.9000;0.4371;1.2728;
-87.6000;0.4387;1.2681;
-87.3000;0.4396;1.2657;
-87.0000;0.4404;1.2728;
-86.7000;0.4396;1.2751;
-86.4000;0.4436;1.2798;
-86.1000;0.4396;1.2775;
-85.8000;0.4453;1.2869;
-85.5000;0.4404;1.2751;
-85.2000;0.4420;1.2657;
-84.9000;0.4420;1.2586;
-84.6000;0.4404;1.2563;
-84.3000;0.4404;1.2610;
-84.0000;0.4355;1.2539;
-83.7000;0.4412;1.2681;
-83.4000;0.4420;1.2634;
-83.1000;0.4404;1.2657;
-82.8000;0.4396;1.2634;
-82.5000;0.4387;1.2610;
-82.2000;0.4396;1.2610;
-81.9000;0.4412;1.2610;
-81.6000;0.4396;1.2610;
-81.3000;0.4379;1.2610;
-81.0000;0.4396;1.2681;
-80.7000;0.4412;1.2728;
-80.4000;0.4379;1.2681;
-80.1000;0.4420;1.2610;
-79.8000;0.4428;1.2586;
-79.5000;0.4404;1.2539;
-79.2000;0.4396;1.2563;
-78.9000;0.4355;1.2445;
-78.6000;0.4387;1.2610;
-78.3000;0.4396;1.2634;
-78.0000;0.4396;1.2539;
-77.7000;0.4387;1.2634;
-77.4000;0.4412;1.2492;
-77.1000;0.4412;1.2539;
-76.8000;0.4404;1.2516;
-76.5000;0.4396;1.2563;
-76.2000;0.4282;1.2210;
-75.9000;0.4412;1.2469;
-75.6000;0.4420;1.2657;
-75.3000;0.4396;1.2681;
-75.0000;0.4412;1.2681;
-74.7000;0.4371;1.2681;
-74.4000;0.4436;1.2892;
-74.1000;0.4404;1.2822;
-73.8000;0.4428;1.2845;
-73.5000;0.4428;1.2822;
-73.2000;0.4404;1.2728;
-72.9000;0.4404;1.2704;
-72.6000;0.4387;1.2610;
-72.3000;0.4387;1.2728;
-72.0000;0.4387;1.2704;
-71.7000;0.4404;1.2751;
-71.4000;0.4404;1.2728;
-71.1000;0.4396;1.2775;
-70.8000;0.4404;1.2775;
-70.5000;0.4412;1.2681;
-70.2000;0.4404;1.2704;
-69.9000;0.4396;1.2681;
-69.6000;0.4420;1.2775;
-69.3000;0.4371;1.2681;
-69.0000;0.4396;1.2681;
-68.7000;0.4396;1.2657;
-68.4000;0.4371;1.2610;
-68.1000;0.4404;1.2681;
-67.8000;0.4420;1.2751;
-67.5000;0.4396;1.2728;
-67.2000;0.4420;1.2751;
-66.9000;0.4387;1.2563;
-66.6000;0.4396;1.2539;
-66.3000;0.4371;1.2422;
-66.0000;0.4379;1.2445;
-65.7000;0.4396;1.2469;
-65.4000;0.4404;1.2422;
-65.1000;0.4387;1.2539;
-64.8000;0.4387;1.2516;
-64.5000;0.4396;1.2516;
-64.2000;0.4379;1.2422;
-63.9000;0.4404;1.2469;
-63.6000;0.4396;1.2422;
-63.3000;0.4379;1.2398;
-63.0000;0.4404;1.2516;
-62.7000;0.4396;1.2563;
-62.4000;0.4330;1.2398;
-62.1000;0.4387;1.2516;
-61.8000;0.4404;1.2610;
-61.5000;0.4379;1.2539;
-61.2000;0.4404;1.2610;
-60.9000;0.4387;1.2610;
-60.6000;0.4387;1.2681;
-60.3000;0.4387;1.2775;
-60.0000;0.4396;1.2822;
-59.7000;0.4347;1.2704;
-59.4000;0.4363;1.2775;
-59.1000;0.4396;1.2845;
-58.8000;0.4412;1.2775;
-58.5000;0.4404;1.2634;
-58.2000;0.4396;1.2492;
-57.9000;0.4404;1.2492;
-57.6000;0.4412;1.2422;
-57.3000;0.4363;1.2398;
-57.0000;0.4387;1.2492;
-56.7000;0.4379;1.2516;
-56.4000;0.4355;1.2563;
-56.1000;0.4396;1.2634;
-55.8000;0.4387;1.2657;
-55.5000;0.4412;1.2751;
-55.2000;0.4412;1.2728;
-54.9000;0.4412;1.2704;
-54.6000;0.4404;1.2728;
-54.3000;0.4396;1.2775;
-54.0000;0.4412;1.2681;
-53.7000;0.4420;1.2728;
-53.4000;0.4444;1.2916;
-53.1000;0.4412;1.2869;
-52.8000;0.4412;1.2845;
-52.5000;0.4412;1.2916;
-52.2000;0.4404;1.2869;
-51.9000;0.4387;1.2775;
-51.6000;0.4412;1.2728;
-51.3000;0.4404;1.2681;
-51.0000;0.4339;1.2492;
-50.7000;0.4396;1.2657;
-50.4000;0.4396;1.2586;
-50.1000;0.4453;1.2775;
-49.8000;0.4444;1.2798;
-49.5000;0.4420;1.2681;
-49.2000;0.4396;1.2704;
-48.9000;0.4396;1.2681;
-48.6000;0.4453;1.2586;
-48.3000;0.4387;1.2445;
-48.0000;0.4396;1.2445;
-47.7000;0.4371;1.2422;
-47.4000;0.4396;1.2445;
-47.1000;0.4436;1.2539;
-46.8000;0.4412;1.2563;
-46.5000;0.4404;1.2610;
-46.2000;0.4412;1.2657;
-45.9000;0.4371;1.2704;
-45.6000;0.4412;1.2822;
-45.3000;0.4412;1.2775;
-45.0000;0.4461;1.2939;
-44.7000;0.4420;1.2798;
-44.4000;0.4412;1.2751;
-44.1000;0.4412;1.2704;
-43.8000;0.4371;1.2516;
-43.5000;0.4396;1.2516;
-43.2000;0.4404;1.2492;
-42.9000;0.4404;1.2469;
-42.6000;0.4420;1.2469;
-42.3000;0.4428;1.2422;
-42.0000;0.4396;1.2445;
-41.7000;0.4420;1.2539;
-41.4000;0.4404;1.2492;
-41.1000;0.4396;1.2445;
-40.8000;0.4412;1.2563;
-40.5000;0.4469;1.2775;
-40.2000;0.4387;1.2563;
-39.9000;0.4404;1.2516;
-39.6000;0.4412;1.2516;
-39.3000;0.4396;1.2469;
-39.0000;0.4412;1.2539;
-38.7000;0.4469;1.2657;
-38.4000;0.4387;1.2516;
-38.1000;0.4371;1.2586;
-37.8000;0.4387;1.2516;
-37.5000;0.4298;1.2257;
-37.2000;0.4404;1.2445;
-36.9000;0.4379;1.2281;
-36.6000;0.4396;1.2257;
-36.3000;0.4396;1.2398;
-36.0000;0.4420;1.2445;
-35.7000;0.4396;1.2469;
-35.4000;0.4404;1.2492;
-35.1000;0.4396;1.2469;
-34.8000;0.4428;1.2586;
-34.5000;0.4404;1.2610;
-34.2000;0.4420;1.2657;
-33.9000;0.4396;1.2563;
-33.6000;0.4412;1.2681;
-33.3000;0.4404;1.2610;
-33.0000;0.4396;1.2516;
-32.7000;0.4436;1.2469;
-32.4000;0.4461;1.2469;
-32.1000;0.4420;1.2328;
-31.8000;0.4436;1.2398;
-31.5000;0.4412;1.2351;
-31.2000;0.4306;1.2139;
-30.9000;0.4404;1.2469;
-30.6000;0.4396;1.2445;
-30.3000;0.4404;1.2328;
-30.0000;0.4396;1.2234;
-29.7000;0.4379;1.2257;
-29.4000;0.4404;1.2281;
-29.1000;0.4436;1.2375;
-28.8000;0.4404;1.2375;
-28.5000;0.4396;1.2422;
-28.2000;0.4396;1.2398;
-27.9000;0.4396;1.2398;
-27.6000;0.4371;1.2328;
-27.3000;0.4355;1.2328;
-27.0000;0.4339;1.2328;
-26.7000;0.4404;1.2375;
-26.4000;0.4404;1.2445;
-26.1000;0.4428;1.2563;
-25.8000;0.4404;1.2469;
-25.5000;0.4387;1.2351;
-25.2000;0.4396;1.2422;
-24.9000;0.4363;1.2445;
-24.6000;0.4306;1.2234;
-24.3000;0.4493;1.2751;
-24.0000;0.4396;1.2398;
-23.7000;0.4436;1.2469;
-23.4000;0.4412;1.2375;
-23.1000;0.4371;1.2234;
-22.8000;0.4347;1.2187;
-22.5000;0.4347;1.2187;
-22.2000;0.4396;1.2351;
-21.9000;0.4420;1.2398;
-21.6000;0.4396;1.2351;
-21.3000;0.4396;1.2445;
-21.0000;0.4396;1.2492;
-20.7000;0.4379;1.2492;
-20.4000;0.4404;1.2563;
-20.1000;0.4404;1.2398;
-19.8000;0.4444;1.2492;
-19.5000;0.4404;1.2375;
-19.2000;0.4428;1.2351;
-18.9000;0.4412;1.2281;
-18.6000;0.4428;1.2281;
-18.3000;0.4436;1.2328;
-18.0000;0.4436;1.2398;
-17.7000;0.4363;1.2257;
-17.4000;0.4428;1.2304;
-17.1000;0.4404;1.2281;
-16.8000;0.4404;1.2422;
-16.5000;0.4453;1.2563;
-16.2000;0.4404;1.2375;
-15.9000;0.4404;1.2257;
-15.6000;0.4412;1.2257;
-15.3000;0.4379;1.2234;
-15.0000;0.4396;1.2281;
-14.7000;0.4379;1.2304;
-14.4000;0.4363;1.2328;
-14.1000;0.4387;1.2422;
-13.8000;0.4371;1.2398;
-13.5000;0.4461;1.2657;
-13.2000;0.4404;1.2586;
-12.9000;0.4363;1.2563;
-12.6000;0.4363;1.2398;
-12.3000;0.4453;1.2563;
-12.0000;0.4387;1.2398;
-11.7000;0.4404;1.2398;
-11.4000;0.4396;1.2469;
-11.1000;0.4371;1.2445;
-10.8000;0.4379;1.2469;
-10.5000;0.4396;1.2492;
-10.2000;0.4404;1.2398;
-9.9000;0.4404;1.2398;
-9.6000;0.4371;1.2398;
-9.3000;0.4396;1.2398;
-9.0000;0.4412;1.2445;
-8.7000;0.4412;1.2398;
-8.4000;0.4396;1.2351;
-8.1000;0.4420;1.2375;
-7.8000;0.4485;1.2539;
-7.5000;0.4404;1.2398;
-7.2000;0.4379;1.2422;
-6.9000;0.4339;1.2351;
-6.6000;0.4379;1.2422;
-6.3000;0.4412;1.2469;
-6.0000;0.4371;1.2281;
-5.7000;0.4404;1.2281;
-5.4000;0.4412;1.2281;
-5.1000;0.4404;1.2210;
-4.8000;0.4428;1.2257;
-4.5000;0.4387;1.2375;
-4.2000;0.4412;1.2398;
-3.9000;0.4387;1.2375;
-3.6000;0.4379;1.2304;
-3.3000;0.4412;1.2351;
-3.0000;0.4412;1.2375;
-2.7000;0.4396;1.2281;
-2.4000;0.4428;1.2281;
-2.1000;0.4363;1.2163;
-1.8000;0.4355;1.2163;
-1.5000;0.4412;1.2257;
-1.2000;0.4379;1.2210;
-0.9000;0.4396;1.2281;
-0.6000;0.4339;1.2069;
-0.3000;0.4396;1.2210;
0.0000;0.4396;1.2210;
0.3000;0.4599;1.2445;
0.6000;0.5063;1.2963;
0.9000;0.5429;1.3504;
1.2000;0.5641;1.3810;
1.5000;0.6040;1.4704;
1.8000;0.6195;1.5010;
2.1000;0.6268;1.5198;
2.4000;0.6325;1.5457;
2.7000;0.6496;1.5833;
3.0000;0.6528;1.6068;
3.3000;0.6585;1.6115;
3.6000;0.6659;1.6233;
3.9000;0.6675;1.6327;
4.2000;0.6707;1.6421;
4.5000;0.6756;1.6515;
4.8000;0.6805;1.6656;
5.1000;0.6805;1.6656;
5.4000;0.6854;1.6633;
5.7000;0.6862;1.6656;
6.0000;0.6895;1.6727;
6.3000;0.6870;1.6680;
6.6000;0.6935;1.6845;
6.9000;0.6960;1.6915;
7.2000;0.6976;1.6939;
7.5000;0.7025;1.7056;
7.8000;0.7033;1.7033;
8.1000;0.7041;1.7056;
8.4000;0.7082;1.7103;
8.7000;0.7090;1.7103;
9.0000;0.7123;1.7245;
9.3000;0.7123;1.7174;
9.6000;0.7147;1.7198;
9.9000;0.7188;1.7245;
10.2000;0.7204;1.7339;
10.5000;0.7179;1.7268;
10.8000;0.7196;1.7151;
11.1000;0.7245;1.7127;
11.4000;0.7253;1.7080;
11.7000;0.7285;1.7033;
12.0000;0.7302;1.6986;
12.3000;0.7310;1.7033;
12.6000;0.7293;1.7033;
12.9000;0.7350;1.7080;
13.2000;0.7367;1.7198;
13.5000;0.7383;1.7127;
13.8000;0.7399;1.7103;
14.1000;0.7424;1.7127;
14.4000;0.7448;1.7056;
14.7000;0.7521;1.7151;
15.0000;0.7473;1.6939;
15.3000;0.7481;1.6892;
15.6000;0.7513;1.6845;
15.9000;0.7497;1.6774;
16.2000;0.7464;1.6586;
16.5000;0.7570;1.6868;
16.8000;0.7521;1.6704;
17.1000;0.7578;1.6892;
17.4000;0.7586;1.6986;
17.7000;0.7619;1.7103;
18.0000;0.7619;1.7056;
18.3000;0.7635;1.7056;
18.6000;0.7635;1.7033;
18.9000;0.7668;1.6986;
19.2000;0.7757;1.7056;
19.5000;0.7709;1.7033;
19.8000;0.7692;1.6892;
20.1000;0.7709;1.6986;
20.4000;0.7733;1.6962;
20.7000;0.7725;1.6939;
21.0000;0.7749;1.7033;
21.3000;0.7766;1.7103;
21.6000;0.7709;1.7033;
21.9000;0.7766;1.7174;
22.2000;0.7774;1.7221;
22.5000;0.7798;1.7268;
22.8000;0.7839;1.7362;
23.1000;0.7823;1.7174;
23.4000;0.7831;1.7151;
23.7000;0.7823;1.7056;
24.0000;0.7855;1.7080;
24.3000;0.7863;1.7127;
24.6000;0.7871;1.7174;
24.9000;0.7880;1.7221;
25.2000;0.7888;1.7221;
25.5000;0.7896;1.7221;
25.8000;0.7912;1.7174;
26.1000;0.7912;1.7198;
26.4000;0.7969;1.7221;
26.7000;0.7928;1.7151;
27.0000;0.7945;1.7103;
27.3000;0.7937;1.7103;
27.6000;0.7961;1.7080;
27.9000;0.7985;1.7033;
28.2000;0.8042;1.7127;
28.5000;0.7993;1.7033;
28.8000;0.7993;1.6986;
29.1000;0.7993;1.7033;
29.4000;0.8018;1.7080;
29.7000;0.8002;1.7033;
30.0000;0.8010;1.6986;
30.3000;0.8026;1.7009;
30.6000;0.8042;1.6986;
30.9000;0.8050;1.6868;
31.2000;0.8050;1.6892;
31.5000;0.8059;1.6986;
31.8000;0.8042;1.7009;
32.1000;0.8083;1.6986;
32.4000;0.8075;1.6939;
32.7000;0.8059;1.6915;
33.0000;0.8091;1.7080;
33.3000;0.8091;1.7080;
33.6000;0.8107;1.7151;
33.9000;0.8091;1.7103;
34.2000;0.8116;1.7056;
34.5000;0.8132;1.7056;
34.8000;0.8124;1.7033;
35.1000;0.8156;1.7174;
35.4000;0.8132;1.7198;
35.7000;0.8132;1.7221;
36.0000;0.8148;1.7292;
36.3000;0.8116;1.7151;
36.6000;0.8140;1.7221;
36.9000;0.8132;1.7174;
37.2000;0.8181;1.7221;
37.5000;0.8173;1.7103;
37.8000;0.8164;1.7103;
38.1000;0.8173;1.7127;
38.4000;0.8173;1.7080;
38.7000;0.8205;1.7198;
39.0000;0.8189;1.7174;
39.3000;0.8181;1.7198;
39.6000;0.8107;1.6962;
39.9000;0.8189;1.7127;
40.2000;0.8213;1.7080;
40.5000;0.8221;1.6915;
40.8000;0.8238;1.6892;
41.1000;0.8238;1.6915;
41.4000;0.8221;1.6868;
41.7000;0.8230;1.6845;
42.0000;0.8230;1.6845;
42.3000;0.8254;1.6939;
42.6000;0.8254;1.6962;
42.9000;0.8246;1.6962;
43.2000;0.8254;1.7056;
43.5000;0.8270;1.7080;
43.8000;0.8262;1.6939;
44.1000;0.8262;1.6939;
44.4000;0.8246;1.6892;
44.7000;0.8278;1.6939;
45.0000;0.8262;1.6868;
45.3000;0.8254;1.6915;
45.6000;0.8295;1.7080;
45.9000;0.8270;1.7127;
46.2000;0.8278;1.6986;
46.5000;0.8262;1.6939;
46.8000;0.8278;1.6915;
47.1000;0.8303;1.6845;
47.4000;0.8392;1.7103;
47.7000;0.8287;1.6915;
48.0000;0.8311;1.6939;
48.3000;0.8311;1.6892;
48.6000;0.8311;1.6798;
48.9000;0.8303;1.6774;
49.2000;0.8319;1.6915;
49.5000;0.8319;1.6986;
49.8000;0.8311;1.6821;
50.1000;0.8303;1.6821;
50.4000;0.8319;1.6821;
50.7000;0.8335;1.6821;
51.0000;0.8327;1.6915;
51.3000;0.8335;1.6915;
51.6000;0.8360;1.6915;
51.9000;0.8327;1.6845;
52.2000;0.8352;1.6868;
52.5000;0.8368;1.6892;
52.8000;0.8360;1.6939;
53.1000;0.8360;1.6939;
53.4000;0.8368;1.6986;
53.7000;0.8376;1.7103;
54.0000;0.8368;1.7198;
54.3000;0.8376;1.7198;
54.6000;0.8352;1.7103;
54.9000;0.8384;1.7127;
55.2000;0.8344;1.6986;
55.5000;0.8376;1.7009;
55.8000;0.8392;1.6915;
56.1000;0.8384;1.6962;
56.4000;0.8392;1.6939;
56.7000;0.8327;1.6704;
57.0000;0.8384;1.6845;
57.3000;0.8392;1.6845;
57.6000;0.8392;1.6798;
57.9000;0.8400;1.6798;
58.2000;0.8400;1.6892;
58.5000;0.8400;1.6868;
58.8000;0.8368;1.6774;
59.1000;0.8417;1.6821;
59.4000;0.8400;1.6774;
59.7000;0.8417;1.6915;
60.0000;0.8417;1.6774;
60.3000;0.8400;1.6751;
60.6000;0.8433;1.6892;
60.9000;0.8433;1.6939;
61.2000;0.8474;1.6915;
61.5000;0.8425;1.6727;
61.8000;0.8474;1.6727;
62.1000;0.8449;1.6609;
62.4000;0.8409;1.6656;
62.7000;0.8433;1.6798;
63.0000;0.8449;1.6798;
63.3000;0.8441;1.6798;
63.6000;0.8441;1.6798;
63.9000;0.8441;1.6821;
64.2000;0.8433;1.6845;
64.5000;0.8449;1.6798;
64.8000;0.8433;1.6680;
65.1000;0.8466;1.6845;
65.4000;0.8474;1.6774;
65.7000;0.8457;1.6751;
66.0000;0.8441;1.6798;
66.3000;0.8457;1.6845;
66.6000;0.8457;1.6798;
66.9000;0.8457;1.6845;
67.2000;0.8441;1.6704;
67.5000;0.8457;1.6704;
67.8000;0.8466;1.6727;
68.1000;0.8482;1.6751;
68.4000;0.8466;1.6798;
68.7000;0.8482;1.6821;
69.0000;0.8490;1.6774;
69.3000;0.8490;1.6609;
69.6000;0.8433;1.6539;
69.9000;0.8466;1.6656;
70.2000;0.8498;1.6633;
70.5000;0.8514;1.6609;
70.8000;0.8466;1.6562;
71.1000;0.8498;1.6562;
71.4000;0.8425;1.6421;
71.7000;0.8474;1.6633;
72.0000;0.8498;1.6586;
72.3000;0.8498;1.6562;
72.6000;0.8498;1.6492;
72.9000;0.8490;1.6609;
73.2000;0.8490;1.6539;
73.5000;0.8498;1.6633;
73.8000;0.8514;1.6609;
74.1000;0.8490;1.6656;
74.4000;0.8514;1.6633;
74.7000;0.8531;1.6704;
75.0000;0.8514;1.6586;
75.3000;0.8539;1.6586;
75.6000;0.8523;1.6586;
75.9000;0.8523;1.6586;
76.2000;0.8514;1.6656;
76.5000;0.8555;1.6751;
76.8000;0.8531;1.6633;
77.1000;0.8482;1.6492;
77.4000;0.8498;1.6515;
77.7000;0.8482;1.6562;
78.0000;0.8531;1.6656;
78.3000;0.8523;1.6586;
78.6000;0.8506;1.6539;
78.9000;0.8514;1.6656;
79.2000;0.8539;1.6562;
79.5000;0.8523;1.6586;
79.8000;0.8490;1.6515;
80.1000;0.8425;1.6351;
80.4000;0.8563;1.6633;
80.7000;0.8531;1.6539;
81.0000;0.8514;1.6492;
81.3000;0.8514;1.6539;
81.6000;0.8539;1.6586;
81.9000;0.8555;1.6633;
82.2000;0.8555;1.6539;
82.5000;0.8531;1.6515;
82.8000;0.8563;1.6633;
83.1000;0.8523;1.6492;
83.4000;0.8474;1.6421;
83.7000;0.8523;1.6562;
84.0000;0.8547;1.6586;
84.3000;0.8514;1.6562;
84.6000;0.8555;1.6562;
84.9000;0.8547;1.6586;
85.2000;0.8547;1.6586;
85.5000;0.8539;1.6586;
85.8000;0.8531;1.6515;
86.1000;0.8563;1.6656;
86.4000;0.8555;1.6727;
86.7000;0.8531;1.6704;
87.0000;0.8612;1.6821;
87.3000;0.8571;1.6727;
87.6000;0.8571;1.6633;
87.9000;0.8563;1.6633;
88.2000;0.8571;1.6609;
88.5000;0.8571;1.6586;
88.8000;0.8571;1.6468;
89.1000;0.8580;1.6539;
89.4000;0.8555;1.6492;
89.7000;0.8588;1.6515;
90.0000;0.8571;1.6468;
90.3000;0.8555;1.6492;
90.6000;0.8571;1.6609;
90.9000;0.8555;1.6562;
91.2000;0.8506;1.6445;
91.5000;0.8498;1.6327;
91.8000;0.8628;1.6586;
92.1000;0.8596;1.6445;
92.4000;0.8588;1.6374;
92.7000;0.8539;1.6351;
93.0000;0.8563;1.6445;
93.3000;0.8580;1.6492;
93.6000;0.8563;1.6492;
93.9000;0.8620;1.6656;
94.2000;0.8637;1.6680;
94.5000;0.8482;1.6233;
94.8000;0.8547;1.6233;
95.1000;0.8588;1.6351;
95.4000;0.8539;1.6233;
95.7000;0.8645;1.6421;
96.0000;0.8604;1.6468;
96.3000;0.8604;1.6445;
96.6000;0.8596;1.6421;
96.9000;0.8661;1.6468;
97.2000;0.8596;1.6304;
97.5000;0.8637;1.6492;
97.8000;0.8612;1.6398;
98.1000;0.8604;1.6327;
98.4000;0.8588;1.6351;
98.7000;0.8588;1.6304;
99.0000;0.8604;1.6257;
99.3000;0.8612;1.6280;
99.6000;0.8588;1.6210;
99.9000;0.8604;1.6186;
100.2000;0.8604;1.6257;
100.5000;0.8637;1.6468;
100.8000;0.8604;1.6445;
101.1000;0.8612;1.6421;
101.4000;0.8628;1.6515;
101.7000;0.8604;1.6515;
102.0000;0.8628;1.6609;
102.3000;0.8620;1.6633;
102.6000;0.8628;1.6609;
102.9000;0.8620;1.6586;
103.2000;0.8628;1.6562;
103.5000;0.8645;1.6515;
103.8000;0.8628;1.6492;
104.1000;0.8653;1.6609;
104.4000;0.8620;1.6609;
104.7000;0.8580;1.6586;
105.0000;0.8620;1.6704;
105.3000;0.8588;1.6633;
105.6000;0.8612;1.6656;
105.9000;0.8637;1.6680;
106.2000;0.8628;1.6656;
106.5000;0.8637;1.6633;
106.8000;0.8661;1.6609;
107.1000;0.8653;1.6609;
107.4000;0.8628;1.6515;
107.7000;0.8645;1.6515;
108.0000;0.8612;1.6445;
108.3000;0.8628;1.6468;
108.6000;0.8645;1.6492;
108.9000;0.8645;1.6398;
109.2000;0.8612;1.6327;
109.5000;0.8620;1.6257;
109.8000;0.8628;1.6280;
110.1000;0.8645;1.6327;
110.4000;0.8653;1.6280;
110.7000;0.8628;1.6233;
111.0000;0.8620;1.6280;
111.3000;0.8661;1.6492;
111.6000;0.8637;1.6327;
111.9000;0.8645;1.6374;
112.2000;0.8620;1.6374;
112.5000;0.8653;1.6398;
112.8000;0.8620;1.6257;
113.1000;0.8710;1.6374;
113.4000;0.8612;1.6233;
113.7000;0.8645;1.6304;
114.0000;0.8653;1.6304;
114.3000;0.8645;1.6210;
114.6000;0.8637;1.6162;
114.9000;0.8677;1.6233;
115.2000;0.8628;1.6139;
115.5000;0.8653;1.6210;
115.8000;0.8653;1.6162;
116.1000;0.8653;1.6210;
116.4000;0.8620;1.6210;
116.7000;0.8645;1.6374;
117.0000;0.8677;1.6515;
117.3000;0.8653;1.6445;
117.6000;0.8669;1.6398;
117.9000;0.8653;1.6210;
118.2000;0.8645;1.6257;
118.5000;0.8685;1.6421;
118.8000;0.8669;1.6280;
119.1000;0.8685;1.6304;
119.4000;0.8734;1.6492;
119.7000;0.8653;1.6398;
120.0000;0.8653;1.6445;
120.3000;0.8685;1.6468;
120.6000;0.8653;1.6374;
120.9000;0.8653;1.6398;
121.2000;0.8677;1.6539;
121.5000;0.8685;1.6515;
121.8000;0.8677;1.6445;
122.1000;0.8677;1.6515;
122.4000;0.8685;1.6539;
122.7000;0.8694;1.6492;
123.0000;0.8669;1.6351;
123.3000;0.8677;1.6304;
123.6000;0.8669;1.6327;
123.9000;0.8677;1.6398;
124.2000;0.8734;1.6492;
124.5000;0.8669;1.6351;
124.8000;0.8669;1.6257;
125.1000;0.8661;1.6257;
125.4000;0.8677;1.6186;
125.7000;0.8677;1.6162;
126.0000;0.8677;1.6092;
126.3000;0.8694;1.6186;
126.6000;0.8718;1.6280;
126.9000;0.8694;1.6280;
127.2000;0.8661;1.6257;
127.5000;0.8694;1.6398;
127.8000;0.8694;1.6421;
128.1000;0.8751;1.6539;
128.4000;0.8685;1.6374;
128.7000;0.8677;1.6374;
129.0000;0.8677;1.6374;
129.3000;0.8694;1.6327;
129.6000;0.8661;1.6233;
129.9000;0.8702;1.6280;
130.2000;0.8677;1.6210;
130.5000;0.8677;1.6210;
130.8000;0.8726;1.6374;
131.1000;0.8677;1.6233;
131.4000;0.8685;1.6139;
131.7000;0.8726;1.6257;
132.0000;0.8742;1.6304;
132.3000;0.8637;1.6115;
132.6000;0.8734;1.6374;
132.9000;0.8669;1.6257;
133.2000;0.8702;1.6280;
133.5000;0.8669;1.6162;
133.8000;0.8669;1.6257;
134.1000;0.8710;1.6280;
134.4000;0.8685;1.6186;
134.7000;0.8677;1.6045;
135.0000;0.8628;1.5951;
135.3000;0.8742;1.6304;
135.6000;0.8702;1.6139;
135.9000;0.8694;1.6115;
136.2000;0.8645;1.6045;
136.5000;0.8685;1.6186;
136.8000;0.8685;1.6186;
137.1000;0.8628;1.5974;
137.4000;0.8645;1.5857;
137.7000;0.8685;1.5927;
138.0000;0.8710;1.6045;
138.3000;0.8685;1.5974;
138.6000;0.8612;1.5833;
138.9000;0.8694;1.6045;
139.2000;0.8702;1.6021;
139.5000;0.8751;1.6068;
139.8000;0.8702;1.5974;
140.1000;0.8726;1.6092;
140.4000;0.8669;1.6045;
140.7000;0.8710;1.6210;
141.0000;0.8694;1.6210;
141.3000;0.8653;1.6139;
141.6000;0.8669;1.6257;
141.9000;0.8710;1.6327;
142.2000;0.8718;1.6351;
142.5000;0.8702;1.6257;
142.8000;0.8718;1.6327;
143.1000;0.8718;1.6374;
143.4000;0.8710;1.6374;
143.7000;0.8718;1.6398;
144.0000;0.8718;1.6374;
144.3000;0.8710;1.6351;
144.6000;0.8718;1.6351;
144.9000;0.8694;1.6374;
145.2000;0.8694;1.6398;
145.5000;0.8718;1.6398;
145.8000;0.8710;1.6374;
146.1000;0.8710;1.6445;
146.4000;0.8718;1.6492;
146.7000;0.8694;1.6445;
147.0000;0.8718;1.6492;
147.3000;0.8710;1.6421;
147.6000;0.8710;1.6468;
147.9000;0.8718;1.6515;
148.2000;0.8734;1.6633;
148.5000;0.8742;1.6633;
148.8000;0.8718;1.6562;
149.1000;0.8710;1.6562;
149.4000;0.8710;1.6421;
149.7000;0.8734;1.6421;
150.0000;0.8759;1.6515;
150.3000;0.8718;1.6398;
150.6000;0.8734;1.6492;
150.9000;0.8734;1.6374;
151.2000;0.8718;1.6233;
151.5000;0.8718;1.6210;
151.8000;0.8710;1.6233;
152.1000;0.8710;1.6257;
152.4000;0.8751;1.6257;
152.7000;0.8759;1.6233;
153.0000;0.8726;1.6115;
153.3000;0.8734;1.6162;
153.6000;0.8694;1.6092;
153.9000;0.8726;1.6233;
154.2000;0.8718;1.6257;
154.5000;0.8726;1.6304;
154.8000;0.8742;1.6374;
155.1000;0.8726;1.6327;
155.4000;0.8783;1.6468;
155.7000;0.8694;1.6233;
156.0000;0.8742;1.6304;
156.3000;0.8694;1.6162;
156.6000;0.8726;1.6162;
156.9000;0.8718;1.6045;
157.2000;0.8734;1.6068;
157.5000;0.8718;1.5998;
157.8000;0.8807;1.6186;
158.1000;0.8734;1.6068;
158.4000;0.8734;1.6068;
158.7000;0.8742;1.6162;
159.0000;0.8726;1.6115;
159.3000;0.8726;1.6139;
159.6000;0.8694;1.6068;
159.9000;0.8751;1.6139;
160.2000;0.8734;1.6068;
160.5000;0.8759;1.6092;
160.8000;0.8726;1.6139;
161.1000;0.8759;1.6210;
161.4000;0.8726;1.6210;
161.7000;0.8734;1.6210;
162.0000;0.8726;1.6210;
162.3000;0.8726;1.6210;
162.6000;0.8742;1.6280;
162.9000;0.8726;1.6162;
163.2000;0.8677;1.5974;
163.5000;0.8751;1.6210;
163.8000;0.8742;1.6139;
164.1000;0.8742;1.6186;
164.4000;0.8759;1.6280;
164.7000;0.8726;1.6162;
165.0000;0.8742;1.6257;
165.3000;0.8718;1.6280;
165.6000;0.8726;1.6304;
165.9000;0.8742;1.6304;
166.2000;0.8734;1.6186;
166.5000;0.8751;1.6162;
166.8000;0.8726;1.6092;
167.1000;0.8726;1.5927;
167.4000;0.8742;1.5998;
167.7000;0.8742;1.5974;
168.0000;0.8767;1.5998;
168.3000;0.8751;1.5951;
168.6000;0.8702;1.5810;
168.9000;0.8759;1.5951;
169.2000;0.8742;1.5951;
169.5000;0.8751;1.5974;
169.8000;0.8751;1.5927;
170.1000;0.8751;1.6139;
170.4000;0.8742;1.6304;
170.7000;0.8726;1.6304;
171.0000;0.8734;1.6257;
171.3000;0.8742;1.6257;
171.6000;0.8734;1.6210;
171.9000;0.8848;1.6515;
172.2000;0.8734;1.6304;
172.5000;0.8734;1.6280;
172.8000;0.8759;1.6257;
173.1000;0.8742;1.6139;
173.4000;0.8742;1.6162;
173.7000;0.8734;1.6210;
174.0000;0.8653;1.5974;
174.3000;0.8759;1.6257;
174.6000;0.8751;1.6233;
174.9000;0.8759;1.6210;
175.2000;0.8775;1.6186;
175.5000;0.8751;1.6115;
175.8000;0.8751;1.6115;
176.1000;0.8751;1.6162;
176.4000;0.8742;1.6162;
176.7000;0.8726;1.6115;
177.0000;0.8726;1.6021;
177.3000;0.8751;1.5998;
177.6000;0.8734;1.6045;
177.9000;0.8742;1.6092;
178.2000;0.8751;1.6115;
178.5000;0.8751;1.6186;
178.8000;0.8751;1.6210;
179.1000;0.8751;1.6233;
179.4000;0.8742;1.6139;
179.7000;0.8685;1.6068;
180.0000;0.8759;1.6210;
180.3000;0.8710;1.6162;
180.6000;0.8734;1.6186;
180.9000;0.8734;1.6186;
181.2000;0.8799;1.6186;
181.5000;0.8661;1.5927;
181.8000;0.8742;1.6115;
182.1000;0.8767;1.6257;
182.4000;0.8751;1.6186;
182.7000;0.8751;1.6210;
183.0000;0.8759;1.6162;
183.3000;0.8767;1.6374;
183.6000;0.8742;1.6280;
183.9000;0.8799;1.6351;
184.2000;0.8832;1.6421;
184.5000;0.8767;1.6304;
184.8000;0.8799;1.6445;
185.1000;0.8751;1.6304;
185.4000;0.8767;1.6304;
185.7000;0.8759;1.6280;
186.0000;0.8751;1.6280;
186.3000;0.8759;1.6233;
186.6000;0.8742;1.6280;
186.9000;0.8759;1.6351;
187.2000;0.8718;1.6210;
187.5000;0.8734;1.6233;
187.8000;0.8751;1.6280;
188.1000;0.8742;1.6280;
188.4000;0.8718;1.6186;
188.7000;0.8759;1.6280;
189.0000;0.8783;1.6304;
189.3000;0.8759;1.6162;
189.6000;0.8742;1.6162;
189.9000;0.8734;1.6139;
190.2000;0.8742;1.6162;
190.5000;0.8767;1.6280;
190.8000;0.8759;1.6233;
191.1000;0.8767;1.6233;
191.4000;0.8742;1.6210;
191.7000;0.8759;1.6186;
192.0000;0.8751;1.6186;
192.3000;0.8759;1.6257;
192.6000;0.8742;1.6257;
192.9000;0.8759;1.6280;
193.2000;0.8734;1.6210;
193.5000;0.8759;1.6210;
193.8000;0.8734;1.6210;
194.1000;0.8751;1.6257;
194.4000;0.8767;1.6280;
194.7000;0.8799;1.6398;
195.0000;0.8759;1.6327;
195.3000;0.8751;1.6351;
195.6000;0.8759;1.6304;
195.9000;0.8710;1.6162;
196.2000;0.8751;1.6233;
196.5000;0.8751;1.6210;
196.8000;0.8751;1.6233;
197.1000;0.8759;1.6280;
197.4000;0.8710;1.6327;
197.7000;0.8742;1.6257;
198.0000;0.8759;1.6280;
198.3000;0.8759;1.6304;
198.6000;0.8751;1.6233;
198.9000;0.8751;1.6115;
199.2000;0.8775;1.6162;
199.5000;0.8751;1.6139;
199.8000;0.8767;1.6068;
200.1000;0.8726;1.5951;
200.4000;0.8751;1.5998;
200.7000;0.8767;1.5998;
201.0000;0.8742;1.6021;
201.3000;0.8751;1.5998;
201.6000;0.8742;1.5974;
201.9000;0.8742;1.6068;
202.2000;0.8718;1.5998;
202.5000;0.8742;1.6115;
202.8000;0.8767;1.6210;
203.1000;0.8726;1.6139;
203.4000;0.8759;1.6210;
203.7000;0.8759;1.6257;
204.0000;0.8751;1.6233;
204.3000;0.8807;1.6374;
204.6000;0.8783;1.6327;
204.9000;0.8759;1.6280;
205.2000;0.8767;1.6280;
205.5000;0.8734;1.6186;
205.8000;0.8767;1.6257;
206.1000;0.8710;1.6115;
206.4000;0.8759;1.6351;
206.7000;0.8742;1.6304;
207.0000;0.8742;1.6327;
207.3000;0.8734;1.6280;
207.6000;0.8775;1.6351;
207.9000;0.8742;1.6257;
208.2000;0.8751;1.6327;
208.5000;0.8767;1.6233;
208.8000;0.8759;1.6162;
209.1000;0.8726;1.6021;
209.4000;0.8734;1.6021;
209.7000;0.8702;1.5998;
210.0000;0.8856;1.6445;
210.3000;0.8791;1.6398;
210.6000;0.8759;1.6327;
210.9000;0.8726;1.6280;
211.2000;0.8628;1.6021;
211.5000;0.8742;1.6351;
211.8000;0.8677;1.6162;
212.1000;0.8742;1.6351;
212.4000;0.8759;1.6327;
212.7000;0.8742;1.6233;
213.0000;0.8726;1.6139;
213.3000;0.8767;1.6186;
213.6000;0.8759;1.6186;
213.9000;0.8742;1.6115;
214.2000;0.8734;1.6139;
214.5000;0.8759;1.6233;
214.8000;0.8767;1.6186;
215.1000;0.8759;1.6186;
215.4000;0.8759;1.6233;
215.7000;0.8751;1.6233;
216.0000;0.8751;1.6233;
216.3000;0.8759;1.6280;
216.6000;0.8751;1.6233;
216.9000;0.8759;1.6162;
217.2000;0.8791;1.6257;
217.5000;0.8767;1.6257;
217.8000;0.8775;1.6210;
218.1000;0.8775;1.6068;
218.4000;0.8775;1.6115;
218.7000;0.8702;1.5998;
219.0000;0.8767;1.6068;
219.3000;0.8759;1.6045;
219.6000;0.8767;1.6068;
219.9000;0.8759;1.6092;
220.2000;0.8775;1.6115;
220.5000;0.8759;1.6162;
220.8000;0.8742;1.6139;
221.1000;0.8751;1.6210;
221.4000;0.8742;1.6210;
221.7000;0.8734;1.6139;
222.0000;0.8759;1.6210;
222.3000;0.8751;1.6115;
222.6000;0.8742;1.6092;
222.9000;0.8767;1.6162;
223.2000;0.8702;1.6115;
223.5000;0.8751;1.6210;
223.8000;0.8767;1.6186;
224.1000;0.8742;1.6186;
224.4000;0.8751;1.6210;
224.7000;0.8751;1.6233;
225.0000;0.8751;1.6280;
225.3000;0.8751;1.6374;
225.6000;0.8734;1.6351;
225.9000;0.8751;1.6492;
226.2000;0.8783;1.6492;
226.5000;0.8759;1.6445;
226.8000;0.8702;1.6257;
227.1000;0.8767;1.6398;
227.4000;0.8734;1.6186;
227.7000;0.8767;1.6233;
228.0000;0.8759;1.6139;
228.3000;0.8734;1.6162;
228.6000;0.8767;1.6233;
228.9000;0.8759;1.6210;
229.2000;0.8751;1.6233;
229.5000;0.8742;1.6186;
229.8000;0.8759;1.6092;
230.1000;0.8767;1.6068;
230.4000;0.8759;1.6068;
230.7000;0.8767;1.6162;
231.0000;0.8759;1.6162;
231.3000;0.8775;1.6162;
231.6000;0.8775;1.6186;
231.9000;0.8783;1.6280;
232.2000;0.8759;1.6092;
232.5000;0.8759;1.6115;
232.8000;0.8767;1.6115;
233.1000;0.8759;1.6139;
233.4000;0.8807;1.6304;
233.7000;0.8702;1.6068;
234.0000;0.8751;1.6115;
234.3000;0.8751;1.6162;
234.6000;0.8751;1.6139;
234.9000;0.8742;1.6068;
235.2000;0.8759;1.6115;
235.5000;0.8742;1.6210;
235.8000;0.8751;1.6210;
236.1000;0.8751;1.6186;
236.4000;0.8759;1.6257;
236.7000;0.8751;1.6327;
237.0000;0.8759;1.6233;
237.3000;0.8751;1.6162;
237.6000;0.8759;1.6186;
237.9000;0.8759;1.6139;
238.2000;0.8759;1.6115;
238.5000;0.8775;1.6186;
238.8000;0.8742;1.6210;
239.1000;0.8751;1.6280;
239.4000;0.8742;1.6233;
239.7000;0.8759;1.6210;
240.0000;0.8767;1.6186;
240.3000;0.8783;1.6210;
240.6000;0.8767;1.6139;
240.9000;0.8751;1.6139;
241.2000;0.8759;1.6092;
241.5000;0.8775;1.6115;
241.8000;0.8775;1.6115;
242.1000;0.8767;1.6068;
242.4000;0.8759;1.6092;
242.7000;0.8783;1.6115;
243.0000;0.8751;1.6045;
243.3000;0.8759;1.6092;
243.6000;0.8759;1.6045;
243.9000;0.8751;1.5974;
244.2000;0.8767;1.6021;
244.5000;0.8726;1.5857;
244.8000;0.8726;1.5763;
245.1000;0.8759;1.5857;
245.4000;0.8799;1.5927;
245.7000;0.8759;1.5880;
246.0000;0.8742;1.5951;
246.3000;0.8710;1.5904;
246.6000;0.8742;1.5927;
246.9000;0.8751;1.5998;
247.2000;0.8751;1.6045;
247.5000;0.8726;1.6021;
247.8000;0.8710;1.5927;
248.1000;0.8718;1.6045;
248.4000;0.8742;1.6092;
248.7000;0.8751;1.6162;
249.0000;0.8775;1.6115;
249.3000;0.8751;1.6068;
249.6000;0.8718;1.5998;
249.9000;0.8726;1.6021;
250.2000;0.8775;1.6092;
250.5000;0.8759;1.6092;
250.8000;0.8751;1.6162;
251.1000;0.8726;1.6162;
251.4000;0.8775;1.6233;
251.7000;0.8751;1.6092;
252.0000;0.8791;1.6233;
252.3000;0.8759;1.6162;
252.6000;0.8726;1.6092;
252.9000;0.8759;1.6115;
253.2000;0.8791;1.6233;
253.5000;0.8742;1.6021;
253.8000;0.8751;1.5998;
254.1000;0.8751;1.6021;
254.4000;0.8742;1.6068;
254.7000;0.8751;1.6115;
255.0000;0.8734;1.6068;
255.3000;0.8742;1.6045;
255.6000;0.8775;1.6068;
255.9000;0.8742;1.5974;
256.2000;0.8759;1.6021;
256.5000;0.8751;1.5974;
256.8000;0.8775;1.6092;
257.1000;0.8751;1.6162;
257.4000;0.8685;1.5998;
257.7000;0.8742;1.6162;
258.0000;0.8734;1.6210;
258.3000;0.8751;1.6280;
258.6000;0.8783;1.6233;
258.9000;0.8742;1.6186;
259.2000;0.8742;1.6045;
259.5000;0.8726;1.6021;
259.8000;0.8742;1.6092;
260.1000;0.8734;1.6139;
260.4000;0.8734;1.6186;
260.7000;0.8751;1.6210;
261.0000;0.8751;1.6257;
261.3000;0.8751;1.6210;
261.6000;0.8734;1.6115;
261.9000;0.8742;1.6162;
262.2000;0.8791;1.6210;
262.5000;0.8751;1.6092;
262.8000;0.8751;1.6021;
263.1000;0.8751;1.5951;
263.4000;0.8775;1.5998;
263.7000;0.8751;1.5857;
264.0000;0.8751;1.5880;
264.3000;0.8742;1.5857;
264.6000;0.8775;1.5927;
264.9000;0.8751;1.5833;
265.2000;0.8718;1.5739;
265.5000;0.8718;1.5786;
265.8000;0.8734;1.5786;
266.1000;0.8767;1.5763;
266.4000;0.8751;1.5810;
266.7000;0.8734;1.5810;
267.0000;0.8742;1.5833;
267.3000;0.8759;1.5833;
267.6000;0.8759;1.5810;
267.9000;0.8718;1.5715;
268.2000;0.8734;1.5810;
268.5000;0.8702;1.5763;
268.8000;0.8759;1.5904;
269.1000;0.8742;1.5857;
269.4000;0.8734;1.5833;
269.7000;0.8751;1.5833;
270.0000;0.8751;1.5927;
270.3000;0.8726;1.5927;
270.6000;0.8718;1.5974;
270.9000;0.8718;1.5998;
271.2000;0.8751;1.5974;
271.5000;0.8734;1.6021;
271.8000;0.8742;1.6139;
272.1000;0.8734;1.6092;
272.4000;0.8751;1.6162;
272.7000;0.8742;1.6139;
273.0000;0.8734;1.6139;
273.3000;0.8637;1.5857;
273.6000;0.8734;1.6115;
273.9000;0.8751;1.6139;
274.2000;0.8751;1.6068;
274.5000;0.8734;1.6068;
274.8000;0.8742;1.6115;
275.1000;0.8751;1.6068;
275.4000;0.8726;1.5974;
275.7000;0.8726;1.5927;
276.0000;0.8742;1.6045;
276.3000;0.8799;1.6233;
276.6000;0.8742;1.6092;
276.9000;0.8751;1.6115;
277.2000;0.8759;1.6139;
277.5000;0.8759;1.6257;
277.8000;0.8742;1.6210;
278.1000;0.8677;1.6021;
278.4000;0.8856;1.6374;
278.7000;0.8759;1.6186;
279.0000;0.8775;1.6257;
279.3000;0.8726;1.6115;
279.6000;0.8734;1.6092;
279.9000;0.8751;1.6115;
280.2000;0.8726;1.6092;
280.5000;0.8759;1.6115;
280.8000;0.8685;1.5951;
281.1000;0.8751;1.6045;
281.4000;0.8775;1.6115;
281.7000;0.8718;1.6021;
282.0000;0.8734;1.5998;
282.3000;0.8759;1.6045;
282.6000;0.8751;1.5998;
282.9000;0.8759;1.6021;
283.2000;0.8726;1.6092;
283.5000;0.8726;1.6162;
283.8000;0.8742;1.6233;
284.1000;0.8742;1.6233;
284.4000;0.8799;1.6398;
284.7000;0.8751;1.6327;
285.0000;0.8742;1.6257;
285.3000;0.8751;1.6257;
285.6000;0.8726;1.6280;
285.9000;0.8734;1.6210;
286.2000;0.8775;1.6257;
286.5000;0.8734;1.6045;
286.8000;0.8742;1.6045;
287.1000;0.8783;1.6162;
287.4000;0.8742;1.6068;
287.7000;0.8799;1.6280;
288.0000;0.8799;1.6327;
288.3000;0.8751;1.6186;
288.6000;0.8742;1.6210;
288.9000;0.8759;1.6233;
289.2000;0.8751;1.6280;
289.5000;0.8816;1.6445;
289.8000;0.8734;1.6257;
290.1000;0.8742;1.6162;
290.4000;0.8734;1.6092;
290.7000;0.8702;1.6045;
291.0000;0.8734;1.6115;
291.3000;0.8734;1.6115;
291.6000;0.8742;1.6092;
291.9000;0.8734;1.6092;
292.2000;0.8742;1.6092;
292.5000;0.8734;1.6045;
292.8000;0.8751;1.6092;
293.1000;0.8742;1.6092;
293.4000;0.8734;1.6068;
293.7000;0.8742;1.6115;
294.0000;0.8718;1.6115;
294.3000;0.8734;1.6162;
294.6000;0.8775;1.6257;
294.9000;0.8726;1.6092;
295.2000;0.8742;1.6021;
295.5000;0.8734;1.6045;
295.8000;0.8645;1.5763;
296.1000;0.8718;1.5974;
296.4000;0.8702;1.5951;
296.7000;0.8726;1.5880;
297.0000;0.8718;1.5904;
297.3000;0.8751;1.6068;
297.6000;0.8726;1.6068;
297.9000;0.8734;1.6139;
298.2000;0.8742;1.6257;
298.5000;0.8742;1.6304;
298.8000;0.8742;1.6327;
299.1000;0.8718;1.6351;
299.4000;0.8751;1.6327;
299.7000;0.8751;1.6327;
300.0000;0.8726;1.6186;
300.3000;0.8653;1.5904;
300.6000;0.8751;1.6210;
300.9000;0.8742;1.6257;
301.2000;0.8775;1.6280;
301.5000;0.8726;1.6092;
301.8000;0.8775;1.6233;
302.1000;0.8742;1.6068;
302.4000;0.8677;1.5880;
302.7000;0.8840;1.6351;
303.0000;0.8726;1.6139;
303.3000;0.8807;1.6445;
303.6000;0.8726;1.6210;
303.9000;0.8710;1.6210;
304.2000;0.8718;1.6233;
304.5000;0.8726;1.6210;
304.8000;0.8694;1.6045;
305.1000;0.8718;1.6092;
305.4000;0.8555;1.5763;
305.7000;0.8685;1.6139;
306.0000;0.8742;1.6186;
306.3000;0.8726;1.6139;
306.6000;0.8726;1.6115;
306.9000;0.8734;1.6162;
307.2000;0.8718;1.6186;
307.5000;0.8710;1.6233;
307.8000;0.8759;1.6421;
308.1000;0.8726;1.6327;
308.4000;0.8726;1.6327;
308.7000;0.8710;1.6210;
309.0000;0.8726;1.6257;
309.3000;0.8742;1.6374;
309.6000;0.8726;1.6398;
309.9000;0.8799;1.6468;
310.2000;0.8710;1.6421;
310.5000;0.8734;1.6398;
310.8000;0.8710;1.6304;
311.1000;0.8718;1.6257;
311.4000;0.8718;1.6280;
311.7000;0.8751;1.6327;
312.0000;0.8734;1.6280;
312.3000;0.8726;1.6304;
312.6000;0.8726;1.6280;
312.9000;0.8726;1.6304;
313.2000;0.8742;1.6257;
313.5000;0.8734;1.6257;
313.8000;0.8734;1.6233;
314.1000;0.8734;1.6210;
314.4000;0.8710;1.6186;
314.7000;0.8734;1.6210;
315.0000;0.8759;1.6304;
315.3000;0.8726;1.6210;
315.6000;0.8726;1.6139;
315.9000;0.8726;1.6139;
316.2000;0.8742;1.6162;
316.5000;0.8742;1.6092;
316.8000;0.8734;1.6115;
317.1000;0.8702;1.6139;
317.4000;0.8742;1.6233;
317.7000;0.8734;1.6327;
318.0000;0.8685;1.6210;
318.3000;0.8799;1.6374;
318.6000;0.8734;1.6280;
318.9000;0.8726;1.6351;
319.2000;0.8710;1.6327;
319.5000;0.8734;1.6421;
319.8000;0.8661;1.6162;
320.1000;0.8661;1.6186;
320.4000;0.8742;1.6374;
320.7000;0.8710;1.6304;
321.0000;0.8718;1.6374;
321.3000;0.8734;1.6445;
321.6000;0.8726;1.6468;
321.9000;0.8710;1.6351;
322.2000;0.8677;1.6304;
322.5000;0.8726;1.6421;
322.8000;0.8710;1.6374;
323.1000;0.8702;1.6374;
323.4000;0.8742;1.6304;
323.7000;0.8759;1.6351;
324.0000;0.8669;1.6257;
324.3000;0.8677;1.6280;
324.6000;0.8694;1.6257;
324.9000;0.8734;1.6304;
325.2000;0.8645;1.6068;
325.5000;0.8751;1.6304;
325.8000;0.8710;1.6139;
326.1000;0.8726;1.6115;
326.4000;0.8832;1.6421;
326.7000;0.8751;1.6280;
327.0000;0.8734;1.6280;
327.3000;0.8710;1.6186;
327.6000;0.8677;1.6115;
327.9000;0.8710;1.6162;
328.2000;0.8702;1.6092;
328.5000;0.8710;1.6068;
328.8000;0.8726;1.6068;
329.1000;0.8677;1.5927;
329.4000;0.8759;1.6045;
329.7000;0.8702;1.5880;
330.0000;0.8734;1.6068;
330.3000;0.8726;1.6068;
330.6000;0.8726;1.6021;
330.9000;0.8718;1.6021;
331.2000;0.8677;1.5998;
331.5000;0.8767;1.6257;
331.8000;0.8742;1.6115;
332.1000;0.8710;1.6092;
332.4000;0.8718;1.6115;
332.7000;0.8726;1.6139;
333.0000;0.8751;1.6233;
333.3000;0.8694;1.6139;
333.6000;0.8710;1.6186;
333.9000;0.8718;1.6162;
334.2000;0.8726;1.6115;
334.5000;0.8718;1.6162;
334.8000;0.8726;1.6186;
335.1000;0.8710;1.6210;
335.4000;0.8710;1.6257;
335.7000;0.8734;1.6280;
336.0000;0.8742;1.6280;
336.3000;0.8734;1.6304;
336.6000;0.8718;1.6327;
336.9000;0.8702;1.6257;
337.2000;0.8718;1.6186;
337.5000;0.8718;1.6186;
337.8000;0.8718;1.6233;
338.1000;0.8734;1.6210;
338.4000;0.8710;1.6068;
338.7000;0.8726;1.6186;
339.0000;0.8718;1.6257;
339.3000;0.8734;1.6304;
339.6000;0.8726;1.6327;
339.9000;0.8734;1.6351;
340.2000;0.8742;1.6374;
340.5000;0.8710;1.6304;
340.8000;0.8726;1.6374;
341.1000;0.8734;1.6374;
341.4000;0.8734;1.6398;
341.7000;0.8710;1.6398;
342.0000;0.8702;1.6421;
342.3000;0.8661;1.6304;
342.6000;0.8742;1.6468;
342.9000;0.8710;1.6374;
343.2000;0.8710;1.6327;
343.5000;0.8726;1.6351;
343.8000;0.8677;1.6280;
344.1000;0.8734;1.6398;
344.4000;0.8685;1.6257;
344.7000;0.8726;1.6304;
345.0000;0.8718;1.6280;
345.3000;0.8669;1.6233;
345.6000;0.8718;1.6327;
345.9000;0.8734;1.6421;
346.2000;0.8710;1.6351;
346.5000;0.8751;1.6445;
346.8000;0.8710;1.6351;
347.1000;0.8637;1.6186;
347.4000;0.8718;1.6398;
347.7000;0.8718;1.6374;
348.0000;0.8718;1.6515;
348.3000;0.8702;1.6468;
348.6000;0.8710;1.6421;
348.9000;0.8685;1.6374;
349.2000;0.8759;1.6539;
349.5000;0.8702;1.6398;
349.8000;0.8710;1.6374;
350.1000;0.8702;1.6351;
350.4000;0.8718;1.6351;
350.7000;0.8718;1.6327;
351.0000;0.8694;1.6304;
351.3000;0.8702;1.6421;
351.6000;0.8726;1.6351;
351.9000;0.8694;1.6162;
352.2000;0.8710;1.6186;
352.5000;0.8702;1.6233;
352.8000;0.8702;1.6115;
353.1000;0.8702;1.6068;
353.4000;0.8726;1.6068;
353.7000;0.8694;1.6139;
354.0000;0.8685;1.6092;
354.3000;0.8718;1.6257;
354.6000;0.8726;1.6210;
354.9000;0.8710;1.6068;
355.2000;0.8710;1.6068;
355.5000;0.8726;1.5927;
355.8000;0.8710;1.5927;
356.1000;0.8726;1.5974;
356.4000;0.8718;1.6045;
356.7000;0.8751;1.6257;
357.0000;0.8734;1.6233;
357.3000;0.8710;1.6257;
357.6000;0.8718;1.6186;
357.9000;0.8726;1.6139;
358.2000;0.8710;1.6092;
358.5000;0.8710;1.6115;
358.8000;0.8726;1.6115;
359.1000;0.8710;1.6045;
359.4000;0.8702;1.6139;
359.7000;0.8726;1.6162;
360.0000;0.8710;1.6115;
360.3000;0.8726;1.6092;
360.6000;0.8742;1.6115;
360.9000;0.8710;1.6115;
361.2000;0.8694;1.6092;
361.5000;0.8710;1.6045;
361.8000;0.8718;1.6162;
362.1000;0.8702;1.6210;
362.4000;0.8710;1.6186;
362.7000;0.8726;1.6162;
363.0000;0.8718;1.6115;
363.3000;0.8726;1.6115;
363.6000;0.8742;1.6115;
363.9000;0.8661;1.5927;
364.2000;0.8694;1.6068;
364.5000;0.8726;1.6186;
364.8000;0.8710;1.6186;
365.1000;0.8685;1.6115;
365.4000;0.8742;1.6233;
365.7000;0.8694;1.6139;
366.0000;0.8702;1.6162;
366.3000;0.8718;1.6139;
366.6000;0.8702;1.6139;
366.9000;0.8718;1.6186;
367.2000;0.8710;1.6139;
367.5000;0.8669;1.6068;
367.8000;0.8694;1.6210;
368.1000;0.8702;1.6257;
368.4000;0.8702;1.6233;
368.7000;0.8734;1.6304;
369.0000;0.8702;1.6280;
369.3000;0.8694;1.6304;
369.6000;0.8702;1.6351;
369.9000;0.8702;1.6304;
370.2000;0.8742;1.6374;
370.5000;0.8694;1.6280;
370.8000;0.8726;1.6327;
371.1000;0.8694;1.6233;
371.4000;0.8710;1.6162;
371.7000;0.8710;1.6092;
372.0000;0.8702;1.6092;
372.3000;0.8734;1.6139;
372.6000;0.8718;1.6068;
372.9000;0.8702;1.6092;
373.2000;0.8702;1.6162;
373.5000;0.8718;1.6162;
373.8000;0.8726;1.6210;
374.1000;0.8718;1.6162;
374.4000;0.8612;1.5904;
374.7000;0.8710;1.6186;
375.0000;0.8742;1.6233;
375.3000;0.8702;1.6186;
375.6000;0.8702;1.6257;
375.9000;0.8710;1.6304;
376.2000;0.8702;1.6304;
376.5000;0.8710;1.6233;
376.8000;0.8694;1.6233;
377.1000;0.8710;1.6186;
377.4000;0.8710;1.6115;
377.7000;0.8685;1.6139;
378.0000;0.8710;1.6139;
378.3000;0.8718;1.6210;
378.6000;0.8702;1.6210;
378.9000;0.8694;1.6210;
379.2000;0.8702;1.6139;
379.5000;0.8661;1.6092;
379.8000;0.8702;1.6210;
380.1000;0.8702;1.6327;
380.4000;0.8702;1.6280;
380.7000;0.8685;1.6210;
381.0000;0.8694;1.6304;
381.3000;0.8702;1.6304;
381.6000;0.8685;1.6257;
381.9000;0.8694;1.6210;
382.2000;0.8694;1.6162;
382.5000;0.8694;1.6139;
382.8000;0.8694;1.6139;
383.1000;0.8694;1.6092;
383.4000;0.8694;1.6045;
383.7000;0.8694;1.5998;
384.0000;0.8694;1.6115;
384.3000;0.8710;1.6210;
384.6000;0.8645;1.5998;
384.9000;0.8702;1.6186;
385.2000;0.8702;1.6115;
385.5000;0.8702;1.6115;
385.8000;0.8694;1.6115;
386.1000;0.8685;1.6068;
386.4000;0.8759;1.6304;
386.7000;0.8685;1.6186;
387.0000;0.8694;1.6186;
387.3000;0.8710;1.6257;
387.6000;0.8702;1.6233;
387.9000;0.8694;1.6280;
388.2000;0.8685;1.6327;
388.5000;0.8685;1.6233;
388.8000;0.8710;1.6162;
389.1000;0.8791;1.6327;
389.4000;0.8694;1.6186;
389.7000;0.8677;1.6210;
390.0000;0.8685;1.6304;
390.3000;0.8702;1.6257;
390.6000;0.8718;1.6186;
390.9000;0.8677;1.6162;
391.2000;0.8694;1.6186;
391.5000;0.8718;1.6233;
391.8000;0.8685;1.6092;
392.1000;0.8702;1.6139;
392.4000;0.8710;1.6233;
392.7000;0.8710;1.6210;
393.0000;0.8702;1.6162;
393.3000;0.8694;1.6139;
393.6000;0.8702;1.6115;
393.9000;0.8702;1.6092;
394.2000;0.8718;1.6115;
394.5000;0.8677;1.6092;
394.8000;0.8710;1.6068;
395.1000;0.8702;1.6092;
395.4000;0.8718;1.6115;
395.7000;0.8694;1.6068;
396.0000;0.8702;1.6092;
396.3000;0.8694;1.5974;
396.6000;0.8612;1.5833;
396.9000;0.8702;1.6021;
397.2000;0.8694;1.6045;
397.5000;0.8702;1.6115;
397.8000;0.8710;1.6045;
398.1000;0.8718;1.6068;
398.4000;0.8726;1.6068;
398.7000;0.8694;1.6045;
399.0000;0.8710;1.6115;
399.3000;0.8694;1.6186;
399.6000;0.8694;1.6139;
399.9000;0.8694;1.6162;
400.2000;0.8685;1.6092;
400.5000;0.8702;1.6139;
400.8000;0.8710;1.6139;
401.1000;0.8661;1.5951;
401.4000;0.8702;1.5998;
401.7000;0.8702;1.6021;
402.0000;0.8677;1.5998;
402.3000;0.8726;1.5998;
402.6000;0.8685;1.5951;
402.9000;0.8718;1.5998;
403.2000;0.8702;1.5974;
403.5000;0.8685;1.5927;
403.8000;0.8677;1.6045;
404.1000;0.8669;1.6092;
404.4000;0.8685;1.6162;
404.7000;0.8661;1.6210;
405.0000;0.8669;1.6351;
405.3000;0.8677;1.6398;
405.6000;0.8710;1.6398;
405.9000;0.8677;1.6280;
406.2000;0.8685;1.6186;
406.5000;0.8710;1.6210;
406.8000;0.8685;1.6280;
407.1000;0.8685;1.6210;
407.4000;0.8677;1.6045;
407.7000;0.8694;1.6045;
408.0000;0.8726;1.6068;
408.3000;0.8694;1.6021;
408.6000;0.8751;1.6092;
408.9000;0.8677;1.5951;
409.2000;0.8726;1.6162;
409.5000;0.8767;1.6398;
409.8000;0.8661;1.6233;
410.1000;0.8677;1.6210;
410.4000;0.8694;1.6280;
410.7000;0.8685;1.6351;
411.0000;0.8677;1.6374;
411.3000;0.8726;1.6468;
411.6000;0.8677;1.6304;
411.9000;0.8710;1.6327;
412.2000;0.8694;1.6304;
412.5000;0.8677;1.6374;
412.8000;0.8694;1.6515;
413.1000;0.8677;1.6468;
413.4000;0.8685;1.6492;
413.7000;0.8677;1.6492;
414.0000;0.8685;1.6492;
414.3000;0.8669;1.6398;
414.6000;0.8710;1.6398;
414.9000;0.8694;1.6398;
415.2000;0.8669;1.6421;
415.5000;0.8661;1.6351;
415.8000;0.8694;1.6421;
416.1000;0.8685;1.6374;
416.4000;0.8661;1.6374;
416.7000;0.8653;1.6327;
417.0000;0.8669;1.6351;
417.3000;0.8694;1.6351;
417.6000;0.8677;1.6374;
417.9000;0.8677;1.6468;
418.2000;0.8628;1.6398;
418.5000;0.8620;1.6374;
418.8000;0.8677;1.6515;
419.1000;0.8653;1.6562;
419.4000;0.8677;1.6680;
419.7000;0.8612;1.6562;
420.0000;0.8669;1.6633;
420.3000;0.8669;1.6609;
420.6000;0.8669;1.6492;
420.9000;0.8677;1.6445;
421.2000;0.8677;1.6468;
421.5000;0.8653;1.6351;
421.8000;0.8694;1.6398;
422.1000;0.8677;1.6327;
422.4000;0.8685;1.6398;
422.7000;0.8653;1.6327;
423.0000;0.8653;1.6327;
423.3000;0.8677;1.6374;
423.6000;0.8645;1.6327;
423.9000;0.8669;1.6374;
424.2000;0.8685;1.6398;
424.5000;0.8677;1.6304;
424.8000;0.8710;1.6445;
425.1000;0.8742;1.6421;
425.4000;0.8677;1.6351;
425.7000;0.8694;1.6351;
426.0000;0.8677;1.6257;
426.3000;0.8669;1.6186;
426.6000;0.8685;1.6092;
426.9000;0.8677;1.6115;
427.2000;0.8669;1.6139;
427.5000;0.8694;1.6257;
427.8000;0.8685;1.6327;
428.1000;0.8685;1.6304;
428.4000;0.8685;1.6257;
428.7000;0.8702;1.6257;
429.0000;0.8726;1.6257;
429.3000;0.8645;1.5974;
429.6000;0.8669;1.6068;
429.9000;0.8718;1.6139;
430.2000;0.8645;1.5974;
430.5000;0.8685;1.6021;
430.8000;0.8669;1.6092;
431.1000;0.8669;1.6186;
431.4000;0.8669;1.6139;
431.7000;0.8677;1.6115;
432.0000;0.8677;1.6162;
432.3000;0.8677;1.6257;
432.6000;0.8685;1.6304;
432.9000;0.8685;1.6351;
433.2000;0.8677;1.6304;
433.5000;0.8685;1.6304;
433.8000;0.8694;1.6280;
434.1000;0.8653;1.6115;
434.4000;0.8669;1.6115;
434.7000;0.8685;1.6162;
435.0000;0.8677;1.6257;
435.3000;0.8661;1.6257;
435.6000;0.8677;1.6210;
435.9000;0.8661;1.6162;
436.2000;0.8661;1.6210;
436.5000;0.8685;1.6233;
436.8000;0.8661;1.6162;
437.1000;0.8669;1.6045;
437.4000;0.8661;1.6021;
437.7000;0.8645;1.5951;
438.0000;0.8653;1.5998;
438.3000;0.8677;1.6115;
438.6000;0.8653;1.6139;
438.9000;0.8677;1.6092;
439.2000;0.8661;1.6045;
439.5000;0.8669;1.6092;
439.8000;0.8661;1.6186;
440.1000;0.8669;1.6162;
440.4000;0.8661;1.6162;
440.7000;0.8669;1.6210;
441.0000;0.8677;1.6186;
441.3000;0.8669;1.6092;
441.6000;0.8685;1.6115;
441.9000;0.8661;1.6115;
442.2000;0.8612;1.6045;
442.5000;0.8661;1.6162;
442.8000;0.8661;1.6162;
443.1000;0.8637;1.6139;
443.4000;0.8669;1.6186;
443.7000;0.8669;1.6139;
444.0000;0.8669;1.6210;
444.3000;0.8669;1.6233;
444.6000;0.8669;1.6280;
444.9000;0.8677;1.6421;
445.2000;0.8661;1.6398;
445.5000;0.8677;1.6374;
445.8000;0.8677;1.6351;
446.1000;0.8661;1.6351;
446.4000;0.8677;1.6374;
446.7000;0.8669;1.6233;
447.0000;0.8669;1.6186;
447.3000;0.8677;1.6233;
447.6000;0.8661;1.6304;
447.9000;0.8710;1.6327;
448.2000;0.8751;1.6445;
448.5000;0.8661;1.6257;
448.8000;0.8669;1.6280;
449.1000;0.8702;1.6374;
449.4000;0.8677;1.6351;
449.7000;0.8669;1.6327;
450.0000;0.8726;1.6468;
450.3000;0.8669;1.6398;
450.6000;0.8669;1.6327;
450.9000;0.8653;1.6304;
451.2000;0.8637;1.6280;
451.5000;0.8669;1.6398;
451.8000;0.8661;1.6398;
452.1000;0.8661;1.6374;
452.4000;0.8661;1.6327;
452.7000;0.8669;1.6327;
453.0000;0.8677;1.6304;
453.3000;0.8669;1.6351;
453.6000;0.8661;1.6351;
453.9000;0.8669;1.6351;
454.2000;0.8677;1.6421;
454.5000;0.8669;1.6398;
454.8000;0.8661;1.6398;
455.1000;0.8653;1.6327;
455.4000;0.8661;1.6304;
455.7000;0.8653;1.6280;
456.0000;0.8661;1.6233;
456.3000;0.8669;1.6210;
456.6000;0.8645;1.6139;
456.9000;0.8677;1.6233;
457.2000;0.8661;1.6210;
457.5000;0.8661;1.6186;
457.8000;0.8661;1.6186;
458.1000;0.8677;1.6186;
458.4000;0.8653;1.6210;
458.7000;0.8661;1.6210;
459.0000;0.8661;1.6233;
459.3000;0.8677;1.6162;
459.6000;0.8677;1.6162;
459.9000;0.8661;1.6139;
460.2000;0.8669;1.6186;
460.5000;0.8677;1.6186;
460.8000;0.8669;1.6210;
461.1000;0.8669;1.6162;
461.4000;0.8653;1.6115;
461.7000;0.8661;1.6092;
462.0000;0.8661;1.6045;
462.3000;0.8669;1.5974;
462.6000;0.8653;1.5998;
462.9000;0.8677;1.5998;
463.2000;0.8596;1.5857;
463.5000;0.8661;1.6092;
463.8000;0.8669;1.6139;
464.1000;0.8669;1.6139;
464.4000;0.8726;1.6257;
464.7000;0.8677;1.6233;
465.0000;0.8653;1.6162;
465.3000;0.8661;1.6115;
465.6000;0.8677;1.6162;
465.9000;0.8661;1.6115;
466.2000;0.8677;1.6162;
466.5000;0.8661;1.6115;
466.8000;0.8653;1.6162;
467.1000;0.8645;1.6210;
467.4000;0.8645;1.6115;
467.7000;0.8645;1.6162;
468.0000;0.8645;1.6139;
468.3000;0.8628;1.6139;
468.6000;0.8661;1.6186;
468.9000;0.8661;1.6139;
469.2000;0.8669;1.6115;
469.5000;0.8661;1.6021;
469.8000;0.8677;1.5998;
470.1000;0.8661;1.5927;
470.4000;0.8628;1.5927;
470.7000;0.8661;1.6092;
471.0000;0.8661;1.6162;
471.3000;0.8653;1.6115;
471.6000;0.8661;1.6068;
471.9000;0.8653;1.5998;
472.2000;0.8661;1.5998;
472.5000;0.8645;1.6045;
472.8000;0.8637;1.5927;
473.1000;0.8653;1.5904;
473.4000;0.8661;1.5904;
473.7000;0.8661;1.5810;
474.0000;0.8645;1.5857;
474.3000;0.8645;1.5904;
474.6000;0.8661;1.5880;
474.9000;0.8653;1.5810;
475.2000;0.8645;1.5880;
475.5000;0.8661;1.5951;
475.8000;0.8661;1.6021;
476.1000;0.8628;1.5974;
476.4000;0.8669;1.5998;
476.7000;0.8563;1.5833;
477.0000;0.8669;1.5998;
477.3000;0.8661;1.5974;
477.6000;0.8645;1.5974;
477.9000;0.8637;1.5927;
478.2000;0.8653;1.5974;
478.5000;0.8661;1.5974;
478.8000;0.8645;1.5904;
479.1000;0.8645;1.5927;
479.4000;0.8661;1.5951;
479.7000;0.8669;1.5904;
480.0000;0.8661;1.5904;
480.3000;0.8653;1.5857;
480.6000;0.8669;1.6045;
480.9000;0.8661;1.6021;
481.2000;0.8637;1.6045;
481.5000;0.8637;1.6068;
481.8000;0.8628;1.6021;
482.1000;0.8661;1.6092;
482.4000;0.8661;1.6115;
482.7000;0.8620;1.5998;
483.0000;0.8702;1.6257;
483.3000;0.8653;1.6115;
483.6000;0.8710;1.6280;
483.9000;0.8637;1.6162;
484.2000;0.8645;1.6162;
484.5000;0.8628;1.6092;
484.8000;0.8702;1.6233;
485.1000;0.8661;1.6115;
485.4000;0.8645;1.6162;
485.7000;0.8661;1.6233;
486.0000;0.8661;1.6280;
486.3000;0.8661;1.6257;
486.6000;0.8653;1.6186;
486.9000;0.8637;1.6068;
487.2000;0.8669;1.6139;
487.5000;0.8661;1.6210;
487.8000;0.8742;1.6492;
488.1000;0.8653;1.6186;
488.4000;0.8661;1.6210;
488.7000;0.8645;1.6139;
489.0000;0.8661;1.6162;
489.3000;0.8628;1.6092;
489.6000;0.8661;1.6186;
489.9000;0.8628;1.6115;
490.2000;0.8637;1.6162;
490.5000;0.8677;1.6257;
490.8000;0.8653;1.6233;
491.1000;0.8669;1.6233;
491.4000;0.8677;1.6210;
491.7000;0.8669;1.6210;
492.0000;0.8669;1.6162;
492.3000;0.8677;1.6092;
492.6000;0.8645;1.6021;
492.9000;0.8653;1.6045;
493.2000;0.8645;1.6092;
493.5000;0.8661;1.6162;
493.8000;0.8571;1.5998;
494.1000;0.8645;1.6210;
494.4000;0.8661;1.6257;
494.7000;0.8669;1.6280;
495.0000;0.8669;1.6327;
495.3000;0.8637;1.6210;
495.6000;0.8653;1.6233;
495.9000;0.8661;1.6186;
496.2000;0.8669;1.6233;
496.5000;0.8669;1.6162;
496.8000;0.8653;1.6092;
497.1000;0.8653;1.6092;
497.4000;0.8661;1.6162;
497.7000;0.8637;1.6139;
498.0000;0.8685;1.6233;
498.3000;0.8637;1.6092;
498.6000;0.8677;1.6162;
498.9000;0.8669;1.6210;
499.2000;0.8669;1.6210;
499.5000;0.8653;1.6210;
499.8000;0.8653;1.6210;
500.1000;0.8677;1.6280;
500.4000;0.8702;1.6280;
500.7000;0.8596;1.6045;
501.0000;0.8645;1.6327;
501.3000;0.8702;1.6492;
501.6000;0.8669;1.6398;
501.9000;0.8645;1.6421;
502.2000;0.8669;1.6468;
502.5000;0.8628;1.6421;
502.8000;0.8653;1.6445;
503.1000;0.8653;1.6445;
503.4000;0.8661;1.6445;
503.7000;0.8726;1.6562;
504.0000;0.8661;1.6398;
504.3000;0.8694;1.6374;
504.6000;0.8677;1.6398;
504.9000;0.8685;1.6280;
505.2000;0.8604;1.6021;
505.5000;0.8775;1.6539;
505.8000;0.8604;1.6139;
506.1000;0.8539;1.5951;
506.4000;0.8531;1.6021;
506.7000;0.8588;1.6139;
507.0000;0.8653;1.6304;
507.3000;0.8645;1.6327;
507.6000;0.8547;1.6139;
507.9000;0.8637;1.6233;
508.2000;0.8653;1.6257;
508.5000;0.8661;1.6280;
508.8000;0.8653;1.6280;
509.1000;0.8661;1.6374;
509.4000;0.8637;1.6257;
509.7000;0.8620;1.6162;
510.0000;0.8653;1.6304;
510.3000;0.8653;1.6398;
510.6000;0.8759;1.6704;
510.9000;0.8637;1.6445;
511.2000;0.8653;1.6445;
511.5000;0.8710;1.6539;
511.8000;0.8694;1.6468;
512.1000;0.8669;1.6280;
512.4000;0.8620;1.6139;
512.7000;0.8710;1.6374;
513.0000;0.8661;1.6162;
513.3000;0.8628;1.6139;
513.6000;0.8637;1.6092;
513.9000;0.8637;1.6115;
514.2000;0.8645;1.6162;
514.5000;0.8555;1.5904;
514.8000;0.8604;1.5974;
515.1000;0.8637;1.5974;
515.4000;0.8612;1.5904;
515.7000;0.8710;1.6210;
516.0000;0.8637;1.6045;
516.3000;0.8637;1.5951;
516.6000;0.8588;1.5880;
516.9000;0.8637;1.6092;
517.2000;0.8580;1.5998;
517.5000;0.8628;1.6092;
517.8000;0.8596;1.6068;
518.1000;0.8653;1.6115;
518.4000;0.8669;1.6068;
518.7000;0.8612;1.5927;
519.0000;0.8661;1.6068;
519.3000;0.8637;1.5974;
519.6000;0.8612;1.5857;
519.9000;0.8637;1.5880;
520.2000;0.8628;1.5974;
520.5000;0.8628;1.6021;
520.8000;0.8661;1.6092;
521.1000;0.8637;1.6092;
521.4000;0.8694;1.6351;
521.7000;0.8596;1.6092;
522.0000;0.8661;1.6233;
522.3000;0.8628;1.6045;
522.6000;0.8645;1.6092;
522.9000;0.8637;1.6139;
523.2000;0.8669;1.6257;
523.5000;0.8661;1.6351;
523.8000;0.8645;1.6327;
524.1000;0.8645;1.6445;
524.4000;0.8628;1.6421;
524.7000;0.8628;1.6468;
525.0000;0.8645;1.6515;
525.3000;0.8620;1.6515;
525.6000;0.8620;1.6562;
525.9000;0.8645;1.6468;
526.2000;0.8645;1.6421;
526.5000;0.8685;1.6492;
526.8000;0.8661;1.6421;
527.1000;0.8661;1.6351;
527.4000;0.8628;1.6233;
527.7000;0.8661;1.6257;
528.0000;0.8653;1.6233;
528.3000;0.8669;1.6304;
528.6000;0.8637;1.6115;
528.9000;0.8637;1.6233;
529.2000;0.8710;1.6374;
529.5000;0.8661;1.6186;
529.8000;0.8637;1.6186;
530.1000;0.8637;1.6210;
530.4000;0.8596;1.6115;
530.7000;0.8604;1.6186;
531.0000;0.8653;1.6374;
531.3000;0.8645;1.6257;
531.6000;0.8637;1.6210;
531.9000;0.8637;1.6233;
532.2000;0.8653;1.6280;
532.5000;0.8637;1.6280;
532.8000;0.8645;1.6233;
533.1000;0.8734;1.6445;
533.4000;0.8653;1.6257;
533.7000;0.8628;1.6280;
534.0000;0.8628;1.6280;
534.3000;0.8628;1.6304;
534.6000;0.8645;1.6351;
534.9000;0.8637;1.6421;
535.2000;0.8628;1.6398;
535.5000;0.8645;1.6374;
535.8000;0.8628;1.6257;
536.1000;0.8637;1.6233;
536.4000;0.8653;1.6280;
536.7000;0.8620;1.6186;
537.0000;0.8645;1.6257;
537.3000;0.8628;1.6210;
537.6000;0.8710;1.6257;
537.9000;0.8645;1.6139;
538.2000;0.8645;1.6115;
538.5000;0.8628;1.6021;
538.8000;0.8637;1.6115;
539.1000;0.8612;1.6021;
539.4000;0.8661;1.6115;
539.7000;0.8620;1.6162;
540.0000;0.8645;1.6257;
540.3000;0.8653;1.6280;
540.6000;0.8653;1.6280;
540.9000;0.8645;1.6186;
541.2000;0.8677;1.6233;
541.5000;0.8637;1.6186;
541.8000;0.8661;1.6304;
542.1000;0.8653;1.6233;
542.4000;0.8661;1.6210;
542.7000;0.8612;1.6162;
543.0000;0.8620;1.6186;
543.3000;0.8628;1.6280;
543.6000;0.8620;1.6280;
543.9000;0.8645;1.6210;
544.2000;0.8628;1.6162;
544.5000;0.8637;1.6139;
544.8000;0.8653;1.6210;
545.1000;0.8628;1.6139;
545.4000;0.8653;1.6280;
545.7000;0.8596;1.6139;
546.0000;0.8628;1.6115;
546.3000;0.8637;1.6139;
546.6000;0.8620;1.6162;
546.9000;0.8653;1.6304;
547.2000;0.8718;1.6374;
547.5000;0.8645;1.6210;
547.8000;0.8702;1.6280;
548.1000;0.8628;1.6186;
548.4000;0.8628;1.6139;
548.7000;0.8645;1.6068;
549.0000;0.8645;1.6139;
549.3000;0.8637;1.5998;
549.6000;0.8637;1.5974;
549.9000;0.8637;1.5998;
550.2000;0.8637;1.6021;
550.5000;0.8645;1.5998;
550.8000;0.8637;1.5951;
551.1000;0.8628;1.5951;
551.4000;0.8645;1.5951;
551.7000;0.8628;1.5857;
552.0000;0.8620;1.5927;
552.3000;0.8645;1.6021;
552.6000;0.8628;1.6045;
552.9000;0.8645;1.6115;
553.2000;0.8628;1.6139;
553.5000;0.8637;1.6068;
553.8000;0.8645;1.6139;
554.1000;0.8677;1.6186;
554.4000;0.8637;1.6162;
554.7000;0.8620;1.6162;
555.0000;0.8645;1.6233;
555.3000;0.8645;1.6162;
555.6000;0.8653;1.6092;
555.9000;0.8637;1.6092;
556.2000;0.8628;1.6092;
556.5000;0.8645;1.6115;
556.8000;0.8628;1.6045;
557.1000;0.8628;1.6139;
557.4000;0.8645;1.6186;
557.7000;0.8645;1.6186;
558.0000;0.8645;1.6210;
558.3000;0.8637;1.6257;
558.6000;0.8620;1.6210;
558.9000;0.8645;1.6257;
559.2000;0.8620;1.6186;
559.5000;0.8620;1.6092;
559.8000;0.8612;1.6162;
560.1000;0.8653;1.6186;
560.4000;0.8637;1.6257;
560.7000;0.8628;1.6257;
561.0000;0.8628;1.6304;
561.3000;0.8637;1.6257;
561.6000;0.8637;1.6280;
561.9000;0.8645;1.6257;
562.2000;0.8661;1.6280;
562.5000;0.8637;1.6233;
562.8000;0.8645;1.6233;
563.1000;0.8596;1.6092;
563.4000;0.8620;1.6115;
563.7000;0.8628;1.6139;
564.0000;0.8653;1.6162;
564.3000;0.8653;1.6162;
564.6000;0.8628;1.6162;
564.9000;0.8628;1.6045;
565.2000;0.8669;1.6162;
565.5000;0.8637;1.6139;
565.8000;0.8620;1.6045;
566.1000;0.8596;1.6021;
566.4000;0.8637;1.6162;
566.7000;0.8637;1.6210;
567.0000;0.8628;1.6162;
567.3000;0.8620;1.6162;
567.6000;0.8653;1.6186;
567.9000;0.8637;1.6280;
568.2000;0.8628;1.6351;
568.5000;0.8628;1.6374;
568.8000;0.8637;1.6233;
569.1000;0.8645;1.6257;
569.4000;0.8645;1.6233;
569.7000;0.8645;1.6257;
570.0000;0.8604;1.6092;
570.3000;0.8637;1.6162;
570.6000;0.8620;1.6139;
570.9000;0.8637;1.6092;
571.2000;0.8653;1.6139;
571.5000;0.8628;1.6162;
571.8000;0.8637;1.6139;
572.1000;0.8637;1.6092;
572.4000;0.8620;1.6021;
572.7000;0.8628;1.5927;
573.0000;0.8628;1.5857;
573.3000;0.8637;1.5927;
573.6000;0.8628;1.5904;
573.9000;0.8645;1.6021;
574.2000;0.8637;1.6021;
574.5000;0.8653;1.6115;
574.8000;0.8645;1.6139;
575.1000;0.8637;1.6045;
575.4000;0.8637;1.6045;
575.7000;0.8645;1.6021;
576.0000;0.8637;1.6045;
576.3000;0.8620;1.5974;
576.6000;0.8628;1.6021;
576.9000;0.8645;1.6045;
577.2000;0.8620;1.5974;
577.5000;0.8637;1.6092;
577.8000;0.8628;1.6092;
578.1000;0.8645;1.6045;
578.4000;0.8637;1.6021;
578.7000;0.8628;1.5927;
579.0000;0.8620;1.5951;
579.3000;0.8637;1.5927;
579.6000;0.8637;1.5927;
579.9000;0.8628;1.5904;
580.2000;0.8620;1.5927;
580.5000;0.8620;1.5998;
580.8000;0.8637;1.6045;
581.1000;0.8612;1.6115;
581.4000;0.8637;1.6115;
581.7000;0.8620;1.6115;
582.0000;0.8637;1.6186;
582.3000;0.8628;1.6210;
582.6000;0.8645;1.6304;
582.9000;0.8628;1.6233;
583.2000;0.8637;1.6233;
583.5000;0.8645;1.6186;
583.8000;0.8628;1.6162;
584.1000;0.8620;1.6115;
584.4000;0.8637;1.6092;
584.7000;0.8612;1.6068;
585.0000;0.8645;1.6139;
585.3000;0.8628;1.6092;
585.6000;0.8645;1.6139;
585.9000;0.8645;1.6162;
586.2000;0.8669;1.6233;
586.5000;0.8628;1.6139;
586.8000;0.8628;1.6092;
587.1000;0.8628;1.6139;
587.4000;0.8620;1.6115;
587.7000;0.8661;1.6257;
588.0000;0.8620;1.6186;
588.3000;0.8637;1.6257;
588.6000;0.8628;1.6233;
588.9000;0.8628;1.6280;
589.2000;0.8653;1.6304;
589.5000;0.8612;1.6210;
589.8000;0.8661;1.6351;
590.1000;0.8637;1.6233;
590.4000;0.8702;1.6374;
590.7000;0.8596;1.6139;
591.0000;0.8637;1.6398;
591.3000;0.8620;1.6327;
591.6000;0.8604;1.6304;
591.9000;0.8612;1.6398;
592.2000;0.8612;1.6398;
592.5000;0.8685;1.6492;
592.8000;0.8580;1.6162;
593.1000;0.8612;1.6233;
593.4000;0.8734;1.6445;
593.7000;0.8637;1.6233;
594.0000;0.8620;1.6257;
594.3000;0.8596;1.6280;
594.6000;0.8628;1.6304;
594.9000;0.8628;1.6327;
595.2000;0.8628;1.6351;
595.5000;0.8620;1.6327;
595.8000;0.8637;1.6280;
596.1000;0.8637;1.6257;
596.4000;0.8628;1.6327;
596.7000;0.8620;1.6233;
597.0000;0.8628;1.6233;
597.3000;0.8604;1.6233;
597.6000;0.8620;1.6280;
597.9000;0.8604;1.6257;
598.2000;0.8620;1.6210;
598.5000;0.8580;1.6162;
598.8000;0.8628;1.6210;
599.1000;0.8612;1.6210;
599.4000;0.8620;1.6162;
599.7000;0.8628;1.6162;
600.0000;0.8645;1.6115;
600.3000;0.8571;1.5833;
600.6000;0.8531;1.5715;
600.9000;0.8433;1.5645;
601.2000;0.8344;1.5574;
601.5000;0.8173;1.5292;
601.8000;0.8034;1.5080;
602.1000;0.7904;1.4986;
602.4000;0.7782;1.4727;
602.7000;0.7725;1.4704;
603.0000;0.7578;1.4374;
603.3000;0.7440;1.4163;
603.6000;0.7383;1.3998;
603.9000;0.7261;1.3786;
604.2000;0.7212;1.3645;
604.5000;0.7114;1.3480;
604.8000;0.7066;1.3480;
605.1000;0.7009;1.3386;
605.4000;0.6911;1.3245;
605.7000;0.6911;1.3316;
606.0000;0.6838;1.3222;
606.3000;0.6797;1.3104;
606.6000;0.6797;1.3198;
606.9000;0.6683;1.2939;
607.2000;0.6650;1.2892;
607.5000;0.6561;1.2798;
607.8000;0.6536;1.2728;
608.1000;0.6504;1.2751;
608.4000;0.6471;1.2751;
608.7000;0.6439;1.2822;
609.0000;0.6414;1.2681;
609.3000;0.6390;1.2634;
609.6000;0.6341;1.2492;
609.9000;0.6292;1.2398;
610.2000;0.6341;1.2539;
610.5000;0.6186;1.2234;
610.8000;0.6219;1.2257;
611.1000;0.6178;1.2234;
611.4000;0.6113;1.2069;
611.7000;0.6121;1.2187;
612.0000;0.6089;1.2187;
612.3000;0.6064;1.2257;
612.6000;0.6048;1.2210;
612.9000;0.6072;1.2257;
613.2000;0.5926;1.1881;
613.5000;0.6032;1.2257;
613.8000;0.5934;1.1975;
614.1000;0.5967;1.2045;
614.4000;0.5885;1.1881;
614.7000;0.5918;1.1857;
615.0000;0.5869;1.1834;
615.3000;0.5926;1.1951;
615.6000;0.5869;1.1810;
615.9000;0.5845;1.1787;
616.2000;0.5812;1.1645;
616.5000;0.5747;1.1528;
616.8000;0.5869;1.1881;
617.1000;0.5763;1.1645;
617.4000;0.5731;1.1692;
617.7000;0.5731;1.1669;
618.0000;0.5731;1.1692;
618.3000;0.5690;1.1669;
618.6000;0.5739;1.1810;
618.9000;0.5682;1.1763;
619.2000;0.5617;1.1645;
619.5000;0.5649;1.1787;
619.8000;0.5641;1.1834;
620.1000;0.5608;1.1834;
620.4000;0.5608;1.1716;
620.7000;0.5608;1.1787;
621.0000;0.5649;1.1787;
621.3000;0.5495;1.1504;
621.6000;0.5584;1.1716;
621.9000;0.5600;1.1763;
622.2000;0.5462;1.1410;
622.5000;0.5560;1.1598;
622.8000;0.5519;1.1528;
623.1000;0.5421;1.1363;
623.4000;0.5519;1.1645;
623.7000;0.5527;1.1622;
624.0000;0.5503;1.1622;
624.3000;0.5438;1.1504;
624.6000;0.5486;1.1740;
624.9000;0.5429;1.1645;
625.2000;0.5478;1.1716;
625.5000;0.5470;1.1692;
625.8000;0.5429;1.1528;
626.1000;0.5429;1.1598;
626.4000;0.5446;1.1669;
626.7000;0.5413;1.1669;
627.0000;0.5389;1.1622;
627.3000;0.5397;1.1692;
627.6000;0.5397;1.1740;
627.9000;0.5356;1.1740;
628.2000;0.5397;1.1834;
628.5000;0.5372;1.1810;
628.8000;0.5381;1.1834;
629.1000;0.5381;1.1904;
629.4000;0.5324;1.1740;
629.7000;0.5324;1.1692;
630.0000;0.5356;1.1669;
630.3000;0.5356;1.1692;
630.6000;0.5356;1.1810;
630.9000;0.5332;1.1787;
631.2000;0.5324;1.1692;
631.5000;0.5381;1.1763;
631.8000;0.5332;1.1716;
632.1000;0.5356;1.1787;
632.4000;0.5340;1.1763;
632.7000;0.5421;1.2045;
633.0000;0.5324;1.1787;
633.3000;0.5299;1.1716;
633.6000;0.5291;1.1669;
633.9000;0.5291;1.1692;
634.2000;0.5234;1.1528;
634.5000;0.5283;1.1645;
634.8000;0.5291;1.1692;
635.1000;0.5267;1.1622;
635.4000;0.5210;1.1434;
635.7000;0.5267;1.1669;
636.0000;0.5250;1.1692;
636.3000;0.5226;1.1692;
636.6000;0.5299;1.1904;
636.9000;0.5258;1.1881;
637.2000;0.5258;1.1810;
637.5000;0.5201;1.1622;
637.8000;0.5218;1.1669;
638.1000;0.5250;1.1716;
638.4000;0.5218;1.1669;
638.7000;0.5153;1.1434;
639.0000;0.5201;1.1551;
639.3000;0.5210;1.1481;
639.6000;0.5169;1.1457;
639.9000;0.5144;1.1434;
640.2000;0.5210;1.1622;
640.5000;0.5177;1.1716;
640.8000;0.5201;1.1763;
641.1000;0.5136;1.1551;
641.4000;0.5210;1.1810;
641.7000;0.5079;1.1551;
642.0000;0.5242;1.1881;
642.3000;0.5177;1.1692;
642.6000;0.5169;1.1740;
642.9000;0.5169;1.1716;
643.2000;0.5210;1.1763;
643.5000;0.5169;1.1645;
643.8000;0.5169;1.1598;
644.1000;0.5153;1.1598;
644.4000;0.5250;1.1834;
644.7000;0.5136;1.1645;
645.0000;0.5144;1.1740;
645.3000;0.5088;1.1645;
645.6000;0.5136;1.1692;
645.9000;0.5153;1.1810;
646.2000;0.5210;1.1951;
646.5000;0.5104;1.1692;
646.8000;0.5128;1.1716;
647.1000;0.5120;1.1692;
647.4000;0.5136;1.1740;
647.7000;0.5136;1.1740;
648.0000;0.5120;1.1692;
648.3000;0.5112;1.1716;
648.6000;0.5104;1.1692;
648.9000;0.5088;1.1669;
649.2000;0.5104;1.1669;
649.5000;0.5088;1.1669;
649.8000;0.5088;1.1692;
650.1000;0.5104;1.1810;
650.4000;0.5071;1.1740;
650.7000;0.5079;1.1810;
651.0000;0.5079;1.1857;
651.3000;0.5088;1.1857;
651.6000;0.5079;1.1763;
651.9000;0.5096;1.1834;
652.2000;0.5079;1.1881;
652.5000;0.5079;1.1834;
652.8000;0.5047;1.1763;
653.1000;0.5071;1.1834;
653.4000;0.5047;1.1740;
653.7000;0.5014;1.1598;
654.0000;0.5047;1.1740;
654.3000;0.5022;1.1669;
654.6000;0.5071;1.1881;
654.9000;0.5047;1.1716;
655.2000;0.5047;1.1787;
655.5000;0.5047;1.1763;
655.8000;0.5031;1.1716;
656.1000;0.5055;1.1857;
656.4000;0.5039;1.1857;
656.7000;0.5047;1.1787;
657.0000;0.5031;1.1669;
657.3000;0.5031;1.1598;
657.6000;0.5006;1.1622;
657.9000;0.5039;1.1740;
658.2000;0.5031;1.1645;
658.5000;0.5031;1.1622;
658.8000;0.4998;1.1669;
659.1000;0.5022;1.1669;
659.4000;0.5047;1.1740;
659.7000;0.5047;1.1669;
660.0000;0.5031;1.1740;
660.3000;0.5014;1.1763;
660.6000;0.4990;1.1763;
660.9000;0.5014;1.1810;
661.2000;0.5006;1.1787;
661.5000;0.5006;1.1787;
661.8000;0.5006;1.1834;
662.1000;0.4965;1.1810;
662.4000;0.4990;1.1904;
662.7000;0.5079;1.2092;
663.0000;0.4990;1.1810;
663.3000;0.4982;1.1857;
663.6000;0.4974;1.1881;
663.9000;0.4974;1.1857;
664.2000;0.4974;1.1787;
664.5000;0.4998;1.1787;
664.8000;0.4957;1.1763;
665.1000;0.4974;1.1763;
665.4000;0.4974;1.1787;
665.7000;0.5022;1.1810;
666.0000;0.4965;1.1692;
666.3000;0.4949;1.1716;
666.6000;0.4990;1.1716;
666.9000;0.4949;1.1669;
667.2000;0.4957;1.1716;
667.5000;0.4965;1.1763;
667.8000;0.4974;1.1834;
668.1000;0.4965;1.1834;
668.4000;0.4957;1.1763;
668.7000;0.4949;1.1763;
669.0000;0.4990;1.1857;
669.3000;0.4949;1.1787;
669.6000;0.4917;1.1810;
669.9000;0.4900;1.1763;
670.2000;0.4949;1.1928;
670.5000;0.4941;1.1881;
670.8000;0.4941;1.1740;
671.1000;0.4925;1.1740;
671.4000;0.4917;1.1622;
671.7000;0.4933;1.1740;
672.0000;0.4925;1.1810;
672.3000;0.4925;1.1834;
672.6000;0.4949;1.1928;
672.9000;0.4933;1.1881;
673.2000;0.4933;1.1763;
673.5000;0.4908;1.1692;
673.8000;0.4933;1.1810;
674.1000;0.4933;1.1857;
674.4000;0.4933;1.1834;
674.7000;0.4884;1.1669;
675.0000;0.4900;1.1763;
675.3000;0.4925;1.1740;
675.6000;0.4925;1.1740;
675.9000;0.4917;1.1645;
676.2000;0.4900;1.1716;
676.5000;0.4900;1.1716;
676.8000;0.4917;1.1740;
677.1000;0.4900;1.1763;
677.4000;0.4908;1.1810;
677.7000;0.4925;1.1904;
678.0000;0.4917;1.1998;
678.3000;0.4892;1.1928;
678.6000;0.4933;1.1928;
678.9000;0.4900;1.1904;
679.2000;0.4908;1.1928;
679.5000;0.4900;1.1928;
679.8000;0.4884;1.1928;
680.1000;0.4908;1.2022;
680.4000;0.4917;1.2022;
680.7000;0.4892;1.1928;
681.0000;0.4851;1.1740;
681.3000;0.4876;1.1787;
681.6000;0.4892;1.1810;
681.9000;0.4876;1.1787;
682.2000;0.4860;1.1763;
682.5000;0.4868;1.1740;
682.8000;0.4876;1.1692;
683.1000;0.4884;1.1669;
683.4000;0.4892;1.1669;
683.7000;0.4876;1.1692;
684.0000;0.4884;1.1669;
684.3000;0.4843;1.1504;
684.6000;0.4884;1.1669;
684.9000;0.4868;1.1787;
685.2000;0.4876;1.1787;
685.5000;0.4884;1.1928;
685.8000;0.4868;1.1881;
686.1000;0.4851;1.1904;
686.4000;0.4860;1.1904;
686.7000;0.4868;1.1928;
687.0000;0.4868;1.1810;
687.3000;0.4868;1.1810;
687.6000;0.4811;1.1692;
687.9000;0.4851;1.1810;
688.2000;0.4868;1.1810;
688.5000;0.4868;1.1881;
688.8000;0.4843;1.1904;
689.1000;0.4851;1.1975;
689.4000;0.4819;1.1951;
689.7000;0.4851;1.2116;
690.0000;0.4835;1.2116;
690.3000;0.4835;1.2069;
690.6000;0.4860;1.2092;
690.9000;0.4843;1.2045;
691.2000;0.4827;1.1998;
691.5000;0.4851;1.2045;
691.8000;0.4860;1.2045;
692.1000;0.4884;1.2069;
692.4000;0.4851;1.1975;
692.7000;0.4868;1.2045;
693.0000;0.4860;1.2069;
693.3000;0.4868;1.2139;
693.6000;0.4835;1.2116;
693.9000;0.4827;1.2139;
694.2000;0.4811;1.2045;
694.5000;0.4819;1.2022;
694.8000;0.4827;1.2069;
695.1000;0.4827;1.2092;
695.4000;0.4827;1.2092;
695.7000;0.4827;1.2045;
696.0000;0.4827;1.2069;
696.3000;0.4803;1.2022;
696.6000;0.4819;1.1975;
696.9000;0.4819;1.1975;
697.2000;0.4835;1.1975;
697.5000;0.4819;1.1857;
697.8000;0.4803;1.1763;
698.1000;0.4827;1.1716;
698.4000;0.4794;1.1645;
698.7000;0.4819;1.1740;
699.0000;0.4819;1.1787;
699.3000;0.4794;1.1740;
699.6000;0.4819;1.1857;
699.9000;0.4803;1.1787;
700.2000;0.4827;1.1928;
700.5000;0.4786;1.1928;
700.8000;0.4803;1.1951;
701.1000;0.4811;1.1951;
701.4000;0.4786;1.1904;
701.7000;0.4803;1.1998;
702.0000;0.4803;1.1998;
702.3000;0.4819;1.1998;
702.6000;0.4794;1.1951;
702.9000;0.4794;1.1857;
703.2000;0.4794;1.1787;
703.5000;0.4811;1.1834;
703.8000;0.4803;1.1928;
704.1000;0.4843;1.2069;
704.4000;0.4786;1.1951;
704.7000;0.4794;1.1975;
705.0000;0.4803;1.1975;
705.3000;0.4811;1.1998;
705.6000;0.4786;1.1951;
705.9000;0.4794;1.1975;
706.2000;0.4786;1.2045;
706.5000;0.4786;1.2092;
706.8000;0.4803;1.2045;
707.1000;0.4794;1.2045;
707.4000;0.4794;1.2045;
707.7000;0.4794;1.1951;
708.0000;0.4770;1.1951;
708.3000;0.4754;1.1834;
708.6000;0.4819;1.1998;
708.9000;0.4786;1.1928;
709.2000;0.4778;1.1928;
709.5000;0.4786;1.1951;
709.8000;0.4778;1.1928;
710.1000;0.4770;1.1834;
710.4000;0.4778;1.1763;
710.7000;0.4697;1.1551;
711.0000;0.4827;1.1881;
711.3000;0.4762;1.1857;
711.6000;0.4778;1.1857;
711.9000;0.4754;1.1881;
712.2000;0.4770;1.1881;
712.5000;0.4770;1.1951;
712.8000;0.4754;1.1904;
713.1000;0.4762;1.1881;
713.4000;0.4762;1.1928;
713.7000;0.4754;1.1951;
714.0000;0.4770;1.1975;
714.3000;0.4754;1.2022;
714.6000;0.4746;1.2092;
714.9000;0.4770;1.2116;
715.2000;0.4778;1.2092;
715.5000;0.4746;1.1928;
715.8000;0.4762;1.1951;
716.1000;0.4770;1.1951;
716.4000;0.4737;1.1881;
716.7000;0.4746;1.1904;
717.0000;0.4689;1.1763;
717.3000;0.4729;1.1834;
717.6000;0.4729;1.1904;
717.9000;0.4835;1.2187;
718.2000;0.4754;1.1951;
718.5000;0.4705;1.1810;
718.8000;0.4827;1.2139;
719.1000;0.4737;1.1857;
719.4000;0.4746;1.1881;
719.7000;0.4729;1.1857;
720.0000;0.4737;1.1881;
720.3000;0.4737;1.1904;
720.6000;0.4746;1.1834;
720.9000;0.4762;1.1951;
721.2000;0.4721;1.1904;
721.5000;0.4729;1.2022;
721.8000;0.4721;1.2045;
722.1000;0.4729;1.2069;
722.4000;0.4705;1.2045;
722.7000;0.4803;1.2328;
723.0000;0.4721;1.2116;
723.3000;0.4681;1.2045;
723.6000;0.4746;1.2163;
723.9000;0.4737;1.2116;
724.2000;0.4713;1.2069;
724.5000;0.4721;1.2092;
724.8000;0.4729;1.2116;
725.1000;0.4762;1.2139;
725.4000;0.4721;1.1904;
725.7000;0.4729;1.1881;
726.0000;0.4672;1.1575;
726.3000;0.4721;1.1763;
726.6000;0.4737;1.1904;
726.9000;0.4819;1.2092;
727.2000;0.4729;1.1881;
727.5000;0.4729;1.1857;
727.8000;0.4697;1.1716;
728.1000;0.4721;1.1810;
728.4000;0.4705;1.1740;
728.7000;0.4713;1.1787;
729.0000;0.4729;1.1904;
729.3000;0.4689;1.1857;
729.6000;0.4705;1.2045;
729.9000;0.4713;1.1998;
730.2000;0.4705;1.1928;
730.5000;0.4672;1.1857;
730.8000;0.4819;1.2139;
731.1000;0.4705;1.1834;
731.4000;0.4697;1.1928;
731.7000;0.4713;1.2022;
732.0000;0.4770;1.2139;
732.3000;0.4697;1.1928;
732.6000;0.4689;1.1857;
732.9000;0.4819;1.2116;
733.2000;0.4705;1.1904;
733.5000;0.4713;1.1881;
733.8000;0.4705;1.1904;
734.1000;0.4689;1.1881;
734.4000;0.4697;1.1904;
734.7000;0.4705;1.1951;
735.0000;0.4681;1.1928;
735.3000;0.4697;1.1951;
735.6000;0.4705;1.2045;
735.9000;0.4689;1.1975;
736.2000;0.4737;1.1998;
736.5000;0.4754;1.2092;
736.8000;0.4705;1.1904;
737.1000;0.4689;1.1904;
737.4000;0.4681;1.1975;
737.7000;0.4656;1.1881;
738.0000;0.4721;1.1975;
738.3000;0.4689;1.1881;
738.6000;0.4697;1.1998;
738.9000;0.4689;1.1951;
739.2000;0.4713;1.1998;
739.5000;0.4705;1.1928;
739.8000;0.4705;1.1904;
740.1000;0.4689;1.1904;
740.4000;0.4697;1.1998;
740.7000;0.4697;1.1928;
741.0000;0.4705;1.1975;
741.3000;0.4681;1.1881;
741.6000;0.4705;1.1881;
741.9000;0.4689;1.1810;
742.2000;0.4664;1.1716;
742.5000;0.4681;1.1834;
742.8000;0.4689;1.1834;
743.1000;0.4705;1.1904;
743.4000;0.4681;1.1810;
743.7000;0.4664;1.1787;
744.0000;0.4681;1.1810;
744.3000;0.4689;1.1834;
744.6000;0.4656;1.1834;
744.9000;0.4705;1.1928;
745.2000;0.4664;1.1904;
745.5000;0.4778;1.2234;
745.8000;0.4681;1.1975;
746.1000;0.4672;1.1834;
746.4000;0.4672;1.1763;
746.7000;0.4746;1.1951;
747.0000;0.4648;1.1645;
747.3000;0.4672;1.1669;
747.6000;0.4729;1.1669;
747.9000;0.4681;1.1645;
748.2000;0.4681;1.1598;
748.5000;0.4681;1.1645;
748.8000;0.4681;1.1716;
749.1000;0.4754;1.1975;
749.4000;0.4648;1.1692;
749.7000;0.4681;1.1716;
750.0000;0.4664;1.1645;
750.3000;0.4632;1.1622;
750.6000;0.4697;1.1857;
750.9000;0.4664;1.1881;
751.2000;0.4672;1.1904;
751.5000;0.4689;1.2045;
751.8000;0.4672;1.1951;
752.1000;0.4672;1.1951;
752.4000;0.4656;1.1857;
752.7000;0.4672;1.1857;
753.0000;0.4672;1.1810;
753.3000;0.4656;1.1881;
753.6000;0.4672;1.2022;
753.9000;0.4713;1.2092;
754.2000;0.4656;1.1975;
754.5000;0.4681;1.1951;
754.8000;0.4664;1.1975;
755.1000;0.4672;1.2069;
755.4000;0.4770;1.2398;
755.7000;0.4656;1.2139;
756.0000;0.4656;1.2116;
756.3000;0.4664;1.2069;
756.6000;0.4640;1.1975;
756.9000;0.4656;1.2116;
757.2000;0.4664;1.2116;
757.5000;0.4656;1.2139;
757.8000;0.4640;1.2163;
758.1000;0.4640;1.2092;
758.4000;0.4632;1.2022;
758.7000;0.4632;1.2045;
759.0000;0.4656;1.1998;
759.3000;0.4648;1.1975;
759.6000;0.4664;1.2069;
759.9000;0.4656;1.2139;
760.2000;0.4664;1.2116;
760.5000;0.4681;1.2045;
760.8000;0.4664;1.1998;
761.1000;0.4664;1.2045;
761.4000;0.4681;1.2163;
761.7000;0.4664;1.2022;
762.0000;0.4656;1.1951;
762.3000;0.4664;1.1834;
762.6000;0.4648;1.1763;
762.9000;0.4664;1.1834;
763.2000;0.4624;1.1692;
763.5000;0.4681;1.1716;
763.8000;0.4664;1.1834;
764.1000;0.4640;1.1857;
764.4000;0.4664;1.1834;
764.7000;0.4648;1.1787;
765.0000;0.4664;1.1857;
765.3000;0.4664;1.1975;
765.6000;0.4656;1.1951;
765.9000;0.4648;1.2022;
766.2000;0.4624;1.1904;
766.5000;0.4648;1.1881;
766.8000;0.4648;1.1857;
767.1000;0.4607;1.1834;
767.4000;0.4640;1.2022;
767.7000;0.4607;1.1975;
768.0000;0.4632;1.1998;
768.3000;0.4632;1.1951;
768.6000;0.4640;1.1928;
768.9000;0.4607;1.1881;
769.2000;0.4632;1.1810;
769.5000;0.4632;1.1763;
769.8000;0.4648;1.1740;
770.1000;0.4648;1.1787;
770.4000;0.4648;1.1787;
770.7000;0.4648;1.1787;
771.0000;0.4640;1.1857;
771.3000;0.4640;1.1928;
771.6000;0.4640;1.1904;
771.9000;0.4624;1.1857;
772.2000;0.4640;1.1857;
772.5000;0.4640;1.1810;
772.8000;0.4624;1.1763;
773.1000;0.4632;1.1763;
773.4000;0.4632;1.1787;
773.7000;0.4632;1.1716;
774.0000;0.4640;1.1716;
774.3000;0.4632;1.1740;
774.6000;0.4624;1.1692;
774.9000;0.4656;1.1787;
775.2000;0.4632;1.1716;
775.5000;0.4624;1.1740;
775.8000;0.4624;1.1763;
776.1000;0.4615;1.1692;
776.4000;0.4632;1.1740;
776.7000;0.4640;1.1787;
777.0000;0.4664;1.1763;
777.3000;0.4632;1.1669;
777.6000;0.4640;1.1716;
777.9000;0.4615;1.1669;
778.2000;0.4624;1.1669;
778.5000;0.4640;1.1692;
778.8000;0.4624;1.1716;
779.1000;0.4737;1.2022;
779.4000;0.4550;1.1575;
779.7000;0.4615;1.1716;
780.0000;0.4640;1.1740;
780.3000;0.4624;1.1763;
780.6000;0.4607;1.1716;
780.9000;0.4640;1.1740;
781.2000;0.4615;1.1716;
781.5000;0.4632;1.1763;
781.8000;0.4656;1.1810;
782.1000;0.4599;1.1645;
782.4000;0.4648;1.1857;
782.7000;0.4640;1.1857;
783.0000;0.4615;1.1834;
783.3000;0.4607;1.1810;
783.6000;0.4607;1.1810;
783.9000;0.4607;1.1740;
784.2000;0.4640;1.1787;
784.5000;0.4607;1.1645;
784.8000;0.4615;1.1669;
785.1000;0.4640;1.1810;
785.4000;0.4664;1.1975;
785.7000;0.4624;1.1857;
786.0000;0.4632;1.1904;
786.3000;0.4640;1.1787;
786.6000;0.4624;1.1834;
786.9000;0.4632;1.1763;
787.2000;0.4615;1.1740;
787.5000;0.4607;1.1787;
787.8000;0.4624;1.1951;
788.1000;0.4632;1.1975;
788.4000;0.4599;1.1904;
788.7000;0.4607;1.1881;
789.0000;0.4624;1.1810;
789.3000;0.4624;1.1716;
789.6000;0.4607;1.1716;
789.9000;0.4591;1.1692;
790.2000;0.4607;1.1810;
790.5000;0.4607;1.1881;
790.8000;0.4615;1.1928;
791.1000;0.4583;1.1834;
791.4000;0.4599;1.1881;
791.7000;0.4624;1.1928;
792.0000;0.4607;1.1881;
792.3000;0.4607;1.1857;
792.6000;0.4599;1.1857;
792.9000;0.4615;1.1857;
793.2000;0.4632;1.1904;
793.5000;0.4607;1.1881;
793.8000;0.4607;1.1881;
794.1000;0.4591;1.1787;
794.4000;0.4607;1.1834;
794.7000;0.4567;1.1787;
795.0000;0.4599;1.1810;
795.3000;0.4705;1.2045;
795.6000;0.4583;1.1810;
795.9000;0.4615;1.1834;
796.2000;0.4615;1.1881;
796.5000;0.4599;1.1740;
796.8000;0.4591;1.1716;
797.1000;0.4567;1.1622;
797.4000;0.4599;1.1669;
797.7000;0.4599;1.1692;
798.0000;0.4624;1.1763;
798.3000;0.4558;1.1645;
798.6000;0.4583;1.1692;
798.9000;0.4591;1.1716;
799.2000;0.4567;1.1763;
799.5000;0.4656;1.1928;
799.8000;0.4591;1.1810;
800.1000;0.4599;1.1810;
800.4000;0.4518;1.1740;
800.7000;0.4607;1.1998;
801.0000;0.4624;1.2069;
801.3000;0.4550;1.1881;
801.6000;0.4583;1.1975;
801.9000;0.4599;1.1998;
802.2000;0.4591;1.2045;
802.5000;0.4648;1.2139;
802.8000;0.4591;1.1904;
803.1000;0.4567;1.1857;
803.4000;0.4632;1.1904;
803.7000;0.4583;1.1692;
804.0000;0.4583;1.1740;
804.3000;0.4558;1.1716;
804.6000;0.4575;1.1692;
804.9000;0.4575;1.1763;
805.2000;0.4558;1.1716;
805.5000;0.4518;1.1598;
805.8000;0.4583;1.1740;
806.1000;0.4567;1.1763;
806.4000;0.4575;1.1787;
806.7000;0.4575;1.1787;
807.0000;0.4575;1.1787;
807.3000;0.4583;1.1787;
807.6000;0.4575;1.1763;
807.9000;0.4575;1.1716;
808.2000;0.4575;1.1692;
808.5000;0.4567;1.1669;
808.8000;0.4567;1.1645;
809.1000;0.4558;1.1645;
809.4000;0.4567;1.1669;
809.7000;0.4575;1.1692;
810.0000;0.4550;1.1692;
810.3000;0.4550;1.1645;
810.6000;0.4567;1.1622;
810.9000;0.4567;1.1598;
811.2000;0.4575;1.1575;
811.5000;0.4583;1.1645;
811.8000;0.4591;1.1669;
812.1000;0.4599;1.1787;
812.4000;0.4615;1.1881;
812.7000;0.4558;1.1692;
813.0000;0.4567;1.1669;
813.3000;0.4558;1.1622;
813.6000;0.4591;1.1692;
813.9000;0.4583;1.1740;
814.2000;0.4575;1.1740;
814.5000;0.4567;1.1598;
814.8000;0.4591;1.1575;
815.1000;0.4567;1.1598;
815.4000;0.4583;1.1598;
815.7000;0.4567;1.1598;
816.0000;0.4575;1.1645;
816.3000;0.4599;1.1740;
816.6000;0.4534;1.1598;
816.9000;0.4591;1.1740;
817.2000;0.4591;1.1787;
817.5000;0.4632;1.1928;
817.8000;0.4567;1.1763;
818.1000;0.4567;1.1787;
818.4000;0.4518;1.1692;
818.7000;0.4550;1.1787;
819.0000;0.4567;1.1716;
819.3000;0.4567;1.1622;
819.6000;0.4567;1.1575;
819.9000;0.4583;1.1645;
820.2000;0.4550;1.1551;
820.5000;0.4550;1.1598;
820.8000;0.4567;1.1692;
821.1000;0.4567;1.1692;
821.4000;0.4648;1.1881;
821.7000;0.4558;1.1763;
822.0000;0.4550;1.1740;
822.3000;0.4575;1.1763;
822.6000;0.4583;1.1834;
822.9000;0.4567;1.1810;
823.2000;0.4575;1.1881;
823.5000;0.4575;1.1928;
823.8000;0.4558;1.1857;
824.1000;0.4558;1.1881;
824.4000;0.4550;1.1857;
824.7000;0.4558;1.1787;
825.0000;0.4575;1.1763;
825.3000;0.4550;1.1716;
825.6000;0.4542;1.1787;
825.9000;0.4558;1.1787;
826.2000;0.4591;1.1881;
826.5000;0.4558;1.1857;
826.8000;0.4550;1.1881;
827.1000;0.4558;1.1881;
827.4000;0.4558;1.1834;
827.7000;0.4550;1.1881;
828.0000;0.4567;1.1834;
828.3000;0.4550;1.1787;
828.6000;0.4558;1.1716;
828.9000;0.4558;1.1763;
829.2000;0.4567;1.1787;
829.5000;0.4510;1.1740;
829.8000;0.4550;1.1763;
830.1000;0.4550;1.1763;
830.4000;0.4542;1.1692;
830.7000;0.4485;1.1528;
831.0000;0.4542;1.1598;
831.3000;0.4558;1.1692;
831.6000;0.4542;1.1716;
831.9000;0.4542;1.1645;
832.2000;0.4550;1.1669;
832.5000;0.4526;1.1669;
832.8000;0.4672;1.1904;
833.1000;0.4558;1.1622;
833.4000;0.4542;1.1645;
833.7000;0.4550;1.1692;
834.0000;0.4550;1.1598;
834.3000;0.4550;1.1622;
834.6000;0.4550;1.1645;
834.9000;0.4550;1.1551;
835.2000;0.4534;1.1481;
835.5000;0.4526;1.1457;
835.8000;0.4534;1.1551;
836.1000;0.4550;1.1669;
836.4000;0.4567;1.1810;
836.7000;0.4542;1.1669;
837.0000;0.4558;1.1692;
837.3000;0.4550;1.1716;
837.6000;0.4542;1.1716;
837.9000;0.4542;1.1669;
838.2000;0.4558;1.1716;
838.5000;0.4550;1.1692;
838.8000;0.4567;1.1787;
839.1000;0.4550;1.1740;
839.4000;0.4558;1.1692;
839.7000;0.4615;1.1881;
840.0000;0.4534;1.1622;
840.3000;0.4550;1.1622;
840.6000;0.4615;1.1669;
840.9000;0.4534;1.1481;
841.2000;0.4542;1.1481;
841.5000;0.4558;1.1551;
841.8000;0.4583;1.1622;
842.1000;0.4624;1.1716;
842.4000;0.4526;1.1481;
842.7000;0.4534;1.1434;
843.0000;0.4485;1.1293;
843.3000;0.4550;1.1434;
843.6000;0.4518;1.1410;
843.9000;0.4550;1.1528;
844.2000;0.4583;1.1645;
844.5000;0.4526;1.1551;
844.8000;0.4526;1.1551;
845.1000;0.4542;1.1504;
845.4000;0.4493;1.1481;
845.7000;0.4518;1.1622;
846.0000;0.4469;1.1575;
846.3000;0.4550;1.1669;
846.6000;0.4510;1.1669;
846.9000;0.4583;1.1904;
847.2000;0.4542;1.1810;
847.5000;0.4534;1.1787;
847.8000;0.4485;1.1645;
848.1000;0.4550;1.1857;
848.4000;0.4542;1.1904;
848.7000;0.4534;1.1928;
849.0000;0.4518;1.1951;
849.3000;0.4526;1.1998;
849.6000;0.4501;1.1904;
849.9000;0.4510;1.1951;
850.2000;0.4510;1.1998;
850.5000;0.4485;1.1904;
850.8000;0.4510;1.1904;
851.1000;0.4534;1.1928;
851.4000;0.4567;1.2045;
851.7000;0.4518;1.2045;
852.0000;0.4542;1.2069;
852.3000;0.4534;1.2069;
852.6000;0.4477;1.1928;
852.9000;0.4550;1.2092;
853.2000;0.4534;1.1998;
853.5000;0.4510;1.1951;
853.8000;0.4542;1.2116;
854.1000;0.4436;1.1951;
854.4000;0.4518;1.2328;
854.7000;0.4526;1.2375;
855.0000;0.4510;1.2351;
855.3000;0.4542;1.2398;
855.6000;0.4518;1.2281;
855.9000;0.4526;1.2281;
856.2000;0.4518;1.2092;
856.5000;0.4379;1.1740;
856.8000;0.4558;1.2187;
857.1000;0.4518;1.2045;
857.4000;0.4550;1.2092;
857.7000;0.4518;1.1951;
858.0000;0.4534;1.1998;
858.3000;0.4542;1.2022;
858.6000;0.4615;1.2234;
858.9000;0.4510;1.1928;
859.2000;0.4632;1.2304;
859.5000;0.4550;1.2187;
859.8000;0.4542;1.2210;
860.1000;0.4526;1.2187;
860.4000;0.4526;1.2163;
860.7000;0.4534;1.2257;
861.0000;0.4550;1.2210;
861.3000;0.4550;1.2187;
861.6000;0.4542;1.2116;
861.9000;0.4624;1.2351;
862.2000;0.4526;1.2069;
862.5000;0.4550;1.2092;
862.8000;0.4550;1.2092;
863.1000;0.4510;1.2045;
863.4000;0.4542;1.2139;
863.7000;0.4510;1.2116;
864.0000;0.4542;1.2257;
864.3000;0.4591;1.2422;
864.6000;0.4550;1.2281;
864.9000;0.4558;1.2304;
865.2000;0.4567;1.2210;
865.5000;0.4518;1.2069;
865.8000;0.4518;1.2139;
866.1000;0.4518;1.2116;
866.4000;0.4550;1.2187;
866.7000;0.4526;1.2187;
867.0000;0.4526;1.2187;
867.3000;0.4510;1.2187;
867.6000;0.4510;1.2187;
867.9000;0.4607;1.2351;
868.2000;0.4526;1.2163;
868.5000;0.4558;1.2281;
868.8000;0.4526;1.2210;
869.1000;0.4477;1.2069;
869.4000;0.4485;1.2069;
869.7000;0.4518;1.2210;
870.0000;0.4510;1.2187;
870.3000;0.4493;1.2187;
870.6000;0.4510;1.2210;
870.9000;0.4526;1.2304;
871.2000;0.4510;1.2304;
871.5000;0.4477;1.2375;
871.8000;0.4510;1.2445;
872.1000;0.4453;1.2257;
872.4000;0.4469;1.2234;
872.7000;0.4501;1.2375;
873.0000;0.4518;1.2445;
873.3000;0.4510;1.2492;
873.6000;0.4534;1.2445;
873.9000;0.4493;1.2422;
874.2000;0.4542;1.2469;
874.5000;0.4534;1.2469;
874.8000;0.4510;1.2398;
875.1000;0.4526;1.2351;
875.4000;0.4510;1.2210;
875.7000;0.4518;1.2163;
876.0000;0.4558;1.2281;
876.3000;0.4485;1.2187;
876.6000;0.4469;1.2187;
876.9000;0.4493;1.2139;
877.2000;0.4501;1.2092;
877.5000;0.4518;1.2092;
877.8000;0.4510;1.2045;
878.1000;0.4518;1.2092;
878.4000;0.4510;1.2163;
878.7000;0.4550;1.2304;
879.0000;0.4518;1.2210;
879.3000;0.4510;1.2116;
879.6000;0.4534;1.2069;
879.9000;0.4518;1.2187;
880.2000;0.4412;1.1998;
880.5000;0.4510;1.2328;
880.8000;0.4510;1.2351;
881.1000;0.4510;1.2375;
881.4000;0.4542;1.2492;
881.7000;0.4469;1.2328;
882.0000;0.4534;1.2422;
882.3000;0.4510;1.2351;
882.6000;0.4501;1.2351;
882.9000;0.4518;1.2328;
883.2000;0.4510;1.2351;
883.5000;0.4518;1.2351;
883.8000;0.4493;1.2375;
884.1000;0.4526;1.2469;
884.4000;0.4493;1.2351;
884.7000;0.4526;1.2398;
885.0000;0.4534;1.2375;
885.3000;0.4501;1.2304;
885.6000;0.4550;1.2422;
885.9000;0.4510;1.2351;
886.2000;0.4518;1.2210;
886.5000;0.4510;1.2139;
886.8000;0.4510;1.2069;
887.1000;0.4526;1.2116;
887.4000;0.4510;1.2045;
887.7000;0.4501;1.1904;
888.0000;0.4526;1.1998;
888.3000;0.4436;1.1857;
888.6000;0.4461;1.2022;
888.9000;0.4567;1.2281;
889.2000;0.4567;1.2210;
889.5000;0.4518;1.2139;
889.8000;0.4485;1.2210;
890.1000;0.4477;1.2210;
890.4000;0.4501;1.2304;
890.7000;0.4510;1.2257;
891.0000;0.4501;1.2187;
891.3000;0.4477;1.2116;
891.6000;0.4526;1.2234;
891.9000;0.4510;1.2163;
892.2000;0.4493;1.2092;
892.5000;0.4493;1.2116;
892.8000;0.4510;1.2139;
893.1000;0.4469;1.2139;
893.4000;0.4501;1.2187;
893.7000;0.4510;1.2234;
894.0000;0.4542;1.2304;
894.3000;0.4493;1.2234;
894.6000;0.4493;1.2187;
894.9000;0.4493;1.2210;
895.2000;0.4575;1.2398;
895.5000;0.4510;1.2257;
895.8000;0.4501;1.2257;
896.1000;0.4501;1.2234;
896.4000;0.4436;1.2045;
896.7000;0.4485;1.2210;
897.0000;0.4477;1.2116;
897.3000;0.4493;1.2092;
897.6000;0.4501;1.2210;
897.9000;0.4485;1.2328;
898.2000;0.4493;1.2445;
898.5000;0.4485;1.2469;
898.8000;0.4493;1.2539;
899.1000;0.4518;1.2586;
899.4000;0.4501;1.2492;
899.7000;0.4493;1.2422;
900.0000;0.4493;1.2351;
900.3000;0.4558;1.2469;
900.6000;0.4501;1.2304;
900.9000;0.4518;1.2281;
901.2000;0.4501;1.2210;
901.5000;0.4510;1.2163;
901.8000;0.4501;1.2092;
902.1000;0.4510;1.2022;
902.4000;0.4510;1.2022;
902.7000;0.4485;1.2045;
903.0000;0.4501;1.2163;
903.3000;0.4501;1.2234;
903.6000;0.4485;1.2163;
903.9000;0.4485;1.2139;
904.2000;0.4501;1.2163;
904.5000;0.4510;1.2234;
904.8000;0.4510;1.2281;
905.1000;0.4485;1.2304;
905.4000;0.4477;1.2257;
905.7000;0.4493;1.2281;
906.0000;0.4501;1.2304;
906.3000;0.4469;1.2163;
906.6000;0.4493;1.2210;
906.9000;0.4510;1.2257;
907.2000;0.4510;1.2234;
907.5000;0.4567;1.2328;
907.8000;0.4518;1.2163;
908.1000;0.4428;1.1951;
908.4000;0.4485;1.2092;
908.7000;0.4493;1.2234;
909.0000;0.4469;1.2163;
909.3000;0.4469;1.2163;
909.6000;0.4485;1.2187;
909.9000;0.4501;1.2210;
910.2000;0.4436;1.2069;
910.5000;0.4510;1.2234;
910.8000;0.4485;1.2139;
911.1000;0.4501;1.2116;
911.4000;0.4485;1.2116;
911.7000;0.4493;1.2210;
912.0000;0.4485;1.2234;
912.3000;0.4501;1.2304;
912.6000;0.4477;1.2281;
912.9000;0.4493;1.2281;
913.2000;0.4558;1.2445;
913.5000;0.4501;1.2351;
913.8000;0.4485;1.2398;
914.1000;0.4469;1.2328;
914.4000;0.4485;1.2422;
914.7000;0.4485;1.2351;
915.0000;0.4493;1.2351;
915.3000;0.4501;1.2375;
915.6000;0.4493;1.2422;
915.9000;0.4501;1.2328;
916.2000;0.4469;1.2234;
916.5000;0.4485;1.2257;
916.8000;0.4493;1.2210;
917.1000;0.4461;1.2139;
917.4000;0.4493;1.2187;
917.7000;0.4485;1.2163;
918.0000;0.4501;1.2234;
918.3000;0.4493;1.2210;
918.6000;0.4469;1.2187;
918.9000;0.4493;1.2163;
919.2000;0.4542;1.2351;
919.5000;0.4485;1.2257;
919.8000;0.4493;1.2375;
920.1000;0.4493;1.2422;
920.4000;0.4485;1.2469;
920.7000;0.4493;1.2469;
921.0000;0.4493;1.2492;
921.3000;0.4444;1.2328;
921.6000;0.4493;1.2516;
921.9000;0.4485;1.2375;
922.2000;0.4485;1.2328;
922.5000;0.4510;1.2398;
922.8000;0.4477;1.2351;
923.1000;0.4477;1.2469;
923.4000;0.4469;1.2516;
923.7000;0.4469;1.2516;
924.0000;0.4469;1.2445;
924.3000;0.4477;1.2469;
924.6000;0.4477;1.2492;
924.9000;0.4469;1.2516;
925.2000;0.4493;1.2516;
925.5000;0.4501;1.2422;
925.8000;0.4493;1.2375;
926.1000;0.4485;1.2375;
926.4000;0.4501;1.2469;
926.7000;0.4501;1.2516;
927.0000;0.4485;1.2445;
927.3000;0.4501;1.2445;
927.6000;0.4493;1.2398;
927.9000;0.4485;1.2375;
928.2000;0.4477;1.2328;
928.5000;0.4485;1.2351;
928.8000;0.4461;1.2304;
929.1000;0.4485;1.2351;
929.4000;0.4469;1.2304;
929.7000;0.4485;1.2375;
930.0000;0.4485;1.2445;
930.3000;0.4469;1.2351;
930.6000;0.4469;1.2328;
930.9000;0.4485;1.2281;
931.2000;0.4485;1.2304;
931.5000;0.4493;1.2257;
931.8000;0.4477;1.2257;
932.1000;0.4444;1.2210;
932.4000;0.4485;1.2257;
932.7000;0.4485;1.2187;
933.0000;0.4477;1.2045;
933.3000;0.4477;1.2022;
933.6000;0.4501;1.2069;
933.9000;0.4485;1.2139;
934.2000;0.4477;1.2210;
934.5000;0.4461;1.2234;
934.8000;0.4453;1.2257;
935.1000;0.4477;1.2328;
935.4000;0.4485;1.2328;
935.7000;0.4477;1.2257;
936.0000;0.4493;1.2351;
936.3000;0.4485;1.2422;
936.6000;0.4477;1.2351;
936.9000;0.4485;1.2328;
937.2000;0.4477;1.2304;
937.5000;0.4477;1.2281;
937.8000;0.4485;1.2281;
938.1000;0.4469;1.2163;
938.4000;0.4469;1.2092;
938.7000;0.4477;1.2163;
939.0000;0.4485;1.2281;
939.3000;0.4477;1.2281;
939.6000;0.4477;1.2304;
939.9000;0.4469;1.2328;
940.2000;0.4477;1.2351;
940.5000;0.4485;1.2422;
940.8000;0.4469;1.2375;
941.1000;0.4477;1.2422;
941.4000;0.4469;1.2445;
941.7000;0.4477;1.2422;
942.0000;0.4469;1.2422;
942.3000;0.4485;1.2398;
942.6000;0.4485;1.2422;
942.9000;0.4493;1.2375;
943.2000;0.4477;1.2304;
943.5000;0.4477;1.2304;
943.8000;0.4485;1.2422;
944.1000;0.4485;1.2398;
944.4000;0.4477;1.2375;
944.7000;0.4526;1.2539;
945.0000;0.4477;1.2469;
945.3000;0.4477;1.2422;
945.6000;0.4510;1.2469;
945.9000;0.4477;1.2304;
946.2000;0.4469;1.2281;
946.5000;0.4477;1.2257;
946.8000;0.4477;1.2234;
947.1000;0.4461;1.2234;
947.4000;0.4453;1.2304;
947.7000;0.4469;1.2445;
948.0000;0.4477;1.2539;
948.3000;0.4444;1.2422;
948.6000;0.4469;1.2375;
948.9000;0.4461;1.2281;
949.2000;0.4550;1.2492;
949.5000;0.4469;1.2375;
949.8000;0.4477;1.2445;
950.1000;0.4453;1.2445;
950.4000;0.4477;1.2539;
950.7000;0.4542;1.2657;
951.0000;0.4444;1.2445;
951.3000;0.4461;1.2469;
951.6000;0.4469;1.2445;
951.9000;0.4428;1.2351;
952.2000;0.4477;1.2516;
952.5000;0.4387;1.2304;
952.8000;0.4453;1.2422;
953.1000;0.4461;1.2469;
953.4000;0.4453;1.2492;
953.7000;0.4461;1.2469;
954.0000;0.4477;1.2445;
954.3000;0.4461;1.2351;
954.6000;0.4461;1.2281;
954.9000;0.4444;1.2234;
955.2000;0.4461;1.2281;
955.5000;0.4469;1.2328;
955.8000;0.4453;1.2234;
956.1000;0.4453;1.2304;
956.4000;0.4477;1.2375;
956.7000;0.4461;1.2328;
957.0000;0.4477;1.2422;
957.3000;0.4453;1.2516;
957.6000;0.4453;1.2469;
957.9000;0.4534;1.2681;
958.2000;0.4469;1.2469;
958.5000;0.4453;1.2492;
958.8000;0.4436;1.2492;
959.1000;0.4444;1.2610;
959.4000;0.4444;1.2492;
959.7000;0.4477;1.2563;
960.0000;0.4469;1.2539;
960.3000;0.4477;1.2539;
960.6000;0.4444;1.2445;
960.9000;0.4469;1.2610;
961.2000;0.4510;1.2657;
961.5000;0.4485;1.2563;
961.8000;0.4493;1.2610;
962.1000;0.4477;1.2586;
962.4000;0.4453;1.2539;
962.7000;0.4461;1.2563;
963.0000;0.4387;1.2422;
963.3000;0.4477;1.2610;
963.6000;0.4436;1.2492;
963.9000;0.4493;1.2634;
964.2000;0.4453;1.2586;
964.5000;0.4493;1.2657;
964.8000;0.4469;1.2610;
965.1000;0.4461;1.2563;
965.4000;0.4453;1.2445;
965.7000;0.4485;1.2445;
966.0000;0.4485;1.2469;
966.3000;0.4493;1.2539;
966.6000;0.4469;1.2492;
966.9000;0.4453;1.2398;
967.2000;0.4461;1.2422;
967.5000;0.4453;1.2445;
967.8000;0.4404;1.2351;
968.1000;0.4477;1.2516;
968.4000;0.4493;1.2539;
968.7000;0.4461;1.2328;
969.0000;0.4420;1.2187;
969.3000;0.4477;1.2210;
969.6000;0.4461;1.2139;
969.9000;0.4436;1.2069;
970.2000;0.4469;1.2281;
970.5000;0.4444;1.2328;
970.8000;0.4453;1.2422;
971.1000;0.4469;1.2469;
971.4000;0.4510;1.2586;
971.7000;0.4469;1.2398;
972.0000;0.4461;1.2375;
972.3000;0.4469;1.2328;
972.6000;0.4404;1.2139;
972.9000;0.4461;1.2304;
973.2000;0.4444;1.2304;
973.5000;0.4428;1.2281;
973.8000;0.4493;1.2422;
974.1000;0.4444;1.2304;
974.4000;0.4453;1.2328;
974.7000;0.4444;1.2304;
975.0000;0.4461;1.2398;
975.3000;0.4461;1.2281;
975.6000;0.4461;1.2281;
975.9000;0.4501;1.2304;
976.2000;0.4469;1.2281;
976.5000;0.4477;1.2257;
976.8000;0.4453;1.2234;
977.1000;0.4404;1.2210;
977.4000;0.4428;1.2257;
977.7000;0.4453;1.2304;
978.0000;0.4469;1.2281;
978.3000;0.4461;1.2375;
978.6000;0.4453;1.2445;
978.9000;0.4387;1.2375;
979.2000;0.4444;1.2563;
979.5000;0.4436;1.2516;
979.8000;0.4477;1.2539;
980.1000;0.4453;1.2375;
980.4000;0.4420;1.2210;
980.7000;0.4444;1.2234;
981.0000;0.4469;1.2234;
981.3000;0.4436;1.2210;
981.6000;0.4387;1.2116;
981.9000;0.4510;1.2375;
982.2000;0.4461;1.2304;
982.5000;0.4412;1.2187;
982.8000;0.4461;1.2281;
983.1000;0.4444;1.2281;
983.4000;0.4461;1.2328;
983.7000;0.4534;1.2586;
984.0000;0.4453;1.2375;
984.3000;0.4461;1.2351;
984.6000;0.4461;1.2328;
984.9000;0.4461;1.2445;
985.2000;0.4469;1.2398;
985.5000;0.4461;1.2469;
985.8000;0.4436;1.2469;
986.1000;0.4453;1.2516;
986.4000;0.4436;1.2516;
986.7000;0.4461;1.2516;
987.0000;0.4493;1.2469;
987.3000;0.4477;1.2563;
987.6000;0.4461;1.2539;
987.9000;0.4461;1.2469;
988.2000;0.4404;1.2328;
988.5000;0.4453;1.2445;
988.8000;0.4453;1.2422;
989.1000;0.4461;1.2422;
989.4000;0.4453;1.2422;
989.7000;0.4469;1.2492;
990.0000;0.4510;1.2586;
990.3000;0.4444;1.2469;
990.6000;0.4453;1.2445;
990.9000;0.4453;1.2445;
991.2000;0.4420;1.2328;
991.5000;0.4526;1.2492;
991.8000;0.4444;1.2351;
992.1000;0.4428;1.2163;
992.4000;0.4477;1.2163;
992.7000;0.4461;1.2116;
993.0000;0.4436;1.2069;
993.3000;0.4436;1.2116;
993.6000;0.4436;1.2187;
993.9000;0.4469;1.2281;
994.2000;0.4469;1.2351;
994.5000;0.4420;1.2163;
994.8000;0.4461;1.2210;
995.1000;0.4469;1.2163;
995.4000;0.4428;1.2069;
995.7000;0.4420;1.2045;
996.0000;0.4387;1.1951;
996.3000;0.4477;1.2187;
996.6000;0.4428;1.2139;
996.9000;0.4436;1.2187;
997.2000;0.4444;1.2163;
997.5000;0.4461;1.2257;
997.8000;0.4453;1.2281;
998.1000;0.4444;1.2234;
998.4000;0.4461;1.2234;
998.7000;0.4469;1.2257;
999.0000;0.4485;1.2281;
999.3000;0.4469;1.2281;
999.6000;0.4485;1.2328;
999.9000;0.4461;1.2281;
1000.2000;0.4469;1.2398;
1000.5000;0.4444;1.2304;
1000.8000;0.4436;1.2257;
1001.1000;0.4436;1.2210;
1001.4000;0.4436;1.2163;
1001.7000;0.4493;1.2375;
1002.0000;0.4428;1.2281;
1002.3000;0.4436;1.2328;
1002.6000;0.4428;1.2445;
1002.9000;0.4436;1.2422;
1003.2000;0.4477;1.2563;
1003.5000;0.4461;1.2539;
1003.8000;0.4461;1.2539;
1004.1000;0.4477;1.2539;
1004.4000;0.4453;1.2445;
1004.7000;0.4461;1.2422;
1005.0000;0.4444;1.2351;
1005.3000;0.4469;1.2304;
1005.6000;0.4501;1.2351;
1005.9000;0.4469;1.2210;
1006.2000;0.4436;1.2139;
1006.5000;0.4453;1.2281;
1006.8000;0.4444;1.2281;
1007.1000;0.4444;1.2351;
1007.4000;0.4444;1.2304;
1007.7000;0.4444;1.2304;
1008.0000;0.4428;1.2375;
1008.3000;0.4453;1.2445;
1008.6000;0.4444;1.2445;
1008.9000;0.4444;1.2492;
1009.2000;0.4453;1.2492;
1009.5000;0.4453;1.2492;
1009.8000;0.4436;1.2445;
1010.1000;0.4436;1.2539;
1010.4000;0.4444;1.2516;
1010.7000;0.4436;1.2375;
1011.0000;0.4444;1.2375;
1011.3000;0.4428;1.2375;
1011.6000;0.4436;1.2304;
1011.9000;0.4404;1.2163;
1012.2000;0.4436;1.2234;
1012.5000;0.4436;1.2281;
1012.8000;0.4453;1.2304;
1013.1000;0.4453;1.2257;
1013.4000;0.4428;1.2210;
1013.7000;0.4444;1.2234;
1014.0000;0.4485;1.2304;
1014.3000;0.4444;1.2257;
1014.6000;0.4453;1.2257;
1014.9000;0.4453;1.2281;
1015.2000;0.4453;1.2210;
1015.5000;0.4461;1.2304;
1015.8000;0.4444;1.2257;
1016.1000;0.4436;1.2210;
1016.4000;0.4444;1.2351;
1016.7000;0.4436;1.2304;
1017.0000;0.4436;1.2304;
1017.3000;0.4436;1.2234;
1017.6000;0.4436;1.2187;
1017.9000;0.4444;1.2210;
1018.2000;0.4444;1.2234;
1018.5000;0.4461;1.2304;
1018.8000;0.4461;1.2398;
1019.1000;0.4453;1.2398;
1019.4000;0.4453;1.2445;
1019.7000;0.4444;1.2422;
1020.0000;0.4453;1.2492;
1020.3000;0.4444;1.2516;
1020.6000;0.4436;1.2563;
1020.9000;0.4444;1.2563;
1021.2000;0.4444;1.2445;
1021.5000;0.4461;1.2422;
1021.8000;0.4444;1.2422;
1022.1000;0.4444;1.2469;
1022.4000;0.4453;1.2445;
1022.7000;0.4436;1.2422;
1023.0000;0.4436;1.2445;
1023.3000;0.4444;1.2398;
1023.6000;0.4453;1.2375;
1023.9000;0.4444;1.2234;
1024.2000;0.4444;1.2257;
1024.5000;0.4436;1.2234;
1024.8000;0.4453;1.2257;
1025.1000;0.4444;1.2210;
1025.4000;0.4453;1.2234;
1025.7000;0.4461;1.2304;
1026.0000;0.4461;1.2234;
1026.3000;0.4444;1.2234;
1026.6000;0.4461;1.2281;
1026.9000;0.4428;1.2234;
1027.2000;0.4436;1.2304;
1027.5000;0.4444;1.2257;
1027.8000;0.4444;1.2281;
1028.1000;0.4453;1.2328;
1028.4000;0.4477;1.2422;
1028.7000;0.4428;1.2351;
1029.0000;0.4453;1.2445;
1029.3000;0.4444;1.2422;
1029.6000;0.4436;1.2492;
1029.9000;0.4444;1.2563;
1030.2000;0.4444;1.2539;
1030.5000;0.4444;1.2586;
1030.8000;0.4436;1.2634;
1031.1000;0.4428;1.2728;
1031.4000;0.4453;1.2657;
1031.7000;0.4453;1.2634;
1032.0000;0.4428;1.2586;
1032.3000;0.4436;1.2610;
1032.6000;0.4453;1.2516;
1032.9000;0.4444;1.2539;
1033.2000;0.4436;1.2634;
1033.5000;0.4444;1.2657;
1033.8000;0.4436;1.2563;
1034.1000;0.4428;1.2398;
1034.4000;0.4444;1.2422;
1034.7000;0.4461;1.2375;
1035.0000;0.4469;1.2351;
1035.3000;0.4453;1.2328;
1035.6000;0.4453;1.2445;
1035.9000;0.4461;1.2516;
1036.2000;0.4461;1.2445;
1036.5000;0.4444;1.2351;
1036.8000;0.4444;1.2257;
1037.1000;0.4436;1.2328;
1037.4000;0.4453;1.2304;
1037.7000;0.4461;1.2304;
1038.0000;0.4436;1.2304;
1038.3000;0.4444;1.2257;
1038.6000;0.4461;1.2281;
1038.9000;0.4436;1.2234;
1039.2000;0.4428;1.2281;
1039.5000;0.4444;1.2234;
1039.8000;0.4444;1.2304;
1040.1000;0.4436;1.2398;
1040.4000;0.4444;1.2445;
1040.7000;0.4453;1.2445;
1041.0000;0.4444;1.2422;
1041.3000;0.4444;1.2492;
1041.6000;0.4428;1.2351;
1041.9000;0.4428;1.2351;
1042.2000;0.4550;1.2657;
1042.5000;0.4428;1.2328;
1042.8000;0.4436;1.2328;
1043.1000;0.4428;1.2328;
1043.4000;0.4444;1.2351;
1043.7000;0.4453;1.2445;
1044.0000;0.4453;1.2445;
1044.3000;0.4453;1.2422;
1044.6000;0.4436;1.2422;
1044.9000;0.4453;1.2422;
1045.2000;0.4412;1.2304;
1045.5000;0.4436;1.2304;
1045.8000;0.4444;1.2257;
1046.1000;0.4477;1.2351;
1046.4000;0.4444;1.2281;
1046.7000;0.4436;1.2187;
1047.0000;0.4436;1.2116;
1047.3000;0.4420;1.2187;
1047.6000;0.4444;1.2210;
1047.9000;0.4444;1.2139;
1048.2000;0.4387;1.1998;
1048.5000;0.4412;1.2069;
1048.8000;0.4444;1.2163;
1049.1000;0.4493;1.2375;
1049.4000;0.4501;1.2375;
1049.7000;0.4444;1.2210;
1050.0000;0.4428;1.2187;
1050.3000;0.4526;1.2398;
1050.6000;0.4444;1.2210;
1050.9000;0.4436;1.2210;
1051.2000;0.4428;1.2139;
1051.5000;0.4436;1.2116;
1051.8000;0.4420;1.1998;
1052.1000;0.4404;1.2116;
1052.4000;0.4444;1.2281;
1052.7000;0.4461;1.2398;
1053.0000;0.4453;1.2304;
1053.3000;0.4436;1.2351;
1053.6000;0.4444;1.2328;
1053.9000;0.4436;1.2351;
1054.2000;0.4436;1.2257;
1054.5000;0.4420;1.2351;
1054.8000;0.4436;1.2492;
1055.1000;0.4420;1.2422;
1055.4000;0.4444;1.2445;
1055.7000;0.4428;1.2445;
1056.0000;0.4436;1.2469;
1056.3000;0.4404;1.2422;
1056.6000;0.4436;1.2422;
1056.9000;0.4436;1.2422;
1057.2000;0.4404;1.2304;
1057.5000;0.4453;1.2351;
1057.8000;0.4436;1.2375;
1058.1000;0.4436;1.2351;
1058.4000;0.4428;1.2328;
1058.7000;0.4436;1.2328;
1059.0000;0.4453;1.2422;
1059.3000;0.4461;1.2516;
1059.6000;0.4420;1.2492;
1059.9000;0.4444;1.2492;
1060.2000;0.4428;1.2492;
1060.5000;0.4453;1.2492;
1060.8000;0.4420;1.2422;
1061.1000;0.4444;1.2539;
1061.4000;0.4453;1.2657;
1061.7000;0.4396;1.2492;
1062.0000;0.4428;1.2610;
1062.3000;0.4428;1.2586;
1062.6000;0.4444;1.2492;
1062.9000;0.4436;1.2469;
1063.2000;0.4453;1.2539;
1063.5000;0.4428;1.2422;
1063.8000;0.4444;1.2375;
1064.1000;0.4453;1.2469;
1064.4000;0.4420;1.2351;
1064.7000;0.4428;1.2375;
1065.0000;0.4420;1.2351;
1065.3000;0.4396;1.2257;
1065.6000;0.4461;1.2375;
1065.9000;0.4436;1.2375;
1066.2000;0.4420;1.2304;
1066.5000;0.4444;1.2351;
1066.8000;0.4428;1.2304;
1067.1000;0.4444;1.2234;
1067.4000;0.4420;1.2304;
1067.7000;0.4485;1.2469;
1068.0000;0.4420;1.2257;
1068.3000;0.4412;1.2234;
1068.6000;0.4436;1.2304;
1068.9000;0.4453;1.2351;
1069.2000;0.4396;1.2139;
1069.5000;0.4436;1.2351;
1069.8000;0.4436;1.2375;
1070.1000;0.4387;1.2351;
1070.4000;0.4420;1.2516;
1070.7000;0.4428;1.2492;
1071.0000;0.4428;1.2375;
1071.3000;0.4469;1.2539;
1071.6000;0.4444;1.2445;
1071.9000;0.4444;1.2469;
1072.2000;0.4420;1.2445;
1072.5000;0.4412;1.2257;
1072.8000;0.4453;1.2445;
1073.1000;0.4428;1.2445;
1073.4000;0.4396;1.2351;
1073.7000;0.4387;1.2328;
1074.0000;0.4444;1.2398;
1074.3000;0.4436;1.2445;
1074.6000;0.4428;1.2422;
1074.9000;0.4477;1.2539;
1075.2000;0.4428;1.2445;
1075.5000;0.4428;1.2492;
1075.8000;0.4444;1.2492;
1076.1000;0.4428;1.2516;
1076.4000;0.4444;1.2492;
1076.7000;0.4396;1.2328;
1077.0000;0.4485;1.2563;
1077.3000;0.4436;1.2398;
1077.6000;0.4436;1.2375;
1077.9000;0.4453;1.2539;
1078.2000;0.4387;1.2422;
1078.5000;0.4444;1.2610;
1078.8000;0.4420;1.2610;
1079.1000;0.4420;1.2586;
1079.4000;0.4469;1.2586;
1079.7000;0.4436;1.2422;
1080.0000;0.4436;1.2398;
1080.3000;0.4461;1.2445;
1080.6000;0.4461;1.2445;
1080.9000;0.4469;1.2516;
1081.2000;0.4461;1.2516;
1081.5000;0.4355;1.2304;
1081.8000;0.4477;1.2634;
1082.1000;0.4428;1.2516;
1082.4000;0.4436;1.2586;
1082.7000;0.4453;1.2563;
1083.0000;0.4501;1.2610;
1083.3000;0.4420;1.2375;
1083.6000;0.4461;1.2492;
1083.9000;0.4461;1.2492;
1084.2000;0.4436;1.2445;
1084.5000;0.4444;1.2469;
1084.8000;0.4412;1.2422;
1085.1000;0.4420;1.2398;
1085.4000;0.4444;1.2422;
1085.7000;0.4428;1.2281;
1086.0000;0.4428;1.2304;
1086.3000;0.4436;1.2328;
1086.6000;0.4461;1.2351;
1086.9000;0.4461;1.2422;
1087.2000;0.4436;1.2398;
1087.5000;0.4453;1.2328;
1087.8000;0.4461;1.2351;
1088.1000;0.4444;1.2375;
1088.4000;0.4444;1.2375;
1088.7000;0.4428;1.2398;
1089.0000;0.4428;1.2445;
1089.3000;0.4420;1.2469;
1089.6000;0.4420;1.2398;
1089.9000;0.4444;1.2398;
1090.2000;0.4420;1.2375;
1090.5000;0.4412;1.2492;
1090.8000;0.4444;1.2610;
1091.1000;0.4444;1.2657;
1091.4000;0.4420;1.2516;
1091.7000;0.4453;1.2586;
1092.0000;0.4444;1.2539;
1092.3000;0.4461;1.2539;
1092.6000;0.4444;1.2539;
1092.9000;0.4453;1.2469;
1093.2000;0.4428;1.2539;
1093.5000;0.4420;1.2516;
1093.8000;0.4404;1.2563;
1094.1000;0.4428;1.2586;
1094.4000;0.4412;1.2586;
1094.7000;0.4428;1.2657;
1095.0000;0.4428;1.2563;
1095.3000;0.4453;1.2563;
1095.6000;0.4444;1.2586;
1095.9000;0.4412;1.2586;
1096.2000;0.4453;1.2775;
1096.5000;0.4461;1.2845;
1096.8000;0.4379;1.2657;
1097.1000;0.4396;1.2728;
1097.4000;0.4444;1.2728;
1097.7000;0.4396;1.2539;
1098.0000;0.4436;1.2586;
1098.3000;0.4436;1.2634;
1098.6000;0.4428;1.2681;
1098.9000;0.4420;1.2704;
1099.2000;0.4444;1.2586;
1099.5000;0.4420;1.2492;
1099.8000;0.4453;1.2586;
1100.1000;0.4436;1.2516;
1100.4000;0.4436;1.2492;
1100.7000;0.4436;1.2539;
1101.0000;0.4444;1.2563;
1101.3000;0.4444;1.2516;
1101.6000;0.4444;1.2492;
1101.9000;0.4420;1.2422;
1102.2000;0.4453;1.2445;
1102.5000;0.4461;1.2516;
1102.8000;0.4501;1.2610;
1103.1000;0.4501;1.2445;
1103.4000;0.4412;1.2234;
1103.7000;0.4420;1.2328;
1104.0000;0.4444;1.2422;
1104.3000;0.4436;1.2445;
1104.6000;0.4428;1.2492;
1104.9000;0.4428;1.2516;
1105.2000;0.4404;1.2516;
1105.5000;0.4412;1.2539;
1105.8000;0.4436;1.2563;
1106.1000;0.4428;1.2539;
1106.4000;0.4412;1.2539;
1106.7000;0.4436;1.2516;
1107.0000;0.4444;1.2539;
1107.3000;0.4428;1.2375;
1107.6000;0.4420;1.2257;
1107.9000;0.4501;1.2492;
1108.2000;0.4420;1.2351;
1108.5000;0.4412;1.2351;
1108.8000;0.4436;1.2445;
1109.1000;0.4436;1.2516;
1109.4000;0.4355;1.2445;
1109.7000;0.4412;1.2516;
1110.0000;0.4412;1.2539;
1110.3000;0.4453;1.2539;
1110.6000;0.4428;1.2469;
1110.9000;0.4436;1.2539;
1111.2000;0.4420;1.2469;
1111.5000;0.4436;1.2516;
1111.8000;0.4428;1.2516;
1112.1000;0.4396;1.2469;
1112.4000;0.4436;1.2610;
1112.7000;0.4444;1.2610;
1113.0000;0.4436;1.2563;
1113.3000;0.4444;1.2563;
1113.6000;0.4444;1.2469;
1113.9000;0.4444;1.2469;
1114.2000;0.4404;1.2375;
1114.5000;0.4420;1.2469;
1114.8000;0.4428;1.2469;
1115.1000;0.4444;1.2539;
1115.4000;0.4436;1.2445;
1115.7000;0.4428;1.2351;
1116.0000;0.4428;1.2210;
1116.3000;0.4428;1.2234;
1116.6000;0.4420;1.2281;
1116.9000;0.4444;1.2351;
1117.2000;0.4436;1.2304;
1117.5000;0.4420;1.2398;
1117.8000;0.4444;1.2445;
1118.1000;0.4444;1.2492;
1118.4000;0.4453;1.2445;
1118.7000;0.4412;1.2469;
1119.0000;0.4436;1.2516;
1119.3000;0.4428;1.2492;
1119.6000;0.4428;1.2516;
1119.9000;0.4420;1.2492;
1120.2000;0.4420;1.2516;
1120.5000;0.4444;1.2634;
1120.8000;0.4420;1.2657;
1121.1000;0.4436;1.2681;
1121.4000;0.4412;1.2610;
1121.7000;0.4428;1.2775;
1122.0000;0.4428;1.2751;
1122.3000;0.4428;1.2586;
1122.6000;0.4428;1.2586;
1122.9000;0.4436;1.2586;
1123.2000;0.4428;1.2539;
1123.5000;0.4428;1.2539;
1123.8000;0.4436;1.2563;
1124.1000;0.4404;1.2469;
1124.4000;0.4436;1.2586;
1124.7000;0.4436;1.2563;
1125.0000;0.4412;1.2586;
1125.3000;0.4412;1.2563;
1125.6000;0.4436;1.2586;
1125.9000;0.4436;1.2563;
1126.2000;0.4428;1.2539;
1126.5000;0.4420;1.2539;
1126.8000;0.4444;1.2634;
1127.1000;0.4420;1.2610;
1127.4000;0.4428;1.2539;
1127.7000;0.4428;1.2422;
1128.0000;0.4444;1.2398;
1128.3000;0.4428;1.2422;
1128.6000;0.4420;1.2516;
1128.9000;0.4420;1.2563;
1129.2000;0.4428;1.2539;
1129.5000;0.4412;1.2492;
1129.8000;0.4420;1.2445;
1130.1000;0.4404;1.2398;
1130.4000;0.4412;1.2539;
1130.7000;0.4412;1.2586;
1131.0000;0.4436;1.2563;
1131.3000;0.4412;1.2445;
1131.6000;0.4396;1.2328;
1131.9000;0.4404;1.2281;
1132.2000;0.4436;1.2445;
1132.5000;0.4420;1.2469;
1132.8000;0.4428;1.2422;
1133.1000;0.4428;1.2445;
1133.4000;0.4420;1.2492;
1133.7000;0.4420;1.2492;
1134.0000;0.4420;1.2516;
1134.3000;0.4412;1.2516;
1134.6000;0.4444;1.2657;
1134.9000;0.4420;1.2681;
1135.2000;0.4428;1.2657;
1135.5000;0.4428;1.2704;
1135.8000;0.4428;1.2775;
1136.1000;0.4363;1.2634;
1136.4000;0.4428;1.2704;
1136.7000;0.4428;1.2610;
1137.0000;0.4428;1.2657;
1137.3000;0.4428;1.2634;
1137.6000;0.4428;1.2634;
1137.9000;0.4412;1.2610;
1138.2000;0.4436;1.2610;
1138.5000;0.4453;1.2586;
1138.8000;0.4436;1.2492;
1139.1000;0.4420;1.2469;
1139.4000;0.4428;1.2516;
1139.7000;0.4436;1.2539;
1140.0000;0.4428;1.2539;
1140.3000;0.4396;1.2398;
1140.6000;0.4412;1.2516;
1140.9000;0.4420;1.2492;
1141.2000;0.4420;1.2469;
1141.5000;0.4387;1.2422;
1141.8000;0.4412;1.2516;
1142.1000;0.4387;1.2586;
1142.4000;0.4420;1.2704;
1142.7000;0.4412;1.2634;
1143.0000;0.4420;1.2657;
1143.3000;0.4412;1.2563;
1143.6000;0.4420;1.2563;
1143.9000;0.4428;1.2516;
1144.2000;0.4420;1.2469;
1144.5000;0.4428;1.2492;
1144.8000;0.4436;1.2586;
1145.1000;0.4436;1.2563;
1145.4000;0.4420;1.2539;
1145.7000;0.4420;1.2563;
1146.0000;0.4412;1.2563;
1146.3000;0.4412;1.2516;
1146.6000;0.4444;1.2586;
1146.9000;0.4412;1.2563;
1147.2000;0.4412;1.2563;
1147.5000;0.4428;1.2586;
1147.8000;0.4428;1.2492;
1148.1000;0.4347;1.2257;
1148.4000;0.4371;1.2398;
1148.7000;0.4428;1.2539;
1149.0000;0.4428;1.2469;
1149.3000;0.4412;1.2422;
1149.6000;0.4420;1.2422;
1149.9000;0.4420;1.2492;
1150.2000;0.4420;1.2469;
1150.5000;0.4436;1.2469;
1150.8000;0.4428;1.2563;
1151.1000;0.4436;1.2586;
1151.4000;0.4428;1.2586;
1151.7000;0.4444;1.2586;
1152.0000;0.4420;1.2586;
1152.3000;0.4412;1.2610;
1152.6000;0.4428;1.2704;
1152.9000;0.4420;1.2634;
1153.2000;0.4404;1.2610;
1153.5000;0.4428;1.2563;
1153.8000;0.4420;1.2610;
1154.1000;0.4428;1.2657;
1154.4000;0.4436;1.2657;
1154.7000;0.4428;1.2634;
1155.0000;0.4461;1.2610;
1155.3000;0.4444;1.2563;
1155.6000;0.4428;1.2516;
1155.9000;0.4412;1.2516;
1156.2000;0.4412;1.2539;
1156.5000;0.4428;1.2657;
1156.8000;0.4412;1.2634;
1157.1000;0.4420;1.2516;
1157.4000;0.4412;1.2563;
1157.7000;0.4428;1.2610;
1158.0000;0.4379;1.2469;
1158.3000;0.4412;1.2516;
1158.6000;0.4396;1.2492;
1158.9000;0.4396;1.2398;
1159.2000;0.4428;1.2563;
1159.5000;0.4453;1.2586;
1159.8000;0.4428;1.2492;
1160.1000;0.4420;1.2516;
1160.4000;0.4412;1.2422;
1160.7000;0.4444;1.2398;
1161.0000;0.4412;1.2422;
1161.3000;0.4420;1.2422;
1161.6000;0.4420;1.2281;
1161.9000;0.4412;1.2234;
1162.2000;0.4420;1.2281;
1162.5000;0.4412;1.2328;
1162.8000;0.4428;1.2351;
1163.1000;0.4420;1.2304;
1163.4000;0.4412;1.2351;
1163.7000;0.4428;1.2422;
1164.0000;0.4420;1.2375;
1164.3000;0.4412;1.2304;
1164.6000;0.4420;1.2304;
1164.9000;0.4420;1.2304;
1165.2000;0.4428;1.2281;
1165.5000;0.4379;1.2234;
1165.8000;0.4396;1.2304;
1166.1000;0.4420;1.2445;
1166.4000;0.4420;1.2469;
1166.7000;0.4444;1.2492;
1167.0000;0.4420;1.2492;
1167.3000;0.4404;1.2422;
1167.6000;0.4428;1.2469;
1167.9000;0.4396;1.2445;
1168.2000;0.4444;1.2516;
1168.5000;0.4428;1.2516;
1168.8000;0.4404;1.2469;
1169.1000;0.4428;1.2586;
1169.4000;0.4428;1.2634;
1169.7000;0.4420;1.2634;
1170.0000;0.4428;1.2657;
1170.3000;0.4477;1.2704;
1170.6000;0.4412;1.2586;
1170.9000;0.4444;1.2586;
1171.2000;0.4469;1.2563;
1171.5000;0.4404;1.2422;
1171.8000;0.4379;1.2328;
1172.1000;0.4404;1.2422;
1172.4000;0.4412;1.2375;
1172.7000;0.4371;1.2234;
1173.0000;0.4436;1.2328;
1173.3000;0.4420;1.2304;
1173.6000;0.4420;1.2304;
1173.9000;0.4387;1.2139;
1174.2000;0.4420;1.2281;
1174.5000;0.4493;1.2398;
1174.8000;0.4420;1.2187;
1175.1000;0.4444;1.2210;
1175.4000;0.4436;1.2092;
1175.7000;0.4477;1.2281;
1176.0000;0.4420;1.2187;
1176.3000;0.4404;1.2210;
1176.6000;0.4396;1.2139;
1176.9000;0.4428;1.2163;
1177.2000;0.4428;1.2139;
1177.5000;0.4420;1.2139;
1177.8000;0.4404;1.2163;
1178.1000;0.4428;1.2210;
1178.4000;0.4428;1.2257;
1178.7000;0.4404;1.2116;
1179.0000;0.4518;1.2398;
1179.3000;0.4436;1.2139;
1179.6000;0.4420;1.2139;
1179.9000;0.4518;1.2398;
1180.2000;0.4428;1.2163;
1180.5000;0.4420;1.2139;
1180.8000;0.4420;1.2139;
1181.1000;0.4453;1.2163;
1181.4000;0.4412;1.2163;
1181.7000;0.4379;1.2092;
1182.0000;0.4396;1.2092;
1182.3000;0.4420;1.2116;
1182.6000;0.4404;1.2163;
1182.9000;0.4396;1.2234;
1183.2000;0.4428;1.2281;
1183.5000;0.4428;1.2375;
1183.8000;0.4420;1.2398;
1184.1000;0.4412;1.2328;
1184.4000;0.4404;1.2281;
1184.7000;0.4387;1.2210;
1185.0000;0.4420;1.2281;
1185.3000;0.4485;1.2516;
1185.6000;0.4428;1.2398;
1185.9000;0.4428;1.2469;
1186.2000;0.4420;1.2398;
1186.5000;0.4420;1.2422;
1186.8000;0.4469;1.2586;
1187.1000;0.4412;1.2445;
1187.4000;0.4404;1.2445;
1187.7000;0.4371;1.2304;
1188.0000;0.4387;1.2257;
1188.3000;0.4412;1.2281;
1188.6000;0.4444;1.2398;
1188.9000;0.4347;1.2210;
1189.2000;0.4387;1.2351;
1189.5000;0.4412;1.2351;
1189.8000;0.4444;1.2492;
1190.1000;0.4436;1.2539;
1190.4000;0.4428;1.2563;
1190.7000;0.4420;1.2492;
1191.0000;0.4420;1.2398;
1191.3000;0.4404;1.2375;
1191.6000;0.4396;1.2328;
1191.9000;0.4420;1.2351;
1192.2000;0.4428;1.2375;
1192.5000;0.4420;1.2328;
1192.8000;0.4420;1.2398;
1193.1000;0.4461;1.2492;
1193.4000;0.4347;1.2257;
1193.7000;0.4412;1.2375;
1194.0000;0.4396;1.2210;
1194.3000;0.4428;1.2328;
1194.6000;0.4436;1.2328;
1194.9000;0.4477;1.2422;
1195.2000;0.4379;1.2210;
1195.5000;0.4330;1.2116;
1195.8000;0.4371;1.2234;
1196.1000;0.4412;1.2375;
1196.4000;0.4428;1.2304;
1196.7000;0.4412;1.2234;
1197.0000;0.4412;1.2304;
1197.3000;0.4428;1.2328;
1197.6000;0.4428;1.2375;
1197.9000;0.4379;1.2234;
1198.2000;0.4396;1.2257;
1198.5000;0.4379;1.2210;
1198.8000;0.4339;1.2139;
1199.1000;0.4339;1.2163;
1199.4000;0.4404;1.2304;
1199.7000;0.4404;1.2304;
1200.0000;0.4420;1.2351;
1200.3000;0.4436;1.2328;
1200.6000;0.4420;1.2281;
1200.9000;0.4404;1.2281;
1201.2000;0.4444;1.2351;
1201.5000;0.4379;1.2234;
1201.8000;0.4412;1.2422;
1202.1000;0.4420;1.2422;
1202.4000;0.4396;1.2328;
1202.7000;0.4436;1.2375;
1203.0000;0.4420;1.2492;
1203.3000;0.4404;1.2563;
1203.6000;0.4469;1.2657;
1203.9000;0.4461;1.2681;
1204.2000;0.4404;1.2539;
1204.5000;0.4412;1.2563;
1204.8000;0.4469;1.2728;
1205.1000;0.4396;1.2539;
1205.4000;0.4493;1.2845;
1205.7000;0.4412;1.2610;
1206.0000;0.4412;1.2681;
1206.3000;0.4461;1.2728;
1206.6000;0.4404;1.2492;
1206.9000;0.4420;1.2681;
1207.2000;0.4436;1.2610;
1207.5000;0.4428;1.2610;
1207.8000;0.4428;1.2539;
1208.1000;0.4412;1.2492;
1208.4000;0.4420;1.2563;
1208.7000;0.4436;1.2634;
1209.0000;0.4404;1.2681;
1209.3000;0.4477;1.2869;
1209.6000;0.4420;1.2728;
1209.9000;0.4428;1.2634;
1210.2000;0.4428;1.2657;
1210.5000;0.4436;1.2657;
1210.8000;0.4469;1.2657;
1211.1000;0.4444;1.2610;
1211.4000;0.4444;1.2634;
1211.7000;0.4379;1.2516;
1212.0000;0.4436;1.2610;
1212.3000;0.4444;1.2563;
1212.6000;0.4412;1.2586;
1212.9000;0.4404;1.2586;
1213.2000;0.4420;1.2539;
1213.5000;0.4412;1.2516;
1213.8000;0.4428;1.2469;
1214.1000;0.4420;1.2398;
1214.4000;0.4387;1.2398;
1214.7000;0.4412;1.2445;
1215.0000;0.4420;1.2469;
1215.3000;0.4453;1.2539;
1215.6000;0.4412;1.2445;
1215.9000;0.4444;1.2563;
1216.2000;0.4428;1.2657;
1216.5000;0.4477;1.2822;
1216.8000;0.4420;1.2657;
1217.1000;0.4469;1.2775;
1217.4000;0.4404;1.2728;
1217.7000;0.4444;1.2798;
1218.0000;0.4396;1.2634;
1218.3000;0.4420;1.2634;
1218.6000;0.4436;1.2681;
1218.9000;0.4404;1.2634;
1219.2000;0.4436;1.2681;
1219.5000;0.4379;1.2539;
1219.8000;0.4428;1.2586;
1220.1000;0.4420;1.2634;
1220.4000;0.4404;1.2610;
1220.7000;0.4420;1.2634;
1221.0000;0.4420;1.2634;
1221.3000;0.4436;1.2657;
1221.6000;0.4461;1.2704;
1221.9000;0.4436;1.2657;
1222.2000;0.4428;1.2704;
1222.5000;0.4412;1.2634;
1222.8000;0.4436;1.2657;
1223.1000;0.4420;1.2657;
1223.4000;0.4387;1.2657;
1223.7000;0.4404;1.2704;
1224.0000;0.4420;1.2751;
1224.3000;0.4428;1.2728;
1224.6000;0.4396;1.2634;
1224.9000;0.4404;1.2728;
1225.2000;0.4420;1.2822;
1225.5000;0.4420;1.2892;
1225.8000;0.4371;1.2751;
1226.1000;0.4420;1.2704;
1226.4000;0.4404;1.2728;
1226.7000;0.4412;1.2728;
1227.0000;0.4444;1.2775;
1227.3000;0.4420;1.2822;
1227.6000;0.4387;1.2775;
1227.9000;0.4396;1.2751;
1228.2000;0.4420;1.2822;
1228.5000;0.4404;1.2775;
1228.8000;0.4412;1.2751;
1229.1000;0.4420;1.2728;
1229.4000;0.4461;1.2822;
1229.7000;0.4387;1.2657;
1230.0000;0.4387;1.2704;
1230.3000;0.4396;1.2728;
1230.6000;0.4428;1.2798;
1230.9000;0.4404;1.2728;
1231.2000;0.4404;1.2657;
1231.5000;0.4379;1.2492;
1231.8000;0.4412;1.2563;
1232.1000;0.4444;1.2586;
1232.4000;0.4412;1.2516;
1232.7000;0.4420;1.2539;
1233.0000;0.4428;1.2539;
1233.3000;0.4404;1.2492;
1233.6000;0.4396;1.2469;
1233.9000;0.4420;1.2539;
1234.2000;0.4412;1.2539;
1234.5000;0.4420;1.2586;
1234.8000;0.4453;1.2563;
1235.1000;0.4428;1.2610;
1235.4000;0.4428;1.2610;
1235.7000;0.4428;1.2586;
1236.0000;0.4428;1.2563;
1236.3000;0.4404;1.2539;
1236.6000;0.4420;1.2586;
1236.9000;0.4428;1.2610;
1237.2000;0.4428;1.2704;
1237.5000;0.4412;1.2681;
1237.8000;0.4420;1.2634;
1238.1000;0.4436;1.2563;
1238.4000;0.4412;1.2586;
1238.7000;0.4420;1.2539;
1239.0000;0.4387;1.2539;
1239.3000;0.4428;1.2563;
1239.6000;0.4444;1.2586;
1239.9000;0.4387;1.2492;
1240.2000;0.4404;1.2539;
1240.5000;0.4412;1.2492;
1240.8000;0.4420;1.2469;
1241.1000;0.4428;1.2516;
1241.4000;0.4412;1.2492;
1241.7000;0.4404;1.2516;
1242.0000;0.4420;1.2586;
1242.3000;0.4420;1.2516;
1242.6000;0.4404;1.2516;
1242.9000;0.4412;1.2492;
1243.2000;0.4420;1.2563;
1243.5000;0.4404;1.2539;
1243.8000;0.4412;1.2610;
1244.1000;0.4363;1.2445;
1244.4000;0.4387;1.2563;
1244.7000;0.4412;1.2539;
1245.0000;0.4404;1.2516;
1245.3000;0.4420;1.2469;
1245.6000;0.4428;1.2398;
1245.9000;0.4428;1.2445;
1246.2000;0.4420;1.2492;
1246.5000;0.4396;1.2563;
1246.8000;0.4428;1.2657;
1247.1000;0.4404;1.2634;
1247.4000;0.4404;1.2728;
1247.7000;0.4420;1.2681;
1248.0000;0.4428;1.2657;
1248.3000;0.4444;1.2634;
1248.6000;0.4436;1.2634;
1248.9000;0.4404;1.2563;
1249.2000;0.4444;1.2586;
1249.5000;0.4412;1.2516;
1249.8000;0.4412;1.2610;
1250.1000;0.4412;1.2563;
1250.4000;0.4387;1.2610;
1250.7000;0.4412;1.2704;
1251.0000;0.4404;1.2704;
1251.3000;0.4404;1.2610;
1251.6000;0.4404;1.2586;
1251.9000;0.4404;1.2610;
1252.2000;0.4420;1.2610;
1252.5000;0.4436;1.2634;
1252.8000;0.4420;1.2469;
1253.1000;0.4404;1.2445;
1253.4000;0.4420;1.2586;
1253.7000;0.4420;1.2563;
1254.0000;0.4387;1.2516;
1254.3000;0.4387;1.2469;
1254.6000;0.4387;1.2375;
1254.9000;0.4444;1.2586;
1255.2000;0.4404;1.2422;
1255.5000;0.4396;1.2398;
1255.8000;0.4379;1.2398;
1256.1000;0.4444;1.2539;
1256.4000;0.4428;1.2516;
1256.7000;0.4420;1.2469;
1257.0000;0.4404;1.2398;
1257.3000;0.4412;1.2422;
1257.6000;0.4412;1.2422;
1257.9000;0.4396;1.2422;
1258.2000;0.4412;1.2469;
1258.5000;0.4412;1.2422;
1258.8000;0.4428;1.2469;
1259.1000;0.4412;1.2469;
1259.4000;0.4396;1.2445;
1259.7000;0.4396;1.2492;
1260.0000;0.4412;1.2492;
1260.3000;0.4420;1.2563;
1260.6000;0.4404;1.2657;
1260.9000;0.4412;1.2610;
1261.2000;0.4412;1.2657;
1261.5000;0.4420;1.2657;
1261.8000;0.4412;1.2610;
1262.1000;0.4396;1.2539;
1262.4000;0.4428;1.2563;
1262.7000;0.4420;1.2516;
1263.0000;0.4363;1.2351;
1263.3000;0.4396;1.2469;
1263.6000;0.4420;1.2422;
1263.9000;0.4444;1.2539;
1264.2000;0.4412;1.2492;
1264.5000;0.4420;1.2398;
1264.8000;0.4453;1.2492;
1265.1000;0.4420;1.2492;
1265.4000;0.4420;1.2516;
1265.7000;0.4412;1.2539;
1266.0000;0.4420;1.2516;
1266.3000;0.4428;1.2445;
1266.6000;0.4428;1.2422;
1266.9000;0.4404;1.2351;
1267.2000;0.4412;1.2375;
1267.5000;0.4444;1.2469;
1267.8000;0.4436;1.2422;
1268.1000;0.4420;1.2328;
1268.4000;0.4412;1.2304;
1268.7000;0.4412;1.2304;
1269.0000;0.4412;1.2351;
1269.3000;0.4428;1.2445;
1269.6000;0.4420;1.2469;
1269.9000;0.4404;1.2516;
1270.2000;0.4420;1.2634;
1270.5000;0.4420;1.2610;
1270.8000;0.4387;1.2563;
1271.1000;0.4412;1.2539;
1271.4000;0.4412;1.2539;
1271.7000;0.4420;1.2445;
1272.0000;0.4436;1.2445;
1272.3000;0.4412;1.2492;
1272.6000;0.4412;1.2516;
1272.9000;0.4412;1.2469;
1273.2000;0.4412;1.2610;
1273.5000;0.4420;1.2610;
1273.8000;0.4428;1.2563;
1274.1000;0.4428;1.2563;
1274.4000;0.4420;1.2610;
1274.7000;0.4420;1.2563;
1275.0000;0.4420;1.2563;
1275.3000;0.4428;1.2563;
1275.6000;0.4420;1.2563;
1275.9000;0.4420;1.2539;
1276.2000;0.4420;1.2539;
1276.5000;0.4404;1.2469;
1276.8000;0.4412;1.2304;
1277.1000;0.4412;1.2304;
1277.4000;0.4396;1.2234;
1277.7000;0.4428;1.2281;
1278.0000;0.4428;1.2398;
1278.3000;0.4396;1.2375;
1278.6000;0.4330;1.2234;
1278.9000;0.4428;1.2445;
1279.2000;0.4412;1.2328;
1279.5000;0.4412;1.2328;
1279.8000;0.4412;1.2351;
1280.1000;0.4396;1.2445;
1280.4000;0.4420;1.2563;
1280.7000;0.4387;1.2563;
1281.0000;0.4412;1.2563;
1281.3000;0.4412;1.2539;
1281.6000;0.4412;1.2563;
1281.9000;0.4412;1.2516;
1282.2000;0.4420;1.2563;
1282.5000;0.4412;1.2586;
1282.8000;0.4428;1.2634;
1283.1000;0.4412;1.2681;
1283.4000;0.4501;1.2892;
1283.7000;0.4412;1.2657;
1284.0000;0.4436;1.2657;
1284.3000;0.4428;1.2634;
1284.6000;0.4420;1.2539;
1284.9000;0.4477;1.2610;
1285.2000;0.4404;1.2422;
1285.5000;0.4330;1.2304;
1285.8000;0.4420;1.2445;
1286.1000;0.4404;1.2375;
1286.4000;0.4363;1.2163;
1286.7000;0.4387;1.2257;
1287.0000;0.4428;1.2445;
1287.3000;0.4404;1.2445;
1287.6000;0.4396;1.2469;
1287.9000;0.4420;1.2469;
1288.2000;0.4387;1.2351;
1288.5000;0.4379;1.2281;
1288.8000;0.4412;1.2492;
1289.1000;0.4420;1.2586;
1289.4000;0.4412;1.2516;
1289.7000;0.4412;1.2563;
1290.0000;0.4404;1.2539;
1290.3000;0.4412;1.2516;
1290.6000;0.4428;1.2563;
1290.9000;0.4420;1.2469;
1291.2000;0.4396;1.2398;
1291.5000;0.4404;1.2445;
1291.8000;0.4404;1.2422;
1292.1000;0.4420;1.2492;
1292.4000;0.4412;1.2445;
1292.7000;0.4412;1.2516;
1293.0000;0.4436;1.2516;
1293.3000;0.4436;1.2469;
1293.6000;0.4420;1.2492;
1293.9000;0.4404;1.2516;
1294.2000;0.4428;1.2539;
1294.5000;0.4428;1.2563;
1294.8000;0.4282;1.2234;
1295.1000;0.4420;1.2634;
1295.4000;0.4412;1.2586;
1295.7000;0.4371;1.2445;
1296.0000;0.4461;1.2728;
1296.3000;0.4412;1.2704;
1296.6000;0.4396;1.2610;
1296.9000;0.4428;1.2657;
1297.2000;0.4420;1.2634;
1297.5000;0.4428;1.2681;
1297.8000;0.4404;1.2516;
1298.1000;0.4404;1.2539;
1298.4000;0.4412;1.2563;
1298.7000;0.4428;1.2610;
1299.0000;0.4428;1.2681;
1299.3000;0.4461;1.2822;
1299.6000;0.4412;1.2751;
1299.9000;0.4428;1.2728;
1300.2000;0.4428;1.2681;
1300.5000;0.4420;1.2610;
1300.8000;0.4404;1.2610;
1301.1000;0.4412;1.2704;
1301.4000;0.4396;1.2751;
1301.7000;0.4436;1.2798;
1302.0000;0.4396;1.2728;
1302.3000;0.4420;1.2751;
1302.6000;0.4420;1.2775;
1302.9000;0.4453;1.2845;
1303.2000;0.4396;1.2728;
1303.5000;0.4444;1.2775;
1303.8000;0.4371;1.2586;
1304.1000;0.4420;1.2681;
1304.4000;0.4404;1.2728;
1304.7000;0.4412;1.2751;
1305.0000;0.4412;1.2751;
1305.3000;0.4396;1.2681;
1305.6000;0.4404;1.2728;
1305.9000;0.4436;1.2728;
1306.2000;0.4412;1.2634;
1306.5000;0.4412;1.2681;
1306.8000;0.4420;1.2728;
1307.1000;0.4420;1.2681;
1307.4000;0.4444;1.2728;
1307.7000;0.4404;1.2634;
1308.0000;0.4420;1.2586;
1308.3000;0.4428;1.2634;
1308.6000;0.4428;1.2634;
1308.9000;0.4436;1.2610;
1309.2000;0.4387;1.2422;
1309.5000;0.4428;1.2492;
1309.8000;0.4412;1.2492;
1310.1000;0.4428;1.2516;
1310.4000;0.4477;1.2634;
1310.7000;0.4387;1.2469;
1311.0000;0.4412;1.2469;
1311.3000;0.4469;1.2586;
1311.6000;0.4477;1.2586;
1311.9000;0.4404;1.2398;
1312.2000;0.4420;1.2422;
1312.5000;0.4420;1.2422;
1312.8000;0.4371;1.2351;
1313.1000;0.4412;1.2469;
1313.4000;0.4420;1.2422;
1313.7000;0.4436;1.2516;
1314.0000;0.4387;1.2469;
1314.3000;0.4363;1.2398;
1314.6000;0.4428;1.2492;
1314.9000;0.4412;1.2422;
1315.2000;0.4420;1.2445;
1315.5000;0.4420;1.2516;
1315.8000;0.4404;1.2492;
1316.1000;0.4412;1.2422;
1316.4000;0.4461;1.2539;
1316.7000;0.4387;1.2398;
1317.0000;0.4420;1.2469;
1317.3000;0.4396;1.2469;
1317.6000;0.4428;1.2539;
1317.9000;0.4412;1.2492;
1318.2000;0.4501;1.2681;
1318.5000;0.4412;1.2422;
1318.8000;0.4453;1.2610;
1319.1000;0.4396;1.2469;
1319.4000;0.4420;1.2469;
1319.7000;0.4404;1.2539;
1320.0000;0.4420;1.2516;
1320.3000;0.4412;1.2398;
1320.6000;0.4412;1.2375;
1320.9000;0.4371;1.2304;
1321.2000;0.4420;1.2516;
1321.5000;0.4477;1.2610;
1321.8000;0.4404;1.2492;
1322.1000;0.4396;1.2492;
1322.4000;0.4453;1.2563;
1322.7000;0.4404;1.2375;
1323.0000;0.4412;1.2445;
1323.3000;0.4387;1.2328;
1323.6000;0.4355;1.2187;
1323.9000;0.4387;1.2328;
1324.2000;0.4420;1.2375;
1324.5000;0.4420;1.2422;
1324.8000;0.4347;1.2328;
1325.1000;0.4412;1.2469;
1325.4000;0.4420;1.2563;
1325.7000;0.4461;1.2634;
1326.0000;0.4404;1.2516;
1326.3000;0.4396;1.2539;
1326.6000;0.4396;1.2516;
1326.9000;0.4339;1.2351;
1327.2000;0.4412;1.2422;
1327.5000;0.4404;1.2375;
1327.8000;0.4387;1.2398;
1328.1000;0.4428;1.2398;
1328.4000;0.4436;1.2398;
1328.7000;0.4428;1.2375;
1329.0000;0.4347;1.2257;
1329.3000;0.4453;1.2586;
1329.6000;0.4412;1.2422;
1329.9000;0.4436;1.2469;
1330.2000;0.4412;1.2398;
1330.5000;0.4420;1.2445;
1330.8000;0.4420;1.2398;
1331.1000;0.4436;1.2398;
1331.4000;0.4404;1.2375;
1331.7000;0.4396;1.2351;
1332.0000;0.4420;1.2516;
1332.3000;0.4404;1.2445;
1332.6000;0.4428;1.2492;
1332.9000;0.4444;1.2492;
1333.2000;0.4420;1.2398;
1333.5000;0.4436;1.2375;
1333.8000;0.4363;1.2375;
1334.1000;0.4461;1.2657;
1334.4000;0.4436;1.2586;
1334.7000;0.4396;1.2492;
1335.0000;0.4355;1.2328;
1335.3000;0.4387;1.2422;
1335.6000;0.4420;1.2445;
1335.9000;0.4396;1.2445;
1336.2000;0.4404;1.2469;
1336.5000;0.4412;1.2634;
1336.8000;0.4420;1.2634;
1337.1000;0.4461;1.2728;
1337.4000;0.4371;1.2398;
1337.7000;0.4412;1.2492;
1338.0000;0.4404;1.2445;
1338.3000;0.4404;1.2445;
1338.6000;0.4420;1.2539;
1338.9000;0.4355;1.2398;
1339.2000;0.4404;1.2634;
1339.5000;0.4371;1.2657;
1339.8000;0.4396;1.2610;
1340.1000;0.4412;1.2681;
1340.4000;0.4404;1.2657;
1340.7000;0.4420;1.2704;
1341.0000;0.4420;1.2751;
1341.3000;0.4420;1.2728;
1341.6000;0.4396;1.2681;
1341.9000;0.4420;1.2634;
1342.2000;0.4404;1.2492;
1342.5000;0.4387;1.2469;
1342.8000;0.4420;1.2634;
1343.1000;0.4428;1.2516;
1343.4000;0.4444;1.2610;
1343.7000;0.4396;1.2469;
1344.0000;0.4420;1.2492;
1344.3000;0.4428;1.2516;
1344.6000;0.4404;1.2539;
1344.9000;0.4396;1.2516;
1345.2000;0.4436;1.2610;
1345.5000;0.4396;1.2445;
1345.8000;0.4412;1.2539;
1346.1000;0.4412;1.2469;
1346.4000;0.4461;1.2563;
1346.7000;0.4387;1.2398;
1347.0000;0.4436;1.2492;
1347.3000;0.4420;1.2469;
1347.6000;0.4412;1.2469;
1347.9000;0.4412;1.2492;
1348.2000;0.4420;1.2634;
1348.5000;0.4412;1.2492;
1348.8000;0.4420;1.2492;
1349.1000;0.4436;1.2516;
1349.4000;0.4387;1.2304;
1349.7000;0.4428;1.2328;
1350.0000;0.4428;1.2281;
1350.3000;0.4453;1.2375;
1350.6000;0.4436;1.2375;
1350.9000;0.4420;1.2281;
1351.2000;0.4436;1.2375;
1351.5000;0.4412;1.2398;
1351.8000;0.4420;1.2469;
1352.1000;0.4420;1.2492;
1352.4000;0.4404;1.2516;
1352.7000;0.4412;1.2492;
1353.0000;0.4420;1.2516;
1353.3000;0.4412;1.2445;
1353.6000;0.4404;1.2375;
1353.9000;0.4387;1.2304;
1354.2000;0.4404;1.2398;
1354.5000;0.4412;1.2469;
1354.8000;0.4436;1.2516;
1355.1000;0.4396;1.2351;
1355.4000;0.4404;1.2563;
1355.7000;0.4412;1.2586;
1356.0000;0.4428;1.2586;
1356.3000;0.4412;1.2539;
1356.6000;0.4428;1.2469;
1356.9000;0.4436;1.2422;
1357.2000;0.4436;1.2445;
1357.5000;0.4420;1.2445;
1357.8000;0.4412;1.2398;
1358.1000;0.4412;1.2351;
1358.4000;0.4404;1.2281;
1358.7000;0.4404;1.2375;
1359.0000;0.4404;1.2398;
1359.3000;0.4404;1.2375;
1359.6000;0.4420;1.2328;
1359.9000;0.4420;1.2281;
1360.2000;0.4412;1.2257;
1360.5000;0.4412;1.2234;
1360.8000;0.4428;1.2328;
1361.1000;0.4428;1.2422;
1361.4000;0.4396;1.2304;
1361.7000;0.4436;1.2351;
1362.0000;0.4436;1.2398;
1362.3000;0.4412;1.2281;
1362.6000;0.4420;1.2257;
1362.9000;0.4428;1.2257;
1363.2000;0.4428;1.2328;
1363.5000;0.4412;1.2351;
1363.8000;0.4428;1.2328;
1364.1000;0.4428;1.2281;
1364.4000;0.4420;1.2304;
1364.7000;0.4412;1.2351;
1365.0000;0.4436;1.2398;
1365.3000;0.4420;1.2328;
1365.6000;0.4428;1.2398;
1365.9000;0.4412;1.2422;
1366.2000;0.4428;1.2375;
1366.5000;0.4412;1.2304;
1366.8000;0.4420;1.2422;
1367.1000;0.4412;1.2375;
1367.4000;0.4412;1.2351;
1367.7000;0.4412;1.2304;
1368.0000;0.4412;1.2257;
1368.3000;0.4404;1.2304;
1368.6000;0.4412;1.2398;
1368.9000;0.4526;1.2704;
1369.2000;0.4428;1.2445;
1369.5000;0.4428;1.2422;
1369.8000;0.4379;1.2375;
1370.1000;0.4453;1.2563;
1370.4000;0.4412;1.2492;
1370.7000;0.4404;1.2492;
1371.0000;0.4412;1.2563;
1371.3000;0.4420;1.2586;
1371.6000;0.4420;1.2492;
1371.9000;0.4412;1.2563;
1372.2000;0.4428;1.2634;
1372.5000;0.4412;1.2586;
1372.8000;0.4420;1.2586;
1373.1000;0.4404;1.2539;
1373.4000;0.4404;1.2516;
1373.7000;0.4396;1.2492;
1374.0000;0.4412;1.2610;
1374.3000;0.4412;1.2563;
1374.6000;0.4404;1.2539;
1374.9000;0.4420;1.2516;
1375.2000;0.4420;1.2516;
1375.5000;0.4404;1.2492;
1375.8000;0.4404;1.2492;
1376.1000;0.4412;1.2539;
1376.4000;0.4428;1.2634;
1376.7000;0.4428;1.2681;
1377.0000;0.4420;1.2539;
1377.3000;0.4412;1.2610;
1377.6000;0.4428;1.2704;
1377.9000;0.4412;1.2704;
1378.2000;0.4420;1.2728;
1378.5000;0.4396;1.2704;
1378.8000;0.4404;1.2704;
1379.1000;0.4420;1.2657;
1379.4000;0.4412;1.2657;
1379.7000;0.4436;1.2657;
1380.0000;0.4404;1.2492;
1380.3000;0.4420;1.2563;
1380.6000;0.4420;1.2492;
1380.9000;0.4396;1.2445;
1381.2000;0.4412;1.2445;
1381.5000;0.4420;1.2445;
1381.8000;0.4420;1.2610;
1382.1000;0.4396;1.2610;
1382.4000;0.4396;1.2586;
1382.7000;0.4420;1.2681;
1383.0000;0.4420;1.2634;
1383.3000;0.4412;1.2634;
1383.6000;0.4420;1.2704;
1383.9000;0.4322;1.2398;
1384.2000;0.4420;1.2563;
1384.5000;0.4404;1.2563;
1384.8000;0.4339;1.2445;
1385.1000;0.4412;1.2634;
1385.4000;0.4412;1.2704;
1385.7000;0.4396;1.2775;
1386.0000;0.4412;1.2798;
1386.3000;0.4420;1.2704;
1386.6000;0.4428;1.2751;
1386.9000;0.4436;1.2751;
1387.2000;0.4428;1.2681;
1387.5000;0.4420;1.2586;
1387.8000;0.4412;1.2610;
1388.1000;0.4420;1.2586;
1388.4000;0.4428;1.2492;
1388.7000;0.4404;1.2516;
1389.0000;0.4420;1.2563;
1389.3000;0.4420;1.2469;
1389.6000;0.4412;1.2445;
1389.9000;0.4420;1.2539;
1390.2000;0.4436;1.2563;
1390.5000;0.4428;1.2539;
1390.8000;0.4428;1.2469;
1391.1000;0.4420;1.2375;
1391.4000;0.4436;1.2351;
1391.7000;0.4436;1.2422;
1392.0000;0.4420;1.2422;
1392.3000;0.4420;1.2469;
1392.6000;0.4420;1.2351;
1392.9000;0.4412;1.2351;
1393.2000;0.4420;1.2422;
1393.5000;0.4420;1.2422;
1393.8000;0.4444;1.2469;
1394.1000;0.4412;1.2398;
1394.4000;0.4420;1.2304;
1394.7000;0.4493;1.2469;
1395.0000;0.4412;1.2210;
1395.3000;0.4404;1.2210;
1395.6000;0.4428;1.2281;
1395.9000;0.4428;1.2304;
1396.2000;0.4404;1.2257;
1396.5000;0.4461;1.2375;
1396.8000;0.4396;1.2187;
1397.1000;0.4420;1.2187;
1397.4000;0.4412;1.2210;
1397.7000;0.4428;1.2328;
1398.0000;0.4412;1.2304;
1398.3000;0.4412;1.2234;
1398.6000;0.4420;1.2234;
1398.9000;0.4412;1.2257;
1399.2000;0.4412;1.2210;
1399.5000;0.4420;1.2187;
1399.8000;0.4444;1.2234;
