time/ms;Fluo/V;P700 deltaI/I x10³;
-199.8000;0.4640;0.9928;
-199.5000;0.4591;0.9763;
-199.2000;0.4648;0.9810;
-198.9000;0.4640;0.9740;
-198.6000;0.4624;0.9716;
-198.3000;0.4640;0.9834;
-198.0000;0.4624;0.9834;
-197.7000;0.4632;0.9857;
-197.4000;0.4640;0.9857;
-197.1000;0.4640;0.9881;
-196.8000;0.4640;0.9857;
-196.5000;0.4664;0.9928;
-196.2000;0.4632;0.9928;
-195.9000;0.4648;0.9904;
-195.6000;0.4632;0.9928;
-195.3000;0.4640;0.9952;
-195.0000;0.4648;0.9857;
-194.7000;0.4615;0.9787;
-194.4000;0.4632;0.9904;
-194.1000;0.4648;1.0022;
-193.8000;0.4632;1.0046;
-193.5000;0.4648;1.0069;
-193.2000;0.4640;0.9975;
-192.9000;0.4632;0.9928;
-192.6000;0.4607;0.9904;
-192.3000;0.4615;0.9928;
-192.0000;0.4624;0.9975;
-191.7000;0.4640;0.9999;
-191.4000;0.4640;1.0022;
-191.1000;0.4632;0.9999;
-190.8000;0.4656;0.9999;
-190.5000;0.4672;1.0022;
-190.2000;0.4648;0.9999;
-189.9000;0.4664;0.9975;
-189.6000;0.4656;0.9881;
-189.3000;0.4640;0.9952;
-189.0000;0.4648;0.9999;
-188.7000;0.4664;0.9975;
-188.4000;0.4656;0.9999;
-188.1000;0.4640;0.9952;
-187.8000;0.4632;0.9975;
-187.5000;0.4656;1.0022;
-187.2000;0.4640;0.9975;
-186.9000;0.4640;0.9928;
-186.6000;0.4697;1.0069;
-186.3000;0.4640;0.9999;
-186.0000;0.4640;1.0022;
-185.7000;0.4640;1.0046;
-185.4000;0.4721;1.0210;
-185.1000;0.4648;1.0046;
-184.8000;0.4648;1.0046;
-184.5000;0.4624;1.0069;
-184.2000;0.4648;1.0046;
-183.9000;0.4648;0.9999;
-183.6000;0.4713;1.0116;
-183.3000;0.4640;0.9952;
-183.0000;0.4648;0.9952;
-182.7000;0.4664;1.0140;
-182.4000;0.4648;0.9999;
-182.1000;0.4648;1.0093;
-181.8000;0.4640;1.0046;
-181.5000;0.4648;0.9975;
-181.2000;0.4591;0.9787;
-180.9000;0.4640;0.9928;
-180.6000;0.4656;0.9975;
-180.3000;0.4575;0.9952;
-180.0000;0.4648;1.0046;
-179.7000;0.4648;1.0069;
-179.4000;0.4640;0.9975;
-179.1000;0.4648;0.9975;
-178.8000;0.4656;1.0022;
-178.5000;0.4672;0.9975;
-178.2000;0.4632;0.9904;
-177.9000;0.4632;1.0046;
-177.6000;0.4640;1.0069;
-177.3000;0.4640;0.9999;
-177.0000;0.4664;1.0046;
-176.7000;0.4664;1.0093;
-176.4000;0.4640;1.0069;
-176.1000;0.4664;1.0116;
-175.8000;0.4615;0.9999;
-175.5000;0.4624;1.0069;
-175.2000;0.4681;1.0257;
-174.9000;0.4526;0.9810;
-174.6000;0.4583;0.9904;
-174.3000;0.4615;0.9857;
-174.0000;0.4656;0.9904;
-173.7000;0.4705;1.0069;
-173.4000;0.4632;0.9881;
-173.1000;0.4624;0.9999;
-172.8000;0.4534;0.9834;
-172.5000;0.4648;1.0093;
-172.2000;0.4640;1.0046;
-171.9000;0.4632;1.0140;
-171.6000;0.4558;0.9999;
-171.3000;0.4632;1.0187;
-171.0000;0.4656;1.0257;
-170.7000;0.4656;1.0234;
-170.4000;0.4599;1.0210;
-170.1000;0.4632;1.0257;
-169.8000;0.4640;1.0187;
-169.5000;0.4624;1.0116;
-169.2000;0.4648;1.0140;
-168.9000;0.4632;1.0163;
-168.6000;0.4624;1.0234;
-168.3000;0.4632;1.0210;
-168.0000;0.4640;1.0187;
-167.7000;0.4648;1.0257;
-167.4000;0.4656;1.0210;
-167.1000;0.4640;1.0257;
-166.8000;0.4632;1.0304;
-166.5000;0.4624;1.0257;
-166.2000;0.4640;1.0116;
-165.9000;0.4697;1.0210;
-165.6000;0.4689;1.0140;
-165.3000;0.4648;0.9999;
-165.0000;0.4648;1.0093;
-164.7000;0.4762;1.0469;
-164.4000;0.4648;1.0163;
-164.1000;0.4648;1.0046;
-163.8000;0.4656;1.0022;
-163.5000;0.4664;1.0046;
-163.2000;0.4632;1.0093;
-162.9000;0.4664;1.0187;
-162.6000;0.4624;1.0116;
-162.3000;0.4648;1.0210;
-162.0000;0.4656;1.0210;
-161.7000;0.4615;1.0046;
-161.4000;0.4640;1.0140;
-161.1000;0.4648;1.0234;
-160.8000;0.4648;1.0140;
-160.5000;0.4672;1.0140;
-160.2000;0.4640;1.0069;
-159.9000;0.4672;1.0069;
-159.6000;0.4648;0.9999;
-159.3000;0.4624;0.9952;
-159.0000;0.4624;0.9975;
-158.7000;0.4599;0.9999;
-158.4000;0.4632;1.0093;
-158.1000;0.4624;1.0140;
-157.8000;0.4615;1.0140;
-157.5000;0.4656;1.0210;
-157.2000;0.4656;1.0140;
-156.9000;0.4648;1.0022;
-156.6000;0.4640;1.0116;
-156.3000;0.4705;1.0210;
-156.0000;0.4656;1.0093;
-155.7000;0.4656;1.0140;
-155.4000;0.4664;1.0116;
-155.1000;0.4648;1.0046;
-154.8000;0.4672;1.0093;
-154.5000;0.4656;1.0069;
-154.2000;0.4713;1.0210;
-153.9000;0.4640;0.9999;
-153.6000;0.4656;1.0046;
-153.3000;0.4640;1.0046;
-153.0000;0.4640;1.0069;
-152.7000;0.4624;0.9975;
-152.4000;0.4615;0.9975;
-152.1000;0.4640;0.9952;
-151.8000;0.4656;0.9999;
-151.5000;0.4648;0.9999;
-151.2000;0.4705;1.0210;
-150.9000;0.4599;0.9904;
-150.6000;0.4640;0.9999;
-150.3000;0.4656;1.0046;
-150.0000;0.4664;1.0093;
-149.7000;0.4599;0.9999;
-149.4000;0.4648;1.0093;
-149.1000;0.4664;1.0163;
-148.8000;0.4624;1.0140;
-148.5000;0.4656;1.0210;
-148.2000;0.4640;1.0187;
-147.9000;0.4632;1.0187;
-147.6000;0.4656;1.0187;
-147.3000;0.4632;1.0234;
-147.0000;0.4640;1.0304;
-146.7000;0.4648;1.0281;
-146.4000;0.4656;1.0257;
-146.1000;0.4632;1.0093;
-145.8000;0.4615;1.0022;
-145.5000;0.4640;1.0069;
-145.2000;0.4656;1.0093;
-144.9000;0.4656;1.0093;
-144.6000;0.4640;1.0069;
-144.3000;0.4640;1.0140;
-144.0000;0.4648;1.0069;
-143.7000;0.4632;0.9952;
-143.4000;0.4640;0.9975;
-143.1000;0.4624;0.9952;
-142.8000;0.4599;0.9881;
-142.5000;0.4640;0.9975;
-142.2000;0.4656;0.9952;
-141.9000;0.4632;1.0022;
-141.6000;0.4664;1.0210;
-141.3000;0.4648;1.0163;
-141.0000;0.4632;1.0140;
-140.7000;0.4746;1.0469;
-140.4000;0.4632;1.0187;
-140.1000;0.4656;1.0069;
-139.8000;0.4656;1.0069;
-139.5000;0.4648;1.0093;
-139.2000;0.4640;0.9999;
-138.9000;0.4648;0.9999;
-138.6000;0.4640;0.9857;
-138.3000;0.4624;0.9834;
-138.0000;0.4640;0.9881;
-137.7000;0.4697;0.9975;
-137.4000;0.4632;0.9952;
-137.1000;0.4632;0.9999;
-136.8000;0.4632;0.9975;
-136.5000;0.4624;0.9999;
-136.2000;0.4624;1.0093;
-135.9000;0.4583;0.9975;
-135.6000;0.4615;0.9975;
-135.3000;0.4664;1.0046;
-135.0000;0.4632;1.0022;
-134.7000;0.4624;1.0069;
-134.4000;0.4640;1.0022;
-134.1000;0.4640;1.0022;
-133.8000;0.4599;0.9928;
-133.5000;0.4575;0.9952;
-133.2000;0.4632;1.0163;
-132.9000;0.4664;1.0163;
-132.6000;0.4640;1.0046;
-132.3000;0.4624;0.9999;
-132.0000;0.4624;0.9999;
-131.7000;0.4640;0.9999;
-131.4000;0.4624;0.9999;
-131.1000;0.4640;1.0093;
-130.8000;0.4632;1.0069;
-130.5000;0.4615;1.0022;
-130.2000;0.4640;1.0046;
-129.9000;0.4632;1.0046;
-129.6000;0.4632;0.9975;
-129.3000;0.4640;0.9904;
-129.0000;0.4656;0.9904;
-128.7000;0.4640;0.9834;
-128.4000;0.4656;0.9928;
-128.1000;0.4632;0.9857;
-127.8000;0.4656;0.9928;
-127.5000;0.4648;0.9952;
-127.2000;0.4632;0.9928;
-126.9000;0.4721;1.0140;
-126.6000;0.4632;0.9952;
-126.3000;0.4689;1.0046;
-126.0000;0.4624;0.9975;
-125.7000;0.4632;1.0046;
-125.4000;0.4640;1.0069;
-125.1000;0.4640;0.9999;
-124.8000;0.4640;0.9904;
-124.5000;0.4648;0.9952;
-124.2000;0.4640;1.0022;
-123.9000;0.4656;0.9999;
-123.6000;0.4656;1.0022;
-123.3000;0.4599;0.9999;
-123.0000;0.4632;1.0069;
-122.7000;0.4656;1.0140;
-122.4000;0.4648;1.0046;
-122.1000;0.4648;0.9952;
-121.8000;0.4624;0.9857;
-121.5000;0.4624;0.9881;
-121.2000;0.4591;0.9904;
-120.9000;0.4640;0.9928;
-120.6000;0.4632;0.9881;
-120.3000;0.4615;0.9999;
-120.0000;0.4640;1.0140;
-119.7000;0.4648;1.0163;
-119.4000;0.4583;1.0116;
-119.1000;0.4640;1.0116;
-118.8000;0.4640;1.0046;
-118.5000;0.4648;1.0069;
-118.2000;0.4656;1.0046;
-117.9000;0.4656;0.9999;
-117.6000;0.4648;1.0069;
-117.3000;0.4729;1.0351;
-117.0000;0.4648;1.0116;
-116.7000;0.4640;1.0116;
-116.4000;0.4615;1.0069;
-116.1000;0.4656;1.0210;
-115.8000;0.4640;1.0210;
-115.5000;0.4615;1.0093;
-115.2000;0.4632;1.0116;
-114.9000;0.4640;1.0116;
-114.6000;0.4640;1.0163;
-114.3000;0.4664;1.0163;
-114.0000;0.4640;0.9999;
-113.7000;0.4664;1.0093;
-113.4000;0.4664;1.0093;
-113.1000;0.4656;1.0116;
-112.8000;0.4640;1.0116;
-112.5000;0.4640;1.0093;
-112.2000;0.4648;1.0116;
-111.9000;0.4632;1.0069;
-111.6000;0.4632;1.0022;
-111.3000;0.4648;0.9952;
-111.0000;0.4648;0.9952;
-110.7000;0.4624;0.9952;
-110.4000;0.4615;0.9975;
-110.1000;0.4648;1.0069;
-109.8000;0.4640;1.0116;
-109.5000;0.4648;1.0069;
-109.2000;0.4624;1.0022;
-108.9000;0.4640;1.0069;
-108.6000;0.4648;1.0069;
-108.3000;0.4648;0.9999;
-108.0000;0.4640;0.9928;
-107.7000;0.4632;0.9810;
-107.4000;0.4624;0.9740;
-107.1000;0.4648;0.9763;
-106.8000;0.4632;0.9763;
-106.5000;0.4648;0.9881;
-106.2000;0.4656;0.9975;
-105.9000;0.4648;0.9881;
-105.6000;0.4640;0.9928;
-105.3000;0.4624;0.9857;
-105.0000;0.4640;0.9904;
-104.7000;0.4648;0.9904;
-104.4000;0.4681;1.0069;
-104.1000;0.4624;0.9999;
-103.8000;0.4624;0.9952;
-103.5000;0.4632;0.9975;
-103.2000;0.4648;0.9975;
-102.9000;0.4632;0.9999;
-102.6000;0.4640;1.0046;
-102.3000;0.4632;1.0140;
-102.0000;0.4632;1.0116;
-101.7000;0.4640;1.0116;
-101.4000;0.4648;1.0140;
-101.1000;0.4632;1.0022;
-100.8000;0.4632;0.9999;
-100.5000;0.4640;0.9999;
-100.2000;0.4640;1.0116;
-99.9000;0.4607;1.0093;
-99.6000;0.4632;1.0046;
-99.3000;0.4648;1.0093;
-99.0000;0.4632;1.0069;
-98.7000;0.4632;1.0116;
-98.4000;0.4640;1.0163;
-98.1000;0.4689;1.0210;
-97.8000;0.4640;1.0069;
-97.5000;0.4648;1.0069;
-97.2000;0.4632;1.0022;
-96.9000;0.4640;0.9999;
-96.6000;0.4615;0.9881;
-96.3000;0.4664;0.9904;
-96.0000;0.4632;0.9787;
-95.7000;0.4640;0.9904;
-95.4000;0.4656;0.9904;
-95.1000;0.4648;0.9904;
-94.8000;0.4648;0.9999;
-94.5000;0.4648;1.0163;
-94.2000;0.4640;1.0187;
-93.9000;0.4681;1.0304;
-93.6000;0.4632;1.0116;
-93.3000;0.4648;1.0069;
-93.0000;0.4640;1.0093;
-92.7000;0.4640;1.0069;
-92.4000;0.4656;1.0093;
-92.1000;0.4648;1.0116;
-91.8000;0.4648;1.0116;
-91.5000;0.4591;0.9975;
-91.2000;0.4648;0.9975;
-90.9000;0.4648;0.9952;
-90.6000;0.4664;0.9928;
-90.3000;0.4624;0.9810;
-90.0000;0.4632;0.9763;
-89.7000;0.4615;0.9716;
-89.4000;0.4624;0.9787;
-89.1000;0.4640;0.9904;
-88.8000;0.4632;0.9928;
-88.5000;0.4615;0.9975;
-88.2000;0.4648;0.9975;
-87.9000;0.4624;0.9881;
-87.6000;0.4632;0.9881;
-87.3000;0.4656;0.9975;
-87.0000;0.4681;1.0046;
-86.7000;0.4648;1.0093;
-86.4000;0.4648;1.0093;
-86.1000;0.4640;0.9999;
-85.8000;0.4624;0.9928;
-85.5000;0.4615;0.9857;
-85.2000;0.4648;0.9881;
-84.9000;0.4624;0.9787;
-84.6000;0.4640;0.9928;
-84.3000;0.4632;0.9928;
-84.0000;0.4632;1.0046;
-83.7000;0.4648;1.0093;
-83.4000;0.4640;1.0093;
-83.1000;0.4591;0.9999;
-82.8000;0.4648;1.0116;
-82.5000;0.4591;0.9975;
-82.2000;0.4640;1.0022;
-81.9000;0.4591;0.9834;
-81.6000;0.4656;0.9975;
-81.3000;0.4697;1.0140;
-81.0000;0.4648;0.9952;
-80.7000;0.4632;0.9928;
-80.4000;0.4640;0.9952;
-80.1000;0.4648;0.9904;
-79.8000;0.4664;0.9904;
-79.5000;0.4640;0.9881;
-79.2000;0.4640;0.9904;
-78.9000;0.4656;0.9952;
-78.6000;0.4615;0.9857;
-78.3000;0.4624;0.9928;
-78.0000;0.4640;1.0116;
-77.7000;0.4648;1.0116;
-77.4000;0.4632;1.0046;
-77.1000;0.4632;1.0022;
-76.8000;0.4624;1.0022;
-76.5000;0.4632;0.9975;
-76.2000;0.4632;0.9999;
-75.9000;0.4624;1.0046;
-75.6000;0.4624;1.0046;
-75.3000;0.4640;1.0069;
-75.0000;0.4640;1.0116;
-74.7000;0.4664;1.0187;
-74.4000;0.4640;1.0187;
-74.1000;0.4632;1.0163;
-73.8000;0.4640;1.0093;
-73.5000;0.4656;1.0116;
-73.2000;0.4681;1.0163;
-72.9000;0.4607;0.9975;
-72.6000;0.4640;0.9999;
-72.3000;0.4656;0.9975;
-72.0000;0.4656;0.9999;
-71.7000;0.4689;1.0163;
-71.4000;0.4591;0.9999;
-71.1000;0.4648;1.0116;
-70.8000;0.4640;1.0093;
-70.5000;0.4640;1.0046;
-70.2000;0.4640;1.0093;
-69.9000;0.4640;1.0210;
-69.6000;0.4762;1.0516;
-69.3000;0.4632;1.0351;
-69.0000;0.4640;1.0422;
-68.7000;0.4632;1.0375;
-68.4000;0.4640;1.0304;
-68.1000;0.4624;1.0257;
-67.8000;0.4632;1.0281;
-67.5000;0.4721;1.0587;
-67.2000;0.4640;1.0281;
-66.9000;0.4656;1.0257;
-66.6000;0.4632;1.0187;
-66.3000;0.4624;1.0210;
-66.0000;0.4648;1.0210;
-65.7000;0.4640;1.0163;
-65.4000;0.4632;1.0187;
-65.1000;0.4648;1.0187;
-64.8000;0.4632;1.0140;
-64.5000;0.4624;1.0093;
-64.2000;0.4632;1.0069;
-63.9000;0.4689;1.0257;
-63.6000;0.4689;1.0187;
-63.3000;0.4615;1.0093;
-63.0000;0.4607;0.9999;
-62.7000;0.4632;0.9999;
-62.4000;0.4648;1.0069;
-62.1000;0.4648;1.0163;
-61.8000;0.4640;1.0116;
-61.5000;0.4656;1.0046;
-61.2000;0.4664;0.9952;
-60.9000;0.4607;0.9904;
-60.6000;0.4648;1.0046;
-60.3000;0.4640;1.0116;
-60.0000;0.4664;1.0116;
-59.7000;0.4656;1.0140;
-59.4000;0.4640;1.0187;
-59.1000;0.4640;1.0140;
-58.8000;0.4632;1.0116;
-58.5000;0.4640;1.0046;
-58.2000;0.4640;1.0069;
-57.9000;0.4640;1.0069;
-57.6000;0.4648;1.0046;
-57.3000;0.4689;1.0069;
-57.0000;0.4640;1.0022;
-56.7000;0.4575;0.9834;
-56.4000;0.4648;0.9975;
-56.1000;0.4656;0.9952;
-55.8000;0.4640;0.9928;
-55.5000;0.4624;0.9999;
-55.2000;0.4632;0.9999;
-54.9000;0.4632;1.0022;
-54.6000;0.4648;1.0046;
-54.3000;0.4632;1.0093;
-54.0000;0.4632;1.0140;
-53.7000;0.4632;0.9999;
-53.4000;0.4640;1.0046;
-53.1000;0.4648;1.0046;
-52.8000;0.4640;1.0069;
-52.5000;0.4615;1.0046;
-52.2000;0.4664;1.0187;
-51.9000;0.4648;1.0140;
-51.6000;0.4640;1.0046;
-51.3000;0.4640;1.0022;
-51.0000;0.4632;1.0046;
-50.7000;0.4656;1.0093;
-50.4000;0.4583;0.9904;
-50.1000;0.4640;0.9999;
-49.8000;0.4640;0.9881;
-49.5000;0.4624;0.9928;
-49.2000;0.4640;0.9952;
-48.9000;0.4632;0.9881;
-48.6000;0.4762;1.0257;
-48.3000;0.4640;0.9904;
-48.0000;0.4648;0.9904;
-47.7000;0.4664;0.9952;
-47.4000;0.4640;0.9787;
-47.1000;0.4648;0.9810;
-46.8000;0.4640;0.9881;
-46.5000;0.4640;0.9857;
-46.2000;0.4640;0.9904;
-45.9000;0.4615;0.9928;
-45.6000;0.4656;1.0116;
-45.3000;0.4656;1.0163;
-45.0000;0.4607;1.0069;
-44.7000;0.4713;1.0257;
-44.4000;0.4640;1.0022;
-44.1000;0.4632;1.0022;
-43.8000;0.4599;0.9928;
-43.5000;0.4583;0.9810;
-43.2000;0.4632;0.9881;
-42.9000;0.4648;0.9952;
-42.6000;0.4648;0.9928;
-42.3000;0.4624;1.0093;
-42.0000;0.4624;1.0116;
-41.7000;0.4615;1.0234;
-41.4000;0.4607;1.0187;
-41.1000;0.4632;1.0046;
-40.8000;0.4689;1.0140;
-40.5000;0.4591;0.9904;
-40.2000;0.4648;1.0046;
-39.9000;0.4632;0.9999;
-39.6000;0.4624;1.0046;
-39.3000;0.4640;0.9999;
-39.0000;0.4632;0.9952;
-38.7000;0.4648;1.0046;
-38.4000;0.4624;0.9975;
-38.1000;0.4632;1.0022;
-37.8000;0.4640;0.9999;
-37.5000;0.4632;0.9975;
-37.2000;0.4624;1.0046;
-36.9000;0.4632;1.0046;
-36.6000;0.4648;1.0022;
-36.3000;0.4640;1.0022;
-36.0000;0.4632;0.9999;
-35.7000;0.4648;0.9999;
-35.4000;0.4640;0.9999;
-35.1000;0.4656;1.0046;
-34.8000;0.4624;1.0022;
-34.5000;0.4656;1.0163;
-34.2000;0.4656;1.0163;
-33.9000;0.4664;1.0116;
-33.6000;0.4624;0.9975;
-33.3000;0.4599;0.9904;
-33.0000;0.4640;0.9928;
-32.7000;0.4615;0.9881;
-32.4000;0.4624;0.9904;
-32.1000;0.4624;0.9975;
-31.8000;0.4640;0.9952;
-31.5000;0.4640;0.9904;
-31.2000;0.4648;0.9975;
-30.9000;0.4632;0.9999;
-30.6000;0.4632;0.9975;
-30.3000;0.4640;1.0022;
-30.0000;0.4632;0.9999;
-29.7000;0.4648;1.0116;
-29.4000;0.4632;1.0022;
-29.1000;0.4640;1.0140;
-28.8000;0.4624;1.0187;
-28.5000;0.4640;1.0304;
-28.2000;0.4624;1.0234;
-27.9000;0.4624;1.0093;
-27.6000;0.4656;1.0069;
-27.3000;0.4591;0.9999;
-27.0000;0.4713;1.0257;
-26.7000;0.4640;0.9999;
-26.4000;0.4640;1.0046;
-26.1000;0.4640;0.9999;
-25.8000;0.4648;1.0069;
-25.5000;0.4656;1.0069;
-25.2000;0.4640;1.0140;
-24.9000;0.4681;1.0163;
-24.6000;0.4640;1.0046;
-24.3000;0.4624;1.0046;
-24.0000;0.4640;0.9975;
-23.7000;0.4640;0.9857;
-23.4000;0.4656;1.0022;
-23.1000;0.4632;0.9999;
-22.8000;0.4624;1.0022;
-22.5000;0.4624;0.9952;
-22.2000;0.4632;1.0022;
-21.9000;0.4656;1.0093;
-21.6000;0.4640;1.0046;
-21.3000;0.4640;1.0069;
-21.0000;0.4656;0.9975;
-20.7000;0.4624;0.9881;
-20.4000;0.4632;0.9810;
-20.1000;0.4648;0.9881;
-19.8000;0.4575;0.9763;
-19.5000;0.4640;0.9928;
-19.2000;0.4640;0.9928;
-18.9000;0.4640;0.9975;
-18.6000;0.4648;0.9999;
-18.3000;0.4648;1.0046;
-18.0000;0.4632;0.9928;
-17.7000;0.4640;0.9975;
-17.4000;0.4632;0.9928;
-17.1000;0.4632;0.9952;
-16.8000;0.4640;0.9904;
-16.5000;0.4648;0.9975;
-16.2000;0.4656;0.9952;
-15.9000;0.4607;0.9834;
-15.6000;0.4640;0.9952;
-15.3000;0.4656;0.9881;
-15.0000;0.4656;0.9881;
-14.7000;0.4640;0.9787;
-14.4000;0.4615;0.9646;
-14.1000;0.4648;0.9716;
-13.8000;0.4640;0.9787;
-13.5000;0.4640;0.9716;
-13.2000;0.4656;0.9787;
-12.9000;0.4632;0.9857;
-12.6000;0.4640;0.9928;
-12.3000;0.4640;0.9928;
-12.0000;0.4681;0.9999;
-11.7000;0.4640;0.9881;
-11.4000;0.4648;0.9904;
-11.1000;0.4672;1.0022;
-10.8000;0.4640;0.9928;
-10.5000;0.4640;0.9952;
-10.2000;0.4615;0.9999;
-9.9000;0.4632;1.0069;
-9.6000;0.4632;1.0093;
-9.3000;0.4632;1.0210;
-9.0000;0.4640;1.0210;
-8.7000;0.4656;1.0187;
-8.4000;0.4648;1.0140;
-8.1000;0.4615;0.9952;
-7.8000;0.4640;1.0093;
-7.5000;0.4591;1.0046;
-7.2000;0.4656;1.0281;
-6.9000;0.4640;1.0187;
-6.6000;0.4640;1.0140;
-6.3000;0.4656;1.0069;
-6.0000;0.4656;0.9999;
-5.7000;0.4648;1.0022;
-5.4000;0.4624;0.9999;
-5.1000;0.4656;1.0093;
-4.8000;0.4697;1.0234;
-4.5000;0.4640;1.0093;
-4.2000;0.4640;0.9975;
-3.9000;0.4640;1.0093;
-3.6000;0.4607;0.9999;
-3.3000;0.4640;1.0116;
-3.0000;0.4632;1.0163;
-2.7000;0.4640;1.0163;
-2.4000;0.4615;1.0093;
-2.1000;0.4615;1.0163;
-1.8000;0.4648;1.0304;
-1.5000;0.4705;1.0375;
-1.2000;0.4607;1.0140;
-0.9000;0.4664;1.0210;
-0.6000;0.4599;1.0116;
-0.3000;0.4640;1.0163;
0.0000;0.4640;1.0163;
0.3000;0.4917;1.0116;
0.6000;0.5438;1.0798;
0.9000;0.5828;1.1269;
1.2000;0.6170;1.1763;
1.5000;0.6439;1.2210;
1.8000;0.6650;1.2681;
2.1000;0.6789;1.2986;
2.4000;0.6943;1.3292;
2.7000;0.7041;1.3645;
3.0000;0.7131;1.3786;
3.3000;0.7196;1.3975;
3.6000;0.7155;1.3857;
3.9000;0.7293;1.4257;
4.2000;0.7334;1.4351;
4.5000;0.7383;1.4374;
4.8000;0.7424;1.4422;
5.1000;0.7464;1.4374;
5.4000;0.7456;1.4257;
5.7000;0.7530;1.4351;
6.0000;0.7554;1.4280;
6.3000;0.7586;1.4351;
6.6000;0.7627;1.4351;
6.9000;0.7676;1.4398;
7.2000;0.7709;1.4422;
7.5000;0.7717;1.4492;
7.8000;0.7717;1.4492;
8.1000;0.7749;1.4469;
8.4000;0.7798;1.4516;
8.7000;0.7806;1.4516;
9.0000;0.7831;1.4586;
9.3000;0.7855;1.4610;
9.6000;0.7880;1.4516;
9.9000;0.7871;1.4422;
10.2000;0.7928;1.4492;
10.5000;0.7912;1.4422;
10.8000;0.7961;1.4492;
11.1000;0.7977;1.4445;
11.4000;0.8010;1.4492;
11.7000;0.8034;1.4563;
12.0000;0.8067;1.4610;
12.3000;0.8091;1.4657;
12.6000;0.8132;1.4774;
12.9000;0.8116;1.4657;
13.2000;0.8262;1.4869;
13.5000;0.8181;1.4633;
13.8000;0.8246;1.4657;
14.1000;0.8262;1.4610;
14.4000;0.8230;1.4469;
14.7000;0.8230;1.4398;
15.0000;0.8278;1.4445;
15.3000;0.8270;1.4280;
15.6000;0.8327;1.4327;
15.9000;0.8344;1.4304;
16.2000;0.8344;1.4327;
16.5000;0.8344;1.4351;
16.8000;0.8384;1.4257;
17.1000;0.8417;1.4257;
17.4000;0.8449;1.4210;
17.7000;0.8457;1.4257;
18.0000;0.8433;1.4210;
18.3000;0.8490;1.4280;
18.6000;0.8490;1.4327;
18.9000;0.8490;1.4327;
19.2000;0.8506;1.4398;
19.5000;0.8580;1.4492;
19.8000;0.8563;1.4398;
20.1000;0.8571;1.4398;
20.4000;0.8588;1.4422;
20.7000;0.8596;1.4422;
21.0000;0.8612;1.4469;
21.3000;0.8604;1.4516;
21.6000;0.8612;1.4492;
21.9000;0.8653;1.4516;
22.2000;0.8661;1.4445;
22.5000;0.8742;1.4586;
22.8000;0.8677;1.4398;
23.1000;0.8710;1.4327;
23.4000;0.8734;1.4233;
23.7000;0.8718;1.4116;
24.0000;0.8726;1.4069;
24.3000;0.8734;1.4092;
24.6000;0.8767;1.4163;
24.9000;0.8767;1.4210;
25.2000;0.8775;1.4257;
25.5000;0.8783;1.4163;
25.8000;0.8791;1.4233;
26.1000;0.8824;1.4233;
26.4000;0.8816;1.4257;
26.7000;0.8807;1.4280;
27.0000;0.8824;1.4280;
27.3000;0.8856;1.4327;
27.6000;0.8864;1.4374;
27.9000;0.8864;1.4351;
28.2000;0.8873;1.4304;
28.5000;0.8889;1.4257;
28.8000;0.8897;1.4233;
29.1000;0.8897;1.4210;
29.4000;0.8913;1.4280;
29.7000;0.8938;1.4374;
30.0000;0.8938;1.4374;
30.3000;0.8930;1.4351;
30.6000;0.8938;1.4374;
30.9000;0.8954;1.4374;
31.2000;0.8962;1.4327;
31.5000;0.8970;1.4374;
31.8000;0.8962;1.4327;
32.1000;0.8970;1.4351;
32.4000;0.8954;1.4233;
32.7000;0.8987;1.4186;
33.0000;0.9003;1.4139;
33.3000;0.9011;1.4186;
33.6000;0.9019;1.4139;
33.9000;0.9027;1.4163;
34.2000;0.9011;1.4116;
34.5000;0.9019;1.4116;
34.8000;0.9027;1.4045;
35.1000;0.9035;1.4092;
35.4000;0.9035;1.4139;
35.7000;0.9060;1.4163;
36.0000;0.9076;1.4163;
36.3000;0.9141;1.4280;
36.6000;0.9060;1.4069;
36.9000;0.9076;1.4139;
37.2000;0.9101;1.4233;
37.5000;0.9027;1.4139;
37.8000;0.9109;1.4327;
38.1000;0.9101;1.4280;
38.4000;0.9084;1.4374;
38.7000;0.9117;1.4351;
39.0000;0.9101;1.4351;
39.3000;0.9149;1.4563;
39.6000;0.9117;1.4492;
39.9000;0.9149;1.4539;
40.2000;0.9149;1.4469;
40.5000;0.9166;1.4469;
40.8000;0.9166;1.4492;
41.1000;0.9158;1.4351;
41.4000;0.9239;1.4516;
41.7000;0.9158;1.4233;
42.0000;0.9174;1.4304;
42.3000;0.9109;1.4069;
42.6000;0.9182;1.4327;
42.9000;0.9174;1.4257;
43.2000;0.9133;1.4069;
43.5000;0.9190;1.4116;
43.8000;0.9214;1.4139;
44.1000;0.9190;1.4139;
44.4000;0.9182;1.4045;
44.7000;0.9206;1.4092;
45.0000;0.9198;1.4045;
45.3000;0.9223;1.4163;
45.6000;0.9214;1.4163;
45.9000;0.9198;1.4069;
46.2000;0.9190;1.4022;
46.5000;0.9247;1.4069;
46.8000;0.9239;1.3975;
47.1000;0.9263;1.3904;
47.4000;0.9271;1.3880;
47.7000;0.9255;1.3951;
48.0000;0.9255;1.3951;
48.3000;0.9198;1.3880;
48.6000;0.9271;1.4069;
48.9000;0.9288;1.4163;
49.2000;0.9271;1.4139;
49.5000;0.9263;1.4092;
49.8000;0.9263;1.4186;
50.1000;0.9271;1.4163;
50.4000;0.9247;1.4045;
50.7000;0.9296;1.4116;
51.0000;0.9296;1.4069;
51.3000;0.9296;1.4045;
51.6000;0.9328;1.3998;
51.9000;0.9320;1.3998;
52.2000;0.9304;1.3880;
52.5000;0.9320;1.3786;
52.8000;0.9328;1.3904;
53.1000;0.9377;1.3998;
53.4000;0.9320;1.3833;
53.7000;0.9328;1.3833;
54.0000;0.9353;1.3763;
54.3000;0.9353;1.3810;
54.6000;0.9337;1.3763;
54.9000;0.9353;1.3763;
55.2000;0.9271;1.3645;
55.5000;0.9345;1.3880;
55.8000;0.9328;1.3833;
56.1000;0.9385;1.3927;
56.4000;0.9361;1.3880;
56.7000;0.9377;1.3833;
57.0000;0.9385;1.3857;
57.3000;0.9377;1.3833;
57.6000;0.9361;1.3857;
57.9000;0.9402;1.3904;
58.2000;0.9410;1.3904;
58.5000;0.9418;1.3880;
58.8000;0.9402;1.3927;
59.1000;0.9426;1.4022;
59.4000;0.9402;1.3880;
59.7000;0.9353;1.3786;
60.0000;0.9402;1.3951;
60.3000;0.9426;1.3951;
60.6000;0.9418;1.3880;
60.9000;0.9410;1.3975;
61.2000;0.9410;1.4045;
61.5000;0.9426;1.4069;
61.8000;0.9426;1.3998;
62.1000;0.9410;1.3786;
62.4000;0.9434;1.3810;
62.7000;0.9434;1.3786;
63.0000;0.9442;1.3833;
63.3000;0.9442;1.3739;
63.6000;0.9442;1.3739;
63.9000;0.9434;1.3810;
64.2000;0.9451;1.3904;
64.5000;0.9459;1.3833;
64.8000;0.9451;1.3810;
65.1000;0.9467;1.3810;
65.4000;0.9475;1.3833;
65.7000;0.9491;1.3880;
66.0000;0.9467;1.3810;
66.3000;0.9459;1.3739;
66.6000;0.9402;1.3575;
66.9000;0.9499;1.3786;
67.2000;0.9434;1.3716;
67.5000;0.9524;1.3880;
67.8000;0.9483;1.3669;
68.1000;0.9467;1.3645;
68.4000;0.9548;1.3716;
68.7000;0.9475;1.3528;
69.0000;0.9508;1.3598;
69.3000;0.9589;1.3857;
69.6000;0.9508;1.3575;
69.9000;0.9508;1.3551;
70.2000;0.9499;1.3551;
70.5000;0.9491;1.3551;
70.8000;0.9499;1.3528;
71.1000;0.9508;1.3410;
71.4000;0.9508;1.3480;
71.7000;0.9475;1.3457;
72.0000;0.9499;1.3575;
72.3000;0.9548;1.3716;
72.6000;0.9508;1.3622;
72.9000;0.9524;1.3622;
73.2000;0.9508;1.3575;
73.5000;0.9499;1.3528;
73.8000;0.9524;1.3457;
74.1000;0.9516;1.3457;
74.4000;0.9524;1.3480;
74.7000;0.9565;1.3504;
75.0000;0.9548;1.3363;
75.3000;0.9548;1.3433;
75.6000;0.9548;1.3480;
75.9000;0.9532;1.3504;
76.2000;0.9475;1.3386;
76.5000;0.9556;1.3551;
76.8000;0.9532;1.3480;
77.1000;0.9556;1.3622;
77.4000;0.9548;1.3551;
77.7000;0.9548;1.3598;
78.0000;0.9540;1.3551;
78.3000;0.9548;1.3504;
78.6000;0.9556;1.3551;
78.9000;0.9573;1.3598;
79.2000;0.9556;1.3669;
79.5000;0.9565;1.3716;
79.8000;0.9589;1.3763;
80.1000;0.9573;1.3716;
80.4000;0.9508;1.3575;
80.7000;0.9597;1.3763;
81.0000;0.9573;1.3763;
81.3000;0.9597;1.3739;
81.6000;0.9589;1.3739;
81.9000;0.9573;1.3716;
82.2000;0.9540;1.3645;
82.5000;0.9573;1.3716;
82.8000;0.9605;1.3669;
83.1000;0.9573;1.3575;
83.4000;0.9589;1.3480;
83.7000;0.9532;1.3245;
84.0000;0.9613;1.3433;
84.3000;0.9581;1.3410;
84.6000;0.9597;1.3433;
84.9000;0.9589;1.3457;
85.2000;0.9581;1.3504;
85.5000;0.9573;1.3575;
85.8000;0.9589;1.3598;
86.1000;0.9589;1.3551;
86.4000;0.9613;1.3645;
86.7000;0.9605;1.3551;
87.0000;0.9605;1.3575;
87.3000;0.9605;1.3528;
87.6000;0.9646;1.3575;
87.9000;0.9597;1.3480;
88.2000;0.9613;1.3598;
88.5000;0.9581;1.3551;
88.8000;0.9670;1.3739;
89.1000;0.9630;1.3551;
89.4000;0.9581;1.3339;
89.7000;0.9678;1.3669;
90.0000;0.9630;1.3692;
90.3000;0.9662;1.3692;
90.6000;0.9695;1.3716;
90.9000;0.9581;1.3363;
91.2000;0.9638;1.3410;
91.5000;0.9630;1.3363;
91.8000;0.9695;1.3433;
92.1000;0.9621;1.3175;
92.4000;0.9630;1.3175;
92.7000;0.9589;1.3010;
93.0000;0.9646;1.3222;
93.3000;0.9630;1.3198;
93.6000;0.9735;1.3386;
93.9000;0.9662;1.3269;
94.2000;0.9654;1.3269;
94.5000;0.9687;1.3316;
94.8000;0.9654;1.3222;
95.1000;0.9662;1.3222;
95.4000;0.9678;1.3269;
95.7000;0.9670;1.3222;
96.0000;0.9670;1.3245;
96.3000;0.9662;1.3292;
96.6000;0.9662;1.3269;
96.9000;0.9670;1.3433;
97.2000;0.9646;1.3410;
97.5000;0.9662;1.3363;
97.8000;0.9687;1.3339;
98.1000;0.9678;1.3363;
98.4000;0.9621;1.3198;
98.7000;0.9687;1.3363;
99.0000;0.9735;1.3504;
99.3000;0.9703;1.3410;
99.6000;0.9670;1.3363;
99.9000;0.9678;1.3245;
100.2000;0.9654;1.3245;
100.5000;0.9687;1.3316;
100.8000;0.9687;1.3292;
101.1000;0.9678;1.3292;
101.4000;0.9687;1.3245;
101.7000;0.9703;1.3292;
102.0000;0.9687;1.3245;
102.3000;0.9678;1.3222;
102.6000;0.9703;1.3316;
102.9000;0.9703;1.3386;
103.2000;0.9695;1.3480;
103.5000;0.9687;1.3528;
103.8000;0.9687;1.3480;
104.1000;0.9727;1.3457;
104.4000;0.9711;1.3363;
104.7000;0.9703;1.3292;
105.0000;0.9719;1.3245;
105.3000;0.9695;1.3222;
105.6000;0.9817;1.3457;
105.9000;0.9703;1.3175;
106.2000;0.9687;1.3222;
106.5000;0.9687;1.3269;
106.8000;0.9662;1.3198;
107.1000;0.9662;1.3081;
107.4000;0.9678;1.3057;
107.7000;0.9613;1.2939;
108.0000;0.9711;1.3175;
108.3000;0.9711;1.3175;
108.6000;0.9711;1.3198;
108.9000;0.9687;1.3081;
109.2000;0.9703;1.3057;
109.5000;0.9719;1.3175;
109.8000;0.9695;1.3151;
110.1000;0.9703;1.3128;
110.4000;0.9703;1.3151;
110.7000;0.9719;1.3151;
111.0000;0.9711;1.3128;
111.3000;0.9711;1.3010;
111.6000;0.9735;1.2986;
111.9000;0.9727;1.2986;
112.2000;0.9727;1.2986;
112.5000;0.9776;1.3081;
112.8000;0.9735;1.2939;
113.1000;0.9711;1.2939;
113.4000;0.9776;1.3057;
113.7000;0.9784;1.3033;
114.0000;0.9744;1.3057;
114.3000;0.9752;1.3104;
114.6000;0.9735;1.3128;
114.9000;0.9752;1.3222;
115.2000;0.9719;1.3222;
115.5000;0.9687;1.3104;
115.8000;0.9752;1.3245;
116.1000;0.9752;1.3269;
116.4000;0.9727;1.3175;
116.7000;0.9719;1.3175;
117.0000;0.9760;1.3175;
117.3000;0.9760;1.3222;
117.6000;0.9744;1.3128;
117.9000;0.9727;1.3081;
118.2000;0.9719;1.3010;
118.5000;0.9760;1.3057;
118.8000;0.9744;1.3033;
119.1000;0.9809;1.3316;
119.4000;0.9752;1.3269;
119.7000;0.9744;1.3245;
120.0000;0.9760;1.3363;
120.3000;0.9735;1.3292;
120.6000;0.9752;1.3316;
120.9000;0.9776;1.3316;
121.2000;0.9727;1.3175;
121.5000;0.9744;1.3222;
121.8000;0.9735;1.3128;
122.1000;0.9752;1.3175;
122.4000;0.9760;1.3175;
122.7000;0.9768;1.3151;
123.0000;0.9760;1.3057;
123.3000;0.9760;1.3081;
123.6000;0.9776;1.3175;
123.9000;0.9768;1.3222;
124.2000;0.9760;1.3104;
124.5000;0.9760;1.3175;
124.8000;0.9760;1.3198;
125.1000;0.9768;1.3198;
125.4000;0.9752;1.3175;
125.7000;0.9776;1.3222;
126.0000;0.9760;1.3175;
126.3000;0.9760;1.3222;
126.6000;0.9776;1.3363;
126.9000;0.9776;1.3339;
127.2000;0.9768;1.3386;
127.5000;0.9719;1.3339;
127.8000;0.9776;1.3410;
128.1000;0.9760;1.3316;
128.4000;0.9776;1.3292;
128.7000;0.9776;1.3339;
129.0000;0.9719;1.3175;
129.3000;0.9768;1.3269;
129.6000;0.9809;1.3386;
129.9000;0.9768;1.3292;
130.2000;0.9776;1.3269;
130.5000;0.9776;1.3222;
130.8000;0.9744;1.3010;
131.1000;0.9801;1.3081;
131.4000;0.9784;1.3033;
131.7000;0.9727;1.2892;
132.0000;0.9801;1.3033;
132.3000;0.9792;1.2986;
132.6000;0.9825;1.3033;
132.9000;0.9792;1.2939;
133.2000;0.9801;1.3057;
133.5000;0.9801;1.3104;
133.8000;0.9792;1.2986;
134.1000;0.9809;1.3081;
134.4000;0.9784;1.3057;
134.7000;0.9809;1.3057;
135.0000;0.9784;1.3010;
135.3000;0.9784;1.3010;
135.6000;0.9768;1.3128;
135.9000;0.9784;1.3198;
136.2000;0.9801;1.3245;
136.5000;0.9809;1.3222;
136.8000;0.9792;1.3198;
137.1000;0.9801;1.3269;
137.4000;0.9776;1.3010;
137.7000;0.9817;1.3033;
138.0000;0.9809;1.2986;
138.3000;0.9784;1.2916;
138.6000;0.9784;1.2845;
138.9000;0.9784;1.2775;
139.2000;0.9792;1.2775;
139.5000;0.9792;1.2822;
139.8000;0.9792;1.2845;
140.1000;0.9784;1.2822;
140.4000;0.9784;1.2869;
140.7000;0.9784;1.2869;
141.0000;0.9792;1.2845;
141.3000;0.9792;1.2892;
141.6000;0.9792;1.2845;
141.9000;0.9792;1.2845;
142.2000;0.9809;1.2916;
142.5000;0.9809;1.3081;
142.8000;0.9809;1.3033;
143.1000;0.9792;1.3010;
143.4000;0.9784;1.2939;
143.7000;0.9768;1.2939;
144.0000;0.9833;1.3057;
144.3000;0.9817;1.2916;
144.6000;0.9809;1.2892;
144.9000;0.9792;1.2869;
145.2000;0.9801;1.2916;
145.5000;0.9801;1.2939;
145.8000;0.9792;1.2869;
146.1000;0.9801;1.2869;
146.4000;0.9776;1.2845;
146.7000;0.9784;1.2892;
147.0000;0.9792;1.2845;
147.3000;0.9809;1.2892;
147.6000;0.9817;1.2892;
147.9000;0.9825;1.2963;
148.2000;0.9825;1.3010;
148.5000;0.9809;1.3033;
148.8000;0.9809;1.3057;
149.1000;0.9809;1.3104;
149.4000;0.9784;1.3057;
149.7000;0.9809;1.3033;
150.0000;0.9801;1.3081;
150.3000;0.9817;1.3057;
150.6000;0.9817;1.3057;
150.9000;0.9817;1.3081;
151.2000;0.9825;1.3057;
151.5000;0.9809;1.2963;
151.8000;0.9825;1.2916;
152.1000;0.9809;1.2916;
152.4000;0.9833;1.2963;
152.7000;0.9833;1.2939;
153.0000;0.9841;1.3010;
153.3000;0.9817;1.2916;
153.6000;0.9825;1.2939;
153.9000;0.9752;1.2775;
154.2000;0.9825;1.2916;
154.5000;0.9809;1.2963;
154.8000;0.9792;1.3057;
155.1000;0.9801;1.3057;
155.4000;0.9817;1.3128;
155.7000;0.9882;1.3198;
156.0000;0.9825;1.3081;
156.3000;0.9809;1.3057;
156.6000;0.9784;1.3010;
156.9000;0.9817;1.3081;
157.2000;0.9817;1.3057;
157.5000;0.9809;1.3033;
157.8000;0.9833;1.3010;
158.1000;0.9817;1.2986;
158.4000;0.9817;1.2986;
158.7000;0.9825;1.3010;
159.0000;0.9841;1.2986;
159.3000;0.9849;1.2963;
159.6000;0.9809;1.2775;
159.9000;0.9817;1.2751;
160.2000;0.9849;1.2892;
160.5000;0.9809;1.2751;
160.8000;0.9801;1.2681;
161.1000;0.9817;1.2775;
161.4000;0.9776;1.2704;
161.7000;0.9833;1.2798;
162.0000;0.9825;1.2704;
162.3000;0.9809;1.2751;
162.6000;0.9817;1.2869;
162.9000;0.9833;1.2845;
163.2000;0.9866;1.2892;
163.5000;0.9801;1.2775;
163.8000;0.9792;1.2822;
164.1000;0.9817;1.2869;
164.4000;0.9792;1.2775;
164.7000;0.9801;1.2822;
165.0000;0.9817;1.2869;
165.3000;0.9841;1.2916;
165.6000;0.9809;1.2869;
165.9000;0.9792;1.2822;
166.2000;0.9817;1.2892;
166.5000;0.9817;1.2963;
166.8000;0.9833;1.2986;
167.1000;0.9825;1.2939;
167.4000;0.9801;1.2916;
167.7000;0.9809;1.2963;
168.0000;0.9833;1.3010;
168.3000;0.9906;1.3128;
168.6000;0.9825;1.2939;
168.9000;0.9817;1.2939;
169.2000;0.9833;1.2939;
169.5000;0.9841;1.2986;
169.8000;0.9817;1.3010;
170.1000;0.9825;1.3033;
170.4000;0.9792;1.2986;
170.7000;0.9849;1.3222;
171.0000;0.9792;1.3104;
171.3000;0.9833;1.3198;
171.6000;0.9866;1.3151;
171.9000;0.9833;1.3057;
172.2000;0.9841;1.3128;
172.5000;0.9784;1.3057;
172.8000;0.9833;1.3104;
173.1000;0.9825;1.3057;
173.4000;0.9858;1.3222;
173.7000;0.9825;1.3128;
174.0000;0.9833;1.3175;
174.3000;0.9784;1.3104;
174.6000;0.9825;1.3151;
174.9000;0.9833;1.3033;
175.2000;0.9833;1.3057;
175.5000;0.9825;1.3033;
175.8000;0.9809;1.3033;
176.1000;0.9841;1.3081;
176.4000;0.9817;1.2986;
176.7000;0.9801;1.3033;
177.0000;0.9833;1.3104;
177.3000;0.9841;1.3104;
177.6000;0.9841;1.3033;
177.9000;0.9841;1.3033;
178.2000;0.9866;1.3033;
178.5000;0.9849;1.3057;
178.8000;0.9833;1.3033;
179.1000;0.9825;1.3057;
179.4000;0.9825;1.3033;
179.7000;0.9841;1.3010;
180.0000;0.9833;1.2939;
180.3000;0.9817;1.2845;
180.6000;0.9841;1.2892;
180.9000;0.9841;1.2892;
181.2000;0.9825;1.2916;
181.5000;0.9841;1.2986;
181.8000;0.9817;1.2939;
182.1000;0.9849;1.3010;
182.4000;0.9841;1.2916;
182.7000;0.9882;1.3010;
183.0000;0.9817;1.2822;
183.3000;0.9906;1.2916;
183.6000;0.9833;1.2845;
183.9000;0.9849;1.2939;
184.2000;0.9882;1.3057;
184.5000;0.9849;1.2986;
184.8000;0.9833;1.3033;
185.1000;0.9817;1.2986;
185.4000;0.9849;1.3081;
185.7000;0.9890;1.3222;
186.0000;0.9833;1.3010;
186.3000;0.9735;1.2775;
186.6000;0.9792;1.2869;
186.9000;0.9825;1.2869;
187.2000;0.9825;1.2892;
187.5000;0.9792;1.2798;
187.8000;0.9833;1.2845;
188.1000;0.9801;1.2775;
188.4000;0.9833;1.2892;
188.7000;0.9849;1.2869;
189.0000;0.9809;1.2775;
189.3000;0.9841;1.2916;
189.6000;0.9792;1.2798;
189.9000;0.9833;1.2869;
190.2000;0.9825;1.2869;
190.5000;0.9817;1.2775;
190.8000;0.9841;1.2775;
191.1000;0.9833;1.2728;
191.4000;0.9833;1.2728;
191.7000;0.9809;1.2728;
192.0000;0.9825;1.2728;
192.3000;0.9841;1.2798;
192.6000;0.9825;1.2939;
192.9000;0.9841;1.3010;
193.2000;0.9825;1.2963;
193.5000;0.9841;1.2963;
193.8000;0.9858;1.2939;
194.1000;0.9833;1.2939;
194.4000;0.9849;1.3010;
194.7000;0.9825;1.3057;
195.0000;0.9817;1.3010;
195.3000;0.9817;1.2916;
195.6000;0.9841;1.2963;
195.9000;0.9849;1.2892;
196.2000;0.9841;1.2892;
196.5000;0.9817;1.2916;
196.8000;0.9833;1.2916;
197.1000;0.9817;1.2845;
197.4000;0.9841;1.2916;
197.7000;0.9947;1.3128;
198.0000;0.9849;1.2869;
198.3000;0.9768;1.2704;
198.6000;0.9776;1.2751;
198.9000;0.9866;1.2963;
199.2000;0.9858;1.2963;
199.5000;0.9890;1.2986;
199.8000;0.9817;1.2845;
200.1000;0.9841;1.2916;
200.4000;0.9833;1.2916;
200.7000;0.9809;1.2845;
201.0000;0.9841;1.2986;
201.3000;0.9898;1.3151;
201.6000;0.9858;1.3104;
201.9000;0.9760;1.2892;
202.2000;0.9825;1.2963;
202.5000;0.9849;1.2939;
202.8000;0.9841;1.2916;
203.1000;0.9858;1.3033;
203.4000;0.9874;1.3128;
203.7000;0.9874;1.2986;
204.0000;0.9825;1.2869;
204.3000;0.9841;1.2869;
204.6000;0.9915;1.3010;
204.9000;0.9858;1.2798;
205.2000;0.9833;1.2775;
205.5000;0.9858;1.2822;
205.8000;0.9784;1.2681;
206.1000;0.9858;1.2892;
206.4000;0.9792;1.2728;
206.7000;0.9858;1.2916;
207.0000;0.9858;1.2986;
207.3000;0.9849;1.2939;
207.6000;0.9866;1.2963;
207.9000;0.9849;1.2916;
208.2000;0.9849;1.3010;
208.5000;0.9792;1.2939;
208.8000;0.9866;1.3081;
209.1000;0.9825;1.3057;
209.4000;0.9858;1.3081;
209.7000;0.9825;1.2916;
210.0000;0.9858;1.2916;
210.3000;0.9906;1.3010;
210.6000;0.9858;1.2916;
210.9000;0.9817;1.2822;
211.2000;0.9809;1.2892;
211.5000;0.9841;1.2963;
211.8000;0.9849;1.2963;
212.1000;0.9849;1.2986;
212.4000;0.9841;1.2986;
212.7000;0.9841;1.2986;
213.0000;0.9866;1.2939;
213.3000;0.9833;1.2845;
213.6000;0.9825;1.2798;
213.9000;0.9866;1.2892;
214.2000;0.9858;1.2845;
214.5000;0.9841;1.2869;
214.8000;0.9858;1.2845;
215.1000;0.9849;1.2798;
215.4000;0.9825;1.2775;
215.7000;0.9833;1.2869;
216.0000;0.9841;1.2798;
216.3000;0.9858;1.2845;
216.6000;0.9849;1.2869;
216.9000;0.9858;1.2963;
217.2000;0.9866;1.2986;
217.5000;0.9874;1.2986;
217.8000;0.9809;1.2845;
218.1000;0.9849;1.2845;
218.4000;0.9833;1.2775;
218.7000;0.9817;1.2728;
219.0000;0.9825;1.2822;
219.3000;0.9833;1.2892;
219.6000;0.9841;1.2916;
219.9000;0.9825;1.2916;
220.2000;0.9833;1.2963;
220.5000;0.9849;1.2963;
220.8000;0.9849;1.3057;
221.1000;0.9784;1.2892;
221.4000;0.9841;1.2986;
221.7000;0.9825;1.2845;
222.0000;0.9833;1.2963;
222.3000;0.9833;1.2892;
222.6000;0.9833;1.2916;
222.9000;0.9833;1.2986;
223.2000;0.9866;1.2986;
223.5000;0.9866;1.2939;
223.8000;0.9849;1.2892;
224.1000;0.9858;1.2822;
224.4000;0.9841;1.2798;
224.7000;0.9809;1.2822;
225.0000;0.9841;1.2939;
225.3000;0.9915;1.3198;
225.6000;0.9858;1.3010;
225.9000;0.9866;1.2986;
226.2000;0.9858;1.2986;
226.5000;0.9858;1.2939;
226.8000;0.9858;1.2916;
227.1000;0.9841;1.2916;
227.4000;0.9858;1.2986;
227.7000;0.9849;1.3057;
228.0000;0.9841;1.3010;
228.3000;0.9841;1.3033;
228.6000;0.9866;1.3081;
228.9000;0.9858;1.3175;
229.2000;0.9849;1.3151;
229.5000;0.9849;1.3010;
229.8000;0.9833;1.3010;
230.1000;0.9841;1.2963;
230.4000;0.9849;1.3081;
230.7000;0.9849;1.3081;
231.0000;0.9849;1.3081;
231.3000;0.9792;1.3081;
231.6000;0.9809;1.3128;
231.9000;0.9833;1.3057;
232.2000;0.9833;1.3010;
232.5000;0.9825;1.2986;
232.8000;0.9841;1.3057;
233.1000;0.9817;1.2963;
233.4000;0.9833;1.3057;
233.7000;0.9841;1.3151;
234.0000;0.9817;1.3128;
234.3000;0.9841;1.3175;
234.6000;0.9825;1.3033;
234.9000;0.9858;1.3104;
235.2000;0.9849;1.3033;
235.5000;0.9849;1.2869;
235.8000;0.9866;1.2986;
236.1000;0.9866;1.2986;
236.4000;0.9874;1.2939;
236.7000;0.9841;1.2916;
237.0000;0.9849;1.2939;
237.3000;0.9841;1.2916;
237.6000;0.9809;1.2657;
237.9000;0.9849;1.2798;
238.2000;0.9858;1.2845;
238.5000;0.9849;1.2869;
238.8000;0.9866;1.2892;
239.1000;0.9833;1.2798;
239.4000;0.9825;1.2798;
239.7000;0.9841;1.2845;
240.0000;0.9841;1.2798;
240.3000;0.9841;1.2775;
240.6000;0.9784;1.2728;
240.9000;0.9849;1.2845;
241.2000;0.9866;1.2775;
241.5000;0.9833;1.2681;
241.8000;0.9849;1.2657;
242.1000;0.9833;1.2657;
242.4000;0.9817;1.2681;
242.7000;0.9890;1.2869;
243.0000;0.9841;1.2751;
243.3000;0.9866;1.2798;
243.6000;0.9849;1.2798;
243.9000;0.9849;1.2775;
244.2000;0.9890;1.2869;
244.5000;0.9825;1.2657;
244.8000;0.9849;1.2704;
245.1000;0.9858;1.2822;
245.4000;0.9833;1.2822;
245.7000;0.9809;1.2751;
246.0000;0.9849;1.2822;
246.3000;0.9906;1.2963;
246.6000;0.9801;1.2798;
246.9000;0.9841;1.2963;
247.2000;0.9833;1.2939;
247.5000;0.9833;1.2939;
247.8000;0.9849;1.2986;
248.1000;0.9882;1.3081;
248.4000;0.9833;1.3033;
248.7000;0.9858;1.3010;
249.0000;0.9858;1.2963;
249.3000;0.9841;1.2916;
249.6000;0.9849;1.2939;
249.9000;0.9833;1.2963;
250.2000;0.9849;1.3033;
250.5000;0.9882;1.3104;
250.8000;0.9841;1.3033;
251.1000;0.9858;1.3081;
251.4000;0.9849;1.3010;
251.7000;0.9858;1.3033;
252.0000;0.9825;1.2986;
252.3000;0.9841;1.2963;
252.6000;0.9849;1.2963;
252.9000;0.9858;1.3057;
253.2000;0.9849;1.3033;
253.5000;0.9817;1.2916;
253.8000;0.9825;1.2845;
254.1000;0.9833;1.2822;
254.4000;0.9825;1.2822;
254.7000;0.9841;1.2845;
255.0000;0.9841;1.2986;
255.3000;0.9866;1.3010;
255.6000;0.9858;1.3033;
255.9000;0.9906;1.3151;
256.2000;0.9858;1.3033;
256.5000;0.9833;1.3081;
256.8000;0.9866;1.3198;
257.1000;0.9833;1.3198;
257.4000;0.9801;1.3175;
257.7000;0.9833;1.3245;
258.0000;0.9825;1.3104;
258.3000;0.9825;1.3057;
258.6000;0.9833;1.3033;
258.9000;0.9833;1.3081;
259.2000;0.9809;1.3033;
259.5000;0.9809;1.2963;
259.8000;0.9833;1.2892;
260.1000;0.9817;1.2869;
260.4000;0.9849;1.2986;
260.7000;0.9858;1.2939;
261.0000;0.9866;1.2939;
261.3000;0.9866;1.2939;
261.6000;0.9833;1.2822;
261.9000;0.9849;1.2869;
262.2000;0.9841;1.2916;
262.5000;0.9801;1.2939;
262.8000;0.9841;1.2939;
263.1000;0.9825;1.2822;
263.4000;0.9768;1.2728;
263.7000;0.9801;1.2892;
264.0000;0.9882;1.3081;
264.3000;0.9833;1.2963;
264.6000;0.9890;1.3151;
264.9000;0.9825;1.3033;
265.2000;0.9817;1.3081;
265.5000;0.9849;1.3198;
265.8000;0.9858;1.3245;
266.1000;0.9906;1.3433;
266.4000;0.9849;1.3316;
266.7000;0.9841;1.3316;
267.0000;0.9833;1.3292;
267.3000;0.9792;1.3128;
267.6000;0.9833;1.3175;
267.9000;0.9849;1.3057;
268.2000;0.9874;1.3151;
268.5000;0.9825;1.3081;
268.8000;0.9833;1.3081;
269.1000;0.9825;1.3104;
269.4000;0.9841;1.3081;
269.7000;0.9817;1.3010;
270.0000;0.9825;1.3104;
270.3000;0.9817;1.3081;
270.6000;0.9841;1.3081;
270.9000;0.9833;1.3057;
271.2000;0.9866;1.3269;
271.5000;0.9825;1.3175;
271.8000;0.9866;1.3292;
272.1000;0.9792;1.3198;
272.4000;0.9849;1.3198;
272.7000;0.9833;1.3081;
273.0000;0.9841;1.3081;
273.3000;0.9849;1.3081;
273.6000;0.9833;1.3010;
273.9000;0.9825;1.2986;
274.2000;0.9866;1.3128;
274.5000;0.9833;1.3128;
274.8000;0.9817;1.3033;
275.1000;0.9825;1.3104;
275.4000;0.9817;1.2986;
275.7000;0.9841;1.2916;
276.0000;0.9841;1.3033;
276.3000;0.9833;1.2986;
276.6000;0.9858;1.3128;
276.9000;0.9858;1.3128;
277.2000;0.9858;1.3151;
277.5000;0.9833;1.3057;
277.8000;0.9841;1.3010;
278.1000;0.9833;1.2963;
278.4000;0.9825;1.2963;
278.7000;0.9841;1.2939;
279.0000;0.9817;1.2963;
279.3000;0.9858;1.2986;
279.6000;0.9849;1.2986;
279.9000;0.9833;1.2986;
280.2000;0.9817;1.2939;
280.5000;0.9841;1.2986;
280.8000;0.9833;1.2986;
281.1000;0.9825;1.3057;
281.4000;0.9849;1.3151;
281.7000;0.9841;1.3104;
282.0000;0.9841;1.3081;
282.3000;0.9833;1.3057;
282.6000;0.9825;1.3033;
282.9000;0.9833;1.3081;
283.2000;0.9849;1.3104;
283.5000;0.9825;1.3081;
283.8000;0.9792;1.2916;
284.1000;0.9825;1.2963;
284.4000;0.9792;1.2916;
284.7000;0.9809;1.2939;
285.0000;0.9825;1.2939;
285.3000;0.9833;1.2939;
285.6000;0.9866;1.3033;
285.9000;0.9825;1.2892;
286.2000;0.9849;1.2869;
286.5000;0.9776;1.2704;
286.8000;0.9931;1.3081;
287.1000;0.9849;1.2916;
287.4000;0.9841;1.2939;
287.7000;0.9833;1.2963;
288.0000;0.9817;1.2963;
288.3000;0.9841;1.3057;
288.6000;0.9817;1.2986;
288.9000;0.9833;1.3033;
289.2000;0.9817;1.2963;
289.5000;0.9833;1.3010;
289.8000;0.9841;1.3033;
290.1000;0.9801;1.2869;
290.4000;0.9841;1.3081;
290.7000;0.9817;1.3175;
291.0000;0.9825;1.3198;
291.3000;0.9825;1.3033;
291.6000;0.9833;1.2963;
291.9000;0.9801;1.2963;
292.2000;0.9833;1.3057;
292.5000;0.9817;1.2963;
292.8000;0.9825;1.2869;
293.1000;0.9833;1.2916;
293.4000;0.9866;1.3033;
293.7000;0.9792;1.2869;
294.0000;0.9841;1.3010;
294.3000;0.9825;1.3104;
294.6000;0.9841;1.3104;
294.9000;0.9858;1.3151;
295.2000;0.9963;1.3410;
295.5000;0.9809;1.3081;
295.8000;0.9849;1.3175;
296.1000;0.9833;1.3292;
296.4000;0.9833;1.3245;
296.7000;0.9752;1.3033;
297.0000;0.9833;1.3222;
297.3000;0.9849;1.3245;
297.6000;0.9833;1.3245;
297.9000;0.9833;1.3222;
298.2000;0.9833;1.3104;
298.5000;0.9809;1.3104;
298.8000;0.9841;1.3128;
299.1000;0.9784;1.2963;
299.4000;0.9817;1.3081;
299.7000;0.9817;1.2986;
300.0000;0.9776;1.2869;
300.3000;0.9833;1.3081;
300.6000;0.9809;1.3057;
300.9000;0.9833;1.3175;
301.2000;0.9833;1.3104;
301.5000;0.9841;1.3151;
301.8000;0.9817;1.3033;
302.1000;0.9817;1.3033;
302.4000;0.9833;1.3128;
302.7000;0.9825;1.3198;
303.0000;0.9817;1.3128;
303.3000;0.9866;1.3151;
303.6000;0.9825;1.3081;
303.9000;0.9825;1.3081;
304.2000;0.9817;1.3081;
304.5000;0.9825;1.3198;
304.8000;0.9817;1.3245;
305.1000;0.9825;1.3316;
305.4000;0.9817;1.3292;
305.7000;0.9776;1.3198;
306.0000;0.9825;1.3245;
306.3000;0.9833;1.3269;
306.6000;0.9817;1.3198;
306.9000;0.9817;1.3222;
307.2000;0.9825;1.3245;
307.5000;0.9833;1.3269;
307.8000;0.9833;1.3245;
308.1000;0.9801;1.3104;
308.4000;0.9825;1.3081;
308.7000;0.9801;1.3057;
309.0000;0.9833;1.3057;
309.3000;0.9825;1.3057;
309.6000;0.9825;1.3104;
309.9000;0.9817;1.3033;
310.2000;0.9817;1.3081;
310.5000;0.9890;1.3222;
310.8000;0.9849;1.3222;
311.1000;0.9825;1.3128;
311.4000;0.9817;1.3222;
311.7000;0.9792;1.3269;
312.0000;0.9817;1.3245;
312.3000;0.9833;1.3269;
312.6000;0.9809;1.3222;
312.9000;0.9825;1.3269;
313.2000;0.9809;1.3198;
313.5000;0.9817;1.3081;
313.8000;0.9825;1.3104;
314.1000;0.9809;1.3033;
314.4000;0.9833;1.3128;
314.7000;0.9874;1.3316;
315.0000;0.9801;1.3222;
315.3000;0.9833;1.3269;
315.6000;0.9825;1.3269;
315.9000;0.9809;1.3151;
316.2000;0.9801;1.3151;
316.5000;0.9841;1.3292;
316.8000;0.9825;1.3198;
317.1000;0.9768;1.2939;
317.4000;0.9792;1.3033;
317.7000;0.9809;1.3151;
318.0000;0.9858;1.3292;
318.3000;0.9817;1.3151;
318.6000;0.9809;1.3104;
318.9000;0.9825;1.3151;
319.2000;0.9849;1.3104;
319.5000;0.9833;1.3033;
319.8000;0.9825;1.2963;
320.1000;0.9833;1.3010;
320.4000;0.9784;1.2963;
320.7000;0.9744;1.2869;
321.0000;0.9858;1.3128;
321.3000;0.9833;1.3104;
321.6000;0.9817;1.3128;
321.9000;0.9801;1.3081;
322.2000;0.9801;1.3057;
322.5000;0.9809;1.3081;
322.8000;0.9817;1.3081;
323.1000;0.9833;1.3081;
323.4000;0.9833;1.3010;
323.7000;0.9833;1.3033;
324.0000;0.9817;1.2963;
324.3000;0.9825;1.2963;
324.6000;0.9809;1.2939;
324.9000;0.9825;1.2986;
325.2000;0.9809;1.2892;
325.5000;0.9801;1.2939;
325.8000;0.9801;1.2939;
326.1000;0.9841;1.3151;
326.4000;0.9817;1.2986;
326.7000;0.9833;1.3057;
327.0000;0.9825;1.3128;
327.3000;0.9801;1.3175;
327.6000;0.9801;1.3175;
327.9000;0.9825;1.3222;
328.2000;0.9817;1.3222;
328.5000;0.9792;1.3175;
328.8000;0.9817;1.3175;
329.1000;0.9809;1.3104;
329.4000;0.9825;1.3175;
329.7000;0.9817;1.3198;
330.0000;0.9825;1.3269;
330.3000;0.9809;1.3245;
330.6000;0.9784;1.3245;
330.9000;0.9809;1.3269;
331.2000;0.9890;1.3504;
331.5000;0.9809;1.3316;
331.8000;0.9801;1.3175;
332.1000;0.9792;1.3151;
332.4000;0.9833;1.3269;
332.7000;0.9776;1.3104;
333.0000;0.9825;1.3128;
333.3000;0.9825;1.3198;
333.6000;0.9801;1.3198;
333.9000;0.9776;1.3128;
334.2000;0.9809;1.3245;
334.5000;0.9841;1.3316;
334.8000;0.9833;1.3222;
335.1000;0.9817;1.3269;
335.4000;0.9801;1.3316;
335.7000;0.9825;1.3339;
336.0000;0.9792;1.3222;
336.3000;0.9801;1.3245;
336.6000;0.9809;1.3151;
336.9000;0.9784;1.3128;
337.2000;0.9801;1.3198;
337.5000;0.9760;1.3057;
337.8000;0.9792;1.3175;
338.1000;0.9784;1.3128;
338.4000;0.9898;1.3316;
338.7000;0.9792;1.3104;
339.0000;0.9825;1.3175;
339.3000;0.9817;1.3104;
339.6000;0.9866;1.3128;
339.9000;0.9801;1.3033;
340.2000;0.9776;1.3010;
340.5000;0.9801;1.3057;
340.8000;0.9776;1.2963;
341.1000;0.9817;1.3010;
341.4000;0.9784;1.2939;
341.7000;0.9858;1.3081;
342.0000;0.9792;1.3010;
342.3000;0.9801;1.2963;
342.6000;0.9784;1.2939;
342.9000;0.9801;1.3010;
343.2000;0.9801;1.3010;
343.5000;0.9801;1.3057;
343.8000;0.9792;1.3057;
344.1000;0.9792;1.3057;
344.4000;0.9792;1.3033;
344.7000;0.9801;1.3033;
345.0000;0.9809;1.3081;
345.3000;0.9801;1.3081;
345.6000;0.9809;1.3033;
345.9000;0.9801;1.2986;
346.2000;0.9801;1.3057;
346.5000;0.9792;1.3081;
346.8000;0.9809;1.3128;
347.1000;0.9801;1.3081;
347.4000;0.9744;1.2916;
347.7000;0.9817;1.3010;
348.0000;0.9792;1.2986;
348.3000;0.9801;1.2986;
348.6000;0.9801;1.3010;
348.9000;0.9809;1.3057;
349.2000;0.9784;1.3010;
349.5000;0.9825;1.3151;
349.8000;0.9833;1.3081;
350.1000;0.9817;1.3104;
350.4000;0.9792;1.2963;
350.7000;0.9792;1.2939;
351.0000;0.9817;1.2916;
351.3000;0.9817;1.2892;
351.6000;0.9792;1.2939;
351.9000;0.9817;1.3033;
352.2000;0.9858;1.3175;
352.5000;0.9687;1.2728;
352.8000;0.9801;1.3081;
353.1000;0.9809;1.3104;
353.4000;0.9825;1.3198;
353.7000;0.9801;1.3128;
354.0000;0.9825;1.3151;
354.3000;0.9792;1.3151;
354.6000;0.9841;1.3269;
354.9000;0.9817;1.3222;
355.2000;0.9801;1.3151;
355.5000;0.9735;1.2986;
355.8000;0.9792;1.3033;
356.1000;0.9801;1.3128;
356.4000;0.9784;1.3010;
356.7000;0.9752;1.2892;
357.0000;0.9784;1.2939;
357.3000;0.9776;1.2892;
357.6000;0.9735;1.2751;
357.9000;0.9792;1.2892;
358.2000;0.9801;1.2963;
358.5000;0.9792;1.3104;
358.8000;0.9801;1.3198;
359.1000;0.9825;1.3269;
359.4000;0.9792;1.3151;
359.7000;0.9809;1.3222;
360.0000;0.9792;1.3104;
360.3000;0.9792;1.3104;
360.6000;0.9874;1.3339;
360.9000;0.9792;1.3151;
361.2000;0.9792;1.3198;
361.5000;0.9801;1.3128;
361.8000;0.9784;1.3104;
362.1000;0.9792;1.3104;
362.4000;0.9817;1.3151;
362.7000;0.9849;1.3222;
363.0000;0.9801;1.3151;
363.3000;0.9792;1.3175;
363.6000;0.9792;1.3151;
363.9000;0.9744;1.2963;
364.2000;0.9760;1.2916;
364.5000;0.9809;1.3057;
364.8000;0.9890;1.3222;
365.1000;0.9801;1.3104;
365.4000;0.9817;1.3198;
365.7000;0.9874;1.3339;
366.0000;0.9809;1.3175;
366.3000;0.9817;1.3175;
366.6000;0.9817;1.3081;
366.9000;0.9792;1.3057;
367.2000;0.9801;1.3198;
367.5000;0.9784;1.3222;
367.8000;0.9792;1.3222;
368.1000;0.9744;1.3151;
368.4000;0.9801;1.3269;
368.7000;0.9792;1.3292;
369.0000;0.9801;1.3339;
369.3000;0.9784;1.3245;
369.6000;0.9784;1.3175;
369.9000;0.9792;1.3128;
370.2000;0.9801;1.3128;
370.5000;0.9776;1.3104;
370.8000;0.9801;1.3128;
371.1000;0.9792;1.3269;
371.4000;0.9776;1.3222;
371.7000;0.9817;1.3292;
372.0000;0.9784;1.3245;
372.3000;0.9792;1.3245;
372.6000;0.9784;1.3245;
372.9000;0.9719;1.3033;
373.2000;0.9792;1.3104;
373.5000;0.9784;1.3057;
373.8000;0.9792;1.3128;
374.1000;0.9801;1.3175;
374.4000;0.9801;1.3198;
374.7000;0.9760;1.3128;
375.0000;0.9792;1.3198;
375.3000;0.9792;1.3292;
375.6000;0.9784;1.3175;
375.9000;0.9784;1.3151;
376.2000;0.9809;1.3198;
376.5000;0.9874;1.3316;
376.8000;0.9809;1.3198;
377.1000;0.9792;1.3151;
377.4000;0.9776;1.3104;
377.7000;0.9792;1.3151;
378.0000;0.9809;1.3151;
378.3000;0.9792;1.3198;
378.6000;0.9768;1.3081;
378.9000;0.9760;1.3057;
379.2000;0.9784;1.3175;
379.5000;0.9768;1.3128;
379.8000;0.9776;1.3175;
380.1000;0.9801;1.3198;
380.4000;0.9792;1.3316;
380.7000;0.9776;1.3339;
381.0000;0.9858;1.3480;
381.3000;0.9784;1.3245;
381.6000;0.9776;1.3198;
381.9000;0.9809;1.3198;
382.2000;0.9768;1.3245;
382.5000;0.9784;1.3245;
382.8000;0.9784;1.3245;
383.1000;0.9735;1.3151;
383.4000;0.9809;1.3222;
383.7000;0.9784;1.3104;
384.0000;0.9768;1.3010;
384.3000;0.9792;1.3128;
384.6000;0.9784;1.3175;
384.9000;0.9801;1.3222;
385.2000;0.9784;1.3128;
385.5000;0.9792;1.3081;
385.8000;0.9809;1.3151;
386.1000;0.9784;1.3128;
386.4000;0.9792;1.3245;
386.7000;0.9817;1.3269;
387.0000;0.9792;1.3245;
387.3000;0.9801;1.3198;
387.6000;0.9776;1.3128;
387.9000;0.9792;1.3151;
388.2000;0.9841;1.3269;
388.5000;0.9809;1.3245;
388.8000;0.9768;1.3222;
389.1000;0.9776;1.3175;
389.4000;0.9792;1.3198;
389.7000;0.9809;1.3081;
390.0000;0.9841;1.3128;
390.3000;0.9817;1.3081;
390.6000;0.9817;1.3081;
390.9000;0.9776;1.3033;
391.2000;0.9792;1.3104;
391.5000;0.9801;1.3151;
391.8000;0.9776;1.3175;
392.1000;0.9833;1.3339;
392.4000;0.9792;1.3269;
392.7000;0.9776;1.3198;
393.0000;0.9809;1.3292;
393.3000;0.9825;1.3292;
393.6000;0.9776;1.3151;
393.9000;0.9776;1.3175;
394.2000;0.9776;1.3151;
394.5000;0.9752;1.3151;
394.8000;0.9768;1.3175;
395.1000;0.9849;1.3339;
395.4000;0.9792;1.3222;
395.7000;0.9784;1.3151;
396.0000;0.9801;1.3222;
396.3000;0.9825;1.3222;
396.6000;0.9801;1.3104;
396.9000;0.9801;1.3175;
397.2000;0.9784;1.3104;
397.5000;0.9792;1.3128;
397.8000;0.9792;1.3151;
398.1000;0.9776;1.3175;
398.4000;0.9801;1.3198;
398.7000;0.9784;1.3010;
399.0000;0.9792;1.2963;
399.3000;0.9768;1.3010;
399.6000;0.9768;1.3057;
399.9000;0.9784;1.3057;
400.2000;0.9768;1.3128;
400.5000;0.9784;1.3104;
400.8000;0.9768;1.3057;
401.1000;0.9784;1.3175;
401.4000;0.9768;1.3104;
401.7000;0.9817;1.3292;
402.0000;0.9768;1.3269;
402.3000;0.9784;1.3222;
402.6000;0.9776;1.3198;
402.9000;0.9768;1.3081;
403.2000;0.9760;1.3057;
403.5000;0.9776;1.3081;
403.8000;0.9768;1.3104;
404.1000;0.9776;1.3104;
404.4000;0.9776;1.3104;
404.7000;0.9760;1.3175;
405.0000;0.9784;1.3104;
405.3000;0.9776;1.3033;
405.6000;0.9784;1.3151;
405.9000;0.9768;1.3151;
406.2000;0.9784;1.3245;
406.5000;0.9792;1.3175;
406.8000;0.9752;1.3057;
407.1000;0.9752;1.3033;
407.4000;0.9784;1.3081;
407.7000;0.9768;1.2963;
408.0000;0.9809;1.3128;
408.3000;0.9768;1.3033;
408.6000;0.9744;1.2939;
408.9000;0.9768;1.3057;
409.2000;0.9858;1.3292;
409.5000;0.9768;1.3033;
409.8000;0.9784;1.3033;
410.1000;0.9768;1.3010;
410.4000;0.9792;1.3033;
410.7000;0.9711;1.2751;
411.0000;0.9784;1.2916;
411.3000;0.9670;1.2728;
411.6000;0.9809;1.3128;
411.9000;0.9784;1.3033;
412.2000;0.9768;1.3104;
412.5000;0.9792;1.3151;
412.8000;0.9809;1.3151;
413.1000;0.9752;1.3010;
413.4000;0.9776;1.3104;
413.7000;0.9752;1.2986;
414.0000;0.9776;1.2963;
414.3000;0.9776;1.2963;
414.6000;0.9735;1.2845;
414.9000;0.9833;1.3128;
415.2000;0.9809;1.2986;
415.5000;0.9776;1.2869;
415.8000;0.9792;1.2892;
416.1000;0.9792;1.2892;
416.4000;0.9784;1.2963;
416.7000;0.9752;1.2963;
417.0000;0.9801;1.3128;
417.3000;0.9784;1.3010;
417.6000;0.9792;1.2986;
417.9000;0.9792;1.2939;
418.2000;0.9784;1.3033;
418.5000;0.9792;1.3128;
418.8000;0.9776;1.3104;
419.1000;0.9784;1.3151;
419.4000;0.9760;1.3128;
419.7000;0.9776;1.3151;
420.0000;0.9768;1.3081;
420.3000;0.9792;1.3151;
420.6000;0.9776;1.3104;
420.9000;0.9784;1.3081;
421.2000;0.9752;1.3033;
421.5000;0.9817;1.3198;
421.8000;0.9792;1.3222;
422.1000;0.9792;1.3222;
422.4000;0.9784;1.3222;
422.7000;0.9841;1.3316;
423.0000;0.9792;1.3175;
423.3000;0.9776;1.3104;
423.6000;0.9768;1.3033;
423.9000;0.9760;1.2963;
424.2000;0.9792;1.3010;
424.5000;0.9784;1.3104;
424.8000;0.9776;1.3081;
425.1000;0.9776;1.3081;
425.4000;0.9768;1.3081;
425.7000;0.9752;1.3033;
426.0000;0.9760;1.3057;
426.3000;0.9760;1.3104;
426.6000;0.9776;1.3198;
426.9000;0.9768;1.3222;
427.2000;0.9801;1.3316;
427.5000;0.9727;1.3151;
427.8000;0.9776;1.3292;
428.1000;0.9801;1.3245;
428.4000;0.9776;1.3175;
428.7000;0.9817;1.3269;
429.0000;0.9776;1.3081;
429.3000;0.9760;1.3057;
429.6000;0.9784;1.3151;
429.9000;0.9752;1.3128;
430.2000;0.9752;1.3175;
430.5000;0.9768;1.3175;
430.8000;0.9792;1.3222;
431.1000;0.9768;1.3222;
431.4000;0.9792;1.3245;
431.7000;0.9784;1.3198;
432.0000;0.9776;1.3245;
432.3000;0.9776;1.3269;
432.6000;0.9784;1.3222;
432.9000;0.9776;1.3292;
433.2000;0.9801;1.3292;
433.5000;0.9768;1.3151;
433.8000;0.9792;1.3033;
434.1000;0.9809;1.3104;
434.4000;0.9792;1.3081;
434.7000;0.9866;1.3292;
435.0000;0.9744;1.3010;
435.3000;0.9760;1.3033;
435.6000;0.9768;1.3057;
435.9000;0.9776;1.3128;
436.2000;0.9760;1.3081;
436.5000;0.9801;1.3175;
436.8000;0.9792;1.3128;
437.1000;0.9784;1.3033;
437.4000;0.9760;1.3010;
437.7000;0.9760;1.3033;
438.0000;0.9776;1.3175;
438.3000;0.9792;1.3128;
438.6000;0.9760;1.3128;
438.9000;0.9760;1.3175;
439.2000;0.9776;1.3198;
439.5000;0.9768;1.3222;
439.8000;0.9760;1.3175;
440.1000;0.9760;1.3081;
440.4000;0.9760;1.3104;
440.7000;0.9727;1.2963;
441.0000;0.9776;1.2986;
441.3000;0.9776;1.2963;
441.6000;0.9760;1.2892;
441.9000;0.9768;1.2939;
442.2000;0.9760;1.2845;
442.5000;0.9768;1.2892;
442.8000;0.9752;1.2869;
443.1000;0.9768;1.3033;
443.4000;0.9760;1.3057;
443.7000;0.9727;1.3010;
444.0000;0.9760;1.3057;
444.3000;0.9768;1.3081;
444.6000;0.9776;1.3081;
444.9000;0.9760;1.3057;
445.2000;0.9768;1.3033;
445.5000;0.9752;1.3010;
445.8000;0.9752;1.3033;
446.1000;0.9768;1.3057;
446.4000;0.9752;1.2916;
446.7000;0.9752;1.2963;
447.0000;0.9760;1.2963;
447.3000;0.9744;1.2986;
447.6000;0.9768;1.3057;
447.9000;0.9744;1.2963;
448.2000;0.9760;1.2939;
448.5000;0.9768;1.3081;
448.8000;0.9760;1.3033;
449.1000;0.9768;1.3081;
449.4000;0.9735;1.3057;
449.7000;0.9744;1.3081;
450.0000;0.9768;1.3128;
450.3000;0.9744;1.3081;
450.6000;0.9703;1.2963;
450.9000;0.9760;1.3104;
451.2000;0.9727;1.3010;
451.5000;0.9752;1.3081;
451.8000;0.9760;1.3010;
452.1000;0.9760;1.2939;
452.4000;0.9768;1.2986;
452.7000;0.9768;1.2986;
453.0000;0.9760;1.3033;
453.3000;0.9792;1.3151;
453.6000;0.9768;1.3128;
453.9000;0.9768;1.3151;
454.2000;0.9760;1.3081;
454.5000;0.9711;1.2986;
454.8000;0.9752;1.3104;
455.1000;0.9792;1.3151;
455.4000;0.9752;1.3151;
455.7000;0.9744;1.3198;
456.0000;0.9752;1.3198;
456.3000;0.9744;1.3151;
456.6000;0.9752;1.3222;
456.9000;0.9768;1.3151;
457.2000;0.9768;1.3198;
457.5000;0.9752;1.3081;
457.8000;0.9744;1.3057;
458.1000;0.9768;1.3057;
458.4000;0.9760;1.3057;
458.7000;0.9768;1.3033;
459.0000;0.9760;1.3033;
459.3000;0.9744;1.2986;
459.6000;0.9768;1.3057;
459.9000;0.9760;1.3010;
460.2000;0.9760;1.3033;
460.5000;0.9752;1.3010;
460.8000;0.9760;1.2986;
461.1000;0.9752;1.3010;
461.4000;0.9760;1.3104;
461.7000;0.9752;1.3128;
462.0000;0.9744;1.3081;
462.3000;0.9760;1.3081;
462.6000;0.9768;1.3081;
462.9000;0.9760;1.3104;
463.2000;0.9752;1.3128;
463.5000;0.9744;1.3128;
463.8000;0.9768;1.3151;
464.1000;0.9744;1.3033;
464.4000;0.9760;1.3010;
464.7000;0.9768;1.2986;
465.0000;0.9752;1.2986;
465.3000;0.9760;1.2986;
465.6000;0.9744;1.2939;
465.9000;0.9727;1.2986;
466.2000;0.9768;1.3057;
466.5000;0.9768;1.3128;
466.8000;0.9760;1.3081;
467.1000;0.9760;1.3128;
467.4000;0.9752;1.3222;
467.7000;0.9776;1.3269;
468.0000;0.9744;1.3198;
468.3000;0.9744;1.3128;
468.6000;0.9809;1.3269;
468.9000;0.9760;1.3222;
469.2000;0.9768;1.3198;
469.5000;0.9703;1.3057;
469.8000;0.9735;1.3057;
470.1000;0.9752;1.3057;
470.4000;0.9752;1.2986;
470.7000;0.9735;1.2916;
471.0000;0.9744;1.3010;
471.3000;0.9760;1.3128;
471.6000;0.9760;1.3104;
471.9000;0.9760;1.3222;
472.2000;0.9744;1.3151;
472.5000;0.9752;1.3128;
472.8000;0.9727;1.3010;
473.1000;0.9735;1.3057;
473.4000;0.9662;1.2963;
473.7000;0.9752;1.3057;
474.0000;0.9768;1.3104;
474.3000;0.9695;1.2986;
474.6000;0.9752;1.3057;
474.9000;0.9760;1.3128;
475.2000;0.9752;1.3081;
475.5000;0.9752;1.3175;
475.8000;0.9760;1.3081;
476.1000;0.9776;1.3175;
476.4000;0.9858;1.3386;
476.7000;0.9752;1.3151;
477.0000;0.9760;1.3128;
477.3000;0.9760;1.3104;
477.6000;0.9768;1.3128;
477.9000;0.9744;1.3057;
478.2000;0.9735;1.2986;
478.5000;0.9735;1.3081;
478.8000;0.9760;1.3151;
479.1000;0.9760;1.3151;
479.4000;0.9695;1.2939;
479.7000;0.9760;1.3128;
480.0000;0.9735;1.3057;
480.3000;0.9727;1.2986;
480.6000;0.9768;1.2986;
480.9000;0.9760;1.3033;
481.2000;0.9760;1.3010;
481.5000;0.9768;1.3104;
481.8000;0.9744;1.3198;
482.1000;0.9735;1.3175;
482.4000;0.9760;1.3269;
482.7000;0.9809;1.3386;
483.0000;0.9744;1.3292;
483.3000;0.9735;1.3245;
483.6000;0.9735;1.3292;
483.9000;0.9744;1.3245;
484.2000;0.9670;1.2986;
484.5000;0.9768;1.3245;
484.8000;0.9752;1.3151;
485.1000;0.9752;1.3033;
485.4000;0.9760;1.3010;
485.7000;0.9744;1.2916;
486.0000;0.9760;1.2916;
486.3000;0.9695;1.2728;
486.6000;0.9752;1.2869;
486.9000;0.9752;1.2916;
487.2000;0.9744;1.2939;
487.5000;0.9752;1.3057;
487.8000;0.9711;1.2963;
488.1000;0.9768;1.3128;
488.4000;0.9752;1.3151;
488.7000;0.9735;1.3128;
489.0000;0.9744;1.3081;
489.3000;0.9792;1.3151;
489.6000;0.9760;1.3033;
489.9000;0.9752;1.3057;
490.2000;0.9744;1.3010;
490.5000;0.9768;1.3081;
490.8000;0.9719;1.3010;
491.1000;0.9735;1.3033;
491.4000;0.9735;1.2963;
491.7000;0.9735;1.2986;
492.0000;0.9752;1.2939;
492.3000;0.9719;1.2892;
492.6000;0.9768;1.3128;
492.9000;0.9752;1.3081;
493.2000;0.9735;1.3081;
493.5000;0.9744;1.3057;
493.8000;0.9727;1.3081;
494.1000;0.9719;1.3081;
494.4000;0.9727;1.3057;
494.7000;0.9760;1.3198;
495.0000;0.9760;1.3128;
495.3000;0.9744;1.3081;
495.6000;0.9801;1.3222;
495.9000;0.9760;1.3151;
496.2000;0.9735;1.3151;
496.5000;0.9735;1.3269;
496.8000;0.9752;1.3269;
497.1000;0.9760;1.3316;
497.4000;0.9744;1.3175;
497.7000;0.9727;1.3175;
498.0000;0.9735;1.3222;
498.3000;0.9719;1.3198;
498.6000;0.9727;1.3222;
498.9000;0.9744;1.3222;
499.2000;0.9719;1.3128;
499.5000;0.9744;1.3128;
499.8000;0.9752;1.3104;
500.1000;0.9760;1.3057;
500.4000;0.9735;1.3057;
500.7000;0.9744;1.3081;
501.0000;0.9752;1.3175;
501.3000;0.9744;1.3222;
501.6000;0.9735;1.3175;
501.9000;0.9735;1.3175;
502.2000;0.9792;1.3222;
502.5000;0.9752;1.3198;
502.8000;0.9727;1.3198;
503.1000;0.9727;1.3151;
503.4000;0.9760;1.3245;
503.7000;0.9727;1.3175;
504.0000;0.9695;1.3057;
504.3000;0.9719;1.3128;
504.6000;0.9768;1.3222;
504.9000;0.9768;1.3245;
505.2000;0.9744;1.3222;
505.5000;0.9760;1.3198;
505.8000;0.9760;1.3222;
506.1000;0.9768;1.3339;
506.4000;0.9752;1.3339;
506.7000;0.9735;1.3269;
507.0000;0.9833;1.3504;
507.3000;0.9776;1.3386;
507.6000;0.9752;1.3269;
507.9000;0.9727;1.3175;
508.2000;0.9678;1.3033;
508.5000;0.9817;1.3339;
508.8000;0.9744;1.3175;
509.1000;0.9727;1.3104;
509.4000;0.9727;1.3081;
509.7000;0.9735;1.3033;
510.0000;0.9849;1.3316;
510.3000;0.9760;1.3151;
510.6000;0.9735;1.3057;
510.9000;0.9752;1.3151;
511.2000;0.9760;1.3222;
511.5000;0.9752;1.3198;
511.8000;0.9662;1.3010;
512.1000;0.9711;1.3104;
512.4000;0.9744;1.3128;
512.7000;0.9744;1.3033;
513.0000;0.9727;1.3081;
513.3000;0.9776;1.3151;
513.6000;0.9727;1.3104;
513.9000;0.9735;1.3104;
514.2000;0.9735;1.3222;
514.5000;0.9719;1.3128;
514.8000;0.9735;1.3128;
515.1000;0.9744;1.3222;
515.4000;0.9744;1.3316;
515.7000;0.9695;1.3222;
516.0000;0.9752;1.3363;
516.3000;0.9727;1.3339;
516.6000;0.9744;1.3339;
516.9000;0.9744;1.3245;
517.2000;0.9711;1.3222;
517.5000;0.9727;1.3269;
517.8000;0.9760;1.3339;
518.1000;0.9752;1.3292;
518.4000;0.9744;1.3222;
518.7000;0.9727;1.3104;
519.0000;0.9727;1.3057;
519.3000;0.9711;1.3081;
519.6000;0.9735;1.2986;
519.9000;0.9752;1.2916;
520.2000;0.9695;1.2728;
520.5000;0.9760;1.3033;
520.8000;0.9719;1.2986;
521.1000;0.9727;1.3033;
521.4000;0.9744;1.3081;
521.7000;0.9825;1.3339;
522.0000;0.9735;1.3175;
522.3000;0.9719;1.3175;
522.6000;0.9752;1.3269;
522.9000;0.9744;1.3222;
523.2000;0.9801;1.3292;
523.5000;0.9735;1.3081;
523.8000;0.9744;1.3104;
524.1000;0.9744;1.3198;
524.4000;0.9744;1.3198;
524.7000;0.9719;1.3081;
525.0000;0.9752;1.3151;
525.3000;0.9735;1.3128;
525.6000;0.9695;1.3057;
525.9000;0.9727;1.3269;
526.2000;0.9719;1.3292;
526.5000;0.9711;1.3269;
526.8000;0.9735;1.3269;
527.1000;0.9752;1.3316;
527.4000;0.9752;1.3339;
527.7000;0.9695;1.3245;
528.0000;0.9744;1.3316;
528.3000;0.9735;1.3175;
528.6000;0.9703;1.3128;
528.9000;0.9735;1.3128;
529.2000;0.9695;1.3033;
529.5000;0.9719;1.3151;
529.8000;0.9719;1.3245;
530.1000;0.9727;1.3222;
530.4000;0.9727;1.3222;
530.7000;0.9719;1.3175;
531.0000;0.9760;1.3316;
531.3000;0.9711;1.3363;
531.6000;0.9670;1.3245;
531.9000;0.9727;1.3363;
532.2000;0.9792;1.3504;
532.5000;0.9711;1.3339;
532.8000;0.9744;1.3316;
533.1000;0.9776;1.3363;
533.4000;0.9727;1.3198;
533.7000;0.9719;1.3222;
534.0000;0.9735;1.3175;
534.3000;0.9735;1.3198;
534.6000;0.9719;1.3198;
534.9000;0.9695;1.3128;
535.2000;0.9735;1.3104;
535.5000;0.9760;1.3128;
535.8000;0.9809;1.3198;
536.1000;0.9727;1.3057;
536.4000;0.9744;1.3104;
536.7000;0.9744;1.3081;
537.0000;0.9784;1.3151;
537.3000;0.9735;1.3081;
537.6000;0.9678;1.2986;
537.9000;0.9711;1.3033;
538.2000;0.9735;1.3081;
538.5000;0.9752;1.3033;
538.8000;0.9719;1.3057;
539.1000;0.9744;1.3057;
539.4000;0.9727;1.3081;
539.7000;0.9711;1.2986;
540.0000;0.9727;1.3033;
540.3000;0.9711;1.2986;
540.6000;0.9711;1.3128;
540.9000;0.9735;1.3245;
541.2000;0.9719;1.3292;
541.5000;0.9678;1.3175;
541.8000;0.9744;1.3316;
542.1000;0.9662;1.3128;
542.4000;0.9719;1.3245;
542.7000;0.9678;1.3198;
543.0000;0.9784;1.3457;
543.3000;0.9735;1.3269;
543.6000;0.9752;1.3363;
543.9000;0.9727;1.3386;
544.2000;0.9752;1.3410;
544.5000;0.9719;1.3292;
544.8000;0.9744;1.3316;
545.1000;0.9744;1.3363;
545.4000;0.9719;1.3269;
545.7000;0.9719;1.3245;
546.0000;0.9727;1.3339;
546.3000;0.9662;1.3245;
546.6000;0.9744;1.3480;
546.9000;0.9662;1.3245;
547.2000;0.9809;1.3716;
547.5000;0.9727;1.3598;
547.8000;0.9735;1.3551;
548.1000;0.9727;1.3528;
548.4000;0.9695;1.3292;
548.7000;0.9752;1.3316;
549.0000;0.9711;1.3222;
549.3000;0.9727;1.3245;
549.6000;0.9784;1.3316;
549.9000;0.9735;1.3245;
550.2000;0.9711;1.3175;
550.5000;0.9727;1.3269;
550.8000;0.9744;1.3292;
551.1000;0.9727;1.3316;
551.4000;0.9719;1.3339;
551.7000;0.9744;1.3316;
552.0000;0.9744;1.3292;
552.3000;0.9752;1.3386;
552.6000;0.9646;1.3198;
552.9000;0.9727;1.3457;
553.2000;0.9719;1.3504;
553.5000;0.9719;1.3433;
553.8000;0.9719;1.3386;
554.1000;0.9768;1.3480;
554.4000;0.9744;1.3433;
554.7000;0.9711;1.3386;
555.0000;0.9719;1.3386;
555.3000;0.9719;1.3339;
555.6000;0.9727;1.3339;
555.9000;0.9719;1.3386;
556.2000;0.9735;1.3386;
556.5000;0.9703;1.3292;
556.8000;0.9727;1.3363;
557.1000;0.9703;1.3316;
557.4000;0.9727;1.3292;
557.7000;0.9719;1.3245;
558.0000;0.9703;1.3245;
558.3000;0.9727;1.3316;
558.6000;0.9735;1.3339;
558.9000;0.9768;1.3339;
559.2000;0.9727;1.3245;
559.5000;0.9719;1.3175;
559.8000;0.9760;1.3245;
560.1000;0.9727;1.3128;
560.4000;0.9744;1.3104;
560.7000;0.9735;1.3175;
561.0000;0.9752;1.3245;
561.3000;0.9735;1.3222;
561.6000;0.9744;1.3198;
561.9000;0.9719;1.3128;
562.2000;0.9735;1.3316;
562.5000;0.9776;1.3363;
562.8000;0.9735;1.3386;
563.1000;0.9735;1.3386;
563.4000;0.9678;1.3316;
563.7000;0.9711;1.3410;
564.0000;0.9703;1.3339;
564.3000;0.9711;1.3386;
564.6000;0.9744;1.3480;
564.9000;0.9703;1.3410;
565.2000;0.9719;1.3457;
565.5000;0.9711;1.3433;
565.8000;0.9703;1.3410;
566.1000;0.9678;1.3386;
566.4000;0.9678;1.3339;
566.7000;0.9654;1.3245;
567.0000;0.9719;1.3433;
567.3000;0.9711;1.3386;
567.6000;0.9727;1.3433;
567.9000;0.9711;1.3410;
568.2000;0.9711;1.3316;
568.5000;0.9711;1.3292;
568.8000;0.9735;1.3339;
569.1000;0.9744;1.3222;
569.4000;0.9735;1.3128;
569.7000;0.9711;1.3151;
570.0000;0.9744;1.3339;
570.3000;0.9760;1.3363;
570.6000;0.9695;1.3222;
570.9000;0.9768;1.3363;
571.2000;0.9833;1.3669;
571.5000;0.9735;1.3528;
571.8000;0.9719;1.3575;
572.1000;0.9703;1.3551;
572.4000;0.9711;1.3457;
572.7000;0.9719;1.3528;
573.0000;0.9735;1.3551;
573.3000;0.9727;1.3528;
573.6000;0.9727;1.3528;
573.9000;0.9719;1.3480;
574.2000;0.9735;1.3504;
574.5000;0.9727;1.3480;
574.8000;0.9727;1.3480;
575.1000;0.9727;1.3457;
575.4000;0.9719;1.3480;
575.7000;0.9719;1.3504;
576.0000;0.9703;1.3433;
576.3000;0.9695;1.3363;
576.6000;0.9711;1.3316;
576.9000;0.9711;1.3292;
577.2000;0.9703;1.3339;
577.5000;0.9719;1.3363;
577.8000;0.9760;1.3528;
578.1000;0.9703;1.3457;
578.4000;0.9703;1.3480;
578.7000;0.9711;1.3386;
579.0000;0.9727;1.3457;
579.3000;0.9711;1.3433;
579.6000;0.9727;1.3504;
579.9000;0.9711;1.3551;
580.2000;0.9711;1.3504;
580.5000;0.9711;1.3551;
580.8000;0.9711;1.3480;
581.1000;0.9687;1.3410;
581.4000;0.9703;1.3622;
581.7000;0.9678;1.3598;
582.0000;0.9711;1.3528;
582.3000;0.9719;1.3504;
582.6000;0.9727;1.3528;
582.9000;0.9744;1.3528;
583.2000;0.9735;1.3504;
583.5000;0.9735;1.3504;
583.8000;0.9744;1.3480;
584.1000;0.9727;1.3480;
584.4000;0.9719;1.3480;
584.7000;0.9727;1.3433;
585.0000;0.9719;1.3433;
585.3000;0.9735;1.3386;
585.6000;0.9744;1.3457;
585.9000;0.9727;1.3433;
586.2000;0.9711;1.3363;
586.5000;0.9752;1.3504;
586.8000;0.9735;1.3433;
587.1000;0.9719;1.3433;
587.4000;0.9776;1.3551;
587.7000;0.9727;1.3457;
588.0000;0.9744;1.3504;
588.3000;0.9711;1.3410;
588.6000;0.9719;1.3528;
588.9000;0.9719;1.3480;
589.2000;0.9711;1.3551;
589.5000;0.9768;1.3622;
589.8000;0.9711;1.3480;
590.1000;0.9711;1.3433;
590.4000;0.9727;1.3575;
590.7000;0.9687;1.3480;
591.0000;0.9695;1.3575;
591.3000;0.9678;1.3457;
591.6000;0.9727;1.3480;
591.9000;0.9719;1.3504;
592.2000;0.9719;1.3480;
592.5000;0.9703;1.3480;
592.8000;0.9703;1.3480;
593.1000;0.9711;1.3551;
593.4000;0.9719;1.3598;
593.7000;0.9703;1.3645;
594.0000;0.9703;1.3669;
594.3000;0.9687;1.3622;
594.6000;0.9711;1.3692;
594.9000;0.9711;1.3622;
595.2000;0.9744;1.3669;
595.5000;0.9727;1.3480;
595.8000;0.9727;1.3528;
596.1000;0.9695;1.3410;
596.4000;0.9703;1.3433;
596.7000;0.9703;1.3386;
597.0000;0.9735;1.3433;
597.3000;0.9719;1.3433;
597.6000;0.9719;1.3292;
597.9000;0.9727;1.3316;
598.2000;0.9719;1.3269;
598.5000;0.9727;1.3410;
598.8000;0.9719;1.3480;
599.1000;0.9711;1.3575;
599.4000;0.9695;1.3622;
599.7000;0.9711;1.3669;
600.0000;0.9670;1.3645;
600.3000;0.9719;1.3598;
600.6000;0.9581;1.3269;
600.9000;0.9540;1.3245;
601.2000;0.9418;1.2986;
601.5000;0.9288;1.2751;
601.8000;0.9149;1.2610;
602.1000;0.9011;1.2398;
602.4000;0.8832;1.2045;
602.7000;0.8783;1.2045;
603.0000;0.8653;1.1904;
603.3000;0.8612;1.1810;
603.6000;0.8457;1.1528;
603.9000;0.8376;1.1340;
604.2000;0.8278;1.1269;
604.5000;0.8238;1.1245;
604.8000;0.8173;1.1104;
605.1000;0.8075;1.0798;
605.4000;0.7945;1.0634;
605.7000;0.7928;1.0728;
606.0000;0.7880;1.0728;
606.3000;0.7928;1.0869;
606.6000;0.7757;1.0422;
606.9000;0.7709;1.0351;
607.2000;0.7660;1.0281;
607.5000;0.7578;1.0234;
607.8000;0.7546;1.0304;
608.1000;0.7505;1.0281;
608.4000;0.7481;1.0328;
608.7000;0.7440;1.0304;
609.0000;0.7391;1.0304;
609.3000;0.7342;1.0257;
609.6000;0.7310;1.0304;
609.9000;0.7277;1.0210;
610.2000;0.7236;1.0163;
610.5000;0.7204;1.0187;
610.8000;0.7171;1.0257;
611.1000;0.7139;1.0257;
611.4000;0.7106;1.0281;
611.7000;0.7057;1.0234;
612.0000;0.7033;1.0187;
612.3000;0.7009;1.0234;
612.6000;0.6984;1.0281;
612.9000;0.6952;1.0187;
613.2000;0.6935;1.0187;
613.5000;0.6911;1.0116;
613.8000;0.6846;0.9952;
614.1000;0.6838;0.9999;
614.4000;0.6854;1.0022;
614.7000;0.6805;0.9975;
615.0000;0.6716;0.9763;
615.3000;0.6797;1.0022;
615.6000;0.6724;0.9952;
615.9000;0.6716;0.9952;
616.2000;0.6691;0.9999;
616.5000;0.6699;0.9975;
616.8000;0.6642;0.9881;
617.1000;0.6626;0.9857;
617.4000;0.6634;0.9810;
617.7000;0.6593;0.9716;
618.0000;0.6536;0.9669;
618.3000;0.6553;0.9763;
618.6000;0.6536;0.9763;
618.9000;0.6528;0.9881;
619.2000;0.6512;0.9881;
619.5000;0.6577;1.0069;
619.8000;0.6488;0.9810;
620.1000;0.6471;0.9787;
620.4000;0.6479;0.9810;
620.7000;0.6439;0.9646;
621.0000;0.6398;0.9552;
621.3000;0.6406;0.9599;
621.6000;0.6382;0.9716;
621.9000;0.6374;0.9669;
622.2000;0.6414;0.9716;
622.5000;0.6349;0.9622;
622.8000;0.6309;0.9693;
623.1000;0.6276;0.9646;
623.4000;0.6317;0.9716;
623.7000;0.6268;0.9646;
624.0000;0.6268;0.9646;
624.3000;0.6195;0.9505;
624.6000;0.6243;0.9575;
624.9000;0.6227;0.9599;
625.2000;0.6178;0.9575;
625.5000;0.6203;0.9622;
625.8000;0.6195;0.9599;
626.1000;0.6195;0.9716;
626.4000;0.6260;0.9740;
626.7000;0.6186;0.9693;
627.0000;0.6138;0.9669;
627.3000;0.6186;0.9787;
627.6000;0.6211;0.9904;
627.9000;0.6146;0.9693;
628.2000;0.6113;0.9646;
628.5000;0.6162;0.9716;
628.8000;0.6097;0.9599;
629.1000;0.6129;0.9787;
629.4000;0.6154;0.9763;
629.7000;0.6089;0.9599;
630.0000;0.6056;0.9505;
630.3000;0.6089;0.9669;
630.6000;0.6064;0.9622;
630.9000;0.6048;0.9552;
631.2000;0.6056;0.9599;
631.5000;0.6015;0.9599;
631.8000;0.6040;0.9552;
632.1000;0.6040;0.9528;
632.4000;0.6007;0.9528;
632.7000;0.6015;0.9552;
633.0000;0.5999;0.9458;
633.3000;0.5983;0.9458;
633.6000;0.5983;0.9552;
633.9000;0.5983;0.9575;
634.2000;0.5975;0.9599;
634.5000;0.5967;0.9669;
634.8000;0.5950;0.9575;
635.1000;0.5958;0.9669;
635.4000;0.5975;0.9646;
635.7000;0.5950;0.9622;
636.0000;0.5926;0.9528;
636.3000;0.5902;0.9481;
636.6000;0.5918;0.9599;
636.9000;0.5893;0.9740;
637.2000;0.5902;0.9693;
637.5000;0.5902;0.9716;
637.8000;0.5885;0.9669;
638.1000;0.5845;0.9575;
638.4000;0.5885;0.9646;
638.7000;0.5836;0.9528;
639.0000;0.5861;0.9669;
639.3000;0.5836;0.9552;
639.6000;0.5853;0.9552;
639.9000;0.5845;0.9575;
640.2000;0.5828;0.9458;
640.5000;0.5869;0.9622;
640.8000;0.5853;0.9552;
641.1000;0.5845;0.9505;
641.4000;0.5820;0.9481;
641.7000;0.5836;0.9528;
642.0000;0.5820;0.9505;
642.3000;0.5853;0.9622;
642.6000;0.5812;0.9552;
642.9000;0.5820;0.9599;
643.2000;0.5796;0.9505;
643.5000;0.5796;0.9505;
643.8000;0.5763;0.9528;
644.1000;0.5796;0.9505;
644.4000;0.5788;0.9505;
644.7000;0.5763;0.9387;
645.0000;0.5771;0.9458;
645.3000;0.5771;0.9552;
645.6000;0.5763;0.9575;
645.9000;0.5771;0.9528;
646.2000;0.5755;0.9528;
646.5000;0.5755;0.9622;
646.8000;0.5763;0.9740;
647.1000;0.5714;0.9669;
647.4000;0.5796;0.9834;
647.7000;0.5722;0.9669;
648.0000;0.5755;0.9669;
648.3000;0.5722;0.9716;
648.6000;0.5714;0.9646;
648.9000;0.5706;0.9575;
649.2000;0.5690;0.9575;
649.5000;0.5690;0.9740;
649.8000;0.5698;0.9716;
650.1000;0.5682;0.9669;
650.4000;0.5674;0.9716;
650.7000;0.5674;0.9693;
651.0000;0.5674;0.9740;
651.3000;0.5682;0.9810;
651.6000;0.5682;0.9716;
651.9000;0.5682;0.9716;
652.2000;0.5682;0.9740;
652.5000;0.5682;0.9716;
652.8000;0.5633;0.9646;
653.1000;0.5665;0.9810;
653.4000;0.5649;0.9810;
653.7000;0.5625;0.9787;
654.0000;0.5779;1.0140;
654.3000;0.5633;0.9763;
654.6000;0.5641;0.9740;
654.9000;0.5576;0.9528;
655.2000;0.5625;0.9669;
655.5000;0.5625;0.9622;
655.8000;0.5600;0.9552;
656.1000;0.5617;0.9669;
656.4000;0.5568;0.9622;
656.7000;0.5592;0.9669;
657.0000;0.5608;0.9716;
657.3000;0.5600;0.9763;
657.6000;0.5560;0.9622;
657.9000;0.5608;0.9763;
658.2000;0.5592;0.9622;
658.5000;0.5617;0.9646;
658.8000;0.5576;0.9575;
659.1000;0.5535;0.9481;
659.4000;0.5568;0.9575;
659.7000;0.5576;0.9693;
660.0000;0.5568;0.9740;
660.3000;0.5608;0.9952;
660.6000;0.5511;0.9787;
660.9000;0.5551;0.9881;
661.2000;0.5527;0.9834;
661.5000;0.5543;0.9928;
661.8000;0.5551;0.9928;
662.1000;0.5551;0.9857;
662.4000;0.5576;0.9928;
662.7000;0.5527;0.9857;
663.0000;0.5527;0.9857;
663.3000;0.5560;0.9952;
663.6000;0.5527;0.9975;
663.9000;0.5503;0.9763;
664.2000;0.5519;0.9834;
664.5000;0.5576;0.9857;
664.8000;0.5519;0.9740;
665.1000;0.5503;0.9669;
665.4000;0.5535;0.9763;
665.7000;0.5527;0.9646;
666.0000;0.5503;0.9528;
666.3000;0.5405;0.9293;
666.6000;0.5495;0.9505;
666.9000;0.5495;0.9505;
667.2000;0.5503;0.9646;
667.5000;0.5470;0.9599;
667.8000;0.5495;0.9693;
668.1000;0.5503;0.9693;
668.4000;0.5462;0.9622;
668.7000;0.5495;0.9716;
669.0000;0.5454;0.9669;
669.3000;0.5470;0.9740;
669.6000;0.5438;0.9669;
669.9000;0.5478;0.9787;
670.2000;0.5462;0.9669;
670.5000;0.5454;0.9693;
670.8000;0.5470;0.9693;
671.1000;0.5478;0.9622;
671.4000;0.5429;0.9646;
671.7000;0.5446;0.9669;
672.0000;0.5454;0.9599;
672.3000;0.5438;0.9622;
672.6000;0.5446;0.9693;
672.9000;0.5446;0.9787;
673.2000;0.5486;0.9810;
673.5000;0.5446;0.9599;
673.8000;0.5446;0.9505;
674.1000;0.5421;0.9505;
674.4000;0.5429;0.9622;
674.7000;0.5324;0.9410;
675.0000;0.5364;0.9505;
675.3000;0.5470;0.9787;
675.6000;0.5413;0.9693;
675.9000;0.5405;0.9693;
676.2000;0.5397;0.9669;
676.5000;0.5397;0.9693;
676.8000;0.5429;0.9740;
677.1000;0.5397;0.9693;
677.4000;0.5397;0.9787;
677.7000;0.5397;0.9857;
678.0000;0.5454;0.9857;
678.3000;0.5389;0.9693;
678.6000;0.5397;0.9693;
678.9000;0.5421;0.9693;
679.2000;0.5372;0.9575;
679.5000;0.5397;0.9693;
679.8000;0.5356;0.9693;
680.1000;0.5389;0.9669;
680.4000;0.5372;0.9669;
680.7000;0.5356;0.9693;
681.0000;0.5356;0.9763;
681.3000;0.5381;0.9834;
681.6000;0.5421;0.9975;
681.9000;0.5324;0.9740;
682.2000;0.5340;0.9834;
682.5000;0.5364;0.9881;
682.8000;0.5356;0.9857;
683.1000;0.5372;0.9881;
683.4000;0.5291;0.9575;
683.7000;0.5348;0.9740;
684.0000;0.5372;0.9834;
684.3000;0.5356;0.9810;
684.6000;0.5364;0.9669;
684.9000;0.5332;0.9646;
685.2000;0.5389;0.9787;
685.5000;0.5332;0.9669;
685.8000;0.5348;0.9716;
686.1000;0.5332;0.9669;
686.4000;0.5356;0.9740;
686.7000;0.5356;0.9834;
687.0000;0.5324;0.9693;
687.3000;0.5307;0.9646;
687.6000;0.5315;0.9716;
687.9000;0.5332;0.9740;
688.2000;0.5324;0.9716;
688.5000;0.5307;0.9716;
688.8000;0.5315;0.9834;
689.1000;0.5267;0.9693;
689.4000;0.5324;0.9904;
689.7000;0.5299;0.9810;
690.0000;0.5315;0.9787;
690.3000;0.5307;0.9834;
690.6000;0.5275;0.9763;
690.9000;0.5250;0.9763;
691.2000;0.5283;0.9834;
691.5000;0.5283;0.9857;
691.8000;0.5291;0.9881;
692.1000;0.5258;0.9881;
692.4000;0.5283;0.9999;
692.7000;0.5275;0.9975;
693.0000;0.5291;0.9999;
693.3000;0.5307;1.0046;
693.6000;0.5291;0.9928;
693.9000;0.5283;0.9881;
694.2000;0.5267;0.9904;
694.5000;0.5267;0.9810;
694.8000;0.5234;0.9646;
695.1000;0.5267;0.9716;
695.4000;0.5250;0.9646;
695.7000;0.5258;0.9669;
696.0000;0.5242;0.9599;
696.3000;0.5234;0.9575;
696.6000;0.5275;0.9646;
696.9000;0.5250;0.9646;
697.2000;0.5234;0.9599;
697.5000;0.5258;0.9693;
697.8000;0.5226;0.9693;
698.1000;0.5242;0.9693;
698.4000;0.5250;0.9669;
698.7000;0.5275;0.9787;
699.0000;0.5234;0.9740;
699.3000;0.5210;0.9646;
699.6000;0.5258;0.9669;
699.9000;0.5226;0.9575;
700.2000;0.5226;0.9505;
700.5000;0.5258;0.9646;
700.8000;0.5242;0.9552;
701.1000;0.5242;0.9552;
701.4000;0.5234;0.9646;
701.7000;0.5218;0.9669;
702.0000;0.5226;0.9716;
702.3000;0.5210;0.9763;
702.6000;0.5218;0.9740;
702.9000;0.5242;0.9763;
703.2000;0.5218;0.9740;
703.5000;0.5218;0.9716;
703.8000;0.5218;0.9716;
704.1000;0.5201;0.9646;
704.4000;0.5193;0.9575;
704.7000;0.5218;0.9669;
705.0000;0.5193;0.9575;
705.3000;0.5210;0.9646;
705.6000;0.5210;0.9669;
705.9000;0.5218;0.9622;
706.2000;0.5185;0.9505;
706.5000;0.5177;0.9528;
706.8000;0.5153;0.9481;
707.1000;0.5201;0.9646;
707.4000;0.5185;0.9622;
707.7000;0.5193;0.9763;
708.0000;0.5185;0.9740;
708.3000;0.5201;0.9787;
708.6000;0.5201;0.9740;
708.9000;0.5193;0.9763;
709.2000;0.5177;0.9810;
709.5000;0.5193;0.9810;
709.8000;0.5201;0.9810;
710.1000;0.5177;0.9693;
710.4000;0.5161;0.9763;
710.7000;0.5201;0.9810;
711.0000;0.5177;0.9716;
711.3000;0.5177;0.9669;
711.6000;0.5169;0.9693;
711.9000;0.5161;0.9693;
712.2000;0.5193;0.9622;
712.5000;0.5169;0.9528;
712.8000;0.5201;0.9669;
713.1000;0.5226;0.9810;
713.4000;0.5128;0.9575;
713.7000;0.5161;0.9646;
714.0000;0.5177;0.9646;
714.3000;0.5161;0.9599;
714.6000;0.5177;0.9669;
714.9000;0.5185;0.9693;
715.2000;0.5177;0.9693;
715.5000;0.5153;0.9622;
715.8000;0.5161;0.9716;
716.1000;0.5153;0.9763;
716.4000;0.5136;0.9716;
716.7000;0.5136;0.9646;
717.0000;0.5153;0.9716;
717.3000;0.5144;0.9669;
717.6000;0.5136;0.9669;
717.9000;0.5136;0.9669;
718.2000;0.5185;0.9834;
718.5000;0.5136;0.9740;
718.8000;0.5136;0.9693;
719.1000;0.5120;0.9646;
719.4000;0.5136;0.9716;
719.7000;0.5144;0.9716;
720.0000;0.5112;0.9716;
720.3000;0.5120;0.9763;
720.6000;0.5120;0.9834;
720.9000;0.5120;0.9952;
721.2000;0.5112;1.0022;
721.5000;0.5088;0.9952;
721.8000;0.5169;1.0116;
722.1000;0.5136;0.9952;
722.4000;0.5120;0.9904;
722.7000;0.5112;0.9810;
723.0000;0.5031;0.9599;
723.3000;0.5136;0.9881;
723.6000;0.5112;0.9857;
723.9000;0.5120;0.9834;
724.2000;0.5104;0.9787;
724.5000;0.5079;0.9810;
724.8000;0.5120;0.9928;
725.1000;0.5120;0.9904;
725.4000;0.5104;0.9857;
725.7000;0.5120;0.9881;
726.0000;0.5193;1.0140;
726.3000;0.5096;0.9881;
726.6000;0.5079;0.9763;
726.9000;0.5088;0.9740;
727.2000;0.5063;0.9740;
727.5000;0.5096;0.9787;
727.8000;0.5079;0.9787;
728.1000;0.5063;0.9787;
728.4000;0.5088;0.9881;
728.7000;0.5088;0.9975;
729.0000;0.5088;0.9952;
729.3000;0.5088;0.9904;
729.6000;0.5063;0.9857;
729.9000;0.5079;0.9928;
730.2000;0.5136;1.0046;
730.5000;0.5088;0.9834;
730.8000;0.5120;0.9928;
731.1000;0.5088;0.9857;
731.4000;0.5071;0.9857;
731.7000;0.5063;0.9763;
732.0000;0.5088;0.9810;
732.3000;0.5079;0.9810;
732.6000;0.5071;0.9810;
732.9000;0.5071;0.9787;
733.2000;0.5031;0.9693;
733.5000;0.5079;0.9834;
733.8000;0.5071;0.9834;
734.1000;0.4982;0.9622;
734.4000;0.5096;0.9975;
734.7000;0.5071;1.0022;
735.0000;0.5071;1.0046;
735.3000;0.5079;1.0093;
735.6000;0.5055;1.0069;
735.9000;0.5063;0.9975;
736.2000;0.5047;0.9904;
736.5000;0.5096;1.0022;
736.8000;0.5055;0.9857;
737.1000;0.5055;0.9881;
737.4000;0.5055;0.9952;
737.7000;0.5079;0.9952;
738.0000;0.5096;1.0046;
738.3000;0.5047;0.9975;
738.6000;0.5063;1.0163;
738.9000;0.5055;1.0140;
739.2000;0.5063;1.0093;
739.5000;0.5039;0.9928;
739.8000;0.5031;0.9834;
740.1000;0.5039;0.9857;
740.4000;0.5031;0.9810;
740.7000;0.5055;0.9928;
741.0000;0.5063;0.9952;
741.3000;0.5047;0.9904;
741.6000;0.5039;0.9975;
741.9000;0.5071;1.0046;
742.2000;0.5039;0.9999;
742.5000;0.5031;0.9999;
742.8000;0.4990;0.9881;
743.1000;0.5031;0.9928;
743.4000;0.5014;0.9928;
743.7000;0.4974;0.9904;
744.0000;0.5047;1.0069;
744.3000;0.5022;1.0022;
744.6000;0.5031;1.0022;
744.9000;0.5022;1.0116;
745.2000;0.5022;1.0163;
745.5000;0.5014;1.0116;
745.8000;0.5031;1.0163;
746.1000;0.5006;1.0093;
746.4000;0.5031;1.0116;
746.7000;0.5031;1.0093;
747.0000;0.5006;1.0116;
747.3000;0.5014;1.0116;
747.6000;0.5022;1.0140;
747.9000;0.5031;1.0116;
748.2000;0.5022;0.9999;
748.5000;0.5006;1.0022;
748.8000;0.5014;1.0116;
749.1000;0.5014;1.0093;
749.4000;0.5006;0.9952;
749.7000;0.5055;1.0069;
750.0000;0.5022;1.0069;
750.3000;0.4990;0.9952;
750.6000;0.4998;1.0022;
750.9000;0.5006;1.0046;
751.2000;0.5014;0.9999;
751.5000;0.4982;0.9928;
751.8000;0.5006;0.9999;
752.1000;0.4998;1.0022;
752.4000;0.5006;1.0116;
752.7000;0.5022;1.0116;
753.0000;0.4990;1.0046;
753.3000;0.4974;1.0093;
753.6000;0.4974;0.9928;
753.9000;0.4982;0.9952;
754.2000;0.5014;0.9999;
754.5000;0.4982;0.9904;
754.8000;0.4998;0.9857;
755.1000;0.4974;0.9787;
755.4000;0.5022;0.9857;
755.7000;0.4974;0.9857;
756.0000;0.4990;0.9928;
756.3000;0.4933;0.9810;
756.6000;0.4990;0.9881;
756.9000;0.4998;0.9975;
757.2000;0.4957;0.9904;
757.5000;0.4982;1.0022;
757.8000;0.4974;0.9975;
758.1000;0.4884;0.9716;
758.4000;0.4990;1.0069;
758.7000;0.4941;0.9904;
759.0000;0.4982;0.9952;
759.3000;0.4957;0.9857;
759.6000;0.4982;0.9975;
759.9000;0.4990;0.9975;
760.2000;0.4982;1.0022;
760.5000;0.4957;0.9975;
760.8000;0.4974;1.0022;
761.1000;0.4965;0.9975;
761.4000;0.4982;1.0046;
761.7000;0.4949;0.9975;
762.0000;0.4965;1.0069;
762.3000;0.4949;1.0046;
762.6000;0.4990;1.0163;
762.9000;0.4941;1.0093;
763.2000;0.4949;1.0093;
763.5000;0.4949;0.9999;
763.8000;0.4941;0.9928;
764.1000;0.4957;1.0022;
764.4000;0.4917;0.9881;
764.7000;0.4965;0.9999;
765.0000;0.4949;0.9881;
765.3000;0.4957;0.9904;
765.6000;0.4982;0.9952;
765.9000;0.4957;0.9928;
766.2000;0.4982;0.9999;
766.5000;0.4949;0.9952;
766.8000;0.4949;1.0046;
767.1000;0.4982;1.0140;
767.4000;0.4941;0.9999;
767.7000;0.4957;1.0093;
768.0000;0.4917;1.0046;
768.3000;0.4925;1.0069;
768.6000;0.4941;1.0069;
768.9000;0.4933;0.9999;
769.2000;0.4908;0.9975;
769.5000;0.4941;1.0046;
769.8000;0.4957;0.9975;
770.1000;0.4990;1.0069;
770.4000;0.4933;1.0022;
770.7000;0.4941;1.0093;
771.0000;0.4917;1.0046;
771.3000;0.4941;1.0046;
771.6000;0.4957;1.0116;
771.9000;0.4941;1.0069;
772.2000;0.4908;1.0069;
772.5000;0.4925;0.9999;
772.8000;0.4933;1.0069;
773.1000;0.4925;1.0046;
773.4000;0.4933;1.0022;
773.7000;0.4941;1.0022;
774.0000;0.4908;0.9999;
774.3000;0.4908;1.0046;
774.6000;0.5039;1.0328;
774.9000;0.4965;1.0116;
775.2000;0.4933;0.9952;
775.5000;0.4884;0.9763;
775.8000;0.4982;1.0046;
776.1000;0.4908;0.9928;
776.4000;0.4941;1.0022;
776.7000;0.4949;1.0046;
777.0000;0.4933;1.0022;
777.3000;0.4925;1.0022;
777.6000;0.4860;0.9810;
777.9000;0.4917;0.9904;
778.2000;0.4908;0.9928;
778.5000;0.4884;0.9834;
778.8000;0.4900;0.9787;
779.1000;0.4917;0.9810;
779.4000;0.4925;0.9904;
779.7000;0.4900;0.9904;
780.0000;0.4917;0.9928;
780.3000;0.4925;0.9952;
780.6000;0.4908;0.9952;
780.9000;0.4908;0.9999;
781.2000;0.4917;1.0069;
781.5000;0.4900;1.0093;
781.8000;0.4908;0.9999;
782.1000;0.4908;0.9975;
782.4000;0.4900;0.9952;
782.7000;0.4908;0.9999;
783.0000;0.4892;0.9975;
783.3000;0.4892;1.0046;
783.6000;0.4892;1.0116;
783.9000;0.4917;1.0116;
784.2000;0.4892;0.9975;
784.5000;0.4900;0.9928;
784.8000;0.4900;0.9904;
785.1000;0.4884;0.9810;
785.4000;0.4941;0.9952;
785.7000;0.4892;0.9881;
786.0000;0.4900;0.9881;
786.3000;0.4908;0.9834;
786.6000;0.4917;0.9857;
786.9000;0.4917;0.9810;
787.2000;0.4925;0.9810;
787.5000;0.4925;0.9740;
787.8000;0.4900;0.9646;
788.1000;0.4900;0.9669;
788.4000;0.4900;0.9763;
788.7000;0.4908;0.9810;
789.0000;0.4917;0.9834;
789.3000;0.4933;0.9975;
789.6000;0.4876;0.9857;
789.9000;0.4900;0.9857;
790.2000;0.4908;0.9952;
790.5000;0.4843;0.9763;
790.8000;0.4876;0.9999;
791.1000;0.4908;1.0046;
791.4000;0.4860;0.9904;
791.7000;0.4925;0.9999;
792.0000;0.4860;0.9787;
792.3000;0.4868;0.9740;
792.6000;0.4908;0.9787;
792.9000;0.4900;0.9740;
793.2000;0.4860;0.9716;
793.5000;0.4982;0.9975;
793.8000;0.4884;0.9787;
794.1000;0.4941;0.9904;
794.4000;0.4892;0.9857;
794.7000;0.4900;0.9857;
795.0000;0.4827;0.9716;
795.3000;0.4884;0.9810;
795.6000;0.4908;0.9787;
795.9000;0.4876;0.9716;
796.2000;0.4884;0.9716;
796.5000;0.4860;0.9716;
796.8000;0.4868;0.9740;
797.1000;0.4949;0.9904;
797.4000;0.4884;0.9716;
797.7000;0.4860;0.9740;
798.0000;0.4941;0.9928;
798.3000;0.4884;0.9810;
798.6000;0.4876;0.9787;
798.9000;0.4851;0.9716;
799.2000;0.4884;0.9763;
799.5000;0.4876;0.9810;
799.8000;0.4876;0.9834;
800.1000;0.4892;0.9904;
800.4000;0.4892;0.9928;
800.7000;0.4892;0.9928;
801.0000;0.4868;0.9881;
801.3000;0.4868;0.9952;
801.6000;0.4860;0.9952;
801.9000;0.4884;1.0093;
802.2000;0.4860;0.9999;
802.5000;0.4860;0.9928;
802.8000;0.4884;0.9975;
803.1000;0.4851;0.9975;
803.4000;0.4851;0.9952;
803.7000;0.4860;0.9952;
804.0000;0.4860;0.9952;
804.3000;0.4868;0.9952;
804.6000;0.4860;0.9904;
804.9000;0.4860;0.9904;
805.2000;0.4868;0.9881;
805.5000;0.4884;0.9928;
805.8000;0.4851;0.9904;
806.1000;0.4860;0.9928;
806.4000;0.4884;0.9952;
806.7000;0.4860;0.9928;
807.0000;0.4876;0.9881;
807.3000;0.4843;0.9810;
807.6000;0.4851;0.9740;
807.9000;0.4860;0.9834;
808.2000;0.4876;0.9881;
808.5000;0.4868;0.9881;
808.8000;0.4835;0.9787;
809.1000;0.4851;0.9787;
809.4000;0.4835;0.9857;
809.7000;0.4851;0.9975;
810.0000;0.4860;0.9881;
810.3000;0.4843;0.9904;
810.6000;0.4851;0.9999;
810.9000;0.4843;1.0022;
811.2000;0.4843;0.9999;
811.5000;0.4843;0.9975;
811.8000;0.4843;0.9952;
812.1000;0.4868;1.0046;
812.4000;0.4827;0.9881;
812.7000;0.4851;0.9999;
813.0000;0.4794;0.9904;
813.3000;0.4786;0.9857;
813.6000;0.4819;1.0093;
813.9000;0.4835;1.0022;
814.2000;0.4819;0.9928;
814.5000;0.4713;0.9575;
814.8000;0.4835;0.9857;
815.1000;0.4827;0.9881;
815.4000;0.4811;0.9928;
815.7000;0.4827;1.0046;
816.0000;0.4843;1.0140;
816.3000;0.4851;1.0234;
816.6000;0.4827;1.0140;
816.9000;0.4835;1.0069;
817.2000;0.4835;1.0116;
817.5000;0.4827;0.9975;
817.8000;0.4811;0.9928;
818.1000;0.4835;1.0022;
818.4000;0.4819;0.9999;
818.7000;0.4835;0.9952;
819.0000;0.4851;0.9952;
819.3000;0.4819;0.9881;
819.6000;0.4851;0.9952;
819.9000;0.4827;0.9999;
820.2000;0.4835;1.0046;
820.5000;0.4827;1.0163;
820.8000;0.4794;1.0046;
821.1000;0.4827;1.0163;
821.4000;0.4811;1.0163;
821.7000;0.4827;1.0210;
822.0000;0.4827;1.0093;
822.3000;0.4835;1.0210;
822.6000;0.4851;1.0234;
822.9000;0.4827;1.0140;
823.2000;0.4827;1.0163;
823.5000;0.4827;1.0046;
823.8000;0.4827;1.0022;
824.1000;0.4917;1.0210;
824.4000;0.4827;0.9999;
824.7000;0.4925;1.0187;
825.0000;0.4835;0.9975;
825.3000;0.4794;1.0046;
825.6000;0.4811;1.0069;
825.9000;0.4803;0.9975;
826.2000;0.4819;0.9928;
826.5000;0.4819;0.9928;
826.8000;0.4803;1.0022;
827.1000;0.4868;1.0187;
827.4000;0.4819;1.0093;
827.7000;0.4819;0.9952;
828.0000;0.4819;0.9834;
828.3000;0.4892;0.9999;
828.6000;0.4835;0.9881;
828.9000;0.4843;0.9881;
829.2000;0.4803;0.9787;
829.5000;0.4803;0.9787;
829.8000;0.4835;0.9857;
830.1000;0.4811;0.9763;
830.4000;0.4794;0.9669;
830.7000;0.4754;0.9528;
831.0000;0.4819;0.9599;
831.3000;0.4811;0.9669;
831.6000;0.4811;0.9740;
831.9000;0.4827;0.9904;
832.2000;0.4851;0.9952;
832.5000;0.4770;0.9834;
832.8000;0.4778;0.9904;
833.1000;0.4778;0.9834;
833.4000;0.4819;0.9881;
833.7000;0.4827;0.9975;
834.0000;0.4860;1.0140;
834.3000;0.4794;0.9999;
834.6000;0.4794;1.0116;
834.9000;0.4794;1.0093;
835.2000;0.4819;1.0116;
835.5000;0.4786;1.0022;
835.8000;0.4786;1.0116;
836.1000;0.4811;1.0187;
836.4000;0.4819;1.0187;
836.7000;0.4794;0.9999;
837.0000;0.4786;0.9952;
837.3000;0.4786;0.9952;
837.6000;0.4811;0.9928;
837.9000;0.4770;0.9834;
838.2000;0.4786;0.9952;
838.5000;0.4811;1.0022;
838.8000;0.4843;1.0069;
839.1000;0.4851;1.0022;
839.4000;0.4803;0.9975;
839.7000;0.4786;0.9904;
840.0000;0.4786;0.9881;
840.3000;0.4786;0.9857;
840.6000;0.4778;0.9904;
840.9000;0.4794;0.9952;
841.2000;0.4803;1.0022;
841.5000;0.4794;1.0046;
841.8000;0.4819;1.0210;
842.1000;0.4803;1.0140;
842.4000;0.4803;1.0046;
842.7000;0.4811;1.0093;
843.0000;0.4803;1.0069;
843.3000;0.4811;1.0069;
843.6000;0.4803;1.0093;
843.9000;0.4811;1.0116;
844.2000;0.4803;1.0140;
844.5000;0.4794;1.0163;
844.8000;0.4786;1.0187;
845.1000;0.4803;1.0210;
845.4000;0.4803;1.0257;
845.7000;0.4778;1.0163;
846.0000;0.4803;1.0163;
846.3000;0.4778;1.0187;
846.6000;0.4786;1.0234;
846.9000;0.4754;1.0140;
847.2000;0.4770;1.0163;
847.5000;0.4778;1.0093;
847.8000;0.4811;1.0140;
848.1000;0.4778;1.0093;
848.4000;0.4778;1.0069;
848.7000;0.4778;1.0116;
849.0000;0.4794;1.0093;
849.3000;0.4770;1.0046;
849.6000;0.4803;1.0210;
849.9000;0.4754;1.0116;
850.2000;0.4811;1.0257;
850.5000;0.4786;1.0234;
850.8000;0.4778;1.0163;
851.1000;0.4778;1.0116;
851.4000;0.4819;1.0234;
851.7000;0.4778;1.0116;
852.0000;0.4803;1.0069;
852.3000;0.4754;0.9999;
852.6000;0.4754;1.0022;
852.9000;0.4778;1.0163;
853.2000;0.4778;1.0116;
853.5000;0.4754;1.0116;
853.8000;0.4713;0.9999;
854.1000;0.4770;1.0093;
854.4000;0.4754;1.0116;
854.7000;0.4770;1.0116;
855.0000;0.4786;1.0069;
855.3000;0.4746;1.0069;
855.6000;0.4778;1.0163;
855.9000;0.4770;1.0046;
856.2000;0.4778;0.9975;
856.5000;0.4721;0.9810;
856.8000;0.4778;0.9928;
857.1000;0.4770;0.9952;
857.4000;0.4770;1.0022;
857.7000;0.4762;1.0022;
858.0000;0.4794;1.0093;
858.3000;0.4754;0.9975;
858.6000;0.4746;0.9999;
858.9000;0.4746;1.0022;
859.2000;0.4778;1.0210;
859.5000;0.4746;1.0187;
859.8000;0.4746;1.0304;
860.1000;0.4737;1.0234;
860.4000;0.4754;1.0163;
860.7000;0.4819;1.0257;
861.0000;0.4746;1.0140;
861.3000;0.4705;0.9975;
861.6000;0.4754;1.0022;
861.9000;0.4746;0.9928;
862.2000;0.4786;0.9952;
862.5000;0.4754;0.9928;
862.8000;0.4754;0.9881;
863.1000;0.4737;0.9857;
863.4000;0.4778;1.0046;
863.7000;0.4754;1.0022;
864.0000;0.4746;1.0046;
864.3000;0.4819;1.0257;
864.6000;0.4762;1.0116;
864.9000;0.4778;1.0046;
865.2000;0.4729;0.9999;
865.5000;0.4737;1.0069;
865.8000;0.4803;1.0163;
866.1000;0.4737;1.0046;
866.4000;0.4770;1.0163;
866.7000;0.4762;1.0163;
867.0000;0.4762;1.0210;
867.3000;0.4770;1.0187;
867.6000;0.4794;1.0234;
867.9000;0.4786;1.0187;
868.2000;0.4754;1.0187;
868.5000;0.4754;1.0257;
868.8000;0.4746;1.0234;
869.1000;0.4729;1.0187;
869.4000;0.4803;1.0493;
869.7000;0.4762;1.0399;
870.0000;0.4754;1.0328;
870.3000;0.4754;1.0281;
870.6000;0.4819;1.0422;
870.9000;0.4794;1.0375;
871.2000;0.4746;1.0210;
871.5000;0.4729;1.0116;
871.8000;0.4737;1.0163;
872.1000;0.4737;1.0116;
872.4000;0.4746;1.0187;
872.7000;0.4664;1.0069;
873.0000;0.4762;1.0304;
873.3000;0.4746;1.0257;
873.6000;0.4737;1.0210;
873.9000;0.4737;1.0140;
874.2000;0.4705;1.0046;
874.5000;0.4754;1.0210;
874.8000;0.4746;1.0187;
875.1000;0.4746;1.0093;
875.4000;0.4737;1.0069;
875.7000;0.4746;1.0069;
876.0000;0.4794;1.0234;
876.3000;0.4746;1.0163;
876.6000;0.4762;1.0187;
876.9000;0.4746;1.0140;
877.2000;0.4746;1.0069;
877.5000;0.4746;1.0022;
877.8000;0.4713;0.9999;
878.1000;0.4721;1.0022;
878.4000;0.4746;1.0069;
878.7000;0.4754;1.0022;
879.0000;0.4754;0.9952;
879.3000;0.4737;0.9904;
879.6000;0.4713;0.9881;
879.9000;0.4762;0.9999;
880.2000;0.4737;0.9952;
880.5000;0.4729;0.9999;
880.8000;0.4737;0.9928;
881.1000;0.4762;1.0093;
881.4000;0.4746;1.0093;
881.7000;0.4746;1.0140;
882.0000;0.4729;1.0234;
882.3000;0.4754;1.0163;
882.6000;0.4713;1.0069;
882.9000;0.4746;0.9975;
883.2000;0.4713;0.9928;
883.5000;0.4794;1.0116;
883.8000;0.4729;1.0022;
884.1000;0.4737;1.0069;
884.4000;0.4729;1.0116;
884.7000;0.4746;1.0140;
885.0000;0.4811;1.0328;
885.3000;0.4794;1.0351;
885.6000;0.4786;1.0375;
885.9000;0.4729;1.0210;
886.2000;0.4721;1.0093;
886.5000;0.4746;1.0116;
886.8000;0.4721;1.0187;
887.1000;0.4746;1.0234;
887.4000;0.4721;1.0163;
887.7000;0.4729;1.0163;
888.0000;0.4681;0.9999;
888.3000;0.4705;1.0093;
888.6000;0.4721;1.0187;
888.9000;0.4746;1.0210;
889.2000;0.4729;1.0069;
889.5000;0.4729;1.0022;
889.8000;0.4746;1.0046;
890.1000;0.4737;1.0093;
890.4000;0.4689;0.9975;
890.7000;0.4737;1.0069;
891.0000;0.4737;1.0093;
891.3000;0.4721;1.0069;
891.6000;0.4794;1.0210;
891.9000;0.4746;1.0069;
892.2000;0.4721;1.0116;
892.5000;0.4705;1.0046;
892.8000;0.4689;0.9952;
893.1000;0.4713;0.9999;
893.4000;0.4689;0.9952;
893.7000;0.4729;1.0093;
894.0000;0.4729;1.0187;
894.3000;0.4737;1.0163;
894.6000;0.4721;1.0140;
894.9000;0.4737;1.0163;
895.2000;0.4827;1.0304;
895.5000;0.4762;1.0093;
895.8000;0.4754;0.9999;
896.1000;0.4713;0.9952;
896.4000;0.4705;0.9857;
896.7000;0.4721;0.9881;
897.0000;0.4713;0.9975;
897.3000;0.4713;0.9975;
897.6000;0.4721;0.9975;
897.9000;0.4721;0.9928;
898.2000;0.4672;0.9810;
898.5000;0.4721;0.9999;
898.8000;0.4721;0.9999;
899.1000;0.4729;1.0069;
899.4000;0.4721;1.0022;
899.7000;0.4689;0.9904;
900.0000;0.4697;0.9952;
900.3000;0.4737;1.0046;
900.6000;0.4729;0.9999;
900.9000;0.4705;1.0022;
901.2000;0.4729;1.0046;
901.5000;0.4746;1.0022;
901.8000;0.4754;1.0069;
902.1000;0.4721;1.0046;
902.4000;0.4713;0.9999;
902.7000;0.4721;1.0116;
903.0000;0.4697;1.0116;
903.3000;0.4713;1.0069;
903.6000;0.4697;0.9952;
903.9000;0.4705;0.9999;
904.2000;0.4713;0.9952;
904.5000;0.4746;1.0022;
904.8000;0.4729;0.9999;
905.1000;0.4713;1.0046;
905.4000;0.4737;1.0022;
905.7000;0.4746;1.0069;
906.0000;0.4721;1.0046;
906.3000;0.4689;0.9975;
906.6000;0.4664;0.9904;
906.9000;0.4713;1.0069;
907.2000;0.4713;1.0116;
907.5000;0.4681;1.0046;
907.8000;0.4803;1.0328;
908.1000;0.4697;1.0093;
908.4000;0.4737;1.0069;
908.7000;0.4697;0.9999;
909.0000;0.4672;0.9952;
909.3000;0.4729;1.0116;
909.6000;0.4713;1.0163;
909.9000;0.4705;1.0116;
910.2000;0.4713;1.0140;
910.5000;0.4713;1.0093;
910.8000;0.4729;1.0187;
911.1000;0.4697;1.0093;
911.4000;0.4697;1.0257;
911.7000;0.4705;1.0281;
912.0000;0.4713;1.0187;
912.3000;0.4713;1.0116;
912.6000;0.4713;1.0116;
912.9000;0.4713;1.0116;
913.2000;0.4721;1.0046;
913.5000;0.4705;1.0069;
913.8000;0.4713;1.0093;
914.1000;0.4689;1.0116;
914.4000;0.4721;1.0210;
914.7000;0.4713;1.0140;
915.0000;0.4705;1.0069;
915.3000;0.4713;1.0116;
915.6000;0.4713;1.0116;
915.9000;0.4729;1.0163;
916.2000;0.4737;1.0210;
916.5000;0.4713;1.0163;
916.8000;0.4737;1.0140;
917.1000;0.4689;0.9999;
917.4000;0.4697;0.9999;
917.7000;0.4721;1.0022;
918.0000;0.4721;1.0022;
918.3000;0.4697;0.9952;
918.6000;0.4705;1.0022;
918.9000;0.4705;1.0022;
919.2000;0.4640;0.9857;
919.5000;0.4689;1.0069;
919.8000;0.4681;1.0140;
920.1000;0.4681;1.0140;
920.4000;0.4713;1.0234;
920.7000;0.4729;1.0281;
921.0000;0.4705;1.0234;
921.3000;0.4681;1.0163;
921.6000;0.4697;1.0116;
921.9000;0.4705;1.0093;
922.2000;0.4664;0.9975;
922.5000;0.4705;1.0187;
922.8000;0.4705;1.0140;
923.1000;0.4697;1.0093;
923.4000;0.4681;1.0069;
923.7000;0.4729;1.0163;
924.0000;0.4713;1.0116;
924.3000;0.4697;1.0069;
924.6000;0.4713;1.0069;
924.9000;0.4681;1.0046;
925.2000;0.4689;1.0093;
925.5000;0.4713;1.0093;
925.8000;0.4697;1.0022;
926.1000;0.4721;1.0163;
926.4000;0.4656;1.0093;
926.7000;0.4721;1.0281;
927.0000;0.4721;1.0304;
927.3000;0.4689;1.0187;
927.6000;0.4721;1.0210;
927.9000;0.4729;1.0304;
928.2000;0.4697;1.0234;
928.5000;0.4721;1.0234;
928.8000;0.4697;1.0116;
929.1000;0.4681;0.9999;
929.4000;0.4713;1.0140;
929.7000;0.4697;1.0187;
930.0000;0.4754;1.0304;
930.3000;0.4754;1.0257;
930.6000;0.4737;1.0140;
930.9000;0.4705;1.0069;
931.2000;0.4705;1.0093;
931.5000;0.4689;1.0163;
931.8000;0.4697;1.0187;
932.1000;0.4672;1.0140;
932.4000;0.4721;1.0328;
932.7000;0.4689;1.0093;
933.0000;0.4632;0.9904;
933.3000;0.4721;1.0116;
933.6000;0.4681;0.9975;
933.9000;0.4697;1.0046;
934.2000;0.4778;1.0140;
934.5000;0.4689;0.9952;
934.8000;0.4697;0.9904;
935.1000;0.4689;0.9952;
935.4000;0.4689;0.9928;
935.7000;0.4672;0.9881;
936.0000;0.4697;0.9952;
936.3000;0.4705;1.0046;
936.6000;0.4689;1.0093;
936.9000;0.4689;1.0022;
937.2000;0.4689;0.9952;
937.5000;0.4705;0.9999;
937.8000;0.4697;1.0046;
938.1000;0.4705;1.0093;
938.4000;0.4705;0.9999;
938.7000;0.4689;0.9904;
939.0000;0.4681;0.9904;
939.3000;0.4697;0.9928;
939.6000;0.4689;0.9857;
939.9000;0.4697;0.9881;
940.2000;0.4770;1.0069;
940.5000;0.4762;1.0140;
940.8000;0.4689;0.9928;
941.1000;0.4697;0.9952;
941.4000;0.4664;0.9881;
941.7000;0.4713;0.9952;
942.0000;0.4713;0.9975;
942.3000;0.4656;0.9740;
942.6000;0.4697;1.0022;
942.9000;0.4656;0.9904;
943.2000;0.4664;0.9881;
943.5000;0.4697;0.9857;
943.8000;0.4697;0.9881;
944.1000;0.4689;0.9881;
944.4000;0.4681;0.9952;
944.7000;0.4697;0.9975;
945.0000;0.4697;0.9975;
945.3000;0.4681;1.0022;
945.6000;0.4681;0.9999;
945.9000;0.4705;1.0069;
946.2000;0.4754;1.0281;
946.5000;0.4697;1.0069;
946.8000;0.4697;0.9975;
947.1000;0.4689;0.9904;
947.4000;0.4681;0.9952;
947.7000;0.4697;0.9975;
948.0000;0.4689;1.0046;
948.3000;0.4681;1.0093;
948.6000;0.4681;1.0046;
948.9000;0.4689;1.0140;
949.2000;0.4754;1.0281;
949.5000;0.4689;1.0116;
949.8000;0.4689;1.0116;
950.1000;0.4689;1.0163;
950.4000;0.4689;1.0210;
950.7000;0.4681;1.0163;
951.0000;0.4664;1.0140;
951.3000;0.4689;1.0163;
951.6000;0.4672;1.0069;
951.9000;0.4681;1.0069;
952.2000;0.4672;1.0046;
952.5000;0.4664;1.0069;
952.8000;0.4681;1.0069;
953.1000;0.4689;1.0140;
953.4000;0.4681;1.0116;
953.7000;0.4681;1.0116;
954.0000;0.4648;0.9999;
954.3000;0.4672;1.0093;
954.6000;0.4599;0.9881;
954.9000;0.4648;0.9952;
955.2000;0.4689;0.9975;
955.5000;0.4672;0.9975;
955.8000;0.4624;0.9787;
956.1000;0.4681;0.9928;
956.4000;0.4681;0.9928;
956.7000;0.4672;0.9857;
957.0000;0.4656;0.9952;
957.3000;0.4681;1.0022;
957.6000;0.4681;0.9952;
957.9000;0.4591;0.9763;
958.2000;0.4689;0.9999;
958.5000;0.4681;1.0022;
958.8000;0.4656;0.9975;
959.1000;0.4672;1.0022;
959.4000;0.4705;1.0093;
959.7000;0.4632;0.9881;
960.0000;0.4681;0.9975;
960.3000;0.4664;0.9952;
960.6000;0.4681;1.0022;
960.9000;0.4672;1.0116;
961.2000;0.4664;1.0140;
961.5000;0.4737;1.0328;
961.8000;0.4648;1.0116;
962.1000;0.4689;1.0257;
962.4000;0.4681;1.0210;
962.7000;0.4664;1.0187;
963.0000;0.4672;1.0163;
963.3000;0.4664;1.0187;
963.6000;0.4681;1.0210;
963.9000;0.4681;1.0187;
964.2000;0.4689;1.0257;
964.5000;0.4681;1.0163;
964.8000;0.4672;1.0116;
965.1000;0.4672;1.0069;
965.4000;0.4681;1.0210;
965.7000;0.4681;1.0187;
966.0000;0.4656;1.0069;
966.3000;0.4664;1.0069;
966.6000;0.4672;1.0140;
966.9000;0.4681;1.0187;
967.2000;0.4689;1.0187;
967.5000;0.4664;1.0116;
967.8000;0.4672;1.0257;
968.1000;0.4681;1.0328;
968.4000;0.4689;1.0375;
968.7000;0.4672;1.0281;
969.0000;0.4697;1.0304;
969.3000;0.4672;1.0257;
969.6000;0.4640;1.0163;
969.9000;0.4664;1.0116;
970.2000;0.4672;1.0140;
970.5000;0.4672;1.0163;
970.8000;0.4713;1.0304;
971.1000;0.4672;1.0187;
971.4000;0.4632;1.0022;
971.7000;0.4640;0.9999;
972.0000;0.4664;0.9999;
972.3000;0.4672;1.0046;
972.6000;0.4615;0.9904;
972.9000;0.4672;1.0116;
973.2000;0.4689;1.0140;
973.5000;0.4681;1.0093;
973.8000;0.4648;0.9999;
974.1000;0.4681;1.0022;
974.4000;0.4689;1.0022;
974.7000;0.4737;1.0210;
975.0000;0.4599;0.9857;
975.3000;0.4664;1.0022;
975.6000;0.4672;1.0022;
975.9000;0.4681;0.9999;
976.2000;0.4656;0.9881;
976.5000;0.4656;0.9857;
976.8000;0.4624;0.9693;
977.1000;0.4672;0.9881;
977.4000;0.4664;0.9857;
977.7000;0.4729;1.0046;
978.0000;0.4770;1.0234;
978.3000;0.4664;0.9904;
978.6000;0.4672;0.9881;
978.9000;0.4632;0.9787;
979.2000;0.4713;1.0093;
979.5000;0.4672;1.0022;
979.8000;0.4656;0.9904;
980.1000;0.4672;0.9904;
980.4000;0.4689;0.9928;
980.7000;0.4672;1.0022;
981.0000;0.4664;1.0022;
981.3000;0.4664;0.9975;
981.6000;0.4681;1.0046;
981.9000;0.4648;1.0046;
982.2000;0.4681;1.0069;
982.5000;0.4689;1.0069;
982.8000;0.4713;1.0116;
983.1000;0.4681;1.0022;
983.4000;0.4681;1.0116;
983.7000;0.4672;1.0093;
984.0000;0.4672;1.0163;
984.3000;0.4672;1.0140;
984.6000;0.4681;1.0116;
984.9000;0.4689;1.0093;
985.2000;0.4672;0.9999;
985.5000;0.4664;0.9975;
985.8000;0.4615;0.9881;
986.1000;0.4689;1.0163;
986.4000;0.4648;1.0069;
986.7000;0.4648;1.0116;
987.0000;0.4664;1.0140;
987.3000;0.4681;1.0116;
987.6000;0.4664;1.0022;
987.9000;0.4672;0.9999;
988.2000;0.4640;0.9881;
988.5000;0.4689;0.9975;
988.8000;0.4672;0.9928;
989.1000;0.4672;0.9904;
989.4000;0.4640;0.9928;
989.7000;0.4672;0.9975;
990.0000;0.4672;0.9975;
990.3000;0.4656;1.0046;
990.6000;0.4713;1.0210;
990.9000;0.4640;1.0093;
991.2000;0.4640;1.0069;
991.5000;0.4656;1.0187;
991.8000;0.4705;1.0422;
992.1000;0.4640;1.0257;
992.4000;0.4648;1.0163;
992.7000;0.4632;1.0069;
993.0000;0.4656;1.0093;
993.3000;0.4640;1.0046;
993.6000;0.4591;0.9904;
993.9000;0.4681;1.0046;
994.2000;0.4664;1.0022;
994.5000;0.4681;1.0046;
994.8000;0.4689;1.0046;
995.1000;0.4664;1.0022;
995.4000;0.4664;1.0022;
995.7000;0.4664;1.0022;
996.0000;0.4656;0.9999;
996.3000;0.4640;1.0046;
996.6000;0.4697;1.0140;
996.9000;0.4656;0.9928;
997.2000;0.4672;0.9928;
997.5000;0.4664;0.9928;
997.8000;0.4656;1.0022;
998.1000;0.4664;0.9952;
998.4000;0.4656;0.9928;
998.7000;0.4681;1.0046;
999.0000;0.4664;1.0093;
999.3000;0.4681;1.0093;
999.6000;0.4664;1.0093;
999.9000;0.4648;0.9999;
1000.2000;0.4664;1.0069;
1000.5000;0.4697;1.0116;
1000.8000;0.4648;0.9975;
1001.1000;0.4664;0.9975;
1001.4000;0.4664;0.9952;
1001.7000;0.4648;0.9999;
1002.0000;0.4558;0.9881;
1002.3000;0.4656;1.0187;
1002.6000;0.4656;1.0234;
1002.9000;0.4648;1.0163;
1003.2000;0.4599;1.0116;
1003.5000;0.4656;1.0140;
1003.8000;0.4664;1.0069;
1004.1000;0.4648;1.0046;
1004.4000;0.4640;0.9928;
1004.7000;0.4632;0.9881;
1005.0000;0.4664;1.0046;
1005.3000;0.4681;1.0069;
1005.6000;0.4672;1.0093;
1005.9000;0.4681;0.9999;
1006.2000;0.4656;0.9928;
1006.5000;0.4664;1.0046;
1006.8000;0.4672;1.0069;
1007.1000;0.4648;1.0069;
1007.4000;0.4648;1.0069;
1007.7000;0.4672;1.0046;
1008.0000;0.4624;0.9999;
1008.3000;0.4648;1.0069;
1008.6000;0.4640;1.0140;
1008.9000;0.4672;1.0187;
1009.2000;0.4664;1.0210;
1009.5000;0.4656;1.0187;
1009.8000;0.4664;1.0187;
1010.1000;0.4656;1.0187;
1010.4000;0.4672;1.0234;
1010.7000;0.4656;1.0163;
1011.0000;0.4664;1.0140;
1011.3000;0.4664;1.0234;
1011.6000;0.4640;1.0234;
1011.9000;0.4632;1.0328;
1012.2000;0.4648;1.0399;
1012.5000;0.4640;1.0375;
1012.8000;0.4689;1.0493;
1013.1000;0.4615;1.0234;
1013.4000;0.4648;1.0234;
1013.7000;0.4656;1.0234;
1014.0000;0.4648;1.0234;
1014.3000;0.4648;1.0187;
1014.6000;0.4624;1.0116;
1014.9000;0.4664;1.0140;
1015.2000;0.4713;1.0281;
1015.5000;0.4656;1.0140;
1015.8000;0.4607;1.0093;
1016.1000;0.4648;1.0187;
1016.4000;0.4648;1.0069;
1016.7000;0.4640;1.0116;
1017.0000;0.4648;1.0140;
1017.3000;0.4656;1.0140;
1017.6000;0.4648;1.0022;
1017.9000;0.4640;0.9999;
1018.2000;0.4664;1.0046;
1018.5000;0.4648;1.0069;
1018.8000;0.4648;1.0022;
1019.1000;0.4656;1.0116;
1019.4000;0.4672;1.0140;
1019.7000;0.4689;1.0140;
1020.0000;0.4640;1.0022;
1020.3000;0.4640;0.9999;
1020.6000;0.4656;0.9975;
1020.9000;0.4656;0.9952;
1021.2000;0.4640;0.9975;
1021.5000;0.4632;0.9975;
1021.8000;0.4648;1.0022;
1022.1000;0.4648;1.0046;
1022.4000;0.4615;0.9952;
1022.7000;0.4624;0.9999;
1023.0000;0.4648;1.0022;
1023.3000;0.4632;1.0022;
1023.6000;0.4632;1.0069;
1023.9000;0.4615;1.0210;
1024.2000;0.4624;1.0234;
1024.5000;0.4640;1.0304;
1024.8000;0.4656;1.0351;
1025.1000;0.4648;1.0375;
1025.4000;0.4632;1.0328;
1025.7000;0.4640;1.0281;
1026.0000;0.4648;1.0257;
1026.3000;0.4648;1.0281;
1026.6000;0.4640;1.0257;
1026.9000;0.4656;1.0257;
1027.2000;0.4648;1.0281;
1027.5000;0.4648;1.0304;
1027.8000;0.4656;1.0304;
1028.1000;0.4624;1.0187;
1028.4000;0.4591;1.0163;
1028.7000;0.4640;1.0328;
1029.0000;0.4632;1.0351;
1029.3000;0.4632;1.0328;
1029.6000;0.4624;1.0328;
1029.9000;0.4640;1.0257;
1030.2000;0.4648;1.0281;
1030.5000;0.4632;1.0281;
1030.8000;0.4648;1.0304;
1031.1000;0.4640;1.0257;
1031.4000;0.4656;1.0281;
1031.7000;0.4648;1.0210;
1032.0000;0.4640;1.0046;
1032.3000;0.4664;1.0116;
1032.6000;0.4656;1.0093;
1032.9000;0.4648;1.0022;
1033.2000;0.4664;1.0069;
1033.5000;0.4648;1.0046;
1033.8000;0.4648;1.0069;
1034.1000;0.4664;1.0116;
1034.4000;0.4656;1.0116;
1034.7000;0.4672;1.0163;
1035.0000;0.4648;1.0116;
1035.3000;0.4591;1.0046;
1035.6000;0.4656;1.0304;
1035.9000;0.4648;1.0163;
1036.2000;0.4689;1.0257;
1036.5000;0.4648;1.0210;
1036.8000;0.4640;1.0187;
1037.1000;0.4640;1.0116;
1037.4000;0.4640;1.0069;
1037.7000;0.4648;0.9975;
1038.0000;0.4648;1.0022;
1038.3000;0.4558;0.9904;
1038.6000;0.4681;1.0281;
1038.9000;0.4640;1.0163;
1039.2000;0.4575;1.0116;
1039.5000;0.4648;1.0210;
1039.8000;0.4656;1.0187;
1040.1000;0.4656;1.0093;
1040.4000;0.4607;0.9928;
1040.7000;0.4648;1.0046;
1041.0000;0.4672;1.0257;
1041.3000;0.4648;1.0234;
1041.6000;0.4656;1.0140;
1041.9000;0.4656;1.0093;
1042.2000;0.4656;1.0163;
1042.5000;0.4664;1.0093;
1042.8000;0.4664;1.0234;
1043.1000;0.4648;1.0257;
1043.4000;0.4656;1.0210;
1043.7000;0.4648;1.0163;
1044.0000;0.4681;1.0257;
1044.3000;0.4558;0.9928;
1044.6000;0.4640;1.0140;
1044.9000;0.4656;1.0210;
1045.2000;0.4632;1.0116;
1045.5000;0.4632;1.0116;
1045.8000;0.4632;1.0140;
1046.1000;0.4615;1.0163;
1046.4000;0.4640;1.0163;
1046.7000;0.4640;1.0163;
1047.0000;0.4632;1.0234;
1047.3000;0.4640;1.0304;
1047.6000;0.4648;1.0351;
1047.9000;0.4648;1.0257;
1048.2000;0.4632;1.0140;
1048.5000;0.4591;1.0046;
1048.8000;0.4640;1.0187;
1049.1000;0.4526;0.9904;
1049.4000;0.4648;1.0304;
1049.7000;0.4632;1.0234;
1050.0000;0.4632;1.0234;
1050.3000;0.4632;1.0210;
1050.6000;0.4632;1.0210;
1050.9000;0.4575;1.0046;
1051.2000;0.4632;1.0234;
1051.5000;0.4640;1.0234;
1051.8000;0.4632;1.0257;
1052.1000;0.4632;1.0281;
1052.4000;0.4648;1.0257;
1052.7000;0.4656;1.0304;
1053.0000;0.4640;1.0281;
1053.3000;0.4656;1.0328;
1053.6000;0.4640;1.0328;
1053.9000;0.4648;1.0328;
1054.2000;0.4632;1.0187;
1054.5000;0.4624;1.0187;
1054.8000;0.4615;1.0093;
1055.1000;0.4615;1.0093;
1055.4000;0.4624;1.0234;
1055.7000;0.4632;1.0234;
1056.0000;0.4632;1.0210;
1056.3000;0.4664;1.0234;
1056.6000;0.4640;1.0187;
1056.9000;0.4648;1.0210;
1057.2000;0.4632;1.0163;
1057.5000;0.4664;1.0140;
1057.8000;0.4640;1.0163;
1058.1000;0.4591;1.0069;
1058.4000;0.4615;1.0046;
1058.7000;0.4632;1.0069;
1059.0000;0.4656;1.0069;
1059.3000;0.4713;1.0234;
1059.6000;0.4632;1.0046;
1059.9000;0.4624;1.0046;
1060.2000;0.4648;1.0140;
1060.5000;0.4632;1.0140;
1060.8000;0.4624;1.0093;
1061.1000;0.4591;1.0093;
1061.4000;0.4632;1.0187;
1061.7000;0.4632;1.0234;
1062.0000;0.4632;1.0304;
1062.3000;0.4599;1.0140;
1062.6000;0.4624;1.0281;
1062.9000;0.4656;1.0281;
1063.2000;0.4697;1.0304;
1063.5000;0.4648;1.0187;
1063.8000;0.4632;1.0281;
1064.1000;0.4640;1.0328;
1064.4000;0.4624;1.0281;
1064.7000;0.4648;1.0422;
1065.0000;0.4632;1.0399;
1065.3000;0.4624;1.0304;
1065.6000;0.4656;1.0304;
1065.9000;0.4632;1.0234;
1066.2000;0.4624;1.0187;
1066.5000;0.4632;1.0140;
1066.8000;0.4656;1.0234;
1067.1000;0.4624;1.0234;
1067.4000;0.4640;1.0281;
1067.7000;0.4624;1.0210;
1068.0000;0.4648;1.0210;
1068.3000;0.4705;1.0328;
1068.6000;0.4632;1.0022;
1068.9000;0.4567;0.9810;
1069.2000;0.4632;0.9975;
1069.5000;0.4632;1.0046;
1069.8000;0.4624;0.9999;
1070.1000;0.4689;1.0187;
1070.4000;0.4640;1.0093;
1070.7000;0.4607;0.9999;
1071.0000;0.4624;1.0046;
1071.3000;0.4615;1.0022;
1071.6000;0.4648;1.0046;
1071.9000;0.4664;1.0022;
1072.2000;0.4672;1.0116;
1072.5000;0.4615;1.0046;
1072.8000;0.4648;1.0022;
1073.1000;0.4648;1.0046;
1073.4000;0.4648;1.0069;
1073.7000;0.4648;1.0046;
1074.0000;0.4640;1.0093;
1074.3000;0.4632;1.0140;
1074.6000;0.4656;1.0163;
1074.9000;0.4640;1.0046;
1075.2000;0.4632;0.9975;
1075.5000;0.4648;0.9904;
1075.8000;0.4599;0.9810;
1076.1000;0.4632;0.9928;
1076.4000;0.4615;0.9834;
1076.7000;0.4607;0.9763;
1077.0000;0.4624;0.9881;
1077.3000;0.4640;0.9857;
1077.6000;0.4640;0.9834;
1077.9000;0.4632;0.9787;
1078.2000;0.4648;0.9881;
1078.5000;0.4656;0.9975;
1078.8000;0.4648;0.9999;
1079.1000;0.4656;0.9999;
1079.4000;0.4648;1.0093;
1079.7000;0.4656;1.0163;
1080.0000;0.4632;1.0163;
1080.3000;0.4656;1.0210;
1080.6000;0.4624;1.0140;
1080.9000;0.4640;1.0234;
1081.2000;0.4583;1.0163;
1081.5000;0.4640;1.0257;
1081.8000;0.4632;1.0234;
1082.1000;0.4648;1.0234;
1082.4000;0.4632;1.0163;
1082.7000;0.4648;1.0163;
1083.0000;0.4615;1.0116;
1083.3000;0.4640;1.0140;
1083.6000;0.4624;1.0140;
1083.9000;0.4624;1.0069;
1084.2000;0.4640;1.0069;
1084.5000;0.4648;0.9975;
1084.8000;0.4632;0.9904;
1085.1000;0.4697;1.0163;
1085.4000;0.4664;1.0093;
1085.7000;0.4632;1.0022;
1086.0000;0.4640;1.0093;
1086.3000;0.4632;1.0046;
1086.6000;0.4591;0.9928;
1086.9000;0.4615;1.0022;
1087.2000;0.4648;1.0140;
1087.5000;0.4632;1.0140;
1087.8000;0.4640;1.0140;
1088.1000;0.4648;1.0140;
1088.4000;0.4632;1.0187;
1088.7000;0.4615;1.0116;
1089.0000;0.4640;1.0140;
1089.3000;0.4632;1.0069;
1089.6000;0.4624;1.0093;
1089.9000;0.4632;1.0069;
1090.2000;0.4640;0.9952;
1090.5000;0.4640;0.9810;
1090.8000;0.4632;0.9763;
1091.1000;0.4632;0.9716;
1091.4000;0.4624;0.9787;
1091.7000;0.4640;0.9881;
1092.0000;0.4640;0.9834;
1092.3000;0.4624;0.9810;
1092.6000;0.4615;0.9881;
1092.9000;0.4632;0.9904;
1093.2000;0.4624;0.9834;
1093.5000;0.4615;0.9857;
1093.8000;0.4681;0.9928;
1094.1000;0.4615;0.9857;
1094.4000;0.4632;0.9904;
1094.7000;0.4697;1.0210;
1095.0000;0.4615;0.9999;
1095.3000;0.4632;1.0116;
1095.6000;0.4550;0.9881;
1095.9000;0.4624;0.9999;
1096.2000;0.4632;1.0069;
1096.5000;0.4607;1.0069;
1096.8000;0.4632;1.0163;
1097.1000;0.4624;1.0163;
1097.4000;0.4615;1.0140;
1097.7000;0.4615;1.0116;
1098.0000;0.4599;0.9881;
1098.3000;0.4615;0.9881;
1098.6000;0.4624;0.9904;
1098.9000;0.4624;0.9975;
1099.2000;0.4640;1.0046;
1099.5000;0.4624;0.9999;
1099.8000;0.4640;1.0022;
1100.1000;0.4640;0.9975;
1100.4000;0.4624;0.9999;
1100.7000;0.4615;0.9999;
1101.0000;0.4640;1.0093;
1101.3000;0.4624;1.0116;
1101.6000;0.4640;1.0046;
1101.9000;0.4640;0.9999;
1102.2000;0.4632;1.0046;
1102.5000;0.4615;0.9857;
1102.8000;0.4615;0.9834;
1103.1000;0.4607;0.9857;
1103.4000;0.4632;0.9928;
1103.7000;0.4632;0.9952;
1104.0000;0.4656;0.9975;
1104.3000;0.4632;1.0022;
1104.6000;0.4640;0.9975;
1104.9000;0.4640;0.9975;
1105.2000;0.4607;0.9999;
1105.5000;0.4640;1.0093;
1105.8000;0.4664;1.0163;
1106.1000;0.4615;0.9975;
1106.4000;0.4648;0.9999;
1106.7000;0.4624;0.9952;
1107.0000;0.4607;0.9904;
1107.3000;0.4558;0.9810;
1107.6000;0.4624;1.0069;
1107.9000;0.4624;1.0069;
1108.2000;0.4624;1.0116;
1108.5000;0.4615;1.0093;
1108.8000;0.4632;1.0116;
1109.1000;0.4624;1.0140;
1109.4000;0.4624;1.0069;
1109.7000;0.4640;1.0046;
1110.0000;0.4624;1.0116;
1110.3000;0.4624;1.0116;
1110.6000;0.4640;1.0046;
1110.9000;0.4591;0.9952;
1111.2000;0.4599;0.9904;
1111.5000;0.4672;1.0187;
1111.8000;0.4615;1.0093;
1112.1000;0.4632;1.0093;
1112.4000;0.4648;1.0046;
1112.7000;0.4615;1.0022;
1113.0000;0.4648;1.0210;
1113.3000;0.4615;1.0140;
1113.6000;0.4615;1.0093;
1113.9000;0.4615;1.0046;
1114.2000;0.4648;1.0140;
1114.5000;0.4640;1.0093;
1114.8000;0.4624;0.9999;
1115.1000;0.4624;0.9975;
1115.4000;0.4607;0.9928;
1115.7000;0.4632;1.0046;
1116.0000;0.4518;0.9881;
1116.3000;0.4624;1.0140;
1116.6000;0.4672;1.0257;
1116.9000;0.4632;1.0187;
1117.2000;0.4624;1.0187;
1117.5000;0.4624;1.0140;
1117.8000;0.4624;1.0116;
1118.1000;0.4648;1.0257;
1118.4000;0.4526;0.9881;
1118.7000;0.4632;1.0140;
1119.0000;0.4640;1.0140;
1119.3000;0.4591;1.0022;
1119.6000;0.4615;1.0022;
1119.9000;0.4640;0.9999;
1120.2000;0.4632;0.9952;
1120.5000;0.4672;1.0069;
1120.8000;0.4624;0.9904;
1121.1000;0.4640;1.0022;
1121.4000;0.4615;1.0046;
1121.7000;0.4615;0.9975;
1122.0000;0.4632;0.9999;
1122.3000;0.4615;0.9904;
1122.6000;0.4624;0.9928;
1122.9000;0.4615;0.9904;
1123.2000;0.4607;0.9904;
1123.5000;0.4615;0.9999;
1123.8000;0.4624;1.0022;
1124.1000;0.4624;1.0069;
1124.4000;0.4615;0.9952;
1124.7000;0.4624;0.9952;
1125.0000;0.4591;0.9904;
1125.3000;0.4624;0.9928;
1125.6000;0.4624;0.9999;
1125.9000;0.4615;0.9928;
1126.2000;0.4624;0.9952;
1126.5000;0.4624;0.9975;
1126.8000;0.4607;0.9928;
1127.1000;0.4615;0.9763;
1127.4000;0.4607;0.9716;
1127.7000;0.4526;0.9505;
1128.0000;0.4607;0.9716;
1128.3000;0.4648;0.9857;
1128.6000;0.4599;0.9810;
1128.9000;0.4615;0.9763;
1129.2000;0.4656;0.9952;
1129.5000;0.4615;0.9904;
1129.8000;0.4624;0.9952;
1130.1000;0.4640;0.9952;
1130.4000;0.4656;0.9999;
1130.7000;0.4624;0.9810;
1131.0000;0.4624;0.9881;
1131.3000;0.4632;0.9952;
1131.6000;0.4615;0.9787;
1131.9000;0.4640;0.9763;
1132.2000;0.4607;0.9622;
1132.5000;0.4591;0.9646;
1132.8000;0.4615;0.9763;
1133.1000;0.4624;0.9834;
1133.4000;0.4583;0.9834;
1133.7000;0.4615;0.9952;
1134.0000;0.4607;0.9857;
1134.3000;0.4607;0.9857;
1134.6000;0.4518;0.9575;
1134.9000;0.4607;0.9857;
1135.2000;0.4599;0.9928;
1135.5000;0.4632;0.9999;
1135.8000;0.4632;0.9999;
1136.1000;0.4632;1.0046;
1136.4000;0.4656;1.0140;
1136.7000;0.4632;1.0069;
1137.0000;0.4615;1.0163;
1137.3000;0.4648;1.0234;
1137.6000;0.4607;1.0022;
1137.9000;0.4624;1.0046;
1138.2000;0.4632;1.0093;
1138.5000;0.4599;0.9999;
1138.8000;0.4615;1.0069;
1139.1000;0.4624;1.0093;
1139.4000;0.4607;1.0022;
1139.7000;0.4607;0.9975;
1140.0000;0.4575;0.9904;
1140.3000;0.4615;1.0093;
1140.6000;0.4632;1.0234;
1140.9000;0.4632;1.0304;
1141.2000;0.4640;1.0351;
1141.5000;0.4615;1.0234;
1141.8000;0.4599;1.0163;
1142.1000;0.4567;1.0093;
1142.4000;0.4591;1.0140;
1142.7000;0.4615;1.0046;
1143.0000;0.4607;1.0069;
1143.3000;0.4648;1.0234;
1143.6000;0.4607;1.0187;
1143.9000;0.4599;1.0163;
1144.2000;0.4640;1.0281;
1144.5000;0.4615;1.0328;
1144.8000;0.4624;1.0351;
1145.1000;0.4615;1.0351;
1145.4000;0.4624;1.0399;
1145.7000;0.4656;1.0493;
1146.0000;0.4624;1.0351;
1146.3000;0.4624;1.0328;
1146.6000;0.4632;1.0399;
1146.9000;0.4607;1.0351;
1147.2000;0.4615;1.0375;
1147.5000;0.4615;1.0281;
1147.8000;0.4632;1.0234;
1148.1000;0.4615;1.0281;
1148.4000;0.4640;1.0422;
1148.7000;0.4607;1.0257;
1149.0000;0.4632;1.0210;
1149.3000;0.4591;1.0140;
1149.6000;0.4632;1.0304;
1149.9000;0.4624;1.0375;
1150.2000;0.4615;1.0304;
1150.5000;0.4591;1.0257;
1150.8000;0.4615;1.0210;
1151.1000;0.4624;1.0210;
1151.4000;0.4615;1.0163;
1151.7000;0.4615;1.0163;
1152.0000;0.4624;1.0140;
1152.3000;0.4567;0.9999;
1152.6000;0.4632;1.0093;
1152.9000;0.4624;1.0069;
1153.2000;0.4607;1.0116;
1153.5000;0.4607;1.0140;
1153.8000;0.4607;1.0093;
1154.1000;0.4615;1.0069;
1154.4000;0.4599;1.0116;
1154.7000;0.4615;1.0257;
1155.0000;0.4624;1.0234;
1155.3000;0.4607;1.0163;
1155.6000;0.4607;1.0163;
1155.9000;0.4624;1.0140;
1156.2000;0.4624;1.0093;
1156.5000;0.4624;1.0163;
1156.8000;0.4607;1.0069;
1157.1000;0.4615;1.0093;
1157.4000;0.4656;1.0234;
1157.7000;0.4615;1.0163;
1158.0000;0.4607;1.0022;
1158.3000;0.4599;1.0069;
1158.6000;0.4615;1.0093;
1158.9000;0.4624;1.0163;
1159.2000;0.4607;1.0116;
1159.5000;0.4624;1.0140;
1159.8000;0.4624;1.0140;
1160.1000;0.4624;1.0093;
1160.4000;0.4567;0.9952;
1160.7000;0.4615;0.9975;
1161.0000;0.4607;0.9952;
1161.3000;0.4632;0.9999;
1161.6000;0.4632;1.0093;
1161.9000;0.4624;1.0069;
1162.2000;0.4624;1.0069;
1162.5000;0.4615;1.0046;
1162.8000;0.4607;0.9975;
1163.1000;0.4599;1.0046;
1163.4000;0.4607;1.0069;
1163.7000;0.4599;1.0069;
1164.0000;0.4599;1.0069;
1164.3000;0.4615;1.0140;
1164.6000;0.4591;1.0116;
1164.9000;0.4624;1.0210;
1165.2000;0.4624;1.0234;
1165.5000;0.4567;1.0093;
1165.8000;0.4615;1.0257;
1166.1000;0.4599;1.0281;
1166.4000;0.4615;1.0328;
1166.7000;0.4599;1.0163;
1167.0000;0.4624;1.0210;
1167.3000;0.4624;1.0210;
1167.6000;0.4615;1.0257;
1167.9000;0.4615;1.0210;
1168.2000;0.4583;1.0116;
1168.5000;0.4599;1.0140;
1168.8000;0.4624;1.0234;
1169.1000;0.4624;1.0210;
1169.4000;0.4607;1.0163;
1169.7000;0.4575;0.9999;
1170.0000;0.4607;1.0140;
1170.3000;0.4583;1.0140;
1170.6000;0.4567;1.0093;
1170.9000;0.4615;1.0257;
1171.2000;0.4607;1.0210;
1171.5000;0.4640;1.0234;
1171.8000;0.4632;1.0210;
1172.1000;0.4615;1.0187;
1172.4000;0.4624;1.0257;
1172.7000;0.4624;1.0257;
1173.0000;0.4624;1.0210;
1173.3000;0.4632;1.0163;
1173.6000;0.4632;1.0046;
1173.9000;0.4607;0.9975;
1174.2000;0.4632;1.0116;
1174.5000;0.4624;1.0140;
1174.8000;0.4583;1.0046;
1175.1000;0.4632;1.0116;
1175.4000;0.4615;1.0046;
1175.7000;0.4607;1.0069;
1176.0000;0.4640;1.0140;
1176.3000;0.4615;1.0093;
1176.6000;0.4607;1.0116;
1176.9000;0.4615;1.0116;
1177.2000;0.4607;1.0116;
1177.5000;0.4550;0.9928;
1177.8000;0.4615;1.0069;
1178.1000;0.4591;1.0140;
1178.4000;0.4607;1.0234;
1178.7000;0.4583;1.0069;
1179.0000;0.4599;1.0116;
1179.3000;0.4591;1.0140;
1179.6000;0.4624;1.0210;
1179.9000;0.4607;1.0163;
1180.2000;0.4615;1.0187;
1180.5000;0.4615;1.0187;
1180.8000;0.4607;1.0187;
1181.1000;0.4591;1.0210;
1181.4000;0.4689;1.0446;
1181.7000;0.4656;1.0351;
1182.0000;0.4615;1.0281;
1182.3000;0.4689;1.0399;
1182.6000;0.4624;1.0257;
1182.9000;0.4599;1.0187;
1183.2000;0.4615;1.0140;
1183.5000;0.4607;1.0140;
1183.8000;0.4607;1.0163;
1184.1000;0.4591;1.0163;
1184.4000;0.4615;1.0234;
1184.7000;0.4542;1.0140;
1185.0000;0.4591;1.0281;
1185.3000;0.4615;1.0281;
1185.6000;0.4607;1.0257;
1185.9000;0.4607;1.0281;
1186.2000;0.4615;1.0375;
1186.5000;0.4607;1.0446;
1186.8000;0.4607;1.0469;
1187.1000;0.4615;1.0446;
1187.4000;0.4624;1.0422;
1187.7000;0.4591;1.0257;
1188.0000;0.4615;1.0257;
1188.3000;0.4624;1.0304;
1188.6000;0.4624;1.0304;
1188.9000;0.4615;1.0281;
1189.2000;0.4632;1.0281;
1189.5000;0.4615;1.0234;
1189.8000;0.4599;1.0257;
1190.1000;0.4526;1.0093;
1190.4000;0.4624;1.0210;
1190.7000;0.4624;1.0234;
1191.0000;0.4599;1.0187;
1191.3000;0.4599;1.0187;
1191.6000;0.4575;1.0163;
1191.9000;0.4607;1.0210;
1192.2000;0.4640;1.0375;
1192.5000;0.4615;1.0328;
1192.8000;0.4624;1.0281;
1193.1000;0.4615;1.0234;
1193.4000;0.4615;1.0234;
1193.7000;0.4640;1.0281;
1194.0000;0.4591;1.0234;
1194.3000;0.4607;1.0375;
1194.6000;0.4591;1.0328;
1194.9000;0.4624;1.0469;
1195.2000;0.4615;1.0446;
1195.5000;0.4615;1.0351;
1195.8000;0.4558;1.0304;
1196.1000;0.4615;1.0422;
1196.4000;0.4575;1.0328;
1196.7000;0.4591;1.0304;
1197.0000;0.4583;1.0304;
1197.3000;0.4607;1.0399;
1197.6000;0.4615;1.0422;
1197.9000;0.4567;1.0281;
1198.2000;0.4599;1.0304;
1198.5000;0.4624;1.0375;
1198.8000;0.4575;1.0328;
1199.1000;0.4575;1.0351;
1199.4000;0.4607;1.0422;
1199.7000;0.4591;1.0351;
1200.0000;0.4607;1.0304;
1200.3000;0.4599;1.0281;
1200.6000;0.4591;1.0281;
1200.9000;0.4607;1.0351;
1201.2000;0.4607;1.0328;
1201.5000;0.4640;1.0399;
1201.8000;0.4615;1.0257;
1202.1000;0.4615;1.0304;
1202.4000;0.4624;1.0351;
1202.7000;0.4615;1.0328;
1203.0000;0.4599;1.0351;
1203.3000;0.4583;1.0304;
1203.6000;0.4607;1.0375;
1203.9000;0.4607;1.0304;
1204.2000;0.4599;1.0140;
1204.5000;0.4591;0.9999;
1204.8000;0.4591;0.9928;
1205.1000;0.4624;0.9928;
1205.4000;0.4624;0.9928;
1205.7000;0.4607;0.9952;
1206.0000;0.4607;0.9952;
1206.3000;0.4721;1.0304;
1206.6000;0.4591;0.9952;
1206.9000;0.4615;1.0069;
1207.2000;0.4607;1.0116;
1207.5000;0.4615;1.0210;
1207.8000;0.4632;1.0446;
1208.1000;0.4607;1.0446;
1208.4000;0.4640;1.0375;
1208.7000;0.4599;1.0163;
1209.0000;0.4591;1.0304;
1209.3000;0.4640;1.0328;
1209.6000;0.4607;1.0351;
1209.9000;0.4607;1.0446;
1210.2000;0.4624;1.0493;
1210.5000;0.4615;1.0422;
1210.8000;0.4591;1.0351;
1211.1000;0.4607;1.0304;
1211.4000;0.4583;1.0210;
1211.7000;0.4599;1.0116;
1212.0000;0.4591;1.0116;
1212.3000;0.4599;1.0163;
1212.6000;0.4591;1.0116;
1212.9000;0.4648;1.0281;
1213.2000;0.4542;1.0046;
1213.5000;0.4591;1.0210;
1213.8000;0.4599;1.0257;
1214.1000;0.4689;1.0446;
1214.4000;0.4607;1.0163;
1214.7000;0.4615;1.0187;
1215.0000;0.4615;1.0163;
1215.3000;0.4615;1.0187;
1215.6000;0.4632;1.0234;
1215.9000;0.4567;1.0116;
1216.2000;0.4599;1.0069;
1216.5000;0.4632;1.0093;
1216.8000;0.4558;0.9952;
1217.1000;0.4607;1.0069;
1217.4000;0.4624;1.0140;
1217.7000;0.4648;1.0187;
1218.0000;0.4632;1.0187;
1218.3000;0.4640;1.0163;
1218.6000;0.4615;1.0140;
1218.9000;0.4599;1.0069;
1219.2000;0.4615;1.0069;
1219.5000;0.4599;0.9975;
1219.8000;0.4534;0.9928;
1220.1000;0.4607;1.0116;
1220.4000;0.4599;1.0116;
1220.7000;0.4583;1.0116;
1221.0000;0.4672;1.0257;
1221.3000;0.4607;1.0046;
1221.6000;0.4624;1.0093;
1221.9000;0.4591;1.0116;
1222.2000;0.4591;1.0163;
1222.5000;0.4567;1.0116;
1222.8000;0.4542;1.0069;
1223.1000;0.4599;1.0187;
1223.4000;0.4607;1.0140;
1223.7000;0.4599;1.0163;
1224.0000;0.4599;1.0093;
1224.3000;0.4599;1.0187;
1224.6000;0.4624;1.0163;
1224.9000;0.4607;1.0093;
1225.2000;0.4615;1.0163;
1225.5000;0.4599;1.0210;
1225.8000;0.4607;1.0210;
1226.1000;0.4615;1.0187;
1226.4000;0.4542;0.9952;
1226.7000;0.4607;1.0140;
1227.0000;0.4607;0.9999;
1227.3000;0.4599;0.9928;
1227.6000;0.4599;0.9810;
1227.9000;0.4591;0.9763;
1228.2000;0.4583;0.9763;
1228.5000;0.4591;0.9881;
1228.8000;0.4583;0.9928;
1229.1000;0.4607;0.9999;
1229.4000;0.4583;0.9881;
1229.7000;0.4599;0.9904;
1230.0000;0.4615;0.9881;
1230.3000;0.4615;0.9881;
1230.6000;0.4599;0.9834;
1230.9000;0.4624;0.9857;
1231.2000;0.4599;0.9810;
1231.5000;0.4615;0.9904;
1231.8000;0.4632;0.9904;
1232.1000;0.4607;0.9904;
1232.4000;0.4615;0.9881;
1232.7000;0.4591;0.9975;
1233.0000;0.4615;1.0116;
1233.3000;0.4656;1.0210;
1233.6000;0.4713;1.0328;
1233.9000;0.4615;1.0046;
1234.2000;0.4591;0.9928;
1234.5000;0.4575;0.9857;
1234.8000;0.4607;0.9904;
1235.1000;0.4607;0.9952;
1235.4000;0.4583;0.9928;
1235.7000;0.4591;1.0093;
1236.0000;0.4599;1.0069;
1236.3000;0.4599;1.0069;
1236.6000;0.4607;1.0069;
1236.9000;0.4591;0.9999;
1237.2000;0.4607;1.0069;
1237.5000;0.4575;1.0093;
1237.8000;0.4591;1.0163;
1238.1000;0.4599;1.0163;
1238.4000;0.4607;1.0163;
1238.7000;0.4607;1.0140;
1239.0000;0.4591;1.0046;
1239.3000;0.4599;1.0022;
1239.6000;0.4632;1.0187;
1239.9000;0.4624;1.0163;
1240.2000;0.4575;1.0116;
1240.5000;0.4664;1.0257;
1240.8000;0.4599;1.0163;
1241.1000;0.4624;1.0163;
1241.4000;0.4615;1.0210;
1241.7000;0.4640;1.0257;
1242.0000;0.4591;1.0187;
1242.3000;0.4607;1.0351;
1242.6000;0.4607;1.0304;
1242.9000;0.4607;1.0281;
1243.2000;0.4632;1.0422;
1243.5000;0.4599;1.0399;
1243.8000;0.4624;1.0446;
1244.1000;0.4648;1.0493;
1244.4000;0.4599;1.0399;
1244.7000;0.4615;1.0422;
1245.0000;0.4615;1.0351;
1245.3000;0.4575;1.0210;
1245.6000;0.4607;1.0187;
1245.9000;0.4607;1.0187;
1246.2000;0.4607;1.0140;
1246.5000;0.4591;1.0046;
1246.8000;0.4599;1.0093;
1247.1000;0.4599;1.0116;
1247.4000;0.4591;1.0116;
1247.7000;0.4567;1.0093;
1248.0000;0.4599;1.0187;
1248.3000;0.4607;1.0234;
1248.6000;0.4656;1.0375;
1248.9000;0.4624;1.0234;
1249.2000;0.4624;1.0210;
1249.5000;0.4615;1.0163;
1249.8000;0.4624;1.0281;
1250.1000;0.4615;1.0234;
1250.4000;0.4615;1.0187;
1250.7000;0.4615;1.0116;
1251.0000;0.4624;1.0116;
1251.3000;0.4558;1.0046;
1251.6000;0.4599;1.0140;
1251.9000;0.4591;1.0163;
1252.2000;0.4599;1.0187;
1252.5000;0.4599;1.0257;
1252.8000;0.4575;1.0304;
1253.1000;0.4591;1.0422;
1253.4000;0.4607;1.0422;
1253.7000;0.4624;1.0469;
1254.0000;0.4599;1.0375;
1254.3000;0.4615;1.0257;
1254.6000;0.4599;1.0140;
1254.9000;0.4632;1.0140;
1255.2000;0.4591;1.0046;
1255.5000;0.4615;1.0022;
1255.8000;0.4615;1.0022;
1256.1000;0.4615;1.0022;
1256.4000;0.4599;0.9952;
1256.7000;0.4599;1.0022;
1257.0000;0.4583;1.0046;
1257.3000;0.4599;1.0116;
1257.6000;0.4599;1.0069;
1257.9000;0.4591;0.9975;
1258.2000;0.4591;0.9952;
1258.5000;0.4599;0.9999;
1258.8000;0.4607;1.0022;
1259.1000;0.4591;1.0093;
1259.4000;0.4607;1.0116;
1259.7000;0.4599;1.0210;
1260.0000;0.4607;1.0304;
1260.3000;0.4632;1.0399;
1260.6000;0.4583;1.0257;
1260.9000;0.4615;1.0281;
1261.2000;0.4632;1.0351;
1261.5000;0.4591;1.0257;
1261.8000;0.4624;1.0304;
1262.1000;0.4615;1.0328;
1262.4000;0.4624;1.0399;
1262.7000;0.4607;1.0281;
1263.0000;0.4607;1.0328;
1263.3000;0.4607;1.0375;
1263.6000;0.4615;1.0375;
1263.9000;0.4607;1.0422;
1264.2000;0.4607;1.0351;
1264.5000;0.4591;1.0281;
1264.8000;0.4615;1.0187;
1265.1000;0.4615;1.0163;
1265.4000;0.4615;1.0187;
1265.7000;0.4615;1.0257;
1266.0000;0.4615;1.0234;
1266.3000;0.4591;1.0257;
1266.6000;0.4615;1.0328;
1266.9000;0.4607;1.0257;
1267.2000;0.4615;1.0304;
1267.5000;0.4591;1.0257;
1267.8000;0.4607;1.0304;
1268.1000;0.4615;1.0304;
1268.4000;0.4615;1.0304;
1268.7000;0.4615;1.0257;
1269.0000;0.4607;1.0281;
1269.3000;0.4591;1.0234;
1269.6000;0.4575;1.0281;
1269.9000;0.4599;1.0281;
1270.2000;0.4615;1.0210;
1270.5000;0.4615;1.0257;
1270.8000;0.4599;1.0163;
1271.1000;0.4575;1.0163;
1271.4000;0.4599;1.0234;
1271.7000;0.4624;1.0351;
1272.0000;0.4607;1.0399;
1272.3000;0.4591;1.0234;
1272.6000;0.4583;1.0210;
1272.9000;0.4599;1.0234;
1273.2000;0.4599;1.0234;
1273.5000;0.4542;1.0093;
1273.8000;0.4591;1.0234;
1274.1000;0.4607;1.0281;
1274.4000;0.4485;0.9999;
1274.7000;0.4583;1.0257;
1275.0000;0.4624;1.0351;
1275.3000;0.4624;1.0446;
1275.6000;0.4615;1.0304;
1275.9000;0.4607;1.0234;
1276.2000;0.4607;1.0234;
1276.5000;0.4607;1.0140;
1276.8000;0.4615;1.0140;
1277.1000;0.4599;1.0140;
1277.4000;0.4607;1.0210;
1277.7000;0.4591;1.0163;
1278.0000;0.4615;1.0210;
1278.3000;0.4624;1.0163;
1278.6000;0.4591;1.0116;
1278.9000;0.4607;1.0163;
1279.2000;0.4599;1.0187;
1279.5000;0.4607;1.0140;
1279.8000;0.4607;1.0093;
1280.1000;0.4607;1.0093;
1280.4000;0.4599;1.0163;
1280.7000;0.4599;1.0281;
1281.0000;0.4599;1.0234;
1281.3000;0.4583;1.0210;
1281.6000;0.4607;1.0187;
1281.9000;0.4591;1.0140;
1282.2000;0.4526;0.9857;
1282.5000;0.4558;1.0046;
1282.8000;0.4583;1.0163;
1283.1000;0.4599;1.0116;
1283.4000;0.4607;1.0046;
1283.7000;0.4567;0.9999;
1284.0000;0.4591;1.0093;
1284.3000;0.4591;1.0163;
1284.6000;0.4599;1.0093;
1284.9000;0.4607;1.0069;
1285.2000;0.4615;1.0140;
1285.5000;0.4599;1.0093;
1285.8000;0.4615;1.0116;
1286.1000;0.4599;1.0093;
1286.4000;0.4607;1.0046;
1286.7000;0.4615;1.0116;
1287.0000;0.4607;1.0163;
1287.3000;0.4624;1.0163;
1287.6000;0.4607;1.0163;
1287.9000;0.4615;1.0069;
1288.2000;0.4615;1.0022;
1288.5000;0.4607;0.9975;
1288.8000;0.4599;0.9952;
1289.1000;0.4615;0.9952;
1289.4000;0.4615;0.9952;
1289.7000;0.4607;0.9952;
1290.0000;0.4615;0.9904;
1290.3000;0.4624;0.9857;
1290.6000;0.4599;0.9810;
1290.9000;0.4615;0.9834;
1291.2000;0.4558;0.9646;
1291.5000;0.4591;0.9787;
1291.8000;0.4591;0.9787;
1292.1000;0.4615;0.9881;
1292.4000;0.4599;0.9904;
1292.7000;0.4599;0.9928;
1293.0000;0.4591;0.9928;
1293.3000;0.4583;0.9881;
1293.6000;0.4575;0.9857;
1293.9000;0.4575;0.9857;
1294.2000;0.4567;0.9904;
1294.5000;0.4583;0.9928;
1294.8000;0.4599;0.9999;
1295.1000;0.4648;1.0163;
1295.4000;0.4624;1.0093;
1295.7000;0.4607;1.0093;
1296.0000;0.4599;0.9952;
1296.3000;0.4575;0.9904;
1296.6000;0.4583;0.9928;
1296.9000;0.4607;1.0069;
1297.2000;0.4615;1.0093;
1297.5000;0.4542;0.9952;
1297.8000;0.4632;1.0210;
1298.1000;0.4632;1.0163;
1298.4000;0.4624;1.0116;
1298.7000;0.4599;1.0093;
1299.0000;0.4599;1.0116;
1299.3000;0.4672;1.0234;
1299.6000;0.4607;1.0022;
1299.9000;0.4599;0.9999;
1300.2000;0.4607;0.9999;
1300.5000;0.4591;0.9928;
1300.8000;0.4607;0.9999;
1301.1000;0.4615;1.0022;
1301.4000;0.4615;1.0046;
1301.7000;0.4615;1.0116;
1302.0000;0.4607;1.0140;
1302.3000;0.4607;1.0093;
1302.6000;0.4607;1.0046;
1302.9000;0.4599;1.0022;
1303.2000;0.4607;1.0069;
1303.5000;0.4599;1.0069;
1303.8000;0.4624;1.0046;
1304.1000;0.4591;1.0022;
1304.4000;0.4599;1.0022;
1304.7000;0.4510;0.9763;
1305.0000;0.4607;0.9999;
1305.3000;0.4599;0.9928;
1305.6000;0.4591;0.9904;
1305.9000;0.4607;0.9928;
1306.2000;0.4534;0.9857;
1306.5000;0.4599;1.0046;
1306.8000;0.4591;1.0022;
1307.1000;0.4615;1.0069;
1307.4000;0.4583;0.9999;
1307.7000;0.4607;1.0069;
1308.0000;0.4599;1.0116;
1308.3000;0.4599;1.0046;
1308.6000;0.4607;1.0022;
1308.9000;0.4599;1.0022;
1309.2000;0.4599;1.0093;
1309.5000;0.4591;1.0093;
1309.8000;0.4558;0.9975;
1310.1000;0.4615;1.0093;
1310.4000;0.4591;1.0069;
1310.7000;0.4542;0.9904;
1311.0000;0.4599;1.0046;
1311.3000;0.4599;1.0046;
1311.6000;0.4615;1.0093;
1311.9000;0.4615;1.0163;
1312.2000;0.4607;1.0187;
1312.5000;0.4656;1.0304;
1312.8000;0.4607;1.0140;
1313.1000;0.4591;1.0046;
1313.4000;0.4599;1.0046;
1313.7000;0.4689;1.0351;
1314.0000;0.4583;1.0046;
1314.3000;0.4575;0.9928;
1314.6000;0.4599;1.0046;
1314.9000;0.4607;1.0069;
1315.2000;0.4550;0.9999;
1315.5000;0.4583;1.0187;
1315.8000;0.4583;1.0163;
1316.1000;0.4526;1.0093;
1316.4000;0.4591;1.0281;
1316.7000;0.4615;1.0351;
1317.0000;0.4599;1.0351;
1317.3000;0.4591;1.0422;
1317.6000;0.4615;1.0351;
1317.9000;0.4607;1.0234;
1318.2000;0.4624;1.0234;
1318.5000;0.4575;1.0046;
1318.8000;0.4615;1.0210;
1319.1000;0.4615;1.0257;
1319.4000;0.4615;1.0234;
1319.7000;0.4607;1.0257;
1320.0000;0.4591;1.0140;
1320.3000;0.4607;1.0187;
1320.6000;0.4607;1.0187;
1320.9000;0.4607;1.0234;
1321.2000;0.4591;1.0163;
1321.5000;0.4632;1.0187;
1321.8000;0.4632;1.0281;
1322.1000;0.4615;1.0281;
1322.4000;0.4567;1.0187;
1322.7000;0.4607;1.0304;
1323.0000;0.4615;1.0304;
1323.3000;0.4599;1.0281;
1323.6000;0.4599;1.0281;
1323.9000;0.4624;1.0351;
1324.2000;0.4656;1.0304;
1324.5000;0.4583;1.0069;
1324.8000;0.4575;1.0069;
1325.1000;0.4599;1.0140;
1325.4000;0.4591;1.0116;
1325.7000;0.4591;1.0163;
1326.0000;0.4648;1.0375;
1326.3000;0.4591;1.0257;
1326.6000;0.4607;1.0257;
1326.9000;0.4575;1.0116;
1327.2000;0.4640;1.0328;
1327.5000;0.4591;1.0210;
1327.8000;0.4624;1.0234;
1328.1000;0.4632;1.0187;
1328.4000;0.4607;1.0069;
1328.7000;0.4615;1.0116;
1329.0000;0.4583;0.9975;
1329.3000;0.4615;1.0140;
1329.6000;0.4591;1.0046;
1329.9000;0.4624;1.0069;
1330.2000;0.4599;1.0046;
1330.5000;0.4599;1.0069;
1330.8000;0.4640;1.0257;
1331.1000;0.4624;1.0210;
1331.4000;0.4607;1.0069;
1331.7000;0.4599;1.0046;
1332.0000;0.4599;1.0022;
1332.3000;0.4615;0.9999;
1332.6000;0.4615;0.9999;
1332.9000;0.4615;1.0022;
1333.2000;0.4591;0.9881;
1333.5000;0.4599;0.9928;
1333.8000;0.4526;0.9740;
1334.1000;0.4615;0.9952;
1334.4000;0.4599;0.9999;
1334.7000;0.4624;0.9999;
1335.0000;0.4591;0.9952;
1335.3000;0.4640;1.0046;
1335.6000;0.4599;0.9928;
1335.9000;0.4558;0.9857;
1336.2000;0.4615;0.9952;
1336.5000;0.4615;0.9857;
1336.8000;0.4664;1.0093;
1337.1000;0.4615;1.0022;
1337.4000;0.4591;1.0069;
1337.7000;0.4607;1.0069;
1338.0000;0.4599;1.0069;
1338.3000;0.4615;1.0069;
1338.6000;0.4615;1.0116;
1338.9000;0.4599;1.0093;
1339.2000;0.4591;1.0093;
1339.5000;0.4615;1.0210;
1339.8000;0.4583;1.0187;
1340.1000;0.4607;1.0234;
1340.4000;0.4599;1.0163;
1340.7000;0.4615;1.0187;
1341.0000;0.4607;1.0069;
1341.3000;0.4558;1.0022;
1341.6000;0.4591;1.0046;
1341.9000;0.4607;1.0093;
1342.2000;0.4640;1.0187;
1342.5000;0.4550;0.9904;
1342.8000;0.4607;0.9999;
1343.1000;0.4656;1.0046;
1343.4000;0.4615;0.9928;
1343.7000;0.4607;0.9857;
1344.0000;0.4599;0.9787;
1344.3000;0.4648;0.9928;
1344.6000;0.4615;0.9787;
1344.9000;0.4648;0.9928;
1345.2000;0.4615;0.9787;
1345.5000;0.4607;0.9857;
1345.8000;0.4664;1.0022;
1346.1000;0.4607;0.9834;
1346.4000;0.4607;0.9810;
1346.7000;0.4624;0.9928;
1347.0000;0.4640;1.0046;
1347.3000;0.4607;0.9999;
1347.6000;0.4591;0.9928;
1347.9000;0.4607;0.9975;
1348.2000;0.4599;0.9999;
1348.5000;0.4607;1.0069;
1348.8000;0.4615;1.0069;
1349.1000;0.4575;1.0046;
1349.4000;0.4599;1.0093;
1349.7000;0.4607;1.0163;
1350.0000;0.4599;1.0140;
1350.3000;0.4575;1.0022;
1350.6000;0.4583;1.0163;
1350.9000;0.4599;1.0140;
1351.2000;0.4607;1.0163;
1351.5000;0.4583;1.0116;
1351.8000;0.4591;1.0140;
1352.1000;0.4648;1.0328;
1352.4000;0.4632;1.0281;
1352.7000;0.4599;1.0140;
1353.0000;0.4567;1.0187;
1353.3000;0.4615;1.0210;
1353.6000;0.4607;1.0163;
1353.9000;0.4591;1.0140;
1354.2000;0.4591;1.0163;
1354.5000;0.4591;1.0163;
1354.8000;0.4591;1.0210;
1355.1000;0.4599;1.0116;
1355.4000;0.4607;1.0140;
1355.7000;0.4615;1.0187;
1356.0000;0.4550;1.0140;
1356.3000;0.4575;1.0210;
1356.6000;0.4615;1.0257;
1356.9000;0.4599;1.0234;
1357.2000;0.4607;1.0257;
1357.5000;0.4640;1.0351;
1357.8000;0.4607;1.0257;
1358.1000;0.4607;1.0234;
1358.4000;0.4632;1.0234;
1358.7000;0.4607;1.0116;
1359.0000;0.4607;1.0116;
1359.3000;0.4575;1.0046;
1359.6000;0.4599;1.0116;
1359.9000;0.4615;1.0093;
1360.2000;0.4599;0.9975;
1360.5000;0.4591;0.9975;
1360.8000;0.4591;0.9975;
1361.1000;0.4591;1.0022;
1361.4000;0.4615;0.9952;
1361.7000;0.4591;0.9881;
1362.0000;0.4599;0.9928;
1362.3000;0.4615;1.0046;
1362.6000;0.4599;1.0046;
1362.9000;0.4607;0.9999;
1363.2000;0.4583;1.0046;
1363.5000;0.4583;1.0022;
1363.8000;0.4591;1.0069;
1364.1000;0.4624;1.0046;
1364.4000;0.4583;0.9952;
1364.7000;0.4591;0.9975;
1365.0000;0.4599;1.0022;
1365.3000;0.4681;1.0234;
1365.6000;0.4607;1.0022;
1365.9000;0.4632;1.0093;
1366.2000;0.4640;1.0116;
1366.5000;0.4607;1.0069;
1366.8000;0.4607;1.0163;
1367.1000;0.4599;1.0187;
1367.4000;0.4534;1.0116;
1367.7000;0.4632;1.0304;
1368.0000;0.4607;1.0234;
1368.3000;0.4656;1.0399;
1368.6000;0.4599;1.0351;
1368.9000;0.4599;1.0328;
1369.2000;0.4591;1.0281;
1369.5000;0.4607;1.0304;
1369.8000;0.4615;1.0210;
1370.1000;0.4615;1.0163;
1370.4000;0.4615;1.0116;
1370.7000;0.4607;1.0140;
1371.0000;0.4591;1.0140;
1371.3000;0.4607;1.0210;
1371.6000;0.4607;1.0163;
1371.9000;0.4591;1.0046;
1372.2000;0.4599;0.9999;
1372.5000;0.4599;1.0069;
1372.8000;0.4624;1.0187;
1373.1000;0.4607;1.0140;
1373.4000;0.4599;1.0234;
1373.7000;0.4607;1.0304;
1374.0000;0.4607;1.0281;
1374.3000;0.4607;1.0328;
1374.6000;0.4615;1.0304;
1374.9000;0.4599;1.0210;
1375.2000;0.4607;1.0210;
1375.5000;0.4591;1.0187;
1375.8000;0.4583;1.0163;
1376.1000;0.4583;1.0022;
1376.4000;0.4607;1.0069;
1376.7000;0.4583;1.0116;
1377.0000;0.4599;1.0234;
1377.3000;0.4632;1.0116;
1377.6000;0.4607;1.0093;
1377.9000;0.4632;1.0210;
1378.2000;0.4615;1.0257;
1378.5000;0.4615;1.0304;
1378.8000;0.4607;1.0234;
1379.1000;0.4615;1.0304;
1379.4000;0.4607;1.0375;
1379.7000;0.4575;1.0210;
1380.0000;0.4615;1.0234;
1380.3000;0.4599;1.0187;
1380.6000;0.4599;1.0140;
1380.9000;0.4607;1.0069;
1381.2000;0.4591;1.0046;
1381.5000;0.4591;1.0187;
1381.8000;0.4632;1.0234;
1382.1000;0.4599;1.0140;
1382.4000;0.4632;1.0234;
1382.7000;0.4607;1.0234;
1383.0000;0.4599;1.0234;
1383.3000;0.4599;1.0281;
1383.6000;0.4607;1.0328;
1383.9000;0.4599;1.0281;
1384.2000;0.4615;1.0328;
1384.5000;0.4607;1.0399;
1384.8000;0.4607;1.0399;
1385.1000;0.4607;1.0304;
1385.4000;0.4558;1.0304;
1385.7000;0.4607;1.0375;
1386.0000;0.4591;1.0375;
1386.3000;0.4550;1.0257;
1386.6000;0.4607;1.0351;
1386.9000;0.4615;1.0399;
1387.2000;0.4591;1.0328;
1387.5000;0.4542;1.0281;
1387.8000;0.4599;1.0446;
1388.1000;0.4607;1.0493;
1388.4000;0.4583;1.0469;
1388.7000;0.4591;1.0422;
1389.0000;0.4591;1.0422;
1389.3000;0.4583;1.0422;
1389.6000;0.4575;1.0375;
1389.9000;0.4558;1.0304;
1390.2000;0.4591;1.0399;
1390.5000;0.4599;1.0469;
1390.8000;0.4607;1.0446;
1391.1000;0.4591;1.0493;
1391.4000;0.4607;1.0540;
1391.7000;0.4599;1.0469;
1392.0000;0.4607;1.0351;
1392.3000;0.4599;1.0328;
1392.6000;0.4583;1.0187;
1392.9000;0.4591;1.0140;
1393.2000;0.4599;1.0140;
1393.5000;0.4591;1.0234;
1393.8000;0.4591;1.0399;
1394.1000;0.4599;1.0493;
1394.4000;0.4607;1.0610;
1394.7000;0.4615;1.0610;
1395.0000;0.4607;1.0493;
1395.3000;0.4615;1.0351;
1395.6000;0.4615;1.0257;
1395.9000;0.4599;1.0257;
1396.2000;0.4575;1.0281;
1396.5000;0.4534;1.0140;
1396.8000;0.4599;1.0257;
1397.1000;0.4607;1.0281;
1397.4000;0.4599;1.0281;
1397.7000;0.4615;1.0281;
1398.0000;0.4591;1.0257;
1398.3000;0.4624;1.0328;
1398.6000;0.4599;1.0140;
1398.9000;0.4624;1.0210;
1399.2000;0.4648;1.0304;
1399.5000;0.4632;1.0304;
1399.8000;0.4624;1.0234;
