time/ms;Fluo/V;P700 deltaI/I x10³;
-199.8000;0.6089;1.1645;
-199.5000;0.6056;1.1551;
-199.2000;0.6105;1.1763;
-198.9000;0.6089;1.1716;
-198.6000;0.6072;1.1669;
-198.3000;0.6072;1.1716;
-198.0000;0.6015;1.1504;
-197.7000;0.6081;1.1575;
-197.4000;0.6040;1.1528;
-197.1000;0.6105;1.1740;
-196.8000;0.6056;1.1740;
-196.5000;0.6056;1.1763;
-196.2000;0.6072;1.1834;
-195.9000;0.6089;1.1810;
-195.6000;0.6081;1.1692;
-195.3000;0.6072;1.1669;
-195.0000;0.6040;1.1575;
-194.7000;0.6081;1.1740;
-194.4000;0.6105;1.1740;
-194.1000;0.6064;1.1669;
-193.8000;0.6048;1.1551;
-193.5000;0.6056;1.1575;
-193.2000;0.6072;1.1551;
-192.9000;0.6081;1.1575;
-192.6000;0.6097;1.1528;
-192.3000;0.6081;1.1481;
-192.0000;0.6097;1.1622;
-191.7000;0.6072;1.1598;
-191.4000;0.6056;1.1551;
-191.1000;0.6089;1.1598;
-190.8000;0.6105;1.1575;
-190.5000;0.6089;1.1551;
-190.2000;0.6081;1.1551;
-189.9000;0.6024;1.1363;
-189.6000;0.6072;1.1504;
-189.3000;0.6081;1.1504;
-189.0000;0.6072;1.1481;
-188.7000;0.6081;1.1504;
-188.4000;0.5958;1.1222;
-188.1000;0.6089;1.1575;
-187.8000;0.6072;1.1645;
-187.5000;0.6081;1.1740;
-187.2000;0.6081;1.1716;
-186.9000;0.6072;1.1740;
-186.6000;0.6064;1.1716;
-186.3000;0.6072;1.1622;
-186.0000;0.6089;1.1575;
-185.7000;0.6056;1.1551;
-185.4000;0.6040;1.1528;
-185.1000;0.6032;1.1528;
-184.8000;0.6064;1.1622;
-184.5000;0.6056;1.1575;
-184.2000;0.6064;1.1669;
-183.9000;0.6072;1.1645;
-183.6000;0.5999;1.1434;
-183.3000;0.6081;1.1716;
-183.0000;0.6097;1.1857;
-182.7000;0.6056;1.1787;
-182.4000;0.6056;1.1763;
-182.1000;0.6032;1.1669;
-181.8000;0.6081;1.1763;
-181.5000;0.6072;1.1787;
-181.2000;0.6056;1.1740;
-180.9000;0.6081;1.1787;
-180.6000;0.6072;1.1740;
-180.3000;0.6105;1.1857;
-180.0000;0.6024;1.1645;
-179.7000;0.6040;1.1669;
-179.4000;0.5967;1.1434;
-179.1000;0.6072;1.1716;
-178.8000;0.6056;1.1787;
-178.5000;0.6072;1.1881;
-178.2000;0.6129;1.2022;
-177.9000;0.6081;1.1834;
-177.6000;0.6081;1.1740;
-177.3000;0.6040;1.1716;
-177.0000;0.6072;1.1716;
-176.7000;0.6072;1.1692;
-176.4000;0.6072;1.1622;
-176.1000;0.5950;1.1269;
-175.8000;0.6064;1.1434;
-175.5000;0.6064;1.1340;
-175.2000;0.5991;1.1245;
-174.9000;0.6097;1.1551;
-174.6000;0.6064;1.1363;
-174.3000;0.6072;1.1316;
-174.0000;0.6072;1.1340;
-173.7000;0.6089;1.1363;
-173.4000;0.6056;1.1293;
-173.1000;0.6072;1.1293;
-172.8000;0.6097;1.1293;
-172.5000;0.6105;1.1269;
-172.2000;0.6056;1.1245;
-171.9000;0.6056;1.1387;
-171.6000;0.6064;1.1434;
-171.3000;0.5983;1.1340;
-171.0000;0.6056;1.1528;
-170.7000;0.6064;1.1551;
-170.4000;0.6072;1.1551;
-170.1000;0.6007;1.1340;
-169.8000;0.6056;1.1622;
-169.5000;0.6162;1.1928;
-169.2000;0.5975;1.1575;
-168.9000;0.6064;1.1692;
-168.6000;0.6056;1.1669;
-168.3000;0.6064;1.1692;
-168.0000;0.6048;1.1692;
-167.7000;0.6081;1.1763;
-167.4000;0.6064;1.1763;
-167.1000;0.6129;1.1857;
-166.8000;0.6024;1.1645;
-166.5000;0.5991;1.1575;
-166.2000;0.6007;1.1528;
-165.9000;0.6056;1.1575;
-165.6000;0.6081;1.1669;
-165.3000;0.6072;1.1645;
-165.0000;0.6064;1.1598;
-164.7000;0.5991;1.1340;
-164.4000;0.6105;1.1622;
-164.1000;0.6040;1.1504;
-163.8000;0.6056;1.1528;
-163.5000;0.6056;1.1528;
-163.2000;0.6097;1.1598;
-162.9000;0.6056;1.1528;
-162.6000;0.6097;1.1622;
-162.3000;0.6056;1.1551;
-162.0000;0.6072;1.1669;
-161.7000;0.6072;1.1669;
-161.4000;0.6081;1.1622;
-161.1000;0.6072;1.1575;
-160.8000;0.6064;1.1504;
-160.5000;0.6081;1.1575;
-160.2000;0.6081;1.1528;
-159.9000;0.6064;1.1481;
-159.6000;0.6072;1.1481;
-159.3000;0.6089;1.1457;
-159.0000;0.6072;1.1434;
-158.7000;0.6081;1.1528;
-158.4000;0.6064;1.1575;
-158.1000;0.6089;1.1692;
-157.8000;0.6056;1.1598;
-157.5000;0.6089;1.1645;
-157.2000;0.6081;1.1528;
-156.9000;0.6097;1.1551;
-156.6000;0.6072;1.1481;
-156.3000;0.6089;1.1528;
-156.0000;0.6097;1.1528;
-155.7000;0.6072;1.1504;
-155.4000;0.6097;1.1598;
-155.1000;0.6048;1.1622;
-154.8000;0.6056;1.1669;
-154.5000;0.6064;1.1645;
-154.2000;0.6105;1.1622;
-153.9000;0.6056;1.1575;
-153.6000;0.6072;1.1598;
-153.3000;0.6064;1.1598;
-153.0000;0.6048;1.1575;
-152.7000;0.6064;1.1645;
-152.4000;0.6064;1.1669;
-152.1000;0.6081;1.1716;
-151.8000;0.6072;1.1787;
-151.5000;0.6048;1.1763;
-151.2000;0.6040;1.1787;
-150.9000;0.6072;1.1810;
-150.6000;0.6064;1.1810;
-150.3000;0.6056;1.1763;
-150.0000;0.6064;1.1551;
-149.7000;0.6064;1.1551;
-149.4000;0.6064;1.1504;
-149.1000;0.6064;1.1457;
-148.8000;0.6048;1.1434;
-148.5000;0.6064;1.1387;
-148.2000;0.6072;1.1504;
-147.9000;0.6056;1.1528;
-147.6000;0.6056;1.1504;
-147.3000;0.6089;1.1528;
-147.0000;0.6064;1.1504;
-146.7000;0.6056;1.1528;
-146.4000;0.6072;1.1528;
-146.1000;0.6072;1.1528;
-145.8000;0.6056;1.1528;
-145.5000;0.6056;1.1504;
-145.2000;0.5999;1.1363;
-144.9000;0.6040;1.1481;
-144.6000;0.6064;1.1528;
-144.3000;0.6048;1.1481;
-144.0000;0.6064;1.1481;
-143.7000;0.6048;1.1387;
-143.4000;0.6064;1.1434;
-143.1000;0.6056;1.1457;
-142.8000;0.6113;1.1622;
-142.5000;0.6081;1.1622;
-142.2000;0.6072;1.1575;
-141.9000;0.6097;1.1598;
-141.6000;0.6056;1.1551;
-141.3000;0.6064;1.1551;
-141.0000;0.6064;1.1575;
-140.7000;0.6072;1.1622;
-140.4000;0.6081;1.1598;
-140.1000;0.6040;1.1481;
-139.8000;0.6015;1.1457;
-139.5000;0.6048;1.1504;
-139.2000;0.6056;1.1528;
-138.9000;0.6048;1.1504;
-138.6000;0.5983;1.1410;
-138.3000;0.6089;1.1692;
-138.0000;0.6056;1.1622;
-137.7000;0.6064;1.1645;
-137.4000;0.6064;1.1622;
-137.1000;0.6032;1.1504;
-136.8000;0.6056;1.1575;
-136.5000;0.6072;1.1504;
-136.2000;0.6064;1.1528;
-135.9000;0.6056;1.1504;
-135.6000;0.6064;1.1551;
-135.3000;0.6105;1.1810;
-135.0000;0.6056;1.1692;
-134.7000;0.6072;1.1763;
-134.4000;0.6072;1.1740;
-134.1000;0.6072;1.1787;
-133.8000;0.6056;1.1622;
-133.5000;0.6097;1.1645;
-133.2000;0.6064;1.1575;
-132.9000;0.6048;1.1598;
-132.6000;0.6056;1.1692;
-132.3000;0.6040;1.1645;
-132.0000;0.6064;1.1645;
-131.7000;0.6081;1.1763;
-131.4000;0.6007;1.1551;
-131.1000;0.6056;1.1622;
-130.8000;0.6089;1.1669;
-130.5000;0.6064;1.1669;
-130.2000;0.6048;1.1669;
-129.9000;0.6072;1.1692;
-129.6000;0.6048;1.1551;
-129.3000;0.6048;1.1504;
-129.0000;0.6072;1.1598;
-128.7000;0.6056;1.1528;
-128.4000;0.6072;1.1457;
-128.1000;0.6105;1.1528;
-127.8000;0.6072;1.1504;
-127.5000;0.6032;1.1387;
-127.2000;0.6056;1.1457;
-126.9000;0.6072;1.1528;
-126.6000;0.6056;1.1504;
-126.3000;0.6081;1.1551;
-126.0000;0.6064;1.1622;
-125.7000;0.6048;1.1528;
-125.4000;0.6048;1.1504;
-125.1000;0.6048;1.1504;
-124.8000;0.6064;1.1622;
-124.5000;0.6056;1.1575;
-124.2000;0.6048;1.1575;
-123.9000;0.6064;1.1575;
-123.6000;0.6072;1.1551;
-123.3000;0.6048;1.1457;
-123.0000;0.6048;1.1481;
-122.7000;0.5975;1.1410;
-122.4000;0.6072;1.1669;
-122.1000;0.5983;1.1457;
-121.8000;0.6072;1.1692;
-121.5000;0.6081;1.1716;
-121.2000;0.6154;1.1951;
-120.9000;0.6064;1.1740;
-120.6000;0.6032;1.1669;
-120.3000;0.6089;1.1763;
-120.0000;0.6064;1.1763;
-119.7000;0.6056;1.1622;
-119.4000;0.6072;1.1716;
-119.1000;0.6089;1.1834;
-118.8000;0.6072;1.1740;
-118.5000;0.6089;1.1740;
-118.2000;0.6072;1.1716;
-117.9000;0.6056;1.1669;
-117.6000;0.6015;1.1645;
-117.3000;0.6056;1.1716;
-117.0000;0.6097;1.1810;
-116.7000;0.6089;1.1763;
-116.4000;0.6081;1.1763;
-116.1000;0.6072;1.1763;
-115.8000;0.6040;1.1645;
-115.5000;0.6072;1.1763;
-115.2000;0.6089;1.1810;
-114.9000;0.6064;1.1787;
-114.6000;0.6032;1.1645;
-114.3000;0.6015;1.1669;
-114.0000;0.6072;1.1810;
-113.7000;0.6056;1.1834;
-113.4000;0.6064;1.1834;
-113.1000;0.6056;1.1740;
-112.8000;0.6056;1.1740;
-112.5000;0.6129;1.1928;
-112.2000;0.6064;1.1810;
-111.9000;0.6007;1.1740;
-111.6000;0.6129;1.2069;
-111.3000;0.6081;1.1928;
-111.0000;0.6048;1.1810;
-110.7000;0.6081;1.1834;
-110.4000;0.6024;1.1716;
-110.1000;0.6056;1.1810;
-109.8000;0.6064;1.1881;
-109.5000;0.6113;1.1951;
-109.2000;0.6056;1.1645;
-108.9000;0.6064;1.1669;
-108.6000;0.6064;1.1763;
-108.3000;0.6064;1.1787;
-108.0000;0.6048;1.1622;
-107.7000;0.6064;1.1551;
-107.4000;0.6032;1.1528;
-107.1000;0.6064;1.1692;
-106.8000;0.6064;1.1692;
-106.5000;0.6081;1.1763;
-106.2000;0.6089;1.1810;
-105.9000;0.6081;1.1810;
-105.6000;0.6072;1.1740;
-105.3000;0.6056;1.1716;
-105.0000;0.6081;1.1692;
-104.7000;0.6089;1.1716;
-104.4000;0.6064;1.1622;
-104.1000;0.6056;1.1622;
-103.8000;0.6081;1.1669;
-103.5000;0.6032;1.1598;
-103.2000;0.6048;1.1622;
-102.9000;0.6064;1.1669;
-102.6000;0.6040;1.1622;
-102.3000;0.6064;1.1551;
-102.0000;0.6129;1.1692;
-101.7000;0.6048;1.1457;
-101.4000;0.6089;1.1551;
-101.1000;0.6056;1.1481;
-100.8000;0.6064;1.1551;
-100.5000;0.6081;1.1645;
-100.2000;0.6056;1.1645;
-99.9000;0.6081;1.1763;
-99.6000;0.6072;1.1834;
-99.3000;0.6040;1.1740;
-99.0000;0.5991;1.1692;
-98.7000;0.6072;1.1834;
-98.4000;0.6064;1.1763;
-98.1000;0.6081;1.1716;
-97.8000;0.6056;1.1598;
-97.5000;0.6072;1.1598;
-97.2000;0.6064;1.1622;
-96.9000;0.6032;1.1528;
-96.6000;0.6064;1.1528;
-96.3000;0.6040;1.1481;
-96.0000;0.6056;1.1551;
-95.7000;0.6056;1.1622;
-95.4000;0.6072;1.1692;
-95.1000;0.6056;1.1740;
-94.8000;0.6056;1.1740;
-94.5000;0.6056;1.1716;
-94.2000;0.6048;1.1692;
-93.9000;0.6064;1.1716;
-93.6000;0.6040;1.1692;
-93.3000;0.6072;1.1716;
-93.0000;0.6056;1.1716;
-92.7000;0.6015;1.1740;
-92.4000;0.6064;1.1904;
-92.1000;0.6056;1.1881;
-91.8000;0.6064;1.1834;
-91.5000;0.6089;1.1881;
-91.2000;0.6064;1.1904;
-90.9000;0.6072;1.1834;
-90.6000;0.6015;1.1575;
-90.3000;0.6064;1.1787;
-90.0000;0.6072;1.1857;
-89.7000;0.6072;1.1810;
-89.4000;0.6056;1.1716;
-89.1000;0.6089;1.1763;
-88.8000;0.6072;1.1740;
-88.5000;0.6056;1.1692;
-88.2000;0.6064;1.1740;
-87.9000;0.6072;1.1692;
-87.6000;0.6056;1.1740;
-87.3000;0.6064;1.1763;
-87.0000;0.6056;1.1857;
-86.7000;0.6081;1.1834;
-86.4000;0.6056;1.1740;
-86.1000;0.6040;1.1740;
-85.8000;0.6015;1.1645;
-85.5000;0.6089;1.1787;
-85.2000;0.6072;1.1740;
-84.9000;0.6056;1.1740;
-84.6000;0.6072;1.1763;
-84.3000;0.6048;1.1669;
-84.0000;0.6040;1.1692;
-83.7000;0.6064;1.1740;
-83.4000;0.6064;1.1763;
-83.1000;0.6072;1.1740;
-82.8000;0.6072;1.1834;
-82.5000;0.6064;1.1716;
-82.2000;0.6064;1.1645;
-81.9000;0.6056;1.1598;
-81.6000;0.6072;1.1692;
-81.3000;0.6056;1.1787;
-81.0000;0.6032;1.1740;
-80.7000;0.6072;1.1857;
-80.4000;0.6056;1.1857;
-80.1000;0.6089;1.1928;
-79.8000;0.6072;1.1904;
-79.5000;0.6081;1.1928;
-79.2000;0.6064;1.1928;
-78.9000;0.6089;1.2069;
-78.6000;0.6089;1.2092;
-78.3000;0.6113;1.1951;
-78.0000;0.6081;1.1881;
-77.7000;0.6064;1.1834;
-77.4000;0.6064;1.1810;
-77.1000;0.6064;1.1834;
-76.8000;0.6064;1.1810;
-76.5000;0.6072;1.1763;
-76.2000;0.6081;1.1857;
-75.9000;0.6024;1.1763;
-75.6000;0.6056;1.1810;
-75.3000;0.6072;1.1763;
-75.0000;0.6081;1.1787;
-74.7000;0.6064;1.1763;
-74.4000;0.6072;1.1834;
-74.1000;0.6040;1.1904;
-73.8000;0.6024;1.1881;
-73.5000;0.6146;1.2139;
-73.2000;0.6064;1.2045;
-72.9000;0.6081;1.1951;
-72.6000;0.6081;1.1928;
-72.3000;0.6048;1.1834;
-72.0000;0.6081;1.1928;
-71.7000;0.6072;1.1904;
-71.4000;0.6072;1.1904;
-71.1000;0.6048;1.1904;
-70.8000;0.6064;1.1881;
-70.5000;0.6056;1.1834;
-70.2000;0.6064;1.1881;
-69.9000;0.6032;1.1810;
-69.6000;0.6048;1.1904;
-69.3000;0.6072;1.1998;
-69.0000;0.6089;1.2257;
-68.7000;0.6056;1.2116;
-68.4000;0.6064;1.2139;
-68.1000;0.6056;1.2045;
-67.8000;0.6064;1.2092;
-67.5000;0.6105;1.2139;
-67.2000;0.6089;1.2116;
-66.9000;0.6015;1.2022;
-66.6000;0.6064;1.2116;
-66.3000;0.6072;1.2022;
-66.0000;0.6056;1.1975;
-65.7000;0.6064;1.1928;
-65.4000;0.6072;1.1998;
-65.1000;0.6064;1.1951;
-64.8000;0.6064;1.1881;
-64.5000;0.6064;1.1834;
-64.2000;0.6105;1.2022;
-63.9000;0.6064;1.1834;
-63.6000;0.6072;1.1904;
-63.3000;0.6072;1.2022;
-63.0000;0.6081;1.2045;
-62.7000;0.6064;1.1998;
-62.4000;0.6056;1.1928;
-62.1000;0.6056;1.1834;
-61.8000;0.6064;1.1881;
-61.5000;0.6113;1.2045;
-61.2000;0.6056;1.1975;
-60.9000;0.6056;1.2022;
-60.6000;0.6064;1.2022;
-60.3000;0.6072;1.1951;
-60.0000;0.6064;1.1951;
-59.7000;0.6064;1.1904;
-59.4000;0.6064;1.1951;
-59.1000;0.6064;1.1998;
-58.8000;0.6105;1.2022;
-58.5000;0.6072;1.1975;
-58.2000;0.6081;1.2022;
-57.9000;0.6056;1.2045;
-57.6000;0.6081;1.2069;
-57.3000;0.6064;1.2022;
-57.0000;0.6089;1.2069;
-56.7000;0.6064;1.1975;
-56.4000;0.6129;1.2069;
-56.1000;0.6064;1.1834;
-55.8000;0.6056;1.1787;
-55.5000;0.6056;1.1810;
-55.2000;0.6056;1.1928;
-54.9000;0.6032;1.1810;
-54.6000;0.6072;1.1904;
-54.3000;0.6064;1.1881;
-54.0000;0.6024;1.1763;
-53.7000;0.6097;1.2022;
-53.4000;0.6032;1.1928;
-53.1000;0.6056;1.1975;
-52.8000;0.6056;1.1975;
-52.5000;0.6081;1.2022;
-52.2000;0.6081;1.1998;
-51.9000;0.6048;1.1928;
-51.6000;0.6056;1.1998;
-51.3000;0.6040;1.1975;
-51.0000;0.5999;1.1904;
-50.7000;0.6032;1.1975;
-50.4000;0.6064;1.2092;
-50.1000;0.6056;1.2116;
-49.8000;0.6056;1.2092;
-49.5000;0.6056;1.2139;
-49.2000;0.6048;1.1975;
-48.9000;0.6064;1.1928;
-48.6000;0.6056;1.1904;
-48.3000;0.6072;1.1928;
-48.0000;0.6129;1.1975;
-47.7000;0.6040;1.1692;
-47.4000;0.6048;1.1669;
-47.1000;0.6105;1.1787;
-46.8000;0.6081;1.1810;
-46.5000;0.6064;1.1740;
-46.2000;0.6024;1.1669;
-45.9000;0.6064;1.1810;
-45.6000;0.6105;1.1904;
-45.3000;0.5983;1.1622;
-45.0000;0.6048;1.1881;
-44.7000;0.6048;1.1928;
-44.4000;0.6056;1.1951;
-44.1000;0.6081;1.1928;
-43.8000;0.6040;1.1975;
-43.5000;0.6040;1.1998;
-43.2000;0.6081;1.1998;
-42.9000;0.6072;1.1928;
-42.6000;0.6064;1.1951;
-42.3000;0.6056;1.1951;
-42.0000;0.6081;1.1951;
-41.7000;0.6064;1.1928;
-41.4000;0.6024;1.1810;
-41.1000;0.6072;1.1904;
-40.8000;0.6146;1.2069;
-40.5000;0.6064;1.1904;
-40.2000;0.6138;1.2069;
-39.9000;0.6081;1.1951;
-39.6000;0.6081;1.1904;
-39.3000;0.6105;1.2022;
-39.0000;0.6072;1.1951;
-38.7000;0.6072;1.1975;
-38.4000;0.6081;1.2069;
-38.1000;0.6072;1.2045;
-37.8000;0.6064;1.1998;
-37.5000;0.6097;1.1998;
-37.2000;0.6064;1.1904;
-36.9000;0.6138;1.2045;
-36.6000;0.6056;1.1881;
-36.3000;0.6064;1.1881;
-36.0000;0.6064;1.1928;
-35.7000;0.6064;1.1904;
-35.4000;0.6064;1.1857;
-35.1000;0.6081;1.1881;
-34.8000;0.6089;1.1881;
-34.5000;0.6064;1.1881;
-34.2000;0.6056;1.1834;
-33.9000;0.6056;1.1716;
-33.6000;0.6064;1.1740;
-33.3000;0.6072;1.1834;
-33.0000;0.6072;1.1857;
-32.7000;0.6056;1.1787;
-32.4000;0.6056;1.1810;
-32.1000;0.6072;1.1763;
-31.8000;0.6056;1.1716;
-31.5000;0.6040;1.1598;
-31.2000;0.6089;1.1622;
-30.9000;0.6015;1.1481;
-30.6000;0.6015;1.1504;
-30.3000;0.6064;1.1692;
-30.0000;0.6015;1.1575;
-29.7000;0.6015;1.1622;
-29.4000;0.6015;1.1692;
-29.1000;0.6048;1.1763;
-28.8000;0.6056;1.1763;
-28.5000;0.6064;1.1834;
-28.2000;0.6113;1.1881;
-27.9000;0.6072;1.1810;
-27.6000;0.6064;1.1857;
-27.3000;0.6032;1.1810;
-27.0000;0.6121;1.2045;
-26.7000;0.6089;1.1881;
-26.4000;0.6040;1.1598;
-26.1000;0.6064;1.1716;
-25.8000;0.6105;1.1810;
-25.5000;0.6056;1.1763;
-25.2000;0.6040;1.1740;
-24.9000;0.6040;1.1787;
-24.6000;0.6097;1.1904;
-24.3000;0.6105;1.1904;
-24.0000;0.6007;1.1692;
-23.7000;0.6040;1.1810;
-23.4000;0.6072;1.1810;
-23.1000;0.6097;1.1787;
-22.8000;0.6056;1.1669;
-22.5000;0.6048;1.1692;
-22.2000;0.6056;1.1787;
-21.9000;0.6040;1.1763;
-21.6000;0.6032;1.1834;
-21.3000;0.6040;1.1857;
-21.0000;0.6064;1.1857;
-20.7000;0.6129;1.1975;
-20.4000;0.6113;1.1975;
-20.1000;0.6056;1.1951;
-19.8000;0.6072;1.1928;
-19.5000;0.6081;1.1904;
-19.2000;0.6056;1.1904;
-18.9000;0.6056;1.1928;
-18.6000;0.6064;1.1975;
-18.3000;0.6064;1.1881;
-18.0000;0.6072;1.1904;
-17.7000;0.6072;1.1951;
-17.4000;0.6064;1.1998;
-17.1000;0.6048;1.1998;
-16.8000;0.6113;1.2092;
-16.5000;0.6089;1.2022;
-16.2000;0.6056;1.1998;
-15.9000;0.6032;1.1928;
-15.6000;0.6048;1.1787;
-15.3000;0.6089;1.1834;
-15.0000;0.6048;1.1692;
-14.7000;0.6081;1.1810;
-14.4000;0.6056;1.1904;
-14.1000;0.6072;1.1787;
-13.8000;0.6048;1.1645;
-13.5000;0.6056;1.1692;
-13.2000;0.6072;1.1645;
-12.9000;0.6064;1.1692;
-12.6000;0.6081;1.1692;
-12.3000;0.6089;1.1787;
-12.0000;0.6081;1.1834;
-11.7000;0.6040;1.1622;
-11.4000;0.6048;1.1645;
-11.1000;0.6064;1.1716;
-10.8000;0.6064;1.1740;
-10.5000;0.6072;1.1740;
-10.2000;0.6081;1.1669;
-9.9000;0.6056;1.1716;
-9.6000;0.6089;1.1810;
-9.3000;0.6081;1.1692;
-9.0000;0.6056;1.1716;
-8.7000;0.6064;1.1834;
-8.4000;0.6072;1.1881;
-8.1000;0.6089;1.1810;
-7.8000;0.6081;1.1787;
-7.5000;0.6056;1.1787;
-7.2000;0.6129;1.2092;
-6.9000;0.6064;1.1975;
-6.6000;0.6048;1.1857;
-6.3000;0.6113;1.1951;
-6.0000;0.6072;1.1787;
-5.7000;0.6129;1.2045;
-5.4000;0.6048;1.1881;
-5.1000;0.6081;1.1998;
-4.8000;0.6072;1.1881;
-4.5000;0.6048;1.1834;
-4.2000;0.6097;1.1975;
-3.9000;0.6064;1.1857;
-3.6000;0.6081;1.1857;
-3.3000;0.6064;1.1857;
-3.0000;0.6048;1.1787;
-2.7000;0.6081;1.1810;
-2.4000;0.6072;1.1928;
-2.1000;0.6081;1.1928;
-1.8000;0.6064;1.1834;
-1.5000;0.6064;1.1669;
-1.2000;0.6081;1.1740;
-0.9000;0.6081;1.1716;
-0.6000;0.6056;1.1692;
-0.3000;0.6056;1.1645;
0.0000;0.6056;1.1645;
0.3000;0.6243;1.1598;
0.6000;0.6626;1.2092;
0.9000;0.6862;1.2492;
1.2000;0.7082;1.2963;
1.5000;0.7220;1.3245;
1.8000;0.7359;1.3598;
2.1000;0.7473;1.3857;
2.4000;0.7521;1.3998;
2.7000;0.7652;1.4327;
3.0000;0.7692;1.4469;
3.3000;0.7741;1.4516;
3.6000;0.7782;1.4563;
3.9000;0.7823;1.4657;
4.2000;0.7847;1.4633;
4.5000;0.7863;1.4751;
4.8000;0.7920;1.4704;
5.1000;0.7969;1.4821;
5.4000;0.7993;1.4798;
5.7000;0.8002;1.4798;
6.0000;0.8002;1.4821;
6.3000;0.8067;1.4916;
6.6000;0.8034;1.4821;
6.9000;0.8083;1.4845;
7.2000;0.8132;1.4845;
7.5000;0.8156;1.4916;
7.8000;0.8164;1.4963;
8.1000;0.8181;1.4986;
8.4000;0.8173;1.5151;
8.7000;0.8230;1.5245;
9.0000;0.8238;1.5221;
9.3000;0.8254;1.5174;
9.6000;0.8246;1.5127;
9.9000;0.8278;1.5198;
10.2000;0.8319;1.5339;
10.5000;0.8311;1.5268;
10.8000;0.8360;1.5292;
11.1000;0.8335;1.5198;
11.4000;0.8344;1.5221;
11.7000;0.8409;1.5268;
12.0000;0.8384;1.5104;
12.3000;0.8417;1.5104;
12.6000;0.8433;1.5033;
12.9000;0.8466;1.5198;
13.2000;0.8474;1.5292;
13.5000;0.8441;1.5198;
13.8000;0.8441;1.5151;
14.1000;0.8498;1.5174;
14.4000;0.8457;1.5127;
14.7000;0.8490;1.5198;
15.0000;0.8531;1.5104;
15.3000;0.8563;1.5174;
15.6000;0.8571;1.5127;
15.9000;0.8571;1.5198;
16.2000;0.8604;1.5151;
16.5000;0.8588;1.5080;
16.8000;0.8571;1.4986;
17.1000;0.8604;1.5033;
17.4000;0.8580;1.4963;
17.7000;0.8620;1.5080;
18.0000;0.8596;1.5010;
18.3000;0.8653;1.5221;
18.6000;0.8637;1.5174;
18.9000;0.8669;1.5292;
19.2000;0.8653;1.5245;
19.5000;0.8710;1.5316;
19.8000;0.8653;1.5174;
20.1000;0.8718;1.5433;
20.4000;0.8734;1.5551;
20.7000;0.8726;1.5457;
21.0000;0.8742;1.5457;
21.3000;0.8734;1.5268;
21.6000;0.8742;1.5316;
21.9000;0.8767;1.5245;
22.2000;0.8767;1.5221;
22.5000;0.8759;1.5104;
22.8000;0.8783;1.5057;
23.1000;0.8791;1.5033;
23.4000;0.8791;1.5080;
23.7000;0.8807;1.5104;
24.0000;0.8791;1.5127;
24.3000;0.8816;1.5245;
24.6000;0.8791;1.5198;
24.9000;0.8848;1.5268;
25.2000;0.8840;1.5174;
25.5000;0.8840;1.5127;
25.8000;0.8864;1.5245;
26.1000;0.8889;1.5316;
26.4000;0.8864;1.5245;
26.7000;0.8856;1.5245;
27.0000;0.8864;1.5245;
27.3000;0.8881;1.5316;
27.6000;0.8856;1.5245;
27.9000;0.8881;1.5339;
28.2000;0.8864;1.5292;
28.5000;0.8913;1.5339;
28.8000;0.8889;1.5198;
29.1000;0.8897;1.5198;
29.4000;0.8946;1.5292;
29.7000;0.8881;1.5127;
30.0000;0.8889;1.5033;
30.3000;0.8921;1.5104;
30.6000;0.9011;1.5339;
30.9000;0.8946;1.5127;
31.2000;0.8921;1.5104;
31.5000;0.8978;1.5221;
31.8000;0.8938;1.5080;
32.1000;0.8962;1.5174;
32.4000;0.8946;1.5080;
32.7000;0.8987;1.5198;
33.0000;0.8930;1.5010;
33.3000;0.8970;1.4986;
33.6000;0.8856;1.4704;
33.9000;0.8954;1.4892;
34.2000;0.8995;1.5174;
34.5000;0.9044;1.5268;
34.8000;0.8987;1.5080;
35.1000;0.8978;1.5010;
35.4000;0.8978;1.4986;
35.7000;0.8962;1.4986;
36.0000;0.8987;1.5080;
36.3000;0.9003;1.5057;
36.6000;0.8995;1.4916;
36.9000;0.8995;1.4986;
37.2000;0.8995;1.4963;
37.5000;0.9019;1.4986;
37.8000;0.8978;1.4845;
38.1000;0.8995;1.4821;
38.4000;0.9003;1.4845;
38.7000;0.9019;1.4798;
39.0000;0.9035;1.4774;
39.3000;0.9027;1.4821;
39.6000;0.9011;1.4657;
39.9000;0.9035;1.4774;
40.2000;0.9052;1.4963;
40.5000;0.8995;1.4916;
40.8000;0.9003;1.4751;
41.1000;0.9027;1.4845;
41.4000;0.9035;1.4821;
41.7000;0.9027;1.4798;
42.0000;0.9052;1.4869;
42.3000;0.9076;1.4845;
42.6000;0.9052;1.4727;
42.9000;0.9027;1.4774;
43.2000;0.9035;1.4704;
43.5000;0.9035;1.4680;
43.8000;0.9052;1.4774;
44.1000;0.9092;1.4892;
44.4000;0.9052;1.4798;
44.7000;0.9068;1.4869;
45.0000;0.9109;1.4986;
45.3000;0.8970;1.4563;
45.6000;0.9060;1.4704;
45.9000;0.9084;1.4704;
46.2000;0.9068;1.4680;
46.5000;0.9092;1.4704;
46.8000;0.9101;1.4751;
47.1000;0.9084;1.4657;
47.4000;0.9084;1.4727;
47.7000;0.9084;1.4727;
48.0000;0.9068;1.4657;
48.3000;0.9068;1.4657;
48.6000;0.9101;1.4680;
48.9000;0.9101;1.4610;
49.2000;0.9101;1.4563;
49.5000;0.9076;1.4563;
49.8000;0.9101;1.4610;
50.1000;0.9125;1.4774;
50.4000;0.9092;1.4704;
50.7000;0.9084;1.4727;
51.0000;0.9092;1.4727;
51.3000;0.9109;1.4727;
51.6000;0.9117;1.4821;
51.9000;0.9141;1.4916;
52.2000;0.9109;1.4845;
52.5000;0.9101;1.4869;
52.8000;0.9117;1.4845;
53.1000;0.9076;1.4774;
53.4000;0.9101;1.4845;
53.7000;0.9182;1.4963;
54.0000;0.9125;1.4845;
54.3000;0.9133;1.4869;
54.6000;0.9133;1.4845;
54.9000;0.9101;1.4751;
55.2000;0.9149;1.4916;
55.5000;0.9117;1.4892;
55.8000;0.9125;1.4892;
56.1000;0.9117;1.4916;
56.4000;0.9133;1.4892;
56.7000;0.9133;1.4845;
57.0000;0.9109;1.4845;
57.3000;0.9109;1.4916;
57.6000;0.9125;1.4963;
57.9000;0.9109;1.5010;
58.2000;0.9117;1.5010;
58.5000;0.9141;1.5057;
58.8000;0.9141;1.5080;
59.1000;0.9141;1.5057;
59.4000;0.9141;1.5033;
59.7000;0.9133;1.4939;
60.0000;0.9141;1.4986;
60.3000;0.9174;1.5127;
60.6000;0.9149;1.5057;
60.9000;0.9149;1.4963;
61.2000;0.9125;1.4821;
61.5000;0.9141;1.4821;
61.8000;0.9141;1.4774;
62.1000;0.9141;1.4774;
62.4000;0.9149;1.4869;
62.7000;0.9206;1.4986;
63.0000;0.9149;1.4939;
63.3000;0.9133;1.4798;
63.6000;0.9166;1.4845;
63.9000;0.9141;1.4727;
64.2000;0.9109;1.4727;
64.5000;0.9206;1.4916;
64.8000;0.9149;1.4774;
65.1000;0.9125;1.4704;
65.4000;0.9166;1.4869;
65.7000;0.9158;1.4869;
66.0000;0.9158;1.4798;
66.3000;0.9174;1.4869;
66.6000;0.9149;1.4821;
66.9000;0.9133;1.4751;
67.2000;0.9133;1.4774;
67.5000;0.9141;1.4774;
67.8000;0.9158;1.4657;
68.1000;0.9174;1.4727;
68.4000;0.9141;1.4657;
68.7000;0.9149;1.4704;
69.0000;0.9166;1.4680;
69.3000;0.9174;1.4610;
69.6000;0.9174;1.4633;
69.9000;0.9174;1.4798;
70.2000;0.9166;1.4798;
70.5000;0.9198;1.4798;
70.8000;0.9182;1.4774;
71.1000;0.9198;1.4798;
71.4000;0.9125;1.4727;
71.7000;0.9174;1.4869;
72.0000;0.9174;1.4845;
72.3000;0.9182;1.4845;
72.6000;0.9149;1.4657;
72.9000;0.9190;1.4727;
73.2000;0.9231;1.4798;
73.5000;0.9166;1.4539;
73.8000;0.9158;1.4563;
74.1000;0.9223;1.4727;
74.4000;0.9174;1.4610;
74.7000;0.9182;1.4586;
75.0000;0.9174;1.4516;
75.3000;0.9166;1.4445;
75.6000;0.9174;1.4492;
75.9000;0.9190;1.4586;
76.2000;0.9166;1.4563;
76.5000;0.9166;1.4539;
76.8000;0.9174;1.4469;
77.1000;0.9198;1.4516;
77.4000;0.9174;1.4445;
77.7000;0.9182;1.4469;
78.0000;0.9166;1.4445;
78.3000;0.9198;1.4492;
78.6000;0.9182;1.4516;
78.9000;0.9141;1.4469;
79.2000;0.9182;1.4492;
79.5000;0.9206;1.4539;
79.8000;0.9182;1.4469;
80.1000;0.9182;1.4422;
80.4000;0.9190;1.4492;
80.7000;0.9198;1.4469;
81.0000;0.9206;1.4539;
81.3000;0.9190;1.4539;
81.6000;0.9182;1.4469;
81.9000;0.9223;1.4563;
82.2000;0.9206;1.4516;
82.5000;0.9206;1.4516;
82.8000;0.9214;1.4610;
83.1000;0.9214;1.4610;
83.4000;0.9214;1.4657;
83.7000;0.9166;1.4516;
84.0000;0.9206;1.4586;
84.3000;0.9214;1.4610;
84.6000;0.9206;1.4516;
84.9000;0.9312;1.4751;
85.2000;0.9149;1.4374;
85.5000;0.9174;1.4422;
85.8000;0.9206;1.4374;
86.1000;0.9214;1.4351;
86.4000;0.9206;1.4374;
86.7000;0.9190;1.4327;
87.0000;0.9223;1.4422;
87.3000;0.9198;1.4445;
87.6000;0.9198;1.4469;
87.9000;0.9198;1.4445;
88.2000;0.9190;1.4422;
88.5000;0.9206;1.4492;
88.8000;0.9255;1.4563;
89.1000;0.9206;1.4586;
89.4000;0.9214;1.4563;
89.7000;0.9190;1.4610;
90.0000;0.9190;1.4586;
90.3000;0.9206;1.4657;
90.6000;0.9206;1.4610;
90.9000;0.9206;1.4563;
91.2000;0.9214;1.4586;
91.5000;0.9198;1.4492;
91.8000;0.9223;1.4492;
92.1000;0.9158;1.4422;
92.4000;0.9223;1.4633;
92.7000;0.9190;1.4539;
93.0000;0.9206;1.4516;
93.3000;0.9239;1.4586;
93.6000;0.9223;1.4445;
93.9000;0.9223;1.4445;
94.2000;0.9231;1.4445;
94.5000;0.9223;1.4469;
94.8000;0.9223;1.4445;
95.1000;0.9206;1.4398;
95.4000;0.9255;1.4374;
95.7000;0.9214;1.4186;
96.0000;0.9223;1.4374;
96.3000;0.9206;1.4351;
96.6000;0.9223;1.4422;
96.9000;0.9223;1.4492;
97.2000;0.9214;1.4469;
97.5000;0.9214;1.4374;
97.8000;0.9247;1.4374;
98.1000;0.9117;1.4069;
98.4000;0.9214;1.4351;
98.7000;0.9231;1.4351;
99.0000;0.9223;1.4280;
99.3000;0.9206;1.4374;
99.6000;0.9214;1.4516;
99.9000;0.9206;1.4492;
100.2000;0.9288;1.4751;
100.5000;0.9206;1.4563;
100.8000;0.9206;1.4492;
101.1000;0.9214;1.4563;
101.4000;0.9214;1.4610;
101.7000;0.9158;1.4516;
102.0000;0.9206;1.4492;
102.3000;0.9214;1.4445;
102.6000;0.9223;1.4445;
102.9000;0.9166;1.4304;
103.2000;0.9206;1.4351;
103.5000;0.9263;1.4586;
103.8000;0.9214;1.4445;
104.1000;0.9296;1.4633;
104.4000;0.9223;1.4516;
104.7000;0.9223;1.4516;
105.0000;0.9206;1.4422;
105.3000;0.9231;1.4422;
105.6000;0.9214;1.4398;
105.9000;0.9198;1.4327;
106.2000;0.9231;1.4445;
106.5000;0.9231;1.4469;
106.8000;0.9198;1.4422;
107.1000;0.9271;1.4516;
107.4000;0.9239;1.4374;
107.7000;0.9263;1.4422;
108.0000;0.9223;1.4374;
108.3000;0.9182;1.4280;
108.6000;0.9231;1.4351;
108.9000;0.9239;1.4469;
109.2000;0.9239;1.4492;
109.5000;0.9263;1.4563;
109.8000;0.9263;1.4563;
110.1000;0.9263;1.4586;
110.4000;0.9271;1.4657;
110.7000;0.9231;1.4586;
111.0000;0.9223;1.4633;
111.3000;0.9247;1.4610;
111.6000;0.9231;1.4516;
111.9000;0.9166;1.4327;
112.2000;0.9206;1.4422;
112.5000;0.9296;1.4563;
112.8000;0.9223;1.4398;
113.1000;0.9231;1.4445;
113.4000;0.9231;1.4398;
113.7000;0.9214;1.4374;
114.0000;0.9223;1.4398;
114.3000;0.9214;1.4351;
114.6000;0.9198;1.4351;
114.9000;0.9223;1.4398;
115.2000;0.9214;1.4422;
115.5000;0.9231;1.4374;
115.8000;0.9288;1.4610;
116.1000;0.9239;1.4563;
116.4000;0.9223;1.4516;
116.7000;0.9231;1.4516;
117.0000;0.9231;1.4398;
117.3000;0.9247;1.4445;
117.6000;0.9239;1.4422;
117.9000;0.9174;1.4327;
118.2000;0.9223;1.4445;
118.5000;0.9231;1.4469;
118.8000;0.9255;1.4563;
119.1000;0.9247;1.4539;
119.4000;0.9206;1.4445;
119.7000;0.9255;1.4539;
120.0000;0.9231;1.4492;
120.3000;0.9214;1.4516;
120.6000;0.9198;1.4563;
120.9000;0.9174;1.4516;
121.2000;0.9223;1.4469;
121.5000;0.9255;1.4492;
121.8000;0.9247;1.4516;
122.1000;0.9239;1.4492;
122.4000;0.9247;1.4492;
122.7000;0.9223;1.4539;
123.0000;0.9223;1.4516;
123.3000;0.9231;1.4586;
123.6000;0.9247;1.4610;
123.9000;0.9231;1.4633;
124.2000;0.9247;1.4586;
124.5000;0.9345;1.4798;
124.8000;0.9206;1.4563;
125.1000;0.9231;1.4563;
125.4000;0.9239;1.4610;
125.7000;0.9280;1.4751;
126.0000;0.9247;1.4727;
126.3000;0.9214;1.4610;
126.6000;0.9223;1.4774;
126.9000;0.9198;1.4680;
127.2000;0.9255;1.4869;
127.5000;0.9247;1.4821;
127.8000;0.9247;1.4798;
128.1000;0.9263;1.4727;
128.4000;0.9239;1.4610;
128.7000;0.9239;1.4633;
129.0000;0.9239;1.4610;
129.3000;0.9247;1.4539;
129.6000;0.9223;1.4563;
129.9000;0.9198;1.4516;
130.2000;0.9231;1.4563;
130.5000;0.9206;1.4492;
130.8000;0.9231;1.4516;
131.1000;0.9190;1.4422;
131.4000;0.9206;1.4445;
131.7000;0.9231;1.4586;
132.0000;0.9223;1.4610;
132.3000;0.9304;1.4821;
132.6000;0.9231;1.4586;
132.9000;0.9239;1.4586;
133.2000;0.9255;1.4680;
133.5000;0.9271;1.4751;
133.8000;0.9231;1.4680;
134.1000;0.9247;1.4657;
134.4000;0.9223;1.4680;
134.7000;0.9247;1.4633;
135.0000;0.9231;1.4539;
135.3000;0.9239;1.4539;
135.6000;0.9231;1.4492;
135.9000;0.9149;1.4186;
136.2000;0.9231;1.4327;
136.5000;0.9223;1.4445;
136.8000;0.9239;1.4492;
137.1000;0.9231;1.4492;
137.4000;0.9223;1.4469;
137.7000;0.9239;1.4374;
138.0000;0.9231;1.4351;
138.3000;0.9239;1.4422;
138.6000;0.9255;1.4492;
138.9000;0.9239;1.4492;
139.2000;0.9255;1.4539;
139.5000;0.9247;1.4539;
139.8000;0.9206;1.4422;
140.1000;0.9239;1.4539;
140.4000;0.9239;1.4469;
140.7000;0.9247;1.4422;
141.0000;0.9255;1.4586;
141.3000;0.9255;1.4610;
141.6000;0.9239;1.4610;
141.9000;0.9239;1.4633;
142.2000;0.9231;1.4586;
142.5000;0.9214;1.4539;
142.8000;0.9239;1.4610;
143.1000;0.9369;1.4939;
143.4000;0.9223;1.4586;
143.7000;0.9255;1.4563;
144.0000;0.9247;1.4539;
144.3000;0.9239;1.4445;
144.6000;0.9271;1.4563;
144.9000;0.9255;1.4539;
145.2000;0.9239;1.4610;
145.5000;0.9239;1.4680;
145.8000;0.9223;1.4586;
146.1000;0.9263;1.4563;
146.4000;0.9223;1.4398;
146.7000;0.9263;1.4445;
147.0000;0.9247;1.4398;
147.3000;0.9239;1.4398;
147.6000;0.9223;1.4422;
147.9000;0.9263;1.4469;
148.2000;0.9239;1.4374;
148.5000;0.9247;1.4516;
148.8000;0.9231;1.4539;
149.1000;0.9231;1.4539;
149.4000;0.9231;1.4492;
149.7000;0.9231;1.4445;
150.0000;0.9231;1.4516;
150.3000;0.9231;1.4445;
150.6000;0.9206;1.4351;
150.9000;0.9239;1.4398;
151.2000;0.9231;1.4374;
151.5000;0.9182;1.4257;
151.8000;0.9231;1.4469;
152.1000;0.9239;1.4492;
152.4000;0.9231;1.4445;
152.7000;0.9263;1.4516;
153.0000;0.9255;1.4422;
153.3000;0.9239;1.4374;
153.6000;0.9263;1.4398;
153.9000;0.9263;1.4445;
154.2000;0.9247;1.4327;
154.5000;0.9214;1.4139;
154.8000;0.9263;1.4257;
155.1000;0.9255;1.4163;
155.4000;0.9247;1.4163;
155.7000;0.9247;1.4210;
156.0000;0.9223;1.4233;
156.3000;0.9296;1.4304;
156.6000;0.9255;1.4257;
156.9000;0.9247;1.4210;
157.2000;0.9239;1.4233;
157.5000;0.9271;1.4280;
157.8000;0.9239;1.4163;
158.1000;0.9239;1.4233;
158.4000;0.9239;1.4304;
158.7000;0.9255;1.4398;
159.0000;0.9174;1.4233;
159.3000;0.9263;1.4398;
159.6000;0.9247;1.4327;
159.9000;0.9223;1.4280;
160.2000;0.9271;1.4422;
160.5000;0.9231;1.4374;
160.8000;0.9255;1.4422;
161.1000;0.9255;1.4398;
161.4000;0.9255;1.4374;
161.7000;0.9255;1.4304;
162.0000;0.9263;1.4304;
162.3000;0.9239;1.4163;
162.6000;0.9263;1.4280;
162.9000;0.9263;1.4327;
163.2000;0.9223;1.4351;
163.5000;0.9239;1.4374;
163.8000;0.9239;1.4422;
164.1000;0.9247;1.4445;
164.4000;0.9255;1.4539;
164.7000;0.9231;1.4469;
165.0000;0.9239;1.4516;
165.3000;0.9255;1.4610;
165.6000;0.9263;1.4539;
165.9000;0.9231;1.4398;
166.2000;0.9345;1.4704;
166.5000;0.9198;1.4398;
166.8000;0.9239;1.4445;
167.1000;0.9288;1.4539;
167.4000;0.9231;1.4398;
167.7000;0.9223;1.4280;
168.0000;0.9247;1.4186;
168.3000;0.9223;1.4139;
168.6000;0.9214;1.4163;
168.9000;0.9263;1.4233;
169.2000;0.9239;1.4163;
169.5000;0.9247;1.4374;
169.8000;0.9231;1.4327;
170.1000;0.9231;1.4374;
170.4000;0.9239;1.4398;
170.7000;0.9223;1.4257;
171.0000;0.9223;1.4233;
171.3000;0.9239;1.4210;
171.6000;0.9271;1.4139;
171.9000;0.9255;1.4139;
172.2000;0.9263;1.4163;
172.5000;0.9239;1.4163;
172.8000;0.9182;1.4139;
173.1000;0.9255;1.4280;
173.4000;0.9247;1.4210;
173.7000;0.9247;1.4351;
174.0000;0.9231;1.4280;
174.3000;0.9247;1.4327;
174.6000;0.9255;1.4492;
174.9000;0.9247;1.4422;
175.2000;0.9263;1.4492;
175.5000;0.9271;1.4469;
175.8000;0.9263;1.4469;
176.1000;0.9231;1.4398;
176.4000;0.9255;1.4469;
176.7000;0.9247;1.4445;
177.0000;0.9255;1.4398;
177.3000;0.9280;1.4492;
177.6000;0.9247;1.4422;
177.9000;0.9247;1.4539;
178.2000;0.9255;1.4469;
178.5000;0.9255;1.4445;
178.8000;0.9345;1.4539;
179.1000;0.9239;1.4327;
179.4000;0.9247;1.4374;
179.7000;0.9255;1.4445;
180.0000;0.9296;1.4516;
180.3000;0.9304;1.4586;
180.6000;0.9247;1.4469;
180.9000;0.9239;1.4327;
181.2000;0.9239;1.4327;
181.5000;0.9247;1.4351;
181.8000;0.9174;1.4186;
182.1000;0.9223;1.4351;
182.4000;0.9231;1.4351;
182.7000;0.9239;1.4327;
183.0000;0.9206;1.4327;
183.3000;0.9239;1.4374;
183.6000;0.9247;1.4398;
183.9000;0.9231;1.4351;
184.2000;0.9247;1.4422;
184.5000;0.9247;1.4422;
184.8000;0.9214;1.4398;
185.1000;0.9255;1.4422;
185.4000;0.9239;1.4422;
185.7000;0.9263;1.4516;
186.0000;0.9288;1.4610;
186.3000;0.9231;1.4374;
186.6000;0.9247;1.4398;
186.9000;0.9223;1.4374;
187.2000;0.9231;1.4445;
187.5000;0.9239;1.4351;
187.8000;0.9255;1.4422;
188.1000;0.9304;1.4563;
188.4000;0.9231;1.4398;
188.7000;0.9239;1.4304;
189.0000;0.9239;1.4351;
189.3000;0.9312;1.4469;
189.6000;0.9255;1.4445;
189.9000;0.9231;1.4422;
190.2000;0.9247;1.4445;
190.5000;0.9304;1.4516;
190.8000;0.9206;1.4327;
191.1000;0.9263;1.4422;
191.4000;0.9255;1.4398;
191.7000;0.9255;1.4374;
192.0000;0.9255;1.4492;
192.3000;0.9231;1.4469;
192.6000;0.9247;1.4539;
192.9000;0.9198;1.4374;
193.2000;0.9320;1.4586;
193.5000;0.9247;1.4422;
193.8000;0.9247;1.4327;
194.1000;0.9255;1.4304;
194.4000;0.9239;1.4280;
194.7000;0.9247;1.4374;
195.0000;0.9247;1.4398;
195.3000;0.9231;1.4351;
195.6000;0.9231;1.4398;
195.9000;0.9255;1.4398;
196.2000;0.9255;1.4351;
196.5000;0.9231;1.4280;
196.8000;0.9239;1.4257;
197.1000;0.9255;1.4327;
197.4000;0.9255;1.4327;
197.7000;0.9280;1.4351;
198.0000;0.9239;1.4327;
198.3000;0.9247;1.4374;
198.6000;0.9271;1.4445;
198.9000;0.9263;1.4539;
199.2000;0.9263;1.4563;
199.5000;0.9255;1.4539;
199.8000;0.9280;1.4610;
200.1000;0.9255;1.4586;
200.4000;0.9288;1.4586;
200.7000;0.9231;1.4374;
201.0000;0.9263;1.4445;
201.3000;0.9255;1.4469;
201.6000;0.9280;1.4469;
201.9000;0.9255;1.4422;
202.2000;0.9280;1.4563;
202.5000;0.9247;1.4445;
202.8000;0.9263;1.4539;
203.1000;0.9206;1.4492;
203.4000;0.9247;1.4633;
203.7000;0.9223;1.4586;
204.0000;0.9231;1.4539;
204.3000;0.9239;1.4610;
204.6000;0.9174;1.4539;
204.9000;0.9239;1.4704;
205.2000;0.9231;1.4727;
205.5000;0.9231;1.4704;
205.8000;0.9304;1.4798;
206.1000;0.9239;1.4563;
206.4000;0.9239;1.4516;
206.7000;0.9239;1.4516;
207.0000;0.9223;1.4469;
207.3000;0.9247;1.4563;
207.6000;0.9255;1.4610;
207.9000;0.9231;1.4469;
208.2000;0.9239;1.4492;
208.5000;0.9247;1.4610;
208.8000;0.9247;1.4680;
209.1000;0.9223;1.4586;
209.4000;0.9239;1.4492;
209.7000;0.9247;1.4492;
210.0000;0.9247;1.4633;
210.3000;0.9255;1.4727;
210.6000;0.9239;1.4563;
210.9000;0.9239;1.4539;
211.2000;0.9247;1.4586;
211.5000;0.9223;1.4563;
211.8000;0.9239;1.4586;
212.1000;0.9239;1.4586;
212.4000;0.9247;1.4610;
212.7000;0.9255;1.4492;
213.0000;0.9247;1.4516;
213.3000;0.9239;1.4469;
213.6000;0.9247;1.4492;
213.9000;0.9271;1.4422;
214.2000;0.9206;1.4280;
214.5000;0.9190;1.4351;
214.8000;0.9247;1.4539;
215.1000;0.9271;1.4539;
215.4000;0.9247;1.4492;
215.7000;0.9288;1.4586;
216.0000;0.9247;1.4539;
216.3000;0.9263;1.4563;
216.6000;0.9263;1.4539;
216.9000;0.9255;1.4469;
217.2000;0.9239;1.4469;
217.5000;0.9223;1.4398;
217.8000;0.9288;1.4586;
218.1000;0.9239;1.4492;
218.4000;0.9247;1.4516;
218.7000;0.9206;1.4469;
219.0000;0.9231;1.4539;
219.3000;0.9231;1.4492;
219.6000;0.9231;1.4445;
219.9000;0.9263;1.4445;
220.2000;0.9239;1.4280;
220.5000;0.9353;1.4539;
220.8000;0.9239;1.4327;
221.1000;0.9239;1.4304;
221.4000;0.9247;1.4257;
221.7000;0.9231;1.4186;
222.0000;0.9239;1.4163;
222.3000;0.9247;1.4280;
222.6000;0.9255;1.4210;
222.9000;0.9247;1.4233;
223.2000;0.9296;1.4257;
223.5000;0.9182;1.4022;
223.8000;0.9288;1.4280;
224.1000;0.9255;1.4186;
224.4000;0.9239;1.4163;
224.7000;0.9247;1.4163;
225.0000;0.9247;1.4139;
225.3000;0.9239;1.4116;
225.6000;0.9239;1.4139;
225.9000;0.9255;1.4186;
226.2000;0.9247;1.4163;
226.5000;0.9231;1.4210;
226.8000;0.9239;1.4257;
227.1000;0.9239;1.4351;
227.4000;0.9247;1.4422;
227.7000;0.9239;1.4398;
228.0000;0.9247;1.4445;
228.3000;0.9223;1.4374;
228.6000;0.9231;1.4469;
228.9000;0.9239;1.4422;
229.2000;0.9255;1.4327;
229.5000;0.9239;1.4351;
229.8000;0.9231;1.4304;
230.1000;0.9231;1.4233;
230.4000;0.9239;1.4210;
230.7000;0.9239;1.4233;
231.0000;0.9239;1.4280;
231.3000;0.9247;1.4304;
231.6000;0.9247;1.4257;
231.9000;0.9239;1.4210;
232.2000;0.9255;1.4257;
232.5000;0.9271;1.4280;
232.8000;0.9247;1.4210;
233.1000;0.9255;1.4327;
233.4000;0.9247;1.4327;
233.7000;0.9223;1.4304;
234.0000;0.9247;1.4398;
234.3000;0.9247;1.4374;
234.6000;0.9231;1.4304;
234.9000;0.9231;1.4233;
235.2000;0.9239;1.4280;
235.5000;0.9231;1.4327;
235.8000;0.9239;1.4445;
236.1000;0.9239;1.4516;
236.4000;0.9198;1.4445;
236.7000;0.9247;1.4469;
237.0000;0.9247;1.4469;
237.3000;0.9247;1.4469;
237.6000;0.9223;1.4374;
237.9000;0.9247;1.4445;
238.2000;0.9239;1.4398;
238.5000;0.9271;1.4469;
238.8000;0.9223;1.4280;
239.1000;0.9239;1.4351;
239.4000;0.9231;1.4422;
239.7000;0.9206;1.4422;
240.0000;0.9231;1.4469;
240.3000;0.9231;1.4469;
240.6000;0.9239;1.4492;
240.9000;0.9263;1.4539;
241.2000;0.9231;1.4539;
241.5000;0.9239;1.4516;
241.8000;0.9239;1.4492;
242.1000;0.9231;1.4492;
242.4000;0.9231;1.4445;
242.7000;0.9214;1.4374;
243.0000;0.9239;1.4398;
243.3000;0.9255;1.4422;
243.6000;0.9247;1.4422;
243.9000;0.9206;1.4257;
244.2000;0.9239;1.4280;
244.5000;0.9231;1.4327;
244.8000;0.9231;1.4374;
245.1000;0.9239;1.4398;
245.4000;0.9214;1.4351;
245.7000;0.9247;1.4539;
246.0000;0.9271;1.4445;
246.3000;0.9247;1.4469;
246.6000;0.9255;1.4422;
246.9000;0.9247;1.4492;
247.2000;0.9271;1.4445;
247.5000;0.9247;1.4445;
247.8000;0.9247;1.4516;
248.1000;0.9255;1.4563;
248.4000;0.9239;1.4516;
248.7000;0.9239;1.4469;
249.0000;0.9247;1.4469;
249.3000;0.9247;1.4492;
249.6000;0.9255;1.4539;
249.9000;0.9247;1.4610;
250.2000;0.9247;1.4539;
250.5000;0.9231;1.4492;
250.8000;0.9247;1.4469;
251.1000;0.9255;1.4539;
251.4000;0.9247;1.4539;
251.7000;0.9247;1.4633;
252.0000;0.9239;1.4563;
252.3000;0.9255;1.4563;
252.6000;0.9263;1.4539;
252.9000;0.9239;1.4469;
253.2000;0.9255;1.4516;
253.5000;0.9255;1.4563;
253.8000;0.9247;1.4516;
254.1000;0.9239;1.4539;
254.4000;0.9231;1.4516;
254.7000;0.9255;1.4586;
255.0000;0.9223;1.4586;
255.3000;0.9239;1.4657;
255.6000;0.9247;1.4657;
255.9000;0.9239;1.4633;
256.2000;0.9239;1.4563;
256.5000;0.9255;1.4539;
256.8000;0.9223;1.4469;
257.1000;0.9255;1.4586;
257.4000;0.9255;1.4563;
257.7000;0.9239;1.4422;
258.0000;0.9255;1.4422;
258.3000;0.9263;1.4516;
258.6000;0.9263;1.4657;
258.9000;0.9247;1.4704;
259.2000;0.9239;1.4704;
259.5000;0.9239;1.4633;
259.8000;0.9255;1.4633;
260.1000;0.9255;1.4704;
260.4000;0.9206;1.4586;
260.7000;0.9239;1.4586;
261.0000;0.9247;1.4539;
261.3000;0.9320;1.4774;
261.6000;0.9353;1.4869;
261.9000;0.9271;1.4586;
262.2000;0.9231;1.4563;
262.5000;0.9312;1.4845;
262.8000;0.9239;1.4680;
263.1000;0.9239;1.4680;
263.4000;0.9247;1.4633;
263.7000;0.9247;1.4586;
264.0000;0.9255;1.4563;
264.3000;0.9231;1.4516;
264.6000;0.9247;1.4539;
264.9000;0.9223;1.4563;
265.2000;0.9247;1.4680;
265.5000;0.9320;1.4845;
265.8000;0.9190;1.4610;
266.1000;0.9214;1.4704;
266.4000;0.9214;1.4680;
266.7000;0.9206;1.4633;
267.0000;0.9206;1.4680;
267.3000;0.9214;1.4680;
267.6000;0.9247;1.4751;
267.9000;0.9231;1.4751;
268.2000;0.9223;1.4704;
268.5000;0.9247;1.4774;
268.8000;0.9247;1.4727;
269.1000;0.9231;1.4657;
269.4000;0.9231;1.4704;
269.7000;0.9239;1.4751;
270.0000;0.9296;1.4916;
270.3000;0.9263;1.4751;
270.6000;0.9231;1.4586;
270.9000;0.9239;1.4539;
271.2000;0.9247;1.4586;
271.5000;0.9247;1.4610;
271.8000;0.9239;1.4586;
272.1000;0.9231;1.4469;
272.4000;0.9223;1.4422;
272.7000;0.9239;1.4516;
273.0000;0.9214;1.4610;
273.3000;0.9231;1.4633;
273.6000;0.9206;1.4727;
273.9000;0.9223;1.4657;
274.2000;0.9231;1.4633;
274.5000;0.9312;1.4727;
274.8000;0.9239;1.4445;
275.1000;0.9231;1.4327;
275.4000;0.9263;1.4422;
275.7000;0.9190;1.4280;
276.0000;0.9247;1.4304;
276.3000;0.9231;1.4304;
276.6000;0.9239;1.4327;
276.9000;0.9231;1.4304;
277.2000;0.9231;1.4257;
277.5000;0.9214;1.4233;
277.8000;0.9239;1.4327;
278.1000;0.9239;1.4398;
278.4000;0.9231;1.4398;
278.7000;0.9239;1.4398;
279.0000;0.9190;1.4257;
279.3000;0.9247;1.4327;
279.6000;0.9214;1.4304;
279.9000;0.9231;1.4327;
280.2000;0.9239;1.4374;
280.5000;0.9247;1.4398;
280.8000;0.9247;1.4280;
281.1000;0.9223;1.4327;
281.4000;0.9247;1.4374;
281.7000;0.9239;1.4374;
282.0000;0.9247;1.4445;
282.3000;0.9223;1.4469;
282.6000;0.9231;1.4469;
282.9000;0.9255;1.4492;
283.2000;0.9247;1.4539;
283.5000;0.9223;1.4445;
283.8000;0.9214;1.4398;
284.1000;0.9255;1.4445;
284.4000;0.9239;1.4492;
284.7000;0.9231;1.4422;
285.0000;0.9271;1.4539;
285.3000;0.9149;1.4280;
285.6000;0.9223;1.4422;
285.9000;0.9231;1.4445;
286.2000;0.9328;1.4610;
286.5000;0.9231;1.4445;
286.8000;0.9231;1.4516;
287.1000;0.9304;1.4798;
287.4000;0.9231;1.4610;
287.7000;0.9174;1.4422;
288.0000;0.9231;1.4516;
288.3000;0.9239;1.4539;
288.6000;0.9247;1.4492;
288.9000;0.9247;1.4516;
289.2000;0.9255;1.4492;
289.5000;0.9247;1.4492;
289.8000;0.9296;1.4586;
290.1000;0.9239;1.4398;
290.4000;0.9239;1.4351;
290.7000;0.9247;1.4374;
291.0000;0.9223;1.4233;
291.3000;0.9231;1.4327;
291.6000;0.9166;1.4092;
291.9000;0.9263;1.4304;
292.2000;0.9231;1.4233;
292.5000;0.9239;1.4351;
292.8000;0.9247;1.4422;
293.1000;0.9214;1.4351;
293.4000;0.9255;1.4422;
293.7000;0.9239;1.4351;
294.0000;0.9263;1.4422;
294.3000;0.9239;1.4492;
294.6000;0.9231;1.4492;
294.9000;0.9231;1.4539;
295.2000;0.9190;1.4492;
295.5000;0.9231;1.4633;
295.8000;0.9190;1.4445;
296.1000;0.9223;1.4469;
296.4000;0.9206;1.4516;
296.7000;0.9166;1.4374;
297.0000;0.9214;1.4492;
297.3000;0.9166;1.4422;
297.6000;0.9288;1.4657;
297.9000;0.9190;1.4422;
298.2000;0.9231;1.4445;
298.5000;0.9182;1.4304;
298.8000;0.9190;1.4327;
299.1000;0.9206;1.4469;
299.4000;0.9231;1.4539;
299.7000;0.9214;1.4469;
300.0000;0.9198;1.4445;
300.3000;0.9239;1.4539;
300.6000;0.9223;1.4539;
300.9000;0.9247;1.4586;
301.2000;0.9239;1.4610;
301.5000;0.9206;1.4445;
301.8000;0.9206;1.4351;
302.1000;0.9198;1.4280;
302.4000;0.9206;1.4398;
302.7000;0.9206;1.4398;
303.0000;0.9255;1.4492;
303.3000;0.9223;1.4469;
303.6000;0.9214;1.4469;
303.9000;0.9231;1.4563;
304.2000;0.9288;1.4657;
304.5000;0.9239;1.4563;
304.8000;0.9239;1.4445;
305.1000;0.9182;1.4374;
305.4000;0.9231;1.4445;
305.7000;0.9239;1.4492;
306.0000;0.9247;1.4445;
306.3000;0.9239;1.4398;
306.6000;0.9231;1.4351;
306.9000;0.9198;1.4163;
307.2000;0.9312;1.4351;
307.5000;0.9231;1.4327;
307.8000;0.9231;1.4374;
308.1000;0.9190;1.4398;
308.4000;0.9231;1.4422;
308.7000;0.9206;1.4374;
309.0000;0.9206;1.4351;
309.3000;0.9206;1.4327;
309.6000;0.9223;1.4304;
309.9000;0.9223;1.4374;
310.2000;0.9182;1.4304;
310.5000;0.9231;1.4422;
310.8000;0.9231;1.4422;
311.1000;0.9231;1.4469;
311.4000;0.9231;1.4516;
311.7000;0.9239;1.4563;
312.0000;0.9214;1.4563;
312.3000;0.9231;1.4751;
312.6000;0.9247;1.4751;
312.9000;0.9141;1.4492;
313.2000;0.9223;1.4610;
313.5000;0.9239;1.4680;
313.8000;0.9239;1.4563;
314.1000;0.9231;1.4492;
314.4000;0.9223;1.4445;
314.7000;0.9231;1.4374;
315.0000;0.9206;1.4422;
315.3000;0.9239;1.4492;
315.6000;0.9206;1.4422;
315.9000;0.9223;1.4469;
316.2000;0.9231;1.4445;
316.5000;0.9231;1.4445;
316.8000;0.9247;1.4492;
317.1000;0.9214;1.4445;
317.4000;0.9206;1.4516;
317.7000;0.9190;1.4445;
318.0000;0.9206;1.4327;
318.3000;0.9223;1.4327;
318.6000;0.9247;1.4422;
318.9000;0.9247;1.4445;
319.2000;0.9223;1.4398;
319.5000;0.9231;1.4398;
319.8000;0.9255;1.4516;
320.1000;0.9247;1.4516;
320.4000;0.9206;1.4492;
320.7000;0.9214;1.4516;
321.0000;0.9223;1.4492;
321.3000;0.9223;1.4469;
321.6000;0.9166;1.4398;
321.9000;0.9214;1.4492;
322.2000;0.9214;1.4398;
322.5000;0.9223;1.4374;
322.8000;0.9263;1.4422;
323.1000;0.9223;1.4210;
323.4000;0.9214;1.4186;
323.7000;0.9214;1.4233;
324.0000;0.9239;1.4422;
324.3000;0.9214;1.4422;
324.6000;0.9231;1.4445;
324.9000;0.9223;1.4398;
325.2000;0.9239;1.4422;
325.5000;0.9214;1.4422;
325.8000;0.9198;1.4492;
326.1000;0.9214;1.4516;
326.4000;0.9231;1.4492;
326.7000;0.9223;1.4469;
327.0000;0.9223;1.4422;
327.3000;0.9214;1.4445;
327.6000;0.9247;1.4539;
327.9000;0.9223;1.4539;
328.2000;0.9231;1.4610;
328.5000;0.9231;1.4657;
328.8000;0.9214;1.4445;
329.1000;0.9231;1.4516;
329.4000;0.9239;1.4516;
329.7000;0.9214;1.4422;
330.0000;0.9231;1.4351;
330.3000;0.9239;1.4398;
330.6000;0.9247;1.4280;
330.9000;0.9247;1.4327;
331.2000;0.9231;1.4374;
331.5000;0.9255;1.4469;
331.8000;0.9214;1.4327;
332.1000;0.9206;1.4304;
332.4000;0.9223;1.4422;
332.7000;0.9223;1.4422;
333.0000;0.9231;1.4492;
333.3000;0.9223;1.4516;
333.6000;0.9214;1.4516;
333.9000;0.9271;1.4657;
334.2000;0.9231;1.4610;
334.5000;0.9149;1.4469;
334.8000;0.9206;1.4657;
335.1000;0.9223;1.4610;
335.4000;0.9247;1.4586;
335.7000;0.9231;1.4610;
336.0000;0.9231;1.4563;
336.3000;0.9231;1.4422;
336.6000;0.9239;1.4422;
336.9000;0.9239;1.4445;
337.2000;0.9223;1.4422;
337.5000;0.9239;1.4374;
337.8000;0.9231;1.4351;
338.1000;0.9255;1.4327;
338.4000;0.9223;1.4351;
338.7000;0.9231;1.4374;
339.0000;0.9206;1.4374;
339.3000;0.9231;1.4516;
339.6000;0.9174;1.4445;
339.9000;0.9198;1.4422;
340.2000;0.9223;1.4469;
340.5000;0.9239;1.4539;
340.8000;0.9231;1.4539;
341.1000;0.9247;1.4516;
341.4000;0.9231;1.4422;
341.7000;0.9239;1.4374;
342.0000;0.9231;1.4398;
342.3000;0.9231;1.4469;
342.6000;0.9231;1.4539;
342.9000;0.9231;1.4539;
343.2000;0.9239;1.4492;
343.5000;0.9239;1.4469;
343.8000;0.9198;1.4445;
344.1000;0.9214;1.4422;
344.4000;0.9223;1.4398;
344.7000;0.9206;1.4210;
345.0000;0.9223;1.4233;
345.3000;0.9190;1.4280;
345.6000;0.9239;1.4398;
345.9000;0.9223;1.4374;
346.2000;0.9239;1.4374;
346.5000;0.9223;1.4398;
346.8000;0.9239;1.4492;
347.1000;0.9231;1.4398;
347.4000;0.9239;1.4351;
347.7000;0.9206;1.4280;
348.0000;0.9231;1.4304;
348.3000;0.9223;1.4257;
348.6000;0.9206;1.4186;
348.9000;0.9231;1.4304;
349.2000;0.9198;1.4327;
349.5000;0.9239;1.4445;
349.8000;0.9214;1.4422;
350.1000;0.9206;1.4374;
350.4000;0.9231;1.4516;
350.7000;0.9239;1.4563;
351.0000;0.9223;1.4539;
351.3000;0.9223;1.4586;
351.6000;0.9223;1.4586;
351.9000;0.9247;1.4680;
352.2000;0.9231;1.4657;
352.5000;0.9223;1.4657;
352.8000;0.9214;1.4680;
353.1000;0.9231;1.4704;
353.4000;0.9247;1.4657;
353.7000;0.9223;1.4610;
354.0000;0.9223;1.4539;
354.3000;0.9223;1.4610;
354.6000;0.9182;1.4516;
354.9000;0.9214;1.4469;
355.2000;0.9223;1.4445;
355.5000;0.9223;1.4469;
355.8000;0.9223;1.4469;
356.1000;0.9214;1.4398;
356.4000;0.9190;1.4422;
356.7000;0.9190;1.4492;
357.0000;0.9239;1.4586;
357.3000;0.9231;1.4563;
357.6000;0.9190;1.4445;
357.9000;0.9206;1.4469;
358.2000;0.9214;1.4492;
358.5000;0.9247;1.4610;
358.8000;0.9174;1.4469;
359.1000;0.9198;1.4586;
359.4000;0.9214;1.4586;
359.7000;0.9214;1.4586;
360.0000;0.9214;1.4539;
360.3000;0.9198;1.4539;
360.6000;0.9206;1.4610;
360.9000;0.9223;1.4586;
361.2000;0.9206;1.4586;
361.5000;0.9206;1.4586;
361.8000;0.9190;1.4610;
362.1000;0.9158;1.4469;
362.4000;0.9223;1.4610;
362.7000;0.9223;1.4610;
363.0000;0.9231;1.4633;
363.3000;0.9247;1.4633;
363.6000;0.9206;1.4563;
363.9000;0.9223;1.4586;
364.2000;0.9214;1.4539;
364.5000;0.9231;1.4680;
364.8000;0.9239;1.4704;
365.1000;0.9214;1.4610;
365.4000;0.9239;1.4539;
365.7000;0.9214;1.4516;
366.0000;0.9239;1.4563;
366.3000;0.9239;1.4539;
366.6000;0.9223;1.4516;
366.9000;0.9214;1.4445;
367.2000;0.9239;1.4586;
367.5000;0.9280;1.4610;
367.8000;0.9231;1.4469;
368.1000;0.9214;1.4516;
368.4000;0.9231;1.4469;
368.7000;0.9231;1.4539;
369.0000;0.9231;1.4492;
369.3000;0.9214;1.4492;
369.6000;0.9198;1.4469;
369.9000;0.9206;1.4469;
370.2000;0.9223;1.4516;
370.5000;0.9223;1.4492;
370.8000;0.9206;1.4374;
371.1000;0.9206;1.4233;
371.4000;0.9223;1.4304;
371.7000;0.9206;1.4351;
372.0000;0.9223;1.4374;
372.3000;0.9231;1.4445;
372.6000;0.9206;1.4374;
372.9000;0.9214;1.4351;
373.2000;0.9214;1.4327;
373.5000;0.9223;1.4327;
373.8000;0.9231;1.4280;
374.1000;0.9214;1.4186;
374.4000;0.9214;1.4210;
374.7000;0.9223;1.4257;
375.0000;0.9214;1.4163;
375.3000;0.9198;1.4186;
375.6000;0.9206;1.4280;
375.9000;0.9214;1.4351;
376.2000;0.9231;1.4445;
376.5000;0.9223;1.4445;
376.8000;0.9231;1.4398;
377.1000;0.9223;1.4374;
377.4000;0.9214;1.4304;
377.7000;0.9231;1.4398;
378.0000;0.9214;1.4304;
378.3000;0.9198;1.4233;
378.6000;0.9223;1.4233;
378.9000;0.9190;1.4163;
379.2000;0.9223;1.4163;
379.5000;0.9214;1.4139;
379.8000;0.9239;1.4210;
380.1000;0.9223;1.4210;
380.4000;0.9255;1.4398;
380.7000;0.9206;1.4304;
381.0000;0.9263;1.4351;
381.3000;0.9198;1.4186;
381.6000;0.9247;1.4327;
381.9000;0.9198;1.4139;
382.2000;0.9214;1.4116;
382.5000;0.9223;1.4116;
382.8000;0.9231;1.4186;
383.1000;0.9214;1.4163;
383.4000;0.9206;1.4233;
383.7000;0.9231;1.4233;
384.0000;0.9247;1.4327;
384.3000;0.9223;1.4327;
384.6000;0.9223;1.4422;
384.9000;0.9182;1.4257;
385.2000;0.9206;1.4398;
385.5000;0.9223;1.4422;
385.8000;0.9206;1.4398;
386.1000;0.9190;1.4304;
386.4000;0.9231;1.4398;
386.7000;0.9223;1.4374;
387.0000;0.9206;1.4233;
387.3000;0.9214;1.4327;
387.6000;0.9223;1.4351;
387.9000;0.9223;1.4492;
388.2000;0.9206;1.4445;
388.5000;0.9206;1.4563;
388.8000;0.9214;1.4586;
389.1000;0.9231;1.4539;
389.4000;0.9214;1.4539;
389.7000;0.9198;1.4422;
390.0000;0.9166;1.4374;
390.3000;0.9206;1.4445;
390.6000;0.9206;1.4469;
390.9000;0.9214;1.4492;
391.2000;0.9190;1.4327;
391.5000;0.9198;1.4280;
391.8000;0.9214;1.4422;
392.1000;0.9206;1.4422;
392.4000;0.9109;1.4139;
392.7000;0.9214;1.4445;
393.0000;0.9092;1.4045;
393.3000;0.9190;1.4280;
393.6000;0.9206;1.4374;
393.9000;0.9214;1.4398;
394.2000;0.9206;1.4398;
394.5000;0.9223;1.4469;
394.8000;0.9231;1.4398;
395.1000;0.9198;1.4351;
395.4000;0.9206;1.4327;
395.7000;0.9214;1.4445;
396.0000;0.9190;1.4374;
396.3000;0.9206;1.4374;
396.6000;0.9239;1.4374;
396.9000;0.9206;1.4327;
397.2000;0.9206;1.4280;
397.5000;0.9214;1.4233;
397.8000;0.9206;1.4327;
398.1000;0.9231;1.4398;
398.4000;0.9231;1.4304;
398.7000;0.9231;1.4304;
399.0000;0.9206;1.4304;
399.3000;0.9223;1.4445;
399.6000;0.9214;1.4445;
399.9000;0.9214;1.4304;
400.2000;0.9206;1.4280;
400.5000;0.9149;1.4116;
400.8000;0.9190;1.4280;
401.1000;0.9231;1.4445;
401.4000;0.9231;1.4445;
401.7000;0.9190;1.4374;
402.0000;0.9231;1.4398;
402.3000;0.9190;1.4280;
402.6000;0.9206;1.4304;
402.9000;0.9214;1.4327;
403.2000;0.9214;1.4422;
403.5000;0.9214;1.4374;
403.8000;0.9214;1.4422;
404.1000;0.9206;1.4280;
404.4000;0.9214;1.4280;
404.7000;0.9231;1.4257;
405.0000;0.9198;1.4280;
405.3000;0.9223;1.4304;
405.6000;0.9133;1.4163;
405.9000;0.9223;1.4469;
406.2000;0.9198;1.4422;
406.5000;0.9190;1.4492;
406.8000;0.9206;1.4469;
407.1000;0.9214;1.4539;
407.4000;0.9198;1.4539;
407.7000;0.9214;1.4516;
408.0000;0.9158;1.4398;
408.3000;0.9214;1.4492;
408.6000;0.9190;1.4445;
408.9000;0.9206;1.4374;
409.2000;0.9223;1.4351;
409.5000;0.9214;1.4327;
409.8000;0.9223;1.4280;
410.1000;0.9231;1.4210;
410.4000;0.9231;1.4280;
410.7000;0.9214;1.4327;
411.0000;0.9206;1.4280;
411.3000;0.9206;1.4210;
411.6000;0.9133;1.4116;
411.9000;0.9206;1.4327;
412.2000;0.9231;1.4374;
412.5000;0.9190;1.4327;
412.8000;0.9198;1.4351;
413.1000;0.9223;1.4398;
413.4000;0.9231;1.4422;
413.7000;0.9223;1.4445;
414.0000;0.9206;1.4445;
414.3000;0.9198;1.4445;
414.6000;0.9198;1.4516;
414.9000;0.9206;1.4445;
415.2000;0.9182;1.4374;
415.5000;0.9158;1.4374;
415.8000;0.9206;1.4422;
416.1000;0.9206;1.4398;
416.4000;0.9206;1.4327;
416.7000;0.9198;1.4327;
417.0000;0.9198;1.4327;
417.3000;0.9198;1.4327;
417.6000;0.9206;1.4280;
417.9000;0.9198;1.4233;
418.2000;0.9206;1.4327;
418.5000;0.9223;1.4422;
418.8000;0.9158;1.4304;
419.1000;0.9198;1.4469;
419.4000;0.9198;1.4492;
419.7000;0.9174;1.4469;
420.0000;0.9182;1.4469;
420.3000;0.9198;1.4539;
420.6000;0.9190;1.4492;
420.9000;0.9231;1.4516;
421.2000;0.9190;1.4398;
421.5000;0.9206;1.4445;
421.8000;0.9206;1.4422;
422.1000;0.9198;1.4351;
422.4000;0.9214;1.4280;
422.7000;0.9223;1.4233;
423.0000;0.9214;1.4116;
423.3000;0.9198;1.4022;
423.6000;0.9182;1.4045;
423.9000;0.9231;1.4233;
424.2000;0.9214;1.4304;
424.5000;0.9206;1.4327;
424.8000;0.9206;1.4398;
425.1000;0.9223;1.4469;
425.4000;0.9206;1.4469;
425.7000;0.9206;1.4445;
426.0000;0.9166;1.4445;
426.3000;0.9206;1.4516;
426.6000;0.9198;1.4516;
426.9000;0.9198;1.4586;
427.2000;0.9206;1.4492;
427.5000;0.9206;1.4516;
427.8000;0.9190;1.4539;
428.1000;0.9231;1.4657;
428.4000;0.9198;1.4539;
428.7000;0.9206;1.4657;
429.0000;0.9214;1.4633;
429.3000;0.9198;1.4516;
429.6000;0.9190;1.4539;
429.9000;0.9214;1.4516;
430.2000;0.9158;1.4398;
430.5000;0.9149;1.4374;
430.8000;0.9182;1.4563;
431.1000;0.9198;1.4563;
431.4000;0.9206;1.4586;
431.7000;0.9214;1.4516;
432.0000;0.9182;1.4445;
432.3000;0.9198;1.4469;
432.6000;0.9198;1.4422;
432.9000;0.9198;1.4516;
433.2000;0.9206;1.4539;
433.5000;0.9223;1.4563;
433.8000;0.9214;1.4539;
434.1000;0.9231;1.4563;
434.4000;0.9255;1.4539;
434.7000;0.9206;1.4398;
435.0000;0.9174;1.4327;
435.3000;0.9223;1.4398;
435.6000;0.9214;1.4398;
435.9000;0.9206;1.4351;
436.2000;0.9198;1.4351;
436.5000;0.9231;1.4516;
436.8000;0.9206;1.4516;
437.1000;0.9198;1.4539;
437.4000;0.9223;1.4610;
437.7000;0.9198;1.4539;
438.0000;0.9255;1.4610;
438.3000;0.9182;1.4445;
438.6000;0.9198;1.4516;
438.9000;0.9206;1.4539;
439.2000;0.9198;1.4492;
439.5000;0.9182;1.4445;
439.8000;0.9223;1.4469;
440.1000;0.9190;1.4351;
440.4000;0.9214;1.4398;
440.7000;0.9206;1.4304;
441.0000;0.9198;1.4351;
441.3000;0.9190;1.4257;
441.6000;0.9182;1.4327;
441.9000;0.9206;1.4422;
442.2000;0.9190;1.4280;
442.5000;0.9223;1.4280;
442.8000;0.9223;1.4398;
443.1000;0.9214;1.4469;
443.4000;0.9231;1.4586;
443.7000;0.9247;1.4539;
444.0000;0.9174;1.4398;
444.3000;0.9214;1.4374;
444.6000;0.9198;1.4257;
444.9000;0.9223;1.4280;
445.2000;0.9182;1.4351;
445.5000;0.9214;1.4398;
445.8000;0.9206;1.4422;
446.1000;0.9328;1.4680;
446.4000;0.9214;1.4469;
446.7000;0.9214;1.4469;
447.0000;0.9223;1.4422;
447.3000;0.9206;1.4445;
447.6000;0.9255;1.4610;
447.9000;0.9214;1.4492;
448.2000;0.9198;1.4469;
448.5000;0.9214;1.4539;
448.8000;0.9182;1.4422;
449.1000;0.9206;1.4516;
449.4000;0.9190;1.4469;
449.7000;0.9190;1.4445;
450.0000;0.9141;1.4398;
450.3000;0.9214;1.4469;
450.6000;0.9263;1.4704;
450.9000;0.9223;1.4633;
451.2000;0.9223;1.4563;
451.5000;0.9206;1.4586;
451.8000;0.9206;1.4469;
452.1000;0.9206;1.4422;
452.4000;0.9182;1.4422;
452.7000;0.9174;1.4398;
453.0000;0.9214;1.4422;
453.3000;0.9182;1.4351;
453.6000;0.9198;1.4422;
453.9000;0.9182;1.4327;
454.2000;0.9247;1.4469;
454.5000;0.9214;1.4374;
454.8000;0.9190;1.4398;
455.1000;0.9182;1.4351;
455.4000;0.9198;1.4445;
455.7000;0.9198;1.4422;
456.0000;0.9182;1.4422;
456.3000;0.9198;1.4445;
456.6000;0.9214;1.4422;
456.9000;0.9198;1.4422;
457.2000;0.9198;1.4445;
457.5000;0.9198;1.4563;
457.8000;0.9190;1.4516;
458.1000;0.9190;1.4492;
458.4000;0.9182;1.4422;
458.7000;0.9182;1.4398;
459.0000;0.9190;1.4351;
459.3000;0.9198;1.4327;
459.6000;0.9231;1.4398;
459.9000;0.9206;1.4422;
460.2000;0.9198;1.4469;
460.5000;0.9214;1.4563;
460.8000;0.9206;1.4539;
461.1000;0.9206;1.4539;
461.4000;0.9206;1.4492;
461.7000;0.9174;1.4445;
462.0000;0.9223;1.4563;
462.3000;0.9182;1.4492;
462.6000;0.9206;1.4445;
462.9000;0.9206;1.4492;
463.2000;0.9206;1.4445;
463.5000;0.9174;1.4351;
463.8000;0.9190;1.4445;
464.1000;0.9198;1.4492;
464.4000;0.9190;1.4445;
464.7000;0.9206;1.4516;
465.0000;0.9190;1.4539;
465.3000;0.9190;1.4469;
465.6000;0.9206;1.4539;
465.9000;0.9198;1.4516;
466.2000;0.9166;1.4422;
466.5000;0.9198;1.4492;
466.8000;0.9198;1.4563;
467.1000;0.9231;1.4633;
467.4000;0.9223;1.4563;
467.7000;0.9166;1.4445;
468.0000;0.9190;1.4516;
468.3000;0.9174;1.4374;
468.6000;0.9198;1.4398;
468.9000;0.9198;1.4351;
469.2000;0.9166;1.4398;
469.5000;0.9198;1.4351;
469.8000;0.9101;1.4069;
470.1000;0.9190;1.4257;
470.4000;0.9231;1.4327;
470.7000;0.9182;1.4257;
471.0000;0.9198;1.4327;
471.3000;0.9214;1.4374;
471.6000;0.9206;1.4398;
471.9000;0.9206;1.4304;
472.2000;0.9190;1.4351;
472.5000;0.9255;1.4563;
472.8000;0.9149;1.4422;
473.1000;0.9166;1.4539;
473.4000;0.9190;1.4539;
473.7000;0.9190;1.4563;
474.0000;0.9174;1.4563;
474.3000;0.9182;1.4610;
474.6000;0.9158;1.4539;
474.9000;0.9133;1.4398;
475.2000;0.9182;1.4492;
475.5000;0.9190;1.4586;
475.8000;0.9198;1.4539;
476.1000;0.9198;1.4539;
476.4000;0.9190;1.4563;
476.7000;0.9174;1.4469;
477.0000;0.9190;1.4563;
477.3000;0.9190;1.4586;
477.6000;0.9198;1.4633;
477.9000;0.9182;1.4610;
478.2000;0.9214;1.4586;
478.5000;0.9198;1.4492;
478.8000;0.9190;1.4422;
479.1000;0.9198;1.4398;
479.4000;0.9190;1.4422;
479.7000;0.9190;1.4422;
480.0000;0.9198;1.4422;
480.3000;0.9206;1.4398;
480.6000;0.9198;1.4398;
480.9000;0.9206;1.4280;
481.2000;0.9206;1.4422;
481.5000;0.9190;1.4492;
481.8000;0.9190;1.4469;
482.1000;0.9198;1.4398;
482.4000;0.9214;1.4539;
482.7000;0.9198;1.4586;
483.0000;0.9149;1.4422;
483.3000;0.9174;1.4445;
483.6000;0.9214;1.4469;
483.9000;0.9394;1.4939;
484.2000;0.9174;1.4445;
484.5000;0.9198;1.4422;
484.8000;0.9166;1.4351;
485.1000;0.9190;1.4445;
485.4000;0.9198;1.4469;
485.7000;0.9198;1.4351;
486.0000;0.9190;1.4351;
486.3000;0.9198;1.4374;
486.6000;0.9198;1.4422;
486.9000;0.9182;1.4445;
487.2000;0.9190;1.4445;
487.5000;0.9182;1.4422;
487.8000;0.9214;1.4469;
488.1000;0.9166;1.4398;
488.4000;0.9198;1.4398;
488.7000;0.9190;1.4422;
489.0000;0.9190;1.4445;
489.3000;0.9190;1.4445;
489.6000;0.9133;1.4280;
489.9000;0.9198;1.4422;
490.2000;0.9206;1.4422;
490.5000;0.9198;1.4374;
490.8000;0.9198;1.4469;
491.1000;0.9198;1.4445;
491.4000;0.9206;1.4398;
491.7000;0.9182;1.4398;
492.0000;0.9141;1.4374;
492.3000;0.9198;1.4539;
492.6000;0.9198;1.4469;
492.9000;0.9206;1.4539;
493.2000;0.9166;1.4516;
493.5000;0.9214;1.4563;
493.8000;0.9190;1.4422;
494.1000;0.9223;1.4516;
494.4000;0.9206;1.4469;
494.7000;0.9198;1.4445;
495.0000;0.9198;1.4422;
495.3000;0.9206;1.4563;
495.6000;0.9214;1.4516;
495.9000;0.9198;1.4469;
496.2000;0.9198;1.4492;
496.5000;0.9206;1.4469;
496.8000;0.9190;1.4469;
497.1000;0.9166;1.4445;
497.4000;0.9190;1.4445;
497.7000;0.9198;1.4445;
498.0000;0.9206;1.4327;
498.3000;0.9174;1.4280;
498.6000;0.9182;1.4327;
498.9000;0.9214;1.4445;
499.2000;0.9190;1.4398;
499.5000;0.9198;1.4445;
499.8000;0.9198;1.4422;
500.1000;0.9141;1.4304;
500.4000;0.9206;1.4398;
500.7000;0.9182;1.4304;
501.0000;0.9206;1.4374;
501.3000;0.9182;1.4374;
501.6000;0.9182;1.4374;
501.9000;0.9182;1.4398;
502.2000;0.9190;1.4469;
502.5000;0.9198;1.4492;
502.8000;0.9166;1.4422;
503.1000;0.9190;1.4516;
503.4000;0.9198;1.4586;
503.7000;0.9190;1.4610;
504.0000;0.9190;1.4516;
504.3000;0.9223;1.4539;
504.6000;0.9166;1.4422;
504.9000;0.9035;1.4139;
505.2000;0.9174;1.4492;
505.5000;0.9223;1.4633;
505.8000;0.9182;1.4610;
506.1000;0.9190;1.4633;
506.4000;0.9206;1.4704;
506.7000;0.9206;1.4657;
507.0000;0.9206;1.4586;
507.3000;0.9206;1.4633;
507.6000;0.9223;1.4704;
507.9000;0.9190;1.4610;
508.2000;0.9231;1.4563;
508.5000;0.9125;1.4233;
508.8000;0.9198;1.4445;
509.1000;0.9190;1.4469;
509.4000;0.9288;1.4751;
509.7000;0.9198;1.4469;
510.0000;0.9166;1.4516;
510.3000;0.9174;1.4469;
510.6000;0.9182;1.4469;
510.9000;0.9182;1.4469;
511.2000;0.9182;1.4492;
511.5000;0.9166;1.4422;
511.8000;0.9206;1.4539;
512.1000;0.9239;1.4563;
512.4000;0.9174;1.4422;
512.7000;0.9182;1.4445;
513.0000;0.9190;1.4398;
513.3000;0.9198;1.4445;
513.6000;0.9206;1.4492;
513.9000;0.9141;1.4280;
514.2000;0.9182;1.4445;
514.5000;0.9190;1.4516;
514.8000;0.9158;1.4492;
515.1000;0.9182;1.4539;
515.4000;0.9182;1.4586;
515.7000;0.9190;1.4586;
516.0000;0.9149;1.4563;
516.3000;0.9247;1.4774;
516.6000;0.9182;1.4610;
516.9000;0.9182;1.4516;
517.2000;0.9182;1.4516;
517.5000;0.9190;1.4586;
517.8000;0.9182;1.4586;
518.1000;0.9214;1.4633;
518.4000;0.9206;1.4563;
518.7000;0.9206;1.4563;
519.0000;0.9190;1.4492;
519.3000;0.9198;1.4516;
519.6000;0.9190;1.4516;
519.9000;0.9214;1.4539;
520.2000;0.9198;1.4610;
520.5000;0.9174;1.4633;
520.8000;0.9190;1.4680;
521.1000;0.9231;1.4774;
521.4000;0.9190;1.4774;
521.7000;0.9174;1.4704;
522.0000;0.9190;1.4657;
522.3000;0.9174;1.4633;
522.6000;0.9158;1.4539;
522.9000;0.9182;1.4586;
523.2000;0.9206;1.4680;
523.5000;0.9198;1.4657;
523.8000;0.9214;1.4774;
524.1000;0.9158;1.4610;
524.4000;0.9198;1.4774;
524.7000;0.9296;1.5010;
525.0000;0.9174;1.4798;
525.3000;0.9174;1.4869;
525.6000;0.9182;1.4821;
525.9000;0.9182;1.4774;
526.2000;0.9198;1.4869;
526.5000;0.9190;1.4892;
526.8000;0.9182;1.4821;
527.1000;0.9198;1.4892;
527.4000;0.9182;1.4751;
527.7000;0.9239;1.4845;
528.0000;0.9166;1.4610;
528.3000;0.9149;1.4563;
528.6000;0.9190;1.4680;
528.9000;0.9206;1.4704;
529.2000;0.9182;1.4657;
529.5000;0.9239;1.4798;
529.8000;0.9182;1.4704;
530.1000;0.9182;1.4751;
530.4000;0.9190;1.4751;
530.7000;0.9182;1.4680;
531.0000;0.9190;1.4727;
531.3000;0.9206;1.4657;
531.6000;0.9190;1.4680;
531.9000;0.9166;1.4586;
532.2000;0.9190;1.4563;
532.5000;0.9174;1.4586;
532.8000;0.9198;1.4586;
533.1000;0.9263;1.4774;
533.4000;0.9182;1.4610;
533.7000;0.9182;1.4610;
534.0000;0.9198;1.4633;
534.3000;0.9198;1.4633;
534.6000;0.9190;1.4610;
534.9000;0.9198;1.4586;
535.2000;0.9158;1.4469;
535.5000;0.9198;1.4539;
535.8000;0.9182;1.4539;
536.1000;0.9206;1.4563;
536.4000;0.9190;1.4563;
536.7000;0.9206;1.4610;
537.0000;0.9198;1.4610;
537.3000;0.9271;1.4727;
537.6000;0.9198;1.4539;
537.9000;0.9206;1.4516;
538.2000;0.9174;1.4398;
538.5000;0.9182;1.4374;
538.8000;0.9190;1.4422;
539.1000;0.9174;1.4422;
539.4000;0.9174;1.4422;
539.7000;0.9174;1.4492;
540.0000;0.9198;1.4516;
540.3000;0.9166;1.4516;
540.6000;0.9214;1.4610;
540.9000;0.9206;1.4610;
541.2000;0.9198;1.4539;
541.5000;0.9190;1.4516;
541.8000;0.9198;1.4610;
542.1000;0.9206;1.4633;
542.4000;0.9174;1.4492;
542.7000;0.9198;1.4539;
543.0000;0.9190;1.4539;
543.3000;0.9182;1.4633;
543.6000;0.9223;1.4704;
543.9000;0.9198;1.4586;
544.2000;0.9206;1.4586;
544.5000;0.9174;1.4563;
544.8000;0.9198;1.4586;
545.1000;0.9255;1.4774;
545.4000;0.9198;1.4563;
545.7000;0.9149;1.4327;
546.0000;0.9174;1.4469;
546.3000;0.9182;1.4586;
546.6000;0.9158;1.4633;
546.9000;0.9174;1.4586;
547.2000;0.9190;1.4563;
547.5000;0.9174;1.4516;
547.8000;0.9190;1.4563;
548.1000;0.9190;1.4422;
548.4000;0.9174;1.4374;
548.7000;0.9214;1.4492;
549.0000;0.9198;1.4374;
549.3000;0.9190;1.4374;
549.6000;0.9190;1.4351;
549.9000;0.9182;1.4280;
550.2000;0.9190;1.4210;
550.5000;0.9190;1.4163;
550.8000;0.9198;1.4186;
551.1000;0.9174;1.4233;
551.4000;0.9182;1.4257;
551.7000;0.9174;1.4304;
552.0000;0.9166;1.4280;
552.3000;0.9174;1.4304;
552.6000;0.9174;1.4327;
552.9000;0.9182;1.4304;
553.2000;0.9190;1.4280;
553.5000;0.9239;1.4445;
553.8000;0.9198;1.4422;
554.1000;0.9182;1.4351;
554.4000;0.9198;1.4469;
554.7000;0.9198;1.4492;
555.0000;0.9206;1.4469;
555.3000;0.9166;1.4374;
555.6000;0.9223;1.4492;
555.9000;0.9198;1.4374;
556.2000;0.9174;1.4351;
556.5000;0.9174;1.4351;
556.8000;0.9190;1.4422;
557.1000;0.9198;1.4492;
557.4000;0.9182;1.4469;
557.7000;0.9198;1.4445;
558.0000;0.9198;1.4351;
558.3000;0.9174;1.4280;
558.6000;0.9214;1.4233;
558.9000;0.9182;1.4210;
559.2000;0.9174;1.4280;
559.5000;0.9214;1.4280;
559.8000;0.9174;1.4233;
560.1000;0.9198;1.4304;
560.4000;0.9182;1.4327;
560.7000;0.9158;1.4280;
561.0000;0.9182;1.4374;
561.3000;0.9231;1.4469;
561.6000;0.9174;1.4398;
561.9000;0.9182;1.4445;
562.2000;0.9174;1.4327;
562.5000;0.9174;1.4233;
562.8000;0.9190;1.4233;
563.1000;0.9206;1.4327;
563.4000;0.9190;1.4351;
563.7000;0.9190;1.4422;
564.0000;0.9190;1.4469;
564.3000;0.9198;1.4539;
564.6000;0.9158;1.4327;
564.9000;0.9198;1.4327;
565.2000;0.9174;1.4327;
565.5000;0.9214;1.4469;
565.8000;0.9190;1.4374;
566.1000;0.9182;1.4374;
566.4000;0.9190;1.4374;
566.7000;0.9166;1.4280;
567.0000;0.9133;1.4280;
567.3000;0.9190;1.4351;
567.6000;0.9182;1.4374;
567.9000;0.9182;1.4422;
568.2000;0.9166;1.4469;
568.5000;0.9198;1.4539;
568.8000;0.9182;1.4469;
569.1000;0.9198;1.4422;
569.4000;0.9182;1.4374;
569.7000;0.9158;1.4374;
570.0000;0.9141;1.4327;
570.3000;0.9174;1.4374;
570.6000;0.9158;1.4422;
570.9000;0.9182;1.4539;
571.2000;0.9174;1.4586;
571.5000;0.9158;1.4539;
571.8000;0.9174;1.4516;
572.1000;0.9166;1.4469;
572.4000;0.9190;1.4469;
572.7000;0.9214;1.4586;
573.0000;0.9182;1.4563;
573.3000;0.9174;1.4422;
573.6000;0.9182;1.4469;
573.9000;0.9190;1.4516;
574.2000;0.9198;1.4516;
574.5000;0.9190;1.4539;
574.8000;0.9182;1.4539;
575.1000;0.9190;1.4563;
575.4000;0.9174;1.4539;
575.7000;0.9149;1.4445;
576.0000;0.9166;1.4445;
576.3000;0.9206;1.4445;
576.6000;0.9198;1.4374;
576.9000;0.9190;1.4422;
577.2000;0.9190;1.4469;
577.5000;0.9141;1.4374;
577.8000;0.9206;1.4492;
578.1000;0.9182;1.4492;
578.4000;0.9182;1.4563;
578.7000;0.9190;1.4516;
579.0000;0.9214;1.4563;
579.3000;0.9206;1.4610;
579.6000;0.9190;1.4539;
579.9000;0.9198;1.4563;
580.2000;0.9182;1.4539;
580.5000;0.9214;1.4704;
580.8000;0.9182;1.4657;
581.1000;0.9174;1.4704;
581.4000;0.9182;1.4774;
581.7000;0.9198;1.4869;
582.0000;0.9182;1.4704;
582.3000;0.9198;1.4704;
582.6000;0.9182;1.4633;
582.9000;0.9190;1.4633;
583.2000;0.9231;1.4774;
583.5000;0.9182;1.4727;
583.8000;0.9206;1.4798;
584.1000;0.9174;1.4727;
584.4000;0.9198;1.4680;
584.7000;0.9247;1.4751;
585.0000;0.9190;1.4539;
585.3000;0.9206;1.4492;
585.6000;0.9214;1.4563;
585.9000;0.9190;1.4586;
586.2000;0.9198;1.4657;
586.5000;0.9174;1.4586;
586.8000;0.9198;1.4633;
587.1000;0.9182;1.4563;
587.4000;0.9158;1.4469;
587.7000;0.9206;1.4563;
588.0000;0.9174;1.4492;
588.3000;0.9166;1.4445;
588.6000;0.9182;1.4422;
588.9000;0.9198;1.4445;
589.2000;0.9182;1.4516;
589.5000;0.9158;1.4469;
589.8000;0.9166;1.4422;
590.1000;0.9190;1.4469;
590.4000;0.9166;1.4469;
590.7000;0.9182;1.4469;
591.0000;0.9198;1.4469;
591.3000;0.9182;1.4445;
591.6000;0.9198;1.4492;
591.9000;0.9190;1.4492;
592.2000;0.9174;1.4539;
592.5000;0.9174;1.4539;
592.8000;0.9190;1.4539;
593.1000;0.9190;1.4539;
593.4000;0.9158;1.4586;
593.7000;0.9182;1.4657;
594.0000;0.9166;1.4751;
594.3000;0.9198;1.4727;
594.6000;0.9174;1.4610;
594.9000;0.9174;1.4610;
595.2000;0.9182;1.4610;
595.5000;0.9158;1.4539;
595.8000;0.9174;1.4633;
596.1000;0.9182;1.4610;
596.4000;0.9182;1.4680;
596.7000;0.9174;1.4586;
597.0000;0.9190;1.4516;
597.3000;0.9206;1.4586;
597.6000;0.9190;1.4586;
597.9000;0.9125;1.4445;
598.2000;0.9182;1.4610;
598.5000;0.9166;1.4539;
598.8000;0.9141;1.4422;
599.1000;0.9182;1.4586;
599.4000;0.9174;1.4633;
599.7000;0.9182;1.4586;
600.0000;0.9182;1.4398;
600.3000;0.9214;1.4469;
600.6000;0.9109;1.4280;
600.9000;0.8987;1.4092;
601.2000;0.8856;1.3904;
601.5000;0.8718;1.3645;
601.8000;0.8588;1.3386;
602.1000;0.8425;1.3222;
602.4000;0.8205;1.2916;
602.7000;0.8189;1.2986;
603.0000;0.8059;1.2798;
603.3000;0.7945;1.2634;
603.6000;0.7839;1.2445;
603.9000;0.7749;1.2187;
604.2000;0.7643;1.2092;
604.5000;0.7603;1.1998;
604.8000;0.7497;1.1810;
605.1000;0.7383;1.1551;
605.4000;0.7359;1.1575;
605.7000;0.7261;1.1316;
606.0000;0.7212;1.1222;
606.3000;0.7179;1.1222;
606.6000;0.7139;1.1198;
606.9000;0.7074;1.1198;
607.2000;0.7074;1.1269;
607.5000;0.6976;1.1104;
607.8000;0.6919;1.1034;
608.1000;0.6927;1.1104;
608.4000;0.6846;1.0893;
608.7000;0.6797;1.0798;
609.0000;0.6772;1.0798;
609.3000;0.6740;1.0822;
609.6000;0.6675;1.0775;
609.9000;0.6626;1.0728;
610.2000;0.6602;1.0728;
610.5000;0.6585;1.0822;
610.8000;0.6545;1.0846;
611.1000;0.6569;1.0869;
611.4000;0.6488;1.0610;
611.7000;0.6463;1.0540;
612.0000;0.6439;1.0516;
612.3000;0.6414;1.0422;
612.6000;0.6374;1.0446;
612.9000;0.6365;1.0493;
613.2000;0.6333;1.0375;
613.5000;0.6300;1.0351;
613.8000;0.6268;1.0304;
614.1000;0.6260;1.0446;
614.4000;0.6235;1.0469;
614.7000;0.6195;1.0422;
615.0000;0.6170;1.0328;
615.3000;0.6154;1.0210;
615.6000;0.6146;1.0234;
615.9000;0.6113;1.0163;
616.2000;0.6121;1.0257;
616.5000;0.6064;1.0257;
616.8000;0.6081;1.0187;
617.1000;0.6064;1.0281;
617.4000;0.6032;1.0234;
617.7000;0.6064;1.0328;
618.0000;0.5991;1.0163;
618.3000;0.5975;1.0187;
618.6000;0.5975;1.0210;
618.9000;0.5910;1.0093;
619.2000;0.5926;1.0210;
619.5000;0.5918;1.0257;
619.8000;0.5910;1.0257;
620.1000;0.5861;1.0187;
620.4000;0.5877;1.0210;
620.7000;0.5877;1.0281;
621.0000;0.5796;1.0210;
621.3000;0.5820;1.0304;
621.6000;0.5812;1.0304;
621.9000;0.5763;1.0187;
622.2000;0.5796;1.0257;
622.5000;0.5771;1.0281;
622.8000;0.5788;1.0328;
623.1000;0.5812;1.0328;
623.4000;0.5755;1.0210;
623.7000;0.5731;1.0187;
624.0000;0.5682;0.9999;
624.3000;0.5731;1.0187;
624.6000;0.5714;1.0257;
624.9000;0.5698;1.0281;
625.2000;0.5682;1.0304;
625.5000;0.5641;1.0163;
625.8000;0.5657;1.0187;
626.1000;0.5665;1.0116;
626.4000;0.5649;1.0046;
626.7000;0.5633;1.0069;
627.0000;0.5608;1.0069;
627.3000;0.5625;1.0163;
627.6000;0.5617;1.0022;
627.9000;0.5600;1.0046;
628.2000;0.5584;1.0093;
628.5000;0.5592;1.0093;
628.8000;0.5584;1.0046;
629.1000;0.5551;0.9999;
629.4000;0.5568;0.9999;
629.7000;0.5584;0.9999;
630.0000;0.5527;0.9975;
630.3000;0.5519;0.9999;
630.6000;0.5535;0.9975;
630.9000;0.5543;0.9904;
631.2000;0.5519;0.9904;
631.5000;0.5486;0.9857;
631.8000;0.5495;0.9881;
632.1000;0.5470;0.9834;
632.4000;0.5511;0.9881;
632.7000;0.5478;0.9763;
633.0000;0.5503;0.9928;
633.3000;0.5478;0.9928;
633.6000;0.5495;0.9881;
633.9000;0.5462;0.9881;
634.2000;0.5462;0.9975;
634.5000;0.5462;0.9975;
634.8000;0.5470;0.9999;
635.1000;0.5495;1.0069;
635.4000;0.5454;1.0046;
635.7000;0.5438;1.0116;
636.0000;0.5429;1.0093;
636.3000;0.5438;1.0140;
636.6000;0.5421;1.0046;
636.9000;0.5372;1.0022;
637.2000;0.5446;1.0093;
637.5000;0.5405;1.0022;
637.8000;0.5421;0.9952;
638.1000;0.5438;0.9928;
638.4000;0.5413;0.9740;
638.7000;0.5478;1.0046;
639.0000;0.5332;0.9810;
639.3000;0.5381;0.9952;
639.6000;0.5372;0.9975;
639.9000;0.5372;1.0022;
640.2000;0.5381;1.0116;
640.5000;0.5267;0.9810;
640.8000;0.5340;1.0022;
641.1000;0.5283;0.9928;
641.4000;0.5340;1.0093;
641.7000;0.5364;1.0093;
642.0000;0.5332;1.0022;
642.3000;0.5364;1.0069;
642.6000;0.5340;0.9999;
642.9000;0.5356;1.0022;
643.2000;0.5324;0.9928;
643.5000;0.5324;0.9904;
643.8000;0.5348;0.9952;
644.1000;0.5324;0.9952;
644.4000;0.5315;0.9857;
644.7000;0.5315;0.9952;
645.0000;0.5372;1.0093;
645.3000;0.5283;0.9975;
645.6000;0.5283;0.9952;
645.9000;0.5275;0.9928;
646.2000;0.5291;0.9881;
646.5000;0.5250;0.9857;
646.8000;0.5324;1.0046;
647.1000;0.5275;0.9952;
647.4000;0.5275;1.0046;
647.7000;0.5291;0.9999;
648.0000;0.5258;0.9928;
648.3000;0.5258;0.9904;
648.6000;0.5307;1.0140;
648.9000;0.5267;1.0093;
649.2000;0.5283;1.0140;
649.5000;0.5258;1.0093;
649.8000;0.5258;1.0093;
650.1000;0.5226;1.0069;
650.4000;0.5242;1.0163;
650.7000;0.5234;1.0140;
651.0000;0.5267;1.0187;
651.3000;0.5234;1.0140;
651.6000;0.5258;1.0163;
651.9000;0.5275;1.0281;
652.2000;0.5234;1.0140;
652.5000;0.5234;1.0163;
652.8000;0.5218;1.0210;
653.1000;0.5234;1.0257;
653.4000;0.5218;1.0210;
653.7000;0.5210;1.0069;
654.0000;0.5226;1.0093;
654.3000;0.5210;1.0022;
654.6000;0.5177;0.9834;
654.9000;0.5210;0.9857;
655.2000;0.5201;0.9881;
655.5000;0.5210;0.9881;
655.8000;0.5201;0.9857;
656.1000;0.5201;0.9810;
656.4000;0.5193;0.9740;
656.7000;0.5210;0.9787;
657.0000;0.5169;0.9857;
657.3000;0.5169;0.9834;
657.6000;0.5161;0.9834;
657.9000;0.5177;0.9881;
658.2000;0.5169;0.9857;
658.5000;0.5161;0.9787;
658.8000;0.5161;0.9881;
659.1000;0.5177;0.9975;
659.4000;0.5161;1.0046;
659.7000;0.5161;0.9975;
660.0000;0.5144;0.9952;
660.3000;0.5144;0.9928;
660.6000;0.5153;0.9928;
660.9000;0.5128;0.9928;
661.2000;0.5136;0.9952;
661.5000;0.5136;0.9952;
661.8000;0.5161;1.0022;
662.1000;0.5136;0.9952;
662.4000;0.5153;0.9975;
662.7000;0.5096;0.9787;
663.0000;0.5153;0.9975;
663.3000;0.5128;1.0022;
663.6000;0.5088;0.9952;
663.9000;0.5128;1.0116;
664.2000;0.5120;1.0116;
664.5000;0.5169;1.0140;
664.8000;0.5112;0.9928;
665.1000;0.5088;0.9810;
665.4000;0.5096;0.9834;
665.7000;0.5088;0.9834;
666.0000;0.5120;0.9881;
666.3000;0.5096;0.9857;
666.6000;0.5128;0.9857;
666.9000;0.5088;0.9834;
667.2000;0.5096;0.9834;
667.5000;0.5088;0.9787;
667.8000;0.5063;0.9763;
668.1000;0.5088;0.9904;
668.4000;0.5088;1.0022;
668.7000;0.5071;0.9952;
669.0000;0.5063;0.9975;
669.3000;0.5104;1.0022;
669.6000;0.5201;1.0281;
669.9000;0.5071;1.0022;
670.2000;0.5079;0.9975;
670.5000;0.5071;0.9928;
670.8000;0.5063;0.9904;
671.1000;0.5063;0.9904;
671.4000;0.5071;0.9952;
671.7000;0.5047;0.9952;
672.0000;0.5071;0.9904;
672.3000;0.5071;0.9881;
672.6000;0.5088;0.9928;
672.9000;0.5071;0.9834;
673.2000;0.5071;0.9787;
673.5000;0.5071;0.9763;
673.8000;0.5055;0.9740;
674.1000;0.5063;0.9857;
674.4000;0.5063;0.9857;
674.7000;0.5071;0.9857;
675.0000;0.5047;0.9857;
675.3000;0.4974;0.9881;
675.6000;0.5071;1.0069;
675.9000;0.5047;1.0022;
676.2000;0.5055;1.0116;
676.5000;0.5055;1.0163;
676.8000;0.5031;1.0046;
677.1000;0.5039;1.0046;
677.4000;0.5039;1.0022;
677.7000;0.5022;1.0022;
678.0000;0.5063;1.0210;
678.3000;0.5031;1.0116;
678.6000;0.5014;1.0210;
678.9000;0.5063;1.0257;
679.2000;0.5031;1.0163;
679.5000;0.5014;1.0210;
679.8000;0.5039;1.0210;
680.1000;0.5022;1.0210;
680.4000;0.5022;1.0257;
680.7000;0.5031;1.0234;
681.0000;0.5104;1.0375;
681.3000;0.5039;1.0257;
681.6000;0.5006;1.0234;
681.9000;0.5022;1.0257;
682.2000;0.5022;1.0210;
682.5000;0.5055;1.0257;
682.8000;0.5006;1.0116;
683.1000;0.4990;1.0163;
683.4000;0.5014;1.0234;
683.7000;0.5014;1.0281;
684.0000;0.4998;1.0281;
684.3000;0.4990;1.0163;
684.6000;0.4900;0.9904;
684.9000;0.4990;1.0116;
685.2000;0.4998;1.0093;
685.5000;0.4965;1.0140;
685.8000;0.4990;1.0210;
686.1000;0.4990;1.0187;
686.4000;0.4982;1.0210;
686.7000;0.4957;1.0069;
687.0000;0.4982;1.0187;
687.3000;0.4990;1.0234;
687.6000;0.4982;1.0116;
687.9000;0.4949;1.0093;
688.2000;0.4974;1.0187;
688.5000;0.4990;1.0163;
688.8000;0.4982;1.0257;
689.1000;0.4982;1.0210;
689.4000;0.4965;1.0187;
689.7000;0.4965;1.0234;
690.0000;0.4974;1.0210;
690.3000;0.4965;1.0163;
690.6000;0.4965;1.0257;
690.9000;0.4982;1.0351;
691.2000;0.4957;1.0328;
691.5000;0.4957;1.0375;
691.8000;0.4965;1.0281;
692.1000;0.4965;1.0210;
692.4000;0.4957;1.0257;
692.7000;0.4941;1.0163;
693.0000;0.4925;1.0069;
693.3000;0.4941;1.0210;
693.6000;0.4957;1.0210;
693.9000;0.4957;1.0257;
694.2000;0.4941;1.0257;
694.5000;0.4957;1.0257;
694.8000;0.4957;1.0234;
695.1000;0.4949;1.0257;
695.4000;0.4949;1.0281;
695.7000;0.4933;1.0234;
696.0000;0.4925;1.0234;
696.3000;0.4860;1.0069;
696.6000;0.4933;1.0304;
696.9000;0.4917;1.0187;
697.2000;0.4884;0.9975;
697.5000;0.4941;0.9999;
697.8000;0.4892;0.9975;
698.1000;0.4925;1.0140;
698.4000;0.4925;1.0116;
698.7000;0.4917;1.0163;
699.0000;0.4917;1.0093;
699.3000;0.4876;1.0022;
699.6000;0.4900;1.0093;
699.9000;0.4908;1.0163;
700.2000;0.4908;1.0281;
700.5000;0.4908;1.0399;
700.8000;0.4900;1.0375;
701.1000;0.4933;1.0469;
701.4000;0.4917;1.0375;
701.7000;0.4908;1.0399;
702.0000;0.4868;1.0328;
702.3000;0.4827;1.0210;
702.6000;0.4892;1.0234;
702.9000;0.4941;1.0304;
703.2000;0.4892;1.0093;
703.5000;0.4900;1.0140;
703.8000;0.4917;1.0140;
704.1000;0.4892;1.0069;
704.4000;0.4884;1.0046;
704.7000;0.4908;1.0069;
705.0000;0.4900;1.0140;
705.3000;0.4900;1.0116;
705.6000;0.4900;1.0140;
705.9000;0.4884;1.0187;
706.2000;0.4900;1.0210;
706.5000;0.4868;1.0116;
706.8000;0.4941;1.0210;
707.1000;0.4876;1.0163;
707.4000;0.4851;1.0163;
707.7000;0.4884;1.0257;
708.0000;0.4892;1.0351;
708.3000;0.4868;1.0234;
708.6000;0.4876;1.0163;
708.9000;0.4892;1.0187;
709.2000;0.4876;1.0187;
709.5000;0.4876;1.0187;
709.8000;0.4819;1.0116;
710.1000;0.4876;1.0257;
710.4000;0.4908;1.0304;
710.7000;0.4925;1.0375;
711.0000;0.4892;1.0351;
711.3000;0.4868;1.0281;
711.6000;0.4884;1.0281;
711.9000;0.4868;1.0234;
712.2000;0.4860;1.0281;
712.5000;0.4851;1.0210;
712.8000;0.4860;1.0257;
713.1000;0.4868;1.0304;
713.4000;0.4827;1.0140;
713.7000;0.4835;1.0140;
714.0000;0.4851;1.0140;
714.3000;0.4827;1.0163;
714.6000;0.4868;1.0187;
714.9000;0.4851;1.0140;
715.2000;0.4843;1.0046;
715.5000;0.4851;1.0116;
715.8000;0.4860;1.0140;
716.1000;0.4843;1.0116;
716.4000;0.4900;1.0187;
716.7000;0.4851;1.0116;
717.0000;0.4860;1.0069;
717.3000;0.4843;1.0140;
717.6000;0.4843;1.0187;
717.9000;0.4851;1.0281;
718.2000;0.4843;1.0187;
718.5000;0.4908;1.0328;
718.8000;0.4851;1.0234;
719.1000;0.4835;1.0210;
719.4000;0.4786;1.0116;
719.7000;0.4827;1.0281;
720.0000;0.4851;1.0234;
720.3000;0.4827;1.0210;
720.6000;0.4851;1.0304;
720.9000;0.4835;1.0351;
721.2000;0.4835;1.0328;
721.5000;0.4835;1.0399;
721.8000;0.4819;1.0422;
722.1000;0.4851;1.0422;
722.4000;0.4819;1.0281;
722.7000;0.4860;1.0304;
723.0000;0.4819;1.0187;
723.3000;0.4803;1.0210;
723.6000;0.4770;1.0093;
723.9000;0.4811;1.0281;
724.2000;0.4851;1.0281;
724.5000;0.4835;1.0234;
724.8000;0.4827;1.0281;
725.1000;0.4803;1.0304;
725.4000;0.4811;1.0375;
725.7000;0.4835;1.0351;
726.0000;0.4827;1.0351;
726.3000;0.4884;1.0493;
726.6000;0.4835;1.0446;
726.9000;0.4819;1.0446;
727.2000;0.4819;1.0422;
727.5000;0.4827;1.0399;
727.8000;0.4811;1.0304;
728.1000;0.4794;1.0304;
728.4000;0.4794;1.0281;
728.7000;0.4811;1.0304;
729.0000;0.4794;1.0210;
729.3000;0.4794;1.0257;
729.6000;0.4819;1.0257;
729.9000;0.4786;1.0234;
730.2000;0.4803;1.0328;
730.5000;0.4811;1.0210;
730.8000;0.4835;1.0234;
731.1000;0.4819;1.0116;
731.4000;0.4811;1.0022;
731.7000;0.4803;1.0140;
732.0000;0.4811;1.0210;
732.3000;0.4811;1.0234;
732.6000;0.4811;1.0304;
732.9000;0.4786;1.0281;
733.2000;0.4803;1.0375;
733.5000;0.4803;1.0446;
733.8000;0.4786;1.0540;
734.1000;0.4770;1.0422;
734.4000;0.4786;1.0422;
734.7000;0.4827;1.0469;
735.0000;0.4803;1.0399;
735.3000;0.4786;1.0375;
735.6000;0.4746;1.0210;
735.9000;0.4803;1.0399;
736.2000;0.4794;1.0399;
736.5000;0.4778;1.0304;
736.8000;0.4819;1.0446;
737.1000;0.4819;1.0469;
737.4000;0.4819;1.0540;
737.7000;0.4778;1.0281;
738.0000;0.4778;1.0234;
738.3000;0.4786;1.0281;
738.6000;0.4794;1.0257;
738.9000;0.4794;1.0328;
739.2000;0.4786;1.0304;
739.5000;0.4778;1.0281;
739.8000;0.4803;1.0328;
740.1000;0.4770;1.0234;
740.4000;0.4778;1.0210;
740.7000;0.4778;1.0140;
741.0000;0.4794;1.0140;
741.3000;0.4794;1.0163;
741.6000;0.4762;1.0140;
741.9000;0.4778;1.0187;
742.2000;0.4770;1.0187;
742.5000;0.4770;1.0140;
742.8000;0.4746;1.0046;
743.1000;0.4770;1.0022;
743.4000;0.4729;0.9881;
743.7000;0.4778;1.0069;
744.0000;0.4778;1.0069;
744.3000;0.4762;1.0022;
744.6000;0.4778;1.0069;
744.9000;0.4754;1.0046;
745.2000;0.4762;1.0140;
745.5000;0.4737;1.0187;
745.8000;0.4778;1.0234;
746.1000;0.4762;1.0187;
746.4000;0.4770;1.0187;
746.7000;0.4770;1.0140;
747.0000;0.4762;1.0187;
747.3000;0.4770;1.0351;
747.6000;0.4746;1.0375;
747.9000;0.4803;1.0540;
748.2000;0.4827;1.0587;
748.5000;0.4754;1.0375;
748.8000;0.4770;1.0399;
749.1000;0.4746;1.0257;
749.4000;0.4737;1.0257;
749.7000;0.4754;1.0210;
750.0000;0.4746;1.0281;
750.3000;0.4754;1.0328;
750.6000;0.4762;1.0257;
750.9000;0.4705;1.0069;
751.2000;0.4762;1.0187;
751.5000;0.4746;1.0116;
751.8000;0.4746;1.0140;
752.1000;0.4729;1.0116;
752.4000;0.4754;1.0210;
752.7000;0.4729;1.0116;
753.0000;0.4746;1.0163;
753.3000;0.4737;1.0187;
753.6000;0.4729;1.0140;
753.9000;0.4778;1.0234;
754.2000;0.4721;1.0116;
754.5000;0.4632;0.9952;
754.8000;0.4689;1.0069;
755.1000;0.4721;1.0116;
755.4000;0.4811;1.0281;
755.7000;0.4705;1.0093;
756.0000;0.4746;1.0163;
756.3000;0.4737;1.0210;
756.6000;0.4762;1.0351;
756.9000;0.4681;1.0163;
757.2000;0.4729;1.0234;
757.5000;0.4746;1.0281;
757.8000;0.4737;1.0210;
758.1000;0.4746;1.0234;
758.4000;0.4746;1.0187;
758.7000;0.4721;1.0140;
759.0000;0.4729;1.0163;
759.3000;0.4729;1.0187;
759.6000;0.4721;1.0234;
759.9000;0.4713;1.0187;
760.2000;0.4721;1.0257;
760.5000;0.4746;1.0328;
760.8000;0.4705;1.0140;
761.1000;0.4729;1.0163;
761.4000;0.4672;1.0046;
761.7000;0.4721;1.0210;
762.0000;0.4713;1.0210;
762.3000;0.4697;1.0187;
762.6000;0.4746;1.0375;
762.9000;0.4705;1.0399;
763.2000;0.4713;1.0281;
763.5000;0.4705;1.0281;
763.8000;0.4689;1.0281;
764.1000;0.4721;1.0351;
764.4000;0.4721;1.0375;
764.7000;0.4689;1.0375;
765.0000;0.4705;1.0375;
765.3000;0.4721;1.0399;
765.6000;0.4721;1.0399;
765.9000;0.4705;1.0328;
766.2000;0.4697;1.0210;
766.5000;0.4681;1.0140;
766.8000;0.4729;1.0234;
767.1000;0.4681;1.0093;
767.4000;0.4705;1.0210;
767.7000;0.4713;1.0257;
768.0000;0.4697;1.0187;
768.3000;0.4705;1.0163;
768.6000;0.4705;1.0210;
768.9000;0.4697;1.0163;
769.2000;0.4713;1.0234;
769.5000;0.4681;1.0163;
769.8000;0.4705;1.0304;
770.1000;0.4697;1.0257;
770.4000;0.4713;1.0281;
770.7000;0.4705;1.0234;
771.0000;0.4640;1.0046;
771.3000;0.4697;1.0163;
771.6000;0.4697;1.0257;
771.9000;0.4729;1.0469;
772.2000;0.4697;1.0422;
772.5000;0.4681;1.0399;
772.8000;0.4697;1.0351;
773.1000;0.4689;1.0281;
773.4000;0.4705;1.0351;
773.7000;0.4689;1.0375;
774.0000;0.4697;1.0328;
774.3000;0.4713;1.0422;
774.6000;0.4664;1.0257;
774.9000;0.4656;1.0281;
775.2000;0.4697;1.0469;
775.5000;0.4697;1.0446;
775.8000;0.4713;1.0422;
776.1000;0.4681;1.0375;
776.4000;0.4729;1.0563;
776.7000;0.4689;1.0540;
777.0000;0.4697;1.0563;
777.3000;0.4705;1.0540;
777.6000;0.4681;1.0516;
777.9000;0.4681;1.0493;
778.2000;0.4705;1.0563;
778.5000;0.4681;1.0422;
778.8000;0.4689;1.0351;
779.1000;0.4689;1.0304;
779.4000;0.4697;1.0328;
779.7000;0.4681;1.0328;
780.0000;0.4681;1.0446;
780.3000;0.4697;1.0469;
780.6000;0.4697;1.0422;
780.9000;0.4689;1.0634;
781.2000;0.4681;1.0681;
781.5000;0.4689;1.0587;
781.8000;0.4689;1.0422;
782.1000;0.4697;1.0540;
782.4000;0.4681;1.0516;
782.7000;0.4689;1.0540;
783.0000;0.4656;1.0516;
783.3000;0.4681;1.0587;
783.6000;0.4689;1.0610;
783.9000;0.4689;1.0516;
784.2000;0.4689;1.0469;
784.5000;0.4681;1.0446;
784.8000;0.4705;1.0540;
785.1000;0.4648;1.0375;
785.4000;0.4681;1.0493;
785.7000;0.4664;1.0493;
786.0000;0.4697;1.0493;
786.3000;0.4681;1.0375;
786.6000;0.4689;1.0493;
786.9000;0.4681;1.0446;
787.2000;0.4672;1.0469;
787.5000;0.4705;1.0540;
787.8000;0.4664;1.0375;
788.1000;0.4672;1.0328;
788.4000;0.4689;1.0328;
788.7000;0.4681;1.0304;
789.0000;0.4705;1.0375;
789.3000;0.4664;1.0328;
789.6000;0.4681;1.0375;
789.9000;0.4681;1.0422;
790.2000;0.4672;1.0375;
790.5000;0.4664;1.0351;
790.8000;0.4672;1.0257;
791.1000;0.4681;1.0281;
791.4000;0.4664;1.0304;
791.7000;0.4672;1.0234;
792.0000;0.4648;1.0210;
792.3000;0.4689;1.0328;
792.6000;0.4729;1.0446;
792.9000;0.4664;1.0234;
793.2000;0.4672;1.0281;
793.5000;0.4681;1.0399;
793.8000;0.4689;1.0493;
794.1000;0.4656;1.0351;
794.4000;0.4672;1.0399;
794.7000;0.4664;1.0351;
795.0000;0.4681;1.0422;
795.3000;0.4664;1.0375;
795.6000;0.4648;1.0399;
795.9000;0.4681;1.0422;
796.2000;0.4681;1.0328;
796.5000;0.4664;1.0234;
796.8000;0.4648;1.0140;
797.1000;0.4640;1.0046;
797.4000;0.4672;1.0022;
797.7000;0.4689;1.0046;
798.0000;0.4664;1.0022;
798.3000;0.4672;1.0069;
798.6000;0.4697;1.0187;
798.9000;0.4664;1.0022;
799.2000;0.4648;0.9975;
799.5000;0.4672;1.0093;
799.8000;0.4656;1.0093;
800.1000;0.4681;1.0140;
800.4000;0.4656;0.9999;
800.7000;0.4664;0.9975;
801.0000;0.4640;0.9928;
801.3000;0.4656;0.9881;
801.6000;0.4656;0.9904;
801.9000;0.4648;0.9928;
802.2000;0.4656;0.9952;
802.5000;0.4664;0.9904;
802.8000;0.4656;0.9928;
803.1000;0.4648;0.9857;
803.4000;0.4672;0.9857;
803.7000;0.4648;0.9857;
804.0000;0.4689;0.9975;
804.3000;0.4664;0.9928;
804.6000;0.4664;0.9857;
804.9000;0.4672;0.9881;
805.2000;0.4664;0.9810;
805.5000;0.4656;0.9904;
805.8000;0.4648;0.9952;
806.1000;0.4640;0.9904;
806.4000;0.4640;0.9904;
806.7000;0.4664;0.9904;
807.0000;0.4656;0.9857;
807.3000;0.4656;0.9881;
807.6000;0.4640;0.9952;
807.9000;0.4656;1.0069;
808.2000;0.4664;1.0116;
808.5000;0.4648;1.0046;
808.8000;0.4672;1.0140;
809.1000;0.4697;1.0281;
809.4000;0.4705;1.0234;
809.7000;0.4632;1.0069;
810.0000;0.4697;1.0257;
810.3000;0.4721;1.0281;
810.6000;0.4640;1.0022;
810.9000;0.4705;1.0093;
811.2000;0.4656;1.0022;
811.5000;0.4648;0.9999;
811.8000;0.4640;0.9881;
812.1000;0.4640;0.9881;
812.4000;0.4599;0.9834;
812.7000;0.4656;0.9975;
813.0000;0.4624;0.9857;
813.3000;0.4648;0.9904;
813.6000;0.4664;1.0069;
813.9000;0.4672;1.0069;
814.2000;0.4656;1.0069;
814.5000;0.4615;0.9999;
814.8000;0.4664;1.0093;
815.1000;0.4599;0.9928;
815.4000;0.4591;0.9810;
815.7000;0.4632;0.9928;
816.0000;0.4640;1.0069;
816.3000;0.4648;1.0187;
816.6000;0.4640;1.0116;
816.9000;0.4624;1.0069;
817.2000;0.4632;1.0046;
817.5000;0.4624;1.0022;
817.8000;0.4591;1.0022;
818.1000;0.4632;1.0069;
818.4000;0.4648;1.0093;
818.7000;0.4640;1.0116;
819.0000;0.4615;1.0163;
819.3000;0.4640;1.0257;
819.6000;0.4615;1.0304;
819.9000;0.4632;1.0187;
820.2000;0.4681;1.0281;
820.5000;0.4632;1.0163;
820.8000;0.4624;1.0116;
821.1000;0.4624;1.0046;
821.4000;0.4607;1.0022;
821.7000;0.4624;1.0116;
822.0000;0.4681;1.0304;
822.3000;0.4607;1.0116;
822.6000;0.4624;1.0187;
822.9000;0.4615;1.0210;
823.2000;0.4648;1.0140;
823.5000;0.4632;1.0163;
823.8000;0.4624;1.0140;
824.1000;0.4648;1.0163;
824.4000;0.4648;1.0187;
824.7000;0.4664;1.0140;
825.0000;0.4640;1.0069;
825.3000;0.4632;0.9999;
825.6000;0.4648;0.9999;
825.9000;0.4656;1.0069;
826.2000;0.4632;1.0022;
826.5000;0.4656;1.0116;
826.8000;0.4615;1.0022;
827.1000;0.4640;1.0187;
827.4000;0.4640;1.0234;
827.7000;0.4632;1.0210;
828.0000;0.4632;1.0304;
828.3000;0.4632;1.0281;
828.6000;0.4632;1.0328;
828.9000;0.4624;1.0351;
829.2000;0.4640;1.0351;
829.5000;0.4648;1.0375;
829.8000;0.4632;1.0351;
830.1000;0.4632;1.0399;
830.4000;0.4632;1.0399;
830.7000;0.4632;1.0351;
831.0000;0.4607;1.0257;
831.3000;0.4624;1.0281;
831.6000;0.4607;1.0210;
831.9000;0.4615;1.0234;
832.2000;0.4632;1.0304;
832.5000;0.4607;1.0257;
832.8000;0.4632;1.0281;
833.1000;0.4624;1.0210;
833.4000;0.4640;1.0234;
833.7000;0.4615;1.0210;
834.0000;0.4615;1.0281;
834.3000;0.4583;1.0210;
834.6000;0.4615;1.0328;
834.9000;0.4607;1.0304;
835.2000;0.4632;1.0422;
835.5000;0.4624;1.0351;
835.8000;0.4648;1.0351;
836.1000;0.4640;1.0257;
836.4000;0.4615;1.0328;
836.7000;0.4640;1.0446;
837.0000;0.4624;1.0351;
837.3000;0.4607;1.0281;
837.6000;0.4591;1.0304;
837.9000;0.4624;1.0257;
838.2000;0.4632;1.0281;
838.5000;0.4615;1.0234;
838.8000;0.4607;1.0163;
839.1000;0.4567;1.0210;
839.4000;0.4599;1.0328;
839.7000;0.4615;1.0351;
840.0000;0.4672;1.0422;
840.3000;0.4607;1.0257;
840.6000;0.4607;1.0328;
840.9000;0.4632;1.0328;
841.2000;0.4607;1.0304;
841.5000;0.4615;1.0304;
841.8000;0.4599;1.0257;
842.1000;0.4615;1.0210;
842.4000;0.4607;1.0234;
842.7000;0.4615;1.0304;
843.0000;0.4615;1.0375;
843.3000;0.4624;1.0328;
843.6000;0.4615;1.0375;
843.9000;0.4656;1.0469;
844.2000;0.4615;1.0328;
844.5000;0.4640;1.0446;
844.8000;0.4640;1.0351;
845.1000;0.4607;1.0187;
845.4000;0.4615;1.0234;
845.7000;0.4591;1.0210;
846.0000;0.4624;1.0328;
846.3000;0.4607;1.0163;
846.6000;0.4550;0.9975;
846.9000;0.4615;1.0187;
847.2000;0.4607;1.0210;
847.5000;0.4624;1.0187;
847.8000;0.4599;1.0116;
848.1000;0.4583;1.0046;
848.4000;0.4591;1.0046;
848.7000;0.4591;1.0069;
849.0000;0.4575;1.0187;
849.3000;0.4607;1.0281;
849.6000;0.4607;1.0351;
849.9000;0.4599;1.0281;
850.2000;0.4599;1.0351;
850.5000;0.4624;1.0422;
850.8000;0.4615;1.0399;
851.1000;0.4607;1.0422;
851.4000;0.4615;1.0540;
851.7000;0.4583;1.0469;
852.0000;0.4591;1.0516;
852.3000;0.4599;1.0375;
852.6000;0.4583;1.0375;
852.9000;0.4493;1.0022;
853.2000;0.4607;1.0328;
853.5000;0.4583;1.0351;
853.8000;0.4591;1.0399;
854.1000;0.4558;1.0328;
854.4000;0.4599;1.0351;
854.7000;0.4615;1.0422;
855.0000;0.4591;1.0375;
855.3000;0.4583;1.0351;
855.6000;0.4615;1.0422;
855.9000;0.4599;1.0399;
856.2000;0.4615;1.0375;
856.5000;0.4591;1.0281;
856.8000;0.4599;1.0163;
857.1000;0.4583;1.0163;
857.4000;0.4624;1.0234;
857.7000;0.4591;1.0187;
858.0000;0.4615;1.0210;
858.3000;0.4591;1.0093;
858.6000;0.4526;1.0046;
858.9000;0.4599;1.0281;
859.2000;0.4591;1.0399;
859.5000;0.4607;1.0516;
859.8000;0.4607;1.0681;
860.1000;0.4591;1.0681;
860.4000;0.4615;1.0728;
860.7000;0.4575;1.0634;
861.0000;0.4591;1.0516;
861.3000;0.4607;1.0469;
861.6000;0.4607;1.0446;
861.9000;0.4607;1.0493;
862.2000;0.4599;1.0446;
862.5000;0.4599;1.0493;
862.8000;0.4591;1.0493;
863.1000;0.4534;1.0422;
863.4000;0.4583;1.0540;
863.7000;0.4599;1.0469;
864.0000;0.4599;1.0493;
864.3000;0.4672;1.0657;
864.6000;0.4615;1.0469;
864.9000;0.4591;1.0422;
865.2000;0.4599;1.0399;
865.5000;0.4583;1.0399;
865.8000;0.4534;1.0234;
866.1000;0.4599;1.0351;
866.4000;0.4624;1.0328;
866.7000;0.4583;1.0399;
867.0000;0.4583;1.0516;
867.3000;0.4575;1.0540;
867.6000;0.4583;1.0634;
867.9000;0.4542;1.0516;
868.2000;0.4583;1.0681;
868.5000;0.4583;1.0634;
868.8000;0.4583;1.0704;
869.1000;0.4599;1.0775;
869.4000;0.4607;1.0846;
869.7000;0.4567;1.0657;
870.0000;0.4583;1.0728;
870.3000;0.4591;1.0681;
870.6000;0.4599;1.0798;
870.9000;0.4575;1.0634;
871.2000;0.4591;1.0587;
871.5000;0.4591;1.0587;
871.8000;0.4583;1.0587;
872.1000;0.4599;1.0657;
872.4000;0.4583;1.0634;
872.7000;0.4599;1.0728;
873.0000;0.4575;1.0681;
873.3000;0.4583;1.0610;
873.6000;0.4567;1.0493;
873.9000;0.4526;1.0375;
874.2000;0.4615;1.0634;
874.5000;0.4599;1.0563;
874.8000;0.4599;1.0540;
875.1000;0.4575;1.0587;
875.4000;0.4599;1.0751;
875.7000;0.4583;1.0634;
876.0000;0.4583;1.0516;
876.3000;0.4591;1.0516;
876.6000;0.4591;1.0587;
876.9000;0.4591;1.0516;
877.2000;0.4640;1.0610;
877.5000;0.4591;1.0422;
877.8000;0.4591;1.0399;
878.1000;0.4591;1.0399;
878.4000;0.4567;1.0304;
878.7000;0.4599;1.0469;
879.0000;0.4591;1.0516;
879.3000;0.4583;1.0563;
879.6000;0.4567;1.0540;
879.9000;0.4567;1.0516;
880.2000;0.4591;1.0587;
880.5000;0.4575;1.0563;
880.8000;0.4567;1.0610;
881.1000;0.4624;1.0728;
881.4000;0.4558;1.0540;
881.7000;0.4575;1.0422;
882.0000;0.4591;1.0399;
882.3000;0.4583;1.0234;
882.6000;0.4591;1.0304;
882.9000;0.4550;1.0257;
883.2000;0.4567;1.0375;
883.5000;0.4575;1.0422;
883.8000;0.4567;1.0516;
884.1000;0.4567;1.0516;
884.4000;0.4542;1.0493;
884.7000;0.4542;1.0469;
885.0000;0.4583;1.0540;
885.3000;0.4583;1.0540;
885.6000;0.4575;1.0610;
885.9000;0.4583;1.0657;
886.2000;0.4599;1.0634;
886.5000;0.4567;1.0516;
886.8000;0.4567;1.0516;
887.1000;0.4526;1.0351;
887.4000;0.4591;1.0493;
887.7000;0.4558;1.0399;
888.0000;0.4591;1.0446;
888.3000;0.4550;1.0493;
888.6000;0.4583;1.0610;
888.9000;0.4485;1.0399;
889.2000;0.4477;1.0351;
889.5000;0.4567;1.0469;
889.8000;0.4591;1.0446;
890.1000;0.4501;1.0304;
890.4000;0.4567;1.0422;
890.7000;0.4567;1.0351;
891.0000;0.4632;1.0493;
891.3000;0.4567;1.0375;
891.6000;0.4583;1.0351;
891.9000;0.4575;1.0399;
892.2000;0.4558;1.0257;
892.5000;0.4583;1.0257;
892.8000;0.4558;1.0163;
893.1000;0.4558;1.0093;
893.4000;0.4550;1.0093;
893.7000;0.4493;0.9952;
894.0000;0.4558;1.0069;
894.3000;0.4542;1.0069;
894.6000;0.4567;1.0046;
894.9000;0.4558;1.0046;
895.2000;0.4550;1.0022;
895.5000;0.4558;1.0187;
895.8000;0.4526;1.0257;
896.1000;0.4567;1.0351;
896.4000;0.4558;1.0351;
896.7000;0.4526;1.0234;
897.0000;0.4558;1.0234;
897.3000;0.4567;1.0234;
897.6000;0.4567;1.0304;
897.9000;0.4558;1.0351;
898.2000;0.4567;1.0399;
898.5000;0.4567;1.0469;
898.8000;0.4567;1.0422;
899.1000;0.4550;1.0375;
899.4000;0.4550;1.0328;
899.7000;0.4583;1.0351;
900.0000;0.4567;1.0328;
900.3000;0.4542;1.0351;
900.6000;0.4550;1.0422;
900.9000;0.4583;1.0493;
901.2000;0.4575;1.0469;
901.5000;0.4518;1.0304;
901.8000;0.4558;1.0422;
902.1000;0.4567;1.0469;
902.4000;0.4558;1.0446;
902.7000;0.4558;1.0375;
903.0000;0.4567;1.0399;
903.3000;0.4558;1.0422;
903.6000;0.4558;1.0469;
903.9000;0.4526;1.0375;
904.2000;0.4550;1.0351;
904.5000;0.4583;1.0375;
904.8000;0.4534;1.0281;
905.1000;0.4534;1.0304;
905.4000;0.4550;1.0328;
905.7000;0.4534;1.0304;
906.0000;0.4542;1.0351;
906.3000;0.4583;1.0516;
906.6000;0.4550;1.0375;
906.9000;0.4510;1.0210;
907.2000;0.4599;1.0399;
907.5000;0.4558;1.0257;
907.8000;0.4550;1.0328;
908.1000;0.4615;1.0634;
908.4000;0.4542;1.0587;
908.7000;0.4558;1.0704;
909.0000;0.4558;1.0610;
909.3000;0.4558;1.0493;
909.6000;0.4550;1.0540;
909.9000;0.4542;1.0516;
910.2000;0.4567;1.0399;
910.5000;0.4550;1.0375;
910.8000;0.4542;1.0375;
911.1000;0.4583;1.0399;
911.4000;0.4550;1.0375;
911.7000;0.4550;1.0446;
912.0000;0.4558;1.0493;
912.3000;0.4558;1.0493;
912.6000;0.4575;1.0469;
912.9000;0.4518;1.0328;
913.2000;0.4526;1.0328;
913.5000;0.4550;1.0446;
913.8000;0.4583;1.0540;
914.1000;0.4607;1.0610;
914.4000;0.4558;1.0469;
914.7000;0.4550;1.0469;
915.0000;0.4534;1.0304;
915.3000;0.4558;1.0210;
915.6000;0.4542;1.0163;
915.9000;0.4567;1.0069;
916.2000;0.4542;1.0069;
916.5000;0.4558;1.0116;
916.8000;0.4575;1.0093;
917.1000;0.4550;1.0069;
917.4000;0.4550;1.0116;
917.7000;0.4542;1.0116;
918.0000;0.4550;1.0163;
918.3000;0.4542;1.0140;
918.6000;0.4542;1.0210;
918.9000;0.4558;1.0257;
919.2000;0.4558;1.0328;
919.5000;0.4591;1.0516;
919.8000;0.4558;1.0493;
920.1000;0.4567;1.0493;
920.4000;0.4550;1.0446;
920.7000;0.4550;1.0399;
921.0000;0.4542;1.0446;
921.3000;0.4567;1.0493;
921.6000;0.4558;1.0422;
921.9000;0.4534;1.0446;
922.2000;0.4534;1.0446;
922.5000;0.4550;1.0469;
922.8000;0.4558;1.0399;
923.1000;0.4542;1.0328;
923.4000;0.4534;1.0234;
923.7000;0.4542;1.0351;
924.0000;0.4542;1.0399;
924.3000;0.4526;1.0422;
924.6000;0.4526;1.0446;
924.9000;0.4558;1.0563;
925.2000;0.4526;1.0540;
925.5000;0.4518;1.0351;
925.8000;0.4567;1.0375;
926.1000;0.4542;1.0304;
926.4000;0.4510;1.0210;
926.7000;0.4550;1.0446;
927.0000;0.4567;1.0493;
927.3000;0.4526;1.0328;
927.6000;0.4526;1.0328;
927.9000;0.4550;1.0422;
928.2000;0.4558;1.0422;
928.5000;0.4428;1.0046;
928.8000;0.4632;1.0563;
929.1000;0.4510;1.0234;
929.4000;0.4510;1.0116;
929.7000;0.4510;1.0116;
930.0000;0.4542;1.0210;
930.3000;0.4526;1.0304;
930.6000;0.4534;1.0304;
930.9000;0.4510;1.0234;
931.2000;0.4542;1.0281;
931.5000;0.4550;1.0375;
931.8000;0.4526;1.0399;
932.1000;0.4550;1.0469;
932.4000;0.4542;1.0399;
932.7000;0.4558;1.0446;
933.0000;0.4550;1.0493;
933.3000;0.4501;1.0328;
933.6000;0.4550;1.0446;
933.9000;0.4542;1.0399;
934.2000;0.4558;1.0422;
934.5000;0.4542;1.0351;
934.8000;0.4542;1.0351;
935.1000;0.4534;1.0281;
935.4000;0.4518;1.0234;
935.7000;0.4526;1.0140;
936.0000;0.4534;1.0163;
936.3000;0.4542;1.0234;
936.6000;0.4624;1.0634;
936.9000;0.4542;1.0446;
937.2000;0.4583;1.0516;
937.5000;0.4558;1.0469;
937.8000;0.4575;1.0469;
938.1000;0.4550;1.0516;
938.4000;0.4542;1.0540;
938.7000;0.4607;1.0681;
939.0000;0.4542;1.0587;
939.3000;0.4526;1.0469;
939.6000;0.4648;1.0822;
939.9000;0.4534;1.0610;
940.2000;0.4558;1.0728;
940.5000;0.4518;1.0563;
940.8000;0.4534;1.0493;
941.1000;0.4518;1.0422;
941.4000;0.4534;1.0469;
941.7000;0.4542;1.0587;
942.0000;0.4542;1.0634;
942.3000;0.4526;1.0563;
942.6000;0.4567;1.0657;
942.9000;0.4534;1.0587;
943.2000;0.4534;1.0469;
943.5000;0.4542;1.0446;
943.8000;0.4542;1.0351;
944.1000;0.4542;1.0446;
944.4000;0.4526;1.0328;
944.7000;0.4542;1.0281;
945.0000;0.4534;1.0281;
945.3000;0.4534;1.0210;
945.6000;0.4534;1.0210;
945.9000;0.4534;1.0234;
946.2000;0.4534;1.0187;
946.5000;0.4542;1.0234;
946.8000;0.4542;1.0304;
947.1000;0.4542;1.0328;
947.4000;0.4542;1.0351;
947.7000;0.4518;1.0399;
948.0000;0.4534;1.0375;
948.3000;0.4542;1.0422;
948.6000;0.4583;1.0540;
948.9000;0.4607;1.0540;
949.2000;0.4550;1.0281;
949.5000;0.4534;1.0140;
949.8000;0.4558;1.0140;
950.1000;0.4526;1.0046;
950.4000;0.4510;0.9952;
950.7000;0.4518;0.9928;
951.0000;0.4567;1.0046;
951.3000;0.4542;1.0093;
951.6000;0.4493;1.0069;
951.9000;0.4526;1.0163;
952.2000;0.4567;1.0187;
952.5000;0.4526;1.0046;
952.8000;0.4550;1.0022;
953.1000;0.4493;0.9928;
953.4000;0.4518;1.0069;
953.7000;0.4518;1.0116;
954.0000;0.4518;1.0187;
954.3000;0.4518;1.0140;
954.6000;0.4534;1.0210;
954.9000;0.4510;1.0187;
955.2000;0.4632;1.0422;
955.5000;0.4518;1.0116;
955.8000;0.4534;1.0187;
956.1000;0.4518;1.0210;
956.4000;0.4526;1.0257;
956.7000;0.4534;1.0234;
957.0000;0.4518;1.0187;
957.3000;0.4501;1.0069;
957.6000;0.4518;1.0116;
957.9000;0.4534;1.0187;
958.2000;0.4575;1.0375;
958.5000;0.4542;1.0399;
958.8000;0.4510;1.0328;
959.1000;0.4526;1.0328;
959.4000;0.4526;1.0328;
959.7000;0.4501;1.0304;
960.0000;0.4526;1.0446;
960.3000;0.4501;1.0375;
960.6000;0.4453;1.0187;
960.9000;0.4526;1.0304;
961.2000;0.4518;1.0375;
961.5000;0.4510;1.0399;
961.8000;0.4493;1.0375;
962.1000;0.4493;1.0399;
962.4000;0.4526;1.0469;
962.7000;0.4526;1.0493;
963.0000;0.4518;1.0493;
963.3000;0.4526;1.0375;
963.6000;0.4501;1.0281;
963.9000;0.4575;1.0375;
964.2000;0.4501;1.0210;
964.5000;0.4444;1.0093;
964.8000;0.4510;1.0234;
965.1000;0.4501;1.0116;
965.4000;0.4501;1.0140;
965.7000;0.4526;1.0281;
966.0000;0.4518;1.0257;
966.3000;0.4534;1.0351;
966.6000;0.4542;1.0375;
966.9000;0.4518;1.0304;
967.2000;0.4510;1.0375;
967.5000;0.4526;1.0399;
967.8000;0.4501;1.0399;
968.1000;0.4518;1.0446;
968.4000;0.4526;1.0399;
968.7000;0.4550;1.0375;
969.0000;0.4526;1.0469;
969.3000;0.4518;1.0446;
969.6000;0.4534;1.0493;
969.9000;0.4534;1.0540;
970.2000;0.4526;1.0587;
970.5000;0.4534;1.0610;
970.8000;0.4526;1.0587;
971.1000;0.4550;1.0657;
971.4000;0.4526;1.0563;
971.7000;0.4542;1.0657;
972.0000;0.4510;1.0540;
972.3000;0.4501;1.0587;
972.6000;0.4526;1.0657;
972.9000;0.4510;1.0587;
973.2000;0.4493;1.0469;
973.5000;0.4510;1.0422;
973.8000;0.4518;1.0493;
974.1000;0.4510;1.0516;
974.4000;0.4501;1.0422;
974.7000;0.4501;1.0469;
975.0000;0.4526;1.0516;
975.3000;0.4501;1.0446;
975.6000;0.4493;1.0469;
975.9000;0.4501;1.0493;
976.2000;0.4518;1.0493;
976.5000;0.4518;1.0516;
976.8000;0.4412;1.0351;
977.1000;0.4518;1.0563;
977.4000;0.4510;1.0493;
977.7000;0.4493;1.0375;
978.0000;0.4526;1.0399;
978.3000;0.4493;1.0281;
978.6000;0.4412;1.0210;
978.9000;0.4493;1.0516;
979.2000;0.4542;1.0634;
979.5000;0.4510;1.0469;
979.8000;0.4526;1.0399;
980.1000;0.4534;1.0469;
980.4000;0.4534;1.0493;
980.7000;0.4526;1.0422;
981.0000;0.4607;1.0610;
981.3000;0.4485;1.0351;
981.6000;0.4518;1.0469;
981.9000;0.4558;1.0587;
982.2000;0.4542;1.0587;
982.5000;0.4518;1.0493;
982.8000;0.4550;1.0493;
983.1000;0.4420;1.0281;
983.4000;0.4510;1.0469;
983.7000;0.4542;1.0540;
984.0000;0.4493;1.0351;
984.3000;0.4510;1.0540;
984.6000;0.4485;1.0493;
984.9000;0.4558;1.0587;
985.2000;0.4510;1.0469;
985.5000;0.4583;1.0681;
985.8000;0.4518;1.0516;
986.1000;0.4510;1.0516;
986.4000;0.4501;1.0493;
986.7000;0.4501;1.0446;
987.0000;0.4518;1.0540;
987.3000;0.4510;1.0399;
987.6000;0.4518;1.0422;
987.9000;0.4518;1.0399;
988.2000;0.4518;1.0399;
988.5000;0.4510;1.0375;
988.8000;0.4493;1.0210;
989.1000;0.4501;1.0234;
989.4000;0.4534;1.0281;
989.7000;0.4485;1.0163;
990.0000;0.4501;1.0281;
990.3000;0.4526;1.0399;
990.6000;0.4518;1.0493;
990.9000;0.4518;1.0516;
991.2000;0.4534;1.0469;
991.5000;0.4510;1.0516;
991.8000;0.4526;1.0587;
992.1000;0.4518;1.0516;
992.4000;0.4501;1.0493;
992.7000;0.4510;1.0516;
993.0000;0.4501;1.0563;
993.3000;0.4485;1.0469;
993.6000;0.4526;1.0610;
993.9000;0.4493;1.0493;
994.2000;0.4493;1.0422;
994.5000;0.4518;1.0493;
994.8000;0.4461;1.0375;
995.1000;0.4510;1.0493;
995.4000;0.4518;1.0587;
995.7000;0.4510;1.0540;
996.0000;0.4501;1.0587;
996.3000;0.4534;1.0634;
996.6000;0.4510;1.0563;
996.9000;0.4510;1.0516;
997.2000;0.4485;1.0469;
997.5000;0.4510;1.0610;
997.8000;0.4493;1.0540;
998.1000;0.4477;1.0446;
998.4000;0.4493;1.0563;
998.7000;0.4477;1.0516;
999.0000;0.4510;1.0634;
999.3000;0.4518;1.0634;
999.6000;0.4518;1.0704;
999.9000;0.4501;1.0587;
1000.2000;0.4493;1.0516;
1000.5000;0.4412;1.0304;
1000.8000;0.4501;1.0446;
1001.1000;0.4534;1.0493;
1001.4000;0.4510;1.0399;
1001.7000;0.4477;1.0375;
1002.0000;0.4550;1.0540;
1002.3000;0.4501;1.0446;
1002.6000;0.4510;1.0469;
1002.9000;0.4469;1.0375;
1003.2000;0.4469;1.0446;
1003.5000;0.4534;1.0587;
1003.8000;0.4518;1.0540;
1004.1000;0.4485;1.0446;
1004.4000;0.4510;1.0493;
1004.7000;0.4493;1.0446;
1005.0000;0.4558;1.0657;
1005.3000;0.4477;1.0540;
1005.6000;0.4518;1.0540;
1005.9000;0.4493;1.0587;
1006.2000;0.4575;1.0893;
1006.5000;0.4534;1.0751;
1006.8000;0.4501;1.0751;
1007.1000;0.4534;1.0798;
1007.4000;0.4510;1.0681;
1007.7000;0.4518;1.0587;
1008.0000;0.4485;1.0493;
1008.3000;0.4518;1.0563;
1008.6000;0.4501;1.0540;
1008.9000;0.4493;1.0540;
1009.2000;0.4526;1.0587;
1009.5000;0.4501;1.0610;
1009.8000;0.4518;1.0587;
1010.1000;0.4493;1.0563;
1010.4000;0.4493;1.0587;
1010.7000;0.4493;1.0587;
1011.0000;0.4501;1.0634;
1011.3000;0.4518;1.0681;
1011.6000;0.4493;1.0634;
1011.9000;0.4510;1.0610;
1012.2000;0.4518;1.0563;
1012.5000;0.4510;1.0516;
1012.8000;0.4485;1.0540;
1013.1000;0.4493;1.0657;
1013.4000;0.4493;1.0610;
1013.7000;0.4510;1.0634;
1014.0000;0.4510;1.0681;
1014.3000;0.4485;1.0610;
1014.6000;0.4501;1.0634;
1014.9000;0.4510;1.0634;
1015.2000;0.4501;1.0540;
1015.5000;0.4510;1.0540;
1015.8000;0.4518;1.0563;
1016.1000;0.4501;1.0469;
1016.4000;0.4485;1.0493;
1016.7000;0.4493;1.0516;
1017.0000;0.4493;1.0563;
1017.3000;0.4493;1.0469;
1017.6000;0.4526;1.0516;
1017.9000;0.4493;1.0493;
1018.2000;0.4493;1.0446;
1018.5000;0.4477;1.0422;
1018.8000;0.4444;1.0375;
1019.1000;0.4485;1.0469;
1019.4000;0.4501;1.0516;
1019.7000;0.4510;1.0469;
1020.0000;0.4534;1.0493;
1020.3000;0.4567;1.0563;
1020.6000;0.4510;1.0422;
1020.9000;0.4444;1.0328;
1021.2000;0.4501;1.0563;
1021.5000;0.4501;1.0634;
1021.8000;0.4477;1.0516;
1022.1000;0.4469;1.0516;
1022.4000;0.4469;1.0634;
1022.7000;0.4485;1.0610;
1023.0000;0.4420;1.0351;
1023.3000;0.4501;1.0493;
1023.6000;0.4510;1.0493;
1023.9000;0.4501;1.0446;
1024.2000;0.4444;1.0281;
1024.5000;0.4485;1.0375;
1024.8000;0.4501;1.0375;
1025.1000;0.4510;1.0351;
1025.4000;0.4469;1.0304;
1025.7000;0.4485;1.0422;
1026.0000;0.4510;1.0493;
1026.3000;0.4493;1.0563;
1026.6000;0.4510;1.0775;
1026.9000;0.4501;1.0728;
1027.2000;0.4501;1.0751;
1027.5000;0.4510;1.0798;
1027.8000;0.4510;1.0846;
1028.1000;0.4501;1.0822;
1028.4000;0.4493;1.0728;
1028.7000;0.4510;1.0681;
1029.0000;0.4493;1.0634;
1029.3000;0.4534;1.0798;
1029.6000;0.4501;1.0681;
1029.9000;0.4501;1.0681;
1030.2000;0.4510;1.0728;
1030.5000;0.4501;1.0681;
1030.8000;0.4493;1.0704;
1031.1000;0.4469;1.0681;
1031.4000;0.4501;1.0634;
1031.7000;0.4444;1.0469;
1032.0000;0.4485;1.0540;
1032.3000;0.4493;1.0563;
1032.6000;0.4510;1.0587;
1032.9000;0.4510;1.0704;
1033.2000;0.4518;1.0704;
1033.5000;0.4485;1.0657;
1033.8000;0.4501;1.0728;
1034.1000;0.4526;1.0775;
1034.4000;0.4510;1.0728;
1034.7000;0.4493;1.0563;
1035.0000;0.4477;1.0610;
1035.3000;0.4485;1.0610;
1035.6000;0.4461;1.0493;
1035.9000;0.4510;1.0587;
1036.2000;0.4510;1.0704;
1036.5000;0.4518;1.0775;
1036.8000;0.4518;1.0822;
1037.1000;0.4501;1.0775;
1037.4000;0.4510;1.0681;
1037.7000;0.4501;1.0657;
1038.0000;0.4518;1.0798;
1038.3000;0.4485;1.0728;
1038.6000;0.4485;1.0681;
1038.9000;0.4501;1.0728;
1039.2000;0.4501;1.0798;
1039.5000;0.4510;1.0775;
1039.8000;0.4526;1.0775;
1040.1000;0.4501;1.0751;
1040.4000;0.4518;1.0728;
1040.7000;0.4469;1.0681;
1041.0000;0.4493;1.0657;
1041.3000;0.4493;1.0704;
1041.6000;0.4501;1.0775;
1041.9000;0.4485;1.0728;
1042.2000;0.4477;1.0751;
1042.5000;0.4469;1.0728;
1042.8000;0.4526;1.0963;
1043.1000;0.4444;1.0751;
1043.4000;0.4485;1.0822;
1043.7000;0.4477;1.0704;
1044.0000;0.4501;1.0634;
1044.3000;0.4550;1.0798;
1044.6000;0.4493;1.0634;
1044.9000;0.4501;1.0634;
1045.2000;0.4501;1.0704;
1045.5000;0.4493;1.0681;
1045.8000;0.4453;1.0516;
1046.1000;0.4591;1.0869;
1046.4000;0.4477;1.0587;
1046.7000;0.4477;1.0634;
1047.0000;0.4501;1.0657;
1047.3000;0.4501;1.0563;
1047.6000;0.4518;1.0587;
1047.9000;0.4501;1.0540;
1048.2000;0.4493;1.0516;
1048.5000;0.4493;1.0540;
1048.8000;0.4485;1.0587;
1049.1000;0.4493;1.0516;
1049.4000;0.4501;1.0610;
1049.7000;0.4485;1.0563;
1050.0000;0.4485;1.0610;
1050.3000;0.4485;1.0563;
1050.6000;0.4501;1.0657;
1050.9000;0.4510;1.0657;
1051.2000;0.4501;1.0657;
1051.5000;0.4510;1.0775;
1051.8000;0.4493;1.0798;
1052.1000;0.4518;1.0916;
1052.4000;0.4510;1.0987;
1052.7000;0.4493;1.0940;
1053.0000;0.4485;1.1034;
1053.3000;0.4526;1.1104;
1053.6000;0.4510;1.1034;
1053.9000;0.4485;1.0987;
1054.2000;0.4493;1.0940;
1054.5000;0.4477;1.0869;
1054.8000;0.4493;1.0869;
1055.1000;0.4485;1.0916;
1055.4000;0.4485;1.0987;
1055.7000;0.4485;1.0798;
1056.0000;0.4501;1.0846;
1056.3000;0.4493;1.0798;
1056.6000;0.4477;1.0798;
1056.9000;0.4518;1.0822;
1057.2000;0.4485;1.0704;
1057.5000;0.4485;1.0657;
1057.8000;0.4485;1.0681;
1058.1000;0.4510;1.0775;
1058.4000;0.4534;1.0798;
1058.7000;0.4404;1.0493;
1059.0000;0.4501;1.0775;
1059.3000;0.4485;1.0704;
1059.6000;0.4510;1.0846;
1059.9000;0.4477;1.0822;
1060.2000;0.4485;1.0728;
1060.5000;0.4501;1.0681;
1060.8000;0.4436;1.0493;
1061.1000;0.4477;1.0540;
1061.4000;0.4501;1.0469;
1061.7000;0.4501;1.0469;
1062.0000;0.4493;1.0446;
1062.3000;0.4493;1.0493;
1062.6000;0.4510;1.0493;
1062.9000;0.4501;1.0493;
1063.2000;0.4501;1.0587;
1063.5000;0.4485;1.0610;
1063.8000;0.4477;1.0587;
1064.1000;0.4469;1.0540;
1064.4000;0.4518;1.0587;
1064.7000;0.4493;1.0446;
1065.0000;0.4510;1.0446;
1065.3000;0.4485;1.0399;
1065.6000;0.4469;1.0375;
1065.9000;0.4485;1.0516;
1066.2000;0.4534;1.0822;
1066.5000;0.4469;1.0681;
1066.8000;0.4510;1.0704;
1067.1000;0.4477;1.0657;
1067.4000;0.4477;1.0728;
1067.7000;0.4534;1.0751;
1068.0000;0.4493;1.0657;
1068.3000;0.4485;1.0681;
1068.6000;0.4493;1.0728;
1068.9000;0.4493;1.0822;
1069.2000;0.4453;1.0775;
1069.5000;0.4493;1.0798;
1069.8000;0.4493;1.0846;
1070.1000;0.4477;1.0775;
1070.4000;0.4501;1.0893;
1070.7000;0.4477;1.0728;
1071.0000;0.4477;1.0634;
1071.3000;0.4453;1.0422;
1071.6000;0.4485;1.0422;
1071.9000;0.4485;1.0351;
1072.2000;0.4485;1.0234;
1072.5000;0.4518;1.0304;
1072.8000;0.4485;1.0257;
1073.1000;0.4534;1.0328;
1073.4000;0.4501;1.0257;
1073.7000;0.4501;1.0351;
1074.0000;0.4501;1.0375;
1074.3000;0.4444;1.0257;
1074.6000;0.4493;1.0351;
1074.9000;0.4493;1.0375;
1075.2000;0.4461;1.0234;
1075.5000;0.4485;1.0304;
1075.8000;0.4469;1.0187;
1076.1000;0.4469;1.0163;
1076.4000;0.4501;1.0187;
1076.7000;0.4485;1.0187;
1077.0000;0.4461;1.0210;
1077.3000;0.4461;1.0304;
1077.6000;0.4461;1.0304;
1077.9000;0.4485;1.0422;
1078.2000;0.4493;1.0493;
1078.5000;0.4493;1.0446;
1078.8000;0.4461;1.0422;
1079.1000;0.4493;1.0446;
1079.4000;0.4477;1.0399;
1079.7000;0.4493;1.0375;
1080.0000;0.4493;1.0375;
1080.3000;0.4493;1.0351;
1080.6000;0.4469;1.0281;
1080.9000;0.4477;1.0375;
1081.2000;0.4485;1.0375;
1081.5000;0.4428;1.0281;
1081.8000;0.4477;1.0351;
1082.1000;0.4444;1.0328;
1082.4000;0.4518;1.0540;
1082.7000;0.4477;1.0469;
1083.0000;0.4485;1.0422;
1083.3000;0.4501;1.0634;
1083.6000;0.4469;1.0540;
1083.9000;0.4518;1.0610;
1084.2000;0.4501;1.0587;
1084.5000;0.4526;1.0634;
1084.8000;0.4485;1.0422;
1085.1000;0.4493;1.0375;
1085.4000;0.4485;1.0422;
1085.7000;0.4493;1.0446;
1086.0000;0.4477;1.0328;
1086.3000;0.4493;1.0446;
1086.6000;0.4501;1.0469;
1086.9000;0.4518;1.0540;
1087.2000;0.4493;1.0516;
1087.5000;0.4510;1.0516;
1087.8000;0.4510;1.0634;
1088.1000;0.4493;1.0587;
1088.4000;0.4493;1.0610;
1088.7000;0.4485;1.0563;
1089.0000;0.4493;1.0657;
1089.3000;0.4493;1.0681;
1089.6000;0.4485;1.0563;
1089.9000;0.4469;1.0540;
1090.2000;0.4493;1.0681;
1090.5000;0.4493;1.0681;
1090.8000;0.4469;1.0610;
1091.1000;0.4558;1.0751;
1091.4000;0.4501;1.0563;
1091.7000;0.4453;1.0469;
1092.0000;0.4485;1.0469;
1092.3000;0.4485;1.0540;
1092.6000;0.4542;1.0587;
1092.9000;0.4558;1.0728;
1093.2000;0.4493;1.0493;
1093.5000;0.4493;1.0446;
1093.8000;0.4485;1.0422;
1094.1000;0.4518;1.0493;
1094.4000;0.4469;1.0446;
1094.7000;0.4501;1.0422;
1095.0000;0.4493;1.0446;
1095.3000;0.4485;1.0469;
1095.6000;0.4501;1.0446;
1095.9000;0.4485;1.0375;
1096.2000;0.4469;1.0304;
1096.5000;0.4493;1.0375;
1096.8000;0.4485;1.0399;
1097.1000;0.4493;1.0375;
1097.4000;0.4493;1.0328;
1097.7000;0.4510;1.0375;
1098.0000;0.4493;1.0351;
1098.3000;0.4396;1.0140;
1098.6000;0.4493;1.0375;
1098.9000;0.4461;1.0351;
1099.2000;0.4412;1.0328;
1099.5000;0.4469;1.0469;
1099.8000;0.4453;1.0422;
1100.1000;0.4485;1.0469;
1100.4000;0.4485;1.0540;
1100.7000;0.4485;1.0634;
1101.0000;0.4493;1.0634;
1101.3000;0.4477;1.0610;
1101.6000;0.4485;1.0610;
1101.9000;0.4477;1.0563;
1102.2000;0.4510;1.0587;
1102.5000;0.4493;1.0493;
1102.8000;0.4493;1.0610;
1103.1000;0.4501;1.0657;
1103.4000;0.4493;1.0587;
1103.7000;0.4493;1.0469;
1104.0000;0.4461;1.0493;
1104.3000;0.4477;1.0587;
1104.6000;0.4469;1.0610;
1104.9000;0.4526;1.0704;
1105.2000;0.4485;1.0540;
1105.5000;0.4485;1.0563;
1105.8000;0.4469;1.0587;
1106.1000;0.4501;1.0634;
1106.4000;0.4485;1.0657;
1106.7000;0.4477;1.0704;
1107.0000;0.4477;1.0704;
1107.3000;0.4485;1.0634;
1107.6000;0.4477;1.0657;
1107.9000;0.4436;1.0540;
1108.2000;0.4477;1.0657;
1108.5000;0.4493;1.0681;
1108.8000;0.4469;1.0587;
1109.1000;0.4485;1.0681;
1109.4000;0.4485;1.0657;
1109.7000;0.4436;1.0493;
1110.0000;0.4493;1.0563;
1110.3000;0.4493;1.0563;
1110.6000;0.4485;1.0657;
1110.9000;0.4493;1.0657;
1111.2000;0.4461;1.0493;
1111.5000;0.4493;1.0563;
1111.8000;0.4477;1.0610;
1112.1000;0.4461;1.0540;
1112.4000;0.4453;1.0563;
1112.7000;0.4485;1.0587;
1113.0000;0.4477;1.0587;
1113.3000;0.4461;1.0516;
1113.6000;0.4477;1.0493;
1113.9000;0.4518;1.0657;
1114.2000;0.4396;1.0399;
1114.5000;0.4534;1.0775;
1114.8000;0.4477;1.0728;
1115.1000;0.4453;1.0610;
1115.4000;0.4469;1.0587;
1115.7000;0.4493;1.0681;
1116.0000;0.4501;1.0563;
1116.3000;0.4575;1.0846;
1116.6000;0.4477;1.0634;
1116.9000;0.4469;1.0540;
1117.2000;0.4461;1.0516;
1117.5000;0.4444;1.0540;
1117.8000;0.4469;1.0634;
1118.1000;0.4501;1.0681;
1118.4000;0.4469;1.0563;
1118.7000;0.4493;1.0634;
1119.0000;0.4477;1.0634;
1119.3000;0.4477;1.0681;
1119.6000;0.4477;1.0681;
1119.9000;0.4510;1.0704;
1120.2000;0.4477;1.0610;
1120.5000;0.4501;1.0657;
1120.8000;0.4477;1.0657;
1121.1000;0.4485;1.0657;
1121.4000;0.4469;1.0657;
1121.7000;0.4518;1.0775;
1122.0000;0.4510;1.0704;
1122.3000;0.4493;1.0634;
1122.6000;0.4485;1.0563;
1122.9000;0.4485;1.0493;
1123.2000;0.4469;1.0516;
1123.5000;0.4485;1.0610;
1123.8000;0.4501;1.0657;
1124.1000;0.4501;1.0634;
1124.4000;0.4469;1.0516;
1124.7000;0.4485;1.0540;
1125.0000;0.4493;1.0516;
1125.3000;0.4469;1.0540;
1125.6000;0.4477;1.0516;
1125.9000;0.4485;1.0563;
1126.2000;0.4510;1.0610;
1126.5000;0.4485;1.0563;
1126.8000;0.4469;1.0563;
1127.1000;0.4485;1.0587;
1127.4000;0.4477;1.0587;
1127.7000;0.4469;1.0493;
1128.0000;0.4477;1.0446;
1128.3000;0.4469;1.0351;
1128.6000;0.4347;0.9999;
1128.9000;0.4485;1.0375;
1129.2000;0.4461;1.0375;
1129.5000;0.4453;1.0351;
1129.8000;0.4461;1.0281;
1130.1000;0.4412;1.0116;
1130.4000;0.4461;1.0140;
1130.7000;0.4477;1.0140;
1131.0000;0.4485;1.0093;
1131.3000;0.4477;1.0187;
1131.6000;0.4477;1.0069;
1131.9000;0.4453;1.0069;
1132.2000;0.4469;1.0140;
1132.5000;0.4469;1.0187;
1132.8000;0.4485;1.0257;
1133.1000;0.4485;1.0234;
1133.4000;0.4444;1.0093;
1133.7000;0.4477;1.0187;
1134.0000;0.4501;1.0234;
1134.3000;0.4501;1.0281;
1134.6000;0.4477;1.0375;
1134.9000;0.4461;1.0375;
1135.2000;0.4493;1.0469;
1135.5000;0.4412;1.0304;
1135.8000;0.4453;1.0446;
1136.1000;0.4469;1.0446;
1136.4000;0.4428;1.0304;
1136.7000;0.4493;1.0469;
1137.0000;0.4501;1.0516;
1137.3000;0.4510;1.0399;
1137.6000;0.4469;1.0304;
1137.9000;0.4493;1.0281;
1138.2000;0.4469;1.0093;
1138.5000;0.4461;1.0116;
1138.8000;0.4485;1.0257;
1139.1000;0.4477;1.0210;
1139.4000;0.4469;1.0210;
1139.7000;0.4518;1.0304;
1140.0000;0.4493;1.0234;
1140.3000;0.4518;1.0281;
1140.6000;0.4477;1.0281;
1140.9000;0.4485;1.0351;
1141.2000;0.4485;1.0281;
1141.5000;0.4461;1.0234;
1141.8000;0.4469;1.0234;
1142.1000;0.4485;1.0422;
1142.4000;0.4469;1.0351;
1142.7000;0.4477;1.0328;
1143.0000;0.4469;1.0281;
1143.3000;0.4477;1.0257;
1143.6000;0.4461;1.0281;
1143.9000;0.4477;1.0304;
1144.2000;0.4518;1.0375;
1144.5000;0.4485;1.0210;
1144.8000;0.4477;1.0210;
1145.1000;0.4436;1.0163;
1145.4000;0.4485;1.0187;
1145.7000;0.4485;1.0210;
1146.0000;0.4477;1.0116;
1146.3000;0.4461;1.0187;
1146.6000;0.4477;1.0281;
1146.9000;0.4485;1.0375;
1147.2000;0.4493;1.0257;
1147.5000;0.4493;1.0281;
1147.8000;0.4477;1.0187;
1148.1000;0.4510;1.0234;
1148.4000;0.4469;1.0210;
1148.7000;0.4461;1.0234;
1149.0000;0.4493;1.0375;
1149.3000;0.4493;1.0328;
1149.6000;0.4477;1.0304;
1149.9000;0.4510;1.0469;
1150.2000;0.4485;1.0375;
1150.5000;0.4485;1.0399;
1150.8000;0.4477;1.0540;
1151.1000;0.4477;1.0587;
1151.4000;0.4485;1.0634;
1151.7000;0.4485;1.0681;
1152.0000;0.4510;1.0751;
1152.3000;0.4469;1.0728;
1152.6000;0.4469;1.0657;
1152.9000;0.4469;1.0587;
1153.2000;0.4477;1.0516;
1153.5000;0.4485;1.0516;
1153.8000;0.4501;1.0516;
1154.1000;0.4501;1.0610;
1154.4000;0.4477;1.0516;
1154.7000;0.4485;1.0469;
1155.0000;0.4510;1.0493;
1155.3000;0.4469;1.0493;
1155.6000;0.4493;1.0516;
1155.9000;0.4485;1.0540;
1156.2000;0.4477;1.0493;
1156.5000;0.4485;1.0540;
1156.8000;0.4477;1.0469;
1157.1000;0.4493;1.0446;
1157.4000;0.4453;1.0399;
1157.7000;0.4485;1.0446;
1158.0000;0.4485;1.0469;
1158.3000;0.4501;1.0493;
1158.6000;0.4485;1.0516;
1158.9000;0.4477;1.0540;
1159.2000;0.4469;1.0516;
1159.5000;0.4485;1.0563;
1159.8000;0.4575;1.0751;
1160.1000;0.4477;1.0469;
1160.4000;0.4469;1.0446;
1160.7000;0.4493;1.0422;
1161.0000;0.4485;1.0375;
1161.3000;0.4461;1.0281;
1161.6000;0.4485;1.0351;
1161.9000;0.4501;1.0328;
1162.2000;0.4444;1.0281;
1162.5000;0.4477;1.0351;
1162.8000;0.4501;1.0446;
1163.1000;0.4453;1.0399;
1163.4000;0.4526;1.0540;
1163.7000;0.4469;1.0375;
1164.0000;0.4461;1.0304;
1164.3000;0.4436;1.0234;
1164.6000;0.4453;1.0210;
1164.9000;0.4469;1.0257;
1165.2000;0.4477;1.0257;
1165.5000;0.4477;1.0210;
1165.8000;0.4501;1.0234;
1166.1000;0.4493;1.0210;
1166.4000;0.4469;1.0257;
1166.7000;0.4469;1.0304;
1167.0000;0.4477;1.0351;
1167.3000;0.4461;1.0328;
1167.6000;0.4477;1.0328;
1167.9000;0.4477;1.0210;
1168.2000;0.4453;1.0116;
1168.5000;0.4477;1.0210;
1168.8000;0.4485;1.0210;
1169.1000;0.4469;1.0187;
1169.4000;0.4461;1.0210;
1169.7000;0.4477;1.0187;
1170.0000;0.4469;1.0187;
1170.3000;0.4477;1.0210;
1170.6000;0.4444;1.0210;
1170.9000;0.4477;1.0375;
1171.2000;0.4477;1.0351;
1171.5000;0.4485;1.0375;
1171.8000;0.4436;1.0281;
1172.1000;0.4485;1.0304;
1172.4000;0.4501;1.0304;
1172.7000;0.4469;1.0187;
1173.0000;0.4518;1.0304;
1173.3000;0.4469;1.0328;
1173.6000;0.4550;1.0493;
1173.9000;0.4469;1.0304;
1174.2000;0.4461;1.0304;
1174.5000;0.4477;1.0375;
1174.8000;0.4485;1.0446;
1175.1000;0.4469;1.0351;
1175.4000;0.4436;1.0375;
1175.7000;0.4461;1.0516;
1176.0000;0.4453;1.0540;
1176.3000;0.4461;1.0587;
1176.6000;0.4501;1.0657;
1176.9000;0.4477;1.0634;
1177.2000;0.4485;1.0610;
1177.5000;0.4510;1.0610;
1177.8000;0.4477;1.0587;
1178.1000;0.4477;1.0493;
1178.4000;0.4477;1.0469;
1178.7000;0.4501;1.0516;
1179.0000;0.4469;1.0493;
1179.3000;0.4461;1.0563;
1179.6000;0.4485;1.0516;
1179.9000;0.4469;1.0399;
1180.2000;0.4485;1.0469;
1180.5000;0.4485;1.0540;
1180.8000;0.4526;1.0728;
1181.1000;0.4485;1.0681;
1181.4000;0.4453;1.0610;
1181.7000;0.4485;1.0657;
1182.0000;0.4493;1.0610;
1182.3000;0.4493;1.0634;
1182.6000;0.4493;1.0563;
1182.9000;0.4493;1.0563;
1183.2000;0.4526;1.0610;
1183.5000;0.4534;1.0540;
1183.8000;0.4485;1.0469;
1184.1000;0.4477;1.0446;
1184.4000;0.4542;1.0634;
1184.7000;0.4485;1.0469;
1185.0000;0.4469;1.0351;
1185.3000;0.4485;1.0234;
1185.6000;0.4534;1.0328;
1185.9000;0.4469;1.0140;
1186.2000;0.4485;1.0163;
1186.5000;0.4493;1.0187;
1186.8000;0.4542;1.0328;
1187.1000;0.4461;1.0116;
1187.4000;0.4485;1.0304;
1187.7000;0.4510;1.0446;
1188.0000;0.4477;1.0493;
1188.3000;0.4485;1.0469;
1188.6000;0.4501;1.0493;
1188.9000;0.4477;1.0399;
1189.2000;0.4493;1.0493;
1189.5000;0.4477;1.0375;
1189.8000;0.4485;1.0375;
1190.1000;0.4567;1.0704;
1190.4000;0.4469;1.0422;
1190.7000;0.4461;1.0469;
1191.0000;0.4477;1.0469;
1191.3000;0.4477;1.0422;
1191.6000;0.4485;1.0469;
1191.9000;0.4501;1.0422;
1192.2000;0.4518;1.0399;
1192.5000;0.4477;1.0328;
1192.8000;0.4477;1.0375;
1193.1000;0.4412;1.0234;
1193.4000;0.4453;1.0375;
1193.7000;0.4485;1.0328;
1194.0000;0.4477;1.0234;
1194.3000;0.4477;1.0304;
1194.6000;0.4469;1.0328;
1194.9000;0.4469;1.0375;
1195.2000;0.4461;1.0281;
1195.5000;0.4477;1.0351;
1195.8000;0.4485;1.0328;
1196.1000;0.4477;1.0399;
1196.4000;0.4469;1.0469;
1196.7000;0.4436;1.0375;
1197.0000;0.4461;1.0375;
1197.3000;0.4477;1.0351;
1197.6000;0.4493;1.0399;
1197.9000;0.4469;1.0399;
1198.2000;0.4469;1.0399;
1198.5000;0.4469;1.0469;
1198.8000;0.4485;1.0446;
1199.1000;0.4493;1.0469;
1199.4000;0.4477;1.0446;
1199.7000;0.4469;1.0469;
1200.0000;0.4461;1.0399;
1200.3000;0.4469;1.0446;
1200.6000;0.4518;1.0516;
1200.9000;0.4534;1.0587;
1201.2000;0.4453;1.0399;
1201.5000;0.4469;1.0422;
1201.8000;0.4477;1.0422;
1202.1000;0.4461;1.0446;
1202.4000;0.4461;1.0399;
1202.7000;0.4420;1.0375;
1203.0000;0.4485;1.0516;
1203.3000;0.4477;1.0563;
1203.6000;0.4461;1.0516;
1203.9000;0.4436;1.0469;
1204.2000;0.4428;1.0516;
1204.5000;0.4485;1.0587;
1204.8000;0.4436;1.0469;
1205.1000;0.4485;1.0540;
1205.4000;0.4477;1.0563;
1205.7000;0.4477;1.0634;
1206.0000;0.4469;1.0563;
1206.3000;0.4444;1.0446;
1206.6000;0.4461;1.0446;
1206.9000;0.4485;1.0446;
1207.2000;0.4444;1.0328;
1207.5000;0.4477;1.0399;
1207.8000;0.4453;1.0304;
1208.1000;0.4461;1.0328;
1208.4000;0.4477;1.0422;
1208.7000;0.4485;1.0446;
1209.0000;0.4558;1.0704;
1209.3000;0.4485;1.0469;
1209.6000;0.4485;1.0469;
1209.9000;0.4485;1.0493;
1210.2000;0.4436;1.0399;
1210.5000;0.4469;1.0493;
1210.8000;0.4477;1.0493;
1211.1000;0.4453;1.0422;
1211.4000;0.4444;1.0516;
1211.7000;0.4477;1.0657;
1212.0000;0.4615;1.1010;
1212.3000;0.4469;1.0610;
1212.6000;0.4477;1.0493;
1212.9000;0.4477;1.0446;
1213.2000;0.4558;1.0657;
1213.5000;0.4485;1.0422;
1213.8000;0.4477;1.0446;
1214.1000;0.4477;1.0399;
1214.4000;0.4477;1.0328;
1214.7000;0.4485;1.0351;
1215.0000;0.4461;1.0304;
1215.3000;0.4485;1.0446;
1215.6000;0.4493;1.0399;
1215.9000;0.4477;1.0351;
1216.2000;0.4469;1.0304;
1216.5000;0.4469;1.0234;
1216.8000;0.4485;1.0399;
1217.1000;0.4485;1.0446;
1217.4000;0.4477;1.0422;
1217.7000;0.4469;1.0469;
1218.0000;0.4477;1.0516;
1218.3000;0.4493;1.0469;
1218.6000;0.4461;1.0422;
1218.9000;0.4469;1.0328;
1219.2000;0.4485;1.0257;
1219.5000;0.4493;1.0304;
1219.8000;0.4493;1.0399;
1220.1000;0.4469;1.0351;
1220.4000;0.4485;1.0446;
1220.7000;0.4510;1.0540;
1221.0000;0.4477;1.0422;
1221.3000;0.4469;1.0446;
1221.6000;0.4518;1.0469;
1221.9000;0.4477;1.0399;
1222.2000;0.4485;1.0399;
1222.5000;0.4477;1.0446;
1222.8000;0.4436;1.0422;
1223.1000;0.4477;1.0469;
1223.4000;0.4493;1.0422;
1223.7000;0.4501;1.0399;
1224.0000;0.4461;1.0234;
1224.3000;0.4477;1.0257;
1224.6000;0.4477;1.0210;
1224.9000;0.4518;1.0399;
1225.2000;0.4469;1.0351;
1225.5000;0.4461;1.0351;
1225.8000;0.4469;1.0446;
1226.1000;0.4485;1.0563;
1226.4000;0.4444;1.0422;
1226.7000;0.4493;1.0469;
1227.0000;0.4510;1.0516;
1227.3000;0.4493;1.0446;
1227.6000;0.4485;1.0351;
1227.9000;0.4485;1.0304;
1228.2000;0.4485;1.0281;
1228.5000;0.4534;1.0375;
1228.8000;0.4485;1.0234;
1229.1000;0.4493;1.0328;
1229.4000;0.4404;1.0234;
1229.7000;0.4461;1.0351;
1230.0000;0.4485;1.0375;
1230.3000;0.4501;1.0469;
1230.6000;0.4436;1.0304;
1230.9000;0.4428;1.0281;
1231.2000;0.4412;1.0234;
1231.5000;0.4469;1.0399;
1231.8000;0.4469;1.0422;
1232.1000;0.4444;1.0375;
1232.4000;0.4477;1.0375;
1232.7000;0.4469;1.0446;
1233.0000;0.4469;1.0446;
1233.3000;0.4477;1.0469;
1233.6000;0.4469;1.0422;
1233.9000;0.4469;1.0446;
1234.2000;0.4558;1.0634;
1234.5000;0.4477;1.0375;
1234.8000;0.4469;1.0304;
1235.1000;0.4477;1.0234;
1235.4000;0.4485;1.0281;
1235.7000;0.4469;1.0281;
1236.0000;0.4469;1.0304;
1236.3000;0.4477;1.0304;
1236.6000;0.4477;1.0257;
1236.9000;0.4461;1.0210;
1237.2000;0.4477;1.0234;
1237.5000;0.4461;1.0234;
1237.8000;0.4469;1.0281;
1238.1000;0.4477;1.0234;
1238.4000;0.4477;1.0187;
1238.7000;0.4477;1.0187;
1239.0000;0.4501;1.0281;
1239.3000;0.4477;1.0328;
1239.6000;0.4461;1.0375;
1239.9000;0.4461;1.0446;
1240.2000;0.4387;1.0281;
1240.5000;0.4477;1.0399;
1240.8000;0.4493;1.0446;
1241.1000;0.4485;1.0399;
1241.4000;0.4493;1.0399;
1241.7000;0.4485;1.0351;
1242.0000;0.4477;1.0304;
1242.3000;0.4461;1.0281;
1242.6000;0.4469;1.0281;
1242.9000;0.4453;1.0328;
1243.2000;0.4420;1.0234;
1243.5000;0.4461;1.0210;
1243.8000;0.4477;1.0257;
1244.1000;0.4453;1.0210;
1244.4000;0.4477;1.0281;
1244.7000;0.4453;1.0304;
1245.0000;0.4404;1.0234;
1245.3000;0.4469;1.0469;
1245.6000;0.4461;1.0469;
1245.9000;0.4420;1.0469;
1246.2000;0.4453;1.0587;
1246.5000;0.4461;1.0587;
1246.8000;0.4453;1.0563;
1247.1000;0.4428;1.0469;
1247.4000;0.4477;1.0516;
1247.7000;0.4453;1.0469;
1248.0000;0.4461;1.0446;
1248.3000;0.4436;1.0469;
1248.6000;0.4444;1.0422;
1248.9000;0.4461;1.0516;
1249.2000;0.4477;1.0422;
1249.5000;0.4453;1.0328;
1249.8000;0.4477;1.0399;
1250.1000;0.4493;1.0281;
1250.4000;0.4477;1.0210;
1250.7000;0.4436;1.0187;
1251.0000;0.4477;1.0399;
1251.3000;0.4485;1.0422;
1251.6000;0.4477;1.0351;
1251.9000;0.4493;1.0375;
1252.2000;0.4493;1.0351;
1252.5000;0.4534;1.0304;
1252.8000;0.4469;1.0281;
1253.1000;0.4477;1.0281;
1253.4000;0.4444;1.0234;
1253.7000;0.4485;1.0304;
1254.0000;0.4469;1.0351;
1254.3000;0.4444;1.0328;
1254.6000;0.4461;1.0399;
1254.9000;0.4477;1.0516;
1255.2000;0.4469;1.0587;
1255.5000;0.4461;1.0587;
1255.8000;0.4469;1.0540;
1256.1000;0.4477;1.0516;
1256.4000;0.4485;1.0469;
1256.7000;0.4477;1.0469;
1257.0000;0.4477;1.0563;
1257.3000;0.4444;1.0493;
1257.6000;0.4461;1.0516;
1257.9000;0.4469;1.0469;
1258.2000;0.4469;1.0493;
1258.5000;0.4461;1.0493;
1258.8000;0.4477;1.0446;
1259.1000;0.4469;1.0516;
1259.4000;0.4469;1.0493;
1259.7000;0.4461;1.0399;
1260.0000;0.4550;1.0587;
1260.3000;0.4485;1.0399;
1260.6000;0.4477;1.0446;
1260.9000;0.4477;1.0422;
1261.2000;0.4485;1.0469;
1261.5000;0.4485;1.0516;
1261.8000;0.4510;1.0516;
1262.1000;0.4485;1.0469;
1262.4000;0.4493;1.0446;
1262.7000;0.4493;1.0516;
1263.0000;0.4493;1.0540;
1263.3000;0.4501;1.0563;
1263.6000;0.4477;1.0493;
1263.9000;0.4493;1.0516;
1264.2000;0.4420;1.0422;
1264.5000;0.4493;1.0587;
1264.8000;0.4485;1.0563;
1265.1000;0.4477;1.0375;
1265.4000;0.4469;1.0351;
1265.7000;0.4485;1.0375;
1266.0000;0.4469;1.0375;
1266.3000;0.4469;1.0375;
1266.6000;0.4469;1.0399;
1266.9000;0.4444;1.0328;
1267.2000;0.4453;1.0375;
1267.5000;0.4469;1.0446;
1267.8000;0.4461;1.0446;
1268.1000;0.4477;1.0516;
1268.4000;0.4501;1.0587;
1268.7000;0.4493;1.0610;
1269.0000;0.4477;1.0516;
1269.3000;0.4469;1.0493;
1269.6000;0.4420;1.0328;
1269.9000;0.4436;1.0375;
1270.2000;0.4485;1.0328;
1270.5000;0.4461;1.0210;
1270.8000;0.4485;1.0281;
1271.1000;0.4485;1.0234;
1271.4000;0.4461;1.0281;
1271.7000;0.4436;1.0187;
1272.0000;0.4428;1.0022;
1272.3000;0.4469;0.9999;
1272.6000;0.4485;0.9999;
1272.9000;0.4436;0.9999;
1273.2000;0.4453;1.0069;
1273.5000;0.4493;1.0210;
1273.8000;0.4444;1.0140;
1274.1000;0.4493;1.0281;
1274.4000;0.4469;1.0234;
1274.7000;0.4477;1.0351;
1275.0000;0.4501;1.0375;
1275.3000;0.4469;1.0351;
1275.6000;0.4485;1.0304;
1275.9000;0.4510;1.0281;
1276.2000;0.4485;1.0281;
1276.5000;0.4477;1.0469;
1276.8000;0.4493;1.0540;
1277.1000;0.4493;1.0587;
1277.4000;0.4477;1.0563;
1277.7000;0.4469;1.0563;
1278.0000;0.4477;1.0493;
1278.3000;0.4510;1.0587;
1278.6000;0.4469;1.0563;
1278.9000;0.4469;1.0493;
1279.2000;0.4485;1.0540;
1279.5000;0.4461;1.0493;
1279.8000;0.4469;1.0493;
1280.1000;0.4493;1.0540;
1280.4000;0.4461;1.0469;
1280.7000;0.4477;1.0493;
1281.0000;0.4477;1.0469;
1281.3000;0.4493;1.0422;
1281.6000;0.4461;1.0375;
1281.9000;0.4461;1.0422;
1282.2000;0.4534;1.0540;
1282.5000;0.4469;1.0375;
1282.8000;0.4469;1.0328;
1283.1000;0.4444;1.0304;
1283.4000;0.4461;1.0351;
1283.7000;0.4461;1.0422;
1284.0000;0.4461;1.0493;
1284.3000;0.4420;1.0304;
1284.6000;0.4461;1.0446;
1284.9000;0.4469;1.0563;
1285.2000;0.4469;1.0540;
1285.5000;0.4493;1.0469;
1285.8000;0.4461;1.0375;
1286.1000;0.4404;1.0187;
1286.4000;0.4485;1.0399;
1286.7000;0.4469;1.0446;
1287.0000;0.4485;1.0540;
1287.3000;0.4485;1.0540;
1287.6000;0.4485;1.0516;
1287.9000;0.4485;1.0540;
1288.2000;0.4469;1.0399;
1288.5000;0.4461;1.0328;
1288.8000;0.4469;1.0399;
1289.1000;0.4485;1.0469;
1289.4000;0.4477;1.0563;
1289.7000;0.4534;1.0728;
1290.0000;0.4453;1.0493;
1290.3000;0.4477;1.0587;
1290.6000;0.4542;1.0610;
1290.9000;0.4469;1.0328;
1291.2000;0.4493;1.0234;
1291.5000;0.4493;1.0257;
1291.8000;0.4412;1.0116;
1292.1000;0.4477;1.0257;
1292.4000;0.4485;1.0304;
1292.7000;0.4477;1.0328;
1293.0000;0.4518;1.0493;
1293.3000;0.4436;1.0469;
1293.6000;0.4453;1.0587;
1293.9000;0.4469;1.0610;
1294.2000;0.4469;1.0657;
1294.5000;0.4461;1.0516;
1294.8000;0.4461;1.0446;
1295.1000;0.4453;1.0375;
1295.4000;0.4453;1.0422;
1295.7000;0.4444;1.0469;
1296.0000;0.4461;1.0634;
1296.3000;0.4469;1.0775;
1296.6000;0.4477;1.0704;
1296.9000;0.4477;1.0610;
1297.2000;0.4485;1.0587;
1297.5000;0.4477;1.0563;
1297.8000;0.4453;1.0516;
1298.1000;0.4461;1.0657;
1298.4000;0.4469;1.0634;
1298.7000;0.4493;1.0704;
1299.0000;0.4469;1.0798;
1299.3000;0.4477;1.0775;
1299.6000;0.4469;1.0728;
1299.9000;0.4485;1.0657;
1300.2000;0.4469;1.0610;
1300.5000;0.4477;1.0540;
1300.8000;0.4485;1.0563;
1301.1000;0.4461;1.0375;
1301.4000;0.4469;1.0399;
1301.7000;0.4485;1.0469;
1302.0000;0.4485;1.0469;
1302.3000;0.4477;1.0422;
1302.6000;0.4461;1.0351;
1302.9000;0.4477;1.0351;
1303.2000;0.4469;1.0399;
1303.5000;0.4485;1.0399;
1303.8000;0.4510;1.0446;
1304.1000;0.4469;1.0234;
1304.4000;0.4461;1.0163;
1304.7000;0.4469;1.0210;
1305.0000;0.4461;1.0187;
1305.3000;0.4510;1.0257;
1305.6000;0.4453;1.0140;
1305.9000;0.4477;1.0163;
1306.2000;0.4477;1.0140;
1306.5000;0.4501;1.0163;
1306.8000;0.4485;1.0116;
1307.1000;0.4493;1.0116;
1307.4000;0.4534;1.0210;
1307.7000;0.4469;1.0163;
1308.0000;0.4558;1.0351;
1308.3000;0.4469;1.0140;
1308.6000;0.4469;1.0257;
1308.9000;0.4469;1.0234;
1309.2000;0.4420;1.0234;
1309.5000;0.4461;1.0351;
1309.8000;0.4453;1.0375;
1310.1000;0.4493;1.0422;
1310.4000;0.4453;1.0328;
1310.7000;0.4461;1.0399;
1311.0000;0.4453;1.0351;
1311.3000;0.4477;1.0399;
1311.6000;0.4501;1.0469;
1311.9000;0.4469;1.0469;
1312.2000;0.4461;1.0540;
1312.5000;0.4485;1.0587;
1312.8000;0.4453;1.0563;
1313.1000;0.4485;1.0610;
1313.4000;0.4453;1.0540;
1313.7000;0.4469;1.0563;
1314.0000;0.4461;1.0422;
1314.3000;0.4461;1.0446;
1314.6000;0.4461;1.0351;
1314.9000;0.4461;1.0375;
1315.2000;0.4461;1.0375;
1315.5000;0.4477;1.0351;
1315.8000;0.4453;1.0281;
1316.1000;0.4485;1.0257;
1316.4000;0.4469;1.0210;
1316.7000;0.4469;1.0304;
1317.0000;0.4485;1.0304;
1317.3000;0.4469;1.0187;
1317.6000;0.4453;1.0163;
1317.9000;0.4567;1.0516;
1318.2000;0.4501;1.0446;
1318.5000;0.4477;1.0351;
1318.8000;0.4461;1.0351;
1319.1000;0.4485;1.0375;
1319.4000;0.4485;1.0446;
1319.7000;0.4485;1.0493;
1320.0000;0.4444;1.0399;
1320.3000;0.4477;1.0516;
1320.6000;0.4436;1.0563;
1320.9000;0.4436;1.0610;
1321.2000;0.4469;1.0657;
1321.5000;0.4453;1.0587;
1321.8000;0.4461;1.0563;
1322.1000;0.4477;1.0540;
1322.4000;0.4501;1.0540;
1322.7000;0.4461;1.0422;
1323.0000;0.4477;1.0422;
1323.3000;0.4477;1.0446;
1323.6000;0.4461;1.0328;
1323.9000;0.4477;1.0399;
1324.2000;0.4501;1.0375;
1324.5000;0.4453;1.0304;
1324.8000;0.4542;1.0587;
1325.1000;0.4453;1.0469;
1325.4000;0.4453;1.0422;
1325.7000;0.4477;1.0563;
1326.0000;0.4444;1.0540;
1326.3000;0.4428;1.0493;
1326.6000;0.4461;1.0563;
1326.9000;0.4493;1.0681;
1327.2000;0.4477;1.0681;
1327.5000;0.4428;1.0587;
1327.8000;0.4428;1.0516;
1328.1000;0.4396;1.0399;
1328.4000;0.4501;1.0587;
1328.7000;0.4493;1.0610;
1329.0000;0.4461;1.0446;
1329.3000;0.4469;1.0446;
1329.6000;0.4477;1.0516;
1329.9000;0.4469;1.0493;
1330.2000;0.4461;1.0516;
1330.5000;0.4461;1.0422;
1330.8000;0.4469;1.0422;
1331.1000;0.4493;1.0422;
1331.4000;0.4485;1.0351;
1331.7000;0.4477;1.0399;
1332.0000;0.4485;1.0493;
1332.3000;0.4485;1.0540;
1332.6000;0.4518;1.0681;
1332.9000;0.4477;1.0610;
1333.2000;0.4493;1.0446;
1333.5000;0.4404;1.0257;
1333.8000;0.4469;1.0469;
1334.1000;0.4477;1.0351;
1334.4000;0.4477;1.0328;
1334.7000;0.4469;1.0304;
1335.0000;0.4485;1.0351;
1335.3000;0.4461;1.0328;
1335.6000;0.4469;1.0328;
1335.9000;0.4453;1.0281;
1336.2000;0.4485;1.0234;
1336.5000;0.4461;1.0163;
1336.8000;0.4493;1.0304;
1337.1000;0.4501;1.0328;
1337.4000;0.4477;1.0257;
1337.7000;0.4436;1.0210;
1338.0000;0.4404;1.0093;
1338.3000;0.4477;1.0399;
1338.6000;0.4477;1.0351;
1338.9000;0.4501;1.0328;
1339.2000;0.4469;1.0304;
1339.5000;0.4420;1.0210;
1339.8000;0.4469;1.0399;
1340.1000;0.4501;1.0446;
1340.4000;0.4469;1.0328;
1340.7000;0.4420;1.0257;
1341.0000;0.4493;1.0422;
1341.3000;0.4477;1.0328;
1341.6000;0.4453;1.0210;
1341.9000;0.4477;1.0234;
1342.2000;0.4477;1.0304;
1342.5000;0.4542;1.0516;
1342.8000;0.4469;1.0375;
1343.1000;0.4477;1.0351;
1343.4000;0.4444;1.0328;
1343.7000;0.4518;1.0540;
1344.0000;0.4501;1.0610;
1344.3000;0.4469;1.0516;
1344.6000;0.4501;1.0516;
1344.9000;0.4461;1.0399;
1345.2000;0.4444;1.0375;
1345.5000;0.4469;1.0446;
1345.8000;0.4477;1.0540;
1346.1000;0.4469;1.0516;
1346.4000;0.4485;1.0493;
1346.7000;0.4477;1.0446;
1347.0000;0.4558;1.0610;
1347.3000;0.4453;1.0399;
1347.6000;0.4485;1.0540;
1347.9000;0.4493;1.0563;
1348.2000;0.4412;1.0351;
1348.5000;0.4485;1.0446;
1348.8000;0.4420;1.0187;
1349.1000;0.4461;1.0281;
1349.4000;0.4518;1.0351;
1349.7000;0.4461;1.0328;
1350.0000;0.4453;1.0422;
1350.3000;0.4518;1.0587;
1350.6000;0.4485;1.0469;
1350.9000;0.4453;1.0446;
1351.2000;0.4477;1.0446;
1351.5000;0.4485;1.0422;
1351.8000;0.4485;1.0446;
1352.1000;0.4453;1.0375;
1352.4000;0.4477;1.0399;
1352.7000;0.4485;1.0422;
1353.0000;0.4469;1.0351;
1353.3000;0.4469;1.0351;
1353.6000;0.4436;1.0234;
1353.9000;0.4477;1.0328;
1354.2000;0.4477;1.0399;
1354.5000;0.4493;1.0446;
1354.8000;0.4477;1.0399;
1355.1000;0.4485;1.0422;
1355.4000;0.4493;1.0493;
1355.7000;0.4404;1.0328;
1356.0000;0.4485;1.0493;
1356.3000;0.4436;1.0375;
1356.6000;0.4518;1.0704;
1356.9000;0.4469;1.0634;
1357.2000;0.4469;1.0634;
1357.5000;0.4485;1.0563;
1357.8000;0.4493;1.0516;
1358.1000;0.4501;1.0493;
1358.4000;0.4501;1.0516;
1358.7000;0.4501;1.0469;
1359.0000;0.4493;1.0422;
1359.3000;0.4510;1.0446;
1359.6000;0.4420;1.0234;
1359.9000;0.4461;1.0304;
1360.2000;0.4493;1.0516;
1360.5000;0.4477;1.0446;
1360.8000;0.4477;1.0399;
1361.1000;0.4469;1.0375;
1361.4000;0.4493;1.0469;
1361.7000;0.4469;1.0469;
1362.0000;0.4461;1.0399;
1362.3000;0.4469;1.0422;
1362.6000;0.4469;1.0399;
1362.9000;0.4501;1.0469;
1363.2000;0.4477;1.0469;
1363.5000;0.4461;1.0399;
1363.8000;0.4444;1.0446;
1364.1000;0.4404;1.0446;
1364.4000;0.4461;1.0563;
1364.7000;0.4469;1.0563;
1365.0000;0.4469;1.0446;
1365.3000;0.4485;1.0281;
1365.6000;0.4477;1.0281;
1365.9000;0.4493;1.0304;
1366.2000;0.4477;1.0328;
1366.5000;0.4453;1.0422;
1366.8000;0.4469;1.0422;
1367.1000;0.4485;1.0469;
1367.4000;0.4477;1.0493;
1367.7000;0.4485;1.0516;
1368.0000;0.4477;1.0469;
1368.3000;0.4477;1.0399;
1368.6000;0.4485;1.0469;
1368.9000;0.4477;1.0469;
1369.2000;0.4518;1.0634;
1369.5000;0.4485;1.0563;
1369.8000;0.4477;1.0563;
1370.1000;0.4501;1.0587;
1370.4000;0.4436;1.0422;
1370.7000;0.4477;1.0446;
1371.0000;0.4428;1.0493;
1371.3000;0.4477;1.0540;
1371.6000;0.4444;1.0516;
1371.9000;0.4469;1.0516;
1372.2000;0.4469;1.0516;
1372.5000;0.4477;1.0587;
1372.8000;0.4485;1.0563;
1373.1000;0.4396;1.0399;
1373.4000;0.4477;1.0657;
1373.7000;0.4469;1.0704;
1374.0000;0.4461;1.0657;
1374.3000;0.4485;1.0587;
1374.6000;0.4485;1.0657;
1374.9000;0.4477;1.0634;
1375.2000;0.4477;1.0563;
1375.5000;0.4453;1.0516;
1375.8000;0.4469;1.0563;
1376.1000;0.4461;1.0587;
1376.4000;0.4469;1.0540;
1376.7000;0.4477;1.0610;
1377.0000;0.4469;1.0587;
1377.3000;0.4469;1.0587;
1377.6000;0.4461;1.0563;
1377.9000;0.4469;1.0540;
1378.2000;0.4461;1.0610;
1378.5000;0.4469;1.0634;
1378.8000;0.4477;1.0540;
1379.1000;0.4469;1.0422;
1379.4000;0.4404;1.0257;
1379.7000;0.4485;1.0610;
1380.0000;0.4469;1.0704;
1380.3000;0.4485;1.0751;
1380.6000;0.4493;1.0775;
1380.9000;0.4485;1.0869;
1381.2000;0.4485;1.0751;
1381.5000;0.4469;1.0681;
1381.8000;0.4477;1.0634;
1382.1000;0.4493;1.0704;
1382.4000;0.4404;1.0469;
1382.7000;0.4477;1.0728;
1383.0000;0.4453;1.0634;
1383.3000;0.4461;1.0610;
1383.6000;0.4485;1.0657;
1383.9000;0.4461;1.0563;
1384.2000;0.4461;1.0610;
1384.5000;0.4493;1.0657;
1384.8000;0.4485;1.0634;
1385.1000;0.4493;1.0587;
1385.4000;0.4518;1.0610;
1385.7000;0.4534;1.0587;
1386.0000;0.4493;1.0493;
1386.3000;0.4469;1.0469;
1386.6000;0.4436;1.0375;
1386.9000;0.4477;1.0516;
1387.2000;0.4453;1.0469;
1387.5000;0.4404;1.0351;
1387.8000;0.4461;1.0446;
1388.1000;0.4444;1.0422;
1388.4000;0.4526;1.0681;
1388.7000;0.4477;1.0610;
1389.0000;0.4412;1.0469;
1389.3000;0.4453;1.0540;
1389.6000;0.4461;1.0634;
1389.9000;0.4477;1.0610;
1390.2000;0.4485;1.0610;
1390.5000;0.4485;1.0610;
1390.8000;0.4493;1.0540;
1391.1000;0.4485;1.0493;
1391.4000;0.4477;1.0446;
1391.7000;0.4469;1.0446;
1392.0000;0.4444;1.0422;
1392.3000;0.4485;1.0540;
1392.6000;0.4453;1.0563;
1392.9000;0.4542;1.0728;
1393.2000;0.4461;1.0469;
1393.5000;0.4493;1.0516;
1393.8000;0.4469;1.0446;
1394.1000;0.4534;1.0634;
1394.4000;0.4477;1.0399;
1394.7000;0.4493;1.0399;
1395.0000;0.4420;1.0210;
1395.3000;0.4485;1.0399;
1395.6000;0.4526;1.0493;
1395.9000;0.4461;1.0375;
1396.2000;0.4477;1.0351;
1396.5000;0.4469;1.0257;
1396.8000;0.4469;1.0304;
1397.1000;0.4493;1.0351;
1397.4000;0.4444;1.0257;
1397.7000;0.4501;1.0446;
1398.0000;0.4469;1.0351;
1398.3000;0.4469;1.0257;
1398.6000;0.4485;1.0234;
1398.9000;0.4485;1.0304;
1399.2000;0.4542;1.0399;
1399.5000;0.4485;1.0281;
1399.8000;0.4477;1.0328;
