time/ms;Fluo/V;P700 deltaI/I x10³;
-199.8000;0.5495;1.0987;
-199.5000;0.5486;1.0940;
-199.2000;0.5454;1.0869;
-198.9000;0.5503;1.1010;
-198.6000;0.5478;1.0940;
-198.3000;0.5462;1.0940;
-198.0000;0.5503;1.1010;
-197.7000;0.5495;1.1057;
-197.4000;0.5478;1.1081;
-197.1000;0.5470;1.1057;
-196.8000;0.5478;1.1151;
-196.5000;0.5486;1.1245;
-196.2000;0.5470;1.1222;
-195.9000;0.5462;1.1175;
-195.6000;0.5495;1.1293;
-195.3000;0.5495;1.1222;
-195.0000;0.5454;1.1128;
-194.7000;0.5470;1.1245;
-194.4000;0.5421;1.1034;
-194.1000;0.5478;1.1151;
-193.8000;0.5478;1.1198;
-193.5000;0.5478;1.1175;
-193.2000;0.5503;1.1151;
-192.9000;0.5478;1.1034;
-192.6000;0.5495;1.1081;
-192.3000;0.5454;1.1010;
-192.0000;0.5495;1.1057;
-191.7000;0.5495;1.1104;
-191.4000;0.5429;1.0987;
-191.1000;0.5486;1.1198;
-190.8000;0.5470;1.1198;
-190.5000;0.5535;1.1293;
-190.2000;0.5478;1.1081;
-189.9000;0.5478;1.1057;
-189.6000;0.5535;1.1222;
-189.3000;0.5462;1.1034;
-189.0000;0.5478;1.1081;
-188.7000;0.5470;1.1104;
-188.4000;0.5503;1.1175;
-188.1000;0.5511;1.1245;
-187.8000;0.5462;1.1128;
-187.5000;0.5446;1.1104;
-187.2000;0.5495;1.1104;
-186.9000;0.5486;1.1081;
-186.6000;0.5495;1.1057;
-186.3000;0.5486;1.1010;
-186.0000;0.5519;1.1034;
-185.7000;0.5478;1.0963;
-185.4000;0.5470;1.0987;
-185.1000;0.5470;1.1057;
-184.8000;0.5495;1.1128;
-184.5000;0.5495;1.1081;
-184.2000;0.5478;1.1010;
-183.9000;0.5462;1.1034;
-183.6000;0.5478;1.1104;
-183.3000;0.5478;1.1128;
-183.0000;0.5503;1.1245;
-182.7000;0.5486;1.1198;
-182.4000;0.5486;1.1175;
-182.1000;0.5495;1.1316;
-181.8000;0.5486;1.1316;
-181.5000;0.5486;1.1340;
-181.2000;0.5478;1.1340;
-180.9000;0.5486;1.1434;
-180.6000;0.5486;1.1387;
-180.3000;0.5519;1.1457;
-180.0000;0.5478;1.1269;
-179.7000;0.5478;1.1198;
-179.4000;0.5535;1.1387;
-179.1000;0.5478;1.1198;
-178.8000;0.5486;1.1104;
-178.5000;0.5470;1.1057;
-178.2000;0.5446;1.1010;
-177.9000;0.5478;1.1081;
-177.6000;0.5478;1.1104;
-177.3000;0.5511;1.1057;
-177.0000;0.5486;1.0987;
-176.7000;0.5470;1.0869;
-176.4000;0.5462;1.0798;
-176.1000;0.5478;1.0963;
-175.8000;0.5462;1.1010;
-175.5000;0.5470;1.0963;
-175.2000;0.5470;1.0940;
-174.9000;0.5478;1.0987;
-174.6000;0.5470;1.0987;
-174.3000;0.5478;1.1010;
-174.0000;0.5470;1.1057;
-173.7000;0.5454;1.1010;
-173.4000;0.5446;1.1034;
-173.1000;0.5478;1.1128;
-172.8000;0.5503;1.1245;
-172.5000;0.5470;1.1198;
-172.2000;0.5462;1.1128;
-171.9000;0.5486;1.1057;
-171.6000;0.5486;1.0987;
-171.3000;0.5470;1.1034;
-171.0000;0.5470;1.1151;
-170.7000;0.5486;1.1128;
-170.4000;0.5470;1.1104;
-170.1000;0.5470;1.1081;
-169.8000;0.5470;1.1104;
-169.5000;0.5486;1.1128;
-169.2000;0.5486;1.1151;
-168.9000;0.5462;1.1081;
-168.6000;0.5486;1.1034;
-168.3000;0.5503;1.1010;
-168.0000;0.5478;1.1010;
-167.7000;0.5495;1.0987;
-167.4000;0.5486;1.1104;
-167.1000;0.5486;1.1081;
-166.8000;0.5478;1.1081;
-166.5000;0.5478;1.1034;
-166.2000;0.5470;1.1175;
-165.9000;0.5470;1.1151;
-165.6000;0.5486;1.1245;
-165.3000;0.5470;1.1293;
-165.0000;0.5454;1.1198;
-164.7000;0.5462;1.1198;
-164.4000;0.5478;1.1198;
-164.1000;0.5495;1.1175;
-163.8000;0.5478;1.1222;
-163.5000;0.5503;1.1363;
-163.2000;0.5470;1.1198;
-162.9000;0.5495;1.1269;
-162.6000;0.5462;1.1293;
-162.3000;0.5478;1.1316;
-162.0000;0.5478;1.1316;
-161.7000;0.5478;1.1269;
-161.4000;0.5478;1.1245;
-161.1000;0.5470;1.1151;
-160.8000;0.5470;1.1104;
-160.5000;0.5495;1.1081;
-160.2000;0.5486;1.1081;
-159.9000;0.5470;1.1081;
-159.6000;0.5462;1.1034;
-159.3000;0.5495;1.1057;
-159.0000;0.5486;1.1034;
-158.7000;0.5478;1.0916;
-158.4000;0.5462;1.0869;
-158.1000;0.5495;1.0987;
-157.8000;0.5486;1.1081;
-157.5000;0.5486;1.1151;
-157.2000;0.5495;1.1151;
-156.9000;0.5470;1.1081;
-156.6000;0.5495;1.1128;
-156.3000;0.5486;1.1151;
-156.0000;0.5470;1.1151;
-155.7000;0.5470;1.1175;
-155.4000;0.5486;1.1222;
-155.1000;0.5478;1.1198;
-154.8000;0.5486;1.1198;
-154.5000;0.5462;1.1151;
-154.2000;0.5462;1.1198;
-153.9000;0.5486;1.1316;
-153.6000;0.5486;1.1269;
-153.3000;0.5462;1.1175;
-153.0000;0.5495;1.1128;
-152.7000;0.5486;1.1175;
-152.4000;0.5486;1.1128;
-152.1000;0.5478;1.1128;
-151.8000;0.5478;1.1198;
-151.5000;0.5478;1.1316;
-151.2000;0.5478;1.1363;
-150.9000;0.5486;1.1316;
-150.6000;0.5470;1.1340;
-150.3000;0.5478;1.1340;
-150.0000;0.5470;1.1222;
-149.7000;0.5470;1.1198;
-149.4000;0.5470;1.1175;
-149.1000;0.5486;1.1198;
-148.8000;0.5478;1.1104;
-148.5000;0.5478;1.1128;
-148.2000;0.5511;1.1293;
-147.9000;0.5486;1.1269;
-147.6000;0.5503;1.1269;
-147.3000;0.5486;1.1245;
-147.0000;0.5495;1.1269;
-146.7000;0.5495;1.1293;
-146.4000;0.5495;1.1363;
-146.1000;0.5495;1.1316;
-145.8000;0.5470;1.1293;
-145.5000;0.5478;1.1269;
-145.2000;0.5486;1.1269;
-144.9000;0.5495;1.1222;
-144.6000;0.5495;1.1057;
-144.3000;0.5478;1.1057;
-144.0000;0.5478;1.1104;
-143.7000;0.5486;1.1198;
-143.4000;0.5495;1.1222;
-143.1000;0.5454;1.1034;
-142.8000;0.5389;1.0846;
-142.5000;0.5486;1.1104;
-142.2000;0.5478;1.1034;
-141.9000;0.5454;1.0893;
-141.6000;0.5486;1.1034;
-141.3000;0.5486;1.0963;
-141.0000;0.5478;1.1034;
-140.7000;0.5486;1.1010;
-140.4000;0.5503;1.1057;
-140.1000;0.5503;1.0987;
-139.8000;0.5495;1.0963;
-139.5000;0.5478;1.0987;
-139.2000;0.5576;1.1293;
-138.9000;0.5478;1.0987;
-138.6000;0.5478;1.0987;
-138.3000;0.5495;1.1010;
-138.0000;0.5511;1.1081;
-137.7000;0.5495;1.1081;
-137.4000;0.5486;1.0963;
-137.1000;0.5519;1.1010;
-136.8000;0.5495;1.0963;
-136.5000;0.5470;1.0987;
-136.2000;0.5478;1.1057;
-135.9000;0.5470;1.1057;
-135.6000;0.5478;1.1034;
-135.3000;0.5478;1.1034;
-135.0000;0.5478;1.1057;
-134.7000;0.5470;1.0987;
-134.4000;0.5470;1.0963;
-134.1000;0.5511;1.1081;
-133.8000;0.5495;1.1104;
-133.5000;0.5511;1.1222;
-133.2000;0.5535;1.1293;
-132.9000;0.5486;1.1151;
-132.6000;0.5421;1.0987;
-132.3000;0.5495;1.1175;
-132.0000;0.5478;1.1104;
-131.7000;0.5478;1.1010;
-131.4000;0.5462;1.1010;
-131.1000;0.5495;1.1081;
-130.8000;0.5470;1.0963;
-130.5000;0.5478;1.0940;
-130.2000;0.5470;1.1010;
-129.9000;0.5478;1.1010;
-129.6000;0.5462;1.1034;
-129.3000;0.5503;1.1104;
-129.0000;0.5470;1.1057;
-128.7000;0.5486;1.1151;
-128.4000;0.5511;1.1175;
-128.1000;0.5478;1.1175;
-127.8000;0.5486;1.1198;
-127.5000;0.5486;1.1222;
-127.2000;0.5519;1.1316;
-126.9000;0.5486;1.1293;
-126.6000;0.5478;1.1293;
-126.3000;0.5470;1.1175;
-126.0000;0.5495;1.1151;
-125.7000;0.5503;1.1245;
-125.4000;0.5429;1.1128;
-125.1000;0.5462;1.1175;
-124.8000;0.5446;1.1104;
-124.5000;0.5503;1.1175;
-124.2000;0.5478;1.1081;
-123.9000;0.5560;1.1222;
-123.6000;0.5486;1.1057;
-123.3000;0.5478;1.0916;
-123.0000;0.5429;1.0775;
-122.7000;0.5454;1.0846;
-122.4000;0.5486;1.0916;
-122.1000;0.5486;1.0940;
-121.8000;0.5511;1.1057;
-121.5000;0.5478;1.1057;
-121.2000;0.5486;1.1151;
-120.9000;0.5478;1.1104;
-120.6000;0.5462;1.1057;
-120.3000;0.5462;1.1034;
-120.0000;0.5478;1.1081;
-119.7000;0.5438;1.0963;
-119.4000;0.5486;1.1104;
-119.1000;0.5486;1.1151;
-118.8000;0.5478;1.1104;
-118.5000;0.5470;1.1104;
-118.2000;0.5486;1.1128;
-117.9000;0.5495;1.1128;
-117.6000;0.5527;1.1151;
-117.3000;0.5511;1.1034;
-117.0000;0.5503;1.1057;
-116.7000;0.5486;1.1034;
-116.4000;0.5495;1.0940;
-116.1000;0.5486;1.0940;
-115.8000;0.5486;1.0963;
-115.5000;0.5495;1.0987;
-115.2000;0.5478;1.0963;
-114.9000;0.5446;1.0916;
-114.6000;0.5478;1.0940;
-114.3000;0.5486;1.1034;
-114.0000;0.5503;1.1222;
-113.7000;0.5470;1.1198;
-113.4000;0.5503;1.1222;
-113.1000;0.5511;1.1269;
-112.8000;0.5503;1.1198;
-112.5000;0.5470;1.1128;
-112.2000;0.5438;1.1010;
-111.9000;0.5519;1.1269;
-111.6000;0.5495;1.1175;
-111.3000;0.5495;1.1128;
-111.0000;0.5478;1.1057;
-110.7000;0.5486;1.1128;
-110.4000;0.5486;1.1128;
-110.1000;0.5470;1.1057;
-109.8000;0.5454;1.0987;
-109.5000;0.5486;1.1151;
-109.2000;0.5486;1.1104;
-108.9000;0.5519;1.1175;
-108.6000;0.5478;1.1151;
-108.3000;0.5470;1.1104;
-108.0000;0.5486;1.1151;
-107.7000;0.5478;1.1151;
-107.4000;0.5470;1.1198;
-107.1000;0.5495;1.1245;
-106.8000;0.5486;1.1245;
-106.5000;0.5486;1.1269;
-106.2000;0.5511;1.1340;
-105.9000;0.5486;1.1293;
-105.6000;0.5495;1.1340;
-105.3000;0.5478;1.1293;
-105.0000;0.5495;1.1316;
-104.7000;0.5495;1.1293;
-104.4000;0.5511;1.1293;
-104.1000;0.5462;1.1081;
-103.8000;0.5462;1.0963;
-103.5000;0.5486;1.0963;
-103.2000;0.5495;1.1081;
-102.9000;0.5462;1.0963;
-102.6000;0.5446;1.0987;
-102.3000;0.5470;1.1104;
-102.0000;0.5478;1.1198;
-101.7000;0.5470;1.1198;
-101.4000;0.5486;1.1269;
-101.1000;0.5462;1.1151;
-100.8000;0.5470;1.1151;
-100.5000;0.5495;1.1293;
-100.2000;0.5486;1.1293;
-99.9000;0.5413;1.1081;
-99.6000;0.5486;1.1269;
-99.3000;0.5503;1.1363;
-99.0000;0.5478;1.1198;
-98.7000;0.5486;1.1151;
-98.4000;0.5470;1.1175;
-98.1000;0.5535;1.1387;
-97.8000;0.5470;1.1198;
-97.5000;0.5478;1.1198;
-97.2000;0.5486;1.1293;
-96.9000;0.5454;1.1293;
-96.6000;0.5519;1.1434;
-96.3000;0.5478;1.1316;
-96.0000;0.5519;1.1363;
-95.7000;0.5478;1.1340;
-95.4000;0.5527;1.1434;
-95.1000;0.5495;1.1387;
-94.8000;0.5486;1.1245;
-94.5000;0.5470;1.1128;
-94.2000;0.5470;1.1151;
-93.9000;0.5470;1.1081;
-93.6000;0.5495;1.1057;
-93.3000;0.5478;1.0940;
-93.0000;0.5495;1.1010;
-92.7000;0.5478;1.1010;
-92.4000;0.5535;1.1269;
-92.1000;0.5478;1.1081;
-91.8000;0.5495;1.1081;
-91.5000;0.5478;1.1175;
-91.2000;0.5486;1.1151;
-90.9000;0.5486;1.1151;
-90.6000;0.5486;1.1222;
-90.3000;0.5478;1.1151;
-90.0000;0.5503;1.1175;
-89.7000;0.5470;1.1034;
-89.4000;0.5519;1.1034;
-89.1000;0.5470;1.0963;
-88.8000;0.5470;1.0963;
-88.5000;0.5478;1.0916;
-88.2000;0.5478;1.1057;
-87.9000;0.5389;1.0822;
-87.6000;0.5470;1.1057;
-87.3000;0.5486;1.1104;
-87.0000;0.5495;1.1081;
-86.7000;0.5454;1.0940;
-86.4000;0.5495;1.1269;
-86.1000;0.5495;1.1245;
-85.8000;0.5462;1.1128;
-85.5000;0.5486;1.1198;
-85.2000;0.5478;1.1269;
-84.9000;0.5470;1.1245;
-84.6000;0.5495;1.1222;
-84.3000;0.5478;1.1151;
-84.0000;0.5503;1.1128;
-83.7000;0.5511;1.1222;
-83.4000;0.5495;1.1151;
-83.1000;0.5495;1.1057;
-82.8000;0.5478;1.0987;
-82.5000;0.5495;1.1034;
-82.2000;0.5495;1.1034;
-81.9000;0.5511;1.1104;
-81.6000;0.5503;1.1081;
-81.3000;0.5486;1.1128;
-81.0000;0.5478;1.1010;
-80.7000;0.5478;1.0987;
-80.4000;0.5478;1.0963;
-80.1000;0.5503;1.1057;
-79.8000;0.5478;1.0963;
-79.5000;0.5478;1.0940;
-79.2000;0.5478;1.0963;
-78.9000;0.5486;1.0987;
-78.6000;0.5478;1.1104;
-78.3000;0.5470;1.1175;
-78.0000;0.5478;1.1104;
-77.7000;0.5470;1.0987;
-77.4000;0.5495;1.0987;
-77.1000;0.5470;1.0963;
-76.8000;0.5454;1.0963;
-76.5000;0.5478;1.1057;
-76.2000;0.5486;1.0987;
-75.9000;0.5478;1.1034;
-75.6000;0.5486;1.1081;
-75.3000;0.5462;1.1057;
-75.0000;0.5478;1.1175;
-74.7000;0.5421;1.1151;
-74.4000;0.5454;1.1293;
-74.1000;0.5429;1.1175;
-73.8000;0.5470;1.1269;
-73.5000;0.5486;1.1269;
-73.2000;0.5486;1.1269;
-72.9000;0.5446;1.1245;
-72.6000;0.5470;1.1316;
-72.3000;0.5478;1.1340;
-72.0000;0.5478;1.1269;
-71.7000;0.5470;1.1151;
-71.4000;0.5462;1.1128;
-71.1000;0.5486;1.1269;
-70.8000;0.5470;1.1293;
-70.5000;0.5486;1.1269;
-70.2000;0.5478;1.1175;
-69.9000;0.5470;1.1151;
-69.6000;0.5519;1.1245;
-69.3000;0.5478;1.1128;
-69.0000;0.5486;1.1104;
-68.7000;0.5495;1.1104;
-68.4000;0.5511;1.1222;
-68.1000;0.5486;1.1081;
-67.8000;0.5478;1.1104;
-67.5000;0.5462;1.1081;
-67.2000;0.5454;1.1034;
-66.9000;0.5454;1.1057;
-66.6000;0.5438;1.1034;
-66.3000;0.5462;1.1081;
-66.0000;0.5470;1.1128;
-65.7000;0.5454;1.1151;
-65.4000;0.5543;1.1363;
-65.1000;0.5478;1.1175;
-64.8000;0.5470;1.1269;
-64.5000;0.5486;1.1269;
-64.2000;0.5486;1.1222;
-63.9000;0.5478;1.1245;
-63.6000;0.5495;1.1269;
-63.3000;0.5486;1.1198;
-63.0000;0.5495;1.1222;
-62.7000;0.5503;1.1245;
-62.4000;0.5462;1.1175;
-62.1000;0.5535;1.1363;
-61.8000;0.5454;1.1198;
-61.5000;0.5421;1.1128;
-61.2000;0.5478;1.1245;
-60.9000;0.5446;1.1198;
-60.6000;0.5470;1.1293;
-60.3000;0.5470;1.1175;
-60.0000;0.5478;1.1222;
-59.7000;0.5470;1.1198;
-59.4000;0.5486;1.1222;
-59.1000;0.5495;1.1198;
-58.8000;0.5454;1.1104;
-58.5000;0.5486;1.1175;
-58.2000;0.5495;1.1151;
-57.9000;0.5470;1.1151;
-57.6000;0.5486;1.1198;
-57.3000;0.5446;1.1151;
-57.0000;0.5486;1.1269;
-56.7000;0.5478;1.1340;
-56.4000;0.5478;1.1316;
-56.1000;0.5470;1.1340;
-55.8000;0.5470;1.1245;
-55.5000;0.5478;1.1316;
-55.2000;0.5429;1.1175;
-54.9000;0.5462;1.1293;
-54.6000;0.5470;1.1293;
-54.3000;0.5495;1.1340;
-54.0000;0.5519;1.1363;
-53.7000;0.5495;1.1245;
-53.4000;0.5511;1.1340;
-53.1000;0.5470;1.1316;
-52.8000;0.5486;1.1363;
-52.5000;0.5470;1.1269;
-52.2000;0.5454;1.1245;
-51.9000;0.5486;1.1222;
-51.6000;0.5478;1.1269;
-51.3000;0.5454;1.1198;
-51.0000;0.5503;1.1245;
-50.7000;0.5454;1.1128;
-50.4000;0.5478;1.1198;
-50.1000;0.5486;1.1198;
-49.8000;0.5462;1.1175;
-49.5000;0.5503;1.1316;
-49.2000;0.5478;1.1269;
-48.9000;0.5495;1.1316;
-48.6000;0.5470;1.1198;
-48.3000;0.5486;1.1222;
-48.0000;0.5495;1.1245;
-47.7000;0.5478;1.1104;
-47.4000;0.5503;1.1104;
-47.1000;0.5478;1.1128;
-46.8000;0.5486;1.1198;
-46.5000;0.5478;1.1222;
-46.2000;0.5478;1.1128;
-45.9000;0.5429;1.0916;
-45.6000;0.5543;1.1245;
-45.3000;0.5478;1.1081;
-45.0000;0.5495;1.1151;
-44.7000;0.5454;1.1081;
-44.4000;0.5486;1.1128;
-44.1000;0.5486;1.1104;
-43.8000;0.5503;1.1104;
-43.5000;0.5486;1.1057;
-43.2000;0.5470;1.1081;
-42.9000;0.5478;1.1151;
-42.6000;0.5405;1.0893;
-42.3000;0.5519;1.1151;
-42.0000;0.5470;1.0940;
-41.7000;0.5462;1.1010;
-41.4000;0.5478;1.1034;
-41.1000;0.5446;1.0987;
-40.8000;0.5454;1.1081;
-40.5000;0.5486;1.1104;
-40.2000;0.5478;1.1057;
-39.9000;0.5486;1.1081;
-39.6000;0.5495;1.1128;
-39.3000;0.5478;1.1128;
-39.0000;0.5470;1.1104;
-38.7000;0.5470;1.1151;
-38.4000;0.5478;1.1175;
-38.1000;0.5470;1.1128;
-37.8000;0.5470;1.1128;
-37.5000;0.5478;1.1128;
-37.2000;0.5478;1.1034;
-36.9000;0.5478;1.1034;
-36.6000;0.5470;1.0940;
-36.3000;0.5478;1.0869;
-36.0000;0.5470;1.0846;
-35.7000;0.5478;1.0893;
-35.4000;0.5478;1.1010;
-35.1000;0.5486;1.1057;
-34.8000;0.5470;1.1010;
-34.5000;0.5503;1.1034;
-34.2000;0.5478;1.1057;
-33.9000;0.5478;1.1081;
-33.6000;0.5495;1.1175;
-33.3000;0.5462;1.1104;
-33.0000;0.5454;1.1081;
-32.7000;0.5511;1.1198;
-32.4000;0.5543;1.1222;
-32.1000;0.5495;1.1034;
-31.8000;0.5486;1.0963;
-31.5000;0.5478;1.0940;
-31.2000;0.5551;1.1034;
-30.9000;0.5478;1.0893;
-30.6000;0.5470;1.0963;
-30.3000;0.5495;1.1104;
-30.0000;0.5470;1.1151;
-29.7000;0.5478;1.1128;
-29.4000;0.5486;1.1128;
-29.1000;0.5470;1.1128;
-28.8000;0.5478;1.1151;
-28.5000;0.5495;1.1175;
-28.2000;0.5495;1.1104;
-27.9000;0.5527;1.1198;
-27.6000;0.5495;1.1128;
-27.3000;0.5511;1.1128;
-27.0000;0.5478;1.1104;
-26.7000;0.5495;1.1222;
-26.4000;0.5478;1.1128;
-26.1000;0.5503;1.1128;
-25.8000;0.5495;1.1198;
-25.5000;0.5470;1.1151;
-25.2000;0.5511;1.1269;
-24.9000;0.5503;1.1151;
-24.6000;0.5495;1.1151;
-24.3000;0.5495;1.1175;
-24.0000;0.5486;1.1151;
-23.7000;0.5495;1.1222;
-23.4000;0.5486;1.1222;
-23.1000;0.5495;1.1198;
-22.8000;0.5503;1.1198;
-22.5000;0.5470;1.1128;
-22.2000;0.5478;1.1128;
-21.9000;0.5503;1.1151;
-21.6000;0.5462;1.1057;
-21.3000;0.5454;1.1057;
-21.0000;0.5470;1.1151;
-20.7000;0.5454;1.1175;
-20.4000;0.5462;1.1198;
-20.1000;0.5511;1.1340;
-19.8000;0.5470;1.1198;
-19.5000;0.5470;1.1198;
-19.2000;0.5495;1.1175;
-18.9000;0.5495;1.1151;
-18.6000;0.5592;1.1410;
-18.3000;0.5413;1.0987;
-18.0000;0.5486;1.1245;
-17.7000;0.5503;1.1269;
-17.4000;0.5503;1.1269;
-17.1000;0.5495;1.1316;
-16.8000;0.5495;1.1316;
-16.5000;0.5519;1.1363;
-16.2000;0.5470;1.1293;
-15.9000;0.5486;1.1269;
-15.6000;0.5478;1.1222;
-15.3000;0.5486;1.1198;
-15.0000;0.5478;1.1151;
-14.7000;0.5421;1.0987;
-14.4000;0.5486;1.1104;
-14.1000;0.5478;1.1081;
-13.8000;0.5454;1.1081;
-13.5000;0.5535;1.1245;
-13.2000;0.5478;1.1198;
-12.9000;0.5454;1.1198;
-12.6000;0.5478;1.1245;
-12.3000;0.5478;1.1363;
-12.0000;0.5478;1.1340;
-11.7000;0.5462;1.1316;
-11.4000;0.5478;1.1245;
-11.1000;0.5470;1.1269;
-10.8000;0.5470;1.1293;
-10.5000;0.5478;1.1316;
-10.2000;0.5454;1.1198;
-9.9000;0.5454;1.1198;
-9.6000;0.5478;1.1222;
-9.3000;0.5486;1.1316;
-9.0000;0.5470;1.1363;
-8.7000;0.5495;1.1410;
-8.4000;0.5478;1.1363;
-8.1000;0.5486;1.1293;
-7.8000;0.5486;1.1198;
-7.5000;0.5470;1.1128;
-7.2000;0.5478;1.1128;
-6.9000;0.5495;1.1198;
-6.6000;0.5470;1.1175;
-6.3000;0.5470;1.1151;
-6.0000;0.5462;1.1104;
-5.7000;0.5470;1.1198;
-5.4000;0.5470;1.1104;
-5.1000;0.5470;1.1151;
-4.8000;0.5478;1.1151;
-4.5000;0.5470;1.1128;
-4.2000;0.5486;1.1198;
-3.9000;0.5429;1.1081;
-3.6000;0.5446;1.1081;
-3.3000;0.5470;1.1245;
-3.0000;0.5503;1.1293;
-2.7000;0.5470;1.1198;
-2.4000;0.5486;1.1222;
-2.1000;0.5470;1.1222;
-1.8000;0.5486;1.1198;
-1.5000;0.5486;1.1175;
-1.2000;0.5495;1.1175;
-0.9000;0.5495;1.1175;
-0.6000;0.5495;1.1104;
-0.3000;0.5495;1.1081;
0.0000;0.5495;1.1081;
0.3000;0.5682;1.0987;
0.6000;0.6097;1.1528;
0.9000;0.6422;1.1975;
1.2000;0.6683;1.2375;
1.5000;0.6878;1.2728;
1.8000;0.7025;1.3010;
2.1000;0.7155;1.3363;
2.4000;0.7253;1.3622;
2.7000;0.7350;1.3833;
3.0000;0.7416;1.4022;
3.3000;0.7473;1.4139;
3.6000;0.7513;1.4304;
3.9000;0.7530;1.4327;
4.2000;0.7700;1.4680;
4.5000;0.7627;1.4516;
4.8000;0.7676;1.4586;
5.1000;0.7700;1.4657;
5.4000;0.7790;1.4869;
5.7000;0.7782;1.4774;
6.0000;0.7798;1.4751;
6.3000;0.7871;1.4845;
6.6000;0.7863;1.4727;
6.9000;0.7871;1.4633;
7.2000;0.7945;1.4869;
7.5000;0.7961;1.4892;
7.8000;0.7977;1.4939;
8.1000;0.8002;1.4869;
8.4000;0.8026;1.4821;
8.7000;0.8059;1.4821;
9.0000;0.8050;1.4727;
9.3000;0.8075;1.4727;
9.6000;0.8107;1.4798;
9.9000;0.8124;1.4821;
10.2000;0.8148;1.4798;
10.5000;0.8156;1.4798;
10.8000;0.8189;1.4798;
11.1000;0.8181;1.4704;
11.4000;0.8221;1.4680;
11.7000;0.8254;1.4610;
12.0000;0.8246;1.4563;
12.3000;0.8278;1.4680;
12.6000;0.8303;1.4727;
12.9000;0.8303;1.4680;
13.2000;0.8400;1.4774;
13.5000;0.8344;1.4633;
13.8000;0.8384;1.4704;
14.1000;0.8392;1.4680;
14.4000;0.8376;1.4633;
14.7000;0.8417;1.4680;
15.0000;0.8449;1.4751;
15.3000;0.8417;1.4727;
15.6000;0.8482;1.4916;
15.9000;0.8514;1.5033;
16.2000;0.8433;1.4798;
16.5000;0.8506;1.4892;
16.8000;0.8539;1.4963;
17.1000;0.8637;1.5198;
17.4000;0.8580;1.5010;
17.7000;0.8604;1.4916;
18.0000;0.8563;1.4821;
18.3000;0.8604;1.4963;
18.6000;0.8588;1.4916;
18.9000;0.8620;1.4986;
19.2000;0.8612;1.4986;
19.5000;0.8628;1.4869;
19.8000;0.8653;1.4892;
20.1000;0.8669;1.4916;
20.4000;0.8669;1.4821;
20.7000;0.8702;1.4798;
21.0000;0.8702;1.4751;
21.3000;0.8710;1.4869;
21.6000;0.8710;1.4727;
21.9000;0.8710;1.4633;
22.2000;0.8775;1.4727;
22.5000;0.8759;1.4657;
22.8000;0.8751;1.4610;
23.1000;0.8775;1.4657;
23.4000;0.8856;1.4845;
23.7000;0.8816;1.4821;
24.0000;0.8767;1.4704;
24.3000;0.8807;1.4916;
24.6000;0.8791;1.4845;
24.9000;0.8824;1.4963;
25.2000;0.8840;1.4939;
25.5000;0.8840;1.4916;
25.8000;0.8824;1.4963;
26.1000;0.8840;1.4986;
26.4000;0.8848;1.5057;
26.7000;0.8840;1.5057;
27.0000;0.8840;1.5033;
27.3000;0.8873;1.4986;
27.6000;0.8873;1.5010;
27.9000;0.8889;1.5033;
28.2000;0.8873;1.4963;
28.5000;0.8889;1.4986;
28.8000;0.8889;1.4939;
29.1000;0.8905;1.4986;
29.4000;0.8897;1.4963;
29.7000;0.8905;1.4986;
30.0000;0.8921;1.5057;
30.3000;0.8921;1.5174;
30.6000;0.8913;1.5033;
30.9000;0.8930;1.5010;
31.2000;0.8938;1.4963;
31.5000;0.8962;1.5057;
31.8000;0.8954;1.4916;
32.1000;0.8970;1.4892;
32.4000;0.9003;1.4986;
32.7000;0.8962;1.4939;
33.0000;0.8995;1.4892;
33.3000;0.8970;1.4821;
33.6000;0.8970;1.4774;
33.9000;0.8995;1.4774;
34.2000;0.9003;1.4821;
34.5000;0.9003;1.4774;
34.8000;0.9027;1.4727;
35.1000;0.9003;1.4633;
35.4000;0.9035;1.4680;
35.7000;0.9027;1.4727;
36.0000;0.9035;1.4633;
36.3000;0.8995;1.4539;
36.6000;0.9052;1.4704;
36.9000;0.9035;1.4751;
37.2000;0.9035;1.4774;
37.5000;0.9035;1.4869;
37.8000;0.9035;1.4845;
38.1000;0.9035;1.4798;
38.4000;0.9035;1.4821;
38.7000;0.9092;1.4892;
39.0000;0.9044;1.4727;
39.3000;0.9141;1.4939;
39.6000;0.9068;1.4633;
39.9000;0.9044;1.4563;
40.2000;0.9141;1.4751;
40.5000;0.9076;1.4657;
40.8000;0.9076;1.4610;
41.1000;0.9044;1.4492;
41.4000;0.9084;1.4563;
41.7000;0.9101;1.4633;
42.0000;0.9084;1.4610;
42.3000;0.9076;1.4657;
42.6000;0.9101;1.4657;
42.9000;0.9101;1.4586;
43.2000;0.9101;1.4610;
43.5000;0.9109;1.4586;
43.8000;0.9125;1.4563;
44.1000;0.9117;1.4610;
44.4000;0.9141;1.4774;
44.7000;0.9158;1.4774;
45.0000;0.9133;1.4774;
45.3000;0.9141;1.4751;
45.6000;0.9141;1.4727;
45.9000;0.9141;1.4704;
46.2000;0.9133;1.4633;
46.5000;0.9141;1.4727;
46.8000;0.9149;1.4680;
47.1000;0.9141;1.4586;
47.4000;0.9174;1.4633;
47.7000;0.9149;1.4586;
48.0000;0.9158;1.4610;
48.3000;0.9182;1.4586;
48.6000;0.9166;1.4516;
48.9000;0.9141;1.4445;
49.2000;0.9174;1.4469;
49.5000;0.9182;1.4469;
49.8000;0.9174;1.4492;
50.1000;0.9182;1.4539;
50.4000;0.9149;1.4516;
50.7000;0.9174;1.4563;
51.0000;0.9190;1.4657;
51.3000;0.9158;1.4563;
51.6000;0.9174;1.4610;
51.9000;0.9166;1.4704;
52.2000;0.9174;1.4657;
52.5000;0.9141;1.4563;
52.8000;0.9182;1.4633;
53.1000;0.9190;1.4586;
53.4000;0.9198;1.4563;
53.7000;0.9158;1.4422;
54.0000;0.9125;1.4374;
54.3000;0.9198;1.4610;
54.6000;0.9223;1.4680;
54.9000;0.9214;1.4610;
55.2000;0.9214;1.4633;
55.5000;0.9288;1.4774;
55.8000;0.9214;1.4586;
56.1000;0.9223;1.4469;
56.4000;0.9231;1.4398;
56.7000;0.9223;1.4469;
57.0000;0.9206;1.4492;
57.3000;0.9214;1.4516;
57.6000;0.9206;1.4422;
57.9000;0.9214;1.4327;
58.2000;0.9223;1.4351;
58.5000;0.9223;1.4351;
58.8000;0.9206;1.4210;
59.1000;0.9206;1.4257;
59.4000;0.9247;1.4374;
59.7000;0.9247;1.4492;
60.0000;0.9231;1.4469;
60.3000;0.9214;1.4445;
60.6000;0.9223;1.4516;
60.9000;0.9239;1.4516;
61.2000;0.9247;1.4469;
61.5000;0.9255;1.4539;
61.8000;0.9182;1.4304;
62.1000;0.9247;1.4351;
62.4000;0.9255;1.4374;
62.7000;0.9158;1.4092;
63.0000;0.9231;1.4257;
63.3000;0.9239;1.4351;
63.6000;0.9263;1.4374;
63.9000;0.9247;1.4304;
64.2000;0.9288;1.4422;
64.5000;0.9271;1.4422;
64.8000;0.9255;1.4422;
65.1000;0.9255;1.4445;
65.4000;0.9288;1.4469;
65.7000;0.9280;1.4351;
66.0000;0.9288;1.4422;
66.3000;0.9255;1.4327;
66.6000;0.9263;1.4351;
66.9000;0.9255;1.4422;
67.2000;0.9280;1.4445;
67.5000;0.9337;1.4539;
67.8000;0.9280;1.4516;
68.1000;0.9280;1.4492;
68.4000;0.9288;1.4633;
68.7000;0.9280;1.4586;
69.0000;0.9263;1.4539;
69.3000;0.9271;1.4469;
69.6000;0.9271;1.4445;
69.9000;0.9304;1.4563;
70.2000;0.9296;1.4422;
70.5000;0.9320;1.4445;
70.8000;0.9280;1.4422;
71.1000;0.9320;1.4492;
71.4000;0.9304;1.4374;
71.7000;0.9296;1.4445;
72.0000;0.9288;1.4445;
72.3000;0.9280;1.4327;
72.6000;0.9280;1.4398;
72.9000;0.9263;1.4398;
73.2000;0.9337;1.4469;
73.5000;0.9288;1.4469;
73.8000;0.9288;1.4469;
74.1000;0.9304;1.4445;
74.4000;0.9296;1.4422;
74.7000;0.9296;1.4445;
75.0000;0.9296;1.4422;
75.3000;0.9263;1.4398;
75.6000;0.9304;1.4445;
75.9000;0.9402;1.4727;
76.2000;0.9328;1.4633;
76.5000;0.9345;1.4680;
76.8000;0.9255;1.4516;
77.1000;0.9280;1.4586;
77.4000;0.9296;1.4516;
77.7000;0.9312;1.4398;
78.0000;0.9288;1.4257;
78.3000;0.9247;1.4139;
78.6000;0.9296;1.4257;
78.9000;0.9296;1.4257;
79.2000;0.9296;1.4327;
79.5000;0.9288;1.4280;
79.8000;0.9320;1.4351;
80.1000;0.9402;1.4633;
80.4000;0.9320;1.4516;
80.7000;0.9304;1.4445;
81.0000;0.9296;1.4374;
81.3000;0.9312;1.4351;
81.6000;0.9328;1.4398;
81.9000;0.9337;1.4492;
82.2000;0.9304;1.4351;
82.5000;0.9304;1.4422;
82.8000;0.9320;1.4445;
83.1000;0.9312;1.4445;
83.4000;0.9328;1.4469;
83.7000;0.9337;1.4516;
84.0000;0.9263;1.4304;
84.3000;0.9328;1.4398;
84.6000;0.9312;1.4257;
84.9000;0.9312;1.4139;
85.2000;0.9402;1.4351;
85.5000;0.9328;1.4233;
85.8000;0.9320;1.4163;
86.1000;0.9271;1.4139;
86.4000;0.9304;1.4280;
86.7000;0.9320;1.4304;
87.0000;0.9247;1.4210;
87.3000;0.9304;1.4327;
87.6000;0.9304;1.4351;
87.9000;0.9320;1.4280;
88.2000;0.9312;1.4257;
88.5000;0.9312;1.4280;
88.8000;0.9394;1.4445;
89.1000;0.9353;1.4233;
89.4000;0.9345;1.4186;
89.7000;0.9320;1.4139;
90.0000;0.9328;1.4186;
90.3000;0.9328;1.4186;
90.6000;0.9337;1.4186;
90.9000;0.9312;1.4186;
91.2000;0.9280;1.4069;
91.5000;0.9385;1.4233;
91.8000;0.9353;1.4163;
92.1000;0.9337;1.4186;
92.4000;0.9345;1.4233;
92.7000;0.9328;1.4163;
93.0000;0.9369;1.4257;
93.3000;0.9361;1.4233;
93.6000;0.9320;1.4116;
93.9000;0.9337;1.4233;
94.2000;0.9361;1.4257;
94.5000;0.9337;1.4163;
94.8000;0.9328;1.4022;
95.1000;0.9353;1.4116;
95.4000;0.9345;1.4186;
95.7000;0.9337;1.4186;
96.0000;0.9337;1.4116;
96.3000;0.9312;1.4163;
96.6000;0.9353;1.4280;
96.9000;0.9345;1.4233;
97.2000;0.9361;1.4327;
97.5000;0.9337;1.4257;
97.8000;0.9418;1.4398;
98.1000;0.9353;1.4210;
98.4000;0.9337;1.4139;
98.7000;0.9271;1.4022;
99.0000;0.9345;1.4210;
99.3000;0.9345;1.4233;
99.6000;0.9345;1.4163;
99.9000;0.9361;1.4210;
100.2000;0.9337;1.4210;
100.5000;0.9345;1.4210;
100.8000;0.9361;1.4280;
101.1000;0.9345;1.4257;
101.4000;0.9337;1.4304;
101.7000;0.9345;1.4327;
102.0000;0.9361;1.4351;
102.3000;0.9345;1.4327;
102.6000;0.9337;1.4304;
102.9000;0.9345;1.4280;
103.2000;0.9361;1.4327;
103.5000;0.9353;1.4257;
103.8000;0.9345;1.4210;
104.1000;0.9369;1.4280;
104.4000;0.9353;1.4280;
104.7000;0.9345;1.4233;
105.0000;0.9361;1.4233;
105.3000;0.9361;1.4210;
105.6000;0.9385;1.4186;
105.9000;0.9385;1.4304;
106.2000;0.9337;1.4233;
106.5000;0.9337;1.4233;
106.8000;0.9353;1.4280;
107.1000;0.9385;1.4304;
107.4000;0.9353;1.4233;
107.7000;0.9345;1.4233;
108.0000;0.9394;1.4351;
108.3000;0.9320;1.4116;
108.6000;0.9369;1.4210;
108.9000;0.9361;1.4139;
109.2000;0.9345;1.4069;
109.5000;0.9353;1.4163;
109.8000;0.9361;1.4116;
110.1000;0.9361;1.4186;
110.4000;0.9361;1.4210;
110.7000;0.9459;1.4516;
111.0000;0.9385;1.4351;
111.3000;0.9369;1.4186;
111.6000;0.9385;1.4163;
111.9000;0.9394;1.4139;
112.2000;0.9361;1.4092;
112.5000;0.9361;1.4139;
112.8000;0.9345;1.4186;
113.1000;0.9304;1.4116;
113.4000;0.9369;1.4280;
113.7000;0.9345;1.4186;
114.0000;0.9361;1.4116;
114.3000;0.9345;1.4022;
114.6000;0.9377;1.4069;
114.9000;0.9385;1.4045;
115.2000;0.9442;1.4257;
115.5000;0.9369;1.4163;
115.8000;0.9385;1.4163;
116.1000;0.9442;1.4233;
116.4000;0.9345;1.3975;
116.7000;0.9418;1.4139;
117.0000;0.9369;1.4139;
117.3000;0.9394;1.4210;
117.6000;0.9402;1.4163;
117.9000;0.9475;1.4304;
118.2000;0.9467;1.4304;
118.5000;0.9385;1.4116;
118.8000;0.9369;1.4092;
119.1000;0.9394;1.4163;
119.4000;0.9377;1.4092;
119.7000;0.9426;1.4163;
120.0000;0.9377;1.4163;
120.3000;0.9361;1.4163;
120.6000;0.9353;1.4092;
120.9000;0.9385;1.4139;
121.2000;0.9402;1.4163;
121.5000;0.9377;1.4022;
121.8000;0.9385;1.3998;
122.1000;0.9410;1.4045;
122.4000;0.9377;1.3975;
122.7000;0.9369;1.3904;
123.0000;0.9385;1.3951;
123.3000;0.9385;1.3975;
123.6000;0.9361;1.3975;
123.9000;0.9320;1.3857;
124.2000;0.9369;1.3975;
124.5000;0.9377;1.3927;
124.8000;0.9377;1.3998;
125.1000;0.9394;1.4045;
125.4000;0.9361;1.4045;
125.7000;0.9377;1.4139;
126.0000;0.9345;1.4186;
126.3000;0.9385;1.4374;
126.6000;0.9385;1.4398;
126.9000;0.9402;1.4422;
127.2000;0.9385;1.4445;
127.5000;0.9402;1.4539;
127.8000;0.9394;1.4469;
128.1000;0.9402;1.4539;
128.4000;0.9385;1.4398;
128.7000;0.9394;1.4304;
129.0000;0.9410;1.4280;
129.3000;0.9385;1.4092;
129.6000;0.9385;1.4163;
129.9000;0.9369;1.4163;
130.2000;0.9337;1.4116;
130.5000;0.9394;1.4233;
130.8000;0.9410;1.4257;
131.1000;0.9451;1.4304;
131.4000;0.9394;1.4092;
131.7000;0.9385;1.4116;
132.0000;0.9402;1.4210;
132.3000;0.9385;1.4186;
132.6000;0.9394;1.4186;
132.9000;0.9369;1.4116;
133.2000;0.9402;1.4210;
133.5000;0.9377;1.4116;
133.8000;0.9353;1.4116;
134.1000;0.9288;1.3904;
134.4000;0.9377;1.4186;
134.7000;0.9418;1.4210;
135.0000;0.9402;1.4210;
135.3000;0.9394;1.4210;
135.6000;0.9377;1.4210;
135.9000;0.9434;1.4398;
136.2000;0.9385;1.4304;
136.5000;0.9369;1.4163;
136.8000;0.9369;1.4186;
137.1000;0.9394;1.4233;
137.4000;0.9402;1.4304;
137.7000;0.9402;1.4257;
138.0000;0.9369;1.4186;
138.3000;0.9385;1.4139;
138.6000;0.9434;1.4186;
138.9000;0.9394;1.4092;
139.2000;0.9410;1.3975;
139.5000;0.9451;1.4116;
139.8000;0.9426;1.4069;
140.1000;0.9418;1.4045;
140.4000;0.9353;1.4022;
140.7000;0.9451;1.4139;
141.0000;0.9377;1.4069;
141.3000;0.9418;1.4116;
141.6000;0.9451;1.4210;
141.9000;0.9377;1.3998;
142.2000;0.9410;1.3975;
142.5000;0.9385;1.3975;
142.8000;0.9524;1.4163;
143.1000;0.9418;1.3833;
143.4000;0.9385;1.3810;
143.7000;0.9394;1.3833;
144.0000;0.9369;1.3739;
144.3000;0.9385;1.3857;
144.6000;0.9385;1.3857;
144.9000;0.9532;1.4163;
145.2000;0.9418;1.3833;
145.5000;0.9385;1.3716;
145.8000;0.9394;1.3669;
146.1000;0.9402;1.3833;
146.4000;0.9410;1.3927;
146.7000;0.9385;1.3833;
147.0000;0.9418;1.3904;
147.3000;0.9426;1.4022;
147.6000;0.9410;1.4022;
147.9000;0.9394;1.4045;
148.2000;0.9434;1.4116;
148.5000;0.9377;1.4045;
148.8000;0.9402;1.4092;
149.1000;0.9442;1.4186;
149.4000;0.9377;1.4092;
149.7000;0.9385;1.4139;
150.0000;0.9385;1.4116;
150.3000;0.9426;1.4139;
150.6000;0.9418;1.4163;
150.9000;0.9410;1.4069;
151.2000;0.9410;1.4139;
151.5000;0.9410;1.4163;
151.8000;0.9394;1.4210;
152.1000;0.9377;1.4092;
152.4000;0.9410;1.4092;
152.7000;0.9402;1.4092;
153.0000;0.9426;1.4092;
153.3000;0.9402;1.4022;
153.6000;0.9418;1.3975;
153.9000;0.9385;1.3998;
154.2000;0.9434;1.4116;
154.5000;0.9402;1.3951;
154.8000;0.9394;1.3880;
155.1000;0.9402;1.3998;
155.4000;0.9385;1.3975;
155.7000;0.9410;1.4092;
156.0000;0.9402;1.3998;
156.3000;0.9394;1.3927;
156.6000;0.9328;1.3692;
156.9000;0.9451;1.4022;
157.2000;0.9402;1.3810;
157.5000;0.9394;1.3880;
157.8000;0.9410;1.3857;
158.1000;0.9410;1.3951;
158.4000;0.9410;1.3951;
158.7000;0.9402;1.3880;
159.0000;0.9418;1.3857;
159.3000;0.9418;1.3904;
159.6000;0.9418;1.3951;
159.9000;0.9402;1.3880;
160.2000;0.9394;1.3857;
160.5000;0.9410;1.3975;
160.8000;0.9459;1.4116;
161.1000;0.9394;1.3975;
161.4000;0.9402;1.4092;
161.7000;0.9410;1.4163;
162.0000;0.9394;1.4139;
162.3000;0.9394;1.4045;
162.6000;0.9402;1.4022;
162.9000;0.9394;1.3975;
163.2000;0.9410;1.3927;
163.5000;0.9418;1.3951;
163.8000;0.9410;1.3904;
164.1000;0.9410;1.3975;
164.4000;0.9418;1.4092;
164.7000;0.9402;1.4092;
165.0000;0.9369;1.4069;
165.3000;0.9426;1.4210;
165.6000;0.9410;1.4186;
165.9000;0.9402;1.4045;
166.2000;0.9451;1.4069;
166.5000;0.9369;1.3904;
166.8000;0.9402;1.3927;
167.1000;0.9426;1.3975;
167.4000;0.9385;1.3998;
167.7000;0.9410;1.3975;
168.0000;0.9402;1.3998;
168.3000;0.9385;1.3927;
168.6000;0.9410;1.4045;
168.9000;0.9410;1.3951;
169.2000;0.9410;1.4045;
169.5000;0.9369;1.3975;
169.8000;0.9434;1.4022;
170.1000;0.9410;1.4069;
170.4000;0.9434;1.4163;
170.7000;0.9418;1.4139;
171.0000;0.9418;1.4163;
171.3000;0.9426;1.4163;
171.6000;0.9402;1.4163;
171.9000;0.9394;1.4116;
172.2000;0.9361;1.3975;
172.5000;0.9361;1.3975;
172.8000;0.9418;1.4139;
173.1000;0.9426;1.4163;
173.4000;0.9410;1.4163;
173.7000;0.9402;1.4163;
174.0000;0.9402;1.4233;
174.3000;0.9394;1.4280;
174.6000;0.9418;1.4304;
174.9000;0.9418;1.4233;
175.2000;0.9410;1.4233;
175.5000;0.9402;1.4210;
175.8000;0.9385;1.4210;
176.1000;0.9434;1.4280;
176.4000;0.9377;1.4233;
176.7000;0.9361;1.4186;
177.0000;0.9402;1.4257;
177.3000;0.9402;1.4210;
177.6000;0.9410;1.4139;
177.9000;0.9394;1.4139;
178.2000;0.9394;1.4163;
178.5000;0.9410;1.4139;
178.8000;0.9394;1.4139;
179.1000;0.9434;1.4163;
179.4000;0.9426;1.4092;
179.7000;0.9426;1.4069;
180.0000;0.9418;1.4116;
180.3000;0.9418;1.4139;
180.6000;0.9402;1.4233;
180.9000;0.9394;1.4186;
181.2000;0.9418;1.4186;
181.5000;0.9377;1.4116;
181.8000;0.9394;1.4210;
182.1000;0.9394;1.4186;
182.4000;0.9385;1.4257;
182.7000;0.9402;1.4257;
183.0000;0.9394;1.4280;
183.3000;0.9385;1.4257;
183.6000;0.9434;1.4327;
183.9000;0.9402;1.4304;
184.2000;0.9394;1.4210;
184.5000;0.9402;1.4280;
184.8000;0.9426;1.4351;
185.1000;0.9410;1.4280;
185.4000;0.9475;1.4351;
185.7000;0.9426;1.4304;
186.0000;0.9410;1.4233;
186.3000;0.9402;1.4210;
186.6000;0.9410;1.4092;
186.9000;0.9385;1.3951;
187.2000;0.9385;1.3927;
187.5000;0.9418;1.3975;
187.8000;0.9402;1.3904;
188.1000;0.9402;1.3998;
188.4000;0.9377;1.3998;
188.7000;0.9418;1.4139;
189.0000;0.9418;1.4116;
189.3000;0.9418;1.4139;
189.6000;0.9402;1.4186;
189.9000;0.9402;1.4304;
190.2000;0.9418;1.4304;
190.5000;0.9459;1.4304;
190.8000;0.9402;1.4139;
191.1000;0.9410;1.4163;
191.4000;0.9402;1.4069;
191.7000;0.9418;1.3998;
192.0000;0.9377;1.3880;
192.3000;0.9402;1.4022;
192.6000;0.9410;1.4045;
192.9000;0.9442;1.4069;
193.2000;0.9418;1.4045;
193.5000;0.9394;1.4069;
193.8000;0.9385;1.4116;
194.1000;0.9410;1.4116;
194.4000;0.9394;1.4092;
194.7000;0.9426;1.4139;
195.0000;0.9402;1.4045;
195.3000;0.9394;1.4092;
195.6000;0.9402;1.4069;
195.9000;0.9369;1.3975;
196.2000;0.9426;1.4092;
196.5000;0.9475;1.4233;
196.8000;0.9402;1.4186;
197.1000;0.9410;1.4280;
197.4000;0.9377;1.4257;
197.7000;0.9402;1.4257;
198.0000;0.9410;1.4280;
198.3000;0.9385;1.4233;
198.6000;0.9402;1.4280;
198.9000;0.9410;1.4257;
199.2000;0.9434;1.4186;
199.5000;0.9402;1.4163;
199.8000;0.9377;1.4210;
200.1000;0.9369;1.4210;
200.4000;0.9434;1.4374;
200.7000;0.9418;1.4280;
201.0000;0.9394;1.4210;
201.3000;0.9402;1.4210;
201.6000;0.9508;1.4422;
201.9000;0.9402;1.4233;
202.2000;0.9442;1.4257;
202.5000;0.9385;1.4186;
202.8000;0.9418;1.4257;
203.1000;0.9385;1.4163;
203.4000;0.9394;1.4163;
203.7000;0.9394;1.4186;
204.0000;0.9328;1.3998;
204.3000;0.9345;1.4022;
204.6000;0.9394;1.4045;
204.9000;0.9410;1.4022;
205.2000;0.9410;1.4092;
205.5000;0.9377;1.4022;
205.8000;0.9410;1.4045;
206.1000;0.9410;1.4069;
206.4000;0.9418;1.4233;
206.7000;0.9394;1.4280;
207.0000;0.9451;1.4445;
207.3000;0.9353;1.4186;
207.6000;0.9394;1.4280;
207.9000;0.9418;1.4327;
208.2000;0.9434;1.4233;
208.5000;0.9369;1.4163;
208.8000;0.9361;1.4116;
209.1000;0.9402;1.4210;
209.4000;0.9410;1.4233;
209.7000;0.9418;1.4257;
210.0000;0.9426;1.4280;
210.3000;0.9402;1.4257;
210.6000;0.9418;1.4304;
210.9000;0.9402;1.4374;
211.2000;0.9426;1.4280;
211.5000;0.9410;1.4233;
211.8000;0.9418;1.4257;
212.1000;0.9418;1.4233;
212.4000;0.9410;1.4186;
212.7000;0.9426;1.4304;
213.0000;0.9402;1.4280;
213.3000;0.9402;1.4327;
213.6000;0.9402;1.4257;
213.9000;0.9499;1.4445;
214.2000;0.9410;1.4210;
214.5000;0.9410;1.4116;
214.8000;0.9418;1.4139;
215.1000;0.9410;1.4233;
215.4000;0.9402;1.4327;
215.7000;0.9418;1.4374;
216.0000;0.9418;1.4280;
216.3000;0.9394;1.4280;
216.6000;0.9426;1.4351;
216.9000;0.9394;1.4257;
217.2000;0.9418;1.4351;
217.5000;0.9394;1.4257;
217.8000;0.9394;1.4233;
218.1000;0.9345;1.4186;
218.4000;0.9410;1.4210;
218.7000;0.9394;1.4233;
219.0000;0.9353;1.4233;
219.3000;0.9410;1.4398;
219.6000;0.9418;1.4445;
219.9000;0.9410;1.4469;
220.2000;0.9394;1.4445;
220.5000;0.9394;1.4398;
220.8000;0.9361;1.4374;
221.1000;0.9426;1.4516;
221.4000;0.9410;1.4492;
221.7000;0.9410;1.4398;
222.0000;0.9418;1.4374;
222.3000;0.9402;1.4186;
222.6000;0.9377;1.3998;
222.9000;0.9418;1.4045;
223.2000;0.9337;1.3833;
223.5000;0.9385;1.3927;
223.8000;0.9377;1.3927;
224.1000;0.9345;1.3810;
224.4000;0.9402;1.3904;
224.7000;0.9418;1.3951;
225.0000;0.9410;1.3951;
225.3000;0.9402;1.3998;
225.6000;0.9361;1.3951;
225.9000;0.9434;1.4045;
226.2000;0.9361;1.3833;
226.5000;0.9328;1.3857;
226.8000;0.9410;1.4022;
227.1000;0.9377;1.3975;
227.4000;0.9426;1.4022;
227.7000;0.9385;1.3927;
228.0000;0.9402;1.4069;
228.3000;0.9385;1.4163;
228.6000;0.9385;1.4116;
228.9000;0.9385;1.4045;
229.2000;0.9385;1.4116;
229.5000;0.9402;1.4116;
229.8000;0.9402;1.4116;
230.1000;0.9426;1.4139;
230.4000;0.9345;1.3975;
230.7000;0.9385;1.4069;
231.0000;0.9434;1.4186;
231.3000;0.9434;1.4092;
231.6000;0.9385;1.3951;
231.9000;0.9394;1.3998;
232.2000;0.9385;1.4045;
232.5000;0.9410;1.4116;
232.8000;0.9394;1.4069;
233.1000;0.9385;1.4186;
233.4000;0.9369;1.4139;
233.7000;0.9394;1.4280;
234.0000;0.9394;1.4327;
234.3000;0.9402;1.4398;
234.6000;0.9394;1.4351;
234.9000;0.9418;1.4422;
235.2000;0.9410;1.4398;
235.5000;0.9394;1.4257;
235.8000;0.9402;1.4139;
236.1000;0.9418;1.4045;
236.4000;0.9410;1.4022;
236.7000;0.9402;1.3975;
237.0000;0.9394;1.4045;
237.3000;0.9434;1.4163;
237.6000;0.9418;1.4045;
237.9000;0.9410;1.4045;
238.2000;0.9402;1.3951;
238.5000;0.9402;1.3951;
238.8000;0.9418;1.4045;
239.1000;0.9410;1.4045;
239.4000;0.9418;1.4092;
239.7000;0.9385;1.3975;
240.0000;0.9385;1.3904;
240.3000;0.9410;1.4045;
240.6000;0.9385;1.4069;
240.9000;0.9402;1.4022;
241.2000;0.9394;1.4045;
241.5000;0.9385;1.4022;
241.8000;0.9385;1.4045;
242.1000;0.9369;1.3998;
242.4000;0.9394;1.4022;
242.7000;0.9402;1.4045;
243.0000;0.9361;1.3951;
243.3000;0.9394;1.3975;
243.6000;0.9394;1.4022;
243.9000;0.9410;1.3998;
244.2000;0.9402;1.3998;
244.5000;0.9385;1.4045;
244.8000;0.9369;1.4116;
245.1000;0.9377;1.4210;
245.4000;0.9402;1.4233;
245.7000;0.9402;1.4139;
246.0000;0.9418;1.4116;
246.3000;0.9369;1.3998;
246.6000;0.9402;1.4045;
246.9000;0.9402;1.3998;
247.2000;0.9369;1.3951;
247.5000;0.9402;1.4022;
247.8000;0.9345;1.3880;
248.1000;0.9410;1.4022;
248.4000;0.9394;1.3951;
248.7000;0.9394;1.3975;
249.0000;0.9483;1.4210;
249.3000;0.9402;1.4069;
249.6000;0.9385;1.4022;
249.9000;0.9394;1.4069;
250.2000;0.9426;1.4233;
250.5000;0.9402;1.4304;
250.8000;0.9377;1.4233;
251.1000;0.9377;1.4186;
251.4000;0.9418;1.4210;
251.7000;0.9418;1.4186;
252.0000;0.9410;1.4186;
252.3000;0.9402;1.4233;
252.6000;0.9418;1.4163;
252.9000;0.9410;1.4092;
253.2000;0.9410;1.4210;
253.5000;0.9394;1.4257;
253.8000;0.9385;1.4210;
254.1000;0.9394;1.4304;
254.4000;0.9402;1.4280;
254.7000;0.9369;1.4163;
255.0000;0.9361;1.4233;
255.3000;0.9377;1.4257;
255.6000;0.9394;1.4280;
255.9000;0.9385;1.4233;
256.2000;0.9377;1.4139;
256.5000;0.9402;1.4139;
256.8000;0.9394;1.4257;
257.1000;0.9394;1.4233;
257.4000;0.9402;1.4233;
257.7000;0.9394;1.4139;
258.0000;0.9394;1.4163;
258.3000;0.9394;1.4163;
258.6000;0.9402;1.4186;
258.9000;0.9394;1.4092;
259.2000;0.9385;1.4116;
259.5000;0.9385;1.4139;
259.8000;0.9385;1.4069;
260.1000;0.9385;1.4069;
260.4000;0.9361;1.4092;
260.7000;0.9410;1.4092;
261.0000;0.9385;1.3998;
261.3000;0.9410;1.4045;
261.6000;0.9402;1.4139;
261.9000;0.9410;1.4186;
262.2000;0.9426;1.4163;
262.5000;0.9442;1.4304;
262.8000;0.9442;1.4210;
263.1000;0.9377;1.4139;
263.4000;0.9353;1.3975;
263.7000;0.9385;1.4022;
264.0000;0.9345;1.4022;
264.3000;0.9353;1.4069;
264.6000;0.9410;1.4163;
264.9000;0.9394;1.4116;
265.2000;0.9328;1.3951;
265.5000;0.9361;1.4069;
265.8000;0.9385;1.4069;
266.1000;0.9361;1.4092;
266.4000;0.9361;1.4163;
266.7000;0.9402;1.4163;
267.0000;0.9410;1.4210;
267.3000;0.9369;1.4069;
267.6000;0.9394;1.4163;
267.9000;0.9394;1.4139;
268.2000;0.9434;1.4233;
268.5000;0.9410;1.4163;
268.8000;0.9402;1.4069;
269.1000;0.9410;1.4116;
269.4000;0.9402;1.4092;
269.7000;0.9377;1.4069;
270.0000;0.9369;1.4116;
270.3000;0.9426;1.4327;
270.6000;0.9394;1.4257;
270.9000;0.9385;1.4233;
271.2000;0.9377;1.4210;
271.5000;0.9377;1.4186;
271.8000;0.9377;1.4163;
272.1000;0.9410;1.4257;
272.4000;0.9394;1.4116;
272.7000;0.9394;1.4163;
273.0000;0.9385;1.4163;
273.3000;0.9402;1.4092;
273.6000;0.9426;1.4092;
273.9000;0.9385;1.4022;
274.2000;0.9377;1.3927;
274.5000;0.9394;1.4092;
274.8000;0.9385;1.4163;
275.1000;0.9361;1.4069;
275.4000;0.9369;1.4116;
275.7000;0.9402;1.4139;
276.0000;0.9394;1.4116;
276.3000;0.9369;1.4116;
276.6000;0.9377;1.4210;
276.9000;0.9369;1.4280;
277.2000;0.9377;1.4374;
277.5000;0.9394;1.4398;
277.8000;0.9385;1.4398;
278.1000;0.9402;1.4445;
278.4000;0.9402;1.4492;
278.7000;0.9394;1.4492;
279.0000;0.9385;1.4445;
279.3000;0.9377;1.4374;
279.6000;0.9385;1.4374;
279.9000;0.9377;1.4374;
280.2000;0.9418;1.4492;
280.5000;0.9451;1.4563;
280.8000;0.9345;1.4280;
281.1000;0.9394;1.4374;
281.4000;0.9337;1.4210;
281.7000;0.9369;1.4233;
282.0000;0.9385;1.4257;
282.3000;0.9377;1.4304;
282.6000;0.9385;1.4327;
282.9000;0.9377;1.4280;
283.2000;0.9394;1.4304;
283.5000;0.9410;1.4304;
283.8000;0.9385;1.4257;
284.1000;0.9361;1.4280;
284.4000;0.9402;1.4374;
284.7000;0.9377;1.4280;
285.0000;0.9394;1.4304;
285.3000;0.9369;1.4257;
285.6000;0.9385;1.4257;
285.9000;0.9377;1.4280;
286.2000;0.9402;1.4280;
286.5000;0.9426;1.4374;
286.8000;0.9369;1.4233;
287.1000;0.9377;1.4163;
287.4000;0.9402;1.4257;
287.7000;0.9385;1.4257;
288.0000;0.9434;1.4327;
288.3000;0.9369;1.4186;
288.6000;0.9402;1.4304;
288.9000;0.9394;1.4233;
289.2000;0.9394;1.4304;
289.5000;0.9385;1.4327;
289.8000;0.9377;1.4304;
290.1000;0.9402;1.4186;
290.4000;0.9369;1.4116;
290.7000;0.9385;1.4045;
291.0000;0.9394;1.3927;
291.3000;0.9410;1.3998;
291.6000;0.9385;1.4022;
291.9000;0.9385;1.4022;
292.2000;0.9394;1.4045;
292.5000;0.9377;1.3951;
292.8000;0.9385;1.3975;
293.1000;0.9361;1.3975;
293.4000;0.9385;1.4069;
293.7000;0.9385;1.4116;
294.0000;0.9402;1.4116;
294.3000;0.9385;1.4092;
294.6000;0.9426;1.4233;
294.9000;0.9402;1.4186;
295.2000;0.9418;1.4280;
295.5000;0.9394;1.4304;
295.8000;0.9402;1.4233;
296.1000;0.9361;1.4186;
296.4000;0.9394;1.4233;
296.7000;0.9434;1.4257;
297.0000;0.9475;1.4351;
297.3000;0.9377;1.4069;
297.6000;0.9377;1.4069;
297.9000;0.9410;1.4045;
298.2000;0.9410;1.4116;
298.5000;0.9385;1.3951;
298.8000;0.9402;1.3927;
299.1000;0.9410;1.3998;
299.4000;0.9394;1.3927;
299.7000;0.9402;1.3975;
300.0000;0.9402;1.3998;
300.3000;0.9377;1.3951;
300.6000;0.9377;1.3975;
300.9000;0.9337;1.3786;
301.2000;0.9394;1.3880;
301.5000;0.9377;1.3904;
301.8000;0.9385;1.3975;
302.1000;0.9410;1.3975;
302.4000;0.9442;1.4045;
302.7000;0.9377;1.3904;
303.0000;0.9385;1.3951;
303.3000;0.9402;1.3951;
303.6000;0.9377;1.3951;
303.9000;0.9402;1.3904;
304.2000;0.9385;1.3880;
304.5000;0.9402;1.3904;
304.8000;0.9402;1.3998;
305.1000;0.9410;1.3951;
305.4000;0.9410;1.3998;
305.7000;0.9394;1.4045;
306.0000;0.9410;1.4045;
306.3000;0.9369;1.3998;
306.6000;0.9402;1.4022;
306.9000;0.9361;1.4022;
307.2000;0.9361;1.3975;
307.5000;0.9369;1.3975;
307.8000;0.9377;1.4022;
308.1000;0.9369;1.4022;
308.4000;0.9369;1.4116;
308.7000;0.9361;1.4139;
309.0000;0.9361;1.4139;
309.3000;0.9394;1.4186;
309.6000;0.9377;1.4163;
309.9000;0.9377;1.4210;
310.2000;0.9418;1.4351;
310.5000;0.9410;1.4233;
310.8000;0.9418;1.4280;
311.1000;0.9320;1.4045;
311.4000;0.9369;1.4163;
311.7000;0.9385;1.4327;
312.0000;0.9377;1.4374;
312.3000;0.9361;1.4351;
312.6000;0.9353;1.4186;
312.9000;0.9377;1.4280;
313.2000;0.9312;1.4092;
313.5000;0.9385;1.4163;
313.8000;0.9369;1.4186;
314.1000;0.9377;1.4163;
314.4000;0.9369;1.4069;
314.7000;0.9369;1.4045;
315.0000;0.9377;1.4022;
315.3000;0.9377;1.3975;
315.6000;0.9377;1.4045;
315.9000;0.9377;1.4045;
316.2000;0.9369;1.4022;
316.5000;0.9361;1.4069;
316.8000;0.9369;1.4069;
317.1000;0.9385;1.4069;
317.4000;0.9385;1.4092;
317.7000;0.9394;1.4092;
318.0000;0.9385;1.4069;
318.3000;0.9385;1.3975;
318.6000;0.9328;1.3833;
318.9000;0.9353;1.3833;
319.2000;0.9385;1.3880;
319.5000;0.9385;1.3975;
319.8000;0.9377;1.3975;
320.1000;0.9385;1.3951;
320.4000;0.9394;1.4069;
320.7000;0.9402;1.4116;
321.0000;0.9385;1.4186;
321.3000;0.9385;1.4210;
321.6000;0.9410;1.4233;
321.9000;0.9369;1.4045;
322.2000;0.9394;1.4045;
322.5000;0.9361;1.4022;
322.8000;0.9377;1.4092;
323.1000;0.9394;1.4186;
323.4000;0.9312;1.4092;
323.7000;0.9369;1.4233;
324.0000;0.9385;1.4304;
324.3000;0.9361;1.4233;
324.6000;0.9385;1.4186;
324.9000;0.9377;1.4186;
325.2000;0.9369;1.4304;
325.5000;0.9337;1.4233;
325.8000;0.9345;1.4233;
326.1000;0.9385;1.4374;
326.4000;0.9320;1.4327;
326.7000;0.9361;1.4280;
327.0000;0.9385;1.4327;
327.3000;0.9320;1.4186;
327.6000;0.9361;1.4257;
327.9000;0.9361;1.4304;
328.2000;0.9394;1.4327;
328.5000;0.9361;1.4210;
328.8000;0.9377;1.4304;
329.1000;0.9353;1.4257;
329.4000;0.9361;1.4280;
329.7000;0.9369;1.4304;
330.0000;0.9361;1.4210;
330.3000;0.9369;1.4186;
330.6000;0.9385;1.4163;
330.9000;0.9402;1.4045;
331.2000;0.9394;1.4092;
331.5000;0.9394;1.4116;
331.8000;0.9377;1.4045;
332.1000;0.9385;1.4045;
332.4000;0.9394;1.4022;
332.7000;0.9377;1.4069;
333.0000;0.9394;1.4210;
333.3000;0.9385;1.4280;
333.6000;0.9385;1.4327;
333.9000;0.9353;1.4257;
334.2000;0.9426;1.4422;
334.5000;0.9369;1.4351;
334.8000;0.9385;1.4304;
335.1000;0.9345;1.4163;
335.4000;0.9385;1.4257;
335.7000;0.9394;1.4327;
336.0000;0.9394;1.4374;
336.3000;0.9394;1.4327;
336.6000;0.9394;1.4186;
336.9000;0.9369;1.4116;
337.2000;0.9402;1.4092;
337.5000;0.9361;1.4045;
337.8000;0.9337;1.3951;
338.1000;0.9337;1.3904;
338.4000;0.9377;1.4022;
338.7000;0.9394;1.4092;
339.0000;0.9353;1.4163;
339.3000;0.9353;1.4139;
339.6000;0.9385;1.4139;
339.9000;0.9377;1.4186;
340.2000;0.9394;1.4139;
340.5000;0.9353;1.4092;
340.8000;0.9361;1.4116;
341.1000;0.9361;1.4045;
341.4000;0.9361;1.3998;
341.7000;0.9353;1.4022;
342.0000;0.9418;1.4186;
342.3000;0.9361;1.4069;
342.6000;0.9361;1.4045;
342.9000;0.9345;1.4022;
343.2000;0.9337;1.4022;
343.5000;0.9353;1.4022;
343.8000;0.9337;1.3951;
344.1000;0.9369;1.3951;
344.4000;0.9369;1.4022;
344.7000;0.9361;1.4022;
345.0000;0.9377;1.3998;
345.3000;0.9385;1.4116;
345.6000;0.9361;1.4069;
345.9000;0.9394;1.4139;
346.2000;0.9369;1.4022;
346.5000;0.9385;1.3998;
346.8000;0.9361;1.3975;
347.1000;0.9353;1.4022;
347.4000;0.9377;1.4069;
347.7000;0.9385;1.4092;
348.0000;0.9345;1.4069;
348.3000;0.9402;1.4163;
348.6000;0.9345;1.4022;
348.9000;0.9418;1.4210;
349.2000;0.9369;1.4022;
349.5000;0.9361;1.3975;
349.8000;0.9410;1.4139;
350.1000;0.9369;1.3880;
350.4000;0.9361;1.3833;
350.7000;0.9361;1.3810;
351.0000;0.9361;1.3810;
351.3000;0.9369;1.3857;
351.6000;0.9369;1.3880;
351.9000;0.9361;1.3880;
352.2000;0.9361;1.3857;
352.5000;0.9369;1.3833;
352.8000;0.9361;1.3763;
353.1000;0.9345;1.3692;
353.4000;0.9361;1.3716;
353.7000;0.9345;1.3786;
354.0000;0.9369;1.3904;
354.3000;0.9377;1.3927;
354.6000;0.9353;1.3951;
354.9000;0.9377;1.3998;
355.2000;0.9328;1.3927;
355.5000;0.9369;1.4092;
355.8000;0.9361;1.4022;
356.1000;0.9402;1.4045;
356.4000;0.9377;1.3951;
356.7000;0.9394;1.4022;
357.0000;0.9377;1.4022;
357.3000;0.9361;1.3998;
357.6000;0.9385;1.4116;
357.9000;0.9385;1.4069;
358.2000;0.9280;1.3763;
358.5000;0.9361;1.3927;
358.8000;0.9369;1.3975;
359.1000;0.9361;1.3927;
359.4000;0.9369;1.3951;
359.7000;0.9377;1.4045;
360.0000;0.9353;1.4092;
360.3000;0.9377;1.4163;
360.6000;0.9369;1.4045;
360.9000;0.9377;1.4069;
361.2000;0.9361;1.3975;
361.5000;0.9369;1.4069;
361.8000;0.9377;1.4022;
362.1000;0.9410;1.4116;
362.4000;0.9361;1.4116;
362.7000;0.9353;1.4092;
363.0000;0.9369;1.4092;
363.3000;0.9385;1.4069;
363.6000;0.9377;1.4022;
363.9000;0.9369;1.4045;
364.2000;0.9385;1.4045;
364.5000;0.9377;1.3998;
364.8000;0.9410;1.4116;
365.1000;0.9369;1.3998;
365.4000;0.9394;1.3975;
365.7000;0.9402;1.4022;
366.0000;0.9353;1.3975;
366.3000;0.9369;1.3951;
366.6000;0.9369;1.3998;
366.9000;0.9385;1.3998;
367.2000;0.9410;1.4092;
367.5000;0.9385;1.4092;
367.8000;0.9377;1.4116;
368.1000;0.9345;1.4045;
368.4000;0.9377;1.3998;
368.7000;0.9377;1.3951;
369.0000;0.9377;1.3998;
369.3000;0.9361;1.4022;
369.6000;0.9361;1.4069;
369.9000;0.9345;1.4139;
370.2000;0.9361;1.4139;
370.5000;0.9361;1.4186;
370.8000;0.9402;1.4233;
371.1000;0.9337;1.4139;
371.4000;0.9385;1.4304;
371.7000;0.9377;1.4280;
372.0000;0.9377;1.4304;
372.3000;0.9418;1.4351;
372.6000;0.9385;1.4280;
372.9000;0.9377;1.4280;
373.2000;0.9410;1.4210;
373.5000;0.9385;1.4116;
373.8000;0.9353;1.4139;
374.1000;0.9361;1.4116;
374.4000;0.9263;1.3857;
374.7000;0.9385;1.4139;
375.0000;0.9345;1.4045;
375.3000;0.9353;1.4163;
375.6000;0.9369;1.4163;
375.9000;0.9353;1.4186;
376.2000;0.9337;1.4139;
376.5000;0.9353;1.4069;
376.8000;0.9337;1.4022;
377.1000;0.9385;1.4163;
377.4000;0.9377;1.4210;
377.7000;0.9345;1.4116;
378.0000;0.9337;1.4022;
378.3000;0.9377;1.4116;
378.6000;0.9361;1.3998;
378.9000;0.9353;1.3975;
379.2000;0.9361;1.3998;
379.5000;0.9361;1.4045;
379.8000;0.9353;1.4045;
380.1000;0.9426;1.4092;
380.4000;0.9337;1.3880;
380.7000;0.9361;1.3998;
381.0000;0.9369;1.4069;
381.3000;0.9345;1.4045;
381.6000;0.9369;1.4069;
381.9000;0.9394;1.4163;
382.2000;0.9385;1.4045;
382.5000;0.9369;1.3975;
382.8000;0.9361;1.4022;
383.1000;0.9385;1.4139;
383.4000;0.9377;1.4163;
383.7000;0.9369;1.4116;
384.0000;0.9361;1.4116;
384.3000;0.9369;1.4092;
384.6000;0.9361;1.4092;
384.9000;0.9377;1.4069;
385.2000;0.9345;1.3904;
385.5000;0.9353;1.3904;
385.8000;0.9361;1.3904;
386.1000;0.9369;1.3951;
386.4000;0.9353;1.3927;
386.7000;0.9361;1.3951;
387.0000;0.9369;1.3998;
387.3000;0.9353;1.3951;
387.6000;0.9369;1.4022;
387.9000;0.9451;1.4304;
388.2000;0.9369;1.4092;
388.5000;0.9361;1.4139;
388.8000;0.9418;1.4304;
389.1000;0.9345;1.4257;
389.4000;0.9361;1.4210;
389.7000;0.9385;1.4233;
390.0000;0.9361;1.4257;
390.3000;0.9247;1.4069;
390.6000;0.9345;1.4327;
390.9000;0.9345;1.4374;
391.2000;0.9361;1.4469;
391.5000;0.9337;1.4445;
391.8000;0.9312;1.4304;
392.1000;0.9377;1.4304;
392.4000;0.9377;1.4280;
392.7000;0.9353;1.4233;
393.0000;0.9337;1.4280;
393.3000;0.9385;1.4327;
393.6000;0.9369;1.4257;
393.9000;0.9369;1.4233;
394.2000;0.9377;1.4257;
394.5000;0.9353;1.4280;
394.8000;0.9361;1.4327;
395.1000;0.9345;1.4280;
395.4000;0.9410;1.4492;
395.7000;0.9353;1.4351;
396.0000;0.9345;1.4422;
396.3000;0.9369;1.4469;
396.6000;0.9345;1.4327;
396.9000;0.9345;1.4374;
397.2000;0.9337;1.4374;
397.5000;0.9369;1.4327;
397.8000;0.9353;1.4304;
398.1000;0.9353;1.4327;
398.4000;0.9296;1.4163;
398.7000;0.9377;1.4351;
399.0000;0.9369;1.4304;
399.3000;0.9353;1.4257;
399.6000;0.9353;1.4327;
399.9000;0.9361;1.4327;
400.2000;0.9337;1.4257;
400.5000;0.9369;1.4233;
400.8000;0.9361;1.4163;
401.1000;0.9377;1.4116;
401.4000;0.9263;1.3904;
401.7000;0.9353;1.4210;
402.0000;0.9353;1.4304;
402.3000;0.9345;1.4304;
402.6000;0.9353;1.4280;
402.9000;0.9345;1.4257;
403.2000;0.9296;1.4139;
403.5000;0.9361;1.4257;
403.8000;0.9353;1.4280;
404.1000;0.9361;1.4280;
404.4000;0.9361;1.4351;
404.7000;0.9328;1.4351;
405.0000;0.9353;1.4445;
405.3000;0.9361;1.4469;
405.6000;0.9369;1.4374;
405.9000;0.9369;1.4327;
406.2000;0.9337;1.4280;
406.5000;0.9361;1.4327;
406.8000;0.9361;1.4163;
407.1000;0.9426;1.4233;
407.4000;0.9369;1.4116;
407.7000;0.9361;1.4233;
408.0000;0.9369;1.4304;
408.3000;0.9369;1.4327;
408.6000;0.9353;1.4304;
408.9000;0.9369;1.4398;
409.2000;0.9361;1.4374;
409.5000;0.9369;1.4445;
409.8000;0.9345;1.4422;
410.1000;0.9345;1.4327;
410.4000;0.9402;1.4469;
410.7000;0.9361;1.4374;
411.0000;0.9361;1.4327;
411.3000;0.9410;1.4422;
411.6000;0.9337;1.4257;
411.9000;0.9361;1.4304;
412.2000;0.9353;1.4257;
412.5000;0.9377;1.4257;
412.8000;0.9361;1.4210;
413.1000;0.9377;1.4139;
413.4000;0.9459;1.4257;
413.7000;0.9385;1.3998;
414.0000;0.9361;1.3975;
414.3000;0.9361;1.4022;
414.6000;0.9361;1.3998;
414.9000;0.9353;1.3927;
415.2000;0.9361;1.3951;
415.5000;0.9345;1.4069;
415.8000;0.9345;1.4139;
416.1000;0.9337;1.4139;
416.4000;0.9377;1.4233;
416.7000;0.9369;1.4327;
417.0000;0.9369;1.4398;
417.3000;0.9345;1.4327;
417.6000;0.9353;1.4327;
417.9000;0.9361;1.4351;
418.2000;0.9312;1.4257;
418.5000;0.9361;1.4233;
418.8000;0.9385;1.4233;
419.1000;0.9369;1.4186;
419.4000;0.9312;1.4022;
419.7000;0.9353;1.4116;
420.0000;0.9353;1.4116;
420.3000;0.9361;1.4163;
420.6000;0.9345;1.4116;
420.9000;0.9296;1.4022;
421.2000;0.9337;1.4116;
421.5000;0.9345;1.4210;
421.8000;0.9361;1.4186;
422.1000;0.9345;1.4116;
422.4000;0.9345;1.4139;
422.7000;0.9337;1.4139;
423.0000;0.9345;1.4163;
423.3000;0.9361;1.4210;
423.6000;0.9361;1.4210;
423.9000;0.9361;1.4139;
424.2000;0.9361;1.4092;
424.5000;0.9361;1.4139;
424.8000;0.9320;1.4092;
425.1000;0.9353;1.4069;
425.4000;0.9369;1.4045;
425.7000;0.9353;1.4045;
426.0000;0.9353;1.4116;
426.3000;0.9337;1.4163;
426.6000;0.9345;1.4304;
426.9000;0.9353;1.4257;
427.2000;0.9345;1.4233;
427.5000;0.9353;1.4163;
427.8000;0.9337;1.4139;
428.1000;0.9255;1.3998;
428.4000;0.9353;1.4210;
428.7000;0.9353;1.4351;
429.0000;0.9377;1.4445;
429.3000;0.9337;1.4374;
429.6000;0.9377;1.4445;
429.9000;0.9345;1.4280;
430.2000;0.9328;1.4233;
430.5000;0.9345;1.4257;
430.8000;0.9337;1.4257;
431.1000;0.9353;1.4280;
431.4000;0.9345;1.4257;
431.7000;0.9337;1.4186;
432.0000;0.9361;1.4257;
432.3000;0.9353;1.4304;
432.6000;0.9337;1.4233;
432.9000;0.9337;1.4210;
433.2000;0.9337;1.4280;
433.5000;0.9328;1.4257;
433.8000;0.9369;1.4398;
434.1000;0.9385;1.4492;
434.4000;0.9328;1.4327;
434.7000;0.9353;1.4304;
435.0000;0.9337;1.4186;
435.3000;0.9280;1.4069;
435.6000;0.9337;1.4022;
435.9000;0.9369;1.4022;
436.2000;0.9312;1.3857;
436.5000;0.9328;1.3904;
436.8000;0.9320;1.3857;
437.1000;0.9491;1.4233;
437.4000;0.9353;1.3975;
437.7000;0.9345;1.3998;
438.0000;0.9337;1.4069;
438.3000;0.9353;1.4116;
438.6000;0.9361;1.4139;
438.9000;0.9369;1.4186;
439.2000;0.9369;1.4163;
439.5000;0.9328;1.4163;
439.8000;0.9361;1.4257;
440.1000;0.9353;1.4327;
440.4000;0.9271;1.4116;
440.7000;0.9353;1.4233;
441.0000;0.9345;1.4186;
441.3000;0.9337;1.4139;
441.6000;0.9353;1.4069;
441.9000;0.9328;1.3975;
442.2000;0.9369;1.4069;
442.5000;0.9361;1.4069;
442.8000;0.9369;1.4116;
443.1000;0.9337;1.4022;
443.4000;0.9361;1.4139;
443.7000;0.9353;1.4186;
444.0000;0.9377;1.4304;
444.3000;0.9312;1.4210;
444.6000;0.9426;1.4586;
444.9000;0.9369;1.4422;
445.2000;0.9353;1.4304;
445.5000;0.9369;1.4327;
445.8000;0.9345;1.4327;
446.1000;0.9345;1.4327;
446.4000;0.9328;1.4327;
446.7000;0.9345;1.4327;
447.0000;0.9328;1.4280;
447.3000;0.9337;1.4210;
447.6000;0.9361;1.4116;
447.9000;0.9345;1.4069;
448.2000;0.9345;1.4069;
448.5000;0.9345;1.4045;
448.8000;0.9328;1.4022;
449.1000;0.9328;1.4045;
449.4000;0.9345;1.4045;
449.7000;0.9345;1.4022;
450.0000;0.9353;1.4045;
450.3000;0.9345;1.3904;
450.6000;0.9353;1.3975;
450.9000;0.9353;1.4022;
451.2000;0.9402;1.4210;
451.5000;0.9369;1.4163;
451.8000;0.9353;1.4139;
452.1000;0.9337;1.4116;
452.4000;0.9320;1.4116;
452.7000;0.9337;1.4210;
453.0000;0.9353;1.4233;
453.3000;0.9353;1.4210;
453.6000;0.9345;1.4257;
453.9000;0.9345;1.4139;
454.2000;0.9337;1.4210;
454.5000;0.9353;1.4327;
454.8000;0.9328;1.4304;
455.1000;0.9304;1.4163;
455.4000;0.9353;1.4280;
455.7000;0.9337;1.4257;
456.0000;0.9320;1.4351;
456.3000;0.9353;1.4374;
456.6000;0.9328;1.4422;
456.9000;0.9353;1.4492;
457.2000;0.9337;1.4327;
457.5000;0.9337;1.4327;
457.8000;0.9353;1.4257;
458.1000;0.9353;1.4233;
458.4000;0.9328;1.4210;
458.7000;0.9337;1.4327;
459.0000;0.9337;1.4304;
459.3000;0.9312;1.4210;
459.6000;0.9345;1.4210;
459.9000;0.9410;1.4327;
460.2000;0.9328;1.4163;
460.5000;0.9337;1.4210;
460.8000;0.9337;1.4210;
461.1000;0.9328;1.4233;
461.4000;0.9361;1.4304;
461.7000;0.9328;1.4257;
462.0000;0.9345;1.4233;
462.3000;0.9337;1.4210;
462.6000;0.9353;1.4092;
462.9000;0.9361;1.4092;
463.2000;0.9337;1.4069;
463.5000;0.9337;1.4092;
463.8000;0.9312;1.4069;
464.1000;0.9345;1.4233;
464.4000;0.9377;1.4233;
464.7000;0.9353;1.4139;
465.0000;0.9345;1.4163;
465.3000;0.9337;1.4163;
465.6000;0.9394;1.4280;
465.9000;0.9345;1.4257;
466.2000;0.9345;1.4327;
466.5000;0.9304;1.4210;
466.8000;0.9304;1.4210;
467.1000;0.9328;1.4280;
467.4000;0.9328;1.4210;
467.7000;0.9320;1.4186;
468.0000;0.9320;1.4139;
468.3000;0.9337;1.4163;
468.6000;0.9328;1.4163;
468.9000;0.9337;1.4163;
469.2000;0.9304;1.4069;
469.5000;0.9320;1.4163;
469.8000;0.9328;1.4210;
470.1000;0.9345;1.4210;
470.4000;0.9337;1.4257;
470.7000;0.9345;1.4374;
471.0000;0.9320;1.4327;
471.3000;0.9337;1.4422;
471.6000;0.9345;1.4445;
471.9000;0.9345;1.4422;
472.2000;0.9353;1.4327;
472.5000;0.9328;1.4257;
472.8000;0.9328;1.4327;
473.1000;0.9345;1.4280;
473.4000;0.9353;1.4280;
473.7000;0.9328;1.4163;
474.0000;0.9337;1.4186;
474.3000;0.9337;1.4210;
474.6000;0.9377;1.4327;
474.9000;0.9345;1.4351;
475.2000;0.9296;1.4257;
475.5000;0.9337;1.4351;
475.8000;0.9361;1.4374;
476.1000;0.9434;1.4633;
476.4000;0.9337;1.4469;
476.7000;0.9337;1.4469;
477.0000;0.9353;1.4422;
477.3000;0.9328;1.4374;
477.6000;0.9328;1.4351;
477.9000;0.9353;1.4327;
478.2000;0.9353;1.4233;
478.5000;0.9328;1.4139;
478.8000;0.9312;1.4139;
479.1000;0.9337;1.4233;
479.4000;0.9337;1.4280;
479.7000;0.9328;1.4280;
480.0000;0.9345;1.4327;
480.3000;0.9402;1.4445;
480.6000;0.9345;1.4257;
480.9000;0.9312;1.4280;
481.2000;0.9328;1.4257;
481.5000;0.9345;1.4233;
481.8000;0.9369;1.4351;
482.1000;0.9361;1.4327;
482.4000;0.9320;1.4186;
482.7000;0.9345;1.4210;
483.0000;0.9345;1.4210;
483.3000;0.9320;1.4163;
483.6000;0.9353;1.4233;
483.9000;0.9328;1.4163;
484.2000;0.9377;1.4186;
484.5000;0.9328;1.4092;
484.8000;0.9377;1.4257;
485.1000;0.9304;1.4116;
485.4000;0.9328;1.4069;
485.7000;0.9353;1.4045;
486.0000;0.9296;1.3904;
486.3000;0.9345;1.4163;
486.6000;0.9337;1.4139;
486.9000;0.9353;1.4139;
487.2000;0.9345;1.4186;
487.5000;0.9337;1.4069;
487.8000;0.9426;1.4233;
488.1000;0.9328;1.3998;
488.4000;0.9361;1.4092;
488.7000;0.9320;1.4022;
489.0000;0.9320;1.3998;
489.3000;0.9361;1.4139;
489.6000;0.9377;1.4257;
489.9000;0.9320;1.4139;
490.2000;0.9361;1.4163;
490.5000;0.9377;1.4210;
490.8000;0.9337;1.4163;
491.1000;0.9345;1.4163;
491.4000;0.9328;1.4139;
491.7000;0.9320;1.4139;
492.0000;0.9345;1.4257;
492.3000;0.9361;1.4233;
492.6000;0.9320;1.4116;
492.9000;0.9337;1.4139;
493.2000;0.9337;1.4163;
493.5000;0.9337;1.4116;
493.8000;0.9328;1.4045;
494.1000;0.9377;1.4116;
494.4000;0.9328;1.4045;
494.7000;0.9369;1.4233;
495.0000;0.9304;1.4069;
495.3000;0.9337;1.4045;
495.6000;0.9328;1.4022;
495.9000;0.9467;1.4304;
496.2000;0.9361;1.4092;
496.5000;0.9345;1.3998;
496.8000;0.9345;1.3998;
497.1000;0.9353;1.4092;
497.4000;0.9361;1.4092;
497.7000;0.9353;1.4092;
498.0000;0.9320;1.4022;
498.3000;0.9304;1.4069;
498.6000;0.9418;1.4374;
498.9000;0.9345;1.4210;
499.2000;0.9328;1.4139;
499.5000;0.9328;1.4163;
499.8000;0.9345;1.4116;
500.1000;0.9337;1.4186;
500.4000;0.9304;1.4139;
500.7000;0.9328;1.4139;
501.0000;0.9337;1.4069;
501.3000;0.9328;1.4092;
501.6000;0.9320;1.4116;
501.9000;0.9353;1.4304;
502.2000;0.9361;1.4351;
502.5000;0.9337;1.4327;
502.8000;0.9345;1.4257;
503.1000;0.9337;1.4186;
503.4000;0.9361;1.4210;
503.7000;0.9345;1.4163;
504.0000;0.9337;1.4233;
504.3000;0.9353;1.4257;
504.6000;0.9320;1.4139;
504.9000;0.9345;1.4163;
505.2000;0.9361;1.4210;
505.5000;0.9353;1.4210;
505.8000;0.9304;1.4069;
506.1000;0.9312;1.3998;
506.4000;0.9255;1.3904;
506.7000;0.9312;1.3951;
507.0000;0.9328;1.3927;
507.3000;0.9353;1.4116;
507.6000;0.9345;1.4139;
507.9000;0.9410;1.4233;
508.2000;0.9353;1.4116;
508.5000;0.9337;1.4139;
508.8000;0.9337;1.4186;
509.1000;0.9304;1.4022;
509.4000;0.9320;1.4163;
509.7000;0.9328;1.4210;
510.0000;0.9345;1.4163;
510.3000;0.9320;1.4069;
510.6000;0.9353;1.4163;
510.9000;0.9345;1.4139;
511.2000;0.9296;1.3975;
511.5000;0.9418;1.4398;
511.8000;0.9337;1.4210;
512.1000;0.9337;1.4186;
512.4000;0.9451;1.4422;
512.7000;0.9345;1.4186;
513.0000;0.9377;1.4257;
513.3000;0.9337;1.4163;
513.6000;0.9353;1.4116;
513.9000;0.9353;1.4163;
514.2000;0.9231;1.3880;
514.5000;0.9337;1.4186;
514.8000;0.9320;1.4139;
515.1000;0.9337;1.4163;
515.4000;0.9328;1.4210;
515.7000;0.9320;1.4186;
516.0000;0.9304;1.4045;
516.3000;0.9320;1.4045;
516.6000;0.9328;1.4069;
516.9000;0.9353;1.4045;
517.2000;0.9288;1.3998;
517.5000;0.9328;1.3998;
517.8000;0.9328;1.4022;
518.1000;0.9328;1.3975;
518.4000;0.9345;1.3998;
518.7000;0.9328;1.4045;
519.0000;0.9312;1.4022;
519.3000;0.9345;1.4045;
519.6000;0.9328;1.3975;
519.9000;0.9312;1.3904;
520.2000;0.9345;1.4022;
520.5000;0.9337;1.3998;
520.8000;0.9296;1.3927;
521.1000;0.9328;1.4045;
521.4000;0.9312;1.4116;
521.7000;0.9345;1.4163;
522.0000;0.9385;1.4257;
522.3000;0.9353;1.4210;
522.6000;0.9353;1.4233;
522.9000;0.9320;1.4163;
523.2000;0.9361;1.4210;
523.5000;0.9361;1.4280;
523.8000;0.9337;1.4233;
524.1000;0.9345;1.4304;
524.4000;0.9345;1.4186;
524.7000;0.9328;1.4163;
525.0000;0.9320;1.4233;
525.3000;0.9320;1.4210;
525.6000;0.9328;1.4186;
525.9000;0.9328;1.4186;
526.2000;0.9328;1.4139;
526.5000;0.9328;1.4163;
526.8000;0.9337;1.4280;
527.1000;0.9337;1.4257;
527.4000;0.9304;1.4163;
527.7000;0.9337;1.4163;
528.0000;0.9328;1.4069;
528.3000;0.9345;1.4186;
528.6000;0.9320;1.4186;
528.9000;0.9337;1.4163;
529.2000;0.9345;1.4069;
529.5000;0.9345;1.3998;
529.8000;0.9304;1.3927;
530.1000;0.9328;1.4045;
530.4000;0.9320;1.4045;
530.7000;0.9345;1.4139;
531.0000;0.9328;1.4116;
531.3000;0.9328;1.4045;
531.6000;0.9328;1.4022;
531.9000;0.9320;1.3975;
532.2000;0.9328;1.3927;
532.5000;0.9337;1.3975;
532.8000;0.9320;1.3904;
533.1000;0.9328;1.3904;
533.4000;0.9434;1.4116;
533.7000;0.9328;1.3857;
534.0000;0.9345;1.3927;
534.3000;0.9288;1.3833;
534.6000;0.9353;1.3927;
534.9000;0.9320;1.3857;
535.2000;0.9320;1.3904;
535.5000;0.9328;1.3904;
535.8000;0.9337;1.3951;
536.1000;0.9320;1.3998;
536.4000;0.9304;1.3998;
536.7000;0.9312;1.4045;
537.0000;0.9328;1.4045;
537.3000;0.9328;1.4186;
537.6000;0.9320;1.4116;
537.9000;0.9223;1.3927;
538.2000;0.9320;1.4210;
538.5000;0.9345;1.4327;
538.8000;0.9304;1.4351;
539.1000;0.9328;1.4351;
539.4000;0.9320;1.4374;
539.7000;0.9320;1.4304;
540.0000;0.9320;1.4398;
540.3000;0.9320;1.4422;
540.6000;0.9271;1.4374;
540.9000;0.9328;1.4516;
541.2000;0.9312;1.4445;
541.5000;0.9312;1.4374;
541.8000;0.9320;1.4351;
542.1000;0.9328;1.4327;
542.4000;0.9320;1.4210;
542.7000;0.9328;1.4210;
543.0000;0.9312;1.4139;
543.3000;0.9337;1.4304;
543.6000;0.9337;1.4351;
543.9000;0.9328;1.4304;
544.2000;0.9320;1.4233;
544.5000;0.9328;1.4257;
544.8000;0.9337;1.4280;
545.1000;0.9296;1.4280;
545.4000;0.9320;1.4327;
545.7000;0.9328;1.4327;
546.0000;0.9312;1.4351;
546.3000;0.9337;1.4516;
546.6000;0.9337;1.4398;
546.9000;0.9345;1.4398;
547.2000;0.9337;1.4374;
547.5000;0.9337;1.4327;
547.8000;0.9361;1.4422;
548.1000;0.9353;1.4327;
548.4000;0.9312;1.4186;
548.7000;0.9337;1.4186;
549.0000;0.9337;1.4257;
549.3000;0.9328;1.4304;
549.6000;0.9353;1.4351;
549.9000;0.9328;1.4304;
550.2000;0.9369;1.4445;
550.5000;0.9337;1.4445;
550.8000;0.9304;1.4374;
551.1000;0.9337;1.4516;
551.4000;0.9312;1.4351;
551.7000;0.9328;1.4422;
552.0000;0.9434;1.4751;
552.3000;0.9182;1.4045;
552.6000;0.9328;1.4351;
552.9000;0.9328;1.4327;
553.2000;0.9328;1.4163;
553.5000;0.9410;1.4374;
553.8000;0.9337;1.4280;
554.1000;0.9410;1.4516;
554.4000;0.9328;1.4422;
554.7000;0.9312;1.4304;
555.0000;0.9312;1.4280;
555.3000;0.9320;1.4210;
555.6000;0.9280;1.4045;
555.9000;0.9271;1.4069;
556.2000;0.9312;1.4210;
556.5000;0.9304;1.4304;
556.8000;0.9239;1.4186;
557.1000;0.9304;1.4398;
557.4000;0.9312;1.4445;
557.7000;0.9320;1.4351;
558.0000;0.9320;1.4280;
558.3000;0.9320;1.4257;
558.6000;0.9361;1.4327;
558.9000;0.9353;1.4351;
559.2000;0.9312;1.4327;
559.5000;0.9288;1.4186;
559.8000;0.9320;1.4327;
560.1000;0.9288;1.4257;
560.4000;0.9320;1.4304;
560.7000;0.9345;1.4351;
561.0000;0.9320;1.4304;
561.3000;0.9320;1.4280;
561.6000;0.9328;1.4186;
561.9000;0.9304;1.4069;
562.2000;0.9328;1.4210;
562.5000;0.9328;1.4327;
562.8000;0.9337;1.4351;
563.1000;0.9328;1.4327;
563.4000;0.9312;1.4163;
563.7000;0.9320;1.4257;
564.0000;0.9296;1.4186;
564.3000;0.9320;1.4304;
564.6000;0.9320;1.4327;
564.9000;0.9304;1.4257;
565.2000;0.9345;1.4327;
565.5000;0.9312;1.4280;
565.8000;0.9337;1.4280;
566.1000;0.9345;1.4351;
566.4000;0.9337;1.4280;
566.7000;0.9328;1.4351;
567.0000;0.9312;1.4233;
567.3000;0.9328;1.4233;
567.6000;0.9320;1.4327;
567.9000;0.9320;1.4210;
568.2000;0.9296;1.4163;
568.5000;0.9304;1.4186;
568.8000;0.9312;1.4233;
569.1000;0.9385;1.4327;
569.4000;0.9337;1.4163;
569.7000;0.9320;1.4116;
570.0000;0.9328;1.4139;
570.3000;0.9304;1.4139;
570.6000;0.9304;1.4139;
570.9000;0.9328;1.4210;
571.2000;0.9320;1.4210;
571.5000;0.9320;1.4186;
571.8000;0.9328;1.4186;
572.1000;0.9312;1.4186;
572.4000;0.9296;1.4092;
572.7000;0.9328;1.4116;
573.0000;0.9328;1.4233;
573.3000;0.9296;1.4139;
573.6000;0.9320;1.4210;
573.9000;0.9328;1.4233;
574.2000;0.9320;1.4233;
574.5000;0.9312;1.4116;
574.8000;0.9320;1.4045;
575.1000;0.9320;1.4139;
575.4000;0.9304;1.4092;
575.7000;0.9280;1.4163;
576.0000;0.9320;1.4186;
576.3000;0.9288;1.4069;
576.6000;0.9320;1.4139;
576.9000;0.9320;1.4092;
577.2000;0.9312;1.4022;
577.5000;0.9353;1.4116;
577.8000;0.9255;1.3998;
578.1000;0.9320;1.4092;
578.4000;0.9320;1.4022;
578.7000;0.9296;1.3927;
579.0000;0.9320;1.4022;
579.3000;0.9345;1.4139;
579.6000;0.9320;1.4163;
579.9000;0.9320;1.4139;
580.2000;0.9320;1.4210;
580.5000;0.9320;1.4139;
580.8000;0.9320;1.4139;
581.1000;0.9320;1.4092;
581.4000;0.9320;1.4045;
581.7000;0.9320;1.4116;
582.0000;0.9320;1.4163;
582.3000;0.9320;1.4210;
582.6000;0.9255;1.4116;
582.9000;0.9320;1.4210;
583.2000;0.9328;1.4139;
583.5000;0.9320;1.4116;
583.8000;0.9320;1.4210;
584.1000;0.9320;1.4327;
584.4000;0.9328;1.4304;
584.7000;0.9320;1.4186;
585.0000;0.9328;1.4186;
585.3000;0.9288;1.4092;
585.6000;0.9304;1.4045;
585.9000;0.9328;1.4139;
586.2000;0.9345;1.4186;
586.5000;0.9328;1.4139;
586.8000;0.9353;1.4092;
587.1000;0.9320;1.4092;
587.4000;0.9328;1.4163;
587.7000;0.9337;1.4210;
588.0000;0.9320;1.4210;
588.3000;0.9328;1.4139;
588.6000;0.9337;1.4186;
588.9000;0.9328;1.4233;
589.2000;0.9312;1.4139;
589.5000;0.9320;1.4069;
589.8000;0.9247;1.3833;
590.1000;0.9345;1.3927;
590.4000;0.9296;1.3786;
590.7000;0.9328;1.3927;
591.0000;0.9337;1.3975;
591.3000;0.9304;1.3927;
591.6000;0.9304;1.3951;
591.9000;0.9328;1.3927;
592.2000;0.9288;1.3927;
592.5000;0.9337;1.4116;
592.8000;0.9320;1.4092;
593.1000;0.9304;1.4022;
593.4000;0.9345;1.4069;
593.7000;0.9337;1.4116;
594.0000;0.9304;1.4045;
594.3000;0.9320;1.4069;
594.6000;0.9328;1.4022;
594.9000;0.9320;1.4045;
595.2000;0.9345;1.3975;
595.5000;0.9231;1.3763;
595.8000;0.9328;1.3975;
596.1000;0.9320;1.4069;
596.4000;0.9304;1.4045;
596.7000;0.9320;1.4092;
597.0000;0.9296;1.4139;
597.3000;0.9312;1.4163;
597.6000;0.9304;1.4069;
597.9000;0.9304;1.4069;
598.2000;0.9320;1.4116;
598.5000;0.9328;1.3998;
598.8000;0.9320;1.3880;
599.1000;0.9328;1.3880;
599.4000;0.9385;1.4092;
599.7000;0.9320;1.4022;
600.0000;0.9328;1.4116;
600.3000;0.9304;1.4045;
600.6000;0.9255;1.3927;
600.9000;0.9158;1.3833;
601.2000;0.9003;1.3551;
601.5000;0.8840;1.3316;
601.8000;0.8734;1.3198;
602.1000;0.8555;1.2845;
602.4000;0.8457;1.2634;
602.7000;0.8287;1.2328;
603.0000;0.8189;1.2234;
603.3000;0.8059;1.2045;
603.6000;0.7993;1.1951;
603.9000;0.7912;1.1904;
604.2000;0.7823;1.1763;
604.5000;0.7692;1.1551;
604.8000;0.7627;1.1504;
605.1000;0.7611;1.1528;
605.4000;0.7489;1.1340;
605.7000;0.7399;1.1198;
606.0000;0.7359;1.1198;
606.3000;0.7326;1.1104;
606.6000;0.7253;1.1010;
606.9000;0.7269;1.1151;
607.2000;0.7163;1.0916;
607.5000;0.7098;1.0916;
607.8000;0.7033;1.0893;
608.1000;0.7017;1.1057;
608.4000;0.6968;1.1010;
608.7000;0.6927;1.1010;
609.0000;0.6895;1.0916;
609.3000;0.6838;1.0751;
609.6000;0.6821;1.0728;
609.9000;0.6764;1.0563;
610.2000;0.6707;1.0540;
610.5000;0.6691;1.0540;
610.8000;0.6667;1.0563;
611.1000;0.6618;1.0540;
611.4000;0.6626;1.0563;
611.7000;0.6545;1.0375;
612.0000;0.6536;1.0399;
612.3000;0.6488;1.0281;
612.6000;0.6488;1.0234;
612.9000;0.6439;1.0046;
613.2000;0.6390;0.9975;
613.5000;0.6382;0.9952;
613.8000;0.6382;0.9975;
614.1000;0.6357;0.9928;
614.4000;0.6300;0.9857;
614.7000;0.6325;0.9881;
615.0000;0.6276;0.9857;
615.3000;0.6276;0.9975;
615.6000;0.6227;0.9952;
615.9000;0.6211;0.9857;
616.2000;0.6203;0.9810;
616.5000;0.6186;0.9881;
616.8000;0.6146;0.9904;
617.1000;0.6113;0.9857;
617.4000;0.6105;0.9857;
617.7000;0.6105;0.9928;
618.0000;0.6056;0.9904;
618.3000;0.6064;0.9975;
618.6000;0.6040;0.9857;
618.9000;0.6032;0.9787;
619.2000;0.5991;0.9740;
619.5000;0.5983;0.9693;
619.8000;0.5975;0.9669;
620.1000;0.5983;0.9740;
620.4000;0.5983;0.9716;
620.7000;0.5950;0.9646;
621.0000;0.5918;0.9622;
621.3000;0.5910;0.9622;
621.6000;0.5918;0.9646;
621.9000;0.5877;0.9552;
622.2000;0.5877;0.9575;
622.5000;0.5869;0.9599;
622.8000;0.5845;0.9575;
623.1000;0.5828;0.9716;
623.4000;0.5796;0.9622;
623.7000;0.5812;0.9716;
624.0000;0.5796;0.9646;
624.3000;0.5804;0.9716;
624.6000;0.5763;0.9575;
624.9000;0.5747;0.9505;
625.2000;0.5731;0.9458;
625.5000;0.5771;0.9599;
625.8000;0.5755;0.9599;
626.1000;0.5771;0.9599;
626.4000;0.5755;0.9599;
626.7000;0.5706;0.9575;
627.0000;0.5690;0.9599;
627.3000;0.5690;0.9716;
627.6000;0.5706;0.9763;
627.9000;0.5674;0.9693;
628.2000;0.5641;0.9693;
628.5000;0.5731;0.9787;
628.8000;0.5649;0.9622;
629.1000;0.5649;0.9646;
629.4000;0.5682;0.9763;
629.7000;0.5600;0.9552;
630.0000;0.5641;0.9693;
630.3000;0.5592;0.9552;
630.6000;0.5617;0.9599;
630.9000;0.5600;0.9575;
631.2000;0.5527;0.9410;
631.5000;0.5576;0.9599;
631.8000;0.5592;0.9552;
632.1000;0.5543;0.9458;
632.4000;0.5633;0.9575;
632.7000;0.5551;0.9434;
633.0000;0.5535;0.9434;
633.3000;0.5543;0.9481;
633.6000;0.5560;0.9481;
633.9000;0.5511;0.9505;
634.2000;0.5503;0.9599;
634.5000;0.5511;0.9622;
634.8000;0.5519;0.9622;
635.1000;0.5495;0.9552;
635.4000;0.5486;0.9575;
635.7000;0.5478;0.9528;
636.0000;0.5495;0.9599;
636.3000;0.5495;0.9646;
636.6000;0.5478;0.9575;
636.9000;0.5478;0.9552;
637.2000;0.5495;0.9505;
637.5000;0.5454;0.9552;
637.8000;0.5470;0.9599;
638.1000;0.5438;0.9669;
638.4000;0.5470;0.9669;
638.7000;0.5519;0.9716;
639.0000;0.5454;0.9552;
639.3000;0.5446;0.9505;
639.6000;0.5470;0.9575;
639.9000;0.5421;0.9552;
640.2000;0.5429;0.9505;
640.5000;0.5429;0.9458;
640.8000;0.5405;0.9316;
641.1000;0.5413;0.9340;
641.4000;0.5413;0.9387;
641.7000;0.5397;0.9434;
642.0000;0.5413;0.9575;
642.3000;0.5389;0.9552;
642.6000;0.5397;0.9575;
642.9000;0.5389;0.9575;
643.2000;0.5389;0.9599;
643.5000;0.5372;0.9599;
643.8000;0.5364;0.9646;
644.1000;0.5364;0.9599;
644.4000;0.5381;0.9693;
644.7000;0.5364;0.9787;
645.0000;0.5324;0.9763;
645.3000;0.5348;0.9716;
645.6000;0.5324;0.9787;
645.9000;0.5340;0.9810;
646.2000;0.5389;0.9952;
646.5000;0.5340;0.9740;
646.8000;0.5324;0.9669;
647.1000;0.5324;0.9693;
647.4000;0.5364;0.9787;
647.7000;0.5332;0.9763;
648.0000;0.5307;0.9740;
648.3000;0.5397;0.9904;
648.6000;0.5267;0.9505;
648.9000;0.5307;0.9622;
649.2000;0.5291;0.9693;
649.5000;0.5299;0.9740;
649.8000;0.5324;0.9834;
650.1000;0.5283;0.9740;
650.4000;0.5299;0.9810;
650.7000;0.5348;0.9928;
651.0000;0.5283;0.9716;
651.3000;0.5275;0.9716;
651.6000;0.5275;0.9669;
651.9000;0.5307;0.9716;
652.2000;0.5275;0.9763;
652.5000;0.5275;0.9693;
652.8000;0.5307;0.9716;
653.1000;0.5275;0.9599;
653.4000;0.5283;0.9622;
653.7000;0.5226;0.9528;
654.0000;0.5250;0.9669;
654.3000;0.5258;0.9693;
654.6000;0.5185;0.9599;
654.9000;0.5234;0.9669;
655.2000;0.5250;0.9740;
655.5000;0.5218;0.9763;
655.8000;0.5258;0.9881;
656.1000;0.5226;0.9857;
656.4000;0.5234;0.9881;
656.7000;0.5226;0.9834;
657.0000;0.5210;0.9763;
657.3000;0.5226;0.9810;
657.6000;0.5226;0.9763;
657.9000;0.5210;0.9763;
658.2000;0.5234;0.9740;
658.5000;0.5201;0.9763;
658.8000;0.5169;0.9693;
659.1000;0.5193;0.9693;
659.4000;0.5185;0.9716;
659.7000;0.5177;0.9669;
660.0000;0.5128;0.9552;
660.3000;0.5169;0.9716;
660.6000;0.5185;0.9787;
660.9000;0.5136;0.9646;
661.2000;0.5193;0.9763;
661.5000;0.5193;0.9740;
661.8000;0.5161;0.9669;
662.1000;0.5169;0.9599;
662.4000;0.5177;0.9552;
662.7000;0.5185;0.9669;
663.0000;0.5161;0.9528;
663.3000;0.5185;0.9528;
663.6000;0.5161;0.9458;
663.9000;0.5177;0.9528;
664.2000;0.5218;0.9669;
664.5000;0.5153;0.9693;
664.8000;0.5193;0.9834;
665.1000;0.5161;0.9787;
665.4000;0.5153;0.9834;
665.7000;0.5153;0.9834;
666.0000;0.5144;0.9834;
666.3000;0.5096;0.9669;
666.6000;0.5136;0.9763;
666.9000;0.5104;0.9740;
667.2000;0.5088;0.9599;
667.5000;0.5128;0.9646;
667.8000;0.5120;0.9646;
668.1000;0.5096;0.9575;
668.4000;0.5136;0.9740;
668.7000;0.5120;0.9716;
669.0000;0.5112;0.9740;
669.3000;0.5096;0.9599;
669.6000;0.5120;0.9669;
669.9000;0.5104;0.9646;
670.2000;0.5128;0.9716;
670.5000;0.5120;0.9716;
670.8000;0.5088;0.9646;
671.1000;0.5112;0.9716;
671.4000;0.5120;0.9763;
671.7000;0.5088;0.9740;
672.0000;0.5112;0.9787;
672.3000;0.5104;0.9716;
672.6000;0.5120;0.9716;
672.9000;0.5096;0.9693;
673.2000;0.5104;0.9693;
673.5000;0.5063;0.9646;
673.8000;0.5096;0.9810;
674.1000;0.5071;0.9716;
674.4000;0.5088;0.9646;
674.7000;0.5088;0.9646;
675.0000;0.5088;0.9622;
675.3000;0.5079;0.9669;
675.6000;0.5071;0.9693;
675.9000;0.5071;0.9575;
676.2000;0.5071;0.9669;
676.5000;0.5039;0.9622;
676.8000;0.5120;0.9834;
677.1000;0.5055;0.9740;
677.4000;0.5063;0.9787;
677.7000;0.5071;0.9810;
678.0000;0.5088;0.9763;
678.3000;0.5055;0.9716;
678.6000;0.5031;0.9693;
678.9000;0.5055;0.9716;
679.2000;0.5055;0.9669;
679.5000;0.5055;0.9669;
679.8000;0.5039;0.9646;
680.1000;0.5047;0.9622;
680.4000;0.5055;0.9599;
680.7000;0.5039;0.9599;
681.0000;0.5112;0.9716;
681.3000;0.5063;0.9599;
681.6000;0.5047;0.9575;
681.9000;0.5047;0.9740;
682.2000;0.5006;0.9693;
682.5000;0.5031;0.9693;
682.8000;0.5031;0.9787;
683.1000;0.5047;0.9834;
683.4000;0.5063;0.9928;
683.7000;0.5055;0.9904;
684.0000;0.5079;0.9975;
684.3000;0.5022;0.9857;
684.6000;0.5014;0.9787;
684.9000;0.5031;0.9787;
685.2000;0.4982;0.9646;
685.5000;0.5031;0.9810;
685.8000;0.5039;0.9787;
686.1000;0.5006;0.9787;
686.4000;0.5031;0.9693;
686.7000;0.5022;0.9810;
687.0000;0.5039;0.9857;
687.3000;0.5014;0.9763;
687.6000;0.5014;0.9740;
687.9000;0.5006;0.9787;
688.2000;0.5022;0.9834;
688.5000;0.5006;0.9952;
688.8000;0.4998;0.9881;
689.1000;0.5006;0.9928;
689.4000;0.4998;0.9834;
689.7000;0.5006;0.9740;
690.0000;0.4990;0.9646;
690.3000;0.4982;0.9646;
690.6000;0.4990;0.9599;
690.9000;0.4982;0.9575;
691.2000;0.4982;0.9693;
691.5000;0.4998;0.9622;
691.8000;0.4990;0.9693;
692.1000;0.4974;0.9716;
692.4000;0.4974;0.9693;
692.7000;0.4974;0.9646;
693.0000;0.4990;0.9787;
693.3000;0.4998;0.9810;
693.6000;0.4974;0.9740;
693.9000;0.4990;0.9810;
694.2000;0.4990;0.9810;
694.5000;0.4941;0.9740;
694.8000;0.4982;0.9787;
695.1000;0.4965;0.9810;
695.4000;0.4965;0.9834;
695.7000;0.5031;0.9952;
696.0000;0.4974;0.9740;
696.3000;0.4974;0.9669;
696.6000;0.4965;0.9740;
696.9000;0.4982;0.9716;
697.2000;0.4982;0.9740;
697.5000;0.4949;0.9599;
697.8000;0.4965;0.9716;
698.1000;0.4957;0.9763;
698.4000;0.4974;0.9810;
698.7000;0.4925;0.9763;
699.0000;0.4949;0.9810;
699.3000;0.4949;0.9787;
699.6000;0.4957;0.9787;
699.9000;0.4957;0.9740;
700.2000;0.4941;0.9740;
700.5000;0.4941;0.9693;
700.8000;0.4957;0.9740;
701.1000;0.4949;0.9622;
701.4000;0.4933;0.9575;
701.7000;0.4933;0.9552;
702.0000;0.4941;0.9646;
702.3000;0.4941;0.9669;
702.6000;0.4941;0.9646;
702.9000;0.4933;0.9622;
703.2000;0.4917;0.9575;
703.5000;0.4933;0.9763;
703.8000;0.4941;0.9716;
704.1000;0.4917;0.9646;
704.4000;0.4933;0.9763;
704.7000;0.4941;0.9857;
705.0000;0.4941;0.9857;
705.3000;0.4933;0.9881;
705.6000;0.4925;0.9787;
705.9000;0.4933;0.9857;
706.2000;0.4900;0.9669;
706.5000;0.4925;0.9646;
706.8000;0.4917;0.9740;
707.1000;0.4925;0.9787;
707.4000;0.4933;0.9834;
707.7000;0.4957;0.9904;
708.0000;0.4925;0.9810;
708.3000;0.4925;0.9834;
708.6000;0.4908;0.9810;
708.9000;0.4917;0.9857;
709.2000;0.4900;0.9881;
709.5000;0.4957;0.9952;
709.8000;0.4900;0.9904;
710.1000;0.4884;0.9975;
710.4000;0.4892;0.9999;
710.7000;0.4892;0.9999;
711.0000;0.4884;0.9928;
711.3000;0.4908;0.9881;
711.6000;0.4917;0.9857;
711.9000;0.4900;0.9787;
712.2000;0.4884;0.9740;
712.5000;0.4900;0.9787;
712.8000;0.4900;0.9834;
713.1000;0.4884;0.9787;
713.4000;0.4892;0.9834;
713.7000;0.4900;0.9904;
714.0000;0.4908;0.9975;
714.3000;0.4892;0.9881;
714.6000;0.4892;1.0022;
714.9000;0.4827;0.9834;
715.2000;0.4876;0.9928;
715.5000;0.4868;0.9904;
715.8000;0.4876;0.9952;
716.1000;0.4892;0.9904;
716.4000;0.4933;0.9881;
716.7000;0.4884;0.9646;
717.0000;0.4868;0.9693;
717.3000;0.4925;0.9787;
717.6000;0.4876;0.9669;
717.9000;0.4868;0.9669;
718.2000;0.4835;0.9552;
718.5000;0.4884;0.9740;
718.8000;0.4843;0.9669;
719.1000;0.4884;0.9787;
719.4000;0.4868;0.9763;
719.7000;0.4892;0.9810;
720.0000;0.4868;0.9857;
720.3000;0.4876;0.9952;
720.6000;0.4892;1.0046;
720.9000;0.4868;0.9999;
721.2000;0.4884;1.0046;
721.5000;0.4892;1.0093;
721.8000;0.4851;0.9904;
722.1000;0.4900;0.9999;
722.4000;0.4851;0.9904;
722.7000;0.4851;0.9810;
723.0000;0.4868;0.9834;
723.3000;0.4851;0.9787;
723.6000;0.4843;0.9834;
723.9000;0.4794;0.9810;
724.2000;0.4843;0.9999;
724.5000;0.4819;0.9999;
724.8000;0.4827;0.9999;
725.1000;0.4876;1.0046;
725.4000;0.4843;0.9999;
725.7000;0.4835;0.9928;
726.0000;0.4827;0.9857;
726.3000;0.4851;0.9904;
726.6000;0.4835;0.9787;
726.9000;0.4884;0.9904;
727.2000;0.4843;0.9763;
727.5000;0.4827;0.9810;
727.8000;0.4851;0.9834;
728.1000;0.4835;0.9834;
728.4000;0.4778;0.9834;
728.7000;0.4819;0.9952;
729.0000;0.4827;0.9834;
729.3000;0.4851;0.9904;
729.6000;0.4827;0.9834;
729.9000;0.4851;0.9881;
730.2000;0.4876;0.9975;
730.5000;0.4835;0.9928;
730.8000;0.4811;0.9857;
731.1000;0.4819;0.9928;
731.4000;0.4843;1.0022;
731.7000;0.4917;1.0234;
732.0000;0.4819;0.9952;
732.3000;0.4819;0.9928;
732.6000;0.4851;0.9999;
732.9000;0.4827;0.9928;
733.2000;0.4868;1.0046;
733.5000;0.4819;0.9928;
733.8000;0.4811;0.9928;
734.1000;0.4868;1.0022;
734.4000;0.4819;0.9787;
734.7000;0.4827;0.9716;
735.0000;0.4843;0.9810;
735.3000;0.4835;0.9810;
735.6000;0.4835;0.9740;
735.9000;0.4843;0.9763;
736.2000;0.4803;0.9763;
736.5000;0.4835;0.9810;
736.8000;0.4908;0.9952;
737.1000;0.4794;0.9693;
737.4000;0.4811;0.9716;
737.7000;0.4827;0.9716;
738.0000;0.4835;0.9763;
738.3000;0.4762;0.9669;
738.6000;0.4786;0.9763;
738.9000;0.4762;0.9716;
739.2000;0.4786;0.9763;
739.5000;0.4794;0.9763;
739.8000;0.4811;0.9834;
740.1000;0.4803;0.9834;
740.4000;0.4900;1.0093;
740.7000;0.4892;1.0046;
741.0000;0.4786;0.9810;
741.3000;0.4835;0.9857;
741.6000;0.4811;0.9834;
741.9000;0.4803;0.9857;
742.2000;0.4786;0.9952;
742.5000;0.4819;0.9952;
742.8000;0.4811;0.9881;
743.1000;0.4803;0.9881;
743.4000;0.4786;0.9787;
743.7000;0.4819;0.9787;
744.0000;0.4803;0.9787;
744.3000;0.4803;0.9834;
744.6000;0.4794;0.9763;
744.9000;0.4786;0.9787;
745.2000;0.4762;0.9810;
745.5000;0.4786;0.9834;
745.8000;0.4827;0.9904;
746.1000;0.4851;0.9928;
746.4000;0.4778;0.9834;
746.7000;0.4876;1.0187;
747.0000;0.4786;0.9999;
747.3000;0.4770;0.9975;
747.6000;0.4770;0.9952;
747.9000;0.4794;0.9999;
748.2000;0.4770;1.0022;
748.5000;0.4794;1.0046;
748.8000;0.4762;0.9999;
749.1000;0.4794;1.0116;
749.4000;0.4786;1.0116;
749.7000;0.4803;1.0093;
750.0000;0.4778;0.9928;
750.3000;0.4770;0.9787;
750.6000;0.4794;0.9834;
750.9000;0.4770;0.9857;
751.2000;0.4762;0.9857;
751.5000;0.4697;0.9740;
751.8000;0.4762;0.9928;
752.1000;0.4794;1.0022;
752.4000;0.4762;0.9975;
752.7000;0.4762;0.9975;
753.0000;0.4754;0.9999;
753.3000;0.4762;0.9904;
753.6000;0.4786;0.9881;
753.9000;0.4754;0.9787;
754.2000;0.4819;0.9952;
754.5000;0.4770;0.9928;
754.8000;0.4762;0.9975;
755.1000;0.4705;0.9904;
755.4000;0.4770;1.0116;
755.7000;0.4778;1.0116;
756.0000;0.4746;1.0093;
756.3000;0.4689;0.9952;
756.6000;0.4778;1.0093;
756.9000;0.4819;1.0281;
757.2000;0.4762;1.0116;
757.5000;0.4746;1.0093;
757.8000;0.4746;1.0069;
758.1000;0.4762;1.0046;
758.4000;0.4762;1.0116;
758.7000;0.4762;1.0234;
759.0000;0.4737;1.0116;
759.3000;0.4713;0.9975;
759.6000;0.4794;1.0069;
759.9000;0.4729;0.9857;
760.2000;0.4746;0.9928;
760.5000;0.4721;0.9952;
760.8000;0.4762;1.0093;
761.1000;0.4754;1.0140;
761.4000;0.4762;1.0140;
761.7000;0.4754;1.0140;
762.0000;0.4754;1.0140;
762.3000;0.4811;1.0234;
762.6000;0.4737;1.0093;
762.9000;0.4754;1.0163;
763.2000;0.4746;1.0163;
763.5000;0.4754;1.0140;
763.8000;0.4746;1.0140;
764.1000;0.4737;1.0210;
764.4000;0.4721;1.0163;
764.7000;0.4721;1.0093;
765.0000;0.4737;1.0116;
765.3000;0.4778;1.0187;
765.6000;0.4729;1.0116;
765.9000;0.4746;1.0116;
766.2000;0.4737;1.0093;
766.5000;0.4746;1.0069;
766.8000;0.4737;1.0116;
767.1000;0.4754;1.0046;
767.4000;0.4746;1.0069;
767.7000;0.4746;1.0140;
768.0000;0.4729;1.0140;
768.3000;0.4729;1.0210;
768.6000;0.4737;1.0234;
768.9000;0.4721;1.0257;
769.2000;0.4746;1.0304;
769.5000;0.4713;1.0257;
769.8000;0.4729;1.0304;
770.1000;0.4729;1.0257;
770.4000;0.4762;1.0351;
770.7000;0.4729;1.0210;
771.0000;0.4713;1.0187;
771.3000;0.4746;1.0281;
771.6000;0.4811;1.0375;
771.9000;0.4721;1.0022;
772.2000;0.4705;1.0022;
772.5000;0.4713;1.0093;
772.8000;0.4713;1.0210;
773.1000;0.4729;1.0234;
773.4000;0.4729;1.0187;
773.7000;0.4746;1.0163;
774.0000;0.4729;1.0069;
774.3000;0.4697;0.9952;
774.6000;0.4705;0.9928;
774.9000;0.4697;0.9881;
775.2000;0.4721;0.9881;
775.5000;0.4713;0.9834;
775.8000;0.4713;0.9857;
776.1000;0.4746;0.9904;
776.4000;0.4737;0.9810;
776.7000;0.4729;0.9834;
777.0000;0.4737;0.9857;
777.3000;0.4705;0.9881;
777.6000;0.4713;0.9928;
777.9000;0.4713;0.9952;
778.2000;0.4729;0.9928;
778.5000;0.4721;0.9975;
778.8000;0.4729;1.0163;
779.1000;0.4632;0.9904;
779.4000;0.4721;1.0140;
779.7000;0.4689;1.0022;
780.0000;0.4713;1.0163;
780.3000;0.4721;1.0140;
780.6000;0.4697;1.0046;
780.9000;0.4689;1.0116;
781.2000;0.4713;1.0187;
781.5000;0.4697;1.0187;
781.8000;0.4729;1.0257;
782.1000;0.4697;1.0210;
782.4000;0.4721;1.0257;
782.7000;0.4713;1.0093;
783.0000;0.4689;1.0093;
783.3000;0.4713;1.0116;
783.6000;0.4681;1.0022;
783.9000;0.4689;1.0022;
784.2000;0.4697;1.0069;
784.5000;0.4754;1.0116;
784.8000;0.4689;1.0022;
785.1000;0.4705;1.0046;
785.4000;0.4689;1.0022;
785.7000;0.4689;1.0046;
786.0000;0.4681;1.0046;
786.3000;0.4681;1.0069;
786.6000;0.4689;0.9999;
786.9000;0.4705;1.0069;
787.2000;0.4713;1.0022;
787.5000;0.4664;0.9904;
787.8000;0.4705;1.0022;
788.1000;0.4705;0.9928;
788.4000;0.4689;0.9999;
788.7000;0.4705;1.0187;
789.0000;0.4697;1.0163;
789.3000;0.4672;1.0069;
789.6000;0.4689;1.0046;
789.9000;0.4697;0.9952;
790.2000;0.4681;0.9952;
790.5000;0.4672;0.9999;
790.8000;0.4681;1.0046;
791.1000;0.4681;1.0069;
791.4000;0.4697;1.0116;
791.7000;0.4705;1.0187;
792.0000;0.4689;1.0187;
792.3000;0.4681;1.0116;
792.6000;0.4672;0.9999;
792.9000;0.4672;1.0093;
793.2000;0.4689;1.0257;
793.5000;0.4681;1.0281;
793.8000;0.4681;1.0328;
794.1000;0.4672;1.0257;
794.4000;0.4705;1.0281;
794.7000;0.4681;1.0234;
795.0000;0.4729;1.0281;
795.3000;0.4697;1.0116;
795.6000;0.4681;1.0093;
795.9000;0.4681;0.9999;
796.2000;0.4681;1.0022;
796.5000;0.4689;1.0046;
796.8000;0.4672;0.9975;
797.1000;0.4689;1.0093;
797.4000;0.4672;1.0022;
797.7000;0.4689;1.0022;
798.0000;0.4713;1.0093;
798.3000;0.4681;0.9975;
798.6000;0.4681;1.0022;
798.9000;0.4664;0.9999;
799.2000;0.4632;0.9928;
799.5000;0.4681;1.0046;
799.8000;0.4672;1.0069;
800.1000;0.4729;1.0187;
800.4000;0.4648;1.0140;
800.7000;0.4689;1.0234;
801.0000;0.4664;1.0257;
801.3000;0.4681;1.0234;
801.6000;0.4672;1.0234;
801.9000;0.4664;1.0210;
802.2000;0.4656;1.0187;
802.5000;0.4664;1.0210;
802.8000;0.4713;1.0304;
803.1000;0.4689;1.0116;
803.4000;0.4681;1.0069;
803.7000;0.4672;1.0069;
804.0000;0.4656;1.0022;
804.3000;0.4656;1.0093;
804.6000;0.4681;1.0210;
804.9000;0.4672;1.0257;
805.2000;0.4656;1.0234;
805.5000;0.4681;1.0351;
805.8000;0.4615;1.0257;
806.1000;0.4672;1.0422;
806.4000;0.4697;1.0469;
806.7000;0.4656;1.0351;
807.0000;0.4656;1.0328;
807.3000;0.4705;1.0422;
807.6000;0.4664;1.0257;
807.9000;0.4664;1.0140;
808.2000;0.4681;1.0187;
808.5000;0.4672;1.0069;
808.8000;0.4664;1.0116;
809.1000;0.4664;1.0093;
809.4000;0.4672;1.0163;
809.7000;0.4640;1.0234;
810.0000;0.4664;1.0281;
810.3000;0.4672;1.0257;
810.6000;0.4656;1.0140;
810.9000;0.4672;1.0257;
811.2000;0.4656;1.0234;
811.5000;0.4648;1.0210;
811.8000;0.4664;1.0304;
812.1000;0.4664;1.0351;
812.4000;0.4697;1.0399;
812.7000;0.4697;1.0446;
813.0000;0.4656;1.0351;
813.3000;0.4713;1.0446;
813.6000;0.4664;1.0281;
813.9000;0.4672;1.0257;
814.2000;0.4664;1.0304;
814.5000;0.4664;1.0328;
814.8000;0.4664;1.0304;
815.1000;0.4656;1.0281;
815.4000;0.4656;1.0257;
815.7000;0.4640;1.0257;
816.0000;0.4656;1.0257;
816.3000;0.4672;1.0257;
816.6000;0.4624;1.0187;
816.9000;0.4640;1.0187;
817.2000;0.4664;1.0140;
817.5000;0.4656;1.0163;
817.8000;0.4697;1.0281;
818.1000;0.4640;1.0163;
818.4000;0.4664;1.0234;
818.7000;0.4648;1.0257;
819.0000;0.4664;1.0375;
819.3000;0.4656;1.0351;
819.6000;0.4664;1.0351;
819.9000;0.4672;1.0281;
820.2000;0.4672;1.0351;
820.5000;0.4681;1.0375;
820.8000;0.4664;1.0210;
821.1000;0.4558;0.9975;
821.4000;0.4648;1.0163;
821.7000;0.4607;1.0116;
822.0000;0.4656;1.0210;
822.3000;0.4632;1.0210;
822.6000;0.4648;1.0281;
822.9000;0.4599;1.0210;
823.2000;0.4640;1.0187;
823.5000;0.4664;1.0210;
823.8000;0.4656;1.0140;
824.1000;0.4648;1.0116;
824.4000;0.4632;1.0069;
824.7000;0.4558;1.0022;
825.0000;0.4640;1.0257;
825.3000;0.4624;1.0210;
825.6000;0.4632;1.0304;
825.9000;0.4632;1.0304;
826.2000;0.4640;1.0257;
826.5000;0.4664;1.0351;
826.8000;0.4640;1.0281;
827.1000;0.4656;1.0234;
827.4000;0.4632;1.0116;
827.7000;0.4640;1.0022;
828.0000;0.4640;0.9975;
828.3000;0.4640;0.9928;
828.6000;0.4648;0.9904;
828.9000;0.4615;0.9857;
829.2000;0.4648;0.9928;
829.5000;0.4648;0.9857;
829.8000;0.4640;0.9857;
830.1000;0.4648;0.9904;
830.4000;0.4640;0.9952;
830.7000;0.4648;0.9999;
831.0000;0.4656;1.0163;
831.3000;0.4648;1.0187;
831.6000;0.4624;1.0140;
831.9000;0.4615;1.0140;
832.2000;0.4632;1.0187;
832.5000;0.4640;1.0234;
832.8000;0.4640;1.0257;
833.1000;0.4624;1.0257;
833.4000;0.4632;1.0234;
833.7000;0.4721;1.0540;
834.0000;0.4624;1.0257;
834.3000;0.4640;1.0257;
834.6000;0.4648;1.0281;
834.9000;0.4681;1.0446;
835.2000;0.4632;1.0304;
835.5000;0.4648;1.0328;
835.8000;0.4632;1.0257;
836.1000;0.4624;1.0375;
836.4000;0.4648;1.0375;
836.7000;0.4640;1.0281;
837.0000;0.4599;1.0210;
837.3000;0.4632;1.0304;
837.6000;0.4615;1.0210;
837.9000;0.4607;1.0163;
838.2000;0.4640;1.0210;
838.5000;0.4615;1.0093;
838.8000;0.4615;1.0069;
839.1000;0.4681;1.0304;
839.4000;0.4632;1.0257;
839.7000;0.4624;1.0304;
840.0000;0.4599;1.0234;
840.3000;0.4640;1.0328;
840.6000;0.4591;1.0163;
840.9000;0.4558;1.0116;
841.2000;0.4624;1.0187;
841.5000;0.4648;1.0187;
841.8000;0.4624;1.0093;
842.1000;0.4624;1.0140;
842.4000;0.4632;1.0140;
842.7000;0.4632;1.0116;
843.0000;0.4615;0.9928;
843.3000;0.4632;0.9999;
843.6000;0.4615;1.0022;
843.9000;0.4624;1.0116;
844.2000;0.4648;1.0163;
844.5000;0.4632;1.0187;
844.8000;0.4624;1.0210;
845.1000;0.4624;1.0257;
845.4000;0.4656;1.0328;
845.7000;0.4640;1.0257;
846.0000;0.4615;1.0140;
846.3000;0.4615;1.0187;
846.6000;0.4624;1.0210;
846.9000;0.4632;1.0351;
847.2000;0.4607;1.0210;
847.5000;0.4615;1.0257;
847.8000;0.4640;1.0234;
848.1000;0.4599;1.0116;
848.4000;0.4672;1.0351;
848.7000;0.4656;1.0304;
849.0000;0.4575;1.0140;
849.3000;0.4632;1.0328;
849.6000;0.4624;1.0304;
849.9000;0.4607;1.0234;
850.2000;0.4640;1.0304;
850.5000;0.4640;1.0304;
850.8000;0.4624;1.0163;
851.1000;0.4624;1.0210;
851.4000;0.4607;1.0140;
851.7000;0.4664;1.0375;
852.0000;0.4615;1.0210;
852.3000;0.4632;1.0187;
852.6000;0.4615;1.0140;
852.9000;0.4599;1.0093;
853.2000;0.4615;1.0163;
853.5000;0.4624;1.0210;
853.8000;0.4656;1.0281;
854.1000;0.4640;1.0351;
854.4000;0.4624;1.0351;
854.7000;0.4575;1.0163;
855.0000;0.4624;1.0234;
855.3000;0.4591;1.0210;
855.6000;0.4599;1.0257;
855.9000;0.4599;1.0187;
856.2000;0.4599;1.0163;
856.5000;0.4681;1.0399;
856.8000;0.4607;1.0140;
857.1000;0.4615;1.0093;
857.4000;0.4607;0.9928;
857.7000;0.4624;1.0022;
858.0000;0.4599;0.9999;
858.3000;0.4648;1.0116;
858.6000;0.4632;1.0093;
858.9000;0.4591;1.0069;
859.2000;0.4599;1.0116;
859.5000;0.4664;1.0281;
859.8000;0.4632;1.0210;
860.1000;0.4567;0.9975;
860.4000;0.4615;1.0069;
860.7000;0.4640;1.0069;
861.0000;0.4632;1.0069;
861.3000;0.4632;1.0140;
861.6000;0.4624;1.0163;
861.9000;0.4599;1.0210;
862.2000;0.4607;1.0140;
862.5000;0.4599;1.0116;
862.8000;0.4591;1.0093;
863.1000;0.4607;1.0140;
863.4000;0.4599;1.0069;
863.7000;0.4607;1.0022;
864.0000;0.4567;1.0069;
864.3000;0.4591;1.0163;
864.6000;0.4664;1.0375;
864.9000;0.4624;1.0257;
865.2000;0.4648;1.0351;
865.5000;0.4591;1.0257;
865.8000;0.4615;1.0304;
866.1000;0.4599;1.0304;
866.4000;0.4591;1.0257;
866.7000;0.4526;1.0069;
867.0000;0.4591;1.0140;
867.3000;0.4607;1.0140;
867.6000;0.4591;1.0093;
867.9000;0.4599;1.0069;
868.2000;0.4599;1.0093;
868.5000;0.4599;1.0140;
868.8000;0.4599;1.0163;
869.1000;0.4624;1.0210;
869.4000;0.4599;1.0163;
869.7000;0.4607;1.0210;
870.0000;0.4607;1.0257;
870.3000;0.4672;1.0469;
870.6000;0.4624;1.0210;
870.9000;0.4599;1.0210;
871.2000;0.4575;1.0116;
871.5000;0.4510;1.0022;
871.8000;0.4558;1.0093;
872.1000;0.4599;1.0187;
872.4000;0.4607;1.0210;
872.7000;0.4583;1.0093;
873.0000;0.4632;1.0187;
873.3000;0.4632;1.0187;
873.6000;0.4599;0.9999;
873.9000;0.4607;0.9999;
874.2000;0.4567;0.9999;
874.5000;0.4591;1.0187;
874.8000;0.4648;1.0304;
875.1000;0.4615;1.0163;
875.4000;0.4575;1.0069;
875.7000;0.4583;1.0022;
876.0000;0.4550;0.9975;
876.3000;0.4583;0.9928;
876.6000;0.4583;0.9928;
876.9000;0.4583;0.9999;
877.2000;0.4591;0.9952;
877.5000;0.4607;0.9952;
877.8000;0.4567;0.9928;
878.1000;0.4575;0.9999;
878.4000;0.4599;1.0022;
878.7000;0.4534;0.9881;
879.0000;0.4575;0.9975;
879.3000;0.4567;1.0046;
879.6000;0.4526;1.0069;
879.9000;0.4607;1.0210;
880.2000;0.4542;1.0140;
880.5000;0.4591;1.0234;
880.8000;0.4567;1.0234;
881.1000;0.4567;1.0257;
881.4000;0.4607;1.0281;
881.7000;0.4599;1.0281;
882.0000;0.4640;1.0257;
882.3000;0.4599;1.0163;
882.6000;0.4575;1.0210;
882.9000;0.4583;1.0140;
883.2000;0.4591;1.0093;
883.5000;0.4591;0.9999;
883.8000;0.4575;0.9975;
884.1000;0.4567;0.9999;
884.4000;0.4591;1.0069;
884.7000;0.4599;1.0116;
885.0000;0.4583;1.0046;
885.3000;0.4583;1.0069;
885.6000;0.4583;1.0069;
885.9000;0.4550;0.9952;
886.2000;0.4615;1.0022;
886.5000;0.4518;0.9881;
886.8000;0.4599;1.0046;
887.1000;0.4567;1.0022;
887.4000;0.4583;0.9952;
887.7000;0.4599;0.9975;
888.0000;0.4583;1.0069;
888.3000;0.4567;1.0187;
888.6000;0.4575;1.0328;
888.9000;0.4567;1.0375;
889.2000;0.4575;1.0375;
889.5000;0.4599;1.0399;
889.8000;0.4558;1.0281;
890.1000;0.4558;1.0281;
890.4000;0.4567;1.0281;
890.7000;0.4583;1.0281;
891.0000;0.4558;1.0257;
891.3000;0.4575;1.0304;
891.6000;0.4567;1.0281;
891.9000;0.4583;1.0375;
892.2000;0.4542;1.0281;
892.5000;0.4558;1.0304;
892.8000;0.4567;1.0304;
893.1000;0.4591;1.0328;
893.4000;0.4567;1.0304;
893.7000;0.4591;1.0234;
894.0000;0.4567;1.0187;
894.3000;0.4567;1.0234;
894.6000;0.4550;1.0187;
894.9000;0.4583;1.0093;
895.2000;0.4591;1.0046;
895.5000;0.4599;1.0140;
895.8000;0.4550;0.9999;
896.1000;0.4550;1.0116;
896.4000;0.4550;1.0210;
896.7000;0.4591;1.0281;
897.0000;0.4567;1.0257;
897.3000;0.4575;1.0304;
897.6000;0.4567;1.0234;
897.9000;0.4575;1.0187;
898.2000;0.4550;1.0140;
898.5000;0.4558;1.0093;
898.8000;0.4583;1.0163;
899.1000;0.4599;1.0234;
899.4000;0.4534;0.9999;
899.7000;0.4558;1.0022;
900.0000;0.4567;0.9952;
900.3000;0.4567;1.0022;
900.6000;0.4575;0.9999;
900.9000;0.4558;1.0046;
901.2000;0.4575;0.9999;
901.5000;0.4599;1.0187;
901.8000;0.4583;1.0140;
902.1000;0.4591;1.0140;
902.4000;0.4558;1.0163;
902.7000;0.4567;1.0140;
903.0000;0.4591;1.0140;
903.3000;0.4567;1.0069;
903.6000;0.4575;1.0116;
903.9000;0.4542;0.9999;
904.2000;0.4575;1.0093;
904.5000;0.4526;0.9999;
904.8000;0.4599;1.0093;
905.1000;0.4542;0.9975;
905.4000;0.4567;1.0022;
905.7000;0.4583;1.0069;
906.0000;0.4583;1.0022;
906.3000;0.4558;0.9999;
906.6000;0.4583;0.9928;
906.9000;0.4558;0.9834;
907.2000;0.4575;0.9904;
907.5000;0.4567;0.9857;
907.8000;0.4591;1.0022;
908.1000;0.4558;0.9952;
908.4000;0.4583;0.9952;
908.7000;0.4567;0.9952;
909.0000;0.4583;0.9975;
909.3000;0.4567;0.9975;
909.6000;0.4567;1.0022;
909.9000;0.4615;1.0116;
910.2000;0.4558;0.9999;
910.5000;0.4575;0.9999;
910.8000;0.4583;1.0069;
911.1000;0.4550;1.0069;
911.4000;0.4575;1.0163;
911.7000;0.4567;1.0093;
912.0000;0.4583;1.0116;
912.3000;0.4591;1.0116;
912.6000;0.4558;0.9999;
912.9000;0.4575;0.9975;
913.2000;0.4591;1.0022;
913.5000;0.4558;0.9952;
913.8000;0.4542;0.9975;
914.1000;0.4558;1.0046;
914.4000;0.4558;1.0187;
914.7000;0.4542;1.0046;
915.0000;0.4558;1.0116;
915.3000;0.4518;1.0022;
915.6000;0.4558;1.0187;
915.9000;0.4575;1.0116;
916.2000;0.4558;1.0046;
916.5000;0.4558;0.9952;
916.8000;0.4591;1.0022;
917.1000;0.4583;1.0093;
917.4000;0.4567;1.0163;
917.7000;0.4567;1.0140;
918.0000;0.4501;0.9975;
918.3000;0.4558;1.0140;
918.6000;0.4558;1.0257;
918.9000;0.4558;1.0328;
919.2000;0.4550;1.0257;
919.5000;0.4550;1.0210;
919.8000;0.4550;1.0257;
920.1000;0.4558;1.0234;
920.4000;0.4550;1.0234;
920.7000;0.4550;1.0140;
921.0000;0.4542;1.0093;
921.3000;0.4558;1.0140;
921.6000;0.4550;1.0093;
921.9000;0.4575;1.0093;
922.2000;0.4558;1.0116;
922.5000;0.4583;1.0022;
922.8000;0.4550;0.9952;
923.1000;0.4575;1.0022;
923.4000;0.4558;1.0022;
923.7000;0.4567;1.0069;
924.0000;0.4534;0.9952;
924.3000;0.4558;0.9999;
924.6000;0.4558;0.9999;
924.9000;0.4534;0.9975;
925.2000;0.4526;1.0069;
925.5000;0.4526;1.0140;
925.8000;0.4558;1.0140;
926.1000;0.4558;1.0116;
926.4000;0.4567;0.9975;
926.7000;0.4567;0.9975;
927.0000;0.4575;1.0046;
927.3000;0.4567;1.0093;
927.6000;0.4558;1.0140;
927.9000;0.4534;1.0116;
928.2000;0.4542;1.0140;
928.5000;0.4558;1.0187;
928.8000;0.4542;1.0093;
929.1000;0.4550;1.0140;
929.4000;0.4567;1.0163;
929.7000;0.4558;1.0116;
930.0000;0.4583;1.0116;
930.3000;0.4550;1.0046;
930.6000;0.4542;1.0069;
930.9000;0.4583;1.0140;
931.2000;0.4558;1.0116;
931.5000;0.4558;1.0069;
931.8000;0.4550;1.0093;
932.1000;0.4526;1.0046;
932.4000;0.4542;1.0116;
932.7000;0.4550;1.0093;
933.0000;0.4583;1.0116;
933.3000;0.4542;1.0046;
933.6000;0.4558;1.0069;
933.9000;0.4526;1.0093;
934.2000;0.4518;1.0046;
934.5000;0.4542;1.0093;
934.8000;0.4542;1.0093;
935.1000;0.4518;0.9999;
935.4000;0.4542;1.0022;
935.7000;0.4542;0.9999;
936.0000;0.4518;0.9975;
936.3000;0.4550;1.0022;
936.6000;0.4534;0.9928;
936.9000;0.4632;1.0234;
937.2000;0.4550;1.0069;
937.5000;0.4558;1.0022;
937.8000;0.4542;0.9999;
938.1000;0.4558;1.0022;
938.4000;0.4542;1.0093;
938.7000;0.4567;1.0210;
939.0000;0.4567;1.0234;
939.3000;0.4542;1.0257;
939.6000;0.4518;1.0163;
939.9000;0.4558;1.0187;
940.2000;0.4632;1.0328;
940.5000;0.4550;1.0093;
940.8000;0.4534;0.9999;
941.1000;0.4558;1.0140;
941.4000;0.4542;1.0116;
941.7000;0.4534;1.0046;
942.0000;0.4526;0.9952;
942.3000;0.4550;1.0022;
942.6000;0.4534;1.0046;
942.9000;0.4542;1.0069;
943.2000;0.4526;1.0093;
943.5000;0.4534;1.0163;
943.8000;0.4558;1.0187;
944.1000;0.4550;1.0210;
944.4000;0.4550;1.0163;
944.7000;0.4550;1.0093;
945.0000;0.4550;0.9975;
945.3000;0.4558;1.0022;
945.6000;0.4542;0.9999;
945.9000;0.4526;1.0069;
946.2000;0.4567;1.0234;
946.5000;0.4501;0.9952;
946.8000;0.4567;1.0210;
947.1000;0.4485;0.9999;
947.4000;0.4526;1.0116;
947.7000;0.4542;1.0210;
948.0000;0.4534;1.0116;
948.3000;0.4542;1.0116;
948.6000;0.4518;1.0093;
948.9000;0.4550;1.0140;
949.2000;0.4518;1.0069;
949.5000;0.4550;1.0234;
949.8000;0.4542;1.0140;
950.1000;0.4542;1.0210;
950.4000;0.4526;1.0281;
950.7000;0.4575;1.0351;
951.0000;0.4534;1.0210;
951.3000;0.4518;1.0022;
951.6000;0.4510;1.0022;
951.9000;0.4550;1.0069;
952.2000;0.4534;0.9975;
952.5000;0.4567;1.0093;
952.8000;0.4526;0.9928;
953.1000;0.4469;0.9881;
953.4000;0.4534;0.9999;
953.7000;0.4542;1.0022;
954.0000;0.4542;0.9999;
954.3000;0.4550;1.0046;
954.6000;0.4550;1.0093;
954.9000;0.4615;1.0281;
955.2000;0.4534;1.0093;
955.5000;0.4583;1.0163;
955.8000;0.4526;1.0022;
956.1000;0.4534;1.0069;
956.4000;0.4542;1.0046;
956.7000;0.4567;1.0046;
957.0000;0.4550;0.9999;
957.3000;0.4534;1.0022;
957.6000;0.4542;0.9999;
957.9000;0.4599;1.0234;
958.2000;0.4575;1.0210;
958.5000;0.4493;0.9999;
958.8000;0.4550;1.0116;
959.1000;0.4550;1.0116;
959.4000;0.4534;1.0140;
959.7000;0.4534;1.0116;
960.0000;0.4526;1.0093;
960.3000;0.4526;1.0046;
960.6000;0.4550;1.0069;
960.9000;0.4542;1.0093;
961.2000;0.4534;1.0116;
961.5000;0.4526;1.0163;
961.8000;0.4558;1.0328;
962.1000;0.4501;1.0234;
962.4000;0.4469;1.0069;
962.7000;0.4526;1.0116;
963.0000;0.4526;1.0187;
963.3000;0.4542;1.0187;
963.6000;0.4534;1.0210;
963.9000;0.4510;1.0046;
964.2000;0.4550;1.0187;
964.5000;0.4534;1.0140;
964.8000;0.4534;1.0093;
965.1000;0.4518;1.0046;
965.4000;0.4526;0.9952;
965.7000;0.4542;0.9928;
966.0000;0.4550;0.9928;
966.3000;0.4599;1.0046;
966.6000;0.4534;0.9975;
966.9000;0.4428;0.9810;
967.2000;0.4501;1.0140;
967.5000;0.4534;1.0187;
967.8000;0.4526;1.0163;
968.1000;0.4542;1.0163;
968.4000;0.4501;1.0046;
968.7000;0.4542;1.0069;
969.0000;0.4534;1.0093;
969.3000;0.4550;1.0093;
969.6000;0.4558;1.0140;
969.9000;0.4550;1.0304;
970.2000;0.4485;1.0163;
970.5000;0.4542;1.0328;
970.8000;0.4518;1.0281;
971.1000;0.4558;1.0399;
971.4000;0.4558;1.0328;
971.7000;0.4518;1.0210;
972.0000;0.4518;1.0187;
972.3000;0.4518;1.0210;
972.6000;0.4518;1.0257;
972.9000;0.4526;1.0210;
973.2000;0.4526;1.0210;
973.5000;0.4542;1.0234;
973.8000;0.4542;1.0234;
974.1000;0.4526;1.0234;
974.4000;0.4526;1.0210;
974.7000;0.4485;1.0046;
975.0000;0.4501;1.0069;
975.3000;0.4526;1.0257;
975.6000;0.4567;1.0422;
975.9000;0.4518;1.0375;
976.2000;0.4534;1.0351;
976.5000;0.4493;1.0187;
976.8000;0.4510;1.0163;
977.1000;0.4534;1.0187;
977.4000;0.4510;1.0093;
977.7000;0.4526;1.0093;
978.0000;0.4518;1.0187;
978.3000;0.4518;1.0210;
978.6000;0.4558;1.0328;
978.9000;0.4526;1.0304;
979.2000;0.4526;1.0351;
979.5000;0.4575;1.0469;
979.8000;0.4526;1.0281;
980.1000;0.4518;1.0234;
980.4000;0.4518;1.0210;
980.7000;0.4518;1.0163;
981.0000;0.4526;1.0234;
981.3000;0.4534;1.0257;
981.6000;0.4567;1.0351;
981.9000;0.4567;1.0281;
982.2000;0.4501;1.0257;
982.5000;0.4542;1.0375;
982.8000;0.4510;1.0328;
983.1000;0.4501;1.0304;
983.4000;0.4510;1.0351;
983.7000;0.4542;1.0351;
984.0000;0.4542;1.0234;
984.3000;0.4510;1.0046;
984.6000;0.4526;1.0116;
984.9000;0.4501;0.9999;
985.2000;0.4518;1.0069;
985.5000;0.4526;1.0046;
985.8000;0.4542;1.0163;
986.1000;0.4477;1.0046;
986.4000;0.4526;1.0116;
986.7000;0.4591;1.0304;
987.0000;0.4518;1.0140;
987.3000;0.4534;1.0140;
987.6000;0.4534;1.0046;
987.9000;0.4542;1.0093;
988.2000;0.4501;1.0069;
988.5000;0.4501;1.0093;
988.8000;0.4534;1.0046;
989.1000;0.4542;0.9999;
989.4000;0.4575;0.9999;
989.7000;0.4534;0.9928;
990.0000;0.4542;0.9952;
990.3000;0.4534;0.9857;
990.6000;0.4518;0.9952;
990.9000;0.4583;1.0234;
991.2000;0.4518;1.0140;
991.5000;0.4518;1.0210;
991.8000;0.4518;1.0187;
992.1000;0.4534;1.0210;
992.4000;0.4518;1.0187;
992.7000;0.4526;1.0375;
993.0000;0.4534;1.0351;
993.3000;0.4518;1.0116;
993.6000;0.4542;1.0257;
993.9000;0.4510;1.0210;
994.2000;0.4518;1.0328;
994.5000;0.4518;1.0328;
994.8000;0.4526;1.0328;
995.1000;0.4526;1.0328;
995.4000;0.4526;1.0399;
995.7000;0.4510;1.0399;
996.0000;0.4534;1.0304;
996.3000;0.4477;1.0234;
996.6000;0.4526;1.0351;
996.9000;0.4485;1.0210;
997.2000;0.4510;1.0234;
997.5000;0.4534;1.0304;
997.8000;0.4510;1.0187;
998.1000;0.4510;1.0093;
998.4000;0.4518;1.0163;
998.7000;0.4518;1.0163;
999.0000;0.4558;1.0351;
999.3000;0.4501;1.0187;
999.6000;0.4526;1.0210;
999.9000;0.4510;1.0140;
1000.2000;0.4534;1.0187;
1000.5000;0.4518;1.0210;
1000.8000;0.4518;1.0140;
1001.1000;0.4526;1.0210;
1001.4000;0.4542;1.0281;
1001.7000;0.4542;1.0304;
1002.0000;0.4518;1.0281;
1002.3000;0.4501;1.0140;
1002.6000;0.4501;1.0140;
1002.9000;0.4534;1.0140;
1003.2000;0.4534;1.0069;
1003.5000;0.4542;1.0093;
1003.8000;0.4518;1.0093;
1004.1000;0.4510;1.0093;
1004.4000;0.4510;1.0116;
1004.7000;0.4534;1.0187;
1005.0000;0.4591;1.0422;
1005.3000;0.4493;1.0187;
1005.6000;0.4526;1.0187;
1005.9000;0.4518;1.0046;
1006.2000;0.4526;1.0140;
1006.5000;0.4518;1.0187;
1006.8000;0.4510;1.0187;
1007.1000;0.4534;1.0257;
1007.4000;0.4542;1.0399;
1007.7000;0.4542;1.0422;
1008.0000;0.4501;1.0351;
1008.3000;0.4518;1.0351;
1008.6000;0.4493;1.0234;
1008.9000;0.4501;1.0351;
1009.2000;0.4526;1.0375;
1009.5000;0.4518;1.0399;
1009.8000;0.4534;1.0469;
1010.1000;0.4534;1.0469;
1010.4000;0.4558;1.0516;
1010.7000;0.4575;1.0422;
1011.0000;0.4493;1.0163;
1011.3000;0.4583;1.0375;
1011.6000;0.4510;1.0116;
1011.9000;0.4501;1.0163;
1012.2000;0.4493;1.0210;
1012.5000;0.4501;1.0234;
1012.8000;0.4518;1.0281;
1013.1000;0.4575;1.0375;
1013.4000;0.4501;1.0257;
1013.7000;0.4485;1.0116;
1014.0000;0.4542;1.0257;
1014.3000;0.4526;1.0210;
1014.6000;0.4518;1.0140;
1014.9000;0.4542;1.0234;
1015.2000;0.4510;1.0210;
1015.5000;0.4526;1.0351;
1015.8000;0.4534;1.0375;
1016.1000;0.4526;1.0328;
1016.4000;0.4526;1.0328;
1016.7000;0.4534;1.0281;
1017.0000;0.4534;1.0375;
1017.3000;0.4518;1.0328;
1017.6000;0.4510;1.0351;
1017.9000;0.4518;1.0351;
1018.2000;0.4526;1.0375;
1018.5000;0.4526;1.0328;
1018.8000;0.4567;1.0446;
1019.1000;0.4518;1.0399;
1019.4000;0.4477;1.0304;
1019.7000;0.4518;1.0399;
1020.0000;0.4526;1.0375;
1020.3000;0.4404;1.0116;
1020.6000;0.4518;1.0422;
1020.9000;0.4518;1.0493;
1021.2000;0.4518;1.0446;
1021.5000;0.4510;1.0516;
1021.8000;0.4510;1.0516;
1022.1000;0.4510;1.0610;
1022.4000;0.4542;1.0634;
1022.7000;0.4501;1.0469;
1023.0000;0.4542;1.0540;
1023.3000;0.4526;1.0469;
1023.6000;0.4510;1.0446;
1023.9000;0.4485;1.0469;
1024.2000;0.4493;1.0516;
1024.5000;0.4534;1.0587;
1024.8000;0.4526;1.0516;
1025.1000;0.4501;1.0351;
1025.4000;0.4518;1.0375;
1025.7000;0.4526;1.0446;
1026.0000;0.4567;1.0516;
1026.3000;0.4526;1.0469;
1026.6000;0.4501;1.0516;
1026.9000;0.4526;1.0540;
1027.2000;0.4510;1.0493;
1027.5000;0.4591;1.0704;
1027.8000;0.4510;1.0563;
1028.1000;0.4518;1.0540;
1028.4000;0.4510;1.0493;
1028.7000;0.4518;1.0493;
1029.0000;0.4501;1.0540;
1029.3000;0.4518;1.0516;
1029.6000;0.4526;1.0563;
1029.9000;0.4510;1.0469;
1030.2000;0.4526;1.0469;
1030.5000;0.4526;1.0446;
1030.8000;0.4493;1.0375;
1031.1000;0.4510;1.0422;
1031.4000;0.4510;1.0540;
1031.7000;0.4469;1.0422;
1032.0000;0.4518;1.0516;
1032.3000;0.4510;1.0493;
1032.6000;0.4518;1.0493;
1032.9000;0.4501;1.0422;
1033.2000;0.4501;1.0469;
1033.5000;0.4510;1.0516;
1033.8000;0.4518;1.0587;
1034.1000;0.4501;1.0516;
1034.4000;0.4436;1.0375;
1034.7000;0.4501;1.0540;
1035.0000;0.4444;1.0304;
1035.3000;0.4501;1.0469;
1035.6000;0.4501;1.0540;
1035.9000;0.4518;1.0587;
1036.2000;0.4518;1.0540;
1036.5000;0.4542;1.0610;
1036.8000;0.4510;1.0493;
1037.1000;0.4526;1.0540;
1037.4000;0.4518;1.0493;
1037.7000;0.4534;1.0469;
1038.0000;0.4493;1.0399;
1038.3000;0.4493;1.0375;
1038.6000;0.4526;1.0446;
1038.9000;0.4510;1.0351;
1039.2000;0.4501;1.0234;
1039.5000;0.4493;1.0281;
1039.8000;0.4518;1.0399;
1040.1000;0.4510;1.0281;
1040.4000;0.4444;1.0116;
1040.7000;0.4493;1.0234;
1041.0000;0.4518;1.0328;
1041.3000;0.4518;1.0375;
1041.6000;0.4501;1.0281;
1041.9000;0.4510;1.0281;
1042.2000;0.4518;1.0351;
1042.5000;0.4493;1.0304;
1042.8000;0.4510;1.0399;
1043.1000;0.4510;1.0257;
1043.4000;0.4575;1.0351;
1043.7000;0.4534;1.0257;
1044.0000;0.4518;1.0210;
1044.3000;0.4493;1.0140;
1044.6000;0.4534;1.0281;
1044.9000;0.4501;1.0163;
1045.2000;0.4510;1.0328;
1045.5000;0.4501;1.0304;
1045.8000;0.4493;1.0351;
1046.1000;0.4518;1.0304;
1046.4000;0.4501;1.0328;
1046.7000;0.4510;1.0375;
1047.0000;0.4501;1.0304;
1047.3000;0.4501;1.0351;
1047.6000;0.4518;1.0328;
1047.9000;0.4518;1.0399;
1048.2000;0.4493;1.0375;
1048.5000;0.4518;1.0422;
1048.8000;0.4518;1.0422;
1049.1000;0.4510;1.0375;
1049.4000;0.4501;1.0351;
1049.7000;0.4501;1.0399;
1050.0000;0.4420;1.0140;
1050.3000;0.4493;1.0351;
1050.6000;0.4485;1.0257;
1050.9000;0.4461;1.0187;
1051.2000;0.4461;1.0163;
1051.5000;0.4493;1.0210;
1051.8000;0.4485;1.0210;
1052.1000;0.4493;1.0210;
1052.4000;0.4510;1.0187;
1052.7000;0.4501;1.0210;
1053.0000;0.4510;1.0281;
1053.3000;0.4501;1.0328;
1053.6000;0.4469;1.0304;
1053.9000;0.4510;1.0375;
1054.2000;0.4501;1.0234;
1054.5000;0.4518;1.0140;
1054.8000;0.4493;1.0116;
1055.1000;0.4501;1.0187;
1055.4000;0.4493;1.0281;
1055.7000;0.4493;1.0257;
1056.0000;0.4510;1.0351;
1056.3000;0.4510;1.0328;
1056.6000;0.4501;1.0351;
1056.9000;0.4485;1.0257;
1057.2000;0.4510;1.0281;
1057.5000;0.4518;1.0187;
1057.8000;0.4510;1.0234;
1058.1000;0.4501;1.0328;
1058.4000;0.4501;1.0375;
1058.7000;0.4485;1.0304;
1059.0000;0.4493;1.0375;
1059.3000;0.4428;1.0210;
1059.6000;0.4493;1.0399;
1059.9000;0.4510;1.0469;
1060.2000;0.4501;1.0399;
1060.5000;0.4510;1.0351;
1060.8000;0.4550;1.0469;
1061.1000;0.4501;1.0328;
1061.4000;0.4404;0.9999;
1061.7000;0.4518;1.0281;
1062.0000;0.4510;1.0304;
1062.3000;0.4518;1.0257;
1062.6000;0.4420;1.0069;
1062.9000;0.4534;1.0328;
1063.2000;0.4518;1.0304;
1063.5000;0.4510;1.0304;
1063.8000;0.4501;1.0446;
1064.1000;0.4493;1.0493;
1064.4000;0.4461;1.0304;
1064.7000;0.4501;1.0516;
1065.0000;0.4485;1.0446;
1065.3000;0.4493;1.0446;
1065.6000;0.4526;1.0493;
1065.9000;0.4510;1.0469;
1066.2000;0.4477;1.0375;
1066.5000;0.4396;1.0163;
1066.8000;0.4493;1.0469;
1067.1000;0.4526;1.0469;
1067.4000;0.4493;1.0375;
1067.7000;0.4493;1.0422;
1068.0000;0.4469;1.0328;
1068.3000;0.4510;1.0446;
1068.6000;0.4501;1.0399;
1068.9000;0.4493;1.0328;
1069.2000;0.4526;1.0446;
1069.5000;0.4510;1.0469;
1069.8000;0.4477;1.0351;
1070.1000;0.4501;1.0351;
1070.4000;0.4510;1.0351;
1070.7000;0.4493;1.0281;
1071.0000;0.4469;1.0187;
1071.3000;0.4493;1.0257;
1071.6000;0.4542;1.0351;
1071.9000;0.4501;1.0234;
1072.2000;0.4501;1.0257;
1072.5000;0.4510;1.0257;
1072.8000;0.4510;1.0328;
1073.1000;0.4493;1.0163;
1073.4000;0.4518;1.0304;
1073.7000;0.4501;1.0257;
1074.0000;0.4493;1.0328;
1074.3000;0.4477;1.0328;
1074.6000;0.4501;1.0375;
1074.9000;0.4477;1.0304;
1075.2000;0.4485;1.0281;
1075.5000;0.4477;1.0328;
1075.8000;0.4501;1.0399;
1076.1000;0.4461;1.0351;
1076.4000;0.4501;1.0446;
1076.7000;0.4567;1.0657;
1077.0000;0.4501;1.0516;
1077.3000;0.4534;1.0446;
1077.6000;0.4493;1.0328;
1077.9000;0.4485;1.0304;
1078.2000;0.4510;1.0375;
1078.5000;0.4501;1.0304;
1078.8000;0.4518;1.0328;
1079.1000;0.4501;1.0304;
1079.4000;0.4501;1.0328;
1079.7000;0.4493;1.0304;
1080.0000;0.4591;1.0540;
1080.3000;0.4534;1.0399;
1080.6000;0.4510;1.0328;
1080.9000;0.4493;1.0257;
1081.2000;0.4526;1.0257;
1081.5000;0.4485;1.0257;
1081.8000;0.4518;1.0257;
1082.1000;0.4542;1.0351;
1082.4000;0.4501;1.0234;
1082.7000;0.4485;1.0234;
1083.0000;0.4575;1.0351;
1083.3000;0.4461;1.0022;
1083.6000;0.4510;1.0116;
1083.9000;0.4493;1.0163;
1084.2000;0.4493;1.0093;
1084.5000;0.4510;1.0257;
1084.8000;0.4501;1.0328;
1085.1000;0.4501;1.0304;
1085.4000;0.4436;1.0046;
1085.7000;0.4493;1.0163;
1086.0000;0.4493;1.0140;
1086.3000;0.4510;1.0069;
1086.6000;0.4501;1.0046;
1086.9000;0.4510;1.0046;
1087.2000;0.4493;1.0093;
1087.5000;0.4501;1.0093;
1087.8000;0.4510;1.0163;
1088.1000;0.4518;1.0163;
1088.4000;0.4510;1.0163;
1088.7000;0.4493;1.0116;
1089.0000;0.4518;1.0163;
1089.3000;0.4501;1.0069;
1089.6000;0.4501;1.0069;
1089.9000;0.4534;1.0163;
1090.2000;0.4493;1.0116;
1090.5000;0.4485;1.0093;
1090.8000;0.4485;1.0163;
1091.1000;0.4518;1.0210;
1091.4000;0.4477;1.0140;
1091.7000;0.4493;1.0116;
1092.0000;0.4453;1.0046;
1092.3000;0.4501;1.0187;
1092.6000;0.4485;1.0116;
1092.9000;0.4477;1.0140;
1093.2000;0.4469;1.0046;
1093.5000;0.4518;1.0140;
1093.8000;0.4501;1.0187;
1094.1000;0.4510;1.0281;
1094.4000;0.4485;1.0281;
1094.7000;0.4493;1.0257;
1095.0000;0.4501;1.0210;
1095.3000;0.4485;1.0187;
1095.6000;0.4493;1.0116;
1095.9000;0.4493;1.0069;
1096.2000;0.4469;1.0069;
1096.5000;0.4444;1.0046;
1096.8000;0.4493;1.0210;
1097.1000;0.4501;1.0234;
1097.4000;0.4469;1.0210;
1097.7000;0.4501;1.0399;
1098.0000;0.4501;1.0281;
1098.3000;0.4485;1.0187;
1098.6000;0.4477;1.0187;
1098.9000;0.4477;1.0210;
1099.2000;0.4501;1.0328;
1099.5000;0.4493;1.0234;
1099.8000;0.4510;1.0328;
1100.1000;0.4501;1.0281;
1100.4000;0.4485;1.0163;
1100.7000;0.4477;1.0187;
1101.0000;0.4461;1.0257;
1101.3000;0.4485;1.0328;
1101.6000;0.4501;1.0281;
1101.9000;0.4493;1.0281;
1102.2000;0.4444;1.0187;
1102.5000;0.4493;1.0375;
1102.8000;0.4493;1.0375;
1103.1000;0.4501;1.0375;
1103.4000;0.4444;1.0234;
1103.7000;0.4510;1.0304;
1104.0000;0.4510;1.0257;
1104.3000;0.4501;1.0187;
1104.6000;0.4493;1.0163;
1104.9000;0.4510;1.0234;
1105.2000;0.4493;1.0257;
1105.5000;0.4493;1.0281;
1105.8000;0.4493;1.0234;
1106.1000;0.4542;1.0304;
1106.4000;0.4493;1.0163;
1106.7000;0.4485;1.0234;
1107.0000;0.4477;1.0304;
1107.3000;0.4469;1.0328;
1107.6000;0.4485;1.0422;
1107.9000;0.4501;1.0422;
1108.2000;0.4485;1.0304;
1108.5000;0.4493;1.0375;
1108.8000;0.4501;1.0399;
1109.1000;0.4493;1.0422;
1109.4000;0.4501;1.0469;
1109.7000;0.4477;1.0493;
1110.0000;0.4485;1.0422;
1110.3000;0.4510;1.0446;
1110.6000;0.4510;1.0281;
1110.9000;0.4469;1.0234;
1111.2000;0.4493;1.0328;
1111.5000;0.4493;1.0328;
1111.8000;0.4485;1.0304;
1112.1000;0.4485;1.0351;
1112.4000;0.4493;1.0375;
1112.7000;0.4453;1.0281;
1113.0000;0.4493;1.0399;
1113.3000;0.4485;1.0375;
1113.6000;0.4501;1.0375;
1113.9000;0.4493;1.0399;
1114.2000;0.4501;1.0446;
1114.5000;0.4510;1.0563;
1114.8000;0.4510;1.0446;
1115.1000;0.4510;1.0540;
1115.4000;0.4501;1.0516;
1115.7000;0.4510;1.0563;
1116.0000;0.4501;1.0516;
1116.3000;0.4501;1.0540;
1116.6000;0.4485;1.0375;
1116.9000;0.4558;1.0610;
1117.2000;0.4501;1.0399;
1117.5000;0.4485;1.0351;
1117.8000;0.4493;1.0422;
1118.1000;0.4510;1.0493;
1118.4000;0.4526;1.0422;
1118.7000;0.4493;1.0422;
1119.0000;0.4493;1.0399;
1119.3000;0.4501;1.0375;
1119.6000;0.4534;1.0399;
1119.9000;0.4542;1.0399;
1120.2000;0.4493;1.0257;
1120.5000;0.4453;1.0234;
1120.8000;0.4485;1.0375;
1121.1000;0.4428;1.0187;
1121.4000;0.4501;1.0422;
1121.7000;0.4501;1.0469;
1122.0000;0.4469;1.0399;
1122.3000;0.4493;1.0351;
1122.6000;0.4485;1.0304;
1122.9000;0.4493;1.0422;
1123.2000;0.4510;1.0422;
1123.5000;0.4518;1.0399;
1123.8000;0.4501;1.0422;
1124.1000;0.4501;1.0422;
1124.4000;0.4493;1.0422;
1124.7000;0.4493;1.0351;
1125.0000;0.4534;1.0469;
1125.3000;0.4485;1.0351;
1125.6000;0.4493;1.0446;
1125.9000;0.4493;1.0540;
1126.2000;0.4477;1.0469;
1126.5000;0.4493;1.0587;
1126.8000;0.4501;1.0610;
1127.1000;0.4526;1.0681;
1127.4000;0.4428;1.0563;
1127.7000;0.4493;1.0634;
1128.0000;0.4501;1.0540;
1128.3000;0.4461;1.0469;
1128.6000;0.4485;1.0610;
1128.9000;0.4485;1.0516;
1129.2000;0.4493;1.0469;
1129.5000;0.4518;1.0493;
1129.8000;0.4493;1.0446;
1130.1000;0.4493;1.0469;
1130.4000;0.4477;1.0422;
1130.7000;0.4510;1.0540;
1131.0000;0.4510;1.0681;
1131.3000;0.4477;1.0587;
1131.6000;0.4493;1.0610;
1131.9000;0.4485;1.0610;
1132.2000;0.4501;1.0610;
1132.5000;0.4485;1.0587;
1132.8000;0.4461;1.0516;
1133.1000;0.4510;1.0610;
1133.4000;0.4493;1.0728;
1133.7000;0.4485;1.0728;
1134.0000;0.4477;1.0704;
1134.3000;0.4510;1.0681;
1134.6000;0.4485;1.0610;
1134.9000;0.4461;1.0563;
1135.2000;0.4485;1.0681;
1135.5000;0.4469;1.0563;
1135.8000;0.4510;1.0634;
1136.1000;0.4461;1.0516;
1136.4000;0.4477;1.0516;
1136.7000;0.4485;1.0540;
1137.0000;0.4469;1.0563;
1137.3000;0.4477;1.0563;
1137.6000;0.4477;1.0563;
1137.9000;0.4518;1.0681;
1138.2000;0.4477;1.0516;
1138.5000;0.4493;1.0493;
1138.8000;0.4510;1.0399;
1139.1000;0.4453;1.0304;
1139.4000;0.4501;1.0281;
1139.7000;0.4518;1.0234;
1140.0000;0.4501;1.0257;
1140.3000;0.4461;1.0210;
1140.6000;0.4493;1.0234;
1140.9000;0.4501;1.0281;
1141.2000;0.4518;1.0257;
1141.5000;0.4453;1.0093;
1141.8000;0.4485;1.0187;
1142.1000;0.4534;1.0399;
1142.4000;0.4599;1.0540;
1142.7000;0.4469;1.0210;
1143.0000;0.4428;1.0140;
1143.3000;0.4477;1.0446;
1143.6000;0.4501;1.0587;
1143.9000;0.4485;1.0587;
1144.2000;0.4542;1.0798;
1144.5000;0.4493;1.0681;
1144.8000;0.4469;1.0563;
1145.1000;0.4477;1.0516;
1145.4000;0.4477;1.0493;
1145.7000;0.4485;1.0399;
1146.0000;0.4469;1.0399;
1146.3000;0.4485;1.0446;
1146.6000;0.4485;1.0422;
1146.9000;0.4493;1.0446;
1147.2000;0.4469;1.0399;
1147.5000;0.4501;1.0446;
1147.8000;0.4501;1.0469;
1148.1000;0.4510;1.0516;
1148.4000;0.4493;1.0469;
1148.7000;0.4501;1.0516;
1149.0000;0.4501;1.0563;
1149.3000;0.4575;1.0798;
1149.6000;0.4436;1.0422;
1149.9000;0.4469;1.0399;
1150.2000;0.4501;1.0422;
1150.5000;0.4477;1.0422;
1150.8000;0.4501;1.0446;
1151.1000;0.4501;1.0469;
1151.4000;0.4493;1.0610;
1151.7000;0.4469;1.0516;
1152.0000;0.4485;1.0493;
1152.3000;0.4485;1.0516;
1152.6000;0.4477;1.0469;
1152.9000;0.4477;1.0399;
1153.2000;0.4477;1.0422;
1153.5000;0.4420;1.0234;
1153.8000;0.4501;1.0328;
1154.1000;0.4461;1.0304;
1154.4000;0.4501;1.0422;
1154.7000;0.4501;1.0516;
1155.0000;0.4477;1.0399;
1155.3000;0.4485;1.0446;
1155.6000;0.4501;1.0469;
1155.9000;0.4453;1.0399;
1156.2000;0.4469;1.0351;
1156.5000;0.4550;1.0540;
1156.8000;0.4477;1.0375;
1157.1000;0.4477;1.0399;
1157.4000;0.4493;1.0399;
1157.7000;0.4493;1.0399;
1158.0000;0.4501;1.0399;
1158.3000;0.4485;1.0351;
1158.6000;0.4477;1.0328;
1158.9000;0.4485;1.0210;
1159.2000;0.4469;1.0234;
1159.5000;0.4510;1.0351;
1159.8000;0.4485;1.0281;
1160.1000;0.4510;1.0399;
1160.4000;0.4469;1.0375;
1160.7000;0.4461;1.0304;
1161.0000;0.4493;1.0351;
1161.3000;0.4493;1.0351;
1161.6000;0.4510;1.0304;
1161.9000;0.4510;1.0351;
1162.2000;0.4501;1.0446;
1162.5000;0.4501;1.0446;
1162.8000;0.4518;1.0469;
1163.1000;0.4526;1.0469;
1163.4000;0.4469;1.0304;
1163.7000;0.4493;1.0375;
1164.0000;0.4485;1.0399;
1164.3000;0.4493;1.0328;
1164.6000;0.4493;1.0304;
1164.9000;0.4477;1.0304;
1165.2000;0.4477;1.0399;
1165.5000;0.4461;1.0375;
1165.8000;0.4485;1.0422;
1166.1000;0.4461;1.0375;
1166.4000;0.4477;1.0375;
1166.7000;0.4493;1.0328;
1167.0000;0.4485;1.0304;
1167.3000;0.4469;1.0281;
1167.6000;0.4493;1.0328;
1167.9000;0.4485;1.0304;
1168.2000;0.4485;1.0375;
1168.5000;0.4477;1.0375;
1168.8000;0.4501;1.0399;
1169.1000;0.4501;1.0399;
1169.4000;0.4510;1.0516;
1169.7000;0.4477;1.0399;
1170.0000;0.4469;1.0399;
1170.3000;0.4493;1.0399;
1170.6000;0.4501;1.0422;
1170.9000;0.4501;1.0540;
1171.2000;0.4493;1.0540;
1171.5000;0.4493;1.0493;
1171.8000;0.4518;1.0587;
1172.1000;0.4526;1.0587;
1172.4000;0.4493;1.0610;
1172.7000;0.4501;1.0563;
1173.0000;0.4510;1.0728;
1173.3000;0.4510;1.0728;
1173.6000;0.4485;1.0563;
1173.9000;0.4493;1.0493;
1174.2000;0.4477;1.0422;
1174.5000;0.4485;1.0469;
1174.8000;0.4469;1.0446;
1175.1000;0.4493;1.0540;
1175.4000;0.4485;1.0493;
1175.7000;0.4501;1.0493;
1176.0000;0.4469;1.0469;
1176.3000;0.4485;1.0469;
1176.6000;0.4493;1.0540;
1176.9000;0.4542;1.0540;
1177.2000;0.4558;1.0587;
1177.5000;0.4485;1.0446;
1177.8000;0.4485;1.0446;
1178.1000;0.4485;1.0469;
1178.4000;0.4493;1.0469;
1178.7000;0.4485;1.0493;
1179.0000;0.4493;1.0587;
1179.3000;0.4461;1.0493;
1179.6000;0.4485;1.0563;
1179.9000;0.4493;1.0610;
1180.2000;0.4501;1.0610;
1180.5000;0.4526;1.0634;
1180.8000;0.4493;1.0493;
1181.1000;0.4477;1.0469;
1181.4000;0.4469;1.0469;
1181.7000;0.4477;1.0563;
1182.0000;0.4493;1.0446;
1182.3000;0.4485;1.0516;
1182.6000;0.4493;1.0422;
1182.9000;0.4477;1.0375;
1183.2000;0.4510;1.0422;
1183.5000;0.4477;1.0328;
1183.8000;0.4493;1.0446;
1184.1000;0.4485;1.0469;
1184.4000;0.4477;1.0516;
1184.7000;0.4461;1.0493;
1185.0000;0.4453;1.0493;
1185.3000;0.4461;1.0446;
1185.6000;0.4493;1.0493;
1185.9000;0.4428;1.0304;
1186.2000;0.4477;1.0469;
1186.5000;0.4477;1.0540;
1186.8000;0.4493;1.0540;
1187.1000;0.4493;1.0399;
1187.4000;0.4485;1.0328;
1187.7000;0.4469;1.0281;
1188.0000;0.4420;1.0116;
1188.3000;0.4485;1.0257;
1188.6000;0.4493;1.0257;
1188.9000;0.4477;1.0163;
1189.2000;0.4461;1.0187;
1189.5000;0.4453;1.0281;
1189.8000;0.4485;1.0375;
1190.1000;0.4404;1.0140;
1190.4000;0.4477;1.0257;
1190.7000;0.4493;1.0257;
1191.0000;0.4501;1.0375;
1191.3000;0.4501;1.0422;
1191.6000;0.4550;1.0634;
1191.9000;0.4485;1.0469;
1192.2000;0.4477;1.0516;
1192.5000;0.4485;1.0540;
1192.8000;0.4493;1.0563;
1193.1000;0.4510;1.0610;
1193.4000;0.4493;1.0610;
1193.7000;0.4493;1.0681;
1194.0000;0.4501;1.0704;
1194.3000;0.4493;1.0587;
1194.6000;0.4493;1.0563;
1194.9000;0.4485;1.0540;
1195.2000;0.4453;1.0399;
1195.5000;0.4469;1.0493;
1195.8000;0.4493;1.0516;
1196.1000;0.4420;1.0399;
1196.4000;0.4493;1.0493;
1196.7000;0.4485;1.0399;
1197.0000;0.4485;1.0446;
1197.3000;0.4461;1.0446;
1197.6000;0.4469;1.0422;
1197.9000;0.4501;1.0469;
1198.2000;0.4404;1.0210;
1198.5000;0.4477;1.0351;
1198.8000;0.4501;1.0399;
1199.1000;0.4428;1.0210;
1199.4000;0.4510;1.0351;
1199.7000;0.4493;1.0399;
1200.0000;0.4542;1.0469;
1200.3000;0.4526;1.0446;
1200.6000;0.4469;1.0257;
1200.9000;0.4493;1.0375;
1201.2000;0.4453;1.0304;
1201.5000;0.4501;1.0446;
1201.8000;0.4485;1.0446;
1202.1000;0.4469;1.0422;
1202.4000;0.4469;1.0540;
1202.7000;0.4469;1.0540;
1203.0000;0.4485;1.0610;
1203.3000;0.4477;1.0681;
1203.6000;0.4469;1.0657;
1203.9000;0.4510;1.0728;
1204.2000;0.4493;1.0681;
1204.5000;0.4469;1.0563;
1204.8000;0.4501;1.0610;
1205.1000;0.4469;1.0446;
1205.4000;0.4501;1.0469;
1205.7000;0.4477;1.0399;
1206.0000;0.4501;1.0516;
1206.3000;0.4485;1.0446;
1206.6000;0.4453;1.0304;
1206.9000;0.4469;1.0304;
1207.2000;0.4510;1.0422;
1207.5000;0.4461;1.0281;
1207.8000;0.4485;1.0399;
1208.1000;0.4485;1.0469;
1208.4000;0.4501;1.0446;
1208.7000;0.4493;1.0469;
1209.0000;0.4444;1.0375;
1209.3000;0.4493;1.0516;
1209.6000;0.4493;1.0446;
1209.9000;0.4477;1.0422;
1210.2000;0.4493;1.0328;
1210.5000;0.4493;1.0210;
1210.8000;0.4477;1.0210;
1211.1000;0.4526;1.0375;
1211.4000;0.4493;1.0328;
1211.7000;0.4469;1.0351;
1212.0000;0.4444;1.0304;
1212.3000;0.4477;1.0422;
1212.6000;0.4485;1.0540;
1212.9000;0.4501;1.0446;
1213.2000;0.4485;1.0422;
1213.5000;0.4444;1.0234;
1213.8000;0.4461;1.0328;
1214.1000;0.4404;1.0116;
1214.4000;0.4518;1.0351;
1214.7000;0.4477;1.0328;
1215.0000;0.4469;1.0375;
1215.3000;0.4567;1.0563;
1215.6000;0.4510;1.0422;
1215.9000;0.4477;1.0375;
1216.2000;0.4485;1.0351;
1216.5000;0.4510;1.0422;
1216.8000;0.4485;1.0375;
1217.1000;0.4469;1.0351;
1217.4000;0.4485;1.0375;
1217.7000;0.4493;1.0375;
1218.0000;0.4493;1.0375;
1218.3000;0.4493;1.0328;
1218.6000;0.4469;1.0328;
1218.9000;0.4420;1.0187;
1219.2000;0.4526;1.0351;
1219.5000;0.4477;1.0257;
1219.8000;0.4493;1.0304;
1220.1000;0.4542;1.0469;
1220.4000;0.4461;1.0304;
1220.7000;0.4461;1.0234;
1221.0000;0.4461;1.0281;
1221.3000;0.4477;1.0375;
1221.6000;0.4485;1.0328;
1221.9000;0.4485;1.0351;
1222.2000;0.4428;1.0210;
1222.5000;0.4493;1.0351;
1222.8000;0.4485;1.0304;
1223.1000;0.4542;1.0469;
1223.4000;0.4558;1.0681;
1223.7000;0.4485;1.0493;
1224.0000;0.4493;1.0493;
1224.3000;0.4485;1.0328;
1224.6000;0.4477;1.0328;
1224.9000;0.4461;1.0351;
1225.2000;0.4453;1.0281;
1225.5000;0.4501;1.0375;
1225.8000;0.4428;1.0304;
1226.1000;0.4477;1.0446;
1226.4000;0.4469;1.0563;
1226.7000;0.4501;1.0681;
1227.0000;0.4469;1.0634;
1227.3000;0.4501;1.0657;
1227.6000;0.4485;1.0563;
1227.9000;0.4518;1.0634;
1228.2000;0.4493;1.0563;
1228.5000;0.4469;1.0399;
1228.8000;0.4485;1.0422;
1229.1000;0.4493;1.0469;
1229.4000;0.4493;1.0446;
1229.7000;0.4477;1.0422;
1230.0000;0.4485;1.0446;
1230.3000;0.4477;1.0375;
1230.6000;0.4493;1.0446;
1230.9000;0.4485;1.0399;
1231.2000;0.4493;1.0422;
1231.5000;0.4469;1.0281;
1231.8000;0.4485;1.0304;
1232.1000;0.4485;1.0257;
1232.4000;0.4461;1.0257;
1232.7000;0.4493;1.0351;
1233.0000;0.4453;1.0210;
1233.3000;0.4501;1.0375;
1233.6000;0.4477;1.0375;
1233.9000;0.4485;1.0422;
1234.2000;0.4485;1.0446;
1234.5000;0.4469;1.0516;
1234.8000;0.4583;1.0846;
1235.1000;0.4477;1.0657;
1235.4000;0.4510;1.0634;
1235.7000;0.4485;1.0587;
1236.0000;0.4469;1.0516;
1236.3000;0.4575;1.0751;
1236.6000;0.4461;1.0516;
1236.9000;0.4461;1.0610;
1237.2000;0.4469;1.0634;
1237.5000;0.4477;1.0610;
1237.8000;0.4461;1.0446;
1238.1000;0.4477;1.0446;
1238.4000;0.4493;1.0422;
1238.7000;0.4477;1.0399;
1239.0000;0.4510;1.0422;
1239.3000;0.4510;1.0399;
1239.6000;0.4485;1.0351;
1239.9000;0.4461;1.0234;
1240.2000;0.4493;1.0257;
1240.5000;0.4510;1.0234;
1240.8000;0.4501;1.0257;
1241.1000;0.4567;1.0493;
1241.4000;0.4453;1.0187;
1241.7000;0.4469;1.0234;
1242.0000;0.4485;1.0351;
1242.3000;0.4501;1.0375;
1242.6000;0.4485;1.0375;
1242.9000;0.4501;1.0399;
1243.2000;0.4493;1.0422;
1243.5000;0.4493;1.0493;
1243.8000;0.4485;1.0516;
1244.1000;0.4493;1.0587;
1244.4000;0.4453;1.0422;
1244.7000;0.4510;1.0516;
1245.0000;0.4485;1.0540;
1245.3000;0.4501;1.0563;
1245.6000;0.4485;1.0516;
1245.9000;0.4510;1.0587;
1246.2000;0.4501;1.0446;
1246.5000;0.4493;1.0422;
1246.8000;0.4477;1.0446;
1247.1000;0.4477;1.0469;
1247.4000;0.4526;1.0563;
1247.7000;0.4477;1.0422;
1248.0000;0.4461;1.0422;
1248.3000;0.4461;1.0469;
1248.6000;0.4567;1.0728;
1248.9000;0.4493;1.0587;
1249.2000;0.4477;1.0657;
1249.5000;0.4485;1.0681;
1249.8000;0.4485;1.0634;
1250.1000;0.4501;1.0634;
1250.4000;0.4428;1.0399;
1250.7000;0.4518;1.0657;
1251.0000;0.4477;1.0540;
1251.3000;0.4485;1.0446;
1251.6000;0.4493;1.0422;
1251.9000;0.4477;1.0399;
1252.2000;0.4485;1.0399;
1252.5000;0.4485;1.0328;
1252.8000;0.4485;1.0304;
1253.1000;0.4477;1.0304;
1253.4000;0.4493;1.0375;
1253.7000;0.4493;1.0422;
1254.0000;0.4477;1.0375;
1254.3000;0.4461;1.0304;
1254.6000;0.4477;1.0375;
1254.9000;0.4485;1.0257;
1255.2000;0.4501;1.0304;
1255.5000;0.4477;1.0281;
1255.8000;0.4477;1.0399;
1256.1000;0.4485;1.0446;
1256.4000;0.4485;1.0422;
1256.7000;0.4485;1.0351;
1257.0000;0.4542;1.0399;
1257.3000;0.4420;1.0140;
1257.6000;0.4485;1.0399;
1257.9000;0.4396;1.0210;
1258.2000;0.4518;1.0469;
1258.5000;0.4477;1.0351;
1258.8000;0.4477;1.0257;
1259.1000;0.4485;1.0187;
1259.4000;0.4469;1.0187;
1259.7000;0.4485;1.0351;
1260.0000;0.4469;1.0281;
1260.3000;0.4469;1.0163;
1260.6000;0.4477;1.0234;
1260.9000;0.4469;1.0187;
1261.2000;0.4469;1.0328;
1261.5000;0.4485;1.0399;
1261.8000;0.4412;1.0257;
1262.1000;0.4485;1.0422;
1262.4000;0.4477;1.0375;
1262.7000;0.4477;1.0399;
1263.0000;0.4477;1.0375;
1263.3000;0.4485;1.0375;
1263.6000;0.4461;1.0304;
1263.9000;0.4493;1.0469;
1264.2000;0.4461;1.0422;
1264.5000;0.4477;1.0469;
1264.8000;0.4493;1.0469;
1265.1000;0.4477;1.0446;
1265.4000;0.4493;1.0399;
1265.7000;0.4485;1.0446;
1266.0000;0.4493;1.0422;
1266.3000;0.4493;1.0399;
1266.6000;0.4469;1.0375;
1266.9000;0.4510;1.0446;
1267.2000;0.4526;1.0563;
1267.5000;0.4501;1.0587;
1267.8000;0.4477;1.0493;
1268.1000;0.4461;1.0540;
1268.4000;0.4477;1.0493;
1268.7000;0.4485;1.0540;
1269.0000;0.4526;1.0610;
1269.3000;0.4420;1.0375;
1269.6000;0.4485;1.0516;
1269.9000;0.4493;1.0516;
1270.2000;0.4501;1.0446;
1270.5000;0.4518;1.0563;
1270.8000;0.4469;1.0446;
1271.1000;0.4485;1.0516;
1271.4000;0.4493;1.0563;
1271.7000;0.4518;1.0728;
1272.0000;0.4461;1.0540;
1272.3000;0.4469;1.0540;
1272.6000;0.4485;1.0516;
1272.9000;0.4477;1.0516;
1273.2000;0.4518;1.0516;
1273.5000;0.4485;1.0469;
1273.8000;0.4477;1.0446;
1274.1000;0.4485;1.0446;
1274.4000;0.4493;1.0422;
1274.7000;0.4461;1.0328;
1275.0000;0.4485;1.0375;
1275.3000;0.4477;1.0375;
1275.6000;0.4477;1.0422;
1275.9000;0.4485;1.0375;
1276.2000;0.4493;1.0351;
1276.5000;0.4485;1.0375;
1276.8000;0.4583;1.0516;
1277.1000;0.4477;1.0234;
1277.4000;0.4485;1.0234;
1277.7000;0.4485;1.0281;
1278.0000;0.4453;1.0187;
1278.3000;0.4485;1.0328;
1278.6000;0.4485;1.0399;
1278.9000;0.4461;1.0304;
1279.2000;0.4477;1.0351;
1279.5000;0.4501;1.0422;
1279.8000;0.4493;1.0469;
1280.1000;0.4469;1.0563;
1280.4000;0.4477;1.0563;
1280.7000;0.4493;1.0587;
1281.0000;0.4477;1.0493;
1281.3000;0.4485;1.0516;
1281.6000;0.4485;1.0516;
1281.9000;0.4444;1.0446;
1282.2000;0.4469;1.0446;
1282.5000;0.4485;1.0399;
1282.8000;0.4477;1.0422;
1283.1000;0.4469;1.0422;
1283.4000;0.4461;1.0328;
1283.7000;0.4493;1.0399;
1284.0000;0.4485;1.0422;
1284.3000;0.4493;1.0469;
1284.6000;0.4477;1.0540;
1284.9000;0.4485;1.0587;
1285.2000;0.4485;1.0587;
1285.5000;0.4493;1.0540;
1285.8000;0.4477;1.0469;
1286.1000;0.4485;1.0516;
1286.4000;0.4510;1.0516;
1286.7000;0.4436;1.0281;
1287.0000;0.4485;1.0399;
1287.3000;0.4493;1.0399;
1287.6000;0.4493;1.0351;
1287.9000;0.4493;1.0446;
1288.2000;0.4444;1.0304;
1288.5000;0.4493;1.0422;
1288.8000;0.4485;1.0446;
1289.1000;0.4444;1.0257;
1289.4000;0.4501;1.0351;
1289.7000;0.4510;1.0375;
1290.0000;0.4444;1.0210;
1290.3000;0.4567;1.0563;
1290.6000;0.4493;1.0351;
1290.9000;0.4518;1.0422;
1291.2000;0.4477;1.0375;
1291.5000;0.4485;1.0351;
1291.8000;0.4501;1.0422;
1292.1000;0.4567;1.0657;
1292.4000;0.4510;1.0563;
1292.7000;0.4477;1.0493;
1293.0000;0.4534;1.0610;
1293.3000;0.4526;1.0540;
1293.6000;0.4444;1.0163;
1293.9000;0.4485;1.0304;
1294.2000;0.4485;1.0257;
1294.5000;0.4477;1.0234;
1294.8000;0.4485;1.0257;
1295.1000;0.4461;1.0210;
1295.4000;0.4501;1.0257;
1295.7000;0.4501;1.0257;
1296.0000;0.4493;1.0234;
1296.3000;0.4501;1.0257;
1296.6000;0.4493;1.0304;
1296.9000;0.4485;1.0257;
1297.2000;0.4477;1.0281;
1297.5000;0.4485;1.0351;
1297.8000;0.4477;1.0210;
1298.1000;0.4485;1.0210;
1298.4000;0.4526;1.0234;
1298.7000;0.4469;1.0163;
1299.0000;0.4477;1.0187;
1299.3000;0.4485;1.0140;
1299.6000;0.4485;1.0234;
1299.9000;0.4485;1.0234;
1300.2000;0.4501;1.0351;
1300.5000;0.4526;1.0469;
1300.8000;0.4493;1.0422;
1301.1000;0.4493;1.0399;
1301.4000;0.4493;1.0304;
1301.7000;0.4444;1.0187;
1302.0000;0.4526;1.0351;
1302.3000;0.4510;1.0375;
1302.6000;0.4412;1.0257;
1302.9000;0.4469;1.0375;
1303.2000;0.4477;1.0281;
1303.5000;0.4461;1.0281;
1303.8000;0.4444;1.0281;
1304.1000;0.4493;1.0399;
1304.4000;0.4461;1.0328;
1304.7000;0.4485;1.0328;
1305.0000;0.4534;1.0422;
1305.3000;0.4469;1.0210;
1305.6000;0.4477;1.0328;
1305.9000;0.4485;1.0399;
1306.2000;0.4493;1.0375;
1306.5000;0.4477;1.0399;
1306.8000;0.4469;1.0351;
1307.1000;0.4461;1.0257;
1307.4000;0.4501;1.0257;
1307.7000;0.4493;1.0257;
1308.0000;0.4453;1.0234;
1308.3000;0.4501;1.0375;
1308.6000;0.4493;1.0375;
1308.9000;0.4493;1.0328;
1309.2000;0.4493;1.0351;
1309.5000;0.4501;1.0375;
1309.8000;0.4485;1.0375;
1310.1000;0.4485;1.0234;
1310.4000;0.4493;1.0257;
1310.7000;0.4485;1.0351;
1311.0000;0.4510;1.0469;
1311.3000;0.4485;1.0469;
1311.6000;0.4510;1.0540;
1311.9000;0.4493;1.0516;
1312.2000;0.4453;1.0304;
1312.5000;0.4485;1.0351;
1312.8000;0.4501;1.0422;
1313.1000;0.4485;1.0446;
1313.4000;0.4526;1.0516;
1313.7000;0.4477;1.0516;
1314.0000;0.4485;1.0587;
1314.3000;0.4485;1.0540;
1314.6000;0.4501;1.0493;
1314.9000;0.4493;1.0563;
1315.2000;0.4453;1.0446;
1315.5000;0.4477;1.0399;
1315.8000;0.4469;1.0304;
1316.1000;0.4420;1.0210;
1316.4000;0.4534;1.0469;
1316.7000;0.4493;1.0446;
1317.0000;0.4493;1.0540;
1317.3000;0.4493;1.0469;
1317.6000;0.4501;1.0516;
1317.9000;0.4518;1.0563;
1318.2000;0.4485;1.0399;
1318.5000;0.4501;1.0446;
1318.8000;0.4493;1.0469;
1319.1000;0.4485;1.0446;
1319.4000;0.4469;1.0375;
1319.7000;0.4469;1.0328;
1320.0000;0.4501;1.0399;
1320.3000;0.4453;1.0351;
1320.6000;0.4485;1.0422;
1320.9000;0.4469;1.0422;
1321.2000;0.4493;1.0399;
1321.5000;0.4485;1.0446;
1321.8000;0.4477;1.0469;
1322.1000;0.4485;1.0516;
1322.4000;0.4510;1.0610;
1322.7000;0.4485;1.0563;
1323.0000;0.4477;1.0516;
1323.3000;0.4477;1.0446;
1323.6000;0.4501;1.0516;
1323.9000;0.4493;1.0610;
1324.2000;0.4493;1.0563;
1324.5000;0.4485;1.0469;
1324.8000;0.4477;1.0399;
1325.1000;0.4477;1.0469;
1325.4000;0.4526;1.0587;
1325.7000;0.4477;1.0469;
1326.0000;0.4550;1.0751;
1326.3000;0.4510;1.0610;
1326.6000;0.4469;1.0469;
1326.9000;0.4510;1.0540;
1327.2000;0.4493;1.0540;
1327.5000;0.4477;1.0422;
1327.8000;0.4534;1.0634;
1328.1000;0.4485;1.0446;
1328.4000;0.4444;1.0422;
1328.7000;0.4485;1.0516;
1329.0000;0.4493;1.0563;
1329.3000;0.4501;1.0469;
1329.6000;0.4501;1.0351;
1329.9000;0.4453;1.0257;
1330.2000;0.4510;1.0563;
1330.5000;0.4510;1.0563;
1330.8000;0.4485;1.0516;
1331.1000;0.4444;1.0446;
1331.4000;0.4485;1.0587;
1331.7000;0.4510;1.0657;
1332.0000;0.4485;1.0587;
1332.3000;0.4477;1.0493;
1332.6000;0.4485;1.0422;
1332.9000;0.4477;1.0422;
1333.2000;0.4510;1.0516;
1333.5000;0.4477;1.0469;
1333.8000;0.4485;1.0540;
1334.1000;0.4477;1.0493;
1334.4000;0.4461;1.0493;
1334.7000;0.4404;1.0304;
1335.0000;0.4469;1.0469;
1335.3000;0.4469;1.0422;
1335.6000;0.4485;1.0328;
1335.9000;0.4469;1.0187;
1336.2000;0.4477;1.0163;
1336.5000;0.4485;1.0304;
1336.8000;0.4485;1.0399;
1337.1000;0.4477;1.0422;
1337.4000;0.4501;1.0422;
1337.7000;0.4493;1.0399;
1338.0000;0.4493;1.0399;
1338.3000;0.4477;1.0446;
1338.6000;0.4501;1.0493;
1338.9000;0.4493;1.0493;
1339.2000;0.4493;1.0563;
1339.5000;0.4485;1.0587;
1339.8000;0.4493;1.0587;
1340.1000;0.4485;1.0587;
1340.4000;0.4485;1.0540;
1340.7000;0.4542;1.0681;
1341.0000;0.4485;1.0469;
1341.3000;0.4485;1.0540;
1341.6000;0.4477;1.0422;
1341.9000;0.4477;1.0399;
1342.2000;0.4501;1.0469;
1342.5000;0.4493;1.0422;
1342.8000;0.4477;1.0446;
1343.1000;0.4485;1.0446;
1343.4000;0.4477;1.0469;
1343.7000;0.4469;1.0493;
1344.0000;0.4469;1.0493;
1344.3000;0.4477;1.0540;
1344.6000;0.4461;1.0634;
1344.9000;0.4526;1.0704;
1345.2000;0.4493;1.0657;
1345.5000;0.4469;1.0634;
1345.8000;0.4493;1.0728;
1346.1000;0.4493;1.0657;
1346.4000;0.4550;1.0751;
1346.7000;0.4485;1.0516;
1347.0000;0.4526;1.0657;
1347.3000;0.4493;1.0587;
1347.6000;0.4485;1.0540;
1347.9000;0.4477;1.0446;
1348.2000;0.4526;1.0563;
1348.5000;0.4510;1.0610;
1348.8000;0.4436;1.0516;
1349.1000;0.4501;1.0634;
1349.4000;0.4501;1.0610;
1349.7000;0.4493;1.0610;
1350.0000;0.4542;1.0657;
1350.3000;0.4501;1.0587;
1350.6000;0.4477;1.0493;
1350.9000;0.4444;1.0375;
1351.2000;0.4485;1.0422;
1351.5000;0.4477;1.0351;
1351.8000;0.4477;1.0399;
1352.1000;0.4477;1.0304;
1352.4000;0.4485;1.0446;
1352.7000;0.4493;1.0516;
1353.0000;0.4493;1.0446;
1353.3000;0.4485;1.0446;
1353.6000;0.4493;1.0516;
1353.9000;0.4477;1.0516;
1354.2000;0.4477;1.0493;
1354.5000;0.4485;1.0563;
1354.8000;0.4477;1.0516;
1355.1000;0.4477;1.0446;
1355.4000;0.4477;1.0493;
1355.7000;0.4477;1.0469;
1356.0000;0.4493;1.0469;
1356.3000;0.4493;1.0351;
1356.6000;0.4485;1.0281;
1356.9000;0.4477;1.0304;
1357.2000;0.4453;1.0234;
1357.5000;0.4469;1.0328;
1357.8000;0.4453;1.0281;
1358.1000;0.4485;1.0375;
1358.4000;0.4485;1.0399;
1358.7000;0.4485;1.0399;
1359.0000;0.4477;1.0375;
1359.3000;0.4485;1.0446;
1359.6000;0.4493;1.0422;
1359.9000;0.4477;1.0328;
1360.2000;0.4428;1.0281;
1360.5000;0.4469;1.0469;
1360.8000;0.4493;1.0540;
1361.1000;0.4485;1.0563;
1361.4000;0.4501;1.0657;
1361.7000;0.4485;1.0634;
1362.0000;0.4485;1.0657;
1362.3000;0.4485;1.0634;
1362.6000;0.4477;1.0587;
1362.9000;0.4444;1.0422;
1363.2000;0.4493;1.0422;
1363.5000;0.4485;1.0351;
1363.8000;0.4493;1.0375;
1364.1000;0.4485;1.0446;
1364.4000;0.4501;1.0563;
1364.7000;0.4493;1.0587;
1365.0000;0.4493;1.0610;
1365.3000;0.4493;1.0681;
1365.6000;0.4485;1.0634;
1365.9000;0.4501;1.0681;
1366.2000;0.4493;1.0704;
1366.5000;0.4493;1.0657;
1366.8000;0.4510;1.0610;
1367.1000;0.4485;1.0563;
1367.4000;0.4453;1.0540;
1367.7000;0.4485;1.0563;
1368.0000;0.4501;1.0587;
1368.3000;0.4542;1.0634;
1368.6000;0.4485;1.0469;
1368.9000;0.4493;1.0540;
1369.2000;0.4501;1.0610;
1369.5000;0.4493;1.0587;
1369.8000;0.4501;1.0587;
1370.1000;0.4493;1.0563;
1370.4000;0.4558;1.0657;
1370.7000;0.4493;1.0469;
1371.0000;0.4493;1.0469;
1371.3000;0.4493;1.0563;
1371.6000;0.4493;1.0446;
1371.9000;0.4477;1.0399;
1372.2000;0.4493;1.0328;
1372.5000;0.4493;1.0281;
1372.8000;0.4534;1.0493;
1373.1000;0.4477;1.0351;
1373.4000;0.4477;1.0328;
1373.7000;0.4493;1.0375;
1374.0000;0.4493;1.0446;
1374.3000;0.4518;1.0563;
1374.6000;0.4477;1.0587;
1374.9000;0.4526;1.0681;
1375.2000;0.4436;1.0399;
1375.5000;0.4469;1.0563;
1375.8000;0.4485;1.0587;
1376.1000;0.4469;1.0587;
1376.4000;0.4453;1.0516;
1376.7000;0.4469;1.0634;
1377.0000;0.4485;1.0563;
1377.3000;0.4477;1.0610;
1377.6000;0.4485;1.0681;
1377.9000;0.4436;1.0610;
1378.2000;0.4493;1.0587;
1378.5000;0.4485;1.0446;
1378.8000;0.4501;1.0469;
1379.1000;0.4501;1.0469;
1379.4000;0.4485;1.0399;
1379.7000;0.4493;1.0399;
1380.0000;0.4477;1.0375;
1380.3000;0.4485;1.0328;
1380.6000;0.4485;1.0257;
1380.9000;0.4510;1.0281;
1381.2000;0.4501;1.0304;
1381.5000;0.4493;1.0328;
1381.8000;0.4493;1.0399;
1382.1000;0.4493;1.0422;
1382.4000;0.4461;1.0328;
1382.7000;0.4485;1.0328;
1383.0000;0.4493;1.0351;
1383.3000;0.4493;1.0375;
1383.6000;0.4485;1.0304;
1383.9000;0.4477;1.0375;
1384.2000;0.4518;1.0446;
1384.5000;0.4493;1.0375;
1384.8000;0.4485;1.0281;
1385.1000;0.4493;1.0281;
1385.4000;0.4485;1.0257;
1385.7000;0.4501;1.0351;
1386.0000;0.4485;1.0351;
1386.3000;0.4477;1.0304;
1386.6000;0.4485;1.0375;
1386.9000;0.4501;1.0399;
1387.2000;0.4477;1.0422;
1387.5000;0.4461;1.0399;
1387.8000;0.4510;1.0446;
1388.1000;0.4493;1.0375;
1388.4000;0.4510;1.0422;
1388.7000;0.4485;1.0516;
1389.0000;0.4493;1.0469;
1389.3000;0.4567;1.0587;
1389.6000;0.4493;1.0493;
1389.9000;0.4428;1.0328;
1390.2000;0.4510;1.0587;
1390.5000;0.4493;1.0563;
1390.8000;0.4485;1.0540;
1391.1000;0.4469;1.0516;
1391.4000;0.4477;1.0469;
1391.7000;0.4501;1.0516;
1392.0000;0.4510;1.0493;
1392.3000;0.4461;1.0422;
1392.6000;0.4485;1.0516;
1392.9000;0.4493;1.0587;
1393.2000;0.4493;1.0657;
1393.5000;0.4501;1.0822;
1393.8000;0.4469;1.0846;
1394.1000;0.4493;1.0846;
1394.4000;0.4493;1.0916;
1394.7000;0.4501;1.0963;
1395.0000;0.4493;1.0822;
1395.3000;0.4477;1.0846;
1395.6000;0.4485;1.0987;
1395.9000;0.4493;1.0940;
1396.2000;0.4485;1.0963;
1396.5000;0.4477;1.0940;
1396.8000;0.4493;1.0893;
1397.1000;0.4501;1.0893;
1397.4000;0.4485;1.0846;
1397.7000;0.4493;1.0846;
1398.0000;0.4469;1.0751;
1398.3000;0.4469;1.0634;
1398.6000;0.4501;1.0657;
1398.9000;0.4542;1.0728;
1399.2000;0.4485;1.0587;
1399.5000;0.4493;1.0657;
1399.8000;0.4510;1.0657;
