time/ms;Fluo/V;P700 deltaI/I x10³;
-199.8000;0.4697;1.0351;
-199.5000;0.4689;1.0257;
-199.2000;0.4697;1.0210;
-198.9000;0.4697;1.0163;
-198.6000;0.4705;1.0234;
-198.3000;0.4697;1.0281;
-198.0000;0.4705;1.0234;
-197.7000;0.4697;1.0187;
-197.4000;0.4713;1.0304;
-197.1000;0.4713;1.0304;
-196.8000;0.4705;1.0304;
-196.5000;0.4697;1.0328;
-196.2000;0.4697;1.0399;
-195.9000;0.4599;1.0116;
-195.6000;0.4697;1.0257;
-195.3000;0.4697;1.0281;
-195.0000;0.4746;1.0399;
-194.7000;0.4713;1.0257;
-194.4000;0.4689;1.0116;
-194.1000;0.4697;1.0046;
-193.8000;0.4689;1.0022;
-193.5000;0.4689;0.9975;
-193.2000;0.4697;1.0046;
-192.9000;0.4607;0.9740;
-192.6000;0.4705;0.9975;
-192.3000;0.4705;1.0093;
-192.0000;0.4705;1.0093;
-191.7000;0.4713;1.0093;
-191.4000;0.4705;1.0140;
-191.1000;0.4705;1.0116;
-190.8000;0.4705;1.0140;
-190.5000;0.4689;1.0140;
-190.2000;0.4705;1.0234;
-189.9000;0.4713;1.0281;
-189.6000;0.4697;1.0351;
-189.3000;0.4697;1.0304;
-189.0000;0.4770;1.0469;
-188.7000;0.4689;1.0351;
-188.4000;0.4705;1.0351;
-188.1000;0.4705;1.0304;
-187.8000;0.4697;1.0304;
-187.5000;0.4697;1.0351;
-187.2000;0.4705;1.0375;
-186.9000;0.4762;1.0563;
-186.6000;0.4689;1.0399;
-186.3000;0.4697;1.0399;
-186.0000;0.4689;1.0328;
-185.7000;0.4697;1.0351;
-185.4000;0.4607;1.0116;
-185.1000;0.4640;1.0163;
-184.8000;0.4762;1.0516;
-184.5000;0.4786;1.0704;
-184.2000;0.4697;1.0399;
-183.9000;0.4786;1.0587;
-183.6000;0.4705;1.0351;
-183.3000;0.4689;1.0351;
-183.0000;0.4713;1.0399;
-182.7000;0.4697;1.0375;
-182.4000;0.4689;1.0375;
-182.1000;0.4713;1.0446;
-181.8000;0.4721;1.0469;
-181.5000;0.4705;1.0446;
-181.2000;0.4713;1.0422;
-180.9000;0.4713;1.0516;
-180.6000;0.4713;1.0516;
-180.3000;0.4689;1.0516;
-180.0000;0.4681;1.0469;
-179.7000;0.4648;1.0446;
-179.4000;0.4737;1.0610;
-179.1000;0.4697;1.0563;
-178.8000;0.4689;1.0587;
-178.5000;0.4689;1.0563;
-178.2000;0.4705;1.0493;
-177.9000;0.4689;1.0422;
-177.6000;0.4689;1.0375;
-177.3000;0.4697;1.0351;
-177.0000;0.4697;1.0375;
-176.7000;0.4729;1.0399;
-176.4000;0.4737;1.0422;
-176.1000;0.4697;1.0446;
-175.8000;0.4624;1.0375;
-175.5000;0.4746;1.0587;
-175.2000;0.4697;1.0493;
-174.9000;0.4697;1.0469;
-174.6000;0.4689;1.0587;
-174.3000;0.4672;1.0422;
-174.0000;0.4672;1.0375;
-173.7000;0.4689;1.0257;
-173.4000;0.4705;1.0281;
-173.1000;0.4705;1.0304;
-172.8000;0.4648;1.0187;
-172.5000;0.4681;1.0257;
-172.2000;0.4705;1.0351;
-171.9000;0.4721;1.0493;
-171.6000;0.4705;1.0422;
-171.3000;0.4705;1.0493;
-171.0000;0.4705;1.0493;
-170.7000;0.4664;1.0399;
-170.4000;0.4729;1.0516;
-170.1000;0.4713;1.0446;
-169.8000;0.4689;1.0399;
-169.5000;0.4770;1.0563;
-169.2000;0.4697;1.0446;
-168.9000;0.4729;1.0516;
-168.6000;0.4689;1.0375;
-168.3000;0.4697;1.0375;
-168.0000;0.4713;1.0446;
-167.7000;0.4737;1.0446;
-167.4000;0.4697;1.0422;
-167.1000;0.4697;1.0446;
-166.8000;0.4705;1.0516;
-166.5000;0.4697;1.0446;
-166.2000;0.4697;1.0375;
-165.9000;0.4681;1.0304;
-165.6000;0.4713;1.0399;
-165.3000;0.4729;1.0446;
-165.0000;0.4721;1.0399;
-164.7000;0.4648;1.0234;
-164.4000;0.4705;1.0446;
-164.1000;0.4697;1.0375;
-163.8000;0.4770;1.0634;
-163.5000;0.4689;1.0516;
-163.2000;0.4656;1.0446;
-162.9000;0.4713;1.0516;
-162.6000;0.4705;1.0469;
-162.3000;0.4705;1.0469;
-162.0000;0.4697;1.0399;
-161.7000;0.4713;1.0516;
-161.4000;0.4713;1.0587;
-161.1000;0.4811;1.0893;
-160.8000;0.4689;1.0563;
-160.5000;0.4672;1.0446;
-160.2000;0.4803;1.0681;
-159.9000;0.4697;1.0304;
-159.6000;0.4697;1.0375;
-159.3000;0.4729;1.0375;
-159.0000;0.4737;1.0328;
-158.7000;0.4754;1.0351;
-158.4000;0.4656;1.0046;
-158.1000;0.4664;1.0163;
-157.8000;0.4705;1.0375;
-157.5000;0.4632;1.0116;
-157.2000;0.4721;1.0351;
-156.9000;0.4713;1.0257;
-156.6000;0.4713;1.0281;
-156.3000;0.4681;1.0234;
-156.0000;0.4713;1.0351;
-155.7000;0.4640;1.0163;
-155.4000;0.4689;1.0257;
-155.1000;0.4689;1.0257;
-154.8000;0.4689;1.0281;
-154.5000;0.4721;1.0281;
-154.2000;0.4705;1.0187;
-153.9000;0.4689;1.0093;
-153.6000;0.4705;1.0069;
-153.3000;0.4762;1.0210;
-153.0000;0.4721;1.0140;
-152.7000;0.4746;1.0187;
-152.4000;0.4697;1.0116;
-152.1000;0.4681;1.0069;
-151.8000;0.4713;1.0116;
-151.5000;0.4737;1.0187;
-151.2000;0.4713;1.0093;
-150.9000;0.4689;1.0069;
-150.6000;0.4681;1.0022;
-150.3000;0.4689;1.0022;
-150.0000;0.4689;0.9999;
-149.7000;0.4681;0.9999;
-149.4000;0.4705;1.0187;
-149.1000;0.4689;1.0281;
-148.8000;0.4689;1.0304;
-148.5000;0.4697;1.0281;
-148.2000;0.4705;1.0422;
-147.9000;0.4672;1.0446;
-147.6000;0.4672;1.0351;
-147.3000;0.4689;1.0422;
-147.0000;0.4705;1.0351;
-146.7000;0.4656;1.0187;
-146.4000;0.4697;1.0140;
-146.1000;0.4672;1.0140;
-145.8000;0.4689;1.0210;
-145.5000;0.4705;1.0234;
-145.2000;0.4737;1.0304;
-144.9000;0.4705;1.0257;
-144.6000;0.4721;1.0257;
-144.3000;0.4713;1.0234;
-144.0000;0.4721;1.0163;
-143.7000;0.4713;1.0116;
-143.4000;0.4648;1.0046;
-143.1000;0.4697;1.0116;
-142.8000;0.4664;1.0022;
-142.5000;0.4697;1.0234;
-142.2000;0.4713;1.0328;
-141.9000;0.4697;1.0375;
-141.6000;0.4729;1.0422;
-141.3000;0.4713;1.0399;
-141.0000;0.4713;1.0375;
-140.7000;0.4689;1.0375;
-140.4000;0.4705;1.0422;
-140.1000;0.4713;1.0469;
-139.8000;0.4729;1.0328;
-139.5000;0.4737;1.0351;
-139.2000;0.4697;1.0187;
-138.9000;0.4697;1.0234;
-138.6000;0.4729;1.0304;
-138.3000;0.4689;1.0234;
-138.0000;0.4729;1.0328;
-137.7000;0.4697;1.0351;
-137.4000;0.4713;1.0351;
-137.1000;0.4705;1.0257;
-136.8000;0.4681;1.0234;
-136.5000;0.4689;1.0234;
-136.2000;0.4672;1.0210;
-135.9000;0.4689;1.0187;
-135.6000;0.4721;1.0351;
-135.3000;0.4664;1.0234;
-135.0000;0.4705;1.0304;
-134.7000;0.4713;1.0304;
-134.4000;0.4672;1.0257;
-134.1000;0.4705;1.0351;
-133.8000;0.4672;1.0375;
-133.5000;0.4762;1.0587;
-133.2000;0.4672;1.0304;
-132.9000;0.4689;1.0375;
-132.6000;0.4689;1.0422;
-132.3000;0.4599;1.0093;
-132.0000;0.4697;1.0351;
-131.7000;0.4656;1.0187;
-131.4000;0.4656;1.0210;
-131.1000;0.4697;1.0281;
-130.8000;0.4689;1.0281;
-130.5000;0.4705;1.0351;
-130.2000;0.4713;1.0304;
-129.9000;0.4697;1.0328;
-129.6000;0.4713;1.0281;
-129.3000;0.4721;1.0281;
-129.0000;0.4705;1.0257;
-128.7000;0.4713;1.0234;
-128.4000;0.4697;1.0163;
-128.1000;0.4640;1.0069;
-127.8000;0.4705;1.0116;
-127.5000;0.4721;1.0304;
-127.2000;0.4705;1.0304;
-126.9000;0.4697;1.0257;
-126.6000;0.4697;1.0281;
-126.3000;0.4713;1.0281;
-126.0000;0.4721;1.0257;
-125.7000;0.4697;1.0210;
-125.4000;0.4713;1.0234;
-125.1000;0.4697;1.0234;
-124.8000;0.4705;1.0234;
-124.5000;0.4811;1.0610;
-124.2000;0.4705;1.0351;
-123.9000;0.4689;1.0351;
-123.6000;0.4705;1.0375;
-123.3000;0.4705;1.0422;
-123.0000;0.4705;1.0446;
-122.7000;0.4705;1.0351;
-122.4000;0.4640;1.0093;
-122.1000;0.4770;1.0469;
-121.8000;0.4713;1.0281;
-121.5000;0.4681;1.0234;
-121.2000;0.4689;1.0163;
-120.9000;0.4672;1.0210;
-120.6000;0.4754;1.0493;
-120.3000;0.4705;1.0446;
-120.0000;0.4697;1.0281;
-119.7000;0.4705;1.0304;
-119.4000;0.4713;1.0328;
-119.1000;0.4689;1.0281;
-118.8000;0.4689;1.0187;
-118.5000;0.4713;1.0257;
-118.2000;0.4746;1.0375;
-117.9000;0.4705;1.0281;
-117.6000;0.4689;1.0257;
-117.3000;0.4705;1.0257;
-117.0000;0.4705;1.0257;
-116.7000;0.4705;1.0257;
-116.4000;0.4705;1.0257;
-116.1000;0.4705;1.0163;
-115.8000;0.4697;1.0140;
-115.5000;0.4672;1.0093;
-115.2000;0.4705;1.0069;
-114.9000;0.4697;1.0069;
-114.6000;0.4607;0.9928;
-114.3000;0.4729;1.0187;
-114.0000;0.4705;1.0304;
-113.7000;0.4672;1.0257;
-113.4000;0.4689;1.0257;
-113.1000;0.4705;1.0328;
-112.8000;0.4705;1.0304;
-112.5000;0.4705;1.0328;
-112.2000;0.4681;1.0304;
-111.9000;0.4672;1.0351;
-111.6000;0.4697;1.0375;
-111.3000;0.4681;1.0257;
-111.0000;0.4689;1.0187;
-110.7000;0.4697;1.0163;
-110.4000;0.4746;1.0210;
-110.1000;0.4705;1.0187;
-109.8000;0.4794;1.0516;
-109.5000;0.4689;1.0304;
-109.2000;0.4713;1.0351;
-108.9000;0.4705;1.0351;
-108.6000;0.4697;1.0328;
-108.3000;0.4599;1.0140;
-108.0000;0.4705;1.0446;
-107.7000;0.4632;1.0234;
-107.4000;0.4689;1.0422;
-107.1000;0.4681;1.0375;
-106.8000;0.4697;1.0328;
-106.5000;0.4721;1.0328;
-106.2000;0.4705;1.0351;
-105.9000;0.4681;1.0304;
-105.6000;0.4689;1.0304;
-105.3000;0.4721;1.0304;
-105.0000;0.4681;1.0163;
-104.7000;0.4697;1.0210;
-104.4000;0.4705;1.0328;
-104.1000;0.4640;1.0210;
-103.8000;0.4689;1.0281;
-103.5000;0.4697;1.0304;
-103.2000;0.4737;1.0399;
-102.9000;0.4705;1.0399;
-102.6000;0.4697;1.0422;
-102.3000;0.4705;1.0493;
-102.0000;0.4705;1.0493;
-101.7000;0.4705;1.0540;
-101.4000;0.4713;1.0587;
-101.1000;0.4656;1.0399;
-100.8000;0.4705;1.0375;
-100.5000;0.4705;1.0375;
-100.2000;0.4705;1.0422;
-99.9000;0.4697;1.0328;
-99.6000;0.4762;1.0493;
-99.3000;0.4754;1.0422;
-99.0000;0.4721;1.0328;
-98.7000;0.4689;1.0328;
-98.4000;0.4697;1.0446;
-98.1000;0.4705;1.0469;
-97.8000;0.4689;1.0351;
-97.5000;0.4729;1.0493;
-97.2000;0.4697;1.0469;
-96.9000;0.4697;1.0399;
-96.6000;0.4697;1.0446;
-96.3000;0.4689;1.0446;
-96.0000;0.4697;1.0351;
-95.7000;0.4681;1.0328;
-95.4000;0.4697;1.0351;
-95.1000;0.4705;1.0351;
-94.8000;0.4697;1.0257;
-94.5000;0.4664;1.0116;
-94.2000;0.4705;1.0234;
-93.9000;0.4713;1.0234;
-93.6000;0.4729;1.0328;
-93.3000;0.4713;1.0304;
-93.0000;0.4697;1.0304;
-92.7000;0.4672;1.0257;
-92.4000;0.4697;1.0422;
-92.1000;0.4705;1.0493;
-91.8000;0.4640;1.0304;
-91.5000;0.4648;1.0375;
-91.2000;0.4689;1.0399;
-90.9000;0.4689;1.0375;
-90.6000;0.4705;1.0375;
-90.3000;0.4705;1.0399;
-90.0000;0.4713;1.0493;
-89.7000;0.4672;1.0328;
-89.4000;0.4697;1.0234;
-89.1000;0.4721;1.0351;
-88.8000;0.4705;1.0328;
-88.5000;0.4713;1.0281;
-88.2000;0.4713;1.0257;
-87.9000;0.4656;1.0140;
-87.6000;0.4705;1.0234;
-87.3000;0.4697;1.0281;
-87.0000;0.4697;1.0328;
-86.7000;0.4681;1.0210;
-86.4000;0.4681;1.0187;
-86.1000;0.4713;1.0304;
-85.8000;0.4705;1.0234;
-85.5000;0.4705;1.0187;
-85.2000;0.4713;1.0281;
-84.9000;0.4705;1.0257;
-84.6000;0.4689;1.0234;
-84.3000;0.4689;1.0257;
-84.0000;0.4697;1.0257;
-83.7000;0.4713;1.0328;
-83.4000;0.4778;1.0446;
-83.1000;0.4729;1.0281;
-82.8000;0.4640;1.0140;
-82.5000;0.4697;1.0281;
-82.2000;0.4746;1.0304;
-81.9000;0.4737;1.0375;
-81.6000;0.4697;1.0422;
-81.3000;0.4737;1.0540;
-81.0000;0.4697;1.0469;
-80.7000;0.4705;1.0422;
-80.4000;0.4729;1.0493;
-80.1000;0.4721;1.0493;
-79.8000;0.4721;1.0540;
-79.5000;0.4697;1.0493;
-79.2000;0.4705;1.0469;
-78.9000;0.4729;1.0399;
-78.6000;0.4672;1.0304;
-78.3000;0.4705;1.0351;
-78.0000;0.4681;1.0328;
-77.7000;0.4762;1.0493;
-77.4000;0.4697;1.0399;
-77.1000;0.4689;1.0281;
-76.8000;0.4705;1.0399;
-76.5000;0.4697;1.0351;
-76.2000;0.4729;1.0446;
-75.9000;0.4754;1.0493;
-75.6000;0.4640;1.0281;
-75.3000;0.4624;1.0210;
-75.0000;0.4689;1.0399;
-74.7000;0.4705;1.0375;
-74.4000;0.4705;1.0351;
-74.1000;0.4705;1.0375;
-73.8000;0.4705;1.0375;
-73.5000;0.4697;1.0399;
-73.2000;0.4697;1.0469;
-72.9000;0.4713;1.0516;
-72.6000;0.4697;1.0469;
-72.3000;0.4713;1.0540;
-72.0000;0.4697;1.0399;
-71.7000;0.4705;1.0375;
-71.4000;0.4689;1.0446;
-71.1000;0.4713;1.0493;
-70.8000;0.4689;1.0469;
-70.5000;0.4689;1.0469;
-70.2000;0.4681;1.0469;
-69.9000;0.4697;1.0469;
-69.6000;0.4689;1.0422;
-69.3000;0.4705;1.0399;
-69.0000;0.4689;1.0375;
-68.7000;0.4689;1.0399;
-68.4000;0.4656;1.0187;
-68.1000;0.4697;1.0399;
-67.8000;0.4697;1.0375;
-67.5000;0.4737;1.0469;
-67.2000;0.4713;1.0304;
-66.9000;0.4689;1.0351;
-66.6000;0.4689;1.0399;
-66.3000;0.4689;1.0446;
-66.0000;0.4697;1.0516;
-65.7000;0.4656;1.0375;
-65.4000;0.4705;1.0469;
-65.1000;0.4697;1.0399;
-64.8000;0.4697;1.0399;
-64.5000;0.4689;1.0351;
-64.2000;0.4689;1.0375;
-63.9000;0.4689;1.0328;
-63.6000;0.4681;1.0281;
-63.3000;0.4689;1.0257;
-63.0000;0.4705;1.0257;
-62.7000;0.4721;1.0328;
-62.4000;0.4664;1.0093;
-62.1000;0.4689;1.0116;
-61.8000;0.4729;1.0234;
-61.5000;0.4729;1.0257;
-61.2000;0.4705;1.0257;
-60.9000;0.4697;1.0210;
-60.6000;0.4705;1.0234;
-60.3000;0.4713;1.0163;
-60.0000;0.4697;1.0069;
-59.7000;0.4689;1.0069;
-59.4000;0.4713;1.0187;
-59.1000;0.4705;1.0093;
-58.8000;0.4672;1.0116;
-58.5000;0.4689;1.0234;
-58.2000;0.4729;1.0281;
-57.9000;0.4705;1.0187;
-57.6000;0.4713;1.0140;
-57.3000;0.4648;0.9999;
-57.0000;0.4713;1.0281;
-56.7000;0.4721;1.0351;
-56.4000;0.4689;1.0210;
-56.1000;0.4689;1.0234;
-55.8000;0.4729;1.0351;
-55.5000;0.4648;1.0116;
-55.2000;0.4786;1.0587;
-54.9000;0.4689;1.0399;
-54.6000;0.4754;1.0516;
-54.3000;0.4697;1.0375;
-54.0000;0.4689;1.0281;
-53.7000;0.4697;1.0210;
-53.4000;0.4681;1.0116;
-53.1000;0.4689;1.0093;
-52.8000;0.4713;1.0163;
-52.5000;0.4697;1.0210;
-52.2000;0.4689;1.0210;
-51.9000;0.4697;1.0257;
-51.6000;0.4794;1.0446;
-51.3000;0.4794;1.0422;
-51.0000;0.4697;1.0140;
-50.7000;0.4697;1.0281;
-50.4000;0.4705;1.0422;
-50.1000;0.4721;1.0375;
-49.8000;0.4713;1.0234;
-49.5000;0.4697;1.0234;
-49.2000;0.4681;1.0351;
-48.9000;0.4689;1.0399;
-48.6000;0.4713;1.0563;
-48.3000;0.4697;1.0469;
-48.0000;0.4705;1.0375;
-47.7000;0.4705;1.0375;
-47.4000;0.4697;1.0351;
-47.1000;0.4721;1.0328;
-46.8000;0.4664;1.0187;
-46.5000;0.4713;1.0375;
-46.2000;0.4697;1.0375;
-45.9000;0.4713;1.0304;
-45.6000;0.4689;1.0281;
-45.3000;0.4697;1.0375;
-45.0000;0.4713;1.0399;
-44.7000;0.4681;1.0281;
-44.4000;0.4713;1.0516;
-44.1000;0.4705;1.0563;
-43.8000;0.4697;1.0493;
-43.5000;0.4697;1.0446;
-43.2000;0.4705;1.0422;
-42.9000;0.4697;1.0493;
-42.6000;0.4705;1.0422;
-42.3000;0.4705;1.0399;
-42.0000;0.4697;1.0375;
-41.7000;0.4705;1.0399;
-41.4000;0.4697;1.0351;
-41.1000;0.4705;1.0399;
-40.8000;0.4681;1.0304;
-40.5000;0.4721;1.0351;
-40.2000;0.4697;1.0375;
-39.9000;0.4681;1.0375;
-39.6000;0.4697;1.0493;
-39.3000;0.4705;1.0469;
-39.0000;0.4681;1.0493;
-38.7000;0.4705;1.0516;
-38.4000;0.4705;1.0493;
-38.1000;0.4697;1.0328;
-37.8000;0.4697;1.0304;
-37.5000;0.4721;1.0351;
-37.2000;0.4737;1.0399;
-36.9000;0.4689;1.0210;
-36.6000;0.4705;1.0257;
-36.3000;0.4697;1.0234;
-36.0000;0.4705;1.0257;
-35.7000;0.4672;1.0210;
-35.4000;0.4697;1.0375;
-35.1000;0.4705;1.0422;
-34.8000;0.4721;1.0493;
-34.5000;0.4697;1.0446;
-34.2000;0.4705;1.0422;
-33.9000;0.4689;1.0399;
-33.6000;0.4705;1.0446;
-33.3000;0.4778;1.0681;
-33.0000;0.4713;1.0540;
-32.7000;0.4697;1.0516;
-32.4000;0.4689;1.0516;
-32.1000;0.4689;1.0446;
-31.8000;0.4689;1.0399;
-31.5000;0.4697;1.0446;
-31.2000;0.4705;1.0399;
-30.9000;0.4746;1.0328;
-30.6000;0.4705;1.0375;
-30.3000;0.4689;1.0446;
-30.0000;0.4689;1.0469;
-29.7000;0.4656;1.0375;
-29.4000;0.4697;1.0446;
-29.1000;0.4689;1.0399;
-28.8000;0.4778;1.0681;
-28.5000;0.4713;1.0469;
-28.2000;0.4672;1.0469;
-27.9000;0.4689;1.0422;
-27.6000;0.4689;1.0351;
-27.3000;0.4705;1.0399;
-27.0000;0.4713;1.0446;
-26.7000;0.4689;1.0422;
-26.4000;0.4705;1.0446;
-26.1000;0.4705;1.0399;
-25.8000;0.4697;1.0399;
-25.5000;0.4689;1.0399;
-25.2000;0.4697;1.0446;
-24.9000;0.4705;1.0422;
-24.6000;0.4705;1.0469;
-24.3000;0.4697;1.0469;
-24.0000;0.4672;1.0375;
-23.7000;0.4640;1.0257;
-23.4000;0.4705;1.0422;
-23.1000;0.4689;1.0351;
-22.8000;0.4681;1.0304;
-22.5000;0.4689;1.0328;
-22.2000;0.4705;1.0399;
-21.9000;0.4697;1.0493;
-21.6000;0.4689;1.0469;
-21.3000;0.4697;1.0446;
-21.0000;0.4689;1.0375;
-20.7000;0.4697;1.0422;
-20.4000;0.4705;1.0516;
-20.1000;0.4705;1.0516;
-19.8000;0.4770;1.0704;
-19.5000;0.4697;1.0610;
-19.2000;0.4705;1.0610;
-18.9000;0.4705;1.0610;
-18.6000;0.4705;1.0634;
-18.3000;0.4705;1.0657;
-18.0000;0.4697;1.0634;
-17.7000;0.4778;1.0846;
-17.4000;0.4689;1.0563;
-17.1000;0.4689;1.0540;
-16.8000;0.4721;1.0587;
-16.5000;0.4705;1.0563;
-16.2000;0.4729;1.0657;
-15.9000;0.4713;1.0634;
-15.6000;0.4697;1.0563;
-15.3000;0.4697;1.0399;
-15.0000;0.4737;1.0446;
-14.7000;0.4705;1.0422;
-14.4000;0.4648;1.0234;
-14.1000;0.4713;1.0375;
-13.8000;0.4689;1.0328;
-13.5000;0.4697;1.0375;
-13.2000;0.4729;1.0469;
-12.9000;0.4689;1.0351;
-12.6000;0.4664;1.0140;
-12.3000;0.4705;1.0116;
-12.0000;0.4664;1.0069;
-11.7000;0.4697;1.0210;
-11.4000;0.4713;1.0187;
-11.1000;0.4664;1.0069;
-10.8000;0.4697;1.0140;
-10.5000;0.4713;1.0281;
-10.2000;0.4656;1.0163;
-9.9000;0.4705;1.0375;
-9.6000;0.4697;1.0399;
-9.3000;0.4713;1.0422;
-9.0000;0.4689;1.0422;
-8.7000;0.4689;1.0399;
-8.4000;0.4721;1.0493;
-8.1000;0.4737;1.0563;
-7.8000;0.4697;1.0351;
-7.5000;0.4689;1.0328;
-7.2000;0.4713;1.0399;
-6.9000;0.4705;1.0399;
-6.6000;0.4689;1.0234;
-6.3000;0.4689;1.0328;
-6.0000;0.4697;1.0375;
-5.7000;0.4803;1.0704;
-5.4000;0.4713;1.0516;
-5.1000;0.4681;1.0351;
-4.8000;0.4697;1.0351;
-4.5000;0.4705;1.0422;
-4.2000;0.4705;1.0446;
-3.9000;0.4705;1.0446;
-3.6000;0.4729;1.0540;
-3.3000;0.4754;1.0563;
-3.0000;0.4721;1.0446;
-2.7000;0.4681;1.0375;
-2.4000;0.4705;1.0351;
-2.1000;0.4689;1.0210;
-1.8000;0.4697;1.0187;
-1.5000;0.4689;1.0116;
-1.2000;0.4697;1.0140;
-0.9000;0.4689;1.0234;
-0.6000;0.4762;1.0446;
-0.3000;0.4689;1.0234;
0.0000;0.4689;1.0234;
0.3000;0.4982;1.0446;
0.6000;0.5421;1.0798;
0.9000;0.5869;1.1387;
1.2000;0.6186;1.1904;
1.5000;0.6439;1.2422;
1.8000;0.6626;1.2869;
2.1000;0.6789;1.3245;
2.4000;0.6911;1.3480;
2.7000;0.7017;1.3692;
3.0000;0.7090;1.3857;
3.3000;0.7228;1.4186;
3.6000;0.7220;1.4257;
3.9000;0.7253;1.4351;
4.2000;0.7236;1.4257;
4.5000;0.7359;1.4516;
4.8000;0.7359;1.4469;
5.1000;0.7424;1.4398;
5.4000;0.7481;1.4445;
5.7000;0.7448;1.4422;
6.0000;0.7554;1.4586;
6.3000;0.7611;1.4774;
6.6000;0.7611;1.4680;
6.9000;0.7619;1.4633;
7.2000;0.7652;1.4633;
7.5000;0.7676;1.4657;
7.8000;0.7733;1.4727;
8.1000;0.7725;1.4727;
8.4000;0.7749;1.4751;
8.7000;0.7782;1.4798;
9.0000;0.7749;1.4704;
9.3000;0.7831;1.4892;
9.6000;0.7928;1.4986;
9.9000;0.7871;1.4774;
10.2000;0.7912;1.4821;
10.5000;0.7945;1.4869;
10.8000;0.7985;1.4821;
11.1000;0.8002;1.4821;
11.4000;0.8018;1.4869;
11.7000;0.8018;1.4821;
12.0000;0.8059;1.4798;
12.3000;0.8091;1.4798;
12.6000;0.8107;1.4680;
12.9000;0.8091;1.4563;
13.2000;0.8124;1.4586;
13.5000;0.8173;1.4680;
13.8000;0.8189;1.4727;
14.1000;0.8278;1.4916;
14.4000;0.8221;1.4680;
14.7000;0.8246;1.4704;
15.0000;0.8254;1.4704;
15.3000;0.8335;1.4751;
15.6000;0.8319;1.4751;
15.9000;0.8327;1.4704;
16.2000;0.8344;1.4751;
16.5000;0.8319;1.4586;
16.8000;0.8335;1.4516;
17.1000;0.8400;1.4610;
17.4000;0.8506;1.4821;
17.7000;0.8417;1.4563;
18.0000;0.8425;1.4563;
18.3000;0.8400;1.4539;
18.6000;0.8457;1.4657;
18.9000;0.8490;1.4680;
19.2000;0.8514;1.4657;
19.5000;0.8523;1.4657;
19.8000;0.8531;1.4610;
20.1000;0.8563;1.4680;
20.4000;0.8580;1.4657;
20.7000;0.8604;1.4633;
21.0000;0.8596;1.4680;
21.3000;0.8604;1.4586;
21.6000;0.8661;1.4586;
21.9000;0.8612;1.4445;
22.2000;0.8661;1.4633;
22.5000;0.8653;1.4563;
22.8000;0.8685;1.4492;
23.1000;0.8694;1.4469;
23.4000;0.8742;1.4492;
23.7000;0.8685;1.4304;
24.0000;0.8734;1.4398;
24.3000;0.8742;1.4469;
24.6000;0.8710;1.4445;
24.9000;0.8759;1.4516;
25.2000;0.8759;1.4445;
25.5000;0.8783;1.4586;
25.8000;0.8759;1.4469;
26.1000;0.8791;1.4445;
26.4000;0.8799;1.4422;
26.7000;0.8807;1.4469;
27.0000;0.8816;1.4469;
27.3000;0.8824;1.4469;
27.6000;0.8840;1.4445;
27.9000;0.8848;1.4492;
28.2000;0.8856;1.4492;
28.5000;0.8881;1.4516;
28.8000;0.8873;1.4516;
29.1000;0.8897;1.4516;
29.4000;0.8881;1.4469;
29.7000;0.8897;1.4492;
30.0000;0.8954;1.4657;
30.3000;0.8970;1.4657;
30.6000;0.8938;1.4563;
30.9000;0.8954;1.4586;
31.2000;0.8938;1.4469;
31.5000;0.8954;1.4445;
31.8000;0.8954;1.4374;
32.1000;0.8987;1.4445;
32.4000;0.8970;1.4351;
32.7000;0.8978;1.4327;
33.0000;0.8978;1.4186;
33.3000;0.8987;1.4116;
33.6000;0.9003;1.4092;
33.9000;0.9019;1.4116;
34.2000;0.9011;1.4092;
34.5000;0.9019;1.4186;
34.8000;0.9035;1.4304;
35.1000;0.9027;1.4304;
35.4000;0.9035;1.4327;
35.7000;0.9068;1.4445;
36.0000;0.9027;1.4374;
36.3000;0.9076;1.4445;
36.6000;0.9027;1.4304;
36.9000;0.9060;1.4445;
37.2000;0.9084;1.4422;
37.5000;0.9052;1.4280;
37.8000;0.9125;1.4469;
38.1000;0.9092;1.4257;
38.4000;0.9092;1.4280;
38.7000;0.9092;1.4304;
39.0000;0.9101;1.4351;
39.3000;0.9133;1.4422;
39.6000;0.9117;1.4374;
39.9000;0.9068;1.4304;
40.2000;0.9109;1.4398;
40.5000;0.9092;1.4374;
40.8000;0.9125;1.4492;
41.1000;0.9133;1.4398;
41.4000;0.9141;1.4304;
41.7000;0.9149;1.4257;
42.0000;0.9166;1.4327;
42.3000;0.9198;1.4351;
42.6000;0.9158;1.4163;
42.9000;0.9174;1.4186;
43.2000;0.9174;1.4233;
43.5000;0.9174;1.4210;
43.8000;0.9174;1.4186;
44.1000;0.9182;1.4257;
44.4000;0.9223;1.4445;
44.7000;0.9198;1.4422;
45.0000;0.9206;1.4422;
45.3000;0.9206;1.4422;
45.6000;0.9223;1.4516;
45.9000;0.9198;1.4445;
46.2000;0.9320;1.4657;
46.5000;0.9223;1.4327;
46.8000;0.9206;1.4304;
47.1000;0.9231;1.4469;
47.4000;0.9231;1.4469;
47.7000;0.9263;1.4563;
48.0000;0.9247;1.4539;
48.3000;0.9239;1.4586;
48.6000;0.9239;1.4469;
48.9000;0.9247;1.4469;
49.2000;0.9231;1.4422;
49.5000;0.9271;1.4516;
49.8000;0.9247;1.4445;
50.1000;0.9263;1.4398;
50.4000;0.9263;1.4280;
50.7000;0.9271;1.4280;
51.0000;0.9263;1.4139;
51.3000;0.9271;1.4163;
51.6000;0.9263;1.4163;
51.9000;0.9280;1.4186;
52.2000;0.9328;1.4257;
52.5000;0.9320;1.4233;
52.8000;0.9288;1.4163;
53.1000;0.9312;1.4186;
53.4000;0.9280;1.4139;
53.7000;0.9320;1.4233;
54.0000;0.9312;1.4210;
54.3000;0.9304;1.4163;
54.6000;0.9304;1.4139;
54.9000;0.9320;1.4163;
55.2000;0.9304;1.4186;
55.5000;0.9304;1.4139;
55.8000;0.9328;1.4186;
56.1000;0.9320;1.4116;
56.4000;0.9296;1.4092;
56.7000;0.9361;1.4186;
57.0000;0.9337;1.4139;
57.3000;0.9337;1.4116;
57.6000;0.9345;1.4022;
57.9000;0.9345;1.3975;
58.2000;0.9353;1.4022;
58.5000;0.9361;1.4139;
58.8000;0.9361;1.4116;
59.1000;0.9361;1.4163;
59.4000;0.9345;1.4210;
59.7000;0.9353;1.4327;
60.0000;0.9361;1.4304;
60.3000;0.9377;1.4257;
60.6000;0.9361;1.4186;
60.9000;0.9369;1.4163;
61.2000;0.9369;1.4163;
61.5000;0.9402;1.4139;
61.8000;0.9369;1.4045;
62.1000;0.9385;1.4069;
62.4000;0.9410;1.4186;
62.7000;0.9394;1.4210;
63.0000;0.9394;1.4233;
63.3000;0.9475;1.4327;
63.6000;0.9394;1.4116;
63.9000;0.9385;1.4045;
64.2000;0.9369;1.3904;
64.5000;0.9410;1.4045;
64.8000;0.9385;1.4022;
65.1000;0.9410;1.3998;
65.4000;0.9402;1.3951;
65.7000;0.9369;1.3904;
66.0000;0.9402;1.3998;
66.3000;0.9402;1.4022;
66.6000;0.9385;1.4045;
66.9000;0.9394;1.4045;
67.2000;0.9418;1.4069;
67.5000;0.9442;1.4045;
67.8000;0.9451;1.4116;
68.1000;0.9434;1.3998;
68.4000;0.9434;1.3975;
68.7000;0.9434;1.3975;
69.0000;0.9434;1.3927;
69.3000;0.9442;1.4045;
69.6000;0.9451;1.4045;
69.9000;0.9442;1.3951;
70.2000;0.9442;1.3951;
70.5000;0.9410;1.3833;
70.8000;0.9459;1.3998;
71.1000;0.9459;1.3975;
71.4000;0.9434;1.3951;
71.7000;0.9467;1.3975;
72.0000;0.9418;1.3880;
72.3000;0.9491;1.4069;
72.6000;0.9467;1.3998;
72.9000;0.9491;1.4045;
73.2000;0.9467;1.4092;
73.5000;0.9459;1.4139;
73.8000;0.9475;1.4233;
74.1000;0.9475;1.4116;
74.4000;0.9475;1.4045;
74.7000;0.9483;1.3998;
75.0000;0.9475;1.3951;
75.3000;0.9483;1.3880;
75.6000;0.9459;1.3763;
75.9000;0.9475;1.3786;
76.2000;0.9483;1.3951;
76.5000;0.9499;1.3951;
76.8000;0.9491;1.3857;
77.1000;0.9491;1.3904;
77.4000;0.9499;1.3880;
77.7000;0.9459;1.3763;
78.0000;0.9508;1.3857;
78.3000;0.9499;1.3833;
78.6000;0.9508;1.3833;
78.9000;0.9499;1.3810;
79.2000;0.9516;1.3880;
79.5000;0.9516;1.3833;
79.8000;0.9516;1.3904;
80.1000;0.9516;1.3951;
80.4000;0.9524;1.3975;
80.7000;0.9532;1.3998;
81.0000;0.9508;1.3951;
81.3000;0.9540;1.3998;
81.6000;0.9524;1.3975;
81.9000;0.9524;1.3951;
82.2000;0.9524;1.3998;
82.5000;0.9524;1.3904;
82.8000;0.9532;1.3880;
83.1000;0.9540;1.3810;
83.4000;0.9524;1.3763;
83.7000;0.9581;1.3904;
84.0000;0.9516;1.3857;
84.3000;0.9556;1.3998;
84.6000;0.9516;1.3951;
84.9000;0.9581;1.4116;
85.2000;0.9483;1.3880;
85.5000;0.9499;1.3975;
85.8000;0.9524;1.4092;
86.1000;0.9532;1.4116;
86.4000;0.9508;1.4045;
86.7000;0.9540;1.4116;
87.0000;0.9548;1.4045;
87.3000;0.9532;1.4022;
87.6000;0.9532;1.3927;
87.9000;0.9565;1.3904;
88.2000;0.9597;1.4045;
88.5000;0.9540;1.3951;
88.8000;0.9565;1.3975;
89.1000;0.9540;1.3951;
89.4000;0.9556;1.3951;
89.7000;0.9540;1.3927;
90.0000;0.9548;1.3786;
90.3000;0.9556;1.3692;
90.6000;0.9573;1.3739;
90.9000;0.9548;1.3692;
91.2000;0.9540;1.3692;
91.5000;0.9540;1.3716;
91.8000;0.9573;1.3786;
92.1000;0.9565;1.3763;
92.4000;0.9638;1.3857;
92.7000;0.9524;1.3528;
93.0000;0.9597;1.3645;
93.3000;0.9597;1.3645;
93.6000;0.9565;1.3598;
93.9000;0.9581;1.3645;
94.2000;0.9581;1.3669;
94.5000;0.9540;1.3528;
94.8000;0.9589;1.3669;
95.1000;0.9565;1.3669;
95.4000;0.9516;1.3457;
95.7000;0.9565;1.3480;
96.0000;0.9597;1.3622;
96.3000;0.9589;1.3551;
96.6000;0.9621;1.3763;
96.9000;0.9605;1.3786;
97.2000;0.9581;1.3739;
97.5000;0.9605;1.3786;
97.8000;0.9581;1.3763;
98.1000;0.9630;1.3763;
98.4000;0.9548;1.3692;
98.7000;0.9597;1.3810;
99.0000;0.9597;1.3810;
99.3000;0.9613;1.3786;
99.6000;0.9613;1.3810;
99.9000;0.9597;1.3833;
100.2000;0.9605;1.3810;
100.5000;0.9589;1.3786;
100.8000;0.9638;1.3739;
101.1000;0.9605;1.3598;
101.4000;0.9605;1.3528;
101.7000;0.9621;1.3480;
102.0000;0.9621;1.3598;
102.3000;0.9621;1.3598;
102.6000;0.9597;1.3622;
102.9000;0.9589;1.3622;
103.2000;0.9581;1.3622;
103.5000;0.9613;1.3716;
103.8000;0.9719;1.3951;
104.1000;0.9670;1.3786;
104.4000;0.9613;1.3598;
104.7000;0.9613;1.3669;
105.0000;0.9646;1.3786;
105.3000;0.9613;1.3763;
105.6000;0.9621;1.3669;
105.9000;0.9630;1.3645;
106.2000;0.9613;1.3575;
106.5000;0.9638;1.3551;
106.8000;0.9613;1.3410;
107.1000;0.9638;1.3457;
107.4000;0.9556;1.3292;
107.7000;0.9613;1.3433;
108.0000;0.9613;1.3528;
108.3000;0.9638;1.3598;
108.6000;0.9630;1.3551;
108.9000;0.9621;1.3551;
109.2000;0.9719;1.3810;
109.5000;0.9621;1.3622;
109.8000;0.9605;1.3598;
110.1000;0.9621;1.3645;
110.4000;0.9670;1.3716;
110.7000;0.9630;1.3622;
111.0000;0.9646;1.3622;
111.3000;0.9662;1.3575;
111.6000;0.9621;1.3504;
111.9000;0.9605;1.3504;
112.2000;0.9630;1.3528;
112.5000;0.9621;1.3433;
112.8000;0.9638;1.3433;
113.1000;0.9638;1.3433;
113.4000;0.9654;1.3433;
113.7000;0.9638;1.3433;
114.0000;0.9630;1.3480;
114.3000;0.9735;1.3810;
114.6000;0.9621;1.3528;
114.9000;0.9621;1.3528;
115.2000;0.9654;1.3528;
115.5000;0.9662;1.3480;
115.8000;0.9662;1.3433;
116.1000;0.9646;1.3433;
116.4000;0.9695;1.3504;
116.7000;0.9630;1.3363;
117.0000;0.9597;1.3151;
117.3000;0.9613;1.3198;
117.6000;0.9654;1.3316;
117.9000;0.9662;1.3269;
118.2000;0.9654;1.3269;
118.5000;0.9646;1.3292;
118.8000;0.9670;1.3339;
119.1000;0.9654;1.3269;
119.4000;0.9654;1.3316;
119.7000;0.9662;1.3292;
120.0000;0.9646;1.3316;
120.3000;0.9654;1.3363;
120.6000;0.9646;1.3363;
120.9000;0.9646;1.3386;
121.2000;0.9662;1.3433;
121.5000;0.9662;1.3504;
121.8000;0.9646;1.3480;
122.1000;0.9670;1.3528;
122.4000;0.9670;1.3551;
122.7000;0.9670;1.3575;
123.0000;0.9711;1.3622;
123.3000;0.9654;1.3528;
123.6000;0.9654;1.3528;
123.9000;0.9687;1.3669;
124.2000;0.9678;1.3669;
124.5000;0.9654;1.3716;
124.8000;0.9646;1.3575;
125.1000;0.9638;1.3598;
125.4000;0.9662;1.3504;
125.7000;0.9621;1.3316;
126.0000;0.9678;1.3410;
126.3000;0.9687;1.3457;
126.6000;0.9760;1.3622;
126.9000;0.9670;1.3480;
127.2000;0.9678;1.3457;
127.5000;0.9703;1.3457;
127.8000;0.9678;1.3363;
128.1000;0.9654;1.3269;
128.4000;0.9695;1.3316;
128.7000;0.9662;1.3245;
129.0000;0.9646;1.3128;
129.3000;0.9687;1.3410;
129.6000;0.9670;1.3457;
129.9000;0.9670;1.3480;
130.2000;0.9695;1.3598;
130.5000;0.9670;1.3504;
130.8000;0.9670;1.3433;
131.1000;0.9678;1.3386;
131.4000;0.9678;1.3480;
131.7000;0.9670;1.3433;
132.0000;0.9687;1.3528;
132.3000;0.9613;1.3386;
132.6000;0.9687;1.3528;
132.9000;0.9654;1.3457;
133.2000;0.9670;1.3551;
133.5000;0.9662;1.3480;
133.8000;0.9654;1.3386;
134.1000;0.9695;1.3410;
134.4000;0.9703;1.3386;
134.7000;0.9695;1.3363;
135.0000;0.9744;1.3504;
135.3000;0.9687;1.3339;
135.6000;0.9687;1.3292;
135.9000;0.9678;1.3433;
136.2000;0.9711;1.3528;
136.5000;0.9711;1.3551;
136.8000;0.9687;1.3457;
137.1000;0.9703;1.3433;
137.4000;0.9695;1.3457;
137.7000;0.9719;1.3575;
138.0000;0.9711;1.3551;
138.3000;0.9703;1.3551;
138.6000;0.9678;1.3457;
138.9000;0.9695;1.3598;
139.2000;0.9719;1.3622;
139.5000;0.9711;1.3504;
139.8000;0.9703;1.3575;
140.1000;0.9703;1.3504;
140.4000;0.9727;1.3504;
140.7000;0.9703;1.3433;
141.0000;0.9695;1.3457;
141.3000;0.9695;1.3410;
141.6000;0.9703;1.3433;
141.9000;0.9703;1.3410;
142.2000;0.9695;1.3339;
142.5000;0.9695;1.3410;
142.8000;0.9695;1.3339;
143.1000;0.9703;1.3363;
143.4000;0.9678;1.3339;
143.7000;0.9670;1.3339;
144.0000;0.9687;1.3339;
144.3000;0.9711;1.3339;
144.6000;0.9703;1.3222;
144.9000;0.9695;1.3269;
145.2000;0.9678;1.3269;
145.5000;0.9719;1.3363;
145.8000;0.9687;1.3316;
146.1000;0.9711;1.3410;
146.4000;0.9703;1.3292;
146.7000;0.9711;1.3339;
147.0000;0.9703;1.3175;
147.3000;0.9703;1.3104;
147.6000;0.9646;1.2986;
147.9000;0.9711;1.3128;
148.2000;0.9670;1.3151;
148.5000;0.9711;1.3269;
148.8000;0.9687;1.3245;
149.1000;0.9711;1.3339;
149.4000;0.9695;1.3175;
149.7000;0.9711;1.3269;
150.0000;0.9687;1.3245;
150.3000;0.9703;1.3222;
150.6000;0.9719;1.3198;
150.9000;0.9711;1.3175;
151.2000;0.9744;1.3269;
151.5000;0.9719;1.3198;
151.8000;0.9719;1.3245;
152.1000;0.9833;1.3528;
152.4000;0.9695;1.3339;
152.7000;0.9719;1.3386;
153.0000;0.9735;1.3457;
153.3000;0.9776;1.3551;
153.6000;0.9695;1.3339;
153.9000;0.9760;1.3457;
154.2000;0.9719;1.3269;
154.5000;0.9703;1.3269;
154.8000;0.9711;1.3198;
155.1000;0.9678;1.3175;
155.4000;0.9784;1.3433;
155.7000;0.9695;1.3245;
156.0000;0.9719;1.3316;
156.3000;0.9662;1.3175;
156.6000;0.9695;1.3198;
156.9000;0.9784;1.3410;
157.2000;0.9744;1.3316;
157.5000;0.9711;1.3269;
157.8000;0.9703;1.3339;
158.1000;0.9703;1.3363;
158.4000;0.9695;1.3410;
158.7000;0.9654;1.3245;
159.0000;0.9711;1.3339;
159.3000;0.9703;1.3316;
159.6000;0.9719;1.3410;
159.9000;0.9703;1.3457;
160.2000;0.9695;1.3363;
160.5000;0.9695;1.3386;
160.8000;0.9744;1.3410;
161.1000;0.9719;1.3292;
161.4000;0.9703;1.3269;
161.7000;0.9719;1.3386;
162.0000;0.9711;1.3316;
162.3000;0.9719;1.3386;
162.6000;0.9719;1.3339;
162.9000;0.9703;1.3269;
163.2000;0.9719;1.3339;
163.5000;0.9719;1.3386;
163.8000;0.9703;1.3410;
164.1000;0.9703;1.3457;
164.4000;0.9703;1.3433;
164.7000;0.9711;1.3386;
165.0000;0.9703;1.3339;
165.3000;0.9727;1.3316;
165.6000;0.9695;1.3198;
165.9000;0.9711;1.3245;
166.2000;0.9719;1.3363;
166.5000;0.9727;1.3363;
166.8000;0.9727;1.3339;
167.1000;0.9744;1.3363;
167.4000;0.9727;1.3339;
167.7000;0.9735;1.3339;
168.0000;0.9719;1.3269;
168.3000;0.9727;1.3175;
168.6000;0.9727;1.3175;
168.9000;0.9719;1.3269;
169.2000;0.9711;1.3269;
169.5000;0.9711;1.3198;
169.8000;0.9752;1.3128;
170.1000;0.9735;1.3198;
170.4000;0.9703;1.3175;
170.7000;0.9735;1.3363;
171.0000;0.9735;1.3316;
171.3000;0.9719;1.3316;
171.6000;0.9744;1.3433;
171.9000;0.9727;1.3433;
172.2000;0.9744;1.3480;
172.5000;0.9727;1.3504;
172.8000;0.9735;1.3480;
173.1000;0.9703;1.3410;
173.4000;0.9719;1.3457;
173.7000;0.9719;1.3433;
174.0000;0.9719;1.3386;
174.3000;0.9719;1.3410;
174.6000;0.9711;1.3386;
174.9000;0.9727;1.3410;
175.2000;0.9719;1.3386;
175.5000;0.9727;1.3410;
175.8000;0.9727;1.3551;
176.1000;0.9703;1.3457;
176.4000;0.9703;1.3457;
176.7000;0.9727;1.3528;
177.0000;0.9654;1.3269;
177.3000;0.9727;1.3410;
177.6000;0.9727;1.3386;
177.9000;0.9727;1.3480;
178.2000;0.9719;1.3433;
178.5000;0.9703;1.3245;
178.8000;0.9711;1.3175;
179.1000;0.9727;1.3198;
179.4000;0.9678;1.3104;
179.7000;0.9703;1.3104;
180.0000;0.9711;1.3175;
180.3000;0.9695;1.3175;
180.6000;0.9703;1.3222;
180.9000;0.9703;1.3222;
181.2000;0.9703;1.3222;
181.5000;0.9719;1.3292;
181.8000;0.9727;1.3292;
182.1000;0.9744;1.3410;
182.4000;0.9662;1.3292;
182.7000;0.9727;1.3457;
183.0000;0.9727;1.3410;
183.3000;0.9711;1.3363;
183.6000;0.9727;1.3410;
183.9000;0.9719;1.3410;
184.2000;0.9727;1.3386;
184.5000;0.9695;1.3363;
184.8000;0.9719;1.3433;
185.1000;0.9711;1.3410;
185.4000;0.9719;1.3410;
185.7000;0.9703;1.3339;
186.0000;0.9776;1.3480;
186.3000;0.9719;1.3339;
186.6000;0.9744;1.3316;
186.9000;0.9744;1.3269;
187.2000;0.9711;1.3151;
187.5000;0.9654;1.2963;
187.8000;0.9735;1.3151;
188.1000;0.9727;1.3104;
188.4000;0.9711;1.3104;
188.7000;0.9662;1.2916;
189.0000;0.9735;1.3104;
189.3000;0.9744;1.3175;
189.6000;0.9735;1.3292;
189.9000;0.9662;1.3128;
190.2000;0.9735;1.3175;
190.5000;0.9752;1.3269;
190.8000;0.9735;1.3316;
191.1000;0.9719;1.3245;
191.4000;0.9727;1.3269;
191.7000;0.9744;1.3269;
192.0000;0.9711;1.3198;
192.3000;0.9727;1.3175;
192.6000;0.9727;1.3222;
192.9000;0.9719;1.3175;
193.2000;0.9719;1.3175;
193.5000;0.9711;1.3081;
193.8000;0.9711;1.3104;
194.1000;0.9752;1.3222;
194.4000;0.9719;1.3104;
194.7000;0.9727;1.3081;
195.0000;0.9727;1.3081;
195.3000;0.9744;1.3151;
195.6000;0.9678;1.3081;
195.9000;0.9719;1.3245;
196.2000;0.9711;1.3245;
196.5000;0.9719;1.3222;
196.8000;0.9719;1.3175;
197.1000;0.9719;1.3151;
197.4000;0.9752;1.3151;
197.7000;0.9776;1.3151;
198.0000;0.9695;1.3057;
198.3000;0.9744;1.3128;
198.6000;0.9752;1.3128;
198.9000;0.9727;1.3057;
199.2000;0.9719;1.3081;
199.5000;0.9735;1.3151;
199.8000;0.9719;1.3222;
200.1000;0.9727;1.3245;
200.4000;0.9711;1.3175;
200.7000;0.9735;1.3269;
201.0000;0.9727;1.3316;
201.3000;0.9727;1.3339;
201.6000;0.9703;1.3339;
201.9000;0.9727;1.3386;
202.2000;0.9727;1.3433;
202.5000;0.9727;1.3410;
202.8000;0.9711;1.3386;
203.1000;0.9735;1.3433;
203.4000;0.9719;1.3386;
203.7000;0.9670;1.3269;
204.0000;0.9711;1.3363;
204.3000;0.9719;1.3386;
204.6000;0.9727;1.3433;
204.9000;0.9719;1.3457;
205.2000;0.9719;1.3551;
205.5000;0.9695;1.3504;
205.8000;0.9719;1.3528;
206.1000;0.9711;1.3386;
206.4000;0.9695;1.3410;
206.7000;0.9711;1.3433;
207.0000;0.9711;1.3480;
207.3000;0.9711;1.3480;
207.6000;0.9678;1.3386;
207.9000;0.9695;1.3363;
208.2000;0.9727;1.3457;
208.5000;0.9858;1.3857;
208.8000;0.9711;1.3480;
209.1000;0.9760;1.3551;
209.4000;0.9735;1.3457;
209.7000;0.9727;1.3528;
210.0000;0.9735;1.3504;
210.3000;0.9719;1.3528;
210.6000;0.9727;1.3528;
210.9000;0.9735;1.3504;
211.2000;0.9735;1.3457;
211.5000;0.9727;1.3363;
211.8000;0.9727;1.3339;
212.1000;0.9727;1.3363;
212.4000;0.9719;1.3410;
212.7000;0.9703;1.3269;
213.0000;0.9711;1.3245;
213.3000;0.9735;1.3292;
213.6000;0.9735;1.3339;
213.9000;0.9727;1.3292;
214.2000;0.9695;1.3222;
214.5000;0.9711;1.3269;
214.8000;0.9719;1.3363;
215.1000;0.9719;1.3316;
215.4000;0.9711;1.3316;
215.7000;0.9727;1.3339;
216.0000;0.9719;1.3363;
216.3000;0.9711;1.3245;
216.6000;0.9711;1.3292;
216.9000;0.9703;1.3245;
217.2000;0.9719;1.3269;
217.5000;0.9711;1.3292;
217.8000;0.9735;1.3316;
218.1000;0.9735;1.3410;
218.4000;0.9727;1.3339;
218.7000;0.9735;1.3363;
219.0000;0.9744;1.3433;
219.3000;0.9719;1.3363;
219.6000;0.9727;1.3410;
219.9000;0.9719;1.3433;
220.2000;0.9719;1.3433;
220.5000;0.9703;1.3363;
220.8000;0.9719;1.3339;
221.1000;0.9727;1.3480;
221.4000;0.9727;1.3363;
221.7000;0.9703;1.3269;
222.0000;0.9711;1.3269;
222.3000;0.9727;1.3316;
222.6000;0.9744;1.3363;
222.9000;0.9727;1.3339;
223.2000;0.9752;1.3410;
223.5000;0.9744;1.3363;
223.8000;0.9752;1.3457;
224.1000;0.9735;1.3528;
224.4000;0.9735;1.3504;
224.7000;0.9760;1.3410;
225.0000;0.9744;1.3292;
225.3000;0.9727;1.3245;
225.6000;0.9809;1.3410;
225.9000;0.9711;1.3245;
226.2000;0.9695;1.3222;
226.5000;0.9727;1.3245;
226.8000;0.9760;1.3339;
227.1000;0.9719;1.3245;
227.4000;0.9735;1.3245;
227.7000;0.9589;1.3033;
228.0000;0.9687;1.3269;
228.3000;0.9695;1.3339;
228.6000;0.9776;1.3575;
228.9000;0.9711;1.3504;
229.2000;0.9719;1.3528;
229.5000;0.9703;1.3410;
229.8000;0.9719;1.3528;
230.1000;0.9744;1.3504;
230.4000;0.9613;1.3292;
230.7000;0.9711;1.3504;
231.0000;0.9727;1.3480;
231.3000;0.9727;1.3457;
231.6000;0.9719;1.3480;
231.9000;0.9711;1.3504;
232.2000;0.9703;1.3457;
232.5000;0.9752;1.3528;
232.8000;0.9735;1.3386;
233.1000;0.9703;1.3363;
233.4000;0.9719;1.3316;
233.7000;0.9687;1.3222;
234.0000;0.9744;1.3386;
234.3000;0.9735;1.3410;
234.6000;0.9695;1.3363;
234.9000;0.9727;1.3480;
235.2000;0.9744;1.3457;
235.5000;0.9727;1.3433;
235.8000;0.9711;1.3316;
236.1000;0.9719;1.3339;
236.4000;0.9735;1.3386;
236.7000;0.9735;1.3386;
237.0000;0.9719;1.3433;
237.3000;0.9752;1.3480;
237.6000;0.9744;1.3528;
237.9000;0.9727;1.3551;
238.2000;0.9719;1.3622;
238.5000;0.9727;1.3645;
238.8000;0.9719;1.3622;
239.1000;0.9744;1.3669;
239.4000;0.9752;1.3763;
239.7000;0.9719;1.3645;
240.0000;0.9719;1.3575;
240.3000;0.9719;1.3480;
240.6000;0.9735;1.3504;
240.9000;0.9727;1.3410;
241.2000;0.9727;1.3480;
241.5000;0.9719;1.3528;
241.8000;0.9727;1.3551;
242.1000;0.9792;1.3645;
242.4000;0.9760;1.3528;
242.7000;0.9727;1.3480;
243.0000;0.9727;1.3504;
243.3000;0.9735;1.3457;
243.6000;0.9727;1.3457;
243.9000;0.9727;1.3363;
244.2000;0.9727;1.3410;
244.5000;0.9760;1.3457;
244.8000;0.9711;1.3410;
245.1000;0.9744;1.3410;
245.4000;0.9752;1.3433;
245.7000;0.9752;1.3598;
246.0000;0.9727;1.3575;
246.3000;0.9744;1.3692;
246.6000;0.9711;1.3575;
246.9000;0.9727;1.3598;
247.2000;0.9695;1.3504;
247.5000;0.9711;1.3504;
247.8000;0.9760;1.3598;
248.1000;0.9719;1.3598;
248.4000;0.9735;1.3692;
248.7000;0.9703;1.3528;
249.0000;0.9711;1.3480;
249.3000;0.9833;1.3669;
249.6000;0.9719;1.3410;
249.9000;0.9727;1.3504;
250.2000;0.9711;1.3433;
250.5000;0.9727;1.3433;
250.8000;0.9784;1.3622;
251.1000;0.9703;1.3433;
251.4000;0.9711;1.3504;
251.7000;0.9752;1.3692;
252.0000;0.9719;1.3598;
252.3000;0.9703;1.3528;
252.6000;0.9695;1.3575;
252.9000;0.9695;1.3645;
253.2000;0.9687;1.3645;
253.5000;0.9703;1.3716;
253.8000;0.9719;1.3669;
254.1000;0.9719;1.3598;
254.4000;0.9719;1.3598;
254.7000;0.9703;1.3598;
255.0000;0.9703;1.3645;
255.3000;0.9711;1.3692;
255.6000;0.9744;1.3739;
255.9000;0.9719;1.3716;
256.2000;0.9719;1.3786;
256.5000;0.9662;1.3575;
256.8000;0.9735;1.3575;
257.1000;0.9727;1.3645;
257.4000;0.9719;1.3622;
257.7000;0.9662;1.3386;
258.0000;0.9727;1.3457;
258.3000;0.9760;1.3598;
258.6000;0.9727;1.3598;
258.9000;0.9719;1.3622;
259.2000;0.9711;1.3598;
259.5000;0.9727;1.3598;
259.8000;0.9727;1.3551;
260.1000;0.9719;1.3480;
260.4000;0.9727;1.3480;
260.7000;0.9727;1.3480;
261.0000;0.9719;1.3480;
261.3000;0.9727;1.3433;
261.6000;0.9719;1.3386;
261.9000;0.9727;1.3410;
262.2000;0.9727;1.3433;
262.5000;0.9711;1.3386;
262.8000;0.9719;1.3480;
263.1000;0.9711;1.3457;
263.4000;0.9735;1.3575;
263.7000;0.9719;1.3551;
264.0000;0.9711;1.3598;
264.3000;0.9703;1.3692;
264.6000;0.9792;1.3810;
264.9000;0.9703;1.3598;
265.2000;0.9727;1.3598;
265.5000;0.9719;1.3622;
265.8000;0.9711;1.3598;
266.1000;0.9727;1.3645;
266.4000;0.9711;1.3598;
266.7000;0.9711;1.3598;
267.0000;0.9703;1.3575;
267.3000;0.9687;1.3457;
267.6000;0.9703;1.3480;
267.9000;0.9719;1.3528;
268.2000;0.9801;1.3763;
268.5000;0.9760;1.3645;
268.8000;0.9719;1.3575;
269.1000;0.9711;1.3716;
269.4000;0.9727;1.3763;
269.7000;0.9727;1.3833;
270.0000;0.9719;1.3810;
270.3000;0.9727;1.3857;
270.6000;0.9711;1.3833;
270.9000;0.9703;1.3927;
271.2000;0.9719;1.4069;
271.5000;0.9711;1.3927;
271.8000;0.9735;1.3951;
272.1000;0.9784;1.4139;
272.4000;0.9719;1.3951;
272.7000;0.9719;1.3857;
273.0000;0.9752;1.3904;
273.3000;0.9703;1.3786;
273.6000;0.9687;1.3692;
273.9000;0.9695;1.3763;
274.2000;0.9711;1.3716;
274.5000;0.9711;1.3739;
274.8000;0.9711;1.3692;
275.1000;0.9695;1.3669;
275.4000;0.9719;1.3739;
275.7000;0.9735;1.3810;
276.0000;0.9703;1.3763;
276.3000;0.9687;1.3645;
276.6000;0.9711;1.3739;
276.9000;0.9719;1.3716;
277.2000;0.9703;1.3669;
277.5000;0.9727;1.3692;
277.8000;0.9687;1.3622;
278.1000;0.9711;1.3669;
278.4000;0.9727;1.3810;
278.7000;0.9711;1.3857;
279.0000;0.9703;1.3763;
279.3000;0.9735;1.3763;
279.6000;0.9703;1.3692;
279.9000;0.9703;1.3692;
280.2000;0.9735;1.3669;
280.5000;0.9711;1.3457;
280.8000;0.9719;1.3363;
281.1000;0.9703;1.3292;
281.4000;0.9727;1.3316;
281.7000;0.9719;1.3316;
282.0000;0.9711;1.3292;
282.3000;0.9727;1.3433;
282.6000;0.9670;1.3316;
282.9000;0.9703;1.3433;
283.2000;0.9768;1.3622;
283.5000;0.9703;1.3457;
283.8000;0.9703;1.3504;
284.1000;0.9711;1.3528;
284.4000;0.9678;1.3504;
284.7000;0.9695;1.3504;
285.0000;0.9711;1.3504;
285.3000;0.9703;1.3433;
285.6000;0.9695;1.3457;
285.9000;0.9695;1.3457;
286.2000;0.9719;1.3504;
286.5000;0.9817;1.3692;
286.8000;0.9719;1.3480;
287.1000;0.9719;1.3575;
287.4000;0.9662;1.3457;
287.7000;0.9711;1.3645;
288.0000;0.9703;1.3669;
288.3000;0.9695;1.3763;
288.6000;0.9630;1.3528;
288.9000;0.9703;1.3622;
289.2000;0.9719;1.3622;
289.5000;0.9687;1.3645;
289.8000;0.9703;1.3575;
290.1000;0.9654;1.3504;
290.4000;0.9711;1.3622;
290.7000;0.9703;1.3551;
291.0000;0.9711;1.3551;
291.3000;0.9735;1.3739;
291.6000;0.9711;1.3692;
291.9000;0.9711;1.3645;
292.2000;0.9711;1.3645;
292.5000;0.9719;1.3763;
292.8000;0.9703;1.3645;
293.1000;0.9711;1.3669;
293.4000;0.9703;1.3669;
293.7000;0.9703;1.3598;
294.0000;0.9727;1.3622;
294.3000;0.9695;1.3622;
294.6000;0.9703;1.3622;
294.9000;0.9695;1.3598;
295.2000;0.9695;1.3622;
295.5000;0.9695;1.3622;
295.8000;0.9695;1.3645;
296.1000;0.9687;1.3575;
296.4000;0.9703;1.3551;
296.7000;0.9703;1.3480;
297.0000;0.9703;1.3457;
297.3000;0.9695;1.3410;
297.6000;0.9662;1.3410;
297.9000;0.9711;1.3575;
298.2000;0.9752;1.3692;
298.5000;0.9670;1.3480;
298.8000;0.9735;1.3622;
299.1000;0.9703;1.3598;
299.4000;0.9678;1.3480;
299.7000;0.9670;1.3433;
300.0000;0.9695;1.3457;
300.3000;0.9695;1.3457;
300.6000;0.9727;1.3551;
300.9000;0.9695;1.3480;
301.2000;0.9703;1.3480;
301.5000;0.9678;1.3363;
301.8000;0.9711;1.3433;
302.1000;0.9711;1.3457;
302.4000;0.9695;1.3339;
302.7000;0.9687;1.3386;
303.0000;0.9703;1.3551;
303.3000;0.9719;1.3598;
303.6000;0.9654;1.3386;
303.9000;0.9678;1.3504;
304.2000;0.9654;1.3410;
304.5000;0.9695;1.3551;
304.8000;0.9711;1.3504;
305.1000;0.9695;1.3433;
305.4000;0.9695;1.3363;
305.7000;0.9703;1.3339;
306.0000;0.9727;1.3386;
306.3000;0.9687;1.3339;
306.6000;0.9784;1.3551;
306.9000;0.9727;1.3386;
307.2000;0.9695;1.3316;
307.5000;0.9711;1.3363;
307.8000;0.9695;1.3386;
308.1000;0.9727;1.3410;
308.4000;0.9719;1.3386;
308.7000;0.9695;1.3386;
309.0000;0.9687;1.3386;
309.3000;0.9711;1.3433;
309.6000;0.9670;1.3386;
309.9000;0.9703;1.3480;
310.2000;0.9695;1.3504;
310.5000;0.9735;1.3575;
310.8000;0.9727;1.3575;
311.1000;0.9687;1.3433;
311.4000;0.9654;1.3386;
311.7000;0.9703;1.3410;
312.0000;0.9711;1.3410;
312.3000;0.9711;1.3386;
312.6000;0.9695;1.3386;
312.9000;0.9695;1.3386;
313.2000;0.9703;1.3504;
313.5000;0.9695;1.3551;
313.8000;0.9670;1.3575;
314.1000;0.9662;1.3551;
314.4000;0.9703;1.3645;
314.7000;0.9711;1.3645;
315.0000;0.9670;1.3551;
315.3000;0.9678;1.3551;
315.6000;0.9678;1.3598;
315.9000;0.9695;1.3575;
316.2000;0.9687;1.3480;
316.5000;0.9654;1.3433;
316.8000;0.9687;1.3598;
317.1000;0.9695;1.3622;
317.4000;0.9646;1.3339;
317.7000;0.9695;1.3410;
318.0000;0.9695;1.3410;
318.3000;0.9695;1.3410;
318.6000;0.9719;1.3480;
318.9000;0.9711;1.3433;
319.2000;0.9801;1.3622;
319.5000;0.9703;1.3363;
319.8000;0.9687;1.3433;
320.1000;0.9711;1.3504;
320.4000;0.9670;1.3480;
320.7000;0.9695;1.3457;
321.0000;0.9695;1.3504;
321.3000;0.9703;1.3575;
321.6000;0.9809;1.3763;
321.9000;0.9703;1.3457;
322.2000;0.9654;1.3410;
322.5000;0.9654;1.3386;
322.8000;0.9687;1.3457;
323.1000;0.9687;1.3433;
323.4000;0.9695;1.3457;
323.7000;0.9703;1.3433;
324.0000;0.9695;1.3386;
324.3000;0.9703;1.3457;
324.6000;0.9678;1.3433;
324.9000;0.9670;1.3480;
325.2000;0.9703;1.3575;
325.5000;0.9687;1.3622;
325.8000;0.9703;1.3551;
326.1000;0.9703;1.3457;
326.4000;0.9687;1.3410;
326.7000;0.9711;1.3551;
327.0000;0.9703;1.3598;
327.3000;0.9678;1.3528;
327.6000;0.9695;1.3575;
327.9000;0.9695;1.3504;
328.2000;0.9687;1.3504;
328.5000;0.9703;1.3575;
328.8000;0.9678;1.3551;
329.1000;0.9695;1.3622;
329.4000;0.9695;1.3622;
329.7000;0.9735;1.3716;
330.0000;0.9695;1.3575;
330.3000;0.9695;1.3622;
330.6000;0.9638;1.3457;
330.9000;0.9703;1.3575;
331.2000;0.9703;1.3551;
331.5000;0.9703;1.3457;
331.8000;0.9687;1.3363;
332.1000;0.9719;1.3410;
332.4000;0.9654;1.3363;
332.7000;0.9695;1.3480;
333.0000;0.9695;1.3480;
333.3000;0.9695;1.3433;
333.6000;0.9687;1.3480;
333.9000;0.9703;1.3528;
334.2000;0.9678;1.3504;
334.5000;0.9711;1.3528;
334.8000;0.9719;1.3575;
335.1000;0.9678;1.3433;
335.4000;0.9695;1.3457;
335.7000;0.9670;1.3433;
336.0000;0.9678;1.3386;
336.3000;0.9703;1.3410;
336.6000;0.9678;1.3292;
336.9000;0.9678;1.3245;
337.2000;0.9695;1.3269;
337.5000;0.9670;1.3339;
337.8000;0.9654;1.3316;
338.1000;0.9678;1.3269;
338.4000;0.9670;1.3316;
338.7000;0.9670;1.3386;
339.0000;0.9687;1.3410;
339.3000;0.9687;1.3480;
339.6000;0.9646;1.3386;
339.9000;0.9703;1.3480;
340.2000;0.9654;1.3339;
340.5000;0.9670;1.3292;
340.8000;0.9654;1.3386;
341.1000;0.9784;1.3598;
341.4000;0.9703;1.3504;
341.7000;0.9695;1.3480;
342.0000;0.9695;1.3551;
342.3000;0.9662;1.3480;
342.6000;0.9703;1.3551;
342.9000;0.9678;1.3669;
343.2000;0.9630;1.3575;
343.5000;0.9678;1.3716;
343.8000;0.9638;1.3575;
344.1000;0.9719;1.3739;
344.4000;0.9678;1.3622;
344.7000;0.9646;1.3551;
345.0000;0.9695;1.3551;
345.3000;0.9670;1.3551;
345.6000;0.9678;1.3551;
345.9000;0.9727;1.3645;
346.2000;0.9662;1.3457;
346.5000;0.9687;1.3480;
346.8000;0.9678;1.3480;
347.1000;0.9678;1.3551;
347.4000;0.9670;1.3528;
347.7000;0.9695;1.3598;
348.0000;0.9670;1.3504;
348.3000;0.9670;1.3480;
348.6000;0.9662;1.3480;
348.9000;0.9687;1.3645;
349.2000;0.9678;1.3575;
349.5000;0.9687;1.3433;
349.8000;0.9662;1.3386;
350.1000;0.9687;1.3457;
350.4000;0.9662;1.3410;
350.7000;0.9687;1.3528;
351.0000;0.9719;1.3598;
351.3000;0.9678;1.3575;
351.6000;0.9638;1.3457;
351.9000;0.9687;1.3528;
352.2000;0.9654;1.3433;
352.5000;0.9678;1.3433;
352.8000;0.9711;1.3551;
353.1000;0.9703;1.3551;
353.4000;0.9678;1.3504;
353.7000;0.9687;1.3598;
354.0000;0.9703;1.3669;
354.3000;0.9695;1.3645;
354.6000;0.9703;1.3622;
354.9000;0.9695;1.3504;
355.2000;0.9687;1.3551;
355.5000;0.9695;1.3598;
355.8000;0.9703;1.3551;
356.1000;0.9687;1.3598;
356.4000;0.9678;1.3504;
356.7000;0.9687;1.3504;
357.0000;0.9678;1.3504;
357.3000;0.9654;1.3457;
357.6000;0.9670;1.3410;
357.9000;0.9687;1.3528;
358.2000;0.9662;1.3457;
358.5000;0.9654;1.3339;
358.8000;0.9687;1.3363;
359.1000;0.9678;1.3386;
359.4000;0.9719;1.3480;
359.7000;0.9670;1.3433;
360.0000;0.9670;1.3457;
360.3000;0.9662;1.3386;
360.6000;0.9613;1.3269;
360.9000;0.9687;1.3480;
361.2000;0.9678;1.3598;
361.5000;0.9630;1.3457;
361.8000;0.9670;1.3480;
362.1000;0.9670;1.3528;
362.4000;0.9687;1.3504;
362.7000;0.9597;1.3292;
363.0000;0.9687;1.3528;
363.3000;0.9646;1.3480;
363.6000;0.9670;1.3551;
363.9000;0.9646;1.3433;
364.2000;0.9581;1.3198;
364.5000;0.9719;1.3551;
364.8000;0.9670;1.3528;
365.1000;0.9744;1.3716;
365.4000;0.9735;1.3575;
365.7000;0.9735;1.3551;
366.0000;0.9695;1.3598;
366.3000;0.9695;1.3716;
366.6000;0.9703;1.3763;
366.9000;0.9711;1.3810;
367.2000;0.9687;1.3763;
367.5000;0.9654;1.3692;
367.8000;0.9670;1.3716;
368.1000;0.9654;1.3669;
368.4000;0.9613;1.3504;
368.7000;0.9695;1.3763;
369.0000;0.9670;1.3833;
369.3000;0.9670;1.3786;
369.6000;0.9662;1.3692;
369.9000;0.9670;1.3692;
370.2000;0.9654;1.3739;
370.5000;0.9678;1.3692;
370.8000;0.9670;1.3669;
371.1000;0.9678;1.3669;
371.4000;0.9695;1.3669;
371.7000;0.9670;1.3622;
372.0000;0.9670;1.3622;
372.3000;0.9670;1.3669;
372.6000;0.9687;1.3692;
372.9000;0.9654;1.3645;
373.2000;0.9678;1.3598;
373.5000;0.9687;1.3551;
373.8000;0.9703;1.3410;
374.1000;0.9646;1.3316;
374.4000;0.9687;1.3433;
374.7000;0.9744;1.3551;
375.0000;0.9678;1.3528;
375.3000;0.9678;1.3528;
375.6000;0.9662;1.3528;
375.9000;0.9687;1.3575;
376.2000;0.9695;1.3504;
376.5000;0.9678;1.3457;
376.8000;0.9662;1.3363;
377.1000;0.9662;1.3292;
377.4000;0.9678;1.3457;
377.7000;0.9678;1.3480;
378.0000;0.9638;1.3433;
378.3000;0.9670;1.3528;
378.6000;0.9695;1.3575;
378.9000;0.9662;1.3528;
379.2000;0.9670;1.3645;
379.5000;0.9670;1.3669;
379.8000;0.9670;1.3622;
380.1000;0.9703;1.3669;
380.4000;0.9654;1.3622;
380.7000;0.9687;1.3763;
381.0000;0.9687;1.3810;
381.3000;0.9784;1.4069;
381.6000;0.9727;1.3810;
381.9000;0.9678;1.3575;
382.2000;0.9678;1.3528;
382.5000;0.9678;1.3575;
382.8000;0.9678;1.3504;
383.1000;0.9654;1.3480;
383.4000;0.9662;1.3551;
383.7000;0.9662;1.3622;
384.0000;0.9687;1.3692;
384.3000;0.9646;1.3528;
384.6000;0.9654;1.3528;
384.9000;0.9687;1.3575;
385.2000;0.9687;1.3575;
385.5000;0.9695;1.3669;
385.8000;0.9630;1.3528;
386.1000;0.9670;1.3716;
386.4000;0.9678;1.3786;
386.7000;0.9654;1.3810;
387.0000;0.9654;1.3763;
387.3000;0.9662;1.3669;
387.6000;0.9695;1.3692;
387.9000;0.9662;1.3645;
388.2000;0.9646;1.3480;
388.5000;0.9670;1.3598;
388.8000;0.9678;1.3528;
389.1000;0.9670;1.3575;
389.4000;0.9670;1.3645;
389.7000;0.9670;1.3622;
390.0000;0.9678;1.3692;
390.3000;0.9662;1.3669;
390.6000;0.9678;1.3716;
390.9000;0.9654;1.3716;
391.2000;0.9630;1.3598;
391.5000;0.9670;1.3786;
391.8000;0.9670;1.3833;
392.1000;0.9654;1.3739;
392.4000;0.9727;1.3857;
392.7000;0.9646;1.3645;
393.0000;0.9646;1.3786;
393.3000;0.9654;1.3833;
393.6000;0.9670;1.3833;
393.9000;0.9670;1.3692;
394.2000;0.9646;1.3575;
394.5000;0.9678;1.3716;
394.8000;0.9695;1.3692;
395.1000;0.9654;1.3645;
395.4000;0.9662;1.3598;
395.7000;0.9670;1.3575;
396.0000;0.9662;1.3480;
396.3000;0.9662;1.3480;
396.6000;0.9687;1.3575;
396.9000;0.9670;1.3598;
397.2000;0.9662;1.3622;
397.5000;0.9727;1.3692;
397.8000;0.9662;1.3598;
398.1000;0.9654;1.3669;
398.4000;0.9646;1.3575;
398.7000;0.9662;1.3504;
399.0000;0.9662;1.3669;
399.3000;0.9678;1.3669;
399.6000;0.9646;1.3622;
399.9000;0.9662;1.3645;
400.2000;0.9678;1.3575;
400.5000;0.9638;1.3551;
400.8000;0.9670;1.3504;
401.1000;0.9678;1.3645;
401.4000;0.9678;1.3645;
401.7000;0.9711;1.3622;
402.0000;0.9662;1.3457;
402.3000;0.9670;1.3551;
402.6000;0.9662;1.3504;
402.9000;0.9662;1.3528;
403.2000;0.9646;1.3575;
403.5000;0.9646;1.3598;
403.8000;0.9646;1.3645;
404.1000;0.9646;1.3645;
404.4000;0.9613;1.3528;
404.7000;0.9678;1.3739;
405.0000;0.9638;1.3669;
405.3000;0.9540;1.3457;
405.6000;0.9670;1.3669;
405.9000;0.9654;1.3645;
406.2000;0.9646;1.3669;
406.5000;0.9654;1.3763;
406.8000;0.9678;1.3786;
407.1000;0.9662;1.3786;
407.4000;0.9662;1.3763;
407.7000;0.9638;1.3716;
408.0000;0.9646;1.3716;
408.3000;0.9646;1.3786;
408.6000;0.9654;1.3739;
408.9000;0.9670;1.3786;
409.2000;0.9654;1.3669;
409.5000;0.9670;1.3692;
409.8000;0.9662;1.3645;
410.1000;0.9662;1.3739;
410.4000;0.9638;1.3622;
410.7000;0.9638;1.3692;
411.0000;0.9654;1.3716;
411.3000;0.9654;1.3716;
411.6000;0.9678;1.3786;
411.9000;0.9662;1.3739;
412.2000;0.9646;1.3857;
412.5000;0.9646;1.3857;
412.8000;0.9638;1.3857;
413.1000;0.9670;1.3833;
413.4000;0.9662;1.3786;
413.7000;0.9638;1.3763;
414.0000;0.9646;1.3763;
414.3000;0.9654;1.3739;
414.6000;0.9654;1.3763;
414.9000;0.9581;1.3575;
415.2000;0.9654;1.3645;
415.5000;0.9670;1.3739;
415.8000;0.9662;1.3763;
416.1000;0.9646;1.3739;
416.4000;0.9646;1.3716;
416.7000;0.9646;1.3833;
417.0000;0.9638;1.3927;
417.3000;0.9638;1.3951;
417.6000;0.9630;1.3857;
417.9000;0.9638;1.3880;
418.2000;0.9662;1.3951;
418.5000;0.9662;1.3998;
418.8000;0.9630;1.3810;
419.1000;0.9646;1.3833;
419.4000;0.9646;1.3857;
419.7000;0.9662;1.3810;
420.0000;0.9581;1.3645;
420.3000;0.9638;1.3669;
420.6000;0.9621;1.3669;
420.9000;0.9670;1.3833;
421.2000;0.9670;1.3833;
421.5000;0.9630;1.3739;
421.8000;0.9678;1.3857;
422.1000;0.9670;1.3786;
422.4000;0.9646;1.3739;
422.7000;0.9695;1.3763;
423.0000;0.9719;1.3833;
423.3000;0.9646;1.3739;
423.6000;0.9654;1.3739;
423.9000;0.9646;1.3739;
424.2000;0.9654;1.3951;
424.5000;0.9670;1.3975;
424.8000;0.9670;1.3927;
425.1000;0.9687;1.3998;
425.4000;0.9719;1.4116;
425.7000;0.9654;1.3998;
426.0000;0.9670;1.3927;
426.3000;0.9670;1.3998;
426.6000;0.9654;1.3951;
426.9000;0.9670;1.3833;
427.2000;0.9646;1.3739;
427.5000;0.9646;1.3739;
427.8000;0.9646;1.3716;
428.1000;0.9638;1.3622;
428.4000;0.9670;1.3551;
428.7000;0.9646;1.3504;
429.0000;0.9654;1.3575;
429.3000;0.9646;1.3598;
429.6000;0.9638;1.3622;
429.9000;0.9646;1.3575;
430.2000;0.9670;1.3645;
430.5000;0.9687;1.3669;
430.8000;0.9776;1.3904;
431.1000;0.9687;1.3716;
431.4000;0.9646;1.3692;
431.7000;0.9654;1.3739;
432.0000;0.9654;1.3763;
432.3000;0.9646;1.3692;
432.6000;0.9630;1.3622;
432.9000;0.9654;1.3763;
433.2000;0.9589;1.3598;
433.5000;0.9613;1.3645;
433.8000;0.9654;1.3739;
434.1000;0.9646;1.3763;
434.4000;0.9613;1.3645;
434.7000;0.9581;1.3575;
435.0000;0.9630;1.3739;
435.3000;0.9573;1.3598;
435.6000;0.9654;1.3810;
435.9000;0.9752;1.4069;
436.2000;0.9670;1.3833;
436.5000;0.9654;1.3833;
436.8000;0.9670;1.3951;
437.1000;0.9654;1.3904;
437.4000;0.9646;1.3833;
437.7000;0.9597;1.3692;
438.0000;0.9662;1.3763;
438.3000;0.9670;1.3739;
438.6000;0.9678;1.3810;
438.9000;0.9605;1.3575;
439.2000;0.9695;1.3763;
439.5000;0.9638;1.3669;
439.8000;0.9638;1.3739;
440.1000;0.9646;1.3645;
440.4000;0.9646;1.3645;
440.7000;0.9654;1.3622;
441.0000;0.9638;1.3622;
441.3000;0.9638;1.3669;
441.6000;0.9662;1.3739;
441.9000;0.9654;1.3645;
442.2000;0.9735;1.3786;
442.5000;0.9646;1.3692;
442.8000;0.9646;1.3716;
443.1000;0.9646;1.3763;
443.4000;0.9630;1.3716;
443.7000;0.9646;1.3716;
444.0000;0.9678;1.3739;
444.3000;0.9646;1.3622;
444.6000;0.9638;1.3528;
444.9000;0.9646;1.3480;
445.2000;0.9670;1.3504;
445.5000;0.9638;1.3480;
445.8000;0.9630;1.3410;
446.1000;0.9646;1.3457;
446.4000;0.9646;1.3457;
446.7000;0.9662;1.3504;
447.0000;0.9646;1.3551;
447.3000;0.9646;1.3457;
447.6000;0.9654;1.3528;
447.9000;0.9646;1.3598;
448.2000;0.9646;1.3598;
448.5000;0.9638;1.3575;
448.8000;0.9630;1.3551;
449.1000;0.9630;1.3551;
449.4000;0.9621;1.3622;
449.7000;0.9621;1.3598;
450.0000;0.9638;1.3645;
450.3000;0.9662;1.3645;
450.6000;0.9662;1.3645;
450.9000;0.9654;1.3645;
451.2000;0.9654;1.3692;
451.5000;0.9630;1.3763;
451.8000;0.9638;1.3833;
452.1000;0.9646;1.3904;
452.4000;0.9638;1.3786;
452.7000;0.9638;1.3739;
453.0000;0.9654;1.3763;
453.3000;0.9662;1.3692;
453.6000;0.9638;1.3551;
453.9000;0.9662;1.3598;
454.2000;0.9662;1.3692;
454.5000;0.9646;1.3739;
454.8000;0.9654;1.3763;
455.1000;0.9654;1.3810;
455.4000;0.9654;1.3810;
455.7000;0.9670;1.3763;
456.0000;0.9630;1.3669;
456.3000;0.9687;1.3669;
456.6000;0.9646;1.3598;
456.9000;0.9638;1.3457;
457.2000;0.9613;1.3433;
457.5000;0.9654;1.3433;
457.8000;0.9605;1.3292;
458.1000;0.9646;1.3386;
458.4000;0.9621;1.3292;
458.7000;0.9646;1.3363;
459.0000;0.9646;1.3457;
459.3000;0.9678;1.3598;
459.6000;0.9654;1.3598;
459.9000;0.9630;1.3457;
460.2000;0.9670;1.3598;
460.5000;0.9678;1.3669;
460.8000;0.9621;1.3551;
461.1000;0.9638;1.3669;
461.4000;0.9613;1.3622;
461.7000;0.9630;1.3598;
462.0000;0.9646;1.3645;
462.3000;0.9670;1.3692;
462.6000;0.9638;1.3575;
462.9000;0.9646;1.3622;
463.2000;0.9646;1.3669;
463.5000;0.9638;1.3692;
463.8000;0.9638;1.3622;
464.1000;0.9646;1.3598;
464.4000;0.9646;1.3551;
464.7000;0.9605;1.3504;
465.0000;0.9638;1.3575;
465.3000;0.9646;1.3622;
465.6000;0.9646;1.3669;
465.9000;0.9630;1.3551;
466.2000;0.9638;1.3551;
466.5000;0.9630;1.3504;
466.8000;0.9638;1.3480;
467.1000;0.9670;1.3622;
467.4000;0.9638;1.3669;
467.7000;0.9662;1.3739;
468.0000;0.9654;1.3763;
468.3000;0.9646;1.3763;
468.6000;0.9646;1.3810;
468.9000;0.9646;1.3786;
469.2000;0.9646;1.3810;
469.5000;0.9654;1.3857;
469.8000;0.9654;1.3857;
470.1000;0.9630;1.3786;
470.4000;0.9654;1.3786;
470.7000;0.9662;1.3786;
471.0000;0.9621;1.3692;
471.3000;0.9654;1.3763;
471.6000;0.9621;1.3716;
471.9000;0.9646;1.3692;
472.2000;0.9621;1.3692;
472.5000;0.9621;1.3645;
472.8000;0.9638;1.3622;
473.1000;0.9646;1.3622;
473.4000;0.9646;1.3575;
473.7000;0.9621;1.3551;
474.0000;0.9613;1.3528;
474.3000;0.9621;1.3598;
474.6000;0.9630;1.3692;
474.9000;0.9646;1.3645;
475.2000;0.9613;1.3551;
475.5000;0.9540;1.3457;
475.8000;0.9687;1.3739;
476.1000;0.9621;1.3622;
476.4000;0.9630;1.3692;
476.7000;0.9532;1.3504;
477.0000;0.9646;1.3692;
477.3000;0.9662;1.3739;
477.6000;0.9638;1.3551;
477.9000;0.9654;1.3410;
478.2000;0.9597;1.3363;
478.5000;0.9638;1.3433;
478.8000;0.9638;1.3504;
479.1000;0.9687;1.3669;
479.4000;0.9621;1.3528;
479.7000;0.9646;1.3528;
480.0000;0.9638;1.3528;
480.3000;0.9565;1.3245;
480.6000;0.9654;1.3386;
480.9000;0.9646;1.3410;
481.2000;0.9573;1.3339;
481.5000;0.9630;1.3575;
481.8000;0.9621;1.3551;
482.1000;0.9646;1.3669;
482.4000;0.9646;1.3763;
482.7000;0.9630;1.3622;
483.0000;0.9630;1.3622;
483.3000;0.9630;1.3692;
483.6000;0.9646;1.3763;
483.9000;0.9630;1.3739;
484.2000;0.9613;1.3669;
484.5000;0.9621;1.3716;
484.8000;0.9621;1.3739;
485.1000;0.9630;1.3763;
485.4000;0.9630;1.3739;
485.7000;0.9597;1.3716;
486.0000;0.9605;1.3833;
486.3000;0.9621;1.3951;
486.6000;0.9630;1.3880;
486.9000;0.9556;1.3645;
487.2000;0.9621;1.3763;
487.5000;0.9630;1.3810;
487.8000;0.9630;1.3739;
488.1000;0.9613;1.3763;
488.4000;0.9621;1.3880;
488.7000;0.9638;1.3833;
489.0000;0.9638;1.3810;
489.3000;0.9646;1.3716;
489.6000;0.9630;1.3739;
489.9000;0.9646;1.3739;
490.2000;0.9654;1.3739;
490.5000;0.9613;1.3669;
490.8000;0.9638;1.3645;
491.1000;0.9638;1.3716;
491.4000;0.9630;1.3786;
491.7000;0.9613;1.3598;
492.0000;0.9638;1.3598;
492.3000;0.9630;1.3692;
492.6000;0.9581;1.3645;
492.9000;0.9735;1.4069;
493.2000;0.9621;1.3786;
493.5000;0.9646;1.3833;
493.8000;0.9654;1.3927;
494.1000;0.9621;1.3927;
494.4000;0.9654;1.3998;
494.7000;0.9638;1.3904;
495.0000;0.9662;1.3927;
495.3000;0.9646;1.3975;
495.6000;0.9638;1.3998;
495.9000;0.9630;1.4022;
496.2000;0.9630;1.4022;
496.5000;0.9621;1.3951;
496.8000;0.9621;1.3833;
497.1000;0.9605;1.3904;
497.4000;0.9638;1.3998;
497.7000;0.9687;1.3951;
498.0000;0.9605;1.3645;
498.3000;0.9638;1.3669;
498.6000;0.9646;1.3692;
498.9000;0.9654;1.3739;
499.2000;0.9638;1.3645;
499.5000;0.9581;1.3528;
499.8000;0.9613;1.3622;
500.1000;0.9646;1.3692;
500.4000;0.9638;1.3692;
500.7000;0.9678;1.3880;
501.0000;0.9621;1.3786;
501.3000;0.9670;1.3786;
501.6000;0.9630;1.3810;
501.9000;0.9678;1.3857;
502.2000;0.9621;1.3763;
502.5000;0.9613;1.3763;
502.8000;0.9597;1.3739;
503.1000;0.9613;1.3763;
503.4000;0.9613;1.3739;
503.7000;0.9654;1.3904;
504.0000;0.9621;1.3880;
504.3000;0.9630;1.3880;
504.6000;0.9630;1.3904;
504.9000;0.9630;1.3810;
505.2000;0.9638;1.3763;
505.5000;0.9646;1.3763;
505.8000;0.9621;1.3739;
506.1000;0.9605;1.3692;
506.4000;0.9630;1.3739;
506.7000;0.9630;1.3786;
507.0000;0.9621;1.3692;
507.3000;0.9621;1.3763;
507.6000;0.9638;1.3763;
507.9000;0.9638;1.3739;
508.2000;0.9613;1.3716;
508.5000;0.9621;1.3739;
508.8000;0.9646;1.3786;
509.1000;0.9638;1.3810;
509.4000;0.9638;1.3857;
509.7000;0.9638;1.3763;
510.0000;0.9646;1.3810;
510.3000;0.9646;1.3786;
510.6000;0.9711;1.3880;
510.9000;0.9646;1.3645;
511.2000;0.9630;1.3645;
511.5000;0.9597;1.3528;
511.8000;0.9621;1.3528;
512.1000;0.9613;1.3528;
512.4000;0.9638;1.3622;
512.7000;0.9638;1.3692;
513.0000;0.9630;1.3739;
513.3000;0.9638;1.3739;
513.6000;0.9735;1.4022;
513.9000;0.9621;1.3786;
514.2000;0.9630;1.3833;
514.5000;0.9605;1.3763;
514.8000;0.9621;1.3786;
515.1000;0.9613;1.3763;
515.4000;0.9630;1.3810;
515.7000;0.9630;1.3904;
516.0000;0.9621;1.3810;
516.3000;0.9589;1.3739;
516.6000;0.9687;1.3951;
516.9000;0.9630;1.3880;
517.2000;0.9605;1.3927;
517.5000;0.9630;1.3975;
517.8000;0.9613;1.3998;
518.1000;0.9630;1.3998;
518.4000;0.9630;1.3998;
518.7000;0.9556;1.3810;
519.0000;0.9621;1.3810;
519.3000;0.9621;1.3716;
519.6000;0.9630;1.3692;
519.9000;0.9630;1.3786;
520.2000;0.9621;1.3810;
520.5000;0.9613;1.3810;
520.8000;0.9687;1.3975;
521.1000;0.9605;1.3810;
521.4000;0.9565;1.3739;
521.7000;0.9613;1.3927;
522.0000;0.9621;1.3880;
522.3000;0.9613;1.3904;
522.6000;0.9597;1.3810;
522.9000;0.9605;1.3833;
523.2000;0.9621;1.3857;
523.5000;0.9621;1.3927;
523.8000;0.9621;1.4022;
524.1000;0.9621;1.3975;
524.4000;0.9621;1.3880;
524.7000;0.9613;1.3880;
525.0000;0.9605;1.3833;
525.3000;0.9613;1.3810;
525.6000;0.9638;1.3975;
525.9000;0.9621;1.3951;
526.2000;0.9678;1.4116;
526.5000;0.9630;1.4022;
526.8000;0.9630;1.3998;
527.1000;0.9589;1.3880;
527.4000;0.9638;1.3975;
527.7000;0.9613;1.3810;
528.0000;0.9605;1.3857;
528.3000;0.9621;1.3833;
528.6000;0.9630;1.3833;
528.9000;0.9605;1.3716;
529.2000;0.9621;1.3763;
529.5000;0.9621;1.3739;
529.8000;0.9605;1.3692;
530.1000;0.9613;1.3810;
530.4000;0.9573;1.3786;
530.7000;0.9597;1.3857;
531.0000;0.9621;1.3927;
531.3000;0.9597;1.3810;
531.6000;0.9654;1.3951;
531.9000;0.9630;1.3857;
532.2000;0.9605;1.3739;
532.5000;0.9630;1.3739;
532.8000;0.9621;1.3716;
533.1000;0.9621;1.3669;
533.4000;0.9638;1.3739;
533.7000;0.9605;1.3669;
534.0000;0.9630;1.3739;
534.3000;0.9613;1.3669;
534.6000;0.9565;1.3551;
534.9000;0.9621;1.3645;
535.2000;0.9613;1.3575;
535.5000;0.9605;1.3622;
535.8000;0.9605;1.3645;
536.1000;0.9630;1.3669;
536.4000;0.9613;1.3645;
536.7000;0.9719;1.3927;
537.0000;0.9630;1.3669;
537.3000;0.9613;1.3645;
537.6000;0.9621;1.3645;
537.9000;0.9621;1.3622;
538.2000;0.9621;1.3528;
538.5000;0.9605;1.3575;
538.8000;0.9613;1.3598;
539.1000;0.9605;1.3598;
539.4000;0.9548;1.3433;
539.7000;0.9621;1.3575;
540.0000;0.9621;1.3528;
540.3000;0.9621;1.3504;
540.6000;0.9613;1.3551;
540.9000;0.9605;1.3480;
541.2000;0.9662;1.3575;
541.5000;0.9630;1.3551;
541.8000;0.9621;1.3504;
542.1000;0.9638;1.3622;
542.4000;0.9638;1.3622;
542.7000;0.9621;1.3669;
543.0000;0.9605;1.3575;
543.3000;0.9597;1.3598;
543.6000;0.9621;1.3528;
543.9000;0.9613;1.3457;
544.2000;0.9621;1.3504;
544.5000;0.9638;1.3622;
544.8000;0.9605;1.3622;
545.1000;0.9565;1.3622;
545.4000;0.9613;1.3763;
545.7000;0.9589;1.3645;
546.0000;0.9621;1.3786;
546.3000;0.9605;1.3763;
546.6000;0.9621;1.3763;
546.9000;0.9621;1.3716;
547.2000;0.9581;1.3716;
547.5000;0.9638;1.3951;
547.8000;0.9565;1.3833;
548.1000;0.9638;1.3975;
548.4000;0.9638;1.3857;
548.7000;0.9638;1.3833;
549.0000;0.9662;1.3904;
549.3000;0.9613;1.3880;
549.6000;0.9630;1.3927;
549.9000;0.9597;1.3810;
550.2000;0.9605;1.3786;
550.5000;0.9621;1.3810;
550.8000;0.9630;1.3810;
551.1000;0.9613;1.3786;
551.4000;0.9621;1.3739;
551.7000;0.9613;1.3669;
552.0000;0.9613;1.3645;
552.3000;0.9613;1.3692;
552.6000;0.9630;1.3716;
552.9000;0.9613;1.3669;
553.2000;0.9589;1.3669;
553.5000;0.9589;1.3692;
553.8000;0.9605;1.3669;
554.1000;0.9597;1.3692;
554.4000;0.9589;1.3669;
554.7000;0.9589;1.3669;
555.0000;0.9589;1.3669;
555.3000;0.9597;1.3716;
555.6000;0.9613;1.3810;
555.9000;0.9581;1.3786;
556.2000;0.9597;1.3833;
556.5000;0.9605;1.3904;
556.8000;0.9605;1.3880;
557.1000;0.9613;1.3857;
557.4000;0.9605;1.3810;
557.7000;0.9565;1.3692;
558.0000;0.9613;1.3833;
558.3000;0.9613;1.3951;
558.6000;0.9621;1.3998;
558.9000;0.9613;1.3975;
559.2000;0.9621;1.4045;
559.5000;0.9719;1.4280;
559.8000;0.9597;1.3975;
560.1000;0.9630;1.4069;
560.4000;0.9621;1.4045;
560.7000;0.9589;1.3951;
561.0000;0.9630;1.4069;
561.3000;0.9605;1.3951;
561.6000;0.9621;1.4022;
561.9000;0.9662;1.4045;
562.2000;0.9621;1.3951;
562.5000;0.9613;1.3998;
562.8000;0.9589;1.3998;
563.1000;0.9613;1.4069;
563.4000;0.9613;1.3951;
563.7000;0.9605;1.3951;
564.0000;0.9621;1.4022;
564.3000;0.9589;1.3975;
564.6000;0.9597;1.3951;
564.9000;0.9605;1.3998;
565.2000;0.9621;1.3857;
565.5000;0.9605;1.3810;
565.8000;0.9597;1.3763;
566.1000;0.9565;1.3763;
566.4000;0.9605;1.3951;
566.7000;0.9589;1.3951;
567.0000;0.9589;1.4092;
567.3000;0.9581;1.4022;
567.6000;0.9711;1.4304;
567.9000;0.9597;1.3998;
568.2000;0.9597;1.4069;
568.5000;0.9597;1.4116;
568.8000;0.9540;1.3998;
569.1000;0.9621;1.4139;
569.4000;0.9687;1.4304;
569.7000;0.9581;1.3975;
570.0000;0.9597;1.3975;
570.3000;0.9678;1.4092;
570.6000;0.9605;1.3927;
570.9000;0.9613;1.3927;
571.2000;0.9597;1.3833;
571.5000;0.9589;1.3692;
571.8000;0.9597;1.3716;
572.1000;0.9695;1.3951;
572.4000;0.9613;1.3645;
572.7000;0.9613;1.3716;
573.0000;0.9621;1.3857;
573.3000;0.9605;1.3927;
573.6000;0.9581;1.3857;
573.9000;0.9597;1.3810;
574.2000;0.9613;1.3763;
574.5000;0.9613;1.3810;
574.8000;0.9597;1.3833;
575.1000;0.9581;1.3810;
575.4000;0.9605;1.3810;
575.7000;0.9613;1.3763;
576.0000;0.9589;1.3786;
576.3000;0.9589;1.3739;
576.6000;0.9589;1.3739;
576.9000;0.9613;1.3763;
577.2000;0.9613;1.3763;
577.5000;0.9589;1.3716;
577.8000;0.9613;1.3857;
578.1000;0.9613;1.3975;
578.4000;0.9621;1.3951;
578.7000;0.9613;1.3998;
579.0000;0.9605;1.3975;
579.3000;0.9605;1.3857;
579.6000;0.9605;1.3833;
579.9000;0.9605;1.3763;
580.2000;0.9613;1.3786;
580.5000;0.9597;1.3786;
580.8000;0.9703;1.3998;
581.1000;0.9589;1.3692;
581.4000;0.9597;1.3692;
581.7000;0.9605;1.3786;
582.0000;0.9605;1.3880;
582.3000;0.9646;1.4022;
582.6000;0.9605;1.3951;
582.9000;0.9597;1.3927;
583.2000;0.9589;1.3880;
583.5000;0.9630;1.3857;
583.8000;0.9630;1.3739;
584.1000;0.9597;1.3692;
584.4000;0.9597;1.3786;
584.7000;0.9605;1.3857;
585.0000;0.9605;1.3833;
585.3000;0.9581;1.3810;
585.6000;0.9605;1.3857;
585.9000;0.9581;1.3786;
586.2000;0.9589;1.3810;
586.5000;0.9597;1.3880;
586.8000;0.9630;1.3904;
587.1000;0.9597;1.3857;
587.4000;0.9621;1.4069;
587.7000;0.9605;1.3975;
588.0000;0.9548;1.3904;
588.3000;0.9605;1.4022;
588.6000;0.9605;1.3975;
588.9000;0.9597;1.3927;
589.2000;0.9573;1.3927;
589.5000;0.9597;1.3998;
589.8000;0.9565;1.3927;
590.1000;0.9605;1.4022;
590.4000;0.9589;1.3927;
590.7000;0.9613;1.3880;
591.0000;0.9597;1.3857;
591.3000;0.9589;1.3833;
591.6000;0.9589;1.3904;
591.9000;0.9613;1.3951;
592.2000;0.9613;1.3927;
592.5000;0.9597;1.3927;
592.8000;0.9670;1.3975;
593.1000;0.9621;1.3810;
593.4000;0.9605;1.3786;
593.7000;0.9589;1.3716;
594.0000;0.9597;1.3716;
594.3000;0.9589;1.3716;
594.6000;0.9605;1.3692;
594.9000;0.9565;1.3598;
595.2000;0.9605;1.3763;
595.5000;0.9621;1.3786;
595.8000;0.9613;1.3622;
596.1000;0.9613;1.3692;
596.4000;0.9589;1.3739;
596.7000;0.9621;1.3833;
597.0000;0.9597;1.3810;
597.3000;0.9597;1.3810;
597.6000;0.9589;1.3857;
597.9000;0.9565;1.3739;
598.2000;0.9597;1.3904;
598.5000;0.9613;1.3951;
598.8000;0.9621;1.3927;
599.1000;0.9605;1.3951;
599.4000;0.9605;1.3975;
599.7000;0.9597;1.3904;
600.0000;0.9621;1.3975;
600.3000;0.9605;1.3975;
600.6000;0.9548;1.3857;
600.9000;0.9426;1.3622;
601.2000;0.9288;1.3292;
601.5000;0.9158;1.3222;
601.8000;0.9011;1.2986;
602.1000;0.8873;1.2728;
602.4000;0.8759;1.2539;
602.7000;0.8637;1.2516;
603.0000;0.8523;1.2445;
603.3000;0.8400;1.2257;
603.6000;0.8303;1.2045;
603.9000;0.8230;1.1928;
604.2000;0.8132;1.1834;
604.5000;0.8050;1.1669;
604.8000;0.7969;1.1551;
605.1000;0.7912;1.1528;
605.4000;0.7823;1.1363;
605.7000;0.7766;1.1245;
606.0000;0.7635;1.1057;
606.3000;0.7684;1.1245;
606.6000;0.7578;1.1151;
606.9000;0.7530;1.1010;
607.2000;0.7456;1.0940;
607.5000;0.7424;1.0893;
607.8000;0.7375;1.0869;
608.1000;0.7326;1.0634;
608.4000;0.7269;1.0540;
608.7000;0.7269;1.0540;
609.0000;0.7212;1.0422;
609.3000;0.7163;1.0422;
609.6000;0.7123;1.0422;
609.9000;0.7033;1.0328;
610.2000;0.7106;1.0610;
610.5000;0.7017;1.0446;
610.8000;0.6943;1.0375;
611.1000;0.6935;1.0375;
611.4000;0.6895;1.0328;
611.7000;0.6870;1.0304;
612.0000;0.6846;1.0257;
612.3000;0.6805;1.0234;
612.6000;0.6772;1.0210;
612.9000;0.6756;1.0257;
613.2000;0.6699;1.0163;
613.5000;0.6699;1.0140;
613.8000;0.6634;0.9952;
614.1000;0.6642;0.9999;
614.4000;0.6659;0.9857;
614.7000;0.6512;0.9552;
615.0000;0.6585;0.9787;
615.3000;0.6561;0.9810;
615.6000;0.6536;0.9881;
615.9000;0.6512;0.9904;
616.2000;0.6488;0.9834;
616.5000;0.6463;0.9810;
616.8000;0.6455;0.9810;
617.1000;0.6422;0.9787;
617.4000;0.6390;0.9834;
617.7000;0.6455;1.0093;
618.0000;0.6260;0.9740;
618.3000;0.6333;1.0022;
618.6000;0.6333;1.0022;
618.9000;0.6333;0.9952;
619.2000;0.6276;0.9881;
619.5000;0.6268;0.9881;
619.8000;0.6252;0.9904;
620.1000;0.6243;0.9928;
620.4000;0.6243;0.9857;
620.7000;0.6211;0.9810;
621.0000;0.6195;0.9693;
621.3000;0.6170;0.9716;
621.6000;0.6170;0.9716;
621.9000;0.6146;0.9693;
622.2000;0.6138;0.9716;
622.5000;0.6081;0.9740;
622.8000;0.6105;0.9693;
623.1000;0.6113;0.9763;
623.4000;0.6081;0.9834;
623.7000;0.6081;0.9834;
624.0000;0.6048;0.9881;
624.3000;0.6056;0.9904;
624.6000;0.6072;0.9904;
624.9000;0.6024;0.9881;
625.2000;0.6015;0.9952;
625.5000;0.6024;0.9999;
625.8000;0.5999;0.9904;
626.1000;0.5975;0.9857;
626.4000;0.5958;0.9810;
626.7000;0.5975;0.9857;
627.0000;0.5958;0.9904;
627.3000;0.5942;0.9904;
627.6000;0.5958;1.0022;
627.9000;0.5934;0.9975;
628.2000;0.5950;0.9999;
628.5000;0.5918;0.9881;
628.8000;0.5885;0.9740;
629.1000;0.5877;0.9763;
629.4000;0.5902;0.9881;
629.7000;0.5902;0.9952;
630.0000;0.5877;0.9999;
630.3000;0.5869;0.9904;
630.6000;0.5869;0.9881;
630.9000;0.5853;0.9857;
631.2000;0.5845;0.9834;
631.5000;0.5885;0.9881;
631.8000;0.5828;0.9763;
632.1000;0.5788;0.9599;
632.4000;0.5796;0.9646;
632.7000;0.5812;0.9763;
633.0000;0.5771;0.9669;
633.3000;0.5788;0.9646;
633.6000;0.5779;0.9669;
633.9000;0.5779;0.9669;
634.2000;0.5739;0.9575;
634.5000;0.5771;0.9763;
634.8000;0.5755;0.9669;
635.1000;0.5747;0.9646;
635.4000;0.5706;0.9528;
635.7000;0.5771;0.9669;
636.0000;0.5755;0.9693;
636.3000;0.5722;0.9716;
636.6000;0.5714;0.9693;
636.9000;0.5722;0.9716;
637.2000;0.5722;0.9646;
637.5000;0.5698;0.9622;
637.8000;0.5690;0.9599;
638.1000;0.5714;0.9599;
638.4000;0.5682;0.9458;
638.7000;0.5698;0.9552;
639.0000;0.5674;0.9458;
639.3000;0.5592;0.9316;
639.6000;0.5674;0.9552;
639.9000;0.5665;0.9528;
640.2000;0.5649;0.9622;
640.5000;0.5649;0.9810;
640.8000;0.5633;0.9787;
641.1000;0.5665;0.9834;
641.4000;0.5714;0.9881;
641.7000;0.5608;0.9669;
642.0000;0.5625;0.9740;
642.3000;0.5657;0.9763;
642.6000;0.5657;0.9716;
642.9000;0.5600;0.9575;
643.2000;0.5665;0.9904;
643.5000;0.5592;0.9810;
643.8000;0.5576;0.9763;
644.1000;0.5576;0.9763;
644.4000;0.5608;0.9857;
644.7000;0.5584;0.9787;
645.0000;0.5584;0.9763;
645.3000;0.5576;0.9787;
645.6000;0.5600;0.9881;
645.9000;0.5551;0.9904;
646.2000;0.5576;0.9999;
646.5000;0.5551;0.9881;
646.8000;0.5527;0.9787;
647.1000;0.5560;0.9810;
647.4000;0.5486;0.9599;
647.7000;0.5527;0.9575;
648.0000;0.5527;0.9552;
648.3000;0.5535;0.9622;
648.6000;0.5543;0.9599;
648.9000;0.5535;0.9622;
649.2000;0.5519;0.9622;
649.5000;0.5527;0.9669;
649.8000;0.5511;0.9787;
650.1000;0.5511;0.9810;
650.4000;0.5527;0.9881;
650.7000;0.5429;0.9669;
651.0000;0.5446;0.9763;
651.3000;0.5511;0.9904;
651.6000;0.5478;0.9810;
651.9000;0.5503;0.9857;
652.2000;0.5478;0.9810;
652.5000;0.5446;0.9763;
652.8000;0.5462;0.9857;
653.1000;0.5486;0.9834;
653.4000;0.5462;0.9716;
653.7000;0.5503;0.9787;
654.0000;0.5495;0.9740;
654.3000;0.5446;0.9622;
654.6000;0.5454;0.9669;
654.9000;0.5446;0.9693;
655.2000;0.5421;0.9646;
655.5000;0.5438;0.9669;
655.8000;0.5429;0.9646;
656.1000;0.5413;0.9646;
656.4000;0.5429;0.9928;
656.7000;0.5421;0.9881;
657.0000;0.5405;0.9904;
657.3000;0.5446;1.0022;
657.6000;0.5421;1.0022;
657.9000;0.5405;0.9975;
658.2000;0.5413;1.0046;
658.5000;0.5405;0.9952;
658.8000;0.5389;0.9952;
659.1000;0.5413;0.9952;
659.4000;0.5389;0.9975;
659.7000;0.5413;1.0022;
660.0000;0.5405;0.9928;
660.3000;0.5389;0.9904;
660.6000;0.5397;0.9999;
660.9000;0.5397;0.9999;
661.2000;0.5389;0.9952;
661.5000;0.5372;0.9952;
661.8000;0.5315;0.9763;
662.1000;0.5364;0.9904;
662.4000;0.5405;0.9881;
662.7000;0.5389;0.9810;
663.0000;0.5389;0.9810;
663.3000;0.5348;0.9787;
663.6000;0.5356;0.9810;
663.9000;0.5364;0.9928;
664.2000;0.5372;0.9904;
664.5000;0.5348;0.9810;
664.8000;0.5381;0.9857;
665.1000;0.5413;1.0046;
665.4000;0.5348;0.9881;
665.7000;0.5332;1.0022;
666.0000;0.5332;0.9999;
666.3000;0.5315;0.9881;
666.6000;0.5381;0.9975;
666.9000;0.5340;0.9881;
667.2000;0.5364;0.9904;
667.5000;0.5364;0.9881;
667.8000;0.5364;0.9975;
668.1000;0.5258;0.9669;
668.4000;0.5324;0.9763;
668.7000;0.5307;0.9693;
669.0000;0.5324;0.9740;
669.3000;0.5299;0.9693;
669.6000;0.5340;0.9763;
669.9000;0.5291;0.9622;
670.2000;0.5299;0.9763;
670.5000;0.5275;0.9693;
670.8000;0.5275;0.9763;
671.1000;0.5299;0.9763;
671.4000;0.5315;0.9881;
671.7000;0.5299;0.9787;
672.0000;0.5275;0.9740;
672.3000;0.5291;0.9693;
672.6000;0.5283;0.9693;
672.9000;0.5291;0.9740;
673.2000;0.5291;0.9810;
673.5000;0.5267;0.9787;
673.8000;0.5267;0.9810;
674.1000;0.5283;0.9881;
674.4000;0.5283;0.9904;
674.7000;0.5275;0.9952;
675.0000;0.5267;0.9999;
675.3000;0.5283;1.0069;
675.6000;0.5258;1.0046;
675.9000;0.5267;1.0069;
676.2000;0.5275;1.0093;
676.5000;0.5258;1.0069;
676.8000;0.5267;1.0093;
677.1000;0.5250;0.9999;
677.4000;0.5242;0.9975;
677.7000;0.5250;0.9928;
678.0000;0.5250;0.9999;
678.3000;0.5250;0.9928;
678.6000;0.5234;0.9834;
678.9000;0.5218;0.9716;
679.2000;0.5234;0.9740;
679.5000;0.5242;0.9763;
679.8000;0.5242;0.9763;
680.1000;0.5218;0.9693;
680.4000;0.5210;0.9646;
680.7000;0.5193;0.9505;
681.0000;0.5210;0.9599;
681.3000;0.5226;0.9740;
681.6000;0.5226;0.9834;
681.9000;0.5226;0.9740;
682.2000;0.5210;0.9669;
682.5000;0.5185;0.9622;
682.8000;0.5250;0.9881;
683.1000;0.5177;0.9740;
683.4000;0.5193;0.9834;
683.7000;0.5242;0.9857;
684.0000;0.5201;0.9669;
684.3000;0.5250;0.9810;
684.6000;0.5210;0.9763;
684.9000;0.5169;0.9693;
685.2000;0.5169;0.9716;
685.5000;0.5234;0.9881;
685.8000;0.5234;0.9834;
686.1000;0.5185;0.9740;
686.4000;0.5169;0.9669;
686.7000;0.5161;0.9763;
687.0000;0.5193;0.9787;
687.3000;0.5177;0.9810;
687.6000;0.5185;0.9763;
687.9000;0.5185;0.9787;
688.2000;0.5185;0.9881;
688.5000;0.5185;0.9904;
688.8000;0.5185;1.0022;
689.1000;0.5226;1.0022;
689.4000;0.5169;0.9857;
689.7000;0.5169;0.9787;
690.0000;0.5177;0.9716;
690.3000;0.5169;0.9669;
690.6000;0.5177;0.9693;
690.9000;0.5153;0.9646;
691.2000;0.5096;0.9481;
691.5000;0.5128;0.9622;
691.8000;0.5120;0.9599;
692.1000;0.5144;0.9669;
692.4000;0.5153;0.9716;
692.7000;0.5120;0.9740;
693.0000;0.5136;0.9857;
693.3000;0.5153;0.9857;
693.6000;0.5169;0.9952;
693.9000;0.5169;0.9975;
694.2000;0.5112;0.9810;
694.5000;0.5120;0.9669;
694.8000;0.5144;0.9834;
695.1000;0.5120;0.9810;
695.4000;0.5128;0.9857;
695.7000;0.5120;0.9904;
696.0000;0.5128;0.9975;
696.3000;0.5104;0.9904;
696.6000;0.5136;0.9952;
696.9000;0.5104;0.9904;
697.2000;0.5153;0.9999;
697.5000;0.5112;0.9975;
697.8000;0.5120;1.0046;
698.1000;0.5112;1.0093;
698.4000;0.5136;1.0093;
698.7000;0.5088;0.9999;
699.0000;0.5096;1.0069;
699.3000;0.5096;1.0022;
699.6000;0.5120;1.0140;
699.9000;0.5112;1.0210;
700.2000;0.5104;1.0163;
700.5000;0.5177;1.0469;
700.8000;0.5104;1.0328;
701.1000;0.5144;1.0446;
701.4000;0.5104;1.0328;
701.7000;0.5014;0.9999;
702.0000;0.5088;1.0140;
702.3000;0.5096;1.0022;
702.6000;0.5088;0.9975;
702.9000;0.5079;1.0046;
703.2000;0.5128;1.0116;
703.5000;0.5079;0.9999;
703.8000;0.5104;1.0069;
704.1000;0.5088;0.9928;
704.4000;0.5104;1.0093;
704.7000;0.5096;1.0093;
705.0000;0.5079;1.0022;
705.3000;0.5120;1.0046;
705.6000;0.5047;0.9857;
705.9000;0.5063;0.9904;
706.2000;0.5120;1.0093;
706.5000;0.5071;1.0022;
706.8000;0.4990;0.9952;
707.1000;0.5055;0.9975;
707.4000;0.5144;1.0140;
707.7000;0.5071;0.9975;
708.0000;0.5063;1.0093;
708.3000;0.5104;1.0187;
708.6000;0.5063;1.0022;
708.9000;0.5055;1.0069;
709.2000;0.5047;1.0046;
709.5000;0.5055;1.0069;
709.8000;0.5055;0.9975;
710.1000;0.5055;0.9952;
710.4000;0.5047;0.9904;
710.7000;0.5039;0.9834;
711.0000;0.5039;0.9834;
711.3000;0.5055;0.9787;
711.6000;0.5039;0.9716;
711.9000;0.5063;0.9787;
712.2000;0.5047;0.9857;
712.5000;0.5022;0.9904;
712.8000;0.5047;0.9834;
713.1000;0.5039;0.9787;
713.4000;0.5055;0.9857;
713.7000;0.5047;0.9881;
714.0000;0.5014;0.9834;
714.3000;0.5006;0.9740;
714.6000;0.5022;0.9810;
714.9000;0.5022;0.9810;
715.2000;0.5039;0.9881;
715.5000;0.4998;0.9740;
715.8000;0.5022;0.9857;
716.1000;0.5047;0.9881;
716.4000;0.5014;0.9740;
716.7000;0.5014;0.9669;
717.0000;0.5022;0.9763;
717.3000;0.5014;0.9810;
717.6000;0.4949;0.9575;
717.9000;0.5006;0.9787;
718.2000;0.5022;0.9810;
718.5000;0.5006;0.9857;
718.8000;0.5022;0.9857;
719.1000;0.5022;0.9810;
719.4000;0.5006;0.9904;
719.7000;0.5006;0.9952;
720.0000;0.5006;0.9904;
720.3000;0.5006;0.9999;
720.6000;0.5006;0.9952;
720.9000;0.5031;1.0046;
721.2000;0.4998;0.9904;
721.5000;0.4990;0.9881;
721.8000;0.5006;0.9857;
722.1000;0.5006;0.9881;
722.4000;0.5006;0.9999;
722.7000;0.4982;0.9999;
723.0000;0.5014;1.0069;
723.3000;0.4990;0.9975;
723.6000;0.5031;1.0140;
723.9000;0.4998;1.0116;
724.2000;0.4998;1.0140;
724.5000;0.4900;0.9857;
724.8000;0.4982;1.0163;
725.1000;0.4949;1.0116;
725.4000;0.4998;1.0257;
725.7000;0.5096;1.0446;
726.0000;0.4990;1.0140;
726.3000;0.4998;1.0257;
726.6000;0.4982;1.0210;
726.9000;0.4982;1.0022;
727.2000;0.5006;1.0093;
727.5000;0.4974;1.0022;
727.8000;0.5031;1.0093;
728.1000;0.4990;0.9999;
728.4000;0.4974;0.9904;
728.7000;0.5006;0.9928;
729.0000;0.4998;0.9928;
729.3000;0.4957;0.9881;
729.6000;0.5006;0.9952;
729.9000;0.4974;0.9881;
730.2000;0.4982;0.9857;
730.5000;0.4957;0.9857;
730.8000;0.4974;0.9834;
731.1000;0.4949;0.9834;
731.4000;0.4974;0.9952;
731.7000;0.4957;0.9952;
732.0000;0.4965;0.9999;
732.3000;0.4941;0.9952;
732.6000;0.4957;0.9904;
732.9000;0.4949;0.9975;
733.2000;0.4965;0.9999;
733.5000;0.4982;1.0046;
733.8000;0.4965;1.0046;
734.1000;0.5006;1.0140;
734.4000;0.5063;1.0281;
734.7000;0.4957;1.0022;
735.0000;0.4965;1.0022;
735.3000;0.4949;0.9999;
735.6000;0.4941;0.9999;
735.9000;0.4949;0.9975;
736.2000;0.4933;1.0022;
736.5000;0.4941;0.9999;
736.8000;0.4941;1.0022;
737.1000;0.4949;1.0022;
737.4000;0.4949;1.0046;
737.7000;0.4933;0.9999;
738.0000;0.4949;1.0046;
738.3000;0.4933;1.0046;
738.6000;0.4965;1.0257;
738.9000;0.4933;1.0163;
739.2000;0.4941;1.0116;
739.5000;0.4998;1.0257;
739.8000;0.4908;1.0069;
740.1000;0.4908;1.0046;
740.4000;0.4933;1.0069;
740.7000;0.4925;1.0046;
741.0000;0.4925;0.9975;
741.3000;0.4925;0.9975;
741.6000;0.4917;0.9952;
741.9000;0.4925;0.9928;
742.2000;0.4917;0.9904;
742.5000;0.4908;0.9787;
742.8000;0.4892;0.9763;
743.1000;0.4900;0.9763;
743.4000;0.4949;0.9834;
743.7000;0.4941;0.9857;
744.0000;0.4974;0.9904;
744.3000;0.4933;0.9763;
744.6000;0.4933;0.9763;
744.9000;0.4917;0.9716;
745.2000;0.4925;0.9763;
745.5000;0.4917;0.9716;
745.8000;0.4925;0.9693;
746.1000;0.4908;0.9646;
746.4000;0.4908;0.9646;
746.7000;0.4908;0.9646;
747.0000;0.4851;0.9528;
747.3000;0.4908;0.9669;
747.6000;0.4949;0.9716;
747.9000;0.4884;0.9599;
748.2000;0.4900;0.9622;
748.5000;0.4900;0.9693;
748.8000;0.4908;0.9787;
749.1000;0.4917;0.9716;
749.4000;0.4884;0.9646;
749.7000;0.4908;0.9763;
750.0000;0.4868;0.9693;
750.3000;0.4884;0.9622;
750.6000;0.4892;0.9716;
750.9000;0.4933;0.9928;
751.2000;0.4892;0.9763;
751.5000;0.4876;0.9646;
751.8000;0.4892;0.9693;
752.1000;0.4892;0.9740;
752.4000;0.4900;0.9834;
752.7000;0.4884;0.9740;
753.0000;0.4892;0.9763;
753.3000;0.4892;0.9646;
753.6000;0.4892;0.9646;
753.9000;0.4876;0.9528;
754.2000;0.4892;0.9599;
754.5000;0.4900;0.9716;
754.8000;0.4868;0.9646;
755.1000;0.4908;0.9693;
755.4000;0.4876;0.9669;
755.7000;0.4892;0.9693;
756.0000;0.4884;0.9716;
756.3000;0.4900;0.9740;
756.6000;0.4900;0.9740;
756.9000;0.4868;0.9693;
757.2000;0.4860;0.9552;
757.5000;0.4884;0.9740;
757.8000;0.4892;0.9810;
758.1000;0.4884;0.9904;
758.4000;0.4876;0.9881;
758.7000;0.4851;0.9787;
759.0000;0.4868;0.9716;
759.3000;0.4884;0.9740;
759.6000;0.4876;0.9787;
759.9000;0.4851;0.9716;
760.2000;0.4851;0.9787;
760.5000;0.4884;0.9740;
760.8000;0.4786;0.9481;
761.1000;0.4908;0.9857;
761.4000;0.4868;0.9740;
761.7000;0.4868;0.9669;
762.0000;0.4876;0.9740;
762.3000;0.4851;0.9669;
762.6000;0.4860;0.9693;
762.9000;0.4762;0.9434;
763.2000;0.4868;0.9622;
763.5000;0.4835;0.9505;
763.8000;0.4868;0.9575;
764.1000;0.4860;0.9505;
764.4000;0.4811;0.9505;
764.7000;0.4860;0.9669;
765.0000;0.4843;0.9669;
765.3000;0.4876;0.9810;
765.6000;0.4851;0.9787;
765.9000;0.4860;0.9740;
766.2000;0.4860;0.9716;
766.5000;0.4860;0.9716;
766.8000;0.4835;0.9693;
767.1000;0.4851;0.9669;
767.4000;0.4851;0.9669;
767.7000;0.4868;0.9646;
768.0000;0.4843;0.9622;
768.3000;0.4851;0.9716;
768.6000;0.4860;0.9857;
768.9000;0.4843;0.9834;
769.2000;0.4835;0.9787;
769.5000;0.4835;0.9669;
769.8000;0.4835;0.9740;
770.1000;0.4851;0.9763;
770.4000;0.4860;0.9787;
770.7000;0.4851;0.9787;
771.0000;0.4819;0.9740;
771.3000;0.4843;0.9740;
771.6000;0.4860;0.9740;
771.9000;0.4835;0.9646;
772.2000;0.4868;0.9669;
772.5000;0.4868;0.9622;
772.8000;0.4827;0.9505;
773.1000;0.4827;0.9552;
773.4000;0.4803;0.9552;
773.7000;0.4851;0.9669;
774.0000;0.4770;0.9340;
774.3000;0.4835;0.9458;
774.6000;0.4827;0.9481;
774.9000;0.4843;0.9575;
775.2000;0.4868;0.9693;
775.5000;0.4835;0.9528;
775.8000;0.4843;0.9481;
776.1000;0.4811;0.9505;
776.4000;0.4811;0.9528;
776.7000;0.4835;0.9505;
777.0000;0.4827;0.9458;
777.3000;0.4851;0.9505;
777.6000;0.4762;0.9363;
777.9000;0.4778;0.9410;
778.2000;0.4827;0.9505;
778.5000;0.4811;0.9481;
778.8000;0.4835;0.9528;
779.1000;0.4827;0.9505;
779.4000;0.4819;0.9505;
779.7000;0.4843;0.9505;
780.0000;0.4900;0.9622;
780.3000;0.4721;0.9246;
780.6000;0.4843;0.9481;
780.9000;0.4860;0.9575;
781.2000;0.4835;0.9575;
781.5000;0.4843;0.9599;
781.8000;0.4811;0.9410;
782.1000;0.4819;0.9410;
782.4000;0.4819;0.9458;
782.7000;0.4794;0.9363;
783.0000;0.4827;0.9340;
783.3000;0.4851;0.9528;
783.6000;0.4819;0.9505;
783.9000;0.4819;0.9410;
784.2000;0.4803;0.9363;
784.5000;0.4811;0.9505;
784.8000;0.4843;0.9458;
785.1000;0.4737;0.9199;
785.4000;0.4803;0.9387;
785.7000;0.4811;0.9434;
786.0000;0.4811;0.9481;
786.3000;0.4811;0.9528;
786.6000;0.4794;0.9622;
786.9000;0.4794;0.9693;
787.2000;0.4786;0.9693;
787.5000;0.4803;0.9740;
787.8000;0.4827;0.9787;
788.1000;0.4794;0.9810;
788.4000;0.4851;0.9952;
788.7000;0.4786;0.9834;
789.0000;0.4786;0.9834;
789.3000;0.4811;0.9834;
789.6000;0.4770;0.9716;
789.9000;0.4803;0.9810;
790.2000;0.4803;0.9881;
790.5000;0.4811;0.9952;
790.8000;0.4803;1.0046;
791.1000;0.4811;1.0069;
791.4000;0.4811;1.0140;
791.7000;0.4811;1.0140;
792.0000;0.4827;1.0140;
792.3000;0.4794;1.0069;
792.6000;0.4754;1.0022;
792.9000;0.4803;1.0093;
793.2000;0.4843;1.0163;
793.5000;0.4794;1.0022;
793.8000;0.4803;1.0046;
794.1000;0.4778;0.9928;
794.4000;0.4737;0.9810;
794.7000;0.4786;0.9810;
795.0000;0.4851;0.9975;
795.3000;0.4778;0.9740;
795.6000;0.4827;0.9834;
795.9000;0.4794;0.9787;
796.2000;0.4819;0.9740;
796.5000;0.4786;0.9716;
796.8000;0.4786;0.9740;
797.1000;0.4794;0.9740;
797.4000;0.4803;0.9834;
797.7000;0.4778;0.9669;
798.0000;0.4737;0.9622;
798.3000;0.4770;0.9693;
798.6000;0.4762;0.9622;
798.9000;0.4762;0.9575;
799.2000;0.4770;0.9716;
799.5000;0.4794;0.9787;
799.8000;0.4762;0.9740;
800.1000;0.4770;0.9810;
800.4000;0.4770;0.9787;
800.7000;0.4794;0.9810;
801.0000;0.4827;0.9763;
801.3000;0.4737;0.9458;
801.6000;0.4819;0.9622;
801.9000;0.4770;0.9646;
802.2000;0.4794;0.9716;
802.5000;0.4778;0.9646;
802.8000;0.4811;0.9763;
803.1000;0.4770;0.9716;
803.4000;0.4762;0.9716;
803.7000;0.4705;0.9669;
804.0000;0.4762;0.9857;
804.3000;0.4827;1.0069;
804.6000;0.4835;1.0093;
804.9000;0.4770;1.0022;
805.2000;0.4754;0.9999;
805.5000;0.4754;0.9975;
805.8000;0.4770;0.9928;
806.1000;0.4794;0.9975;
806.4000;0.4770;0.9952;
806.7000;0.4754;0.9928;
807.0000;0.4762;1.0046;
807.3000;0.4778;1.0140;
807.6000;0.4746;0.9975;
807.9000;0.4762;1.0022;
808.2000;0.4778;1.0116;
808.5000;0.4754;1.0069;
808.8000;0.4762;0.9999;
809.1000;0.4754;0.9928;
809.4000;0.4746;0.9904;
809.7000;0.4762;0.9975;
810.0000;0.4762;0.9904;
810.3000;0.4754;0.9881;
810.6000;0.4754;0.9834;
810.9000;0.4754;0.9857;
811.2000;0.4754;0.9810;
811.5000;0.4754;0.9810;
811.8000;0.4705;0.9669;
812.1000;0.4681;0.9599;
812.4000;0.4754;0.9763;
812.7000;0.4794;0.9787;
813.0000;0.4762;0.9787;
813.3000;0.4754;0.9787;
813.6000;0.4754;0.9716;
813.9000;0.4762;0.9763;
814.2000;0.4746;0.9669;
814.5000;0.4770;0.9716;
814.8000;0.4754;0.9646;
815.1000;0.4794;0.9716;
815.4000;0.4746;0.9622;
815.7000;0.4786;0.9693;
816.0000;0.4778;0.9575;
816.3000;0.4762;0.9575;
816.6000;0.4770;0.9740;
816.9000;0.4762;0.9763;
817.2000;0.4770;0.9810;
817.5000;0.4737;0.9740;
817.8000;0.4754;0.9693;
818.1000;0.4721;0.9669;
818.4000;0.4762;0.9763;
818.7000;0.4697;0.9763;
819.0000;0.4778;0.9999;
819.3000;0.4778;0.9952;
819.6000;0.4713;0.9740;
819.9000;0.4770;0.9928;
820.2000;0.4681;0.9740;
820.5000;0.4754;0.9952;
820.8000;0.4737;1.0046;
821.1000;0.4778;1.0234;
821.4000;0.4762;1.0140;
821.7000;0.4729;1.0022;
822.0000;0.4754;0.9975;
822.3000;0.4737;0.9952;
822.6000;0.4770;1.0022;
822.9000;0.4746;0.9952;
823.2000;0.4762;0.9999;
823.5000;0.4737;0.9928;
823.8000;0.4737;0.9928;
824.1000;0.4737;1.0069;
824.4000;0.4672;0.9857;
824.7000;0.4721;1.0069;
825.0000;0.4737;1.0116;
825.3000;0.4648;0.9928;
825.6000;0.4721;1.0093;
825.9000;0.4746;1.0140;
826.2000;0.4737;1.0022;
826.5000;0.4746;1.0046;
826.8000;0.4737;1.0046;
827.1000;0.4713;1.0093;
827.4000;0.4786;1.0351;
827.7000;0.4737;1.0281;
828.0000;0.4737;1.0328;
828.3000;0.4721;1.0328;
828.6000;0.4721;1.0304;
828.9000;0.4729;1.0304;
829.2000;0.4721;1.0257;
829.5000;0.4713;1.0093;
829.8000;0.4721;1.0140;
830.1000;0.4721;1.0163;
830.4000;0.4819;1.0399;
830.7000;0.4713;1.0140;
831.0000;0.4729;1.0116;
831.3000;0.4705;1.0093;
831.6000;0.4746;1.0163;
831.9000;0.4737;1.0140;
832.2000;0.4713;1.0069;
832.5000;0.4811;1.0281;
832.8000;0.4721;0.9975;
833.1000;0.4737;0.9952;
833.4000;0.4705;0.9928;
833.7000;0.4705;0.9881;
834.0000;0.4729;0.9881;
834.3000;0.4737;0.9834;
834.6000;0.4721;0.9857;
834.9000;0.4713;0.9881;
835.2000;0.4721;0.9904;
835.5000;0.4729;0.9904;
835.8000;0.4721;0.9857;
836.1000;0.4721;0.9881;
836.4000;0.4713;0.9787;
836.7000;0.4737;0.9881;
837.0000;0.4721;0.9810;
837.3000;0.4713;0.9716;
837.6000;0.4713;0.9740;
837.9000;0.4697;0.9693;
838.2000;0.4713;0.9693;
838.5000;0.4689;0.9599;
838.8000;0.4721;0.9693;
839.1000;0.4713;0.9693;
839.4000;0.4713;0.9646;
839.7000;0.4697;0.9622;
840.0000;0.4721;0.9669;
840.3000;0.4697;0.9622;
840.6000;0.4721;0.9740;
840.9000;0.4762;0.9928;
841.2000;0.4713;0.9928;
841.5000;0.4664;0.9787;
841.8000;0.4729;0.9928;
842.1000;0.4705;0.9810;
842.4000;0.4656;0.9716;
842.7000;0.4770;1.0069;
843.0000;0.4672;0.9810;
843.3000;0.4713;0.9928;
843.6000;0.4770;0.9999;
843.9000;0.4713;0.9881;
844.2000;0.4754;1.0022;
844.5000;0.4705;0.9881;
844.8000;0.4705;0.9999;
845.1000;0.4705;0.9904;
845.4000;0.4697;0.9787;
845.7000;0.4672;0.9740;
846.0000;0.4754;0.9928;
846.3000;0.4697;0.9740;
846.6000;0.4705;0.9787;
846.9000;0.4713;0.9857;
847.2000;0.4697;0.9881;
847.5000;0.4697;0.9740;
847.8000;0.4681;0.9693;
848.1000;0.4697;0.9834;
848.4000;0.4681;0.9928;
848.7000;0.4689;0.9952;
849.0000;0.4697;0.9975;
849.3000;0.4737;0.9999;
849.6000;0.4681;0.9787;
849.9000;0.4697;0.9857;
850.2000;0.4697;0.9810;
850.5000;0.4697;0.9834;
850.8000;0.4689;0.9857;
851.1000;0.4697;0.9928;
851.4000;0.4672;0.9787;
851.7000;0.4689;0.9928;
852.0000;0.4705;0.9952;
852.3000;0.4697;0.9952;
852.6000;0.4705;0.9904;
852.9000;0.4721;0.9952;
853.2000;0.4689;0.9810;
853.5000;0.4689;0.9810;
853.8000;0.4689;0.9810;
854.1000;0.4656;0.9787;
854.4000;0.4697;0.9928;
854.7000;0.4689;0.9904;
855.0000;0.4689;0.9928;
855.3000;0.4681;0.9928;
855.6000;0.4689;0.9904;
855.9000;0.4689;0.9928;
856.2000;0.4689;0.9904;
856.5000;0.4681;0.9857;
856.8000;0.4697;0.9999;
857.1000;0.4697;0.9999;
857.4000;0.4599;0.9763;
857.7000;0.4705;1.0046;
858.0000;0.4689;1.0046;
858.3000;0.4697;1.0093;
858.6000;0.4713;1.0187;
858.9000;0.4697;1.0093;
859.2000;0.4681;1.0093;
859.5000;0.4697;1.0093;
859.8000;0.4681;1.0046;
860.1000;0.4689;1.0046;
860.4000;0.4689;0.9999;
860.7000;0.4705;1.0069;
861.0000;0.4672;0.9904;
861.3000;0.4656;0.9834;
861.6000;0.4681;0.9928;
861.9000;0.4737;1.0022;
862.2000;0.4664;0.9857;
862.5000;0.4672;0.9904;
862.8000;0.4681;0.9834;
863.1000;0.4697;0.9740;
863.4000;0.4681;0.9763;
863.7000;0.4689;0.9810;
864.0000;0.4713;0.9904;
864.3000;0.4689;0.9881;
864.6000;0.4689;0.9881;
864.9000;0.4697;0.9881;
865.2000;0.4697;0.9834;
865.5000;0.4672;0.9693;
865.8000;0.4672;0.9740;
866.1000;0.4672;0.9834;
866.4000;0.4729;0.9952;
866.7000;0.4681;0.9716;
867.0000;0.4681;0.9834;
867.3000;0.4681;0.9857;
867.6000;0.4672;0.9763;
867.9000;0.4681;0.9787;
868.2000;0.4713;0.9857;
868.5000;0.4689;0.9857;
868.8000;0.4672;0.9834;
869.1000;0.4681;0.9810;
869.4000;0.4664;0.9763;
869.7000;0.4705;0.9834;
870.0000;0.4664;0.9716;
870.3000;0.4672;0.9810;
870.6000;0.4672;0.9834;
870.9000;0.4656;0.9857;
871.2000;0.4713;0.9999;
871.5000;0.4721;1.0022;
871.8000;0.4664;0.9857;
872.1000;0.4672;0.9857;
872.4000;0.4729;0.9975;
872.7000;0.4664;0.9881;
873.0000;0.4672;0.9834;
873.3000;0.4624;0.9763;
873.6000;0.4681;0.9904;
873.9000;0.4648;0.9810;
874.2000;0.4664;0.9881;
874.5000;0.4656;0.9787;
874.8000;0.4697;0.9857;
875.1000;0.4664;0.9857;
875.4000;0.4681;0.9904;
875.7000;0.4664;0.9834;
876.0000;0.4656;0.9810;
876.3000;0.4681;0.9904;
876.6000;0.4681;0.9857;
876.9000;0.4689;0.9834;
877.2000;0.4672;0.9928;
877.5000;0.4664;0.9881;
877.8000;0.4689;0.9999;
878.1000;0.4632;0.9904;
878.4000;0.4672;1.0069;
878.7000;0.4681;1.0163;
879.0000;0.4681;1.0069;
879.3000;0.4672;1.0116;
879.6000;0.4656;0.9975;
879.9000;0.4664;0.9999;
880.2000;0.4681;1.0022;
880.5000;0.4672;1.0069;
880.8000;0.4672;1.0069;
881.1000;0.4632;1.0140;
881.4000;0.4656;1.0187;
881.7000;0.4640;1.0116;
882.0000;0.4681;1.0304;
882.3000;0.4664;1.0281;
882.6000;0.4672;1.0304;
882.9000;0.4672;1.0304;
883.2000;0.4672;1.0257;
883.5000;0.4681;1.0187;
883.8000;0.4632;1.0069;
884.1000;0.4672;1.0234;
884.4000;0.4681;1.0304;
884.7000;0.4681;1.0351;
885.0000;0.4640;1.0210;
885.3000;0.4681;1.0281;
885.6000;0.4656;1.0210;
885.9000;0.4648;1.0093;
886.2000;0.4689;1.0116;
886.5000;0.4648;1.0046;
886.8000;0.4664;1.0046;
887.1000;0.4656;1.0069;
887.4000;0.4664;1.0140;
887.7000;0.4607;0.9975;
888.0000;0.4664;1.0116;
888.3000;0.4656;1.0046;
888.6000;0.4664;1.0069;
888.9000;0.4656;1.0116;
889.2000;0.4681;1.0304;
889.5000;0.4689;1.0281;
889.8000;0.4681;1.0234;
890.1000;0.4664;1.0187;
890.4000;0.4689;1.0234;
890.7000;0.4681;1.0140;
891.0000;0.4648;0.9999;
891.3000;0.4705;1.0069;
891.6000;0.4648;1.0022;
891.9000;0.4664;1.0046;
892.2000;0.4664;1.0046;
892.5000;0.4656;1.0046;
892.8000;0.4672;1.0140;
893.1000;0.4656;1.0163;
893.4000;0.4558;0.9810;
893.7000;0.4656;1.0022;
894.0000;0.4656;1.0046;
894.3000;0.4681;1.0116;
894.6000;0.4664;1.0187;
894.9000;0.4664;1.0093;
895.2000;0.4664;1.0069;
895.5000;0.4664;1.0140;
895.8000;0.4648;1.0093;
896.1000;0.4656;1.0069;
896.4000;0.4640;0.9952;
896.7000;0.4640;0.9999;
897.0000;0.4648;0.9881;
897.3000;0.4656;0.9857;
897.6000;0.4648;0.9928;
897.9000;0.4656;1.0022;
898.2000;0.4681;0.9952;
898.5000;0.4648;0.9952;
898.8000;0.4648;0.9999;
899.1000;0.4656;0.9999;
899.4000;0.4664;1.0022;
899.7000;0.4672;1.0116;
900.0000;0.4656;1.0093;
900.3000;0.4640;1.0116;
900.6000;0.4648;1.0187;
900.9000;0.4656;1.0210;
901.2000;0.4640;1.0163;
901.5000;0.4664;1.0281;
901.8000;0.4656;1.0257;
902.1000;0.4656;1.0281;
902.4000;0.4656;1.0281;
902.7000;0.4656;1.0210;
903.0000;0.4648;1.0234;
903.3000;0.4737;1.0540;
903.6000;0.4632;1.0281;
903.9000;0.4664;1.0375;
904.2000;0.4632;1.0234;
904.5000;0.4648;1.0187;
904.8000;0.4640;1.0163;
905.1000;0.4713;1.0304;
905.4000;0.4656;1.0163;
905.7000;0.4664;1.0140;
906.0000;0.4648;1.0163;
906.3000;0.4656;1.0234;
906.6000;0.4672;1.0281;
906.9000;0.4640;1.0140;
907.2000;0.4672;1.0210;
907.5000;0.4672;1.0234;
907.8000;0.4632;1.0140;
908.1000;0.4656;1.0281;
908.4000;0.4648;1.0351;
908.7000;0.4664;1.0257;
909.0000;0.4632;1.0116;
909.3000;0.4656;1.0210;
909.6000;0.4664;1.0210;
909.9000;0.4640;1.0163;
910.2000;0.4656;1.0187;
910.5000;0.4681;1.0210;
910.8000;0.4672;1.0116;
911.1000;0.4599;0.9999;
911.4000;0.4664;1.0093;
911.7000;0.4664;1.0046;
912.0000;0.4648;1.0093;
912.3000;0.4632;0.9999;
912.6000;0.4615;0.9952;
912.9000;0.4648;1.0069;
913.2000;0.4737;1.0328;
913.5000;0.4672;1.0234;
913.8000;0.4632;1.0093;
914.1000;0.4640;1.0163;
914.4000;0.4607;1.0140;
914.7000;0.4567;1.0046;
915.0000;0.4648;1.0116;
915.3000;0.4632;0.9999;
915.6000;0.4640;1.0069;
915.9000;0.4632;1.0046;
916.2000;0.4632;1.0069;
916.5000;0.4672;1.0093;
916.8000;0.4632;1.0069;
917.1000;0.4640;1.0116;
917.4000;0.4705;1.0304;
917.7000;0.4632;1.0116;
918.0000;0.4615;1.0046;
918.3000;0.4681;1.0210;
918.6000;0.4624;1.0046;
918.9000;0.4624;1.0093;
919.2000;0.4624;1.0093;
919.5000;0.4599;1.0046;
919.8000;0.4624;1.0234;
920.1000;0.4615;1.0234;
920.4000;0.4624;1.0187;
920.7000;0.4648;1.0234;
921.0000;0.4632;1.0234;
921.3000;0.4656;1.0257;
921.6000;0.4640;1.0234;
921.9000;0.4648;1.0281;
922.2000;0.4624;1.0116;
922.5000;0.4648;1.0140;
922.8000;0.4648;1.0187;
923.1000;0.4640;1.0234;
923.4000;0.4648;1.0257;
923.7000;0.4648;1.0234;
924.0000;0.4664;1.0234;
924.3000;0.4648;1.0140;
924.6000;0.4558;0.9928;
924.9000;0.4640;1.0116;
925.2000;0.4624;1.0163;
925.5000;0.4640;1.0304;
925.8000;0.4550;1.0116;
926.1000;0.4632;1.0351;
926.4000;0.4632;1.0399;
926.7000;0.4632;1.0375;
927.0000;0.4648;1.0422;
927.3000;0.4729;1.0681;
927.6000;0.4648;1.0469;
927.9000;0.4632;1.0469;
928.2000;0.4624;1.0351;
928.5000;0.4624;1.0375;
928.8000;0.4640;1.0328;
929.1000;0.4648;1.0399;
929.4000;0.4632;1.0281;
929.7000;0.4615;1.0281;
930.0000;0.4632;1.0281;
930.3000;0.4648;1.0304;
930.6000;0.4624;1.0210;
930.9000;0.4624;1.0163;
931.2000;0.4632;1.0257;
931.5000;0.4656;1.0446;
931.8000;0.4640;1.0375;
932.1000;0.4648;1.0351;
932.4000;0.4632;1.0328;
932.7000;0.4583;1.0163;
933.0000;0.4550;1.0140;
933.3000;0.4591;1.0257;
933.6000;0.4599;1.0328;
933.9000;0.4632;1.0375;
934.2000;0.4615;1.0257;
934.5000;0.4607;1.0210;
934.8000;0.4615;1.0163;
935.1000;0.4599;1.0234;
935.4000;0.4640;1.0399;
935.7000;0.4607;1.0257;
936.0000;0.4624;1.0257;
936.3000;0.4640;1.0281;
936.6000;0.4656;1.0257;
936.9000;0.4664;1.0257;
937.2000;0.4591;1.0163;
937.5000;0.4615;1.0163;
937.8000;0.4624;1.0140;
938.1000;0.4615;1.0163;
938.4000;0.4624;1.0116;
938.7000;0.4607;1.0069;
939.0000;0.4632;1.0140;
939.3000;0.4632;1.0163;
939.6000;0.4624;1.0210;
939.9000;0.4615;1.0116;
940.2000;0.4615;1.0140;
940.5000;0.4624;1.0140;
940.8000;0.4624;1.0163;
941.1000;0.4615;1.0140;
941.4000;0.4632;1.0210;
941.7000;0.4624;1.0187;
942.0000;0.4640;1.0281;
942.3000;0.4624;1.0351;
942.6000;0.4615;1.0351;
942.9000;0.4624;1.0257;
943.2000;0.4624;1.0234;
943.5000;0.4615;1.0281;
943.8000;0.4550;1.0116;
944.1000;0.4624;1.0234;
944.4000;0.4615;1.0257;
944.7000;0.4607;1.0163;
945.0000;0.4624;1.0187;
945.3000;0.4640;1.0304;
945.6000;0.4607;1.0210;
945.9000;0.4632;1.0187;
946.2000;0.4615;1.0140;
946.5000;0.4624;1.0163;
946.8000;0.4648;1.0140;
947.1000;0.4624;1.0210;
947.4000;0.4640;1.0304;
947.7000;0.4567;1.0069;
948.0000;0.4640;1.0328;
948.3000;0.4624;1.0257;
948.6000;0.4624;1.0351;
948.9000;0.4632;1.0304;
949.2000;0.4632;1.0234;
949.5000;0.4607;1.0140;
949.8000;0.4615;1.0093;
950.1000;0.4534;0.9881;
950.4000;0.4615;1.0046;
950.7000;0.4615;0.9999;
951.0000;0.4632;1.0069;
951.3000;0.4632;1.0116;
951.6000;0.4615;1.0187;
951.9000;0.4632;1.0234;
952.2000;0.4681;1.0399;
952.5000;0.4624;1.0234;
952.8000;0.4615;1.0304;
953.1000;0.4640;1.0257;
953.4000;0.4615;1.0234;
953.7000;0.4615;1.0187;
954.0000;0.4615;1.0163;
954.3000;0.4624;1.0187;
954.6000;0.4526;0.9928;
954.9000;0.4615;1.0234;
955.2000;0.4607;1.0069;
955.5000;0.4632;1.0116;
955.8000;0.4632;1.0187;
956.1000;0.4640;1.0210;
956.4000;0.4640;1.0163;
956.7000;0.4624;1.0187;
957.0000;0.4648;1.0304;
957.3000;0.4632;1.0257;
957.6000;0.4624;1.0351;
957.9000;0.4607;1.0304;
958.2000;0.4624;1.0304;
958.5000;0.4575;1.0210;
958.8000;0.4624;1.0375;
959.1000;0.4607;1.0399;
959.4000;0.4632;1.0375;
959.7000;0.4624;1.0351;
960.0000;0.4607;1.0281;
960.3000;0.4648;1.0375;
960.6000;0.4607;1.0399;
960.9000;0.4583;1.0351;
961.2000;0.4624;1.0328;
961.5000;0.4599;1.0304;
961.8000;0.4656;1.0399;
962.1000;0.4607;1.0351;
962.4000;0.4624;1.0257;
962.7000;0.4632;1.0281;
963.0000;0.4607;1.0210;
963.3000;0.4656;1.0304;
963.6000;0.4599;1.0210;
963.9000;0.4624;1.0234;
964.2000;0.4591;1.0140;
964.5000;0.4607;1.0257;
964.8000;0.4624;1.0234;
965.1000;0.4591;1.0187;
965.4000;0.4599;1.0140;
965.7000;0.4591;1.0140;
966.0000;0.4607;1.0187;
966.3000;0.4558;0.9975;
966.6000;0.4607;1.0281;
966.9000;0.4615;1.0234;
967.2000;0.4632;1.0210;
967.5000;0.4575;1.0069;
967.8000;0.4632;1.0046;
968.1000;0.4607;1.0022;
968.4000;0.4607;1.0140;
968.7000;0.4632;1.0069;
969.0000;0.4615;1.0046;
969.3000;0.4591;0.9999;
969.6000;0.4640;1.0140;
969.9000;0.4558;0.9881;
970.2000;0.4607;0.9999;
970.5000;0.4567;0.9881;
970.8000;0.4599;0.9928;
971.1000;0.4607;0.9928;
971.4000;0.4615;0.9975;
971.7000;0.4615;1.0022;
972.0000;0.4615;1.0022;
972.3000;0.4624;0.9999;
972.6000;0.4607;0.9975;
972.9000;0.4615;1.0069;
973.2000;0.4648;1.0069;
973.5000;0.4583;1.0046;
973.8000;0.4632;1.0187;
974.1000;0.4583;1.0140;
974.4000;0.4615;1.0257;
974.7000;0.4591;1.0257;
975.0000;0.4607;1.0210;
975.3000;0.4518;0.9904;
975.6000;0.4542;0.9904;
975.9000;0.4591;1.0022;
976.2000;0.4607;0.9999;
976.5000;0.4591;0.9952;
976.8000;0.4550;0.9904;
977.1000;0.4599;0.9999;
977.4000;0.4607;1.0069;
977.7000;0.4575;0.9975;
978.0000;0.4599;1.0163;
978.3000;0.4599;1.0093;
978.6000;0.4567;1.0022;
978.9000;0.4640;1.0328;
979.2000;0.4599;1.0257;
979.5000;0.4583;1.0093;
979.8000;0.4599;1.0022;
980.1000;0.4607;0.9999;
980.4000;0.4591;1.0022;
980.7000;0.4615;1.0093;
981.0000;0.4591;1.0046;
981.3000;0.4591;1.0046;
981.6000;0.4607;1.0116;
981.9000;0.4615;1.0140;
982.2000;0.4632;1.0187;
982.5000;0.4615;1.0163;
982.8000;0.4624;1.0187;
983.1000;0.4607;1.0069;
983.4000;0.4607;0.9999;
983.7000;0.4615;1.0069;
984.0000;0.4575;1.0069;
984.3000;0.4624;1.0140;
984.6000;0.4591;1.0069;
984.9000;0.4575;1.0046;
985.2000;0.4607;1.0069;
985.5000;0.4615;1.0116;
985.8000;0.4591;1.0069;
986.1000;0.4591;1.0163;
986.4000;0.4599;1.0187;
986.7000;0.4599;1.0304;
987.0000;0.4599;1.0257;
987.3000;0.4624;1.0304;
987.6000;0.4591;1.0163;
987.9000;0.4656;1.0210;
988.2000;0.4599;1.0093;
988.5000;0.4542;0.9999;
988.8000;0.4575;1.0069;
989.1000;0.4607;1.0116;
989.4000;0.4624;1.0234;
989.7000;0.4599;1.0210;
990.0000;0.4607;1.0328;
990.3000;0.4599;1.0304;
990.6000;0.4575;1.0281;
990.9000;0.4599;1.0257;
991.2000;0.4615;1.0304;
991.5000;0.4599;1.0281;
991.8000;0.4624;1.0422;
992.1000;0.4607;1.0375;
992.4000;0.4615;1.0304;
992.7000;0.4615;1.0304;
993.0000;0.4632;1.0375;
993.3000;0.4615;1.0351;
993.6000;0.4558;1.0257;
993.9000;0.4632;1.0375;
994.2000;0.4615;1.0469;
994.5000;0.4615;1.0399;
994.8000;0.4729;1.0657;
995.1000;0.4607;1.0281;
995.4000;0.4607;1.0304;
995.7000;0.4599;1.0187;
996.0000;0.4591;1.0140;
996.3000;0.4599;1.0140;
996.6000;0.4607;1.0257;
996.9000;0.4599;1.0281;
997.2000;0.4575;1.0234;
997.5000;0.4550;1.0116;
997.8000;0.4583;1.0093;
998.1000;0.4599;1.0093;
998.4000;0.4583;1.0046;
998.7000;0.4599;1.0046;
999.0000;0.4575;1.0093;
999.3000;0.4615;1.0234;
999.6000;0.4599;1.0210;
999.9000;0.4591;1.0210;
1000.2000;0.4583;1.0163;
1000.5000;0.4591;1.0187;
1000.8000;0.4632;1.0187;
1001.1000;0.4583;1.0140;
1001.4000;0.4567;1.0093;
1001.7000;0.4575;1.0069;
1002.0000;0.4575;1.0022;
1002.3000;0.4558;0.9975;
1002.6000;0.4575;0.9975;
1002.9000;0.4615;1.0046;
1003.2000;0.4591;1.0022;
1003.5000;0.4599;1.0163;
1003.8000;0.4583;1.0069;
1004.1000;0.4583;0.9999;
1004.4000;0.4591;1.0022;
1004.7000;0.4591;1.0093;
1005.0000;0.4591;1.0210;
1005.3000;0.4567;1.0234;
1005.6000;0.4607;1.0257;
1005.9000;0.4624;1.0140;
1006.2000;0.4567;0.9999;
1006.5000;0.4534;0.9881;
1006.8000;0.4599;0.9975;
1007.1000;0.4591;0.9999;
1007.4000;0.4681;1.0163;
1007.7000;0.4591;0.9928;
1008.0000;0.4607;1.0069;
1008.3000;0.4599;0.9999;
1008.6000;0.4599;0.9975;
1008.9000;0.4501;0.9740;
1009.2000;0.4583;0.9881;
1009.5000;0.4583;0.9881;
1009.8000;0.4607;0.9975;
1010.1000;0.4583;0.9975;
1010.4000;0.4567;0.9928;
1010.7000;0.4575;0.9904;
1011.0000;0.4583;1.0022;
1011.3000;0.4599;1.0093;
1011.6000;0.4607;1.0069;
1011.9000;0.4575;1.0140;
1012.2000;0.4575;1.0257;
1012.5000;0.4518;1.0163;
1012.8000;0.4550;1.0234;
1013.1000;0.4575;1.0163;
1013.4000;0.4567;1.0210;
1013.7000;0.4567;1.0140;
1014.0000;0.4591;1.0163;
1014.3000;0.4640;1.0304;
1014.6000;0.4599;1.0234;
1014.9000;0.4575;1.0234;
1015.2000;0.4583;1.0304;
1015.5000;0.4599;1.0375;
1015.8000;0.4599;1.0422;
1016.1000;0.4567;1.0375;
1016.4000;0.4607;1.0446;
1016.7000;0.4599;1.0375;
1017.0000;0.4591;1.0281;
1017.3000;0.4607;1.0281;
1017.6000;0.4583;1.0281;
1017.9000;0.4591;1.0375;
1018.2000;0.4591;1.0375;
1018.5000;0.4567;1.0281;
1018.8000;0.4615;1.0399;
1019.1000;0.4599;1.0328;
1019.4000;0.4615;1.0328;
1019.7000;0.4575;1.0140;
1020.0000;0.4567;1.0046;
1020.3000;0.4583;1.0069;
1020.6000;0.4550;0.9952;
1020.9000;0.4567;1.0046;
1021.2000;0.4632;1.0234;
1021.5000;0.4599;1.0140;
1021.8000;0.4567;1.0116;
1022.1000;0.4550;1.0022;
1022.4000;0.4583;1.0210;
1022.7000;0.4583;1.0281;
1023.0000;0.4567;1.0163;
1023.3000;0.4648;1.0328;
1023.6000;0.4583;1.0163;
1023.9000;0.4583;1.0163;
1024.2000;0.4591;1.0187;
1024.5000;0.4542;1.0069;
1024.8000;0.4583;1.0093;
1025.1000;0.4567;1.0022;
1025.4000;0.4599;1.0163;
1025.7000;0.4624;1.0304;
1026.0000;0.4591;1.0281;
1026.3000;0.4640;1.0304;
1026.6000;0.4640;1.0351;
1026.9000;0.4583;1.0163;
1027.2000;0.4648;1.0328;
1027.5000;0.4599;1.0234;
1027.8000;0.4583;1.0140;
1028.1000;0.4591;1.0116;
1028.4000;0.4599;1.0210;
1028.7000;0.4558;1.0069;
1029.0000;0.4624;1.0187;
1029.3000;0.4599;1.0093;
1029.6000;0.4607;1.0116;
1029.9000;0.4583;1.0046;
1030.2000;0.4607;1.0140;
1030.5000;0.4567;1.0046;
1030.8000;0.4615;1.0187;
1031.1000;0.4550;1.0022;
1031.4000;0.4583;1.0140;
1031.7000;0.4583;1.0187;
1032.0000;0.4575;1.0140;
1032.3000;0.4526;1.0140;
1032.6000;0.4567;1.0210;
1032.9000;0.4591;1.0257;
1033.2000;0.4575;1.0234;
1033.5000;0.4583;1.0234;
1033.8000;0.4558;1.0093;
1034.1000;0.4575;1.0093;
1034.4000;0.4591;1.0093;
1034.7000;0.4575;1.0046;
1035.0000;0.4550;0.9975;
1035.3000;0.4632;1.0140;
1035.6000;0.4567;1.0022;
1035.9000;0.4591;1.0046;
1036.2000;0.4558;1.0069;
1036.5000;0.4567;1.0046;
1036.8000;0.4583;1.0093;
1037.1000;0.4567;1.0140;
1037.4000;0.4575;1.0187;
1037.7000;0.4550;1.0187;
1038.0000;0.4575;1.0257;
1038.3000;0.4567;1.0304;
1038.6000;0.4591;1.0304;
1038.9000;0.4558;1.0210;
1039.2000;0.4591;1.0210;
1039.5000;0.4591;1.0234;
1039.8000;0.4575;1.0116;
1040.1000;0.4599;1.0140;
1040.4000;0.4624;1.0210;
1040.7000;0.4567;1.0163;
1041.0000;0.4591;1.0187;
1041.3000;0.4575;1.0163;
1041.6000;0.4550;1.0069;
1041.9000;0.4640;1.0163;
1042.2000;0.4567;1.0046;
1042.5000;0.4575;1.0046;
1042.8000;0.4567;1.0140;
1043.1000;0.4624;1.0304;
1043.4000;0.4567;1.0234;
1043.7000;0.4583;1.0375;
1044.0000;0.4575;1.0304;
1044.3000;0.4591;1.0140;
1044.6000;0.4599;1.0187;
1044.9000;0.4567;1.0210;
1045.2000;0.4583;1.0210;
1045.5000;0.4599;1.0116;
1045.8000;0.4615;1.0093;
1046.1000;0.4567;0.9881;
1046.4000;0.4599;1.0022;
1046.7000;0.4607;1.0093;
1047.0000;0.4542;0.9928;
1047.3000;0.4575;1.0069;
1047.6000;0.4599;1.0140;
1047.9000;0.4567;1.0093;
1048.2000;0.4615;1.0187;
1048.5000;0.4526;0.9999;
1048.8000;0.4558;1.0116;
1049.1000;0.4575;1.0140;
1049.4000;0.4575;1.0093;
1049.7000;0.4558;1.0046;
1050.0000;0.4567;1.0046;
1050.3000;0.4599;1.0140;
1050.6000;0.4599;1.0093;
1050.9000;0.4567;1.0022;
1051.2000;0.4583;1.0046;
1051.5000;0.4534;0.9975;
1051.8000;0.4583;1.0093;
1052.1000;0.4567;1.0069;
1052.4000;0.4575;1.0093;
1052.7000;0.4567;0.9999;
1053.0000;0.4558;1.0069;
1053.3000;0.4583;1.0046;
1053.6000;0.4558;0.9928;
1053.9000;0.4624;0.9928;
1054.2000;0.4599;0.9857;
1054.5000;0.4583;0.9763;
1054.8000;0.4583;0.9810;
1055.1000;0.4583;0.9810;
1055.4000;0.4591;0.9763;
1055.7000;0.4599;0.9834;
1056.0000;0.4640;1.0046;
1056.3000;0.4599;1.0022;
1056.6000;0.4567;1.0046;
1056.9000;0.4567;1.0069;
1057.2000;0.4591;1.0140;
1057.5000;0.4575;1.0093;
1057.8000;0.4567;0.9975;
1058.1000;0.4567;0.9999;
1058.4000;0.4542;0.9928;
1058.7000;0.4575;1.0022;
1059.0000;0.4567;0.9999;
1059.3000;0.4599;1.0116;
1059.6000;0.4567;1.0046;
1059.9000;0.4575;1.0069;
1060.2000;0.4567;1.0116;
1060.5000;0.4599;1.0140;
1060.8000;0.4575;1.0069;
1061.1000;0.4567;1.0046;
1061.4000;0.4558;0.9952;
1061.7000;0.4575;1.0022;
1062.0000;0.4632;1.0281;
1062.3000;0.4567;1.0163;
1062.6000;0.4567;1.0116;
1062.9000;0.4567;1.0116;
1063.2000;0.4583;1.0046;
1063.5000;0.4591;1.0093;
1063.8000;0.4567;1.0093;
1064.1000;0.4583;1.0093;
1064.4000;0.4550;1.0046;
1064.7000;0.4575;1.0140;
1065.0000;0.4599;1.0304;
1065.3000;0.4567;1.0234;
1065.6000;0.4575;1.0163;
1065.9000;0.4583;1.0116;
1066.2000;0.4591;1.0116;
1066.5000;0.4583;1.0140;
1066.8000;0.4550;1.0046;
1067.1000;0.4591;1.0234;
1067.4000;0.4583;1.0163;
1067.7000;0.4591;1.0163;
1068.0000;0.4575;1.0210;
1068.3000;0.4575;1.0234;
1068.6000;0.4583;1.0187;
1068.9000;0.4583;1.0140;
1069.2000;0.4583;1.0046;
1069.5000;0.4640;1.0234;
1069.8000;0.4567;1.0046;
1070.1000;0.4558;1.0093;
1070.4000;0.4575;1.0093;
1070.7000;0.4591;1.0163;
1071.0000;0.4567;1.0116;
1071.3000;0.4558;1.0187;
1071.6000;0.4575;1.0210;
1071.9000;0.4558;1.0069;
1072.2000;0.4567;1.0093;
1072.5000;0.4558;1.0140;
1072.8000;0.4583;1.0116;
1073.1000;0.4591;1.0116;
1073.4000;0.4575;1.0140;
1073.7000;0.4583;1.0257;
1074.0000;0.4558;1.0210;
1074.3000;0.4550;1.0163;
1074.6000;0.4575;1.0140;
1074.9000;0.4575;1.0093;
1075.2000;0.4558;1.0140;
1075.5000;0.4567;1.0116;
1075.8000;0.4575;1.0163;
1076.1000;0.4583;1.0187;
1076.4000;0.4558;1.0234;
1076.7000;0.4558;1.0257;
1077.0000;0.4575;1.0257;
1077.3000;0.4542;1.0163;
1077.6000;0.4558;1.0187;
1077.9000;0.4550;1.0116;
1078.2000;0.4501;0.9975;
1078.5000;0.4583;1.0140;
1078.8000;0.4567;1.0116;
1079.1000;0.4534;0.9975;
1079.4000;0.4615;1.0234;
1079.7000;0.4567;1.0187;
1080.0000;0.4558;1.0163;
1080.3000;0.4550;1.0210;
1080.6000;0.4567;1.0210;
1080.9000;0.4542;1.0187;
1081.2000;0.4558;1.0163;
1081.5000;0.4558;1.0187;
1081.8000;0.4558;1.0187;
1082.1000;0.4550;1.0281;
1082.4000;0.4591;1.0375;
1082.7000;0.4575;1.0375;
1083.0000;0.4575;1.0304;
1083.3000;0.4615;1.0422;
1083.6000;0.4583;1.0328;
1083.9000;0.4599;1.0446;
1084.2000;0.4575;1.0351;
1084.5000;0.4558;1.0234;
1084.8000;0.4583;1.0351;
1085.1000;0.4567;1.0375;
1085.4000;0.4567;1.0234;
1085.7000;0.4575;1.0210;
1086.0000;0.4575;1.0234;
1086.3000;0.4648;1.0422;
1086.6000;0.4567;1.0163;
1086.9000;0.4542;1.0116;
1087.2000;0.4575;1.0210;
1087.5000;0.4542;1.0093;
1087.8000;0.4567;1.0046;
1088.1000;0.4599;1.0210;
1088.4000;0.4575;1.0187;
1088.7000;0.4583;1.0234;
1089.0000;0.4567;1.0140;
1089.3000;0.4550;1.0093;
1089.6000;0.4567;1.0069;
1089.9000;0.4624;1.0257;
1090.2000;0.4558;1.0116;
1090.5000;0.4567;1.0069;
1090.8000;0.4567;1.0140;
1091.1000;0.4567;1.0140;
1091.4000;0.4567;1.0116;
1091.7000;0.4558;0.9952;
1092.0000;0.4583;1.0069;
1092.3000;0.4567;1.0069;
1092.6000;0.4558;1.0140;
1092.9000;0.4550;1.0116;
1093.2000;0.4550;1.0210;
1093.5000;0.4526;1.0187;
1093.8000;0.4550;1.0116;
1094.1000;0.4567;1.0187;
1094.4000;0.4558;1.0210;
1094.7000;0.4591;1.0304;
1095.0000;0.4575;1.0304;
1095.3000;0.4550;1.0281;
1095.6000;0.4575;1.0281;
1095.9000;0.4542;1.0163;
1096.2000;0.4575;1.0163;
1096.5000;0.4567;1.0210;
1096.8000;0.4558;1.0187;
1097.1000;0.4567;1.0257;
1097.4000;0.4550;1.0187;
1097.7000;0.4599;1.0351;
1098.0000;0.4575;1.0210;
1098.3000;0.4526;1.0022;
1098.6000;0.4583;1.0046;
1098.9000;0.4567;1.0069;
1099.2000;0.4583;1.0140;
1099.5000;0.4550;0.9999;
1099.8000;0.4575;1.0069;
1100.1000;0.4599;1.0069;
1100.4000;0.4518;0.9928;
1100.7000;0.4542;1.0046;
1101.0000;0.4567;1.0022;
1101.3000;0.4583;1.0093;
1101.6000;0.4558;1.0187;
1101.9000;0.4558;1.0187;
1102.2000;0.4510;1.0093;
1102.5000;0.4550;1.0116;
1102.8000;0.4583;1.0140;
1103.1000;0.4550;1.0069;
1103.4000;0.4542;1.0022;
1103.7000;0.4534;0.9952;
1104.0000;0.4567;0.9975;
1104.3000;0.4648;1.0234;
1104.6000;0.4550;1.0022;
1104.9000;0.4558;0.9999;
1105.2000;0.4558;1.0022;
1105.5000;0.4558;1.0022;
1105.8000;0.4567;0.9999;
1106.1000;0.4567;1.0022;
1106.4000;0.4526;0.9857;
1106.7000;0.4567;1.0069;
1107.0000;0.4583;1.0046;
1107.3000;0.4575;1.0093;
1107.6000;0.4550;1.0140;
1107.9000;0.4550;1.0163;
1108.2000;0.4567;1.0234;
1108.5000;0.4567;1.0163;
1108.8000;0.4567;1.0210;
1109.1000;0.4575;1.0210;
1109.4000;0.4567;1.0163;
1109.7000;0.4542;1.0116;
1110.0000;0.4550;1.0187;
1110.3000;0.4591;1.0304;
1110.6000;0.4567;1.0187;
1110.9000;0.4575;1.0234;
1111.2000;0.4542;1.0257;
1111.5000;0.4567;1.0210;
1111.8000;0.4501;1.0116;
1112.1000;0.4599;1.0281;
1112.4000;0.4558;1.0210;
1112.7000;0.4575;1.0234;
1113.0000;0.4567;1.0234;
1113.3000;0.4461;0.9975;
1113.6000;0.4558;1.0069;
1113.9000;0.4550;1.0069;
1114.2000;0.4558;1.0163;
1114.5000;0.4599;1.0351;
1114.8000;0.4624;1.0493;
1115.1000;0.4558;1.0422;
1115.4000;0.4575;1.0540;
1115.7000;0.4558;1.0469;
1116.0000;0.4567;1.0399;
1116.3000;0.4542;1.0281;
1116.6000;0.4534;1.0281;
1116.9000;0.4567;1.0399;
1117.2000;0.4583;1.0446;
1117.5000;0.4550;1.0351;
1117.8000;0.4558;1.0304;
1118.1000;0.4542;1.0304;
1118.4000;0.4575;1.0375;
1118.7000;0.4550;1.0304;
1119.0000;0.4558;1.0281;
1119.3000;0.4542;1.0163;
1119.6000;0.4558;1.0187;
1119.9000;0.4542;1.0187;
1120.2000;0.4583;1.0257;
1120.5000;0.4558;1.0328;
1120.8000;0.4567;1.0446;
1121.1000;0.4518;1.0304;
1121.4000;0.4558;1.0351;
1121.7000;0.4583;1.0281;
1122.0000;0.4558;1.0234;
1122.3000;0.4567;1.0257;
1122.6000;0.4567;1.0328;
1122.9000;0.4567;1.0351;
1123.2000;0.4591;1.0399;
1123.5000;0.4542;1.0187;
1123.8000;0.4583;1.0234;
1124.1000;0.4461;0.9952;
1124.4000;0.4567;1.0210;
1124.7000;0.4583;1.0257;
1125.0000;0.4607;1.0351;
1125.3000;0.4542;1.0116;
1125.6000;0.4575;1.0187;
1125.9000;0.4575;1.0234;
1126.2000;0.4567;1.0140;
1126.5000;0.4550;1.0116;
1126.8000;0.4550;1.0069;
1127.1000;0.4575;1.0069;
1127.4000;0.4632;1.0375;
1127.7000;0.4558;1.0210;
1128.0000;0.4550;1.0187;
1128.3000;0.4575;1.0234;
1128.6000;0.4558;1.0140;
1128.9000;0.4567;1.0187;
1129.2000;0.4542;1.0093;
1129.5000;0.4567;1.0187;
1129.8000;0.4558;1.0140;
1130.1000;0.4558;1.0116;
1130.4000;0.4558;1.0069;
1130.7000;0.4542;1.0022;
1131.0000;0.4558;1.0163;
1131.3000;0.4558;1.0163;
1131.6000;0.4567;1.0187;
1131.9000;0.4542;1.0116;
1132.2000;0.4575;1.0163;
1132.5000;0.4583;1.0140;
1132.8000;0.4567;1.0046;
1133.1000;0.4583;1.0116;
1133.4000;0.4567;1.0187;
1133.7000;0.4567;1.0304;
1134.0000;0.4575;1.0281;
1134.3000;0.4567;1.0210;
1134.6000;0.4558;1.0046;
1134.9000;0.4550;1.0022;
1135.2000;0.4558;1.0022;
1135.5000;0.4567;1.0069;
1135.8000;0.4534;0.9975;
1136.1000;0.4534;0.9975;
1136.4000;0.4542;0.9999;
1136.7000;0.4591;1.0069;
1137.0000;0.4567;0.9999;
1137.3000;0.4510;0.9810;
1137.6000;0.4542;0.9928;
1137.9000;0.4567;0.9999;
1138.2000;0.4550;1.0022;
1138.5000;0.4599;1.0093;
1138.8000;0.4567;0.9999;
1139.1000;0.4640;1.0328;
1139.4000;0.4558;1.0093;
1139.7000;0.4542;1.0140;
1140.0000;0.4558;1.0234;
1140.3000;0.4575;1.0304;
1140.6000;0.4542;1.0210;
1140.9000;0.4558;1.0187;
1141.2000;0.4550;1.0210;
1141.5000;0.4526;1.0187;
1141.8000;0.4542;1.0234;
1142.1000;0.4542;1.0328;
1142.4000;0.4550;1.0375;
1142.7000;0.4550;1.0375;
1143.0000;0.4534;1.0304;
1143.3000;0.4558;1.0304;
1143.6000;0.4648;1.0540;
1143.9000;0.4567;1.0422;
1144.2000;0.4583;1.0399;
1144.5000;0.4542;1.0351;
1144.8000;0.4550;1.0328;
1145.1000;0.4567;1.0375;
1145.4000;0.4567;1.0375;
1145.7000;0.4567;1.0375;
1146.0000;0.4583;1.0422;
1146.3000;0.4558;1.0422;
1146.6000;0.4567;1.0446;
1146.9000;0.4534;1.0399;
1147.2000;0.4615;1.0634;
1147.5000;0.4575;1.0375;
1147.8000;0.4583;1.0422;
1148.1000;0.4542;1.0328;
1148.4000;0.4550;1.0328;
1148.7000;0.4534;1.0328;
1149.0000;0.4542;1.0234;
1149.3000;0.4526;1.0187;
1149.6000;0.4550;1.0210;
1149.9000;0.4501;1.0116;
1150.2000;0.4550;1.0234;
1150.5000;0.4550;1.0210;
1150.8000;0.4518;1.0163;
1151.1000;0.4575;1.0351;
1151.4000;0.4599;1.0516;
1151.7000;0.4542;1.0375;
1152.0000;0.4534;1.0281;
1152.3000;0.4542;1.0304;
1152.6000;0.4558;1.0281;
1152.9000;0.4485;1.0022;
1153.2000;0.4575;1.0234;
1153.5000;0.4534;1.0257;
1153.8000;0.4567;1.0351;
1154.1000;0.4575;1.0399;
1154.4000;0.4567;1.0304;
1154.7000;0.4550;1.0163;
1155.0000;0.4542;1.0140;
1155.3000;0.4550;1.0093;
1155.6000;0.4558;1.0069;
1155.9000;0.4558;1.0140;
1156.2000;0.4550;1.0257;
1156.5000;0.4542;1.0328;
1156.8000;0.4550;1.0399;
1157.1000;0.4542;1.0304;
1157.4000;0.4534;1.0140;
1157.7000;0.4542;1.0187;
1158.0000;0.4542;1.0210;
1158.3000;0.4558;1.0257;
1158.6000;0.4518;1.0234;
1158.9000;0.4558;1.0257;
1159.2000;0.4558;1.0210;
1159.5000;0.4583;1.0304;
1159.8000;0.4510;1.0093;
1160.1000;0.4526;1.0140;
1160.4000;0.4591;1.0257;
1160.7000;0.4567;1.0163;
1161.0000;0.4550;1.0163;
1161.3000;0.4624;1.0375;
1161.6000;0.4542;1.0210;
1161.9000;0.4550;1.0281;
1162.2000;0.4583;1.0375;
1162.5000;0.4624;1.0516;
1162.8000;0.4542;1.0281;
1163.1000;0.4542;1.0281;
1163.4000;0.4558;1.0399;
1163.7000;0.4550;1.0422;
1164.0000;0.4558;1.0446;
1164.3000;0.4542;1.0540;
1164.6000;0.4567;1.0610;
1164.9000;0.4558;1.0493;
1165.2000;0.4567;1.0446;
1165.5000;0.4550;1.0446;
1165.8000;0.4567;1.0446;
1166.1000;0.4575;1.0493;
1166.4000;0.4550;1.0399;
1166.7000;0.4550;1.0399;
1167.0000;0.4583;1.0469;
1167.3000;0.4558;1.0328;
1167.6000;0.4542;1.0304;
1167.9000;0.4558;1.0187;
1168.2000;0.4526;1.0093;
1168.5000;0.4550;1.0116;
1168.8000;0.4501;1.0069;
1169.1000;0.4591;1.0328;
1169.4000;0.4558;1.0281;
1169.7000;0.4550;1.0281;
1170.0000;0.4583;1.0351;
1170.3000;0.4550;1.0234;
1170.6000;0.4558;1.0257;
1170.9000;0.4542;1.0281;
1171.2000;0.4550;1.0328;
1171.5000;0.4550;1.0281;
1171.8000;0.4558;1.0210;
1172.1000;0.4575;1.0281;
1172.4000;0.4550;1.0257;
1172.7000;0.4510;1.0234;
1173.0000;0.4550;1.0257;
1173.3000;0.4575;1.0328;
1173.6000;0.4567;1.0257;
1173.9000;0.4518;1.0187;
1174.2000;0.4550;1.0257;
1174.5000;0.4567;1.0281;
1174.8000;0.4599;1.0351;
1175.1000;0.4534;1.0210;
1175.4000;0.4567;1.0328;
1175.7000;0.4550;1.0257;
1176.0000;0.4558;1.0257;
1176.3000;0.4550;1.0210;
1176.6000;0.4575;1.0187;
1176.9000;0.4526;1.0140;
1177.2000;0.4558;1.0234;
1177.5000;0.4542;1.0234;
1177.8000;0.4477;1.0116;
1178.1000;0.4534;1.0257;
1178.4000;0.4542;1.0210;
1178.7000;0.4542;1.0257;
1179.0000;0.4575;1.0469;
1179.3000;0.4567;1.0399;
1179.6000;0.4526;1.0328;
1179.9000;0.4607;1.0563;
1180.2000;0.4534;1.0257;
1180.5000;0.4542;1.0304;
1180.8000;0.4550;1.0328;
1181.1000;0.4526;1.0304;
1181.4000;0.4599;1.0469;
1181.7000;0.4550;1.0399;
1182.0000;0.4615;1.0493;
1182.3000;0.4558;1.0328;
1182.6000;0.4550;1.0328;
1182.9000;0.4575;1.0234;
1183.2000;0.4542;1.0187;
1183.5000;0.4510;0.9999;
1183.8000;0.4583;1.0163;
1184.1000;0.4591;1.0234;
1184.4000;0.4567;1.0187;
1184.7000;0.4558;1.0210;
1185.0000;0.4542;1.0234;
1185.3000;0.4534;1.0328;
1185.6000;0.4567;1.0399;
1185.9000;0.4550;1.0351;
1186.2000;0.4558;1.0375;
1186.5000;0.4558;1.0328;
1186.8000;0.4558;1.0304;
1187.1000;0.4550;1.0328;
1187.4000;0.4567;1.0234;
1187.7000;0.4534;1.0187;
1188.0000;0.4550;1.0163;
1188.3000;0.4558;1.0163;
1188.6000;0.4461;0.9881;
1188.9000;0.4534;1.0069;
1189.2000;0.4550;1.0046;
1189.5000;0.4550;1.0022;
1189.8000;0.4591;1.0140;
1190.1000;0.4558;1.0069;
1190.4000;0.4550;1.0022;
1190.7000;0.4550;0.9999;
1191.0000;0.4567;1.0069;
1191.3000;0.4558;1.0022;
1191.6000;0.4567;0.9999;
1191.9000;0.4558;1.0069;
1192.2000;0.4558;1.0069;
1192.5000;0.4567;1.0116;
1192.8000;0.4558;1.0163;
1193.1000;0.4558;1.0093;
1193.4000;0.4550;1.0163;
1193.7000;0.4558;1.0281;
1194.0000;0.4567;1.0375;
1194.3000;0.4453;1.0093;
1194.6000;0.4534;1.0187;
1194.9000;0.4542;1.0140;
1195.2000;0.4518;1.0140;
1195.5000;0.4526;1.0116;
1195.8000;0.4567;1.0304;
1196.1000;0.4534;1.0281;
1196.4000;0.4542;1.0375;
1196.7000;0.4615;1.0516;
1197.0000;0.4526;1.0399;
1197.3000;0.4640;1.0634;
1197.6000;0.4542;1.0281;
1197.9000;0.4591;1.0304;
1198.2000;0.4526;1.0163;
1198.5000;0.4583;1.0257;
1198.8000;0.4615;1.0328;
1199.1000;0.4542;1.0116;
1199.4000;0.4526;1.0163;
1199.7000;0.4485;1.0093;
1200.0000;0.4493;1.0116;
1200.3000;0.4526;1.0257;
1200.6000;0.4542;1.0257;
1200.9000;0.4534;1.0257;
1201.2000;0.4542;1.0234;
1201.5000;0.4615;1.0469;
1201.8000;0.4550;1.0257;
1202.1000;0.4542;1.0257;
1202.4000;0.4526;1.0210;
1202.7000;0.4542;1.0116;
1203.0000;0.4542;1.0116;
1203.3000;0.4558;1.0069;
1203.6000;0.4550;1.0093;
1203.9000;0.4567;1.0187;
1204.2000;0.4599;1.0281;
1204.5000;0.4558;1.0163;
1204.8000;0.4558;1.0163;
1205.1000;0.4550;1.0187;
1205.4000;0.4583;1.0210;
1205.7000;0.4583;1.0234;
1206.0000;0.4567;1.0257;
1206.3000;0.4567;1.0328;
1206.6000;0.4558;1.0281;
1206.9000;0.4567;1.0257;
1207.2000;0.4550;1.0257;
1207.5000;0.4550;1.0234;
1207.8000;0.4567;1.0281;
1208.1000;0.4567;1.0234;
1208.4000;0.4542;1.0163;
1208.7000;0.4526;1.0140;
1209.0000;0.4526;1.0093;
1209.3000;0.4607;1.0304;
1209.6000;0.4526;1.0022;
1209.9000;0.4575;1.0069;
1210.2000;0.4477;0.9834;
1210.5000;0.4542;0.9928;
1210.8000;0.4558;0.9999;
1211.1000;0.4550;1.0046;
1211.4000;0.4526;1.0140;
1211.7000;0.4558;1.0210;
1212.0000;0.4526;1.0163;
1212.3000;0.4542;1.0234;
1212.6000;0.4542;1.0234;
1212.9000;0.4534;1.0140;
1213.2000;0.4542;1.0116;
1213.5000;0.4542;1.0093;
1213.8000;0.4558;1.0140;
1214.1000;0.4550;1.0116;
1214.4000;0.4542;1.0093;
1214.7000;0.4542;1.0093;
1215.0000;0.4534;1.0163;
1215.3000;0.4575;1.0163;
1215.6000;0.4550;1.0140;
1215.9000;0.4550;1.0163;
1216.2000;0.4526;1.0093;
1216.5000;0.4550;1.0163;
1216.8000;0.4575;1.0187;
1217.1000;0.4550;1.0140;
1217.4000;0.4542;1.0093;
1217.7000;0.4550;1.0069;
1218.0000;0.4558;1.0093;
1218.3000;0.4567;1.0069;
1218.6000;0.4542;1.0069;
1218.9000;0.4534;1.0116;
1219.2000;0.4526;1.0187;
1219.5000;0.4550;1.0281;
1219.8000;0.4558;1.0304;
1220.1000;0.4558;1.0281;
1220.4000;0.4518;1.0140;
1220.7000;0.4534;1.0187;
1221.0000;0.4550;1.0257;
1221.3000;0.4583;1.0257;
1221.6000;0.4542;1.0210;
1221.9000;0.4518;1.0069;
1222.2000;0.4558;1.0093;
1222.5000;0.4518;0.9928;
1222.8000;0.4550;1.0093;
1223.1000;0.4558;1.0140;
1223.4000;0.4550;1.0093;
1223.7000;0.4542;1.0069;
1224.0000;0.4542;1.0046;
1224.3000;0.4526;0.9975;
1224.6000;0.4526;0.9952;
1224.9000;0.4542;1.0046;
1225.2000;0.4534;1.0022;
1225.5000;0.4550;1.0093;
1225.8000;0.4550;1.0116;
1226.1000;0.4575;1.0093;
1226.4000;0.4550;0.9999;
1226.7000;0.4534;1.0022;
1227.0000;0.4567;1.0210;
1227.3000;0.4550;1.0163;
1227.6000;0.4558;1.0163;
1227.9000;0.4558;1.0140;
1228.2000;0.4567;1.0140;
1228.5000;0.4558;1.0046;
1228.8000;0.4550;1.0046;
1229.1000;0.4550;1.0046;
1229.4000;0.4493;0.9904;
1229.7000;0.4518;1.0069;
1230.0000;0.4542;1.0163;
1230.3000;0.4518;1.0210;
1230.6000;0.4542;1.0234;
1230.9000;0.4567;1.0257;
1231.2000;0.4558;1.0304;
1231.5000;0.4558;1.0257;
1231.8000;0.4534;1.0234;
1232.1000;0.4558;1.0328;
1232.4000;0.4542;1.0328;
1232.7000;0.4534;1.0328;
1233.0000;0.4542;1.0257;
1233.3000;0.4567;1.0257;
1233.6000;0.4542;1.0187;
1233.9000;0.4526;1.0093;
1234.2000;0.4542;1.0069;
1234.5000;0.4542;1.0069;
1234.8000;0.4550;1.0140;
1235.1000;0.4550;1.0116;
1235.4000;0.4534;1.0140;
1235.7000;0.4542;1.0140;
1236.0000;0.4542;1.0163;
1236.3000;0.4558;1.0281;
1236.6000;0.4526;1.0257;
1236.9000;0.4501;1.0140;
1237.2000;0.4550;1.0163;
1237.5000;0.4542;1.0046;
1237.8000;0.4550;1.0046;
1238.1000;0.4518;0.9952;
1238.4000;0.4567;1.0093;
1238.7000;0.4558;1.0116;
1239.0000;0.4615;1.0281;
1239.3000;0.4567;1.0116;
1239.6000;0.4567;1.0093;
1239.9000;0.4607;1.0281;
1240.2000;0.4550;1.0140;
1240.5000;0.4542;0.9975;
1240.8000;0.4599;1.0140;
1241.1000;0.4567;1.0093;
1241.4000;0.4558;1.0093;
1241.7000;0.4485;1.0022;
1242.0000;0.4542;1.0163;
1242.3000;0.4550;1.0234;
1242.6000;0.4575;1.0281;
1242.9000;0.4542;1.0234;
1243.2000;0.4542;1.0210;
1243.5000;0.4542;1.0234;
1243.8000;0.4558;1.0210;
1244.1000;0.4550;1.0234;
1244.4000;0.4583;1.0210;
1244.7000;0.4534;1.0022;
1245.0000;0.4632;1.0304;
1245.3000;0.4550;1.0093;
1245.6000;0.4542;1.0116;
1245.9000;0.4534;1.0116;
1246.2000;0.4542;1.0022;
1246.5000;0.4534;0.9999;
1246.8000;0.4526;0.9999;
1247.1000;0.4526;1.0116;
1247.4000;0.4550;1.0234;
1247.7000;0.4542;1.0187;
1248.0000;0.4542;1.0234;
1248.3000;0.4534;1.0163;
1248.6000;0.4518;1.0069;
1248.9000;0.4510;1.0046;
1249.2000;0.4550;1.0234;
1249.5000;0.4542;1.0140;
1249.8000;0.4542;1.0116;
1250.1000;0.4534;1.0140;
1250.4000;0.4550;1.0069;
1250.7000;0.4469;0.9881;
1251.0000;0.4534;1.0046;
1251.3000;0.4526;1.0022;
1251.6000;0.4493;0.9952;
1251.9000;0.4558;1.0116;
1252.2000;0.4534;1.0069;
1252.5000;0.4583;1.0257;
1252.8000;0.4558;1.0257;
1253.1000;0.4526;1.0234;
1253.4000;0.4453;1.0069;
1253.7000;0.4567;1.0304;
1254.0000;0.4558;1.0328;
1254.3000;0.4558;1.0257;
1254.6000;0.4461;0.9881;
1254.9000;0.4550;1.0093;
1255.2000;0.4591;1.0187;
1255.5000;0.4591;1.0163;
1255.8000;0.4534;1.0163;
1256.1000;0.4542;1.0163;
1256.4000;0.4542;1.0234;
1256.7000;0.4558;1.0351;
1257.0000;0.4534;1.0281;
1257.3000;0.4534;1.0257;
1257.6000;0.4550;1.0210;
1257.9000;0.4558;1.0210;
1258.2000;0.4607;1.0351;
1258.5000;0.4550;1.0163;
1258.8000;0.4542;1.0163;
1259.1000;0.4542;1.0140;
1259.4000;0.4534;1.0163;
1259.7000;0.4550;1.0163;
1260.0000;0.4526;0.9999;
1260.3000;0.4575;1.0093;
1260.6000;0.4550;1.0046;
1260.9000;0.4510;1.0163;
1261.2000;0.4550;1.0187;
1261.5000;0.4542;1.0234;
1261.8000;0.4542;1.0257;
1262.1000;0.4526;1.0234;
1262.4000;0.4648;1.0375;
1262.7000;0.4534;1.0140;
1263.0000;0.4575;1.0210;
1263.3000;0.4558;1.0163;
1263.6000;0.4550;1.0046;
1263.9000;0.4485;0.9857;
1264.2000;0.4558;1.0093;
1264.5000;0.4567;1.0069;
1264.8000;0.4550;1.0093;
1265.1000;0.4526;1.0069;
1265.4000;0.4550;1.0046;
1265.7000;0.4558;0.9999;
1266.0000;0.4558;1.0069;
1266.3000;0.4542;1.0046;
1266.6000;0.4558;1.0093;
1266.9000;0.4558;0.9999;
1267.2000;0.4615;1.0187;
1267.5000;0.4534;0.9904;
1267.8000;0.4542;0.9857;
1268.1000;0.4550;0.9881;
1268.4000;0.4534;0.9857;
1268.7000;0.4526;0.9904;
1269.0000;0.4542;0.9928;
1269.3000;0.4534;0.9904;
1269.6000;0.4534;0.9952;
1269.9000;0.4461;0.9904;
1270.2000;0.4542;1.0093;
1270.5000;0.4534;1.0163;
1270.8000;0.4599;1.0375;
1271.1000;0.4567;1.0210;
1271.4000;0.4526;1.0210;
1271.7000;0.4591;1.0399;
1272.0000;0.4542;1.0210;
1272.3000;0.4542;1.0210;
1272.6000;0.4542;1.0304;
1272.9000;0.4542;1.0257;
1273.2000;0.4542;1.0304;
1273.5000;0.4518;1.0187;
1273.8000;0.4534;1.0234;
1274.1000;0.4558;1.0234;
1274.4000;0.4558;1.0210;
1274.7000;0.4599;1.0281;
1275.0000;0.4558;1.0093;
1275.3000;0.4534;1.0022;
1275.6000;0.4575;1.0069;
1275.9000;0.4558;1.0069;
1276.2000;0.4550;1.0069;
1276.5000;0.4542;0.9975;
1276.8000;0.4493;0.9857;
1277.1000;0.4534;1.0022;
1277.4000;0.4518;0.9952;
1277.7000;0.4624;1.0234;
1278.0000;0.4534;0.9928;
1278.3000;0.4534;0.9999;
1278.6000;0.4542;1.0046;
1278.9000;0.4558;1.0116;
1279.2000;0.4550;1.0163;
1279.5000;0.4542;1.0093;
1279.8000;0.4542;1.0187;
1280.1000;0.4534;1.0187;
1280.4000;0.4542;1.0163;
1280.7000;0.4542;1.0163;
1281.0000;0.4558;1.0116;
1281.3000;0.4542;1.0116;
1281.6000;0.4542;1.0093;
1281.9000;0.4575;1.0140;
1282.2000;0.4558;1.0140;
1282.5000;0.4542;1.0210;
1282.8000;0.4550;1.0257;
1283.1000;0.4542;1.0210;
1283.4000;0.4567;1.0304;
1283.7000;0.4542;1.0187;
1284.0000;0.4542;1.0163;
1284.3000;0.4558;1.0140;
1284.6000;0.4550;1.0116;
1284.9000;0.4558;1.0187;
1285.2000;0.4558;1.0210;
1285.5000;0.4550;1.0210;
1285.8000;0.4567;1.0210;
1286.1000;0.4575;1.0210;
1286.4000;0.4558;1.0140;
1286.7000;0.4550;1.0116;
1287.0000;0.4542;1.0046;
1287.3000;0.4632;1.0257;
1287.6000;0.4477;0.9975;
1287.9000;0.4550;1.0163;
1288.2000;0.4558;1.0069;
1288.5000;0.4558;1.0093;
1288.8000;0.4550;1.0163;
1289.1000;0.4534;1.0116;
1289.4000;0.4567;1.0093;
1289.7000;0.4550;1.0069;
1290.0000;0.4567;1.0046;
1290.3000;0.4542;1.0069;
1290.6000;0.4542;1.0069;
1290.9000;0.4510;1.0046;
1291.2000;0.4558;1.0210;
1291.5000;0.4534;1.0257;
1291.8000;0.4558;1.0281;
1292.1000;0.4550;1.0210;
1292.4000;0.4518;1.0163;
1292.7000;0.4518;1.0163;
1293.0000;0.4534;1.0281;
1293.3000;0.4501;1.0234;
1293.6000;0.4461;1.0163;
1293.9000;0.4558;1.0399;
1294.2000;0.4550;1.0399;
1294.5000;0.4534;1.0351;
1294.8000;0.4550;1.0304;
1295.1000;0.4542;1.0234;
1295.4000;0.4550;1.0187;
1295.7000;0.4567;1.0163;
1296.0000;0.4558;1.0069;
1296.3000;0.4550;1.0046;
1296.6000;0.4567;1.0140;
1296.9000;0.4550;1.0140;
1297.2000;0.4542;1.0140;
1297.5000;0.4567;1.0163;
1297.8000;0.4542;1.0069;
1298.1000;0.4526;0.9999;
1298.4000;0.4534;0.9999;
1298.7000;0.4534;1.0022;
1299.0000;0.4558;1.0069;
1299.3000;0.4583;1.0210;
1299.6000;0.4583;1.0187;
1299.9000;0.4558;1.0140;
1300.2000;0.4526;0.9999;
1300.5000;0.4575;1.0093;
1300.8000;0.4550;1.0022;
1301.1000;0.4656;1.0234;
1301.4000;0.4583;1.0093;
1301.7000;0.4615;1.0163;
1302.0000;0.4526;0.9952;
1302.3000;0.4558;1.0046;
1302.6000;0.4575;1.0234;
1302.9000;0.4526;1.0140;
1303.2000;0.4534;1.0257;
1303.5000;0.4526;1.0281;
1303.8000;0.4542;1.0257;
1304.1000;0.4534;1.0116;
1304.4000;0.4550;1.0210;
1304.7000;0.4575;1.0257;
1305.0000;0.4550;1.0210;
1305.3000;0.4534;1.0187;
1305.6000;0.4550;1.0234;
1305.9000;0.4534;1.0234;
1306.2000;0.4558;1.0399;
1306.5000;0.4542;1.0375;
1306.8000;0.4542;1.0351;
1307.1000;0.4542;1.0281;
1307.4000;0.4518;1.0351;
1307.7000;0.4550;1.0399;
1308.0000;0.4558;1.0516;
1308.3000;0.4518;1.0399;
1308.6000;0.4534;1.0446;
1308.9000;0.4575;1.0422;
1309.2000;0.4550;1.0281;
1309.5000;0.4583;1.0304;
1309.8000;0.4550;1.0163;
1310.1000;0.4550;1.0234;
1310.4000;0.4550;1.0210;
1310.7000;0.4607;1.0328;
1311.0000;0.4558;1.0210;
1311.3000;0.4550;1.0163;
1311.6000;0.4550;1.0140;
1311.9000;0.4550;1.0187;
1312.2000;0.4567;1.0210;
1312.5000;0.4583;1.0281;
1312.8000;0.4550;1.0140;
1313.1000;0.4542;1.0046;
1313.4000;0.4567;1.0163;
1313.7000;0.4501;1.0022;
1314.0000;0.4567;1.0116;
1314.3000;0.4558;1.0140;
1314.6000;0.4510;1.0046;
1314.9000;0.4542;1.0163;
1315.2000;0.4558;1.0234;
1315.5000;0.4583;1.0304;
1315.8000;0.4542;1.0187;
1316.1000;0.4542;1.0163;
1316.4000;0.4534;1.0069;
1316.7000;0.4542;1.0116;
1317.0000;0.4534;1.0022;
1317.3000;0.4542;1.0022;
1317.6000;0.4534;1.0046;
1317.9000;0.4567;1.0163;
1318.2000;0.4510;1.0116;
1318.5000;0.4542;1.0187;
1318.8000;0.4534;1.0210;
1319.1000;0.4542;1.0210;
1319.4000;0.4550;1.0163;
1319.7000;0.4591;1.0234;
1320.0000;0.4567;1.0257;
1320.3000;0.4550;1.0187;
1320.6000;0.4583;1.0351;
1320.9000;0.4567;1.0281;
1321.2000;0.4583;1.0257;
1321.5000;0.4550;1.0187;
1321.8000;0.4575;1.0187;
1322.1000;0.4550;1.0234;
1322.4000;0.4567;1.0328;
1322.7000;0.4526;1.0234;
1323.0000;0.4567;1.0257;
1323.3000;0.4526;1.0140;
1323.6000;0.4567;1.0069;
1323.9000;0.4518;0.9975;
1324.2000;0.4550;1.0093;
1324.5000;0.4550;1.0140;
1324.8000;0.4558;1.0187;
1325.1000;0.4575;1.0187;
1325.4000;0.4567;1.0140;
1325.7000;0.4542;1.0093;
1326.0000;0.4550;1.0069;
1326.3000;0.4550;1.0093;
1326.6000;0.4607;1.0281;
1326.9000;0.4550;1.0140;
1327.2000;0.4558;1.0187;
1327.5000;0.4550;1.0234;
1327.8000;0.4542;1.0234;
1328.1000;0.4550;1.0234;
1328.4000;0.4518;1.0210;
1328.7000;0.4501;1.0093;
1329.0000;0.4526;1.0163;
1329.3000;0.4534;1.0046;
1329.6000;0.4542;0.9975;
1329.9000;0.4542;0.9928;
1330.2000;0.4526;0.9834;
1330.5000;0.4558;0.9952;
1330.8000;0.4558;1.0093;
1331.1000;0.4542;1.0046;
1331.4000;0.4558;1.0069;
1331.7000;0.4558;1.0116;
1332.0000;0.4575;1.0140;
1332.3000;0.4558;1.0069;
1332.6000;0.4550;1.0069;
1332.9000;0.4550;1.0069;
1333.2000;0.4615;1.0163;
1333.5000;0.4567;1.0046;
1333.8000;0.4534;0.9975;
1334.1000;0.4550;0.9928;
1334.4000;0.4558;0.9952;
1334.7000;0.4583;0.9975;
1335.0000;0.4615;1.0093;
1335.3000;0.4575;0.9952;
1335.6000;0.4567;0.9975;
1335.9000;0.4550;1.0022;
1336.2000;0.4542;1.0046;
1336.5000;0.4542;1.0046;
1336.8000;0.4567;1.0163;
1337.1000;0.4542;1.0257;
1337.4000;0.4477;1.0187;
1337.7000;0.4542;1.0304;
1338.0000;0.4534;1.0257;
1338.3000;0.4550;1.0257;
1338.6000;0.4526;1.0093;
1338.9000;0.4583;1.0210;
1339.2000;0.4542;1.0093;
1339.5000;0.4534;1.0163;
1339.8000;0.4526;1.0140;
1340.1000;0.4575;1.0210;
1340.4000;0.4558;1.0210;
1340.7000;0.4575;1.0257;
1341.0000;0.4558;1.0210;
1341.3000;0.4542;1.0140;
1341.6000;0.4542;1.0069;
1341.9000;0.4534;1.0093;
1342.2000;0.4550;1.0069;
1342.5000;0.4550;1.0093;
1342.8000;0.4542;1.0163;
1343.1000;0.4542;1.0116;
1343.4000;0.4542;1.0116;
1343.7000;0.4550;1.0069;
1344.0000;0.4542;1.0140;
1344.3000;0.4558;1.0093;
1344.6000;0.4591;1.0163;
1344.9000;0.4567;1.0069;
1345.2000;0.4558;0.9975;
1345.5000;0.4534;0.9952;
1345.8000;0.4550;0.9928;
1346.1000;0.4558;0.9952;
1346.4000;0.4567;0.9881;
1346.7000;0.4534;0.9834;
1347.0000;0.4534;0.9952;
1347.3000;0.4550;1.0093;
1347.6000;0.4469;0.9834;
1347.9000;0.4567;1.0093;
1348.2000;0.4558;1.0069;
1348.5000;0.4550;1.0046;
1348.8000;0.4510;1.0069;
1349.1000;0.4550;1.0069;
1349.4000;0.4534;0.9975;
1349.7000;0.4534;0.9999;
1350.0000;0.4550;1.0022;
1350.3000;0.4542;1.0022;
1350.6000;0.4542;0.9857;
1350.9000;0.4550;0.9952;
1351.2000;0.4558;1.0093;
1351.5000;0.4526;0.9975;
1351.8000;0.4615;1.0187;
1352.1000;0.4542;1.0046;
1352.4000;0.4534;1.0069;
1352.7000;0.4558;1.0116;
1353.0000;0.4550;1.0116;
1353.3000;0.4542;1.0069;
1353.6000;0.4526;1.0093;
1353.9000;0.4542;1.0234;
1354.2000;0.4550;1.0234;
1354.5000;0.4493;1.0093;
1354.8000;0.4542;1.0234;
1355.1000;0.4542;1.0281;
1355.4000;0.4542;1.0281;
1355.7000;0.4510;1.0281;
1356.0000;0.4583;1.0375;
1356.3000;0.4558;1.0304;
1356.6000;0.4526;1.0210;
1356.9000;0.4591;1.0304;
1357.2000;0.4542;1.0163;
1357.5000;0.4542;1.0163;
1357.8000;0.4558;1.0210;
1358.1000;0.4542;1.0187;
1358.4000;0.4567;1.0234;
1358.7000;0.4567;1.0187;
1359.0000;0.4526;1.0069;
1359.3000;0.4542;1.0069;
1359.6000;0.4518;0.9975;
1359.9000;0.4501;0.9999;
1360.2000;0.4599;1.0116;
1360.5000;0.4567;1.0046;
1360.8000;0.4575;1.0093;
1361.1000;0.4518;0.9928;
1361.4000;0.4542;0.9881;
1361.7000;0.4493;0.9787;
1362.0000;0.4526;0.9952;
1362.3000;0.4510;0.9975;
1362.6000;0.4542;0.9928;
1362.9000;0.4534;0.9904;
1363.2000;0.4542;0.9881;
1363.5000;0.4542;0.9952;
1363.8000;0.4526;1.0046;
1364.1000;0.4550;1.0093;
1364.4000;0.4542;1.0069;
1364.7000;0.4526;0.9999;
1365.0000;0.4534;0.9999;
1365.3000;0.4550;0.9999;
1365.6000;0.4534;0.9975;
1365.9000;0.4542;0.9999;
1366.2000;0.4534;0.9928;
1366.5000;0.4567;0.9881;
1366.8000;0.4599;0.9928;
1367.1000;0.4550;0.9834;
1367.4000;0.4542;0.9763;
1367.7000;0.4550;0.9716;
1368.0000;0.4542;0.9622;
1368.3000;0.4550;0.9669;
1368.6000;0.4567;0.9857;
1368.9000;0.4567;0.9904;
1369.2000;0.4632;1.0116;
1369.5000;0.4640;1.0069;
1369.8000;0.4542;0.9881;
1370.1000;0.4558;0.9881;
1370.4000;0.4575;0.9881;
1370.7000;0.4558;0.9810;
1371.0000;0.4534;0.9810;
1371.3000;0.4542;0.9834;
1371.6000;0.4558;0.9857;
1371.9000;0.4558;0.9787;
1372.2000;0.4550;0.9787;
1372.5000;0.4542;0.9810;
1372.8000;0.4567;0.9810;
1373.1000;0.4542;0.9834;
1373.4000;0.4550;0.9810;
1373.7000;0.4591;0.9928;
1374.0000;0.4542;0.9763;
1374.3000;0.4526;0.9810;
1374.6000;0.4542;0.9834;
1374.9000;0.4534;0.9834;
1375.2000;0.4542;0.9810;
1375.5000;0.4550;0.9881;
1375.8000;0.4607;1.0046;
1376.1000;0.4550;0.9904;
1376.4000;0.4550;0.9975;
1376.7000;0.4542;0.9952;
1377.0000;0.4575;1.0022;
1377.3000;0.4542;0.9975;
1377.6000;0.4542;0.9928;
1377.9000;0.4591;0.9975;
1378.2000;0.4567;0.9928;
1378.5000;0.4542;0.9857;
1378.8000;0.4534;0.9928;
1379.1000;0.4599;1.0069;
1379.4000;0.4567;0.9952;
1379.7000;0.4542;0.9952;
1380.0000;0.4550;0.9857;
1380.3000;0.4534;0.9857;
1380.6000;0.4542;0.9881;
1380.9000;0.4558;0.9834;
1381.2000;0.4534;0.9763;
1381.5000;0.4542;0.9693;
1381.8000;0.4550;0.9810;
1382.1000;0.4542;0.9857;
1382.4000;0.4550;0.9881;
1382.7000;0.4542;0.9975;
1383.0000;0.4575;1.0069;
1383.3000;0.4558;1.0116;
1383.6000;0.4526;0.9952;
1383.9000;0.4534;0.9928;
1384.2000;0.4518;0.9881;
1384.5000;0.4550;0.9904;
1384.8000;0.4567;0.9857;
1385.1000;0.4550;0.9834;
1385.4000;0.4583;0.9999;
1385.7000;0.4534;0.9928;
1386.0000;0.4550;0.9952;
1386.3000;0.4534;0.9834;
1386.6000;0.4534;0.9928;
1386.9000;0.4518;0.9834;
1387.2000;0.4542;0.9928;
1387.5000;0.4607;1.0116;
1387.8000;0.4542;1.0022;
1388.1000;0.4534;0.9975;
1388.4000;0.4542;0.9904;
1388.7000;0.4558;0.9999;
1389.0000;0.4542;0.9952;
1389.3000;0.4550;0.9904;
1389.6000;0.4558;0.9904;
1389.9000;0.4542;0.9904;
1390.2000;0.4542;0.9975;
1390.5000;0.4542;0.9928;
1390.8000;0.4558;0.9975;
1391.1000;0.4550;0.9881;
1391.4000;0.4542;0.9787;
1391.7000;0.4558;0.9787;
1392.0000;0.4542;0.9810;
1392.3000;0.4550;0.9810;
1392.6000;0.4550;0.9787;
1392.9000;0.4550;0.9763;
1393.2000;0.4542;0.9787;
1393.5000;0.4558;0.9740;
1393.8000;0.4534;0.9763;
1394.1000;0.4558;0.9834;
1394.4000;0.4510;0.9787;
1394.7000;0.4550;0.9952;
1395.0000;0.4534;0.9999;
1395.3000;0.4518;0.9834;
1395.6000;0.4534;0.9881;
1395.9000;0.4534;0.9857;
1396.2000;0.4542;0.9928;
1396.5000;0.4526;0.9810;
1396.8000;0.4550;0.9881;
1397.1000;0.4550;0.9810;
1397.4000;0.4558;0.9740;
1397.7000;0.4542;0.9787;
1398.0000;0.4550;0.9834;
1398.3000;0.4583;0.9952;
1398.6000;0.4550;0.9952;
1398.9000;0.4542;0.9881;
1399.2000;0.4526;0.9881;
1399.5000;0.4542;0.9904;
1399.8000;0.4558;0.9999;
