time/ms;Fluo/V;P700 deltaI/I x10³;
-199.8000;0.3622;1.2906;
-199.5000;0.3614;1.3025;
-199.2000;0.3622;1.3073;
-198.9000;0.3630;1.3025;
-198.6000;0.3655;1.3049;
-198.3000;0.3639;1.3001;
-198.0000;0.3639;1.2954;
-197.7000;0.3687;1.3001;
-197.4000;0.3647;1.2978;
-197.1000;0.3744;1.3215;
-196.8000;0.3671;1.3049;
-196.5000;0.3679;1.3096;
-196.2000;0.3639;1.2978;
-195.9000;0.3622;1.2906;
-195.6000;0.3639;1.2954;
-195.3000;0.3622;1.2954;
-195.0000;0.3671;1.3120;
-194.7000;0.3630;1.3025;
-194.4000;0.3639;1.3001;
-194.1000;0.3630;1.2978;
-193.8000;0.3630;1.2954;
-193.5000;0.3630;1.2906;
-193.2000;0.3639;1.2859;
-192.9000;0.3655;1.2859;
-192.6000;0.3630;1.2883;
-192.3000;0.3614;1.2835;
-192.0000;0.3647;1.2812;
-191.7000;0.3630;1.2788;
-191.4000;0.3630;1.2693;
-191.1000;0.3606;1.2669;
-190.8000;0.3622;1.2717;
-190.5000;0.3655;1.2859;
-190.2000;0.3622;1.2812;
-189.9000;0.3630;1.2812;
-189.6000;0.3647;1.2930;
-189.3000;0.3622;1.2906;
-189.0000;0.3639;1.2906;
-188.7000;0.3630;1.2859;
-188.4000;0.3655;1.2906;
-188.1000;0.3639;1.2883;
-187.8000;0.3663;1.2859;
-187.5000;0.3663;1.2812;
-187.2000;0.3639;1.2693;
-186.9000;0.3630;1.2693;
-186.6000;0.3639;1.2693;
-186.3000;0.3647;1.2717;
-186.0000;0.3647;1.2645;
-185.7000;0.3647;1.2740;
-185.4000;0.3630;1.2812;
-185.1000;0.3630;1.2906;
-184.8000;0.3639;1.2883;
-184.5000;0.3671;1.2883;
-184.2000;0.3630;1.2717;
-183.9000;0.3647;1.2788;
-183.6000;0.3622;1.2740;
-183.3000;0.3622;1.2764;
-183.0000;0.3630;1.2812;
-182.7000;0.3630;1.2788;
-182.4000;0.3614;1.2812;
-182.1000;0.3606;1.2788;
-181.8000;0.3630;1.2859;
-181.5000;0.3647;1.2883;
-181.2000;0.3606;1.2812;
-180.9000;0.3590;1.2812;
-180.6000;0.3630;1.2906;
-180.3000;0.3606;1.2859;
-180.0000;0.3622;1.2835;
-179.7000;0.3622;1.2930;
-179.4000;0.3516;1.2669;
-179.1000;0.3622;1.2954;
-178.8000;0.3630;1.3001;
-178.5000;0.3622;1.2906;
-178.2000;0.3630;1.2930;
-177.9000;0.3639;1.3025;
-177.6000;0.3622;1.3025;
-177.3000;0.3630;1.3001;
-177.0000;0.3630;1.2978;
-176.7000;0.3630;1.3001;
-176.4000;0.3663;1.3073;
-176.1000;0.3630;1.2906;
-175.8000;0.3647;1.3025;
-175.5000;0.3639;1.3073;
-175.2000;0.3639;1.3096;
-174.9000;0.3647;1.3144;
-174.6000;0.3639;1.3096;
-174.3000;0.3647;1.3144;
-174.0000;0.3622;1.3096;
-173.7000;0.3622;1.3073;
-173.4000;0.3639;1.3120;
-173.1000;0.3818;1.3594;
-172.8000;0.3639;1.3144;
-172.5000;0.3655;1.3144;
-172.2000;0.3622;1.3073;
-171.9000;0.3622;1.3120;
-171.6000;0.3541;1.2906;
-171.3000;0.3614;1.3025;
-171.0000;0.3630;1.3049;
-170.7000;0.3622;1.3049;
-170.4000;0.3639;1.3073;
-170.1000;0.3630;1.3049;
-169.8000;0.3622;1.3073;
-169.5000;0.3639;1.3073;
-169.2000;0.3630;1.2954;
-168.9000;0.3655;1.3073;
-168.6000;0.3590;1.2906;
-168.3000;0.3622;1.2930;
-168.0000;0.3639;1.2954;
-167.7000;0.3647;1.2954;
-167.4000;0.3663;1.3001;
-167.1000;0.3622;1.2906;
-166.8000;0.3663;1.3049;
-166.5000;0.3598;1.2930;
-166.2000;0.3622;1.2978;
-165.9000;0.3647;1.3096;
-165.6000;0.3630;1.3073;
-165.3000;0.3639;1.3120;
-165.0000;0.3630;1.3120;
-164.7000;0.3614;1.3025;
-164.4000;0.3590;1.3025;
-164.1000;0.3622;1.3073;
-163.8000;0.3647;1.3096;
-163.5000;0.3655;1.3167;
-163.2000;0.3647;1.3215;
-162.9000;0.3639;1.3144;
-162.6000;0.3639;1.3239;
-162.3000;0.3622;1.3215;
-162.0000;0.3630;1.3191;
-161.7000;0.3647;1.3096;
-161.4000;0.3647;1.3096;
-161.1000;0.3647;1.3049;
-160.8000;0.3622;1.2978;
-160.5000;0.3606;1.3025;
-160.2000;0.3647;1.3073;
-159.9000;0.3736;1.3286;
-159.6000;0.3639;1.3096;
-159.3000;0.3614;1.3096;
-159.0000;0.3614;1.3073;
-158.7000;0.3639;1.3049;
-158.4000;0.3614;1.3049;
-158.1000;0.3639;1.3167;
-157.8000;0.3647;1.3167;
-157.5000;0.3655;1.3120;
-157.2000;0.3655;1.3144;
-156.9000;0.3639;1.3025;
-156.6000;0.3647;1.3073;
-156.3000;0.3622;1.3025;
-156.0000;0.3639;1.3073;
-155.7000;0.3647;1.3025;
-155.4000;0.3630;1.2954;
-155.1000;0.3639;1.3001;
-154.8000;0.3622;1.3073;
-154.5000;0.3630;1.3144;
-154.2000;0.3622;1.3167;
-153.9000;0.3655;1.3262;
-153.6000;0.3639;1.3191;
-153.3000;0.3639;1.3096;
-153.0000;0.3647;1.3120;
-152.7000;0.3647;1.3144;
-152.4000;0.3622;1.3049;
-152.1000;0.3614;1.3025;
-151.8000;0.3639;1.2954;
-151.5000;0.3630;1.2978;
-151.2000;0.3679;1.3073;
-150.9000;0.3549;1.2740;
-150.6000;0.3630;1.2954;
-150.3000;0.3565;1.2740;
-150.0000;0.3630;1.2978;
-149.7000;0.3630;1.2930;
-149.4000;0.3614;1.2906;
-149.1000;0.3639;1.3025;
-148.8000;0.3622;1.3049;
-148.5000;0.3639;1.3096;
-148.2000;0.3598;1.3001;
-147.9000;0.3639;1.3073;
-147.6000;0.3549;1.2954;
-147.3000;0.3622;1.3167;
-147.0000;0.3630;1.3215;
-146.7000;0.3614;1.3144;
-146.4000;0.3639;1.3120;
-146.1000;0.3630;1.3120;
-145.8000;0.3622;1.3120;
-145.5000;0.3614;1.3167;
-145.2000;0.3630;1.3167;
-144.9000;0.3663;1.3215;
-144.6000;0.3557;1.3073;
-144.3000;0.3630;1.3167;
-144.0000;0.3614;1.3191;
-143.7000;0.3696;1.3334;
-143.4000;0.3622;1.3167;
-143.1000;0.3614;1.3120;
-142.8000;0.3630;1.3167;
-142.5000;0.3679;1.3191;
-142.2000;0.3639;1.3073;
-141.9000;0.3655;1.3049;
-141.6000;0.3639;1.2930;
-141.3000;0.3622;1.2954;
-141.0000;0.3614;1.2930;
-140.7000;0.3639;1.2954;
-140.4000;0.3639;1.2954;
-140.1000;0.3647;1.2978;
-139.8000;0.3630;1.2954;
-139.5000;0.3655;1.3001;
-139.2000;0.3647;1.2906;
-138.9000;0.3704;1.3073;
-138.6000;0.3622;1.2930;
-138.3000;0.3655;1.3025;
-138.0000;0.3630;1.3025;
-137.7000;0.3639;1.3025;
-137.4000;0.3630;1.3073;
-137.1000;0.3622;1.3001;
-136.8000;0.3639;1.2954;
-136.5000;0.3614;1.2906;
-136.2000;0.3630;1.3025;
-135.9000;0.3639;1.3167;
-135.6000;0.3622;1.3120;
-135.3000;0.3622;1.3073;
-135.0000;0.3614;1.2954;
-134.7000;0.3639;1.2978;
-134.4000;0.3647;1.2954;
-134.1000;0.3630;1.2906;
-133.8000;0.3663;1.2978;
-133.5000;0.3647;1.2930;
-133.2000;0.3639;1.2930;
-132.9000;0.3614;1.2906;
-132.6000;0.3630;1.2906;
-132.3000;0.3647;1.2930;
-132.0000;0.3639;1.3025;
-131.7000;0.3647;1.3025;
-131.4000;0.3622;1.3049;
-131.1000;0.3630;1.3025;
-130.8000;0.3630;1.3025;
-130.5000;0.3622;1.2978;
-130.2000;0.3630;1.3025;
-129.9000;0.3639;1.2954;
-129.6000;0.3655;1.3025;
-129.3000;0.3647;1.3025;
-129.0000;0.3630;1.2930;
-128.7000;0.3639;1.2883;
-128.4000;0.3606;1.2788;
-128.1000;0.3622;1.2812;
-127.8000;0.3687;1.2978;
-127.5000;0.3606;1.2764;
-127.2000;0.3663;1.2930;
-126.9000;0.3630;1.2883;
-126.6000;0.3622;1.2859;
-126.3000;0.3630;1.2978;
-126.0000;0.3647;1.3025;
-125.7000;0.3647;1.2978;
-125.4000;0.3630;1.2906;
-125.1000;0.3647;1.2906;
-124.8000;0.3630;1.2954;
-124.5000;0.3630;1.3001;
-124.2000;0.3655;1.3001;
-123.9000;0.3630;1.3025;
-123.6000;0.3622;1.2978;
-123.3000;0.3655;1.2978;
-123.0000;0.3639;1.2930;
-122.7000;0.3663;1.2978;
-122.4000;0.3630;1.2978;
-122.1000;0.3622;1.3049;
-121.8000;0.3630;1.3096;
-121.5000;0.3614;1.3073;
-121.2000;0.3630;1.3167;
-120.9000;0.3614;1.3239;
-120.6000;0.3630;1.3144;
-120.3000;0.3687;1.3262;
-120.0000;0.3622;1.3096;
-119.7000;0.3622;1.3073;
-119.4000;0.3639;1.3144;
-119.1000;0.3622;1.3120;
-118.8000;0.3639;1.3262;
-118.5000;0.3639;1.3262;
-118.2000;0.3647;1.3215;
-117.9000;0.3639;1.3167;
-117.6000;0.3630;1.3191;
-117.3000;0.3630;1.3144;
-117.0000;0.3639;1.3120;
-116.7000;0.3639;1.3096;
-116.4000;0.3622;1.2954;
-116.1000;0.3630;1.3049;
-115.8000;0.3639;1.3120;
-115.5000;0.3655;1.3073;
-115.2000;0.3606;1.3049;
-114.9000;0.3630;1.3001;
-114.6000;0.3630;1.3049;
-114.3000;0.3639;1.3096;
-114.0000;0.3630;1.3073;
-113.7000;0.3630;1.3073;
-113.4000;0.3639;1.3073;
-113.1000;0.3647;1.3073;
-112.8000;0.3622;1.3049;
-112.5000;0.3639;1.3073;
-112.2000;0.3622;1.3049;
-111.9000;0.3639;1.3025;
-111.6000;0.3630;1.2978;
-111.3000;0.3647;1.3001;
-111.0000;0.3630;1.3001;
-110.7000;0.3639;1.3025;
-110.4000;0.3630;1.3049;
-110.1000;0.3630;1.3096;
-109.8000;0.3639;1.3049;
-109.5000;0.3630;1.3001;
-109.2000;0.3639;1.2954;
-108.9000;0.3630;1.3001;
-108.6000;0.3630;1.2978;
-108.3000;0.3639;1.3001;
-108.0000;0.3647;1.2930;
-107.7000;0.3630;1.2930;
-107.4000;0.3622;1.2859;
-107.1000;0.3630;1.2954;
-106.8000;0.3639;1.3025;
-106.5000;0.3639;1.2978;
-106.2000;0.3647;1.3001;
-105.9000;0.3639;1.3025;
-105.6000;0.3622;1.2954;
-105.3000;0.3630;1.3001;
-105.0000;0.3630;1.2954;
-104.7000;0.3630;1.2859;
-104.4000;0.3630;1.2835;
-104.1000;0.3614;1.2906;
-103.8000;0.3630;1.2954;
-103.5000;0.3606;1.2859;
-103.2000;0.3655;1.2954;
-102.9000;0.3647;1.3001;
-102.6000;0.3630;1.3025;
-102.3000;0.3639;1.2978;
-102.0000;0.3639;1.2978;
-101.7000;0.3647;1.3120;
-101.4000;0.3671;1.3191;
-101.1000;0.3614;1.3001;
-100.8000;0.3647;1.3049;
-100.5000;0.3647;1.3120;
-100.2000;0.3622;1.3049;
-99.9000;0.3614;1.3049;
-99.6000;0.3639;1.3144;
-99.3000;0.3630;1.3144;
-99.0000;0.3630;1.3144;
-98.7000;0.3622;1.3120;
-98.4000;0.3622;1.3049;
-98.1000;0.3639;1.2954;
-97.8000;0.3647;1.2930;
-97.5000;0.3630;1.2859;
-97.2000;0.3622;1.2954;
-96.9000;0.3598;1.2835;
-96.6000;0.3639;1.2978;
-96.3000;0.3614;1.2978;
-96.0000;0.3663;1.3096;
-95.7000;0.3630;1.2954;
-95.4000;0.3647;1.2978;
-95.1000;0.3590;1.2906;
-94.8000;0.3622;1.3096;
-94.5000;0.3622;1.3167;
-94.2000;0.3630;1.3144;
-93.9000;0.3639;1.3096;
-93.6000;0.3630;1.3144;
-93.3000;0.3704;1.3262;
-93.0000;0.3639;1.3073;
-92.7000;0.3639;1.3049;
-92.4000;0.3582;1.2835;
-92.1000;0.3639;1.2883;
-91.8000;0.3622;1.2859;
-91.5000;0.3630;1.2930;
-91.2000;0.3639;1.3120;
-90.9000;0.3622;1.3096;
-90.6000;0.3614;1.3049;
-90.3000;0.3614;1.3096;
-90.0000;0.3639;1.3096;
-89.7000;0.3630;1.3049;
-89.4000;0.3622;1.3025;
-89.1000;0.3639;1.2930;
-88.8000;0.3655;1.2930;
-88.5000;0.3647;1.2859;
-88.2000;0.3622;1.2812;
-87.9000;0.3639;1.2788;
-87.6000;0.3647;1.2883;
-87.3000;0.3630;1.2954;
-87.0000;0.3614;1.2930;
-86.7000;0.3647;1.2978;
-86.4000;0.3606;1.2930;
-86.1000;0.3630;1.3001;
-85.8000;0.3630;1.2954;
-85.5000;0.3639;1.3001;
-85.2000;0.3655;1.2978;
-84.9000;0.3630;1.2978;
-84.6000;0.3630;1.2978;
-84.3000;0.3639;1.2978;
-84.0000;0.3622;1.2859;
-83.7000;0.3630;1.2930;
-83.4000;0.3614;1.2906;
-83.1000;0.3630;1.3096;
-82.8000;0.3622;1.3073;
-82.5000;0.3639;1.3073;
-82.2000;0.3606;1.3025;
-81.9000;0.3630;1.3049;
-81.6000;0.3630;1.3049;
-81.3000;0.3622;1.3096;
-81.0000;0.3630;1.3001;
-80.7000;0.3614;1.2930;
-80.4000;0.3639;1.3001;
-80.1000;0.3622;1.2906;
-79.8000;0.3590;1.2764;
-79.5000;0.3622;1.2930;
-79.2000;0.3639;1.2930;
-78.9000;0.3630;1.2978;
-78.6000;0.3606;1.2930;
-78.3000;0.3630;1.3001;
-78.0000;0.3630;1.3001;
-77.7000;0.3655;1.3049;
-77.4000;0.3639;1.3001;
-77.1000;0.3639;1.3001;
-76.8000;0.3622;1.2954;
-76.5000;0.3630;1.2954;
-76.2000;0.3647;1.2954;
-75.9000;0.3622;1.2883;
-75.6000;0.3622;1.2954;
-75.3000;0.3622;1.3025;
-75.0000;0.3614;1.2954;
-74.7000;0.3639;1.2954;
-74.4000;0.3663;1.2978;
-74.1000;0.3639;1.2906;
-73.8000;0.3647;1.3001;
-73.5000;0.3639;1.2954;
-73.2000;0.3614;1.2954;
-72.9000;0.3630;1.3025;
-72.6000;0.3630;1.3049;
-72.3000;0.3639;1.3096;
-72.0000;0.3671;1.3120;
-71.7000;0.3622;1.2930;
-71.4000;0.3687;1.3144;
-71.1000;0.3630;1.3049;
-70.8000;0.3639;1.3096;
-70.5000;0.3647;1.3167;
-70.2000;0.3630;1.3001;
-69.9000;0.3622;1.2978;
-69.6000;0.3622;1.2930;
-69.3000;0.3630;1.2930;
-69.0000;0.3622;1.2954;
-68.7000;0.3663;1.3025;
-68.4000;0.3622;1.2906;
-68.1000;0.3622;1.2812;
-67.8000;0.3630;1.2835;
-67.5000;0.3622;1.2812;
-67.2000;0.3630;1.2954;
-66.9000;0.3639;1.3049;
-66.6000;0.3622;1.2906;
-66.3000;0.3671;1.3001;
-66.0000;0.3639;1.3001;
-65.7000;0.3647;1.2978;
-65.4000;0.3630;1.2954;
-65.1000;0.3622;1.2906;
-64.8000;0.3630;1.2978;
-64.5000;0.3639;1.2978;
-64.2000;0.3614;1.2978;
-63.9000;0.3647;1.2930;
-63.6000;0.3630;1.2930;
-63.3000;0.3687;1.3120;
-63.0000;0.3622;1.2930;
-62.7000;0.3639;1.3001;
-62.4000;0.3630;1.2930;
-62.1000;0.3639;1.2978;
-61.8000;0.3614;1.2930;
-61.5000;0.3647;1.2978;
-61.2000;0.3614;1.2978;
-60.9000;0.3606;1.2954;
-60.6000;0.3639;1.2930;
-60.3000;0.3639;1.2883;
-60.0000;0.3647;1.2859;
-59.7000;0.3614;1.2812;
-59.4000;0.3622;1.2859;
-59.1000;0.3639;1.2883;
-58.8000;0.3655;1.2954;
-58.5000;0.3647;1.2978;
-58.2000;0.3606;1.2930;
-57.9000;0.3630;1.2906;
-57.6000;0.3622;1.2954;
-57.3000;0.3639;1.3025;
-57.0000;0.3630;1.3144;
-56.7000;0.3606;1.3191;
-56.4000;0.3647;1.3239;
-56.1000;0.3622;1.3239;
-55.8000;0.3590;1.3167;
-55.5000;0.3622;1.3262;
-55.2000;0.3630;1.3239;
-54.9000;0.3622;1.3167;
-54.6000;0.3622;1.3025;
-54.3000;0.3647;1.3025;
-54.0000;0.3647;1.2978;
-53.7000;0.3630;1.3001;
-53.4000;0.3655;1.3144;
-53.1000;0.3639;1.3144;
-52.8000;0.3598;1.3025;
-52.5000;0.3622;1.3120;
-52.2000;0.3630;1.3120;
-51.9000;0.3639;1.3073;
-51.6000;0.3647;1.3049;
-51.3000;0.3622;1.3001;
-51.0000;0.3630;1.3120;
-50.7000;0.3614;1.3025;
-50.4000;0.3630;1.3096;
-50.1000;0.3630;1.3215;
-49.8000;0.3630;1.3191;
-49.5000;0.3647;1.3239;
-49.2000;0.3639;1.3167;
-48.9000;0.3630;1.3073;
-48.6000;0.3639;1.3073;
-48.3000;0.3639;1.3144;
-48.0000;0.3639;1.3144;
-47.7000;0.3671;1.3215;
-47.4000;0.3630;1.3144;
-47.1000;0.3647;1.3215;
-46.8000;0.3639;1.3167;
-46.5000;0.3630;1.3025;
-46.2000;0.3639;1.3001;
-45.9000;0.3639;1.3025;
-45.6000;0.3647;1.3049;
-45.3000;0.3622;1.2883;
-45.0000;0.3655;1.3001;
-44.7000;0.3614;1.2930;
-44.4000;0.3606;1.2930;
-44.1000;0.3647;1.2978;
-43.8000;0.3614;1.3025;
-43.5000;0.3630;1.3073;
-43.2000;0.3630;1.3049;
-42.9000;0.3639;1.3073;
-42.6000;0.3639;1.3025;
-42.3000;0.3630;1.2954;
-42.0000;0.3614;1.2883;
-41.7000;0.3614;1.2954;
-41.4000;0.3663;1.3025;
-41.1000;0.3630;1.3025;
-40.8000;0.3639;1.3025;
-40.5000;0.3630;1.3049;
-40.2000;0.3639;1.3073;
-39.9000;0.3630;1.3073;
-39.6000;0.3630;1.3049;
-39.3000;0.3647;1.3049;
-39.0000;0.3639;1.3096;
-38.7000;0.3647;1.3073;
-38.4000;0.3647;1.3120;
-38.1000;0.3647;1.3120;
-37.8000;0.3622;1.2978;
-37.5000;0.3647;1.2978;
-37.2000;0.3630;1.2954;
-36.9000;0.3614;1.2906;
-36.6000;0.3630;1.2978;
-36.3000;0.3639;1.2978;
-36.0000;0.3647;1.3001;
-35.7000;0.3671;1.3073;
-35.4000;0.3655;1.3120;
-35.1000;0.3647;1.3120;
-34.8000;0.3622;1.3049;
-34.5000;0.3598;1.2978;
-34.2000;0.3663;1.3049;
-33.9000;0.3639;1.2930;
-33.6000;0.3614;1.2883;
-33.3000;0.3565;1.2859;
-33.0000;0.3639;1.3167;
-32.7000;0.3655;1.3215;
-32.4000;0.3630;1.3096;
-32.1000;0.3630;1.3096;
-31.8000;0.3622;1.3073;
-31.5000;0.3696;1.3239;
-31.2000;0.3639;1.3120;
-30.9000;0.3606;1.3120;
-30.6000;0.3687;1.3381;
-30.3000;0.3622;1.3215;
-30.0000;0.3573;1.3120;
-29.7000;0.3630;1.3239;
-29.4000;0.3639;1.3191;
-29.1000;0.3647;1.3073;
-28.8000;0.3630;1.3025;
-28.5000;0.3630;1.2954;
-28.2000;0.3647;1.3025;
-27.9000;0.3663;1.3001;
-27.6000;0.3639;1.2930;
-27.3000;0.3614;1.3001;
-27.0000;0.3639;1.3096;
-26.7000;0.3606;1.3025;
-26.4000;0.3663;1.3049;
-26.1000;0.3614;1.2906;
-25.8000;0.3622;1.2930;
-25.5000;0.3647;1.2954;
-25.2000;0.3639;1.2978;
-24.9000;0.3606;1.2812;
-24.6000;0.3614;1.2883;
-24.3000;0.3647;1.2978;
-24.0000;0.3647;1.3025;
-23.7000;0.3647;1.2978;
-23.4000;0.3573;1.2812;
-23.1000;0.3639;1.2859;
-22.8000;0.3630;1.2859;
-22.5000;0.3630;1.2883;
-22.2000;0.3630;1.2930;
-21.9000;0.3639;1.2930;
-21.6000;0.3630;1.2954;
-21.3000;0.3614;1.2978;
-21.0000;0.3622;1.3001;
-20.7000;0.3630;1.3049;
-20.4000;0.3630;1.2954;
-20.1000;0.3614;1.2859;
-19.8000;0.3639;1.2883;
-19.5000;0.3622;1.2930;
-19.2000;0.3630;1.2930;
-18.9000;0.3622;1.3001;
-18.6000;0.3630;1.3025;
-18.3000;0.3598;1.3001;
-18.0000;0.3647;1.3025;
-17.7000;0.3614;1.2978;
-17.4000;0.3614;1.2954;
-17.1000;0.3622;1.2954;
-16.8000;0.3622;1.2906;
-16.5000;0.3630;1.3049;
-16.2000;0.3639;1.2906;
-15.9000;0.3630;1.2954;
-15.6000;0.3630;1.3001;
-15.3000;0.3630;1.3025;
-15.0000;0.3606;1.3001;
-14.7000;0.3614;1.3025;
-14.4000;0.3606;1.2906;
-14.1000;0.3639;1.2883;
-13.8000;0.3696;1.2978;
-13.5000;0.3622;1.2740;
-13.2000;0.3655;1.2740;
-12.9000;0.3582;1.2645;
-12.6000;0.3606;1.2717;
-12.3000;0.3622;1.2693;
-12.0000;0.3630;1.2764;
-11.7000;0.3647;1.2906;
-11.4000;0.3630;1.2930;
-11.1000;0.3614;1.2859;
-10.8000;0.3630;1.2835;
-10.5000;0.3582;1.2740;
-10.2000;0.3639;1.2906;
-9.9000;0.3630;1.2883;
-9.6000;0.3582;1.2788;
-9.3000;0.3639;1.3025;
-9.0000;0.3630;1.3049;
-8.7000;0.3630;1.2978;
-8.4000;0.3606;1.2883;
-8.1000;0.3647;1.3025;
-7.8000;0.3671;1.3073;
-7.5000;0.3630;1.3025;
-7.2000;0.3671;1.3073;
-6.9000;0.3630;1.2954;
-6.6000;0.3687;1.3167;
-6.3000;0.3630;1.3025;
-6.0000;0.3639;1.2954;
-5.7000;0.3630;1.2906;
-5.4000;0.3639;1.2906;
-5.1000;0.3622;1.2812;
-4.8000;0.3590;1.2764;
-4.5000;0.3573;1.2740;
-4.2000;0.3655;1.2930;
-3.9000;0.3622;1.2883;
-3.6000;0.3655;1.2930;
-3.3000;0.3630;1.2883;
-3.0000;0.3606;1.2764;
-2.7000;0.3647;1.2883;
-2.4000;0.3639;1.2835;
-2.1000;0.3639;1.2835;
-1.8000;0.3639;1.2812;
-1.5000;0.3639;1.2812;
-1.2000;0.3647;1.2788;
-0.9000;0.3622;1.2788;
-0.6000;0.3622;1.2788;
-0.3000;0.3614;1.2740;
0.0000;0.3614;1.2740;
0.3000;0.3899;1.2598;
0.6000;0.4396;1.3001;
0.9000;0.4672;1.3239;
1.2000;0.4949;1.3571;
1.5000;0.5193;1.3974;
1.8000;0.5291;1.4140;
2.1000;0.5429;1.4354;
2.4000;0.5543;1.4567;
2.7000;0.5633;1.4757;
3.0000;0.5714;1.4876;
3.3000;0.5779;1.4971;
3.6000;0.5812;1.5042;
3.9000;0.5910;1.5137;
4.2000;0.5950;1.5113;
4.5000;0.5999;1.5184;
4.8000;0.6056;1.5279;
5.1000;0.6121;1.5398;
5.4000;0.6146;1.5326;
5.7000;0.6195;1.5326;
6.0000;0.6235;1.5398;
6.3000;0.6292;1.5398;
6.6000;0.6398;1.5635;
6.9000;0.6455;1.5801;
7.2000;0.6406;1.5611;
7.5000;0.6431;1.5635;
7.8000;0.6471;1.5659;
8.1000;0.6479;1.5801;
8.4000;0.6528;1.5801;
8.7000;0.6561;1.5825;
9.0000;0.6585;1.5777;
9.3000;0.6585;1.5682;
9.6000;0.6634;1.5659;
9.9000;0.6699;1.5730;
10.2000;0.6740;1.5753;
10.5000;0.6740;1.5635;
10.8000;0.6756;1.5611;
11.1000;0.6797;1.5611;
11.4000;0.6821;1.5682;
11.7000;0.6838;1.5753;
12.0000;0.6854;1.5730;
12.3000;0.6870;1.5706;
12.6000;0.6911;1.5730;
12.9000;0.6927;1.5659;
13.2000;0.7000;1.5872;
13.5000;0.6968;1.5682;
13.8000;0.7000;1.5564;
14.1000;0.7000;1.5516;
14.4000;0.7017;1.5445;
14.7000;0.7049;1.5445;
15.0000;0.6976;1.5255;
15.3000;0.7074;1.5492;
15.6000;0.7098;1.5469;
15.9000;0.7114;1.5469;
16.2000;0.7131;1.5492;
16.5000;0.7131;1.5469;
16.8000;0.7155;1.5492;
17.1000;0.7155;1.5516;
17.4000;0.7179;1.5564;
17.7000;0.7188;1.5659;
18.0000;0.7204;1.5706;
18.3000;0.7310;1.5943;
18.6000;0.7220;1.5659;
18.9000;0.7220;1.5540;
19.2000;0.7253;1.5492;
19.5000;0.7277;1.5516;
19.8000;0.7261;1.5445;
20.1000;0.7269;1.5469;
20.4000;0.7261;1.5398;
20.7000;0.7302;1.5564;
21.0000;0.7302;1.5564;
21.3000;0.7293;1.5587;
21.6000;0.7359;1.5753;
21.9000;0.7334;1.5611;
22.2000;0.7326;1.5564;
22.5000;0.7342;1.5516;
22.8000;0.7359;1.5540;
23.1000;0.7350;1.5516;
23.4000;0.7375;1.5516;
23.7000;0.7318;1.5350;
24.0000;0.7367;1.5398;
24.3000;0.7391;1.5516;
24.6000;0.7367;1.5421;
24.9000;0.7375;1.5492;
25.2000;0.7407;1.5540;
25.5000;0.7399;1.5564;
25.8000;0.7399;1.5611;
26.1000;0.7416;1.5611;
26.4000;0.7416;1.5635;
26.7000;0.7416;1.5659;
27.0000;0.7416;1.5706;
27.3000;0.7448;1.5777;
27.6000;0.7432;1.5587;
27.9000;0.7464;1.5611;
28.2000;0.7424;1.5516;
28.5000;0.7416;1.5564;
28.8000;0.7367;1.5398;
29.1000;0.7440;1.5587;
29.4000;0.7464;1.5587;
29.7000;0.7440;1.5540;
30.0000;0.7456;1.5516;
30.3000;0.7456;1.5587;
30.6000;0.7497;1.5659;
30.9000;0.7489;1.5587;
31.2000;0.7473;1.5635;
31.5000;0.7489;1.5753;
31.8000;0.7489;1.5706;
32.1000;0.7489;1.5753;
32.4000;0.7481;1.5706;
32.7000;0.7481;1.5659;
33.0000;0.7505;1.5706;
33.3000;0.7489;1.5587;
33.6000;0.7505;1.5516;
33.9000;0.7505;1.5516;
34.2000;0.7497;1.5516;
34.5000;0.7603;1.5730;
34.8000;0.7530;1.5469;
35.1000;0.7505;1.5398;
35.4000;0.7497;1.5350;
35.7000;0.7513;1.5279;
36.0000;0.7513;1.5303;
36.3000;0.7521;1.5398;
36.6000;0.7521;1.5492;
36.9000;0.7530;1.5492;
37.2000;0.7554;1.5540;
37.5000;0.7464;1.5184;
37.8000;0.7627;1.5564;
38.1000;0.7538;1.5279;
38.4000;0.7513;1.5255;
38.7000;0.7513;1.5208;
39.0000;0.7521;1.5232;
39.3000;0.7562;1.5279;
39.6000;0.7619;1.5445;
39.9000;0.7538;1.5303;
40.2000;0.7546;1.5326;
40.5000;0.7538;1.5350;
40.8000;0.7538;1.5279;
41.1000;0.7562;1.5398;
41.4000;0.7554;1.5374;
41.7000;0.7570;1.5445;
42.0000;0.7570;1.5445;
42.3000;0.7578;1.5564;
42.6000;0.7554;1.5492;
42.9000;0.7562;1.5516;
43.2000;0.7595;1.5564;
43.5000;0.7570;1.5564;
43.8000;0.7562;1.5564;
44.1000;0.7570;1.5540;
44.4000;0.7586;1.5540;
44.7000;0.7570;1.5540;
45.0000;0.7570;1.5540;
45.3000;0.7586;1.5516;
45.6000;0.7578;1.5445;
45.9000;0.7595;1.5469;
46.2000;0.7595;1.5516;
46.5000;0.7586;1.5540;
46.8000;0.7578;1.5492;
47.1000;0.7586;1.5564;
47.4000;0.7595;1.5564;
47.7000;0.7603;1.5564;
48.0000;0.7603;1.5564;
48.3000;0.7586;1.5540;
48.6000;0.7562;1.5445;
48.9000;0.7578;1.5492;
49.2000;0.7586;1.5564;
49.5000;0.7595;1.5587;
49.8000;0.7643;1.5682;
50.1000;0.7603;1.5540;
50.4000;0.7586;1.5587;
50.7000;0.7586;1.5587;
51.0000;0.7595;1.5564;
51.3000;0.7570;1.5540;
51.6000;0.7603;1.5540;
51.9000;0.7611;1.5516;
52.2000;0.7586;1.5492;
52.5000;0.7603;1.5611;
52.8000;0.7619;1.5706;
53.1000;0.7619;1.5730;
53.4000;0.7619;1.5706;
53.7000;0.7627;1.5682;
54.0000;0.7627;1.5777;
54.3000;0.7627;1.5706;
54.6000;0.7627;1.5706;
54.9000;0.7619;1.5730;
55.2000;0.7578;1.5587;
55.5000;0.7627;1.5659;
55.8000;0.7660;1.5730;
56.1000;0.7562;1.5398;
56.4000;0.7619;1.5540;
56.7000;0.7611;1.5516;
57.0000;0.7643;1.5611;
57.3000;0.7635;1.5516;
57.6000;0.7627;1.5421;
57.9000;0.7643;1.5445;
58.2000;0.7652;1.5445;
58.5000;0.7611;1.5421;
58.8000;0.7627;1.5469;
59.1000;0.7627;1.5469;
59.4000;0.7643;1.5469;
59.7000;0.7619;1.5398;
60.0000;0.7643;1.5421;
60.3000;0.7619;1.5326;
60.6000;0.7586;1.5160;
60.9000;0.7562;1.5160;
61.2000;0.7652;1.5421;
61.5000;0.7635;1.5350;
61.8000;0.7603;1.5279;
62.1000;0.7652;1.5492;
62.4000;0.7652;1.5492;
62.7000;0.7668;1.5469;
63.0000;0.7660;1.5445;
63.3000;0.7611;1.5398;
63.6000;0.7643;1.5374;
63.9000;0.7676;1.5469;
64.2000;0.7546;1.5208;
64.5000;0.7643;1.5398;
64.8000;0.7652;1.5398;
65.1000;0.7643;1.5421;
65.4000;0.7676;1.5350;
65.7000;0.7668;1.5326;
66.0000;0.7668;1.5303;
66.3000;0.7660;1.5303;
66.6000;0.7668;1.5350;
66.9000;0.7684;1.5374;
67.2000;0.7684;1.5398;
67.5000;0.7692;1.5374;
67.8000;0.7660;1.5398;
68.1000;0.7668;1.5445;
68.4000;0.7668;1.5540;
68.7000;0.7627;1.5492;
69.0000;0.7668;1.5611;
69.3000;0.7676;1.5587;
69.6000;0.7684;1.5587;
69.9000;0.7643;1.5540;
70.2000;0.7668;1.5587;
70.5000;0.7619;1.5540;
70.8000;0.7668;1.5706;
71.1000;0.7692;1.5801;
71.4000;0.7676;1.5801;
71.7000;0.7676;1.5730;
72.0000;0.7684;1.5730;
72.3000;0.7668;1.5635;
72.6000;0.7668;1.5587;
72.9000;0.7660;1.5540;
73.2000;0.7668;1.5540;
73.5000;0.7684;1.5587;
73.8000;0.7668;1.5540;
74.1000;0.7652;1.5516;
74.4000;0.7676;1.5587;
74.7000;0.7692;1.5611;
75.0000;0.7668;1.5564;
75.3000;0.7717;1.5777;
75.6000;0.7692;1.5706;
75.9000;0.7676;1.5635;
76.2000;0.7692;1.5659;
76.5000;0.7692;1.5682;
76.8000;0.7741;1.5848;
77.1000;0.7676;1.5659;
77.4000;0.7700;1.5611;
77.7000;0.7749;1.5706;
78.0000;0.7692;1.5564;
78.3000;0.7692;1.5587;
78.6000;0.7700;1.5587;
78.9000;0.7700;1.5564;
79.2000;0.7700;1.5587;
79.5000;0.7692;1.5445;
79.8000;0.7700;1.5492;
80.1000;0.7676;1.5469;
80.4000;0.7692;1.5540;
80.7000;0.7700;1.5516;
81.0000;0.7692;1.5540;
81.3000;0.7717;1.5635;
81.6000;0.7684;1.5469;
81.9000;0.7684;1.5398;
82.2000;0.7692;1.5421;
82.5000;0.7643;1.5232;
82.8000;0.7741;1.5445;
83.1000;0.7668;1.5350;
83.4000;0.7709;1.5516;
83.7000;0.7700;1.5492;
84.0000;0.7692;1.5374;
84.3000;0.7741;1.5516;
84.6000;0.7692;1.5445;
84.9000;0.7717;1.5469;
85.2000;0.7684;1.5374;
85.5000;0.7676;1.5326;
85.8000;0.7749;1.5682;
86.1000;0.7717;1.5682;
86.4000;0.7660;1.5659;
86.7000;0.7668;1.5611;
87.0000;0.7692;1.5611;
87.3000;0.7668;1.5492;
87.6000;0.7709;1.5421;
87.9000;0.7692;1.5374;
88.2000;0.7700;1.5350;
88.5000;0.7692;1.5445;
88.8000;0.7700;1.5516;
89.1000;0.7709;1.5540;
89.4000;0.7709;1.5516;
89.7000;0.7709;1.5540;
90.0000;0.7757;1.5635;
90.3000;0.7709;1.5540;
90.6000;0.7717;1.5492;
90.9000;0.7717;1.5540;
91.2000;0.7717;1.5540;
91.5000;0.7709;1.5587;
91.8000;0.7700;1.5564;
92.1000;0.7700;1.5516;
92.4000;0.7700;1.5445;
92.7000;0.7717;1.5445;
93.0000;0.7700;1.5374;
93.3000;0.7676;1.5398;
93.6000;0.7717;1.5540;
93.9000;0.7725;1.5587;
94.2000;0.7700;1.5540;
94.5000;0.7709;1.5706;
94.8000;0.7709;1.5730;
95.1000;0.7709;1.5682;
95.4000;0.7700;1.5611;
95.7000;0.7709;1.5516;
96.0000;0.7709;1.5516;
96.3000;0.7717;1.5516;
96.6000;0.7709;1.5540;
96.9000;0.7692;1.5492;
97.2000;0.7668;1.5469;
97.5000;0.7700;1.5516;
97.8000;0.7717;1.5445;
98.1000;0.7709;1.5421;
98.4000;0.7700;1.5398;
98.7000;0.7700;1.5421;
99.0000;0.7717;1.5469;
99.3000;0.7709;1.5421;
99.6000;0.7700;1.5469;
99.9000;0.7709;1.5445;
100.2000;0.7700;1.5421;
100.5000;0.7717;1.5516;
100.8000;0.7652;1.5398;
101.1000;0.7717;1.5445;
101.4000;0.7700;1.5469;
101.7000;0.7717;1.5469;
102.0000;0.7717;1.5469;
102.3000;0.7709;1.5398;
102.6000;0.7798;1.5540;
102.9000;0.7725;1.5398;
103.2000;0.7717;1.5421;
103.5000;0.7709;1.5469;
103.8000;0.7749;1.5540;
104.1000;0.7725;1.5469;
104.4000;0.7709;1.5421;
104.7000;0.7725;1.5540;
105.0000;0.7717;1.5564;
105.3000;0.7684;1.5469;
105.6000;0.7692;1.5445;
105.9000;0.7692;1.5445;
106.2000;0.7700;1.5398;
106.5000;0.7733;1.5492;
106.8000;0.7709;1.5445;
107.1000;0.7717;1.5492;
107.4000;0.7725;1.5492;
107.7000;0.7717;1.5445;
108.0000;0.7709;1.5374;
108.3000;0.7717;1.5492;
108.6000;0.7733;1.5635;
108.9000;0.7619;1.5303;
109.2000;0.7692;1.5445;
109.5000;0.7806;1.5777;
109.8000;0.7684;1.5469;
110.1000;0.7709;1.5445;
110.4000;0.7700;1.5398;
110.7000;0.7709;1.5421;
111.0000;0.7684;1.5303;
111.3000;0.7692;1.5232;
111.6000;0.7823;1.5492;
111.9000;0.7717;1.5232;
112.2000;0.7692;1.5184;
112.5000;0.7717;1.5303;
112.8000;0.7725;1.5374;
113.1000;0.7717;1.5445;
113.4000;0.7717;1.5421;
113.7000;0.7717;1.5374;
114.0000;0.7717;1.5303;
114.3000;0.7725;1.5326;
114.6000;0.7709;1.5326;
114.9000;0.7717;1.5374;
115.2000;0.7717;1.5421;
115.5000;0.7725;1.5350;
115.8000;0.7725;1.5255;
116.1000;0.7725;1.5232;
116.4000;0.7700;1.5184;
116.7000;0.7692;1.5160;
117.0000;0.7709;1.5208;
117.3000;0.7725;1.5184;
117.6000;0.7700;1.5160;
117.9000;0.7717;1.5113;
118.2000;0.7733;1.5184;
118.5000;0.7700;1.5160;
118.8000;0.7700;1.5160;
119.1000;0.7709;1.5184;
119.4000;0.7660;1.4994;
119.7000;0.7725;1.5279;
120.0000;0.7725;1.5208;
120.3000;0.7717;1.5279;
120.6000;0.7733;1.5374;
120.9000;0.7733;1.5279;
121.2000;0.7709;1.5303;
121.5000;0.7725;1.5350;
121.8000;0.7766;1.5421;
122.1000;0.7709;1.5374;
122.4000;0.7717;1.5421;
122.7000;0.7725;1.5492;
123.0000;0.7725;1.5445;
123.3000;0.7733;1.5421;
123.6000;0.7717;1.5303;
123.9000;0.7700;1.5303;
124.2000;0.7709;1.5350;
124.5000;0.7700;1.5421;
124.8000;0.7692;1.5421;
125.1000;0.7717;1.5421;
125.4000;0.7717;1.5374;
125.7000;0.7733;1.5445;
126.0000;0.7709;1.5374;
126.3000;0.7717;1.5398;
126.6000;0.7733;1.5374;
126.9000;0.7717;1.5374;
127.2000;0.7717;1.5374;
127.5000;0.7717;1.5398;
127.8000;0.7676;1.5303;
128.1000;0.7725;1.5469;
128.4000;0.7717;1.5469;
128.7000;0.7717;1.5492;
129.0000;0.7749;1.5587;
129.3000;0.7684;1.5421;
129.6000;0.7700;1.5469;
129.9000;0.7709;1.5516;
130.2000;0.7709;1.5516;
130.5000;0.7725;1.5635;
130.8000;0.7725;1.5682;
131.1000;0.7725;1.5587;
131.4000;0.7717;1.5445;
131.7000;0.7741;1.5516;
132.0000;0.7774;1.5540;
132.3000;0.7725;1.5398;
132.6000;0.7717;1.5421;
132.9000;0.7725;1.5445;
133.2000;0.7709;1.5398;
133.5000;0.7733;1.5421;
133.8000;0.7725;1.5469;
134.1000;0.7733;1.5516;
134.4000;0.7733;1.5635;
134.7000;0.7725;1.5611;
135.0000;0.7733;1.5564;
135.3000;0.7709;1.5492;
135.6000;0.7643;1.5326;
135.9000;0.7652;1.5374;
136.2000;0.7725;1.5540;
136.5000;0.7725;1.5540;
136.8000;0.7725;1.5516;
137.1000;0.7725;1.5587;
137.4000;0.7709;1.5492;
137.7000;0.7709;1.5516;
138.0000;0.7717;1.5492;
138.3000;0.7717;1.5398;
138.6000;0.7692;1.5255;
138.9000;0.7709;1.5232;
139.2000;0.7717;1.5303;
139.5000;0.7741;1.5303;
139.8000;0.7725;1.5350;
140.1000;0.7709;1.5350;
140.4000;0.7757;1.5469;
140.7000;0.7709;1.5374;
141.0000;0.7717;1.5445;
141.3000;0.7782;1.5635;
141.6000;0.7700;1.5421;
141.9000;0.7717;1.5469;
142.2000;0.7725;1.5492;
142.5000;0.7700;1.5398;
142.8000;0.7709;1.5421;
143.1000;0.7709;1.5421;
143.4000;0.7717;1.5516;
143.7000;0.7709;1.5421;
144.0000;0.7700;1.5492;
144.3000;0.7700;1.5516;
144.6000;0.7709;1.5540;
144.9000;0.7725;1.5564;
145.2000;0.7709;1.5564;
145.5000;0.7709;1.5540;
145.8000;0.7717;1.5659;
146.1000;0.7700;1.5659;
146.4000;0.7684;1.5635;
146.7000;0.7709;1.5682;
147.0000;0.7725;1.5730;
147.3000;0.7725;1.5682;
147.6000;0.7717;1.5516;
147.9000;0.7709;1.5587;
148.2000;0.7700;1.5469;
148.5000;0.7700;1.5492;
148.8000;0.7684;1.5421;
149.1000;0.7709;1.5516;
149.4000;0.7733;1.5492;
149.7000;0.7709;1.5445;
150.0000;0.7717;1.5587;
150.3000;0.7733;1.5564;
150.6000;0.7725;1.5516;
150.9000;0.7709;1.5516;
151.2000;0.7749;1.5659;
151.5000;0.7709;1.5540;
151.8000;0.7717;1.5469;
152.1000;0.7700;1.5398;
152.4000;0.7700;1.5326;
152.7000;0.7717;1.5445;
153.0000;0.7700;1.5516;
153.3000;0.7717;1.5445;
153.6000;0.7709;1.5374;
153.9000;0.7709;1.5326;
154.2000;0.7709;1.5421;
154.5000;0.7717;1.5445;
154.8000;0.7709;1.5374;
155.1000;0.7700;1.5350;
155.4000;0.7709;1.5374;
155.7000;0.7660;1.5279;
156.0000;0.7757;1.5469;
156.3000;0.7709;1.5398;
156.6000;0.7627;1.5326;
156.9000;0.7700;1.5492;
157.2000;0.7717;1.5445;
157.5000;0.7806;1.5611;
157.8000;0.7700;1.5326;
158.1000;0.7692;1.5279;
158.4000;0.7709;1.5350;
158.7000;0.7709;1.5374;
159.0000;0.7709;1.5374;
159.3000;0.7709;1.5255;
159.6000;0.7700;1.5255;
159.9000;0.7717;1.5398;
160.2000;0.7709;1.5445;
160.5000;0.7717;1.5516;
160.8000;0.7717;1.5587;
161.1000;0.7692;1.5611;
161.4000;0.7700;1.5706;
161.7000;0.7717;1.5730;
162.0000;0.7684;1.5682;
162.3000;0.7684;1.5611;
162.6000;0.7668;1.5564;
162.9000;0.7709;1.5659;
163.2000;0.7700;1.5635;
163.5000;0.7741;1.5635;
163.8000;0.7725;1.5516;
164.1000;0.7717;1.5398;
164.4000;0.7676;1.5303;
164.7000;0.7709;1.5421;
165.0000;0.7709;1.5492;
165.3000;0.7709;1.5587;
165.6000;0.7692;1.5492;
165.9000;0.7717;1.5469;
166.2000;0.7717;1.5516;
166.5000;0.7700;1.5469;
166.8000;0.7717;1.5469;
167.1000;0.7709;1.5469;
167.4000;0.7717;1.5445;
167.7000;0.7709;1.5350;
168.0000;0.7692;1.5398;
168.3000;0.7692;1.5398;
168.6000;0.7692;1.5421;
168.9000;0.7709;1.5469;
169.2000;0.7709;1.5469;
169.5000;0.7692;1.5374;
169.8000;0.7725;1.5421;
170.1000;0.7725;1.5492;
170.4000;0.7709;1.5445;
170.7000;0.7709;1.5445;
171.0000;0.7709;1.5421;
171.3000;0.7709;1.5374;
171.6000;0.7700;1.5374;
171.9000;0.7717;1.5374;
172.2000;0.7709;1.5398;
172.5000;0.7717;1.5350;
172.8000;0.7717;1.5255;
173.1000;0.7709;1.5303;
173.4000;0.7700;1.5279;
173.7000;0.7692;1.5326;
174.0000;0.7692;1.5279;
174.3000;0.7692;1.5350;
174.6000;0.7692;1.5398;
174.9000;0.7692;1.5398;
175.2000;0.7709;1.5445;
175.5000;0.7700;1.5398;
175.8000;0.7733;1.5445;
176.1000;0.7709;1.5492;
176.4000;0.7709;1.5587;
176.7000;0.7668;1.5469;
177.0000;0.7684;1.5516;
177.3000;0.7733;1.5516;
177.6000;0.7709;1.5492;
177.9000;0.7692;1.5564;
178.2000;0.7554;1.5184;
178.5000;0.7749;1.5587;
178.8000;0.7700;1.5516;
179.1000;0.7700;1.5540;
179.4000;0.7676;1.5587;
179.7000;0.7684;1.5635;
180.0000;0.7692;1.5659;
180.3000;0.7684;1.5564;
180.6000;0.7700;1.5469;
180.9000;0.7749;1.5540;
181.2000;0.7733;1.5540;
181.5000;0.7700;1.5469;
181.8000;0.7692;1.5421;
182.1000;0.7692;1.5445;
182.4000;0.7692;1.5469;
182.7000;0.7709;1.5587;
183.0000;0.7692;1.5587;
183.3000;0.7660;1.5516;
183.6000;0.7684;1.5587;
183.9000;0.7676;1.5516;
184.2000;0.7684;1.5564;
184.5000;0.7668;1.5564;
184.8000;0.7676;1.5516;
185.1000;0.7684;1.5564;
185.4000;0.7684;1.5564;
185.7000;0.7668;1.5492;
186.0000;0.7692;1.5492;
186.3000;0.7700;1.5540;
186.6000;0.7709;1.5564;
186.9000;0.7700;1.5445;
187.2000;0.7684;1.5421;
187.5000;0.7676;1.5398;
187.8000;0.7692;1.5398;
188.1000;0.7692;1.5445;
188.4000;0.7692;1.5445;
188.7000;0.7700;1.5492;
189.0000;0.7692;1.5445;
189.3000;0.7692;1.5445;
189.6000;0.7692;1.5469;
189.9000;0.7692;1.5469;
190.2000;0.7684;1.5516;
190.5000;0.7692;1.5564;
190.8000;0.7700;1.5540;
191.1000;0.7676;1.5540;
191.4000;0.7700;1.5492;
191.7000;0.7709;1.5516;
192.0000;0.7684;1.5516;
192.3000;0.7700;1.5516;
192.6000;0.7733;1.5587;
192.9000;0.7709;1.5516;
193.2000;0.7684;1.5564;
193.5000;0.7700;1.5611;
193.8000;0.7709;1.5706;
194.1000;0.7676;1.5587;
194.4000;0.7700;1.5516;
194.7000;0.7692;1.5564;
195.0000;0.7652;1.5564;
195.3000;0.7652;1.5469;
195.6000;0.7700;1.5635;
195.9000;0.7684;1.5540;
196.2000;0.7700;1.5516;
196.5000;0.7709;1.5587;
196.8000;0.7700;1.5587;
197.1000;0.7684;1.5587;
197.4000;0.7709;1.5611;
197.7000;0.7717;1.5635;
198.0000;0.7700;1.5564;
198.3000;0.7692;1.5635;
198.6000;0.7692;1.5753;
198.9000;0.7676;1.5706;
199.2000;0.7676;1.5682;
199.5000;0.7668;1.5682;
199.8000;0.7684;1.5682;
200.1000;0.7700;1.5730;
200.4000;0.7668;1.5682;
200.7000;0.7774;1.5848;
201.0000;0.7709;1.5659;
201.3000;0.7831;1.5896;
201.6000;0.7700;1.5635;
201.9000;0.7684;1.5516;
202.2000;0.7741;1.5587;
202.5000;0.7595;1.5279;
202.8000;0.7676;1.5492;
203.1000;0.7700;1.5540;
203.4000;0.7643;1.5469;
203.7000;0.7684;1.5611;
204.0000;0.7676;1.5540;
204.3000;0.7692;1.5587;
204.6000;0.7684;1.5564;
204.9000;0.7733;1.5682;
205.2000;0.7684;1.5635;
205.5000;0.7676;1.5635;
205.8000;0.7692;1.5564;
206.1000;0.7684;1.5492;
206.4000;0.7668;1.5445;
206.7000;0.7709;1.5469;
207.0000;0.7684;1.5492;
207.3000;0.7676;1.5492;
207.6000;0.7643;1.5398;
207.9000;0.7692;1.5374;
208.2000;0.7668;1.5398;
208.5000;0.7660;1.5350;
208.8000;0.7668;1.5326;
209.1000;0.7676;1.5374;
209.4000;0.7676;1.5445;
209.7000;0.7668;1.5398;
210.0000;0.7668;1.5398;
210.3000;0.7668;1.5350;
210.6000;0.7692;1.5469;
210.9000;0.7684;1.5421;
211.2000;0.7692;1.5374;
211.5000;0.7660;1.5445;
211.8000;0.7684;1.5611;
212.1000;0.7668;1.5587;
212.4000;0.7676;1.5659;
212.7000;0.7684;1.5706;
213.0000;0.7676;1.5753;
213.3000;0.7684;1.5730;
213.6000;0.7660;1.5635;
213.9000;0.7660;1.5730;
214.2000;0.7668;1.5753;
214.5000;0.7684;1.5777;
214.8000;0.7684;1.5730;
215.1000;0.7652;1.5706;
215.4000;0.7684;1.5682;
215.7000;0.7692;1.5682;
216.0000;0.7684;1.5659;
216.3000;0.7676;1.5587;
216.6000;0.7660;1.5516;
216.9000;0.7676;1.5587;
217.2000;0.7692;1.5587;
217.5000;0.7676;1.5587;
217.8000;0.7660;1.5611;
218.1000;0.7676;1.5564;
218.4000;0.7684;1.5564;
218.7000;0.7660;1.5469;
219.0000;0.7668;1.5445;
219.3000;0.7676;1.5469;
219.6000;0.7684;1.5516;
219.9000;0.7684;1.5492;
220.2000;0.7684;1.5469;
220.5000;0.7668;1.5421;
220.8000;0.7668;1.5421;
221.1000;0.7668;1.5398;
221.4000;0.7660;1.5326;
221.7000;0.7660;1.5326;
222.0000;0.7676;1.5398;
222.3000;0.7741;1.5516;
222.6000;0.7684;1.5398;
222.9000;0.7660;1.5398;
223.2000;0.7660;1.5398;
223.5000;0.7660;1.5398;
223.8000;0.7676;1.5421;
224.1000;0.7554;1.5184;
224.4000;0.7668;1.5398;
224.7000;0.7660;1.5398;
225.0000;0.7668;1.5398;
225.3000;0.7684;1.5516;
225.6000;0.7660;1.5540;
225.9000;0.7660;1.5611;
226.2000;0.7676;1.5587;
226.5000;0.7660;1.5564;
226.8000;0.7676;1.5445;
227.1000;0.7668;1.5421;
227.4000;0.7700;1.5492;
227.7000;0.7643;1.5516;
228.0000;0.7652;1.5469;
228.3000;0.7660;1.5540;
228.6000;0.7660;1.5587;
228.9000;0.7627;1.5540;
229.2000;0.7676;1.5587;
229.5000;0.7652;1.5540;
229.8000;0.7660;1.5492;
230.1000;0.7660;1.5492;
230.4000;0.7652;1.5492;
230.7000;0.7676;1.5516;
231.0000;0.7684;1.5540;
231.3000;0.7668;1.5421;
231.6000;0.7635;1.5350;
231.9000;0.7635;1.5445;
232.2000;0.7668;1.5516;
232.5000;0.7717;1.5635;
232.8000;0.7652;1.5421;
233.1000;0.7603;1.5303;
233.4000;0.7668;1.5516;
233.7000;0.7660;1.5516;
234.0000;0.7652;1.5492;
234.3000;0.7668;1.5469;
234.6000;0.7660;1.5421;
234.9000;0.7660;1.5374;
235.2000;0.7660;1.5398;
235.5000;0.7652;1.5398;
235.8000;0.7668;1.5469;
236.1000;0.7668;1.5421;
236.4000;0.7676;1.5540;
236.7000;0.7660;1.5516;
237.0000;0.7668;1.5492;
237.3000;0.7652;1.5492;
237.6000;0.7676;1.5492;
237.9000;0.7668;1.5374;
238.2000;0.7660;1.5421;
238.5000;0.7660;1.5492;
238.8000;0.7652;1.5635;
239.1000;0.7627;1.5659;
239.4000;0.7652;1.5730;
239.7000;0.7668;1.5801;
240.0000;0.7660;1.5777;
240.3000;0.7660;1.5777;
240.6000;0.7692;1.5706;
240.9000;0.7676;1.5635;
241.2000;0.7684;1.5659;
241.5000;0.7643;1.5587;
241.8000;0.7627;1.5445;
242.1000;0.7668;1.5564;
242.4000;0.7668;1.5611;
242.7000;0.7652;1.5611;
243.0000;0.7668;1.5659;
243.3000;0.7676;1.5682;
243.6000;0.7676;1.5706;
243.9000;0.7660;1.5730;
244.2000;0.7652;1.5682;
244.5000;0.7652;1.5682;
244.8000;0.7652;1.5659;
245.1000;0.7676;1.5635;
245.4000;0.7660;1.5587;
245.7000;0.7652;1.5564;
246.0000;0.7660;1.5635;
246.3000;0.7676;1.5730;
246.6000;0.7660;1.5801;
246.9000;0.7668;1.5730;
247.2000;0.7774;1.5967;
247.5000;0.7668;1.5825;
247.8000;0.7660;1.5801;
248.1000;0.7652;1.5872;
248.4000;0.7652;1.5801;
248.7000;0.7660;1.5753;
249.0000;0.7660;1.5706;
249.3000;0.7635;1.5706;
249.6000;0.7643;1.5659;
249.9000;0.7668;1.5706;
250.2000;0.7652;1.5611;
250.5000;0.7643;1.5611;
250.8000;0.7660;1.5611;
251.1000;0.7660;1.5611;
251.4000;0.7709;1.5753;
251.7000;0.7668;1.5659;
252.0000;0.7668;1.5611;
252.3000;0.7660;1.5564;
252.6000;0.7660;1.5587;
252.9000;0.7660;1.5516;
253.2000;0.7660;1.5540;
253.5000;0.7652;1.5611;
253.8000;0.7652;1.5706;
254.1000;0.7643;1.5659;
254.4000;0.7652;1.5706;
254.7000;0.7627;1.5635;
255.0000;0.7652;1.5730;
255.3000;0.7660;1.5659;
255.6000;0.7652;1.5706;
255.9000;0.7660;1.5730;
256.2000;0.7660;1.5730;
256.5000;0.7709;1.5825;
256.8000;0.7643;1.5753;
257.1000;0.7643;1.5801;
257.4000;0.7652;1.5777;
257.7000;0.7643;1.5730;
258.0000;0.7627;1.5730;
258.3000;0.7627;1.5753;
258.6000;0.7635;1.5777;
258.9000;0.7643;1.5777;
259.2000;0.7635;1.5706;
259.5000;0.7652;1.5777;
259.8000;0.7635;1.5730;
260.1000;0.7652;1.5753;
260.4000;0.7668;1.5753;
260.7000;0.7652;1.5611;
261.0000;0.7643;1.5564;
261.3000;0.7652;1.5564;
261.6000;0.7668;1.5492;
261.9000;0.7660;1.5398;
262.2000;0.7660;1.5326;
262.5000;0.7660;1.5350;
262.8000;0.7660;1.5398;
263.1000;0.7766;1.5635;
263.4000;0.7660;1.5303;
263.7000;0.7643;1.5303;
264.0000;0.7676;1.5374;
264.3000;0.7684;1.5374;
264.6000;0.7652;1.5303;
264.9000;0.7635;1.5374;
265.2000;0.7643;1.5492;
265.5000;0.7717;1.5706;
265.8000;0.7643;1.5611;
266.1000;0.7660;1.5635;
266.4000;0.7668;1.5635;
266.7000;0.7668;1.5587;
267.0000;0.7660;1.5659;
267.3000;0.7668;1.5706;
267.6000;0.7643;1.5611;
267.9000;0.7652;1.5706;
268.2000;0.7692;1.5801;
268.5000;0.7643;1.5682;
268.8000;0.7652;1.5706;
269.1000;0.7643;1.5753;
269.4000;0.7660;1.5706;
269.7000;0.7643;1.5659;
270.0000;0.7660;1.5635;
270.3000;0.7635;1.5540;
270.6000;0.7643;1.5611;
270.9000;0.7643;1.5659;
271.2000;0.7635;1.5635;
271.5000;0.7635;1.5730;
271.8000;0.7627;1.5730;
272.1000;0.7627;1.5706;
272.4000;0.7635;1.5730;
272.7000;0.7652;1.5682;
273.0000;0.7635;1.5635;
273.3000;0.7676;1.5825;
273.6000;0.7635;1.5682;
273.9000;0.7652;1.5777;
274.2000;0.7652;1.5682;
274.5000;0.7635;1.5730;
274.8000;0.7627;1.5635;
275.1000;0.7652;1.5682;
275.4000;0.7586;1.5492;
275.7000;0.7652;1.5659;
276.0000;0.7643;1.5659;
276.3000;0.7643;1.5611;
276.6000;0.7668;1.5659;
276.9000;0.7643;1.5635;
277.2000;0.7619;1.5564;
277.5000;0.7635;1.5635;
277.8000;0.7652;1.5753;
278.1000;0.7635;1.5682;
278.4000;0.7611;1.5611;
278.7000;0.7627;1.5564;
279.0000;0.7619;1.5611;
279.3000;0.7635;1.5682;
279.6000;0.7627;1.5635;
279.9000;0.7627;1.5587;
280.2000;0.7643;1.5516;
280.5000;0.7643;1.5492;
280.8000;0.7643;1.5492;
281.1000;0.7643;1.5516;
281.4000;0.7652;1.5540;
281.7000;0.7627;1.5635;
282.0000;0.7643;1.5682;
282.3000;0.7635;1.5659;
282.6000;0.7627;1.5753;
282.9000;0.7643;1.5872;
283.2000;0.7635;1.5848;
283.5000;0.7668;1.5943;
283.8000;0.7627;1.5777;
284.1000;0.7635;1.5777;
284.4000;0.7635;1.5730;
284.7000;0.7635;1.5635;
285.0000;0.7627;1.5611;
285.3000;0.7603;1.5492;
285.6000;0.7652;1.5445;
285.9000;0.7635;1.5516;
286.2000;0.7627;1.5492;
286.5000;0.7643;1.5564;
286.8000;0.7635;1.5587;
287.1000;0.7635;1.5659;
287.4000;0.7643;1.5706;
287.7000;0.7627;1.5706;
288.0000;0.7635;1.5682;
288.3000;0.7627;1.5659;
288.6000;0.7627;1.5635;
288.9000;0.7619;1.5635;
289.2000;0.7619;1.5659;
289.5000;0.7643;1.5682;
289.8000;0.7643;1.5682;
290.1000;0.7635;1.5635;
290.4000;0.7643;1.5611;
290.7000;0.7643;1.5635;
291.0000;0.7611;1.5587;
291.3000;0.7652;1.5682;
291.6000;0.7643;1.5659;
291.9000;0.7643;1.5611;
292.2000;0.7676;1.5753;
292.5000;0.7635;1.5682;
292.8000;0.7643;1.5587;
293.1000;0.7652;1.5540;
293.4000;0.7635;1.5421;
293.7000;0.7619;1.5398;
294.0000;0.7619;1.5350;
294.3000;0.7668;1.5469;
294.6000;0.7578;1.5326;
294.9000;0.7619;1.5469;
295.2000;0.7627;1.5445;
295.5000;0.7643;1.5492;
295.8000;0.7643;1.5540;
296.1000;0.7635;1.5564;
296.4000;0.7611;1.5587;
296.7000;0.7611;1.5635;
297.0000;0.7570;1.5469;
297.3000;0.7603;1.5682;
297.6000;0.7635;1.5730;
297.9000;0.7611;1.5659;
298.2000;0.7619;1.5587;
298.5000;0.7635;1.5635;
298.8000;0.7635;1.5635;
299.1000;0.7627;1.5564;
299.4000;0.7684;1.5753;
299.7000;0.7635;1.5635;
300.0000;0.7643;1.5659;
300.3000;0.7619;1.5635;
300.6000;0.7635;1.5753;
300.9000;0.7619;1.5635;
301.2000;0.7619;1.5682;
301.5000;0.7635;1.5706;
301.8000;0.7619;1.5635;
302.1000;0.7643;1.5706;
302.4000;0.7643;1.5706;
302.7000;0.7627;1.5635;
303.0000;0.7635;1.5659;
303.3000;0.7627;1.5516;
303.6000;0.7611;1.5516;
303.9000;0.7619;1.5516;
304.2000;0.7635;1.5611;
304.5000;0.7627;1.5682;
304.8000;0.7684;1.5753;
305.1000;0.7619;1.5635;
305.4000;0.7627;1.5706;
305.7000;0.7652;1.5730;
306.0000;0.7619;1.5587;
306.3000;0.7619;1.5635;
306.6000;0.7578;1.5469;
306.9000;0.7627;1.5564;
307.2000;0.7643;1.5635;
307.5000;0.7635;1.5635;
307.8000;0.7554;1.5421;
308.1000;0.7635;1.5682;
308.4000;0.7643;1.5753;
308.7000;0.7627;1.5682;
309.0000;0.7635;1.5659;
309.3000;0.7635;1.5706;
309.6000;0.7635;1.5706;
309.9000;0.7627;1.5777;
310.2000;0.7627;1.5753;
310.5000;0.7627;1.5777;
310.8000;0.7635;1.5801;
311.1000;0.7635;1.5777;
311.4000;0.7611;1.5730;
311.7000;0.7627;1.5825;
312.0000;0.7635;1.5872;
312.3000;0.7652;1.5967;
312.6000;0.7586;1.5825;
312.9000;0.7635;1.5967;
313.2000;0.7619;1.5967;
313.5000;0.7635;1.5920;
313.8000;0.7668;1.5991;
314.1000;0.7635;1.5872;
314.4000;0.7635;1.5848;
314.7000;0.7684;1.5896;
315.0000;0.7627;1.5706;
315.3000;0.7619;1.5659;
315.6000;0.7627;1.5682;
315.9000;0.7635;1.5730;
316.2000;0.7643;1.5753;
316.5000;0.7595;1.5682;
316.8000;0.7619;1.5777;
317.1000;0.7603;1.5777;
317.4000;0.7627;1.5872;
317.7000;0.7619;1.5848;
318.0000;0.7627;1.5872;
318.3000;0.7635;1.5967;
318.6000;0.7627;1.5943;
318.9000;0.7627;1.5991;
319.2000;0.7627;1.5920;
319.5000;0.7627;1.5777;
319.8000;0.7635;1.5848;
320.1000;0.7635;1.5848;
320.4000;0.7611;1.5753;
320.7000;0.7611;1.5825;
321.0000;0.7643;1.5896;
321.3000;0.7643;1.5872;
321.6000;0.7538;1.5635;
321.9000;0.7627;1.5777;
322.2000;0.7619;1.5682;
322.5000;0.7627;1.5659;
322.8000;0.7619;1.5564;
323.1000;0.7611;1.5564;
323.4000;0.7562;1.5421;
323.7000;0.7635;1.5587;
324.0000;0.7619;1.5564;
324.3000;0.7619;1.5564;
324.6000;0.7619;1.5492;
324.9000;0.7586;1.5469;
325.2000;0.7611;1.5445;
325.5000;0.7619;1.5492;
325.8000;0.7627;1.5635;
326.1000;0.7635;1.5706;
326.4000;0.7627;1.5682;
326.7000;0.7692;1.5848;
327.0000;0.7635;1.5682;
327.3000;0.7635;1.5635;
327.6000;0.7627;1.5587;
327.9000;0.7627;1.5421;
328.2000;0.7603;1.5445;
328.5000;0.7627;1.5492;
328.8000;0.7546;1.5326;
329.1000;0.7619;1.5540;
329.4000;0.7627;1.5492;
329.7000;0.7595;1.5374;
330.0000;0.7635;1.5492;
330.3000;0.7603;1.5516;
330.6000;0.7611;1.5540;
330.9000;0.7709;1.5896;
331.2000;0.7619;1.5706;
331.5000;0.7611;1.5706;
331.8000;0.7595;1.5587;
332.1000;0.7643;1.5682;
332.4000;0.7627;1.5753;
332.7000;0.7643;1.5825;
333.0000;0.7603;1.5753;
333.3000;0.7611;1.5825;
333.6000;0.7619;1.5777;
333.9000;0.7611;1.5825;
334.2000;0.7619;1.5706;
334.5000;0.7619;1.5659;
334.8000;0.7635;1.5706;
335.1000;0.7627;1.5611;
335.4000;0.7619;1.5492;
335.7000;0.7611;1.5326;
336.0000;0.7611;1.5374;
336.3000;0.7627;1.5350;
336.6000;0.7619;1.5303;
336.9000;0.7611;1.5255;
337.2000;0.7611;1.5279;
337.5000;0.7611;1.5326;
337.8000;0.7619;1.5374;
338.1000;0.7611;1.5303;
338.4000;0.7611;1.5279;
338.7000;0.7619;1.5421;
339.0000;0.7603;1.5421;
339.3000;0.7611;1.5421;
339.6000;0.7603;1.5469;
339.9000;0.7611;1.5540;
340.2000;0.7611;1.5587;
340.5000;0.7603;1.5564;
340.8000;0.7603;1.5421;
341.1000;0.7570;1.5255;
341.4000;0.7603;1.5469;
341.7000;0.7627;1.5516;
342.0000;0.7611;1.5445;
342.3000;0.7611;1.5398;
342.6000;0.7619;1.5421;
342.9000;0.7635;1.5492;
343.2000;0.7595;1.5445;
343.5000;0.7611;1.5516;
343.8000;0.7635;1.5635;
344.1000;0.7619;1.5516;
344.4000;0.7570;1.5445;
344.7000;0.7611;1.5445;
345.0000;0.7586;1.5374;
345.3000;0.7619;1.5469;
345.6000;0.7595;1.5374;
345.9000;0.7578;1.5279;
346.2000;0.7611;1.5398;
346.5000;0.7627;1.5469;
346.8000;0.7627;1.5398;
347.1000;0.7595;1.5421;
347.4000;0.7554;1.5303;
347.7000;0.7578;1.5421;
348.0000;0.7611;1.5469;
348.3000;0.7603;1.5469;
348.6000;0.7611;1.5421;
348.9000;0.7586;1.5398;
349.2000;0.7603;1.5398;
349.5000;0.7611;1.5445;
349.8000;0.7619;1.5587;
350.1000;0.7619;1.5659;
350.4000;0.7619;1.5682;
350.7000;0.7570;1.5516;
351.0000;0.7619;1.5635;
351.3000;0.7627;1.5753;
351.6000;0.7643;1.5825;
351.9000;0.7603;1.5659;
352.2000;0.7619;1.5682;
352.5000;0.7570;1.5516;
352.8000;0.7586;1.5469;
353.1000;0.7619;1.5421;
353.4000;0.7619;1.5445;
353.7000;0.7603;1.5398;
354.0000;0.7611;1.5445;
354.3000;0.7611;1.5469;
354.6000;0.7586;1.5445;
354.9000;0.7611;1.5564;
355.2000;0.7611;1.5492;
355.5000;0.7595;1.5445;
355.8000;0.7603;1.5469;
356.1000;0.7611;1.5492;
356.4000;0.7603;1.5421;
356.7000;0.7627;1.5469;
357.0000;0.7603;1.5540;
357.3000;0.7595;1.5445;
357.6000;0.7595;1.5564;
357.9000;0.7595;1.5516;
358.2000;0.7611;1.5564;
358.5000;0.7603;1.5516;
358.8000;0.7595;1.5516;
359.1000;0.7603;1.5516;
359.4000;0.7627;1.5540;
359.7000;0.7570;1.5492;
360.0000;0.7603;1.5516;
360.3000;0.7603;1.5587;
360.6000;0.7611;1.5587;
360.9000;0.7586;1.5611;
361.2000;0.7586;1.5659;
361.5000;0.7627;1.5706;
361.8000;0.7611;1.5706;
362.1000;0.7603;1.5753;
362.4000;0.7611;1.5801;
362.7000;0.7586;1.5753;
363.0000;0.7611;1.5801;
363.3000;0.7603;1.5706;
363.6000;0.7611;1.5730;
363.9000;0.7611;1.5730;
364.2000;0.7611;1.5682;
364.5000;0.7603;1.5659;
364.8000;0.7603;1.5659;
365.1000;0.7595;1.5635;
365.4000;0.7603;1.5659;
365.7000;0.7595;1.5564;
366.0000;0.7603;1.5611;
366.3000;0.7595;1.5540;
366.6000;0.7643;1.5706;
366.9000;0.7603;1.5564;
367.2000;0.7603;1.5611;
367.5000;0.7578;1.5469;
367.8000;0.7611;1.5587;
368.1000;0.7603;1.5659;
368.4000;0.7595;1.5706;
368.7000;0.7603;1.5659;
369.0000;0.7660;1.5753;
369.3000;0.7595;1.5635;
369.6000;0.7570;1.5587;
369.9000;0.7554;1.5492;
370.2000;0.7578;1.5516;
370.5000;0.7603;1.5516;
370.8000;0.7619;1.5587;
371.1000;0.7595;1.5587;
371.4000;0.7464;1.5208;
371.7000;0.7595;1.5445;
372.0000;0.7603;1.5492;
372.3000;0.7586;1.5469;
372.6000;0.7603;1.5587;
372.9000;0.7603;1.5611;
373.2000;0.7611;1.5635;
373.5000;0.7611;1.5682;
373.8000;0.7586;1.5659;
374.1000;0.7603;1.5706;
374.4000;0.7603;1.5706;
374.7000;0.7586;1.5682;
375.0000;0.7586;1.5635;
375.3000;0.7619;1.5492;
375.6000;0.7595;1.5445;
375.9000;0.7611;1.5421;
376.2000;0.7595;1.5303;
376.5000;0.7578;1.5232;
376.8000;0.7603;1.5303;
377.1000;0.7586;1.5350;
377.4000;0.7578;1.5350;
377.7000;0.7586;1.5421;
378.0000;0.7595;1.5516;
378.3000;0.7595;1.5540;
378.6000;0.7603;1.5540;
378.9000;0.7595;1.5445;
379.2000;0.7595;1.5469;
379.5000;0.7595;1.5469;
379.8000;0.7586;1.5469;
380.1000;0.7595;1.5540;
380.4000;0.7586;1.5564;
380.7000;0.7611;1.5659;
381.0000;0.7595;1.5659;
381.3000;0.7611;1.5682;
381.6000;0.7643;1.5848;
381.9000;0.7586;1.5659;
382.2000;0.7586;1.5540;
382.5000;0.7586;1.5492;
382.8000;0.7562;1.5445;
383.1000;0.7586;1.5564;
383.4000;0.7595;1.5587;
383.7000;0.7570;1.5611;
384.0000;0.7578;1.5540;
384.3000;0.7586;1.5564;
384.6000;0.7578;1.5469;
384.9000;0.7586;1.5469;
385.2000;0.7611;1.5492;
385.5000;0.7578;1.5374;
385.8000;0.7603;1.5350;
386.1000;0.7668;1.5469;
386.4000;0.7603;1.5350;
386.7000;0.7586;1.5421;
387.0000;0.7546;1.5350;
387.3000;0.7586;1.5421;
387.6000;0.7578;1.5445;
387.9000;0.7595;1.5564;
388.2000;0.7530;1.5421;
388.5000;0.7652;1.5753;
388.8000;0.7578;1.5659;
389.1000;0.7586;1.5611;
389.4000;0.7521;1.5374;
389.7000;0.7595;1.5540;
390.0000;0.7578;1.5421;
390.3000;0.7603;1.5469;
390.6000;0.7570;1.5445;
390.9000;0.7570;1.5445;
391.2000;0.7570;1.5516;
391.5000;0.7578;1.5540;
391.8000;0.7603;1.5682;
392.1000;0.7595;1.5801;
392.4000;0.7595;1.5825;
392.7000;0.7586;1.5848;
393.0000;0.7578;1.5730;
393.3000;0.7595;1.5706;
393.6000;0.7595;1.5635;
393.9000;0.7570;1.5564;
394.2000;0.7611;1.5611;
394.5000;0.7586;1.5469;
394.8000;0.7603;1.5421;
395.1000;0.7595;1.5469;
395.4000;0.7595;1.5564;
395.7000;0.7595;1.5564;
396.0000;0.7619;1.5635;
396.3000;0.7611;1.5706;
396.6000;0.7627;1.5730;
396.9000;0.7595;1.5706;
397.2000;0.7586;1.5659;
397.5000;0.7611;1.5659;
397.8000;0.7595;1.5635;
398.1000;0.7586;1.5635;
398.4000;0.7578;1.5635;
398.7000;0.7586;1.5611;
399.0000;0.7692;1.5896;
399.3000;0.7578;1.5564;
399.6000;0.7521;1.5421;
399.9000;0.7595;1.5587;
400.2000;0.7570;1.5540;
400.5000;0.7595;1.5611;
400.8000;0.7578;1.5611;
401.1000;0.7595;1.5635;
401.4000;0.7586;1.5635;
401.7000;0.7570;1.5635;
402.0000;0.7578;1.5540;
402.3000;0.7586;1.5564;
402.6000;0.7578;1.5635;
402.9000;0.7578;1.5682;
403.2000;0.7586;1.5706;
403.5000;0.7595;1.5730;
403.8000;0.7578;1.5730;
404.1000;0.7578;1.5777;
404.4000;0.7578;1.5730;
404.7000;0.7562;1.5635;
405.0000;0.7578;1.5659;
405.3000;0.7635;1.5872;
405.6000;0.7578;1.5753;
405.9000;0.7595;1.5706;
406.2000;0.7595;1.5730;
406.5000;0.7595;1.5777;
406.8000;0.7586;1.5730;
407.1000;0.7578;1.5682;
407.4000;0.7603;1.5730;
407.7000;0.7603;1.5730;
408.0000;0.7668;1.5896;
408.3000;0.7578;1.5659;
408.6000;0.7586;1.5659;
408.9000;0.7578;1.5611;
409.2000;0.7578;1.5516;
409.5000;0.7578;1.5540;
409.8000;0.7595;1.5659;
410.1000;0.7611;1.5753;
410.4000;0.7586;1.5777;
410.7000;0.7562;1.5730;
411.0000;0.7586;1.5872;
411.3000;0.7586;1.5848;
411.6000;0.7578;1.5848;
411.9000;0.7562;1.5777;
412.2000;0.7627;1.5848;
412.5000;0.7635;1.5825;
412.8000;0.7513;1.5587;
413.1000;0.7578;1.5730;
413.4000;0.7562;1.5730;
413.7000;0.7578;1.5872;
414.0000;0.7586;1.5825;
414.3000;0.7603;1.5896;
414.6000;0.7562;1.5777;
414.9000;0.7595;1.5825;
415.2000;0.7570;1.5801;
415.5000;0.7578;1.5848;
415.8000;0.7570;1.5753;
416.1000;0.7586;1.5730;
416.4000;0.7643;1.5825;
416.7000;0.7578;1.5587;
417.0000;0.7570;1.5611;
417.3000;0.7562;1.5635;
417.6000;0.7603;1.5706;
417.9000;0.7578;1.5706;
418.2000;0.7578;1.5777;
418.5000;0.7586;1.5825;
418.8000;0.7578;1.5825;
419.1000;0.7578;1.5801;
419.4000;0.7570;1.5753;
419.7000;0.7570;1.5635;
420.0000;0.7578;1.5682;
420.3000;0.7570;1.5611;
420.6000;0.7562;1.5635;
420.9000;0.7570;1.5659;
421.2000;0.7586;1.5706;
421.5000;0.7586;1.5730;
421.8000;0.7595;1.5801;
422.1000;0.7578;1.5753;
422.4000;0.7578;1.5730;
422.7000;0.7595;1.5635;
423.0000;0.7432;1.5255;
423.3000;0.7595;1.5635;
423.6000;0.7586;1.5540;
423.9000;0.7578;1.5564;
424.2000;0.7595;1.5611;
424.5000;0.7554;1.5587;
424.8000;0.7570;1.5587;
425.1000;0.7578;1.5706;
425.4000;0.7595;1.5801;
425.7000;0.7586;1.5777;
426.0000;0.7578;1.5706;
426.3000;0.7595;1.5801;
426.6000;0.7595;1.5801;
426.9000;0.7578;1.5777;
427.2000;0.7570;1.5753;
427.5000;0.7586;1.5730;
427.8000;0.7586;1.5659;
428.1000;0.7586;1.5659;
428.4000;0.7578;1.5706;
428.7000;0.7554;1.5611;
429.0000;0.7586;1.5611;
429.3000;0.7521;1.5516;
429.6000;0.7570;1.5659;
429.9000;0.7570;1.5706;
430.2000;0.7570;1.5730;
430.5000;0.7603;1.5777;
430.8000;0.7562;1.5706;
431.1000;0.7562;1.5706;
431.4000;0.7578;1.5753;
431.7000;0.7668;1.5825;
432.0000;0.7562;1.5611;
432.3000;0.7578;1.5635;
432.6000;0.7578;1.5706;
432.9000;0.7586;1.5825;
433.2000;0.7570;1.5777;
433.5000;0.7578;1.5753;
433.8000;0.7570;1.5706;
434.1000;0.7578;1.5730;
434.4000;0.7578;1.5825;
434.7000;0.7603;1.5777;
435.0000;0.7603;1.5872;
435.3000;0.7595;1.5825;
435.6000;0.7578;1.5825;
435.9000;0.7603;1.5777;
436.2000;0.7570;1.5777;
436.5000;0.7586;1.5848;
436.8000;0.7586;1.5848;
437.1000;0.7627;1.5967;
437.4000;0.7603;1.5896;
437.7000;0.7578;1.5848;
438.0000;0.7570;1.5730;
438.3000;0.7562;1.5682;
438.6000;0.7635;1.5967;
438.9000;0.7562;1.5777;
439.2000;0.7586;1.5872;
439.5000;0.7562;1.5825;
439.8000;0.7554;1.5777;
440.1000;0.7570;1.5801;
440.4000;0.7578;1.5872;
440.7000;0.7562;1.5920;
441.0000;0.7578;1.6014;
441.3000;0.7570;1.5943;
441.6000;0.7578;1.5943;
441.9000;0.7562;1.5896;
442.2000;0.7578;1.5872;
442.5000;0.7562;1.5943;
442.8000;0.7562;1.5801;
443.1000;0.7570;1.5801;
443.4000;0.7668;1.6014;
443.7000;0.7570;1.5801;
444.0000;0.7562;1.5730;
444.3000;0.7578;1.5801;
444.6000;0.7546;1.5706;
444.9000;0.7554;1.5730;
445.2000;0.7570;1.5777;
445.5000;0.7603;1.5943;
445.8000;0.7578;1.5896;
446.1000;0.7570;1.5753;
446.4000;0.7562;1.5777;
446.7000;0.7578;1.5777;
447.0000;0.7586;1.5825;
447.3000;0.7570;1.5848;
447.6000;0.7546;1.5896;
447.9000;0.7570;1.5943;
448.2000;0.7562;1.5920;
448.5000;0.7546;1.5848;
448.8000;0.7570;1.5825;
449.1000;0.7578;1.5825;
449.4000;0.7570;1.5777;
449.7000;0.7562;1.5777;
450.0000;0.7554;1.5753;
450.3000;0.7570;1.5706;
450.6000;0.7578;1.5611;
450.9000;0.7578;1.5635;
451.2000;0.7570;1.5540;
451.5000;0.7570;1.5516;
451.8000;0.7570;1.5540;
452.1000;0.7578;1.5587;
452.4000;0.7578;1.5564;
452.7000;0.7538;1.5492;
453.0000;0.7570;1.5659;
453.3000;0.7546;1.5611;
453.6000;0.7521;1.5587;
453.9000;0.7562;1.5635;
454.2000;0.7570;1.5753;
454.5000;0.7586;1.5825;
454.8000;0.7570;1.5825;
455.1000;0.7570;1.5801;
455.4000;0.7570;1.5753;
455.7000;0.7554;1.5635;
456.0000;0.7570;1.5801;
456.3000;0.7578;1.5706;
456.6000;0.7578;1.5682;
456.9000;0.7562;1.5682;
457.2000;0.7570;1.5682;
457.5000;0.7554;1.5635;
457.8000;0.7562;1.5682;
458.1000;0.7554;1.5682;
458.4000;0.7586;1.5801;
458.7000;0.7554;1.5706;
459.0000;0.7554;1.5706;
459.3000;0.7570;1.5659;
459.6000;0.7570;1.5706;
459.9000;0.7562;1.5777;
460.2000;0.7546;1.5753;
460.5000;0.7586;1.5825;
460.8000;0.7570;1.5825;
461.1000;0.7578;1.5825;
461.4000;0.7489;1.5540;
461.7000;0.7505;1.5564;
462.0000;0.7595;1.5825;
462.3000;0.7562;1.5706;
462.6000;0.7554;1.5706;
462.9000;0.7570;1.5753;
463.2000;0.7668;1.6062;
463.5000;0.7562;1.5730;
463.8000;0.7554;1.5682;
464.1000;0.7570;1.5730;
464.4000;0.7554;1.5706;
464.7000;0.7570;1.5682;
465.0000;0.7538;1.5635;
465.3000;0.7546;1.5587;
465.6000;0.7546;1.5659;
465.9000;0.7554;1.5682;
466.2000;0.7538;1.5540;
466.5000;0.7611;1.5706;
466.8000;0.7538;1.5564;
467.1000;0.7570;1.5587;
467.4000;0.7562;1.5611;
467.7000;0.7562;1.5564;
468.0000;0.7627;1.5753;
468.3000;0.7570;1.5564;
468.6000;0.7603;1.5682;
468.9000;0.7554;1.5659;
469.2000;0.7530;1.5611;
469.5000;0.7578;1.5706;
469.8000;0.7473;1.5516;
470.1000;0.7554;1.5635;
470.4000;0.7562;1.5611;
470.7000;0.7611;1.5682;
471.0000;0.7595;1.5682;
471.3000;0.7578;1.5730;
471.6000;0.7570;1.5564;
471.9000;0.7570;1.5564;
472.2000;0.7570;1.5516;
472.5000;0.7586;1.5564;
472.8000;0.7586;1.5587;
473.1000;0.7554;1.5635;
473.4000;0.7570;1.5564;
473.7000;0.7570;1.5564;
474.0000;0.7562;1.5492;
474.3000;0.7562;1.5421;
474.6000;0.7578;1.5516;
474.9000;0.7570;1.5492;
475.2000;0.7554;1.5492;
475.5000;0.7554;1.5587;
475.8000;0.7538;1.5516;
476.1000;0.7570;1.5564;
476.4000;0.7538;1.5516;
476.7000;0.7562;1.5540;
477.0000;0.7570;1.5516;
477.3000;0.7619;1.5611;
477.6000;0.7586;1.5540;
477.9000;0.7521;1.5469;
478.2000;0.7570;1.5587;
478.5000;0.7570;1.5611;
478.8000;0.7562;1.5659;
479.1000;0.7530;1.5540;
479.4000;0.7611;1.5706;
479.7000;0.7562;1.5469;
480.0000;0.7570;1.5492;
480.3000;0.7554;1.5516;
480.6000;0.7570;1.5516;
480.9000;0.7562;1.5564;
481.2000;0.7611;1.5777;
481.5000;0.7538;1.5682;
481.8000;0.7554;1.5730;
482.1000;0.7619;1.5825;
482.4000;0.7570;1.5706;
482.7000;0.7554;1.5682;
483.0000;0.7562;1.5706;
483.3000;0.7554;1.5706;
483.6000;0.7562;1.5896;
483.9000;0.7562;1.5825;
484.2000;0.7530;1.5777;
484.5000;0.7538;1.5825;
484.8000;0.7554;1.5825;
485.1000;0.7554;1.5801;
485.4000;0.7570;1.5825;
485.7000;0.7562;1.5706;
486.0000;0.7554;1.5706;
486.3000;0.7660;1.6014;
486.6000;0.7562;1.5730;
486.9000;0.7554;1.5753;
487.2000;0.7586;1.5777;
487.5000;0.7603;1.5777;
487.8000;0.7570;1.5682;
488.1000;0.7554;1.5587;
488.4000;0.7595;1.5706;
488.7000;0.7603;1.5896;
489.0000;0.7562;1.5825;
489.3000;0.7538;1.5730;
489.6000;0.7570;1.5730;
489.9000;0.7554;1.5730;
490.2000;0.7570;1.5753;
490.5000;0.7570;1.5753;
490.8000;0.7578;1.5825;
491.1000;0.7586;1.5777;
491.4000;0.7578;1.5801;
491.7000;0.7562;1.5635;
492.0000;0.7570;1.5635;
492.3000;0.7586;1.5659;
492.6000;0.7554;1.5587;
492.9000;0.7554;1.5587;
493.2000;0.7521;1.5540;
493.5000;0.7538;1.5587;
493.8000;0.7538;1.5587;
494.1000;0.7521;1.5587;
494.4000;0.7530;1.5564;
494.7000;0.7513;1.5564;
495.0000;0.7538;1.5587;
495.3000;0.7530;1.5611;
495.6000;0.7554;1.5659;
495.9000;0.7554;1.5659;
496.2000;0.7554;1.5659;
496.5000;0.7546;1.5587;
496.8000;0.7546;1.5635;
497.1000;0.7546;1.5659;
497.4000;0.7546;1.5682;
497.7000;0.7546;1.5753;
498.0000;0.7643;1.5967;
498.3000;0.7554;1.5706;
498.6000;0.7570;1.5706;
498.9000;0.7554;1.5659;
499.2000;0.7546;1.5659;
499.5000;0.7546;1.5682;
499.8000;0.7562;1.5706;
500.1000;0.7554;1.5682;
500.4000;0.7546;1.5730;
500.7000;0.7595;1.5682;
501.0000;0.7554;1.5611;
501.3000;0.7619;1.5848;
501.6000;0.7554;1.5777;
501.9000;0.7554;1.5706;
502.2000;0.7578;1.5730;
502.5000;0.7562;1.5706;
502.8000;0.7562;1.5730;
503.1000;0.7554;1.5730;
503.4000;0.7538;1.5730;
503.7000;0.7554;1.5706;
504.0000;0.7562;1.5777;
504.3000;0.7554;1.5801;
504.6000;0.7538;1.5825;
504.9000;0.7538;1.5848;
505.2000;0.7546;1.5872;
505.5000;0.7578;1.6038;
505.8000;0.7546;1.5896;
506.1000;0.7562;1.5896;
506.4000;0.7578;1.6062;
506.7000;0.7562;1.6014;
507.0000;0.7562;1.5967;
507.3000;0.7538;1.5920;
507.6000;0.7546;1.5920;
507.9000;0.7562;1.5943;
508.2000;0.7538;1.5825;
508.5000;0.7546;1.5825;
508.8000;0.7586;1.5920;
509.1000;0.7546;1.5896;
509.4000;0.7497;1.5801;
509.7000;0.7538;1.5801;
510.0000;0.7538;1.5801;
510.3000;0.7570;1.5920;
510.6000;0.7530;1.5825;
510.9000;0.7554;1.5848;
511.2000;0.7554;1.5896;
511.5000;0.7538;1.5943;
511.8000;0.7530;1.5920;
512.1000;0.7554;1.6062;
512.4000;0.7546;1.6062;
512.7000;0.7562;1.6062;
513.0000;0.7554;1.5967;
513.3000;0.7538;1.5825;
513.6000;0.7546;1.5801;
513.9000;0.7554;1.5801;
514.2000;0.7570;1.5825;
514.5000;0.7562;1.5753;
514.8000;0.7546;1.5682;
515.1000;0.7530;1.5801;
515.4000;0.7554;1.5848;
515.7000;0.7521;1.5825;
516.0000;0.7530;1.5872;
516.3000;0.7546;1.5943;
516.6000;0.7546;1.5872;
516.9000;0.7562;1.5801;
517.2000;0.7562;1.5872;
517.5000;0.7546;1.5896;
517.8000;0.7530;1.5872;
518.1000;0.7554;1.5920;
518.4000;0.7546;1.5991;
518.7000;0.7538;1.5943;
519.0000;0.7521;1.5872;
519.3000;0.7546;1.5848;
519.6000;0.7603;1.6038;
519.9000;0.7538;1.5825;
520.2000;0.7554;1.5825;
520.5000;0.7554;1.5872;
520.8000;0.7521;1.5706;
521.1000;0.7538;1.5777;
521.4000;0.7554;1.5777;
521.7000;0.7578;1.5825;
522.0000;0.7538;1.5753;
522.3000;0.7554;1.5848;
522.6000;0.7538;1.5801;
522.9000;0.7562;1.5920;
523.2000;0.7546;1.5967;
523.5000;0.7562;1.6038;
523.8000;0.7530;1.5991;
524.1000;0.7554;1.6014;
524.4000;0.7546;1.5967;
524.7000;0.7619;1.6157;
525.0000;0.7538;1.5848;
525.3000;0.7554;1.5920;
525.6000;0.7627;1.6014;
525.9000;0.7554;1.5753;
526.2000;0.7546;1.5730;
526.5000;0.7570;1.5801;
526.8000;0.7562;1.5753;
527.1000;0.7554;1.5801;
527.4000;0.7448;1.5540;
527.7000;0.7562;1.5848;
528.0000;0.7538;1.5801;
528.3000;0.7546;1.5801;
528.6000;0.7538;1.5753;
528.9000;0.7521;1.5753;
529.2000;0.7554;1.5801;
529.5000;0.7546;1.5753;
529.8000;0.7546;1.5730;
530.1000;0.7546;1.5825;
530.4000;0.7546;1.5943;
530.7000;0.7554;1.5896;
531.0000;0.7562;1.5920;
531.3000;0.7546;1.5801;
531.6000;0.7538;1.5801;
531.9000;0.7554;1.5753;
532.2000;0.7562;1.5753;
532.5000;0.7546;1.5777;
532.8000;0.7554;1.5801;
533.1000;0.7538;1.5753;
533.4000;0.7538;1.5777;
533.7000;0.7578;1.5872;
534.0000;0.7538;1.5777;
534.3000;0.7538;1.5730;
534.6000;0.7521;1.5587;
534.9000;0.7456;1.5421;
535.2000;0.7521;1.5611;
535.5000;0.7538;1.5659;
535.8000;0.7538;1.5753;
536.1000;0.7538;1.5825;
536.4000;0.7538;1.5967;
536.7000;0.7546;1.5943;
537.0000;0.7513;1.5801;
537.3000;0.7546;1.5825;
537.6000;0.7546;1.5848;
537.9000;0.7595;1.6086;
538.2000;0.7521;1.5991;
538.5000;0.7611;1.6228;
538.8000;0.7538;1.6038;
539.1000;0.7546;1.5896;
539.4000;0.7562;1.5896;
539.7000;0.7546;1.5848;
540.0000;0.7546;1.5825;
540.3000;0.7554;1.5848;
540.6000;0.7546;1.5872;
540.9000;0.7546;1.5848;
541.2000;0.7538;1.5896;
541.5000;0.7546;1.5801;
541.8000;0.7546;1.5801;
542.1000;0.7538;1.5801;
542.4000;0.7546;1.5801;
542.7000;0.7538;1.5777;
543.0000;0.7538;1.5872;
543.3000;0.7538;1.5848;
543.6000;0.7538;1.5920;
543.9000;0.7521;1.5872;
544.2000;0.7513;1.5872;
544.5000;0.7578;1.6086;
544.8000;0.7521;1.5967;
545.1000;0.7546;1.6038;
545.4000;0.7521;1.6062;
545.7000;0.7538;1.6014;
546.0000;0.7546;1.6038;
546.3000;0.7554;1.6157;
546.6000;0.7562;1.6157;
546.9000;0.7546;1.6086;
547.2000;0.7546;1.6086;
547.5000;0.7538;1.5967;
547.8000;0.7538;1.5920;
548.1000;0.7530;1.5848;
548.4000;0.7538;1.5872;
548.7000;0.7538;1.5920;
549.0000;0.7530;1.5896;
549.3000;0.7538;1.5872;
549.6000;0.7538;1.5943;
549.9000;0.7530;1.5896;
550.2000;0.7570;1.6014;
550.5000;0.7538;1.5991;
550.8000;0.7538;1.6062;
551.1000;0.7595;1.6204;
551.4000;0.7538;1.6086;
551.7000;0.7538;1.6038;
552.0000;0.7546;1.6038;
552.3000;0.7546;1.5967;
552.6000;0.7562;1.6062;
552.9000;0.7530;1.6086;
553.2000;0.7513;1.6062;
553.5000;0.7489;1.5991;
553.8000;0.7554;1.6062;
554.1000;0.7521;1.5848;
554.4000;0.7481;1.5730;
554.7000;0.7530;1.5920;
555.0000;0.7513;1.5943;
555.3000;0.7513;1.6014;
555.6000;0.7521;1.6062;
555.9000;0.7554;1.6109;
556.2000;0.7538;1.6062;
556.5000;0.7530;1.5991;
556.8000;0.7538;1.6038;
557.1000;0.7554;1.6038;
557.4000;0.7513;1.5943;
557.7000;0.7562;1.6038;
558.0000;0.7538;1.6038;
558.3000;0.7538;1.6062;
558.6000;0.7546;1.6038;
558.9000;0.7546;1.6062;
559.2000;0.7530;1.6038;
559.5000;0.7521;1.6062;
559.8000;0.7530;1.6062;
560.1000;0.7546;1.6109;
560.4000;0.7546;1.6038;
560.7000;0.7521;1.5920;
561.0000;0.7530;1.5872;
561.3000;0.7546;1.5896;
561.6000;0.7546;1.5920;
561.9000;0.7546;1.5943;
562.2000;0.7595;1.6014;
562.5000;0.7554;1.5825;
562.8000;0.7530;1.5825;
563.1000;0.7538;1.5801;
563.4000;0.7538;1.5753;
563.7000;0.7554;1.5777;
564.0000;0.7456;1.5540;
564.3000;0.7546;1.5825;
564.6000;0.7562;1.5920;
564.9000;0.7554;1.5920;
565.2000;0.7513;1.5943;
565.5000;0.7505;1.5896;
565.8000;0.7513;1.5896;
566.1000;0.7586;1.6014;
566.4000;0.7521;1.5848;
566.7000;0.7513;1.5896;
567.0000;0.7538;1.5943;
567.3000;0.7546;1.6038;
567.6000;0.7538;1.6086;
567.9000;0.7530;1.5943;
568.2000;0.7538;1.5943;
568.5000;0.7546;1.5848;
568.8000;0.7538;1.5967;
569.1000;0.7513;1.6014;
569.4000;0.7538;1.6014;
569.7000;0.7530;1.6014;
570.0000;0.7530;1.6038;
570.3000;0.7513;1.6014;
570.6000;0.7521;1.5991;
570.9000;0.7489;1.5801;
571.2000;0.7521;1.5848;
571.5000;0.7530;1.5848;
571.8000;0.7497;1.5777;
572.1000;0.7530;1.5943;
572.4000;0.7538;1.5801;
572.7000;0.7538;1.5896;
573.0000;0.7530;1.5848;
573.3000;0.7546;1.5801;
573.6000;0.7562;1.5801;
573.9000;0.7521;1.5730;
574.2000;0.7546;1.5777;
574.5000;0.7538;1.5706;
574.8000;0.7521;1.5730;
575.1000;0.7530;1.5706;
575.4000;0.7530;1.5730;
575.7000;0.7521;1.5659;
576.0000;0.7530;1.5682;
576.3000;0.7530;1.5706;
576.6000;0.7489;1.5659;
576.9000;0.7530;1.5872;
577.2000;0.7513;1.5872;
577.5000;0.7546;1.5896;
577.8000;0.7521;1.5825;
578.1000;0.7513;1.5825;
578.4000;0.7513;1.5896;
578.7000;0.7521;1.5896;
579.0000;0.7497;1.5920;
579.3000;0.7513;1.5848;
579.6000;0.7513;1.5848;
579.9000;0.7521;1.5872;
580.2000;0.7521;1.5872;
580.5000;0.7530;1.5896;
580.8000;0.7513;1.5967;
581.1000;0.7521;1.5991;
581.4000;0.7538;1.5943;
581.7000;0.7538;1.5872;
582.0000;0.7521;1.5801;
582.3000;0.7538;1.5801;
582.6000;0.7521;1.5801;
582.9000;0.7538;1.5825;
583.2000;0.7513;1.5896;
583.5000;0.7521;1.5730;
583.8000;0.7521;1.5801;
584.1000;0.7546;1.5825;
584.4000;0.7530;1.5730;
584.7000;0.7505;1.5611;
585.0000;0.7521;1.5564;
585.3000;0.7546;1.5564;
585.6000;0.7530;1.5587;
585.9000;0.7513;1.5659;
586.2000;0.7530;1.5706;
586.5000;0.7546;1.5848;
586.8000;0.7546;1.5872;
587.1000;0.7530;1.5777;
587.4000;0.7521;1.5777;
587.7000;0.7521;1.5777;
588.0000;0.7513;1.5706;
588.3000;0.7521;1.5753;
588.6000;0.7513;1.5682;
588.9000;0.7521;1.5682;
589.2000;0.7530;1.5730;
589.5000;0.7505;1.5611;
589.8000;0.7505;1.5587;
590.1000;0.7513;1.5635;
590.4000;0.7513;1.5635;
590.7000;0.7578;1.5825;
591.0000;0.7505;1.5635;
591.3000;0.7521;1.5659;
591.6000;0.7513;1.5659;
591.9000;0.7530;1.5706;
592.2000;0.7530;1.5730;
592.5000;0.7530;1.5730;
592.8000;0.7505;1.5611;
593.1000;0.7505;1.5587;
593.4000;0.7448;1.5421;
593.7000;0.7513;1.5564;
594.0000;0.7521;1.5730;
594.3000;0.7521;1.5730;
594.6000;0.7521;1.5682;
594.9000;0.7562;1.5730;
595.2000;0.7513;1.5611;
595.5000;0.7530;1.5659;
595.8000;0.7521;1.5706;
596.1000;0.7505;1.5564;
596.4000;0.7521;1.5492;
596.7000;0.7530;1.5516;
597.0000;0.7521;1.5492;
597.3000;0.7521;1.5516;
597.6000;0.7521;1.5421;
597.9000;0.7513;1.5421;
598.2000;0.7546;1.5564;
598.5000;0.7497;1.5492;
598.8000;0.7505;1.5564;
599.1000;0.7505;1.5587;
599.4000;0.7521;1.5753;
599.7000;0.7513;1.5730;
600.0000;0.7497;1.5753;
600.3000;0.7530;1.5635;
600.6000;0.7521;1.5587;
600.9000;0.7416;1.5445;
601.2000;0.7334;1.5374;
601.5000;0.7236;1.5279;
601.8000;0.7236;1.5398;
602.1000;0.7017;1.4947;
602.4000;0.6903;1.4781;
602.7000;0.6772;1.4615;
603.0000;0.6724;1.4543;
603.3000;0.6634;1.4401;
603.6000;0.6585;1.4354;
603.9000;0.6455;1.4140;
604.2000;0.6414;1.4140;
604.5000;0.6309;1.3998;
604.8000;0.6260;1.4069;
605.1000;0.6219;1.4069;
605.4000;0.6162;1.4022;
605.7000;0.6097;1.3950;
606.0000;0.6072;1.3903;
606.3000;0.5991;1.3761;
606.6000;0.5967;1.3713;
606.9000;0.5967;1.3927;
607.2000;0.5877;1.3713;
607.5000;0.5804;1.3547;
607.8000;0.5779;1.3523;
608.1000;0.5739;1.3476;
608.4000;0.5706;1.3500;
608.7000;0.5657;1.3452;
609.0000;0.5641;1.3476;
609.3000;0.5592;1.3428;
609.6000;0.5560;1.3476;
609.9000;0.5535;1.3476;
610.2000;0.5495;1.3381;
610.5000;0.5478;1.3428;
610.8000;0.5446;1.3428;
611.1000;0.5413;1.3452;
611.4000;0.5397;1.3405;
611.7000;0.5364;1.3405;
612.0000;0.5348;1.3452;
612.3000;0.5291;1.3452;
612.6000;0.5258;1.3428;
612.9000;0.5258;1.3357;
613.2000;0.5234;1.3310;
613.5000;0.5210;1.3310;
613.8000;0.5177;1.3262;
614.1000;0.5169;1.3239;
614.4000;0.5201;1.3428;
614.7000;0.5112;1.3239;
615.0000;0.5055;1.3144;
615.3000;0.5088;1.3357;
615.6000;0.5071;1.3357;
615.9000;0.4998;1.3286;
616.2000;0.5055;1.3452;
616.5000;0.5055;1.3476;
616.8000;0.4998;1.3334;
617.1000;0.4982;1.3310;
617.4000;0.4908;1.3120;
617.7000;0.4933;1.3286;
618.0000;0.4925;1.3262;
618.3000;0.4933;1.3310;
618.6000;0.4884;1.3286;
618.9000;0.4876;1.3262;
619.2000;0.4892;1.3452;
619.5000;0.4843;1.3357;
619.8000;0.4843;1.3286;
620.1000;0.4835;1.3262;
620.4000;0.4803;1.3239;
620.7000;0.4794;1.3381;
621.0000;0.4811;1.3381;
621.3000;0.4819;1.3428;
621.6000;0.4762;1.3310;
621.9000;0.4746;1.3357;
622.2000;0.4770;1.3428;
622.5000;0.4721;1.3310;
622.8000;0.4705;1.3357;
623.1000;0.4697;1.3239;
623.4000;0.4713;1.3381;
623.7000;0.4656;1.3286;
624.0000;0.4656;1.3262;
624.3000;0.4640;1.3215;
624.6000;0.4640;1.3239;
624.9000;0.4640;1.3215;
625.2000;0.4632;1.3215;
625.5000;0.4607;1.3239;
625.8000;0.4632;1.3310;
626.1000;0.4615;1.3262;
626.4000;0.4615;1.3334;
626.7000;0.4607;1.3310;
627.0000;0.4591;1.3120;
627.3000;0.4583;1.3144;
627.6000;0.4624;1.3310;
627.9000;0.4550;1.3096;
628.2000;0.4550;1.3073;
628.5000;0.4534;1.3096;
628.8000;0.4510;1.3096;
629.1000;0.4518;1.3073;
629.4000;0.4518;1.3025;
629.7000;0.4510;1.3049;
630.0000;0.4510;1.3120;
630.3000;0.4493;1.3120;
630.6000;0.4493;1.3120;
630.9000;0.4493;1.3073;
631.2000;0.4493;1.3144;
631.5000;0.4461;1.3096;
631.8000;0.4461;1.3191;
632.1000;0.4469;1.3144;
632.4000;0.4461;1.3096;
632.7000;0.4485;1.3215;
633.0000;0.4461;1.3144;
633.3000;0.4420;1.3025;
633.6000;0.4436;1.3096;
633.9000;0.4404;1.3120;
634.2000;0.4404;1.3239;
634.5000;0.4396;1.3191;
634.8000;0.4412;1.3191;
635.1000;0.4396;1.3144;
635.4000;0.4322;1.2930;
635.7000;0.4355;1.3144;
636.0000;0.4363;1.3120;
636.3000;0.4355;1.3073;
636.6000;0.4298;1.2906;
636.9000;0.4363;1.3025;
637.2000;0.4379;1.3144;
637.5000;0.4355;1.3049;
637.8000;0.4233;1.2740;
638.1000;0.4322;1.2954;
638.4000;0.4314;1.2906;
638.7000;0.4330;1.2883;
639.0000;0.4306;1.2954;
639.3000;0.4306;1.2978;
639.6000;0.4274;1.2906;
639.9000;0.4306;1.3025;
640.2000;0.4282;1.3001;
640.5000;0.4290;1.3001;
640.8000;0.4282;1.2978;
641.1000;0.4298;1.3120;
641.4000;0.4282;1.3167;
641.7000;0.4274;1.3215;
642.0000;0.4257;1.3215;
642.3000;0.4249;1.3239;
642.6000;0.4257;1.3215;
642.9000;0.4257;1.3144;
643.2000;0.4233;1.3191;
643.5000;0.4290;1.3262;
643.8000;0.4249;1.3191;
644.1000;0.4225;1.3120;
644.4000;0.4233;1.3215;
644.7000;0.4225;1.3096;
645.0000;0.4233;1.3191;
645.3000;0.4241;1.3167;
645.6000;0.4225;1.3073;
645.9000;0.4208;1.3025;
646.2000;0.4176;1.2954;
646.5000;0.4200;1.3144;
646.8000;0.4249;1.3191;
647.1000;0.4200;1.3025;
647.4000;0.4192;1.3096;
647.7000;0.4184;1.3096;
648.0000;0.4160;1.3073;
648.3000;0.4241;1.3239;
648.6000;0.4151;1.3049;
648.9000;0.4176;1.3049;
649.2000;0.4168;1.3025;
649.5000;0.4151;1.3025;
649.8000;0.4086;1.2883;
650.1000;0.4168;1.3049;
650.4000;0.4160;1.3049;
650.7000;0.4160;1.2954;
651.0000;0.4160;1.3001;
651.3000;0.4151;1.3096;
651.6000;0.4151;1.3120;
651.9000;0.4111;1.3073;
652.2000;0.4127;1.3215;
652.5000;0.4127;1.3239;
652.8000;0.4168;1.3334;
653.1000;0.4127;1.3334;
653.4000;0.4103;1.3286;
653.7000;0.4135;1.3357;
654.0000;0.4135;1.3381;
654.3000;0.4111;1.3310;
654.6000;0.4119;1.3286;
654.9000;0.4094;1.3215;
655.2000;0.4103;1.3262;
655.5000;0.4086;1.3144;
655.8000;0.4103;1.3239;
656.1000;0.4135;1.3310;
656.4000;0.4094;1.3239;
656.7000;0.4094;1.3049;
657.0000;0.4111;1.3120;
657.3000;0.4062;1.3073;
657.6000;0.4151;1.3334;
657.9000;0.4078;1.3096;
658.2000;0.4070;1.3167;
658.5000;0.4046;1.3073;
658.8000;0.4078;1.3049;
659.1000;0.4054;1.3025;
659.4000;0.3997;1.2930;
659.7000;0.4037;1.2978;
660.0000;0.4062;1.3073;
660.3000;0.4054;1.3025;
660.6000;0.4037;1.2954;
660.9000;0.4037;1.2978;
661.2000;0.4037;1.2978;
661.5000;0.4013;1.2954;
661.8000;0.4029;1.2978;
662.1000;0.4054;1.3049;
662.4000;0.4037;1.3096;
662.7000;0.3980;1.3001;
663.0000;0.4029;1.3073;
663.3000;0.4021;1.3025;
663.6000;0.4037;1.3001;
663.9000;0.4037;1.2978;
664.2000;0.4013;1.2930;
664.5000;0.4037;1.3167;
664.8000;0.4021;1.3144;
665.1000;0.4029;1.3144;
665.4000;0.4021;1.3215;
665.7000;0.4005;1.3167;
666.0000;0.4037;1.3167;
666.3000;0.4029;1.3191;
666.6000;0.4013;1.3167;
666.9000;0.3989;1.3167;
667.2000;0.4005;1.3167;
667.5000;0.3989;1.3073;
667.8000;0.4013;1.3120;
668.1000;0.3997;1.3120;
668.4000;0.3964;1.3120;
668.7000;0.3980;1.3120;
669.0000;0.4005;1.3191;
669.3000;0.3972;1.3049;
669.6000;0.3980;1.3073;
669.9000;0.3980;1.3144;
670.2000;0.3980;1.3144;
670.5000;0.3989;1.3262;
670.8000;0.4005;1.3334;
671.1000;0.3972;1.3310;
671.4000;0.3980;1.3334;
671.7000;0.3980;1.3381;
672.0000;0.3956;1.3334;
672.3000;0.3964;1.3286;
672.6000;0.3948;1.3357;
672.9000;0.3964;1.3357;
673.2000;0.3972;1.3381;
673.5000;0.3899;1.3215;
673.8000;0.3948;1.3310;
674.1000;0.3956;1.3405;
674.4000;0.3940;1.3286;
674.7000;0.3940;1.3167;
675.0000;0.3940;1.3144;
675.3000;0.3940;1.3167;
675.6000;0.3989;1.3310;
675.9000;0.3923;1.3215;
676.2000;0.3948;1.3262;
676.5000;0.3956;1.3381;
676.8000;0.3923;1.3310;
677.1000;0.3932;1.3239;
677.4000;0.3915;1.3239;
677.7000;0.3932;1.3239;
678.0000;0.3932;1.3334;
678.3000;0.3923;1.3357;
678.6000;0.3948;1.3357;
678.9000;0.3923;1.3286;
679.2000;0.3923;1.3262;
679.5000;0.3915;1.3286;
679.8000;0.3923;1.3405;
680.1000;0.3915;1.3334;
680.4000;0.3923;1.3428;
680.7000;0.3915;1.3381;
681.0000;0.3907;1.3286;
681.3000;0.3915;1.3239;
681.6000;0.3923;1.3334;
681.9000;0.3915;1.3381;
682.2000;0.3891;1.3310;
682.5000;0.3883;1.3286;
682.8000;0.3891;1.3310;
683.1000;0.3891;1.3215;
683.4000;0.3907;1.3215;
683.7000;0.3883;1.3215;
684.0000;0.3907;1.3215;
684.3000;0.3899;1.3144;
684.6000;0.3907;1.3120;
684.9000;0.3891;1.3215;
685.2000;0.3867;1.3167;
685.5000;0.3891;1.3191;
685.8000;0.3907;1.3215;
686.1000;0.3891;1.3239;
686.4000;0.3891;1.3286;
686.7000;0.3899;1.3310;
687.0000;0.3883;1.3286;
687.3000;0.3907;1.3334;
687.6000;0.3883;1.3191;
687.9000;0.3867;1.3239;
688.2000;0.3891;1.3334;
688.5000;0.3875;1.3310;
688.8000;0.3867;1.3334;
689.1000;0.3867;1.3357;
689.4000;0.3867;1.3286;
689.7000;0.3867;1.3310;
690.0000;0.3875;1.3286;
690.3000;0.3858;1.3286;
690.6000;0.3867;1.3310;
690.9000;0.3867;1.3286;
691.2000;0.3899;1.3381;
691.5000;0.3875;1.3310;
691.8000;0.3867;1.3262;
692.1000;0.3867;1.3262;
692.4000;0.3867;1.3215;
692.7000;0.3875;1.3191;
693.0000;0.3858;1.3167;
693.3000;0.3867;1.3239;
693.6000;0.3899;1.3334;
693.9000;0.3850;1.3239;
694.2000;0.3858;1.3357;
694.5000;0.3891;1.3381;
694.8000;0.3842;1.3357;
695.1000;0.3834;1.3357;
695.4000;0.3826;1.3286;
695.7000;0.3858;1.3381;
696.0000;0.3850;1.3334;
696.3000;0.3834;1.3262;
696.6000;0.3842;1.3239;
696.9000;0.3867;1.3215;
697.2000;0.3834;1.3239;
697.5000;0.3875;1.3286;
697.8000;0.3834;1.3215;
698.1000;0.3850;1.3286;
698.4000;0.3834;1.3334;
698.7000;0.3826;1.3334;
699.0000;0.3842;1.3286;
699.3000;0.3826;1.3262;
699.6000;0.3834;1.3286;
699.9000;0.3818;1.3239;
700.2000;0.3810;1.3191;
700.5000;0.3834;1.3334;
700.8000;0.3834;1.3334;
701.1000;0.3826;1.3357;
701.4000;0.3818;1.3381;
701.7000;0.3826;1.3428;
702.0000;0.3842;1.3500;
702.3000;0.3834;1.3476;
702.6000;0.3891;1.3500;
702.9000;0.3834;1.3239;
703.2000;0.3826;1.3167;
703.5000;0.3818;1.3167;
703.8000;0.3810;1.3215;
704.1000;0.3818;1.3049;
704.4000;0.3826;1.3096;
704.7000;0.3923;1.3476;
705.0000;0.3793;1.3120;
705.3000;0.3818;1.3073;
705.6000;0.3818;1.3049;
705.9000;0.3801;1.3001;
706.2000;0.3777;1.2978;
706.5000;0.3810;1.3096;
706.8000;0.3810;1.3096;
707.1000;0.3818;1.3073;
707.4000;0.3801;1.3025;
707.7000;0.3826;1.3144;
708.0000;0.3801;1.3167;
708.3000;0.3801;1.3120;
708.6000;0.3810;1.3191;
708.9000;0.3801;1.3191;
709.2000;0.3793;1.3167;
709.5000;0.3801;1.3215;
709.8000;0.3858;1.3357;
710.1000;0.3810;1.3239;
710.4000;0.3899;1.3428;
710.7000;0.3810;1.3191;
711.0000;0.3818;1.3167;
711.3000;0.3810;1.3191;
711.6000;0.3793;1.3215;
711.9000;0.3810;1.3286;
712.2000;0.3810;1.3262;
712.5000;0.3704;1.2930;
712.8000;0.3801;1.3262;
713.1000;0.3777;1.3310;
713.4000;0.3777;1.3334;
713.7000;0.3793;1.3357;
714.0000;0.3810;1.3334;
714.3000;0.3769;1.3239;
714.6000;0.3793;1.3262;
714.9000;0.3793;1.3262;
715.2000;0.3777;1.3310;
715.5000;0.3769;1.3215;
715.8000;0.3769;1.3191;
716.1000;0.3842;1.3334;
716.4000;0.3801;1.3191;
716.7000;0.3785;1.3144;
717.0000;0.3785;1.3073;
717.3000;0.3842;1.3191;
717.6000;0.3777;1.2954;
717.9000;0.3801;1.3073;
718.2000;0.3777;1.3073;
718.5000;0.3777;1.3120;
718.8000;0.3777;1.3096;
719.1000;0.3769;1.3049;
719.4000;0.3769;1.2978;
719.7000;0.3777;1.3025;
720.0000;0.3761;1.3049;
720.3000;0.3761;1.3096;
720.6000;0.3663;1.2930;
720.9000;0.3769;1.3191;
721.2000;0.3793;1.3215;
721.5000;0.3777;1.3215;
721.8000;0.3728;1.3144;
722.1000;0.3777;1.3381;
722.4000;0.3785;1.3405;
722.7000;0.3761;1.3381;
723.0000;0.3753;1.3381;
723.3000;0.3769;1.3357;
723.6000;0.3761;1.3286;
723.9000;0.3761;1.3239;
724.2000;0.3761;1.3191;
724.5000;0.3753;1.3191;
724.8000;0.3793;1.3310;
725.1000;0.3769;1.3239;
725.4000;0.3793;1.3286;
725.7000;0.3704;1.3049;
726.0000;0.3736;1.3073;
726.3000;0.3785;1.3144;
726.6000;0.3761;1.3120;
726.9000;0.3753;1.3191;
727.2000;0.3793;1.3262;
727.5000;0.3761;1.3215;
727.8000;0.3744;1.3073;
728.1000;0.3744;1.3073;
728.4000;0.3793;1.3191;
728.7000;0.3769;1.3239;
729.0000;0.3753;1.3215;
729.3000;0.3753;1.3239;
729.6000;0.3769;1.3286;
729.9000;0.3769;1.3239;
730.2000;0.3687;1.3096;
730.5000;0.3761;1.3286;
730.8000;0.3761;1.3334;
731.1000;0.3753;1.3286;
731.4000;0.3761;1.3334;
731.7000;0.3744;1.3310;
732.0000;0.3753;1.3428;
732.3000;0.3761;1.3500;
732.6000;0.3744;1.3428;
732.9000;0.3736;1.3286;
733.2000;0.3728;1.3239;
733.5000;0.3728;1.3239;
733.8000;0.3728;1.3262;
734.1000;0.3761;1.3286;
734.4000;0.3720;1.3239;
734.7000;0.3736;1.3262;
735.0000;0.3753;1.3239;
735.3000;0.3736;1.3215;
735.6000;0.3744;1.3191;
735.9000;0.3736;1.3120;
736.2000;0.3761;1.3191;
736.5000;0.3704;1.3049;
736.8000;0.3728;1.3073;
737.1000;0.3744;1.3215;
737.4000;0.3736;1.3239;
737.7000;0.3728;1.3239;
738.0000;0.3736;1.3239;
738.3000;0.3728;1.3262;
738.6000;0.3712;1.3239;
738.9000;0.3736;1.3334;
739.2000;0.3736;1.3262;
739.5000;0.3712;1.3167;
739.8000;0.3720;1.3167;
740.1000;0.3736;1.3215;
740.4000;0.3728;1.3144;
740.7000;0.3736;1.3167;
741.0000;0.3744;1.3239;
741.3000;0.3720;1.3191;
741.6000;0.3736;1.3262;
741.9000;0.3753;1.3262;
742.2000;0.3720;1.3262;
742.5000;0.3712;1.3286;
742.8000;0.3720;1.3262;
743.1000;0.3720;1.3215;
743.4000;0.3687;1.3191;
743.7000;0.3712;1.3310;
744.0000;0.3647;1.3120;
744.3000;0.3736;1.3381;
744.6000;0.3712;1.3310;
744.9000;0.3671;1.3144;
745.2000;0.3728;1.3286;
745.5000;0.3728;1.3239;
745.8000;0.3720;1.3239;
746.1000;0.3720;1.3191;
746.4000;0.3728;1.3144;
746.7000;0.3720;1.3191;
747.0000;0.3704;1.3239;
747.3000;0.3728;1.3239;
747.6000;0.3696;1.3144;
747.9000;0.3728;1.3191;
748.2000;0.3712;1.3120;
748.5000;0.3720;1.3073;
748.8000;0.3720;1.3073;
749.1000;0.3744;1.3167;
749.4000;0.3712;1.3073;
749.7000;0.3712;1.3073;
750.0000;0.3712;1.3144;
750.3000;0.3736;1.3191;
750.6000;0.3728;1.3262;
750.9000;0.3720;1.3381;
751.2000;0.3720;1.3357;
751.5000;0.3720;1.3286;
751.8000;0.3696;1.3239;
752.1000;0.3663;1.3167;
752.4000;0.3704;1.3357;
752.7000;0.3704;1.3334;
753.0000;0.3712;1.3334;
753.3000;0.3696;1.3381;
753.6000;0.3679;1.3381;
753.9000;0.3712;1.3428;
754.2000;0.3761;1.3523;
754.5000;0.3704;1.3334;
754.8000;0.3696;1.3286;
755.1000;0.3704;1.3334;
755.4000;0.3704;1.3357;
755.7000;0.3704;1.3310;
756.0000;0.3712;1.3310;
756.3000;0.3687;1.3310;
756.6000;0.3720;1.3405;
756.9000;0.3704;1.3381;
757.2000;0.3704;1.3310;
757.5000;0.3704;1.3357;
757.8000;0.3720;1.3405;
758.1000;0.3704;1.3381;
758.4000;0.3712;1.3405;
758.7000;0.3753;1.3500;
759.0000;0.3720;1.3286;
759.3000;0.3712;1.3191;
759.6000;0.3761;1.3381;
759.9000;0.3704;1.3239;
760.2000;0.3720;1.3286;
760.5000;0.3704;1.3334;
760.8000;0.3687;1.3286;
761.1000;0.3712;1.3286;
761.4000;0.3696;1.3405;
761.7000;0.3639;1.3286;
762.0000;0.3679;1.3357;
762.3000;0.3687;1.3310;
762.6000;0.3712;1.3381;
762.9000;0.3687;1.3357;
763.2000;0.3696;1.3405;
763.5000;0.3704;1.3476;
763.8000;0.3704;1.3428;
764.1000;0.3696;1.3523;
764.4000;0.3712;1.3571;
764.7000;0.3704;1.3571;
765.0000;0.3704;1.3523;
765.3000;0.3696;1.3523;
765.6000;0.3679;1.3500;
765.9000;0.3704;1.3547;
766.2000;0.3704;1.3642;
766.5000;0.3679;1.3547;
766.8000;0.3704;1.3594;
767.1000;0.3687;1.3500;
767.4000;0.3647;1.3428;
767.7000;0.3687;1.3571;
768.0000;0.3687;1.3571;
768.3000;0.3679;1.3476;
768.6000;0.3687;1.3476;
768.9000;0.3704;1.3428;
769.2000;0.3704;1.3452;
769.5000;0.3679;1.3334;
769.8000;0.3671;1.3310;
770.1000;0.3679;1.3286;
770.4000;0.3687;1.3239;
770.7000;0.3679;1.3357;
771.0000;0.3696;1.3405;
771.3000;0.3679;1.3381;
771.6000;0.3728;1.3523;
771.9000;0.3671;1.3428;
772.2000;0.3679;1.3452;
772.5000;0.3655;1.3357;
772.8000;0.3712;1.3452;
773.1000;0.3606;1.3073;
773.4000;0.3671;1.3286;
773.7000;0.3671;1.3286;
774.0000;0.3720;1.3286;
774.3000;0.3696;1.3286;
774.6000;0.3679;1.3191;
774.9000;0.3679;1.3381;
775.2000;0.3696;1.3405;
775.5000;0.3720;1.3476;
775.8000;0.3671;1.3405;
776.1000;0.3639;1.3334;
776.4000;0.3663;1.3381;
776.7000;0.3696;1.3405;
777.0000;0.3736;1.3500;
777.3000;0.3720;1.3428;
777.6000;0.3671;1.3334;
777.9000;0.3720;1.3476;
778.2000;0.3590;1.3167;
778.5000;0.3679;1.3381;
778.8000;0.3663;1.3357;
779.1000;0.3663;1.3262;
779.4000;0.3687;1.3381;
779.7000;0.3736;1.3571;
780.0000;0.3696;1.3452;
780.3000;0.3671;1.3428;
780.6000;0.3671;1.3500;
780.9000;0.3671;1.3476;
781.2000;0.3687;1.3523;
781.5000;0.3614;1.3428;
781.8000;0.3671;1.3571;
782.1000;0.3687;1.3594;
782.4000;0.3671;1.3571;
782.7000;0.3704;1.3618;
783.0000;0.3663;1.3547;
783.3000;0.3614;1.3428;
783.6000;0.3671;1.3618;
783.9000;0.3671;1.3642;
784.2000;0.3679;1.3618;
784.5000;0.3671;1.3618;
784.8000;0.3679;1.3594;
785.1000;0.3663;1.3571;
785.4000;0.3679;1.3666;
785.7000;0.3663;1.3642;
786.0000;0.3687;1.3642;
786.3000;0.3663;1.3618;
786.6000;0.3663;1.3642;
786.9000;0.3655;1.3571;
787.2000;0.3671;1.3571;
787.5000;0.3663;1.3452;
787.8000;0.3655;1.3405;
788.1000;0.3663;1.3405;
788.4000;0.3736;1.3523;
788.7000;0.3671;1.3334;
789.0000;0.3696;1.3405;
789.3000;0.3663;1.3310;
789.6000;0.3671;1.3357;
789.9000;0.3671;1.3310;
790.2000;0.3655;1.3215;
790.5000;0.3679;1.3310;
790.8000;0.3647;1.3262;
791.1000;0.3663;1.3381;
791.4000;0.3679;1.3405;
791.7000;0.3679;1.3500;
792.0000;0.3671;1.3405;
792.3000;0.3671;1.3452;
792.6000;0.3663;1.3381;
792.9000;0.3663;1.3334;
793.2000;0.3663;1.3381;
793.5000;0.3663;1.3357;
793.8000;0.3655;1.3405;
794.1000;0.3655;1.3500;
794.4000;0.3663;1.3571;
794.7000;0.3687;1.3547;
795.0000;0.3671;1.3428;
795.3000;0.3647;1.3381;
795.6000;0.3671;1.3500;
795.9000;0.3671;1.3500;
796.2000;0.3663;1.3476;
796.5000;0.3663;1.3452;
796.8000;0.3639;1.3381;
797.1000;0.3647;1.3381;
797.4000;0.3671;1.3334;
797.7000;0.3622;1.3262;
798.0000;0.3655;1.3286;
798.3000;0.3647;1.3334;
798.6000;0.3639;1.3310;
798.9000;0.3622;1.3310;
799.2000;0.3639;1.3334;
799.5000;0.3663;1.3381;
799.8000;0.3655;1.3381;
800.1000;0.3639;1.3262;
800.4000;0.3647;1.3334;
800.7000;0.3647;1.3357;
801.0000;0.3573;1.3167;
801.3000;0.3663;1.3381;
801.6000;0.3663;1.3381;
801.9000;0.3753;1.3571;
802.2000;0.3663;1.3334;
802.5000;0.3663;1.3334;
802.8000;0.3647;1.3262;
803.1000;0.3622;1.3191;
803.4000;0.3663;1.3334;
803.7000;0.3671;1.3357;
804.0000;0.3639;1.3357;
804.3000;0.3630;1.3334;
804.6000;0.3663;1.3428;
804.9000;0.3663;1.3428;
805.2000;0.3671;1.3428;
805.5000;0.3704;1.3523;
805.8000;0.3663;1.3405;
806.1000;0.3655;1.3476;
806.4000;0.3647;1.3452;
806.7000;0.3753;1.3642;
807.0000;0.3639;1.3381;
807.3000;0.3663;1.3357;
807.6000;0.3655;1.3262;
807.9000;0.3663;1.3239;
808.2000;0.3679;1.3334;
808.5000;0.3639;1.3262;
808.8000;0.3647;1.3286;
809.1000;0.3614;1.3144;
809.4000;0.3622;1.3286;
809.7000;0.3655;1.3428;
810.0000;0.3655;1.3381;
810.3000;0.3671;1.3428;
810.6000;0.3630;1.3286;
810.9000;0.3647;1.3286;
811.2000;0.3647;1.3310;
811.5000;0.3639;1.3310;
811.8000;0.3622;1.3334;
812.1000;0.3655;1.3310;
812.4000;0.3663;1.3405;
812.7000;0.3647;1.3381;
813.0000;0.3639;1.3381;
813.3000;0.3639;1.3310;
813.6000;0.3565;1.3144;
813.9000;0.3647;1.3357;
814.2000;0.3647;1.3428;
814.5000;0.3639;1.3357;
814.8000;0.3655;1.3405;
815.1000;0.3647;1.3405;
815.4000;0.3655;1.3405;
815.7000;0.3639;1.3286;
816.0000;0.3655;1.3334;
816.3000;0.3655;1.3357;
816.6000;0.3655;1.3381;
816.9000;0.3663;1.3334;
817.2000;0.3655;1.3334;
817.5000;0.3663;1.3428;
817.8000;0.3655;1.3452;
818.1000;0.3630;1.3476;
818.4000;0.3639;1.3405;
818.7000;0.3655;1.3381;
819.0000;0.3630;1.3381;
819.3000;0.3639;1.3357;
819.6000;0.3630;1.3310;
819.9000;0.3655;1.3357;
820.2000;0.3663;1.3357;
820.5000;0.3761;1.3666;
820.8000;0.3647;1.3334;
821.1000;0.3655;1.3334;
821.4000;0.3655;1.3334;
821.7000;0.3630;1.3310;
822.0000;0.3663;1.3357;
822.3000;0.3639;1.3286;
822.6000;0.3622;1.3262;
822.9000;0.3565;1.3191;
823.2000;0.3630;1.3405;
823.5000;0.3647;1.3381;
823.8000;0.3639;1.3334;
824.1000;0.3622;1.3310;
824.4000;0.3630;1.3215;
824.7000;0.3622;1.3286;
825.0000;0.3639;1.3357;
825.3000;0.3614;1.3310;
825.6000;0.3630;1.3405;
825.9000;0.3614;1.3357;
826.2000;0.3639;1.3334;
826.5000;0.3622;1.3357;
826.8000;0.3639;1.3334;
827.1000;0.3639;1.3310;
827.4000;0.3655;1.3310;
827.7000;0.3630;1.3286;
828.0000;0.3655;1.3239;
828.3000;0.3630;1.3239;
828.6000;0.3639;1.3310;
828.9000;0.3630;1.3381;
829.2000;0.3655;1.3428;
829.5000;0.3736;1.3642;
829.8000;0.3630;1.3405;
830.1000;0.3630;1.3452;
830.4000;0.3630;1.3452;
830.7000;0.3647;1.3547;
831.0000;0.3647;1.3571;
831.3000;0.3622;1.3476;
831.6000;0.3639;1.3523;
831.9000;0.3541;1.3239;
832.2000;0.3671;1.3523;
832.5000;0.3647;1.3476;
832.8000;0.3630;1.3476;
833.1000;0.3639;1.3571;
833.4000;0.3614;1.3523;
833.7000;0.3614;1.3476;
834.0000;0.3639;1.3523;
834.3000;0.3622;1.3452;
834.6000;0.3606;1.3452;
834.9000;0.3598;1.3334;
835.2000;0.3647;1.3381;
835.5000;0.3622;1.3357;
835.8000;0.3639;1.3405;
836.1000;0.3647;1.3357;
836.4000;0.3647;1.3405;
836.7000;0.3687;1.3594;
837.0000;0.3622;1.3452;
837.3000;0.3614;1.3452;
837.6000;0.3622;1.3405;
837.9000;0.3622;1.3381;
838.2000;0.3639;1.3310;
838.5000;0.3639;1.3215;
838.8000;0.3639;1.3286;
839.1000;0.3622;1.3334;
839.4000;0.3639;1.3452;
839.7000;0.3639;1.3428;
840.0000;0.3630;1.3357;
840.3000;0.3655;1.3405;
840.6000;0.3630;1.3405;
840.9000;0.3606;1.3381;
841.2000;0.3647;1.3452;
841.5000;0.3655;1.3452;
841.8000;0.3647;1.3381;
842.1000;0.3639;1.3381;
842.4000;0.3647;1.3310;
842.7000;0.3630;1.3286;
843.0000;0.3639;1.3262;
843.3000;0.3622;1.3239;
843.6000;0.3622;1.3334;
843.9000;0.3639;1.3357;
844.2000;0.3565;1.3191;
844.5000;0.3622;1.3334;
844.8000;0.3647;1.3286;
845.1000;0.3663;1.3310;
845.4000;0.3630;1.3262;
845.7000;0.3630;1.3334;
846.0000;0.3573;1.3167;
846.3000;0.3647;1.3262;
846.6000;0.3655;1.3262;
846.9000;0.3639;1.3262;
847.2000;0.3622;1.3167;
847.5000;0.3639;1.3239;
847.8000;0.3630;1.3167;
848.1000;0.3647;1.3215;
848.4000;0.3663;1.3262;
848.7000;0.3622;1.3191;
849.0000;0.3533;1.3073;
849.3000;0.3639;1.3381;
849.6000;0.3639;1.3381;
849.9000;0.3622;1.3286;
850.2000;0.3622;1.3239;
850.5000;0.3598;1.3167;
850.8000;0.3622;1.3215;
851.1000;0.3614;1.3167;
851.4000;0.3655;1.3310;
851.7000;0.3614;1.3215;
852.0000;0.3639;1.3334;
852.3000;0.3639;1.3286;
852.6000;0.3622;1.3357;
852.9000;0.3630;1.3310;
853.2000;0.3630;1.3334;
853.5000;0.3622;1.3310;
853.8000;0.3598;1.3310;
854.1000;0.3630;1.3310;
854.4000;0.3622;1.3357;
854.7000;0.3622;1.3334;
855.0000;0.3630;1.3381;
855.3000;0.3647;1.3452;
855.6000;0.3606;1.3286;
855.9000;0.3614;1.3262;
856.2000;0.3622;1.3215;
856.5000;0.3639;1.3239;
856.8000;0.3696;1.3334;
857.1000;0.3647;1.3120;
857.4000;0.3622;1.3025;
857.7000;0.3630;1.2978;
858.0000;0.3606;1.2954;
858.3000;0.3622;1.3144;
858.6000;0.3614;1.3096;
858.9000;0.3614;1.3120;
859.2000;0.3614;1.3120;
859.5000;0.3630;1.3096;
859.8000;0.3622;1.2978;
860.1000;0.3630;1.3073;
860.4000;0.3614;1.3025;
860.7000;0.3630;1.3096;
861.0000;0.3622;1.3120;
861.3000;0.3639;1.3167;
861.6000;0.3630;1.3096;
861.9000;0.3639;1.3191;
862.2000;0.3622;1.3239;
862.5000;0.3614;1.3334;
862.8000;0.3590;1.3286;
863.1000;0.3614;1.3357;
863.4000;0.3614;1.3286;
863.7000;0.3630;1.3310;
864.0000;0.3630;1.3452;
864.3000;0.3630;1.3476;
864.6000;0.3630;1.3428;
864.9000;0.3639;1.3381;
865.2000;0.3647;1.3286;
865.5000;0.3630;1.3262;
865.8000;0.3639;1.3310;
866.1000;0.3622;1.3310;
866.4000;0.3622;1.3334;
866.7000;0.3630;1.3428;
867.0000;0.3655;1.3476;
867.3000;0.3606;1.3357;
867.6000;0.3614;1.3381;
867.9000;0.3622;1.3334;
868.2000;0.3582;1.3334;
868.5000;0.3630;1.3405;
868.8000;0.3622;1.3381;
869.1000;0.3598;1.3405;
869.4000;0.3622;1.3500;
869.7000;0.3614;1.3405;
870.0000;0.3679;1.3571;
870.3000;0.3606;1.3381;
870.6000;0.3606;1.3334;
870.9000;0.3655;1.3547;
871.2000;0.3598;1.3476;
871.5000;0.3606;1.3500;
871.8000;0.3590;1.3476;
872.1000;0.3630;1.3571;
872.4000;0.3622;1.3594;
872.7000;0.3614;1.3547;
873.0000;0.3606;1.3476;
873.3000;0.3671;1.3666;
873.6000;0.3614;1.3547;
873.9000;0.3606;1.3523;
874.2000;0.3606;1.3547;
874.5000;0.3614;1.3642;
874.8000;0.3647;1.3666;
875.1000;0.3614;1.3500;
875.4000;0.3614;1.3476;
875.7000;0.3598;1.3405;
876.0000;0.3630;1.3452;
876.3000;0.3614;1.3357;
876.6000;0.3630;1.3405;
876.9000;0.3630;1.3405;
877.2000;0.3614;1.3310;
877.5000;0.3614;1.3334;
877.8000;0.3630;1.3381;
878.1000;0.3614;1.3262;
878.4000;0.3630;1.3239;
878.7000;0.3622;1.3096;
879.0000;0.3614;1.3025;
879.3000;0.3614;1.2978;
879.6000;0.3622;1.2978;
879.9000;0.3622;1.3049;
880.2000;0.3606;1.3001;
880.5000;0.3614;1.3215;
880.8000;0.3614;1.3286;
881.1000;0.3622;1.3239;
881.4000;0.3598;1.3144;
881.7000;0.3606;1.3215;
882.0000;0.3614;1.3405;
882.3000;0.3622;1.3381;
882.6000;0.3622;1.3381;
882.9000;0.3622;1.3381;
883.2000;0.3606;1.3286;
883.5000;0.3614;1.3286;
883.8000;0.3590;1.3167;
884.1000;0.3630;1.3215;
884.4000;0.3598;1.3144;
884.7000;0.3598;1.3167;
885.0000;0.3573;1.3144;
885.3000;0.3614;1.3381;
885.6000;0.3598;1.3428;
885.9000;0.3622;1.3428;
886.2000;0.3622;1.3381;
886.5000;0.3606;1.3357;
886.8000;0.3622;1.3452;
887.1000;0.3622;1.3476;
887.4000;0.3614;1.3428;
887.7000;0.3630;1.3476;
888.0000;0.3630;1.3428;
888.3000;0.3622;1.3405;
888.6000;0.3630;1.3334;
888.9000;0.3622;1.3310;
889.2000;0.3606;1.3286;
889.5000;0.3614;1.3357;
889.8000;0.3622;1.3310;
890.1000;0.3614;1.3334;
890.4000;0.3622;1.3428;
890.7000;0.3614;1.3405;
891.0000;0.3630;1.3476;
891.3000;0.3639;1.3547;
891.6000;0.3622;1.3571;
891.9000;0.3582;1.3381;
892.2000;0.3598;1.3500;
892.5000;0.3614;1.3500;
892.8000;0.3622;1.3428;
893.1000;0.3606;1.3381;
893.4000;0.3614;1.3452;
893.7000;0.3590;1.3357;
894.0000;0.3687;1.3523;
894.3000;0.3533;1.3049;
894.6000;0.3565;1.3096;
894.9000;0.3598;1.3191;
895.2000;0.3630;1.3310;
895.5000;0.3614;1.3262;
895.8000;0.3614;1.3262;
896.1000;0.3663;1.3357;
896.4000;0.3630;1.3381;
896.7000;0.3622;1.3310;
897.0000;0.3639;1.3286;
897.3000;0.3614;1.3405;
897.6000;0.3606;1.3452;
897.9000;0.3606;1.3405;
898.2000;0.3614;1.3381;
898.5000;0.3614;1.3405;
898.8000;0.3622;1.3334;
899.1000;0.3606;1.3215;
899.4000;0.3606;1.3262;
899.7000;0.3614;1.3334;
900.0000;0.3614;1.3286;
900.3000;0.3622;1.3310;
900.6000;0.3614;1.3334;
900.9000;0.3606;1.3357;
901.2000;0.3622;1.3405;
901.5000;0.3671;1.3618;
901.8000;0.3614;1.3405;
902.1000;0.3606;1.3286;
902.4000;0.3614;1.3239;
902.7000;0.3622;1.3334;
903.0000;0.3639;1.3452;
903.3000;0.3606;1.3428;
903.6000;0.3622;1.3452;
903.9000;0.3614;1.3452;
904.2000;0.3622;1.3452;
904.5000;0.3590;1.3405;
904.8000;0.3622;1.3452;
905.1000;0.3630;1.3428;
905.4000;0.3663;1.3523;
905.7000;0.3606;1.3381;
906.0000;0.3630;1.3381;
906.3000;0.3622;1.3452;
906.6000;0.3622;1.3476;
906.9000;0.3590;1.3476;
907.2000;0.3614;1.3571;
907.5000;0.3622;1.3571;
907.8000;0.3622;1.3500;
908.1000;0.3598;1.3476;
908.4000;0.3598;1.3500;
908.7000;0.3541;1.3286;
909.0000;0.3590;1.3452;
909.3000;0.3606;1.3405;
909.6000;0.3598;1.3357;
909.9000;0.3614;1.3357;
910.2000;0.3614;1.3357;
910.5000;0.3598;1.3357;
910.8000;0.3622;1.3428;
911.1000;0.3598;1.3357;
911.4000;0.3622;1.3334;
911.7000;0.3598;1.3357;
912.0000;0.3598;1.3334;
912.3000;0.3598;1.3381;
912.6000;0.3606;1.3428;
912.9000;0.3622;1.3500;
913.2000;0.3614;1.3428;
913.5000;0.3614;1.3334;
913.8000;0.3622;1.3357;
914.1000;0.3606;1.3215;
914.4000;0.3614;1.3144;
914.7000;0.3671;1.3120;
915.0000;0.3630;1.3025;
915.3000;0.3630;1.3025;
915.6000;0.3614;1.2954;
915.9000;0.3630;1.3073;
916.2000;0.3655;1.3167;
916.5000;0.3614;1.3144;
916.8000;0.3622;1.3167;
917.1000;0.3573;1.2978;
917.4000;0.3573;1.3001;
917.7000;0.3606;1.3239;
918.0000;0.3516;1.2883;
918.3000;0.3696;1.3428;
918.6000;0.3590;1.3215;
918.9000;0.3606;1.3262;
919.2000;0.3582;1.3286;
919.5000;0.3606;1.3381;
919.8000;0.3606;1.3381;
920.1000;0.3598;1.3381;
920.4000;0.3663;1.3500;
920.7000;0.3614;1.3286;
921.0000;0.3606;1.3262;
921.3000;0.3614;1.3381;
921.6000;0.3614;1.3381;
921.9000;0.3622;1.3334;
922.2000;0.3606;1.3310;
922.5000;0.3622;1.3428;
922.8000;0.3557;1.3334;
923.1000;0.3614;1.3523;
923.4000;0.3598;1.3381;
923.7000;0.3606;1.3334;
924.0000;0.3606;1.3262;
924.3000;0.3622;1.3310;
924.6000;0.3614;1.3286;
924.9000;0.3590;1.3286;
925.2000;0.3614;1.3310;
925.5000;0.3614;1.3310;
925.8000;0.3606;1.3310;
926.1000;0.3622;1.3286;
926.4000;0.3598;1.3215;
926.7000;0.3630;1.3239;
927.0000;0.3622;1.3262;
927.3000;0.3606;1.3310;
927.6000;0.3614;1.3334;
927.9000;0.3647;1.3523;
928.2000;0.3606;1.3452;
928.5000;0.3630;1.3523;
928.8000;0.3598;1.3452;
929.1000;0.3598;1.3476;
929.4000;0.3639;1.3594;
929.7000;0.3598;1.3476;
930.0000;0.3590;1.3500;
930.3000;0.3614;1.3452;
930.6000;0.3655;1.3500;
930.9000;0.3614;1.3428;
931.2000;0.3582;1.3428;
931.5000;0.3606;1.3523;
931.8000;0.3622;1.3547;
932.1000;0.3598;1.3523;
932.4000;0.3590;1.3523;
932.7000;0.3598;1.3500;
933.0000;0.3590;1.3476;
933.3000;0.3606;1.3381;
933.6000;0.3590;1.3381;
933.9000;0.3590;1.3357;
934.2000;0.3606;1.3476;
934.5000;0.3598;1.3405;
934.8000;0.3606;1.3405;
935.1000;0.3614;1.3452;
935.4000;0.3622;1.3500;
935.7000;0.3598;1.3500;
936.0000;0.3606;1.3500;
936.3000;0.3614;1.3547;
936.6000;0.3614;1.3523;
936.9000;0.3614;1.3452;
937.2000;0.3606;1.3357;
937.5000;0.3590;1.3334;
937.8000;0.3606;1.3428;
938.1000;0.3590;1.3405;
938.4000;0.3622;1.3523;
938.7000;0.3590;1.3452;
939.0000;0.3582;1.3357;
939.3000;0.3614;1.3381;
939.6000;0.3549;1.3167;
939.9000;0.3606;1.3310;
940.2000;0.3606;1.3310;
940.5000;0.3614;1.3357;
940.8000;0.3630;1.3381;
941.1000;0.3614;1.3286;
941.4000;0.3679;1.3476;
941.7000;0.3582;1.3334;
942.0000;0.3639;1.3476;
942.3000;0.3533;1.3215;
942.6000;0.3614;1.3452;
942.9000;0.3614;1.3452;
943.2000;0.3614;1.3500;
943.5000;0.3614;1.3547;
943.8000;0.3614;1.3500;
944.1000;0.3598;1.3523;
944.4000;0.3622;1.3594;
944.7000;0.3671;1.3737;
945.0000;0.3549;1.3381;
945.3000;0.3573;1.3523;
945.6000;0.3606;1.3594;
945.9000;0.3614;1.3547;
946.2000;0.3606;1.3476;
946.5000;0.3590;1.3476;
946.8000;0.3606;1.3547;
947.1000;0.3614;1.3547;
947.4000;0.3598;1.3500;
947.7000;0.3598;1.3547;
948.0000;0.3582;1.3500;
948.3000;0.3598;1.3523;
948.6000;0.3590;1.3428;
948.9000;0.3606;1.3476;
949.2000;0.3606;1.3500;
949.5000;0.3582;1.3452;
949.8000;0.3614;1.3642;
950.1000;0.3614;1.3571;
950.4000;0.3606;1.3571;
950.7000;0.3606;1.3547;
951.0000;0.3614;1.3571;
951.3000;0.3614;1.3571;
951.6000;0.3614;1.3523;
951.9000;0.3606;1.3476;
952.2000;0.3614;1.3523;
952.5000;0.3573;1.3428;
952.8000;0.3630;1.3547;
953.1000;0.3598;1.3452;
953.4000;0.3614;1.3476;
953.7000;0.3614;1.3500;
954.0000;0.3598;1.3523;
954.3000;0.3606;1.3523;
954.6000;0.3598;1.3523;
954.9000;0.3598;1.3476;
955.2000;0.3630;1.3523;
955.5000;0.3565;1.3428;
955.8000;0.3622;1.3547;
956.1000;0.3606;1.3571;
956.4000;0.3614;1.3547;
956.7000;0.3598;1.3452;
957.0000;0.3622;1.3500;
957.3000;0.3614;1.3523;
957.6000;0.3606;1.3452;
957.9000;0.3606;1.3452;
958.2000;0.3606;1.3428;
958.5000;0.3606;1.3357;
958.8000;0.3606;1.3381;
959.1000;0.3590;1.3357;
959.4000;0.3598;1.3357;
959.7000;0.3622;1.3452;
960.0000;0.3614;1.3523;
960.3000;0.3598;1.3476;
960.6000;0.3614;1.3523;
960.9000;0.3614;1.3523;
961.2000;0.3622;1.3428;
961.5000;0.3606;1.3381;
961.8000;0.3614;1.3381;
962.1000;0.3573;1.3262;
962.4000;0.3598;1.3286;
962.7000;0.3606;1.3215;
963.0000;0.3590;1.3191;
963.3000;0.3655;1.3381;
963.6000;0.3598;1.3167;
963.9000;0.3582;1.3191;
964.2000;0.3614;1.3357;
964.5000;0.3590;1.3357;
964.8000;0.3598;1.3452;
965.1000;0.3606;1.3357;
965.4000;0.3614;1.3476;
965.7000;0.3614;1.3476;
966.0000;0.3614;1.3381;
966.3000;0.3614;1.3381;
966.6000;0.3598;1.3357;
966.9000;0.3614;1.3381;
967.2000;0.3614;1.3381;
967.5000;0.3598;1.3381;
967.8000;0.3614;1.3357;
968.1000;0.3598;1.3428;
968.4000;0.3614;1.3452;
968.7000;0.3606;1.3381;
969.0000;0.3614;1.3428;
969.3000;0.3622;1.3476;
969.6000;0.3606;1.3476;
969.9000;0.3606;1.3523;
970.2000;0.3590;1.3452;
970.5000;0.3630;1.3381;
970.8000;0.3647;1.3452;
971.1000;0.3614;1.3452;
971.4000;0.3598;1.3547;
971.7000;0.3614;1.3689;
972.0000;0.3606;1.3618;
972.3000;0.3614;1.3594;
972.6000;0.3606;1.3594;
972.9000;0.3590;1.3500;
973.2000;0.3606;1.3500;
973.5000;0.3606;1.3476;
973.8000;0.3606;1.3405;
974.1000;0.3606;1.3405;
974.4000;0.3622;1.3428;
974.7000;0.3606;1.3381;
975.0000;0.3606;1.3428;
975.3000;0.3630;1.3452;
975.6000;0.3614;1.3381;
975.9000;0.3639;1.3334;
976.2000;0.3606;1.3334;
976.5000;0.3606;1.3310;
976.8000;0.3606;1.3405;
977.1000;0.3614;1.3381;
977.4000;0.3590;1.3334;
977.7000;0.3606;1.3310;
978.0000;0.3590;1.3262;
978.3000;0.3582;1.3262;
978.6000;0.3606;1.3357;
978.9000;0.3606;1.3286;
979.2000;0.3614;1.3310;
979.5000;0.3598;1.3239;
979.8000;0.3549;1.3167;
980.1000;0.3614;1.3334;
980.4000;0.3606;1.3357;
980.7000;0.3516;1.3239;
981.0000;0.3622;1.3523;
981.3000;0.3622;1.3571;
981.6000;0.3582;1.3452;
981.9000;0.3606;1.3428;
982.2000;0.3622;1.3476;
982.5000;0.3622;1.3523;
982.8000;0.3630;1.3571;
983.1000;0.3614;1.3452;
983.4000;0.3606;1.3405;
983.7000;0.3606;1.3452;
984.0000;0.3573;1.3381;
984.3000;0.3606;1.3381;
984.6000;0.3622;1.3428;
984.9000;0.3606;1.3381;
985.2000;0.3622;1.3452;
985.5000;0.3606;1.3428;
985.8000;0.3516;1.3191;
986.1000;0.3508;1.3167;
986.4000;0.3606;1.3310;
986.7000;0.3614;1.3310;
987.0000;0.3598;1.3239;
987.3000;0.3622;1.3310;
987.6000;0.3622;1.3310;
987.9000;0.3663;1.3476;
988.2000;0.3622;1.3357;
988.5000;0.3598;1.3215;
988.8000;0.3598;1.3191;
989.1000;0.3582;1.3215;
989.4000;0.3622;1.3357;
989.7000;0.3590;1.3262;
990.0000;0.3606;1.3357;
990.3000;0.3606;1.3286;
990.6000;0.3598;1.3167;
990.9000;0.3598;1.3286;
991.2000;0.3598;1.3334;
991.5000;0.3606;1.3381;
991.8000;0.3639;1.3500;
992.1000;0.3598;1.3381;
992.4000;0.3590;1.3310;
992.7000;0.3606;1.3357;
993.0000;0.3598;1.3310;
993.3000;0.3582;1.3239;
993.6000;0.3598;1.3381;
993.9000;0.3598;1.3334;
994.2000;0.3598;1.3405;
994.5000;0.3598;1.3310;
994.8000;0.3655;1.3381;
995.1000;0.3614;1.3262;
995.4000;0.3671;1.3357;
995.7000;0.3606;1.3239;
996.0000;0.3598;1.3215;
996.3000;0.3598;1.3310;
996.6000;0.3606;1.3286;
996.9000;0.3606;1.3215;
997.2000;0.3606;1.3310;
997.5000;0.3598;1.3167;
997.8000;0.3614;1.3215;
998.1000;0.3622;1.3286;
998.4000;0.3598;1.3191;
998.7000;0.3590;1.3144;
999.0000;0.3590;1.3191;
999.3000;0.3614;1.3191;
999.6000;0.3606;1.3096;
999.9000;0.3622;1.3191;
1000.2000;0.3598;1.3215;
1000.5000;0.3565;1.3144;
1000.8000;0.3582;1.3191;
1001.1000;0.3606;1.3262;
1001.4000;0.3565;1.3144;
1001.7000;0.3671;1.3428;
1002.0000;0.3598;1.3215;
1002.3000;0.3614;1.3381;
1002.6000;0.3590;1.3357;
1002.9000;0.3590;1.3310;
1003.2000;0.3573;1.3144;
1003.5000;0.3582;1.3239;
1003.8000;0.3590;1.3310;
1004.1000;0.3598;1.3310;
1004.4000;0.3582;1.3334;
1004.7000;0.3598;1.3381;
1005.0000;0.3590;1.3286;
1005.3000;0.3590;1.3286;
1005.6000;0.3590;1.3286;
1005.9000;0.3598;1.3381;
1006.2000;0.3598;1.3428;
1006.5000;0.3590;1.3381;
1006.8000;0.3598;1.3428;
1007.1000;0.3590;1.3310;
1007.4000;0.3590;1.3239;
1007.7000;0.3614;1.3405;
1008.0000;0.3590;1.3334;
1008.3000;0.3582;1.3334;
1008.6000;0.3582;1.3310;
1008.9000;0.3590;1.3357;
1009.2000;0.3598;1.3381;
1009.5000;0.3573;1.3286;
1009.8000;0.3606;1.3239;
1010.1000;0.3630;1.3334;
1010.4000;0.3590;1.3120;
1010.7000;0.3598;1.3167;
1011.0000;0.3590;1.3239;
1011.3000;0.3541;1.3144;
1011.6000;0.3606;1.3405;
1011.9000;0.3508;1.3120;
1012.2000;0.3565;1.3096;
1012.5000;0.3590;1.3144;
1012.8000;0.3582;1.3120;
1013.1000;0.3614;1.3191;
1013.4000;0.3573;1.3073;
1013.7000;0.3606;1.3144;
1014.0000;0.3557;1.3049;
1014.3000;0.3647;1.3262;
1014.6000;0.3598;1.3144;
1014.9000;0.3598;1.3144;
1015.2000;0.3598;1.3215;
1015.5000;0.3663;1.3452;
1015.8000;0.3606;1.3334;
1016.1000;0.3590;1.3286;
1016.4000;0.3565;1.3357;
1016.7000;0.3606;1.3357;
1017.0000;0.3598;1.3405;
1017.3000;0.3606;1.3357;
1017.6000;0.3614;1.3239;
1017.9000;0.3598;1.3239;
1018.2000;0.3582;1.3215;
1018.5000;0.3598;1.3239;
1018.8000;0.3606;1.3191;
1019.1000;0.3614;1.3144;
1019.4000;0.3533;1.2978;
1019.7000;0.3598;1.3167;
1020.0000;0.3598;1.3239;
1020.3000;0.3606;1.3310;
1020.6000;0.3557;1.3096;
1020.9000;0.3590;1.3262;
1021.2000;0.3606;1.3334;
1021.5000;0.3590;1.3286;
1021.8000;0.3590;1.3334;
1022.1000;0.3614;1.3334;
1022.4000;0.3590;1.3310;
1022.7000;0.3590;1.3334;
1023.0000;0.3573;1.3381;
1023.3000;0.3598;1.3452;
1023.6000;0.3598;1.3405;
1023.9000;0.3590;1.3262;
1024.2000;0.3573;1.3286;
1024.5000;0.3590;1.3381;
1024.8000;0.3573;1.3262;
1025.1000;0.3590;1.3381;
1025.4000;0.3541;1.3310;
1025.7000;0.3590;1.3500;
1026.0000;0.3598;1.3452;
1026.3000;0.3630;1.3547;
1026.6000;0.3590;1.3452;
1026.9000;0.3598;1.3428;
1027.2000;0.3696;1.3713;
1027.5000;0.3573;1.3428;
1027.8000;0.3565;1.3286;
1028.1000;0.3582;1.3286;
1028.4000;0.3598;1.3239;
1028.7000;0.3582;1.3262;
1029.0000;0.3598;1.3191;
1029.3000;0.3598;1.3191;
1029.6000;0.3606;1.3262;
1029.9000;0.3598;1.3215;
1030.2000;0.3606;1.3191;
1030.5000;0.3606;1.3262;
1030.8000;0.3598;1.3239;
1031.1000;0.3598;1.3262;
1031.4000;0.3565;1.3239;
1031.7000;0.3606;1.3167;
1032.0000;0.3590;1.3001;
1032.3000;0.3622;1.3025;
1032.6000;0.3606;1.3144;
1032.9000;0.3590;1.3073;
1033.2000;0.3590;1.3096;
1033.5000;0.3614;1.3167;
1033.8000;0.3606;1.3167;
1034.1000;0.3606;1.3167;
1034.4000;0.3590;1.3096;
1034.7000;0.3582;1.3191;
1035.0000;0.3590;1.3286;
1035.3000;0.3598;1.3405;
1035.6000;0.3614;1.3500;
1035.9000;0.3598;1.3476;
1036.2000;0.3606;1.3452;
1036.5000;0.3606;1.3476;
1036.8000;0.3606;1.3428;
1037.1000;0.3606;1.3286;
1037.4000;0.3606;1.3215;
1037.7000;0.3606;1.3286;
1038.0000;0.3565;1.3191;
1038.3000;0.3590;1.3215;
1038.6000;0.3606;1.3286;
1038.9000;0.3541;1.3120;
1039.2000;0.3590;1.3215;
1039.5000;0.3590;1.3262;
1039.8000;0.3647;1.3381;
1040.1000;0.3614;1.3310;
1040.4000;0.3622;1.3310;
1040.7000;0.3557;1.3049;
1041.0000;0.3557;1.3025;
1041.3000;0.3598;1.3167;
1041.6000;0.3606;1.3334;
1041.9000;0.3614;1.3405;
1042.2000;0.3590;1.3381;
1042.5000;0.3630;1.3405;
1042.8000;0.3639;1.3286;
1043.1000;0.3590;1.3120;
1043.4000;0.3606;1.3144;
1043.7000;0.3582;1.3073;
1044.0000;0.3606;1.3120;
1044.3000;0.3590;1.3096;
1044.6000;0.3630;1.3001;
1044.9000;0.3598;1.2954;
1045.2000;0.3573;1.3025;
1045.5000;0.3598;1.3025;
1045.8000;0.3541;1.2835;
1046.1000;0.3606;1.2954;
1046.4000;0.3565;1.2906;
1046.7000;0.3606;1.3049;
1047.0000;0.3606;1.3191;
1047.3000;0.3606;1.3191;
1047.6000;0.3598;1.3120;
1047.9000;0.3598;1.3096;
1048.2000;0.3598;1.3144;
1048.5000;0.3606;1.3144;
1048.8000;0.3598;1.3144;
1049.1000;0.3590;1.3120;
1049.4000;0.3590;1.3167;
1049.7000;0.3606;1.3215;
1050.0000;0.3598;1.3191;
1050.3000;0.3614;1.3167;
1050.6000;0.3630;1.3191;
1050.9000;0.3622;1.3144;
1051.2000;0.3598;1.3049;
1051.5000;0.3598;1.3049;
1051.8000;0.3606;1.3120;
1052.1000;0.3606;1.3167;
1052.4000;0.3598;1.3191;
1052.7000;0.3606;1.3215;
1053.0000;0.3590;1.3144;
1053.3000;0.3606;1.3144;
1053.6000;0.3606;1.3167;
1053.9000;0.3598;1.3215;
1054.2000;0.3606;1.3239;
1054.5000;0.3590;1.3310;
1054.8000;0.3606;1.3310;
1055.1000;0.3598;1.3334;
1055.4000;0.3573;1.3215;
1055.7000;0.3614;1.3239;
1056.0000;0.3606;1.3262;
1056.3000;0.3630;1.3262;
1056.6000;0.3565;1.3073;
1056.9000;0.3582;1.3025;
1057.2000;0.3598;1.3001;
1057.5000;0.3598;1.2978;
1057.8000;0.3590;1.2883;
1058.1000;0.3606;1.2835;
1058.4000;0.3533;1.2764;
1058.7000;0.3525;1.2788;
1059.0000;0.3590;1.3025;
1059.3000;0.3614;1.3144;
1059.6000;0.3614;1.3096;
1059.9000;0.3606;1.3025;
1060.2000;0.3541;1.2906;
1060.5000;0.3614;1.3096;
1060.8000;0.3590;1.3049;
1061.1000;0.3598;1.3073;
1061.4000;0.3630;1.3096;
1061.7000;0.3582;1.2954;
1062.0000;0.3590;1.2930;
1062.3000;0.3614;1.2906;
1062.6000;0.3598;1.2954;
1062.9000;0.3598;1.2978;
1063.2000;0.3598;1.2859;
1063.5000;0.3598;1.2883;
1063.8000;0.3590;1.2859;
1064.1000;0.3598;1.2930;
1064.4000;0.3614;1.3001;
1064.7000;0.3687;1.3310;
1065.0000;0.3606;1.3191;
1065.3000;0.3647;1.3357;
1065.6000;0.3557;1.3096;
1065.9000;0.3606;1.3215;
1066.2000;0.3590;1.3239;
1066.5000;0.3598;1.3286;
1066.8000;0.3606;1.3286;
1067.1000;0.3598;1.3262;
1067.4000;0.3590;1.3215;
1067.7000;0.3606;1.3239;
1068.0000;0.3598;1.3239;
1068.3000;0.3598;1.3239;
1068.6000;0.3598;1.3286;
1068.9000;0.3598;1.3286;
1069.2000;0.3590;1.3286;
1069.5000;0.3590;1.3239;
1069.8000;0.3598;1.3144;
1070.1000;0.3606;1.3144;
1070.4000;0.3598;1.3144;
1070.7000;0.3598;1.3120;
1071.0000;0.3590;1.3167;
1071.3000;0.3598;1.3120;
1071.6000;0.3598;1.3144;
1071.9000;0.3590;1.3167;
1072.2000;0.3598;1.3239;
1072.5000;0.3582;1.3144;
1072.8000;0.3614;1.3191;
1073.1000;0.3598;1.3096;
1073.4000;0.3573;1.3025;
1073.7000;0.3598;1.3120;
1074.0000;0.3590;1.3239;
1074.3000;0.3582;1.3310;
1074.6000;0.3582;1.3381;
1074.9000;0.3598;1.3357;
1075.2000;0.3598;1.3357;
1075.5000;0.3614;1.3334;
1075.8000;0.3598;1.3381;
1076.1000;0.3582;1.3381;
1076.4000;0.3606;1.3405;
1076.7000;0.3630;1.3547;
1077.0000;0.3565;1.3428;
1077.3000;0.3606;1.3500;
1077.6000;0.3598;1.3523;
1077.9000;0.3598;1.3594;
1078.2000;0.3549;1.3476;
1078.5000;0.3573;1.3523;
1078.8000;0.3598;1.3500;
1079.1000;0.3622;1.3571;
1079.4000;0.3582;1.3452;
1079.7000;0.3598;1.3571;
1080.0000;0.3622;1.3571;
1080.3000;0.3630;1.3618;
1080.6000;0.3598;1.3594;
1080.9000;0.3557;1.3500;
1081.2000;0.3614;1.3594;
1081.5000;0.3614;1.3642;
1081.8000;0.3582;1.3689;
1082.1000;0.3573;1.3666;
1082.4000;0.3590;1.3618;
1082.7000;0.3590;1.3594;
1083.0000;0.3598;1.3594;
1083.3000;0.3573;1.3500;
1083.6000;0.3582;1.3500;
1083.9000;0.3590;1.3500;
1084.2000;0.3639;1.3594;
1084.5000;0.3573;1.3476;
1084.8000;0.3598;1.3500;
1085.1000;0.3606;1.3500;
1085.4000;0.3671;1.3666;
1085.7000;0.3598;1.3523;
1086.0000;0.3606;1.3428;
1086.3000;0.3590;1.3523;
1086.6000;0.3598;1.3594;
1086.9000;0.3614;1.3594;
1087.2000;0.3582;1.3500;
1087.5000;0.3630;1.3761;
1087.8000;0.3598;1.3666;
1088.1000;0.3606;1.3642;
1088.4000;0.3606;1.3594;
1088.7000;0.3598;1.3547;
1089.0000;0.3606;1.3594;
1089.3000;0.3598;1.3523;
1089.6000;0.3590;1.3523;
1089.9000;0.3614;1.3642;
1090.2000;0.3606;1.3523;
1090.5000;0.3598;1.3500;
1090.8000;0.3606;1.3571;
1091.1000;0.3598;1.3476;
1091.4000;0.3614;1.3594;
1091.7000;0.3590;1.3594;
1092.0000;0.3598;1.3618;
1092.3000;0.3606;1.3594;
1092.6000;0.3606;1.3594;
1092.9000;0.3606;1.3571;
1093.2000;0.3590;1.3523;
1093.5000;0.3549;1.3334;
1093.8000;0.3622;1.3523;
1094.1000;0.3655;1.3594;
1094.4000;0.3606;1.3523;
1094.7000;0.3606;1.3476;
1095.0000;0.3590;1.3547;
1095.3000;0.3606;1.3547;
1095.6000;0.3598;1.3476;
1095.9000;0.3582;1.3428;
1096.2000;0.3679;1.3784;
1096.5000;0.3598;1.3594;
1096.8000;0.3598;1.3571;
1097.1000;0.3598;1.3689;
1097.4000;0.3590;1.3618;
1097.7000;0.3598;1.3618;
1098.0000;0.3590;1.3594;
1098.3000;0.3590;1.3618;
1098.6000;0.3590;1.3571;
1098.9000;0.3590;1.3618;
1099.2000;0.3598;1.3642;
1099.5000;0.3598;1.3642;
1099.8000;0.3598;1.3547;
1100.1000;0.3614;1.3571;
1100.4000;0.3606;1.3523;
1100.7000;0.3622;1.3571;
1101.0000;0.3582;1.3381;
1101.3000;0.3598;1.3476;
1101.6000;0.3598;1.3381;
1101.9000;0.3647;1.3405;
1102.2000;0.3606;1.3334;
1102.5000;0.3606;1.3286;
1102.8000;0.3598;1.3167;
1103.1000;0.3614;1.3286;
1103.4000;0.3630;1.3334;
1103.7000;0.3590;1.3357;
1104.0000;0.3622;1.3452;
1104.3000;0.3598;1.3452;
1104.6000;0.3582;1.3405;
1104.9000;0.3549;1.3286;
1105.2000;0.3590;1.3405;
1105.5000;0.3606;1.3452;
1105.8000;0.3606;1.3428;
1106.1000;0.3508;1.3191;
1106.4000;0.3590;1.3262;
1106.7000;0.3606;1.3262;
1107.0000;0.3565;1.3167;
1107.3000;0.3614;1.3334;
1107.6000;0.3606;1.3262;
1107.9000;0.3598;1.3262;
1108.2000;0.3549;1.3191;
1108.5000;0.3582;1.3381;
1108.8000;0.3582;1.3428;
1109.1000;0.3598;1.3523;
1109.4000;0.3606;1.3500;
1109.7000;0.3606;1.3500;
1110.0000;0.3614;1.3500;
1110.3000;0.3590;1.3500;
1110.6000;0.3606;1.3547;
1110.9000;0.3655;1.3642;
1111.2000;0.3622;1.3523;
1111.5000;0.3606;1.3452;
1111.8000;0.3525;1.3215;
1112.1000;0.3614;1.3405;
1112.4000;0.3598;1.3452;
1112.7000;0.3663;1.3618;
1113.0000;0.3606;1.3523;
1113.3000;0.3598;1.3428;
1113.6000;0.3598;1.3428;
1113.9000;0.3582;1.3428;
1114.2000;0.3606;1.3428;
1114.5000;0.3614;1.3334;
1114.8000;0.3622;1.3310;
1115.1000;0.3639;1.3239;
1115.4000;0.3606;1.3144;
1115.7000;0.3630;1.3191;
1116.0000;0.3614;1.3334;
1116.3000;0.3630;1.3405;
1116.6000;0.3606;1.3405;
1116.9000;0.3598;1.3357;
1117.2000;0.3598;1.3357;
1117.5000;0.3590;1.3334;
1117.8000;0.3492;1.3120;
1118.1000;0.3598;1.3286;
1118.4000;0.3606;1.3357;
1118.7000;0.3598;1.3215;
1119.0000;0.3590;1.3144;
1119.3000;0.3630;1.3167;
1119.6000;0.3614;1.3120;
1119.9000;0.3622;1.3167;
1120.2000;0.3598;1.3167;
1120.5000;0.3598;1.3191;
1120.8000;0.3679;1.3381;
1121.1000;0.3606;1.3334;
1121.4000;0.3590;1.3334;
1121.7000;0.3679;1.3642;
1122.0000;0.3590;1.3428;
1122.3000;0.3598;1.3405;
1122.6000;0.3606;1.3428;
1122.9000;0.3590;1.3357;
1123.2000;0.3606;1.3381;
1123.5000;0.3582;1.3239;
1123.8000;0.3614;1.3215;
1124.1000;0.3606;1.3167;
1124.4000;0.3647;1.3191;
1124.7000;0.3614;1.3073;
1125.0000;0.3598;1.3025;
1125.3000;0.3598;1.3025;
1125.6000;0.3606;1.3001;
1125.9000;0.3614;1.3025;
1126.2000;0.3606;1.2978;
1126.5000;0.3606;1.3025;
1126.8000;0.3606;1.3073;
1127.1000;0.3598;1.3096;
1127.4000;0.3622;1.3167;
1127.7000;0.3606;1.3167;
1128.0000;0.3614;1.3167;
1128.3000;0.3582;1.3167;
1128.6000;0.3606;1.3144;
1128.9000;0.3565;1.3025;
1129.2000;0.3582;1.3191;
1129.5000;0.3598;1.3334;
1129.8000;0.3614;1.3476;
1130.1000;0.3573;1.3334;
1130.4000;0.3622;1.3523;
1130.7000;0.3606;1.3547;
1131.0000;0.3573;1.3452;
1131.3000;0.3582;1.3357;
1131.6000;0.3582;1.3357;
1131.9000;0.3606;1.3405;
1132.2000;0.3598;1.3357;
1132.5000;0.3549;1.3191;
1132.8000;0.3630;1.3286;
1133.1000;0.3606;1.3286;
1133.4000;0.3598;1.3357;
1133.7000;0.3598;1.3405;
1134.0000;0.3525;1.3239;
1134.3000;0.3606;1.3428;
1134.6000;0.3606;1.3381;
1134.9000;0.3606;1.3405;
1135.2000;0.3614;1.3381;
1135.5000;0.3598;1.3286;
1135.8000;0.3582;1.3310;
1136.1000;0.3606;1.3357;
1136.4000;0.3598;1.3334;
1136.7000;0.3573;1.3310;
1137.0000;0.3590;1.3381;
1137.3000;0.3606;1.3476;
1137.6000;0.3590;1.3476;
1137.9000;0.3614;1.3523;
1138.2000;0.3598;1.3523;
1138.5000;0.3606;1.3618;
1138.8000;0.3614;1.3642;
1139.1000;0.3598;1.3571;
1139.4000;0.3590;1.3523;
1139.7000;0.3590;1.3571;
1140.0000;0.3606;1.3618;
1140.3000;0.3696;1.3855;
1140.6000;0.3590;1.3594;
1140.9000;0.3622;1.3618;
1141.2000;0.3598;1.3618;
1141.5000;0.3598;1.3547;
1141.8000;0.3598;1.3428;
1142.1000;0.3622;1.3452;
1142.4000;0.3606;1.3334;
1142.7000;0.3606;1.3286;
1143.0000;0.3573;1.3310;
1143.3000;0.3590;1.3405;
1143.6000;0.3614;1.3476;
1143.9000;0.3606;1.3523;
1144.2000;0.3598;1.3452;
1144.5000;0.3590;1.3357;
1144.8000;0.3549;1.3286;
1145.1000;0.3606;1.3381;
1145.4000;0.3606;1.3286;
1145.7000;0.3606;1.3262;
1146.0000;0.3598;1.3262;
1146.3000;0.3630;1.3357;
1146.6000;0.3598;1.3286;
1146.9000;0.3606;1.3239;
1147.2000;0.3565;1.3262;
1147.5000;0.3590;1.3428;
1147.8000;0.3630;1.3500;
1148.1000;0.3582;1.3405;
1148.4000;0.3590;1.3452;
1148.7000;0.3614;1.3476;
1149.0000;0.3598;1.3452;
1149.3000;0.3614;1.3476;
1149.6000;0.3541;1.3428;
1149.9000;0.3582;1.3523;
1150.2000;0.3606;1.3618;
1150.5000;0.3598;1.3594;
1150.8000;0.3598;1.3523;
1151.1000;0.3606;1.3594;
1151.4000;0.3598;1.3571;
1151.7000;0.3671;1.3713;
1152.0000;0.3598;1.3547;
1152.3000;0.3606;1.3571;
1152.6000;0.3525;1.3310;
1152.9000;0.3614;1.3476;
1153.2000;0.3582;1.3405;
1153.5000;0.3573;1.3357;
1153.8000;0.3606;1.3428;
1154.1000;0.3590;1.3500;
1154.4000;0.3557;1.3523;
1154.7000;0.3590;1.3547;
1155.0000;0.3590;1.3500;
1155.3000;0.3606;1.3571;
1155.6000;0.3614;1.3571;
1155.9000;0.3573;1.3571;
1156.2000;0.3582;1.3689;
1156.5000;0.3687;1.3927;
1156.8000;0.3614;1.3808;
1157.1000;0.3590;1.3666;
1157.4000;0.3582;1.3642;
1157.7000;0.3606;1.3689;
1158.0000;0.3549;1.3500;
1158.3000;0.3598;1.3547;
1158.6000;0.3598;1.3594;
1158.9000;0.3655;1.3713;
1159.2000;0.3590;1.3500;
1159.5000;0.3606;1.3523;
1159.8000;0.3639;1.3523;
1160.1000;0.3598;1.3500;
1160.4000;0.3614;1.3571;
1160.7000;0.3606;1.3500;
1161.0000;0.3598;1.3523;
1161.3000;0.3614;1.3452;
1161.6000;0.3606;1.3523;
1161.9000;0.3590;1.3500;
1162.2000;0.3598;1.3428;
1162.5000;0.3590;1.3452;
1162.8000;0.3606;1.3523;
1163.1000;0.3590;1.3452;
1163.4000;0.3582;1.3500;
1163.7000;0.3590;1.3523;
1164.0000;0.3598;1.3571;
1164.3000;0.3590;1.3428;
1164.6000;0.3606;1.3428;
1164.9000;0.3598;1.3428;
1165.2000;0.3606;1.3452;
1165.5000;0.3614;1.3452;
1165.8000;0.3606;1.3452;
1166.1000;0.3606;1.3452;
1166.4000;0.3606;1.3500;
1166.7000;0.3598;1.3523;
1167.0000;0.3582;1.3452;
1167.3000;0.3606;1.3500;
1167.6000;0.3606;1.3571;
1167.9000;0.3598;1.3618;
1168.2000;0.3590;1.3594;
1168.5000;0.3582;1.3618;
1168.8000;0.3598;1.3618;
1169.1000;0.3606;1.3571;
1169.4000;0.3565;1.3500;
1169.7000;0.3598;1.3523;
1170.0000;0.3606;1.3523;
1170.3000;0.3614;1.3547;
1170.6000;0.3590;1.3428;
1170.9000;0.3606;1.3476;
1171.2000;0.3606;1.3452;
1171.5000;0.3630;1.3547;
1171.8000;0.3533;1.3357;
1172.1000;0.3582;1.3405;
1172.4000;0.3557;1.3262;
1172.7000;0.3606;1.3405;
1173.0000;0.3639;1.3547;
1173.3000;0.3598;1.3452;
1173.6000;0.3598;1.3428;
1173.9000;0.3573;1.3357;
1174.2000;0.3606;1.3428;
1174.5000;0.3614;1.3476;
1174.8000;0.3598;1.3452;
1175.1000;0.3590;1.3452;
1175.4000;0.3606;1.3476;
1175.7000;0.3606;1.3428;
1176.0000;0.3541;1.3310;
1176.3000;0.3606;1.3476;
1176.6000;0.3606;1.3476;
1176.9000;0.3606;1.3357;
1177.2000;0.3639;1.3476;
1177.5000;0.3590;1.3381;
1177.8000;0.3590;1.3381;
1178.1000;0.3590;1.3405;
1178.4000;0.3614;1.3476;
1178.7000;0.3590;1.3357;
1179.0000;0.3598;1.3428;
1179.3000;0.3590;1.3405;
1179.6000;0.3598;1.3428;
1179.9000;0.3606;1.3405;
1180.2000;0.3614;1.3357;
1180.5000;0.3598;1.3334;
1180.8000;0.3630;1.3500;
1181.1000;0.3598;1.3452;
1181.4000;0.3655;1.3476;
1181.7000;0.3606;1.3310;
1182.0000;0.3598;1.3357;
1182.3000;0.3598;1.3405;
1182.6000;0.3573;1.3405;
1182.9000;0.3582;1.3310;
1183.2000;0.3606;1.3476;
1183.5000;0.3590;1.3500;
1183.8000;0.3598;1.3523;
1184.1000;0.3606;1.3476;
1184.4000;0.3639;1.3476;
1184.7000;0.3606;1.3381;
1185.0000;0.3598;1.3381;
1185.3000;0.3590;1.3357;
1185.6000;0.3614;1.3405;
1185.9000;0.3590;1.3452;
1186.2000;0.3590;1.3381;
1186.5000;0.3590;1.3310;
1186.8000;0.3606;1.3381;
1187.1000;0.3606;1.3286;
1187.4000;0.3590;1.3262;
1187.7000;0.3590;1.3167;
1188.0000;0.3598;1.3239;
1188.3000;0.3622;1.3191;
1188.6000;0.3614;1.3191;
1188.9000;0.3598;1.3144;
1189.2000;0.3606;1.3096;
1189.5000;0.3598;1.3096;
1189.8000;0.3598;1.3167;
1190.1000;0.3606;1.3262;
1190.4000;0.3622;1.3381;
1190.7000;0.3606;1.3357;
1191.0000;0.3598;1.3428;
1191.3000;0.3679;1.3689;
1191.6000;0.3598;1.3428;
1191.9000;0.3598;1.3500;
1192.2000;0.3590;1.3452;
1192.5000;0.3590;1.3476;
1192.8000;0.3598;1.3428;
1193.1000;0.3598;1.3476;
1193.4000;0.3606;1.3500;
1193.7000;0.3606;1.3334;
1194.0000;0.3590;1.3215;
1194.3000;0.3606;1.3286;
1194.6000;0.3622;1.3239;
1194.9000;0.3606;1.3167;
1195.2000;0.3606;1.3239;
1195.5000;0.3598;1.3262;
1195.8000;0.3622;1.3286;
1196.1000;0.3639;1.3310;
1196.4000;0.3590;1.3286;
1196.7000;0.3525;1.3167;
1197.0000;0.3565;1.3262;
1197.3000;0.3582;1.3357;
1197.6000;0.3598;1.3334;
1197.9000;0.3622;1.3286;
1198.2000;0.3573;1.3049;
1198.5000;0.3598;1.3049;
1198.8000;0.3598;1.3073;
1199.1000;0.3590;1.3025;
1199.4000;0.3582;1.3120;
1199.7000;0.3614;1.3120;
1200.0000;0.3704;1.3357;
1200.3000;0.3606;1.3144;
1200.6000;0.3606;1.3239;
1200.9000;0.3598;1.3262;
1201.2000;0.3606;1.3239;
1201.5000;0.3598;1.3191;
1201.8000;0.3614;1.3191;
1202.1000;0.3655;1.3239;
1202.4000;0.3606;1.3120;
1202.7000;0.3606;1.3120;
1203.0000;0.3590;1.3096;
1203.3000;0.3598;1.3239;
1203.6000;0.3590;1.3286;
1203.9000;0.3598;1.3310;
1204.2000;0.3598;1.3334;
1204.5000;0.3582;1.3381;
1204.8000;0.3614;1.3476;
1205.1000;0.3606;1.3428;
1205.4000;0.3598;1.3428;
1205.7000;0.3590;1.3452;
1206.0000;0.3606;1.3500;
1206.3000;0.3598;1.3500;
1206.6000;0.3598;1.3500;
1206.9000;0.3598;1.3500;
1207.2000;0.3630;1.3571;
1207.5000;0.3606;1.3523;
1207.8000;0.3606;1.3547;
1208.1000;0.3598;1.3523;
1208.4000;0.3598;1.3476;
1208.7000;0.3598;1.3334;
1209.0000;0.3598;1.3381;
1209.3000;0.3590;1.3381;
1209.6000;0.3598;1.3381;
1209.9000;0.3606;1.3405;
1210.2000;0.3622;1.3381;
1210.5000;0.3590;1.3310;
1210.8000;0.3614;1.3452;
1211.1000;0.3614;1.3500;
1211.4000;0.3598;1.3452;
1211.7000;0.3606;1.3405;
1212.0000;0.3606;1.3428;
1212.3000;0.3655;1.3547;
1212.6000;0.3590;1.3405;
1212.9000;0.3582;1.3381;
1213.2000;0.3671;1.3523;
1213.5000;0.3606;1.3571;
1213.8000;0.3598;1.3452;
1214.1000;0.3606;1.3405;
1214.4000;0.3598;1.3405;
1214.7000;0.3614;1.3452;
1215.0000;0.3598;1.3405;
1215.3000;0.3606;1.3452;
1215.6000;0.3606;1.3452;
1215.9000;0.3606;1.3452;
1216.2000;0.3598;1.3523;
1216.5000;0.3606;1.3618;
1216.8000;0.3590;1.3571;
1217.1000;0.3598;1.3500;
1217.4000;0.3606;1.3500;
1217.7000;0.3598;1.3476;
1218.0000;0.3598;1.3357;
1218.3000;0.3598;1.3262;
1218.6000;0.3622;1.3286;
1218.9000;0.3622;1.3262;
1219.2000;0.3598;1.3215;
1219.5000;0.3606;1.3239;
1219.8000;0.3582;1.3262;
1220.1000;0.3598;1.3262;
1220.4000;0.3614;1.3381;
1220.7000;0.3598;1.3452;
1221.0000;0.3541;1.3286;
1221.3000;0.3614;1.3452;
1221.6000;0.3590;1.3452;
1221.9000;0.3590;1.3476;
1222.2000;0.3606;1.3381;
1222.5000;0.3606;1.3357;
1222.8000;0.3606;1.3310;
1223.1000;0.3590;1.3215;
1223.4000;0.3582;1.3239;
1223.7000;0.3622;1.3334;
1224.0000;0.3582;1.3310;
1224.3000;0.3582;1.3310;
1224.6000;0.3598;1.3334;
1224.9000;0.3606;1.3428;
1225.2000;0.3614;1.3428;
1225.5000;0.3598;1.3357;
1225.8000;0.3590;1.3381;
1226.1000;0.3614;1.3476;
1226.4000;0.3614;1.3523;
1226.7000;0.3590;1.3523;
1227.0000;0.3557;1.3405;
1227.3000;0.3630;1.3571;
1227.6000;0.3565;1.3428;
1227.9000;0.3598;1.3523;
1228.2000;0.3598;1.3523;
1228.5000;0.3598;1.3476;
1228.8000;0.3622;1.3500;
1229.1000;0.3590;1.3476;
1229.4000;0.3590;1.3357;
1229.7000;0.3606;1.3452;
1230.0000;0.3598;1.3405;
1230.3000;0.3614;1.3428;
1230.6000;0.3606;1.3428;
1230.9000;0.3590;1.3428;
1231.2000;0.3606;1.3476;
1231.5000;0.3582;1.3547;
1231.8000;0.3590;1.3571;
1232.1000;0.3614;1.3500;
1232.4000;0.3606;1.3381;
1232.7000;0.3598;1.3286;
1233.0000;0.3582;1.3262;
1233.3000;0.3516;1.3001;
1233.6000;0.3590;1.3239;
1233.9000;0.3598;1.3262;
1234.2000;0.3647;1.3310;
1234.5000;0.3598;1.3120;
1234.8000;0.3606;1.3310;
1235.1000;0.3557;1.3215;
1235.4000;0.3598;1.3310;
1235.7000;0.3606;1.3286;
1236.0000;0.3647;1.3405;
1236.3000;0.3549;1.3144;
1236.6000;0.3590;1.3310;
1236.9000;0.3590;1.3239;
1237.2000;0.3630;1.3381;
1237.5000;0.3582;1.3262;
1237.8000;0.3582;1.3286;
1238.1000;0.3582;1.3310;
1238.4000;0.3606;1.3262;
1238.7000;0.3590;1.3262;
1239.0000;0.3598;1.3286;
1239.3000;0.3630;1.3310;
1239.6000;0.3582;1.3144;
1239.9000;0.3622;1.3262;
1240.2000;0.3606;1.3262;
1240.5000;0.3606;1.3381;
1240.8000;0.3598;1.3381;
1241.1000;0.3598;1.3428;
1241.4000;0.3606;1.3405;
1241.7000;0.3606;1.3381;
1242.0000;0.3590;1.3262;
1242.3000;0.3606;1.3239;
1242.6000;0.3606;1.3262;
1242.9000;0.3606;1.3239;
1243.2000;0.3614;1.3239;
1243.5000;0.3598;1.3120;
1243.8000;0.3590;1.3096;
1244.1000;0.3614;1.3239;
1244.4000;0.3606;1.3239;
1244.7000;0.3508;1.3001;
1245.0000;0.3606;1.3286;
1245.3000;0.3598;1.3239;
1245.6000;0.3614;1.3215;
1245.9000;0.3598;1.3286;
1246.2000;0.3541;1.3120;
1246.5000;0.3614;1.3310;
1246.8000;0.3606;1.3310;
1247.1000;0.3598;1.3239;
1247.4000;0.3590;1.3144;
1247.7000;0.3614;1.3239;
1248.0000;0.3598;1.3262;
1248.3000;0.3606;1.3334;
1248.6000;0.3590;1.3381;
1248.9000;0.3598;1.3357;
1249.2000;0.3590;1.3357;
1249.5000;0.3671;1.3571;
1249.8000;0.3655;1.3452;
1250.1000;0.3590;1.3357;
1250.4000;0.3655;1.3618;
1250.7000;0.3590;1.3500;
1251.0000;0.3598;1.3500;
1251.3000;0.3655;1.3618;
1251.6000;0.3598;1.3428;
1251.9000;0.3598;1.3405;
1252.2000;0.3606;1.3405;
1252.5000;0.3614;1.3476;
1252.8000;0.3598;1.3428;
1253.1000;0.3614;1.3523;
1253.4000;0.3582;1.3405;
1253.7000;0.3614;1.3523;
1254.0000;0.3606;1.3571;
1254.3000;0.3614;1.3500;
1254.6000;0.3622;1.3476;
1254.9000;0.3614;1.3381;
1255.2000;0.3606;1.3452;
1255.5000;0.3606;1.3428;
1255.8000;0.3598;1.3500;
1256.1000;0.3614;1.3523;
1256.4000;0.3614;1.3547;
1256.7000;0.3598;1.3476;
1257.0000;0.3573;1.3381;
1257.3000;0.3590;1.3357;
1257.6000;0.3606;1.3452;
1257.9000;0.3614;1.3357;
1258.2000;0.3598;1.3357;
1258.5000;0.3590;1.3381;
1258.8000;0.3598;1.3334;
1259.1000;0.3606;1.3381;
1259.4000;0.3606;1.3428;
1259.7000;0.3606;1.3452;
1260.0000;0.3582;1.3381;
1260.3000;0.3573;1.3405;
1260.6000;0.3606;1.3594;
1260.9000;0.3590;1.3666;
1261.2000;0.3630;1.3784;
1261.5000;0.3614;1.3642;
1261.8000;0.3598;1.3618;
1262.1000;0.3573;1.3642;
1262.4000;0.3590;1.3594;
1262.7000;0.3606;1.3618;
1263.0000;0.3606;1.3571;
1263.3000;0.3614;1.3594;
1263.6000;0.3606;1.3547;
1263.9000;0.3606;1.3500;
1264.2000;0.3598;1.3428;
1264.5000;0.3598;1.3405;
1264.8000;0.3606;1.3405;
1265.1000;0.3606;1.3476;
1265.4000;0.3614;1.3476;
1265.7000;0.3590;1.3476;
1266.0000;0.3639;1.3476;
1266.3000;0.3614;1.3547;
1266.6000;0.3533;1.3334;
1266.9000;0.3614;1.3547;
1267.2000;0.3598;1.3428;
1267.5000;0.3598;1.3428;
1267.8000;0.3516;1.3144;
1268.1000;0.3598;1.3334;
1268.4000;0.3614;1.3428;
1268.7000;0.3590;1.3334;
1269.0000;0.3598;1.3428;
1269.3000;0.3606;1.3476;
1269.6000;0.3598;1.3523;
1269.9000;0.3565;1.3428;
1270.2000;0.3639;1.3594;
1270.5000;0.3622;1.3500;
1270.8000;0.3598;1.3500;
1271.1000;0.3614;1.3476;
1271.4000;0.3606;1.3523;
1271.7000;0.3598;1.3500;
1272.0000;0.3614;1.3428;
1272.3000;0.3606;1.3405;
1272.6000;0.3598;1.3381;
1272.9000;0.3614;1.3452;
1273.2000;0.3622;1.3428;
1273.5000;0.3630;1.3452;
1273.8000;0.3590;1.3428;
1274.1000;0.3598;1.3500;
1274.4000;0.3622;1.3476;
1274.7000;0.3557;1.3310;
1275.0000;0.3598;1.3405;
1275.3000;0.3598;1.3428;
1275.6000;0.3614;1.3428;
1275.9000;0.3606;1.3428;
1276.2000;0.3614;1.3428;
1276.5000;0.3598;1.3334;
1276.8000;0.3647;1.3381;
1277.1000;0.3606;1.3428;
1277.4000;0.3582;1.3381;
1277.7000;0.3614;1.3428;
1278.0000;0.3614;1.3405;
1278.3000;0.3614;1.3381;
1278.6000;0.3614;1.3381;
1278.9000;0.3590;1.3357;
1279.2000;0.3614;1.3357;
1279.5000;0.3614;1.3239;
1279.8000;0.3606;1.3191;
1280.1000;0.3606;1.3096;
1280.4000;0.3614;1.3120;
1280.7000;0.3614;1.3096;
1281.0000;0.3622;1.3144;
1281.3000;0.3671;1.3286;
1281.6000;0.3614;1.3167;
1281.9000;0.3598;1.3073;
1282.2000;0.3647;1.3191;
1282.5000;0.3598;1.3096;
1282.8000;0.3590;1.3144;
1283.1000;0.3606;1.3191;
1283.4000;0.3614;1.3215;
1283.7000;0.3606;1.3191;
1284.0000;0.3614;1.3286;
1284.3000;0.3598;1.3334;
1284.6000;0.3614;1.3381;
1284.9000;0.3582;1.3357;
1285.2000;0.3598;1.3239;
1285.5000;0.3614;1.3262;
1285.8000;0.3614;1.3310;
1286.1000;0.3606;1.3310;
1286.4000;0.3598;1.3381;
1286.7000;0.3598;1.3405;
1287.0000;0.3606;1.3405;
1287.3000;0.3606;1.3428;
1287.6000;0.3590;1.3357;
1287.9000;0.3606;1.3381;
1288.2000;0.3598;1.3334;
1288.5000;0.3606;1.3334;
1288.8000;0.3549;1.3191;
1289.1000;0.3582;1.3310;
1289.4000;0.3598;1.3357;
1289.7000;0.3614;1.3428;
1290.0000;0.3606;1.3428;
1290.3000;0.3606;1.3476;
1290.6000;0.3598;1.3405;
1290.9000;0.3606;1.3500;
1291.2000;0.3590;1.3452;
1291.5000;0.3639;1.3571;
1291.8000;0.3630;1.3476;
1292.1000;0.3598;1.3452;
1292.4000;0.3598;1.3405;
1292.7000;0.3598;1.3381;
1293.0000;0.3639;1.3428;
1293.3000;0.3582;1.3357;
1293.6000;0.3614;1.3500;
1293.9000;0.3606;1.3523;
1294.2000;0.3606;1.3476;
1294.5000;0.3614;1.3523;
1294.8000;0.3630;1.3500;
1295.1000;0.3516;1.3120;
1295.4000;0.3533;1.3286;
1295.7000;0.3606;1.3452;
1296.0000;0.3598;1.3500;
1296.3000;0.3606;1.3523;
1296.6000;0.3573;1.3405;
1296.9000;0.3606;1.3476;
1297.2000;0.3606;1.3523;
1297.5000;0.3598;1.3523;
1297.8000;0.3590;1.3476;
1298.1000;0.3598;1.3547;
1298.4000;0.3582;1.3405;
1298.7000;0.3598;1.3476;
1299.0000;0.3614;1.3547;
1299.3000;0.3525;1.3310;
1299.6000;0.3606;1.3594;
1299.9000;0.3622;1.3594;
1300.2000;0.3598;1.3500;
1300.5000;0.3590;1.3500;
1300.8000;0.3614;1.3571;
1301.1000;0.3614;1.3571;
1301.4000;0.3614;1.3500;
1301.7000;0.3606;1.3452;
1302.0000;0.3630;1.3500;
1302.3000;0.3614;1.3405;
1302.6000;0.3598;1.3428;
1302.9000;0.3606;1.3381;
1303.2000;0.3598;1.3381;
1303.5000;0.3582;1.3334;
1303.8000;0.3622;1.3452;
1304.1000;0.3614;1.3405;
1304.4000;0.3622;1.3452;
1304.7000;0.3606;1.3428;
1305.0000;0.3614;1.3452;
1305.3000;0.3590;1.3428;
1305.6000;0.3606;1.3500;
1305.9000;0.3582;1.3428;
1306.2000;0.3606;1.3500;
1306.5000;0.3598;1.3476;
1306.8000;0.3606;1.3452;
1307.1000;0.3598;1.3310;
1307.4000;0.3606;1.3262;
1307.7000;0.3598;1.3357;
1308.0000;0.3582;1.3262;
1308.3000;0.3614;1.3428;
1308.6000;0.3598;1.3381;
1308.9000;0.3598;1.3286;
1309.2000;0.3598;1.3334;
1309.5000;0.3598;1.3262;
1309.8000;0.3606;1.3191;
1310.1000;0.3630;1.3239;
1310.4000;0.3598;1.3239;
1310.7000;0.3606;1.3286;
1311.0000;0.3606;1.3310;
1311.3000;0.3614;1.3262;
1311.6000;0.3622;1.3262;
1311.9000;0.3598;1.3262;
1312.2000;0.3606;1.3381;
1312.5000;0.3614;1.3357;
1312.8000;0.3549;1.3286;
1313.1000;0.3606;1.3428;
1313.4000;0.3606;1.3428;
1313.7000;0.3598;1.3452;
1314.0000;0.3606;1.3500;
1314.3000;0.3614;1.3500;
1314.6000;0.3614;1.3428;
1314.9000;0.3598;1.3428;
1315.2000;0.3606;1.3405;
1315.5000;0.3606;1.3357;
1315.8000;0.3573;1.3191;
1316.1000;0.3573;1.3096;
1316.4000;0.3598;1.3239;
1316.7000;0.3590;1.3215;
1317.0000;0.3590;1.3310;
1317.3000;0.3606;1.3381;
1317.6000;0.3598;1.3405;
1317.9000;0.3606;1.3405;
1318.2000;0.3590;1.3357;
1318.5000;0.3557;1.3120;
1318.8000;0.3582;1.3191;
1319.1000;0.3590;1.3167;
1319.4000;0.3630;1.3286;
1319.7000;0.3614;1.3239;
1320.0000;0.3573;1.3191;
1320.3000;0.3622;1.3310;
1320.6000;0.3516;1.3049;
1320.9000;0.3606;1.3239;
1321.2000;0.3614;1.3286;
1321.5000;0.3614;1.3239;
1321.8000;0.3598;1.3144;
1322.1000;0.3598;1.3215;
1322.4000;0.3582;1.3167;
1322.7000;0.3590;1.3239;
1323.0000;0.3606;1.3239;
1323.3000;0.3679;1.3405;
1323.6000;0.3606;1.3167;
1323.9000;0.3639;1.3239;
1324.2000;0.3606;1.3215;
1324.5000;0.3598;1.3262;
1324.8000;0.3606;1.3381;
1325.1000;0.3590;1.3381;
1325.4000;0.3598;1.3381;
1325.7000;0.3614;1.3381;
1326.0000;0.3606;1.3381;
1326.3000;0.3590;1.3381;
1326.6000;0.3606;1.3428;
1326.9000;0.3606;1.3334;
1327.2000;0.3606;1.3191;
1327.5000;0.3622;1.3215;
1327.8000;0.3606;1.3286;
1328.1000;0.3606;1.3310;
1328.4000;0.3606;1.3405;
1328.7000;0.3598;1.3381;
1329.0000;0.3606;1.3381;
1329.3000;0.3598;1.3452;
1329.6000;0.3614;1.3523;
1329.9000;0.3606;1.3523;
1330.2000;0.3614;1.3476;
1330.5000;0.3622;1.3476;
1330.8000;0.3622;1.3428;
1331.1000;0.3598;1.3405;
1331.4000;0.3614;1.3500;
1331.7000;0.3590;1.3357;
1332.0000;0.3614;1.3334;
1332.3000;0.3590;1.3310;
1332.6000;0.3614;1.3286;
1332.9000;0.3606;1.3286;
1333.2000;0.3598;1.3262;
1333.5000;0.3606;1.3239;
1333.8000;0.3598;1.3262;
1334.1000;0.3614;1.3357;
1334.4000;0.3606;1.3262;
1334.7000;0.3614;1.3239;
1335.0000;0.3590;1.3120;
1335.3000;0.3622;1.3239;
1335.6000;0.3630;1.3262;
1335.9000;0.3598;1.3262;
1336.2000;0.3598;1.3167;
1336.5000;0.3614;1.3215;
1336.8000;0.3614;1.3191;
1337.1000;0.3606;1.3191;
1337.4000;0.3598;1.3120;
1337.7000;0.3647;1.3167;
1338.0000;0.3622;1.3073;
1338.3000;0.3606;1.3073;
1338.6000;0.3598;1.3025;
1338.9000;0.3630;1.3096;
1339.2000;0.3622;1.3120;
1339.5000;0.3614;1.3049;
1339.8000;0.3704;1.3286;
1340.1000;0.3606;1.2978;
1340.4000;0.3614;1.2978;
1340.7000;0.3622;1.2954;
1341.0000;0.3598;1.2930;
1341.3000;0.3614;1.3001;
1341.6000;0.3598;1.3096;
1341.9000;0.3590;1.3096;
1342.2000;0.3598;1.3049;
1342.5000;0.3582;1.2954;
1342.8000;0.3696;1.3262;
1343.1000;0.3622;1.3049;
1343.4000;0.3598;1.3120;
1343.7000;0.3590;1.3144;
1344.0000;0.3606;1.3215;
1344.3000;0.3655;1.3286;
1344.6000;0.3606;1.3073;
1344.9000;0.3614;1.3120;
1345.2000;0.3590;1.3144;
1345.5000;0.3606;1.3167;
1345.8000;0.3525;1.2930;
1346.1000;0.3590;1.3049;
1346.4000;0.3598;1.3025;
1346.7000;0.3582;1.3049;
1347.0000;0.3549;1.3120;
1347.3000;0.3606;1.3239;
1347.6000;0.3598;1.3262;
1347.9000;0.3598;1.3191;
1348.2000;0.3606;1.3167;
1348.5000;0.3614;1.3096;
1348.8000;0.3598;1.3049;
1349.1000;0.3598;1.3001;
1349.4000;0.3598;1.3025;
1349.7000;0.3622;1.3096;
1350.0000;0.3606;1.3025;
1350.3000;0.3598;1.2978;
1350.6000;0.3614;1.3001;
1350.9000;0.3598;1.3025;
1351.2000;0.3598;1.3025;
1351.5000;0.3606;1.3001;
1351.8000;0.3606;1.3073;
1352.1000;0.3525;1.2930;
1352.4000;0.3590;1.3073;
1352.7000;0.3598;1.3096;
1353.0000;0.3598;1.3096;
1353.3000;0.3598;1.3073;
1353.6000;0.3598;1.2978;
1353.9000;0.3598;1.3025;
1354.2000;0.3606;1.2978;
1354.5000;0.3614;1.3025;
1354.8000;0.3606;1.3096;
1355.1000;0.3606;1.3144;
1355.4000;0.3630;1.3096;
1355.7000;0.3598;1.3025;
1356.0000;0.3614;1.3049;
1356.3000;0.3614;1.3049;
1356.6000;0.3573;1.3049;
1356.9000;0.3606;1.3167;
1357.2000;0.3598;1.3096;
1357.5000;0.3622;1.3167;
1357.8000;0.3598;1.3096;
1358.1000;0.3598;1.3073;
1358.4000;0.3606;1.3144;
1358.7000;0.3622;1.3120;
1359.0000;0.3614;1.3049;
1359.3000;0.3622;1.3144;
1359.6000;0.3614;1.3191;
1359.9000;0.3622;1.3167;
1360.2000;0.3598;1.3191;
1360.5000;0.3614;1.3144;
1360.8000;0.3614;1.3144;
1361.1000;0.3606;1.3049;
1361.4000;0.3606;1.3073;
1361.7000;0.3622;1.3144;
1362.0000;0.3606;1.3049;
1362.3000;0.3606;1.3001;
1362.6000;0.3598;1.3025;
1362.9000;0.3598;1.2978;
1363.2000;0.3647;1.3049;
1363.5000;0.3622;1.2954;
1363.8000;0.3639;1.3073;
1364.1000;0.3598;1.3144;
1364.4000;0.3614;1.3310;
1364.7000;0.3606;1.3334;
1365.0000;0.3622;1.3262;
1365.3000;0.3647;1.3310;
1365.6000;0.3614;1.3144;
1365.9000;0.3671;1.3357;
1366.2000;0.3598;1.3215;
1366.5000;0.3663;1.3357;
1366.8000;0.3598;1.3191;
1367.1000;0.3598;1.3144;
1367.4000;0.3614;1.3144;
1367.7000;0.3541;1.3025;
1368.0000;0.3606;1.3049;
1368.3000;0.3573;1.2906;
1368.6000;0.3606;1.2954;
1368.9000;0.3525;1.2835;
1369.2000;0.3598;1.2978;
1369.5000;0.3573;1.2930;
1369.8000;0.3728;1.3357;
1370.1000;0.3606;1.3073;
1370.4000;0.3565;1.3049;
1370.7000;0.3598;1.3167;
1371.0000;0.3606;1.3215;
1371.3000;0.3614;1.3215;
1371.6000;0.3614;1.3167;
1371.9000;0.3590;1.3073;
1372.2000;0.3606;1.3096;
1372.5000;0.3590;1.3049;
1372.8000;0.3614;1.3073;
1373.1000;0.3598;1.3073;
1373.4000;0.3614;1.3144;
1373.7000;0.3598;1.3144;
1374.0000;0.3598;1.3144;
1374.3000;0.3590;1.3120;
1374.6000;0.3590;1.3215;
1374.9000;0.3606;1.3310;
1375.2000;0.3606;1.3262;
1375.5000;0.3614;1.3191;
1375.8000;0.3606;1.3239;
1376.1000;0.3614;1.3239;
1376.4000;0.3606;1.3144;
1376.7000;0.3582;1.3167;
1377.0000;0.3598;1.3073;
1377.3000;0.3606;1.3096;
1377.6000;0.3573;1.3049;
1377.9000;0.3598;1.3025;
1378.2000;0.3598;1.3001;
1378.5000;0.3614;1.3144;
1378.8000;0.3582;1.3120;
1379.1000;0.3606;1.3191;
1379.4000;0.3679;1.3476;
1379.7000;0.3622;1.3239;
1380.0000;0.3614;1.3286;
1380.3000;0.3606;1.3215;
1380.6000;0.3622;1.3239;
1380.9000;0.3598;1.3167;
1381.2000;0.3622;1.3144;
1381.5000;0.3598;1.3120;
1381.8000;0.3614;1.3073;
1382.1000;0.3622;1.3096;
1382.4000;0.3614;1.3144;
1382.7000;0.3630;1.3144;
1383.0000;0.3614;1.3120;
1383.3000;0.3614;1.3120;
1383.6000;0.3598;1.3025;
1383.9000;0.3614;1.3025;
1384.2000;0.3598;1.3025;
1384.5000;0.3606;1.3025;
1384.8000;0.3671;1.3167;
1385.1000;0.3582;1.3025;
1385.4000;0.3582;1.3073;
1385.7000;0.3639;1.3262;
1386.0000;0.3549;1.3073;
1386.3000;0.3590;1.3262;
1386.6000;0.3622;1.3357;
1386.9000;0.3590;1.3239;
1387.2000;0.3598;1.3334;
1387.5000;0.3598;1.3262;
1387.8000;0.3606;1.3262;
1388.1000;0.3549;1.3167;
1388.4000;0.3590;1.3215;
1388.7000;0.3606;1.3310;
1389.0000;0.3606;1.3357;
1389.3000;0.3590;1.3262;
1389.6000;0.3565;1.3191;
1389.9000;0.3598;1.3286;
1390.2000;0.3590;1.3215;
1390.5000;0.3565;1.3073;
1390.8000;0.3565;1.3191;
1391.1000;0.3598;1.3286;
1391.4000;0.3614;1.3357;
1391.7000;0.3590;1.3262;
1392.0000;0.3606;1.3262;
1392.3000;0.3614;1.3310;
1392.6000;0.3606;1.3286;
1392.9000;0.3622;1.3357;
1393.2000;0.3590;1.3310;
1393.5000;0.3598;1.3239;
1393.8000;0.3614;1.3191;
1394.1000;0.3630;1.3215;
1394.4000;0.3573;1.3049;
1394.7000;0.3614;1.3096;
1395.0000;0.3614;1.3120;
1395.3000;0.3614;1.3120;
1395.6000;0.3622;1.3120;
1395.9000;0.3606;1.3073;
1396.2000;0.3606;1.3144;
1396.5000;0.3614;1.3215;
1396.8000;0.3606;1.3239;
1397.1000;0.3598;1.3286;
1397.4000;0.3614;1.3381;
1397.7000;0.3614;1.3405;
1398.0000;0.3606;1.3357;
1398.3000;0.3590;1.3357;
1398.6000;0.3598;1.3381;
1398.9000;0.3614;1.3452;
1399.2000;0.3598;1.3547;
1399.5000;0.3614;1.3523;
1399.8000;0.3598;1.3500;
