time/ms;Fluo/V;P700 deltaI/I x10³;
-199.8000;0.5161;1.4140;
-199.5000;0.5128;1.4069;
-199.2000;0.5128;1.4116;
-198.9000;0.5120;1.4069;
-198.6000;0.5153;1.4188;
-198.3000;0.5161;1.4330;
-198.0000;0.5136;1.4306;
-197.7000;0.5144;1.4354;
-197.4000;0.5136;1.4259;
-197.1000;0.5120;1.4140;
-196.8000;0.5120;1.4022;
-196.5000;0.5128;1.3998;
-196.2000;0.5136;1.4045;
-195.9000;0.5153;1.4140;
-195.6000;0.5112;1.4069;
-195.3000;0.5144;1.4116;
-195.0000;0.5144;1.4069;
-194.7000;0.5161;1.4116;
-194.4000;0.5128;1.4045;
-194.1000;0.5226;1.4306;
-193.8000;0.5169;1.4069;
-193.5000;0.5136;1.4116;
-193.2000;0.5144;1.4140;
-192.9000;0.5144;1.4140;
-192.6000;0.5136;1.4069;
-192.3000;0.5161;1.4116;
-192.0000;0.5218;1.4283;
-191.7000;0.5136;1.4045;
-191.4000;0.5128;1.3879;
-191.1000;0.5136;1.3903;
-190.8000;0.5136;1.3927;
-190.5000;0.5169;1.3903;
-190.2000;0.5136;1.3808;
-189.9000;0.5096;1.3737;
-189.6000;0.5047;1.3689;
-189.3000;0.5136;1.3879;
-189.0000;0.5144;1.3903;
-188.7000;0.5144;1.3927;
-188.4000;0.5144;1.3879;
-188.1000;0.5120;1.3927;
-187.8000;0.5112;1.3950;
-187.5000;0.5112;1.4022;
-187.2000;0.5120;1.4093;
-186.9000;0.5136;1.4116;
-186.6000;0.5128;1.4069;
-186.3000;0.5144;1.4069;
-186.0000;0.5096;1.3927;
-185.7000;0.5161;1.4069;
-185.4000;0.5144;1.4022;
-185.1000;0.5128;1.3950;
-184.8000;0.5153;1.3903;
-184.5000;0.5153;1.3832;
-184.2000;0.5128;1.3761;
-183.9000;0.5161;1.3879;
-183.6000;0.5153;1.3879;
-183.3000;0.5079;1.3713;
-183.0000;0.5128;1.3855;
-182.7000;0.5153;1.3927;
-182.4000;0.5136;1.3855;
-182.1000;0.5104;1.3761;
-181.8000;0.5120;1.3903;
-181.5000;0.5120;1.3927;
-181.2000;0.5104;1.3950;
-180.9000;0.5128;1.4022;
-180.6000;0.5136;1.4093;
-180.3000;0.5144;1.4069;
-180.0000;0.5136;1.4022;
-179.7000;0.5144;1.3998;
-179.4000;0.5144;1.4022;
-179.1000;0.5096;1.3974;
-178.8000;0.5136;1.3998;
-178.5000;0.5136;1.4045;
-178.2000;0.5120;1.4116;
-177.9000;0.5153;1.4164;
-177.6000;0.5120;1.4045;
-177.3000;0.5096;1.3998;
-177.0000;0.5120;1.4045;
-176.7000;0.5136;1.4093;
-176.4000;0.5136;1.4069;
-176.1000;0.5104;1.3950;
-175.8000;0.5136;1.3998;
-175.5000;0.5136;1.3998;
-175.2000;0.5144;1.4069;
-174.9000;0.5136;1.3998;
-174.6000;0.5136;1.4022;
-174.3000;0.5153;1.3998;
-174.0000;0.5144;1.3974;
-173.7000;0.5144;1.3950;
-173.4000;0.5144;1.3950;
-173.1000;0.5161;1.3974;
-172.8000;0.5161;1.3950;
-172.5000;0.5128;1.3927;
-172.2000;0.5144;1.3950;
-171.9000;0.5153;1.3974;
-171.6000;0.5144;1.3927;
-171.3000;0.5120;1.3808;
-171.0000;0.5128;1.3879;
-170.7000;0.5079;1.3784;
-170.4000;0.5128;1.3950;
-170.1000;0.5136;1.3974;
-169.8000;0.5136;1.3974;
-169.5000;0.5112;1.3950;
-169.2000;0.5144;1.4069;
-168.9000;0.5144;1.4093;
-168.6000;0.5234;1.4354;
-168.3000;0.5136;1.4069;
-168.0000;0.5153;1.4116;
-167.7000;0.5144;1.4140;
-167.4000;0.5120;1.4069;
-167.1000;0.5144;1.4069;
-166.8000;0.5153;1.4116;
-166.5000;0.5136;1.4045;
-166.2000;0.5144;1.4164;
-165.9000;0.5071;1.3950;
-165.6000;0.5210;1.4306;
-165.3000;0.5128;1.4093;
-165.0000;0.5136;1.4116;
-164.7000;0.5128;1.4093;
-164.4000;0.5153;1.4211;
-164.1000;0.5144;1.4211;
-163.8000;0.5120;1.4069;
-163.5000;0.5144;1.3998;
-163.2000;0.5136;1.4069;
-162.9000;0.5144;1.4188;
-162.6000;0.5144;1.4164;
-162.3000;0.5136;1.4164;
-162.0000;0.5144;1.4140;
-161.7000;0.5128;1.4093;
-161.4000;0.5136;1.4069;
-161.1000;0.5112;1.4045;
-160.8000;0.5144;1.4069;
-160.5000;0.5144;1.4164;
-160.2000;0.5153;1.4116;
-159.9000;0.5144;1.4164;
-159.6000;0.5136;1.4188;
-159.3000;0.5144;1.4259;
-159.0000;0.5136;1.4235;
-158.7000;0.5120;1.4164;
-158.4000;0.5128;1.4211;
-158.1000;0.5161;1.4449;
-157.8000;0.5161;1.4496;
-157.5000;0.5144;1.4354;
-157.2000;0.5144;1.4425;
-156.9000;0.5112;1.4330;
-156.6000;0.5144;1.4377;
-156.3000;0.5136;1.4330;
-156.0000;0.5144;1.4330;
-155.7000;0.5128;1.4235;
-155.4000;0.5136;1.4140;
-155.1000;0.5250;1.4377;
-154.8000;0.5136;1.4022;
-154.5000;0.5153;1.4116;
-154.2000;0.5226;1.4259;
-153.9000;0.5112;1.3998;
-153.6000;0.5104;1.4069;
-153.3000;0.5136;1.4116;
-153.0000;0.5136;1.4164;
-152.7000;0.5153;1.4164;
-152.4000;0.5128;1.4116;
-152.1000;0.5136;1.4093;
-151.8000;0.5136;1.4045;
-151.5000;0.5144;1.4069;
-151.2000;0.5136;1.4022;
-150.9000;0.5144;1.4045;
-150.6000;0.5144;1.4069;
-150.3000;0.5136;1.4022;
-150.0000;0.5104;1.3903;
-149.7000;0.5128;1.3879;
-149.4000;0.5136;1.3903;
-149.1000;0.5153;1.4045;
-148.8000;0.5128;1.3974;
-148.5000;0.5144;1.3950;
-148.2000;0.5128;1.4022;
-147.9000;0.5136;1.3998;
-147.6000;0.5161;1.4069;
-147.3000;0.5144;1.4069;
-147.0000;0.5104;1.3974;
-146.7000;0.5079;1.3927;
-146.4000;0.5128;1.3998;
-146.1000;0.5153;1.4022;
-145.8000;0.5144;1.3998;
-145.5000;0.5120;1.4093;
-145.2000;0.5136;1.4140;
-144.9000;0.5120;1.4045;
-144.6000;0.5153;1.4069;
-144.3000;0.5144;1.4022;
-144.0000;0.5136;1.4022;
-143.7000;0.5136;1.4069;
-143.4000;0.5144;1.4116;
-143.1000;0.5144;1.4116;
-142.8000;0.5153;1.4093;
-142.5000;0.5136;1.4116;
-142.2000;0.5136;1.4022;
-141.9000;0.5120;1.4022;
-141.6000;0.5144;1.4093;
-141.3000;0.5128;1.4045;
-141.0000;0.5136;1.3998;
-140.7000;0.5128;1.4022;
-140.4000;0.5136;1.4045;
-140.1000;0.5136;1.4045;
-139.8000;0.5144;1.4093;
-139.5000;0.5128;1.4140;
-139.2000;0.5136;1.4211;
-138.9000;0.5144;1.4306;
-138.6000;0.5169;1.4330;
-138.3000;0.5136;1.4164;
-138.0000;0.5144;1.4140;
-137.7000;0.5144;1.4164;
-137.4000;0.5136;1.4116;
-137.1000;0.5161;1.4116;
-136.8000;0.5136;1.4093;
-136.5000;0.5144;1.4069;
-136.2000;0.5136;1.3950;
-135.9000;0.5128;1.4069;
-135.6000;0.5079;1.3903;
-135.3000;0.5136;1.4140;
-135.0000;0.5144;1.4164;
-134.7000;0.5112;1.4069;
-134.4000;0.5136;1.4045;
-134.1000;0.5144;1.4022;
-133.8000;0.5136;1.4140;
-133.5000;0.5136;1.4116;
-133.2000;0.5128;1.4164;
-132.9000;0.5144;1.4283;
-132.6000;0.5144;1.4283;
-132.3000;0.5153;1.4283;
-132.0000;0.5128;1.4188;
-131.7000;0.5112;1.4164;
-131.4000;0.5136;1.4259;
-131.1000;0.5120;1.4188;
-130.8000;0.5136;1.4188;
-130.5000;0.5096;1.4045;
-130.2000;0.5128;1.4116;
-129.9000;0.5144;1.4164;
-129.6000;0.5120;1.4116;
-129.3000;0.5120;1.4164;
-129.0000;0.5136;1.4164;
-128.7000;0.5169;1.4306;
-128.4000;0.5177;1.4283;
-128.1000;0.5136;1.4093;
-127.8000;0.5153;1.4211;
-127.5000;0.5088;1.4045;
-127.2000;0.5177;1.4164;
-126.9000;0.5128;1.4093;
-126.6000;0.5136;1.4093;
-126.3000;0.5210;1.4259;
-126.0000;0.5136;1.4188;
-125.7000;0.5153;1.4116;
-125.4000;0.5136;1.4164;
-125.1000;0.5144;1.4235;
-124.8000;0.5153;1.4211;
-124.5000;0.5136;1.4188;
-124.2000;0.5136;1.4164;
-123.9000;0.5136;1.4164;
-123.6000;0.5144;1.4140;
-123.3000;0.5153;1.4211;
-123.0000;0.5128;1.4188;
-122.7000;0.5128;1.4188;
-122.4000;0.5144;1.4188;
-122.1000;0.5144;1.4235;
-121.8000;0.5136;1.4283;
-121.5000;0.5128;1.4259;
-121.2000;0.5128;1.4235;
-120.9000;0.5104;1.4140;
-120.6000;0.5136;1.4211;
-120.3000;0.5136;1.4330;
-120.0000;0.5144;1.4354;
-119.7000;0.5144;1.4449;
-119.4000;0.5136;1.4449;
-119.1000;0.5128;1.4401;
-118.8000;0.5201;1.4591;
-118.5000;0.5144;1.4401;
-118.2000;0.5128;1.4306;
-117.9000;0.5128;1.4259;
-117.6000;0.5120;1.4259;
-117.3000;0.5136;1.4401;
-117.0000;0.5096;1.4354;
-116.7000;0.5128;1.4449;
-116.4000;0.5120;1.4449;
-116.1000;0.5128;1.4425;
-115.8000;0.5128;1.4449;
-115.5000;0.5120;1.4354;
-115.2000;0.5161;1.4496;
-114.9000;0.5161;1.4567;
-114.6000;0.5153;1.4520;
-114.3000;0.5120;1.4425;
-114.0000;0.5144;1.4425;
-113.7000;0.5128;1.4401;
-113.4000;0.5153;1.4377;
-113.1000;0.5144;1.4449;
-112.8000;0.5104;1.4401;
-112.5000;0.5144;1.4591;
-112.2000;0.5128;1.4543;
-111.9000;0.5128;1.4496;
-111.6000;0.5161;1.4567;
-111.3000;0.5079;1.4283;
-111.0000;0.5161;1.4354;
-110.7000;0.5136;1.4283;
-110.4000;0.5112;1.4188;
-110.1000;0.5128;1.4283;
-109.8000;0.5144;1.4354;
-109.5000;0.5136;1.4306;
-109.2000;0.5128;1.4211;
-108.9000;0.5071;1.4140;
-108.6000;0.5136;1.4377;
-108.3000;0.5169;1.4354;
-108.0000;0.5144;1.4330;
-107.7000;0.5144;1.4283;
-107.4000;0.5144;1.4306;
-107.1000;0.5144;1.4377;
-106.8000;0.5136;1.4425;
-106.5000;0.5128;1.4354;
-106.2000;0.5136;1.4377;
-105.9000;0.5144;1.4425;
-105.6000;0.5128;1.4354;
-105.3000;0.5210;1.4543;
-105.0000;0.5120;1.4235;
-104.7000;0.5144;1.4235;
-104.4000;0.5128;1.4235;
-104.1000;0.5136;1.4259;
-103.8000;0.5120;1.4330;
-103.5000;0.5169;1.4330;
-103.2000;0.5153;1.4235;
-102.9000;0.5153;1.4259;
-102.6000;0.5136;1.4211;
-102.3000;0.5136;1.4188;
-102.0000;0.5071;1.4069;
-101.7000;0.5128;1.4211;
-101.4000;0.5128;1.4259;
-101.1000;0.5136;1.4211;
-100.8000;0.5136;1.4211;
-100.5000;0.5136;1.4140;
-100.2000;0.5153;1.4188;
-99.9000;0.5210;1.4306;
-99.6000;0.5144;1.4188;
-99.3000;0.5144;1.4235;
-99.0000;0.5144;1.4283;
-98.7000;0.5218;1.4520;
-98.4000;0.5144;1.4259;
-98.1000;0.5136;1.4283;
-97.8000;0.5136;1.4306;
-97.5000;0.5144;1.4330;
-97.2000;0.5144;1.4377;
-96.9000;0.5201;1.4520;
-96.6000;0.5144;1.4283;
-96.3000;0.5136;1.4306;
-96.0000;0.5136;1.4354;
-95.7000;0.5055;1.4188;
-95.4000;0.5144;1.4401;
-95.1000;0.5136;1.4425;
-94.8000;0.5177;1.4520;
-94.5000;0.5039;1.4211;
-94.2000;0.5144;1.4425;
-93.9000;0.5136;1.4235;
-93.6000;0.5144;1.4306;
-93.3000;0.5144;1.4306;
-93.0000;0.5136;1.4330;
-92.7000;0.5136;1.4283;
-92.4000;0.5128;1.4188;
-92.1000;0.5153;1.4164;
-91.8000;0.5136;1.4164;
-91.5000;0.5136;1.4093;
-91.2000;0.5144;1.4116;
-90.9000;0.5153;1.4259;
-90.6000;0.5161;1.4354;
-90.3000;0.5144;1.4306;
-90.0000;0.5153;1.4354;
-89.7000;0.5153;1.4306;
-89.4000;0.5153;1.4354;
-89.1000;0.5177;1.4472;
-88.8000;0.5128;1.4354;
-88.5000;0.5120;1.4211;
-88.2000;0.5177;1.4377;
-87.9000;0.5161;1.4283;
-87.6000;0.5136;1.4283;
-87.3000;0.5144;1.4235;
-87.0000;0.5128;1.4235;
-86.7000;0.5120;1.4211;
-86.4000;0.5136;1.4235;
-86.1000;0.5169;1.4354;
-85.8000;0.5136;1.4259;
-85.5000;0.5144;1.4259;
-85.2000;0.5136;1.4211;
-84.9000;0.5120;1.4164;
-84.6000;0.5104;1.4211;
-84.3000;0.5144;1.4306;
-84.0000;0.5144;1.4235;
-83.7000;0.5128;1.4164;
-83.4000;0.5096;1.4093;
-83.1000;0.5128;1.4164;
-82.8000;0.5128;1.4259;
-82.5000;0.5120;1.4235;
-82.2000;0.5144;1.4259;
-81.9000;0.5153;1.4259;
-81.6000;0.5120;1.4164;
-81.3000;0.5112;1.4069;
-81.0000;0.5169;1.4188;
-80.7000;0.5136;1.3950;
-80.4000;0.5193;1.4116;
-80.1000;0.5153;1.4069;
-79.8000;0.5144;1.4045;
-79.5000;0.5144;1.3974;
-79.2000;0.5153;1.4022;
-78.9000;0.5153;1.3998;
-78.6000;0.5153;1.4093;
-78.3000;0.5136;1.4093;
-78.0000;0.5031;1.3855;
-77.7000;0.5136;1.4164;
-77.4000;0.5120;1.4211;
-77.1000;0.5144;1.4235;
-76.8000;0.5136;1.4211;
-76.5000;0.5128;1.4211;
-76.2000;0.5128;1.4188;
-75.9000;0.5153;1.4283;
-75.6000;0.5112;1.4188;
-75.3000;0.5153;1.4259;
-75.0000;0.5128;1.4283;
-74.7000;0.5128;1.4306;
-74.4000;0.5128;1.4283;
-74.1000;0.5161;1.4330;
-73.8000;0.5153;1.4283;
-73.5000;0.5128;1.4259;
-73.2000;0.5144;1.4211;
-72.9000;0.5112;1.4116;
-72.6000;0.5226;1.4306;
-72.3000;0.5128;1.3950;
-72.0000;0.5071;1.3808;
-71.7000;0.5144;1.4045;
-71.4000;0.5104;1.3950;
-71.1000;0.5120;1.3998;
-70.8000;0.5136;1.4022;
-70.5000;0.5128;1.3998;
-70.2000;0.5120;1.4093;
-69.9000;0.5120;1.4235;
-69.6000;0.5136;1.4283;
-69.3000;0.5144;1.4306;
-69.0000;0.5144;1.4377;
-68.7000;0.5136;1.4259;
-68.4000;0.5144;1.4211;
-68.1000;0.5144;1.4188;
-67.8000;0.5144;1.4164;
-67.5000;0.5153;1.4306;
-67.2000;0.5128;1.4211;
-66.9000;0.5153;1.4306;
-66.6000;0.5153;1.4306;
-66.3000;0.5144;1.4259;
-66.0000;0.5153;1.4425;
-65.7000;0.5128;1.4330;
-65.4000;0.5136;1.4259;
-65.1000;0.5153;1.4377;
-64.8000;0.5088;1.4164;
-64.5000;0.5120;1.4140;
-64.2000;0.5136;1.4045;
-63.9000;0.5144;1.4069;
-63.6000;0.5185;1.4188;
-63.3000;0.5136;1.4116;
-63.0000;0.5104;1.4045;
-62.7000;0.5144;1.4093;
-62.4000;0.5128;1.4116;
-62.1000;0.5136;1.4235;
-61.8000;0.5136;1.4211;
-61.5000;0.5153;1.4164;
-61.2000;0.5136;1.4069;
-60.9000;0.5144;1.4164;
-60.6000;0.5136;1.4116;
-60.3000;0.5136;1.4093;
-60.0000;0.5136;1.4140;
-59.7000;0.5136;1.4140;
-59.4000;0.5112;1.4116;
-59.1000;0.5136;1.4164;
-58.8000;0.5144;1.4140;
-58.5000;0.5136;1.4140;
-58.2000;0.5136;1.4140;
-57.9000;0.5144;1.4211;
-57.6000;0.5144;1.4188;
-57.3000;0.5096;1.4140;
-57.0000;0.5161;1.4330;
-56.7000;0.5153;1.4330;
-56.4000;0.5153;1.4330;
-56.1000;0.5120;1.4306;
-55.8000;0.5128;1.4283;
-55.5000;0.5161;1.4306;
-55.2000;0.5153;1.4235;
-54.9000;0.5136;1.4211;
-54.6000;0.5153;1.4306;
-54.3000;0.5128;1.4283;
-54.0000;0.5136;1.4259;
-53.7000;0.5136;1.4259;
-53.4000;0.5161;1.4283;
-53.1000;0.5144;1.4235;
-52.8000;0.5153;1.4330;
-52.5000;0.5120;1.4306;
-52.2000;0.5136;1.4306;
-51.9000;0.5153;1.4354;
-51.6000;0.5120;1.4140;
-51.3000;0.5120;1.4140;
-51.0000;0.5136;1.4188;
-50.7000;0.5128;1.4211;
-50.4000;0.5128;1.4211;
-50.1000;0.5144;1.4259;
-49.8000;0.5096;1.4116;
-49.5000;0.5128;1.4259;
-49.2000;0.5112;1.4377;
-48.9000;0.5153;1.4472;
-48.6000;0.5128;1.4449;
-48.3000;0.5144;1.4449;
-48.0000;0.5136;1.4354;
-47.7000;0.5153;1.4283;
-47.4000;0.5120;1.4235;
-47.1000;0.5136;1.4283;
-46.8000;0.5112;1.4283;
-46.5000;0.5144;1.4306;
-46.2000;0.5136;1.4259;
-45.9000;0.5144;1.4235;
-45.6000;0.5136;1.4235;
-45.3000;0.5144;1.4164;
-45.0000;0.5136;1.4211;
-44.7000;0.5161;1.4283;
-44.4000;0.5136;1.4259;
-44.1000;0.5193;1.4283;
-43.8000;0.5169;1.4140;
-43.5000;0.5153;1.4069;
-43.2000;0.5144;1.4093;
-42.9000;0.5128;1.4188;
-42.6000;0.5128;1.4140;
-42.3000;0.5136;1.4164;
-42.0000;0.5112;1.4093;
-41.7000;0.5136;1.4093;
-41.4000;0.5144;1.4069;
-41.1000;0.5120;1.4069;
-40.8000;0.5128;1.4022;
-40.5000;0.5153;1.4069;
-40.2000;0.5136;1.3950;
-39.9000;0.5136;1.3998;
-39.6000;0.5153;1.4140;
-39.3000;0.5144;1.4116;
-39.0000;0.5120;1.4140;
-38.7000;0.5136;1.4235;
-38.4000;0.5136;1.4164;
-38.1000;0.5136;1.4093;
-37.8000;0.5136;1.4069;
-37.5000;0.5128;1.4069;
-37.2000;0.5096;1.4093;
-36.9000;0.5128;1.4188;
-36.6000;0.5096;1.4188;
-36.3000;0.5136;1.4259;
-36.0000;0.5136;1.4211;
-35.7000;0.5079;1.3927;
-35.4000;0.5153;1.4211;
-35.1000;0.5144;1.4211;
-34.8000;0.5128;1.4164;
-34.5000;0.5161;1.4283;
-34.2000;0.5128;1.4116;
-33.9000;0.5144;1.4093;
-33.6000;0.5088;1.3950;
-33.3000;0.5144;1.4045;
-33.0000;0.5153;1.4116;
-32.7000;0.5128;1.4069;
-32.4000;0.5136;1.4022;
-32.1000;0.5144;1.3950;
-31.8000;0.5153;1.4022;
-31.5000;0.5128;1.3998;
-31.2000;0.5144;1.4069;
-30.9000;0.5128;1.4093;
-30.6000;0.5185;1.4283;
-30.3000;0.5144;1.4164;
-30.0000;0.5128;1.4140;
-29.7000;0.5144;1.4283;
-29.4000;0.5161;1.4306;
-29.1000;0.5210;1.4496;
-28.8000;0.5144;1.4330;
-28.5000;0.5136;1.4330;
-28.2000;0.5153;1.4306;
-27.9000;0.5120;1.4306;
-27.6000;0.5144;1.4425;
-27.3000;0.5128;1.4425;
-27.0000;0.5120;1.4425;
-26.7000;0.5144;1.4472;
-26.4000;0.5177;1.4662;
-26.1000;0.5161;1.4638;
-25.8000;0.5128;1.4567;
-25.5000;0.5120;1.4520;
-25.2000;0.5128;1.4472;
-24.9000;0.5226;1.4662;
-24.6000;0.5153;1.4543;
-24.3000;0.5153;1.4496;
-24.0000;0.5128;1.4449;
-23.7000;0.5144;1.4496;
-23.4000;0.5153;1.4567;
-23.1000;0.5104;1.4472;
-22.8000;0.5120;1.4472;
-22.5000;0.5144;1.4496;
-22.2000;0.5144;1.4496;
-21.9000;0.5128;1.4520;
-21.6000;0.5112;1.4472;
-21.3000;0.5136;1.4567;
-21.0000;0.5128;1.4615;
-20.7000;0.5096;1.4591;
-20.4000;0.5112;1.4662;
-20.1000;0.5112;1.4662;
-19.8000;0.5128;1.4615;
-19.5000;0.5136;1.4591;
-19.2000;0.5136;1.4472;
-18.9000;0.5136;1.4520;
-18.6000;0.5136;1.4591;
-18.3000;0.5120;1.4520;
-18.0000;0.5144;1.4496;
-17.7000;0.5144;1.4496;
-17.4000;0.5128;1.4472;
-17.1000;0.5112;1.4449;
-16.8000;0.5161;1.4638;
-16.5000;0.5153;1.4591;
-16.2000;0.5144;1.4543;
-15.9000;0.5136;1.4496;
-15.6000;0.5153;1.4591;
-15.3000;0.5136;1.4567;
-15.0000;0.5136;1.4425;
-14.7000;0.5161;1.4472;
-14.4000;0.5144;1.4330;
-14.1000;0.5144;1.4306;
-13.8000;0.5136;1.4330;
-13.5000;0.5136;1.4330;
-13.2000;0.5136;1.4449;
-12.9000;0.5144;1.4401;
-12.6000;0.5128;1.4283;
-12.3000;0.5128;1.4330;
-12.0000;0.5136;1.4472;
-11.7000;0.5169;1.4567;
-11.4000;0.5128;1.4425;
-11.1000;0.5120;1.4354;
-10.8000;0.5144;1.4306;
-10.5000;0.5153;1.4401;
-10.2000;0.5144;1.4377;
-9.9000;0.5136;1.4401;
-9.6000;0.5153;1.4354;
-9.3000;0.5210;1.4496;
-9.0000;0.5096;1.4283;
-8.7000;0.5120;1.4377;
-8.4000;0.5153;1.4425;
-8.1000;0.5128;1.4425;
-7.8000;0.5120;1.4377;
-7.5000;0.5128;1.4330;
-7.2000;0.5136;1.4306;
-6.9000;0.5128;1.4377;
-6.6000;0.5144;1.4354;
-6.3000;0.5136;1.4306;
-6.0000;0.5136;1.4306;
-5.7000;0.5136;1.4330;
-5.4000;0.5153;1.4330;
-5.1000;0.5144;1.4330;
-4.8000;0.5128;1.4306;
-4.5000;0.5144;1.4283;
-4.2000;0.5153;1.4306;
-3.9000;0.5136;1.4235;
-3.6000;0.5144;1.4259;
-3.3000;0.5153;1.4283;
-3.0000;0.5153;1.4235;
-2.7000;0.5136;1.4140;
-2.4000;0.5144;1.4140;
-2.1000;0.5120;1.4116;
-1.8000;0.5177;1.4283;
-1.5000;0.5136;1.4188;
-1.2000;0.5120;1.4164;
-0.9000;0.5128;1.4164;
-0.6000;0.5128;1.4140;
-0.3000;0.5128;1.4164;
0.0000;0.5128;1.4164;
0.3000;0.5226;1.4401;
0.6000;0.5397;1.4662;
0.9000;0.5519;1.4852;
1.2000;0.5617;1.5018;
1.5000;0.5674;1.5208;
1.8000;0.5739;1.5303;
2.1000;0.5796;1.5350;
2.4000;0.5861;1.5469;
2.7000;0.5869;1.5540;
3.0000;0.5918;1.5659;
3.3000;0.5934;1.5753;
3.6000;0.5950;1.5801;
3.9000;0.5958;1.5896;
4.2000;0.6024;1.6038;
4.5000;0.5991;1.6014;
4.8000;0.6024;1.6062;
5.1000;0.6024;1.6133;
5.4000;0.6040;1.6062;
5.7000;0.6072;1.6109;
6.0000;0.6089;1.6133;
6.3000;0.6097;1.6181;
6.6000;0.6105;1.6109;
6.9000;0.6129;1.6252;
7.2000;0.6129;1.6228;
7.5000;0.6138;1.6133;
7.8000;0.6154;1.6204;
8.1000;0.6154;1.6204;
8.4000;0.6170;1.6347;
8.7000;0.6203;1.6394;
9.0000;0.6178;1.6347;
9.3000;0.6203;1.6347;
9.6000;0.6219;1.6275;
9.9000;0.6211;1.6181;
10.2000;0.6219;1.6204;
10.5000;0.6227;1.6228;
10.8000;0.6243;1.6323;
11.1000;0.6252;1.6252;
11.4000;0.6235;1.6228;
11.7000;0.6284;1.6347;
12.0000;0.6276;1.6275;
12.3000;0.6292;1.6275;
12.6000;0.6276;1.6204;
12.9000;0.6276;1.6228;
13.2000;0.6276;1.6204;
13.5000;0.6219;1.5967;
13.8000;0.6317;1.6204;
14.1000;0.6333;1.6275;
14.4000;0.6325;1.6347;
14.7000;0.6333;1.6347;
15.0000;0.6341;1.6275;
15.3000;0.6341;1.6275;
15.6000;0.6325;1.6228;
15.9000;0.6341;1.6252;
16.2000;0.6357;1.6228;
16.5000;0.6349;1.6228;
16.8000;0.6357;1.6252;
17.1000;0.6365;1.6252;
17.4000;0.6357;1.6204;
17.7000;0.6374;1.6133;
18.0000;0.6365;1.6109;
18.3000;0.6414;1.6228;
18.6000;0.6382;1.6204;
18.9000;0.6357;1.6109;
19.2000;0.6390;1.6228;
19.5000;0.6390;1.6204;
19.8000;0.6398;1.6252;
20.1000;0.6398;1.6275;
20.4000;0.6390;1.6228;
20.7000;0.6390;1.6275;
21.0000;0.6422;1.6394;
21.3000;0.6414;1.6323;
21.6000;0.6406;1.6299;
21.9000;0.6382;1.6252;
22.2000;0.6439;1.6347;
22.5000;0.6414;1.6323;
22.8000;0.6414;1.6347;
23.1000;0.6512;1.6584;
23.4000;0.6414;1.6370;
23.7000;0.6431;1.6370;
24.0000;0.6422;1.6275;
24.3000;0.6414;1.6181;
24.6000;0.6431;1.6181;
24.9000;0.6431;1.6133;
25.2000;0.6439;1.6228;
25.5000;0.6422;1.6228;
25.8000;0.6439;1.6204;
26.1000;0.6439;1.6204;
26.4000;0.6439;1.6133;
26.7000;0.6455;1.6062;
27.0000;0.6414;1.6038;
27.3000;0.6455;1.6086;
27.6000;0.6447;1.6086;
27.9000;0.6431;1.6086;
28.2000;0.6439;1.6109;
28.5000;0.6455;1.6133;
28.8000;0.6455;1.6086;
29.1000;0.6439;1.6038;
29.4000;0.6455;1.5991;
29.7000;0.6422;1.5896;
30.0000;0.6439;1.5943;
30.3000;0.6463;1.5967;
30.6000;0.6455;1.6038;
30.9000;0.6431;1.5991;
31.2000;0.6463;1.6086;
31.5000;0.6455;1.6062;
31.8000;0.6447;1.6062;
32.1000;0.6455;1.6062;
32.4000;0.6463;1.6086;
32.7000;0.6471;1.6086;
33.0000;0.6512;1.6228;
33.3000;0.6455;1.6157;
33.6000;0.6455;1.6204;
33.9000;0.6471;1.6299;
34.2000;0.6463;1.6275;
34.5000;0.6496;1.6347;
34.8000;0.6471;1.6347;
35.1000;0.6479;1.6418;
35.4000;0.6479;1.6370;
35.7000;0.6471;1.6370;
36.0000;0.6504;1.6513;
36.3000;0.6463;1.6442;
36.6000;0.6471;1.6418;
36.9000;0.6520;1.6489;
37.2000;0.6471;1.6418;
37.5000;0.6479;1.6418;
37.8000;0.6488;1.6347;
38.1000;0.6455;1.6228;
38.4000;0.6471;1.6275;
38.7000;0.6504;1.6370;
39.0000;0.6488;1.6347;
39.3000;0.6479;1.6275;
39.6000;0.6479;1.6228;
39.9000;0.6479;1.6228;
40.2000;0.6496;1.6228;
40.5000;0.6496;1.6299;
40.8000;0.6488;1.6299;
41.1000;0.6471;1.6228;
41.4000;0.6496;1.6204;
41.7000;0.6488;1.6157;
42.0000;0.6512;1.6157;
42.3000;0.6504;1.6252;
42.6000;0.6471;1.6181;
42.9000;0.6479;1.6275;
43.2000;0.6455;1.6228;
43.5000;0.6479;1.6299;
43.8000;0.6471;1.6323;
44.1000;0.6488;1.6465;
44.4000;0.6496;1.6442;
44.7000;0.6488;1.6418;
45.0000;0.6577;1.6631;
45.3000;0.6545;1.6442;
45.6000;0.6488;1.6275;
45.9000;0.6496;1.6275;
46.2000;0.6504;1.6370;
46.5000;0.6520;1.6323;
46.8000;0.6504;1.6370;
47.1000;0.6488;1.6323;
47.4000;0.6504;1.6275;
47.7000;0.6504;1.6181;
48.0000;0.6496;1.6204;
48.3000;0.6504;1.6228;
48.6000;0.6471;1.6133;
48.9000;0.6447;1.6157;
49.2000;0.6488;1.6228;
49.5000;0.6496;1.6275;
49.8000;0.6504;1.6275;
50.1000;0.6512;1.6418;
50.4000;0.6504;1.6370;
50.7000;0.6504;1.6442;
51.0000;0.6463;1.6418;
51.3000;0.6512;1.6442;
51.6000;0.6479;1.6275;
51.9000;0.6512;1.6323;
52.2000;0.6504;1.6347;
52.5000;0.6496;1.6275;
52.8000;0.6520;1.6228;
53.1000;0.6479;1.6181;
53.4000;0.6488;1.6204;
53.7000;0.6512;1.6275;
54.0000;0.6504;1.6252;
54.3000;0.6496;1.6275;
54.6000;0.6471;1.6299;
54.9000;0.6488;1.6228;
55.2000;0.6504;1.6228;
55.5000;0.6504;1.6181;
55.8000;0.6479;1.6062;
56.1000;0.6512;1.6181;
56.4000;0.6479;1.6109;
56.7000;0.6512;1.6204;
57.0000;0.6479;1.6086;
57.3000;0.6488;1.6157;
57.6000;0.6479;1.6157;
57.9000;0.6479;1.6228;
58.2000;0.6479;1.6228;
58.5000;0.6528;1.6323;
58.8000;0.6520;1.6370;
59.1000;0.6528;1.6418;
59.4000;0.6496;1.6323;
59.7000;0.6504;1.6275;
60.0000;0.6512;1.6204;
60.3000;0.6439;1.6109;
60.6000;0.6545;1.6418;
60.9000;0.6512;1.6370;
61.2000;0.6504;1.6394;
61.5000;0.6512;1.6394;
61.8000;0.6512;1.6370;
62.1000;0.6520;1.6442;
62.4000;0.6504;1.6370;
62.7000;0.6512;1.6347;
63.0000;0.6512;1.6275;
63.3000;0.6520;1.6252;
63.6000;0.6496;1.6275;
63.9000;0.6496;1.6299;
64.2000;0.6512;1.6275;
64.5000;0.6496;1.6299;
64.8000;0.6504;1.6299;
65.1000;0.6512;1.6299;
65.4000;0.6512;1.6370;
65.7000;0.6504;1.6323;
66.0000;0.6504;1.6394;
66.3000;0.6512;1.6394;
66.6000;0.6528;1.6465;
66.9000;0.6520;1.6442;
67.2000;0.6504;1.6442;
67.5000;0.6512;1.6418;
67.8000;0.6520;1.6394;
68.1000;0.6520;1.6489;
68.4000;0.6504;1.6442;
68.7000;0.6496;1.6370;
69.0000;0.6504;1.6299;
69.3000;0.6504;1.6252;
69.6000;0.6520;1.6133;
69.9000;0.6496;1.6014;
70.2000;0.6528;1.6086;
70.5000;0.6528;1.6062;
70.8000;0.6528;1.6086;
71.1000;0.6520;1.6133;
71.4000;0.6536;1.6181;
71.7000;0.6504;1.6086;
72.0000;0.6520;1.6038;
72.3000;0.6496;1.5967;
72.6000;0.6504;1.5943;
72.9000;0.6561;1.6228;
73.2000;0.6553;1.6181;
73.5000;0.6504;1.6109;
73.8000;0.6504;1.6062;
74.1000;0.6504;1.6038;
74.4000;0.6545;1.6038;
74.7000;0.6520;1.6062;
75.0000;0.6520;1.6086;
75.3000;0.6488;1.5967;
75.6000;0.6536;1.6157;
75.9000;0.6520;1.6204;
76.2000;0.6520;1.6252;
76.5000;0.6528;1.6228;
76.8000;0.6520;1.6204;
77.1000;0.6528;1.6228;
77.4000;0.6569;1.6228;
77.7000;0.6520;1.6062;
78.0000;0.6414;1.5825;
78.3000;0.6512;1.6228;
78.6000;0.6504;1.6228;
78.9000;0.6512;1.6299;
79.2000;0.6504;1.6252;
79.5000;0.6520;1.6181;
79.8000;0.6512;1.6181;
80.1000;0.6463;1.6086;
80.4000;0.6512;1.6157;
80.7000;0.6528;1.6204;
81.0000;0.6528;1.6204;
81.3000;0.6520;1.6204;
81.6000;0.6496;1.6252;
81.9000;0.6520;1.6299;
82.2000;0.6528;1.6275;
82.5000;0.6414;1.5920;
82.8000;0.6512;1.6133;
83.1000;0.6496;1.6086;
83.4000;0.6536;1.6299;
83.7000;0.6479;1.6086;
84.0000;0.6504;1.6086;
84.3000;0.6593;1.6347;
84.6000;0.6512;1.6133;
84.9000;0.6528;1.6181;
85.2000;0.6512;1.6038;
85.5000;0.6528;1.6109;
85.8000;0.6512;1.6086;
86.1000;0.6528;1.6204;
86.4000;0.6528;1.6086;
86.7000;0.6520;1.6062;
87.0000;0.6512;1.6062;
87.3000;0.6520;1.6062;
87.6000;0.6528;1.5967;
87.9000;0.6528;1.6014;
88.2000;0.6528;1.6204;
88.5000;0.6520;1.6157;
88.8000;0.6504;1.6086;
89.1000;0.6520;1.5920;
89.4000;0.6520;1.5896;
89.7000;0.6536;1.5967;
90.0000;0.6528;1.6014;
90.3000;0.6553;1.6109;
90.6000;0.6545;1.6133;
90.9000;0.6536;1.6086;
91.2000;0.6504;1.5991;
91.5000;0.6520;1.6062;
91.8000;0.6520;1.6157;
92.1000;0.6520;1.6204;
92.4000;0.6528;1.6181;
92.7000;0.6512;1.6109;
93.0000;0.6512;1.6086;
93.3000;0.6553;1.6157;
93.6000;0.6512;1.5991;
93.9000;0.6504;1.6014;
94.2000;0.6561;1.6181;
94.5000;0.6504;1.6062;
94.8000;0.6520;1.6086;
95.1000;0.6520;1.6038;
95.4000;0.6520;1.6038;
95.7000;0.6528;1.6062;
96.0000;0.6439;1.5896;
96.3000;0.6520;1.6086;
96.6000;0.6520;1.6062;
96.9000;0.6520;1.6062;
97.2000;0.6528;1.6109;
97.5000;0.6528;1.6109;
97.8000;0.6520;1.6086;
98.1000;0.6520;1.6086;
98.4000;0.6536;1.6228;
98.7000;0.6520;1.6109;
99.0000;0.6553;1.6252;
99.3000;0.6431;1.5920;
99.6000;0.6528;1.6157;
99.9000;0.6512;1.6133;
100.2000;0.6496;1.6181;
100.5000;0.6488;1.6204;
100.8000;0.6528;1.6228;
101.1000;0.6520;1.6181;
101.4000;0.6479;1.5991;
101.7000;0.6512;1.6086;
102.0000;0.6528;1.6014;
102.3000;0.6536;1.5991;
102.6000;0.6528;1.5967;
102.9000;0.6504;1.5967;
103.2000;0.6512;1.6038;
103.5000;0.6504;1.6062;
103.8000;0.6528;1.6086;
104.1000;0.6528;1.6133;
104.4000;0.6520;1.6204;
104.7000;0.6504;1.6181;
105.0000;0.6414;1.5920;
105.3000;0.6561;1.6275;
105.6000;0.6528;1.6252;
105.9000;0.6520;1.6204;
106.2000;0.6536;1.6204;
106.5000;0.6520;1.6157;
106.8000;0.6536;1.6133;
107.1000;0.6471;1.5920;
107.4000;0.6479;1.5920;
107.7000;0.6520;1.6109;
108.0000;0.6528;1.6228;
108.3000;0.6520;1.6299;
108.6000;0.6520;1.6299;
108.9000;0.6520;1.6370;
109.2000;0.6528;1.6275;
109.5000;0.6536;1.6252;
109.8000;0.6553;1.6323;
110.1000;0.6536;1.6204;
110.4000;0.6528;1.6086;
110.7000;0.6528;1.6038;
111.0000;0.6528;1.6086;
111.3000;0.6504;1.6086;
111.6000;0.6536;1.6157;
111.9000;0.6528;1.6181;
112.2000;0.6520;1.6086;
112.5000;0.6536;1.6109;
112.8000;0.6528;1.6086;
113.1000;0.6455;1.5801;
113.4000;0.6520;1.6038;
113.7000;0.6520;1.6038;
114.0000;0.6520;1.5896;
114.3000;0.6520;1.5943;
114.6000;0.6528;1.5920;
114.9000;0.6528;1.5943;
115.2000;0.6528;1.5872;
115.5000;0.6528;1.5801;
115.8000;0.6520;1.5777;
116.1000;0.6528;1.5991;
116.4000;0.6528;1.5967;
116.7000;0.6512;1.6086;
117.0000;0.6512;1.6109;
117.3000;0.6512;1.6086;
117.6000;0.6536;1.6014;
117.9000;0.6504;1.5920;
118.2000;0.6504;1.5920;
118.5000;0.6520;1.5967;
118.8000;0.6512;1.6062;
119.1000;0.6520;1.6157;
119.4000;0.6553;1.6181;
119.7000;0.6520;1.6204;
120.0000;0.6512;1.6204;
120.3000;0.6520;1.6181;
120.6000;0.6512;1.6086;
120.9000;0.6528;1.6062;
121.2000;0.6520;1.6062;
121.5000;0.6528;1.6014;
121.8000;0.6528;1.6014;
122.1000;0.6553;1.6157;
122.4000;0.6504;1.6109;
122.7000;0.6528;1.6204;
123.0000;0.6512;1.6181;
123.3000;0.6618;1.6370;
123.6000;0.6528;1.6228;
123.9000;0.6528;1.6275;
124.2000;0.6496;1.6228;
124.5000;0.6520;1.6157;
124.8000;0.6528;1.6157;
125.1000;0.6528;1.6109;
125.4000;0.6520;1.6086;
125.7000;0.6520;1.6086;
126.0000;0.6520;1.6109;
126.3000;0.6520;1.6228;
126.6000;0.6520;1.6181;
126.9000;0.6512;1.6228;
127.2000;0.6520;1.6204;
127.5000;0.6512;1.6086;
127.8000;0.6536;1.6228;
128.1000;0.6528;1.6133;
128.4000;0.6528;1.6133;
128.7000;0.6545;1.6204;
129.0000;0.6536;1.6086;
129.3000;0.6520;1.6038;
129.6000;0.6561;1.6038;
129.9000;0.6520;1.5920;
130.2000;0.6520;1.6086;
130.5000;0.6528;1.6086;
130.8000;0.6455;1.5872;
131.1000;0.6455;1.5967;
131.4000;0.6545;1.6157;
131.7000;0.6536;1.6157;
132.0000;0.6512;1.6086;
132.3000;0.6504;1.6038;
132.6000;0.6520;1.6062;
132.9000;0.6520;1.6086;
133.2000;0.6520;1.6062;
133.5000;0.6512;1.6062;
133.8000;0.6520;1.6157;
134.1000;0.6553;1.6157;
134.4000;0.6536;1.6109;
134.7000;0.6536;1.6038;
135.0000;0.6528;1.6109;
135.3000;0.6536;1.6157;
135.6000;0.6536;1.6204;
135.9000;0.6528;1.6228;
136.2000;0.6520;1.6157;
136.5000;0.6528;1.6062;
136.8000;0.6536;1.6062;
137.1000;0.6545;1.6038;
137.4000;0.6528;1.5967;
137.7000;0.6520;1.6014;
138.0000;0.6512;1.6086;
138.3000;0.6439;1.5872;
138.6000;0.6512;1.6062;
138.9000;0.6520;1.6014;
139.2000;0.6528;1.6086;
139.5000;0.6504;1.6062;
139.8000;0.6520;1.6133;
140.1000;0.6520;1.6228;
140.4000;0.6496;1.6157;
140.7000;0.6512;1.6157;
141.0000;0.6512;1.6181;
141.3000;0.6479;1.6109;
141.6000;0.6528;1.6252;
141.9000;0.6512;1.6204;
142.2000;0.6504;1.6181;
142.5000;0.6528;1.6133;
142.8000;0.6520;1.6133;
143.1000;0.6528;1.6181;
143.4000;0.6520;1.6133;
143.7000;0.6528;1.6086;
144.0000;0.6455;1.5872;
144.3000;0.6528;1.6062;
144.6000;0.6553;1.6086;
144.9000;0.6520;1.6062;
145.2000;0.6520;1.6181;
145.5000;0.6528;1.6228;
145.8000;0.6512;1.6086;
146.1000;0.6512;1.6086;
146.4000;0.6528;1.6204;
146.7000;0.6528;1.6204;
147.0000;0.6520;1.6157;
147.3000;0.6512;1.6133;
147.6000;0.6528;1.6204;
147.9000;0.6528;1.6252;
148.2000;0.6512;1.6275;
148.5000;0.6496;1.6299;
148.8000;0.6520;1.6299;
149.1000;0.6512;1.6299;
149.4000;0.6479;1.6204;
149.7000;0.6512;1.6275;
150.0000;0.6553;1.6323;
150.3000;0.6536;1.6109;
150.6000;0.6536;1.6204;
150.9000;0.6553;1.6299;
151.2000;0.6536;1.6181;
151.5000;0.6479;1.5967;
151.8000;0.6536;1.6062;
152.1000;0.6528;1.6014;
152.4000;0.6634;1.6299;
152.7000;0.6504;1.5943;
153.0000;0.6496;1.5991;
153.3000;0.6520;1.6133;
153.6000;0.6512;1.6181;
153.9000;0.6504;1.6086;
154.2000;0.6536;1.6086;
154.5000;0.6463;1.5872;
154.8000;0.6528;1.6109;
155.1000;0.6512;1.6038;
155.4000;0.6496;1.5991;
155.7000;0.6553;1.6109;
156.0000;0.6520;1.6038;
156.3000;0.6520;1.6014;
156.6000;0.6512;1.6014;
156.9000;0.6504;1.6086;
157.2000;0.6512;1.6086;
157.5000;0.6496;1.6062;
157.8000;0.6520;1.6086;
158.1000;0.6528;1.6014;
158.4000;0.6512;1.6014;
158.7000;0.6520;1.6038;
159.0000;0.6520;1.6014;
159.3000;0.6504;1.6086;
159.6000;0.6528;1.6228;
159.9000;0.6536;1.6252;
160.2000;0.6536;1.6133;
160.5000;0.6528;1.6133;
160.8000;0.6536;1.6133;
161.1000;0.6528;1.6204;
161.4000;0.6520;1.6133;
161.7000;0.6520;1.6204;
162.0000;0.6520;1.6299;
162.3000;0.6520;1.6252;
162.6000;0.6520;1.6228;
162.9000;0.6496;1.6204;
163.2000;0.6512;1.6181;
163.5000;0.6536;1.6252;
163.8000;0.6512;1.6204;
164.1000;0.6520;1.6228;
164.4000;0.6512;1.6181;
164.7000;0.6520;1.6157;
165.0000;0.6528;1.6204;
165.3000;0.6528;1.6275;
165.6000;0.6512;1.6299;
165.9000;0.6536;1.6252;
166.2000;0.6520;1.6275;
166.5000;0.6471;1.6157;
166.8000;0.6496;1.6228;
167.1000;0.6520;1.6204;
167.4000;0.6504;1.6204;
167.7000;0.6520;1.6157;
168.0000;0.6520;1.6181;
168.3000;0.6618;1.6347;
168.6000;0.6536;1.6014;
168.9000;0.6520;1.5991;
169.2000;0.6512;1.5991;
169.5000;0.6512;1.6038;
169.8000;0.6520;1.6109;
170.1000;0.6528;1.6109;
170.4000;0.6439;1.5896;
170.7000;0.6496;1.6062;
171.0000;0.6520;1.6157;
171.3000;0.6512;1.6133;
171.6000;0.6520;1.6062;
171.9000;0.6561;1.6275;
172.2000;0.6545;1.6228;
172.5000;0.6504;1.6109;
172.8000;0.6512;1.6062;
173.1000;0.6512;1.6038;
173.4000;0.6512;1.5991;
173.7000;0.6520;1.6014;
174.0000;0.6528;1.5967;
174.3000;0.6528;1.6038;
174.6000;0.6512;1.6086;
174.9000;0.6471;1.6062;
175.2000;0.6512;1.6157;
175.5000;0.6488;1.6062;
175.8000;0.6520;1.6157;
176.1000;0.6512;1.6157;
176.4000;0.6545;1.6204;
176.7000;0.6512;1.6086;
177.0000;0.6520;1.6086;
177.3000;0.6520;1.6086;
177.6000;0.6512;1.6086;
177.9000;0.6512;1.6181;
178.2000;0.6512;1.6157;
178.5000;0.6536;1.6157;
178.8000;0.6528;1.6038;
179.1000;0.6520;1.5967;
179.4000;0.6561;1.6014;
179.7000;0.6520;1.5967;
180.0000;0.6520;1.6014;
180.3000;0.6512;1.6038;
180.6000;0.6504;1.5896;
180.9000;0.6528;1.6109;
181.2000;0.6512;1.6181;
181.5000;0.6504;1.6228;
181.8000;0.6512;1.6228;
182.1000;0.6488;1.6181;
182.4000;0.6504;1.6228;
182.7000;0.6512;1.6252;
183.0000;0.6512;1.6299;
183.3000;0.6520;1.6275;
183.6000;0.6536;1.6275;
183.9000;0.6528;1.6228;
184.2000;0.6504;1.6086;
184.5000;0.6520;1.6038;
184.8000;0.6512;1.6062;
185.1000;0.6496;1.5991;
185.4000;0.6504;1.6157;
185.7000;0.6504;1.6181;
186.0000;0.6488;1.6133;
186.3000;0.6528;1.6252;
186.6000;0.6512;1.6204;
186.9000;0.6512;1.6133;
187.2000;0.6504;1.6133;
187.5000;0.6504;1.6157;
187.8000;0.6496;1.6204;
188.1000;0.6504;1.6252;
188.4000;0.6528;1.6228;
188.7000;0.6512;1.6204;
189.0000;0.6504;1.6109;
189.3000;0.6512;1.5991;
189.6000;0.6504;1.6038;
189.9000;0.6520;1.5991;
190.2000;0.6504;1.5943;
190.5000;0.6496;1.5943;
190.8000;0.6569;1.6181;
191.1000;0.6520;1.6014;
191.4000;0.6520;1.6014;
191.7000;0.6496;1.5967;
192.0000;0.6496;1.5872;
192.3000;0.6504;1.6014;
192.6000;0.6536;1.6062;
192.9000;0.6496;1.6038;
193.2000;0.6504;1.6062;
193.5000;0.6536;1.6204;
193.8000;0.6520;1.6109;
194.1000;0.6569;1.6323;
194.4000;0.6528;1.6228;
194.7000;0.6520;1.6323;
195.0000;0.6520;1.6370;
195.3000;0.6520;1.6347;
195.6000;0.6520;1.6275;
195.9000;0.6512;1.6347;
196.2000;0.6577;1.6489;
196.5000;0.6528;1.6370;
196.8000;0.6520;1.6323;
197.1000;0.6512;1.6323;
197.4000;0.6471;1.6157;
197.7000;0.6520;1.6252;
198.0000;0.6496;1.6228;
198.3000;0.6496;1.6252;
198.6000;0.6455;1.6133;
198.9000;0.6455;1.6181;
199.2000;0.6520;1.6204;
199.5000;0.6545;1.6299;
199.8000;0.6520;1.6204;
200.1000;0.6520;1.6133;
200.4000;0.6520;1.6228;
200.7000;0.6439;1.6062;
201.0000;0.6512;1.6252;
201.3000;0.6512;1.6252;
201.6000;0.6455;1.6133;
201.9000;0.6496;1.6252;
202.2000;0.6504;1.6228;
202.5000;0.6504;1.6204;
202.8000;0.6504;1.6204;
203.1000;0.6504;1.6228;
203.4000;0.6496;1.6204;
203.7000;0.6512;1.6228;
204.0000;0.6512;1.6299;
204.3000;0.6520;1.6228;
204.6000;0.6504;1.6252;
204.9000;0.6463;1.6133;
205.2000;0.6512;1.6252;
205.5000;0.6512;1.6204;
205.8000;0.6512;1.6228;
206.1000;0.6520;1.6157;
206.4000;0.6512;1.6157;
206.7000;0.6520;1.6204;
207.0000;0.6512;1.6157;
207.3000;0.6569;1.6323;
207.6000;0.6496;1.6086;
207.9000;0.6504;1.6086;
208.2000;0.6504;1.6062;
208.5000;0.6520;1.6086;
208.8000;0.6512;1.6038;
209.1000;0.6504;1.6038;
209.4000;0.6520;1.6038;
209.7000;0.6504;1.6014;
210.0000;0.6512;1.6157;
210.3000;0.6569;1.6228;
210.6000;0.6512;1.6086;
210.9000;0.6504;1.6086;
211.2000;0.6504;1.6086;
211.5000;0.6504;1.6014;
211.8000;0.6512;1.6062;
212.1000;0.6471;1.5991;
212.4000;0.6504;1.6157;
212.7000;0.6504;1.6252;
213.0000;0.6496;1.6228;
213.3000;0.6488;1.6228;
213.6000;0.6496;1.6299;
213.9000;0.6496;1.6418;
214.2000;0.6536;1.6513;
214.5000;0.6512;1.6418;
214.8000;0.6496;1.6465;
215.1000;0.6504;1.6513;
215.4000;0.6463;1.6465;
215.7000;0.6512;1.6418;
216.0000;0.6520;1.6370;
216.3000;0.6520;1.6299;
216.6000;0.6528;1.6370;
216.9000;0.6504;1.6275;
217.2000;0.6520;1.6299;
217.5000;0.6504;1.6323;
217.8000;0.6512;1.6394;
218.1000;0.6479;1.6323;
218.4000;0.6512;1.6370;
218.7000;0.6512;1.6299;
219.0000;0.6520;1.6252;
219.3000;0.6512;1.6275;
219.6000;0.6512;1.6228;
219.9000;0.6504;1.6299;
220.2000;0.6496;1.6323;
220.5000;0.6504;1.6299;
220.8000;0.6520;1.6370;
221.1000;0.6512;1.6370;
221.4000;0.6569;1.6513;
221.7000;0.6512;1.6299;
222.0000;0.6504;1.6228;
222.3000;0.6488;1.6204;
222.6000;0.6431;1.6086;
222.9000;0.6520;1.6323;
223.2000;0.6504;1.6252;
223.5000;0.6496;1.6228;
223.8000;0.6496;1.6204;
224.1000;0.6479;1.6109;
224.4000;0.6504;1.6204;
224.7000;0.6488;1.6109;
225.0000;0.6553;1.6228;
225.3000;0.6488;1.6157;
225.6000;0.6512;1.6228;
225.9000;0.6512;1.6204;
226.2000;0.6504;1.6228;
226.5000;0.6512;1.6228;
226.8000;0.6496;1.6204;
227.1000;0.6496;1.6157;
227.4000;0.6479;1.6109;
227.7000;0.6496;1.6109;
228.0000;0.6488;1.6086;
228.3000;0.6479;1.6038;
228.6000;0.6455;1.5872;
228.9000;0.6488;1.5943;
229.2000;0.6610;1.6299;
229.5000;0.6504;1.6014;
229.8000;0.6488;1.6038;
230.1000;0.6496;1.6062;
230.4000;0.6512;1.6157;
230.7000;0.6504;1.6133;
231.0000;0.6504;1.6133;
231.3000;0.6512;1.6204;
231.6000;0.6496;1.6252;
231.9000;0.6512;1.6275;
232.2000;0.6512;1.6181;
232.5000;0.6496;1.6086;
232.8000;0.6488;1.6038;
233.1000;0.6496;1.6038;
233.4000;0.6512;1.5991;
233.7000;0.6496;1.5872;
234.0000;0.6504;1.5801;
234.3000;0.6496;1.5848;
234.6000;0.6488;1.5967;
234.9000;0.6504;1.6133;
235.2000;0.6512;1.6228;
235.5000;0.6504;1.6204;
235.8000;0.6504;1.6157;
236.1000;0.6504;1.6181;
236.4000;0.6488;1.6157;
236.7000;0.6488;1.6204;
237.0000;0.6488;1.6252;
237.3000;0.6471;1.6204;
237.6000;0.6479;1.6109;
237.9000;0.6488;1.6133;
238.2000;0.6422;1.5967;
238.5000;0.6455;1.6157;
238.8000;0.6504;1.6228;
239.1000;0.6496;1.6228;
239.4000;0.6504;1.6252;
239.7000;0.6520;1.6204;
240.0000;0.6496;1.6181;
240.3000;0.6479;1.6038;
240.6000;0.6496;1.6062;
240.9000;0.6512;1.6086;
241.2000;0.6496;1.6109;
241.5000;0.6504;1.6181;
241.8000;0.6479;1.6204;
242.1000;0.6504;1.6228;
242.4000;0.6504;1.6181;
242.7000;0.6504;1.6062;
243.0000;0.6496;1.6086;
243.3000;0.6504;1.6133;
243.6000;0.6496;1.6133;
243.9000;0.6496;1.6204;
244.2000;0.6504;1.6228;
244.5000;0.6479;1.6181;
244.8000;0.6512;1.6228;
245.1000;0.6488;1.6204;
245.4000;0.6504;1.6228;
245.7000;0.6512;1.6275;
246.0000;0.6553;1.6370;
246.3000;0.6496;1.6299;
246.6000;0.6496;1.6323;
246.9000;0.6479;1.6181;
247.2000;0.6488;1.6133;
247.5000;0.6496;1.6062;
247.8000;0.6496;1.6038;
248.1000;0.6504;1.6062;
248.4000;0.6504;1.6086;
248.7000;0.6488;1.6062;
249.0000;0.6496;1.6181;
249.3000;0.6536;1.6299;
249.6000;0.6496;1.6228;
249.9000;0.6504;1.6252;
250.2000;0.6479;1.6181;
250.5000;0.6504;1.6204;
250.8000;0.6504;1.6204;
251.1000;0.6504;1.6252;
251.4000;0.6496;1.6275;
251.7000;0.6496;1.6299;
252.0000;0.6488;1.6299;
252.3000;0.6504;1.6323;
252.6000;0.6488;1.6275;
252.9000;0.6479;1.6204;
253.2000;0.6504;1.6275;
253.5000;0.6561;1.6347;
253.8000;0.6496;1.6252;
254.1000;0.6496;1.6323;
254.4000;0.6471;1.6275;
254.7000;0.6512;1.6347;
255.0000;0.6488;1.6347;
255.3000;0.6439;1.6252;
255.6000;0.6504;1.6418;
255.9000;0.6479;1.6370;
256.2000;0.6488;1.6370;
256.5000;0.6504;1.6299;
256.8000;0.6488;1.6347;
257.1000;0.6520;1.6442;
257.4000;0.6512;1.6418;
257.7000;0.6504;1.6370;
258.0000;0.6504;1.6442;
258.3000;0.6488;1.6442;
258.6000;0.6488;1.6323;
258.9000;0.6496;1.6275;
259.2000;0.6496;1.6252;
259.5000;0.6496;1.6275;
259.8000;0.6488;1.6275;
260.1000;0.6496;1.6323;
260.4000;0.6463;1.6275;
260.7000;0.6496;1.6323;
261.0000;0.6536;1.6394;
261.3000;0.6496;1.6370;
261.6000;0.6488;1.6418;
261.9000;0.6479;1.6418;
262.2000;0.6512;1.6489;
262.5000;0.6488;1.6465;
262.8000;0.6496;1.6513;
263.1000;0.6496;1.6394;
263.4000;0.6439;1.6252;
263.7000;0.6479;1.6299;
264.0000;0.6496;1.6418;
264.3000;0.6496;1.6418;
264.6000;0.6496;1.6442;
264.9000;0.6504;1.6370;
265.2000;0.6488;1.6252;
265.5000;0.6479;1.6204;
265.8000;0.6479;1.6347;
266.1000;0.6479;1.6394;
266.4000;0.6488;1.6370;
266.7000;0.6479;1.6370;
267.0000;0.6496;1.6299;
267.3000;0.6504;1.6252;
267.6000;0.6496;1.6204;
267.9000;0.6479;1.6157;
268.2000;0.6479;1.6204;
268.5000;0.6439;1.6086;
268.8000;0.6479;1.6347;
269.1000;0.6479;1.6275;
269.4000;0.6463;1.6181;
269.7000;0.6520;1.6252;
270.0000;0.6545;1.6275;
270.3000;0.6406;1.5943;
270.6000;0.6504;1.6299;
270.9000;0.6504;1.6347;
271.2000;0.6439;1.6252;
271.5000;0.6414;1.6038;
271.8000;0.6488;1.6133;
272.1000;0.6520;1.6109;
272.4000;0.6528;1.6109;
272.7000;0.6479;1.6038;
273.0000;0.6496;1.6109;
273.3000;0.6536;1.6275;
273.6000;0.6488;1.6133;
273.9000;0.6479;1.6157;
274.2000;0.6471;1.6228;
274.5000;0.6488;1.6204;
274.8000;0.6479;1.6252;
275.1000;0.6488;1.6252;
275.4000;0.6488;1.6228;
275.7000;0.6488;1.6181;
276.0000;0.6463;1.6086;
276.3000;0.6479;1.6086;
276.6000;0.6488;1.6133;
276.9000;0.6471;1.5967;
277.2000;0.6479;1.5991;
277.5000;0.6455;1.6038;
277.8000;0.6504;1.6157;
278.1000;0.6471;1.6038;
278.4000;0.6463;1.5967;
278.7000;0.6504;1.6038;
279.0000;0.6512;1.6228;
279.3000;0.6479;1.6157;
279.6000;0.6488;1.6133;
279.9000;0.6496;1.6228;
280.2000;0.6520;1.6228;
280.5000;0.6471;1.6109;
280.8000;0.6479;1.6181;
281.1000;0.6414;1.6086;
281.4000;0.6488;1.6323;
281.7000;0.6488;1.6323;
282.0000;0.6447;1.6228;
282.3000;0.6488;1.6157;
282.6000;0.6479;1.6157;
282.9000;0.6536;1.6394;
283.2000;0.6455;1.6275;
283.5000;0.6471;1.6299;
283.8000;0.6471;1.6252;
284.1000;0.6479;1.6323;
284.4000;0.6471;1.6299;
284.7000;0.6471;1.6323;
285.0000;0.6471;1.6323;
285.3000;0.6488;1.6275;
285.6000;0.6463;1.6228;
285.9000;0.6479;1.6228;
286.2000;0.6479;1.6133;
286.5000;0.6479;1.6109;
286.8000;0.6479;1.6062;
287.1000;0.6455;1.5943;
287.4000;0.6496;1.6062;
287.7000;0.6504;1.6038;
288.0000;0.6496;1.6038;
288.3000;0.6471;1.6014;
288.6000;0.6512;1.6086;
288.9000;0.6479;1.6062;
289.2000;0.6496;1.6109;
289.5000;0.6488;1.6062;
289.8000;0.6488;1.6157;
290.1000;0.6504;1.6204;
290.4000;0.6496;1.6228;
290.7000;0.6479;1.6252;
291.0000;0.6504;1.6275;
291.3000;0.6471;1.6228;
291.6000;0.6496;1.6323;
291.9000;0.6504;1.6323;
292.2000;0.6455;1.6252;
292.5000;0.6463;1.6252;
292.8000;0.6496;1.6299;
293.1000;0.6479;1.6252;
293.4000;0.6488;1.6275;
293.7000;0.6593;1.6536;
294.0000;0.6390;1.6086;
294.3000;0.6455;1.6275;
294.6000;0.6439;1.6299;
294.9000;0.6496;1.6394;
295.2000;0.6496;1.6465;
295.5000;0.6504;1.6442;
295.8000;0.6488;1.6347;
296.1000;0.6479;1.6394;
296.4000;0.6447;1.6347;
296.7000;0.6471;1.6347;
297.0000;0.6528;1.6513;
297.3000;0.6471;1.6299;
297.6000;0.6488;1.6252;
297.9000;0.6488;1.6347;
298.2000;0.6479;1.6418;
298.5000;0.6479;1.6370;
298.8000;0.6496;1.6418;
299.1000;0.6488;1.6394;
299.4000;0.6479;1.6347;
299.7000;0.6496;1.6299;
300.0000;0.6471;1.6299;
300.3000;0.6496;1.6370;
300.6000;0.6496;1.6323;
300.9000;0.6479;1.6275;
301.2000;0.6479;1.6347;
301.5000;0.6479;1.6323;
301.8000;0.6488;1.6323;
302.1000;0.6488;1.6370;
302.4000;0.6488;1.6347;
302.7000;0.6479;1.6347;
303.0000;0.6496;1.6394;
303.3000;0.6479;1.6370;
303.6000;0.6463;1.6347;
303.9000;0.6488;1.6299;
304.2000;0.6496;1.6370;
304.5000;0.6471;1.6347;
304.8000;0.6479;1.6275;
305.1000;0.6463;1.6275;
305.4000;0.6479;1.6299;
305.7000;0.6471;1.6157;
306.0000;0.6471;1.6062;
306.3000;0.6479;1.6086;
306.6000;0.6479;1.6109;
306.9000;0.6504;1.6038;
307.2000;0.6471;1.6062;
307.5000;0.6422;1.5967;
307.8000;0.6455;1.6062;
308.1000;0.6496;1.6133;
308.4000;0.6463;1.6062;
308.7000;0.6463;1.6109;
309.0000;0.6479;1.6133;
309.3000;0.6471;1.6062;
309.6000;0.6479;1.6157;
309.9000;0.6463;1.6275;
310.2000;0.6479;1.6394;
310.5000;0.6471;1.6275;
310.8000;0.6479;1.6252;
311.1000;0.6471;1.6204;
311.4000;0.6398;1.5991;
311.7000;0.6471;1.6157;
312.0000;0.6488;1.6228;
312.3000;0.6479;1.6181;
312.6000;0.6479;1.6133;
312.9000;0.6479;1.6133;
313.2000;0.6471;1.6204;
313.5000;0.6536;1.6370;
313.8000;0.6463;1.6228;
314.1000;0.6463;1.6157;
314.4000;0.6479;1.6228;
314.7000;0.6471;1.6204;
315.0000;0.6471;1.6323;
315.3000;0.6471;1.6323;
315.6000;0.6479;1.6323;
315.9000;0.6439;1.6299;
316.2000;0.6488;1.6394;
316.5000;0.6504;1.6370;
316.8000;0.6479;1.6299;
317.1000;0.6496;1.6299;
317.4000;0.6488;1.6275;
317.7000;0.6488;1.6228;
318.0000;0.6479;1.6299;
318.3000;0.6471;1.6323;
318.6000;0.6455;1.6299;
318.9000;0.6488;1.6370;
319.2000;0.6488;1.6347;
319.5000;0.6488;1.6252;
319.8000;0.6496;1.6252;
320.1000;0.6479;1.6181;
320.4000;0.6471;1.6181;
320.7000;0.6488;1.6228;
321.0000;0.6479;1.6252;
321.3000;0.6479;1.6252;
321.6000;0.6488;1.6204;
321.9000;0.6488;1.6133;
322.2000;0.6496;1.6109;
322.5000;0.6471;1.6014;
322.8000;0.6479;1.6038;
323.1000;0.6512;1.6133;
323.4000;0.6488;1.6109;
323.7000;0.6520;1.6133;
324.0000;0.6471;1.6086;
324.3000;0.6471;1.6157;
324.6000;0.6447;1.6062;
324.9000;0.6479;1.6062;
325.2000;0.6479;1.6038;
325.5000;0.6479;1.6086;
325.8000;0.6496;1.6133;
326.1000;0.6536;1.6299;
326.4000;0.6471;1.6062;
326.7000;0.6479;1.6133;
327.0000;0.6479;1.6252;
327.3000;0.6569;1.6513;
327.6000;0.6463;1.6252;
327.9000;0.6455;1.6181;
328.2000;0.6471;1.6323;
328.5000;0.6463;1.6252;
328.8000;0.6447;1.6204;
329.1000;0.6431;1.6181;
329.4000;0.6455;1.6323;
329.7000;0.6512;1.6442;
330.0000;0.6479;1.6347;
330.3000;0.6471;1.6252;
330.6000;0.6479;1.6252;
330.9000;0.6479;1.6299;
331.2000;0.6431;1.6109;
331.5000;0.6455;1.6086;
331.8000;0.6463;1.6157;
332.1000;0.6463;1.6204;
332.4000;0.6471;1.6228;
332.7000;0.6463;1.6275;
333.0000;0.6447;1.6204;
333.3000;0.6471;1.6299;
333.6000;0.6463;1.6204;
333.9000;0.6488;1.6157;
334.2000;0.6414;1.6014;
334.5000;0.6463;1.6109;
334.8000;0.6471;1.6086;
335.1000;0.6471;1.6133;
335.4000;0.6479;1.6109;
335.7000;0.6471;1.6038;
336.0000;0.6479;1.6133;
336.3000;0.6463;1.6062;
336.6000;0.6471;1.5967;
336.9000;0.6463;1.6038;
337.2000;0.6471;1.6157;
337.5000;0.6455;1.6133;
337.8000;0.6471;1.6157;
338.1000;0.6455;1.6086;
338.4000;0.6488;1.6133;
338.7000;0.6488;1.6109;
339.0000;0.6504;1.6181;
339.3000;0.6463;1.6157;
339.6000;0.6488;1.6228;
339.9000;0.6479;1.6204;
340.2000;0.6463;1.6109;
340.5000;0.6561;1.6275;
340.8000;0.6496;1.6038;
341.1000;0.6471;1.6133;
341.4000;0.6488;1.6157;
341.7000;0.6488;1.6181;
342.0000;0.6479;1.6181;
342.3000;0.6479;1.6252;
342.6000;0.6463;1.6204;
342.9000;0.6431;1.6157;
343.2000;0.6471;1.6299;
343.5000;0.6479;1.6228;
343.8000;0.6382;1.5991;
344.1000;0.6479;1.6228;
344.4000;0.6455;1.6181;
344.7000;0.6488;1.6299;
345.0000;0.6479;1.6323;
345.3000;0.6463;1.6228;
345.6000;0.6463;1.6275;
345.9000;0.6463;1.6299;
346.2000;0.6488;1.6347;
346.5000;0.6471;1.6252;
346.8000;0.6455;1.6228;
347.1000;0.6447;1.6157;
347.4000;0.6455;1.6204;
347.7000;0.6463;1.6275;
348.0000;0.6463;1.6275;
348.3000;0.6577;1.6465;
348.6000;0.6488;1.6252;
348.9000;0.6479;1.6275;
349.2000;0.6463;1.6275;
349.5000;0.6431;1.6181;
349.8000;0.6479;1.6299;
350.1000;0.6439;1.6204;
350.4000;0.6455;1.6275;
350.7000;0.6463;1.6275;
351.0000;0.6479;1.6157;
351.3000;0.6471;1.6228;
351.6000;0.6463;1.6204;
351.9000;0.6479;1.6204;
352.2000;0.6455;1.6109;
352.5000;0.6471;1.6204;
352.8000;0.6496;1.6275;
353.1000;0.6455;1.6252;
353.4000;0.6447;1.6204;
353.7000;0.6471;1.6323;
354.0000;0.6455;1.6323;
354.3000;0.6479;1.6370;
354.6000;0.6471;1.6299;
354.9000;0.6496;1.6275;
355.2000;0.6463;1.6252;
355.5000;0.6504;1.6370;
355.8000;0.6471;1.6252;
356.1000;0.6471;1.6204;
356.4000;0.6479;1.6204;
356.7000;0.6447;1.6133;
357.0000;0.6463;1.6157;
357.3000;0.6471;1.6181;
357.6000;0.6488;1.6181;
357.9000;0.6471;1.6157;
358.2000;0.6447;1.6109;
358.5000;0.6463;1.6157;
358.8000;0.6463;1.6181;
359.1000;0.6479;1.6109;
359.4000;0.6463;1.6086;
359.7000;0.6471;1.6157;
360.0000;0.6471;1.6109;
360.3000;0.6463;1.6133;
360.6000;0.6471;1.6086;
360.9000;0.6471;1.6038;
361.2000;0.6479;1.6038;
361.5000;0.6479;1.6109;
361.8000;0.6471;1.6062;
362.1000;0.6463;1.6062;
362.4000;0.6471;1.6228;
362.7000;0.6463;1.6252;
363.0000;0.6528;1.6394;
363.3000;0.6463;1.6204;
363.6000;0.6463;1.6204;
363.9000;0.6455;1.6275;
364.2000;0.6374;1.6086;
364.5000;0.6455;1.6252;
364.8000;0.6463;1.6299;
365.1000;0.6471;1.6465;
365.4000;0.6471;1.6442;
365.7000;0.6463;1.6323;
366.0000;0.6528;1.6418;
366.3000;0.6471;1.6275;
366.6000;0.6488;1.6252;
366.9000;0.6439;1.6252;
367.2000;0.6455;1.6299;
367.5000;0.6455;1.6299;
367.8000;0.6463;1.6323;
368.1000;0.6439;1.6252;
368.4000;0.6463;1.6275;
368.7000;0.6447;1.6228;
369.0000;0.6488;1.6252;
369.3000;0.6479;1.6228;
369.6000;0.6471;1.6228;
369.9000;0.6471;1.6181;
370.2000;0.6439;1.6157;
370.5000;0.6463;1.6157;
370.8000;0.6471;1.6252;
371.1000;0.6463;1.6228;
371.4000;0.6471;1.6252;
371.7000;0.6488;1.6252;
372.0000;0.6471;1.6228;
372.3000;0.6463;1.6204;
372.6000;0.6471;1.6181;
372.9000;0.6455;1.6133;
373.2000;0.6455;1.6204;
373.5000;0.6463;1.6299;
373.8000;0.6479;1.6299;
374.1000;0.6463;1.6252;
374.4000;0.6471;1.6228;
374.7000;0.6463;1.6204;
375.0000;0.6471;1.6252;
375.3000;0.6471;1.6299;
375.6000;0.6455;1.6323;
375.9000;0.6463;1.6347;
376.2000;0.6455;1.6252;
376.5000;0.6471;1.6204;
376.8000;0.6479;1.6228;
377.1000;0.6463;1.6109;
377.4000;0.6463;1.6252;
377.7000;0.6463;1.6347;
378.0000;0.6479;1.6370;
378.3000;0.6471;1.6370;
378.6000;0.6463;1.6347;
378.9000;0.6496;1.6252;
379.2000;0.6463;1.6157;
379.5000;0.6479;1.6157;
379.8000;0.6463;1.6133;
380.1000;0.6479;1.6181;
380.4000;0.6479;1.6228;
380.7000;0.6471;1.6181;
381.0000;0.6463;1.6157;
381.3000;0.6496;1.6323;
381.6000;0.6357;1.6062;
381.9000;0.6471;1.6465;
382.2000;0.6447;1.6442;
382.5000;0.6463;1.6418;
382.8000;0.6471;1.6370;
383.1000;0.6463;1.6323;
383.4000;0.6439;1.6228;
383.7000;0.6463;1.6228;
384.0000;0.6471;1.6323;
384.3000;0.6463;1.6323;
384.6000;0.6488;1.6347;
384.9000;0.6479;1.6323;
385.2000;0.6471;1.6347;
385.5000;0.6561;1.6584;
385.8000;0.6463;1.6347;
386.1000;0.6479;1.6394;
386.4000;0.6463;1.6275;
386.7000;0.6455;1.6275;
387.0000;0.6471;1.6275;
387.3000;0.6455;1.6133;
387.6000;0.6496;1.6204;
387.9000;0.6463;1.6086;
388.2000;0.6431;1.6086;
388.5000;0.6447;1.6228;
388.8000;0.6447;1.6181;
389.1000;0.6455;1.6181;
389.4000;0.6455;1.6228;
389.7000;0.6471;1.6181;
390.0000;0.6439;1.6109;
390.3000;0.6471;1.6275;
390.6000;0.6512;1.6370;
390.9000;0.6382;1.6038;
391.2000;0.6463;1.6252;
391.5000;0.6479;1.6204;
391.8000;0.6463;1.6086;
392.1000;0.6439;1.6038;
392.4000;0.6447;1.6086;
392.7000;0.6447;1.6109;
393.0000;0.6447;1.6086;
393.3000;0.6471;1.6109;
393.6000;0.6463;1.6133;
393.9000;0.6422;1.6086;
394.2000;0.6471;1.6062;
394.5000;0.6528;1.6157;
394.8000;0.6463;1.6014;
395.1000;0.6455;1.5943;
395.4000;0.6512;1.6133;
395.7000;0.6471;1.5967;
396.0000;0.6463;1.6014;
396.3000;0.6455;1.6062;
396.6000;0.6455;1.6133;
396.9000;0.6496;1.6228;
397.2000;0.6463;1.6157;
397.5000;0.6455;1.6133;
397.8000;0.6463;1.6157;
398.1000;0.6463;1.6133;
398.4000;0.6455;1.6086;
398.7000;0.6488;1.6204;
399.0000;0.6374;1.5943;
399.3000;0.6455;1.6157;
399.6000;0.6447;1.6109;
399.9000;0.6496;1.6275;
400.2000;0.6463;1.6086;
400.5000;0.6447;1.6109;
400.8000;0.6455;1.6157;
401.1000;0.6471;1.6299;
401.4000;0.6447;1.6252;
401.7000;0.6479;1.6394;
402.0000;0.6455;1.6323;
402.3000;0.6463;1.6370;
402.6000;0.6455;1.6394;
402.9000;0.6463;1.6323;
403.2000;0.6439;1.6228;
403.5000;0.6471;1.6157;
403.8000;0.6455;1.6181;
404.1000;0.6398;1.5967;
404.4000;0.6455;1.6038;
404.7000;0.6471;1.6204;
405.0000;0.6471;1.6204;
405.3000;0.6463;1.6204;
405.6000;0.6471;1.6181;
405.9000;0.6463;1.6181;
406.2000;0.6414;1.6038;
406.5000;0.6431;1.6086;
406.8000;0.6455;1.6228;
407.1000;0.6504;1.6323;
407.4000;0.6479;1.6228;
407.7000;0.6455;1.6181;
408.0000;0.6447;1.6062;
408.3000;0.6463;1.6133;
408.6000;0.6471;1.6133;
408.9000;0.6504;1.6157;
409.2000;0.6455;1.6038;
409.5000;0.6455;1.6109;
409.8000;0.6439;1.6181;
410.1000;0.6463;1.6299;
410.4000;0.6463;1.6299;
410.7000;0.6422;1.6252;
411.0000;0.6479;1.6370;
411.3000;0.6479;1.6442;
411.6000;0.6471;1.6394;
411.9000;0.6463;1.6347;
412.2000;0.6471;1.6394;
412.5000;0.6479;1.6370;
412.8000;0.6463;1.6275;
413.1000;0.6455;1.6204;
413.4000;0.6455;1.6228;
413.7000;0.6447;1.6252;
414.0000;0.6455;1.6228;
414.3000;0.6447;1.6133;
414.6000;0.6496;1.6204;
414.9000;0.6463;1.6157;
415.2000;0.6455;1.6109;
415.5000;0.6471;1.6157;
415.8000;0.6471;1.6133;
416.1000;0.6479;1.6086;
416.4000;0.6471;1.6157;
416.7000;0.6463;1.6228;
417.0000;0.6382;1.5920;
417.3000;0.6496;1.6133;
417.6000;0.6471;1.6062;
417.9000;0.6455;1.5967;
418.2000;0.6447;1.5920;
418.5000;0.6447;1.5943;
418.8000;0.6439;1.5920;
419.1000;0.6439;1.5967;
419.4000;0.6455;1.6062;
419.7000;0.6455;1.6038;
420.0000;0.6471;1.6181;
420.3000;0.6365;1.5920;
420.6000;0.6447;1.6038;
420.9000;0.6471;1.6038;
421.2000;0.6471;1.6038;
421.5000;0.6455;1.6038;
421.8000;0.6455;1.5967;
422.1000;0.6447;1.6014;
422.4000;0.6463;1.5967;
422.7000;0.6496;1.6062;
423.0000;0.6463;1.6204;
423.3000;0.6471;1.6228;
423.6000;0.6439;1.6181;
423.9000;0.6447;1.6133;
424.2000;0.6455;1.6228;
424.5000;0.6447;1.6181;
424.8000;0.6447;1.6275;
425.1000;0.6414;1.6181;
425.4000;0.6422;1.6181;
425.7000;0.6447;1.6275;
426.0000;0.6463;1.6275;
426.3000;0.6512;1.6347;
426.6000;0.6455;1.6323;
426.9000;0.6439;1.6299;
427.2000;0.6463;1.6323;
427.5000;0.6455;1.6299;
427.8000;0.6455;1.6323;
428.1000;0.6447;1.6252;
428.4000;0.6422;1.6275;
428.7000;0.6447;1.6299;
429.0000;0.6431;1.6204;
429.3000;0.6422;1.6062;
429.6000;0.6439;1.5991;
429.9000;0.6431;1.6062;
430.2000;0.6455;1.6157;
430.5000;0.6439;1.6157;
430.8000;0.6455;1.6252;
431.1000;0.6455;1.6275;
431.4000;0.6471;1.6323;
431.7000;0.6455;1.6347;
432.0000;0.6431;1.6418;
432.3000;0.6455;1.6465;
432.6000;0.6414;1.6418;
432.9000;0.6431;1.6442;
433.2000;0.6439;1.6442;
433.5000;0.6447;1.6465;
433.8000;0.6447;1.6394;
434.1000;0.6439;1.6323;
434.4000;0.6439;1.6418;
434.7000;0.6447;1.6418;
435.0000;0.6463;1.6394;
435.3000;0.6455;1.6299;
435.6000;0.6422;1.6181;
435.9000;0.6447;1.6275;
436.2000;0.6455;1.6275;
436.5000;0.6455;1.6228;
436.8000;0.6455;1.6252;
437.1000;0.6455;1.6157;
437.4000;0.6455;1.6204;
437.7000;0.6374;1.5943;
438.0000;0.6431;1.6109;
438.3000;0.6422;1.6086;
438.6000;0.6447;1.6157;
438.9000;0.6447;1.6204;
439.2000;0.6447;1.6228;
439.5000;0.6447;1.6299;
439.8000;0.6439;1.6323;
440.1000;0.6447;1.6370;
440.4000;0.6447;1.6394;
440.7000;0.6447;1.6347;
441.0000;0.6479;1.6347;
441.3000;0.6479;1.6347;
441.6000;0.6536;1.6536;
441.9000;0.6447;1.6323;
442.2000;0.6439;1.6299;
442.5000;0.6471;1.6442;
442.8000;0.6447;1.6394;
443.1000;0.6471;1.6418;
443.4000;0.6471;1.6347;
443.7000;0.6422;1.6181;
444.0000;0.6431;1.6181;
444.3000;0.6479;1.6370;
444.6000;0.6447;1.6181;
444.9000;0.6431;1.6133;
445.2000;0.6455;1.6275;
445.5000;0.6479;1.6299;
445.8000;0.6439;1.6086;
446.1000;0.6447;1.6062;
446.4000;0.6447;1.6133;
446.7000;0.6455;1.6181;
447.0000;0.6431;1.6181;
447.3000;0.6439;1.6275;
447.6000;0.6439;1.6299;
447.9000;0.6447;1.6323;
448.2000;0.6447;1.6394;
448.5000;0.6422;1.6418;
448.8000;0.6422;1.6418;
449.1000;0.6422;1.6347;
449.4000;0.6439;1.6299;
449.7000;0.6447;1.6299;
450.0000;0.6463;1.6323;
450.3000;0.6422;1.6181;
450.6000;0.6455;1.6275;
450.9000;0.6431;1.6204;
451.2000;0.6431;1.6275;
451.5000;0.6447;1.6275;
451.8000;0.6447;1.6252;
452.1000;0.6447;1.6228;
452.4000;0.6447;1.6204;
452.7000;0.6439;1.6181;
453.0000;0.6463;1.6252;
453.3000;0.6479;1.6299;
453.6000;0.6455;1.6275;
453.9000;0.6471;1.6252;
454.2000;0.6479;1.6204;
454.5000;0.6431;1.6086;
454.8000;0.6439;1.6062;
455.1000;0.6455;1.6109;
455.4000;0.6471;1.6157;
455.7000;0.6479;1.6181;
456.0000;0.6479;1.6181;
456.3000;0.6463;1.6181;
456.6000;0.6471;1.6275;
456.9000;0.6463;1.6323;
457.2000;0.6431;1.6275;
457.5000;0.6439;1.6228;
457.8000;0.6439;1.6228;
458.1000;0.6447;1.6204;
458.4000;0.6439;1.6252;
458.7000;0.6439;1.6204;
459.0000;0.6439;1.6252;
459.3000;0.6439;1.6299;
459.6000;0.6439;1.6299;
459.9000;0.6439;1.6299;
460.2000;0.6439;1.6323;
460.5000;0.6455;1.6370;
460.8000;0.6455;1.6370;
461.1000;0.6479;1.6418;
461.4000;0.6447;1.6347;
461.7000;0.6447;1.6370;
462.0000;0.6431;1.6370;
462.3000;0.6471;1.6394;
462.6000;0.6447;1.6347;
462.9000;0.6463;1.6418;
463.2000;0.6431;1.6394;
463.5000;0.6422;1.6347;
463.8000;0.6431;1.6299;
464.1000;0.6455;1.6275;
464.4000;0.6431;1.6157;
464.7000;0.6422;1.6181;
465.0000;0.6431;1.6204;
465.3000;0.6447;1.6157;
465.6000;0.6431;1.6109;
465.9000;0.6447;1.6181;
466.2000;0.6398;1.6014;
466.5000;0.6439;1.6204;
466.8000;0.6471;1.6204;
467.1000;0.6422;1.6109;
467.4000;0.6414;1.6086;
467.7000;0.6431;1.6157;
468.0000;0.6447;1.6086;
468.3000;0.6528;1.6370;
468.6000;0.6414;1.6038;
468.9000;0.6431;1.6086;
469.2000;0.6431;1.6086;
469.5000;0.6439;1.6157;
469.8000;0.6431;1.6204;
470.1000;0.6439;1.6181;
470.4000;0.6406;1.6181;
470.7000;0.6431;1.6133;
471.0000;0.6439;1.6157;
471.3000;0.6431;1.6228;
471.6000;0.6414;1.6252;
471.9000;0.6447;1.6370;
472.2000;0.6422;1.6347;
472.5000;0.6431;1.6275;
472.8000;0.6406;1.6109;
473.1000;0.6431;1.6086;
473.4000;0.6455;1.6228;
473.7000;0.6447;1.6275;
474.0000;0.6455;1.6275;
474.3000;0.6463;1.6347;
474.6000;0.6414;1.6275;
474.9000;0.6374;1.6204;
475.2000;0.6447;1.6323;
475.5000;0.6439;1.6394;
475.8000;0.6455;1.6465;
476.1000;0.6422;1.6370;
476.4000;0.6447;1.6442;
476.7000;0.6447;1.6370;
477.0000;0.6398;1.6299;
477.3000;0.6447;1.6394;
477.6000;0.6463;1.6442;
477.9000;0.6439;1.6442;
478.2000;0.6439;1.6418;
478.5000;0.6455;1.6394;
478.8000;0.6422;1.6394;
479.1000;0.6471;1.6536;
479.4000;0.6431;1.6442;
479.7000;0.6406;1.6394;
480.0000;0.6431;1.6513;
480.3000;0.6439;1.6442;
480.6000;0.6431;1.6465;
480.9000;0.6463;1.6513;
481.2000;0.6447;1.6513;
481.5000;0.6431;1.6513;
481.8000;0.6422;1.6442;
482.1000;0.6447;1.6560;
482.4000;0.6422;1.6465;
482.7000;0.6439;1.6394;
483.0000;0.6422;1.6394;
483.3000;0.6439;1.6394;
483.6000;0.6455;1.6394;
483.9000;0.6439;1.6323;
484.2000;0.6504;1.6418;
484.5000;0.6439;1.6181;
484.8000;0.6431;1.6157;
485.1000;0.6439;1.6228;
485.4000;0.6422;1.6299;
485.7000;0.6431;1.6347;
486.0000;0.6414;1.6323;
486.3000;0.6447;1.6394;
486.6000;0.6439;1.6418;
486.9000;0.6431;1.6370;
487.2000;0.6439;1.6465;
487.5000;0.6520;1.6750;
487.8000;0.6431;1.6489;
488.1000;0.6431;1.6489;
488.4000;0.6447;1.6489;
488.7000;0.6422;1.6418;
489.0000;0.6422;1.6394;
489.3000;0.6414;1.6418;
489.6000;0.6414;1.6418;
489.9000;0.6422;1.6347;
490.2000;0.6390;1.6275;
490.5000;0.6414;1.6370;
490.8000;0.6431;1.6347;
491.1000;0.6382;1.6275;
491.4000;0.6422;1.6323;
491.7000;0.6414;1.6347;
492.0000;0.6422;1.6370;
492.3000;0.6422;1.6323;
492.6000;0.6414;1.6299;
492.9000;0.6414;1.6323;
493.2000;0.6431;1.6347;
493.5000;0.6422;1.6347;
493.8000;0.6422;1.6299;
494.1000;0.6422;1.6299;
494.4000;0.6431;1.6299;
494.7000;0.6431;1.6275;
495.0000;0.6431;1.6252;
495.3000;0.6447;1.6204;
495.6000;0.6439;1.6204;
495.9000;0.6439;1.6133;
496.2000;0.6431;1.6181;
496.5000;0.6455;1.6228;
496.8000;0.6431;1.6204;
497.1000;0.6431;1.6347;
497.4000;0.6439;1.6252;
497.7000;0.6390;1.6157;
498.0000;0.6422;1.6275;
498.3000;0.6447;1.6370;
498.6000;0.6471;1.6394;
498.9000;0.6447;1.6252;
499.2000;0.6357;1.6038;
499.5000;0.6431;1.6252;
499.8000;0.6447;1.6275;
500.1000;0.6390;1.6181;
500.4000;0.6422;1.6275;
500.7000;0.6422;1.6347;
501.0000;0.6439;1.6442;
501.3000;0.6382;1.6299;
501.6000;0.6422;1.6370;
501.9000;0.6431;1.6347;
502.2000;0.6463;1.6347;
502.5000;0.6447;1.6347;
502.8000;0.6414;1.6323;
503.1000;0.6357;1.6133;
503.4000;0.6439;1.6323;
503.7000;0.6431;1.6370;
504.0000;0.6520;1.6608;
504.3000;0.6422;1.6275;
504.6000;0.6463;1.6347;
504.9000;0.6422;1.6228;
505.2000;0.6447;1.6228;
505.5000;0.6447;1.6347;
505.8000;0.6422;1.6299;
506.1000;0.6439;1.6323;
506.4000;0.6439;1.6323;
506.7000;0.6431;1.6275;
507.0000;0.6382;1.6228;
507.3000;0.6439;1.6442;
507.6000;0.6439;1.6394;
507.9000;0.6431;1.6418;
508.2000;0.6479;1.6418;
508.5000;0.6431;1.6157;
508.8000;0.6439;1.6204;
509.1000;0.6496;1.6370;
509.4000;0.6414;1.6275;
509.7000;0.6431;1.6299;
510.0000;0.6447;1.6252;
510.3000;0.6439;1.6323;
510.6000;0.6431;1.6181;
510.9000;0.6439;1.6157;
511.2000;0.6422;1.6204;
511.5000;0.6422;1.6299;
511.8000;0.6406;1.6133;
512.1000;0.6447;1.6228;
512.4000;0.6414;1.6204;
512.7000;0.6447;1.6204;
513.0000;0.6422;1.6133;
513.3000;0.6414;1.6204;
513.6000;0.6431;1.6228;
513.9000;0.6422;1.6157;
514.2000;0.6414;1.6038;
514.5000;0.6422;1.6157;
514.8000;0.6414;1.6181;
515.1000;0.6439;1.6204;
515.4000;0.6431;1.6204;
515.7000;0.6447;1.6252;
516.0000;0.6447;1.6299;
516.3000;0.6463;1.6228;
516.6000;0.6447;1.6181;
516.9000;0.6439;1.6181;
517.2000;0.6406;1.6109;
517.5000;0.6414;1.6086;
517.8000;0.6447;1.6181;
518.1000;0.6422;1.6181;
518.4000;0.6414;1.6109;
518.7000;0.6374;1.5920;
519.0000;0.6455;1.6109;
519.3000;0.6406;1.5920;
519.6000;0.6414;1.5967;
519.9000;0.6398;1.6062;
520.2000;0.6455;1.6252;
520.5000;0.6439;1.6204;
520.8000;0.6422;1.6109;
521.1000;0.6422;1.6086;
521.4000;0.6431;1.6133;
521.7000;0.6431;1.6133;
522.0000;0.6406;1.6109;
522.3000;0.6414;1.6086;
522.6000;0.6447;1.6157;
522.9000;0.6431;1.6133;
523.2000;0.6504;1.6394;
523.5000;0.6422;1.6157;
523.8000;0.6431;1.6181;
524.1000;0.6471;1.6323;
524.4000;0.6422;1.6228;
524.7000;0.6455;1.6370;
525.0000;0.6439;1.6299;
525.3000;0.6422;1.6181;
525.6000;0.6488;1.6394;
525.9000;0.6422;1.6252;
526.2000;0.6398;1.6204;
526.5000;0.6431;1.6157;
526.8000;0.6414;1.6181;
527.1000;0.6422;1.6109;
527.4000;0.6406;1.6133;
527.7000;0.6431;1.6086;
528.0000;0.6439;1.6109;
528.3000;0.6422;1.6133;
528.6000;0.6422;1.6062;
528.9000;0.6431;1.6109;
529.2000;0.6431;1.6157;
529.5000;0.6422;1.6204;
529.8000;0.6406;1.6109;
530.1000;0.6431;1.6133;
530.4000;0.6406;1.6109;
530.7000;0.6422;1.6133;
531.0000;0.6422;1.6157;
531.3000;0.6414;1.6181;
531.6000;0.6406;1.6181;
531.9000;0.6414;1.6133;
532.2000;0.6422;1.6109;
532.5000;0.6422;1.6157;
532.8000;0.6422;1.6181;
533.1000;0.6422;1.6181;
533.4000;0.6406;1.6133;
533.7000;0.6406;1.6109;
534.0000;0.6422;1.6086;
534.3000;0.6422;1.6109;
534.6000;0.6431;1.6133;
534.9000;0.6431;1.6086;
535.2000;0.6431;1.6181;
535.5000;0.6455;1.6252;
535.8000;0.6439;1.6181;
536.1000;0.6431;1.6062;
536.4000;0.6439;1.6157;
536.7000;0.6422;1.6157;
537.0000;0.6414;1.6181;
537.3000;0.6398;1.6204;
537.6000;0.6406;1.6157;
537.9000;0.6422;1.6204;
538.2000;0.6414;1.6204;
538.5000;0.6398;1.6133;
538.8000;0.6406;1.6157;
539.1000;0.6439;1.6204;
539.4000;0.6471;1.6275;
539.7000;0.6431;1.6252;
540.0000;0.6422;1.6228;
540.3000;0.6414;1.6228;
540.6000;0.6406;1.6181;
540.9000;0.6309;1.5991;
541.2000;0.6439;1.6275;
541.5000;0.6390;1.6086;
541.8000;0.6414;1.6252;
542.1000;0.6414;1.6133;
542.4000;0.6382;1.6086;
542.7000;0.6414;1.6228;
543.0000;0.6406;1.6228;
543.3000;0.6398;1.6133;
543.6000;0.6447;1.6181;
543.9000;0.6406;1.6062;
544.2000;0.6471;1.6204;
544.5000;0.6455;1.6228;
544.8000;0.6447;1.6252;
545.1000;0.6422;1.6204;
545.4000;0.6447;1.6275;
545.7000;0.6431;1.6299;
546.0000;0.6439;1.6252;
546.3000;0.6431;1.6275;
546.6000;0.6431;1.6204;
546.9000;0.6431;1.6157;
547.2000;0.6422;1.6086;
547.5000;0.6422;1.6062;
547.8000;0.6447;1.6204;
548.1000;0.6447;1.6252;
548.4000;0.6431;1.6181;
548.7000;0.6414;1.6086;
549.0000;0.6422;1.6109;
549.3000;0.6431;1.6228;
549.6000;0.6431;1.6181;
549.9000;0.6414;1.6181;
550.2000;0.6422;1.6157;
550.5000;0.6422;1.6157;
550.8000;0.6439;1.6204;
551.1000;0.6422;1.6133;
551.4000;0.6414;1.6086;
551.7000;0.6471;1.6275;
552.0000;0.6431;1.6181;
552.3000;0.6414;1.6181;
552.6000;0.6422;1.6109;
552.9000;0.6431;1.6133;
553.2000;0.6414;1.6181;
553.5000;0.6439;1.6204;
553.8000;0.6374;1.6062;
554.1000;0.6422;1.6204;
554.4000;0.6431;1.6252;
554.7000;0.6365;1.6133;
555.0000;0.6422;1.6323;
555.3000;0.6406;1.6299;
555.6000;0.6422;1.6252;
555.9000;0.6406;1.6204;
556.2000;0.6414;1.6228;
556.5000;0.6390;1.6181;
556.8000;0.6414;1.6299;
557.1000;0.6414;1.6299;
557.4000;0.6406;1.6252;
557.7000;0.6406;1.6157;
558.0000;0.6422;1.6133;
558.3000;0.6390;1.6062;
558.6000;0.6414;1.6133;
558.9000;0.6422;1.6133;
559.2000;0.6431;1.6109;
559.5000;0.6455;1.6204;
559.8000;0.6414;1.6252;
560.1000;0.6382;1.6228;
560.4000;0.6398;1.6275;
560.7000;0.6406;1.6299;
561.0000;0.6398;1.6299;
561.3000;0.6414;1.6228;
561.6000;0.6414;1.6181;
561.9000;0.6414;1.6181;
562.2000;0.6504;1.6489;
562.5000;0.6406;1.6181;
562.8000;0.6414;1.6228;
563.1000;0.6406;1.6228;
563.4000;0.6414;1.6299;
563.7000;0.6406;1.6299;
564.0000;0.6390;1.6275;
564.3000;0.6406;1.6347;
564.6000;0.6406;1.6370;
564.9000;0.6406;1.6347;
565.2000;0.6365;1.6228;
565.5000;0.6406;1.6323;
565.8000;0.6406;1.6299;
566.1000;0.6431;1.6370;
566.4000;0.6439;1.6347;
566.7000;0.6406;1.6275;
567.0000;0.6414;1.6228;
567.3000;0.6414;1.6370;
567.6000;0.6398;1.6275;
567.9000;0.6406;1.6394;
568.2000;0.6406;1.6394;
568.5000;0.6406;1.6347;
568.8000;0.6406;1.6442;
569.1000;0.6406;1.6418;
569.4000;0.6414;1.6442;
569.7000;0.6422;1.6394;
570.0000;0.6431;1.6418;
570.3000;0.6406;1.6275;
570.6000;0.6414;1.6323;
570.9000;0.6414;1.6347;
571.2000;0.6414;1.6299;
571.5000;0.6422;1.6299;
571.8000;0.6479;1.6394;
572.1000;0.6414;1.6299;
572.4000;0.6422;1.6323;
572.7000;0.6414;1.6323;
573.0000;0.6414;1.6299;
573.3000;0.6414;1.6323;
573.6000;0.6382;1.6228;
573.9000;0.6414;1.6347;
574.2000;0.6333;1.6204;
574.5000;0.6439;1.6418;
574.8000;0.6406;1.6347;
575.1000;0.6406;1.6347;
575.4000;0.6390;1.6394;
575.7000;0.6422;1.6394;
576.0000;0.6439;1.6394;
576.3000;0.6398;1.6299;
576.6000;0.6406;1.6204;
576.9000;0.6398;1.6181;
577.2000;0.6463;1.6370;
577.5000;0.6406;1.6228;
577.8000;0.6406;1.6181;
578.1000;0.6422;1.6181;
578.4000;0.6431;1.6204;
578.7000;0.6431;1.6275;
579.0000;0.6422;1.6323;
579.3000;0.6406;1.6323;
579.6000;0.6422;1.6442;
579.9000;0.6422;1.6465;
580.2000;0.6447;1.6418;
580.5000;0.6406;1.6252;
580.8000;0.6365;1.6109;
581.1000;0.6390;1.6228;
581.4000;0.6414;1.6228;
581.7000;0.6406;1.6252;
582.0000;0.6422;1.6323;
582.3000;0.6406;1.6323;
582.6000;0.6422;1.6418;
582.9000;0.6422;1.6465;
583.2000;0.6365;1.6299;
583.5000;0.6382;1.6370;
583.8000;0.6406;1.6489;
584.1000;0.6414;1.6560;
584.4000;0.6414;1.6513;
584.7000;0.6422;1.6536;
585.0000;0.6414;1.6513;
585.3000;0.6398;1.6442;
585.6000;0.6398;1.6347;
585.9000;0.6414;1.6347;
586.2000;0.6414;1.6299;
586.5000;0.6431;1.6299;
586.8000;0.6406;1.6228;
587.1000;0.6422;1.6133;
587.4000;0.6422;1.6086;
587.7000;0.6431;1.6038;
588.0000;0.6406;1.5943;
588.3000;0.6406;1.6014;
588.6000;0.6390;1.6014;
588.9000;0.6439;1.6204;
589.2000;0.6406;1.6181;
589.5000;0.6398;1.6109;
589.8000;0.6414;1.6252;
590.1000;0.6422;1.6275;
590.4000;0.6406;1.6157;
590.7000;0.6406;1.6181;
591.0000;0.6406;1.6252;
591.3000;0.6422;1.6181;
591.6000;0.6422;1.6275;
591.9000;0.6414;1.6299;
592.2000;0.6414;1.6323;
592.5000;0.6349;1.6204;
592.8000;0.6447;1.6370;
593.1000;0.6422;1.6347;
593.4000;0.6390;1.6275;
593.7000;0.6398;1.6204;
594.0000;0.6439;1.6252;
594.3000;0.6398;1.6204;
594.6000;0.6365;1.6204;
594.9000;0.6414;1.6370;
595.2000;0.6422;1.6418;
595.5000;0.6406;1.6370;
595.8000;0.6341;1.6204;
596.1000;0.6414;1.6347;
596.4000;0.6406;1.6394;
596.7000;0.6357;1.6394;
597.0000;0.6398;1.6489;
597.3000;0.6398;1.6442;
597.6000;0.6365;1.6299;
597.9000;0.6406;1.6394;
598.2000;0.6349;1.6228;
598.5000;0.6398;1.6347;
598.8000;0.6406;1.6347;
599.1000;0.6406;1.6370;
599.4000;0.6414;1.6394;
599.7000;0.6398;1.6394;
600.0000;0.6406;1.6323;
600.3000;0.6390;1.6252;
600.6000;0.6382;1.6062;
600.9000;0.6325;1.5943;
601.2000;0.6268;1.5872;
601.5000;0.6154;1.5587;
601.8000;0.6072;1.5350;
602.1000;0.5983;1.5232;
602.4000;0.5910;1.5042;
602.7000;0.5820;1.4852;
603.0000;0.5763;1.4757;
603.3000;0.5665;1.4615;
603.6000;0.5608;1.4496;
603.9000;0.5551;1.4425;
604.2000;0.5495;1.4354;
604.5000;0.5429;1.4283;
604.8000;0.5372;1.4188;
605.1000;0.5348;1.4116;
605.4000;0.5299;1.4069;
605.7000;0.5250;1.4045;
606.0000;0.5201;1.4069;
606.3000;0.5201;1.4022;
606.6000;0.5161;1.3974;
606.9000;0.5112;1.3832;
607.2000;0.5071;1.3784;
607.5000;0.5039;1.3761;
607.8000;0.5022;1.3808;
608.1000;0.4990;1.3761;
608.4000;0.4949;1.3713;
608.7000;0.4933;1.3761;
609.0000;0.4892;1.3713;
609.3000;0.4876;1.3689;
609.6000;0.4851;1.3618;
609.9000;0.4819;1.3476;
610.2000;0.4811;1.3523;
610.5000;0.4778;1.3428;
610.8000;0.4754;1.3452;
611.1000;0.4737;1.3547;
611.4000;0.4705;1.3594;
611.7000;0.4729;1.3642;
612.0000;0.4681;1.3594;
612.3000;0.4656;1.3594;
612.6000;0.4672;1.3642;
612.9000;0.4640;1.3571;
613.2000;0.4640;1.3476;
613.5000;0.4599;1.3428;
613.8000;0.4615;1.3452;
614.1000;0.4591;1.3405;
614.4000;0.4526;1.3357;
614.7000;0.4550;1.3523;
615.0000;0.4575;1.3500;
615.3000;0.4575;1.3452;
615.6000;0.4510;1.3357;
615.9000;0.4526;1.3381;
616.2000;0.4420;1.3262;
616.5000;0.4501;1.3547;
616.8000;0.4469;1.3476;
617.1000;0.4461;1.3500;
617.4000;0.4469;1.3594;
617.7000;0.4428;1.3452;
618.0000;0.4428;1.3452;
618.3000;0.4412;1.3262;
618.6000;0.4404;1.3262;
618.9000;0.4347;1.3144;
619.2000;0.4371;1.3310;
619.5000;0.4371;1.3310;
619.8000;0.4363;1.3310;
620.1000;0.4355;1.3215;
620.4000;0.4355;1.3334;
620.7000;0.4379;1.3452;
621.0000;0.4314;1.3239;
621.3000;0.4330;1.3239;
621.6000;0.4306;1.3215;
621.9000;0.4298;1.3120;
622.2000;0.4330;1.3167;
622.5000;0.4274;1.3096;
622.8000;0.4290;1.3144;
623.1000;0.4290;1.3167;
623.4000;0.4274;1.3191;
623.7000;0.4249;1.3167;
624.0000;0.4249;1.3310;
624.3000;0.4257;1.3357;
624.6000;0.4249;1.3310;
624.9000;0.4233;1.3286;
625.2000;0.4233;1.3286;
625.5000;0.4217;1.3286;
625.8000;0.4257;1.3500;
626.1000;0.4200;1.3357;
626.4000;0.4200;1.3262;
626.7000;0.4192;1.3286;
627.0000;0.4192;1.3357;
627.3000;0.4184;1.3452;
627.6000;0.4168;1.3381;
627.9000;0.4184;1.3405;
628.2000;0.4168;1.3381;
628.5000;0.4200;1.3523;
628.8000;0.4151;1.3428;
629.1000;0.4160;1.3476;
629.4000;0.4143;1.3428;
629.7000;0.4143;1.3357;
630.0000;0.4119;1.3286;
630.3000;0.4086;1.3239;
630.6000;0.4143;1.3405;
630.9000;0.4135;1.3334;
631.2000;0.4094;1.3357;
631.5000;0.4127;1.3381;
631.8000;0.4111;1.3428;
632.1000;0.4054;1.3286;
632.4000;0.4103;1.3428;
632.7000;0.4086;1.3381;
633.0000;0.4086;1.3381;
633.3000;0.4151;1.3547;
633.6000;0.4062;1.3405;
633.9000;0.4078;1.3381;
634.2000;0.4070;1.3357;
634.5000;0.4086;1.3428;
634.8000;0.4046;1.3286;
635.1000;0.4062;1.3310;
635.4000;0.4070;1.3286;
635.7000;0.4054;1.3310;
636.0000;0.4037;1.3381;
636.3000;0.4029;1.3428;
636.6000;0.4037;1.3405;
636.9000;0.4046;1.3334;
637.2000;0.4046;1.3262;
637.5000;0.4037;1.3239;
637.8000;0.4021;1.3215;
638.1000;0.4037;1.3215;
638.4000;0.4054;1.3215;
638.7000;0.4021;1.3096;
639.0000;0.4013;1.3144;
639.3000;0.4013;1.3262;
639.6000;0.4013;1.3262;
639.9000;0.3997;1.3310;
640.2000;0.3997;1.3334;
640.5000;0.4013;1.3357;
640.8000;0.3964;1.3357;
641.1000;0.4005;1.3500;
641.4000;0.3972;1.3405;
641.7000;0.3972;1.3476;
642.0000;0.3972;1.3452;
642.3000;0.3972;1.3405;
642.6000;0.3980;1.3405;
642.9000;0.3964;1.3334;
643.2000;0.3948;1.3191;
643.5000;0.3997;1.3215;
643.8000;0.3956;1.3144;
644.1000;0.3964;1.3191;
644.4000;0.3956;1.3167;
644.7000;0.3964;1.3239;
645.0000;0.3940;1.3191;
645.3000;0.3932;1.3215;
645.6000;0.3956;1.3215;
645.9000;0.3948;1.3167;
646.2000;0.3923;1.3215;
646.5000;0.3948;1.3310;
646.8000;0.3940;1.3334;
647.1000;0.3940;1.3381;
647.4000;0.3915;1.3452;
647.7000;0.3923;1.3452;
648.0000;0.3923;1.3523;
648.3000;0.3948;1.3547;
648.6000;0.3923;1.3428;
648.9000;0.3923;1.3428;
649.2000;0.3907;1.3428;
649.5000;0.3915;1.3476;
649.8000;0.4013;1.3689;
650.1000;0.3907;1.3428;
650.4000;0.3923;1.3428;
650.7000;0.3923;1.3476;
651.0000;0.3923;1.3428;
651.3000;0.3883;1.3357;
651.6000;0.3891;1.3357;
651.9000;0.3891;1.3381;
652.2000;0.3948;1.3476;
652.5000;0.3923;1.3357;
652.8000;0.3891;1.3191;
653.1000;0.3899;1.3191;
653.4000;0.3875;1.3286;
653.7000;0.3858;1.3286;
654.0000;0.3875;1.3215;
654.3000;0.3883;1.3239;
654.6000;0.3883;1.3215;
654.9000;0.3891;1.3381;
655.2000;0.3907;1.3452;
655.5000;0.3964;1.3547;
655.8000;0.3867;1.3357;
656.1000;0.3932;1.3476;
656.4000;0.3875;1.3357;
656.7000;0.3842;1.3286;
657.0000;0.3867;1.3357;
657.3000;0.3858;1.3381;
657.6000;0.3850;1.3310;
657.9000;0.3818;1.3191;
658.2000;0.3842;1.3167;
658.5000;0.3867;1.3262;
658.8000;0.3858;1.3262;
659.1000;0.3842;1.3239;
659.4000;0.3850;1.3334;
659.7000;0.3850;1.3405;
660.0000;0.3867;1.3428;
660.3000;0.3842;1.3428;
660.6000;0.3834;1.3452;
660.9000;0.3842;1.3500;
661.2000;0.3834;1.3476;
661.5000;0.3834;1.3476;
661.8000;0.3834;1.3523;
662.1000;0.3834;1.3571;
662.4000;0.3842;1.3523;
662.7000;0.3818;1.3452;
663.0000;0.3810;1.3357;
663.3000;0.3826;1.3310;
663.6000;0.3842;1.3428;
663.9000;0.3826;1.3428;
664.2000;0.3818;1.3428;
664.5000;0.3810;1.3500;
664.8000;0.3818;1.3500;
665.1000;0.3810;1.3405;
665.4000;0.3810;1.3357;
665.7000;0.3842;1.3523;
666.0000;0.3818;1.3523;
666.3000;0.3801;1.3405;
666.6000;0.3818;1.3428;
666.9000;0.3826;1.3523;
667.2000;0.3818;1.3452;
667.5000;0.3793;1.3357;
667.8000;0.3777;1.3262;
668.1000;0.3785;1.3215;
668.4000;0.3777;1.3191;
668.7000;0.3801;1.3239;
669.0000;0.3785;1.3262;
669.3000;0.3793;1.3286;
669.6000;0.3785;1.3262;
669.9000;0.3785;1.3381;
670.2000;0.3777;1.3334;
670.5000;0.3793;1.3262;
670.8000;0.3785;1.3191;
671.1000;0.3793;1.3310;
671.4000;0.3785;1.3286;
671.7000;0.3777;1.3239;
672.0000;0.3777;1.3239;
672.3000;0.3777;1.3286;
672.6000;0.3793;1.3286;
672.9000;0.3769;1.3239;
673.2000;0.3769;1.3262;
673.5000;0.3744;1.3191;
673.8000;0.3761;1.3357;
674.1000;0.3761;1.3310;
674.4000;0.3777;1.3428;
674.7000;0.3753;1.3452;
675.0000;0.3769;1.3476;
675.3000;0.3785;1.3428;
675.6000;0.3761;1.3239;
675.9000;0.3761;1.3215;
676.2000;0.3793;1.3357;
676.5000;0.3769;1.3381;
676.8000;0.3761;1.3357;
677.1000;0.3753;1.3357;
677.4000;0.3744;1.3262;
677.7000;0.3753;1.3286;
678.0000;0.3679;1.3096;
678.3000;0.3753;1.3262;
678.6000;0.3744;1.3310;
678.9000;0.3687;1.3357;
679.2000;0.3736;1.3523;
679.5000;0.3736;1.3500;
679.8000;0.3801;1.3642;
680.1000;0.3736;1.3523;
680.4000;0.3744;1.3618;
680.7000;0.3736;1.3594;
681.0000;0.3761;1.3594;
681.3000;0.3744;1.3547;
681.6000;0.3728;1.3476;
681.9000;0.3736;1.3476;
682.2000;0.3736;1.3547;
682.5000;0.3753;1.3547;
682.8000;0.3744;1.3500;
683.1000;0.3720;1.3357;
683.4000;0.3744;1.3381;
683.7000;0.3744;1.3310;
684.0000;0.3728;1.3286;
684.3000;0.3712;1.3310;
684.6000;0.3728;1.3357;
684.9000;0.3736;1.3334;
685.2000;0.3753;1.3357;
685.5000;0.3728;1.3334;
685.8000;0.3728;1.3381;
686.1000;0.3712;1.3405;
686.4000;0.3720;1.3357;
686.7000;0.3736;1.3452;
687.0000;0.3704;1.3381;
687.3000;0.3720;1.3452;
687.6000;0.3720;1.3452;
687.9000;0.3720;1.3357;
688.2000;0.3704;1.3357;
688.5000;0.3696;1.3381;
688.8000;0.3744;1.3571;
689.1000;0.3704;1.3523;
689.4000;0.3687;1.3571;
689.7000;0.3663;1.3405;
690.0000;0.3712;1.3571;
690.3000;0.3720;1.3642;
690.6000;0.3728;1.3713;
690.9000;0.3720;1.3666;
691.2000;0.3704;1.3547;
691.5000;0.3712;1.3571;
691.8000;0.3622;1.3334;
692.1000;0.3704;1.3547;
692.4000;0.3696;1.3523;
692.7000;0.3720;1.3500;
693.0000;0.3687;1.3357;
693.3000;0.3696;1.3428;
693.6000;0.3704;1.3428;
693.9000;0.3728;1.3334;
694.2000;0.3679;1.3215;
694.5000;0.3696;1.3191;
694.8000;0.3704;1.3334;
695.1000;0.3810;1.3642;
695.4000;0.3704;1.3476;
695.7000;0.3753;1.3618;
696.0000;0.3687;1.3500;
696.3000;0.3704;1.3571;
696.6000;0.3712;1.3642;
696.9000;0.3687;1.3642;
697.2000;0.3655;1.3594;
697.5000;0.3679;1.3618;
697.8000;0.3679;1.3500;
698.1000;0.3671;1.3476;
698.4000;0.3671;1.3452;
698.7000;0.3679;1.3547;
699.0000;0.3679;1.3523;
699.3000;0.3663;1.3381;
699.6000;0.3728;1.3428;
699.9000;0.3663;1.3334;
700.2000;0.3671;1.3334;
700.5000;0.3704;1.3334;
700.8000;0.3679;1.3286;
701.1000;0.3679;1.3357;
701.4000;0.3671;1.3428;
701.7000;0.3614;1.3286;
702.0000;0.3671;1.3428;
702.3000;0.3655;1.3405;
702.6000;0.3663;1.3381;
702.9000;0.3671;1.3405;
703.2000;0.3655;1.3381;
703.5000;0.3753;1.3642;
703.8000;0.3663;1.3476;
704.1000;0.3663;1.3523;
704.4000;0.3663;1.3547;
704.7000;0.3663;1.3500;
705.0000;0.3655;1.3357;
705.3000;0.3663;1.3310;
705.6000;0.3663;1.3310;
705.9000;0.3663;1.3334;
706.2000;0.3655;1.3428;
706.5000;0.3655;1.3405;
706.8000;0.3663;1.3452;
707.1000;0.3647;1.3428;
707.4000;0.3663;1.3452;
707.7000;0.3647;1.3452;
708.0000;0.3663;1.3428;
708.3000;0.3671;1.3523;
708.6000;0.3655;1.3523;
708.9000;0.3630;1.3452;
709.2000;0.3663;1.3523;
709.5000;0.3647;1.3476;
709.8000;0.3655;1.3476;
710.1000;0.3655;1.3523;
710.4000;0.3655;1.3500;
710.7000;0.3687;1.3547;
711.0000;0.3622;1.3405;
711.3000;0.3671;1.3547;
711.6000;0.3630;1.3381;
711.9000;0.3639;1.3428;
712.2000;0.3622;1.3428;
712.5000;0.3655;1.3452;
712.8000;0.3639;1.3405;
713.1000;0.3663;1.3571;
713.4000;0.3663;1.3666;
713.7000;0.3647;1.3500;
714.0000;0.3647;1.3452;
714.3000;0.3630;1.3476;
714.6000;0.3663;1.3476;
714.9000;0.3671;1.3523;
715.2000;0.3630;1.3452;
715.5000;0.3655;1.3476;
715.8000;0.3647;1.3523;
716.1000;0.3663;1.3452;
716.4000;0.3647;1.3452;
716.7000;0.3655;1.3452;
717.0000;0.3647;1.3476;
717.3000;0.3647;1.3523;
717.6000;0.3647;1.3523;
717.9000;0.3647;1.3523;
718.2000;0.3655;1.3500;
718.5000;0.3647;1.3357;
718.8000;0.3639;1.3286;
719.1000;0.3647;1.3310;
719.4000;0.3647;1.3357;
719.7000;0.3639;1.3286;
720.0000;0.3630;1.3215;
720.3000;0.3647;1.3310;
720.6000;0.3622;1.3286;
720.9000;0.3639;1.3286;
721.2000;0.3655;1.3357;
721.5000;0.3630;1.3381;
721.8000;0.3663;1.3428;
722.1000;0.3630;1.3381;
722.4000;0.3622;1.3405;
722.7000;0.3598;1.3381;
723.0000;0.3630;1.3523;
723.3000;0.3622;1.3547;
723.6000;0.3614;1.3500;
723.9000;0.3622;1.3571;
724.2000;0.3614;1.3642;
724.5000;0.3622;1.3571;
724.8000;0.3639;1.3571;
725.1000;0.3614;1.3476;
725.4000;0.3639;1.3547;
725.7000;0.3614;1.3523;
726.0000;0.3606;1.3428;
726.3000;0.3525;1.3215;
726.6000;0.3639;1.3547;
726.9000;0.3630;1.3594;
727.2000;0.3614;1.3618;
727.5000;0.3606;1.3571;
727.8000;0.3606;1.3547;
728.1000;0.3606;1.3500;
728.4000;0.3614;1.3476;
728.7000;0.3606;1.3523;
729.0000;0.3598;1.3452;
729.3000;0.3614;1.3476;
729.6000;0.3630;1.3571;
729.9000;0.3614;1.3547;
730.2000;0.3630;1.3500;
730.5000;0.3671;1.3642;
730.8000;0.3622;1.3500;
731.1000;0.3606;1.3500;
731.4000;0.3614;1.3452;
731.7000;0.3614;1.3523;
732.0000;0.3614;1.3571;
732.3000;0.3614;1.3571;
732.6000;0.3679;1.3784;
732.9000;0.3606;1.3547;
733.2000;0.3622;1.3666;
733.5000;0.3606;1.3666;
733.8000;0.3622;1.3618;
734.1000;0.3598;1.3571;
734.4000;0.3614;1.3476;
734.7000;0.3647;1.3476;
735.0000;0.3606;1.3428;
735.3000;0.3590;1.3523;
735.6000;0.3614;1.3523;
735.9000;0.3606;1.3476;
736.2000;0.3606;1.3547;
736.5000;0.3598;1.3571;
736.8000;0.3598;1.3571;
737.1000;0.3614;1.3642;
737.4000;0.3565;1.3476;
737.7000;0.3582;1.3547;
738.0000;0.3557;1.3476;
738.3000;0.3598;1.3642;
738.6000;0.3598;1.3594;
738.9000;0.3630;1.3666;
739.2000;0.3590;1.3618;
739.5000;0.3590;1.3594;
739.8000;0.3598;1.3523;
740.1000;0.3573;1.3500;
740.4000;0.3582;1.3523;
740.7000;0.3565;1.3476;
741.0000;0.3582;1.3476;
741.3000;0.3647;1.3713;
741.6000;0.3598;1.3618;
741.9000;0.3590;1.3571;
742.2000;0.3598;1.3594;
742.5000;0.3606;1.3618;
742.8000;0.3598;1.3594;
743.1000;0.3590;1.3618;
743.4000;0.3582;1.3642;
743.7000;0.3582;1.3618;
744.0000;0.3582;1.3689;
744.3000;0.3582;1.3666;
744.6000;0.3590;1.3666;
744.9000;0.3590;1.3689;
745.2000;0.3639;1.3879;
745.5000;0.3541;1.3737;
745.8000;0.3598;1.3761;
746.1000;0.3622;1.3784;
746.4000;0.3582;1.3642;
746.7000;0.3582;1.3594;
747.0000;0.3582;1.3618;
747.3000;0.3565;1.3547;
747.6000;0.3582;1.3523;
747.9000;0.3582;1.3500;
748.2000;0.3582;1.3547;
748.5000;0.3598;1.3594;
748.8000;0.3582;1.3594;
749.1000;0.3549;1.3594;
749.4000;0.3573;1.3618;
749.7000;0.3606;1.3618;
750.0000;0.3590;1.3594;
750.3000;0.3582;1.3594;
750.6000;0.3573;1.3547;
750.9000;0.3606;1.3594;
751.2000;0.3598;1.3713;
751.5000;0.3590;1.3737;
751.8000;0.3590;1.3737;
752.1000;0.3573;1.3761;
752.4000;0.3582;1.3737;
752.7000;0.3582;1.3689;
753.0000;0.3557;1.3523;
753.3000;0.3598;1.3523;
753.6000;0.3598;1.3523;
753.9000;0.3598;1.3547;
754.2000;0.3590;1.3571;
754.5000;0.3590;1.3618;
754.8000;0.3590;1.3689;
755.1000;0.3582;1.3594;
755.4000;0.3541;1.3500;
755.7000;0.3557;1.3523;
756.0000;0.3573;1.3571;
756.3000;0.3582;1.3500;
756.6000;0.3582;1.3594;
756.9000;0.3614;1.3689;
757.2000;0.3565;1.3547;
757.5000;0.3582;1.3547;
757.8000;0.3590;1.3594;
758.1000;0.3573;1.3500;
758.4000;0.3565;1.3523;
758.7000;0.3573;1.3476;
759.0000;0.3582;1.3500;
759.3000;0.3573;1.3523;
759.6000;0.3573;1.3500;
759.9000;0.3557;1.3500;
760.2000;0.3590;1.3500;
760.5000;0.3549;1.3523;
760.8000;0.3573;1.3547;
761.1000;0.3582;1.3594;
761.4000;0.3565;1.3500;
761.7000;0.3573;1.3452;
762.0000;0.3573;1.3523;
762.3000;0.3622;1.3713;
762.6000;0.3573;1.3523;
762.9000;0.3565;1.3571;
763.2000;0.3533;1.3500;
763.5000;0.3541;1.3618;
763.8000;0.3573;1.3666;
764.1000;0.3573;1.3713;
764.4000;0.3533;1.3618;
764.7000;0.3541;1.3618;
765.0000;0.3606;1.3761;
765.3000;0.3565;1.3761;
765.6000;0.3598;1.3808;
765.9000;0.3549;1.3761;
766.2000;0.3573;1.3832;
766.5000;0.3565;1.3737;
766.8000;0.3557;1.3689;
767.1000;0.3541;1.3713;
767.4000;0.3573;1.3737;
767.7000;0.3549;1.3594;
768.0000;0.3541;1.3547;
768.3000;0.3549;1.3523;
768.6000;0.3549;1.3523;
768.9000;0.3541;1.3523;
769.2000;0.3484;1.3452;
769.5000;0.3573;1.3642;
769.8000;0.3557;1.3689;
770.1000;0.3582;1.3713;
770.4000;0.3573;1.3713;
770.7000;0.3565;1.3666;
771.0000;0.3573;1.3761;
771.3000;0.3557;1.3784;
771.6000;0.3557;1.3713;
771.9000;0.3557;1.3761;
772.2000;0.3573;1.3808;
772.5000;0.3549;1.3666;
772.8000;0.3549;1.3689;
773.1000;0.3565;1.3713;
773.4000;0.3549;1.3594;
773.7000;0.3573;1.3547;
774.0000;0.3557;1.3523;
774.3000;0.3565;1.3571;
774.6000;0.3557;1.3500;
774.9000;0.3565;1.3523;
775.2000;0.3557;1.3523;
775.5000;0.3557;1.3500;
775.8000;0.3549;1.3500;
776.1000;0.3565;1.3547;
776.4000;0.3565;1.3476;
776.7000;0.3557;1.3476;
777.0000;0.3557;1.3523;
777.3000;0.3557;1.3571;
777.6000;0.3557;1.3594;
777.9000;0.3549;1.3666;
778.2000;0.3541;1.3689;
778.5000;0.3565;1.3666;
778.8000;0.3541;1.3666;
779.1000;0.3557;1.3618;
779.4000;0.3557;1.3642;
779.7000;0.3549;1.3594;
780.0000;0.3533;1.3618;
780.3000;0.3557;1.3594;
780.6000;0.3549;1.3571;
780.9000;0.3557;1.3594;
781.2000;0.3525;1.3642;
781.5000;0.3557;1.3689;
781.8000;0.3541;1.3618;
782.1000;0.3541;1.3547;
782.4000;0.3549;1.3547;
782.7000;0.3565;1.3547;
783.0000;0.3549;1.3547;
783.3000;0.3533;1.3428;
783.6000;0.3598;1.3500;
783.9000;0.3557;1.3405;
784.2000;0.3565;1.3476;
784.5000;0.3557;1.3500;
784.8000;0.3549;1.3547;
785.1000;0.3565;1.3666;
785.4000;0.3557;1.3689;
785.7000;0.3541;1.3618;
786.0000;0.3614;1.3855;
786.3000;0.3549;1.3784;
786.6000;0.3541;1.3855;
786.9000;0.3549;1.3855;
787.2000;0.3500;1.3594;
787.5000;0.3525;1.3713;
787.8000;0.3606;1.3855;
788.1000;0.3549;1.3737;
788.4000;0.3647;1.3903;
788.7000;0.3541;1.3689;
789.0000;0.3541;1.3666;
789.3000;0.3582;1.3737;
789.6000;0.3549;1.3594;
789.9000;0.3541;1.3523;
790.2000;0.3541;1.3500;
790.5000;0.3549;1.3571;
790.8000;0.3549;1.3618;
791.1000;0.3533;1.3547;
791.4000;0.3533;1.3547;
791.7000;0.3541;1.3547;
792.0000;0.3541;1.3594;
792.3000;0.3582;1.3713;
792.6000;0.3533;1.3642;
792.9000;0.3549;1.3666;
793.2000;0.3549;1.3689;
793.5000;0.3533;1.3666;
793.8000;0.3533;1.3618;
794.1000;0.3557;1.3689;
794.4000;0.3541;1.3547;
794.7000;0.3533;1.3547;
795.0000;0.3541;1.3523;
795.3000;0.3500;1.3405;
795.6000;0.3541;1.3476;
795.9000;0.3525;1.3476;
796.2000;0.3525;1.3452;
796.5000;0.3516;1.3428;
796.8000;0.3533;1.3476;
797.1000;0.3549;1.3571;
797.4000;0.3614;1.3737;
797.7000;0.3533;1.3476;
798.0000;0.3525;1.3452;
798.3000;0.3541;1.3476;
798.6000;0.3541;1.3428;
798.9000;0.3541;1.3405;
799.2000;0.3525;1.3428;
799.5000;0.3516;1.3452;
799.8000;0.3533;1.3476;
800.1000;0.3516;1.3452;
800.4000;0.3541;1.3523;
800.7000;0.3549;1.3618;
801.0000;0.3541;1.3571;
801.3000;0.3533;1.3523;
801.6000;0.3525;1.3523;
801.9000;0.3508;1.3476;
802.2000;0.3533;1.3500;
802.5000;0.3533;1.3523;
802.8000;0.3451;1.3405;
803.1000;0.3549;1.3618;
803.4000;0.3516;1.3713;
803.7000;0.3525;1.3689;
804.0000;0.3508;1.3523;
804.3000;0.3533;1.3594;
804.6000;0.3525;1.3476;
804.9000;0.3525;1.3452;
805.2000;0.3516;1.3428;
805.5000;0.3525;1.3428;
805.8000;0.3443;1.3286;
806.1000;0.3516;1.3476;
806.4000;0.3516;1.3476;
806.7000;0.3533;1.3594;
807.0000;0.3516;1.3571;
807.3000;0.3533;1.3571;
807.6000;0.3508;1.3547;
807.9000;0.3549;1.3642;
808.2000;0.3541;1.3642;
808.5000;0.3525;1.3571;
808.8000;0.3516;1.3642;
809.1000;0.3525;1.3666;
809.4000;0.3541;1.3594;
809.7000;0.3525;1.3500;
810.0000;0.3516;1.3452;
810.3000;0.3492;1.3381;
810.6000;0.3508;1.3428;
810.9000;0.3525;1.3476;
811.2000;0.3508;1.3405;
811.5000;0.3516;1.3286;
811.8000;0.3516;1.3405;
812.1000;0.3541;1.3405;
812.4000;0.3516;1.3405;
812.7000;0.3508;1.3357;
813.0000;0.3516;1.3334;
813.3000;0.3525;1.3357;
813.6000;0.3500;1.3334;
813.9000;0.3508;1.3405;
814.2000;0.3500;1.3381;
814.5000;0.3516;1.3381;
814.8000;0.3508;1.3286;
815.1000;0.3492;1.3239;
815.4000;0.3500;1.3262;
815.7000;0.3516;1.3357;
816.0000;0.3516;1.3381;
816.3000;0.3508;1.3334;
816.6000;0.3516;1.3286;
816.9000;0.3516;1.3334;
817.2000;0.3516;1.3405;
817.5000;0.3541;1.3428;
817.8000;0.3525;1.3357;
818.1000;0.3508;1.3357;
818.4000;0.3516;1.3428;
818.7000;0.3451;1.3167;
819.0000;0.3508;1.3357;
819.3000;0.3427;1.3191;
819.6000;0.3557;1.3476;
819.9000;0.3541;1.3476;
820.2000;0.3525;1.3405;
820.5000;0.3525;1.3357;
820.8000;0.3516;1.3381;
821.1000;0.3516;1.3381;
821.4000;0.3508;1.3262;
821.7000;0.3500;1.3191;
822.0000;0.3533;1.3239;
822.3000;0.3508;1.3239;
822.6000;0.3525;1.3357;
822.9000;0.3525;1.3357;
823.2000;0.3516;1.3381;
823.5000;0.3541;1.3405;
823.8000;0.3525;1.3428;
824.1000;0.3516;1.3523;
824.4000;0.3533;1.3571;
824.7000;0.3525;1.3594;
825.0000;0.3516;1.3594;
825.3000;0.3525;1.3666;
825.6000;0.3582;1.3761;
825.9000;0.3525;1.3618;
826.2000;0.3516;1.3594;
826.5000;0.3492;1.3452;
826.8000;0.3500;1.3500;
827.1000;0.3508;1.3500;
827.4000;0.3419;1.3310;
827.7000;0.3492;1.3571;
828.0000;0.3549;1.3642;
828.3000;0.3508;1.3523;
828.6000;0.3565;1.3642;
828.9000;0.3508;1.3500;
829.2000;0.3508;1.3428;
829.5000;0.3525;1.3381;
829.8000;0.3525;1.3428;
830.1000;0.3508;1.3428;
830.4000;0.3484;1.3381;
830.7000;0.3508;1.3452;
831.0000;0.3500;1.3523;
831.3000;0.3500;1.3500;
831.6000;0.3484;1.3452;
831.9000;0.3508;1.3547;
832.2000;0.3500;1.3547;
832.5000;0.3525;1.3594;
832.8000;0.3508;1.3547;
833.1000;0.3508;1.3547;
833.4000;0.3516;1.3594;
833.7000;0.3508;1.3571;
834.0000;0.3484;1.3476;
834.3000;0.3492;1.3405;
834.6000;0.3508;1.3500;
834.9000;0.3516;1.3476;
835.2000;0.3500;1.3547;
835.5000;0.3508;1.3547;
835.8000;0.3516;1.3476;
836.1000;0.3516;1.3476;
836.4000;0.3508;1.3405;
836.7000;0.3492;1.3476;
837.0000;0.3492;1.3594;
837.3000;0.3533;1.3618;
837.6000;0.3508;1.3594;
837.9000;0.3492;1.3547;
838.2000;0.3516;1.3713;
838.5000;0.3492;1.3642;
838.8000;0.3508;1.3689;
839.1000;0.3500;1.3618;
839.4000;0.3476;1.3571;
839.7000;0.3500;1.3666;
840.0000;0.3508;1.3808;
840.3000;0.3516;1.3784;
840.6000;0.3508;1.3761;
840.9000;0.3508;1.3761;
841.2000;0.3516;1.3713;
841.5000;0.3525;1.3737;
841.8000;0.3508;1.3737;
842.1000;0.3508;1.3689;
842.4000;0.3500;1.3642;
842.7000;0.3508;1.3666;
843.0000;0.3500;1.3594;
843.3000;0.3500;1.3618;
843.6000;0.3516;1.3666;
843.9000;0.3508;1.3594;
844.2000;0.3492;1.3618;
844.5000;0.3484;1.3523;
844.8000;0.3525;1.3618;
845.1000;0.3516;1.3642;
845.4000;0.3500;1.3547;
845.7000;0.3500;1.3594;
846.0000;0.3500;1.3666;
846.3000;0.3500;1.3713;
846.6000;0.3508;1.3713;
846.9000;0.3484;1.3689;
847.2000;0.3492;1.3713;
847.5000;0.3516;1.3689;
847.8000;0.3508;1.3666;
848.1000;0.3500;1.3594;
848.4000;0.3533;1.3594;
848.7000;0.3500;1.3476;
849.0000;0.3516;1.3571;
849.3000;0.3484;1.3523;
849.6000;0.3492;1.3571;
849.9000;0.3492;1.3594;
850.2000;0.3500;1.3666;
850.5000;0.3451;1.3476;
850.8000;0.3516;1.3689;
851.1000;0.3508;1.3808;
851.4000;0.3533;1.3855;
851.7000;0.3590;1.3903;
852.0000;0.3508;1.3713;
852.3000;0.3516;1.3761;
852.6000;0.3516;1.3761;
852.9000;0.3500;1.3808;
853.2000;0.3508;1.3689;
853.5000;0.3492;1.3594;
853.8000;0.3516;1.3642;
854.1000;0.3557;1.3737;
854.4000;0.3516;1.3571;
854.7000;0.3598;1.3737;
855.0000;0.3492;1.3405;
855.3000;0.3492;1.3452;
855.6000;0.3508;1.3476;
855.9000;0.3500;1.3428;
856.2000;0.3516;1.3547;
856.5000;0.3508;1.3523;
856.8000;0.3435;1.3381;
857.1000;0.3492;1.3594;
857.4000;0.3516;1.3642;
857.7000;0.3508;1.3547;
858.0000;0.3492;1.3500;
858.3000;0.3492;1.3476;
858.6000;0.3484;1.3428;
858.9000;0.3500;1.3405;
859.2000;0.3525;1.3452;
859.5000;0.3484;1.3357;
859.8000;0.3443;1.3239;
860.1000;0.3484;1.3357;
860.4000;0.3492;1.3476;
860.7000;0.3500;1.3571;
861.0000;0.3508;1.3594;
861.3000;0.3468;1.3547;
861.6000;0.3492;1.3523;
861.9000;0.3492;1.3523;
862.2000;0.3460;1.3500;
862.5000;0.3492;1.3618;
862.8000;0.3492;1.3666;
863.1000;0.3476;1.3594;
863.4000;0.3525;1.3642;
863.7000;0.3500;1.3618;
864.0000;0.3492;1.3666;
864.3000;0.3525;1.3666;
864.6000;0.3541;1.3689;
864.9000;0.3484;1.3666;
865.2000;0.3508;1.3713;
865.5000;0.3492;1.3571;
865.8000;0.3419;1.3381;
866.1000;0.3460;1.3476;
866.4000;0.3573;1.3761;
866.7000;0.3492;1.3594;
867.0000;0.3500;1.3594;
867.3000;0.3500;1.3571;
867.6000;0.3500;1.3618;
867.9000;0.3492;1.3594;
868.2000;0.3476;1.3642;
868.5000;0.3476;1.3666;
868.8000;0.3476;1.3666;
869.1000;0.3500;1.3713;
869.4000;0.3492;1.3713;
869.7000;0.3492;1.3666;
870.0000;0.3476;1.3666;
870.3000;0.3484;1.3594;
870.6000;0.3516;1.3618;
870.9000;0.3508;1.3689;
871.2000;0.3500;1.3761;
871.5000;0.3484;1.3666;
871.8000;0.3508;1.3642;
872.1000;0.3500;1.3571;
872.4000;0.3435;1.3357;
872.7000;0.3549;1.3761;
873.0000;0.3492;1.3571;
873.3000;0.3492;1.3547;
873.6000;0.3492;1.3500;
873.9000;0.3484;1.3452;
874.2000;0.3500;1.3500;
874.5000;0.3484;1.3500;
874.8000;0.3492;1.3547;
875.1000;0.3492;1.3547;
875.4000;0.3500;1.3571;
875.7000;0.3500;1.3618;
876.0000;0.3492;1.3594;
876.3000;0.3500;1.3594;
876.6000;0.3476;1.3500;
876.9000;0.3500;1.3500;
877.2000;0.3492;1.3452;
877.5000;0.3484;1.3547;
877.8000;0.3451;1.3476;
878.1000;0.3468;1.3547;
878.4000;0.3492;1.3571;
878.7000;0.3476;1.3618;
879.0000;0.3427;1.3500;
879.3000;0.3476;1.3642;
879.6000;0.3476;1.3618;
879.9000;0.3484;1.3737;
880.2000;0.3394;1.3452;
880.5000;0.3411;1.3476;
880.8000;0.3492;1.3689;
881.1000;0.3492;1.3689;
881.4000;0.3468;1.3594;
881.7000;0.3476;1.3618;
882.0000;0.3476;1.3571;
882.3000;0.3484;1.3523;
882.6000;0.3492;1.3428;
882.9000;0.3484;1.3452;
883.2000;0.3484;1.3523;
883.5000;0.3476;1.3500;
883.8000;0.3484;1.3523;
884.1000;0.3492;1.3523;
884.4000;0.3500;1.3594;
884.7000;0.3500;1.3571;
885.0000;0.3508;1.3666;
885.3000;0.3492;1.3618;
885.6000;0.3500;1.3547;
885.9000;0.3484;1.3476;
886.2000;0.3468;1.3500;
886.5000;0.3492;1.3618;
886.8000;0.3484;1.3594;
887.1000;0.3484;1.3523;
887.4000;0.3484;1.3500;
887.7000;0.3484;1.3547;
888.0000;0.3484;1.3618;
888.3000;0.3484;1.3642;
888.6000;0.3492;1.3689;
888.9000;0.3484;1.3784;
889.2000;0.3500;1.3808;
889.5000;0.3484;1.3808;
889.8000;0.3492;1.3784;
890.1000;0.3484;1.3689;
890.4000;0.3500;1.3689;
890.7000;0.3500;1.3618;
891.0000;0.3492;1.3594;
891.3000;0.3476;1.3547;
891.6000;0.3468;1.3452;
891.9000;0.3468;1.3523;
892.2000;0.3468;1.3500;
892.5000;0.3476;1.3523;
892.8000;0.3476;1.3571;
893.1000;0.3476;1.3500;
893.4000;0.3484;1.3523;
893.7000;0.3492;1.3594;
894.0000;0.3476;1.3523;
894.3000;0.3500;1.3571;
894.6000;0.3500;1.3547;
894.9000;0.3484;1.3476;
895.2000;0.3468;1.3452;
895.5000;0.3508;1.3452;
895.8000;0.3476;1.3547;
896.1000;0.3492;1.3618;
896.4000;0.3492;1.3571;
896.7000;0.3500;1.3618;
897.0000;0.3492;1.3642;
897.3000;0.3476;1.3713;
897.6000;0.3484;1.3713;
897.9000;0.3484;1.3713;
898.2000;0.3492;1.3666;
898.5000;0.3484;1.3618;
898.8000;0.3460;1.3642;
899.1000;0.3500;1.3666;
899.4000;0.3484;1.3666;
899.7000;0.3484;1.3642;
900.0000;0.3476;1.3594;
900.3000;0.3468;1.3547;
900.6000;0.3476;1.3571;
900.9000;0.3484;1.3594;
901.2000;0.3492;1.3642;
901.5000;0.3476;1.3594;
901.8000;0.3484;1.3666;
902.1000;0.3500;1.3737;
902.4000;0.3476;1.3737;
902.7000;0.3468;1.3689;
903.0000;0.3525;1.3784;
903.3000;0.3492;1.3713;
903.6000;0.3516;1.3737;
903.9000;0.3557;1.3950;
904.2000;0.3516;1.3855;
904.5000;0.3492;1.3761;
904.8000;0.3500;1.3784;
905.1000;0.3451;1.3666;
905.4000;0.3484;1.3761;
905.7000;0.3500;1.3855;
906.0000;0.3460;1.3737;
906.3000;0.3492;1.3950;
906.6000;0.3484;1.3879;
906.9000;0.3476;1.3784;
907.2000;0.3492;1.3761;
907.5000;0.3394;1.3523;
907.8000;0.3476;1.3737;
908.1000;0.3468;1.3761;
908.4000;0.3476;1.3642;
908.7000;0.3476;1.3689;
909.0000;0.3468;1.3713;
909.3000;0.3443;1.3642;
909.6000;0.3492;1.3689;
909.9000;0.3476;1.3666;
910.2000;0.3476;1.3594;
910.5000;0.3492;1.3571;
910.8000;0.3476;1.3500;
911.1000;0.3484;1.3571;
911.4000;0.3476;1.3547;
911.7000;0.3468;1.3523;
912.0000;0.3492;1.3618;
912.3000;0.3484;1.3618;
912.6000;0.3476;1.3571;
912.9000;0.3492;1.3594;
913.2000;0.3484;1.3500;
913.5000;0.3476;1.3476;
913.8000;0.3451;1.3500;
914.1000;0.3484;1.3571;
914.4000;0.3468;1.3476;
914.7000;0.3484;1.3381;
915.0000;0.3500;1.3452;
915.3000;0.3476;1.3405;
915.6000;0.3476;1.3452;
915.9000;0.3484;1.3500;
916.2000;0.3492;1.3523;
916.5000;0.3460;1.3381;
916.8000;0.3468;1.3381;
917.1000;0.3476;1.3428;
917.4000;0.3468;1.3428;
917.7000;0.3476;1.3381;
918.0000;0.3484;1.3357;
918.3000;0.3484;1.3357;
918.6000;0.3419;1.3191;
918.9000;0.3476;1.3310;
919.2000;0.3492;1.3334;
919.5000;0.3468;1.3239;
919.8000;0.3492;1.3286;
920.1000;0.3476;1.3286;
920.4000;0.3525;1.3476;
920.7000;0.3484;1.3334;
921.0000;0.3492;1.3310;
921.3000;0.3460;1.3286;
921.6000;0.3492;1.3357;
921.9000;0.3460;1.3357;
922.2000;0.3484;1.3381;
922.5000;0.3484;1.3547;
922.8000;0.3484;1.3594;
923.1000;0.3516;1.3666;
923.4000;0.3476;1.3618;
923.7000;0.3484;1.3642;
924.0000;0.3484;1.3618;
924.3000;0.3476;1.3594;
924.6000;0.3476;1.3571;
924.9000;0.3468;1.3500;
925.2000;0.3500;1.3666;
925.5000;0.3427;1.3523;
925.8000;0.3476;1.3666;
926.1000;0.3460;1.3689;
926.4000;0.3525;1.3761;
926.7000;0.3468;1.3761;
927.0000;0.3411;1.3713;
927.3000;0.3468;1.3879;
927.6000;0.3427;1.3713;
927.9000;0.3476;1.3808;
928.2000;0.3476;1.3832;
928.5000;0.3468;1.3784;
928.8000;0.3484;1.3737;
929.1000;0.3484;1.3761;
929.4000;0.3476;1.3713;
929.7000;0.3468;1.3737;
930.0000;0.3484;1.3784;
930.3000;0.3484;1.3855;
930.6000;0.3476;1.3832;
930.9000;0.3484;1.3903;
931.2000;0.3492;1.3808;
931.5000;0.3476;1.3737;
931.8000;0.3476;1.3713;
932.1000;0.3484;1.3737;
932.4000;0.3492;1.3737;
932.7000;0.3484;1.3808;
933.0000;0.3484;1.3713;
933.3000;0.3460;1.3713;
933.6000;0.3476;1.3713;
933.9000;0.3476;1.3689;
934.2000;0.3484;1.3737;
934.5000;0.3476;1.3737;
934.8000;0.3525;1.3879;
935.1000;0.3476;1.3737;
935.4000;0.3484;1.3784;
935.7000;0.3468;1.3784;
936.0000;0.3476;1.3713;
936.3000;0.3476;1.3761;
936.6000;0.3492;1.3808;
936.9000;0.3468;1.3689;
937.2000;0.3516;1.3784;
937.5000;0.3443;1.3713;
937.8000;0.3500;1.3855;
938.1000;0.3435;1.3689;
938.4000;0.3451;1.3737;
938.7000;0.3516;1.3879;
939.0000;0.3476;1.3737;
939.3000;0.3492;1.3737;
939.6000;0.3378;1.3405;
939.9000;0.3484;1.3618;
940.2000;0.3468;1.3642;
940.5000;0.3500;1.3713;
940.8000;0.3484;1.3618;
941.1000;0.3476;1.3547;
941.4000;0.3460;1.3523;
941.7000;0.3394;1.3334;
942.0000;0.3476;1.3523;
942.3000;0.3484;1.3500;
942.6000;0.3476;1.3428;
942.9000;0.3492;1.3334;
943.2000;0.3484;1.3286;
943.5000;0.3468;1.3191;
943.8000;0.3492;1.3334;
944.1000;0.3468;1.3334;
944.4000;0.3492;1.3357;
944.7000;0.3476;1.3500;
945.0000;0.3476;1.3547;
945.3000;0.3492;1.3547;
945.6000;0.3484;1.3547;
945.9000;0.3476;1.3547;
946.2000;0.3484;1.3547;
946.5000;0.3476;1.3547;
946.8000;0.3476;1.3523;
947.1000;0.3460;1.3428;
947.4000;0.3468;1.3428;
947.7000;0.3460;1.3547;
948.0000;0.3476;1.3594;
948.3000;0.3468;1.3594;
948.6000;0.3476;1.3571;
948.9000;0.3476;1.3618;
949.2000;0.3476;1.3571;
949.5000;0.3468;1.3547;
949.8000;0.3460;1.3476;
950.1000;0.3468;1.3500;
950.4000;0.3460;1.3476;
950.7000;0.3492;1.3500;
951.0000;0.3460;1.3405;
951.3000;0.3419;1.3310;
951.6000;0.3468;1.3405;
951.9000;0.3484;1.3357;
952.2000;0.3460;1.3286;
952.5000;0.3460;1.3310;
952.8000;0.3468;1.3405;
953.1000;0.3435;1.3310;
953.4000;0.3443;1.3357;
953.7000;0.3468;1.3428;
954.0000;0.3468;1.3428;
954.3000;0.3468;1.3405;
954.6000;0.3484;1.3523;
954.9000;0.3468;1.3405;
955.2000;0.3484;1.3547;
955.5000;0.3468;1.3523;
955.8000;0.3476;1.3547;
956.1000;0.3443;1.3476;
956.4000;0.3468;1.3476;
956.7000;0.3460;1.3500;
957.0000;0.3468;1.3571;
957.3000;0.3476;1.3618;
957.6000;0.3476;1.3737;
957.9000;0.3476;1.3761;
958.2000;0.3468;1.3713;
958.5000;0.3427;1.3642;
958.8000;0.3394;1.3476;
959.1000;0.3460;1.3737;
959.4000;0.3460;1.3642;
959.7000;0.3468;1.3594;
960.0000;0.3460;1.3642;
960.3000;0.3427;1.3594;
960.6000;0.3460;1.3713;
960.9000;0.3443;1.3571;
961.2000;0.3484;1.3571;
961.5000;0.3476;1.3571;
961.8000;0.3500;1.3642;
962.1000;0.3484;1.3642;
962.4000;0.3451;1.3618;
962.7000;0.3508;1.3761;
963.0000;0.3435;1.3523;
963.3000;0.3460;1.3571;
963.6000;0.3443;1.3547;
963.9000;0.3468;1.3689;
964.2000;0.3460;1.3761;
964.5000;0.3484;1.3903;
964.8000;0.3403;1.3618;
965.1000;0.3468;1.3832;
965.4000;0.3484;1.3855;
965.7000;0.3484;1.3879;
966.0000;0.3468;1.3784;
966.3000;0.3460;1.3666;
966.6000;0.3460;1.3666;
966.9000;0.3476;1.3689;
967.2000;0.3468;1.3594;
967.5000;0.3443;1.3500;
967.8000;0.3460;1.3476;
968.1000;0.3451;1.3452;
968.4000;0.3468;1.3428;
968.7000;0.3468;1.3452;
969.0000;0.3460;1.3571;
969.3000;0.3492;1.3666;
969.6000;0.3468;1.3594;
969.9000;0.3476;1.3689;
970.2000;0.3460;1.3713;
970.5000;0.3476;1.3689;
970.8000;0.3492;1.3784;
971.1000;0.3484;1.3808;
971.4000;0.3476;1.3784;
971.7000;0.3476;1.3737;
972.0000;0.3476;1.3761;
972.3000;0.3476;1.3761;
972.6000;0.3468;1.3642;
972.9000;0.3468;1.3666;
973.2000;0.3468;1.3666;
973.5000;0.3468;1.3713;
973.8000;0.3476;1.3666;
974.1000;0.3460;1.3666;
974.4000;0.3476;1.3642;
974.7000;0.3492;1.3618;
975.0000;0.3484;1.3571;
975.3000;0.3443;1.3500;
975.6000;0.3525;1.3594;
975.9000;0.3476;1.3452;
976.2000;0.3492;1.3571;
976.5000;0.3468;1.3547;
976.8000;0.3460;1.3547;
977.1000;0.3443;1.3405;
977.4000;0.3484;1.3594;
977.7000;0.3460;1.3571;
978.0000;0.3468;1.3594;
978.3000;0.3484;1.3642;
978.6000;0.3476;1.3547;
978.9000;0.3484;1.3571;
979.2000;0.3500;1.3666;
979.5000;0.3468;1.3500;
979.8000;0.3468;1.3547;
980.1000;0.3468;1.3500;
980.4000;0.3443;1.3405;
980.7000;0.3468;1.3523;
981.0000;0.3451;1.3428;
981.3000;0.3460;1.3405;
981.6000;0.3468;1.3428;
981.9000;0.3484;1.3500;
982.2000;0.3500;1.3594;
982.5000;0.3500;1.3571;
982.8000;0.3500;1.3523;
983.1000;0.3460;1.3452;
983.4000;0.3468;1.3523;
983.7000;0.3476;1.3523;
984.0000;0.3451;1.3547;
984.3000;0.3476;1.3594;
984.6000;0.3468;1.3594;
984.9000;0.3460;1.3618;
985.2000;0.3468;1.3594;
985.5000;0.3476;1.3689;
985.8000;0.3460;1.3737;
986.1000;0.3460;1.3808;
986.4000;0.3468;1.3761;
986.7000;0.3468;1.3713;
987.0000;0.3476;1.3784;
987.3000;0.3451;1.3642;
987.6000;0.3451;1.3594;
987.9000;0.3451;1.3618;
988.2000;0.3468;1.3666;
988.5000;0.3468;1.3737;
988.8000;0.3476;1.3571;
989.1000;0.3468;1.3523;
989.4000;0.3500;1.3547;
989.7000;0.3484;1.3523;
990.0000;0.3460;1.3476;
990.3000;0.3476;1.3428;
990.6000;0.3476;1.3452;
990.9000;0.3460;1.3405;
991.2000;0.3468;1.3381;
991.5000;0.3451;1.3381;
991.8000;0.3451;1.3452;
992.1000;0.3468;1.3476;
992.4000;0.3451;1.3452;
992.7000;0.3460;1.3523;
993.0000;0.3443;1.3452;
993.3000;0.3484;1.3618;
993.6000;0.3460;1.3500;
993.9000;0.3468;1.3547;
994.2000;0.3460;1.3500;
994.5000;0.3468;1.3523;
994.8000;0.3451;1.3476;
995.1000;0.3460;1.3594;
995.4000;0.3460;1.3618;
995.7000;0.3460;1.3642;
996.0000;0.3460;1.3642;
996.3000;0.3451;1.3594;
996.6000;0.3468;1.3618;
996.9000;0.3451;1.3618;
997.2000;0.3460;1.3642;
997.5000;0.3451;1.3547;
997.8000;0.3468;1.3618;
998.1000;0.3443;1.3571;
998.4000;0.3443;1.3594;
998.7000;0.3460;1.3618;
999.0000;0.3443;1.3571;
999.3000;0.3443;1.3618;
999.6000;0.3468;1.3808;
999.9000;0.3476;1.3903;
1000.2000;0.3476;1.3832;
1000.5000;0.3468;1.3761;
1000.8000;0.3460;1.3689;
1001.1000;0.3443;1.3666;
1001.4000;0.3476;1.3808;
1001.7000;0.3451;1.3832;
1002.0000;0.3468;1.3855;
1002.3000;0.3476;1.3784;
1002.6000;0.3451;1.3713;
1002.9000;0.3476;1.3737;
1003.2000;0.3468;1.3689;
1003.5000;0.3460;1.3618;
1003.8000;0.3468;1.3618;
1004.1000;0.3451;1.3523;
1004.4000;0.3508;1.3618;
1004.7000;0.3476;1.3523;
1005.0000;0.3476;1.3618;
1005.3000;0.3460;1.3523;
1005.6000;0.3476;1.3500;
1005.9000;0.3460;1.3547;
1006.2000;0.3460;1.3594;
1006.5000;0.3451;1.3618;
1006.8000;0.3468;1.3689;
1007.1000;0.3460;1.3642;
1007.4000;0.3476;1.3594;
1007.7000;0.3468;1.3571;
1008.0000;0.3451;1.3523;
1008.3000;0.3451;1.3594;
1008.6000;0.3451;1.3594;
1008.9000;0.3403;1.3523;
1009.2000;0.3468;1.3594;
1009.5000;0.3460;1.3594;
1009.8000;0.3451;1.3547;
1010.1000;0.3460;1.3571;
1010.4000;0.3476;1.3594;
1010.7000;0.3460;1.3571;
1011.0000;0.3468;1.3618;
1011.3000;0.3476;1.3618;
1011.6000;0.3468;1.3594;
1011.9000;0.3468;1.3642;
1012.2000;0.3460;1.3571;
1012.5000;0.3443;1.3547;
1012.8000;0.3460;1.3737;
1013.1000;0.3443;1.3689;
1013.4000;0.3451;1.3642;
1013.7000;0.3468;1.3666;
1014.0000;0.3460;1.3594;
1014.3000;0.3468;1.3500;
1014.6000;0.3460;1.3523;
1014.9000;0.3468;1.3571;
1015.2000;0.3476;1.3571;
1015.5000;0.3460;1.3500;
1015.8000;0.3460;1.3547;
1016.1000;0.3460;1.3571;
1016.4000;0.3451;1.3594;
1016.7000;0.3476;1.3642;
1017.0000;0.3476;1.3642;
1017.3000;0.3451;1.3594;
1017.6000;0.3468;1.3594;
1017.9000;0.3460;1.3547;
1018.2000;0.3460;1.3571;
1018.5000;0.3451;1.3618;
1018.8000;0.3468;1.3689;
1019.1000;0.3460;1.3642;
1019.4000;0.3476;1.3618;
1019.7000;0.3468;1.3547;
1020.0000;0.3435;1.3500;
1020.3000;0.3460;1.3523;
1020.6000;0.3468;1.3523;
1020.9000;0.3460;1.3500;
1021.2000;0.3460;1.3547;
1021.5000;0.3451;1.3594;
1021.8000;0.3460;1.3618;
1022.1000;0.3435;1.3547;
1022.4000;0.3443;1.3594;
1022.7000;0.3451;1.3594;
1023.0000;0.3476;1.3689;
1023.3000;0.3435;1.3571;
1023.6000;0.3460;1.3547;
1023.9000;0.3476;1.3594;
1024.2000;0.3476;1.3642;
1024.5000;0.3451;1.3618;
1024.8000;0.3460;1.3666;
1025.1000;0.3468;1.3737;
1025.4000;0.3468;1.3689;
1025.7000;0.3460;1.3689;
1026.0000;0.3451;1.3713;
1026.3000;0.3468;1.3689;
1026.6000;0.3451;1.3666;
1026.9000;0.3460;1.3666;
1027.2000;0.3451;1.3571;
1027.5000;0.3476;1.3689;
1027.8000;0.3460;1.3594;
1028.1000;0.3443;1.3618;
1028.4000;0.3468;1.3594;
1028.7000;0.3451;1.3452;
1029.0000;0.3468;1.3547;
1029.3000;0.3476;1.3689;
1029.6000;0.3460;1.3642;
1029.9000;0.3451;1.3618;
1030.2000;0.3468;1.3618;
1030.5000;0.3451;1.3547;
1030.8000;0.3460;1.3594;
1031.1000;0.3451;1.3618;
1031.4000;0.3451;1.3618;
1031.7000;0.3533;1.3808;
1032.0000;0.3468;1.3689;
1032.3000;0.3460;1.3737;
1032.6000;0.3451;1.3713;
1032.9000;0.3468;1.3761;
1033.2000;0.3451;1.3618;
1033.5000;0.3460;1.3642;
1033.8000;0.3468;1.3571;
1034.1000;0.3460;1.3594;
1034.4000;0.3468;1.3618;
1034.7000;0.3468;1.3618;
1035.0000;0.3451;1.3689;
1035.3000;0.3468;1.3737;
1035.6000;0.3468;1.3666;
1035.9000;0.3451;1.3618;
1036.2000;0.3460;1.3642;
1036.5000;0.3476;1.3689;
1036.8000;0.3476;1.3642;
1037.1000;0.3451;1.3594;
1037.4000;0.3443;1.3594;
1037.7000;0.3468;1.3571;
1038.0000;0.3443;1.3618;
1038.3000;0.3460;1.3618;
1038.6000;0.3378;1.3476;
1038.9000;0.3451;1.3737;
1039.2000;0.3476;1.3879;
1039.5000;0.3468;1.3855;
1039.8000;0.3460;1.3832;
1040.1000;0.3476;1.3950;
1040.4000;0.3451;1.3855;
1040.7000;0.3468;1.3879;
1041.0000;0.3451;1.3808;
1041.3000;0.3460;1.3737;
1041.6000;0.3460;1.3737;
1041.9000;0.3386;1.3547;
1042.2000;0.3451;1.3713;
1042.5000;0.3468;1.3784;
1042.8000;0.3460;1.3737;
1043.1000;0.3492;1.3808;
1043.4000;0.3484;1.3808;
1043.7000;0.3451;1.3784;
1044.0000;0.3468;1.3832;
1044.3000;0.3460;1.3879;
1044.6000;0.3476;1.3879;
1044.9000;0.3460;1.3832;
1045.2000;0.3476;1.3855;
1045.5000;0.3443;1.3808;
1045.8000;0.3500;1.3927;
1046.1000;0.3468;1.3808;
1046.4000;0.3460;1.3808;
1046.7000;0.3460;1.3761;
1047.0000;0.3476;1.3761;
1047.3000;0.3443;1.3666;
1047.6000;0.3443;1.3689;
1047.9000;0.3460;1.3808;
1048.2000;0.3460;1.3689;
1048.5000;0.3451;1.3547;
1048.8000;0.3460;1.3571;
1049.1000;0.3460;1.3523;
1049.4000;0.3451;1.3642;
1049.7000;0.3468;1.3642;
1050.0000;0.3476;1.3689;
1050.3000;0.3468;1.3618;
1050.6000;0.3460;1.3618;
1050.9000;0.3460;1.3642;
1051.2000;0.3476;1.3618;
1051.5000;0.3484;1.3713;
1051.8000;0.3565;1.3903;
1052.1000;0.3468;1.3713;
1052.4000;0.3484;1.3761;
1052.7000;0.3443;1.3594;
1053.0000;0.3460;1.3689;
1053.3000;0.3468;1.3761;
1053.6000;0.3468;1.3713;
1053.9000;0.3451;1.3666;
1054.2000;0.3451;1.3618;
1054.5000;0.3460;1.3642;
1054.8000;0.3516;1.3713;
1055.1000;0.3460;1.3618;
1055.4000;0.3435;1.3571;
1055.7000;0.3468;1.3666;
1056.0000;0.3451;1.3594;
1056.3000;0.3451;1.3618;
1056.6000;0.3451;1.3713;
1056.9000;0.3451;1.3737;
1057.2000;0.3451;1.3666;
1057.5000;0.3557;1.3879;
1057.8000;0.3443;1.3666;
1058.1000;0.3451;1.3784;
1058.4000;0.3460;1.3808;
1058.7000;0.3468;1.3761;
1059.0000;0.3460;1.3666;
1059.3000;0.3565;1.3855;
1059.6000;0.3451;1.3571;
1059.9000;0.3451;1.3547;
1060.2000;0.3451;1.3428;
1060.5000;0.3468;1.3523;
1060.8000;0.3476;1.3500;
1061.1000;0.3451;1.3405;
1061.4000;0.3460;1.3381;
1061.7000;0.3443;1.3381;
1062.0000;0.3468;1.3405;
1062.3000;0.3460;1.3452;
1062.6000;0.3435;1.3381;
1062.9000;0.3443;1.3381;
1063.2000;0.3419;1.3310;
1063.5000;0.3484;1.3571;
1063.8000;0.3451;1.3618;
1064.1000;0.3451;1.3594;
1064.4000;0.3451;1.3642;
1064.7000;0.3468;1.3594;
1065.0000;0.3460;1.3571;
1065.3000;0.3460;1.3547;
1065.6000;0.3451;1.3594;
1065.9000;0.3460;1.3547;
1066.2000;0.3460;1.3571;
1066.5000;0.3492;1.3594;
1066.8000;0.3443;1.3476;
1067.1000;0.3468;1.3476;
1067.4000;0.3427;1.3357;
1067.7000;0.3435;1.3428;
1068.0000;0.3460;1.3571;
1068.3000;0.3378;1.3381;
1068.6000;0.3468;1.3571;
1068.9000;0.3476;1.3571;
1069.2000;0.3443;1.3476;
1069.5000;0.3451;1.3381;
1069.8000;0.3468;1.3452;
1070.1000;0.3484;1.3428;
1070.4000;0.3435;1.3357;
1070.7000;0.3419;1.3286;
1071.0000;0.3468;1.3405;
1071.3000;0.3468;1.3523;
1071.6000;0.3468;1.3571;
1071.9000;0.3468;1.3594;
1072.2000;0.3468;1.3666;
1072.5000;0.3451;1.3618;
1072.8000;0.3460;1.3642;
1073.1000;0.3394;1.3452;
1073.4000;0.3492;1.3666;
1073.7000;0.3468;1.3547;
1074.0000;0.3451;1.3523;
1074.3000;0.3468;1.3547;
1074.6000;0.3451;1.3476;
1074.9000;0.3484;1.3547;
1075.2000;0.3460;1.3500;
1075.5000;0.3435;1.3405;
1075.8000;0.3451;1.3500;
1076.1000;0.3443;1.3523;
1076.4000;0.3484;1.3618;
1076.7000;0.3460;1.3452;
1077.0000;0.3468;1.3523;
1077.3000;0.3516;1.3713;
1077.6000;0.3460;1.3594;
1077.9000;0.3419;1.3500;
1078.2000;0.3443;1.3594;
1078.5000;0.3460;1.3618;
1078.8000;0.3460;1.3642;
1079.1000;0.3443;1.3500;
1079.4000;0.3451;1.3571;
1079.7000;0.3460;1.3642;
1080.0000;0.3468;1.3666;
1080.3000;0.3435;1.3594;
1080.6000;0.3443;1.3594;
1080.9000;0.3468;1.3642;
1081.2000;0.3468;1.3547;
1081.5000;0.3443;1.3500;
1081.8000;0.3443;1.3547;
1082.1000;0.3460;1.3571;
1082.4000;0.3468;1.3594;
1082.7000;0.3460;1.3547;
1083.0000;0.3435;1.3500;
1083.3000;0.3460;1.3571;
1083.6000;0.3460;1.3642;
1083.9000;0.3468;1.3713;
1084.2000;0.3468;1.3713;
1084.5000;0.3451;1.3737;
1084.8000;0.3476;1.3737;
1085.1000;0.3419;1.3618;
1085.4000;0.3451;1.3666;
1085.7000;0.3460;1.3594;
1086.0000;0.3468;1.3571;
1086.3000;0.3419;1.3500;
1086.6000;0.3468;1.3594;
1086.9000;0.3460;1.3571;
1087.2000;0.3451;1.3618;
1087.5000;0.3443;1.3737;
1087.8000;0.3460;1.3761;
1088.1000;0.3541;1.4022;
1088.4000;0.3476;1.3808;
1088.7000;0.3451;1.3761;
1089.0000;0.3443;1.3737;
1089.3000;0.3427;1.3666;
1089.6000;0.3435;1.3713;
1089.9000;0.3460;1.3808;
1090.2000;0.3394;1.3594;
1090.5000;0.3460;1.3689;
1090.8000;0.3443;1.3666;
1091.1000;0.3403;1.3618;
1091.4000;0.3468;1.3713;
1091.7000;0.3468;1.3618;
1092.0000;0.3468;1.3689;
1092.3000;0.3362;1.3381;
1092.6000;0.3460;1.3594;
1092.9000;0.3451;1.3500;
1093.2000;0.3419;1.3428;
1093.5000;0.3443;1.3452;
1093.8000;0.3468;1.3500;
1094.1000;0.3468;1.3381;
1094.4000;0.3460;1.3334;
1094.7000;0.3468;1.3357;
1095.0000;0.3451;1.3357;
1095.3000;0.3468;1.3381;
1095.6000;0.3460;1.3405;
1095.9000;0.3476;1.3476;
1096.2000;0.3451;1.3405;
1096.5000;0.3468;1.3428;
1096.8000;0.3378;1.3286;
1097.1000;0.3427;1.3428;
1097.4000;0.3460;1.3452;
1097.7000;0.3460;1.3428;
1098.0000;0.3460;1.3452;
1098.3000;0.3435;1.3428;
1098.6000;0.3443;1.3405;
1098.9000;0.3557;1.3642;
1099.2000;0.3460;1.3428;
1099.5000;0.3549;1.3666;
1099.8000;0.3370;1.3215;
1100.1000;0.3460;1.3500;
1100.4000;0.3411;1.3405;
1100.7000;0.3460;1.3523;
1101.0000;0.3451;1.3547;
1101.3000;0.3460;1.3523;
1101.6000;0.3451;1.3547;
1101.9000;0.3492;1.3689;
1102.2000;0.3443;1.3618;
1102.5000;0.3451;1.3594;
1102.8000;0.3468;1.3594;
1103.1000;0.3443;1.3523;
1103.4000;0.3451;1.3523;
1103.7000;0.3476;1.3523;
1104.0000;0.3468;1.3476;
1104.3000;0.3460;1.3405;
1104.6000;0.3443;1.3357;
1104.9000;0.3435;1.3381;
1105.2000;0.3460;1.3286;
1105.5000;0.3435;1.3262;
1105.8000;0.3460;1.3357;
1106.1000;0.3484;1.3476;
1106.4000;0.3443;1.3500;
1106.7000;0.3451;1.3428;
1107.0000;0.3435;1.3452;
1107.3000;0.3443;1.3405;
1107.6000;0.3451;1.3381;
1107.9000;0.3451;1.3405;
1108.2000;0.3419;1.3286;
1108.5000;0.3427;1.3381;
1108.8000;0.3443;1.3405;
1109.1000;0.3443;1.3500;
1109.4000;0.3451;1.3618;
1109.7000;0.3451;1.3523;
1110.0000;0.3460;1.3476;
1110.3000;0.3468;1.3594;
1110.6000;0.3468;1.3571;
1110.9000;0.3443;1.3405;
1111.2000;0.3443;1.3381;
1111.5000;0.3460;1.3476;
1111.8000;0.3516;1.3571;
1112.1000;0.3476;1.3476;
1112.4000;0.3411;1.3357;
1112.7000;0.3443;1.3405;
1113.0000;0.3427;1.3428;
1113.3000;0.3460;1.3571;
1113.6000;0.3443;1.3500;
1113.9000;0.3541;1.3784;
1114.2000;0.3484;1.3666;
1114.5000;0.3435;1.3594;
1114.8000;0.3460;1.3547;
1115.1000;0.3419;1.3428;
1115.4000;0.3394;1.3452;
1115.7000;0.3443;1.3689;
1116.0000;0.3460;1.3666;
1116.3000;0.3451;1.3618;
1116.6000;0.3443;1.3594;
1116.9000;0.3451;1.3618;
1117.2000;0.3427;1.3428;
1117.5000;0.3443;1.3405;
1117.8000;0.3451;1.3405;
1118.1000;0.3443;1.3381;
1118.4000;0.3443;1.3405;
1118.7000;0.3460;1.3500;
1119.0000;0.3443;1.3666;
1119.3000;0.3460;1.3808;
1119.6000;0.3460;1.3855;
1119.9000;0.3443;1.3855;
1120.2000;0.3451;1.3784;
1120.5000;0.3427;1.3761;
1120.8000;0.3435;1.3737;
1121.1000;0.3427;1.3594;
1121.4000;0.3468;1.3571;
1121.7000;0.3468;1.3594;
1122.0000;0.3427;1.3547;
1122.3000;0.3460;1.3713;
1122.6000;0.3451;1.3737;
1122.9000;0.3500;1.3761;
1123.2000;0.3443;1.3642;
1123.5000;0.3451;1.3594;
1123.8000;0.3460;1.3618;
1124.1000;0.3394;1.3476;
1124.4000;0.3451;1.3618;
1124.7000;0.3500;1.3666;
1125.0000;0.3443;1.3405;
1125.3000;0.3484;1.3452;
1125.6000;0.3411;1.3262;
1125.9000;0.3460;1.3452;
1126.2000;0.3476;1.3571;
1126.5000;0.3468;1.3642;
1126.8000;0.3476;1.3571;
1127.1000;0.3435;1.3476;
1127.4000;0.3460;1.3594;
1127.7000;0.3443;1.3571;
1128.0000;0.3451;1.3642;
1128.3000;0.3451;1.3594;
1128.6000;0.3460;1.3618;
1128.9000;0.3443;1.3618;
1129.2000;0.3451;1.3618;
1129.5000;0.3460;1.3618;
1129.8000;0.3443;1.3594;
1130.1000;0.3378;1.3476;
1130.4000;0.3370;1.3476;
1130.7000;0.3460;1.3737;
1131.0000;0.3476;1.3666;
1131.3000;0.3386;1.3476;
1131.6000;0.3451;1.3594;
1131.9000;0.3476;1.3666;
1132.2000;0.3443;1.3594;
1132.5000;0.3460;1.3594;
1132.8000;0.3451;1.3618;
1133.1000;0.3460;1.3642;
1133.4000;0.3468;1.3594;
1133.7000;0.3460;1.3547;
1134.0000;0.3468;1.3523;
1134.3000;0.3451;1.3500;
1134.6000;0.3468;1.3594;
1134.9000;0.3411;1.3452;
1135.2000;0.3460;1.3594;
1135.5000;0.3451;1.3571;
1135.8000;0.3435;1.3547;
1136.1000;0.3435;1.3594;
1136.4000;0.3435;1.3547;
1136.7000;0.3443;1.3428;
1137.0000;0.3443;1.3476;
1137.3000;0.3460;1.3547;
1137.6000;0.3419;1.3500;
1137.9000;0.3468;1.3500;
1138.2000;0.3525;1.3689;
1138.5000;0.3460;1.3476;
1138.8000;0.3451;1.3476;
1139.1000;0.3451;1.3500;
1139.4000;0.3468;1.3523;
1139.7000;0.3460;1.3594;
1140.0000;0.3484;1.3666;
1140.3000;0.3451;1.3642;
1140.6000;0.3460;1.3666;
1140.9000;0.3460;1.3594;
1141.2000;0.3468;1.3689;
1141.5000;0.3443;1.3642;
1141.8000;0.3394;1.3547;
1142.1000;0.3451;1.3666;
1142.4000;0.3443;1.3642;
1142.7000;0.3460;1.3594;
1143.0000;0.3451;1.3594;
1143.3000;0.3451;1.3642;
1143.6000;0.3451;1.3642;
1143.9000;0.3460;1.3523;
1144.2000;0.3451;1.3523;
1144.5000;0.3525;1.3713;
1144.8000;0.3427;1.3571;
1145.1000;0.3443;1.3642;
1145.4000;0.3443;1.3618;
1145.7000;0.3451;1.3571;
1146.0000;0.3394;1.3476;
1146.3000;0.3443;1.3618;
1146.6000;0.3443;1.3571;
1146.9000;0.3460;1.3618;
1147.2000;0.3476;1.3666;
1147.5000;0.3460;1.3618;
1147.8000;0.3460;1.3666;
1148.1000;0.3435;1.3642;
1148.4000;0.3460;1.3689;
1148.7000;0.3468;1.3642;
1149.0000;0.3484;1.3689;
1149.3000;0.3460;1.3666;
1149.6000;0.3484;1.3689;
1149.9000;0.3443;1.3476;
1150.2000;0.3419;1.3500;
1150.5000;0.3435;1.3523;
1150.8000;0.3460;1.3571;
1151.1000;0.3460;1.3666;
1151.4000;0.3435;1.3642;
1151.7000;0.3451;1.3737;
1152.0000;0.3451;1.3737;
1152.3000;0.3451;1.3642;
1152.6000;0.3427;1.3642;
1152.9000;0.3443;1.3713;
1153.2000;0.3460;1.3642;
1153.5000;0.3460;1.3666;
1153.8000;0.3451;1.3689;
1154.1000;0.3451;1.3666;
1154.4000;0.3451;1.3594;
1154.7000;0.3460;1.3571;
1155.0000;0.3451;1.3547;
1155.3000;0.3460;1.3523;
1155.6000;0.3451;1.3571;
1155.9000;0.3451;1.3571;
1156.2000;0.3468;1.3594;
1156.5000;0.3427;1.3428;
1156.8000;0.3443;1.3547;
1157.1000;0.3460;1.3547;
1157.4000;0.3460;1.3618;
1157.7000;0.3443;1.3642;
1158.0000;0.3451;1.3737;
1158.3000;0.3451;1.3784;
1158.6000;0.3443;1.3642;
1158.9000;0.3443;1.3571;
1159.2000;0.3451;1.3523;
1159.5000;0.3451;1.3500;
1159.8000;0.3451;1.3452;
1160.1000;0.3435;1.3500;
1160.4000;0.3451;1.3500;
1160.7000;0.3394;1.3286;
1161.0000;0.3468;1.3500;
1161.3000;0.3451;1.3476;
1161.6000;0.3443;1.3428;
1161.9000;0.3451;1.3523;
1162.2000;0.3460;1.3547;
1162.5000;0.3451;1.3547;
1162.8000;0.3435;1.3547;
1163.1000;0.3443;1.3571;
1163.4000;0.3451;1.3666;
1163.7000;0.3451;1.3713;
1164.0000;0.3451;1.3737;
1164.3000;0.3451;1.3832;
1164.6000;0.3443;1.3784;
1164.9000;0.3476;1.3832;
1165.2000;0.3403;1.3642;
1165.5000;0.3460;1.3737;
1165.8000;0.3443;1.3666;
1166.1000;0.3460;1.3618;
1166.4000;0.3460;1.3618;
1166.7000;0.3451;1.3571;
1167.0000;0.3451;1.3500;
1167.3000;0.3443;1.3452;
1167.6000;0.3460;1.3476;
1167.9000;0.3443;1.3428;
1168.2000;0.3443;1.3428;
1168.5000;0.3484;1.3500;
1168.8000;0.3443;1.3381;
1169.1000;0.3451;1.3334;
1169.4000;0.3460;1.3405;
1169.7000;0.3451;1.3476;
1170.0000;0.3476;1.3571;
1170.3000;0.3484;1.3618;
1170.6000;0.3427;1.3547;
1170.9000;0.3394;1.3476;
1171.2000;0.3451;1.3642;
1171.5000;0.3460;1.3666;
1171.8000;0.3443;1.3594;
1172.1000;0.3460;1.3523;
1172.4000;0.3443;1.3571;
1172.7000;0.3435;1.3642;
1173.0000;0.3443;1.3642;
1173.3000;0.3403;1.3618;
1173.6000;0.3443;1.3689;
1173.9000;0.3484;1.3832;
1174.2000;0.3435;1.3689;
1174.5000;0.3435;1.3689;
1174.8000;0.3443;1.3689;
1175.1000;0.3443;1.3689;
1175.4000;0.3468;1.3737;
1175.7000;0.3443;1.3642;
1176.0000;0.3508;1.3855;
1176.3000;0.3443;1.3642;
1176.6000;0.3468;1.3713;
1176.9000;0.3492;1.3761;
1177.2000;0.3443;1.3713;
1177.5000;0.3468;1.3761;
1177.8000;0.3451;1.3666;
1178.1000;0.3460;1.3571;
1178.4000;0.3460;1.3618;
1178.7000;0.3451;1.3618;
1179.0000;0.3460;1.3713;
1179.3000;0.3427;1.3618;
1179.6000;0.3443;1.3547;
1179.9000;0.3451;1.3547;
1180.2000;0.3476;1.3713;
1180.5000;0.3476;1.3713;
1180.8000;0.3460;1.3713;
1181.1000;0.3411;1.3500;
1181.4000;0.3451;1.3594;
1181.7000;0.3460;1.3547;
1182.0000;0.3451;1.3500;
1182.3000;0.3435;1.3405;
1182.6000;0.3451;1.3547;
1182.9000;0.3476;1.3523;
1183.2000;0.3443;1.3428;
1183.5000;0.3435;1.3357;
1183.8000;0.3451;1.3452;
1184.1000;0.3460;1.3523;
1184.4000;0.3378;1.3262;
1184.7000;0.3492;1.3547;
1185.0000;0.3460;1.3571;
1185.3000;0.3460;1.3547;
1185.6000;0.3451;1.3547;
1185.9000;0.3435;1.3594;
1186.2000;0.3468;1.3689;
1186.5000;0.3476;1.3689;
1186.8000;0.3443;1.3666;
1187.1000;0.3346;1.3357;
1187.4000;0.3354;1.3428;
1187.7000;0.3443;1.3666;
1188.0000;0.3443;1.3594;
1188.3000;0.3451;1.3523;
1188.6000;0.3435;1.3547;
1188.9000;0.3451;1.3523;
1189.2000;0.3484;1.3618;
1189.5000;0.3460;1.3594;
1189.8000;0.3443;1.3618;
1190.1000;0.3460;1.3594;
1190.4000;0.3443;1.3689;
1190.7000;0.3468;1.3737;
1191.0000;0.3451;1.3761;
1191.3000;0.3451;1.3689;
1191.6000;0.3492;1.3737;
1191.9000;0.3468;1.3571;
1192.2000;0.3451;1.3547;
1192.5000;0.3484;1.3737;
1192.8000;0.3460;1.3666;
1193.1000;0.3451;1.3713;
1193.4000;0.3451;1.3737;
1193.7000;0.3419;1.3713;
1194.0000;0.3484;1.3855;
1194.3000;0.3451;1.3737;
1194.6000;0.3427;1.3713;
1194.9000;0.3435;1.3761;
1195.2000;0.3451;1.3689;
1195.5000;0.3443;1.3737;
1195.8000;0.3451;1.3642;
1196.1000;0.3451;1.3594;
1196.4000;0.3419;1.3547;
1196.7000;0.3443;1.3689;
1197.0000;0.3435;1.3689;
1197.3000;0.3427;1.3618;
1197.6000;0.3443;1.3618;
1197.9000;0.3460;1.3642;
1198.2000;0.3451;1.3689;
1198.5000;0.3460;1.3737;
1198.8000;0.3468;1.3855;
1199.1000;0.3492;1.3761;
1199.4000;0.3443;1.3761;
1199.7000;0.3443;1.3666;
1200.0000;0.3451;1.3642;
1200.3000;0.3460;1.3666;
1200.6000;0.3500;1.3832;
1200.9000;0.3435;1.3689;
1201.2000;0.3451;1.3618;
1201.5000;0.3435;1.3666;
1201.8000;0.3443;1.3713;
1202.1000;0.3443;1.3666;
1202.4000;0.3451;1.3666;
1202.7000;0.3435;1.3594;
1203.0000;0.3460;1.3737;
1203.3000;0.3443;1.3761;
1203.6000;0.3378;1.3547;
1203.9000;0.3468;1.3713;
1204.2000;0.3451;1.3642;
1204.5000;0.3435;1.3571;
1204.8000;0.3460;1.3571;
1205.1000;0.3460;1.3642;
1205.4000;0.3460;1.3594;
1205.7000;0.3484;1.3713;
1206.0000;0.3468;1.3642;
1206.3000;0.3394;1.3523;
1206.6000;0.3451;1.3737;
1206.9000;0.3394;1.3594;
1207.2000;0.3500;1.3855;
1207.5000;0.3443;1.3713;
1207.8000;0.3451;1.3737;
1208.1000;0.3492;1.3784;
1208.4000;0.3443;1.3642;
1208.7000;0.3443;1.3689;
1209.0000;0.3451;1.3666;
1209.3000;0.3460;1.3761;
1209.6000;0.3468;1.3784;
1209.9000;0.3451;1.3618;
1210.2000;0.3492;1.3618;
1210.5000;0.3451;1.3594;
1210.8000;0.3451;1.3642;
1211.1000;0.3451;1.3666;
1211.4000;0.3443;1.3666;
1211.7000;0.3460;1.3713;
1212.0000;0.3468;1.3737;
1212.3000;0.3451;1.3689;
1212.6000;0.3435;1.3594;
1212.9000;0.3460;1.3594;
1213.2000;0.3419;1.3428;
1213.5000;0.3451;1.3452;
1213.8000;0.3451;1.3476;
1214.1000;0.3460;1.3523;
1214.4000;0.3460;1.3571;
1214.7000;0.3451;1.3594;
1215.0000;0.3460;1.3547;
1215.3000;0.3460;1.3571;
1215.6000;0.3443;1.3618;
1215.9000;0.3451;1.3713;
1216.2000;0.3460;1.3713;
1216.5000;0.3484;1.3713;
1216.8000;0.3468;1.3642;
1217.1000;0.3451;1.3594;
1217.4000;0.3427;1.3642;
1217.7000;0.3443;1.3689;
1218.0000;0.3460;1.3808;
1218.3000;0.3451;1.3737;
1218.6000;0.3451;1.3713;
1218.9000;0.3451;1.3761;
1219.2000;0.3476;1.3808;
1219.5000;0.3460;1.3808;
1219.8000;0.3451;1.3808;
1220.1000;0.3435;1.3832;
1220.4000;0.3443;1.3832;
1220.7000;0.3460;1.3903;
1221.0000;0.3435;1.3879;
1221.3000;0.3451;1.3879;
1221.6000;0.3435;1.3855;
1221.9000;0.3468;1.3927;
1222.2000;0.3451;1.3950;
1222.5000;0.3451;1.3879;
1222.8000;0.3451;1.3903;
1223.1000;0.3451;1.3855;
1223.4000;0.3451;1.3832;
1223.7000;0.3460;1.3855;
1224.0000;0.3460;1.3808;
1224.3000;0.3468;1.3927;
1224.6000;0.3460;1.3903;
1224.9000;0.3419;1.3761;
1225.2000;0.3468;1.3855;
1225.5000;0.3468;1.3879;
1225.8000;0.3443;1.3998;
1226.1000;0.3508;1.4188;
1226.4000;0.3460;1.4022;
1226.7000;0.3460;1.3950;
1227.0000;0.3443;1.3950;
1227.3000;0.3460;1.3879;
1227.6000;0.3443;1.3784;
1227.9000;0.3460;1.3808;
1228.2000;0.3443;1.3737;
1228.5000;0.3443;1.3784;
1228.8000;0.3443;1.3832;
1229.1000;0.3468;1.3879;
1229.4000;0.3468;1.3832;
1229.7000;0.3460;1.3713;
1230.0000;0.3460;1.3547;
1230.3000;0.3427;1.3476;
1230.6000;0.3451;1.3500;
1230.9000;0.3549;1.3666;
1231.2000;0.3484;1.3452;
1231.5000;0.3443;1.3428;
1231.8000;0.3443;1.3428;
1232.1000;0.3460;1.3476;
1232.4000;0.3468;1.3571;
1232.7000;0.3435;1.3594;
1233.0000;0.3419;1.3547;
1233.3000;0.3435;1.3523;
1233.6000;0.3468;1.3547;
1233.9000;0.3460;1.3500;
1234.2000;0.3492;1.3618;
1234.5000;0.3468;1.3523;
1234.8000;0.3451;1.3452;
1235.1000;0.3476;1.3500;
1235.4000;0.3460;1.3428;
1235.7000;0.3460;1.3452;
1236.0000;0.3451;1.3476;
1236.3000;0.3451;1.3381;
1236.6000;0.3468;1.3334;
1236.9000;0.3443;1.3334;
1237.2000;0.3443;1.3310;
1237.5000;0.3460;1.3405;
1237.8000;0.3451;1.3310;
1238.1000;0.3451;1.3334;
1238.4000;0.3460;1.3452;
1238.7000;0.3500;1.3666;
1239.0000;0.3460;1.3594;
1239.3000;0.3549;1.3855;
1239.6000;0.3468;1.3618;
1239.9000;0.3468;1.3642;
1240.2000;0.3460;1.3689;
1240.5000;0.3451;1.3666;
1240.8000;0.3435;1.3642;
1241.1000;0.3476;1.3713;
1241.4000;0.3460;1.3666;
1241.7000;0.3451;1.3618;
1242.0000;0.3394;1.3428;
1242.3000;0.3484;1.3594;
1242.6000;0.3451;1.3523;
1242.9000;0.3443;1.3523;
1243.2000;0.3451;1.3452;
1243.5000;0.3476;1.3476;
1243.8000;0.3468;1.3405;
1244.1000;0.3460;1.3405;
1244.4000;0.3468;1.3381;
1244.7000;0.3460;1.3357;
1245.0000;0.3451;1.3334;
1245.3000;0.3468;1.3215;
1245.6000;0.3451;1.3120;
1245.9000;0.3460;1.3167;
1246.2000;0.3508;1.3262;
1246.5000;0.3460;1.3144;
1246.8000;0.3443;1.3144;
1247.1000;0.3443;1.3215;
1247.4000;0.3460;1.3357;
1247.7000;0.3468;1.3405;
1248.0000;0.3443;1.3357;
1248.3000;0.3476;1.3571;
1248.6000;0.3451;1.3452;
1248.9000;0.3476;1.3428;
1249.2000;0.3419;1.3357;
1249.5000;0.3468;1.3476;
1249.8000;0.3476;1.3405;
1250.1000;0.3451;1.3381;
1250.4000;0.3451;1.3405;
1250.7000;0.3468;1.3405;
1251.0000;0.3476;1.3452;
1251.3000;0.3468;1.3523;
1251.6000;0.3468;1.3476;
1251.9000;0.3451;1.3452;
1252.2000;0.3460;1.3523;
1252.5000;0.3468;1.3571;
1252.8000;0.3451;1.3523;
1253.1000;0.3427;1.3523;
1253.4000;0.3476;1.3571;
1253.7000;0.3460;1.3500;
1254.0000;0.3468;1.3571;
1254.3000;0.3460;1.3547;
1254.6000;0.3435;1.3500;
1254.9000;0.3500;1.3618;
1255.2000;0.3460;1.3452;
1255.5000;0.3443;1.3405;
1255.8000;0.3460;1.3357;
1256.1000;0.3427;1.3239;
1256.4000;0.3443;1.3310;
1256.7000;0.3468;1.3381;
1257.0000;0.3451;1.3357;
1257.3000;0.3516;1.3452;
1257.6000;0.3460;1.3262;
1257.9000;0.3443;1.3239;
1258.2000;0.3460;1.3191;
1258.5000;0.3460;1.3167;
1258.8000;0.3460;1.3286;
1259.1000;0.3484;1.3334;
1259.4000;0.3435;1.3262;
1259.7000;0.3435;1.3357;
1260.0000;0.3460;1.3405;
1260.3000;0.3468;1.3405;
1260.6000;0.3443;1.3334;
1260.9000;0.3443;1.3381;
1261.2000;0.3460;1.3452;
1261.5000;0.3460;1.3452;
1261.8000;0.3443;1.3428;
1262.1000;0.3460;1.3381;
1262.4000;0.3451;1.3357;
1262.7000;0.3476;1.3286;
1263.0000;0.3468;1.3357;
1263.3000;0.3468;1.3381;
1263.6000;0.3500;1.3571;
1263.9000;0.3476;1.3547;
1264.2000;0.3460;1.3500;
1264.5000;0.3354;1.3310;
1264.8000;0.3435;1.3452;
1265.1000;0.3460;1.3476;
1265.4000;0.3451;1.3381;
1265.7000;0.3451;1.3405;
1266.0000;0.3419;1.3310;
1266.3000;0.3435;1.3262;
1266.6000;0.3451;1.3310;
1266.9000;0.3451;1.3334;
1267.2000;0.3435;1.3334;
1267.5000;0.3443;1.3357;
1267.8000;0.3443;1.3310;
1268.1000;0.3468;1.3334;
1268.4000;0.3443;1.3262;
1268.7000;0.3435;1.3191;
1269.0000;0.3443;1.3239;
1269.3000;0.3443;1.3239;
1269.6000;0.3427;1.3215;
1269.9000;0.3435;1.3215;
1270.2000;0.3476;1.3405;
1270.5000;0.3451;1.3286;
1270.8000;0.3451;1.3310;
1271.1000;0.3411;1.3286;
1271.4000;0.3443;1.3310;
1271.7000;0.3443;1.3310;
1272.0000;0.3460;1.3262;
1272.3000;0.3460;1.3357;
1272.6000;0.3468;1.3428;
1272.9000;0.3451;1.3405;
1273.2000;0.3468;1.3500;
1273.5000;0.3435;1.3428;
1273.8000;0.3451;1.3452;
1274.1000;0.3451;1.3476;
1274.4000;0.3468;1.3523;
1274.7000;0.3460;1.3547;
1275.0000;0.3468;1.3594;
1275.3000;0.3451;1.3452;
1275.6000;0.3468;1.3500;
1275.9000;0.3460;1.3452;
1276.2000;0.3451;1.3452;
1276.5000;0.3468;1.3571;
1276.8000;0.3468;1.3571;
1277.1000;0.3476;1.3618;
1277.4000;0.3443;1.3523;
1277.7000;0.3435;1.3500;
1278.0000;0.3443;1.3500;
1278.3000;0.3443;1.3523;
1278.6000;0.3451;1.3500;
1278.9000;0.3468;1.3428;
1279.2000;0.3468;1.3310;
1279.5000;0.3451;1.3286;
1279.8000;0.3451;1.3262;
1280.1000;0.3451;1.3262;
1280.4000;0.3468;1.3215;
1280.7000;0.3443;1.3191;
1281.0000;0.3484;1.3452;
1281.3000;0.3451;1.3357;
1281.6000;0.3460;1.3405;
1281.9000;0.3443;1.3476;
1282.2000;0.3443;1.3476;
1282.5000;0.3460;1.3547;
1282.8000;0.3460;1.3523;
1283.1000;0.3468;1.3476;
1283.4000;0.3451;1.3452;
1283.7000;0.3460;1.3476;
1284.0000;0.3460;1.3500;
1284.3000;0.3476;1.3500;
1284.6000;0.3362;1.3096;
1284.9000;0.3468;1.3286;
1285.2000;0.3451;1.3167;
1285.5000;0.3468;1.3310;
1285.8000;0.3451;1.3191;
1286.1000;0.3451;1.3215;
1286.4000;0.3516;1.3381;
1286.7000;0.3443;1.3286;
1287.0000;0.3484;1.3357;
1287.3000;0.3435;1.3215;
1287.6000;0.3443;1.3239;
1287.9000;0.3451;1.3310;
1288.2000;0.3460;1.3310;
1288.5000;0.3451;1.3262;
1288.8000;0.3443;1.3239;
1289.1000;0.3443;1.3286;
1289.4000;0.3468;1.3381;
1289.7000;0.3484;1.3500;
1290.0000;0.3451;1.3500;
1290.3000;0.3460;1.3500;
1290.6000;0.3460;1.3452;
1290.9000;0.3443;1.3381;
1291.2000;0.3443;1.3428;
1291.5000;0.3443;1.3357;
1291.8000;0.3443;1.3357;
1292.1000;0.3451;1.3286;
1292.4000;0.3443;1.3357;
1292.7000;0.3451;1.3381;
1293.0000;0.3468;1.3381;
1293.3000;0.3468;1.3452;
1293.6000;0.3451;1.3428;
1293.9000;0.3451;1.3428;
1294.2000;0.3476;1.3381;
1294.5000;0.3476;1.3476;
1294.8000;0.3460;1.3476;
1295.1000;0.3476;1.3476;
1295.4000;0.3460;1.3523;
1295.7000;0.3476;1.3547;
1296.0000;0.3460;1.3476;
1296.3000;0.3451;1.3523;
1296.6000;0.3451;1.3452;
1296.9000;0.3460;1.3476;
1297.2000;0.3451;1.3523;
1297.5000;0.3346;1.3191;
1297.8000;0.3443;1.3476;
1298.1000;0.3443;1.3476;
1298.4000;0.3460;1.3523;
1298.7000;0.3419;1.3500;
1299.0000;0.3468;1.3571;
1299.3000;0.3443;1.3500;
1299.6000;0.3460;1.3428;
1299.9000;0.3451;1.3500;
1300.2000;0.3468;1.3452;
1300.5000;0.3468;1.3476;
1300.8000;0.3451;1.3452;
1301.1000;0.3435;1.3476;
1301.4000;0.3460;1.3594;
1301.7000;0.3468;1.3571;
1302.0000;0.3451;1.3547;
1302.3000;0.3451;1.3523;
1302.6000;0.3508;1.3713;
1302.9000;0.3443;1.3476;
1303.2000;0.3435;1.3428;
1303.5000;0.3476;1.3452;
1303.8000;0.3443;1.3357;
1304.1000;0.3476;1.3428;
1304.4000;0.3460;1.3381;
1304.7000;0.3460;1.3428;
1305.0000;0.3484;1.3428;
1305.3000;0.3451;1.3405;
1305.6000;0.3460;1.3476;
1305.9000;0.3451;1.3476;
1306.2000;0.3443;1.3381;
1306.5000;0.3451;1.3452;
1306.8000;0.3435;1.3452;
1307.1000;0.3443;1.3405;
1307.4000;0.3443;1.3428;
1307.7000;0.3435;1.3405;
1308.0000;0.3443;1.3452;
1308.3000;0.3460;1.3428;
1308.6000;0.3476;1.3452;
1308.9000;0.3443;1.3381;
1309.2000;0.3435;1.3405;
1309.5000;0.3476;1.3405;
1309.8000;0.3451;1.3357;
1310.1000;0.3435;1.3357;
1310.4000;0.3443;1.3381;
1310.7000;0.3516;1.3618;
1311.0000;0.3460;1.3452;
1311.3000;0.3451;1.3452;
1311.6000;0.3468;1.3571;
1311.9000;0.3468;1.3547;
1312.2000;0.3443;1.3428;
1312.5000;0.3451;1.3523;
1312.8000;0.3451;1.3452;
1313.1000;0.3460;1.3381;
1313.4000;0.3370;1.3144;
1313.7000;0.3468;1.3381;
1314.0000;0.3443;1.3381;
1314.3000;0.3451;1.3452;
1314.6000;0.3468;1.3452;
1314.9000;0.3468;1.3405;
1315.2000;0.3468;1.3452;
1315.5000;0.3468;1.3405;
1315.8000;0.3443;1.3405;
1316.1000;0.3460;1.3476;
1316.4000;0.3451;1.3476;
1316.7000;0.3435;1.3452;
1317.0000;0.3460;1.3523;
1317.3000;0.3443;1.3500;
1317.6000;0.3411;1.3476;
1317.9000;0.3451;1.3594;
1318.2000;0.3427;1.3547;
1318.5000;0.3460;1.3618;
1318.8000;0.3468;1.3594;
1319.1000;0.3370;1.3357;
1319.4000;0.3443;1.3500;
1319.7000;0.3476;1.3594;
1320.0000;0.3451;1.3547;
1320.3000;0.3460;1.3500;
1320.6000;0.3516;1.3571;
1320.9000;0.3500;1.3571;
1321.2000;0.3476;1.3428;
1321.5000;0.3419;1.3286;
1321.8000;0.3443;1.3310;
1322.1000;0.3443;1.3357;
1322.4000;0.3443;1.3310;
1322.7000;0.3460;1.3334;
1323.0000;0.3435;1.3310;
1323.3000;0.3443;1.3334;
1323.6000;0.3468;1.3381;
1323.9000;0.3492;1.3476;
1324.2000;0.3451;1.3428;
1324.5000;0.3443;1.3452;
1324.8000;0.3451;1.3500;
1325.1000;0.3460;1.3571;
1325.4000;0.3435;1.3547;
1325.7000;0.3435;1.3523;
1326.0000;0.3492;1.3713;
1326.3000;0.3378;1.3476;
1326.6000;0.3435;1.3642;
1326.9000;0.3435;1.3547;
1327.2000;0.3451;1.3642;
1327.5000;0.3460;1.3666;
1327.8000;0.3443;1.3666;
1328.1000;0.3403;1.3594;
1328.4000;0.3443;1.3666;
1328.7000;0.3451;1.3689;
1329.0000;0.3451;1.3642;
1329.3000;0.3460;1.3523;
1329.6000;0.3460;1.3500;
1329.9000;0.3468;1.3500;
1330.2000;0.3460;1.3428;
1330.5000;0.3460;1.3428;
1330.8000;0.3451;1.3405;
1331.1000;0.3460;1.3428;
1331.4000;0.3468;1.3452;
1331.7000;0.3451;1.3381;
1332.0000;0.3460;1.3262;
1332.3000;0.3476;1.3167;
1332.6000;0.3460;1.3073;
1332.9000;0.3451;1.3120;
1333.2000;0.3451;1.3239;
1333.5000;0.3451;1.3215;
1333.8000;0.3476;1.3262;
1334.1000;0.3460;1.3381;
1334.4000;0.3451;1.3381;
1334.7000;0.3451;1.3381;
1335.0000;0.3468;1.3500;
1335.3000;0.3451;1.3452;
1335.6000;0.3443;1.3381;
1335.9000;0.3451;1.3381;
1336.2000;0.3451;1.3405;
1336.5000;0.3451;1.3428;
1336.8000;0.3451;1.3381;
1337.1000;0.3451;1.3381;
1337.4000;0.3403;1.3239;
1337.7000;0.3460;1.3500;
1338.0000;0.3435;1.3476;
1338.3000;0.3451;1.3547;
1338.6000;0.3435;1.3523;
1338.9000;0.3460;1.3571;
1339.2000;0.3451;1.3452;
1339.5000;0.3443;1.3452;
1339.8000;0.3451;1.3452;
1340.1000;0.3460;1.3452;
1340.4000;0.3451;1.3405;
1340.7000;0.3451;1.3357;
1341.0000;0.3468;1.3428;
1341.3000;0.3460;1.3452;
1341.6000;0.3443;1.3452;
1341.9000;0.3451;1.3523;
1342.2000;0.3411;1.3452;
1342.5000;0.3451;1.3571;
1342.8000;0.3468;1.3642;
1343.1000;0.3468;1.3618;
1343.4000;0.3468;1.3594;
1343.7000;0.3468;1.3594;
1344.0000;0.3484;1.3618;
1344.3000;0.3468;1.3523;
1344.6000;0.3468;1.3500;
1344.9000;0.3460;1.3476;
1345.2000;0.3378;1.3452;
1345.5000;0.3460;1.3713;
1345.8000;0.3451;1.3737;
1346.1000;0.3451;1.3666;
1346.4000;0.3468;1.3618;
1346.7000;0.3468;1.3761;
1347.0000;0.3435;1.3666;
1347.3000;0.3460;1.3618;
1347.6000;0.3460;1.3642;
1347.9000;0.3460;1.3618;
1348.2000;0.3443;1.3666;
1348.5000;0.3443;1.3666;
1348.8000;0.3435;1.3618;
1349.1000;0.3460;1.3761;
1349.4000;0.3460;1.3713;
1349.7000;0.3476;1.3761;
1350.0000;0.3476;1.3761;
1350.3000;0.3427;1.3666;
1350.6000;0.3460;1.3784;
1350.9000;0.3443;1.3713;
1351.2000;0.3362;1.3452;
1351.5000;0.3443;1.3713;
1351.8000;0.3386;1.3666;
1352.1000;0.3451;1.3737;
1352.4000;0.3451;1.3666;
1352.7000;0.3460;1.3666;
1353.0000;0.3451;1.3761;
1353.3000;0.3451;1.3808;
1353.6000;0.3443;1.3784;
1353.9000;0.3443;1.3713;
1354.2000;0.3468;1.3737;
1354.5000;0.3460;1.3618;
1354.8000;0.3460;1.3594;
1355.1000;0.3460;1.3618;
1355.4000;0.3451;1.3689;
1355.7000;0.3451;1.3689;
1356.0000;0.3451;1.3571;
1356.3000;0.3443;1.3500;
1356.6000;0.3451;1.3547;
1356.9000;0.3386;1.3476;
1357.2000;0.3460;1.3689;
1357.5000;0.3460;1.3594;
1357.8000;0.3451;1.3689;
1358.1000;0.3427;1.3689;
1358.4000;0.3476;1.3879;
1358.7000;0.3468;1.3808;
1359.0000;0.3451;1.3808;
1359.3000;0.3460;1.3808;
1359.6000;0.3468;1.3761;
1359.9000;0.3460;1.3713;
1360.2000;0.3476;1.3784;
1360.5000;0.3460;1.3713;
1360.8000;0.3460;1.3737;
1361.1000;0.3451;1.3761;
1361.4000;0.3460;1.3761;
1361.7000;0.3460;1.3832;
1362.0000;0.3460;1.3879;
1362.3000;0.3460;1.3737;
1362.6000;0.3451;1.3666;
1362.9000;0.3468;1.3666;
1363.2000;0.3468;1.3689;
1363.5000;0.3460;1.3666;
1363.8000;0.3451;1.3594;
1364.1000;0.3460;1.3571;
1364.4000;0.3443;1.3405;
1364.7000;0.3451;1.3405;
1365.0000;0.3451;1.3452;
1365.3000;0.3468;1.3523;
1365.6000;0.3451;1.3642;
1365.9000;0.3443;1.3547;
1366.2000;0.3435;1.3547;
1366.5000;0.3451;1.3594;
1366.8000;0.3443;1.3571;
1367.1000;0.3443;1.3547;
1367.4000;0.3443;1.3571;
1367.7000;0.3451;1.3571;
1368.0000;0.3443;1.3666;
1368.3000;0.3468;1.3784;
1368.6000;0.3451;1.3713;
1368.9000;0.3476;1.3666;
1369.2000;0.3443;1.3642;
1369.5000;0.3460;1.3642;
1369.8000;0.3468;1.3547;
1370.1000;0.3460;1.3523;
1370.4000;0.3476;1.3571;
1370.7000;0.3460;1.3547;
1371.0000;0.3451;1.3452;
1371.3000;0.3435;1.3547;
1371.6000;0.3443;1.3642;
1371.9000;0.3443;1.3547;
1372.2000;0.3451;1.3523;
1372.5000;0.3451;1.3381;
1372.8000;0.3451;1.3262;
1373.1000;0.3460;1.3310;
1373.4000;0.3460;1.3334;
1373.7000;0.3484;1.3405;
1374.0000;0.3460;1.3381;
1374.3000;0.3468;1.3428;
1374.6000;0.3460;1.3500;
1374.9000;0.3451;1.3476;
1375.2000;0.3468;1.3500;
1375.5000;0.3451;1.3428;
1375.8000;0.3468;1.3405;
1376.1000;0.3435;1.3405;
1376.4000;0.3435;1.3381;
1376.7000;0.3443;1.3381;
1377.0000;0.3451;1.3381;
1377.3000;0.3443;1.3452;
1377.6000;0.3451;1.3452;
1377.9000;0.3460;1.3547;
1378.2000;0.3460;1.3523;
1378.5000;0.3460;1.3523;
1378.8000;0.3460;1.3547;
1379.1000;0.3460;1.3523;
1379.4000;0.3460;1.3452;
1379.7000;0.3476;1.3428;
1380.0000;0.3435;1.3357;
1380.3000;0.3451;1.3381;
1380.6000;0.3451;1.3405;
1380.9000;0.3451;1.3334;
1381.2000;0.3443;1.3357;
1381.5000;0.3468;1.3428;
1381.8000;0.3468;1.3500;
1382.1000;0.3443;1.3523;
1382.4000;0.3443;1.3547;
1382.7000;0.3443;1.3500;
1383.0000;0.3451;1.3476;
1383.3000;0.3394;1.3262;
1383.6000;0.3460;1.3405;
1383.9000;0.3460;1.3381;
1384.2000;0.3435;1.3428;
1384.5000;0.3460;1.3547;
1384.8000;0.3419;1.3500;
1385.1000;0.3476;1.3618;
1385.4000;0.3443;1.3594;
1385.7000;0.3451;1.3713;
1386.0000;0.3460;1.3808;
1386.3000;0.3435;1.3689;
1386.6000;0.3427;1.3642;
1386.9000;0.3443;1.3761;
1387.2000;0.3443;1.3784;
1387.5000;0.3451;1.3784;
1387.8000;0.3435;1.3737;
1388.1000;0.3451;1.3761;
1388.4000;0.3460;1.3784;
1388.7000;0.3451;1.3666;
1389.0000;0.3476;1.3642;
1389.3000;0.3435;1.3594;
1389.6000;0.3468;1.3642;
1389.9000;0.3468;1.3594;
1390.2000;0.3460;1.3618;
1390.5000;0.3460;1.3547;
1390.8000;0.3468;1.3571;
1391.1000;0.3492;1.3689;
1391.4000;0.3451;1.3523;
1391.7000;0.3460;1.3571;
1392.0000;0.3451;1.3618;
1392.3000;0.3468;1.3689;
1392.6000;0.3460;1.3571;
1392.9000;0.3427;1.3476;
1393.2000;0.3460;1.3618;
1393.5000;0.3468;1.3689;
1393.8000;0.3451;1.3689;
1394.1000;0.3460;1.3761;
1394.4000;0.3370;1.3594;
1394.7000;0.3492;1.4022;
1395.0000;0.3451;1.3832;
1395.3000;0.3468;1.3879;
1395.6000;0.3451;1.3761;
1395.9000;0.3476;1.3808;
1396.2000;0.3435;1.3642;
1396.5000;0.3460;1.3666;
1396.8000;0.3451;1.3618;
1397.1000;0.3443;1.3594;
1397.4000;0.3451;1.3571;
1397.7000;0.3460;1.3594;
1398.0000;0.3451;1.3594;
1398.3000;0.3443;1.3500;
1398.6000;0.3443;1.3500;
1398.9000;0.3468;1.3571;
1399.2000;0.3468;1.3594;
1399.5000;0.3484;1.3571;
1399.8000;0.3476;1.3547;
