time/ms;Fluo/V;P700 deltaI/I x10³;
-199.8000;0.4615;1.3571;
-199.5000;0.4615;1.3618;
-199.2000;0.4624;1.3642;
-198.9000;0.4632;1.3666;
-198.6000;0.4624;1.3713;
-198.3000;0.4615;1.3666;
-198.0000;0.4615;1.3618;
-197.7000;0.4607;1.3666;
-197.4000;0.4615;1.3666;
-197.1000;0.4624;1.3642;
-196.8000;0.4583;1.3523;
-196.5000;0.4599;1.3523;
-196.2000;0.4624;1.3547;
-195.9000;0.4624;1.3618;
-195.6000;0.4624;1.3547;
-195.3000;0.4632;1.3594;
-195.0000;0.4624;1.3547;
-194.7000;0.4558;1.3405;
-194.4000;0.4632;1.3571;
-194.1000;0.4624;1.3618;
-193.8000;0.4599;1.3642;
-193.5000;0.4640;1.3737;
-193.2000;0.4615;1.3808;
-192.9000;0.4632;1.3737;
-192.6000;0.4624;1.3713;
-192.3000;0.4672;1.3832;
-192.0000;0.4624;1.3713;
-191.7000;0.4607;1.3761;
-191.4000;0.4632;1.3761;
-191.1000;0.4640;1.3808;
-190.8000;0.4632;1.3832;
-190.5000;0.4697;1.3927;
-190.2000;0.4624;1.3737;
-189.9000;0.4615;1.3784;
-189.6000;0.4624;1.3784;
-189.3000;0.4615;1.3737;
-189.0000;0.4624;1.3784;
-188.7000;0.4615;1.3808;
-188.4000;0.4615;1.3808;
-188.1000;0.4632;1.3879;
-187.8000;0.4624;1.3832;
-187.5000;0.4615;1.3879;
-187.2000;0.4632;1.3855;
-186.9000;0.4624;1.3761;
-186.6000;0.4607;1.3713;
-186.3000;0.4624;1.3642;
-186.0000;0.4632;1.3547;
-185.7000;0.4615;1.3452;
-185.4000;0.4624;1.3405;
-185.1000;0.4624;1.3405;
-184.8000;0.4648;1.3452;
-184.5000;0.4624;1.3476;
-184.2000;0.4648;1.3618;
-183.9000;0.4640;1.3523;
-183.6000;0.4656;1.3618;
-183.3000;0.4599;1.3500;
-183.0000;0.4615;1.3523;
-182.7000;0.4615;1.3547;
-182.4000;0.4615;1.3618;
-182.1000;0.4615;1.3666;
-181.8000;0.4624;1.3689;
-181.5000;0.4632;1.3689;
-181.2000;0.4632;1.3666;
-180.9000;0.4615;1.3571;
-180.6000;0.4624;1.3547;
-180.3000;0.4615;1.3523;
-180.0000;0.4607;1.3594;
-179.7000;0.4615;1.3594;
-179.4000;0.4624;1.3618;
-179.1000;0.4656;1.3737;
-178.8000;0.4615;1.3571;
-178.5000;0.4615;1.3547;
-178.2000;0.4607;1.3571;
-177.9000;0.4615;1.3666;
-177.6000;0.4624;1.3737;
-177.3000;0.4607;1.3737;
-177.0000;0.4624;1.3832;
-176.7000;0.4615;1.3855;
-176.4000;0.4599;1.3855;
-176.1000;0.4615;1.3832;
-175.8000;0.4624;1.3713;
-175.5000;0.4632;1.3689;
-175.2000;0.4640;1.3689;
-174.9000;0.4632;1.3689;
-174.6000;0.4607;1.3666;
-174.3000;0.4615;1.3594;
-174.0000;0.4624;1.3618;
-173.7000;0.4632;1.3618;
-173.4000;0.4624;1.3547;
-173.1000;0.4632;1.3618;
-172.8000;0.4640;1.3666;
-172.5000;0.4615;1.3547;
-172.2000;0.4624;1.3666;
-171.9000;0.4599;1.3618;
-171.6000;0.4632;1.3689;
-171.3000;0.4624;1.3689;
-171.0000;0.4632;1.3666;
-170.7000;0.4640;1.3713;
-170.4000;0.4624;1.3666;
-170.1000;0.4615;1.3713;
-169.8000;0.4624;1.3784;
-169.5000;0.4615;1.3808;
-169.2000;0.4615;1.3761;
-168.9000;0.4632;1.3927;
-168.6000;0.4615;1.3927;
-168.3000;0.4615;1.3832;
-168.0000;0.4615;1.3832;
-167.7000;0.4615;1.3808;
-167.4000;0.4615;1.3808;
-167.1000;0.4615;1.3879;
-166.8000;0.4591;1.3832;
-166.5000;0.4624;1.3879;
-166.2000;0.4624;1.3879;
-165.9000;0.4624;1.3927;
-165.6000;0.4624;1.3974;
-165.3000;0.4640;1.3950;
-165.0000;0.4632;1.3855;
-164.7000;0.4624;1.3808;
-164.4000;0.4615;1.3808;
-164.1000;0.4624;1.3855;
-163.8000;0.4624;1.3784;
-163.5000;0.4624;1.3761;
-163.2000;0.4615;1.3808;
-162.9000;0.4632;1.3927;
-162.6000;0.4567;1.3713;
-162.3000;0.4615;1.3950;
-162.0000;0.4632;1.3974;
-161.7000;0.4624;1.3903;
-161.4000;0.4640;1.3927;
-161.1000;0.4583;1.3855;
-160.8000;0.4615;1.3879;
-160.5000;0.4591;1.3761;
-160.2000;0.4624;1.3879;
-159.9000;0.4615;1.3832;
-159.6000;0.4689;1.4069;
-159.3000;0.4607;1.3737;
-159.0000;0.4624;1.3832;
-158.7000;0.4615;1.3713;
-158.4000;0.4615;1.3689;
-158.1000;0.4583;1.3594;
-157.8000;0.4624;1.3689;
-157.5000;0.4632;1.3784;
-157.2000;0.4607;1.3784;
-156.9000;0.4615;1.3761;
-156.6000;0.4624;1.3832;
-156.3000;0.4632;1.3879;
-156.0000;0.4615;1.3879;
-155.7000;0.4599;1.3808;
-155.4000;0.4599;1.3832;
-155.1000;0.4640;1.3784;
-154.8000;0.4615;1.3737;
-154.5000;0.4672;1.3927;
-154.2000;0.4624;1.3784;
-153.9000;0.4615;1.3713;
-153.6000;0.4615;1.3689;
-153.3000;0.4624;1.3642;
-153.0000;0.4656;1.3689;
-152.7000;0.4624;1.3618;
-152.4000;0.4624;1.3594;
-152.1000;0.4607;1.3642;
-151.8000;0.4615;1.3689;
-151.5000;0.4713;1.3950;
-151.2000;0.4607;1.3689;
-150.9000;0.4615;1.3713;
-150.6000;0.4607;1.3713;
-150.3000;0.4615;1.3784;
-150.0000;0.4607;1.3784;
-149.7000;0.4624;1.3784;
-149.4000;0.4615;1.3784;
-149.1000;0.4615;1.3713;
-148.8000;0.4615;1.3713;
-148.5000;0.4624;1.3642;
-148.2000;0.4624;1.3594;
-147.9000;0.4624;1.3618;
-147.6000;0.4624;1.3666;
-147.3000;0.4632;1.3666;
-147.0000;0.4615;1.3547;
-146.7000;0.4615;1.3594;
-146.4000;0.4624;1.3713;
-146.1000;0.4664;1.3808;
-145.8000;0.4624;1.3666;
-145.5000;0.4615;1.3737;
-145.2000;0.4615;1.3713;
-144.9000;0.4624;1.3737;
-144.6000;0.4632;1.3737;
-144.3000;0.4615;1.3666;
-144.0000;0.4632;1.3737;
-143.7000;0.4624;1.3666;
-143.4000;0.4615;1.3666;
-143.1000;0.4615;1.3737;
-142.8000;0.4607;1.3689;
-142.5000;0.4624;1.3666;
-142.2000;0.4672;1.3784;
-141.9000;0.4632;1.3571;
-141.6000;0.4624;1.3618;
-141.3000;0.4615;1.3594;
-141.0000;0.4632;1.3642;
-140.7000;0.4632;1.3689;
-140.4000;0.4624;1.3642;
-140.1000;0.4632;1.3594;
-139.8000;0.4640;1.3594;
-139.5000;0.4607;1.3500;
-139.2000;0.4615;1.3618;
-138.9000;0.4615;1.3642;
-138.6000;0.4624;1.3666;
-138.3000;0.4624;1.3761;
-138.0000;0.4624;1.3832;
-137.7000;0.4607;1.3713;
-137.4000;0.4624;1.3808;
-137.1000;0.4615;1.3808;
-136.8000;0.4624;1.3784;
-136.5000;0.4607;1.3761;
-136.2000;0.4624;1.3761;
-135.9000;0.4607;1.3832;
-135.6000;0.4640;1.3832;
-135.3000;0.4624;1.3784;
-135.0000;0.4689;1.3832;
-134.7000;0.4632;1.3571;
-134.4000;0.4615;1.3618;
-134.1000;0.4615;1.3666;
-133.8000;0.4624;1.3713;
-133.5000;0.4615;1.3761;
-133.2000;0.4656;1.3879;
-132.9000;0.4615;1.3761;
-132.6000;0.4624;1.3784;
-132.3000;0.4526;1.3500;
-132.0000;0.4632;1.3761;
-131.7000;0.4640;1.3689;
-131.4000;0.4624;1.3642;
-131.1000;0.4632;1.3642;
-130.8000;0.4624;1.3642;
-130.5000;0.4624;1.3594;
-130.2000;0.4624;1.3523;
-129.9000;0.4632;1.3547;
-129.6000;0.4632;1.3594;
-129.3000;0.4615;1.3594;
-129.0000;0.4599;1.3571;
-128.7000;0.4607;1.3737;
-128.4000;0.4624;1.3903;
-128.1000;0.4615;1.3784;
-127.8000;0.4615;1.3784;
-127.5000;0.4672;1.4045;
-127.2000;0.4615;1.3808;
-126.9000;0.4624;1.3784;
-126.6000;0.4632;1.3689;
-126.3000;0.4591;1.3618;
-126.0000;0.4632;1.3689;
-125.7000;0.4615;1.3713;
-125.4000;0.4615;1.3666;
-125.1000;0.4624;1.3642;
-124.8000;0.4632;1.3666;
-124.5000;0.4624;1.3713;
-124.2000;0.4624;1.3761;
-123.9000;0.4615;1.3737;
-123.6000;0.4615;1.3618;
-123.3000;0.4583;1.3571;
-123.0000;0.4615;1.3666;
-122.7000;0.4632;1.3713;
-122.4000;0.4624;1.3642;
-122.1000;0.4632;1.3571;
-121.8000;0.4632;1.3523;
-121.5000;0.4624;1.3523;
-121.2000;0.4607;1.3618;
-120.9000;0.4632;1.3642;
-120.6000;0.4624;1.3689;
-120.3000;0.4526;1.3405;
-120.0000;0.4615;1.3689;
-119.7000;0.4615;1.3737;
-119.4000;0.4640;1.3808;
-119.1000;0.4624;1.3808;
-118.8000;0.4542;1.3618;
-118.5000;0.4632;1.3761;
-118.2000;0.4640;1.3784;
-117.9000;0.4632;1.3761;
-117.6000;0.4624;1.3808;
-117.3000;0.4624;1.3855;
-117.0000;0.4607;1.3784;
-116.7000;0.4624;1.3784;
-116.4000;0.4550;1.3594;
-116.1000;0.4721;1.3998;
-115.8000;0.4624;1.3642;
-115.5000;0.4664;1.3713;
-115.2000;0.4599;1.3689;
-114.9000;0.4689;1.3879;
-114.6000;0.4542;1.3523;
-114.3000;0.4607;1.3642;
-114.0000;0.4632;1.3666;
-113.7000;0.4607;1.3642;
-113.4000;0.4632;1.3713;
-113.1000;0.4624;1.3713;
-112.8000;0.4607;1.3784;
-112.5000;0.4664;1.3879;
-112.2000;0.4615;1.3761;
-111.9000;0.4632;1.3784;
-111.6000;0.4615;1.3713;
-111.3000;0.4615;1.3737;
-111.0000;0.4615;1.3713;
-110.7000;0.4632;1.3689;
-110.4000;0.4632;1.3808;
-110.1000;0.4615;1.3761;
-109.8000;0.4615;1.3761;
-109.5000;0.4615;1.3808;
-109.2000;0.4624;1.3808;
-108.9000;0.4624;1.3761;
-108.6000;0.4607;1.3784;
-108.3000;0.4607;1.3713;
-108.0000;0.4624;1.3713;
-107.7000;0.4599;1.3666;
-107.4000;0.4615;1.3713;
-107.1000;0.4615;1.3618;
-106.8000;0.4624;1.3618;
-106.5000;0.4624;1.3547;
-106.2000;0.4615;1.3666;
-105.9000;0.4615;1.3618;
-105.6000;0.4640;1.3666;
-105.3000;0.4632;1.3713;
-105.0000;0.4632;1.3784;
-104.7000;0.4607;1.3761;
-104.4000;0.4615;1.3808;
-104.1000;0.4607;1.3784;
-103.8000;0.4607;1.3784;
-103.5000;0.4615;1.3808;
-103.2000;0.4607;1.3879;
-102.9000;0.4607;1.4022;
-102.6000;0.4615;1.4045;
-102.3000;0.4591;1.4069;
-102.0000;0.4607;1.4069;
-101.7000;0.4615;1.4069;
-101.4000;0.4632;1.4140;
-101.1000;0.4615;1.4093;
-100.8000;0.4632;1.4164;
-100.5000;0.4624;1.4116;
-100.2000;0.4640;1.4116;
-99.9000;0.4624;1.3998;
-99.6000;0.4615;1.3950;
-99.3000;0.4615;1.3903;
-99.0000;0.4615;1.3808;
-98.7000;0.4656;1.3950;
-98.4000;0.4607;1.3808;
-98.1000;0.4624;1.3855;
-97.8000;0.4493;1.3571;
-97.5000;0.4624;1.3855;
-97.2000;0.4575;1.3832;
-96.9000;0.4624;1.3974;
-96.6000;0.4599;1.3903;
-96.3000;0.4534;1.3666;
-96.0000;0.4615;1.3855;
-95.7000;0.4615;1.3761;
-95.4000;0.4624;1.3713;
-95.1000;0.4648;1.3666;
-94.8000;0.4599;1.3452;
-94.5000;0.4624;1.3500;
-94.2000;0.4607;1.3452;
-93.9000;0.4624;1.3594;
-93.6000;0.4615;1.3618;
-93.3000;0.4599;1.3571;
-93.0000;0.4624;1.3713;
-92.7000;0.4615;1.3761;
-92.4000;0.4607;1.3689;
-92.1000;0.4624;1.3737;
-91.8000;0.4624;1.3737;
-91.5000;0.4624;1.3808;
-91.2000;0.4615;1.3784;
-90.9000;0.4558;1.3689;
-90.6000;0.4656;1.3808;
-90.3000;0.4615;1.3666;
-90.0000;0.4624;1.3689;
-89.7000;0.4632;1.3689;
-89.4000;0.4542;1.3500;
-89.1000;0.4624;1.3784;
-88.8000;0.4624;1.3689;
-88.5000;0.4624;1.3737;
-88.2000;0.4615;1.3737;
-87.9000;0.4664;1.3832;
-87.6000;0.4624;1.3784;
-87.3000;0.4640;1.3784;
-87.0000;0.4632;1.3713;
-86.7000;0.4624;1.3666;
-86.4000;0.4648;1.3666;
-86.1000;0.4672;1.3737;
-85.8000;0.4648;1.3689;
-85.5000;0.4640;1.3713;
-85.2000;0.4648;1.3737;
-84.9000;0.4640;1.3689;
-84.6000;0.4624;1.3737;
-84.3000;0.4624;1.3784;
-84.0000;0.4640;1.3808;
-83.7000;0.4615;1.3784;
-83.4000;0.4624;1.3832;
-83.1000;0.4607;1.3737;
-82.8000;0.4632;1.3713;
-82.5000;0.4624;1.3618;
-82.2000;0.4607;1.3594;
-81.9000;0.4599;1.3547;
-81.6000;0.4501;1.3310;
-81.3000;0.4624;1.3500;
-81.0000;0.4624;1.3594;
-80.7000;0.4591;1.3523;
-80.4000;0.4607;1.3500;
-80.1000;0.4632;1.3594;
-79.8000;0.4575;1.3500;
-79.5000;0.4624;1.3547;
-79.2000;0.4624;1.3476;
-78.9000;0.4624;1.3405;
-78.6000;0.4624;1.3476;
-78.3000;0.4599;1.3476;
-78.0000;0.4624;1.3547;
-77.7000;0.4632;1.3618;
-77.4000;0.4640;1.3737;
-77.1000;0.4624;1.3761;
-76.8000;0.4607;1.3784;
-76.5000;0.4615;1.3855;
-76.2000;0.4624;1.3974;
-75.9000;0.4591;1.3855;
-75.6000;0.4599;1.3808;
-75.3000;0.4599;1.3784;
-75.0000;0.4607;1.3832;
-74.7000;0.4591;1.3855;
-74.4000;0.4607;1.3808;
-74.1000;0.4615;1.3761;
-73.8000;0.4615;1.3808;
-73.5000;0.4624;1.3784;
-73.2000;0.4607;1.3784;
-72.9000;0.4607;1.3832;
-72.6000;0.4615;1.3832;
-72.3000;0.4615;1.3808;
-72.0000;0.4632;1.3713;
-71.7000;0.4575;1.3547;
-71.4000;0.4615;1.3737;
-71.1000;0.4615;1.3737;
-70.8000;0.4599;1.3713;
-70.5000;0.4615;1.3737;
-70.2000;0.4607;1.3689;
-69.9000;0.4624;1.3784;
-69.6000;0.4624;1.3903;
-69.3000;0.4599;1.3808;
-69.0000;0.4615;1.3832;
-68.7000;0.4607;1.3855;
-68.4000;0.4607;1.3784;
-68.1000;0.4624;1.3808;
-67.8000;0.4615;1.3784;
-67.5000;0.4632;1.3808;
-67.2000;0.4640;1.3808;
-66.9000;0.4607;1.3737;
-66.6000;0.4518;1.3594;
-66.3000;0.4632;1.3927;
-66.0000;0.4599;1.3903;
-65.7000;0.4607;1.4022;
-65.4000;0.4583;1.3974;
-65.1000;0.4640;1.4045;
-64.8000;0.4591;1.3974;
-64.5000;0.4615;1.3950;
-64.2000;0.4615;1.3950;
-63.9000;0.4615;1.3974;
-63.6000;0.4615;1.3950;
-63.3000;0.4567;1.3713;
-63.0000;0.4615;1.3855;
-62.7000;0.4599;1.3832;
-62.4000;0.4615;1.3879;
-62.1000;0.4607;1.3784;
-61.8000;0.4624;1.3832;
-61.5000;0.4607;1.3808;
-61.2000;0.4640;1.3927;
-60.9000;0.4624;1.3927;
-60.6000;0.4689;1.4116;
-60.3000;0.4615;1.3784;
-60.0000;0.4607;1.3761;
-59.7000;0.4624;1.3832;
-59.4000;0.4624;1.3879;
-59.1000;0.4632;1.3855;
-58.8000;0.4664;1.3950;
-58.5000;0.4624;1.3855;
-58.2000;0.4615;1.3927;
-57.9000;0.4591;1.3903;
-57.6000;0.4615;1.3974;
-57.3000;0.4624;1.4022;
-57.0000;0.4632;1.3998;
-56.7000;0.4607;1.3808;
-56.4000;0.4632;1.3784;
-56.1000;0.4615;1.3713;
-55.8000;0.4632;1.3713;
-55.5000;0.4624;1.3713;
-55.2000;0.4624;1.3761;
-54.9000;0.4632;1.3832;
-54.6000;0.4624;1.3713;
-54.3000;0.4607;1.3761;
-54.0000;0.4624;1.3761;
-53.7000;0.4615;1.3855;
-53.4000;0.4615;1.3855;
-53.1000;0.4615;1.3855;
-52.8000;0.4615;1.3832;
-52.5000;0.4624;1.3784;
-52.2000;0.4640;1.3855;
-51.9000;0.4632;1.3903;
-51.6000;0.4624;1.3998;
-51.3000;0.4624;1.3974;
-51.0000;0.4632;1.3998;
-50.7000;0.4648;1.4045;
-50.4000;0.4607;1.3950;
-50.1000;0.4632;1.3879;
-49.8000;0.4624;1.3903;
-49.5000;0.4615;1.3927;
-49.2000;0.4607;1.3927;
-48.9000;0.4615;1.3927;
-48.6000;0.4624;1.3855;
-48.3000;0.4624;1.3784;
-48.0000;0.4640;1.3784;
-47.7000;0.4632;1.3832;
-47.4000;0.4615;1.3832;
-47.1000;0.4640;1.3808;
-46.8000;0.4607;1.3879;
-46.5000;0.4624;1.3903;
-46.2000;0.4624;1.3927;
-45.9000;0.4615;1.3903;
-45.6000;0.4615;1.3832;
-45.3000;0.4632;1.3879;
-45.0000;0.4632;1.3855;
-44.7000;0.4615;1.3784;
-44.4000;0.4624;1.3808;
-44.1000;0.4632;1.3784;
-43.8000;0.4558;1.3594;
-43.5000;0.4648;1.3713;
-43.2000;0.4640;1.3832;
-42.9000;0.4624;1.3808;
-42.6000;0.4599;1.3737;
-42.3000;0.4656;1.3879;
-42.0000;0.4624;1.3784;
-41.7000;0.4615;1.3642;
-41.4000;0.4632;1.3571;
-41.1000;0.4632;1.3476;
-40.8000;0.4615;1.3452;
-40.5000;0.4624;1.3547;
-40.2000;0.4713;1.3879;
-39.9000;0.4615;1.3618;
-39.6000;0.4656;1.3571;
-39.3000;0.4615;1.3547;
-39.0000;0.4632;1.3642;
-38.7000;0.4615;1.3618;
-38.4000;0.4607;1.3618;
-38.1000;0.4615;1.3594;
-37.8000;0.4615;1.3571;
-37.5000;0.4607;1.3618;
-37.2000;0.4607;1.3642;
-36.9000;0.4681;1.3903;
-36.6000;0.4632;1.3784;
-36.3000;0.4624;1.3713;
-36.0000;0.4607;1.3689;
-35.7000;0.4615;1.3713;
-35.4000;0.4624;1.3713;
-35.1000;0.4624;1.3737;
-34.8000;0.4624;1.3737;
-34.5000;0.4615;1.3689;
-34.2000;0.4640;1.3713;
-33.9000;0.4599;1.3618;
-33.6000;0.4607;1.3618;
-33.3000;0.4624;1.3689;
-33.0000;0.4607;1.3618;
-32.7000;0.4615;1.3571;
-32.4000;0.4607;1.3523;
-32.1000;0.4624;1.3547;
-31.8000;0.4615;1.3547;
-31.5000;0.4599;1.3571;
-31.2000;0.4607;1.3689;
-30.9000;0.4607;1.3713;
-30.6000;0.4591;1.3761;
-30.3000;0.4615;1.3737;
-30.0000;0.4615;1.3737;
-29.7000;0.4615;1.3761;
-29.4000;0.4640;1.3784;
-29.1000;0.4607;1.3808;
-28.8000;0.4624;1.3784;
-28.5000;0.4615;1.3832;
-28.2000;0.4624;1.3903;
-27.9000;0.4632;1.3903;
-27.6000;0.4632;1.3855;
-27.3000;0.4615;1.3808;
-27.0000;0.4624;1.3879;
-26.7000;0.4624;1.3903;
-26.4000;0.4632;1.3784;
-26.1000;0.4599;1.3713;
-25.8000;0.4624;1.3832;
-25.5000;0.4624;1.3832;
-25.2000;0.4624;1.3761;
-24.9000;0.4615;1.3784;
-24.6000;0.4607;1.3761;
-24.3000;0.4632;1.3855;
-24.0000;0.4624;1.3737;
-23.7000;0.4607;1.3737;
-23.4000;0.4615;1.3784;
-23.1000;0.4607;1.3808;
-22.8000;0.4575;1.3713;
-22.5000;0.4599;1.3832;
-22.2000;0.4615;1.3950;
-21.9000;0.4615;1.3950;
-21.6000;0.4713;1.4211;
-21.3000;0.4607;1.3950;
-21.0000;0.4624;1.3903;
-20.7000;0.4615;1.3855;
-20.4000;0.4607;1.3784;
-20.1000;0.4615;1.3761;
-19.8000;0.4615;1.3737;
-19.5000;0.4607;1.3737;
-19.2000;0.4607;1.3761;
-18.9000;0.4624;1.3832;
-18.6000;0.4607;1.3761;
-18.3000;0.4624;1.3879;
-18.0000;0.4632;1.3855;
-17.7000;0.4648;1.3927;
-17.4000;0.4624;1.3879;
-17.1000;0.4632;1.3974;
-16.8000;0.4624;1.3903;
-16.5000;0.4632;1.3832;
-16.2000;0.4624;1.3855;
-15.9000;0.4615;1.3855;
-15.6000;0.4615;1.3879;
-15.3000;0.4640;1.3855;
-15.0000;0.4705;1.4045;
-14.7000;0.4624;1.3761;
-14.4000;0.4615;1.3737;
-14.1000;0.4583;1.3642;
-13.8000;0.4615;1.3737;
-13.5000;0.4624;1.3832;
-13.2000;0.4632;1.3950;
-12.9000;0.4632;1.3998;
-12.6000;0.4632;1.3950;
-12.3000;0.4624;1.3879;
-12.0000;0.4599;1.3832;
-11.7000;0.4624;1.3879;
-11.4000;0.4624;1.3927;
-11.1000;0.4607;1.3903;
-10.8000;0.4591;1.3808;
-10.5000;0.4624;1.3832;
-10.2000;0.4615;1.3808;
-9.9000;0.4624;1.3927;
-9.6000;0.4591;1.3855;
-9.3000;0.4607;1.3974;
-9.0000;0.4615;1.3927;
-8.7000;0.4599;1.3808;
-8.4000;0.4591;1.3832;
-8.1000;0.4615;1.3927;
-7.8000;0.4624;1.3974;
-7.5000;0.4624;1.3974;
-7.2000;0.4624;1.3903;
-6.9000;0.4624;1.3808;
-6.6000;0.4599;1.3761;
-6.3000;0.4632;1.3761;
-6.0000;0.4615;1.3737;
-5.7000;0.4615;1.3713;
-5.4000;0.4632;1.3666;
-5.1000;0.4615;1.3594;
-4.8000;0.4624;1.3666;
-4.5000;0.4615;1.3713;
-4.2000;0.4615;1.3642;
-3.9000;0.4615;1.3737;
-3.6000;0.4615;1.3737;
-3.3000;0.4624;1.3832;
-3.0000;0.4632;1.3974;
-2.7000;0.4624;1.3950;
-2.4000;0.4632;1.3974;
-2.1000;0.4624;1.3903;
-1.8000;0.4615;1.3832;
-1.5000;0.4632;1.3927;
-1.2000;0.4624;1.3879;
-0.9000;0.4599;1.3855;
-0.6000;0.4624;1.3903;
-0.3000;0.4615;1.3950;
0.0000;0.4615;1.3950;
0.3000;0.4762;1.3879;
0.6000;0.5039;1.4235;
0.9000;0.5226;1.4354;
1.2000;0.5405;1.4733;
1.5000;0.5511;1.4899;
1.8000;0.5600;1.5042;
2.1000;0.5682;1.5303;
2.4000;0.5763;1.5398;
2.7000;0.5812;1.5540;
3.0000;0.5877;1.5611;
3.3000;0.5893;1.5682;
3.6000;0.5958;1.5730;
3.9000;0.5975;1.5753;
4.2000;0.5983;1.5801;
4.5000;0.6040;1.5896;
4.8000;0.6064;1.5920;
5.1000;0.6097;1.5943;
5.4000;0.6138;1.5967;
5.7000;0.6138;1.5920;
6.0000;0.6162;1.5896;
6.3000;0.6235;1.6086;
6.6000;0.6203;1.5967;
6.9000;0.6227;1.6014;
7.2000;0.6268;1.6086;
7.5000;0.6276;1.6086;
7.8000;0.6268;1.6062;
8.1000;0.6300;1.6133;
8.4000;0.6333;1.6181;
8.7000;0.6357;1.6157;
9.0000;0.6365;1.6204;
9.3000;0.6374;1.6109;
9.6000;0.6382;1.6157;
9.9000;0.6374;1.6133;
10.2000;0.6406;1.6299;
10.5000;0.6357;1.6062;
10.8000;0.6422;1.6228;
11.1000;0.6439;1.6086;
11.4000;0.6463;1.6181;
11.7000;0.6463;1.6133;
12.0000;0.6463;1.6109;
12.3000;0.6504;1.6157;
12.6000;0.6528;1.6228;
12.9000;0.6520;1.6157;
13.2000;0.6520;1.6181;
13.5000;0.6528;1.6228;
13.8000;0.6520;1.6109;
14.1000;0.6545;1.6157;
14.4000;0.6561;1.6062;
14.7000;0.6569;1.6038;
15.0000;0.6585;1.6062;
15.3000;0.6585;1.6062;
15.6000;0.6602;1.6133;
15.9000;0.6593;1.6133;
16.2000;0.6602;1.6157;
16.5000;0.6610;1.6204;
16.8000;0.6634;1.6181;
17.1000;0.6610;1.6086;
17.4000;0.6642;1.6062;
17.7000;0.6650;1.6133;
18.0000;0.6553;1.5943;
18.3000;0.6642;1.6109;
18.6000;0.6667;1.6109;
18.9000;0.6683;1.6133;
19.2000;0.6683;1.6204;
19.5000;0.6675;1.6109;
19.8000;0.6691;1.6062;
20.1000;0.6699;1.6133;
20.4000;0.6699;1.6109;
20.7000;0.6699;1.6062;
21.0000;0.6691;1.5991;
21.3000;0.6724;1.6109;
21.6000;0.6699;1.6086;
21.9000;0.6716;1.6109;
22.2000;0.6675;1.5991;
22.5000;0.6716;1.6181;
22.8000;0.6732;1.6228;
23.1000;0.6732;1.6181;
23.4000;0.6724;1.6181;
23.7000;0.6748;1.6204;
24.0000;0.6756;1.6204;
24.3000;0.6756;1.6157;
24.6000;0.6732;1.6133;
24.9000;0.6748;1.6204;
25.2000;0.6748;1.6228;
25.5000;0.6740;1.6181;
25.8000;0.6740;1.6181;
26.1000;0.6756;1.6228;
26.4000;0.6740;1.6062;
26.7000;0.6764;1.6062;
27.0000;0.6764;1.6086;
27.3000;0.6756;1.6062;
27.6000;0.6805;1.6157;
27.9000;0.6781;1.6014;
28.2000;0.6781;1.6086;
28.5000;0.6772;1.6086;
28.8000;0.6764;1.6038;
29.1000;0.6797;1.6133;
29.4000;0.6789;1.6109;
29.7000;0.6781;1.6133;
30.0000;0.6707;1.5943;
30.3000;0.6764;1.5991;
30.6000;0.6781;1.6062;
30.9000;0.6805;1.6109;
31.2000;0.6797;1.6086;
31.5000;0.6789;1.6109;
31.8000;0.6805;1.6157;
32.1000;0.6789;1.6086;
32.4000;0.6838;1.6204;
32.7000;0.6805;1.6086;
33.0000;0.6886;1.6323;
33.3000;0.6919;1.6465;
33.6000;0.6805;1.6109;
33.9000;0.6813;1.6086;
34.2000;0.6821;1.6062;
34.5000;0.6748;1.5848;
34.8000;0.6862;1.6275;
35.1000;0.6813;1.6133;
35.4000;0.6748;1.5920;
35.7000;0.6813;1.6133;
36.0000;0.6813;1.6109;
36.3000;0.6919;1.6347;
36.6000;0.6829;1.6086;
36.9000;0.6805;1.5967;
37.2000;0.6789;1.5896;
37.5000;0.6829;1.6062;
37.8000;0.6838;1.6086;
38.1000;0.6829;1.6086;
38.4000;0.6838;1.6133;
38.7000;0.6838;1.6181;
39.0000;0.6829;1.6133;
39.3000;0.6838;1.6109;
39.6000;0.6829;1.6109;
39.9000;0.6829;1.6086;
40.2000;0.6829;1.6109;
40.5000;0.6838;1.6062;
40.8000;0.6821;1.6014;
41.1000;0.6829;1.6062;
41.4000;0.6846;1.6062;
41.7000;0.6838;1.6062;
42.0000;0.6838;1.5920;
42.3000;0.6838;1.5777;
42.6000;0.6838;1.5801;
42.9000;0.6838;1.5753;
43.2000;0.6846;1.5730;
43.5000;0.6846;1.5825;
43.8000;0.6846;1.5777;
44.1000;0.6821;1.5777;
44.4000;0.6854;1.5872;
44.7000;0.6829;1.5825;
45.0000;0.6838;1.5872;
45.3000;0.6854;1.5896;
45.6000;0.6854;1.5967;
45.9000;0.6854;1.5967;
46.2000;0.6870;1.5920;
46.5000;0.6854;1.5801;
46.8000;0.6878;1.5777;
47.1000;0.6878;1.5825;
47.4000;0.6862;1.5896;
47.7000;0.6846;1.5872;
48.0000;0.6862;1.5872;
48.3000;0.6846;1.5872;
48.6000;0.6870;1.5943;
48.9000;0.6878;1.6062;
49.2000;0.6838;1.6014;
49.5000;0.6862;1.6086;
49.8000;0.6854;1.6062;
50.1000;0.6854;1.6086;
50.4000;0.6862;1.6014;
50.7000;0.6878;1.6062;
51.0000;0.6870;1.6038;
51.3000;0.6870;1.6014;
51.6000;0.6878;1.6014;
51.9000;0.6870;1.6062;
52.2000;0.6878;1.6109;
52.5000;0.6862;1.5943;
52.8000;0.6878;1.5872;
53.1000;0.6886;1.5825;
53.4000;0.6878;1.5730;
53.7000;0.6862;1.5777;
54.0000;0.6886;1.5872;
54.3000;0.6886;1.5920;
54.6000;0.6886;1.5825;
54.9000;0.6911;1.5801;
55.2000;0.6870;1.5730;
55.5000;0.6854;1.5706;
55.8000;0.6895;1.5896;
56.1000;0.6870;1.5896;
56.4000;0.6895;1.6038;
56.7000;0.6992;1.6323;
57.0000;0.6903;1.6157;
57.3000;0.6886;1.6109;
57.6000;0.6870;1.6157;
57.9000;0.6862;1.6109;
58.2000;0.6895;1.6228;
58.5000;0.6895;1.6252;
58.8000;0.6895;1.6299;
59.1000;0.6895;1.6228;
59.4000;0.6854;1.6109;
59.7000;0.6886;1.6133;
60.0000;0.6870;1.6014;
60.3000;0.6952;1.6252;
60.6000;0.6895;1.6086;
60.9000;0.6903;1.6109;
61.2000;0.6895;1.5991;
61.5000;0.6886;1.5920;
61.8000;0.6895;1.5920;
62.1000;0.6952;1.5967;
62.4000;0.6911;1.5825;
62.7000;0.6878;1.5848;
63.0000;0.6911;1.5896;
63.3000;0.6878;1.5801;
63.6000;0.6878;1.5825;
63.9000;0.6886;1.5801;
64.2000;0.6895;1.5777;
64.5000;0.6903;1.5730;
64.8000;0.6886;1.5706;
65.1000;0.6895;1.5682;
65.4000;0.6895;1.5682;
65.7000;0.6927;1.5825;
66.0000;0.6903;1.5730;
66.3000;0.6903;1.5777;
66.6000;0.6935;1.5920;
66.9000;0.6895;1.5920;
67.2000;0.6903;1.5896;
67.5000;0.6911;1.5920;
67.8000;0.6903;1.5848;
68.1000;0.6895;1.5730;
68.4000;0.6895;1.5848;
68.7000;0.6895;1.5920;
69.0000;0.6895;1.5896;
69.3000;0.6870;1.5872;
69.6000;0.6919;1.5920;
69.9000;0.6886;1.5896;
70.2000;0.6870;1.5825;
70.5000;0.6878;1.5991;
70.8000;0.6895;1.6038;
71.1000;0.6895;1.6014;
71.4000;0.6911;1.6086;
71.7000;0.6903;1.5967;
72.0000;0.6895;1.5943;
72.3000;0.6935;1.6086;
72.6000;0.6903;1.6014;
72.9000;0.6911;1.5991;
73.2000;0.6911;1.6086;
73.5000;0.6911;1.5967;
73.8000;0.6903;1.5825;
74.1000;0.6927;1.5896;
74.4000;0.6895;1.5920;
74.7000;0.6919;1.6038;
75.0000;0.6911;1.6014;
75.3000;0.6903;1.5896;
75.6000;0.6895;1.5825;
75.9000;0.6886;1.5753;
76.2000;0.6911;1.5730;
76.5000;0.6903;1.5801;
76.8000;0.6911;1.5848;
77.1000;0.6911;1.5848;
77.4000;0.6911;1.5848;
77.7000;0.6927;1.5967;
78.0000;0.6919;1.5848;
78.3000;0.6919;1.5872;
78.6000;0.6935;1.5943;
78.9000;0.6911;1.5943;
79.2000;0.6903;1.5920;
79.5000;0.6911;1.5967;
79.8000;0.6935;1.5943;
80.1000;0.6943;1.6014;
80.4000;0.6911;1.5991;
80.7000;0.6903;1.5967;
81.0000;0.6935;1.6014;
81.3000;0.6911;1.5896;
81.6000;0.6903;1.5825;
81.9000;0.6911;1.5848;
82.2000;0.6919;1.5896;
82.5000;0.6903;1.5801;
82.8000;0.6895;1.5801;
83.1000;0.6911;1.5896;
83.4000;0.6911;1.5920;
83.7000;0.6919;1.5872;
84.0000;0.6960;1.5991;
84.3000;0.6919;1.5896;
84.6000;0.6911;1.5872;
84.9000;0.6911;1.5872;
85.2000;0.6895;1.5848;
85.5000;0.6886;1.5967;
85.8000;0.6895;1.5967;
86.1000;0.6911;1.5920;
86.4000;0.6911;1.5920;
86.7000;0.6895;1.5801;
87.0000;0.6911;1.5848;
87.3000;0.6903;1.5848;
87.6000;0.6927;1.5872;
87.9000;0.6895;1.5825;
88.2000;0.6911;1.5825;
88.5000;0.6919;1.5848;
88.8000;0.6919;1.5896;
89.1000;0.6919;1.5872;
89.4000;0.6911;1.5848;
89.7000;0.6919;1.5777;
90.0000;0.6911;1.5896;
90.3000;0.6911;1.5872;
90.6000;0.6903;1.5896;
90.9000;0.6919;1.5920;
91.2000;0.6911;1.5872;
91.5000;0.6919;1.5896;
91.8000;0.6919;1.5777;
92.1000;0.6919;1.5706;
92.4000;0.6919;1.5730;
92.7000;0.6911;1.5659;
93.0000;0.6886;1.5659;
93.3000;0.6911;1.5730;
93.6000;0.6903;1.5801;
93.9000;0.6911;1.5848;
94.2000;0.6919;1.5872;
94.5000;0.6903;1.5825;
94.8000;0.6895;1.5801;
95.1000;0.6903;1.5730;
95.4000;0.7066;1.6133;
95.7000;0.6911;1.5682;
96.0000;0.6968;1.5848;
96.3000;0.6919;1.5777;
96.6000;0.6911;1.5730;
96.9000;0.6919;1.5848;
97.2000;0.6927;1.5872;
97.5000;0.6895;1.5848;
97.8000;0.6927;1.5825;
98.1000;0.6911;1.5753;
98.4000;0.6911;1.5753;
98.7000;0.6919;1.5730;
99.0000;0.6911;1.5706;
99.3000;0.6919;1.5706;
99.6000;0.6895;1.5706;
99.9000;0.6911;1.5730;
100.2000;0.6919;1.5801;
100.5000;0.6911;1.5920;
100.8000;0.6927;1.5920;
101.1000;0.6903;1.5801;
101.4000;0.6935;1.5896;
101.7000;0.6919;1.5801;
102.0000;0.6919;1.5825;
102.3000;0.6911;1.5848;
102.6000;0.6927;1.5896;
102.9000;0.6927;1.5777;
103.2000;0.6919;1.5801;
103.5000;0.6935;1.5848;
103.8000;0.6919;1.5848;
104.1000;0.6927;1.5825;
104.4000;0.6911;1.5777;
104.7000;0.6911;1.5825;
105.0000;0.6813;1.5564;
105.3000;0.6911;1.5872;
105.6000;0.6927;1.5801;
105.9000;0.6911;1.5777;
106.2000;0.6935;1.5753;
106.5000;0.6919;1.5753;
106.8000;0.6927;1.5730;
107.1000;0.6895;1.5730;
107.4000;0.6919;1.5706;
107.7000;0.6943;1.5777;
108.0000;0.6935;1.5801;
108.3000;0.6935;1.5848;
108.6000;0.6927;1.5825;
108.9000;0.6935;1.5872;
109.2000;0.6943;1.5920;
109.5000;0.6935;1.5848;
109.8000;0.6943;1.5753;
110.1000;0.6919;1.5706;
110.4000;0.6919;1.5635;
110.7000;0.6919;1.5635;
111.0000;0.6919;1.5659;
111.3000;0.6927;1.5706;
111.6000;0.6903;1.5682;
111.9000;0.6935;1.5730;
112.2000;0.6927;1.5753;
112.5000;0.6919;1.5848;
112.8000;0.6927;1.5943;
113.1000;0.6927;1.5967;
113.4000;0.6919;1.5872;
113.7000;0.6919;1.5777;
114.0000;0.6935;1.5730;
114.3000;0.6935;1.5706;
114.6000;0.6927;1.5635;
114.9000;0.6927;1.5635;
115.2000;0.6919;1.5682;
115.5000;0.6919;1.5587;
115.8000;0.6919;1.5611;
116.1000;0.6911;1.5635;
116.4000;0.6903;1.5682;
116.7000;0.6919;1.5825;
117.0000;0.6927;1.5896;
117.3000;0.6911;1.5967;
117.6000;0.6919;1.5991;
117.9000;0.6927;1.5943;
118.2000;0.6911;1.5848;
118.5000;0.6903;1.5730;
118.8000;0.6927;1.5730;
119.1000;0.6919;1.5753;
119.4000;0.6984;1.5943;
119.7000;0.6903;1.5730;
120.0000;0.6919;1.5753;
120.3000;0.6927;1.5872;
120.6000;0.6927;1.5777;
120.9000;0.6919;1.5753;
121.2000;0.6911;1.5872;
121.5000;0.6886;1.5801;
121.8000;0.6911;1.5753;
122.1000;0.6927;1.5777;
122.4000;0.6935;1.5848;
122.7000;0.6927;1.5753;
123.0000;0.6935;1.5753;
123.3000;0.6862;1.5587;
123.6000;0.6911;1.5682;
123.9000;0.6960;1.5825;
124.2000;0.6911;1.5682;
124.5000;0.6927;1.5777;
124.8000;0.6927;1.5801;
125.1000;0.6886;1.5706;
125.4000;0.6911;1.5777;
125.7000;0.6927;1.5730;
126.0000;0.6903;1.5659;
126.3000;0.7017;1.6014;
126.6000;0.6911;1.5777;
126.9000;0.6911;1.5801;
127.2000;0.6935;1.5801;
127.5000;0.6911;1.5777;
127.8000;0.6919;1.5801;
128.1000;0.6903;1.5896;
128.4000;0.6911;1.5943;
128.7000;0.6919;1.5920;
129.0000;0.6919;1.5896;
129.3000;0.6935;1.5943;
129.6000;0.6895;1.5872;
129.9000;0.6911;1.5825;
130.2000;0.6911;1.5848;
130.5000;0.6919;1.5967;
130.8000;0.6919;1.5896;
131.1000;0.6927;1.5920;
131.4000;0.6911;1.5872;
131.7000;0.6919;1.5872;
132.0000;0.6919;1.5848;
132.3000;0.6919;1.5848;
132.6000;0.6919;1.5896;
132.9000;0.6919;1.5896;
133.2000;0.6927;1.5872;
133.5000;0.6943;1.5943;
133.8000;0.6927;1.5967;
134.1000;0.6919;1.5943;
134.4000;0.6919;1.5872;
134.7000;0.6903;1.5848;
135.0000;0.6927;1.5872;
135.3000;0.6984;1.6038;
135.6000;0.6927;1.5896;
135.9000;0.6927;1.5920;
136.2000;0.6903;1.5943;
136.5000;0.7033;1.6181;
136.8000;0.6919;1.5943;
137.1000;0.6927;1.5801;
137.4000;0.6927;1.5848;
137.7000;0.6919;1.5753;
138.0000;0.6927;1.5801;
138.3000;0.6935;1.5896;
138.6000;0.6911;1.5872;
138.9000;0.6911;1.5896;
139.2000;0.6927;1.5967;
139.5000;0.6903;1.5872;
139.8000;0.6927;1.5920;
140.1000;0.6919;1.5943;
140.4000;0.6927;1.5872;
140.7000;0.6919;1.5920;
141.0000;0.6919;1.5991;
141.3000;0.6911;1.5920;
141.6000;0.6919;1.5896;
141.9000;0.6919;1.5872;
142.2000;0.6911;1.5872;
142.5000;0.6886;1.5825;
142.8000;0.6927;1.5920;
143.1000;0.6919;1.5920;
143.4000;0.7009;1.6109;
143.7000;0.6927;1.5896;
144.0000;0.6911;1.5825;
144.3000;0.6927;1.5872;
144.6000;0.6919;1.5920;
144.9000;0.6927;1.5848;
145.2000;0.6870;1.5753;
145.5000;0.6911;1.5801;
145.8000;0.6960;1.5920;
146.1000;0.6895;1.5801;
146.4000;0.6935;1.5967;
146.7000;0.6878;1.5801;
147.0000;0.6911;1.5825;
147.3000;0.6911;1.5801;
147.6000;0.6903;1.5825;
147.9000;0.6935;1.5872;
148.2000;0.6895;1.5753;
148.5000;0.6927;1.5801;
148.8000;0.6927;1.5706;
149.1000;0.6903;1.5706;
149.4000;0.6927;1.5753;
149.7000;0.6911;1.5659;
150.0000;0.6927;1.5635;
150.3000;0.6886;1.5587;
150.6000;0.6911;1.5516;
150.9000;0.6919;1.5469;
151.2000;0.6976;1.5611;
151.5000;0.6911;1.5492;
151.8000;0.6919;1.5564;
152.1000;0.6919;1.5635;
152.4000;0.6911;1.5587;
152.7000;0.6895;1.5564;
153.0000;0.7000;1.5872;
153.3000;0.6895;1.5564;
153.6000;0.6911;1.5611;
153.9000;0.6895;1.5611;
154.2000;0.6895;1.5564;
154.5000;0.6919;1.5611;
154.8000;0.6927;1.5659;
155.1000;0.6919;1.5730;
155.4000;0.6903;1.5777;
155.7000;0.6911;1.5825;
156.0000;0.6919;1.5825;
156.3000;0.6886;1.5753;
156.6000;0.6911;1.5753;
156.9000;0.6911;1.5730;
157.2000;0.6903;1.5730;
157.5000;0.6911;1.5682;
157.8000;0.6878;1.5564;
158.1000;0.6911;1.5682;
158.4000;0.6919;1.5730;
158.7000;0.6903;1.5753;
159.0000;0.6911;1.5730;
159.3000;0.6911;1.5753;
159.6000;0.6935;1.5753;
159.9000;0.6903;1.5659;
160.2000;0.6919;1.5730;
160.5000;0.6911;1.5777;
160.8000;0.6911;1.5730;
161.1000;0.6862;1.5564;
161.4000;0.6919;1.5753;
161.7000;0.6903;1.5730;
162.0000;0.6968;1.5967;
162.3000;0.6854;1.5753;
162.6000;0.6911;1.6014;
162.9000;0.6878;1.6038;
163.2000;0.6886;1.6109;
163.5000;0.6911;1.6157;
163.8000;0.6919;1.6181;
164.1000;0.6919;1.6038;
164.4000;0.6903;1.5872;
164.7000;0.6903;1.5825;
165.0000;0.6911;1.5801;
165.3000;0.6895;1.5801;
165.6000;0.6976;1.6086;
165.9000;0.6911;1.5896;
166.2000;0.6911;1.5848;
166.5000;0.6927;1.5943;
166.8000;0.6903;1.5896;
167.1000;0.6911;1.5967;
167.4000;0.6919;1.5896;
167.7000;0.6903;1.5967;
168.0000;0.6919;1.5896;
168.3000;0.6895;1.5706;
168.6000;0.6911;1.5753;
168.9000;0.6903;1.5682;
169.2000;0.6976;1.5848;
169.5000;0.6895;1.5753;
169.8000;0.6911;1.5801;
170.1000;0.6870;1.5706;
170.4000;0.6919;1.5825;
170.7000;0.6895;1.5777;
171.0000;0.6903;1.5730;
171.3000;0.6911;1.5753;
171.6000;0.6919;1.5777;
171.9000;0.6862;1.5611;
172.2000;0.6911;1.5801;
172.5000;0.6927;1.5777;
172.8000;0.6846;1.5611;
173.1000;0.6919;1.5753;
173.4000;0.6911;1.5753;
173.7000;0.6919;1.5872;
174.0000;0.6919;1.5896;
174.3000;0.6927;1.5920;
174.6000;0.6919;1.5872;
174.9000;0.6903;1.5801;
175.2000;0.6919;1.5872;
175.5000;0.6919;1.5872;
175.8000;0.6911;1.5753;
176.1000;0.6943;1.5706;
176.4000;0.6927;1.5635;
176.7000;0.6903;1.5635;
177.0000;0.6903;1.5682;
177.3000;0.6911;1.5801;
177.6000;0.6919;1.5801;
177.9000;0.6919;1.5730;
178.2000;0.6903;1.5706;
178.5000;0.6919;1.5706;
178.8000;0.6911;1.5777;
179.1000;0.6903;1.5825;
179.4000;0.6935;1.5920;
179.7000;0.6903;1.5920;
180.0000;0.6911;1.5896;
180.3000;0.6903;1.5848;
180.6000;0.6895;1.5896;
180.9000;0.6895;1.5920;
181.2000;0.6952;1.6038;
181.5000;0.6903;1.5801;
181.8000;0.6903;1.5825;
182.1000;0.6903;1.5777;
182.4000;0.6911;1.5753;
182.7000;0.6919;1.5848;
183.0000;0.6911;1.5872;
183.3000;0.6862;1.5753;
183.6000;0.6886;1.5848;
183.9000;0.6927;1.5848;
184.2000;0.6919;1.5872;
184.5000;0.6919;1.5825;
184.8000;0.6919;1.5825;
185.1000;0.6903;1.5730;
185.4000;0.6911;1.5753;
185.7000;0.6895;1.5753;
186.0000;0.6870;1.5777;
186.3000;0.6903;1.5967;
186.6000;0.6927;1.5991;
186.9000;0.7000;1.6157;
187.2000;0.6903;1.5920;
187.5000;0.6927;1.5943;
187.8000;0.6911;1.5896;
188.1000;0.6911;1.5872;
188.4000;0.6878;1.5730;
188.7000;0.6903;1.5825;
189.0000;0.6992;1.5991;
189.3000;0.6919;1.5777;
189.6000;0.6960;1.5872;
189.9000;0.6911;1.5943;
190.2000;0.6911;1.5943;
190.5000;0.6895;1.5943;
190.8000;0.6903;1.5896;
191.1000;0.6911;1.5920;
191.4000;0.6903;1.5991;
191.7000;0.6911;1.5872;
192.0000;0.6927;1.5896;
192.3000;0.6911;1.5825;
192.6000;0.6919;1.5777;
192.9000;0.6919;1.5967;
193.2000;0.6960;1.6014;
193.5000;0.6895;1.5825;
193.8000;0.6911;1.5896;
194.1000;0.6903;1.5920;
194.4000;0.6903;1.5943;
194.7000;0.6886;1.5943;
195.0000;0.6903;1.5848;
195.3000;0.6903;1.5825;
195.6000;0.6911;1.5825;
195.9000;0.6903;1.5777;
196.2000;0.6886;1.5872;
196.5000;0.6903;1.5943;
196.8000;0.6895;1.5920;
197.1000;0.6886;1.5896;
197.4000;0.6895;1.5896;
197.7000;0.6903;1.5920;
198.0000;0.6895;1.5920;
198.3000;0.6895;1.5920;
198.6000;0.6911;1.5967;
198.9000;0.6878;1.5825;
199.2000;0.6919;1.5943;
199.5000;0.6903;1.5896;
199.8000;0.6895;1.5848;
200.1000;0.6903;1.5872;
200.4000;0.6903;1.5896;
200.7000;0.6911;1.6038;
201.0000;0.6911;1.6038;
201.3000;0.6903;1.6038;
201.6000;0.6895;1.6062;
201.9000;0.6895;1.6062;
202.2000;0.6903;1.6109;
202.5000;0.6895;1.6133;
202.8000;0.6911;1.6204;
203.1000;0.6968;1.6275;
203.4000;0.6911;1.6228;
203.7000;0.6911;1.6157;
204.0000;0.6903;1.6133;
204.3000;0.6878;1.6062;
204.6000;0.6878;1.6038;
204.9000;0.6903;1.6086;
205.2000;0.6903;1.6086;
205.5000;0.6895;1.6062;
205.8000;0.6886;1.6062;
206.1000;0.6878;1.6086;
206.4000;0.6903;1.6204;
206.7000;0.7000;1.6370;
207.0000;0.6903;1.6062;
207.3000;0.6903;1.6109;
207.6000;0.6911;1.6181;
207.9000;0.6903;1.6228;
208.2000;0.6895;1.6204;
208.5000;0.6886;1.6086;
208.8000;0.6878;1.6109;
209.1000;0.6895;1.6157;
209.4000;0.6862;1.6062;
209.7000;0.6878;1.6062;
210.0000;0.6870;1.6086;
210.3000;0.6895;1.6157;
210.6000;0.6903;1.6157;
210.9000;0.6895;1.6062;
211.2000;0.6870;1.6038;
211.5000;0.6878;1.6157;
211.8000;0.6903;1.6133;
212.1000;0.6903;1.6133;
212.4000;0.6895;1.6133;
212.7000;0.6878;1.6062;
213.0000;0.6878;1.6133;
213.3000;0.6813;1.5896;
213.6000;0.6846;1.5991;
213.9000;0.6886;1.6157;
214.2000;0.6903;1.6133;
214.5000;0.6911;1.6157;
214.8000;0.6911;1.6133;
215.1000;0.6911;1.6228;
215.4000;0.6886;1.6204;
215.7000;0.6886;1.6275;
216.0000;0.6919;1.6275;
216.3000;0.6903;1.6181;
216.6000;0.6886;1.6086;
216.9000;0.6878;1.6133;
217.2000;0.6903;1.6204;
217.5000;0.6886;1.6038;
217.8000;0.6895;1.6086;
218.1000;0.6903;1.6086;
218.4000;0.6919;1.6062;
218.7000;0.6886;1.6038;
219.0000;0.6886;1.6062;
219.3000;0.6903;1.6014;
219.6000;0.6903;1.6086;
219.9000;0.6886;1.6038;
220.2000;0.6895;1.6014;
220.5000;0.6886;1.5967;
220.8000;0.6895;1.5943;
221.1000;0.6895;1.5943;
221.4000;0.6895;1.5920;
221.7000;0.6903;1.5920;
222.0000;0.6903;1.5967;
222.3000;0.6878;1.5943;
222.6000;0.6886;1.5872;
222.9000;0.6895;1.5801;
223.2000;0.6903;1.5706;
223.5000;0.6895;1.5753;
223.8000;0.6895;1.5777;
224.1000;0.6895;1.5825;
224.4000;0.6911;1.5896;
224.7000;0.6911;1.5872;
225.0000;0.6895;1.5896;
225.3000;0.6903;1.5920;
225.6000;0.6903;1.6014;
225.9000;0.6943;1.6228;
226.2000;0.6895;1.6133;
226.5000;0.6886;1.6109;
226.8000;0.6895;1.6109;
227.1000;0.6886;1.6109;
227.4000;0.6943;1.6252;
227.7000;0.6846;1.5967;
228.0000;0.6903;1.6086;
228.3000;0.6886;1.5991;
228.6000;0.6886;1.5896;
228.9000;0.6903;1.5920;
229.2000;0.6886;1.5920;
229.5000;0.6854;1.5825;
229.8000;0.6878;1.5920;
230.1000;0.6886;1.5801;
230.4000;0.6895;1.5896;
230.7000;0.6878;1.5872;
231.0000;0.6886;1.5920;
231.3000;0.6870;1.5848;
231.6000;0.6878;1.5872;
231.9000;0.6886;1.5872;
232.2000;0.6895;1.5872;
232.5000;0.6886;1.5943;
232.8000;0.6919;1.5991;
233.1000;0.6878;1.5825;
233.4000;0.6886;1.5920;
233.7000;0.6878;1.5920;
234.0000;0.6895;1.5943;
234.3000;0.6813;1.5635;
234.6000;0.6911;1.5825;
234.9000;0.6903;1.5896;
235.2000;0.6886;1.5848;
235.5000;0.6878;1.5825;
235.8000;0.6927;1.5967;
236.1000;0.6878;1.5825;
236.4000;0.6895;1.5848;
236.7000;0.6878;1.5753;
237.0000;0.6878;1.5730;
237.3000;0.6895;1.5706;
237.6000;0.6895;1.5730;
237.9000;0.6838;1.5587;
238.2000;0.6903;1.5777;
238.5000;0.6895;1.5825;
238.8000;0.6903;1.5848;
239.1000;0.6886;1.5801;
239.4000;0.6838;1.5753;
239.7000;0.6878;1.5872;
240.0000;0.6895;1.5825;
240.3000;0.6878;1.5730;
240.6000;0.6886;1.5682;
240.9000;0.6895;1.5730;
241.2000;0.6870;1.5777;
241.5000;0.6870;1.5896;
241.8000;0.6854;1.5848;
242.1000;0.6943;1.6014;
242.4000;0.6878;1.5801;
242.7000;0.6919;1.5920;
243.0000;0.6878;1.5848;
243.3000;0.6903;1.5896;
243.6000;0.6903;1.5920;
243.9000;0.6805;1.5706;
244.2000;0.6870;1.5848;
244.5000;0.6878;1.5730;
244.8000;0.6927;1.5848;
245.1000;0.6895;1.5753;
245.4000;0.6878;1.5753;
245.7000;0.6886;1.5753;
246.0000;0.6886;1.5848;
246.3000;0.6886;1.5777;
246.6000;0.6886;1.5848;
246.9000;0.6878;1.5825;
247.2000;0.6895;1.5896;
247.5000;0.6895;1.5943;
247.8000;0.6878;1.5967;
248.1000;0.6935;1.6109;
248.4000;0.6886;1.5943;
248.7000;0.6895;1.6014;
249.0000;0.6886;1.5967;
249.3000;0.6886;1.5920;
249.6000;0.6870;1.5943;
249.9000;0.6903;1.6014;
250.2000;0.6886;1.5967;
250.5000;0.6878;1.6014;
250.8000;0.6886;1.6038;
251.1000;0.6878;1.6038;
251.4000;0.6903;1.6204;
251.7000;0.6878;1.6109;
252.0000;0.6886;1.6109;
252.3000;0.6829;1.6038;
252.6000;0.6878;1.6157;
252.9000;0.6878;1.6109;
253.2000;0.6878;1.6062;
253.5000;0.6813;1.5848;
253.8000;0.6886;1.6086;
254.1000;0.6870;1.6133;
254.4000;0.6870;1.6157;
254.7000;0.6862;1.6133;
255.0000;0.6927;1.6323;
255.3000;0.6878;1.6275;
255.6000;0.6862;1.6252;
255.9000;0.6870;1.6275;
256.2000;0.6870;1.6181;
256.5000;0.6878;1.6228;
256.8000;0.6878;1.6133;
257.1000;0.6878;1.6109;
257.4000;0.6903;1.6157;
257.7000;0.6895;1.6204;
258.0000;0.6870;1.6204;
258.3000;0.6878;1.6228;
258.6000;0.6886;1.6252;
258.9000;0.6878;1.6252;
259.2000;0.6870;1.6086;
259.5000;0.6927;1.6228;
259.8000;0.6903;1.6086;
260.1000;0.6878;1.6038;
260.4000;0.6870;1.5825;
260.7000;0.6870;1.5801;
261.0000;0.6862;1.5896;
261.3000;0.6838;1.5872;
261.6000;0.6886;1.6014;
261.9000;0.6870;1.6014;
262.2000;0.6895;1.6181;
262.5000;0.6886;1.6086;
262.8000;0.6919;1.6086;
263.1000;0.6829;1.5825;
263.4000;0.6886;1.6133;
263.7000;0.6870;1.6086;
264.0000;0.6895;1.6157;
264.3000;0.6870;1.6109;
264.6000;0.6870;1.6133;
264.9000;0.6895;1.6228;
265.2000;0.6846;1.6181;
265.5000;0.6854;1.6157;
265.8000;0.6854;1.6038;
266.1000;0.6862;1.6109;
266.4000;0.6829;1.6038;
266.7000;0.6862;1.6109;
267.0000;0.6862;1.6062;
267.3000;0.6878;1.6014;
267.6000;0.6862;1.5967;
267.9000;0.6781;1.5825;
268.2000;0.6886;1.6062;
268.5000;0.6878;1.6014;
268.8000;0.6895;1.6133;
269.1000;0.6854;1.6062;
269.4000;0.6854;1.6109;
269.7000;0.6878;1.6038;
270.0000;0.6870;1.6014;
270.3000;0.6878;1.6133;
270.6000;0.6862;1.6109;
270.9000;0.6870;1.6204;
271.2000;0.6854;1.6204;
271.5000;0.6878;1.6204;
271.8000;0.6878;1.6228;
272.1000;0.6870;1.6204;
272.4000;0.6862;1.6133;
272.7000;0.6886;1.6228;
273.0000;0.6886;1.6252;
273.3000;0.6862;1.6181;
273.6000;0.6862;1.6181;
273.9000;0.6789;1.6062;
274.2000;0.6895;1.6275;
274.5000;0.6895;1.6204;
274.8000;0.6878;1.6204;
275.1000;0.6911;1.6299;
275.4000;0.6870;1.6323;
275.7000;0.6846;1.6252;
276.0000;0.6829;1.6086;
276.3000;0.6878;1.6204;
276.6000;0.6886;1.6157;
276.9000;0.6878;1.6038;
277.2000;0.6886;1.6062;
277.5000;0.6895;1.6062;
277.8000;0.6886;1.6086;
278.1000;0.6895;1.6204;
278.4000;0.6854;1.6014;
278.7000;0.6870;1.6062;
279.0000;0.6878;1.6086;
279.3000;0.6854;1.6086;
279.6000;0.6895;1.6157;
279.9000;0.6854;1.6062;
280.2000;0.6870;1.6157;
280.5000;0.6870;1.6133;
280.8000;0.6862;1.6086;
281.1000;0.6854;1.6133;
281.4000;0.6895;1.6252;
281.7000;0.6886;1.6181;
282.0000;0.6895;1.6157;
282.3000;0.6846;1.5991;
282.6000;0.6870;1.6038;
282.9000;0.6862;1.5967;
283.2000;0.6813;1.5848;
283.5000;0.6878;1.6038;
283.8000;0.6886;1.6062;
284.1000;0.6862;1.6109;
284.4000;0.6903;1.6204;
284.7000;0.6854;1.6133;
285.0000;0.6805;1.5991;
285.3000;0.6862;1.6014;
285.6000;0.6903;1.6038;
285.9000;0.6870;1.6062;
286.2000;0.6829;1.5991;
286.5000;0.6870;1.6109;
286.8000;0.6862;1.6062;
287.1000;0.6797;1.5943;
287.4000;0.6878;1.6181;
287.7000;0.6886;1.6204;
288.0000;0.6870;1.6157;
288.3000;0.6878;1.6157;
288.6000;0.6862;1.6133;
288.9000;0.6870;1.6181;
289.2000;0.6886;1.6133;
289.5000;0.6870;1.6062;
289.8000;0.6846;1.5991;
290.1000;0.6854;1.6014;
290.4000;0.6968;1.6442;
290.7000;0.6813;1.6062;
291.0000;0.6854;1.6133;
291.3000;0.6878;1.6181;
291.6000;0.6846;1.6252;
291.9000;0.6862;1.6299;
292.2000;0.6870;1.6228;
292.5000;0.6846;1.6157;
292.8000;0.6854;1.6157;
293.1000;0.6862;1.6109;
293.4000;0.6870;1.6086;
293.7000;0.6862;1.6062;
294.0000;0.6870;1.6086;
294.3000;0.6862;1.6133;
294.6000;0.6878;1.6109;
294.9000;0.6862;1.6086;
295.2000;0.6854;1.6038;
295.5000;0.6878;1.6181;
295.8000;0.6870;1.6323;
296.1000;0.6862;1.6252;
296.4000;0.6870;1.6228;
296.7000;0.6886;1.6252;
297.0000;0.6878;1.6204;
297.3000;0.6870;1.6252;
297.6000;0.6862;1.6228;
297.9000;0.6829;1.6204;
298.2000;0.6878;1.6370;
298.5000;0.6862;1.6370;
298.8000;0.6829;1.6323;
299.1000;0.6862;1.6370;
299.4000;0.6870;1.6347;
299.7000;0.6870;1.6323;
300.0000;0.6862;1.6228;
300.3000;0.6846;1.6204;
300.6000;0.6862;1.6228;
300.9000;0.6862;1.6181;
301.2000;0.6805;1.6038;
301.5000;0.6870;1.6133;
301.8000;0.6821;1.5943;
302.1000;0.6862;1.5967;
302.4000;0.6797;1.5848;
302.7000;0.6805;1.5825;
303.0000;0.6870;1.5991;
303.3000;0.6862;1.6014;
303.6000;0.6886;1.6062;
303.9000;0.6854;1.5943;
304.2000;0.6862;1.5943;
304.5000;0.6870;1.5943;
304.8000;0.6886;1.6038;
305.1000;0.6854;1.6038;
305.4000;0.6862;1.6086;
305.7000;0.6870;1.6109;
306.0000;0.6870;1.6038;
306.3000;0.6838;1.5943;
306.6000;0.6846;1.6062;
306.9000;0.6886;1.6228;
307.2000;0.6935;1.6394;
307.5000;0.6813;1.5991;
307.8000;0.6862;1.6109;
308.1000;0.6870;1.6086;
308.4000;0.6886;1.6109;
308.7000;0.6878;1.6062;
309.0000;0.6870;1.6014;
309.3000;0.6862;1.5943;
309.6000;0.6862;1.5896;
309.9000;0.6846;1.5872;
310.2000;0.6862;1.5872;
310.5000;0.6838;1.5848;
310.8000;0.6862;1.5848;
311.1000;0.6862;1.5801;
311.4000;0.6870;1.5777;
311.7000;0.6838;1.5682;
312.0000;0.6895;1.5872;
312.3000;0.6862;1.5777;
312.6000;0.6846;1.5801;
312.9000;0.6895;1.5943;
313.2000;0.6878;1.5920;
313.5000;0.6862;1.5872;
313.8000;0.6870;1.5943;
314.1000;0.6862;1.6014;
314.4000;0.6854;1.6014;
314.7000;0.6854;1.6133;
315.0000;0.6862;1.6157;
315.3000;0.6838;1.6157;
315.6000;0.6862;1.6275;
315.9000;0.6862;1.6228;
316.2000;0.6862;1.6204;
316.5000;0.6838;1.6157;
316.8000;0.6854;1.6181;
317.1000;0.6870;1.6181;
317.4000;0.6870;1.6062;
317.7000;0.6862;1.6109;
318.0000;0.6870;1.6086;
318.3000;0.6862;1.6133;
318.6000;0.6878;1.6086;
318.9000;0.6846;1.6014;
319.2000;0.6854;1.6038;
319.5000;0.6862;1.6086;
319.8000;0.6846;1.6109;
320.1000;0.6878;1.6181;
320.4000;0.6870;1.6204;
320.7000;0.6862;1.6109;
321.0000;0.6878;1.6109;
321.3000;0.6878;1.6086;
321.6000;0.6846;1.6038;
321.9000;0.6870;1.6038;
322.2000;0.6870;1.6038;
322.5000;0.6854;1.5967;
322.8000;0.6870;1.5991;
323.1000;0.6846;1.5920;
323.4000;0.6878;1.6014;
323.7000;0.6878;1.6014;
324.0000;0.6838;1.5872;
324.3000;0.6838;1.5967;
324.6000;0.6919;1.6133;
324.9000;0.6854;1.6014;
325.2000;0.6838;1.5920;
325.5000;0.6846;1.5872;
325.8000;0.6870;1.6062;
326.1000;0.6862;1.6014;
326.4000;0.6862;1.6014;
326.7000;0.6838;1.5967;
327.0000;0.6943;1.6275;
327.3000;0.6886;1.6181;
327.6000;0.6878;1.6109;
327.9000;0.6870;1.5991;
328.2000;0.6838;1.5991;
328.5000;0.6870;1.6086;
328.8000;0.6870;1.6133;
329.1000;0.6838;1.6062;
329.4000;0.6870;1.6181;
329.7000;0.6870;1.6133;
330.0000;0.6854;1.6109;
330.3000;0.6927;1.6204;
330.6000;0.6862;1.6038;
330.9000;0.6854;1.6062;
331.2000;0.6854;1.5991;
331.5000;0.6854;1.6014;
331.8000;0.6862;1.6086;
332.1000;0.6870;1.6038;
332.4000;0.6862;1.6062;
332.7000;0.6846;1.6014;
333.0000;0.6862;1.5991;
333.3000;0.6870;1.5848;
333.6000;0.6846;1.5777;
333.9000;0.6943;1.6086;
334.2000;0.6821;1.5943;
334.5000;0.6838;1.6014;
334.8000;0.6862;1.6062;
335.1000;0.6911;1.6181;
335.4000;0.6846;1.6014;
335.7000;0.6838;1.5967;
336.0000;0.6854;1.6062;
336.3000;0.6854;1.6014;
336.6000;0.6854;1.6086;
336.9000;0.6846;1.6086;
337.2000;0.6862;1.6157;
337.5000;0.6829;1.6062;
337.8000;0.6862;1.6157;
338.1000;0.6870;1.6157;
338.4000;0.6838;1.6109;
338.7000;0.6838;1.6109;
339.0000;0.6846;1.6109;
339.3000;0.6854;1.6204;
339.6000;0.6838;1.6157;
339.9000;0.6846;1.6109;
340.2000;0.6846;1.6133;
340.5000;0.6862;1.6062;
340.8000;0.6911;1.6133;
341.1000;0.6854;1.5991;
341.4000;0.6878;1.6038;
341.7000;0.6846;1.5967;
342.0000;0.6854;1.6014;
342.3000;0.6862;1.6038;
342.6000;0.6854;1.5991;
342.9000;0.6862;1.6062;
343.2000;0.6854;1.6204;
343.5000;0.6846;1.6181;
343.8000;0.6854;1.6204;
344.1000;0.6846;1.6157;
344.4000;0.6854;1.6228;
344.7000;0.6862;1.6275;
345.0000;0.6854;1.6252;
345.3000;0.6838;1.6204;
345.6000;0.6838;1.6133;
345.9000;0.6838;1.6157;
346.2000;0.6846;1.6157;
346.5000;0.6878;1.6181;
346.8000;0.6838;1.6062;
347.1000;0.6854;1.6228;
347.4000;0.6805;1.6133;
347.7000;0.6862;1.6157;
348.0000;0.6878;1.6252;
348.3000;0.6862;1.6252;
348.6000;0.6862;1.6252;
348.9000;0.6846;1.6228;
349.2000;0.6813;1.6109;
349.5000;0.6911;1.6228;
349.8000;0.6854;1.6062;
350.1000;0.6886;1.6086;
350.4000;0.6838;1.5943;
350.7000;0.6846;1.5872;
351.0000;0.6805;1.5801;
351.3000;0.6846;1.5967;
351.6000;0.6854;1.5943;
351.9000;0.6846;1.5967;
352.2000;0.6772;1.5801;
352.5000;0.6862;1.6014;
352.8000;0.6870;1.5967;
353.1000;0.6846;1.5991;
353.4000;0.6854;1.6014;
353.7000;0.6943;1.6252;
354.0000;0.6854;1.6014;
354.3000;0.6862;1.6038;
354.6000;0.6854;1.6038;
354.9000;0.6854;1.6038;
355.2000;0.6829;1.5967;
355.5000;0.6854;1.6062;
355.8000;0.6846;1.6086;
356.1000;0.6838;1.6109;
356.4000;0.6854;1.6133;
356.7000;0.6854;1.6157;
357.0000;0.6878;1.6323;
357.3000;0.6854;1.6252;
357.6000;0.6846;1.6275;
357.9000;0.6838;1.6299;
358.2000;0.6952;1.6655;
358.5000;0.6903;1.6560;
358.8000;0.6903;1.6536;
359.1000;0.6854;1.6418;
359.4000;0.6854;1.6418;
359.7000;0.6870;1.6394;
360.0000;0.6846;1.6347;
360.3000;0.6854;1.6347;
360.6000;0.6846;1.6299;
360.9000;0.6870;1.6299;
361.2000;0.6781;1.6062;
361.5000;0.6870;1.6347;
361.8000;0.6935;1.6513;
362.1000;0.6846;1.6370;
362.4000;0.6854;1.6323;
362.7000;0.6854;1.6347;
363.0000;0.6854;1.6418;
363.3000;0.6838;1.6418;
363.6000;0.6862;1.6394;
363.9000;0.6870;1.6394;
364.2000;0.6862;1.6228;
364.5000;0.6838;1.6109;
364.8000;0.6813;1.6038;
365.1000;0.6895;1.6204;
365.4000;0.6846;1.6157;
365.7000;0.6838;1.6133;
366.0000;0.6846;1.6157;
366.3000;0.6854;1.6157;
366.6000;0.6854;1.6181;
366.9000;0.6846;1.6252;
367.2000;0.6854;1.6252;
367.5000;0.6838;1.6157;
367.8000;0.6862;1.6299;
368.1000;0.6846;1.6323;
368.4000;0.6838;1.6323;
368.7000;0.6854;1.6323;
369.0000;0.6854;1.6299;
369.3000;0.6854;1.6252;
369.6000;0.6854;1.6228;
369.9000;0.6821;1.6157;
370.2000;0.6838;1.6157;
370.5000;0.6862;1.6275;
370.8000;0.6870;1.6418;
371.1000;0.6846;1.6323;
371.4000;0.6854;1.6252;
371.7000;0.6862;1.6228;
372.0000;0.6854;1.6157;
372.3000;0.6854;1.6181;
372.6000;0.6846;1.6133;
372.9000;0.6854;1.6181;
373.2000;0.6813;1.6109;
373.5000;0.6838;1.6228;
373.8000;0.6838;1.6133;
374.1000;0.6838;1.6133;
374.4000;0.6854;1.6181;
374.7000;0.6829;1.6181;
375.0000;0.6846;1.6204;
375.3000;0.6838;1.6038;
375.6000;0.6829;1.5967;
375.9000;0.6838;1.6014;
376.2000;0.6789;1.5920;
376.5000;0.6846;1.6062;
376.8000;0.6846;1.6086;
377.1000;0.6838;1.6062;
377.4000;0.6895;1.6204;
377.7000;0.6829;1.6157;
378.0000;0.6846;1.6157;
378.3000;0.6862;1.6204;
378.6000;0.6870;1.6275;
378.9000;0.6821;1.6086;
379.2000;0.6805;1.5991;
379.5000;0.6781;1.5848;
379.8000;0.6846;1.6062;
380.1000;0.6797;1.5991;
380.4000;0.6854;1.6204;
380.7000;0.6829;1.6157;
381.0000;0.6846;1.6252;
381.3000;0.6821;1.6275;
381.6000;0.6829;1.6252;
381.9000;0.6838;1.6181;
382.2000;0.6821;1.6133;
382.5000;0.6838;1.6133;
382.8000;0.6838;1.6157;
383.1000;0.6821;1.6062;
383.4000;0.6829;1.6014;
383.7000;0.6813;1.6014;
384.0000;0.6821;1.6133;
384.3000;0.6829;1.6086;
384.6000;0.6813;1.6062;
384.9000;0.6781;1.5943;
385.2000;0.6821;1.6014;
385.5000;0.6838;1.6014;
385.8000;0.6846;1.5967;
386.1000;0.6756;1.5730;
386.4000;0.6846;1.5920;
386.7000;0.6829;1.5896;
387.0000;0.6838;1.6038;
387.3000;0.6854;1.5920;
387.6000;0.6838;1.5825;
387.9000;0.6854;1.5872;
388.2000;0.6854;1.5848;
388.5000;0.6838;1.5896;
388.8000;0.6838;1.5967;
389.1000;0.6838;1.6086;
389.4000;0.6838;1.6133;
389.7000;0.6829;1.6133;
390.0000;0.6838;1.6109;
390.3000;0.6821;1.6086;
390.6000;0.6854;1.6109;
390.9000;0.6838;1.6038;
391.2000;0.6821;1.5943;
391.5000;0.6838;1.5920;
391.8000;0.6846;1.5896;
392.1000;0.6854;1.5967;
392.4000;0.6919;1.6204;
392.7000;0.6813;1.6014;
393.0000;0.6854;1.6086;
393.3000;0.6935;1.6465;
393.6000;0.6846;1.6204;
393.9000;0.6821;1.6157;
394.2000;0.6854;1.6204;
394.5000;0.6813;1.6181;
394.8000;0.6838;1.6181;
395.1000;0.6886;1.6299;
395.4000;0.6870;1.6347;
395.7000;0.6886;1.6347;
396.0000;0.6821;1.6181;
396.3000;0.6854;1.6204;
396.6000;0.6789;1.6014;
396.9000;0.6846;1.6181;
397.2000;0.6846;1.6181;
397.5000;0.6846;1.6252;
397.8000;0.6764;1.6086;
398.1000;0.6854;1.6418;
398.4000;0.6854;1.6465;
398.7000;0.6838;1.6465;
399.0000;0.6846;1.6536;
399.3000;0.6838;1.6465;
399.6000;0.6813;1.6370;
399.9000;0.6805;1.6275;
400.2000;0.6781;1.6181;
400.5000;0.6838;1.6299;
400.8000;0.6838;1.6252;
401.1000;0.6829;1.6228;
401.4000;0.6764;1.5991;
401.7000;0.6838;1.6133;
402.0000;0.6829;1.5991;
402.3000;0.6846;1.6062;
402.6000;0.6846;1.6014;
402.9000;0.6862;1.6038;
403.2000;0.6870;1.6086;
403.5000;0.6854;1.6062;
403.8000;0.6838;1.6086;
404.1000;0.6846;1.6133;
404.4000;0.6797;1.6062;
404.7000;0.6838;1.6014;
405.0000;0.6927;1.6252;
405.3000;0.6821;1.6014;
405.6000;0.6829;1.6038;
405.9000;0.6846;1.6086;
406.2000;0.6846;1.6109;
406.5000;0.6838;1.6133;
406.8000;0.6829;1.6086;
407.1000;0.6838;1.6086;
407.4000;0.6846;1.6157;
407.7000;0.6846;1.6228;
408.0000;0.6838;1.6299;
408.3000;0.6829;1.6299;
408.6000;0.6829;1.6370;
408.9000;0.6821;1.6323;
409.2000;0.6813;1.6204;
409.5000;0.6838;1.6275;
409.8000;0.6829;1.6228;
410.1000;0.6838;1.6228;
410.4000;0.6813;1.6133;
410.7000;0.6805;1.6181;
411.0000;0.6821;1.6062;
411.3000;0.6838;1.6062;
411.6000;0.6846;1.6062;
411.9000;0.6846;1.6086;
412.2000;0.6829;1.6086;
412.5000;0.6854;1.6157;
412.8000;0.6838;1.6133;
413.1000;0.6821;1.6014;
413.4000;0.6846;1.6109;
413.7000;0.6838;1.6062;
414.0000;0.6838;1.6086;
414.3000;0.6829;1.6062;
414.6000;0.6829;1.6062;
414.9000;0.6838;1.6204;
415.2000;0.6805;1.6228;
415.5000;0.6838;1.6323;
415.8000;0.6813;1.6204;
416.1000;0.6821;1.6204;
416.4000;0.6821;1.6204;
416.7000;0.6878;1.6370;
417.0000;0.6829;1.6323;
417.3000;0.6886;1.6442;
417.6000;0.6862;1.6347;
417.9000;0.6846;1.6323;
418.2000;0.6829;1.6204;
418.5000;0.6854;1.6252;
418.8000;0.6886;1.6394;
419.1000;0.6829;1.6323;
419.4000;0.6846;1.6323;
419.7000;0.6821;1.6275;
420.0000;0.6838;1.6347;
420.3000;0.6895;1.6465;
420.6000;0.6821;1.6275;
420.9000;0.6821;1.6252;
421.2000;0.6838;1.6252;
421.5000;0.6838;1.6228;
421.8000;0.6838;1.6181;
422.1000;0.6805;1.6157;
422.4000;0.6813;1.6157;
422.7000;0.6846;1.6252;
423.0000;0.6838;1.6252;
423.3000;0.6838;1.6252;
423.6000;0.6846;1.6275;
423.9000;0.6829;1.6252;
424.2000;0.6821;1.6323;
424.5000;0.6838;1.6275;
424.8000;0.6846;1.6275;
425.1000;0.6838;1.6275;
425.4000;0.6846;1.6370;
425.7000;0.6821;1.6252;
426.0000;0.6829;1.6228;
426.3000;0.6821;1.6228;
426.6000;0.6862;1.6394;
426.9000;0.6846;1.6299;
427.2000;0.6846;1.6299;
427.5000;0.6854;1.6204;
427.8000;0.6862;1.6062;
428.1000;0.6862;1.5967;
428.4000;0.6813;1.5872;
428.7000;0.6821;1.5967;
429.0000;0.6838;1.6062;
429.3000;0.6821;1.6062;
429.6000;0.6813;1.6086;
429.9000;0.6805;1.6133;
430.2000;0.6846;1.6181;
430.5000;0.6829;1.6133;
430.8000;0.6821;1.6038;
431.1000;0.6878;1.6157;
431.4000;0.6846;1.6109;
431.7000;0.6846;1.6228;
432.0000;0.6821;1.6228;
432.3000;0.6821;1.6275;
432.6000;0.6829;1.6299;
432.9000;0.6838;1.6252;
433.2000;0.6821;1.6204;
433.5000;0.6813;1.6181;
433.8000;0.6838;1.6133;
434.1000;0.6870;1.6181;
434.4000;0.6821;1.6086;
434.7000;0.6829;1.6181;
435.0000;0.6805;1.6181;
435.3000;0.6821;1.6133;
435.6000;0.6821;1.6109;
435.9000;0.6821;1.6062;
436.2000;0.6797;1.6062;
436.5000;0.6829;1.6086;
436.8000;0.6813;1.6062;
437.1000;0.6821;1.6014;
437.4000;0.6838;1.6062;
437.7000;0.6797;1.5991;
438.0000;0.6813;1.6133;
438.3000;0.6813;1.6157;
438.6000;0.6829;1.6133;
438.9000;0.6821;1.6157;
439.2000;0.6772;1.5991;
439.5000;0.6821;1.6133;
439.8000;0.6797;1.6038;
440.1000;0.6829;1.6038;
440.4000;0.6821;1.5991;
440.7000;0.6846;1.5943;
441.0000;0.6821;1.5967;
441.3000;0.6764;1.5825;
441.6000;0.6764;1.5825;
441.9000;0.6821;1.5896;
442.2000;0.6846;1.6038;
442.5000;0.6829;1.6014;
442.8000;0.6838;1.6157;
443.1000;0.6846;1.6181;
443.4000;0.6821;1.6086;
443.7000;0.6764;1.5920;
444.0000;0.6821;1.6038;
444.3000;0.6838;1.6038;
444.6000;0.6846;1.5991;
444.9000;0.6854;1.5991;
445.2000;0.6821;1.5896;
445.5000;0.6838;1.5872;
445.8000;0.6829;1.5801;
446.1000;0.6813;1.5801;
446.4000;0.6846;1.5872;
446.7000;0.6838;1.5872;
447.0000;0.6829;1.5848;
447.3000;0.6829;1.5967;
447.6000;0.6821;1.5943;
447.9000;0.6838;1.6062;
448.2000;0.6821;1.6133;
448.5000;0.6813;1.6086;
448.8000;0.6813;1.6086;
449.1000;0.6829;1.6109;
449.4000;0.6813;1.6014;
449.7000;0.6838;1.6014;
450.0000;0.6829;1.6038;
450.3000;0.6813;1.6014;
450.6000;0.6829;1.5991;
450.9000;0.6829;1.6038;
451.2000;0.6829;1.6038;
451.5000;0.6838;1.6086;
451.8000;0.6829;1.5967;
452.1000;0.6829;1.6038;
452.4000;0.6813;1.6014;
452.7000;0.6805;1.6014;
453.0000;0.6838;1.6062;
453.3000;0.6838;1.6014;
453.6000;0.6829;1.5967;
453.9000;0.6821;1.6038;
454.2000;0.6805;1.5848;
454.5000;0.6838;1.5967;
454.8000;0.6813;1.5967;
455.1000;0.6797;1.5991;
455.4000;0.6838;1.6086;
455.7000;0.6805;1.6062;
456.0000;0.6805;1.6014;
456.3000;0.6829;1.6038;
456.6000;0.6821;1.6014;
456.9000;0.6829;1.5967;
457.2000;0.6821;1.5872;
457.5000;0.6829;1.5872;
457.8000;0.6829;1.5943;
458.1000;0.6829;1.5920;
458.4000;0.6829;1.5848;
458.7000;0.6821;1.5896;
459.0000;0.6870;1.6038;
459.3000;0.6838;1.5967;
459.6000;0.6821;1.5991;
459.9000;0.6789;1.5991;
460.2000;0.6805;1.6038;
460.5000;0.6821;1.6109;
460.8000;0.6829;1.6038;
461.1000;0.6805;1.6109;
461.4000;0.6805;1.6086;
461.7000;0.6829;1.6062;
462.0000;0.6821;1.6038;
462.3000;0.6813;1.6014;
462.6000;0.6838;1.6038;
462.9000;0.6813;1.6062;
463.2000;0.6821;1.6038;
463.5000;0.6805;1.6062;
463.8000;0.6805;1.6133;
464.1000;0.6854;1.6228;
464.4000;0.6829;1.6109;
464.7000;0.6789;1.5967;
465.0000;0.6805;1.6038;
465.3000;0.6781;1.5991;
465.6000;0.6829;1.6086;
465.9000;0.6813;1.6181;
466.2000;0.6813;1.6204;
466.5000;0.6821;1.6109;
466.8000;0.6805;1.5967;
467.1000;0.6805;1.5943;
467.4000;0.6813;1.5991;
467.7000;0.6821;1.6014;
468.0000;0.6846;1.6086;
468.3000;0.6813;1.5991;
468.6000;0.6821;1.5991;
468.9000;0.6699;1.5730;
469.2000;0.6813;1.6062;
469.5000;0.6797;1.6038;
469.8000;0.6813;1.6109;
470.1000;0.6797;1.6062;
470.4000;0.6821;1.6014;
470.7000;0.6805;1.5967;
471.0000;0.6821;1.5967;
471.3000;0.6829;1.6086;
471.6000;0.6862;1.6228;
471.9000;0.6846;1.6228;
472.2000;0.6829;1.6228;
472.5000;0.6854;1.6252;
472.8000;0.6821;1.6252;
473.1000;0.6862;1.6323;
473.4000;0.6821;1.6323;
473.7000;0.6821;1.6275;
474.0000;0.6838;1.6252;
474.3000;0.6846;1.6228;
474.6000;0.6821;1.6299;
474.9000;0.6821;1.6275;
475.2000;0.6813;1.6204;
475.5000;0.6813;1.6157;
475.8000;0.6821;1.6181;
476.1000;0.6797;1.6062;
476.4000;0.6797;1.6038;
476.7000;0.6821;1.6086;
477.0000;0.6805;1.6086;
477.3000;0.6797;1.6133;
477.6000;0.6797;1.6252;
477.9000;0.6789;1.6252;
478.2000;0.6813;1.6299;
478.5000;0.6789;1.6228;
478.8000;0.6813;1.6275;
479.1000;0.6797;1.6252;
479.4000;0.6813;1.6275;
479.7000;0.6813;1.6252;
480.0000;0.6838;1.6204;
480.3000;0.6748;1.5991;
480.6000;0.6805;1.6062;
480.9000;0.6878;1.6204;
481.2000;0.6813;1.6157;
481.5000;0.6821;1.6181;
481.8000;0.6821;1.6109;
482.1000;0.6829;1.6252;
482.4000;0.6764;1.6086;
482.7000;0.6813;1.6252;
483.0000;0.6813;1.6299;
483.3000;0.6821;1.6228;
483.6000;0.6821;1.6228;
483.9000;0.6813;1.6228;
484.2000;0.6821;1.6228;
484.5000;0.6829;1.6228;
484.8000;0.6813;1.6157;
485.1000;0.6821;1.6204;
485.4000;0.6805;1.6133;
485.7000;0.6829;1.6228;
486.0000;0.6862;1.6299;
486.3000;0.6813;1.6275;
486.6000;0.6821;1.6204;
486.9000;0.6821;1.6181;
487.2000;0.6821;1.6109;
487.5000;0.6805;1.6109;
487.8000;0.6838;1.6133;
488.1000;0.6829;1.6133;
488.4000;0.6805;1.6204;
488.7000;0.6813;1.6275;
489.0000;0.6829;1.6252;
489.3000;0.6813;1.6228;
489.6000;0.6813;1.6204;
489.9000;0.6813;1.6181;
490.2000;0.6805;1.6181;
490.5000;0.6781;1.6133;
490.8000;0.6805;1.6204;
491.1000;0.6821;1.6228;
491.4000;0.6797;1.6109;
491.7000;0.6781;1.6062;
492.0000;0.6854;1.6204;
492.3000;0.6821;1.6157;
492.6000;0.6797;1.6133;
492.9000;0.6821;1.6157;
493.2000;0.6805;1.6133;
493.5000;0.6838;1.6109;
493.8000;0.6838;1.6204;
494.1000;0.6805;1.6109;
494.4000;0.6813;1.6157;
494.7000;0.6813;1.6204;
495.0000;0.6813;1.6157;
495.3000;0.6813;1.6157;
495.6000;0.6854;1.6299;
495.9000;0.6805;1.6204;
496.2000;0.6829;1.6204;
496.5000;0.6829;1.6157;
496.8000;0.6813;1.6181;
497.1000;0.6789;1.6086;
497.4000;0.6813;1.6181;
497.7000;0.6813;1.6228;
498.0000;0.6797;1.6228;
498.3000;0.6813;1.6394;
498.6000;0.6813;1.6442;
498.9000;0.6829;1.6536;
499.2000;0.6813;1.6489;
499.5000;0.6813;1.6465;
499.8000;0.6805;1.6418;
500.1000;0.6805;1.6370;
500.4000;0.6813;1.6323;
500.7000;0.6789;1.6299;
501.0000;0.6813;1.6275;
501.3000;0.6813;1.6299;
501.6000;0.6813;1.6252;
501.9000;0.6813;1.6228;
502.2000;0.6829;1.6275;
502.5000;0.6797;1.6299;
502.8000;0.6805;1.6299;
503.1000;0.6813;1.6299;
503.4000;0.6716;1.6014;
503.7000;0.6805;1.6157;
504.0000;0.6829;1.6086;
504.3000;0.6797;1.6038;
504.6000;0.6821;1.5991;
504.9000;0.6821;1.5967;
505.2000;0.6781;1.5896;
505.5000;0.6805;1.6038;
505.8000;0.6797;1.6014;
506.1000;0.6813;1.6014;
506.4000;0.6805;1.5991;
506.7000;0.6797;1.6014;
507.0000;0.6805;1.6038;
507.3000;0.6813;1.6062;
507.6000;0.6813;1.6062;
507.9000;0.6732;1.5848;
508.2000;0.6821;1.6109;
508.5000;0.6838;1.6204;
508.8000;0.6829;1.6133;
509.1000;0.6797;1.6038;
509.4000;0.6781;1.5967;
509.7000;0.6813;1.5896;
510.0000;0.6821;1.5848;
510.3000;0.6821;1.5872;
510.6000;0.6829;1.6014;
510.9000;0.6838;1.6062;
511.2000;0.6821;1.6109;
511.5000;0.6829;1.6181;
511.8000;0.6854;1.6181;
512.1000;0.6748;1.5991;
512.4000;0.6805;1.6109;
512.7000;0.6716;1.5825;
513.0000;0.6797;1.6014;
513.3000;0.6781;1.5967;
513.6000;0.6805;1.6038;
513.9000;0.6764;1.5991;
514.2000;0.6813;1.6181;
514.5000;0.6854;1.6157;
514.8000;0.6781;1.5967;
515.1000;0.6797;1.6109;
515.4000;0.6805;1.6181;
515.7000;0.6813;1.6109;
516.0000;0.6789;1.6038;
516.3000;0.6797;1.5991;
516.6000;0.6797;1.6109;
516.9000;0.6797;1.6228;
517.2000;0.6797;1.6228;
517.5000;0.6789;1.6181;
517.8000;0.6805;1.6204;
518.1000;0.6821;1.6228;
518.4000;0.6772;1.6133;
518.7000;0.6821;1.6275;
519.0000;0.6813;1.6228;
519.3000;0.6797;1.6204;
519.6000;0.6805;1.6109;
519.9000;0.6805;1.6133;
520.2000;0.6797;1.6181;
520.5000;0.6805;1.6157;
520.8000;0.6813;1.6157;
521.1000;0.6821;1.6157;
521.4000;0.6813;1.6133;
521.7000;0.6821;1.6157;
522.0000;0.6821;1.6252;
522.3000;0.6829;1.6323;
522.6000;0.6813;1.6252;
522.9000;0.6813;1.6275;
523.2000;0.6821;1.6275;
523.5000;0.6805;1.6252;
523.8000;0.6797;1.6323;
524.1000;0.6821;1.6323;
524.4000;0.6797;1.6275;
524.7000;0.6813;1.6275;
525.0000;0.6805;1.6275;
525.3000;0.6797;1.6252;
525.6000;0.6772;1.6204;
525.9000;0.6789;1.6204;
526.2000;0.6781;1.6204;
526.5000;0.6797;1.6228;
526.8000;0.6797;1.6157;
527.1000;0.6813;1.6181;
527.4000;0.6724;1.5991;
527.7000;0.6797;1.6228;
528.0000;0.6781;1.6181;
528.3000;0.6805;1.6228;
528.6000;0.6772;1.6133;
528.9000;0.6772;1.6014;
529.2000;0.6781;1.6038;
529.5000;0.6781;1.6062;
529.8000;0.6789;1.6038;
530.1000;0.6764;1.6086;
530.4000;0.6748;1.6133;
530.7000;0.6797;1.6252;
531.0000;0.6805;1.6252;
531.3000;0.6797;1.6228;
531.6000;0.6805;1.6275;
531.9000;0.6797;1.6204;
532.2000;0.6821;1.6228;
532.5000;0.6797;1.6181;
532.8000;0.6797;1.6181;
533.1000;0.6789;1.6228;
533.4000;0.6781;1.6252;
533.7000;0.6781;1.6275;
534.0000;0.6862;1.6536;
534.3000;0.6805;1.6370;
534.6000;0.6813;1.6442;
534.9000;0.6781;1.6323;
535.2000;0.6821;1.6442;
535.5000;0.6813;1.6442;
535.8000;0.6781;1.6347;
536.1000;0.6789;1.6370;
536.4000;0.6781;1.6323;
536.7000;0.6781;1.6299;
537.0000;0.6813;1.6347;
537.3000;0.6862;1.6418;
537.6000;0.6797;1.6252;
537.9000;0.6797;1.6370;
538.2000;0.6789;1.6299;
538.5000;0.6797;1.6370;
538.8000;0.6797;1.6370;
539.1000;0.6805;1.6370;
539.4000;0.6797;1.6323;
539.7000;0.6797;1.6347;
540.0000;0.6781;1.6394;
540.3000;0.6797;1.6442;
540.6000;0.6821;1.6489;
540.9000;0.6789;1.6323;
541.2000;0.6789;1.6252;
541.5000;0.6756;1.6133;
541.8000;0.6805;1.6275;
542.1000;0.6797;1.6323;
542.4000;0.6805;1.6323;
542.7000;0.6781;1.6323;
543.0000;0.6805;1.6394;
543.3000;0.6797;1.6323;
543.6000;0.6813;1.6299;
543.9000;0.6829;1.6394;
544.2000;0.6813;1.6299;
544.5000;0.6854;1.6465;
544.8000;0.6797;1.6347;
545.1000;0.6805;1.6252;
545.4000;0.6805;1.6204;
545.7000;0.6805;1.6252;
546.0000;0.6789;1.6252;
546.3000;0.6797;1.6299;
546.6000;0.6781;1.6275;
546.9000;0.6797;1.6252;
547.2000;0.6781;1.6275;
547.5000;0.6813;1.6323;
547.8000;0.6797;1.6275;
548.1000;0.6797;1.6299;
548.4000;0.6829;1.6323;
548.7000;0.6805;1.6275;
549.0000;0.6707;1.6038;
549.3000;0.6789;1.6181;
549.6000;0.6805;1.6204;
549.9000;0.6789;1.6252;
550.2000;0.6789;1.6252;
550.5000;0.6789;1.6323;
550.8000;0.6789;1.6252;
551.1000;0.6789;1.6299;
551.4000;0.6781;1.6299;
551.7000;0.6789;1.6323;
552.0000;0.6813;1.6299;
552.3000;0.6846;1.6323;
552.6000;0.6797;1.6204;
552.9000;0.6805;1.6181;
553.2000;0.6805;1.6252;
553.5000;0.6789;1.6228;
553.8000;0.6724;1.6062;
554.1000;0.6740;1.6204;
554.4000;0.6797;1.6323;
554.7000;0.6805;1.6299;
555.0000;0.6797;1.6299;
555.3000;0.6789;1.6228;
555.6000;0.6789;1.6275;
555.9000;0.6805;1.6299;
556.2000;0.6772;1.6228;
556.5000;0.6772;1.6252;
556.8000;0.6797;1.6299;
557.1000;0.6805;1.6347;
557.4000;0.6781;1.6228;
557.7000;0.6764;1.6204;
558.0000;0.6764;1.6109;
558.3000;0.6805;1.6252;
558.6000;0.6813;1.6275;
558.9000;0.6789;1.6299;
559.2000;0.6789;1.6347;
559.5000;0.6764;1.6275;
559.8000;0.6846;1.6489;
560.1000;0.6789;1.6394;
560.4000;0.6781;1.6394;
560.7000;0.6772;1.6275;
561.0000;0.6797;1.6299;
561.3000;0.6781;1.6204;
561.6000;0.6781;1.6181;
561.9000;0.6772;1.6133;
562.2000;0.6797;1.6133;
562.5000;0.6748;1.5991;
562.8000;0.6797;1.6157;
563.1000;0.6789;1.6157;
563.4000;0.6813;1.6228;
563.7000;0.6772;1.6157;
564.0000;0.6781;1.6252;
564.3000;0.6781;1.6157;
564.6000;0.6772;1.6109;
564.9000;0.6789;1.6133;
565.2000;0.6781;1.6109;
565.5000;0.6797;1.6109;
565.8000;0.6789;1.6038;
566.1000;0.6781;1.6086;
566.4000;0.6764;1.6014;
566.7000;0.6789;1.6157;
567.0000;0.6789;1.6275;
567.3000;0.6797;1.6299;
567.6000;0.6789;1.6181;
567.9000;0.6789;1.6181;
568.2000;0.6805;1.6133;
568.5000;0.6789;1.6086;
568.8000;0.6797;1.6157;
569.1000;0.6789;1.6133;
569.4000;0.6813;1.6157;
569.7000;0.6805;1.6157;
570.0000;0.6805;1.6181;
570.3000;0.6797;1.6181;
570.6000;0.6772;1.6109;
570.9000;0.6789;1.6299;
571.2000;0.6797;1.6323;
571.5000;0.6772;1.6299;
571.8000;0.6781;1.6275;
572.1000;0.6789;1.6299;
572.4000;0.6797;1.6299;
572.7000;0.6772;1.6228;
573.0000;0.6805;1.6370;
573.3000;0.6781;1.6252;
573.6000;0.6772;1.6204;
573.9000;0.6772;1.6252;
574.2000;0.6772;1.6299;
574.5000;0.6764;1.6394;
574.8000;0.6781;1.6394;
575.1000;0.6781;1.6347;
575.4000;0.6789;1.6347;
575.7000;0.6772;1.6252;
576.0000;0.6821;1.6323;
576.3000;0.6789;1.6323;
576.6000;0.6789;1.6394;
576.9000;0.6781;1.6299;
577.2000;0.6764;1.6275;
577.5000;0.6797;1.6370;
577.8000;0.6797;1.6275;
578.1000;0.6781;1.6133;
578.4000;0.6789;1.6157;
578.7000;0.6797;1.6252;
579.0000;0.6764;1.6109;
579.3000;0.6789;1.6181;
579.6000;0.6789;1.6133;
579.9000;0.6789;1.6181;
580.2000;0.6789;1.6252;
580.5000;0.6781;1.6275;
580.8000;0.6764;1.6252;
581.1000;0.6789;1.6252;
581.4000;0.6789;1.6228;
581.7000;0.6789;1.6204;
582.0000;0.6781;1.6133;
582.3000;0.6805;1.6275;
582.6000;0.6813;1.6275;
582.9000;0.6805;1.6204;
583.2000;0.6789;1.6228;
583.5000;0.6789;1.6228;
583.8000;0.6805;1.6228;
584.1000;0.6748;1.6014;
584.4000;0.6789;1.6062;
584.7000;0.6772;1.6109;
585.0000;0.6797;1.6181;
585.3000;0.6797;1.6252;
585.6000;0.6781;1.6204;
585.9000;0.6789;1.6133;
586.2000;0.6789;1.6133;
586.5000;0.6789;1.6181;
586.8000;0.6789;1.6252;
587.1000;0.6772;1.6252;
587.4000;0.6764;1.6181;
587.7000;0.6813;1.6204;
588.0000;0.6789;1.6299;
588.3000;0.6781;1.6299;
588.6000;0.6821;1.6370;
588.9000;0.6805;1.6394;
589.2000;0.6805;1.6418;
589.5000;0.6813;1.6394;
589.8000;0.6781;1.6228;
590.1000;0.6789;1.6275;
590.4000;0.6781;1.6204;
590.7000;0.6781;1.6157;
591.0000;0.6781;1.6204;
591.3000;0.6772;1.6228;
591.6000;0.6748;1.6086;
591.9000;0.6821;1.6323;
592.2000;0.6789;1.6323;
592.5000;0.6797;1.6323;
592.8000;0.6772;1.6275;
593.1000;0.6797;1.6252;
593.4000;0.6772;1.6252;
593.7000;0.6789;1.6347;
594.0000;0.6886;1.6489;
594.3000;0.6781;1.6323;
594.6000;0.6797;1.6347;
594.9000;0.6797;1.6370;
595.2000;0.6756;1.6275;
595.5000;0.6789;1.6299;
595.8000;0.6797;1.6323;
596.1000;0.6781;1.6275;
596.4000;0.6797;1.6323;
596.7000;0.6789;1.6323;
597.0000;0.6829;1.6394;
597.3000;0.6813;1.6347;
597.6000;0.6789;1.6228;
597.9000;0.6797;1.6252;
598.2000;0.6781;1.6157;
598.5000;0.6789;1.6275;
598.8000;0.6781;1.6275;
599.1000;0.6772;1.6370;
599.4000;0.6789;1.6489;
599.7000;0.6772;1.6418;
600.0000;0.6772;1.6370;
600.3000;0.6781;1.6299;
600.6000;0.6740;1.6157;
600.9000;0.6675;1.5967;
601.2000;0.6618;1.5848;
601.5000;0.6545;1.5706;
601.8000;0.6447;1.5540;
602.1000;0.6333;1.5303;
602.4000;0.6243;1.5279;
602.7000;0.6146;1.5065;
603.0000;0.6081;1.4923;
603.3000;0.5983;1.4686;
603.6000;0.5934;1.4615;
603.9000;0.5869;1.4615;
604.2000;0.5804;1.4472;
604.5000;0.5731;1.4377;
604.8000;0.5674;1.4377;
605.1000;0.5625;1.4283;
605.4000;0.5592;1.4330;
605.7000;0.5535;1.4211;
606.0000;0.5495;1.4116;
606.3000;0.5438;1.3974;
606.6000;0.5413;1.3998;
606.9000;0.5364;1.3950;
607.2000;0.5234;1.3666;
607.5000;0.5267;1.3832;
607.8000;0.5275;1.3855;
608.1000;0.5193;1.3832;
608.4000;0.5201;1.3879;
608.7000;0.5144;1.3761;
609.0000;0.5136;1.3808;
609.3000;0.5112;1.3713;
609.6000;0.5071;1.3737;
609.9000;0.5047;1.3642;
610.2000;0.4990;1.3571;
610.5000;0.4990;1.3594;
610.8000;0.4974;1.3713;
611.1000;0.4933;1.3713;
611.4000;0.4990;1.3832;
611.7000;0.4917;1.3689;
612.0000;0.4892;1.3713;
612.3000;0.4868;1.3737;
612.6000;0.4868;1.3689;
612.9000;0.4835;1.3642;
613.2000;0.4827;1.3594;
613.5000;0.4786;1.3547;
613.8000;0.4754;1.3594;
614.1000;0.4762;1.3618;
614.4000;0.4737;1.3618;
614.7000;0.4729;1.3642;
615.0000;0.4705;1.3666;
615.3000;0.4705;1.3689;
615.6000;0.4689;1.3666;
615.9000;0.4672;1.3689;
616.2000;0.4640;1.3594;
616.5000;0.4640;1.3618;
616.8000;0.4640;1.3689;
617.1000;0.4599;1.3689;
617.4000;0.4607;1.3666;
617.7000;0.4591;1.3666;
618.0000;0.4461;1.3262;
618.3000;0.4575;1.3594;
618.6000;0.4567;1.3500;
618.9000;0.4542;1.3428;
619.2000;0.4526;1.3500;
619.5000;0.4518;1.3428;
619.8000;0.4526;1.3452;
620.1000;0.4485;1.3452;
620.4000;0.4493;1.3547;
620.7000;0.4501;1.3618;
621.0000;0.4387;1.3381;
621.3000;0.4453;1.3594;
621.6000;0.4453;1.3571;
621.9000;0.4453;1.3500;
622.2000;0.4436;1.3547;
622.5000;0.4412;1.3500;
622.8000;0.4412;1.3500;
623.1000;0.4412;1.3523;
623.4000;0.4387;1.3523;
623.7000;0.4387;1.3476;
624.0000;0.4330;1.3310;
624.3000;0.4363;1.3523;
624.6000;0.4371;1.3476;
624.9000;0.4387;1.3500;
625.2000;0.4339;1.3476;
625.5000;0.4322;1.3428;
625.8000;0.4347;1.3594;
626.1000;0.4322;1.3523;
626.4000;0.4339;1.3547;
626.7000;0.4339;1.3500;
627.0000;0.4314;1.3452;
627.3000;0.4298;1.3428;
627.6000;0.4241;1.3357;
627.9000;0.4290;1.3523;
628.2000;0.4200;1.3310;
628.5000;0.4387;1.3784;
628.8000;0.4306;1.3666;
629.1000;0.4290;1.3571;
629.4000;0.4200;1.3310;
629.7000;0.4241;1.3428;
630.0000;0.4241;1.3357;
630.3000;0.4265;1.3381;
630.6000;0.4208;1.3286;
630.9000;0.4241;1.3381;
631.2000;0.4241;1.3381;
631.5000;0.4192;1.3286;
631.8000;0.4208;1.3286;
632.1000;0.4217;1.3381;
632.4000;0.4184;1.3310;
632.7000;0.4184;1.3310;
633.0000;0.4176;1.3357;
633.3000;0.4192;1.3405;
633.6000;0.4184;1.3500;
633.9000;0.4176;1.3476;
634.2000;0.4184;1.3500;
634.5000;0.4143;1.3357;
634.8000;0.4151;1.3428;
635.1000;0.4143;1.3310;
635.4000;0.4135;1.3215;
635.7000;0.4151;1.3239;
636.0000;0.4168;1.3357;
636.3000;0.4160;1.3428;
636.6000;0.4151;1.3523;
636.9000;0.4143;1.3476;
637.2000;0.4127;1.3452;
637.5000;0.4143;1.3452;
637.8000;0.4111;1.3405;
638.1000;0.4127;1.3500;
638.4000;0.4119;1.3476;
638.7000;0.4119;1.3452;
639.0000;0.4119;1.3547;
639.3000;0.4103;1.3594;
639.6000;0.4070;1.3452;
639.9000;0.4070;1.3523;
640.2000;0.4078;1.3523;
640.5000;0.4094;1.3523;
640.8000;0.4086;1.3523;
641.1000;0.4070;1.3452;
641.4000;0.4086;1.3476;
641.7000;0.4005;1.3405;
642.0000;0.4070;1.3547;
642.3000;0.4070;1.3594;
642.6000;0.4062;1.3571;
642.9000;0.4029;1.3452;
643.2000;0.4070;1.3618;
643.5000;0.4054;1.3618;
643.8000;0.4078;1.3594;
644.1000;0.3997;1.3381;
644.4000;0.4029;1.3476;
644.7000;0.4037;1.3594;
645.0000;0.4021;1.3547;
645.3000;0.4013;1.3523;
645.6000;0.3989;1.3476;
645.9000;0.4029;1.3618;
646.2000;0.4029;1.3642;
646.5000;0.4005;1.3594;
646.8000;0.4005;1.3547;
647.1000;0.3997;1.3571;
647.4000;0.4005;1.3618;
647.7000;0.4005;1.3547;
648.0000;0.4054;1.3737;
648.3000;0.3989;1.3547;
648.6000;0.3980;1.3547;
648.9000;0.3997;1.3571;
649.2000;0.3980;1.3476;
649.5000;0.3972;1.3452;
649.8000;0.3964;1.3405;
650.1000;0.3956;1.3357;
650.4000;0.3948;1.3310;
650.7000;0.3964;1.3310;
651.0000;0.3956;1.3239;
651.3000;0.3948;1.3262;
651.6000;0.3997;1.3428;
651.9000;0.3956;1.3357;
652.2000;0.3907;1.3334;
652.5000;0.3956;1.3476;
652.8000;0.4037;1.3666;
653.1000;0.3923;1.3405;
653.4000;0.3964;1.3452;
653.7000;0.3932;1.3381;
654.0000;0.3923;1.3334;
654.3000;0.3932;1.3381;
654.6000;0.3956;1.3428;
654.9000;0.3940;1.3357;
655.2000;0.3932;1.3239;
655.5000;0.3915;1.3191;
655.8000;0.3923;1.3096;
656.1000;0.3915;1.3073;
656.4000;0.3923;1.3191;
656.7000;0.3850;1.3073;
657.0000;0.3956;1.3286;
657.3000;0.3923;1.3262;
657.6000;0.3899;1.3286;
657.9000;0.3899;1.3262;
658.2000;0.3915;1.3239;
658.5000;0.3907;1.3334;
658.8000;0.3899;1.3239;
659.1000;0.3891;1.3144;
659.4000;0.3891;1.3167;
659.7000;0.3907;1.3239;
660.0000;0.3915;1.3191;
660.3000;0.3899;1.3239;
660.6000;0.3907;1.3310;
660.9000;0.3867;1.3357;
661.2000;0.3891;1.3523;
661.5000;0.3875;1.3452;
661.8000;0.3875;1.3500;
662.1000;0.3883;1.3500;
662.4000;0.3907;1.3618;
662.7000;0.3891;1.3500;
663.0000;0.3883;1.3476;
663.3000;0.3883;1.3428;
663.6000;0.3891;1.3428;
663.9000;0.3875;1.3452;
664.2000;0.3850;1.3428;
664.5000;0.3891;1.3571;
664.8000;0.3867;1.3547;
665.1000;0.3867;1.3571;
665.4000;0.3899;1.3594;
665.7000;0.3858;1.3642;
666.0000;0.3826;1.3547;
666.3000;0.3858;1.3642;
666.6000;0.3850;1.3571;
666.9000;0.3842;1.3594;
667.2000;0.3850;1.3500;
667.5000;0.3858;1.3571;
667.8000;0.3850;1.3500;
668.1000;0.3850;1.3500;
668.4000;0.3850;1.3547;
668.7000;0.3842;1.3476;
669.0000;0.3777;1.3334;
669.3000;0.3842;1.3476;
669.6000;0.3842;1.3381;
669.9000;0.3858;1.3476;
670.2000;0.3834;1.3476;
670.5000;0.3834;1.3500;
670.8000;0.3842;1.3476;
671.1000;0.3826;1.3476;
671.4000;0.3842;1.3523;
671.7000;0.3842;1.3523;
672.0000;0.3842;1.3523;
672.3000;0.3850;1.3689;
672.6000;0.3842;1.3618;
672.9000;0.3834;1.3666;
673.2000;0.3826;1.3666;
673.5000;0.3826;1.3571;
673.8000;0.3834;1.3571;
674.1000;0.3777;1.3381;
674.4000;0.3818;1.3452;
674.7000;0.3834;1.3476;
675.0000;0.3810;1.3381;
675.3000;0.3810;1.3405;
675.6000;0.3801;1.3428;
675.9000;0.3801;1.3357;
676.2000;0.3818;1.3500;
676.5000;0.3818;1.3523;
676.8000;0.3818;1.3523;
677.1000;0.3801;1.3500;
677.4000;0.3744;1.3334;
677.7000;0.3810;1.3500;
678.0000;0.3801;1.3405;
678.3000;0.3801;1.3381;
678.6000;0.3785;1.3405;
678.9000;0.3801;1.3428;
679.2000;0.3793;1.3500;
679.5000;0.3801;1.3547;
679.8000;0.3826;1.3523;
680.1000;0.3801;1.3523;
680.4000;0.3801;1.3571;
680.7000;0.3785;1.3547;
681.0000;0.3777;1.3476;
681.3000;0.3801;1.3523;
681.6000;0.3842;1.3713;
681.9000;0.3793;1.3571;
682.2000;0.3769;1.3523;
682.5000;0.3793;1.3476;
682.8000;0.3777;1.3428;
683.1000;0.3785;1.3381;
683.4000;0.3834;1.3523;
683.7000;0.3777;1.3500;
684.0000;0.3785;1.3428;
684.3000;0.3769;1.3405;
684.6000;0.3769;1.3405;
684.9000;0.3777;1.3405;
685.2000;0.3785;1.3452;
685.5000;0.3712;1.3357;
685.8000;0.3785;1.3547;
686.1000;0.3753;1.3476;
686.4000;0.3777;1.3405;
686.7000;0.3785;1.3476;
687.0000;0.3744;1.3405;
687.3000;0.3777;1.3476;
687.6000;0.3769;1.3452;
687.9000;0.3761;1.3476;
688.2000;0.3761;1.3523;
688.5000;0.3753;1.3476;
688.8000;0.3769;1.3500;
689.1000;0.3744;1.3500;
689.4000;0.3761;1.3476;
689.7000;0.3769;1.3500;
690.0000;0.3753;1.3452;
690.3000;0.3769;1.3452;
690.6000;0.3761;1.3381;
690.9000;0.3761;1.3428;
691.2000;0.3728;1.3381;
691.5000;0.3777;1.3452;
691.8000;0.3761;1.3523;
692.1000;0.3753;1.3618;
692.4000;0.3736;1.3547;
692.7000;0.3753;1.3547;
693.0000;0.3736;1.3500;
693.3000;0.3736;1.3476;
693.6000;0.3736;1.3405;
693.9000;0.3728;1.3523;
694.2000;0.3744;1.3571;
694.5000;0.3728;1.3428;
694.8000;0.3712;1.3334;
695.1000;0.3777;1.3428;
695.4000;0.3761;1.3428;
695.7000;0.3744;1.3310;
696.0000;0.3744;1.3334;
696.3000;0.3744;1.3286;
696.6000;0.3753;1.3334;
696.9000;0.3744;1.3405;
697.2000;0.3728;1.3405;
697.5000;0.3744;1.3500;
697.8000;0.3720;1.3476;
698.1000;0.3720;1.3476;
698.4000;0.3728;1.3523;
698.7000;0.3704;1.3381;
699.0000;0.3720;1.3357;
699.3000;0.3736;1.3310;
699.6000;0.3728;1.3167;
699.9000;0.3712;1.3120;
700.2000;0.3720;1.3167;
700.5000;0.3720;1.3167;
700.8000;0.3712;1.3167;
701.1000;0.3720;1.3215;
701.4000;0.3728;1.3262;
701.7000;0.3704;1.3286;
702.0000;0.3720;1.3262;
702.3000;0.3696;1.3215;
702.6000;0.3769;1.3381;
702.9000;0.3679;1.3191;
703.2000;0.3720;1.3357;
703.5000;0.3687;1.3286;
703.8000;0.3720;1.3357;
704.1000;0.3712;1.3334;
704.4000;0.3704;1.3357;
704.7000;0.3704;1.3381;
705.0000;0.3696;1.3452;
705.3000;0.3712;1.3547;
705.6000;0.3712;1.3571;
705.9000;0.3712;1.3594;
706.2000;0.3704;1.3594;
706.5000;0.3704;1.3642;
706.8000;0.3687;1.3689;
707.1000;0.3712;1.3500;
707.4000;0.3663;1.3334;
707.7000;0.3704;1.3381;
708.0000;0.3696;1.3357;
708.3000;0.3720;1.3452;
708.6000;0.3679;1.3334;
708.9000;0.3671;1.3381;
709.2000;0.3687;1.3452;
709.5000;0.3671;1.3405;
709.8000;0.3663;1.3428;
710.1000;0.3687;1.3428;
710.4000;0.3769;1.3594;
710.7000;0.3687;1.3476;
711.0000;0.3679;1.3523;
711.3000;0.3687;1.3428;
711.6000;0.3671;1.3428;
711.9000;0.3655;1.3405;
712.2000;0.3630;1.3405;
712.5000;0.3679;1.3642;
712.8000;0.3671;1.3594;
713.1000;0.3687;1.3618;
713.4000;0.3671;1.3594;
713.7000;0.3687;1.3571;
714.0000;0.3647;1.3476;
714.3000;0.3671;1.3642;
714.6000;0.3687;1.3666;
714.9000;0.3655;1.3476;
715.2000;0.3655;1.3476;
715.5000;0.3671;1.3523;
715.8000;0.3679;1.3523;
716.1000;0.3696;1.3666;
716.4000;0.3671;1.3618;
716.7000;0.3663;1.3618;
717.0000;0.3687;1.3642;
717.3000;0.3663;1.3594;
717.6000;0.3687;1.3784;
717.9000;0.3663;1.3713;
718.2000;0.3671;1.3666;
718.5000;0.3679;1.3618;
718.8000;0.3663;1.3547;
719.1000;0.3720;1.3594;
719.4000;0.3671;1.3452;
719.7000;0.3671;1.3452;
720.0000;0.3655;1.3381;
720.3000;0.3663;1.3405;
720.6000;0.3663;1.3405;
720.9000;0.3696;1.3594;
721.2000;0.3728;1.3666;
721.5000;0.3704;1.3594;
721.8000;0.3696;1.3547;
722.1000;0.3696;1.3618;
722.4000;0.3671;1.3689;
722.7000;0.3663;1.3618;
723.0000;0.3639;1.3594;
723.3000;0.3639;1.3523;
723.6000;0.3671;1.3642;
723.9000;0.3630;1.3594;
724.2000;0.3696;1.3832;
724.5000;0.3606;1.3571;
724.8000;0.3663;1.3618;
725.1000;0.3704;1.3689;
725.4000;0.3655;1.3618;
725.7000;0.3639;1.3666;
726.0000;0.3663;1.3666;
726.3000;0.3639;1.3547;
726.6000;0.3647;1.3571;
726.9000;0.3655;1.3547;
727.2000;0.3647;1.3523;
727.5000;0.3590;1.3286;
727.8000;0.3704;1.3547;
728.1000;0.3647;1.3500;
728.4000;0.3639;1.3381;
728.7000;0.3647;1.3357;
729.0000;0.3655;1.3334;
729.3000;0.3639;1.3428;
729.6000;0.3663;1.3500;
729.9000;0.3639;1.3547;
730.2000;0.3622;1.3523;
730.5000;0.3622;1.3500;
730.8000;0.3606;1.3381;
731.1000;0.3630;1.3405;
731.4000;0.3622;1.3428;
731.7000;0.3639;1.3476;
732.0000;0.3639;1.3452;
732.3000;0.3663;1.3452;
732.6000;0.3647;1.3428;
732.9000;0.3630;1.3476;
733.2000;0.3639;1.3594;
733.5000;0.3639;1.3571;
733.8000;0.3606;1.3500;
734.1000;0.3639;1.3618;
734.4000;0.3614;1.3571;
734.7000;0.3630;1.3476;
735.0000;0.3704;1.3666;
735.3000;0.3639;1.3428;
735.6000;0.3622;1.3500;
735.9000;0.3647;1.3547;
736.2000;0.3639;1.3571;
736.5000;0.3614;1.3571;
736.8000;0.3630;1.3571;
737.1000;0.3639;1.3666;
737.4000;0.3655;1.3666;
737.7000;0.3630;1.3642;
738.0000;0.3696;1.3879;
738.3000;0.3647;1.3879;
738.6000;0.3655;1.3927;
738.9000;0.3622;1.3808;
739.2000;0.3630;1.3808;
739.5000;0.3614;1.3737;
739.8000;0.3622;1.3737;
740.1000;0.3639;1.3689;
740.4000;0.3622;1.3689;
740.7000;0.3614;1.3618;
741.0000;0.3630;1.3737;
741.3000;0.3679;1.3737;
741.6000;0.3614;1.3618;
741.9000;0.3598;1.3547;
742.2000;0.3525;1.3334;
742.5000;0.3639;1.3642;
742.8000;0.3614;1.3642;
743.1000;0.3630;1.3618;
743.4000;0.3614;1.3500;
743.7000;0.3630;1.3500;
744.0000;0.3630;1.3500;
744.3000;0.3582;1.3452;
744.6000;0.3606;1.3405;
744.9000;0.3647;1.3381;
745.2000;0.3671;1.3500;
745.5000;0.3557;1.3239;
745.8000;0.3630;1.3428;
746.1000;0.3622;1.3500;
746.4000;0.3630;1.3500;
746.7000;0.3630;1.3452;
747.0000;0.3696;1.3737;
747.3000;0.3630;1.3618;
747.6000;0.3630;1.3547;
747.9000;0.3622;1.3428;
748.2000;0.3630;1.3476;
748.5000;0.3614;1.3500;
748.8000;0.3622;1.3547;
749.1000;0.3655;1.3618;
749.4000;0.3622;1.3594;
749.7000;0.3630;1.3642;
750.0000;0.3614;1.3618;
750.3000;0.3630;1.3594;
750.6000;0.3647;1.3618;
750.9000;0.3606;1.3547;
751.2000;0.3614;1.3523;
751.5000;0.3598;1.3500;
751.8000;0.3622;1.3571;
752.1000;0.3598;1.3523;
752.4000;0.3622;1.3523;
752.7000;0.3614;1.3547;
753.0000;0.3622;1.3547;
753.3000;0.3622;1.3594;
753.6000;0.3606;1.3500;
753.9000;0.3647;1.3618;
754.2000;0.3614;1.3547;
754.5000;0.3598;1.3523;
754.8000;0.3598;1.3594;
755.1000;0.3614;1.3642;
755.4000;0.3606;1.3618;
755.7000;0.3614;1.3571;
756.0000;0.3614;1.3452;
756.3000;0.3614;1.3476;
756.6000;0.3614;1.3476;
756.9000;0.3614;1.3405;
757.2000;0.3606;1.3476;
757.5000;0.3590;1.3500;
757.8000;0.3639;1.3666;
758.1000;0.3582;1.3571;
758.4000;0.3614;1.3618;
758.7000;0.3622;1.3784;
759.0000;0.3590;1.3666;
759.3000;0.3622;1.3761;
759.6000;0.3598;1.3713;
759.9000;0.3598;1.3808;
760.2000;0.3655;1.3950;
760.5000;0.3614;1.3832;
760.8000;0.3573;1.3737;
761.1000;0.3696;1.4045;
761.4000;0.3606;1.3832;
761.7000;0.3614;1.3784;
762.0000;0.3582;1.3737;
762.3000;0.3582;1.3689;
762.6000;0.3598;1.3666;
762.9000;0.3590;1.3689;
763.2000;0.3533;1.3642;
763.5000;0.3598;1.3808;
763.8000;0.3598;1.3855;
764.1000;0.3687;1.4093;
764.4000;0.3598;1.3832;
764.7000;0.3533;1.3666;
765.0000;0.3557;1.3784;
765.3000;0.3606;1.3903;
765.6000;0.3590;1.3761;
765.9000;0.3582;1.3784;
766.2000;0.3606;1.3832;
766.5000;0.3590;1.3855;
766.8000;0.3598;1.3784;
767.1000;0.3590;1.3689;
767.4000;0.3622;1.3737;
767.7000;0.3606;1.3713;
768.0000;0.3606;1.3571;
768.3000;0.3598;1.3476;
768.6000;0.3573;1.3500;
768.9000;0.3573;1.3571;
769.2000;0.3590;1.3500;
769.5000;0.3582;1.3547;
769.8000;0.3582;1.3594;
770.1000;0.3590;1.3689;
770.4000;0.3582;1.3855;
770.7000;0.3614;1.3879;
771.0000;0.3573;1.3832;
771.3000;0.3590;1.3832;
771.6000;0.3582;1.3737;
771.9000;0.3598;1.3689;
772.2000;0.3598;1.3618;
772.5000;0.3590;1.3713;
772.8000;0.3598;1.3713;
773.1000;0.3565;1.3642;
773.4000;0.3573;1.3594;
773.7000;0.3565;1.3571;
774.0000;0.3598;1.3618;
774.3000;0.3565;1.3594;
774.6000;0.3598;1.3618;
774.9000;0.3582;1.3594;
775.2000;0.3573;1.3547;
775.5000;0.3606;1.3618;
775.8000;0.3565;1.3547;
776.1000;0.3573;1.3547;
776.4000;0.3590;1.3594;
776.7000;0.3590;1.3594;
777.0000;0.3582;1.3594;
777.3000;0.3582;1.3666;
777.6000;0.3582;1.3571;
777.9000;0.3590;1.3571;
778.2000;0.3590;1.3547;
778.5000;0.3590;1.3523;
778.8000;0.3582;1.3523;
779.1000;0.3590;1.3571;
779.4000;0.3614;1.3689;
779.7000;0.3582;1.3594;
780.0000;0.3582;1.3547;
780.3000;0.3590;1.3523;
780.6000;0.3573;1.3500;
780.9000;0.3573;1.3523;
781.2000;0.3549;1.3405;
781.5000;0.3582;1.3452;
781.8000;0.3582;1.3405;
782.1000;0.3590;1.3428;
782.4000;0.3565;1.3357;
782.7000;0.3573;1.3405;
783.0000;0.3590;1.3452;
783.3000;0.3582;1.3500;
783.6000;0.3582;1.3500;
783.9000;0.3565;1.3381;
784.2000;0.3614;1.3452;
784.5000;0.3573;1.3357;
784.8000;0.3573;1.3357;
785.1000;0.3606;1.3571;
785.4000;0.3582;1.3476;
785.7000;0.3573;1.3428;
786.0000;0.3549;1.3334;
786.3000;0.3573;1.3381;
786.6000;0.3525;1.3310;
786.9000;0.3582;1.3500;
787.2000;0.3565;1.3523;
787.5000;0.3590;1.3594;
787.8000;0.3622;1.3713;
788.1000;0.3598;1.3642;
788.4000;0.3590;1.3594;
788.7000;0.3573;1.3571;
789.0000;0.3582;1.3571;
789.3000;0.3573;1.3571;
789.6000;0.3590;1.3547;
789.9000;0.3557;1.3571;
790.2000;0.3549;1.3405;
790.5000;0.3557;1.3452;
790.8000;0.3573;1.3452;
791.1000;0.3557;1.3523;
791.4000;0.3598;1.3666;
791.7000;0.3590;1.3666;
792.0000;0.3573;1.3713;
792.3000;0.3492;1.3571;
792.6000;0.3573;1.3737;
792.9000;0.3582;1.3761;
793.2000;0.3582;1.3689;
793.5000;0.3549;1.3571;
793.8000;0.3557;1.3571;
794.1000;0.3565;1.3618;
794.4000;0.3541;1.3666;
794.7000;0.3565;1.3737;
795.0000;0.3565;1.3642;
795.3000;0.3565;1.3642;
795.6000;0.3533;1.3571;
795.9000;0.3573;1.3666;
796.2000;0.3557;1.3737;
796.5000;0.3565;1.3737;
796.8000;0.3565;1.3737;
797.1000;0.3557;1.3761;
797.4000;0.3590;1.3927;
797.7000;0.3573;1.3832;
798.0000;0.3557;1.3855;
798.3000;0.3582;1.3832;
798.6000;0.3549;1.3737;
798.9000;0.3557;1.3713;
799.2000;0.3565;1.3713;
799.5000;0.3573;1.3689;
799.8000;0.3549;1.3571;
800.1000;0.3573;1.3618;
800.4000;0.3598;1.3689;
800.7000;0.3590;1.3666;
801.0000;0.3565;1.3571;
801.3000;0.3573;1.3618;
801.6000;0.3590;1.3642;
801.9000;0.3582;1.3666;
802.2000;0.3565;1.3594;
802.5000;0.3549;1.3547;
802.8000;0.3557;1.3547;
803.1000;0.3582;1.3571;
803.4000;0.3573;1.3594;
803.7000;0.3565;1.3642;
804.0000;0.3541;1.3642;
804.3000;0.3557;1.3689;
804.6000;0.3541;1.3642;
804.9000;0.3541;1.3689;
805.2000;0.3549;1.3713;
805.5000;0.3557;1.3689;
805.8000;0.3565;1.3713;
806.1000;0.3557;1.3618;
806.4000;0.3565;1.3618;
806.7000;0.3557;1.3547;
807.0000;0.3573;1.3571;
807.3000;0.3549;1.3571;
807.6000;0.3541;1.3666;
807.9000;0.3541;1.3737;
808.2000;0.3557;1.3855;
808.5000;0.3549;1.3832;
808.8000;0.3541;1.3761;
809.1000;0.3549;1.3689;
809.4000;0.3549;1.3689;
809.7000;0.3565;1.3713;
810.0000;0.3549;1.3713;
810.3000;0.3549;1.3761;
810.6000;0.3541;1.3761;
810.9000;0.3565;1.3737;
811.2000;0.3533;1.3666;
811.5000;0.3557;1.3713;
811.8000;0.3557;1.3737;
812.1000;0.3565;1.3761;
812.4000;0.3557;1.3737;
812.7000;0.3549;1.3713;
813.0000;0.3541;1.3689;
813.3000;0.3557;1.3737;
813.6000;0.3557;1.3666;
813.9000;0.3557;1.3666;
814.2000;0.3541;1.3523;
814.5000;0.3573;1.3666;
814.8000;0.3541;1.3547;
815.1000;0.3460;1.3239;
815.4000;0.3549;1.3500;
815.7000;0.3557;1.3523;
816.0000;0.3541;1.3523;
816.3000;0.3541;1.3594;
816.6000;0.3565;1.3547;
816.9000;0.3565;1.3594;
817.2000;0.3557;1.3713;
817.5000;0.3590;1.3737;
817.8000;0.3557;1.3571;
818.1000;0.3557;1.3618;
818.4000;0.3525;1.3571;
818.7000;0.3541;1.3571;
819.0000;0.3549;1.3642;
819.3000;0.3549;1.3594;
819.6000;0.3549;1.3547;
819.9000;0.3557;1.3594;
820.2000;0.3541;1.3547;
820.5000;0.3541;1.3500;
820.8000;0.3541;1.3547;
821.1000;0.3541;1.3571;
821.4000;0.3541;1.3500;
821.7000;0.3549;1.3500;
822.0000;0.3541;1.3523;
822.3000;0.3533;1.3523;
822.6000;0.3541;1.3452;
822.9000;0.3557;1.3452;
823.2000;0.3549;1.3452;
823.5000;0.3582;1.3476;
823.8000;0.3557;1.3405;
824.1000;0.3582;1.3523;
824.4000;0.3516;1.3381;
824.7000;0.3549;1.3476;
825.0000;0.3557;1.3428;
825.3000;0.3557;1.3523;
825.6000;0.3508;1.3381;
825.9000;0.3533;1.3618;
826.2000;0.3549;1.3761;
826.5000;0.3533;1.3784;
826.8000;0.3533;1.3713;
827.1000;0.3549;1.3689;
827.4000;0.3541;1.3642;
827.7000;0.3549;1.3666;
828.0000;0.3549;1.3571;
828.3000;0.3557;1.3618;
828.6000;0.3549;1.3618;
828.9000;0.3549;1.3666;
829.2000;0.3541;1.3666;
829.5000;0.3573;1.3689;
829.8000;0.3541;1.3618;
830.1000;0.3525;1.3547;
830.4000;0.3549;1.3618;
830.7000;0.3541;1.3523;
831.0000;0.3541;1.3523;
831.3000;0.3557;1.3547;
831.6000;0.3549;1.3547;
831.9000;0.3549;1.3500;
832.2000;0.3549;1.3476;
832.5000;0.3500;1.3357;
832.8000;0.3557;1.3547;
833.1000;0.3508;1.3500;
833.4000;0.3525;1.3476;
833.7000;0.3533;1.3571;
834.0000;0.3582;1.3713;
834.3000;0.3460;1.3334;
834.6000;0.3533;1.3594;
834.9000;0.3533;1.3618;
835.2000;0.3549;1.3618;
835.5000;0.3516;1.3594;
835.8000;0.3541;1.3618;
836.1000;0.3533;1.3618;
836.4000;0.3541;1.3666;
836.7000;0.3549;1.3689;
837.0000;0.3525;1.3618;
837.3000;0.3549;1.3737;
837.6000;0.3541;1.3689;
837.9000;0.3541;1.3784;
838.2000;0.3533;1.3713;
838.5000;0.3533;1.3737;
838.8000;0.3549;1.3642;
839.1000;0.3533;1.3642;
839.4000;0.3533;1.3618;
839.7000;0.3541;1.3689;
840.0000;0.3525;1.3784;
840.3000;0.3484;1.3713;
840.6000;0.3516;1.3737;
840.9000;0.3541;1.3713;
841.2000;0.3541;1.3618;
841.5000;0.3533;1.3594;
841.8000;0.3557;1.3642;
842.1000;0.3541;1.3618;
842.4000;0.3541;1.3594;
842.7000;0.3533;1.3500;
843.0000;0.3549;1.3594;
843.3000;0.3533;1.3594;
843.6000;0.3525;1.3618;
843.9000;0.3541;1.3618;
844.2000;0.3557;1.3547;
844.5000;0.3622;1.3737;
844.8000;0.3541;1.3523;
845.1000;0.3533;1.3571;
845.4000;0.3533;1.3547;
845.7000;0.3533;1.3571;
846.0000;0.3549;1.3761;
846.3000;0.3516;1.3642;
846.6000;0.3525;1.3713;
846.9000;0.3525;1.3666;
847.2000;0.3565;1.3713;
847.5000;0.3549;1.3737;
847.8000;0.3525;1.3713;
848.1000;0.3451;1.3523;
848.4000;0.3533;1.3832;
848.7000;0.3533;1.3808;
849.0000;0.3525;1.3713;
849.3000;0.3460;1.3642;
849.6000;0.3590;1.3903;
849.9000;0.3508;1.3666;
850.2000;0.3484;1.3642;
850.5000;0.3533;1.3713;
850.8000;0.3533;1.3642;
851.1000;0.3533;1.3594;
851.4000;0.3533;1.3594;
851.7000;0.3541;1.3689;
852.0000;0.3525;1.3737;
852.3000;0.3533;1.3737;
852.6000;0.3533;1.3713;
852.9000;0.3549;1.3713;
853.2000;0.3541;1.3737;
853.5000;0.3533;1.3713;
853.8000;0.3639;1.3950;
854.1000;0.3533;1.3618;
854.4000;0.3549;1.3713;
854.7000;0.3533;1.3689;
855.0000;0.3533;1.3713;
855.3000;0.3516;1.3713;
855.6000;0.3533;1.3713;
855.9000;0.3533;1.3689;
856.2000;0.3549;1.3737;
856.5000;0.3541;1.3713;
856.8000;0.3565;1.3879;
857.1000;0.3508;1.3784;
857.4000;0.3541;1.3927;
857.7000;0.3508;1.3832;
858.0000;0.3549;1.3784;
858.3000;0.3525;1.3689;
858.6000;0.3525;1.3618;
858.9000;0.3516;1.3594;
859.2000;0.3525;1.3618;
859.5000;0.3516;1.3523;
859.8000;0.3525;1.3405;
860.1000;0.3508;1.3500;
860.4000;0.3525;1.3571;
860.7000;0.3533;1.3523;
861.0000;0.3525;1.3476;
861.3000;0.3443;1.3357;
861.6000;0.3525;1.3618;
861.9000;0.3549;1.3642;
862.2000;0.3533;1.3618;
862.5000;0.3525;1.3618;
862.8000;0.3533;1.3642;
863.1000;0.3508;1.3594;
863.4000;0.3533;1.3594;
863.7000;0.3508;1.3547;
864.0000;0.3533;1.3594;
864.3000;0.3427;1.3428;
864.6000;0.3516;1.3571;
864.9000;0.3525;1.3547;
865.2000;0.3516;1.3571;
865.5000;0.3549;1.3594;
865.8000;0.3525;1.3452;
866.1000;0.3533;1.3381;
866.4000;0.3484;1.3334;
866.7000;0.3508;1.3476;
867.0000;0.3525;1.3571;
867.3000;0.3516;1.3594;
867.6000;0.3525;1.3642;
867.9000;0.3533;1.3689;
868.2000;0.3565;1.3761;
868.5000;0.3516;1.3737;
868.8000;0.3508;1.3737;
869.1000;0.3541;1.3761;
869.4000;0.3525;1.3761;
869.7000;0.3516;1.3713;
870.0000;0.3508;1.3689;
870.3000;0.3533;1.3666;
870.6000;0.3500;1.3594;
870.9000;0.3525;1.3666;
871.2000;0.3492;1.3618;
871.5000;0.3443;1.3405;
871.8000;0.3533;1.3547;
872.1000;0.3516;1.3500;
872.4000;0.3516;1.3547;
872.7000;0.3525;1.3500;
873.0000;0.3516;1.3594;
873.3000;0.3516;1.3666;
873.6000;0.3516;1.3666;
873.9000;0.3525;1.3713;
874.2000;0.3533;1.3666;
874.5000;0.3500;1.3666;
874.8000;0.3557;1.3784;
875.1000;0.3533;1.3737;
875.4000;0.3533;1.3808;
875.7000;0.3541;1.3784;
876.0000;0.3516;1.3784;
876.3000;0.3500;1.3808;
876.6000;0.3533;1.3903;
876.9000;0.3525;1.3855;
877.2000;0.3565;1.3832;
877.5000;0.3516;1.3666;
877.8000;0.3516;1.3666;
878.1000;0.3533;1.3642;
878.4000;0.3525;1.3523;
878.7000;0.3516;1.3594;
879.0000;0.3549;1.3689;
879.3000;0.3516;1.3666;
879.6000;0.3516;1.3618;
879.9000;0.3500;1.3523;
880.2000;0.3468;1.3452;
880.5000;0.3533;1.3594;
880.8000;0.3492;1.3452;
881.1000;0.3516;1.3452;
881.4000;0.3508;1.3500;
881.7000;0.3508;1.3523;
882.0000;0.3516;1.3618;
882.3000;0.3525;1.3547;
882.6000;0.3525;1.3476;
882.9000;0.3533;1.3428;
883.2000;0.3516;1.3523;
883.5000;0.3533;1.3666;
883.8000;0.3508;1.3594;
884.1000;0.3508;1.3666;
884.4000;0.3549;1.3713;
884.7000;0.3541;1.3713;
885.0000;0.3516;1.3713;
885.3000;0.3516;1.3784;
885.6000;0.3525;1.3761;
885.9000;0.3541;1.3761;
886.2000;0.3525;1.3737;
886.5000;0.3541;1.3761;
886.8000;0.3516;1.3761;
887.1000;0.3525;1.3879;
887.4000;0.3492;1.3855;
887.7000;0.3484;1.3832;
888.0000;0.3508;1.3832;
888.3000;0.3525;1.3808;
888.6000;0.3557;1.3832;
888.9000;0.3533;1.3761;
889.2000;0.3525;1.3737;
889.5000;0.3525;1.3808;
889.8000;0.3533;1.3808;
890.1000;0.3525;1.3832;
890.4000;0.3541;1.3903;
890.7000;0.3508;1.3784;
891.0000;0.3516;1.3761;
891.3000;0.3508;1.3761;
891.6000;0.3484;1.3713;
891.9000;0.3508;1.3761;
892.2000;0.3525;1.3784;
892.5000;0.3500;1.3689;
892.8000;0.3516;1.3737;
893.1000;0.3516;1.3784;
893.4000;0.3500;1.3737;
893.7000;0.3508;1.3808;
894.0000;0.3508;1.3784;
894.3000;0.3508;1.3761;
894.6000;0.3500;1.3689;
894.9000;0.3516;1.3689;
895.2000;0.3573;1.3855;
895.5000;0.3565;1.3832;
895.8000;0.3525;1.3713;
896.1000;0.3533;1.3713;
896.4000;0.3557;1.3784;
896.7000;0.3508;1.3618;
897.0000;0.3508;1.3571;
897.3000;0.3516;1.3571;
897.6000;0.3525;1.3666;
897.9000;0.3500;1.3547;
898.2000;0.3525;1.3689;
898.5000;0.3516;1.3808;
898.8000;0.3516;1.3808;
899.1000;0.3525;1.3855;
899.4000;0.3500;1.3808;
899.7000;0.3516;1.3808;
900.0000;0.3443;1.3618;
900.3000;0.3508;1.3855;
900.6000;0.3516;1.3808;
900.9000;0.3525;1.3784;
901.2000;0.3484;1.3784;
901.5000;0.3508;1.3713;
901.8000;0.3508;1.3713;
902.1000;0.3500;1.3713;
902.4000;0.3508;1.3642;
902.7000;0.3500;1.3594;
903.0000;0.3492;1.3500;
903.3000;0.3419;1.3381;
903.6000;0.3508;1.3666;
903.9000;0.3516;1.3594;
904.2000;0.3557;1.3784;
904.5000;0.3516;1.3642;
904.8000;0.3476;1.3547;
905.1000;0.3516;1.3594;
905.4000;0.3492;1.3594;
905.7000;0.3508;1.3666;
906.0000;0.3516;1.3666;
906.3000;0.3500;1.3642;
906.6000;0.3533;1.3784;
906.9000;0.3549;1.3855;
907.2000;0.3525;1.3713;
907.5000;0.3516;1.3666;
907.8000;0.3500;1.3547;
908.1000;0.3516;1.3547;
908.4000;0.3516;1.3500;
908.7000;0.3516;1.3594;
909.0000;0.3508;1.3642;
909.3000;0.3525;1.3618;
909.6000;0.3516;1.3618;
909.9000;0.3508;1.3594;
910.2000;0.3516;1.3594;
910.5000;0.3500;1.3642;
910.8000;0.3508;1.3737;
911.1000;0.3516;1.3761;
911.4000;0.3508;1.3761;
911.7000;0.3516;1.3737;
912.0000;0.3516;1.3737;
912.3000;0.3516;1.3713;
912.6000;0.3525;1.3737;
912.9000;0.3500;1.3689;
913.2000;0.3500;1.3642;
913.5000;0.3516;1.3689;
913.8000;0.3516;1.3689;
914.1000;0.3500;1.3808;
914.4000;0.3492;1.3713;
914.7000;0.3500;1.3737;
915.0000;0.3500;1.3713;
915.3000;0.3500;1.3761;
915.6000;0.3533;1.3784;
915.9000;0.3508;1.3737;
916.2000;0.3500;1.3737;
916.5000;0.3500;1.3713;
916.8000;0.3492;1.3689;
917.1000;0.3492;1.3855;
917.4000;0.3516;1.3808;
917.7000;0.3500;1.3784;
918.0000;0.3492;1.3832;
918.3000;0.3484;1.3761;
918.6000;0.3508;1.3832;
918.9000;0.3516;1.3903;
919.2000;0.3541;1.3998;
919.5000;0.3508;1.3832;
919.8000;0.3508;1.3855;
920.1000;0.3598;1.4093;
920.4000;0.3516;1.3808;
920.7000;0.3525;1.3784;
921.0000;0.3525;1.3761;
921.3000;0.3516;1.3761;
921.6000;0.3525;1.3761;
921.9000;0.3525;1.3784;
922.2000;0.3492;1.3737;
922.5000;0.3500;1.3713;
922.8000;0.3508;1.3713;
923.1000;0.3492;1.3737;
923.4000;0.3492;1.3666;
923.7000;0.3565;1.3832;
924.0000;0.3525;1.3689;
924.3000;0.3500;1.3689;
924.6000;0.3508;1.3737;
924.9000;0.3525;1.3761;
925.2000;0.3500;1.3689;
925.5000;0.3500;1.3571;
925.8000;0.3508;1.3594;
926.1000;0.3508;1.3571;
926.4000;0.3516;1.3547;
926.7000;0.3508;1.3452;
927.0000;0.3500;1.3476;
927.3000;0.3508;1.3571;
927.6000;0.3508;1.3618;
927.9000;0.3508;1.3642;
928.2000;0.3508;1.3571;
928.5000;0.3500;1.3642;
928.8000;0.3508;1.3642;
929.1000;0.3541;1.3713;
929.4000;0.3508;1.3737;
929.7000;0.3500;1.3713;
930.0000;0.3508;1.3713;
930.3000;0.3476;1.3642;
930.6000;0.3516;1.3761;
930.9000;0.3500;1.3689;
931.2000;0.3500;1.3761;
931.5000;0.3525;1.3808;
931.8000;0.3516;1.3808;
932.1000;0.3500;1.3713;
932.4000;0.3500;1.3689;
932.7000;0.3516;1.3713;
933.0000;0.3500;1.3642;
933.3000;0.3525;1.3571;
933.6000;0.3516;1.3500;
933.9000;0.3533;1.3642;
934.2000;0.3508;1.3618;
934.5000;0.3525;1.3761;
934.8000;0.3516;1.3713;
935.1000;0.3508;1.3713;
935.4000;0.3525;1.3784;
935.7000;0.3516;1.3761;
936.0000;0.3525;1.3713;
936.3000;0.3508;1.3737;
936.6000;0.3484;1.3618;
936.9000;0.3573;1.3855;
937.2000;0.3508;1.3689;
937.5000;0.3516;1.3784;
937.8000;0.3516;1.3713;
938.1000;0.3516;1.3618;
938.4000;0.3492;1.3547;
938.7000;0.3427;1.3428;
939.0000;0.3500;1.3761;
939.3000;0.3476;1.3784;
939.6000;0.3516;1.3832;
939.9000;0.3468;1.3713;
940.2000;0.3508;1.3784;
940.5000;0.3541;1.3903;
940.8000;0.3508;1.3855;
941.1000;0.3500;1.3784;
941.4000;0.3516;1.3784;
941.7000;0.3508;1.3784;
942.0000;0.3516;1.3808;
942.3000;0.3516;1.3784;
942.6000;0.3492;1.3761;
942.9000;0.3419;1.3523;
943.2000;0.3508;1.3808;
943.5000;0.3500;1.3713;
943.8000;0.3484;1.3571;
944.1000;0.3500;1.3571;
944.4000;0.3500;1.3594;
944.7000;0.3516;1.3666;
945.0000;0.3508;1.3713;
945.3000;0.3508;1.3713;
945.6000;0.3516;1.3737;
945.9000;0.3549;1.3903;
946.2000;0.3516;1.3737;
946.5000;0.3492;1.3689;
946.8000;0.3484;1.3666;
947.1000;0.3492;1.3808;
947.4000;0.3500;1.3808;
947.7000;0.3492;1.3737;
948.0000;0.3516;1.3808;
948.3000;0.3508;1.3737;
948.6000;0.3484;1.3737;
948.9000;0.3516;1.3855;
949.2000;0.3508;1.3832;
949.5000;0.3492;1.3784;
949.8000;0.3484;1.3713;
950.1000;0.3508;1.3737;
950.4000;0.3500;1.3737;
950.7000;0.3516;1.3832;
951.0000;0.3500;1.3689;
951.3000;0.3508;1.3713;
951.6000;0.3508;1.3737;
951.9000;0.3508;1.3689;
952.2000;0.3516;1.3689;
952.5000;0.3500;1.3689;
952.8000;0.3516;1.3713;
953.1000;0.3508;1.3713;
953.4000;0.3500;1.3784;
953.7000;0.3492;1.3761;
954.0000;0.3435;1.3594;
954.3000;0.3476;1.3689;
954.6000;0.3508;1.3618;
954.9000;0.3533;1.3761;
955.2000;0.3500;1.3689;
955.5000;0.3500;1.3713;
955.8000;0.3500;1.3737;
956.1000;0.3492;1.3666;
956.4000;0.3500;1.3666;
956.7000;0.3516;1.3737;
957.0000;0.3508;1.3713;
957.3000;0.3516;1.3666;
957.6000;0.3492;1.3618;
957.9000;0.3516;1.3618;
958.2000;0.3508;1.3689;
958.5000;0.3549;1.3832;
958.8000;0.3500;1.3689;
959.1000;0.3492;1.3618;
959.4000;0.3468;1.3476;
959.7000;0.3476;1.3594;
960.0000;0.3484;1.3761;
960.3000;0.3500;1.3761;
960.6000;0.3460;1.3642;
960.9000;0.3500;1.3737;
961.2000;0.3492;1.3571;
961.5000;0.3508;1.3571;
961.8000;0.3508;1.3523;
962.1000;0.3516;1.3547;
962.4000;0.3460;1.3547;
962.7000;0.3500;1.3666;
963.0000;0.3500;1.3666;
963.3000;0.3557;1.3784;
963.6000;0.3508;1.3666;
963.9000;0.3492;1.3594;
964.2000;0.3492;1.3689;
964.5000;0.3500;1.3642;
964.8000;0.3516;1.3666;
965.1000;0.3484;1.3618;
965.4000;0.3492;1.3666;
965.7000;0.3500;1.3689;
966.0000;0.3484;1.3547;
966.3000;0.3557;1.3737;
966.6000;0.3492;1.3618;
966.9000;0.3508;1.3689;
967.2000;0.3614;1.3950;
967.5000;0.3508;1.3737;
967.8000;0.3484;1.3618;
968.1000;0.3500;1.3523;
968.4000;0.3525;1.3547;
968.7000;0.3492;1.3476;
969.0000;0.3484;1.3571;
969.3000;0.3468;1.3523;
969.6000;0.3492;1.3547;
969.9000;0.3492;1.3666;
970.2000;0.3484;1.3642;
970.5000;0.3508;1.3642;
970.8000;0.3451;1.3500;
971.1000;0.3533;1.3594;
971.4000;0.3508;1.3571;
971.7000;0.3500;1.3523;
972.0000;0.3533;1.3666;
972.3000;0.3525;1.3547;
972.6000;0.3508;1.3523;
972.9000;0.3500;1.3523;
973.2000;0.3492;1.3618;
973.5000;0.3500;1.3642;
973.8000;0.3508;1.3571;
974.1000;0.3508;1.3571;
974.4000;0.3516;1.3594;
974.7000;0.3500;1.3642;
975.0000;0.3541;1.3737;
975.3000;0.3484;1.3689;
975.6000;0.3492;1.3713;
975.9000;0.3508;1.3761;
976.2000;0.3492;1.3713;
976.5000;0.3492;1.3666;
976.8000;0.3492;1.3761;
977.1000;0.3508;1.3737;
977.4000;0.3500;1.3689;
977.7000;0.3500;1.3594;
978.0000;0.3484;1.3571;
978.3000;0.3427;1.3357;
978.6000;0.3508;1.3547;
978.9000;0.3468;1.3452;
979.2000;0.3484;1.3523;
979.5000;0.3549;1.3689;
979.8000;0.3500;1.3642;
980.1000;0.3508;1.3642;
980.4000;0.3508;1.3618;
980.7000;0.3500;1.3547;
981.0000;0.3492;1.3452;
981.3000;0.3492;1.3405;
981.6000;0.3468;1.3405;
981.9000;0.3484;1.3476;
982.2000;0.3492;1.3523;
982.5000;0.3476;1.3594;
982.8000;0.3500;1.3618;
983.1000;0.3492;1.3618;
983.4000;0.3492;1.3547;
983.7000;0.3500;1.3571;
984.0000;0.3484;1.3523;
984.3000;0.3484;1.3594;
984.6000;0.3468;1.3523;
984.9000;0.3492;1.3594;
985.2000;0.3508;1.3547;
985.5000;0.3492;1.3523;
985.8000;0.3492;1.3523;
986.1000;0.3508;1.3547;
986.4000;0.3492;1.3571;
986.7000;0.3508;1.3594;
987.0000;0.3525;1.3689;
987.3000;0.3460;1.3547;
987.6000;0.3500;1.3618;
987.9000;0.3435;1.3405;
988.2000;0.3484;1.3571;
988.5000;0.3500;1.3618;
988.8000;0.3484;1.3618;
989.1000;0.3492;1.3618;
989.4000;0.3500;1.3642;
989.7000;0.3508;1.3737;
990.0000;0.3492;1.3689;
990.3000;0.3492;1.3689;
990.6000;0.3419;1.3500;
990.9000;0.3403;1.3405;
991.2000;0.3500;1.3618;
991.5000;0.3492;1.3594;
991.8000;0.3484;1.3594;
992.1000;0.3508;1.3713;
992.4000;0.3516;1.3666;
992.7000;0.3500;1.3666;
993.0000;0.3492;1.3642;
993.3000;0.3525;1.3666;
993.6000;0.3516;1.3666;
993.9000;0.3565;1.3784;
994.2000;0.3492;1.3666;
994.5000;0.3476;1.3642;
994.8000;0.3484;1.3689;
995.1000;0.3484;1.3689;
995.4000;0.3492;1.3761;
995.7000;0.3492;1.3784;
996.0000;0.3492;1.3808;
996.3000;0.3533;1.3784;
996.6000;0.3508;1.3689;
996.9000;0.3492;1.3618;
997.2000;0.3492;1.3594;
997.5000;0.3508;1.3618;
997.8000;0.3484;1.3594;
998.1000;0.3516;1.3737;
998.4000;0.3500;1.3666;
998.7000;0.3500;1.3689;
999.0000;0.3557;1.3855;
999.3000;0.3492;1.3594;
999.6000;0.3500;1.3689;
999.9000;0.3525;1.3689;
1000.2000;0.3492;1.3523;
1000.5000;0.3492;1.3500;
1000.8000;0.3500;1.3523;
1001.1000;0.3484;1.3547;
1001.4000;0.3500;1.3642;
1001.7000;0.3492;1.3594;
1002.0000;0.3492;1.3713;
1002.3000;0.3492;1.3666;
1002.6000;0.3500;1.3689;
1002.9000;0.3500;1.3666;
1003.2000;0.3484;1.3594;
1003.5000;0.3508;1.3452;
1003.8000;0.3500;1.3500;
1004.1000;0.3508;1.3571;
1004.4000;0.3541;1.3666;
1004.7000;0.3500;1.3547;
1005.0000;0.3500;1.3689;
1005.3000;0.3451;1.3571;
1005.6000;0.3500;1.3713;
1005.9000;0.3508;1.3784;
1006.2000;0.3492;1.3737;
1006.5000;0.3516;1.3737;
1006.8000;0.3508;1.3761;
1007.1000;0.3492;1.3689;
1007.4000;0.3508;1.3642;
1007.7000;0.3484;1.3547;
1008.0000;0.3460;1.3500;
1008.3000;0.3492;1.3547;
1008.6000;0.3484;1.3523;
1008.9000;0.3508;1.3547;
1009.2000;0.3484;1.3500;
1009.5000;0.3460;1.3405;
1009.8000;0.3468;1.3452;
1010.1000;0.3492;1.3476;
1010.4000;0.3516;1.3523;
1010.7000;0.3500;1.3500;
1011.0000;0.3403;1.3286;
1011.3000;0.3468;1.3642;
1011.6000;0.3500;1.3713;
1011.9000;0.3508;1.3761;
1012.2000;0.3508;1.3689;
1012.5000;0.3549;1.3737;
1012.8000;0.3500;1.3666;
1013.1000;0.3476;1.3594;
1013.4000;0.3427;1.3405;
1013.7000;0.3484;1.3642;
1014.0000;0.3492;1.3713;
1014.3000;0.3516;1.3689;
1014.6000;0.3484;1.3571;
1014.9000;0.3460;1.3452;
1015.2000;0.3492;1.3571;
1015.5000;0.3492;1.3666;
1015.8000;0.3492;1.3594;
1016.1000;0.3500;1.3594;
1016.4000;0.3484;1.3547;
1016.7000;0.3500;1.3452;
1017.0000;0.3492;1.3476;
1017.3000;0.3443;1.3476;
1017.6000;0.3500;1.3642;
1017.9000;0.3500;1.3666;
1018.2000;0.3492;1.3618;
1018.5000;0.3500;1.3523;
1018.8000;0.3484;1.3547;
1019.1000;0.3492;1.3428;
1019.4000;0.3484;1.3381;
1019.7000;0.3492;1.3500;
1020.0000;0.3508;1.3523;
1020.3000;0.3443;1.3476;
1020.6000;0.3492;1.3594;
1020.9000;0.3492;1.3642;
1021.2000;0.3492;1.3523;
1021.5000;0.3500;1.3594;
1021.8000;0.3500;1.3547;
1022.1000;0.3484;1.3500;
1022.4000;0.3484;1.3547;
1022.7000;0.3492;1.3594;
1023.0000;0.3516;1.3689;
1023.3000;0.3484;1.3571;
1023.6000;0.3476;1.3571;
1023.9000;0.3468;1.3547;
1024.2000;0.3492;1.3642;
1024.5000;0.3484;1.3642;
1024.8000;0.3484;1.3666;
1025.1000;0.3492;1.3737;
1025.4000;0.3508;1.3761;
1025.7000;0.3492;1.3761;
1026.0000;0.3508;1.3689;
1026.3000;0.3492;1.3689;
1026.6000;0.3484;1.3594;
1026.9000;0.3435;1.3428;
1027.2000;0.3500;1.3666;
1027.5000;0.3500;1.3689;
1027.8000;0.3508;1.3713;
1028.1000;0.3500;1.3666;
1028.4000;0.3492;1.3523;
1028.7000;0.3476;1.3500;
1029.0000;0.3492;1.3618;
1029.3000;0.3500;1.3618;
1029.6000;0.3492;1.3547;
1029.9000;0.3468;1.3452;
1030.2000;0.3500;1.3523;
1030.5000;0.3500;1.3642;
1030.8000;0.3500;1.3642;
1031.1000;0.3484;1.3571;
1031.4000;0.3508;1.3713;
1031.7000;0.3492;1.3689;
1032.0000;0.3484;1.3666;
1032.3000;0.3508;1.3713;
1032.6000;0.3484;1.3618;
1032.9000;0.3500;1.3642;
1033.2000;0.3500;1.3642;
1033.5000;0.3435;1.3476;
1033.8000;0.3492;1.3594;
1034.1000;0.3492;1.3618;
1034.4000;0.3500;1.3689;
1034.7000;0.3484;1.3642;
1035.0000;0.3492;1.3594;
1035.3000;0.3508;1.3666;
1035.6000;0.3508;1.3713;
1035.9000;0.3541;1.3761;
1036.2000;0.3492;1.3571;
1036.5000;0.3443;1.3334;
1036.8000;0.3484;1.3405;
1037.1000;0.3484;1.3452;
1037.4000;0.3516;1.3500;
1037.7000;0.3484;1.3476;
1038.0000;0.3500;1.3571;
1038.3000;0.3492;1.3594;
1038.6000;0.3484;1.3500;
1038.9000;0.3484;1.3428;
1039.2000;0.3484;1.3500;
1039.5000;0.3492;1.3428;
1039.8000;0.3492;1.3381;
1040.1000;0.3484;1.3452;
1040.4000;0.3492;1.3547;
1040.7000;0.3443;1.3547;
1041.0000;0.3484;1.3666;
1041.3000;0.3492;1.3689;
1041.6000;0.3508;1.3737;
1041.9000;0.3508;1.3713;
1042.2000;0.3508;1.3713;
1042.5000;0.3492;1.3594;
1042.8000;0.3484;1.3523;
1043.1000;0.3508;1.3523;
1043.4000;0.3500;1.3452;
1043.7000;0.3492;1.3452;
1044.0000;0.3443;1.3357;
1044.3000;0.3492;1.3476;
1044.6000;0.3492;1.3452;
1044.9000;0.3492;1.3428;
1045.2000;0.3492;1.3405;
1045.5000;0.3484;1.3452;
1045.8000;0.3500;1.3547;
1046.1000;0.3500;1.3666;
1046.4000;0.3590;1.3903;
1046.7000;0.3484;1.3594;
1047.0000;0.3492;1.3594;
1047.3000;0.3508;1.3618;
1047.6000;0.3484;1.3642;
1047.9000;0.3508;1.3713;
1048.2000;0.3476;1.3737;
1048.5000;0.3500;1.3713;
1048.8000;0.3492;1.3689;
1049.1000;0.3508;1.3642;
1049.4000;0.3468;1.3500;
1049.7000;0.3492;1.3500;
1050.0000;0.3476;1.3452;
1050.3000;0.3451;1.3357;
1050.6000;0.3476;1.3428;
1050.9000;0.3484;1.3452;
1051.2000;0.3492;1.3452;
1051.5000;0.3484;1.3452;
1051.8000;0.3484;1.3500;
1052.1000;0.3492;1.3618;
1052.4000;0.3484;1.3547;
1052.7000;0.3468;1.3452;
1053.0000;0.3492;1.3476;
1053.3000;0.3484;1.3500;
1053.6000;0.3492;1.3500;
1053.9000;0.3500;1.3476;
1054.2000;0.3492;1.3500;
1054.5000;0.3492;1.3523;
1054.8000;0.3492;1.3476;
1055.1000;0.3484;1.3452;
1055.4000;0.3484;1.3452;
1055.7000;0.3492;1.3476;
1056.0000;0.3516;1.3547;
1056.3000;0.3484;1.3452;
1056.6000;0.3484;1.3500;
1056.9000;0.3500;1.3547;
1057.2000;0.3468;1.3571;
1057.5000;0.3476;1.3571;
1057.8000;0.3492;1.3571;
1058.1000;0.3468;1.3547;
1058.4000;0.3484;1.3571;
1058.7000;0.3492;1.3618;
1059.0000;0.3492;1.3523;
1059.3000;0.3492;1.3547;
1059.6000;0.3508;1.3594;
1059.9000;0.3492;1.3594;
1060.2000;0.3451;1.3405;
1060.5000;0.3500;1.3618;
1060.8000;0.3492;1.3571;
1061.1000;0.3557;1.3689;
1061.4000;0.3500;1.3500;
1061.7000;0.3484;1.3452;
1062.0000;0.3484;1.3428;
1062.3000;0.3500;1.3523;
1062.6000;0.3484;1.3523;
1062.9000;0.3476;1.3476;
1063.2000;0.3500;1.3476;
1063.5000;0.3492;1.3452;
1063.8000;0.3484;1.3452;
1064.1000;0.3460;1.3381;
1064.4000;0.3484;1.3452;
1064.7000;0.3492;1.3500;
1065.0000;0.3484;1.3476;
1065.3000;0.3476;1.3452;
1065.6000;0.3492;1.3500;
1065.9000;0.3516;1.3571;
1066.2000;0.3492;1.3523;
1066.5000;0.3492;1.3523;
1066.8000;0.3492;1.3547;
1067.1000;0.3476;1.3500;
1067.4000;0.3500;1.3452;
1067.7000;0.3492;1.3357;
1068.0000;0.3476;1.3286;
1068.3000;0.3484;1.3334;
1068.6000;0.3500;1.3357;
1068.9000;0.3516;1.3428;
1069.2000;0.3443;1.3239;
1069.5000;0.3460;1.3334;
1069.8000;0.3484;1.3428;
1070.1000;0.3468;1.3476;
1070.4000;0.3516;1.3642;
1070.7000;0.3468;1.3547;
1071.0000;0.3492;1.3405;
1071.3000;0.3484;1.3428;
1071.6000;0.3484;1.3452;
1071.9000;0.3508;1.3428;
1072.2000;0.3476;1.3334;
1072.5000;0.3468;1.3262;
1072.8000;0.3394;1.2978;
1073.1000;0.3468;1.3120;
1073.4000;0.3468;1.3073;
1073.7000;0.3484;1.3049;
1074.0000;0.3468;1.3049;
1074.3000;0.3468;1.3144;
1074.6000;0.3468;1.3167;
1074.9000;0.3492;1.3310;
1075.2000;0.3484;1.3262;
1075.5000;0.3460;1.3239;
1075.8000;0.3500;1.3357;
1076.1000;0.3492;1.3381;
1076.4000;0.3492;1.3405;
1076.7000;0.3516;1.3428;
1077.0000;0.3500;1.3405;
1077.3000;0.3484;1.3357;
1077.6000;0.3492;1.3286;
1077.9000;0.3476;1.3262;
1078.2000;0.3476;1.3286;
1078.5000;0.3476;1.3310;
1078.8000;0.3484;1.3334;
1079.1000;0.3500;1.3405;
1079.4000;0.3508;1.3405;
1079.7000;0.3460;1.3357;
1080.0000;0.3508;1.3428;
1080.3000;0.3508;1.3452;
1080.6000;0.3484;1.3405;
1080.9000;0.3492;1.3334;
1081.2000;0.3500;1.3334;
1081.5000;0.3492;1.3357;
1081.8000;0.3484;1.3357;
1082.1000;0.3500;1.3500;
1082.4000;0.3427;1.3215;
1082.7000;0.3476;1.3381;
1083.0000;0.3370;1.3167;
1083.3000;0.3386;1.3167;
1083.6000;0.3516;1.3428;
1083.9000;0.3500;1.3523;
1084.2000;0.3500;1.3547;
1084.5000;0.3492;1.3500;
1084.8000;0.3468;1.3381;
1085.1000;0.3492;1.3547;
1085.4000;0.3484;1.3452;
1085.7000;0.3451;1.3334;
1086.0000;0.3443;1.3239;
1086.3000;0.3500;1.3357;
1086.6000;0.3484;1.3357;
1086.9000;0.3484;1.3381;
1087.2000;0.3484;1.3428;
1087.5000;0.3492;1.3405;
1087.8000;0.3500;1.3405;
1088.1000;0.3492;1.3405;
1088.4000;0.3492;1.3476;
1088.7000;0.3492;1.3452;
1089.0000;0.3484;1.3452;
1089.3000;0.3533;1.3618;
1089.6000;0.3492;1.3594;
1089.9000;0.3492;1.3523;
1090.2000;0.3484;1.3547;
1090.5000;0.3508;1.3642;
1090.8000;0.3492;1.3594;
1091.1000;0.3476;1.3571;
1091.4000;0.3508;1.3594;
1091.7000;0.3492;1.3500;
1092.0000;0.3468;1.3428;
1092.3000;0.3500;1.3428;
1092.6000;0.3500;1.3500;
1092.9000;0.3508;1.3523;
1093.2000;0.3476;1.3476;
1093.5000;0.3484;1.3500;
1093.8000;0.3460;1.3428;
1094.1000;0.3484;1.3476;
1094.4000;0.3427;1.3357;
1094.7000;0.3451;1.3523;
1095.0000;0.3492;1.3547;
1095.3000;0.3492;1.3547;
1095.6000;0.3476;1.3500;
1095.9000;0.3476;1.3428;
1096.2000;0.3476;1.3452;
1096.5000;0.3500;1.3476;
1096.8000;0.3565;1.3666;
1097.1000;0.3492;1.3500;
1097.4000;0.3492;1.3571;
1097.7000;0.3492;1.3689;
1098.0000;0.3492;1.3642;
1098.3000;0.3476;1.3594;
1098.6000;0.3476;1.3689;
1098.9000;0.3484;1.3594;
1099.2000;0.3484;1.3642;
1099.5000;0.3500;1.3642;
1099.8000;0.3492;1.3594;
1100.1000;0.3508;1.3571;
1100.4000;0.3484;1.3571;
1100.7000;0.3516;1.3666;
1101.0000;0.3492;1.3642;
1101.3000;0.3476;1.3500;
1101.6000;0.3484;1.3500;
1101.9000;0.3492;1.3594;
1102.2000;0.3484;1.3571;
1102.5000;0.3492;1.3547;
1102.8000;0.3500;1.3500;
1103.1000;0.3476;1.3428;
1103.4000;0.3476;1.3428;
1103.7000;0.3492;1.3476;
1104.0000;0.3516;1.3594;
1104.3000;0.3468;1.3452;
1104.6000;0.3484;1.3571;
1104.9000;0.3565;1.3855;
1105.2000;0.3484;1.3737;
1105.5000;0.3435;1.3642;
1105.8000;0.3500;1.3761;
1106.1000;0.3484;1.3713;
1106.4000;0.3500;1.3713;
1106.7000;0.3484;1.3666;
1107.0000;0.3394;1.3500;
1107.3000;0.3394;1.3500;
1107.6000;0.3492;1.3761;
1107.9000;0.3500;1.3784;
1108.2000;0.3492;1.3855;
1108.5000;0.3476;1.3784;
1108.8000;0.3500;1.3737;
1109.1000;0.3516;1.3737;
1109.4000;0.3492;1.3761;
1109.7000;0.3492;1.3761;
1110.0000;0.3484;1.3713;
1110.3000;0.3492;1.3761;
1110.6000;0.3500;1.3737;
1110.9000;0.3516;1.3689;
1111.2000;0.3500;1.3642;
1111.5000;0.3500;1.3737;
1111.8000;0.3492;1.3713;
1112.1000;0.3500;1.3737;
1112.4000;0.3541;1.3761;
1112.7000;0.3500;1.3832;
1113.0000;0.3500;1.3784;
1113.3000;0.3508;1.3832;
1113.6000;0.3484;1.3761;
1113.9000;0.3476;1.3713;
1114.2000;0.3468;1.3689;
1114.5000;0.3492;1.3666;
1114.8000;0.3525;1.3689;
1115.1000;0.3484;1.3666;
1115.4000;0.3484;1.3737;
1115.7000;0.3508;1.3784;
1116.0000;0.3492;1.3737;
1116.3000;0.3500;1.3808;
1116.6000;0.3492;1.3855;
1116.9000;0.3492;1.3903;
1117.2000;0.3484;1.3855;
1117.5000;0.3468;1.3808;
1117.8000;0.3492;1.3784;
1118.1000;0.3484;1.3713;
1118.4000;0.3476;1.3666;
1118.7000;0.3476;1.3737;
1119.0000;0.3468;1.3737;
1119.3000;0.3484;1.3761;
1119.6000;0.3476;1.3689;
1119.9000;0.3468;1.3523;
1120.2000;0.3484;1.3594;
1120.5000;0.3476;1.3547;
1120.8000;0.3492;1.3594;
1121.1000;0.3476;1.3571;
1121.4000;0.3468;1.3642;
1121.7000;0.3500;1.3808;
1122.0000;0.3460;1.3784;
1122.3000;0.3476;1.3808;
1122.6000;0.3492;1.3832;
1122.9000;0.3476;1.3855;
1123.2000;0.3492;1.3903;
1123.5000;0.3492;1.3879;
1123.8000;0.3460;1.3761;
1124.1000;0.3500;1.3784;
1124.4000;0.3476;1.3855;
1124.7000;0.3484;1.3832;
1125.0000;0.3468;1.3808;
1125.3000;0.3468;1.3761;
1125.6000;0.3484;1.3761;
1125.9000;0.3492;1.3761;
1126.2000;0.3484;1.3642;
1126.5000;0.3468;1.3618;
1126.8000;0.3484;1.3761;
1127.1000;0.3484;1.3761;
1127.4000;0.3492;1.3713;
1127.7000;0.3484;1.3642;
1128.0000;0.3419;1.3523;
1128.3000;0.3468;1.3642;
1128.6000;0.3508;1.3737;
1128.9000;0.3484;1.3689;
1129.2000;0.3484;1.3642;
1129.5000;0.3492;1.3618;
1129.8000;0.3492;1.3689;
1130.1000;0.3516;1.3689;
1130.4000;0.3468;1.3618;
1130.7000;0.3484;1.3642;
1131.0000;0.3508;1.3713;
1131.3000;0.3484;1.3618;
1131.6000;0.3476;1.3594;
1131.9000;0.3492;1.3689;
1132.2000;0.3492;1.3737;
1132.5000;0.3476;1.3713;
1132.8000;0.3476;1.3737;
1133.1000;0.3484;1.3666;
1133.4000;0.3508;1.3642;
1133.7000;0.3476;1.3547;
1134.0000;0.3476;1.3642;
1134.3000;0.3484;1.3784;
1134.6000;0.3484;1.3808;
1134.9000;0.3500;1.3927;
1135.2000;0.3484;1.3903;
1135.5000;0.3500;1.3832;
1135.8000;0.3492;1.3808;
1136.1000;0.3484;1.3855;
1136.4000;0.3484;1.3903;
1136.7000;0.3500;1.3927;
1137.0000;0.3484;1.3761;
1137.3000;0.3484;1.3737;
1137.6000;0.3476;1.3666;
1137.9000;0.3492;1.3689;
1138.2000;0.3476;1.3642;
1138.5000;0.3492;1.3713;
1138.8000;0.3484;1.3689;
1139.1000;0.3484;1.3713;
1139.4000;0.3484;1.3737;
1139.7000;0.3476;1.3666;
1140.0000;0.3484;1.3737;
1140.3000;0.3492;1.3784;
1140.6000;0.3484;1.3737;
1140.9000;0.3468;1.3713;
1141.2000;0.3500;1.3761;
1141.5000;0.3476;1.3618;
1141.8000;0.3484;1.3642;
1142.1000;0.3484;1.3666;
1142.4000;0.3492;1.3618;
1142.7000;0.3468;1.3594;
1143.0000;0.3484;1.3642;
1143.3000;0.3492;1.3737;
1143.6000;0.3484;1.3618;
1143.9000;0.3492;1.3642;
1144.2000;0.3484;1.3594;
1144.5000;0.3525;1.3689;
1144.8000;0.3468;1.3523;
1145.1000;0.3484;1.3571;
1145.4000;0.3500;1.3547;
1145.7000;0.3492;1.3571;
1146.0000;0.3484;1.3523;
1146.3000;0.3541;1.3737;
1146.6000;0.3476;1.3523;
1146.9000;0.3484;1.3571;
1147.2000;0.3484;1.3594;
1147.5000;0.3476;1.3594;
1147.8000;0.3435;1.3452;
1148.1000;0.3500;1.3666;
1148.4000;0.3468;1.3500;
1148.7000;0.3500;1.3689;
1149.0000;0.3476;1.3689;
1149.3000;0.3500;1.3689;
1149.6000;0.3492;1.3737;
1149.9000;0.3476;1.3713;
1150.2000;0.3476;1.3666;
1150.5000;0.3500;1.3737;
1150.8000;0.3468;1.3618;
1151.1000;0.3492;1.3618;
1151.4000;0.3500;1.3642;
1151.7000;0.3476;1.3642;
1152.0000;0.3484;1.3713;
1152.3000;0.3484;1.3761;
1152.6000;0.3492;1.3761;
1152.9000;0.3460;1.3808;
1153.2000;0.3476;1.3832;
1153.5000;0.3476;1.3832;
1153.8000;0.3484;1.3855;
1154.1000;0.3443;1.3784;
1154.4000;0.3492;1.3855;
1154.7000;0.3508;1.3808;
1155.0000;0.3492;1.3784;
1155.3000;0.3492;1.3808;
1155.6000;0.3484;1.3761;
1155.9000;0.3500;1.3666;
1156.2000;0.3500;1.3689;
1156.5000;0.3484;1.3642;
1156.8000;0.3484;1.3666;
1157.1000;0.3500;1.3737;
1157.4000;0.3492;1.3713;
1157.7000;0.3492;1.3713;
1158.0000;0.3484;1.3689;
1158.3000;0.3451;1.3594;
1158.6000;0.3484;1.3737;
1158.9000;0.3508;1.3784;
1159.2000;0.3460;1.3618;
1159.5000;0.3492;1.3666;
1159.8000;0.3484;1.3713;
1160.1000;0.3492;1.3737;
1160.4000;0.3508;1.3832;
1160.7000;0.3484;1.3808;
1161.0000;0.3492;1.3832;
1161.3000;0.3500;1.3761;
1161.6000;0.3492;1.3784;
1161.9000;0.3516;1.3808;
1162.2000;0.3484;1.3689;
1162.5000;0.3476;1.3618;
1162.8000;0.3476;1.3618;
1163.1000;0.3492;1.3689;
1163.4000;0.3492;1.3689;
1163.7000;0.3492;1.3666;
1164.0000;0.3460;1.3571;
1164.3000;0.3476;1.3523;
1164.6000;0.3476;1.3500;
1164.9000;0.3484;1.3476;
1165.2000;0.3484;1.3452;
1165.5000;0.3476;1.3523;
1165.8000;0.3484;1.3594;
1166.1000;0.3484;1.3666;
1166.4000;0.3508;1.3737;
1166.7000;0.3492;1.3689;
1167.0000;0.3525;1.3713;
1167.3000;0.3427;1.3381;
1167.6000;0.3484;1.3500;
1167.9000;0.3476;1.3476;
1168.2000;0.3484;1.3428;
1168.5000;0.3500;1.3500;
1168.8000;0.3484;1.3571;
1169.1000;0.3492;1.3523;
1169.4000;0.3484;1.3452;
1169.7000;0.3492;1.3428;
1170.0000;0.3533;1.3594;
1170.3000;0.3492;1.3594;
1170.6000;0.3500;1.3500;
1170.9000;0.3500;1.3523;
1171.2000;0.3476;1.3476;
1171.5000;0.3516;1.3689;
1171.8000;0.3484;1.3618;
1172.1000;0.3492;1.3571;
1172.4000;0.3492;1.3618;
1172.7000;0.3500;1.3642;
1173.0000;0.3460;1.3547;
1173.3000;0.3476;1.3618;
1173.6000;0.3476;1.3571;
1173.9000;0.3484;1.3594;
1174.2000;0.3484;1.3547;
1174.5000;0.3484;1.3523;
1174.8000;0.3476;1.3547;
1175.1000;0.3468;1.3500;
1175.4000;0.3427;1.3523;
1175.7000;0.3476;1.3689;
1176.0000;0.3484;1.3689;
1176.3000;0.3484;1.3642;
1176.6000;0.3500;1.3737;
1176.9000;0.3492;1.3666;
1177.2000;0.3541;1.3808;
1177.5000;0.3500;1.3594;
1177.8000;0.3500;1.3666;
1178.1000;0.3484;1.3666;
1178.4000;0.3533;1.3761;
1178.7000;0.3476;1.3547;
1179.0000;0.3500;1.3500;
1179.3000;0.3500;1.3500;
1179.6000;0.3476;1.3428;
1179.9000;0.3427;1.3239;
1180.2000;0.3492;1.3428;
1180.5000;0.3500;1.3547;
1180.8000;0.3484;1.3547;
1181.1000;0.3476;1.3500;
1181.4000;0.3484;1.3571;
1181.7000;0.3492;1.3523;
1182.0000;0.3460;1.3476;
1182.3000;0.3500;1.3547;
1182.6000;0.3492;1.3571;
1182.9000;0.3492;1.3642;
1183.2000;0.3492;1.3689;
1183.5000;0.3492;1.3761;
1183.8000;0.3492;1.3808;
1184.1000;0.3476;1.3761;
1184.4000;0.3500;1.3761;
1184.7000;0.3500;1.3761;
1185.0000;0.3484;1.3689;
1185.3000;0.3394;1.3500;
1185.6000;0.3492;1.3689;
1185.9000;0.3500;1.3737;
1186.2000;0.3492;1.3713;
1186.5000;0.3500;1.3737;
1186.8000;0.3500;1.3737;
1187.1000;0.3476;1.3618;
1187.4000;0.3484;1.3666;
1187.7000;0.3533;1.3808;
1188.0000;0.3468;1.3713;
1188.3000;0.3484;1.3808;
1188.6000;0.3468;1.3784;
1188.9000;0.3476;1.3879;
1189.2000;0.3476;1.3879;
1189.5000;0.3484;1.3903;
1189.8000;0.3468;1.3903;
1190.1000;0.3484;1.3784;
1190.4000;0.3476;1.3761;
1190.7000;0.3476;1.3737;
1191.0000;0.3492;1.3689;
1191.3000;0.3492;1.3713;
1191.6000;0.3508;1.3737;
1191.9000;0.3500;1.3784;
1192.2000;0.3525;1.3903;
1192.5000;0.3484;1.3666;
1192.8000;0.3484;1.3594;
1193.1000;0.3492;1.3618;
1193.4000;0.3468;1.3547;
1193.7000;0.3484;1.3594;
1194.0000;0.3403;1.3357;
1194.3000;0.3484;1.3571;
1194.6000;0.3468;1.3571;
1194.9000;0.3476;1.3594;
1195.2000;0.3476;1.3452;
1195.5000;0.3492;1.3476;
1195.8000;0.3484;1.3547;
1196.1000;0.3484;1.3571;
1196.4000;0.3484;1.3428;
1196.7000;0.3484;1.3523;
1197.0000;0.3500;1.3547;
1197.3000;0.3516;1.3594;
1197.6000;0.3484;1.3476;
1197.9000;0.3476;1.3476;
1198.2000;0.3492;1.3571;
1198.5000;0.3500;1.3571;
1198.8000;0.3476;1.3476;
1199.1000;0.3582;1.3666;
1199.4000;0.3492;1.3500;
1199.7000;0.3484;1.3452;
1200.0000;0.3476;1.3476;
1200.3000;0.3492;1.3523;
1200.6000;0.3484;1.3618;
1200.9000;0.3500;1.3523;
1201.2000;0.3403;1.3310;
1201.5000;0.3468;1.3405;
1201.8000;0.3492;1.3452;
1202.1000;0.3492;1.3452;
1202.4000;0.3508;1.3500;
1202.7000;0.3476;1.3428;
1203.0000;0.3460;1.3381;
1203.3000;0.3500;1.3452;
1203.6000;0.3484;1.3476;
1203.9000;0.3476;1.3547;
1204.2000;0.3484;1.3642;
1204.5000;0.3460;1.3547;
1204.8000;0.3484;1.3571;
1205.1000;0.3484;1.3666;
1205.4000;0.3500;1.3761;
1205.7000;0.3484;1.3784;
1206.0000;0.3492;1.3761;
1206.3000;0.3484;1.3737;
1206.6000;0.3508;1.3808;
1206.9000;0.3484;1.3737;
1207.2000;0.3460;1.3571;
1207.5000;0.3492;1.3523;
1207.8000;0.3492;1.3571;
1208.1000;0.3500;1.3618;
1208.4000;0.3492;1.3618;
1208.7000;0.3484;1.3642;
1209.0000;0.3468;1.3594;
1209.3000;0.3549;1.3784;
1209.6000;0.3492;1.3666;
1209.9000;0.3492;1.3642;
1210.2000;0.3484;1.3689;
1210.5000;0.3492;1.3737;
1210.8000;0.3484;1.3713;
1211.1000;0.3484;1.3808;
1211.4000;0.3484;1.3784;
1211.7000;0.3468;1.3689;
1212.0000;0.3492;1.3784;
1212.3000;0.3484;1.3713;
1212.6000;0.3484;1.3666;
1212.9000;0.3476;1.3594;
1213.2000;0.3492;1.3618;
1213.5000;0.3484;1.3689;
1213.8000;0.3460;1.3666;
1214.1000;0.3484;1.3689;
1214.4000;0.3484;1.3666;
1214.7000;0.3484;1.3618;
1215.0000;0.3492;1.3666;
1215.3000;0.3484;1.3689;
1215.6000;0.3484;1.3713;
1215.9000;0.3484;1.3761;
1216.2000;0.3492;1.3737;
1216.5000;0.3484;1.3642;
1216.8000;0.3500;1.3594;
1217.1000;0.3500;1.3594;
1217.4000;0.3516;1.3594;
1217.7000;0.3484;1.3523;
1218.0000;0.3573;1.3832;
1218.3000;0.3492;1.3642;
1218.6000;0.3476;1.3547;
1218.9000;0.3492;1.3547;
1219.2000;0.3484;1.3428;
1219.5000;0.3484;1.3357;
1219.8000;0.3460;1.3452;
1220.1000;0.3492;1.3523;
1220.4000;0.3460;1.3428;
1220.7000;0.3484;1.3547;
1221.0000;0.3500;1.3642;
1221.3000;0.3468;1.3428;
1221.6000;0.3508;1.3594;
1221.9000;0.3484;1.3547;
1222.2000;0.3500;1.3547;
1222.5000;0.3476;1.3571;
1222.8000;0.3492;1.3618;
1223.1000;0.3500;1.3523;
1223.4000;0.3508;1.3594;
1223.7000;0.3468;1.3523;
1224.0000;0.3451;1.3500;
1224.3000;0.3468;1.3571;
1224.6000;0.3492;1.3618;
1224.9000;0.3468;1.3642;
1225.2000;0.3500;1.3666;
1225.5000;0.3484;1.3594;
1225.8000;0.3476;1.3618;
1226.1000;0.3492;1.3594;
1226.4000;0.3500;1.3571;
1226.7000;0.3476;1.3452;
1227.0000;0.3500;1.3500;
1227.3000;0.3476;1.3452;
1227.6000;0.3484;1.3452;
1227.9000;0.3476;1.3405;
1228.2000;0.3484;1.3428;
1228.5000;0.3500;1.3452;
1228.8000;0.3460;1.3357;
1229.1000;0.3460;1.3476;
1229.4000;0.3484;1.3594;
1229.7000;0.3492;1.3571;
1230.0000;0.3492;1.3547;
1230.3000;0.3484;1.3452;
1230.6000;0.3492;1.3500;
1230.9000;0.3476;1.3452;
1231.2000;0.3484;1.3571;
1231.5000;0.3533;1.3689;
1231.8000;0.3484;1.3547;
1232.1000;0.3484;1.3476;
1232.4000;0.3500;1.3618;
1232.7000;0.3492;1.3642;
1233.0000;0.3492;1.3666;
1233.3000;0.3492;1.3618;
1233.6000;0.3500;1.3618;
1233.9000;0.3573;1.3927;
1234.2000;0.3500;1.3689;
1234.5000;0.3484;1.3689;
1234.8000;0.3500;1.3761;
1235.1000;0.3492;1.3808;
1235.4000;0.3476;1.3713;
1235.7000;0.3476;1.3737;
1236.0000;0.3525;1.3832;
1236.3000;0.3508;1.3879;
1236.6000;0.3484;1.3950;
1236.9000;0.3500;1.3974;
1237.2000;0.3476;1.3927;
1237.5000;0.3508;1.4022;
1237.8000;0.3500;1.3950;
1238.1000;0.3492;1.3903;
1238.4000;0.3508;1.3903;
1238.7000;0.3492;1.3784;
1239.0000;0.3508;1.3903;
1239.3000;0.3443;1.3713;
1239.6000;0.3492;1.3855;
1239.9000;0.3492;1.3808;
1240.2000;0.3598;1.3927;
1240.5000;0.3500;1.3618;
1240.8000;0.3508;1.3666;
1241.1000;0.3492;1.3666;
1241.4000;0.3500;1.3642;
1241.7000;0.3484;1.3571;
1242.0000;0.3476;1.3547;
1242.3000;0.3484;1.3500;
1242.6000;0.3484;1.3476;
1242.9000;0.3484;1.3500;
1243.2000;0.3484;1.3571;
1243.5000;0.3484;1.3571;
1243.8000;0.3484;1.3642;
1244.1000;0.3500;1.3713;
1244.4000;0.3508;1.3713;
1244.7000;0.3492;1.3642;
1245.0000;0.3500;1.3761;
1245.3000;0.3484;1.3666;
1245.6000;0.3484;1.3689;
1245.9000;0.3476;1.3689;
1246.2000;0.3500;1.3737;
1246.5000;0.3484;1.3642;
1246.8000;0.3516;1.3618;
1247.1000;0.3484;1.3642;
1247.4000;0.3508;1.3713;
1247.7000;0.3484;1.3618;
1248.0000;0.3468;1.3618;
1248.3000;0.3476;1.3761;
1248.6000;0.3484;1.3737;
1248.9000;0.3484;1.3761;
1249.2000;0.3500;1.3713;
1249.5000;0.3484;1.3571;
1249.8000;0.3500;1.3571;
1250.1000;0.3500;1.3618;
1250.4000;0.3500;1.3642;
1250.7000;0.3484;1.3666;
1251.0000;0.3484;1.3618;
1251.3000;0.3508;1.3642;
1251.6000;0.3492;1.3666;
1251.9000;0.3500;1.3761;
1252.2000;0.3484;1.3713;
1252.5000;0.3476;1.3713;
1252.8000;0.3500;1.3713;
1253.1000;0.3484;1.3642;
1253.4000;0.3484;1.3713;
1253.7000;0.3484;1.3761;
1254.0000;0.3508;1.3737;
1254.3000;0.3500;1.3642;
1254.6000;0.3500;1.3594;
1254.9000;0.3476;1.3523;
1255.2000;0.3508;1.3642;
1255.5000;0.3508;1.3666;
1255.8000;0.3484;1.3618;
1256.1000;0.3500;1.3713;
1256.4000;0.3476;1.3666;
1256.7000;0.3500;1.3666;
1257.0000;0.3484;1.3571;
1257.3000;0.3484;1.3642;
1257.6000;0.3500;1.3618;
1257.9000;0.3492;1.3642;
1258.2000;0.3484;1.3642;
1258.5000;0.3476;1.3618;
1258.8000;0.3492;1.3689;
1259.1000;0.3484;1.3642;
1259.4000;0.3484;1.3642;
1259.7000;0.3451;1.3547;
1260.0000;0.3468;1.3594;
1260.3000;0.3500;1.3689;
1260.6000;0.3492;1.3594;
1260.9000;0.3476;1.3523;
1261.2000;0.3492;1.3547;
1261.5000;0.3500;1.3594;
1261.8000;0.3492;1.3571;
1262.1000;0.3500;1.3523;
1262.4000;0.3508;1.3476;
1262.7000;0.3476;1.3500;
1263.0000;0.3484;1.3571;
1263.3000;0.3468;1.3547;
1263.6000;0.3476;1.3642;
1263.9000;0.3476;1.3713;
1264.2000;0.3557;1.3903;
1264.5000;0.3508;1.3666;
1264.8000;0.3484;1.3689;
1265.1000;0.3484;1.3737;
1265.4000;0.3476;1.3666;
1265.7000;0.3492;1.3689;
1266.0000;0.3508;1.3666;
1266.3000;0.3468;1.3666;
1266.6000;0.3508;1.3808;
1266.9000;0.3492;1.3927;
1267.2000;0.3492;1.3903;
1267.5000;0.3484;1.3832;
1267.8000;0.3500;1.3808;
1268.1000;0.3492;1.3855;
1268.4000;0.3484;1.3713;
1268.7000;0.3484;1.3666;
1269.0000;0.3492;1.3618;
1269.3000;0.3500;1.3784;
1269.6000;0.3492;1.3618;
1269.9000;0.3484;1.3642;
1270.2000;0.3508;1.3737;
1270.5000;0.3427;1.3523;
1270.8000;0.3500;1.3737;
1271.1000;0.3484;1.3666;
1271.4000;0.3492;1.3689;
1271.7000;0.3460;1.3594;
1272.0000;0.3492;1.3808;
1272.3000;0.3492;1.3832;
1272.6000;0.3484;1.3832;
1272.9000;0.3476;1.3784;
1273.2000;0.3484;1.3784;
1273.5000;0.3492;1.3713;
1273.8000;0.3492;1.3713;
1274.1000;0.3484;1.3713;
1274.4000;0.3492;1.3713;
1274.7000;0.3468;1.3666;
1275.0000;0.3484;1.3642;
1275.3000;0.3476;1.3689;
1275.6000;0.3516;1.3761;
1275.9000;0.3492;1.3713;
1276.2000;0.3533;1.3784;
1276.5000;0.3508;1.3761;
1276.8000;0.3500;1.3784;
1277.1000;0.3508;1.3855;
1277.4000;0.3492;1.3666;
1277.7000;0.3508;1.3737;
1278.0000;0.3500;1.3761;
1278.3000;0.3451;1.3689;
1278.6000;0.3484;1.3784;
1278.9000;0.3492;1.3761;
1279.2000;0.3484;1.3689;
1279.5000;0.3492;1.3713;
1279.8000;0.3492;1.3713;
1280.1000;0.3492;1.3713;
1280.4000;0.3484;1.3689;
1280.7000;0.3492;1.3618;
1281.0000;0.3476;1.3547;
1281.3000;0.3468;1.3571;
1281.6000;0.3476;1.3642;
1281.9000;0.3476;1.3618;
1282.2000;0.3492;1.3666;
1282.5000;0.3468;1.3594;
1282.8000;0.3484;1.3642;
1283.1000;0.3492;1.3737;
1283.4000;0.3476;1.3737;
1283.7000;0.3451;1.3618;
1284.0000;0.3468;1.3571;
1284.3000;0.3484;1.3618;
1284.6000;0.3484;1.3618;
1284.9000;0.3476;1.3594;
1285.2000;0.3508;1.3713;
1285.5000;0.3468;1.3594;
1285.8000;0.3484;1.3689;
1286.1000;0.3500;1.3713;
1286.4000;0.3476;1.3784;
1286.7000;0.3484;1.3784;
1287.0000;0.3500;1.3808;
1287.3000;0.3484;1.3737;
1287.6000;0.3492;1.3689;
1287.9000;0.3492;1.3761;
1288.2000;0.3484;1.3784;
1288.5000;0.3484;1.3761;
1288.8000;0.3468;1.3737;
1289.1000;0.3492;1.3808;
1289.4000;0.3476;1.3784;
1289.7000;0.3484;1.3761;
1290.0000;0.3484;1.3737;
1290.3000;0.3468;1.3713;
1290.6000;0.3492;1.3689;
1290.9000;0.3549;1.3903;
1291.2000;0.3460;1.3642;
1291.5000;0.3500;1.3713;
1291.8000;0.3533;1.3713;
1292.1000;0.3500;1.3618;
1292.4000;0.3484;1.3571;
1292.7000;0.3492;1.3571;
1293.0000;0.3484;1.3594;
1293.3000;0.3614;1.3927;
1293.6000;0.3484;1.3642;
1293.9000;0.3500;1.3594;
1294.2000;0.3468;1.3594;
1294.5000;0.3516;1.3761;
1294.8000;0.3484;1.3689;
1295.1000;0.3500;1.3713;
1295.4000;0.3468;1.3571;
1295.7000;0.3492;1.3547;
1296.0000;0.3500;1.3642;
1296.3000;0.3476;1.3618;
1296.6000;0.3484;1.3571;
1296.9000;0.3476;1.3618;
1297.2000;0.3492;1.3666;
1297.5000;0.3492;1.3642;
1297.8000;0.3476;1.3618;
1298.1000;0.3443;1.3571;
1298.4000;0.3476;1.3666;
1298.7000;0.3443;1.3571;
1299.0000;0.3468;1.3500;
1299.3000;0.3468;1.3547;
1299.6000;0.3500;1.3618;
1299.9000;0.3484;1.3618;
1300.2000;0.3500;1.3737;
1300.5000;0.3500;1.3642;
1300.8000;0.3476;1.3689;
1301.1000;0.3492;1.3784;
1301.4000;0.3484;1.3737;
1301.7000;0.3492;1.3713;
1302.0000;0.3492;1.3713;
1302.3000;0.3484;1.3689;
1302.6000;0.3484;1.3689;
1302.9000;0.3484;1.3571;
1303.2000;0.3476;1.3500;
1303.5000;0.3484;1.3594;
1303.8000;0.3484;1.3547;
1304.1000;0.3476;1.3476;
1304.4000;0.3476;1.3476;
1304.7000;0.3476;1.3523;
1305.0000;0.3484;1.3523;
1305.3000;0.3500;1.3523;
1305.6000;0.3476;1.3571;
1305.9000;0.3500;1.3618;
1306.2000;0.3500;1.3666;
1306.5000;0.3541;1.3784;
1306.8000;0.3492;1.3618;
1307.1000;0.3476;1.3523;
1307.4000;0.3492;1.3571;
1307.7000;0.3484;1.3523;
1308.0000;0.3541;1.3594;
1308.3000;0.3460;1.3310;
1308.6000;0.3492;1.3405;
1308.9000;0.3508;1.3381;
1309.2000;0.3492;1.3262;
1309.5000;0.3484;1.3262;
1309.8000;0.3508;1.3405;
1310.1000;0.3476;1.3357;
1310.4000;0.3476;1.3405;
1310.7000;0.3484;1.3428;
1311.0000;0.3484;1.3523;
1311.3000;0.3484;1.3571;
1311.6000;0.3492;1.3523;
1311.9000;0.3468;1.3547;
1312.2000;0.3492;1.3618;
1312.5000;0.3500;1.3618;
1312.8000;0.3476;1.3594;
1313.1000;0.3492;1.3547;
1313.4000;0.3500;1.3642;
1313.7000;0.3492;1.3618;
1314.0000;0.3549;1.3784;
1314.3000;0.3492;1.3642;
1314.6000;0.3484;1.3618;
1314.9000;0.3427;1.3428;
1315.2000;0.3500;1.3666;
1315.5000;0.3492;1.3689;
1315.8000;0.3476;1.3571;
1316.1000;0.3541;1.3737;
1316.4000;0.3468;1.3547;
1316.7000;0.3484;1.3618;
1317.0000;0.3451;1.3594;
1317.3000;0.3435;1.3618;
1317.6000;0.3492;1.3808;
1317.9000;0.3549;1.3927;
1318.2000;0.3500;1.3737;
1318.5000;0.3500;1.3761;
1318.8000;0.3484;1.3737;
1319.1000;0.3484;1.3713;
1319.4000;0.3484;1.3713;
1319.7000;0.3484;1.3761;
1320.0000;0.3582;1.3974;
1320.3000;0.3500;1.3832;
1320.6000;0.3492;1.3784;
1320.9000;0.3484;1.3737;
1321.2000;0.3492;1.3784;
1321.5000;0.3476;1.3784;
1321.8000;0.3460;1.3761;
1322.1000;0.3451;1.3855;
1322.4000;0.3468;1.3855;
1322.7000;0.3492;1.3903;
1323.0000;0.3476;1.3808;
1323.3000;0.3516;1.3903;
1323.6000;0.3460;1.3713;
1323.9000;0.3492;1.3666;
1324.2000;0.3516;1.3642;
1324.5000;0.3500;1.3689;
1324.8000;0.3484;1.3713;
1325.1000;0.3508;1.3784;
1325.4000;0.3508;1.3642;
1325.7000;0.3508;1.3618;
1326.0000;0.3508;1.3571;
1326.3000;0.3525;1.3618;
1326.6000;0.3492;1.3547;
1326.9000;0.3492;1.3523;
1327.2000;0.3500;1.3523;
1327.5000;0.3492;1.3642;
1327.8000;0.3468;1.3642;
1328.1000;0.3468;1.3594;
1328.4000;0.3476;1.3571;
1328.7000;0.3484;1.3594;
1329.0000;0.3484;1.3618;
1329.3000;0.3468;1.3594;
1329.6000;0.3484;1.3523;
1329.9000;0.3516;1.3523;
1330.2000;0.3492;1.3500;
1330.5000;0.3516;1.3547;
1330.8000;0.3492;1.3594;
1331.1000;0.3484;1.3618;
1331.4000;0.3492;1.3642;
1331.7000;0.3500;1.3713;
1332.0000;0.3484;1.3642;
1332.3000;0.3508;1.3689;
1332.6000;0.3492;1.3713;
1332.9000;0.3508;1.3713;
1333.2000;0.3492;1.3666;
1333.5000;0.3492;1.3666;
1333.8000;0.3476;1.3666;
1334.1000;0.3492;1.3689;
1334.4000;0.3476;1.3689;
1334.7000;0.3484;1.3689;
1335.0000;0.3468;1.3689;
1335.3000;0.3516;1.3761;
1335.6000;0.3476;1.3689;
1335.9000;0.3516;1.3761;
1336.2000;0.3492;1.3689;
1336.5000;0.3508;1.3689;
1336.8000;0.3516;1.3761;
1337.1000;0.3508;1.3713;
1337.4000;0.3492;1.3689;
1337.7000;0.3451;1.3571;
1338.0000;0.3492;1.3594;
1338.3000;0.3492;1.3571;
1338.6000;0.3484;1.3500;
1338.9000;0.3476;1.3452;
1339.2000;0.3476;1.3452;
1339.5000;0.3516;1.3689;
1339.8000;0.3549;1.3784;
1340.1000;0.3508;1.3761;
1340.4000;0.3541;1.3927;
1340.7000;0.3508;1.3761;
1341.0000;0.3500;1.3666;
1341.3000;0.3492;1.3618;
1341.6000;0.3500;1.3666;
1341.9000;0.3500;1.3713;
1342.2000;0.3500;1.3666;
1342.5000;0.3476;1.3713;
1342.8000;0.3484;1.3761;
1343.1000;0.3484;1.3832;
1343.4000;0.3492;1.3855;
1343.7000;0.3427;1.3689;
1344.0000;0.3476;1.3832;
1344.3000;0.3484;1.3784;
1344.6000;0.3508;1.3784;
1344.9000;0.3492;1.3737;
1345.2000;0.3484;1.3808;
1345.5000;0.3500;1.3761;
1345.8000;0.3468;1.3689;
1346.1000;0.3476;1.3666;
1346.4000;0.3476;1.3713;
1346.7000;0.3484;1.3737;
1347.0000;0.3476;1.3642;
1347.3000;0.3500;1.3618;
1347.6000;0.3508;1.3594;
1347.9000;0.3508;1.3713;
1348.2000;0.3492;1.3666;
1348.5000;0.3492;1.3713;
1348.8000;0.3468;1.3737;
1349.1000;0.3500;1.3737;
1349.4000;0.3484;1.3642;
1349.7000;0.3500;1.3594;
1350.0000;0.3484;1.3571;
1350.3000;0.3606;1.3903;
1350.6000;0.3476;1.3547;
1350.9000;0.3484;1.3523;
1351.2000;0.3468;1.3523;
1351.5000;0.3484;1.3642;
1351.8000;0.3500;1.3713;
1352.1000;0.3484;1.3642;
1352.4000;0.3492;1.3642;
1352.7000;0.3492;1.3618;
1353.0000;0.3508;1.3666;
1353.3000;0.3468;1.3666;
1353.6000;0.3484;1.3737;
1353.9000;0.3500;1.3784;
1354.2000;0.3508;1.3832;
1354.5000;0.3508;1.3713;
1354.8000;0.3484;1.3689;
1355.1000;0.3492;1.3737;
1355.4000;0.3435;1.3547;
1355.7000;0.3484;1.3642;
1356.0000;0.3476;1.3713;
1356.3000;0.3460;1.3594;
1356.6000;0.3492;1.3666;
1356.9000;0.3492;1.3618;
1357.2000;0.3492;1.3713;
1357.5000;0.3500;1.3642;
1357.8000;0.3500;1.3571;
1358.1000;0.3484;1.3500;
1358.4000;0.3541;1.3689;
1358.7000;0.3484;1.3523;
1359.0000;0.3492;1.3523;
1359.3000;0.3460;1.3381;
1359.6000;0.3500;1.3500;
1359.9000;0.3492;1.3500;
1360.2000;0.3500;1.3571;
1360.5000;0.3508;1.3594;
1360.8000;0.3508;1.3594;
1361.1000;0.3476;1.3523;
1361.4000;0.3500;1.3594;
1361.7000;0.3484;1.3547;
1362.0000;0.3492;1.3594;
1362.3000;0.3476;1.3547;
1362.6000;0.3484;1.3523;
1362.9000;0.3500;1.3547;
1363.2000;0.3492;1.3476;
1363.5000;0.3508;1.3523;
1363.8000;0.3508;1.3571;
1364.1000;0.3484;1.3547;
1364.4000;0.3508;1.3547;
1364.7000;0.3492;1.3547;
1365.0000;0.3500;1.3594;
1365.3000;0.3484;1.3523;
1365.6000;0.3500;1.3571;
1365.9000;0.3500;1.3594;
1366.2000;0.3443;1.3381;
1366.5000;0.3484;1.3523;
1366.8000;0.3484;1.3571;
1367.1000;0.3492;1.3523;
1367.4000;0.3484;1.3452;
1367.7000;0.3484;1.3523;
1368.0000;0.3476;1.3523;
1368.3000;0.3492;1.3571;
1368.6000;0.3492;1.3523;
1368.9000;0.3492;1.3571;
1369.2000;0.3484;1.3523;
1369.5000;0.3492;1.3642;
1369.8000;0.3484;1.3713;
1370.1000;0.3460;1.3713;
1370.4000;0.3508;1.3784;
1370.7000;0.3500;1.3761;
1371.0000;0.3492;1.3666;
1371.3000;0.3460;1.3547;
1371.6000;0.3484;1.3666;
1371.9000;0.3492;1.3642;
1372.2000;0.3476;1.3618;
1372.5000;0.3484;1.3571;
1372.8000;0.3468;1.3523;
1373.1000;0.3492;1.3666;
1373.4000;0.3443;1.3476;
1373.7000;0.3500;1.3618;
1374.0000;0.3484;1.3500;
1374.3000;0.3435;1.3381;
1374.6000;0.3500;1.3547;
1374.9000;0.3492;1.3594;
1375.2000;0.3500;1.3594;
1375.5000;0.3468;1.3547;
1375.8000;0.3500;1.3642;
1376.1000;0.3516;1.3666;
1376.4000;0.3468;1.3618;
1376.7000;0.3492;1.3618;
1377.0000;0.3484;1.3618;
1377.3000;0.3508;1.3642;
1377.6000;0.3476;1.3476;
1377.9000;0.3476;1.3571;
1378.2000;0.3500;1.3523;
1378.5000;0.3484;1.3452;
1378.8000;0.3476;1.3452;
1379.1000;0.3476;1.3452;
1379.4000;0.3468;1.3523;
1379.7000;0.3492;1.3618;
1380.0000;0.3500;1.3666;
1380.3000;0.3419;1.3452;
1380.6000;0.3492;1.3618;
1380.9000;0.3500;1.3547;
1381.2000;0.3484;1.3523;
1381.5000;0.3492;1.3547;
1381.8000;0.3492;1.3594;
1382.1000;0.3500;1.3666;
1382.4000;0.3500;1.3689;
1382.7000;0.3476;1.3761;
1383.0000;0.3476;1.3808;
1383.3000;0.3565;1.3974;
1383.6000;0.3492;1.3737;
1383.9000;0.3492;1.3737;
1384.2000;0.3492;1.3737;
1384.5000;0.3492;1.3761;
1384.8000;0.3500;1.3784;
1385.1000;0.3484;1.3689;
1385.4000;0.3484;1.3689;
1385.7000;0.3492;1.3713;
1386.0000;0.3492;1.3594;
1386.3000;0.3403;1.3310;
1386.6000;0.3484;1.3571;
1386.9000;0.3484;1.3571;
1387.2000;0.3476;1.3476;
1387.5000;0.3484;1.3476;
1387.8000;0.3484;1.3476;
1388.1000;0.3443;1.3381;
1388.4000;0.3500;1.3500;
1388.7000;0.3484;1.3547;
1389.0000;0.3484;1.3571;
1389.3000;0.3468;1.3571;
1389.6000;0.3484;1.3594;
1389.9000;0.3516;1.3689;
1390.2000;0.3492;1.3666;
1390.5000;0.3492;1.3713;
1390.8000;0.3492;1.3737;
1391.1000;0.3484;1.3713;
1391.4000;0.3500;1.3784;
1391.7000;0.3492;1.3689;
1392.0000;0.3484;1.3713;
1392.3000;0.3403;1.3523;
1392.6000;0.3500;1.3737;
1392.9000;0.3476;1.3666;
1393.2000;0.3476;1.3547;
1393.5000;0.3451;1.3452;
1393.8000;0.3484;1.3618;
1394.1000;0.3557;1.3784;
1394.4000;0.3460;1.3571;
1394.7000;0.3500;1.3689;
1395.0000;0.3492;1.3642;
1395.3000;0.3492;1.3642;
1395.6000;0.3492;1.3713;
1395.9000;0.3500;1.3761;
1396.2000;0.3484;1.3713;
1396.5000;0.3492;1.3689;
1396.8000;0.3500;1.3737;
1397.1000;0.3484;1.3666;
1397.4000;0.3516;1.3784;
1397.7000;0.3508;1.3761;
1398.0000;0.3541;1.3879;
1398.3000;0.3492;1.3832;
1398.6000;0.3492;1.3784;
1398.9000;0.3516;1.3832;
1399.2000;0.3533;1.3855;
1399.5000;0.3492;1.3689;
1399.8000;0.3492;1.3642;
