time/ms;Fluo/V;P700 deltaI/I x10³;
-199.8000;0.4990;1.4093;
-199.5000;0.5014;1.4140;
-199.2000;0.4998;1.4140;
-198.9000;0.4974;1.4164;
-198.6000;0.4998;1.4235;
-198.3000;0.5014;1.4306;
-198.0000;0.4998;1.4330;
-197.7000;0.4998;1.4425;
-197.4000;0.4982;1.4306;
-197.1000;0.4974;1.4259;
-196.8000;0.4990;1.4211;
-196.5000;0.5006;1.4235;
-196.2000;0.4982;1.4140;
-195.9000;0.4990;1.4164;
-195.6000;0.5047;1.4259;
-195.3000;0.5031;1.4211;
-195.0000;0.4998;1.4140;
-194.7000;0.4998;1.4140;
-194.4000;0.4990;1.4093;
-194.1000;0.4974;1.3998;
-193.8000;0.4990;1.4093;
-193.5000;0.4990;1.4140;
-193.2000;0.4998;1.4211;
-192.9000;0.5006;1.4188;
-192.6000;0.5006;1.4164;
-192.3000;0.4982;1.4069;
-192.0000;0.5006;1.4022;
-191.7000;0.4998;1.4093;
-191.4000;0.5006;1.4093;
-191.1000;0.4990;1.3998;
-190.8000;0.5014;1.3998;
-190.5000;0.5014;1.4045;
-190.2000;0.5022;1.4140;
-189.9000;0.4998;1.4164;
-189.6000;0.5014;1.4235;
-189.3000;0.5006;1.4235;
-189.0000;0.5006;1.4235;
-188.7000;0.4990;1.4188;
-188.4000;0.4998;1.4211;
-188.1000;0.5014;1.4283;
-187.8000;0.4990;1.4330;
-187.5000;0.4974;1.4259;
-187.2000;0.4990;1.4283;
-186.9000;0.5014;1.4330;
-186.6000;0.5014;1.4306;
-186.3000;0.4933;1.4069;
-186.0000;0.4990;1.4188;
-185.7000;0.5006;1.4211;
-185.4000;0.4998;1.4164;
-185.1000;0.4974;1.4069;
-184.8000;0.4998;1.4164;
-184.5000;0.5006;1.4164;
-184.2000;0.5031;1.4164;
-183.9000;0.5014;1.4140;
-183.6000;0.5022;1.4283;
-183.3000;0.5063;1.4306;
-183.0000;0.5014;1.4164;
-182.7000;0.4990;1.4164;
-182.4000;0.5014;1.4211;
-182.1000;0.4982;1.4140;
-181.8000;0.4998;1.4093;
-181.5000;0.4974;1.4116;
-181.2000;0.4990;1.4235;
-180.9000;0.4974;1.4164;
-180.6000;0.4990;1.4306;
-180.3000;0.5006;1.4259;
-180.0000;0.4998;1.4116;
-179.7000;0.4974;1.4045;
-179.4000;0.5039;1.4211;
-179.1000;0.5014;1.4140;
-178.8000;0.5022;1.4188;
-178.5000;0.5047;1.4235;
-178.2000;0.5031;1.4164;
-177.9000;0.4998;1.4211;
-177.6000;0.4982;1.4164;
-177.3000;0.4982;1.4164;
-177.0000;0.4982;1.4164;
-176.7000;0.4990;1.4188;
-176.4000;0.5039;1.4306;
-176.1000;0.4982;1.4116;
-175.8000;0.4998;1.4116;
-175.5000;0.4990;1.4164;
-175.2000;0.4990;1.4093;
-174.9000;0.4998;1.4069;
-174.6000;0.4998;1.4093;
-174.3000;0.5014;1.4140;
-174.0000;0.5006;1.4140;
-173.7000;0.5055;1.4164;
-173.4000;0.4998;1.3998;
-173.1000;0.4974;1.3903;
-172.8000;0.5006;1.3998;
-172.5000;0.4982;1.3950;
-172.2000;0.4990;1.3974;
-171.9000;0.4998;1.3974;
-171.6000;0.5006;1.3974;
-171.3000;0.4990;1.3927;
-171.0000;0.4974;1.3832;
-170.7000;0.4982;1.3879;
-170.4000;0.5006;1.3974;
-170.1000;0.5031;1.4022;
-169.8000;0.4982;1.3927;
-169.5000;0.4998;1.3950;
-169.2000;0.5006;1.3974;
-168.9000;0.4998;1.3974;
-168.6000;0.5014;1.3998;
-168.3000;0.4990;1.3879;
-168.0000;0.5006;1.3950;
-167.7000;0.4982;1.3855;
-167.4000;0.4982;1.3927;
-167.1000;0.4990;1.4022;
-166.8000;0.4998;1.3998;
-166.5000;0.5014;1.4093;
-166.2000;0.5014;1.4140;
-165.9000;0.4990;1.4069;
-165.6000;0.4990;1.4069;
-165.3000;0.4982;1.4069;
-165.0000;0.4990;1.4093;
-164.7000;0.5006;1.4188;
-164.4000;0.4990;1.4116;
-164.1000;0.5014;1.4235;
-163.8000;0.4990;1.4211;
-163.5000;0.4982;1.4259;
-163.2000;0.5006;1.4306;
-162.9000;0.4982;1.4235;
-162.6000;0.4949;1.4116;
-162.3000;0.4998;1.4259;
-162.0000;0.4982;1.4211;
-161.7000;0.4998;1.4211;
-161.4000;0.4998;1.4140;
-161.1000;0.4998;1.4140;
-160.8000;0.5006;1.4164;
-160.5000;0.4990;1.4069;
-160.2000;0.5014;1.4045;
-159.9000;0.4998;1.4045;
-159.6000;0.5006;1.4069;
-159.3000;0.4990;1.4093;
-159.0000;0.4998;1.4069;
-158.7000;0.4998;1.3998;
-158.4000;0.4990;1.3998;
-158.1000;0.4990;1.4045;
-157.8000;0.4965;1.3998;
-157.5000;0.5014;1.4140;
-157.2000;0.4982;1.4045;
-156.9000;0.4982;1.4188;
-156.6000;0.4998;1.4306;
-156.3000;0.4998;1.4306;
-156.0000;0.5014;1.4188;
-155.7000;0.4998;1.4140;
-155.4000;0.4998;1.4069;
-155.1000;0.5063;1.4283;
-154.8000;0.4990;1.4093;
-154.5000;0.5006;1.4116;
-154.2000;0.5006;1.4116;
-153.9000;0.5006;1.4116;
-153.6000;0.5006;1.4164;
-153.3000;0.4982;1.4211;
-153.0000;0.4982;1.4211;
-152.7000;0.4990;1.4235;
-152.4000;0.5006;1.4188;
-152.1000;0.5006;1.4188;
-151.8000;0.4998;1.4188;
-151.5000;0.4998;1.4211;
-151.2000;0.5014;1.4259;
-150.9000;0.4974;1.4069;
-150.6000;0.5006;1.4140;
-150.3000;0.4998;1.4022;
-150.0000;0.5022;1.4022;
-149.7000;0.4990;1.3998;
-149.4000;0.5014;1.4022;
-149.1000;0.4998;1.4022;
-148.8000;0.5039;1.4188;
-148.5000;0.5006;1.4093;
-148.2000;0.4990;1.4045;
-147.9000;0.4998;1.4093;
-147.6000;0.4998;1.4069;
-147.3000;0.4990;1.4116;
-147.0000;0.4982;1.4140;
-146.7000;0.4990;1.4164;
-146.4000;0.4908;1.3879;
-146.1000;0.5006;1.4140;
-145.8000;0.4982;1.3974;
-145.5000;0.4990;1.3974;
-145.2000;0.5096;1.4283;
-144.9000;0.5006;1.4069;
-144.6000;0.4917;1.3761;
-144.3000;0.5006;1.3879;
-144.0000;0.4998;1.3903;
-143.7000;0.5006;1.3998;
-143.4000;0.5006;1.4093;
-143.1000;0.4998;1.4116;
-142.8000;0.4982;1.4069;
-142.5000;0.4982;1.4093;
-142.2000;0.4982;1.4045;
-141.9000;0.4908;1.3855;
-141.6000;0.4990;1.3974;
-141.3000;0.4982;1.3903;
-141.0000;0.5047;1.3950;
-140.7000;0.4990;1.3832;
-140.4000;0.4998;1.3808;
-140.1000;0.4998;1.3927;
-139.8000;0.4998;1.3950;
-139.5000;0.5006;1.4022;
-139.2000;0.4998;1.3950;
-138.9000;0.4998;1.3879;
-138.6000;0.5006;1.3784;
-138.3000;0.4990;1.3737;
-138.0000;0.4974;1.3784;
-137.7000;0.4998;1.3784;
-137.4000;0.4990;1.3784;
-137.1000;0.4998;1.3950;
-136.8000;0.4998;1.3927;
-136.5000;0.4982;1.3974;
-136.2000;0.4998;1.4022;
-135.9000;0.4998;1.4069;
-135.6000;0.5031;1.4116;
-135.3000;0.5006;1.4069;
-135.0000;0.4998;1.4045;
-134.7000;0.4998;1.4045;
-134.4000;0.5022;1.4022;
-134.1000;0.4990;1.3998;
-133.8000;0.5006;1.3974;
-133.5000;0.4990;1.3927;
-133.2000;0.4982;1.3903;
-132.9000;0.4982;1.3927;
-132.6000;0.4990;1.3927;
-132.3000;0.4974;1.3903;
-132.0000;0.5031;1.3974;
-131.7000;0.5006;1.3950;
-131.4000;0.5022;1.3950;
-131.1000;0.4990;1.3974;
-130.8000;0.4998;1.3998;
-130.5000;0.4974;1.3879;
-130.2000;0.5006;1.3927;
-129.9000;0.5006;1.3927;
-129.6000;0.4990;1.3879;
-129.3000;0.5022;1.3950;
-129.0000;0.4974;1.3832;
-128.7000;0.4990;1.3903;
-128.4000;0.5088;1.4164;
-128.1000;0.4998;1.3974;
-127.8000;0.4974;1.3855;
-127.5000;0.4965;1.3855;
-127.2000;0.4998;1.3855;
-126.9000;0.5006;1.3903;
-126.6000;0.4990;1.3879;
-126.3000;0.4974;1.3832;
-126.0000;0.5039;1.4022;
-125.7000;0.5014;1.3927;
-125.4000;0.4974;1.3784;
-125.1000;0.4941;1.3618;
-124.8000;0.5014;1.3713;
-124.5000;0.4998;1.3784;
-124.2000;0.4998;1.3737;
-123.9000;0.4990;1.3761;
-123.6000;0.4990;1.3761;
-123.3000;0.5014;1.3737;
-123.0000;0.4998;1.3713;
-122.7000;0.4974;1.3737;
-122.4000;0.4933;1.3713;
-122.1000;0.5014;1.3832;
-121.8000;0.4974;1.3808;
-121.5000;0.4990;1.3879;
-121.2000;0.5022;1.3855;
-120.9000;0.4998;1.3855;
-120.6000;0.4990;1.3927;
-120.3000;0.5006;1.4022;
-120.0000;0.4990;1.3998;
-119.7000;0.4990;1.3998;
-119.4000;0.4990;1.3998;
-119.1000;0.5006;1.3974;
-118.8000;0.5006;1.3950;
-118.5000;0.4990;1.3927;
-118.2000;0.4998;1.3974;
-117.9000;0.5006;1.4022;
-117.6000;0.4982;1.3974;
-117.3000;0.4982;1.3998;
-117.0000;0.4990;1.3974;
-116.7000;0.4990;1.3974;
-116.4000;0.4990;1.4045;
-116.1000;0.4998;1.4069;
-115.8000;0.4982;1.3974;
-115.5000;0.5006;1.4022;
-115.2000;0.4990;1.3998;
-114.9000;0.5022;1.4022;
-114.6000;0.5006;1.3855;
-114.3000;0.5006;1.3855;
-114.0000;0.5006;1.3832;
-113.7000;0.4998;1.3855;
-113.4000;0.5031;1.3950;
-113.1000;0.5031;1.3879;
-112.8000;0.4998;1.3784;
-112.5000;0.4974;1.3689;
-112.2000;0.5006;1.3761;
-111.9000;0.5006;1.3666;
-111.6000;0.5006;1.3642;
-111.3000;0.5006;1.3689;
-111.0000;0.4990;1.3713;
-110.7000;0.4998;1.3737;
-110.4000;0.5014;1.3737;
-110.1000;0.4990;1.3642;
-109.8000;0.4990;1.3737;
-109.5000;0.4998;1.3689;
-109.2000;0.5006;1.3713;
-108.9000;0.4998;1.3761;
-108.6000;0.4990;1.3808;
-108.3000;0.5006;1.3879;
-108.0000;0.4990;1.3737;
-107.7000;0.5031;1.3832;
-107.4000;0.4998;1.3808;
-107.1000;0.5014;1.3927;
-106.8000;0.5014;1.3998;
-106.5000;0.4908;1.3642;
-106.2000;0.4998;1.3808;
-105.9000;0.4998;1.3855;
-105.6000;0.5006;1.3855;
-105.3000;0.5014;1.3784;
-105.0000;0.5022;1.3879;
-104.7000;0.5006;1.3974;
-104.4000;0.5014;1.4045;
-104.1000;0.5022;1.3998;
-103.8000;0.4998;1.3927;
-103.5000;0.4982;1.3950;
-103.2000;0.4998;1.3950;
-102.9000;0.4998;1.3950;
-102.6000;0.4990;1.3903;
-102.3000;0.5006;1.3950;
-102.0000;0.4998;1.3927;
-101.7000;0.5047;1.3927;
-101.4000;0.5022;1.3879;
-101.1000;0.5006;1.3832;
-100.8000;0.4998;1.3879;
-100.5000;0.5014;1.3903;
-100.2000;0.5014;1.3903;
-99.9000;0.4998;1.3832;
-99.6000;0.5014;1.3950;
-99.3000;0.5022;1.3974;
-99.0000;0.5006;1.3950;
-98.7000;0.5014;1.3903;
-98.4000;0.4998;1.3832;
-98.1000;0.4974;1.3713;
-97.8000;0.5006;1.3974;
-97.5000;0.4990;1.4069;
-97.2000;0.5006;1.4069;
-96.9000;0.5031;1.4188;
-96.6000;0.4998;1.4069;
-96.3000;0.4990;1.3998;
-96.0000;0.5006;1.4022;
-95.7000;0.4990;1.3998;
-95.4000;0.5006;1.4069;
-95.1000;0.5006;1.4045;
-94.8000;0.4990;1.3998;
-94.5000;0.4982;1.4069;
-94.2000;0.5022;1.4140;
-93.9000;0.4998;1.4069;
-93.6000;0.4990;1.3998;
-93.3000;0.4990;1.3974;
-93.0000;0.4998;1.3927;
-92.7000;0.4941;1.3808;
-92.4000;0.4990;1.3950;
-92.1000;0.4990;1.3879;
-91.8000;0.5006;1.3808;
-91.5000;0.4990;1.3808;
-91.2000;0.4998;1.3879;
-90.9000;0.4965;1.3761;
-90.6000;0.4998;1.3903;
-90.3000;0.5006;1.3974;
-90.0000;0.5014;1.4045;
-89.7000;0.5014;1.4164;
-89.4000;0.4990;1.4140;
-89.1000;0.4998;1.4235;
-88.8000;0.5006;1.4188;
-88.5000;0.5006;1.4140;
-88.2000;0.4965;1.4022;
-87.9000;0.4892;1.3832;
-87.6000;0.4998;1.4069;
-87.3000;0.5006;1.4069;
-87.0000;0.4990;1.3998;
-86.7000;0.5006;1.3974;
-86.4000;0.5006;1.3879;
-86.1000;0.4998;1.3903;
-85.8000;0.5006;1.3927;
-85.5000;0.5014;1.3855;
-85.2000;0.4998;1.3903;
-84.9000;0.5014;1.3832;
-84.6000;0.4998;1.3832;
-84.3000;0.4990;1.3855;
-84.0000;0.5022;1.3927;
-83.7000;0.4998;1.3903;
-83.4000;0.4965;1.3855;
-83.1000;0.4990;1.3927;
-82.8000;0.4982;1.3927;
-82.5000;0.5014;1.4022;
-82.2000;0.4982;1.3998;
-81.9000;0.4998;1.4022;
-81.6000;0.4990;1.3950;
-81.3000;0.4990;1.3927;
-81.0000;0.5006;1.3998;
-80.7000;0.5006;1.3974;
-80.4000;0.5006;1.3998;
-80.1000;0.5014;1.3927;
-79.8000;0.5006;1.3927;
-79.5000;0.5006;1.3950;
-79.2000;0.5006;1.4022;
-78.9000;0.5014;1.4045;
-78.6000;0.4998;1.4045;
-78.3000;0.4998;1.4116;
-78.0000;0.4982;1.4093;
-77.7000;0.4998;1.4188;
-77.4000;0.4957;1.4069;
-77.1000;0.4998;1.4116;
-76.8000;0.5014;1.4116;
-76.5000;0.4998;1.4022;
-76.2000;0.4990;1.3998;
-75.9000;0.4982;1.3974;
-75.6000;0.4998;1.4093;
-75.3000;0.5006;1.4022;
-75.0000;0.5022;1.4022;
-74.7000;0.5006;1.3998;
-74.4000;0.4998;1.3950;
-74.1000;0.4998;1.3950;
-73.8000;0.5022;1.3927;
-73.5000;0.4998;1.3950;
-73.2000;0.4990;1.3950;
-72.9000;0.5006;1.3974;
-72.6000;0.4998;1.3903;
-72.3000;0.4949;1.3808;
-72.0000;0.4925;1.3784;
-71.7000;0.5079;1.4116;
-71.4000;0.4982;1.3950;
-71.1000;0.4982;1.3879;
-70.8000;0.4965;1.3737;
-70.5000;0.4982;1.3832;
-70.2000;0.4990;1.3855;
-69.9000;0.5014;1.3903;
-69.6000;0.5014;1.3855;
-69.3000;0.5006;1.3903;
-69.0000;0.4998;1.3855;
-68.7000;0.5039;1.3974;
-68.4000;0.5014;1.3879;
-68.1000;0.5014;1.3903;
-67.8000;0.5055;1.4093;
-67.5000;0.4982;1.3927;
-67.2000;0.4982;1.3974;
-66.9000;0.4941;1.3903;
-66.6000;0.4998;1.4116;
-66.3000;0.5071;1.4211;
-66.0000;0.5006;1.4069;
-65.7000;0.4998;1.4069;
-65.4000;0.4998;1.4093;
-65.1000;0.5006;1.4140;
-64.8000;0.4998;1.4093;
-64.5000;0.4990;1.4045;
-64.2000;0.4941;1.3950;
-63.9000;0.5006;1.4093;
-63.6000;0.4998;1.4069;
-63.3000;0.4974;1.3998;
-63.0000;0.4990;1.3998;
-62.7000;0.4974;1.3950;
-62.4000;0.4998;1.4022;
-62.1000;0.4998;1.4022;
-61.8000;0.4998;1.4022;
-61.5000;0.4998;1.3974;
-61.2000;0.4998;1.3927;
-60.9000;0.5006;1.3998;
-60.6000;0.4998;1.3950;
-60.3000;0.4990;1.3974;
-60.0000;0.5039;1.4045;
-59.7000;0.4998;1.3998;
-59.4000;0.4998;1.3974;
-59.1000;0.4990;1.3974;
-58.8000;0.5006;1.4069;
-58.5000;0.4998;1.4093;
-58.2000;0.4982;1.4022;
-57.9000;0.4965;1.3950;
-57.6000;0.4957;1.3998;
-57.3000;0.4998;1.4045;
-57.0000;0.5006;1.4069;
-56.7000;0.4998;1.4093;
-56.4000;0.4998;1.4164;
-56.1000;0.4990;1.4045;
-55.8000;0.4990;1.4022;
-55.5000;0.4974;1.4022;
-55.2000;0.4974;1.4022;
-54.9000;0.4998;1.3998;
-54.6000;0.4982;1.3974;
-54.3000;0.5006;1.4069;
-54.0000;0.4998;1.4069;
-53.7000;0.5006;1.4164;
-53.4000;0.5112;1.4425;
-53.1000;0.4990;1.4116;
-52.8000;0.4990;1.4069;
-52.5000;0.4998;1.4022;
-52.2000;0.5006;1.3998;
-51.9000;0.5006;1.3998;
-51.6000;0.4900;1.3761;
-51.3000;0.4884;1.3737;
-51.0000;0.5014;1.4093;
-50.7000;0.5096;1.4330;
-50.4000;0.4982;1.4069;
-50.1000;0.4990;1.4116;
-49.8000;0.5022;1.4093;
-49.5000;0.4957;1.3927;
-49.2000;0.5006;1.4022;
-48.9000;0.4982;1.3998;
-48.6000;0.5047;1.4140;
-48.3000;0.5014;1.4093;
-48.0000;0.4990;1.3998;
-47.7000;0.5006;1.4022;
-47.4000;0.4998;1.3950;
-47.1000;0.4998;1.3974;
-46.8000;0.4974;1.3879;
-46.5000;0.5014;1.3974;
-46.2000;0.5039;1.3998;
-45.9000;0.4965;1.3808;
-45.6000;0.4998;1.4022;
-45.3000;0.5006;1.4045;
-45.0000;0.4965;1.3927;
-44.7000;0.4990;1.3998;
-44.4000;0.4990;1.3950;
-44.1000;0.4998;1.4022;
-43.8000;0.5039;1.4140;
-43.5000;0.5006;1.4022;
-43.2000;0.5006;1.3974;
-42.9000;0.4998;1.3974;
-42.6000;0.4974;1.3927;
-42.3000;0.5014;1.4045;
-42.0000;0.4990;1.3998;
-41.7000;0.4982;1.4045;
-41.4000;0.5047;1.4235;
-41.1000;0.5006;1.4045;
-40.8000;0.4982;1.3998;
-40.5000;0.5063;1.4045;
-40.2000;0.4982;1.3832;
-39.9000;0.4982;1.3808;
-39.6000;0.4998;1.3903;
-39.3000;0.4990;1.3879;
-39.0000;0.5006;1.3903;
-38.7000;0.4998;1.3832;
-38.4000;0.4933;1.3642;
-38.1000;0.4998;1.3784;
-37.8000;0.4990;1.3761;
-37.5000;0.4998;1.3927;
-37.2000;0.4990;1.3950;
-36.9000;0.4982;1.3974;
-36.6000;0.5006;1.3998;
-36.3000;0.4957;1.3903;
-36.0000;0.4998;1.3950;
-35.7000;0.5022;1.4022;
-35.4000;0.4998;1.3974;
-35.1000;0.4998;1.3927;
-34.8000;0.4965;1.3879;
-34.5000;0.5006;1.4069;
-34.2000;0.5006;1.4069;
-33.9000;0.5063;1.4140;
-33.6000;0.4990;1.3903;
-33.3000;0.5031;1.3927;
-33.0000;0.4998;1.3808;
-32.7000;0.4990;1.3737;
-32.4000;0.4998;1.3761;
-32.1000;0.5006;1.3879;
-31.8000;0.5014;1.3855;
-31.5000;0.5006;1.3832;
-31.2000;0.5063;1.4045;
-30.9000;0.5014;1.3950;
-30.6000;0.4998;1.3950;
-30.3000;0.5079;1.4188;
-30.0000;0.4965;1.3950;
-29.7000;0.4998;1.3974;
-29.4000;0.4990;1.3903;
-29.1000;0.4965;1.3879;
-28.8000;0.4998;1.3879;
-28.5000;0.4998;1.3832;
-28.2000;0.4974;1.3832;
-27.9000;0.4974;1.3903;
-27.6000;0.4990;1.3879;
-27.3000;0.5055;1.3998;
-27.0000;0.4998;1.3927;
-26.7000;0.5014;1.3998;
-26.4000;0.4982;1.3927;
-26.1000;0.4998;1.3950;
-25.8000;0.4998;1.3927;
-25.5000;0.4990;1.3855;
-25.2000;0.4990;1.3903;
-24.9000;0.5022;1.3950;
-24.6000;0.4998;1.3974;
-24.3000;0.5063;1.4188;
-24.0000;0.5063;1.4235;
-23.7000;0.4998;1.4140;
-23.4000;0.4990;1.4188;
-23.1000;0.4982;1.4164;
-22.8000;0.4982;1.4116;
-22.5000;0.5006;1.4164;
-22.2000;0.4990;1.4045;
-21.9000;0.4998;1.4022;
-21.6000;0.4998;1.4069;
-21.3000;0.4990;1.4022;
-21.0000;0.4990;1.4022;
-20.7000;0.5006;1.4140;
-20.4000;0.5014;1.4140;
-20.1000;0.5006;1.4045;
-19.8000;0.5014;1.4093;
-19.5000;0.4998;1.4140;
-19.2000;0.5006;1.4093;
-18.9000;0.4990;1.4069;
-18.6000;0.4998;1.3974;
-18.3000;0.4998;1.3974;
-18.0000;0.4998;1.4045;
-17.7000;0.5014;1.4069;
-17.4000;0.4990;1.4022;
-17.1000;0.5022;1.4022;
-16.8000;0.5006;1.3927;
-16.5000;0.4998;1.3974;
-16.2000;0.4998;1.3879;
-15.9000;0.4982;1.3784;
-15.6000;0.5006;1.3832;
-15.3000;0.4941;1.3761;
-15.0000;0.4982;1.3950;
-14.7000;0.4998;1.4069;
-14.4000;0.4998;1.4069;
-14.1000;0.5031;1.4164;
-13.8000;0.4990;1.4140;
-13.5000;0.4990;1.4188;
-13.2000;0.5006;1.4235;
-12.9000;0.4982;1.4235;
-12.6000;0.4982;1.4164;
-12.3000;0.4990;1.4164;
-12.0000;0.4974;1.4164;
-11.7000;0.5006;1.4306;
-11.4000;0.4990;1.4188;
-11.1000;0.5006;1.4259;
-10.8000;0.4974;1.4188;
-10.5000;0.4974;1.4140;
-10.2000;0.5014;1.4211;
-9.9000;0.4990;1.4116;
-9.6000;0.4908;1.3903;
-9.3000;0.5006;1.4188;
-9.0000;0.4990;1.4140;
-8.7000;0.4990;1.3998;
-8.4000;0.4974;1.3903;
-8.1000;0.4998;1.3950;
-7.8000;0.4982;1.3903;
-7.5000;0.4982;1.3855;
-7.2000;0.4998;1.3832;
-6.9000;0.4998;1.3832;
-6.6000;0.5006;1.3903;
-6.3000;0.4949;1.3761;
-6.0000;0.5006;1.3974;
-5.7000;0.5006;1.3974;
-5.4000;0.5006;1.4045;
-5.1000;0.5006;1.4022;
-4.8000;0.4998;1.4045;
-4.5000;0.5006;1.3998;
-4.2000;0.4998;1.4045;
-3.9000;0.4998;1.3974;
-3.6000;0.4998;1.3903;
-3.3000;0.4998;1.3998;
-3.0000;0.4998;1.3998;
-2.7000;0.5006;1.3998;
-2.4000;0.4998;1.3855;
-2.1000;0.5006;1.3879;
-1.8000;0.4990;1.3879;
-1.5000;0.4998;1.3903;
-1.2000;0.5014;1.3950;
-0.9000;0.4998;1.3879;
-0.6000;0.4982;1.3784;
-0.3000;0.4957;1.3808;
0.0000;0.4957;1.3808;
0.3000;0.5096;1.3927;
0.6000;0.5291;1.4164;
0.9000;0.5446;1.4401;
1.2000;0.5568;1.4543;
1.5000;0.5657;1.4733;
1.8000;0.5731;1.4804;
2.1000;0.5796;1.4923;
2.4000;0.5845;1.5042;
2.7000;0.5910;1.5232;
3.0000;0.5975;1.5540;
3.3000;0.5967;1.5540;
3.6000;0.6007;1.5635;
3.9000;0.6015;1.5540;
4.2000;0.6048;1.5659;
4.5000;0.6089;1.5777;
4.8000;0.6081;1.5825;
5.1000;0.6089;1.5825;
5.4000;0.6162;1.5991;
5.7000;0.6146;1.5967;
6.0000;0.6178;1.6014;
6.3000;0.6186;1.5872;
6.6000;0.6203;1.6014;
6.9000;0.6219;1.6157;
7.2000;0.6219;1.6204;
7.5000;0.6252;1.6133;
7.8000;0.6252;1.6109;
8.1000;0.6227;1.5943;
8.4000;0.6276;1.6038;
8.7000;0.6325;1.6181;
9.0000;0.6317;1.6086;
9.3000;0.6300;1.6086;
9.6000;0.6325;1.6133;
9.9000;0.6349;1.6014;
10.2000;0.6349;1.6014;
10.5000;0.6317;1.5967;
10.8000;0.6341;1.6086;
11.1000;0.6357;1.6086;
11.4000;0.6365;1.6228;
11.7000;0.6382;1.6228;
12.0000;0.6365;1.6181;
12.3000;0.6398;1.6204;
12.6000;0.6398;1.6228;
12.9000;0.6398;1.6181;
13.2000;0.6463;1.6275;
13.5000;0.6439;1.6157;
13.8000;0.6447;1.6133;
14.1000;0.6455;1.6086;
14.4000;0.6447;1.6062;
14.7000;0.6455;1.6038;
15.0000;0.6504;1.6204;
15.3000;0.6471;1.6204;
15.6000;0.6471;1.6204;
15.9000;0.6447;1.6299;
16.2000;0.6496;1.6370;
16.5000;0.6504;1.6299;
16.8000;0.6447;1.6133;
17.1000;0.6528;1.6299;
17.4000;0.6577;1.6465;
17.7000;0.6512;1.6275;
18.0000;0.6528;1.6275;
18.3000;0.6520;1.6204;
18.6000;0.6520;1.6157;
18.9000;0.6528;1.6181;
19.2000;0.6528;1.6299;
19.5000;0.6520;1.6299;
19.8000;0.6577;1.6465;
20.1000;0.6585;1.6418;
20.4000;0.6536;1.6323;
20.7000;0.6553;1.6252;
21.0000;0.6561;1.6204;
21.3000;0.6561;1.6157;
21.6000;0.6569;1.6062;
21.9000;0.6561;1.6062;
22.2000;0.6610;1.6133;
22.5000;0.6561;1.6014;
22.8000;0.6553;1.6038;
23.1000;0.6561;1.6133;
23.4000;0.6561;1.6157;
23.7000;0.6553;1.6181;
24.0000;0.6577;1.6204;
24.3000;0.6602;1.6204;
24.6000;0.6553;1.6181;
24.9000;0.6528;1.6062;
25.2000;0.6577;1.6228;
25.5000;0.6585;1.6204;
25.8000;0.6561;1.6133;
26.1000;0.6585;1.6181;
26.4000;0.6577;1.6181;
26.7000;0.6593;1.6228;
27.0000;0.6602;1.6323;
27.3000;0.6602;1.6323;
27.6000;0.6626;1.6347;
27.9000;0.6618;1.6323;
28.2000;0.6545;1.6181;
28.5000;0.6602;1.6252;
28.8000;0.6618;1.6252;
29.1000;0.6618;1.6252;
29.4000;0.6593;1.6181;
29.7000;0.6618;1.6228;
30.0000;0.6610;1.6275;
30.3000;0.6618;1.6252;
30.6000;0.6626;1.6252;
30.9000;0.6626;1.6228;
31.2000;0.6634;1.6228;
31.5000;0.6642;1.6181;
31.8000;0.6610;1.6133;
32.1000;0.6585;1.6109;
32.4000;0.6691;1.6323;
32.7000;0.6610;1.6038;
33.0000;0.6634;1.6133;
33.3000;0.6610;1.6109;
33.6000;0.6634;1.6086;
33.9000;0.6626;1.6086;
34.2000;0.6618;1.6086;
34.5000;0.6634;1.6133;
34.8000;0.6626;1.6086;
35.1000;0.6626;1.6038;
35.4000;0.6642;1.6157;
35.7000;0.6585;1.5967;
36.0000;0.6626;1.6062;
36.3000;0.6659;1.6133;
36.6000;0.6650;1.6062;
36.9000;0.6642;1.6038;
37.2000;0.6634;1.5967;
37.5000;0.6618;1.5920;
37.8000;0.6634;1.5943;
38.1000;0.6634;1.5967;
38.4000;0.6642;1.5967;
38.7000;0.6634;1.5943;
39.0000;0.6683;1.6157;
39.3000;0.6634;1.6086;
39.6000;0.6618;1.6062;
39.9000;0.6634;1.6109;
40.2000;0.6699;1.6275;
40.5000;0.6618;1.6157;
40.8000;0.6634;1.6204;
41.1000;0.6642;1.6275;
41.4000;0.6634;1.6204;
41.7000;0.6634;1.6252;
42.0000;0.6634;1.6252;
42.3000;0.6699;1.6370;
42.6000;0.6610;1.6157;
42.9000;0.6659;1.6275;
43.2000;0.6650;1.6204;
43.5000;0.6642;1.6157;
43.8000;0.6683;1.6228;
44.1000;0.6659;1.6133;
44.4000;0.6675;1.6204;
44.7000;0.6667;1.6252;
45.0000;0.6650;1.6299;
45.3000;0.6650;1.6252;
45.6000;0.6642;1.6228;
45.9000;0.6667;1.6275;
46.2000;0.6667;1.6252;
46.5000;0.6642;1.6228;
46.8000;0.6626;1.6133;
47.1000;0.6650;1.6157;
47.4000;0.6659;1.6204;
47.7000;0.6667;1.6228;
48.0000;0.6667;1.6228;
48.3000;0.6675;1.6252;
48.6000;0.6650;1.6228;
48.9000;0.6610;1.6133;
49.2000;0.6667;1.6181;
49.5000;0.6642;1.6086;
49.8000;0.6634;1.6086;
50.1000;0.6748;1.6275;
50.4000;0.6667;1.6038;
50.7000;0.6650;1.5991;
51.0000;0.6659;1.6038;
51.3000;0.6634;1.5896;
51.6000;0.6569;1.5730;
51.9000;0.6659;1.5896;
52.2000;0.6667;1.5943;
52.5000;0.6683;1.6014;
52.8000;0.6650;1.5967;
53.1000;0.6659;1.5991;
53.4000;0.6667;1.6014;
53.7000;0.6667;1.5967;
54.0000;0.6667;1.5991;
54.3000;0.6585;1.5872;
54.6000;0.6642;1.6062;
54.9000;0.6650;1.6014;
55.2000;0.6675;1.6086;
55.5000;0.6667;1.5991;
55.8000;0.6675;1.6014;
56.1000;0.6667;1.5920;
56.4000;0.6659;1.5848;
56.7000;0.6667;1.5896;
57.0000;0.6667;1.5967;
57.3000;0.6667;1.5920;
57.6000;0.6691;1.5920;
57.9000;0.6667;1.5872;
58.2000;0.6659;1.5777;
58.5000;0.6642;1.5777;
58.8000;0.6675;1.5920;
59.1000;0.6675;1.5991;
59.4000;0.6659;1.6109;
59.7000;0.6675;1.6252;
60.0000;0.6659;1.6181;
60.3000;0.6683;1.6181;
60.6000;0.6675;1.6204;
60.9000;0.6691;1.6228;
61.2000;0.6691;1.6299;
61.5000;0.6675;1.6323;
61.8000;0.6699;1.6347;
62.1000;0.6683;1.6323;
62.4000;0.6691;1.6347;
62.7000;0.6618;1.6181;
63.0000;0.6691;1.6394;
63.3000;0.6691;1.6394;
63.6000;0.6691;1.6394;
63.9000;0.6683;1.6370;
64.2000;0.6667;1.6275;
64.5000;0.6691;1.6323;
64.8000;0.6716;1.6347;
65.1000;0.6748;1.6370;
65.4000;0.6732;1.6299;
65.7000;0.6683;1.6181;
66.0000;0.6699;1.6204;
66.3000;0.6667;1.6109;
66.6000;0.6724;1.6157;
66.9000;0.6683;1.6086;
67.2000;0.6667;1.6038;
67.5000;0.6667;1.6133;
67.8000;0.6626;1.6014;
68.1000;0.6650;1.6014;
68.4000;0.6683;1.6109;
68.7000;0.6667;1.6014;
69.0000;0.6691;1.6038;
69.3000;0.6634;1.5872;
69.6000;0.6699;1.6086;
69.9000;0.6699;1.6038;
70.2000;0.6675;1.5920;
70.5000;0.6683;1.5943;
70.8000;0.6691;1.5967;
71.1000;0.6683;1.6014;
71.4000;0.6675;1.6014;
71.7000;0.6675;1.5967;
72.0000;0.6683;1.5991;
72.3000;0.6724;1.6109;
72.6000;0.6675;1.6038;
72.9000;0.6675;1.6062;
73.2000;0.6675;1.6109;
73.5000;0.6691;1.6157;
73.8000;0.6683;1.6204;
74.1000;0.6675;1.6133;
74.4000;0.6691;1.6204;
74.7000;0.6699;1.6275;
75.0000;0.6699;1.6181;
75.3000;0.6691;1.6062;
75.6000;0.6691;1.6038;
75.9000;0.6699;1.6014;
76.2000;0.6707;1.6157;
76.5000;0.6683;1.6133;
76.8000;0.6675;1.6133;
77.1000;0.6707;1.6204;
77.4000;0.6699;1.6109;
77.7000;0.6699;1.6133;
78.0000;0.6691;1.6133;
78.3000;0.6699;1.6228;
78.6000;0.6675;1.6228;
78.9000;0.6691;1.6323;
79.2000;0.6675;1.6299;
79.5000;0.6683;1.6252;
79.8000;0.6699;1.6275;
80.1000;0.6699;1.6275;
80.4000;0.6691;1.6228;
80.7000;0.6691;1.6252;
81.0000;0.6707;1.6228;
81.3000;0.6683;1.6252;
81.6000;0.6667;1.6252;
81.9000;0.6675;1.6275;
82.2000;0.6691;1.6299;
82.5000;0.6707;1.6347;
82.8000;0.6667;1.6252;
83.1000;0.6675;1.6204;
83.4000;0.6675;1.6228;
83.7000;0.6667;1.6133;
84.0000;0.6675;1.6228;
84.3000;0.6675;1.6252;
84.6000;0.6707;1.6323;
84.9000;0.6691;1.6275;
85.2000;0.6675;1.6252;
85.5000;0.6675;1.6204;
85.8000;0.6667;1.6133;
86.1000;0.6707;1.6062;
86.4000;0.6683;1.5967;
86.7000;0.6691;1.5967;
87.0000;0.6610;1.5777;
87.3000;0.6699;1.6109;
87.6000;0.6675;1.6157;
87.9000;0.6691;1.6204;
88.2000;0.6667;1.6038;
88.5000;0.6764;1.6252;
88.8000;0.6724;1.6157;
89.1000;0.6699;1.6109;
89.4000;0.6683;1.6181;
89.7000;0.6707;1.6252;
90.0000;0.6756;1.6418;
90.3000;0.6756;1.6323;
90.6000;0.6691;1.6228;
90.9000;0.6748;1.6347;
91.2000;0.6699;1.6252;
91.5000;0.6732;1.6252;
91.8000;0.6699;1.6228;
92.1000;0.6707;1.6133;
92.4000;0.6691;1.6133;
92.7000;0.6699;1.6133;
93.0000;0.6699;1.6181;
93.3000;0.6691;1.6204;
93.6000;0.6691;1.6252;
93.9000;0.6675;1.6347;
94.2000;0.6691;1.6323;
94.5000;0.6675;1.6228;
94.8000;0.6691;1.6204;
95.1000;0.6683;1.6133;
95.4000;0.6675;1.6062;
95.7000;0.6683;1.6062;
96.0000;0.6691;1.6062;
96.3000;0.6667;1.6038;
96.6000;0.6683;1.6086;
96.9000;0.6691;1.6109;
97.2000;0.6707;1.6062;
97.5000;0.6699;1.6038;
97.8000;0.6707;1.6133;
98.1000;0.6675;1.6062;
98.4000;0.6683;1.6086;
98.7000;0.6699;1.6062;
99.0000;0.6667;1.6014;
99.3000;0.6699;1.6086;
99.6000;0.6667;1.6109;
99.9000;0.6716;1.6133;
100.2000;0.6707;1.6086;
100.5000;0.6675;1.5991;
100.8000;0.6707;1.6157;
101.1000;0.6691;1.6275;
101.4000;0.6659;1.6252;
101.7000;0.6740;1.6465;
102.0000;0.6707;1.6347;
102.3000;0.6691;1.6299;
102.6000;0.6756;1.6513;
102.9000;0.6707;1.6394;
103.2000;0.6691;1.6370;
103.5000;0.6699;1.6252;
103.8000;0.6699;1.6252;
104.1000;0.6650;1.6181;
104.4000;0.6675;1.6275;
104.7000;0.6699;1.6252;
105.0000;0.6707;1.6252;
105.3000;0.6707;1.6275;
105.6000;0.6748;1.6370;
105.9000;0.6683;1.6133;
106.2000;0.6683;1.6157;
106.5000;0.6675;1.6157;
106.8000;0.6683;1.6204;
107.1000;0.6659;1.6204;
107.4000;0.6683;1.6275;
107.7000;0.6667;1.6181;
108.0000;0.6683;1.6157;
108.3000;0.6691;1.6204;
108.6000;0.6707;1.6228;
108.9000;0.6691;1.6181;
109.2000;0.6691;1.6109;
109.5000;0.6707;1.6228;
109.8000;0.6691;1.6181;
110.1000;0.6716;1.6157;
110.4000;0.6716;1.6181;
110.7000;0.6699;1.6252;
111.0000;0.6707;1.6204;
111.3000;0.6724;1.6228;
111.6000;0.6691;1.6228;
111.9000;0.6691;1.6157;
112.2000;0.6683;1.6086;
112.5000;0.6699;1.6109;
112.8000;0.6699;1.6109;
113.1000;0.6740;1.6133;
113.4000;0.6593;1.5777;
113.7000;0.6683;1.5991;
114.0000;0.6683;1.5943;
114.3000;0.6683;1.5991;
114.6000;0.6683;1.5991;
114.9000;0.6699;1.5943;
115.2000;0.6699;1.5896;
115.5000;0.6699;1.5967;
115.8000;0.6691;1.5920;
116.1000;0.6691;1.5896;
116.4000;0.6683;1.5825;
116.7000;0.6699;1.5896;
117.0000;0.6683;1.5991;
117.3000;0.6764;1.6275;
117.6000;0.6699;1.6014;
117.9000;0.6675;1.5991;
118.2000;0.6691;1.5967;
118.5000;0.6691;1.6062;
118.8000;0.6691;1.6133;
119.1000;0.6675;1.6133;
119.4000;0.6691;1.6181;
119.7000;0.6691;1.6181;
120.0000;0.6675;1.6133;
120.3000;0.6667;1.6181;
120.6000;0.6683;1.6275;
120.9000;0.6683;1.6275;
121.2000;0.6699;1.6181;
121.5000;0.6691;1.6109;
121.8000;0.6699;1.6062;
122.1000;0.6716;1.6133;
122.4000;0.6667;1.6014;
122.7000;0.6707;1.6062;
123.0000;0.6699;1.6086;
123.3000;0.6699;1.6133;
123.6000;0.6675;1.6133;
123.9000;0.6683;1.6323;
124.2000;0.6707;1.6347;
124.5000;0.6691;1.6323;
124.8000;0.6691;1.6252;
125.1000;0.6699;1.6181;
125.4000;0.6683;1.6133;
125.7000;0.6707;1.6181;
126.0000;0.6691;1.6062;
126.3000;0.6683;1.6014;
126.6000;0.6732;1.6109;
126.9000;0.6683;1.5991;
127.2000;0.6675;1.5896;
127.5000;0.6667;1.5896;
127.8000;0.6748;1.6038;
128.1000;0.6699;1.5896;
128.4000;0.6683;1.5896;
128.7000;0.6683;1.5920;
129.0000;0.6691;1.5943;
129.3000;0.6675;1.5943;
129.6000;0.6683;1.6038;
129.9000;0.6650;1.6038;
130.2000;0.6683;1.6181;
130.5000;0.6683;1.6157;
130.8000;0.6691;1.6157;
131.1000;0.6667;1.6109;
131.4000;0.6667;1.6157;
131.7000;0.6789;1.6442;
132.0000;0.6691;1.6109;
132.3000;0.6699;1.6014;
132.6000;0.6699;1.5943;
132.9000;0.6707;1.6038;
133.2000;0.6699;1.6014;
133.5000;0.6699;1.6038;
133.8000;0.6691;1.6086;
134.1000;0.6667;1.6109;
134.4000;0.6699;1.6086;
134.7000;0.6797;1.6347;
135.0000;0.6707;1.6228;
135.3000;0.6707;1.6228;
135.6000;0.6683;1.6204;
135.9000;0.6716;1.6228;
136.2000;0.6691;1.6133;
136.5000;0.6699;1.6181;
136.8000;0.6707;1.6228;
137.1000;0.6699;1.6323;
137.4000;0.6699;1.6228;
137.7000;0.6667;1.6181;
138.0000;0.6683;1.6204;
138.3000;0.6691;1.6252;
138.6000;0.6675;1.6204;
138.9000;0.6716;1.6252;
139.2000;0.6691;1.6157;
139.5000;0.6683;1.6086;
139.8000;0.6650;1.5896;
140.1000;0.6667;1.5896;
140.4000;0.6683;1.5943;
140.7000;0.6683;1.5896;
141.0000;0.6716;1.5872;
141.3000;0.6659;1.5801;
141.6000;0.6699;1.5967;
141.9000;0.6683;1.5991;
142.2000;0.6691;1.5991;
142.5000;0.6683;1.5943;
142.8000;0.6683;1.5967;
143.1000;0.6691;1.5991;
143.4000;0.6699;1.6014;
143.7000;0.6675;1.5872;
144.0000;0.6764;1.6014;
144.3000;0.6699;1.5777;
144.6000;0.6699;1.5777;
144.9000;0.6699;1.5777;
145.2000;0.6675;1.5730;
145.5000;0.6683;1.5872;
145.8000;0.6707;1.5967;
146.1000;0.6699;1.5967;
146.4000;0.6691;1.6014;
146.7000;0.6699;1.5991;
147.0000;0.6667;1.5753;
147.3000;0.6699;1.5825;
147.6000;0.6699;1.5848;
147.9000;0.6683;1.5848;
148.2000;0.6683;1.5801;
148.5000;0.6764;1.6014;
148.8000;0.6699;1.5896;
149.1000;0.6675;1.5967;
149.4000;0.6691;1.6014;
149.7000;0.6707;1.5991;
150.0000;0.6691;1.5872;
150.3000;0.6699;1.5943;
150.6000;0.6683;1.5943;
150.9000;0.6675;1.5967;
151.2000;0.6691;1.5967;
151.5000;0.6683;1.5967;
151.8000;0.6699;1.6038;
152.1000;0.6683;1.5991;
152.4000;0.6699;1.5991;
152.7000;0.6675;1.6086;
153.0000;0.6675;1.6109;
153.3000;0.6683;1.6204;
153.6000;0.6691;1.6323;
153.9000;0.6667;1.6204;
154.2000;0.6667;1.6109;
154.5000;0.6691;1.6133;
154.8000;0.6707;1.6157;
155.1000;0.6683;1.6038;
155.4000;0.6667;1.6038;
155.7000;0.6732;1.6133;
156.0000;0.6691;1.5991;
156.3000;0.6683;1.5920;
156.6000;0.6659;1.5801;
156.9000;0.6659;1.5706;
157.2000;0.6724;1.5943;
157.5000;0.6748;1.6062;
157.8000;0.6626;1.5659;
158.1000;0.6650;1.5682;
158.4000;0.6724;1.5848;
158.7000;0.6707;1.5801;
159.0000;0.6699;1.5730;
159.3000;0.6691;1.5659;
159.6000;0.6732;1.5777;
159.9000;0.6699;1.5706;
160.2000;0.6699;1.5706;
160.5000;0.6659;1.5753;
160.8000;0.6724;1.5943;
161.1000;0.6691;1.5801;
161.4000;0.6699;1.5801;
161.7000;0.6683;1.5801;
162.0000;0.6667;1.5777;
162.3000;0.6691;1.5920;
162.6000;0.6675;1.6014;
162.9000;0.6683;1.5967;
163.2000;0.6659;1.5991;
163.5000;0.6691;1.6014;
163.8000;0.6748;1.6086;
164.1000;0.6675;1.5825;
164.4000;0.6675;1.5825;
164.7000;0.6707;1.5848;
165.0000;0.6675;1.5777;
165.3000;0.6683;1.5753;
165.6000;0.6691;1.5825;
165.9000;0.6691;1.5896;
166.2000;0.6691;1.5872;
166.5000;0.6699;1.5825;
166.8000;0.6683;1.5825;
167.1000;0.6675;1.5848;
167.4000;0.6699;1.5920;
167.7000;0.6683;1.5825;
168.0000;0.6667;1.5777;
168.3000;0.6716;1.5896;
168.6000;0.6675;1.5848;
168.9000;0.6699;1.5825;
169.2000;0.6675;1.5682;
169.5000;0.6699;1.5753;
169.8000;0.6699;1.5659;
170.1000;0.6699;1.5682;
170.4000;0.6626;1.5635;
170.7000;0.6699;1.5896;
171.0000;0.6683;1.5920;
171.3000;0.6691;1.5896;
171.6000;0.6683;1.5801;
171.9000;0.6675;1.5777;
172.2000;0.6683;1.5753;
172.5000;0.6650;1.5706;
172.8000;0.6724;1.5825;
173.1000;0.6675;1.5730;
173.4000;0.6683;1.5801;
173.7000;0.6699;1.5896;
174.0000;0.6667;1.5920;
174.3000;0.6683;1.5967;
174.6000;0.6683;1.5848;
174.9000;0.6683;1.5730;
175.2000;0.6683;1.5801;
175.5000;0.6707;1.5872;
175.8000;0.6716;1.5801;
176.1000;0.6699;1.5801;
176.4000;0.6683;1.5872;
176.7000;0.6691;1.5872;
177.0000;0.6683;1.5848;
177.3000;0.6683;1.5896;
177.6000;0.6683;1.5920;
177.9000;0.6691;1.5967;
178.2000;0.6642;1.5943;
178.5000;0.6675;1.5991;
178.8000;0.6667;1.5896;
179.1000;0.6675;1.5967;
179.4000;0.6683;1.5991;
179.7000;0.6691;1.5991;
180.0000;0.6699;1.5777;
180.3000;0.6699;1.5801;
180.6000;0.6642;1.5587;
180.9000;0.6602;1.5540;
181.2000;0.6675;1.5682;
181.5000;0.6691;1.5706;
181.8000;0.6650;1.5587;
182.1000;0.6707;1.5682;
182.4000;0.6699;1.5753;
182.7000;0.6667;1.5730;
183.0000;0.6732;1.5920;
183.3000;0.6675;1.5777;
183.6000;0.6675;1.5753;
183.9000;0.6716;1.5801;
184.2000;0.6683;1.5730;
184.5000;0.6675;1.5753;
184.8000;0.6691;1.5777;
185.1000;0.6699;1.5777;
185.4000;0.6683;1.5777;
185.7000;0.6675;1.5848;
186.0000;0.6748;1.5943;
186.3000;0.6691;1.5825;
186.6000;0.6675;1.5801;
186.9000;0.6675;1.5753;
187.2000;0.6667;1.5682;
187.5000;0.6667;1.5611;
187.8000;0.6691;1.5611;
188.1000;0.6675;1.5682;
188.4000;0.6683;1.5635;
188.7000;0.6683;1.5564;
189.0000;0.6683;1.5635;
189.3000;0.6675;1.5777;
189.6000;0.6667;1.5730;
189.9000;0.6683;1.5730;
190.2000;0.6667;1.5730;
190.5000;0.6667;1.5706;
190.8000;0.6683;1.5730;
191.1000;0.6675;1.5682;
191.4000;0.6683;1.5706;
191.7000;0.6683;1.5706;
192.0000;0.6667;1.5706;
192.3000;0.6659;1.5587;
192.6000;0.6724;1.5730;
192.9000;0.6683;1.5635;
193.2000;0.6691;1.5611;
193.5000;0.6756;1.5825;
193.8000;0.6683;1.5564;
194.1000;0.6699;1.5564;
194.4000;0.6683;1.5587;
194.7000;0.6667;1.5421;
195.0000;0.6683;1.5445;
195.3000;0.6683;1.5445;
195.6000;0.6691;1.5540;
195.9000;0.6667;1.5469;
196.2000;0.6675;1.5540;
196.5000;0.6659;1.5516;
196.8000;0.6618;1.5492;
197.1000;0.6667;1.5564;
197.4000;0.6650;1.5564;
197.7000;0.6634;1.5492;
198.0000;0.6675;1.5492;
198.3000;0.6675;1.5540;
198.6000;0.6610;1.5421;
198.9000;0.6659;1.5635;
199.2000;0.6683;1.5706;
199.5000;0.6699;1.5777;
199.8000;0.6724;1.5777;
200.1000;0.6707;1.5753;
200.4000;0.6691;1.5730;
200.7000;0.6683;1.5659;
201.0000;0.6683;1.5587;
201.3000;0.6691;1.5564;
201.6000;0.6707;1.5635;
201.9000;0.6650;1.5492;
202.2000;0.6675;1.5564;
202.5000;0.6683;1.5587;
202.8000;0.6683;1.5682;
203.1000;0.6683;1.5730;
203.4000;0.6683;1.5706;
203.7000;0.6675;1.5706;
204.0000;0.6667;1.5682;
204.3000;0.6683;1.5706;
204.6000;0.6667;1.5635;
204.9000;0.6610;1.5398;
205.2000;0.6699;1.5659;
205.5000;0.6683;1.5587;
205.8000;0.6642;1.5516;
206.1000;0.6691;1.5564;
206.4000;0.6691;1.5611;
206.7000;0.6699;1.5682;
207.0000;0.6675;1.5706;
207.3000;0.6683;1.5753;
207.6000;0.6707;1.5753;
207.9000;0.6675;1.5682;
208.2000;0.6675;1.5659;
208.5000;0.6659;1.5587;
208.8000;0.6675;1.5635;
209.1000;0.6675;1.5635;
209.4000;0.6675;1.5635;
209.7000;0.6675;1.5635;
210.0000;0.6667;1.5540;
210.3000;0.6683;1.5492;
210.6000;0.6683;1.5492;
210.9000;0.6683;1.5564;
211.2000;0.6675;1.5611;
211.5000;0.6667;1.5682;
211.8000;0.6675;1.5777;
212.1000;0.6675;1.5777;
212.4000;0.6667;1.5777;
212.7000;0.6667;1.5777;
213.0000;0.6675;1.5801;
213.3000;0.6675;1.5777;
213.6000;0.6667;1.5682;
213.9000;0.6691;1.5587;
214.2000;0.6707;1.5682;
214.5000;0.6675;1.5730;
214.8000;0.6683;1.5920;
215.1000;0.6675;1.5825;
215.4000;0.6675;1.5848;
215.7000;0.6675;1.5872;
216.0000;0.6667;1.5872;
216.3000;0.6667;1.5848;
216.6000;0.6707;1.5991;
216.9000;0.6675;1.5896;
217.2000;0.6675;1.5991;
217.5000;0.6634;1.5825;
217.8000;0.6667;1.5920;
218.1000;0.6675;1.5967;
218.4000;0.6683;1.5920;
218.7000;0.6683;1.5920;
219.0000;0.6667;1.5872;
219.3000;0.6667;1.5872;
219.6000;0.6667;1.5991;
219.9000;0.6659;1.5943;
220.2000;0.6667;1.5872;
220.5000;0.6691;1.5825;
220.8000;0.6659;1.5682;
221.1000;0.6634;1.5611;
221.4000;0.6667;1.5706;
221.7000;0.6585;1.5564;
222.0000;0.6659;1.5682;
222.3000;0.6675;1.5777;
222.6000;0.6683;1.5848;
222.9000;0.6675;1.5777;
223.2000;0.6667;1.5801;
223.5000;0.6667;1.5801;
223.8000;0.6675;1.5801;
224.1000;0.6675;1.5777;
224.4000;0.6675;1.5896;
224.7000;0.6675;1.5872;
225.0000;0.6683;1.5848;
225.3000;0.6659;1.5848;
225.6000;0.6667;1.5825;
225.9000;0.6691;1.5848;
226.2000;0.6667;1.5753;
226.5000;0.6642;1.5706;
226.8000;0.6675;1.5848;
227.1000;0.6683;1.5943;
227.4000;0.6659;1.5825;
227.7000;0.6650;1.5825;
228.0000;0.6667;1.5777;
228.3000;0.6675;1.5777;
228.6000;0.6675;1.5825;
228.9000;0.6667;1.5777;
229.2000;0.6675;1.5706;
229.5000;0.6675;1.5753;
229.8000;0.6691;1.5801;
230.1000;0.6683;1.5801;
230.4000;0.6667;1.5730;
230.7000;0.6675;1.5777;
231.0000;0.6667;1.5825;
231.3000;0.6650;1.5753;
231.6000;0.6593;1.5540;
231.9000;0.6659;1.5730;
232.2000;0.6659;1.5777;
232.5000;0.6642;1.5801;
232.8000;0.6659;1.5825;
233.1000;0.6659;1.5872;
233.4000;0.6675;1.5872;
233.7000;0.6675;1.5872;
234.0000;0.6691;1.5896;
234.3000;0.6650;1.5753;
234.6000;0.6667;1.5825;
234.9000;0.6667;1.5801;
235.2000;0.6667;1.5848;
235.5000;0.6667;1.5896;
235.8000;0.6683;1.5967;
236.1000;0.6691;1.6086;
236.4000;0.6659;1.5920;
236.7000;0.6659;1.5825;
237.0000;0.6659;1.5848;
237.3000;0.6667;1.5777;
237.6000;0.6659;1.5730;
237.9000;0.6634;1.5682;
238.2000;0.6659;1.5659;
238.5000;0.6659;1.5635;
238.8000;0.6675;1.5730;
239.1000;0.6659;1.5730;
239.4000;0.6667;1.5730;
239.7000;0.6675;1.5730;
240.0000;0.6675;1.5682;
240.3000;0.6716;1.5848;
240.6000;0.6659;1.5753;
240.9000;0.6659;1.5825;
241.2000;0.6585;1.5611;
241.5000;0.6650;1.5872;
241.8000;0.6659;1.5896;
242.1000;0.6667;1.5896;
242.4000;0.6667;1.5872;
242.7000;0.6691;1.5896;
243.0000;0.6716;1.5920;
243.3000;0.6659;1.5872;
243.6000;0.6667;1.5896;
243.9000;0.6659;1.5967;
244.2000;0.6667;1.5967;
244.5000;0.6675;1.6014;
244.8000;0.6683;1.5991;
245.1000;0.6659;1.5991;
245.4000;0.6659;1.6038;
245.7000;0.6626;1.6014;
246.0000;0.6650;1.6157;
246.3000;0.6659;1.6109;
246.6000;0.6659;1.6086;
246.9000;0.6634;1.6062;
247.2000;0.6659;1.6133;
247.5000;0.6642;1.6062;
247.8000;0.6577;1.5801;
248.1000;0.6724;1.6157;
248.4000;0.6667;1.6014;
248.7000;0.6667;1.6014;
249.0000;0.6659;1.6014;
249.3000;0.6667;1.5920;
249.6000;0.6659;1.5848;
249.9000;0.6634;1.5848;
250.2000;0.6667;1.5825;
250.5000;0.6642;1.5777;
250.8000;0.6659;1.5848;
251.1000;0.6667;1.5896;
251.4000;0.6650;1.5991;
251.7000;0.6667;1.6038;
252.0000;0.6642;1.5967;
252.3000;0.6667;1.5991;
252.6000;0.6618;1.5967;
252.9000;0.6650;1.6086;
253.2000;0.6667;1.6133;
253.5000;0.6667;1.6204;
253.8000;0.6626;1.6086;
254.1000;0.6659;1.6109;
254.4000;0.6634;1.6109;
254.7000;0.6667;1.6157;
255.0000;0.6667;1.6204;
255.3000;0.6683;1.6347;
255.6000;0.6683;1.6323;
255.9000;0.6659;1.6370;
256.2000;0.6675;1.6465;
256.5000;0.6650;1.6347;
256.8000;0.6667;1.6347;
257.1000;0.6667;1.6323;
257.4000;0.6667;1.6275;
257.7000;0.6659;1.6157;
258.0000;0.6642;1.6038;
258.3000;0.6650;1.6086;
258.6000;0.6667;1.6204;
258.9000;0.6659;1.6228;
259.2000;0.6634;1.6133;
259.5000;0.6667;1.6109;
259.8000;0.6675;1.6038;
260.1000;0.6650;1.5991;
260.4000;0.6667;1.6062;
260.7000;0.6659;1.6014;
261.0000;0.6667;1.5991;
261.3000;0.6650;1.5991;
261.6000;0.6659;1.5920;
261.9000;0.6650;1.6038;
262.2000;0.6659;1.6062;
262.5000;0.6659;1.6014;
262.8000;0.6675;1.5991;
263.1000;0.6667;1.5896;
263.4000;0.6667;1.5872;
263.7000;0.6667;1.5801;
264.0000;0.6650;1.5706;
264.3000;0.6659;1.5920;
264.6000;0.6667;1.5991;
264.9000;0.6659;1.6014;
265.2000;0.6675;1.6062;
265.5000;0.6634;1.6014;
265.8000;0.6667;1.6014;
266.1000;0.6667;1.6086;
266.4000;0.6650;1.6038;
266.7000;0.6699;1.6133;
267.0000;0.6650;1.6109;
267.3000;0.6577;1.5896;
267.6000;0.6667;1.6133;
267.9000;0.6683;1.6157;
268.2000;0.6667;1.6086;
268.5000;0.6659;1.6038;
268.8000;0.6740;1.6157;
269.1000;0.6667;1.6014;
269.4000;0.6675;1.6062;
269.7000;0.6667;1.6038;
270.0000;0.6626;1.6014;
270.3000;0.6667;1.6109;
270.6000;0.6659;1.6014;
270.9000;0.6650;1.5991;
271.2000;0.6659;1.6038;
271.5000;0.6699;1.6086;
271.8000;0.6659;1.6038;
272.1000;0.6561;1.5825;
272.4000;0.6659;1.6038;
272.7000;0.6642;1.6038;
273.0000;0.6650;1.6038;
273.3000;0.6675;1.6109;
273.6000;0.6650;1.6014;
273.9000;0.6667;1.5991;
274.2000;0.6650;1.5967;
274.5000;0.6650;1.5872;
274.8000;0.6593;1.5801;
275.1000;0.6553;1.5706;
275.4000;0.6659;1.6014;
275.7000;0.6667;1.5943;
276.0000;0.6642;1.5920;
276.3000;0.6650;1.5943;
276.6000;0.6699;1.6062;
276.9000;0.6642;1.6038;
277.2000;0.6650;1.6014;
277.5000;0.6659;1.6086;
277.8000;0.6659;1.6157;
278.1000;0.6650;1.6109;
278.4000;0.6683;1.6157;
278.7000;0.6650;1.6062;
279.0000;0.6683;1.6038;
279.3000;0.6618;1.5920;
279.6000;0.6618;1.5967;
279.9000;0.6650;1.5991;
280.2000;0.6667;1.6038;
280.5000;0.6659;1.5967;
280.8000;0.6650;1.5943;
281.1000;0.6650;1.6062;
281.4000;0.6659;1.6062;
281.7000;0.6642;1.6038;
282.0000;0.6667;1.6062;
282.3000;0.6634;1.5991;
282.6000;0.6650;1.6014;
282.9000;0.6756;1.6228;
283.2000;0.6659;1.5967;
283.5000;0.6577;1.5753;
283.8000;0.6650;1.5920;
284.1000;0.6667;1.6014;
284.4000;0.6659;1.6038;
284.7000;0.6675;1.6086;
285.0000;0.6659;1.6014;
285.3000;0.6667;1.5967;
285.6000;0.6675;1.6014;
285.9000;0.6659;1.6086;
286.2000;0.6659;1.6038;
286.5000;0.6667;1.6133;
286.8000;0.6569;1.5825;
287.1000;0.6585;1.5848;
287.4000;0.6634;1.5848;
287.7000;0.6659;1.5943;
288.0000;0.6683;1.6062;
288.3000;0.6659;1.6014;
288.6000;0.6650;1.5943;
288.9000;0.6642;1.5920;
289.2000;0.6659;1.6038;
289.5000;0.6667;1.6086;
289.8000;0.6667;1.6014;
290.1000;0.6650;1.6038;
290.4000;0.6650;1.5943;
290.7000;0.6699;1.6133;
291.0000;0.6659;1.6014;
291.3000;0.6650;1.6038;
291.6000;0.6683;1.6086;
291.9000;0.6650;1.5991;
292.2000;0.6634;1.6014;
292.5000;0.6659;1.6062;
292.8000;0.6634;1.5943;
293.1000;0.6659;1.6038;
293.4000;0.6642;1.6133;
293.7000;0.6634;1.5991;
294.0000;0.6618;1.5943;
294.3000;0.6659;1.6014;
294.6000;0.6659;1.5991;
294.9000;0.6659;1.5991;
295.2000;0.6626;1.5991;
295.5000;0.6667;1.6062;
295.8000;0.6650;1.6109;
296.1000;0.6634;1.6062;
296.4000;0.6650;1.6038;
296.7000;0.6650;1.6014;
297.0000;0.6659;1.5943;
297.3000;0.6650;1.5991;
297.6000;0.6634;1.5896;
297.9000;0.6642;1.5920;
298.2000;0.6659;1.6014;
298.5000;0.6675;1.6062;
298.8000;0.6691;1.6086;
299.1000;0.6716;1.6133;
299.4000;0.6650;1.6062;
299.7000;0.6659;1.6014;
300.0000;0.6659;1.6014;
300.3000;0.6626;1.5967;
300.6000;0.6642;1.6014;
300.9000;0.6667;1.6014;
301.2000;0.6667;1.5991;
301.5000;0.6626;1.5777;
301.8000;0.6650;1.5777;
302.1000;0.6659;1.5801;
302.4000;0.6610;1.5706;
302.7000;0.6642;1.5825;
303.0000;0.6659;1.5872;
303.3000;0.6626;1.5753;
303.6000;0.6650;1.5801;
303.9000;0.6659;1.5825;
304.2000;0.6667;1.5848;
304.5000;0.6659;1.5801;
304.8000;0.6675;1.5896;
305.1000;0.6650;1.5848;
305.4000;0.6650;1.5825;
305.7000;0.6667;1.5943;
306.0000;0.6659;1.5967;
306.3000;0.6642;1.5943;
306.6000;0.6634;1.5872;
306.9000;0.6659;1.5967;
307.2000;0.6642;1.5967;
307.5000;0.6626;1.5848;
307.8000;0.6642;1.5848;
308.1000;0.6642;1.5825;
308.4000;0.6642;1.5896;
308.7000;0.6659;1.5896;
309.0000;0.6634;1.5848;
309.3000;0.6650;1.5967;
309.6000;0.6659;1.5967;
309.9000;0.6602;1.5801;
310.2000;0.6650;1.5943;
310.5000;0.6756;1.6204;
310.8000;0.6650;1.5943;
311.1000;0.6642;1.5943;
311.4000;0.6642;1.5991;
311.7000;0.6618;1.5920;
312.0000;0.6642;1.5991;
312.3000;0.6642;1.5991;
312.6000;0.6659;1.6014;
312.9000;0.6642;1.5967;
313.2000;0.6642;1.5991;
313.5000;0.6642;1.5943;
313.8000;0.6642;1.6014;
314.1000;0.6659;1.5943;
314.4000;0.6659;1.5967;
314.7000;0.6691;1.6133;
315.0000;0.6650;1.6062;
315.3000;0.6667;1.6181;
315.6000;0.6642;1.6181;
315.9000;0.6626;1.6157;
316.2000;0.6659;1.6252;
316.5000;0.6610;1.6038;
316.8000;0.6634;1.6062;
317.1000;0.6650;1.6038;
317.4000;0.6650;1.6062;
317.7000;0.6650;1.6062;
318.0000;0.6528;1.5659;
318.3000;0.6634;1.5991;
318.6000;0.6650;1.6086;
318.9000;0.6683;1.6157;
319.2000;0.6642;1.6062;
319.5000;0.6593;1.5991;
319.8000;0.6667;1.6133;
320.1000;0.6650;1.6086;
320.4000;0.6659;1.6086;
320.7000;0.6650;1.6062;
321.0000;0.6675;1.6109;
321.3000;0.6642;1.6086;
321.6000;0.6659;1.6062;
321.9000;0.6634;1.6014;
322.2000;0.6650;1.6038;
322.5000;0.6634;1.6014;
322.8000;0.6650;1.6062;
323.1000;0.6634;1.5896;
323.4000;0.6642;1.5920;
323.7000;0.6642;1.5872;
324.0000;0.6626;1.5872;
324.3000;0.6650;1.5896;
324.6000;0.6659;1.5991;
324.9000;0.6667;1.6086;
325.2000;0.6650;1.6038;
325.5000;0.6650;1.6133;
325.8000;0.6667;1.6204;
326.1000;0.6650;1.6157;
326.4000;0.6634;1.6133;
326.7000;0.6659;1.6157;
327.0000;0.6626;1.6062;
327.3000;0.6650;1.6086;
327.6000;0.6642;1.6014;
327.9000;0.6642;1.6014;
328.2000;0.6675;1.6038;
328.5000;0.6650;1.5967;
328.8000;0.6650;1.6014;
329.1000;0.6634;1.5920;
329.4000;0.6650;1.5920;
329.7000;0.6659;1.5991;
330.0000;0.6659;1.6038;
330.3000;0.6650;1.6038;
330.6000;0.6634;1.6014;
330.9000;0.6659;1.6133;
331.2000;0.6610;1.6109;
331.5000;0.6659;1.6299;
331.8000;0.6642;1.6204;
332.1000;0.6659;1.6133;
332.4000;0.6634;1.6014;
332.7000;0.6650;1.6086;
333.0000;0.6602;1.5967;
333.3000;0.6650;1.6062;
333.6000;0.6659;1.6014;
333.9000;0.6650;1.6014;
334.2000;0.6667;1.6038;
334.5000;0.6585;1.5801;
334.8000;0.6659;1.6109;
335.1000;0.6659;1.6204;
335.4000;0.6618;1.6157;
335.7000;0.6650;1.6252;
336.0000;0.6642;1.6323;
336.3000;0.6634;1.6299;
336.6000;0.6626;1.6275;
336.9000;0.6634;1.6204;
337.2000;0.6659;1.6252;
337.5000;0.6642;1.6228;
337.8000;0.6634;1.6252;
338.1000;0.6618;1.6228;
338.4000;0.6602;1.6181;
338.7000;0.6634;1.6252;
339.0000;0.6602;1.6181;
339.3000;0.6659;1.6347;
339.6000;0.6650;1.6252;
339.9000;0.6569;1.5967;
340.2000;0.6642;1.6109;
340.5000;0.6659;1.6086;
340.8000;0.6683;1.6204;
341.1000;0.6618;1.6086;
341.4000;0.6642;1.6181;
341.7000;0.6626;1.6133;
342.0000;0.6626;1.6109;
342.3000;0.6618;1.6133;
342.6000;0.6626;1.6252;
342.9000;0.6642;1.6252;
343.2000;0.6634;1.6252;
343.5000;0.6626;1.6228;
343.8000;0.6642;1.6252;
344.1000;0.6642;1.6204;
344.4000;0.6610;1.6014;
344.7000;0.6650;1.6181;
345.0000;0.6642;1.6157;
345.3000;0.6642;1.6086;
345.6000;0.6642;1.6086;
345.9000;0.6642;1.6157;
346.2000;0.6642;1.6157;
346.5000;0.6634;1.6133;
346.8000;0.6642;1.6062;
347.1000;0.6626;1.5967;
347.4000;0.6642;1.5991;
347.7000;0.6634;1.5991;
348.0000;0.6659;1.6014;
348.3000;0.6634;1.5991;
348.6000;0.6634;1.6014;
348.9000;0.6650;1.6062;
349.2000;0.6634;1.6062;
349.5000;0.6756;1.6347;
349.8000;0.6634;1.6062;
350.1000;0.6748;1.6418;
350.4000;0.6642;1.6181;
350.7000;0.6634;1.6109;
351.0000;0.6626;1.6086;
351.3000;0.6634;1.6109;
351.6000;0.6642;1.6133;
351.9000;0.6650;1.6062;
352.2000;0.6650;1.6109;
352.5000;0.6634;1.6086;
352.8000;0.6610;1.5991;
353.1000;0.6634;1.6086;
353.4000;0.6642;1.6038;
353.7000;0.6634;1.6086;
354.0000;0.6732;1.6418;
354.3000;0.6618;1.6181;
354.6000;0.6634;1.6228;
354.9000;0.6642;1.6133;
355.2000;0.6634;1.6204;
355.5000;0.6650;1.6252;
355.8000;0.6642;1.6228;
356.1000;0.6602;1.6086;
356.4000;0.6602;1.6204;
356.7000;0.6642;1.6299;
357.0000;0.6593;1.6181;
357.3000;0.6610;1.6228;
357.6000;0.6650;1.6275;
357.9000;0.6618;1.6228;
358.2000;0.6634;1.6228;
358.5000;0.6667;1.6228;
358.8000;0.6650;1.6181;
359.1000;0.6659;1.6204;
359.4000;0.6642;1.6133;
359.7000;0.6618;1.6014;
360.0000;0.6634;1.6086;
360.3000;0.6642;1.6014;
360.6000;0.6642;1.6038;
360.9000;0.6602;1.5943;
361.2000;0.6642;1.6062;
361.5000;0.6561;1.5801;
361.8000;0.6642;1.6086;
362.1000;0.6634;1.6181;
362.4000;0.6642;1.6204;
362.7000;0.6602;1.6109;
363.0000;0.6650;1.6181;
363.3000;0.6650;1.6252;
363.6000;0.6642;1.6228;
363.9000;0.6634;1.6204;
364.2000;0.6634;1.6133;
364.5000;0.6642;1.6086;
364.8000;0.6634;1.6014;
365.1000;0.6626;1.6038;
365.4000;0.6626;1.5991;
365.7000;0.6642;1.5991;
366.0000;0.6610;1.5920;
366.3000;0.6626;1.5920;
366.6000;0.6610;1.5896;
366.9000;0.6626;1.5943;
367.2000;0.6610;1.5967;
367.5000;0.6618;1.5943;
367.8000;0.6618;1.5991;
368.1000;0.6634;1.6062;
368.4000;0.6683;1.6133;
368.7000;0.6691;1.6181;
369.0000;0.6642;1.6038;
369.3000;0.6691;1.6157;
369.6000;0.6642;1.6038;
369.9000;0.6650;1.6062;
370.2000;0.6642;1.6086;
370.5000;0.6618;1.6086;
370.8000;0.6667;1.6228;
371.1000;0.6626;1.6181;
371.4000;0.6610;1.6109;
371.7000;0.6626;1.6252;
372.0000;0.6626;1.6228;
372.3000;0.6634;1.6323;
372.6000;0.6618;1.6228;
372.9000;0.6634;1.6181;
373.2000;0.6650;1.6204;
373.5000;0.6634;1.6204;
373.8000;0.6634;1.6109;
374.1000;0.6634;1.6086;
374.4000;0.6626;1.6109;
374.7000;0.6618;1.6109;
375.0000;0.6634;1.6109;
375.3000;0.6577;1.6062;
375.6000;0.6602;1.6228;
375.9000;0.6626;1.6275;
376.2000;0.6634;1.6323;
376.5000;0.6642;1.6275;
376.8000;0.6634;1.6252;
377.1000;0.6634;1.6204;
377.4000;0.6610;1.6133;
377.7000;0.6642;1.6133;
378.0000;0.6634;1.6086;
378.3000;0.6593;1.5943;
378.6000;0.6626;1.6038;
378.9000;0.6602;1.6014;
379.2000;0.6691;1.6299;
379.5000;0.6642;1.6204;
379.8000;0.6626;1.6299;
380.1000;0.6618;1.6275;
380.4000;0.6634;1.6299;
380.7000;0.6642;1.6204;
381.0000;0.6626;1.6157;
381.3000;0.6650;1.6299;
381.6000;0.6716;1.6489;
381.9000;0.6626;1.6252;
382.2000;0.6650;1.6252;
382.5000;0.6602;1.6181;
382.8000;0.6610;1.6204;
383.1000;0.6634;1.6157;
383.4000;0.6634;1.6086;
383.7000;0.6626;1.6038;
384.0000;0.6610;1.6086;
384.3000;0.6626;1.6204;
384.6000;0.6593;1.6038;
384.9000;0.6634;1.6157;
385.2000;0.6634;1.6109;
385.5000;0.6602;1.5991;
385.8000;0.6626;1.6014;
386.1000;0.6610;1.5872;
386.4000;0.6618;1.5872;
386.7000;0.6593;1.5777;
387.0000;0.6634;1.5943;
387.3000;0.6634;1.5967;
387.6000;0.6740;1.6228;
387.9000;0.6650;1.6062;
388.2000;0.6642;1.6086;
388.5000;0.6626;1.6062;
388.8000;0.6650;1.6275;
389.1000;0.6618;1.6252;
389.4000;0.6618;1.6228;
389.7000;0.6626;1.6275;
390.0000;0.6626;1.6228;
390.3000;0.6602;1.6204;
390.6000;0.6610;1.6157;
390.9000;0.6626;1.6157;
391.2000;0.6626;1.6062;
391.5000;0.6634;1.6228;
391.8000;0.6602;1.6109;
392.1000;0.6634;1.6228;
392.4000;0.6618;1.6133;
392.7000;0.6626;1.6062;
393.0000;0.6610;1.6038;
393.3000;0.6618;1.5967;
393.6000;0.6626;1.5967;
393.9000;0.6618;1.5920;
394.2000;0.6610;1.5872;
394.5000;0.6626;1.5777;
394.8000;0.6593;1.5801;
395.1000;0.6618;1.5777;
395.4000;0.6634;1.5967;
395.7000;0.6626;1.6062;
396.0000;0.6626;1.6062;
396.3000;0.6618;1.6062;
396.6000;0.6618;1.6062;
396.9000;0.6642;1.6133;
397.2000;0.6618;1.6038;
397.5000;0.6626;1.5991;
397.8000;0.6618;1.5967;
398.1000;0.6732;1.6275;
398.4000;0.6634;1.6038;
398.7000;0.6610;1.5801;
399.0000;0.6618;1.5825;
399.3000;0.6593;1.5706;
399.6000;0.6634;1.5848;
399.9000;0.6626;1.5753;
400.2000;0.6650;1.5848;
400.5000;0.6634;1.5801;
400.8000;0.6642;1.5943;
401.1000;0.6626;1.5991;
401.4000;0.6618;1.6014;
401.7000;0.6618;1.5943;
402.0000;0.6634;1.5920;
402.3000;0.6618;1.5991;
402.6000;0.6626;1.6133;
402.9000;0.6602;1.6109;
403.2000;0.6610;1.6157;
403.5000;0.6618;1.6228;
403.8000;0.6634;1.6204;
404.1000;0.6618;1.6181;
404.4000;0.6553;1.5872;
404.7000;0.6610;1.6014;
405.0000;0.6618;1.5920;
405.3000;0.6602;1.5825;
405.6000;0.6634;1.5896;
405.9000;0.6667;1.6038;
406.2000;0.6618;1.6038;
406.5000;0.6553;1.5967;
406.8000;0.6618;1.6133;
407.1000;0.6626;1.6204;
407.4000;0.6634;1.6157;
407.7000;0.6610;1.6086;
408.0000;0.6585;1.5991;
408.3000;0.6618;1.6086;
408.6000;0.6634;1.6038;
408.9000;0.6618;1.6062;
409.2000;0.6536;1.5801;
409.5000;0.6602;1.5991;
409.8000;0.6699;1.6228;
410.1000;0.6618;1.6062;
410.4000;0.6610;1.6014;
410.7000;0.6569;1.5872;
411.0000;0.6618;1.5943;
411.3000;0.6618;1.6014;
411.6000;0.6618;1.6014;
411.9000;0.6610;1.5991;
412.2000;0.6618;1.5967;
412.5000;0.6626;1.6038;
412.8000;0.6610;1.5991;
413.1000;0.6602;1.5920;
413.4000;0.6602;1.5920;
413.7000;0.6618;1.5991;
414.0000;0.6626;1.5991;
414.3000;0.6610;1.5896;
414.6000;0.6618;1.5896;
414.9000;0.6618;1.5991;
415.2000;0.6618;1.5967;
415.5000;0.6593;1.5777;
415.8000;0.6602;1.5896;
416.1000;0.6634;1.5943;
416.4000;0.6626;1.5920;
416.7000;0.6618;1.5991;
417.0000;0.6634;1.6038;
417.3000;0.6618;1.6133;
417.6000;0.6610;1.6062;
417.9000;0.6610;1.6109;
418.2000;0.6610;1.6133;
418.5000;0.6618;1.6181;
418.8000;0.6642;1.6252;
419.1000;0.6618;1.6109;
419.4000;0.6610;1.6014;
419.7000;0.6618;1.6038;
420.0000;0.6610;1.6062;
420.3000;0.6618;1.6062;
420.6000;0.6602;1.5991;
420.9000;0.6602;1.5825;
421.2000;0.6593;1.5872;
421.5000;0.6618;1.5872;
421.8000;0.6618;1.6038;
422.1000;0.6618;1.5991;
422.4000;0.6602;1.6038;
422.7000;0.6610;1.6109;
423.0000;0.6618;1.6204;
423.3000;0.6610;1.6228;
423.6000;0.6642;1.6299;
423.9000;0.6642;1.6204;
424.2000;0.6626;1.6275;
424.5000;0.6634;1.6157;
424.8000;0.6618;1.6133;
425.1000;0.6618;1.6204;
425.4000;0.6618;1.6275;
425.7000;0.6618;1.6275;
426.0000;0.6602;1.6228;
426.3000;0.6610;1.6228;
426.6000;0.6610;1.6109;
426.9000;0.6585;1.6038;
427.2000;0.6602;1.6062;
427.5000;0.6618;1.6109;
427.8000;0.6626;1.6109;
428.1000;0.6593;1.6062;
428.4000;0.6642;1.6109;
428.7000;0.6634;1.6062;
429.0000;0.6618;1.6038;
429.3000;0.6610;1.6014;
429.6000;0.6610;1.5943;
429.9000;0.6593;1.5967;
430.2000;0.6626;1.6038;
430.5000;0.6569;1.5896;
430.8000;0.6716;1.6204;
431.1000;0.6667;1.6109;
431.4000;0.6610;1.5943;
431.7000;0.6593;1.5896;
432.0000;0.6626;1.5920;
432.3000;0.6602;1.5920;
432.6000;0.6602;1.6014;
432.9000;0.6634;1.6038;
433.2000;0.6626;1.5943;
433.5000;0.6610;1.5920;
433.8000;0.6602;1.5872;
434.1000;0.6634;1.5991;
434.4000;0.6602;1.6038;
434.7000;0.6593;1.5991;
435.0000;0.6602;1.6086;
435.3000;0.6610;1.6204;
435.6000;0.6593;1.6133;
435.9000;0.6618;1.6181;
436.2000;0.6618;1.6086;
436.5000;0.6610;1.6086;
436.8000;0.6618;1.6062;
437.1000;0.6602;1.6086;
437.4000;0.6618;1.6038;
437.7000;0.6610;1.6086;
438.0000;0.6602;1.6157;
438.3000;0.6610;1.6086;
438.6000;0.6626;1.6181;
438.9000;0.6618;1.6133;
439.2000;0.6610;1.6014;
439.5000;0.6634;1.6086;
439.8000;0.6618;1.6038;
440.1000;0.6610;1.6062;
440.4000;0.6626;1.6062;
440.7000;0.6610;1.6038;
441.0000;0.6610;1.6086;
441.3000;0.6650;1.6181;
441.6000;0.6626;1.6133;
441.9000;0.6618;1.6204;
442.2000;0.6618;1.6228;
442.5000;0.6602;1.6062;
442.8000;0.6593;1.5991;
443.1000;0.6618;1.6038;
443.4000;0.6585;1.5943;
443.7000;0.6602;1.5991;
444.0000;0.6610;1.6038;
444.3000;0.6602;1.6014;
444.6000;0.6602;1.6109;
444.9000;0.6602;1.6109;
445.2000;0.6602;1.6062;
445.5000;0.6602;1.6086;
445.8000;0.6593;1.6133;
446.1000;0.6602;1.6133;
446.4000;0.6593;1.6109;
446.7000;0.6610;1.6109;
447.0000;0.6610;1.6133;
447.3000;0.6593;1.6086;
447.6000;0.6593;1.6133;
447.9000;0.6618;1.6228;
448.2000;0.6593;1.6109;
448.5000;0.6602;1.6086;
448.8000;0.6593;1.6086;
449.1000;0.6602;1.6086;
449.4000;0.6610;1.6204;
449.7000;0.6602;1.6133;
450.0000;0.6610;1.6228;
450.3000;0.6602;1.6228;
450.6000;0.6618;1.6275;
450.9000;0.6602;1.6275;
451.2000;0.6593;1.6204;
451.5000;0.6602;1.6252;
451.8000;0.6602;1.6252;
452.1000;0.6602;1.6252;
452.4000;0.6553;1.6181;
452.7000;0.6602;1.6347;
453.0000;0.6610;1.6465;
453.3000;0.6602;1.6465;
453.6000;0.6610;1.6442;
453.9000;0.6602;1.6370;
454.2000;0.6610;1.6394;
454.5000;0.6667;1.6465;
454.8000;0.6593;1.6299;
455.1000;0.6610;1.6228;
455.4000;0.6593;1.6133;
455.7000;0.6593;1.6157;
456.0000;0.6569;1.6014;
456.3000;0.6593;1.6014;
456.6000;0.6602;1.6038;
456.9000;0.6577;1.5943;
457.2000;0.6602;1.6109;
457.5000;0.6610;1.6062;
457.8000;0.6602;1.6014;
458.1000;0.6626;1.6181;
458.4000;0.6618;1.6228;
458.7000;0.6610;1.6157;
459.0000;0.6618;1.6228;
459.3000;0.6618;1.6181;
459.6000;0.6593;1.6109;
459.9000;0.6626;1.6181;
460.2000;0.6593;1.6181;
460.5000;0.6610;1.6181;
460.8000;0.6602;1.6181;
461.1000;0.6593;1.6157;
461.4000;0.6577;1.6086;
461.7000;0.6610;1.6228;
462.0000;0.6610;1.6252;
462.3000;0.6593;1.6275;
462.6000;0.6593;1.6252;
462.9000;0.6602;1.6228;
463.2000;0.6602;1.6228;
463.5000;0.6610;1.6252;
463.8000;0.6610;1.6275;
464.1000;0.6593;1.6204;
464.4000;0.6618;1.6181;
464.7000;0.6610;1.6086;
465.0000;0.6585;1.6038;
465.3000;0.6602;1.6062;
465.6000;0.6618;1.6181;
465.9000;0.6602;1.6157;
466.2000;0.6602;1.6133;
466.5000;0.6602;1.6109;
466.8000;0.6610;1.6157;
467.1000;0.6626;1.6062;
467.4000;0.6602;1.6086;
467.7000;0.6602;1.6109;
468.0000;0.6610;1.6157;
468.3000;0.6618;1.6157;
468.6000;0.6610;1.6062;
468.9000;0.6610;1.5991;
469.2000;0.6602;1.6062;
469.5000;0.6618;1.6228;
469.8000;0.6593;1.6157;
470.1000;0.6577;1.6086;
470.4000;0.6593;1.6109;
470.7000;0.6585;1.6086;
471.0000;0.6610;1.6228;
471.3000;0.6577;1.6204;
471.6000;0.6585;1.6157;
471.9000;0.6610;1.6204;
472.2000;0.6593;1.6157;
472.5000;0.6593;1.6109;
472.8000;0.6602;1.6062;
473.1000;0.6593;1.6157;
473.4000;0.6602;1.6323;
473.7000;0.6593;1.6299;
474.0000;0.6585;1.6275;
474.3000;0.6602;1.6275;
474.6000;0.6593;1.6133;
474.9000;0.6610;1.6086;
475.2000;0.6593;1.6086;
475.5000;0.6488;1.5706;
475.8000;0.6610;1.5896;
476.1000;0.6602;1.5967;
476.4000;0.6585;1.5991;
476.7000;0.6634;1.6133;
477.0000;0.6593;1.6086;
477.3000;0.6610;1.6133;
477.6000;0.6593;1.6086;
477.9000;0.6610;1.6086;
478.2000;0.6610;1.6109;
478.5000;0.6602;1.6086;
478.8000;0.6602;1.6133;
479.1000;0.6602;1.6109;
479.4000;0.6602;1.6157;
479.7000;0.6593;1.6157;
480.0000;0.6618;1.6181;
480.3000;0.6618;1.6133;
480.6000;0.6602;1.6204;
480.9000;0.6577;1.6109;
481.2000;0.6610;1.6157;
481.5000;0.6610;1.6086;
481.8000;0.6610;1.6086;
482.1000;0.6618;1.6086;
482.4000;0.6610;1.5991;
482.7000;0.6593;1.5943;
483.0000;0.6561;1.5920;
483.3000;0.6610;1.6014;
483.6000;0.6610;1.6109;
483.9000;0.6577;1.6014;
484.2000;0.6618;1.6133;
484.5000;0.6602;1.6157;
484.8000;0.6602;1.6157;
485.1000;0.6585;1.6181;
485.4000;0.6585;1.6181;
485.7000;0.6585;1.6109;
486.0000;0.6593;1.6157;
486.3000;0.6569;1.6181;
486.6000;0.6585;1.6252;
486.9000;0.6593;1.6204;
487.2000;0.6593;1.6228;
487.5000;0.6602;1.6299;
487.8000;0.6585;1.6228;
488.1000;0.6585;1.6181;
488.4000;0.6561;1.6062;
488.7000;0.6593;1.6181;
489.0000;0.6585;1.6109;
489.3000;0.6593;1.6086;
489.6000;0.6585;1.6157;
489.9000;0.6618;1.6204;
490.2000;0.6602;1.6157;
490.5000;0.6577;1.6204;
490.8000;0.6602;1.6181;
491.1000;0.6610;1.6204;
491.4000;0.6593;1.6204;
491.7000;0.6593;1.6157;
492.0000;0.6618;1.6181;
492.3000;0.6593;1.6133;
492.6000;0.6585;1.6133;
492.9000;0.6610;1.6181;
493.2000;0.6593;1.6157;
493.5000;0.6593;1.6133;
493.8000;0.6602;1.6109;
494.1000;0.6593;1.6109;
494.4000;0.6602;1.6133;
494.7000;0.6585;1.6014;
495.0000;0.6650;1.6181;
495.3000;0.6585;1.5991;
495.6000;0.6593;1.5967;
495.9000;0.6585;1.5920;
496.2000;0.6602;1.5920;
496.5000;0.6618;1.5872;
496.8000;0.6602;1.5848;
497.1000;0.6585;1.5848;
497.4000;0.6577;1.5967;
497.7000;0.6585;1.6038;
498.0000;0.6593;1.6038;
498.3000;0.6593;1.6038;
498.6000;0.6593;1.6038;
498.9000;0.6602;1.6133;
499.2000;0.6593;1.6062;
499.5000;0.6593;1.6062;
499.8000;0.6593;1.6157;
500.1000;0.6626;1.6252;
500.4000;0.6659;1.6299;
500.7000;0.6553;1.6086;
501.0000;0.6577;1.6109;
501.3000;0.6593;1.6157;
501.6000;0.6585;1.6133;
501.9000;0.6593;1.6133;
502.2000;0.6593;1.6204;
502.5000;0.6561;1.6086;
502.8000;0.6561;1.5967;
503.1000;0.6593;1.6109;
503.4000;0.6593;1.6109;
503.7000;0.6683;1.6275;
504.0000;0.6626;1.6133;
504.3000;0.6593;1.6062;
504.6000;0.6577;1.5943;
504.9000;0.6602;1.5991;
505.2000;0.6602;1.5967;
505.5000;0.6602;1.5896;
505.8000;0.6585;1.5872;
506.1000;0.6593;1.5848;
506.4000;0.6593;1.5872;
506.7000;0.6585;1.5848;
507.0000;0.6577;1.5825;
507.3000;0.6585;1.5920;
507.6000;0.6585;1.5920;
507.9000;0.6602;1.5991;
508.2000;0.6561;1.5943;
508.5000;0.6569;1.5920;
508.8000;0.6593;1.6109;
509.1000;0.6585;1.6086;
509.4000;0.6577;1.6062;
509.7000;0.6577;1.6086;
510.0000;0.6585;1.6157;
510.3000;0.6593;1.6228;
510.6000;0.6593;1.6275;
510.9000;0.6569;1.6228;
511.2000;0.6585;1.6228;
511.5000;0.6585;1.6228;
511.8000;0.6585;1.6299;
512.1000;0.6691;1.6536;
512.4000;0.6593;1.6299;
512.7000;0.6585;1.6275;
513.0000;0.6593;1.6275;
513.3000;0.6585;1.6275;
513.6000;0.6585;1.6228;
513.9000;0.6585;1.6204;
514.2000;0.6602;1.6275;
514.5000;0.6593;1.6275;
514.8000;0.6569;1.6228;
515.1000;0.6602;1.6275;
515.4000;0.6634;1.6347;
515.7000;0.6602;1.6299;
516.0000;0.6667;1.6465;
516.3000;0.6585;1.6204;
516.6000;0.6593;1.6252;
516.9000;0.6585;1.6228;
517.2000;0.6577;1.6181;
517.5000;0.6577;1.6133;
517.8000;0.6593;1.6252;
518.1000;0.6593;1.6228;
518.4000;0.6577;1.6204;
518.7000;0.6691;1.6465;
519.0000;0.6593;1.6181;
519.3000;0.6593;1.6228;
519.6000;0.6602;1.6275;
519.9000;0.6602;1.6275;
520.2000;0.6585;1.6275;
520.5000;0.6577;1.6228;
520.8000;0.6593;1.6181;
521.1000;0.6577;1.6204;
521.4000;0.6593;1.6228;
521.7000;0.6602;1.6299;
522.0000;0.6577;1.6228;
522.3000;0.6577;1.6086;
522.6000;0.6585;1.6038;
522.9000;0.6585;1.6038;
523.2000;0.6585;1.6086;
523.5000;0.6585;1.6086;
523.8000;0.6585;1.6062;
524.1000;0.6593;1.6062;
524.4000;0.6593;1.6062;
524.7000;0.6585;1.5991;
525.0000;0.6593;1.5967;
525.3000;0.6593;1.5920;
525.6000;0.6593;1.5943;
525.9000;0.6618;1.6038;
526.2000;0.6585;1.6014;
526.5000;0.6536;1.5920;
526.8000;0.6683;1.6299;
527.1000;0.6577;1.6038;
527.4000;0.6569;1.5967;
527.7000;0.6569;1.5943;
528.0000;0.6593;1.6086;
528.3000;0.6593;1.6133;
528.6000;0.6626;1.6228;
528.9000;0.6593;1.6181;
529.2000;0.6585;1.6086;
529.5000;0.6553;1.6038;
529.8000;0.6585;1.6014;
530.1000;0.6593;1.5991;
530.4000;0.6602;1.5967;
530.7000;0.6593;1.5967;
531.0000;0.6593;1.6014;
531.3000;0.6593;1.6157;
531.6000;0.6593;1.6038;
531.9000;0.6593;1.6038;
532.2000;0.6585;1.6062;
532.5000;0.6602;1.6133;
532.8000;0.6577;1.6086;
533.1000;0.6593;1.6109;
533.4000;0.6577;1.6133;
533.7000;0.6593;1.6062;
534.0000;0.6585;1.6109;
534.3000;0.6593;1.6157;
534.6000;0.6593;1.6062;
534.9000;0.6577;1.6062;
535.2000;0.6602;1.6062;
535.5000;0.6520;1.5872;
535.8000;0.6585;1.6157;
536.1000;0.6585;1.6181;
536.4000;0.6577;1.6204;
536.7000;0.6585;1.6204;
537.0000;0.6610;1.6299;
537.3000;0.6577;1.6252;
537.6000;0.6577;1.6252;
537.9000;0.6585;1.6252;
538.2000;0.6602;1.6299;
538.5000;0.6593;1.6181;
538.8000;0.6593;1.6181;
539.1000;0.6545;1.6109;
539.4000;0.6602;1.6252;
539.7000;0.6593;1.6204;
540.0000;0.6593;1.6228;
540.3000;0.6577;1.6157;
540.6000;0.6585;1.6181;
540.9000;0.6585;1.6228;
541.2000;0.6577;1.6133;
541.5000;0.6577;1.6109;
541.8000;0.6569;1.6086;
542.1000;0.6569;1.6181;
542.4000;0.6577;1.6109;
542.7000;0.6569;1.6038;
543.0000;0.6545;1.6038;
543.3000;0.6585;1.6157;
543.6000;0.6593;1.6157;
543.9000;0.6569;1.6228;
544.2000;0.6602;1.6204;
544.5000;0.6610;1.6157;
544.8000;0.6602;1.6228;
545.1000;0.6602;1.6228;
545.4000;0.6577;1.6157;
545.7000;0.6593;1.6181;
546.0000;0.6585;1.6181;
546.3000;0.6585;1.6086;
546.6000;0.6569;1.6014;
546.9000;0.6618;1.6109;
547.2000;0.6593;1.6086;
547.5000;0.6585;1.6133;
547.8000;0.6569;1.6109;
548.1000;0.6585;1.6086;
548.4000;0.6585;1.6086;
548.7000;0.6593;1.6086;
549.0000;0.6569;1.6086;
549.3000;0.6585;1.6086;
549.6000;0.6577;1.5967;
549.9000;0.6593;1.6038;
550.2000;0.6593;1.6109;
550.5000;0.6585;1.6109;
550.8000;0.6577;1.6181;
551.1000;0.6593;1.6181;
551.4000;0.6585;1.6181;
551.7000;0.6650;1.6275;
552.0000;0.6561;1.6086;
552.3000;0.6577;1.6086;
552.6000;0.6569;1.5991;
552.9000;0.6577;1.6038;
553.2000;0.6585;1.6157;
553.5000;0.6577;1.6086;
553.8000;0.6577;1.6014;
554.1000;0.6577;1.6014;
554.4000;0.6585;1.6109;
554.7000;0.6593;1.6109;
555.0000;0.6593;1.6133;
555.3000;0.6569;1.6133;
555.6000;0.6585;1.6109;
555.9000;0.6577;1.6062;
556.2000;0.6577;1.5943;
556.5000;0.6585;1.6038;
556.8000;0.6585;1.6086;
557.1000;0.6593;1.6086;
557.4000;0.6683;1.6347;
557.7000;0.6585;1.5920;
558.0000;0.6577;1.5896;
558.3000;0.6626;1.6038;
558.6000;0.6569;1.5943;
558.9000;0.6585;1.6014;
559.2000;0.6593;1.6014;
559.5000;0.6585;1.6062;
559.8000;0.6610;1.6062;
560.1000;0.6610;1.6133;
560.4000;0.6593;1.6086;
560.7000;0.6585;1.6062;
561.0000;0.6577;1.6014;
561.3000;0.6577;1.5991;
561.6000;0.6593;1.6086;
561.9000;0.6577;1.6062;
562.2000;0.6585;1.6086;
562.5000;0.6585;1.6062;
562.8000;0.6553;1.6038;
563.1000;0.6577;1.6181;
563.4000;0.6602;1.6228;
563.7000;0.6561;1.6204;
564.0000;0.6569;1.6228;
564.3000;0.6577;1.6181;
564.6000;0.6585;1.6204;
564.9000;0.6593;1.6252;
565.2000;0.6577;1.6204;
565.5000;0.6561;1.6109;
565.8000;0.6634;1.6204;
566.1000;0.6577;1.5943;
566.4000;0.6553;1.5896;
566.7000;0.6569;1.5967;
567.0000;0.6545;1.5872;
567.3000;0.6593;1.5991;
567.6000;0.6496;1.5801;
567.9000;0.6569;1.5991;
568.2000;0.6569;1.6038;
568.5000;0.6577;1.6204;
568.8000;0.6610;1.6347;
569.1000;0.6569;1.6275;
569.4000;0.6593;1.6252;
569.7000;0.6610;1.6204;
570.0000;0.6585;1.6133;
570.3000;0.6585;1.6109;
570.6000;0.6585;1.6038;
570.9000;0.6585;1.6038;
571.2000;0.6577;1.5943;
571.5000;0.6577;1.5943;
571.8000;0.6569;1.5920;
572.1000;0.6561;1.5943;
572.4000;0.6569;1.6038;
572.7000;0.6561;1.6014;
573.0000;0.6585;1.5991;
573.3000;0.6577;1.5967;
573.6000;0.6577;1.5920;
573.9000;0.6593;1.6038;
574.2000;0.6569;1.6038;
574.5000;0.6585;1.6062;
574.8000;0.6585;1.6109;
575.1000;0.6650;1.6299;
575.4000;0.6585;1.6038;
575.7000;0.6496;1.5896;
576.0000;0.6536;1.6014;
576.3000;0.6593;1.6109;
576.6000;0.6585;1.6109;
576.9000;0.6569;1.6109;
577.2000;0.6577;1.6204;
577.5000;0.6593;1.6275;
577.8000;0.6577;1.6204;
578.1000;0.6569;1.6133;
578.4000;0.6585;1.6157;
578.7000;0.6593;1.6252;
579.0000;0.6561;1.6157;
579.3000;0.6561;1.6133;
579.6000;0.6577;1.6204;
579.9000;0.6536;1.6086;
580.2000;0.6569;1.6157;
580.5000;0.6561;1.6062;
580.8000;0.6585;1.6157;
581.1000;0.6569;1.6086;
581.4000;0.6602;1.6133;
581.7000;0.6602;1.6109;
582.0000;0.6569;1.6086;
582.3000;0.6569;1.6109;
582.6000;0.6577;1.6062;
582.9000;0.6585;1.6109;
583.2000;0.6561;1.6062;
583.5000;0.6577;1.6062;
583.8000;0.6577;1.5991;
584.1000;0.6569;1.5967;
584.4000;0.6569;1.5967;
584.7000;0.6569;1.6109;
585.0000;0.6569;1.6157;
585.3000;0.6569;1.6109;
585.6000;0.6569;1.6109;
585.9000;0.6569;1.6133;
586.2000;0.6569;1.6228;
586.5000;0.6569;1.6370;
586.8000;0.6577;1.6275;
587.1000;0.6545;1.6204;
587.4000;0.6569;1.6204;
587.7000;0.6585;1.6204;
588.0000;0.6585;1.6109;
588.3000;0.6585;1.6038;
588.6000;0.6675;1.6275;
588.9000;0.6577;1.6086;
589.2000;0.6512;1.5943;
589.5000;0.6496;1.5943;
589.8000;0.6536;1.6038;
590.1000;0.6561;1.6157;
590.4000;0.6577;1.6157;
590.7000;0.6561;1.6133;
591.0000;0.6545;1.6062;
591.3000;0.6553;1.6086;
591.6000;0.6577;1.6109;
591.9000;0.6561;1.6038;
592.2000;0.6545;1.6062;
592.5000;0.6553;1.6181;
592.8000;0.6569;1.6228;
593.1000;0.6561;1.6133;
593.4000;0.6553;1.6062;
593.7000;0.6569;1.6062;
594.0000;0.6561;1.6062;
594.3000;0.6577;1.6038;
594.6000;0.6626;1.6181;
594.9000;0.6602;1.6062;
595.2000;0.6585;1.5943;
595.5000;0.6577;1.5920;
595.8000;0.6561;1.5801;
596.1000;0.6561;1.5753;
596.4000;0.6577;1.5848;
596.7000;0.6561;1.5848;
597.0000;0.6520;1.5801;
597.3000;0.6569;1.5848;
597.6000;0.6561;1.5848;
597.9000;0.6569;1.5943;
598.2000;0.6553;1.5991;
598.5000;0.6561;1.6062;
598.8000;0.6561;1.6014;
599.1000;0.6561;1.6038;
599.4000;0.6569;1.5991;
599.7000;0.6536;1.5943;
600.0000;0.6561;1.6038;
600.3000;0.6585;1.5943;
600.6000;0.6536;1.5825;
600.9000;0.6463;1.5587;
601.2000;0.6374;1.5469;
601.5000;0.6300;1.5326;
601.8000;0.6170;1.5113;
602.1000;0.6089;1.5065;
602.4000;0.6032;1.5018;
602.7000;0.5950;1.4876;
603.0000;0.5885;1.4781;
603.3000;0.5788;1.4686;
603.6000;0.5722;1.4615;
603.9000;0.5665;1.4567;
604.2000;0.5617;1.4377;
604.5000;0.5495;1.4069;
604.8000;0.5495;1.4093;
605.1000;0.5429;1.3974;
605.4000;0.5421;1.3998;
605.7000;0.5348;1.3974;
606.0000;0.5307;1.3903;
606.3000;0.5267;1.3737;
606.6000;0.5234;1.3784;
606.9000;0.5193;1.3784;
607.2000;0.5161;1.3713;
607.5000;0.5136;1.3737;
607.8000;0.5096;1.3713;
608.1000;0.5071;1.3737;
608.4000;0.5022;1.3618;
608.7000;0.5006;1.3666;
609.0000;0.4982;1.3666;
609.3000;0.4949;1.3642;
609.6000;0.4933;1.3689;
609.9000;0.4908;1.3594;
610.2000;0.4884;1.3571;
610.5000;0.4860;1.3618;
610.8000;0.4843;1.3571;
611.1000;0.4811;1.3547;
611.4000;0.4794;1.3428;
611.7000;0.4868;1.3713;
612.0000;0.4762;1.3476;
612.3000;0.4786;1.3571;
612.6000;0.4754;1.3523;
612.9000;0.4697;1.3334;
613.2000;0.4681;1.3381;
613.5000;0.4664;1.3405;
613.8000;0.4624;1.3334;
614.1000;0.4640;1.3452;
614.4000;0.4624;1.3428;
614.7000;0.4558;1.3310;
615.0000;0.4583;1.3357;
615.3000;0.4583;1.3428;
615.6000;0.4632;1.3571;
615.9000;0.4550;1.3334;
616.2000;0.4518;1.3310;
616.5000;0.4567;1.3428;
616.8000;0.4510;1.3286;
617.1000;0.4493;1.3239;
617.4000;0.4493;1.3286;
617.7000;0.4469;1.3310;
618.0000;0.4453;1.3286;
618.3000;0.4469;1.3381;
618.6000;0.4412;1.3286;
618.9000;0.4428;1.3381;
619.2000;0.4461;1.3476;
619.5000;0.4428;1.3405;
619.8000;0.4412;1.3381;
620.1000;0.4412;1.3381;
620.4000;0.4404;1.3381;
620.7000;0.4322;1.3144;
621.0000;0.4339;1.3215;
621.3000;0.4355;1.3310;
621.6000;0.4265;1.3096;
621.9000;0.4339;1.3310;
622.2000;0.4355;1.3357;
622.5000;0.4298;1.3262;
622.8000;0.4330;1.3405;
623.1000;0.4355;1.3500;
623.4000;0.4314;1.3405;
623.7000;0.4265;1.3334;
624.0000;0.4282;1.3405;
624.3000;0.4290;1.3476;
624.6000;0.4298;1.3428;
624.9000;0.4257;1.3310;
625.2000;0.4249;1.3286;
625.5000;0.4249;1.3381;
625.8000;0.4233;1.3381;
626.1000;0.4225;1.3262;
626.4000;0.4225;1.3334;
626.7000;0.4241;1.3381;
627.0000;0.4200;1.3310;
627.3000;0.4208;1.3286;
627.6000;0.4192;1.3334;
627.9000;0.4225;1.3523;
628.2000;0.4200;1.3547;
628.5000;0.4192;1.3547;
628.8000;0.4192;1.3594;
629.1000;0.4184;1.3571;
629.4000;0.4176;1.3618;
629.7000;0.4176;1.3547;
630.0000;0.4168;1.3523;
630.3000;0.4160;1.3452;
630.6000;0.4119;1.3357;
630.9000;0.4151;1.3452;
631.2000;0.4127;1.3405;
631.5000;0.4184;1.3500;
631.8000;0.4119;1.3428;
632.1000;0.4127;1.3381;
632.4000;0.4127;1.3405;
632.7000;0.4111;1.3405;
633.0000;0.4078;1.3286;
633.3000;0.4135;1.3452;
633.6000;0.4078;1.3381;
633.9000;0.4103;1.3452;
634.2000;0.4078;1.3428;
634.5000;0.4086;1.3476;
634.8000;0.4086;1.3500;
635.1000;0.4143;1.3594;
635.4000;0.4046;1.3357;
635.7000;0.4070;1.3357;
636.0000;0.4070;1.3357;
636.3000;0.4037;1.3310;
636.6000;0.3980;1.3215;
636.9000;0.4054;1.3381;
637.2000;0.4070;1.3428;
637.5000;0.4037;1.3334;
637.8000;0.4054;1.3381;
638.1000;0.4037;1.3405;
638.4000;0.4013;1.3334;
638.7000;0.4021;1.3286;
639.0000;0.4029;1.3310;
639.3000;0.4029;1.3310;
639.6000;0.4029;1.3286;
639.9000;0.4013;1.3334;
640.2000;0.4005;1.3334;
640.5000;0.4013;1.3262;
640.8000;0.4013;1.3310;
641.1000;0.4021;1.3310;
641.4000;0.3972;1.3191;
641.7000;0.3989;1.3191;
642.0000;0.3989;1.3262;
642.3000;0.3997;1.3286;
642.6000;0.4021;1.3310;
642.9000;0.3989;1.3144;
643.2000;0.3989;1.3073;
643.5000;0.3989;1.3144;
643.8000;0.3980;1.3073;
644.1000;0.3972;1.3025;
644.4000;0.3972;1.3144;
644.7000;0.3964;1.3096;
645.0000;0.3956;1.3001;
645.3000;0.3972;1.3049;
645.6000;0.3989;1.3167;
645.9000;0.3956;1.3049;
646.2000;0.3956;1.3049;
646.5000;0.3956;1.3096;
646.8000;0.3948;1.3049;
647.1000;0.3940;1.3144;
647.4000;0.3948;1.3167;
647.7000;0.3948;1.3144;
648.0000;0.3940;1.3144;
648.3000;0.3948;1.3096;
648.6000;0.3956;1.3120;
648.9000;0.3907;1.3001;
649.2000;0.3932;1.3120;
649.5000;0.3923;1.3191;
649.8000;0.3940;1.3215;
650.1000;0.3989;1.3286;
650.4000;0.3915;1.3167;
650.7000;0.3907;1.3191;
651.0000;0.3915;1.3144;
651.3000;0.3907;1.3144;
651.6000;0.3907;1.3167;
651.9000;0.3948;1.3262;
652.2000;0.3899;1.3144;
652.5000;0.3907;1.3167;
652.8000;0.3915;1.3215;
653.1000;0.3883;1.3144;
653.4000;0.3883;1.3096;
653.7000;0.3899;1.3073;
654.0000;0.3923;1.3049;
654.3000;0.3891;1.3025;
654.6000;0.3883;1.3096;
654.9000;0.3899;1.3073;
655.2000;0.3867;1.3025;
655.5000;0.3883;1.3096;
655.8000;0.3867;1.3001;
656.1000;0.3891;1.3025;
656.4000;0.3883;1.3001;
656.7000;0.3883;1.3120;
657.0000;0.3858;1.3073;
657.3000;0.3875;1.3167;
657.6000;0.3850;1.3049;
657.9000;0.3858;1.3025;
658.2000;0.3826;1.2930;
658.5000;0.3875;1.3073;
658.8000;0.3915;1.3215;
659.1000;0.3867;1.3120;
659.4000;0.3875;1.3167;
659.7000;0.3858;1.3167;
660.0000;0.3842;1.3167;
660.3000;0.3834;1.3167;
660.6000;0.3826;1.3191;
660.9000;0.3842;1.3191;
661.2000;0.3850;1.3191;
661.5000;0.3826;1.3144;
661.8000;0.3777;1.2978;
662.1000;0.3818;1.3167;
662.4000;0.3826;1.3191;
662.7000;0.3834;1.3215;
663.0000;0.3818;1.3144;
663.3000;0.3810;1.3120;
663.6000;0.3818;1.3167;
663.9000;0.3810;1.3144;
664.2000;0.3818;1.3191;
664.5000;0.3850;1.3239;
664.8000;0.3891;1.3381;
665.1000;0.3818;1.3215;
665.4000;0.3818;1.3286;
665.7000;0.3801;1.3262;
666.0000;0.3907;1.3428;
666.3000;0.3818;1.3191;
666.6000;0.3793;1.3167;
666.9000;0.3793;1.3167;
667.2000;0.3761;1.3096;
667.5000;0.3818;1.3191;
667.8000;0.3801;1.3191;
668.1000;0.3810;1.3191;
668.4000;0.3793;1.3167;
668.7000;0.3801;1.3239;
669.0000;0.3810;1.3239;
669.3000;0.3793;1.3167;
669.6000;0.3769;1.3073;
669.9000;0.3785;1.3191;
670.2000;0.3785;1.3239;
670.5000;0.3793;1.3334;
670.8000;0.3785;1.3334;
671.1000;0.3785;1.3310;
671.4000;0.3793;1.3357;
671.7000;0.3753;1.3239;
672.0000;0.3777;1.3334;
672.3000;0.3785;1.3357;
672.6000;0.3769;1.3286;
672.9000;0.3777;1.3239;
673.2000;0.3777;1.3262;
673.5000;0.3785;1.3262;
673.8000;0.3777;1.3191;
674.1000;0.3785;1.3167;
674.4000;0.3850;1.3452;
674.7000;0.3769;1.3286;
675.0000;0.3769;1.3381;
675.3000;0.3761;1.3405;
675.6000;0.3753;1.3334;
675.9000;0.3753;1.3428;
676.2000;0.3753;1.3428;
676.5000;0.3753;1.3381;
676.8000;0.3753;1.3381;
677.1000;0.3753;1.3405;
677.4000;0.3687;1.3239;
677.7000;0.3769;1.3357;
678.0000;0.3728;1.3405;
678.3000;0.3744;1.3452;
678.6000;0.3744;1.3405;
678.9000;0.3753;1.3452;
679.2000;0.3728;1.3357;
679.5000;0.3744;1.3381;
679.8000;0.3753;1.3357;
680.1000;0.3736;1.3262;
680.4000;0.3736;1.3239;
680.7000;0.3728;1.3191;
681.0000;0.3728;1.3215;
681.3000;0.3744;1.3239;
681.6000;0.3834;1.3500;
681.9000;0.3744;1.3286;
682.2000;0.3753;1.3286;
682.5000;0.3728;1.3239;
682.8000;0.3671;1.3215;
683.1000;0.3696;1.3262;
683.4000;0.3736;1.3476;
683.7000;0.3736;1.3523;
684.0000;0.3728;1.3500;
684.3000;0.3736;1.3523;
684.6000;0.3736;1.3571;
684.9000;0.3728;1.3547;
685.2000;0.3728;1.3334;
685.5000;0.3728;1.3239;
685.8000;0.3736;1.3310;
686.1000;0.3712;1.3357;
686.4000;0.3728;1.3428;
686.7000;0.3769;1.3523;
687.0000;0.3687;1.3334;
687.3000;0.3712;1.3334;
687.6000;0.3769;1.3500;
687.9000;0.3704;1.3405;
688.2000;0.3720;1.3428;
688.5000;0.3704;1.3476;
688.8000;0.3712;1.3476;
689.1000;0.3712;1.3547;
689.4000;0.3712;1.3500;
689.7000;0.3712;1.3428;
690.0000;0.3712;1.3428;
690.3000;0.3687;1.3334;
690.6000;0.3704;1.3381;
690.9000;0.3704;1.3405;
691.2000;0.3687;1.3334;
691.5000;0.3753;1.3476;
691.8000;0.3704;1.3381;
692.1000;0.3728;1.3476;
692.4000;0.3696;1.3428;
692.7000;0.3704;1.3381;
693.0000;0.3696;1.3357;
693.3000;0.3704;1.3262;
693.6000;0.3704;1.3239;
693.9000;0.3720;1.3286;
694.2000;0.3696;1.3239;
694.5000;0.3704;1.3239;
694.8000;0.3704;1.3191;
695.1000;0.3696;1.3167;
695.4000;0.3720;1.3191;
695.7000;0.3704;1.3239;
696.0000;0.3679;1.3239;
696.3000;0.3679;1.3262;
696.6000;0.3696;1.3239;
696.9000;0.3704;1.3239;
697.2000;0.3679;1.3239;
697.5000;0.3687;1.3239;
697.8000;0.3687;1.3191;
698.1000;0.3687;1.3215;
698.4000;0.3679;1.3286;
698.7000;0.3687;1.3357;
699.0000;0.3728;1.3523;
699.3000;0.3679;1.3428;
699.6000;0.3679;1.3476;
699.9000;0.3679;1.3428;
700.2000;0.3663;1.3381;
700.5000;0.3671;1.3452;
700.8000;0.3663;1.3381;
701.1000;0.3655;1.3381;
701.4000;0.3655;1.3334;
701.7000;0.3647;1.3239;
702.0000;0.3663;1.3381;
702.3000;0.3663;1.3334;
702.6000;0.3663;1.3357;
702.9000;0.3671;1.3405;
703.2000;0.3671;1.3405;
703.5000;0.3655;1.3357;
703.8000;0.3663;1.3405;
704.1000;0.3663;1.3452;
704.4000;0.3679;1.3523;
704.7000;0.3647;1.3476;
705.0000;0.3647;1.3452;
705.3000;0.3663;1.3452;
705.6000;0.3639;1.3381;
705.9000;0.3663;1.3428;
706.2000;0.3663;1.3381;
706.5000;0.3639;1.3310;
706.8000;0.3630;1.3262;
707.1000;0.3590;1.3167;
707.4000;0.3590;1.3191;
707.7000;0.3622;1.3381;
708.0000;0.3639;1.3405;
708.3000;0.3573;1.3191;
708.6000;0.3647;1.3405;
708.9000;0.3647;1.3286;
709.2000;0.3663;1.3310;
709.5000;0.3720;1.3547;
709.8000;0.3647;1.3428;
710.1000;0.3647;1.3357;
710.4000;0.3598;1.3262;
710.7000;0.3655;1.3405;
711.0000;0.3655;1.3405;
711.3000;0.3655;1.3381;
711.6000;0.3663;1.3262;
711.9000;0.3647;1.3310;
712.2000;0.3647;1.3310;
712.5000;0.3671;1.3381;
712.8000;0.3639;1.3262;
713.1000;0.3639;1.3286;
713.4000;0.3630;1.3310;
713.7000;0.3614;1.3262;
714.0000;0.3655;1.3523;
714.3000;0.3647;1.3571;
714.6000;0.3557;1.3452;
714.9000;0.3655;1.3689;
715.2000;0.3696;1.3879;
715.5000;0.3671;1.3808;
715.8000;0.3639;1.3737;
716.1000;0.3598;1.3666;
716.4000;0.3614;1.3523;
716.7000;0.3639;1.3594;
717.0000;0.3639;1.3571;
717.3000;0.3630;1.3642;
717.6000;0.3622;1.3666;
717.9000;0.3679;1.3855;
718.2000;0.3639;1.3737;
718.5000;0.3630;1.3737;
718.8000;0.3655;1.3784;
719.1000;0.3622;1.3666;
719.4000;0.3630;1.3666;
719.7000;0.3647;1.3737;
720.0000;0.3622;1.3713;
720.3000;0.3630;1.3618;
720.6000;0.3606;1.3547;
720.9000;0.3655;1.3666;
721.2000;0.3630;1.3547;
721.5000;0.3614;1.3547;
721.8000;0.3614;1.3571;
722.1000;0.3622;1.3571;
722.4000;0.3630;1.3618;
722.7000;0.3614;1.3642;
723.0000;0.3598;1.3689;
723.3000;0.3606;1.3713;
723.6000;0.3622;1.3761;
723.9000;0.3614;1.3689;
724.2000;0.3614;1.3642;
724.5000;0.3606;1.3713;
724.8000;0.3614;1.3737;
725.1000;0.3606;1.3713;
725.4000;0.3614;1.3713;
725.7000;0.3622;1.3713;
726.0000;0.3630;1.3737;
726.3000;0.3606;1.3666;
726.6000;0.3622;1.3713;
726.9000;0.3606;1.3689;
727.2000;0.3606;1.3642;
727.5000;0.3622;1.3571;
727.8000;0.3614;1.3500;
728.1000;0.3606;1.3476;
728.4000;0.3614;1.3452;
728.7000;0.3557;1.3286;
729.0000;0.3630;1.3500;
729.3000;0.3622;1.3452;
729.6000;0.3622;1.3500;
729.9000;0.3606;1.3500;
730.2000;0.3598;1.3500;
730.5000;0.3598;1.3500;
730.8000;0.3573;1.3452;
731.1000;0.3614;1.3571;
731.4000;0.3582;1.3452;
731.7000;0.3614;1.3381;
732.0000;0.3630;1.3428;
732.3000;0.3614;1.3381;
732.6000;0.3590;1.3357;
732.9000;0.3590;1.3405;
733.2000;0.3598;1.3523;
733.5000;0.3614;1.3618;
733.8000;0.3606;1.3571;
734.1000;0.3639;1.3666;
734.4000;0.3590;1.3594;
734.7000;0.3598;1.3547;
735.0000;0.3573;1.3523;
735.3000;0.3582;1.3571;
735.6000;0.3582;1.3547;
735.9000;0.3573;1.3523;
736.2000;0.3582;1.3594;
736.5000;0.3614;1.3642;
736.8000;0.3541;1.3452;
737.1000;0.3622;1.3571;
737.4000;0.3598;1.3476;
737.7000;0.3565;1.3381;
738.0000;0.3598;1.3452;
738.3000;0.3590;1.3428;
738.6000;0.3598;1.3476;
738.9000;0.3598;1.3500;
739.2000;0.3565;1.3500;
739.5000;0.3598;1.3523;
739.8000;0.3614;1.3571;
740.1000;0.3590;1.3500;
740.4000;0.3590;1.3571;
740.7000;0.3622;1.3618;
741.0000;0.3582;1.3547;
741.3000;0.3590;1.3594;
741.6000;0.3590;1.3547;
741.9000;0.3565;1.3428;
742.2000;0.3590;1.3452;
742.5000;0.3590;1.3452;
742.8000;0.3696;1.3618;
743.1000;0.3573;1.3357;
743.4000;0.3565;1.3381;
743.7000;0.3679;1.3713;
744.0000;0.3630;1.3547;
744.3000;0.3549;1.3357;
744.6000;0.3598;1.3428;
744.9000;0.3590;1.3405;
745.2000;0.3582;1.3476;
745.5000;0.3541;1.3334;
745.8000;0.3573;1.3381;
746.1000;0.3565;1.3452;
746.4000;0.3573;1.3547;
746.7000;0.3573;1.3500;
747.0000;0.3573;1.3523;
747.3000;0.3598;1.3594;
747.6000;0.3565;1.3500;
747.9000;0.3582;1.3547;
748.2000;0.3573;1.3500;
748.5000;0.3557;1.3428;
748.8000;0.3573;1.3452;
749.1000;0.3598;1.3547;
749.4000;0.3573;1.3476;
749.7000;0.3582;1.3500;
750.0000;0.3590;1.3523;
750.3000;0.3614;1.3571;
750.6000;0.3565;1.3500;
750.9000;0.3557;1.3452;
751.2000;0.3557;1.3476;
751.5000;0.3590;1.3500;
751.8000;0.3582;1.3476;
752.1000;0.3565;1.3452;
752.4000;0.3582;1.3571;
752.7000;0.3516;1.3428;
753.0000;0.3573;1.3523;
753.3000;0.3557;1.3405;
753.6000;0.3598;1.3547;
753.9000;0.3573;1.3523;
754.2000;0.3590;1.3666;
754.5000;0.3565;1.3523;
754.8000;0.3565;1.3500;
755.1000;0.3598;1.3594;
755.4000;0.3557;1.3452;
755.7000;0.3549;1.3405;
756.0000;0.3549;1.3476;
756.3000;0.3573;1.3476;
756.6000;0.3557;1.3452;
756.9000;0.3565;1.3428;
757.2000;0.3549;1.3381;
757.5000;0.3573;1.3428;
757.8000;0.3573;1.3428;
758.1000;0.3541;1.3286;
758.4000;0.3557;1.3286;
758.7000;0.3557;1.3286;
759.0000;0.3565;1.3334;
759.3000;0.3557;1.3357;
759.6000;0.3549;1.3357;
759.9000;0.3541;1.3334;
760.2000;0.3573;1.3405;
760.5000;0.3549;1.3405;
760.8000;0.3533;1.3334;
761.1000;0.3565;1.3405;
761.4000;0.3549;1.3381;
761.7000;0.3557;1.3310;
762.0000;0.3573;1.3405;
762.3000;0.3565;1.3428;
762.6000;0.3565;1.3428;
762.9000;0.3582;1.3571;
763.2000;0.3565;1.3547;
763.5000;0.3565;1.3500;
763.8000;0.3582;1.3452;
764.1000;0.3573;1.3428;
764.4000;0.3557;1.3405;
764.7000;0.3541;1.3357;
765.0000;0.3549;1.3357;
765.3000;0.3573;1.3452;
765.6000;0.3557;1.3381;
765.9000;0.3541;1.3405;
766.2000;0.3533;1.3428;
766.5000;0.3533;1.3452;
766.8000;0.3549;1.3571;
767.1000;0.3541;1.3500;
767.4000;0.3549;1.3452;
767.7000;0.3598;1.3571;
768.0000;0.3565;1.3405;
768.3000;0.3492;1.3239;
768.6000;0.3549;1.3405;
768.9000;0.3557;1.3500;
769.2000;0.3549;1.3547;
769.5000;0.3565;1.3547;
769.8000;0.3541;1.3571;
770.1000;0.3533;1.3571;
770.4000;0.3549;1.3689;
770.7000;0.3557;1.3642;
771.0000;0.3549;1.3618;
771.3000;0.3533;1.3476;
771.6000;0.3541;1.3476;
771.9000;0.3549;1.3476;
772.2000;0.3541;1.3452;
772.5000;0.3598;1.3618;
772.8000;0.3533;1.3428;
773.1000;0.3549;1.3428;
773.4000;0.3549;1.3428;
773.7000;0.3541;1.3452;
774.0000;0.3557;1.3594;
774.3000;0.3614;1.3784;
774.6000;0.3533;1.3594;
774.9000;0.3549;1.3547;
775.2000;0.3582;1.3642;
775.5000;0.3549;1.3594;
775.8000;0.3533;1.3666;
776.1000;0.3525;1.3642;
776.4000;0.3541;1.3642;
776.7000;0.3533;1.3571;
777.0000;0.3549;1.3666;
777.3000;0.3541;1.3642;
777.6000;0.3541;1.3642;
777.9000;0.3525;1.3500;
778.2000;0.3557;1.3523;
778.5000;0.3525;1.3476;
778.8000;0.3582;1.3594;
779.1000;0.3533;1.3571;
779.4000;0.3557;1.3618;
779.7000;0.3484;1.3523;
780.0000;0.3533;1.3571;
780.3000;0.3549;1.3642;
780.6000;0.3541;1.3547;
780.9000;0.3533;1.3523;
781.2000;0.3525;1.3428;
781.5000;0.3516;1.3476;
781.8000;0.3533;1.3523;
782.1000;0.3541;1.3571;
782.4000;0.3525;1.3523;
782.7000;0.3541;1.3547;
783.0000;0.3525;1.3594;
783.3000;0.3533;1.3452;
783.6000;0.3533;1.3357;
783.9000;0.3516;1.3215;
784.2000;0.3541;1.3310;
784.5000;0.3549;1.3357;
784.8000;0.3533;1.3357;
785.1000;0.3533;1.3381;
785.4000;0.3525;1.3310;
785.7000;0.3541;1.3428;
786.0000;0.3549;1.3357;
786.3000;0.3516;1.3334;
786.6000;0.3549;1.3405;
786.9000;0.3557;1.3428;
787.2000;0.3533;1.3357;
787.5000;0.3533;1.3381;
787.8000;0.3508;1.3357;
788.1000;0.3533;1.3381;
788.4000;0.3565;1.3262;
788.7000;0.3533;1.3239;
789.0000;0.3533;1.3215;
789.3000;0.3541;1.3310;
789.6000;0.3525;1.3334;
789.9000;0.3549;1.3286;
790.2000;0.3525;1.3262;
790.5000;0.3508;1.3286;
790.8000;0.3533;1.3381;
791.1000;0.3516;1.3381;
791.4000;0.3492;1.3286;
791.7000;0.3516;1.3405;
792.0000;0.3541;1.3405;
792.3000;0.3516;1.3405;
792.6000;0.3525;1.3334;
792.9000;0.3525;1.3357;
793.2000;0.3541;1.3428;
793.5000;0.3565;1.3547;
793.8000;0.3549;1.3571;
794.1000;0.3533;1.3618;
794.4000;0.3525;1.3500;
794.7000;0.3533;1.3500;
795.0000;0.3533;1.3547;
795.3000;0.3525;1.3523;
795.6000;0.3533;1.3452;
795.9000;0.3508;1.3428;
796.2000;0.3516;1.3381;
796.5000;0.3516;1.3500;
796.8000;0.3516;1.3523;
797.1000;0.3525;1.3571;
797.4000;0.3525;1.3642;
797.7000;0.3508;1.3547;
798.0000;0.3525;1.3476;
798.3000;0.3549;1.3594;
798.6000;0.3516;1.3547;
798.9000;0.3516;1.3452;
799.2000;0.3516;1.3476;
799.5000;0.3533;1.3500;
799.8000;0.3516;1.3405;
800.1000;0.3508;1.3405;
800.4000;0.3525;1.3500;
800.7000;0.3533;1.3571;
801.0000;0.3525;1.3594;
801.3000;0.3508;1.3594;
801.6000;0.3525;1.3547;
801.9000;0.3508;1.3476;
802.2000;0.3516;1.3405;
802.5000;0.3516;1.3405;
802.8000;0.3525;1.3523;
803.1000;0.3525;1.3571;
803.4000;0.3508;1.3666;
803.7000;0.3516;1.3689;
804.0000;0.3500;1.3594;
804.3000;0.3516;1.3642;
804.6000;0.3525;1.3689;
804.9000;0.3525;1.3713;
805.2000;0.3516;1.3784;
805.5000;0.3516;1.3689;
805.8000;0.3533;1.3618;
806.1000;0.3451;1.3405;
806.4000;0.3525;1.3571;
806.7000;0.3516;1.3523;
807.0000;0.3525;1.3547;
807.3000;0.3516;1.3618;
807.6000;0.3508;1.3547;
807.9000;0.3443;1.3405;
808.2000;0.3533;1.3547;
808.5000;0.3516;1.3547;
808.8000;0.3508;1.3452;
809.1000;0.3508;1.3452;
809.4000;0.3533;1.3523;
809.7000;0.3508;1.3571;
810.0000;0.3573;1.3737;
810.3000;0.3516;1.3594;
810.6000;0.3500;1.3547;
810.9000;0.3525;1.3547;
811.2000;0.3508;1.3476;
811.5000;0.3516;1.3452;
811.8000;0.3508;1.3428;
812.1000;0.3516;1.3381;
812.4000;0.3508;1.3405;
812.7000;0.3492;1.3334;
813.0000;0.3508;1.3357;
813.3000;0.3492;1.3239;
813.6000;0.3516;1.3310;
813.9000;0.3508;1.3405;
814.2000;0.3525;1.3405;
814.5000;0.3508;1.3357;
814.8000;0.3516;1.3310;
815.1000;0.3516;1.3310;
815.4000;0.3516;1.3310;
815.7000;0.3492;1.3334;
816.0000;0.3508;1.3452;
816.3000;0.3492;1.3452;
816.6000;0.3500;1.3381;
816.9000;0.3500;1.3452;
817.2000;0.3500;1.3476;
817.5000;0.3484;1.3381;
817.8000;0.3500;1.3428;
818.1000;0.3492;1.3476;
818.4000;0.3508;1.3523;
818.7000;0.3508;1.3571;
819.0000;0.3508;1.3523;
819.3000;0.3500;1.3642;
819.6000;0.3500;1.3689;
819.9000;0.3516;1.3618;
820.2000;0.3500;1.3523;
820.5000;0.3508;1.3571;
820.8000;0.3427;1.3357;
821.1000;0.3508;1.3452;
821.4000;0.3500;1.3571;
821.7000;0.3492;1.3547;
822.0000;0.3484;1.3642;
822.3000;0.3508;1.3713;
822.6000;0.3492;1.3713;
822.9000;0.3500;1.3737;
823.2000;0.3508;1.3689;
823.5000;0.3500;1.3737;
823.8000;0.3541;1.3927;
824.1000;0.3508;1.3808;
824.4000;0.3516;1.3784;
824.7000;0.3508;1.3713;
825.0000;0.3508;1.3642;
825.3000;0.3516;1.3618;
825.6000;0.3492;1.3642;
825.9000;0.3500;1.3689;
826.2000;0.3508;1.3713;
826.5000;0.3533;1.3832;
826.8000;0.3492;1.3737;
827.1000;0.3516;1.3713;
827.4000;0.3451;1.3571;
827.7000;0.3508;1.3761;
828.0000;0.3492;1.3737;
828.3000;0.3484;1.3784;
828.6000;0.3500;1.3879;
828.9000;0.3476;1.3713;
829.2000;0.3500;1.3689;
829.5000;0.3598;1.3974;
829.8000;0.3516;1.3761;
830.1000;0.3500;1.3642;
830.4000;0.3492;1.3618;
830.7000;0.3492;1.3618;
831.0000;0.3500;1.3594;
831.3000;0.3508;1.3666;
831.6000;0.3500;1.3594;
831.9000;0.3500;1.3523;
832.2000;0.3492;1.3523;
832.5000;0.3508;1.3523;
832.8000;0.3500;1.3476;
833.1000;0.3492;1.3476;
833.4000;0.3427;1.3310;
833.7000;0.3460;1.3405;
834.0000;0.3508;1.3594;
834.3000;0.3500;1.3571;
834.6000;0.3492;1.3618;
834.9000;0.3508;1.3594;
835.2000;0.3484;1.3523;
835.5000;0.3500;1.3594;
835.8000;0.3500;1.3666;
836.1000;0.3500;1.3737;
836.4000;0.3500;1.3689;
836.7000;0.3484;1.3737;
837.0000;0.3484;1.3642;
837.3000;0.3484;1.3594;
837.6000;0.3492;1.3666;
837.9000;0.3468;1.3571;
838.2000;0.3468;1.3618;
838.5000;0.3492;1.3689;
838.8000;0.3508;1.3547;
839.1000;0.3500;1.3594;
839.4000;0.3533;1.3737;
839.7000;0.3484;1.3713;
840.0000;0.3484;1.3784;
840.3000;0.3484;1.3784;
840.6000;0.3508;1.3784;
840.9000;0.3484;1.3737;
841.2000;0.3484;1.3737;
841.5000;0.3549;1.3855;
841.8000;0.3492;1.3713;
842.1000;0.3492;1.3713;
842.4000;0.3500;1.3855;
842.7000;0.3500;1.3832;
843.0000;0.3492;1.3761;
843.3000;0.3533;1.3737;
843.6000;0.3492;1.3618;
843.9000;0.3508;1.3761;
844.2000;0.3500;1.3855;
844.5000;0.3484;1.3832;
844.8000;0.3476;1.3737;
845.1000;0.3476;1.3737;
845.4000;0.3500;1.3808;
845.7000;0.3525;1.3855;
846.0000;0.3541;1.3879;
846.3000;0.3484;1.3808;
846.6000;0.3508;1.3784;
846.9000;0.3500;1.3784;
847.2000;0.3508;1.3808;
847.5000;0.3516;1.3737;
847.8000;0.3516;1.3808;
848.1000;0.3557;1.3950;
848.4000;0.3516;1.3832;
848.7000;0.3500;1.3784;
849.0000;0.3508;1.3903;
849.3000;0.3557;1.3998;
849.6000;0.3492;1.3784;
849.9000;0.3500;1.3784;
850.2000;0.3500;1.3713;
850.5000;0.3492;1.3618;
850.8000;0.3476;1.3689;
851.1000;0.3460;1.3594;
851.4000;0.3484;1.3689;
851.7000;0.3549;1.3879;
852.0000;0.3582;1.3927;
852.3000;0.3500;1.3713;
852.6000;0.3468;1.3666;
852.9000;0.3500;1.3761;
853.2000;0.3508;1.3784;
853.5000;0.3516;1.3761;
853.8000;0.3500;1.3713;
854.1000;0.3500;1.3689;
854.4000;0.3468;1.3642;
854.7000;0.3476;1.3642;
855.0000;0.3508;1.3666;
855.3000;0.3500;1.3642;
855.6000;0.3500;1.3642;
855.9000;0.3541;1.3879;
856.2000;0.3484;1.3737;
856.5000;0.3484;1.3761;
856.8000;0.3484;1.3784;
857.1000;0.3500;1.3855;
857.4000;0.3500;1.3903;
857.7000;0.3484;1.3832;
858.0000;0.3484;1.3808;
858.3000;0.3484;1.3761;
858.6000;0.3492;1.3689;
858.9000;0.3484;1.3713;
859.2000;0.3508;1.3666;
859.5000;0.3500;1.3594;
859.8000;0.3500;1.3594;
860.1000;0.3492;1.3571;
860.4000;0.3492;1.3642;
860.7000;0.3500;1.3666;
861.0000;0.3525;1.3761;
861.3000;0.3468;1.3666;
861.6000;0.3484;1.3666;
861.9000;0.3484;1.3737;
862.2000;0.3492;1.3808;
862.5000;0.3468;1.3784;
862.8000;0.3476;1.3737;
863.1000;0.3484;1.3737;
863.4000;0.3484;1.3761;
863.7000;0.3468;1.3642;
864.0000;0.3541;1.3855;
864.3000;0.3492;1.3713;
864.6000;0.3500;1.3642;
864.9000;0.3468;1.3594;
865.2000;0.3500;1.3784;
865.5000;0.3468;1.3713;
865.8000;0.3476;1.3808;
866.1000;0.3476;1.3784;
866.4000;0.3484;1.3642;
866.7000;0.3492;1.3761;
867.0000;0.3484;1.3666;
867.3000;0.3533;1.3808;
867.6000;0.3508;1.3713;
867.9000;0.3500;1.3618;
868.2000;0.3492;1.3618;
868.5000;0.3492;1.3666;
868.8000;0.3557;1.3737;
869.1000;0.3435;1.3428;
869.4000;0.3492;1.3571;
869.7000;0.3484;1.3713;
870.0000;0.3500;1.3689;
870.3000;0.3484;1.3666;
870.6000;0.3549;1.3761;
870.9000;0.3435;1.3452;
871.2000;0.3516;1.3737;
871.5000;0.3476;1.3689;
871.8000;0.3484;1.3737;
872.1000;0.3484;1.3689;
872.4000;0.3460;1.3571;
872.7000;0.3492;1.3571;
873.0000;0.3500;1.3642;
873.3000;0.3500;1.3594;
873.6000;0.3492;1.3571;
873.9000;0.3492;1.3476;
874.2000;0.3500;1.3452;
874.5000;0.3484;1.3500;
874.8000;0.3476;1.3571;
875.1000;0.3468;1.3428;
875.4000;0.3484;1.3428;
875.7000;0.3484;1.3476;
876.0000;0.3476;1.3594;
876.3000;0.3484;1.3571;
876.6000;0.3468;1.3547;
876.9000;0.3484;1.3642;
877.2000;0.3484;1.3737;
877.5000;0.3435;1.3571;
877.8000;0.3468;1.3713;
878.1000;0.3484;1.3784;
878.4000;0.3500;1.3642;
878.7000;0.3476;1.3642;
879.0000;0.3476;1.3642;
879.3000;0.3476;1.3618;
879.6000;0.3484;1.3618;
879.9000;0.3484;1.3594;
880.2000;0.3476;1.3571;
880.5000;0.3476;1.3500;
880.8000;0.3492;1.3547;
881.1000;0.3484;1.3500;
881.4000;0.3476;1.3452;
881.7000;0.3484;1.3452;
882.0000;0.3468;1.3452;
882.3000;0.3476;1.3428;
882.6000;0.3476;1.3476;
882.9000;0.3476;1.3523;
883.2000;0.3484;1.3571;
883.5000;0.3492;1.3547;
883.8000;0.3484;1.3523;
884.1000;0.3476;1.3523;
884.4000;0.3492;1.3523;
884.7000;0.3484;1.3523;
885.0000;0.3557;1.3618;
885.3000;0.3476;1.3452;
885.6000;0.3451;1.3405;
885.9000;0.3598;1.3761;
886.2000;0.3476;1.3476;
886.5000;0.3468;1.3500;
886.8000;0.3468;1.3476;
887.1000;0.3435;1.3405;
887.4000;0.3516;1.3571;
887.7000;0.3460;1.3405;
888.0000;0.3476;1.3381;
888.3000;0.3484;1.3428;
888.6000;0.3476;1.3334;
888.9000;0.3378;1.3167;
889.2000;0.3468;1.3381;
889.5000;0.3500;1.3452;
889.8000;0.3468;1.3334;
890.1000;0.3476;1.3452;
890.4000;0.3476;1.3452;
890.7000;0.3460;1.3476;
891.0000;0.3468;1.3571;
891.3000;0.3460;1.3547;
891.6000;0.3476;1.3500;
891.9000;0.3476;1.3500;
892.2000;0.3492;1.3594;
892.5000;0.3468;1.3523;
892.8000;0.3468;1.3523;
893.1000;0.3476;1.3523;
893.4000;0.3484;1.3500;
893.7000;0.3492;1.3523;
894.0000;0.3435;1.3405;
894.3000;0.3468;1.3523;
894.6000;0.3468;1.3547;
894.9000;0.3460;1.3476;
895.2000;0.3460;1.3547;
895.5000;0.3476;1.3547;
895.8000;0.3468;1.3571;
896.1000;0.3484;1.3523;
896.4000;0.3468;1.3523;
896.7000;0.3468;1.3618;
897.0000;0.3476;1.3594;
897.3000;0.3476;1.3666;
897.6000;0.3484;1.3689;
897.9000;0.3476;1.3642;
898.2000;0.3492;1.3547;
898.5000;0.3492;1.3618;
898.8000;0.3443;1.3523;
899.1000;0.3468;1.3594;
899.4000;0.3476;1.3618;
899.7000;0.3451;1.3666;
900.0000;0.3468;1.3713;
900.3000;0.3460;1.3642;
900.6000;0.3492;1.3784;
900.9000;0.3460;1.3761;
901.2000;0.3484;1.3808;
901.5000;0.3468;1.3784;
901.8000;0.3460;1.3784;
902.1000;0.3460;1.3808;
902.4000;0.3468;1.3737;
902.7000;0.3468;1.3737;
903.0000;0.3468;1.3594;
903.3000;0.3476;1.3571;
903.6000;0.3492;1.3547;
903.9000;0.3468;1.3500;
904.2000;0.3476;1.3594;
904.5000;0.3484;1.3618;
904.8000;0.3468;1.3618;
905.1000;0.3468;1.3689;
905.4000;0.3476;1.3713;
905.7000;0.3476;1.3713;
906.0000;0.3460;1.3666;
906.3000;0.3476;1.3737;
906.6000;0.3468;1.3737;
906.9000;0.3476;1.3713;
907.2000;0.3468;1.3642;
907.5000;0.3451;1.3666;
907.8000;0.3492;1.3689;
908.1000;0.3484;1.3642;
908.4000;0.3411;1.3476;
908.7000;0.3484;1.3666;
909.0000;0.3516;1.3737;
909.3000;0.3500;1.3713;
909.6000;0.3476;1.3689;
909.9000;0.3484;1.3666;
910.2000;0.3476;1.3689;
910.5000;0.3468;1.3594;
910.8000;0.3460;1.3618;
911.1000;0.3468;1.3689;
911.4000;0.3386;1.3500;
911.7000;0.3451;1.3642;
912.0000;0.3468;1.3666;
912.3000;0.3460;1.3594;
912.6000;0.3492;1.3642;
912.9000;0.3500;1.3689;
913.2000;0.3468;1.3618;
913.5000;0.3484;1.3713;
913.8000;0.3476;1.3689;
914.1000;0.3484;1.3666;
914.4000;0.3468;1.3618;
914.7000;0.3443;1.3618;
915.0000;0.3460;1.3642;
915.3000;0.3443;1.3500;
915.6000;0.3451;1.3547;
915.9000;0.3557;1.3761;
916.2000;0.3460;1.3594;
916.5000;0.3468;1.3594;
916.8000;0.3451;1.3500;
917.1000;0.3476;1.3476;
917.4000;0.3476;1.3500;
917.7000;0.3492;1.3547;
918.0000;0.3468;1.3571;
918.3000;0.3460;1.3523;
918.6000;0.3468;1.3523;
918.9000;0.3476;1.3547;
919.2000;0.3468;1.3618;
919.5000;0.3492;1.3737;
919.8000;0.3435;1.3571;
920.1000;0.3468;1.3642;
920.4000;0.3451;1.3689;
920.7000;0.3460;1.3666;
921.0000;0.3451;1.3642;
921.3000;0.3460;1.3666;
921.6000;0.3476;1.3666;
921.9000;0.3460;1.3594;
922.2000;0.3468;1.3618;
922.5000;0.3386;1.3405;
922.8000;0.3476;1.3571;
923.1000;0.3460;1.3571;
923.4000;0.3484;1.3594;
923.7000;0.3476;1.3594;
924.0000;0.3468;1.3594;
924.3000;0.3468;1.3642;
924.6000;0.3468;1.3571;
924.9000;0.3468;1.3523;
925.2000;0.3460;1.3476;
925.5000;0.3468;1.3523;
925.8000;0.3468;1.3476;
926.1000;0.3451;1.3405;
926.4000;0.3460;1.3428;
926.7000;0.3468;1.3500;
927.0000;0.3460;1.3547;
927.3000;0.3468;1.3571;
927.6000;0.3468;1.3618;
927.9000;0.3476;1.3784;
928.2000;0.3451;1.3784;
928.5000;0.3460;1.3832;
928.8000;0.3443;1.3832;
929.1000;0.3484;1.3927;
929.4000;0.3468;1.3950;
929.7000;0.3468;1.3903;
930.0000;0.3451;1.3855;
930.3000;0.3460;1.3761;
930.6000;0.3460;1.3808;
930.9000;0.3476;1.3903;
931.2000;0.3451;1.3927;
931.5000;0.3484;1.3998;
931.8000;0.3525;1.4069;
932.1000;0.3468;1.3927;
932.4000;0.3476;1.3974;
932.7000;0.3468;1.3974;
933.0000;0.3484;1.3927;
933.3000;0.3468;1.3808;
933.6000;0.3468;1.3761;
933.9000;0.3468;1.3784;
934.2000;0.3468;1.3761;
934.5000;0.3476;1.3855;
934.8000;0.3468;1.3808;
935.1000;0.3468;1.3808;
935.4000;0.3476;1.3784;
935.7000;0.3451;1.3737;
936.0000;0.3460;1.3808;
936.3000;0.3468;1.3784;
936.6000;0.3435;1.3594;
936.9000;0.3476;1.3832;
937.2000;0.3460;1.3808;
937.5000;0.3451;1.3761;
937.8000;0.3476;1.3784;
938.1000;0.3484;1.3808;
938.4000;0.3476;1.3879;
938.7000;0.3468;1.3879;
939.0000;0.3476;1.3855;
939.3000;0.3484;1.3855;
939.6000;0.3484;1.3832;
939.9000;0.3460;1.3784;
940.2000;0.3451;1.3784;
940.5000;0.3468;1.3832;
940.8000;0.3443;1.3737;
941.1000;0.3427;1.3713;
941.4000;0.3460;1.3784;
941.7000;0.3468;1.3784;
942.0000;0.3460;1.3784;
942.3000;0.3451;1.3808;
942.6000;0.3460;1.3855;
942.9000;0.3468;1.3927;
943.2000;0.3468;1.3950;
943.5000;0.3508;1.4022;
943.8000;0.3451;1.3974;
944.1000;0.3451;1.4022;
944.4000;0.3468;1.4022;
944.7000;0.3451;1.3903;
945.0000;0.3468;1.3832;
945.3000;0.3460;1.3737;
945.6000;0.3411;1.3594;
945.9000;0.3468;1.3784;
946.2000;0.3460;1.3761;
946.5000;0.3394;1.3571;
946.8000;0.3460;1.3737;
947.1000;0.3476;1.3737;
947.4000;0.3451;1.3713;
947.7000;0.3468;1.3713;
948.0000;0.3476;1.3737;
948.3000;0.3460;1.3737;
948.6000;0.3460;1.3737;
948.9000;0.3451;1.3761;
949.2000;0.3468;1.3832;
949.5000;0.3468;1.3879;
949.8000;0.3460;1.3832;
950.1000;0.3451;1.3784;
950.4000;0.3451;1.3784;
950.7000;0.3468;1.3855;
951.0000;0.3460;1.3855;
951.3000;0.3468;1.3832;
951.6000;0.3468;1.3808;
951.9000;0.3468;1.3855;
952.2000;0.3460;1.3927;
952.5000;0.3468;1.3974;
952.8000;0.3476;1.3950;
953.1000;0.3484;1.4022;
953.4000;0.3468;1.3998;
953.7000;0.3468;1.4022;
954.0000;0.3476;1.3974;
954.3000;0.3468;1.3950;
954.6000;0.3460;1.3903;
954.9000;0.3468;1.3927;
955.2000;0.3460;1.3832;
955.5000;0.3451;1.3832;
955.8000;0.3468;1.3879;
956.1000;0.3460;1.3737;
956.4000;0.3508;1.3879;
956.7000;0.3476;1.3761;
957.0000;0.3419;1.3618;
957.3000;0.3508;1.3808;
957.6000;0.3468;1.3689;
957.9000;0.3435;1.3594;
958.2000;0.3451;1.3737;
958.5000;0.3460;1.3713;
958.8000;0.3443;1.3689;
959.1000;0.3460;1.3761;
959.4000;0.3468;1.3713;
959.7000;0.3476;1.3737;
960.0000;0.3419;1.3594;
960.3000;0.3460;1.3737;
960.6000;0.3451;1.3594;
960.9000;0.3443;1.3547;
961.2000;0.3419;1.3547;
961.5000;0.3386;1.3476;
961.8000;0.3468;1.3642;
962.1000;0.3468;1.3689;
962.4000;0.3468;1.3713;
962.7000;0.3443;1.3618;
963.0000;0.3468;1.3737;
963.3000;0.3468;1.3713;
963.6000;0.3460;1.3666;
963.9000;0.3460;1.3642;
964.2000;0.3468;1.3594;
964.5000;0.3468;1.3547;
964.8000;0.3476;1.3618;
965.1000;0.3419;1.3452;
965.4000;0.3476;1.3547;
965.7000;0.3451;1.3500;
966.0000;0.3468;1.3547;
966.3000;0.3460;1.3547;
966.6000;0.3443;1.3594;
966.9000;0.3476;1.3689;
967.2000;0.3468;1.3666;
967.5000;0.3451;1.3689;
967.8000;0.3468;1.3666;
968.1000;0.3451;1.3713;
968.4000;0.3468;1.3594;
968.7000;0.3476;1.3642;
969.0000;0.3468;1.3689;
969.3000;0.3468;1.3761;
969.6000;0.3435;1.3689;
969.9000;0.3451;1.3618;
970.2000;0.3460;1.3594;
970.5000;0.3484;1.3571;
970.8000;0.3460;1.3571;
971.1000;0.3460;1.3594;
971.4000;0.3460;1.3547;
971.7000;0.3460;1.3618;
972.0000;0.3443;1.3618;
972.3000;0.3460;1.3618;
972.6000;0.3451;1.3689;
972.9000;0.3500;1.3855;
973.2000;0.3451;1.3761;
973.5000;0.3460;1.3761;
973.8000;0.3460;1.3737;
974.1000;0.3443;1.3689;
974.4000;0.3451;1.3689;
974.7000;0.3460;1.3713;
975.0000;0.3451;1.3713;
975.3000;0.3451;1.3689;
975.6000;0.3468;1.3761;
975.9000;0.3484;1.3879;
976.2000;0.3451;1.3761;
976.5000;0.3468;1.3832;
976.8000;0.3468;1.3713;
977.1000;0.3435;1.3713;
977.4000;0.3484;1.3808;
977.7000;0.3443;1.3666;
978.0000;0.3443;1.3547;
978.3000;0.3476;1.3689;
978.6000;0.3460;1.3689;
978.9000;0.3460;1.3618;
979.2000;0.3451;1.3689;
979.5000;0.3460;1.3666;
979.8000;0.3460;1.3666;
980.1000;0.3460;1.3666;
980.4000;0.3411;1.3523;
980.7000;0.3460;1.3642;
981.0000;0.3346;1.3452;
981.3000;0.3394;1.3594;
981.6000;0.3451;1.3808;
981.9000;0.3451;1.3808;
982.2000;0.3460;1.3808;
982.5000;0.3516;1.3950;
982.8000;0.3460;1.3879;
983.1000;0.3451;1.3832;
983.4000;0.3468;1.3855;
983.7000;0.3427;1.3761;
984.0000;0.3468;1.3784;
984.3000;0.3443;1.3642;
984.6000;0.3468;1.3666;
984.9000;0.3451;1.3689;
985.2000;0.3460;1.3784;
985.5000;0.3468;1.3855;
985.8000;0.3411;1.3713;
986.1000;0.3492;1.3855;
986.4000;0.3460;1.3737;
986.7000;0.3460;1.3713;
987.0000;0.3460;1.3713;
987.3000;0.3460;1.3689;
987.6000;0.3468;1.3761;
987.9000;0.3451;1.3784;
988.2000;0.3403;1.3618;
988.5000;0.3468;1.3689;
988.8000;0.3451;1.3737;
989.1000;0.3476;1.3808;
989.4000;0.3460;1.3689;
989.7000;0.3370;1.3571;
990.0000;0.3476;1.3784;
990.3000;0.3443;1.3689;
990.6000;0.3468;1.3618;
990.9000;0.3460;1.3571;
991.2000;0.3394;1.3476;
991.5000;0.3468;1.3713;
991.8000;0.3451;1.3689;
992.1000;0.3460;1.3737;
992.4000;0.3460;1.3666;
992.7000;0.3460;1.3713;
993.0000;0.3468;1.3642;
993.3000;0.3468;1.3666;
993.6000;0.3468;1.3666;
993.9000;0.3468;1.3713;
994.2000;0.3476;1.3808;
994.5000;0.3451;1.3737;
994.8000;0.3468;1.3808;
995.1000;0.3460;1.3855;
995.4000;0.3460;1.3761;
995.7000;0.3443;1.3713;
996.0000;0.3451;1.3642;
996.3000;0.3460;1.3666;
996.6000;0.3476;1.3784;
996.9000;0.3460;1.3666;
997.2000;0.3460;1.3618;
997.5000;0.3460;1.3689;
997.8000;0.3427;1.3618;
998.1000;0.3460;1.3666;
998.4000;0.3451;1.3666;
998.7000;0.3460;1.3761;
999.0000;0.3468;1.3713;
999.3000;0.3451;1.3713;
999.6000;0.3443;1.3642;
999.9000;0.3435;1.3618;
1000.2000;0.3451;1.3594;
1000.5000;0.3451;1.3642;
1000.8000;0.3435;1.3594;
1001.1000;0.3403;1.3594;
1001.4000;0.3443;1.3689;
1001.7000;0.3419;1.3618;
1002.0000;0.3451;1.3713;
1002.3000;0.3460;1.3689;
1002.6000;0.3476;1.3666;
1002.9000;0.3460;1.3594;
1003.2000;0.3460;1.3666;
1003.5000;0.3451;1.3523;
1003.8000;0.3460;1.3571;
1004.1000;0.3443;1.3571;
1004.4000;0.3435;1.3523;
1004.7000;0.3468;1.3571;
1005.0000;0.3460;1.3642;
1005.3000;0.3362;1.3428;
1005.6000;0.3451;1.3618;
1005.9000;0.3370;1.3405;
1006.2000;0.3378;1.3452;
1006.5000;0.3443;1.3642;
1006.8000;0.3468;1.3666;
1007.1000;0.3451;1.3642;
1007.4000;0.3419;1.3618;
1007.7000;0.3468;1.3666;
1008.0000;0.3460;1.3666;
1008.3000;0.3460;1.3737;
1008.6000;0.3460;1.3737;
1008.9000;0.3362;1.3547;
1009.2000;0.3468;1.3761;
1009.5000;0.3443;1.3689;
1009.8000;0.3451;1.3713;
1010.1000;0.3443;1.3666;
1010.4000;0.3451;1.3666;
1010.7000;0.3443;1.3642;
1011.0000;0.3468;1.3642;
1011.3000;0.3460;1.3713;
1011.6000;0.3492;1.3737;
1011.9000;0.3451;1.3666;
1012.2000;0.3476;1.3713;
1012.5000;0.3443;1.3713;
1012.8000;0.3468;1.3737;
1013.1000;0.3460;1.3761;
1013.4000;0.3460;1.3713;
1013.7000;0.3460;1.3666;
1014.0000;0.3460;1.3713;
1014.3000;0.3468;1.3737;
1014.6000;0.3451;1.3737;
1014.9000;0.3451;1.3689;
1015.2000;0.3386;1.3571;
1015.5000;0.3451;1.3689;
1015.8000;0.3370;1.3428;
1016.1000;0.3443;1.3713;
1016.4000;0.3435;1.3689;
1016.7000;0.3476;1.3808;
1017.0000;0.3451;1.3784;
1017.3000;0.3451;1.3713;
1017.6000;0.3460;1.3713;
1017.9000;0.3492;1.3784;
1018.2000;0.3460;1.3761;
1018.5000;0.3451;1.3761;
1018.8000;0.3460;1.3784;
1019.1000;0.3460;1.3689;
1019.4000;0.3451;1.3666;
1019.7000;0.3435;1.3666;
1020.0000;0.3451;1.3761;
1020.3000;0.3468;1.3903;
1020.6000;0.3451;1.3808;
1020.9000;0.3451;1.3784;
1021.2000;0.3435;1.3666;
1021.5000;0.3435;1.3642;
1021.8000;0.3451;1.3618;
1022.1000;0.3443;1.3618;
1022.4000;0.3443;1.3642;
1022.7000;0.3460;1.3713;
1023.0000;0.3443;1.3642;
1023.3000;0.3451;1.3618;
1023.6000;0.3492;1.3761;
1023.9000;0.3443;1.3713;
1024.2000;0.3468;1.3761;
1024.5000;0.3443;1.3689;
1024.8000;0.3435;1.3689;
1025.1000;0.3443;1.3666;
1025.4000;0.3451;1.3642;
1025.7000;0.3460;1.3594;
1026.0000;0.3476;1.3618;
1026.3000;0.3460;1.3594;
1026.6000;0.3460;1.3523;
1026.9000;0.3451;1.3476;
1027.2000;0.3460;1.3500;
1027.5000;0.3451;1.3500;
1027.8000;0.3451;1.3547;
1028.1000;0.3460;1.3523;
1028.4000;0.3468;1.3500;
1028.7000;0.3460;1.3523;
1029.0000;0.3427;1.3594;
1029.3000;0.3484;1.3761;
1029.6000;0.3419;1.3571;
1029.9000;0.3443;1.3618;
1030.2000;0.3460;1.3618;
1030.5000;0.3468;1.3713;
1030.8000;0.3443;1.3689;
1031.1000;0.3451;1.3666;
1031.4000;0.3427;1.3642;
1031.7000;0.3451;1.3642;
1032.0000;0.3508;1.3737;
1032.3000;0.3468;1.3642;
1032.6000;0.3451;1.3737;
1032.9000;0.3468;1.3737;
1033.2000;0.3500;1.3808;
1033.5000;0.3443;1.3642;
1033.8000;0.3443;1.3642;
1034.1000;0.3451;1.3594;
1034.4000;0.3468;1.3642;
1034.7000;0.3451;1.3571;
1035.0000;0.3451;1.3500;
1035.3000;0.3460;1.3500;
1035.6000;0.3435;1.3476;
1035.9000;0.3468;1.3547;
1036.2000;0.3460;1.3571;
1036.5000;0.3443;1.3476;
1036.8000;0.3435;1.3523;
1037.1000;0.3468;1.3737;
1037.4000;0.3476;1.3784;
1037.7000;0.3451;1.3808;
1038.0000;0.3451;1.3855;
1038.3000;0.3460;1.3832;
1038.6000;0.3451;1.3808;
1038.9000;0.3451;1.3832;
1039.2000;0.3451;1.3855;
1039.5000;0.3460;1.3808;
1039.8000;0.3443;1.3689;
1040.1000;0.3337;1.3571;
1040.4000;0.3394;1.3761;
1040.7000;0.3451;1.3974;
1041.0000;0.3443;1.3950;
1041.3000;0.3443;1.3950;
1041.6000;0.3411;1.3666;
1041.9000;0.3451;1.3737;
1042.2000;0.3451;1.3832;
1042.5000;0.3468;1.3950;
1042.8000;0.3492;1.3950;
1043.1000;0.3468;1.3950;
1043.4000;0.3468;1.3950;
1043.7000;0.3460;1.3974;
1044.0000;0.3451;1.3950;
1044.3000;0.3468;1.3998;
1044.6000;0.3476;1.3974;
1044.9000;0.3411;1.3761;
1045.2000;0.3443;1.3761;
1045.5000;0.3451;1.3666;
1045.8000;0.3460;1.3689;
1046.1000;0.3427;1.3618;
1046.4000;0.3468;1.3689;
1046.7000;0.3443;1.3666;
1047.0000;0.3451;1.3618;
1047.3000;0.3443;1.3618;
1047.6000;0.3443;1.3618;
1047.9000;0.3443;1.3571;
1048.2000;0.3451;1.3571;
1048.5000;0.3460;1.3666;
1048.8000;0.3451;1.3713;
1049.1000;0.3435;1.3666;
1049.4000;0.3443;1.3666;
1049.7000;0.3419;1.3666;
1050.0000;0.3427;1.3666;
1050.3000;0.3419;1.3618;
1050.6000;0.3435;1.3618;
1050.9000;0.3451;1.3737;
1051.2000;0.3451;1.3689;
1051.5000;0.3468;1.3689;
1051.8000;0.3451;1.3594;
1052.1000;0.3443;1.3571;
1052.4000;0.3500;1.3761;
1052.7000;0.3443;1.3618;
1053.0000;0.3427;1.3666;
1053.3000;0.3460;1.3761;
1053.6000;0.3460;1.3666;
1053.9000;0.3451;1.3642;
1054.2000;0.3443;1.3594;
1054.5000;0.3443;1.3523;
1054.8000;0.3451;1.3618;
1055.1000;0.3435;1.3642;
1055.4000;0.3427;1.3594;
1055.7000;0.3468;1.3642;
1056.0000;0.3460;1.3642;
1056.3000;0.3460;1.3642;
1056.6000;0.3460;1.3642;
1056.9000;0.3484;1.3689;
1057.2000;0.3451;1.3642;
1057.5000;0.3435;1.3689;
1057.8000;0.3451;1.3737;
1058.1000;0.3451;1.3737;
1058.4000;0.3476;1.3808;
1058.7000;0.3476;1.3832;
1059.0000;0.3492;1.3855;
1059.3000;0.3411;1.3666;
1059.6000;0.3451;1.3808;
1059.9000;0.3435;1.3689;
1060.2000;0.3451;1.3713;
1060.5000;0.3435;1.3666;
1060.8000;0.3451;1.3666;
1061.1000;0.3460;1.3713;
1061.4000;0.3492;1.3879;
1061.7000;0.3451;1.3832;
1062.0000;0.3468;1.3855;
1062.3000;0.3468;1.3855;
1062.6000;0.3476;1.3784;
1062.9000;0.3468;1.3832;
1063.2000;0.3468;1.3737;
1063.5000;0.3435;1.3666;
1063.8000;0.3443;1.3713;
1064.1000;0.3460;1.3689;
1064.4000;0.3435;1.3689;
1064.7000;0.3460;1.3761;
1065.0000;0.3451;1.3737;
1065.3000;0.3443;1.3689;
1065.6000;0.3435;1.3784;
1065.9000;0.3435;1.3903;
1066.2000;0.3443;1.3855;
1066.5000;0.3427;1.3808;
1066.8000;0.3427;1.3761;
1067.1000;0.3435;1.3808;
1067.4000;0.3468;1.3927;
1067.7000;0.3443;1.3903;
1068.0000;0.3451;1.3903;
1068.3000;0.3451;1.3927;
1068.6000;0.3460;1.3879;
1068.9000;0.3435;1.3737;
1069.2000;0.3435;1.3784;
1069.5000;0.3451;1.3879;
1069.8000;0.3451;1.3832;
1070.1000;0.3451;1.3855;
1070.4000;0.3451;1.3808;
1070.7000;0.3451;1.3761;
1071.0000;0.3451;1.3808;
1071.3000;0.3443;1.3808;
1071.6000;0.3451;1.3808;
1071.9000;0.3435;1.3761;
1072.2000;0.3435;1.3761;
1072.5000;0.3484;1.3855;
1072.8000;0.3443;1.3808;
1073.1000;0.3378;1.3594;
1073.4000;0.3443;1.3832;
1073.7000;0.3451;1.3879;
1074.0000;0.3435;1.3855;
1074.3000;0.3460;1.3879;
1074.6000;0.3443;1.3927;
1074.9000;0.3451;1.3950;
1075.2000;0.3435;1.3927;
1075.5000;0.3394;1.3855;
1075.8000;0.3435;1.3974;
1076.1000;0.3435;1.3998;
1076.4000;0.3443;1.4022;
1076.7000;0.3443;1.3974;
1077.0000;0.3346;1.3713;
1077.3000;0.3451;1.3927;
1077.6000;0.3435;1.3832;
1077.9000;0.3451;1.3784;
1078.2000;0.3435;1.3594;
1078.5000;0.3476;1.3642;
1078.8000;0.3427;1.3594;
1079.1000;0.3435;1.3642;
1079.4000;0.3460;1.3713;
1079.7000;0.3443;1.3689;
1080.0000;0.3435;1.3713;
1080.3000;0.3476;1.3855;
1080.6000;0.3435;1.3832;
1080.9000;0.3476;1.3998;
1081.2000;0.3468;1.4022;
1081.5000;0.3460;1.3974;
1081.8000;0.3468;1.3950;
1082.1000;0.3419;1.3761;
1082.4000;0.3460;1.3832;
1082.7000;0.3468;1.3950;
1083.0000;0.3411;1.3808;
1083.3000;0.3443;1.3808;
1083.6000;0.3468;1.3855;
1083.9000;0.3451;1.3950;
1084.2000;0.3435;1.3903;
1084.5000;0.3460;1.3927;
1084.8000;0.3443;1.3832;
1085.1000;0.3443;1.3903;
1085.4000;0.3460;1.3879;
1085.7000;0.3451;1.3927;
1086.0000;0.3443;1.3879;
1086.3000;0.3443;1.3879;
1086.6000;0.3451;1.3998;
1086.9000;0.3443;1.3998;
1087.2000;0.3443;1.3974;
1087.5000;0.3443;1.3903;
1087.8000;0.3443;1.3927;
1088.1000;0.3516;1.4093;
1088.4000;0.3443;1.3927;
1088.7000;0.3468;1.4069;
1089.0000;0.3468;1.4116;
1089.3000;0.3451;1.4140;
1089.6000;0.3435;1.4164;
1089.9000;0.3435;1.4116;
1090.2000;0.3460;1.4093;
1090.5000;0.3427;1.4022;
1090.8000;0.3451;1.3974;
1091.1000;0.3460;1.3974;
1091.4000;0.3460;1.3950;
1091.7000;0.3451;1.3927;
1092.0000;0.3443;1.4045;
1092.3000;0.3443;1.4045;
1092.6000;0.3435;1.3998;
1092.9000;0.3451;1.3998;
1093.2000;0.3427;1.3832;
1093.5000;0.3419;1.3832;
1093.8000;0.3451;1.3927;
1094.1000;0.3451;1.3950;
1094.4000;0.3451;1.3855;
1094.7000;0.3451;1.3879;
1095.0000;0.3443;1.3879;
1095.3000;0.3451;1.3879;
1095.6000;0.3451;1.3903;
1095.9000;0.3443;1.3903;
1096.2000;0.3451;1.3855;
1096.5000;0.3468;1.3974;
1096.8000;0.3451;1.3879;
1097.1000;0.3460;1.3950;
1097.4000;0.3557;1.4259;
1097.7000;0.3443;1.3998;
1098.0000;0.3435;1.3855;
1098.3000;0.3460;1.3998;
1098.6000;0.3451;1.4022;
1098.9000;0.3460;1.4022;
1099.2000;0.3460;1.4022;
1099.5000;0.3476;1.4069;
1099.8000;0.3468;1.3998;
1100.1000;0.3451;1.3927;
1100.4000;0.3419;1.3808;
1100.7000;0.3443;1.3879;
1101.0000;0.3443;1.3879;
1101.3000;0.3476;1.4069;
1101.6000;0.3435;1.4045;
1101.9000;0.3443;1.4022;
1102.2000;0.3451;1.3998;
1102.5000;0.3451;1.3998;
1102.8000;0.3443;1.4045;
1103.1000;0.3443;1.4069;
1103.4000;0.3443;1.3974;
1103.7000;0.3451;1.3927;
1104.0000;0.3411;1.3903;
1104.3000;0.3460;1.4069;
1104.6000;0.3443;1.3974;
1104.9000;0.3419;1.3927;
1105.2000;0.3443;1.3950;
1105.5000;0.3443;1.3950;
1105.8000;0.3427;1.3950;
1106.1000;0.3443;1.3998;
1106.4000;0.3443;1.3927;
1106.7000;0.3435;1.3927;
1107.0000;0.3435;1.3950;
1107.3000;0.3443;1.3998;
1107.6000;0.3435;1.3927;
1107.9000;0.3435;1.3808;
1108.2000;0.3435;1.3784;
1108.5000;0.3451;1.3784;
1108.8000;0.3435;1.3832;
1109.1000;0.3435;1.3832;
1109.4000;0.3443;1.3832;
1109.7000;0.3435;1.3808;
1110.0000;0.3427;1.3761;
1110.3000;0.3451;1.3713;
1110.6000;0.3443;1.3666;
1110.9000;0.3435;1.3666;
1111.2000;0.3451;1.3642;
1111.5000;0.3443;1.3618;
1111.8000;0.3443;1.3618;
1112.1000;0.3443;1.3642;
1112.4000;0.3451;1.3713;
1112.7000;0.3443;1.3689;
1113.0000;0.3451;1.3737;
1113.3000;0.3451;1.3689;
1113.6000;0.3427;1.3594;
1113.9000;0.3476;1.3666;
1114.2000;0.3443;1.3713;
1114.5000;0.3443;1.3689;
1114.8000;0.3443;1.3689;
1115.1000;0.3435;1.3808;
1115.4000;0.3427;1.3784;
1115.7000;0.3435;1.3855;
1116.0000;0.3451;1.3855;
1116.3000;0.3443;1.3879;
1116.6000;0.3435;1.3903;
1116.9000;0.3451;1.3974;
1117.2000;0.3435;1.3974;
1117.5000;0.3460;1.4093;
1117.8000;0.3460;1.4069;
1118.1000;0.3460;1.4116;
1118.4000;0.3443;1.3998;
1118.7000;0.3427;1.3903;
1119.0000;0.3427;1.3879;
1119.3000;0.3419;1.3784;
1119.6000;0.3427;1.3761;
1119.9000;0.3427;1.3737;
1120.2000;0.3419;1.3666;
1120.5000;0.3443;1.3784;
1120.8000;0.3460;1.3879;
1121.1000;0.3403;1.3761;
1121.4000;0.3443;1.3832;
1121.7000;0.3419;1.3784;
1122.0000;0.3476;1.3879;
1122.3000;0.3427;1.3784;
1122.6000;0.3451;1.3808;
1122.9000;0.3435;1.3855;
1123.2000;0.3403;1.3737;
1123.5000;0.3443;1.3879;
1123.8000;0.3460;1.3855;
1124.1000;0.3443;1.3784;
1124.4000;0.3460;1.3784;
1124.7000;0.3508;1.3974;
1125.0000;0.3508;1.3998;
1125.3000;0.3419;1.3784;
1125.6000;0.3443;1.3737;
1125.9000;0.3403;1.3618;
1126.2000;0.3460;1.3784;
1126.5000;0.3435;1.3713;
1126.8000;0.3468;1.3784;
1127.1000;0.3443;1.3737;
1127.4000;0.3460;1.3761;
1127.7000;0.3451;1.3784;
1128.0000;0.3443;1.3737;
1128.3000;0.3460;1.3784;
1128.6000;0.3468;1.3737;
1128.9000;0.3451;1.3666;
1129.2000;0.3435;1.3761;
1129.5000;0.3460;1.3832;
1129.8000;0.3468;1.3832;
1130.1000;0.3443;1.3855;
1130.4000;0.3451;1.3998;
1130.7000;0.3460;1.3998;
1131.0000;0.3460;1.3974;
1131.3000;0.3451;1.3927;
1131.6000;0.3451;1.3998;
1131.9000;0.3427;1.3903;
1132.2000;0.3443;1.3974;
1132.5000;0.3435;1.3950;
1132.8000;0.3419;1.3998;
1133.1000;0.3451;1.4140;
1133.4000;0.3451;1.4164;
1133.7000;0.3451;1.4045;
1134.0000;0.3443;1.4022;
1134.3000;0.3435;1.3950;
1134.6000;0.3451;1.3974;
1134.9000;0.3451;1.3903;
1135.2000;0.3460;1.3927;
1135.5000;0.3435;1.3832;
1135.8000;0.3435;1.3784;
1136.1000;0.3451;1.3832;
1136.4000;0.3451;1.3879;
1136.7000;0.3460;1.3974;
1137.0000;0.3443;1.3903;
1137.3000;0.3451;1.3998;
1137.6000;0.3451;1.3903;
1137.9000;0.3451;1.3974;
1138.2000;0.3460;1.4022;
1138.5000;0.3460;1.4045;
1138.8000;0.3443;1.3974;
1139.1000;0.3435;1.3998;
1139.4000;0.3451;1.3998;
1139.7000;0.3451;1.3974;
1140.0000;0.3435;1.3950;
1140.3000;0.3451;1.3974;
1140.6000;0.3443;1.4045;
1140.9000;0.3427;1.3903;
1141.2000;0.3427;1.3974;
1141.5000;0.3435;1.3950;
1141.8000;0.3484;1.4045;
1142.1000;0.3443;1.3879;
1142.4000;0.3468;1.3950;
1142.7000;0.3549;1.4164;
1143.0000;0.3443;1.3855;
1143.3000;0.3443;1.3808;
1143.6000;0.3451;1.3832;
1143.9000;0.3435;1.3784;
1144.2000;0.3468;1.3832;
1144.5000;0.3451;1.3808;
1144.8000;0.3443;1.3855;
1145.1000;0.3443;1.3903;
1145.4000;0.3443;1.3879;
1145.7000;0.3460;1.3903;
1146.0000;0.3460;1.3927;
1146.3000;0.3443;1.3950;
1146.6000;0.3468;1.3879;
1146.9000;0.3460;1.3855;
1147.2000;0.3460;1.3879;
1147.5000;0.3451;1.3832;
1147.8000;0.3460;1.3855;
1148.1000;0.3443;1.3927;
1148.4000;0.3443;1.3855;
1148.7000;0.3476;1.3903;
1149.0000;0.3443;1.3832;
1149.3000;0.3451;1.3879;
1149.6000;0.3460;1.3927;
1149.9000;0.3451;1.3808;
1150.2000;0.3451;1.3737;
1150.5000;0.3435;1.3784;
1150.8000;0.3443;1.3784;
1151.1000;0.3460;1.3832;
1151.4000;0.3435;1.3737;
1151.7000;0.3419;1.3689;
1152.0000;0.3419;1.3761;
1152.3000;0.3427;1.3713;
1152.6000;0.3427;1.3713;
1152.9000;0.3451;1.3737;
1153.2000;0.3394;1.3547;
1153.5000;0.3451;1.3713;
1153.8000;0.3443;1.3784;
1154.1000;0.3451;1.3761;
1154.4000;0.3443;1.3737;
1154.7000;0.3460;1.3784;
1155.0000;0.3451;1.3855;
1155.3000;0.3451;1.3903;
1155.6000;0.3451;1.3784;
1155.9000;0.3451;1.3761;
1156.2000;0.3443;1.3689;
1156.5000;0.3460;1.3666;
1156.8000;0.3427;1.3689;
1157.1000;0.3468;1.3855;
1157.4000;0.3476;1.3737;
1157.7000;0.3451;1.3689;
1158.0000;0.3451;1.3713;
1158.3000;0.3451;1.3642;
1158.6000;0.3451;1.3689;
1158.9000;0.3460;1.3737;
1159.2000;0.3451;1.3737;
1159.5000;0.3460;1.3713;
1159.8000;0.3451;1.3618;
1160.1000;0.3435;1.3618;
1160.4000;0.3427;1.3594;
1160.7000;0.3476;1.3689;
1161.0000;0.3443;1.3594;
1161.3000;0.3443;1.3642;
1161.6000;0.3394;1.3523;
1161.9000;0.3451;1.3689;
1162.2000;0.3435;1.3642;
1162.5000;0.3443;1.3666;
1162.8000;0.3460;1.3642;
1163.1000;0.3451;1.3618;
1163.4000;0.3427;1.3618;
1163.7000;0.3435;1.3618;
1164.0000;0.3451;1.3594;
1164.3000;0.3443;1.3618;
1164.6000;0.3419;1.3618;
1164.9000;0.3443;1.3689;
1165.2000;0.3435;1.3618;
1165.5000;0.3443;1.3689;
1165.8000;0.3443;1.3713;
1166.1000;0.3451;1.3713;
1166.4000;0.3419;1.3713;
1166.7000;0.3443;1.3737;
1167.0000;0.3435;1.3713;
1167.3000;0.3443;1.3737;
1167.6000;0.3460;1.3784;
1167.9000;0.3476;1.3855;
1168.2000;0.3443;1.3879;
1168.5000;0.3443;1.3879;
1168.8000;0.3443;1.3832;
1169.1000;0.3443;1.3784;
1169.4000;0.3427;1.3808;
1169.7000;0.3443;1.3761;
1170.0000;0.3443;1.3879;
1170.3000;0.3411;1.3903;
1170.6000;0.3394;1.3832;
1170.9000;0.3435;1.3927;
1171.2000;0.3484;1.4116;
1171.5000;0.3443;1.4022;
1171.8000;0.3443;1.3903;
1172.1000;0.3533;1.4045;
1172.4000;0.3443;1.3784;
1172.7000;0.3451;1.3832;
1173.0000;0.3435;1.3713;
1173.3000;0.3427;1.3689;
1173.6000;0.3451;1.3761;
1173.9000;0.3451;1.3737;
1174.2000;0.3460;1.3784;
1174.5000;0.3460;1.3713;
1174.8000;0.3451;1.3737;
1175.1000;0.3427;1.3713;
1175.4000;0.3468;1.3737;
1175.7000;0.3435;1.3666;
1176.0000;0.3443;1.3713;
1176.3000;0.3435;1.3689;
1176.6000;0.3443;1.3666;
1176.9000;0.3435;1.3666;
1177.2000;0.3427;1.3642;
1177.5000;0.3460;1.3618;
1177.8000;0.3370;1.3500;
1178.1000;0.3443;1.3689;
1178.4000;0.3443;1.3689;
1178.7000;0.3443;1.3689;
1179.0000;0.3476;1.3808;
1179.3000;0.3451;1.3689;
1179.6000;0.3492;1.3737;
1179.9000;0.3443;1.3642;
1180.2000;0.3435;1.3689;
1180.5000;0.3484;1.3737;
1180.8000;0.3484;1.3832;
1181.1000;0.3451;1.3808;
1181.4000;0.3451;1.3761;
1181.7000;0.3460;1.3808;
1182.0000;0.3451;1.3761;
1182.3000;0.3468;1.3879;
1182.6000;0.3451;1.3808;
1182.9000;0.3451;1.3737;
1183.2000;0.3460;1.3689;
1183.5000;0.3451;1.3713;
1183.8000;0.3443;1.3618;
1184.1000;0.3492;1.3689;
1184.4000;0.3443;1.3594;
1184.7000;0.3427;1.3500;
1185.0000;0.3451;1.3618;
1185.3000;0.3451;1.3642;
1185.6000;0.3435;1.3642;
1185.9000;0.3443;1.3618;
1186.2000;0.3419;1.3500;
1186.5000;0.3500;1.3689;
1186.8000;0.3443;1.3500;
1187.1000;0.3435;1.3405;
1187.4000;0.3411;1.3381;
1187.7000;0.3460;1.3428;
1188.0000;0.3443;1.3405;
1188.3000;0.3443;1.3357;
1188.6000;0.3443;1.3310;
1188.9000;0.3427;1.3310;
1189.2000;0.3411;1.3310;
1189.5000;0.3468;1.3476;
1189.8000;0.3386;1.3310;
1190.1000;0.3443;1.3547;
1190.4000;0.3468;1.3594;
1190.7000;0.3427;1.3571;
1191.0000;0.3525;1.3666;
1191.3000;0.3451;1.3523;
1191.6000;0.3460;1.3476;
1191.9000;0.3443;1.3523;
1192.2000;0.3378;1.3286;
1192.5000;0.3508;1.3713;
1192.8000;0.3451;1.3571;
1193.1000;0.3451;1.3547;
1193.4000;0.3549;1.3784;
1193.7000;0.3451;1.3500;
1194.0000;0.3443;1.3452;
1194.3000;0.3468;1.3571;
1194.6000;0.3443;1.3547;
1194.9000;0.3435;1.3523;
1195.2000;0.3451;1.3618;
1195.5000;0.3468;1.3642;
1195.8000;0.3451;1.3523;
1196.1000;0.3460;1.3571;
1196.4000;0.3460;1.3618;
1196.7000;0.3451;1.3618;
1197.0000;0.3443;1.3666;
1197.3000;0.3451;1.3594;
1197.6000;0.3427;1.3594;
1197.9000;0.3443;1.3594;
1198.2000;0.3460;1.3571;
1198.5000;0.3443;1.3594;
1198.8000;0.3443;1.3571;
1199.1000;0.3451;1.3500;
1199.4000;0.3451;1.3428;
1199.7000;0.3451;1.3405;
1200.0000;0.3427;1.3381;
1200.3000;0.3435;1.3476;
1200.6000;0.3460;1.3642;
1200.9000;0.3468;1.3618;
1201.2000;0.3451;1.3500;
1201.5000;0.3476;1.3500;
1201.8000;0.3443;1.3476;
1202.1000;0.3460;1.3476;
1202.4000;0.3419;1.3357;
1202.7000;0.3443;1.3405;
1203.0000;0.3460;1.3452;
1203.3000;0.3460;1.3547;
1203.6000;0.3435;1.3428;
1203.9000;0.3435;1.3334;
1204.2000;0.3427;1.3191;
1204.5000;0.3460;1.3239;
1204.8000;0.3443;1.3239;
1205.1000;0.3541;1.3452;
1205.4000;0.3435;1.3239;
1205.7000;0.3451;1.3310;
1206.0000;0.3451;1.3357;
1206.3000;0.3451;1.3357;
1206.6000;0.3386;1.3215;
1206.9000;0.3468;1.3405;
1207.2000;0.3451;1.3357;
1207.5000;0.3337;1.3144;
1207.8000;0.3435;1.3310;
1208.1000;0.3394;1.3262;
1208.4000;0.3443;1.3357;
1208.7000;0.3443;1.3334;
1209.0000;0.3411;1.3286;
1209.3000;0.3451;1.3357;
1209.6000;0.3427;1.3334;
1209.9000;0.3443;1.3405;
1210.2000;0.3443;1.3381;
1210.5000;0.3435;1.3334;
1210.8000;0.3443;1.3405;
1211.1000;0.3443;1.3405;
1211.4000;0.3451;1.3428;
1211.7000;0.3443;1.3381;
1212.0000;0.3460;1.3428;
1212.3000;0.3443;1.3405;
1212.6000;0.3451;1.3381;
1212.9000;0.3427;1.3334;
1213.2000;0.3460;1.3452;
1213.5000;0.3484;1.3500;
1213.8000;0.3468;1.3523;
1214.1000;0.3443;1.3547;
1214.4000;0.3468;1.3642;
1214.7000;0.3451;1.3547;
1215.0000;0.3508;1.3666;
1215.3000;0.3435;1.3428;
1215.6000;0.3427;1.3476;
1215.9000;0.3435;1.3452;
1216.2000;0.3386;1.3381;
1216.5000;0.3411;1.3571;
1216.8000;0.3411;1.3547;
1217.1000;0.3451;1.3618;
1217.4000;0.3468;1.3666;
1217.7000;0.3451;1.3523;
1218.0000;0.3451;1.3547;
1218.3000;0.3378;1.3334;
1218.6000;0.3443;1.3428;
1218.9000;0.3451;1.3452;
1219.2000;0.3460;1.3571;
1219.5000;0.3419;1.3452;
1219.8000;0.3451;1.3500;
1220.1000;0.3435;1.3452;
1220.4000;0.3443;1.3523;
1220.7000;0.3451;1.3523;
1221.0000;0.3451;1.3594;
1221.3000;0.3460;1.3547;
1221.6000;0.3427;1.3523;
1221.9000;0.3443;1.3618;
1222.2000;0.3451;1.3666;
1222.5000;0.3508;1.3808;
1222.8000;0.3419;1.3594;
1223.1000;0.3443;1.3618;
1223.4000;0.3451;1.3594;
1223.7000;0.3451;1.3594;
1224.0000;0.3443;1.3571;
1224.3000;0.3451;1.3547;
1224.6000;0.3451;1.3500;
1224.9000;0.3435;1.3452;
1225.2000;0.3451;1.3405;
1225.5000;0.3443;1.3381;
1225.8000;0.3443;1.3523;
1226.1000;0.3451;1.3476;
1226.4000;0.3451;1.3452;
1226.7000;0.3443;1.3476;
1227.0000;0.3443;1.3476;
1227.3000;0.3451;1.3618;
1227.6000;0.3451;1.3618;
1227.9000;0.3443;1.3642;
1228.2000;0.3443;1.3594;
1228.5000;0.3451;1.3618;
1228.8000;0.3460;1.3594;
1229.1000;0.3411;1.3547;
1229.4000;0.3427;1.3618;
1229.7000;0.3443;1.3594;
1230.0000;0.3435;1.3594;
1230.3000;0.3443;1.3594;
1230.6000;0.3427;1.3547;
1230.9000;0.3451;1.3594;
1231.2000;0.3435;1.3571;
1231.5000;0.3460;1.3594;
1231.8000;0.3435;1.3594;
1232.1000;0.3435;1.3618;
1232.4000;0.3451;1.3713;
1232.7000;0.3443;1.3689;
1233.0000;0.3533;1.3832;
1233.3000;0.3435;1.3594;
1233.6000;0.3443;1.3594;
1233.9000;0.3435;1.3547;
1234.2000;0.3435;1.3523;
1234.5000;0.3451;1.3571;
1234.8000;0.3451;1.3642;
1235.1000;0.3427;1.3642;
1235.4000;0.3362;1.3405;
1235.7000;0.3451;1.3666;
1236.0000;0.3443;1.3666;
1236.3000;0.3435;1.3547;
1236.6000;0.3435;1.3666;
1236.9000;0.3443;1.3666;
1237.2000;0.3435;1.3689;
1237.5000;0.3443;1.3713;
1237.8000;0.3460;1.3618;
1238.1000;0.3516;1.3737;
1238.4000;0.3435;1.3594;
1238.7000;0.3460;1.3594;
1239.0000;0.3443;1.3523;
1239.3000;0.3460;1.3571;
1239.6000;0.3435;1.3428;
1239.9000;0.3451;1.3452;
1240.2000;0.3419;1.3452;
1240.5000;0.3460;1.3523;
1240.8000;0.3460;1.3523;
1241.1000;0.3443;1.3618;
1241.4000;0.3435;1.3571;
1241.7000;0.3427;1.3547;
1242.0000;0.3435;1.3618;
1242.3000;0.3443;1.3666;
1242.6000;0.3435;1.3689;
1242.9000;0.3443;1.3642;
1243.2000;0.3435;1.3594;
1243.5000;0.3460;1.3642;
1243.8000;0.3460;1.3713;
1244.1000;0.3443;1.3642;
1244.4000;0.3443;1.3666;
1244.7000;0.3443;1.3571;
1245.0000;0.3460;1.3571;
1245.3000;0.3451;1.3547;
1245.6000;0.3468;1.3594;
1245.9000;0.3435;1.3476;
1246.2000;0.3386;1.3405;
1246.5000;0.3451;1.3594;
1246.8000;0.3443;1.3547;
1247.1000;0.3443;1.3594;
1247.4000;0.3443;1.3594;
1247.7000;0.3451;1.3642;
1248.0000;0.3443;1.3642;
1248.3000;0.3443;1.3642;
1248.6000;0.3451;1.3642;
1248.9000;0.3460;1.3713;
1249.2000;0.3443;1.3594;
1249.5000;0.3435;1.3523;
1249.8000;0.3435;1.3500;
1250.1000;0.3460;1.3594;
1250.4000;0.3435;1.3405;
1250.7000;0.3500;1.3547;
1251.0000;0.3476;1.3428;
1251.3000;0.3435;1.3405;
1251.6000;0.3508;1.3547;
1251.9000;0.3460;1.3334;
1252.2000;0.3435;1.3215;
1252.5000;0.3451;1.3310;
1252.8000;0.3451;1.3334;
1253.1000;0.3460;1.3286;
1253.4000;0.3419;1.3167;
1253.7000;0.3451;1.3262;
1254.0000;0.3549;1.3571;
1254.3000;0.3435;1.3334;
1254.6000;0.3460;1.3381;
1254.9000;0.3451;1.3547;
1255.2000;0.3443;1.3571;
1255.5000;0.3476;1.3642;
1255.8000;0.3443;1.3500;
1256.1000;0.3443;1.3405;
1256.4000;0.3460;1.3428;
1256.7000;0.3403;1.3310;
1257.0000;0.3435;1.3286;
1257.3000;0.3435;1.3310;
1257.6000;0.3443;1.3381;
1257.9000;0.3443;1.3428;
1258.2000;0.3451;1.3452;
1258.5000;0.3394;1.3334;
1258.8000;0.3451;1.3571;
1259.1000;0.3443;1.3571;
1259.4000;0.3443;1.3523;
1259.7000;0.3468;1.3618;
1260.0000;0.3443;1.3571;
1260.3000;0.3427;1.3618;
1260.6000;0.3427;1.3594;
1260.9000;0.3443;1.3666;
1261.2000;0.3427;1.3618;
1261.5000;0.3443;1.3666;
1261.8000;0.3451;1.3594;
1262.1000;0.3435;1.3594;
1262.4000;0.3435;1.3618;
1262.7000;0.3460;1.3713;
1263.0000;0.3460;1.3784;
1263.3000;0.3435;1.3761;
1263.6000;0.3427;1.3713;
1263.9000;0.3443;1.3808;
1264.2000;0.3451;1.3784;
1264.5000;0.3443;1.3666;
1264.8000;0.3427;1.3642;
1265.1000;0.3468;1.3666;
1265.4000;0.3451;1.3547;
1265.7000;0.3451;1.3547;
1266.0000;0.3443;1.3523;
1266.3000;0.3435;1.3452;
1266.6000;0.3451;1.3500;
1266.9000;0.3460;1.3642;
1267.2000;0.3492;1.3689;
1267.5000;0.3460;1.3642;
1267.8000;0.3516;1.3761;
1268.1000;0.3468;1.3642;
1268.4000;0.3435;1.3594;
1268.7000;0.3427;1.3594;
1269.0000;0.3460;1.3713;
1269.3000;0.3419;1.3594;
1269.6000;0.3443;1.3666;
1269.9000;0.3435;1.3713;
1270.2000;0.3427;1.3689;
1270.5000;0.3435;1.3737;
1270.8000;0.3427;1.3618;
1271.1000;0.3435;1.3523;
1271.4000;0.3435;1.3523;
1271.7000;0.3419;1.3547;
1272.0000;0.3443;1.3666;
1272.3000;0.3443;1.3713;
1272.6000;0.3435;1.3832;
1272.9000;0.3460;1.3855;
1273.2000;0.3460;1.3808;
1273.5000;0.3427;1.3713;
1273.8000;0.3451;1.3618;
1274.1000;0.3451;1.3500;
1274.4000;0.3443;1.3405;
1274.7000;0.3508;1.3642;
1275.0000;0.3411;1.3405;
1275.3000;0.3443;1.3500;
1275.6000;0.3435;1.3405;
1275.9000;0.3419;1.3334;
1276.2000;0.3435;1.3428;
1276.5000;0.3443;1.3500;
1276.8000;0.3460;1.3571;
1277.1000;0.3443;1.3571;
1277.4000;0.3435;1.3642;
1277.7000;0.3443;1.3594;
1278.0000;0.3460;1.3618;
1278.3000;0.3460;1.3618;
1278.6000;0.3443;1.3594;
1278.9000;0.3435;1.3500;
1279.2000;0.3435;1.3500;
1279.5000;0.3500;1.3547;
1279.8000;0.3443;1.3405;
1280.1000;0.3435;1.3381;
1280.4000;0.3443;1.3405;
1280.7000;0.3451;1.3452;
1281.0000;0.3451;1.3428;
1281.3000;0.3460;1.3500;
1281.6000;0.3435;1.3500;
1281.9000;0.3468;1.3571;
1282.2000;0.3451;1.3500;
1282.5000;0.3451;1.3500;
1282.8000;0.3500;1.3666;
1283.1000;0.3386;1.3334;
1283.4000;0.3451;1.3428;
1283.7000;0.3443;1.3405;
1284.0000;0.3443;1.3381;
1284.3000;0.3451;1.3452;
1284.6000;0.3451;1.3452;
1284.9000;0.3451;1.3476;
1285.2000;0.3443;1.3452;
1285.5000;0.3443;1.3523;
1285.8000;0.3508;1.3666;
1286.1000;0.3451;1.3476;
1286.4000;0.3460;1.3500;
1286.7000;0.3500;1.3523;
1287.0000;0.3525;1.3547;
1287.3000;0.3451;1.3452;
1287.6000;0.3451;1.3452;
1287.9000;0.3427;1.3357;
1288.2000;0.3435;1.3381;
1288.5000;0.3427;1.3334;
1288.8000;0.3427;1.3428;
1289.1000;0.3451;1.3500;
1289.4000;0.3460;1.3523;
1289.7000;0.3443;1.3523;
1290.0000;0.3435;1.3594;
1290.3000;0.3435;1.3594;
1290.6000;0.3443;1.3642;
1290.9000;0.3460;1.3642;
1291.2000;0.3435;1.3594;
1291.5000;0.3443;1.3547;
1291.8000;0.3451;1.3642;
1292.1000;0.3468;1.3713;
1292.4000;0.3492;1.3713;
1292.7000;0.3419;1.3594;
1293.0000;0.3443;1.3784;
1293.3000;0.3443;1.3808;
1293.6000;0.3435;1.3784;
1293.9000;0.3427;1.3713;
1294.2000;0.3451;1.3761;
1294.5000;0.3435;1.3713;
1294.8000;0.3427;1.3713;
1295.1000;0.3427;1.3642;
1295.4000;0.3435;1.3666;
1295.7000;0.3468;1.3761;
1296.0000;0.3443;1.3784;
1296.3000;0.3435;1.3761;
1296.6000;0.3435;1.3666;
1296.9000;0.3476;1.3808;
1297.2000;0.3443;1.3737;
1297.5000;0.3435;1.3689;
1297.8000;0.3443;1.3761;
1298.1000;0.3435;1.3761;
1298.4000;0.3451;1.3713;
1298.7000;0.3419;1.3689;
1299.0000;0.3468;1.3761;
1299.3000;0.3443;1.3689;
1299.6000;0.3427;1.3594;
1299.9000;0.3427;1.3618;
1300.2000;0.3451;1.3666;
1300.5000;0.3435;1.3666;
1300.8000;0.3443;1.3713;
1301.1000;0.3451;1.3761;
1301.4000;0.3476;1.3761;
1301.7000;0.3443;1.3689;
1302.0000;0.3468;1.3761;
1302.3000;0.3451;1.3761;
1302.6000;0.3451;1.3784;
1302.9000;0.3451;1.3784;
1303.2000;0.3435;1.3784;
1303.5000;0.3443;1.3832;
1303.8000;0.3443;1.3737;
1304.1000;0.3484;1.3832;
1304.4000;0.3443;1.3689;
1304.7000;0.3451;1.3666;
1305.0000;0.3443;1.3642;
1305.3000;0.3435;1.3571;
1305.6000;0.3451;1.3618;
1305.9000;0.3451;1.3594;
1306.2000;0.3468;1.3642;
1306.5000;0.3411;1.3547;
1306.8000;0.3435;1.3642;
1307.1000;0.3378;1.3381;
1307.4000;0.3443;1.3476;
1307.7000;0.3443;1.3405;
1308.0000;0.3411;1.3428;
1308.3000;0.3435;1.3452;
1308.6000;0.3451;1.3523;
1308.9000;0.3443;1.3547;
1309.2000;0.3427;1.3500;
1309.5000;0.3403;1.3405;
1309.8000;0.3435;1.3523;
1310.1000;0.3427;1.3405;
1310.4000;0.3443;1.3500;
1310.7000;0.3419;1.3476;
1311.0000;0.3451;1.3618;
1311.3000;0.3427;1.3642;
1311.6000;0.3435;1.3618;
1311.9000;0.3451;1.3523;
1312.2000;0.3460;1.3452;
1312.5000;0.3460;1.3476;
1312.8000;0.3427;1.3405;
1313.1000;0.3419;1.3428;
1313.4000;0.3427;1.3523;
1313.7000;0.3451;1.3618;
1314.0000;0.3443;1.3618;
1314.3000;0.3435;1.3642;
1314.6000;0.3435;1.3642;
1314.9000;0.3443;1.3689;
1315.2000;0.3451;1.3594;
1315.5000;0.3427;1.3547;
1315.8000;0.3451;1.3523;
1316.1000;0.3435;1.3476;
1316.4000;0.3427;1.3428;
1316.7000;0.3427;1.3405;
1317.0000;0.3435;1.3500;
1317.3000;0.3443;1.3523;
1317.6000;0.3451;1.3523;
1317.9000;0.3451;1.3618;
1318.2000;0.3435;1.3594;
1318.5000;0.3443;1.3618;
1318.8000;0.3460;1.3642;
1319.1000;0.3443;1.3642;
1319.4000;0.3435;1.3689;
1319.7000;0.3443;1.3618;
1320.0000;0.3435;1.3642;
1320.3000;0.3451;1.3642;
1320.6000;0.3451;1.3689;
1320.9000;0.3419;1.3594;
1321.2000;0.3443;1.3618;
1321.5000;0.3451;1.3689;
1321.8000;0.3427;1.3594;
1322.1000;0.3451;1.3689;
1322.4000;0.3443;1.3784;
1322.7000;0.3451;1.3642;
1323.0000;0.3484;1.3689;
1323.3000;0.3427;1.3571;
1323.6000;0.3443;1.3689;
1323.9000;0.3460;1.3713;
1324.2000;0.3435;1.3713;
1324.5000;0.3419;1.3618;
1324.8000;0.3443;1.3689;
1325.1000;0.3451;1.3737;
1325.4000;0.3451;1.3784;
1325.7000;0.3427;1.3666;
1326.0000;0.3435;1.3666;
1326.3000;0.3443;1.3594;
1326.6000;0.3460;1.3666;
1326.9000;0.3451;1.3784;
1327.2000;0.3451;1.3761;
1327.5000;0.3500;1.3879;
1327.8000;0.3435;1.3761;
1328.1000;0.3435;1.3689;
1328.4000;0.3443;1.3618;
1328.7000;0.3435;1.3618;
1329.0000;0.3460;1.3737;
1329.3000;0.3476;1.3689;
1329.6000;0.3443;1.3571;
1329.9000;0.3451;1.3571;
1330.2000;0.3435;1.3523;
1330.5000;0.3451;1.3547;
1330.8000;0.3427;1.3452;
1331.1000;0.3427;1.3523;
1331.4000;0.3451;1.3571;
1331.7000;0.3443;1.3571;
1332.0000;0.3443;1.3476;
1332.3000;0.3427;1.3452;
1332.6000;0.3451;1.3476;
1332.9000;0.3435;1.3523;
1333.2000;0.3476;1.3547;
1333.5000;0.3468;1.3571;
1333.8000;0.3443;1.3381;
1334.1000;0.3451;1.3286;
1334.4000;0.3362;1.3025;
1334.7000;0.3460;1.3239;
1335.0000;0.3443;1.3215;
1335.3000;0.3451;1.3215;
1335.6000;0.3451;1.3239;
1335.9000;0.3443;1.3167;
1336.2000;0.3492;1.3215;
1336.5000;0.3451;1.3167;
1336.8000;0.3427;1.3120;
1337.1000;0.3451;1.3191;
1337.4000;0.3451;1.3262;
1337.7000;0.3346;1.3001;
1338.0000;0.3468;1.3310;
1338.3000;0.3443;1.3239;
1338.6000;0.3427;1.3239;
1338.9000;0.3468;1.3239;
1339.2000;0.3443;1.3286;
1339.5000;0.3435;1.3286;
1339.8000;0.3435;1.3215;
1340.1000;0.3451;1.3262;
1340.4000;0.3451;1.3262;
1340.7000;0.3443;1.3215;
1341.0000;0.3443;1.3239;
1341.3000;0.3435;1.3215;
1341.6000;0.3460;1.3191;
1341.9000;0.3443;1.3239;
1342.2000;0.3427;1.3239;
1342.5000;0.3451;1.3381;
1342.8000;0.3451;1.3334;
1343.1000;0.3443;1.3381;
1343.4000;0.3443;1.3310;
1343.7000;0.3451;1.3357;
1344.0000;0.3468;1.3428;
1344.3000;0.3460;1.3476;
1344.6000;0.3443;1.3500;
1344.9000;0.3435;1.3452;
1345.2000;0.3451;1.3428;
1345.5000;0.3460;1.3405;
1345.8000;0.3492;1.3523;
1346.1000;0.3427;1.3428;
1346.4000;0.3451;1.3594;
1346.7000;0.3476;1.3547;
1347.0000;0.3468;1.3547;
1347.3000;0.3435;1.3476;
1347.6000;0.3443;1.3500;
1347.9000;0.3443;1.3476;
1348.2000;0.3460;1.3500;
1348.5000;0.3427;1.3452;
1348.8000;0.3427;1.3452;
1349.1000;0.3443;1.3452;
1349.4000;0.3419;1.3381;
1349.7000;0.3443;1.3405;
1350.0000;0.3435;1.3428;
1350.3000;0.3443;1.3452;
1350.6000;0.3427;1.3357;
1350.9000;0.3460;1.3428;
1351.2000;0.3427;1.3405;
1351.5000;0.3435;1.3428;
1351.8000;0.3378;1.3262;
1352.1000;0.3451;1.3500;
1352.4000;0.3460;1.3428;
1352.7000;0.3468;1.3357;
1353.0000;0.3435;1.3262;
1353.3000;0.3460;1.3239;
1353.6000;0.3533;1.3500;
1353.9000;0.3435;1.3262;
1354.2000;0.3443;1.3334;
1354.5000;0.3435;1.3286;
1354.8000;0.3435;1.3262;
1355.1000;0.3427;1.3262;
1355.4000;0.3468;1.3357;
1355.7000;0.3460;1.3215;
1356.0000;0.3451;1.3239;
1356.3000;0.3460;1.3262;
1356.6000;0.3476;1.3286;
1356.9000;0.3451;1.3310;
1357.2000;0.3516;1.3405;
1357.5000;0.3451;1.3239;
1357.8000;0.3468;1.3310;
1358.1000;0.3460;1.3334;
1358.4000;0.3443;1.3357;
1358.7000;0.3443;1.3381;
1359.0000;0.3443;1.3334;
1359.3000;0.3451;1.3239;
1359.6000;0.3451;1.3286;
1359.9000;0.3427;1.3239;
1360.2000;0.3443;1.3215;
1360.5000;0.3443;1.3144;
1360.8000;0.3468;1.3286;
1361.1000;0.3460;1.3262;
1361.4000;0.3451;1.3239;
1361.7000;0.3476;1.3262;
1362.0000;0.3451;1.3191;
1362.3000;0.3443;1.3239;
1362.6000;0.3435;1.3167;
1362.9000;0.3460;1.3215;
1363.2000;0.3500;1.3357;
1363.5000;0.3460;1.3215;
1363.8000;0.3443;1.3191;
1364.1000;0.3484;1.3286;
1364.4000;0.3451;1.3286;
1364.7000;0.3427;1.3262;
1365.0000;0.3443;1.3310;
1365.3000;0.3460;1.3286;
1365.6000;0.3468;1.3334;
1365.9000;0.3460;1.3381;
1366.2000;0.3443;1.3310;
1366.5000;0.3460;1.3405;
1366.8000;0.3468;1.3405;
1367.1000;0.3468;1.3500;
1367.4000;0.3468;1.3594;
1367.7000;0.3451;1.3571;
1368.0000;0.3443;1.3618;
1368.3000;0.3451;1.3547;
1368.6000;0.3468;1.3523;
1368.9000;0.3419;1.3310;
1369.2000;0.3460;1.3405;
1369.5000;0.3451;1.3334;
1369.8000;0.3443;1.3334;
1370.1000;0.3435;1.3476;
1370.4000;0.3451;1.3500;
1370.7000;0.3443;1.3334;
1371.0000;0.3443;1.3286;
1371.3000;0.3476;1.3310;
1371.6000;0.3451;1.3357;
1371.9000;0.3451;1.3381;
1372.2000;0.3451;1.3286;
1372.5000;0.3394;1.3239;
1372.8000;0.3443;1.3405;
1373.1000;0.3443;1.3381;
1373.4000;0.3427;1.3191;
1373.7000;0.3427;1.3215;
1374.0000;0.3435;1.3215;
1374.3000;0.3451;1.3286;
1374.6000;0.3492;1.3357;
1374.9000;0.3435;1.3239;
1375.2000;0.3435;1.3357;
1375.5000;0.3427;1.3334;
1375.8000;0.3435;1.3357;
1376.1000;0.3443;1.3381;
1376.4000;0.3451;1.3357;
1376.7000;0.3427;1.3405;
1377.0000;0.3476;1.3594;
1377.3000;0.3443;1.3594;
1377.6000;0.3427;1.3523;
1377.9000;0.3427;1.3476;
1378.2000;0.3435;1.3500;
1378.5000;0.3443;1.3476;
1378.8000;0.3443;1.3476;
1379.1000;0.3362;1.3239;
1379.4000;0.3443;1.3452;
1379.7000;0.3443;1.3523;
1380.0000;0.3435;1.3500;
1380.3000;0.3443;1.3523;
1380.6000;0.3435;1.3523;
1380.9000;0.3460;1.3571;
1381.2000;0.3443;1.3547;
1381.5000;0.3468;1.3594;
1381.8000;0.3451;1.3500;
1382.1000;0.3460;1.3547;
1382.4000;0.3468;1.3476;
1382.7000;0.3435;1.3500;
1383.0000;0.3460;1.3571;
1383.3000;0.3460;1.3594;
1383.6000;0.3443;1.3500;
1383.9000;0.3435;1.3452;
1384.2000;0.3435;1.3476;
1384.5000;0.3443;1.3428;
1384.8000;0.3443;1.3452;
1385.1000;0.3451;1.3476;
1385.4000;0.3451;1.3476;
1385.7000;0.3443;1.3452;
1386.0000;0.3460;1.3476;
1386.3000;0.3451;1.3547;
1386.6000;0.3460;1.3571;
1386.9000;0.3451;1.3452;
1387.2000;0.3460;1.3500;
1387.5000;0.3468;1.3452;
1387.8000;0.3427;1.3476;
1388.1000;0.3451;1.3571;
1388.4000;0.3460;1.3642;
1388.7000;0.3435;1.3500;
1389.0000;0.3468;1.3500;
1389.3000;0.3451;1.3452;
1389.6000;0.3443;1.3452;
1389.9000;0.3451;1.3500;
1390.2000;0.3451;1.3381;
1390.5000;0.3443;1.3381;
1390.8000;0.3435;1.3357;
1391.1000;0.3443;1.3357;
1391.4000;0.3451;1.3428;
1391.7000;0.3443;1.3452;
1392.0000;0.3460;1.3523;
1392.3000;0.3468;1.3547;
1392.6000;0.3460;1.3500;
1392.9000;0.3460;1.3500;
1393.2000;0.3468;1.3500;
1393.5000;0.3451;1.3428;
1393.8000;0.3419;1.3310;
1394.1000;0.3427;1.3428;
1394.4000;0.3427;1.3286;
1394.7000;0.3411;1.3191;
1395.0000;0.3492;1.3357;
1395.3000;0.3451;1.3239;
1395.6000;0.3443;1.3262;
1395.9000;0.3460;1.3357;
1396.2000;0.3443;1.3405;
1396.5000;0.3460;1.3476;
1396.8000;0.3500;1.3523;
1397.1000;0.3460;1.3500;
1397.4000;0.3460;1.3452;
1397.7000;0.3460;1.3500;
1398.0000;0.3508;1.3571;
1398.3000;0.3451;1.3334;
1398.6000;0.3451;1.3286;
1398.9000;0.3435;1.3310;
1399.2000;0.3435;1.3286;
1399.5000;0.3460;1.3310;
1399.8000;0.3460;1.3405;
