time/ms;Fluo/V;P700 deltaI/I x10³;
-199.8000;0.5397;1.4259;
-199.5000;0.5389;1.4235;
-199.2000;0.5397;1.4259;
-198.9000;0.5397;1.4259;
-198.6000;0.5397;1.4259;
-198.3000;0.5397;1.4211;
-198.0000;0.5397;1.4188;
-197.7000;0.5429;1.4330;
-197.4000;0.5381;1.4259;
-197.1000;0.5405;1.4283;
-196.8000;0.5389;1.4235;
-196.5000;0.5397;1.4283;
-196.2000;0.5381;1.4283;
-195.9000;0.5397;1.4377;
-195.6000;0.5405;1.4377;
-195.3000;0.5397;1.4425;
-195.0000;0.5397;1.4520;
-194.7000;0.5372;1.4401;
-194.4000;0.5389;1.4354;
-194.1000;0.5389;1.4354;
-193.8000;0.5381;1.4235;
-193.5000;0.5381;1.4211;
-193.2000;0.5381;1.4259;
-192.9000;0.5381;1.4283;
-192.6000;0.5389;1.4306;
-192.3000;0.5397;1.4283;
-192.0000;0.5381;1.4259;
-191.7000;0.5381;1.4235;
-191.4000;0.5372;1.4283;
-191.1000;0.5381;1.4306;
-190.8000;0.5372;1.4259;
-190.5000;0.5381;1.4306;
-190.2000;0.5372;1.4330;
-189.9000;0.5381;1.4330;
-189.6000;0.5356;1.4259;
-189.3000;0.5372;1.4283;
-189.0000;0.5381;1.4306;
-188.7000;0.5381;1.4377;
-188.4000;0.5372;1.4425;
-188.1000;0.5389;1.4425;
-187.8000;0.5381;1.4330;
-187.5000;0.5372;1.4354;
-187.2000;0.5372;1.4401;
-186.9000;0.5356;1.4425;
-186.6000;0.5381;1.4449;
-186.3000;0.5389;1.4425;
-186.0000;0.5389;1.4401;
-185.7000;0.5356;1.4330;
-185.4000;0.5389;1.4425;
-185.1000;0.5283;1.4116;
-184.8000;0.5381;1.4401;
-184.5000;0.5438;1.4401;
-184.2000;0.5381;1.4259;
-183.9000;0.5389;1.4306;
-183.6000;0.5381;1.4330;
-183.3000;0.5372;1.4377;
-183.0000;0.5372;1.4449;
-182.7000;0.5478;1.4733;
-182.4000;0.5381;1.4472;
-182.1000;0.5389;1.4496;
-181.8000;0.5372;1.4496;
-181.5000;0.5389;1.4543;
-181.2000;0.5381;1.4591;
-180.9000;0.5381;1.4638;
-180.6000;0.5381;1.4567;
-180.3000;0.5381;1.4543;
-180.0000;0.5389;1.4520;
-179.7000;0.5372;1.4496;
-179.4000;0.5397;1.4615;
-179.1000;0.5405;1.4638;
-178.8000;0.5389;1.4615;
-178.5000;0.5389;1.4591;
-178.2000;0.5381;1.4567;
-177.9000;0.5397;1.4496;
-177.6000;0.5389;1.4425;
-177.3000;0.5381;1.4472;
-177.0000;0.5389;1.4472;
-176.7000;0.5397;1.4425;
-176.4000;0.5381;1.4425;
-176.1000;0.5389;1.4472;
-175.8000;0.5389;1.4425;
-175.5000;0.5340;1.4306;
-175.2000;0.5405;1.4377;
-174.9000;0.5372;1.4283;
-174.6000;0.5397;1.4306;
-174.3000;0.5405;1.4330;
-174.0000;0.5389;1.4449;
-173.7000;0.5397;1.4543;
-173.4000;0.5389;1.4520;
-173.1000;0.5389;1.4401;
-172.8000;0.5397;1.4425;
-172.5000;0.5389;1.4449;
-172.2000;0.5381;1.4496;
-171.9000;0.5397;1.4472;
-171.6000;0.5372;1.4496;
-171.3000;0.5397;1.4520;
-171.0000;0.5405;1.4520;
-170.7000;0.5405;1.4520;
-170.4000;0.5348;1.4449;
-170.1000;0.5397;1.4638;
-169.8000;0.5389;1.4615;
-169.5000;0.5397;1.4591;
-169.2000;0.5389;1.4567;
-168.9000;0.5397;1.4615;
-168.6000;0.5397;1.4638;
-168.3000;0.5389;1.4638;
-168.0000;0.5389;1.4710;
-167.7000;0.5381;1.4733;
-167.4000;0.5364;1.4757;
-167.1000;0.5397;1.4686;
-166.8000;0.5397;1.4615;
-166.5000;0.5381;1.4543;
-166.2000;0.5381;1.4425;
-165.9000;0.5446;1.4449;
-165.6000;0.5389;1.4306;
-165.3000;0.5389;1.4377;
-165.0000;0.5389;1.4472;
-164.7000;0.5381;1.4449;
-164.4000;0.5381;1.4449;
-164.1000;0.5397;1.4496;
-163.8000;0.5389;1.4472;
-163.5000;0.5356;1.4449;
-163.2000;0.5372;1.4401;
-162.9000;0.5381;1.4354;
-162.6000;0.5389;1.4472;
-162.3000;0.5405;1.4425;
-162.0000;0.5372;1.4354;
-161.7000;0.5381;1.4330;
-161.4000;0.5389;1.4330;
-161.1000;0.5381;1.4354;
-160.8000;0.5389;1.4425;
-160.5000;0.5381;1.4377;
-160.2000;0.5389;1.4354;
-159.9000;0.5381;1.4306;
-159.6000;0.5405;1.4449;
-159.3000;0.5389;1.4496;
-159.0000;0.5397;1.4449;
-158.7000;0.5397;1.4377;
-158.4000;0.5381;1.4283;
-158.1000;0.5405;1.4330;
-157.8000;0.5389;1.4330;
-157.5000;0.5454;1.4567;
-157.2000;0.5364;1.4354;
-156.9000;0.5389;1.4449;
-156.6000;0.5364;1.4377;
-156.3000;0.5372;1.4425;
-156.0000;0.5364;1.4401;
-155.7000;0.5348;1.4354;
-155.4000;0.5381;1.4472;
-155.1000;0.5381;1.4472;
-154.8000;0.5397;1.4591;
-154.5000;0.5372;1.4520;
-154.2000;0.5413;1.4615;
-153.9000;0.5405;1.4615;
-153.6000;0.5405;1.4615;
-153.3000;0.5381;1.4567;
-153.0000;0.5397;1.4567;
-152.7000;0.5381;1.4543;
-152.4000;0.5372;1.4449;
-152.1000;0.5397;1.4401;
-151.8000;0.5340;1.4211;
-151.5000;0.5429;1.4472;
-151.2000;0.5381;1.4306;
-150.9000;0.5324;1.4188;
-150.6000;0.5389;1.4330;
-150.3000;0.5364;1.4354;
-150.0000;0.5405;1.4449;
-149.7000;0.5397;1.4377;
-149.4000;0.5389;1.4377;
-149.1000;0.5397;1.4401;
-148.8000;0.5405;1.4496;
-148.5000;0.5405;1.4472;
-148.2000;0.5397;1.4472;
-147.9000;0.5372;1.4425;
-147.6000;0.5438;1.4591;
-147.3000;0.5381;1.4543;
-147.0000;0.5381;1.4496;
-146.7000;0.5389;1.4543;
-146.4000;0.5381;1.4567;
-146.1000;0.5389;1.4638;
-145.8000;0.5389;1.4567;
-145.5000;0.5381;1.4591;
-145.2000;0.5389;1.4662;
-144.9000;0.5381;1.4615;
-144.6000;0.5381;1.4496;
-144.3000;0.5381;1.4520;
-144.0000;0.5405;1.4520;
-143.7000;0.5389;1.4472;
-143.4000;0.5364;1.4425;
-143.1000;0.5372;1.4520;
-142.8000;0.5372;1.4543;
-142.5000;0.5364;1.4472;
-142.2000;0.5381;1.4449;
-141.9000;0.5397;1.4567;
-141.6000;0.5364;1.4496;
-141.3000;0.5389;1.4520;
-141.0000;0.5364;1.4472;
-140.7000;0.5389;1.4615;
-140.4000;0.5389;1.4591;
-140.1000;0.5389;1.4615;
-139.8000;0.5462;1.4710;
-139.5000;0.5381;1.4567;
-139.2000;0.5389;1.4638;
-138.9000;0.5381;1.4662;
-138.6000;0.5389;1.4710;
-138.3000;0.5389;1.4591;
-138.0000;0.5405;1.4615;
-137.7000;0.5348;1.4496;
-137.4000;0.5389;1.4567;
-137.1000;0.5381;1.4567;
-136.8000;0.5389;1.4520;
-136.5000;0.5381;1.4425;
-136.2000;0.5389;1.4520;
-135.9000;0.5389;1.4591;
-135.6000;0.5356;1.4520;
-135.3000;0.5381;1.4520;
-135.0000;0.5381;1.4425;
-134.7000;0.5397;1.4377;
-134.4000;0.5389;1.4496;
-134.1000;0.5381;1.4615;
-133.8000;0.5356;1.4496;
-133.5000;0.5389;1.4496;
-133.2000;0.5381;1.4354;
-132.9000;0.5381;1.4306;
-132.6000;0.5397;1.4211;
-132.3000;0.5397;1.4188;
-132.0000;0.5397;1.4211;
-131.7000;0.5381;1.4306;
-131.4000;0.5397;1.4377;
-131.1000;0.5397;1.4449;
-130.8000;0.5397;1.4496;
-130.5000;0.5381;1.4496;
-130.2000;0.5389;1.4496;
-129.9000;0.5389;1.4472;
-129.6000;0.5405;1.4472;
-129.3000;0.5405;1.4449;
-129.0000;0.5372;1.4425;
-128.7000;0.5381;1.4401;
-128.4000;0.5389;1.4330;
-128.1000;0.5397;1.4377;
-127.8000;0.5381;1.4306;
-127.5000;0.5405;1.4354;
-127.2000;0.5397;1.4306;
-126.9000;0.5389;1.4235;
-126.6000;0.5372;1.4211;
-126.3000;0.5405;1.4330;
-126.0000;0.5381;1.4377;
-125.7000;0.5275;1.4093;
-125.4000;0.5438;1.4425;
-125.1000;0.5381;1.4283;
-124.8000;0.5372;1.4188;
-124.5000;0.5372;1.4235;
-124.2000;0.5381;1.4306;
-123.9000;0.5389;1.4354;
-123.6000;0.5397;1.4377;
-123.3000;0.5381;1.4377;
-123.0000;0.5381;1.4449;
-122.7000;0.5454;1.4567;
-122.4000;0.5381;1.4377;
-122.1000;0.5381;1.4377;
-121.8000;0.5397;1.4306;
-121.5000;0.5429;1.4425;
-121.2000;0.5389;1.4401;
-120.9000;0.5397;1.4377;
-120.6000;0.5389;1.4330;
-120.3000;0.5389;1.4401;
-120.0000;0.5381;1.4354;
-119.7000;0.5397;1.4354;
-119.4000;0.5389;1.4330;
-119.1000;0.5389;1.4401;
-118.8000;0.5372;1.4401;
-118.5000;0.5372;1.4425;
-118.2000;0.5397;1.4425;
-117.9000;0.5364;1.4401;
-117.6000;0.5364;1.4449;
-117.3000;0.5389;1.4591;
-117.0000;0.5397;1.4615;
-116.7000;0.5389;1.4520;
-116.4000;0.5389;1.4472;
-116.1000;0.5381;1.4520;
-115.8000;0.5397;1.4567;
-115.5000;0.5332;1.4377;
-115.2000;0.5381;1.4472;
-114.9000;0.5381;1.4401;
-114.6000;0.5389;1.4425;
-114.3000;0.5413;1.4472;
-114.0000;0.5389;1.4496;
-113.7000;0.5381;1.4425;
-113.4000;0.5389;1.4401;
-113.1000;0.5381;1.4306;
-112.8000;0.5364;1.4164;
-112.5000;0.5389;1.4164;
-112.2000;0.5381;1.4140;
-111.9000;0.5397;1.4164;
-111.6000;0.5307;1.3879;
-111.3000;0.5389;1.4140;
-111.0000;0.5438;1.4330;
-110.7000;0.5405;1.4259;
-110.4000;0.5389;1.4188;
-110.1000;0.5389;1.4235;
-109.8000;0.5405;1.4211;
-109.5000;0.5381;1.4116;
-109.2000;0.5364;1.4140;
-108.9000;0.5405;1.4283;
-108.6000;0.5372;1.4306;
-108.3000;0.5372;1.4354;
-108.0000;0.5405;1.4401;
-107.7000;0.5381;1.4330;
-107.4000;0.5397;1.4259;
-107.1000;0.5389;1.4283;
-106.8000;0.5397;1.4306;
-106.5000;0.5372;1.4235;
-106.2000;0.5372;1.4283;
-105.9000;0.5372;1.4354;
-105.6000;0.5413;1.4425;
-105.3000;0.5356;1.4211;
-105.0000;0.5381;1.4235;
-104.7000;0.5421;1.4377;
-104.4000;0.5324;1.4211;
-104.1000;0.5381;1.4401;
-103.8000;0.5405;1.4543;
-103.5000;0.5397;1.4543;
-103.2000;0.5372;1.4496;
-102.9000;0.5381;1.4425;
-102.6000;0.5372;1.4377;
-102.3000;0.5389;1.4472;
-102.0000;0.5413;1.4496;
-101.7000;0.5332;1.4283;
-101.4000;0.5283;1.4069;
-101.1000;0.5389;1.4306;
-100.8000;0.5372;1.4354;
-100.5000;0.5470;1.4567;
-100.2000;0.5315;1.4235;
-99.9000;0.5389;1.4425;
-99.6000;0.5389;1.4377;
-99.3000;0.5429;1.4449;
-99.0000;0.5397;1.4330;
-98.7000;0.5389;1.4283;
-98.4000;0.5348;1.4188;
-98.1000;0.5381;1.4330;
-97.8000;0.5389;1.4377;
-97.5000;0.5381;1.4283;
-97.2000;0.5372;1.4330;
-96.9000;0.5389;1.4449;
-96.6000;0.5372;1.4496;
-96.3000;0.5389;1.4425;
-96.0000;0.5389;1.4354;
-95.7000;0.5381;1.4306;
-95.4000;0.5389;1.4377;
-95.1000;0.5397;1.4354;
-94.8000;0.5389;1.4283;
-94.5000;0.5397;1.4188;
-94.2000;0.5381;1.4188;
-93.9000;0.5405;1.4330;
-93.6000;0.5372;1.4283;
-93.3000;0.5372;1.4235;
-93.0000;0.5438;1.4283;
-92.7000;0.5389;1.4188;
-92.4000;0.5397;1.4259;
-92.1000;0.5381;1.4330;
-91.8000;0.5372;1.4354;
-91.5000;0.5381;1.4330;
-91.2000;0.5389;1.4259;
-90.9000;0.5372;1.4211;
-90.6000;0.5372;1.4306;
-90.3000;0.5389;1.4449;
-90.0000;0.5397;1.4449;
-89.7000;0.5381;1.4354;
-89.4000;0.5397;1.4377;
-89.1000;0.5405;1.4425;
-88.8000;0.5397;1.4496;
-88.5000;0.5397;1.4472;
-88.2000;0.5438;1.4543;
-87.9000;0.5381;1.4377;
-87.6000;0.5470;1.4591;
-87.3000;0.5389;1.4543;
-87.0000;0.5381;1.4543;
-86.7000;0.5389;1.4520;
-86.4000;0.5372;1.4425;
-86.1000;0.5405;1.4520;
-85.8000;0.5381;1.4449;
-85.5000;0.5462;1.4591;
-85.2000;0.5405;1.4449;
-84.9000;0.5389;1.4496;
-84.6000;0.5397;1.4567;
-84.3000;0.5372;1.4449;
-84.0000;0.5397;1.4567;
-83.7000;0.5397;1.4543;
-83.4000;0.5389;1.4472;
-83.1000;0.5421;1.4520;
-82.8000;0.5381;1.4425;
-82.5000;0.5389;1.4591;
-82.2000;0.5389;1.4662;
-81.9000;0.5397;1.4662;
-81.6000;0.5397;1.4662;
-81.3000;0.5372;1.4543;
-81.0000;0.5389;1.4472;
-80.7000;0.5381;1.4377;
-80.4000;0.5413;1.4401;
-80.1000;0.5389;1.4354;
-79.8000;0.5397;1.4354;
-79.5000;0.5389;1.4306;
-79.2000;0.5397;1.4283;
-78.9000;0.5413;1.4259;
-78.6000;0.5397;1.4140;
-78.3000;0.5381;1.4022;
-78.0000;0.5405;1.4069;
-77.7000;0.5397;1.4164;
-77.4000;0.5405;1.4188;
-77.1000;0.5413;1.4259;
-76.8000;0.5372;1.4259;
-76.5000;0.5389;1.4377;
-76.2000;0.5372;1.4401;
-75.9000;0.5389;1.4496;
-75.6000;0.5372;1.4354;
-75.3000;0.5372;1.4306;
-75.0000;0.5381;1.4306;
-74.7000;0.5381;1.4283;
-74.4000;0.5364;1.4211;
-74.1000;0.5381;1.4259;
-73.8000;0.5389;1.4306;
-73.5000;0.5381;1.4188;
-73.2000;0.5372;1.4259;
-72.9000;0.5389;1.4283;
-72.6000;0.5381;1.4235;
-72.3000;0.5364;1.4140;
-72.0000;0.5397;1.4188;
-71.7000;0.5389;1.4235;
-71.4000;0.5405;1.4188;
-71.1000;0.5389;1.4140;
-70.8000;0.5381;1.4140;
-70.5000;0.5332;1.3998;
-70.2000;0.5397;1.4188;
-69.9000;0.5389;1.4211;
-69.6000;0.5389;1.4259;
-69.3000;0.5397;1.4306;
-69.0000;0.5397;1.4354;
-68.7000;0.5405;1.4377;
-68.4000;0.5381;1.4401;
-68.1000;0.5397;1.4449;
-67.8000;0.5397;1.4377;
-67.5000;0.5381;1.4354;
-67.2000;0.5340;1.4235;
-66.9000;0.5381;1.4377;
-66.6000;0.5372;1.4283;
-66.3000;0.5405;1.4377;
-66.0000;0.5389;1.4449;
-65.7000;0.5405;1.4496;
-65.4000;0.5389;1.4330;
-65.1000;0.5397;1.4354;
-64.8000;0.5389;1.4377;
-64.5000;0.5372;1.4306;
-64.2000;0.5389;1.4283;
-63.9000;0.5397;1.4259;
-63.6000;0.5389;1.4259;
-63.3000;0.5372;1.4211;
-63.0000;0.5364;1.4283;
-62.7000;0.5397;1.4401;
-62.4000;0.5405;1.4425;
-62.1000;0.5381;1.4401;
-61.8000;0.5397;1.4449;
-61.5000;0.5397;1.4496;
-61.2000;0.5429;1.4567;
-60.9000;0.5397;1.4472;
-60.6000;0.5405;1.4520;
-60.3000;0.5381;1.4401;
-60.0000;0.5389;1.4425;
-59.7000;0.5397;1.4377;
-59.4000;0.5405;1.4283;
-59.1000;0.5381;1.4259;
-58.8000;0.5389;1.4449;
-58.5000;0.5348;1.4377;
-58.2000;0.5389;1.4401;
-57.9000;0.5405;1.4425;
-57.6000;0.5389;1.4306;
-57.3000;0.5389;1.4354;
-57.0000;0.5381;1.4377;
-56.7000;0.5381;1.4259;
-56.4000;0.5381;1.4235;
-56.1000;0.5389;1.4259;
-55.8000;0.5389;1.4211;
-55.5000;0.5372;1.4164;
-55.2000;0.5397;1.4211;
-54.9000;0.5405;1.4164;
-54.6000;0.5421;1.4164;
-54.3000;0.5405;1.4116;
-54.0000;0.5372;1.4045;
-53.7000;0.5397;1.4045;
-53.4000;0.5364;1.3998;
-53.1000;0.5364;1.4022;
-52.8000;0.5372;1.4116;
-52.5000;0.5372;1.4235;
-52.2000;0.5405;1.4283;
-51.9000;0.5397;1.4235;
-51.6000;0.5381;1.4259;
-51.3000;0.5372;1.4259;
-51.0000;0.5397;1.4401;
-50.7000;0.5389;1.4306;
-50.4000;0.5397;1.4354;
-50.1000;0.5389;1.4330;
-49.8000;0.5381;1.4306;
-49.5000;0.5372;1.4283;
-49.2000;0.5389;1.4306;
-48.9000;0.5389;1.4306;
-48.6000;0.5413;1.4377;
-48.3000;0.5381;1.4306;
-48.0000;0.5364;1.4259;
-47.7000;0.5372;1.4401;
-47.4000;0.5397;1.4472;
-47.1000;0.5397;1.4543;
-46.8000;0.5429;1.4591;
-46.5000;0.5389;1.4520;
-46.2000;0.5397;1.4496;
-45.9000;0.5397;1.4449;
-45.6000;0.5389;1.4449;
-45.3000;0.5478;1.4757;
-45.0000;0.5381;1.4543;
-44.7000;0.5397;1.4520;
-44.4000;0.5372;1.4449;
-44.1000;0.5381;1.4425;
-43.8000;0.5381;1.4449;
-43.5000;0.5372;1.4449;
-43.2000;0.5389;1.4472;
-42.9000;0.5381;1.4543;
-42.6000;0.5381;1.4520;
-42.3000;0.5389;1.4472;
-42.0000;0.5364;1.4425;
-41.7000;0.5405;1.4425;
-41.4000;0.5397;1.4401;
-41.1000;0.5397;1.4306;
-40.8000;0.5429;1.4425;
-40.5000;0.5389;1.4283;
-40.2000;0.5381;1.4211;
-39.9000;0.5381;1.4188;
-39.6000;0.5381;1.4116;
-39.3000;0.5389;1.4069;
-39.0000;0.5389;1.3903;
-38.7000;0.5381;1.3855;
-38.4000;0.5389;1.3879;
-38.1000;0.5372;1.3879;
-37.8000;0.5372;1.3950;
-37.5000;0.5389;1.4045;
-37.2000;0.5397;1.4045;
-36.9000;0.5438;1.4093;
-36.6000;0.5381;1.3974;
-36.3000;0.5405;1.3974;
-36.0000;0.5413;1.4069;
-35.7000;0.5397;1.3998;
-35.4000;0.5397;1.3974;
-35.1000;0.5389;1.3974;
-34.8000;0.5389;1.3950;
-34.5000;0.5405;1.4069;
-34.2000;0.5389;1.4140;
-33.9000;0.5389;1.4045;
-33.6000;0.5372;1.4069;
-33.3000;0.5381;1.4093;
-33.0000;0.5372;1.3974;
-32.7000;0.5364;1.3974;
-32.4000;0.5413;1.4116;
-32.1000;0.5389;1.4164;
-31.8000;0.5364;1.4188;
-31.5000;0.5397;1.4235;
-31.2000;0.5381;1.4140;
-30.9000;0.5381;1.4093;
-30.6000;0.5291;1.3950;
-30.3000;0.5389;1.4164;
-30.0000;0.5397;1.4164;
-29.7000;0.5389;1.4188;
-29.4000;0.5340;1.4022;
-29.1000;0.5372;1.4093;
-28.8000;0.5364;1.4045;
-28.5000;0.5381;1.4140;
-28.2000;0.5381;1.4116;
-27.9000;0.5389;1.4211;
-27.6000;0.5397;1.4283;
-27.3000;0.5348;1.4306;
-27.0000;0.5397;1.4496;
-26.7000;0.5381;1.4401;
-26.4000;0.5389;1.4425;
-26.1000;0.5381;1.4449;
-25.8000;0.5381;1.4425;
-25.5000;0.5340;1.4259;
-25.2000;0.5389;1.4330;
-24.9000;0.5372;1.4472;
-24.6000;0.5397;1.4567;
-24.3000;0.5389;1.4591;
-24.0000;0.5381;1.4615;
-23.7000;0.5381;1.4543;
-23.4000;0.5405;1.4662;
-23.1000;0.5389;1.4615;
-22.8000;0.5381;1.4591;
-22.5000;0.5340;1.4401;
-22.2000;0.5372;1.4425;
-21.9000;0.5389;1.4472;
-21.6000;0.5389;1.4449;
-21.3000;0.5372;1.4306;
-21.0000;0.5381;1.4330;
-20.7000;0.5397;1.4449;
-20.4000;0.5413;1.4496;
-20.1000;0.5397;1.4449;
-19.8000;0.5446;1.4520;
-19.5000;0.5389;1.4449;
-19.2000;0.5397;1.4496;
-18.9000;0.5389;1.4472;
-18.6000;0.5364;1.4425;
-18.3000;0.5364;1.4449;
-18.0000;0.5446;1.4567;
-17.7000;0.5364;1.4377;
-17.4000;0.5381;1.4425;
-17.1000;0.5364;1.4449;
-16.8000;0.5372;1.4425;
-16.5000;0.5381;1.4425;
-16.2000;0.5381;1.4401;
-15.9000;0.5381;1.4449;
-15.6000;0.5291;1.4164;
-15.3000;0.5381;1.4354;
-15.0000;0.5372;1.4354;
-14.7000;0.5381;1.4425;
-14.4000;0.5389;1.4472;
-14.1000;0.5364;1.4425;
-13.8000;0.5381;1.4520;
-13.5000;0.5372;1.4496;
-13.2000;0.5381;1.4520;
-12.9000;0.5372;1.4425;
-12.6000;0.5372;1.4520;
-12.3000;0.5364;1.4472;
-12.0000;0.5381;1.4520;
-11.7000;0.5413;1.4543;
-11.4000;0.5381;1.4496;
-11.1000;0.5381;1.4520;
-10.8000;0.5340;1.4377;
-10.5000;0.5372;1.4472;
-10.2000;0.5405;1.4449;
-9.9000;0.5372;1.4306;
-9.6000;0.5364;1.4211;
-9.3000;0.5364;1.4188;
-9.0000;0.5397;1.4330;
-8.7000;0.5291;1.4116;
-8.4000;0.5291;1.4164;
-8.1000;0.5397;1.4377;
-7.8000;0.5267;1.4069;
-7.5000;0.5356;1.4306;
-7.2000;0.5364;1.4306;
-6.9000;0.5381;1.4283;
-6.6000;0.5421;1.4449;
-6.3000;0.5372;1.4354;
-6.0000;0.5413;1.4472;
-5.7000;0.5372;1.4496;
-5.4000;0.5454;1.4638;
-5.1000;0.5421;1.4543;
-4.8000;0.5348;1.4330;
-4.5000;0.5397;1.4425;
-4.2000;0.5454;1.4662;
-3.9000;0.5389;1.4520;
-3.6000;0.5381;1.4425;
-3.3000;0.5381;1.4401;
-3.0000;0.5389;1.4283;
-2.7000;0.5397;1.4283;
-2.4000;0.5389;1.4354;
-2.1000;0.5372;1.4259;
-1.8000;0.5389;1.4306;
-1.5000;0.5397;1.4283;
-1.2000;0.5405;1.4306;
-0.9000;0.5405;1.4283;
-0.6000;0.5389;1.4259;
-0.3000;0.5372;1.4235;
0.0000;0.5372;1.4235;
0.3000;0.5454;1.4259;
0.6000;0.5568;1.4472;
0.9000;0.5657;1.4638;
1.2000;0.5714;1.4852;
1.5000;0.5804;1.5160;
1.8000;0.5788;1.5113;
2.1000;0.5845;1.5232;
2.4000;0.5861;1.5326;
2.7000;0.5869;1.5374;
3.0000;0.5902;1.5516;
3.3000;0.5926;1.5659;
3.6000;0.5950;1.5730;
3.9000;0.5950;1.5753;
4.2000;0.5958;1.5753;
4.5000;0.5975;1.5801;
4.8000;0.5991;1.5777;
5.1000;0.6007;1.5920;
5.4000;0.6015;1.5825;
5.7000;0.6007;1.5872;
6.0000;0.6040;1.6014;
6.3000;0.6015;1.5991;
6.6000;0.6048;1.6062;
6.9000;0.6040;1.6038;
7.2000;0.6113;1.6228;
7.5000;0.6081;1.6133;
7.8000;0.6056;1.5991;
8.1000;0.5983;1.5753;
8.4000;0.6072;1.6062;
8.7000;0.6105;1.6109;
9.0000;0.6113;1.6086;
9.3000;0.6154;1.6204;
9.6000;0.6105;1.6109;
9.9000;0.6138;1.6204;
10.2000;0.6146;1.6275;
10.5000;0.6154;1.6275;
10.8000;0.6146;1.6323;
11.1000;0.6154;1.6370;
11.4000;0.6113;1.6275;
11.7000;0.6138;1.6370;
12.0000;0.6146;1.6347;
12.3000;0.6162;1.6370;
12.6000;0.6146;1.6347;
12.9000;0.6138;1.6252;
13.2000;0.6154;1.6323;
13.5000;0.6178;1.6394;
13.8000;0.6195;1.6442;
14.1000;0.6170;1.6394;
14.4000;0.6154;1.6299;
14.7000;0.6178;1.6394;
15.0000;0.6178;1.6489;
15.3000;0.6203;1.6513;
15.6000;0.6129;1.6370;
15.9000;0.6203;1.6608;
16.2000;0.6186;1.6489;
16.5000;0.6195;1.6442;
16.8000;0.6195;1.6394;
17.1000;0.6203;1.6370;
17.4000;0.6227;1.6347;
17.7000;0.6219;1.6370;
18.0000;0.6235;1.6394;
18.3000;0.6211;1.6370;
18.6000;0.6235;1.6347;
18.9000;0.6227;1.6323;
19.2000;0.6235;1.6323;
19.5000;0.6219;1.6370;
19.8000;0.6235;1.6442;
20.1000;0.6260;1.6513;
20.4000;0.6227;1.6513;
20.7000;0.6235;1.6513;
21.0000;0.6243;1.6442;
21.3000;0.6252;1.6394;
21.6000;0.6260;1.6442;
21.9000;0.6227;1.6418;
22.2000;0.6243;1.6442;
22.5000;0.6268;1.6465;
22.8000;0.6252;1.6442;
23.1000;0.6235;1.6394;
23.4000;0.6260;1.6394;
23.7000;0.6276;1.6370;
24.0000;0.6268;1.6299;
24.3000;0.6284;1.6323;
24.6000;0.6268;1.6299;
24.9000;0.6268;1.6275;
25.2000;0.6276;1.6275;
25.5000;0.6260;1.6228;
25.8000;0.6276;1.6228;
26.1000;0.6300;1.6299;
26.4000;0.6268;1.6204;
26.7000;0.6284;1.6133;
27.0000;0.6243;1.6038;
27.3000;0.6292;1.6252;
27.6000;0.6276;1.6204;
27.9000;0.6252;1.6157;
28.2000;0.6235;1.6109;
28.5000;0.6284;1.6228;
28.8000;0.6284;1.6228;
29.1000;0.6284;1.6228;
29.4000;0.6292;1.6228;
29.7000;0.6268;1.6252;
30.0000;0.6300;1.6275;
30.3000;0.6252;1.6299;
30.6000;0.6300;1.6418;
30.9000;0.6292;1.6442;
31.2000;0.6284;1.6323;
31.5000;0.6300;1.6299;
31.8000;0.6300;1.6347;
32.1000;0.6268;1.6275;
32.4000;0.6276;1.6228;
32.7000;0.6284;1.6181;
33.0000;0.6333;1.6228;
33.3000;0.6227;1.6014;
33.6000;0.6292;1.6157;
33.9000;0.6309;1.6275;
34.2000;0.6292;1.6323;
34.5000;0.6300;1.6275;
34.8000;0.6292;1.6133;
35.1000;0.6300;1.6157;
35.4000;0.6333;1.6228;
35.7000;0.6300;1.6228;
36.0000;0.6317;1.6275;
36.3000;0.6309;1.6323;
36.6000;0.6317;1.6370;
36.9000;0.6300;1.6323;
37.2000;0.6309;1.6299;
37.5000;0.6309;1.6347;
37.8000;0.6309;1.6252;
38.1000;0.6300;1.6228;
38.4000;0.6300;1.6252;
38.7000;0.6292;1.6204;
39.0000;0.6292;1.6252;
39.3000;0.6292;1.6323;
39.6000;0.6300;1.6299;
39.9000;0.6300;1.6323;
40.2000;0.6317;1.6252;
40.5000;0.6333;1.6370;
40.8000;0.6284;1.6299;
41.1000;0.6292;1.6323;
41.4000;0.6317;1.6275;
41.7000;0.6398;1.6465;
42.0000;0.6317;1.6347;
42.3000;0.6292;1.6228;
42.6000;0.6317;1.6252;
42.9000;0.6300;1.6299;
43.2000;0.6309;1.6323;
43.5000;0.6349;1.6489;
43.8000;0.6309;1.6370;
44.1000;0.6341;1.6465;
44.4000;0.6309;1.6442;
44.7000;0.6309;1.6347;
45.0000;0.6300;1.6299;
45.3000;0.6317;1.6370;
45.6000;0.6325;1.6323;
45.9000;0.6309;1.6275;
46.2000;0.6309;1.6252;
46.5000;0.6325;1.6228;
46.8000;0.6317;1.6275;
47.1000;0.6309;1.6323;
47.4000;0.6300;1.6323;
47.7000;0.6300;1.6323;
48.0000;0.6333;1.6370;
48.3000;0.6300;1.6275;
48.6000;0.6309;1.6228;
48.9000;0.6317;1.6275;
49.2000;0.6317;1.6299;
49.5000;0.6325;1.6323;
49.8000;0.6325;1.6394;
50.1000;0.6284;1.6252;
50.4000;0.6325;1.6370;
50.7000;0.6317;1.6347;
51.0000;0.6300;1.6252;
51.3000;0.6284;1.6323;
51.6000;0.6325;1.6370;
51.9000;0.6317;1.6394;
52.2000;0.6268;1.6157;
52.5000;0.6260;1.6157;
52.8000;0.6365;1.6347;
53.1000;0.6333;1.6252;
53.4000;0.6317;1.6252;
53.7000;0.6292;1.6275;
54.0000;0.6227;1.6181;
54.3000;0.6357;1.6442;
54.6000;0.6325;1.6370;
54.9000;0.6341;1.6489;
55.2000;0.6333;1.6489;
55.5000;0.6382;1.6584;
55.8000;0.6317;1.6418;
56.1000;0.6300;1.6370;
56.4000;0.6325;1.6370;
56.7000;0.6333;1.6370;
57.0000;0.6317;1.6394;
57.3000;0.6309;1.6394;
57.6000;0.6317;1.6370;
57.9000;0.6341;1.6347;
58.2000;0.6325;1.6275;
58.5000;0.6317;1.6204;
58.8000;0.6317;1.6252;
59.1000;0.6333;1.6323;
59.4000;0.6333;1.6370;
59.7000;0.6325;1.6323;
60.0000;0.6325;1.6323;
60.3000;0.6349;1.6418;
60.6000;0.6357;1.6489;
60.9000;0.6333;1.6442;
61.2000;0.6333;1.6442;
61.5000;0.6325;1.6370;
61.8000;0.6333;1.6323;
62.1000;0.6341;1.6252;
62.4000;0.6227;1.5991;
62.7000;0.6309;1.6204;
63.0000;0.6333;1.6228;
63.3000;0.6325;1.6228;
63.6000;0.6227;1.6109;
63.9000;0.6325;1.6228;
64.2000;0.6317;1.6228;
64.5000;0.6325;1.6275;
64.8000;0.6325;1.6204;
65.1000;0.6325;1.6181;
65.4000;0.6333;1.6299;
65.7000;0.6325;1.6252;
66.0000;0.6325;1.6275;
66.3000;0.6333;1.6275;
66.6000;0.6317;1.6133;
66.9000;0.6341;1.6252;
67.2000;0.6325;1.6228;
67.5000;0.6325;1.6181;
67.8000;0.6317;1.6181;
68.1000;0.6341;1.6252;
68.4000;0.6333;1.6252;
68.7000;0.6317;1.6252;
69.0000;0.6325;1.6299;
69.3000;0.6317;1.6394;
69.6000;0.6349;1.6489;
69.9000;0.6325;1.6442;
70.2000;0.6317;1.6465;
70.5000;0.6325;1.6513;
70.8000;0.6349;1.6513;
71.1000;0.6333;1.6442;
71.4000;0.6333;1.6370;
71.7000;0.6341;1.6323;
72.0000;0.6252;1.6062;
72.3000;0.6325;1.6275;
72.6000;0.6300;1.6299;
72.9000;0.6325;1.6394;
73.2000;0.6333;1.6370;
73.5000;0.6341;1.6418;
73.8000;0.6341;1.6465;
74.1000;0.6325;1.6418;
74.4000;0.6341;1.6394;
74.7000;0.6325;1.6275;
75.0000;0.6235;1.6014;
75.3000;0.6325;1.6275;
75.6000;0.6317;1.6299;
75.9000;0.6325;1.6275;
76.2000;0.6333;1.6204;
76.5000;0.6325;1.6109;
76.8000;0.6317;1.6086;
77.1000;0.6309;1.6086;
77.4000;0.6317;1.6133;
77.7000;0.6309;1.6157;
78.0000;0.6309;1.6109;
78.3000;0.6325;1.6062;
78.6000;0.6341;1.6204;
78.9000;0.6325;1.6252;
79.2000;0.6317;1.6275;
79.5000;0.6341;1.6299;
79.8000;0.6414;1.6608;
80.1000;0.6333;1.6370;
80.4000;0.6333;1.6323;
80.7000;0.6317;1.6299;
81.0000;0.6333;1.6299;
81.3000;0.6357;1.6418;
81.6000;0.6341;1.6370;
81.9000;0.6325;1.6299;
82.2000;0.6317;1.6275;
82.5000;0.6317;1.6299;
82.8000;0.6333;1.6299;
83.1000;0.6333;1.6252;
83.4000;0.6341;1.6228;
83.7000;0.6349;1.6204;
84.0000;0.6333;1.6204;
84.3000;0.6325;1.6133;
84.6000;0.6333;1.6181;
84.9000;0.6325;1.6181;
85.2000;0.6341;1.6204;
85.5000;0.6333;1.6181;
85.8000;0.6325;1.6157;
86.1000;0.6333;1.6275;
86.4000;0.6349;1.6347;
86.7000;0.6341;1.6299;
87.0000;0.6317;1.6204;
87.3000;0.6325;1.6252;
87.6000;0.6325;1.6299;
87.9000;0.6309;1.6204;
88.2000;0.6317;1.6181;
88.5000;0.6300;1.6275;
88.8000;0.6317;1.6323;
89.1000;0.6317;1.6275;
89.4000;0.6309;1.6370;
89.7000;0.6333;1.6323;
90.0000;0.6341;1.6323;
90.3000;0.6333;1.6252;
90.6000;0.6325;1.6252;
90.9000;0.6317;1.6275;
91.2000;0.6325;1.6252;
91.5000;0.6325;1.6204;
91.8000;0.6325;1.6204;
92.1000;0.6333;1.6204;
92.4000;0.6333;1.6252;
92.7000;0.6325;1.6252;
93.0000;0.6333;1.6323;
93.3000;0.6333;1.6299;
93.6000;0.6325;1.6275;
93.9000;0.6325;1.6299;
94.2000;0.6325;1.6347;
94.5000;0.6349;1.6370;
94.8000;0.6341;1.6418;
95.1000;0.6357;1.6418;
95.4000;0.6341;1.6394;
95.7000;0.6333;1.6275;
96.0000;0.6349;1.6204;
96.3000;0.6333;1.6228;
96.6000;0.6341;1.6157;
96.9000;0.6317;1.6181;
97.2000;0.6325;1.6299;
97.5000;0.6333;1.6299;
97.8000;0.6333;1.6181;
98.1000;0.6317;1.6157;
98.4000;0.6325;1.6181;
98.7000;0.6341;1.6109;
99.0000;0.6349;1.6157;
99.3000;0.6382;1.6204;
99.6000;0.6333;1.6133;
99.9000;0.6317;1.6228;
100.2000;0.6325;1.6181;
100.5000;0.6325;1.6109;
100.8000;0.6317;1.6109;
101.1000;0.6325;1.6133;
101.4000;0.6325;1.6157;
101.7000;0.6317;1.6157;
102.0000;0.6309;1.6157;
102.3000;0.6325;1.6204;
102.6000;0.6325;1.6133;
102.9000;0.6341;1.6014;
103.2000;0.6235;1.5777;
103.5000;0.6325;1.6014;
103.8000;0.6349;1.6086;
104.1000;0.6349;1.6086;
104.4000;0.6300;1.6038;
104.7000;0.6325;1.6133;
105.0000;0.6349;1.6252;
105.3000;0.6349;1.6204;
105.6000;0.6341;1.6086;
105.9000;0.6317;1.6062;
106.2000;0.6374;1.6204;
106.5000;0.6341;1.6157;
106.8000;0.6333;1.6228;
107.1000;0.6317;1.6252;
107.4000;0.6333;1.6299;
107.7000;0.6341;1.6299;
108.0000;0.6309;1.6275;
108.3000;0.6325;1.6347;
108.6000;0.6317;1.6347;
108.9000;0.6349;1.6299;
109.2000;0.6341;1.6204;
109.5000;0.6349;1.6275;
109.8000;0.6284;1.6157;
110.1000;0.6325;1.6299;
110.4000;0.6333;1.6347;
110.7000;0.6374;1.6465;
111.0000;0.6317;1.6370;
111.3000;0.6325;1.6323;
111.6000;0.6341;1.6370;
111.9000;0.6333;1.6299;
112.2000;0.6333;1.6299;
112.5000;0.6333;1.6323;
112.8000;0.6325;1.6323;
113.1000;0.6357;1.6299;
113.4000;0.6333;1.6181;
113.7000;0.6317;1.6204;
114.0000;0.6341;1.6323;
114.3000;0.6349;1.6323;
114.6000;0.6333;1.6181;
114.9000;0.6341;1.6109;
115.2000;0.6341;1.6086;
115.5000;0.6349;1.6181;
115.8000;0.6333;1.6228;
116.1000;0.6341;1.6370;
116.4000;0.6382;1.6489;
116.7000;0.6333;1.6299;
117.0000;0.6325;1.6370;
117.3000;0.6325;1.6347;
117.6000;0.6341;1.6347;
117.9000;0.6341;1.6228;
118.2000;0.6357;1.6323;
118.5000;0.6317;1.6228;
118.8000;0.6349;1.6299;
119.1000;0.6349;1.6299;
119.4000;0.6341;1.6299;
119.7000;0.6325;1.6252;
120.0000;0.6349;1.6275;
120.3000;0.6325;1.6299;
120.6000;0.6309;1.6086;
120.9000;0.6325;1.6204;
121.2000;0.6309;1.6323;
121.5000;0.6341;1.6370;
121.8000;0.6349;1.6299;
122.1000;0.6276;1.6109;
122.4000;0.6398;1.6465;
122.7000;0.6333;1.6323;
123.0000;0.6333;1.6323;
123.3000;0.6309;1.6228;
123.6000;0.6349;1.6181;
123.9000;0.6317;1.6109;
124.2000;0.6357;1.6181;
124.5000;0.6284;1.6062;
124.8000;0.6333;1.6109;
125.1000;0.6276;1.6014;
125.4000;0.6439;1.6442;
125.7000;0.6333;1.6133;
126.0000;0.6317;1.6133;
126.3000;0.6325;1.6157;
126.6000;0.6333;1.6252;
126.9000;0.6333;1.6275;
127.2000;0.6309;1.6204;
127.5000;0.6317;1.6157;
127.8000;0.6357;1.6252;
128.1000;0.6309;1.6133;
128.4000;0.6317;1.6181;
128.7000;0.6292;1.6252;
129.0000;0.6325;1.6370;
129.3000;0.6341;1.6347;
129.6000;0.6317;1.6204;
129.9000;0.6333;1.6204;
130.2000;0.6333;1.6275;
130.5000;0.6341;1.6275;
130.8000;0.6357;1.6299;
131.1000;0.6333;1.6275;
131.4000;0.6325;1.6252;
131.7000;0.6333;1.6181;
132.0000;0.6317;1.6157;
132.3000;0.6325;1.6062;
132.6000;0.6309;1.6062;
132.9000;0.6325;1.6062;
133.2000;0.6325;1.6086;
133.5000;0.6333;1.6133;
133.8000;0.6300;1.6109;
134.1000;0.6317;1.6181;
134.4000;0.6333;1.6181;
134.7000;0.6349;1.6228;
135.0000;0.6333;1.6133;
135.3000;0.6357;1.6228;
135.6000;0.6333;1.6157;
135.9000;0.6341;1.6323;
136.2000;0.6333;1.6323;
136.5000;0.6325;1.6347;
136.8000;0.6341;1.6418;
137.1000;0.6349;1.6465;
137.4000;0.6333;1.6489;
137.7000;0.6300;1.6347;
138.0000;0.6341;1.6465;
138.3000;0.6349;1.6465;
138.6000;0.6300;1.6323;
138.9000;0.6333;1.6323;
139.2000;0.6357;1.6323;
139.5000;0.6349;1.6275;
139.8000;0.6325;1.6299;
140.1000;0.6333;1.6252;
140.4000;0.6333;1.6275;
140.7000;0.6341;1.6228;
141.0000;0.6317;1.6228;
141.3000;0.6309;1.6204;
141.6000;0.6268;1.6157;
141.9000;0.6325;1.6275;
142.2000;0.6333;1.6275;
142.5000;0.6317;1.6228;
142.8000;0.6325;1.6252;
143.1000;0.6325;1.6275;
143.4000;0.6333;1.6204;
143.7000;0.6317;1.6204;
144.0000;0.6317;1.6133;
144.3000;0.6300;1.6133;
144.6000;0.6317;1.6133;
144.9000;0.6341;1.6133;
145.2000;0.6325;1.6228;
145.5000;0.6341;1.6252;
145.8000;0.6333;1.6204;
146.1000;0.6357;1.6275;
146.4000;0.6292;1.6086;
146.7000;0.6325;1.6109;
147.0000;0.6333;1.6133;
147.3000;0.6268;1.6014;
147.6000;0.6317;1.6109;
147.9000;0.6341;1.6204;
148.2000;0.6211;1.5825;
148.5000;0.6333;1.6157;
148.8000;0.6325;1.6157;
149.1000;0.6341;1.6204;
149.4000;0.6325;1.6204;
149.7000;0.6333;1.6228;
150.0000;0.6260;1.5920;
150.3000;0.6333;1.6181;
150.6000;0.6341;1.6204;
150.9000;0.6341;1.6252;
151.2000;0.6219;1.5848;
151.5000;0.6300;1.6062;
151.8000;0.6317;1.6014;
152.1000;0.6333;1.6133;
152.4000;0.6300;1.6157;
152.7000;0.6317;1.6204;
153.0000;0.6325;1.6204;
153.3000;0.6333;1.6204;
153.6000;0.6325;1.6204;
153.9000;0.6341;1.6204;
154.2000;0.6333;1.6157;
154.5000;0.6382;1.6299;
154.8000;0.6325;1.6228;
155.1000;0.6333;1.6299;
155.4000;0.6325;1.6370;
155.7000;0.6357;1.6418;
156.0000;0.6309;1.6252;
156.3000;0.6325;1.6275;
156.6000;0.6390;1.6394;
156.9000;0.6333;1.6228;
157.2000;0.6341;1.6204;
157.5000;0.6341;1.6181;
157.8000;0.6317;1.6252;
158.1000;0.6317;1.6299;
158.4000;0.6333;1.6347;
158.7000;0.6325;1.6299;
159.0000;0.6309;1.6204;
159.3000;0.6333;1.6347;
159.6000;0.6309;1.6370;
159.9000;0.6333;1.6489;
160.2000;0.6333;1.6442;
160.5000;0.6325;1.6442;
160.8000;0.6333;1.6394;
161.1000;0.6333;1.6323;
161.4000;0.6300;1.6252;
161.7000;0.6325;1.6299;
162.0000;0.6325;1.6347;
162.3000;0.6365;1.6394;
162.6000;0.6357;1.6347;
162.9000;0.6317;1.6181;
163.2000;0.6325;1.6228;
163.5000;0.6390;1.6370;
163.8000;0.6333;1.6133;
164.1000;0.6292;1.6109;
164.4000;0.6309;1.6062;
164.7000;0.6317;1.6014;
165.0000;0.6325;1.6157;
165.3000;0.6260;1.5991;
165.6000;0.6325;1.6157;
165.9000;0.6349;1.6204;
166.2000;0.6317;1.6228;
166.5000;0.6325;1.6252;
166.8000;0.6317;1.6228;
167.1000;0.6300;1.6228;
167.4000;0.6349;1.6370;
167.7000;0.6317;1.6323;
168.0000;0.6309;1.6323;
168.3000;0.6325;1.6370;
168.6000;0.6333;1.6347;
168.9000;0.6325;1.6370;
169.2000;0.6317;1.6299;
169.5000;0.6325;1.6252;
169.8000;0.6325;1.6157;
170.1000;0.6276;1.6062;
170.4000;0.6325;1.6181;
170.7000;0.6317;1.6299;
171.0000;0.6325;1.6323;
171.3000;0.6211;1.5991;
171.6000;0.6325;1.6347;
171.9000;0.6309;1.6275;
172.2000;0.6317;1.6228;
172.5000;0.6333;1.6275;
172.8000;0.6325;1.6228;
173.1000;0.6325;1.6252;
173.4000;0.6333;1.6252;
173.7000;0.6325;1.6228;
174.0000;0.6317;1.6275;
174.3000;0.6333;1.6323;
174.6000;0.6317;1.6323;
174.9000;0.6325;1.6370;
175.2000;0.6325;1.6394;
175.5000;0.6309;1.6442;
175.8000;0.6325;1.6442;
176.1000;0.6300;1.6418;
176.4000;0.6309;1.6418;
176.7000;0.6309;1.6442;
177.0000;0.6309;1.6370;
177.3000;0.6309;1.6394;
177.6000;0.6292;1.6394;
177.9000;0.6325;1.6370;
178.2000;0.6325;1.6370;
178.5000;0.6309;1.6347;
178.8000;0.6317;1.6347;
179.1000;0.6300;1.6252;
179.4000;0.6276;1.6109;
179.7000;0.6325;1.6157;
180.0000;0.6341;1.6157;
180.3000;0.6333;1.6181;
180.6000;0.6325;1.6157;
180.9000;0.6325;1.6157;
181.2000;0.6341;1.6228;
181.5000;0.6325;1.6252;
181.8000;0.6317;1.6252;
182.1000;0.6317;1.6181;
182.4000;0.6325;1.6228;
182.7000;0.6325;1.6204;
183.0000;0.6300;1.6181;
183.3000;0.6309;1.6228;
183.6000;0.6309;1.6204;
183.9000;0.6317;1.6252;
184.2000;0.6341;1.6347;
184.5000;0.6300;1.6323;
184.8000;0.6276;1.6252;
185.1000;0.6325;1.6394;
185.4000;0.6309;1.6370;
185.7000;0.6325;1.6275;
186.0000;0.6333;1.6323;
186.3000;0.6284;1.6228;
186.6000;0.6260;1.6228;
186.9000;0.6309;1.6394;
187.2000;0.6317;1.6418;
187.5000;0.6341;1.6418;
187.8000;0.6333;1.6370;
188.1000;0.6317;1.6347;
188.4000;0.6317;1.6418;
188.7000;0.6325;1.6418;
189.0000;0.6325;1.6347;
189.3000;0.6333;1.6370;
189.6000;0.6333;1.6299;
189.9000;0.6325;1.6370;
190.2000;0.6325;1.6418;
190.5000;0.6341;1.6465;
190.8000;0.6341;1.6418;
191.1000;0.6333;1.6394;
191.4000;0.6325;1.6394;
191.7000;0.6325;1.6299;
192.0000;0.6300;1.6228;
192.3000;0.6317;1.6228;
192.6000;0.6317;1.6252;
192.9000;0.6292;1.6228;
193.2000;0.6317;1.6323;
193.5000;0.6325;1.6275;
193.8000;0.6325;1.6394;
194.1000;0.6317;1.6394;
194.4000;0.6309;1.6418;
194.7000;0.6317;1.6442;
195.0000;0.6317;1.6418;
195.3000;0.6292;1.6299;
195.6000;0.6317;1.6323;
195.9000;0.6309;1.6275;
196.2000;0.6300;1.6323;
196.5000;0.6309;1.6347;
196.8000;0.6300;1.6394;
197.1000;0.6317;1.6370;
197.4000;0.6300;1.6299;
197.7000;0.6325;1.6323;
198.0000;0.6317;1.6275;
198.3000;0.6309;1.6252;
198.6000;0.6333;1.6204;
198.9000;0.6317;1.6228;
199.2000;0.6317;1.6323;
199.5000;0.6325;1.6323;
199.8000;0.6325;1.6299;
200.1000;0.6325;1.6323;
200.4000;0.6333;1.6275;
200.7000;0.6325;1.6228;
201.0000;0.6325;1.6252;
201.3000;0.6317;1.6228;
201.6000;0.6325;1.6181;
201.9000;0.6317;1.6157;
202.2000;0.6325;1.6275;
202.5000;0.6325;1.6299;
202.8000;0.6317;1.6252;
203.1000;0.6349;1.6418;
203.4000;0.6317;1.6299;
203.7000;0.6292;1.6181;
204.0000;0.6325;1.6252;
204.3000;0.6309;1.6228;
204.6000;0.6325;1.6204;
204.9000;0.6317;1.6228;
205.2000;0.6325;1.6323;
205.5000;0.6292;1.6204;
205.8000;0.6276;1.6181;
206.1000;0.6309;1.6323;
206.4000;0.6309;1.6370;
206.7000;0.6365;1.6489;
207.0000;0.6309;1.6347;
207.3000;0.6292;1.6323;
207.6000;0.6300;1.6442;
207.9000;0.6325;1.6560;
208.2000;0.6325;1.6584;
208.5000;0.6300;1.6513;
208.8000;0.6292;1.6489;
209.1000;0.6325;1.6584;
209.4000;0.6292;1.6442;
209.7000;0.6357;1.6513;
210.0000;0.6300;1.6370;
210.3000;0.6284;1.6275;
210.6000;0.6325;1.6370;
210.9000;0.6317;1.6370;
211.2000;0.6317;1.6370;
211.5000;0.6325;1.6323;
211.8000;0.6300;1.6228;
212.1000;0.6243;1.6014;
212.4000;0.6300;1.6228;
212.7000;0.6300;1.6275;
213.0000;0.6268;1.6133;
213.3000;0.6309;1.6133;
213.6000;0.6309;1.6157;
213.9000;0.6317;1.6228;
214.2000;0.6284;1.6157;
214.5000;0.6292;1.6204;
214.8000;0.6300;1.6109;
215.1000;0.6268;1.6133;
215.4000;0.6317;1.6228;
215.7000;0.6317;1.6299;
216.0000;0.6292;1.6275;
216.3000;0.6284;1.6181;
216.6000;0.6309;1.6299;
216.9000;0.6325;1.6323;
217.2000;0.6333;1.6347;
217.5000;0.6309;1.6252;
217.8000;0.6325;1.6275;
218.1000;0.6235;1.6133;
218.4000;0.6390;1.6489;
218.7000;0.6300;1.6252;
219.0000;0.6317;1.6252;
219.3000;0.6309;1.6252;
219.6000;0.6317;1.6252;
219.9000;0.6317;1.6204;
220.2000;0.6317;1.6181;
220.5000;0.6325;1.6181;
220.8000;0.6317;1.6181;
221.1000;0.6252;1.6109;
221.4000;0.6309;1.6252;
221.7000;0.6325;1.6275;
222.0000;0.6309;1.6323;
222.3000;0.6292;1.6347;
222.6000;0.6292;1.6370;
222.9000;0.6292;1.6394;
223.2000;0.6292;1.6370;
223.5000;0.6333;1.6442;
223.8000;0.6317;1.6323;
224.1000;0.6349;1.6465;
224.4000;0.6317;1.6299;
224.7000;0.6309;1.6252;
225.0000;0.6292;1.6133;
225.3000;0.6300;1.6086;
225.6000;0.6333;1.6109;
225.9000;0.6309;1.6086;
226.2000;0.6292;1.6109;
226.5000;0.6309;1.6157;
226.8000;0.6317;1.6181;
227.1000;0.6300;1.6062;
227.4000;0.6317;1.6133;
227.7000;0.6333;1.6204;
228.0000;0.6317;1.6228;
228.3000;0.6300;1.6204;
228.6000;0.6317;1.6133;
228.9000;0.6300;1.6038;
229.2000;0.6317;1.6204;
229.5000;0.6284;1.6157;
229.8000;0.6325;1.6252;
230.1000;0.6325;1.6204;
230.4000;0.6309;1.6109;
230.7000;0.6325;1.6181;
231.0000;0.6325;1.6275;
231.3000;0.6325;1.6299;
231.6000;0.6300;1.6347;
231.9000;0.6300;1.6418;
232.2000;0.6300;1.6323;
232.5000;0.6300;1.6347;
232.8000;0.6276;1.6347;
233.1000;0.6325;1.6347;
233.4000;0.6300;1.6323;
233.7000;0.6414;1.6536;
234.0000;0.6300;1.6181;
234.3000;0.6235;1.6062;
234.6000;0.6309;1.6252;
234.9000;0.6300;1.6275;
235.2000;0.6292;1.6228;
235.5000;0.6300;1.6157;
235.8000;0.6317;1.6252;
236.1000;0.6292;1.6299;
236.4000;0.6292;1.6323;
236.7000;0.6300;1.6347;
237.0000;0.6300;1.6299;
237.3000;0.6243;1.6204;
237.6000;0.6309;1.6394;
237.9000;0.6309;1.6442;
238.2000;0.6300;1.6370;
238.5000;0.6325;1.6418;
238.8000;0.6317;1.6323;
239.1000;0.6325;1.6299;
239.4000;0.6317;1.6204;
239.7000;0.6325;1.6181;
240.0000;0.6422;1.6489;
240.3000;0.6406;1.6489;
240.6000;0.6284;1.6275;
240.9000;0.6300;1.6299;
241.2000;0.6300;1.6394;
241.5000;0.6292;1.6323;
241.8000;0.6300;1.6323;
242.1000;0.6211;1.6133;
242.4000;0.6309;1.6442;
242.7000;0.6317;1.6465;
243.0000;0.6292;1.6442;
243.3000;0.6309;1.6465;
243.6000;0.6333;1.6513;
243.9000;0.6300;1.6442;
244.2000;0.6292;1.6442;
244.5000;0.6276;1.6323;
244.8000;0.6309;1.6370;
245.1000;0.6235;1.6275;
245.4000;0.6260;1.6299;
245.7000;0.6284;1.6347;
246.0000;0.6300;1.6370;
246.3000;0.6309;1.6323;
246.6000;0.6309;1.6252;
246.9000;0.6268;1.6157;
247.2000;0.6309;1.6299;
247.5000;0.6300;1.6299;
247.8000;0.6309;1.6252;
248.1000;0.6317;1.6252;
248.4000;0.6309;1.6228;
248.7000;0.6317;1.6275;
249.0000;0.6309;1.6204;
249.3000;0.6309;1.6157;
249.6000;0.6349;1.6181;
249.9000;0.6317;1.6086;
250.2000;0.6357;1.6133;
250.5000;0.6317;1.5991;
250.8000;0.6317;1.5943;
251.1000;0.6333;1.5967;
251.4000;0.6300;1.5896;
251.7000;0.6260;1.5848;
252.0000;0.6284;1.6014;
252.3000;0.6284;1.6038;
252.6000;0.6300;1.6133;
252.9000;0.6284;1.6181;
253.2000;0.6284;1.6157;
253.5000;0.6317;1.6204;
253.8000;0.6317;1.6275;
254.1000;0.6309;1.6299;
254.4000;0.6300;1.6252;
254.7000;0.6349;1.6323;
255.0000;0.6317;1.6228;
255.3000;0.6292;1.6157;
255.6000;0.6309;1.6275;
255.9000;0.6284;1.6252;
256.2000;0.6300;1.6252;
256.5000;0.6292;1.6299;
256.8000;0.6284;1.6299;
257.1000;0.6300;1.6370;
257.4000;0.6317;1.6465;
257.7000;0.6284;1.6442;
258.0000;0.6292;1.6370;
258.3000;0.6309;1.6370;
258.6000;0.6227;1.6228;
258.9000;0.6284;1.6394;
259.2000;0.6317;1.6394;
259.5000;0.6300;1.6394;
259.8000;0.6317;1.6442;
260.1000;0.6300;1.6513;
260.4000;0.6309;1.6513;
260.7000;0.6300;1.6536;
261.0000;0.6284;1.6489;
261.3000;0.6325;1.6584;
261.6000;0.6317;1.6465;
261.9000;0.6284;1.6370;
262.2000;0.6292;1.6394;
262.5000;0.6292;1.6418;
262.8000;0.6292;1.6370;
263.1000;0.6243;1.6275;
263.4000;0.6300;1.6394;
263.7000;0.6292;1.6347;
264.0000;0.6276;1.6275;
264.3000;0.6268;1.6252;
264.6000;0.6292;1.6323;
264.9000;0.6268;1.6299;
265.2000;0.6300;1.6394;
265.5000;0.6292;1.6394;
265.8000;0.6300;1.6465;
266.1000;0.6309;1.6418;
266.4000;0.6284;1.6370;
266.7000;0.6292;1.6347;
267.0000;0.6276;1.6299;
267.3000;0.6300;1.6370;
267.6000;0.6317;1.6442;
267.9000;0.6300;1.6536;
268.2000;0.6292;1.6465;
268.5000;0.6292;1.6465;
268.8000;0.6325;1.6489;
269.1000;0.6300;1.6442;
269.4000;0.6292;1.6394;
269.7000;0.6309;1.6513;
270.0000;0.6292;1.6442;
270.3000;0.6300;1.6394;
270.6000;0.6309;1.6370;
270.9000;0.6292;1.6323;
271.2000;0.6309;1.6370;
271.5000;0.6300;1.6370;
271.8000;0.6300;1.6418;
272.1000;0.6268;1.6347;
272.4000;0.6276;1.6323;
272.7000;0.6292;1.6347;
273.0000;0.6284;1.6370;
273.3000;0.6300;1.6418;
273.6000;0.6284;1.6299;
273.9000;0.6284;1.6323;
274.2000;0.6317;1.6394;
274.5000;0.6276;1.6394;
274.8000;0.6292;1.6418;
275.1000;0.6300;1.6489;
275.4000;0.6276;1.6489;
275.7000;0.6292;1.6584;
276.0000;0.6276;1.6513;
276.3000;0.6300;1.6489;
276.6000;0.6309;1.6560;
276.9000;0.6276;1.6465;
277.2000;0.6276;1.6394;
277.5000;0.6292;1.6465;
277.8000;0.6292;1.6418;
278.1000;0.6300;1.6370;
278.4000;0.6300;1.6275;
278.7000;0.6284;1.6252;
279.0000;0.6284;1.6299;
279.3000;0.6292;1.6323;
279.6000;0.6276;1.6347;
279.9000;0.6260;1.6323;
280.2000;0.6333;1.6465;
280.5000;0.6260;1.6275;
280.8000;0.6292;1.6394;
281.1000;0.6284;1.6347;
281.4000;0.6300;1.6442;
281.7000;0.6300;1.6323;
282.0000;0.6292;1.6252;
282.3000;0.6260;1.6204;
282.6000;0.6300;1.6299;
282.9000;0.6300;1.6275;
283.2000;0.6309;1.6370;
283.5000;0.6284;1.6275;
283.8000;0.6300;1.6299;
284.1000;0.6227;1.6038;
284.4000;0.6309;1.6228;
284.7000;0.6284;1.6204;
285.0000;0.6260;1.6157;
285.3000;0.6284;1.6299;
285.6000;0.6300;1.6370;
285.9000;0.6284;1.6370;
286.2000;0.6284;1.6370;
286.5000;0.6292;1.6299;
286.8000;0.6309;1.6252;
287.1000;0.6292;1.6252;
287.4000;0.6325;1.6370;
287.7000;0.6284;1.6347;
288.0000;0.6284;1.6442;
288.3000;0.6284;1.6442;
288.6000;0.6284;1.6370;
288.9000;0.6292;1.6228;
289.2000;0.6309;1.6275;
289.5000;0.6300;1.6275;
289.8000;0.6292;1.6228;
290.1000;0.6309;1.6204;
290.4000;0.6284;1.6204;
290.7000;0.6292;1.6252;
291.0000;0.6284;1.6275;
291.3000;0.6268;1.6299;
291.6000;0.6284;1.6299;
291.9000;0.6309;1.6394;
292.2000;0.6300;1.6299;
292.5000;0.6284;1.6157;
292.8000;0.6292;1.6109;
293.1000;0.6309;1.6086;
293.4000;0.6276;1.6038;
293.7000;0.6300;1.6109;
294.0000;0.6284;1.6133;
294.3000;0.6300;1.6204;
294.6000;0.6333;1.6275;
294.9000;0.6300;1.6299;
295.2000;0.6300;1.6370;
295.5000;0.6341;1.6370;
295.8000;0.6292;1.6275;
296.1000;0.6276;1.6228;
296.4000;0.6284;1.6133;
296.7000;0.6276;1.6204;
297.0000;0.6284;1.6323;
297.3000;0.6292;1.6347;
297.6000;0.6284;1.6323;
297.9000;0.6276;1.6252;
298.2000;0.6284;1.6299;
298.5000;0.6276;1.6275;
298.8000;0.6284;1.6323;
299.1000;0.6219;1.6157;
299.4000;0.6284;1.6394;
299.7000;0.6292;1.6370;
300.0000;0.6276;1.6370;
300.3000;0.6284;1.6370;
300.6000;0.6300;1.6418;
300.9000;0.6284;1.6370;
301.2000;0.6284;1.6418;
301.5000;0.6292;1.6394;
301.8000;0.6268;1.6370;
302.1000;0.6276;1.6370;
302.4000;0.6276;1.6370;
302.7000;0.6268;1.6394;
303.0000;0.6268;1.6465;
303.3000;0.6300;1.6394;
303.6000;0.6309;1.6370;
303.9000;0.6276;1.6204;
304.2000;0.6300;1.6228;
304.5000;0.6300;1.6204;
304.8000;0.6284;1.6157;
305.1000;0.6300;1.6157;
305.4000;0.6292;1.6181;
305.7000;0.6219;1.6014;
306.0000;0.6268;1.6228;
306.3000;0.6268;1.6181;
306.6000;0.6268;1.6275;
306.9000;0.6243;1.6228;
307.2000;0.6325;1.6465;
307.5000;0.6276;1.6323;
307.8000;0.6268;1.6323;
308.1000;0.6276;1.6347;
308.4000;0.6390;1.6584;
308.7000;0.6284;1.6275;
309.0000;0.6309;1.6228;
309.3000;0.6276;1.6086;
309.6000;0.6284;1.6157;
309.9000;0.6292;1.6252;
310.2000;0.6382;1.6489;
310.5000;0.6260;1.6157;
310.8000;0.6325;1.6370;
311.1000;0.6284;1.6347;
311.4000;0.6284;1.6489;
311.7000;0.6284;1.6442;
312.0000;0.6276;1.6442;
312.3000;0.6284;1.6442;
312.6000;0.6268;1.6370;
312.9000;0.6276;1.6394;
313.2000;0.6317;1.6442;
313.5000;0.6284;1.6394;
313.8000;0.6284;1.6370;
314.1000;0.6284;1.6394;
314.4000;0.6300;1.6323;
314.7000;0.6292;1.6299;
315.0000;0.6292;1.6228;
315.3000;0.6284;1.6204;
315.6000;0.6292;1.6323;
315.9000;0.6309;1.6347;
316.2000;0.6292;1.6370;
316.5000;0.6309;1.6418;
316.8000;0.6276;1.6394;
317.1000;0.6292;1.6370;
317.4000;0.6276;1.6418;
317.7000;0.6317;1.6489;
318.0000;0.6300;1.6418;
318.3000;0.6284;1.6394;
318.6000;0.6300;1.6418;
318.9000;0.6268;1.6252;
319.2000;0.6276;1.6252;
319.5000;0.6260;1.6252;
319.8000;0.6300;1.6347;
320.1000;0.6300;1.6299;
320.4000;0.6252;1.6204;
320.7000;0.6300;1.6299;
321.0000;0.6284;1.6323;
321.3000;0.6292;1.6228;
321.6000;0.6227;1.5991;
321.9000;0.6284;1.6181;
322.2000;0.6268;1.6181;
322.5000;0.6260;1.6157;
322.8000;0.6203;1.6086;
323.1000;0.6268;1.6323;
323.4000;0.6292;1.6299;
323.7000;0.6203;1.6062;
324.0000;0.6276;1.6228;
324.3000;0.6276;1.6204;
324.6000;0.6276;1.6204;
324.9000;0.6276;1.6133;
325.2000;0.6276;1.6109;
325.5000;0.6252;1.5991;
325.8000;0.6284;1.5991;
326.1000;0.6292;1.6014;
326.4000;0.6292;1.6086;
326.7000;0.6268;1.6062;
327.0000;0.6276;1.6062;
327.3000;0.6284;1.5991;
327.6000;0.6284;1.5920;
327.9000;0.6276;1.5848;
328.2000;0.6284;1.5920;
328.5000;0.6284;1.5943;
328.8000;0.6300;1.5991;
329.1000;0.6284;1.5943;
329.4000;0.6300;1.5991;
329.7000;0.6284;1.6014;
330.0000;0.6284;1.6038;
330.3000;0.6292;1.6038;
330.6000;0.6284;1.5991;
330.9000;0.6292;1.5943;
331.2000;0.6276;1.5967;
331.5000;0.6292;1.5991;
331.8000;0.6276;1.5967;
332.1000;0.6284;1.5920;
332.4000;0.6268;1.5967;
332.7000;0.6276;1.5991;
333.0000;0.6317;1.6014;
333.3000;0.6284;1.5991;
333.6000;0.6309;1.6086;
333.9000;0.6292;1.6062;
334.2000;0.6309;1.6109;
334.5000;0.6300;1.6181;
334.8000;0.6235;1.6062;
335.1000;0.6333;1.6323;
335.4000;0.6235;1.6109;
335.7000;0.6268;1.6133;
336.0000;0.6276;1.6181;
336.3000;0.6243;1.6014;
336.6000;0.6276;1.6014;
336.9000;0.6219;1.5991;
337.2000;0.6300;1.6157;
337.5000;0.6382;1.6370;
337.8000;0.6268;1.6062;
338.1000;0.6317;1.6204;
338.4000;0.6276;1.6062;
338.7000;0.6292;1.6086;
339.0000;0.6276;1.6062;
339.3000;0.6260;1.6014;
339.6000;0.6260;1.5920;
339.9000;0.6243;1.5848;
340.2000;0.6276;1.5943;
340.5000;0.6276;1.5991;
340.8000;0.6276;1.6014;
341.1000;0.6317;1.6133;
341.4000;0.6260;1.6109;
341.7000;0.6276;1.6133;
342.0000;0.6227;1.6062;
342.3000;0.6292;1.6133;
342.6000;0.6284;1.6062;
342.9000;0.6268;1.6086;
343.2000;0.6260;1.6133;
343.5000;0.6284;1.6275;
343.8000;0.6252;1.6181;
344.1000;0.6276;1.6252;
344.4000;0.6260;1.6228;
344.7000;0.6268;1.6252;
345.0000;0.6268;1.6275;
345.3000;0.6276;1.6275;
345.6000;0.6235;1.6133;
345.9000;0.6243;1.6181;
346.2000;0.6260;1.6252;
346.5000;0.6276;1.6252;
346.8000;0.6243;1.6204;
347.1000;0.6260;1.6204;
347.4000;0.6252;1.6204;
347.7000;0.6243;1.6133;
348.0000;0.6292;1.6228;
348.3000;0.6268;1.6204;
348.6000;0.6260;1.6228;
348.9000;0.6276;1.6204;
349.2000;0.6268;1.6086;
349.5000;0.6260;1.6086;
349.8000;0.6260;1.6133;
350.1000;0.6284;1.6252;
350.4000;0.6284;1.6252;
350.7000;0.6276;1.6204;
351.0000;0.6300;1.6204;
351.3000;0.6260;1.6157;
351.6000;0.6227;1.6062;
351.9000;0.6227;1.6109;
352.2000;0.6276;1.6086;
352.5000;0.6178;1.5872;
352.8000;0.6300;1.6181;
353.1000;0.6252;1.6204;
353.4000;0.6227;1.6157;
353.7000;0.6162;1.5943;
354.0000;0.6268;1.6252;
354.3000;0.6284;1.6252;
354.6000;0.6260;1.6157;
354.9000;0.6268;1.6204;
355.2000;0.6276;1.6157;
355.5000;0.6268;1.6157;
355.8000;0.6276;1.6228;
356.1000;0.6300;1.6299;
356.4000;0.6284;1.6275;
356.7000;0.6276;1.6252;
357.0000;0.6317;1.6157;
357.3000;0.6276;1.6014;
357.6000;0.6268;1.6062;
357.9000;0.6292;1.6086;
358.2000;0.6268;1.6086;
358.5000;0.6276;1.5967;
358.8000;0.6284;1.6038;
359.1000;0.6292;1.6157;
359.4000;0.6276;1.6204;
359.7000;0.6252;1.6086;
360.0000;0.6260;1.6109;
360.3000;0.6260;1.6133;
360.6000;0.6276;1.6133;
360.9000;0.6243;1.6062;
361.2000;0.6252;1.6133;
361.5000;0.6252;1.6109;
361.8000;0.6284;1.6109;
362.1000;0.6260;1.6157;
362.4000;0.6252;1.6228;
362.7000;0.6252;1.6275;
363.0000;0.6341;1.6418;
363.3000;0.6276;1.6252;
363.6000;0.6268;1.6228;
363.9000;0.6284;1.6228;
364.2000;0.6268;1.6204;
364.5000;0.6276;1.6086;
364.8000;0.6268;1.5920;
365.1000;0.6276;1.5872;
365.4000;0.6268;1.5991;
365.7000;0.6268;1.5991;
366.0000;0.6268;1.5967;
366.3000;0.6268;1.5943;
366.6000;0.6284;1.5967;
366.9000;0.6284;1.5967;
367.2000;0.6268;1.6014;
367.5000;0.6268;1.6109;
367.8000;0.6292;1.6157;
368.1000;0.6268;1.6038;
368.4000;0.6268;1.6038;
368.7000;0.6276;1.5991;
369.0000;0.6276;1.6109;
369.3000;0.6268;1.6086;
369.6000;0.6292;1.6133;
369.9000;0.6284;1.6157;
370.2000;0.6268;1.6109;
370.5000;0.6276;1.6157;
370.8000;0.6268;1.6086;
371.1000;0.6252;1.6086;
371.4000;0.6260;1.6133;
371.7000;0.6260;1.6109;
372.0000;0.6260;1.6014;
372.3000;0.6260;1.5991;
372.6000;0.6252;1.5991;
372.9000;0.6252;1.6014;
373.2000;0.6260;1.6038;
373.5000;0.6292;1.6109;
373.8000;0.6243;1.5943;
374.1000;0.6276;1.5991;
374.4000;0.6252;1.5991;
374.7000;0.6300;1.6181;
375.0000;0.6260;1.6109;
375.3000;0.6260;1.6038;
375.6000;0.6211;1.5848;
375.9000;0.6284;1.6014;
376.2000;0.6284;1.5943;
376.5000;0.6252;1.5777;
376.8000;0.6260;1.5801;
377.1000;0.6260;1.5848;
377.4000;0.6260;1.5920;
377.7000;0.6260;1.5967;
378.0000;0.6276;1.5967;
378.3000;0.6292;1.6014;
378.6000;0.6268;1.6014;
378.9000;0.6268;1.6038;
379.2000;0.6276;1.6086;
379.5000;0.6268;1.6109;
379.8000;0.6252;1.6062;
380.1000;0.6268;1.6204;
380.4000;0.6276;1.6157;
380.7000;0.6276;1.6157;
381.0000;0.6268;1.6157;
381.3000;0.6268;1.6228;
381.6000;0.6276;1.6228;
381.9000;0.6276;1.6204;
382.2000;0.6276;1.6204;
382.5000;0.6292;1.6299;
382.8000;0.6252;1.6370;
383.1000;0.6268;1.6347;
383.4000;0.6260;1.6347;
383.7000;0.6268;1.6347;
384.0000;0.6243;1.6228;
384.3000;0.6268;1.6275;
384.6000;0.6276;1.6062;
384.9000;0.6260;1.5920;
385.2000;0.6252;1.5920;
385.5000;0.6382;1.6157;
385.8000;0.6268;1.5896;
386.1000;0.6268;1.5848;
386.4000;0.6252;1.5943;
386.7000;0.6252;1.5896;
387.0000;0.6260;1.6014;
387.3000;0.6276;1.5991;
387.6000;0.6260;1.5872;
387.9000;0.6276;1.5801;
388.2000;0.6268;1.5848;
388.5000;0.6227;1.5635;
388.8000;0.6252;1.5682;
389.1000;0.6276;1.5896;
389.4000;0.6276;1.5920;
389.7000;0.6260;1.5920;
390.0000;0.6268;1.5896;
390.3000;0.6252;1.5967;
390.6000;0.6170;1.5848;
390.9000;0.6268;1.6062;
391.2000;0.6260;1.6109;
391.5000;0.6219;1.5920;
391.8000;0.6260;1.5991;
392.1000;0.6276;1.6157;
392.4000;0.6260;1.6204;
392.7000;0.6268;1.6086;
393.0000;0.6276;1.6109;
393.3000;0.6260;1.6109;
393.6000;0.6309;1.6204;
393.9000;0.6252;1.6038;
394.2000;0.6252;1.6062;
394.5000;0.6243;1.6086;
394.8000;0.6260;1.6181;
395.1000;0.6252;1.6086;
395.4000;0.6235;1.6062;
395.7000;0.6309;1.6228;
396.0000;0.6260;1.6133;
396.3000;0.6252;1.6086;
396.6000;0.6260;1.5991;
396.9000;0.6268;1.5943;
397.2000;0.6276;1.5943;
397.5000;0.6243;1.5896;
397.8000;0.6252;1.5967;
398.1000;0.6276;1.5991;
398.4000;0.6349;1.6228;
398.7000;0.6268;1.5848;
399.0000;0.6243;1.5777;
399.3000;0.6317;1.5943;
399.6000;0.6276;1.5872;
399.9000;0.6341;1.6014;
400.2000;0.6260;1.5848;
400.5000;0.6252;1.5777;
400.8000;0.6268;1.5872;
401.1000;0.6252;1.5896;
401.4000;0.6235;1.5967;
401.7000;0.6252;1.6014;
402.0000;0.6252;1.6014;
402.3000;0.6260;1.6038;
402.6000;0.6260;1.6133;
402.9000;0.6252;1.6133;
403.2000;0.6260;1.6086;
403.5000;0.6309;1.6204;
403.8000;0.6260;1.6109;
404.1000;0.6243;1.6086;
404.4000;0.6219;1.5967;
404.7000;0.6268;1.6109;
405.0000;0.6252;1.6109;
405.3000;0.6252;1.6157;
405.6000;0.6260;1.6181;
405.9000;0.6300;1.6299;
406.2000;0.6252;1.6133;
406.5000;0.6252;1.6062;
406.8000;0.6243;1.5967;
407.1000;0.6276;1.5991;
407.4000;0.6235;1.5896;
407.7000;0.6260;1.6014;
408.0000;0.6252;1.5896;
408.3000;0.6260;1.5967;
408.6000;0.6252;1.5943;
408.9000;0.6268;1.6109;
409.2000;0.6243;1.6086;
409.5000;0.6260;1.6228;
409.8000;0.6252;1.6299;
410.1000;0.6252;1.6204;
410.4000;0.6235;1.6157;
410.7000;0.6243;1.6204;
411.0000;0.6235;1.6109;
411.3000;0.6243;1.6086;
411.6000;0.6243;1.6014;
411.9000;0.6252;1.5991;
412.2000;0.6243;1.6133;
412.5000;0.6268;1.6275;
412.8000;0.6243;1.6275;
413.1000;0.6252;1.6275;
413.4000;0.6243;1.6299;
413.7000;0.6260;1.6299;
414.0000;0.6227;1.6252;
414.3000;0.6260;1.6204;
414.6000;0.6227;1.6109;
414.9000;0.6260;1.6228;
415.2000;0.6252;1.6133;
415.5000;0.6292;1.6086;
415.8000;0.6252;1.5920;
416.1000;0.6252;1.6038;
416.4000;0.6268;1.6086;
416.7000;0.6252;1.6014;
417.0000;0.6276;1.6086;
417.3000;0.6243;1.6109;
417.6000;0.6138;1.5801;
417.9000;0.6252;1.6181;
418.2000;0.6235;1.6062;
418.5000;0.6235;1.6157;
418.8000;0.6260;1.6204;
419.1000;0.6284;1.6181;
419.4000;0.6252;1.6133;
419.7000;0.6260;1.6109;
420.0000;0.6317;1.6157;
420.3000;0.6235;1.6109;
420.6000;0.6260;1.6228;
420.9000;0.6235;1.6299;
421.2000;0.6260;1.6323;
421.5000;0.6252;1.6252;
421.8000;0.6235;1.6228;
422.1000;0.6211;1.6133;
422.4000;0.6227;1.6157;
422.7000;0.6252;1.6228;
423.0000;0.6276;1.6275;
423.3000;0.6243;1.6181;
423.6000;0.6243;1.6157;
423.9000;0.6268;1.6204;
424.2000;0.6252;1.6204;
424.5000;0.6243;1.6109;
424.8000;0.6252;1.6181;
425.1000;0.6243;1.6228;
425.4000;0.6138;1.5943;
425.7000;0.6252;1.6204;
426.0000;0.6243;1.6181;
426.3000;0.6243;1.6228;
426.6000;0.6252;1.6228;
426.9000;0.6243;1.6204;
427.2000;0.6243;1.6181;
427.5000;0.6186;1.6014;
427.8000;0.6252;1.6181;
428.1000;0.6268;1.6157;
428.4000;0.6317;1.6252;
428.7000;0.6252;1.6086;
429.0000;0.6260;1.6157;
429.3000;0.6276;1.6181;
429.6000;0.6260;1.6086;
429.9000;0.6252;1.6133;
430.2000;0.6260;1.6062;
430.5000;0.6252;1.6086;
430.8000;0.6243;1.6086;
431.1000;0.6276;1.6252;
431.4000;0.6260;1.6252;
431.7000;0.6252;1.6204;
432.0000;0.6227;1.6086;
432.3000;0.6243;1.6086;
432.6000;0.6252;1.6062;
432.9000;0.6252;1.6133;
433.2000;0.6252;1.6062;
433.5000;0.6211;1.5991;
433.8000;0.6243;1.6062;
434.1000;0.6186;1.5896;
434.4000;0.6243;1.6086;
434.7000;0.6252;1.6062;
435.0000;0.6235;1.6038;
435.3000;0.6260;1.6062;
435.6000;0.6300;1.6181;
435.9000;0.6243;1.5967;
436.2000;0.6260;1.6014;
436.5000;0.6219;1.6062;
436.8000;0.6252;1.5991;
437.1000;0.6243;1.5920;
437.4000;0.6235;1.5896;
437.7000;0.6235;1.5896;
438.0000;0.6243;1.5920;
438.3000;0.6243;1.5943;
438.6000;0.6235;1.6014;
438.9000;0.6243;1.5991;
439.2000;0.6235;1.6014;
439.5000;0.6235;1.5991;
439.8000;0.6235;1.6014;
440.1000;0.6252;1.5991;
440.4000;0.6260;1.6038;
440.7000;0.6260;1.5991;
441.0000;0.6243;1.6062;
441.3000;0.6260;1.6086;
441.6000;0.6252;1.6038;
441.9000;0.6260;1.6014;
442.2000;0.6235;1.5991;
442.5000;0.6243;1.5920;
442.8000;0.6252;1.5872;
443.1000;0.6252;1.5801;
443.4000;0.6252;1.5801;
443.7000;0.6252;1.5825;
444.0000;0.6349;1.6133;
444.3000;0.6260;1.5967;
444.6000;0.6252;1.5967;
444.9000;0.6195;1.5825;
445.2000;0.6235;1.5967;
445.5000;0.6227;1.5943;
445.8000;0.6235;1.6038;
446.1000;0.6235;1.6062;
446.4000;0.6227;1.6038;
446.7000;0.6252;1.6038;
447.0000;0.6243;1.5920;
447.3000;0.6243;1.5943;
447.6000;0.6243;1.6038;
447.9000;0.6268;1.6062;
448.2000;0.6260;1.6014;
448.5000;0.6276;1.5967;
448.8000;0.6243;1.5967;
449.1000;0.6154;1.5777;
449.4000;0.6252;1.6133;
449.7000;0.6243;1.6038;
450.0000;0.6357;1.6323;
450.3000;0.6203;1.5967;
450.6000;0.6235;1.6062;
450.9000;0.6235;1.6109;
451.2000;0.6227;1.6109;
451.5000;0.6252;1.6086;
451.8000;0.6268;1.6204;
452.1000;0.6252;1.6157;
452.4000;0.6178;1.5872;
452.7000;0.6243;1.6038;
453.0000;0.6252;1.6038;
453.3000;0.6309;1.6181;
453.6000;0.6260;1.6086;
453.9000;0.6260;1.6157;
454.2000;0.6260;1.6204;
454.5000;0.6284;1.6347;
454.8000;0.6252;1.6275;
455.1000;0.6235;1.6204;
455.4000;0.6260;1.6181;
455.7000;0.6243;1.6157;
456.0000;0.6252;1.6228;
456.3000;0.6235;1.6157;
456.6000;0.6227;1.6228;
456.9000;0.6252;1.6252;
457.2000;0.6243;1.6228;
457.5000;0.6235;1.6228;
457.8000;0.6268;1.6347;
458.1000;0.6235;1.6323;
458.4000;0.6235;1.6299;
458.7000;0.6219;1.6347;
459.0000;0.6235;1.6252;
459.3000;0.6300;1.6275;
459.6000;0.6276;1.6157;
459.9000;0.6260;1.6228;
460.2000;0.6260;1.6228;
460.5000;0.6260;1.6299;
460.8000;0.6252;1.6252;
461.1000;0.6252;1.6252;
461.4000;0.6211;1.6133;
461.7000;0.6227;1.6157;
462.0000;0.6252;1.6275;
462.3000;0.6252;1.6204;
462.6000;0.6276;1.6347;
462.9000;0.6219;1.6275;
463.2000;0.6243;1.6228;
463.5000;0.6227;1.6252;
463.8000;0.6235;1.6275;
464.1000;0.6243;1.6275;
464.4000;0.6268;1.6252;
464.7000;0.6243;1.6252;
465.0000;0.6154;1.6062;
465.3000;0.6235;1.6252;
465.6000;0.6195;1.6181;
465.9000;0.6219;1.6252;
466.2000;0.6243;1.6228;
466.5000;0.6243;1.6204;
466.8000;0.6243;1.6133;
467.1000;0.6227;1.6086;
467.4000;0.6260;1.6109;
467.7000;0.6235;1.6109;
468.0000;0.6284;1.6252;
468.3000;0.6309;1.6228;
468.6000;0.6227;1.6038;
468.9000;0.6219;1.6014;
469.2000;0.6252;1.6133;
469.5000;0.6252;1.6228;
469.8000;0.6243;1.6323;
470.1000;0.6243;1.6323;
470.4000;0.6219;1.6299;
470.7000;0.6260;1.6394;
471.0000;0.6235;1.6394;
471.3000;0.6268;1.6418;
471.6000;0.6268;1.6370;
471.9000;0.6243;1.6370;
472.2000;0.6243;1.6418;
472.5000;0.6243;1.6299;
472.8000;0.6219;1.6275;
473.1000;0.6235;1.6323;
473.4000;0.6243;1.6394;
473.7000;0.6227;1.6323;
474.0000;0.6235;1.6347;
474.3000;0.6235;1.6299;
474.6000;0.6243;1.6323;
474.9000;0.6252;1.6370;
475.2000;0.6243;1.6394;
475.5000;0.6276;1.6560;
475.8000;0.6211;1.6465;
476.1000;0.6243;1.6489;
476.4000;0.6219;1.6394;
476.7000;0.6227;1.6394;
477.0000;0.6219;1.6370;
477.3000;0.6276;1.6465;
477.6000;0.6235;1.6347;
477.9000;0.6243;1.6394;
478.2000;0.6252;1.6394;
478.5000;0.6227;1.6204;
478.8000;0.6260;1.6252;
479.1000;0.6227;1.6228;
479.4000;0.6219;1.6228;
479.7000;0.6252;1.6394;
480.0000;0.6252;1.6370;
480.3000;0.6235;1.6299;
480.6000;0.6227;1.6252;
480.9000;0.6235;1.6323;
481.2000;0.6235;1.6275;
481.5000;0.6235;1.6275;
481.8000;0.6219;1.6275;
482.1000;0.6227;1.6347;
482.4000;0.6235;1.6394;
482.7000;0.6235;1.6442;
483.0000;0.6235;1.6418;
483.3000;0.6243;1.6465;
483.6000;0.6243;1.6536;
483.9000;0.6252;1.6608;
484.2000;0.6227;1.6489;
484.5000;0.6235;1.6347;
484.8000;0.6195;1.6228;
485.1000;0.6260;1.6275;
485.4000;0.6276;1.6347;
485.7000;0.6219;1.6299;
486.0000;0.6292;1.6370;
486.3000;0.6219;1.6252;
486.6000;0.6227;1.6323;
486.9000;0.6211;1.6323;
487.2000;0.6219;1.6347;
487.5000;0.6227;1.6275;
487.8000;0.6211;1.6252;
488.1000;0.6211;1.6252;
488.4000;0.6211;1.6228;
488.7000;0.6260;1.6347;
489.0000;0.6203;1.6204;
489.3000;0.6219;1.6275;
489.6000;0.6235;1.6252;
489.9000;0.6252;1.6299;
490.2000;0.6284;1.6418;
490.5000;0.6309;1.6465;
490.8000;0.6235;1.6347;
491.1000;0.6260;1.6418;
491.4000;0.6203;1.6228;
491.7000;0.6284;1.6394;
492.0000;0.6227;1.6299;
492.3000;0.6243;1.6347;
492.6000;0.6211;1.6204;
492.9000;0.6235;1.6347;
493.2000;0.6227;1.6370;
493.5000;0.6235;1.6323;
493.8000;0.6235;1.6275;
494.1000;0.6300;1.6418;
494.4000;0.6227;1.6228;
494.7000;0.6235;1.6181;
495.0000;0.6252;1.6228;
495.3000;0.6235;1.6204;
495.6000;0.6227;1.6204;
495.9000;0.6235;1.6252;
496.2000;0.6235;1.6204;
496.5000;0.6186;1.6014;
496.8000;0.6276;1.6275;
497.1000;0.6195;1.6062;
497.4000;0.6219;1.6086;
497.7000;0.6227;1.6109;
498.0000;0.6219;1.6062;
498.3000;0.6219;1.6109;
498.6000;0.6227;1.6062;
498.9000;0.6186;1.5848;
499.2000;0.6235;1.6014;
499.5000;0.6219;1.6014;
499.8000;0.6235;1.6062;
500.1000;0.6252;1.6157;
500.4000;0.6243;1.6204;
500.7000;0.6219;1.6157;
501.0000;0.6252;1.6299;
501.3000;0.6284;1.6418;
501.6000;0.6235;1.6323;
501.9000;0.6227;1.6275;
502.2000;0.6235;1.6299;
502.5000;0.6252;1.6323;
502.8000;0.6235;1.6299;
503.1000;0.6219;1.6323;
503.4000;0.6252;1.6394;
503.7000;0.6227;1.6252;
504.0000;0.6235;1.6275;
504.3000;0.6211;1.6323;
504.6000;0.6235;1.6275;
504.9000;0.6227;1.6228;
505.2000;0.6227;1.6275;
505.5000;0.6235;1.6299;
505.8000;0.6227;1.6394;
506.1000;0.6235;1.6489;
506.4000;0.6243;1.6536;
506.7000;0.6219;1.6536;
507.0000;0.6235;1.6536;
507.3000;0.6235;1.6536;
507.6000;0.6186;1.6323;
507.9000;0.6235;1.6299;
508.2000;0.6227;1.6252;
508.5000;0.6276;1.6370;
508.8000;0.6243;1.6252;
509.1000;0.6227;1.6204;
509.4000;0.6235;1.6228;
509.7000;0.6235;1.6252;
510.0000;0.6235;1.6252;
510.3000;0.6243;1.6323;
510.6000;0.6227;1.6323;
510.9000;0.6243;1.6394;
511.2000;0.6243;1.6323;
511.5000;0.6243;1.6347;
511.8000;0.6227;1.6252;
512.1000;0.6203;1.6275;
512.4000;0.6227;1.6323;
512.7000;0.6243;1.6275;
513.0000;0.6235;1.6228;
513.3000;0.6235;1.6181;
513.6000;0.6227;1.6157;
513.9000;0.6235;1.6133;
514.2000;0.6211;1.6038;
514.5000;0.6252;1.6109;
514.8000;0.6227;1.6133;
515.1000;0.6235;1.6181;
515.4000;0.6211;1.6204;
515.7000;0.6211;1.6228;
516.0000;0.6219;1.6181;
516.3000;0.6235;1.6181;
516.6000;0.6243;1.6204;
516.9000;0.6219;1.6086;
517.2000;0.6170;1.5967;
517.5000;0.6235;1.6109;
517.8000;0.6235;1.6157;
518.1000;0.6219;1.6181;
518.4000;0.6219;1.6133;
518.7000;0.6227;1.6181;
519.0000;0.6235;1.6299;
519.3000;0.6227;1.6275;
519.6000;0.6235;1.6299;
519.9000;0.6219;1.6299;
520.2000;0.6243;1.6299;
520.5000;0.6219;1.6204;
520.8000;0.6219;1.6157;
521.1000;0.6211;1.6109;
521.4000;0.6219;1.6181;
521.7000;0.6227;1.6181;
522.0000;0.6227;1.6204;
522.3000;0.6235;1.6204;
522.6000;0.6252;1.6252;
522.9000;0.6227;1.6204;
523.2000;0.6227;1.6181;
523.5000;0.6227;1.6109;
523.8000;0.6243;1.6133;
524.1000;0.6227;1.6109;
524.4000;0.6227;1.6181;
524.7000;0.6235;1.6252;
525.0000;0.6219;1.6252;
525.3000;0.6227;1.6204;
525.6000;0.6243;1.6181;
525.9000;0.6243;1.6228;
526.2000;0.6219;1.6252;
526.5000;0.6227;1.6370;
526.8000;0.6203;1.6323;
527.1000;0.6235;1.6418;
527.4000;0.6219;1.6347;
527.7000;0.6243;1.6394;
528.0000;0.6170;1.6157;
528.3000;0.6211;1.6228;
528.6000;0.6219;1.6228;
528.9000;0.6235;1.6299;
529.2000;0.6227;1.6252;
529.5000;0.6227;1.6228;
529.8000;0.6227;1.6157;
530.1000;0.6243;1.6228;
530.4000;0.6243;1.6228;
530.7000;0.6252;1.6275;
531.0000;0.6219;1.6323;
531.3000;0.6300;1.6608;
531.6000;0.6154;1.6323;
531.9000;0.6211;1.6418;
532.2000;0.6219;1.6347;
532.5000;0.6219;1.6323;
532.8000;0.6219;1.6275;
533.1000;0.6227;1.6275;
533.4000;0.6227;1.6323;
533.7000;0.6227;1.6299;
534.0000;0.6227;1.6323;
534.3000;0.6203;1.6204;
534.6000;0.6211;1.6275;
534.9000;0.6227;1.6275;
535.2000;0.6235;1.6323;
535.5000;0.6235;1.6370;
535.8000;0.6260;1.6442;
536.1000;0.6227;1.6323;
536.4000;0.6252;1.6370;
536.7000;0.6243;1.6299;
537.0000;0.6227;1.6252;
537.3000;0.6211;1.6204;
537.6000;0.6211;1.6228;
537.9000;0.6227;1.6181;
538.2000;0.6146;1.5991;
538.5000;0.6227;1.6204;
538.8000;0.6219;1.6109;
539.1000;0.6219;1.6109;
539.4000;0.6219;1.6133;
539.7000;0.6235;1.6157;
540.0000;0.6227;1.6228;
540.3000;0.6227;1.6228;
540.6000;0.6235;1.6252;
540.9000;0.6235;1.6252;
541.2000;0.6284;1.6323;
541.5000;0.6227;1.6157;
541.8000;0.6227;1.6204;
542.1000;0.6219;1.6252;
542.4000;0.6211;1.6181;
542.7000;0.6219;1.6181;
543.0000;0.6227;1.6181;
543.3000;0.6227;1.6157;
543.6000;0.6227;1.6109;
543.9000;0.6219;1.6204;
544.2000;0.6227;1.6181;
544.5000;0.6227;1.6181;
544.8000;0.6227;1.6133;
545.1000;0.6227;1.6062;
545.4000;0.6235;1.6014;
545.7000;0.6243;1.6014;
546.0000;0.6333;1.6252;
546.3000;0.6268;1.6109;
546.6000;0.6227;1.6062;
546.9000;0.6203;1.6038;
547.2000;0.6235;1.6014;
547.5000;0.6235;1.5991;
547.8000;0.6219;1.6038;
548.1000;0.6252;1.6109;
548.4000;0.6219;1.6062;
548.7000;0.6235;1.6086;
549.0000;0.6243;1.6157;
549.3000;0.6252;1.6228;
549.6000;0.6219;1.6275;
549.9000;0.6235;1.6299;
550.2000;0.6211;1.6299;
550.5000;0.6211;1.6299;
550.8000;0.6195;1.6299;
551.1000;0.6235;1.6370;
551.4000;0.6211;1.6323;
551.7000;0.6219;1.6442;
552.0000;0.6284;1.6536;
552.3000;0.6211;1.6299;
552.6000;0.6195;1.6323;
552.9000;0.6211;1.6347;
553.2000;0.6219;1.6323;
553.5000;0.6227;1.6323;
553.8000;0.6219;1.6275;
554.1000;0.6203;1.6228;
554.4000;0.6227;1.6204;
554.7000;0.6235;1.6204;
555.0000;0.6186;1.6086;
555.3000;0.6219;1.6181;
555.6000;0.6227;1.6157;
555.9000;0.6260;1.6181;
556.2000;0.6219;1.6157;
556.5000;0.6195;1.6086;
556.8000;0.6211;1.6062;
557.1000;0.6195;1.5967;
557.4000;0.6243;1.6133;
557.7000;0.6227;1.6086;
558.0000;0.6243;1.6086;
558.3000;0.6211;1.6038;
558.6000;0.6203;1.6038;
558.9000;0.6211;1.6062;
559.2000;0.6186;1.5920;
559.5000;0.6219;1.6038;
559.8000;0.6227;1.6062;
560.1000;0.6227;1.6062;
560.4000;0.6211;1.6038;
560.7000;0.6227;1.5991;
561.0000;0.6211;1.6086;
561.3000;0.6243;1.6109;
561.6000;0.6203;1.6133;
561.9000;0.6211;1.6181;
562.2000;0.6235;1.6204;
562.5000;0.6219;1.6181;
562.8000;0.6195;1.6133;
563.1000;0.6211;1.6109;
563.4000;0.6227;1.6204;
563.7000;0.6203;1.6157;
564.0000;0.6203;1.6086;
564.3000;0.6203;1.6014;
564.6000;0.6235;1.6133;
564.9000;0.6219;1.6086;
565.2000;0.6203;1.6062;
565.5000;0.6227;1.6204;
565.8000;0.6227;1.6204;
566.1000;0.6219;1.6157;
566.4000;0.6195;1.6133;
566.7000;0.6211;1.6204;
567.0000;0.6211;1.6204;
567.3000;0.6211;1.6299;
567.6000;0.6211;1.6252;
567.9000;0.6211;1.6299;
568.2000;0.6211;1.6299;
568.5000;0.6211;1.6228;
568.8000;0.6235;1.6228;
569.1000;0.6211;1.6228;
569.4000;0.6219;1.6299;
569.7000;0.6211;1.6347;
570.0000;0.6227;1.6394;
570.3000;0.6235;1.6418;
570.6000;0.6219;1.6275;
570.9000;0.6219;1.6228;
571.2000;0.6227;1.6275;
571.5000;0.6227;1.6323;
571.8000;0.6235;1.6323;
572.1000;0.6219;1.6299;
572.4000;0.6227;1.6347;
572.7000;0.6227;1.6323;
573.0000;0.6211;1.6323;
573.3000;0.6211;1.6299;
573.6000;0.6211;1.6275;
573.9000;0.6219;1.6204;
574.2000;0.6186;1.6157;
574.5000;0.6227;1.6252;
574.8000;0.6219;1.6181;
575.1000;0.6219;1.6157;
575.4000;0.6195;1.6157;
575.7000;0.6203;1.6181;
576.0000;0.6219;1.6181;
576.3000;0.6219;1.6133;
576.6000;0.6211;1.6181;
576.9000;0.6195;1.6181;
577.2000;0.6203;1.6275;
577.5000;0.6203;1.6228;
577.8000;0.6211;1.6252;
578.1000;0.6195;1.6299;
578.4000;0.6227;1.6370;
578.7000;0.6211;1.6228;
579.0000;0.6227;1.6228;
579.3000;0.6203;1.6252;
579.6000;0.6219;1.6228;
579.9000;0.6211;1.6252;
580.2000;0.6219;1.6347;
580.5000;0.6219;1.6323;
580.8000;0.6203;1.6275;
581.1000;0.6186;1.6204;
581.4000;0.6227;1.6275;
581.7000;0.6211;1.6204;
582.0000;0.6211;1.6275;
582.3000;0.6211;1.6228;
582.6000;0.6186;1.6252;
582.9000;0.6178;1.6062;
583.2000;0.6219;1.6133;
583.5000;0.6211;1.6133;
583.8000;0.6219;1.6157;
584.1000;0.6211;1.6109;
584.4000;0.6211;1.5967;
584.7000;0.6235;1.6062;
585.0000;0.6235;1.6109;
585.3000;0.6219;1.6133;
585.6000;0.6186;1.6038;
585.9000;0.6260;1.6133;
586.2000;0.6211;1.6062;
586.5000;0.6243;1.6157;
586.8000;0.6203;1.6109;
587.1000;0.6300;1.6323;
587.4000;0.6219;1.6109;
587.7000;0.6154;1.5991;
588.0000;0.6211;1.6133;
588.3000;0.6203;1.6133;
588.6000;0.6211;1.6181;
588.9000;0.6211;1.6228;
589.2000;0.6219;1.6228;
589.5000;0.6178;1.6181;
589.8000;0.6219;1.6228;
590.1000;0.6219;1.6252;
590.4000;0.6211;1.6275;
590.7000;0.6219;1.6323;
591.0000;0.6211;1.6204;
591.3000;0.6260;1.6347;
591.6000;0.6203;1.6204;
591.9000;0.6203;1.6252;
592.2000;0.6211;1.6299;
592.5000;0.6178;1.6204;
592.8000;0.6211;1.6228;
593.1000;0.6211;1.6204;
593.4000;0.6195;1.6157;
593.7000;0.6203;1.6228;
594.0000;0.6227;1.6323;
594.3000;0.6227;1.6347;
594.6000;0.6227;1.6370;
594.9000;0.6211;1.6323;
595.2000;0.6211;1.6370;
595.5000;0.6227;1.6394;
595.8000;0.6203;1.6442;
596.1000;0.6211;1.6394;
596.4000;0.6219;1.6394;
596.7000;0.6211;1.6347;
597.0000;0.6195;1.6204;
597.3000;0.6203;1.6252;
597.6000;0.6203;1.6157;
597.9000;0.6195;1.6204;
598.2000;0.6203;1.6228;
598.5000;0.6211;1.6228;
598.8000;0.6203;1.6323;
599.1000;0.6219;1.6465;
599.4000;0.6203;1.6394;
599.7000;0.6203;1.6157;
600.0000;0.6203;1.6086;
600.3000;0.6203;1.6062;
600.6000;0.6170;1.5991;
600.9000;0.6138;1.5872;
601.2000;0.6056;1.5753;
601.5000;0.5950;1.5492;
601.8000;0.5893;1.5445;
602.1000;0.5788;1.5326;
602.4000;0.5625;1.4923;
602.7000;0.5657;1.5089;
603.0000;0.5584;1.4971;
603.3000;0.5519;1.4757;
603.6000;0.5438;1.4615;
603.9000;0.5372;1.4543;
604.2000;0.5332;1.4520;
604.5000;0.5299;1.4472;
604.8000;0.5177;1.4259;
605.1000;0.5210;1.4330;
605.4000;0.5169;1.4283;
605.7000;0.5112;1.4164;
606.0000;0.5088;1.4140;
606.3000;0.5031;1.4069;
606.6000;0.4990;1.3974;
606.9000;0.4957;1.4045;
607.2000;0.4925;1.4022;
607.5000;0.4908;1.3974;
607.8000;0.4884;1.3950;
608.1000;0.4860;1.3879;
608.4000;0.4835;1.3761;
608.7000;0.4827;1.3761;
609.0000;0.4803;1.3832;
609.3000;0.4770;1.3808;
609.6000;0.4746;1.3832;
609.9000;0.4729;1.3784;
610.2000;0.4664;1.3642;
610.5000;0.4656;1.3832;
610.8000;0.4648;1.3808;
611.1000;0.4648;1.3784;
611.4000;0.4632;1.3761;
611.7000;0.4599;1.3808;
612.0000;0.4583;1.3784;
612.3000;0.4583;1.3784;
612.6000;0.4567;1.3784;
612.9000;0.4567;1.3832;
613.2000;0.4542;1.3808;
613.5000;0.4542;1.3784;
613.8000;0.4510;1.3689;
614.1000;0.4501;1.3713;
614.4000;0.4510;1.3642;
614.7000;0.4469;1.3737;
615.0000;0.4444;1.3666;
615.3000;0.4461;1.3666;
615.6000;0.4436;1.3713;
615.9000;0.4420;1.3689;
616.2000;0.4404;1.3761;
616.5000;0.4428;1.3879;
616.8000;0.4396;1.3784;
617.1000;0.4371;1.3761;
617.4000;0.4339;1.3642;
617.7000;0.4420;1.3761;
618.0000;0.4363;1.3594;
618.3000;0.4363;1.3618;
618.6000;0.4330;1.3523;
618.9000;0.4322;1.3618;
619.2000;0.4322;1.3618;
619.5000;0.4322;1.3737;
619.8000;0.4306;1.3761;
620.1000;0.4298;1.3761;
620.4000;0.4282;1.3737;
620.7000;0.4282;1.3689;
621.0000;0.4249;1.3618;
621.3000;0.4249;1.3618;
621.6000;0.4241;1.3713;
621.9000;0.4233;1.3761;
622.2000;0.4265;1.3808;
622.5000;0.4208;1.3642;
622.8000;0.4217;1.3713;
623.1000;0.4217;1.3689;
623.4000;0.4135;1.3476;
623.7000;0.4192;1.3618;
624.0000;0.4127;1.3428;
624.3000;0.4176;1.3571;
624.6000;0.4192;1.3642;
624.9000;0.4176;1.3618;
625.2000;0.4143;1.3594;
625.5000;0.4168;1.3594;
625.8000;0.4168;1.3666;
626.1000;0.4143;1.3713;
626.4000;0.4168;1.3666;
626.7000;0.4135;1.3547;
627.0000;0.4127;1.3594;
627.3000;0.4127;1.3571;
627.6000;0.4103;1.3500;
627.9000;0.4078;1.3381;
628.2000;0.4119;1.3452;
628.5000;0.4127;1.3523;
628.8000;0.4103;1.3452;
629.1000;0.4103;1.3476;
629.4000;0.4111;1.3523;
629.7000;0.4111;1.3500;
630.0000;0.4078;1.3476;
630.3000;0.4070;1.3523;
630.6000;0.4086;1.3571;
630.9000;0.4070;1.3547;
631.2000;0.4054;1.3547;
631.5000;0.4046;1.3547;
631.8000;0.4054;1.3523;
632.1000;0.4046;1.3642;
632.4000;0.4094;1.3808;
632.7000;0.4037;1.3737;
633.0000;0.4037;1.3761;
633.3000;0.4037;1.3761;
633.6000;0.4046;1.3808;
633.9000;0.4029;1.3737;
634.2000;0.4021;1.3666;
634.5000;0.4046;1.3642;
634.8000;0.4005;1.3594;
635.1000;0.4005;1.3523;
635.4000;0.4005;1.3452;
635.7000;0.4005;1.3381;
636.0000;0.3989;1.3310;
636.3000;0.4005;1.3357;
636.6000;0.3989;1.3405;
636.9000;0.4013;1.3547;
637.2000;0.4013;1.3618;
637.5000;0.3972;1.3571;
637.8000;0.3980;1.3523;
638.1000;0.3972;1.3547;
638.4000;0.3964;1.3428;
638.7000;0.3980;1.3405;
639.0000;0.3972;1.3405;
639.3000;0.3964;1.3357;
639.6000;0.3980;1.3405;
639.9000;0.3997;1.3405;
640.2000;0.3972;1.3334;
640.5000;0.3948;1.3428;
640.8000;0.3964;1.3405;
641.1000;0.3948;1.3334;
641.4000;0.3948;1.3357;
641.7000;0.3948;1.3381;
642.0000;0.3948;1.3405;
642.3000;0.3940;1.3428;
642.6000;0.3956;1.3381;
642.9000;0.3923;1.3334;
643.2000;0.3940;1.3428;
643.5000;0.3923;1.3428;
643.8000;0.3923;1.3405;
644.1000;0.3923;1.3405;
644.4000;0.3940;1.3452;
644.7000;0.3923;1.3381;
645.0000;0.3923;1.3428;
645.3000;0.3899;1.3405;
645.6000;0.3923;1.3381;
645.9000;0.3899;1.3405;
646.2000;0.3915;1.3405;
646.5000;0.3891;1.3357;
646.8000;0.3899;1.3286;
647.1000;0.3891;1.3334;
647.4000;0.3899;1.3310;
647.7000;0.3867;1.3286;
648.0000;0.3891;1.3405;
648.3000;0.3793;1.3144;
648.6000;0.3923;1.3500;
648.9000;0.3891;1.3476;
649.2000;0.3867;1.3523;
649.5000;0.3867;1.3523;
649.8000;0.3875;1.3452;
650.1000;0.3867;1.3452;
650.4000;0.3875;1.3428;
650.7000;0.3964;1.3761;
651.0000;0.3875;1.3571;
651.3000;0.3850;1.3571;
651.6000;0.3850;1.3618;
651.9000;0.3858;1.3594;
652.2000;0.3858;1.3618;
652.5000;0.3867;1.3594;
652.8000;0.3867;1.3689;
653.1000;0.3923;1.3761;
653.4000;0.3867;1.3618;
653.7000;0.3850;1.3642;
654.0000;0.3858;1.3642;
654.3000;0.3850;1.3666;
654.6000;0.3858;1.3689;
654.9000;0.3842;1.3737;
655.2000;0.3867;1.3761;
655.5000;0.3842;1.3713;
655.8000;0.3842;1.3737;
656.1000;0.3850;1.3642;
656.4000;0.3842;1.3594;
656.7000;0.3834;1.3618;
657.0000;0.3867;1.3618;
657.3000;0.3850;1.3547;
657.6000;0.3744;1.3381;
657.9000;0.3818;1.3452;
658.2000;0.3826;1.3334;
658.5000;0.3850;1.3405;
658.8000;0.3842;1.3500;
659.1000;0.3818;1.3523;
659.4000;0.3818;1.3476;
659.7000;0.3826;1.3523;
660.0000;0.3826;1.3428;
660.3000;0.3818;1.3452;
660.6000;0.3826;1.3523;
660.9000;0.3810;1.3523;
661.2000;0.3769;1.3476;
661.5000;0.3818;1.3523;
661.8000;0.3810;1.3476;
662.1000;0.3810;1.3476;
662.4000;0.3801;1.3381;
662.7000;0.3785;1.3262;
663.0000;0.3801;1.3262;
663.3000;0.3793;1.3215;
663.6000;0.3810;1.3286;
663.9000;0.3801;1.3262;
664.2000;0.3801;1.3334;
664.5000;0.3785;1.3334;
664.8000;0.3777;1.3310;
665.1000;0.3793;1.3357;
665.4000;0.3810;1.3405;
665.7000;0.3769;1.3334;
666.0000;0.3785;1.3381;
666.3000;0.3785;1.3405;
666.6000;0.3769;1.3334;
666.9000;0.3761;1.3239;
667.2000;0.3753;1.3191;
667.5000;0.3777;1.3239;
667.8000;0.3785;1.3239;
668.1000;0.3793;1.3239;
668.4000;0.3785;1.3191;
668.7000;0.3777;1.3310;
669.0000;0.3785;1.3357;
669.3000;0.3777;1.3262;
669.6000;0.3753;1.3405;
669.9000;0.3761;1.3405;
670.2000;0.3744;1.3286;
670.5000;0.3736;1.3262;
670.8000;0.3761;1.3262;
671.1000;0.3761;1.3286;
671.4000;0.3753;1.3286;
671.7000;0.3753;1.3239;
672.0000;0.3761;1.3405;
672.3000;0.3753;1.3428;
672.6000;0.3777;1.3452;
672.9000;0.3679;1.3144;
673.2000;0.3736;1.3262;
673.5000;0.3744;1.3357;
673.8000;0.3753;1.3428;
674.1000;0.3744;1.3381;
674.4000;0.3769;1.3405;
674.7000;0.3736;1.3452;
675.0000;0.3736;1.3523;
675.3000;0.3753;1.3500;
675.6000;0.3761;1.3500;
675.9000;0.3736;1.3500;
676.2000;0.3744;1.3618;
676.5000;0.3728;1.3594;
676.8000;0.3744;1.3571;
677.1000;0.3753;1.3571;
677.4000;0.3720;1.3571;
677.7000;0.3728;1.3571;
678.0000;0.3582;1.3120;
678.3000;0.3720;1.3547;
678.6000;0.3818;1.3832;
678.9000;0.3744;1.3618;
679.2000;0.3736;1.3618;
679.5000;0.3679;1.3500;
679.8000;0.3712;1.3594;
680.1000;0.3630;1.3334;
680.4000;0.3761;1.3642;
680.7000;0.3614;1.3239;
681.0000;0.3704;1.3452;
681.3000;0.3728;1.3500;
681.6000;0.3687;1.3428;
681.9000;0.3720;1.3452;
682.2000;0.3728;1.3381;
682.5000;0.3704;1.3381;
682.8000;0.3712;1.3381;
683.1000;0.3720;1.3428;
683.4000;0.3736;1.3523;
683.7000;0.3712;1.3428;
684.0000;0.3704;1.3334;
684.3000;0.3712;1.3476;
684.6000;0.3712;1.3452;
684.9000;0.3696;1.3523;
685.2000;0.3712;1.3523;
685.5000;0.3704;1.3523;
685.8000;0.3704;1.3476;
686.1000;0.3720;1.3428;
686.4000;0.3744;1.3571;
686.7000;0.3704;1.3476;
687.0000;0.3687;1.3405;
687.3000;0.3679;1.3381;
687.6000;0.3696;1.3381;
687.9000;0.3704;1.3405;
688.2000;0.3704;1.3428;
688.5000;0.3704;1.3500;
688.8000;0.3704;1.3500;
689.1000;0.3704;1.3594;
689.4000;0.3728;1.3594;
689.7000;0.3704;1.3547;
690.0000;0.3696;1.3523;
690.3000;0.3687;1.3476;
690.6000;0.3696;1.3500;
690.9000;0.3679;1.3428;
691.2000;0.3687;1.3381;
691.5000;0.3687;1.3310;
691.8000;0.3679;1.3286;
692.1000;0.3671;1.3405;
692.4000;0.3679;1.3452;
692.7000;0.3671;1.3500;
693.0000;0.3622;1.3428;
693.3000;0.3655;1.3476;
693.6000;0.3679;1.3500;
693.9000;0.3679;1.3476;
694.2000;0.3720;1.3594;
694.5000;0.3785;1.3808;
694.8000;0.3687;1.3500;
695.1000;0.3712;1.3547;
695.4000;0.3606;1.3310;
695.7000;0.3728;1.3571;
696.0000;0.3696;1.3428;
696.3000;0.3663;1.3381;
696.6000;0.3606;1.3262;
696.9000;0.3679;1.3452;
697.2000;0.3663;1.3428;
697.5000;0.3671;1.3428;
697.8000;0.3663;1.3381;
698.1000;0.3655;1.3310;
698.4000;0.3679;1.3405;
698.7000;0.3679;1.3476;
699.0000;0.3622;1.3405;
699.3000;0.3663;1.3642;
699.6000;0.3687;1.3689;
699.9000;0.3663;1.3547;
700.2000;0.3655;1.3500;
700.5000;0.3622;1.3381;
700.8000;0.3663;1.3428;
701.1000;0.3622;1.3334;
701.4000;0.3663;1.3428;
701.7000;0.3663;1.3452;
702.0000;0.3687;1.3500;
702.3000;0.3639;1.3405;
702.6000;0.3663;1.3428;
702.9000;0.3630;1.3381;
703.2000;0.3655;1.3428;
703.5000;0.3614;1.3405;
703.8000;0.3630;1.3500;
704.1000;0.3614;1.3405;
704.4000;0.3679;1.3618;
704.7000;0.3655;1.3571;
705.0000;0.3655;1.3594;
705.3000;0.3639;1.3571;
705.6000;0.3655;1.3642;
705.9000;0.3647;1.3571;
706.2000;0.3655;1.3594;
706.5000;0.3630;1.3571;
706.8000;0.3647;1.3476;
707.1000;0.3647;1.3476;
707.4000;0.3639;1.3381;
707.7000;0.3655;1.3310;
708.0000;0.3647;1.3381;
708.3000;0.3639;1.3381;
708.6000;0.3630;1.3310;
708.9000;0.3647;1.3262;
709.2000;0.3663;1.3381;
709.5000;0.3647;1.3357;
709.8000;0.3647;1.3334;
710.1000;0.3647;1.3334;
710.4000;0.3639;1.3334;
710.7000;0.3647;1.3452;
711.0000;0.3630;1.3334;
711.3000;0.3639;1.3334;
711.6000;0.3630;1.3334;
711.9000;0.3639;1.3381;
712.2000;0.3630;1.3381;
712.5000;0.3647;1.3405;
712.8000;0.3639;1.3381;
713.1000;0.3647;1.3428;
713.4000;0.3639;1.3452;
713.7000;0.3639;1.3500;
714.0000;0.3614;1.3381;
714.3000;0.3622;1.3476;
714.6000;0.3630;1.3594;
714.9000;0.3622;1.3618;
715.2000;0.3639;1.3618;
715.5000;0.3630;1.3571;
715.8000;0.3630;1.3500;
716.1000;0.3622;1.3452;
716.4000;0.3704;1.3666;
716.7000;0.3622;1.3405;
717.0000;0.3622;1.3452;
717.3000;0.3614;1.3428;
717.6000;0.3606;1.3428;
717.9000;0.3614;1.3334;
718.2000;0.3647;1.3381;
718.5000;0.3647;1.3452;
718.8000;0.3622;1.3262;
719.1000;0.3573;1.3167;
719.4000;0.3622;1.3334;
719.7000;0.3622;1.3310;
720.0000;0.3622;1.3334;
720.3000;0.3557;1.3191;
720.6000;0.3687;1.3476;
720.9000;0.3622;1.3428;
721.2000;0.3606;1.3452;
721.5000;0.3606;1.3381;
721.8000;0.3606;1.3334;
722.1000;0.3663;1.3428;
722.4000;0.3614;1.3310;
722.7000;0.3598;1.3286;
723.0000;0.3630;1.3286;
723.3000;0.3614;1.3310;
723.6000;0.3614;1.3334;
723.9000;0.3639;1.3357;
724.2000;0.3614;1.3286;
724.5000;0.3614;1.3286;
724.8000;0.3606;1.3357;
725.1000;0.3606;1.3381;
725.4000;0.3630;1.3357;
725.7000;0.3614;1.3191;
726.0000;0.3630;1.3262;
726.3000;0.3598;1.3310;
726.6000;0.3614;1.3286;
726.9000;0.3614;1.3262;
727.2000;0.3614;1.3239;
727.5000;0.3598;1.3286;
727.8000;0.3598;1.3239;
728.1000;0.3582;1.3191;
728.4000;0.3590;1.3167;
728.7000;0.3614;1.3239;
729.0000;0.3590;1.3239;
729.3000;0.3590;1.3167;
729.6000;0.3606;1.3262;
729.9000;0.3606;1.3310;
730.2000;0.3598;1.3262;
730.5000;0.3606;1.3215;
730.8000;0.3598;1.3167;
731.1000;0.3590;1.3191;
731.4000;0.3590;1.3120;
731.7000;0.3598;1.3167;
732.0000;0.3590;1.3167;
732.3000;0.3606;1.3262;
732.6000;0.3598;1.3357;
732.9000;0.3582;1.3428;
733.2000;0.3598;1.3357;
733.5000;0.3590;1.3357;
733.8000;0.3606;1.3334;
734.1000;0.3598;1.3334;
734.4000;0.3565;1.3310;
734.7000;0.3525;1.3191;
735.0000;0.3573;1.3334;
735.3000;0.3541;1.3310;
735.6000;0.3590;1.3428;
735.9000;0.3590;1.3381;
736.2000;0.3614;1.3381;
736.5000;0.3590;1.3405;
736.8000;0.3582;1.3334;
737.1000;0.3590;1.3452;
737.4000;0.3565;1.3476;
737.7000;0.3582;1.3500;
738.0000;0.3590;1.3547;
738.3000;0.3565;1.3500;
738.6000;0.3573;1.3571;
738.9000;0.3590;1.3594;
739.2000;0.3598;1.3618;
739.5000;0.3622;1.3594;
739.8000;0.3582;1.3476;
740.1000;0.3582;1.3523;
740.4000;0.3565;1.3476;
740.7000;0.3565;1.3547;
741.0000;0.3582;1.3594;
741.3000;0.3606;1.3689;
741.6000;0.3582;1.3666;
741.9000;0.3573;1.3618;
742.2000;0.3582;1.3618;
742.5000;0.3573;1.3642;
742.8000;0.3582;1.3713;
743.1000;0.3557;1.3618;
743.4000;0.3582;1.3594;
743.7000;0.3590;1.3642;
744.0000;0.3598;1.3689;
744.3000;0.3590;1.3689;
744.6000;0.3606;1.3642;
744.9000;0.3598;1.3594;
745.2000;0.3606;1.3713;
745.5000;0.3573;1.3713;
745.8000;0.3647;1.3808;
746.1000;0.3582;1.3594;
746.4000;0.3557;1.3500;
746.7000;0.3573;1.3523;
747.0000;0.3573;1.3428;
747.3000;0.3557;1.3452;
747.6000;0.3582;1.3594;
747.9000;0.3557;1.3618;
748.2000;0.3573;1.3642;
748.5000;0.3573;1.3642;
748.8000;0.3582;1.3523;
749.1000;0.3565;1.3476;
749.4000;0.3582;1.3428;
749.7000;0.3557;1.3476;
750.0000;0.3565;1.3523;
750.3000;0.3573;1.3547;
750.6000;0.3573;1.3571;
750.9000;0.3557;1.3618;
751.2000;0.3573;1.3618;
751.5000;0.3573;1.3666;
751.8000;0.3557;1.3594;
752.1000;0.3541;1.3571;
752.4000;0.3582;1.3571;
752.7000;0.3573;1.3500;
753.0000;0.3565;1.3500;
753.3000;0.3565;1.3452;
753.6000;0.3573;1.3500;
753.9000;0.3582;1.3476;
754.2000;0.3557;1.3452;
754.5000;0.3565;1.3428;
754.8000;0.3573;1.3405;
755.1000;0.3541;1.3381;
755.4000;0.3549;1.3310;
755.7000;0.3573;1.3428;
756.0000;0.3549;1.3476;
756.3000;0.3533;1.3500;
756.6000;0.3557;1.3571;
756.9000;0.3549;1.3523;
757.2000;0.3549;1.3571;
757.5000;0.3573;1.3571;
757.8000;0.3565;1.3571;
758.1000;0.3549;1.3547;
758.4000;0.3476;1.3381;
758.7000;0.3549;1.3500;
759.0000;0.3573;1.3500;
759.3000;0.3541;1.3500;
759.6000;0.3549;1.3594;
759.9000;0.3533;1.3547;
760.2000;0.3549;1.3618;
760.5000;0.3557;1.3594;
760.8000;0.3549;1.3618;
761.1000;0.3541;1.3500;
761.4000;0.3565;1.3594;
761.7000;0.3557;1.3547;
762.0000;0.3541;1.3594;
762.3000;0.3549;1.3618;
762.6000;0.3549;1.3547;
762.9000;0.3549;1.3547;
763.2000;0.3549;1.3642;
763.5000;0.3541;1.3523;
763.8000;0.3549;1.3547;
764.1000;0.3557;1.3547;
764.4000;0.3557;1.3547;
764.7000;0.3541;1.3571;
765.0000;0.3549;1.3523;
765.3000;0.3549;1.3500;
765.6000;0.3541;1.3428;
765.9000;0.3541;1.3452;
766.2000;0.3533;1.3405;
766.5000;0.3549;1.3428;
766.8000;0.3525;1.3428;
767.1000;0.3541;1.3571;
767.4000;0.3557;1.3618;
767.7000;0.3541;1.3618;
768.0000;0.3582;1.3689;
768.3000;0.3533;1.3618;
768.6000;0.3541;1.3642;
768.9000;0.3565;1.3713;
769.2000;0.3549;1.3737;
769.5000;0.3549;1.3689;
769.8000;0.3590;1.3784;
770.1000;0.3541;1.3689;
770.4000;0.3541;1.3737;
770.7000;0.3557;1.3761;
771.0000;0.3549;1.3713;
771.3000;0.3639;1.3927;
771.6000;0.3533;1.3689;
771.9000;0.3541;1.3618;
772.2000;0.3533;1.3571;
772.5000;0.3557;1.3642;
772.8000;0.3541;1.3713;
773.1000;0.3541;1.3761;
773.4000;0.3541;1.3618;
773.7000;0.3533;1.3547;
774.0000;0.3541;1.3571;
774.3000;0.3557;1.3594;
774.6000;0.3549;1.3523;
774.9000;0.3525;1.3476;
775.2000;0.3541;1.3405;
775.5000;0.3533;1.3428;
775.8000;0.3533;1.3405;
776.1000;0.3525;1.3334;
776.4000;0.3549;1.3310;
776.7000;0.3541;1.3310;
777.0000;0.3541;1.3428;
777.3000;0.3541;1.3381;
777.6000;0.3557;1.3381;
777.9000;0.3533;1.3405;
778.2000;0.3557;1.3428;
778.5000;0.3525;1.3381;
778.8000;0.3549;1.3500;
779.1000;0.3533;1.3476;
779.4000;0.3557;1.3476;
779.7000;0.3549;1.3500;
780.0000;0.3598;1.3594;
780.3000;0.3541;1.3452;
780.6000;0.3541;1.3381;
780.9000;0.3549;1.3476;
781.2000;0.3533;1.3476;
781.5000;0.3541;1.3476;
781.8000;0.3541;1.3547;
782.1000;0.3533;1.3547;
782.4000;0.3468;1.3500;
782.7000;0.3533;1.3713;
783.0000;0.3533;1.3642;
783.3000;0.3525;1.3642;
783.6000;0.3525;1.3594;
783.9000;0.3516;1.3642;
784.2000;0.3541;1.3666;
784.5000;0.3525;1.3594;
784.8000;0.3500;1.3452;
785.1000;0.3525;1.3523;
785.4000;0.3525;1.3571;
785.7000;0.3533;1.3618;
786.0000;0.3525;1.3689;
786.3000;0.3541;1.3689;
786.6000;0.3533;1.3737;
786.9000;0.3541;1.3689;
787.2000;0.3630;1.3879;
787.5000;0.3541;1.3547;
787.8000;0.3614;1.3761;
788.1000;0.3533;1.3571;
788.4000;0.3533;1.3594;
788.7000;0.3533;1.3594;
789.0000;0.3533;1.3666;
789.3000;0.3525;1.3737;
789.6000;0.3525;1.3713;
789.9000;0.3606;1.3832;
790.2000;0.3541;1.3666;
790.5000;0.3508;1.3571;
790.8000;0.3557;1.3571;
791.1000;0.3565;1.3666;
791.4000;0.3541;1.3594;
791.7000;0.3525;1.3547;
792.0000;0.3533;1.3642;
792.3000;0.3525;1.3737;
792.6000;0.3533;1.3666;
792.9000;0.3598;1.3903;
793.2000;0.3565;1.3713;
793.5000;0.3582;1.3666;
793.8000;0.3533;1.3618;
794.1000;0.3419;1.3381;
794.4000;0.3516;1.3618;
794.7000;0.3533;1.3689;
795.0000;0.3500;1.3618;
795.3000;0.3500;1.3547;
795.6000;0.3492;1.3547;
795.9000;0.3500;1.3666;
796.2000;0.3484;1.3594;
796.5000;0.3508;1.3571;
796.8000;0.3508;1.3523;
797.1000;0.3516;1.3618;
797.4000;0.3508;1.3642;
797.7000;0.3525;1.3642;
798.0000;0.3525;1.3713;
798.3000;0.3525;1.3689;
798.6000;0.3525;1.3618;
798.9000;0.3630;1.3974;
799.2000;0.3500;1.3713;
799.5000;0.3533;1.3784;
799.8000;0.3525;1.3689;
800.1000;0.3516;1.3713;
800.4000;0.3508;1.3666;
800.7000;0.3533;1.3737;
801.0000;0.3516;1.3689;
801.3000;0.3508;1.3642;
801.6000;0.3525;1.3642;
801.9000;0.3508;1.3594;
802.2000;0.3525;1.3689;
802.5000;0.3565;1.3927;
802.8000;0.3492;1.3713;
803.1000;0.3516;1.3689;
803.4000;0.3541;1.3666;
803.7000;0.3516;1.3642;
804.0000;0.3525;1.3666;
804.3000;0.3516;1.3689;
804.6000;0.3525;1.3618;
804.9000;0.3525;1.3666;
805.2000;0.3468;1.3523;
805.5000;0.3484;1.3642;
805.8000;0.3525;1.3761;
806.1000;0.3508;1.3761;
806.4000;0.3516;1.3855;
806.7000;0.3500;1.3879;
807.0000;0.3508;1.3879;
807.3000;0.3525;1.3903;
807.6000;0.3468;1.3784;
807.9000;0.3516;1.3832;
808.2000;0.3516;1.3808;
808.5000;0.3508;1.3784;
808.8000;0.3525;1.3808;
809.1000;0.3508;1.3761;
809.4000;0.3533;1.3713;
809.7000;0.3516;1.3737;
810.0000;0.3541;1.3761;
810.3000;0.3500;1.3689;
810.6000;0.3484;1.3642;
810.9000;0.3500;1.3761;
811.2000;0.3525;1.3808;
811.5000;0.3573;1.3855;
811.8000;0.3508;1.3642;
812.1000;0.3533;1.3666;
812.4000;0.3484;1.3500;
812.7000;0.3500;1.3500;
813.0000;0.3508;1.3594;
813.3000;0.3500;1.3642;
813.6000;0.3516;1.3713;
813.9000;0.3525;1.3689;
814.2000;0.3500;1.3571;
814.5000;0.3508;1.3476;
814.8000;0.3508;1.3381;
815.1000;0.3484;1.3239;
815.4000;0.3500;1.3381;
815.7000;0.3516;1.3476;
816.0000;0.3549;1.3523;
816.3000;0.3525;1.3523;
816.6000;0.3508;1.3547;
816.9000;0.3484;1.3476;
817.2000;0.3500;1.3571;
817.5000;0.3516;1.3476;
817.8000;0.3492;1.3428;
818.1000;0.3492;1.3357;
818.4000;0.3508;1.3310;
818.7000;0.3500;1.3334;
819.0000;0.3476;1.3357;
819.3000;0.3476;1.3428;
819.6000;0.3500;1.3571;
819.9000;0.3492;1.3618;
820.2000;0.3468;1.3618;
820.5000;0.3492;1.3761;
820.8000;0.3484;1.3737;
821.1000;0.3492;1.3761;
821.4000;0.3443;1.3594;
821.7000;0.3492;1.3642;
822.0000;0.3492;1.3666;
822.3000;0.3516;1.3713;
822.6000;0.3590;1.3879;
822.9000;0.3500;1.3618;
823.2000;0.3492;1.3666;
823.5000;0.3525;1.3689;
823.8000;0.3533;1.3761;
824.1000;0.3516;1.3737;
824.4000;0.3516;1.3784;
824.7000;0.3492;1.3784;
825.0000;0.3508;1.3879;
825.3000;0.3508;1.3808;
825.6000;0.3492;1.3761;
825.9000;0.3476;1.3784;
826.2000;0.3500;1.3855;
826.5000;0.3508;1.3879;
826.8000;0.3500;1.3950;
827.1000;0.3500;1.3974;
827.4000;0.3492;1.3879;
827.7000;0.3508;1.3784;
828.0000;0.3492;1.3713;
828.3000;0.3557;1.3855;
828.6000;0.3484;1.3689;
828.9000;0.3500;1.3713;
829.2000;0.3492;1.3689;
829.5000;0.3468;1.3642;
829.8000;0.3500;1.3713;
830.1000;0.3500;1.3737;
830.4000;0.3492;1.3689;
830.7000;0.3484;1.3666;
831.0000;0.3435;1.3500;
831.3000;0.3508;1.3713;
831.6000;0.3492;1.3737;
831.9000;0.3500;1.3808;
832.2000;0.3525;1.3903;
832.5000;0.3492;1.3879;
832.8000;0.3500;1.3855;
833.1000;0.3492;1.3784;
833.4000;0.3484;1.3832;
833.7000;0.3492;1.3761;
834.0000;0.3500;1.3784;
834.3000;0.3435;1.3618;
834.6000;0.3590;1.3998;
834.9000;0.3492;1.3642;
835.2000;0.3508;1.3666;
835.5000;0.3516;1.3689;
835.8000;0.3492;1.3713;
836.1000;0.3492;1.3737;
836.4000;0.3435;1.3642;
836.7000;0.3500;1.3713;
837.0000;0.3508;1.3737;
837.3000;0.3492;1.3666;
837.6000;0.3500;1.3666;
837.9000;0.3500;1.3618;
838.2000;0.3484;1.3594;
838.5000;0.3500;1.3737;
838.8000;0.3500;1.3666;
839.1000;0.3484;1.3571;
839.4000;0.3500;1.3571;
839.7000;0.3484;1.3571;
840.0000;0.3508;1.3618;
840.3000;0.3508;1.3618;
840.6000;0.3508;1.3666;
840.9000;0.3492;1.3666;
841.2000;0.3484;1.3594;
841.5000;0.3484;1.3713;
841.8000;0.3484;1.3713;
842.1000;0.3484;1.3642;
842.4000;0.3508;1.3642;
842.7000;0.3500;1.3666;
843.0000;0.3516;1.3642;
843.3000;0.3492;1.3571;
843.6000;0.3516;1.3642;
843.9000;0.3508;1.3666;
844.2000;0.3492;1.3642;
844.5000;0.3492;1.3689;
844.8000;0.3484;1.3713;
845.1000;0.3500;1.3761;
845.4000;0.3484;1.3666;
845.7000;0.3484;1.3618;
846.0000;0.3492;1.3594;
846.3000;0.3484;1.3594;
846.6000;0.3484;1.3476;
846.9000;0.3492;1.3405;
847.2000;0.3476;1.3405;
847.5000;0.3500;1.3476;
847.8000;0.3500;1.3523;
848.1000;0.3484;1.3452;
848.4000;0.3508;1.3594;
848.7000;0.3484;1.3547;
849.0000;0.3500;1.3594;
849.3000;0.3500;1.3618;
849.6000;0.3549;1.3642;
849.9000;0.3492;1.3476;
850.2000;0.3500;1.3523;
850.5000;0.3573;1.3761;
850.8000;0.3492;1.3476;
851.1000;0.3484;1.3476;
851.4000;0.3508;1.3547;
851.7000;0.3394;1.3286;
852.0000;0.3476;1.3571;
852.3000;0.3484;1.3571;
852.6000;0.3557;1.3642;
852.9000;0.3492;1.3381;
853.2000;0.3500;1.3405;
853.5000;0.3492;1.3381;
853.8000;0.3484;1.3428;
854.1000;0.3484;1.3476;
854.4000;0.3500;1.3642;
854.7000;0.3492;1.3666;
855.0000;0.3492;1.3689;
855.3000;0.3500;1.3666;
855.6000;0.3492;1.3642;
855.9000;0.3476;1.3594;
856.2000;0.3476;1.3571;
856.5000;0.3500;1.3594;
856.8000;0.3500;1.3594;
857.1000;0.3492;1.3571;
857.4000;0.3476;1.3523;
857.7000;0.3492;1.3571;
858.0000;0.3500;1.3642;
858.3000;0.3492;1.3713;
858.6000;0.3492;1.3713;
858.9000;0.3492;1.3594;
859.2000;0.3492;1.3547;
859.5000;0.3492;1.3500;
859.8000;0.3484;1.3523;
860.1000;0.3492;1.3523;
860.4000;0.3476;1.3594;
860.7000;0.3484;1.3523;
861.0000;0.3435;1.3428;
861.3000;0.3460;1.3571;
861.6000;0.3549;1.3808;
861.9000;0.3468;1.3689;
862.2000;0.3476;1.3642;
862.5000;0.3484;1.3618;
862.8000;0.3435;1.3405;
863.1000;0.3492;1.3500;
863.4000;0.3468;1.3452;
863.7000;0.3508;1.3547;
864.0000;0.3484;1.3547;
864.3000;0.3492;1.3547;
864.6000;0.3500;1.3547;
864.9000;0.3476;1.3452;
865.2000;0.3500;1.3476;
865.5000;0.3500;1.3476;
865.8000;0.3484;1.3476;
866.1000;0.3484;1.3547;
866.4000;0.3492;1.3547;
866.7000;0.3476;1.3594;
867.0000;0.3468;1.3737;
867.3000;0.3468;1.3737;
867.6000;0.3468;1.3642;
867.9000;0.3468;1.3500;
868.2000;0.3525;1.3618;
868.5000;0.3500;1.3571;
868.8000;0.3468;1.3523;
869.1000;0.3500;1.3642;
869.4000;0.3533;1.3713;
869.7000;0.3516;1.3761;
870.0000;0.3476;1.3713;
870.3000;0.3500;1.3784;
870.6000;0.3476;1.3737;
870.9000;0.3500;1.3761;
871.2000;0.3476;1.3737;
871.5000;0.3476;1.3666;
871.8000;0.3468;1.3666;
872.1000;0.3468;1.3689;
872.4000;0.3476;1.3784;
872.7000;0.3484;1.3784;
873.0000;0.3476;1.3737;
873.3000;0.3533;1.3761;
873.6000;0.3476;1.3594;
873.9000;0.3476;1.3618;
874.2000;0.3484;1.3642;
874.5000;0.3484;1.3713;
874.8000;0.3468;1.3618;
875.1000;0.3460;1.3594;
875.4000;0.3468;1.3571;
875.7000;0.3492;1.3523;
876.0000;0.3484;1.3476;
876.3000;0.3468;1.3452;
876.6000;0.3443;1.3428;
876.9000;0.3476;1.3452;
877.2000;0.3492;1.3452;
877.5000;0.3468;1.3428;
877.8000;0.3476;1.3428;
878.1000;0.3476;1.3476;
878.4000;0.3484;1.3523;
878.7000;0.3476;1.3571;
879.0000;0.3476;1.3571;
879.3000;0.3484;1.3713;
879.6000;0.3484;1.3713;
879.9000;0.3484;1.3737;
880.2000;0.3460;1.3713;
880.5000;0.3476;1.3808;
880.8000;0.3492;1.3737;
881.1000;0.3476;1.3689;
881.4000;0.3500;1.3784;
881.7000;0.3476;1.3689;
882.0000;0.3476;1.3689;
882.3000;0.3492;1.3666;
882.6000;0.3484;1.3594;
882.9000;0.3468;1.3571;
883.2000;0.3525;1.3618;
883.5000;0.3484;1.3523;
883.8000;0.3468;1.3571;
884.1000;0.3492;1.3594;
884.4000;0.3500;1.3642;
884.7000;0.3500;1.3713;
885.0000;0.3468;1.3642;
885.3000;0.3468;1.3642;
885.6000;0.3484;1.3618;
885.9000;0.3500;1.3618;
886.2000;0.3484;1.3547;
886.5000;0.3476;1.3618;
886.8000;0.3468;1.3618;
887.1000;0.3476;1.3642;
887.4000;0.3484;1.3666;
887.7000;0.3476;1.3618;
888.0000;0.3500;1.3761;
888.3000;0.3484;1.3784;
888.6000;0.3492;1.3761;
888.9000;0.3468;1.3689;
889.2000;0.3508;1.3761;
889.5000;0.3403;1.3547;
889.8000;0.3460;1.3737;
890.1000;0.3468;1.3808;
890.4000;0.3468;1.3855;
890.7000;0.3476;1.3761;
891.0000;0.3484;1.3832;
891.3000;0.3468;1.3784;
891.6000;0.3468;1.3618;
891.9000;0.3468;1.3571;
892.2000;0.3492;1.3500;
892.5000;0.3484;1.3428;
892.8000;0.3484;1.3500;
893.1000;0.3484;1.3547;
893.4000;0.3525;1.3642;
893.7000;0.3516;1.3642;
894.0000;0.3508;1.3666;
894.3000;0.3492;1.3642;
894.6000;0.3451;1.3618;
894.9000;0.3500;1.3761;
895.2000;0.3484;1.3855;
895.5000;0.3451;1.3737;
895.8000;0.3403;1.3689;
896.1000;0.3476;1.3808;
896.4000;0.3484;1.3808;
896.7000;0.3443;1.3713;
897.0000;0.3468;1.3832;
897.3000;0.3476;1.3761;
897.6000;0.3468;1.3879;
897.9000;0.3451;1.3832;
898.2000;0.3460;1.3879;
898.5000;0.3525;1.4022;
898.8000;0.3476;1.3927;
899.1000;0.3468;1.3832;
899.4000;0.3484;1.3784;
899.7000;0.3468;1.3761;
900.0000;0.3484;1.3832;
900.3000;0.3476;1.3879;
900.6000;0.3468;1.3855;
900.9000;0.3500;1.3974;
901.2000;0.3460;1.3808;
901.5000;0.3468;1.3855;
901.8000;0.3460;1.3855;
902.1000;0.3468;1.3879;
902.4000;0.3460;1.3737;
902.7000;0.3451;1.3784;
903.0000;0.3468;1.3832;
903.3000;0.3484;1.3855;
903.6000;0.3476;1.3832;
903.9000;0.3476;1.3784;
904.2000;0.3516;1.3855;
904.5000;0.3443;1.3642;
904.8000;0.3468;1.3666;
905.1000;0.3476;1.3737;
905.4000;0.3476;1.3689;
905.7000;0.3476;1.3642;
906.0000;0.3468;1.3666;
906.3000;0.3451;1.3642;
906.6000;0.3484;1.3666;
906.9000;0.3468;1.3618;
907.2000;0.3484;1.3547;
907.5000;0.3394;1.3310;
907.8000;0.3484;1.3523;
908.1000;0.3476;1.3500;
908.4000;0.3549;1.3713;
908.7000;0.3468;1.3594;
909.0000;0.3476;1.3761;
909.3000;0.3468;1.3761;
909.6000;0.3460;1.3713;
909.9000;0.3411;1.3547;
910.2000;0.3460;1.3689;
910.5000;0.3468;1.3642;
910.8000;0.3460;1.3713;
911.1000;0.3460;1.3737;
911.4000;0.3435;1.3642;
911.7000;0.3460;1.3594;
912.0000;0.3435;1.3428;
912.3000;0.3443;1.3381;
912.6000;0.3468;1.3381;
912.9000;0.3484;1.3428;
913.2000;0.3484;1.3476;
913.5000;0.3411;1.3334;
913.8000;0.3476;1.3452;
914.1000;0.3460;1.3357;
914.4000;0.3451;1.3405;
914.7000;0.3476;1.3452;
915.0000;0.3476;1.3452;
915.3000;0.3460;1.3523;
915.6000;0.3460;1.3476;
915.9000;0.3460;1.3571;
916.2000;0.3476;1.3547;
916.5000;0.3468;1.3594;
916.8000;0.3468;1.3618;
917.1000;0.3460;1.3618;
917.4000;0.3403;1.3500;
917.7000;0.3484;1.3618;
918.0000;0.3484;1.3642;
918.3000;0.3484;1.3642;
918.6000;0.3541;1.3784;
918.9000;0.3476;1.3737;
919.2000;0.3484;1.3666;
919.5000;0.3443;1.3618;
919.8000;0.3468;1.3761;
920.1000;0.3484;1.3784;
920.4000;0.3492;1.3832;
920.7000;0.3468;1.3761;
921.0000;0.3476;1.3808;
921.3000;0.3468;1.3737;
921.6000;0.3476;1.3784;
921.9000;0.3468;1.3761;
922.2000;0.3468;1.3713;
922.5000;0.3476;1.3689;
922.8000;0.3468;1.3642;
923.1000;0.3451;1.3737;
923.4000;0.3484;1.3761;
923.7000;0.3476;1.3808;
924.0000;0.3411;1.3618;
924.3000;0.3476;1.3855;
924.6000;0.3476;1.3832;
924.9000;0.3500;1.3974;
925.2000;0.3468;1.3808;
925.5000;0.3443;1.3689;
925.8000;0.3451;1.3642;
926.1000;0.3468;1.3689;
926.4000;0.3468;1.3713;
926.7000;0.3460;1.3689;
927.0000;0.3378;1.3500;
927.3000;0.3451;1.3689;
927.6000;0.3484;1.3689;
927.9000;0.3476;1.3689;
928.2000;0.3468;1.3689;
928.5000;0.3403;1.3476;
928.8000;0.3476;1.3642;
929.1000;0.3468;1.3761;
929.4000;0.3525;1.3950;
929.7000;0.3460;1.3713;
930.0000;0.3451;1.3594;
930.3000;0.3468;1.3594;
930.6000;0.3500;1.3642;
930.9000;0.3460;1.3476;
931.2000;0.3443;1.3405;
931.5000;0.3492;1.3571;
931.8000;0.3468;1.3547;
932.1000;0.3460;1.3547;
932.4000;0.3443;1.3594;
932.7000;0.3476;1.3642;
933.0000;0.3443;1.3500;
933.3000;0.3451;1.3523;
933.6000;0.3492;1.3642;
933.9000;0.3460;1.3523;
934.2000;0.3394;1.3381;
934.5000;0.3484;1.3642;
934.8000;0.3451;1.3618;
935.1000;0.3435;1.3618;
935.4000;0.3460;1.3689;
935.7000;0.3451;1.3713;
936.0000;0.3451;1.3642;
936.3000;0.3443;1.3571;
936.6000;0.3460;1.3594;
936.9000;0.3451;1.3666;
937.2000;0.3476;1.3618;
937.5000;0.3468;1.3571;
937.8000;0.3468;1.3547;
938.1000;0.3468;1.3547;
938.4000;0.3468;1.3523;
938.7000;0.3484;1.3547;
939.0000;0.3492;1.3594;
939.3000;0.3500;1.3642;
939.6000;0.3468;1.3594;
939.9000;0.3476;1.3523;
940.2000;0.3484;1.3594;
940.5000;0.3476;1.3571;
940.8000;0.3468;1.3523;
941.1000;0.3460;1.3594;
941.4000;0.3460;1.3642;
941.7000;0.3484;1.3808;
942.0000;0.3476;1.3784;
942.3000;0.3460;1.3689;
942.6000;0.3476;1.3666;
942.9000;0.3460;1.3737;
943.2000;0.3451;1.3666;
943.5000;0.3468;1.3713;
943.8000;0.3484;1.3808;
944.1000;0.3476;1.3761;
944.4000;0.3468;1.3737;
944.7000;0.3500;1.3808;
945.0000;0.3468;1.3737;
945.3000;0.3468;1.3689;
945.6000;0.3460;1.3666;
945.9000;0.3460;1.3642;
946.2000;0.3451;1.3689;
946.5000;0.3443;1.3666;
946.8000;0.3476;1.3689;
947.1000;0.3443;1.3571;
947.4000;0.3565;1.3832;
947.7000;0.3460;1.3594;
948.0000;0.3460;1.3523;
948.3000;0.3468;1.3547;
948.6000;0.3468;1.3571;
948.9000;0.3468;1.3476;
949.2000;0.3460;1.3547;
949.5000;0.3460;1.3594;
949.8000;0.3468;1.3571;
950.1000;0.3476;1.3594;
950.4000;0.3460;1.3666;
950.7000;0.3460;1.3737;
951.0000;0.3468;1.3832;
951.3000;0.3484;1.3927;
951.6000;0.3435;1.3784;
951.9000;0.3460;1.3855;
952.2000;0.3468;1.3974;
952.5000;0.3476;1.3998;
952.8000;0.3460;1.3927;
953.1000;0.3435;1.3879;
953.4000;0.3476;1.3974;
953.7000;0.3460;1.3950;
954.0000;0.3460;1.3950;
954.3000;0.3476;1.3974;
954.6000;0.3468;1.3998;
954.9000;0.3460;1.3974;
955.2000;0.3516;1.4164;
955.5000;0.3468;1.4022;
955.8000;0.3460;1.3998;
956.1000;0.3451;1.3950;
956.4000;0.3460;1.3950;
956.7000;0.3435;1.3761;
957.0000;0.3468;1.3808;
957.3000;0.3484;1.3903;
957.6000;0.3427;1.3737;
957.9000;0.3468;1.3808;
958.2000;0.3460;1.3784;
958.5000;0.3460;1.3784;
958.8000;0.3476;1.3927;
959.1000;0.3435;1.3808;
959.4000;0.3443;1.3737;
959.7000;0.3451;1.3713;
960.0000;0.3435;1.3689;
960.3000;0.3451;1.3737;
960.6000;0.3451;1.3737;
960.9000;0.3451;1.3713;
961.2000;0.3435;1.3666;
961.5000;0.3435;1.3689;
961.8000;0.3435;1.3642;
962.1000;0.3468;1.3689;
962.4000;0.3451;1.3571;
962.7000;0.3443;1.3547;
963.0000;0.3476;1.3571;
963.3000;0.3451;1.3642;
963.6000;0.3460;1.3713;
963.9000;0.3460;1.3808;
964.2000;0.3451;1.3808;
964.5000;0.3476;1.3974;
964.8000;0.3460;1.3950;
965.1000;0.3427;1.3808;
965.4000;0.3451;1.3808;
965.7000;0.3460;1.3689;
966.0000;0.3451;1.3666;
966.3000;0.3451;1.3713;
966.6000;0.3533;1.3950;
966.9000;0.3468;1.3784;
967.2000;0.3468;1.3784;
967.5000;0.3508;1.3855;
967.8000;0.3468;1.3689;
968.1000;0.3419;1.3547;
968.4000;0.3460;1.3594;
968.7000;0.3403;1.3357;
969.0000;0.3460;1.3500;
969.3000;0.3451;1.3500;
969.6000;0.3451;1.3452;
969.9000;0.3468;1.3452;
970.2000;0.3500;1.3500;
970.5000;0.3411;1.3357;
970.8000;0.3443;1.3428;
971.1000;0.3460;1.3381;
971.4000;0.3443;1.3476;
971.7000;0.3419;1.3523;
972.0000;0.3468;1.3689;
972.3000;0.3468;1.3761;
972.6000;0.3451;1.3618;
972.9000;0.3476;1.3784;
973.2000;0.3460;1.3761;
973.5000;0.3557;1.3998;
973.8000;0.3460;1.3713;
974.1000;0.3541;1.3950;
974.4000;0.3443;1.3737;
974.7000;0.3460;1.3689;
975.0000;0.3468;1.3737;
975.3000;0.3451;1.3808;
975.6000;0.3443;1.3737;
975.9000;0.3451;1.3761;
976.2000;0.3460;1.3761;
976.5000;0.3443;1.3761;
976.8000;0.3435;1.3689;
977.1000;0.3476;1.3737;
977.4000;0.3468;1.3618;
977.7000;0.3451;1.3713;
978.0000;0.3460;1.3689;
978.3000;0.3476;1.3761;
978.6000;0.3468;1.3832;
978.9000;0.3460;1.3855;
979.2000;0.3460;1.3808;
979.5000;0.3451;1.3808;
979.8000;0.3460;1.3879;
980.1000;0.3460;1.3855;
980.4000;0.3476;1.3879;
980.7000;0.3460;1.3784;
981.0000;0.3557;1.3998;
981.3000;0.3386;1.3500;
981.6000;0.3435;1.3737;
981.9000;0.3468;1.3808;
982.2000;0.3451;1.3761;
982.5000;0.3451;1.3713;
982.8000;0.3451;1.3713;
983.1000;0.3468;1.3737;
983.4000;0.3403;1.3452;
983.7000;0.3460;1.3500;
984.0000;0.3443;1.3571;
984.3000;0.3427;1.3594;
984.6000;0.3460;1.3689;
984.9000;0.3451;1.3689;
985.2000;0.3460;1.3713;
985.5000;0.3460;1.3689;
985.8000;0.3468;1.3713;
986.1000;0.3468;1.3761;
986.4000;0.3460;1.3713;
986.7000;0.3451;1.3808;
987.0000;0.3443;1.3761;
987.3000;0.3451;1.3761;
987.6000;0.3516;1.3903;
987.9000;0.3451;1.3666;
988.2000;0.3460;1.3761;
988.5000;0.3427;1.3642;
988.8000;0.3435;1.3689;
989.1000;0.3460;1.3784;
989.4000;0.3451;1.3737;
989.7000;0.3411;1.3737;
990.0000;0.3468;1.3784;
990.3000;0.3451;1.3761;
990.6000;0.3435;1.3713;
990.9000;0.3451;1.3713;
991.2000;0.3451;1.3713;
991.5000;0.3451;1.3618;
991.8000;0.3468;1.3737;
992.1000;0.3443;1.3713;
992.4000;0.3468;1.3879;
992.7000;0.3411;1.3761;
993.0000;0.3435;1.3855;
993.3000;0.3443;1.3927;
993.6000;0.3451;1.3903;
993.9000;0.3443;1.3950;
994.2000;0.3460;1.3927;
994.5000;0.3460;1.3879;
994.8000;0.3460;1.3903;
995.1000;0.3460;1.3808;
995.4000;0.3451;1.3784;
995.7000;0.3451;1.3737;
996.0000;0.3451;1.3737;
996.3000;0.3525;1.3974;
996.6000;0.3435;1.3784;
996.9000;0.3460;1.3784;
997.2000;0.3460;1.3784;
997.5000;0.3427;1.3737;
997.8000;0.3468;1.3808;
998.1000;0.3435;1.3761;
998.4000;0.3460;1.3855;
998.7000;0.3460;1.3832;
999.0000;0.3451;1.3855;
999.3000;0.3411;1.3689;
999.6000;0.3435;1.3784;
999.9000;0.3460;1.3855;
1000.2000;0.3451;1.3855;
1000.5000;0.3468;1.3808;
1000.8000;0.3451;1.3666;
1001.1000;0.3403;1.3594;
1001.4000;0.3435;1.3666;
1001.7000;0.3443;1.3642;
1002.0000;0.3451;1.3618;
1002.3000;0.3386;1.3547;
1002.6000;0.3451;1.3642;
1002.9000;0.3484;1.3666;
1003.2000;0.3451;1.3618;
1003.5000;0.3443;1.3523;
1003.8000;0.3468;1.3571;
1004.1000;0.3403;1.3428;
1004.4000;0.3460;1.3618;
1004.7000;0.3427;1.3618;
1005.0000;0.3419;1.3594;
1005.3000;0.3468;1.3689;
1005.6000;0.3451;1.3571;
1005.9000;0.3386;1.3405;
1006.2000;0.3451;1.3571;
1006.5000;0.3451;1.3594;
1006.8000;0.3484;1.3642;
1007.1000;0.3451;1.3547;
1007.4000;0.3460;1.3571;
1007.7000;0.3451;1.3547;
1008.0000;0.3460;1.3594;
1008.3000;0.3443;1.3523;
1008.6000;0.3460;1.3571;
1008.9000;0.3460;1.3547;
1009.2000;0.3451;1.3500;
1009.5000;0.3443;1.3357;
1009.8000;0.3451;1.3452;
1010.1000;0.3451;1.3500;
1010.4000;0.3443;1.3547;
1010.7000;0.3435;1.3500;
1011.0000;0.3460;1.3547;
1011.3000;0.3460;1.3594;
1011.6000;0.3460;1.3642;
1011.9000;0.3468;1.3618;
1012.2000;0.3476;1.3571;
1012.5000;0.3460;1.3594;
1012.8000;0.3468;1.3666;
1013.1000;0.3451;1.3666;
1013.4000;0.3460;1.3713;
1013.7000;0.3460;1.3594;
1014.0000;0.3460;1.3689;
1014.3000;0.3460;1.3618;
1014.6000;0.3460;1.3666;
1014.9000;0.3460;1.3713;
1015.2000;0.3451;1.3737;
1015.5000;0.3378;1.3476;
1015.8000;0.3468;1.3642;
1016.1000;0.3435;1.3594;
1016.4000;0.3460;1.3666;
1016.7000;0.3460;1.3666;
1017.0000;0.3443;1.3547;
1017.3000;0.3435;1.3547;
1017.6000;0.3451;1.3547;
1017.9000;0.3451;1.3523;
1018.2000;0.3419;1.3500;
1018.5000;0.3451;1.3571;
1018.8000;0.3451;1.3547;
1019.1000;0.3549;1.3832;
1019.4000;0.3468;1.3618;
1019.7000;0.3451;1.3594;
1020.0000;0.3411;1.3357;
1020.3000;0.3460;1.3500;
1020.6000;0.3443;1.3523;
1020.9000;0.3443;1.3594;
1021.2000;0.3451;1.3666;
1021.5000;0.3451;1.3761;
1021.8000;0.3460;1.3784;
1022.1000;0.3492;1.3855;
1022.4000;0.3484;1.3761;
1022.7000;0.3460;1.3618;
1023.0000;0.3508;1.3689;
1023.3000;0.3492;1.3618;
1023.6000;0.3500;1.3618;
1023.9000;0.3460;1.3547;
1024.2000;0.3460;1.3476;
1024.5000;0.3451;1.3547;
1024.8000;0.3451;1.3500;
1025.1000;0.3443;1.3547;
1025.4000;0.3443;1.3476;
1025.7000;0.3443;1.3452;
1026.0000;0.3460;1.3500;
1026.3000;0.3435;1.3452;
1026.6000;0.3451;1.3547;
1026.9000;0.3468;1.3571;
1027.2000;0.3443;1.3547;
1027.5000;0.3451;1.3571;
1027.8000;0.3508;1.3689;
1028.1000;0.3468;1.3666;
1028.4000;0.3468;1.3618;
1028.7000;0.3468;1.3594;
1029.0000;0.3468;1.3642;
1029.3000;0.3451;1.3547;
1029.6000;0.3451;1.3571;
1029.9000;0.3484;1.3618;
1030.2000;0.3443;1.3618;
1030.5000;0.3435;1.3689;
1030.8000;0.3451;1.3642;
1031.1000;0.3468;1.3737;
1031.4000;0.3460;1.3737;
1031.7000;0.3460;1.3784;
1032.0000;0.3443;1.3784;
1032.3000;0.3403;1.3689;
1032.6000;0.3443;1.3761;
1032.9000;0.3451;1.3737;
1033.2000;0.3435;1.3594;
1033.5000;0.3468;1.3713;
1033.8000;0.3443;1.3666;
1034.1000;0.3427;1.3689;
1034.4000;0.3443;1.3808;
1034.7000;0.3443;1.3832;
1035.0000;0.3468;1.3855;
1035.3000;0.3451;1.3808;
1035.6000;0.3468;1.3832;
1035.9000;0.3484;1.3879;
1036.2000;0.3451;1.3761;
1036.5000;0.3451;1.3713;
1036.8000;0.3451;1.3713;
1037.1000;0.3460;1.3666;
1037.4000;0.3443;1.3594;
1037.7000;0.3427;1.3523;
1038.0000;0.3435;1.3547;
1038.3000;0.3443;1.3642;
1038.6000;0.3476;1.3689;
1038.9000;0.3378;1.3476;
1039.2000;0.3443;1.3737;
1039.5000;0.3443;1.3713;
1039.8000;0.3435;1.3666;
1040.1000;0.3443;1.3594;
1040.4000;0.3386;1.3452;
1040.7000;0.3451;1.3547;
1041.0000;0.3468;1.3547;
1041.3000;0.3435;1.3476;
1041.6000;0.3427;1.3405;
1041.9000;0.3435;1.3405;
1042.2000;0.3435;1.3547;
1042.5000;0.3451;1.3476;
1042.8000;0.3451;1.3428;
1043.1000;0.3386;1.3286;
1043.4000;0.3468;1.3523;
1043.7000;0.3468;1.3571;
1044.0000;0.3443;1.3452;
1044.3000;0.3484;1.3523;
1044.6000;0.3427;1.3428;
1044.9000;0.3460;1.3500;
1045.2000;0.3427;1.3405;
1045.5000;0.3443;1.3547;
1045.8000;0.3354;1.3310;
1046.1000;0.3435;1.3476;
1046.4000;0.3460;1.3547;
1046.7000;0.3451;1.3571;
1047.0000;0.3460;1.3571;
1047.3000;0.3443;1.3571;
1047.6000;0.3411;1.3618;
1047.9000;0.3443;1.3618;
1048.2000;0.3460;1.3666;
1048.5000;0.3460;1.3666;
1048.8000;0.3451;1.3547;
1049.1000;0.3443;1.3523;
1049.4000;0.3468;1.3523;
1049.7000;0.3468;1.3547;
1050.0000;0.3460;1.3428;
1050.3000;0.3451;1.3357;
1050.6000;0.3435;1.3286;
1050.9000;0.3500;1.3452;
1051.2000;0.3451;1.3334;
1051.5000;0.3443;1.3310;
1051.8000;0.3435;1.3381;
1052.1000;0.3451;1.3547;
1052.4000;0.3443;1.3547;
1052.7000;0.3435;1.3571;
1053.0000;0.3443;1.3547;
1053.3000;0.3451;1.3571;
1053.6000;0.3451;1.3571;
1053.9000;0.3460;1.3594;
1054.2000;0.3468;1.3500;
1054.5000;0.3443;1.3500;
1054.8000;0.3468;1.3547;
1055.1000;0.3451;1.3618;
1055.4000;0.3451;1.3594;
1055.7000;0.3451;1.3618;
1056.0000;0.3394;1.3405;
1056.3000;0.3354;1.3239;
1056.6000;0.3443;1.3428;
1056.9000;0.3443;1.3523;
1057.2000;0.3443;1.3428;
1057.5000;0.3451;1.3405;
1057.8000;0.3443;1.3262;
1058.1000;0.3435;1.3262;
1058.4000;0.3451;1.3357;
1058.7000;0.3451;1.3381;
1059.0000;0.3460;1.3428;
1059.3000;0.3460;1.3381;
1059.6000;0.3435;1.3286;
1059.9000;0.3460;1.3357;
1060.2000;0.3427;1.3191;
1060.5000;0.3468;1.3262;
1060.8000;0.3451;1.3262;
1061.1000;0.3451;1.3334;
1061.4000;0.3443;1.3381;
1061.7000;0.3443;1.3405;
1062.0000;0.3460;1.3452;
1062.3000;0.3411;1.3334;
1062.6000;0.3362;1.3286;
1062.9000;0.3451;1.3500;
1063.2000;0.3427;1.3476;
1063.5000;0.3460;1.3428;
1063.8000;0.3427;1.3381;
1064.1000;0.3443;1.3428;
1064.4000;0.3443;1.3405;
1064.7000;0.3460;1.3357;
1065.0000;0.3451;1.3334;
1065.3000;0.3451;1.3262;
1065.6000;0.3460;1.3262;
1065.9000;0.3460;1.3286;
1066.2000;0.3435;1.3286;
1066.5000;0.3451;1.3262;
1066.8000;0.3460;1.3262;
1067.1000;0.3508;1.3334;
1067.4000;0.3451;1.3144;
1067.7000;0.3451;1.3120;
1068.0000;0.3460;1.3167;
1068.3000;0.3443;1.3096;
1068.6000;0.3460;1.3120;
1068.9000;0.3460;1.3167;
1069.2000;0.3427;1.3215;
1069.5000;0.3435;1.3262;
1069.8000;0.3451;1.3286;
1070.1000;0.3411;1.3191;
1070.4000;0.3443;1.3334;
1070.7000;0.3427;1.3310;
1071.0000;0.3435;1.3357;
1071.3000;0.3419;1.3286;
1071.6000;0.3451;1.3334;
1071.9000;0.3508;1.3500;
1072.2000;0.3427;1.3381;
1072.5000;0.3460;1.3523;
1072.8000;0.3443;1.3500;
1073.1000;0.3451;1.3476;
1073.4000;0.3443;1.3428;
1073.7000;0.3460;1.3428;
1074.0000;0.3443;1.3381;
1074.3000;0.3443;1.3286;
1074.6000;0.3427;1.3191;
1074.9000;0.3435;1.3215;
1075.2000;0.3443;1.3215;
1075.5000;0.3435;1.3239;
1075.8000;0.3443;1.3286;
1076.1000;0.3451;1.3310;
1076.4000;0.3435;1.3357;
1076.7000;0.3427;1.3310;
1077.0000;0.3435;1.3381;
1077.3000;0.3451;1.3500;
1077.6000;0.3451;1.3500;
1077.9000;0.3451;1.3428;
1078.2000;0.3460;1.3476;
1078.5000;0.3443;1.3476;
1078.8000;0.3451;1.3476;
1079.1000;0.3443;1.3476;
1079.4000;0.3451;1.3571;
1079.7000;0.3443;1.3547;
1080.0000;0.3435;1.3500;
1080.3000;0.3411;1.3357;
1080.6000;0.3476;1.3594;
1080.9000;0.3435;1.3547;
1081.2000;0.3508;1.3761;
1081.5000;0.3451;1.3713;
1081.8000;0.3435;1.3666;
1082.1000;0.3451;1.3547;
1082.4000;0.3476;1.3571;
1082.7000;0.3451;1.3523;
1083.0000;0.3443;1.3476;
1083.3000;0.3443;1.3357;
1083.6000;0.3451;1.3334;
1083.9000;0.3451;1.3310;
1084.2000;0.3443;1.3357;
1084.5000;0.3451;1.3334;
1084.8000;0.3378;1.3144;
1085.1000;0.3451;1.3405;
1085.4000;0.3443;1.3334;
1085.7000;0.3443;1.3239;
1086.0000;0.3443;1.3262;
1086.3000;0.3443;1.3405;
1086.6000;0.3508;1.3500;
1086.9000;0.3435;1.3381;
1087.2000;0.3443;1.3452;
1087.5000;0.3476;1.3523;
1087.8000;0.3394;1.3405;
1088.1000;0.3435;1.3523;
1088.4000;0.3460;1.3476;
1088.7000;0.3443;1.3428;
1089.0000;0.3394;1.3334;
1089.3000;0.3451;1.3476;
1089.6000;0.3492;1.3666;
1089.9000;0.3435;1.3547;
1090.2000;0.3435;1.3500;
1090.5000;0.3435;1.3594;
1090.8000;0.3451;1.3689;
1091.1000;0.3484;1.3713;
1091.4000;0.3460;1.3666;
1091.7000;0.3492;1.3737;
1092.0000;0.3427;1.3594;
1092.3000;0.3427;1.3547;
1092.6000;0.3451;1.3523;
1092.9000;0.3443;1.3547;
1093.2000;0.3443;1.3428;
1093.5000;0.3443;1.3476;
1093.8000;0.3443;1.3428;
1094.1000;0.3468;1.3452;
1094.4000;0.3443;1.3452;
1094.7000;0.3443;1.3523;
1095.0000;0.3427;1.3642;
1095.3000;0.3394;1.3500;
1095.6000;0.3443;1.3571;
1095.9000;0.3435;1.3571;
1096.2000;0.3468;1.3594;
1096.5000;0.3451;1.3571;
1096.8000;0.3451;1.3571;
1097.1000;0.3443;1.3452;
1097.4000;0.3443;1.3405;
1097.7000;0.3460;1.3476;
1098.0000;0.3468;1.3523;
1098.3000;0.3427;1.3452;
1098.6000;0.3451;1.3476;
1098.9000;0.3565;1.3737;
1099.2000;0.3451;1.3500;
1099.5000;0.3443;1.3452;
1099.8000;0.3460;1.3476;
1100.1000;0.3443;1.3452;
1100.4000;0.3468;1.3523;
1100.7000;0.3443;1.3523;
1101.0000;0.3435;1.3547;
1101.3000;0.3427;1.3523;
1101.6000;0.3435;1.3571;
1101.9000;0.3451;1.3689;
1102.2000;0.3435;1.3737;
1102.5000;0.3443;1.3737;
1102.8000;0.3451;1.3761;
1103.1000;0.3451;1.3737;
1103.4000;0.3460;1.3761;
1103.7000;0.3435;1.3666;
1104.0000;0.3451;1.3571;
1104.3000;0.3500;1.3713;
1104.6000;0.3443;1.3618;
1104.9000;0.3435;1.3618;
1105.2000;0.3443;1.3618;
1105.5000;0.3460;1.3594;
1105.8000;0.3443;1.3642;
1106.1000;0.3435;1.3689;
1106.4000;0.3419;1.3618;
1106.7000;0.3427;1.3618;
1107.0000;0.3451;1.3594;
1107.3000;0.3435;1.3523;
1107.6000;0.3427;1.3500;
1107.9000;0.3443;1.3618;
1108.2000;0.3435;1.3713;
1108.5000;0.3435;1.3666;
1108.8000;0.3443;1.3689;
1109.1000;0.3435;1.3594;
1109.4000;0.3451;1.3594;
1109.7000;0.3435;1.3571;
1110.0000;0.3435;1.3594;
1110.3000;0.3435;1.3618;
1110.6000;0.3394;1.3523;
1110.9000;0.3435;1.3642;
1111.2000;0.3427;1.3618;
1111.5000;0.3427;1.3642;
1111.8000;0.3435;1.3666;
1112.1000;0.3468;1.3832;
1112.4000;0.3460;1.3855;
1112.7000;0.3329;1.3500;
1113.0000;0.3492;1.3927;
1113.3000;0.3435;1.3689;
1113.6000;0.3451;1.3666;
1113.9000;0.3443;1.3642;
1114.2000;0.3460;1.3713;
1114.5000;0.3451;1.3571;
1114.8000;0.3443;1.3523;
1115.1000;0.3362;1.3310;
1115.4000;0.3419;1.3428;
1115.7000;0.3460;1.3452;
1116.0000;0.3451;1.3476;
1116.3000;0.3435;1.3500;
1116.6000;0.3443;1.3523;
1116.9000;0.3411;1.3381;
1117.2000;0.3435;1.3428;
1117.5000;0.3443;1.3452;
1117.8000;0.3435;1.3452;
1118.1000;0.3451;1.3523;
1118.4000;0.3460;1.3642;
1118.7000;0.3354;1.3405;
1119.0000;0.3443;1.3594;
1119.3000;0.3443;1.3618;
1119.6000;0.3443;1.3547;
1119.9000;0.3443;1.3452;
1120.2000;0.3435;1.3500;
1120.5000;0.3435;1.3357;
1120.8000;0.3451;1.3357;
1121.1000;0.3451;1.3428;
1121.4000;0.3443;1.3500;
1121.7000;0.3516;1.3689;
1122.0000;0.3443;1.3405;
1122.3000;0.3443;1.3405;
1122.6000;0.3443;1.3405;
1122.9000;0.3460;1.3381;
1123.2000;0.3443;1.3334;
1123.5000;0.3427;1.3286;
1123.8000;0.3435;1.3334;
1124.1000;0.3443;1.3334;
1124.4000;0.3435;1.3215;
1124.7000;0.3443;1.3215;
1125.0000;0.3419;1.3191;
1125.3000;0.3443;1.3215;
1125.6000;0.3443;1.3262;
1125.9000;0.3451;1.3286;
1126.2000;0.3427;1.3215;
1126.5000;0.3435;1.3096;
1126.8000;0.3427;1.3120;
1127.1000;0.3451;1.3215;
1127.4000;0.3443;1.3167;
1127.7000;0.3435;1.3239;
1128.0000;0.3443;1.3357;
1128.3000;0.3435;1.3452;
1128.6000;0.3435;1.3500;
1128.9000;0.3460;1.3452;
1129.2000;0.3443;1.3571;
1129.5000;0.3451;1.3571;
1129.8000;0.3419;1.3500;
1130.1000;0.3427;1.3571;
1130.4000;0.3443;1.3666;
1130.7000;0.3435;1.3666;
1131.0000;0.3443;1.3689;
1131.3000;0.3460;1.3642;
1131.6000;0.3451;1.3689;
1131.9000;0.3435;1.3642;
1132.2000;0.3460;1.3642;
1132.5000;0.3451;1.3642;
1132.8000;0.3468;1.3689;
1133.1000;0.3476;1.3761;
1133.4000;0.3451;1.3784;
1133.7000;0.3443;1.3689;
1134.0000;0.3427;1.3666;
1134.3000;0.3443;1.3761;
1134.6000;0.3451;1.3808;
1134.9000;0.3443;1.3784;
1135.2000;0.3427;1.3761;
1135.5000;0.3435;1.3666;
1135.8000;0.3443;1.3689;
1136.1000;0.3443;1.3737;
1136.4000;0.3451;1.3737;
1136.7000;0.3411;1.3571;
1137.0000;0.3435;1.3618;
1137.3000;0.3443;1.3594;
1137.6000;0.3443;1.3571;
1137.9000;0.3443;1.3523;
1138.2000;0.3451;1.3547;
1138.5000;0.3443;1.3594;
1138.8000;0.3476;1.3642;
1139.1000;0.3451;1.3594;
1139.4000;0.3451;1.3523;
1139.7000;0.3460;1.3571;
1140.0000;0.3443;1.3523;
1140.3000;0.3435;1.3500;
1140.6000;0.3427;1.3523;
1140.9000;0.3451;1.3594;
1141.2000;0.3394;1.3405;
1141.5000;0.3403;1.3428;
1141.8000;0.3460;1.3547;
1142.1000;0.3541;1.3832;
1142.4000;0.3460;1.3618;
1142.7000;0.3460;1.3594;
1143.0000;0.3435;1.3594;
1143.3000;0.3460;1.3666;
1143.6000;0.3460;1.3642;
1143.9000;0.3468;1.3737;
1144.2000;0.3443;1.3689;
1144.5000;0.3443;1.3642;
1144.8000;0.3443;1.3689;
1145.1000;0.3443;1.3618;
1145.4000;0.3435;1.3618;
1145.7000;0.3443;1.3642;
1146.0000;0.3476;1.3666;
1146.3000;0.3451;1.3523;
1146.6000;0.3476;1.3666;
1146.9000;0.3435;1.3571;
1147.2000;0.3443;1.3571;
1147.5000;0.3451;1.3476;
1147.8000;0.3435;1.3405;
1148.1000;0.3443;1.3334;
1148.4000;0.3411;1.3239;
1148.7000;0.3468;1.3452;
1149.0000;0.3460;1.3452;
1149.3000;0.3451;1.3428;
1149.6000;0.3435;1.3428;
1149.9000;0.3443;1.3452;
1150.2000;0.3460;1.3476;
1150.5000;0.3419;1.3381;
1150.8000;0.3411;1.3381;
1151.1000;0.3435;1.3594;
1151.4000;0.3435;1.3618;
1151.7000;0.3427;1.3689;
1152.0000;0.3427;1.3737;
1152.3000;0.3451;1.3761;
1152.6000;0.3443;1.3642;
1152.9000;0.3427;1.3571;
1153.2000;0.3557;1.3808;
1153.5000;0.3427;1.3452;
1153.8000;0.3427;1.3428;
1154.1000;0.3460;1.3452;
1154.4000;0.3451;1.3452;
1154.7000;0.3435;1.3428;
1155.0000;0.3484;1.3571;
1155.3000;0.3411;1.3500;
1155.6000;0.3419;1.3618;
1155.9000;0.3394;1.3618;
1156.2000;0.3460;1.3737;
1156.5000;0.3435;1.3689;
1156.8000;0.3451;1.3666;
1157.1000;0.3435;1.3594;
1157.4000;0.3460;1.3642;
1157.7000;0.3451;1.3547;
1158.0000;0.3386;1.3357;
1158.3000;0.3451;1.3523;
1158.6000;0.3435;1.3571;
1158.9000;0.3435;1.3594;
1159.2000;0.3460;1.3713;
1159.5000;0.3468;1.3737;
1159.8000;0.3460;1.3784;
1160.1000;0.3451;1.3855;
1160.4000;0.3451;1.3784;
1160.7000;0.3435;1.3689;
1161.0000;0.3443;1.3737;
1161.3000;0.3435;1.3761;
1161.6000;0.3411;1.3689;
1161.9000;0.3419;1.3713;
1162.2000;0.3394;1.3618;
1162.5000;0.3443;1.3737;
1162.8000;0.3451;1.3761;
1163.1000;0.3451;1.3784;
1163.4000;0.3443;1.3808;
1163.7000;0.3451;1.3855;
1164.0000;0.3468;1.3855;
1164.3000;0.3435;1.3784;
1164.6000;0.3435;1.3784;
1164.9000;0.3451;1.3808;
1165.2000;0.3443;1.3784;
1165.5000;0.3427;1.3713;
1165.8000;0.3443;1.3666;
1166.1000;0.3443;1.3808;
1166.4000;0.3451;1.3855;
1166.7000;0.3435;1.3832;
1167.0000;0.3443;1.3855;
1167.3000;0.3427;1.3808;
1167.6000;0.3468;1.3903;
1167.9000;0.3443;1.3879;
1168.2000;0.3443;1.3974;
1168.5000;0.3435;1.3974;
1168.8000;0.3451;1.3998;
1169.1000;0.3460;1.4093;
1169.4000;0.3435;1.3903;
1169.7000;0.3435;1.3855;
1170.0000;0.3460;1.3903;
1170.3000;0.3435;1.3879;
1170.6000;0.3435;1.3903;
1170.9000;0.3451;1.3832;
1171.2000;0.3451;1.3761;
1171.5000;0.3443;1.3808;
1171.8000;0.3443;1.3808;
1172.1000;0.3443;1.3855;
1172.4000;0.3411;1.3855;
1172.7000;0.3443;1.3950;
1173.0000;0.3451;1.3903;
1173.3000;0.3435;1.3784;
1173.6000;0.3386;1.3642;
1173.9000;0.3484;1.3974;
1174.2000;0.3468;1.3950;
1174.5000;0.3435;1.3927;
1174.8000;0.3443;1.3879;
1175.1000;0.3451;1.3808;
1175.4000;0.3443;1.3832;
1175.7000;0.3427;1.3808;
1176.0000;0.3419;1.3761;
1176.3000;0.3460;1.3808;
1176.6000;0.3443;1.3784;
1176.9000;0.3435;1.3689;
1177.2000;0.3451;1.3784;
1177.5000;0.3460;1.3855;
1177.8000;0.3476;1.3855;
1178.1000;0.3460;1.3855;
1178.4000;0.3443;1.3903;
1178.7000;0.3443;1.3974;
1179.0000;0.3435;1.3950;
1179.3000;0.3443;1.4022;
1179.6000;0.3451;1.4069;
1179.9000;0.3451;1.4045;
1180.2000;0.3443;1.3998;
1180.5000;0.3451;1.3998;
1180.8000;0.3435;1.3950;
1181.1000;0.3451;1.3879;
1181.4000;0.3443;1.3903;
1181.7000;0.3460;1.3974;
1182.0000;0.3460;1.3974;
1182.3000;0.3451;1.3927;
1182.6000;0.3451;1.3903;
1182.9000;0.3435;1.3974;
1183.2000;0.3451;1.4093;
1183.5000;0.3443;1.4140;
1183.8000;0.3500;1.4188;
1184.1000;0.3443;1.4093;
1184.4000;0.3451;1.4069;
1184.7000;0.3443;1.4022;
1185.0000;0.3435;1.3998;
1185.3000;0.3443;1.3998;
1185.6000;0.3403;1.3879;
1185.9000;0.3435;1.3950;
1186.2000;0.3443;1.3927;
1186.5000;0.3451;1.3950;
1186.8000;0.3451;1.3950;
1187.1000;0.3451;1.3927;
1187.4000;0.3443;1.3832;
1187.7000;0.3443;1.3832;
1188.0000;0.3443;1.3903;
1188.3000;0.3435;1.3903;
1188.6000;0.3435;1.3903;
1188.9000;0.3419;1.3832;
1189.2000;0.3435;1.3879;
1189.5000;0.3411;1.3737;
1189.8000;0.3451;1.3808;
1190.1000;0.3427;1.3689;
1190.4000;0.3443;1.3689;
1190.7000;0.3451;1.3713;
1191.0000;0.3419;1.3666;
1191.3000;0.3451;1.3761;
1191.6000;0.3435;1.3784;
1191.9000;0.3443;1.3808;
1192.2000;0.3443;1.3855;
1192.5000;0.3451;1.3855;
1192.8000;0.3468;1.3974;
1193.1000;0.3451;1.4045;
1193.4000;0.3443;1.3974;
1193.7000;0.3451;1.4022;
1194.0000;0.3427;1.4022;
1194.3000;0.3460;1.4069;
1194.6000;0.3451;1.4093;
1194.9000;0.3460;1.4093;
1195.2000;0.3435;1.3950;
1195.5000;0.3451;1.3927;
1195.8000;0.3443;1.3974;
1196.1000;0.3427;1.3832;
1196.4000;0.3394;1.3737;
1196.7000;0.3394;1.3737;
1197.0000;0.3484;1.3927;
1197.3000;0.3443;1.3808;
1197.6000;0.3419;1.3713;
1197.9000;0.3476;1.3832;
1198.2000;0.3427;1.3761;
1198.5000;0.3394;1.3713;
1198.8000;0.3451;1.3879;
1199.1000;0.3443;1.3903;
1199.4000;0.3451;1.3950;
1199.7000;0.3443;1.3855;
1200.0000;0.3443;1.3784;
1200.3000;0.3443;1.3808;
1200.6000;0.3443;1.3855;
1200.9000;0.3419;1.3832;
1201.2000;0.3411;1.3832;
1201.5000;0.3451;1.3903;
1201.8000;0.3427;1.3855;
1202.1000;0.3427;1.3808;
1202.4000;0.3476;1.3832;
1202.7000;0.3427;1.3737;
1203.0000;0.3451;1.3784;
1203.3000;0.3427;1.3832;
1203.6000;0.3451;1.3784;
1203.9000;0.3460;1.3784;
1204.2000;0.3427;1.3761;
1204.5000;0.3451;1.3879;
1204.8000;0.3443;1.3879;
1205.1000;0.3443;1.3808;
1205.4000;0.3419;1.3761;
1205.7000;0.3443;1.3784;
1206.0000;0.3443;1.3832;
1206.3000;0.3443;1.3761;
1206.6000;0.3443;1.3832;
1206.9000;0.3443;1.3832;
1207.2000;0.3443;1.3950;
1207.5000;0.3451;1.3927;
1207.8000;0.3435;1.3927;
1208.1000;0.3468;1.3950;
1208.4000;0.3443;1.3903;
1208.7000;0.3451;1.3927;
1209.0000;0.3451;1.3927;
1209.3000;0.3451;1.3927;
1209.6000;0.3427;1.3879;
1209.9000;0.3435;1.3927;
1210.2000;0.3435;1.3950;
1210.5000;0.3435;1.4022;
1210.8000;0.3443;1.4045;
1211.1000;0.3411;1.3974;
1211.4000;0.3435;1.4045;
1211.7000;0.3443;1.4069;
1212.0000;0.3435;1.4045;
1212.3000;0.3443;1.4045;
1212.6000;0.3476;1.3974;
1212.9000;0.3435;1.3927;
1213.2000;0.3451;1.3974;
1213.5000;0.3451;1.3998;
1213.8000;0.3484;1.4045;
1214.1000;0.3443;1.4022;
1214.4000;0.3443;1.4022;
1214.7000;0.3443;1.4069;
1215.0000;0.3443;1.3998;
1215.3000;0.3427;1.3927;
1215.6000;0.3435;1.3974;
1215.9000;0.3435;1.3974;
1216.2000;0.3394;1.3832;
1216.5000;0.3435;1.3879;
1216.8000;0.3427;1.3832;
1217.1000;0.3443;1.3855;
1217.4000;0.3346;1.3500;
1217.7000;0.3443;1.3618;
1218.0000;0.3427;1.3594;
1218.3000;0.3476;1.3666;
1218.6000;0.3451;1.3594;
1218.9000;0.3443;1.3594;
1219.2000;0.3435;1.3618;
1219.5000;0.3435;1.3594;
1219.8000;0.3443;1.3642;
1220.1000;0.3427;1.3594;
1220.4000;0.3411;1.3500;
1220.7000;0.3443;1.3523;
1221.0000;0.3427;1.3476;
1221.3000;0.3451;1.3428;
1221.6000;0.3451;1.3428;
1221.9000;0.3427;1.3405;
1222.2000;0.3443;1.3523;
1222.5000;0.3443;1.3571;
1222.8000;0.3443;1.3571;
1223.1000;0.3427;1.3571;
1223.4000;0.3443;1.3594;
1223.7000;0.3435;1.3547;
1224.0000;0.3427;1.3476;
1224.3000;0.3435;1.3547;
1224.6000;0.3411;1.3571;
1224.9000;0.3443;1.3666;
1225.2000;0.3427;1.3618;
1225.5000;0.3435;1.3571;
1225.8000;0.3427;1.3594;
1226.1000;0.3427;1.3737;
1226.4000;0.3435;1.3808;
1226.7000;0.3435;1.3761;
1227.0000;0.3435;1.3761;
1227.3000;0.3435;1.3832;
1227.6000;0.3443;1.3808;
1227.9000;0.3460;1.3879;
1228.2000;0.3411;1.3832;
1228.5000;0.3435;1.3879;
1228.8000;0.3508;1.4140;
1229.1000;0.3451;1.3927;
1229.4000;0.3476;1.3998;
1229.7000;0.3435;1.3855;
1230.0000;0.3411;1.3855;
1230.3000;0.3451;1.3832;
1230.6000;0.3443;1.3879;
1230.9000;0.3427;1.3832;
1231.2000;0.3386;1.3689;
1231.5000;0.3451;1.3855;
1231.8000;0.3443;1.3832;
1232.1000;0.3435;1.3737;
1232.4000;0.3427;1.3666;
1232.7000;0.3435;1.3713;
1233.0000;0.3435;1.3737;
1233.3000;0.3427;1.3808;
1233.6000;0.3451;1.3832;
1233.9000;0.3451;1.3808;
1234.2000;0.3411;1.3761;
1234.5000;0.3443;1.3784;
1234.8000;0.3451;1.3879;
1235.1000;0.3443;1.3761;
1235.4000;0.3443;1.3713;
1235.7000;0.3403;1.3713;
1236.0000;0.3427;1.3784;
1236.3000;0.3460;1.3879;
1236.6000;0.3468;1.3855;
1236.9000;0.3443;1.3832;
1237.2000;0.3427;1.3855;
1237.5000;0.3451;1.3927;
1237.8000;0.3435;1.3927;
1238.1000;0.3427;1.3808;
1238.4000;0.3427;1.3832;
1238.7000;0.3427;1.3737;
1239.0000;0.3443;1.3737;
1239.3000;0.3427;1.3713;
1239.6000;0.3427;1.3666;
1239.9000;0.3411;1.3666;
1240.2000;0.3443;1.3832;
1240.5000;0.3435;1.3903;
1240.8000;0.3427;1.3855;
1241.1000;0.3435;1.3855;
1241.4000;0.3435;1.3903;
1241.7000;0.3435;1.3855;
1242.0000;0.3427;1.3832;
1242.3000;0.3443;1.3784;
1242.6000;0.3451;1.3761;
1242.9000;0.3443;1.3737;
1243.2000;0.3435;1.3689;
1243.5000;0.3443;1.3642;
1243.8000;0.3443;1.3761;
1244.1000;0.3443;1.3737;
1244.4000;0.3484;1.3832;
1244.7000;0.3427;1.3689;
1245.0000;0.3500;1.4022;
1245.3000;0.3427;1.3737;
1245.6000;0.3443;1.3713;
1245.9000;0.3435;1.3689;
1246.2000;0.3443;1.3689;
1246.5000;0.3427;1.3666;
1246.8000;0.3419;1.3666;
1247.1000;0.3443;1.3713;
1247.4000;0.3419;1.3618;
1247.7000;0.3443;1.3689;
1248.0000;0.3451;1.3689;
1248.3000;0.3443;1.3761;
1248.6000;0.3476;1.3855;
1248.9000;0.3508;1.3974;
1249.2000;0.3435;1.3784;
1249.5000;0.3362;1.3642;
1249.8000;0.3427;1.3808;
1250.1000;0.3411;1.3832;
1250.4000;0.3411;1.3761;
1250.7000;0.3443;1.3808;
1251.0000;0.3435;1.3784;
1251.3000;0.3419;1.3784;
1251.6000;0.3443;1.3808;
1251.9000;0.3435;1.3832;
1252.2000;0.3435;1.3808;
1252.5000;0.3378;1.3666;
1252.8000;0.3419;1.3784;
1253.1000;0.3419;1.3808;
1253.4000;0.3427;1.3808;
1253.7000;0.3451;1.3974;
1254.0000;0.3427;1.3950;
1254.3000;0.3460;1.3950;
1254.6000;0.3427;1.3903;
1254.9000;0.3427;1.3855;
1255.2000;0.3411;1.3855;
1255.5000;0.3435;1.3903;
1255.8000;0.3435;1.3950;
1256.1000;0.3394;1.3879;
1256.4000;0.3451;1.4022;
1256.7000;0.3443;1.3903;
1257.0000;0.3443;1.3855;
1257.3000;0.3419;1.3855;
1257.6000;0.3435;1.3950;
1257.9000;0.3451;1.4022;
1258.2000;0.3427;1.3974;
1258.5000;0.3443;1.3974;
1258.8000;0.3443;1.3950;
1259.1000;0.3403;1.3784;
1259.4000;0.3443;1.3855;
1259.7000;0.3443;1.3903;
1260.0000;0.3435;1.3927;
1260.3000;0.3435;1.3950;
1260.6000;0.3411;1.3832;
1260.9000;0.3443;1.3927;
1261.2000;0.3427;1.3855;
1261.5000;0.3435;1.3808;
1261.8000;0.3435;1.3761;
1262.1000;0.3427;1.3713;
1262.4000;0.3443;1.3689;
1262.7000;0.3427;1.3737;
1263.0000;0.3427;1.3737;
1263.3000;0.3460;1.3808;
1263.6000;0.3451;1.3808;
1263.9000;0.3427;1.3784;
1264.2000;0.3451;1.3879;
1264.5000;0.3354;1.3713;
1264.8000;0.3411;1.3879;
1265.1000;0.3435;1.3832;
1265.4000;0.3435;1.3855;
1265.7000;0.3435;1.3879;
1266.0000;0.3443;1.3879;
1266.3000;0.3394;1.3784;
1266.6000;0.3419;1.3879;
1266.9000;0.3411;1.3784;
1267.2000;0.3435;1.3903;
1267.5000;0.3435;1.3879;
1267.8000;0.3443;1.3927;
1268.1000;0.3443;1.3903;
1268.4000;0.3443;1.3855;
1268.7000;0.3435;1.4022;
1269.0000;0.3435;1.3974;
1269.3000;0.3427;1.3903;
1269.6000;0.3451;1.3903;
1269.9000;0.3443;1.3879;
1270.2000;0.3443;1.3903;
1270.5000;0.3427;1.3784;
1270.8000;0.3484;1.3832;
1271.1000;0.3419;1.3761;
1271.4000;0.3435;1.3761;
1271.7000;0.3427;1.3761;
1272.0000;0.3435;1.3832;
1272.3000;0.3411;1.3832;
1272.6000;0.3435;1.3903;
1272.9000;0.3427;1.3927;
1273.2000;0.3443;1.3974;
1273.5000;0.3427;1.3950;
1273.8000;0.3435;1.3903;
1274.1000;0.3427;1.3784;
1274.4000;0.3403;1.3737;
1274.7000;0.3419;1.3713;
1275.0000;0.3354;1.3547;
1275.3000;0.3427;1.3737;
1275.6000;0.3443;1.3618;
1275.9000;0.3451;1.3642;
1276.2000;0.3427;1.3571;
1276.5000;0.3492;1.3784;
1276.8000;0.3435;1.3666;
1277.1000;0.3427;1.3618;
1277.4000;0.3435;1.3761;
1277.7000;0.3435;1.3832;
1278.0000;0.3435;1.3879;
1278.3000;0.3460;1.3832;
1278.6000;0.3451;1.3832;
1278.9000;0.3443;1.3808;
1279.2000;0.3484;1.3950;
1279.5000;0.3492;1.4069;
1279.8000;0.3435;1.3950;
1280.1000;0.3435;1.3974;
1280.4000;0.3435;1.3998;
1280.7000;0.3443;1.3998;
1281.0000;0.3435;1.4022;
1281.3000;0.3411;1.3903;
1281.6000;0.3435;1.3950;
1281.9000;0.3443;1.3998;
1282.2000;0.3435;1.4022;
1282.5000;0.3443;1.3927;
1282.8000;0.3443;1.3879;
1283.1000;0.3484;1.3950;
1283.4000;0.3435;1.3903;
1283.7000;0.3443;1.3903;
1284.0000;0.3443;1.3808;
1284.3000;0.3427;1.3832;
1284.6000;0.3443;1.3903;
1284.9000;0.3443;1.3950;
1285.2000;0.3435;1.4022;
1285.5000;0.3435;1.4045;
1285.8000;0.3451;1.4116;
1286.1000;0.3460;1.4140;
1286.4000;0.3451;1.4022;
1286.7000;0.3435;1.3974;
1287.0000;0.3476;1.4188;
1287.3000;0.3468;1.4116;
1287.6000;0.3435;1.4022;
1287.9000;0.3427;1.3998;
1288.2000;0.3443;1.3974;
1288.5000;0.3443;1.3998;
1288.8000;0.3419;1.3974;
1289.1000;0.3443;1.3998;
1289.4000;0.3443;1.3998;
1289.7000;0.3435;1.4045;
1290.0000;0.3460;1.4116;
1290.3000;0.3419;1.4045;
1290.6000;0.3443;1.3998;
1290.9000;0.3443;1.3903;
1291.2000;0.3443;1.3855;
1291.5000;0.3435;1.3737;
1291.8000;0.3427;1.3713;
1292.1000;0.3468;1.3832;
1292.4000;0.3411;1.3713;
1292.7000;0.3427;1.3713;
1293.0000;0.3468;1.3761;
1293.3000;0.3476;1.3832;
1293.6000;0.3476;1.3808;
1293.9000;0.3427;1.3784;
1294.2000;0.3427;1.3832;
1294.5000;0.3362;1.3713;
1294.8000;0.3411;1.3879;
1295.1000;0.3427;1.3950;
1295.4000;0.3411;1.3855;
1295.7000;0.3443;1.3879;
1296.0000;0.3411;1.3879;
1296.3000;0.3460;1.3879;
1296.6000;0.3435;1.3784;
1296.9000;0.3443;1.3808;
1297.2000;0.3443;1.3832;
1297.5000;0.3419;1.3808;
1297.8000;0.3443;1.3855;
1298.1000;0.3443;1.3903;
1298.4000;0.3443;1.3927;
1298.7000;0.3435;1.3879;
1299.0000;0.3443;1.3879;
1299.3000;0.3411;1.3808;
1299.6000;0.3435;1.3903;
1299.9000;0.3443;1.3950;
1300.2000;0.3427;1.3927;
1300.5000;0.3427;1.3927;
1300.8000;0.3443;1.3903;
1301.1000;0.3435;1.3855;
1301.4000;0.3427;1.3808;
1301.7000;0.3427;1.3855;
1302.0000;0.3460;1.3974;
1302.3000;0.3419;1.3832;
1302.6000;0.3443;1.3832;
1302.9000;0.3443;1.3927;
1303.2000;0.3427;1.3903;
1303.5000;0.3435;1.3998;
1303.8000;0.3443;1.3998;
1304.1000;0.3435;1.3998;
1304.4000;0.3451;1.3927;
1304.7000;0.3443;1.3974;
1305.0000;0.3443;1.3974;
1305.3000;0.3468;1.4069;
1305.6000;0.3435;1.3974;
1305.9000;0.3435;1.3927;
1306.2000;0.3435;1.3950;
1306.5000;0.3443;1.3903;
1306.8000;0.3460;1.3974;
1307.1000;0.3476;1.3998;
1307.4000;0.3435;1.3950;
1307.7000;0.3451;1.3927;
1308.0000;0.3435;1.3879;
1308.3000;0.3443;1.3903;
1308.6000;0.3443;1.3855;
1308.9000;0.3435;1.3903;
1309.2000;0.3451;1.3903;
1309.5000;0.3427;1.3832;
1309.8000;0.3435;1.3855;
1310.1000;0.3435;1.3903;
1310.4000;0.3419;1.3855;
1310.7000;0.3435;1.3855;
1311.0000;0.3427;1.3879;
1311.3000;0.3451;1.3903;
1311.6000;0.3435;1.3879;
1311.9000;0.3435;1.3903;
1312.2000;0.3443;1.3998;
1312.5000;0.3427;1.3998;
1312.8000;0.3443;1.4093;
1313.1000;0.3435;1.4022;
1313.4000;0.3427;1.3927;
1313.7000;0.3443;1.3998;
1314.0000;0.3460;1.4116;
1314.3000;0.3427;1.3974;
1314.6000;0.3533;1.4211;
1314.9000;0.3394;1.3855;
1315.2000;0.3443;1.3998;
1315.5000;0.3419;1.3927;
1315.8000;0.3435;1.3927;
1316.1000;0.3435;1.3974;
1316.4000;0.3427;1.3950;
1316.7000;0.3476;1.4093;
1317.0000;0.3443;1.3998;
1317.3000;0.3460;1.4093;
1317.6000;0.3435;1.4093;
1317.9000;0.3435;1.4045;
1318.2000;0.3419;1.4045;
1318.5000;0.3443;1.4093;
1318.8000;0.3435;1.4069;
1319.1000;0.3443;1.3974;
1319.4000;0.3443;1.3832;
1319.7000;0.3435;1.3855;
1320.0000;0.3443;1.3927;
1320.3000;0.3443;1.3927;
1320.6000;0.3443;1.3903;
1320.9000;0.3443;1.3855;
1321.2000;0.3468;1.3974;
1321.5000;0.3443;1.3974;
1321.8000;0.3443;1.3998;
1322.1000;0.3427;1.3974;
1322.4000;0.3443;1.4022;
1322.7000;0.3451;1.4045;
1323.0000;0.3427;1.4045;
1323.3000;0.3451;1.4045;
1323.6000;0.3443;1.4022;
1323.9000;0.3435;1.3927;
1324.2000;0.3443;1.3998;
1324.5000;0.3443;1.4022;
1324.8000;0.3427;1.3974;
1325.1000;0.3411;1.3998;
1325.4000;0.3435;1.4211;
1325.7000;0.3419;1.4164;
1326.0000;0.3427;1.4069;
1326.3000;0.3492;1.4140;
1326.6000;0.3443;1.3974;
1326.9000;0.3427;1.3974;
1327.2000;0.3411;1.3927;
1327.5000;0.3435;1.3950;
1327.8000;0.3476;1.3927;
1328.1000;0.3516;1.4069;
1328.4000;0.3460;1.3903;
1328.7000;0.3476;1.3855;
1329.0000;0.3460;1.3761;
1329.3000;0.3451;1.3689;
1329.6000;0.3468;1.3713;
1329.9000;0.3451;1.3808;
1330.2000;0.3443;1.3761;
1330.5000;0.3451;1.3832;
1330.8000;0.3427;1.3784;
1331.1000;0.3451;1.3832;
1331.4000;0.3435;1.3855;
1331.7000;0.3427;1.3832;
1332.0000;0.3443;1.3832;
1332.3000;0.3468;1.3974;
1332.6000;0.3443;1.3855;
1332.9000;0.3451;1.3927;
1333.2000;0.3427;1.3832;
1333.5000;0.3427;1.3855;
1333.8000;0.3451;1.3855;
1334.1000;0.3443;1.3808;
1334.4000;0.3541;1.4069;
1334.7000;0.3427;1.3784;
1335.0000;0.3354;1.3594;
1335.3000;0.3443;1.3761;
1335.6000;0.3451;1.3737;
1335.9000;0.3362;1.3452;
1336.2000;0.3427;1.3642;
1336.5000;0.3337;1.3428;
1336.8000;0.3419;1.3666;
1337.1000;0.3435;1.3737;
1337.4000;0.3451;1.3855;
1337.7000;0.3443;1.3737;
1338.0000;0.3443;1.3761;
1338.3000;0.3435;1.3808;
1338.6000;0.3435;1.3832;
1338.9000;0.3492;1.3998;
1339.2000;0.3443;1.3927;
1339.5000;0.3427;1.3832;
1339.8000;0.3443;1.3879;
1340.1000;0.3443;1.3879;
1340.4000;0.3435;1.3808;
1340.7000;0.3451;1.3855;
1341.0000;0.3451;1.3832;
1341.3000;0.3443;1.3855;
1341.6000;0.3443;1.3808;
1341.9000;0.3435;1.3808;
1342.2000;0.3451;1.3808;
1342.5000;0.3443;1.3903;
1342.8000;0.3427;1.3855;
1343.1000;0.3451;1.3832;
1343.4000;0.3443;1.3784;
1343.7000;0.3386;1.3666;
1344.0000;0.3443;1.3832;
1344.3000;0.3443;1.3737;
1344.6000;0.3443;1.3784;
1344.9000;0.3443;1.3784;
1345.2000;0.3394;1.3666;
1345.5000;0.3468;1.3832;
1345.8000;0.3435;1.3761;
1346.1000;0.3435;1.3761;
1346.4000;0.3435;1.3761;
1346.7000;0.3443;1.3761;
1347.0000;0.3435;1.3737;
1347.3000;0.3427;1.3737;
1347.6000;0.3419;1.3784;
1347.9000;0.3419;1.3855;
1348.2000;0.3435;1.3808;
1348.5000;0.3435;1.3784;
1348.8000;0.3435;1.3855;
1349.1000;0.3443;1.3903;
1349.4000;0.3435;1.3808;
1349.7000;0.3411;1.3642;
1350.0000;0.3346;1.3523;
1350.3000;0.3468;1.3737;
1350.6000;0.3435;1.3618;
1350.9000;0.3427;1.3500;
1351.2000;0.3427;1.3500;
1351.5000;0.3419;1.3523;
1351.8000;0.3443;1.3571;
1352.1000;0.3451;1.3594;
1352.4000;0.3451;1.3642;
1352.7000;0.3427;1.3642;
1353.0000;0.3451;1.3666;
1353.3000;0.3492;1.3713;
1353.6000;0.3435;1.3571;
1353.9000;0.3476;1.3689;
1354.2000;0.3403;1.3594;
1354.5000;0.3435;1.3761;
1354.8000;0.3427;1.3832;
1355.1000;0.3435;1.3784;
1355.4000;0.3443;1.3713;
1355.7000;0.3419;1.3547;
1356.0000;0.3435;1.3571;
1356.3000;0.3419;1.3642;
1356.6000;0.3451;1.3642;
1356.9000;0.3443;1.3618;
1357.2000;0.3443;1.3618;
1357.5000;0.3427;1.3547;
1357.8000;0.3419;1.3500;
1358.1000;0.3427;1.3594;
1358.4000;0.3419;1.3618;
1358.7000;0.3451;1.3784;
1359.0000;0.3451;1.3808;
1359.3000;0.3435;1.3666;
1359.6000;0.3427;1.3500;
1359.9000;0.3435;1.3476;
1360.2000;0.3435;1.3547;
1360.5000;0.3427;1.3594;
1360.8000;0.3435;1.3618;
1361.1000;0.3419;1.3713;
1361.4000;0.3411;1.3713;
1361.7000;0.3443;1.3689;
1362.0000;0.3435;1.3737;
1362.3000;0.3419;1.3737;
1362.6000;0.3419;1.3737;
1362.9000;0.3435;1.3761;
1363.2000;0.3443;1.3784;
1363.5000;0.3476;1.3784;
1363.8000;0.3443;1.3642;
1364.1000;0.3419;1.3642;
1364.4000;0.3411;1.3713;
1364.7000;0.3435;1.3808;
1365.0000;0.3378;1.3689;
1365.3000;0.3419;1.3784;
1365.6000;0.3427;1.3737;
1365.9000;0.3435;1.3689;
1366.2000;0.3443;1.3737;
1366.5000;0.3435;1.3666;
1366.8000;0.3427;1.3689;
1367.1000;0.3443;1.3784;
1367.4000;0.3460;1.3808;
1367.7000;0.3460;1.3879;
1368.0000;0.3451;1.3879;
1368.3000;0.3500;1.3974;
1368.6000;0.3435;1.3737;
1368.9000;0.3427;1.3713;
1369.2000;0.3443;1.3784;
1369.5000;0.3435;1.3737;
1369.8000;0.3386;1.3666;
1370.1000;0.3443;1.3879;
1370.4000;0.3419;1.3855;
1370.7000;0.3386;1.3737;
1371.0000;0.3394;1.3761;
1371.3000;0.3435;1.3808;
1371.6000;0.3468;1.3784;
1371.9000;0.3508;1.3903;
1372.2000;0.3419;1.3642;
1372.5000;0.3435;1.3713;
1372.8000;0.3443;1.3666;
1373.1000;0.3443;1.3666;
1373.4000;0.3427;1.3713;
1373.7000;0.3443;1.3903;
1374.0000;0.3378;1.3832;
1374.3000;0.3460;1.4069;
1374.6000;0.3443;1.4093;
1374.9000;0.3443;1.4069;
1375.2000;0.3427;1.3998;
1375.5000;0.3435;1.4022;
1375.8000;0.3451;1.4022;
1376.1000;0.3427;1.3879;
1376.4000;0.3411;1.3832;
1376.7000;0.3427;1.3879;
1377.0000;0.3443;1.3950;
1377.3000;0.3443;1.3950;
1377.6000;0.3443;1.4045;
1377.9000;0.3443;1.3974;
1378.2000;0.3435;1.4022;
1378.5000;0.3460;1.4022;
1378.8000;0.3443;1.3974;
1379.1000;0.3427;1.3974;
1379.4000;0.3443;1.3950;
1379.7000;0.3435;1.3950;
1380.0000;0.3435;1.3903;
1380.3000;0.3427;1.3855;
1380.6000;0.3419;1.3784;
1380.9000;0.3451;1.3879;
1381.2000;0.3443;1.3832;
1381.5000;0.3435;1.3784;
1381.8000;0.3435;1.3737;
1382.1000;0.3443;1.3689;
1382.4000;0.3411;1.3737;
1382.7000;0.3451;1.3903;
1383.0000;0.3435;1.3855;
1383.3000;0.3435;1.3832;
1383.6000;0.3451;1.3832;
1383.9000;0.3451;1.3879;
1384.2000;0.3443;1.3879;
1384.5000;0.3476;1.3950;
1384.8000;0.3427;1.3903;
1385.1000;0.3435;1.3927;
1385.4000;0.3427;1.3974;
1385.7000;0.3411;1.3974;
1386.0000;0.3443;1.4069;
1386.3000;0.3460;1.4045;
1386.6000;0.3435;1.3998;
1386.9000;0.3435;1.3974;
1387.2000;0.3443;1.4022;
1387.5000;0.3484;1.4164;
1387.8000;0.3427;1.3927;
1388.1000;0.3435;1.3808;
1388.4000;0.3427;1.3808;
1388.7000;0.3435;1.3903;
1389.0000;0.3427;1.3998;
1389.3000;0.3427;1.3903;
1389.6000;0.3427;1.3927;
1389.9000;0.3443;1.3974;
1390.2000;0.3427;1.3998;
1390.5000;0.3427;1.3927;
1390.8000;0.3427;1.3879;
1391.1000;0.3427;1.3808;
1391.4000;0.3419;1.3784;
1391.7000;0.3435;1.3808;
1392.0000;0.3443;1.3808;
1392.3000;0.3427;1.3737;
1392.6000;0.3541;1.4022;
1392.9000;0.3435;1.3855;
1393.2000;0.3419;1.3832;
1393.5000;0.3435;1.3855;
1393.8000;0.3451;1.3832;
1394.1000;0.3443;1.3832;
1394.4000;0.3435;1.3927;
1394.7000;0.3443;1.3879;
1395.0000;0.3427;1.3879;
1395.3000;0.3435;1.3832;
1395.6000;0.3443;1.3855;
1395.9000;0.3435;1.3903;
1396.2000;0.3451;1.3927;
1396.5000;0.3460;1.3974;
1396.8000;0.3394;1.3879;
1397.1000;0.3451;1.3998;
1397.4000;0.3435;1.3927;
1397.7000;0.3451;1.3903;
1398.0000;0.3435;1.3784;
1398.3000;0.3451;1.3737;
1398.6000;0.3435;1.3713;
1398.9000;0.3460;1.3784;
1399.2000;0.3460;1.3761;
1399.5000;0.3419;1.3689;
1399.8000;0.3443;1.3689;
