time/ms;Fluo/V;P700 deltaI/I x10³;
-199.8000;0.8164;1.2255;
-199.5000;0.8140;1.2255;
-199.2000;0.8148;1.2279;
-198.9000;0.8164;1.2230;
-198.6000;0.8156;1.2279;
-198.3000;0.8156;1.2329;
-198.0000;0.8156;1.2279;
-197.7000;0.8116;1.2255;
-197.4000;0.8148;1.2353;
-197.1000;0.8132;1.2279;
-196.8000;0.8083;1.2058;
-196.5000;0.8181;1.2206;
-196.2000;0.8140;1.2058;
-195.9000;0.8132;1.2058;
-195.6000;0.8148;1.2156;
-195.3000;0.8173;1.2329;
-195.0000;0.8156;1.2279;
-194.7000;0.8164;1.2329;
-194.4000;0.8156;1.2353;
-194.1000;0.8205;1.2501;
-193.8000;0.8164;1.2427;
-193.5000;0.8091;1.2255;
-193.2000;0.8156;1.2452;
-192.9000;0.8132;1.2353;
-192.6000;0.8148;1.2353;
-192.3000;0.8132;1.2304;
-192.0000;0.8124;1.2255;
-191.7000;0.8278;1.2575;
-191.4000;0.8148;1.2206;
-191.1000;0.8140;1.2181;
-190.8000;0.8164;1.2206;
-190.5000;0.8181;1.2230;
-190.2000;0.8140;1.2279;
-189.9000;0.8148;1.2329;
-189.6000;0.8140;1.2378;
-189.3000;0.8156;1.2501;
-189.0000;0.8132;1.2525;
-188.7000;0.8156;1.2525;
-188.4000;0.8107;1.2427;
-188.1000;0.8140;1.2452;
-187.8000;0.8164;1.2550;
-187.5000;0.8213;1.2747;
-187.2000;0.8140;1.2501;
-186.9000;0.8140;1.2378;
-186.6000;0.8034;1.2206;
-186.3000;0.8148;1.2501;
-186.0000;0.8156;1.2378;
-185.7000;0.8075;1.2082;
-185.4000;0.8230;1.2452;
-185.1000;0.8140;1.2279;
-184.8000;0.8164;1.2378;
-184.5000;0.8132;1.2304;
-184.2000;0.8148;1.2353;
-183.9000;0.8164;1.2353;
-183.6000;0.8140;1.2353;
-183.3000;0.8124;1.2402;
-183.0000;0.8173;1.2550;
-182.7000;0.8083;1.2304;
-182.4000;0.8197;1.2550;
-182.1000;0.8124;1.2304;
-181.8000;0.8148;1.2329;
-181.5000;0.8148;1.2329;
-181.2000;0.8164;1.2378;
-180.9000;0.8140;1.2304;
-180.6000;0.8132;1.2304;
-180.3000;0.8197;1.2476;
-180.0000;0.8156;1.2378;
-179.7000;0.8140;1.2304;
-179.4000;0.8148;1.2378;
-179.1000;0.8124;1.2353;
-178.8000;0.8148;1.2353;
-178.5000;0.8140;1.2427;
-178.2000;0.8173;1.2550;
-177.9000;0.8132;1.2402;
-177.6000;0.8164;1.2575;
-177.3000;0.8164;1.2624;
-177.0000;0.8148;1.2550;
-176.7000;0.8140;1.2402;
-176.4000;0.8262;1.2698;
-176.1000;0.8164;1.2452;
-175.8000;0.8148;1.2378;
-175.5000;0.8140;1.2329;
-175.2000;0.8140;1.2279;
-174.9000;0.8140;1.2353;
-174.6000;0.8164;1.2452;
-174.3000;0.8132;1.2402;
-174.0000;0.8140;1.2402;
-173.7000;0.8132;1.2402;
-173.4000;0.8173;1.2476;
-173.1000;0.8156;1.2353;
-172.8000;0.8181;1.2501;
-172.5000;0.8205;1.2525;
-172.2000;0.8140;1.2427;
-171.9000;0.8156;1.2304;
-171.6000;0.8132;1.2255;
-171.3000;0.8148;1.2279;
-171.0000;0.8156;1.2329;
-170.7000;0.8156;1.2329;
-170.4000;0.8164;1.2402;
-170.1000;0.8164;1.2427;
-169.8000;0.8181;1.2501;
-169.5000;0.8164;1.2427;
-169.2000;0.8156;1.2378;
-168.9000;0.8140;1.2329;
-168.6000;0.8140;1.2329;
-168.3000;0.8164;1.2279;
-168.0000;0.8156;1.2304;
-167.7000;0.8140;1.2230;
-167.4000;0.8148;1.2378;
-167.1000;0.8156;1.2353;
-166.8000;0.8164;1.2279;
-166.5000;0.8156;1.2255;
-166.2000;0.8148;1.2279;
-165.9000;0.8156;1.2329;
-165.6000;0.8132;1.2279;
-165.3000;0.8132;1.2255;
-165.0000;0.8124;1.2230;
-164.7000;0.8173;1.2402;
-164.4000;0.8140;1.2304;
-164.1000;0.8140;1.2353;
-163.8000;0.8140;1.2304;
-163.5000;0.8148;1.2329;
-163.2000;0.8156;1.2353;
-162.9000;0.8148;1.2353;
-162.6000;0.8156;1.2378;
-162.3000;0.8246;1.2599;
-162.0000;0.8164;1.2255;
-161.7000;0.8205;1.2378;
-161.4000;0.8164;1.2279;
-161.1000;0.8173;1.2230;
-160.8000;0.8132;1.2181;
-160.5000;0.8140;1.2279;
-160.2000;0.8132;1.2279;
-159.9000;0.8140;1.2353;
-159.6000;0.8148;1.2427;
-159.3000;0.8164;1.2501;
-159.0000;0.8124;1.2402;
-158.7000;0.8173;1.2476;
-158.4000;0.8148;1.2452;
-158.1000;0.8148;1.2402;
-157.8000;0.8140;1.2304;
-157.5000;0.8140;1.2279;
-157.2000;0.8156;1.2353;
-156.9000;0.8156;1.2329;
-156.6000;0.8156;1.2279;
-156.3000;0.8156;1.2304;
-156.0000;0.8148;1.2255;
-155.7000;0.8156;1.2230;
-155.4000;0.8140;1.2156;
-155.1000;0.8132;1.2181;
-154.8000;0.8132;1.2156;
-154.5000;0.8148;1.2230;
-154.2000;0.8148;1.2156;
-153.9000;0.8132;1.2107;
-153.6000;0.8148;1.2107;
-153.3000;0.8156;1.2132;
-153.0000;0.8156;1.2230;
-152.7000;0.8140;1.2230;
-152.4000;0.8140;1.2206;
-152.1000;0.8091;1.2132;
-151.8000;0.8156;1.2230;
-151.5000;0.8148;1.2156;
-151.2000;0.8189;1.2181;
-150.9000;0.8156;1.2082;
-150.6000;0.8156;1.2132;
-150.3000;0.8173;1.2206;
-150.0000;0.8140;1.2181;
-149.7000;0.8140;1.2156;
-149.4000;0.8140;1.2181;
-149.1000;0.8132;1.2132;
-148.8000;0.8132;1.2107;
-148.5000;0.8148;1.2156;
-148.2000;0.8148;1.2304;
-147.9000;0.8181;1.2427;
-147.6000;0.8148;1.2279;
-147.3000;0.8132;1.2255;
-147.0000;0.8132;1.2206;
-146.7000;0.8148;1.2206;
-146.4000;0.8164;1.2206;
-146.1000;0.8148;1.2230;
-145.8000;0.8148;1.2255;
-145.5000;0.8164;1.2279;
-145.2000;0.8181;1.2329;
-144.9000;0.8148;1.2329;
-144.6000;0.8156;1.2378;
-144.3000;0.8156;1.2304;
-144.0000;0.8173;1.2378;
-143.7000;0.8148;1.2378;
-143.4000;0.8124;1.2304;
-143.1000;0.8140;1.2378;
-142.8000;0.8156;1.2353;
-142.5000;0.8156;1.2378;
-142.2000;0.8132;1.2329;
-141.9000;0.8083;1.2082;
-141.6000;0.8156;1.2304;
-141.3000;0.8140;1.2353;
-141.0000;0.8189;1.2452;
-140.7000;0.8140;1.2304;
-140.4000;0.8148;1.2279;
-140.1000;0.8124;1.2230;
-139.8000;0.8156;1.2329;
-139.5000;0.8148;1.2304;
-139.2000;0.8148;1.2329;
-138.9000;0.8164;1.2329;
-138.6000;0.8205;1.2452;
-138.3000;0.8189;1.2255;
-138.0000;0.8132;1.2230;
-137.7000;0.8107;1.2230;
-137.4000;0.8197;1.2476;
-137.1000;0.8148;1.2329;
-136.8000;0.8148;1.2378;
-136.5000;0.8156;1.2452;
-136.2000;0.8148;1.2452;
-135.9000;0.8164;1.2427;
-135.6000;0.8067;1.2206;
-135.3000;0.8124;1.2304;
-135.0000;0.8156;1.2378;
-134.7000;0.8164;1.2353;
-134.4000;0.8099;1.2255;
-134.1000;0.8140;1.2329;
-133.8000;0.8132;1.2279;
-133.5000;0.8148;1.2255;
-133.2000;0.8156;1.2304;
-132.9000;0.8148;1.2230;
-132.6000;0.8148;1.2255;
-132.3000;0.8164;1.2255;
-132.0000;0.8132;1.2206;
-131.7000;0.8140;1.2279;
-131.4000;0.8164;1.2378;
-131.1000;0.8156;1.2329;
-130.8000;0.8156;1.2501;
-130.5000;0.8132;1.2402;
-130.2000;0.8156;1.2427;
-129.9000;0.8164;1.2452;
-129.6000;0.8132;1.2329;
-129.3000;0.8156;1.2402;
-129.0000;0.8156;1.2378;
-128.7000;0.8156;1.2402;
-128.4000;0.8148;1.2353;
-128.1000;0.8132;1.2279;
-127.8000;0.8156;1.2329;
-127.5000;0.8156;1.2402;
-127.2000;0.8156;1.2402;
-126.9000;0.8156;1.2452;
-126.6000;0.8132;1.2378;
-126.3000;0.8156;1.2402;
-126.0000;0.8148;1.2279;
-125.7000;0.8156;1.2304;
-125.4000;0.8156;1.2353;
-125.1000;0.8148;1.2452;
-124.8000;0.8164;1.2452;
-124.5000;0.8148;1.2353;
-124.2000;0.8156;1.2353;
-123.9000;0.8181;1.2402;
-123.6000;0.8156;1.2378;
-123.3000;0.8164;1.2378;
-123.0000;0.8140;1.2329;
-122.7000;0.8132;1.2329;
-122.4000;0.8140;1.2353;
-122.1000;0.8156;1.2427;
-121.8000;0.8156;1.2427;
-121.5000;0.8148;1.2452;
-121.2000;0.8148;1.2476;
-120.9000;0.8164;1.2476;
-120.6000;0.8148;1.2329;
-120.3000;0.8140;1.2230;
-120.0000;0.8148;1.2279;
-119.7000;0.8164;1.2206;
-119.4000;0.8156;1.2255;
-119.1000;0.8156;1.2206;
-118.8000;0.8173;1.2230;
-118.5000;0.8124;1.2156;
-118.2000;0.8156;1.2230;
-117.9000;0.8148;1.2206;
-117.6000;0.8132;1.2058;
-117.3000;0.8116;1.2058;
-117.0000;0.8164;1.2082;
-116.7000;0.8140;1.2009;
-116.4000;0.8148;1.2033;
-116.1000;0.8132;1.2107;
-115.8000;0.8140;1.2206;
-115.5000;0.8148;1.2230;
-115.2000;0.8107;1.2181;
-114.9000;0.8164;1.2304;
-114.6000;0.8156;1.2255;
-114.3000;0.8148;1.2181;
-114.0000;0.8148;1.2206;
-113.7000;0.8132;1.2206;
-113.4000;0.8132;1.2206;
-113.1000;0.8148;1.2230;
-112.8000;0.8148;1.2132;
-112.5000;0.8189;1.2279;
-112.2000;0.8132;1.2181;
-111.9000;0.8164;1.2304;
-111.6000;0.8148;1.2206;
-111.3000;0.8132;1.2255;
-111.0000;0.8173;1.2255;
-110.7000;0.8173;1.2230;
-110.4000;0.8164;1.2206;
-110.1000;0.8173;1.2279;
-109.8000;0.8156;1.2255;
-109.5000;0.8148;1.2279;
-109.2000;0.8164;1.2378;
-108.9000;0.8164;1.2476;
-108.6000;0.8156;1.2452;
-108.3000;0.8156;1.2329;
-108.0000;0.8173;1.2230;
-107.7000;0.8156;1.2206;
-107.4000;0.8156;1.2255;
-107.1000;0.8148;1.2230;
-106.8000;0.8148;1.2304;
-106.5000;0.8116;1.2230;
-106.2000;0.8156;1.2304;
-105.9000;0.8124;1.2304;
-105.6000;0.8140;1.2402;
-105.3000;0.8148;1.2378;
-105.0000;0.8140;1.2329;
-104.7000;0.8140;1.2329;
-104.4000;0.8156;1.2378;
-104.1000;0.8173;1.2304;
-103.8000;0.8140;1.2132;
-103.5000;0.8148;1.2132;
-103.2000;0.8164;1.2156;
-102.9000;0.8164;1.2107;
-102.6000;0.8140;1.2107;
-102.3000;0.8164;1.2107;
-102.0000;0.8148;1.2033;
-101.7000;0.8164;1.2058;
-101.4000;0.8173;1.2156;
-101.1000;0.8156;1.2206;
-100.8000;0.8173;1.2181;
-100.5000;0.8164;1.2206;
-100.2000;0.8164;1.2329;
-99.9000;0.8197;1.2427;
-99.6000;0.8164;1.2304;
-99.3000;0.8173;1.2255;
-99.0000;0.8173;1.2230;
-98.7000;0.8156;1.2181;
-98.4000;0.8156;1.2156;
-98.1000;0.8148;1.2206;
-97.8000;0.8173;1.2181;
-97.5000;0.8164;1.2082;
-97.2000;0.8148;1.2082;
-96.9000;0.8067;1.1861;
-96.6000;0.8181;1.2156;
-96.3000;0.8156;1.2206;
-96.0000;0.8148;1.2304;
-95.7000;0.8156;1.2279;
-95.4000;0.8116;1.2206;
-95.1000;0.8156;1.2353;
-94.8000;0.8156;1.2329;
-94.5000;0.8132;1.2255;
-94.2000;0.8164;1.2353;
-93.9000;0.8164;1.2378;
-93.6000;0.8164;1.2378;
-93.3000;0.8148;1.2230;
-93.0000;0.8148;1.2255;
-92.7000;0.8156;1.2255;
-92.4000;0.8140;1.2156;
-92.1000;0.8140;1.2107;
-91.8000;0.8156;1.2156;
-91.5000;0.8156;1.2181;
-91.2000;0.8148;1.2132;
-90.9000;0.8148;1.2082;
-90.6000;0.8148;1.2206;
-90.3000;0.8140;1.2255;
-90.0000;0.8132;1.2279;
-89.7000;0.8148;1.2329;
-89.4000;0.8164;1.2402;
-89.1000;0.8148;1.2329;
-88.8000;0.8230;1.2575;
-88.5000;0.8075;1.2230;
-88.2000;0.8124;1.2279;
-87.9000;0.8140;1.2279;
-87.6000;0.8156;1.2304;
-87.3000;0.8140;1.2304;
-87.0000;0.8107;1.2230;
-86.7000;0.8132;1.2255;
-86.4000;0.8083;1.2082;
-86.1000;0.8132;1.2181;
-85.8000;0.8140;1.2255;
-85.5000;0.8124;1.2230;
-85.2000;0.8148;1.2304;
-84.9000;0.8156;1.2353;
-84.6000;0.8156;1.2353;
-84.3000;0.8156;1.2329;
-84.0000;0.8156;1.2402;
-83.7000;0.8173;1.2525;
-83.4000;0.8197;1.2599;
-83.1000;0.8148;1.2501;
-82.8000;0.8173;1.2550;
-82.5000;0.8156;1.2378;
-82.2000;0.8148;1.2279;
-81.9000;0.8156;1.2255;
-81.6000;0.8140;1.2156;
-81.3000;0.8148;1.2181;
-81.0000;0.8173;1.2206;
-80.7000;0.8164;1.2206;
-80.4000;0.8132;1.2132;
-80.1000;0.8148;1.2181;
-79.8000;0.8132;1.2156;
-79.5000;0.8148;1.2279;
-79.2000;0.8148;1.2255;
-78.9000;0.8091;1.2132;
-78.6000;0.8164;1.2230;
-78.3000;0.8164;1.2181;
-78.0000;0.8197;1.2206;
-77.7000;0.8075;1.1861;
-77.4000;0.8156;1.2082;
-77.1000;0.8164;1.2058;
-76.8000;0.8246;1.2378;
-76.5000;0.8140;1.2107;
-76.2000;0.8156;1.2156;
-75.9000;0.8140;1.2132;
-75.6000;0.8140;1.2181;
-75.3000;0.8140;1.2181;
-75.0000;0.8042;1.1959;
-74.7000;0.8156;1.2230;
-74.4000;0.8148;1.2181;
-74.1000;0.8148;1.2230;
-73.8000;0.8164;1.2279;
-73.5000;0.8156;1.2353;
-73.2000;0.8156;1.2329;
-72.9000;0.8140;1.2230;
-72.6000;0.8148;1.2279;
-72.3000;0.8148;1.2304;
-72.0000;0.8156;1.2353;
-71.7000;0.8148;1.2378;
-71.4000;0.8164;1.2427;
-71.1000;0.8164;1.2378;
-70.8000;0.8140;1.2304;
-70.5000;0.8189;1.2427;
-70.2000;0.8164;1.2378;
-69.9000;0.8197;1.2402;
-69.6000;0.8148;1.2304;
-69.3000;0.8156;1.2304;
-69.0000;0.8116;1.2181;
-68.7000;0.8148;1.2206;
-68.4000;0.8156;1.2181;
-68.1000;0.8156;1.2181;
-67.8000;0.8156;1.2255;
-67.5000;0.8140;1.2279;
-67.2000;0.8173;1.2402;
-66.9000;0.8156;1.2329;
-66.6000;0.8156;1.2329;
-66.3000;0.8156;1.2304;
-66.0000;0.8148;1.2230;
-65.7000;0.8140;1.2230;
-65.4000;0.8148;1.2255;
-65.1000;0.8148;1.2279;
-64.8000;0.8164;1.2329;
-64.5000;0.8140;1.2230;
-64.2000;0.8132;1.2255;
-63.9000;0.8164;1.2427;
-63.6000;0.8124;1.2378;
-63.3000;0.8148;1.2427;
-63.0000;0.8067;1.2230;
-62.7000;0.8156;1.2427;
-62.4000;0.8148;1.2353;
-62.1000;0.8124;1.2230;
-61.8000;0.8156;1.2378;
-61.5000;0.8156;1.2378;
-61.2000;0.8156;1.2427;
-60.9000;0.8148;1.2452;
-60.6000;0.8083;1.2353;
-60.3000;0.8148;1.2427;
-60.0000;0.8148;1.2452;
-59.7000;0.8164;1.2624;
-59.4000;0.8156;1.2599;
-59.1000;0.8148;1.2550;
-58.8000;0.8148;1.2575;
-58.5000;0.8148;1.2525;
-58.2000;0.8173;1.2575;
-57.9000;0.8156;1.2501;
-57.6000;0.8156;1.2476;
-57.3000;0.8140;1.2255;
-57.0000;0.8156;1.2402;
-56.7000;0.8213;1.2575;
-56.4000;0.8164;1.2452;
-56.1000;0.8156;1.2501;
-55.8000;0.8140;1.2501;
-55.5000;0.8164;1.2550;
-55.2000;0.8156;1.2525;
-54.9000;0.8213;1.2550;
-54.6000;0.8164;1.2427;
-54.3000;0.8148;1.2402;
-54.0000;0.8148;1.2427;
-53.7000;0.8148;1.2476;
-53.4000;0.8140;1.2452;
-53.1000;0.8181;1.2525;
-52.8000;0.8173;1.2452;
-52.5000;0.8148;1.2378;
-52.2000;0.8140;1.2329;
-51.9000;0.8148;1.2378;
-51.6000;0.8164;1.2402;
-51.3000;0.8156;1.2402;
-51.0000;0.8140;1.2378;
-50.7000;0.8197;1.2525;
-50.4000;0.8148;1.2501;
-50.1000;0.8148;1.2575;
-49.8000;0.8124;1.2402;
-49.5000;0.8164;1.2550;
-49.2000;0.8156;1.2525;
-48.9000;0.8124;1.2402;
-48.6000;0.8116;1.2304;
-48.3000;0.8140;1.2329;
-48.0000;0.8164;1.2378;
-47.7000;0.8148;1.2279;
-47.4000;0.8164;1.2304;
-47.1000;0.8205;1.2378;
-46.8000;0.8132;1.2181;
-46.5000;0.8164;1.2304;
-46.2000;0.8148;1.2304;
-45.9000;0.8148;1.2279;
-45.6000;0.8156;1.2255;
-45.3000;0.8246;1.2550;
-45.0000;0.8164;1.2353;
-44.7000;0.8173;1.2304;
-44.4000;0.8140;1.2255;
-44.1000;0.8156;1.2402;
-43.8000;0.8156;1.2402;
-43.5000;0.8140;1.2402;
-43.2000;0.8205;1.2550;
-42.9000;0.8156;1.2353;
-42.6000;0.8173;1.2378;
-42.3000;0.8132;1.2304;
-42.0000;0.8181;1.2378;
-41.7000;0.8173;1.2427;
-41.4000;0.8213;1.2575;
-41.1000;0.8148;1.2427;
-40.8000;0.8173;1.2427;
-40.5000;0.8140;1.2279;
-40.2000;0.8132;1.2255;
-39.9000;0.8156;1.2279;
-39.6000;0.8173;1.2255;
-39.3000;0.8132;1.2206;
-39.0000;0.8197;1.2501;
-38.7000;0.8140;1.2329;
-38.4000;0.8197;1.2402;
-38.1000;0.8140;1.2255;
-37.8000;0.8099;1.2156;
-37.5000;0.8148;1.2206;
-37.2000;0.8181;1.2329;
-36.9000;0.8148;1.2329;
-36.6000;0.8148;1.2329;
-36.3000;0.8148;1.2378;
-36.0000;0.8156;1.2402;
-35.7000;0.8148;1.2279;
-35.4000;0.8156;1.2255;
-35.1000;0.8148;1.2378;
-34.8000;0.8189;1.2452;
-34.5000;0.8148;1.2378;
-34.2000;0.8148;1.2378;
-33.9000;0.8156;1.2476;
-33.6000;0.8124;1.2402;
-33.3000;0.8140;1.2452;
-33.0000;0.8148;1.2378;
-32.7000;0.8148;1.2378;
-32.4000;0.8156;1.2402;
-32.1000;0.8164;1.2452;
-31.8000;0.8148;1.2304;
-31.5000;0.8148;1.2304;
-31.2000;0.8148;1.2279;
-30.9000;0.8148;1.2353;
-30.6000;0.8156;1.2402;
-30.3000;0.8156;1.2452;
-30.0000;0.8156;1.2501;
-29.7000;0.8164;1.2476;
-29.4000;0.8140;1.2452;
-29.1000;0.8140;1.2402;
-28.8000;0.8156;1.2452;
-28.5000;0.8173;1.2476;
-28.2000;0.8148;1.2353;
-27.9000;0.8107;1.2255;
-27.6000;0.8148;1.2329;
-27.3000;0.8148;1.2353;
-27.0000;0.8213;1.2476;
-26.7000;0.8164;1.2353;
-26.4000;0.8140;1.2304;
-26.1000;0.8164;1.2378;
-25.8000;0.8140;1.2402;
-25.5000;0.8164;1.2501;
-25.2000;0.8132;1.2476;
-24.9000;0.8156;1.2525;
-24.6000;0.8140;1.2427;
-24.3000;0.8156;1.2476;
-24.0000;0.8140;1.2329;
-23.7000;0.8181;1.2353;
-23.4000;0.8140;1.2255;
-23.1000;0.8148;1.2206;
-22.8000;0.8148;1.2206;
-22.5000;0.8164;1.2353;
-22.2000;0.8221;1.2378;
-21.9000;0.8156;1.2279;
-21.6000;0.8140;1.2329;
-21.3000;0.8140;1.2279;
-21.0000;0.8140;1.2329;
-20.7000;0.8140;1.2206;
-20.4000;0.8173;1.2378;
-20.1000;0.8156;1.2402;
-19.8000;0.8124;1.2329;
-19.5000;0.8181;1.2550;
-19.2000;0.8156;1.2329;
-18.9000;0.8140;1.2255;
-18.6000;0.8132;1.2353;
-18.3000;0.8164;1.2378;
-18.0000;0.8140;1.2402;
-17.7000;0.8107;1.2304;
-17.4000;0.8140;1.2353;
-17.1000;0.8148;1.2427;
-16.8000;0.8140;1.2378;
-16.5000;0.8148;1.2304;
-16.2000;0.8140;1.2329;
-15.9000;0.8140;1.2353;
-15.6000;0.8164;1.2353;
-15.3000;0.8140;1.2378;
-15.0000;0.8156;1.2378;
-14.7000;0.8156;1.2304;
-14.4000;0.8156;1.2329;
-14.1000;0.8205;1.2501;
-13.8000;0.8197;1.2452;
-13.5000;0.8140;1.2353;
-13.2000;0.8156;1.2402;
-12.9000;0.8164;1.2427;
-12.6000;0.8148;1.2402;
-12.3000;0.8132;1.2304;
-12.0000;0.8148;1.2353;
-11.7000;0.8164;1.2378;
-11.4000;0.8221;1.2525;
-11.1000;0.8148;1.2230;
-10.8000;0.8148;1.2181;
-10.5000;0.8156;1.2156;
-10.2000;0.8148;1.2206;
-9.9000;0.8156;1.2206;
-9.6000;0.8156;1.2230;
-9.3000;0.8132;1.2206;
-9.0000;0.8148;1.2230;
-8.7000;0.8132;1.2206;
-8.4000;0.8124;1.2206;
-8.1000;0.8140;1.2181;
-7.8000;0.8140;1.2156;
-7.5000;0.8148;1.2206;
-7.2000;0.8148;1.2255;
-6.9000;0.8148;1.2329;
-6.6000;0.8140;1.2206;
-6.3000;0.8148;1.2132;
-6.0000;0.8148;1.2156;
-5.7000;0.8173;1.2181;
-5.4000;0.8164;1.2255;
-5.1000;0.8156;1.2353;
-4.8000;0.8156;1.2378;
-4.5000;0.8148;1.2378;
-4.2000;0.8164;1.2476;
-3.9000;0.8164;1.2452;
-3.6000;0.8164;1.2525;
-3.3000;0.8148;1.2402;
-3.0000;0.8148;1.2452;
-2.7000;0.8148;1.2402;
-2.4000;0.8173;1.2452;
-2.1000;0.8140;1.2402;
-1.8000;0.8148;1.2501;
-1.5000;0.8164;1.2525;
-1.2000;0.8148;1.2476;
-0.9000;0.8246;1.2771;
-0.6000;0.8156;1.2599;
-0.3000;0.8156;1.2624;
0.0000;0.8156;1.2624;
0.3000;0.8506;1.2993;
0.6000;0.9182;1.3534;
0.9000;0.9719;1.3928;
1.2000;1.0142;1.4297;
1.5000;1.0468;1.4691;
1.8000;1.0777;1.5060;
2.1000;1.0997;1.5306;
2.4000;1.1193;1.5528;
2.7000;1.1396;1.5700;
3.0000;1.1461;1.5700;
3.3000;1.1648;1.5946;
3.6000;1.1770;1.6069;
3.9000;1.1876;1.6266;
4.2000;1.1917;1.6167;
4.5000;1.2031;1.6217;
4.8000;1.2129;1.6241;
5.1000;1.2186;1.6217;
5.4000;1.2283;1.6217;
5.7000;1.2373;1.6315;
6.0000;1.2430;1.6364;
6.3000;1.2495;1.6290;
6.6000;1.2584;1.6364;
6.9000;1.2625;1.6340;
7.2000;1.2731;1.6512;
7.5000;1.2780;1.6438;
7.8000;1.2764;1.6340;
8.1000;1.2812;1.6413;
8.4000;1.2845;1.6315;
8.7000;1.2886;1.6389;
9.0000;1.2934;1.6463;
9.3000;1.2967;1.6389;
9.6000;1.3008;1.6438;
9.9000;1.3048;1.6389;
10.2000;1.3073;1.6315;
10.5000;1.3122;1.6364;
10.8000;1.3130;1.6241;
11.1000;1.3187;1.6290;
11.4000;1.3211;1.6389;
11.7000;1.3228;1.6413;
12.0000;1.3252;1.6463;
12.3000;1.3268;1.6487;
12.6000;1.3301;1.6463;
12.9000;1.3317;1.6413;
13.2000;1.3341;1.6463;
13.5000;1.3350;1.6487;
13.8000;1.3382;1.6463;
14.1000;1.3382;1.6389;
14.4000;1.3374;1.6315;
14.7000;1.3398;1.6364;
15.0000;1.3431;1.6389;
15.3000;1.3423;1.6389;
15.6000;1.3455;1.6487;
15.9000;1.3472;1.6537;
16.2000;1.3512;1.6635;
16.5000;1.3521;1.6586;
16.8000;1.3553;1.6561;
17.1000;1.3545;1.6487;
17.4000;1.3447;1.6241;
17.7000;1.3569;1.6487;
18.0000;1.3578;1.6487;
18.3000;1.3586;1.6487;
18.6000;1.3610;1.6512;
18.9000;1.3578;1.6413;
19.2000;1.3602;1.6364;
19.5000;1.3602;1.6364;
19.8000;1.3602;1.6389;
20.1000;1.3626;1.6438;
20.4000;1.3635;1.6340;
20.7000;1.3651;1.6364;
21.0000;1.3651;1.6290;
21.3000;1.3675;1.6364;
21.6000;1.3691;1.6364;
21.9000;1.3708;1.6389;
22.2000;1.3691;1.6413;
22.5000;1.3675;1.6438;
22.8000;1.3691;1.6586;
23.1000;1.3732;1.6610;
23.4000;1.3659;1.6389;
23.7000;1.3700;1.6413;
24.0000;1.3724;1.6413;
24.3000;1.3740;1.6413;
24.6000;1.3732;1.6364;
24.9000;1.3740;1.6340;
25.2000;1.3765;1.6438;
25.5000;1.3797;1.6561;
25.8000;1.3765;1.6413;
26.1000;1.3797;1.6537;
26.4000;1.3789;1.6610;
26.7000;1.3781;1.6610;
27.0000;1.3781;1.6537;
27.3000;1.3773;1.6463;
27.6000;1.3797;1.6413;
27.9000;1.3765;1.6290;
28.2000;1.3740;1.6167;
28.5000;1.3830;1.6438;
28.8000;1.3781;1.6413;
29.1000;1.3830;1.6660;
29.4000;1.3789;1.6487;
29.7000;1.3822;1.6463;
30.0000;1.3871;1.6660;
30.3000;1.3822;1.6463;
30.6000;1.3830;1.6463;
30.9000;1.3838;1.6389;
31.2000;1.3830;1.6364;
31.5000;1.3838;1.6438;
31.8000;1.3862;1.6537;
32.1000;1.3879;1.6586;
32.4000;1.3805;1.6463;
32.7000;1.3854;1.6413;
33.0000;1.3928;1.6561;
33.3000;1.3854;1.6315;
33.6000;1.3830;1.6290;
33.9000;1.3879;1.6463;
34.2000;1.3871;1.6413;
34.5000;1.3879;1.6340;
34.8000;1.3871;1.6266;
35.1000;1.3895;1.6340;
35.4000;1.3895;1.6266;
35.7000;1.3895;1.6217;
36.0000;1.3871;1.6167;
36.3000;1.3879;1.6192;
36.6000;1.3887;1.6143;
36.9000;1.3895;1.6290;
37.2000;1.3862;1.6217;
37.5000;1.3879;1.6290;
37.8000;1.3895;1.6315;
38.1000;1.3903;1.6438;
38.4000;1.3895;1.6512;
38.7000;1.3895;1.6487;
39.0000;1.3895;1.6438;
39.3000;1.3871;1.6389;
39.6000;1.3928;1.6537;
39.9000;1.3919;1.6438;
40.2000;1.3895;1.6315;
40.5000;1.3919;1.6389;
40.8000;1.3936;1.6413;
41.1000;1.3928;1.6413;
41.4000;1.3936;1.6438;
41.7000;1.3895;1.6463;
42.0000;1.3903;1.6413;
42.3000;1.3919;1.6340;
42.6000;1.3936;1.6290;
42.9000;1.3928;1.6315;
43.2000;1.3952;1.6389;
43.5000;1.3936;1.6364;
43.8000;1.3944;1.6315;
44.1000;1.3928;1.6290;
44.4000;1.3854;1.6118;
44.7000;1.3944;1.6413;
45.0000;1.3952;1.6438;
45.3000;1.3936;1.6463;
45.6000;1.3936;1.6537;
45.9000;1.3968;1.6660;
46.2000;1.3952;1.6537;
46.5000;1.3952;1.6537;
46.8000;1.3952;1.6438;
47.1000;1.3960;1.6413;
47.4000;1.3960;1.6364;
47.7000;1.3936;1.6364;
48.0000;1.4009;1.6512;
48.3000;1.3960;1.6340;
48.6000;1.3968;1.6389;
48.9000;1.3968;1.6364;
49.2000;1.3903;1.6241;
49.5000;1.3968;1.6364;
49.8000;1.3968;1.6389;
50.1000;1.3944;1.6315;
50.4000;1.3944;1.6364;
50.7000;1.3968;1.6487;
51.0000;1.3976;1.6537;
51.3000;1.3993;1.6610;
51.6000;1.3960;1.6512;
51.9000;1.3985;1.6610;
52.2000;1.3976;1.6635;
52.5000;1.3936;1.6413;
52.8000;1.3968;1.6340;
53.1000;1.3960;1.6290;
53.4000;1.3985;1.6340;
53.7000;1.4001;1.6463;
54.0000;1.3993;1.6537;
54.3000;1.3993;1.6487;
54.6000;1.4001;1.6512;
54.9000;1.3968;1.6438;
55.2000;1.4009;1.6463;
55.5000;1.4009;1.6487;
55.8000;1.3985;1.6512;
56.1000;1.4017;1.6561;
56.4000;1.4058;1.6610;
56.7000;1.4009;1.6537;
57.0000;1.4025;1.6586;
57.3000;1.3993;1.6586;
57.6000;1.3985;1.6512;
57.9000;1.4001;1.6487;
58.2000;1.4009;1.6413;
58.5000;1.4025;1.6315;
58.8000;1.4025;1.6315;
59.1000;1.4025;1.6315;
59.4000;1.4025;1.6413;
59.7000;1.4025;1.6389;
60.0000;1.4025;1.6487;
60.3000;1.4033;1.6512;
60.6000;1.4009;1.6438;
60.9000;1.4017;1.6389;
61.2000;1.4042;1.6463;
61.5000;1.4025;1.6463;
61.8000;1.4033;1.6537;
62.1000;1.4017;1.6487;
62.4000;1.4017;1.6586;
62.7000;1.4042;1.6709;
63.0000;1.4009;1.6610;
63.3000;1.4001;1.6537;
63.6000;1.4025;1.6610;
63.9000;1.4058;1.6733;
64.2000;1.4017;1.6610;
64.5000;1.4017;1.6561;
64.8000;1.4025;1.6487;
65.1000;1.4009;1.6512;
65.4000;1.4017;1.6537;
65.7000;1.4001;1.6413;
66.0000;1.4009;1.6463;
66.3000;1.4033;1.6438;
66.6000;1.4033;1.6487;
66.9000;1.4082;1.6586;
67.2000;1.4033;1.6512;
67.5000;1.4025;1.6512;
67.8000;1.4042;1.6610;
68.1000;1.4050;1.6586;
68.4000;1.4033;1.6586;
68.7000;1.3985;1.6438;
69.0000;1.4050;1.6537;
69.3000;1.3993;1.6290;
69.6000;1.4066;1.6537;
69.9000;1.4042;1.6512;
70.2000;1.4107;1.6635;
70.5000;1.4042;1.6512;
70.8000;1.3968;1.6364;
71.1000;1.4058;1.6512;
71.4000;1.3985;1.6487;
71.7000;1.4042;1.6561;
72.0000;1.4017;1.6561;
72.3000;1.4017;1.6537;
72.6000;1.4131;1.6832;
72.9000;1.4042;1.6586;
73.2000;1.4033;1.6512;
73.5000;1.4033;1.6487;
73.8000;1.4033;1.6463;
74.1000;1.4017;1.6537;
74.4000;1.4033;1.6487;
74.7000;1.4017;1.6364;
75.0000;1.4050;1.6487;
75.3000;1.4058;1.6537;
75.6000;1.4074;1.6684;
75.9000;1.4098;1.6709;
76.2000;1.4025;1.6487;
76.5000;1.4098;1.6684;
76.8000;1.4025;1.6413;
77.1000;1.4058;1.6512;
77.4000;1.4050;1.6438;
77.7000;1.4050;1.6413;
78.0000;1.4066;1.6610;
78.3000;1.4025;1.6586;
78.6000;1.4042;1.6561;
78.9000;1.4058;1.6610;
79.2000;1.4050;1.6610;
79.5000;1.4042;1.6586;
79.8000;1.4066;1.6487;
80.1000;1.4025;1.6389;
80.4000;1.4042;1.6487;
80.7000;1.4050;1.6438;
81.0000;1.4058;1.6413;
81.3000;1.4033;1.6266;
81.6000;1.4042;1.6413;
81.9000;1.4050;1.6438;
82.2000;1.4058;1.6340;
82.5000;1.4066;1.6389;
82.8000;1.4042;1.6438;
83.1000;1.4050;1.6487;
83.4000;1.4058;1.6512;
83.7000;1.3985;1.6290;
84.0000;1.4050;1.6512;
84.3000;1.4058;1.6487;
84.6000;1.4074;1.6512;
84.9000;1.4050;1.6413;
85.2000;1.4098;1.6561;
85.5000;1.4050;1.6364;
85.8000;1.4082;1.6463;
86.1000;1.4050;1.6389;
86.4000;1.4042;1.6438;
86.7000;1.4066;1.6512;
87.0000;1.4066;1.6610;
87.3000;1.4058;1.6561;
87.6000;1.4058;1.6463;
87.9000;1.4050;1.6537;
88.2000;1.4058;1.6537;
88.5000;1.4058;1.6512;
88.8000;1.4050;1.6413;
89.1000;1.4058;1.6463;
89.4000;1.4058;1.6389;
89.7000;1.4074;1.6389;
90.0000;1.4082;1.6364;
90.3000;1.4074;1.6364;
90.6000;1.4090;1.6438;
90.9000;1.4082;1.6463;
91.2000;1.4074;1.6487;
91.5000;1.4074;1.6487;
91.8000;1.4074;1.6463;
92.1000;1.4082;1.6463;
92.4000;1.4082;1.6463;
92.7000;1.4082;1.6537;
93.0000;1.4066;1.6463;
93.3000;1.4058;1.6463;
93.6000;1.4098;1.6512;
93.9000;1.4074;1.6438;
94.2000;1.4066;1.6463;
94.5000;1.4074;1.6537;
94.8000;1.4147;1.6684;
95.1000;1.4042;1.6340;
95.4000;1.4066;1.6389;
95.7000;1.4058;1.6438;
96.0000;1.4074;1.6561;
96.3000;1.4082;1.6635;
96.6000;1.4098;1.6684;
96.9000;1.4074;1.6684;
97.2000;1.4107;1.6684;
97.5000;1.4115;1.6684;
97.8000;1.4074;1.6561;
98.1000;1.4066;1.6487;
98.4000;1.4066;1.6438;
98.7000;1.4058;1.6389;
99.0000;1.4066;1.6389;
99.3000;1.4082;1.6364;
99.6000;1.4090;1.6290;
99.9000;1.4074;1.6340;
100.2000;1.4066;1.6340;
100.5000;1.4074;1.6340;
100.8000;1.4090;1.6389;
101.1000;1.4066;1.6413;
101.4000;1.4025;1.6364;
101.7000;1.4066;1.6487;
102.0000;1.4082;1.6610;
102.3000;1.4098;1.6635;
102.6000;1.4074;1.6537;
102.9000;1.4066;1.6610;
103.2000;1.4082;1.6610;
103.5000;1.4082;1.6586;
103.8000;1.4098;1.6635;
104.1000;1.4090;1.6561;
104.4000;1.4066;1.6413;
104.7000;1.4098;1.6586;
105.0000;1.4082;1.6512;
105.3000;1.4107;1.6561;
105.6000;1.4090;1.6561;
105.9000;1.4082;1.6512;
106.2000;1.4098;1.6537;
106.5000;1.4090;1.6487;
106.8000;1.4115;1.6463;
107.1000;1.4082;1.6340;
107.4000;1.4082;1.6315;
107.7000;1.4090;1.6340;
108.0000;1.4098;1.6364;
108.3000;1.4107;1.6389;
108.6000;1.4082;1.6340;
108.9000;1.4090;1.6290;
109.2000;1.4107;1.6438;
109.5000;1.4098;1.6413;
109.8000;1.4107;1.6463;
110.1000;1.4188;1.6709;
110.4000;1.4115;1.6586;
110.7000;1.4090;1.6463;
111.0000;1.4074;1.6364;
111.3000;1.4107;1.6487;
111.6000;1.4074;1.6487;
111.9000;1.4074;1.6512;
112.2000;1.4098;1.6512;
112.5000;1.4074;1.6463;
112.8000;1.4074;1.6438;
113.1000;1.4082;1.6438;
113.4000;1.4074;1.6364;
113.7000;1.4107;1.6389;
114.0000;1.4090;1.6512;
114.3000;1.4082;1.6487;
114.6000;1.4074;1.6586;
114.9000;1.4001;1.6315;
115.2000;1.4098;1.6610;
115.5000;1.4082;1.6561;
115.8000;1.4050;1.6389;
116.1000;1.4090;1.6438;
116.4000;1.4082;1.6512;
116.7000;1.4123;1.6635;
117.0000;1.4098;1.6512;
117.3000;1.4098;1.6487;
117.6000;1.4123;1.6537;
117.9000;1.4098;1.6635;
118.2000;1.4090;1.6561;
118.5000;1.4098;1.6512;
118.8000;1.4180;1.6684;
119.1000;1.4098;1.6463;
119.4000;1.4033;1.6413;
119.7000;1.4082;1.6610;
120.0000;1.4090;1.6610;
120.3000;1.4090;1.6561;
120.6000;1.4123;1.6537;
120.9000;1.4098;1.6389;
121.2000;1.4090;1.6413;
121.5000;1.4107;1.6463;
121.8000;1.4090;1.6413;
122.1000;1.4082;1.6413;
122.4000;1.4107;1.6389;
122.7000;1.4082;1.6413;
123.0000;1.4090;1.6463;
123.3000;1.4098;1.6537;
123.6000;1.4107;1.6586;
123.9000;1.4098;1.6561;
124.2000;1.4098;1.6561;
124.5000;1.4131;1.6610;
124.8000;1.4098;1.6512;
125.1000;1.4107;1.6487;
125.4000;1.4090;1.6512;
125.7000;1.4090;1.6512;
126.0000;1.4098;1.6561;
126.3000;1.4074;1.6610;
126.6000;1.4107;1.6561;
126.9000;1.4107;1.6610;
127.2000;1.4090;1.6537;
127.5000;1.4074;1.6413;
127.8000;1.4115;1.6463;
128.1000;1.4098;1.6512;
128.4000;1.4066;1.6413;
128.7000;1.4090;1.6561;
129.0000;1.4123;1.6635;
129.3000;1.4123;1.6733;
129.6000;1.4107;1.6512;
129.9000;1.4115;1.6512;
130.2000;1.4098;1.6586;
130.5000;1.4090;1.6512;
130.8000;1.4115;1.6389;
131.1000;1.4042;1.6192;
131.4000;1.4090;1.6266;
131.7000;1.4098;1.6290;
132.0000;1.4098;1.6290;
132.3000;1.4098;1.6241;
132.6000;1.4107;1.6217;
132.9000;1.4090;1.6167;
133.2000;1.4090;1.6192;
133.5000;1.4107;1.6266;
133.8000;1.4123;1.6389;
134.1000;1.4115;1.6364;
134.4000;1.4082;1.6241;
134.7000;1.4123;1.6241;
135.0000;1.4098;1.6192;
135.3000;1.4107;1.6167;
135.6000;1.4098;1.6143;
135.9000;1.4123;1.6290;
136.2000;1.4098;1.6241;
136.5000;1.4098;1.6266;
136.8000;1.4090;1.6266;
137.1000;1.4115;1.6290;
137.4000;1.4098;1.6266;
137.7000;1.4090;1.6290;
138.0000;1.4107;1.6315;
138.3000;1.4107;1.6315;
138.6000;1.4098;1.6290;
138.9000;1.4090;1.6266;
139.2000;1.4090;1.6241;
139.5000;1.4107;1.6340;
139.8000;1.4147;1.6463;
140.1000;1.4090;1.6290;
140.4000;1.4066;1.6241;
140.7000;1.4098;1.6266;
141.0000;1.4058;1.6094;
141.3000;1.4107;1.6290;
141.6000;1.4090;1.6217;
141.9000;1.4074;1.6143;
142.2000;1.4098;1.6241;
142.5000;1.4082;1.6192;
142.8000;1.4082;1.6167;
143.1000;1.4090;1.6192;
143.4000;1.4098;1.6241;
143.7000;1.4090;1.6094;
144.0000;1.4082;1.6020;
144.3000;1.4261;1.6512;
144.6000;1.4098;1.6167;
144.9000;1.4098;1.6266;
145.2000;1.4123;1.6241;
145.5000;1.4098;1.6241;
145.8000;1.4164;1.6389;
146.1000;1.4074;1.6192;
146.4000;1.4107;1.6315;
146.7000;1.4107;1.6340;
147.0000;1.4107;1.6364;
147.3000;1.4123;1.6463;
147.6000;1.4066;1.6315;
147.9000;1.4115;1.6364;
148.2000;1.4107;1.6512;
148.5000;1.4115;1.6610;
148.8000;1.4107;1.6512;
149.1000;1.4098;1.6512;
149.4000;1.4131;1.6561;
149.7000;1.4107;1.6463;
150.0000;1.4066;1.6266;
150.3000;1.4090;1.6364;
150.6000;1.4115;1.6463;
150.9000;1.4090;1.6340;
151.2000;1.4139;1.6438;
151.5000;1.4172;1.6537;
151.8000;1.4082;1.6290;
152.1000;1.4090;1.6438;
152.4000;1.4058;1.6266;
152.7000;1.4074;1.6266;
153.0000;1.4090;1.6290;
153.3000;1.4107;1.6217;
153.6000;1.4123;1.6241;
153.9000;1.4123;1.6143;
154.2000;1.4107;1.6094;
154.5000;1.4115;1.6094;
154.8000;1.4107;1.6167;
155.1000;1.4107;1.6217;
155.4000;1.4098;1.6241;
155.7000;1.4107;1.6241;
156.0000;1.4098;1.6167;
156.3000;1.4131;1.6266;
156.6000;1.4098;1.6241;
156.9000;1.4098;1.6266;
157.2000;1.4082;1.6241;
157.5000;1.4098;1.6266;
157.8000;1.4107;1.6340;
158.1000;1.4098;1.6364;
158.4000;1.4082;1.6290;
158.7000;1.4090;1.6340;
159.0000;1.4107;1.6340;
159.3000;1.4098;1.6315;
159.6000;1.4090;1.6290;
159.9000;1.4082;1.6315;
160.2000;1.4180;1.6537;
160.5000;1.4123;1.6266;
160.8000;1.4107;1.6266;
161.1000;1.4082;1.6143;
161.4000;1.4123;1.6192;
161.7000;1.4107;1.6241;
162.0000;1.4090;1.6266;
162.3000;1.4098;1.6364;
162.6000;1.4098;1.6389;
162.9000;1.4098;1.6487;
163.2000;1.4098;1.6463;
163.5000;1.4090;1.6413;
163.8000;1.4098;1.6413;
164.1000;1.4098;1.6463;
164.4000;1.4107;1.6512;
164.7000;1.4139;1.6561;
165.0000;1.4090;1.6487;
165.3000;1.4115;1.6537;
165.6000;1.4066;1.6389;
165.9000;1.4098;1.6340;
166.2000;1.4115;1.6364;
166.5000;1.4098;1.6364;
166.8000;1.4098;1.6438;
167.1000;1.4164;1.6610;
167.4000;1.4107;1.6413;
167.7000;1.4123;1.6389;
168.0000;1.4090;1.6290;
168.3000;1.4115;1.6266;
168.6000;1.4066;1.6167;
168.9000;1.4090;1.6290;
169.2000;1.4131;1.6438;
169.5000;1.4107;1.6364;
169.8000;1.4107;1.6364;
170.1000;1.4115;1.6389;
170.4000;1.4074;1.6364;
170.7000;1.4082;1.6389;
171.0000;1.4082;1.6487;
171.3000;1.4090;1.6438;
171.6000;1.4115;1.6487;
171.9000;1.4107;1.6463;
172.2000;1.4098;1.6364;
172.5000;1.4180;1.6586;
172.8000;1.4090;1.6364;
173.1000;1.4074;1.6290;
173.4000;1.4082;1.6241;
173.7000;1.4098;1.6217;
174.0000;1.4107;1.6266;
174.3000;1.4115;1.6389;
174.6000;1.4082;1.6340;
174.9000;1.4098;1.6364;
175.2000;1.4107;1.6438;
175.5000;1.4107;1.6512;
175.8000;1.4115;1.6660;
176.1000;1.4123;1.6635;
176.4000;1.4107;1.6463;
176.7000;1.4131;1.6487;
177.0000;1.4155;1.6512;
177.3000;1.4115;1.6413;
177.6000;1.4090;1.6315;
177.9000;1.4131;1.6340;
178.2000;1.4115;1.6266;
178.5000;1.4098;1.6192;
178.8000;1.4090;1.6167;
179.1000;1.4082;1.6118;
179.4000;1.4098;1.6192;
179.7000;1.4082;1.6094;
180.0000;1.4082;1.6118;
180.3000;1.4082;1.6241;
180.6000;1.4098;1.6290;
180.9000;1.4107;1.6389;
181.2000;1.4107;1.6340;
181.5000;1.4082;1.6290;
181.8000;1.4107;1.6413;
182.1000;1.4115;1.6438;
182.4000;1.4188;1.6463;
182.7000;1.4196;1.6487;
183.0000;1.4098;1.6241;
183.3000;1.4098;1.6241;
183.6000;1.4115;1.6340;
183.9000;1.4098;1.6413;
184.2000;1.4155;1.6586;
184.5000;1.4115;1.6512;
184.8000;1.4098;1.6413;
185.1000;1.4115;1.6438;
185.4000;1.4107;1.6290;
185.7000;1.4107;1.6241;
186.0000;1.4164;1.6463;
186.3000;1.4082;1.6315;
186.6000;1.4107;1.6389;
186.9000;1.4107;1.6463;
187.2000;1.4123;1.6537;
187.5000;1.4090;1.6389;
187.8000;1.4115;1.6463;
188.1000;1.4090;1.6463;
188.4000;1.4090;1.6413;
188.7000;1.4090;1.6340;
189.0000;1.4115;1.6290;
189.3000;1.4066;1.6217;
189.6000;1.4155;1.6537;
189.9000;1.4123;1.6413;
190.2000;1.4082;1.6413;
190.5000;1.4050;1.6315;
190.8000;1.4115;1.6463;
191.1000;1.4172;1.6586;
191.4000;1.4115;1.6463;
191.7000;1.4082;1.6389;
192.0000;1.4098;1.6413;
192.3000;1.4098;1.6537;
192.6000;1.4058;1.6487;
192.9000;1.4098;1.6463;
193.2000;1.4098;1.6487;
193.5000;1.4090;1.6413;
193.8000;1.4107;1.6413;
194.1000;1.4090;1.6413;
194.4000;1.4090;1.6364;
194.7000;1.4090;1.6487;
195.0000;1.4074;1.6463;
195.3000;1.4090;1.6487;
195.6000;1.4123;1.6537;
195.9000;1.4147;1.6512;
196.2000;1.4074;1.6340;
196.5000;1.4098;1.6438;
196.8000;1.4090;1.6364;
197.1000;1.4074;1.6340;
197.4000;1.4098;1.6487;
197.7000;1.4098;1.6463;
198.0000;1.4058;1.6217;
198.3000;1.4090;1.6315;
198.6000;1.4131;1.6315;
198.9000;1.4115;1.6364;
199.2000;1.4098;1.6364;
199.5000;1.4107;1.6463;
199.8000;1.4115;1.6364;
200.1000;1.4098;1.6290;
200.4000;1.4098;1.6290;
200.7000;1.4115;1.6290;
201.0000;1.4009;1.5995;
201.3000;1.4115;1.6266;
201.6000;1.4107;1.6167;
201.9000;1.4107;1.6167;
202.2000;1.4107;1.6217;
202.5000;1.4115;1.6266;
202.8000;1.4098;1.6266;
203.1000;1.4090;1.6266;
203.4000;1.4098;1.6340;
203.7000;1.4123;1.6364;
204.0000;1.4115;1.6413;
204.3000;1.4123;1.6389;
204.6000;1.4098;1.6364;
204.9000;1.4090;1.6389;
205.2000;1.4123;1.6537;
205.5000;1.4107;1.6586;
205.8000;1.4090;1.6537;
206.1000;1.4098;1.6610;
206.4000;1.4082;1.6561;
206.7000;1.4098;1.6561;
207.0000;1.4082;1.6463;
207.3000;1.4074;1.6438;
207.6000;1.4098;1.6463;
207.9000;1.4098;1.6512;
208.2000;1.4098;1.6389;
208.5000;1.4074;1.6290;
208.8000;1.4098;1.6438;
209.1000;1.4107;1.6364;
209.4000;1.4107;1.6389;
209.7000;1.4098;1.6389;
210.0000;1.4107;1.6463;
210.3000;1.4155;1.6561;
210.6000;1.4098;1.6364;
210.9000;1.4115;1.6413;
211.2000;1.4098;1.6438;
211.5000;1.4164;1.6709;
211.8000;1.4107;1.6561;
212.1000;1.4098;1.6487;
212.4000;1.4090;1.6413;
212.7000;1.4131;1.6389;
213.0000;1.4098;1.6315;
213.3000;1.4098;1.6266;
213.6000;1.4098;1.6315;
213.9000;1.4123;1.6438;
214.2000;1.4098;1.6438;
214.5000;1.4123;1.6487;
214.8000;1.4098;1.6364;
215.1000;1.4090;1.6340;
215.4000;1.4058;1.6290;
215.7000;1.4107;1.6413;
216.0000;1.4090;1.6413;
216.3000;1.4074;1.6364;
216.6000;1.4107;1.6315;
216.9000;1.4115;1.6364;
217.2000;1.4115;1.6389;
217.5000;1.4098;1.6340;
217.8000;1.4098;1.6364;
218.1000;1.4090;1.6364;
218.4000;1.4098;1.6364;
218.7000;1.4082;1.6290;
219.0000;1.4098;1.6315;
219.3000;1.4082;1.6389;
219.6000;1.4090;1.6463;
219.9000;1.4090;1.6438;
220.2000;1.4050;1.6315;
220.5000;1.4188;1.6684;
220.8000;1.4107;1.6512;
221.1000;1.4082;1.6389;
221.4000;1.4050;1.6290;
221.7000;1.4115;1.6413;
222.0000;1.4123;1.6389;
222.3000;1.4098;1.6463;
222.6000;1.4115;1.6463;
222.9000;1.4107;1.6413;
223.2000;1.4098;1.6241;
223.5000;1.4107;1.6241;
223.8000;1.4107;1.6192;
224.1000;1.4098;1.6266;
224.4000;1.4098;1.6241;
224.7000;1.4131;1.6266;
225.0000;1.4098;1.6217;
225.3000;1.4082;1.6118;
225.6000;1.4074;1.6167;
225.9000;1.4123;1.6340;
226.2000;1.4090;1.6315;
226.5000;1.4090;1.6340;
226.8000;1.4082;1.6266;
227.1000;1.4082;1.6241;
227.4000;1.4082;1.6241;
227.7000;1.4131;1.6364;
228.0000;1.4098;1.6364;
228.3000;1.4107;1.6340;
228.6000;1.4066;1.6266;
228.9000;1.4025;1.6143;
229.2000;1.4082;1.6364;
229.5000;1.4115;1.6512;
229.8000;1.4058;1.6512;
230.1000;1.4098;1.6586;
230.4000;1.4090;1.6561;
230.7000;1.4098;1.6660;
231.0000;1.4107;1.6635;
231.3000;1.4090;1.6512;
231.6000;1.4082;1.6537;
231.9000;1.4074;1.6537;
232.2000;1.4115;1.6537;
232.5000;1.4082;1.6463;
232.8000;1.4082;1.6413;
233.1000;1.4107;1.6463;
233.4000;1.4098;1.6389;
233.7000;1.4090;1.6438;
234.0000;1.4066;1.6364;
234.3000;1.4123;1.6561;
234.6000;1.4139;1.6635;
234.9000;1.4131;1.6684;
235.2000;1.4098;1.6610;
235.5000;1.4115;1.6635;
235.8000;1.4098;1.6635;
236.1000;1.4107;1.6660;
236.4000;1.4098;1.6660;
236.7000;1.4098;1.6709;
237.0000;1.4074;1.6561;
237.3000;1.4107;1.6561;
237.6000;1.4131;1.6561;
237.9000;1.4098;1.6463;
238.2000;1.4098;1.6389;
238.5000;1.4098;1.6315;
238.8000;1.4090;1.6315;
239.1000;1.4098;1.6413;
239.4000;1.4098;1.6463;
239.7000;1.4098;1.6537;
240.0000;1.4107;1.6684;
240.3000;1.4098;1.6660;
240.6000;1.4115;1.6635;
240.9000;1.4098;1.6586;
241.2000;1.4098;1.6537;
241.5000;1.4115;1.6438;
241.8000;1.4098;1.6438;
242.1000;1.4090;1.6463;
242.4000;1.4115;1.6561;
242.7000;1.4107;1.6438;
243.0000;1.4115;1.6438;
243.3000;1.4090;1.6389;
243.6000;1.4090;1.6438;
243.9000;1.4098;1.6413;
244.2000;1.4082;1.6290;
244.5000;1.4082;1.6389;
244.8000;1.4082;1.6389;
245.1000;1.4098;1.6315;
245.4000;1.4082;1.6315;
245.7000;1.4066;1.6290;
246.0000;1.4098;1.6364;
246.3000;1.4090;1.6389;
246.6000;1.4115;1.6364;
246.9000;1.4090;1.6290;
247.2000;1.4082;1.6241;
247.5000;1.4090;1.6290;
247.8000;1.4115;1.6389;
248.1000;1.4098;1.6290;
248.4000;1.4107;1.6241;
248.7000;1.4090;1.6241;
249.0000;1.4098;1.6290;
249.3000;1.4074;1.6241;
249.6000;1.4074;1.6241;
249.9000;1.4115;1.6364;
250.2000;1.4155;1.6487;
250.5000;1.4107;1.6438;
250.8000;1.4082;1.6389;
251.1000;1.4082;1.6438;
251.4000;1.4107;1.6413;
251.7000;1.4090;1.6340;
252.0000;1.4107;1.6340;
252.3000;1.4107;1.6364;
252.6000;1.4090;1.6389;
252.9000;1.4147;1.6512;
253.2000;1.4082;1.6389;
253.5000;1.4082;1.6438;
253.8000;1.4245;1.6881;
254.1000;1.4098;1.6512;
254.4000;1.4082;1.6537;
254.7000;1.4082;1.6389;
255.0000;1.4098;1.6413;
255.3000;1.4098;1.6438;
255.6000;1.4107;1.6438;
255.9000;1.4090;1.6389;
256.2000;1.4180;1.6537;
256.5000;1.4115;1.6413;
256.8000;1.4090;1.6364;
257.1000;1.4066;1.6364;
257.4000;1.4090;1.6364;
257.7000;1.4098;1.6340;
258.0000;1.4115;1.6364;
258.3000;1.4107;1.6340;
258.6000;1.4098;1.6340;
258.9000;1.4098;1.6438;
259.2000;1.4107;1.6512;
259.5000;1.4090;1.6512;
259.8000;1.4090;1.6586;
260.1000;1.4082;1.6537;
260.4000;1.4107;1.6463;
260.7000;1.4098;1.6487;
261.0000;1.4090;1.6438;
261.3000;1.4098;1.6438;
261.6000;1.4172;1.6783;
261.9000;1.4090;1.6610;
262.2000;1.4090;1.6463;
262.5000;1.4058;1.6389;
262.8000;1.4066;1.6487;
263.1000;1.4107;1.6561;
263.4000;1.4082;1.6537;
263.7000;1.4082;1.6487;
264.0000;1.4066;1.6413;
264.3000;1.4082;1.6438;
264.6000;1.4082;1.6463;
264.9000;1.4098;1.6586;
265.2000;1.4074;1.6512;
265.5000;1.4074;1.6537;
265.8000;1.4074;1.6463;
266.1000;1.4082;1.6463;
266.4000;1.4098;1.6463;
266.7000;1.4098;1.6487;
267.0000;1.4090;1.6463;
267.3000;1.4090;1.6438;
267.6000;1.4082;1.6389;
267.9000;1.4090;1.6389;
268.2000;1.4082;1.6438;
268.5000;1.4090;1.6537;
268.8000;1.4082;1.6561;
269.1000;1.4090;1.6537;
269.4000;1.4074;1.6413;
269.7000;1.4098;1.6487;
270.0000;1.4107;1.6389;
270.3000;1.4107;1.6340;
270.6000;1.4123;1.6364;
270.9000;1.4098;1.6413;
271.2000;1.4082;1.6413;
271.5000;1.4107;1.6463;
271.8000;1.4090;1.6487;
272.1000;1.4082;1.6537;
272.4000;1.4090;1.6537;
272.7000;1.4090;1.6512;
273.0000;1.4123;1.6733;
273.3000;1.4131;1.6783;
273.6000;1.4082;1.6586;
273.9000;1.4066;1.6487;
274.2000;1.4050;1.6561;
274.5000;1.4090;1.6684;
274.8000;1.4090;1.6684;
275.1000;1.4082;1.6586;
275.4000;1.4082;1.6635;
275.7000;1.4090;1.6635;
276.0000;1.4090;1.6561;
276.3000;1.4082;1.6487;
276.6000;1.4074;1.6512;
276.9000;1.4074;1.6512;
277.2000;1.4098;1.6512;
277.5000;1.4090;1.6413;
277.8000;1.4082;1.6413;
278.1000;1.4082;1.6340;
278.4000;1.4082;1.6364;
278.7000;1.4074;1.6364;
279.0000;1.4074;1.6389;
279.3000;1.4058;1.6389;
279.6000;1.4090;1.6463;
279.9000;1.4098;1.6487;
280.2000;1.4066;1.6340;
280.5000;1.4074;1.6290;
280.8000;1.4098;1.6389;
281.1000;1.4107;1.6364;
281.4000;1.4098;1.6315;
281.7000;1.4082;1.6290;
282.0000;1.4090;1.6266;
282.3000;1.4098;1.6241;
282.6000;1.4066;1.6143;
282.9000;1.4082;1.6217;
283.2000;1.4082;1.6315;
283.5000;1.4082;1.6290;
283.8000;1.4090;1.6266;
284.1000;1.4074;1.6217;
284.4000;1.4082;1.6290;
284.7000;1.4123;1.6315;
285.0000;1.4074;1.6217;
285.3000;1.4090;1.6241;
285.6000;1.4009;1.6167;
285.9000;1.4107;1.6463;
286.2000;1.4107;1.6512;
286.5000;1.4082;1.6389;
286.8000;1.4082;1.6389;
287.1000;1.4107;1.6389;
287.4000;1.4082;1.6389;
287.7000;1.4090;1.6389;
288.0000;1.4082;1.6413;
288.3000;1.4090;1.6463;
288.6000;1.4098;1.6463;
288.9000;1.4090;1.6463;
289.2000;1.4058;1.6389;
289.5000;1.4082;1.6389;
289.8000;1.4082;1.6389;
290.1000;1.4123;1.6512;
290.4000;1.4090;1.6389;
290.7000;1.4082;1.6438;
291.0000;1.4074;1.6487;
291.3000;1.4090;1.6487;
291.6000;1.4098;1.6413;
291.9000;1.4090;1.6389;
292.2000;1.4098;1.6487;
292.5000;1.4098;1.6512;
292.8000;1.4090;1.6487;
293.1000;1.4098;1.6438;
293.4000;1.4082;1.6413;
293.7000;1.4098;1.6537;
294.0000;1.4115;1.6389;
294.3000;1.4082;1.6340;
294.6000;1.4090;1.6217;
294.9000;1.4131;1.6290;
295.2000;1.4107;1.6315;
295.5000;1.4090;1.6340;
295.8000;1.4066;1.6364;
296.1000;1.4082;1.6438;
296.4000;1.4090;1.6463;
296.7000;1.4098;1.6463;
297.0000;1.4082;1.6413;
297.3000;1.4172;1.6709;
297.6000;1.4090;1.6512;
297.9000;1.4098;1.6512;
298.2000;1.4074;1.6389;
298.5000;1.4082;1.6438;
298.8000;1.4066;1.6438;
299.1000;1.4066;1.6364;
299.4000;1.4066;1.6315;
299.7000;1.4090;1.6413;
300.0000;1.4090;1.6413;
300.3000;1.4123;1.6487;
300.6000;1.4090;1.6413;
300.9000;1.4074;1.6438;
301.2000;1.4082;1.6413;
301.5000;1.4107;1.6561;
301.8000;1.4107;1.6512;
302.1000;1.4082;1.6389;
302.4000;1.4098;1.6389;
302.7000;1.4107;1.6413;
303.0000;1.4098;1.6340;
303.3000;1.4058;1.6241;
303.6000;1.4082;1.6315;
303.9000;1.4082;1.6266;
304.2000;1.4155;1.6438;
304.5000;1.4107;1.6364;
304.8000;1.4090;1.6290;
305.1000;1.4074;1.6217;
305.4000;1.4090;1.6241;
305.7000;1.4082;1.6241;
306.0000;1.4090;1.6290;
306.3000;1.4074;1.6266;
306.6000;1.4082;1.6364;
306.9000;1.4074;1.6487;
307.2000;1.4082;1.6487;
307.5000;1.4172;1.6635;
307.8000;1.4098;1.6340;
308.1000;1.4082;1.6241;
308.4000;1.4090;1.6192;
308.7000;1.4050;1.6167;
309.0000;1.4074;1.6340;
309.3000;1.4090;1.6438;
309.6000;1.4033;1.6290;
309.9000;1.4074;1.6290;
310.2000;1.4082;1.6143;
310.5000;1.4123;1.6241;
310.8000;1.4082;1.6217;
311.1000;1.4098;1.6217;
311.4000;1.4066;1.6167;
311.7000;1.4090;1.6217;
312.0000;1.4082;1.6118;
312.3000;1.4115;1.6192;
312.6000;1.4082;1.6192;
312.9000;1.4066;1.6241;
313.2000;1.4098;1.6266;
313.5000;1.4082;1.6315;
313.8000;1.4090;1.6315;
314.1000;1.4090;1.6290;
314.4000;1.4098;1.6266;
314.7000;1.4082;1.6266;
315.0000;1.4074;1.6217;
315.3000;1.4082;1.6167;
315.6000;1.4082;1.6167;
315.9000;1.4082;1.6192;
316.2000;1.4115;1.6290;
316.5000;1.4050;1.6094;
316.8000;1.4090;1.6143;
317.1000;1.4098;1.6069;
317.4000;1.4082;1.5995;
317.7000;1.4074;1.5995;
318.0000;1.4090;1.5971;
318.3000;1.4098;1.5946;
318.6000;1.4074;1.5897;
318.9000;1.4050;1.5897;
319.2000;1.4090;1.6069;
319.5000;1.4082;1.6044;
319.8000;1.4098;1.6069;
320.1000;1.4090;1.6069;
320.4000;1.4115;1.6266;
320.7000;1.4098;1.6192;
321.0000;1.4082;1.6217;
321.3000;1.4082;1.6192;
321.6000;1.4066;1.6143;
321.9000;1.4066;1.6020;
322.2000;1.4090;1.6118;
322.5000;1.4082;1.6094;
322.8000;1.4131;1.6167;
323.1000;1.4188;1.6266;
323.4000;1.4058;1.5995;
323.7000;1.4098;1.6094;
324.0000;1.4123;1.6094;
324.3000;1.4090;1.6044;
324.6000;1.4098;1.6094;
324.9000;1.4098;1.6241;
325.2000;1.4082;1.6192;
325.5000;1.4098;1.6143;
325.8000;1.4090;1.6192;
326.1000;1.4074;1.6217;
326.4000;1.4058;1.6069;
326.7000;1.4098;1.6167;
327.0000;1.4082;1.6241;
327.3000;1.4082;1.6217;
327.6000;1.4074;1.6143;
327.9000;1.4058;1.6167;
328.2000;1.4074;1.6217;
328.5000;1.4090;1.6241;
328.8000;1.4082;1.6192;
329.1000;1.4082;1.6266;
329.4000;1.4050;1.6192;
329.7000;1.4107;1.6315;
330.0000;1.4090;1.6217;
330.3000;1.4066;1.6118;
330.6000;1.4082;1.6192;
330.9000;1.4115;1.6241;
331.2000;1.4074;1.6266;
331.5000;1.4058;1.6167;
331.8000;1.4098;1.6266;
332.1000;1.4090;1.6389;
332.4000;1.4115;1.6561;
332.7000;1.4074;1.6463;
333.0000;1.4074;1.6389;
333.3000;1.4074;1.6413;
333.6000;1.4082;1.6413;
333.9000;1.4090;1.6413;
334.2000;1.4074;1.6315;
334.5000;1.4074;1.6241;
334.8000;1.4090;1.6290;
335.1000;1.4107;1.6487;
335.4000;1.4033;1.6290;
335.7000;1.4074;1.6389;
336.0000;1.4082;1.6463;
336.3000;1.4074;1.6438;
336.6000;1.4074;1.6463;
336.9000;1.4090;1.6389;
337.2000;1.4058;1.6315;
337.5000;1.4074;1.6364;
337.8000;1.4066;1.6364;
338.1000;1.4147;1.6537;
338.4000;1.4009;1.6217;
338.7000;1.4074;1.6315;
339.0000;1.4098;1.6487;
339.3000;1.4107;1.6487;
339.6000;1.4082;1.6463;
339.9000;1.4074;1.6438;
340.2000;1.4090;1.6413;
340.5000;1.4082;1.6413;
340.8000;1.4082;1.6340;
341.1000;1.4107;1.6487;
341.4000;1.4098;1.6487;
341.7000;1.4082;1.6438;
342.0000;1.4066;1.6438;
342.3000;1.4066;1.6438;
342.6000;1.4066;1.6487;
342.9000;1.4058;1.6537;
343.2000;1.4025;1.6413;
343.5000;1.4082;1.6438;
343.8000;1.4107;1.6487;
344.1000;1.4090;1.6463;
344.4000;1.4082;1.6537;
344.7000;1.4066;1.6413;
345.0000;1.4082;1.6537;
345.3000;1.4090;1.6537;
345.6000;1.4082;1.6413;
345.9000;1.4074;1.6389;
346.2000;1.4058;1.6364;
346.5000;1.4074;1.6413;
346.8000;1.4098;1.6463;
347.1000;1.4139;1.6561;
347.4000;1.4066;1.6537;
347.7000;1.4074;1.6561;
348.0000;1.4082;1.6537;
348.3000;1.4050;1.6315;
348.6000;1.4074;1.6340;
348.9000;1.4082;1.6413;
349.2000;1.4082;1.6413;
349.5000;1.4066;1.6389;
349.8000;1.4082;1.6463;
350.1000;1.4131;1.6561;
350.4000;1.4098;1.6487;
350.7000;1.4082;1.6413;
351.0000;1.4058;1.6315;
351.3000;1.4082;1.6389;
351.6000;1.4074;1.6389;
351.9000;1.4082;1.6389;
352.2000;1.4074;1.6438;
352.5000;1.4082;1.6537;
352.8000;1.4066;1.6487;
353.1000;1.4090;1.6487;
353.4000;1.3993;1.6290;
353.7000;1.4066;1.6463;
354.0000;1.4066;1.6438;
354.3000;1.4098;1.6561;
354.6000;1.4090;1.6537;
354.9000;1.4066;1.6463;
355.2000;1.4074;1.6537;
355.5000;1.4074;1.6537;
355.8000;1.4082;1.6512;
356.1000;1.4066;1.6610;
356.4000;1.4123;1.6733;
356.7000;1.4090;1.6758;
357.0000;1.4066;1.6684;
357.3000;1.4074;1.6660;
357.6000;1.4074;1.6709;
357.9000;1.4082;1.6783;
358.2000;1.4123;1.6832;
358.5000;1.4066;1.6733;
358.8000;1.4074;1.6709;
359.1000;1.4074;1.6660;
359.4000;1.4098;1.6807;
359.7000;1.4066;1.6660;
360.0000;1.4066;1.6537;
360.3000;1.4066;1.6561;
360.6000;1.4066;1.6561;
360.9000;1.4082;1.6586;
361.2000;1.4066;1.6512;
361.5000;1.3952;1.6290;
361.8000;1.4082;1.6635;
362.1000;1.4066;1.6684;
362.4000;1.4074;1.6635;
362.7000;1.4058;1.6635;
363.0000;1.4074;1.6684;
363.3000;1.4074;1.6610;
363.6000;1.4066;1.6512;
363.9000;1.4066;1.6438;
364.2000;1.4082;1.6389;
364.5000;1.4090;1.6438;
364.8000;1.4082;1.6413;
365.1000;1.4082;1.6463;
365.4000;1.4090;1.6610;
365.7000;1.4090;1.6512;
366.0000;1.4082;1.6413;
366.3000;1.4107;1.6438;
366.6000;1.4090;1.6389;
366.9000;1.4082;1.6340;
367.2000;1.4107;1.6413;
367.5000;1.4082;1.6315;
367.8000;1.4050;1.6266;
368.1000;1.4042;1.6217;
368.4000;1.4107;1.6389;
368.7000;1.4066;1.6290;
369.0000;1.4090;1.6315;
369.3000;1.4058;1.6290;
369.6000;1.4066;1.6364;
369.9000;1.4082;1.6487;
370.2000;1.4147;1.6660;
370.5000;1.4082;1.6487;
370.8000;1.4066;1.6487;
371.1000;1.4050;1.6537;
371.4000;1.4050;1.6487;
371.7000;1.4115;1.6610;
372.0000;1.4082;1.6512;
372.3000;1.4098;1.6537;
372.6000;1.4066;1.6487;
372.9000;1.4107;1.6610;
373.2000;1.4082;1.6463;
373.5000;1.4074;1.6463;
373.8000;1.4074;1.6413;
374.1000;1.4050;1.6389;
374.4000;1.4082;1.6512;
374.7000;1.4082;1.6537;
375.0000;1.4074;1.6413;
375.3000;1.4164;1.6610;
375.6000;1.4074;1.6463;
375.9000;1.4090;1.6487;
376.2000;1.4074;1.6463;
376.5000;1.4074;1.6413;
376.8000;1.4066;1.6364;
377.1000;1.4082;1.6413;
377.4000;1.4033;1.6340;
377.7000;1.4098;1.6463;
378.0000;1.4066;1.6364;
378.3000;1.3993;1.6143;
378.6000;1.4074;1.6340;
378.9000;1.4025;1.6241;
379.2000;1.4074;1.6217;
379.5000;1.4066;1.6118;
379.8000;1.4090;1.6094;
380.1000;1.4074;1.6044;
380.4000;1.4042;1.5971;
380.7000;1.4139;1.6315;
381.0000;1.4082;1.6241;
381.3000;1.4058;1.6192;
381.6000;1.4066;1.6241;
381.9000;1.4090;1.6315;
382.2000;1.4098;1.6340;
382.5000;1.4082;1.6340;
382.8000;1.4090;1.6364;
383.1000;1.4058;1.6340;
383.4000;1.4042;1.6290;
383.7000;1.4074;1.6537;
384.0000;1.4074;1.6537;
384.3000;1.4058;1.6438;
384.6000;1.4066;1.6487;
384.9000;1.4090;1.6561;
385.2000;1.4074;1.6512;
385.5000;1.4066;1.6586;
385.8000;1.4066;1.6586;
386.1000;1.4042;1.6635;
386.4000;1.4042;1.6586;
386.7000;1.4066;1.6635;
387.0000;1.4066;1.6586;
387.3000;1.4074;1.6561;
387.6000;1.4066;1.6537;
387.9000;1.4066;1.6537;
388.2000;1.4082;1.6537;
388.5000;1.4050;1.6487;
388.8000;1.4066;1.6537;
389.1000;1.4042;1.6389;
389.4000;1.4042;1.6192;
389.7000;1.4066;1.6143;
390.0000;1.4098;1.6290;
390.3000;1.4066;1.6241;
390.6000;1.4066;1.6118;
390.9000;1.4090;1.6118;
391.2000;1.4090;1.6143;
391.5000;1.4066;1.6217;
391.8000;1.4066;1.6290;
392.1000;1.4050;1.6315;
392.4000;1.4066;1.6364;
392.7000;1.4066;1.6512;
393.0000;1.4082;1.6635;
393.3000;1.4074;1.6635;
393.6000;1.4066;1.6610;
393.9000;1.4098;1.6660;
394.2000;1.4115;1.6660;
394.5000;1.4066;1.6512;
394.8000;1.4066;1.6512;
395.1000;1.4082;1.6610;
395.4000;1.4058;1.6660;
395.7000;1.4042;1.6610;
396.0000;1.4025;1.6561;
396.3000;1.4066;1.6635;
396.6000;1.4058;1.6660;
396.9000;1.4082;1.6610;
397.2000;1.4050;1.6512;
397.5000;1.4115;1.6635;
397.8000;1.4090;1.6610;
398.1000;1.4066;1.6463;
398.4000;1.4074;1.6463;
398.7000;1.4066;1.6487;
399.0000;1.4050;1.6438;
399.3000;1.4123;1.6586;
399.6000;1.4058;1.6438;
399.9000;1.4050;1.6561;
400.2000;1.4050;1.6660;
400.5000;1.4050;1.6635;
400.8000;1.4033;1.6537;
401.1000;1.4033;1.6610;
401.4000;1.4042;1.6586;
401.7000;1.4155;1.6832;
402.0000;1.4058;1.6635;
402.3000;1.4033;1.6537;
402.6000;1.4074;1.6635;
402.9000;1.4066;1.6586;
403.2000;1.4066;1.6610;
403.5000;1.4066;1.6537;
403.8000;1.4074;1.6561;
404.1000;1.4042;1.6537;
404.4000;1.4066;1.6660;
404.7000;1.4058;1.6709;
405.0000;1.4074;1.6610;
405.3000;1.4074;1.6512;
405.6000;1.4066;1.6438;
405.9000;1.4066;1.6487;
406.2000;1.4066;1.6487;
406.5000;1.4066;1.6487;
406.8000;1.4066;1.6561;
407.1000;1.4082;1.6537;
407.4000;1.4074;1.6610;
407.7000;1.4050;1.6586;
408.0000;1.4082;1.6610;
408.3000;1.4082;1.6660;
408.6000;1.4001;1.6364;
408.9000;1.4042;1.6389;
409.2000;1.4058;1.6389;
409.5000;1.4082;1.6364;
409.8000;1.4082;1.6389;
410.1000;1.4074;1.6463;
410.4000;1.4033;1.6389;
410.7000;1.4058;1.6438;
411.0000;1.4066;1.6438;
411.3000;1.4066;1.6487;
411.6000;1.4090;1.6512;
411.9000;1.4074;1.6438;
412.2000;1.3976;1.6290;
412.5000;1.4058;1.6463;
412.8000;1.4042;1.6389;
413.1000;1.4050;1.6364;
413.4000;1.4050;1.6290;
413.7000;1.4066;1.6364;
414.0000;1.4025;1.6241;
414.3000;1.4107;1.6487;
414.6000;1.4074;1.6537;
414.9000;1.4074;1.6610;
415.2000;1.4066;1.6635;
415.5000;1.4058;1.6586;
415.8000;1.4050;1.6610;
416.1000;1.4033;1.6561;
416.4000;1.4042;1.6537;
416.7000;1.4050;1.6537;
417.0000;1.4058;1.6463;
417.3000;1.4058;1.6463;
417.6000;1.4074;1.6487;
417.9000;1.4058;1.6438;
418.2000;1.4098;1.6512;
418.5000;1.4074;1.6389;
418.8000;1.4066;1.6340;
419.1000;1.4074;1.6438;
419.4000;1.4074;1.6389;
419.7000;1.4066;1.6389;
420.0000;1.4009;1.6364;
420.3000;1.4115;1.6635;
420.6000;1.4066;1.6463;
420.9000;1.4058;1.6389;
421.2000;1.4050;1.6364;
421.5000;1.4066;1.6364;
421.8000;1.3993;1.6266;
422.1000;1.4050;1.6487;
422.4000;1.4074;1.6537;
422.7000;1.4066;1.6413;
423.0000;1.4058;1.6438;
423.3000;1.4050;1.6438;
423.6000;1.4066;1.6389;
423.9000;1.4050;1.6389;
424.2000;1.4042;1.6537;
424.5000;1.4009;1.6413;
424.8000;1.4009;1.6364;
425.1000;1.4066;1.6512;
425.4000;1.4058;1.6512;
425.7000;1.4058;1.6586;
426.0000;1.4066;1.6512;
426.3000;1.4058;1.6487;
426.6000;1.4058;1.6463;
426.9000;1.4050;1.6463;
427.2000;1.4066;1.6463;
427.5000;1.4058;1.6537;
427.8000;1.4058;1.6586;
428.1000;1.4025;1.6438;
428.4000;1.4074;1.6586;
428.7000;1.4074;1.6660;
429.0000;1.4058;1.6635;
429.3000;1.4058;1.6561;
429.6000;1.4066;1.6561;
429.9000;1.4090;1.6684;
430.2000;1.4090;1.6586;
430.5000;1.4066;1.6463;
430.8000;1.4066;1.6463;
431.1000;1.4066;1.6463;
431.4000;1.4017;1.6340;
431.7000;1.4050;1.6389;
432.0000;1.4058;1.6413;
432.3000;1.4058;1.6364;
432.6000;1.4066;1.6413;
432.9000;1.4058;1.6463;
433.2000;1.4050;1.6463;
433.5000;1.4050;1.6463;
433.8000;1.4066;1.6438;
434.1000;1.4074;1.6389;
434.4000;1.4066;1.6389;
434.7000;1.4066;1.6315;
435.0000;1.4090;1.6438;
435.3000;1.4082;1.6438;
435.6000;1.4058;1.6364;
435.9000;1.4050;1.6463;
436.2000;1.4131;1.6610;
436.5000;1.4058;1.6413;
436.8000;1.4050;1.6413;
437.1000;1.4058;1.6340;
437.4000;1.4050;1.6413;
437.7000;1.4066;1.6487;
438.0000;1.4082;1.6487;
438.3000;1.4090;1.6561;
438.6000;1.4082;1.6438;
438.9000;1.4042;1.6413;
439.2000;1.4164;1.6635;
439.5000;1.4042;1.6340;
439.8000;1.4025;1.6290;
440.1000;1.4050;1.6364;
440.4000;1.4009;1.6266;
440.7000;1.4066;1.6389;
441.0000;1.4050;1.6463;
441.3000;1.4033;1.6463;
441.6000;1.4074;1.6537;
441.9000;1.4066;1.6487;
442.2000;1.4042;1.6512;
442.5000;1.4009;1.6389;
442.8000;1.4058;1.6340;
443.1000;1.4066;1.6340;
443.4000;1.4033;1.6389;
443.7000;1.4050;1.6438;
444.0000;1.4050;1.6537;
444.3000;1.4042;1.6537;
444.6000;1.4066;1.6586;
444.9000;1.4050;1.6487;
445.2000;1.4058;1.6586;
445.5000;1.4066;1.6561;
445.8000;1.4058;1.6512;
446.1000;1.4058;1.6463;
446.4000;1.4107;1.6512;
446.7000;1.4074;1.6364;
447.0000;1.4066;1.6340;
447.3000;1.4042;1.6266;
447.6000;1.4066;1.6340;
447.9000;1.4066;1.6340;
448.2000;1.4066;1.6241;
448.5000;1.4050;1.6217;
448.8000;1.4042;1.6192;
449.1000;1.4050;1.6290;
449.4000;1.4050;1.6364;
449.7000;1.4050;1.6290;
450.0000;1.4042;1.6217;
450.3000;1.4042;1.6315;
450.6000;1.4058;1.6364;
450.9000;1.4050;1.6315;
451.2000;1.4058;1.6340;
451.5000;1.4058;1.6315;
451.8000;1.4074;1.6389;
452.1000;1.4050;1.6315;
452.4000;1.4042;1.6340;
452.7000;1.4050;1.6241;
453.0000;1.4066;1.6340;
453.3000;1.3985;1.6315;
453.6000;1.4090;1.6586;
453.9000;1.4090;1.6537;
454.2000;1.4090;1.6561;
454.5000;1.4017;1.6389;
454.8000;1.4042;1.6463;
455.1000;1.4058;1.6610;
455.4000;1.4033;1.6487;
455.7000;1.4058;1.6413;
456.0000;1.4042;1.6315;
456.3000;1.4066;1.6290;
456.6000;1.4058;1.6266;
456.9000;1.4066;1.6315;
457.2000;1.4115;1.6463;
457.5000;1.4050;1.6340;
457.8000;1.4042;1.6389;
458.1000;1.4050;1.6487;
458.4000;1.4050;1.6586;
458.7000;1.4033;1.6512;
459.0000;1.4042;1.6438;
459.3000;1.4042;1.6463;
459.6000;1.4042;1.6463;
459.9000;1.4042;1.6487;
460.2000;1.4042;1.6487;
460.5000;1.4042;1.6438;
460.8000;1.4058;1.6561;
461.1000;1.4050;1.6561;
461.4000;1.4042;1.6512;
461.7000;1.4042;1.6463;
462.0000;1.4050;1.6413;
462.3000;1.4050;1.6487;
462.6000;1.4042;1.6487;
462.9000;1.4042;1.6413;
463.2000;1.4042;1.6487;
463.5000;1.4066;1.6512;
463.8000;1.4098;1.6537;
464.1000;1.4042;1.6340;
464.4000;1.4042;1.6315;
464.7000;1.4058;1.6463;
465.0000;1.4058;1.6537;
465.3000;1.4050;1.6610;
465.6000;1.4066;1.6635;
465.9000;1.4050;1.6660;
466.2000;1.4066;1.6635;
466.5000;1.4042;1.6537;
466.8000;1.4066;1.6463;
467.1000;1.4066;1.6537;
467.4000;1.4074;1.6537;
467.7000;1.4050;1.6537;
468.0000;1.4058;1.6586;
468.3000;1.4050;1.6512;
468.6000;1.4066;1.6561;
468.9000;1.4066;1.6586;
469.2000;1.4042;1.6586;
469.5000;1.4033;1.6586;
469.8000;1.4017;1.6561;
470.1000;1.4033;1.6586;
470.4000;1.4042;1.6660;
470.7000;1.4042;1.6635;
471.0000;1.4066;1.6610;
471.3000;1.4033;1.6487;
471.6000;1.4042;1.6537;
471.9000;1.4042;1.6463;
472.2000;1.4050;1.6512;
472.5000;1.4050;1.6610;
472.8000;1.4017;1.6512;
473.1000;1.4033;1.6463;
473.4000;1.4123;1.6684;
473.7000;1.4066;1.6487;
474.0000;1.4042;1.6389;
474.3000;1.4066;1.6463;
474.6000;1.4042;1.6389;
474.9000;1.4033;1.6340;
475.2000;1.4050;1.6389;
475.5000;1.4017;1.6364;
475.8000;1.4033;1.6463;
476.1000;1.4050;1.6463;
476.4000;1.4050;1.6463;
476.7000;1.4058;1.6413;
477.0000;1.4066;1.6364;
477.3000;1.4090;1.6413;
477.6000;1.4082;1.6389;
477.9000;1.4090;1.6364;
478.2000;1.4066;1.6315;
478.5000;1.4042;1.6266;
478.8000;1.4066;1.6438;
479.1000;1.4025;1.6340;
479.4000;1.4033;1.6438;
479.7000;1.4042;1.6537;
480.0000;1.4042;1.6586;
480.3000;1.4001;1.6512;
480.6000;1.4042;1.6586;
480.9000;1.4033;1.6586;
481.2000;1.4050;1.6610;
481.5000;1.4042;1.6610;
481.8000;1.4033;1.6561;
482.1000;1.4042;1.6610;
482.4000;1.4033;1.6610;
482.7000;1.4066;1.6733;
483.0000;1.4058;1.6684;
483.3000;1.4066;1.6586;
483.6000;1.4050;1.6561;
483.9000;1.4115;1.6733;
484.2000;1.4058;1.6635;
484.5000;1.4050;1.6610;
484.8000;1.4058;1.6635;
485.1000;1.4066;1.6586;
485.4000;1.4033;1.6512;
485.7000;1.4042;1.6537;
486.0000;1.4050;1.6487;
486.3000;1.4058;1.6512;
486.6000;1.4058;1.6512;
486.9000;1.4058;1.6561;
487.2000;1.4107;1.6758;
487.5000;1.4074;1.6660;
487.8000;1.4050;1.6610;
488.1000;1.4058;1.6561;
488.4000;1.4050;1.6537;
488.7000;1.4042;1.6635;
489.0000;1.4131;1.6881;
489.3000;1.4033;1.6684;
489.6000;1.4017;1.6684;
489.9000;1.3985;1.6586;
490.2000;1.4033;1.6733;
490.5000;1.4033;1.6733;
490.8000;1.4017;1.6684;
491.1000;1.4009;1.6684;
491.4000;1.4025;1.6832;
491.7000;1.4025;1.6758;
492.0000;1.4033;1.6758;
492.3000;1.4017;1.6709;
492.6000;1.4025;1.6660;
492.9000;1.4050;1.6684;
493.2000;1.4033;1.6660;
493.5000;1.4033;1.6758;
493.8000;1.4033;1.6733;
494.1000;1.4058;1.6733;
494.4000;1.4050;1.6660;
494.7000;1.4042;1.6684;
495.0000;1.4050;1.6684;
495.3000;1.4042;1.6635;
495.6000;1.4033;1.6512;
495.9000;1.4033;1.6610;
496.2000;1.4033;1.6610;
496.5000;1.4017;1.6610;
496.8000;1.4042;1.6635;
497.1000;1.4033;1.6586;
497.4000;1.4042;1.6660;
497.7000;1.4058;1.6783;
498.0000;1.4058;1.6807;
498.3000;1.4050;1.6684;
498.6000;1.4042;1.6635;
498.9000;1.4082;1.6709;
499.2000;1.4050;1.6709;
499.5000;1.4050;1.6733;
499.8000;1.4033;1.6709;
500.1000;1.4009;1.6660;
500.4000;1.4042;1.6684;
500.7000;1.4033;1.6660;
501.0000;1.4025;1.6610;
501.3000;1.4033;1.6586;
501.6000;1.4042;1.6537;
501.9000;1.4033;1.6438;
502.2000;1.4050;1.6487;
502.5000;1.4042;1.6413;
502.8000;1.4058;1.6413;
503.1000;1.4033;1.6438;
503.4000;1.4025;1.6364;
503.7000;1.4033;1.6413;
504.0000;1.4017;1.6463;
504.3000;1.4050;1.6586;
504.6000;1.3968;1.6413;
504.9000;1.4042;1.6610;
505.2000;1.4042;1.6537;
505.5000;1.4025;1.6487;
505.8000;1.4033;1.6537;
506.1000;1.4025;1.6463;
506.4000;1.4001;1.6413;
506.7000;1.4025;1.6660;
507.0000;1.4033;1.6660;
507.3000;1.4139;1.6832;
507.6000;1.4017;1.6586;
507.9000;1.4025;1.6610;
508.2000;1.4025;1.6586;
508.5000;1.4009;1.6512;
508.8000;1.4017;1.6512;
509.1000;1.3952;1.6413;
509.4000;1.4025;1.6660;
509.7000;1.4042;1.6709;
510.0000;1.4050;1.6709;
510.3000;1.4001;1.6635;
510.6000;1.4042;1.6733;
510.9000;1.4025;1.6684;
511.2000;1.4042;1.6684;
511.5000;1.4025;1.6586;
511.8000;1.4042;1.6537;
512.1000;1.4042;1.6537;
512.4000;1.4042;1.6660;
512.7000;1.4033;1.6709;
513.0000;1.4033;1.6807;
513.3000;1.4042;1.6881;
513.6000;1.4066;1.6832;
513.9000;1.4033;1.6660;
514.2000;1.4025;1.6660;
514.5000;1.4001;1.6684;
514.8000;1.4050;1.6783;
515.1000;1.4009;1.6660;
515.4000;1.4025;1.6783;
515.7000;1.4033;1.6832;
516.0000;1.4042;1.6733;
516.3000;1.4050;1.6733;
516.6000;1.4050;1.6783;
516.9000;1.4033;1.6783;
517.2000;1.4033;1.6807;
517.5000;1.4025;1.6832;
517.8000;1.4033;1.6807;
518.1000;1.4042;1.6856;
518.4000;1.4098;1.7029;
518.7000;1.4066;1.6979;
519.0000;1.4017;1.6807;
519.3000;1.4050;1.6856;
519.6000;1.4033;1.6832;
519.9000;1.4033;1.6832;
520.2000;1.4033;1.6832;
520.5000;1.4098;1.7004;
520.8000;1.4033;1.6881;
521.1000;1.4025;1.6881;
521.4000;1.4050;1.6881;
521.7000;1.4042;1.6881;
522.0000;1.4025;1.6881;
522.3000;1.4042;1.6881;
522.6000;1.4082;1.6955;
522.9000;1.4033;1.6807;
523.2000;1.4025;1.6832;
523.5000;1.4042;1.6807;
523.8000;1.4050;1.6684;
524.1000;1.4042;1.6610;
524.4000;1.4082;1.6733;
524.7000;1.4033;1.6586;
525.0000;1.4017;1.6537;
525.3000;1.4033;1.6586;
525.6000;1.4009;1.6561;
525.9000;1.3993;1.6512;
526.2000;1.4009;1.6586;
526.5000;1.4050;1.6561;
526.8000;1.4017;1.6537;
527.1000;1.4025;1.6512;
527.4000;1.4025;1.6537;
527.7000;1.4025;1.6660;
528.0000;1.4017;1.6684;
528.3000;1.4017;1.6610;
528.6000;1.4074;1.6709;
528.9000;1.4017;1.6561;
529.2000;1.4050;1.6487;
529.5000;1.4033;1.6561;
529.8000;1.4017;1.6586;
530.1000;1.4042;1.6586;
530.4000;1.4042;1.6537;
530.7000;1.4066;1.6561;
531.0000;1.4017;1.6438;
531.3000;1.4074;1.6537;
531.6000;1.4050;1.6512;
531.9000;1.4017;1.6512;
532.2000;1.4017;1.6438;
532.5000;1.4033;1.6512;
532.8000;1.4025;1.6487;
533.1000;1.4017;1.6512;
533.4000;1.3911;1.6217;
533.7000;1.4009;1.6487;
534.0000;1.3985;1.6413;
534.3000;1.4033;1.6512;
534.6000;1.4017;1.6561;
534.9000;1.4017;1.6487;
535.2000;1.4074;1.6660;
535.5000;1.4042;1.6610;
535.8000;1.4042;1.6660;
536.1000;1.4033;1.6635;
536.4000;1.3985;1.6463;
536.7000;1.3976;1.6512;
537.0000;1.4025;1.6635;
537.3000;1.4017;1.6586;
537.6000;1.4033;1.6635;
537.9000;1.4025;1.6684;
538.2000;1.4025;1.6684;
538.5000;1.3993;1.6684;
538.8000;1.4025;1.6709;
539.1000;1.4025;1.6709;
539.4000;1.4025;1.6684;
539.7000;1.4009;1.6512;
540.0000;1.4033;1.6438;
540.3000;1.4025;1.6537;
540.6000;1.4025;1.6586;
540.9000;1.4025;1.6537;
541.2000;1.4017;1.6537;
541.5000;1.4025;1.6561;
541.8000;1.4033;1.6610;
542.1000;1.4033;1.6660;
542.4000;1.4107;1.6783;
542.7000;1.4025;1.6684;
543.0000;1.4042;1.6684;
543.3000;1.4017;1.6610;
543.6000;1.4017;1.6610;
543.9000;1.4033;1.6684;
544.2000;1.4017;1.6684;
544.5000;1.4050;1.6758;
544.8000;1.4017;1.6635;
545.1000;1.4042;1.6709;
545.4000;1.4009;1.6610;
545.7000;1.4033;1.6635;
546.0000;1.4050;1.6684;
546.3000;1.4009;1.6537;
546.6000;1.4042;1.6709;
546.9000;1.4042;1.6733;
547.2000;1.4033;1.6709;
547.5000;1.4050;1.6709;
547.8000;1.4017;1.6610;
548.1000;1.4025;1.6586;
548.4000;1.3968;1.6487;
548.7000;1.4017;1.6487;
549.0000;1.4042;1.6487;
549.3000;1.4025;1.6463;
549.6000;1.4025;1.6438;
549.9000;1.4017;1.6463;
550.2000;1.4017;1.6438;
550.5000;1.4025;1.6487;
550.8000;1.4017;1.6463;
551.1000;1.4009;1.6463;
551.4000;1.4025;1.6438;
551.7000;1.4025;1.6438;
552.0000;1.4033;1.6537;
552.3000;1.4033;1.6537;
552.6000;1.4017;1.6537;
552.9000;1.4001;1.6463;
553.2000;1.4001;1.6438;
553.5000;1.4017;1.6487;
553.8000;1.3993;1.6463;
554.1000;1.3993;1.6413;
554.4000;1.4017;1.6512;
554.7000;1.4001;1.6413;
555.0000;1.4001;1.6438;
555.3000;1.4001;1.6512;
555.6000;1.4017;1.6463;
555.9000;1.4025;1.6438;
556.2000;1.4017;1.6413;
556.5000;1.4017;1.6438;
556.8000;1.4025;1.6537;
557.1000;1.4033;1.6586;
557.4000;1.4017;1.6512;
557.7000;1.4033;1.6537;
558.0000;1.4033;1.6413;
558.3000;1.4042;1.6438;
558.6000;1.4033;1.6413;
558.9000;1.4009;1.6340;
559.2000;1.4001;1.6315;
559.5000;1.4025;1.6438;
559.8000;1.4017;1.6512;
560.1000;1.4009;1.6561;
560.4000;1.4009;1.6463;
560.7000;1.4001;1.6413;
561.0000;1.4017;1.6463;
561.3000;1.4001;1.6512;
561.6000;1.4017;1.6512;
561.9000;1.4009;1.6512;
562.2000;1.4001;1.6561;
562.5000;1.4001;1.6635;
562.8000;1.4009;1.6807;
563.1000;1.4017;1.6856;
563.4000;1.4025;1.6856;
563.7000;1.4001;1.6807;
564.0000;1.4017;1.6709;
564.3000;1.4025;1.6660;
564.6000;1.4017;1.6684;
564.9000;1.4025;1.6684;
565.2000;1.4017;1.6660;
565.5000;1.4025;1.6660;
565.8000;1.4017;1.6660;
566.1000;1.4017;1.6660;
566.4000;1.3993;1.6635;
566.7000;1.4025;1.6709;
567.0000;1.4025;1.6684;
567.3000;1.4025;1.6733;
567.6000;1.4025;1.6807;
567.9000;1.4033;1.6758;
568.2000;1.4017;1.6684;
568.5000;1.4074;1.6832;
568.8000;1.4033;1.6660;
569.1000;1.3993;1.6487;
569.4000;1.4001;1.6413;
569.7000;1.4017;1.6438;
570.0000;1.4017;1.6389;
570.3000;1.4042;1.6315;
570.6000;1.4017;1.6290;
570.9000;1.4017;1.6315;
571.2000;1.4066;1.6487;
571.5000;1.4025;1.6438;
571.8000;1.4025;1.6389;
572.1000;1.4042;1.6463;
572.4000;1.4058;1.6635;
572.7000;1.4033;1.6586;
573.0000;1.4017;1.6586;
573.3000;1.3976;1.6512;
573.6000;1.4074;1.6807;
573.9000;1.4033;1.6733;
574.2000;1.4017;1.6660;
574.5000;1.4074;1.6733;
574.8000;1.4042;1.6733;
575.1000;1.4017;1.6709;
575.4000;1.4033;1.6709;
575.7000;1.4025;1.6783;
576.0000;1.4009;1.6709;
576.3000;1.4025;1.6758;
576.6000;1.4033;1.6610;
576.9000;1.4017;1.6635;
577.2000;1.4001;1.6684;
577.5000;1.4001;1.6709;
577.8000;1.4009;1.6586;
578.1000;1.4017;1.6561;
578.4000;1.4009;1.6586;
578.7000;1.4025;1.6537;
579.0000;1.4025;1.6586;
579.3000;1.4042;1.6635;
579.6000;1.4009;1.6635;
579.9000;1.4009;1.6660;
580.2000;1.4017;1.6758;
580.5000;1.4009;1.6610;
580.8000;1.4025;1.6610;
581.1000;1.4001;1.6561;
581.4000;1.4001;1.6512;
581.7000;1.3993;1.6512;
582.0000;1.3985;1.6487;
582.3000;1.3993;1.6463;
582.6000;1.4001;1.6487;
582.9000;1.4009;1.6463;
583.2000;1.4009;1.6487;
583.5000;1.4001;1.6413;
583.8000;1.4009;1.6438;
584.1000;1.4009;1.6413;
584.4000;1.4009;1.6413;
584.7000;1.4001;1.6389;
585.0000;1.4009;1.6389;
585.3000;1.4001;1.6389;
585.6000;1.4009;1.6364;
585.9000;1.4017;1.6364;
586.2000;1.4001;1.6364;
586.5000;1.4017;1.6389;
586.8000;1.4017;1.6364;
587.1000;1.4009;1.6364;
587.4000;1.4050;1.6463;
587.7000;1.4017;1.6364;
588.0000;1.4009;1.6364;
588.3000;1.4001;1.6364;
588.6000;1.4001;1.6364;
588.9000;1.4009;1.6413;
589.2000;1.4009;1.6487;
589.5000;1.4025;1.6438;
589.8000;1.4017;1.6340;
590.1000;1.4017;1.6241;
590.4000;1.4033;1.6167;
590.7000;1.4017;1.6143;
591.0000;1.4009;1.6118;
591.3000;1.4017;1.6118;
591.6000;1.4017;1.6143;
591.9000;1.4001;1.6192;
592.2000;1.4017;1.6192;
592.5000;1.4017;1.6217;
592.8000;1.4009;1.6217;
593.1000;1.4017;1.6266;
593.4000;1.4001;1.6167;
593.7000;1.4009;1.6241;
594.0000;1.4009;1.6217;
594.3000;1.3993;1.6167;
594.6000;1.4009;1.6266;
594.9000;1.4009;1.6340;
595.2000;1.4009;1.6290;
595.5000;1.4009;1.6389;
595.8000;1.4009;1.6364;
596.1000;1.4017;1.6290;
596.4000;1.4001;1.6340;
596.7000;1.4009;1.6364;
597.0000;1.4009;1.6389;
597.3000;1.4009;1.6463;
597.6000;1.4001;1.6438;
597.9000;1.4009;1.6586;
598.2000;1.4042;1.6684;
598.5000;1.4009;1.6512;
598.8000;1.3968;1.6315;
599.1000;1.3895;1.6241;
599.4000;1.4017;1.6561;
599.7000;1.4017;1.6463;
600.0000;1.4001;1.6463;
600.3000;1.3960;1.6266;
600.6000;1.4017;1.6217;
600.9000;1.4009;1.6069;
601.2000;1.4001;1.5946;
601.5000;1.3903;1.5700;
601.8000;1.3879;1.5724;
602.1000;1.3748;1.5454;
602.4000;1.3683;1.5158;
602.7000;1.3586;1.4912;
603.0000;1.3488;1.4789;
603.3000;1.3415;1.4765;
603.6000;1.3366;1.4617;
603.9000;1.3252;1.4371;
604.2000;1.3162;1.4199;
604.5000;1.3179;1.4273;
604.8000;1.3097;1.4150;
605.1000;1.3057;1.4199;
605.4000;1.2983;1.4150;
605.7000;1.2934;1.4125;
606.0000;1.2902;1.4125;
606.3000;1.2821;1.4125;
606.6000;1.2755;1.3977;
606.9000;1.2715;1.3903;
607.2000;1.2698;1.3854;
607.5000;1.2633;1.3731;
607.8000;1.2568;1.3756;
608.1000;1.2544;1.3805;
608.4000;1.2487;1.3805;
608.7000;1.2446;1.3756;
609.0000;1.2405;1.3756;
609.3000;1.2357;1.3707;
609.6000;1.2316;1.3633;
609.9000;1.2300;1.3657;
610.2000;1.2251;1.3584;
610.5000;1.2210;1.3461;
610.8000;1.2202;1.3534;
611.1000;1.2129;1.3411;
611.4000;1.2063;1.3288;
611.7000;1.2055;1.3411;
612.0000;1.2023;1.3510;
612.3000;1.1990;1.3559;
612.6000;1.1941;1.3461;
612.9000;1.1893;1.3313;
613.2000;1.1893;1.3313;
613.5000;1.1868;1.3264;
613.8000;1.1836;1.3190;
614.1000;1.1795;1.3116;
614.4000;1.1762;1.3091;
614.7000;1.1730;1.3091;
615.0000;1.1705;1.3067;
615.3000;1.1681;1.3091;
615.6000;1.1648;1.3116;
615.9000;1.1608;1.3091;
616.2000;1.1575;1.3116;
616.5000;1.1608;1.3264;
616.8000;1.1534;1.3018;
617.1000;1.1502;1.3042;
617.4000;1.1477;1.2993;
617.7000;1.1437;1.2993;
618.0000;1.1437;1.3018;
618.3000;1.1388;1.2895;
618.6000;1.1363;1.2944;
618.9000;1.1363;1.2993;
619.2000;1.1298;1.3018;
619.5000;1.1282;1.2993;
619.8000;1.1249;1.3018;
620.1000;1.1241;1.3067;
620.4000;1.1136;1.2673;
620.7000;1.1193;1.2821;
621.0000;1.1168;1.2796;
621.3000;1.1136;1.2747;
621.6000;1.1111;1.2673;
621.9000;1.1087;1.2747;
622.2000;1.1062;1.2796;
622.5000;1.1038;1.2796;
622.8000;1.1030;1.2747;
623.1000;1.0997;1.2722;
623.4000;1.0973;1.2673;
623.7000;1.0956;1.2698;
624.0000;1.0883;1.2599;
624.3000;1.0916;1.2722;
624.6000;1.0883;1.2747;
624.9000;1.0867;1.2722;
625.2000;1.0875;1.2747;
625.5000;1.0826;1.2673;
625.8000;1.0794;1.2722;
626.1000;1.0810;1.2747;
626.4000;1.0769;1.2796;
626.7000;1.0712;1.2747;
627.0000;1.0720;1.2796;
627.3000;1.0712;1.2919;
627.6000;1.0680;1.2771;
627.9000;1.0639;1.2624;
628.2000;1.0615;1.2599;
628.5000;1.0623;1.2575;
628.8000;1.0623;1.2599;
629.1000;1.0615;1.2624;
629.4000;1.0558;1.2673;
629.7000;1.0484;1.2525;
630.0000;1.0517;1.2648;
630.3000;1.0517;1.2698;
630.6000;1.0501;1.2673;
630.9000;1.0484;1.2698;
631.2000;1.0460;1.2648;
631.5000;1.0452;1.2673;
631.8000;1.0435;1.2821;
632.1000;1.0427;1.2747;
632.4000;1.0379;1.2575;
632.7000;1.0395;1.2648;
633.0000;1.0435;1.2722;
633.3000;1.0338;1.2525;
633.6000;1.0338;1.2575;
633.9000;1.0379;1.2845;
634.2000;1.0305;1.2575;
634.5000;1.0297;1.2550;
634.8000;1.0216;1.2452;
635.1000;1.0265;1.2599;
635.4000;1.0248;1.2550;
635.7000;1.0240;1.2501;
636.0000;1.0216;1.2427;
636.3000;1.0232;1.2452;
636.6000;1.0199;1.2452;
636.9000;1.0183;1.2550;
637.2000;1.0142;1.2476;
637.5000;1.0142;1.2550;
637.8000;1.0126;1.2599;
638.1000;1.0126;1.2501;
638.4000;1.0110;1.2525;
638.7000;1.0077;1.2624;
639.0000;1.0061;1.2648;
639.3000;1.0061;1.2624;
639.6000;1.0037;1.2722;
639.9000;1.0020;1.2771;
640.2000;1.0028;1.2845;
640.5000;0.9988;1.2747;
640.8000;1.0012;1.2796;
641.1000;0.9963;1.2698;
641.4000;0.9939;1.2698;
641.7000;0.9963;1.2771;
642.0000;0.9972;1.2771;
642.3000;0.9882;1.2624;
642.6000;0.9923;1.2747;
642.9000;0.9841;1.2525;
643.2000;0.9963;1.2870;
643.5000;0.9898;1.2624;
643.8000;0.9882;1.2673;
644.1000;0.9858;1.2796;
644.4000;0.9866;1.2845;
644.7000;0.9841;1.2821;
645.0000;0.9858;1.2895;
645.3000;0.9825;1.2845;
645.6000;0.9825;1.2821;
645.9000;0.9801;1.2870;
646.2000;0.9776;1.2870;
646.5000;0.9768;1.2895;
646.8000;0.9768;1.2870;
647.1000;0.9752;1.2796;
647.4000;0.9735;1.2722;
647.7000;0.9727;1.2698;
648.0000;0.9719;1.2673;
648.3000;0.9735;1.2747;
648.6000;0.9719;1.2698;
648.9000;0.9711;1.2722;
649.2000;0.9687;1.2599;
649.5000;0.9678;1.2575;
649.8000;0.9613;1.2525;
650.1000;0.9646;1.2599;
650.4000;0.9662;1.2575;
650.7000;0.9630;1.2501;
651.0000;0.9638;1.2452;
651.3000;0.9605;1.2476;
651.6000;0.9597;1.2575;
651.9000;0.9613;1.2648;
652.2000;0.9621;1.2673;
652.5000;0.9581;1.2525;
652.8000;0.9581;1.2452;
653.1000;0.9573;1.2402;
653.4000;0.9556;1.2452;
653.7000;0.9556;1.2550;
654.0000;0.9548;1.2525;
654.3000;0.9524;1.2452;
654.6000;0.9499;1.2402;
654.9000;0.9483;1.2402;
655.2000;0.9556;1.2648;
655.5000;0.9483;1.2501;
655.8000;0.9540;1.2698;
656.1000;0.9491;1.2525;
656.4000;0.9459;1.2476;
656.7000;0.9459;1.2575;
657.0000;0.9451;1.2525;
657.3000;0.9451;1.2550;
657.6000;0.9459;1.2624;
657.9000;0.9434;1.2550;
658.2000;0.9426;1.2476;
658.5000;0.9394;1.2476;
658.8000;0.9434;1.2599;
659.1000;0.9410;1.2575;
659.4000;0.9410;1.2501;
659.7000;0.9385;1.2402;
660.0000;0.9377;1.2378;
660.3000;0.9459;1.2673;
660.6000;0.9361;1.2378;
660.9000;0.9369;1.2402;
661.2000;0.9345;1.2353;
661.5000;0.9337;1.2452;
661.8000;0.9320;1.2427;
662.1000;0.9328;1.2501;
662.4000;0.9337;1.2525;
662.7000;0.9320;1.2476;
663.0000;0.9288;1.2402;
663.3000;0.9231;1.2279;
663.6000;0.9296;1.2427;
663.9000;0.9223;1.2304;
664.2000;0.9280;1.2452;
664.5000;0.9198;1.2206;
664.8000;0.9247;1.2378;
665.1000;0.9198;1.2353;
665.4000;0.9214;1.2329;
665.7000;0.9231;1.2452;
666.0000;0.9190;1.2452;
666.3000;0.9125;1.2279;
666.6000;0.9214;1.2476;
666.9000;0.9133;1.2329;
667.2000;0.9206;1.2525;
667.5000;0.9190;1.2624;
667.8000;0.9190;1.2550;
668.1000;0.9271;1.2771;
668.4000;0.9174;1.2550;
668.7000;0.9166;1.2525;
669.0000;0.9141;1.2427;
669.3000;0.9141;1.2378;
669.6000;0.9141;1.2427;
669.9000;0.9133;1.2476;
670.2000;0.9141;1.2452;
670.5000;0.9117;1.2329;
670.8000;0.9117;1.2279;
671.1000;0.9117;1.2206;
671.4000;0.9101;1.2156;
671.7000;0.9101;1.2132;
672.0000;0.9109;1.2230;
672.3000;0.9092;1.2206;
672.6000;0.9109;1.2206;
672.9000;0.9109;1.2181;
673.2000;0.9076;1.2107;
673.5000;0.9084;1.2132;
673.8000;0.9076;1.2230;
674.1000;0.9060;1.2304;
674.4000;0.9068;1.2329;
674.7000;0.9084;1.2378;
675.0000;0.9068;1.2378;
675.3000;0.8995;1.2329;
675.6000;0.9068;1.2525;
675.9000;0.9035;1.2452;
676.2000;0.9035;1.2476;
676.5000;0.9052;1.2525;
676.8000;0.9019;1.2402;
677.1000;0.9019;1.2427;
677.4000;0.9019;1.2402;
677.7000;0.9003;1.2427;
678.0000;0.9011;1.2476;
678.3000;0.9019;1.2501;
678.6000;0.8995;1.2501;
678.9000;0.8995;1.2550;
679.2000;0.8978;1.2452;
679.5000;0.9044;1.2575;
679.8000;0.8930;1.2279;
680.1000;0.8962;1.2402;
680.4000;0.8962;1.2476;
680.7000;0.8954;1.2427;
681.0000;0.8954;1.2402;
681.3000;0.8938;1.2402;
681.6000;0.8978;1.2427;
681.9000;0.8930;1.2304;
682.2000;0.8938;1.2279;
682.5000;0.8873;1.2181;
682.8000;0.8938;1.2402;
683.1000;0.9003;1.2575;
683.4000;0.8930;1.2452;
683.7000;0.8913;1.2427;
684.0000;0.8889;1.2353;
684.3000;0.8897;1.2353;
684.6000;0.8913;1.2402;
684.9000;0.8913;1.2402;
685.2000;0.8913;1.2402;
685.5000;0.8897;1.2353;
685.8000;0.8889;1.2279;
686.1000;0.8816;1.2082;
686.4000;0.8856;1.2255;
686.7000;0.8881;1.2304;
687.0000;0.8873;1.2378;
687.3000;0.8856;1.2378;
687.6000;0.8864;1.2329;
687.9000;0.8897;1.2329;
688.2000;0.8889;1.2378;
688.5000;0.8873;1.2304;
688.8000;0.8856;1.2279;
689.1000;0.8856;1.2279;
689.4000;0.8840;1.2329;
689.7000;0.8864;1.2402;
690.0000;0.8824;1.2353;
690.3000;0.8938;1.2698;
690.6000;0.8832;1.2550;
690.9000;0.8816;1.2476;
691.2000;0.8816;1.2378;
691.5000;0.8824;1.2402;
691.8000;0.8816;1.2353;
692.1000;0.8807;1.2353;
692.4000;0.8807;1.2329;
692.7000;0.8807;1.2353;
693.0000;0.8799;1.2402;
693.3000;0.8816;1.2402;
693.6000;0.8807;1.2329;
693.9000;0.8775;1.2206;
694.2000;0.8775;1.2255;
694.5000;0.8824;1.2279;
694.8000;0.8791;1.2181;
695.1000;0.8775;1.2107;
695.4000;0.8759;1.2156;
695.7000;0.8767;1.2304;
696.0000;0.8759;1.2230;
696.3000;0.8775;1.2181;
696.6000;0.8742;1.2082;
696.9000;0.8751;1.2058;
697.2000;0.8759;1.1984;
697.5000;0.8734;1.1935;
697.8000;0.8734;1.2009;
698.1000;0.8751;1.2082;
698.4000;0.8734;1.2107;
698.7000;0.8742;1.2206;
699.0000;0.8767;1.2230;
699.3000;0.8726;1.2181;
699.6000;0.8718;1.2255;
699.9000;0.8742;1.2329;
700.2000;0.8759;1.2402;
700.5000;0.8702;1.2230;
700.8000;0.8718;1.2329;
701.1000;0.8702;1.2279;
701.4000;0.8677;1.2279;
701.7000;0.8710;1.2378;
702.0000;0.8669;1.2279;
702.3000;0.8710;1.2452;
702.6000;0.8677;1.2255;
702.9000;0.8620;1.2132;
703.2000;0.8685;1.2279;
703.5000;0.8799;1.2575;
703.8000;0.8718;1.2353;
704.1000;0.8653;1.2255;
704.4000;0.8685;1.2378;
704.7000;0.8685;1.2378;
705.0000;0.8685;1.2378;
705.3000;0.8661;1.2353;
705.6000;0.8653;1.2353;
705.9000;0.8661;1.2353;
706.2000;0.8702;1.2550;
706.5000;0.8661;1.2452;
706.8000;0.8645;1.2452;
707.1000;0.8661;1.2550;
707.4000;0.8653;1.2501;
707.7000;0.8637;1.2378;
708.0000;0.8637;1.2378;
708.3000;0.8653;1.2427;
708.6000;0.8661;1.2550;
708.9000;0.8645;1.2476;
709.2000;0.8628;1.2378;
709.5000;0.8637;1.2329;
709.8000;0.8645;1.2329;
710.1000;0.8637;1.2255;
710.4000;0.8637;1.2206;
710.7000;0.8620;1.2132;
711.0000;0.8620;1.2206;
711.3000;0.8596;1.2181;
711.6000;0.8604;1.2206;
711.9000;0.8620;1.2255;
712.2000;0.8604;1.2230;
712.5000;0.8612;1.2181;
712.8000;0.8612;1.2181;
713.1000;0.8523;1.2058;
713.4000;0.8596;1.2279;
713.7000;0.8604;1.2427;
714.0000;0.8588;1.2402;
714.3000;0.8596;1.2402;
714.6000;0.8694;1.2599;
714.9000;0.8612;1.2353;
715.2000;0.8588;1.2279;
715.5000;0.8588;1.2279;
715.8000;0.8596;1.2329;
716.1000;0.8547;1.2181;
716.4000;0.8588;1.2329;
716.7000;0.8563;1.2304;
717.0000;0.8555;1.2353;
717.3000;0.8547;1.2304;
717.6000;0.8580;1.2378;
717.9000;0.8580;1.2304;
718.2000;0.8571;1.2304;
718.5000;0.8580;1.2304;
718.8000;0.8580;1.2279;
719.1000;0.8571;1.2378;
719.4000;0.8620;1.2599;
719.7000;0.8547;1.2402;
720.0000;0.8555;1.2353;
720.3000;0.8571;1.2452;
720.6000;0.8563;1.2402;
720.9000;0.8539;1.2279;
721.2000;0.8498;1.2156;
721.5000;0.8547;1.2353;
721.8000;0.8539;1.2279;
722.1000;0.8523;1.2279;
722.4000;0.8523;1.2255;
722.7000;0.8539;1.2329;
723.0000;0.8547;1.2353;
723.3000;0.8563;1.2378;
723.6000;0.8523;1.2353;
723.9000;0.8523;1.2329;
724.2000;0.8531;1.2353;
724.5000;0.8506;1.2378;
724.8000;0.8514;1.2279;
725.1000;0.8506;1.2255;
725.4000;0.8506;1.2279;
725.7000;0.8539;1.2402;
726.0000;0.8498;1.2378;
726.3000;0.8523;1.2476;
726.6000;0.8539;1.2550;
726.9000;0.8514;1.2525;
727.2000;0.8506;1.2550;
727.5000;0.8563;1.2648;
727.8000;0.8514;1.2575;
728.1000;0.8514;1.2599;
728.4000;0.8506;1.2501;
728.7000;0.8482;1.2452;
729.0000;0.8482;1.2402;
729.3000;0.8490;1.2476;
729.6000;0.8498;1.2501;
729.9000;0.8482;1.2452;
730.2000;0.8466;1.2501;
730.5000;0.8547;1.2624;
730.8000;0.8490;1.2501;
731.1000;0.8490;1.2501;
731.4000;0.8523;1.2575;
731.7000;0.8498;1.2476;
732.0000;0.8490;1.2476;
732.3000;0.8474;1.2353;
732.6000;0.8474;1.2279;
732.9000;0.8482;1.2329;
733.2000;0.8457;1.2279;
733.5000;0.8474;1.2353;
733.8000;0.8457;1.2378;
734.1000;0.8474;1.2427;
734.4000;0.8474;1.2501;
734.7000;0.8474;1.2575;
735.0000;0.8474;1.2550;
735.3000;0.8449;1.2501;
735.6000;0.8474;1.2525;
735.9000;0.8449;1.2452;
736.2000;0.8449;1.2427;
736.5000;0.8466;1.2501;
736.8000;0.8474;1.2452;
737.1000;0.8539;1.2550;
737.4000;0.8368;1.2107;
737.7000;0.8457;1.2329;
738.0000;0.8441;1.2279;
738.3000;0.8433;1.2353;
738.6000;0.8441;1.2427;
738.9000;0.8457;1.2501;
739.2000;0.8466;1.2550;
739.5000;0.8449;1.2476;
739.8000;0.8449;1.2525;
740.1000;0.8392;1.2452;
740.4000;0.8449;1.2575;
740.7000;0.8441;1.2673;
741.0000;0.8449;1.2673;
741.3000;0.8409;1.2624;
741.6000;0.8433;1.2673;
741.9000;0.8441;1.2648;
742.2000;0.8466;1.2722;
742.5000;0.8417;1.2550;
742.8000;0.8417;1.2501;
743.1000;0.8449;1.2550;
743.4000;0.8449;1.2501;
743.7000;0.8441;1.2427;
744.0000;0.8441;1.2452;
744.3000;0.8433;1.2501;
744.6000;0.8425;1.2501;
744.9000;0.8376;1.2378;
745.2000;0.8409;1.2525;
745.5000;0.8409;1.2575;
745.8000;0.8425;1.2624;
746.1000;0.8409;1.2452;
746.4000;0.8425;1.2452;
746.7000;0.8384;1.2427;
747.0000;0.8490;1.2624;
747.3000;0.8417;1.2378;
747.6000;0.8409;1.2427;
747.9000;0.8392;1.2452;
748.2000;0.8384;1.2452;
748.5000;0.8400;1.2501;
748.8000;0.8417;1.2501;
749.1000;0.8400;1.2427;
749.4000;0.8392;1.2427;
749.7000;0.8400;1.2378;
750.0000;0.8319;1.2206;
750.3000;0.8311;1.2107;
750.6000;0.8384;1.2230;
750.9000;0.8400;1.2255;
751.2000;0.8400;1.2279;
751.5000;0.8384;1.2279;
751.8000;0.8368;1.2304;
752.1000;0.8368;1.2329;
752.4000;0.8384;1.2353;
752.7000;0.8384;1.2427;
753.0000;0.8384;1.2452;
753.3000;0.8376;1.2353;
753.6000;0.8409;1.2427;
753.9000;0.8409;1.2378;
754.2000;0.8352;1.2230;
754.5000;0.8352;1.2206;
754.8000;0.8392;1.2304;
755.1000;0.8376;1.2230;
755.4000;0.8376;1.2255;
755.7000;0.8287;1.2132;
756.0000;0.8368;1.2427;
756.3000;0.8384;1.2501;
756.6000;0.8376;1.2599;
756.9000;0.8457;1.2722;
757.2000;0.8392;1.2476;
757.5000;0.8384;1.2476;
757.8000;0.8376;1.2501;
758.1000;0.8368;1.2476;
758.4000;0.8417;1.2648;
758.7000;0.8376;1.2501;
759.0000;0.8327;1.2378;
759.3000;0.8352;1.2427;
759.6000;0.8360;1.2501;
759.9000;0.8352;1.2501;
760.2000;0.8360;1.2575;
760.5000;0.8352;1.2550;
760.8000;0.8335;1.2476;
761.1000;0.8278;1.2255;
761.4000;0.8335;1.2476;
761.7000;0.8360;1.2501;
762.0000;0.8376;1.2501;
762.3000;0.8368;1.2476;
762.6000;0.8352;1.2427;
762.9000;0.8368;1.2476;
763.2000;0.8344;1.2452;
763.5000;0.8360;1.2476;
763.8000;0.8335;1.2378;
764.1000;0.8319;1.2255;
764.4000;0.8352;1.2329;
764.7000;0.8368;1.2304;
765.0000;0.8344;1.2378;
765.3000;0.8344;1.2501;
765.6000;0.8344;1.2501;
765.9000;0.8344;1.2501;
766.2000;0.8319;1.2525;
766.5000;0.8327;1.2550;
766.8000;0.8344;1.2575;
767.1000;0.8335;1.2550;
767.4000;0.8344;1.2452;
767.7000;0.8344;1.2501;
768.0000;0.8344;1.2378;
768.3000;0.8344;1.2378;
768.6000;0.8344;1.2476;
768.9000;0.8344;1.2501;
769.2000;0.8352;1.2476;
769.5000;0.8327;1.2329;
769.8000;0.8327;1.2304;
770.1000;0.8344;1.2304;
770.4000;0.8327;1.2206;
770.7000;0.8344;1.2230;
771.0000;0.8319;1.2107;
771.3000;0.8327;1.2181;
771.6000;0.8311;1.2206;
771.9000;0.8352;1.2329;
772.2000;0.8409;1.2525;
772.5000;0.8327;1.2378;
772.8000;0.8335;1.2304;
773.1000;0.8327;1.2304;
773.4000;0.8327;1.2353;
773.7000;0.8352;1.2402;
774.0000;0.8327;1.2329;
774.3000;0.8335;1.2304;
774.6000;0.8303;1.2329;
774.9000;0.8311;1.2304;
775.2000;0.8295;1.2304;
775.5000;0.8311;1.2353;
775.8000;0.8327;1.2402;
776.1000;0.8278;1.2329;
776.4000;0.8303;1.2353;
776.7000;0.8303;1.2279;
777.0000;0.8303;1.2329;
777.3000;0.8319;1.2230;
777.6000;0.8303;1.2206;
777.9000;0.8319;1.2279;
778.2000;0.8303;1.2279;
778.5000;0.8311;1.2230;
778.8000;0.8295;1.2206;
779.1000;0.8319;1.2304;
779.4000;0.8335;1.2329;
779.7000;0.8295;1.2279;
780.0000;0.8295;1.2279;
780.3000;0.8311;1.2353;
780.6000;0.8303;1.2304;
780.9000;0.8303;1.2230;
781.2000;0.8327;1.2255;
781.5000;0.8303;1.2132;
781.8000;0.8287;1.2206;
782.1000;0.8303;1.2181;
782.4000;0.8327;1.2304;
782.7000;0.8311;1.2132;
783.0000;0.8287;1.2156;
783.3000;0.8303;1.2230;
783.6000;0.8303;1.2230;
783.9000;0.8270;1.2132;
784.2000;0.8295;1.2230;
784.5000;0.8303;1.2206;
784.8000;0.8295;1.2132;
785.1000;0.8295;1.2132;
785.4000;0.8287;1.1984;
785.7000;0.8295;1.2033;
786.0000;0.8287;1.2082;
786.3000;0.8262;1.1984;
786.6000;0.8295;1.2082;
786.9000;0.8311;1.2230;
787.2000;0.8270;1.2107;
787.5000;0.8278;1.2107;
787.8000;0.8295;1.2279;
788.1000;0.8327;1.2353;
788.4000;0.8303;1.2329;
788.7000;0.8295;1.2304;
789.0000;0.8278;1.2304;
789.3000;0.8287;1.2378;
789.6000;0.8287;1.2476;
789.9000;0.8270;1.2427;
790.2000;0.8278;1.2427;
790.5000;0.8270;1.2452;
790.8000;0.8278;1.2550;
791.1000;0.8262;1.2427;
791.4000;0.8262;1.2402;
791.7000;0.8270;1.2378;
792.0000;0.8254;1.2329;
792.3000;0.8230;1.2255;
792.6000;0.8270;1.2402;
792.9000;0.8262;1.2378;
793.2000;0.8254;1.2378;
793.5000;0.8278;1.2378;
793.8000;0.8278;1.2402;
794.1000;0.8278;1.2402;
794.4000;0.8287;1.2378;
794.7000;0.8287;1.2304;
795.0000;0.8287;1.2255;
795.3000;0.8254;1.2082;
795.6000;0.8278;1.2132;
795.9000;0.8311;1.2230;
796.2000;0.8278;1.2132;
796.5000;0.8270;1.2107;
796.8000;0.8254;1.2107;
797.1000;0.8238;1.2132;
797.4000;0.8327;1.2378;
797.7000;0.8262;1.2156;
798.0000;0.8213;1.2082;
798.3000;0.8262;1.2206;
798.6000;0.8278;1.2329;
798.9000;0.8254;1.2304;
799.2000;0.8173;1.1984;
799.5000;0.8173;1.1984;
799.8000;0.8262;1.2107;
800.1000;0.8262;1.2156;
800.4000;0.8254;1.2107;
800.7000;0.8262;1.2279;
801.0000;0.8246;1.2255;
801.3000;0.8238;1.2156;
801.6000;0.8246;1.2132;
801.9000;0.8238;1.2082;
802.2000;0.8238;1.2107;
802.5000;0.8278;1.2206;
802.8000;0.8262;1.2181;
803.1000;0.8246;1.2107;
803.4000;0.8270;1.2156;
803.7000;0.8238;1.2206;
804.0000;0.8262;1.2230;
804.3000;0.8287;1.2255;
804.6000;0.8221;1.2082;
804.9000;0.8238;1.2206;
805.2000;0.8246;1.2304;
805.5000;0.8246;1.2329;
805.8000;0.8238;1.2279;
806.1000;0.8246;1.2329;
806.4000;0.8254;1.2378;
806.7000;0.8246;1.2329;
807.0000;0.8238;1.2279;
807.3000;0.8205;1.2156;
807.6000;0.8254;1.2304;
807.9000;0.8238;1.2230;
808.2000;0.8270;1.2304;
808.5000;0.8246;1.2304;
808.8000;0.8230;1.2304;
809.1000;0.8238;1.2329;
809.4000;0.8238;1.2378;
809.7000;0.8238;1.2304;
810.0000;0.8270;1.2329;
810.3000;0.8246;1.2353;
810.6000;0.8230;1.2378;
810.9000;0.8254;1.2427;
811.2000;0.8221;1.2329;
811.5000;0.8230;1.2378;
811.8000;0.8246;1.2353;
812.1000;0.8221;1.2304;
812.4000;0.8221;1.2279;
812.7000;0.8230;1.2402;
813.0000;0.8238;1.2402;
813.3000;0.8238;1.2378;
813.6000;0.8221;1.2206;
813.9000;0.8238;1.2181;
814.2000;0.8270;1.2206;
814.5000;0.8230;1.2009;
814.8000;0.8246;1.2058;
815.1000;0.8238;1.2082;
815.4000;0.8197;1.1910;
815.7000;0.8246;1.1959;
816.0000;0.8230;1.1959;
816.3000;0.8238;1.2009;
816.6000;0.8238;1.2009;
816.9000;0.8238;1.2058;
817.2000;0.8221;1.2033;
817.5000;0.8221;1.2033;
817.8000;0.8246;1.2181;
818.1000;0.8230;1.2206;
818.4000;0.8238;1.2230;
818.7000;0.8221;1.2132;
819.0000;0.8262;1.2230;
819.3000;0.8213;1.2107;
819.6000;0.8221;1.2107;
819.9000;0.8221;1.2181;
820.2000;0.8230;1.2279;
820.5000;0.8213;1.2206;
820.8000;0.8221;1.2279;
821.1000;0.8230;1.2181;
821.4000;0.8230;1.2156;
821.7000;0.8221;1.2156;
822.0000;0.8230;1.2181;
822.3000;0.8213;1.2156;
822.6000;0.8262;1.2353;
822.9000;0.8230;1.2279;
823.2000;0.8213;1.2353;
823.5000;0.8213;1.2427;
823.8000;0.8221;1.2427;
824.1000;0.8156;1.2279;
824.4000;0.8230;1.2427;
824.7000;0.8213;1.2402;
825.0000;0.8213;1.2402;
825.3000;0.8221;1.2279;
825.6000;0.8213;1.2279;
825.9000;0.8189;1.2181;
826.2000;0.8221;1.2279;
826.5000;0.8221;1.2329;
826.8000;0.8230;1.2329;
827.1000;0.8213;1.2279;
827.4000;0.8230;1.2279;
827.7000;0.8205;1.2279;
828.0000;0.8238;1.2279;
828.3000;0.8164;1.2107;
828.6000;0.8181;1.2058;
828.9000;0.8213;1.2107;
829.2000;0.8205;1.2156;
829.5000;0.8221;1.2181;
829.8000;0.8221;1.2156;
830.1000;0.8205;1.2206;
830.4000;0.8197;1.2132;
830.7000;0.8221;1.2181;
831.0000;0.8221;1.2156;
831.3000;0.8099;1.1886;
831.6000;0.8124;1.1861;
831.9000;0.8303;1.2230;
832.2000;0.8213;1.2132;
832.5000;0.8303;1.2378;
832.8000;0.8213;1.2132;
833.1000;0.8230;1.2181;
833.4000;0.8221;1.2230;
833.7000;0.8213;1.2255;
834.0000;0.8205;1.2230;
834.3000;0.8197;1.2279;
834.6000;0.8189;1.2206;
834.9000;0.8181;1.2181;
835.2000;0.8197;1.2181;
835.5000;0.8205;1.2132;
835.8000;0.8205;1.2279;
836.1000;0.8213;1.2329;
836.4000;0.8254;1.2402;
836.7000;0.8221;1.2255;
837.0000;0.8213;1.2304;
837.3000;0.8221;1.2230;
837.6000;0.8213;1.2255;
837.9000;0.8213;1.2353;
838.2000;0.8173;1.2206;
838.5000;0.8221;1.2230;
838.8000;0.8213;1.2132;
839.1000;0.8197;1.2132;
839.4000;0.8213;1.2206;
839.7000;0.8221;1.2181;
840.0000;0.8213;1.2107;
840.3000;0.8189;1.2082;
840.6000;0.8213;1.2255;
840.9000;0.8213;1.2329;
841.2000;0.8197;1.2329;
841.5000;0.8205;1.2304;
841.8000;0.8197;1.2304;
842.1000;0.8230;1.2402;
842.4000;0.8197;1.2353;
842.7000;0.8213;1.2353;
843.0000;0.8205;1.2230;
843.3000;0.8205;1.2304;
843.6000;0.8213;1.2329;
843.9000;0.8197;1.2230;
844.2000;0.8181;1.2255;
844.5000;0.8197;1.2255;
844.8000;0.8197;1.2230;
845.1000;0.8205;1.2132;
845.4000;0.8197;1.2082;
845.7000;0.8197;1.2082;
846.0000;0.8205;1.2107;
846.3000;0.8246;1.2304;
846.6000;0.8197;1.2156;
846.9000;0.8205;1.2255;
847.2000;0.8197;1.2255;
847.5000;0.8213;1.2279;
847.8000;0.8254;1.2402;
848.1000;0.8189;1.2304;
848.4000;0.8197;1.2304;
848.7000;0.8221;1.2402;
849.0000;0.8213;1.2427;
849.3000;0.8181;1.2353;
849.6000;0.8205;1.2427;
849.9000;0.8189;1.2304;
850.2000;0.8205;1.2230;
850.5000;0.8140;1.2082;
850.8000;0.8197;1.2181;
851.1000;0.8287;1.2476;
851.4000;0.8238;1.2402;
851.7000;0.8164;1.2304;
852.0000;0.8189;1.2279;
852.3000;0.8189;1.2353;
852.6000;0.8221;1.2402;
852.9000;0.8124;1.2206;
853.2000;0.8205;1.2476;
853.5000;0.8124;1.2304;
853.8000;0.8205;1.2452;
854.1000;0.8189;1.2501;
854.4000;0.8295;1.2698;
854.7000;0.8189;1.2353;
855.0000;0.8189;1.2476;
855.3000;0.8173;1.2353;
855.6000;0.8189;1.2378;
855.9000;0.8156;1.2230;
856.2000;0.8197;1.2304;
856.5000;0.8173;1.2206;
856.8000;0.8181;1.2132;
857.1000;0.8197;1.2181;
857.4000;0.8221;1.2132;
857.7000;0.8189;1.2132;
858.0000;0.8197;1.2082;
858.3000;0.8181;1.2156;
858.6000;0.8205;1.2181;
858.9000;0.8205;1.2156;
859.2000;0.8181;1.2132;
859.5000;0.8181;1.2132;
859.8000;0.8181;1.2156;
860.1000;0.8189;1.2181;
860.4000;0.8181;1.2107;
860.7000;0.8156;1.2082;
861.0000;0.8173;1.2082;
861.3000;0.8205;1.2082;
861.6000;0.8197;1.2132;
861.9000;0.8197;1.2107;
862.2000;0.8197;1.2082;
862.5000;0.8197;1.2082;
862.8000;0.8213;1.2107;
863.1000;0.8197;1.2107;
863.4000;0.8116;1.2009;
863.7000;0.8197;1.2279;
864.0000;0.8197;1.2255;
864.3000;0.8189;1.2230;
864.6000;0.8173;1.2156;
864.9000;0.8189;1.2230;
865.2000;0.8181;1.2156;
865.5000;0.8173;1.2181;
865.8000;0.8164;1.2156;
866.1000;0.8140;1.2107;
866.4000;0.8173;1.2107;
866.7000;0.8189;1.2181;
867.0000;0.8173;1.2181;
867.3000;0.8164;1.2181;
867.6000;0.8189;1.2206;
867.9000;0.8140;1.2156;
868.2000;0.8189;1.2304;
868.5000;0.8148;1.2206;
868.8000;0.8181;1.2181;
869.1000;0.8173;1.2156;
869.4000;0.8116;1.2058;
869.7000;0.8164;1.2206;
870.0000;0.8189;1.2255;
870.3000;0.8181;1.2181;
870.6000;0.8189;1.2230;
870.9000;0.8164;1.2156;
871.2000;0.8189;1.2181;
871.5000;0.8173;1.2181;
871.8000;0.8181;1.2181;
872.1000;0.8189;1.2156;
872.4000;0.8173;1.2156;
872.7000;0.8197;1.2255;
873.0000;0.8164;1.2255;
873.3000;0.8189;1.2329;
873.6000;0.8156;1.2206;
873.9000;0.8156;1.2255;
874.2000;0.8164;1.2304;
874.5000;0.8148;1.2329;
874.8000;0.8164;1.2329;
875.1000;0.8164;1.2304;
875.4000;0.8164;1.2329;
875.7000;0.8181;1.2378;
876.0000;0.8164;1.2353;
876.3000;0.8205;1.2476;
876.6000;0.8164;1.2378;
876.9000;0.8140;1.2304;
877.2000;0.8164;1.2378;
877.5000;0.8156;1.2206;
877.8000;0.8181;1.2279;
878.1000;0.8107;1.2156;
878.4000;0.8205;1.2378;
878.7000;0.8181;1.2279;
879.0000;0.8189;1.2353;
879.3000;0.8181;1.2427;
879.6000;0.8156;1.2452;
879.9000;0.8164;1.2452;
880.2000;0.8181;1.2501;
880.5000;0.8173;1.2476;
880.8000;0.8173;1.2501;
881.1000;0.8173;1.2402;
881.4000;0.8181;1.2353;
881.7000;0.8164;1.2304;
882.0000;0.8173;1.2353;
882.3000;0.8181;1.2329;
882.6000;0.8148;1.2378;
882.9000;0.8164;1.2452;
883.2000;0.8189;1.2501;
883.5000;0.8173;1.2452;
883.8000;0.8197;1.2353;
884.1000;0.8156;1.2255;
884.4000;0.8140;1.2181;
884.7000;0.8173;1.2255;
885.0000;0.8164;1.2132;
885.3000;0.8173;1.2156;
885.6000;0.8156;1.2107;
885.9000;0.8189;1.2255;
886.2000;0.8164;1.2156;
886.5000;0.8156;1.2206;
886.8000;0.8164;1.2206;
887.1000;0.8156;1.2206;
887.4000;0.8173;1.2156;
887.7000;0.8156;1.2107;
888.0000;0.8173;1.2132;
888.3000;0.8181;1.2156;
888.6000;0.8181;1.2107;
888.9000;0.8181;1.2058;
889.2000;0.8181;1.2107;
889.5000;0.8181;1.2181;
889.8000;0.8181;1.2255;
890.1000;0.8116;1.2082;
890.4000;0.8173;1.2181;
890.7000;0.8205;1.2279;
891.0000;0.8164;1.2206;
891.3000;0.8221;1.2329;
891.6000;0.8164;1.2156;
891.9000;0.8197;1.2255;
892.2000;0.8148;1.2181;
892.5000;0.8189;1.2378;
892.8000;0.8173;1.2427;
893.1000;0.8116;1.2304;
893.4000;0.8173;1.2427;
893.7000;0.8124;1.2279;
894.0000;0.8067;1.2107;
894.3000;0.8156;1.2402;
894.6000;0.8164;1.2378;
894.9000;0.8230;1.2452;
895.2000;0.8173;1.2329;
895.5000;0.8148;1.2353;
895.8000;0.8140;1.2452;
896.1000;0.8148;1.2402;
896.4000;0.8173;1.2550;
896.7000;0.8164;1.2550;
897.0000;0.8156;1.2501;
897.3000;0.8173;1.2525;
897.6000;0.8156;1.2550;
897.9000;0.8140;1.2476;
898.2000;0.8181;1.2648;
898.5000;0.8156;1.2575;
898.8000;0.8173;1.2624;
899.1000;0.8164;1.2648;
899.4000;0.8164;1.2599;
899.7000;0.8189;1.2648;
900.0000;0.8181;1.2648;
900.3000;0.8173;1.2550;
900.6000;0.8173;1.2624;
900.9000;0.8164;1.2575;
901.2000;0.8107;1.2427;
901.5000;0.8164;1.2501;
901.8000;0.8164;1.2575;
902.1000;0.8156;1.2476;
902.4000;0.8140;1.2501;
902.7000;0.8164;1.2624;
903.0000;0.8156;1.2599;
903.3000;0.8148;1.2599;
903.6000;0.8156;1.2624;
903.9000;0.8140;1.2648;
904.2000;0.8124;1.2550;
904.5000;0.8156;1.2624;
904.8000;0.8156;1.2550;
905.1000;0.8181;1.2599;
905.4000;0.8213;1.2624;
905.7000;0.8156;1.2501;
906.0000;0.8148;1.2501;
906.3000;0.8148;1.2575;
906.6000;0.8164;1.2525;
906.9000;0.8173;1.2624;
907.2000;0.8116;1.2427;
907.5000;0.8164;1.2501;
907.8000;0.8164;1.2501;
908.1000;0.8148;1.2402;
908.4000;0.8132;1.2255;
908.7000;0.8156;1.2329;
909.0000;0.8173;1.2378;
909.3000;0.8173;1.2452;
909.6000;0.8173;1.2402;
909.9000;0.8156;1.2353;
910.2000;0.8148;1.2279;
910.5000;0.8148;1.2255;
910.8000;0.8164;1.2279;
911.1000;0.8156;1.2279;
911.4000;0.8189;1.2329;
911.7000;0.8156;1.2255;
912.0000;0.8164;1.2279;
912.3000;0.8164;1.2304;
912.6000;0.8156;1.2353;
912.9000;0.8148;1.2353;
913.2000;0.8246;1.2575;
913.5000;0.8156;1.2304;
913.8000;0.8156;1.2427;
914.1000;0.8099;1.2304;
914.4000;0.8181;1.2476;
914.7000;0.8148;1.2452;
915.0000;0.8189;1.2575;
915.3000;0.8164;1.2525;
915.6000;0.8173;1.2648;
915.9000;0.8164;1.2673;
916.2000;0.8164;1.2673;
916.5000;0.8156;1.2575;
916.8000;0.8164;1.2550;
917.1000;0.8107;1.2476;
917.4000;0.8148;1.2599;
917.7000;0.8156;1.2599;
918.0000;0.8156;1.2599;
918.3000;0.8140;1.2525;
918.6000;0.8140;1.2501;
918.9000;0.8148;1.2575;
919.2000;0.8148;1.2575;
919.5000;0.8140;1.2550;
919.8000;0.8124;1.2452;
920.1000;0.8148;1.2427;
920.4000;0.8148;1.2402;
920.7000;0.8156;1.2329;
921.0000;0.8132;1.2230;
921.3000;0.8181;1.2304;
921.6000;0.8156;1.2329;
921.9000;0.8156;1.2476;
922.2000;0.8156;1.2501;
922.5000;0.8140;1.2501;
922.8000;0.8148;1.2550;
923.1000;0.8156;1.2575;
923.4000;0.8148;1.2476;
923.7000;0.8140;1.2427;
924.0000;0.8140;1.2452;
924.3000;0.8156;1.2402;
924.6000;0.8148;1.2353;
924.9000;0.8148;1.2353;
925.2000;0.8148;1.2402;
925.5000;0.8156;1.2476;
925.8000;0.8164;1.2452;
926.1000;0.8164;1.2452;
926.4000;0.8156;1.2402;
926.7000;0.8148;1.2378;
927.0000;0.8148;1.2427;
927.3000;0.8132;1.2402;
927.6000;0.8140;1.2329;
927.9000;0.8140;1.2329;
928.2000;0.8148;1.2329;
928.5000;0.8148;1.2353;
928.8000;0.8156;1.2378;
929.1000;0.8148;1.2402;
929.4000;0.8140;1.2427;
929.7000;0.8148;1.2427;
930.0000;0.8148;1.2402;
930.3000;0.8148;1.2402;
930.6000;0.8156;1.2452;
930.9000;0.8140;1.2476;
931.2000;0.8140;1.2353;
931.5000;0.8132;1.2304;
931.8000;0.8148;1.2378;
932.1000;0.8140;1.2353;
932.4000;0.8132;1.2378;
932.7000;0.8124;1.2304;
933.0000;0.8124;1.2353;
933.3000;0.8148;1.2427;
933.6000;0.8148;1.2501;
933.9000;0.8132;1.2550;
934.2000;0.8107;1.2575;
934.5000;0.8148;1.2575;
934.8000;0.8156;1.2575;
935.1000;0.8148;1.2501;
935.4000;0.8148;1.2452;
935.7000;0.8156;1.2402;
936.0000;0.8164;1.2427;
936.3000;0.8189;1.2550;
936.6000;0.8156;1.2476;
936.9000;0.8164;1.2452;
937.2000;0.8099;1.2329;
937.5000;0.8132;1.2427;
937.8000;0.8148;1.2476;
938.1000;0.8181;1.2599;
938.4000;0.8156;1.2599;
938.7000;0.8156;1.2722;
939.0000;0.8156;1.2698;
939.3000;0.8124;1.2501;
939.6000;0.8148;1.2550;
939.9000;0.8132;1.2550;
940.2000;0.8148;1.2476;
940.5000;0.8148;1.2525;
940.8000;0.8140;1.2525;
941.1000;0.8148;1.2550;
941.4000;0.8132;1.2575;
941.7000;0.8132;1.2599;
942.0000;0.8148;1.2575;
942.3000;0.8164;1.2599;
942.6000;0.8148;1.2673;
942.9000;0.8156;1.2624;
943.2000;0.8148;1.2525;
943.5000;0.8148;1.2501;
943.8000;0.8181;1.2550;
944.1000;0.8124;1.2402;
944.4000;0.8132;1.2476;
944.7000;0.8148;1.2550;
945.0000;0.8075;1.2329;
945.3000;0.8230;1.2698;
945.6000;0.8132;1.2452;
945.9000;0.8140;1.2452;
946.2000;0.8148;1.2501;
946.5000;0.8140;1.2525;
946.8000;0.8230;1.2722;
947.1000;0.8132;1.2476;
947.4000;0.8140;1.2402;
947.7000;0.8156;1.2452;
948.0000;0.8148;1.2402;
948.3000;0.8164;1.2427;
948.6000;0.8140;1.2402;
948.9000;0.8140;1.2452;
949.2000;0.8140;1.2452;
949.5000;0.8132;1.2452;
949.8000;0.8140;1.2378;
950.1000;0.8132;1.2427;
950.4000;0.8148;1.2501;
950.7000;0.8124;1.2402;
951.0000;0.8124;1.2427;
951.3000;0.8124;1.2476;
951.6000;0.8124;1.2501;
951.9000;0.8107;1.2501;
952.2000;0.8140;1.2624;
952.5000;0.8140;1.2599;
952.8000;0.8107;1.2525;
953.1000;0.8148;1.2648;
953.4000;0.8099;1.2550;
953.7000;0.8148;1.2550;
954.0000;0.8148;1.2624;
954.3000;0.8132;1.2525;
954.6000;0.8132;1.2476;
954.9000;0.8148;1.2575;
955.2000;0.8148;1.2648;
955.5000;0.8140;1.2698;
955.8000;0.8132;1.2648;
956.1000;0.8116;1.2550;
956.4000;0.8124;1.2501;
956.7000;0.8083;1.2329;
957.0000;0.8132;1.2525;
957.3000;0.8124;1.2550;
957.6000;0.8132;1.2575;
957.9000;0.8124;1.2648;
958.2000;0.8124;1.2698;
958.5000;0.8124;1.2698;
958.8000;0.8124;1.2599;
959.1000;0.8148;1.2722;
959.4000;0.8124;1.2624;
959.7000;0.8140;1.2550;
960.0000;0.8148;1.2550;
960.3000;0.8140;1.2550;
960.6000;0.8132;1.2476;
960.9000;0.8148;1.2575;
961.2000;0.8140;1.2698;
961.5000;0.8140;1.2698;
961.8000;0.8148;1.2747;
962.1000;0.8132;1.2673;
962.4000;0.8067;1.2452;
962.7000;0.8140;1.2648;
963.0000;0.8116;1.2648;
963.3000;0.8132;1.2796;
963.6000;0.8132;1.2747;
963.9000;0.8213;1.2919;
964.2000;0.8132;1.2722;
964.5000;0.8099;1.2501;
964.8000;0.8107;1.2550;
965.1000;0.8132;1.2599;
965.4000;0.8124;1.2624;
965.7000;0.8164;1.2624;
966.0000;0.8132;1.2550;
966.3000;0.8124;1.2550;
966.6000;0.8132;1.2550;
966.9000;0.8189;1.2722;
967.2000;0.8116;1.2501;
967.5000;0.8116;1.2525;
967.8000;0.8238;1.2796;
968.1000;0.8124;1.2550;
968.4000;0.8132;1.2624;
968.7000;0.8132;1.2501;
969.0000;0.8213;1.2698;
969.3000;0.8075;1.2329;
969.6000;0.8140;1.2427;
969.9000;0.8148;1.2501;
970.2000;0.8099;1.2501;
970.5000;0.8124;1.2501;
970.8000;0.8124;1.2402;
971.1000;0.8099;1.2304;
971.4000;0.8132;1.2329;
971.7000;0.8140;1.2427;
972.0000;0.8148;1.2476;
972.3000;0.8075;1.2353;
972.6000;0.8124;1.2427;
972.9000;0.8107;1.2402;
973.2000;0.8132;1.2427;
973.5000;0.8140;1.2378;
973.8000;0.8164;1.2452;
974.1000;0.8124;1.2353;
974.4000;0.8140;1.2402;
974.7000;0.8156;1.2525;
975.0000;0.8156;1.2501;
975.3000;0.8124;1.2402;
975.6000;0.8116;1.2402;
975.9000;0.8124;1.2452;
976.2000;0.8124;1.2452;
976.5000;0.8132;1.2402;
976.8000;0.8132;1.2525;
977.1000;0.8132;1.2550;
977.4000;0.8156;1.2599;
977.7000;0.8083;1.2402;
978.0000;0.8132;1.2452;
978.3000;0.8124;1.2427;
978.6000;0.8116;1.2378;
978.9000;0.8124;1.2452;
979.2000;0.8116;1.2427;
979.5000;0.8042;1.2304;
979.8000;0.8148;1.2599;
980.1000;0.8124;1.2452;
980.4000;0.8124;1.2452;
980.7000;0.8124;1.2402;
981.0000;0.8164;1.2525;
981.3000;0.8132;1.2427;
981.6000;0.8132;1.2329;
981.9000;0.8124;1.2402;
982.2000;0.8140;1.2452;
982.5000;0.8140;1.2476;
982.8000;0.8132;1.2452;
983.1000;0.8156;1.2550;
983.4000;0.8140;1.2476;
983.7000;0.8132;1.2452;
984.0000;0.8156;1.2427;
984.3000;0.8116;1.2304;
984.6000;0.8132;1.2353;
984.9000;0.8156;1.2525;
985.2000;0.8124;1.2476;
985.5000;0.8099;1.2427;
985.8000;0.8140;1.2525;
986.1000;0.8124;1.2599;
986.4000;0.8148;1.2673;
986.7000;0.8124;1.2599;
987.0000;0.8132;1.2525;
987.3000;0.8091;1.2402;
987.6000;0.8116;1.2452;
987.9000;0.8124;1.2402;
988.2000;0.8116;1.2353;
988.5000;0.8156;1.2476;
988.8000;0.8156;1.2550;
989.1000;0.8140;1.2550;
989.4000;0.8140;1.2599;
989.7000;0.8124;1.2648;
990.0000;0.8156;1.2698;
990.3000;0.8156;1.2624;
990.6000;0.8124;1.2476;
990.9000;0.8067;1.2402;
991.2000;0.8221;1.2722;
991.5000;0.8132;1.2550;
991.8000;0.8124;1.2550;
992.1000;0.8132;1.2525;
992.4000;0.8116;1.2599;
992.7000;0.8116;1.2550;
993.0000;0.8132;1.2501;
993.3000;0.8173;1.2550;
993.6000;0.8132;1.2378;
993.9000;0.8107;1.2353;
994.2000;0.8140;1.2427;
994.5000;0.8132;1.2378;
994.8000;0.8132;1.2353;
995.1000;0.8116;1.2353;
995.4000;0.8148;1.2427;
995.7000;0.8140;1.2353;
996.0000;0.8132;1.2378;
996.3000;0.8099;1.2304;
996.6000;0.8124;1.2304;
996.9000;0.8124;1.2304;
997.2000;0.8091;1.2255;
997.5000;0.8132;1.2378;
997.8000;0.8132;1.2402;
998.1000;0.8116;1.2378;
998.4000;0.8140;1.2378;
998.7000;0.8124;1.2427;
999.0000;0.8140;1.2476;
999.3000;0.8124;1.2452;
999.6000;0.8124;1.2501;
999.9000;0.8132;1.2550;
1000.2000;0.8124;1.2525;
1000.5000;0.8132;1.2575;
1000.8000;0.8140;1.2624;
1001.1000;0.8124;1.2624;
1001.4000;0.8059;1.2525;
1001.7000;0.8124;1.2673;
1002.0000;0.8132;1.2698;
1002.3000;0.8116;1.2698;
1002.6000;0.8197;1.2895;
1002.9000;0.8140;1.2673;
1003.2000;0.8116;1.2550;
1003.5000;0.8132;1.2575;
1003.8000;0.8116;1.2550;
1004.1000;0.8099;1.2427;
1004.4000;0.8132;1.2501;
1004.7000;0.8124;1.2476;
1005.0000;0.8164;1.2599;
1005.3000;0.8107;1.2452;
1005.6000;0.8132;1.2427;
1005.9000;0.8132;1.2476;
1006.2000;0.8181;1.2575;
1006.5000;0.8132;1.2452;
1006.8000;0.8148;1.2501;
1007.1000;0.8148;1.2525;
1007.4000;0.8173;1.2599;
1007.7000;0.8124;1.2501;
1008.0000;0.8132;1.2624;
1008.3000;0.8132;1.2599;
1008.6000;0.8124;1.2501;
1008.9000;0.8132;1.2501;
1009.2000;0.8075;1.2402;
1009.5000;0.8091;1.2525;
1009.8000;0.8099;1.2525;
1010.1000;0.8116;1.2501;
1010.4000;0.8116;1.2501;
1010.7000;0.8132;1.2575;
1011.0000;0.8107;1.2476;
1011.3000;0.8116;1.2525;
1011.6000;0.8132;1.2550;
1011.9000;0.8124;1.2624;
1012.2000;0.8107;1.2624;
1012.5000;0.8116;1.2722;
1012.8000;0.8107;1.2648;
1013.1000;0.8099;1.2698;
1013.4000;0.8132;1.2722;
1013.7000;0.8107;1.2599;
1014.0000;0.8116;1.2525;
1014.3000;0.8140;1.2550;
1014.6000;0.8124;1.2378;
1014.9000;0.8116;1.2452;
1015.2000;0.8091;1.2427;
1015.5000;0.8116;1.2501;
1015.8000;0.8107;1.2525;
1016.1000;0.8140;1.2575;
1016.4000;0.8107;1.2525;
1016.7000;0.8140;1.2648;
1017.0000;0.8132;1.2575;
1017.3000;0.8083;1.2452;
1017.6000;0.8107;1.2476;
1017.9000;0.8132;1.2501;
1018.2000;0.8140;1.2427;
1018.5000;0.8107;1.2279;
1018.8000;0.8132;1.2279;
1019.1000;0.8132;1.2329;
1019.4000;0.8132;1.2329;
1019.7000;0.8140;1.2329;
1020.0000;0.8124;1.2279;
1020.3000;0.8091;1.2230;
1020.6000;0.8140;1.2353;
1020.9000;0.8132;1.2304;
1021.2000;0.8124;1.2329;
1021.5000;0.8132;1.2255;
1021.8000;0.8124;1.2304;
1022.1000;0.8107;1.2329;
1022.4000;0.8116;1.2353;
1022.7000;0.8107;1.2402;
1023.0000;0.8124;1.2402;
1023.3000;0.8132;1.2402;
1023.6000;0.8148;1.2501;
1023.9000;0.8116;1.2427;
1024.2000;0.8124;1.2501;
1024.5000;0.8124;1.2476;
1024.8000;0.8116;1.2402;
1025.1000;0.8116;1.2378;
1025.4000;0.8099;1.2353;
1025.7000;0.8173;1.2550;
1026.0000;0.8132;1.2476;
1026.3000;0.8075;1.2353;
1026.6000;0.8107;1.2427;
1026.9000;0.8124;1.2525;
1027.2000;0.8132;1.2501;
1027.5000;0.8124;1.2353;
1027.8000;0.8124;1.2279;
1028.1000;0.8116;1.2329;
1028.4000;0.8010;1.2082;
1028.7000;0.8034;1.2181;
1029.0000;0.8116;1.2525;
1029.3000;0.8107;1.2575;
1029.6000;0.8124;1.2673;
1029.9000;0.7993;1.2304;
1030.2000;0.8116;1.2452;
1030.5000;0.8107;1.2329;
1030.8000;0.8107;1.2279;
1031.1000;0.8124;1.2181;
1031.4000;0.8116;1.2132;
1031.7000;0.8107;1.2156;
1032.0000;0.8132;1.2304;
1032.3000;0.8124;1.2230;
1032.6000;0.8116;1.2279;
1032.9000;0.8124;1.2255;
1033.2000;0.8124;1.2329;
1033.5000;0.8107;1.2378;
1033.8000;0.8140;1.2402;
1034.1000;0.8099;1.2378;
1034.4000;0.8132;1.2476;
1034.7000;0.8124;1.2402;
1035.0000;0.8091;1.2378;
1035.3000;0.8116;1.2476;
1035.6000;0.8116;1.2452;
1035.9000;0.8124;1.2525;
1036.2000;0.8107;1.2501;
1036.5000;0.8099;1.2378;
1036.8000;0.8124;1.2353;
1037.1000;0.8132;1.2353;
1037.4000;0.8124;1.2353;
1037.7000;0.8116;1.2353;
1038.0000;0.8116;1.2304;
1038.3000;0.8124;1.2378;
1038.6000;0.8107;1.2427;
1038.9000;0.8124;1.2452;
1039.2000;0.8116;1.2476;
1039.5000;0.8116;1.2353;
1039.8000;0.8116;1.2427;
1040.1000;0.8124;1.2452;
1040.4000;0.8140;1.2427;
1040.7000;0.8116;1.2353;
1041.0000;0.8132;1.2402;
1041.3000;0.8124;1.2427;
1041.6000;0.8116;1.2476;
1041.9000;0.8107;1.2452;
1042.2000;0.8075;1.2427;
1042.5000;0.8091;1.2575;
1042.8000;0.8140;1.2673;
1043.1000;0.8116;1.2624;
1043.4000;0.8099;1.2525;
1043.7000;0.8124;1.2550;
1044.0000;0.8132;1.2427;
1044.3000;0.8124;1.2452;
1044.6000;0.8107;1.2452;
1044.9000;0.8140;1.2525;
1045.2000;0.8132;1.2575;
1045.5000;0.8116;1.2525;
1045.8000;0.8107;1.2476;
1046.1000;0.8107;1.2501;
1046.4000;0.8132;1.2599;
1046.7000;0.8107;1.2525;
1047.0000;0.8116;1.2525;
1047.3000;0.8083;1.2427;
1047.6000;0.8107;1.2476;
1047.9000;0.8124;1.2575;
1048.2000;0.8099;1.2550;
1048.5000;0.8107;1.2575;
1048.8000;0.8124;1.2624;
1049.1000;0.8132;1.2599;
1049.4000;0.8124;1.2575;
1049.7000;0.8099;1.2599;
1050.0000;0.8116;1.2698;
1050.3000;0.8132;1.2796;
1050.6000;0.8148;1.2821;
1050.9000;0.8091;1.2648;
1051.2000;0.8107;1.2624;
1051.5000;0.8107;1.2624;
1051.8000;0.8116;1.2648;
1052.1000;0.8099;1.2673;
1052.4000;0.8091;1.2698;
1052.7000;0.8099;1.2771;
1053.0000;0.8132;1.2821;
1053.3000;0.8107;1.2771;
1053.6000;0.8164;1.2845;
1053.9000;0.8116;1.2673;
1054.2000;0.8132;1.2722;
1054.5000;0.8107;1.2821;
1054.8000;0.8107;1.2845;
1055.1000;0.8107;1.2796;
1055.4000;0.8116;1.2821;
1055.7000;0.8140;1.2845;
1056.0000;0.8124;1.2796;
1056.3000;0.8099;1.2771;
1056.6000;0.8116;1.2771;
1056.9000;0.8116;1.2722;
1057.2000;0.8099;1.2599;
1057.5000;0.8116;1.2476;
1057.8000;0.8181;1.2673;
1058.1000;0.8107;1.2525;
1058.4000;0.8107;1.2501;
1058.7000;0.8107;1.2501;
1059.0000;0.8116;1.2550;
1059.3000;0.8132;1.2599;
1059.6000;0.8107;1.2525;
1059.9000;0.8181;1.2698;
1060.2000;0.8116;1.2501;
1060.5000;0.8075;1.2452;
1060.8000;0.8116;1.2550;
1061.1000;0.8116;1.2550;
1061.4000;0.8107;1.2402;
1061.7000;0.8132;1.2501;
1062.0000;0.8116;1.2525;
1062.3000;0.8116;1.2378;
1062.6000;0.8107;1.2427;
1062.9000;0.8091;1.2378;
1063.2000;0.8050;1.2304;
1063.5000;0.8140;1.2525;
1063.8000;0.8124;1.2452;
1064.1000;0.8107;1.2452;
1064.4000;0.8124;1.2476;
1064.7000;0.8116;1.2402;
1065.0000;0.8107;1.2402;
1065.3000;0.8075;1.2353;
1065.6000;0.8124;1.2427;
1065.9000;0.8124;1.2501;
1066.2000;0.8156;1.2599;
1066.5000;0.8107;1.2378;
1066.8000;0.8099;1.2427;
1067.1000;0.8107;1.2378;
1067.4000;0.8099;1.2378;
1067.7000;0.8107;1.2476;
1068.0000;0.8116;1.2525;
1068.3000;0.8075;1.2427;
1068.6000;0.8107;1.2501;
1068.9000;0.8148;1.2648;
1069.2000;0.8083;1.2501;
1069.5000;0.8164;1.2673;
1069.8000;0.8124;1.2599;
1070.1000;0.8116;1.2550;
1070.4000;0.8107;1.2476;
1070.7000;0.8107;1.2575;
1071.0000;0.8091;1.2476;
1071.3000;0.8075;1.2427;
1071.6000;0.8107;1.2575;
1071.9000;0.8116;1.2599;
1072.2000;0.8124;1.2550;
1072.5000;0.8067;1.2427;
1072.8000;0.8107;1.2476;
1073.1000;0.8099;1.2452;
1073.4000;0.8099;1.2501;
1073.7000;0.8132;1.2599;
1074.0000;0.8107;1.2575;
1074.3000;0.8107;1.2550;
1074.6000;0.8107;1.2599;
1074.9000;0.8099;1.2599;
1075.2000;0.8099;1.2575;
1075.5000;0.8124;1.2624;
1075.8000;0.8124;1.2599;
1076.1000;0.8018;1.2329;
1076.4000;0.8164;1.2673;
1076.7000;0.8099;1.2550;
1077.0000;0.8075;1.2476;
1077.3000;0.8132;1.2698;
1077.6000;0.8107;1.2624;
1077.9000;0.8050;1.2525;
1078.2000;0.8059;1.2599;
1078.5000;0.8075;1.2624;
1078.8000;0.8107;1.2673;
1079.1000;0.8140;1.2771;
1079.4000;0.8205;1.2993;
1079.7000;0.8026;1.2452;
1080.0000;0.8116;1.2648;
1080.3000;0.8099;1.2575;
1080.6000;0.8091;1.2550;
1080.9000;0.8099;1.2525;
1081.2000;0.8116;1.2599;
1081.5000;0.8107;1.2648;
1081.8000;0.8059;1.2550;
1082.1000;0.8107;1.2599;
1082.4000;0.8099;1.2599;
1082.7000;0.8099;1.2550;
1083.0000;0.8083;1.2550;
1083.3000;0.8107;1.2673;
1083.6000;0.8107;1.2648;
1083.9000;0.8059;1.2599;
1084.2000;0.8107;1.2821;
1084.5000;0.8099;1.2821;
1084.8000;0.8099;1.2747;
1085.1000;0.8099;1.2698;
1085.4000;0.8116;1.2673;
1085.7000;0.8083;1.2698;
1086.0000;0.8181;1.2895;
1086.3000;0.8083;1.2624;
1086.6000;0.8116;1.2624;
1086.9000;0.8067;1.2427;
1087.2000;0.8099;1.2452;
1087.5000;0.8116;1.2501;
1087.8000;0.8116;1.2550;
1088.1000;0.8099;1.2575;
1088.4000;0.8116;1.2673;
1088.7000;0.8132;1.2648;
1089.0000;0.8124;1.2624;
1089.3000;0.8083;1.2599;
1089.6000;0.8116;1.2722;
1089.9000;0.8116;1.2771;
1090.2000;0.8107;1.2722;
1090.5000;0.8107;1.2575;
1090.8000;0.8116;1.2624;
1091.1000;0.8116;1.2722;
1091.4000;0.8116;1.2845;
1091.7000;0.8107;1.2845;
1092.0000;0.8116;1.2796;
1092.3000;0.8116;1.2771;
1092.6000;0.8132;1.2747;
1092.9000;0.8091;1.2648;
1093.2000;0.8091;1.2575;
1093.5000;0.8156;1.2771;
1093.8000;0.8124;1.2722;
1094.1000;0.8091;1.2698;
1094.4000;0.8124;1.2722;
1094.7000;0.8107;1.2796;
1095.0000;0.8099;1.2796;
1095.3000;0.8116;1.2673;
1095.6000;0.8116;1.2698;
1095.9000;0.8099;1.2648;
1096.2000;0.8107;1.2747;
1096.5000;0.8099;1.2747;
1096.8000;0.8132;1.2722;
1097.1000;0.8116;1.2673;
1097.4000;0.8107;1.2648;
1097.7000;0.8116;1.2673;
1098.0000;0.8099;1.2575;
1098.3000;0.8107;1.2624;
1098.6000;0.8099;1.2673;
1098.9000;0.8099;1.2673;
1099.2000;0.8099;1.2624;
1099.5000;0.8075;1.2525;
1099.8000;0.8091;1.2550;
1100.1000;0.8091;1.2550;
1100.4000;0.8091;1.2624;
1100.7000;0.8099;1.2648;
1101.0000;0.8042;1.2427;
1101.3000;0.8075;1.2501;
1101.6000;0.8116;1.2476;
1101.9000;0.8099;1.2402;
1102.2000;0.8091;1.2427;
1102.5000;0.8099;1.2525;
1102.8000;0.8107;1.2550;
1103.1000;0.8091;1.2427;
1103.4000;0.8026;1.2181;
1103.7000;0.8067;1.2279;
1104.0000;0.8099;1.2402;
1104.3000;0.8067;1.2279;
1104.6000;0.8099;1.2304;
1104.9000;0.8067;1.2378;
1105.2000;0.8083;1.2427;
1105.5000;0.8107;1.2525;
1105.8000;0.8099;1.2550;
1106.1000;0.8116;1.2575;
1106.4000;0.8107;1.2624;
1106.7000;0.8107;1.2599;
1107.0000;0.8132;1.2648;
1107.3000;0.8107;1.2648;
1107.6000;0.8107;1.2722;
1107.9000;0.8099;1.2673;
1108.2000;0.8132;1.2673;
1108.5000;0.8107;1.2575;
1108.8000;0.8059;1.2452;
1109.1000;0.8083;1.2550;
1109.4000;0.8107;1.2599;
1109.7000;0.8091;1.2648;
1110.0000;0.8116;1.2771;
1110.3000;0.8099;1.2747;
1110.6000;0.8116;1.2771;
1110.9000;0.8107;1.2747;
1111.2000;0.8091;1.2673;
1111.5000;0.8107;1.2624;
1111.8000;0.8099;1.2648;
1112.1000;0.8107;1.2624;
1112.4000;0.8083;1.2624;
1112.7000;0.8107;1.2698;
1113.0000;0.8116;1.2722;
1113.3000;0.8107;1.2673;
1113.6000;0.8124;1.2698;
1113.9000;0.8107;1.2722;
1114.2000;0.8124;1.2796;
1114.5000;0.8091;1.2698;
1114.8000;0.8099;1.2747;
1115.1000;0.8099;1.2648;
1115.4000;0.8107;1.2722;
1115.7000;0.8116;1.2673;
1116.0000;0.8107;1.2599;
1116.3000;0.8091;1.2648;
1116.6000;0.8091;1.2722;
1116.9000;0.8132;1.2821;
1117.2000;0.8107;1.2821;
1117.5000;0.8107;1.2870;
1117.8000;0.8099;1.2821;
1118.1000;0.8091;1.2821;
1118.4000;0.8107;1.2870;
1118.7000;0.8116;1.2796;
1119.0000;0.8116;1.2796;
1119.3000;0.8181;1.2993;
1119.6000;0.8107;1.2821;
1119.9000;0.8148;1.2821;
1120.2000;0.8091;1.2648;
1120.5000;0.8091;1.2624;
1120.8000;0.8107;1.2624;
1121.1000;0.8107;1.2575;
1121.4000;0.8107;1.2525;
1121.7000;0.8116;1.2673;
1122.0000;0.8107;1.2771;
1122.3000;0.8091;1.2673;
1122.6000;0.8091;1.2722;
1122.9000;0.8107;1.2845;
1123.2000;0.8067;1.2870;
1123.5000;0.8091;1.2796;
1123.8000;0.8091;1.2747;
1124.1000;0.8107;1.2747;
1124.4000;0.8107;1.2747;
1124.7000;0.8091;1.2722;
1125.0000;0.8083;1.2673;
1125.3000;0.8075;1.2698;
1125.6000;0.8083;1.2698;
1125.9000;0.8091;1.2722;
1126.2000;0.8132;1.2722;
1126.5000;0.8075;1.2550;
1126.8000;0.8099;1.2575;
1127.1000;0.8075;1.2525;
1127.4000;0.8107;1.2648;
1127.7000;0.8091;1.2624;
1128.0000;0.8099;1.2698;
1128.3000;0.8091;1.2698;
1128.6000;0.8091;1.2722;
1128.9000;0.8099;1.2722;
1129.2000;0.8107;1.2722;
1129.5000;0.8083;1.2624;
1129.8000;0.8099;1.2673;
1130.1000;0.8099;1.2599;
1130.4000;0.8091;1.2599;
1130.7000;0.8091;1.2575;
1131.0000;0.8116;1.2698;
1131.3000;0.8107;1.2698;
1131.6000;0.8099;1.2747;
1131.9000;0.8099;1.2722;
1132.2000;0.8107;1.2747;
1132.5000;0.8107;1.2771;
1132.8000;0.8116;1.2771;
1133.1000;0.8124;1.2796;
1133.4000;0.8099;1.2821;
1133.7000;0.8116;1.2870;
1134.0000;0.8116;1.2821;
1134.3000;0.8083;1.2845;
1134.6000;0.8107;1.2845;
1134.9000;0.8083;1.2747;
1135.2000;0.8099;1.2747;
1135.5000;0.8091;1.2722;
1135.8000;0.8099;1.2771;
1136.1000;0.8059;1.2722;
1136.4000;0.8107;1.2796;
1136.7000;0.8091;1.2698;
1137.0000;0.8099;1.2771;
1137.3000;0.8091;1.2796;
1137.6000;0.8099;1.2771;
1137.9000;0.8107;1.2722;
1138.2000;0.8124;1.2796;
1138.5000;0.8099;1.2648;
1138.8000;0.8099;1.2722;
1139.1000;0.8107;1.2771;
1139.4000;0.8107;1.2771;
1139.7000;0.8107;1.2673;
1140.0000;0.8107;1.2673;
1140.3000;0.8148;1.2845;
1140.6000;0.8116;1.2771;
1140.9000;0.8107;1.2747;
1141.2000;0.8132;1.2796;
1141.5000;0.8091;1.2722;
1141.8000;0.8099;1.2722;
1142.1000;0.8116;1.2771;
1142.4000;0.8075;1.2747;
1142.7000;0.8099;1.2845;
1143.0000;0.8124;1.2919;
1143.3000;0.8164;1.3042;
1143.6000;0.8116;1.2968;
1143.9000;0.8116;1.2919;
1144.2000;0.8091;1.2821;
1144.5000;0.8140;1.2944;
1144.8000;0.8091;1.2821;
1145.1000;0.8124;1.2821;
1145.4000;0.8067;1.2722;
1145.7000;0.8075;1.2698;
1146.0000;0.8116;1.2845;
1146.3000;0.8091;1.2845;
1146.6000;0.8091;1.2919;
1146.9000;0.8042;1.2845;
1147.2000;0.8091;1.2944;
1147.5000;0.8091;1.2993;
1147.8000;0.8099;1.3018;
1148.1000;0.8099;1.3042;
1148.4000;0.8099;1.3165;
1148.7000;0.8091;1.3165;
1149.0000;0.8067;1.2993;
1149.3000;0.8099;1.2944;
1149.6000;0.8091;1.2796;
1149.9000;0.8099;1.2796;
1150.2000;0.8083;1.2821;
1150.5000;0.8107;1.2771;
1150.8000;0.8091;1.2722;
1151.1000;0.8091;1.2698;
1151.4000;0.8083;1.2722;
1151.7000;0.8124;1.2771;
1152.0000;0.8213;1.2944;
1152.3000;0.8099;1.2673;
1152.6000;0.8010;1.2427;
1152.9000;0.8091;1.2624;
1153.2000;0.8107;1.2722;
1153.5000;0.8116;1.2821;
1153.8000;0.8099;1.2698;
1154.1000;0.8075;1.2575;
1154.4000;0.8099;1.2624;
1154.7000;0.8099;1.2722;
1155.0000;0.8083;1.2771;
1155.3000;0.8083;1.2796;
1155.6000;0.8099;1.2771;
1155.9000;0.8107;1.2870;
1156.2000;0.8075;1.2771;
1156.5000;0.8099;1.2771;
1156.8000;0.8107;1.2722;
1157.1000;0.8091;1.2698;
1157.4000;0.8099;1.2624;
1157.7000;0.8091;1.2722;
1158.0000;0.8091;1.2796;
1158.3000;0.8083;1.2845;
1158.6000;0.8099;1.2870;
1158.9000;0.8075;1.2870;
1159.2000;0.8075;1.2845;
1159.5000;0.8107;1.2895;
1159.8000;0.8083;1.2722;
1160.1000;0.8067;1.2673;
1160.4000;0.8107;1.2747;
1160.7000;0.8091;1.2796;
1161.0000;0.8099;1.2771;
1161.3000;0.8099;1.2722;
1161.6000;0.8107;1.2747;
1161.9000;0.8107;1.2747;
1162.2000;0.8124;1.2796;
1162.5000;0.8075;1.2722;
1162.8000;0.8091;1.2673;
1163.1000;0.8083;1.2771;
1163.4000;0.8059;1.2747;
1163.7000;0.8091;1.2821;
1164.0000;0.8091;1.2845;
1164.3000;0.8107;1.2895;
1164.6000;0.8132;1.3018;
1164.9000;0.8107;1.2944;
1165.2000;0.8091;1.2968;
1165.5000;0.8107;1.3018;
1165.8000;0.8099;1.2993;
1166.1000;0.8124;1.3042;
1166.4000;0.8026;1.2722;
1166.7000;0.8075;1.2771;
1167.0000;0.8107;1.2845;
1167.3000;0.8091;1.2796;
1167.6000;0.8083;1.2747;
1167.9000;0.8116;1.2821;
1168.2000;0.8107;1.2870;
1168.5000;0.8099;1.2895;
1168.8000;0.8099;1.2919;
1169.1000;0.8099;1.2870;
1169.4000;0.8099;1.2870;
1169.7000;0.8116;1.2870;
1170.0000;0.8107;1.2895;
1170.3000;0.8091;1.2747;
1170.6000;0.8083;1.2747;
1170.9000;0.8099;1.2771;
1171.2000;0.8083;1.2673;
1171.5000;0.8083;1.2673;
1171.8000;0.8091;1.2771;
1172.1000;0.8083;1.2821;
1172.4000;0.8099;1.2747;
1172.7000;0.8091;1.2673;
1173.0000;0.8091;1.2673;
1173.3000;0.8116;1.2722;
1173.6000;0.8083;1.2747;
1173.9000;0.8107;1.2747;
1174.2000;0.8091;1.2722;
1174.5000;0.8075;1.2673;
1174.8000;0.8107;1.2673;
1175.1000;0.8107;1.2575;
1175.4000;0.8107;1.2624;
1175.7000;0.8107;1.2673;
1176.0000;0.8075;1.2550;
1176.3000;0.8091;1.2624;
1176.6000;0.8091;1.2698;
1176.9000;0.8083;1.2599;
1177.2000;0.8107;1.2673;
1177.5000;0.8107;1.2624;
1177.8000;0.8067;1.2525;
1178.1000;0.8050;1.2525;
1178.4000;0.8091;1.2599;
1178.7000;0.8083;1.2575;
1179.0000;0.8075;1.2525;
1179.3000;0.8083;1.2648;
1179.6000;0.8107;1.2698;
1179.9000;0.8091;1.2599;
1180.2000;0.8116;1.2673;
1180.5000;0.8091;1.2624;
1180.8000;0.8091;1.2575;
1181.1000;0.8034;1.2452;
1181.4000;0.8083;1.2673;
1181.7000;0.8107;1.2624;
1182.0000;0.8091;1.2599;
1182.3000;0.8099;1.2575;
1182.6000;0.8083;1.2550;
1182.9000;0.8099;1.2550;
1183.2000;0.8091;1.2525;
1183.5000;0.8083;1.2476;
1183.8000;0.8091;1.2476;
1184.1000;0.8075;1.2452;
1184.4000;0.8059;1.2378;
1184.7000;0.8075;1.2525;
1185.0000;0.8099;1.2624;
1185.3000;0.8083;1.2599;
1185.6000;0.8083;1.2747;
1185.9000;0.8099;1.2796;
1186.2000;0.8091;1.2771;
1186.5000;0.8107;1.2698;
1186.8000;0.8067;1.2698;
1187.1000;0.8091;1.2747;
1187.4000;0.8107;1.2771;
1187.7000;0.8116;1.2771;
1188.0000;0.8083;1.2747;
1188.3000;0.8067;1.2648;
1188.6000;0.8083;1.2648;
1188.9000;0.8083;1.2698;
1189.2000;0.8083;1.2698;
1189.5000;0.8034;1.2575;
1189.8000;0.8083;1.2673;
1190.1000;0.8067;1.2575;
1190.4000;0.8091;1.2648;
1190.7000;0.8091;1.2624;
1191.0000;0.8107;1.2599;
1191.3000;0.8083;1.2525;
1191.6000;0.8107;1.2673;
1191.9000;0.8091;1.2673;
1192.2000;0.8083;1.2673;
1192.5000;0.8083;1.2599;
1192.8000;0.8091;1.2599;
1193.1000;0.8091;1.2550;
1193.4000;0.8083;1.2599;
1193.7000;0.8099;1.2624;
1194.0000;0.8099;1.2698;
1194.3000;0.8099;1.2698;
1194.6000;0.8083;1.2648;
1194.9000;0.8091;1.2722;
1195.2000;0.8083;1.2747;
1195.5000;0.8034;1.2599;
1195.8000;0.8075;1.2673;
1196.1000;0.8083;1.2698;
1196.4000;0.8099;1.2673;
1196.7000;0.8091;1.2722;
1197.0000;0.8059;1.2648;
1197.3000;0.7993;1.2501;
1197.6000;0.8083;1.2599;
1197.9000;0.8075;1.2599;
1198.2000;0.8099;1.2722;
1198.5000;0.8091;1.2698;
1198.8000;0.8075;1.2575;
1199.1000;0.8083;1.2624;
1199.4000;0.8083;1.2673;
1199.7000;0.8083;1.2698;
1200.0000;0.8002;1.2427;
1200.3000;0.8083;1.2624;
1200.6000;0.8083;1.2599;
1200.9000;0.8107;1.2698;
1201.2000;0.8099;1.2599;
1201.5000;0.8091;1.2624;
1201.8000;0.8107;1.2648;
1202.1000;0.8075;1.2501;
1202.4000;0.8083;1.2476;
1202.7000;0.8091;1.2452;
1203.0000;0.8034;1.2452;
1203.3000;0.8083;1.2599;
1203.6000;0.8083;1.2501;
1203.9000;0.8067;1.2550;
1204.2000;0.8083;1.2673;
1204.5000;0.8067;1.2648;
1204.8000;0.8075;1.2599;
1205.1000;0.8083;1.2575;
1205.4000;0.8091;1.2648;
1205.7000;0.8099;1.2673;
1206.0000;0.8091;1.2673;
1206.3000;0.8091;1.2747;
1206.6000;0.8107;1.2870;
1206.9000;0.8099;1.2845;
1207.2000;0.8075;1.2796;
1207.5000;0.8075;1.2747;
1207.8000;0.8075;1.2673;
1208.1000;0.8075;1.2648;
1208.4000;0.8107;1.2698;
1208.7000;0.8099;1.2698;
1209.0000;0.8083;1.2624;
1209.3000;0.8091;1.2624;
1209.6000;0.8099;1.2648;
1209.9000;0.8075;1.2599;
1210.2000;0.8091;1.2673;
1210.5000;0.8140;1.2870;
1210.8000;0.8091;1.2796;
1211.1000;0.8099;1.2870;
1211.4000;0.8099;1.2895;
1211.7000;0.8075;1.2821;
1212.0000;0.8075;1.2796;
1212.3000;0.8083;1.2698;
1212.6000;0.8083;1.2575;
1212.9000;0.8059;1.2599;
1213.2000;0.8042;1.2550;
1213.5000;0.8083;1.2550;
1213.8000;0.8107;1.2575;
1214.1000;0.8091;1.2575;
1214.4000;0.8091;1.2550;
1214.7000;0.8050;1.2452;
1215.0000;0.8091;1.2550;
1215.3000;0.8050;1.2599;
1215.6000;0.8091;1.2624;
1215.9000;0.8091;1.2624;
1216.2000;0.8083;1.2698;
1216.5000;0.8067;1.2673;
1216.8000;0.8083;1.2698;
1217.1000;0.8099;1.2698;
1217.4000;0.8083;1.2624;
1217.7000;0.8091;1.2599;
1218.0000;0.8018;1.2452;
1218.3000;0.8059;1.2525;
1218.6000;0.8124;1.2599;
1218.9000;0.8083;1.2476;
1219.2000;0.8107;1.2501;
1219.5000;0.8148;1.2550;
1219.8000;0.8107;1.2402;
1220.1000;0.8107;1.2427;
1220.4000;0.8107;1.2452;
1220.7000;0.8099;1.2476;
1221.0000;0.8091;1.2525;
1221.3000;0.8026;1.2501;
1221.6000;0.8107;1.2648;
1221.9000;0.8075;1.2599;
1222.2000;0.8075;1.2648;
1222.5000;0.8107;1.2722;
1222.8000;0.8099;1.2648;
1223.1000;0.8091;1.2599;
1223.4000;0.8059;1.2501;
1223.7000;0.8067;1.2501;
1224.0000;0.8059;1.2501;
1224.3000;0.8075;1.2575;
1224.6000;0.8067;1.2575;
1224.9000;0.8083;1.2624;
1225.2000;0.8050;1.2575;
1225.5000;0.8083;1.2525;
1225.8000;0.8075;1.2476;
1226.1000;0.8075;1.2599;
1226.4000;0.8091;1.2575;
1226.7000;0.8075;1.2698;
1227.0000;0.8099;1.2673;
1227.3000;0.8083;1.2648;
1227.6000;0.8075;1.2673;
1227.9000;0.8091;1.2673;
1228.2000;0.8091;1.2673;
1228.5000;0.8075;1.2673;
1228.8000;0.8083;1.2698;
1229.1000;0.8099;1.2599;
1229.4000;0.8107;1.2575;
1229.7000;0.8075;1.2550;
1230.0000;0.8099;1.2599;
1230.3000;0.8099;1.2599;
1230.6000;0.8091;1.2550;
1230.9000;0.8059;1.2501;
1231.2000;0.8067;1.2476;
1231.5000;0.8083;1.2501;
1231.8000;0.8075;1.2575;
1232.1000;0.8042;1.2550;
1232.4000;0.8091;1.2722;
1232.7000;0.8107;1.2771;
1233.0000;0.8083;1.2771;
1233.3000;0.8075;1.2747;
1233.6000;0.8083;1.2673;
1233.9000;0.8083;1.2648;
1234.2000;0.8140;1.2722;
1234.5000;0.8067;1.2525;
1234.8000;0.8067;1.2476;
1235.1000;0.8091;1.2575;
1235.4000;0.8132;1.2698;
1235.7000;0.8099;1.2624;
1236.0000;0.8067;1.2722;
1236.3000;0.8075;1.2722;
1236.6000;0.8091;1.2747;
1236.9000;0.8083;1.2771;
1237.2000;0.8124;1.2796;
1237.5000;0.8181;1.2993;
1237.8000;0.8091;1.2845;
1238.1000;0.8099;1.2895;
1238.4000;0.8091;1.2870;
1238.7000;0.8083;1.2870;
1239.0000;0.8091;1.2796;
1239.3000;0.8083;1.2771;
1239.6000;0.8083;1.2698;
1239.9000;0.8059;1.2648;
1240.2000;0.8059;1.2648;
1240.5000;0.8083;1.2747;
1240.8000;0.8083;1.2648;
1241.1000;0.8116;1.2747;
1241.4000;0.8075;1.2624;
1241.7000;0.8075;1.2476;
1242.0000;0.8067;1.2452;
1242.3000;0.8075;1.2452;
1242.6000;0.8083;1.2599;
1242.9000;0.8107;1.2698;
1243.2000;0.8116;1.2698;
1243.5000;0.8091;1.2599;
1243.8000;0.8050;1.2427;
1244.1000;0.8091;1.2501;
1244.4000;0.8099;1.2550;
1244.7000;0.8091;1.2599;
1245.0000;0.8067;1.2550;
1245.3000;0.8075;1.2575;
1245.6000;0.8099;1.2599;
1245.9000;0.8091;1.2501;
1246.2000;0.8099;1.2501;
1246.5000;0.8067;1.2427;
1246.8000;0.8091;1.2452;
1247.1000;0.8067;1.2402;
1247.4000;0.8059;1.2452;
1247.7000;0.8083;1.2427;
1248.0000;0.8099;1.2525;
1248.3000;0.8075;1.2476;
1248.6000;0.8083;1.2501;
1248.9000;0.8083;1.2525;
1249.2000;0.8067;1.2402;
1249.5000;0.8075;1.2501;
1249.8000;0.8075;1.2501;
1250.1000;0.8067;1.2550;
1250.4000;0.8091;1.2525;
1250.7000;0.8091;1.2575;
1251.0000;0.8083;1.2550;
1251.3000;0.8124;1.2624;
1251.6000;0.8075;1.2575;
1251.9000;0.8099;1.2673;
1252.2000;0.8075;1.2599;
1252.5000;0.8018;1.2525;
1252.8000;0.8116;1.2821;
1253.1000;0.8156;1.2944;
1253.4000;0.8091;1.2747;
1253.7000;0.8075;1.2698;
1254.0000;0.8083;1.2747;
1254.3000;0.8083;1.2722;
1254.6000;0.8083;1.2673;
1254.9000;0.8067;1.2673;
1255.2000;0.8067;1.2722;
1255.5000;0.8075;1.2698;
1255.8000;0.8083;1.2673;
1256.1000;0.8002;1.2501;
1256.4000;0.8067;1.2673;
1256.7000;0.8091;1.2747;
1257.0000;0.8091;1.2796;
1257.3000;0.8091;1.2771;
1257.6000;0.8067;1.2747;
1257.9000;0.8075;1.2771;
1258.2000;0.8083;1.2648;
1258.5000;0.8099;1.2550;
1258.8000;0.8091;1.2550;
1259.1000;0.8099;1.2550;
1259.4000;0.8083;1.2501;
1259.7000;0.8083;1.2476;
1260.0000;0.8091;1.2476;
1260.3000;0.8083;1.2525;
1260.6000;0.8042;1.2427;
1260.9000;0.8075;1.2550;
1261.2000;0.8050;1.2550;
1261.5000;0.8083;1.2550;
1261.8000;0.8050;1.2501;
1262.1000;0.8099;1.2599;
1262.4000;0.8075;1.2599;
1262.7000;0.8091;1.2624;
1263.0000;0.8075;1.2599;
1263.3000;0.8075;1.2550;
1263.6000;0.8059;1.2452;
1263.9000;0.8075;1.2501;
1264.2000;0.8091;1.2501;
1264.5000;0.8156;1.2673;
1264.8000;0.8099;1.2525;
1265.1000;0.8107;1.2599;
1265.4000;0.8083;1.2550;
1265.7000;0.8091;1.2550;
1266.0000;0.8083;1.2550;
1266.3000;0.8083;1.2550;
1266.6000;0.8091;1.2599;
1266.9000;0.8067;1.2525;
1267.2000;0.8075;1.2624;
1267.5000;0.8083;1.2599;
1267.8000;0.8059;1.2599;
1268.1000;0.8107;1.2698;
1268.4000;0.8075;1.2747;
1268.7000;0.8099;1.2771;
1269.0000;0.8091;1.2771;
1269.3000;0.8083;1.2821;
1269.6000;0.8083;1.2919;
1269.9000;0.8099;1.2845;
1270.2000;0.8099;1.2796;
1270.5000;0.8075;1.2698;
1270.8000;0.8083;1.2673;
1271.1000;0.8067;1.2575;
1271.4000;0.8091;1.2648;
1271.7000;0.8059;1.2599;
1272.0000;0.8083;1.2599;
1272.3000;0.8075;1.2550;
1272.6000;0.8091;1.2575;
1272.9000;0.8091;1.2648;
1273.2000;0.8107;1.2599;
1273.5000;0.8083;1.2624;
1273.8000;0.8075;1.2575;
1274.1000;0.8067;1.2525;
1274.4000;0.8083;1.2575;
1274.7000;0.8067;1.2599;
1275.0000;0.8091;1.2648;
1275.3000;0.8075;1.2525;
1275.6000;0.8083;1.2575;
1275.9000;0.8083;1.2599;
1276.2000;0.8107;1.2575;
1276.5000;0.8099;1.2427;
1276.8000;0.8083;1.2402;
1277.1000;0.8091;1.2476;
1277.4000;0.8075;1.2378;
1277.7000;0.8099;1.2402;
1278.0000;0.8083;1.2550;
1278.3000;0.8099;1.2648;
1278.6000;0.8083;1.2575;
1278.9000;0.8083;1.2575;
1279.2000;0.8083;1.2575;
1279.5000;0.8107;1.2599;
1279.8000;0.8116;1.2599;
1280.1000;0.8059;1.2501;
1280.4000;0.8107;1.2550;
1280.7000;0.8083;1.2476;
1281.0000;0.8099;1.2624;
1281.3000;0.8091;1.2624;
1281.6000;0.8083;1.2698;
1281.9000;0.8083;1.2599;
1282.2000;0.8083;1.2575;
1282.5000;0.8083;1.2599;
1282.8000;0.8075;1.2599;
1283.1000;0.8067;1.2624;
1283.4000;0.8034;1.2550;
1283.7000;0.8075;1.2698;
1284.0000;0.8083;1.2673;
1284.3000;0.8067;1.2599;
1284.6000;0.8083;1.2698;
1284.9000;0.8116;1.2648;
1285.2000;0.8099;1.2599;
1285.5000;0.8083;1.2525;
1285.8000;0.8075;1.2476;
1286.1000;0.8075;1.2452;
1286.4000;0.8116;1.2476;
1286.7000;0.8099;1.2452;
1287.0000;0.8083;1.2476;
1287.3000;0.8083;1.2501;
1287.6000;0.8083;1.2525;
1287.9000;0.8091;1.2427;
1288.2000;0.8067;1.2378;
1288.5000;0.8050;1.2304;
1288.8000;0.8050;1.2255;
1289.1000;0.8116;1.2452;
1289.4000;0.8075;1.2353;
1289.7000;0.8018;1.2230;
1290.0000;0.8091;1.2476;
1290.3000;0.8083;1.2599;
1290.6000;0.8059;1.2575;
1290.9000;0.8075;1.2525;
1291.2000;0.8083;1.2476;
1291.5000;0.8067;1.2550;
1291.8000;0.8067;1.2550;
1292.1000;0.8083;1.2599;
1292.4000;0.8067;1.2624;
1292.7000;0.8091;1.2648;
1293.0000;0.8075;1.2575;
1293.3000;0.8075;1.2525;
1293.6000;0.8075;1.2550;
1293.9000;0.8075;1.2525;
1294.2000;0.8099;1.2501;
1294.5000;0.8075;1.2476;
1294.8000;0.8075;1.2427;
1295.1000;0.8050;1.2452;
1295.4000;0.8075;1.2452;
1295.7000;0.8075;1.2575;
1296.0000;0.8050;1.2501;
1296.3000;0.8050;1.2550;
1296.6000;0.8091;1.2648;
1296.9000;0.8067;1.2550;
1297.2000;0.8099;1.2624;
1297.5000;0.8075;1.2575;
1297.8000;0.8083;1.2599;
1298.1000;0.8042;1.2525;
1298.4000;0.8132;1.2747;
1298.7000;0.8059;1.2550;
1299.0000;0.8083;1.2575;
1299.3000;0.8059;1.2525;
1299.6000;0.8059;1.2525;
1299.9000;0.8059;1.2476;
1300.2000;0.8075;1.2476;
1300.5000;0.8107;1.2648;
1300.8000;0.8075;1.2525;
1301.1000;0.8067;1.2550;
1301.4000;0.8083;1.2501;
1301.7000;0.8099;1.2501;
1302.0000;0.8083;1.2501;
1302.3000;0.8083;1.2575;
1302.6000;0.8042;1.2501;
1302.9000;0.8083;1.2624;
1303.2000;0.8099;1.2673;
1303.5000;0.8083;1.2673;
1303.8000;0.8034;1.2525;
1304.1000;0.8173;1.2821;
1304.4000;0.8075;1.2550;
1304.7000;0.8075;1.2525;
1305.0000;0.8083;1.2525;
1305.3000;0.8083;1.2525;
1305.6000;0.8124;1.2525;
1305.9000;0.8083;1.2452;
1306.2000;0.8075;1.2427;
1306.5000;0.8148;1.2575;
1306.8000;0.8107;1.2525;
1307.1000;0.8075;1.2353;
1307.4000;0.8050;1.2304;
1307.7000;0.8083;1.2402;
1308.0000;0.8026;1.2378;
1308.3000;0.8083;1.2624;
1308.6000;0.8067;1.2648;
1308.9000;0.8107;1.2821;
1309.2000;0.8050;1.2747;
1309.5000;0.8075;1.2722;
1309.8000;0.8083;1.2624;
1310.1000;0.8099;1.2722;
1310.4000;0.8042;1.2599;
1310.7000;0.8075;1.2550;
1311.0000;0.8124;1.2599;
1311.3000;0.8091;1.2501;
1311.6000;0.8173;1.2722;
1311.9000;0.8075;1.2550;
1312.2000;0.8148;1.2722;
1312.5000;0.8099;1.2624;
1312.8000;0.8067;1.2599;
1313.1000;0.8116;1.2796;
1313.4000;0.8091;1.2747;
1313.7000;0.8067;1.2747;
1314.0000;0.8026;1.2722;
1314.3000;0.8067;1.2698;
1314.6000;0.8067;1.2698;
1314.9000;0.8050;1.2722;
1315.2000;0.8059;1.2747;
1315.5000;0.8083;1.2747;
1315.8000;0.8075;1.2747;
1316.1000;0.8083;1.2722;
1316.4000;0.8059;1.2648;
1316.7000;0.8083;1.2722;
1317.0000;0.8083;1.2747;
1317.3000;0.8050;1.2673;
1317.6000;0.8075;1.2673;
1317.9000;0.8059;1.2624;
1318.2000;0.8091;1.2648;
1318.5000;0.8091;1.2575;
1318.8000;0.8075;1.2550;
1319.1000;0.8083;1.2575;
1319.4000;0.8059;1.2525;
1319.7000;0.8067;1.2525;
1320.0000;0.8059;1.2599;
1320.3000;0.8059;1.2624;
1320.6000;0.8010;1.2525;
1320.9000;0.8075;1.2624;
1321.2000;0.8083;1.2575;
1321.5000;0.8083;1.2525;
1321.8000;0.8075;1.2501;
1322.1000;0.8091;1.2624;
1322.4000;0.8099;1.2771;
1322.7000;0.8075;1.2698;
1323.0000;0.8034;1.2624;
1323.3000;0.8083;1.2698;
1323.6000;0.8050;1.2599;
1323.9000;0.8099;1.2673;
1324.2000;0.8083;1.2648;
1324.5000;0.8018;1.2427;
1324.8000;0.8083;1.2550;
1325.1000;0.8067;1.2550;
1325.4000;0.8083;1.2575;
1325.7000;0.8075;1.2648;
1326.0000;0.8067;1.2624;
1326.3000;0.8067;1.2698;
1326.6000;0.8067;1.2673;
1326.9000;0.8050;1.2648;
1327.2000;0.8050;1.2648;
1327.5000;0.8059;1.2624;
1327.8000;0.8067;1.2550;
1328.1000;0.8075;1.2550;
1328.4000;0.8042;1.2501;
1328.7000;0.8091;1.2648;
1329.0000;0.8067;1.2599;
1329.3000;0.8067;1.2624;
1329.6000;0.8050;1.2624;
1329.9000;0.8156;1.2845;
1330.2000;0.8050;1.2648;
1330.5000;0.8018;1.2599;
1330.8000;0.8034;1.2698;
1331.1000;0.8075;1.2771;
1331.4000;0.8042;1.2796;
1331.7000;0.8050;1.2747;
1332.0000;0.8050;1.2747;
1332.3000;0.8059;1.2845;
1332.6000;0.8083;1.2821;
1332.9000;0.8173;1.2993;
1333.2000;0.8099;1.2698;
1333.5000;0.8083;1.2624;
1333.8000;0.8067;1.2648;
1334.1000;0.8083;1.2648;
1334.4000;0.8067;1.2624;
1334.7000;0.8067;1.2624;
1335.0000;0.8067;1.2575;
1335.3000;0.8050;1.2624;
1335.6000;0.8083;1.2624;
1335.9000;0.8059;1.2525;
1336.2000;0.8075;1.2673;
1336.5000;0.8059;1.2648;
1336.8000;0.8083;1.2698;
1337.1000;0.8091;1.2673;
1337.4000;0.8067;1.2624;
1337.7000;0.8067;1.2575;
1338.0000;0.8059;1.2550;
1338.3000;0.8083;1.2698;
1338.6000;0.8067;1.2673;
1338.9000;0.8059;1.2624;
1339.2000;0.8083;1.2525;
1339.5000;0.8075;1.2525;
1339.8000;0.8067;1.2501;
1340.1000;0.8107;1.2624;
1340.4000;0.8099;1.2550;
1340.7000;0.8083;1.2476;
1341.0000;0.8067;1.2525;
1341.3000;0.8067;1.2550;
1341.6000;0.8059;1.2575;
1341.9000;0.8059;1.2501;
1342.2000;0.8059;1.2501;
1342.5000;0.8067;1.2476;
1342.8000;0.8083;1.2599;
1343.1000;0.8091;1.2648;
1343.4000;0.8059;1.2599;
1343.7000;0.8075;1.2722;
1344.0000;0.8067;1.2698;
1344.3000;0.8067;1.2648;
1344.6000;0.8075;1.2747;
1344.9000;0.8067;1.2722;
1345.2000;0.8059;1.2722;
1345.5000;0.8050;1.2698;
1345.8000;0.8075;1.2821;
1346.1000;0.8042;1.2771;
1346.4000;0.8099;1.2796;
1346.7000;0.8075;1.2771;
1347.0000;0.8067;1.2747;
1347.3000;0.8059;1.2698;
1347.6000;0.8075;1.2747;
1347.9000;0.8067;1.2747;
1348.2000;0.8083;1.2722;
1348.5000;0.8091;1.2796;
1348.8000;0.8042;1.2698;
1349.1000;0.8083;1.2796;
1349.4000;0.8075;1.2698;
1349.7000;0.8075;1.2624;
1350.0000;0.8067;1.2599;
1350.3000;0.8067;1.2599;
1350.6000;0.8075;1.2575;
1350.9000;0.8116;1.2673;
1351.2000;0.8042;1.2452;
1351.5000;0.8067;1.2550;
1351.8000;0.8067;1.2599;
1352.1000;0.8059;1.2624;
1352.4000;0.8099;1.2624;
1352.7000;0.8140;1.2796;
1353.0000;0.8059;1.2599;
1353.3000;0.8059;1.2550;
1353.6000;0.8050;1.2575;
1353.9000;0.8059;1.2599;
1354.2000;0.8164;1.2870;
1354.5000;0.8083;1.2673;
1354.8000;0.8050;1.2648;
1355.1000;0.8083;1.2747;
1355.4000;0.8067;1.2747;
1355.7000;0.8075;1.2845;
1356.0000;0.8083;1.2796;
1356.3000;0.8067;1.2648;
1356.6000;0.8067;1.2648;
1356.9000;0.8067;1.2575;
1357.2000;0.8075;1.2698;
1357.5000;0.8075;1.2722;
1357.8000;0.8067;1.2698;
1358.1000;0.8026;1.2624;
1358.4000;0.8075;1.2747;
1358.7000;0.8059;1.2648;
1359.0000;0.8067;1.2599;
1359.3000;0.8091;1.2550;
1359.6000;0.8083;1.2501;
1359.9000;0.8083;1.2476;
1360.2000;0.8124;1.2673;
1360.5000;0.8067;1.2624;
1360.8000;0.8075;1.2648;
1361.1000;0.8059;1.2648;
1361.4000;0.8075;1.2648;
1361.7000;0.8067;1.2771;
1362.0000;0.8059;1.2722;
1362.3000;0.8091;1.2771;
1362.6000;0.8091;1.2698;
1362.9000;0.8059;1.2648;
1363.2000;0.8067;1.2747;
1363.5000;0.8075;1.2845;
1363.8000;0.8059;1.2796;
1364.1000;0.8042;1.2771;
1364.4000;0.8099;1.2870;
1364.7000;0.8059;1.2845;
1365.0000;0.8067;1.2895;
1365.3000;0.8075;1.2796;
1365.6000;0.8050;1.2747;
1365.9000;0.8075;1.2771;
1366.2000;0.8075;1.2845;
1366.5000;0.8107;1.2895;
1366.8000;0.8075;1.2796;
1367.1000;0.8124;1.2845;
1367.4000;0.8018;1.2648;
1367.7000;0.8075;1.2747;
1368.0000;0.8075;1.2722;
1368.3000;0.8067;1.2722;
1368.6000;0.8083;1.2796;
1368.9000;0.8075;1.2845;
1369.2000;0.8099;1.2919;
1369.5000;0.8075;1.2821;
1369.8000;0.8075;1.2845;
1370.1000;0.8091;1.2796;
1370.4000;0.8075;1.2747;
1370.7000;0.8083;1.2771;
1371.0000;0.8034;1.2648;
1371.3000;0.8083;1.2673;
1371.6000;0.8067;1.2575;
1371.9000;0.8075;1.2599;
1372.2000;0.8002;1.2402;
1372.5000;0.8075;1.2599;
1372.8000;0.8083;1.2575;
1373.1000;0.8075;1.2624;
1373.4000;0.8075;1.2698;
1373.7000;0.8042;1.2673;
1374.0000;0.8075;1.2698;
1374.3000;0.8042;1.2599;
1374.6000;0.8067;1.2624;
1374.9000;0.8067;1.2747;
1375.2000;0.8083;1.2821;
1375.5000;0.8091;1.2747;
1375.8000;0.8067;1.2722;
1376.1000;0.8083;1.2771;
1376.4000;0.8099;1.2771;
1376.7000;0.8067;1.2771;
1377.0000;0.8067;1.2673;
1377.3000;0.8075;1.2624;
1377.6000;0.8075;1.2624;
1377.9000;0.8050;1.2501;
1378.2000;0.8075;1.2550;
1378.5000;0.8075;1.2648;
1378.8000;0.8083;1.2698;
1379.1000;0.8042;1.2624;
1379.4000;0.8075;1.2648;
1379.7000;0.8116;1.2845;
1380.0000;0.8075;1.2796;
1380.3000;0.8067;1.2796;
1380.6000;0.8067;1.2870;
1380.9000;0.8042;1.2821;
1381.2000;0.8059;1.2821;
1381.5000;0.8034;1.2648;
1381.8000;0.8083;1.2796;
1382.1000;0.8067;1.2747;
1382.4000;0.8059;1.2821;
1382.7000;0.8067;1.2796;
1383.0000;0.8059;1.2870;
1383.3000;0.8059;1.2821;
1383.6000;0.8067;1.2722;
1383.9000;0.8067;1.2771;
1384.2000;0.8075;1.2796;
1384.5000;0.8050;1.2771;
1384.8000;0.8075;1.2771;
1385.1000;0.8075;1.2845;
1385.4000;0.8091;1.2895;
1385.7000;0.8075;1.2845;
1386.0000;0.8050;1.2796;
1386.3000;0.8091;1.2895;
1386.6000;0.8075;1.2870;
1386.9000;0.8067;1.2870;
1387.2000;0.8075;1.2895;
1387.5000;0.8059;1.2895;
1387.8000;0.8067;1.2845;
1388.1000;0.8075;1.2870;
1388.4000;0.8083;1.2944;
1388.7000;0.8059;1.2870;
1389.0000;0.8083;1.2870;
1389.3000;0.8050;1.2845;
1389.6000;0.8059;1.2870;
1389.9000;0.8083;1.2968;
1390.2000;0.8042;1.2895;
1390.5000;0.8034;1.2821;
1390.8000;0.8107;1.2919;
1391.1000;0.8050;1.2771;
1391.4000;0.8067;1.2870;
1391.7000;0.8091;1.2968;
1392.0000;0.8042;1.2796;
1392.3000;0.8083;1.2845;
1392.6000;0.8067;1.2821;
1392.9000;0.8075;1.2747;
1393.2000;0.8075;1.2771;
1393.5000;0.8059;1.2821;
1393.8000;0.8197;1.3091;
1394.1000;0.8050;1.2771;
1394.4000;0.8059;1.2722;
1394.7000;0.8075;1.2747;
1395.0000;0.8059;1.2771;
1395.3000;0.8059;1.2722;
1395.6000;0.8075;1.2698;
1395.9000;0.8075;1.2722;
1396.2000;0.8116;1.2895;
1396.5000;0.8067;1.2771;
1396.8000;0.8083;1.2796;
1397.1000;0.8026;1.2575;
1397.4000;0.8099;1.2771;
1397.7000;0.8067;1.2698;
1398.0000;0.8067;1.2698;
1398.3000;0.8075;1.2796;
1398.6000;0.7993;1.2575;
1398.9000;0.8067;1.2845;
1399.2000;0.8067;1.2845;
1399.5000;0.8067;1.2845;
1399.8000;0.8050;1.2796;
