time/ms;Fluo/V;P700 deltaI/I x10³;
-199.8000;0.8099;1.2845;
-199.5000;0.8156;1.3042;
-199.2000;0.8059;1.2747;
-198.9000;0.8132;1.2845;
-198.6000;0.8148;1.2747;
-198.3000;0.8124;1.2722;
-198.0000;0.8140;1.2919;
-197.7000;0.8124;1.2919;
-197.4000;0.8132;1.2895;
-197.1000;0.8173;1.3042;
-196.8000;0.8132;1.2919;
-196.5000;0.8140;1.2944;
-196.2000;0.8107;1.2870;
-195.9000;0.8132;1.2944;
-195.6000;0.8116;1.2895;
-195.3000;0.8107;1.2821;
-195.0000;0.8124;1.2796;
-194.7000;0.8124;1.2698;
-194.4000;0.8140;1.2673;
-194.1000;0.8124;1.2550;
-193.8000;0.8140;1.2575;
-193.5000;0.8140;1.2476;
-193.2000;0.8148;1.2575;
-192.9000;0.8124;1.2550;
-192.6000;0.8099;1.2427;
-192.3000;0.8083;1.2427;
-192.0000;0.8124;1.2525;
-191.7000;0.8132;1.2575;
-191.4000;0.8124;1.2624;
-191.1000;0.8132;1.2575;
-190.8000;0.8042;1.2353;
-190.5000;0.8148;1.2550;
-190.2000;0.8124;1.2476;
-189.9000;0.8140;1.2525;
-189.6000;0.8132;1.2378;
-189.3000;0.8099;1.2402;
-189.0000;0.8124;1.2624;
-188.7000;0.8164;1.2722;
-188.4000;0.8124;1.2550;
-188.1000;0.8148;1.2624;
-187.8000;0.8124;1.2550;
-187.5000;0.8181;1.2771;
-187.2000;0.8132;1.2722;
-186.9000;0.8132;1.2796;
-186.6000;0.8132;1.2722;
-186.3000;0.8173;1.2796;
-186.0000;0.8132;1.2722;
-185.7000;0.8189;1.2870;
-185.4000;0.8140;1.2698;
-185.1000;0.8132;1.2673;
-184.8000;0.8132;1.2648;
-184.5000;0.8107;1.2575;
-184.2000;0.8091;1.2599;
-183.9000;0.8132;1.2698;
-183.6000;0.8124;1.2673;
-183.3000;0.8132;1.2747;
-183.0000;0.8173;1.2919;
-182.7000;0.8107;1.2722;
-182.4000;0.8132;1.2845;
-182.1000;0.8140;1.2919;
-181.8000;0.8197;1.3141;
-181.5000;0.8140;1.2944;
-181.2000;0.8164;1.3018;
-180.9000;0.8140;1.2919;
-180.6000;0.8132;1.2895;
-180.3000;0.8140;1.2968;
-180.0000;0.8042;1.2722;
-179.7000;0.8140;1.2993;
-179.4000;0.8132;1.2993;
-179.1000;0.8116;1.3018;
-178.8000;0.8140;1.2968;
-178.5000;0.8140;1.2919;
-178.2000;0.8116;1.2895;
-177.9000;0.8140;1.2895;
-177.6000;0.8148;1.2919;
-177.3000;0.8091;1.2747;
-177.0000;0.8124;1.2821;
-176.7000;0.8132;1.2747;
-176.4000;0.8148;1.2771;
-176.1000;0.8246;1.3042;
-175.8000;0.8132;1.2821;
-175.5000;0.8132;1.2845;
-175.2000;0.8140;1.2870;
-174.9000;0.8156;1.2845;
-174.6000;0.8140;1.2796;
-174.3000;0.8107;1.2747;
-174.0000;0.8116;1.2796;
-173.7000;0.8083;1.2821;
-173.4000;0.8132;1.2919;
-173.1000;0.8107;1.2821;
-172.8000;0.8067;1.2747;
-172.5000;0.8116;1.2821;
-172.2000;0.8140;1.2870;
-171.9000;0.8132;1.2870;
-171.6000;0.8140;1.2895;
-171.3000;0.8140;1.2919;
-171.0000;0.8132;1.2919;
-170.7000;0.8124;1.2870;
-170.4000;0.8124;1.2895;
-170.1000;0.8116;1.2944;
-169.8000;0.8156;1.3042;
-169.5000;0.8140;1.2944;
-169.2000;0.8140;1.2944;
-168.9000;0.8116;1.2919;
-168.6000;0.8140;1.2895;
-168.3000;0.8132;1.2796;
-168.0000;0.8075;1.2624;
-167.7000;0.8156;1.2771;
-167.4000;0.8132;1.2722;
-167.1000;0.8148;1.2747;
-166.8000;0.8148;1.2796;
-166.5000;0.8091;1.2599;
-166.2000;0.8116;1.2673;
-165.9000;0.8148;1.2771;
-165.6000;0.8091;1.2673;
-165.3000;0.8132;1.2796;
-165.0000;0.8173;1.2895;
-164.7000;0.8140;1.2796;
-164.4000;0.8124;1.2747;
-164.1000;0.8132;1.2796;
-163.8000;0.8099;1.2747;
-163.5000;0.8173;1.2919;
-163.2000;0.8107;1.2845;
-162.9000;0.8124;1.2895;
-162.6000;0.8148;1.2944;
-162.3000;0.8124;1.2870;
-162.0000;0.8124;1.2919;
-161.7000;0.8173;1.2944;
-161.4000;0.8132;1.2870;
-161.1000;0.8148;1.2944;
-160.8000;0.8140;1.2919;
-160.5000;0.8124;1.2845;
-160.2000;0.8148;1.2895;
-159.9000;0.8140;1.3067;
-159.6000;0.8132;1.3018;
-159.3000;0.8124;1.3116;
-159.0000;0.8148;1.3116;
-158.7000;0.8140;1.3018;
-158.4000;0.8124;1.2968;
-158.1000;0.8124;1.2845;
-157.8000;0.8181;1.2968;
-157.5000;0.8124;1.2895;
-157.2000;0.8124;1.3042;
-156.9000;0.8124;1.2968;
-156.6000;0.8107;1.2944;
-156.3000;0.8116;1.2919;
-156.0000;0.8107;1.2968;
-155.7000;0.8140;1.3018;
-155.4000;0.8124;1.2919;
-155.1000;0.8124;1.2944;
-154.8000;0.8116;1.2895;
-154.5000;0.8124;1.2919;
-154.2000;0.8107;1.2870;
-153.9000;0.8132;1.2796;
-153.6000;0.8107;1.2698;
-153.3000;0.8124;1.2771;
-153.0000;0.8107;1.2673;
-152.7000;0.8124;1.2673;
-152.4000;0.8107;1.2599;
-152.1000;0.8107;1.2698;
-151.8000;0.8124;1.2771;
-151.5000;0.8107;1.2771;
-151.2000;0.8107;1.2747;
-150.9000;0.8116;1.2796;
-150.6000;0.8140;1.2796;
-150.3000;0.8124;1.2821;
-150.0000;0.8124;1.2895;
-149.7000;0.8132;1.2944;
-149.4000;0.8124;1.2821;
-149.1000;0.8099;1.2796;
-148.8000;0.8173;1.2919;
-148.5000;0.8140;1.2845;
-148.2000;0.8140;1.2870;
-147.9000;0.8148;1.2747;
-147.6000;0.8140;1.2673;
-147.3000;0.8107;1.2673;
-147.0000;0.8156;1.2722;
-146.7000;0.8132;1.2796;
-146.4000;0.8132;1.2771;
-146.1000;0.8156;1.2747;
-145.8000;0.8148;1.2747;
-145.5000;0.8156;1.2821;
-145.2000;0.8148;1.2747;
-144.9000;0.8140;1.2722;
-144.6000;0.8148;1.2821;
-144.3000;0.8140;1.2870;
-144.0000;0.8156;1.2821;
-143.7000;0.8116;1.2722;
-143.4000;0.8132;1.2673;
-143.1000;0.8132;1.2673;
-142.8000;0.8132;1.2673;
-142.5000;0.8140;1.2747;
-142.2000;0.8116;1.2673;
-141.9000;0.8140;1.2747;
-141.6000;0.8132;1.2698;
-141.3000;0.8132;1.2722;
-141.0000;0.8124;1.2722;
-140.7000;0.8124;1.2771;
-140.4000;0.8148;1.2821;
-140.1000;0.8132;1.2821;
-139.8000;0.8116;1.2821;
-139.5000;0.8140;1.2895;
-139.2000;0.8156;1.2845;
-138.9000;0.8124;1.2747;
-138.6000;0.8116;1.2722;
-138.3000;0.8132;1.2648;
-138.0000;0.8140;1.2648;
-137.7000;0.8156;1.2771;
-137.4000;0.8132;1.2870;
-137.1000;0.8140;1.2895;
-136.8000;0.8116;1.2895;
-136.5000;0.8132;1.2968;
-136.2000;0.8107;1.2870;
-135.9000;0.8124;1.2870;
-135.6000;0.8116;1.2968;
-135.3000;0.8116;1.3091;
-135.0000;0.8124;1.2993;
-134.7000;0.8140;1.3116;
-134.4000;0.8148;1.3116;
-134.1000;0.8124;1.2993;
-133.8000;0.8132;1.2870;
-133.5000;0.8124;1.2919;
-133.2000;0.8132;1.2944;
-132.9000;0.8132;1.2968;
-132.6000;0.8148;1.2993;
-132.3000;0.8116;1.2870;
-132.0000;0.8116;1.2870;
-131.7000;0.8124;1.2796;
-131.4000;0.8132;1.2919;
-131.1000;0.8116;1.2821;
-130.8000;0.8116;1.2796;
-130.5000;0.8124;1.2845;
-130.2000;0.8124;1.2870;
-129.9000;0.8140;1.2919;
-129.6000;0.8107;1.2895;
-129.3000;0.8099;1.2919;
-129.0000;0.8124;1.3018;
-128.7000;0.8132;1.2968;
-128.4000;0.8116;1.2895;
-128.1000;0.8132;1.2968;
-127.8000;0.8132;1.2993;
-127.5000;0.8156;1.3018;
-127.2000;0.8124;1.2944;
-126.9000;0.8132;1.3018;
-126.6000;0.8132;1.2944;
-126.3000;0.8107;1.2845;
-126.0000;0.8116;1.2870;
-125.7000;0.8107;1.2870;
-125.4000;0.8107;1.2821;
-125.1000;0.8124;1.2870;
-124.8000;0.8116;1.2944;
-124.5000;0.8132;1.2968;
-124.2000;0.8124;1.2968;
-123.9000;0.8116;1.2944;
-123.6000;0.8148;1.2993;
-123.3000;0.8132;1.2993;
-123.0000;0.8124;1.2968;
-122.7000;0.8173;1.3141;
-122.4000;0.8140;1.2968;
-122.1000;0.8132;1.2895;
-121.8000;0.8124;1.2895;
-121.5000;0.8116;1.2845;
-121.2000;0.8148;1.2845;
-120.9000;0.8132;1.2845;
-120.6000;0.8116;1.2747;
-120.3000;0.8148;1.2870;
-120.0000;0.8124;1.2870;
-119.7000;0.8132;1.2870;
-119.4000;0.8124;1.2771;
-119.1000;0.8148;1.2796;
-118.8000;0.8140;1.2919;
-118.5000;0.8091;1.2845;
-118.2000;0.8132;1.2919;
-117.9000;0.8132;1.2919;
-117.6000;0.8132;1.2870;
-117.3000;0.8156;1.2919;
-117.0000;0.8140;1.2870;
-116.7000;0.8107;1.2821;
-116.4000;0.8124;1.2821;
-116.1000;0.8140;1.2771;
-115.8000;0.8140;1.2870;
-115.5000;0.8116;1.2870;
-115.2000;0.8116;1.2821;
-114.9000;0.8132;1.2796;
-114.6000;0.8140;1.2845;
-114.3000;0.8148;1.2895;
-114.0000;0.8116;1.2821;
-113.7000;0.8124;1.2895;
-113.4000;0.8124;1.2870;
-113.1000;0.8124;1.2771;
-112.8000;0.8107;1.2698;
-112.5000;0.8107;1.2599;
-112.2000;0.8124;1.2698;
-111.9000;0.8140;1.2722;
-111.6000;0.8140;1.2747;
-111.3000;0.8164;1.2821;
-111.0000;0.8116;1.2648;
-110.7000;0.8132;1.2648;
-110.4000;0.8132;1.2624;
-110.1000;0.8124;1.2599;
-109.8000;0.8132;1.2624;
-109.5000;0.8140;1.2771;
-109.2000;0.8132;1.2624;
-108.9000;0.8124;1.2501;
-108.6000;0.8132;1.2624;
-108.3000;0.8148;1.2771;
-108.0000;0.8140;1.2796;
-107.7000;0.8140;1.2747;
-107.4000;0.8132;1.2722;
-107.1000;0.8140;1.2673;
-106.8000;0.8148;1.2722;
-106.5000;0.8132;1.2698;
-106.2000;0.8099;1.2624;
-105.9000;0.8148;1.2698;
-105.6000;0.8124;1.2673;
-105.3000;0.8124;1.2722;
-105.0000;0.8124;1.2673;
-104.7000;0.8140;1.2648;
-104.4000;0.8140;1.2624;
-104.1000;0.8132;1.2599;
-103.8000;0.8124;1.2648;
-103.5000;0.8107;1.2747;
-103.2000;0.8116;1.2747;
-102.9000;0.8107;1.2673;
-102.6000;0.8124;1.2673;
-102.3000;0.8107;1.2575;
-102.0000;0.8140;1.2624;
-101.7000;0.8132;1.2673;
-101.4000;0.8099;1.2599;
-101.1000;0.8124;1.2575;
-100.8000;0.8132;1.2550;
-100.5000;0.8116;1.2525;
-100.2000;0.8148;1.2599;
-99.9000;0.8107;1.2525;
-99.6000;0.8099;1.2525;
-99.3000;0.8107;1.2525;
-99.0000;0.8116;1.2550;
-98.7000;0.8050;1.2525;
-98.4000;0.8116;1.2575;
-98.1000;0.8132;1.2624;
-97.8000;0.8091;1.2575;
-97.5000;0.8132;1.2648;
-97.2000;0.8116;1.2673;
-96.9000;0.8124;1.2698;
-96.6000;0.8116;1.2648;
-96.3000;0.8205;1.2870;
-96.0000;0.8107;1.2599;
-95.7000;0.8116;1.2648;
-95.4000;0.8091;1.2452;
-95.1000;0.8116;1.2476;
-94.8000;0.8124;1.2476;
-94.5000;0.8124;1.2476;
-94.2000;0.8124;1.2525;
-93.9000;0.8124;1.2525;
-93.6000;0.8124;1.2501;
-93.3000;0.8132;1.2550;
-93.0000;0.8124;1.2550;
-92.7000;0.8099;1.2452;
-92.4000;0.8132;1.2525;
-92.1000;0.8132;1.2525;
-91.8000;0.8132;1.2648;
-91.5000;0.8148;1.2771;
-91.2000;0.8140;1.2747;
-90.9000;0.8116;1.2648;
-90.6000;0.8132;1.2771;
-90.3000;0.8132;1.2771;
-90.0000;0.8124;1.2624;
-89.7000;0.8116;1.2550;
-89.4000;0.8124;1.2575;
-89.1000;0.8132;1.2648;
-88.8000;0.8091;1.2550;
-88.5000;0.8116;1.2575;
-88.2000;0.8124;1.2525;
-87.9000;0.8116;1.2525;
-87.6000;0.8181;1.2698;
-87.3000;0.8132;1.2599;
-87.0000;0.8124;1.2648;
-86.7000;0.8124;1.2673;
-86.4000;0.8083;1.2550;
-86.1000;0.8132;1.2747;
-85.8000;0.8140;1.2821;
-85.5000;0.8124;1.2722;
-85.2000;0.8116;1.2550;
-84.9000;0.8132;1.2575;
-84.6000;0.8173;1.2673;
-84.3000;0.8099;1.2575;
-84.0000;0.8140;1.2673;
-83.7000;0.8116;1.2525;
-83.4000;0.8124;1.2452;
-83.1000;0.8132;1.2501;
-82.8000;0.8132;1.2452;
-82.5000;0.8124;1.2402;
-82.2000;0.8164;1.2501;
-81.9000;0.8124;1.2402;
-81.6000;0.8132;1.2525;
-81.3000;0.8156;1.2599;
-81.0000;0.8132;1.2550;
-80.7000;0.8124;1.2550;
-80.4000;0.8124;1.2673;
-80.1000;0.8148;1.2747;
-79.8000;0.8059;1.2575;
-79.5000;0.8099;1.2821;
-79.2000;0.8124;1.2796;
-78.9000;0.8083;1.2698;
-78.6000;0.8140;1.2796;
-78.3000;0.8107;1.2698;
-78.0000;0.8099;1.2722;
-77.7000;0.8132;1.2845;
-77.4000;0.8091;1.2673;
-77.1000;0.8132;1.2722;
-76.8000;0.8132;1.2796;
-76.5000;0.8132;1.2821;
-76.2000;0.8067;1.2673;
-75.9000;0.8132;1.2821;
-75.6000;0.8124;1.2845;
-75.3000;0.8124;1.2895;
-75.0000;0.8132;1.2845;
-74.7000;0.8132;1.2796;
-74.4000;0.8140;1.2895;
-74.1000;0.8042;1.2599;
-73.8000;0.8116;1.2722;
-73.5000;0.8148;1.2698;
-73.2000;0.8140;1.2599;
-72.9000;0.8132;1.2550;
-72.6000;0.8156;1.2648;
-72.3000;0.8156;1.2648;
-72.0000;0.8132;1.2599;
-71.7000;0.8132;1.2673;
-71.4000;0.8132;1.2747;
-71.1000;0.8156;1.2796;
-70.8000;0.8140;1.2722;
-70.5000;0.8124;1.2599;
-70.2000;0.8124;1.2599;
-69.9000;0.8124;1.2550;
-69.6000;0.8124;1.2525;
-69.3000;0.8116;1.2525;
-69.0000;0.8124;1.2550;
-68.7000;0.8140;1.2648;
-68.4000;0.8164;1.2698;
-68.1000;0.8091;1.2427;
-67.8000;0.8124;1.2624;
-67.5000;0.8140;1.2747;
-67.2000;0.8116;1.2599;
-66.9000;0.8140;1.2673;
-66.6000;0.8124;1.2722;
-66.3000;0.8148;1.2771;
-66.0000;0.8132;1.2698;
-65.7000;0.8132;1.2698;
-65.4000;0.8124;1.2722;
-65.1000;0.8124;1.2698;
-64.8000;0.8140;1.2722;
-64.5000;0.8124;1.2624;
-64.2000;0.8124;1.2624;
-63.9000;0.8132;1.2648;
-63.6000;0.8173;1.2771;
-63.3000;0.8140;1.2747;
-63.0000;0.8140;1.2722;
-62.7000;0.8148;1.2747;
-62.4000;0.8124;1.2722;
-62.1000;0.8124;1.2747;
-61.8000;0.8124;1.2722;
-61.5000;0.8124;1.2722;
-61.2000;0.8124;1.2771;
-60.9000;0.8132;1.2845;
-60.6000;0.8099;1.2747;
-60.3000;0.8164;1.2944;
-60.0000;0.8116;1.2870;
-59.7000;0.8132;1.2895;
-59.4000;0.8148;1.2968;
-59.1000;0.8116;1.2870;
-58.8000;0.8091;1.2747;
-58.5000;0.8099;1.2796;
-58.2000;0.8124;1.2821;
-57.9000;0.8116;1.2771;
-57.6000;0.8116;1.2747;
-57.3000;0.8124;1.2698;
-57.0000;0.8132;1.2698;
-56.7000;0.8116;1.2673;
-56.4000;0.8148;1.2747;
-56.1000;0.8140;1.2624;
-55.8000;0.8156;1.2648;
-55.5000;0.8140;1.2550;
-55.2000;0.8140;1.2599;
-54.9000;0.8099;1.2599;
-54.6000;0.8140;1.2673;
-54.3000;0.8140;1.2747;
-54.0000;0.8091;1.2722;
-53.7000;0.8124;1.2796;
-53.4000;0.8140;1.2845;
-53.1000;0.8132;1.2845;
-52.8000;0.8124;1.2821;
-52.5000;0.8107;1.2722;
-52.2000;0.8132;1.2673;
-51.9000;0.8116;1.2673;
-51.6000;0.8099;1.2624;
-51.3000;0.8116;1.2599;
-51.0000;0.8091;1.2476;
-50.7000;0.8132;1.2550;
-50.4000;0.8140;1.2599;
-50.1000;0.8140;1.2550;
-49.8000;0.8132;1.2550;
-49.5000;0.8124;1.2525;
-49.2000;0.8156;1.2624;
-48.9000;0.8132;1.2599;
-48.6000;0.8124;1.2525;
-48.3000;0.8124;1.2525;
-48.0000;0.8124;1.2501;
-47.7000;0.8189;1.2599;
-47.4000;0.8107;1.2501;
-47.1000;0.8124;1.2624;
-46.8000;0.8140;1.2648;
-46.5000;0.8091;1.2599;
-46.2000;0.8107;1.2648;
-45.9000;0.8116;1.2722;
-45.6000;0.8132;1.2771;
-45.3000;0.8148;1.2673;
-45.0000;0.8132;1.2698;
-44.7000;0.8132;1.2747;
-44.4000;0.8083;1.2648;
-44.1000;0.8116;1.2771;
-43.8000;0.8107;1.2747;
-43.5000;0.8140;1.2796;
-43.2000;0.8124;1.2821;
-42.9000;0.8124;1.2870;
-42.6000;0.8132;1.2895;
-42.3000;0.8116;1.2895;
-42.0000;0.8083;1.2845;
-41.7000;0.8124;1.2895;
-41.4000;0.8140;1.2895;
-41.1000;0.8132;1.2821;
-40.8000;0.8124;1.2796;
-40.5000;0.8140;1.2771;
-40.2000;0.8140;1.2796;
-39.9000;0.8132;1.2796;
-39.6000;0.8181;1.2895;
-39.3000;0.8140;1.2870;
-39.0000;0.8156;1.2845;
-38.7000;0.8148;1.2821;
-38.4000;0.8140;1.2747;
-38.1000;0.8124;1.2796;
-37.8000;0.8148;1.2821;
-37.5000;0.8124;1.2845;
-37.2000;0.8124;1.2796;
-36.9000;0.8132;1.2821;
-36.6000;0.8132;1.2722;
-36.3000;0.8156;1.2771;
-36.0000;0.8132;1.2722;
-35.7000;0.8116;1.2698;
-35.4000;0.8116;1.2722;
-35.1000;0.8132;1.2821;
-34.8000;0.8132;1.2747;
-34.5000;0.8124;1.2771;
-34.2000;0.8124;1.2796;
-33.9000;0.8189;1.2944;
-33.6000;0.8132;1.2845;
-33.3000;0.8116;1.2821;
-33.0000;0.8107;1.2698;
-32.7000;0.8116;1.2698;
-32.4000;0.8107;1.2698;
-32.1000;0.8091;1.2599;
-31.8000;0.8091;1.2550;
-31.5000;0.8107;1.2525;
-31.2000;0.8107;1.2599;
-30.9000;0.8116;1.2673;
-30.6000;0.8091;1.2624;
-30.3000;0.8107;1.2722;
-30.0000;0.8116;1.2821;
-29.7000;0.8116;1.2771;
-29.4000;0.8140;1.2845;
-29.1000;0.8124;1.2771;
-28.8000;0.8116;1.2771;
-28.5000;0.8132;1.2796;
-28.2000;0.8124;1.2870;
-27.9000;0.8116;1.2821;
-27.6000;0.8099;1.2722;
-27.3000;0.8124;1.2747;
-27.0000;0.8116;1.2698;
-26.7000;0.8116;1.2698;
-26.4000;0.8116;1.2599;
-26.1000;0.8132;1.2698;
-25.8000;0.8116;1.2771;
-25.5000;0.8107;1.2747;
-25.2000;0.8164;1.2821;
-24.9000;0.8132;1.2821;
-24.6000;0.8148;1.2919;
-24.3000;0.8156;1.2944;
-24.0000;0.8116;1.2821;
-23.7000;0.8132;1.2821;
-23.4000;0.8132;1.2919;
-23.1000;0.8132;1.2993;
-22.8000;0.8132;1.2870;
-22.5000;0.8140;1.2845;
-22.2000;0.8083;1.2648;
-21.9000;0.8116;1.2771;
-21.6000;0.8107;1.2821;
-21.3000;0.8116;1.2845;
-21.0000;0.8132;1.2796;
-20.7000;0.8140;1.2845;
-20.4000;0.8116;1.2821;
-20.1000;0.8107;1.2747;
-19.8000;0.8075;1.2722;
-19.5000;0.8148;1.2944;
-19.2000;0.8107;1.2771;
-18.9000;0.8116;1.2821;
-18.6000;0.8116;1.2747;
-18.3000;0.8116;1.2747;
-18.0000;0.8124;1.2698;
-17.7000;0.8132;1.2747;
-17.4000;0.8124;1.2747;
-17.1000;0.8140;1.2722;
-16.8000;0.8132;1.2722;
-16.5000;0.8124;1.2698;
-16.2000;0.8124;1.2698;
-15.9000;0.8132;1.2771;
-15.6000;0.8140;1.2747;
-15.3000;0.8116;1.2747;
-15.0000;0.8124;1.2698;
-14.7000;0.8132;1.2796;
-14.4000;0.8116;1.2796;
-14.1000;0.8124;1.2722;
-13.8000;0.8132;1.2747;
-13.5000;0.8140;1.2747;
-13.2000;0.8148;1.2747;
-12.9000;0.8124;1.2673;
-12.6000;0.8116;1.2648;
-12.3000;0.8107;1.2575;
-12.0000;0.8148;1.2673;
-11.7000;0.8132;1.2599;
-11.4000;0.8107;1.2648;
-11.1000;0.8132;1.2722;
-10.8000;0.8124;1.2698;
-10.5000;0.8148;1.2698;
-10.2000;0.8116;1.2673;
-9.9000;0.8132;1.2698;
-9.6000;0.8124;1.2575;
-9.3000;0.8132;1.2575;
-9.0000;0.8116;1.2501;
-8.7000;0.8116;1.2575;
-8.4000;0.8156;1.2673;
-8.1000;0.8148;1.2624;
-7.8000;0.8148;1.2747;
-7.5000;0.8140;1.2821;
-7.2000;0.8124;1.2796;
-6.9000;0.8140;1.2870;
-6.6000;0.8132;1.2845;
-6.3000;0.8140;1.2845;
-6.0000;0.8132;1.2845;
-5.7000;0.8132;1.2821;
-5.4000;0.8148;1.2698;
-5.1000;0.8132;1.2648;
-4.8000;0.8132;1.2575;
-4.5000;0.8140;1.2550;
-4.2000;0.8116;1.2525;
-3.9000;0.8173;1.2796;
-3.6000;0.8132;1.2722;
-3.3000;0.8107;1.2698;
-3.0000;0.8181;1.2845;
-2.7000;0.8132;1.2722;
-2.4000;0.8148;1.2747;
-2.1000;0.8116;1.2698;
-1.8000;0.8140;1.2698;
-1.5000;0.8140;1.2722;
-1.2000;0.8124;1.2673;
-0.9000;0.8116;1.2624;
-0.6000;0.8116;1.2722;
-0.3000;0.8083;1.2624;
0.0000;0.8083;1.2624;
0.3000;0.8474;1.2648;
0.6000;0.9027;1.3313;
0.9000;0.9451;1.3805;
1.2000;0.9801;1.4297;
1.5000;1.0045;1.4642;
1.8000;1.0248;1.4962;
2.1000;1.0444;1.5306;
2.4000;1.0582;1.5528;
2.7000;1.0745;1.5749;
3.0000;1.0834;1.5847;
3.3000;1.0940;1.5921;
3.6000;1.1038;1.6069;
3.9000;1.1119;1.6118;
4.2000;1.1193;1.6266;
4.5000;1.1274;1.6389;
4.8000;1.1323;1.6463;
5.1000;1.1396;1.6463;
5.4000;1.1437;1.6413;
5.7000;1.1502;1.6463;
6.0000;1.1543;1.6512;
6.3000;1.1591;1.6561;
6.6000;1.1632;1.6463;
6.9000;1.1689;1.6561;
7.2000;1.1713;1.6586;
7.5000;1.1762;1.6586;
7.8000;1.1795;1.6610;
8.1000;1.1819;1.6610;
8.4000;1.1860;1.6709;
8.7000;1.1901;1.6709;
9.0000;1.1925;1.6660;
9.3000;1.1950;1.6586;
9.6000;1.1966;1.6610;
9.9000;1.2015;1.6610;
10.2000;1.2039;1.6586;
10.5000;1.2039;1.6537;
10.8000;1.2072;1.6537;
11.1000;1.2104;1.6561;
11.4000;1.2112;1.6463;
11.7000;1.2153;1.6512;
12.0000;1.2161;1.6487;
12.3000;1.2177;1.6512;
12.6000;1.2161;1.6463;
12.9000;1.2202;1.6512;
13.2000;1.2218;1.6438;
13.5000;1.2226;1.6463;
13.8000;1.2202;1.6413;
14.1000;1.2283;1.6512;
14.4000;1.2275;1.6463;
14.7000;1.2332;1.6586;
15.0000;1.2300;1.6512;
15.3000;1.2316;1.6512;
15.6000;1.2332;1.6413;
15.9000;1.2340;1.6438;
16.2000;1.2357;1.6537;
16.5000;1.2381;1.6463;
16.8000;1.2373;1.6512;
17.1000;1.2397;1.6610;
17.4000;1.2414;1.6709;
17.7000;1.2405;1.6733;
18.0000;1.2422;1.6807;
18.3000;1.2438;1.6832;
18.6000;1.2446;1.6832;
18.9000;1.2470;1.6807;
19.2000;1.2479;1.6758;
19.5000;1.2495;1.6758;
19.8000;1.2495;1.6684;
20.1000;1.2519;1.6635;
20.4000;1.2495;1.6487;
20.7000;1.2503;1.6438;
21.0000;1.2519;1.6512;
21.3000;1.2536;1.6610;
21.6000;1.2560;1.6635;
21.9000;1.2544;1.6610;
22.2000;1.2560;1.6610;
22.5000;1.2519;1.6438;
22.8000;1.2560;1.6537;
23.1000;1.2560;1.6610;
23.4000;1.2568;1.6610;
23.7000;1.2568;1.6684;
24.0000;1.2584;1.6684;
24.3000;1.2633;1.6807;
24.6000;1.2601;1.6733;
24.9000;1.2593;1.6758;
25.2000;1.2609;1.6733;
25.5000;1.2617;1.6635;
25.8000;1.2609;1.6561;
26.1000;1.2625;1.6487;
26.4000;1.2609;1.6586;
26.7000;1.2641;1.6610;
27.0000;1.2625;1.6635;
27.3000;1.2650;1.6610;
27.6000;1.2625;1.6610;
27.9000;1.2641;1.6586;
28.2000;1.2650;1.6586;
28.5000;1.2658;1.6684;
28.8000;1.2666;1.6709;
29.1000;1.2682;1.6832;
29.4000;1.2674;1.6783;
29.7000;1.2666;1.6856;
30.0000;1.2690;1.6733;
30.3000;1.2698;1.6733;
30.6000;1.2650;1.6561;
30.9000;1.2698;1.6709;
31.2000;1.2641;1.6561;
31.5000;1.2690;1.6684;
31.8000;1.2707;1.6709;
32.1000;1.2674;1.6660;
32.4000;1.2674;1.6684;
32.7000;1.2707;1.6783;
33.0000;1.2715;1.6684;
33.3000;1.2707;1.6635;
33.6000;1.2682;1.6610;
33.9000;1.2707;1.6733;
34.2000;1.2650;1.6561;
34.5000;1.2715;1.6733;
34.8000;1.2731;1.6684;
35.1000;1.2723;1.6684;
35.4000;1.2739;1.6709;
35.7000;1.2682;1.6610;
36.0000;1.2739;1.6684;
36.3000;1.2731;1.6660;
36.6000;1.2747;1.6684;
36.9000;1.2747;1.6586;
37.2000;1.2731;1.6561;
37.5000;1.2747;1.6561;
37.8000;1.2764;1.6709;
38.1000;1.2853;1.6856;
38.4000;1.2845;1.6881;
38.7000;1.2772;1.6733;
39.0000;1.2755;1.6684;
39.3000;1.2772;1.6684;
39.6000;1.2764;1.6684;
39.9000;1.2747;1.6610;
40.2000;1.2764;1.6635;
40.5000;1.2755;1.6610;
40.8000;1.2788;1.6709;
41.1000;1.2764;1.6733;
41.4000;1.2772;1.6684;
41.7000;1.2772;1.6586;
42.0000;1.2772;1.6537;
42.3000;1.2772;1.6413;
42.6000;1.2796;1.6364;
42.9000;1.2788;1.6438;
43.2000;1.2780;1.6438;
43.5000;1.2780;1.6463;
43.8000;1.2772;1.6463;
44.1000;1.2788;1.6537;
44.4000;1.2788;1.6463;
44.7000;1.2796;1.6413;
45.0000;1.2788;1.6389;
45.3000;1.2788;1.6512;
45.6000;1.2780;1.6561;
45.9000;1.2804;1.6610;
46.2000;1.2821;1.6586;
46.5000;1.2796;1.6561;
46.8000;1.2804;1.6610;
47.1000;1.2821;1.6586;
47.4000;1.2788;1.6487;
47.7000;1.2739;1.6364;
48.0000;1.2788;1.6487;
48.3000;1.2821;1.6537;
48.6000;1.2796;1.6586;
48.9000;1.2796;1.6537;
49.2000;1.2812;1.6487;
49.5000;1.2796;1.6537;
49.8000;1.2804;1.6537;
50.1000;1.2788;1.6537;
50.4000;1.2804;1.6635;
50.7000;1.2821;1.6635;
51.0000;1.2804;1.6463;
51.3000;1.2780;1.6389;
51.6000;1.2877;1.6635;
51.9000;1.2788;1.6463;
52.2000;1.2821;1.6561;
52.5000;1.2821;1.6561;
52.8000;1.2804;1.6413;
53.1000;1.2821;1.6413;
53.4000;1.2812;1.6389;
53.7000;1.2829;1.6413;
54.0000;1.2812;1.6315;
54.3000;1.2861;1.6413;
54.6000;1.2812;1.6364;
54.9000;1.2845;1.6315;
55.2000;1.2845;1.6340;
55.5000;1.2853;1.6413;
55.8000;1.2829;1.6389;
56.1000;1.2837;1.6364;
56.4000;1.2829;1.6389;
56.7000;1.2853;1.6463;
57.0000;1.2861;1.6512;
57.3000;1.2821;1.6389;
57.6000;1.2837;1.6413;
57.9000;1.2829;1.6438;
58.2000;1.2821;1.6340;
58.5000;1.2829;1.6438;
58.8000;1.2837;1.6438;
59.1000;1.2829;1.6364;
59.4000;1.2837;1.6340;
59.7000;1.2845;1.6389;
60.0000;1.2853;1.6487;
60.3000;1.2829;1.6438;
60.6000;1.2829;1.6512;
60.9000;1.2861;1.6537;
61.2000;1.2845;1.6561;
61.5000;1.2861;1.6610;
61.8000;1.2796;1.6413;
62.1000;1.2853;1.6586;
62.4000;1.2869;1.6610;
62.7000;1.2845;1.6561;
63.0000;1.2845;1.6610;
63.3000;1.2845;1.6537;
63.6000;1.2845;1.6512;
63.9000;1.2861;1.6561;
64.2000;1.2845;1.6487;
64.5000;1.2869;1.6537;
64.8000;1.2869;1.6438;
65.1000;1.2812;1.6340;
65.4000;1.2869;1.6463;
65.7000;1.2869;1.6487;
66.0000;1.2861;1.6487;
66.3000;1.2886;1.6512;
66.6000;1.2869;1.6438;
66.9000;1.2869;1.6463;
67.2000;1.2853;1.6487;
67.5000;1.2861;1.6610;
67.8000;1.2877;1.6537;
68.1000;1.2869;1.6463;
68.4000;1.2853;1.6438;
68.7000;1.2886;1.6537;
69.0000;1.2869;1.6487;
69.3000;1.2886;1.6586;
69.6000;1.2853;1.6537;
69.9000;1.2837;1.6463;
70.2000;1.2894;1.6561;
70.5000;1.2861;1.6463;
70.8000;1.2886;1.6537;
71.1000;1.2853;1.6537;
71.4000;1.2869;1.6586;
71.7000;1.2869;1.6610;
72.0000;1.2869;1.6610;
72.3000;1.2877;1.6807;
72.6000;1.2869;1.6807;
72.9000;1.2877;1.6906;
73.2000;1.2894;1.6979;
73.5000;1.2845;1.6881;
73.8000;1.2877;1.6881;
74.1000;1.2853;1.6906;
74.4000;1.2877;1.6930;
74.7000;1.2861;1.6930;
75.0000;1.2845;1.6881;
75.3000;1.2804;1.6684;
75.6000;1.2869;1.6832;
75.9000;1.2853;1.6856;
76.2000;1.2886;1.6856;
76.5000;1.2886;1.6807;
76.8000;1.2861;1.6733;
77.1000;1.2861;1.6709;
77.4000;1.2877;1.6807;
77.7000;1.2894;1.6881;
78.0000;1.2886;1.6881;
78.3000;1.2877;1.6832;
78.6000;1.2869;1.6758;
78.9000;1.2886;1.6783;
79.2000;1.2877;1.6733;
79.5000;1.2861;1.6635;
79.8000;1.2877;1.6660;
80.1000;1.2853;1.6610;
80.4000;1.2861;1.6660;
80.7000;1.2861;1.6610;
81.0000;1.2845;1.6537;
81.3000;1.2877;1.6561;
81.6000;1.2869;1.6610;
81.9000;1.2869;1.6610;
82.2000;1.2861;1.6463;
82.5000;1.2845;1.6487;
82.8000;1.2853;1.6610;
83.1000;1.2959;1.6856;
83.4000;1.2877;1.6610;
83.7000;1.2869;1.6660;
84.0000;1.2869;1.6684;
84.3000;1.2853;1.6709;
84.6000;1.2869;1.6709;
84.9000;1.2877;1.6709;
85.2000;1.2804;1.6512;
85.5000;1.2910;1.6709;
85.8000;1.2804;1.6487;
86.1000;1.2869;1.6709;
86.4000;1.2869;1.6733;
86.7000;1.2853;1.6684;
87.0000;1.2877;1.6733;
87.3000;1.2869;1.6783;
87.6000;1.2877;1.6709;
87.9000;1.2861;1.6635;
88.2000;1.2877;1.6635;
88.5000;1.2877;1.6586;
88.8000;1.2886;1.6561;
89.1000;1.2894;1.6610;
89.4000;1.2902;1.6561;
89.7000;1.2886;1.6413;
90.0000;1.2886;1.6413;
90.3000;1.2869;1.6463;
90.6000;1.2886;1.6537;
90.9000;1.2886;1.6635;
91.2000;1.2877;1.6635;
91.5000;1.2877;1.6635;
91.8000;1.2861;1.6660;
92.1000;1.2877;1.6758;
92.4000;1.2869;1.6709;
92.7000;1.2853;1.6684;
93.0000;1.2861;1.6561;
93.3000;1.2861;1.6537;
93.6000;1.2877;1.6586;
93.9000;1.2804;1.6463;
94.2000;1.2877;1.6561;
94.5000;1.2902;1.6709;
94.8000;1.2837;1.6512;
95.1000;1.2894;1.6684;
95.4000;1.2894;1.6709;
95.7000;1.2886;1.6660;
96.0000;1.2886;1.6635;
96.3000;1.2886;1.6635;
96.6000;1.2886;1.6610;
96.9000;1.2902;1.6660;
97.2000;1.2886;1.6684;
97.5000;1.2894;1.6832;
97.8000;1.2902;1.6832;
98.1000;1.2902;1.6758;
98.4000;1.2853;1.6586;
98.7000;1.2894;1.6684;
99.0000;1.2886;1.6635;
99.3000;1.2926;1.6758;
99.6000;1.2902;1.6783;
99.9000;1.2910;1.6807;
100.2000;1.2902;1.6758;
100.5000;1.2877;1.6758;
100.8000;1.2886;1.6709;
101.1000;1.2894;1.6610;
101.4000;1.2877;1.6512;
101.7000;1.2877;1.6537;
102.0000;1.2902;1.6586;
102.3000;1.2902;1.6487;
102.6000;1.2910;1.6512;
102.9000;1.2886;1.6586;
103.2000;1.2910;1.6660;
103.5000;1.2951;1.6733;
103.8000;1.2910;1.6635;
104.1000;1.2894;1.6610;
104.4000;1.2804;1.6364;
104.7000;1.2918;1.6635;
105.0000;1.2902;1.6660;
105.3000;1.2918;1.6635;
105.6000;1.2877;1.6561;
105.9000;1.2894;1.6733;
106.2000;1.2902;1.6856;
106.5000;1.2877;1.6783;
106.8000;1.2845;1.6660;
107.1000;1.2877;1.6635;
107.4000;1.2886;1.6807;
107.7000;1.2877;1.6733;
108.0000;1.2886;1.6807;
108.3000;1.2894;1.6881;
108.6000;1.2837;1.6832;
108.9000;1.2894;1.6881;
109.2000;1.2886;1.6881;
109.5000;1.2894;1.6856;
109.8000;1.2780;1.6561;
110.1000;1.2886;1.6832;
110.4000;1.2869;1.6832;
110.7000;1.2845;1.6635;
111.0000;1.2886;1.6709;
111.3000;1.2894;1.6709;
111.6000;1.2886;1.6610;
111.9000;1.2877;1.6635;
112.2000;1.2877;1.6561;
112.5000;1.2886;1.6487;
112.8000;1.2886;1.6610;
113.1000;1.2902;1.6709;
113.4000;1.2894;1.6684;
113.7000;1.2894;1.6733;
114.0000;1.2886;1.6807;
114.3000;1.2894;1.6733;
114.6000;1.2886;1.6586;
114.9000;1.2910;1.6635;
115.2000;1.2894;1.6487;
115.5000;1.2886;1.6487;
115.8000;1.2869;1.6487;
116.1000;1.2910;1.6660;
116.4000;1.2943;1.6684;
116.7000;1.2877;1.6610;
117.0000;1.2869;1.6635;
117.3000;1.2902;1.6660;
117.6000;1.2812;1.6315;
117.9000;1.2894;1.6635;
118.2000;1.2894;1.6635;
118.5000;1.2894;1.6610;
118.8000;1.2886;1.6635;
119.1000;1.2894;1.6537;
119.4000;1.2886;1.6561;
119.7000;1.2894;1.6610;
120.0000;1.2894;1.6635;
120.3000;1.2910;1.6660;
120.6000;1.2877;1.6610;
120.9000;1.2894;1.6586;
121.2000;1.2886;1.6586;
121.5000;1.2894;1.6586;
121.8000;1.2910;1.6635;
122.1000;1.2886;1.6586;
122.4000;1.2886;1.6660;
122.7000;1.2853;1.6512;
123.0000;1.2894;1.6512;
123.3000;1.2943;1.6610;
123.6000;1.2902;1.6463;
123.9000;1.2902;1.6389;
124.2000;1.2902;1.6487;
124.5000;1.2943;1.6561;
124.8000;1.2877;1.6389;
125.1000;1.2894;1.6364;
125.4000;1.2886;1.6340;
125.7000;1.2894;1.6463;
126.0000;1.2877;1.6413;
126.3000;1.2869;1.6364;
126.6000;1.2934;1.6586;
126.9000;1.2902;1.6463;
127.2000;1.2894;1.6561;
127.5000;1.2877;1.6635;
127.8000;1.2918;1.6733;
128.1000;1.2886;1.6660;
128.4000;1.2869;1.6586;
128.7000;1.2894;1.6709;
129.0000;1.2886;1.6733;
129.3000;1.2821;1.6610;
129.6000;1.2877;1.6733;
129.9000;1.2894;1.6783;
130.2000;1.2894;1.6709;
130.5000;1.2886;1.6660;
130.8000;1.2886;1.6660;
131.1000;1.2886;1.6758;
131.4000;1.2886;1.6783;
131.7000;1.2886;1.6807;
132.0000;1.2886;1.6807;
132.3000;1.2845;1.6635;
132.6000;1.2886;1.6733;
132.9000;1.2886;1.6733;
133.2000;1.2877;1.6684;
133.5000;1.2886;1.6610;
133.8000;1.2861;1.6635;
134.1000;1.2869;1.6610;
134.4000;1.2902;1.6635;
134.7000;1.2886;1.6709;
135.0000;1.2934;1.6930;
135.3000;1.2910;1.6783;
135.6000;1.2877;1.6709;
135.9000;1.2894;1.6733;
136.2000;1.2894;1.6684;
136.5000;1.2886;1.6684;
136.8000;1.2894;1.6635;
137.1000;1.2902;1.6635;
137.4000;1.2886;1.6512;
137.7000;1.2894;1.6586;
138.0000;1.2894;1.6783;
138.3000;1.2902;1.6783;
138.6000;1.2902;1.6733;
138.9000;1.2886;1.6635;
139.2000;1.2877;1.6610;
139.5000;1.2886;1.6660;
139.8000;1.2894;1.6733;
140.1000;1.2910;1.6807;
140.4000;1.2910;1.6783;
140.7000;1.2910;1.6783;
141.0000;1.2910;1.6856;
141.3000;1.2894;1.6733;
141.6000;1.2902;1.6635;
141.9000;1.2894;1.6635;
142.2000;1.2910;1.6610;
142.5000;1.2943;1.6610;
142.8000;1.2894;1.6463;
143.1000;1.2902;1.6561;
143.4000;1.2845;1.6463;
143.7000;1.2902;1.6610;
144.0000;1.2902;1.6709;
144.3000;1.2894;1.6758;
144.6000;1.2902;1.6783;
144.9000;1.2918;1.6832;
145.2000;1.2877;1.6783;
145.5000;1.2910;1.6807;
145.8000;1.2918;1.6733;
146.1000;1.2886;1.6610;
146.4000;1.2886;1.6463;
146.7000;1.2918;1.6561;
147.0000;1.2894;1.6561;
147.3000;1.2975;1.6856;
147.6000;1.2886;1.6635;
147.9000;1.2894;1.6684;
148.2000;1.2886;1.6660;
148.5000;1.2902;1.6758;
148.8000;1.2894;1.6783;
149.1000;1.2894;1.6758;
149.4000;1.2877;1.6709;
149.7000;1.2902;1.6709;
150.0000;1.2902;1.6709;
150.3000;1.2910;1.6733;
150.6000;1.2910;1.6783;
150.9000;1.2918;1.6881;
151.2000;1.2894;1.6807;
151.5000;1.2894;1.6881;
151.8000;1.2894;1.6881;
152.1000;1.2886;1.6955;
152.4000;1.2910;1.6906;
152.7000;1.2918;1.6906;
153.0000;1.2886;1.6758;
153.3000;1.2910;1.6832;
153.6000;1.2886;1.6783;
153.9000;1.2837;1.6561;
154.2000;1.2869;1.6610;
154.5000;1.2894;1.6783;
154.8000;1.2894;1.6733;
155.1000;1.2910;1.6783;
155.4000;1.2886;1.6709;
155.7000;1.2894;1.6709;
156.0000;1.2902;1.6684;
156.3000;1.2902;1.6783;
156.6000;1.2902;1.6758;
156.9000;1.2902;1.6758;
157.2000;1.2902;1.6733;
157.5000;1.2886;1.6709;
157.8000;1.2869;1.6783;
158.1000;1.2894;1.6807;
158.4000;1.2902;1.6881;
158.7000;1.2894;1.6881;
159.0000;1.2886;1.6832;
159.3000;1.2877;1.6856;
159.6000;1.2861;1.6856;
159.9000;1.2886;1.6955;
160.2000;1.2886;1.6856;
160.5000;1.2894;1.6906;
160.8000;1.2869;1.6955;
161.1000;1.2886;1.7004;
161.4000;1.2886;1.6955;
161.7000;1.2877;1.6832;
162.0000;1.2886;1.6832;
162.3000;1.2877;1.6832;
162.6000;1.2829;1.6709;
162.9000;1.2877;1.6832;
163.2000;1.2886;1.6807;
163.5000;1.2886;1.6832;
163.8000;1.2886;1.6832;
164.1000;1.2877;1.6783;
164.4000;1.2918;1.6807;
164.7000;1.2886;1.6807;
165.0000;1.2877;1.6709;
165.3000;1.2886;1.6709;
165.6000;1.2894;1.6635;
165.9000;1.2796;1.6389;
166.2000;1.2902;1.6660;
166.5000;1.2902;1.6783;
166.8000;1.2886;1.6758;
167.1000;1.2902;1.6807;
167.4000;1.2910;1.6832;
167.7000;1.2910;1.6832;
168.0000;1.2910;1.6832;
168.3000;1.2910;1.6930;
168.6000;1.2918;1.7004;
168.9000;1.2918;1.6979;
169.2000;1.2918;1.6955;
169.5000;1.2910;1.6881;
169.8000;1.2877;1.6783;
170.1000;1.2853;1.6709;
170.4000;1.2869;1.6660;
170.7000;1.2902;1.6733;
171.0000;1.2877;1.6684;
171.3000;1.2902;1.6906;
171.6000;1.2902;1.6856;
171.9000;1.2902;1.6930;
172.2000;1.2894;1.6881;
172.5000;1.2894;1.6881;
172.8000;1.2877;1.6856;
173.1000;1.2910;1.7004;
173.4000;1.2845;1.6856;
173.7000;1.2902;1.6856;
174.0000;1.2902;1.6807;
174.3000;1.2959;1.6930;
174.6000;1.2902;1.6733;
174.9000;1.2869;1.6709;
175.2000;1.2861;1.6709;
175.5000;1.2902;1.6856;
175.8000;1.2886;1.6783;
176.1000;1.2886;1.6733;
176.4000;1.2894;1.6684;
176.7000;1.2910;1.6684;
177.0000;1.2902;1.6684;
177.3000;1.2926;1.6709;
177.6000;1.2902;1.6807;
177.9000;1.2894;1.6856;
178.2000;1.2877;1.6733;
178.5000;1.2902;1.6783;
178.8000;1.2902;1.6783;
179.1000;1.2894;1.6807;
179.4000;1.2902;1.6783;
179.7000;1.2877;1.6783;
180.0000;1.2918;1.6930;
180.3000;1.2869;1.6832;
180.6000;1.2894;1.6881;
180.9000;1.2886;1.6832;
181.2000;1.2869;1.6733;
181.5000;1.2910;1.6856;
181.8000;1.2902;1.6758;
182.1000;1.2902;1.6733;
182.4000;1.2877;1.6610;
182.7000;1.2886;1.6684;
183.0000;1.2886;1.6709;
183.3000;1.2886;1.6733;
183.6000;1.2886;1.6733;
183.9000;1.2894;1.6709;
184.2000;1.2951;1.6881;
184.5000;1.2877;1.6733;
184.8000;1.2886;1.6635;
185.1000;1.2869;1.6463;
185.4000;1.2894;1.6561;
185.7000;1.2894;1.6660;
186.0000;1.2886;1.6660;
186.3000;1.2983;1.6906;
186.6000;1.2886;1.6709;
186.9000;1.2943;1.6783;
187.2000;1.2894;1.6660;
187.5000;1.2845;1.6438;
187.8000;1.2894;1.6586;
188.1000;1.2902;1.6586;
188.4000;1.2886;1.6660;
188.7000;1.2877;1.6586;
189.0000;1.2877;1.6610;
189.3000;1.2910;1.6660;
189.6000;1.2918;1.6610;
189.9000;1.2886;1.6537;
190.2000;1.2902;1.6610;
190.5000;1.2894;1.6660;
190.8000;1.2877;1.6537;
191.1000;1.2837;1.6487;
191.4000;1.2853;1.6561;
191.7000;1.2902;1.6487;
192.0000;1.2902;1.6438;
192.3000;1.2894;1.6389;
192.6000;1.2886;1.6340;
192.9000;1.2886;1.6413;
193.2000;1.2886;1.6438;
193.5000;1.2886;1.6537;
193.8000;1.2886;1.6586;
194.1000;1.2886;1.6635;
194.4000;1.2894;1.6709;
194.7000;1.2894;1.6709;
195.0000;1.2894;1.6684;
195.3000;1.2894;1.6561;
195.6000;1.2894;1.6586;
195.9000;1.2902;1.6684;
196.2000;1.2886;1.6660;
196.5000;1.2910;1.6684;
196.8000;1.2902;1.6660;
197.1000;1.2886;1.6561;
197.4000;1.2902;1.6684;
197.7000;1.2886;1.6660;
198.0000;1.2894;1.6709;
198.3000;1.2886;1.6610;
198.6000;1.2918;1.6709;
198.9000;1.2910;1.6856;
199.2000;1.2861;1.6660;
199.5000;1.2910;1.6807;
199.8000;1.2902;1.6709;
200.1000;1.2861;1.6660;
200.4000;1.2877;1.6684;
200.7000;1.2861;1.6610;
201.0000;1.2894;1.6635;
201.3000;1.2894;1.6463;
201.6000;1.2861;1.6340;
201.9000;1.2894;1.6438;
202.2000;1.2910;1.6512;
202.5000;1.2902;1.6610;
202.8000;1.2886;1.6561;
203.1000;1.2894;1.6561;
203.4000;1.2902;1.6635;
203.7000;1.2902;1.6709;
204.0000;1.2910;1.6783;
204.3000;1.2853;1.6660;
204.6000;1.2967;1.6881;
204.9000;1.2943;1.6807;
205.2000;1.2910;1.6660;
205.5000;1.2902;1.6660;
205.8000;1.2861;1.6463;
206.1000;1.2877;1.6487;
206.4000;1.2886;1.6660;
206.7000;1.2926;1.6586;
207.0000;1.2877;1.6438;
207.3000;1.2910;1.6438;
207.6000;1.2886;1.6438;
207.9000;1.2894;1.6512;
208.2000;1.2869;1.6463;
208.5000;1.2894;1.6561;
208.8000;1.2886;1.6561;
209.1000;1.2886;1.6586;
209.4000;1.2886;1.6561;
209.7000;1.2886;1.6586;
210.0000;1.2910;1.6537;
210.3000;1.2910;1.6537;
210.6000;1.2877;1.6389;
210.9000;1.2894;1.6438;
211.2000;1.2869;1.6266;
211.5000;1.2894;1.6315;
211.8000;1.2894;1.6389;
212.1000;1.2902;1.6340;
212.4000;1.2910;1.6315;
212.7000;1.2869;1.6290;
213.0000;1.2894;1.6364;
213.3000;1.2943;1.6463;
213.6000;1.2910;1.6364;
213.9000;1.2902;1.6315;
214.2000;1.2894;1.6389;
214.5000;1.2886;1.6364;
214.8000;1.2902;1.6389;
215.1000;1.2902;1.6438;
215.4000;1.2894;1.6463;
215.7000;1.2886;1.6561;
216.0000;1.2877;1.6635;
216.3000;1.2886;1.6684;
216.6000;1.2886;1.6586;
216.9000;1.2886;1.6684;
217.2000;1.2877;1.6684;
217.5000;1.2861;1.6733;
217.8000;1.2894;1.6807;
218.1000;1.2877;1.6758;
218.4000;1.2886;1.6758;
218.7000;1.2902;1.6783;
219.0000;1.2886;1.6783;
219.3000;1.2886;1.6807;
219.6000;1.2886;1.6783;
219.9000;1.2894;1.6733;
220.2000;1.2894;1.6660;
220.5000;1.2886;1.6733;
220.8000;1.2886;1.6709;
221.1000;1.2877;1.6635;
221.4000;1.2869;1.6660;
221.7000;1.2894;1.6635;
222.0000;1.2902;1.6733;
222.3000;1.2894;1.6684;
222.6000;1.2902;1.6660;
222.9000;1.2902;1.6660;
223.2000;1.2894;1.6635;
223.5000;1.2918;1.6684;
223.8000;1.2886;1.6487;
224.1000;1.2918;1.6610;
224.4000;1.2869;1.6610;
224.7000;1.2910;1.6783;
225.0000;1.2894;1.6733;
225.3000;1.2902;1.6660;
225.6000;1.2926;1.6783;
225.9000;1.2902;1.6660;
226.2000;1.2894;1.6635;
226.5000;1.2869;1.6684;
226.8000;1.2926;1.6906;
227.1000;1.2821;1.6709;
227.4000;1.2877;1.6783;
227.7000;1.2877;1.6881;
228.0000;1.2861;1.6807;
228.3000;1.2902;1.6832;
228.6000;1.2902;1.6856;
228.9000;1.2886;1.6783;
229.2000;1.2902;1.6832;
229.5000;1.2910;1.6807;
229.8000;1.2886;1.6758;
230.1000;1.2894;1.6783;
230.4000;1.2877;1.6807;
230.7000;1.2886;1.6783;
231.0000;1.2886;1.6660;
231.3000;1.2829;1.6389;
231.6000;1.2894;1.6487;
231.9000;1.2910;1.6438;
232.2000;1.2886;1.6364;
232.5000;1.2886;1.6389;
232.8000;1.2886;1.6389;
233.1000;1.2886;1.6487;
233.4000;1.2894;1.6561;
233.7000;1.2877;1.6610;
234.0000;1.2894;1.6635;
234.3000;1.2894;1.6610;
234.6000;1.2894;1.6610;
234.9000;1.2902;1.6635;
235.2000;1.2926;1.6660;
235.5000;1.2894;1.6610;
235.8000;1.2902;1.6586;
236.1000;1.2902;1.6635;
236.4000;1.2894;1.6561;
236.7000;1.2886;1.6463;
237.0000;1.2894;1.6487;
237.3000;1.2886;1.6586;
237.6000;1.2886;1.6660;
237.9000;1.2869;1.6660;
238.2000;1.2877;1.6635;
238.5000;1.2869;1.6463;
238.8000;1.2902;1.6364;
239.1000;1.2886;1.6413;
239.4000;1.2812;1.6315;
239.7000;1.2894;1.6660;
240.0000;1.2894;1.6758;
240.3000;1.2894;1.6709;
240.6000;1.2926;1.6733;
240.9000;1.2910;1.6660;
241.2000;1.2910;1.6610;
241.5000;1.2894;1.6537;
241.8000;1.2886;1.6610;
242.1000;1.2910;1.6684;
242.4000;1.2902;1.6660;
242.7000;1.2877;1.6537;
243.0000;1.2877;1.6463;
243.3000;1.2877;1.6537;
243.6000;1.2861;1.6586;
243.9000;1.2894;1.6586;
244.2000;1.2877;1.6537;
244.5000;1.2886;1.6512;
244.8000;1.2918;1.6758;
245.1000;1.2910;1.6660;
245.4000;1.2877;1.6561;
245.7000;1.2886;1.6487;
246.0000;1.2894;1.6586;
246.3000;1.2853;1.6610;
246.6000;1.2902;1.6709;
246.9000;1.2902;1.6684;
247.2000;1.2886;1.6709;
247.5000;1.2894;1.6684;
247.8000;1.2918;1.6783;
248.1000;1.2910;1.6758;
248.4000;1.2902;1.6758;
248.7000;1.2918;1.6783;
249.0000;1.2934;1.6783;
249.3000;1.2845;1.6660;
249.6000;1.2894;1.6758;
249.9000;1.2877;1.6758;
250.2000;1.2894;1.6758;
250.5000;1.2894;1.6758;
250.8000;1.2902;1.6733;
251.1000;1.2886;1.6635;
251.4000;1.2886;1.6709;
251.7000;1.2886;1.6733;
252.0000;1.2894;1.6733;
252.3000;1.2910;1.6758;
252.6000;1.2886;1.6758;
252.9000;1.2894;1.6709;
253.2000;1.2877;1.6635;
253.5000;1.2894;1.6660;
253.8000;1.2894;1.6635;
254.1000;1.2894;1.6709;
254.4000;1.2886;1.6610;
254.7000;1.2886;1.6512;
255.0000;1.2886;1.6438;
255.3000;1.2886;1.6537;
255.6000;1.2877;1.6561;
255.9000;1.2894;1.6586;
256.2000;1.2894;1.6684;
256.5000;1.2886;1.6709;
256.8000;1.2894;1.6807;
257.1000;1.2894;1.6832;
257.4000;1.2910;1.6906;
257.7000;1.2894;1.6758;
258.0000;1.2902;1.6758;
258.3000;1.2894;1.6733;
258.6000;1.2902;1.6733;
258.9000;1.2894;1.6758;
259.2000;1.2918;1.6758;
259.5000;1.2894;1.6709;
259.8000;1.2902;1.6709;
260.1000;1.2894;1.6635;
260.4000;1.2886;1.6635;
260.7000;1.2894;1.6610;
261.0000;1.2902;1.6512;
261.3000;1.2902;1.6537;
261.6000;1.2877;1.6537;
261.9000;1.2886;1.6660;
262.2000;1.2902;1.6635;
262.5000;1.2902;1.6586;
262.8000;1.2918;1.6660;
263.1000;1.2894;1.6586;
263.4000;1.2877;1.6586;
263.7000;1.2886;1.6586;
264.0000;1.2894;1.6684;
264.3000;1.2894;1.6709;
264.6000;1.2886;1.6684;
264.9000;1.2877;1.6660;
265.2000;1.2869;1.6635;
265.5000;1.2837;1.6438;
265.8000;1.2902;1.6586;
266.1000;1.2902;1.6586;
266.4000;1.2894;1.6537;
266.7000;1.2894;1.6512;
267.0000;1.2902;1.6512;
267.3000;1.2894;1.6512;
267.6000;1.2877;1.6463;
267.9000;1.2894;1.6660;
268.2000;1.2894;1.6635;
268.5000;1.2910;1.6610;
268.8000;1.2877;1.6586;
269.1000;1.2918;1.6537;
269.4000;1.2894;1.6463;
269.7000;1.2894;1.6463;
270.0000;1.2877;1.6463;
270.3000;1.2877;1.6438;
270.6000;1.2894;1.6512;
270.9000;1.2902;1.6463;
271.2000;1.2886;1.6561;
271.5000;1.2821;1.6438;
271.8000;1.2886;1.6610;
272.1000;1.2902;1.6709;
272.4000;1.2869;1.6709;
272.7000;1.2886;1.6807;
273.0000;1.2910;1.6856;
273.3000;1.2894;1.6832;
273.6000;1.2886;1.6758;
273.9000;1.2886;1.6807;
274.2000;1.2894;1.6733;
274.5000;1.2894;1.6709;
274.8000;1.2829;1.6660;
275.1000;1.2861;1.6709;
275.4000;1.2886;1.6733;
275.7000;1.2910;1.6807;
276.0000;1.2869;1.6709;
276.3000;1.2886;1.6783;
276.6000;1.2894;1.6758;
276.9000;1.2910;1.6758;
277.2000;1.2829;1.6463;
277.5000;1.2902;1.6635;
277.8000;1.2886;1.6561;
278.1000;1.2934;1.6684;
278.4000;1.2886;1.6660;
278.7000;1.2869;1.6709;
279.0000;1.2869;1.6709;
279.3000;1.2877;1.6758;
279.6000;1.2894;1.6783;
279.9000;1.2869;1.6635;
280.2000;1.2877;1.6586;
280.5000;1.2934;1.6586;
280.8000;1.2902;1.6512;
281.1000;1.2877;1.6463;
281.4000;1.2845;1.6537;
281.7000;1.2902;1.6635;
282.0000;1.2829;1.6537;
282.3000;1.2894;1.6684;
282.6000;1.2902;1.6635;
282.9000;1.2837;1.6561;
283.2000;1.2886;1.6733;
283.5000;1.2886;1.6881;
283.8000;1.2861;1.6807;
284.1000;1.2886;1.6783;
284.4000;1.2894;1.6832;
284.7000;1.2886;1.6881;
285.0000;1.2886;1.6832;
285.3000;1.2894;1.6856;
285.6000;1.2886;1.6807;
285.9000;1.2902;1.6807;
286.2000;1.2886;1.6684;
286.5000;1.2910;1.6635;
286.8000;1.2902;1.6635;
287.1000;1.2902;1.6635;
287.4000;1.2894;1.6660;
287.7000;1.2886;1.6660;
288.0000;1.2886;1.6610;
288.3000;1.2902;1.6684;
288.6000;1.2918;1.6733;
288.9000;1.2869;1.6660;
289.2000;1.2894;1.6660;
289.5000;1.2894;1.6709;
289.8000;1.2869;1.6660;
290.1000;1.2886;1.6586;
290.4000;1.2886;1.6635;
290.7000;1.2902;1.6733;
291.0000;1.2902;1.6733;
291.3000;1.2894;1.6758;
291.6000;1.2886;1.6709;
291.9000;1.2877;1.6758;
292.2000;1.2877;1.6832;
292.5000;1.2886;1.6881;
292.8000;1.2877;1.6881;
293.1000;1.2877;1.6832;
293.4000;1.2902;1.6856;
293.7000;1.2894;1.6832;
294.0000;1.2877;1.6758;
294.3000;1.2837;1.6635;
294.6000;1.2902;1.6807;
294.9000;1.2894;1.6832;
295.2000;1.2812;1.6684;
295.5000;1.2877;1.6783;
295.8000;1.2959;1.6906;
296.1000;1.2902;1.6783;
296.4000;1.2910;1.6856;
296.7000;1.2886;1.6807;
297.0000;1.2902;1.6856;
297.3000;1.2902;1.6709;
297.6000;1.2926;1.6856;
297.9000;1.2886;1.6709;
298.2000;1.2910;1.6660;
298.5000;1.2894;1.6610;
298.8000;1.2788;1.6315;
299.1000;1.2886;1.6610;
299.4000;1.2902;1.6512;
299.7000;1.2886;1.6561;
300.0000;1.2910;1.6660;
300.3000;1.2886;1.6635;
300.6000;1.2902;1.6512;
300.9000;1.2910;1.6512;
301.2000;1.2983;1.6783;
301.5000;1.2894;1.6635;
301.8000;1.2877;1.6586;
302.1000;1.2918;1.6635;
302.4000;1.2861;1.6463;
302.7000;1.2837;1.6413;
303.0000;1.2886;1.6537;
303.3000;1.2886;1.6487;
303.6000;1.2869;1.6438;
303.9000;1.2910;1.6586;
304.2000;1.2910;1.6561;
304.5000;1.2886;1.6586;
304.8000;1.2861;1.6463;
305.1000;1.2902;1.6586;
305.4000;1.2829;1.6413;
305.7000;1.2869;1.6537;
306.0000;1.2886;1.6586;
306.3000;1.2869;1.6586;
306.6000;1.2886;1.6684;
306.9000;1.2861;1.6586;
307.2000;1.2869;1.6635;
307.5000;1.2894;1.6660;
307.8000;1.2894;1.6807;
308.1000;1.2910;1.6807;
308.4000;1.2886;1.6635;
308.7000;1.2894;1.6586;
309.0000;1.2894;1.6660;
309.3000;1.2877;1.6709;
309.6000;1.2886;1.6660;
309.9000;1.2886;1.6660;
310.2000;1.2902;1.6709;
310.5000;1.2894;1.6684;
310.8000;1.2894;1.6758;
311.1000;1.2861;1.6783;
311.4000;1.2877;1.6758;
311.7000;1.2902;1.6733;
312.0000;1.2869;1.6684;
312.3000;1.2877;1.6684;
312.6000;1.2894;1.6758;
312.9000;1.2902;1.6807;
313.2000;1.2821;1.6635;
313.5000;1.2877;1.6783;
313.8000;1.2877;1.6783;
314.1000;1.2894;1.6807;
314.4000;1.2894;1.6807;
314.7000;1.2894;1.6783;
315.0000;1.2877;1.6733;
315.3000;1.2894;1.6783;
315.6000;1.2845;1.6709;
315.9000;1.2894;1.6832;
316.2000;1.2894;1.6856;
316.5000;1.2869;1.6807;
316.8000;1.2902;1.6881;
317.1000;1.2902;1.6832;
317.4000;1.2861;1.6807;
317.7000;1.2877;1.6856;
318.0000;1.2877;1.6881;
318.3000;1.2886;1.6881;
318.6000;1.2910;1.6930;
318.9000;1.2853;1.6709;
319.2000;1.2894;1.6856;
319.5000;1.2918;1.6856;
319.8000;1.2894;1.6709;
320.1000;1.2861;1.6635;
320.4000;1.2877;1.6660;
320.7000;1.2902;1.6758;
321.0000;1.2877;1.6758;
321.3000;1.2829;1.6635;
321.6000;1.2894;1.6733;
321.9000;1.2877;1.6807;
322.2000;1.2877;1.6856;
322.5000;1.2869;1.6783;
322.8000;1.2975;1.7053;
323.1000;1.2877;1.6832;
323.4000;1.2894;1.6832;
323.7000;1.2902;1.6856;
324.0000;1.2869;1.6807;
324.3000;1.2877;1.6906;
324.6000;1.2902;1.7029;
324.9000;1.2869;1.6930;
325.2000;1.2869;1.7004;
325.5000;1.2877;1.6979;
325.8000;1.2886;1.6930;
326.1000;1.2886;1.6881;
326.4000;1.2869;1.6856;
326.7000;1.2877;1.6856;
327.0000;1.2869;1.6807;
327.3000;1.2869;1.6832;
327.6000;1.2869;1.6807;
327.9000;1.2869;1.6783;
328.2000;1.2886;1.6807;
328.5000;1.2975;1.7078;
328.8000;1.2853;1.6807;
329.1000;1.2853;1.6783;
329.4000;1.2902;1.6733;
329.7000;1.2894;1.6660;
330.0000;1.2877;1.6512;
330.3000;1.2886;1.6660;
330.6000;1.2894;1.6709;
330.9000;1.2910;1.6758;
331.2000;1.2877;1.6635;
331.5000;1.2886;1.6660;
331.8000;1.2902;1.6733;
332.1000;1.2918;1.6733;
332.4000;1.2894;1.6733;
332.7000;1.2877;1.6635;
333.0000;1.2869;1.6610;
333.3000;1.2877;1.6586;
333.6000;1.2869;1.6537;
333.9000;1.2886;1.6610;
334.2000;1.2869;1.6660;
334.5000;1.2918;1.6733;
334.8000;1.2877;1.6758;
335.1000;1.2861;1.6832;
335.4000;1.2877;1.6832;
335.7000;1.2877;1.6832;
336.0000;1.2886;1.6856;
336.3000;1.2886;1.6807;
336.6000;1.2886;1.6807;
336.9000;1.2861;1.6856;
337.2000;1.2886;1.6881;
337.5000;1.2877;1.6881;
337.8000;1.2877;1.6881;
338.1000;1.2869;1.6807;
338.4000;1.2886;1.6807;
338.7000;1.2894;1.6832;
339.0000;1.2869;1.6709;
339.3000;1.2877;1.6832;
339.6000;1.2894;1.6783;
339.9000;1.2861;1.6758;
340.2000;1.2886;1.6758;
340.5000;1.2910;1.6807;
340.8000;1.2910;1.6758;
341.1000;1.2910;1.6733;
341.4000;1.2926;1.6832;
341.7000;1.2902;1.6758;
342.0000;1.2886;1.6684;
342.3000;1.2894;1.6783;
342.6000;1.2943;1.7029;
342.9000;1.2894;1.6906;
343.2000;1.2886;1.6930;
343.5000;1.2910;1.6930;
343.8000;1.2894;1.6733;
344.1000;1.2910;1.6660;
344.4000;1.2845;1.6561;
344.7000;1.2845;1.6586;
345.0000;1.2886;1.6733;
345.3000;1.2886;1.6660;
345.6000;1.2886;1.6709;
345.9000;1.2886;1.6660;
346.2000;1.2894;1.6635;
346.5000;1.2902;1.6684;
346.8000;1.2886;1.6635;
347.1000;1.2910;1.6660;
347.4000;1.2877;1.6561;
347.7000;1.2886;1.6537;
348.0000;1.2869;1.6463;
348.3000;1.2853;1.6487;
348.6000;1.2886;1.6537;
348.9000;1.2894;1.6561;
349.2000;1.2869;1.6512;
349.5000;1.2861;1.6487;
349.8000;1.2877;1.6487;
350.1000;1.2894;1.6512;
350.4000;1.2877;1.6487;
350.7000;1.2886;1.6512;
351.0000;1.2877;1.6463;
351.3000;1.2902;1.6438;
351.6000;1.2886;1.6512;
351.9000;1.2902;1.6709;
352.2000;1.2886;1.6610;
352.5000;1.2886;1.6635;
352.8000;1.2902;1.6660;
353.1000;1.2877;1.6586;
353.4000;1.2983;1.6881;
353.7000;1.2902;1.6635;
354.0000;1.2886;1.6660;
354.3000;1.2877;1.6684;
354.6000;1.2877;1.6660;
354.9000;1.2886;1.6660;
355.2000;1.2934;1.6709;
355.5000;1.2829;1.6438;
355.8000;1.2821;1.6315;
356.1000;1.2886;1.6413;
356.4000;1.2894;1.6315;
356.7000;1.2869;1.6340;
357.0000;1.2869;1.6389;
357.3000;1.2861;1.6290;
357.6000;1.2877;1.6413;
357.9000;1.2877;1.6364;
358.2000;1.2886;1.6389;
358.5000;1.2877;1.6413;
358.8000;1.2869;1.6413;
359.1000;1.2869;1.6438;
359.4000;1.2894;1.6561;
359.7000;1.2886;1.6635;
360.0000;1.2861;1.6635;
360.3000;1.2869;1.6586;
360.6000;1.2829;1.6413;
360.9000;1.2877;1.6537;
361.2000;1.2869;1.6537;
361.5000;1.2877;1.6537;
361.8000;1.2877;1.6561;
362.1000;1.2869;1.6660;
362.4000;1.2886;1.6807;
362.7000;1.2894;1.6832;
363.0000;1.2902;1.6881;
363.3000;1.2886;1.6709;
363.6000;1.2869;1.6610;
363.9000;1.2902;1.6586;
364.2000;1.2886;1.6561;
364.5000;1.2853;1.6463;
364.8000;1.2918;1.6610;
365.1000;1.2788;1.6340;
365.4000;1.2877;1.6610;
365.7000;1.2894;1.6561;
366.0000;1.2886;1.6561;
366.3000;1.2877;1.6561;
366.6000;1.2910;1.6709;
366.9000;1.2869;1.6635;
367.2000;1.2894;1.6733;
367.5000;1.2886;1.6635;
367.8000;1.2877;1.6610;
368.1000;1.2869;1.6487;
368.4000;1.2910;1.6487;
368.7000;1.2877;1.6487;
369.0000;1.2869;1.6463;
369.3000;1.2894;1.6487;
369.6000;1.2877;1.6463;
369.9000;1.2877;1.6463;
370.2000;1.2918;1.6561;
370.5000;1.2910;1.6438;
370.8000;1.2886;1.6413;
371.1000;1.2918;1.6586;
371.4000;1.2886;1.6537;
371.7000;1.2804;1.6389;
372.0000;1.2918;1.6586;
372.3000;1.2902;1.6512;
372.6000;1.2869;1.6487;
372.9000;1.2877;1.6635;
373.2000;1.2894;1.6684;
373.5000;1.2886;1.6684;
373.8000;1.2894;1.6660;
374.1000;1.2902;1.6684;
374.4000;1.2894;1.6660;
374.7000;1.2886;1.6660;
375.0000;1.2877;1.6733;
375.3000;1.2886;1.6758;
375.6000;1.2869;1.6783;
375.9000;1.2886;1.6832;
376.2000;1.2894;1.6832;
376.5000;1.2861;1.6733;
376.8000;1.2861;1.6684;
377.1000;1.2894;1.6733;
377.4000;1.2886;1.6733;
377.7000;1.2877;1.6733;
378.0000;1.2886;1.6832;
378.3000;1.2894;1.6930;
378.6000;1.2886;1.6832;
378.9000;1.2877;1.6733;
379.2000;1.2886;1.6758;
379.5000;1.2877;1.6684;
379.8000;1.2877;1.6610;
380.1000;1.2869;1.6635;
380.4000;1.2869;1.6635;
380.7000;1.2869;1.6610;
381.0000;1.2886;1.6635;
381.3000;1.2877;1.6537;
381.6000;1.2845;1.6487;
381.9000;1.2861;1.6561;
382.2000;1.2869;1.6610;
382.5000;1.2861;1.6610;
382.8000;1.2812;1.6537;
383.1000;1.2869;1.6684;
383.4000;1.2877;1.6709;
383.7000;1.2886;1.6635;
384.0000;1.2869;1.6561;
384.3000;1.2869;1.6610;
384.6000;1.2877;1.6709;
384.9000;1.2877;1.6758;
385.2000;1.2869;1.6733;
385.5000;1.2894;1.6709;
385.8000;1.2861;1.6684;
386.1000;1.2869;1.6684;
386.4000;1.2869;1.6610;
386.7000;1.2853;1.6561;
387.0000;1.2861;1.6684;
387.3000;1.2886;1.6856;
387.6000;1.2869;1.6856;
387.9000;1.2869;1.6906;
388.2000;1.2861;1.6856;
388.5000;1.2886;1.6832;
388.8000;1.2869;1.6758;
389.1000;1.2861;1.6783;
389.4000;1.2764;1.6487;
389.7000;1.2877;1.6783;
390.0000;1.2926;1.6906;
390.3000;1.2869;1.6807;
390.6000;1.2869;1.6709;
390.9000;1.2877;1.6733;
391.2000;1.2853;1.6561;
391.5000;1.2845;1.6537;
391.8000;1.2918;1.6709;
392.1000;1.2877;1.6561;
392.4000;1.2804;1.6537;
392.7000;1.2886;1.6881;
393.0000;1.2853;1.6733;
393.3000;1.2869;1.6709;
393.6000;1.2877;1.6758;
393.9000;1.2869;1.6856;
394.2000;1.2812;1.6660;
394.5000;1.2886;1.6856;
394.8000;1.2877;1.6856;
395.1000;1.2894;1.6832;
395.4000;1.2894;1.6807;
395.7000;1.2877;1.6758;
396.0000;1.2869;1.6783;
396.3000;1.2804;1.6709;
396.6000;1.2845;1.6758;
396.9000;1.2861;1.6807;
397.2000;1.2869;1.6807;
397.5000;1.2861;1.6660;
397.8000;1.2861;1.6660;
398.1000;1.2861;1.6709;
398.4000;1.2886;1.6783;
398.7000;1.2869;1.6733;
399.0000;1.2877;1.6783;
399.3000;1.2877;1.6906;
399.6000;1.2886;1.6906;
399.9000;1.2837;1.6660;
400.2000;1.2894;1.6783;
400.5000;1.2837;1.6660;
400.8000;1.2869;1.6684;
401.1000;1.2869;1.6758;
401.4000;1.2869;1.6758;
401.7000;1.2894;1.6783;
402.0000;1.2877;1.6807;
402.3000;1.2861;1.6856;
402.6000;1.2861;1.6881;
402.9000;1.2861;1.6906;
403.2000;1.2877;1.6930;
403.5000;1.2861;1.6783;
403.8000;1.2869;1.6881;
404.1000;1.2894;1.6906;
404.4000;1.2869;1.6832;
404.7000;1.2894;1.6856;
405.0000;1.2886;1.6856;
405.3000;1.2894;1.6832;
405.6000;1.2902;1.6906;
405.9000;1.2877;1.6856;
406.2000;1.2853;1.6807;
406.5000;1.2877;1.6832;
406.8000;1.2910;1.6906;
407.1000;1.2869;1.6906;
407.4000;1.2837;1.6955;
407.7000;1.2861;1.6930;
408.0000;1.2869;1.6930;
408.3000;1.2853;1.6881;
408.6000;1.2853;1.6930;
408.9000;1.2853;1.6881;
409.2000;1.2869;1.6930;
409.5000;1.2894;1.7078;
409.8000;1.2861;1.7029;
410.1000;1.2877;1.7029;
410.4000;1.2902;1.6979;
410.7000;1.2877;1.6906;
411.0000;1.2910;1.7029;
411.3000;1.2894;1.7004;
411.6000;1.2869;1.6979;
411.9000;1.2894;1.6906;
412.2000;1.2886;1.6832;
412.5000;1.2902;1.6906;
412.8000;1.2845;1.6758;
413.1000;1.2877;1.6783;
413.4000;1.2845;1.6586;
413.7000;1.2853;1.6610;
414.0000;1.2886;1.6635;
414.3000;1.2869;1.6733;
414.6000;1.2877;1.6709;
414.9000;1.2886;1.6733;
415.2000;1.2886;1.6684;
415.5000;1.2886;1.6684;
415.8000;1.2869;1.6537;
416.1000;1.2869;1.6537;
416.4000;1.2877;1.6586;
416.7000;1.2877;1.6684;
417.0000;1.2951;1.6783;
417.3000;1.2902;1.6709;
417.6000;1.2853;1.6586;
417.9000;1.2861;1.6561;
418.2000;1.2869;1.6684;
418.5000;1.2869;1.6660;
418.8000;1.2861;1.6586;
419.1000;1.2910;1.6684;
419.4000;1.2869;1.6610;
419.7000;1.2886;1.6758;
420.0000;1.2869;1.6832;
420.3000;1.2869;1.6881;
420.6000;1.2877;1.6906;
420.9000;1.2877;1.6955;
421.2000;1.2886;1.6906;
421.5000;1.2877;1.6856;
421.8000;1.2869;1.6856;
422.1000;1.2869;1.6832;
422.4000;1.2861;1.6807;
422.7000;1.2853;1.6832;
423.0000;1.2869;1.6906;
423.3000;1.2877;1.6832;
423.6000;1.2869;1.6807;
423.9000;1.2869;1.6733;
424.2000;1.2845;1.6684;
424.5000;1.2869;1.6783;
424.8000;1.2869;1.6856;
425.1000;1.2869;1.6906;
425.4000;1.2861;1.6881;
425.7000;1.2869;1.6906;
426.0000;1.2861;1.6906;
426.3000;1.2877;1.6955;
426.6000;1.2861;1.6881;
426.9000;1.2861;1.6856;
427.2000;1.2837;1.6832;
427.5000;1.2877;1.6930;
427.8000;1.2861;1.6758;
428.1000;1.2869;1.6733;
428.4000;1.2886;1.6807;
428.7000;1.2853;1.6733;
429.0000;1.2861;1.6807;
429.3000;1.2845;1.6758;
429.6000;1.2853;1.6783;
429.9000;1.2853;1.6832;
430.2000;1.2869;1.6881;
430.5000;1.2861;1.6783;
430.8000;1.2861;1.6758;
431.1000;1.2861;1.6856;
431.4000;1.2869;1.6930;
431.7000;1.2910;1.6955;
432.0000;1.2853;1.6832;
432.3000;1.2918;1.7102;
432.6000;1.2861;1.6930;
432.9000;1.2877;1.6979;
433.2000;1.2829;1.6881;
433.5000;1.2861;1.6979;
433.8000;1.2902;1.7053;
434.1000;1.2853;1.6955;
434.4000;1.2861;1.6955;
434.7000;1.2861;1.7053;
435.0000;1.2894;1.7004;
435.3000;1.2861;1.6906;
435.6000;1.2877;1.6930;
435.9000;1.2894;1.6979;
436.2000;1.2861;1.6930;
436.5000;1.2886;1.6930;
436.8000;1.2902;1.7053;
437.1000;1.2869;1.6881;
437.4000;1.2869;1.6906;
437.7000;1.2877;1.6930;
438.0000;1.2869;1.6979;
438.3000;1.2886;1.7004;
438.6000;1.2861;1.6906;
438.9000;1.2869;1.6955;
439.2000;1.2886;1.6906;
439.5000;1.2853;1.6856;
439.8000;1.2861;1.6930;
440.1000;1.2869;1.6906;
440.4000;1.2853;1.6930;
440.7000;1.2845;1.6979;
441.0000;1.2869;1.6906;
441.3000;1.2861;1.6955;
441.6000;1.2861;1.6955;
441.9000;1.2853;1.6955;
442.2000;1.2853;1.6930;
442.5000;1.2886;1.7078;
442.8000;1.2894;1.7152;
443.1000;1.2869;1.7004;
443.4000;1.2869;1.7004;
443.7000;1.2877;1.7004;
444.0000;1.2869;1.6930;
444.3000;1.2877;1.6955;
444.6000;1.2877;1.6881;
444.9000;1.2869;1.6881;
445.2000;1.2894;1.6856;
445.5000;1.2869;1.6856;
445.8000;1.2861;1.6783;
446.1000;1.2869;1.6807;
446.4000;1.2877;1.6807;
446.7000;1.2861;1.6807;
447.0000;1.2869;1.6832;
447.3000;1.2869;1.6783;
447.6000;1.2877;1.6684;
447.9000;1.2886;1.6733;
448.2000;1.2877;1.6635;
448.5000;1.2861;1.6660;
448.8000;1.2886;1.6807;
449.1000;1.2877;1.6709;
449.4000;1.2877;1.6610;
449.7000;1.2877;1.6610;
450.0000;1.2877;1.6660;
450.3000;1.2869;1.6684;
450.6000;1.2845;1.6783;
450.9000;1.2837;1.6733;
451.2000;1.2837;1.6807;
451.5000;1.2869;1.6930;
451.8000;1.2853;1.6930;
452.1000;1.2845;1.6832;
452.4000;1.2837;1.6906;
452.7000;1.2869;1.6955;
453.0000;1.2869;1.6881;
453.3000;1.2869;1.6832;
453.6000;1.2869;1.6807;
453.9000;1.2869;1.6733;
454.2000;1.2886;1.6807;
454.5000;1.2845;1.6758;
454.8000;1.2869;1.6807;
455.1000;1.2869;1.6733;
455.4000;1.2886;1.6709;
455.7000;1.2812;1.6586;
456.0000;1.2861;1.6684;
456.3000;1.2861;1.6561;
456.6000;1.2869;1.6660;
456.9000;1.2853;1.6635;
457.2000;1.2845;1.6660;
457.5000;1.2861;1.6733;
457.8000;1.2853;1.6758;
458.1000;1.2869;1.6807;
458.4000;1.2845;1.6733;
458.7000;1.2877;1.6660;
459.0000;1.2877;1.6586;
459.3000;1.2902;1.6635;
459.6000;1.2853;1.6537;
459.9000;1.2845;1.6438;
460.2000;1.2861;1.6463;
460.5000;1.2845;1.6561;
460.8000;1.2861;1.6684;
461.1000;1.2853;1.6709;
461.4000;1.2861;1.6610;
461.7000;1.2861;1.6586;
462.0000;1.2829;1.6512;
462.3000;1.2869;1.6684;
462.6000;1.2886;1.6783;
462.9000;1.2837;1.6660;
463.2000;1.2902;1.6832;
463.5000;1.2869;1.6807;
463.8000;1.2902;1.6856;
464.1000;1.2877;1.6709;
464.4000;1.2877;1.6684;
464.7000;1.2861;1.6684;
465.0000;1.2869;1.6709;
465.3000;1.2853;1.6758;
465.6000;1.2861;1.6758;
465.9000;1.2877;1.6758;
466.2000;1.2853;1.6709;
466.5000;1.2837;1.6733;
466.8000;1.2861;1.6758;
467.1000;1.2812;1.6586;
467.4000;1.2853;1.6783;
467.7000;1.2869;1.6881;
468.0000;1.2853;1.6881;
468.3000;1.2861;1.6906;
468.6000;1.2886;1.6906;
468.9000;1.2877;1.6881;
469.2000;1.2869;1.6881;
469.5000;1.2821;1.6783;
469.8000;1.2943;1.6979;
470.1000;1.2886;1.6832;
470.4000;1.2943;1.7029;
470.7000;1.2877;1.6979;
471.0000;1.2796;1.6783;
471.3000;1.2861;1.6832;
471.6000;1.2853;1.6807;
471.9000;1.2894;1.6955;
472.2000;1.2861;1.6930;
472.5000;1.2877;1.6930;
472.8000;1.2877;1.6856;
473.1000;1.2869;1.6783;
473.4000;1.2894;1.6930;
473.7000;1.2861;1.6930;
474.0000;1.2853;1.6930;
474.3000;1.2861;1.6955;
474.6000;1.2853;1.6930;
474.9000;1.2869;1.6955;
475.2000;1.2902;1.7029;
475.5000;1.2853;1.6930;
475.8000;1.2861;1.6906;
476.1000;1.2877;1.6930;
476.4000;1.2877;1.6930;
476.7000;1.2780;1.6610;
477.0000;1.2853;1.6807;
477.3000;1.2869;1.6856;
477.6000;1.2845;1.6733;
477.9000;1.2869;1.6709;
478.2000;1.2853;1.6807;
478.5000;1.2861;1.6881;
478.8000;1.2853;1.6930;
479.1000;1.2837;1.6906;
479.4000;1.2869;1.6881;
479.7000;1.2902;1.6930;
480.0000;1.2877;1.6906;
480.3000;1.2869;1.6881;
480.6000;1.2845;1.6832;
480.9000;1.2861;1.6758;
481.2000;1.2861;1.6783;
481.5000;1.2861;1.6733;
481.8000;1.2886;1.6733;
482.1000;1.2877;1.6733;
482.4000;1.2845;1.6635;
482.7000;1.2869;1.6635;
483.0000;1.2861;1.6586;
483.3000;1.2877;1.6660;
483.6000;1.2886;1.6660;
483.9000;1.2869;1.6684;
484.2000;1.2853;1.6660;
484.5000;1.2845;1.6586;
484.8000;1.2853;1.6733;
485.1000;1.2853;1.6758;
485.4000;1.2845;1.6783;
485.7000;1.2837;1.6709;
486.0000;1.2845;1.6758;
486.3000;1.2845;1.6733;
486.6000;1.2845;1.6709;
486.9000;1.2853;1.6758;
487.2000;1.2853;1.6783;
487.5000;1.2861;1.6832;
487.8000;1.2788;1.6586;
488.1000;1.2837;1.6684;
488.4000;1.2853;1.6684;
488.7000;1.2861;1.6733;
489.0000;1.2869;1.6709;
489.3000;1.2845;1.6660;
489.6000;1.2853;1.6660;
489.9000;1.2853;1.6610;
490.2000;1.2861;1.6537;
490.5000;1.2853;1.6537;
490.8000;1.2853;1.6610;
491.1000;1.2845;1.6537;
491.4000;1.2886;1.6709;
491.7000;1.2853;1.6610;
492.0000;1.2861;1.6586;
492.3000;1.2853;1.6660;
492.6000;1.2902;1.6758;
492.9000;1.2861;1.6709;
493.2000;1.2853;1.6733;
493.5000;1.2845;1.6758;
493.8000;1.2877;1.6856;
494.1000;1.2861;1.6807;
494.4000;1.2861;1.6758;
494.7000;1.2861;1.6733;
495.0000;1.2886;1.6660;
495.3000;1.2869;1.6635;
495.6000;1.2877;1.6733;
495.9000;1.2861;1.6660;
496.2000;1.2869;1.6684;
496.5000;1.2853;1.6635;
496.8000;1.2869;1.6660;
497.1000;1.2861;1.6684;
497.4000;1.2869;1.6733;
497.7000;1.2853;1.6709;
498.0000;1.2869;1.6733;
498.3000;1.2861;1.6733;
498.6000;1.2853;1.6684;
498.9000;1.2853;1.6660;
499.2000;1.2877;1.6758;
499.5000;1.2853;1.6684;
499.8000;1.2821;1.6610;
500.1000;1.2853;1.6635;
500.4000;1.2861;1.6610;
500.7000;1.2829;1.6561;
501.0000;1.2853;1.6660;
501.3000;1.2861;1.6758;
501.6000;1.2853;1.6733;
501.9000;1.2837;1.6733;
502.2000;1.2845;1.6709;
502.5000;1.2837;1.6512;
502.8000;1.2853;1.6512;
503.1000;1.2837;1.6463;
503.4000;1.2845;1.6537;
503.7000;1.2853;1.6586;
504.0000;1.2861;1.6512;
504.3000;1.2861;1.6561;
504.6000;1.2837;1.6586;
504.9000;1.2845;1.6635;
505.2000;1.2845;1.6635;
505.5000;1.2853;1.6586;
505.8000;1.2877;1.6586;
506.1000;1.2837;1.6610;
506.4000;1.2861;1.6758;
506.7000;1.2853;1.6807;
507.0000;1.2869;1.6709;
507.3000;1.2845;1.6660;
507.6000;1.2853;1.6660;
507.9000;1.2869;1.6783;
508.2000;1.2853;1.6856;
508.5000;1.2869;1.6783;
508.8000;1.2845;1.6733;
509.1000;1.2853;1.6684;
509.4000;1.2869;1.6610;
509.7000;1.2869;1.6635;
510.0000;1.2853;1.6610;
510.3000;1.2853;1.6586;
510.6000;1.2853;1.6610;
510.9000;1.2861;1.6610;
511.2000;1.2861;1.6561;
511.5000;1.2796;1.6487;
511.8000;1.2845;1.6561;
512.1000;1.2861;1.6610;
512.4000;1.2877;1.6684;
512.7000;1.2845;1.6660;
513.0000;1.2853;1.6660;
513.3000;1.2837;1.6586;
513.6000;1.2837;1.6487;
513.9000;1.2853;1.6463;
514.2000;1.2821;1.6340;
514.5000;1.2877;1.6512;
514.8000;1.2861;1.6586;
515.1000;1.2853;1.6684;
515.4000;1.2837;1.6660;
515.7000;1.2869;1.6684;
516.0000;1.2869;1.6610;
516.3000;1.2869;1.6561;
516.6000;1.2877;1.6586;
516.9000;1.2869;1.6660;
517.2000;1.2877;1.6684;
517.5000;1.2853;1.6709;
517.8000;1.2861;1.6709;
518.1000;1.2877;1.6660;
518.4000;1.2845;1.6660;
518.7000;1.2853;1.6709;
519.0000;1.2861;1.6709;
519.3000;1.2853;1.6660;
519.6000;1.2861;1.6684;
519.9000;1.2869;1.6783;
520.2000;1.2869;1.6807;
520.5000;1.2845;1.6758;
520.8000;1.2869;1.6832;
521.1000;1.2861;1.6832;
521.4000;1.2845;1.6807;
521.7000;1.2853;1.6783;
522.0000;1.2861;1.6807;
522.3000;1.2877;1.6930;
522.6000;1.2861;1.6881;
522.9000;1.2861;1.6930;
523.2000;1.2837;1.6955;
523.5000;1.2853;1.7004;
523.8000;1.2861;1.7053;
524.1000;1.2829;1.7004;
524.4000;1.2812;1.6906;
524.7000;1.2861;1.6955;
525.0000;1.2869;1.6906;
525.3000;1.2837;1.6733;
525.6000;1.2869;1.6783;
525.9000;1.2861;1.6807;
526.2000;1.2845;1.6783;
526.5000;1.2910;1.6955;
526.8000;1.2861;1.6906;
527.1000;1.2845;1.6856;
527.4000;1.2845;1.6758;
527.7000;1.2829;1.6684;
528.0000;1.2837;1.6684;
528.3000;1.2853;1.6684;
528.6000;1.2829;1.6610;
528.9000;1.2837;1.6561;
529.2000;1.2837;1.6537;
529.5000;1.2829;1.6512;
529.8000;1.2804;1.6438;
530.1000;1.2845;1.6660;
530.4000;1.2886;1.6758;
530.7000;1.2869;1.6758;
531.0000;1.2845;1.6684;
531.3000;1.2812;1.6586;
531.6000;1.2845;1.6684;
531.9000;1.2845;1.6684;
532.2000;1.2853;1.6733;
532.5000;1.2861;1.6684;
532.8000;1.2788;1.6537;
533.1000;1.2861;1.6832;
533.4000;1.2861;1.6881;
533.7000;1.2853;1.6881;
534.0000;1.2886;1.6979;
534.3000;1.2877;1.7004;
534.6000;1.2845;1.6955;
534.9000;1.2853;1.6856;
535.2000;1.2861;1.6856;
535.5000;1.2845;1.6783;
535.8000;1.2772;1.6610;
536.1000;1.2829;1.6709;
536.4000;1.2837;1.6733;
536.7000;1.2837;1.6758;
537.0000;1.2837;1.6709;
537.3000;1.2788;1.6635;
537.6000;1.2853;1.6881;
537.9000;1.2812;1.6906;
538.2000;1.2821;1.6955;
538.5000;1.2861;1.7127;
538.8000;1.2845;1.7201;
539.1000;1.2837;1.7201;
539.4000;1.2821;1.7078;
539.7000;1.2829;1.7152;
540.0000;1.2829;1.7078;
540.3000;1.2853;1.7029;
540.6000;1.2829;1.7004;
540.9000;1.2845;1.7004;
541.2000;1.2837;1.6930;
541.5000;1.2853;1.7029;
541.8000;1.2845;1.6881;
542.1000;1.2845;1.6906;
542.4000;1.2861;1.6881;
542.7000;1.2853;1.6955;
543.0000;1.2869;1.6979;
543.3000;1.2845;1.6979;
543.6000;1.2837;1.6906;
543.9000;1.2853;1.6783;
544.2000;1.2861;1.6733;
544.5000;1.2829;1.6733;
544.8000;1.2886;1.6955;
545.1000;1.2837;1.6783;
545.4000;1.2845;1.6930;
545.7000;1.2796;1.6758;
546.0000;1.2837;1.6832;
546.3000;1.2821;1.6783;
546.6000;1.2845;1.6807;
546.9000;1.2845;1.6733;
547.2000;1.2877;1.6881;
547.5000;1.2837;1.6758;
547.8000;1.2861;1.6856;
548.1000;1.2845;1.6856;
548.4000;1.2853;1.6807;
548.7000;1.2845;1.6807;
549.0000;1.2853;1.6783;
549.3000;1.2853;1.6856;
549.6000;1.2821;1.6733;
549.9000;1.2829;1.6783;
550.2000;1.2829;1.6709;
550.5000;1.2845;1.6758;
550.8000;1.2837;1.6807;
551.1000;1.2829;1.6783;
551.4000;1.2853;1.6807;
551.7000;1.2845;1.6807;
552.0000;1.2845;1.6881;
552.3000;1.2772;1.6660;
552.6000;1.2804;1.6709;
552.9000;1.2845;1.6758;
553.2000;1.2845;1.6807;
553.5000;1.2837;1.6881;
553.8000;1.2910;1.7053;
554.1000;1.2845;1.6783;
554.4000;1.2853;1.6832;
554.7000;1.2845;1.6783;
555.0000;1.2845;1.6783;
555.3000;1.2837;1.6783;
555.6000;1.2837;1.6783;
555.9000;1.2853;1.6881;
556.2000;1.2845;1.6832;
556.5000;1.2853;1.6856;
556.8000;1.2845;1.6856;
557.1000;1.2853;1.6881;
557.4000;1.2853;1.6856;
557.7000;1.2853;1.6832;
558.0000;1.2837;1.6758;
558.3000;1.2861;1.6783;
558.6000;1.2869;1.6881;
558.9000;1.2845;1.6832;
559.2000;1.2853;1.6832;
559.5000;1.2877;1.6832;
559.8000;1.2853;1.6783;
560.1000;1.2861;1.6807;
560.4000;1.2853;1.6832;
560.7000;1.2853;1.6881;
561.0000;1.2845;1.6832;
561.3000;1.2853;1.6832;
561.6000;1.2837;1.6807;
561.9000;1.2861;1.6832;
562.2000;1.2837;1.6856;
562.5000;1.2853;1.6881;
562.8000;1.2853;1.6881;
563.1000;1.2853;1.6930;
563.4000;1.2837;1.6881;
563.7000;1.2845;1.6881;
564.0000;1.2829;1.6783;
564.3000;1.2861;1.6881;
564.6000;1.2837;1.6881;
564.9000;1.2845;1.6930;
565.2000;1.2845;1.6979;
565.5000;1.2853;1.6955;
565.8000;1.2853;1.6930;
566.1000;1.2853;1.6930;
566.4000;1.2853;1.6906;
566.7000;1.2837;1.6758;
567.0000;1.2853;1.6733;
567.3000;1.2877;1.6783;
567.6000;1.2764;1.6561;
567.9000;1.2821;1.6684;
568.2000;1.2845;1.6660;
568.5000;1.2837;1.6684;
568.8000;1.2910;1.6832;
569.1000;1.2829;1.6610;
569.4000;1.2821;1.6610;
569.7000;1.2877;1.6709;
570.0000;1.2837;1.6635;
570.3000;1.2821;1.6660;
570.6000;1.2845;1.6709;
570.9000;1.2845;1.6758;
571.2000;1.2788;1.6660;
571.5000;1.2812;1.6758;
571.8000;1.2837;1.6758;
572.1000;1.2861;1.6881;
572.4000;1.2853;1.6930;
572.7000;1.2877;1.7029;
573.0000;1.2837;1.6807;
573.3000;1.2788;1.6758;
573.6000;1.2853;1.6856;
573.9000;1.2837;1.6832;
574.2000;1.2837;1.6906;
574.5000;1.2837;1.6832;
574.8000;1.2837;1.6807;
575.1000;1.2853;1.6881;
575.4000;1.2853;1.6832;
575.7000;1.2812;1.6783;
576.0000;1.2861;1.6807;
576.3000;1.2853;1.6783;
576.6000;1.2845;1.6832;
576.9000;1.2829;1.6733;
577.2000;1.2845;1.6758;
577.5000;1.2861;1.6807;
577.8000;1.2853;1.6758;
578.1000;1.2845;1.6758;
578.4000;1.2845;1.6758;
578.7000;1.2853;1.6807;
579.0000;1.2845;1.6758;
579.3000;1.2853;1.6832;
579.6000;1.2861;1.6832;
579.9000;1.2837;1.6758;
580.2000;1.2845;1.6758;
580.5000;1.2845;1.6733;
580.8000;1.2829;1.6758;
581.1000;1.2853;1.6906;
581.4000;1.2861;1.7029;
581.7000;1.2853;1.7004;
582.0000;1.2837;1.6906;
582.3000;1.2845;1.6881;
582.6000;1.2804;1.6807;
582.9000;1.2837;1.6881;
583.2000;1.2861;1.6881;
583.5000;1.2845;1.6733;
583.8000;1.2845;1.6733;
584.1000;1.2837;1.6758;
584.4000;1.2837;1.6832;
584.7000;1.2812;1.6856;
585.0000;1.2894;1.7078;
585.3000;1.2845;1.6979;
585.6000;1.2837;1.6906;
585.9000;1.2837;1.6807;
586.2000;1.2829;1.6856;
586.5000;1.2845;1.6881;
586.8000;1.2812;1.6758;
587.1000;1.2821;1.6709;
587.4000;1.2772;1.6561;
587.7000;1.2829;1.6684;
588.0000;1.2837;1.6660;
588.3000;1.2845;1.6660;
588.6000;1.2788;1.6635;
588.9000;1.2821;1.6660;
589.2000;1.2853;1.6684;
589.5000;1.2837;1.6561;
589.8000;1.2821;1.6537;
590.1000;1.2845;1.6610;
590.4000;1.2845;1.6610;
590.7000;1.2910;1.6709;
591.0000;1.2845;1.6512;
591.3000;1.2845;1.6561;
591.6000;1.2837;1.6512;
591.9000;1.2845;1.6586;
592.2000;1.2837;1.6561;
592.5000;1.2845;1.6610;
592.8000;1.2853;1.6733;
593.1000;1.2821;1.6684;
593.4000;1.2829;1.6709;
593.7000;1.2829;1.6733;
594.0000;1.2796;1.6684;
594.3000;1.2861;1.6733;
594.6000;1.2829;1.6586;
594.9000;1.2812;1.6512;
595.2000;1.2829;1.6487;
595.5000;1.2845;1.6512;
595.8000;1.2869;1.6586;
596.1000;1.2812;1.6389;
596.4000;1.2869;1.6537;
596.7000;1.2853;1.6512;
597.0000;1.2845;1.6635;
597.3000;1.2804;1.6512;
597.6000;1.2837;1.6684;
597.9000;1.2853;1.6758;
598.2000;1.2829;1.6684;
598.5000;1.2837;1.6758;
598.8000;1.2829;1.6856;
599.1000;1.2837;1.6881;
599.4000;1.2853;1.7004;
599.7000;1.2837;1.6955;
600.0000;1.2821;1.6758;
600.3000;1.2877;1.6684;
600.6000;1.2877;1.6561;
600.9000;1.2845;1.6463;
601.2000;1.2796;1.6389;
601.5000;1.2739;1.6266;
601.8000;1.2641;1.5971;
602.1000;1.2560;1.5823;
602.4000;1.2430;1.5675;
602.7000;1.2357;1.5552;
603.0000;1.2275;1.5478;
603.3000;1.2202;1.5331;
603.6000;1.2120;1.5183;
603.9000;1.2039;1.4986;
604.2000;1.1941;1.4839;
604.5000;1.1901;1.4839;
604.8000;1.1811;1.4617;
605.1000;1.1746;1.4445;
605.4000;1.1665;1.4273;
605.7000;1.1608;1.4223;
606.0000;1.1559;1.4150;
606.3000;1.1437;1.3953;
606.6000;1.1453;1.4125;
606.9000;1.1363;1.4026;
607.2000;1.1412;1.4100;
607.5000;1.1274;1.3854;
607.8000;1.1201;1.3731;
608.1000;1.1217;1.3805;
608.4000;1.1127;1.3657;
608.7000;1.1054;1.3608;
609.0000;1.1030;1.3559;
609.3000;1.0956;1.3608;
609.6000;1.0916;1.3731;
609.9000;1.0875;1.3830;
610.2000;1.0810;1.3707;
610.5000;1.0777;1.3559;
610.8000;1.0737;1.3510;
611.1000;1.0720;1.3461;
611.4000;1.0639;1.3313;
611.7000;1.0606;1.3288;
612.0000;1.0574;1.3337;
612.3000;1.0517;1.3337;
612.6000;1.0541;1.3485;
612.9000;1.0444;1.3239;
613.2000;1.0395;1.3239;
613.5000;1.0362;1.3288;
613.8000;1.0313;1.3165;
614.1000;1.0289;1.3141;
614.4000;1.0265;1.3141;
614.7000;1.0232;1.3116;
615.0000;1.0183;1.3116;
615.3000;1.0159;1.3288;
615.6000;1.0167;1.3461;
615.9000;1.0094;1.3239;
616.2000;1.0077;1.3190;
616.5000;1.0037;1.3214;
616.8000;0.9988;1.3165;
617.1000;0.9963;1.3190;
617.4000;0.9939;1.3165;
617.7000;0.9841;1.2919;
618.0000;0.9849;1.3018;
618.3000;0.9825;1.3067;
618.6000;0.9801;1.3042;
618.9000;0.9735;1.2845;
619.2000;0.9735;1.2895;
619.5000;0.9776;1.3042;
619.8000;0.9687;1.2944;
620.1000;0.9654;1.2944;
620.4000;0.9646;1.2993;
620.7000;0.9621;1.2895;
621.0000;0.9581;1.2870;
621.3000;0.9556;1.2796;
621.6000;0.9532;1.2821;
621.9000;0.9508;1.2845;
622.2000;0.9475;1.2796;
622.5000;0.9475;1.2845;
622.8000;0.9442;1.2821;
623.1000;0.9426;1.2796;
623.4000;0.9385;1.2771;
623.7000;0.9434;1.2919;
624.0000;0.9328;1.2698;
624.3000;0.9328;1.2747;
624.6000;0.9296;1.2747;
624.9000;0.9271;1.2771;
625.2000;0.9231;1.2722;
625.5000;0.9239;1.2771;
625.8000;0.9206;1.2673;
626.1000;0.9190;1.2698;
626.4000;0.9166;1.2722;
626.7000;0.9231;1.2895;
627.0000;0.9117;1.2673;
627.3000;0.9092;1.2796;
627.6000;0.9052;1.2747;
627.9000;0.9052;1.2673;
628.2000;0.9035;1.2648;
628.5000;0.9011;1.2698;
628.8000;0.8987;1.2673;
629.1000;0.9011;1.2698;
629.4000;0.8938;1.2525;
629.7000;0.8921;1.2501;
630.0000;0.8897;1.2476;
630.3000;0.8881;1.2501;
630.6000;0.8864;1.2550;
630.9000;0.8848;1.2525;
631.2000;0.8840;1.2550;
631.5000;0.8848;1.2575;
631.8000;0.8816;1.2550;
632.1000;0.8767;1.2476;
632.4000;0.8799;1.2575;
632.7000;0.8759;1.2427;
633.0000;0.8751;1.2427;
633.3000;0.8710;1.2452;
633.6000;0.8645;1.2378;
633.9000;0.8702;1.2575;
634.2000;0.8694;1.2599;
634.5000;0.8669;1.2624;
634.8000;0.8628;1.2624;
635.1000;0.8620;1.2550;
635.4000;0.8637;1.2550;
635.7000;0.8588;1.2525;
636.0000;0.8588;1.2452;
636.3000;0.8563;1.2329;
636.6000;0.8555;1.2304;
636.9000;0.8547;1.2353;
637.2000;0.8555;1.2525;
637.5000;0.8539;1.2599;
637.8000;0.8523;1.2550;
638.1000;0.8490;1.2501;
638.4000;0.8482;1.2452;
638.7000;0.8449;1.2427;
639.0000;0.8449;1.2525;
639.3000;0.8433;1.2452;
639.6000;0.8425;1.2353;
639.9000;0.8384;1.2279;
640.2000;0.8433;1.2402;
640.5000;0.8376;1.2304;
640.8000;0.8360;1.2255;
641.1000;0.8441;1.2476;
641.4000;0.8352;1.2230;
641.7000;0.8319;1.2206;
642.0000;0.8311;1.2279;
642.3000;0.8319;1.2304;
642.6000;0.8327;1.2304;
642.9000;0.8287;1.2181;
643.2000;0.8295;1.2206;
643.5000;0.8311;1.2206;
643.8000;0.8238;1.2033;
644.1000;0.8246;1.2082;
644.4000;0.8238;1.2107;
644.7000;0.8221;1.2033;
645.0000;0.8197;1.1984;
645.3000;0.8213;1.2033;
645.6000;0.8181;1.2033;
645.9000;0.8164;1.2009;
646.2000;0.8181;1.2082;
646.5000;0.8156;1.2058;
646.8000;0.8132;1.2009;
647.1000;0.8156;1.2181;
647.4000;0.8140;1.2156;
647.7000;0.8140;1.2107;
648.0000;0.8148;1.2156;
648.3000;0.8156;1.2279;
648.6000;0.8140;1.2427;
648.9000;0.8148;1.2402;
649.2000;0.8116;1.2353;
649.5000;0.8083;1.2353;
649.8000;0.8050;1.2181;
650.1000;0.8075;1.2206;
650.4000;0.8034;1.2181;
650.7000;0.8059;1.2279;
651.0000;0.8050;1.2279;
651.3000;0.8026;1.2304;
651.6000;0.8018;1.2230;
651.9000;0.8034;1.2181;
652.2000;0.8010;1.2206;
652.5000;0.7993;1.2255;
652.8000;0.8002;1.2230;
653.1000;0.8002;1.2206;
653.4000;0.7937;1.2082;
653.7000;0.7945;1.2033;
654.0000;0.7896;1.1935;
654.3000;0.7953;1.2082;
654.6000;0.7904;1.1984;
654.9000;0.7928;1.2107;
655.2000;0.7904;1.2082;
655.5000;0.7880;1.1959;
655.8000;0.7904;1.2181;
656.1000;0.7863;1.2107;
656.4000;0.7896;1.2107;
656.7000;0.7888;1.2156;
657.0000;0.7863;1.2156;
657.3000;0.7863;1.2156;
657.6000;0.7847;1.2107;
657.9000;0.7798;1.2033;
658.2000;0.7871;1.2230;
658.5000;0.7855;1.2255;
658.8000;0.7823;1.2230;
659.1000;0.7831;1.2329;
659.4000;0.7831;1.2304;
659.7000;0.7806;1.2230;
660.0000;0.7831;1.2230;
660.3000;0.7782;1.2058;
660.6000;0.7774;1.2132;
660.9000;0.7774;1.2082;
661.2000;0.7798;1.2181;
661.5000;0.7757;1.2107;
661.8000;0.7766;1.2206;
662.1000;0.7774;1.2230;
662.4000;0.7774;1.2255;
662.7000;0.7798;1.2255;
663.0000;0.7741;1.2033;
663.3000;0.7741;1.2058;
663.6000;0.7741;1.1984;
663.9000;0.7733;1.2058;
664.2000;0.7717;1.2107;
664.5000;0.7700;1.2107;
664.8000;0.7717;1.2181;
665.1000;0.7717;1.2132;
665.4000;0.7684;1.2009;
665.7000;0.7595;1.1836;
666.0000;0.7692;1.2107;
666.3000;0.7717;1.2132;
666.6000;0.7717;1.2058;
666.9000;0.7660;1.1886;
667.2000;0.7643;1.1910;
667.5000;0.7652;1.2082;
667.8000;0.7660;1.2058;
668.1000;0.7643;1.2058;
668.4000;0.7668;1.2132;
668.7000;0.7627;1.1959;
669.0000;0.7619;1.1959;
669.3000;0.7627;1.1984;
669.6000;0.7635;1.2058;
669.9000;0.7635;1.1984;
670.2000;0.7611;1.1935;
670.5000;0.7603;1.1836;
670.8000;0.7603;1.1812;
671.1000;0.7603;1.1812;
671.4000;0.7595;1.1812;
671.7000;0.7578;1.1836;
672.0000;0.7578;1.1910;
672.3000;0.7578;1.1861;
672.6000;0.7578;1.1886;
672.9000;0.7562;1.1886;
673.2000;0.7570;1.1935;
673.5000;0.7554;1.1959;
673.8000;0.7562;1.1959;
674.1000;0.7578;1.1959;
674.4000;0.7546;1.2033;
674.7000;0.7530;1.2033;
675.0000;0.7562;1.2181;
675.3000;0.7562;1.2132;
675.6000;0.7538;1.2107;
675.9000;0.7530;1.2107;
676.2000;0.7530;1.2156;
676.5000;0.7538;1.2181;
676.8000;0.7513;1.2107;
677.1000;0.7497;1.1984;
677.4000;0.7489;1.1935;
677.7000;0.7513;1.2058;
678.0000;0.7505;1.2132;
678.3000;0.7497;1.2009;
678.6000;0.7464;1.1861;
678.9000;0.7481;1.1959;
679.2000;0.7481;1.2009;
679.5000;0.7464;1.2058;
679.8000;0.7473;1.2058;
680.1000;0.7481;1.2082;
680.4000;0.7473;1.1984;
680.7000;0.7440;1.1959;
681.0000;0.7448;1.1935;
681.3000;0.7464;1.1861;
681.6000;0.7456;1.1836;
681.9000;0.7448;1.1861;
682.2000;0.7432;1.1959;
682.5000;0.7448;1.2033;
682.8000;0.7456;1.2082;
683.1000;0.7432;1.1984;
683.4000;0.7424;1.1959;
683.7000;0.7432;1.1984;
684.0000;0.7432;1.2009;
684.3000;0.7440;1.2132;
684.6000;0.7416;1.2107;
684.9000;0.7383;1.2033;
685.2000;0.7399;1.2107;
685.5000;0.7416;1.2156;
685.8000;0.7407;1.2230;
686.1000;0.7399;1.2230;
686.4000;0.7391;1.2156;
686.7000;0.7383;1.2107;
687.0000;0.7367;1.2082;
687.3000;0.7375;1.2107;
687.6000;0.7383;1.1984;
687.9000;0.7375;1.1984;
688.2000;0.7350;1.1910;
688.5000;0.7359;1.1886;
688.8000;0.7359;1.1910;
689.1000;0.7359;1.1959;
689.4000;0.7359;1.2009;
689.7000;0.7350;1.2082;
690.0000;0.7359;1.2132;
690.3000;0.7342;1.2107;
690.6000;0.7350;1.2206;
690.9000;0.7350;1.2082;
691.2000;0.7342;1.2033;
691.5000;0.7342;1.1984;
691.8000;0.7342;1.1959;
692.1000;0.7342;1.1886;
692.4000;0.7334;1.1935;
692.7000;0.7318;1.1886;
693.0000;0.7326;1.1836;
693.3000;0.7261;1.1738;
693.6000;0.7310;1.1935;
693.9000;0.7342;1.2058;
694.2000;0.7367;1.2058;
694.5000;0.7310;1.2009;
694.8000;0.7334;1.2058;
695.1000;0.7310;1.2082;
695.4000;0.7318;1.2132;
695.7000;0.7302;1.2279;
696.0000;0.7310;1.2304;
696.3000;0.7285;1.2378;
696.6000;0.7310;1.2378;
696.9000;0.7310;1.2427;
697.2000;0.7310;1.2378;
697.5000;0.7188;1.2009;
697.8000;0.7293;1.2353;
698.1000;0.7277;1.2279;
698.4000;0.7285;1.2181;
698.7000;0.7293;1.2279;
699.0000;0.7285;1.2230;
699.3000;0.7212;1.2009;
699.6000;0.7277;1.2132;
699.9000;0.7302;1.2255;
700.2000;0.7261;1.2107;
700.5000;0.7285;1.2082;
700.8000;0.7269;1.2033;
701.1000;0.7236;1.1935;
701.4000;0.7220;1.1910;
701.7000;0.7253;1.2033;
702.0000;0.7269;1.1984;
702.3000;0.7269;1.2033;
702.6000;0.7228;1.1910;
702.9000;0.7253;1.1959;
703.2000;0.7245;1.1959;
703.5000;0.7236;1.1959;
703.8000;0.7253;1.2009;
704.1000;0.7236;1.2058;
704.4000;0.7253;1.2132;
704.7000;0.7245;1.2082;
705.0000;0.7245;1.2107;
705.3000;0.7245;1.2156;
705.6000;0.7245;1.2181;
705.9000;0.7228;1.2206;
706.2000;0.7228;1.2230;
706.5000;0.7212;1.2230;
706.8000;0.7220;1.2206;
707.1000;0.7236;1.2181;
707.4000;0.7196;1.2058;
707.7000;0.7220;1.2033;
708.0000;0.7212;1.2009;
708.3000;0.7204;1.1984;
708.6000;0.7204;1.2033;
708.9000;0.7204;1.2082;
709.2000;0.7204;1.2082;
709.5000;0.7196;1.2009;
709.8000;0.7212;1.2033;
710.1000;0.7196;1.2132;
710.4000;0.7188;1.2230;
710.7000;0.7163;1.2181;
711.0000;0.7188;1.2206;
711.3000;0.7171;1.2181;
711.6000;0.7188;1.2206;
711.9000;0.7188;1.2181;
712.2000;0.7188;1.2181;
712.5000;0.7196;1.2255;
712.8000;0.7163;1.2181;
713.1000;0.7171;1.2206;
713.4000;0.7155;1.1984;
713.7000;0.7188;1.2009;
714.0000;0.7179;1.2082;
714.3000;0.7171;1.2107;
714.6000;0.7179;1.2181;
714.9000;0.7171;1.2181;
715.2000;0.7204;1.2181;
715.5000;0.7179;1.2181;
715.8000;0.7179;1.2181;
716.1000;0.7155;1.2156;
716.4000;0.7163;1.2132;
716.7000;0.7171;1.2181;
717.0000;0.7163;1.2156;
717.3000;0.7139;1.2107;
717.6000;0.7131;1.2082;
717.9000;0.7147;1.2082;
718.2000;0.7171;1.2082;
718.5000;0.7139;1.2033;
718.8000;0.7131;1.1886;
719.1000;0.7155;1.1959;
719.4000;0.7155;1.1959;
719.7000;0.7155;1.1935;
720.0000;0.7155;1.2107;
720.3000;0.7147;1.2132;
720.6000;0.7139;1.2132;
720.9000;0.7147;1.2255;
721.2000;0.7139;1.2230;
721.5000;0.7155;1.2156;
721.8000;0.7131;1.2156;
722.1000;0.7131;1.2255;
722.4000;0.7139;1.2181;
722.7000;0.7139;1.2206;
723.0000;0.7131;1.2181;
723.3000;0.7090;1.2082;
723.6000;0.7131;1.2206;
723.9000;0.7123;1.2230;
724.2000;0.7114;1.2206;
724.5000;0.7114;1.2255;
724.8000;0.7114;1.2279;
725.1000;0.7123;1.2304;
725.4000;0.7123;1.2279;
725.7000;0.7114;1.2255;
726.0000;0.7098;1.2279;
726.3000;0.7123;1.2427;
726.6000;0.7041;1.2206;
726.9000;0.7098;1.2329;
727.2000;0.7106;1.2304;
727.5000;0.7123;1.2329;
727.8000;0.7114;1.2329;
728.1000;0.7106;1.2230;
728.4000;0.7098;1.2156;
728.7000;0.7123;1.2255;
729.0000;0.7123;1.2181;
729.3000;0.7123;1.2206;
729.6000;0.7106;1.2255;
729.9000;0.7114;1.2230;
730.2000;0.7114;1.2279;
730.5000;0.7123;1.2279;
730.8000;0.7106;1.2304;
731.1000;0.7098;1.2279;
731.4000;0.7106;1.2378;
731.7000;0.7114;1.2353;
732.0000;0.7106;1.2329;
732.3000;0.7106;1.2378;
732.6000;0.7106;1.2378;
732.9000;0.7098;1.2353;
733.2000;0.7082;1.2279;
733.5000;0.7098;1.2304;
733.8000;0.7098;1.2304;
734.1000;0.7106;1.2304;
734.4000;0.7098;1.2402;
734.7000;0.7082;1.2378;
735.0000;0.7057;1.2329;
735.3000;0.7057;1.2353;
735.6000;0.7074;1.2353;
735.9000;0.7066;1.2353;
736.2000;0.7106;1.2304;
736.5000;0.7074;1.2353;
736.8000;0.7033;1.2181;
737.1000;0.7057;1.2329;
737.4000;0.7033;1.2353;
737.7000;0.7074;1.2378;
738.0000;0.7017;1.2279;
738.3000;0.7082;1.2353;
738.6000;0.7057;1.2329;
738.9000;0.7074;1.2255;
739.2000;0.7066;1.2279;
739.5000;0.7066;1.2476;
739.8000;0.7049;1.2378;
740.1000;0.7057;1.2452;
740.4000;0.6992;1.2304;
740.7000;0.7057;1.2402;
741.0000;0.7057;1.2402;
741.3000;0.7066;1.2378;
741.6000;0.7049;1.2353;
741.9000;0.7057;1.2353;
742.2000;0.7049;1.2230;
742.5000;0.7082;1.2279;
742.8000;0.7074;1.2255;
743.1000;0.7074;1.2329;
743.4000;0.7074;1.2353;
743.7000;0.7041;1.2304;
744.0000;0.7049;1.2353;
744.3000;0.7066;1.2378;
744.6000;0.7049;1.2402;
744.9000;0.7033;1.2353;
745.2000;0.7049;1.2402;
745.5000;0.7057;1.2402;
745.8000;0.7049;1.2279;
746.1000;0.7033;1.2230;
746.4000;0.7033;1.2181;
746.7000;0.7017;1.2132;
747.0000;0.7041;1.2255;
747.3000;0.7033;1.2181;
747.6000;0.7041;1.2181;
747.9000;0.7057;1.2279;
748.2000;0.7049;1.2304;
748.5000;0.7017;1.2230;
748.8000;0.7049;1.2378;
749.1000;0.7033;1.2329;
749.4000;0.7041;1.2329;
749.7000;0.7033;1.2353;
750.0000;0.7033;1.2279;
750.3000;0.7009;1.2156;
750.6000;0.6984;1.2082;
750.9000;0.7009;1.2058;
751.2000;0.7000;1.2082;
751.5000;0.6992;1.2132;
751.8000;0.7017;1.2156;
752.1000;0.7041;1.2181;
752.4000;0.7025;1.2181;
752.7000;0.7025;1.2181;
753.0000;0.7017;1.2156;
753.3000;0.7033;1.2255;
753.6000;0.7025;1.2230;
753.9000;0.7041;1.2255;
754.2000;0.7025;1.2181;
754.5000;0.7025;1.2156;
754.8000;0.7000;1.2082;
755.1000;0.7017;1.2058;
755.4000;0.7009;1.2033;
755.7000;0.7041;1.2033;
756.0000;0.6984;1.1959;
756.3000;0.7000;1.2009;
756.6000;0.7074;1.2255;
756.9000;0.6992;1.2156;
757.2000;0.7025;1.2279;
757.5000;0.7049;1.2329;
757.8000;0.7017;1.2402;
758.1000;0.6968;1.2353;
758.4000;0.7017;1.2501;
758.7000;0.6943;1.2427;
759.0000;0.7017;1.2673;
759.3000;0.7000;1.2624;
759.6000;0.7009;1.2599;
759.9000;0.6984;1.2501;
760.2000;0.7009;1.2550;
760.5000;0.6992;1.2525;
760.8000;0.6984;1.2476;
761.1000;0.7033;1.2599;
761.4000;0.6992;1.2476;
761.7000;0.6992;1.2378;
762.0000;0.7000;1.2353;
762.3000;0.7009;1.2329;
762.6000;0.7000;1.2353;
762.9000;0.6984;1.2353;
763.2000;0.7000;1.2378;
763.5000;0.7000;1.2452;
763.8000;0.7009;1.2452;
764.1000;0.7009;1.2427;
764.4000;0.6984;1.2378;
764.7000;0.6992;1.2329;
765.0000;0.7009;1.2353;
765.3000;0.7009;1.2378;
765.6000;0.6984;1.2329;
765.9000;0.6976;1.2279;
766.2000;0.6976;1.2304;
766.5000;0.7000;1.2353;
766.8000;0.6976;1.2279;
767.1000;0.6976;1.2255;
767.4000;0.6968;1.2206;
767.7000;0.7000;1.2156;
768.0000;0.7000;1.2107;
768.3000;0.7000;1.2206;
768.6000;0.6992;1.2181;
768.9000;0.6984;1.2181;
769.2000;0.6992;1.2156;
769.5000;0.6984;1.2082;
769.8000;0.6984;1.2107;
770.1000;0.6968;1.2156;
770.4000;0.6976;1.2181;
770.7000;0.7000;1.2279;
771.0000;0.6984;1.2255;
771.3000;0.6984;1.2230;
771.6000;0.6984;1.2206;
771.9000;0.6984;1.2279;
772.2000;0.6976;1.2279;
772.5000;0.6992;1.2206;
772.8000;0.6984;1.2181;
773.1000;0.6976;1.2181;
773.4000;0.6984;1.2230;
773.7000;0.6976;1.2132;
774.0000;0.7017;1.2279;
774.3000;0.6960;1.2082;
774.6000;0.7033;1.2279;
774.9000;0.6984;1.2156;
775.2000;0.7017;1.2181;
775.5000;0.7025;1.2156;
775.8000;0.7000;1.2132;
776.1000;0.6992;1.2132;
776.4000;0.6984;1.2156;
776.7000;0.6976;1.2181;
777.0000;0.6968;1.2132;
777.3000;0.6992;1.2156;
777.6000;0.6984;1.2156;
777.9000;0.6976;1.2132;
778.2000;0.6976;1.2156;
778.5000;0.6968;1.2181;
778.8000;0.6976;1.2230;
779.1000;0.6984;1.2255;
779.4000;0.6976;1.2181;
779.7000;0.7041;1.2452;
780.0000;0.6952;1.2206;
780.3000;0.6968;1.2279;
780.6000;0.6960;1.2206;
780.9000;0.6960;1.2206;
781.2000;0.6968;1.2206;
781.5000;0.6976;1.2230;
781.8000;0.6960;1.2255;
782.1000;0.6943;1.2230;
782.4000;0.6952;1.2230;
782.7000;0.6952;1.2082;
783.0000;0.6960;1.2181;
783.3000;0.6960;1.2329;
783.6000;0.6952;1.2304;
783.9000;0.6960;1.2279;
784.2000;0.6968;1.2304;
784.5000;0.6968;1.2255;
784.8000;0.6952;1.2304;
785.1000;0.6968;1.2378;
785.4000;0.7009;1.2427;
785.7000;0.6960;1.2279;
786.0000;0.6968;1.2279;
786.3000;0.6960;1.2304;
786.6000;0.6976;1.2255;
786.9000;0.6960;1.2230;
787.2000;0.6935;1.2304;
787.5000;0.6968;1.2353;
787.8000;0.6976;1.2378;
788.1000;0.6960;1.2255;
788.4000;0.6968;1.2206;
788.7000;0.6952;1.2181;
789.0000;0.6992;1.2402;
789.3000;0.6960;1.2452;
789.6000;0.6943;1.2402;
789.9000;0.6960;1.2476;
790.2000;0.6960;1.2452;
790.5000;0.6968;1.2550;
790.8000;0.6976;1.2624;
791.1000;0.6952;1.2525;
791.4000;0.6968;1.2599;
791.7000;0.6952;1.2501;
792.0000;0.6960;1.2550;
792.3000;0.6960;1.2525;
792.6000;0.6960;1.2550;
792.9000;0.6968;1.2575;
793.2000;0.6984;1.2599;
793.5000;0.6952;1.2525;
793.8000;0.6927;1.2427;
794.1000;0.6960;1.2452;
794.4000;0.6968;1.2501;
794.7000;0.6952;1.2575;
795.0000;0.6992;1.2673;
795.3000;0.6952;1.2501;
795.6000;0.6976;1.2599;
795.9000;0.6960;1.2501;
796.2000;0.6943;1.2525;
796.5000;0.6943;1.2476;
796.8000;0.6903;1.2378;
797.1000;0.6952;1.2452;
797.4000;0.6952;1.2452;
797.7000;0.6895;1.2255;
798.0000;0.6935;1.2304;
798.3000;0.6943;1.2378;
798.6000;0.7098;1.2796;
798.9000;0.6943;1.2378;
799.2000;0.6927;1.2427;
799.5000;0.6903;1.2279;
799.8000;0.6984;1.2427;
800.1000;0.6952;1.2378;
800.4000;0.6952;1.2353;
800.7000;0.6976;1.2476;
801.0000;0.6968;1.2476;
801.3000;0.6935;1.2476;
801.6000;0.6935;1.2378;
801.9000;0.6968;1.2353;
802.2000;0.6968;1.2279;
802.5000;0.6952;1.2329;
802.8000;0.6943;1.2304;
803.1000;0.6943;1.2427;
803.4000;0.6927;1.2476;
803.7000;0.6935;1.2525;
804.0000;0.6927;1.2501;
804.3000;0.6935;1.2525;
804.6000;0.6935;1.2476;
804.9000;0.6968;1.2550;
805.2000;0.6935;1.2476;
805.5000;0.6927;1.2476;
805.8000;0.6919;1.2427;
806.1000;0.6919;1.2427;
806.4000;0.6903;1.2378;
806.7000;0.6846;1.2107;
807.0000;0.6919;1.2402;
807.3000;0.6968;1.2525;
807.6000;0.6919;1.2353;
807.9000;0.6919;1.2378;
808.2000;0.6927;1.2378;
808.5000;0.6886;1.2304;
808.8000;0.6919;1.2230;
809.1000;0.6927;1.2181;
809.4000;0.6943;1.2279;
809.7000;0.6935;1.2329;
810.0000;0.6952;1.2378;
810.3000;0.6846;1.2132;
810.6000;0.6911;1.2230;
810.9000;0.6927;1.2206;
811.2000;0.6911;1.2206;
811.5000;0.6935;1.2279;
811.8000;0.6927;1.2230;
812.1000;0.6911;1.2230;
812.4000;0.6984;1.2501;
812.7000;0.6935;1.2402;
813.0000;0.6903;1.2402;
813.3000;0.6919;1.2378;
813.6000;0.6927;1.2427;
813.9000;0.6919;1.2353;
814.2000;0.6919;1.2378;
814.5000;0.6927;1.2452;
814.8000;0.6911;1.2452;
815.1000;0.6927;1.2476;
815.4000;0.6911;1.2378;
815.7000;0.6927;1.2378;
816.0000;0.6935;1.2427;
816.3000;0.6927;1.2402;
816.6000;0.6919;1.2501;
816.9000;0.6870;1.2255;
817.2000;0.6886;1.2304;
817.5000;0.6927;1.2427;
817.8000;0.6911;1.2402;
818.1000;0.6919;1.2476;
818.4000;0.6919;1.2452;
818.7000;0.6927;1.2525;
819.0000;0.6911;1.2452;
819.3000;0.6919;1.2525;
819.6000;0.6927;1.2427;
819.9000;0.6903;1.2427;
820.2000;0.6911;1.2452;
820.5000;0.6960;1.2525;
820.8000;0.6895;1.2452;
821.1000;0.6878;1.2402;
821.4000;0.6943;1.2525;
821.7000;0.6911;1.2476;
822.0000;0.6911;1.2427;
822.3000;0.6919;1.2452;
822.6000;0.6968;1.2575;
822.9000;0.6927;1.2452;
823.2000;0.6927;1.2476;
823.5000;0.6927;1.2550;
823.8000;0.6927;1.2525;
824.1000;0.6935;1.2599;
824.4000;0.6911;1.2525;
824.7000;0.6919;1.2525;
825.0000;0.6903;1.2599;
825.3000;0.6919;1.2525;
825.6000;0.6911;1.2550;
825.9000;0.6927;1.2550;
826.2000;0.6919;1.2501;
826.5000;0.6919;1.2452;
826.8000;0.6943;1.2476;
827.1000;0.6919;1.2452;
827.4000;0.6919;1.2402;
827.7000;0.6935;1.2402;
828.0000;0.6952;1.2402;
828.3000;0.6927;1.2304;
828.6000;0.6919;1.2304;
828.9000;0.6927;1.2304;
829.2000;0.6919;1.2353;
829.5000;0.6911;1.2304;
829.8000;0.6911;1.2304;
830.1000;0.6911;1.2279;
830.4000;0.6919;1.2304;
830.7000;0.6911;1.2279;
831.0000;0.6895;1.2279;
831.3000;0.6895;1.2255;
831.6000;0.6919;1.2427;
831.9000;0.6878;1.2378;
832.2000;0.6903;1.2427;
832.5000;0.6911;1.2427;
832.8000;0.6911;1.2427;
833.1000;0.6911;1.2525;
833.4000;0.6911;1.2550;
833.7000;0.6927;1.2599;
834.0000;0.6862;1.2427;
834.3000;0.6919;1.2550;
834.6000;0.6911;1.2525;
834.9000;0.6911;1.2525;
835.2000;0.6919;1.2550;
835.5000;0.6919;1.2575;
835.8000;0.6927;1.2501;
836.1000;0.6911;1.2378;
836.4000;0.6903;1.2378;
836.7000;0.6911;1.2378;
837.0000;0.6935;1.2427;
837.3000;0.6960;1.2550;
837.6000;0.6903;1.2452;
837.9000;0.6952;1.2501;
838.2000;0.6919;1.2452;
838.5000;0.6911;1.2427;
838.8000;0.6911;1.2378;
839.1000;0.6968;1.2525;
839.4000;0.6903;1.2329;
839.7000;0.6903;1.2304;
840.0000;0.6870;1.2255;
840.3000;0.6911;1.2304;
840.6000;0.6903;1.2181;
840.9000;0.6903;1.2181;
841.2000;0.6919;1.2255;
841.5000;0.6903;1.2279;
841.8000;0.6895;1.2181;
842.1000;0.6911;1.2156;
842.4000;0.6943;1.2206;
842.7000;0.6895;1.2033;
843.0000;0.6911;1.2156;
843.3000;0.6911;1.2107;
843.6000;0.6919;1.2107;
843.9000;0.6895;1.2107;
844.2000;0.6911;1.2181;
844.5000;0.6903;1.2206;
844.8000;0.6895;1.2304;
845.1000;0.6895;1.2378;
845.4000;0.6903;1.2501;
845.7000;0.6911;1.2624;
846.0000;0.6886;1.2525;
846.3000;0.6927;1.2575;
846.6000;0.6911;1.2501;
846.9000;0.6919;1.2550;
847.2000;0.6911;1.2525;
847.5000;0.6911;1.2452;
847.8000;0.6911;1.2476;
848.1000;0.6838;1.2279;
848.4000;0.6903;1.2353;
848.7000;0.6903;1.2427;
849.0000;0.6895;1.2402;
849.3000;0.6911;1.2501;
849.6000;0.6903;1.2452;
849.9000;0.6886;1.2525;
850.2000;0.6886;1.2452;
850.5000;0.6829;1.2279;
850.8000;0.6886;1.2402;
851.1000;0.6911;1.2427;
851.4000;0.6886;1.2353;
851.7000;0.6903;1.2427;
852.0000;0.6903;1.2476;
852.3000;0.6895;1.2402;
852.6000;0.6886;1.2427;
852.9000;0.6878;1.2427;
853.2000;0.6911;1.2452;
853.5000;0.6976;1.2673;
853.8000;0.6895;1.2501;
854.1000;0.6903;1.2599;
854.4000;0.6886;1.2624;
854.7000;0.6919;1.2796;
855.0000;0.6895;1.2796;
855.3000;0.6870;1.2698;
855.6000;0.6886;1.2673;
855.9000;0.6903;1.2673;
856.2000;0.6895;1.2673;
856.5000;0.6919;1.2722;
856.8000;0.6895;1.2575;
857.1000;0.6895;1.2550;
857.4000;0.6886;1.2402;
857.7000;0.6878;1.2452;
858.0000;0.6895;1.2476;
858.3000;0.6984;1.2722;
858.6000;0.6911;1.2575;
858.9000;0.6903;1.2525;
859.2000;0.6870;1.2452;
859.5000;0.6911;1.2476;
859.8000;0.6919;1.2452;
860.1000;0.6903;1.2476;
860.4000;0.6805;1.2230;
860.7000;0.6895;1.2476;
861.0000;0.6903;1.2427;
861.3000;0.6895;1.2501;
861.6000;0.6886;1.2501;
861.9000;0.6878;1.2550;
862.2000;0.6903;1.2648;
862.5000;0.6903;1.2648;
862.8000;0.6895;1.2673;
863.1000;0.6878;1.2599;
863.4000;0.6903;1.2575;
863.7000;0.6903;1.2525;
864.0000;0.6895;1.2525;
864.3000;0.6919;1.2599;
864.6000;0.6878;1.2476;
864.9000;0.6903;1.2525;
865.2000;0.6903;1.2501;
865.5000;0.6895;1.2378;
865.8000;0.6952;1.2525;
866.1000;0.6903;1.2452;
866.4000;0.6911;1.2476;
866.7000;0.6878;1.2402;
867.0000;0.6886;1.2402;
867.3000;0.6878;1.2402;
867.6000;0.6911;1.2452;
867.9000;0.6886;1.2427;
868.2000;0.6886;1.2427;
868.5000;0.6895;1.2452;
868.8000;0.6846;1.2279;
869.1000;0.6903;1.2452;
869.4000;0.6895;1.2353;
869.7000;0.6911;1.2427;
870.0000;0.6911;1.2550;
870.3000;0.6870;1.2452;
870.6000;0.6919;1.2599;
870.9000;0.6870;1.2550;
871.2000;0.6886;1.2476;
871.5000;0.6927;1.2599;
871.8000;0.6878;1.2525;
872.1000;0.6878;1.2476;
872.4000;0.6878;1.2525;
872.7000;0.6895;1.2575;
873.0000;0.6846;1.2304;
873.3000;0.6903;1.2452;
873.6000;0.6895;1.2452;
873.9000;0.6976;1.2771;
874.2000;0.6903;1.2624;
874.5000;0.6862;1.2550;
874.8000;0.6870;1.2599;
875.1000;0.6895;1.2575;
875.4000;0.6903;1.2648;
875.7000;0.6878;1.2648;
876.0000;0.6878;1.2648;
876.3000;0.6878;1.2648;
876.6000;0.6878;1.2722;
876.9000;0.6886;1.2722;
877.2000;0.6781;1.2329;
877.5000;0.6878;1.2501;
877.8000;0.6886;1.2624;
878.1000;0.6886;1.2673;
878.4000;0.6895;1.2648;
878.7000;0.6854;1.2550;
879.0000;0.6895;1.2550;
879.3000;0.6870;1.2452;
879.6000;0.6886;1.2427;
879.9000;0.6829;1.2378;
880.2000;0.6854;1.2402;
880.5000;0.6878;1.2402;
880.8000;0.6895;1.2427;
881.1000;0.6919;1.2501;
881.4000;0.6911;1.2452;
881.7000;0.6895;1.2329;
882.0000;0.6886;1.2353;
882.3000;0.6870;1.2329;
882.6000;0.6895;1.2378;
882.9000;0.6911;1.2353;
883.2000;0.6870;1.2402;
883.5000;0.6886;1.2452;
883.8000;0.6895;1.2476;
884.1000;0.6886;1.2525;
884.4000;0.6862;1.2525;
884.7000;0.6903;1.2599;
885.0000;0.6870;1.2501;
885.3000;0.6895;1.2501;
885.6000;0.6886;1.2402;
885.9000;0.6829;1.2206;
886.2000;0.6895;1.2378;
886.5000;0.6886;1.2452;
886.8000;0.6927;1.2575;
887.1000;0.6895;1.2525;
887.4000;0.6805;1.2304;
887.7000;0.6870;1.2550;
888.0000;0.6878;1.2550;
888.3000;0.6895;1.2452;
888.6000;0.6878;1.2378;
888.9000;0.6870;1.2378;
889.2000;0.6886;1.2501;
889.5000;0.6886;1.2501;
889.8000;0.6878;1.2550;
890.1000;0.6878;1.2550;
890.4000;0.6838;1.2476;
890.7000;0.6927;1.2796;
891.0000;0.6862;1.2550;
891.3000;0.6878;1.2575;
891.6000;0.6870;1.2476;
891.9000;0.6862;1.2452;
892.2000;0.6886;1.2378;
892.5000;0.6846;1.2329;
892.8000;0.6878;1.2378;
893.1000;0.6886;1.2452;
893.4000;0.6935;1.2550;
893.7000;0.6886;1.2452;
894.0000;0.6886;1.2378;
894.3000;0.6895;1.2501;
894.6000;0.6895;1.2525;
894.9000;0.6878;1.2476;
895.2000;0.6870;1.2501;
895.5000;0.6862;1.2525;
895.8000;0.6886;1.2599;
896.1000;0.6886;1.2599;
896.4000;0.6878;1.2599;
896.7000;0.6878;1.2550;
897.0000;0.6903;1.2550;
897.3000;0.6886;1.2501;
897.6000;0.6878;1.2501;
897.9000;0.6878;1.2476;
898.2000;0.6911;1.2452;
898.5000;0.6878;1.2402;
898.8000;0.6878;1.2402;
899.1000;0.6870;1.2427;
899.4000;0.6870;1.2378;
899.7000;0.6813;1.2279;
900.0000;0.6952;1.2575;
900.3000;0.6886;1.2329;
900.6000;0.6895;1.2452;
900.9000;0.6903;1.2304;
901.2000;0.6895;1.2279;
901.5000;0.6878;1.2304;
901.8000;0.6911;1.2452;
902.1000;0.6895;1.2501;
902.4000;0.6821;1.2279;
902.7000;0.6862;1.2452;
903.0000;0.6862;1.2476;
903.3000;0.6886;1.2476;
903.6000;0.6878;1.2476;
903.9000;0.6878;1.2525;
904.2000;0.6895;1.2599;
904.5000;0.6878;1.2624;
904.8000;0.6903;1.2648;
905.1000;0.6886;1.2624;
905.4000;0.6870;1.2575;
905.7000;0.6878;1.2550;
906.0000;0.6886;1.2599;
906.3000;0.6870;1.2550;
906.6000;0.6870;1.2575;
906.9000;0.6862;1.2599;
907.2000;0.6870;1.2550;
907.5000;0.6870;1.2525;
907.8000;0.6854;1.2452;
908.1000;0.6878;1.2624;
908.4000;0.6838;1.2550;
908.7000;0.6870;1.2599;
909.0000;0.6862;1.2501;
909.3000;0.6854;1.2501;
909.6000;0.6829;1.2427;
909.9000;0.6862;1.2501;
910.2000;0.6862;1.2427;
910.5000;0.6854;1.2476;
910.8000;0.6862;1.2427;
911.1000;0.6870;1.2452;
911.4000;0.6878;1.2402;
911.7000;0.6886;1.2402;
912.0000;0.6854;1.2476;
912.3000;0.6886;1.2673;
912.6000;0.6821;1.2599;
912.9000;0.6870;1.2722;
913.2000;0.6862;1.2648;
913.5000;0.6895;1.2722;
913.8000;0.6838;1.2575;
914.1000;0.6903;1.2747;
914.4000;0.6870;1.2624;
914.7000;0.6821;1.2452;
915.0000;0.6829;1.2476;
915.3000;0.6870;1.2698;
915.6000;0.6854;1.2771;
915.9000;0.6870;1.2895;
916.2000;0.6960;1.3067;
916.5000;0.6870;1.2821;
916.8000;0.6870;1.2796;
917.1000;0.6878;1.2845;
917.4000;0.6878;1.2944;
917.7000;0.6870;1.2845;
918.0000;0.6870;1.2845;
918.3000;0.6854;1.2796;
918.6000;0.6854;1.2747;
918.9000;0.6821;1.2599;
919.2000;0.6870;1.2796;
919.5000;0.6862;1.2771;
919.8000;0.6854;1.2821;
920.1000;0.6862;1.2845;
920.4000;0.6862;1.2845;
920.7000;0.6862;1.2821;
921.0000;0.6911;1.2968;
921.3000;0.6870;1.2821;
921.6000;0.6870;1.2698;
921.9000;0.6886;1.2722;
922.2000;0.6870;1.2550;
922.5000;0.6870;1.2427;
922.8000;0.6870;1.2452;
923.1000;0.6862;1.2304;
923.4000;0.6870;1.2353;
923.7000;0.6862;1.2329;
924.0000;0.6878;1.2304;
924.3000;0.6878;1.2304;
924.6000;0.6862;1.2304;
924.9000;0.6846;1.2378;
925.2000;0.6862;1.2501;
925.5000;0.6862;1.2476;
925.8000;0.6862;1.2476;
926.1000;0.6878;1.2550;
926.4000;0.6886;1.2525;
926.7000;0.6895;1.2452;
927.0000;0.6870;1.2402;
927.3000;0.6878;1.2476;
927.6000;0.6870;1.2427;
927.9000;0.6886;1.2427;
928.2000;0.6870;1.2353;
928.5000;0.6878;1.2378;
928.8000;0.6846;1.2255;
929.1000;0.6854;1.2378;
929.4000;0.6862;1.2501;
929.7000;0.6862;1.2476;
930.0000;0.6854;1.2402;
930.3000;0.6838;1.2427;
930.6000;0.6870;1.2501;
930.9000;0.6870;1.2501;
931.2000;0.6846;1.2501;
931.5000;0.6943;1.2747;
931.8000;0.6870;1.2501;
932.1000;0.6895;1.2525;
932.4000;0.6903;1.2575;
932.7000;0.6886;1.2575;
933.0000;0.6886;1.2550;
933.3000;0.6870;1.2501;
933.6000;0.6862;1.2329;
933.9000;0.6870;1.2255;
934.2000;0.6870;1.2230;
934.5000;0.6870;1.2230;
934.8000;0.6870;1.2206;
935.1000;0.6886;1.2304;
935.4000;0.6878;1.2329;
935.7000;0.6862;1.2279;
936.0000;0.6870;1.2279;
936.3000;0.6886;1.2353;
936.6000;0.6911;1.2452;
936.9000;0.6895;1.2501;
937.2000;0.6870;1.2427;
937.5000;0.6870;1.2525;
937.8000;0.6862;1.2624;
938.1000;0.6886;1.2698;
938.4000;0.6878;1.2722;
938.7000;0.6829;1.2575;
939.0000;0.6862;1.2550;
939.3000;0.6870;1.2525;
939.6000;0.6895;1.2575;
939.9000;0.6821;1.2378;
940.2000;0.6838;1.2402;
940.5000;0.6878;1.2427;
940.8000;0.6870;1.2329;
941.1000;0.6903;1.2402;
941.4000;0.6862;1.2279;
941.7000;0.6846;1.2304;
942.0000;0.6870;1.2353;
942.3000;0.6878;1.2402;
942.6000;0.6854;1.2402;
942.9000;0.6862;1.2329;
943.2000;0.6854;1.2329;
943.5000;0.6878;1.2525;
943.8000;0.6927;1.2648;
944.1000;0.6862;1.2550;
944.4000;0.6862;1.2550;
944.7000;0.6870;1.2550;
945.0000;0.6870;1.2575;
945.3000;0.6870;1.2648;
945.6000;0.6878;1.2698;
945.9000;0.6870;1.2624;
946.2000;0.6878;1.2624;
946.5000;0.6870;1.2648;
946.8000;0.6854;1.2673;
947.1000;0.6862;1.2722;
947.4000;0.6870;1.2722;
947.7000;0.6878;1.2771;
948.0000;0.6870;1.2698;
948.3000;0.6846;1.2575;
948.6000;0.6862;1.2575;
948.9000;0.6846;1.2550;
949.2000;0.6862;1.2550;
949.5000;0.6870;1.2550;
949.8000;0.6862;1.2550;
950.1000;0.6862;1.2550;
950.4000;0.6846;1.2476;
950.7000;0.6903;1.2599;
951.0000;0.6862;1.2624;
951.3000;0.6870;1.2599;
951.6000;0.6870;1.2525;
951.9000;0.6870;1.2501;
952.2000;0.6854;1.2501;
952.5000;0.6870;1.2501;
952.8000;0.6870;1.2476;
953.1000;0.6838;1.2378;
953.4000;0.6846;1.2452;
953.7000;0.6870;1.2575;
954.0000;0.6854;1.2427;
954.3000;0.6764;1.2156;
954.6000;0.6870;1.2427;
954.9000;0.6862;1.2476;
955.2000;0.6870;1.2501;
955.5000;0.6870;1.2452;
955.8000;0.6862;1.2378;
956.1000;0.6862;1.2452;
956.4000;0.6870;1.2402;
956.7000;0.6862;1.2378;
957.0000;0.6846;1.2329;
957.3000;0.6854;1.2402;
957.6000;0.6870;1.2476;
957.9000;0.6870;1.2476;
958.2000;0.6870;1.2501;
958.5000;0.6838;1.2427;
958.8000;0.6862;1.2476;
959.1000;0.6846;1.2501;
959.4000;0.6862;1.2575;
959.7000;0.6862;1.2550;
960.0000;0.6870;1.2599;
960.3000;0.6846;1.2550;
960.6000;0.6821;1.2501;
960.9000;0.6846;1.2599;
961.2000;0.6854;1.2648;
961.5000;0.6854;1.2550;
961.8000;0.6846;1.2624;
962.1000;0.6854;1.2648;
962.4000;0.6854;1.2599;
962.7000;0.6943;1.2919;
963.0000;0.6854;1.2648;
963.3000;0.6854;1.2624;
963.6000;0.6886;1.2624;
963.9000;0.6862;1.2550;
964.2000;0.6903;1.2599;
964.5000;0.6846;1.2402;
964.8000;0.6878;1.2501;
965.1000;0.6886;1.2550;
965.4000;0.6846;1.2452;
965.7000;0.6870;1.2501;
966.0000;0.6862;1.2427;
966.3000;0.6870;1.2525;
966.6000;0.6886;1.2427;
966.9000;0.6854;1.2353;
967.2000;0.6878;1.2452;
967.5000;0.6846;1.2329;
967.8000;0.6854;1.2402;
968.1000;0.6862;1.2476;
968.4000;0.6838;1.2402;
968.7000;0.6821;1.2353;
969.0000;0.6846;1.2378;
969.3000;0.6862;1.2525;
969.6000;0.6821;1.2452;
969.9000;0.6846;1.2501;
970.2000;0.6854;1.2452;
970.5000;0.6886;1.2575;
970.8000;0.6870;1.2599;
971.1000;0.6870;1.2648;
971.4000;0.6903;1.2624;
971.7000;0.6854;1.2525;
972.0000;0.6829;1.2353;
972.3000;0.6870;1.2452;
972.6000;0.6870;1.2476;
972.9000;0.6854;1.2452;
973.2000;0.6846;1.2476;
973.5000;0.6854;1.2427;
973.8000;0.6862;1.2501;
974.1000;0.6878;1.2550;
974.4000;0.6829;1.2427;
974.7000;0.6862;1.2575;
975.0000;0.6862;1.2550;
975.3000;0.6870;1.2599;
975.6000;0.6862;1.2599;
975.9000;0.6878;1.2624;
976.2000;0.6870;1.2599;
976.5000;0.6903;1.2648;
976.8000;0.6862;1.2599;
977.1000;0.6854;1.2525;
977.4000;0.6821;1.2427;
977.7000;0.6870;1.2525;
978.0000;0.6854;1.2476;
978.3000;0.6854;1.2501;
978.6000;0.6846;1.2378;
978.9000;0.6838;1.2353;
979.2000;0.6878;1.2402;
979.5000;0.6813;1.2255;
979.8000;0.6805;1.2255;
980.1000;0.6862;1.2501;
980.4000;0.6854;1.2599;
980.7000;0.6854;1.2624;
981.0000;0.6862;1.2599;
981.3000;0.6878;1.2525;
981.6000;0.6870;1.2501;
981.9000;0.6854;1.2452;
982.2000;0.6854;1.2452;
982.5000;0.6846;1.2452;
982.8000;0.6870;1.2550;
983.1000;0.6846;1.2624;
983.4000;0.6878;1.2575;
983.7000;0.6829;1.2525;
984.0000;0.6838;1.2550;
984.3000;0.6870;1.2599;
984.6000;0.6886;1.2648;
984.9000;0.6846;1.2550;
985.2000;0.6846;1.2476;
985.5000;0.6878;1.2575;
985.8000;0.6813;1.2402;
986.1000;0.6886;1.2673;
986.4000;0.6781;1.2378;
986.7000;0.6854;1.2599;
987.0000;0.6838;1.2599;
987.3000;0.6854;1.2501;
987.6000;0.6838;1.2452;
987.9000;0.6854;1.2550;
988.2000;0.6854;1.2575;
988.5000;0.6846;1.2501;
988.8000;0.6838;1.2427;
989.1000;0.6838;1.2427;
989.4000;0.6870;1.2452;
989.7000;0.6870;1.2501;
990.0000;0.6862;1.2525;
990.3000;0.6854;1.2452;
990.6000;0.6886;1.2525;
990.9000;0.6862;1.2476;
991.2000;0.6862;1.2501;
991.5000;0.6854;1.2525;
991.8000;0.6854;1.2525;
992.1000;0.6862;1.2550;
992.4000;0.6862;1.2550;
992.7000;0.6870;1.2599;
993.0000;0.6854;1.2575;
993.3000;0.6878;1.2673;
993.6000;0.6829;1.2575;
993.9000;0.6886;1.2722;
994.2000;0.6805;1.2525;
994.5000;0.6862;1.2648;
994.8000;0.6870;1.2599;
995.1000;0.6862;1.2624;
995.4000;0.6862;1.2501;
995.7000;0.6870;1.2525;
996.0000;0.6878;1.2624;
996.3000;0.6805;1.2402;
996.6000;0.6862;1.2525;
996.9000;0.6870;1.2599;
997.2000;0.6862;1.2673;
997.5000;0.6862;1.2698;
997.8000;0.6870;1.2771;
998.1000;0.6862;1.2796;
998.4000;0.6903;1.2870;
998.7000;0.6862;1.2747;
999.0000;0.6870;1.2722;
999.3000;0.6854;1.2747;
999.6000;0.6854;1.2771;
999.9000;0.6870;1.2870;
1000.2000;0.6870;1.2845;
1000.5000;0.6838;1.2698;
1000.8000;0.6862;1.2722;
1001.1000;0.6838;1.2722;
1001.4000;0.6789;1.2599;
1001.7000;0.6862;1.2870;
1002.0000;0.6854;1.2796;
1002.3000;0.6846;1.2771;
1002.6000;0.6862;1.2698;
1002.9000;0.6870;1.2771;
1003.2000;0.6862;1.2747;
1003.5000;0.6870;1.2747;
1003.8000;0.6854;1.2722;
1004.1000;0.6862;1.2796;
1004.4000;0.6846;1.2796;
1004.7000;0.6829;1.2771;
1005.0000;0.6846;1.2895;
1005.3000;0.6846;1.2845;
1005.6000;0.6870;1.2845;
1005.9000;0.6854;1.2845;
1006.2000;0.6821;1.2821;
1006.5000;0.6838;1.2747;
1006.8000;0.6870;1.2722;
1007.1000;0.6854;1.2698;
1007.4000;0.6862;1.2673;
1007.7000;0.6854;1.2575;
1008.0000;0.6862;1.2648;
1008.3000;0.6854;1.2575;
1008.6000;0.6805;1.2575;
1008.9000;0.6870;1.2698;
1009.2000;0.6854;1.2722;
1009.5000;0.6943;1.2968;
1009.8000;0.6838;1.2673;
1010.1000;0.6862;1.2722;
1010.4000;0.6862;1.2624;
1010.7000;0.6862;1.2575;
1011.0000;0.6862;1.2575;
1011.3000;0.6854;1.2550;
1011.6000;0.6846;1.2525;
1011.9000;0.6854;1.2648;
1012.2000;0.6838;1.2648;
1012.5000;0.6846;1.2599;
1012.8000;0.6862;1.2599;
1013.1000;0.6854;1.2624;
1013.4000;0.6854;1.2648;
1013.7000;0.6854;1.2673;
1014.0000;0.6870;1.2722;
1014.3000;0.6854;1.2698;
1014.6000;0.6854;1.2722;
1014.9000;0.6846;1.2673;
1015.2000;0.6862;1.2722;
1015.5000;0.6862;1.2648;
1015.8000;0.6829;1.2575;
1016.1000;0.6862;1.2698;
1016.4000;0.6846;1.2698;
1016.7000;0.6854;1.2722;
1017.0000;0.6846;1.2673;
1017.3000;0.6846;1.2698;
1017.6000;0.6846;1.2698;
1017.9000;0.6854;1.2648;
1018.2000;0.6870;1.2624;
1018.5000;0.6870;1.2599;
1018.8000;0.6846;1.2550;
1019.1000;0.6862;1.2624;
1019.4000;0.6854;1.2575;
1019.7000;0.6862;1.2648;
1020.0000;0.6878;1.2771;
1020.3000;0.6838;1.2648;
1020.6000;0.6862;1.2648;
1020.9000;0.6846;1.2599;
1021.2000;0.6838;1.2550;
1021.5000;0.6862;1.2648;
1021.8000;0.6903;1.2845;
1022.1000;0.6838;1.2747;
1022.4000;0.6903;1.2968;
1022.7000;0.6854;1.2870;
1023.0000;0.6846;1.2919;
1023.3000;0.6829;1.2919;
1023.6000;0.6854;1.2944;
1023.9000;0.6846;1.2944;
1024.2000;0.6846;1.2944;
1024.5000;0.6854;1.2993;
1024.8000;0.6862;1.2968;
1025.1000;0.6846;1.2895;
1025.4000;0.6813;1.2845;
1025.7000;0.6846;1.3018;
1026.0000;0.6854;1.2895;
1026.3000;0.6838;1.2796;
1026.6000;0.6854;1.2796;
1026.9000;0.6862;1.2673;
1027.2000;0.6813;1.2648;
1027.5000;0.6813;1.2624;
1027.8000;0.6862;1.2821;
1028.1000;0.6895;1.2919;
1028.4000;0.6846;1.2895;
1028.7000;0.6854;1.2845;
1029.0000;0.6838;1.2771;
1029.3000;0.6886;1.2870;
1029.6000;0.6854;1.2870;
1029.9000;0.6854;1.2895;
1030.2000;0.6919;1.3067;
1030.5000;0.6846;1.2870;
1030.8000;0.6854;1.2845;
1031.1000;0.6862;1.2870;
1031.4000;0.6846;1.2895;
1031.7000;0.6854;1.2895;
1032.0000;0.6854;1.2845;
1032.3000;0.6854;1.2968;
1032.6000;0.6846;1.3042;
1032.9000;0.6854;1.3018;
1033.2000;0.6829;1.2919;
1033.5000;0.6838;1.2870;
1033.8000;0.6838;1.2771;
1034.1000;0.6903;1.2895;
1034.4000;0.6854;1.2895;
1034.7000;0.6862;1.2870;
1035.0000;0.6862;1.2919;
1035.3000;0.6854;1.2895;
1035.6000;0.6846;1.2895;
1035.9000;0.6854;1.2870;
1036.2000;0.6846;1.2968;
1036.5000;0.6846;1.2919;
1036.8000;0.6854;1.2895;
1037.1000;0.6854;1.2919;
1037.4000;0.6862;1.2895;
1037.7000;0.6838;1.2747;
1038.0000;0.6862;1.2698;
1038.3000;0.6862;1.2722;
1038.6000;0.6854;1.2698;
1038.9000;0.6846;1.2575;
1039.2000;0.6821;1.2476;
1039.5000;0.6838;1.2452;
1039.8000;0.6838;1.2476;
1040.1000;0.6838;1.2501;
1040.4000;0.6829;1.2501;
1040.7000;0.6862;1.2501;
1041.0000;0.6829;1.2452;
1041.3000;0.6838;1.2476;
1041.6000;0.6838;1.2501;
1041.9000;0.6846;1.2624;
1042.2000;0.6862;1.2821;
1042.5000;0.6829;1.2821;
1042.8000;0.6854;1.2895;
1043.1000;0.6862;1.2919;
1043.4000;0.6878;1.2993;
1043.7000;0.6870;1.2993;
1044.0000;0.6829;1.2919;
1044.3000;0.6878;1.3018;
1044.6000;0.6862;1.2919;
1044.9000;0.6846;1.2771;
1045.2000;0.6846;1.2673;
1045.5000;0.6903;1.2845;
1045.8000;0.6838;1.2698;
1046.1000;0.6846;1.2747;
1046.4000;0.6878;1.2845;
1046.7000;0.6838;1.2698;
1047.0000;0.6838;1.2624;
1047.3000;0.6838;1.2624;
1047.6000;0.6854;1.2722;
1047.9000;0.6797;1.2599;
1048.2000;0.6854;1.2796;
1048.5000;0.6854;1.2771;
1048.8000;0.6846;1.2845;
1049.1000;0.6846;1.2796;
1049.4000;0.6846;1.2747;
1049.7000;0.6862;1.2747;
1050.0000;0.6854;1.2821;
1050.3000;0.6862;1.2870;
1050.6000;0.6846;1.2771;
1050.9000;0.6846;1.2771;
1051.2000;0.6854;1.2796;
1051.5000;0.6846;1.2698;
1051.8000;0.6854;1.2870;
1052.1000;0.6838;1.2747;
1052.4000;0.6838;1.2648;
1052.7000;0.6829;1.2722;
1053.0000;0.6829;1.2722;
1053.3000;0.6838;1.2722;
1053.6000;0.6870;1.2796;
1053.9000;0.6911;1.3042;
1054.2000;0.6862;1.2821;
1054.5000;0.6829;1.2771;
1054.8000;0.6781;1.2698;
1055.1000;0.6846;1.2919;
1055.4000;0.6846;1.2993;
1055.7000;0.6854;1.2993;
1056.0000;0.6903;1.3091;
1056.3000;0.6838;1.2944;
1056.6000;0.6870;1.2968;
1056.9000;0.6878;1.3042;
1057.2000;0.6854;1.2919;
1057.5000;0.6854;1.2944;
1057.8000;0.6838;1.2845;
1058.1000;0.6838;1.2845;
1058.4000;0.6846;1.2870;
1058.7000;0.6838;1.2870;
1059.0000;0.6838;1.2845;
1059.3000;0.6870;1.2944;
1059.6000;0.6854;1.2944;
1059.9000;0.6846;1.2919;
1060.2000;0.6862;1.3018;
1060.5000;0.6846;1.2895;
1060.8000;0.6838;1.2845;
1061.1000;0.6862;1.2895;
1061.4000;0.6838;1.2870;
1061.7000;0.6862;1.2821;
1062.0000;0.6854;1.2845;
1062.3000;0.6838;1.2722;
1062.6000;0.6846;1.2698;
1062.9000;0.6797;1.2550;
1063.2000;0.6829;1.2624;
1063.5000;0.6829;1.2525;
1063.8000;0.6829;1.2550;
1064.1000;0.6846;1.2648;
1064.4000;0.6862;1.2722;
1064.7000;0.6846;1.2722;
1065.0000;0.6846;1.2895;
1065.3000;0.6846;1.2845;
1065.6000;0.6838;1.2845;
1065.9000;0.6846;1.2870;
1066.2000;0.6870;1.2968;
1066.5000;0.6862;1.2895;
1066.8000;0.6854;1.2845;
1067.1000;0.6854;1.2747;
1067.4000;0.6838;1.2722;
1067.7000;0.6862;1.2698;
1068.0000;0.6854;1.2648;
1068.3000;0.6846;1.2673;
1068.6000;0.6821;1.2648;
1068.9000;0.6829;1.2673;
1069.2000;0.6829;1.2722;
1069.5000;0.6862;1.2747;
1069.8000;0.6846;1.2747;
1070.1000;0.6821;1.2771;
1070.4000;0.6854;1.2870;
1070.7000;0.6846;1.2821;
1071.0000;0.6846;1.2698;
1071.3000;0.6854;1.2771;
1071.6000;0.6821;1.2722;
1071.9000;0.6829;1.2648;
1072.2000;0.6838;1.2698;
1072.5000;0.6838;1.2747;
1072.8000;0.6813;1.2673;
1073.1000;0.6829;1.2771;
1073.4000;0.6838;1.2796;
1073.7000;0.6829;1.2895;
1074.0000;0.6821;1.2771;
1074.3000;0.6829;1.2747;
1074.6000;0.6838;1.2722;
1074.9000;0.6829;1.2747;
1075.2000;0.6854;1.2821;
1075.5000;0.6854;1.2771;
1075.8000;0.6838;1.2673;
1076.1000;0.6846;1.2648;
1076.4000;0.6829;1.2673;
1076.7000;0.6854;1.2796;
1077.0000;0.6919;1.3018;
1077.3000;0.6846;1.2821;
1077.6000;0.6895;1.2993;
1077.9000;0.6838;1.2870;
1078.2000;0.6854;1.2845;
1078.5000;0.6846;1.2870;
1078.8000;0.6829;1.2870;
1079.1000;0.6838;1.2993;
1079.4000;0.6846;1.3067;
1079.7000;0.6821;1.3018;
1080.0000;0.6838;1.2944;
1080.3000;0.6886;1.3042;
1080.6000;0.6846;1.2944;
1080.9000;0.6862;1.2993;
1081.2000;0.6854;1.2993;
1081.5000;0.6838;1.2919;
1081.8000;0.6838;1.2895;
1082.1000;0.6854;1.2821;
1082.4000;0.6862;1.2821;
1082.7000;0.6838;1.2919;
1083.0000;0.6846;1.2895;
1083.3000;0.6862;1.2895;
1083.6000;0.6862;1.2771;
1083.9000;0.6829;1.2599;
1084.2000;0.6829;1.2624;
1084.5000;0.6838;1.2550;
1084.8000;0.6846;1.2673;
1085.1000;0.6846;1.2722;
1085.4000;0.6846;1.2624;
1085.7000;0.6846;1.2648;
1086.0000;0.6846;1.2673;
1086.3000;0.6862;1.2648;
1086.6000;0.6854;1.2673;
1086.9000;0.6846;1.2648;
1087.2000;0.6862;1.2624;
1087.5000;0.6854;1.2550;
1087.8000;0.6846;1.2476;
1088.1000;0.6854;1.2550;
1088.4000;0.6846;1.2501;
1088.7000;0.6838;1.2501;
1089.0000;0.6838;1.2427;
1089.3000;0.6821;1.2402;
1089.6000;0.6838;1.2452;
1089.9000;0.6846;1.2452;
1090.2000;0.6838;1.2599;
1090.5000;0.6870;1.2673;
1090.8000;0.6838;1.2624;
1091.1000;0.6846;1.2673;
1091.4000;0.6829;1.2648;
1091.7000;0.6895;1.2870;
1092.0000;0.6854;1.2673;
1092.3000;0.6870;1.2624;
1092.6000;0.6895;1.2673;
1092.9000;0.6846;1.2575;
1093.2000;0.6854;1.2550;
1093.5000;0.6846;1.2575;
1093.8000;0.6854;1.2599;
1094.1000;0.6838;1.2599;
1094.4000;0.6829;1.2624;
1094.7000;0.6838;1.2673;
1095.0000;0.6854;1.2747;
1095.3000;0.6813;1.2599;
1095.6000;0.6829;1.2698;
1095.9000;0.6846;1.2722;
1096.2000;0.6829;1.2722;
1096.5000;0.6878;1.2821;
1096.8000;0.6813;1.2624;
1097.1000;0.6838;1.2648;
1097.4000;0.6821;1.2575;
1097.7000;0.6829;1.2550;
1098.0000;0.6829;1.2575;
1098.3000;0.6829;1.2599;
1098.6000;0.6870;1.2698;
1098.9000;0.6846;1.2722;
1099.2000;0.6829;1.2648;
1099.5000;0.6821;1.2599;
1099.8000;0.6821;1.2550;
1100.1000;0.6846;1.2599;
1100.4000;0.6846;1.2599;
1100.7000;0.6878;1.2722;
1101.0000;0.6854;1.2673;
1101.3000;0.6886;1.2698;
1101.6000;0.6821;1.2698;
1101.9000;0.6846;1.2870;
1102.2000;0.6911;1.2968;
1102.5000;0.6862;1.2821;
1102.8000;0.6935;1.2993;
1103.1000;0.6854;1.2722;
1103.4000;0.6838;1.2624;
1103.7000;0.6838;1.2624;
1104.0000;0.6846;1.2550;
1104.3000;0.6838;1.2525;
1104.6000;0.6886;1.2575;
1104.9000;0.6821;1.2452;
1105.2000;0.6854;1.2550;
1105.5000;0.6838;1.2525;
1105.8000;0.6813;1.2525;
1106.1000;0.6846;1.2722;
1106.4000;0.6854;1.2771;
1106.7000;0.6846;1.2796;
1107.0000;0.6854;1.2821;
1107.3000;0.6854;1.2895;
1107.6000;0.6846;1.2870;
1107.9000;0.6838;1.2919;
1108.2000;0.6846;1.2895;
1108.5000;0.6838;1.2821;
1108.8000;0.6838;1.2722;
1109.1000;0.6846;1.2722;
1109.4000;0.6829;1.2648;
1109.7000;0.6813;1.2501;
1110.0000;0.6813;1.2575;
1110.3000;0.6846;1.2648;
1110.6000;0.6838;1.2648;
1110.9000;0.6805;1.2575;
1111.2000;0.6829;1.2525;
1111.5000;0.6838;1.2599;
1111.8000;0.6838;1.2599;
1112.1000;0.6854;1.2599;
1112.4000;0.6838;1.2550;
1112.7000;0.6846;1.2550;
1113.0000;0.6821;1.2624;
1113.3000;0.6838;1.2673;
1113.6000;0.6829;1.2673;
1113.9000;0.6838;1.2747;
1114.2000;0.6829;1.2747;
1114.5000;0.6838;1.2870;
1114.8000;0.6829;1.2845;
1115.1000;0.6838;1.2821;
1115.4000;0.6829;1.2845;
1115.7000;0.6854;1.2845;
1116.0000;0.6829;1.2895;
1116.3000;0.6886;1.3116;
1116.6000;0.6846;1.2944;
1116.9000;0.6846;1.2895;
1117.2000;0.6846;1.2845;
1117.5000;0.6838;1.2821;
1117.8000;0.6805;1.2722;
1118.1000;0.6846;1.2722;
1118.4000;0.6846;1.2796;
1118.7000;0.6838;1.2747;
1119.0000;0.6829;1.2673;
1119.3000;0.6846;1.2747;
1119.6000;0.6829;1.2771;
1119.9000;0.6829;1.2722;
1120.2000;0.6821;1.2796;
1120.5000;0.6846;1.2845;
1120.8000;0.6829;1.2771;
1121.1000;0.6846;1.2821;
1121.4000;0.6838;1.2870;
1121.7000;0.6829;1.2845;
1122.0000;0.6829;1.2895;
1122.3000;0.6821;1.2821;
1122.6000;0.6838;1.2796;
1122.9000;0.6797;1.2722;
1123.2000;0.6854;1.2821;
1123.5000;0.6854;1.2845;
1123.8000;0.6838;1.2944;
1124.1000;0.6846;1.2919;
1124.4000;0.6838;1.2944;
1124.7000;0.6829;1.2993;
1125.0000;0.6846;1.2968;
1125.3000;0.6878;1.2968;
1125.6000;0.6870;1.2944;
1125.9000;0.6813;1.2845;
1126.2000;0.6829;1.2796;
1126.5000;0.6838;1.2771;
1126.8000;0.6781;1.2599;
1127.1000;0.6838;1.2673;
1127.4000;0.6919;1.2870;
1127.7000;0.6829;1.2624;
1128.0000;0.6821;1.2648;
1128.3000;0.6854;1.2722;
1128.6000;0.6862;1.2698;
1128.9000;0.6838;1.2648;
1129.2000;0.6854;1.2624;
1129.5000;0.6870;1.2796;
1129.8000;0.6846;1.2747;
1130.1000;0.6829;1.2845;
1130.4000;0.6838;1.2845;
1130.7000;0.6846;1.2821;
1131.0000;0.6846;1.2796;
1131.3000;0.6846;1.2821;
1131.6000;0.6862;1.2845;
1131.9000;0.6838;1.2747;
1132.2000;0.6854;1.2771;
1132.5000;0.6862;1.2722;
1132.8000;0.6821;1.2673;
1133.1000;0.6821;1.2698;
1133.4000;0.6838;1.2673;
1133.7000;0.6756;1.2427;
1134.0000;0.6846;1.2624;
1134.3000;0.6838;1.2624;
1134.6000;0.6862;1.2624;
1134.9000;0.6854;1.2525;
1135.2000;0.6862;1.2525;
1135.5000;0.6829;1.2402;
1135.8000;0.6797;1.2329;
1136.1000;0.6846;1.2550;
1136.4000;0.6838;1.2501;
1136.7000;0.6846;1.2550;
1137.0000;0.6846;1.2575;
1137.3000;0.6878;1.2624;
1137.6000;0.6846;1.2599;
1137.9000;0.6919;1.2747;
1138.2000;0.6854;1.2575;
1138.5000;0.6862;1.2575;
1138.8000;0.6821;1.2476;
1139.1000;0.6846;1.2575;
1139.4000;0.6829;1.2648;
1139.7000;0.6829;1.2698;
1140.0000;0.6846;1.2722;
1140.3000;0.6895;1.2895;
1140.6000;0.6870;1.2845;
1140.9000;0.6838;1.2771;
1141.2000;0.6829;1.2747;
1141.5000;0.6813;1.2698;
1141.8000;0.6838;1.2845;
1142.1000;0.6829;1.2821;
1142.4000;0.6781;1.2747;
1142.7000;0.6829;1.2870;
1143.0000;0.6829;1.2919;
1143.3000;0.6838;1.2919;
1143.6000;0.6821;1.2919;
1143.9000;0.6846;1.3018;
1144.2000;0.6821;1.2968;
1144.5000;0.6838;1.2968;
1144.8000;0.6829;1.2895;
1145.1000;0.6829;1.2796;
1145.4000;0.6829;1.2870;
1145.7000;0.6829;1.2796;
1146.0000;0.6829;1.2870;
1146.3000;0.6821;1.2870;
1146.6000;0.6821;1.2895;
1146.9000;0.6838;1.2968;
1147.2000;0.6821;1.2870;
1147.5000;0.6829;1.2796;
1147.8000;0.6821;1.2771;
1148.1000;0.6838;1.2845;
1148.4000;0.6821;1.2845;
1148.7000;0.6895;1.2993;
1149.0000;0.6846;1.2895;
1149.3000;0.6838;1.2870;
1149.6000;0.6764;1.2722;
1149.9000;0.6862;1.2919;
1150.2000;0.6838;1.2870;
1150.5000;0.6862;1.2944;
1150.8000;0.6813;1.2796;
1151.1000;0.6838;1.2722;
1151.4000;0.6846;1.2673;
1151.7000;0.6829;1.2525;
1152.0000;0.6829;1.2575;
1152.3000;0.6829;1.2648;
1152.6000;0.6829;1.2624;
1152.9000;0.6870;1.2698;
1153.2000;0.6838;1.2624;
1153.5000;0.6821;1.2599;
1153.8000;0.6838;1.2624;
1154.1000;0.6829;1.2624;
1154.4000;0.6821;1.2550;
1154.7000;0.6821;1.2501;
1155.0000;0.6829;1.2525;
1155.3000;0.6846;1.2525;
1155.6000;0.6838;1.2550;
1155.9000;0.6846;1.2575;
1156.2000;0.6846;1.2575;
1156.5000;0.6854;1.2599;
1156.8000;0.6846;1.2673;
1157.1000;0.6829;1.2624;
1157.4000;0.6829;1.2575;
1157.7000;0.6829;1.2599;
1158.0000;0.6838;1.2599;
1158.3000;0.6821;1.2648;
1158.6000;0.6821;1.2575;
1158.9000;0.6862;1.2673;
1159.2000;0.6903;1.2796;
1159.5000;0.6829;1.2599;
1159.8000;0.6838;1.2722;
1160.1000;0.6838;1.2821;
1160.4000;0.6813;1.2747;
1160.7000;0.6846;1.2796;
1161.0000;0.6829;1.2747;
1161.3000;0.6846;1.2796;
1161.6000;0.6903;1.2919;
1161.9000;0.6846;1.2796;
1162.2000;0.6854;1.2821;
1162.5000;0.6862;1.2747;
1162.8000;0.6846;1.2722;
1163.1000;0.6862;1.2771;
1163.4000;0.6846;1.2698;
1163.7000;0.6829;1.2698;
1164.0000;0.6846;1.2796;
1164.3000;0.6846;1.2771;
1164.6000;0.6821;1.2747;
1164.9000;0.6821;1.2796;
1165.2000;0.6838;1.2895;
1165.5000;0.6797;1.2698;
1165.8000;0.6838;1.2673;
1166.1000;0.6838;1.2599;
1166.4000;0.6821;1.2575;
1166.7000;0.6878;1.2771;
1167.0000;0.6854;1.2648;
1167.3000;0.6813;1.2599;
1167.6000;0.6805;1.2624;
1167.9000;0.6797;1.2599;
1168.2000;0.6829;1.2698;
1168.5000;0.6821;1.2722;
1168.8000;0.6821;1.2673;
1169.1000;0.6838;1.2722;
1169.4000;0.6838;1.2698;
1169.7000;0.6838;1.2722;
1170.0000;0.6805;1.2575;
1170.3000;0.6813;1.2698;
1170.6000;0.6813;1.2722;
1170.9000;0.6772;1.2648;
1171.2000;0.6805;1.2722;
1171.5000;0.6813;1.2722;
1171.8000;0.6821;1.2673;
1172.1000;0.6813;1.2673;
1172.4000;0.6821;1.2599;
1172.7000;0.6829;1.2624;
1173.0000;0.6829;1.2599;
1173.3000;0.6838;1.2648;
1173.6000;0.6813;1.2624;
1173.9000;0.6821;1.2673;
1174.2000;0.6797;1.2599;
1174.5000;0.6821;1.2673;
1174.8000;0.6846;1.2747;
1175.1000;0.6813;1.2698;
1175.4000;0.6821;1.2747;
1175.7000;0.6829;1.2796;
1176.0000;0.6829;1.2870;
1176.3000;0.6838;1.2796;
1176.6000;0.6846;1.2845;
1176.9000;0.6781;1.2648;
1177.2000;0.6829;1.2648;
1177.5000;0.6821;1.2501;
1177.8000;0.6829;1.2575;
1178.1000;0.6838;1.2599;
1178.4000;0.6829;1.2624;
1178.7000;0.6838;1.2648;
1179.0000;0.6829;1.2673;
1179.3000;0.6846;1.2648;
1179.6000;0.6829;1.2575;
1179.9000;0.6838;1.2599;
1180.2000;0.6829;1.2599;
1180.5000;0.6846;1.2599;
1180.8000;0.6846;1.2673;
1181.1000;0.6854;1.2747;
1181.4000;0.6846;1.2698;
1181.7000;0.6821;1.2624;
1182.0000;0.6854;1.2673;
1182.3000;0.6821;1.2624;
1182.6000;0.6821;1.2698;
1182.9000;0.6821;1.2673;
1183.2000;0.6846;1.2698;
1183.5000;0.6838;1.2673;
1183.8000;0.6838;1.2624;
1184.1000;0.6748;1.2378;
1184.4000;0.6854;1.2648;
1184.7000;0.6829;1.2525;
1185.0000;0.6846;1.2698;
1185.3000;0.6789;1.2525;
1185.6000;0.6854;1.2575;
1185.9000;0.6829;1.2525;
1186.2000;0.6821;1.2452;
1186.5000;0.6854;1.2476;
1186.8000;0.6846;1.2476;
1187.1000;0.6829;1.2476;
1187.4000;0.6846;1.2525;
1187.7000;0.6838;1.2599;
1188.0000;0.6829;1.2722;
1188.3000;0.6829;1.2747;
1188.6000;0.6821;1.2673;
1188.9000;0.6821;1.2648;
1189.2000;0.6821;1.2648;
1189.5000;0.6821;1.2698;
1189.8000;0.6829;1.2722;
1190.1000;0.6829;1.2722;
1190.4000;0.6821;1.2624;
1190.7000;0.6813;1.2624;
1191.0000;0.6838;1.2722;
1191.3000;0.6846;1.2821;
1191.6000;0.6829;1.2796;
1191.9000;0.6813;1.2747;
1192.2000;0.6838;1.2747;
1192.5000;0.6813;1.2722;
1192.8000;0.6829;1.2698;
1193.1000;0.6813;1.2722;
1193.4000;0.6821;1.2796;
1193.7000;0.6838;1.2870;
1194.0000;0.6838;1.2919;
1194.3000;0.6829;1.2895;
1194.6000;0.6829;1.2845;
1194.9000;0.6829;1.2821;
1195.2000;0.6821;1.2771;
1195.5000;0.6878;1.2870;
1195.8000;0.6813;1.2870;
1196.1000;0.6829;1.2845;
1196.4000;0.6846;1.2968;
1196.7000;0.6829;1.2919;
1197.0000;0.6829;1.2944;
1197.3000;0.6838;1.2944;
1197.6000;0.6878;1.2944;
1197.9000;0.6846;1.2796;
1198.2000;0.6903;1.2895;
1198.5000;0.6838;1.2771;
1198.8000;0.6846;1.2771;
1199.1000;0.6821;1.2673;
1199.4000;0.6821;1.2648;
1199.7000;0.6821;1.2673;
1200.0000;0.6854;1.2698;
1200.3000;0.6829;1.2673;
1200.6000;0.6813;1.2624;
1200.9000;0.6797;1.2624;
1201.2000;0.6821;1.2575;
1201.5000;0.6813;1.2525;
1201.8000;0.6854;1.2575;
1202.1000;0.6821;1.2550;
1202.4000;0.6838;1.2673;
1202.7000;0.6846;1.2722;
1203.0000;0.6821;1.2698;
1203.3000;0.6813;1.2747;
1203.6000;0.6821;1.2796;
1203.9000;0.6846;1.2796;
1204.2000;0.6846;1.2796;
1204.5000;0.6821;1.2747;
1204.8000;0.6829;1.2796;
1205.1000;0.6838;1.2895;
1205.4000;0.6821;1.2821;
1205.7000;0.6821;1.2796;
1206.0000;0.6854;1.2845;
1206.3000;0.6838;1.2771;
1206.6000;0.6838;1.2698;
1206.9000;0.6797;1.2673;
1207.2000;0.6821;1.2747;
1207.5000;0.6813;1.2698;
1207.8000;0.6829;1.2722;
1208.1000;0.6829;1.2698;
1208.4000;0.6821;1.2771;
1208.7000;0.6854;1.2771;
1209.0000;0.6821;1.2747;
1209.3000;0.6829;1.2722;
1209.6000;0.6813;1.2698;
1209.9000;0.6813;1.2599;
1210.2000;0.6846;1.2673;
1210.5000;0.6829;1.2575;
1210.8000;0.6813;1.2648;
1211.1000;0.6821;1.2624;
1211.4000;0.6821;1.2648;
1211.7000;0.6813;1.2624;
1212.0000;0.6813;1.2550;
1212.3000;0.6821;1.2599;
1212.6000;0.6829;1.2575;
1212.9000;0.6838;1.2575;
1213.2000;0.6838;1.2550;
1213.5000;0.6886;1.2599;
1213.8000;0.6821;1.2378;
1214.1000;0.6821;1.2378;
1214.4000;0.6821;1.2329;
1214.7000;0.6821;1.2476;
1215.0000;0.6789;1.2476;
1215.3000;0.6829;1.2648;
1215.6000;0.6846;1.2673;
1215.9000;0.6829;1.2599;
1216.2000;0.6813;1.2624;
1216.5000;0.6846;1.2575;
1216.8000;0.6829;1.2476;
1217.1000;0.6886;1.2599;
1217.4000;0.6829;1.2525;
1217.7000;0.6829;1.2599;
1218.0000;0.6838;1.2575;
1218.3000;0.6838;1.2525;
1218.6000;0.6878;1.2673;
1218.9000;0.6829;1.2599;
1219.2000;0.6878;1.2698;
1219.5000;0.6829;1.2525;
1219.8000;0.6838;1.2575;
1220.1000;0.6821;1.2599;
1220.4000;0.6813;1.2575;
1220.7000;0.6838;1.2648;
1221.0000;0.6813;1.2624;
1221.3000;0.6813;1.2550;
1221.6000;0.6829;1.2550;
1221.9000;0.6838;1.2624;
1222.2000;0.6862;1.2624;
1222.5000;0.6838;1.2525;
1222.8000;0.6813;1.2550;
1223.1000;0.6829;1.2624;
1223.4000;0.6846;1.2599;
1223.7000;0.6813;1.2452;
1224.0000;0.6829;1.2575;
1224.3000;0.6846;1.2575;
1224.6000;0.6846;1.2599;
1224.9000;0.6829;1.2575;
1225.2000;0.6821;1.2624;
1225.5000;0.6829;1.2624;
1225.8000;0.6846;1.2698;
1226.1000;0.6838;1.2771;
1226.4000;0.6821;1.2722;
1226.7000;0.6829;1.2698;
1227.0000;0.6829;1.2698;
1227.3000;0.6838;1.2722;
1227.6000;0.6821;1.2673;
1227.9000;0.6838;1.2550;
1228.2000;0.6829;1.2501;
1228.5000;0.6846;1.2624;
1228.8000;0.6838;1.2698;
1229.1000;0.6829;1.2624;
1229.4000;0.6821;1.2501;
1229.7000;0.6829;1.2452;
1230.0000;0.6805;1.2525;
1230.3000;0.6813;1.2575;
1230.6000;0.6838;1.2673;
1230.9000;0.6846;1.2747;
1231.2000;0.6838;1.2796;
1231.5000;0.6829;1.2673;
1231.8000;0.6838;1.2673;
1232.1000;0.6854;1.2747;
1232.4000;0.6813;1.2673;
1232.7000;0.6854;1.2747;
1233.0000;0.6829;1.2673;
1233.3000;0.6886;1.2722;
1233.6000;0.6846;1.2599;
1233.9000;0.6829;1.2575;
1234.2000;0.6829;1.2575;
1234.5000;0.6805;1.2550;
1234.8000;0.6829;1.2575;
1235.1000;0.6829;1.2624;
1235.4000;0.6854;1.2575;
1235.7000;0.6781;1.2402;
1236.0000;0.6829;1.2525;
1236.3000;0.6838;1.2476;
1236.6000;0.6813;1.2329;
1236.9000;0.6821;1.2353;
1237.2000;0.6813;1.2353;
1237.5000;0.6829;1.2452;
1237.8000;0.6813;1.2427;
1238.1000;0.6805;1.2452;
1238.4000;0.6813;1.2476;
1238.7000;0.6821;1.2501;
1239.0000;0.6838;1.2525;
1239.3000;0.6740;1.2402;
1239.6000;0.6846;1.2575;
1239.9000;0.6821;1.2525;
1240.2000;0.6821;1.2501;
1240.5000;0.6829;1.2501;
1240.8000;0.6805;1.2501;
1241.1000;0.6829;1.2550;
1241.4000;0.6838;1.2599;
1241.7000;0.6813;1.2452;
1242.0000;0.6813;1.2501;
1242.3000;0.6813;1.2624;
1242.6000;0.6813;1.2599;
1242.9000;0.6821;1.2722;
1243.2000;0.6805;1.2722;
1243.5000;0.6829;1.2821;
1243.8000;0.6813;1.2722;
1244.1000;0.6805;1.2722;
1244.4000;0.6821;1.2698;
1244.7000;0.6829;1.2722;
1245.0000;0.6846;1.2673;
1245.3000;0.6829;1.2550;
1245.6000;0.6813;1.2599;
1245.9000;0.6829;1.2722;
1246.2000;0.6829;1.2673;
1246.5000;0.6829;1.2648;
1246.8000;0.6813;1.2599;
1247.1000;0.6838;1.2624;
1247.4000;0.6789;1.2501;
1247.7000;0.6821;1.2550;
1248.0000;0.6829;1.2476;
1248.3000;0.6821;1.2525;
1248.6000;0.6797;1.2452;
1248.9000;0.6821;1.2550;
1249.2000;0.6813;1.2599;
1249.5000;0.6829;1.2648;
1249.8000;0.6829;1.2698;
1250.1000;0.6821;1.2747;
1250.4000;0.6805;1.2673;
1250.7000;0.6821;1.2698;
1251.0000;0.6813;1.2698;
1251.3000;0.6862;1.2771;
1251.6000;0.6805;1.2525;
1251.9000;0.6821;1.2525;
1252.2000;0.6838;1.2525;
1252.5000;0.6854;1.2575;
1252.8000;0.6838;1.2501;
1253.1000;0.6846;1.2575;
1253.4000;0.6829;1.2501;
1253.7000;0.6854;1.2599;
1254.0000;0.6813;1.2599;
1254.3000;0.6813;1.2624;
1254.6000;0.6821;1.2648;
1254.9000;0.6838;1.2821;
1255.2000;0.6813;1.2747;
1255.5000;0.6862;1.2796;
1255.8000;0.6854;1.2821;
1256.1000;0.6813;1.2698;
1256.4000;0.6952;1.2993;
1256.7000;0.6838;1.2722;
1257.0000;0.6821;1.2722;
1257.3000;0.6829;1.2747;
1257.6000;0.6821;1.2796;
1257.9000;0.6789;1.2624;
1258.2000;0.6805;1.2673;
1258.5000;0.6756;1.2698;
1258.8000;0.6821;1.2821;
1259.1000;0.6829;1.2771;
1259.4000;0.6829;1.2722;
1259.7000;0.6781;1.2673;
1260.0000;0.6838;1.2796;
1260.3000;0.6829;1.2870;
1260.6000;0.6838;1.2870;
1260.9000;0.6829;1.2870;
1261.2000;0.6829;1.2870;
1261.5000;0.6813;1.2796;
1261.8000;0.6813;1.2747;
1262.1000;0.6829;1.2722;
1262.4000;0.6821;1.2673;
1262.7000;0.6838;1.2722;
1263.0000;0.6829;1.2599;
1263.3000;0.6813;1.2525;
1263.6000;0.6821;1.2550;
1263.9000;0.6829;1.2525;
1264.2000;0.6846;1.2525;
1264.5000;0.6821;1.2550;
1264.8000;0.6821;1.2599;
1265.1000;0.6813;1.2501;
1265.4000;0.6829;1.2575;
1265.7000;0.6846;1.2722;
1266.0000;0.6813;1.2599;
1266.3000;0.6895;1.2771;
1266.6000;0.6821;1.2599;
1266.9000;0.6838;1.2648;
1267.2000;0.6838;1.2624;
1267.5000;0.6813;1.2550;
1267.8000;0.6838;1.2501;
1268.1000;0.6829;1.2525;
1268.4000;0.6838;1.2402;
1268.7000;0.6813;1.2427;
1269.0000;0.6846;1.2402;
1269.3000;0.6838;1.2427;
1269.6000;0.6821;1.2427;
1269.9000;0.6821;1.2525;
1270.2000;0.6821;1.2575;
1270.5000;0.6813;1.2525;
1270.8000;0.6829;1.2452;
1271.1000;0.6846;1.2402;
1271.4000;0.6829;1.2255;
1271.7000;0.6829;1.2353;
1272.0000;0.6838;1.2427;
1272.3000;0.6821;1.2501;
1272.6000;0.6805;1.2501;
1272.9000;0.6813;1.2525;
1273.2000;0.6829;1.2575;
1273.5000;0.6838;1.2575;
1273.8000;0.6805;1.2476;
1274.1000;0.6829;1.2575;
1274.4000;0.6821;1.2624;
1274.7000;0.6821;1.2476;
1275.0000;0.6821;1.2452;
1275.3000;0.6862;1.2624;
1275.6000;0.6829;1.2476;
1275.9000;0.6813;1.2476;
1276.2000;0.6821;1.2501;
1276.5000;0.6829;1.2550;
1276.8000;0.6797;1.2624;
1277.1000;0.6829;1.2747;
1277.4000;0.6821;1.2673;
1277.7000;0.6829;1.2648;
1278.0000;0.6821;1.2648;
1278.3000;0.6805;1.2550;
1278.6000;0.6821;1.2575;
1278.9000;0.6829;1.2575;
1279.2000;0.6813;1.2525;
1279.5000;0.6829;1.2575;
1279.8000;0.6846;1.2501;
1280.1000;0.6838;1.2599;
1280.4000;0.6821;1.2575;
1280.7000;0.6829;1.2525;
1281.0000;0.6838;1.2599;
1281.3000;0.6821;1.2525;
1281.6000;0.6886;1.2599;
1281.9000;0.6829;1.2402;
1282.2000;0.6821;1.2402;
1282.5000;0.6821;1.2378;
1282.8000;0.6813;1.2353;
1283.1000;0.6829;1.2501;
1283.4000;0.6838;1.2550;
1283.7000;0.6862;1.2599;
1284.0000;0.6821;1.2550;
1284.3000;0.6797;1.2624;
1284.6000;0.6838;1.2698;
1284.9000;0.6838;1.2599;
1285.2000;0.6821;1.2624;
1285.5000;0.6805;1.2624;
1285.8000;0.6821;1.2747;
1286.1000;0.6813;1.2722;
1286.4000;0.6829;1.2698;
1286.7000;0.6813;1.2624;
1287.0000;0.6821;1.2624;
1287.3000;0.6829;1.2525;
1287.6000;0.6813;1.2476;
1287.9000;0.6895;1.2698;
1288.2000;0.6797;1.2476;
1288.5000;0.6805;1.2673;
1288.8000;0.6829;1.2673;
1289.1000;0.6805;1.2648;
1289.4000;0.6829;1.2648;
1289.7000;0.6805;1.2501;
1290.0000;0.6756;1.2329;
1290.3000;0.6829;1.2476;
1290.6000;0.6829;1.2501;
1290.9000;0.6805;1.2353;
1291.2000;0.6805;1.2353;
1291.5000;0.6829;1.2353;
1291.8000;0.6813;1.2329;
1292.1000;0.6805;1.2304;
1292.4000;0.6813;1.2304;
1292.7000;0.6821;1.2353;
1293.0000;0.6829;1.2427;
1293.3000;0.6813;1.2427;
1293.6000;0.6829;1.2402;
1293.9000;0.6821;1.2353;
1294.2000;0.6821;1.2304;
1294.5000;0.6821;1.2279;
1294.8000;0.6732;1.2107;
1295.1000;0.6829;1.2402;
1295.4000;0.6813;1.2501;
1295.7000;0.6805;1.2525;
1296.0000;0.6797;1.2427;
1296.3000;0.6805;1.2501;
1296.6000;0.6813;1.2525;
1296.9000;0.6764;1.2378;
1297.2000;0.6821;1.2452;
1297.5000;0.6821;1.2353;
1297.8000;0.6699;1.2082;
1298.1000;0.6854;1.2501;
1298.4000;0.6813;1.2402;
1298.7000;0.6805;1.2452;
1299.0000;0.6829;1.2402;
1299.3000;0.6829;1.2329;
1299.6000;0.6797;1.2329;
1299.9000;0.6732;1.2156;
1300.2000;0.6821;1.2329;
1300.5000;0.6821;1.2402;
1300.8000;0.6854;1.2476;
1301.1000;0.6829;1.2452;
1301.4000;0.6813;1.2624;
1301.7000;0.6813;1.2648;
1302.0000;0.6813;1.2698;
1302.3000;0.6797;1.2648;
1302.6000;0.6821;1.2796;
1302.9000;0.6813;1.2796;
1303.2000;0.6813;1.2747;
1303.5000;0.6821;1.2722;
1303.8000;0.6829;1.2771;
1304.1000;0.6813;1.2698;
1304.4000;0.6805;1.2771;
1304.7000;0.6764;1.2698;
1305.0000;0.6813;1.2895;
1305.3000;0.6821;1.2895;
1305.6000;0.6805;1.2870;
1305.9000;0.6805;1.2796;
1306.2000;0.6813;1.2796;
1306.5000;0.6829;1.2722;
1306.8000;0.6805;1.2796;
1307.1000;0.6821;1.2821;
1307.4000;0.6829;1.2821;
1307.7000;0.6797;1.2722;
1308.0000;0.6829;1.2845;
1308.3000;0.6821;1.2771;
1308.6000;0.6838;1.2747;
1308.9000;0.6838;1.2698;
1309.2000;0.6813;1.2698;
1309.5000;0.6805;1.2698;
1309.8000;0.6707;1.2501;
1310.1000;0.6829;1.2673;
1310.4000;0.6821;1.2698;
1310.7000;0.6821;1.2722;
1311.0000;0.6805;1.2624;
1311.3000;0.6886;1.2821;
1311.6000;0.6813;1.2673;
1311.9000;0.6821;1.2722;
1312.2000;0.6813;1.2722;
1312.5000;0.6805;1.2698;
1312.8000;0.6821;1.2698;
1313.1000;0.6829;1.2698;
1313.4000;0.6732;1.2575;
1313.7000;0.6838;1.2796;
1314.0000;0.6846;1.2698;
1314.3000;0.6838;1.2698;
1314.6000;0.6886;1.2821;
1314.9000;0.6829;1.2575;
1315.2000;0.6846;1.2599;
1315.5000;0.6829;1.2599;
1315.8000;0.6756;1.2476;
1316.1000;0.6805;1.2575;
1316.4000;0.6813;1.2575;
1316.7000;0.6821;1.2747;
1317.0000;0.6862;1.2821;
1317.3000;0.6821;1.2747;
1317.6000;0.6813;1.2722;
1317.9000;0.6805;1.2648;
1318.2000;0.6829;1.2722;
1318.5000;0.6821;1.2747;
1318.8000;0.6756;1.2624;
1319.1000;0.6829;1.2722;
1319.4000;0.6829;1.2771;
1319.7000;0.6838;1.2796;
1320.0000;0.6821;1.2796;
1320.3000;0.6797;1.2722;
1320.6000;0.6854;1.2796;
1320.9000;0.6772;1.2550;
1321.2000;0.6805;1.2648;
1321.5000;0.6821;1.2673;
1321.8000;0.6821;1.2648;
1322.1000;0.6829;1.2648;
1322.4000;0.6821;1.2698;
1322.7000;0.6813;1.2796;
1323.0000;0.6813;1.2796;
1323.3000;0.6829;1.2870;
1323.6000;0.6838;1.2919;
1323.9000;0.6781;1.2747;
1324.2000;0.6813;1.2796;
1324.5000;0.6829;1.2796;
1324.8000;0.6813;1.2796;
1325.1000;0.6829;1.2821;
1325.4000;0.6813;1.2747;
1325.7000;0.6821;1.2575;
1326.0000;0.6797;1.2550;
1326.3000;0.6821;1.2648;
1326.6000;0.6854;1.2722;
1326.9000;0.6789;1.2525;
1327.2000;0.6821;1.2624;
1327.5000;0.6829;1.2698;
1327.8000;0.6838;1.2698;
1328.1000;0.6821;1.2673;
1328.4000;0.6813;1.2648;
1328.7000;0.6821;1.2550;
1329.0000;0.6813;1.2575;
1329.3000;0.6821;1.2624;
1329.6000;0.6911;1.2968;
1329.9000;0.6813;1.2771;
1330.2000;0.6805;1.2796;
1330.5000;0.6829;1.2845;
1330.8000;0.6805;1.2747;
1331.1000;0.6821;1.2771;
1331.4000;0.6862;1.2747;
1331.7000;0.6821;1.2673;
1332.0000;0.6805;1.2550;
1332.3000;0.6805;1.2525;
1332.6000;0.6829;1.2624;
1332.9000;0.6813;1.2599;
1333.2000;0.6789;1.2550;
1333.5000;0.6821;1.2648;
1333.8000;0.6829;1.2722;
1334.1000;0.6797;1.2673;
1334.4000;0.6797;1.2747;
1334.7000;0.6805;1.2821;
1335.0000;0.6813;1.2722;
1335.3000;0.6813;1.2673;
1335.6000;0.6797;1.2624;
1335.9000;0.6789;1.2722;
1336.2000;0.6829;1.2771;
1336.5000;0.6805;1.2722;
1336.8000;0.6789;1.2698;
1337.1000;0.6813;1.2648;
1337.4000;0.6756;1.2501;
1337.7000;0.6772;1.2525;
1338.0000;0.6829;1.2698;
1338.3000;0.6829;1.2698;
1338.6000;0.6854;1.2796;
1338.9000;0.6813;1.2722;
1339.2000;0.6805;1.2698;
1339.5000;0.6781;1.2624;
1339.8000;0.6821;1.2747;
1340.1000;0.6838;1.2747;
1340.4000;0.6813;1.2698;
1340.7000;0.6838;1.2771;
1341.0000;0.6829;1.2747;
1341.3000;0.6838;1.2673;
1341.6000;0.6829;1.2722;
1341.9000;0.6805;1.2648;
1342.2000;0.6797;1.2747;
1342.5000;0.6805;1.2722;
1342.8000;0.6813;1.2747;
1343.1000;0.6813;1.2698;
1343.4000;0.6781;1.2747;
1343.7000;0.6821;1.2870;
1344.0000;0.6846;1.2895;
1344.3000;0.6789;1.2845;
1344.6000;0.6789;1.2919;
1344.9000;0.6756;1.2722;
1345.2000;0.6813;1.2845;
1345.5000;0.6813;1.2796;
1345.8000;0.6805;1.2747;
1346.1000;0.6805;1.2722;
1346.4000;0.6805;1.2624;
1346.7000;0.6821;1.2624;
1347.0000;0.6821;1.2698;
1347.3000;0.6813;1.2648;
1347.6000;0.6838;1.2722;
1347.9000;0.6813;1.2648;
1348.2000;0.6813;1.2575;
1348.5000;0.6813;1.2648;
1348.8000;0.6789;1.2525;
1349.1000;0.6838;1.2575;
1349.4000;0.6781;1.2550;
1349.7000;0.6829;1.2698;
1350.0000;0.6829;1.2648;
1350.3000;0.6878;1.2771;
1350.6000;0.6821;1.2698;
1350.9000;0.6797;1.2722;
1351.2000;0.6838;1.2698;
1351.5000;0.6829;1.2796;
1351.8000;0.6797;1.2722;
1352.1000;0.6829;1.2771;
1352.4000;0.6748;1.2550;
1352.7000;0.6821;1.2673;
1353.0000;0.6789;1.2648;
1353.3000;0.6813;1.2722;
1353.6000;0.6821;1.2845;
1353.9000;0.6805;1.2796;
1354.2000;0.6821;1.2821;
1354.5000;0.6838;1.2747;
1354.8000;0.6829;1.2747;
1355.1000;0.6829;1.2796;
1355.4000;0.6821;1.2648;
1355.7000;0.6846;1.2599;
1356.0000;0.6829;1.2673;
1356.3000;0.6829;1.2698;
1356.6000;0.6829;1.2722;
1356.9000;0.6838;1.2747;
1357.2000;0.6813;1.2722;
1357.5000;0.6797;1.2747;
1357.8000;0.6821;1.2796;
1358.1000;0.6813;1.2821;
1358.4000;0.6821;1.2821;
1358.7000;0.6903;1.3018;
1359.0000;0.6813;1.2771;
1359.3000;0.6829;1.2821;
1359.6000;0.6813;1.2771;
1359.9000;0.6805;1.2796;
1360.2000;0.6805;1.2796;
1360.5000;0.6838;1.2919;
1360.8000;0.6821;1.2968;
1361.1000;0.6838;1.2944;
1361.4000;0.6821;1.2870;
1361.7000;0.6805;1.2845;
1362.0000;0.6829;1.2944;
1362.3000;0.6756;1.2698;
1362.6000;0.6821;1.2870;
1362.9000;0.6805;1.2919;
1363.2000;0.6821;1.3018;
1363.5000;0.6829;1.2821;
1363.8000;0.6829;1.2821;
1364.1000;0.6813;1.2771;
1364.4000;0.6838;1.2771;
1364.7000;0.6821;1.2648;
1365.0000;0.6821;1.2550;
1365.3000;0.6813;1.2525;
1365.6000;0.6821;1.2550;
1365.9000;0.6821;1.2599;
1366.2000;0.6821;1.2648;
1366.5000;0.6821;1.2648;
1366.8000;0.6821;1.2648;
1367.1000;0.6829;1.2648;
1367.4000;0.6813;1.2624;
1367.7000;0.6821;1.2722;
1368.0000;0.6838;1.2673;
1368.3000;0.6813;1.2673;
1368.6000;0.6805;1.2673;
1368.9000;0.6821;1.2747;
1369.2000;0.6805;1.2599;
1369.5000;0.6821;1.2673;
1369.8000;0.6789;1.2648;
1370.1000;0.6797;1.2771;
1370.4000;0.6764;1.2698;
1370.7000;0.6829;1.2771;
1371.0000;0.6829;1.2698;
1371.3000;0.6821;1.2821;
1371.6000;0.6829;1.2845;
1371.9000;0.6838;1.2771;
1372.2000;0.6829;1.2747;
1372.5000;0.6838;1.2722;
1372.8000;0.6838;1.2698;
1373.1000;0.6813;1.2624;
1373.4000;0.6854;1.2722;
1373.7000;0.6740;1.2575;
1374.0000;0.6846;1.2796;
1374.3000;0.6878;1.2968;
1374.6000;0.6854;1.2944;
1374.9000;0.6829;1.2821;
1375.2000;0.6813;1.2845;
1375.5000;0.6829;1.2870;
1375.8000;0.6838;1.2919;
1376.1000;0.6838;1.2870;
1376.4000;0.6821;1.2771;
1376.7000;0.6821;1.2821;
1377.0000;0.6821;1.2919;
1377.3000;0.6821;1.3042;
1377.6000;0.6821;1.3018;
1377.9000;0.6813;1.2968;
1378.2000;0.6838;1.2919;
1378.5000;0.6829;1.2870;
1378.8000;0.6821;1.2821;
1379.1000;0.6797;1.2722;
1379.4000;0.6805;1.2747;
1379.7000;0.6813;1.2722;
1380.0000;0.6829;1.2698;
1380.3000;0.6829;1.2673;
1380.6000;0.6821;1.2747;
1380.9000;0.6821;1.2771;
1381.2000;0.6846;1.2919;
1381.5000;0.6813;1.2870;
1381.8000;0.6813;1.2895;
1382.1000;0.6772;1.2722;
1382.4000;0.6805;1.2895;
1382.7000;0.6789;1.2845;
1383.0000;0.6813;1.2796;
1383.3000;0.6805;1.2747;
1383.6000;0.6740;1.2525;
1383.9000;0.6805;1.2624;
1384.2000;0.6805;1.2624;
1384.5000;0.6821;1.2722;
1384.8000;0.6829;1.2870;
1385.1000;0.6805;1.2771;
1385.4000;0.6797;1.2698;
1385.7000;0.6805;1.2673;
1386.0000;0.6829;1.2698;
1386.3000;0.6821;1.2624;
1386.6000;0.6821;1.2673;
1386.9000;0.6829;1.2722;
1387.2000;0.6813;1.2648;
1387.5000;0.6829;1.2698;
1387.8000;0.6829;1.2796;
1388.1000;0.6805;1.2870;
1388.4000;0.6821;1.2944;
1388.7000;0.6895;1.3214;
1389.0000;0.6813;1.2895;
1389.3000;0.6813;1.2821;
1389.6000;0.6813;1.2821;
1389.9000;0.6805;1.2771;
1390.2000;0.6813;1.2845;
1390.5000;0.6805;1.2870;
1390.8000;0.6797;1.2870;
1391.1000;0.6813;1.2870;
1391.4000;0.6805;1.2796;
1391.7000;0.6821;1.2845;
1392.0000;0.6821;1.2895;
1392.3000;0.6805;1.2845;
1392.6000;0.6813;1.2845;
1392.9000;0.6821;1.2870;
1393.2000;0.6821;1.2821;
1393.5000;0.6829;1.2821;
1393.8000;0.6911;1.2993;
1394.1000;0.6821;1.2845;
1394.4000;0.6805;1.2870;
1394.7000;0.6813;1.2771;
1395.0000;0.6829;1.2919;
1395.3000;0.6821;1.2919;
1395.6000;0.6821;1.2771;
1395.9000;0.6813;1.2722;
1396.2000;0.6829;1.2722;
1396.5000;0.6805;1.2796;
1396.8000;0.6813;1.2796;
1397.1000;0.6821;1.2870;
1397.4000;0.6781;1.2747;
1397.7000;0.6813;1.2821;
1398.0000;0.6821;1.2771;
1398.3000;0.6813;1.2673;
1398.6000;0.6813;1.2673;
1398.9000;0.6772;1.2550;
1399.2000;0.6813;1.2722;
1399.5000;0.6821;1.2747;
1399.8000;0.6878;1.2895;
