time/ms;Fluo/V;P700 deltaI/I x10³;
-199.8000;0.7880;1.2501;
-199.5000;0.7871;1.2525;
-199.2000;0.7880;1.2599;
-198.9000;0.7880;1.2624;
-198.6000;0.7863;1.2599;
-198.3000;0.7912;1.2698;
-198.0000;0.7888;1.2599;
-197.7000;0.7880;1.2550;
-197.4000;0.7871;1.2624;
-197.1000;0.7871;1.2575;
-196.8000;0.7871;1.2550;
-196.5000;0.7863;1.2501;
-196.2000;0.7888;1.2599;
-195.9000;0.7904;1.2673;
-195.6000;0.7871;1.2501;
-195.3000;0.7871;1.2525;
-195.0000;0.7871;1.2501;
-194.7000;0.7855;1.2599;
-194.4000;0.7863;1.2648;
-194.1000;0.7871;1.2599;
-193.8000;0.7880;1.2673;
-193.5000;0.7871;1.2673;
-193.2000;0.7863;1.2624;
-192.9000;0.7904;1.2648;
-192.6000;0.7888;1.2501;
-192.3000;0.7839;1.2402;
-192.0000;0.7888;1.2452;
-191.7000;0.7904;1.2501;
-191.4000;0.7847;1.2378;
-191.1000;0.7880;1.2476;
-190.8000;0.7855;1.2550;
-190.5000;0.7855;1.2575;
-190.2000;0.7863;1.2648;
-189.9000;0.7912;1.2747;
-189.6000;0.7871;1.2673;
-189.3000;0.7863;1.2722;
-189.0000;0.7880;1.2796;
-188.7000;0.7888;1.2821;
-188.4000;0.7871;1.2821;
-188.1000;0.7871;1.2845;
-187.8000;0.7880;1.2821;
-187.5000;0.7888;1.2796;
-187.2000;0.7880;1.2698;
-186.9000;0.7847;1.2599;
-186.6000;0.7880;1.2771;
-186.3000;0.7888;1.2722;
-186.0000;0.7920;1.2895;
-185.7000;0.7880;1.2845;
-185.4000;0.7888;1.2845;
-185.1000;0.7880;1.2821;
-184.8000;0.7871;1.2722;
-184.5000;0.7912;1.2821;
-184.2000;0.7855;1.2722;
-183.9000;0.7880;1.2722;
-183.6000;0.7855;1.2648;
-183.3000;0.7871;1.2624;
-183.0000;0.7880;1.2624;
-182.7000;0.7880;1.2624;
-182.4000;0.7831;1.2525;
-182.1000;0.7880;1.2575;
-181.8000;0.7880;1.2501;
-181.5000;0.7871;1.2525;
-181.2000;0.7863;1.2525;
-180.9000;0.7880;1.2476;
-180.6000;0.7871;1.2427;
-180.3000;0.7888;1.2452;
-180.0000;0.7863;1.2427;
-179.7000;0.7880;1.2476;
-179.4000;0.7798;1.2353;
-179.1000;0.7871;1.2624;
-178.8000;0.7888;1.2698;
-178.5000;0.7888;1.2771;
-178.2000;0.7880;1.2747;
-177.9000;0.7871;1.2698;
-177.6000;0.7871;1.2747;
-177.3000;0.7831;1.2673;
-177.0000;0.7871;1.2722;
-176.7000;0.7863;1.2673;
-176.4000;0.7880;1.2648;
-176.1000;0.7880;1.2624;
-175.8000;0.7896;1.2624;
-175.5000;0.7888;1.2550;
-175.2000;0.7855;1.2452;
-174.9000;0.7880;1.2402;
-174.6000;0.7912;1.2476;
-174.3000;0.7880;1.2402;
-174.0000;0.7888;1.2402;
-173.7000;0.7871;1.2402;
-173.4000;0.7888;1.2525;
-173.1000;0.7880;1.2525;
-172.8000;0.7863;1.2525;
-172.5000;0.7871;1.2599;
-172.2000;0.7896;1.2648;
-171.9000;0.7888;1.2648;
-171.6000;0.7790;1.2525;
-171.3000;0.7880;1.2796;
-171.0000;0.7814;1.2673;
-170.7000;0.7888;1.2919;
-170.4000;0.7863;1.2771;
-170.1000;0.7880;1.2673;
-169.8000;0.7847;1.2648;
-169.5000;0.7880;1.2648;
-169.2000;0.7880;1.2673;
-168.9000;0.7880;1.2698;
-168.6000;0.7880;1.2698;
-168.3000;0.7896;1.2747;
-168.0000;0.7880;1.2747;
-167.7000;0.7896;1.2698;
-167.4000;0.7863;1.2599;
-167.1000;0.7863;1.2648;
-166.8000;0.7904;1.2599;
-166.5000;0.7888;1.2501;
-166.2000;0.7871;1.2501;
-165.9000;0.7888;1.2550;
-165.6000;0.7880;1.2599;
-165.3000;0.7880;1.2550;
-165.0000;0.7880;1.2599;
-164.7000;0.7871;1.2575;
-164.4000;0.7847;1.2525;
-164.1000;0.7896;1.2624;
-163.8000;0.7871;1.2648;
-163.5000;0.7896;1.2722;
-163.2000;0.7871;1.2698;
-162.9000;0.7871;1.2698;
-162.6000;0.7871;1.2747;
-162.3000;0.7871;1.2747;
-162.0000;0.7839;1.2648;
-161.7000;0.7880;1.2722;
-161.4000;0.7863;1.2722;
-161.1000;0.7863;1.2722;
-160.8000;0.7896;1.2845;
-160.5000;0.7871;1.2771;
-160.2000;0.7880;1.2771;
-159.9000;0.7888;1.2673;
-159.6000;0.7871;1.2624;
-159.3000;0.7904;1.2476;
-159.0000;0.7888;1.2550;
-158.7000;0.7871;1.2550;
-158.4000;0.7871;1.2575;
-158.1000;0.7888;1.2575;
-157.8000;0.7871;1.2599;
-157.5000;0.7880;1.2624;
-157.2000;0.7871;1.2624;
-156.9000;0.7880;1.2599;
-156.6000;0.7880;1.2673;
-156.3000;0.7863;1.2698;
-156.0000;0.7871;1.2673;
-155.7000;0.7871;1.2747;
-155.4000;0.7871;1.2870;
-155.1000;0.7880;1.2796;
-154.8000;0.7880;1.2821;
-154.5000;0.7871;1.2845;
-154.2000;0.7961;1.3091;
-153.9000;0.7888;1.2919;
-153.6000;0.7863;1.2845;
-153.3000;0.7871;1.2870;
-153.0000;0.7880;1.2845;
-152.7000;0.7937;1.2944;
-152.4000;0.7863;1.2771;
-152.1000;0.7863;1.2722;
-151.8000;0.7871;1.2624;
-151.5000;0.7863;1.2599;
-151.2000;0.7880;1.2624;
-150.9000;0.7896;1.2673;
-150.6000;0.7880;1.2648;
-150.3000;0.7888;1.2722;
-150.0000;0.7855;1.2648;
-149.7000;0.7855;1.2525;
-149.4000;0.7855;1.2501;
-149.1000;0.7855;1.2624;
-148.8000;0.7871;1.2698;
-148.5000;0.7855;1.2673;
-148.2000;0.7855;1.2698;
-147.9000;0.7888;1.2722;
-147.6000;0.7855;1.2698;
-147.3000;0.7863;1.2698;
-147.0000;0.7855;1.2722;
-146.7000;0.7871;1.2771;
-146.4000;0.7888;1.2673;
-146.1000;0.7871;1.2771;
-145.8000;0.7863;1.2698;
-145.5000;0.7839;1.2722;
-145.2000;0.7896;1.2845;
-144.9000;0.7880;1.2821;
-144.6000;0.7904;1.2845;
-144.3000;0.7880;1.2821;
-144.0000;0.7871;1.2771;
-143.7000;0.7888;1.2821;
-143.4000;0.7806;1.2599;
-143.1000;0.7880;1.2796;
-142.8000;0.7871;1.2796;
-142.5000;0.7871;1.2747;
-142.2000;0.7871;1.2747;
-141.9000;0.7880;1.2698;
-141.6000;0.7880;1.2722;
-141.3000;0.7871;1.2673;
-141.0000;0.7880;1.2648;
-140.7000;0.7880;1.2575;
-140.4000;0.7871;1.2525;
-140.1000;0.7863;1.2501;
-139.8000;0.7904;1.2599;
-139.5000;0.7880;1.2550;
-139.2000;0.7847;1.2476;
-138.9000;0.7855;1.2624;
-138.6000;0.7863;1.2698;
-138.3000;0.7863;1.2722;
-138.0000;0.7814;1.2599;
-137.7000;0.7904;1.2821;
-137.4000;0.7831;1.2624;
-137.1000;0.7847;1.2624;
-136.8000;0.7839;1.2624;
-136.5000;0.7871;1.2673;
-136.2000;0.7904;1.2624;
-135.9000;0.7847;1.2525;
-135.6000;0.7863;1.2624;
-135.3000;0.7863;1.2648;
-135.0000;0.7888;1.2698;
-134.7000;0.7847;1.2624;
-134.4000;0.7920;1.2821;
-134.1000;0.7880;1.2747;
-133.8000;0.7880;1.2673;
-133.5000;0.7945;1.2796;
-133.2000;0.7871;1.2648;
-132.9000;0.7855;1.2624;
-132.6000;0.7863;1.2648;
-132.3000;0.7863;1.2648;
-132.0000;0.7904;1.2673;
-131.7000;0.7847;1.2525;
-131.4000;0.7880;1.2599;
-131.1000;0.7880;1.2599;
-130.8000;0.7871;1.2550;
-130.5000;0.7855;1.2550;
-130.2000;0.7871;1.2501;
-129.9000;0.7896;1.2599;
-129.6000;0.7880;1.2575;
-129.3000;0.7880;1.2575;
-129.0000;0.7863;1.2575;
-128.7000;0.7888;1.2624;
-128.4000;0.7839;1.2501;
-128.1000;0.7880;1.2599;
-127.8000;0.7863;1.2624;
-127.5000;0.7863;1.2673;
-127.2000;0.7871;1.2624;
-126.9000;0.7880;1.2698;
-126.6000;0.7880;1.2673;
-126.3000;0.7855;1.2550;
-126.0000;0.7880;1.2525;
-125.7000;0.7871;1.2550;
-125.4000;0.7888;1.2575;
-125.1000;0.7871;1.2599;
-124.8000;0.7855;1.2575;
-124.5000;0.7871;1.2624;
-124.2000;0.7855;1.2550;
-123.9000;0.7912;1.2648;
-123.6000;0.7855;1.2575;
-123.3000;0.7847;1.2624;
-123.0000;0.7839;1.2648;
-122.7000;0.7855;1.2722;
-122.4000;0.7880;1.2845;
-122.1000;0.7985;1.3116;
-121.8000;0.7863;1.2796;
-121.5000;0.7871;1.2722;
-121.2000;0.7880;1.2698;
-120.9000;0.7888;1.2771;
-120.6000;0.7871;1.2796;
-120.3000;0.7823;1.2673;
-120.0000;0.7871;1.2771;
-119.7000;0.7880;1.2771;
-119.4000;0.7806;1.2648;
-119.1000;0.7863;1.2698;
-118.8000;0.7871;1.2673;
-118.5000;0.7871;1.2673;
-118.2000;0.7896;1.2845;
-117.9000;0.7839;1.2722;
-117.6000;0.7888;1.2722;
-117.3000;0.7880;1.2722;
-117.0000;0.7920;1.2895;
-116.7000;0.7863;1.2845;
-116.4000;0.7871;1.2919;
-116.1000;0.7888;1.2944;
-115.8000;0.7888;1.2944;
-115.5000;0.7871;1.2944;
-115.2000;0.7888;1.3067;
-114.9000;0.7920;1.3116;
-114.6000;0.7880;1.2993;
-114.3000;0.7880;1.2968;
-114.0000;0.7855;1.2895;
-113.7000;0.7871;1.2895;
-113.4000;0.7871;1.2895;
-113.1000;0.7863;1.2821;
-112.8000;0.7863;1.2845;
-112.5000;0.7871;1.2845;
-112.2000;0.7880;1.2771;
-111.9000;0.7871;1.2771;
-111.6000;0.7847;1.2796;
-111.3000;0.7863;1.2845;
-111.0000;0.7863;1.2771;
-110.7000;0.7888;1.2771;
-110.4000;0.7896;1.2821;
-110.1000;0.7888;1.2944;
-109.8000;0.7880;1.2895;
-109.5000;0.7888;1.2845;
-109.2000;0.7880;1.2796;
-108.9000;0.7871;1.2747;
-108.6000;0.7871;1.2722;
-108.3000;0.7880;1.2747;
-108.0000;0.7880;1.2698;
-107.7000;0.7871;1.2673;
-107.4000;0.7863;1.2698;
-107.1000;0.7888;1.2648;
-106.8000;0.7880;1.2673;
-106.5000;0.7888;1.2673;
-106.2000;0.7863;1.2673;
-105.9000;0.7871;1.2673;
-105.6000;0.7888;1.2698;
-105.3000;0.7961;1.2919;
-105.0000;0.7896;1.2673;
-104.7000;0.7871;1.2550;
-104.4000;0.7880;1.2648;
-104.1000;0.7880;1.2698;
-103.8000;0.7888;1.2747;
-103.5000;0.7880;1.2698;
-103.2000;0.7896;1.2698;
-102.9000;0.7896;1.2698;
-102.6000;0.7904;1.2747;
-102.3000;0.7871;1.2698;
-102.0000;0.7904;1.2747;
-101.7000;0.7863;1.2624;
-101.4000;0.7888;1.2771;
-101.1000;0.7823;1.2599;
-100.8000;0.7880;1.2771;
-100.5000;0.7880;1.2722;
-100.2000;0.7871;1.2796;
-99.9000;0.7863;1.2771;
-99.6000;0.7920;1.2944;
-99.3000;0.7871;1.2845;
-99.0000;0.7888;1.2895;
-98.7000;0.7880;1.2796;
-98.4000;0.7863;1.2845;
-98.1000;0.7863;1.2796;
-97.8000;0.7888;1.2771;
-97.5000;0.7888;1.2845;
-97.2000;0.7945;1.2944;
-96.9000;0.7855;1.2747;
-96.6000;0.7880;1.2821;
-96.3000;0.7847;1.2821;
-96.0000;0.7855;1.2895;
-95.7000;0.7855;1.2944;
-95.4000;0.7855;1.2919;
-95.1000;0.7847;1.2895;
-94.8000;0.7871;1.3018;
-94.5000;0.7871;1.2968;
-94.2000;0.7871;1.3018;
-93.9000;0.7880;1.3042;
-93.6000;0.7863;1.2968;
-93.3000;0.7871;1.2993;
-93.0000;0.7855;1.2944;
-92.7000;0.7871;1.2870;
-92.4000;0.7880;1.2944;
-92.1000;0.7855;1.2821;
-91.8000;0.7831;1.2747;
-91.5000;0.7880;1.2870;
-91.2000;0.7880;1.2895;
-90.9000;0.7961;1.3141;
-90.6000;0.7863;1.2919;
-90.3000;0.7871;1.2919;
-90.0000;0.7880;1.3067;
-89.7000;0.7880;1.2944;
-89.4000;0.7847;1.2821;
-89.1000;0.7855;1.2895;
-88.8000;0.7880;1.2944;
-88.5000;0.7880;1.2919;
-88.2000;0.7871;1.2821;
-87.9000;0.7896;1.2919;
-87.6000;0.7880;1.2944;
-87.3000;0.7863;1.2870;
-87.0000;0.7880;1.2919;
-86.7000;0.7871;1.2870;
-86.4000;0.7847;1.2870;
-86.1000;0.7880;1.2968;
-85.8000;0.7863;1.2993;
-85.5000;0.7831;1.2944;
-85.2000;0.7863;1.3018;
-84.9000;0.7871;1.2993;
-84.6000;0.7871;1.2993;
-84.3000;0.7880;1.2944;
-84.0000;0.7863;1.2845;
-83.7000;0.7855;1.2771;
-83.4000;0.7912;1.2993;
-83.1000;0.7855;1.2895;
-82.8000;0.7863;1.2870;
-82.5000;0.7871;1.2919;
-82.2000;0.7880;1.2944;
-81.9000;0.7880;1.2895;
-81.6000;0.7880;1.2944;
-81.3000;0.7847;1.2895;
-81.0000;0.7896;1.3042;
-80.7000;0.7855;1.2993;
-80.4000;0.7871;1.2919;
-80.1000;0.7863;1.2821;
-79.8000;0.7888;1.2870;
-79.5000;0.7888;1.2845;
-79.2000;0.7888;1.2796;
-78.9000;0.7880;1.2771;
-78.6000;0.7863;1.2698;
-78.3000;0.7871;1.2747;
-78.0000;0.7880;1.2845;
-77.7000;0.7920;1.2944;
-77.4000;0.7831;1.2722;
-77.1000;0.7871;1.2870;
-76.8000;0.7871;1.2821;
-76.5000;0.7888;1.2870;
-76.2000;0.7871;1.2895;
-75.9000;0.7888;1.2993;
-75.6000;0.7871;1.2870;
-75.3000;0.7782;1.2698;
-75.0000;0.7855;1.2870;
-74.7000;0.7806;1.2845;
-74.4000;0.7888;1.2968;
-74.1000;0.7839;1.2895;
-73.8000;0.7847;1.2968;
-73.5000;0.7847;1.2993;
-73.2000;0.7871;1.3018;
-72.9000;0.7880;1.2993;
-72.6000;0.7847;1.2944;
-72.3000;0.7896;1.3042;
-72.0000;0.7871;1.2944;
-71.7000;0.7871;1.2895;
-71.4000;0.7855;1.2821;
-71.1000;0.7880;1.2968;
-70.8000;0.7880;1.2993;
-70.5000;0.7863;1.2895;
-70.2000;0.7863;1.2919;
-69.9000;0.7888;1.2968;
-69.6000;0.7871;1.2944;
-69.3000;0.7871;1.2919;
-69.0000;0.7863;1.2845;
-68.7000;0.7798;1.2796;
-68.4000;0.7871;1.2944;
-68.1000;0.7863;1.2968;
-67.8000;0.7855;1.2944;
-67.5000;0.7871;1.2944;
-67.2000;0.7855;1.2821;
-66.9000;0.7880;1.2895;
-66.6000;0.7880;1.2895;
-66.3000;0.7880;1.2919;
-66.0000;0.7896;1.2919;
-65.7000;0.7880;1.2870;
-65.4000;0.7896;1.2895;
-65.1000;0.7888;1.2895;
-64.8000;0.7863;1.2796;
-64.5000;0.7888;1.2771;
-64.2000;0.7904;1.2821;
-63.9000;0.7880;1.2747;
-63.6000;0.7863;1.2845;
-63.3000;0.7912;1.2895;
-63.0000;0.7871;1.2747;
-62.7000;0.7871;1.2771;
-62.4000;0.7831;1.2698;
-62.1000;0.7871;1.2771;
-61.8000;0.7823;1.2648;
-61.5000;0.7863;1.2796;
-61.2000;0.7896;1.2845;
-60.9000;0.7888;1.2845;
-60.6000;0.7880;1.2870;
-60.3000;0.7920;1.3042;
-60.0000;0.7863;1.2895;
-59.7000;0.7880;1.2845;
-59.4000;0.7871;1.2895;
-59.1000;0.7896;1.2993;
-58.8000;0.7937;1.3116;
-58.5000;0.7871;1.2845;
-58.2000;0.7880;1.2698;
-57.9000;0.7863;1.2747;
-57.6000;0.7880;1.2771;
-57.3000;0.7871;1.2747;
-57.0000;0.7871;1.2747;
-56.7000;0.7880;1.2673;
-56.4000;0.7855;1.2624;
-56.1000;0.7863;1.2599;
-55.8000;0.7880;1.2624;
-55.5000;0.7871;1.2673;
-55.2000;0.7871;1.2722;
-54.9000;0.7937;1.2870;
-54.6000;0.7888;1.2722;
-54.3000;0.7863;1.2648;
-54.0000;0.7871;1.2698;
-53.7000;0.7847;1.2673;
-53.4000;0.7847;1.2747;
-53.1000;0.7904;1.2919;
-52.8000;0.7880;1.2722;
-52.5000;0.7871;1.2673;
-52.2000;0.7847;1.2550;
-51.9000;0.7839;1.2353;
-51.6000;0.7888;1.2427;
-51.3000;0.7871;1.2525;
-51.0000;0.7863;1.2550;
-50.7000;0.7839;1.2452;
-50.4000;0.7880;1.2624;
-50.1000;0.7871;1.2722;
-49.8000;0.7839;1.2648;
-49.5000;0.7880;1.2722;
-49.2000;0.7863;1.2722;
-48.9000;0.7839;1.2722;
-48.6000;0.7782;1.2575;
-48.3000;0.7847;1.2845;
-48.0000;0.7855;1.2870;
-47.7000;0.7863;1.2919;
-47.4000;0.7855;1.2870;
-47.1000;0.7871;1.2993;
-46.8000;0.7871;1.2944;
-46.5000;0.7880;1.2968;
-46.2000;0.7888;1.3042;
-45.9000;0.7880;1.2968;
-45.6000;0.7880;1.2845;
-45.3000;0.7880;1.2870;
-45.0000;0.7888;1.2944;
-44.7000;0.7880;1.2870;
-44.4000;0.7912;1.2895;
-44.1000;0.7863;1.2870;
-43.8000;0.7880;1.2821;
-43.5000;0.7880;1.2722;
-43.2000;0.7880;1.2599;
-42.9000;0.7863;1.2624;
-42.6000;0.7888;1.2673;
-42.3000;0.7847;1.2550;
-42.0000;0.7839;1.2599;
-41.7000;0.7823;1.2648;
-41.4000;0.7896;1.2771;
-41.1000;0.7871;1.2771;
-40.8000;0.7847;1.2747;
-40.5000;0.7871;1.2821;
-40.2000;0.7863;1.2771;
-39.9000;0.7871;1.2747;
-39.6000;0.7871;1.2747;
-39.3000;0.7888;1.2845;
-39.0000;0.7871;1.2796;
-38.7000;0.7855;1.2796;
-38.4000;0.7871;1.2747;
-38.1000;0.7847;1.2673;
-37.8000;0.7888;1.2796;
-37.5000;0.7896;1.2722;
-37.2000;0.7863;1.2673;
-36.9000;0.7855;1.2648;
-36.6000;0.7871;1.2673;
-36.3000;0.7896;1.2747;
-36.0000;0.7896;1.2870;
-35.7000;0.7896;1.2968;
-35.4000;0.7863;1.2845;
-35.1000;0.7871;1.2796;
-34.8000;0.7896;1.2796;
-34.5000;0.7888;1.2821;
-34.2000;0.7896;1.2821;
-33.9000;0.7888;1.2771;
-33.6000;0.7888;1.2747;
-33.3000;0.7888;1.2796;
-33.0000;0.7863;1.2673;
-32.7000;0.7888;1.2673;
-32.4000;0.7888;1.2673;
-32.1000;0.7871;1.2698;
-31.8000;0.7896;1.2771;
-31.5000;0.7880;1.2845;
-31.2000;0.7880;1.2919;
-30.9000;0.7880;1.2895;
-30.6000;0.7855;1.2845;
-30.3000;0.7920;1.2845;
-30.0000;0.7871;1.2673;
-29.7000;0.7904;1.2747;
-29.4000;0.7839;1.2648;
-29.1000;0.7814;1.2525;
-28.8000;0.7871;1.2624;
-28.5000;0.7880;1.2648;
-28.2000;0.7880;1.2673;
-27.9000;0.7880;1.2599;
-27.6000;0.7888;1.2698;
-27.3000;0.7880;1.2624;
-27.0000;0.7863;1.2550;
-26.7000;0.7937;1.2722;
-26.4000;0.7855;1.2599;
-26.1000;0.7871;1.2624;
-25.8000;0.7863;1.2698;
-25.5000;0.7896;1.2796;
-25.2000;0.7871;1.2796;
-24.9000;0.7863;1.2796;
-24.6000;0.7863;1.2722;
-24.3000;0.7880;1.2771;
-24.0000;0.7888;1.2722;
-23.7000;0.7855;1.2673;
-23.4000;0.7880;1.2771;
-23.1000;0.7871;1.2771;
-22.8000;0.7871;1.2747;
-22.5000;0.7847;1.2648;
-22.2000;0.7871;1.2698;
-21.9000;0.7855;1.2747;
-21.6000;0.7871;1.2771;
-21.3000;0.7855;1.2698;
-21.0000;0.7863;1.2698;
-20.7000;0.7863;1.2673;
-20.4000;0.7855;1.2698;
-20.1000;0.7871;1.2698;
-19.8000;0.7880;1.2698;
-19.5000;0.7888;1.2648;
-19.2000;0.7880;1.2648;
-18.9000;0.7880;1.2599;
-18.6000;0.7871;1.2550;
-18.3000;0.7888;1.2673;
-18.0000;0.7871;1.2648;
-17.7000;0.7880;1.2624;
-17.4000;0.7823;1.2452;
-17.1000;0.7880;1.2476;
-16.8000;0.7839;1.2402;
-16.5000;0.7847;1.2452;
-16.2000;0.7847;1.2476;
-15.9000;0.7871;1.2452;
-15.6000;0.7871;1.2550;
-15.3000;0.7855;1.2525;
-15.0000;0.7863;1.2550;
-14.7000;0.7847;1.2525;
-14.4000;0.7847;1.2575;
-14.1000;0.7847;1.2599;
-13.8000;0.7863;1.2501;
-13.5000;0.7855;1.2452;
-13.2000;0.7880;1.2501;
-12.9000;0.7871;1.2452;
-12.6000;0.7880;1.2525;
-12.3000;0.7871;1.2673;
-12.0000;0.7888;1.2747;
-11.7000;0.7888;1.2821;
-11.4000;0.7880;1.2747;
-11.1000;0.7871;1.2796;
-10.8000;0.7871;1.2796;
-10.5000;0.7855;1.2698;
-10.2000;0.7888;1.2673;
-9.9000;0.7871;1.2673;
-9.6000;0.7847;1.2624;
-9.3000;0.7880;1.2722;
-9.0000;0.7871;1.2747;
-8.7000;0.7871;1.2821;
-8.4000;0.7904;1.2944;
-8.1000;0.7863;1.2919;
-7.8000;0.7871;1.3067;
-7.5000;0.7863;1.2968;
-7.2000;0.7855;1.2968;
-6.9000;0.7863;1.2944;
-6.6000;0.7880;1.2895;
-6.3000;0.7912;1.2919;
-6.0000;0.7847;1.2845;
-5.7000;0.7855;1.2919;
-5.4000;0.7855;1.2944;
-5.1000;0.7782;1.2747;
-4.8000;0.7855;1.2944;
-4.5000;0.7855;1.3042;
-4.2000;0.7871;1.3091;
-3.9000;0.7855;1.3091;
-3.6000;0.7880;1.3165;
-3.3000;0.7863;1.3141;
-3.0000;0.7863;1.3067;
-2.7000;0.7888;1.3091;
-2.4000;0.7871;1.3018;
-2.1000;0.7863;1.2993;
-1.8000;0.7871;1.2993;
-1.5000;0.7888;1.2968;
-1.2000;0.7880;1.3018;
-0.9000;0.7871;1.2993;
-0.6000;0.7904;1.3165;
-0.3000;0.7985;1.3362;
0.0000;0.7985;1.3362;
0.3000;0.8213;1.3042;
0.6000;0.8832;1.3534;
0.9000;0.9296;1.3977;
1.2000;0.9654;1.4469;
1.5000;0.9963;1.4986;
1.8000;1.0199;1.5232;
2.1000;1.0387;1.5552;
2.4000;1.0566;1.5823;
2.7000;1.0712;1.5995;
3.0000;1.0818;1.6094;
3.3000;1.0924;1.6241;
3.6000;1.1038;1.6413;
3.9000;1.1127;1.6537;
4.2000;1.1225;1.6635;
4.5000;1.1274;1.6684;
4.8000;1.1347;1.6709;
5.1000;1.1412;1.6709;
5.4000;1.1502;1.6709;
5.7000;1.1567;1.6684;
6.0000;1.1616;1.6660;
6.3000;1.1673;1.6684;
6.6000;1.1754;1.6881;
6.9000;1.1770;1.6807;
7.2000;1.1827;1.6807;
7.5000;1.1803;1.6635;
7.8000;1.1884;1.6733;
8.1000;1.1933;1.6783;
8.4000;1.1974;1.6709;
8.7000;1.1998;1.6610;
9.0000;1.2055;1.6635;
9.3000;1.2080;1.6586;
9.6000;1.2104;1.6561;
9.9000;1.2129;1.6635;
10.2000;1.2186;1.6586;
10.5000;1.2202;1.6561;
10.8000;1.2226;1.6512;
11.1000;1.2243;1.6487;
11.4000;1.2267;1.6389;
11.7000;1.2389;1.6635;
12.0000;1.2308;1.6438;
12.3000;1.2332;1.6487;
12.6000;1.2365;1.6610;
12.9000;1.2373;1.6537;
13.2000;1.2405;1.6660;
13.5000;1.2422;1.6660;
13.8000;1.2438;1.6733;
14.1000;1.2430;1.6733;
14.4000;1.2438;1.6684;
14.7000;1.2487;1.6758;
15.0000;1.2503;1.6783;
15.3000;1.2414;1.6586;
15.6000;1.2503;1.6733;
15.9000;1.2527;1.6807;
16.2000;1.2552;1.6856;
16.5000;1.2593;1.7004;
16.8000;1.2536;1.6856;
17.1000;1.2617;1.6955;
17.4000;1.2633;1.6930;
17.7000;1.2633;1.6832;
18.0000;1.2617;1.6733;
18.3000;1.2650;1.6832;
18.6000;1.2576;1.6660;
18.9000;1.2723;1.7053;
19.2000;1.2682;1.6906;
19.5000;1.2690;1.6832;
19.8000;1.2715;1.6733;
20.1000;1.2723;1.6709;
20.4000;1.2690;1.6733;
20.7000;1.2698;1.6684;
21.0000;1.2731;1.6758;
21.3000;1.2739;1.6733;
21.6000;1.2755;1.6635;
21.9000;1.2764;1.6660;
22.2000;1.2772;1.6660;
22.5000;1.2788;1.6684;
22.8000;1.2772;1.6635;
23.1000;1.2788;1.6709;
23.4000;1.2772;1.6709;
23.7000;1.2804;1.6807;
24.0000;1.2804;1.6783;
24.3000;1.2829;1.6807;
24.6000;1.2812;1.6733;
24.9000;1.2821;1.6660;
25.2000;1.2829;1.6635;
25.5000;1.2837;1.6610;
25.8000;1.2829;1.6537;
26.1000;1.2837;1.6413;
26.4000;1.2837;1.6413;
26.7000;1.2861;1.6413;
27.0000;1.2861;1.6463;
27.3000;1.2877;1.6413;
27.6000;1.2877;1.6438;
27.9000;1.2894;1.6512;
28.2000;1.2910;1.6438;
28.5000;1.2894;1.6438;
28.8000;1.2894;1.6512;
29.1000;1.2902;1.6537;
29.4000;1.2902;1.6610;
29.7000;1.2918;1.6537;
30.0000;1.2894;1.6512;
30.3000;1.2918;1.6586;
30.6000;1.2886;1.6512;
30.9000;1.2910;1.6537;
31.2000;1.2926;1.6487;
31.5000;1.2926;1.6586;
31.8000;1.2967;1.6660;
32.1000;1.2877;1.6413;
32.4000;1.2951;1.6684;
32.7000;1.2967;1.6610;
33.0000;1.2951;1.6561;
33.3000;1.2959;1.6709;
33.6000;1.2967;1.6684;
33.9000;1.2967;1.6684;
34.2000;1.2967;1.6610;
34.5000;1.2983;1.6635;
34.8000;1.2983;1.6610;
35.1000;1.2967;1.6586;
35.4000;1.2959;1.6487;
35.7000;1.2951;1.6586;
36.0000;1.2991;1.6684;
36.3000;1.2967;1.6635;
36.6000;1.2975;1.6610;
36.9000;1.2934;1.6537;
37.2000;1.3024;1.6733;
37.5000;1.3008;1.6709;
37.8000;1.3000;1.6709;
38.1000;1.2967;1.6635;
38.4000;1.3000;1.6684;
38.7000;1.2967;1.6635;
39.0000;1.3016;1.6758;
39.3000;1.3016;1.6709;
39.6000;1.3000;1.6660;
39.9000;1.3016;1.6660;
40.2000;1.3000;1.6635;
40.5000;1.3016;1.6660;
40.8000;1.3024;1.6635;
41.1000;1.3000;1.6733;
41.4000;1.3000;1.6733;
41.7000;1.3032;1.6783;
42.0000;1.3040;1.6856;
42.3000;1.3032;1.6807;
42.6000;1.3000;1.6709;
42.9000;1.3040;1.6758;
43.2000;1.3032;1.6684;
43.5000;1.3040;1.6709;
43.8000;1.3048;1.6733;
44.1000;1.3032;1.6684;
44.4000;1.3032;1.6660;
44.7000;1.3048;1.6635;
45.0000;1.3040;1.6709;
45.3000;1.3048;1.6684;
45.6000;1.3048;1.6684;
45.9000;1.3057;1.6709;
46.2000;1.3138;1.6906;
46.5000;1.3057;1.6832;
46.8000;1.3048;1.6881;
47.1000;1.3089;1.7004;
47.4000;1.3073;1.6930;
47.7000;1.3065;1.6832;
48.0000;1.3040;1.6856;
48.3000;1.3065;1.6906;
48.6000;1.3065;1.6832;
48.9000;1.3048;1.6807;
49.2000;1.3057;1.6758;
49.5000;1.3065;1.6684;
49.8000;1.3089;1.6709;
50.1000;1.3081;1.6660;
50.4000;1.3081;1.6610;
50.7000;1.3048;1.6537;
51.0000;1.3130;1.6709;
51.3000;1.3089;1.6586;
51.6000;1.3138;1.6635;
51.9000;1.3089;1.6537;
52.2000;1.3130;1.6635;
52.5000;1.3130;1.6709;
52.8000;1.3081;1.6684;
53.1000;1.3024;1.6610;
53.4000;1.3081;1.6733;
53.7000;1.3097;1.6783;
54.0000;1.3138;1.6881;
54.3000;1.3089;1.6758;
54.6000;1.3073;1.6684;
54.9000;1.3114;1.6783;
55.2000;1.3089;1.6807;
55.5000;1.3081;1.6807;
55.8000;1.3089;1.6856;
56.1000;1.3073;1.6856;
56.4000;1.3089;1.6856;
56.7000;1.3089;1.6856;
57.0000;1.3130;1.6906;
57.3000;1.3114;1.6856;
57.6000;1.3073;1.6783;
57.9000;1.3154;1.6930;
58.2000;1.3073;1.6758;
58.5000;1.3089;1.6733;
58.8000;1.3171;1.6832;
59.1000;1.3114;1.6684;
59.4000;1.3105;1.6660;
59.7000;1.3122;1.6709;
60.0000;1.3097;1.6660;
60.3000;1.3105;1.6610;
60.6000;1.3114;1.6635;
60.9000;1.3097;1.6610;
61.2000;1.3114;1.6610;
61.5000;1.3114;1.6684;
61.8000;1.3114;1.6684;
62.1000;1.3097;1.6610;
62.4000;1.3130;1.6684;
62.7000;1.3122;1.6783;
63.0000;1.3057;1.6635;
63.3000;1.3114;1.6684;
63.6000;1.3105;1.6709;
63.9000;1.3122;1.6832;
64.2000;1.3130;1.6758;
64.5000;1.3105;1.6733;
64.8000;1.3122;1.6709;
65.1000;1.3089;1.6610;
65.4000;1.3114;1.6758;
65.7000;1.3130;1.6709;
66.0000;1.3130;1.6709;
66.3000;1.3138;1.6758;
66.6000;1.3138;1.6783;
66.9000;1.3130;1.6832;
67.2000;1.3114;1.6758;
67.5000;1.3105;1.6783;
67.8000;1.3130;1.6832;
68.1000;1.3138;1.6881;
68.4000;1.3105;1.6783;
68.7000;1.3130;1.6906;
69.0000;1.3122;1.6856;
69.3000;1.3146;1.6856;
69.6000;1.3114;1.6881;
69.9000;1.3130;1.6930;
70.2000;1.3081;1.6709;
70.5000;1.3138;1.6807;
70.8000;1.3154;1.6832;
71.1000;1.3154;1.6832;
71.4000;1.3138;1.6881;
71.7000;1.3162;1.6930;
72.0000;1.3146;1.6783;
72.3000;1.3114;1.6684;
72.6000;1.3146;1.6684;
72.9000;1.3122;1.6635;
73.2000;1.3130;1.6733;
73.5000;1.3130;1.6758;
73.8000;1.3138;1.6783;
74.1000;1.3195;1.6930;
74.4000;1.3146;1.6807;
74.7000;1.3130;1.6783;
75.0000;1.3130;1.6856;
75.3000;1.3146;1.6856;
75.6000;1.3138;1.6807;
75.9000;1.3146;1.6881;
76.2000;1.3122;1.6832;
76.5000;1.3179;1.6906;
76.8000;1.3138;1.6930;
77.1000;1.3097;1.6881;
77.4000;1.3146;1.7004;
77.7000;1.3097;1.6856;
78.0000;1.3146;1.6881;
78.3000;1.3146;1.6832;
78.6000;1.3122;1.6758;
78.9000;1.3138;1.6709;
79.2000;1.3130;1.6709;
79.5000;1.3138;1.6758;
79.8000;1.3146;1.6783;
80.1000;1.3114;1.6635;
80.4000;1.3130;1.6856;
80.7000;1.3162;1.6881;
81.0000;1.3130;1.6881;
81.3000;1.3146;1.6906;
81.6000;1.3179;1.7029;
81.9000;1.3154;1.6955;
82.2000;1.3162;1.6832;
82.5000;1.3154;1.6783;
82.8000;1.3154;1.6758;
83.1000;1.3171;1.6733;
83.4000;1.3162;1.6758;
83.7000;1.3146;1.6807;
84.0000;1.3105;1.6660;
84.3000;1.3146;1.6733;
84.6000;1.3171;1.6832;
84.9000;1.3138;1.6856;
85.2000;1.3171;1.6955;
85.5000;1.3146;1.6807;
85.8000;1.3162;1.6856;
86.1000;1.3105;1.6684;
86.4000;1.3154;1.6709;
86.7000;1.3162;1.6783;
87.0000;1.3154;1.6733;
87.3000;1.3162;1.6783;
87.6000;1.3154;1.6709;
87.9000;1.3146;1.6561;
88.2000;1.3154;1.6561;
88.5000;1.3154;1.6512;
88.8000;1.3187;1.6561;
89.1000;1.3154;1.6512;
89.4000;1.3187;1.6635;
89.7000;1.3114;1.6438;
90.0000;1.3211;1.6684;
90.3000;1.3130;1.6438;
90.6000;1.3162;1.6389;
90.9000;1.3171;1.6413;
91.2000;1.3162;1.6413;
91.5000;1.3162;1.6512;
91.8000;1.3171;1.6684;
92.1000;1.3171;1.6733;
92.4000;1.3179;1.6807;
92.7000;1.3162;1.6783;
93.0000;1.3154;1.6758;
93.3000;1.3187;1.6832;
93.6000;1.3179;1.6832;
93.9000;1.3179;1.6832;
94.2000;1.3211;1.6856;
94.5000;1.3179;1.6733;
94.8000;1.3203;1.6856;
95.1000;1.3211;1.6906;
95.4000;1.3162;1.6807;
95.7000;1.3154;1.6758;
96.0000;1.3154;1.6758;
96.3000;1.3130;1.6783;
96.6000;1.3130;1.6832;
96.9000;1.3179;1.6856;
97.2000;1.3162;1.6783;
97.5000;1.3203;1.6930;
97.8000;1.3171;1.6783;
98.1000;1.3162;1.6783;
98.4000;1.3203;1.6807;
98.7000;1.3179;1.6832;
99.0000;1.3195;1.6856;
99.3000;1.3154;1.6832;
99.6000;1.3154;1.6856;
99.9000;1.3114;1.6783;
100.2000;1.3048;1.6610;
100.5000;1.3162;1.6807;
100.8000;1.3195;1.6881;
101.1000;1.3130;1.6709;
101.4000;1.3203;1.6906;
101.7000;1.3162;1.6856;
102.0000;1.3162;1.6856;
102.3000;1.3171;1.6881;
102.6000;1.3260;1.7152;
102.9000;1.3179;1.6930;
103.2000;1.3179;1.6881;
103.5000;1.3179;1.6881;
103.8000;1.3195;1.6856;
104.1000;1.3252;1.6979;
104.4000;1.3187;1.6832;
104.7000;1.3171;1.6832;
105.0000;1.3179;1.6881;
105.3000;1.3179;1.6881;
105.6000;1.3187;1.6856;
105.9000;1.3162;1.6856;
106.2000;1.3171;1.6807;
106.5000;1.3171;1.6832;
106.8000;1.3195;1.6856;
107.1000;1.3179;1.6783;
107.4000;1.3154;1.6709;
107.7000;1.3187;1.6783;
108.0000;1.3195;1.6758;
108.3000;1.3187;1.6758;
108.6000;1.3138;1.6635;
108.9000;1.3187;1.6684;
109.2000;1.3171;1.6660;
109.5000;1.3179;1.6758;
109.8000;1.3219;1.6807;
110.1000;1.3211;1.6807;
110.4000;1.3171;1.6733;
110.7000;1.3211;1.6832;
111.0000;1.3171;1.6684;
111.3000;1.3154;1.6635;
111.6000;1.3171;1.6709;
111.9000;1.3260;1.6881;
112.2000;1.3179;1.6733;
112.5000;1.3138;1.6610;
112.8000;1.3162;1.6733;
113.1000;1.3171;1.6783;
113.4000;1.3187;1.6758;
113.7000;1.3171;1.6660;
114.0000;1.3171;1.6586;
114.3000;1.3195;1.6537;
114.6000;1.3187;1.6635;
114.9000;1.3171;1.6635;
115.2000;1.3179;1.6758;
115.5000;1.3179;1.6832;
115.8000;1.3179;1.6856;
116.1000;1.3236;1.7004;
116.4000;1.3187;1.6955;
116.7000;1.3203;1.6979;
117.0000;1.3195;1.6906;
117.3000;1.3179;1.6832;
117.6000;1.3187;1.6856;
117.9000;1.3203;1.6856;
118.2000;1.3211;1.6807;
118.5000;1.3187;1.6684;
118.8000;1.3187;1.6561;
119.1000;1.3187;1.6512;
119.4000;1.3203;1.6635;
119.7000;1.3179;1.6635;
120.0000;1.3171;1.6635;
120.3000;1.3179;1.6733;
120.6000;1.3195;1.6709;
120.9000;1.3171;1.6610;
121.2000;1.3187;1.6561;
121.5000;1.3187;1.6635;
121.8000;1.3195;1.6684;
122.1000;1.3195;1.6684;
122.4000;1.3203;1.6660;
122.7000;1.3154;1.6635;
123.0000;1.3187;1.6709;
123.3000;1.3179;1.6783;
123.6000;1.3179;1.6832;
123.9000;1.3179;1.6660;
124.2000;1.3260;1.6807;
124.5000;1.3203;1.6561;
124.8000;1.3171;1.6463;
125.1000;1.3187;1.6463;
125.4000;1.3179;1.6438;
125.7000;1.3219;1.6537;
126.0000;1.3122;1.6364;
126.3000;1.3162;1.6610;
126.6000;1.3162;1.6586;
126.9000;1.3228;1.6660;
127.2000;1.3162;1.6586;
127.5000;1.3162;1.6512;
127.8000;1.3171;1.6586;
128.1000;1.3162;1.6537;
128.4000;1.3179;1.6561;
128.7000;1.3260;1.6733;
129.0000;1.3187;1.6561;
129.3000;1.3195;1.6561;
129.6000;1.3187;1.6586;
129.9000;1.3187;1.6586;
130.2000;1.3179;1.6660;
130.5000;1.3187;1.6660;
130.8000;1.3195;1.6660;
131.1000;1.3203;1.6635;
131.4000;1.3179;1.6610;
131.7000;1.3203;1.6635;
132.0000;1.3171;1.6413;
132.3000;1.3187;1.6389;
132.6000;1.3171;1.6389;
132.9000;1.3179;1.6463;
133.2000;1.3179;1.6463;
133.5000;1.3195;1.6537;
133.8000;1.3187;1.6413;
134.1000;1.3187;1.6537;
134.4000;1.3203;1.6586;
134.7000;1.3219;1.6684;
135.0000;1.3195;1.6635;
135.3000;1.3195;1.6660;
135.6000;1.3195;1.6758;
135.9000;1.3301;1.7053;
136.2000;1.3187;1.6709;
136.5000;1.3179;1.6733;
136.8000;1.3187;1.6733;
137.1000;1.3195;1.6709;
137.4000;1.3187;1.6684;
137.7000;1.3179;1.6709;
138.0000;1.3179;1.6758;
138.3000;1.3187;1.6807;
138.6000;1.3195;1.6807;
138.9000;1.3187;1.6733;
139.2000;1.3187;1.6758;
139.5000;1.3179;1.6709;
139.8000;1.3203;1.6783;
140.1000;1.3187;1.6758;
140.4000;1.3187;1.6783;
140.7000;1.3203;1.6832;
141.0000;1.3219;1.6930;
141.3000;1.3203;1.6832;
141.6000;1.3187;1.6856;
141.9000;1.3195;1.6881;
142.2000;1.3203;1.6832;
142.5000;1.3219;1.6856;
142.8000;1.3211;1.6807;
143.1000;1.3187;1.6832;
143.4000;1.3179;1.6807;
143.7000;1.3211;1.6881;
144.0000;1.3203;1.6832;
144.3000;1.3187;1.6906;
144.6000;1.3154;1.6832;
144.9000;1.3162;1.6783;
145.2000;1.3122;1.6635;
145.5000;1.3195;1.6783;
145.8000;1.3195;1.6733;
146.1000;1.3187;1.6709;
146.4000;1.3195;1.6684;
146.7000;1.3187;1.6733;
147.0000;1.3162;1.6832;
147.3000;1.3187;1.6832;
147.6000;1.3171;1.6832;
147.9000;1.3171;1.6758;
148.2000;1.3179;1.6709;
148.5000;1.3187;1.6709;
148.8000;1.3219;1.6758;
149.1000;1.3179;1.6758;
149.4000;1.3179;1.6783;
149.7000;1.3195;1.6881;
150.0000;1.3195;1.6881;
150.3000;1.3187;1.6856;
150.6000;1.3228;1.6955;
150.9000;1.3122;1.6709;
151.2000;1.3187;1.6881;
151.5000;1.3203;1.6930;
151.8000;1.3179;1.6807;
152.1000;1.3195;1.6832;
152.4000;1.3179;1.6783;
152.7000;1.3187;1.6733;
153.0000;1.3146;1.6610;
153.3000;1.3195;1.6537;
153.6000;1.3179;1.6438;
153.9000;1.3195;1.6413;
154.2000;1.3203;1.6463;
154.5000;1.3187;1.6340;
154.8000;1.3179;1.6340;
155.1000;1.3187;1.6463;
155.4000;1.3211;1.6512;
155.7000;1.3211;1.6586;
156.0000;1.3162;1.6561;
156.3000;1.3179;1.6660;
156.6000;1.3195;1.6758;
156.9000;1.3187;1.6660;
157.2000;1.3171;1.6610;
157.5000;1.3187;1.6733;
157.8000;1.3179;1.6758;
158.1000;1.3203;1.6684;
158.4000;1.3260;1.6807;
158.7000;1.3179;1.6586;
159.0000;1.3171;1.6537;
159.3000;1.3187;1.6610;
159.6000;1.3195;1.6660;
159.9000;1.3171;1.6586;
160.2000;1.3187;1.6586;
160.5000;1.3195;1.6610;
160.8000;1.3203;1.6635;
161.1000;1.3211;1.6684;
161.4000;1.3195;1.6709;
161.7000;1.3195;1.6660;
162.0000;1.3203;1.6733;
162.3000;1.3195;1.6733;
162.6000;1.3195;1.6832;
162.9000;1.3203;1.6906;
163.2000;1.3195;1.6733;
163.5000;1.3187;1.6733;
163.8000;1.3203;1.6733;
164.1000;1.3195;1.6758;
164.4000;1.3203;1.6807;
164.7000;1.3179;1.6709;
165.0000;1.3228;1.6807;
165.3000;1.3195;1.6758;
165.6000;1.3203;1.6660;
165.9000;1.3211;1.6635;
166.2000;1.3211;1.6512;
166.5000;1.3195;1.6413;
166.8000;1.3203;1.6413;
167.1000;1.3195;1.6364;
167.4000;1.3203;1.6438;
167.7000;1.3203;1.6389;
168.0000;1.3211;1.6389;
168.3000;1.3203;1.6389;
168.6000;1.3203;1.6340;
168.9000;1.3203;1.6315;
169.2000;1.3203;1.6290;
169.5000;1.3195;1.6438;
169.8000;1.3179;1.6389;
170.1000;1.3187;1.6463;
170.4000;1.3187;1.6413;
170.7000;1.3203;1.6487;
171.0000;1.3187;1.6438;
171.3000;1.3195;1.6537;
171.6000;1.3187;1.6610;
171.9000;1.3293;1.6881;
172.2000;1.3211;1.6684;
172.5000;1.3195;1.6537;
172.8000;1.3244;1.6561;
173.1000;1.3195;1.6463;
173.4000;1.3195;1.6537;
173.7000;1.3171;1.6537;
174.0000;1.3162;1.6512;
174.3000;1.3195;1.6512;
174.6000;1.3195;1.6610;
174.9000;1.3195;1.6660;
175.2000;1.3179;1.6733;
175.5000;1.3203;1.6783;
175.8000;1.3228;1.6807;
176.1000;1.3187;1.6684;
176.4000;1.3195;1.6783;
176.7000;1.3179;1.6783;
177.0000;1.3276;1.7053;
177.3000;1.3203;1.6906;
177.6000;1.3179;1.6856;
177.9000;1.3203;1.6930;
178.2000;1.3203;1.6906;
178.5000;1.3195;1.6783;
178.8000;1.3211;1.6660;
179.1000;1.3171;1.6586;
179.4000;1.3187;1.6660;
179.7000;1.3195;1.6733;
180.0000;1.3179;1.6660;
180.3000;1.3219;1.6733;
180.6000;1.3187;1.6660;
180.9000;1.3195;1.6684;
181.2000;1.3228;1.6758;
181.5000;1.3203;1.6832;
181.8000;1.3179;1.6856;
182.1000;1.3146;1.6832;
182.4000;1.3146;1.6807;
182.7000;1.3179;1.6881;
183.0000;1.3179;1.6807;
183.3000;1.3187;1.6733;
183.6000;1.3187;1.6586;
183.9000;1.3138;1.6364;
184.2000;1.3179;1.6610;
184.5000;1.3187;1.6586;
184.8000;1.3187;1.6660;
185.1000;1.3228;1.6758;
185.4000;1.3179;1.6561;
185.7000;1.3187;1.6610;
186.0000;1.3187;1.6610;
186.3000;1.3195;1.6537;
186.6000;1.3195;1.6586;
186.9000;1.3179;1.6512;
187.2000;1.3171;1.6463;
187.5000;1.3195;1.6660;
187.8000;1.3195;1.6758;
188.1000;1.3162;1.6610;
188.4000;1.3187;1.6684;
188.7000;1.3219;1.6758;
189.0000;1.3195;1.6783;
189.3000;1.3219;1.6783;
189.6000;1.3219;1.6758;
189.9000;1.3203;1.6684;
190.2000;1.3211;1.6709;
190.5000;1.3187;1.6660;
190.8000;1.3211;1.6709;
191.1000;1.3097;1.6487;
191.4000;1.3195;1.6709;
191.7000;1.3195;1.6758;
192.0000;1.3203;1.6783;
192.3000;1.3203;1.6832;
192.6000;1.3203;1.6733;
192.9000;1.3211;1.6660;
193.2000;1.3114;1.6389;
193.5000;1.3203;1.6635;
193.8000;1.3211;1.6610;
194.1000;1.3211;1.6610;
194.4000;1.3284;1.6783;
194.7000;1.3187;1.6660;
195.0000;1.3195;1.6709;
195.3000;1.3195;1.6758;
195.6000;1.3179;1.6709;
195.9000;1.3211;1.6733;
196.2000;1.3203;1.6758;
196.5000;1.3179;1.6758;
196.8000;1.3268;1.6979;
197.1000;1.3171;1.6660;
197.4000;1.3179;1.6635;
197.7000;1.3187;1.6684;
198.0000;1.3195;1.6610;
198.3000;1.3203;1.6561;
198.6000;1.3195;1.6537;
198.9000;1.3203;1.6537;
199.2000;1.3211;1.6561;
199.5000;1.3195;1.6586;
199.8000;1.3252;1.6660;
200.1000;1.3203;1.6660;
200.4000;1.3203;1.6783;
200.7000;1.3187;1.6733;
201.0000;1.3179;1.6586;
201.3000;1.3195;1.6610;
201.6000;1.3187;1.6610;
201.9000;1.3211;1.6586;
202.2000;1.3219;1.6610;
202.5000;1.3203;1.6610;
202.8000;1.3179;1.6610;
203.1000;1.3203;1.6610;
203.4000;1.3162;1.6512;
203.7000;1.3179;1.6586;
204.0000;1.3211;1.6586;
204.3000;1.3252;1.6660;
204.6000;1.3195;1.6586;
204.9000;1.3122;1.6487;
205.2000;1.3211;1.6733;
205.5000;1.3211;1.6709;
205.8000;1.3122;1.6487;
206.1000;1.3154;1.6487;
206.4000;1.3228;1.6783;
206.7000;1.3105;1.6389;
207.0000;1.3187;1.6586;
207.3000;1.3171;1.6487;
207.6000;1.3187;1.6512;
207.9000;1.3187;1.6463;
208.2000;1.3203;1.6561;
208.5000;1.3228;1.6586;
208.8000;1.3203;1.6610;
209.1000;1.3228;1.6783;
209.4000;1.3195;1.6832;
209.7000;1.3179;1.6832;
210.0000;1.3187;1.6881;
210.3000;1.3171;1.6733;
210.6000;1.3179;1.6709;
210.9000;1.3195;1.6660;
211.2000;1.3187;1.6684;
211.5000;1.3187;1.6684;
211.8000;1.3187;1.6684;
212.1000;1.3187;1.6684;
212.4000;1.3211;1.6709;
212.7000;1.3203;1.6660;
213.0000;1.3187;1.6610;
213.3000;1.3179;1.6537;
213.6000;1.3195;1.6561;
213.9000;1.3171;1.6487;
214.2000;1.3236;1.6684;
214.5000;1.3187;1.6610;
214.8000;1.3195;1.6684;
215.1000;1.3219;1.6684;
215.4000;1.3228;1.6684;
215.7000;1.3195;1.6586;
216.0000;1.3195;1.6537;
216.3000;1.3187;1.6561;
216.6000;1.3203;1.6512;
216.9000;1.3162;1.6389;
217.2000;1.3203;1.6561;
217.5000;1.3203;1.6561;
217.8000;1.3195;1.6561;
218.1000;1.3203;1.6586;
218.4000;1.3203;1.6660;
218.7000;1.3211;1.6684;
219.0000;1.3195;1.6635;
219.3000;1.3203;1.6684;
219.6000;1.3203;1.6635;
219.9000;1.3195;1.6537;
220.2000;1.3187;1.6537;
220.5000;1.3203;1.6610;
220.8000;1.3179;1.6512;
221.1000;1.3187;1.6512;
221.4000;1.3187;1.6561;
221.7000;1.3203;1.6660;
222.0000;1.3138;1.6537;
222.3000;1.3179;1.6709;
222.6000;1.3203;1.6660;
222.9000;1.3187;1.6610;
223.2000;1.3219;1.6635;
223.5000;1.3195;1.6635;
223.8000;1.3179;1.6660;
224.1000;1.3187;1.6709;
224.4000;1.3203;1.6783;
224.7000;1.3219;1.6783;
225.0000;1.3252;1.6807;
225.3000;1.3195;1.6733;
225.6000;1.3211;1.6758;
225.9000;1.3203;1.6783;
226.2000;1.3179;1.6709;
226.5000;1.3211;1.6807;
226.8000;1.3146;1.6610;
227.1000;1.3203;1.6758;
227.4000;1.3187;1.6684;
227.7000;1.3171;1.6610;
228.0000;1.3195;1.6561;
228.3000;1.3195;1.6512;
228.6000;1.3203;1.6512;
228.9000;1.3154;1.6340;
229.2000;1.3187;1.6537;
229.5000;1.3211;1.6660;
229.8000;1.3187;1.6709;
230.1000;1.3162;1.6709;
230.4000;1.3187;1.6807;
230.7000;1.3179;1.6807;
231.0000;1.3179;1.6832;
231.3000;1.3195;1.6807;
231.6000;1.3114;1.6586;
231.9000;1.3179;1.6783;
232.2000;1.3203;1.6733;
232.5000;1.3179;1.6660;
232.8000;1.3195;1.6610;
233.1000;1.3187;1.6610;
233.4000;1.3187;1.6660;
233.7000;1.3187;1.6561;
234.0000;1.3195;1.6660;
234.3000;1.3179;1.6709;
234.6000;1.3195;1.6758;
234.9000;1.3195;1.6733;
235.2000;1.3211;1.6758;
235.5000;1.3179;1.6635;
235.8000;1.3179;1.6635;
236.1000;1.3195;1.6660;
236.4000;1.3203;1.6733;
236.7000;1.3187;1.6709;
237.0000;1.3187;1.6684;
237.3000;1.3195;1.6807;
237.6000;1.3195;1.6783;
237.9000;1.3203;1.6758;
238.2000;1.3236;1.6856;
238.5000;1.3195;1.6709;
238.8000;1.3187;1.6783;
239.1000;1.3203;1.6758;
239.4000;1.3195;1.6660;
239.7000;1.3203;1.6709;
240.0000;1.3219;1.6660;
240.3000;1.3211;1.6660;
240.6000;1.3130;1.6438;
240.9000;1.3179;1.6610;
241.2000;1.3187;1.6586;
241.5000;1.3187;1.6537;
241.8000;1.3179;1.6586;
242.1000;1.3195;1.6660;
242.4000;1.3187;1.6733;
242.7000;1.3162;1.6660;
243.0000;1.3203;1.6832;
243.3000;1.3187;1.6758;
243.6000;1.3195;1.6881;
243.9000;1.3187;1.6906;
244.2000;1.3179;1.6881;
244.5000;1.3195;1.6856;
244.8000;1.3219;1.7029;
245.1000;1.3203;1.6856;
245.4000;1.3195;1.6832;
245.7000;1.3187;1.6758;
246.0000;1.3146;1.6586;
246.3000;1.3195;1.6758;
246.6000;1.3187;1.6783;
246.9000;1.3195;1.6733;
247.2000;1.3187;1.6709;
247.5000;1.3203;1.6684;
247.8000;1.3179;1.6610;
248.1000;1.3171;1.6635;
248.4000;1.3171;1.6660;
248.7000;1.3203;1.6709;
249.0000;1.3179;1.6610;
249.3000;1.3195;1.6684;
249.6000;1.3203;1.6733;
249.9000;1.3179;1.6709;
250.2000;1.3195;1.6758;
250.5000;1.3195;1.6783;
250.8000;1.3179;1.6783;
251.1000;1.3203;1.6807;
251.4000;1.3203;1.6733;
251.7000;1.3203;1.6709;
252.0000;1.3252;1.6758;
252.3000;1.3211;1.6684;
252.6000;1.3187;1.6758;
252.9000;1.3195;1.6783;
253.2000;1.3195;1.6783;
253.5000;1.3187;1.6758;
253.8000;1.3171;1.6709;
254.1000;1.3179;1.6660;
254.4000;1.3179;1.6561;
254.7000;1.3171;1.6512;
255.0000;1.3179;1.6561;
255.3000;1.3179;1.6635;
255.6000;1.3195;1.6684;
255.9000;1.3179;1.6537;
256.2000;1.3195;1.6684;
256.5000;1.3187;1.6807;
256.8000;1.3211;1.6832;
257.1000;1.3195;1.6881;
257.4000;1.3195;1.6807;
257.7000;1.3195;1.6733;
258.0000;1.3211;1.6709;
258.3000;1.3195;1.6660;
258.6000;1.3195;1.6610;
258.9000;1.3187;1.6610;
259.2000;1.3187;1.6586;
259.5000;1.3252;1.6807;
259.8000;1.3179;1.6635;
260.1000;1.3187;1.6709;
260.4000;1.3187;1.6709;
260.7000;1.3203;1.6758;
261.0000;1.3203;1.6783;
261.3000;1.3195;1.6807;
261.6000;1.3195;1.6856;
261.9000;1.3203;1.6856;
262.2000;1.3203;1.6758;
262.5000;1.3179;1.6635;
262.8000;1.3219;1.6758;
263.1000;1.3179;1.6832;
263.4000;1.3195;1.6807;
263.7000;1.3203;1.6783;
264.0000;1.3179;1.6733;
264.3000;1.3187;1.6709;
264.6000;1.3203;1.6733;
264.9000;1.3195;1.6660;
265.2000;1.3195;1.6709;
265.5000;1.3089;1.6561;
265.8000;1.3171;1.6758;
266.1000;1.3187;1.6758;
266.4000;1.3211;1.6832;
266.7000;1.3179;1.6807;
267.0000;1.3171;1.6832;
267.3000;1.3195;1.6856;
267.6000;1.3179;1.6807;
267.9000;1.3179;1.6758;
268.2000;1.3203;1.6832;
268.5000;1.3203;1.6807;
268.8000;1.3187;1.6709;
269.1000;1.3203;1.6684;
269.4000;1.3203;1.6610;
269.7000;1.3195;1.6660;
270.0000;1.3187;1.6660;
270.3000;1.3187;1.6660;
270.6000;1.3187;1.6684;
270.9000;1.3203;1.6684;
271.2000;1.3187;1.6733;
271.5000;1.3179;1.6758;
271.8000;1.3187;1.6758;
272.1000;1.3195;1.6783;
272.4000;1.3203;1.6684;
272.7000;1.3179;1.6561;
273.0000;1.3187;1.6561;
273.3000;1.3195;1.6635;
273.6000;1.3187;1.6684;
273.9000;1.3187;1.6586;
274.2000;1.3179;1.6512;
274.5000;1.3195;1.6512;
274.8000;1.3187;1.6512;
275.1000;1.3195;1.6586;
275.4000;1.3179;1.6487;
275.7000;1.3195;1.6561;
276.0000;1.3195;1.6561;
276.3000;1.3179;1.6537;
276.6000;1.3146;1.6537;
276.9000;1.3187;1.6610;
277.2000;1.3203;1.6635;
277.5000;1.3105;1.6413;
277.8000;1.3195;1.6684;
278.1000;1.3195;1.6660;
278.4000;1.3195;1.6660;
278.7000;1.3179;1.6660;
279.0000;1.3179;1.6610;
279.3000;1.3187;1.6512;
279.6000;1.3195;1.6463;
279.9000;1.3203;1.6512;
280.2000;1.3187;1.6487;
280.5000;1.3171;1.6537;
280.8000;1.3179;1.6512;
281.1000;1.3187;1.6487;
281.4000;1.3195;1.6463;
281.7000;1.3195;1.6487;
282.0000;1.3195;1.6438;
282.3000;1.3187;1.6463;
282.6000;1.3187;1.6512;
282.9000;1.3171;1.6463;
283.2000;1.3171;1.6413;
283.5000;1.3187;1.6463;
283.8000;1.3187;1.6487;
284.1000;1.3187;1.6463;
284.4000;1.3171;1.6487;
284.7000;1.3179;1.6635;
285.0000;1.3179;1.6635;
285.3000;1.3187;1.6733;
285.6000;1.3162;1.6684;
285.9000;1.3187;1.6709;
286.2000;1.3187;1.6733;
286.5000;1.3187;1.6635;
286.8000;1.3179;1.6635;
287.1000;1.3195;1.6660;
287.4000;1.3195;1.6660;
287.7000;1.3195;1.6610;
288.0000;1.3211;1.6610;
288.3000;1.3187;1.6610;
288.6000;1.3130;1.6463;
288.9000;1.3187;1.6586;
289.2000;1.3203;1.6586;
289.5000;1.3179;1.6586;
289.8000;1.3187;1.6635;
290.1000;1.3179;1.6512;
290.4000;1.3179;1.6586;
290.7000;1.3187;1.6610;
291.0000;1.3195;1.6635;
291.3000;1.3179;1.6709;
291.6000;1.3171;1.6807;
291.9000;1.3187;1.6807;
292.2000;1.3187;1.6758;
292.5000;1.3179;1.6733;
292.8000;1.3195;1.6758;
293.1000;1.3187;1.6709;
293.4000;1.3179;1.6709;
293.7000;1.3162;1.6733;
294.0000;1.3236;1.6856;
294.3000;1.3171;1.6783;
294.6000;1.3195;1.6758;
294.9000;1.3203;1.6684;
295.2000;1.3203;1.6660;
295.5000;1.3195;1.6660;
295.8000;1.3179;1.6586;
296.1000;1.3195;1.6660;
296.4000;1.3187;1.6733;
296.7000;1.3195;1.6709;
297.0000;1.3187;1.6610;
297.3000;1.3195;1.6684;
297.6000;1.3187;1.6709;
297.9000;1.3195;1.6758;
298.2000;1.3162;1.6586;
298.5000;1.3187;1.6660;
298.8000;1.3187;1.6684;
299.1000;1.3146;1.6610;
299.4000;1.3195;1.6733;
299.7000;1.3187;1.6684;
300.0000;1.3203;1.6709;
300.3000;1.3162;1.6586;
300.6000;1.3203;1.6709;
300.9000;1.3195;1.6635;
301.2000;1.3171;1.6487;
301.5000;1.3179;1.6463;
301.8000;1.3195;1.6610;
302.1000;1.3187;1.6660;
302.4000;1.3187;1.6660;
302.7000;1.3195;1.6660;
303.0000;1.3187;1.6684;
303.3000;1.3211;1.6660;
303.6000;1.3187;1.6586;
303.9000;1.3211;1.6758;
304.2000;1.3211;1.6807;
304.5000;1.3187;1.6807;
304.8000;1.3179;1.6684;
305.1000;1.3195;1.6586;
305.4000;1.3195;1.6635;
305.7000;1.3187;1.6586;
306.0000;1.3187;1.6561;
306.3000;1.3219;1.6684;
306.6000;1.3195;1.6561;
306.9000;1.3195;1.6561;
307.2000;1.3211;1.6610;
307.5000;1.3187;1.6610;
307.8000;1.3195;1.6660;
308.1000;1.3187;1.6684;
308.4000;1.3187;1.6660;
308.7000;1.3187;1.6610;
309.0000;1.3284;1.6807;
309.3000;1.3195;1.6610;
309.6000;1.3179;1.6586;
309.9000;1.3171;1.6586;
310.2000;1.3187;1.6660;
310.5000;1.3195;1.6610;
310.8000;1.3187;1.6660;
311.1000;1.3171;1.6561;
311.4000;1.3179;1.6635;
311.7000;1.3219;1.6684;
312.0000;1.3195;1.6660;
312.3000;1.3187;1.6635;
312.6000;1.3211;1.6635;
312.9000;1.3195;1.6635;
313.2000;1.3195;1.6586;
313.5000;1.3203;1.6610;
313.8000;1.3187;1.6561;
314.1000;1.3203;1.6487;
314.4000;1.3203;1.6487;
314.7000;1.3203;1.6561;
315.0000;1.3219;1.6586;
315.3000;1.3195;1.6537;
315.6000;1.3162;1.6561;
315.9000;1.3195;1.6733;
316.2000;1.3211;1.6758;
316.5000;1.3195;1.6586;
316.8000;1.3293;1.6807;
317.1000;1.3211;1.6684;
317.4000;1.3179;1.6684;
317.7000;1.3195;1.6807;
318.0000;1.3179;1.6807;
318.3000;1.3203;1.6832;
318.6000;1.3203;1.6709;
318.9000;1.3187;1.6684;
319.2000;1.3195;1.6807;
319.5000;1.3195;1.6856;
319.8000;1.3195;1.6881;
320.1000;1.3154;1.6783;
320.4000;1.3195;1.6856;
320.7000;1.3187;1.6832;
321.0000;1.3187;1.6856;
321.3000;1.3203;1.6832;
321.6000;1.3179;1.6709;
321.9000;1.3179;1.6635;
322.2000;1.3179;1.6684;
322.5000;1.3171;1.6660;
322.8000;1.3187;1.6684;
323.1000;1.3171;1.6684;
323.4000;1.3179;1.6684;
323.7000;1.3187;1.6635;
324.0000;1.3179;1.6610;
324.3000;1.3187;1.6684;
324.6000;1.3171;1.6684;
324.9000;1.3195;1.6758;
325.2000;1.3203;1.6807;
325.5000;1.3154;1.6684;
325.8000;1.3179;1.6733;
326.1000;1.3171;1.6610;
326.4000;1.3211;1.6635;
326.7000;1.3179;1.6610;
327.0000;1.3195;1.6709;
327.3000;1.3195;1.6660;
327.6000;1.3187;1.6709;
327.9000;1.3195;1.6733;
328.2000;1.3203;1.6758;
328.5000;1.3179;1.6684;
328.8000;1.3179;1.6709;
329.1000;1.3211;1.6758;
329.4000;1.3187;1.6758;
329.7000;1.3154;1.6635;
330.0000;1.3252;1.6881;
330.3000;1.3179;1.6709;
330.6000;1.3211;1.6758;
330.9000;1.3187;1.6586;
331.2000;1.3203;1.6586;
331.5000;1.3203;1.6586;
331.8000;1.3138;1.6340;
332.1000;1.3187;1.6413;
332.4000;1.3203;1.6487;
332.7000;1.3203;1.6610;
333.0000;1.3187;1.6660;
333.3000;1.3162;1.6610;
333.6000;1.3187;1.6561;
333.9000;1.3203;1.6660;
334.2000;1.3179;1.6635;
334.5000;1.3236;1.6832;
334.8000;1.3179;1.6832;
335.1000;1.3179;1.6807;
335.4000;1.3187;1.6709;
335.7000;1.3219;1.6733;
336.0000;1.3154;1.6561;
336.3000;1.3203;1.6610;
336.6000;1.3244;1.6635;
336.9000;1.3195;1.6537;
337.2000;1.3195;1.6586;
337.5000;1.3179;1.6438;
337.8000;1.3154;1.6487;
338.1000;1.3171;1.6586;
338.4000;1.3179;1.6561;
338.7000;1.3130;1.6389;
339.0000;1.3195;1.6537;
339.3000;1.3187;1.6463;
339.6000;1.3195;1.6487;
339.9000;1.3252;1.6586;
340.2000;1.3187;1.6586;
340.5000;1.3195;1.6635;
340.8000;1.3179;1.6561;
341.1000;1.3203;1.6586;
341.4000;1.3195;1.6635;
341.7000;1.3187;1.6610;
342.0000;1.3179;1.6635;
342.3000;1.3179;1.6635;
342.6000;1.3179;1.6635;
342.9000;1.3195;1.6660;
343.2000;1.3179;1.6586;
343.5000;1.3187;1.6610;
343.8000;1.3171;1.6635;
344.1000;1.3195;1.6783;
344.4000;1.3146;1.6660;
344.7000;1.3171;1.6684;
345.0000;1.3211;1.6783;
345.3000;1.3187;1.6832;
345.6000;1.3203;1.6955;
345.9000;1.3171;1.6930;
346.2000;1.3162;1.6930;
346.5000;1.3162;1.6930;
346.8000;1.3179;1.6955;
347.1000;1.3179;1.6807;
347.4000;1.3195;1.6783;
347.7000;1.3162;1.6758;
348.0000;1.3171;1.6709;
348.3000;1.3171;1.6758;
348.6000;1.3236;1.6906;
348.9000;1.3187;1.6758;
349.2000;1.3203;1.6733;
349.5000;1.3179;1.6758;
349.8000;1.3171;1.6733;
350.1000;1.3187;1.6758;
350.4000;1.3195;1.6783;
350.7000;1.3195;1.6709;
351.0000;1.3179;1.6635;
351.3000;1.3171;1.6660;
351.6000;1.3203;1.6610;
351.9000;1.3211;1.6610;
352.2000;1.3203;1.6537;
352.5000;1.3179;1.6487;
352.8000;1.3187;1.6537;
353.1000;1.3187;1.6537;
353.4000;1.3195;1.6586;
353.7000;1.3105;1.6340;
354.0000;1.3171;1.6586;
354.3000;1.3211;1.6635;
354.6000;1.3195;1.6610;
354.9000;1.3195;1.6709;
355.2000;1.3211;1.6758;
355.5000;1.3138;1.6561;
355.8000;1.3154;1.6561;
356.1000;1.3187;1.6610;
356.4000;1.3203;1.6733;
356.7000;1.3162;1.6783;
357.0000;1.3211;1.6881;
357.3000;1.3187;1.6709;
357.6000;1.3211;1.6733;
357.9000;1.3219;1.6783;
358.2000;1.3195;1.6635;
358.5000;1.3171;1.6586;
358.8000;1.3162;1.6463;
359.1000;1.3130;1.6438;
359.4000;1.3179;1.6610;
359.7000;1.3260;1.6733;
360.0000;1.3187;1.6586;
360.3000;1.3179;1.6610;
360.6000;1.3154;1.6561;
360.9000;1.3195;1.6660;
361.2000;1.3114;1.6438;
361.5000;1.3195;1.6561;
361.8000;1.3122;1.6290;
362.1000;1.3146;1.6389;
362.4000;1.3179;1.6438;
362.7000;1.3154;1.6389;
363.0000;1.3195;1.6438;
363.3000;1.3244;1.6586;
363.6000;1.3236;1.6512;
363.9000;1.3211;1.6463;
364.2000;1.3195;1.6438;
364.5000;1.3203;1.6537;
364.8000;1.3187;1.6537;
365.1000;1.3195;1.6537;
365.4000;1.3195;1.6537;
365.7000;1.3211;1.6586;
366.0000;1.3203;1.6561;
366.3000;1.3195;1.6561;
366.6000;1.3187;1.6586;
366.9000;1.3187;1.6660;
367.2000;1.3195;1.6660;
367.5000;1.3203;1.6610;
367.8000;1.3179;1.6660;
368.1000;1.3203;1.6610;
368.4000;1.3203;1.6610;
368.7000;1.3195;1.6709;
369.0000;1.3179;1.6709;
369.3000;1.3162;1.6660;
369.6000;1.3171;1.6684;
369.9000;1.3179;1.6709;
370.2000;1.3171;1.6733;
370.5000;1.3187;1.6684;
370.8000;1.3162;1.6610;
371.1000;1.3195;1.6733;
371.4000;1.3162;1.6684;
371.7000;1.3187;1.6709;
372.0000;1.3187;1.6709;
372.3000;1.3187;1.6733;
372.6000;1.3171;1.6684;
372.9000;1.3203;1.6733;
373.2000;1.3195;1.6537;
373.5000;1.3236;1.6487;
373.8000;1.3195;1.6340;
374.1000;1.3179;1.6315;
374.4000;1.3203;1.6487;
374.7000;1.3195;1.6438;
375.0000;1.3187;1.6537;
375.3000;1.3203;1.6635;
375.6000;1.3179;1.6610;
375.9000;1.3219;1.6758;
376.2000;1.3187;1.6709;
376.5000;1.3171;1.6635;
376.8000;1.3219;1.6758;
377.1000;1.3187;1.6635;
377.4000;1.3211;1.6733;
377.7000;1.3211;1.6733;
378.0000;1.3187;1.6684;
378.3000;1.3162;1.6709;
378.6000;1.3195;1.6733;
378.9000;1.3195;1.6709;
379.2000;1.3187;1.6733;
379.5000;1.3187;1.6733;
379.8000;1.3211;1.6709;
380.1000;1.3171;1.6610;
380.4000;1.3171;1.6537;
380.7000;1.3171;1.6364;
381.0000;1.3179;1.6389;
381.3000;1.3187;1.6413;
381.6000;1.3219;1.6487;
381.9000;1.3171;1.6364;
382.2000;1.3171;1.6266;
382.5000;1.3195;1.6192;
382.8000;1.3187;1.6217;
383.1000;1.3179;1.6192;
383.4000;1.3162;1.6192;
383.7000;1.3187;1.6290;
384.0000;1.3195;1.6315;
384.3000;1.3187;1.6315;
384.6000;1.3211;1.6438;
384.9000;1.3187;1.6389;
385.2000;1.3203;1.6389;
385.5000;1.3171;1.6266;
385.8000;1.3187;1.6315;
386.1000;1.3187;1.6290;
386.4000;1.3154;1.6364;
386.7000;1.3187;1.6438;
387.0000;1.3195;1.6463;
387.3000;1.3187;1.6413;
387.6000;1.3203;1.6512;
387.9000;1.3203;1.6537;
388.2000;1.3179;1.6487;
388.5000;1.3179;1.6463;
388.8000;1.3195;1.6487;
389.1000;1.3203;1.6561;
389.4000;1.3211;1.6537;
389.7000;1.3203;1.6537;
390.0000;1.3187;1.6487;
390.3000;1.3203;1.6537;
390.6000;1.3138;1.6364;
390.9000;1.3179;1.6487;
391.2000;1.3187;1.6561;
391.5000;1.3187;1.6635;
391.8000;1.3187;1.6709;
392.1000;1.3171;1.6709;
392.4000;1.3179;1.6635;
392.7000;1.3203;1.6709;
393.0000;1.3179;1.6660;
393.3000;1.3187;1.6635;
393.6000;1.3179;1.6561;
393.9000;1.3154;1.6438;
394.2000;1.3162;1.6487;
394.5000;1.3187;1.6635;
394.8000;1.3162;1.6610;
395.1000;1.3211;1.6709;
395.4000;1.3228;1.6733;
395.7000;1.3179;1.6537;
396.0000;1.3179;1.6487;
396.3000;1.3187;1.6512;
396.6000;1.3195;1.6487;
396.9000;1.3171;1.6389;
397.2000;1.3187;1.6438;
397.5000;1.3171;1.6413;
397.8000;1.3187;1.6413;
398.1000;1.3187;1.6389;
398.4000;1.3162;1.6389;
398.7000;1.3154;1.6364;
399.0000;1.3195;1.6413;
399.3000;1.3219;1.6487;
399.6000;1.3179;1.6340;
399.9000;1.3244;1.6561;
400.2000;1.3187;1.6463;
400.5000;1.3187;1.6512;
400.8000;1.3187;1.6586;
401.1000;1.3154;1.6487;
401.4000;1.3138;1.6512;
401.7000;1.3171;1.6635;
402.0000;1.3179;1.6684;
402.3000;1.3171;1.6635;
402.6000;1.3154;1.6586;
402.9000;1.3171;1.6537;
403.2000;1.3228;1.6610;
403.5000;1.3162;1.6413;
403.8000;1.3154;1.6389;
404.1000;1.3171;1.6635;
404.4000;1.3171;1.6684;
404.7000;1.3195;1.6709;
405.0000;1.3162;1.6635;
405.3000;1.3179;1.6635;
405.6000;1.3203;1.6660;
405.9000;1.3187;1.6610;
406.2000;1.3179;1.6487;
406.5000;1.3179;1.6438;
406.8000;1.3171;1.6438;
407.1000;1.3195;1.6463;
407.4000;1.3162;1.6364;
407.7000;1.3179;1.6364;
408.0000;1.3187;1.6315;
408.3000;1.3187;1.6315;
408.6000;1.3171;1.6364;
408.9000;1.3171;1.6413;
409.2000;1.3179;1.6512;
409.5000;1.3187;1.6512;
409.8000;1.3089;1.6241;
410.1000;1.3195;1.6561;
410.4000;1.3187;1.6537;
410.7000;1.3187;1.6610;
411.0000;1.3195;1.6709;
411.3000;1.3162;1.6635;
411.6000;1.3171;1.6586;
411.9000;1.3138;1.6463;
412.2000;1.3162;1.6537;
412.5000;1.3179;1.6537;
412.8000;1.3162;1.6463;
413.1000;1.3171;1.6487;
413.4000;1.3179;1.6561;
413.7000;1.3187;1.6586;
414.0000;1.3130;1.6413;
414.3000;1.3171;1.6438;
414.6000;1.3171;1.6364;
414.9000;1.3187;1.6389;
415.2000;1.3187;1.6512;
415.5000;1.3162;1.6487;
415.8000;1.3154;1.6463;
416.1000;1.3179;1.6487;
416.4000;1.3187;1.6512;
416.7000;1.3171;1.6463;
417.0000;1.3179;1.6487;
417.3000;1.3187;1.6537;
417.6000;1.3146;1.6438;
417.9000;1.3171;1.6487;
418.2000;1.3219;1.6610;
418.5000;1.3187;1.6610;
418.8000;1.3179;1.6438;
419.1000;1.3179;1.6389;
419.4000;1.3187;1.6438;
419.7000;1.3130;1.6340;
420.0000;1.3187;1.6438;
420.3000;1.3179;1.6537;
420.6000;1.3187;1.6512;
420.9000;1.3195;1.6512;
421.2000;1.3268;1.6733;
421.5000;1.3187;1.6463;
421.8000;1.3195;1.6463;
422.1000;1.3187;1.6413;
422.4000;1.3187;1.6413;
422.7000;1.3203;1.6487;
423.0000;1.3195;1.6537;
423.3000;1.3187;1.6561;
423.6000;1.3203;1.6586;
423.9000;1.3211;1.6537;
424.2000;1.3195;1.6487;
424.5000;1.3195;1.6438;
424.8000;1.3211;1.6537;
425.1000;1.3171;1.6487;
425.4000;1.3244;1.6586;
425.7000;1.3162;1.6340;
426.0000;1.3187;1.6389;
426.3000;1.3268;1.6684;
426.6000;1.3179;1.6512;
426.9000;1.3154;1.6512;
427.2000;1.3171;1.6561;
427.5000;1.3171;1.6610;
427.8000;1.3162;1.6660;
428.1000;1.3171;1.6684;
428.4000;1.3171;1.6635;
428.7000;1.3171;1.6586;
429.0000;1.3162;1.6537;
429.3000;1.3162;1.6487;
429.6000;1.3162;1.6463;
429.9000;1.3171;1.6512;
430.2000;1.3171;1.6438;
430.5000;1.3171;1.6413;
430.8000;1.3203;1.6586;
431.1000;1.3154;1.6438;
431.4000;1.3171;1.6487;
431.7000;1.3146;1.6487;
432.0000;1.3171;1.6561;
432.3000;1.3130;1.6438;
432.6000;1.3179;1.6610;
432.9000;1.3171;1.6660;
433.2000;1.3179;1.6684;
433.5000;1.3179;1.6635;
433.8000;1.3179;1.6537;
434.1000;1.3187;1.6487;
434.4000;1.3187;1.6487;
434.7000;1.3179;1.6561;
435.0000;1.3187;1.6635;
435.3000;1.3179;1.6660;
435.6000;1.3179;1.6660;
435.9000;1.3171;1.6684;
436.2000;1.3187;1.6709;
436.5000;1.3203;1.6733;
436.8000;1.3179;1.6684;
437.1000;1.3179;1.6537;
437.4000;1.3162;1.6487;
437.7000;1.3162;1.6487;
438.0000;1.3171;1.6389;
438.3000;1.3162;1.6364;
438.6000;1.3162;1.6364;
438.9000;1.3203;1.6512;
439.2000;1.3195;1.6512;
439.5000;1.3187;1.6438;
439.8000;1.3171;1.6463;
440.1000;1.3171;1.6512;
440.4000;1.3171;1.6610;
440.7000;1.3195;1.6561;
441.0000;1.3171;1.6487;
441.3000;1.3195;1.6487;
441.6000;1.3228;1.6610;
441.9000;1.3187;1.6537;
442.2000;1.3179;1.6561;
442.5000;1.3203;1.6610;
442.8000;1.3179;1.6635;
443.1000;1.3187;1.6660;
443.4000;1.3179;1.6660;
443.7000;1.3179;1.6660;
444.0000;1.3195;1.6758;
444.3000;1.3195;1.6758;
444.6000;1.3179;1.6684;
444.9000;1.3179;1.6684;
445.2000;1.3154;1.6660;
445.5000;1.3179;1.6635;
445.8000;1.3171;1.6610;
446.1000;1.3195;1.6610;
446.4000;1.3219;1.6709;
446.7000;1.3187;1.6709;
447.0000;1.3187;1.6660;
447.3000;1.3179;1.6660;
447.6000;1.3171;1.6684;
447.9000;1.3179;1.6684;
448.2000;1.3154;1.6635;
448.5000;1.3179;1.6586;
448.8000;1.3187;1.6586;
449.1000;1.3195;1.6586;
449.4000;1.3187;1.6660;
449.7000;1.3146;1.6586;
450.0000;1.3146;1.6635;
450.3000;1.3171;1.6709;
450.6000;1.3179;1.6684;
450.9000;1.3162;1.6635;
451.2000;1.3171;1.6733;
451.5000;1.3162;1.6783;
451.8000;1.3122;1.6635;
452.1000;1.3162;1.6758;
452.4000;1.3171;1.6758;
452.7000;1.3179;1.6709;
453.0000;1.3187;1.6733;
453.3000;1.3154;1.6709;
453.6000;1.3171;1.6758;
453.9000;1.3162;1.6684;
454.2000;1.3179;1.6733;
454.5000;1.3162;1.6709;
454.8000;1.3130;1.6684;
455.1000;1.3138;1.6635;
455.4000;1.3179;1.6635;
455.7000;1.3179;1.6660;
456.0000;1.3154;1.6684;
456.3000;1.3211;1.6930;
456.6000;1.3089;1.6635;
456.9000;1.3187;1.6881;
457.2000;1.3146;1.6709;
457.5000;1.3154;1.6807;
457.8000;1.3162;1.6832;
458.1000;1.3244;1.6906;
458.4000;1.3195;1.6733;
458.7000;1.3187;1.6610;
459.0000;1.3171;1.6635;
459.3000;1.3179;1.6635;
459.6000;1.3211;1.6660;
459.9000;1.3162;1.6512;
460.2000;1.3187;1.6487;
460.5000;1.3171;1.6413;
460.8000;1.3179;1.6537;
461.1000;1.3171;1.6561;
461.4000;1.3179;1.6660;
461.7000;1.3187;1.6709;
462.0000;1.3179;1.6709;
462.3000;1.3179;1.6709;
462.6000;1.3171;1.6635;
462.9000;1.3179;1.6684;
463.2000;1.3195;1.6709;
463.5000;1.3171;1.6733;
463.8000;1.3211;1.6783;
464.1000;1.3154;1.6561;
464.4000;1.3162;1.6610;
464.7000;1.3171;1.6635;
465.0000;1.3187;1.6660;
465.3000;1.3171;1.6684;
465.6000;1.3187;1.6660;
465.9000;1.3179;1.6487;
466.2000;1.3171;1.6463;
466.5000;1.3195;1.6438;
466.8000;1.3154;1.6389;
467.1000;1.3179;1.6389;
467.4000;1.3146;1.6389;
467.7000;1.3171;1.6463;
468.0000;1.3162;1.6512;
468.3000;1.3179;1.6709;
468.6000;1.3171;1.6660;
468.9000;1.3179;1.6635;
469.2000;1.3154;1.6660;
469.5000;1.3171;1.6684;
469.8000;1.3154;1.6512;
470.1000;1.3162;1.6537;
470.4000;1.3195;1.6610;
470.7000;1.3146;1.6463;
471.0000;1.3179;1.6586;
471.3000;1.3179;1.6635;
471.6000;1.3171;1.6586;
471.9000;1.3171;1.6684;
472.2000;1.3260;1.6979;
472.5000;1.3187;1.6856;
472.8000;1.3162;1.6783;
473.1000;1.3179;1.6832;
473.4000;1.3187;1.6856;
473.7000;1.3179;1.6832;
474.0000;1.3187;1.6807;
474.3000;1.3195;1.6758;
474.6000;1.3211;1.6807;
474.9000;1.3187;1.6783;
475.2000;1.3211;1.6758;
475.5000;1.3171;1.6610;
475.8000;1.3081;1.6413;
476.1000;1.3179;1.6660;
476.4000;1.3162;1.6733;
476.7000;1.3171;1.6709;
477.0000;1.3162;1.6709;
477.3000;1.3187;1.6758;
477.6000;1.3219;1.6807;
477.9000;1.3162;1.6758;
478.2000;1.3154;1.6684;
478.5000;1.3162;1.6709;
478.8000;1.3146;1.6733;
479.1000;1.3171;1.6832;
479.4000;1.3179;1.6733;
479.7000;1.3162;1.6684;
480.0000;1.3154;1.6635;
480.3000;1.3171;1.6684;
480.6000;1.3154;1.6684;
480.9000;1.3146;1.6610;
481.2000;1.3179;1.6684;
481.5000;1.3187;1.6660;
481.8000;1.3187;1.6733;
482.1000;1.3171;1.6684;
482.4000;1.3162;1.6684;
482.7000;1.3203;1.6758;
483.0000;1.3162;1.6783;
483.3000;1.3171;1.6783;
483.6000;1.3114;1.6610;
483.9000;1.3138;1.6660;
484.2000;1.3162;1.6709;
484.5000;1.3162;1.6733;
484.8000;1.3154;1.6709;
485.1000;1.3162;1.6733;
485.4000;1.3179;1.6684;
485.7000;1.3154;1.6635;
486.0000;1.3154;1.6660;
486.3000;1.3179;1.6832;
486.6000;1.3154;1.6856;
486.9000;1.3171;1.6832;
487.2000;1.3162;1.6783;
487.5000;1.3146;1.6783;
487.8000;1.3162;1.6807;
488.1000;1.3179;1.6783;
488.4000;1.3162;1.6684;
488.7000;1.3179;1.6709;
489.0000;1.3179;1.6709;
489.3000;1.3162;1.6660;
489.6000;1.3162;1.6586;
489.9000;1.3187;1.6733;
490.2000;1.3179;1.6783;
490.5000;1.3187;1.6807;
490.8000;1.3162;1.6733;
491.1000;1.3179;1.6758;
491.4000;1.3162;1.6733;
491.7000;1.3179;1.6783;
492.0000;1.3171;1.6684;
492.3000;1.3187;1.6733;
492.6000;1.3154;1.6635;
492.9000;1.3219;1.6832;
493.2000;1.3162;1.6709;
493.5000;1.3162;1.6709;
493.8000;1.3187;1.6807;
494.1000;1.3179;1.6758;
494.4000;1.3171;1.6660;
494.7000;1.3171;1.6660;
495.0000;1.3162;1.6635;
495.3000;1.3171;1.6684;
495.6000;1.3171;1.6758;
495.9000;1.3162;1.6832;
496.2000;1.3154;1.6807;
496.5000;1.3162;1.6783;
496.8000;1.3162;1.6709;
497.1000;1.3162;1.6709;
497.4000;1.3162;1.6709;
497.7000;1.3154;1.6733;
498.0000;1.3179;1.6758;
498.3000;1.3171;1.6635;
498.6000;1.3171;1.6586;
498.9000;1.3122;1.6463;
499.2000;1.3171;1.6438;
499.5000;1.3179;1.6463;
499.8000;1.3179;1.6537;
500.1000;1.3171;1.6512;
500.4000;1.3162;1.6561;
500.7000;1.3162;1.6561;
501.0000;1.3162;1.6512;
501.3000;1.3154;1.6438;
501.6000;1.3154;1.6512;
501.9000;1.3171;1.6610;
502.2000;1.3154;1.6586;
502.5000;1.3162;1.6610;
502.8000;1.3162;1.6586;
503.1000;1.3162;1.6709;
503.4000;1.3171;1.6660;
503.7000;1.3162;1.6537;
504.0000;1.3154;1.6512;
504.3000;1.3162;1.6561;
504.6000;1.3236;1.6660;
504.9000;1.3195;1.6586;
505.2000;1.3162;1.6610;
505.5000;1.3162;1.6635;
505.8000;1.3187;1.6660;
506.1000;1.3252;1.6906;
506.4000;1.3187;1.6783;
506.7000;1.3154;1.6709;
507.0000;1.3130;1.6635;
507.3000;1.3162;1.6684;
507.6000;1.3146;1.6635;
507.9000;1.3187;1.6684;
508.2000;1.3154;1.6635;
508.5000;1.3195;1.6758;
508.8000;1.3162;1.6733;
509.1000;1.3162;1.6807;
509.4000;1.3162;1.6832;
509.7000;1.3154;1.6930;
510.0000;1.3171;1.6906;
510.3000;1.3179;1.6856;
510.6000;1.3162;1.6881;
510.9000;1.3179;1.6856;
511.2000;1.3171;1.6856;
511.5000;1.3171;1.6807;
511.8000;1.3179;1.6807;
512.1000;1.3187;1.6832;
512.4000;1.3244;1.7029;
512.7000;1.3179;1.6930;
513.0000;1.3162;1.6832;
513.3000;1.3171;1.6906;
513.6000;1.3171;1.6856;
513.9000;1.3162;1.6832;
514.2000;1.3171;1.6832;
514.5000;1.3171;1.6906;
514.8000;1.3154;1.6881;
515.1000;1.3073;1.6684;
515.4000;1.3171;1.6906;
515.7000;1.3171;1.6856;
516.0000;1.3171;1.6881;
516.3000;1.3154;1.6832;
516.6000;1.3154;1.6856;
516.9000;1.3162;1.6807;
517.2000;1.3195;1.6856;
517.5000;1.3154;1.6807;
517.8000;1.3162;1.6832;
518.1000;1.3162;1.6856;
518.4000;1.3171;1.6832;
518.7000;1.3130;1.6733;
519.0000;1.3171;1.6856;
519.3000;1.3162;1.6930;
519.6000;1.3179;1.6955;
519.9000;1.3187;1.7004;
520.2000;1.3179;1.6930;
520.5000;1.3179;1.6930;
520.8000;1.3195;1.6832;
521.1000;1.3187;1.6832;
521.4000;1.3187;1.6832;
521.7000;1.3179;1.6758;
522.0000;1.3203;1.6856;
522.3000;1.3179;1.6733;
522.6000;1.3187;1.6832;
522.9000;1.3187;1.6856;
523.2000;1.3154;1.6684;
523.5000;1.3187;1.6807;
523.8000;1.3187;1.6832;
524.1000;1.3162;1.6832;
524.4000;1.3162;1.6906;
524.7000;1.3171;1.6881;
525.0000;1.3187;1.6832;
525.3000;1.3187;1.6758;
525.6000;1.3154;1.6660;
525.9000;1.3179;1.6684;
526.2000;1.3171;1.6709;
526.5000;1.3154;1.6561;
526.8000;1.3171;1.6537;
527.1000;1.3089;1.6389;
527.4000;1.3171;1.6660;
527.7000;1.3154;1.6635;
528.0000;1.3179;1.6807;
528.3000;1.3203;1.6881;
528.6000;1.3146;1.6684;
528.9000;1.3162;1.6684;
529.2000;1.3171;1.6635;
529.5000;1.3146;1.6487;
529.8000;1.3203;1.6610;
530.1000;1.3171;1.6635;
530.4000;1.3162;1.6660;
530.7000;1.3162;1.6660;
531.0000;1.3171;1.6709;
531.3000;1.3179;1.6807;
531.6000;1.3162;1.6684;
531.9000;1.3203;1.6709;
532.2000;1.3073;1.6512;
532.5000;1.3179;1.6733;
532.8000;1.3171;1.6856;
533.1000;1.3236;1.6930;
533.4000;1.3154;1.6709;
533.7000;1.3179;1.6783;
534.0000;1.3114;1.6635;
534.3000;1.3171;1.6709;
534.6000;1.3162;1.6709;
534.9000;1.3130;1.6758;
535.2000;1.3268;1.6979;
535.5000;1.3171;1.6783;
535.8000;1.3130;1.6684;
536.1000;1.3162;1.6807;
536.4000;1.3162;1.6832;
536.7000;1.3179;1.6856;
537.0000;1.3171;1.6906;
537.3000;1.3146;1.6783;
537.6000;1.3171;1.6856;
537.9000;1.3138;1.6807;
538.2000;1.3154;1.6783;
538.5000;1.3162;1.6832;
538.8000;1.3146;1.6758;
539.1000;1.3162;1.6832;
539.4000;1.3171;1.6856;
539.7000;1.3130;1.6783;
540.0000;1.3162;1.6807;
540.3000;1.3162;1.6856;
540.6000;1.3171;1.6709;
540.9000;1.3179;1.6709;
541.2000;1.3171;1.6733;
541.5000;1.3171;1.6783;
541.8000;1.3171;1.6783;
542.1000;1.3179;1.6807;
542.4000;1.3138;1.6733;
542.7000;1.3171;1.6733;
543.0000;1.3171;1.6684;
543.3000;1.3162;1.6660;
543.6000;1.3171;1.6610;
543.9000;1.3154;1.6586;
544.2000;1.3146;1.6660;
544.5000;1.3187;1.6832;
544.8000;1.3154;1.6881;
545.1000;1.3179;1.6906;
545.4000;1.3146;1.6783;
545.7000;1.3162;1.6783;
546.0000;1.3162;1.6758;
546.3000;1.3146;1.6684;
546.6000;1.3171;1.6733;
546.9000;1.3171;1.6807;
547.2000;1.3171;1.6709;
547.5000;1.3162;1.6709;
547.8000;1.3162;1.6733;
548.1000;1.3130;1.6635;
548.4000;1.3171;1.6733;
548.7000;1.3162;1.6709;
549.0000;1.3138;1.6660;
549.3000;1.3146;1.6635;
549.6000;1.3203;1.6783;
549.9000;1.3146;1.6610;
550.2000;1.3154;1.6487;
550.5000;1.3162;1.6413;
550.8000;1.3162;1.6438;
551.1000;1.3105;1.6315;
551.4000;1.3146;1.6389;
551.7000;1.3162;1.6487;
552.0000;1.3171;1.6537;
552.3000;1.3146;1.6586;
552.6000;1.3179;1.6635;
552.9000;1.3171;1.6561;
553.2000;1.3171;1.6463;
553.5000;1.3171;1.6413;
553.8000;1.3162;1.6389;
554.1000;1.3162;1.6487;
554.4000;1.3162;1.6561;
554.7000;1.3171;1.6586;
555.0000;1.3138;1.6537;
555.3000;1.3162;1.6537;
555.6000;1.3162;1.6561;
555.9000;1.3162;1.6635;
556.2000;1.3146;1.6635;
556.5000;1.3146;1.6635;
556.8000;1.3130;1.6684;
557.1000;1.3179;1.6783;
557.4000;1.3162;1.6758;
557.7000;1.3154;1.6709;
558.0000;1.3130;1.6660;
558.3000;1.3162;1.6783;
558.6000;1.3105;1.6733;
558.9000;1.3114;1.6709;
559.2000;1.3138;1.6709;
559.5000;1.3105;1.6610;
559.8000;1.3171;1.6783;
560.1000;1.3179;1.6807;
560.4000;1.3138;1.6684;
560.7000;1.3154;1.6684;
561.0000;1.3179;1.6733;
561.3000;1.3162;1.6684;
561.6000;1.3154;1.6684;
561.9000;1.3187;1.6783;
562.2000;1.3179;1.6807;
562.5000;1.3162;1.6807;
562.8000;1.3162;1.6733;
563.1000;1.3154;1.6709;
563.4000;1.3130;1.6709;
563.7000;1.3154;1.6807;
564.0000;1.3146;1.6783;
564.3000;1.3130;1.6684;
564.6000;1.3146;1.6684;
564.9000;1.3162;1.6709;
565.2000;1.3138;1.6660;
565.5000;1.3146;1.6660;
565.8000;1.3146;1.6709;
566.1000;1.3171;1.6709;
566.4000;1.3154;1.6586;
566.7000;1.3130;1.6561;
567.0000;1.3154;1.6610;
567.3000;1.3162;1.6660;
567.6000;1.3203;1.6807;
567.9000;1.3179;1.6660;
568.2000;1.3171;1.6660;
568.5000;1.3195;1.6807;
568.8000;1.3195;1.6832;
569.1000;1.3179;1.6856;
569.4000;1.3146;1.6709;
569.7000;1.3203;1.6906;
570.0000;1.3195;1.6856;
570.3000;1.3122;1.6660;
570.6000;1.3162;1.6733;
570.9000;1.3154;1.6635;
571.2000;1.3171;1.6709;
571.5000;1.3162;1.6660;
571.8000;1.3171;1.6586;
572.1000;1.3171;1.6610;
572.4000;1.3154;1.6684;
572.7000;1.3154;1.6733;
573.0000;1.3154;1.6684;
573.3000;1.3130;1.6684;
573.6000;1.3138;1.6758;
573.9000;1.3154;1.6783;
574.2000;1.3146;1.6807;
574.5000;1.3154;1.6856;
574.8000;1.3171;1.6979;
575.1000;1.3228;1.7102;
575.4000;1.3154;1.6881;
575.7000;1.3154;1.6807;
576.0000;1.3146;1.6733;
576.3000;1.3171;1.6709;
576.6000;1.3171;1.6758;
576.9000;1.3162;1.6783;
577.2000;1.3162;1.6783;
577.5000;1.3154;1.6783;
577.8000;1.3179;1.6807;
578.1000;1.3146;1.6733;
578.4000;1.3162;1.6758;
578.7000;1.3146;1.6758;
579.0000;1.3154;1.6881;
579.3000;1.3154;1.6856;
579.6000;1.3162;1.6856;
579.9000;1.3146;1.6758;
580.2000;1.3146;1.6783;
580.5000;1.3154;1.6733;
580.8000;1.3146;1.6635;
581.1000;1.3146;1.6512;
581.4000;1.3154;1.6586;
581.7000;1.3171;1.6635;
582.0000;1.3171;1.6684;
582.3000;1.3171;1.6561;
582.6000;1.3146;1.6586;
582.9000;1.3154;1.6561;
583.2000;1.3162;1.6586;
583.5000;1.3081;1.6512;
583.8000;1.3138;1.6733;
584.1000;1.3138;1.6758;
584.4000;1.3146;1.6783;
584.7000;1.3130;1.6660;
585.0000;1.3130;1.6660;
585.3000;1.3162;1.6684;
585.6000;1.3146;1.6709;
585.9000;1.3154;1.6758;
586.2000;1.3130;1.6709;
586.5000;1.3154;1.6684;
586.8000;1.3162;1.6635;
587.1000;1.3162;1.6635;
587.4000;1.3162;1.6635;
587.7000;1.3146;1.6635;
588.0000;1.3179;1.6635;
588.3000;1.3162;1.6610;
588.6000;1.3146;1.6537;
588.9000;1.3171;1.6610;
589.2000;1.3130;1.6561;
589.5000;1.3162;1.6635;
589.8000;1.3122;1.6537;
590.1000;1.3122;1.6561;
590.4000;1.3162;1.6586;
590.7000;1.3130;1.6537;
591.0000;1.3146;1.6561;
591.3000;1.3114;1.6512;
591.6000;1.3138;1.6537;
591.9000;1.3154;1.6660;
592.2000;1.3130;1.6684;
592.5000;1.3138;1.6635;
592.8000;1.3146;1.6561;
593.1000;1.3154;1.6561;
593.4000;1.3162;1.6635;
593.7000;1.3171;1.6635;
594.0000;1.3138;1.6635;
594.3000;1.3171;1.6586;
594.6000;1.3122;1.6438;
594.9000;1.3154;1.6660;
595.2000;1.3154;1.6684;
595.5000;1.3162;1.6709;
595.8000;1.3154;1.6684;
596.1000;1.3138;1.6660;
596.4000;1.3130;1.6635;
596.7000;1.3097;1.6561;
597.0000;1.3146;1.6684;
597.3000;1.3162;1.6733;
597.6000;1.3089;1.6660;
597.9000;1.3130;1.6783;
598.2000;1.3138;1.6832;
598.5000;1.3138;1.6832;
598.8000;1.3130;1.6807;
599.1000;1.3114;1.6807;
599.4000;1.3162;1.6856;
599.7000;1.3219;1.6856;
600.0000;1.3122;1.6561;
600.3000;1.3162;1.6487;
600.6000;1.3195;1.6413;
600.9000;1.3179;1.6364;
601.2000;1.3122;1.6143;
601.5000;1.3057;1.5995;
601.8000;1.2975;1.5872;
602.1000;1.2877;1.5651;
602.4000;1.2772;1.5405;
602.7000;1.2690;1.5306;
603.0000;1.2617;1.5257;
603.3000;1.2544;1.5158;
603.6000;1.2479;1.5035;
603.9000;1.2397;1.4789;
604.2000;1.2291;1.4642;
604.5000;1.2177;1.4519;
604.8000;1.2186;1.4543;
605.1000;1.2104;1.4396;
605.4000;1.2031;1.4248;
605.7000;1.1982;1.4223;
606.0000;1.1925;1.4223;
606.3000;1.1860;1.4174;
606.6000;1.1787;1.4174;
606.9000;1.1738;1.4125;
607.2000;1.1681;1.4026;
607.5000;1.1665;1.4125;
607.8000;1.1583;1.4100;
608.1000;1.1518;1.4026;
608.4000;1.1518;1.4026;
608.7000;1.1453;1.3928;
609.0000;1.1396;1.3928;
609.3000;1.1339;1.3780;
609.6000;1.1306;1.3731;
609.9000;1.1258;1.3707;
610.2000;1.1209;1.3608;
610.5000;1.1160;1.3534;
610.8000;1.1144;1.3608;
611.1000;1.1144;1.3731;
611.4000;1.1054;1.3608;
611.7000;1.0989;1.3411;
612.0000;1.0965;1.3362;
612.3000;1.0956;1.3362;
612.6000;1.0899;1.3362;
612.9000;1.0859;1.3362;
613.2000;1.0802;1.3288;
613.5000;1.0786;1.3239;
613.8000;1.0737;1.3239;
614.1000;1.0712;1.3239;
614.4000;1.0696;1.3337;
614.7000;1.0647;1.3214;
615.0000;1.0606;1.3190;
615.3000;1.0566;1.3116;
615.6000;1.0549;1.3091;
615.9000;1.0517;1.3067;
616.2000;1.0484;1.3116;
616.5000;1.0452;1.3091;
616.8000;1.0395;1.2968;
617.1000;1.0370;1.2944;
617.4000;1.0354;1.2968;
617.7000;1.0313;1.2919;
618.0000;1.0313;1.2993;
618.3000;1.0248;1.2919;
618.6000;1.0208;1.2993;
618.9000;1.0256;1.3214;
619.2000;1.0183;1.3116;
619.5000;1.0118;1.2993;
619.8000;1.0102;1.2845;
620.1000;1.0102;1.2821;
620.4000;1.0069;1.2747;
620.7000;1.0020;1.2673;
621.0000;0.9980;1.2648;
621.3000;0.9972;1.2698;
621.6000;0.9963;1.2648;
621.9000;0.9931;1.2575;
622.2000;0.9898;1.2476;
622.5000;0.9874;1.2427;
622.8000;0.9866;1.2427;
623.1000;0.9833;1.2427;
623.4000;0.9792;1.2329;
623.7000;0.9784;1.2353;
624.0000;0.9784;1.2402;
624.3000;0.9744;1.2329;
624.6000;0.9727;1.2279;
624.9000;0.9630;1.2132;
625.2000;0.9670;1.2304;
625.5000;0.9670;1.2402;
625.8000;0.9638;1.2402;
626.1000;0.9597;1.2304;
626.4000;0.9613;1.2353;
626.7000;0.9581;1.2329;
627.0000;0.9540;1.2329;
627.3000;0.9532;1.2427;
627.6000;0.9524;1.2476;
627.9000;0.9475;1.2427;
628.2000;0.9459;1.2402;
628.5000;0.9475;1.2452;
628.8000;0.9418;1.2402;
629.1000;0.9402;1.2402;
629.4000;0.9361;1.2329;
629.7000;0.9353;1.2452;
630.0000;0.9328;1.2427;
630.3000;0.9328;1.2402;
630.6000;0.9320;1.2452;
630.9000;0.9280;1.2402;
631.2000;0.9271;1.2402;
631.5000;0.9247;1.2378;
631.8000;0.9247;1.2378;
632.1000;0.9223;1.2304;
632.4000;0.9231;1.2206;
632.7000;0.9190;1.2181;
633.0000;0.9190;1.2230;
633.3000;0.9141;1.2329;
633.6000;0.9125;1.2378;
633.9000;0.9133;1.2476;
634.2000;0.9133;1.2476;
634.5000;0.9084;1.2304;
634.8000;0.9084;1.2279;
635.1000;0.9117;1.2402;
635.4000;0.9044;1.2402;
635.7000;0.9084;1.2501;
636.0000;0.9011;1.2402;
636.3000;0.9003;1.2353;
636.6000;0.8987;1.2329;
636.9000;0.8995;1.2329;
637.2000;0.8954;1.2255;
637.5000;0.8938;1.2304;
637.8000;0.8938;1.2255;
638.1000;0.8905;1.2206;
638.4000;0.8889;1.2206;
638.7000;0.8864;1.2230;
639.0000;0.8856;1.2279;
639.3000;0.8848;1.2255;
639.6000;0.8840;1.2230;
639.9000;0.8913;1.2402;
640.2000;0.8807;1.2132;
640.5000;0.8816;1.2206;
640.8000;0.8799;1.2181;
641.1000;0.8759;1.2279;
641.4000;0.8759;1.2255;
641.7000;0.8767;1.2230;
642.0000;0.8726;1.2156;
642.3000;0.8734;1.2107;
642.6000;0.8726;1.2009;
642.9000;0.8694;1.2009;
643.2000;0.8694;1.1959;
643.5000;0.8685;1.2009;
643.8000;0.8653;1.1984;
644.1000;0.8661;1.2058;
644.4000;0.8653;1.2033;
644.7000;0.8628;1.2107;
645.0000;0.8604;1.2058;
645.3000;0.8612;1.2132;
645.6000;0.8604;1.2033;
645.9000;0.8637;1.2082;
646.2000;0.8563;1.2082;
646.5000;0.8563;1.2058;
646.8000;0.8588;1.2132;
647.1000;0.8580;1.2058;
647.4000;0.8555;1.1984;
647.7000;0.8555;1.1984;
648.0000;0.8539;1.2033;
648.3000;0.8531;1.2107;
648.6000;0.8506;1.2156;
648.9000;0.8490;1.2156;
649.2000;0.8482;1.2132;
649.5000;0.8474;1.2107;
649.8000;0.8523;1.2206;
650.1000;0.8482;1.2156;
650.4000;0.8449;1.2107;
650.7000;0.8457;1.2033;
651.0000;0.8441;1.1984;
651.3000;0.8482;1.2156;
651.6000;0.8409;1.2033;
651.9000;0.8400;1.2009;
652.2000;0.8425;1.2181;
652.5000;0.8400;1.2181;
652.8000;0.8400;1.2181;
653.1000;0.8384;1.2132;
653.4000;0.8384;1.2181;
653.7000;0.8360;1.2132;
654.0000;0.8352;1.2230;
654.3000;0.8335;1.2107;
654.6000;0.8311;1.2107;
654.9000;0.8335;1.2156;
655.2000;0.8319;1.2156;
655.5000;0.8335;1.2156;
655.8000;0.8295;1.2107;
656.1000;0.8287;1.2107;
656.4000;0.8278;1.2132;
656.7000;0.8278;1.2156;
657.0000;0.8270;1.2181;
657.3000;0.8270;1.2255;
657.6000;0.8246;1.2206;
657.9000;0.8246;1.2230;
658.2000;0.8319;1.2402;
658.5000;0.8238;1.2181;
658.8000;0.8238;1.2156;
659.1000;0.8230;1.2132;
659.4000;0.8230;1.2255;
659.7000;0.8205;1.2304;
660.0000;0.8230;1.2402;
660.3000;0.8116;1.2107;
660.6000;0.8173;1.2181;
660.9000;0.8197;1.2206;
661.2000;0.8181;1.2181;
661.5000;0.8148;1.2181;
661.8000;0.8156;1.2279;
662.1000;0.8132;1.2255;
662.4000;0.8148;1.2255;
662.7000;0.8156;1.2304;
663.0000;0.8124;1.2329;
663.3000;0.8132;1.2304;
663.6000;0.8099;1.2353;
663.9000;0.8116;1.2255;
664.2000;0.8042;1.2033;
664.5000;0.8124;1.2206;
664.8000;0.8107;1.2230;
665.1000;0.8124;1.2353;
665.4000;0.8059;1.2058;
665.7000;0.8042;1.2033;
666.0000;0.8050;1.2082;
666.3000;0.8042;1.2058;
666.6000;0.8034;1.2058;
666.9000;0.8034;1.1959;
667.2000;0.8026;1.1959;
667.5000;0.8034;1.2009;
667.8000;0.8034;1.1959;
668.1000;0.8010;1.1886;
668.4000;0.8018;1.1984;
668.7000;0.8010;1.2033;
669.0000;0.7993;1.2107;
669.3000;0.7985;1.2058;
669.6000;0.7977;1.2058;
669.9000;0.7969;1.2058;
670.2000;0.7977;1.2156;
670.5000;0.7969;1.2132;
670.8000;0.7961;1.2033;
671.1000;0.7888;1.1836;
671.4000;0.7961;1.2058;
671.7000;0.7961;1.2132;
672.0000;0.7945;1.2156;
672.3000;0.7953;1.2132;
672.6000;0.7945;1.2181;
672.9000;0.7928;1.2033;
673.2000;0.7945;1.2082;
673.5000;0.7928;1.2009;
673.8000;0.7945;1.2058;
674.1000;0.7871;1.1984;
674.4000;0.7912;1.2082;
674.7000;0.7904;1.2082;
675.0000;0.7904;1.2132;
675.3000;0.7912;1.2132;
675.6000;0.7937;1.2230;
675.9000;0.7904;1.2107;
676.2000;0.7928;1.2156;
676.5000;0.7888;1.2009;
676.8000;0.7880;1.2009;
677.1000;0.7880;1.2082;
677.4000;0.7871;1.2009;
677.7000;0.7888;1.2082;
678.0000;0.7863;1.2107;
678.3000;0.7847;1.2009;
678.6000;0.7839;1.1959;
678.9000;0.7855;1.1984;
679.2000;0.7888;1.2230;
679.5000;0.7839;1.2132;
679.8000;0.7831;1.2156;
680.1000;0.7831;1.2107;
680.4000;0.7839;1.2082;
680.7000;0.7757;1.1836;
681.0000;0.7814;1.1984;
681.3000;0.7806;1.2033;
681.6000;0.7814;1.2082;
681.9000;0.7798;1.2009;
682.2000;0.7798;1.2058;
682.5000;0.7790;1.2033;
682.8000;0.7782;1.2107;
683.1000;0.7798;1.2230;
683.4000;0.7766;1.2058;
683.7000;0.7790;1.2181;
684.0000;0.7782;1.2107;
684.3000;0.7790;1.2132;
684.6000;0.7790;1.2156;
684.9000;0.7782;1.2107;
685.2000;0.7814;1.2206;
685.5000;0.7790;1.2181;
685.8000;0.7766;1.2132;
686.1000;0.7757;1.2107;
686.4000;0.7757;1.2058;
686.7000;0.7733;1.2033;
687.0000;0.7741;1.2058;
687.3000;0.7733;1.2009;
687.6000;0.7749;1.2058;
687.9000;0.7757;1.2058;
688.2000;0.7798;1.2181;
688.5000;0.7814;1.2279;
688.8000;0.7709;1.2107;
689.1000;0.7725;1.2206;
689.4000;0.7725;1.2156;
689.7000;0.7660;1.1886;
690.0000;0.7766;1.2255;
690.3000;0.7717;1.2230;
690.6000;0.7725;1.2230;
690.9000;0.7717;1.2329;
691.2000;0.7709;1.2329;
691.5000;0.7700;1.2304;
691.8000;0.7725;1.2304;
692.1000;0.7692;1.2230;
692.4000;0.7709;1.2279;
692.7000;0.7725;1.2378;
693.0000;0.7684;1.2304;
693.3000;0.7700;1.2353;
693.6000;0.7692;1.2279;
693.9000;0.7684;1.2230;
694.2000;0.7692;1.2255;
694.5000;0.7684;1.2279;
694.8000;0.7692;1.2206;
695.1000;0.7676;1.2156;
695.4000;0.7668;1.2082;
695.7000;0.7676;1.2058;
696.0000;0.7684;1.2156;
696.3000;0.7652;1.2181;
696.6000;0.7627;1.2181;
696.9000;0.7643;1.2279;
697.2000;0.7643;1.2329;
697.5000;0.7660;1.2353;
697.8000;0.7627;1.2230;
698.1000;0.7635;1.2279;
698.4000;0.7627;1.2279;
698.7000;0.7627;1.2255;
699.0000;0.7643;1.2255;
699.3000;0.7717;1.2452;
699.6000;0.7635;1.2255;
699.9000;0.7652;1.2255;
700.2000;0.7709;1.2501;
700.5000;0.7627;1.2255;
700.8000;0.7611;1.2279;
701.1000;0.7611;1.2279;
701.4000;0.7619;1.2329;
701.7000;0.7627;1.2353;
702.0000;0.7619;1.2353;
702.3000;0.7627;1.2353;
702.6000;0.7497;1.2132;
702.9000;0.7611;1.2427;
703.2000;0.7595;1.2452;
703.5000;0.7595;1.2427;
703.8000;0.7586;1.2452;
704.1000;0.7595;1.2476;
704.4000;0.7570;1.2452;
704.7000;0.7586;1.2501;
705.0000;0.7546;1.2378;
705.3000;0.7578;1.2353;
705.6000;0.7578;1.2402;
705.9000;0.7578;1.2452;
706.2000;0.7538;1.2353;
706.5000;0.7570;1.2378;
706.8000;0.7562;1.2378;
707.1000;0.7554;1.2304;
707.4000;0.7562;1.2255;
707.7000;0.7497;1.2107;
708.0000;0.7554;1.2279;
708.3000;0.7562;1.2353;
708.6000;0.7562;1.2402;
708.9000;0.7554;1.2378;
709.2000;0.7554;1.2329;
709.5000;0.7562;1.2402;
709.8000;0.7562;1.2402;
710.1000;0.7570;1.2402;
710.4000;0.7554;1.2402;
710.7000;0.7554;1.2353;
711.0000;0.7538;1.2304;
711.3000;0.7546;1.2329;
711.6000;0.7489;1.2279;
711.9000;0.7538;1.2427;
712.2000;0.7521;1.2329;
712.5000;0.7521;1.2304;
712.8000;0.7530;1.2353;
713.1000;0.7513;1.2353;
713.4000;0.7505;1.2452;
713.7000;0.7521;1.2575;
714.0000;0.7521;1.2575;
714.3000;0.7546;1.2575;
714.6000;0.7497;1.2476;
714.9000;0.7513;1.2525;
715.2000;0.7521;1.2501;
715.5000;0.7505;1.2501;
715.8000;0.7489;1.2452;
716.1000;0.7489;1.2427;
716.4000;0.7521;1.2501;
716.7000;0.7505;1.2452;
717.0000;0.7505;1.2402;
717.3000;0.7489;1.2378;
717.6000;0.7505;1.2378;
717.9000;0.7497;1.2353;
718.2000;0.7456;1.2329;
718.5000;0.7473;1.2402;
718.8000;0.7489;1.2476;
719.1000;0.7448;1.2378;
719.4000;0.7473;1.2427;
719.7000;0.7489;1.2427;
720.0000;0.7481;1.2501;
720.3000;0.7497;1.2452;
720.6000;0.7481;1.2378;
720.9000;0.7473;1.2427;
721.2000;0.7481;1.2452;
721.5000;0.7481;1.2353;
721.8000;0.7456;1.2329;
722.1000;0.7481;1.2353;
722.4000;0.7481;1.2353;
722.7000;0.7481;1.2476;
723.0000;0.7473;1.2476;
723.3000;0.7456;1.2501;
723.6000;0.7464;1.2427;
723.9000;0.7464;1.2353;
724.2000;0.7505;1.2452;
724.5000;0.7440;1.2255;
724.8000;0.7473;1.2427;
725.1000;0.7464;1.2402;
725.4000;0.7481;1.2402;
725.7000;0.7464;1.2427;
726.0000;0.7440;1.2427;
726.3000;0.7440;1.2452;
726.6000;0.7424;1.2501;
726.9000;0.7456;1.2452;
727.2000;0.7473;1.2501;
727.5000;0.7440;1.2402;
727.8000;0.7432;1.2402;
728.1000;0.7440;1.2427;
728.4000;0.7440;1.2353;
728.7000;0.7448;1.2353;
729.0000;0.7440;1.2452;
729.3000;0.7448;1.2427;
729.6000;0.7440;1.2353;
729.9000;0.7424;1.2353;
730.2000;0.7416;1.2378;
730.5000;0.7440;1.2452;
730.8000;0.7440;1.2378;
731.1000;0.7464;1.2402;
731.4000;0.7424;1.2255;
731.7000;0.7416;1.2279;
732.0000;0.7416;1.2329;
732.3000;0.7424;1.2304;
732.6000;0.7407;1.2255;
732.9000;0.7424;1.2353;
733.2000;0.7416;1.2427;
733.5000;0.7407;1.2476;
733.8000;0.7383;1.2427;
734.1000;0.7399;1.2452;
734.4000;0.7399;1.2427;
734.7000;0.7391;1.2353;
735.0000;0.7391;1.2304;
735.3000;0.7407;1.2402;
735.6000;0.7391;1.2378;
735.9000;0.7326;1.2058;
736.2000;0.7383;1.2132;
736.5000;0.7383;1.2132;
736.8000;0.7391;1.2230;
737.1000;0.7391;1.2402;
737.4000;0.7391;1.2402;
737.7000;0.7432;1.2525;
738.0000;0.7383;1.2304;
738.3000;0.7407;1.2255;
738.6000;0.7391;1.2156;
738.9000;0.7383;1.2107;
739.2000;0.7383;1.2082;
739.5000;0.7375;1.2058;
739.8000;0.7391;1.2156;
740.1000;0.7350;1.2082;
740.4000;0.7399;1.2255;
740.7000;0.7399;1.2255;
741.0000;0.7383;1.2304;
741.3000;0.7367;1.2353;
741.6000;0.7375;1.2279;
741.9000;0.7383;1.2230;
742.2000;0.7367;1.2206;
742.5000;0.7383;1.2230;
742.8000;0.7399;1.2255;
743.1000;0.7399;1.2279;
743.4000;0.7350;1.2255;
743.7000;0.7383;1.2230;
744.0000;0.7375;1.2255;
744.3000;0.7391;1.2255;
744.6000;0.7399;1.2206;
744.9000;0.7367;1.2181;
745.2000;0.7375;1.2181;
745.5000;0.7399;1.2279;
745.8000;0.7375;1.2230;
746.1000;0.7375;1.2279;
746.4000;0.7326;1.2181;
746.7000;0.7375;1.2329;
747.0000;0.7367;1.2427;
747.3000;0.7440;1.2599;
747.6000;0.7383;1.2427;
747.9000;0.7367;1.2452;
748.2000;0.7350;1.2329;
748.5000;0.7375;1.2378;
748.8000;0.7367;1.2378;
749.1000;0.7350;1.2304;
749.4000;0.7350;1.2353;
749.7000;0.7350;1.2353;
750.0000;0.7359;1.2378;
750.3000;0.7334;1.2329;
750.6000;0.7269;1.2156;
750.9000;0.7383;1.2452;
751.2000;0.7359;1.2378;
751.5000;0.7367;1.2304;
751.8000;0.7350;1.2206;
752.1000;0.7350;1.2206;
752.4000;0.7367;1.2181;
752.7000;0.7367;1.2255;
753.0000;0.7326;1.2206;
753.3000;0.7359;1.2230;
753.6000;0.7350;1.2156;
753.9000;0.7334;1.2107;
754.2000;0.7342;1.2255;
754.5000;0.7334;1.2255;
754.8000;0.7293;1.2156;
755.1000;0.7350;1.2255;
755.4000;0.7334;1.2304;
755.7000;0.7334;1.2255;
756.0000;0.7424;1.2452;
756.3000;0.7310;1.2082;
756.6000;0.7326;1.2082;
756.9000;0.7326;1.2107;
757.2000;0.7350;1.2329;
757.5000;0.7342;1.2402;
757.8000;0.7342;1.2304;
758.1000;0.7285;1.2230;
758.4000;0.7334;1.2329;
758.7000;0.7253;1.2206;
759.0000;0.7342;1.2353;
759.3000;0.7326;1.2255;
759.6000;0.7334;1.2230;
759.9000;0.7342;1.2255;
760.2000;0.7310;1.2255;
760.5000;0.7318;1.2230;
760.8000;0.7261;1.2082;
761.1000;0.7326;1.2255;
761.4000;0.7326;1.2353;
761.7000;0.7326;1.2353;
762.0000;0.7310;1.2255;
762.3000;0.7326;1.2329;
762.6000;0.7310;1.2255;
762.9000;0.7391;1.2304;
763.2000;0.7302;1.2082;
763.5000;0.7326;1.2206;
763.8000;0.7334;1.2255;
764.1000;0.7334;1.2255;
764.4000;0.7326;1.2329;
764.7000;0.7310;1.2304;
765.0000;0.7310;1.2230;
765.3000;0.7318;1.2181;
765.6000;0.7310;1.2206;
765.9000;0.7334;1.2279;
766.2000;0.7350;1.2378;
766.5000;0.7310;1.2304;
766.8000;0.7310;1.2279;
767.1000;0.7302;1.2279;
767.4000;0.7334;1.2353;
767.7000;0.7334;1.2427;
768.0000;0.7310;1.2353;
768.3000;0.7302;1.2378;
768.6000;0.7293;1.2378;
768.9000;0.7318;1.2427;
769.2000;0.7302;1.2452;
769.5000;0.7302;1.2427;
769.8000;0.7302;1.2402;
770.1000;0.7293;1.2378;
770.4000;0.7310;1.2452;
770.7000;0.7285;1.2427;
771.0000;0.7285;1.2329;
771.3000;0.7269;1.2279;
771.6000;0.7277;1.2402;
771.9000;0.7302;1.2427;
772.2000;0.7269;1.2304;
772.5000;0.7285;1.2304;
772.8000;0.7302;1.2378;
773.1000;0.7277;1.2427;
773.4000;0.7293;1.2476;
773.7000;0.7236;1.2279;
774.0000;0.7318;1.2452;
774.3000;0.7334;1.2476;
774.6000;0.7334;1.2476;
774.9000;0.7310;1.2427;
775.2000;0.7285;1.2353;
775.5000;0.7318;1.2329;
775.8000;0.7293;1.2329;
776.1000;0.7302;1.2329;
776.4000;0.7293;1.2304;
776.7000;0.7285;1.2353;
777.0000;0.7342;1.2402;
777.3000;0.7285;1.2255;
777.6000;0.7310;1.2329;
777.9000;0.7285;1.2378;
778.2000;0.7432;1.2821;
778.5000;0.7310;1.2427;
778.8000;0.7277;1.2304;
779.1000;0.7277;1.2255;
779.4000;0.7285;1.2353;
779.7000;0.7285;1.2329;
780.0000;0.7334;1.2452;
780.3000;0.7285;1.2329;
780.6000;0.7310;1.2427;
780.9000;0.7285;1.2378;
781.2000;0.7285;1.2427;
781.5000;0.7334;1.2476;
781.8000;0.7293;1.2304;
782.1000;0.7277;1.2427;
782.4000;0.7261;1.2353;
782.7000;0.7269;1.2279;
783.0000;0.7293;1.2353;
783.3000;0.7293;1.2353;
783.6000;0.7277;1.2329;
783.9000;0.7277;1.2304;
784.2000;0.7310;1.2427;
784.5000;0.7269;1.2304;
784.8000;0.7293;1.2279;
785.1000;0.7277;1.2255;
785.4000;0.7285;1.2329;
785.7000;0.7285;1.2304;
786.0000;0.7285;1.2353;
786.3000;0.7277;1.2353;
786.6000;0.7269;1.2329;
786.9000;0.7277;1.2378;
787.2000;0.7277;1.2353;
787.5000;0.7269;1.2378;
787.8000;0.7228;1.2230;
788.1000;0.7261;1.2353;
788.4000;0.7285;1.2476;
788.7000;0.7261;1.2476;
789.0000;0.7269;1.2575;
789.3000;0.7261;1.2550;
789.6000;0.7277;1.2525;
789.9000;0.7269;1.2452;
790.2000;0.7253;1.2476;
790.5000;0.7261;1.2550;
790.8000;0.7285;1.2624;
791.1000;0.7253;1.2525;
791.4000;0.7261;1.2525;
791.7000;0.7245;1.2501;
792.0000;0.7269;1.2501;
792.3000;0.7245;1.2378;
792.6000;0.7261;1.2353;
792.9000;0.7220;1.2230;
793.2000;0.7261;1.2378;
793.5000;0.7277;1.2402;
793.8000;0.7269;1.2378;
794.1000;0.7261;1.2427;
794.4000;0.7277;1.2402;
794.7000;0.7261;1.2329;
795.0000;0.7269;1.2329;
795.3000;0.7277;1.2378;
795.6000;0.7261;1.2402;
795.9000;0.7204;1.2255;
796.2000;0.7220;1.2304;
796.5000;0.7253;1.2329;
796.8000;0.7220;1.2279;
797.1000;0.7269;1.2452;
797.4000;0.7253;1.2427;
797.7000;0.7277;1.2427;
798.0000;0.7253;1.2476;
798.3000;0.7253;1.2427;
798.6000;0.7253;1.2378;
798.9000;0.7245;1.2304;
799.2000;0.7253;1.2304;
799.5000;0.7253;1.2353;
799.8000;0.7245;1.2304;
800.1000;0.7236;1.2206;
800.4000;0.7236;1.2206;
800.7000;0.7236;1.2279;
801.0000;0.7236;1.2329;
801.3000;0.7310;1.2501;
801.6000;0.7245;1.2329;
801.9000;0.7245;1.2304;
802.2000;0.7261;1.2353;
802.5000;0.7245;1.2353;
802.8000;0.7253;1.2427;
803.1000;0.7261;1.2501;
803.4000;0.7245;1.2402;
803.7000;0.7212;1.2353;
804.0000;0.7228;1.2427;
804.3000;0.7228;1.2476;
804.6000;0.7253;1.2427;
804.9000;0.7236;1.2329;
805.2000;0.7245;1.2329;
805.5000;0.7245;1.2279;
805.8000;0.7261;1.2329;
806.1000;0.7245;1.2255;
806.4000;0.7253;1.2304;
806.7000;0.7253;1.2304;
807.0000;0.7236;1.2329;
807.3000;0.7245;1.2329;
807.6000;0.7245;1.2329;
807.9000;0.7253;1.2378;
808.2000;0.7236;1.2427;
808.5000;0.7253;1.2427;
808.8000;0.7253;1.2525;
809.1000;0.7261;1.2550;
809.4000;0.7220;1.2501;
809.7000;0.7253;1.2575;
810.0000;0.7253;1.2550;
810.3000;0.7245;1.2575;
810.6000;0.7253;1.2525;
810.9000;0.7245;1.2476;
811.2000;0.7253;1.2427;
811.5000;0.7245;1.2550;
811.8000;0.7236;1.2525;
812.1000;0.7253;1.2525;
812.4000;0.7245;1.2378;
812.7000;0.7236;1.2255;
813.0000;0.7228;1.2181;
813.3000;0.7204;1.2132;
813.6000;0.7212;1.2206;
813.9000;0.7245;1.2206;
814.2000;0.7228;1.2304;
814.5000;0.7220;1.2329;
814.8000;0.7220;1.2378;
815.1000;0.7179;1.2304;
815.4000;0.7236;1.2402;
815.7000;0.7228;1.2402;
816.0000;0.7212;1.2353;
816.3000;0.7245;1.2353;
816.6000;0.7228;1.2452;
816.9000;0.7220;1.2427;
817.2000;0.7228;1.2501;
817.5000;0.7179;1.2427;
817.8000;0.7253;1.2599;
818.1000;0.7253;1.2599;
818.4000;0.7236;1.2575;
818.7000;0.7261;1.2575;
819.0000;0.7228;1.2427;
819.3000;0.7261;1.2427;
819.6000;0.7245;1.2427;
819.9000;0.7253;1.2402;
820.2000;0.7236;1.2329;
820.5000;0.7236;1.2353;
820.8000;0.7245;1.2279;
821.1000;0.7253;1.2279;
821.4000;0.7261;1.2378;
821.7000;0.7245;1.2353;
822.0000;0.7261;1.2427;
822.3000;0.7228;1.2279;
822.6000;0.7245;1.2304;
822.9000;0.7302;1.2452;
823.2000;0.7269;1.2378;
823.5000;0.7220;1.2279;
823.8000;0.7228;1.2304;
824.1000;0.7228;1.2353;
824.4000;0.7236;1.2353;
824.7000;0.7220;1.2304;
825.0000;0.7302;1.2575;
825.3000;0.7212;1.2402;
825.6000;0.7228;1.2353;
825.9000;0.7188;1.2230;
826.2000;0.7228;1.2304;
826.5000;0.7220;1.2255;
826.8000;0.7245;1.2353;
827.1000;0.7228;1.2304;
827.4000;0.7228;1.2304;
827.7000;0.7302;1.2501;
828.0000;0.7220;1.2353;
828.3000;0.7236;1.2353;
828.6000;0.7220;1.2427;
828.9000;0.7212;1.2329;
829.2000;0.7245;1.2402;
829.5000;0.7236;1.2402;
829.8000;0.7220;1.2402;
830.1000;0.7236;1.2452;
830.4000;0.7228;1.2550;
830.7000;0.7220;1.2476;
831.0000;0.7228;1.2427;
831.3000;0.7212;1.2452;
831.6000;0.7220;1.2452;
831.9000;0.7228;1.2304;
832.2000;0.7245;1.2378;
832.5000;0.7253;1.2353;
832.8000;0.7236;1.2255;
833.1000;0.7236;1.2255;
833.4000;0.7220;1.2230;
833.7000;0.7253;1.2427;
834.0000;0.7228;1.2427;
834.3000;0.7212;1.2476;
834.6000;0.7228;1.2476;
834.9000;0.7220;1.2501;
835.2000;0.7212;1.2378;
835.5000;0.7220;1.2501;
835.8000;0.7220;1.2501;
836.1000;0.7228;1.2550;
836.4000;0.7212;1.2525;
836.7000;0.7204;1.2402;
837.0000;0.7253;1.2402;
837.3000;0.7220;1.2329;
837.6000;0.7171;1.2206;
837.9000;0.7269;1.2427;
838.2000;0.7253;1.2378;
838.5000;0.7188;1.2230;
838.8000;0.7196;1.2255;
839.1000;0.7188;1.2279;
839.4000;0.7302;1.2575;
839.7000;0.7204;1.2255;
840.0000;0.7155;1.2132;
840.3000;0.7236;1.2279;
840.6000;0.7228;1.2156;
840.9000;0.7220;1.2156;
841.2000;0.7212;1.2181;
841.5000;0.7220;1.2206;
841.8000;0.7228;1.2206;
842.1000;0.7220;1.2353;
842.4000;0.7220;1.2329;
842.7000;0.7212;1.2304;
843.0000;0.7204;1.2255;
843.3000;0.7196;1.2230;
843.6000;0.7236;1.2255;
843.9000;0.7212;1.2206;
844.2000;0.7220;1.2255;
844.5000;0.7212;1.2304;
844.8000;0.7220;1.2279;
845.1000;0.7196;1.2230;
845.4000;0.7196;1.2279;
845.7000;0.7196;1.2402;
846.0000;0.7220;1.2427;
846.3000;0.7171;1.2304;
846.6000;0.7204;1.2353;
846.9000;0.7196;1.2255;
847.2000;0.7204;1.2329;
847.5000;0.7155;1.2181;
847.8000;0.7163;1.2082;
848.1000;0.7220;1.2353;
848.4000;0.7228;1.2378;
848.7000;0.7220;1.2353;
849.0000;0.7204;1.2279;
849.3000;0.7188;1.2230;
849.6000;0.7196;1.2181;
849.9000;0.7220;1.2181;
850.2000;0.7196;1.2082;
850.5000;0.7204;1.2132;
850.8000;0.7196;1.2206;
851.1000;0.7204;1.2255;
851.4000;0.7204;1.2255;
851.7000;0.7204;1.2230;
852.0000;0.7204;1.2255;
852.3000;0.7212;1.2255;
852.6000;0.7220;1.2255;
852.9000;0.7212;1.2156;
853.2000;0.7220;1.2206;
853.5000;0.7204;1.2206;
853.8000;0.7204;1.2230;
854.1000;0.7188;1.2181;
854.4000;0.7196;1.2230;
854.7000;0.7204;1.2230;
855.0000;0.7212;1.2206;
855.3000;0.7212;1.2279;
855.6000;0.7196;1.2230;
855.9000;0.7220;1.2255;
856.2000;0.7204;1.2230;
856.5000;0.7220;1.2230;
856.8000;0.7212;1.2304;
857.1000;0.7188;1.2378;
857.4000;0.7204;1.2402;
857.7000;0.7220;1.2378;
858.0000;0.7188;1.2329;
858.3000;0.7212;1.2378;
858.6000;0.7228;1.2452;
858.9000;0.7245;1.2427;
859.2000;0.7220;1.2378;
859.5000;0.7196;1.2402;
859.8000;0.7204;1.2476;
860.1000;0.7196;1.2476;
860.4000;0.7196;1.2452;
860.7000;0.7188;1.2353;
861.0000;0.7204;1.2329;
861.3000;0.7204;1.2304;
861.6000;0.7228;1.2402;
861.9000;0.7171;1.2378;
862.2000;0.7212;1.2575;
862.5000;0.7236;1.2575;
862.8000;0.7196;1.2452;
863.1000;0.7212;1.2501;
863.4000;0.7204;1.2427;
863.7000;0.7196;1.2378;
864.0000;0.7196;1.2329;
864.3000;0.7196;1.2329;
864.6000;0.7261;1.2501;
864.9000;0.7204;1.2427;
865.2000;0.7196;1.2378;
865.5000;0.7212;1.2476;
865.8000;0.7196;1.2402;
866.1000;0.7204;1.2329;
866.4000;0.7204;1.2329;
866.7000;0.7228;1.2427;
867.0000;0.7212;1.2304;
867.3000;0.7188;1.2230;
867.6000;0.7302;1.2427;
867.9000;0.7212;1.2230;
868.2000;0.7196;1.2255;
868.5000;0.7188;1.2206;
868.8000;0.7188;1.2304;
869.1000;0.7204;1.2329;
869.4000;0.7147;1.2107;
869.7000;0.7261;1.2402;
870.0000;0.7179;1.2255;
870.3000;0.7179;1.2279;
870.6000;0.7212;1.2427;
870.9000;0.7179;1.2353;
871.2000;0.7179;1.2279;
871.5000;0.7228;1.2402;
871.8000;0.7188;1.2279;
872.1000;0.7236;1.2378;
872.4000;0.7179;1.2329;
872.7000;0.7163;1.2304;
873.0000;0.7196;1.2329;
873.3000;0.7204;1.2452;
873.6000;0.7204;1.2501;
873.9000;0.7188;1.2476;
874.2000;0.7212;1.2452;
874.5000;0.7188;1.2378;
874.8000;0.7188;1.2378;
875.1000;0.7196;1.2279;
875.4000;0.7204;1.2255;
875.7000;0.7196;1.2255;
876.0000;0.7196;1.2255;
876.3000;0.7196;1.2255;
876.6000;0.7196;1.2255;
876.9000;0.7236;1.2329;
877.2000;0.7196;1.2329;
877.5000;0.7171;1.2304;
877.8000;0.7114;1.2132;
878.1000;0.7204;1.2329;
878.4000;0.7204;1.2402;
878.7000;0.7204;1.2353;
879.0000;0.7220;1.2378;
879.3000;0.7196;1.2255;
879.6000;0.7212;1.2255;
879.9000;0.7196;1.2230;
880.2000;0.7171;1.2181;
880.5000;0.7212;1.2255;
880.8000;0.7220;1.2353;
881.1000;0.7212;1.2230;
881.4000;0.7196;1.2279;
881.7000;0.7220;1.2402;
882.0000;0.7196;1.2353;
882.3000;0.7155;1.2279;
882.6000;0.7196;1.2402;
882.9000;0.7212;1.2501;
883.2000;0.7188;1.2476;
883.5000;0.7196;1.2427;
883.8000;0.7188;1.2452;
884.1000;0.7188;1.2427;
884.4000;0.7196;1.2501;
884.7000;0.7212;1.2575;
885.0000;0.7179;1.2525;
885.3000;0.7204;1.2476;
885.6000;0.7245;1.2501;
885.9000;0.7196;1.2476;
886.2000;0.7179;1.2525;
886.5000;0.7196;1.2550;
886.8000;0.7188;1.2501;
887.1000;0.7212;1.2476;
887.4000;0.7147;1.2304;
887.7000;0.7179;1.2452;
888.0000;0.7188;1.2501;
888.3000;0.7114;1.2279;
888.6000;0.7196;1.2452;
888.9000;0.7179;1.2378;
889.2000;0.7188;1.2353;
889.5000;0.7212;1.2402;
889.8000;0.7261;1.2575;
890.1000;0.7188;1.2353;
890.4000;0.7220;1.2452;
890.7000;0.7188;1.2378;
891.0000;0.7228;1.2427;
891.3000;0.7196;1.2378;
891.6000;0.7188;1.2427;
891.9000;0.7188;1.2476;
892.2000;0.7188;1.2427;
892.5000;0.7196;1.2353;
892.8000;0.7196;1.2402;
893.1000;0.7245;1.2476;
893.4000;0.7171;1.2353;
893.7000;0.7188;1.2476;
894.0000;0.7098;1.2402;
894.3000;0.7196;1.2624;
894.6000;0.7220;1.2648;
894.9000;0.7196;1.2673;
895.2000;0.7212;1.2722;
895.5000;0.7204;1.2796;
895.8000;0.7196;1.2722;
896.1000;0.7204;1.2698;
896.4000;0.7253;1.2698;
896.7000;0.7188;1.2575;
897.0000;0.7171;1.2402;
897.3000;0.7188;1.2402;
897.6000;0.7188;1.2353;
897.9000;0.7204;1.2402;
898.2000;0.7171;1.2353;
898.5000;0.7171;1.2427;
898.8000;0.7188;1.2452;
899.1000;0.7179;1.2353;
899.4000;0.7196;1.2427;
899.7000;0.7204;1.2378;
900.0000;0.7171;1.2279;
900.3000;0.7196;1.2279;
900.6000;0.7253;1.2402;
900.9000;0.7163;1.2156;
901.2000;0.7204;1.2181;
901.5000;0.7188;1.2304;
901.8000;0.7204;1.2329;
902.1000;0.7196;1.2255;
902.4000;0.7212;1.2279;
902.7000;0.7204;1.2329;
903.0000;0.7196;1.2279;
903.3000;0.7179;1.2206;
903.6000;0.7171;1.2230;
903.9000;0.7196;1.2378;
904.2000;0.7188;1.2402;
904.5000;0.7171;1.2427;
904.8000;0.7179;1.2402;
905.1000;0.7196;1.2353;
905.4000;0.7204;1.2378;
905.7000;0.7204;1.2427;
906.0000;0.7188;1.2452;
906.3000;0.7196;1.2452;
906.6000;0.7196;1.2452;
906.9000;0.7163;1.2353;
907.2000;0.7171;1.2378;
907.5000;0.7188;1.2378;
907.8000;0.7236;1.2476;
908.1000;0.7155;1.2279;
908.4000;0.7188;1.2353;
908.7000;0.7163;1.2304;
909.0000;0.7163;1.2230;
909.3000;0.7163;1.2279;
909.6000;0.7163;1.2329;
909.9000;0.7147;1.2427;
910.2000;0.7196;1.2599;
910.5000;0.7188;1.2599;
910.8000;0.7155;1.2452;
911.1000;0.7179;1.2452;
911.4000;0.7188;1.2452;
911.7000;0.7188;1.2476;
912.0000;0.7139;1.2378;
912.3000;0.7139;1.2402;
912.6000;0.7188;1.2525;
912.9000;0.7163;1.2476;
913.2000;0.7179;1.2575;
913.5000;0.7171;1.2575;
913.8000;0.7123;1.2427;
914.1000;0.7171;1.2550;
914.4000;0.7147;1.2452;
914.7000;0.7163;1.2550;
915.0000;0.7163;1.2525;
915.3000;0.7163;1.2452;
915.6000;0.7196;1.2525;
915.9000;0.7188;1.2402;
916.2000;0.7147;1.2255;
916.5000;0.7204;1.2452;
916.8000;0.7188;1.2402;
917.1000;0.7106;1.2230;
917.4000;0.7155;1.2427;
917.7000;0.7179;1.2501;
918.0000;0.7131;1.2402;
918.3000;0.7188;1.2525;
918.6000;0.7212;1.2673;
918.9000;0.7179;1.2599;
919.2000;0.7188;1.2599;
919.5000;0.7179;1.2599;
919.8000;0.7188;1.2550;
920.1000;0.7179;1.2550;
920.4000;0.7171;1.2550;
920.7000;0.7220;1.2673;
921.0000;0.7196;1.2698;
921.3000;0.7179;1.2624;
921.6000;0.7188;1.2624;
921.9000;0.7204;1.2575;
922.2000;0.7179;1.2525;
922.5000;0.7163;1.2427;
922.8000;0.7188;1.2476;
923.1000;0.7188;1.2501;
923.4000;0.7196;1.2427;
923.7000;0.7171;1.2402;
924.0000;0.7171;1.2378;
924.3000;0.7179;1.2353;
924.6000;0.7179;1.2378;
924.9000;0.7155;1.2304;
925.2000;0.7155;1.2378;
925.5000;0.7188;1.2353;
925.8000;0.7188;1.2279;
926.1000;0.7196;1.2230;
926.4000;0.7188;1.2304;
926.7000;0.7179;1.2402;
927.0000;0.7212;1.2476;
927.3000;0.7171;1.2378;
927.6000;0.7179;1.2378;
927.9000;0.7179;1.2304;
928.2000;0.7196;1.2476;
928.5000;0.7179;1.2353;
928.8000;0.7179;1.2353;
929.1000;0.7163;1.2304;
929.4000;0.7171;1.2304;
929.7000;0.7171;1.2279;
930.0000;0.7155;1.2279;
930.3000;0.7163;1.2402;
930.6000;0.7171;1.2402;
930.9000;0.7245;1.2624;
931.2000;0.7179;1.2378;
931.5000;0.7188;1.2329;
931.8000;0.7155;1.2304;
932.1000;0.7179;1.2353;
932.4000;0.7155;1.2378;
932.7000;0.7155;1.2452;
933.0000;0.7163;1.2476;
933.3000;0.7196;1.2452;
933.6000;0.7204;1.2550;
933.9000;0.7171;1.2402;
934.2000;0.7171;1.2329;
934.5000;0.7179;1.2378;
934.8000;0.7188;1.2402;
935.1000;0.7204;1.2378;
935.4000;0.7123;1.2181;
935.7000;0.7188;1.2452;
936.0000;0.7179;1.2476;
936.3000;0.7179;1.2525;
936.6000;0.7179;1.2575;
936.9000;0.7155;1.2452;
937.2000;0.7188;1.2525;
937.5000;0.7188;1.2501;
937.8000;0.7179;1.2452;
938.1000;0.7188;1.2378;
938.4000;0.7196;1.2353;
938.7000;0.7179;1.2402;
939.0000;0.7188;1.2476;
939.3000;0.7179;1.2452;
939.6000;0.7171;1.2402;
939.9000;0.7188;1.2353;
940.2000;0.7212;1.2329;
940.5000;0.7179;1.2279;
940.8000;0.7179;1.2255;
941.1000;0.7171;1.2206;
941.4000;0.7188;1.2206;
941.7000;0.7171;1.2304;
942.0000;0.7188;1.2378;
942.3000;0.7179;1.2304;
942.6000;0.7179;1.2402;
942.9000;0.7171;1.2402;
943.2000;0.7188;1.2427;
943.5000;0.7179;1.2476;
943.8000;0.7179;1.2452;
944.1000;0.7179;1.2525;
944.4000;0.7171;1.2402;
944.7000;0.7171;1.2427;
945.0000;0.7188;1.2452;
945.3000;0.7171;1.2427;
945.6000;0.7188;1.2353;
945.9000;0.7179;1.2353;
946.2000;0.7171;1.2329;
946.5000;0.7179;1.2279;
946.8000;0.7196;1.2304;
947.1000;0.7171;1.2329;
947.4000;0.7228;1.2501;
947.7000;0.7179;1.2329;
948.0000;0.7171;1.2353;
948.3000;0.7163;1.2378;
948.6000;0.7155;1.2427;
948.9000;0.7196;1.2402;
949.2000;0.7171;1.2329;
949.5000;0.7163;1.2279;
949.8000;0.7188;1.2402;
950.1000;0.7188;1.2353;
950.4000;0.7171;1.2255;
950.7000;0.7179;1.2304;
951.0000;0.7179;1.2353;
951.3000;0.7163;1.2402;
951.6000;0.7171;1.2329;
951.9000;0.7155;1.2230;
952.2000;0.7163;1.2353;
952.5000;0.7163;1.2427;
952.8000;0.7114;1.2402;
953.1000;0.7163;1.2525;
953.4000;0.7139;1.2452;
953.7000;0.7171;1.2452;
954.0000;0.7228;1.2599;
954.3000;0.7171;1.2402;
954.6000;0.7179;1.2304;
954.9000;0.7188;1.2304;
955.2000;0.7147;1.2206;
955.5000;0.7163;1.2156;
955.8000;0.7171;1.2107;
956.1000;0.7163;1.2181;
956.4000;0.7139;1.2156;
956.7000;0.7163;1.2181;
957.0000;0.7163;1.2206;
957.3000;0.7131;1.2181;
957.6000;0.7179;1.2255;
957.9000;0.7204;1.2304;
958.2000;0.7204;1.2304;
958.5000;0.7171;1.2255;
958.8000;0.7163;1.2230;
959.1000;0.7171;1.2230;
959.4000;0.7163;1.2156;
959.7000;0.7163;1.2107;
960.0000;0.7155;1.2058;
960.3000;0.7179;1.2107;
960.6000;0.7163;1.2181;
960.9000;0.7147;1.2132;
961.2000;0.7179;1.2230;
961.5000;0.7171;1.2206;
961.8000;0.7179;1.2156;
962.1000;0.7147;1.2156;
962.4000;0.7123;1.2009;
962.7000;0.7171;1.2082;
963.0000;0.7171;1.2058;
963.3000;0.7163;1.2058;
963.6000;0.7163;1.1984;
963.9000;0.7139;1.1886;
964.2000;0.7188;1.2009;
964.5000;0.7163;1.1959;
964.8000;0.7155;1.1959;
965.1000;0.7171;1.2009;
965.4000;0.7196;1.2082;
965.7000;0.7196;1.2033;
966.0000;0.7171;1.1984;
966.3000;0.7179;1.2058;
966.6000;0.7179;1.1984;
966.9000;0.7171;1.2009;
967.2000;0.7171;1.2082;
967.5000;0.7155;1.2132;
967.8000;0.7171;1.2255;
968.1000;0.7179;1.2255;
968.4000;0.7212;1.2353;
968.7000;0.7171;1.2255;
969.0000;0.7171;1.2206;
969.3000;0.7163;1.2230;
969.6000;0.7179;1.2230;
969.9000;0.7171;1.2181;
970.2000;0.7179;1.2304;
970.5000;0.7171;1.2230;
970.8000;0.7179;1.2279;
971.1000;0.7171;1.2230;
971.4000;0.7179;1.2181;
971.7000;0.7155;1.2230;
972.0000;0.7163;1.2206;
972.3000;0.7171;1.2156;
972.6000;0.7179;1.2156;
972.9000;0.7155;1.2107;
973.2000;0.7179;1.2206;
973.5000;0.7188;1.2181;
973.8000;0.7179;1.2156;
974.1000;0.7171;1.2082;
974.4000;0.7188;1.2107;
974.7000;0.7163;1.2082;
975.0000;0.7220;1.2206;
975.3000;0.7171;1.2181;
975.6000;0.7155;1.2107;
975.9000;0.7155;1.2009;
976.2000;0.7188;1.2082;
976.5000;0.7179;1.2132;
976.8000;0.7188;1.2132;
977.1000;0.7179;1.2181;
977.4000;0.7155;1.2107;
977.7000;0.7171;1.2132;
978.0000;0.7155;1.2132;
978.3000;0.7204;1.2329;
978.6000;0.7163;1.2279;
978.9000;0.7179;1.2378;
979.2000;0.7163;1.2279;
979.5000;0.7171;1.2304;
979.8000;0.7163;1.2230;
980.1000;0.7139;1.2279;
980.4000;0.7163;1.2378;
980.7000;0.7179;1.2402;
981.0000;0.7236;1.2550;
981.3000;0.7171;1.2427;
981.6000;0.7163;1.2353;
981.9000;0.7147;1.2279;
982.2000;0.7163;1.2329;
982.5000;0.7163;1.2353;
982.8000;0.7155;1.2255;
983.1000;0.7147;1.2279;
983.4000;0.7179;1.2329;
983.7000;0.7131;1.2230;
984.0000;0.7163;1.2279;
984.3000;0.7171;1.2353;
984.6000;0.7188;1.2353;
984.9000;0.7171;1.2329;
985.2000;0.7114;1.2255;
985.5000;0.7163;1.2329;
985.8000;0.7163;1.2206;
986.1000;0.7163;1.2304;
986.4000;0.7163;1.2279;
986.7000;0.7163;1.2255;
987.0000;0.7155;1.2206;
987.3000;0.7228;1.2476;
987.6000;0.7155;1.2304;
987.9000;0.7171;1.2279;
988.2000;0.7196;1.2452;
988.5000;0.7163;1.2329;
988.8000;0.7147;1.2353;
989.1000;0.7171;1.2378;
989.4000;0.7171;1.2304;
989.7000;0.7179;1.2279;
990.0000;0.7212;1.2353;
990.3000;0.7171;1.2206;
990.6000;0.7147;1.2181;
990.9000;0.7155;1.2304;
991.2000;0.7188;1.2378;
991.5000;0.7163;1.2427;
991.8000;0.7220;1.2599;
992.1000;0.7171;1.2476;
992.4000;0.7155;1.2501;
992.7000;0.7139;1.2452;
993.0000;0.7155;1.2427;
993.3000;0.7155;1.2427;
993.6000;0.7163;1.2427;
993.9000;0.7123;1.2402;
994.2000;0.7082;1.2329;
994.5000;0.7171;1.2550;
994.8000;0.7171;1.2575;
995.1000;0.7155;1.2550;
995.4000;0.7171;1.2550;
995.7000;0.7171;1.2599;
996.0000;0.7171;1.2648;
996.3000;0.7188;1.2624;
996.6000;0.7179;1.2599;
996.9000;0.7171;1.2575;
997.2000;0.7179;1.2599;
997.5000;0.7163;1.2599;
997.8000;0.7171;1.2599;
998.1000;0.7163;1.2673;
998.4000;0.7147;1.2525;
998.7000;0.7163;1.2550;
999.0000;0.7147;1.2525;
999.3000;0.7212;1.2550;
999.6000;0.7171;1.2452;
999.9000;0.7131;1.2378;
1000.2000;0.7179;1.2501;
1000.5000;0.7171;1.2476;
1000.8000;0.7155;1.2402;
1001.1000;0.7171;1.2427;
1001.4000;0.7171;1.2378;
1001.7000;0.7204;1.2452;
1002.0000;0.7171;1.2353;
1002.3000;0.7155;1.2353;
1002.6000;0.7171;1.2378;
1002.9000;0.7204;1.2501;
1003.2000;0.7163;1.2427;
1003.5000;0.7123;1.2378;
1003.8000;0.7171;1.2452;
1004.1000;0.7106;1.2230;
1004.4000;0.7131;1.2353;
1004.7000;0.7147;1.2427;
1005.0000;0.7179;1.2501;
1005.3000;0.7139;1.2353;
1005.6000;0.7163;1.2378;
1005.9000;0.7196;1.2378;
1006.2000;0.7179;1.2304;
1006.5000;0.7163;1.2304;
1006.8000;0.7163;1.2378;
1007.1000;0.7171;1.2329;
1007.4000;0.7155;1.2279;
1007.7000;0.7171;1.2353;
1008.0000;0.7163;1.2329;
1008.3000;0.7155;1.2378;
1008.6000;0.7155;1.2402;
1008.9000;0.7155;1.2427;
1009.2000;0.7147;1.2452;
1009.5000;0.7155;1.2427;
1009.8000;0.7163;1.2452;
1010.1000;0.7179;1.2550;
1010.4000;0.7171;1.2624;
1010.7000;0.7163;1.2624;
1011.0000;0.7212;1.2722;
1011.3000;0.7106;1.2452;
1011.6000;0.7163;1.2575;
1011.9000;0.7171;1.2624;
1012.2000;0.7155;1.2599;
1012.5000;0.7147;1.2575;
1012.8000;0.7179;1.2599;
1013.1000;0.7163;1.2525;
1013.4000;0.7147;1.2550;
1013.7000;0.7139;1.2525;
1014.0000;0.7188;1.2673;
1014.3000;0.7171;1.2575;
1014.6000;0.7147;1.2476;
1014.9000;0.7131;1.2402;
1015.2000;0.7147;1.2427;
1015.5000;0.7179;1.2501;
1015.8000;0.7188;1.2452;
1016.1000;0.7171;1.2427;
1016.4000;0.7147;1.2501;
1016.7000;0.7163;1.2525;
1017.0000;0.7155;1.2476;
1017.3000;0.7171;1.2525;
1017.6000;0.7171;1.2550;
1017.9000;0.7163;1.2550;
1018.2000;0.7171;1.2501;
1018.5000;0.7171;1.2427;
1018.8000;0.7188;1.2427;
1019.1000;0.7163;1.2452;
1019.4000;0.7163;1.2452;
1019.7000;0.7163;1.2402;
1020.0000;0.7155;1.2329;
1020.3000;0.7163;1.2353;
1020.6000;0.7179;1.2353;
1020.9000;0.7179;1.2452;
1021.2000;0.7179;1.2402;
1021.5000;0.7188;1.2402;
1021.8000;0.7196;1.2353;
1022.1000;0.7171;1.2304;
1022.4000;0.7179;1.2304;
1022.7000;0.7155;1.2279;
1023.0000;0.7163;1.2329;
1023.3000;0.7171;1.2304;
1023.6000;0.7179;1.2279;
1023.9000;0.7066;1.2082;
1024.2000;0.7163;1.2304;
1024.5000;0.7155;1.2304;
1024.8000;0.7163;1.2378;
1025.1000;0.7155;1.2255;
1025.4000;0.7204;1.2304;
1025.7000;0.7131;1.2156;
1026.0000;0.7139;1.2082;
1026.3000;0.7196;1.2279;
1026.6000;0.7098;1.2058;
1026.9000;0.7139;1.2156;
1027.2000;0.7155;1.2181;
1027.5000;0.7147;1.2132;
1027.8000;0.7155;1.2107;
1028.1000;0.7188;1.2181;
1028.4000;0.7155;1.2107;
1028.7000;0.7171;1.2255;
1029.0000;0.7155;1.2255;
1029.3000;0.7179;1.2304;
1029.6000;0.7196;1.2329;
1029.9000;0.7163;1.2230;
1030.2000;0.7171;1.2181;
1030.5000;0.7114;1.2107;
1030.8000;0.7123;1.2107;
1031.1000;0.7179;1.2353;
1031.4000;0.7179;1.2304;
1031.7000;0.7163;1.2329;
1032.0000;0.7171;1.2279;
1032.3000;0.7139;1.2206;
1032.6000;0.7163;1.2230;
1032.9000;0.7155;1.2255;
1033.2000;0.7179;1.2206;
1033.5000;0.7163;1.2156;
1033.8000;0.7155;1.2107;
1034.1000;0.7155;1.2206;
1034.4000;0.7147;1.2156;
1034.7000;0.7147;1.2181;
1035.0000;0.7155;1.2132;
1035.3000;0.7155;1.2132;
1035.6000;0.7139;1.2181;
1035.9000;0.7131;1.2181;
1036.2000;0.7171;1.2279;
1036.5000;0.7147;1.2230;
1036.8000;0.7171;1.2279;
1037.1000;0.7155;1.2304;
1037.4000;0.7155;1.2304;
1037.7000;0.7155;1.2378;
1038.0000;0.7163;1.2402;
1038.3000;0.7163;1.2525;
1038.6000;0.7147;1.2452;
1038.9000;0.7163;1.2525;
1039.2000;0.7163;1.2525;
1039.5000;0.7179;1.2476;
1039.8000;0.7155;1.2452;
1040.1000;0.7147;1.2378;
1040.4000;0.7131;1.2255;
1040.7000;0.7196;1.2402;
1041.0000;0.7204;1.2452;
1041.3000;0.7155;1.2378;
1041.6000;0.7163;1.2304;
1041.9000;0.7155;1.2353;
1042.2000;0.7106;1.2230;
1042.5000;0.7123;1.2304;
1042.8000;0.7147;1.2304;
1043.1000;0.7220;1.2427;
1043.4000;0.7163;1.2329;
1043.7000;0.7171;1.2353;
1044.0000;0.7163;1.2353;
1044.3000;0.7163;1.2402;
1044.6000;0.7163;1.2329;
1044.9000;0.7163;1.2279;
1045.2000;0.7171;1.2329;
1045.5000;0.7147;1.2279;
1045.8000;0.7147;1.2230;
1046.1000;0.7147;1.2255;
1046.4000;0.7155;1.2353;
1046.7000;0.7139;1.2279;
1047.0000;0.7147;1.2353;
1047.3000;0.7131;1.2329;
1047.6000;0.7147;1.2353;
1047.9000;0.7139;1.2329;
1048.2000;0.7155;1.2329;
1048.5000;0.7139;1.2230;
1048.8000;0.7163;1.2329;
1049.1000;0.7196;1.2329;
1049.4000;0.7147;1.2181;
1049.7000;0.7155;1.2132;
1050.0000;0.7163;1.2156;
1050.3000;0.7155;1.2353;
1050.6000;0.7106;1.2181;
1050.9000;0.7147;1.2255;
1051.2000;0.7131;1.2255;
1051.5000;0.7261;1.2550;
1051.8000;0.7171;1.2255;
1052.1000;0.7245;1.2452;
1052.4000;0.7155;1.2181;
1052.7000;0.7147;1.2156;
1053.0000;0.7147;1.2230;
1053.3000;0.7155;1.2156;
1053.6000;0.7114;1.2082;
1053.9000;0.7147;1.2206;
1054.2000;0.7171;1.2279;
1054.5000;0.7196;1.2279;
1054.8000;0.7163;1.2279;
1055.1000;0.7171;1.2230;
1055.4000;0.7196;1.2279;
1055.7000;0.7155;1.2181;
1056.0000;0.7155;1.2181;
1056.3000;0.7147;1.2206;
1056.6000;0.7163;1.2230;
1056.9000;0.7155;1.2279;
1057.2000;0.7123;1.2206;
1057.5000;0.7147;1.2304;
1057.8000;0.7163;1.2353;
1058.1000;0.7155;1.2427;
1058.4000;0.7147;1.2427;
1058.7000;0.7155;1.2525;
1059.0000;0.7171;1.2525;
1059.3000;0.7155;1.2427;
1059.6000;0.7163;1.2476;
1059.9000;0.7147;1.2427;
1060.2000;0.7163;1.2427;
1060.5000;0.7155;1.2452;
1060.8000;0.7147;1.2452;
1061.1000;0.7163;1.2525;
1061.4000;0.7163;1.2501;
1061.7000;0.7147;1.2452;
1062.0000;0.7204;1.2624;
1062.3000;0.7171;1.2427;
1062.6000;0.7139;1.2353;
1062.9000;0.7171;1.2427;
1063.2000;0.7220;1.2501;
1063.5000;0.7147;1.2353;
1063.8000;0.7163;1.2378;
1064.1000;0.7163;1.2402;
1064.4000;0.7163;1.2353;
1064.7000;0.7163;1.2378;
1065.0000;0.7123;1.2304;
1065.3000;0.7131;1.2378;
1065.6000;0.7163;1.2427;
1065.9000;0.7245;1.2624;
1066.2000;0.7123;1.2329;
1066.5000;0.7155;1.2452;
1066.8000;0.7155;1.2476;
1067.1000;0.7098;1.2353;
1067.4000;0.7139;1.2501;
1067.7000;0.7196;1.2648;
1068.0000;0.7155;1.2575;
1068.3000;0.7147;1.2501;
1068.6000;0.7147;1.2378;
1068.9000;0.7171;1.2378;
1069.2000;0.7163;1.2378;
1069.5000;0.7163;1.2452;
1069.8000;0.7155;1.2427;
1070.1000;0.7155;1.2402;
1070.4000;0.7147;1.2452;
1070.7000;0.7155;1.2476;
1071.0000;0.7163;1.2402;
1071.3000;0.7188;1.2550;
1071.6000;0.7147;1.2501;
1071.9000;0.7155;1.2501;
1072.2000;0.7139;1.2476;
1072.5000;0.7171;1.2624;
1072.8000;0.7131;1.2575;
1073.1000;0.7131;1.2599;
1073.4000;0.7155;1.2673;
1073.7000;0.7139;1.2550;
1074.0000;0.7131;1.2624;
1074.3000;0.7204;1.2796;
1074.6000;0.7171;1.2673;
1074.9000;0.7123;1.2427;
1075.2000;0.7147;1.2476;
1075.5000;0.7131;1.2427;
1075.8000;0.7139;1.2501;
1076.1000;0.7171;1.2550;
1076.4000;0.7155;1.2525;
1076.7000;0.7131;1.2378;
1077.0000;0.7147;1.2378;
1077.3000;0.7163;1.2501;
1077.6000;0.7131;1.2402;
1077.9000;0.7139;1.2378;
1078.2000;0.7139;1.2378;
1078.5000;0.7147;1.2427;
1078.8000;0.7147;1.2353;
1079.1000;0.7139;1.2353;
1079.4000;0.7179;1.2402;
1079.7000;0.7147;1.2452;
1080.0000;0.7155;1.2378;
1080.3000;0.7147;1.2378;
1080.6000;0.7147;1.2452;
1080.9000;0.7139;1.2402;
1081.2000;0.7131;1.2329;
1081.5000;0.7147;1.2378;
1081.8000;0.7131;1.2427;
1082.1000;0.7147;1.2501;
1082.4000;0.7155;1.2378;
1082.7000;0.7155;1.2402;
1083.0000;0.7147;1.2452;
1083.3000;0.7228;1.2796;
1083.6000;0.7090;1.2427;
1083.9000;0.7147;1.2624;
1084.2000;0.7147;1.2525;
1084.5000;0.7163;1.2550;
1084.8000;0.7155;1.2402;
1085.1000;0.7139;1.2378;
1085.4000;0.7163;1.2329;
1085.7000;0.7114;1.2132;
1086.0000;0.7090;1.2009;
1086.3000;0.7131;1.2156;
1086.6000;0.7131;1.2132;
1086.9000;0.7147;1.2206;
1087.2000;0.7114;1.2107;
1087.5000;0.7131;1.2181;
1087.8000;0.7163;1.2181;
1088.1000;0.7139;1.2132;
1088.4000;0.7163;1.2206;
1088.7000;0.7171;1.2206;
1089.0000;0.7106;1.2058;
1089.3000;0.7139;1.2132;
1089.6000;0.7139;1.2107;
1089.9000;0.7147;1.2058;
1090.2000;0.7188;1.2230;
1090.5000;0.7147;1.2132;
1090.8000;0.7147;1.2156;
1091.1000;0.7139;1.2132;
1091.4000;0.7179;1.2255;
1091.7000;0.7139;1.2230;
1092.0000;0.7098;1.2132;
1092.3000;0.7155;1.2279;
1092.6000;0.7171;1.2329;
1092.9000;0.7147;1.2230;
1093.2000;0.7171;1.2279;
1093.5000;0.7163;1.2279;
1093.8000;0.7163;1.2329;
1094.1000;0.7139;1.2230;
1094.4000;0.7155;1.2255;
1094.7000;0.7155;1.2304;
1095.0000;0.7147;1.2427;
1095.3000;0.7131;1.2378;
1095.6000;0.7131;1.2353;
1095.9000;0.7147;1.2378;
1096.2000;0.7163;1.2427;
1096.5000;0.7147;1.2427;
1096.8000;0.7066;1.2206;
1097.1000;0.7147;1.2378;
1097.4000;0.7171;1.2476;
1097.7000;0.7147;1.2427;
1098.0000;0.7155;1.2501;
1098.3000;0.7171;1.2476;
1098.6000;0.7147;1.2329;
1098.9000;0.7163;1.2402;
1099.2000;0.7114;1.2255;
1099.5000;0.7139;1.2255;
1099.8000;0.7123;1.2206;
1100.1000;0.7155;1.2255;
1100.4000;0.7131;1.2279;
1100.7000;0.7228;1.2525;
1101.0000;0.7147;1.2304;
1101.3000;0.7155;1.2329;
1101.6000;0.7171;1.2353;
1101.9000;0.7147;1.2304;
1102.2000;0.7139;1.2304;
1102.5000;0.7139;1.2279;
1102.8000;0.7171;1.2353;
1103.1000;0.7155;1.2402;
1103.4000;0.7139;1.2402;
1103.7000;0.7139;1.2402;
1104.0000;0.7147;1.2378;
1104.3000;0.7114;1.2378;
1104.6000;0.7163;1.2476;
1104.9000;0.7163;1.2402;
1105.2000;0.7147;1.2378;
1105.5000;0.7147;1.2353;
1105.8000;0.7139;1.2353;
1106.1000;0.7163;1.2353;
1106.4000;0.7155;1.2329;
1106.7000;0.7155;1.2304;
1107.0000;0.7171;1.2378;
1107.3000;0.7155;1.2378;
1107.6000;0.7139;1.2452;
1107.9000;0.7147;1.2427;
1108.2000;0.7155;1.2402;
1108.5000;0.7163;1.2501;
1108.8000;0.7147;1.2427;
1109.1000;0.7155;1.2427;
1109.4000;0.7139;1.2304;
1109.7000;0.7147;1.2353;
1110.0000;0.7147;1.2353;
1110.3000;0.7139;1.2476;
1110.6000;0.7123;1.2452;
1110.9000;0.7139;1.2427;
1111.2000;0.7147;1.2427;
1111.5000;0.7139;1.2427;
1111.8000;0.7179;1.2452;
1112.1000;0.7155;1.2402;
1112.4000;0.7139;1.2378;
1112.7000;0.7147;1.2452;
1113.0000;0.7147;1.2427;
1113.3000;0.7163;1.2476;
1113.6000;0.7155;1.2353;
1113.9000;0.7171;1.2452;
1114.2000;0.7163;1.2427;
1114.5000;0.7155;1.2402;
1114.8000;0.7155;1.2402;
1115.1000;0.7139;1.2230;
1115.4000;0.7196;1.2353;
1115.7000;0.7131;1.2329;
1116.0000;0.7155;1.2329;
1116.3000;0.7147;1.2279;
1116.6000;0.7147;1.2255;
1116.9000;0.7139;1.2329;
1117.2000;0.7139;1.2402;
1117.5000;0.7147;1.2452;
1117.8000;0.7147;1.2501;
1118.1000;0.7163;1.2452;
1118.4000;0.7163;1.2427;
1118.7000;0.7147;1.2402;
1119.0000;0.7188;1.2452;
1119.3000;0.7139;1.2304;
1119.6000;0.7155;1.2353;
1119.9000;0.7163;1.2230;
1120.2000;0.7131;1.2132;
1120.5000;0.7131;1.2255;
1120.8000;0.7139;1.2304;
1121.1000;0.7155;1.2255;
1121.4000;0.7139;1.2132;
1121.7000;0.7212;1.2378;
1122.0000;0.7155;1.2255;
1122.3000;0.7139;1.2378;
1122.6000;0.7147;1.2329;
1122.9000;0.7139;1.2279;
1123.2000;0.7131;1.2304;
1123.5000;0.7147;1.2476;
1123.8000;0.7131;1.2501;
1124.1000;0.7123;1.2525;
1124.4000;0.7123;1.2525;
1124.7000;0.7139;1.2501;
1125.0000;0.7155;1.2575;
1125.3000;0.7123;1.2452;
1125.6000;0.7147;1.2501;
1125.9000;0.7155;1.2525;
1126.2000;0.7196;1.2599;
1126.5000;0.7131;1.2427;
1126.8000;0.7147;1.2452;
1127.1000;0.7147;1.2402;
1127.4000;0.7171;1.2476;
1127.7000;0.7139;1.2427;
1128.0000;0.7123;1.2452;
1128.3000;0.7147;1.2476;
1128.6000;0.7123;1.2452;
1128.9000;0.7123;1.2501;
1129.2000;0.7131;1.2501;
1129.5000;0.7163;1.2550;
1129.8000;0.7131;1.2402;
1130.1000;0.7139;1.2452;
1130.4000;0.7204;1.2599;
1130.7000;0.7139;1.2378;
1131.0000;0.7106;1.2279;
1131.3000;0.7131;1.2329;
1131.6000;0.7131;1.2329;
1131.9000;0.7212;1.2599;
1132.2000;0.7155;1.2427;
1132.5000;0.7147;1.2378;
1132.8000;0.7155;1.2452;
1133.1000;0.7131;1.2402;
1133.4000;0.7155;1.2476;
1133.7000;0.7147;1.2501;
1134.0000;0.7171;1.2575;
1134.3000;0.7147;1.2550;
1134.6000;0.7139;1.2550;
1134.9000;0.7147;1.2476;
1135.2000;0.7057;1.2279;
1135.5000;0.7139;1.2476;
1135.8000;0.7155;1.2624;
1136.1000;0.7163;1.2673;
1136.4000;0.7123;1.2575;
1136.7000;0.7155;1.2648;
1137.0000;0.7114;1.2550;
1137.3000;0.7163;1.2698;
1137.6000;0.7147;1.2722;
1137.9000;0.7163;1.2747;
1138.2000;0.7114;1.2476;
1138.5000;0.7147;1.2476;
1138.8000;0.7155;1.2427;
1139.1000;0.7155;1.2402;
1139.4000;0.7147;1.2304;
1139.7000;0.7277;1.2575;
1140.0000;0.7179;1.2304;
1140.3000;0.7155;1.2279;
1140.6000;0.7155;1.2329;
1140.9000;0.7106;1.2255;
1141.2000;0.7131;1.2304;
1141.5000;0.7196;1.2501;
1141.8000;0.7114;1.2206;
1142.1000;0.7188;1.2427;
1142.4000;0.7139;1.2329;
1142.7000;0.7139;1.2230;
1143.0000;0.7106;1.2206;
1143.3000;0.7123;1.2181;
1143.6000;0.7131;1.2230;
1143.9000;0.7098;1.2206;
1144.2000;0.7139;1.2255;
1144.5000;0.7188;1.2353;
1144.8000;0.7114;1.2181;
1145.1000;0.7066;1.2033;
1145.4000;0.7090;1.2009;
1145.7000;0.7123;1.2132;
1146.0000;0.7179;1.2329;
1146.3000;0.7147;1.2304;
1146.6000;0.7147;1.2378;
1146.9000;0.7106;1.2304;
1147.2000;0.7139;1.2378;
1147.5000;0.7163;1.2452;
1147.8000;0.7139;1.2378;
1148.1000;0.7123;1.2279;
1148.4000;0.7147;1.2329;
1148.7000;0.7139;1.2378;
1149.0000;0.7147;1.2476;
1149.3000;0.7131;1.2476;
1149.6000;0.7131;1.2501;
1149.9000;0.7131;1.2501;
1150.2000;0.7188;1.2575;
1150.5000;0.7131;1.2452;
1150.8000;0.7139;1.2452;
1151.1000;0.7131;1.2427;
1151.4000;0.7139;1.2476;
1151.7000;0.7163;1.2452;
1152.0000;0.7147;1.2402;
1152.3000;0.7139;1.2402;
1152.6000;0.7155;1.2452;
1152.9000;0.7139;1.2452;
1153.2000;0.7123;1.2501;
1153.5000;0.7147;1.2599;
1153.8000;0.7147;1.2698;
1154.1000;0.7131;1.2648;
1154.4000;0.7139;1.2624;
1154.7000;0.7131;1.2599;
1155.0000;0.7131;1.2501;
1155.3000;0.7131;1.2452;
1155.6000;0.7147;1.2575;
1155.9000;0.7131;1.2599;
1156.2000;0.7139;1.2673;
1156.5000;0.7155;1.2698;
1156.8000;0.7155;1.2722;
1157.1000;0.7123;1.2624;
1157.4000;0.7139;1.2698;
1157.7000;0.7131;1.2698;
1158.0000;0.7090;1.2476;
1158.3000;0.7155;1.2673;
1158.6000;0.7090;1.2452;
1158.9000;0.7082;1.2476;
1159.2000;0.7163;1.2575;
1159.5000;0.7155;1.2698;
1159.8000;0.7155;1.2673;
1160.1000;0.7155;1.2747;
1160.4000;0.7114;1.2599;
1160.7000;0.7139;1.2550;
1161.0000;0.7188;1.2722;
1161.3000;0.7123;1.2476;
1161.6000;0.7188;1.2648;
1161.9000;0.7147;1.2599;
1162.2000;0.7123;1.2525;
1162.5000;0.7147;1.2427;
1162.8000;0.7163;1.2402;
1163.1000;0.7147;1.2427;
1163.4000;0.7139;1.2476;
1163.7000;0.7163;1.2476;
1164.0000;0.7204;1.2525;
1164.3000;0.7155;1.2452;
1164.6000;0.7155;1.2378;
1164.9000;0.7155;1.2353;
1165.2000;0.7155;1.2402;
1165.5000;0.7147;1.2378;
1165.8000;0.7188;1.2476;
1166.1000;0.7212;1.2550;
1166.4000;0.7090;1.2304;
1166.7000;0.7123;1.2427;
1167.0000;0.7139;1.2452;
1167.3000;0.7114;1.2378;
1167.6000;0.7163;1.2427;
1167.9000;0.7147;1.2427;
1168.2000;0.7155;1.2452;
1168.5000;0.7139;1.2476;
1168.8000;0.7155;1.2575;
1169.1000;0.7147;1.2575;
1169.4000;0.7163;1.2624;
1169.7000;0.7139;1.2452;
1170.0000;0.7147;1.2402;
1170.3000;0.7123;1.2476;
1170.6000;0.7147;1.2452;
1170.9000;0.7155;1.2402;
1171.2000;0.7155;1.2304;
1171.5000;0.7147;1.2304;
1171.8000;0.7147;1.2353;
1172.1000;0.7123;1.2279;
1172.4000;0.7123;1.2230;
1172.7000;0.7131;1.2304;
1173.0000;0.7155;1.2378;
1173.3000;0.7155;1.2378;
1173.6000;0.7131;1.2402;
1173.9000;0.7139;1.2452;
1174.2000;0.7114;1.2378;
1174.5000;0.7147;1.2427;
1174.8000;0.7131;1.2452;
1175.1000;0.7147;1.2427;
1175.4000;0.7123;1.2402;
1175.7000;0.7147;1.2525;
1176.0000;0.7163;1.2501;
1176.3000;0.7057;1.2230;
1176.6000;0.7131;1.2402;
1176.9000;0.7106;1.2378;
1177.2000;0.7155;1.2476;
1177.5000;0.7139;1.2402;
1177.8000;0.7155;1.2452;
1178.1000;0.7123;1.2304;
1178.4000;0.7123;1.2304;
1178.7000;0.7131;1.2329;
1179.0000;0.7114;1.2329;
1179.3000;0.7147;1.2402;
1179.6000;0.7123;1.2353;
1179.9000;0.7131;1.2329;
1180.2000;0.7139;1.2427;
1180.5000;0.7123;1.2329;
1180.8000;0.7082;1.2230;
1181.1000;0.7155;1.2452;
1181.4000;0.7147;1.2378;
1181.7000;0.7139;1.2378;
1182.0000;0.7114;1.2353;
1182.3000;0.7155;1.2427;
1182.6000;0.7123;1.2279;
1182.9000;0.7179;1.2452;
1183.2000;0.7131;1.2353;
1183.5000;0.7131;1.2304;
1183.8000;0.7066;1.2107;
1184.1000;0.7123;1.2206;
1184.4000;0.7131;1.2206;
1184.7000;0.7131;1.2255;
1185.0000;0.7139;1.2304;
1185.3000;0.7131;1.2353;
1185.6000;0.7131;1.2353;
1185.9000;0.7131;1.2304;
1186.2000;0.7147;1.2304;
1186.5000;0.7139;1.2279;
1186.8000;0.7131;1.2329;
1187.1000;0.7155;1.2378;
1187.4000;0.7131;1.2304;
1187.7000;0.7114;1.2230;
1188.0000;0.7131;1.2206;
1188.3000;0.7139;1.2279;
1188.6000;0.7155;1.2378;
1188.9000;0.7123;1.2255;
1189.2000;0.7139;1.2255;
1189.5000;0.7123;1.2181;
1189.8000;0.7139;1.2402;
1190.1000;0.7131;1.2427;
1190.4000;0.7139;1.2402;
1190.7000;0.7131;1.2378;
1191.0000;0.7139;1.2378;
1191.3000;0.7147;1.2378;
1191.6000;0.7163;1.2402;
1191.9000;0.7155;1.2378;
1192.2000;0.7147;1.2353;
1192.5000;0.7139;1.2230;
1192.8000;0.7155;1.2279;
1193.1000;0.7131;1.2206;
1193.4000;0.7098;1.2107;
1193.7000;0.7196;1.2452;
1194.0000;0.7139;1.2329;
1194.3000;0.7131;1.2304;
1194.6000;0.7139;1.2378;
1194.9000;0.7139;1.2378;
1195.2000;0.7123;1.2378;
1195.5000;0.7155;1.2353;
1195.8000;0.7147;1.2329;
1196.1000;0.7131;1.2304;
1196.4000;0.7147;1.2255;
1196.7000;0.7114;1.2279;
1197.0000;0.7155;1.2329;
1197.3000;0.7147;1.2353;
1197.6000;0.7131;1.2329;
1197.9000;0.7155;1.2378;
1198.2000;0.7147;1.2402;
1198.5000;0.7139;1.2452;
1198.8000;0.7139;1.2525;
1199.1000;0.7147;1.2550;
1199.4000;0.7131;1.2525;
1199.7000;0.7123;1.2525;
1200.0000;0.7139;1.2550;
1200.3000;0.7098;1.2402;
1200.6000;0.7196;1.2575;
1200.9000;0.7131;1.2452;
1201.2000;0.7123;1.2452;
1201.5000;0.7123;1.2599;
1201.8000;0.7139;1.2575;
1202.1000;0.7106;1.2452;
1202.4000;0.7139;1.2575;
1202.7000;0.7155;1.2648;
1203.0000;0.7179;1.2722;
1203.3000;0.7123;1.2599;
1203.6000;0.7155;1.2599;
1203.9000;0.7131;1.2427;
1204.2000;0.7123;1.2353;
1204.5000;0.7147;1.2402;
1204.8000;0.7131;1.2402;
1205.1000;0.7139;1.2452;
1205.4000;0.7147;1.2525;
1205.7000;0.7147;1.2624;
1206.0000;0.7139;1.2599;
1206.3000;0.7139;1.2599;
1206.6000;0.7123;1.2624;
1206.9000;0.7139;1.2550;
1207.2000;0.7155;1.2476;
1207.5000;0.7147;1.2525;
1207.8000;0.7147;1.2550;
1208.1000;0.7147;1.2501;
1208.4000;0.7139;1.2476;
1208.7000;0.7147;1.2525;
1209.0000;0.7147;1.2501;
1209.3000;0.7179;1.2599;
1209.6000;0.7139;1.2550;
1209.9000;0.7106;1.2501;
1210.2000;0.7147;1.2525;
1210.5000;0.7131;1.2525;
1210.8000;0.7131;1.2501;
1211.1000;0.7155;1.2550;
1211.4000;0.7139;1.2525;
1211.7000;0.7131;1.2402;
1212.0000;0.7163;1.2452;
1212.3000;0.7147;1.2378;
1212.6000;0.7139;1.2353;
1212.9000;0.7147;1.2353;
1213.2000;0.7139;1.2304;
1213.5000;0.7147;1.2230;
1213.8000;0.7155;1.2329;
1214.1000;0.7114;1.2304;
1214.4000;0.7139;1.2329;
1214.7000;0.7131;1.2279;
1215.0000;0.7139;1.2329;
1215.3000;0.7123;1.2353;
1215.6000;0.7131;1.2279;
1215.9000;0.7131;1.2279;
1216.2000;0.7147;1.2206;
1216.5000;0.7139;1.2107;
1216.8000;0.7131;1.2107;
1217.1000;0.7179;1.2206;
1217.4000;0.7139;1.2156;
1217.7000;0.7139;1.2082;
1218.0000;0.7139;1.2107;
1218.3000;0.7139;1.2156;
1218.6000;0.7147;1.2255;
1218.9000;0.7139;1.2132;
1219.2000;0.7114;1.2058;
1219.5000;0.7131;1.2107;
1219.8000;0.7139;1.2181;
1220.1000;0.7155;1.2255;
1220.4000;0.7123;1.2279;
1220.7000;0.7139;1.2353;
1221.0000;0.7131;1.2402;
1221.3000;0.7179;1.2525;
1221.6000;0.7131;1.2501;
1221.9000;0.7131;1.2452;
1222.2000;0.7147;1.2476;
1222.5000;0.7131;1.2501;
1222.8000;0.7147;1.2525;
1223.1000;0.7131;1.2501;
1223.4000;0.7155;1.2525;
1223.7000;0.7131;1.2525;
1224.0000;0.7123;1.2525;
1224.3000;0.7123;1.2501;
1224.6000;0.7139;1.2550;
1224.9000;0.7098;1.2452;
1225.2000;0.7123;1.2452;
1225.5000;0.7106;1.2353;
1225.8000;0.7131;1.2452;
1226.1000;0.7123;1.2402;
1226.4000;0.7123;1.2452;
1226.7000;0.7123;1.2452;
1227.0000;0.7114;1.2378;
1227.3000;0.7123;1.2402;
1227.6000;0.7131;1.2402;
1227.9000;0.7123;1.2353;
1228.2000;0.7131;1.2402;
1228.5000;0.7163;1.2427;
1228.8000;0.7155;1.2402;
1229.1000;0.7090;1.2304;
1229.4000;0.7114;1.2353;
1229.7000;0.7114;1.2378;
1230.0000;0.7131;1.2452;
1230.3000;0.7123;1.2378;
1230.6000;0.7163;1.2525;
1230.9000;0.7139;1.2402;
1231.2000;0.7131;1.2427;
1231.5000;0.7139;1.2427;
1231.8000;0.7082;1.2329;
1232.1000;0.7131;1.2427;
1232.4000;0.7147;1.2402;
1232.7000;0.7082;1.2206;
1233.0000;0.7123;1.2255;
1233.3000;0.7131;1.2279;
1233.6000;0.7139;1.2378;
1233.9000;0.7155;1.2476;
1234.2000;0.7114;1.2452;
1234.5000;0.7066;1.2255;
1234.8000;0.7139;1.2427;
1235.1000;0.7204;1.2575;
1235.4000;0.7123;1.2304;
1235.7000;0.7123;1.2402;
1236.0000;0.7155;1.2501;
1236.3000;0.7123;1.2501;
1236.6000;0.7090;1.2402;
1236.9000;0.7163;1.2624;
1237.2000;0.7139;1.2575;
1237.5000;0.7163;1.2648;
1237.8000;0.7131;1.2550;
1238.1000;0.7212;1.2698;
1238.4000;0.7147;1.2501;
1238.7000;0.7163;1.2550;
1239.0000;0.7114;1.2476;
1239.3000;0.7114;1.2476;
1239.6000;0.7106;1.2353;
1239.9000;0.7106;1.2304;
1240.2000;0.7131;1.2329;
1240.5000;0.7106;1.2255;
1240.8000;0.7123;1.2353;
1241.1000;0.7123;1.2353;
1241.4000;0.7245;1.2747;
1241.7000;0.7131;1.2378;
1242.0000;0.7139;1.2427;
1242.3000;0.7114;1.2378;
1242.6000;0.7147;1.2476;
1242.9000;0.7123;1.2402;
1243.2000;0.7123;1.2427;
1243.5000;0.7131;1.2501;
1243.8000;0.7106;1.2427;
1244.1000;0.7139;1.2501;
1244.4000;0.7139;1.2476;
1244.7000;0.7131;1.2476;
1245.0000;0.7123;1.2402;
1245.3000;0.7106;1.2329;
1245.6000;0.7147;1.2402;
1245.9000;0.7123;1.2378;
1246.2000;0.7139;1.2402;
1246.5000;0.7131;1.2525;
1246.8000;0.7163;1.2525;
1247.1000;0.7123;1.2575;
1247.4000;0.7139;1.2624;
1247.7000;0.7147;1.2599;
1248.0000;0.7155;1.2525;
1248.3000;0.7155;1.2501;
1248.6000;0.7139;1.2452;
1248.9000;0.7147;1.2402;
1249.2000;0.7163;1.2427;
1249.5000;0.7131;1.2353;
1249.8000;0.7131;1.2353;
1250.1000;0.7139;1.2402;
1250.4000;0.7139;1.2378;
1250.7000;0.7155;1.2402;
1251.0000;0.7188;1.2353;
1251.3000;0.7139;1.2230;
1251.6000;0.7066;1.2107;
1251.9000;0.7123;1.2132;
1252.2000;0.7123;1.2156;
1252.5000;0.7114;1.2279;
1252.8000;0.7139;1.2353;
1253.1000;0.7114;1.2255;
1253.4000;0.7139;1.2230;
1253.7000;0.7131;1.2206;
1254.0000;0.7090;1.2009;
1254.3000;0.7147;1.2033;
1254.6000;0.7139;1.1959;
1254.9000;0.7114;1.1886;
1255.2000;0.7123;1.1910;
1255.5000;0.7139;1.1959;
1255.8000;0.7114;1.1886;
1256.1000;0.7123;1.1886;
1256.4000;0.7123;1.1861;
1256.7000;0.7131;1.1935;
1257.0000;0.7171;1.2058;
1257.3000;0.7139;1.2082;
1257.6000;0.7074;1.2033;
1257.9000;0.7106;1.2132;
1258.2000;0.7131;1.2156;
1258.5000;0.7131;1.2132;
1258.8000;0.7139;1.2206;
1259.1000;0.7155;1.2255;
1259.4000;0.7123;1.2329;
1259.7000;0.7147;1.2452;
1260.0000;0.7114;1.2378;
1260.3000;0.7139;1.2402;
1260.6000;0.7139;1.2353;
1260.9000;0.7114;1.2353;
1261.2000;0.7123;1.2378;
1261.5000;0.7123;1.2353;
1261.8000;0.7147;1.2452;
1262.1000;0.7155;1.2452;
1262.4000;0.7082;1.2181;
1262.7000;0.7025;1.1959;
1263.0000;0.7114;1.2230;
1263.3000;0.7147;1.2353;
1263.6000;0.7131;1.2304;
1263.9000;0.7123;1.2329;
1264.2000;0.7074;1.2156;
1264.5000;0.7220;1.2525;
1264.8000;0.7131;1.2255;
1265.1000;0.7139;1.2329;
1265.4000;0.7123;1.2255;
1265.7000;0.7123;1.2230;
1266.0000;0.7147;1.2279;
1266.3000;0.7155;1.2304;
1266.6000;0.7082;1.2181;
1266.9000;0.7139;1.2304;
1267.2000;0.7139;1.2279;
1267.5000;0.7139;1.2304;
1267.8000;0.7139;1.2304;
1268.1000;0.7139;1.2353;
1268.4000;0.7114;1.2304;
1268.7000;0.7123;1.2378;
1269.0000;0.7114;1.2279;
1269.3000;0.7139;1.2304;
1269.6000;0.7139;1.2230;
1269.9000;0.7147;1.2279;
1270.2000;0.7155;1.2353;
1270.5000;0.7147;1.2427;
1270.8000;0.7131;1.2353;
1271.1000;0.7131;1.2402;
1271.4000;0.7114;1.2427;
1271.7000;0.7123;1.2476;
1272.0000;0.7123;1.2452;
1272.3000;0.7131;1.2452;
1272.6000;0.7139;1.2575;
1272.9000;0.7123;1.2550;
1273.2000;0.7090;1.2452;
1273.5000;0.7114;1.2525;
1273.8000;0.7163;1.2575;
1274.1000;0.7131;1.2476;
1274.4000;0.7139;1.2476;
1274.7000;0.7155;1.2501;
1275.0000;0.7131;1.2501;
1275.3000;0.7139;1.2599;
1275.6000;0.7147;1.2648;
1275.9000;0.7139;1.2550;
1276.2000;0.7131;1.2501;
1276.5000;0.7147;1.2550;
1276.8000;0.7147;1.2599;
1277.1000;0.7131;1.2452;
1277.4000;0.7163;1.2402;
1277.7000;0.7123;1.2353;
1278.0000;0.7114;1.2304;
1278.3000;0.7131;1.2329;
1278.6000;0.7147;1.2378;
1278.9000;0.7131;1.2378;
1279.2000;0.7139;1.2329;
1279.5000;0.7131;1.2353;
1279.8000;0.7114;1.2378;
1280.1000;0.7123;1.2353;
1280.4000;0.7131;1.2329;
1280.7000;0.7147;1.2304;
1281.0000;0.7139;1.2255;
1281.3000;0.7131;1.2230;
1281.6000;0.7139;1.2181;
1281.9000;0.7131;1.2255;
1282.2000;0.7139;1.2279;
1282.5000;0.7131;1.2279;
1282.8000;0.7163;1.2255;
1283.1000;0.7131;1.2230;
1283.4000;0.7131;1.2279;
1283.7000;0.7098;1.2255;
1284.0000;0.7123;1.2378;
1284.3000;0.7114;1.2329;
1284.6000;0.7123;1.2353;
1284.9000;0.7123;1.2378;
1285.2000;0.7147;1.2525;
1285.5000;0.7155;1.2452;
1285.8000;0.7131;1.2378;
1286.1000;0.7139;1.2329;
1286.4000;0.7139;1.2255;
1286.7000;0.7139;1.2181;
1287.0000;0.7114;1.2132;
1287.3000;0.7139;1.2230;
1287.6000;0.7139;1.2230;
1287.9000;0.7123;1.2230;
1288.2000;0.7123;1.2181;
1288.5000;0.7188;1.2353;
1288.8000;0.7123;1.2206;
1289.1000;0.7139;1.2255;
1289.4000;0.7123;1.2230;
1289.7000;0.7123;1.2329;
1290.0000;0.7123;1.2304;
1290.3000;0.7147;1.2304;
1290.6000;0.7123;1.2304;
1290.9000;0.7139;1.2353;
1291.2000;0.7106;1.2353;
1291.5000;0.7131;1.2427;
1291.8000;0.7131;1.2427;
1292.1000;0.7106;1.2525;
1292.4000;0.7123;1.2525;
1292.7000;0.7123;1.2452;
1293.0000;0.7123;1.2353;
1293.3000;0.7114;1.2279;
1293.6000;0.7106;1.2353;
1293.9000;0.7123;1.2452;
1294.2000;0.7131;1.2525;
1294.5000;0.7114;1.2550;
1294.8000;0.7131;1.2673;
1295.1000;0.7131;1.2673;
1295.4000;0.7123;1.2698;
1295.7000;0.7123;1.2673;
1296.0000;0.7123;1.2648;
1296.3000;0.7123;1.2624;
1296.6000;0.7123;1.2648;
1296.9000;0.7123;1.2599;
1297.2000;0.7123;1.2427;
1297.5000;0.7123;1.2427;
1297.8000;0.7139;1.2476;
1298.1000;0.7171;1.2550;
1298.4000;0.7171;1.2525;
1298.7000;0.7131;1.2378;
1299.0000;0.7123;1.2402;
1299.3000;0.7123;1.2353;
1299.6000;0.7131;1.2279;
1299.9000;0.7131;1.2279;
1300.2000;0.7139;1.2279;
1300.5000;0.7082;1.2107;
1300.8000;0.7131;1.2181;
1301.1000;0.7131;1.2107;
1301.4000;0.7171;1.2181;
1301.7000;0.7131;1.2181;
1302.0000;0.7139;1.2304;
1302.3000;0.7139;1.2279;
1302.6000;0.7123;1.2304;
1302.9000;0.7131;1.2353;
1303.2000;0.7131;1.2329;
1303.5000;0.7106;1.2279;
1303.8000;0.7106;1.2304;
1304.1000;0.7131;1.2353;
1304.4000;0.7147;1.2329;
1304.7000;0.7131;1.2279;
1305.0000;0.7114;1.2206;
1305.3000;0.7131;1.2156;
1305.6000;0.7131;1.2156;
1305.9000;0.7139;1.2279;
1306.2000;0.7131;1.2304;
1306.5000;0.7123;1.2329;
1306.8000;0.7106;1.2255;
1307.1000;0.7147;1.2304;
1307.4000;0.7123;1.2230;
1307.7000;0.7114;1.2230;
1308.0000;0.7139;1.2230;
1308.3000;0.7171;1.2353;
1308.6000;0.7131;1.2304;
1308.9000;0.7139;1.2279;
1309.2000;0.7147;1.2329;
1309.5000;0.7163;1.2329;
1309.8000;0.7139;1.2279;
1310.1000;0.7114;1.2255;
1310.4000;0.7131;1.2255;
1310.7000;0.7139;1.2279;
1311.0000;0.7139;1.2279;
1311.3000;0.7123;1.2329;
1311.6000;0.7098;1.2329;
1311.9000;0.7139;1.2402;
1312.2000;0.7139;1.2378;
1312.5000;0.7171;1.2452;
1312.8000;0.7131;1.2353;
1313.1000;0.7147;1.2353;
1313.4000;0.7131;1.2279;
1313.7000;0.7147;1.2255;
1314.0000;0.7131;1.2181;
1314.3000;0.7123;1.2156;
1314.6000;0.7139;1.2279;
1314.9000;0.7131;1.2353;
1315.2000;0.7114;1.2255;
1315.5000;0.7123;1.2378;
1315.8000;0.7114;1.2427;
1316.1000;0.7139;1.2452;
1316.4000;0.7212;1.2575;
1316.7000;0.7098;1.2378;
1317.0000;0.7131;1.2476;
1317.3000;0.7204;1.2722;
1317.6000;0.7147;1.2599;
1317.9000;0.7123;1.2550;
1318.2000;0.7106;1.2550;
1318.5000;0.7147;1.2698;
1318.8000;0.7114;1.2575;
1319.1000;0.7114;1.2525;
1319.4000;0.7114;1.2501;
1319.7000;0.7131;1.2452;
1320.0000;0.7131;1.2427;
1320.3000;0.7114;1.2353;
1320.6000;0.7041;1.2181;
1320.9000;0.7131;1.2402;
1321.2000;0.7139;1.2452;
1321.5000;0.7139;1.2402;
1321.8000;0.7163;1.2525;
1322.1000;0.7131;1.2525;
1322.4000;0.7131;1.2575;
1322.7000;0.7114;1.2599;
1323.0000;0.7131;1.2673;
1323.3000;0.7131;1.2550;
1323.6000;0.7131;1.2452;
1323.9000;0.7139;1.2427;
1324.2000;0.7114;1.2378;
1324.5000;0.7139;1.2427;
1324.8000;0.7123;1.2476;
1325.1000;0.7139;1.2525;
1325.4000;0.7114;1.2452;
1325.7000;0.7131;1.2550;
1326.0000;0.7131;1.2599;
1326.3000;0.7131;1.2599;
1326.6000;0.7123;1.2575;
1326.9000;0.7114;1.2476;
1327.2000;0.7098;1.2427;
1327.5000;0.7131;1.2452;
1327.8000;0.7106;1.2402;
1328.1000;0.7123;1.2402;
1328.4000;0.7139;1.2452;
1328.7000;0.7131;1.2402;
1329.0000;0.7123;1.2402;
1329.3000;0.7179;1.2501;
1329.6000;0.7114;1.2279;
1329.9000;0.7139;1.2279;
1330.2000;0.7139;1.2329;
1330.5000;0.7123;1.2353;
1330.8000;0.7106;1.2304;
1331.1000;0.7025;1.2082;
1331.4000;0.7106;1.2353;
1331.7000;0.7098;1.2353;
1332.0000;0.7106;1.2304;
1332.3000;0.7098;1.2206;
1332.6000;0.7147;1.2353;
1332.9000;0.7139;1.2329;
1333.2000;0.7179;1.2402;
1333.5000;0.7106;1.2181;
1333.8000;0.7131;1.2279;
1334.1000;0.7123;1.2304;
1334.4000;0.7155;1.2476;
1334.7000;0.7114;1.2525;
1335.0000;0.7139;1.2575;
1335.3000;0.7114;1.2525;
1335.6000;0.7123;1.2501;
1335.9000;0.7106;1.2476;
1336.2000;0.7139;1.2476;
1336.5000;0.7114;1.2427;
1336.8000;0.7114;1.2353;
1337.1000;0.7131;1.2304;
1337.4000;0.7171;1.2304;
1337.7000;0.7155;1.2230;
1338.0000;0.7139;1.2279;
1338.3000;0.7098;1.2181;
1338.6000;0.7123;1.2058;
1338.9000;0.7123;1.2107;
1339.2000;0.7131;1.2181;
1339.5000;0.7114;1.2181;
1339.8000;0.7098;1.2082;
1340.1000;0.7171;1.2304;
1340.4000;0.7131;1.2107;
1340.7000;0.7131;1.2058;
1341.0000;0.7123;1.2033;
1341.3000;0.7114;1.2082;
1341.6000;0.7131;1.2206;
1341.9000;0.7139;1.2255;
1342.2000;0.7114;1.2206;
1342.5000;0.7114;1.2181;
1342.8000;0.7131;1.2255;
1343.1000;0.7123;1.2279;
1343.4000;0.7139;1.2329;
1343.7000;0.7098;1.2279;
1344.0000;0.7163;1.2525;
1344.3000;0.7147;1.2501;
1344.6000;0.7131;1.2427;
1344.9000;0.7131;1.2452;
1345.2000;0.7066;1.2279;
1345.5000;0.7139;1.2476;
1345.8000;0.7171;1.2550;
1346.1000;0.7114;1.2378;
1346.4000;0.7114;1.2329;
1346.7000;0.7114;1.2329;
1347.0000;0.7131;1.2304;
1347.3000;0.7106;1.2255;
1347.6000;0.7131;1.2304;
1347.9000;0.7131;1.2427;
1348.2000;0.7074;1.2378;
1348.5000;0.7131;1.2476;
1348.8000;0.7090;1.2353;
1349.1000;0.7131;1.2378;
1349.4000;0.7147;1.2353;
1349.7000;0.7139;1.2304;
1350.0000;0.7123;1.2279;
1350.3000;0.7147;1.2353;
1350.6000;0.7139;1.2402;
1350.9000;0.7147;1.2427;
1351.2000;0.7123;1.2353;
1351.5000;0.7123;1.2402;
1351.8000;0.7204;1.2550;
1352.1000;0.7204;1.2575;
1352.4000;0.7139;1.2427;
1352.7000;0.7074;1.2279;
1353.0000;0.7123;1.2378;
1353.3000;0.7090;1.2378;
1353.6000;0.7131;1.2501;
1353.9000;0.7123;1.2550;
1354.2000;0.7106;1.2501;
1354.5000;0.7131;1.2501;
1354.8000;0.7123;1.2525;
1355.1000;0.7131;1.2599;
1355.4000;0.7057;1.2501;
1355.7000;0.7131;1.2648;
1356.0000;0.7131;1.2550;
1356.3000;0.7074;1.2304;
1356.6000;0.7114;1.2476;
1356.9000;0.7131;1.2599;
1357.2000;0.7106;1.2476;
1357.5000;0.7114;1.2476;
1357.8000;0.7057;1.2353;
1358.1000;0.7114;1.2525;
1358.4000;0.7123;1.2525;
1358.7000;0.7123;1.2501;
1359.0000;0.7123;1.2427;
1359.3000;0.7090;1.2378;
1359.6000;0.7131;1.2476;
1359.9000;0.7163;1.2525;
1360.2000;0.7123;1.2402;
1360.5000;0.7114;1.2329;
1360.8000;0.7114;1.2304;
1361.1000;0.7114;1.2353;
1361.4000;0.7123;1.2353;
1361.7000;0.7025;1.2058;
1362.0000;0.7057;1.2107;
1362.3000;0.7139;1.2255;
1362.6000;0.7114;1.2206;
1362.9000;0.7049;1.2009;
1363.2000;0.7196;1.2452;
1363.5000;0.7131;1.2230;
1363.8000;0.7123;1.2181;
1364.1000;0.7139;1.2255;
1364.4000;0.7131;1.2255;
1364.7000;0.7131;1.2304;
1365.0000;0.7131;1.2329;
1365.3000;0.7114;1.2329;
1365.6000;0.7114;1.2304;
1365.9000;0.7139;1.2304;
1366.2000;0.7139;1.2255;
1366.5000;0.7106;1.2181;
1366.8000;0.7147;1.2353;
1367.1000;0.7163;1.2501;
1367.4000;0.7123;1.2501;
1367.7000;0.7114;1.2476;
1368.0000;0.7106;1.2624;
1368.3000;0.7123;1.2648;
1368.6000;0.7131;1.2673;
1368.9000;0.7220;1.2870;
1369.2000;0.7106;1.2575;
1369.5000;0.7123;1.2648;
1369.8000;0.7082;1.2525;
1370.1000;0.7114;1.2648;
1370.4000;0.7147;1.2599;
1370.7000;0.7139;1.2525;
1371.0000;0.7131;1.2501;
1371.3000;0.7131;1.2476;
1371.6000;0.7123;1.2525;
1371.9000;0.7114;1.2525;
1372.2000;0.7155;1.2648;
1372.5000;0.7114;1.2550;
1372.8000;0.7155;1.2599;
1373.1000;0.7139;1.2501;
1373.4000;0.7155;1.2599;
1373.7000;0.7123;1.2550;
1374.0000;0.7131;1.2599;
1374.3000;0.7090;1.2402;
1374.6000;0.7123;1.2501;
1374.9000;0.7123;1.2476;
1375.2000;0.7123;1.2501;
1375.5000;0.7123;1.2550;
1375.8000;0.7139;1.2575;
1376.1000;0.7131;1.2550;
1376.4000;0.7171;1.2575;
1376.7000;0.7114;1.2353;
1377.0000;0.7123;1.2427;
1377.3000;0.7147;1.2452;
1377.6000;0.7131;1.2402;
1377.9000;0.7131;1.2427;
1378.2000;0.7123;1.2476;
1378.5000;0.7139;1.2452;
1378.8000;0.7114;1.2329;
1379.1000;0.7123;1.2329;
1379.4000;0.7131;1.2427;
1379.7000;0.7114;1.2501;
1380.0000;0.7139;1.2550;
1380.3000;0.7131;1.2501;
1380.6000;0.7114;1.2476;
1380.9000;0.7139;1.2550;
1381.2000;0.7131;1.2476;
1381.5000;0.7139;1.2501;
1381.8000;0.7106;1.2501;
1382.1000;0.7123;1.2624;
1382.4000;0.7106;1.2599;
1382.7000;0.7131;1.2673;
1383.0000;0.7131;1.2624;
1383.3000;0.7114;1.2673;
1383.6000;0.7131;1.2648;
1383.9000;0.7123;1.2550;
1384.2000;0.7131;1.2550;
1384.5000;0.7114;1.2501;
1384.8000;0.7114;1.2427;
1385.1000;0.7123;1.2501;
1385.4000;0.7123;1.2525;
1385.7000;0.7114;1.2525;
1386.0000;0.7131;1.2525;
1386.3000;0.7123;1.2476;
1386.6000;0.7131;1.2575;
1386.9000;0.7114;1.2501;
1387.2000;0.7123;1.2525;
1387.5000;0.7131;1.2575;
1387.8000;0.7123;1.2550;
1388.1000;0.7123;1.2525;
1388.4000;0.7123;1.2452;
1388.7000;0.7123;1.2476;
1389.0000;0.7131;1.2427;
1389.3000;0.7139;1.2378;
1389.6000;0.7131;1.2329;
1389.9000;0.7123;1.2304;
1390.2000;0.7131;1.2353;
1390.5000;0.7131;1.2353;
1390.8000;0.7114;1.2427;
1391.1000;0.7106;1.2378;
1391.4000;0.7123;1.2427;
1391.7000;0.7163;1.2550;
1392.0000;0.7131;1.2452;
1392.3000;0.7131;1.2427;
1392.6000;0.7123;1.2452;
1392.9000;0.7139;1.2476;
1393.2000;0.7131;1.2452;
1393.5000;0.7123;1.2452;
1393.8000;0.7106;1.2452;
1394.1000;0.7131;1.2452;
1394.4000;0.7114;1.2476;
1394.7000;0.7106;1.2427;
1395.0000;0.7114;1.2452;
1395.3000;0.7114;1.2501;
1395.6000;0.7114;1.2427;
1395.9000;0.7106;1.2402;
1396.2000;0.7114;1.2402;
1396.5000;0.7114;1.2378;
1396.8000;0.7131;1.2452;
1397.1000;0.7139;1.2525;
1397.4000;0.7123;1.2402;
1397.7000;0.7147;1.2476;
1398.0000;0.7131;1.2476;
1398.3000;0.7131;1.2501;
1398.6000;0.7123;1.2550;
1398.9000;0.7114;1.2550;
1399.2000;0.7171;1.2648;
1399.5000;0.7131;1.2501;
1399.8000;0.7123;1.2476;
